time/ms;Fluo/V;P700 deltaI/I x10³;
-199.8000;0.8531;-0.0474;
-199.5000;0.8523;-0.0569;
-199.2000;0.8531;-0.0640;
-198.9000;0.8547;-0.0711;
-198.6000;0.8531;-0.0782;
-198.3000;0.8539;-0.0687;
-198.0000;0.8571;-0.0616;
-197.7000;0.8531;-0.0734;
-197.4000;0.8474;-0.0829;
-197.1000;0.8514;-0.0711;
-196.8000;0.8531;-0.0758;
-196.5000;0.8523;-0.0711;
-196.2000;0.8539;-0.0640;
-195.9000;0.8514;-0.0663;
-195.6000;0.8506;-0.0758;
-195.3000;0.8547;-0.0687;
-195.0000;0.8539;-0.0734;
-194.7000;0.8523;-0.0734;
-194.4000;0.8506;-0.0782;
-194.1000;0.8523;-0.0711;
-193.8000;0.8547;-0.0687;
-193.5000;0.8547;-0.0640;
-193.2000;0.8531;-0.0711;
-192.9000;0.8523;-0.0853;
-192.6000;0.8555;-0.0758;
-192.3000;0.8531;-0.0806;
-192.0000;0.8474;-0.0900;
-191.7000;0.8523;-0.0806;
-191.4000;0.8555;-0.0663;
-191.1000;0.8539;-0.0616;
-190.8000;0.8514;-0.0734;
-190.5000;0.8531;-0.0758;
-190.2000;0.8531;-0.0900;
-189.9000;0.8539;-0.0853;
-189.6000;0.8523;-0.0758;
-189.3000;0.8523;-0.0782;
-189.0000;0.8555;-0.0687;
-188.7000;0.8547;-0.0616;
-188.4000;0.8539;-0.0711;
-188.1000;0.8498;-0.0924;
-187.8000;0.8539;-0.0900;
-187.5000;0.8539;-0.0900;
-187.2000;0.8539;-0.0924;
-186.9000;0.8523;-0.1042;
-186.6000;0.8580;-0.0877;
-186.3000;0.8523;-0.1019;
-186.0000;0.8523;-0.1066;
-185.7000;0.8523;-0.1090;
-185.4000;0.8531;-0.1114;
-185.1000;0.8531;-0.1090;
-184.8000;0.8531;-0.1019;
-184.5000;0.8539;-0.0900;
-184.2000;0.8531;-0.0924;
-183.9000;0.8531;-0.0971;
-183.6000;0.8490;-0.1090;
-183.3000;0.8531;-0.1066;
-183.0000;0.8506;-0.1090;
-182.7000;0.8523;-0.1019;
-182.4000;0.8539;-0.0971;
-182.1000;0.8433;-0.1161;
-181.8000;0.8514;-0.1042;
-181.5000;0.8514;-0.1066;
-181.2000;0.8539;-0.1042;
-180.9000;0.8506;-0.1137;
-180.6000;0.8539;-0.1137;
-180.3000;0.8523;-0.1090;
-180.0000;0.8531;-0.1042;
-179.7000;0.8547;-0.0971;
-179.4000;0.8539;-0.0877;
-179.1000;0.8514;-0.0877;
-178.8000;0.8514;-0.0829;
-178.5000;0.8539;-0.0806;
-178.2000;0.8547;-0.0853;
-177.9000;0.8539;-0.0853;
-177.6000;0.8523;-0.0829;
-177.3000;0.8523;-0.0829;
-177.0000;0.8474;-0.1042;
-176.7000;0.8531;-0.0948;
-176.4000;0.8523;-0.0971;
-176.1000;0.8514;-0.1019;
-175.8000;0.8539;-0.0995;
-175.5000;0.8506;-0.0948;
-175.2000;0.8531;-0.0900;
-174.9000;0.8547;-0.0877;
-174.6000;0.8539;-0.0853;
-174.3000;0.8539;-0.0829;
-174.0000;0.8514;-0.0829;
-173.7000;0.8539;-0.0853;
-173.4000;0.8547;-0.0853;
-173.1000;0.8531;-0.0853;
-172.8000;0.8523;-0.0853;
-172.5000;0.8514;-0.0853;
-172.2000;0.8523;-0.0782;
-171.9000;0.8531;-0.0758;
-171.6000;0.8514;-0.0782;
-171.3000;0.8523;-0.0782;
-171.0000;0.8523;-0.0711;
-170.7000;0.8539;-0.0758;
-170.4000;0.8539;-0.0711;
-170.1000;0.8531;-0.0782;
-169.8000;0.8531;-0.0782;
-169.5000;0.8547;-0.0829;
-169.2000;0.8547;-0.0829;
-168.9000;0.8523;-0.0829;
-168.6000;0.8539;-0.0853;
-168.3000;0.8539;-0.0829;
-168.0000;0.8531;-0.0877;
-167.7000;0.8539;-0.0948;
-167.4000;0.8539;-0.0948;
-167.1000;0.8514;-0.0900;
-166.8000;0.8539;-0.0900;
-166.5000;0.8514;-0.1042;
-166.2000;0.8514;-0.0971;
-165.9000;0.8531;-0.0877;
-165.6000;0.8531;-0.0900;
-165.3000;0.8531;-0.0924;
-165.0000;0.8523;-0.0900;
-164.7000;0.8514;-0.0924;
-164.4000;0.8539;-0.0853;
-164.1000;0.8555;-0.0829;
-163.8000;0.8531;-0.0924;
-163.5000;0.8539;-0.0877;
-163.2000;0.8531;-0.0877;
-162.9000;0.8514;-0.0900;
-162.6000;0.8531;-0.0900;
-162.3000;0.8539;-0.0924;
-162.0000;0.8555;-0.0853;
-161.7000;0.8547;-0.0829;
-161.4000;0.8547;-0.0734;
-161.1000;0.8531;-0.0711;
-160.8000;0.8531;-0.0711;
-160.5000;0.8539;-0.0711;
-160.2000;0.8514;-0.0687;
-159.9000;0.8547;-0.0687;
-159.6000;0.8531;-0.0711;
-159.3000;0.8531;-0.0663;
-159.0000;0.8531;-0.0592;
-158.7000;0.8523;-0.0640;
-158.4000;0.8539;-0.0687;
-158.1000;0.8539;-0.0734;
-157.8000;0.8539;-0.0734;
-157.5000;0.8490;-0.0782;
-157.2000;0.8531;-0.0782;
-156.9000;0.8523;-0.0782;
-156.6000;0.8531;-0.0687;
-156.3000;0.8514;-0.0734;
-156.0000;0.8523;-0.0782;
-155.7000;0.8523;-0.0877;
-155.4000;0.8539;-0.0829;
-155.1000;0.8547;-0.0782;
-154.8000;0.8531;-0.0900;
-154.5000;0.8531;-0.0971;
-154.2000;0.8523;-0.0877;
-153.9000;0.8539;-0.0877;
-153.6000;0.8506;-0.0853;
-153.3000;0.8523;-0.0853;
-153.0000;0.8523;-0.0877;
-152.7000;0.8531;-0.0877;
-152.4000;0.8539;-0.0924;
-152.1000;0.8539;-0.0971;
-151.8000;0.8531;-0.1066;
-151.5000;0.8539;-0.1042;
-151.2000;0.8539;-0.0971;
-150.9000;0.8539;-0.0853;
-150.6000;0.8531;-0.0853;
-150.3000;0.8539;-0.0829;
-150.0000;0.8506;-0.0900;
-149.7000;0.8523;-0.0829;
-149.4000;0.8523;-0.0853;
-149.1000;0.8531;-0.0806;
-148.8000;0.8523;-0.0782;
-148.5000;0.8514;-0.0734;
-148.2000;0.8531;-0.0782;
-147.9000;0.8523;-0.0758;
-147.6000;0.8539;-0.0758;
-147.3000;0.8514;-0.0829;
-147.0000;0.8514;-0.0806;
-146.7000;0.8531;-0.0877;
-146.4000;0.8531;-0.0829;
-146.1000;0.8547;-0.0758;
-145.8000;0.8506;-0.0806;
-145.5000;0.8523;-0.0734;
-145.2000;0.8523;-0.0734;
-144.9000;0.8571;-0.0663;
-144.6000;0.8523;-0.0782;
-144.3000;0.8563;-0.0711;
-144.0000;0.8514;-0.0806;
-143.7000;0.8539;-0.0687;
-143.4000;0.8539;-0.0640;
-143.1000;0.8531;-0.0663;
-142.8000;0.8539;-0.0687;
-142.5000;0.8555;-0.0687;
-142.2000;0.8482;-0.0948;
-141.9000;0.8539;-0.0711;
-141.6000;0.8539;-0.0663;
-141.3000;0.8523;-0.0734;
-141.0000;0.8571;-0.0616;
-140.7000;0.8506;-0.0782;
-140.4000;0.8539;-0.0758;
-140.1000;0.8531;-0.0806;
-139.8000;0.8523;-0.0782;
-139.5000;0.8514;-0.0877;
-139.2000;0.8539;-0.0877;
-138.9000;0.8531;-0.0924;
-138.6000;0.8514;-0.1042;
-138.3000;0.8523;-0.1114;
-138.0000;0.8531;-0.1114;
-137.7000;0.8523;-0.1114;
-137.4000;0.8523;-0.1114;
-137.1000;0.8547;-0.0995;
-136.8000;0.8531;-0.0924;
-136.5000;0.8547;-0.0829;
-136.2000;0.8531;-0.0877;
-135.9000;0.8531;-0.0877;
-135.6000;0.8514;-0.0829;
-135.3000;0.8514;-0.0829;
-135.0000;0.8506;-0.0853;
-134.7000;0.8531;-0.0782;
-134.4000;0.8449;-0.0948;
-134.1000;0.8523;-0.0782;
-133.8000;0.8523;-0.0758;
-133.5000;0.8547;-0.0734;
-133.2000;0.8457;-0.0924;
-132.9000;0.8506;-0.0853;
-132.6000;0.8539;-0.0829;
-132.3000;0.8523;-0.0877;
-132.0000;0.8539;-0.0853;
-131.7000;0.8514;-0.0877;
-131.4000;0.8514;-0.0877;
-131.1000;0.8531;-0.0948;
-130.8000;0.8531;-0.0995;
-130.5000;0.8514;-0.1019;
-130.2000;0.8531;-0.0900;
-129.9000;0.8531;-0.0948;
-129.6000;0.8523;-0.1042;
-129.3000;0.8539;-0.0971;
-129.0000;0.8474;-0.1161;
-128.7000;0.8506;-0.1090;
-128.4000;0.8523;-0.1090;
-128.1000;0.8523;-0.1042;
-127.8000;0.8514;-0.0995;
-127.5000;0.8506;-0.0877;
-127.2000;0.8531;-0.0806;
-126.9000;0.8514;-0.0829;
-126.6000;0.8523;-0.0853;
-126.3000;0.8441;-0.1019;
-126.0000;0.8531;-0.0853;
-125.7000;0.8539;-0.0948;
-125.4000;0.8539;-0.0995;
-125.1000;0.8555;-0.1019;
-124.8000;0.8523;-0.1090;
-124.5000;0.8547;-0.1019;
-124.2000;0.8531;-0.1019;
-123.9000;0.8514;-0.0971;
-123.6000;0.8539;-0.1019;
-123.3000;0.8506;-0.1114;
-123.0000;0.8523;-0.1042;
-122.7000;0.8523;-0.1137;
-122.4000;0.8514;-0.1114;
-122.1000;0.8531;-0.0948;
-121.8000;0.8531;-0.0995;
-121.5000;0.8523;-0.0995;
-121.2000;0.8539;-0.0853;
-120.9000;0.8523;-0.0853;
-120.6000;0.8539;-0.0877;
-120.3000;0.8531;-0.0853;
-120.0000;0.8531;-0.0924;
-119.7000;0.8547;-0.0853;
-119.4000;0.8547;-0.0806;
-119.1000;0.8523;-0.0853;
-118.8000;0.8531;-0.0900;
-118.5000;0.8539;-0.0853;
-118.2000;0.8539;-0.0877;
-117.9000;0.8539;-0.0948;
-117.6000;0.8588;-0.0806;
-117.3000;0.8539;-0.0924;
-117.0000;0.8523;-0.1066;
-116.7000;0.8547;-0.0948;
-116.4000;0.8539;-0.0995;
-116.1000;0.8523;-0.0995;
-115.8000;0.8531;-0.0948;
-115.5000;0.8547;-0.0806;
-115.2000;0.8539;-0.0806;
-114.9000;0.8531;-0.0877;
-114.6000;0.8531;-0.0806;
-114.3000;0.8531;-0.0782;
-114.0000;0.8531;-0.0734;
-113.7000;0.8539;-0.0758;
-113.4000;0.8531;-0.0806;
-113.1000;0.8539;-0.0758;
-112.8000;0.8547;-0.0734;
-112.5000;0.8523;-0.0711;
-112.2000;0.8531;-0.0782;
-111.9000;0.8523;-0.0806;
-111.6000;0.8539;-0.0734;
-111.3000;0.8539;-0.0758;
-111.0000;0.8531;-0.0782;
-110.7000;0.8628;-0.0592;
-110.4000;0.8539;-0.0782;
-110.1000;0.8555;-0.0806;
-109.8000;0.8539;-0.0900;
-109.5000;0.8490;-0.0995;
-109.2000;0.8547;-0.0900;
-108.9000;0.8523;-0.0924;
-108.6000;0.8531;-0.0829;
-108.3000;0.8523;-0.0782;
-108.0000;0.8523;-0.0734;
-107.7000;0.8539;-0.0734;
-107.4000;0.8514;-0.0711;
-107.1000;0.8523;-0.0687;
-106.8000;0.8531;-0.0687;
-106.5000;0.8523;-0.0758;
-106.2000;0.8539;-0.0829;
-105.9000;0.8523;-0.0924;
-105.6000;0.8514;-0.0877;
-105.3000;0.8514;-0.0853;
-105.0000;0.8514;-0.0877;
-104.7000;0.8506;-0.0853;
-104.4000;0.8514;-0.0829;
-104.1000;0.8539;-0.0758;
-103.8000;0.8514;-0.0734;
-103.5000;0.8531;-0.0687;
-103.2000;0.8588;-0.0498;
-102.9000;0.8531;-0.0640;
-102.6000;0.8531;-0.0663;
-102.3000;0.8539;-0.0663;
-102.0000;0.8523;-0.0687;
-101.7000;0.8514;-0.0711;
-101.4000;0.8539;-0.0663;
-101.1000;0.8539;-0.0592;
-100.8000;0.8539;-0.0616;
-100.5000;0.8531;-0.0640;
-100.2000;0.8531;-0.0711;
-99.9000;0.8523;-0.0711;
-99.6000;0.8523;-0.0853;
-99.3000;0.8514;-0.0877;
-99.0000;0.8514;-0.0877;
-98.7000;0.8490;-0.0900;
-98.4000;0.8514;-0.0782;
-98.1000;0.8547;-0.0711;
-97.8000;0.8531;-0.0711;
-97.5000;0.8531;-0.0640;
-97.2000;0.8523;-0.0663;
-96.9000;0.8506;-0.0734;
-96.6000;0.8531;-0.0734;
-96.3000;0.8628;-0.0498;
-96.0000;0.8547;-0.0687;
-95.7000;0.8539;-0.0687;
-95.4000;0.8588;-0.0569;
-95.1000;0.8555;-0.0711;
-94.8000;0.8555;-0.0711;
-94.5000;0.8531;-0.0758;
-94.2000;0.8539;-0.0687;
-93.9000;0.8482;-0.0806;
-93.6000;0.8514;-0.0782;
-93.3000;0.8506;-0.0829;
-93.0000;0.8514;-0.0829;
-92.7000;0.8514;-0.0734;
-92.4000;0.8539;-0.0616;
-92.1000;0.8531;-0.0687;
-91.8000;0.8531;-0.0782;
-91.5000;0.8523;-0.0877;
-91.2000;0.8498;-0.0924;
-90.9000;0.8498;-0.0948;
-90.6000;0.8514;-0.0877;
-90.3000;0.8523;-0.0734;
-90.0000;0.8523;-0.0663;
-89.7000;0.8531;-0.0663;
-89.4000;0.8547;-0.0616;
-89.1000;0.8506;-0.0734;
-88.8000;0.8539;-0.0687;
-88.5000;0.8514;-0.0687;
-88.2000;0.8514;-0.0663;
-87.9000;0.8514;-0.0663;
-87.6000;0.8523;-0.0711;
-87.3000;0.8474;-0.0877;
-87.0000;0.8514;-0.0829;
-86.7000;0.8523;-0.0829;
-86.4000;0.8482;-0.0971;
-86.1000;0.8531;-0.0806;
-85.8000;0.8531;-0.0877;
-85.5000;0.8498;-0.0924;
-85.2000;0.8523;-0.0853;
-84.9000;0.8506;-0.0948;
-84.6000;0.8531;-0.0853;
-84.3000;0.8523;-0.0853;
-84.0000;0.8523;-0.0853;
-83.7000;0.8506;-0.0924;
-83.4000;0.8531;-0.0900;
-83.1000;0.8547;-0.0924;
-82.8000;0.8523;-0.0995;
-82.5000;0.8523;-0.1090;
-82.2000;0.8539;-0.1137;
-81.9000;0.8523;-0.1137;
-81.6000;0.8514;-0.1019;
-81.3000;0.8531;-0.0900;
-81.0000;0.8539;-0.0900;
-80.7000;0.8531;-0.0829;
-80.4000;0.8523;-0.0853;
-80.1000;0.8514;-0.0853;
-79.8000;0.8490;-0.0995;
-79.5000;0.8539;-0.0924;
-79.2000;0.8531;-0.0995;
-78.9000;0.8531;-0.0877;
-78.6000;0.8531;-0.0829;
-78.3000;0.8539;-0.0900;
-78.0000;0.8531;-0.0948;
-77.7000;0.8498;-0.0877;
-77.4000;0.8498;-0.0877;
-77.1000;0.8523;-0.0877;
-76.8000;0.8531;-0.0877;
-76.5000;0.8506;-0.0924;
-76.2000;0.8514;-0.0924;
-75.9000;0.8523;-0.0900;
-75.6000;0.8531;-0.0853;
-75.3000;0.8514;-0.0782;
-75.0000;0.8498;-0.0806;
-74.7000;0.8547;-0.0640;
-74.4000;0.8523;-0.0734;
-74.1000;0.8531;-0.0758;
-73.8000;0.8506;-0.0877;
-73.5000;0.8539;-0.0806;
-73.2000;0.8523;-0.0924;
-72.9000;0.8514;-0.0971;
-72.6000;0.8531;-0.1019;
-72.3000;0.8531;-0.1066;
-72.0000;0.8563;-0.0900;
-71.7000;0.8539;-0.0924;
-71.4000;0.8506;-0.1019;
-71.1000;0.8490;-0.1066;
-70.8000;0.8547;-0.0853;
-70.5000;0.8539;-0.0734;
-70.2000;0.8531;-0.0734;
-69.9000;0.8523;-0.0829;
-69.6000;0.8490;-0.0758;
-69.3000;0.8588;-0.0498;
-69.0000;0.8514;-0.0734;
-68.7000;0.8514;-0.0806;
-68.4000;0.8523;-0.0711;
-68.1000;0.8523;-0.0734;
-67.8000;0.8539;-0.0758;
-67.5000;0.8490;-0.0806;
-67.2000;0.8531;-0.0711;
-66.9000;0.8547;-0.0782;
-66.6000;0.8498;-0.0877;
-66.3000;0.8539;-0.0829;
-66.0000;0.8539;-0.0829;
-65.7000;0.8514;-0.0806;
-65.4000;0.8514;-0.0758;
-65.1000;0.8547;-0.0687;
-64.8000;0.8506;-0.0758;
-64.5000;0.8490;-0.0829;
-64.2000;0.8523;-0.0592;
-63.9000;0.8531;-0.0569;
-63.6000;0.8523;-0.0569;
-63.3000;0.8531;-0.0569;
-63.0000;0.8539;-0.0545;
-62.7000;0.8514;-0.0687;
-62.4000;0.8506;-0.0711;
-62.1000;0.8514;-0.0687;
-61.8000;0.8523;-0.0687;
-61.5000;0.8531;-0.0734;
-61.2000;0.8539;-0.0853;
-60.9000;0.8506;-0.0900;
-60.6000;0.8539;-0.0782;
-60.3000;0.8531;-0.0758;
-60.0000;0.8539;-0.0734;
-59.7000;0.8514;-0.0734;
-59.4000;0.8523;-0.0758;
-59.1000;0.8531;-0.0687;
-58.8000;0.8531;-0.0734;
-58.5000;0.8523;-0.0806;
-58.2000;0.8514;-0.0782;
-57.9000;0.8539;-0.0758;
-57.6000;0.8531;-0.0853;
-57.3000;0.8514;-0.0877;
-57.0000;0.8523;-0.0948;
-56.7000;0.8514;-0.0971;
-56.4000;0.8523;-0.1042;
-56.1000;0.8514;-0.1019;
-55.8000;0.8523;-0.1137;
-55.5000;0.8514;-0.1114;
-55.2000;0.8539;-0.0995;
-54.9000;0.8531;-0.0971;
-54.6000;0.8514;-0.0948;
-54.3000;0.8531;-0.0948;
-54.0000;0.8523;-0.0924;
-53.7000;0.8514;-0.0853;
-53.4000;0.8531;-0.0782;
-53.1000;0.8531;-0.0829;
-52.8000;0.8523;-0.0782;
-52.5000;0.8580;-0.0616;
-52.2000;0.8531;-0.0734;
-51.9000;0.8539;-0.0758;
-51.6000;0.8539;-0.0782;
-51.3000;0.8539;-0.0853;
-51.0000;0.8531;-0.0782;
-50.7000;0.8531;-0.0806;
-50.4000;0.8547;-0.0734;
-50.1000;0.8514;-0.0806;
-49.8000;0.8547;-0.0687;
-49.5000;0.8523;-0.0734;
-49.2000;0.8514;-0.0758;
-48.9000;0.8523;-0.0758;
-48.6000;0.8523;-0.0877;
-48.3000;0.8539;-0.0806;
-48.0000;0.8514;-0.0853;
-47.7000;0.8531;-0.0734;
-47.4000;0.8531;-0.0711;
-47.1000;0.8514;-0.0711;
-46.8000;0.8523;-0.0711;
-46.5000;0.8523;-0.0663;
-46.2000;0.8539;-0.0616;
-45.9000;0.8523;-0.0687;
-45.6000;0.8514;-0.0663;
-45.3000;0.8547;-0.0663;
-45.0000;0.8539;-0.0711;
-44.7000;0.8523;-0.0734;
-44.4000;0.8523;-0.0782;
-44.1000;0.8523;-0.0687;
-43.8000;0.8523;-0.0640;
-43.5000;0.8498;-0.0663;
-43.2000;0.8531;-0.0545;
-42.9000;0.8523;-0.0545;
-42.6000;0.8531;-0.0474;
-42.3000;0.8539;-0.0474;
-42.0000;0.8539;-0.0569;
-41.7000;0.8531;-0.0640;
-41.4000;0.8563;-0.0663;
-41.1000;0.8555;-0.0592;
-40.8000;0.8547;-0.0569;
-40.5000;0.8514;-0.0592;
-40.2000;0.8539;-0.0616;
-39.9000;0.8547;-0.0687;
-39.6000;0.8539;-0.0758;
-39.3000;0.8514;-0.0663;
-39.0000;0.8514;-0.0616;
-38.7000;0.8514;-0.0545;
-38.4000;0.8514;-0.0569;
-38.1000;0.8523;-0.0569;
-37.8000;0.8506;-0.0616;
-37.5000;0.8531;-0.0521;
-37.2000;0.8555;-0.0426;
-36.9000;0.8523;-0.0545;
-36.6000;0.8539;-0.0450;
-36.3000;0.8514;-0.0474;
-36.0000;0.8523;-0.0498;
-35.7000;0.8531;-0.0498;
-35.4000;0.8523;-0.0569;
-35.1000;0.8514;-0.0687;
-34.8000;0.8531;-0.0663;
-34.5000;0.8514;-0.0640;
-34.2000;0.8539;-0.0640;
-33.9000;0.8523;-0.0663;
-33.6000;0.8523;-0.0592;
-33.3000;0.8539;-0.0521;
-33.0000;0.8514;-0.0592;
-32.7000;0.8514;-0.0569;
-32.4000;0.8539;-0.0545;
-32.1000;0.8539;-0.0545;
-31.8000;0.8547;-0.0569;
-31.5000;0.8523;-0.0592;
-31.2000;0.8523;-0.0498;
-30.9000;0.8539;-0.0403;
-30.6000;0.8531;-0.0426;
-30.3000;0.8539;-0.0426;
-30.0000;0.8523;-0.0545;
-29.7000;0.8539;-0.0498;
-29.4000;0.8539;-0.0426;
-29.1000;0.8506;-0.0450;
-28.8000;0.8514;-0.0474;
-28.5000;0.8523;-0.0426;
-28.2000;0.8514;-0.0450;
-27.9000;0.8523;-0.0521;
-27.6000;0.8531;-0.0545;
-27.3000;0.8563;-0.0545;
-27.0000;0.8531;-0.0569;
-26.7000;0.8523;-0.0592;
-26.4000;0.8482;-0.0711;
-26.1000;0.8531;-0.0569;
-25.8000;0.8531;-0.0545;
-25.5000;0.8539;-0.0569;
-25.2000;0.8523;-0.0640;
-24.9000;0.8523;-0.0640;
-24.6000;0.8531;-0.0687;
-24.3000;0.8539;-0.0734;
-24.0000;0.8482;-0.0829;
-23.7000;0.8482;-0.0853;
-23.4000;0.8531;-0.0758;
-23.1000;0.8539;-0.0687;
-22.8000;0.8531;-0.0663;
-22.5000;0.8523;-0.0782;
-22.2000;0.8539;-0.0711;
-21.9000;0.8531;-0.0616;
-21.6000;0.8620;-0.0450;
-21.3000;0.8523;-0.0711;
-21.0000;0.8531;-0.0734;
-20.7000;0.8539;-0.0758;
-20.4000;0.8539;-0.0711;
-20.1000;0.8539;-0.0734;
-19.8000;0.8523;-0.0687;
-19.5000;0.8563;-0.0592;
-19.2000;0.8539;-0.0640;
-18.9000;0.8531;-0.0521;
-18.6000;0.8539;-0.0474;
-18.3000;0.8523;-0.0545;
-18.0000;0.8531;-0.0498;
-17.7000;0.8531;-0.0592;
-17.4000;0.8498;-0.0758;
-17.1000;0.8506;-0.0758;
-16.8000;0.8523;-0.0711;
-16.5000;0.8539;-0.0663;
-16.2000;0.8539;-0.0616;
-15.9000;0.8531;-0.0711;
-15.6000;0.8539;-0.0711;
-15.3000;0.8628;-0.0569;
-15.0000;0.8531;-0.0806;
-14.7000;0.8506;-0.0900;
-14.4000;0.8531;-0.0829;
-14.1000;0.8539;-0.0877;
-13.8000;0.8531;-0.0924;
-13.5000;0.8523;-0.0877;
-13.2000;0.8531;-0.0782;
-12.9000;0.8523;-0.0734;
-12.6000;0.8531;-0.0734;
-12.3000;0.8580;-0.0663;
-12.0000;0.8604;-0.0592;
-11.7000;0.8523;-0.0758;
-11.4000;0.8531;-0.0782;
-11.1000;0.8531;-0.0829;
-10.8000;0.8531;-0.0711;
-10.5000;0.8547;-0.0687;
-10.2000;0.8474;-0.0806;
-9.9000;0.8523;-0.0640;
-9.6000;0.8523;-0.0592;
-9.3000;0.8531;-0.0592;
-9.0000;0.8514;-0.0616;
-8.7000;0.8523;-0.0640;
-8.4000;0.8514;-0.0687;
-8.1000;0.8506;-0.0616;
-7.8000;0.8490;-0.0663;
-7.5000;0.8531;-0.0616;
-7.2000;0.8523;-0.0616;
-6.9000;0.8514;-0.0663;
-6.6000;0.8539;-0.0616;
-6.3000;0.8531;-0.0734;
-6.0000;0.8523;-0.0663;
-5.7000;0.8490;-0.0687;
-5.4000;0.8514;-0.0734;
-5.1000;0.8523;-0.0806;
-4.8000;0.8604;-0.0616;
-4.5000;0.8506;-0.0829;
-4.2000;0.8531;-0.0734;
-3.9000;0.8523;-0.0782;
-3.6000;0.8531;-0.0711;
-3.3000;0.8563;-0.0592;
-3.0000;0.8498;-0.0687;
-2.7000;0.8523;-0.0663;
-2.4000;0.8531;-0.0687;
-2.1000;0.8506;-0.0734;
-1.8000;0.8514;-0.0829;
-1.5000;0.8482;-0.0924;
-1.2000;0.8523;-0.0806;
-0.9000;0.8514;-0.0900;
-0.6000;0.8547;-0.0806;
-0.3000;0.8523;-0.0853;
0.0000;0.8523;-0.0853;
0.3000;0.8661;-0.0829;
0.6000;0.8897;-0.0332;
0.9000;0.9092;0.0261;
1.2000;0.9231;0.0687;
1.5000;0.9337;0.1066;
1.8000;0.9434;0.1469;
2.1000;0.9499;0.1730;
2.4000;0.9581;0.2038;
2.7000;0.9646;0.2322;
3.0000;0.9678;0.2417;
3.3000;0.9711;0.2559;
3.6000;0.9744;0.2725;
3.9000;0.9776;0.2796;
4.2000;0.9768;0.2748;
4.5000;0.9825;0.2867;
4.8000;0.9801;0.2796;
5.1000;0.9841;0.2867;
5.4000;0.9882;0.3009;
5.7000;0.9882;0.3104;
6.0000;0.9898;0.3151;
6.3000;0.9923;0.3104;
6.6000;0.9931;0.3127;
6.9000;0.9939;0.3127;
7.2000;0.9955;0.3199;
7.5000;0.9955;0.3222;
7.8000;0.9988;0.3199;
8.1000;1.0004;0.3175;
8.4000;1.0004;0.3222;
8.7000;1.0028;0.3222;
9.0000;1.0037;0.3199;
9.3000;1.0061;0.3151;
9.6000;1.0069;0.3175;
9.9000;1.0077;0.3246;
10.2000;1.0102;0.3388;
10.5000;1.0102;0.3364;
10.8000;1.0110;0.3388;
11.1000;1.0110;0.3412;
11.4000;1.0142;0.3412;
11.7000;1.0134;0.3317;
12.0000;1.0126;0.3317;
12.3000;1.0110;0.3293;
12.6000;1.0167;0.3435;
12.9000;1.0199;0.3530;
13.2000;1.0151;0.3364;
13.5000;1.0159;0.3364;
13.8000;1.0151;0.3293;
14.1000;1.0199;0.3341;
14.4000;1.0232;0.3459;
14.7000;1.0191;0.3293;
15.0000;1.0208;0.3293;
15.3000;1.0232;0.3246;
15.6000;1.0232;0.3175;
15.9000;1.0232;0.3199;
16.2000;1.0248;0.3199;
16.5000;1.0248;0.3175;
16.8000;1.0265;0.3222;
17.1000;1.0265;0.3175;
17.4000;1.0354;0.3435;
17.7000;1.0256;0.3222;
18.0000;1.0273;0.3222;
18.3000;1.0281;0.3222;
18.6000;1.0281;0.3104;
18.9000;1.0289;0.3151;
19.2000;1.0289;0.3222;
19.5000;1.0297;0.3270;
19.8000;1.0305;0.3222;
20.1000;1.0289;0.3246;
20.4000;1.0322;0.3341;
20.7000;1.0313;0.3388;
21.0000;1.0322;0.3364;
21.3000;1.0313;0.3293;
21.6000;1.0338;0.3293;
21.9000;1.0338;0.3199;
22.2000;1.0330;0.3199;
22.5000;1.0330;0.3222;
22.8000;1.0338;0.3199;
23.1000;1.0346;0.3246;
23.4000;1.0387;0.3341;
23.7000;1.0354;0.3341;
24.0000;1.0338;0.3293;
24.3000;1.0370;0.3341;
24.6000;1.0370;0.3246;
24.9000;1.0346;0.3246;
25.2000;1.0379;0.3317;
25.5000;1.0362;0.3246;
25.8000;1.0330;0.3175;
26.1000;1.0370;0.3293;
26.4000;1.0379;0.3270;
26.7000;1.0379;0.3293;
27.0000;1.0403;0.3222;
27.3000;1.0330;0.3056;
27.6000;1.0403;0.3127;
27.9000;1.0387;0.3080;
28.2000;1.0395;0.3104;
28.5000;1.0379;0.3056;
28.8000;1.0362;0.3009;
29.1000;1.0379;0.3009;
29.4000;1.0387;0.3009;
29.7000;1.0362;0.2962;
30.0000;1.0395;0.3056;
30.3000;1.0387;0.3009;
30.6000;1.0395;0.3104;
30.9000;1.0403;0.3175;
31.2000;1.0411;0.3151;
31.5000;1.0411;0.3199;
31.8000;1.0427;0.3341;
32.1000;1.0435;0.3341;
32.4000;1.0427;0.3317;
32.7000;1.0419;0.3199;
33.0000;1.0403;0.3199;
33.3000;1.0411;0.3246;
33.6000;1.0452;0.3270;
33.9000;1.0435;0.3293;
34.2000;1.0419;0.3270;
34.5000;1.0419;0.3270;
34.8000;1.0444;0.3293;
35.1000;1.0427;0.3175;
35.4000;1.0427;0.3199;
35.7000;1.0427;0.3127;
36.0000;1.0435;0.3104;
36.3000;1.0444;0.3080;
36.6000;1.0435;0.3056;
36.9000;1.0444;0.3056;
37.2000;1.0435;0.3009;
37.5000;1.0452;0.3080;
37.8000;1.0435;0.3127;
38.1000;1.0452;0.3199;
38.4000;1.0403;0.3151;
38.7000;1.0444;0.3270;
39.0000;1.0435;0.3270;
39.3000;1.0419;0.3199;
39.6000;1.0460;0.3270;
39.9000;1.0444;0.3246;
40.2000;1.0427;0.3199;
40.5000;1.0435;0.3246;
40.8000;1.0427;0.3222;
41.1000;1.0427;0.3270;
41.4000;1.0435;0.3293;
41.7000;1.0427;0.3388;
42.0000;1.0444;0.3388;
42.3000;1.0452;0.3388;
42.6000;1.0460;0.3412;
42.9000;1.0444;0.3317;
43.2000;1.0444;0.3246;
43.5000;1.0452;0.3175;
43.8000;1.0460;0.3151;
44.1000;1.0435;0.3151;
44.4000;1.0452;0.3127;
44.7000;1.0501;0.3341;
45.0000;1.0395;0.3056;
45.3000;1.0435;0.3127;
45.6000;1.0452;0.3151;
45.9000;1.0452;0.3080;
46.2000;1.0411;0.2962;
46.5000;1.0484;0.3151;
46.8000;1.0419;0.2985;
47.1000;1.0452;0.3056;
47.4000;1.0435;0.3056;
47.7000;1.0460;0.3127;
48.0000;1.0468;0.3151;
48.3000;1.0468;0.3127;
48.6000;1.0427;0.3033;
48.9000;1.0460;0.3151;
49.2000;1.0460;0.3199;
49.5000;1.0444;0.3127;
49.8000;1.0435;0.3175;
50.1000;1.0460;0.3151;
50.4000;1.0452;0.3199;
50.7000;1.0452;0.3127;
51.0000;1.0444;0.3151;
51.3000;1.0460;0.3222;
51.6000;1.0427;0.3222;
51.9000;1.0452;0.3270;
52.2000;1.0476;0.3364;
52.5000;1.0460;0.3317;
52.8000;1.0484;0.3246;
53.1000;1.0484;0.3270;
53.4000;1.0460;0.3293;
53.7000;1.0476;0.3293;
54.0000;1.0484;0.3317;
54.3000;1.0468;0.3293;
54.6000;1.0468;0.3222;
54.9000;1.0468;0.3246;
55.2000;1.0468;0.3222;
55.5000;1.0460;0.3175;
55.8000;1.0460;0.3151;
56.1000;1.0460;0.3151;
56.4000;1.0468;0.3175;
56.7000;1.0460;0.3127;
57.0000;1.0452;0.3127;
57.3000;1.0452;0.3056;
57.6000;1.0460;0.3151;
57.9000;1.0435;0.3104;
58.2000;1.0460;0.3175;
58.5000;1.0452;0.3175;
58.8000;1.0460;0.3151;
59.1000;1.0501;0.3175;
59.4000;1.0444;0.3080;
59.7000;1.0411;0.3009;
60.0000;1.0460;0.3080;
60.3000;1.0452;0.3151;
60.6000;1.0468;0.3151;
60.9000;1.0411;0.2962;
61.2000;1.0452;0.3033;
61.5000;1.0468;0.3009;
61.8000;1.0444;0.2914;
62.1000;1.0460;0.2985;
62.4000;1.0452;0.3009;
62.7000;1.0517;0.3199;
63.0000;1.0492;0.3127;
63.3000;1.0411;0.3009;
63.6000;1.0452;0.3080;
63.9000;1.0460;0.3104;
64.2000;1.0468;0.3151;
64.5000;1.0460;0.3151;
64.8000;1.0452;0.3104;
65.1000;1.0541;0.3341;
65.4000;1.0484;0.3080;
65.7000;1.0517;0.3080;
66.0000;1.0501;0.3104;
66.3000;1.0468;0.3104;
66.6000;1.0476;0.3104;
66.9000;1.0476;0.3127;
67.2000;1.0484;0.3127;
67.5000;1.0501;0.3199;
67.8000;1.0484;0.3151;
68.1000;1.0476;0.3151;
68.4000;1.0492;0.3222;
68.7000;1.0484;0.3175;
69.0000;1.0484;0.3175;
69.3000;1.0476;0.3104;
69.6000;1.0468;0.3175;
69.9000;1.0476;0.3151;
70.2000;1.0484;0.3175;
70.5000;1.0435;0.3056;
70.8000;1.0468;0.3151;
71.1000;1.0476;0.3151;
71.4000;1.0460;0.3056;
71.7000;1.0476;0.3151;
72.0000;1.0484;0.3222;
72.3000;1.0468;0.3222;
72.6000;1.0476;0.3222;
72.9000;1.0476;0.3199;
73.2000;1.0468;0.3175;
73.5000;1.0484;0.3270;
73.8000;1.0468;0.2985;
74.1000;1.0492;0.2985;
74.4000;1.0492;0.2914;
74.7000;1.0492;0.2938;
75.0000;1.0476;0.2938;
75.3000;1.0476;0.2985;
75.6000;1.0476;0.3009;
75.9000;1.0468;0.3080;
76.2000;1.0476;0.3056;
76.5000;1.0452;0.3056;
76.8000;1.0444;0.2985;
77.1000;1.0468;0.3080;
77.4000;1.0484;0.3080;
77.7000;1.0460;0.3033;
78.0000;1.0468;0.2985;
78.3000;1.0468;0.2962;
78.6000;1.0468;0.2962;
78.9000;1.0452;0.2914;
79.2000;1.0509;0.3056;
79.5000;1.0484;0.2985;
79.8000;1.0501;0.2938;
80.1000;1.0460;0.2843;
80.4000;1.0460;0.2867;
80.7000;1.0444;0.2891;
81.0000;1.0476;0.3033;
81.3000;1.0468;0.3009;
81.6000;1.0476;0.2985;
81.9000;1.0476;0.2962;
82.2000;1.0492;0.3104;
82.5000;1.0509;0.3175;
82.8000;1.0484;0.3104;
83.1000;1.0484;0.3199;
83.4000;1.0435;0.3127;
83.7000;1.0435;0.3080;
84.0000;1.0582;0.3435;
84.3000;1.0468;0.3175;
84.6000;1.0435;0.3080;
84.9000;1.0452;0.3151;
85.2000;1.0452;0.3127;
85.5000;1.0476;0.3151;
85.8000;1.0476;0.3127;
86.1000;1.0476;0.3127;
86.4000;1.0452;0.3104;
86.7000;1.0525;0.3317;
87.0000;1.0484;0.3127;
87.3000;1.0476;0.3151;
87.6000;1.0460;0.3080;
87.9000;1.0476;0.3127;
88.2000;1.0476;0.3056;
88.5000;1.0468;0.3056;
88.8000;1.0484;0.3080;
89.1000;1.0468;0.3033;
89.4000;1.0460;0.3009;
89.7000;1.0501;0.3104;
90.0000;1.0525;0.3199;
90.3000;1.0484;0.3151;
90.6000;1.0476;0.3175;
90.9000;1.0492;0.3127;
91.2000;1.0484;0.3080;
91.5000;1.0484;0.3104;
91.8000;1.0492;0.3199;
92.1000;1.0484;0.3127;
92.4000;1.0484;0.3127;
92.7000;1.0509;0.3151;
93.0000;1.0517;0.3127;
93.3000;1.0484;0.3009;
93.6000;1.0492;0.3056;
93.9000;1.0492;0.3151;
94.2000;1.0484;0.3127;
94.5000;1.0509;0.3151;
94.8000;1.0476;0.3104;
95.1000;1.0501;0.3127;
95.4000;1.0484;0.3080;
95.7000;1.0476;0.3056;
96.0000;1.0501;0.3151;
96.3000;1.0492;0.3127;
96.6000;1.0501;0.3199;
96.9000;1.0525;0.3199;
97.2000;1.0452;0.2891;
97.5000;1.0484;0.3009;
97.8000;1.0468;0.2962;
98.1000;1.0484;0.2985;
98.4000;1.0484;0.2914;
98.7000;1.0476;0.2843;
99.0000;1.0484;0.2843;
99.3000;1.0484;0.2867;
99.6000;1.0411;0.2677;
99.9000;1.0476;0.2985;
100.2000;1.0476;0.3009;
100.5000;1.0476;0.3056;
100.8000;1.0468;0.3104;
101.1000;1.0476;0.3104;
101.4000;1.0468;0.3080;
101.7000;1.0484;0.2938;
102.0000;1.0525;0.3033;
102.3000;1.0468;0.2938;
102.6000;1.0492;0.2938;
102.9000;1.0501;0.2867;
103.2000;1.0468;0.2819;
103.5000;1.0468;0.2772;
103.8000;1.0484;0.2867;
104.1000;1.0476;0.2914;
104.4000;1.0492;0.2938;
104.7000;1.0452;0.2819;
105.0000;1.0468;0.2914;
105.3000;1.0509;0.3056;
105.6000;1.0476;0.3009;
105.9000;1.0509;0.3033;
106.2000;1.0484;0.2985;
106.5000;1.0468;0.2985;
106.8000;1.0476;0.2938;
107.1000;1.0468;0.2914;
107.4000;1.0501;0.3009;
107.7000;1.0468;0.2914;
108.0000;1.0501;0.2962;
108.3000;1.0435;0.2891;
108.6000;1.0468;0.3056;
108.9000;1.0525;0.3104;
109.2000;1.0492;0.3151;
109.5000;1.0468;0.3199;
109.8000;1.0476;0.3127;
110.1000;1.0468;0.3127;
110.4000;1.0484;0.3151;
110.7000;1.0509;0.3199;
111.0000;1.0476;0.3151;
111.3000;1.0484;0.3175;
111.6000;1.0484;0.3151;
111.9000;1.0484;0.3080;
112.2000;1.0460;0.2891;
112.5000;1.0484;0.2938;
112.8000;1.0468;0.2938;
113.1000;1.0468;0.2985;
113.4000;1.0476;0.2914;
113.7000;1.0460;0.2843;
114.0000;1.0468;0.2819;
114.3000;1.0484;0.2914;
114.6000;1.0509;0.2985;
114.9000;1.0476;0.2843;
115.2000;1.0468;0.2819;
115.5000;1.0468;0.2796;
115.8000;1.0501;0.2843;
116.1000;1.0476;0.2819;
116.4000;1.0492;0.2796;
116.7000;1.0476;0.2819;
117.0000;1.0484;0.2843;
117.3000;1.0476;0.2867;
117.6000;1.0492;0.2962;
117.9000;1.0476;0.3009;
118.2000;1.0492;0.2985;
118.5000;1.0492;0.2938;
118.8000;1.0452;0.2843;
119.1000;1.0476;0.2867;
119.4000;1.0452;0.2867;
119.7000;1.0476;0.2914;
120.0000;1.0484;0.2891;
120.3000;1.0460;0.2867;
120.6000;1.0541;0.3056;
120.9000;1.0492;0.2867;
121.2000;1.0476;0.2867;
121.5000;1.0476;0.2891;
121.8000;1.0492;0.2962;
122.1000;1.0484;0.2867;
122.4000;1.0476;0.2914;
122.7000;1.0509;0.2938;
123.0000;1.0484;0.2772;
123.3000;1.0484;0.2772;
123.6000;1.0476;0.2748;
123.9000;1.0492;0.2677;
124.2000;1.0492;0.2701;
124.5000;1.0476;0.2677;
124.8000;1.0468;0.2583;
125.1000;1.0476;0.2606;
125.4000;1.0476;0.2701;
125.7000;1.0501;0.2772;
126.0000;1.0484;0.2796;
126.3000;1.0476;0.2843;
126.6000;1.0476;0.2796;
126.9000;1.0484;0.2843;
127.2000;1.0484;0.2819;
127.5000;1.0484;0.2819;
127.8000;1.0476;0.2819;
128.1000;1.0484;0.2772;
128.4000;1.0492;0.2819;
128.7000;1.0476;0.2867;
129.0000;1.0460;0.2914;
129.3000;1.0468;0.2891;
129.6000;1.0492;0.2938;
129.9000;1.0476;0.2867;
130.2000;1.0476;0.2962;
130.5000;1.0484;0.2985;
130.8000;1.0484;0.3033;
131.1000;1.0484;0.3151;
131.4000;1.0452;0.3104;
131.7000;1.0476;0.2985;
132.0000;1.0476;0.2867;
132.3000;1.0484;0.2843;
132.6000;1.0468;0.2891;
132.9000;1.0468;0.2962;
133.2000;1.0468;0.2914;
133.5000;1.0468;0.2962;
133.8000;1.0476;0.2985;
134.1000;1.0476;0.3056;
134.4000;1.0484;0.3009;
134.7000;1.0484;0.3033;
135.0000;1.0484;0.3033;
135.3000;1.0476;0.3056;
135.6000;1.0476;0.3056;
135.9000;1.0501;0.3033;
136.2000;1.0492;0.3104;
136.5000;1.0492;0.3080;
136.8000;1.0468;0.3033;
137.1000;1.0460;0.2962;
137.4000;1.0484;0.3033;
137.7000;1.0484;0.3104;
138.0000;1.0484;0.3056;
138.3000;1.0476;0.3009;
138.6000;1.0492;0.2985;
138.9000;1.0492;0.2985;
139.2000;1.0476;0.2914;
139.5000;1.0468;0.2867;
139.8000;1.0460;0.2843;
140.1000;1.0476;0.2891;
140.4000;1.0468;0.2891;
140.7000;1.0468;0.2891;
141.0000;1.0484;0.2962;
141.3000;1.0525;0.3127;
141.6000;1.0476;0.3033;
141.9000;1.0460;0.2867;
142.2000;1.0501;0.2962;
142.5000;1.0501;0.2914;
142.8000;1.0484;0.2843;
143.1000;1.0484;0.2891;
143.4000;1.0419;0.2843;
143.7000;1.0501;0.3009;
144.0000;1.0484;0.2938;
144.3000;1.0468;0.2796;
144.6000;1.0492;0.2843;
144.9000;1.0476;0.2891;
145.2000;1.0476;0.2891;
145.5000;1.0509;0.2914;
145.8000;1.0501;0.2938;
146.1000;1.0476;0.2891;
146.4000;1.0484;0.2867;
146.7000;1.0444;0.2772;
147.0000;1.0476;0.2819;
147.3000;1.0460;0.2748;
147.6000;1.0476;0.2867;
147.9000;1.0476;0.2938;
148.2000;1.0468;0.3009;
148.5000;1.0476;0.3009;
148.8000;1.0492;0.2985;
149.1000;1.0476;0.2914;
149.4000;1.0484;0.2914;
149.7000;1.0501;0.2891;
150.0000;1.0549;0.3009;
150.3000;1.0476;0.2867;
150.6000;1.0468;0.2867;
150.9000;1.0476;0.2843;
151.2000;1.0460;0.2891;
151.5000;1.0484;0.2914;
151.8000;1.0476;0.2962;
152.1000;1.0452;0.3009;
152.4000;1.0452;0.3009;
152.7000;1.0460;0.2985;
153.0000;1.0460;0.3009;
153.3000;1.0476;0.2962;
153.6000;1.0476;0.2914;
153.9000;1.0452;0.2867;
154.2000;1.0476;0.3033;
154.5000;1.0460;0.3009;
154.8000;1.0476;0.3080;
155.1000;1.0468;0.3056;
155.4000;1.0460;0.3056;
155.7000;1.0468;0.3151;
156.0000;1.0452;0.3127;
156.3000;1.0460;0.3175;
156.6000;1.0444;0.3033;
156.9000;1.0460;0.2962;
157.2000;1.0468;0.2891;
157.5000;1.0452;0.2748;
157.8000;1.0460;0.2748;
158.1000;1.0476;0.2796;
158.4000;1.0484;0.2796;
158.7000;1.0460;0.2796;
159.0000;1.0468;0.2914;
159.3000;1.0476;0.2796;
159.6000;1.0509;0.2867;
159.9000;1.0460;0.2748;
160.2000;1.0452;0.2748;
160.5000;1.0452;0.2748;
160.8000;1.0444;0.2748;
161.1000;1.0460;0.2796;
161.4000;1.0444;0.2748;
161.7000;1.0468;0.2796;
162.0000;1.0452;0.2748;
162.3000;1.0460;0.2819;
162.6000;1.0492;0.2891;
162.9000;1.0484;0.2914;
163.2000;1.0468;0.2891;
163.5000;1.0468;0.2891;
163.8000;1.0460;0.2891;
164.1000;1.0468;0.2985;
164.4000;1.0525;0.3033;
164.7000;1.0492;0.2867;
165.0000;1.0476;0.2819;
165.3000;1.0509;0.2891;
165.6000;1.0476;0.2867;
165.9000;1.0476;0.2891;
166.2000;1.0460;0.2914;
166.5000;1.0460;0.2914;
166.8000;1.0533;0.3080;
167.1000;1.0468;0.2914;
167.4000;1.0435;0.2985;
167.7000;1.0452;0.3056;
168.0000;1.0460;0.3127;
168.3000;1.0484;0.3151;
168.6000;1.0501;0.3199;
168.9000;1.0460;0.3033;
169.2000;1.0460;0.3056;
169.5000;1.0484;0.3056;
169.8000;1.0484;0.3127;
170.1000;1.0460;0.2985;
170.4000;1.0468;0.2985;
170.7000;1.0452;0.2962;
171.0000;1.0476;0.3009;
171.3000;1.0476;0.2962;
171.6000;1.0476;0.2985;
171.9000;1.0484;0.3009;
172.2000;1.0492;0.2914;
172.5000;1.0476;0.2867;
172.8000;1.0468;0.2772;
173.1000;1.0460;0.2772;
173.4000;1.0476;0.2819;
173.7000;1.0468;0.2843;
174.0000;1.0476;0.2938;
174.3000;1.0476;0.2914;
174.6000;1.0460;0.2938;
174.9000;1.0476;0.2891;
175.2000;1.0468;0.2938;
175.5000;1.0468;0.2891;
175.8000;1.0468;0.2867;
176.1000;1.0468;0.2843;
176.4000;1.0460;0.2819;
176.7000;1.0484;0.2796;
177.0000;1.0460;0.2772;
177.3000;1.0468;0.2819;
177.6000;1.0452;0.2819;
177.9000;1.0476;0.2867;
178.2000;1.0468;0.2772;
178.5000;1.0427;0.2725;
178.8000;1.0460;0.2796;
179.1000;1.0452;0.2819;
179.4000;1.0460;0.2796;
179.7000;1.0492;0.2914;
180.0000;1.0476;0.2891;
180.3000;1.0460;0.2938;
180.6000;1.0468;0.3009;
180.9000;1.0460;0.2962;
181.2000;1.0452;0.2914;
181.5000;1.0427;0.2867;
181.8000;1.0444;0.2891;
182.1000;1.0460;0.2938;
182.4000;1.0484;0.2985;
182.7000;1.0468;0.2985;
183.0000;1.0468;0.2985;
183.3000;1.0476;0.2962;
183.6000;1.0444;0.2867;
183.9000;1.0452;0.2843;
184.2000;1.0492;0.2891;
184.5000;1.0468;0.2938;
184.8000;1.0452;0.2891;
185.1000;1.0484;0.2938;
185.4000;1.0476;0.2985;
185.7000;1.0444;0.2938;
186.0000;1.0468;0.3033;
186.3000;1.0476;0.3009;
186.6000;1.0468;0.2938;
186.9000;1.0460;0.2914;
187.2000;1.0501;0.3151;
187.5000;1.0460;0.3104;
187.8000;1.0468;0.3104;
188.1000;1.0460;0.3104;
188.4000;1.0444;0.2962;
188.7000;1.0435;0.2891;
189.0000;1.0419;0.2843;
189.3000;1.0468;0.3009;
189.6000;1.0468;0.3009;
189.9000;1.0468;0.3033;
190.2000;1.0476;0.3033;
190.5000;1.0468;0.3080;
190.8000;1.0468;0.3056;
191.1000;1.0460;0.3056;
191.4000;1.0452;0.3056;
191.7000;1.0460;0.3080;
192.0000;1.0468;0.3151;
192.3000;1.0460;0.3151;
192.6000;1.0476;0.3175;
192.9000;1.0468;0.3175;
193.2000;1.0452;0.3175;
193.5000;1.0468;0.3127;
193.8000;1.0484;0.3056;
194.1000;1.0476;0.3080;
194.4000;1.0452;0.3033;
194.7000;1.0468;0.2867;
195.0000;1.0460;0.2914;
195.3000;1.0476;0.2962;
195.6000;1.0460;0.2938;
195.9000;1.0452;0.2985;
196.2000;1.0476;0.3080;
196.5000;1.0492;0.3104;
196.8000;1.0452;0.3033;
197.1000;1.0460;0.3033;
197.4000;1.0452;0.3009;
197.7000;1.0427;0.2938;
198.0000;1.0444;0.3009;
198.3000;1.0444;0.2962;
198.6000;1.0435;0.3009;
198.9000;1.0452;0.3056;
199.2000;1.0370;0.2843;
199.5000;1.0444;0.3033;
199.8000;1.0452;0.3033;
200.1000;1.0460;0.2914;
200.4000;1.0444;0.2819;
200.7000;1.0427;0.2843;
201.0000;1.0452;0.2891;
201.3000;1.0435;0.2867;
201.6000;1.0452;0.2891;
201.9000;1.0468;0.2938;
202.2000;1.0492;0.2985;
202.5000;1.0403;0.2843;
202.8000;1.0484;0.2985;
203.1000;1.0444;0.2914;
203.4000;1.0525;0.3104;
203.7000;1.0452;0.2938;
204.0000;1.0444;0.2938;
204.3000;1.0452;0.2891;
204.6000;1.0435;0.2891;
204.9000;1.0444;0.2985;
205.2000;1.0468;0.3104;
205.5000;1.0427;0.2891;
205.8000;1.0468;0.2962;
206.1000;1.0468;0.2962;
206.4000;1.0460;0.3033;
206.7000;1.0460;0.3033;
207.0000;1.0476;0.3033;
207.3000;1.0468;0.3009;
207.6000;1.0468;0.3033;
207.9000;1.0452;0.3009;
208.2000;1.0476;0.2938;
208.5000;1.0452;0.2843;
208.8000;1.0460;0.2796;
209.1000;1.0460;0.2796;
209.4000;1.0460;0.2867;
209.7000;1.0460;0.2962;
210.0000;1.0460;0.3009;
210.3000;1.0387;0.2843;
210.6000;1.0452;0.2985;
210.9000;1.0460;0.2985;
211.2000;1.0452;0.2938;
211.5000;1.0452;0.2914;
211.8000;1.0460;0.2914;
212.1000;1.0468;0.2843;
212.4000;1.0444;0.2796;
212.7000;1.0444;0.2748;
213.0000;1.0452;0.2843;
213.3000;1.0460;0.2938;
213.6000;1.0452;0.2891;
213.9000;1.0444;0.2819;
214.2000;1.0460;0.2891;
214.5000;1.0476;0.2962;
214.8000;1.0468;0.2938;
215.1000;1.0444;0.2914;
215.4000;1.0460;0.2938;
215.7000;1.0468;0.3033;
216.0000;1.0533;0.3199;
216.3000;1.0444;0.3033;
216.6000;1.0460;0.3056;
216.9000;1.0484;0.3033;
217.2000;1.0468;0.2985;
217.5000;1.0460;0.2938;
217.8000;1.0460;0.2914;
218.1000;1.0468;0.2962;
218.4000;1.0452;0.2891;
218.7000;1.0444;0.2796;
219.0000;1.0460;0.2725;
219.3000;1.0460;0.2748;
219.6000;1.0460;0.2772;
219.9000;1.0468;0.2796;
220.2000;1.0484;0.2843;
220.5000;1.0444;0.2796;
220.8000;1.0452;0.2867;
221.1000;1.0468;0.3033;
221.4000;1.0444;0.3056;
221.7000;1.0484;0.3127;
222.0000;1.0476;0.3080;
222.3000;1.0468;0.3056;
222.6000;1.0444;0.2962;
222.9000;1.0452;0.3033;
223.2000;1.0435;0.3009;
223.5000;1.0444;0.3104;
223.8000;1.0444;0.3104;
224.1000;1.0452;0.3080;
224.4000;1.0452;0.3056;
224.7000;1.0460;0.3127;
225.0000;1.0452;0.3080;
225.3000;1.0452;0.3009;
225.6000;1.0444;0.2867;
225.9000;1.0427;0.2819;
226.2000;1.0492;0.2938;
226.5000;1.0533;0.3127;
226.8000;1.0452;0.2914;
227.1000;1.0468;0.2938;
227.4000;1.0460;0.2914;
227.7000;1.0460;0.2962;
228.0000;1.0427;0.2962;
228.3000;1.0427;0.3009;
228.6000;1.0460;0.3151;
228.9000;1.0460;0.3080;
229.2000;1.0444;0.3033;
229.5000;1.0435;0.3104;
229.8000;1.0444;0.3104;
230.1000;1.0476;0.3199;
230.4000;1.0460;0.3175;
230.7000;1.0435;0.3080;
231.0000;1.0452;0.3104;
231.3000;1.0468;0.3151;
231.6000;1.0403;0.2914;
231.9000;1.0435;0.3033;
232.2000;1.0435;0.3009;
232.5000;1.0460;0.3080;
232.8000;1.0452;0.3056;
233.1000;1.0452;0.3056;
233.4000;1.0452;0.3104;
233.7000;1.0484;0.3127;
234.0000;1.0492;0.3104;
234.3000;1.0468;0.3104;
234.6000;1.0501;0.3199;
234.9000;1.0492;0.3080;
235.2000;1.0444;0.3009;
235.5000;1.0468;0.3080;
235.8000;1.0460;0.2985;
236.1000;1.0452;0.2962;
236.4000;1.0484;0.3033;
236.7000;1.0411;0.2867;
237.0000;1.0452;0.2938;
237.3000;1.0468;0.3056;
237.6000;1.0468;0.3033;
237.9000;1.0452;0.3033;
238.2000;1.0452;0.3080;
238.5000;1.0468;0.3080;
238.8000;1.0476;0.3080;
239.1000;1.0452;0.3104;
239.4000;1.0468;0.3056;
239.7000;1.0435;0.3033;
240.0000;1.0444;0.3104;
240.3000;1.0444;0.3104;
240.6000;1.0452;0.3222;
240.9000;1.0435;0.3151;
241.2000;1.0435;0.3104;
241.5000;1.0452;0.3127;
241.8000;1.0452;0.3175;
242.1000;1.0460;0.3056;
242.4000;1.0460;0.3127;
242.7000;1.0427;0.3009;
243.0000;1.0501;0.3175;
243.3000;1.0444;0.2962;
243.6000;1.0452;0.2985;
243.9000;1.0468;0.3104;
244.2000;1.0476;0.3175;
244.5000;1.0452;0.3127;
244.8000;1.0460;0.3199;
245.1000;1.0468;0.3222;
245.4000;1.0452;0.3246;
245.7000;1.0444;0.3222;
246.0000;1.0460;0.3222;
246.3000;1.0452;0.3175;
246.6000;1.0435;0.3080;
246.9000;1.0435;0.3080;
247.2000;1.0435;0.3009;
247.5000;1.0460;0.3009;
247.8000;1.0468;0.3080;
248.1000;1.0460;0.3056;
248.4000;1.0476;0.3033;
248.7000;1.0460;0.2938;
249.0000;1.0452;0.2914;
249.3000;1.0444;0.3009;
249.6000;1.0484;0.3080;
249.9000;1.0427;0.2985;
250.2000;1.0444;0.3056;
250.5000;1.0452;0.3056;
250.8000;1.0452;0.2985;
251.1000;1.0452;0.2914;
251.4000;1.0452;0.2914;
251.7000;1.0468;0.2985;
252.0000;1.0468;0.2962;
252.3000;1.0468;0.2962;
252.6000;1.0435;0.2867;
252.9000;1.0476;0.3009;
253.2000;1.0468;0.3009;
253.5000;1.0411;0.2938;
253.8000;1.0452;0.3151;
254.1000;1.0452;0.3127;
254.4000;1.0484;0.3270;
254.7000;1.0452;0.3104;
255.0000;1.0468;0.3033;
255.3000;1.0468;0.3056;
255.6000;1.0452;0.3033;
255.9000;1.0452;0.3009;
256.2000;1.0452;0.3056;
256.5000;1.0484;0.3270;
256.8000;1.0452;0.3199;
257.1000;1.0460;0.3127;
257.4000;1.0419;0.3080;
257.7000;1.0468;0.3151;
258.0000;1.0460;0.3175;
258.3000;1.0468;0.3175;
258.6000;1.0468;0.3246;
258.9000;1.0452;0.3151;
259.2000;1.0492;0.3246;
259.5000;1.0492;0.3246;
259.8000;1.0427;0.3151;
260.1000;1.0444;0.3127;
260.4000;1.0444;0.3056;
260.7000;1.0444;0.3080;
261.0000;1.0452;0.3151;
261.3000;1.0435;0.3033;
261.6000;1.0435;0.2938;
261.9000;1.0435;0.2938;
262.2000;1.0452;0.2914;
262.5000;1.0452;0.2914;
262.8000;1.0468;0.3009;
263.1000;1.0452;0.3033;
263.4000;1.0460;0.3080;
263.7000;1.0419;0.2985;
264.0000;1.0444;0.3009;
264.3000;1.0460;0.3009;
264.6000;1.0444;0.3009;
264.9000;1.0452;0.3033;
265.2000;1.0444;0.3033;
265.5000;1.0444;0.3104;
265.8000;1.0460;0.3175;
266.1000;1.0452;0.3199;
266.4000;1.0444;0.3080;
266.7000;1.0444;0.3033;
267.0000;1.0452;0.3009;
267.3000;1.0444;0.2938;
267.6000;1.0444;0.2985;
267.9000;1.0444;0.3033;
268.2000;1.0435;0.3056;
268.5000;1.0460;0.3033;
268.8000;1.0501;0.3127;
269.1000;1.0452;0.3009;
269.4000;1.0468;0.3151;
269.7000;1.0460;0.3175;
270.0000;1.0452;0.3175;
270.3000;1.0452;0.3056;
270.6000;1.0411;0.2867;
270.9000;1.0427;0.2914;
271.2000;1.0435;0.2914;
271.5000;1.0419;0.2891;
271.8000;1.0370;0.2748;
272.1000;1.0435;0.2867;
272.4000;1.0379;0.2701;
272.7000;1.0452;0.2938;
273.0000;1.0444;0.2914;
273.3000;1.0444;0.2819;
273.6000;1.0460;0.2772;
273.9000;1.0476;0.2867;
274.2000;1.0452;0.2843;
274.5000;1.0444;0.2843;
274.8000;1.0460;0.2891;
275.1000;1.0468;0.2938;
275.4000;1.0452;0.2962;
275.7000;1.0460;0.3033;
276.0000;1.0468;0.3033;
276.3000;1.0468;0.3056;
276.6000;1.0452;0.3104;
276.9000;1.0468;0.3175;
277.2000;1.0468;0.3104;
277.5000;1.0533;0.3222;
277.8000;1.0460;0.2985;
278.1000;1.0468;0.3056;
278.4000;1.0468;0.3080;
278.7000;1.0452;0.3056;
279.0000;1.0452;0.3080;
279.3000;1.0435;0.3080;
279.6000;1.0395;0.2914;
279.9000;1.0460;0.3033;
280.2000;1.0444;0.2938;
280.5000;1.0419;0.2867;
280.8000;1.0427;0.2891;
281.1000;1.0452;0.2962;
281.4000;1.0468;0.2985;
281.7000;1.0452;0.3009;
282.0000;1.0444;0.3033;
282.3000;1.0452;0.3080;
282.6000;1.0468;0.3175;
282.9000;1.0444;0.3127;
283.2000;1.0452;0.3080;
283.5000;1.0452;0.3104;
283.8000;1.0435;0.3056;
284.1000;1.0452;0.3127;
284.4000;1.0435;0.3127;
284.7000;1.0444;0.3127;
285.0000;1.0444;0.3151;
285.3000;1.0452;0.3104;
285.6000;1.0444;0.3127;
285.9000;1.0435;0.2962;
286.2000;1.0435;0.2962;
286.5000;1.0427;0.3080;
286.8000;1.0435;0.3056;
287.1000;1.0427;0.3009;
287.4000;1.0435;0.3033;
287.7000;1.0460;0.3033;
288.0000;1.0452;0.3009;
288.3000;1.0452;0.3033;
288.6000;1.0444;0.3009;
288.9000;1.0444;0.3009;
289.2000;1.0444;0.3009;
289.5000;1.0444;0.2938;
289.8000;1.0444;0.2843;
290.1000;1.0460;0.2772;
290.4000;1.0460;0.2867;
290.7000;1.0452;0.2891;
291.0000;1.0460;0.2891;
291.3000;1.0435;0.2938;
291.6000;1.0444;0.2962;
291.9000;1.0452;0.2985;
292.2000;1.0427;0.3033;
292.5000;1.0411;0.2891;
292.8000;1.0444;0.2938;
293.1000;1.0444;0.2867;
293.4000;1.0427;0.2796;
293.7000;1.0452;0.2891;
294.0000;1.0419;0.2867;
294.3000;1.0419;0.2867;
294.6000;1.0452;0.2962;
294.9000;1.0435;0.2938;
295.2000;1.0379;0.2748;
295.5000;1.0444;0.2962;
295.8000;1.0427;0.2891;
296.1000;1.0452;0.2938;
296.4000;1.0403;0.2891;
296.7000;1.0476;0.3104;
297.0000;1.0435;0.3080;
297.3000;1.0444;0.2962;
297.6000;1.0452;0.2914;
297.9000;1.0435;0.2914;
298.2000;1.0444;0.2843;
298.5000;1.0444;0.2796;
298.8000;1.0452;0.2796;
299.1000;1.0452;0.2819;
299.4000;1.0460;0.2914;
299.7000;1.0444;0.2914;
300.0000;1.0452;0.2985;
300.3000;1.0452;0.3080;
300.6000;1.0444;0.3080;
300.9000;1.0468;0.3080;
301.2000;1.0444;0.2985;
301.5000;1.0379;0.2843;
301.8000;1.0444;0.3033;
302.1000;1.0419;0.3009;
302.4000;1.0444;0.3056;
302.7000;1.0427;0.3033;
303.0000;1.0452;0.3009;
303.3000;1.0468;0.3033;
303.6000;1.0427;0.2867;
303.9000;1.0501;0.3080;
304.2000;1.0460;0.2962;
304.5000;1.0468;0.2891;
304.8000;1.0468;0.2891;
305.1000;1.0444;0.2772;
305.4000;1.0444;0.2748;
305.7000;1.0468;0.2772;
306.0000;1.0435;0.2772;
306.3000;1.0444;0.2819;
306.6000;1.0444;0.2772;
306.9000;1.0435;0.2819;
307.2000;1.0444;0.2819;
307.5000;1.0427;0.2843;
307.8000;1.0444;0.2891;
308.1000;1.0444;0.2867;
308.4000;1.0435;0.2819;
308.7000;1.0427;0.2819;
309.0000;1.0435;0.2819;
309.3000;1.0452;0.2843;
309.6000;1.0419;0.2725;
309.9000;1.0427;0.2725;
310.2000;1.0435;0.2772;
310.5000;1.0452;0.2748;
310.8000;1.0435;0.2867;
311.1000;1.0444;0.2938;
311.4000;1.0435;0.2891;
311.7000;1.0452;0.2985;
312.0000;1.0468;0.3080;
312.3000;1.0395;0.2938;
312.6000;1.0435;0.3009;
312.9000;1.0509;0.3222;
313.2000;1.0460;0.3056;
313.5000;1.0435;0.2985;
313.8000;1.0419;0.2938;
314.1000;1.0419;0.2914;
314.4000;1.0444;0.2938;
314.7000;1.0435;0.2914;
315.0000;1.0435;0.2891;
315.3000;1.0387;0.2914;
315.6000;1.0427;0.2938;
315.9000;1.0452;0.2867;
316.2000;1.0444;0.2891;
316.5000;1.0435;0.2867;
316.8000;1.0444;0.2891;
317.1000;1.0460;0.2962;
317.4000;1.0460;0.2985;
317.7000;1.0444;0.3033;
318.0000;1.0427;0.3009;
318.3000;1.0435;0.3033;
318.6000;1.0444;0.2962;
318.9000;1.0468;0.2962;
319.2000;1.0452;0.3009;
319.5000;1.0435;0.3056;
319.8000;1.0435;0.3056;
320.1000;1.0476;0.3009;
320.4000;1.0427;0.2891;
320.7000;1.0427;0.2938;
321.0000;1.0444;0.2914;
321.3000;1.0452;0.2914;
321.6000;1.0435;0.2962;
321.9000;1.0419;0.3009;
322.2000;1.0419;0.3056;
322.5000;1.0435;0.3056;
322.8000;1.0435;0.3056;
323.1000;1.0435;0.2985;
323.4000;1.0427;0.3056;
323.7000;1.0444;0.3056;
324.0000;1.0370;0.2867;
324.3000;1.0427;0.3033;
324.6000;1.0362;0.2843;
324.9000;1.0370;0.2962;
325.2000;1.0411;0.3080;
325.5000;1.0427;0.2985;
325.8000;1.0427;0.2891;
326.1000;1.0501;0.3033;
326.4000;1.0444;0.2843;
326.7000;1.0452;0.2891;
327.0000;1.0379;0.2677;
327.3000;1.0476;0.2914;
327.6000;1.0435;0.2772;
327.9000;1.0427;0.2796;
328.2000;1.0419;0.2725;
328.5000;1.0427;0.2772;
328.8000;1.0444;0.2701;
329.1000;1.0419;0.2772;
329.4000;1.0427;0.2843;
329.7000;1.0411;0.2772;
330.0000;1.0460;0.2843;
330.3000;1.0411;0.2772;
330.6000;1.0435;0.2819;
330.9000;1.0427;0.2843;
331.2000;1.0427;0.2796;
331.5000;1.0444;0.2867;
331.8000;1.0460;0.2985;
332.1000;1.0435;0.2891;
332.4000;1.0427;0.2938;
332.7000;1.0452;0.3033;
333.0000;1.0419;0.2938;
333.3000;1.0419;0.2962;
333.6000;1.0501;0.3222;
333.9000;1.0435;0.3009;
334.2000;1.0435;0.3033;
334.5000;1.0419;0.3033;
334.8000;1.0444;0.2962;
335.1000;1.0452;0.2938;
335.4000;1.0435;0.2843;
335.7000;1.0419;0.2772;
336.0000;1.0435;0.2796;
336.3000;1.0444;0.2819;
336.6000;1.0444;0.2796;
336.9000;1.0444;0.2867;
337.2000;1.0435;0.2748;
337.5000;1.0435;0.2819;
337.8000;1.0452;0.2843;
338.1000;1.0444;0.2772;
338.4000;1.0460;0.2843;
338.7000;1.0452;0.2891;
339.0000;1.0435;0.2867;
339.3000;1.0435;0.2867;
339.6000;1.0444;0.2843;
339.9000;1.0435;0.2772;
340.2000;1.0444;0.2796;
340.5000;1.0435;0.2843;
340.8000;1.0419;0.2819;
341.1000;1.0427;0.2725;
341.4000;1.0435;0.2725;
341.7000;1.0427;0.2725;
342.0000;1.0444;0.2701;
342.3000;1.0460;0.2843;
342.6000;1.0525;0.3033;
342.9000;1.0411;0.2796;
343.2000;1.0411;0.2772;
343.5000;1.0427;0.2843;
343.8000;1.0419;0.2819;
344.1000;1.0452;0.2891;
344.4000;1.0435;0.2891;
344.7000;1.0427;0.2843;
345.0000;1.0435;0.2819;
345.3000;1.0444;0.2772;
345.6000;1.0444;0.2796;
345.9000;1.0427;0.2725;
346.2000;1.0492;0.2891;
346.5000;1.0419;0.2772;
346.8000;1.0444;0.2891;
347.1000;1.0435;0.2772;
347.4000;1.0435;0.2701;
347.7000;1.0419;0.2677;
348.0000;1.0427;0.2701;
348.3000;1.0427;0.2772;
348.6000;1.0452;0.2891;
348.9000;1.0427;0.2772;
349.2000;1.0435;0.2796;
349.5000;1.0435;0.2843;
349.8000;1.0419;0.2748;
350.1000;1.0403;0.2796;
350.4000;1.0435;0.2891;
350.7000;1.0435;0.2867;
351.0000;1.0419;0.2867;
351.3000;1.0427;0.2891;
351.6000;1.0427;0.2843;
351.9000;1.0435;0.2796;
352.2000;1.0427;0.2867;
352.5000;1.0427;0.2843;
352.8000;1.0419;0.2725;
353.1000;1.0444;0.2819;
353.4000;1.0444;0.2867;
353.7000;1.0427;0.2891;
354.0000;1.0427;0.2843;
354.3000;1.0435;0.2843;
354.6000;1.0435;0.2819;
354.9000;1.0427;0.2796;
355.2000;1.0411;0.2725;
355.5000;1.0444;0.2748;
355.8000;1.0419;0.2725;
356.1000;1.0435;0.2725;
356.4000;1.0435;0.2748;
356.7000;1.0427;0.2725;
357.0000;1.0427;0.2725;
357.3000;1.0427;0.2701;
357.6000;1.0411;0.2677;
357.9000;1.0411;0.2772;
358.2000;1.0419;0.2796;
358.5000;1.0419;0.2796;
358.8000;1.0435;0.2843;
359.1000;1.0452;0.3009;
359.4000;1.0452;0.3033;
359.7000;1.0435;0.3033;
360.0000;1.0419;0.2867;
360.3000;1.0419;0.2796;
360.6000;1.0435;0.2725;
360.9000;1.0427;0.2772;
361.2000;1.0411;0.2772;
361.5000;1.0411;0.2843;
361.8000;1.0419;0.2914;
362.1000;1.0435;0.2938;
362.4000;1.0452;0.2938;
362.7000;1.0419;0.2891;
363.0000;1.0419;0.2819;
363.3000;1.0444;0.2772;
363.6000;1.0452;0.2843;
363.9000;1.0452;0.2819;
364.2000;1.0444;0.2772;
364.5000;1.0435;0.2819;
364.8000;1.0435;0.2843;
365.1000;1.0427;0.2796;
365.4000;1.0427;0.2819;
365.7000;1.0435;0.2843;
366.0000;1.0435;0.2891;
366.3000;1.0411;0.2796;
366.6000;1.0444;0.2914;
366.9000;1.0411;0.2819;
367.2000;1.0411;0.2867;
367.5000;1.0452;0.2938;
367.8000;1.0411;0.2819;
368.1000;1.0419;0.2796;
368.4000;1.0419;0.2843;
368.7000;1.0435;0.2796;
369.0000;1.0427;0.2772;
369.3000;1.0419;0.2725;
369.6000;1.0435;0.2583;
369.9000;1.0444;0.2677;
370.2000;1.0427;0.2701;
370.5000;1.0419;0.2677;
370.8000;1.0427;0.2630;
371.1000;1.0427;0.2677;
371.4000;1.0435;0.2725;
371.7000;1.0509;0.2985;
372.0000;1.0427;0.2819;
372.3000;1.0444;0.2938;
372.6000;1.0435;0.2938;
372.9000;1.0419;0.2914;
373.2000;1.0427;0.2938;
373.5000;1.0403;0.2867;
373.8000;1.0460;0.3009;
374.1000;1.0419;0.2867;
374.4000;1.0419;0.2796;
374.7000;1.0403;0.2748;
375.0000;1.0419;0.2725;
375.3000;1.0427;0.2725;
375.6000;1.0387;0.2583;
375.9000;1.0419;0.2725;
376.2000;1.0427;0.2725;
376.5000;1.0419;0.2772;
376.8000;1.0419;0.2819;
377.1000;1.0427;0.2914;
377.4000;1.0419;0.2891;
377.7000;1.0444;0.2938;
378.0000;1.0427;0.2867;
378.3000;1.0387;0.2867;
378.6000;1.0419;0.2867;
378.9000;1.0411;0.2843;
379.2000;1.0419;0.2891;
379.5000;1.0411;0.2867;
379.8000;1.0435;0.2867;
380.1000;1.0452;0.2891;
380.4000;1.0444;0.2867;
380.7000;1.0419;0.2914;
381.0000;1.0427;0.2914;
381.3000;1.0427;0.2843;
381.6000;1.0435;0.2914;
381.9000;1.0444;0.2843;
382.2000;1.0411;0.2843;
382.5000;1.0427;0.2843;
382.8000;1.0419;0.2867;
383.1000;1.0403;0.2867;
383.4000;1.0427;0.2914;
383.7000;1.0419;0.2843;
384.0000;1.0444;0.2819;
384.3000;1.0427;0.2725;
384.6000;1.0427;0.2677;
384.9000;1.0419;0.2772;
385.2000;1.0419;0.2938;
385.5000;1.0427;0.2938;
385.8000;1.0427;0.2914;
386.1000;1.0444;0.2962;
386.4000;1.0427;0.2938;
386.7000;1.0419;0.2962;
387.0000;1.0427;0.2985;
387.3000;1.0346;0.2772;
387.6000;1.0411;0.2867;
387.9000;1.0411;0.2796;
388.2000;1.0476;0.2867;
388.5000;1.0403;0.2725;
388.8000;1.0411;0.2701;
389.1000;1.0419;0.2843;
389.4000;1.0476;0.3009;
389.7000;1.0419;0.2891;
390.0000;1.0419;0.2891;
390.3000;1.0427;0.2914;
390.6000;1.0419;0.2891;
390.9000;1.0468;0.2985;
391.2000;1.0452;0.2938;
391.5000;1.0452;0.3033;
391.8000;1.0435;0.2938;
392.1000;1.0427;0.2843;
392.4000;1.0427;0.2891;
392.7000;1.0444;0.2867;
393.0000;1.0435;0.2867;
393.3000;1.0419;0.2867;
393.6000;1.0444;0.2938;
393.9000;1.0427;0.2843;
394.2000;1.0427;0.2891;
394.5000;1.0427;0.2867;
394.8000;1.0427;0.2843;
395.1000;1.0476;0.3009;
395.4000;1.0411;0.2938;
395.7000;1.0427;0.3009;
396.0000;1.0403;0.2962;
396.3000;1.0411;0.3009;
396.6000;1.0419;0.2938;
396.9000;1.0419;0.2914;
397.2000;1.0419;0.2938;
397.5000;1.0419;0.2867;
397.8000;1.0427;0.2962;
398.1000;1.0379;0.2843;
398.4000;1.0411;0.2819;
398.7000;1.0403;0.2843;
399.0000;1.0419;0.2819;
399.3000;1.0419;0.2843;
399.6000;1.0419;0.2891;
399.9000;1.0419;0.2938;
400.2000;1.0435;0.3056;
400.5000;1.0427;0.3033;
400.8000;1.0435;0.3056;
401.1000;1.0419;0.3009;
401.4000;1.0427;0.2962;
401.7000;1.0419;0.2962;
402.0000;1.0411;0.3033;
402.3000;1.0411;0.2914;
402.6000;1.0403;0.2819;
402.9000;1.0403;0.2819;
403.2000;1.0411;0.2796;
403.5000;1.0452;0.2819;
403.8000;1.0362;0.2677;
404.1000;1.0411;0.2867;
404.4000;1.0419;0.2914;
404.7000;1.0419;0.2914;
405.0000;1.0403;0.3009;
405.3000;1.0427;0.3009;
405.6000;1.0427;0.2985;
405.9000;1.0411;0.2985;
406.2000;1.0484;0.3151;
406.5000;1.0411;0.2938;
406.8000;1.0395;0.2725;
407.1000;1.0427;0.2819;
407.4000;1.0411;0.2819;
407.7000;1.0411;0.2867;
408.0000;1.0411;0.2843;
408.3000;1.0403;0.2843;
408.6000;1.0427;0.2796;
408.9000;1.0379;0.2748;
409.2000;1.0411;0.2772;
409.5000;1.0411;0.2843;
409.8000;1.0370;0.2583;
410.1000;1.0411;0.2772;
410.4000;1.0403;0.2772;
410.7000;1.0427;0.2796;
411.0000;1.0444;0.2867;
411.3000;1.0444;0.2914;
411.6000;1.0419;0.2914;
411.9000;1.0403;0.2985;
412.2000;1.0395;0.2962;
412.5000;1.0411;0.2985;
412.8000;1.0403;0.2962;
413.1000;1.0484;0.3080;
413.4000;1.0379;0.2796;
413.7000;1.0395;0.2819;
414.0000;1.0387;0.2796;
414.3000;1.0411;0.2891;
414.6000;1.0427;0.2891;
414.9000;1.0411;0.2914;
415.2000;1.0346;0.2796;
415.5000;1.0395;0.2819;
415.8000;1.0427;0.2891;
416.1000;1.0419;0.2938;
416.4000;1.0427;0.2962;
416.7000;1.0403;0.2914;
417.0000;1.0492;0.3080;
417.3000;1.0419;0.2962;
417.6000;1.0395;0.2914;
417.9000;1.0370;0.2891;
418.2000;1.0370;0.2891;
418.5000;1.0403;0.2914;
418.8000;1.0403;0.2985;
419.1000;1.0403;0.2938;
419.4000;1.0411;0.2985;
419.7000;1.0444;0.3056;
420.0000;1.0411;0.3009;
420.3000;1.0427;0.3056;
420.6000;1.0419;0.3080;
420.9000;1.0419;0.3009;
421.2000;1.0427;0.3033;
421.5000;1.0419;0.3127;
421.8000;1.0411;0.3080;
422.1000;1.0419;0.3127;
422.4000;1.0411;0.3199;
422.7000;1.0419;0.3033;
423.0000;1.0411;0.2914;
423.3000;1.0411;0.2985;
423.6000;1.0395;0.2914;
423.9000;1.0330;0.2654;
424.2000;1.0403;0.2843;
424.5000;1.0419;0.2867;
424.8000;1.0362;0.2772;
425.1000;1.0403;0.2891;
425.4000;1.0395;0.2891;
425.7000;1.0427;0.3009;
426.0000;1.0403;0.3009;
426.3000;1.0362;0.2938;
426.6000;1.0427;0.2985;
426.9000;1.0411;0.2867;
427.2000;1.0411;0.2891;
427.5000;1.0427;0.3033;
427.8000;1.0411;0.2985;
428.1000;1.0419;0.3056;
428.4000;1.0452;0.3127;
428.7000;1.0395;0.2938;
429.0000;1.0419;0.2914;
429.3000;1.0403;0.2819;
429.6000;1.0403;0.2796;
429.9000;1.0419;0.2843;
430.2000;1.0419;0.2796;
430.5000;1.0427;0.2843;
430.8000;1.0444;0.2867;
431.1000;1.0419;0.2819;
431.4000;1.0411;0.2867;
431.7000;1.0435;0.2772;
432.0000;1.0411;0.2725;
432.3000;1.0403;0.2796;
432.6000;1.0419;0.2796;
432.9000;1.0435;0.2843;
433.2000;1.0411;0.2843;
433.5000;1.0411;0.2843;
433.8000;1.0427;0.2938;
434.1000;1.0419;0.2962;
434.4000;1.0411;0.2938;
434.7000;1.0427;0.2962;
435.0000;1.0411;0.2962;
435.3000;1.0427;0.3080;
435.6000;1.0419;0.2985;
435.9000;1.0427;0.2938;
436.2000;1.0346;0.2772;
436.5000;1.0411;0.3033;
436.8000;1.0387;0.3033;
437.1000;1.0427;0.3104;
437.4000;1.0411;0.3104;
437.7000;1.0427;0.3199;
438.0000;1.0403;0.3127;
438.3000;1.0411;0.3175;
438.6000;1.0354;0.3127;
438.9000;1.0419;0.3270;
439.2000;1.0411;0.3293;
439.5000;1.0411;0.3341;
439.8000;1.0411;0.3270;
440.1000;1.0444;0.3270;
440.4000;1.0419;0.3199;
440.7000;1.0427;0.3199;
441.0000;1.0452;0.3175;
441.3000;1.0419;0.3104;
441.6000;1.0419;0.3151;
441.9000;1.0419;0.3080;
442.2000;1.0403;0.2962;
442.5000;1.0419;0.2985;
442.8000;1.0427;0.2985;
443.1000;1.0427;0.3056;
443.4000;1.0435;0.3104;
443.7000;1.0419;0.3104;
444.0000;1.0411;0.3127;
444.3000;1.0444;0.3222;
444.6000;1.0444;0.3199;
444.9000;1.0419;0.3127;
445.2000;1.0435;0.3033;
445.5000;1.0427;0.2938;
445.8000;1.0427;0.2914;
446.1000;1.0435;0.2891;
446.4000;1.0419;0.2891;
446.7000;1.0403;0.2725;
447.0000;1.0411;0.2796;
447.3000;1.0395;0.2819;
447.6000;1.0403;0.2843;
447.9000;1.0354;0.2677;
448.2000;1.0419;0.2796;
448.5000;1.0427;0.2843;
448.8000;1.0387;0.2725;
449.1000;1.0435;0.2891;
449.4000;1.0387;0.2867;
449.7000;1.0419;0.2962;
450.0000;1.0427;0.2914;
450.3000;1.0435;0.2985;
450.6000;1.0419;0.2962;
450.9000;1.0452;0.2985;
451.2000;1.0411;0.2796;
451.5000;1.0411;0.2867;
451.8000;1.0444;0.2938;
452.1000;1.0403;0.2796;
452.4000;1.0370;0.2748;
452.7000;1.0395;0.2796;
453.0000;1.0411;0.2748;
453.3000;1.0419;0.2701;
453.6000;1.0395;0.2748;
453.9000;1.0411;0.2796;
454.2000;1.0427;0.2796;
454.5000;1.0419;0.2843;
454.8000;1.0387;0.2867;
455.1000;1.0419;0.3009;
455.4000;1.0427;0.3104;
455.7000;1.0419;0.2914;
456.0000;1.0435;0.2867;
456.3000;1.0435;0.2891;
456.6000;1.0411;0.2891;
456.9000;1.0427;0.2985;
457.2000;1.0444;0.3009;
457.5000;1.0419;0.2914;
457.8000;1.0427;0.2914;
458.1000;1.0435;0.2962;
458.4000;1.0435;0.3056;
458.7000;1.0411;0.3056;
459.0000;1.0444;0.3080;
459.3000;1.0419;0.3033;
459.6000;1.0427;0.2962;
459.9000;1.0419;0.2938;
460.2000;1.0419;0.2819;
460.5000;1.0419;0.2796;
460.8000;1.0403;0.2819;
461.1000;1.0427;0.2819;
461.4000;1.0411;0.2843;
461.7000;1.0403;0.2796;
462.0000;1.0419;0.2843;
462.3000;1.0411;0.2867;
462.6000;1.0411;0.2891;
462.9000;1.0387;0.2891;
463.2000;1.0419;0.2938;
463.5000;1.0460;0.3104;
463.8000;1.0427;0.3033;
464.1000;1.0419;0.3056;
464.4000;1.0419;0.3009;
464.7000;1.0427;0.3009;
465.0000;1.0435;0.2938;
465.3000;1.0403;0.2891;
465.6000;1.0313;0.2677;
465.9000;1.0395;0.2772;
466.2000;1.0427;0.2796;
466.5000;1.0427;0.2796;
466.8000;1.0427;0.2819;
467.1000;1.0411;0.2772;
467.4000;1.0427;0.2819;
467.7000;1.0419;0.2772;
468.0000;1.0427;0.2796;
468.3000;1.0427;0.2843;
468.6000;1.0435;0.2725;
468.9000;1.0411;0.2843;
469.2000;1.0411;0.2891;
469.5000;1.0411;0.2867;
469.8000;1.0411;0.2962;
470.1000;1.0411;0.3009;
470.4000;1.0411;0.3104;
470.7000;1.0403;0.2985;
471.0000;1.0370;0.2819;
471.3000;1.0403;0.2938;
471.6000;1.0419;0.3009;
471.9000;1.0387;0.2938;
472.2000;1.0395;0.2962;
472.5000;1.0387;0.2962;
472.8000;1.0387;0.3033;
473.1000;1.0387;0.2962;
473.4000;1.0419;0.3009;
473.7000;1.0411;0.2962;
474.0000;1.0411;0.3033;
474.3000;1.0419;0.2962;
474.6000;1.0403;0.2891;
474.9000;1.0419;0.2843;
475.2000;1.0411;0.2867;
475.5000;1.0411;0.2867;
475.8000;1.0395;0.2796;
476.1000;1.0395;0.2819;
476.4000;1.0387;0.2819;
476.7000;1.0395;0.2772;
477.0000;1.0387;0.2725;
477.3000;1.0387;0.2677;
477.6000;1.0419;0.2701;
477.9000;1.0411;0.2701;
478.2000;1.0403;0.2701;
478.5000;1.0379;0.2677;
478.8000;1.0395;0.2701;
479.1000;1.0403;0.2748;
479.4000;1.0395;0.2725;
479.7000;1.0395;0.2677;
480.0000;1.0419;0.2772;
480.3000;1.0395;0.2701;
480.6000;1.0419;0.2772;
480.9000;1.0411;0.2677;
481.2000;1.0435;0.2654;
481.5000;1.0419;0.2583;
481.8000;1.0387;0.2464;
482.1000;1.0419;0.2654;
482.4000;1.0395;0.2701;
482.7000;1.0468;0.2962;
483.0000;1.0419;0.2819;
483.3000;1.0411;0.2748;
483.6000;1.0403;0.2843;
483.9000;1.0411;0.2914;
484.2000;1.0403;0.2867;
484.5000;1.0395;0.2796;
484.8000;1.0403;0.2819;
485.1000;1.0411;0.2796;
485.4000;1.0452;0.2914;
485.7000;1.0395;0.2796;
486.0000;1.0444;0.2867;
486.3000;1.0427;0.2748;
486.6000;1.0452;0.2701;
486.9000;1.0444;0.2748;
487.2000;1.0411;0.2772;
487.5000;1.0419;0.2701;
487.8000;1.0419;0.2748;
488.1000;1.0411;0.2796;
488.4000;1.0403;0.2748;
488.7000;1.0468;0.2914;
489.0000;1.0427;0.2867;
489.3000;1.0427;0.2867;
489.6000;1.0411;0.2772;
489.9000;1.0411;0.2843;
490.2000;1.0419;0.2867;
490.5000;1.0419;0.2867;
490.8000;1.0411;0.2938;
491.1000;1.0411;0.2867;
491.4000;1.0411;0.2867;
491.7000;1.0419;0.2843;
492.0000;1.0411;0.2796;
492.3000;1.0427;0.2914;
492.6000;1.0403;0.2891;
492.9000;1.0403;0.2867;
493.2000;1.0403;0.2914;
493.5000;1.0419;0.3009;
493.8000;1.0395;0.3009;
494.1000;1.0452;0.3151;
494.4000;1.0419;0.3056;
494.7000;1.0419;0.3009;
495.0000;1.0403;0.2914;
495.3000;1.0427;0.3056;
495.6000;1.0411;0.3056;
495.9000;1.0411;0.3033;
496.2000;1.0395;0.2985;
496.5000;1.0411;0.2985;
496.8000;1.0403;0.3056;
497.1000;1.0419;0.3056;
497.4000;1.0362;0.2985;
497.7000;1.0403;0.3033;
498.0000;1.0419;0.3033;
498.3000;1.0411;0.3056;
498.6000;1.0419;0.3033;
498.9000;1.0370;0.3009;
499.2000;1.0403;0.3009;
499.5000;1.0419;0.2985;
499.8000;1.0411;0.2938;
500.1000;1.0403;0.2962;
500.4000;1.0419;0.3009;
500.7000;1.0411;0.3033;
501.0000;1.0427;0.2938;
501.3000;1.0387;0.2891;
501.6000;1.0403;0.2891;
501.9000;1.0395;0.2867;
502.2000;1.0427;0.2962;
502.5000;1.0379;0.2962;
502.8000;1.0419;0.3104;
503.1000;1.0395;0.3104;
503.4000;1.0395;0.3033;
503.7000;1.0460;0.3199;
504.0000;1.0403;0.3127;
504.3000;1.0330;0.2985;
504.6000;1.0411;0.3104;
504.9000;1.0370;0.3009;
505.2000;1.0411;0.3175;
505.5000;1.0387;0.3104;
505.8000;1.0468;0.3270;
506.1000;1.0427;0.3175;
506.4000;1.0387;0.3056;
506.7000;1.0411;0.2914;
507.0000;1.0411;0.2891;
507.3000;1.0427;0.2938;
507.6000;1.0379;0.2772;
507.9000;1.0403;0.2843;
508.2000;1.0403;0.2914;
508.5000;1.0411;0.2962;
508.8000;1.0419;0.2985;
509.1000;1.0468;0.3151;
509.4000;1.0387;0.2985;
509.7000;1.0354;0.3009;
510.0000;1.0387;0.2985;
510.3000;1.0395;0.2985;
510.6000;1.0403;0.3056;
510.9000;1.0403;0.3033;
511.2000;1.0419;0.2938;
511.5000;1.0362;0.2725;
511.8000;1.0387;0.2867;
512.1000;1.0411;0.2938;
512.4000;1.0403;0.2985;
512.7000;1.0395;0.2985;
513.0000;1.0395;0.2985;
513.3000;1.0395;0.3009;
513.6000;1.0403;0.3056;
513.9000;1.0403;0.3104;
514.2000;1.0379;0.3080;
514.5000;1.0419;0.3222;
514.8000;1.0403;0.3175;
515.1000;1.0395;0.3151;
515.4000;1.0395;0.3080;
515.7000;1.0395;0.3127;
516.0000;1.0395;0.3056;
516.3000;1.0379;0.2985;
516.6000;1.0403;0.3009;
516.9000;1.0395;0.3009;
517.2000;1.0387;0.2985;
517.5000;1.0379;0.2938;
517.8000;1.0387;0.2962;
518.1000;1.0419;0.3033;
518.4000;1.0395;0.3033;
518.7000;1.0435;0.3080;
519.0000;1.0395;0.3056;
519.3000;1.0411;0.3080;
519.6000;1.0354;0.2938;
519.9000;1.0411;0.3009;
520.2000;1.0395;0.2962;
520.5000;1.0322;0.2796;
520.8000;1.0387;0.2938;
521.1000;1.0395;0.2962;
521.4000;1.0387;0.2891;
521.7000;1.0387;0.2938;
522.0000;1.0395;0.2819;
522.3000;1.0395;0.2843;
522.6000;1.0435;0.2985;
522.9000;1.0411;0.2914;
523.2000;1.0379;0.2843;
523.5000;1.0395;0.2772;
523.8000;1.0419;0.2843;
524.1000;1.0427;0.2843;
524.4000;1.0403;0.2891;
524.7000;1.0370;0.2867;
525.0000;1.0419;0.2914;
525.3000;1.0403;0.2914;
525.6000;1.0387;0.2914;
525.9000;1.0395;0.2914;
526.2000;1.0379;0.2914;
526.5000;1.0395;0.2962;
526.8000;1.0395;0.2962;
527.1000;1.0379;0.2962;
527.4000;1.0354;0.2985;
527.7000;1.0379;0.3033;
528.0000;1.0411;0.3104;
528.3000;1.0435;0.3175;
528.6000;1.0387;0.3151;
528.9000;1.0403;0.3199;
529.2000;1.0435;0.3199;
529.5000;1.0427;0.3175;
529.8000;1.0395;0.3080;
530.1000;1.0411;0.2985;
530.4000;1.0379;0.2867;
530.7000;1.0395;0.2938;
531.0000;1.0419;0.3033;
531.3000;1.0411;0.3033;
531.6000;1.0395;0.3056;
531.9000;1.0387;0.3080;
532.2000;1.0403;0.3056;
532.5000;1.0419;0.3104;
532.8000;1.0419;0.3127;
533.1000;1.0419;0.3127;
533.4000;1.0395;0.3056;
533.7000;1.0379;0.3009;
534.0000;1.0411;0.3033;
534.3000;1.0403;0.3009;
534.6000;1.0403;0.3033;
534.9000;1.0395;0.3033;
535.2000;1.0411;0.3127;
535.5000;1.0403;0.3222;
535.8000;1.0395;0.3199;
536.1000;1.0403;0.3199;
536.4000;1.0395;0.3175;
536.7000;1.0395;0.3056;
537.0000;1.0403;0.3033;
537.3000;1.0403;0.2985;
537.6000;1.0411;0.2962;
537.9000;1.0419;0.2962;
538.2000;1.0452;0.3009;
538.5000;1.0395;0.3009;
538.8000;1.0476;0.3222;
539.1000;1.0427;0.3033;
539.4000;1.0411;0.2962;
539.7000;1.0427;0.2962;
540.0000;1.0403;0.2914;
540.3000;1.0419;0.3033;
540.6000;1.0403;0.2985;
540.9000;1.0403;0.2985;
541.2000;1.0387;0.2985;
541.5000;1.0403;0.2914;
541.8000;1.0379;0.2867;
542.1000;1.0362;0.2867;
542.4000;1.0395;0.2819;
542.7000;1.0427;0.2867;
543.0000;1.0419;0.2938;
543.3000;1.0411;0.2962;
543.6000;1.0395;0.2867;
543.9000;1.0395;0.2867;
544.2000;1.0460;0.2985;
544.5000;1.0379;0.2819;
544.8000;1.0354;0.2701;
545.1000;1.0444;0.2962;
545.4000;1.0379;0.2819;
545.7000;1.0370;0.2843;
546.0000;1.0395;0.2867;
546.3000;1.0395;0.2914;
546.6000;1.0379;0.2819;
546.9000;1.0411;0.2914;
547.2000;1.0419;0.2914;
547.5000;1.0395;0.2914;
547.8000;1.0403;0.3009;
548.1000;1.0354;0.2914;
548.4000;1.0395;0.3080;
548.7000;1.0411;0.3175;
549.0000;1.0411;0.3104;
549.3000;1.0411;0.3080;
549.6000;1.0411;0.2985;
549.9000;1.0403;0.2938;
550.2000;1.0387;0.2891;
550.5000;1.0346;0.2701;
550.8000;1.0379;0.2796;
551.1000;1.0411;0.2819;
551.4000;1.0379;0.2843;
551.7000;1.0379;0.2819;
552.0000;1.0427;0.2938;
552.3000;1.0395;0.2891;
552.6000;1.0444;0.2962;
552.9000;1.0395;0.2938;
553.2000;1.0403;0.3033;
553.5000;1.0387;0.3056;
553.8000;1.0370;0.2938;
554.1000;1.0411;0.2938;
554.4000;1.0379;0.2891;
554.7000;1.0387;0.2867;
555.0000;1.0387;0.2843;
555.3000;1.0419;0.2891;
555.6000;1.0379;0.2819;
555.9000;1.0395;0.2867;
556.2000;1.0419;0.2914;
556.5000;1.0395;0.2867;
556.8000;1.0379;0.2891;
557.1000;1.0403;0.2962;
557.4000;1.0395;0.2985;
557.7000;1.0411;0.3080;
558.0000;1.0379;0.3056;
558.3000;1.0387;0.3080;
558.6000;1.0403;0.3151;
558.9000;1.0387;0.3080;
559.2000;1.0395;0.3104;
559.5000;1.0379;0.3056;
559.8000;1.0370;0.3056;
560.1000;1.0427;0.3222;
560.4000;1.0395;0.3127;
560.7000;1.0346;0.2985;
561.0000;1.0379;0.3127;
561.3000;1.0395;0.3056;
561.6000;1.0395;0.3033;
561.9000;1.0362;0.2985;
562.2000;1.0403;0.3151;
562.5000;1.0370;0.3056;
562.8000;1.0379;0.3151;
563.1000;1.0403;0.3199;
563.4000;1.0395;0.3127;
563.7000;1.0411;0.3151;
564.0000;1.0492;0.3341;
564.3000;1.0387;0.3056;
564.6000;1.0411;0.3127;
564.9000;1.0403;0.3151;
565.2000;1.0403;0.3151;
565.5000;1.0387;0.3127;
565.8000;1.0403;0.2985;
566.1000;1.0435;0.3056;
566.4000;1.0379;0.2914;
566.7000;1.0387;0.2938;
567.0000;1.0370;0.2962;
567.3000;1.0387;0.2985;
567.6000;1.0379;0.2938;
567.9000;1.0387;0.2914;
568.2000;1.0370;0.2891;
568.5000;1.0387;0.2891;
568.8000;1.0387;0.2985;
569.1000;1.0387;0.3080;
569.4000;1.0387;0.3104;
569.7000;1.0379;0.3175;
570.0000;1.0370;0.3151;
570.3000;1.0387;0.3175;
570.6000;1.0395;0.3151;
570.9000;1.0403;0.3151;
571.2000;1.0411;0.3104;
571.5000;1.0403;0.2962;
571.8000;1.0419;0.2962;
572.1000;1.0387;0.2914;
572.4000;1.0411;0.3009;
572.7000;1.0395;0.2985;
573.0000;1.0395;0.3009;
573.3000;1.0411;0.3033;
573.6000;1.0395;0.3009;
573.9000;1.0387;0.3033;
574.2000;1.0379;0.3080;
574.5000;1.0395;0.3056;
574.8000;1.0387;0.3127;
575.1000;1.0403;0.3127;
575.4000;1.0411;0.3127;
575.7000;1.0387;0.3104;
576.0000;1.0411;0.3175;
576.3000;1.0395;0.3151;
576.6000;1.0403;0.3199;
576.9000;1.0379;0.3151;
577.2000;1.0379;0.3080;
577.5000;1.0403;0.3127;
577.8000;1.0379;0.3009;
578.1000;1.0395;0.3056;
578.4000;1.0460;0.3270;
578.7000;1.0403;0.3104;
579.0000;1.0403;0.3080;
579.3000;1.0403;0.3056;
579.6000;1.0370;0.2962;
579.9000;1.0387;0.3033;
580.2000;1.0370;0.3104;
580.5000;1.0362;0.2985;
580.8000;1.0387;0.3056;
581.1000;1.0379;0.3104;
581.4000;1.0395;0.3151;
581.7000;1.0379;0.3127;
582.0000;1.0379;0.3056;
582.3000;1.0387;0.3033;
582.6000;1.0370;0.2985;
582.9000;1.0387;0.3033;
583.2000;1.0379;0.3033;
583.5000;1.0452;0.3080;
583.8000;1.0379;0.2938;
584.1000;1.0387;0.3056;
584.4000;1.0387;0.3033;
584.7000;1.0379;0.2962;
585.0000;1.0395;0.2938;
585.3000;1.0403;0.2867;
585.6000;1.0411;0.2867;
585.9000;1.0395;0.2843;
586.2000;1.0387;0.2796;
586.5000;1.0379;0.2819;
586.8000;1.0395;0.2819;
587.1000;1.0411;0.2796;
587.4000;1.0370;0.2796;
587.7000;1.0362;0.2748;
588.0000;1.0395;0.2796;
588.3000;1.0395;0.2725;
588.6000;1.0379;0.2701;
588.9000;1.0370;0.2677;
589.2000;1.0444;0.2819;
589.5000;1.0387;0.2701;
589.8000;1.0370;0.2725;
590.1000;1.0387;0.2725;
590.4000;1.0379;0.2748;
590.7000;1.0379;0.2701;
591.0000;1.0362;0.2701;
591.3000;1.0379;0.2867;
591.6000;1.0370;0.2819;
591.9000;1.0379;0.2819;
592.2000;1.0403;0.2843;
592.5000;1.0370;0.2843;
592.8000;1.0354;0.2796;
593.1000;1.0370;0.2891;
593.4000;1.0379;0.2938;
593.7000;1.0379;0.2938;
594.0000;1.0370;0.2914;
594.3000;1.0370;0.2985;
594.6000;1.0370;0.3033;
594.9000;1.0370;0.3033;
595.2000;1.0354;0.2962;
595.5000;1.0379;0.2914;
595.8000;1.0395;0.2772;
596.1000;1.0387;0.2819;
596.4000;1.0403;0.2867;
596.7000;1.0395;0.2867;
597.0000;1.0387;0.2819;
597.3000;1.0403;0.2867;
597.6000;1.0387;0.2867;
597.9000;1.0354;0.2819;
598.2000;1.0387;0.3009;
598.5000;1.0403;0.2962;
598.8000;1.0322;0.2701;
599.1000;1.0379;0.2891;
599.4000;1.0354;0.2891;
599.7000;1.0379;0.2985;
600.0000;1.0387;0.2962;
600.3000;1.0403;0.2725;
600.6000;1.0362;0.2559;
600.9000;1.0322;0.2346;
601.2000;1.0216;0.2038;
601.5000;1.0167;0.1919;
601.8000;1.0053;0.1516;
602.1000;0.9996;0.1208;
602.4000;0.9923;0.0948;
602.7000;0.9809;0.0663;
603.0000;0.9719;0.0403;
603.3000;0.9646;0.0190;
603.6000;0.9597;0.0047;
603.9000;0.9524;-0.0118;
604.2000;0.9394;-0.0355;
604.5000;0.9410;-0.0261;
604.8000;0.9345;-0.0450;
605.1000;0.9271;-0.0521;
605.4000;0.9206;-0.0569;
605.7000;0.9174;-0.0663;
606.0000;0.9125;-0.0711;
606.3000;0.9092;-0.0758;
606.6000;0.8987;-0.0877;
606.9000;0.9003;-0.0782;
607.2000;0.8905;-0.0948;
607.5000;0.8938;-0.0900;
607.8000;0.8873;-0.0995;
608.1000;0.8848;-0.1019;
608.4000;0.8816;-0.1066;
608.7000;0.8783;-0.1137;
609.0000;0.8734;-0.1232;
609.3000;0.8702;-0.1279;
609.6000;0.8669;-0.1279;
609.9000;0.8653;-0.1256;
610.2000;0.8612;-0.1351;
610.5000;0.8571;-0.1445;
610.8000;0.8555;-0.1493;
611.1000;0.8514;-0.1445;
611.4000;0.8490;-0.1422;
611.7000;0.8457;-0.1422;
612.0000;0.8425;-0.1493;
612.3000;0.8409;-0.1516;
612.6000;0.8425;-0.1374;
612.9000;0.8360;-0.1540;
613.2000;0.8327;-0.1587;
613.5000;0.8287;-0.1659;
613.8000;0.8254;-0.1753;
614.1000;0.8270;-0.1753;
614.4000;0.8230;-0.1848;
614.7000;0.8197;-0.1919;
615.0000;0.8173;-0.1872;
615.3000;0.8156;-0.1943;
615.6000;0.8140;-0.2014;
615.9000;0.8116;-0.2156;
616.2000;0.8107;-0.2132;
616.5000;0.8083;-0.2180;
616.8000;0.8067;-0.2156;
617.1000;0.8059;-0.2203;
617.4000;0.8042;-0.2180;
617.7000;0.8034;-0.2061;
618.0000;0.8002;-0.2038;
618.3000;0.7985;-0.2038;
618.6000;0.7969;-0.2061;
618.9000;0.7969;-0.2038;
619.2000;0.7928;-0.2085;
619.5000;0.7888;-0.2156;
619.8000;0.7920;-0.1967;
620.1000;0.7904;-0.2014;
620.4000;0.7880;-0.2132;
620.7000;0.7855;-0.2251;
621.0000;0.7855;-0.2227;
621.3000;0.7839;-0.2227;
621.6000;0.7806;-0.2251;
621.9000;0.7806;-0.2203;
622.2000;0.7798;-0.2061;
622.5000;0.7766;-0.2038;
622.8000;0.7757;-0.2085;
623.1000;0.7782;-0.1990;
623.4000;0.7717;-0.2085;
623.7000;0.7725;-0.2038;
624.0000;0.7717;-0.2014;
624.3000;0.7733;-0.2038;
624.6000;0.7676;-0.2132;
624.9000;0.7652;-0.2156;
625.2000;0.7643;-0.2109;
625.5000;0.7627;-0.2061;
625.8000;0.7619;-0.2109;
626.1000;0.7595;-0.2180;
626.4000;0.7586;-0.2109;
626.7000;0.7554;-0.2227;
627.0000;0.7538;-0.2275;
627.3000;0.7570;-0.2251;
627.6000;0.7554;-0.2298;
627.9000;0.7562;-0.2298;
628.2000;0.7530;-0.2275;
628.5000;0.7481;-0.2369;
628.8000;0.7521;-0.2298;
629.1000;0.7513;-0.2275;
629.4000;0.7513;-0.2275;
629.7000;0.7497;-0.2322;
630.0000;0.7489;-0.2298;
630.3000;0.7481;-0.2322;
630.6000;0.7456;-0.2322;
630.9000;0.7456;-0.2180;
631.2000;0.7456;-0.2109;
631.5000;0.7440;-0.2156;
631.8000;0.7424;-0.2109;
632.1000;0.7473;-0.2038;
632.4000;0.7407;-0.2132;
632.7000;0.7407;-0.2132;
633.0000;0.7407;-0.2156;
633.3000;0.7407;-0.2227;
633.6000;0.7391;-0.2322;
633.9000;0.7375;-0.2393;
634.2000;0.7367;-0.2464;
634.5000;0.7375;-0.2417;
634.8000;0.7350;-0.2440;
635.1000;0.7326;-0.2583;
635.4000;0.7350;-0.2464;
635.7000;0.7318;-0.2535;
636.0000;0.7318;-0.2511;
636.3000;0.7326;-0.2511;
636.6000;0.7310;-0.2535;
636.9000;0.7310;-0.2440;
637.2000;0.7293;-0.2488;
637.5000;0.7277;-0.2464;
637.8000;0.7245;-0.2488;
638.1000;0.7302;-0.2322;
638.4000;0.7269;-0.2346;
638.7000;0.7302;-0.2251;
639.0000;0.7261;-0.2275;
639.3000;0.7253;-0.2180;
639.6000;0.7302;-0.2180;
639.9000;0.7228;-0.2298;
640.2000;0.7228;-0.2322;
640.5000;0.7220;-0.2251;
640.8000;0.7236;-0.2156;
641.1000;0.7204;-0.2227;
641.4000;0.7188;-0.2156;
641.7000;0.7204;-0.2109;
642.0000;0.7179;-0.2203;
642.3000;0.7171;-0.2275;
642.6000;0.7179;-0.2322;
642.9000;0.7171;-0.2417;
643.2000;0.7171;-0.2393;
643.5000;0.7155;-0.2369;
643.8000;0.7131;-0.2488;
644.1000;0.7139;-0.2488;
644.4000;0.7147;-0.2488;
644.7000;0.7163;-0.2488;
645.0000;0.7147;-0.2511;
645.3000;0.7090;-0.2559;
645.6000;0.7114;-0.2464;
645.9000;0.7147;-0.2393;
646.2000;0.7114;-0.2488;
646.5000;0.7155;-0.2393;
646.8000;0.7098;-0.2488;
647.1000;0.7098;-0.2464;
647.4000;0.7147;-0.2322;
647.7000;0.7090;-0.2369;
648.0000;0.7074;-0.2346;
648.3000;0.7066;-0.2298;
648.6000;0.7082;-0.2227;
648.9000;0.7074;-0.2180;
649.2000;0.7057;-0.2275;
649.5000;0.7074;-0.2180;
649.8000;0.7049;-0.2227;
650.1000;0.7049;-0.2227;
650.4000;0.7041;-0.2275;
650.7000;0.7033;-0.2393;
651.0000;0.6968;-0.2535;
651.3000;0.7033;-0.2417;
651.6000;0.7017;-0.2440;
651.9000;0.7025;-0.2440;
652.2000;0.7074;-0.2298;
652.5000;0.7009;-0.2417;
652.8000;0.6984;-0.2511;
653.1000;0.6992;-0.2511;
653.4000;0.7009;-0.2488;
653.7000;0.7049;-0.2275;
654.0000;0.6992;-0.2369;
654.3000;0.6992;-0.2393;
654.6000;0.7009;-0.2298;
654.9000;0.6984;-0.2275;
655.2000;0.6968;-0.2251;
655.5000;0.6960;-0.2227;
655.8000;0.6976;-0.2251;
656.1000;0.6952;-0.2275;
656.4000;0.6976;-0.2203;
656.7000;0.6943;-0.2298;
657.0000;0.6952;-0.2322;
657.3000;0.6935;-0.2322;
657.6000;0.6927;-0.2346;
657.9000;0.6927;-0.2369;
658.2000;0.6903;-0.2488;
658.5000;0.6927;-0.2369;
658.8000;0.6927;-0.2369;
659.1000;0.6927;-0.2346;
659.4000;0.6927;-0.2298;
659.7000;0.6935;-0.2369;
660.0000;0.6911;-0.2322;
660.3000;0.6927;-0.2369;
660.6000;0.6878;-0.2369;
660.9000;0.6895;-0.2322;
661.2000;0.6870;-0.2369;
661.5000;0.6878;-0.2322;
661.8000;0.6870;-0.2417;
662.1000;0.6862;-0.2440;
662.4000;0.6895;-0.2369;
662.7000;0.6862;-0.2417;
663.0000;0.6829;-0.2488;
663.3000;0.6829;-0.2393;
663.6000;0.6846;-0.2417;
663.9000;0.6789;-0.2464;
664.2000;0.6862;-0.2322;
664.5000;0.6829;-0.2440;
664.8000;0.6829;-0.2393;
665.1000;0.6805;-0.2440;
665.4000;0.6838;-0.2322;
665.7000;0.6829;-0.2298;
666.0000;0.6813;-0.2369;
666.3000;0.6838;-0.2369;
666.6000;0.6813;-0.2346;
666.9000;0.6829;-0.2440;
667.2000;0.6813;-0.2393;
667.5000;0.6829;-0.2346;
667.8000;0.6821;-0.2417;
668.1000;0.6805;-0.2346;
668.4000;0.6805;-0.2322;
668.7000;0.6805;-0.2251;
669.0000;0.6838;-0.2275;
669.3000;0.6829;-0.2156;
669.6000;0.6813;-0.2109;
669.9000;0.6797;-0.2085;
670.2000;0.6789;-0.2038;
670.5000;0.6781;-0.2085;
670.8000;0.6756;-0.2109;
671.1000;0.6772;-0.2085;
671.4000;0.6789;-0.1990;
671.7000;0.6772;-0.1990;
672.0000;0.6781;-0.1967;
672.3000;0.6756;-0.2038;
672.6000;0.6764;-0.1943;
672.9000;0.6764;-0.1943;
673.2000;0.6740;-0.2085;
673.5000;0.6789;-0.2014;
673.8000;0.6740;-0.2156;
674.1000;0.6781;-0.2109;
674.4000;0.6740;-0.2227;
674.7000;0.6724;-0.2227;
675.0000;0.6740;-0.2132;
675.3000;0.6732;-0.2038;
675.6000;0.6724;-0.2038;
675.9000;0.6724;-0.2038;
676.2000;0.6724;-0.2014;
676.5000;0.6756;-0.1848;
676.8000;0.6716;-0.1895;
677.1000;0.6650;-0.2132;
677.4000;0.6716;-0.1943;
677.7000;0.6691;-0.1943;
678.0000;0.6724;-0.1990;
678.3000;0.6699;-0.2014;
678.6000;0.6716;-0.2132;
678.9000;0.6699;-0.2132;
679.2000;0.6756;-0.1990;
679.5000;0.6691;-0.2132;
679.8000;0.6683;-0.2109;
680.1000;0.6675;-0.2203;
680.4000;0.6675;-0.2275;
680.7000;0.6683;-0.2203;
681.0000;0.6683;-0.2085;
681.3000;0.6675;-0.2109;
681.6000;0.6667;-0.2061;
681.9000;0.6667;-0.1967;
682.2000;0.6642;-0.2132;
682.5000;0.6634;-0.2251;
682.8000;0.6626;-0.2251;
683.1000;0.6650;-0.2203;
683.4000;0.6626;-0.2180;
683.7000;0.6626;-0.2203;
684.0000;0.6618;-0.2275;
684.3000;0.6593;-0.2298;
684.6000;0.6626;-0.2180;
684.9000;0.6610;-0.2156;
685.2000;0.6634;-0.2156;
685.5000;0.6634;-0.2132;
685.8000;0.6634;-0.2085;
686.1000;0.6618;-0.2132;
686.4000;0.6650;-0.1990;
686.7000;0.6626;-0.2061;
687.0000;0.6618;-0.2109;
687.3000;0.6610;-0.2109;
687.6000;0.6602;-0.2180;
687.9000;0.6610;-0.2156;
688.2000;0.6610;-0.2156;
688.5000;0.6610;-0.2227;
688.8000;0.6585;-0.2346;
689.1000;0.6602;-0.2251;
689.4000;0.6593;-0.2203;
689.7000;0.6602;-0.2203;
690.0000;0.6593;-0.2203;
690.3000;0.6593;-0.2203;
690.6000;0.6602;-0.2180;
690.9000;0.6602;-0.2180;
691.2000;0.6585;-0.2132;
691.5000;0.6585;-0.2156;
691.8000;0.6593;-0.2203;
692.1000;0.6593;-0.2203;
692.4000;0.6585;-0.2227;
692.7000;0.6561;-0.2322;
693.0000;0.6561;-0.2322;
693.3000;0.6553;-0.2393;
693.6000;0.6553;-0.2393;
693.9000;0.6553;-0.2346;
694.2000;0.6553;-0.2369;
694.5000;0.6569;-0.2251;
694.8000;0.6577;-0.2251;
695.1000;0.6553;-0.2227;
695.4000;0.6520;-0.2346;
695.7000;0.6536;-0.2251;
696.0000;0.6536;-0.2227;
696.3000;0.6528;-0.2156;
696.6000;0.6496;-0.2203;
696.9000;0.6520;-0.2156;
697.2000;0.6504;-0.2227;
697.5000;0.6569;-0.2085;
697.8000;0.6520;-0.2227;
698.1000;0.6528;-0.2275;
698.4000;0.6528;-0.2275;
698.7000;0.6520;-0.2227;
699.0000;0.6504;-0.2156;
699.3000;0.6504;-0.2109;
699.6000;0.6512;-0.2085;
699.9000;0.6528;-0.2132;
700.2000;0.6520;-0.2298;
700.5000;0.6463;-0.2369;
700.8000;0.6512;-0.2251;
701.1000;0.6512;-0.2227;
701.4000;0.6488;-0.2251;
701.7000;0.6512;-0.2180;
702.0000;0.6520;-0.2180;
702.3000;0.6520;-0.2109;
702.6000;0.6496;-0.2109;
702.9000;0.6536;-0.1990;
703.2000;0.6488;-0.2038;
703.5000;0.6504;-0.2014;
703.8000;0.6488;-0.1967;
704.1000;0.6488;-0.2014;
704.4000;0.6471;-0.2014;
704.7000;0.6488;-0.1967;
705.0000;0.6471;-0.1943;
705.3000;0.6471;-0.1919;
705.6000;0.6471;-0.1919;
705.9000;0.6455;-0.1895;
706.2000;0.6471;-0.1919;
706.5000;0.6471;-0.2014;
706.8000;0.6463;-0.2203;
707.1000;0.6463;-0.2251;
707.4000;0.6414;-0.2393;
707.7000;0.6447;-0.2393;
708.0000;0.6455;-0.2393;
708.3000;0.6447;-0.2393;
708.6000;0.6463;-0.2298;
708.9000;0.6439;-0.2298;
709.2000;0.6447;-0.2227;
709.5000;0.6431;-0.2369;
709.8000;0.6447;-0.2251;
710.1000;0.6439;-0.2251;
710.4000;0.6431;-0.2298;
710.7000;0.6422;-0.2393;
711.0000;0.6439;-0.2275;
711.3000;0.6447;-0.2251;
711.6000;0.6447;-0.2109;
711.9000;0.6471;-0.1967;
712.2000;0.6439;-0.1943;
712.5000;0.6406;-0.2061;
712.8000;0.6431;-0.2014;
713.1000;0.6447;-0.2061;
713.4000;0.6447;-0.2061;
713.7000;0.6463;-0.1990;
714.0000;0.6431;-0.2061;
714.3000;0.6414;-0.2085;
714.6000;0.6414;-0.2109;
714.9000;0.6431;-0.2085;
715.2000;0.6382;-0.2251;
715.5000;0.6414;-0.2085;
715.8000;0.6398;-0.1990;
716.1000;0.6357;-0.2085;
716.4000;0.6382;-0.1943;
716.7000;0.6414;-0.1848;
717.0000;0.6406;-0.1848;
717.3000;0.6398;-0.1943;
717.6000;0.6406;-0.1967;
717.9000;0.6398;-0.1919;
718.2000;0.6390;-0.1919;
718.5000;0.6398;-0.1919;
718.8000;0.6390;-0.1990;
719.1000;0.6398;-0.1919;
719.4000;0.6390;-0.1895;
719.7000;0.6374;-0.2014;
720.0000;0.6382;-0.1990;
720.3000;0.6390;-0.1895;
720.6000;0.6382;-0.2014;
720.9000;0.6357;-0.2109;
721.2000;0.6406;-0.1895;
721.5000;0.6365;-0.1967;
721.8000;0.6382;-0.1919;
722.1000;0.6349;-0.1990;
722.4000;0.6382;-0.1919;
722.7000;0.6365;-0.1967;
723.0000;0.6390;-0.2014;
723.3000;0.6374;-0.2085;
723.6000;0.6333;-0.2227;
723.9000;0.6374;-0.2156;
724.2000;0.6374;-0.2156;
724.5000;0.6357;-0.2156;
724.8000;0.6317;-0.2227;
725.1000;0.6365;-0.2038;
725.4000;0.6349;-0.2156;
725.7000;0.6357;-0.2180;
726.0000;0.6349;-0.2085;
726.3000;0.6341;-0.2061;
726.6000;0.6333;-0.1990;
726.9000;0.6349;-0.1990;
727.2000;0.6349;-0.1872;
727.5000;0.6317;-0.1990;
727.8000;0.6357;-0.1919;
728.1000;0.6325;-0.1967;
728.4000;0.6349;-0.1967;
728.7000;0.6325;-0.2061;
729.0000;0.6309;-0.2203;
729.3000;0.6333;-0.2156;
729.6000;0.6357;-0.2109;
729.9000;0.6317;-0.2251;
730.2000;0.6325;-0.2275;
730.5000;0.6317;-0.2322;
730.8000;0.6341;-0.2251;
731.1000;0.6333;-0.2180;
731.4000;0.6333;-0.2132;
731.7000;0.6341;-0.2156;
732.0000;0.6325;-0.2203;
732.3000;0.6317;-0.2393;
732.6000;0.6292;-0.2393;
732.9000;0.6325;-0.2298;
733.2000;0.6309;-0.2298;
733.5000;0.6309;-0.2203;
733.8000;0.6309;-0.2061;
734.1000;0.6309;-0.1990;
734.4000;0.6260;-0.2038;
734.7000;0.6309;-0.1895;
735.0000;0.6292;-0.1990;
735.3000;0.6300;-0.1919;
735.6000;0.6309;-0.1943;
735.9000;0.6276;-0.1943;
736.2000;0.6284;-0.1801;
736.5000;0.6276;-0.1824;
736.8000;0.6284;-0.1895;
737.1000;0.6292;-0.1895;
737.4000;0.6292;-0.1895;
737.7000;0.6309;-0.1943;
738.0000;0.6309;-0.1943;
738.3000;0.6300;-0.1919;
738.6000;0.6325;-0.1919;
738.9000;0.6292;-0.1967;
739.2000;0.6300;-0.1919;
739.5000;0.6252;-0.2014;
739.8000;0.6292;-0.1872;
740.1000;0.6333;-0.1801;
740.4000;0.6300;-0.1895;
740.7000;0.6284;-0.1895;
741.0000;0.6284;-0.1990;
741.3000;0.6300;-0.1990;
741.6000;0.6276;-0.2109;
741.9000;0.6284;-0.1990;
742.2000;0.6260;-0.1967;
742.5000;0.6260;-0.2014;
742.8000;0.6260;-0.1990;
743.1000;0.6268;-0.1919;
743.4000;0.6268;-0.1872;
743.7000;0.6227;-0.1919;
744.0000;0.6260;-0.1848;
744.3000;0.6260;-0.1848;
744.6000;0.6276;-0.1777;
744.9000;0.6252;-0.1872;
745.2000;0.6292;-0.1730;
745.5000;0.6235;-0.1967;
745.8000;0.6260;-0.1872;
746.1000;0.6219;-0.1919;
746.4000;0.6252;-0.1872;
746.7000;0.6203;-0.2038;
747.0000;0.6227;-0.1967;
747.3000;0.6243;-0.1895;
747.6000;0.6252;-0.1919;
747.9000;0.6243;-0.1943;
748.2000;0.6243;-0.1919;
748.5000;0.6243;-0.1967;
748.8000;0.6227;-0.1943;
749.1000;0.6243;-0.1824;
749.4000;0.6227;-0.1872;
749.7000;0.6268;-0.1848;
750.0000;0.6227;-0.1848;
750.3000;0.6235;-0.1824;
750.6000;0.6243;-0.1919;
750.9000;0.6219;-0.1943;
751.2000;0.6211;-0.1967;
751.5000;0.6219;-0.1967;
751.8000;0.6195;-0.2038;
752.1000;0.6235;-0.1990;
752.4000;0.6227;-0.2038;
752.7000;0.6235;-0.2038;
753.0000;0.6219;-0.2014;
753.3000;0.6227;-0.2014;
753.6000;0.6211;-0.2061;
753.9000;0.6219;-0.2014;
754.2000;0.6203;-0.2014;
754.5000;0.6154;-0.2085;
754.8000;0.6186;-0.2038;
755.1000;0.6162;-0.1967;
755.4000;0.6178;-0.1895;
755.7000;0.6211;-0.1706;
756.0000;0.6195;-0.1753;
756.3000;0.6260;-0.1682;
756.6000;0.6203;-0.1895;
756.9000;0.6211;-0.1848;
757.2000;0.6186;-0.1967;
757.5000;0.6211;-0.1943;
757.8000;0.6211;-0.1967;
758.1000;0.6154;-0.2227;
758.4000;0.6195;-0.2085;
758.7000;0.6195;-0.2038;
759.0000;0.6203;-0.1967;
759.3000;0.6211;-0.1990;
759.6000;0.6186;-0.1919;
759.9000;0.6195;-0.1848;
760.2000;0.6219;-0.1730;
760.5000;0.6203;-0.1848;
760.8000;0.6178;-0.1919;
761.1000;0.6195;-0.1872;
761.4000;0.6203;-0.1872;
761.7000;0.6211;-0.1872;
762.0000;0.6195;-0.1943;
762.3000;0.6178;-0.1919;
762.6000;0.6195;-0.1872;
762.9000;0.6186;-0.1919;
763.2000;0.6178;-0.1990;
763.5000;0.6178;-0.1990;
763.8000;0.6195;-0.1990;
764.1000;0.6203;-0.2014;
764.4000;0.6146;-0.2109;
764.7000;0.6178;-0.2038;
765.0000;0.6178;-0.2038;
765.3000;0.6138;-0.2203;
765.6000;0.6203;-0.2156;
765.9000;0.6146;-0.2346;
766.2000;0.6186;-0.2251;
766.5000;0.6170;-0.2322;
766.8000;0.6186;-0.2275;
767.1000;0.6195;-0.2203;
767.4000;0.6178;-0.2275;
767.7000;0.6178;-0.2298;
768.0000;0.6186;-0.2275;
768.3000;0.6162;-0.2346;
768.6000;0.6203;-0.2251;
768.9000;0.6162;-0.2298;
769.2000;0.6186;-0.2227;
769.5000;0.6170;-0.2298;
769.8000;0.6146;-0.2322;
770.1000;0.6219;-0.2132;
770.4000;0.6154;-0.2251;
770.7000;0.6162;-0.2251;
771.0000;0.6162;-0.2251;
771.3000;0.6178;-0.2085;
771.6000;0.6146;-0.2085;
771.9000;0.6113;-0.2132;
772.2000;0.6146;-0.1919;
772.5000;0.6170;-0.1753;
772.8000;0.6154;-0.1706;
773.1000;0.6146;-0.1753;
773.4000;0.6154;-0.1777;
773.7000;0.6170;-0.1706;
774.0000;0.6146;-0.1801;
774.3000;0.6138;-0.1919;
774.6000;0.6129;-0.1967;
774.9000;0.6138;-0.1919;
775.2000;0.6146;-0.1872;
775.5000;0.6129;-0.1919;
775.8000;0.6129;-0.1919;
776.1000;0.6146;-0.1872;
776.4000;0.6146;-0.1895;
776.7000;0.6154;-0.1895;
777.0000;0.6138;-0.1895;
777.3000;0.6129;-0.1872;
777.6000;0.6138;-0.1919;
777.9000;0.6146;-0.1872;
778.2000;0.6138;-0.1848;
778.5000;0.6121;-0.1848;
778.8000;0.6121;-0.1824;
779.1000;0.6121;-0.1777;
779.4000;0.6113;-0.1753;
779.7000;0.6129;-0.1682;
780.0000;0.6129;-0.1659;
780.3000;0.6113;-0.1730;
780.6000;0.6129;-0.1682;
780.9000;0.6081;-0.1706;
781.2000;0.6105;-0.1611;
781.5000;0.6105;-0.1611;
781.8000;0.6113;-0.1659;
782.1000;0.6113;-0.1706;
782.4000;0.6121;-0.1682;
782.7000;0.6113;-0.1777;
783.0000;0.6105;-0.1730;
783.3000;0.6105;-0.1706;
783.6000;0.6097;-0.1753;
783.9000;0.6129;-0.1753;
784.2000;0.6121;-0.1801;
784.5000;0.6121;-0.1848;
784.8000;0.6129;-0.1848;
785.1000;0.6121;-0.1872;
785.4000;0.6105;-0.1872;
785.7000;0.6121;-0.1848;
786.0000;0.6113;-0.1824;
786.3000;0.6105;-0.1919;
786.6000;0.6113;-0.1824;
786.9000;0.6113;-0.1777;
787.2000;0.6113;-0.1706;
787.5000;0.6113;-0.1753;
787.8000;0.6097;-0.1777;
788.1000;0.6113;-0.1682;
788.4000;0.6113;-0.1682;
788.7000;0.6089;-0.1730;
789.0000;0.6081;-0.1753;
789.3000;0.6081;-0.1682;
789.6000;0.6097;-0.1682;
789.9000;0.6105;-0.1659;
790.2000;0.6105;-0.1635;
790.5000;0.6089;-0.1730;
790.8000;0.6113;-0.1848;
791.1000;0.6056;-0.1895;
791.4000;0.6121;-0.1706;
791.7000;0.6064;-0.1801;
792.0000;0.6072;-0.1872;
792.3000;0.6097;-0.1895;
792.6000;0.6105;-0.1943;
792.9000;0.6081;-0.1990;
793.2000;0.6072;-0.1967;
793.5000;0.6113;-0.1872;
793.8000;0.6105;-0.1872;
794.1000;0.6056;-0.1919;
794.4000;0.6089;-0.1895;
794.7000;0.6081;-0.1895;
795.0000;0.6089;-0.1872;
795.3000;0.6072;-0.1848;
795.6000;0.6072;-0.1824;
795.9000;0.6072;-0.1967;
796.2000;0.6089;-0.1943;
796.5000;0.6081;-0.2014;
796.8000;0.6097;-0.1943;
797.1000;0.6081;-0.1848;
797.4000;0.6081;-0.1848;
797.7000;0.6081;-0.1801;
798.0000;0.6081;-0.1801;
798.3000;0.6072;-0.1824;
798.6000;0.6081;-0.1872;
798.9000;0.6081;-0.1848;
799.2000;0.6081;-0.1801;
799.5000;0.6129;-0.1587;
799.8000;0.6072;-0.1659;
800.1000;0.6072;-0.1706;
800.4000;0.6072;-0.1730;
800.7000;0.6064;-0.1777;
801.0000;0.6064;-0.1824;
801.3000;0.6081;-0.1872;
801.6000;0.6072;-0.1777;
801.9000;0.6064;-0.1824;
802.2000;0.6072;-0.1753;
802.5000;0.6081;-0.1730;
802.8000;0.6064;-0.1777;
803.1000;0.6056;-0.1777;
803.4000;0.5999;-0.1919;
803.7000;0.6056;-0.1777;
804.0000;0.6072;-0.1706;
804.3000;0.6048;-0.1777;
804.6000;0.6056;-0.1730;
804.9000;0.6064;-0.1730;
805.2000;0.6072;-0.1730;
805.5000;0.6048;-0.1753;
805.8000;0.6064;-0.1682;
806.1000;0.6064;-0.1659;
806.4000;0.6072;-0.1730;
806.7000;0.6064;-0.1777;
807.0000;0.6056;-0.1848;
807.3000;0.6056;-0.1801;
807.6000;0.6064;-0.1777;
807.9000;0.6032;-0.1848;
808.2000;0.6048;-0.1848;
808.5000;0.6048;-0.1824;
808.8000;0.6040;-0.1753;
809.1000;0.6040;-0.1753;
809.4000;0.6032;-0.1753;
809.7000;0.6032;-0.1753;
810.0000;0.6048;-0.1777;
810.3000;0.6056;-0.1753;
810.6000;0.6040;-0.1706;
810.9000;0.6048;-0.1611;
811.2000;0.6032;-0.1611;
811.5000;0.6048;-0.1611;
811.8000;0.5999;-0.1682;
812.1000;0.6040;-0.1611;
812.4000;0.6024;-0.1659;
812.7000;0.6032;-0.1730;
813.0000;0.6024;-0.1824;
813.3000;0.6040;-0.1824;
813.6000;0.6048;-0.1824;
813.9000;0.6032;-0.1706;
814.2000;0.6015;-0.1706;
814.5000;0.6015;-0.1777;
814.8000;0.6007;-0.1824;
815.1000;0.6024;-0.1730;
815.4000;0.6040;-0.1801;
815.7000;0.6024;-0.1895;
816.0000;0.6015;-0.1824;
816.3000;0.6024;-0.1895;
816.6000;0.6040;-0.1848;
816.9000;0.6024;-0.1848;
817.2000;0.6015;-0.1848;
817.5000;0.6024;-0.1824;
817.8000;0.6040;-0.1777;
818.1000;0.6024;-0.1706;
818.4000;0.6024;-0.1706;
818.7000;0.6007;-0.1753;
819.0000;0.5967;-0.1919;
819.3000;0.6032;-0.1753;
819.6000;0.6007;-0.1919;
819.9000;0.6024;-0.1872;
820.2000;0.6032;-0.1848;
820.5000;0.6040;-0.1848;
820.8000;0.6007;-0.1872;
821.1000;0.6032;-0.1801;
821.4000;0.6015;-0.1848;
821.7000;0.6024;-0.1730;
822.0000;0.6024;-0.1801;
822.3000;0.6015;-0.1777;
822.6000;0.6015;-0.1848;
822.9000;0.6015;-0.1824;
823.2000;0.6024;-0.1872;
823.5000;0.6040;-0.1777;
823.8000;0.5999;-0.1801;
824.1000;0.5999;-0.1753;
824.4000;0.6007;-0.1706;
824.7000;0.6015;-0.1659;
825.0000;0.6007;-0.1706;
825.3000;0.6007;-0.1730;
825.6000;0.5926;-0.1895;
825.9000;0.6007;-0.1659;
826.2000;0.5999;-0.1659;
826.5000;0.5999;-0.1635;
826.8000;0.5950;-0.1872;
827.1000;0.6007;-0.1824;
827.4000;0.6007;-0.1824;
827.7000;0.6007;-0.1895;
828.0000;0.5983;-0.1919;
828.3000;0.6007;-0.1848;
828.6000;0.5999;-0.2014;
828.9000;0.6007;-0.1919;
829.2000;0.6015;-0.1967;
829.5000;0.6024;-0.1943;
829.8000;0.6015;-0.1967;
830.1000;0.5991;-0.1990;
830.4000;0.5999;-0.1943;
830.7000;0.6007;-0.1919;
831.0000;0.5999;-0.1943;
831.3000;0.5999;-0.1848;
831.6000;0.6015;-0.1872;
831.9000;0.6024;-0.1777;
832.2000;0.6015;-0.1777;
832.5000;0.6007;-0.1777;
832.8000;0.6040;-0.1753;
833.1000;0.6007;-0.1801;
833.4000;0.5991;-0.1919;
833.7000;0.5958;-0.2203;
834.0000;0.5999;-0.1919;
834.3000;0.5950;-0.1990;
834.6000;0.6007;-0.1848;
834.9000;0.5983;-0.1872;
835.2000;0.5918;-0.1990;
835.5000;0.5991;-0.1848;
835.8000;0.6015;-0.1777;
836.1000;0.6024;-0.1801;
836.4000;0.5975;-0.1943;
836.7000;0.5967;-0.1967;
837.0000;0.5983;-0.1801;
837.3000;0.5983;-0.1801;
837.6000;0.5975;-0.1824;
837.9000;0.5991;-0.1824;
838.2000;0.5999;-0.1824;
838.5000;0.6015;-0.1659;
838.8000;0.5983;-0.1730;
839.1000;0.5983;-0.1753;
839.4000;0.5983;-0.1777;
839.7000;0.5999;-0.1777;
840.0000;0.5975;-0.1824;
840.3000;0.5975;-0.1801;
840.6000;0.5926;-0.2014;
840.9000;0.5975;-0.1943;
841.2000;0.5975;-0.1990;
841.5000;0.5991;-0.1990;
841.8000;0.5983;-0.2061;
842.1000;0.5950;-0.2109;
842.4000;0.5967;-0.2014;
842.7000;0.5975;-0.1872;
843.0000;0.5967;-0.1824;
843.3000;0.5983;-0.1848;
843.6000;0.6007;-0.1706;
843.9000;0.5975;-0.1777;
844.2000;0.5975;-0.1753;
844.5000;0.5967;-0.1848;
844.8000;0.6015;-0.1872;
845.1000;0.5975;-0.1967;
845.4000;0.5958;-0.1895;
845.7000;0.5983;-0.1777;
846.0000;0.5967;-0.1848;
846.3000;0.5958;-0.1801;
846.6000;0.5991;-0.1730;
846.9000;0.5983;-0.1872;
847.2000;0.5975;-0.1872;
847.5000;0.5975;-0.1919;
847.8000;0.5983;-0.1777;
848.1000;0.5958;-0.1801;
848.4000;0.5975;-0.1753;
848.7000;0.5958;-0.1824;
849.0000;0.5975;-0.1777;
849.3000;0.6048;-0.1587;
849.6000;0.5950;-0.1895;
849.9000;0.5975;-0.1872;
850.2000;0.5983;-0.1824;
850.5000;0.5950;-0.1801;
850.8000;0.5950;-0.1801;
851.1000;0.5950;-0.1777;
851.4000;0.6015;-0.1659;
851.7000;0.5934;-0.1848;
852.0000;0.5967;-0.1801;
852.3000;0.5942;-0.1895;
852.6000;0.5958;-0.1824;
852.9000;0.5950;-0.1824;
853.2000;0.5910;-0.1848;
853.5000;0.5950;-0.1706;
853.8000;0.5958;-0.1682;
854.1000;0.5958;-0.1635;
854.4000;0.5958;-0.1635;
854.7000;0.6007;-0.1540;
855.0000;0.5975;-0.1611;
855.3000;0.5967;-0.1635;
855.6000;0.5967;-0.1611;
855.9000;0.5983;-0.1587;
856.2000;0.5991;-0.1587;
856.5000;0.5975;-0.1611;
856.8000;0.5950;-0.1516;
857.1000;0.5967;-0.1469;
857.4000;0.5950;-0.1564;
857.7000;0.5958;-0.1564;
858.0000;0.5950;-0.1587;
858.3000;0.5967;-0.1587;
858.6000;0.5950;-0.1659;
858.9000;0.5958;-0.1706;
859.2000;0.5926;-0.1777;
859.5000;0.6015;-0.1445;
859.8000;0.5950;-0.1540;
860.1000;0.5999;-0.1422;
860.4000;0.5950;-0.1516;
860.7000;0.5942;-0.1516;
861.0000;0.5926;-0.1493;
861.3000;0.5958;-0.1469;
861.6000;0.5942;-0.1540;
861.9000;0.5942;-0.1540;
862.2000;0.5950;-0.1587;
862.5000;0.5926;-0.1706;
862.8000;0.5950;-0.1659;
863.1000;0.5958;-0.1611;
863.4000;0.5926;-0.1635;
863.7000;0.5958;-0.1587;
864.0000;0.5918;-0.1777;
864.3000;0.5942;-0.1706;
864.6000;0.5942;-0.1635;
864.9000;0.5950;-0.1564;
865.2000;0.5942;-0.1635;
865.5000;0.5950;-0.1635;
865.8000;0.5926;-0.1730;
866.1000;0.5950;-0.1753;
866.4000;0.5942;-0.1706;
866.7000;0.5975;-0.1611;
867.0000;0.5893;-0.1635;
867.3000;0.5877;-0.1753;
867.6000;0.5926;-0.1587;
867.9000;0.5926;-0.1611;
868.2000;0.5926;-0.1682;
868.5000;0.5934;-0.1635;
868.8000;0.5934;-0.1635;
869.1000;0.5934;-0.1730;
869.4000;0.5942;-0.1706;
869.7000;0.5950;-0.1801;
870.0000;0.5918;-0.1919;
870.3000;0.5910;-0.1919;
870.6000;0.5918;-0.1824;
870.9000;0.5926;-0.1730;
871.2000;0.5934;-0.1635;
871.5000;0.5926;-0.1611;
871.8000;0.5942;-0.1493;
872.1000;0.5910;-0.1564;
872.4000;0.5934;-0.1516;
872.7000;0.5902;-0.1516;
873.0000;0.5926;-0.1540;
873.3000;0.5926;-0.1516;
873.6000;0.5950;-0.1398;
873.9000;0.5910;-0.1540;
874.2000;0.5918;-0.1564;
874.5000;0.5934;-0.1564;
874.8000;0.5918;-0.1611;
875.1000;0.5918;-0.1659;
875.4000;0.5918;-0.1801;
875.7000;0.5910;-0.1990;
876.0000;0.5934;-0.1967;
876.3000;0.5934;-0.1895;
876.6000;0.5926;-0.1895;
876.9000;0.5934;-0.1801;
877.2000;0.5934;-0.1824;
877.5000;0.5926;-0.1824;
877.8000;0.5934;-0.1777;
878.1000;0.5950;-0.1659;
878.4000;0.5942;-0.1587;
878.7000;0.5918;-0.1659;
879.0000;0.5910;-0.1706;
879.3000;0.5934;-0.1706;
879.6000;0.5885;-0.1801;
879.9000;0.5942;-0.1706;
880.2000;0.5934;-0.1682;
880.5000;0.5926;-0.1564;
880.8000;0.5934;-0.1540;
881.1000;0.5934;-0.1659;
881.4000;0.5902;-0.1682;
881.7000;0.5926;-0.1564;
882.0000;0.5918;-0.1682;
882.3000;0.5893;-0.1587;
882.6000;0.5877;-0.1587;
882.9000;0.5910;-0.1516;
883.2000;0.5910;-0.1540;
883.5000;0.5877;-0.1611;
883.8000;0.5918;-0.1493;
884.1000;0.5902;-0.1635;
884.4000;0.5893;-0.1659;
884.7000;0.5893;-0.1635;
885.0000;0.5926;-0.1516;
885.3000;0.5902;-0.1516;
885.6000;0.5902;-0.1611;
885.9000;0.5910;-0.1540;
886.2000;0.5893;-0.1587;
886.5000;0.5934;-0.1445;
886.8000;0.5910;-0.1493;
887.1000;0.5934;-0.1469;
887.4000;0.5910;-0.1422;
887.7000;0.5820;-0.1611;
888.0000;0.5893;-0.1516;
888.3000;0.5902;-0.1540;
888.6000;0.5836;-0.1730;
888.9000;0.5910;-0.1635;
889.2000;0.5910;-0.1659;
889.5000;0.5934;-0.1611;
889.8000;0.5910;-0.1587;
890.1000;0.5893;-0.1564;
890.4000;0.5885;-0.1611;
890.7000;0.5902;-0.1635;
891.0000;0.5902;-0.1540;
891.3000;0.5918;-0.1493;
891.6000;0.5885;-0.1564;
891.9000;0.5893;-0.1611;
892.2000;0.5910;-0.1611;
892.5000;0.5910;-0.1587;
892.8000;0.5934;-0.1587;
893.1000;0.5902;-0.1635;
893.4000;0.5902;-0.1564;
893.7000;0.5910;-0.1516;
894.0000;0.5885;-0.1611;
894.3000;0.5893;-0.1659;
894.6000;0.5885;-0.1635;
894.9000;0.5934;-0.1493;
895.2000;0.5877;-0.1635;
895.5000;0.5918;-0.1564;
895.8000;0.5926;-0.1564;
896.1000;0.5885;-0.1516;
896.4000;0.5902;-0.1564;
896.7000;0.5902;-0.1611;
897.0000;0.5877;-0.1730;
897.3000;0.5893;-0.1706;
897.6000;0.5893;-0.1659;
897.9000;0.5902;-0.1659;
898.2000;0.5877;-0.1706;
898.5000;0.5885;-0.1730;
898.8000;0.5893;-0.1753;
899.1000;0.5893;-0.1753;
899.4000;0.5885;-0.1730;
899.7000;0.5902;-0.1659;
900.0000;0.5885;-0.1587;
900.3000;0.5893;-0.1493;
900.6000;0.5869;-0.1469;
900.9000;0.5893;-0.1540;
901.2000;0.5902;-0.1564;
901.5000;0.5910;-0.1516;
901.8000;0.5902;-0.1659;
902.1000;0.5885;-0.1706;
902.4000;0.5893;-0.1659;
902.7000;0.5893;-0.1611;
903.0000;0.5902;-0.1730;
903.3000;0.5885;-0.1801;
903.6000;0.5885;-0.1824;
903.9000;0.5861;-0.1848;
904.2000;0.5869;-0.1777;
904.5000;0.5877;-0.1848;
904.8000;0.5828;-0.2038;
905.1000;0.5902;-0.1824;
905.4000;0.5885;-0.1777;
905.7000;0.5885;-0.1801;
906.0000;0.5885;-0.1824;
906.3000;0.5869;-0.1824;
906.6000;0.5893;-0.1706;
906.9000;0.5877;-0.1753;
907.2000;0.5885;-0.1777;
907.5000;0.5902;-0.1753;
907.8000;0.5877;-0.1730;
908.1000;0.5893;-0.1730;
908.4000;0.5869;-0.1824;
908.7000;0.5926;-0.1659;
909.0000;0.5910;-0.1706;
909.3000;0.5877;-0.1824;
909.6000;0.5853;-0.1943;
909.9000;0.5885;-0.1848;
910.2000;0.5885;-0.1895;
910.5000;0.5869;-0.1895;
910.8000;0.5861;-0.1943;
911.1000;0.5877;-0.1895;
911.4000;0.5885;-0.1848;
911.7000;0.5893;-0.1824;
912.0000;0.5877;-0.1801;
912.3000;0.5885;-0.1777;
912.6000;0.5942;-0.1564;
912.9000;0.5869;-0.1635;
913.2000;0.5885;-0.1611;
913.5000;0.5869;-0.1659;
913.8000;0.5869;-0.1682;
914.1000;0.5893;-0.1635;
914.4000;0.5869;-0.1706;
914.7000;0.5877;-0.1659;
915.0000;0.5885;-0.1706;
915.3000;0.5877;-0.1635;
915.6000;0.5869;-0.1659;
915.9000;0.5885;-0.1564;
916.2000;0.5869;-0.1635;
916.5000;0.5877;-0.1611;
916.8000;0.5885;-0.1635;
917.1000;0.5885;-0.1659;
917.4000;0.5877;-0.1682;
917.7000;0.5877;-0.1635;
918.0000;0.5877;-0.1706;
918.3000;0.5836;-0.1824;
918.6000;0.5869;-0.1659;
918.9000;0.5902;-0.1611;
919.2000;0.5869;-0.1777;
919.5000;0.5869;-0.1706;
919.8000;0.5836;-0.1848;
920.1000;0.5861;-0.1730;
920.4000;0.5934;-0.1564;
920.7000;0.5828;-0.1730;
921.0000;0.5853;-0.1659;
921.3000;0.5885;-0.1587;
921.6000;0.5893;-0.1540;
921.9000;0.5853;-0.1611;
922.2000;0.5853;-0.1564;
922.5000;0.5804;-0.1682;
922.8000;0.5861;-0.1564;
923.1000;0.5877;-0.1540;
923.4000;0.5869;-0.1469;
923.7000;0.5869;-0.1469;
924.0000;0.5869;-0.1469;
924.3000;0.5869;-0.1540;
924.6000;0.5869;-0.1493;
924.9000;0.5820;-0.1587;
925.2000;0.5845;-0.1564;
925.5000;0.5877;-0.1516;
925.8000;0.5902;-0.1445;
926.1000;0.5869;-0.1493;
926.4000;0.5861;-0.1540;
926.7000;0.5902;-0.1540;
927.0000;0.5845;-0.1706;
927.3000;0.5812;-0.1777;
927.6000;0.5877;-0.1540;
927.9000;0.5861;-0.1493;
928.2000;0.5828;-0.1493;
928.5000;0.5845;-0.1493;
928.8000;0.5853;-0.1564;
929.1000;0.5804;-0.1753;
929.4000;0.5877;-0.1635;
929.7000;0.5861;-0.1682;
930.0000;0.5853;-0.1635;
930.3000;0.5853;-0.1635;
930.6000;0.5861;-0.1611;
930.9000;0.5902;-0.1493;
931.2000;0.5861;-0.1659;
931.5000;0.5845;-0.1706;
931.8000;0.5853;-0.1611;
932.1000;0.5853;-0.1516;
932.4000;0.5845;-0.1564;
932.7000;0.5853;-0.1445;
933.0000;0.5853;-0.1469;
933.3000;0.5853;-0.1493;
933.6000;0.5836;-0.1516;
933.9000;0.5853;-0.1564;
934.2000;0.5861;-0.1587;
934.5000;0.5869;-0.1587;
934.8000;0.5861;-0.1611;
935.1000;0.5845;-0.1635;
935.4000;0.5853;-0.1659;
935.7000;0.5845;-0.1682;
936.0000;0.5828;-0.1682;
936.3000;0.5836;-0.1682;
936.6000;0.5836;-0.1635;
936.9000;0.5845;-0.1587;
937.2000;0.5845;-0.1682;
937.5000;0.5853;-0.1659;
937.8000;0.5861;-0.1753;
938.1000;0.5861;-0.1730;
938.4000;0.5869;-0.1659;
938.7000;0.5836;-0.1659;
939.0000;0.5861;-0.1659;
939.3000;0.5828;-0.1706;
939.6000;0.5845;-0.1611;
939.9000;0.5828;-0.1611;
940.2000;0.5845;-0.1493;
940.5000;0.5869;-0.1445;
940.8000;0.5845;-0.1587;
941.1000;0.5845;-0.1587;
941.4000;0.5853;-0.1564;
941.7000;0.5828;-0.1682;
942.0000;0.5836;-0.1706;
942.3000;0.5836;-0.1659;
942.6000;0.5853;-0.1611;
942.9000;0.5836;-0.1682;
943.2000;0.5861;-0.1635;
943.5000;0.5820;-0.1635;
943.8000;0.5788;-0.1635;
944.1000;0.5836;-0.1493;
944.4000;0.5869;-0.1469;
944.7000;0.5845;-0.1493;
945.0000;0.5885;-0.1232;
945.3000;0.5845;-0.1303;
945.6000;0.5845;-0.1303;
945.9000;0.5828;-0.1351;
946.2000;0.5836;-0.1327;
946.5000;0.5861;-0.1303;
946.8000;0.5820;-0.1516;
947.1000;0.5845;-0.1516;
947.4000;0.5845;-0.1611;
947.7000;0.5845;-0.1564;
948.0000;0.5812;-0.1659;
948.3000;0.5861;-0.1540;
948.6000;0.5836;-0.1564;
948.9000;0.5869;-0.1469;
949.2000;0.5804;-0.1564;
949.5000;0.5845;-0.1493;
949.8000;0.5861;-0.1493;
950.1000;0.5845;-0.1564;
950.4000;0.5845;-0.1682;
950.7000;0.5845;-0.1706;
951.0000;0.5861;-0.1564;
951.3000;0.5845;-0.1611;
951.6000;0.5820;-0.1659;
951.9000;0.5812;-0.1753;
952.2000;0.5828;-0.1635;
952.5000;0.5828;-0.1635;
952.8000;0.5828;-0.1635;
953.1000;0.5788;-0.1706;
953.4000;0.5812;-0.1706;
953.7000;0.5836;-0.1730;
954.0000;0.5861;-0.1730;
954.3000;0.5836;-0.1824;
954.6000;0.5845;-0.1801;
954.9000;0.5845;-0.1706;
955.2000;0.5836;-0.1659;
955.5000;0.5788;-0.1706;
955.8000;0.5836;-0.1611;
956.1000;0.5845;-0.1611;
956.4000;0.5845;-0.1493;
956.7000;0.5845;-0.1374;
957.0000;0.5861;-0.1351;
957.3000;0.5828;-0.1445;
957.6000;0.5828;-0.1540;
957.9000;0.5828;-0.1469;
958.2000;0.5820;-0.1398;
958.5000;0.5828;-0.1398;
958.8000;0.5812;-0.1422;
959.1000;0.5804;-0.1422;
959.4000;0.5836;-0.1327;
959.7000;0.5845;-0.1303;
960.0000;0.5869;-0.1232;
960.3000;0.5845;-0.1351;
960.6000;0.5845;-0.1351;
960.9000;0.5861;-0.1303;
961.2000;0.5828;-0.1374;
961.5000;0.5845;-0.1374;
961.8000;0.5820;-0.1516;
962.1000;0.5836;-0.1540;
962.4000;0.5828;-0.1659;
962.7000;0.5820;-0.1659;
963.0000;0.5820;-0.1564;
963.3000;0.5828;-0.1611;
963.6000;0.5804;-0.1659;
963.9000;0.5836;-0.1635;
964.2000;0.5836;-0.1587;
964.5000;0.5836;-0.1493;
964.8000;0.5828;-0.1469;
965.1000;0.5828;-0.1422;
965.4000;0.5820;-0.1398;
965.7000;0.5828;-0.1374;
966.0000;0.5836;-0.1422;
966.3000;0.5812;-0.1445;
966.6000;0.5869;-0.1398;
966.9000;0.5828;-0.1469;
967.2000;0.5820;-0.1493;
967.5000;0.5820;-0.1493;
967.8000;0.5828;-0.1469;
968.1000;0.5836;-0.1540;
968.4000;0.5820;-0.1611;
968.7000;0.5812;-0.1635;
969.0000;0.5828;-0.1516;
969.3000;0.5820;-0.1516;
969.6000;0.5836;-0.1469;
969.9000;0.5820;-0.1469;
970.2000;0.5828;-0.1445;
970.5000;0.5836;-0.1398;
970.8000;0.5828;-0.1398;
971.1000;0.5828;-0.1422;
971.4000;0.5812;-0.1351;
971.7000;0.5836;-0.1279;
972.0000;0.5828;-0.1327;
972.3000;0.5836;-0.1351;
972.6000;0.5820;-0.1351;
972.9000;0.5820;-0.1398;
973.2000;0.5828;-0.1422;
973.5000;0.5853;-0.1398;
973.8000;0.5820;-0.1493;
974.1000;0.5853;-0.1422;
974.4000;0.5845;-0.1398;
974.7000;0.5820;-0.1422;
975.0000;0.5804;-0.1516;
975.3000;0.5812;-0.1540;
975.6000;0.5812;-0.1516;
975.9000;0.5812;-0.1469;
976.2000;0.5804;-0.1540;
976.5000;0.5788;-0.1635;
976.8000;0.5820;-0.1587;
977.1000;0.5820;-0.1635;
977.4000;0.5812;-0.1564;
977.7000;0.5812;-0.1493;
978.0000;0.5812;-0.1398;
978.3000;0.5820;-0.1374;
978.6000;0.5812;-0.1374;
978.9000;0.5804;-0.1398;
979.2000;0.5779;-0.1398;
979.5000;0.5836;-0.1279;
979.8000;0.5820;-0.1351;
980.1000;0.5812;-0.1374;
980.4000;0.5820;-0.1351;
980.7000;0.5836;-0.1351;
981.0000;0.5836;-0.1493;
981.3000;0.5788;-0.1587;
981.6000;0.5804;-0.1659;
981.9000;0.5804;-0.1587;
982.2000;0.5820;-0.1635;
982.5000;0.5836;-0.1587;
982.8000;0.5820;-0.1682;
983.1000;0.5820;-0.1730;
983.4000;0.5812;-0.1706;
983.7000;0.5820;-0.1706;
984.0000;0.5812;-0.1682;
984.3000;0.5812;-0.1659;
984.6000;0.5812;-0.1587;
984.9000;0.5804;-0.1516;
985.2000;0.5804;-0.1493;
985.5000;0.5836;-0.1516;
985.8000;0.5804;-0.1564;
986.1000;0.5836;-0.1516;
986.4000;0.5812;-0.1469;
986.7000;0.5788;-0.1469;
987.0000;0.5804;-0.1303;
987.3000;0.5796;-0.1279;
987.6000;0.5828;-0.1256;
987.9000;0.5812;-0.1279;
988.2000;0.5796;-0.1422;
988.5000;0.5796;-0.1422;
988.8000;0.5796;-0.1422;
989.1000;0.5788;-0.1469;
989.4000;0.5796;-0.1469;
989.7000;0.5812;-0.1398;
990.0000;0.5812;-0.1422;
990.3000;0.5820;-0.1445;
990.6000;0.5812;-0.1493;
990.9000;0.5812;-0.1445;
991.2000;0.5812;-0.1493;
991.5000;0.5804;-0.1493;
991.8000;0.5812;-0.1469;
992.1000;0.5804;-0.1398;
992.4000;0.5812;-0.1493;
992.7000;0.5804;-0.1469;
993.0000;0.5820;-0.1422;
993.3000;0.5812;-0.1445;
993.6000;0.5812;-0.1516;
993.9000;0.5812;-0.1445;
994.2000;0.5796;-0.1445;
994.5000;0.5771;-0.1516;
994.8000;0.5812;-0.1445;
995.1000;0.5804;-0.1374;
995.4000;0.5812;-0.1422;
995.7000;0.5771;-0.1540;
996.0000;0.5804;-0.1445;
996.3000;0.5820;-0.1351;
996.6000;0.5812;-0.1351;
996.9000;0.5779;-0.1374;
997.2000;0.5812;-0.1303;
997.5000;0.5812;-0.1303;
997.8000;0.5820;-0.1279;
998.1000;0.5804;-0.1327;
998.4000;0.5804;-0.1279;
998.7000;0.5812;-0.1137;
999.0000;0.5796;-0.1327;
999.3000;0.5796;-0.1279;
999.6000;0.5796;-0.1279;
999.9000;0.5804;-0.1232;
1000.2000;0.5804;-0.1303;
1000.5000;0.5779;-0.1374;
1000.8000;0.5796;-0.1327;
1001.1000;0.5828;-0.1208;
1001.4000;0.5747;-0.1327;
1001.7000;0.5755;-0.1374;
1002.0000;0.5796;-0.1422;
1002.3000;0.5779;-0.1516;
1002.6000;0.5804;-0.1493;
1002.9000;0.5788;-0.1493;
1003.2000;0.5796;-0.1279;
1003.5000;0.5788;-0.1279;
1003.8000;0.5788;-0.1232;
1004.1000;0.5796;-0.1232;
1004.4000;0.5779;-0.1303;
1004.7000;0.5796;-0.1327;
1005.0000;0.5731;-0.1398;
1005.3000;0.5796;-0.1351;
1005.6000;0.5796;-0.1303;
1005.9000;0.5853;-0.1066;
1006.2000;0.5796;-0.1185;
1006.5000;0.5804;-0.1185;
1006.8000;0.5796;-0.1208;
1007.1000;0.5771;-0.1185;
1007.4000;0.5779;-0.1232;
1007.7000;0.5788;-0.1279;
1008.0000;0.5804;-0.1208;
1008.3000;0.5779;-0.1256;
1008.6000;0.5788;-0.1208;
1008.9000;0.5779;-0.1232;
1009.2000;0.5788;-0.1256;
1009.5000;0.5771;-0.1303;
1009.8000;0.5779;-0.1327;
1010.1000;0.5804;-0.1327;
1010.4000;0.5788;-0.1422;
1010.7000;0.5788;-0.1422;
1011.0000;0.5771;-0.1351;
1011.3000;0.5788;-0.1351;
1011.6000;0.5771;-0.1327;
1011.9000;0.5796;-0.1279;
1012.2000;0.5779;-0.1327;
1012.5000;0.5788;-0.1303;
1012.8000;0.5796;-0.1374;
1013.1000;0.5771;-0.1445;
1013.4000;0.5771;-0.1469;
1013.7000;0.5788;-0.1422;
1014.0000;0.5788;-0.1445;
1014.3000;0.5804;-0.1351;
1014.6000;0.5779;-0.1351;
1014.9000;0.5788;-0.1327;
1015.2000;0.5771;-0.1445;
1015.5000;0.5796;-0.1469;
1015.8000;0.5788;-0.1493;
1016.1000;0.5763;-0.1445;
1016.4000;0.5771;-0.1445;
1016.7000;0.5771;-0.1422;
1017.0000;0.5763;-0.1445;
1017.3000;0.5788;-0.1303;
1017.6000;0.5788;-0.1327;
1017.9000;0.5788;-0.1279;
1018.2000;0.5796;-0.1279;
1018.5000;0.5788;-0.1303;
1018.8000;0.5779;-0.1327;
1019.1000;0.5804;-0.1279;
1019.4000;0.5788;-0.1303;
1019.7000;0.5763;-0.1327;
1020.0000;0.5779;-0.1303;
1020.3000;0.5788;-0.1279;
1020.6000;0.5812;-0.1279;
1020.9000;0.5845;-0.1114;
1021.2000;0.5779;-0.1327;
1021.5000;0.5763;-0.1398;
1021.8000;0.5779;-0.1398;
1022.1000;0.5804;-0.1422;
1022.4000;0.5788;-0.1469;
1022.7000;0.5861;-0.1232;
1023.0000;0.5812;-0.1279;
1023.3000;0.5779;-0.1279;
1023.6000;0.5763;-0.1303;
1023.9000;0.5763;-0.1279;
1024.2000;0.5779;-0.1256;
1024.5000;0.5796;-0.1232;
1024.8000;0.5788;-0.1303;
1025.1000;0.5771;-0.1303;
1025.4000;0.5771;-0.1351;
1025.7000;0.5779;-0.1303;
1026.0000;0.5779;-0.1279;
1026.3000;0.5788;-0.1256;
1026.6000;0.5779;-0.1327;
1026.9000;0.5779;-0.1256;
1027.2000;0.5779;-0.1256;
1027.5000;0.5722;-0.1445;
1027.8000;0.5788;-0.1374;
1028.1000;0.5779;-0.1374;
1028.4000;0.5771;-0.1493;
1028.7000;0.5755;-0.1493;
1029.0000;0.5771;-0.1422;
1029.3000;0.5771;-0.1374;
1029.6000;0.5779;-0.1327;
1029.9000;0.5788;-0.1351;
1030.2000;0.5763;-0.1351;
1030.5000;0.5771;-0.1422;
1030.8000;0.5804;-0.1303;
1031.1000;0.5796;-0.1327;
1031.4000;0.5779;-0.1256;
1031.7000;0.5763;-0.1279;
1032.0000;0.5771;-0.1279;
1032.3000;0.5779;-0.1351;
1032.6000;0.5788;-0.1422;
1032.9000;0.5763;-0.1469;
1033.2000;0.5796;-0.1398;
1033.5000;0.5796;-0.1327;
1033.8000;0.5788;-0.1351;
1034.1000;0.5779;-0.1374;
1034.4000;0.5779;-0.1422;
1034.7000;0.5771;-0.1422;
1035.0000;0.5779;-0.1422;
1035.3000;0.5804;-0.1374;
1035.6000;0.5771;-0.1398;
1035.9000;0.5763;-0.1351;
1036.2000;0.5771;-0.1303;
1036.5000;0.5747;-0.1279;
1036.8000;0.5747;-0.1303;
1037.1000;0.5755;-0.1232;
1037.4000;0.5747;-0.1256;
1037.7000;0.5747;-0.1351;
1038.0000;0.5755;-0.1374;
1038.3000;0.5763;-0.1374;
1038.6000;0.5779;-0.1374;
1038.9000;0.5771;-0.1351;
1039.2000;0.5763;-0.1422;
1039.5000;0.5779;-0.1469;
1039.8000;0.5763;-0.1493;
1040.1000;0.5771;-0.1469;
1040.4000;0.5755;-0.1374;
1040.7000;0.5747;-0.1351;
1041.0000;0.5779;-0.1279;
1041.3000;0.5763;-0.1256;
1041.6000;0.5779;-0.1351;
1041.9000;0.5796;-0.1327;
1042.2000;0.5763;-0.1445;
1042.5000;0.5779;-0.1422;
1042.8000;0.5779;-0.1422;
1043.1000;0.5763;-0.1422;
1043.4000;0.5771;-0.1422;
1043.7000;0.5796;-0.1374;
1044.0000;0.5771;-0.1351;
1044.3000;0.5763;-0.1398;
1044.6000;0.5771;-0.1374;
1044.9000;0.5763;-0.1398;
1045.2000;0.5779;-0.1374;
1045.5000;0.5763;-0.1422;
1045.8000;0.5779;-0.1374;
1046.1000;0.5779;-0.1445;
1046.4000;0.5771;-0.1398;
1046.7000;0.5763;-0.1469;
1047.0000;0.5755;-0.1469;
1047.3000;0.5763;-0.1445;
1047.6000;0.5771;-0.1398;
1047.9000;0.5771;-0.1422;
1048.2000;0.5755;-0.1445;
1048.5000;0.5763;-0.1398;
1048.8000;0.5779;-0.1374;
1049.1000;0.5771;-0.1327;
1049.4000;0.5771;-0.1303;
1049.7000;0.5755;-0.1327;
1050.0000;0.5779;-0.1327;
1050.3000;0.5771;-0.1279;
1050.6000;0.5763;-0.1256;
1050.9000;0.5779;-0.1208;
1051.2000;0.5796;-0.1185;
1051.5000;0.5763;-0.1256;
1051.8000;0.5763;-0.1351;
1052.1000;0.5771;-0.1351;
1052.4000;0.5771;-0.1422;
1052.7000;0.5779;-0.1469;
1053.0000;0.5763;-0.1422;
1053.3000;0.5747;-0.1422;
1053.6000;0.5755;-0.1327;
1053.9000;0.5771;-0.1185;
1054.2000;0.5763;-0.1208;
1054.5000;0.5747;-0.1256;
1054.8000;0.5755;-0.1327;
1055.1000;0.5763;-0.1398;
1055.4000;0.5755;-0.1351;
1055.7000;0.5755;-0.1303;
1056.0000;0.5755;-0.1303;
1056.3000;0.5771;-0.1185;
1056.6000;0.5771;-0.1137;
1056.9000;0.5771;-0.1066;
1057.2000;0.5763;-0.1066;
1057.5000;0.5739;-0.1090;
1057.8000;0.5771;-0.1137;
1058.1000;0.5755;-0.1066;
1058.4000;0.5771;-0.0995;
1058.7000;0.5755;-0.1019;
1059.0000;0.5771;-0.0971;
1059.3000;0.5771;-0.0971;
1059.6000;0.5763;-0.0948;
1059.9000;0.5771;-0.1019;
1060.2000;0.5763;-0.1090;
1060.5000;0.5820;-0.0948;
1060.8000;0.5771;-0.1019;
1061.1000;0.5763;-0.1042;
1061.4000;0.5763;-0.1066;
1061.7000;0.5763;-0.1066;
1062.0000;0.5779;-0.1090;
1062.3000;0.5804;-0.1019;
1062.6000;0.5747;-0.1137;
1062.9000;0.5739;-0.1256;
1063.2000;0.5763;-0.1279;
1063.5000;0.5763;-0.1256;
1063.8000;0.5755;-0.1303;
1064.1000;0.5747;-0.1422;
1064.4000;0.5747;-0.1469;
1064.7000;0.5779;-0.1469;
1065.0000;0.5747;-0.1469;
1065.3000;0.5714;-0.1469;
1065.6000;0.5755;-0.1327;
1065.9000;0.5771;-0.1351;
1066.2000;0.5755;-0.1327;
1066.5000;0.5763;-0.1327;
1066.8000;0.5747;-0.1469;
1067.1000;0.5714;-0.1540;
1067.4000;0.5747;-0.1469;
1067.7000;0.5763;-0.1279;
1068.0000;0.5796;-0.1161;
1068.3000;0.5771;-0.1137;
1068.6000;0.5747;-0.1090;
1068.9000;0.5755;-0.1090;
1069.2000;0.5755;-0.1042;
1069.5000;0.5788;-0.0924;
1069.8000;0.5763;-0.0995;
1070.1000;0.5763;-0.1090;
1070.4000;0.5755;-0.1185;
1070.7000;0.5763;-0.1185;
1071.0000;0.5698;-0.1303;
1071.3000;0.5763;-0.1090;
1071.6000;0.5796;-0.0971;
1071.9000;0.5763;-0.1019;
1072.2000;0.5731;-0.1066;
1072.5000;0.5755;-0.1042;
1072.8000;0.5763;-0.1090;
1073.1000;0.5771;-0.1066;
1073.4000;0.5755;-0.1137;
1073.7000;0.5674;-0.1232;
1074.0000;0.5747;-0.1090;
1074.3000;0.5747;-0.1161;
1074.6000;0.5763;-0.1161;
1074.9000;0.5747;-0.1256;
1075.2000;0.5755;-0.1256;
1075.5000;0.5739;-0.1327;
1075.8000;0.5763;-0.1327;
1076.1000;0.5796;-0.1232;
1076.4000;0.5755;-0.1303;
1076.7000;0.5763;-0.1256;
1077.0000;0.5763;-0.1256;
1077.3000;0.5763;-0.1232;
1077.6000;0.5747;-0.1303;
1077.9000;0.5747;-0.1351;
1078.2000;0.5739;-0.1398;
1078.5000;0.5755;-0.1422;
1078.8000;0.5747;-0.1516;
1079.1000;0.5747;-0.1469;
1079.4000;0.5763;-0.1422;
1079.7000;0.5747;-0.1398;
1080.0000;0.5739;-0.1422;
1080.3000;0.5755;-0.1398;
1080.6000;0.5739;-0.1351;
1080.9000;0.5755;-0.1256;
1081.2000;0.5755;-0.1279;
1081.5000;0.5779;-0.1232;
1081.8000;0.5739;-0.1185;
1082.1000;0.5739;-0.1114;
1082.4000;0.5714;-0.1208;
1082.7000;0.5698;-0.1279;
1083.0000;0.5739;-0.1114;
1083.3000;0.5706;-0.1161;
1083.6000;0.5747;-0.1066;
1083.9000;0.5739;-0.1114;
1084.2000;0.5739;-0.1303;
1084.5000;0.5747;-0.1279;
1084.8000;0.5755;-0.1327;
1085.1000;0.5747;-0.1351;
1085.4000;0.5755;-0.1374;
1085.7000;0.5739;-0.1303;
1086.0000;0.5755;-0.1279;
1086.3000;0.5763;-0.1161;
1086.6000;0.5779;-0.1042;
1086.9000;0.5796;-0.0971;
1087.2000;0.5763;-0.1137;
1087.5000;0.5763;-0.1185;
1087.8000;0.5771;-0.1137;
1088.1000;0.5771;-0.1090;
1088.4000;0.5747;-0.1137;
1088.7000;0.5755;-0.1090;
1089.0000;0.5747;-0.1137;
1089.3000;0.5747;-0.1137;
1089.6000;0.5747;-0.1208;
1089.9000;0.5747;-0.1185;
1090.2000;0.5755;-0.1232;
1090.5000;0.5739;-0.1279;
1090.8000;0.5755;-0.1256;
1091.1000;0.5739;-0.1232;
1091.4000;0.5755;-0.1208;
1091.7000;0.5722;-0.1351;
1092.0000;0.5731;-0.1327;
1092.3000;0.5739;-0.1279;
1092.6000;0.5714;-0.1327;
1092.9000;0.5747;-0.1208;
1093.2000;0.5755;-0.1161;
1093.5000;0.5771;-0.1090;
1093.8000;0.5739;-0.1090;
1094.1000;0.5747;-0.0995;
1094.4000;0.5731;-0.0995;
1094.7000;0.5739;-0.0995;
1095.0000;0.5755;-0.1042;
1095.3000;0.5731;-0.1137;
1095.6000;0.5779;-0.0995;
1095.9000;0.5739;-0.1114;
1096.2000;0.5714;-0.1303;
1096.5000;0.5714;-0.1422;
1096.8000;0.5739;-0.1279;
1097.1000;0.5706;-0.1374;
1097.4000;0.5763;-0.1114;
1097.7000;0.5747;-0.1114;
1098.0000;0.5731;-0.1090;
1098.3000;0.5739;-0.1066;
1098.6000;0.5755;-0.1090;
1098.9000;0.5755;-0.1090;
1099.2000;0.5755;-0.1042;
1099.5000;0.5788;-0.0995;
1099.8000;0.5739;-0.1114;
1100.1000;0.5739;-0.1090;
1100.4000;0.5739;-0.1042;
1100.7000;0.5747;-0.1066;
1101.0000;0.5722;-0.1208;
1101.3000;0.5739;-0.1208;
1101.6000;0.5747;-0.1137;
1101.9000;0.5739;-0.1137;
1102.2000;0.5731;-0.1114;
1102.5000;0.5755;-0.1066;
1102.8000;0.5731;-0.1114;
1103.1000;0.5747;-0.0995;
1103.4000;0.5747;-0.1042;
1103.7000;0.5739;-0.1114;
1104.0000;0.5722;-0.1161;
1104.3000;0.5739;-0.1066;
1104.6000;0.5739;-0.1019;
1104.9000;0.5731;-0.1042;
1105.2000;0.5731;-0.1090;
1105.5000;0.5731;-0.1090;
1105.8000;0.5739;-0.1256;
1106.1000;0.5714;-0.1279;
1106.4000;0.5722;-0.1256;
1106.7000;0.5739;-0.1232;
1107.0000;0.5714;-0.1303;
1107.3000;0.5731;-0.1327;
1107.6000;0.5739;-0.1303;
1107.9000;0.5747;-0.1256;
1108.2000;0.5739;-0.1279;
1108.5000;0.5739;-0.1327;
1108.8000;0.5731;-0.1398;
1109.1000;0.5747;-0.1327;
1109.4000;0.5731;-0.1327;
1109.7000;0.5731;-0.1256;
1110.0000;0.5706;-0.1374;
1110.3000;0.5731;-0.1232;
1110.6000;0.5739;-0.1208;
1110.9000;0.5747;-0.1137;
1111.2000;0.5739;-0.1161;
1111.5000;0.5739;-0.1137;
1111.8000;0.5747;-0.1161;
1112.1000;0.5690;-0.1303;
1112.4000;0.5731;-0.1185;
1112.7000;0.5731;-0.1161;
1113.0000;0.5739;-0.1114;
1113.3000;0.5731;-0.1137;
1113.6000;0.5779;-0.1066;
1113.9000;0.5731;-0.1137;
1114.2000;0.5690;-0.1208;
1114.5000;0.5747;-0.1090;
1114.8000;0.5755;-0.1114;
1115.1000;0.5747;-0.1208;
1115.4000;0.5731;-0.1137;
1115.7000;0.5788;-0.1042;
1116.0000;0.5755;-0.1137;
1116.3000;0.5739;-0.1137;
1116.6000;0.5731;-0.1161;
1116.9000;0.5739;-0.1185;
1117.2000;0.5763;-0.1137;
1117.5000;0.5731;-0.1208;
1117.8000;0.5739;-0.1208;
1118.1000;0.5731;-0.1303;
1118.4000;0.5739;-0.1232;
1118.7000;0.5722;-0.1256;
1119.0000;0.5739;-0.1232;
1119.3000;0.5739;-0.1208;
1119.6000;0.5731;-0.1185;
1119.9000;0.5755;-0.1161;
1120.2000;0.5739;-0.1208;
1120.5000;0.5739;-0.1185;
1120.8000;0.5739;-0.1090;
1121.1000;0.5731;-0.1161;
1121.4000;0.5731;-0.1208;
1121.7000;0.5747;-0.1161;
1122.0000;0.5747;-0.1208;
1122.3000;0.5731;-0.1208;
1122.6000;0.5698;-0.1256;
1122.9000;0.5714;-0.1327;
1123.2000;0.5739;-0.1256;
1123.5000;0.5739;-0.1208;
1123.8000;0.5731;-0.1208;
1124.1000;0.5731;-0.1279;
1124.4000;0.5747;-0.1351;
1124.7000;0.5739;-0.1279;
1125.0000;0.5739;-0.1208;
1125.3000;0.5731;-0.1208;
1125.6000;0.5755;-0.1161;
1125.9000;0.5731;-0.1185;
1126.2000;0.5731;-0.1137;
1126.5000;0.5739;-0.1256;
1126.8000;0.5731;-0.1232;
1127.1000;0.5722;-0.1232;
1127.4000;0.5731;-0.1279;
1127.7000;0.5714;-0.1185;
1128.0000;0.5706;-0.1208;
1128.3000;0.5682;-0.1303;
1128.6000;0.5706;-0.1232;
1128.9000;0.5706;-0.1256;
1129.2000;0.5706;-0.1279;
1129.5000;0.5706;-0.1303;
1129.8000;0.5722;-0.1374;
1130.1000;0.5722;-0.1445;
1130.4000;0.5714;-0.1398;
1130.7000;0.5722;-0.1374;
1131.0000;0.5714;-0.1303;
1131.3000;0.5722;-0.1327;
1131.6000;0.5739;-0.1256;
1131.9000;0.5706;-0.1374;
1132.2000;0.5714;-0.1398;
1132.5000;0.5739;-0.1398;
1132.8000;0.5731;-0.1422;
1133.1000;0.5714;-0.1327;
1133.4000;0.5714;-0.1185;
1133.7000;0.5747;-0.1066;
1134.0000;0.5722;-0.1137;
1134.3000;0.5714;-0.1161;
1134.6000;0.5731;-0.1090;
1134.9000;0.5722;-0.1137;
1135.2000;0.5731;-0.1161;
1135.5000;0.5739;-0.1208;
1135.8000;0.5722;-0.1256;
1136.1000;0.5755;-0.1185;
1136.4000;0.5722;-0.1351;
1136.7000;0.5731;-0.1374;
1137.0000;0.5739;-0.1327;
1137.3000;0.5731;-0.1327;
1137.6000;0.5739;-0.1208;
1137.9000;0.5739;-0.1161;
1138.2000;0.5731;-0.1137;
1138.5000;0.5714;-0.1114;
1138.8000;0.5690;-0.1185;
1139.1000;0.5731;-0.1114;
1139.4000;0.5722;-0.1042;
1139.7000;0.5714;-0.0971;
1140.0000;0.5722;-0.0924;
1140.3000;0.5747;-0.0995;
1140.6000;0.5682;-0.1137;
1140.9000;0.5714;-0.1019;
1141.2000;0.5698;-0.1066;
1141.5000;0.5690;-0.1161;
1141.8000;0.5739;-0.1114;
1142.1000;0.5714;-0.1137;
1142.4000;0.5731;-0.1137;
1142.7000;0.5747;-0.1137;
1143.0000;0.5747;-0.1137;
1143.3000;0.5706;-0.1208;
1143.6000;0.5633;-0.1469;
1143.9000;0.5731;-0.1279;
1144.2000;0.5731;-0.1303;
1144.5000;0.5682;-0.1445;
1144.8000;0.5747;-0.1256;
1145.1000;0.5731;-0.1161;
1145.4000;0.5739;-0.1090;
1145.7000;0.5706;-0.1137;
1146.0000;0.5747;-0.1066;
1146.3000;0.5747;-0.1066;
1146.6000;0.5739;-0.1114;
1146.9000;0.5706;-0.1208;
1147.2000;0.5722;-0.1185;
1147.5000;0.5747;-0.1208;
1147.8000;0.5739;-0.1327;
1148.1000;0.5739;-0.1232;
1148.4000;0.5706;-0.1279;
1148.7000;0.5698;-0.1303;
1149.0000;0.5722;-0.1232;
1149.3000;0.5731;-0.1256;
1149.6000;0.5739;-0.1208;
1149.9000;0.5731;-0.1185;
1150.2000;0.5739;-0.1161;
1150.5000;0.5722;-0.1232;
1150.8000;0.5739;-0.1090;
1151.1000;0.5722;-0.1066;
1151.4000;0.5747;-0.1090;
1151.7000;0.5714;-0.1019;
1152.0000;0.5706;-0.1042;
1152.3000;0.5714;-0.1114;
1152.6000;0.5714;-0.1161;
1152.9000;0.5722;-0.1161;
1153.2000;0.5714;-0.1185;
1153.5000;0.5682;-0.1279;
1153.8000;0.5714;-0.1232;
1154.1000;0.5722;-0.1208;
1154.4000;0.5722;-0.1279;
1154.7000;0.5739;-0.1208;
1155.0000;0.5739;-0.1161;
1155.3000;0.5755;-0.1066;
1155.6000;0.5722;-0.1208;
1155.9000;0.5722;-0.1208;
1156.2000;0.5698;-0.1232;
1156.5000;0.5706;-0.1114;
1156.8000;0.5706;-0.1161;
1157.1000;0.5698;-0.1279;
1157.4000;0.5706;-0.1279;
1157.7000;0.5706;-0.1208;
1158.0000;0.5714;-0.1208;
1158.3000;0.5714;-0.1232;
1158.6000;0.5706;-0.1279;
1158.9000;0.5739;-0.1232;
1159.2000;0.5690;-0.1351;
1159.5000;0.5722;-0.1279;
1159.8000;0.5739;-0.1279;
1160.1000;0.5714;-0.1232;
1160.4000;0.5714;-0.1161;
1160.7000;0.5714;-0.1090;
1161.0000;0.5714;-0.1114;
1161.3000;0.5779;-0.0948;
1161.6000;0.5714;-0.0948;
1161.9000;0.5722;-0.0995;
1162.2000;0.5706;-0.1137;
1162.5000;0.5722;-0.1042;
1162.8000;0.5714;-0.1042;
1163.1000;0.5674;-0.1161;
1163.4000;0.5714;-0.1066;
1163.7000;0.5698;-0.1161;
1164.0000;0.5706;-0.1090;
1164.3000;0.5698;-0.1066;
1164.6000;0.5706;-0.1090;
1164.9000;0.5706;-0.1208;
1165.2000;0.5731;-0.1232;
1165.5000;0.5714;-0.1185;
1165.8000;0.5722;-0.1161;
1166.1000;0.5731;-0.1137;
1166.4000;0.5714;-0.1137;
1166.7000;0.5714;-0.1042;
1167.0000;0.5747;-0.0877;
1167.3000;0.5706;-0.1090;
1167.6000;0.5698;-0.1256;
1167.9000;0.5706;-0.1232;
1168.2000;0.5641;-0.1398;
1168.5000;0.5714;-0.1256;
1168.8000;0.5731;-0.1137;
1169.1000;0.5722;-0.1066;
1169.4000;0.5722;-0.1066;
1169.7000;0.5698;-0.1137;
1170.0000;0.5714;-0.1114;
1170.3000;0.5722;-0.1090;
1170.6000;0.5722;-0.1066;
1170.9000;0.5731;-0.1066;
1171.2000;0.5714;-0.1137;
1171.5000;0.5714;-0.1161;
1171.8000;0.5690;-0.1279;
1172.1000;0.5714;-0.1185;
1172.4000;0.5731;-0.1137;
1172.7000;0.5722;-0.1185;
1173.0000;0.5714;-0.1137;
1173.3000;0.5731;-0.1066;
1173.6000;0.5731;-0.1114;
1173.9000;0.5722;-0.1161;
1174.2000;0.5731;-0.1208;
1174.5000;0.5731;-0.1256;
1174.8000;0.5731;-0.1327;
1175.1000;0.5722;-0.1351;
1175.4000;0.5706;-0.1374;
1175.7000;0.5706;-0.1374;
1176.0000;0.5714;-0.1327;
1176.3000;0.5714;-0.1351;
1176.6000;0.5698;-0.1303;
1176.9000;0.5706;-0.1327;
1177.2000;0.5739;-0.1256;
1177.5000;0.5739;-0.1279;
1177.8000;0.5698;-0.1327;
1178.1000;0.5682;-0.1303;
1178.4000;0.5706;-0.1208;
1178.7000;0.5706;-0.1208;
1179.0000;0.5706;-0.1208;
1179.3000;0.5714;-0.1137;
1179.6000;0.5698;-0.1161;
1179.9000;0.5788;-0.0900;
1180.2000;0.5722;-0.1066;
1180.5000;0.5706;-0.1208;
1180.8000;0.5706;-0.1279;
1181.1000;0.5714;-0.1208;
1181.4000;0.5714;-0.1208;
1181.7000;0.5698;-0.1161;
1182.0000;0.5698;-0.1232;
1182.3000;0.5706;-0.1208;
1182.6000;0.5722;-0.1208;
1182.9000;0.5698;-0.1185;
1183.2000;0.5714;-0.1137;
1183.5000;0.5706;-0.1161;
1183.8000;0.5706;-0.1114;
1184.1000;0.5731;-0.1066;
1184.4000;0.5690;-0.1161;
1184.7000;0.5722;-0.1042;
1185.0000;0.5714;-0.1066;
1185.3000;0.5722;-0.0995;
1185.6000;0.5755;-0.0924;
1185.9000;0.5706;-0.0948;
1186.2000;0.5714;-0.0877;
1186.5000;0.5722;-0.0877;
1186.8000;0.5698;-0.0948;
1187.1000;0.5763;-0.0829;
1187.4000;0.5722;-0.0924;
1187.7000;0.5714;-0.0948;
1188.0000;0.5698;-0.0971;
1188.3000;0.5714;-0.1019;
1188.6000;0.5747;-0.0971;
1188.9000;0.5714;-0.1042;
1189.2000;0.5690;-0.1185;
1189.5000;0.5690;-0.1137;
1189.8000;0.5698;-0.1185;
1190.1000;0.5714;-0.1161;
1190.4000;0.5706;-0.1137;
1190.7000;0.5690;-0.1208;
1191.0000;0.5722;-0.1090;
1191.3000;0.5706;-0.1090;
1191.6000;0.5779;-0.0971;
1191.9000;0.5698;-0.1256;
1192.2000;0.5731;-0.1256;
1192.5000;0.5706;-0.1303;
1192.8000;0.5706;-0.1279;
1193.1000;0.5714;-0.1208;
1193.4000;0.5714;-0.1303;
1193.7000;0.5682;-0.1351;
1194.0000;0.5731;-0.1279;
1194.3000;0.5722;-0.1279;
1194.6000;0.5698;-0.1279;
1194.9000;0.5714;-0.1208;
1195.2000;0.5706;-0.1232;
1195.5000;0.5714;-0.1232;
1195.8000;0.5739;-0.1137;
1196.1000;0.5690;-0.1185;
1196.4000;0.5714;-0.1161;
1196.7000;0.5698;-0.1114;
1197.0000;0.5698;-0.1137;
1197.3000;0.5698;-0.1208;
1197.6000;0.5714;-0.1137;
1197.9000;0.5706;-0.1185;
1198.2000;0.5722;-0.1090;
1198.5000;0.5714;-0.1090;
1198.8000;0.5706;-0.1161;
1199.1000;0.5722;-0.1090;
1199.4000;0.5722;-0.1019;
1199.7000;0.5706;-0.1042;
1200.0000;0.5698;-0.1042;
1200.3000;0.5714;-0.1019;
1200.6000;0.5706;-0.1019;
1200.9000;0.5690;-0.1066;
1201.2000;0.5690;-0.1066;
1201.5000;0.5731;-0.0948;
1201.8000;0.5706;-0.1019;
1202.1000;0.5698;-0.1042;
1202.4000;0.5706;-0.0971;
1202.7000;0.5706;-0.1042;
1203.0000;0.5674;-0.1090;
1203.3000;0.5698;-0.1042;
1203.6000;0.5714;-0.1066;
1203.9000;0.5698;-0.1090;
1204.2000;0.5722;-0.1090;
1204.5000;0.5698;-0.1185;
1204.8000;0.5706;-0.1256;
1205.1000;0.5690;-0.1279;
1205.4000;0.5690;-0.1303;
1205.7000;0.5682;-0.1351;
1206.0000;0.5714;-0.1208;
1206.3000;0.5698;-0.1232;
1206.6000;0.5690;-0.1185;
1206.9000;0.5706;-0.1161;
1207.2000;0.5706;-0.1185;
1207.5000;0.5698;-0.1185;
1207.8000;0.5674;-0.1327;
1208.1000;0.5755;-0.1137;
1208.4000;0.5698;-0.1303;
1208.7000;0.5690;-0.1185;
1209.0000;0.5747;-0.1042;
1209.3000;0.5714;-0.1114;
1209.6000;0.5674;-0.1137;
1209.9000;0.5698;-0.1042;
1210.2000;0.5714;-0.1066;
1210.5000;0.5714;-0.1066;
1210.8000;0.5698;-0.1208;
1211.1000;0.5674;-0.1303;
1211.4000;0.5698;-0.1208;
1211.7000;0.5722;-0.1137;
1212.0000;0.5722;-0.1208;
1212.3000;0.5698;-0.1161;
1212.6000;0.5722;-0.1137;
1212.9000;0.5698;-0.1185;
1213.2000;0.5714;-0.1090;
1213.5000;0.5714;-0.0995;
1213.8000;0.5706;-0.0995;
1214.1000;0.5698;-0.1114;
1214.4000;0.5722;-0.1090;
1214.7000;0.5714;-0.1042;
1215.0000;0.5714;-0.1019;
1215.3000;0.5698;-0.1066;
1215.6000;0.5714;-0.1090;
1215.9000;0.5690;-0.1161;
1216.2000;0.5706;-0.1114;
1216.5000;0.5690;-0.1090;
1216.8000;0.5641;-0.1137;
1217.1000;0.5690;-0.1019;
1217.4000;0.5698;-0.0995;
1217.7000;0.5698;-0.0971;
1218.0000;0.5698;-0.1042;
1218.3000;0.5714;-0.0995;
1218.6000;0.5706;-0.1066;
1218.9000;0.5722;-0.0995;
1219.2000;0.5698;-0.1042;
1219.5000;0.5698;-0.0971;
1219.8000;0.5682;-0.1019;
1220.1000;0.5690;-0.1090;
1220.4000;0.5706;-0.1066;
1220.7000;0.5698;-0.1090;
1221.0000;0.5706;-0.1090;
1221.3000;0.5682;-0.1161;
1221.6000;0.5649;-0.1256;
1221.9000;0.5682;-0.1114;
1222.2000;0.5690;-0.0995;
1222.5000;0.5714;-0.0924;
1222.8000;0.5641;-0.1161;
1223.1000;0.5690;-0.1066;
1223.4000;0.5722;-0.1066;
1223.7000;0.5714;-0.1185;
1224.0000;0.5698;-0.1208;
1224.3000;0.5698;-0.1232;
1224.6000;0.5722;-0.1256;
1224.9000;0.5714;-0.1279;
1225.2000;0.5706;-0.1208;
1225.5000;0.5690;-0.1161;
1225.8000;0.5690;-0.1137;
1226.1000;0.5690;-0.1114;
1226.4000;0.5690;-0.1208;
1226.7000;0.5706;-0.1185;
1227.0000;0.5706;-0.1208;
1227.3000;0.5682;-0.1256;
1227.6000;0.5771;-0.0924;
1227.9000;0.5665;-0.1161;
1228.2000;0.5706;-0.1137;
1228.5000;0.5706;-0.1137;
1228.8000;0.5722;-0.1114;
1229.1000;0.5690;-0.1114;
1229.4000;0.5690;-0.1114;
1229.7000;0.5674;-0.1232;
1230.0000;0.5698;-0.1137;
1230.3000;0.5690;-0.1137;
1230.6000;0.5682;-0.1185;
1230.9000;0.5698;-0.1185;
1231.2000;0.5698;-0.1279;
1231.5000;0.5698;-0.1208;
1231.8000;0.5706;-0.1256;
1232.1000;0.5674;-0.1279;
1232.4000;0.5706;-0.1137;
1232.7000;0.5755;-0.1114;
1233.0000;0.5690;-0.1185;
1233.3000;0.5706;-0.1137;
1233.6000;0.5714;-0.1114;
1233.9000;0.5690;-0.1208;
1234.2000;0.5706;-0.1185;
1234.5000;0.5665;-0.1303;
1234.8000;0.5665;-0.1303;
1235.1000;0.5690;-0.1185;
1235.4000;0.5682;-0.1137;
1235.7000;0.5690;-0.1208;
1236.0000;0.5682;-0.1303;
1236.3000;0.5690;-0.1279;
1236.6000;0.5739;-0.1161;
1236.9000;0.5682;-0.1185;
1237.2000;0.5698;-0.1090;
1237.5000;0.5682;-0.1066;
1237.8000;0.5706;-0.1042;
1238.1000;0.5682;-0.1090;
1238.4000;0.5698;-0.1161;
1238.7000;0.5706;-0.1232;
1239.0000;0.5698;-0.1232;
1239.3000;0.5682;-0.1232;
1239.6000;0.5690;-0.1232;
1239.9000;0.5665;-0.1303;
1240.2000;0.5698;-0.1208;
1240.5000;0.5690;-0.1208;
1240.8000;0.5641;-0.1232;
1241.1000;0.5682;-0.1208;
1241.4000;0.5690;-0.1161;
1241.7000;0.5714;-0.1137;
1242.0000;0.5714;-0.1185;
1242.3000;0.5674;-0.1256;
1242.6000;0.5682;-0.1327;
1242.9000;0.5706;-0.1279;
1243.2000;0.5690;-0.1303;
1243.5000;0.5682;-0.1327;
1243.8000;0.5682;-0.1232;
1244.1000;0.5698;-0.1114;
1244.4000;0.5706;-0.1019;
1244.7000;0.5690;-0.1066;
1245.0000;0.5731;-0.0948;
1245.3000;0.5714;-0.1066;
1245.6000;0.5674;-0.1114;
1245.9000;0.5690;-0.1090;
1246.2000;0.5690;-0.1114;
1246.5000;0.5698;-0.0971;
1246.8000;0.5714;-0.1019;
1247.1000;0.5690;-0.1090;
1247.4000;0.5641;-0.1114;
1247.7000;0.5682;-0.1042;
1248.0000;0.5690;-0.0995;
1248.3000;0.5682;-0.0900;
1248.6000;0.5682;-0.0948;
1248.9000;0.5706;-0.0900;
1249.2000;0.5706;-0.0758;
1249.5000;0.5682;-0.0806;
1249.8000;0.5698;-0.0806;
1250.1000;0.5698;-0.0758;
1250.4000;0.5698;-0.0758;
1250.7000;0.5698;-0.0734;
1251.0000;0.5682;-0.0782;
1251.3000;0.5649;-0.0924;
1251.6000;0.5714;-0.0806;
1251.9000;0.5665;-0.0853;
1252.2000;0.5690;-0.0877;
1252.5000;0.5698;-0.0948;
1252.8000;0.5690;-0.0924;
1253.1000;0.5706;-0.0948;
1253.4000;0.5706;-0.1019;
1253.7000;0.5690;-0.1066;
1254.0000;0.5665;-0.1066;
1254.3000;0.5682;-0.1066;
1254.6000;0.5698;-0.1042;
1254.9000;0.5690;-0.1090;
1255.2000;0.5698;-0.1137;
1255.5000;0.5698;-0.1185;
1255.8000;0.5690;-0.1208;
1256.1000;0.5690;-0.1161;
1256.4000;0.5682;-0.1114;
1256.7000;0.5690;-0.1066;
1257.0000;0.5690;-0.1137;
1257.3000;0.5714;-0.1090;
1257.6000;0.5641;-0.1161;
1257.9000;0.5690;-0.0948;
1258.2000;0.5706;-0.0900;
1258.5000;0.5690;-0.0971;
1258.8000;0.5682;-0.1042;
1259.1000;0.5690;-0.1042;
1259.4000;0.5690;-0.1066;
1259.7000;0.5682;-0.1114;
1260.0000;0.5714;-0.1042;
1260.3000;0.5690;-0.1137;
1260.6000;0.5706;-0.1114;
1260.9000;0.5682;-0.1114;
1261.2000;0.5682;-0.1066;
1261.5000;0.5698;-0.1066;
1261.8000;0.5690;-0.1161;
1262.1000;0.5698;-0.1232;
1262.4000;0.5698;-0.1303;
1262.7000;0.5674;-0.1279;
1263.0000;0.5682;-0.1232;
1263.3000;0.5698;-0.1114;
1263.6000;0.5739;-0.0971;
1263.9000;0.5706;-0.1019;
1264.2000;0.5690;-0.1114;
1264.5000;0.5747;-0.0948;
1264.8000;0.5682;-0.1185;
1265.1000;0.5690;-0.1185;
1265.4000;0.5690;-0.1114;
1265.7000;0.5682;-0.1137;
1266.0000;0.5690;-0.1090;
1266.3000;0.5706;-0.1042;
1266.6000;0.5665;-0.0995;
1266.9000;0.5698;-0.0948;
1267.2000;0.5690;-0.0995;
1267.5000;0.5690;-0.0995;
1267.8000;0.5698;-0.0995;
1268.1000;0.5682;-0.1019;
1268.4000;0.5641;-0.1137;
1268.7000;0.5682;-0.0995;
1269.0000;0.5641;-0.1019;
1269.3000;0.5665;-0.0924;
1269.6000;0.5674;-0.0853;
1269.9000;0.5682;-0.0924;
1270.2000;0.5698;-0.0877;
1270.5000;0.5690;-0.0995;
1270.8000;0.5682;-0.1090;
1271.1000;0.5714;-0.1114;
1271.4000;0.5698;-0.1066;
1271.7000;0.5665;-0.1114;
1272.0000;0.5690;-0.0971;
1272.3000;0.5698;-0.0948;
1272.6000;0.5690;-0.0924;
1272.9000;0.5682;-0.0900;
1273.2000;0.5682;-0.0829;
1273.5000;0.5690;-0.0806;
1273.8000;0.5698;-0.0948;
1274.1000;0.5690;-0.0995;
1274.4000;0.5690;-0.1019;
1274.7000;0.5682;-0.1019;
1275.0000;0.5674;-0.0995;
1275.3000;0.5674;-0.1019;
1275.6000;0.5690;-0.1019;
1275.9000;0.5633;-0.1137;
1276.2000;0.5690;-0.1042;
1276.5000;0.5674;-0.1042;
1276.8000;0.5682;-0.1019;
1277.1000;0.5690;-0.0948;
1277.4000;0.5698;-0.0853;
1277.7000;0.5682;-0.0829;
1278.0000;0.5690;-0.0877;
1278.3000;0.5690;-0.0948;
1278.6000;0.5682;-0.0948;
1278.9000;0.5698;-0.0995;
1279.2000;0.5698;-0.0948;
1279.5000;0.5690;-0.0995;
1279.8000;0.5674;-0.0971;
1280.1000;0.5682;-0.1042;
1280.4000;0.5657;-0.1066;
1280.7000;0.5674;-0.1042;
1281.0000;0.5690;-0.1019;
1281.3000;0.5706;-0.1042;
1281.6000;0.5698;-0.1019;
1281.9000;0.5674;-0.1042;
1282.2000;0.5714;-0.0900;
1282.5000;0.5690;-0.0924;
1282.8000;0.5674;-0.1042;
1283.1000;0.5657;-0.1161;
1283.4000;0.5674;-0.1185;
1283.7000;0.5690;-0.1185;
1284.0000;0.5641;-0.1232;
1284.3000;0.5682;-0.1185;
1284.6000;0.5674;-0.1185;
1284.9000;0.5682;-0.1185;
1285.2000;0.5747;-0.0995;
1285.5000;0.5698;-0.1137;
1285.8000;0.5682;-0.1232;
1286.1000;0.5763;-0.1090;
1286.4000;0.5682;-0.1137;
1286.7000;0.5739;-0.0995;
1287.0000;0.5722;-0.0924;
1287.3000;0.5657;-0.1137;
1287.6000;0.5690;-0.1019;
1287.9000;0.5674;-0.1042;
1288.2000;0.5665;-0.1090;
1288.5000;0.5665;-0.1137;
1288.8000;0.5714;-0.0971;
1289.1000;0.5674;-0.1042;
1289.4000;0.5657;-0.1137;
1289.7000;0.5665;-0.1232;
1290.0000;0.5698;-0.1114;
1290.3000;0.5674;-0.1114;
1290.6000;0.5690;-0.1090;
1290.9000;0.5674;-0.1185;
1291.2000;0.5665;-0.1232;
1291.5000;0.5682;-0.1232;
1291.8000;0.5674;-0.1256;
1292.1000;0.5682;-0.1303;
1292.4000;0.5690;-0.1208;
1292.7000;0.5690;-0.1279;
1293.0000;0.5698;-0.1279;
1293.3000;0.5698;-0.1137;
1293.6000;0.5682;-0.1090;
1293.9000;0.5682;-0.1042;
1294.2000;0.5690;-0.0948;
1294.5000;0.5690;-0.0971;
1294.8000;0.5625;-0.1161;
1295.1000;0.5682;-0.1019;
1295.4000;0.5665;-0.1042;
1295.7000;0.5674;-0.1066;
1296.0000;0.5665;-0.1114;
1296.3000;0.5665;-0.1161;
1296.6000;0.5747;-0.0995;
1296.9000;0.5690;-0.1185;
1297.2000;0.5682;-0.1208;
1297.5000;0.5698;-0.1185;
1297.8000;0.5682;-0.1137;
1298.1000;0.5714;-0.1114;
1298.4000;0.5682;-0.1232;
1298.7000;0.5674;-0.1256;
1299.0000;0.5690;-0.1279;
1299.3000;0.5771;-0.1042;
1299.6000;0.5674;-0.1279;
1299.9000;0.5665;-0.1279;
1300.2000;0.5714;-0.1066;
1300.5000;0.5690;-0.1066;
1300.8000;0.5682;-0.1090;
1301.1000;0.5674;-0.1090;
1301.4000;0.5682;-0.1066;
1301.7000;0.5690;-0.1019;
1302.0000;0.5674;-0.0995;
1302.3000;0.5633;-0.1090;
1302.6000;0.5625;-0.1137;
1302.9000;0.5665;-0.0971;
1303.2000;0.5690;-0.0995;
1303.5000;0.5690;-0.1019;
1303.8000;0.5698;-0.1090;
1304.1000;0.5706;-0.1019;
1304.4000;0.5698;-0.1137;
1304.7000;0.5674;-0.1256;
1305.0000;0.5657;-0.1279;
1305.3000;0.5674;-0.1161;
1305.6000;0.5706;-0.1090;
1305.9000;0.5682;-0.1137;
1306.2000;0.5706;-0.1185;
1306.5000;0.5674;-0.1256;
1306.8000;0.5682;-0.1114;
1307.1000;0.5682;-0.1066;
1307.4000;0.5657;-0.1137;
1307.7000;0.5665;-0.1137;
1308.0000;0.5665;-0.1114;
1308.3000;0.5674;-0.1137;
1308.6000;0.5714;-0.1019;
1308.9000;0.5674;-0.1137;
1309.2000;0.5698;-0.1042;
1309.5000;0.5747;-0.0853;
1309.8000;0.5690;-0.1066;
1310.1000;0.5706;-0.1042;
1310.4000;0.5657;-0.1137;
1310.7000;0.5657;-0.1161;
1311.0000;0.5714;-0.0924;
1311.3000;0.5682;-0.0948;
1311.6000;0.5682;-0.0948;
1311.9000;0.5674;-0.0877;
1312.2000;0.5690;-0.0900;
1312.5000;0.5682;-0.0948;
1312.8000;0.5682;-0.1042;
1313.1000;0.5690;-0.1019;
1313.4000;0.5698;-0.1019;
1313.7000;0.5706;-0.0971;
1314.0000;0.5674;-0.0924;
1314.3000;0.5674;-0.0900;
1314.6000;0.5698;-0.0853;
1314.9000;0.5690;-0.0853;
1315.2000;0.5674;-0.0995;
1315.5000;0.5665;-0.0971;
1315.8000;0.5690;-0.0948;
1316.1000;0.5690;-0.0995;
1316.4000;0.5682;-0.1066;
1316.7000;0.5690;-0.1019;
1317.0000;0.5698;-0.0948;
1317.3000;0.5674;-0.1090;
1317.6000;0.5682;-0.1208;
1317.9000;0.5731;-0.1066;
1318.2000;0.5657;-0.1232;
1318.5000;0.5617;-0.1232;
1318.8000;0.5690;-0.1019;
1319.1000;0.5674;-0.1090;
1319.4000;0.5682;-0.1042;
1319.7000;0.5690;-0.1019;
1320.0000;0.5722;-0.1066;
1320.3000;0.5714;-0.0995;
1320.6000;0.5665;-0.1066;
1320.9000;0.5698;-0.0924;
1321.2000;0.5690;-0.0995;
1321.5000;0.5698;-0.1090;
1321.8000;0.5665;-0.1161;
1322.1000;0.5649;-0.1161;
1322.4000;0.5698;-0.0971;
1322.7000;0.5698;-0.0948;
1323.0000;0.5682;-0.1019;
1323.3000;0.5682;-0.1090;
1323.6000;0.5682;-0.1161;
1323.9000;0.5698;-0.1185;
1324.2000;0.5665;-0.1185;
1324.5000;0.5665;-0.1114;
1324.8000;0.5674;-0.0971;
1325.1000;0.5690;-0.0853;
1325.4000;0.5665;-0.0995;
1325.7000;0.5674;-0.0924;
1326.0000;0.5682;-0.0948;
1326.3000;0.5690;-0.0971;
1326.6000;0.5682;-0.1208;
1326.9000;0.5731;-0.1161;
1327.2000;0.5682;-0.1256;
1327.5000;0.5690;-0.1161;
1327.8000;0.5698;-0.1137;
1328.1000;0.5682;-0.1208;
1328.4000;0.5633;-0.1279;
1328.7000;0.5690;-0.1208;
1329.0000;0.5674;-0.1185;
1329.3000;0.5674;-0.1161;
1329.6000;0.5674;-0.1161;
1329.9000;0.5690;-0.1066;
1330.2000;0.5698;-0.1042;
1330.5000;0.5674;-0.1114;
1330.8000;0.5674;-0.1090;
1331.1000;0.5698;-0.0995;
1331.4000;0.5682;-0.1114;
1331.7000;0.5674;-0.1090;
1332.0000;0.5682;-0.1042;
1332.3000;0.5665;-0.1066;
1332.6000;0.5665;-0.1090;
1332.9000;0.5682;-0.0971;
1333.2000;0.5665;-0.0995;
1333.5000;0.5665;-0.0948;
1333.8000;0.5714;-0.0971;
1334.1000;0.5674;-0.1019;
1334.4000;0.5674;-0.1066;
1334.7000;0.5682;-0.1114;
1335.0000;0.5665;-0.1042;
1335.3000;0.5682;-0.1042;
1335.6000;0.5682;-0.1042;
1335.9000;0.5722;-0.0948;
1336.2000;0.5690;-0.0924;
1336.5000;0.5690;-0.0900;
1336.8000;0.5674;-0.0995;
1337.1000;0.5674;-0.1019;
1337.4000;0.5706;-0.0877;
1337.7000;0.5690;-0.0948;
1338.0000;0.5674;-0.0971;
1338.3000;0.5698;-0.0971;
1338.6000;0.5739;-0.0829;
1338.9000;0.5706;-0.1066;
1339.2000;0.5706;-0.1066;
1339.5000;0.5674;-0.1137;
1339.8000;0.5690;-0.1208;
1340.1000;0.5690;-0.1256;
1340.4000;0.5682;-0.1232;
1340.7000;0.5698;-0.1185;
1341.0000;0.5714;-0.1232;
1341.3000;0.5690;-0.1398;
1341.6000;0.5682;-0.1445;
1341.9000;0.5706;-0.1398;
1342.2000;0.5657;-0.1469;
1342.5000;0.5674;-0.1422;
1342.8000;0.5649;-0.1493;
1343.1000;0.5698;-0.1422;
1343.4000;0.5657;-0.1516;
1343.7000;0.5657;-0.1422;
1344.0000;0.5649;-0.1398;
1344.3000;0.5682;-0.1327;
1344.6000;0.5674;-0.1303;
1344.9000;0.5706;-0.1137;
1345.2000;0.5682;-0.1066;
1345.5000;0.5682;-0.1066;
1345.8000;0.5657;-0.1114;
1346.1000;0.5731;-0.0924;
1346.4000;0.5682;-0.1042;
1346.7000;0.5690;-0.0924;
1347.0000;0.5674;-0.0924;
1347.3000;0.5698;-0.0829;
1347.6000;0.5657;-0.0971;
1347.9000;0.5633;-0.1066;
1348.2000;0.5665;-0.1066;
1348.5000;0.5682;-0.1090;
1348.8000;0.5674;-0.1066;
1349.1000;0.5690;-0.0971;
1349.4000;0.5682;-0.0995;
1349.7000;0.5633;-0.1114;
1350.0000;0.5665;-0.0995;
1350.3000;0.5657;-0.1042;
1350.6000;0.5690;-0.1019;
1350.9000;0.5690;-0.1019;
1351.2000;0.5665;-0.1066;
1351.5000;0.5665;-0.1019;
1351.8000;0.5665;-0.0971;
1352.1000;0.5690;-0.0829;
1352.4000;0.5641;-0.0948;
1352.7000;0.5665;-0.0829;
1353.0000;0.5674;-0.0806;
1353.3000;0.5665;-0.0853;
1353.6000;0.5665;-0.0853;
1353.9000;0.5682;-0.0995;
1354.2000;0.5682;-0.0877;
1354.5000;0.5690;-0.0877;
1354.8000;0.5674;-0.0924;
1355.1000;0.5682;-0.0924;
1355.4000;0.5682;-0.0877;
1355.7000;0.5682;-0.0900;
1356.0000;0.5690;-0.0924;
1356.3000;0.5665;-0.1042;
1356.6000;0.5690;-0.1042;
1356.9000;0.5674;-0.1090;
1357.2000;0.5690;-0.0948;
1357.5000;0.5682;-0.0877;
1357.8000;0.5690;-0.0877;
1358.1000;0.5665;-0.0995;
1358.4000;0.5665;-0.1114;
1358.7000;0.5665;-0.1137;
1359.0000;0.5674;-0.1066;
1359.3000;0.5665;-0.1066;
1359.6000;0.5674;-0.1090;
1359.9000;0.5674;-0.1042;
1360.2000;0.5674;-0.1066;
1360.5000;0.5674;-0.1066;
1360.8000;0.5690;-0.1066;
1361.1000;0.5674;-0.1137;
1361.4000;0.5698;-0.1090;
1361.7000;0.5657;-0.1090;
1362.0000;0.5665;-0.1019;
1362.3000;0.5682;-0.1042;
1362.6000;0.5682;-0.1066;
1362.9000;0.5657;-0.1019;
1363.2000;0.5665;-0.1042;
1363.5000;0.5690;-0.1042;
1363.8000;0.5731;-0.0995;
1364.1000;0.5657;-0.1185;
1364.4000;0.5731;-0.0971;
1364.7000;0.5641;-0.1137;
1365.0000;0.5633;-0.1114;
1365.3000;0.5665;-0.1066;
1365.6000;0.5657;-0.0995;
1365.9000;0.5641;-0.1019;
1366.2000;0.5690;-0.0900;
1366.5000;0.5698;-0.0900;
1366.8000;0.5722;-0.0734;
1367.1000;0.5674;-0.0806;
1367.4000;0.5665;-0.0806;
1367.7000;0.5665;-0.0853;
1368.0000;0.5665;-0.0806;
1368.3000;0.5674;-0.0782;
1368.6000;0.5665;-0.0853;
1368.9000;0.5665;-0.0877;
1369.2000;0.5674;-0.0971;
1369.5000;0.5657;-0.0971;
1369.8000;0.5674;-0.0924;
1370.1000;0.5633;-0.1066;
1370.4000;0.5674;-0.0900;
1370.7000;0.5665;-0.0853;
1371.0000;0.5649;-0.0877;
1371.3000;0.5706;-0.0734;
1371.6000;0.5665;-0.0900;
1371.9000;0.5665;-0.0971;
1372.2000;0.5674;-0.0900;
1372.5000;0.5706;-0.0853;
1372.8000;0.5714;-0.0877;
1373.1000;0.5665;-0.1090;
1373.4000;0.5674;-0.1019;
1373.7000;0.5682;-0.0971;
1374.0000;0.5682;-0.0971;
1374.3000;0.5665;-0.0877;
1374.6000;0.5665;-0.0877;
1374.9000;0.5682;-0.0853;
1375.2000;0.5665;-0.0829;
1375.5000;0.5714;-0.0853;
1375.8000;0.5674;-0.0900;
1376.1000;0.5657;-0.0853;
1376.4000;0.5674;-0.0900;
1376.7000;0.5633;-0.0971;
1377.0000;0.5665;-0.0900;
1377.3000;0.5674;-0.0853;
1377.6000;0.5657;-0.0853;
1377.9000;0.5674;-0.0853;
1378.2000;0.5665;-0.0924;
1378.5000;0.5657;-0.0924;
1378.8000;0.5682;-0.0900;
1379.1000;0.5665;-0.0924;
1379.4000;0.5657;-0.0995;
1379.7000;0.5665;-0.0924;
1380.0000;0.5674;-0.0924;
1380.3000;0.5649;-0.0995;
1380.6000;0.5665;-0.1042;
1380.9000;0.5657;-0.1114;
1381.2000;0.5674;-0.1114;
1381.5000;0.5674;-0.1066;
1381.8000;0.5657;-0.1090;
1382.1000;0.5665;-0.1137;
1382.4000;0.5674;-0.1185;
1382.7000;0.5657;-0.1208;
1383.0000;0.5625;-0.1208;
1383.3000;0.5674;-0.1114;
1383.6000;0.5674;-0.1137;
1383.9000;0.5600;-0.1256;
1384.2000;0.5674;-0.1066;
1384.5000;0.5674;-0.1019;
1384.8000;0.5665;-0.1019;
1385.1000;0.5641;-0.1042;
1385.4000;0.5657;-0.1019;
1385.7000;0.5641;-0.1066;
1386.0000;0.5649;-0.1066;
1386.3000;0.5649;-0.1019;
1386.6000;0.5657;-0.1042;
1386.9000;0.5641;-0.1019;
1387.2000;0.5649;-0.1019;
1387.5000;0.5674;-0.0948;
1387.8000;0.5706;-0.0948;
1388.1000;0.5690;-0.0948;
1388.4000;0.5665;-0.0995;
1388.7000;0.5649;-0.1042;
1389.0000;0.5682;-0.0924;
1389.3000;0.5682;-0.0924;
1389.6000;0.5682;-0.0948;
1389.9000;0.5674;-0.0995;
1390.2000;0.5665;-0.0924;
1390.5000;0.5657;-0.0971;
1390.8000;0.5706;-0.0877;
1391.1000;0.5657;-0.0971;
1391.4000;0.5665;-0.1019;
1391.7000;0.5682;-0.1066;
1392.0000;0.5682;-0.1090;
1392.3000;0.5674;-0.1114;
1392.6000;0.5674;-0.1066;
1392.9000;0.5649;-0.1090;
1393.2000;0.5682;-0.1066;
1393.5000;0.5690;-0.1114;
1393.8000;0.5665;-0.1208;
1394.1000;0.5674;-0.1208;
1394.4000;0.5657;-0.1232;
1394.7000;0.5649;-0.1185;
1395.0000;0.5641;-0.1137;
1395.3000;0.5690;-0.1019;
1395.6000;0.5674;-0.1090;
1395.9000;0.5665;-0.1066;
1396.2000;0.5657;-0.1114;
1396.5000;0.5665;-0.1114;
1396.8000;0.5682;-0.0995;
1397.1000;0.5674;-0.1042;
1397.4000;0.5665;-0.1042;
1397.7000;0.5674;-0.1090;
1398.0000;0.5674;-0.1019;
1398.3000;0.5682;-0.1042;
1398.6000;0.5649;-0.1042;
1398.9000;0.5657;-0.1019;
1399.2000;0.5674;-0.0900;
1399.5000;0.5657;-0.0853;
1399.8000;0.5649;-0.0806;
