time/ms;Fluo/V;P700 deltaI/I x10³;
-199.8000;0.6064;-0.2227;
-199.5000;0.6032;-0.2251;
-199.2000;0.6072;-0.2227;
-198.9000;0.6064;-0.2227;
-198.6000;0.6081;-0.2180;
-198.3000;0.6089;-0.2038;
-198.0000;0.6121;-0.1990;
-197.7000;0.6081;-0.2227;
-197.4000;0.6097;-0.2203;
-197.1000;0.6105;-0.2180;
-196.8000;0.6081;-0.2275;
-196.5000;0.6129;-0.2203;
-196.2000;0.6081;-0.2322;
-195.9000;0.6081;-0.2346;
-195.6000;0.6121;-0.2322;
-195.3000;0.6089;-0.2298;
-195.0000;0.6113;-0.2109;
-194.7000;0.6072;-0.2203;
-194.4000;0.6105;-0.2180;
-194.1000;0.6105;-0.2109;
-193.8000;0.6146;-0.2061;
-193.5000;0.6097;-0.2203;
-193.2000;0.6121;-0.2227;
-192.9000;0.6048;-0.2369;
-192.6000;0.6113;-0.2275;
-192.3000;0.6089;-0.2298;
-192.0000;0.6146;-0.2109;
-191.7000;0.6081;-0.2227;
-191.4000;0.6081;-0.2180;
-191.1000;0.6146;-0.1990;
-190.8000;0.6105;-0.2038;
-190.5000;0.6138;-0.1943;
-190.2000;0.6064;-0.2109;
-189.9000;0.6064;-0.2156;
-189.6000;0.6081;-0.2156;
-189.3000;0.6097;-0.2109;
-189.0000;0.6072;-0.2109;
-188.7000;0.6072;-0.2085;
-188.4000;0.6097;-0.2038;
-188.1000;0.6097;-0.2038;
-187.8000;0.6024;-0.2251;
-187.5000;0.6089;-0.2038;
-187.2000;0.6056;-0.2085;
-186.9000;0.6072;-0.2085;
-186.6000;0.6081;-0.2061;
-186.3000;0.6081;-0.2061;
-186.0000;0.6072;-0.2061;
-185.7000;0.6081;-0.2085;
-185.4000;0.6097;-0.2014;
-185.1000;0.6081;-0.2132;
-184.8000;0.6089;-0.2061;
-184.5000;0.6081;-0.2085;
-184.2000;0.6105;-0.2014;
-183.9000;0.6105;-0.1990;
-183.6000;0.6105;-0.2014;
-183.3000;0.6105;-0.2038;
-183.0000;0.6113;-0.2014;
-182.7000;0.6105;-0.2014;
-182.4000;0.6097;-0.2061;
-182.1000;0.6105;-0.2085;
-181.8000;0.6113;-0.2038;
-181.5000;0.6129;-0.2180;
-181.2000;0.6081;-0.2251;
-180.9000;0.6072;-0.2203;
-180.6000;0.6072;-0.2180;
-180.3000;0.6048;-0.2322;
-180.0000;0.6089;-0.2203;
-179.7000;0.6064;-0.2275;
-179.4000;0.6105;-0.2132;
-179.1000;0.6121;-0.2132;
-178.8000;0.6105;-0.2203;
-178.5000;0.6097;-0.2203;
-178.2000;0.6105;-0.2109;
-177.9000;0.6072;-0.2061;
-177.6000;0.6081;-0.2109;
-177.3000;0.6032;-0.2156;
-177.0000;0.6072;-0.2061;
-176.7000;0.6072;-0.2132;
-176.4000;0.5975;-0.2393;
-176.1000;0.6105;-0.1990;
-175.8000;0.6089;-0.2038;
-175.5000;0.6129;-0.2014;
-175.2000;0.6121;-0.2109;
-174.9000;0.6097;-0.2298;
-174.6000;0.6089;-0.2251;
-174.3000;0.6056;-0.2322;
-174.0000;0.6097;-0.2156;
-173.7000;0.6097;-0.2203;
-173.4000;0.6089;-0.2251;
-173.1000;0.6081;-0.2275;
-172.8000;0.6105;-0.2156;
-172.5000;0.6089;-0.2109;
-172.2000;0.6097;-0.2109;
-171.9000;0.6089;-0.2180;
-171.6000;0.6072;-0.2180;
-171.3000;0.6097;-0.2132;
-171.0000;0.6089;-0.2203;
-170.7000;0.6089;-0.2227;
-170.4000;0.6040;-0.2298;
-170.1000;0.6072;-0.2322;
-169.8000;0.6089;-0.2251;
-169.5000;0.6081;-0.2298;
-169.2000;0.6081;-0.2322;
-168.9000;0.6105;-0.2275;
-168.6000;0.6072;-0.2369;
-168.3000;0.6064;-0.2417;
-168.0000;0.6081;-0.2369;
-167.7000;0.6113;-0.2346;
-167.4000;0.6081;-0.2322;
-167.1000;0.6097;-0.2346;
-166.8000;0.6097;-0.2298;
-166.5000;0.6081;-0.2251;
-166.2000;0.6097;-0.2227;
-165.9000;0.6081;-0.2322;
-165.6000;0.6072;-0.2275;
-165.3000;0.6081;-0.2298;
-165.0000;0.6081;-0.2251;
-164.7000;0.6064;-0.2346;
-164.4000;0.6072;-0.2346;
-164.1000;0.6072;-0.2393;
-163.8000;0.6089;-0.2369;
-163.5000;0.6089;-0.2275;
-163.2000;0.6081;-0.2203;
-162.9000;0.6081;-0.2275;
-162.6000;0.6089;-0.2322;
-162.3000;0.6097;-0.2298;
-162.0000;0.6089;-0.2275;
-161.7000;0.6072;-0.2227;
-161.4000;0.6105;-0.2227;
-161.1000;0.6113;-0.2251;
-160.8000;0.6113;-0.2251;
-160.5000;0.6089;-0.2298;
-160.2000;0.6105;-0.2251;
-159.9000;0.6097;-0.2156;
-159.6000;0.6064;-0.2227;
-159.3000;0.6097;-0.2180;
-159.0000;0.6089;-0.2203;
-158.7000;0.6097;-0.2275;
-158.4000;0.6105;-0.2180;
-158.1000;0.6081;-0.2275;
-157.8000;0.6072;-0.2322;
-157.5000;0.6097;-0.2251;
-157.2000;0.6089;-0.2251;
-156.9000;0.6081;-0.2298;
-156.6000;0.6089;-0.2298;
-156.3000;0.6121;-0.2298;
-156.0000;0.6097;-0.2369;
-155.7000;0.6105;-0.2393;
-155.4000;0.6089;-0.2369;
-155.1000;0.6089;-0.2346;
-154.8000;0.6097;-0.2180;
-154.5000;0.6105;-0.2203;
-154.2000;0.6105;-0.2203;
-153.9000;0.6089;-0.2275;
-153.6000;0.6089;-0.2251;
-153.3000;0.6081;-0.2275;
-153.0000;0.6048;-0.2369;
-152.7000;0.6081;-0.2298;
-152.4000;0.6064;-0.2346;
-152.1000;0.6081;-0.2346;
-151.8000;0.6048;-0.2298;
-151.5000;0.6072;-0.2203;
-151.2000;0.6138;-0.2014;
-150.9000;0.6097;-0.2085;
-150.6000;0.6097;-0.2180;
-150.3000;0.6081;-0.2251;
-150.0000;0.6072;-0.2227;
-149.7000;0.6072;-0.2180;
-149.4000;0.6089;-0.2085;
-149.1000;0.6081;-0.2061;
-148.8000;0.6072;-0.2203;
-148.5000;0.6089;-0.2203;
-148.2000;0.6097;-0.2156;
-147.9000;0.6081;-0.2227;
-147.6000;0.6056;-0.2251;
-147.3000;0.6072;-0.2203;
-147.0000;0.6089;-0.2180;
-146.7000;0.6081;-0.2298;
-146.4000;0.6089;-0.2322;
-146.1000;0.6072;-0.2346;
-145.8000;0.6081;-0.2275;
-145.5000;0.6121;-0.2156;
-145.2000;0.6081;-0.2369;
-144.9000;0.6072;-0.2322;
-144.6000;0.6081;-0.2227;
-144.3000;0.6072;-0.2251;
-144.0000;0.6072;-0.2203;
-143.7000;0.6081;-0.2251;
-143.4000;0.6097;-0.2203;
-143.1000;0.6081;-0.2251;
-142.8000;0.6105;-0.2251;
-142.5000;0.6097;-0.2227;
-142.2000;0.6089;-0.2298;
-141.9000;0.6113;-0.2227;
-141.6000;0.6097;-0.2251;
-141.3000;0.6121;-0.2132;
-141.0000;0.6081;-0.2180;
-140.7000;0.6097;-0.2085;
-140.4000;0.6097;-0.2109;
-140.1000;0.6081;-0.2132;
-139.8000;0.6089;-0.2132;
-139.5000;0.6081;-0.2156;
-139.2000;0.6089;-0.2109;
-138.9000;0.6081;-0.2061;
-138.6000;0.6089;-0.2132;
-138.3000;0.6081;-0.2061;
-138.0000;0.6129;-0.1990;
-137.7000;0.6105;-0.2038;
-137.4000;0.6105;-0.2085;
-137.1000;0.6097;-0.2109;
-136.8000;0.6105;-0.2180;
-136.5000;0.6113;-0.2085;
-136.2000;0.6105;-0.2227;
-135.9000;0.6089;-0.2275;
-135.6000;0.6121;-0.2203;
-135.3000;0.6089;-0.2180;
-135.0000;0.6089;-0.2180;
-134.7000;0.6089;-0.2227;
-134.4000;0.6089;-0.2275;
-134.1000;0.6105;-0.2203;
-133.8000;0.6081;-0.2227;
-133.5000;0.6072;-0.2227;
-133.2000;0.6097;-0.2251;
-132.9000;0.6089;-0.2227;
-132.6000;0.6089;-0.2227;
-132.3000;0.6048;-0.2322;
-132.0000;0.6097;-0.2251;
-131.7000;0.6113;-0.2085;
-131.4000;0.6113;-0.2014;
-131.1000;0.6097;-0.2061;
-130.8000;0.6089;-0.2109;
-130.5000;0.6072;-0.2132;
-130.2000;0.6113;-0.2251;
-129.9000;0.6072;-0.2369;
-129.6000;0.6097;-0.2346;
-129.3000;0.6105;-0.2275;
-129.0000;0.6105;-0.2180;
-128.7000;0.6072;-0.2251;
-128.4000;0.6089;-0.2203;
-128.1000;0.6081;-0.2275;
-127.8000;0.6089;-0.2275;
-127.5000;0.6089;-0.2275;
-127.2000;0.6129;-0.2203;
-126.9000;0.6081;-0.2322;
-126.6000;0.6072;-0.2275;
-126.3000;0.6081;-0.2298;
-126.0000;0.6081;-0.2298;
-125.7000;0.6072;-0.2369;
-125.4000;0.6113;-0.2275;
-125.1000;0.6089;-0.2369;
-124.8000;0.6081;-0.2417;
-124.5000;0.6089;-0.2369;
-124.2000;0.6105;-0.2322;
-123.9000;0.6089;-0.2369;
-123.6000;0.6081;-0.2440;
-123.3000;0.6072;-0.2488;
-123.0000;0.6064;-0.2559;
-122.7000;0.6081;-0.2511;
-122.4000;0.6081;-0.2535;
-122.1000;0.6072;-0.2535;
-121.8000;0.6064;-0.2606;
-121.5000;0.5999;-0.2819;
-121.2000;0.6072;-0.2488;
-120.9000;0.6138;-0.2251;
-120.6000;0.6089;-0.2251;
-120.3000;0.6081;-0.2156;
-120.0000;0.6089;-0.2180;
-119.7000;0.6072;-0.2251;
-119.4000;0.6081;-0.2251;
-119.1000;0.6081;-0.2275;
-118.8000;0.6032;-0.2440;
-118.5000;0.6072;-0.2393;
-118.2000;0.6072;-0.2417;
-117.9000;0.6081;-0.2369;
-117.6000;0.6097;-0.2322;
-117.3000;0.6154;-0.2203;
-117.0000;0.6081;-0.2346;
-116.7000;0.6048;-0.2488;
-116.4000;0.6089;-0.2369;
-116.1000;0.6089;-0.2369;
-115.8000;0.5999;-0.2606;
-115.5000;0.6081;-0.2369;
-115.2000;0.6089;-0.2322;
-114.9000;0.6056;-0.2346;
-114.6000;0.6089;-0.2251;
-114.3000;0.6081;-0.2275;
-114.0000;0.6072;-0.2322;
-113.7000;0.6097;-0.2132;
-113.4000;0.6097;-0.2132;
-113.1000;0.6081;-0.2203;
-112.8000;0.6105;-0.2038;
-112.5000;0.6081;-0.2132;
-112.2000;0.6081;-0.2085;
-111.9000;0.6081;-0.2156;
-111.6000;0.6105;-0.2061;
-111.3000;0.6081;-0.2203;
-111.0000;0.6072;-0.2251;
-110.7000;0.6081;-0.2322;
-110.4000;0.6097;-0.2322;
-110.1000;0.6081;-0.2322;
-109.8000;0.6081;-0.2393;
-109.5000;0.6072;-0.2393;
-109.2000;0.6081;-0.2369;
-108.9000;0.6032;-0.2464;
-108.6000;0.6081;-0.2275;
-108.3000;0.6089;-0.2298;
-108.0000;0.6072;-0.2417;
-107.7000;0.6064;-0.2298;
-107.4000;0.6097;-0.2156;
-107.1000;0.6089;-0.2203;
-106.8000;0.6097;-0.2085;
-106.5000;0.6072;-0.2156;
-106.2000;0.6097;-0.2180;
-105.9000;0.6089;-0.2156;
-105.6000;0.6105;-0.2156;
-105.3000;0.6081;-0.2132;
-105.0000;0.6089;-0.2251;
-104.7000;0.6081;-0.2180;
-104.4000;0.6089;-0.2251;
-104.1000;0.6113;-0.2156;
-103.8000;0.6097;-0.2180;
-103.5000;0.6105;-0.2251;
-103.2000;0.6089;-0.2251;
-102.9000;0.6089;-0.2203;
-102.6000;0.6048;-0.2322;
-102.3000;0.6089;-0.2085;
-102.0000;0.6105;-0.2085;
-101.7000;0.6089;-0.2180;
-101.4000;0.6072;-0.2251;
-101.1000;0.6121;-0.2251;
-100.8000;0.6089;-0.2346;
-100.5000;0.6089;-0.2227;
-100.2000;0.6081;-0.2180;
-99.9000;0.6072;-0.2132;
-99.6000;0.6154;-0.1895;
-99.3000;0.6097;-0.2061;
-99.0000;0.6081;-0.2109;
-98.7000;0.6089;-0.2180;
-98.4000;0.6121;-0.2061;
-98.1000;0.6097;-0.2156;
-97.8000;0.6162;-0.2085;
-97.5000;0.6113;-0.2227;
-97.2000;0.6089;-0.2203;
-96.9000;0.6105;-0.2132;
-96.6000;0.6097;-0.2156;
-96.3000;0.6081;-0.2251;
-96.0000;0.6081;-0.2132;
-95.7000;0.6105;-0.2132;
-95.4000;0.6081;-0.2251;
-95.1000;0.6089;-0.2275;
-94.8000;0.6064;-0.2346;
-94.5000;0.6097;-0.2298;
-94.2000;0.6089;-0.2346;
-93.9000;0.6105;-0.2346;
-93.6000;0.6097;-0.2417;
-93.3000;0.6089;-0.2440;
-93.0000;0.6097;-0.2417;
-92.7000;0.6146;-0.2251;
-92.4000;0.6089;-0.2346;
-92.1000;0.6105;-0.2275;
-91.8000;0.6064;-0.2369;
-91.5000;0.6081;-0.2275;
-91.2000;0.6097;-0.2251;
-90.9000;0.6081;-0.2251;
-90.6000;0.6089;-0.2227;
-90.3000;0.6097;-0.2180;
-90.0000;0.6097;-0.2251;
-89.7000;0.6138;-0.2203;
-89.4000;0.6097;-0.2275;
-89.1000;0.6097;-0.2180;
-88.8000;0.6081;-0.2251;
-88.5000;0.6081;-0.2251;
-88.2000;0.6097;-0.2275;
-87.9000;0.6089;-0.2275;
-87.6000;0.6064;-0.2298;
-87.3000;0.6064;-0.2369;
-87.0000;0.6081;-0.2251;
-86.7000;0.6097;-0.2203;
-86.4000;0.6097;-0.2180;
-86.1000;0.6121;-0.2180;
-85.8000;0.6072;-0.2369;
-85.5000;0.6089;-0.2275;
-85.2000;0.6097;-0.2203;
-84.9000;0.6056;-0.2346;
-84.6000;0.6081;-0.2346;
-84.3000;0.6089;-0.2275;
-84.0000;0.6072;-0.2346;
-83.7000;0.6146;-0.2085;
-83.4000;0.6048;-0.2275;
-83.1000;0.6081;-0.2132;
-82.8000;0.6097;-0.2109;
-82.5000;0.6081;-0.2156;
-82.2000;0.6072;-0.2203;
-81.9000;0.6089;-0.2251;
-81.6000;0.6072;-0.2251;
-81.3000;0.6089;-0.2251;
-81.0000;0.6089;-0.2346;
-80.7000;0.6089;-0.2346;
-80.4000;0.6097;-0.2369;
-80.1000;0.6097;-0.2322;
-79.8000;0.6089;-0.2393;
-79.5000;0.6138;-0.2298;
-79.2000;0.6081;-0.2393;
-78.9000;0.6097;-0.2369;
-78.6000;0.6121;-0.2322;
-78.3000;0.6097;-0.2369;
-78.0000;0.6105;-0.2298;
-77.7000;0.6105;-0.2275;
-77.4000;0.6138;-0.2180;
-77.1000;0.6121;-0.2298;
-76.8000;0.6097;-0.2298;
-76.5000;0.6105;-0.2203;
-76.2000;0.6105;-0.2203;
-75.9000;0.6081;-0.2322;
-75.6000;0.6064;-0.2369;
-75.3000;0.6089;-0.2322;
-75.0000;0.6081;-0.2322;
-74.7000;0.6089;-0.2346;
-74.4000;0.6089;-0.2132;
-74.1000;0.6081;-0.2085;
-73.8000;0.6072;-0.2203;
-73.5000;0.6081;-0.2275;
-73.2000;0.6089;-0.2322;
-72.9000;0.6032;-0.2464;
-72.6000;0.6113;-0.2251;
-72.3000;0.6089;-0.2346;
-72.0000;0.6081;-0.2322;
-71.7000;0.6081;-0.2275;
-71.4000;0.6064;-0.2251;
-71.1000;0.6072;-0.2251;
-70.8000;0.6089;-0.2227;
-70.5000;0.6081;-0.2227;
-70.2000;0.6081;-0.2132;
-69.9000;0.6097;-0.2038;
-69.6000;0.6105;-0.2038;
-69.3000;0.6089;-0.2014;
-69.0000;0.6072;-0.2061;
-68.7000;0.6089;-0.1967;
-68.4000;0.6056;-0.2038;
-68.1000;0.6097;-0.1943;
-67.8000;0.6081;-0.2038;
-67.5000;0.6089;-0.2014;
-67.2000;0.6064;-0.2132;
-66.9000;0.6089;-0.2085;
-66.6000;0.6081;-0.2014;
-66.3000;0.6089;-0.2038;
-66.0000;0.6121;-0.1990;
-65.7000;0.6081;-0.2180;
-65.4000;0.6089;-0.2251;
-65.1000;0.6097;-0.2203;
-64.8000;0.6097;-0.2109;
-64.5000;0.6089;-0.2038;
-64.2000;0.6072;-0.2085;
-63.9000;0.6089;-0.2132;
-63.6000;0.6081;-0.2203;
-63.3000;0.6064;-0.2251;
-63.0000;0.5999;-0.2488;
-62.7000;0.6081;-0.2322;
-62.4000;0.6097;-0.2251;
-62.1000;0.6089;-0.2132;
-61.8000;0.6089;-0.2109;
-61.5000;0.6081;-0.2109;
-61.2000;0.6089;-0.2061;
-60.9000;0.6089;-0.2061;
-60.6000;0.6081;-0.2085;
-60.3000;0.6048;-0.2085;
-60.0000;0.6081;-0.2109;
-59.7000;0.6089;-0.2156;
-59.4000;0.5991;-0.2417;
-59.1000;0.6081;-0.2227;
-58.8000;0.6105;-0.2251;
-58.5000;0.6072;-0.2369;
-58.2000;0.6081;-0.2322;
-57.9000;0.6089;-0.2180;
-57.6000;0.6089;-0.2156;
-57.3000;0.6056;-0.2180;
-57.0000;0.6089;-0.2109;
-56.7000;0.6089;-0.2203;
-56.4000;0.6089;-0.2132;
-56.1000;0.6064;-0.2275;
-55.8000;0.6089;-0.2109;
-55.5000;0.6146;-0.2061;
-55.2000;0.6081;-0.2203;
-54.9000;0.6081;-0.2227;
-54.6000;0.6097;-0.2275;
-54.3000;0.6081;-0.2275;
-54.0000;0.6089;-0.2227;
-53.7000;0.6081;-0.2156;
-53.4000;0.6089;-0.2203;
-53.1000;0.6097;-0.2156;
-52.8000;0.6105;-0.2180;
-52.5000;0.6089;-0.2227;
-52.2000;0.6081;-0.2251;
-51.9000;0.6097;-0.2322;
-51.6000;0.6081;-0.2393;
-51.3000;0.6097;-0.2369;
-51.0000;0.6089;-0.2275;
-50.7000;0.6072;-0.2275;
-50.4000;0.6089;-0.2346;
-50.1000;0.6089;-0.2346;
-49.8000;0.6097;-0.2346;
-49.5000;0.6089;-0.2227;
-49.2000;0.6072;-0.2180;
-48.9000;0.6081;-0.2203;
-48.6000;0.6089;-0.2251;
-48.3000;0.6072;-0.2346;
-48.0000;0.6097;-0.2346;
-47.7000;0.6072;-0.2322;
-47.4000;0.6081;-0.2322;
-47.1000;0.6089;-0.2227;
-46.8000;0.6105;-0.2132;
-46.5000;0.6072;-0.2227;
-46.2000;0.6162;-0.1919;
-45.9000;0.6089;-0.2132;
-45.6000;0.6089;-0.2109;
-45.3000;0.6081;-0.2061;
-45.0000;0.6089;-0.2038;
-44.7000;0.6048;-0.2132;
-44.4000;0.6097;-0.1967;
-44.1000;0.6081;-0.1967;
-43.8000;0.6056;-0.2038;
-43.5000;0.6081;-0.2061;
-43.2000;0.6097;-0.2109;
-42.9000;0.6089;-0.2061;
-42.6000;0.6064;-0.2085;
-42.3000;0.6072;-0.2061;
-42.0000;0.6097;-0.2085;
-41.7000;0.6097;-0.2014;
-41.4000;0.6081;-0.2109;
-41.1000;0.6097;-0.2109;
-40.8000;0.6097;-0.2132;
-40.5000;0.6081;-0.2038;
-40.2000;0.6089;-0.2061;
-39.9000;0.6113;-0.2085;
-39.6000;0.6056;-0.2227;
-39.3000;0.6089;-0.2132;
-39.0000;0.6072;-0.2180;
-38.7000;0.6089;-0.2156;
-38.4000;0.6072;-0.2156;
-38.1000;0.6129;-0.1943;
-37.8000;0.6072;-0.2014;
-37.5000;0.6097;-0.2014;
-37.2000;0.6081;-0.2132;
-36.9000;0.6032;-0.2251;
-36.6000;0.6081;-0.2109;
-36.3000;0.6032;-0.2203;
-36.0000;0.6064;-0.2109;
-35.7000;0.6089;-0.2156;
-35.4000;0.6081;-0.2156;
-35.1000;0.6105;-0.2085;
-34.8000;0.6097;-0.2109;
-34.5000;0.6056;-0.2156;
-34.2000;0.6129;-0.2014;
-33.9000;0.6081;-0.2180;
-33.6000;0.6056;-0.2203;
-33.3000;0.6072;-0.2180;
-33.0000;0.6072;-0.2180;
-32.7000;0.6089;-0.2132;
-32.4000;0.6072;-0.2203;
-32.1000;0.6081;-0.2203;
-31.8000;0.6081;-0.2085;
-31.5000;0.6081;-0.2061;
-31.2000;0.6072;-0.2109;
-30.9000;0.6064;-0.2180;
-30.6000;0.6081;-0.2109;
-30.3000;0.6105;-0.2061;
-30.0000;0.6089;-0.2227;
-29.7000;0.6081;-0.2298;
-29.4000;0.6081;-0.2346;
-29.1000;0.6097;-0.2251;
-28.8000;0.6081;-0.2275;
-28.5000;0.6089;-0.2275;
-28.2000;0.6081;-0.2298;
-27.9000;0.6024;-0.2535;
-27.6000;0.6081;-0.2393;
-27.3000;0.6064;-0.2417;
-27.0000;0.6081;-0.2417;
-26.7000;0.6081;-0.2440;
-26.4000;0.6081;-0.2464;
-26.1000;0.6072;-0.2440;
-25.8000;0.6105;-0.2322;
-25.5000;0.6105;-0.2346;
-25.2000;0.6097;-0.2322;
-24.9000;0.6105;-0.2275;
-24.6000;0.6081;-0.2275;
-24.3000;0.6081;-0.2251;
-24.0000;0.6105;-0.2156;
-23.7000;0.6081;-0.2275;
-23.4000;0.6089;-0.2298;
-23.1000;0.6089;-0.2346;
-22.8000;0.6146;-0.2251;
-22.5000;0.6089;-0.2298;
-22.2000;0.6032;-0.2488;
-21.9000;0.6072;-0.2298;
-21.6000;0.6089;-0.2251;
-21.3000;0.6081;-0.2180;
-21.0000;0.6048;-0.2180;
-20.7000;0.6064;-0.1990;
-20.4000;0.6072;-0.1943;
-20.1000;0.6089;-0.1919;
-19.8000;0.6081;-0.1990;
-19.5000;0.6081;-0.2038;
-19.2000;0.6097;-0.2180;
-18.9000;0.6097;-0.2132;
-18.6000;0.6113;-0.2156;
-18.3000;0.6089;-0.2227;
-18.0000;0.6089;-0.2251;
-17.7000;0.6089;-0.2156;
-17.4000;0.6097;-0.1943;
-17.1000;0.6089;-0.2038;
-16.8000;0.6081;-0.2109;
-16.5000;0.6089;-0.2109;
-16.2000;0.6089;-0.2132;
-15.9000;0.6089;-0.2203;
-15.6000;0.6097;-0.2156;
-15.3000;0.6081;-0.2251;
-15.0000;0.6097;-0.2203;
-14.7000;0.6097;-0.2203;
-14.4000;0.6081;-0.2275;
-14.1000;0.6113;-0.2227;
-13.8000;0.6089;-0.2227;
-13.5000;0.6105;-0.2322;
-13.2000;0.6097;-0.2369;
-12.9000;0.6072;-0.2346;
-12.6000;0.6113;-0.2132;
-12.3000;0.6097;-0.2227;
-12.0000;0.6064;-0.2180;
-11.7000;0.6064;-0.2085;
-11.4000;0.6154;-0.1848;
-11.1000;0.6081;-0.2085;
-10.8000;0.6089;-0.2109;
-10.5000;0.6056;-0.2156;
-10.2000;0.6072;-0.2132;
-9.9000;0.6081;-0.2109;
-9.6000;0.6089;-0.2109;
-9.3000;0.6081;-0.2156;
-9.0000;0.6064;-0.2085;
-8.7000;0.6089;-0.1943;
-8.4000;0.6097;-0.2085;
-8.1000;0.6089;-0.2203;
-7.8000;0.6097;-0.2298;
-7.5000;0.6072;-0.2322;
-7.2000;0.6081;-0.2203;
-6.9000;0.6089;-0.2156;
-6.6000;0.6064;-0.2180;
-6.3000;0.6072;-0.2085;
-6.0000;0.6024;-0.2180;
-5.7000;0.6089;-0.2038;
-5.4000;0.6105;-0.1872;
-5.1000;0.6032;-0.2132;
-4.8000;0.6105;-0.1990;
-4.5000;0.6105;-0.1967;
-4.2000;0.6097;-0.1943;
-3.9000;0.6081;-0.1990;
-3.6000;0.6072;-0.1990;
-3.3000;0.6105;-0.1848;
-3.0000;0.6072;-0.1919;
-2.7000;0.6064;-0.2038;
-2.4000;0.6089;-0.2038;
-2.1000;0.6081;-0.2085;
-1.8000;0.6097;-0.1990;
-1.5000;0.6064;-0.2038;
-1.2000;0.6081;-0.1943;
-0.9000;0.6081;-0.1872;
-0.6000;0.6105;-0.1872;
-0.3000;0.6081;-0.1919;
0.0000;0.6081;-0.1919;
0.3000;0.6292;-0.1777;
0.6000;0.6911;-0.0734;
0.9000;0.7302;-0.0024;
1.2000;0.7611;0.0569;
1.5000;0.7880;0.1090;
1.8000;0.8091;0.1469;
2.1000;0.8221;0.1848;
2.4000;0.8335;0.2109;
2.7000;0.8457;0.2488;
3.0000;0.8539;0.2677;
3.3000;0.8596;0.2867;
3.6000;0.8661;0.2962;
3.9000;0.8702;0.3033;
4.2000;0.8783;0.3199;
4.5000;0.8824;0.3317;
4.8000;0.8864;0.3364;
5.1000;0.8921;0.3341;
5.4000;0.8954;0.3412;
5.7000;0.8987;0.3578;
6.0000;0.9019;0.3601;
6.3000;0.9068;0.3625;
6.6000;0.9101;0.3601;
6.9000;0.9109;0.3578;
7.2000;0.9125;0.3578;
7.5000;0.9182;0.3625;
7.8000;0.9198;0.3459;
8.1000;0.9174;0.3270;
8.4000;0.9263;0.3388;
8.7000;0.9280;0.3364;
9.0000;0.9304;0.3435;
9.3000;0.9328;0.3435;
9.6000;0.9385;0.3483;
9.9000;0.9402;0.3459;
10.2000;0.9516;0.3625;
10.5000;0.9483;0.3435;
10.8000;0.9475;0.3341;
11.1000;0.9524;0.3341;
11.4000;0.9556;0.3341;
11.7000;0.9548;0.3293;
12.0000;0.9613;0.3341;
12.3000;0.9646;0.3293;
12.6000;0.9670;0.3293;
12.9000;0.9695;0.3341;
13.2000;0.9711;0.3246;
13.5000;0.9752;0.3293;
13.8000;0.9768;0.3246;
14.1000;0.9784;0.3270;
14.4000;0.9858;0.3459;
14.7000;0.9841;0.3293;
15.0000;0.9882;0.3412;
15.3000;0.9874;0.3412;
15.6000;0.9882;0.3412;
15.9000;0.9923;0.3435;
16.2000;0.9947;0.3412;
16.5000;0.9931;0.3388;
16.8000;0.9955;0.3341;
17.1000;1.0004;0.3388;
17.4000;1.0020;0.3412;
17.7000;1.0037;0.3364;
18.0000;1.0053;0.3388;
18.3000;1.0077;0.3388;
18.6000;1.0085;0.3293;
18.9000;1.0110;0.3270;
19.2000;1.0126;0.3199;
19.5000;1.0126;0.3175;
19.8000;1.0142;0.3270;
20.1000;1.0167;0.3293;
20.4000;1.0175;0.3341;
20.7000;1.0199;0.3293;
21.0000;1.0208;0.3270;
21.3000;1.0224;0.3341;
21.6000;1.0240;0.3412;
21.9000;1.0248;0.3317;
22.2000;1.0281;0.3317;
22.5000;1.0281;0.3222;
22.8000;1.0305;0.3293;
23.1000;1.0297;0.3317;
23.4000;1.0387;0.3459;
23.7000;1.0379;0.3341;
24.0000;1.0354;0.3222;
24.3000;1.0338;0.3175;
24.6000;1.0354;0.3246;
24.9000;1.0370;0.3246;
25.2000;1.0379;0.3175;
25.5000;1.0387;0.3151;
25.8000;1.0403;0.3104;
26.1000;1.0403;0.3127;
26.4000;1.0444;0.3151;
26.7000;1.0435;0.3151;
27.0000;1.0452;0.3175;
27.3000;1.0476;0.3222;
27.6000;1.0476;0.3246;
27.9000;1.0468;0.3222;
28.2000;1.0509;0.3175;
28.5000;1.0501;0.3175;
28.8000;1.0517;0.3246;
29.1000;1.0501;0.3127;
29.4000;1.0533;0.3222;
29.7000;1.0541;0.3199;
30.0000;1.0541;0.3199;
30.3000;1.0558;0.3222;
30.6000;1.0533;0.3127;
30.9000;1.0549;0.3127;
31.2000;1.0582;0.3246;
31.5000;1.0541;0.3199;
31.8000;1.0468;0.3056;
32.1000;1.0566;0.3175;
32.4000;1.0574;0.3127;
32.7000;1.0639;0.3199;
33.0000;1.0582;0.3056;
33.3000;1.0549;0.2891;
33.6000;1.0566;0.2938;
33.9000;1.0631;0.3151;
34.2000;1.0647;0.3151;
34.5000;1.0631;0.3175;
34.8000;1.0639;0.3222;
35.1000;1.0606;0.3151;
35.4000;1.0647;0.3293;
35.7000;1.0663;0.3246;
36.0000;1.0623;0.3151;
36.3000;1.0655;0.3127;
36.6000;1.0647;0.3080;
36.9000;1.0647;0.3056;
37.2000;1.0672;0.3175;
37.5000;1.0655;0.3246;
37.8000;1.0680;0.3246;
38.1000;1.0696;0.3293;
38.4000;1.0688;0.3175;
38.7000;1.0680;0.3175;
39.0000;1.0696;0.3175;
39.3000;1.0688;0.3104;
39.6000;1.0712;0.3009;
39.9000;1.0704;0.2938;
40.2000;1.0704;0.2938;
40.5000;1.0720;0.3009;
40.8000;1.0745;0.3033;
41.1000;1.0729;0.2962;
41.4000;1.0720;0.2914;
41.7000;1.0729;0.2914;
42.0000;1.0745;0.2867;
42.3000;1.0720;0.2819;
42.6000;1.0753;0.2867;
42.9000;1.0745;0.2819;
43.2000;1.0745;0.2843;
43.5000;1.0753;0.2819;
43.8000;1.0769;0.2843;
44.1000;1.0753;0.2819;
44.4000;1.0777;0.2891;
44.7000;1.0777;0.2843;
45.0000;1.0769;0.2891;
45.3000;1.0802;0.2938;
45.6000;1.0769;0.2962;
45.9000;1.0729;0.2819;
46.2000;1.0769;0.2914;
46.5000;1.0777;0.2891;
46.8000;1.0786;0.2985;
47.1000;1.0786;0.3009;
47.4000;1.0786;0.3033;
47.7000;1.0786;0.3009;
48.0000;1.0794;0.3056;
48.3000;1.0761;0.2914;
48.6000;1.0769;0.2796;
48.9000;1.0753;0.2748;
49.2000;1.0794;0.2843;
49.5000;1.0826;0.2819;
49.8000;1.0786;0.2701;
50.1000;1.0802;0.2701;
50.4000;1.0810;0.2701;
50.7000;1.0794;0.2606;
51.0000;1.0826;0.2583;
51.3000;1.0842;0.2654;
51.6000;1.0810;0.2606;
51.9000;1.0826;0.2677;
52.2000;1.0826;0.2654;
52.5000;1.0802;0.2583;
52.8000;1.0883;0.2677;
53.1000;1.0834;0.2488;
53.4000;1.0842;0.2559;
53.7000;1.0834;0.2511;
54.0000;1.0851;0.2583;
54.3000;1.0851;0.2654;
54.6000;1.0842;0.2630;
54.9000;1.0851;0.2654;
55.2000;1.0851;0.2583;
55.5000;1.0875;0.2559;
55.8000;1.0859;0.2583;
56.1000;1.0851;0.2511;
56.4000;1.0851;0.2511;
56.7000;1.0883;0.2630;
57.0000;1.0867;0.2654;
57.3000;1.0859;0.2630;
57.6000;1.0867;0.2630;
57.9000;1.0834;0.2559;
58.2000;1.0859;0.2559;
58.5000;1.0826;0.2346;
58.8000;1.0875;0.2488;
59.1000;1.0875;0.2464;
59.4000;1.0883;0.2488;
59.7000;1.0883;0.2488;
60.0000;1.0891;0.2464;
60.3000;1.0883;0.2464;
60.6000;1.0867;0.2417;
60.9000;1.0891;0.2464;
61.2000;1.0891;0.2488;
61.5000;1.0908;0.2488;
61.8000;1.0908;0.2511;
62.1000;1.0908;0.2606;
62.4000;1.0908;0.2583;
62.7000;1.0891;0.2630;
63.0000;1.0883;0.2606;
63.3000;1.0899;0.2559;
63.6000;1.0899;0.2488;
63.9000;1.0891;0.2511;
64.2000;1.0891;0.2511;
64.5000;1.0899;0.2583;
64.8000;1.0924;0.2583;
65.1000;1.0899;0.2535;
65.4000;1.0883;0.2583;
65.7000;1.0924;0.2725;
66.0000;1.0883;0.2630;
66.3000;1.0899;0.2701;
66.6000;1.0924;0.2701;
66.9000;1.0916;0.2606;
67.2000;1.0924;0.2606;
67.5000;1.0908;0.2511;
67.8000;1.0899;0.2440;
68.1000;1.0883;0.2369;
68.4000;1.0908;0.2346;
68.7000;1.0908;0.2369;
69.0000;1.0997;0.2559;
69.3000;1.0924;0.2511;
69.6000;1.0924;0.2535;
69.9000;1.0916;0.2630;
70.2000;1.0924;0.2630;
70.5000;1.0916;0.2511;
70.8000;1.0940;0.2535;
71.1000;1.0932;0.2559;
71.4000;1.0932;0.2464;
71.7000;1.0940;0.2464;
72.0000;1.0908;0.2369;
72.3000;1.0924;0.2369;
72.6000;1.0932;0.2322;
72.9000;1.0899;0.2227;
73.2000;1.0924;0.2275;
73.5000;1.0940;0.2275;
73.8000;1.0940;0.2322;
74.1000;1.0948;0.2298;
74.4000;1.0956;0.2298;
74.7000;1.0956;0.2251;
75.0000;1.0956;0.2251;
75.3000;1.0948;0.2346;
75.6000;1.0924;0.2393;
75.9000;1.0924;0.2417;
76.2000;1.0916;0.2464;
76.5000;1.0932;0.2488;
76.8000;1.0948;0.2440;
77.1000;1.0932;0.2369;
77.4000;1.0973;0.2417;
77.7000;1.0956;0.2393;
78.0000;1.0940;0.2417;
78.3000;1.0965;0.2440;
78.6000;1.0932;0.2417;
78.9000;1.0965;0.2417;
79.2000;1.0981;0.2417;
79.5000;1.0948;0.2275;
79.8000;1.0956;0.2369;
80.1000;1.0973;0.2369;
80.4000;1.0940;0.2322;
80.7000;1.0948;0.2322;
81.0000;1.0948;0.2322;
81.3000;1.0940;0.2275;
81.6000;1.0948;0.2251;
81.9000;1.0940;0.2156;
82.2000;1.0956;0.2132;
82.5000;1.0948;0.2109;
82.8000;1.0965;0.2085;
83.1000;1.0965;0.2061;
83.4000;1.0965;0.2038;
83.7000;1.0965;0.2061;
84.0000;1.0965;0.2061;
84.3000;1.0956;0.2061;
84.6000;1.0924;0.1919;
84.9000;1.1022;0.2109;
85.2000;1.0973;0.1990;
85.5000;1.0989;0.2156;
85.8000;1.0973;0.2132;
86.1000;1.0973;0.2109;
86.4000;1.0908;0.2014;
86.7000;1.0989;0.2180;
87.0000;1.0997;0.2322;
87.3000;1.0989;0.2298;
87.6000;1.0981;0.2275;
87.9000;1.0989;0.2251;
88.2000;1.0981;0.2180;
88.5000;1.1005;0.2251;
88.8000;1.0973;0.2156;
89.1000;1.0940;0.2132;
89.4000;1.0973;0.2227;
89.7000;1.0965;0.2227;
90.0000;1.0981;0.2203;
90.3000;1.0973;0.2156;
90.6000;1.0989;0.2132;
90.9000;1.1022;0.2132;
91.2000;1.0989;0.2085;
91.5000;1.1013;0.2085;
91.8000;1.1005;0.2109;
92.1000;1.1022;0.2180;
92.4000;1.0997;0.1990;
92.7000;1.0981;0.1943;
93.0000;1.0997;0.1967;
93.3000;1.1030;0.2109;
93.6000;1.0981;0.2014;
93.9000;1.1005;0.2038;
94.2000;1.1013;0.2014;
94.5000;1.0997;0.2014;
94.8000;1.0989;0.2014;
95.1000;1.0973;0.1895;
95.4000;1.0908;0.1730;
95.7000;1.0973;0.1872;
96.0000;1.1013;0.1967;
96.3000;1.0997;0.2014;
96.6000;1.1022;0.2132;
96.9000;1.1005;0.2061;
97.2000;1.1022;0.2132;
97.5000;1.1013;0.2156;
97.8000;1.1013;0.2061;
98.1000;1.1013;0.1990;
98.4000;1.1022;0.1943;
98.7000;1.1013;0.1967;
99.0000;1.1038;0.2038;
99.3000;1.1005;0.1848;
99.6000;1.1022;0.1824;
99.9000;1.1030;0.1943;
100.2000;1.1013;0.1895;
100.5000;1.1005;0.1872;
100.8000;1.1013;0.1919;
101.1000;1.1022;0.1872;
101.4000;1.1013;0.1895;
101.7000;1.1005;0.1895;
102.0000;1.1013;0.1848;
102.3000;1.1046;0.1777;
102.6000;1.1013;0.1564;
102.9000;1.1013;0.1564;
103.2000;1.1038;0.1730;
103.5000;1.1038;0.1848;
103.8000;1.1022;0.1848;
104.1000;1.1030;0.1777;
104.4000;1.1022;0.1777;
104.7000;1.1038;0.1872;
105.0000;1.1013;0.1895;
105.3000;1.1013;0.1943;
105.6000;1.0981;0.1895;
105.9000;1.1022;0.1990;
106.2000;1.1062;0.2038;
106.5000;1.1022;0.1895;
106.8000;1.0981;0.1895;
107.1000;1.1038;0.1872;
107.4000;1.1046;0.1919;
107.7000;1.1013;0.1777;
108.0000;1.1022;0.1872;
108.3000;1.1038;0.1895;
108.6000;1.0973;0.1801;
108.9000;1.1038;0.2014;
109.2000;1.1038;0.1919;
109.5000;1.1013;0.1919;
109.8000;1.1030;0.1990;
110.1000;1.1038;0.1990;
110.4000;1.1005;0.1919;
110.7000;1.1030;0.1919;
111.0000;1.1046;0.2014;
111.3000;1.1030;0.2038;
111.6000;1.1111;0.2227;
111.9000;1.1013;0.1990;
112.2000;1.1054;0.1943;
112.5000;1.1054;0.1801;
112.8000;1.1038;0.1801;
113.1000;1.1030;0.1777;
113.4000;1.1030;0.1777;
113.7000;1.1046;0.1824;
114.0000;1.0997;0.1706;
114.3000;1.1030;0.1730;
114.6000;1.1030;0.1730;
114.9000;1.1046;0.1777;
115.2000;1.1030;0.1801;
115.5000;1.1038;0.1777;
115.8000;1.1013;0.1824;
116.1000;1.1062;0.1990;
116.4000;1.1030;0.1967;
116.7000;1.1013;0.1919;
117.0000;1.1022;0.1824;
117.3000;1.1079;0.1895;
117.6000;1.1046;0.1730;
117.9000;1.1054;0.1659;
118.2000;1.1030;0.1587;
118.5000;1.1038;0.1706;
118.8000;1.1046;0.1777;
119.1000;1.1054;0.1706;
119.4000;1.1046;0.1635;
119.7000;1.1005;0.1516;
120.0000;1.1062;0.1706;
120.3000;1.1038;0.1635;
120.6000;1.1038;0.1611;
120.9000;1.1046;0.1587;
121.2000;1.1030;0.1540;
121.5000;1.1054;0.1587;
121.8000;1.1062;0.1587;
122.1000;1.1054;0.1493;
122.4000;1.1062;0.1516;
122.7000;1.1030;0.1611;
123.0000;1.1062;0.1706;
123.3000;1.1054;0.1753;
123.6000;1.1054;0.1706;
123.9000;1.1062;0.1730;
124.2000;1.1070;0.1801;
124.5000;1.1054;0.1943;
124.8000;1.1062;0.1919;
125.1000;1.1030;0.1824;
125.4000;1.1054;0.1801;
125.7000;1.1030;0.1777;
126.0000;1.1087;0.1895;
126.3000;1.1013;0.1682;
126.6000;1.1054;0.1730;
126.9000;1.1070;0.1611;
127.2000;1.1127;0.1801;
127.5000;1.1062;0.1564;
127.8000;1.1111;0.1635;
128.1000;1.1062;0.1564;
128.4000;1.1054;0.1564;
128.7000;1.1013;0.1445;
129.0000;1.1054;0.1540;
129.3000;1.1054;0.1493;
129.6000;1.1062;0.1587;
129.9000;1.1062;0.1635;
130.2000;1.1054;0.1611;
130.5000;1.1062;0.1611;
130.8000;1.1038;0.1493;
131.1000;1.1038;0.1564;
131.4000;1.1030;0.1540;
131.7000;1.1054;0.1516;
132.0000;1.1054;0.1564;
132.3000;1.1046;0.1516;
132.6000;1.1054;0.1540;
132.9000;1.1062;0.1659;
133.2000;1.1062;0.1682;
133.5000;1.1054;0.1635;
133.8000;1.1054;0.1659;
134.1000;1.1062;0.1635;
134.4000;1.1070;0.1706;
134.7000;1.1054;0.1587;
135.0000;1.1054;0.1540;
135.3000;1.1062;0.1659;
135.6000;1.1062;0.1659;
135.9000;1.1070;0.1635;
136.2000;1.1070;0.1611;
136.5000;1.1062;0.1540;
136.8000;1.1070;0.1493;
137.1000;1.1062;0.1445;
137.4000;1.1054;0.1374;
137.7000;1.1062;0.1398;
138.0000;1.1070;0.1374;
138.3000;1.1046;0.1374;
138.6000;1.1070;0.1540;
138.9000;1.1087;0.1540;
139.2000;1.1079;0.1611;
139.5000;1.1087;0.1635;
139.8000;1.1070;0.1540;
140.1000;1.1070;0.1540;
140.4000;1.1087;0.1564;
140.7000;1.1079;0.1516;
141.0000;1.1119;0.1682;
141.3000;1.1087;0.1540;
141.6000;1.1070;0.1469;
141.9000;1.1079;0.1516;
142.2000;1.1054;0.1469;
142.5000;1.1038;0.1422;
142.8000;1.1054;0.1469;
143.1000;1.1087;0.1516;
143.4000;1.1168;0.1801;
143.7000;1.1079;0.1493;
144.0000;1.1070;0.1445;
144.3000;1.1079;0.1422;
144.6000;1.1087;0.1493;
144.9000;1.1030;0.1374;
145.2000;1.1095;0.1493;
145.5000;1.1070;0.1493;
145.8000;1.1079;0.1516;
146.1000;1.1079;0.1564;
146.4000;1.1079;0.1516;
146.7000;1.1079;0.1516;
147.0000;1.1079;0.1422;
147.3000;1.1103;0.1398;
147.6000;1.1054;0.1279;
147.9000;1.1062;0.1303;
148.2000;1.1127;0.1327;
148.5000;1.1046;0.1232;
148.8000;1.1070;0.1351;
149.1000;1.1030;0.1303;
149.4000;1.1013;0.1327;
149.7000;1.1079;0.1398;
150.0000;1.1079;0.1398;
150.3000;1.1087;0.1445;
150.6000;1.1152;0.1611;
150.9000;1.1054;0.1398;
151.2000;1.1087;0.1422;
151.5000;1.1087;0.1398;
151.8000;1.1087;0.1374;
152.1000;1.1079;0.1422;
152.4000;1.1079;0.1374;
152.7000;1.1062;0.1256;
153.0000;1.1005;0.1066;
153.3000;1.1054;0.1208;
153.6000;1.1038;0.1208;
153.9000;1.1070;0.1327;
154.2000;1.1070;0.1279;
154.5000;1.1070;0.1232;
154.8000;1.1062;0.1185;
155.1000;1.1087;0.1279;
155.4000;1.1062;0.1303;
155.7000;1.1062;0.1327;
156.0000;1.1038;0.1303;
156.3000;1.1087;0.1398;
156.6000;1.1103;0.1398;
156.9000;1.1062;0.1351;
157.2000;1.1062;0.1422;
157.5000;1.1079;0.1516;
157.8000;1.1070;0.1516;
158.1000;1.1062;0.1540;
158.4000;1.1079;0.1516;
158.7000;1.1095;0.1469;
159.0000;1.1087;0.1422;
159.3000;1.1087;0.1351;
159.6000;1.1079;0.1279;
159.9000;1.1087;0.1303;
160.2000;1.1136;0.1445;
160.5000;1.1087;0.1327;
160.8000;1.1087;0.1303;
161.1000;1.1079;0.1327;
161.4000;1.1070;0.1303;
161.7000;1.1079;0.1327;
162.0000;1.1046;0.1232;
162.3000;1.1070;0.1303;
162.6000;1.1079;0.1279;
162.9000;1.1079;0.1232;
163.2000;1.1079;0.1208;
163.5000;1.1079;0.1303;
163.8000;1.1046;0.1208;
164.1000;1.1070;0.1256;
164.4000;1.1087;0.1279;
164.7000;1.1005;0.1185;
165.0000;1.1087;0.1351;
165.3000;1.0989;0.1042;
165.6000;1.1079;0.1256;
165.9000;1.1079;0.1185;
166.2000;1.1079;0.1161;
166.5000;1.1087;0.1090;
166.8000;1.1046;0.1042;
167.1000;1.1079;0.1114;
167.4000;1.1103;0.1090;
167.7000;1.1095;0.1042;
168.0000;1.1095;0.1019;
168.3000;1.1079;0.1019;
168.6000;1.1095;0.1090;
168.9000;1.1103;0.1137;
169.2000;1.1103;0.1208;
169.5000;1.1087;0.1256;
169.8000;1.1087;0.1303;
170.1000;1.1070;0.1256;
170.4000;1.1095;0.1279;
170.7000;1.1111;0.1351;
171.0000;1.1095;0.1279;
171.3000;1.1087;0.1208;
171.6000;1.1119;0.1327;
171.9000;1.1070;0.1232;
172.2000;1.1087;0.1185;
172.5000;1.1005;0.1019;
172.8000;1.1103;0.1232;
173.1000;1.1095;0.1161;
173.4000;1.1144;0.1303;
173.7000;1.1095;0.1279;
174.0000;1.1095;0.1256;
174.3000;1.1087;0.1161;
174.6000;1.1119;0.1185;
174.9000;1.1119;0.1279;
175.2000;1.1079;0.1137;
175.5000;1.1103;0.1232;
175.8000;1.1111;0.1279;
176.1000;1.1087;0.1327;
176.4000;1.1111;0.1303;
176.7000;1.1103;0.1351;
177.0000;1.1152;0.1469;
177.3000;1.1103;0.1398;
177.6000;1.1079;0.1327;
177.9000;1.1087;0.1327;
178.2000;1.1070;0.1374;
178.5000;1.1079;0.1327;
178.8000;1.1095;0.1351;
179.1000;1.1095;0.1398;
179.4000;1.1136;0.1540;
179.7000;1.1070;0.1422;
180.0000;1.1079;0.1327;
180.3000;1.1103;0.1327;
180.6000;1.1079;0.1232;
180.9000;1.1087;0.1161;
181.2000;1.1087;0.1114;
181.5000;1.1087;0.1114;
181.8000;1.1103;0.1137;
182.1000;1.1127;0.1137;
182.4000;1.1079;0.0971;
182.7000;1.1103;0.1019;
183.0000;1.1087;0.0971;
183.3000;1.1087;0.1114;
183.6000;1.1079;0.1185;
183.9000;1.1087;0.1185;
184.2000;1.1087;0.1208;
184.5000;1.1079;0.1185;
184.8000;1.1127;0.1327;
185.1000;1.1095;0.1256;
185.4000;1.1079;0.1208;
185.7000;1.1087;0.1279;
186.0000;1.1095;0.1303;
186.3000;1.1087;0.1232;
186.6000;1.1087;0.1256;
186.9000;1.1095;0.1208;
187.2000;1.1127;0.1232;
187.5000;1.1103;0.1185;
187.8000;1.1030;0.0995;
188.1000;1.1103;0.1114;
188.4000;1.1095;0.1019;
188.7000;1.1062;0.0900;
189.0000;1.1144;0.1114;
189.3000;1.1103;0.0995;
189.6000;1.1127;0.1090;
189.9000;1.1030;0.0971;
190.2000;1.1079;0.1090;
190.5000;1.1079;0.1066;
190.8000;1.1070;0.1042;
191.1000;1.1095;0.1114;
191.4000;1.1070;0.1114;
191.7000;1.1087;0.1137;
192.0000;1.1095;0.1232;
192.3000;1.1103;0.1161;
192.6000;1.1111;0.1185;
192.9000;1.1087;0.1137;
193.2000;1.1111;0.1256;
193.5000;1.1103;0.1327;
193.8000;1.1095;0.1303;
194.1000;1.1103;0.1327;
194.4000;1.1103;0.1303;
194.7000;1.1087;0.1161;
195.0000;1.1095;0.1232;
195.3000;1.1095;0.1279;
195.6000;1.1103;0.1303;
195.9000;1.1103;0.1303;
196.2000;1.1079;0.1303;
196.5000;1.1136;0.1469;
196.8000;1.1095;0.1327;
197.1000;1.1087;0.1327;
197.4000;1.1095;0.1185;
197.7000;1.1087;0.1185;
198.0000;1.1095;0.1185;
198.3000;1.1046;0.0948;
198.6000;1.1119;0.1090;
198.9000;1.1095;0.0971;
199.2000;1.1087;0.0877;
199.5000;1.1103;0.0900;
199.8000;1.1103;0.0995;
200.1000;1.1095;0.0995;
200.4000;1.1087;0.0971;
200.7000;1.1087;0.1042;
201.0000;1.1095;0.1114;
201.3000;1.1087;0.1161;
201.6000;1.1070;0.1185;
201.9000;1.1087;0.1208;
202.2000;1.1087;0.1090;
202.5000;1.1087;0.1090;
202.8000;1.1087;0.1019;
203.1000;1.1087;0.1019;
203.4000;1.1119;0.1066;
203.7000;1.1111;0.1090;
204.0000;1.1103;0.1090;
204.3000;1.1087;0.1114;
204.6000;1.1087;0.1137;
204.9000;1.1111;0.1137;
205.2000;1.1095;0.1114;
205.5000;1.1087;0.1042;
205.8000;1.1103;0.1019;
206.1000;1.1119;0.1114;
206.4000;1.1095;0.0995;
206.7000;1.1087;0.0900;
207.0000;1.1070;0.0900;
207.3000;1.1103;0.0924;
207.6000;1.1095;0.0995;
207.9000;1.1103;0.0995;
208.2000;1.1119;0.1090;
208.5000;1.1111;0.0995;
208.8000;1.1079;0.0948;
209.1000;1.1095;0.0995;
209.4000;1.1079;0.0995;
209.7000;1.1103;0.0995;
210.0000;1.1111;0.1019;
210.3000;1.1103;0.0995;
210.6000;1.1087;0.0948;
210.9000;1.1119;0.0995;
211.2000;1.1127;0.0948;
211.5000;1.1103;0.0853;
211.8000;1.1070;0.0806;
212.1000;1.1111;0.0971;
212.4000;1.1111;0.0971;
212.7000;1.1103;0.0971;
213.0000;1.1095;0.1042;
213.3000;1.1168;0.1208;
213.6000;1.1111;0.1042;
213.9000;1.1176;0.1185;
214.2000;1.1087;0.0900;
214.5000;1.1095;0.0853;
214.8000;1.1111;0.0900;
215.1000;1.1111;0.0995;
215.4000;1.1111;0.1042;
215.7000;1.1103;0.1066;
216.0000;1.1103;0.0995;
216.3000;1.1152;0.1042;
216.6000;1.1127;0.1019;
216.9000;1.1111;0.0971;
217.2000;1.1087;0.0948;
217.5000;1.1046;0.0853;
217.8000;1.1111;0.0948;
218.1000;1.1054;0.0900;
218.4000;1.1087;0.1042;
218.7000;1.1111;0.1090;
219.0000;1.1127;0.1137;
219.3000;1.1111;0.1066;
219.6000;1.1103;0.1137;
219.9000;1.1119;0.1185;
220.2000;1.1127;0.1232;
220.5000;1.1087;0.1208;
220.8000;1.1103;0.1114;
221.1000;1.1070;0.1042;
221.4000;1.1087;0.1090;
221.7000;1.1095;0.1185;
222.0000;1.1095;0.1137;
222.3000;1.1038;0.0924;
222.6000;1.1087;0.1019;
222.9000;1.1111;0.1019;
223.2000;1.1111;0.0971;
223.5000;1.1119;0.0995;
223.8000;1.1119;0.1042;
224.1000;1.1111;0.1066;
224.4000;1.1095;0.0971;
224.7000;1.1095;0.0995;
225.0000;1.1152;0.1090;
225.3000;1.1136;0.1090;
225.6000;1.1111;0.1019;
225.9000;1.1103;0.1019;
226.2000;1.1103;0.1042;
226.5000;1.1095;0.1090;
226.8000;1.1111;0.1185;
227.1000;1.1103;0.1114;
227.4000;1.1095;0.1137;
227.7000;1.1103;0.1208;
228.0000;1.1152;0.1279;
228.3000;1.1111;0.1185;
228.6000;1.1103;0.1137;
228.9000;1.1111;0.1090;
229.2000;1.1038;0.0948;
229.5000;1.1119;0.1137;
229.8000;1.1111;0.1042;
230.1000;1.1103;0.1042;
230.4000;1.1095;0.1042;
230.7000;1.1111;0.1019;
231.0000;1.1111;0.1042;
231.3000;1.1087;0.1019;
231.6000;1.1111;0.1114;
231.9000;1.1087;0.1042;
232.2000;1.1103;0.1114;
232.5000;1.1087;0.1161;
232.8000;1.1103;0.1137;
233.1000;1.1095;0.1019;
233.4000;1.1119;0.1066;
233.7000;1.1095;0.1019;
234.0000;1.1095;0.1042;
234.3000;1.1119;0.1042;
234.6000;1.1111;0.0900;
234.9000;1.1079;0.0924;
235.2000;1.1127;0.1066;
235.5000;1.1111;0.0924;
235.8000;1.1103;0.0971;
236.1000;1.1127;0.0948;
236.4000;1.1103;0.0948;
236.7000;1.1054;0.0853;
237.0000;1.1119;0.1019;
237.3000;1.1095;0.0971;
237.6000;1.1087;0.1042;
237.9000;1.1111;0.1066;
238.2000;1.1168;0.1185;
238.5000;1.1103;0.1019;
238.8000;1.1103;0.0971;
239.1000;1.1111;0.0948;
239.4000;1.1119;0.0971;
239.7000;1.1127;0.0948;
240.0000;1.1070;0.0853;
240.3000;1.1119;0.0995;
240.6000;1.1127;0.0971;
240.9000;1.1119;0.0948;
241.2000;1.1103;0.0995;
241.5000;1.1160;0.1042;
241.8000;1.1103;0.0853;
242.1000;1.1119;0.0806;
242.4000;1.1136;0.0734;
242.7000;1.1119;0.0687;
243.0000;1.1119;0.0734;
243.3000;1.1079;0.0782;
243.6000;1.1119;0.0900;
243.9000;1.1103;0.0877;
244.2000;1.1095;0.0948;
244.5000;1.1095;0.0995;
244.8000;1.1103;0.0900;
245.1000;1.1119;0.0924;
245.4000;1.1103;0.0948;
245.7000;1.1095;0.0877;
246.0000;1.1103;0.0924;
246.3000;1.1103;0.0971;
246.6000;1.1087;0.0971;
246.9000;1.1103;0.1066;
247.2000;1.1079;0.1042;
247.5000;1.1095;0.1114;
247.8000;1.1095;0.1090;
248.1000;1.1095;0.1019;
248.4000;1.1111;0.1042;
248.7000;1.1095;0.0995;
249.0000;1.1111;0.0995;
249.3000;1.1103;0.0948;
249.6000;1.1103;0.0995;
249.9000;1.1119;0.1019;
250.2000;1.1095;0.1042;
250.5000;1.1103;0.1019;
250.8000;1.1111;0.0995;
251.1000;1.1111;0.0971;
251.4000;1.1111;0.0924;
251.7000;1.1119;0.0900;
252.0000;1.1103;0.0877;
252.3000;1.1095;0.0948;
252.6000;1.1103;0.0995;
252.9000;1.1103;0.0948;
253.2000;1.1127;0.1019;
253.5000;1.1119;0.0948;
253.8000;1.1119;0.0971;
254.1000;1.1111;0.0924;
254.4000;1.1103;0.1019;
254.7000;1.1111;0.1114;
255.0000;1.1103;0.1114;
255.3000;1.1127;0.1137;
255.6000;1.1103;0.0995;
255.9000;1.1136;0.1161;
256.2000;1.1119;0.1066;
256.5000;1.1127;0.1042;
256.8000;1.1136;0.1114;
257.1000;1.1095;0.1019;
257.4000;1.1152;0.1137;
257.7000;1.1103;0.0995;
258.0000;1.1103;0.0971;
258.3000;1.1144;0.1090;
258.6000;1.1103;0.1019;
258.9000;1.1087;0.1066;
259.2000;1.1111;0.1042;
259.5000;1.1103;0.1019;
259.8000;1.1111;0.0971;
260.1000;1.1111;0.0971;
260.4000;1.1087;0.0948;
260.7000;1.1095;0.1019;
261.0000;1.1111;0.1066;
261.3000;1.1127;0.1042;
261.6000;1.1119;0.0995;
261.9000;1.1119;0.1066;
262.2000;1.1103;0.1066;
262.5000;1.1111;0.1114;
262.8000;1.1103;0.1114;
263.1000;1.1111;0.1114;
263.4000;1.1119;0.1066;
263.7000;1.1103;0.1066;
264.0000;1.1127;0.1137;
264.3000;1.1119;0.1256;
264.6000;1.1127;0.1232;
264.9000;1.1079;0.1042;
265.2000;1.1119;0.1208;
265.5000;1.1127;0.1256;
265.8000;1.1119;0.1256;
266.1000;1.1111;0.1279;
266.4000;1.1119;0.1327;
266.7000;1.1103;0.1232;
267.0000;1.1103;0.1208;
267.3000;1.1103;0.1185;
267.6000;1.1136;0.1256;
267.9000;1.1103;0.1090;
268.2000;1.1111;0.1042;
268.5000;1.1103;0.0995;
268.8000;1.1119;0.1066;
269.1000;1.1103;0.1066;
269.4000;1.1111;0.1090;
269.7000;1.1103;0.0971;
270.0000;1.1103;0.1042;
270.3000;1.1111;0.1042;
270.6000;1.1103;0.1019;
270.9000;1.1095;0.1019;
271.2000;1.1111;0.1114;
271.5000;1.1127;0.1114;
271.8000;1.1111;0.1090;
272.1000;1.1103;0.1208;
272.4000;1.1095;0.1161;
272.7000;1.1119;0.1256;
273.0000;1.1119;0.1279;
273.3000;1.1111;0.1161;
273.6000;1.1119;0.1232;
273.9000;1.1136;0.1256;
274.2000;1.1103;0.1161;
274.5000;1.1095;0.1090;
274.8000;1.1119;0.1066;
275.1000;1.1111;0.0995;
275.4000;1.1119;0.0971;
275.7000;1.1127;0.0995;
276.0000;1.1095;0.0995;
276.3000;1.1095;0.1019;
276.6000;1.1103;0.1019;
276.9000;1.1111;0.1042;
277.2000;1.1079;0.0853;
277.5000;1.1111;0.0924;
277.8000;1.1103;0.0948;
278.1000;1.1103;0.0971;
278.4000;1.1103;0.1019;
278.7000;1.1103;0.1066;
279.0000;1.1111;0.1114;
279.3000;1.1119;0.1114;
279.6000;1.1119;0.1090;
279.9000;1.1111;0.1090;
280.2000;1.1070;0.0948;
280.5000;1.1095;0.1114;
280.8000;1.1103;0.1090;
281.1000;1.1087;0.0971;
281.4000;1.1119;0.1066;
281.7000;1.1111;0.1090;
282.0000;1.1119;0.1114;
282.3000;1.1111;0.1090;
282.6000;1.1111;0.1137;
282.9000;1.1111;0.1137;
283.2000;1.1095;0.1114;
283.5000;1.1095;0.1161;
283.8000;1.1111;0.1303;
284.1000;1.1111;0.1279;
284.4000;1.1119;0.1232;
284.7000;1.1127;0.1232;
285.0000;1.1111;0.1137;
285.3000;1.1136;0.1185;
285.6000;1.1119;0.1161;
285.9000;1.1119;0.1114;
286.2000;1.1111;0.1066;
286.5000;1.1103;0.1114;
286.8000;1.1111;0.1090;
287.1000;1.1111;0.1137;
287.4000;1.1103;0.1090;
287.7000;1.1111;0.1019;
288.0000;1.1119;0.1042;
288.3000;1.1152;0.1232;
288.6000;1.1136;0.1161;
288.9000;1.1119;0.1137;
289.2000;1.1119;0.1090;
289.5000;1.1127;0.1137;
289.8000;1.1127;0.1137;
290.1000;1.1119;0.1137;
290.4000;1.1111;0.1042;
290.7000;1.1119;0.0948;
291.0000;1.1103;0.0971;
291.3000;1.1119;0.1042;
291.6000;1.1103;0.1114;
291.9000;1.1103;0.1137;
292.2000;1.1103;0.1185;
292.5000;1.1103;0.1208;
292.8000;1.1095;0.1327;
293.1000;1.1095;0.1279;
293.4000;1.1119;0.1232;
293.7000;1.1103;0.1161;
294.0000;1.1111;0.1090;
294.3000;1.1136;0.1066;
294.6000;1.1111;0.0948;
294.9000;1.1127;0.0971;
295.2000;1.1103;0.0971;
295.5000;1.1062;0.0924;
295.8000;1.1111;0.1042;
296.1000;1.1119;0.0995;
296.4000;1.1070;0.0924;
296.7000;1.1095;0.1019;
297.0000;1.1111;0.1042;
297.3000;1.1119;0.1232;
297.6000;1.1119;0.1066;
297.9000;1.1127;0.0971;
298.2000;1.1111;0.0971;
298.5000;1.1119;0.1019;
298.8000;1.1111;0.0900;
299.1000;1.1111;0.0924;
299.4000;1.1103;0.1019;
299.7000;1.1103;0.0971;
300.0000;1.1111;0.0971;
300.3000;1.1111;0.0948;
300.6000;1.1111;0.0971;
300.9000;1.1111;0.1042;
301.2000;1.1144;0.1066;
301.5000;1.1103;0.0971;
301.8000;1.1119;0.0971;
302.1000;1.1095;0.0948;
302.4000;1.1103;0.1042;
302.7000;1.1119;0.1042;
303.0000;1.1095;0.0971;
303.3000;1.1103;0.0971;
303.6000;1.1119;0.1066;
303.9000;1.1111;0.1090;
304.2000;1.1119;0.1137;
304.5000;1.1103;0.1208;
304.8000;1.1127;0.1185;
305.1000;1.1070;0.1042;
305.4000;1.1111;0.1137;
305.7000;1.1111;0.1161;
306.0000;1.1111;0.1114;
306.3000;1.1119;0.1114;
306.6000;1.1111;0.1066;
306.9000;1.1103;0.1019;
307.2000;1.1152;0.1090;
307.5000;1.1103;0.1019;
307.8000;1.1127;0.1066;
308.1000;1.1127;0.1090;
308.4000;1.1103;0.1137;
308.7000;1.1111;0.1137;
309.0000;1.1127;0.1114;
309.3000;1.1119;0.1090;
309.6000;1.1103;0.1042;
309.9000;1.1136;0.1161;
310.2000;1.1127;0.1161;
310.5000;1.1111;0.1019;
310.8000;1.1119;0.1019;
311.1000;1.1111;0.1042;
311.4000;1.1119;0.0995;
311.7000;1.1111;0.1019;
312.0000;1.1119;0.0995;
312.3000;1.1111;0.0995;
312.6000;1.1127;0.1161;
312.9000;1.1136;0.1232;
313.2000;1.1144;0.1208;
313.5000;1.1062;0.0948;
313.8000;1.1111;0.1114;
314.1000;1.1136;0.1208;
314.4000;1.1111;0.1279;
314.7000;1.1111;0.1208;
315.0000;1.1111;0.1161;
315.3000;1.1119;0.1208;
315.6000;1.1119;0.1066;
315.9000;1.1103;0.1185;
316.2000;1.1103;0.1114;
316.5000;1.1127;0.1185;
316.8000;1.1111;0.1137;
317.1000;1.1095;0.1066;
317.4000;1.1111;0.1137;
317.7000;1.1119;0.1161;
318.0000;1.1152;0.1279;
318.3000;1.1095;0.1161;
318.6000;1.1119;0.1208;
318.9000;1.1111;0.1185;
319.2000;1.1144;0.1208;
319.5000;1.1111;0.1137;
319.8000;1.1111;0.1090;
320.1000;1.1127;0.1137;
320.4000;1.1111;0.1137;
320.7000;1.1119;0.1114;
321.0000;1.1070;0.1042;
321.3000;1.1103;0.1161;
321.6000;1.1111;0.1137;
321.9000;1.1119;0.1161;
322.2000;1.1111;0.1161;
322.5000;1.1054;0.1019;
322.8000;1.1095;0.1019;
323.1000;1.1127;0.1114;
323.4000;1.1111;0.1042;
323.7000;1.1111;0.1019;
324.0000;1.1119;0.1090;
324.3000;1.1136;0.1185;
324.6000;1.1111;0.1137;
324.9000;1.1079;0.1019;
325.2000;1.1119;0.1090;
325.5000;1.1136;0.1137;
325.8000;1.1111;0.1090;
326.1000;1.1079;0.1090;
326.4000;1.1062;0.0995;
326.7000;1.1103;0.1090;
327.0000;1.1103;0.1090;
327.3000;1.1095;0.0971;
327.6000;1.1119;0.0995;
327.9000;1.1087;0.0948;
328.2000;1.1160;0.1042;
328.5000;1.1119;0.1019;
328.8000;1.1103;0.0948;
329.1000;1.1111;0.0995;
329.4000;1.1087;0.0900;
329.7000;1.1119;0.0948;
330.0000;1.1103;0.0853;
330.3000;1.1127;0.0948;
330.6000;1.1119;0.0924;
330.9000;1.1127;0.0948;
331.2000;1.1111;0.1019;
331.5000;1.1127;0.1066;
331.8000;1.1119;0.1114;
332.1000;1.1111;0.1019;
332.4000;1.1127;0.1019;
332.7000;1.1127;0.0995;
333.0000;1.1127;0.0971;
333.3000;1.1152;0.1090;
333.6000;1.1103;0.0995;
333.9000;1.1119;0.1137;
334.2000;1.1119;0.1114;
334.5000;1.1111;0.1137;
334.8000;1.1119;0.1137;
335.1000;1.1103;0.1114;
335.4000;1.1103;0.1161;
335.7000;1.1119;0.1208;
336.0000;1.1111;0.1208;
336.3000;1.1103;0.1279;
336.6000;1.1103;0.1256;
336.9000;1.1111;0.1232;
337.2000;1.1111;0.1232;
337.5000;1.1119;0.1303;
337.8000;1.1127;0.1279;
338.1000;1.1095;0.1279;
338.4000;1.1119;0.1303;
338.7000;1.1095;0.1232;
339.0000;1.1119;0.1161;
339.3000;1.1111;0.1137;
339.6000;1.1119;0.1208;
339.9000;1.1119;0.1114;
340.2000;1.1127;0.1114;
340.5000;1.1111;0.1114;
340.8000;1.1103;0.1232;
341.1000;1.1119;0.1232;
341.4000;1.1079;0.1185;
341.7000;1.1087;0.1208;
342.0000;1.1095;0.1208;
342.3000;1.1111;0.1303;
342.6000;1.1111;0.1398;
342.9000;1.1079;0.1327;
343.2000;1.1079;0.1422;
343.5000;1.1103;0.1445;
343.8000;1.1103;0.1469;
344.1000;1.1095;0.1469;
344.4000;1.1095;0.1422;
344.7000;1.1119;0.1398;
345.0000;1.1152;0.1374;
345.3000;1.1111;0.1351;
345.6000;1.1168;0.1422;
345.9000;1.1119;0.1374;
346.2000;1.1079;0.1303;
346.5000;1.1119;0.1422;
346.8000;1.1103;0.1469;
347.1000;1.1111;0.1516;
347.4000;1.1095;0.1469;
347.7000;1.1111;0.1564;
348.0000;1.1095;0.1469;
348.3000;1.1103;0.1445;
348.6000;1.1095;0.1469;
348.9000;1.1095;0.1445;
349.2000;1.1103;0.1398;
349.5000;1.1103;0.1351;
349.8000;1.1111;0.1232;
350.1000;1.1046;0.1114;
350.4000;1.1103;0.1327;
350.7000;1.1095;0.1327;
351.0000;1.1119;0.1351;
351.3000;1.1127;0.1422;
351.6000;1.1103;0.1351;
351.9000;1.1111;0.1327;
352.2000;1.1054;0.1185;
352.5000;1.1103;0.1232;
352.8000;1.1103;0.1208;
353.1000;1.1103;0.1232;
353.4000;1.1103;0.1208;
353.7000;1.1111;0.1185;
354.0000;1.1119;0.1161;
354.3000;1.1095;0.1185;
354.6000;1.1103;0.1137;
354.9000;1.1111;0.1161;
355.2000;1.1127;0.1185;
355.5000;1.1119;0.1161;
355.8000;1.1119;0.1256;
356.1000;1.1127;0.1279;
356.4000;1.1127;0.1327;
356.7000;1.1103;0.1374;
357.0000;1.1095;0.1256;
357.3000;1.1119;0.1208;
357.6000;1.1111;0.1185;
357.9000;1.1119;0.1256;
358.2000;1.1095;0.1161;
358.5000;1.1136;0.1137;
358.8000;1.1111;0.1090;
359.1000;1.1087;0.1137;
359.4000;1.1136;0.1185;
359.7000;1.1095;0.1114;
360.0000;1.1095;0.1208;
360.3000;1.1111;0.1208;
360.6000;1.1136;0.1232;
360.9000;1.1119;0.1208;
361.2000;1.1111;0.1232;
361.5000;1.1168;0.1398;
361.8000;1.1111;0.1327;
362.1000;1.1111;0.1279;
362.4000;1.1127;0.1232;
362.7000;1.1054;0.1137;
363.0000;1.1111;0.1327;
363.3000;1.1111;0.1279;
363.6000;1.1079;0.1161;
363.9000;1.1095;0.1208;
364.2000;1.1136;0.1422;
364.5000;1.1127;0.1398;
364.8000;1.1136;0.1398;
365.1000;1.1111;0.1374;
365.4000;1.1119;0.1422;
365.7000;1.1127;0.1303;
366.0000;1.1127;0.1232;
366.3000;1.1111;0.1185;
366.6000;1.1127;0.1161;
366.9000;1.1103;0.1161;
367.2000;1.1111;0.1161;
367.5000;1.1111;0.1208;
367.8000;1.1127;0.1256;
368.1000;1.1103;0.1208;
368.4000;1.1103;0.1374;
368.7000;1.1087;0.1279;
369.0000;1.1103;0.1303;
369.3000;1.1119;0.1422;
369.6000;1.1119;0.1422;
369.9000;1.1136;0.1516;
370.2000;1.1111;0.1422;
370.5000;1.1119;0.1445;
370.8000;1.1111;0.1445;
371.1000;1.1152;0.1540;
371.4000;1.1111;0.1493;
371.7000;1.1103;0.1398;
372.0000;1.1136;0.1398;
372.3000;1.1087;0.1327;
372.6000;1.1111;0.1398;
372.9000;1.1119;0.1398;
373.2000;1.1079;0.1398;
373.5000;1.1111;0.1540;
373.8000;1.1087;0.1422;
374.1000;1.1119;0.1398;
374.4000;1.1095;0.1398;
374.7000;1.1103;0.1398;
375.0000;1.1119;0.1422;
375.3000;1.1103;0.1398;
375.6000;1.1119;0.1374;
375.9000;1.1095;0.1256;
376.2000;1.1111;0.1185;
376.5000;1.1119;0.1256;
376.8000;1.1136;0.1327;
377.1000;1.1111;0.1161;
377.4000;1.1095;0.1137;
377.7000;1.1103;0.1185;
378.0000;1.1225;0.1493;
378.3000;1.1070;0.1090;
378.6000;1.1095;0.1161;
378.9000;1.1095;0.1185;
379.2000;1.1111;0.1327;
379.5000;1.1095;0.1303;
379.8000;1.1193;0.1516;
380.1000;1.1103;0.1256;
380.4000;1.1111;0.1279;
380.7000;1.1111;0.1303;
381.0000;1.1119;0.1351;
381.3000;1.1103;0.1279;
381.6000;1.1119;0.1232;
381.9000;1.1127;0.1256;
382.2000;1.1127;0.1303;
382.5000;1.1103;0.1137;
382.8000;1.1136;0.1303;
383.1000;1.1119;0.1208;
383.4000;1.1119;0.1232;
383.7000;1.1119;0.1256;
384.0000;1.1111;0.1256;
384.3000;1.1103;0.1256;
384.6000;1.1160;0.1232;
384.9000;1.1103;0.0971;
385.2000;1.1127;0.0924;
385.5000;1.1176;0.1066;
385.8000;1.1070;0.0782;
386.1000;1.1111;0.0971;
386.4000;1.1152;0.1090;
386.7000;1.1103;0.0995;
387.0000;1.1119;0.1090;
387.3000;1.1111;0.1019;
387.6000;1.1103;0.1019;
387.9000;1.1103;0.1066;
388.2000;1.1103;0.0995;
388.5000;1.1127;0.0995;
388.8000;1.1119;0.1066;
389.1000;1.1127;0.1137;
389.4000;1.1119;0.1161;
389.7000;1.1160;0.1185;
390.0000;1.1136;0.1137;
390.3000;1.1087;0.1042;
390.6000;1.1095;0.1066;
390.9000;1.1095;0.1114;
391.2000;1.1119;0.1208;
391.5000;1.1030;0.1019;
391.8000;1.1103;0.1114;
392.1000;1.1127;0.1137;
392.4000;1.1209;0.1256;
392.7000;1.1119;0.1090;
393.0000;1.1087;0.1042;
393.3000;1.1127;0.1208;
393.6000;1.1079;0.1066;
393.9000;1.1111;0.1185;
394.2000;1.1144;0.1208;
394.5000;1.1103;0.1185;
394.8000;1.1111;0.1185;
395.1000;1.1111;0.1208;
395.4000;1.1111;0.1232;
395.7000;1.1095;0.1279;
396.0000;1.1111;0.1398;
396.3000;1.1062;0.1279;
396.6000;1.1087;0.1256;
396.9000;1.1111;0.1351;
397.2000;1.1095;0.1327;
397.5000;1.1119;0.1256;
397.8000;1.1087;0.1208;
398.1000;1.1111;0.1351;
398.4000;1.1103;0.1327;
398.7000;1.1119;0.1327;
399.0000;1.1103;0.1232;
399.3000;1.1119;0.1185;
399.6000;1.1095;0.1042;
399.9000;1.1136;0.1090;
400.2000;1.1054;0.0995;
400.5000;1.1103;0.1137;
400.8000;1.1103;0.1208;
401.1000;1.1111;0.1208;
401.4000;1.1111;0.1185;
401.7000;1.1119;0.1232;
402.0000;1.1111;0.1185;
402.3000;1.1103;0.1208;
402.6000;1.1095;0.1279;
402.9000;1.1095;0.1208;
403.2000;1.1095;0.1185;
403.5000;1.1103;0.1137;
403.8000;1.1087;0.1066;
404.1000;1.1095;0.1042;
404.4000;1.1111;0.1042;
404.7000;1.1111;0.1090;
405.0000;1.1103;0.1137;
405.3000;1.1119;0.1090;
405.6000;1.1119;0.0971;
405.9000;1.1103;0.0995;
406.2000;1.1111;0.0971;
406.5000;1.1127;0.0995;
406.8000;1.1111;0.0995;
407.1000;1.1111;0.0971;
407.4000;1.1095;0.0971;
407.7000;1.1095;0.1066;
408.0000;1.1095;0.1090;
408.3000;1.1103;0.1090;
408.6000;1.1103;0.1161;
408.9000;1.1111;0.1066;
409.2000;1.1103;0.1114;
409.5000;1.1095;0.1114;
409.8000;1.1087;0.1137;
410.1000;1.1095;0.1161;
410.4000;1.1030;0.1042;
410.7000;1.1095;0.1303;
411.0000;1.1111;0.1232;
411.3000;1.1095;0.1161;
411.6000;1.1062;0.0995;
411.9000;1.1095;0.1137;
412.2000;1.1103;0.1185;
412.5000;1.1111;0.1279;
412.8000;1.1119;0.1232;
413.1000;1.1119;0.1232;
413.4000;1.1070;0.1137;
413.7000;1.1119;0.1303;
414.0000;1.1111;0.1327;
414.3000;1.1127;0.1279;
414.6000;1.1103;0.1208;
414.9000;1.1079;0.1185;
415.2000;1.1079;0.1351;
415.5000;1.1087;0.1398;
415.8000;1.1127;0.1422;
416.1000;1.1087;0.1303;
416.4000;1.1127;0.1232;
416.7000;1.1111;0.1185;
417.0000;1.1111;0.1137;
417.3000;1.1103;0.1090;
417.6000;1.1111;0.1090;
417.9000;1.1111;0.1185;
418.2000;1.1095;0.1185;
418.5000;1.1119;0.1256;
418.8000;1.1103;0.1256;
419.1000;1.1103;0.1208;
419.4000;1.1119;0.1161;
419.7000;1.1054;0.1019;
420.0000;1.1111;0.1185;
420.3000;1.1144;0.1279;
420.6000;1.1111;0.1208;
420.9000;1.1119;0.1256;
421.2000;1.1095;0.1208;
421.5000;1.1087;0.1327;
421.8000;1.1095;0.1327;
422.1000;1.1095;0.1398;
422.4000;1.1103;0.1398;
422.7000;1.1103;0.1374;
423.0000;1.1160;0.1469;
423.3000;1.1111;0.1303;
423.6000;1.1111;0.1398;
423.9000;1.1111;0.1422;
424.2000;1.1103;0.1422;
424.5000;1.1103;0.1422;
424.8000;1.1111;0.1398;
425.1000;1.1103;0.1351;
425.4000;1.1111;0.1351;
425.7000;1.1111;0.1327;
426.0000;1.1111;0.1327;
426.3000;1.1136;0.1327;
426.6000;1.1095;0.1185;
426.9000;1.1087;0.1161;
427.2000;1.1095;0.1303;
427.5000;1.1087;0.1374;
427.8000;1.1111;0.1422;
428.1000;1.1103;0.1374;
428.4000;1.1095;0.1422;
428.7000;1.1103;0.1422;
429.0000;1.1111;0.1398;
429.3000;1.1136;0.1398;
429.6000;1.1111;0.1398;
429.9000;1.1111;0.1351;
430.2000;1.1119;0.1327;
430.5000;1.1111;0.1303;
430.8000;1.1111;0.1279;
431.1000;1.1103;0.1256;
431.4000;1.1038;0.1066;
431.7000;1.1111;0.1208;
432.0000;1.1111;0.1208;
432.3000;1.1103;0.1232;
432.6000;1.1111;0.1185;
432.9000;1.1103;0.1137;
433.2000;1.1103;0.1161;
433.5000;1.1111;0.1161;
433.8000;1.1111;0.1161;
434.1000;1.1144;0.1208;
434.4000;1.1079;0.1090;
434.7000;1.1127;0.1232;
435.0000;1.1119;0.1232;
435.3000;1.1111;0.1279;
435.6000;1.1103;0.1327;
435.9000;1.1103;0.1256;
436.2000;1.1119;0.1327;
436.5000;1.1119;0.1303;
436.8000;1.1103;0.1232;
437.1000;1.1111;0.1351;
437.4000;1.1079;0.1327;
437.7000;1.1095;0.1279;
438.0000;1.1144;0.1351;
438.3000;1.1095;0.1232;
438.6000;1.1095;0.1351;
438.9000;1.1095;0.1374;
439.2000;1.1111;0.1422;
439.5000;1.1111;0.1516;
439.8000;1.1111;0.1540;
440.1000;1.1038;0.1374;
440.4000;1.1079;0.1469;
440.7000;1.1103;0.1540;
441.0000;1.1103;0.1564;
441.3000;1.1095;0.1540;
441.6000;1.1103;0.1611;
441.9000;1.1111;0.1730;
442.2000;1.1111;0.1706;
442.5000;1.1103;0.1635;
442.8000;1.1103;0.1564;
443.1000;1.1087;0.1587;
443.4000;1.1087;0.1564;
443.7000;1.1103;0.1564;
444.0000;1.1087;0.1469;
444.3000;1.1070;0.1445;
444.6000;1.1095;0.1516;
444.9000;1.1119;0.1516;
445.2000;1.1087;0.1398;
445.5000;1.1087;0.1445;
445.8000;1.1095;0.1351;
446.1000;1.1087;0.1256;
446.4000;1.1103;0.1303;
446.7000;1.1095;0.1398;
447.0000;1.1087;0.1351;
447.3000;1.1079;0.1256;
447.6000;1.1103;0.1327;
447.9000;1.1095;0.1279;
448.2000;1.1095;0.1351;
448.5000;1.1119;0.1327;
448.8000;1.1103;0.1279;
449.1000;1.1111;0.1232;
449.4000;1.1079;0.1185;
449.7000;1.1111;0.1256;
450.0000;1.1152;0.1374;
450.3000;1.1103;0.1256;
450.6000;1.1111;0.1256;
450.9000;1.1111;0.1327;
451.2000;1.1119;0.1327;
451.5000;1.1152;0.1445;
451.8000;1.1111;0.1351;
452.1000;1.1111;0.1279;
452.4000;1.1127;0.1327;
452.7000;1.1119;0.1303;
453.0000;1.1119;0.1327;
453.3000;1.1054;0.1161;
453.6000;1.1103;0.1256;
453.9000;1.1103;0.1256;
454.2000;1.1127;0.1185;
454.5000;1.1144;0.1279;
454.8000;1.1111;0.1137;
455.1000;1.1103;0.1090;
455.4000;1.1103;0.1042;
455.7000;1.1062;0.0948;
456.0000;1.1160;0.1185;
456.3000;1.1119;0.1185;
456.6000;1.1046;0.1066;
456.9000;1.1095;0.1208;
457.2000;1.1103;0.1208;
457.5000;1.1095;0.1161;
457.8000;1.1111;0.1185;
458.1000;1.1111;0.1232;
458.4000;1.1079;0.1114;
458.7000;1.1095;0.1161;
459.0000;1.1087;0.1185;
459.3000;1.1079;0.1161;
459.6000;1.1152;0.1374;
459.9000;1.1079;0.1208;
460.2000;1.1087;0.1256;
460.5000;1.1103;0.1256;
460.8000;1.1095;0.1256;
461.1000;1.1070;0.1232;
461.4000;1.1070;0.1232;
461.7000;1.1103;0.1303;
462.0000;1.1103;0.1185;
462.3000;1.1176;0.1303;
462.6000;1.1046;0.0995;
462.9000;1.1103;0.1208;
463.2000;1.1103;0.1185;
463.5000;1.1087;0.1208;
463.8000;1.1095;0.1232;
464.1000;1.1103;0.1185;
464.4000;1.1103;0.1137;
464.7000;1.1087;0.1114;
465.0000;1.1046;0.1042;
465.3000;1.1103;0.1066;
465.6000;1.1111;0.1185;
465.9000;1.1103;0.1161;
466.2000;1.1095;0.1185;
466.5000;1.1087;0.1185;
466.8000;1.1144;0.1256;
467.1000;1.1136;0.1351;
467.4000;1.1119;0.1232;
467.7000;1.1087;0.1185;
468.0000;1.1079;0.1114;
468.3000;1.1127;0.1208;
468.6000;1.1095;0.1137;
468.9000;1.1095;0.1161;
469.2000;1.1152;0.1279;
469.5000;1.1095;0.1208;
469.8000;1.1095;0.1137;
470.1000;1.1087;0.1114;
470.4000;1.1079;0.1019;
470.7000;1.1119;0.1161;
471.0000;1.1095;0.1137;
471.3000;1.1087;0.1208;
471.6000;1.1103;0.1185;
471.9000;1.1111;0.1256;
472.2000;1.1103;0.1256;
472.5000;1.1103;0.1256;
472.8000;1.1111;0.1256;
473.1000;1.1111;0.1303;
473.4000;1.1111;0.1374;
473.7000;1.1103;0.1303;
474.0000;1.1119;0.1256;
474.3000;1.1103;0.1161;
474.6000;1.1111;0.1042;
474.9000;1.1087;0.0971;
475.2000;1.1103;0.1090;
475.5000;1.1111;0.1114;
475.8000;1.1111;0.1137;
476.1000;1.1103;0.1137;
476.4000;1.1070;0.1137;
476.7000;1.1095;0.1185;
477.0000;1.1111;0.1208;
477.3000;1.1111;0.1279;
477.6000;1.1103;0.1256;
477.9000;1.1111;0.1208;
478.2000;1.1095;0.1185;
478.5000;1.1111;0.1279;
478.8000;1.1111;0.1232;
479.1000;1.1095;0.1208;
479.4000;1.1103;0.1232;
479.7000;1.1087;0.1185;
480.0000;1.1079;0.1232;
480.3000;1.1087;0.1256;
480.6000;1.1079;0.1161;
480.9000;1.1013;0.1042;
481.2000;1.1079;0.1137;
481.5000;1.1087;0.1208;
481.8000;1.1103;0.1208;
482.1000;1.1062;0.1232;
482.4000;1.1127;0.1374;
482.7000;1.1103;0.1232;
483.0000;1.1111;0.1232;
483.3000;1.1095;0.1256;
483.6000;1.1095;0.1256;
483.9000;1.1103;0.1232;
484.2000;1.1103;0.1279;
484.5000;1.1103;0.1279;
484.8000;1.1111;0.1327;
485.1000;1.1111;0.1327;
485.4000;1.1095;0.1279;
485.7000;1.1079;0.1232;
486.0000;1.1111;0.1303;
486.3000;1.1168;0.1469;
486.6000;1.1103;0.1351;
486.9000;1.1103;0.1374;
487.2000;1.1111;0.1351;
487.5000;1.1111;0.1327;
487.8000;1.1111;0.1279;
488.1000;1.1136;0.1303;
488.4000;1.1119;0.1327;
488.7000;1.1111;0.1279;
489.0000;1.1103;0.1256;
489.3000;1.1103;0.1185;
489.6000;1.1103;0.1279;
489.9000;1.1111;0.1327;
490.2000;1.1095;0.1256;
490.5000;1.1103;0.1327;
490.8000;1.1103;0.1445;
491.1000;1.1127;0.1351;
491.4000;1.1103;0.1279;
491.7000;1.1111;0.1374;
492.0000;1.1070;0.1232;
492.3000;1.1095;0.1327;
492.6000;1.1103;0.1374;
492.9000;1.1103;0.1374;
493.2000;1.1079;0.1256;
493.5000;1.1095;0.1208;
493.8000;1.1119;0.1303;
494.1000;1.1103;0.1303;
494.4000;1.1103;0.1327;
494.7000;1.1111;0.1422;
495.0000;1.1201;0.1564;
495.3000;1.1103;0.1327;
495.6000;1.1103;0.1232;
495.9000;1.1062;0.1185;
496.2000;1.1111;0.1327;
496.5000;1.1087;0.1279;
496.8000;1.1022;0.1114;
497.1000;1.1087;0.1327;
497.4000;1.1087;0.1303;
497.7000;1.1095;0.1232;
498.0000;1.1095;0.1256;
498.3000;1.1079;0.1208;
498.6000;1.1095;0.1279;
498.9000;1.1005;0.1066;
499.2000;1.1103;0.1232;
499.5000;1.1103;0.1185;
499.8000;1.1095;0.1161;
500.1000;1.1095;0.1137;
500.4000;1.1127;0.1185;
500.7000;1.1103;0.1090;
501.0000;1.1079;0.1114;
501.3000;1.1103;0.1208;
501.6000;1.1095;0.1208;
501.9000;1.1079;0.1185;
502.2000;1.1095;0.1066;
502.5000;1.1070;0.1066;
502.8000;1.1095;0.1208;
503.1000;1.1103;0.1303;
503.4000;1.1079;0.1327;
503.7000;1.1095;0.1374;
504.0000;1.1111;0.1374;
504.3000;1.1103;0.1327;
504.6000;1.1079;0.1256;
504.9000;1.1111;0.1208;
505.2000;1.1103;0.1185;
505.5000;1.1087;0.1185;
505.8000;1.1087;0.1161;
506.1000;1.1087;0.1114;
506.4000;1.1111;0.1137;
506.7000;1.1111;0.1185;
507.0000;1.1095;0.1208;
507.3000;1.1054;0.1161;
507.6000;1.1119;0.1398;
507.9000;1.1079;0.1327;
508.2000;1.1062;0.1208;
508.5000;1.1103;0.1374;
508.8000;1.1111;0.1351;
509.1000;1.1095;0.1351;
509.4000;1.1160;0.1516;
509.7000;1.1095;0.1374;
510.0000;1.1103;0.1279;
510.3000;1.1111;0.1351;
510.6000;1.1087;0.1256;
510.9000;1.1103;0.1374;
511.2000;1.1087;0.1374;
511.5000;1.1095;0.1303;
511.8000;1.1127;0.1351;
512.1000;1.1087;0.1256;
512.4000;1.1046;0.1185;
512.7000;1.1087;0.1232;
513.0000;1.1095;0.1256;
513.3000;1.1119;0.1374;
513.6000;1.1087;0.1232;
513.9000;1.1087;0.1303;
514.2000;1.1103;0.1232;
514.5000;1.1095;0.1232;
514.8000;1.1079;0.1208;
515.1000;1.1087;0.1185;
515.4000;1.1087;0.1161;
515.7000;1.1087;0.1208;
516.0000;1.1087;0.1256;
516.3000;1.1087;0.1232;
516.6000;1.1095;0.1279;
516.9000;1.1087;0.1351;
517.2000;1.1046;0.1232;
517.5000;1.1095;0.1351;
517.8000;1.1087;0.1232;
518.1000;1.1087;0.1256;
518.4000;1.1095;0.1303;
518.7000;1.1087;0.1279;
519.0000;1.1087;0.1279;
519.3000;1.1095;0.1303;
519.6000;1.1095;0.1351;
519.9000;1.1087;0.1351;
520.2000;1.1087;0.1303;
520.5000;1.1087;0.1398;
520.8000;1.1111;0.1374;
521.1000;1.1079;0.1351;
521.4000;1.1111;0.1351;
521.7000;1.1144;0.1445;
522.0000;1.1103;0.1398;
522.3000;1.1070;0.1256;
522.6000;1.1111;0.1232;
522.9000;1.1103;0.1279;
523.2000;1.1119;0.1256;
523.5000;1.1136;0.1232;
523.8000;1.1095;0.1185;
524.1000;1.1087;0.1114;
524.4000;1.1168;0.1327;
524.7000;1.1103;0.1256;
525.0000;1.1103;0.1279;
525.3000;1.1095;0.1445;
525.6000;1.1103;0.1422;
525.9000;1.1062;0.1351;
526.2000;1.1095;0.1398;
526.5000;1.1054;0.1279;
526.8000;1.1087;0.1351;
527.1000;1.1087;0.1327;
527.4000;1.1087;0.1327;
527.7000;1.1087;0.1279;
528.0000;1.1152;0.1422;
528.3000;1.1095;0.1208;
528.6000;1.1079;0.1114;
528.9000;1.1111;0.1137;
529.2000;1.1087;0.1185;
529.5000;1.1144;0.1161;
529.8000;1.1111;0.1137;
530.1000;1.1095;0.1137;
530.4000;1.1136;0.1279;
530.7000;1.1095;0.1303;
531.0000;1.1095;0.1351;
531.3000;1.1079;0.1256;
531.6000;1.1087;0.1303;
531.9000;1.1046;0.1232;
532.2000;1.1005;0.1185;
532.5000;1.1095;0.1374;
532.8000;1.1087;0.1327;
533.1000;1.1160;0.1540;
533.4000;1.1103;0.1327;
533.7000;1.1095;0.1279;
534.0000;1.1095;0.1303;
534.3000;1.1087;0.1256;
534.6000;1.1136;0.1374;
534.9000;1.1079;0.1303;
535.2000;1.1054;0.1303;
535.5000;1.1095;0.1351;
535.8000;1.1079;0.1256;
536.1000;1.1062;0.1232;
536.4000;1.1087;0.1303;
536.7000;1.1079;0.1327;
537.0000;1.1095;0.1327;
537.3000;1.1103;0.1279;
537.6000;1.1095;0.1185;
537.9000;1.1079;0.1161;
538.2000;1.1087;0.1137;
538.5000;1.1087;0.1114;
538.8000;1.1168;0.1398;
539.1000;1.1095;0.1303;
539.4000;1.1103;0.1232;
539.7000;1.1095;0.1185;
540.0000;1.1095;0.1185;
540.3000;1.1136;0.1374;
540.6000;1.1079;0.1232;
540.9000;1.1095;0.1208;
541.2000;1.1103;0.1256;
541.5000;1.1095;0.1256;
541.8000;1.1087;0.1279;
542.1000;1.1087;0.1351;
542.4000;1.1087;0.1351;
542.7000;1.1095;0.1327;
543.0000;1.1144;0.1327;
543.3000;1.1087;0.1161;
543.6000;1.1087;0.1090;
543.9000;1.1087;0.1137;
544.2000;1.1095;0.1208;
544.5000;1.1095;0.1185;
544.8000;1.1087;0.1114;
545.1000;1.1111;0.1185;
545.4000;1.1103;0.1161;
545.7000;1.1087;0.1090;
546.0000;1.1079;0.1114;
546.3000;1.1103;0.1256;
546.6000;1.1103;0.1256;
546.9000;1.1103;0.1208;
547.2000;1.1087;0.1232;
547.5000;1.1070;0.1232;
547.8000;1.1087;0.1256;
548.1000;1.1095;0.1208;
548.4000;1.1079;0.1137;
548.7000;1.1079;0.1161;
549.0000;1.1087;0.1232;
549.3000;1.1095;0.1303;
549.6000;1.1079;0.1256;
549.9000;1.1087;0.1327;
550.2000;1.1087;0.1327;
550.5000;1.1095;0.1279;
550.8000;1.1095;0.1351;
551.1000;1.1087;0.1351;
551.4000;1.1087;0.1279;
551.7000;1.1095;0.1374;
552.0000;1.1095;0.1374;
552.3000;1.1095;0.1351;
552.6000;1.1079;0.1351;
552.9000;1.1070;0.1303;
553.2000;1.1079;0.1303;
553.5000;1.1111;0.1398;
553.8000;1.1087;0.1445;
554.1000;1.1119;0.1445;
554.4000;1.1095;0.1327;
554.7000;1.1079;0.1232;
555.0000;1.1095;0.1279;
555.3000;1.1038;0.1137;
555.6000;1.1103;0.1208;
555.9000;1.1103;0.1232;
556.2000;1.1103;0.1374;
556.5000;1.1152;0.1516;
556.8000;1.1095;0.1422;
557.1000;1.1095;0.1422;
557.4000;1.1079;0.1351;
557.7000;1.1095;0.1445;
558.0000;1.1119;0.1469;
558.3000;1.1127;0.1422;
558.6000;1.1087;0.1327;
558.9000;1.1103;0.1398;
559.2000;1.1062;0.1398;
559.5000;1.1095;0.1469;
559.8000;1.1087;0.1540;
560.1000;1.1095;0.1516;
560.4000;1.1087;0.1493;
560.7000;1.1103;0.1445;
561.0000;1.1079;0.1351;
561.3000;1.1103;0.1445;
561.6000;1.1095;0.1445;
561.9000;1.1095;0.1351;
562.2000;1.1103;0.1493;
562.5000;1.1103;0.1516;
562.8000;1.1095;0.1422;
563.1000;1.1087;0.1398;
563.4000;1.1119;0.1422;
563.7000;1.1087;0.1327;
564.0000;1.1087;0.1422;
564.3000;1.1087;0.1445;
564.6000;1.1087;0.1540;
564.9000;1.1087;0.1516;
565.2000;1.1103;0.1516;
565.5000;1.1087;0.1445;
565.8000;1.1111;0.1445;
566.1000;1.1103;0.1422;
566.4000;1.1136;0.1493;
566.7000;1.1095;0.1469;
567.0000;1.1087;0.1469;
567.3000;1.1087;0.1493;
567.6000;1.1095;0.1445;
567.9000;1.1095;0.1445;
568.2000;1.1103;0.1422;
568.5000;1.1087;0.1398;
568.8000;1.1111;0.1445;
569.1000;1.1103;0.1398;
569.4000;1.1095;0.1398;
569.7000;1.1103;0.1398;
570.0000;1.1087;0.1398;
570.3000;1.1095;0.1398;
570.6000;1.1087;0.1422;
570.9000;1.1103;0.1374;
571.2000;1.1070;0.1327;
571.5000;1.1070;0.1398;
571.8000;1.1087;0.1398;
572.1000;1.1111;0.1564;
572.4000;1.1095;0.1587;
572.7000;1.1079;0.1564;
573.0000;1.1176;0.1682;
573.3000;1.1103;0.1516;
573.6000;1.1111;0.1587;
573.9000;1.1095;0.1564;
574.2000;1.1087;0.1587;
574.5000;1.1070;0.1422;
574.8000;1.1095;0.1398;
575.1000;1.1095;0.1303;
575.4000;1.1095;0.1351;
575.7000;1.1095;0.1422;
576.0000;1.1095;0.1493;
576.3000;1.1070;0.1445;
576.6000;1.1136;0.1587;
576.9000;1.1087;0.1398;
577.2000;1.1095;0.1445;
577.5000;1.1111;0.1374;
577.8000;1.1103;0.1351;
578.1000;1.1087;0.1279;
578.4000;1.1046;0.1185;
578.7000;1.1103;0.1256;
579.0000;1.1079;0.1208;
579.3000;1.1087;0.1208;
579.6000;1.1095;0.1303;
579.9000;1.1087;0.1303;
580.2000;1.1079;0.1303;
580.5000;1.1095;0.1303;
580.8000;1.1087;0.1232;
581.1000;1.1087;0.1303;
581.4000;1.1087;0.1327;
581.7000;1.1070;0.1303;
582.0000;1.1144;0.1469;
582.3000;1.1046;0.1232;
582.6000;1.1087;0.1303;
582.9000;1.1079;0.1351;
583.2000;1.1103;0.1445;
583.5000;1.1087;0.1398;
583.8000;1.1103;0.1327;
584.1000;1.1087;0.1279;
584.4000;1.1030;0.1208;
584.7000;1.1087;0.1374;
585.0000;1.1095;0.1469;
585.3000;1.1070;0.1398;
585.6000;1.1095;0.1445;
585.9000;1.1087;0.1469;
586.2000;1.1095;0.1493;
586.5000;1.1103;0.1398;
586.8000;1.1087;0.1303;
587.1000;1.1079;0.1279;
587.4000;1.1062;0.1279;
587.7000;1.1087;0.1256;
588.0000;1.1070;0.1279;
588.3000;1.1087;0.1256;
588.6000;1.1087;0.1279;
588.9000;1.1103;0.1279;
589.2000;1.1119;0.1422;
589.5000;1.1119;0.1445;
589.8000;1.1095;0.1422;
590.1000;1.1087;0.1422;
590.4000;1.1095;0.1445;
590.7000;1.1070;0.1398;
591.0000;1.1079;0.1351;
591.3000;1.1030;0.1208;
591.6000;1.1087;0.1351;
591.9000;1.1070;0.1374;
592.2000;1.1079;0.1374;
592.5000;1.1087;0.1351;
592.8000;1.1103;0.1351;
593.1000;1.1111;0.1398;
593.4000;1.1087;0.1327;
593.7000;1.1087;0.1422;
594.0000;1.1095;0.1516;
594.3000;1.1095;0.1540;
594.6000;1.1087;0.1374;
594.9000;1.1070;0.1327;
595.2000;1.1095;0.1374;
595.5000;1.1087;0.1279;
595.8000;1.1087;0.1279;
596.1000;1.1079;0.1232;
596.4000;1.1095;0.1279;
596.7000;1.1095;0.1256;
597.0000;1.1087;0.1208;
597.3000;1.1070;0.1137;
597.6000;1.1087;0.1114;
597.9000;1.1111;0.1232;
598.2000;1.1079;0.1137;
598.5000;1.1095;0.1161;
598.8000;1.1079;0.1137;
599.1000;1.1095;0.1185;
599.4000;1.1103;0.1161;
599.7000;1.1103;0.1090;
600.0000;1.1095;0.1090;
600.3000;1.1127;0.0995;
600.6000;1.1127;0.0829;
600.9000;1.1013;0.0450;
601.2000;1.0932;0.0071;
601.5000;1.0859;-0.0237;
601.8000;1.0802;-0.0426;
602.1000;1.0712;-0.0687;
602.4000;1.0566;-0.1066;
602.7000;1.0517;-0.1185;
603.0000;1.0435;-0.1398;
603.3000;1.0338;-0.1635;
603.6000;1.0273;-0.1730;
603.9000;1.0216;-0.1801;
604.2000;1.0167;-0.1801;
604.5000;1.0118;-0.1895;
604.8000;1.0020;-0.1990;
605.1000;0.9963;-0.2180;
605.4000;0.9931;-0.2156;
605.7000;0.9858;-0.2251;
606.0000;0.9809;-0.2298;
606.3000;0.9760;-0.2346;
606.6000;0.9727;-0.2369;
606.9000;0.9695;-0.2346;
607.2000;0.9613;-0.2417;
607.5000;0.9589;-0.2440;
607.8000;0.9581;-0.2369;
608.1000;0.9516;-0.2440;
608.4000;0.9459;-0.2464;
608.7000;0.9418;-0.2559;
609.0000;0.9394;-0.2677;
609.3000;0.9361;-0.2630;
609.6000;0.9312;-0.2701;
609.9000;0.9288;-0.2725;
610.2000;0.9247;-0.2819;
610.5000;0.9214;-0.2867;
610.8000;0.9141;-0.3009;
611.1000;0.9149;-0.2843;
611.4000;0.9125;-0.2867;
611.7000;0.9109;-0.2843;
612.0000;0.9076;-0.2914;
612.3000;0.9035;-0.2914;
612.6000;0.9011;-0.2867;
612.9000;0.8995;-0.2819;
613.2000;0.8962;-0.2867;
613.5000;0.8938;-0.3009;
613.8000;0.8848;-0.3199;
614.1000;0.8848;-0.3151;
614.4000;0.8864;-0.3127;
614.7000;0.8889;-0.3033;
615.0000;0.8791;-0.3199;
615.3000;0.8775;-0.3199;
615.6000;0.8742;-0.3151;
615.9000;0.8767;-0.3104;
616.2000;0.8734;-0.3080;
616.5000;0.8702;-0.3127;
616.8000;0.8685;-0.3009;
617.1000;0.8742;-0.2843;
617.4000;0.8596;-0.3175;
617.7000;0.8620;-0.3175;
618.0000;0.8596;-0.3127;
618.3000;0.8580;-0.3199;
618.6000;0.8580;-0.3270;
618.9000;0.8547;-0.3270;
619.2000;0.8531;-0.3293;
619.5000;0.8514;-0.3270;
619.8000;0.8506;-0.3293;
620.1000;0.8482;-0.3199;
620.4000;0.8457;-0.3175;
620.7000;0.8449;-0.3151;
621.0000;0.8449;-0.3175;
621.3000;0.8433;-0.3293;
621.6000;0.8409;-0.3293;
621.9000;0.8376;-0.3412;
622.2000;0.8360;-0.3293;
622.5000;0.8352;-0.3317;
622.8000;0.8295;-0.3435;
623.1000;0.8319;-0.3293;
623.4000;0.8295;-0.3341;
623.7000;0.8278;-0.3270;
624.0000;0.8287;-0.3151;
624.3000;0.8303;-0.3056;
624.6000;0.8254;-0.3104;
624.9000;0.8230;-0.3175;
625.2000;0.8213;-0.3317;
625.5000;0.8197;-0.3364;
625.8000;0.8189;-0.3388;
626.1000;0.8238;-0.3199;
626.4000;0.8164;-0.3317;
626.7000;0.8156;-0.3293;
627.0000;0.8205;-0.3175;
627.3000;0.8132;-0.3270;
627.6000;0.8156;-0.3222;
627.9000;0.8173;-0.3151;
628.2000;0.8099;-0.3364;
628.5000;0.8099;-0.3317;
628.8000;0.8116;-0.3246;
629.1000;0.8156;-0.3056;
629.4000;0.8050;-0.3199;
629.7000;0.8034;-0.3175;
630.0000;0.8042;-0.3199;
630.3000;0.8026;-0.3175;
630.6000;0.8010;-0.3199;
630.9000;0.7993;-0.3199;
631.2000;0.7993;-0.3246;
631.5000;0.7977;-0.3222;
631.8000;0.7985;-0.3293;
632.1000;0.7961;-0.3341;
632.4000;0.7928;-0.3412;
632.7000;0.7953;-0.3317;
633.0000;0.7993;-0.3199;
633.3000;0.7920;-0.3317;
633.6000;0.7920;-0.3293;
633.9000;0.7912;-0.3293;
634.2000;0.7839;-0.3530;
634.5000;0.7896;-0.3412;
634.8000;0.7896;-0.3435;
635.1000;0.7880;-0.3483;
635.4000;0.7888;-0.3507;
635.7000;0.7880;-0.3507;
636.0000;0.7831;-0.3530;
636.3000;0.7855;-0.3554;
636.6000;0.7831;-0.3459;
636.9000;0.7831;-0.3364;
637.2000;0.7863;-0.3317;
637.5000;0.7798;-0.3435;
637.8000;0.7798;-0.3507;
638.1000;0.7823;-0.3364;
638.4000;0.7790;-0.3412;
638.7000;0.7782;-0.3530;
639.0000;0.7790;-0.3483;
639.3000;0.7790;-0.3459;
639.6000;0.7741;-0.3649;
639.9000;0.7749;-0.3672;
640.2000;0.7757;-0.3720;
640.5000;0.7725;-0.3744;
640.8000;0.7692;-0.3815;
641.1000;0.7733;-0.3625;
641.4000;0.7668;-0.3791;
641.7000;0.7709;-0.3649;
642.0000;0.7717;-0.3554;
642.3000;0.7709;-0.3649;
642.6000;0.7692;-0.3625;
642.9000;0.7684;-0.3554;
643.2000;0.7684;-0.3483;
643.5000;0.7660;-0.3483;
643.8000;0.7668;-0.3507;
644.1000;0.7668;-0.3483;
644.4000;0.7635;-0.3459;
644.7000;0.7627;-0.3388;
645.0000;0.7652;-0.3388;
645.3000;0.7627;-0.3412;
645.6000;0.7635;-0.3341;
645.9000;0.7619;-0.3364;
646.2000;0.7586;-0.3435;
646.5000;0.7619;-0.3412;
646.8000;0.7619;-0.3459;
647.1000;0.7627;-0.3435;
647.4000;0.7603;-0.3578;
647.7000;0.7586;-0.3601;
648.0000;0.7627;-0.3459;
648.3000;0.7562;-0.3530;
648.6000;0.7538;-0.3459;
648.9000;0.7627;-0.3293;
649.2000;0.7611;-0.3246;
649.5000;0.7554;-0.3388;
649.8000;0.7538;-0.3364;
650.1000;0.7497;-0.3388;
650.4000;0.7530;-0.3270;
650.7000;0.7521;-0.3199;
651.0000;0.7505;-0.3222;
651.3000;0.7505;-0.3246;
651.6000;0.7513;-0.3246;
651.9000;0.7578;-0.3127;
652.2000;0.7521;-0.3175;
652.5000;0.7481;-0.3222;
652.8000;0.7481;-0.3175;
653.1000;0.7505;-0.3199;
653.4000;0.7489;-0.3222;
653.7000;0.7464;-0.3341;
654.0000;0.7473;-0.3459;
654.3000;0.7481;-0.3483;
654.6000;0.7464;-0.3483;
654.9000;0.7473;-0.3412;
655.2000;0.7448;-0.3554;
655.5000;0.7448;-0.3483;
655.8000;0.7432;-0.3507;
656.1000;0.7424;-0.3483;
656.4000;0.7416;-0.3507;
656.7000;0.7432;-0.3507;
657.0000;0.7424;-0.3483;
657.3000;0.7416;-0.3483;
657.6000;0.7407;-0.3483;
657.9000;0.7399;-0.3459;
658.2000;0.7399;-0.3530;
658.5000;0.7391;-0.3507;
658.8000;0.7383;-0.3483;
659.1000;0.7367;-0.3507;
659.4000;0.7407;-0.3459;
659.7000;0.7416;-0.3435;
660.0000;0.7342;-0.3649;
660.3000;0.7350;-0.3625;
660.6000;0.7334;-0.3625;
660.9000;0.7375;-0.3530;
661.2000;0.7350;-0.3554;
661.5000;0.7342;-0.3554;
661.8000;0.7359;-0.3459;
662.1000;0.7359;-0.3554;
662.4000;0.7334;-0.3601;
662.7000;0.7318;-0.3601;
663.0000;0.7318;-0.3554;
663.3000;0.7334;-0.3459;
663.6000;0.7334;-0.3412;
663.9000;0.7318;-0.3388;
664.2000;0.7310;-0.3341;
664.5000;0.7204;-0.3578;
664.8000;0.7302;-0.3317;
665.1000;0.7285;-0.3341;
665.4000;0.7342;-0.3222;
665.7000;0.7350;-0.3246;
666.0000;0.7302;-0.3412;
666.3000;0.7277;-0.3412;
666.6000;0.7277;-0.3459;
666.9000;0.7269;-0.3388;
667.2000;0.7261;-0.3435;
667.5000;0.7261;-0.3435;
667.8000;0.7269;-0.3483;
668.1000;0.7253;-0.3530;
668.4000;0.7253;-0.3435;
668.7000;0.7253;-0.3459;
669.0000;0.7236;-0.3412;
669.3000;0.7245;-0.3483;
669.6000;0.7228;-0.3507;
669.9000;0.7212;-0.3507;
670.2000;0.7228;-0.3554;
670.5000;0.7212;-0.3649;
670.8000;0.7236;-0.3601;
671.1000;0.7220;-0.3601;
671.4000;0.7196;-0.3578;
671.7000;0.7188;-0.3578;
672.0000;0.7204;-0.3578;
672.3000;0.7196;-0.3530;
672.6000;0.7188;-0.3530;
672.9000;0.7261;-0.3341;
673.2000;0.7179;-0.3601;
673.5000;0.7204;-0.3554;
673.8000;0.7188;-0.3554;
674.1000;0.7179;-0.3435;
674.4000;0.7179;-0.3388;
674.7000;0.7163;-0.3459;
675.0000;0.7188;-0.3459;
675.3000;0.7171;-0.3459;
675.6000;0.7171;-0.3412;
675.9000;0.7163;-0.3530;
676.2000;0.7163;-0.3483;
676.5000;0.7155;-0.3459;
676.8000;0.7139;-0.3483;
677.1000;0.7147;-0.3459;
677.4000;0.7196;-0.3388;
677.7000;0.7147;-0.3459;
678.0000;0.7131;-0.3459;
678.3000;0.7155;-0.3388;
678.6000;0.7139;-0.3412;
678.9000;0.7139;-0.3507;
679.2000;0.7106;-0.3649;
679.5000;0.7114;-0.3554;
679.8000;0.7114;-0.3554;
680.1000;0.7114;-0.3483;
680.4000;0.7098;-0.3507;
680.7000;0.7082;-0.3507;
681.0000;0.7098;-0.3554;
681.3000;0.7090;-0.3459;
681.6000;0.7090;-0.3435;
681.9000;0.7082;-0.3435;
682.2000;0.7074;-0.3388;
682.5000;0.7090;-0.3388;
682.8000;0.7090;-0.3412;
683.1000;0.7082;-0.3435;
683.4000;0.7066;-0.3507;
683.7000;0.7082;-0.3459;
684.0000;0.7082;-0.3435;
684.3000;0.7057;-0.3507;
684.6000;0.7066;-0.3554;
684.9000;0.7074;-0.3554;
685.2000;0.7066;-0.3601;
685.5000;0.7131;-0.3412;
685.8000;0.7049;-0.3649;
686.1000;0.7033;-0.3625;
686.4000;0.7049;-0.3554;
686.7000;0.7041;-0.3530;
687.0000;0.7041;-0.3507;
687.3000;0.7025;-0.3364;
687.6000;0.7090;-0.3222;
687.9000;0.7041;-0.3388;
688.2000;0.7000;-0.3412;
688.5000;0.7025;-0.3317;
688.8000;0.7041;-0.3270;
689.1000;0.7033;-0.3293;
689.4000;0.7025;-0.3341;
689.7000;0.7033;-0.3341;
690.0000;0.7009;-0.3388;
690.3000;0.7009;-0.3293;
690.6000;0.7009;-0.3222;
690.9000;0.7009;-0.3246;
691.2000;0.6992;-0.3364;
691.5000;0.7000;-0.3412;
691.8000;0.7000;-0.3388;
692.1000;0.6968;-0.3507;
692.4000;0.6976;-0.3507;
692.7000;0.6992;-0.3554;
693.0000;0.6984;-0.3601;
693.3000;0.7000;-0.3483;
693.6000;0.7025;-0.3388;
693.9000;0.6968;-0.3507;
694.2000;0.6984;-0.3388;
694.5000;0.6935;-0.3530;
694.8000;0.6968;-0.3435;
695.1000;0.6976;-0.3388;
695.4000;0.6903;-0.3530;
695.7000;0.6968;-0.3388;
696.0000;0.6952;-0.3412;
696.3000;0.6943;-0.3435;
696.6000;0.6952;-0.3412;
696.9000;0.6952;-0.3412;
697.2000;0.6935;-0.3388;
697.5000;0.6935;-0.3364;
697.8000;0.6960;-0.3412;
698.1000;0.6895;-0.3554;
698.4000;0.6943;-0.3341;
698.7000;0.6943;-0.3341;
699.0000;0.6943;-0.3388;
699.3000;0.6943;-0.3364;
699.6000;0.6935;-0.3317;
699.9000;0.6943;-0.3293;
700.2000;0.6952;-0.3199;
700.5000;0.6943;-0.3246;
700.8000;0.6935;-0.3222;
701.1000;0.6911;-0.3175;
701.4000;0.6943;-0.3175;
701.7000;0.6927;-0.3246;
702.0000;0.6911;-0.3246;
702.3000;0.6886;-0.3293;
702.6000;0.6903;-0.3293;
702.9000;0.6911;-0.3293;
703.2000;0.6895;-0.3270;
703.5000;0.6903;-0.3246;
703.8000;0.6903;-0.3199;
704.1000;0.6895;-0.3293;
704.4000;0.6895;-0.3293;
704.7000;0.6895;-0.3270;
705.0000;0.6895;-0.3222;
705.3000;0.6886;-0.3222;
705.6000;0.6886;-0.3175;
705.9000;0.6895;-0.3151;
706.2000;0.6886;-0.3127;
706.5000;0.6878;-0.3199;
706.8000;0.6878;-0.3270;
707.1000;0.6895;-0.3246;
707.4000;0.6862;-0.3270;
707.7000;0.6846;-0.3341;
708.0000;0.6854;-0.3246;
708.3000;0.6854;-0.3199;
708.6000;0.6862;-0.3175;
708.9000;0.6862;-0.3199;
709.2000;0.6862;-0.3222;
709.5000;0.6870;-0.3270;
709.8000;0.6846;-0.3341;
710.1000;0.6846;-0.3246;
710.4000;0.6846;-0.3270;
710.7000;0.6838;-0.3317;
711.0000;0.6829;-0.3388;
711.3000;0.6829;-0.3388;
711.6000;0.6927;-0.3104;
711.9000;0.6838;-0.3222;
712.2000;0.6838;-0.3293;
712.5000;0.6870;-0.3246;
712.8000;0.6829;-0.3388;
713.1000;0.6821;-0.3388;
713.4000;0.6829;-0.3412;
713.7000;0.6829;-0.3412;
714.0000;0.6838;-0.3412;
714.3000;0.6829;-0.3530;
714.6000;0.6813;-0.3578;
714.9000;0.6805;-0.3530;
715.2000;0.6813;-0.3388;
715.5000;0.6764;-0.3459;
715.8000;0.6838;-0.3364;
716.1000;0.6764;-0.3554;
716.4000;0.6764;-0.3483;
716.7000;0.6797;-0.3388;
717.0000;0.6781;-0.3483;
717.3000;0.6789;-0.3412;
717.6000;0.6821;-0.3341;
717.9000;0.6781;-0.3341;
718.2000;0.6813;-0.3341;
718.5000;0.6805;-0.3293;
718.8000;0.6789;-0.3293;
719.1000;0.6732;-0.3364;
719.4000;0.6724;-0.3530;
719.7000;0.6789;-0.3412;
720.0000;0.6862;-0.3270;
720.3000;0.6764;-0.3507;
720.6000;0.6756;-0.3483;
720.9000;0.6781;-0.3412;
721.2000;0.6797;-0.3388;
721.5000;0.6772;-0.3412;
721.8000;0.6772;-0.3341;
722.1000;0.6772;-0.3270;
722.4000;0.6756;-0.3199;
722.7000;0.6748;-0.3246;
723.0000;0.6756;-0.3341;
723.3000;0.6740;-0.3388;
723.6000;0.6772;-0.3270;
723.9000;0.6740;-0.3341;
724.2000;0.6756;-0.3199;
724.5000;0.6772;-0.3293;
724.8000;0.6756;-0.3364;
725.1000;0.6756;-0.3341;
725.4000;0.6772;-0.3270;
725.7000;0.6740;-0.3293;
726.0000;0.6756;-0.3270;
726.3000;0.6764;-0.3199;
726.6000;0.6756;-0.3199;
726.9000;0.6740;-0.3151;
727.2000;0.6748;-0.3104;
727.5000;0.6740;-0.3127;
727.8000;0.6732;-0.3199;
728.1000;0.6740;-0.3151;
728.4000;0.6740;-0.3151;
728.7000;0.6732;-0.3222;
729.0000;0.6732;-0.3199;
729.3000;0.6732;-0.3246;
729.6000;0.6716;-0.3293;
729.9000;0.6732;-0.3317;
730.2000;0.6732;-0.3270;
730.5000;0.6724;-0.3199;
730.8000;0.6707;-0.3293;
731.1000;0.6683;-0.3341;
731.4000;0.6756;-0.3199;
731.7000;0.6724;-0.3222;
732.0000;0.6740;-0.3104;
732.3000;0.6732;-0.3033;
732.6000;0.6764;-0.2985;
732.9000;0.6724;-0.3056;
733.2000;0.6707;-0.3104;
733.5000;0.6748;-0.2985;
733.8000;0.6707;-0.3056;
734.1000;0.6716;-0.3127;
734.4000;0.6683;-0.3175;
734.7000;0.6650;-0.3246;
735.0000;0.6691;-0.3222;
735.3000;0.6716;-0.3199;
735.6000;0.6699;-0.3246;
735.9000;0.6691;-0.3364;
736.2000;0.6699;-0.3388;
736.5000;0.6626;-0.3601;
736.8000;0.6707;-0.3341;
737.1000;0.6707;-0.3246;
737.4000;0.6707;-0.3199;
737.7000;0.6699;-0.3199;
738.0000;0.6691;-0.3293;
738.3000;0.6748;-0.3033;
738.6000;0.6683;-0.3175;
738.9000;0.6691;-0.3222;
739.2000;0.6691;-0.3246;
739.5000;0.6667;-0.3317;
739.8000;0.6683;-0.3270;
740.1000;0.6683;-0.3175;
740.4000;0.6667;-0.3222;
740.7000;0.6667;-0.3222;
741.0000;0.6707;-0.3199;
741.3000;0.6683;-0.3199;
741.6000;0.6691;-0.3270;
741.9000;0.6667;-0.3412;
742.2000;0.6667;-0.3483;
742.5000;0.6667;-0.3412;
742.8000;0.6667;-0.3317;
743.1000;0.6683;-0.3270;
743.4000;0.6642;-0.3317;
743.7000;0.6642;-0.3199;
744.0000;0.6642;-0.3246;
744.3000;0.6650;-0.3199;
744.6000;0.6642;-0.3199;
744.9000;0.6642;-0.3222;
745.2000;0.6642;-0.3246;
745.5000;0.6650;-0.3175;
745.8000;0.6642;-0.3151;
746.1000;0.6626;-0.3270;
746.4000;0.6642;-0.3293;
746.7000;0.6650;-0.3317;
747.0000;0.6650;-0.3317;
747.3000;0.6634;-0.3341;
747.6000;0.6642;-0.3364;
747.9000;0.6642;-0.3341;
748.2000;0.6659;-0.3222;
748.5000;0.6642;-0.3222;
748.8000;0.6642;-0.3222;
749.1000;0.6634;-0.3246;
749.4000;0.6626;-0.3222;
749.7000;0.6626;-0.3222;
750.0000;0.6610;-0.3222;
750.3000;0.6634;-0.3270;
750.6000;0.6634;-0.3317;
750.9000;0.6650;-0.3293;
751.2000;0.6634;-0.3317;
751.5000;0.6650;-0.3317;
751.8000;0.6634;-0.3317;
752.1000;0.6650;-0.3270;
752.4000;0.6610;-0.3364;
752.7000;0.6610;-0.3364;
753.0000;0.6626;-0.3293;
753.3000;0.6618;-0.3222;
753.6000;0.6610;-0.3199;
753.9000;0.6610;-0.3246;
754.2000;0.6642;-0.3175;
754.5000;0.6626;-0.3199;
754.8000;0.6577;-0.3270;
755.1000;0.6593;-0.3341;
755.4000;0.6602;-0.3341;
755.7000;0.6610;-0.3364;
756.0000;0.6561;-0.3483;
756.3000;0.6602;-0.3270;
756.6000;0.6602;-0.3222;
756.9000;0.6610;-0.3199;
757.2000;0.6626;-0.3175;
757.5000;0.6561;-0.3222;
757.8000;0.6642;-0.2938;
758.1000;0.6618;-0.2962;
758.4000;0.6602;-0.3033;
758.7000;0.6650;-0.2985;
759.0000;0.6561;-0.3199;
759.3000;0.6667;-0.2938;
759.6000;0.6602;-0.3104;
759.9000;0.6593;-0.3033;
760.2000;0.6569;-0.3033;
760.5000;0.6593;-0.2985;
760.8000;0.6593;-0.3033;
761.1000;0.6618;-0.2938;
761.4000;0.6593;-0.3056;
761.7000;0.6593;-0.3127;
762.0000;0.6602;-0.3080;
762.3000;0.6585;-0.3127;
762.6000;0.6585;-0.3222;
762.9000;0.6585;-0.3199;
763.2000;0.6569;-0.3151;
763.5000;0.6585;-0.3199;
763.8000;0.6577;-0.3246;
764.1000;0.6593;-0.3293;
764.4000;0.6585;-0.3270;
764.7000;0.6577;-0.3293;
765.0000;0.6569;-0.3199;
765.3000;0.6553;-0.3199;
765.6000;0.6569;-0.3175;
765.9000;0.6577;-0.3080;
766.2000;0.6577;-0.3009;
766.5000;0.6553;-0.3033;
766.8000;0.6561;-0.3033;
767.1000;0.6569;-0.3009;
767.4000;0.6561;-0.3104;
767.7000;0.6569;-0.3056;
768.0000;0.6577;-0.2938;
768.3000;0.6545;-0.3033;
768.6000;0.6553;-0.3080;
768.9000;0.6553;-0.3056;
769.2000;0.6569;-0.3080;
769.5000;0.6569;-0.3033;
769.8000;0.6553;-0.2985;
770.1000;0.6561;-0.3009;
770.4000;0.6536;-0.2938;
770.7000;0.6536;-0.3056;
771.0000;0.6545;-0.3080;
771.3000;0.6577;-0.2962;
771.6000;0.6561;-0.2985;
771.9000;0.6561;-0.3104;
772.2000;0.6512;-0.3175;
772.5000;0.6545;-0.3056;
772.8000;0.6520;-0.3151;
773.1000;0.6545;-0.3056;
773.4000;0.6585;-0.2891;
773.7000;0.6553;-0.2867;
774.0000;0.6561;-0.2819;
774.3000;0.6634;-0.2725;
774.6000;0.6528;-0.2962;
774.9000;0.6553;-0.2891;
775.2000;0.6610;-0.2796;
775.5000;0.6545;-0.2962;
775.8000;0.6488;-0.3080;
776.1000;0.6536;-0.2962;
776.4000;0.6545;-0.2891;
776.7000;0.6512;-0.3104;
777.0000;0.6536;-0.3033;
777.3000;0.6520;-0.3033;
777.6000;0.6520;-0.3056;
777.9000;0.6520;-0.3151;
778.2000;0.6504;-0.3151;
778.5000;0.6536;-0.3151;
778.8000;0.6512;-0.3127;
779.1000;0.6528;-0.3104;
779.4000;0.6569;-0.3127;
779.7000;0.6545;-0.3127;
780.0000;0.6520;-0.3222;
780.3000;0.6504;-0.3175;
780.6000;0.6520;-0.3104;
780.9000;0.6528;-0.3127;
781.2000;0.6528;-0.3127;
781.5000;0.6520;-0.3104;
781.8000;0.6520;-0.3104;
782.1000;0.6520;-0.3127;
782.4000;0.6520;-0.3104;
782.7000;0.6512;-0.3080;
783.0000;0.6536;-0.3009;
783.3000;0.6520;-0.3056;
783.6000;0.6520;-0.3104;
783.9000;0.6528;-0.3080;
784.2000;0.6520;-0.3151;
784.5000;0.6528;-0.3151;
784.8000;0.6512;-0.3175;
785.1000;0.6528;-0.3127;
785.4000;0.6512;-0.3199;
785.7000;0.6504;-0.3293;
786.0000;0.6512;-0.3317;
786.3000;0.6504;-0.3246;
786.6000;0.6488;-0.3175;
786.9000;0.6512;-0.3127;
787.2000;0.6479;-0.3199;
787.5000;0.6520;-0.3127;
787.8000;0.6512;-0.3175;
788.1000;0.6439;-0.3435;
788.4000;0.6496;-0.3317;
788.7000;0.6504;-0.3364;
789.0000;0.6520;-0.3435;
789.3000;0.6512;-0.3412;
789.6000;0.6488;-0.3412;
789.9000;0.6455;-0.3507;
790.2000;0.6520;-0.3341;
790.5000;0.6536;-0.3222;
790.8000;0.6488;-0.3364;
791.1000;0.6479;-0.3388;
791.4000;0.6488;-0.3317;
791.7000;0.6488;-0.3270;
792.0000;0.6504;-0.3127;
792.3000;0.6496;-0.3104;
792.6000;0.6488;-0.3104;
792.9000;0.6496;-0.3009;
793.2000;0.6512;-0.2985;
793.5000;0.6471;-0.3033;
793.8000;0.6488;-0.3009;
794.1000;0.6479;-0.3033;
794.4000;0.6488;-0.3080;
794.7000;0.6471;-0.3127;
795.0000;0.6496;-0.2985;
795.3000;0.6479;-0.3127;
795.6000;0.6479;-0.3080;
795.9000;0.6479;-0.3104;
796.2000;0.6488;-0.3080;
796.5000;0.6471;-0.3080;
796.8000;0.6479;-0.2985;
797.1000;0.6496;-0.3056;
797.4000;0.6463;-0.3175;
797.7000;0.6479;-0.3127;
798.0000;0.6455;-0.3151;
798.3000;0.6512;-0.3009;
798.6000;0.6455;-0.3127;
798.9000;0.6463;-0.3080;
799.2000;0.6463;-0.2985;
799.5000;0.6471;-0.2938;
799.8000;0.6463;-0.2985;
800.1000;0.6463;-0.3033;
800.4000;0.6471;-0.3080;
800.7000;0.6463;-0.3104;
801.0000;0.6471;-0.3104;
801.3000;0.6447;-0.3104;
801.6000;0.6414;-0.3199;
801.9000;0.6447;-0.3127;
802.2000;0.6447;-0.3175;
802.5000;0.6431;-0.3199;
802.8000;0.6447;-0.3246;
803.1000;0.6447;-0.3246;
803.4000;0.6447;-0.3199;
803.7000;0.6463;-0.3199;
804.0000;0.6479;-0.3151;
804.3000;0.6447;-0.3270;
804.6000;0.6463;-0.3341;
804.9000;0.6439;-0.3341;
805.2000;0.6455;-0.3199;
805.5000;0.6496;-0.3151;
805.8000;0.6455;-0.3270;
806.1000;0.6447;-0.3151;
806.4000;0.6455;-0.3104;
806.7000;0.6455;-0.3127;
807.0000;0.6439;-0.3199;
807.3000;0.6447;-0.3199;
807.6000;0.6439;-0.3104;
807.9000;0.6439;-0.3080;
808.2000;0.6439;-0.3151;
808.5000;0.6439;-0.3127;
808.8000;0.6439;-0.3056;
809.1000;0.6463;-0.3033;
809.4000;0.6455;-0.3056;
809.7000;0.6463;-0.3080;
810.0000;0.6439;-0.3127;
810.3000;0.6447;-0.3080;
810.6000;0.6406;-0.3127;
810.9000;0.6382;-0.3222;
811.2000;0.6431;-0.3127;
811.5000;0.6382;-0.3175;
811.8000;0.6431;-0.3127;
812.1000;0.6447;-0.3104;
812.4000;0.6479;-0.3151;
812.7000;0.6406;-0.3199;
813.0000;0.6422;-0.3222;
813.3000;0.6431;-0.3222;
813.6000;0.6455;-0.3199;
813.9000;0.6488;-0.3127;
814.2000;0.6422;-0.3270;
814.5000;0.6431;-0.3151;
814.8000;0.6431;-0.3199;
815.1000;0.6431;-0.3175;
815.4000;0.6422;-0.3222;
815.7000;0.6422;-0.3293;
816.0000;0.6439;-0.3293;
816.3000;0.6406;-0.3364;
816.6000;0.6422;-0.3246;
816.9000;0.6414;-0.3293;
817.2000;0.6414;-0.3175;
817.5000;0.6406;-0.3222;
817.8000;0.6422;-0.3293;
818.1000;0.6414;-0.3317;
818.4000;0.6382;-0.3293;
818.7000;0.6414;-0.3104;
819.0000;0.6422;-0.3033;
819.3000;0.6414;-0.3056;
819.6000;0.6422;-0.2962;
819.9000;0.6414;-0.2914;
820.2000;0.6406;-0.2843;
820.5000;0.6431;-0.2914;
820.8000;0.6431;-0.3009;
821.1000;0.6447;-0.2985;
821.4000;0.6431;-0.3009;
821.7000;0.6398;-0.3080;
822.0000;0.6414;-0.2985;
822.3000;0.6406;-0.3080;
822.6000;0.6439;-0.3009;
822.9000;0.6406;-0.3033;
823.2000;0.6414;-0.3151;
823.5000;0.6398;-0.3080;
823.8000;0.6406;-0.2985;
824.1000;0.6406;-0.2938;
824.4000;0.6414;-0.2914;
824.7000;0.6422;-0.2938;
825.0000;0.6398;-0.2962;
825.3000;0.6439;-0.2914;
825.6000;0.6398;-0.2962;
825.9000;0.6398;-0.2985;
826.2000;0.6422;-0.2867;
826.5000;0.6406;-0.2819;
826.8000;0.6414;-0.2843;
827.1000;0.6431;-0.2725;
827.4000;0.6357;-0.2891;
827.7000;0.6390;-0.2796;
828.0000;0.6382;-0.2796;
828.3000;0.6398;-0.2867;
828.6000;0.6406;-0.3009;
828.9000;0.6431;-0.2914;
829.2000;0.6341;-0.3104;
829.5000;0.6496;-0.2701;
829.8000;0.6398;-0.2985;
830.1000;0.6422;-0.2985;
830.4000;0.6431;-0.2985;
830.7000;0.6398;-0.3009;
831.0000;0.6398;-0.2938;
831.3000;0.6406;-0.2985;
831.6000;0.6406;-0.3009;
831.9000;0.6422;-0.2985;
832.2000;0.6365;-0.3104;
832.5000;0.6390;-0.3080;
832.8000;0.6406;-0.2938;
833.1000;0.6357;-0.3056;
833.4000;0.6382;-0.2985;
833.7000;0.6382;-0.2938;
834.0000;0.6374;-0.2938;
834.3000;0.6374;-0.2914;
834.6000;0.6365;-0.2962;
834.9000;0.6390;-0.2867;
835.2000;0.6341;-0.3033;
835.5000;0.6382;-0.3009;
835.8000;0.6398;-0.2962;
836.1000;0.6406;-0.2891;
836.4000;0.6414;-0.2914;
836.7000;0.6406;-0.2938;
837.0000;0.6398;-0.2938;
837.3000;0.6390;-0.2985;
837.6000;0.6390;-0.2985;
837.9000;0.6390;-0.2914;
838.2000;0.6382;-0.2891;
838.5000;0.6374;-0.2914;
838.8000;0.6374;-0.2843;
839.1000;0.6365;-0.2914;
839.4000;0.6365;-0.3033;
839.7000;0.6406;-0.2962;
840.0000;0.6365;-0.3080;
840.3000;0.6382;-0.3033;
840.6000;0.6374;-0.3033;
840.9000;0.6365;-0.3080;
841.2000;0.6382;-0.2985;
841.5000;0.6390;-0.2938;
841.8000;0.6382;-0.2938;
842.1000;0.6374;-0.2891;
842.4000;0.6382;-0.2819;
842.7000;0.6365;-0.2938;
843.0000;0.6365;-0.3033;
843.3000;0.6382;-0.3009;
843.6000;0.6357;-0.3104;
843.9000;0.6374;-0.3080;
844.2000;0.6382;-0.3033;
844.5000;0.6374;-0.3033;
844.8000;0.6374;-0.2962;
845.1000;0.6374;-0.2962;
845.4000;0.6422;-0.2748;
845.7000;0.6341;-0.2891;
846.0000;0.6365;-0.2867;
846.3000;0.6390;-0.2843;
846.6000;0.6374;-0.2843;
846.9000;0.6382;-0.2914;
847.2000;0.6374;-0.3033;
847.5000;0.6374;-0.3104;
847.8000;0.6365;-0.2985;
848.1000;0.6374;-0.2914;
848.4000;0.6382;-0.2938;
848.7000;0.6317;-0.3056;
849.0000;0.6365;-0.2914;
849.3000;0.6447;-0.2630;
849.6000;0.6357;-0.2914;
849.9000;0.6365;-0.2867;
850.2000;0.6349;-0.2819;
850.5000;0.6365;-0.2725;
850.8000;0.6365;-0.2843;
851.1000;0.6374;-0.2891;
851.4000;0.6349;-0.2891;
851.7000;0.6365;-0.2772;
852.0000;0.6309;-0.2796;
852.3000;0.6300;-0.2819;
852.6000;0.6357;-0.2748;
852.9000;0.6357;-0.2748;
853.2000;0.6341;-0.2725;
853.5000;0.6374;-0.2748;
853.8000;0.6365;-0.2772;
854.1000;0.6357;-0.2819;
854.4000;0.6357;-0.2843;
854.7000;0.6374;-0.2843;
855.0000;0.6349;-0.2891;
855.3000;0.6325;-0.2867;
855.6000;0.6333;-0.2796;
855.9000;0.6349;-0.2867;
856.2000;0.6349;-0.2891;
856.5000;0.6341;-0.2891;
856.8000;0.6349;-0.2843;
857.1000;0.6349;-0.2843;
857.4000;0.6333;-0.2914;
857.7000;0.6349;-0.2843;
858.0000;0.6333;-0.2867;
858.3000;0.6349;-0.2796;
858.6000;0.6357;-0.2796;
858.9000;0.6357;-0.2796;
859.2000;0.6349;-0.2938;
859.5000;0.6341;-0.3009;
859.8000;0.6333;-0.3009;
860.1000;0.6317;-0.3009;
860.4000;0.6349;-0.2843;
860.7000;0.6341;-0.2819;
861.0000;0.6325;-0.2867;
861.3000;0.6341;-0.2772;
861.6000;0.6325;-0.2772;
861.9000;0.6325;-0.2843;
862.2000;0.6325;-0.2867;
862.5000;0.6333;-0.2843;
862.8000;0.6317;-0.2843;
863.1000;0.6333;-0.2677;
863.4000;0.6357;-0.2583;
863.7000;0.6365;-0.2630;
864.0000;0.6349;-0.2654;
864.3000;0.6357;-0.2630;
864.6000;0.6349;-0.2630;
864.9000;0.6357;-0.2606;
865.2000;0.6374;-0.2559;
865.5000;0.6349;-0.2583;
865.8000;0.6325;-0.2630;
866.1000;0.6349;-0.2701;
866.4000;0.6349;-0.2606;
866.7000;0.6333;-0.2654;
867.0000;0.6333;-0.2583;
867.3000;0.6341;-0.2606;
867.6000;0.6333;-0.2511;
867.9000;0.6341;-0.2535;
868.2000;0.6317;-0.2630;
868.5000;0.6357;-0.2606;
868.8000;0.6333;-0.2654;
869.1000;0.6349;-0.2606;
869.4000;0.6382;-0.2630;
869.7000;0.6349;-0.2748;
870.0000;0.6349;-0.2725;
870.3000;0.6382;-0.2535;
870.6000;0.6333;-0.2772;
870.9000;0.6325;-0.2843;
871.2000;0.6325;-0.2867;
871.5000;0.6317;-0.2819;
871.8000;0.6309;-0.2867;
872.1000;0.6309;-0.2867;
872.4000;0.6349;-0.2701;
872.7000;0.6333;-0.2748;
873.0000;0.6341;-0.2654;
873.3000;0.6333;-0.2748;
873.6000;0.6260;-0.2843;
873.9000;0.6317;-0.2630;
874.2000;0.6357;-0.2630;
874.5000;0.6357;-0.2654;
874.8000;0.6341;-0.2796;
875.1000;0.6341;-0.2725;
875.4000;0.6325;-0.2843;
875.7000;0.6325;-0.2843;
876.0000;0.6309;-0.2985;
876.3000;0.6300;-0.3033;
876.6000;0.6325;-0.2938;
876.9000;0.6309;-0.2962;
877.2000;0.6317;-0.2962;
877.5000;0.6341;-0.2938;
877.8000;0.6333;-0.2914;
878.1000;0.6333;-0.2867;
878.4000;0.6325;-0.2962;
878.7000;0.6317;-0.2938;
879.0000;0.6325;-0.2819;
879.3000;0.6341;-0.2843;
879.6000;0.6333;-0.2867;
879.9000;0.6325;-0.2843;
880.2000;0.6317;-0.2748;
880.5000;0.6325;-0.2725;
880.8000;0.6325;-0.2772;
881.1000;0.6309;-0.2819;
881.4000;0.6325;-0.2819;
881.7000;0.6284;-0.2867;
882.0000;0.6300;-0.2819;
882.3000;0.6309;-0.2796;
882.6000;0.6317;-0.2843;
882.9000;0.6252;-0.3033;
883.2000;0.6317;-0.2819;
883.5000;0.6317;-0.2819;
883.8000;0.6333;-0.2748;
884.1000;0.6325;-0.2772;
884.4000;0.6325;-0.2748;
884.7000;0.6309;-0.2725;
885.0000;0.6357;-0.2606;
885.3000;0.6300;-0.2748;
885.6000;0.6309;-0.2701;
885.9000;0.6300;-0.2701;
886.2000;0.6292;-0.2796;
886.5000;0.6300;-0.2843;
886.8000;0.6292;-0.2867;
887.1000;0.6300;-0.2891;
887.4000;0.6284;-0.2843;
887.7000;0.6309;-0.2796;
888.0000;0.6317;-0.2748;
888.3000;0.6309;-0.2772;
888.6000;0.6292;-0.2772;
888.9000;0.6317;-0.2772;
889.2000;0.6325;-0.2701;
889.5000;0.6325;-0.2654;
889.8000;0.6309;-0.2654;
890.1000;0.6300;-0.2725;
890.4000;0.6317;-0.2796;
890.7000;0.6309;-0.2796;
891.0000;0.6300;-0.2796;
891.3000;0.6300;-0.2843;
891.6000;0.6284;-0.2843;
891.9000;0.6292;-0.2843;
892.2000;0.6284;-0.2891;
892.5000;0.6284;-0.2772;
892.8000;0.6292;-0.2772;
893.1000;0.6309;-0.2748;
893.4000;0.6325;-0.2654;
893.7000;0.6284;-0.2654;
894.0000;0.6284;-0.2630;
894.3000;0.6341;-0.2488;
894.6000;0.6309;-0.2630;
894.9000;0.6292;-0.2748;
895.2000;0.6300;-0.2677;
895.5000;0.6309;-0.2701;
895.8000;0.6292;-0.2748;
896.1000;0.6300;-0.2725;
896.4000;0.6284;-0.2796;
896.7000;0.6276;-0.2748;
897.0000;0.6325;-0.2677;
897.3000;0.6284;-0.2796;
897.6000;0.6276;-0.2962;
897.9000;0.6300;-0.2962;
898.2000;0.6300;-0.2985;
898.5000;0.6276;-0.2985;
898.8000;0.6227;-0.3080;
899.1000;0.6276;-0.2938;
899.4000;0.6284;-0.2962;
899.7000;0.6300;-0.2914;
900.0000;0.6276;-0.2914;
900.3000;0.6276;-0.2796;
900.6000;0.6276;-0.2701;
900.9000;0.6227;-0.2796;
901.2000;0.6309;-0.2630;
901.5000;0.6292;-0.2677;
901.8000;0.6292;-0.2654;
902.1000;0.6341;-0.2559;
902.4000;0.6276;-0.2772;
902.7000;0.6276;-0.2701;
903.0000;0.6292;-0.2654;
903.3000;0.6276;-0.2654;
903.6000;0.6268;-0.2677;
903.9000;0.6268;-0.2701;
904.2000;0.6276;-0.2630;
904.5000;0.6284;-0.2654;
904.8000;0.6276;-0.2701;
905.1000;0.6309;-0.2654;
905.4000;0.6276;-0.2701;
905.7000;0.6268;-0.2654;
906.0000;0.6276;-0.2654;
906.3000;0.6333;-0.2654;
906.6000;0.6292;-0.2748;
906.9000;0.6276;-0.2819;
907.2000;0.6284;-0.2748;
907.5000;0.6268;-0.2772;
907.8000;0.6268;-0.2819;
908.1000;0.6268;-0.2962;
908.4000;0.6260;-0.2938;
908.7000;0.6268;-0.2938;
909.0000;0.6260;-0.3009;
909.3000;0.6260;-0.2938;
909.6000;0.6243;-0.3009;
909.9000;0.6276;-0.2962;
910.2000;0.6260;-0.3009;
910.5000;0.6268;-0.3080;
910.8000;0.6276;-0.3104;
911.1000;0.6276;-0.3199;
911.4000;0.6276;-0.3246;
911.7000;0.6276;-0.3175;
912.0000;0.6292;-0.3080;
912.3000;0.6260;-0.3056;
912.6000;0.6276;-0.3056;
912.9000;0.6260;-0.3056;
913.2000;0.6235;-0.3104;
913.5000;0.6260;-0.2962;
913.8000;0.6268;-0.2985;
914.1000;0.6276;-0.2962;
914.4000;0.6300;-0.2891;
914.7000;0.6268;-0.2843;
915.0000;0.6292;-0.2796;
915.3000;0.6276;-0.2772;
915.6000;0.6252;-0.2677;
915.9000;0.6268;-0.2677;
916.2000;0.6268;-0.2725;
916.5000;0.6292;-0.2748;
916.8000;0.6268;-0.2867;
917.1000;0.6260;-0.2867;
917.4000;0.6276;-0.2819;
917.7000;0.6300;-0.2748;
918.0000;0.6243;-0.2938;
918.3000;0.6268;-0.2867;
918.6000;0.6325;-0.2701;
918.9000;0.6284;-0.2748;
919.2000;0.6284;-0.2725;
919.5000;0.6268;-0.2819;
919.8000;0.6260;-0.2843;
920.1000;0.6268;-0.2819;
920.4000;0.6260;-0.2796;
920.7000;0.6260;-0.2796;
921.0000;0.6268;-0.2701;
921.3000;0.6276;-0.2630;
921.6000;0.6268;-0.2725;
921.9000;0.6235;-0.2796;
922.2000;0.6235;-0.2867;
922.5000;0.6268;-0.2725;
922.8000;0.6252;-0.2772;
923.1000;0.6268;-0.2843;
923.4000;0.6260;-0.2843;
923.7000;0.6260;-0.2867;
924.0000;0.6292;-0.2725;
924.3000;0.6268;-0.2772;
924.6000;0.6276;-0.2725;
924.9000;0.6260;-0.2772;
925.2000;0.6243;-0.2819;
925.5000;0.6260;-0.2606;
925.8000;0.6284;-0.2535;
926.1000;0.6276;-0.2606;
926.4000;0.6268;-0.2654;
926.7000;0.6260;-0.2606;
927.0000;0.6252;-0.2630;
927.3000;0.6317;-0.2535;
927.6000;0.6252;-0.2796;
927.9000;0.6357;-0.2630;
928.2000;0.6260;-0.2843;
928.5000;0.6252;-0.2819;
928.8000;0.6276;-0.2867;
929.1000;0.6243;-0.2891;
929.4000;0.6243;-0.2772;
929.7000;0.6178;-0.2938;
930.0000;0.6243;-0.2891;
930.3000;0.6276;-0.2891;
930.6000;0.6252;-0.2914;
930.9000;0.6260;-0.2843;
931.2000;0.6203;-0.2985;
931.5000;0.6243;-0.2819;
931.8000;0.6252;-0.2796;
932.1000;0.6235;-0.2867;
932.4000;0.6252;-0.2819;
932.7000;0.6260;-0.2748;
933.0000;0.6268;-0.2748;
933.3000;0.6252;-0.2796;
933.6000;0.6252;-0.2796;
933.9000;0.6260;-0.2748;
934.2000;0.6243;-0.2867;
934.5000;0.6276;-0.2796;
934.8000;0.6260;-0.2914;
935.1000;0.6252;-0.2891;
935.4000;0.6276;-0.2843;
935.7000;0.6252;-0.2701;
936.0000;0.6252;-0.2654;
936.3000;0.6219;-0.2725;
936.6000;0.6300;-0.2511;
936.9000;0.6260;-0.2654;
937.2000;0.6219;-0.2819;
937.5000;0.6252;-0.2701;
937.8000;0.6252;-0.2772;
938.1000;0.6252;-0.2772;
938.4000;0.6243;-0.2819;
938.7000;0.6243;-0.2843;
939.0000;0.6243;-0.2748;
939.3000;0.6260;-0.2630;
939.6000;0.6243;-0.2725;
939.9000;0.6235;-0.2701;
940.2000;0.6235;-0.2701;
940.5000;0.6252;-0.2654;
940.8000;0.6243;-0.2677;
941.1000;0.6235;-0.2701;
941.4000;0.6227;-0.2677;
941.7000;0.6243;-0.2606;
942.0000;0.6219;-0.2677;
942.3000;0.6235;-0.2630;
942.6000;0.6268;-0.2583;
942.9000;0.6235;-0.2725;
943.2000;0.6260;-0.2654;
943.5000;0.6341;-0.2464;
943.8000;0.6219;-0.2867;
944.1000;0.6243;-0.2748;
944.4000;0.6276;-0.2654;
944.7000;0.6243;-0.2725;
945.0000;0.6227;-0.2748;
945.3000;0.6219;-0.2772;
945.6000;0.6235;-0.2772;
945.9000;0.6243;-0.2748;
946.2000;0.6252;-0.2583;
946.5000;0.6121;-0.2819;
946.8000;0.6227;-0.2606;
947.1000;0.6252;-0.2535;
947.4000;0.6252;-0.2606;
947.7000;0.6235;-0.2488;
948.0000;0.6235;-0.2511;
948.3000;0.6235;-0.2559;
948.6000;0.6252;-0.2606;
948.9000;0.6211;-0.2701;
949.2000;0.6219;-0.2630;
949.5000;0.6243;-0.2630;
949.8000;0.6243;-0.2677;
950.1000;0.6219;-0.2819;
950.4000;0.6219;-0.2891;
950.7000;0.6219;-0.2891;
951.0000;0.6235;-0.2843;
951.3000;0.6227;-0.2867;
951.6000;0.6235;-0.2938;
951.9000;0.6227;-0.2914;
952.2000;0.6243;-0.2819;
952.5000;0.6243;-0.2796;
952.8000;0.6243;-0.2701;
953.1000;0.6235;-0.2748;
953.4000;0.6243;-0.2701;
953.7000;0.6243;-0.2748;
954.0000;0.6219;-0.2867;
954.3000;0.6219;-0.2938;
954.6000;0.6235;-0.2914;
954.9000;0.6227;-0.2867;
955.2000;0.6219;-0.2843;
955.5000;0.6219;-0.2677;
955.8000;0.6219;-0.2725;
956.1000;0.6227;-0.2796;
956.4000;0.6243;-0.2891;
956.7000;0.6284;-0.2772;
957.0000;0.6227;-0.3009;
957.3000;0.6227;-0.3033;
957.6000;0.6252;-0.2985;
957.9000;0.6235;-0.2938;
958.2000;0.6235;-0.2962;
958.5000;0.6219;-0.3009;
958.8000;0.6235;-0.3009;
959.1000;0.6235;-0.2962;
959.4000;0.6227;-0.3009;
959.7000;0.6252;-0.2914;
960.0000;0.6227;-0.3009;
960.3000;0.6203;-0.3033;
960.6000;0.6300;-0.2796;
960.9000;0.6227;-0.2914;
961.2000;0.6203;-0.2867;
961.5000;0.6227;-0.2796;
961.8000;0.6227;-0.2748;
962.1000;0.6219;-0.2772;
962.4000;0.6211;-0.2819;
962.7000;0.6284;-0.2654;
963.0000;0.6186;-0.2914;
963.3000;0.6195;-0.2772;
963.6000;0.6235;-0.2606;
963.9000;0.6211;-0.2654;
964.2000;0.6203;-0.2701;
964.5000;0.6227;-0.2630;
964.8000;0.6211;-0.2677;
965.1000;0.6227;-0.2701;
965.4000;0.6235;-0.2725;
965.7000;0.6268;-0.2630;
966.0000;0.6211;-0.2701;
966.3000;0.6219;-0.2654;
966.6000;0.6235;-0.2606;
966.9000;0.6211;-0.2654;
967.2000;0.6219;-0.2654;
967.5000;0.6203;-0.2725;
967.8000;0.6211;-0.2630;
968.1000;0.6219;-0.2606;
968.4000;0.6276;-0.2440;
968.7000;0.6203;-0.2583;
969.0000;0.6219;-0.2464;
969.3000;0.6227;-0.2606;
969.6000;0.6235;-0.2583;
969.9000;0.6219;-0.2630;
970.2000;0.6219;-0.2535;
970.5000;0.6219;-0.2511;
970.8000;0.6227;-0.2488;
971.1000;0.6211;-0.2511;
971.4000;0.6219;-0.2583;
971.7000;0.6227;-0.2606;
972.0000;0.6203;-0.2559;
972.3000;0.6219;-0.2559;
972.6000;0.6235;-0.2535;
972.9000;0.6227;-0.2559;
973.2000;0.6211;-0.2511;
973.5000;0.6211;-0.2583;
973.8000;0.6211;-0.2559;
974.1000;0.6203;-0.2559;
974.4000;0.6211;-0.2583;
974.7000;0.6219;-0.2701;
975.0000;0.6211;-0.2748;
975.3000;0.6162;-0.2938;
975.6000;0.6219;-0.2772;
975.9000;0.6211;-0.2677;
976.2000;0.6154;-0.2843;
976.5000;0.6195;-0.2748;
976.8000;0.6211;-0.2701;
977.1000;0.6211;-0.2725;
977.4000;0.6219;-0.2772;
977.7000;0.6219;-0.2819;
978.0000;0.6219;-0.2819;
978.3000;0.6219;-0.2796;
978.6000;0.6211;-0.2701;
978.9000;0.6203;-0.2606;
979.2000;0.6219;-0.2535;
979.5000;0.6227;-0.2511;
979.8000;0.6211;-0.2535;
980.1000;0.6227;-0.2535;
980.4000;0.6219;-0.2583;
980.7000;0.6211;-0.2701;
981.0000;0.6211;-0.2725;
981.3000;0.6195;-0.2748;
981.6000;0.6227;-0.2630;
981.9000;0.6219;-0.2606;
982.2000;0.6211;-0.2559;
982.5000;0.6203;-0.2583;
982.8000;0.6211;-0.2559;
983.1000;0.6219;-0.2559;
983.4000;0.6203;-0.2535;
983.7000;0.6211;-0.2583;
984.0000;0.6203;-0.2701;
984.3000;0.6235;-0.2677;
984.6000;0.6195;-0.2748;
984.9000;0.6211;-0.2677;
985.2000;0.6211;-0.2677;
985.5000;0.6195;-0.2725;
985.8000;0.6203;-0.2654;
986.1000;0.6154;-0.2725;
986.4000;0.6186;-0.2606;
986.7000;0.6195;-0.2606;
987.0000;0.6243;-0.2511;
987.3000;0.6219;-0.2630;
987.6000;0.6178;-0.2725;
987.9000;0.6211;-0.2654;
988.2000;0.6211;-0.2654;
988.5000;0.6219;-0.2630;
988.8000;0.6227;-0.2583;
989.1000;0.6146;-0.2748;
989.4000;0.6211;-0.2606;
989.7000;0.6211;-0.2654;
990.0000;0.6211;-0.2630;
990.3000;0.6219;-0.2677;
990.6000;0.6203;-0.2796;
990.9000;0.6211;-0.2819;
991.2000;0.6195;-0.2772;
991.5000;0.6154;-0.2914;
991.8000;0.6203;-0.2748;
992.1000;0.6203;-0.2772;
992.4000;0.6211;-0.2701;
992.7000;0.6203;-0.2654;
993.0000;0.6219;-0.2654;
993.3000;0.6211;-0.2772;
993.6000;0.6203;-0.2891;
993.9000;0.6203;-0.2914;
994.2000;0.6195;-0.2914;
994.5000;0.6203;-0.2914;
994.8000;0.6211;-0.2938;
995.1000;0.6211;-0.2867;
995.4000;0.6227;-0.2914;
995.7000;0.6219;-0.2891;
996.0000;0.6219;-0.2843;
996.3000;0.6195;-0.2891;
996.6000;0.6203;-0.2772;
996.9000;0.6186;-0.2725;
997.2000;0.6195;-0.2654;
997.5000;0.6195;-0.2748;
997.8000;0.6203;-0.2654;
998.1000;0.6203;-0.2772;
998.4000;0.6195;-0.2796;
998.7000;0.6203;-0.2654;
999.0000;0.6195;-0.2559;
999.3000;0.6203;-0.2559;
999.6000;0.6203;-0.2511;
999.9000;0.6186;-0.2511;
1000.2000;0.6195;-0.2511;
1000.5000;0.6195;-0.2464;
1000.8000;0.6211;-0.2464;
1001.1000;0.6211;-0.2559;
1001.4000;0.6203;-0.2583;
1001.7000;0.6186;-0.2677;
1002.0000;0.6186;-0.2772;
1002.3000;0.6138;-0.2962;
1002.6000;0.6243;-0.2677;
1002.9000;0.6186;-0.2701;
1003.2000;0.6186;-0.2796;
1003.5000;0.6178;-0.2819;
1003.8000;0.6162;-0.2796;
1004.1000;0.6186;-0.2701;
1004.4000;0.6162;-0.2772;
1004.7000;0.6178;-0.2606;
1005.0000;0.6186;-0.2606;
1005.3000;0.6195;-0.2583;
1005.6000;0.6195;-0.2654;
1005.9000;0.6203;-0.2583;
1006.2000;0.6211;-0.2417;
1006.5000;0.6211;-0.2440;
1006.8000;0.6203;-0.2559;
1007.1000;0.6178;-0.2654;
1007.4000;0.6203;-0.2654;
1007.7000;0.6138;-0.2796;
1008.0000;0.6170;-0.2701;
1008.3000;0.6268;-0.2464;
1008.6000;0.6162;-0.2772;
1008.9000;0.6211;-0.2725;
1009.2000;0.6178;-0.2701;
1009.5000;0.6211;-0.2630;
1009.8000;0.6186;-0.2606;
1010.1000;0.6186;-0.2677;
1010.4000;0.6178;-0.2583;
1010.7000;0.6195;-0.2488;
1011.0000;0.6186;-0.2511;
1011.3000;0.6203;-0.2322;
1011.6000;0.6211;-0.2298;
1011.9000;0.6211;-0.2346;
1012.2000;0.6186;-0.2417;
1012.5000;0.6186;-0.2417;
1012.8000;0.6195;-0.2464;
1013.1000;0.6178;-0.2583;
1013.4000;0.6195;-0.2583;
1013.7000;0.6203;-0.2630;
1014.0000;0.6186;-0.2725;
1014.3000;0.6178;-0.2701;
1014.6000;0.6235;-0.2535;
1014.9000;0.6186;-0.2654;
1015.2000;0.6195;-0.2535;
1015.5000;0.6195;-0.2511;
1015.8000;0.6195;-0.2583;
1016.1000;0.6203;-0.2583;
1016.4000;0.6195;-0.2535;
1016.7000;0.6195;-0.2583;
1017.0000;0.6203;-0.2606;
1017.3000;0.6195;-0.2630;
1017.6000;0.6186;-0.2748;
1017.9000;0.6227;-0.2583;
1018.2000;0.6178;-0.2725;
1018.5000;0.6162;-0.2677;
1018.8000;0.6129;-0.2772;
1019.1000;0.6195;-0.2583;
1019.4000;0.6178;-0.2630;
1019.7000;0.6178;-0.2535;
1020.0000;0.6186;-0.2440;
1020.3000;0.6154;-0.2583;
1020.6000;0.6186;-0.2535;
1020.9000;0.6138;-0.2559;
1021.2000;0.6178;-0.2488;
1021.5000;0.6195;-0.2464;
1021.8000;0.6195;-0.2488;
1022.1000;0.6203;-0.2511;
1022.4000;0.6195;-0.2488;
1022.7000;0.6195;-0.2535;
1023.0000;0.6195;-0.2464;
1023.3000;0.6276;-0.2346;
1023.6000;0.6186;-0.2535;
1023.9000;0.6186;-0.2630;
1024.2000;0.6170;-0.2535;
1024.5000;0.6178;-0.2511;
1024.8000;0.6195;-0.2488;
1025.1000;0.6186;-0.2559;
1025.4000;0.6211;-0.2511;
1025.7000;0.6243;-0.2511;
1026.0000;0.6186;-0.2701;
1026.3000;0.6195;-0.2630;
1026.6000;0.6186;-0.2725;
1026.9000;0.6203;-0.2654;
1027.2000;0.6170;-0.2654;
1027.5000;0.6170;-0.2535;
1027.8000;0.6178;-0.2583;
1028.1000;0.6178;-0.2630;
1028.4000;0.6121;-0.2748;
1028.7000;0.6170;-0.2606;
1029.0000;0.6186;-0.2511;
1029.3000;0.6170;-0.2535;
1029.6000;0.6178;-0.2488;
1029.9000;0.6203;-0.2440;
1030.2000;0.6178;-0.2511;
1030.5000;0.6195;-0.2440;
1030.8000;0.6162;-0.2464;
1031.1000;0.6170;-0.2393;
1031.4000;0.6252;-0.2251;
1031.7000;0.6186;-0.2346;
1032.0000;0.6195;-0.2322;
1032.3000;0.6186;-0.2322;
1032.6000;0.6211;-0.2275;
1032.9000;0.6211;-0.2322;
1033.2000;0.6195;-0.2417;
1033.5000;0.6186;-0.2440;
1033.8000;0.6178;-0.2464;
1034.1000;0.6227;-0.2417;
1034.4000;0.6154;-0.2583;
1034.7000;0.6154;-0.2654;
1035.0000;0.6178;-0.2654;
1035.3000;0.6162;-0.2772;
1035.6000;0.6195;-0.2701;
1035.9000;0.6162;-0.2677;
1036.2000;0.6178;-0.2677;
1036.5000;0.6186;-0.2630;
1036.8000;0.6195;-0.2488;
1037.1000;0.6235;-0.2393;
1037.4000;0.6178;-0.2511;
1037.7000;0.6178;-0.2488;
1038.0000;0.6219;-0.2464;
1038.3000;0.6178;-0.2630;
1038.6000;0.6211;-0.2583;
1038.9000;0.6186;-0.2630;
1039.2000;0.6211;-0.2677;
1039.5000;0.6113;-0.2819;
1039.8000;0.6195;-0.2748;
1040.1000;0.6195;-0.2725;
1040.4000;0.6170;-0.2748;
1040.7000;0.6186;-0.2725;
1041.0000;0.6170;-0.2772;
1041.3000;0.6178;-0.2796;
1041.6000;0.6162;-0.2725;
1041.9000;0.6170;-0.2654;
1042.2000;0.6186;-0.2654;
1042.5000;0.6243;-0.2559;
1042.8000;0.6097;-0.2843;
1043.1000;0.6178;-0.2535;
1043.4000;0.6186;-0.2464;
1043.7000;0.6186;-0.2535;
1044.0000;0.6105;-0.2796;
1044.3000;0.6178;-0.2654;
1044.6000;0.6203;-0.2606;
1044.9000;0.6227;-0.2488;
1045.2000;0.6170;-0.2559;
1045.5000;0.6170;-0.2583;
1045.8000;0.6178;-0.2511;
1046.1000;0.6178;-0.2559;
1046.4000;0.6186;-0.2559;
1046.7000;0.6186;-0.2511;
1047.0000;0.6178;-0.2464;
1047.3000;0.6252;-0.2227;
1047.6000;0.6186;-0.2369;
1047.9000;0.6219;-0.2369;
1048.2000;0.6162;-0.2464;
1048.5000;0.6186;-0.2464;
1048.8000;0.6195;-0.2440;
1049.1000;0.6178;-0.2393;
1049.4000;0.6178;-0.2417;
1049.7000;0.6178;-0.2417;
1050.0000;0.6162;-0.2417;
1050.3000;0.6162;-0.2369;
1050.6000;0.6178;-0.2369;
1050.9000;0.6170;-0.2440;
1051.2000;0.6138;-0.2535;
1051.5000;0.6195;-0.2393;
1051.8000;0.6154;-0.2464;
1052.1000;0.6178;-0.2488;
1052.4000;0.6195;-0.2488;
1052.7000;0.6186;-0.2559;
1053.0000;0.6178;-0.2583;
1053.3000;0.6146;-0.2559;
1053.6000;0.6170;-0.2511;
1053.9000;0.6195;-0.2393;
1054.2000;0.6178;-0.2464;
1054.5000;0.6162;-0.2464;
1054.8000;0.6178;-0.2393;
1055.1000;0.6170;-0.2440;
1055.4000;0.6162;-0.2393;
1055.7000;0.6162;-0.2393;
1056.0000;0.6170;-0.2440;
1056.3000;0.6170;-0.2535;
1056.6000;0.6170;-0.2583;
1056.9000;0.6170;-0.2606;
1057.2000;0.6154;-0.2606;
1057.5000;0.6170;-0.2559;
1057.8000;0.6170;-0.2606;
1058.1000;0.6170;-0.2583;
1058.4000;0.6170;-0.2725;
1058.7000;0.6178;-0.2654;
1059.0000;0.6170;-0.2630;
1059.3000;0.6178;-0.2583;
1059.6000;0.6162;-0.2606;
1059.9000;0.6186;-0.2440;
1060.2000;0.6170;-0.2464;
1060.5000;0.6154;-0.2559;
1060.8000;0.6146;-0.2488;
1061.1000;0.6154;-0.2488;
1061.4000;0.6186;-0.2511;
1061.7000;0.6170;-0.2559;
1062.0000;0.6178;-0.2606;
1062.3000;0.6170;-0.2606;
1062.6000;0.6170;-0.2677;
1062.9000;0.6162;-0.2725;
1063.2000;0.6260;-0.2440;
1063.5000;0.6129;-0.2654;
1063.8000;0.6154;-0.2535;
1064.1000;0.6178;-0.2630;
1064.4000;0.6170;-0.2583;
1064.7000;0.6178;-0.2535;
1065.0000;0.6178;-0.2559;
1065.3000;0.6170;-0.2583;
1065.6000;0.6162;-0.2583;
1065.9000;0.6154;-0.2654;
1066.2000;0.6162;-0.2559;
1066.5000;0.6162;-0.2511;
1066.8000;0.6138;-0.2630;
1067.1000;0.6146;-0.2606;
1067.4000;0.6146;-0.2606;
1067.7000;0.6170;-0.2535;
1068.0000;0.6154;-0.2488;
1068.3000;0.6154;-0.2511;
1068.6000;0.6154;-0.2535;
1068.9000;0.6186;-0.2535;
1069.2000;0.6170;-0.2511;
1069.5000;0.6170;-0.2511;
1069.8000;0.6178;-0.2559;
1070.1000;0.6162;-0.2654;
1070.4000;0.6170;-0.2654;
1070.7000;0.6154;-0.2630;
1071.0000;0.6162;-0.2654;
1071.3000;0.6154;-0.2701;
1071.6000;0.6162;-0.2772;
1071.9000;0.6162;-0.2748;
1072.2000;0.6162;-0.2772;
1072.5000;0.6154;-0.2819;
1072.8000;0.6203;-0.2725;
1073.1000;0.6170;-0.2772;
1073.4000;0.6146;-0.2772;
1073.7000;0.6146;-0.2748;
1074.0000;0.6162;-0.2630;
1074.3000;0.6170;-0.2654;
1074.6000;0.6146;-0.2748;
1074.9000;0.6195;-0.2630;
1075.2000;0.6162;-0.2677;
1075.5000;0.6170;-0.2654;
1075.8000;0.6186;-0.2606;
1076.1000;0.6146;-0.2606;
1076.4000;0.6089;-0.2701;
1076.7000;0.6162;-0.2464;
1077.0000;0.6162;-0.2464;
1077.3000;0.6162;-0.2583;
1077.6000;0.6146;-0.2535;
1077.9000;0.6170;-0.2440;
1078.2000;0.6154;-0.2464;
1078.5000;0.6195;-0.2369;
1078.8000;0.6170;-0.2440;
1079.1000;0.6146;-0.2583;
1079.4000;0.6162;-0.2583;
1079.7000;0.6146;-0.2630;
1080.0000;0.6154;-0.2583;
1080.3000;0.6154;-0.2535;
1080.6000;0.6146;-0.2583;
1080.9000;0.6170;-0.2488;
1081.2000;0.6154;-0.2511;
1081.5000;0.6170;-0.2511;
1081.8000;0.6162;-0.2535;
1082.1000;0.6154;-0.2511;
1082.4000;0.6146;-0.2535;
1082.7000;0.6178;-0.2464;
1083.0000;0.6113;-0.2583;
1083.3000;0.6162;-0.2440;
1083.6000;0.6146;-0.2488;
1083.9000;0.6146;-0.2464;
1084.2000;0.6146;-0.2440;
1084.5000;0.6186;-0.2346;
1084.8000;0.6162;-0.2369;
1085.1000;0.6146;-0.2417;
1085.4000;0.6170;-0.2298;
1085.7000;0.6170;-0.2393;
1086.0000;0.6146;-0.2275;
1086.3000;0.6170;-0.2180;
1086.6000;0.6146;-0.2132;
1086.9000;0.6178;-0.2132;
1087.2000;0.6162;-0.2251;
1087.5000;0.6162;-0.2322;
1087.8000;0.6154;-0.2298;
1088.1000;0.6146;-0.2322;
1088.4000;0.6154;-0.2275;
1088.7000;0.6121;-0.2369;
1089.0000;0.6154;-0.2275;
1089.3000;0.6146;-0.2298;
1089.6000;0.6146;-0.2322;
1089.9000;0.6138;-0.2369;
1090.2000;0.6146;-0.2346;
1090.5000;0.6113;-0.2393;
1090.8000;0.6154;-0.2346;
1091.1000;0.6178;-0.2227;
1091.4000;0.6146;-0.2346;
1091.7000;0.6154;-0.2322;
1092.0000;0.6162;-0.2393;
1092.3000;0.6097;-0.2511;
1092.6000;0.6162;-0.2440;
1092.9000;0.6129;-0.2488;
1093.2000;0.6146;-0.2488;
1093.5000;0.6162;-0.2440;
1093.8000;0.6154;-0.2464;
1094.1000;0.6154;-0.2535;
1094.4000;0.6154;-0.2464;
1094.7000;0.6154;-0.2417;
1095.0000;0.6162;-0.2393;
1095.3000;0.6170;-0.2203;
1095.6000;0.6162;-0.2203;
1095.9000;0.6154;-0.2322;
1096.2000;0.6162;-0.2275;
1096.5000;0.6154;-0.2322;
1096.8000;0.6146;-0.2346;
1097.1000;0.6138;-0.2417;
1097.4000;0.6129;-0.2488;
1097.7000;0.6138;-0.2393;
1098.0000;0.6170;-0.2440;
1098.3000;0.6203;-0.2298;
1098.6000;0.6146;-0.2440;
1098.9000;0.6146;-0.2535;
1099.2000;0.6146;-0.2559;
1099.5000;0.6105;-0.2725;
1099.8000;0.6146;-0.2535;
1100.1000;0.6138;-0.2511;
1100.4000;0.6089;-0.2654;
1100.7000;0.6170;-0.2464;
1101.0000;0.6154;-0.2488;
1101.3000;0.6121;-0.2606;
1101.6000;0.6162;-0.2440;
1101.9000;0.6146;-0.2417;
1102.2000;0.6170;-0.2227;
1102.5000;0.6170;-0.2251;
1102.8000;0.6211;-0.2156;
1103.1000;0.6146;-0.2275;
1103.4000;0.6154;-0.2346;
1103.7000;0.6154;-0.2275;
1104.0000;0.6227;-0.2061;
1104.3000;0.6146;-0.2251;
1104.6000;0.6146;-0.2298;
1104.9000;0.6105;-0.2346;
1105.2000;0.6146;-0.2251;
1105.5000;0.6154;-0.2156;
1105.8000;0.6154;-0.2061;
1106.1000;0.6162;-0.2085;
1106.4000;0.6146;-0.2180;
1106.7000;0.6219;-0.1990;
1107.0000;0.6162;-0.2038;
1107.3000;0.6146;-0.2061;
1107.6000;0.6146;-0.2132;
1107.9000;0.6162;-0.2085;
1108.2000;0.6072;-0.2369;
1108.5000;0.6146;-0.2203;
1108.8000;0.6138;-0.2227;
1109.1000;0.6138;-0.2251;
1109.4000;0.6129;-0.2251;
1109.7000;0.6129;-0.2298;
1110.0000;0.6195;-0.2085;
1110.3000;0.6138;-0.2180;
1110.6000;0.6129;-0.2251;
1110.9000;0.6121;-0.2298;
1111.2000;0.6146;-0.2180;
1111.5000;0.6138;-0.2251;
1111.8000;0.6138;-0.2322;
1112.1000;0.6138;-0.2322;
1112.4000;0.6154;-0.2298;
1112.7000;0.6138;-0.2298;
1113.0000;0.6162;-0.2298;
1113.3000;0.6138;-0.2346;
1113.6000;0.6146;-0.2322;
1113.9000;0.6146;-0.2251;
1114.2000;0.6138;-0.2180;
1114.5000;0.6146;-0.2180;
1114.8000;0.6138;-0.2275;
1115.1000;0.6129;-0.2346;
1115.4000;0.6154;-0.2393;
1115.7000;0.6089;-0.2535;
1116.0000;0.6154;-0.2298;
1116.3000;0.6138;-0.2322;
1116.6000;0.6162;-0.2275;
1116.9000;0.6154;-0.2251;
1117.2000;0.6138;-0.2298;
1117.5000;0.6129;-0.2298;
1117.8000;0.6138;-0.2298;
1118.1000;0.6227;-0.2085;
1118.4000;0.6138;-0.2322;
1118.7000;0.6138;-0.2369;
1119.0000;0.6146;-0.2298;
1119.3000;0.6154;-0.2346;
1119.6000;0.6138;-0.2440;
1119.9000;0.6146;-0.2417;
1120.2000;0.6170;-0.2369;
1120.5000;0.6138;-0.2298;
1120.8000;0.6121;-0.2369;
1121.1000;0.6129;-0.2393;
1121.4000;0.6146;-0.2393;
1121.7000;0.6138;-0.2346;
1122.0000;0.6146;-0.2417;
1122.3000;0.6146;-0.2464;
1122.6000;0.6162;-0.2417;
1122.9000;0.6138;-0.2369;
1123.2000;0.6154;-0.2322;
1123.5000;0.6129;-0.2440;
1123.8000;0.6138;-0.2346;
1124.1000;0.6138;-0.2346;
1124.4000;0.6162;-0.2275;
1124.7000;0.6121;-0.2440;
1125.0000;0.6146;-0.2346;
1125.3000;0.6138;-0.2417;
1125.6000;0.6146;-0.2417;
1125.9000;0.6146;-0.2346;
1126.2000;0.6121;-0.2488;
1126.5000;0.6129;-0.2511;
1126.8000;0.6129;-0.2535;
1127.1000;0.6105;-0.2535;
1127.4000;0.6129;-0.2464;
1127.7000;0.6146;-0.2488;
1128.0000;0.6154;-0.2417;
1128.3000;0.6154;-0.2369;
1128.6000;0.6178;-0.2346;
1128.9000;0.6129;-0.2346;
1129.2000;0.6138;-0.2251;
1129.5000;0.6162;-0.2180;
1129.8000;0.6129;-0.2298;
1130.1000;0.6138;-0.2298;
1130.4000;0.6154;-0.2251;
1130.7000;0.6138;-0.2203;
1131.0000;0.6121;-0.2180;
1131.3000;0.6138;-0.2180;
1131.6000;0.6154;-0.2251;
1131.9000;0.6146;-0.2203;
1132.2000;0.6138;-0.2180;
1132.5000;0.6121;-0.2203;
1132.8000;0.6121;-0.2132;
1133.1000;0.6081;-0.2227;
1133.4000;0.6154;-0.2203;
1133.7000;0.6138;-0.2251;
1134.0000;0.6195;-0.2251;
1134.3000;0.6072;-0.2464;
1134.6000;0.6138;-0.2346;
1134.9000;0.6219;-0.2061;
1135.2000;0.6154;-0.2156;
1135.5000;0.6129;-0.2180;
1135.8000;0.6097;-0.2251;
1136.1000;0.6121;-0.2203;
1136.4000;0.6129;-0.2203;
1136.7000;0.6129;-0.2275;
1137.0000;0.6138;-0.2203;
1137.3000;0.6105;-0.2322;
1137.6000;0.6138;-0.2227;
1137.9000;0.6146;-0.2227;
1138.2000;0.6146;-0.2203;
1138.5000;0.6178;-0.2109;
1138.8000;0.6195;-0.2132;
1139.1000;0.6097;-0.2322;
1139.4000;0.6121;-0.2132;
1139.7000;0.6113;-0.2180;
1140.0000;0.6138;-0.2156;
1140.3000;0.6097;-0.2275;
1140.6000;0.6121;-0.2322;
1140.9000;0.6121;-0.2393;
1141.2000;0.6195;-0.2227;
1141.5000;0.6105;-0.2440;
1141.8000;0.6121;-0.2369;
1142.1000;0.6081;-0.2464;
1142.4000;0.6129;-0.2275;
1142.7000;0.6138;-0.2346;
1143.0000;0.6138;-0.2369;
1143.3000;0.6146;-0.2298;
1143.6000;0.6146;-0.2298;
1143.9000;0.6138;-0.2251;
1144.2000;0.6146;-0.2275;
1144.5000;0.6138;-0.2227;
1144.8000;0.6138;-0.2203;
1145.1000;0.6138;-0.2180;
1145.4000;0.6129;-0.2251;
1145.7000;0.6121;-0.2251;
1146.0000;0.6121;-0.2275;
1146.3000;0.6146;-0.2156;
1146.6000;0.6105;-0.2298;
1146.9000;0.6146;-0.2251;
1147.2000;0.6097;-0.2417;
1147.5000;0.6129;-0.2369;
1147.8000;0.6129;-0.2322;
1148.1000;0.6129;-0.2369;
1148.4000;0.6121;-0.2346;
1148.7000;0.6138;-0.2346;
1149.0000;0.6138;-0.2369;
1149.3000;0.6105;-0.2440;
1149.6000;0.6129;-0.2393;
1149.9000;0.6129;-0.2346;
1150.2000;0.6170;-0.2346;
1150.5000;0.6089;-0.2417;
1150.8000;0.6138;-0.2298;
1151.1000;0.6121;-0.2298;
1151.4000;0.6129;-0.2275;
1151.7000;0.6138;-0.2275;
1152.0000;0.6154;-0.2203;
1152.3000;0.6154;-0.2251;
1152.6000;0.6129;-0.2346;
1152.9000;0.6056;-0.2417;
1153.2000;0.6138;-0.2227;
1153.5000;0.6113;-0.2203;
1153.8000;0.6138;-0.2132;
1154.1000;0.6121;-0.2180;
1154.4000;0.6146;-0.2085;
1154.7000;0.6138;-0.2180;
1155.0000;0.6121;-0.2227;
1155.3000;0.6113;-0.2298;
1155.6000;0.6105;-0.2227;
1155.9000;0.6129;-0.2251;
1156.2000;0.6129;-0.2322;
1156.5000;0.6154;-0.2251;
1156.8000;0.6105;-0.2417;
1157.1000;0.6121;-0.2488;
1157.4000;0.6138;-0.2393;
1157.7000;0.6129;-0.2417;
1158.0000;0.6105;-0.2488;
1158.3000;0.6097;-0.2583;
1158.6000;0.6113;-0.2511;
1158.9000;0.6154;-0.2440;
1159.2000;0.6146;-0.2440;
1159.5000;0.6129;-0.2417;
1159.8000;0.6097;-0.2464;
1160.1000;0.6129;-0.2440;
1160.4000;0.6129;-0.2488;
1160.7000;0.6252;-0.2275;
1161.0000;0.6072;-0.2748;
1161.3000;0.6129;-0.2559;
1161.6000;0.6129;-0.2511;
1161.9000;0.6138;-0.2417;
1162.2000;0.6138;-0.2417;
1162.5000;0.6129;-0.2393;
1162.8000;0.6146;-0.2417;
1163.1000;0.6081;-0.2511;
1163.4000;0.6113;-0.2440;
1163.7000;0.6129;-0.2440;
1164.0000;0.6121;-0.2440;
1164.3000;0.6146;-0.2393;
1164.6000;0.6072;-0.2559;
1164.9000;0.6195;-0.2203;
1165.2000;0.6129;-0.2417;
1165.5000;0.6129;-0.2417;
1165.8000;0.6138;-0.2417;
1166.1000;0.6121;-0.2511;
1166.4000;0.6129;-0.2488;
1166.7000;0.6162;-0.2346;
1167.0000;0.6138;-0.2417;
1167.3000;0.6138;-0.2417;
1167.6000;0.6121;-0.2440;
1167.9000;0.6129;-0.2440;
1168.2000;0.6121;-0.2440;
1168.5000;0.6105;-0.2440;
1168.8000;0.6113;-0.2488;
1169.1000;0.6138;-0.2417;
1169.4000;0.6081;-0.2630;
1169.7000;0.6113;-0.2535;
1170.0000;0.6129;-0.2511;
1170.3000;0.6129;-0.2488;
1170.6000;0.6129;-0.2464;
1170.9000;0.6129;-0.2417;
1171.2000;0.6138;-0.2393;
1171.5000;0.6121;-0.2369;
1171.8000;0.6113;-0.2369;
1172.1000;0.6129;-0.2369;
1172.4000;0.6072;-0.2559;
1172.7000;0.6129;-0.2417;
1173.0000;0.6097;-0.2488;
1173.3000;0.6129;-0.2464;
1173.6000;0.6105;-0.2559;
1173.9000;0.6121;-0.2464;
1174.2000;0.6072;-0.2464;
1174.5000;0.6186;-0.2227;
1174.8000;0.6138;-0.2393;
1175.1000;0.6121;-0.2464;
1175.4000;0.6129;-0.2440;
1175.7000;0.6154;-0.2488;
1176.0000;0.6081;-0.2535;
1176.3000;0.6113;-0.2440;
1176.6000;0.6113;-0.2464;
1176.9000;0.6138;-0.2369;
1177.2000;0.6129;-0.2346;
1177.5000;0.6178;-0.2275;
1177.8000;0.6121;-0.2322;
1178.1000;0.6154;-0.2156;
1178.4000;0.6162;-0.2180;
1178.7000;0.6138;-0.2346;
1179.0000;0.6105;-0.2464;
1179.3000;0.6081;-0.2559;
1179.6000;0.6186;-0.2322;
1179.9000;0.6138;-0.2393;
1180.2000;0.6129;-0.2464;
1180.5000;0.6113;-0.2488;
1180.8000;0.6146;-0.2417;
1181.1000;0.6105;-0.2488;
1181.4000;0.6113;-0.2369;
1181.7000;0.6129;-0.2298;
1182.0000;0.6138;-0.2346;
1182.3000;0.6097;-0.2511;
1182.6000;0.6097;-0.2511;
1182.9000;0.6105;-0.2440;
1183.2000;0.6138;-0.2417;
1183.5000;0.6121;-0.2440;
1183.8000;0.6129;-0.2417;
1184.1000;0.6146;-0.2535;
1184.4000;0.6129;-0.2606;
1184.7000;0.6138;-0.2559;
1185.0000;0.6146;-0.2535;
1185.3000;0.6146;-0.2606;
1185.6000;0.6129;-0.2725;
1185.9000;0.6162;-0.2606;
1186.2000;0.6146;-0.2583;
1186.5000;0.6121;-0.2488;
1186.8000;0.6154;-0.2369;
1187.1000;0.6113;-0.2369;
1187.4000;0.6138;-0.2275;
1187.7000;0.6113;-0.2369;
1188.0000;0.6138;-0.2369;
1188.3000;0.6178;-0.2346;
1188.6000;0.6113;-0.2488;
1188.9000;0.6121;-0.2464;
1189.2000;0.6113;-0.2488;
1189.5000;0.6138;-0.2440;
1189.8000;0.6121;-0.2464;
1190.1000;0.6121;-0.2511;
1190.4000;0.6121;-0.2535;
1190.7000;0.6089;-0.2630;
1191.0000;0.6113;-0.2535;
1191.3000;0.6146;-0.2511;
1191.6000;0.6105;-0.2559;
1191.9000;0.6105;-0.2488;
1192.2000;0.6129;-0.2559;
1192.5000;0.6138;-0.2583;
1192.8000;0.6129;-0.2583;
1193.1000;0.6129;-0.2488;
1193.4000;0.6170;-0.2393;
1193.7000;0.6129;-0.2440;
1194.0000;0.6129;-0.2440;
1194.3000;0.6097;-0.2511;
1194.6000;0.6105;-0.2535;
1194.9000;0.6129;-0.2440;
1195.2000;0.6048;-0.2630;
1195.5000;0.6121;-0.2511;
1195.8000;0.6113;-0.2701;
1196.1000;0.6105;-0.2677;
1196.4000;0.6146;-0.2630;
1196.7000;0.6162;-0.2583;
1197.0000;0.6162;-0.2583;
1197.3000;0.6129;-0.2630;
1197.6000;0.6138;-0.2725;
1197.9000;0.6129;-0.2725;
1198.2000;0.6121;-0.2701;
1198.5000;0.6170;-0.2583;
1198.8000;0.6113;-0.2654;
1199.1000;0.6121;-0.2748;
1199.4000;0.6121;-0.2819;
1199.7000;0.6105;-0.2819;
1200.0000;0.6154;-0.2654;
1200.3000;0.6121;-0.2772;
1200.6000;0.6129;-0.2796;
1200.9000;0.6121;-0.2796;
1201.2000;0.6146;-0.2725;
1201.5000;0.6146;-0.2701;
1201.8000;0.6138;-0.2606;
1202.1000;0.6121;-0.2654;
1202.4000;0.6121;-0.2535;
1202.7000;0.6138;-0.2488;
1203.0000;0.6129;-0.2511;
1203.3000;0.6121;-0.2511;
1203.6000;0.6146;-0.2346;
1203.9000;0.6129;-0.2369;
1204.2000;0.6129;-0.2369;
1204.5000;0.6064;-0.2417;
1204.8000;0.6129;-0.2393;
1205.1000;0.6121;-0.2583;
1205.4000;0.6105;-0.2606;
1205.7000;0.6121;-0.2559;
1206.0000;0.6121;-0.2630;
1206.3000;0.6129;-0.2606;
1206.6000;0.6129;-0.2606;
1206.9000;0.6146;-0.2559;
1207.2000;0.6113;-0.2583;
1207.5000;0.6113;-0.2535;
1207.8000;0.6129;-0.2559;
1208.1000;0.6097;-0.2630;
1208.4000;0.6105;-0.2559;
1208.7000;0.6138;-0.2511;
1209.0000;0.6129;-0.2417;
1209.3000;0.6113;-0.2440;
1209.6000;0.6105;-0.2464;
1209.9000;0.6097;-0.2488;
1210.2000;0.6121;-0.2464;
1210.5000;0.6129;-0.2440;
1210.8000;0.6121;-0.2417;
1211.1000;0.6121;-0.2511;
1211.4000;0.6162;-0.2488;
1211.7000;0.6129;-0.2559;
1212.0000;0.6121;-0.2583;
1212.3000;0.6121;-0.2535;
1212.6000;0.6138;-0.2511;
1212.9000;0.6121;-0.2511;
1213.2000;0.6138;-0.2511;
1213.5000;0.6113;-0.2559;
1213.8000;0.6081;-0.2748;
1214.1000;0.6105;-0.2772;
1214.4000;0.6097;-0.2725;
1214.7000;0.6089;-0.2796;
1215.0000;0.6113;-0.2701;
1215.3000;0.6121;-0.2796;
1215.6000;0.6121;-0.2819;
1215.9000;0.6129;-0.2891;
1216.2000;0.6146;-0.2843;
1216.5000;0.6121;-0.2891;
1216.8000;0.6121;-0.2819;
1217.1000;0.6113;-0.2772;
1217.4000;0.5983;-0.3080;
1217.7000;0.6105;-0.2748;
1218.0000;0.6154;-0.2583;
1218.3000;0.6113;-0.2606;
1218.6000;0.6129;-0.2630;
1218.9000;0.6121;-0.2677;
1219.2000;0.6113;-0.2654;
1219.5000;0.6121;-0.2654;
1219.8000;0.6081;-0.2748;
1220.1000;0.6097;-0.2701;
1220.4000;0.6105;-0.2701;
1220.7000;0.6113;-0.2606;
1221.0000;0.6113;-0.2583;
1221.3000;0.6097;-0.2654;
1221.6000;0.6105;-0.2606;
1221.9000;0.6113;-0.2606;
1222.2000;0.6129;-0.2630;
1222.5000;0.6162;-0.2535;
1222.8000;0.6129;-0.2654;
1223.1000;0.6121;-0.2559;
1223.4000;0.6129;-0.2464;
1223.7000;0.6121;-0.2440;
1224.0000;0.6129;-0.2346;
1224.3000;0.6121;-0.2298;
1224.6000;0.6129;-0.2275;
1224.9000;0.6121;-0.2322;
1225.2000;0.6121;-0.2369;
1225.5000;0.6162;-0.2298;
1225.8000;0.6129;-0.2417;
1226.1000;0.6097;-0.2535;
1226.4000;0.6121;-0.2464;
1226.7000;0.6154;-0.2417;
1227.0000;0.6113;-0.2535;
1227.3000;0.6138;-0.2511;
1227.6000;0.6072;-0.2583;
1227.9000;0.6113;-0.2440;
1228.2000;0.6113;-0.2346;
1228.5000;0.6121;-0.2322;
1228.8000;0.6113;-0.2322;
1229.1000;0.6113;-0.2322;
1229.4000;0.6129;-0.2298;
1229.7000;0.6121;-0.2298;
1230.0000;0.6113;-0.2346;
1230.3000;0.6097;-0.2393;
1230.6000;0.6105;-0.2440;
1230.9000;0.6113;-0.2369;
1231.2000;0.6146;-0.2346;
1231.5000;0.6105;-0.2440;
1231.8000;0.6097;-0.2464;
1232.1000;0.6154;-0.2322;
1232.4000;0.6097;-0.2440;
1232.7000;0.6113;-0.2440;
1233.0000;0.6105;-0.2440;
1233.3000;0.6089;-0.2464;
1233.6000;0.6105;-0.2417;
1233.9000;0.6105;-0.2393;
1234.2000;0.6121;-0.2369;
1234.5000;0.6121;-0.2369;
1234.8000;0.6138;-0.2298;
1235.1000;0.6129;-0.2203;
1235.4000;0.6113;-0.2298;
1235.7000;0.6121;-0.2251;
1236.0000;0.6097;-0.2298;
1236.3000;0.6105;-0.2346;
1236.6000;0.6113;-0.2346;
1236.9000;0.6105;-0.2346;
1237.2000;0.6113;-0.2203;
1237.5000;0.6097;-0.2251;
1237.8000;0.6097;-0.2251;
1238.1000;0.6081;-0.2369;
1238.4000;0.6138;-0.2251;
1238.7000;0.6129;-0.2227;
1239.0000;0.6129;-0.2203;
1239.3000;0.6121;-0.2203;
1239.6000;0.6129;-0.2227;
1239.9000;0.6105;-0.2251;
1240.2000;0.6105;-0.2417;
1240.5000;0.6113;-0.2369;
1240.8000;0.6113;-0.2393;
1241.1000;0.6072;-0.2417;
1241.4000;0.6072;-0.2440;
1241.7000;0.6105;-0.2346;
1242.0000;0.6097;-0.2322;
1242.3000;0.6129;-0.2275;
1242.6000;0.6105;-0.2298;
1242.9000;0.6113;-0.2298;
1243.2000;0.6113;-0.2180;
1243.5000;0.6089;-0.2251;
1243.8000;0.6129;-0.2251;
1244.1000;0.6081;-0.2346;
1244.4000;0.6089;-0.2346;
1244.7000;0.6097;-0.2346;
1245.0000;0.6072;-0.2393;
1245.3000;0.6105;-0.2251;
1245.6000;0.6113;-0.2203;
1245.9000;0.6113;-0.2156;
1246.2000;0.6121;-0.2109;
1246.5000;0.6105;-0.2156;
1246.8000;0.6113;-0.2203;
1247.1000;0.6105;-0.2132;
1247.4000;0.6113;-0.2085;
1247.7000;0.6146;-0.2085;
1248.0000;0.6129;-0.2109;
1248.3000;0.6129;-0.2109;
1248.6000;0.6097;-0.2156;
1248.9000;0.6113;-0.2156;
1249.2000;0.6089;-0.2227;
1249.5000;0.6105;-0.2156;
1249.8000;0.6162;-0.2061;
1250.1000;0.6138;-0.2180;
1250.4000;0.6129;-0.2251;
1250.7000;0.6129;-0.2369;
1251.0000;0.6113;-0.2369;
1251.3000;0.6121;-0.2322;
1251.6000;0.6129;-0.2298;
1251.9000;0.6113;-0.2417;
1252.2000;0.6105;-0.2440;
1252.5000;0.6121;-0.2369;
1252.8000;0.6113;-0.2346;
1253.1000;0.6154;-0.2346;
1253.4000;0.6105;-0.2511;
1253.7000;0.6105;-0.2488;
1254.0000;0.6121;-0.2440;
1254.3000;0.6113;-0.2440;
1254.6000;0.6113;-0.2369;
1254.9000;0.6097;-0.2417;
1255.2000;0.6121;-0.2393;
1255.5000;0.6121;-0.2488;
1255.8000;0.6121;-0.2488;
1256.1000;0.6121;-0.2488;
1256.4000;0.6105;-0.2488;
1256.7000;0.6113;-0.2440;
1257.0000;0.6105;-0.2488;
1257.3000;0.6097;-0.2606;
1257.6000;0.6113;-0.2559;
1257.9000;0.6089;-0.2677;
1258.2000;0.6121;-0.2606;
1258.5000;0.6178;-0.2488;
1258.8000;0.6097;-0.2701;
1259.1000;0.6154;-0.2559;
1259.4000;0.6105;-0.2654;
1259.7000;0.6097;-0.2630;
1260.0000;0.6097;-0.2559;
1260.3000;0.6097;-0.2559;
1260.6000;0.6097;-0.2559;
1260.9000;0.6097;-0.2559;
1261.2000;0.6097;-0.2559;
1261.5000;0.6089;-0.2559;
1261.8000;0.6121;-0.2488;
1262.1000;0.6113;-0.2559;
1262.4000;0.6097;-0.2654;
1262.7000;0.6089;-0.2535;
1263.0000;0.6121;-0.2393;
1263.3000;0.6056;-0.2535;
1263.6000;0.6089;-0.2393;
1263.9000;0.6105;-0.2440;
1264.2000;0.6097;-0.2440;
1264.5000;0.6040;-0.2583;
1264.8000;0.6089;-0.2559;
1265.1000;0.6081;-0.2677;
1265.4000;0.6113;-0.2677;
1265.7000;0.6121;-0.2583;
1266.0000;0.6113;-0.2559;
1266.3000;0.6113;-0.2511;
1266.6000;0.6081;-0.2583;
1266.9000;0.6113;-0.2464;
1267.2000;0.6097;-0.2393;
1267.5000;0.6105;-0.2346;
1267.8000;0.6089;-0.2346;
1268.1000;0.6097;-0.2346;
1268.4000;0.6113;-0.2298;
1268.7000;0.6113;-0.2369;
1269.0000;0.6089;-0.2511;
1269.3000;0.6129;-0.2440;
1269.6000;0.6121;-0.2488;
1269.9000;0.6105;-0.2535;
1270.2000;0.6121;-0.2535;
1270.5000;0.6105;-0.2606;
1270.8000;0.6129;-0.2559;
1271.1000;0.6146;-0.2535;
1271.4000;0.6105;-0.2559;
1271.7000;0.6089;-0.2511;
1272.0000;0.6113;-0.2393;
1272.3000;0.6113;-0.2346;
1272.6000;0.6097;-0.2346;
1272.9000;0.6097;-0.2393;
1273.2000;0.6097;-0.2464;
1273.5000;0.6105;-0.2440;
1273.8000;0.6105;-0.2488;
1274.1000;0.6105;-0.2559;
1274.4000;0.6121;-0.2535;
1274.7000;0.6211;-0.2275;
1275.0000;0.6113;-0.2464;
1275.3000;0.6129;-0.2369;
1275.6000;0.6113;-0.2440;
1275.9000;0.6121;-0.2464;
1276.2000;0.6121;-0.2464;
1276.5000;0.6105;-0.2417;
1276.8000;0.6105;-0.2511;
1277.1000;0.6129;-0.2535;
1277.4000;0.6072;-0.2748;
1277.7000;0.6105;-0.2606;
1278.0000;0.6056;-0.2772;
1278.3000;0.6138;-0.2535;
1278.6000;0.6105;-0.2559;
1278.9000;0.6097;-0.2535;
1279.2000;0.6097;-0.2535;
1279.5000;0.6056;-0.2630;
1279.8000;0.6113;-0.2535;
1280.1000;0.6048;-0.2701;
1280.4000;0.6072;-0.2677;
1280.7000;0.6097;-0.2725;
1281.0000;0.6089;-0.2701;
1281.3000;0.6121;-0.2583;
1281.6000;0.6081;-0.2630;
1281.9000;0.6105;-0.2559;
1282.2000;0.6081;-0.2583;
1282.5000;0.6113;-0.2464;
1282.8000;0.6113;-0.2369;
1283.1000;0.6097;-0.2511;
1283.4000;0.6105;-0.2440;
1283.7000;0.6089;-0.2417;
1284.0000;0.6097;-0.2298;
1284.3000;0.6089;-0.2322;
1284.6000;0.6097;-0.2322;
1284.9000;0.6113;-0.2298;
1285.2000;0.6081;-0.2417;
1285.5000;0.6097;-0.2417;
1285.8000;0.6121;-0.2393;
1286.1000;0.6105;-0.2464;
1286.4000;0.6129;-0.2464;
1286.7000;0.6146;-0.2417;
1287.0000;0.6081;-0.2606;
1287.3000;0.6121;-0.2559;
1287.6000;0.6113;-0.2559;
1287.9000;0.6129;-0.2464;
1288.2000;0.6089;-0.2559;
1288.5000;0.6081;-0.2630;
1288.8000;0.6113;-0.2583;
1289.1000;0.6129;-0.2488;
1289.4000;0.6105;-0.2488;
1289.7000;0.6056;-0.2583;
1290.0000;0.6121;-0.2417;
1290.3000;0.6072;-0.2559;
1290.6000;0.6040;-0.2606;
1290.9000;0.6105;-0.2488;
1291.2000;0.6089;-0.2464;
1291.5000;0.6121;-0.2346;
1291.8000;0.6105;-0.2417;
1292.1000;0.6113;-0.2440;
1292.4000;0.6121;-0.2417;
1292.7000;0.6113;-0.2440;
1293.0000;0.6048;-0.2535;
1293.3000;0.6097;-0.2346;
1293.6000;0.6097;-0.2322;
1293.9000;0.6072;-0.2346;
1294.2000;0.6081;-0.2346;
1294.5000;0.6097;-0.2346;
1294.8000;0.6097;-0.2346;
1295.1000;0.6097;-0.2322;
1295.4000;0.6097;-0.2227;
1295.7000;0.6105;-0.2251;
1296.0000;0.6121;-0.2203;
1296.3000;0.6113;-0.2275;
1296.6000;0.6105;-0.2346;
1296.9000;0.6089;-0.2464;
1297.2000;0.6121;-0.2369;
1297.5000;0.6089;-0.2393;
1297.8000;0.6113;-0.2393;
1298.1000;0.6105;-0.2417;
1298.4000;0.6097;-0.2464;
1298.7000;0.6105;-0.2464;
1299.0000;0.6089;-0.2488;
1299.3000;0.6105;-0.2440;
1299.6000;0.6105;-0.2440;
1299.9000;0.6089;-0.2417;
1300.2000;0.6105;-0.2369;
1300.5000;0.6121;-0.2275;
1300.8000;0.6097;-0.2417;
1301.1000;0.6105;-0.2393;
1301.4000;0.6081;-0.2511;
1301.7000;0.6097;-0.2440;
1302.0000;0.6105;-0.2417;
1302.3000;0.6089;-0.2464;
1302.6000;0.6105;-0.2464;
1302.9000;0.6113;-0.2417;
1303.2000;0.6105;-0.2440;
1303.5000;0.6089;-0.2559;
1303.8000;0.6081;-0.2440;
1304.1000;0.6097;-0.2393;
1304.4000;0.6113;-0.2322;
1304.7000;0.6097;-0.2346;
1305.0000;0.6097;-0.2369;
1305.3000;0.6105;-0.2275;
1305.6000;0.6081;-0.2298;
1305.9000;0.6097;-0.2251;
1306.2000;0.6081;-0.2322;
1306.5000;0.6048;-0.2440;
1306.8000;0.6121;-0.2346;
1307.1000;0.6113;-0.2464;
1307.4000;0.6089;-0.2535;
1307.7000;0.6105;-0.2583;
1308.0000;0.6129;-0.2535;
1308.3000;0.6105;-0.2440;
1308.6000;0.6121;-0.2298;
1308.9000;0.6089;-0.2346;
1309.2000;0.6113;-0.2346;
1309.5000;0.6081;-0.2440;
1309.8000;0.6097;-0.2417;
1310.1000;0.6089;-0.2488;
1310.4000;0.6097;-0.2488;
1310.7000;0.6097;-0.2559;
1311.0000;0.6081;-0.2606;
1311.3000;0.6064;-0.2535;
1311.6000;0.6105;-0.2417;
1311.9000;0.6105;-0.2346;
1312.2000;0.6105;-0.2464;
1312.5000;0.6113;-0.2488;
1312.8000;0.6129;-0.2488;
1313.1000;0.6097;-0.2583;
1313.4000;0.6146;-0.2440;
1313.7000;0.6081;-0.2583;
1314.0000;0.6064;-0.2535;
1314.3000;0.6146;-0.2322;
1314.6000;0.6105;-0.2535;
1314.9000;0.6032;-0.2748;
1315.2000;0.6089;-0.2559;
1315.5000;0.6097;-0.2583;
1315.8000;0.6105;-0.2606;
1316.1000;0.6089;-0.2559;
1316.4000;0.6097;-0.2559;
1316.7000;0.6081;-0.2583;
1317.0000;0.6121;-0.2488;
1317.3000;0.6089;-0.2511;
1317.6000;0.6097;-0.2464;
1317.9000;0.6097;-0.2464;
1318.2000;0.6105;-0.2417;
1318.5000;0.6089;-0.2393;
1318.8000;0.6081;-0.2511;
1319.1000;0.6089;-0.2440;
1319.4000;0.6089;-0.2488;
1319.7000;0.6097;-0.2535;
1320.0000;0.6089;-0.2440;
1320.3000;0.6105;-0.2369;
1320.6000;0.6081;-0.2488;
1320.9000;0.6105;-0.2488;
1321.2000;0.6089;-0.2464;
1321.5000;0.6081;-0.2417;
1321.8000;0.6113;-0.2346;
1322.1000;0.6048;-0.2511;
1322.4000;0.6121;-0.2393;
1322.7000;0.6113;-0.2417;
1323.0000;0.6105;-0.2488;
1323.3000;0.6105;-0.2417;
1323.6000;0.6154;-0.2275;
1323.9000;0.6105;-0.2440;
1324.2000;0.6089;-0.2440;
1324.5000;0.6097;-0.2417;
1324.8000;0.6089;-0.2535;
1325.1000;0.6081;-0.2559;
1325.4000;0.6089;-0.2464;
1325.7000;0.6089;-0.2417;
1326.0000;0.6105;-0.2393;
1326.3000;0.6089;-0.2417;
1326.6000;0.6081;-0.2322;
1326.9000;0.6089;-0.2393;
1327.2000;0.6089;-0.2369;
1327.5000;0.6121;-0.2322;
1327.8000;0.6105;-0.2393;
1328.1000;0.6081;-0.2464;
1328.4000;0.6113;-0.2464;
1328.7000;0.6097;-0.2488;
1329.0000;0.6097;-0.2464;
1329.3000;0.6097;-0.2369;
1329.6000;0.6186;-0.2132;
1329.9000;0.6105;-0.2298;
1330.2000;0.6113;-0.2298;
1330.5000;0.6081;-0.2417;
1330.8000;0.6072;-0.2440;
1331.1000;0.6089;-0.2393;
1331.4000;0.6048;-0.2488;
1331.7000;0.6089;-0.2417;
1332.0000;0.6097;-0.2440;
1332.3000;0.6089;-0.2488;
1332.6000;0.6138;-0.2369;
1332.9000;0.6081;-0.2488;
1333.2000;0.6105;-0.2559;
1333.5000;0.6105;-0.2606;
1333.8000;0.6113;-0.2559;
1334.1000;0.6129;-0.2488;
1334.4000;0.6089;-0.2511;
1334.7000;0.6105;-0.2511;
1335.0000;0.6097;-0.2464;
1335.3000;0.6113;-0.2440;
1335.6000;0.6105;-0.2346;
1335.9000;0.6089;-0.2346;
1336.2000;0.6146;-0.2203;
1336.5000;0.6081;-0.2393;
1336.8000;0.6056;-0.2464;
1337.1000;0.6113;-0.2322;
1337.4000;0.6105;-0.2393;
1337.7000;0.6097;-0.2440;
1338.0000;0.6186;-0.2180;
1338.3000;0.6097;-0.2369;
1338.6000;0.6162;-0.2109;
1338.9000;0.6097;-0.2346;
1339.2000;0.6097;-0.2346;
1339.5000;0.6097;-0.2346;
1339.8000;0.6105;-0.2322;
1340.1000;0.6089;-0.2369;
1340.4000;0.6089;-0.2227;
1340.7000;0.6089;-0.2275;
1341.0000;0.6081;-0.2298;
1341.3000;0.6089;-0.2346;
1341.6000;0.6089;-0.2393;
1341.9000;0.6097;-0.2440;
1342.2000;0.6081;-0.2535;
1342.5000;0.6113;-0.2488;
1342.8000;0.6089;-0.2488;
1343.1000;0.6105;-0.2417;
1343.4000;0.6121;-0.2393;
1343.7000;0.6113;-0.2464;
1344.0000;0.6032;-0.2654;
1344.3000;0.6105;-0.2440;
1344.6000;0.6097;-0.2488;
1344.9000;0.6121;-0.2488;
1345.2000;0.6113;-0.2417;
1345.5000;0.6113;-0.2203;
1345.8000;0.6089;-0.2203;
1346.1000;0.6089;-0.2251;
1346.4000;0.6072;-0.2203;
1346.7000;0.6097;-0.2180;
1347.0000;0.6105;-0.2156;
1347.3000;0.6129;-0.2227;
1347.6000;0.6081;-0.2322;
1347.9000;0.6089;-0.2322;
1348.2000;0.6081;-0.2369;
1348.5000;0.6064;-0.2369;
1348.8000;0.6089;-0.2227;
1349.1000;0.6105;-0.2203;
1349.4000;0.6081;-0.2393;
1349.7000;0.6072;-0.2346;
1350.0000;0.6089;-0.2298;
1350.3000;0.6113;-0.2251;
1350.6000;0.6048;-0.2393;
1350.9000;0.6048;-0.2346;
1351.2000;0.6089;-0.2298;
1351.5000;0.6105;-0.2322;
1351.8000;0.6146;-0.2203;
1352.1000;0.6072;-0.2298;
1352.4000;0.6097;-0.2275;
1352.7000;0.6081;-0.2203;
1353.0000;0.6024;-0.2298;
1353.3000;0.6072;-0.2251;
1353.6000;0.6089;-0.2275;
1353.9000;0.6154;-0.2156;
1354.2000;0.6089;-0.2369;
1354.5000;0.6089;-0.2464;
1354.8000;0.6081;-0.2346;
1355.1000;0.6072;-0.2298;
1355.4000;0.6138;-0.2251;
1355.7000;0.6097;-0.2346;
1356.0000;0.6089;-0.2346;
1356.3000;0.6097;-0.2322;
1356.6000;0.6105;-0.2346;
1356.9000;0.6089;-0.2346;
1357.2000;0.6081;-0.2393;
1357.5000;0.6081;-0.2440;
1357.8000;0.6097;-0.2464;
1358.1000;0.6081;-0.2440;
1358.4000;0.6113;-0.2440;
1358.7000;0.6097;-0.2559;
1359.0000;0.6113;-0.2511;
1359.3000;0.6113;-0.2440;
1359.6000;0.6097;-0.2464;
1359.9000;0.6105;-0.2440;
1360.2000;0.6081;-0.2464;
1360.5000;0.6105;-0.2417;
1360.8000;0.6113;-0.2393;
1361.1000;0.6211;-0.2061;
1361.4000;0.6081;-0.2275;
1361.7000;0.6105;-0.2227;
1362.0000;0.6113;-0.2227;
1362.3000;0.6097;-0.2227;
1362.6000;0.6015;-0.2417;
1362.9000;0.6089;-0.2203;
1363.2000;0.6097;-0.2251;
1363.5000;0.6154;-0.2109;
1363.8000;0.6097;-0.2275;
1364.1000;0.6048;-0.2440;
1364.4000;0.6081;-0.2417;
1364.7000;0.6105;-0.2369;
1365.0000;0.6064;-0.2464;
1365.3000;0.6072;-0.2298;
1365.6000;0.6105;-0.2156;
1365.9000;0.6056;-0.2322;
1366.2000;0.6105;-0.2251;
1366.5000;0.6089;-0.2251;
1366.8000;0.6105;-0.2227;
1367.1000;0.6097;-0.2275;
1367.4000;0.6105;-0.2251;
1367.7000;0.6105;-0.2227;
1368.0000;0.6072;-0.2298;
1368.3000;0.6105;-0.2298;
1368.6000;0.6089;-0.2346;
1368.9000;0.6089;-0.2322;
1369.2000;0.6081;-0.2298;
1369.5000;0.6048;-0.2417;
1369.8000;0.6072;-0.2275;
1370.1000;0.6089;-0.2298;
1370.4000;0.6089;-0.2251;
1370.7000;0.6081;-0.2227;
1371.0000;0.6105;-0.2132;
1371.3000;0.6072;-0.2156;
1371.6000;0.6072;-0.2132;
1371.9000;0.6081;-0.2109;
1372.2000;0.6105;-0.2085;
1372.5000;0.6121;-0.2061;
1372.8000;0.6081;-0.2156;
1373.1000;0.6064;-0.2227;
1373.4000;0.6146;-0.2085;
1373.7000;0.6056;-0.2322;
1374.0000;0.6081;-0.2322;
1374.3000;0.6089;-0.2440;
1374.6000;0.6089;-0.2488;
1374.9000;0.6105;-0.2511;
1375.2000;0.6072;-0.2606;
1375.5000;0.6105;-0.2583;
1375.8000;0.6089;-0.2559;
1376.1000;0.6097;-0.2559;
1376.4000;0.6089;-0.2583;
1376.7000;0.6146;-0.2440;
1377.0000;0.6113;-0.2559;
1377.3000;0.6072;-0.2583;
1377.6000;0.6081;-0.2488;
1377.9000;0.6081;-0.2488;
1378.2000;0.6097;-0.2393;
1378.5000;0.6105;-0.2369;
1378.8000;0.6121;-0.2298;
1379.1000;0.6081;-0.2417;
1379.4000;0.6129;-0.2203;
1379.7000;0.6089;-0.2275;
1380.0000;0.6121;-0.2180;
1380.3000;0.6105;-0.2109;
1380.6000;0.6121;-0.1990;
1380.9000;0.6089;-0.2180;
1381.2000;0.6089;-0.2227;
1381.5000;0.6105;-0.2203;
1381.8000;0.6121;-0.2203;
1382.1000;0.6089;-0.2298;
1382.4000;0.6097;-0.2298;
1382.7000;0.6089;-0.2369;
1383.0000;0.6048;-0.2393;
1383.3000;0.6048;-0.2393;
1383.6000;0.6081;-0.2275;
1383.9000;0.6121;-0.2180;
1384.2000;0.6089;-0.2298;
1384.5000;0.6081;-0.2203;
1384.8000;0.6105;-0.2180;
1385.1000;0.6113;-0.2109;
1385.4000;0.6064;-0.2275;
1385.7000;0.6048;-0.2322;
1386.0000;0.6089;-0.2156;
1386.3000;0.6105;-0.2061;
1386.6000;0.6097;-0.2132;
1386.9000;0.6097;-0.2156;
1387.2000;0.6089;-0.2156;
1387.5000;0.6105;-0.2156;
1387.8000;0.6113;-0.2180;
1388.1000;0.6146;-0.2156;
1388.4000;0.6105;-0.2346;
1388.7000;0.6097;-0.2322;
1389.0000;0.6089;-0.2275;
1389.3000;0.6138;-0.2156;
1389.6000;0.6113;-0.2203;
1389.9000;0.6081;-0.2227;
1390.2000;0.6081;-0.2156;
1390.5000;0.6089;-0.2132;
1390.8000;0.6089;-0.2132;
1391.1000;0.6089;-0.2180;
1391.4000;0.6097;-0.2109;
1391.7000;0.6081;-0.2109;
1392.0000;0.6089;-0.2180;
1392.3000;0.6072;-0.2132;
1392.6000;0.6081;-0.1990;
1392.9000;0.6089;-0.1990;
1393.2000;0.6146;-0.1872;
1393.5000;0.6081;-0.2085;
1393.8000;0.6081;-0.2132;
1394.1000;0.6081;-0.2180;
1394.4000;0.6064;-0.2275;
1394.7000;0.6089;-0.2227;
1395.0000;0.6081;-0.2251;
1395.3000;0.6072;-0.2180;
1395.6000;0.6064;-0.2275;
1395.9000;0.6089;-0.2298;
1396.2000;0.6089;-0.2203;
1396.5000;0.6113;-0.2109;
1396.8000;0.6105;-0.2203;
1397.1000;0.6072;-0.2298;
1397.4000;0.6089;-0.2275;
1397.7000;0.6089;-0.2251;
1398.0000;0.6064;-0.2275;
1398.3000;0.6097;-0.2180;
1398.6000;0.6081;-0.2156;
1398.9000;0.6081;-0.2180;
1399.2000;0.6064;-0.2251;
1399.5000;0.6089;-0.2180;
1399.8000;0.6056;-0.2227;
