time/ms;Fluo/V;P700 deltaI/I x10³;
-199.8000;0.8287;-0.0829;
-199.5000;0.8295;-0.0734;
-199.2000;0.8278;-0.0734;
-198.9000;0.8262;-0.0782;
-198.6000;0.8270;-0.0758;
-198.3000;0.8295;-0.0711;
-198.0000;0.8278;-0.0687;
-197.7000;0.8278;-0.0711;
-197.4000;0.8278;-0.0640;
-197.1000;0.8311;-0.0616;
-196.8000;0.8246;-0.0687;
-196.5000;0.8287;-0.0592;
-196.2000;0.8270;-0.0687;
-195.9000;0.8287;-0.0640;
-195.6000;0.8295;-0.0545;
-195.3000;0.8352;-0.0474;
-195.0000;0.8287;-0.0616;
-194.7000;0.8295;-0.0711;
-194.4000;0.8319;-0.0616;
-194.1000;0.8303;-0.0663;
-193.8000;0.8238;-0.0877;
-193.5000;0.8287;-0.0853;
-193.2000;0.8262;-0.0829;
-192.9000;0.8262;-0.0782;
-192.6000;0.8311;-0.0758;
-192.3000;0.8278;-0.0877;
-192.0000;0.8335;-0.0734;
-191.7000;0.8368;-0.0663;
-191.4000;0.8311;-0.0734;
-191.1000;0.8303;-0.0687;
-190.8000;0.8230;-0.0734;
-190.5000;0.8311;-0.0498;
-190.2000;0.8303;-0.0450;
-189.9000;0.8238;-0.0734;
-189.6000;0.8319;-0.0521;
-189.3000;0.8311;-0.0521;
-189.0000;0.8303;-0.0521;
-188.7000;0.8303;-0.0616;
-188.4000;0.8303;-0.0687;
-188.1000;0.8335;-0.0687;
-187.8000;0.8295;-0.0711;
-187.5000;0.8287;-0.0782;
-187.2000;0.8295;-0.0782;
-186.9000;0.8238;-0.0877;
-186.6000;0.8295;-0.0806;
-186.3000;0.8295;-0.0806;
-186.0000;0.8262;-0.0877;
-185.7000;0.8287;-0.0687;
-185.4000;0.8303;-0.0734;
-185.1000;0.8303;-0.0687;
-184.8000;0.8319;-0.0640;
-184.5000;0.8327;-0.0640;
-184.2000;0.8311;-0.0663;
-183.9000;0.8287;-0.0758;
-183.6000;0.8278;-0.0829;
-183.3000;0.8278;-0.0806;
-183.0000;0.8287;-0.0782;
-182.7000;0.8295;-0.0758;
-182.4000;0.8295;-0.0734;
-182.1000;0.8303;-0.0734;
-181.8000;0.8311;-0.0687;
-181.5000;0.8319;-0.0758;
-181.2000;0.8303;-0.0782;
-180.9000;0.8352;-0.0711;
-180.6000;0.8327;-0.0806;
-180.3000;0.8295;-0.0853;
-180.0000;0.8311;-0.0829;
-179.7000;0.8319;-0.0758;
-179.4000;0.8303;-0.0782;
-179.1000;0.8311;-0.0734;
-178.8000;0.8278;-0.0900;
-178.5000;0.8287;-0.1019;
-178.2000;0.8262;-0.1066;
-177.9000;0.8303;-0.0995;
-177.6000;0.8295;-0.0948;
-177.3000;0.8270;-0.0971;
-177.0000;0.8303;-0.0829;
-176.7000;0.8287;-0.0782;
-176.4000;0.8295;-0.0758;
-176.1000;0.8295;-0.0806;
-175.8000;0.8303;-0.0829;
-175.5000;0.8278;-0.0971;
-175.2000;0.8303;-0.0853;
-174.9000;0.8287;-0.0900;
-174.6000;0.8311;-0.0734;
-174.3000;0.8278;-0.0829;
-174.0000;0.8303;-0.0782;
-173.7000;0.8311;-0.0758;
-173.4000;0.8287;-0.0663;
-173.1000;0.8287;-0.0782;
-172.8000;0.8278;-0.0734;
-172.5000;0.8311;-0.0663;
-172.2000;0.8303;-0.0782;
-171.9000;0.8295;-0.0806;
-171.6000;0.8368;-0.0687;
-171.3000;0.8295;-0.0734;
-171.0000;0.8319;-0.0734;
-170.7000;0.8368;-0.0663;
-170.4000;0.8287;-0.0806;
-170.1000;0.8319;-0.0734;
-169.8000;0.8246;-0.0782;
-169.5000;0.8303;-0.0592;
-169.2000;0.8327;-0.0521;
-168.9000;0.8303;-0.0616;
-168.6000;0.8303;-0.0687;
-168.3000;0.8303;-0.0782;
-168.0000;0.8287;-0.0877;
-167.7000;0.8303;-0.0734;
-167.4000;0.8303;-0.0711;
-167.1000;0.8287;-0.0758;
-166.8000;0.8278;-0.0734;
-166.5000;0.8311;-0.0687;
-166.2000;0.8287;-0.0711;
-165.9000;0.8295;-0.0734;
-165.6000;0.8303;-0.0687;
-165.3000;0.8287;-0.0687;
-165.0000;0.8287;-0.0640;
-164.7000;0.8287;-0.0687;
-164.4000;0.8287;-0.0758;
-164.1000;0.8319;-0.0758;
-163.8000;0.8287;-0.0853;
-163.5000;0.8295;-0.0806;
-163.2000;0.8287;-0.0853;
-162.9000;0.8278;-0.0829;
-162.6000;0.8295;-0.0806;
-162.3000;0.8278;-0.0853;
-162.0000;0.8295;-0.0806;
-161.7000;0.8287;-0.0829;
-161.4000;0.8295;-0.0829;
-161.1000;0.8295;-0.0829;
-160.8000;0.8287;-0.0900;
-160.5000;0.8287;-0.0900;
-160.2000;0.8295;-0.0924;
-159.9000;0.8295;-0.0924;
-159.6000;0.8360;-0.0758;
-159.3000;0.8303;-0.0758;
-159.0000;0.8295;-0.0758;
-158.7000;0.8319;-0.0687;
-158.4000;0.8319;-0.0616;
-158.1000;0.8319;-0.0592;
-157.8000;0.8287;-0.0687;
-157.5000;0.8303;-0.0687;
-157.2000;0.8327;-0.0663;
-156.9000;0.8319;-0.0734;
-156.6000;0.8238;-0.0948;
-156.3000;0.8270;-0.0829;
-156.0000;0.8295;-0.0734;
-155.7000;0.8311;-0.0592;
-155.4000;0.8270;-0.0758;
-155.1000;0.8270;-0.0734;
-154.8000;0.8287;-0.0687;
-154.5000;0.8287;-0.0734;
-154.2000;0.8303;-0.0734;
-153.9000;0.8311;-0.0687;
-153.6000;0.8295;-0.0711;
-153.3000;0.8335;-0.0616;
-153.0000;0.8287;-0.0616;
-152.7000;0.8303;-0.0640;
-152.4000;0.8254;-0.0829;
-152.1000;0.8295;-0.0853;
-151.8000;0.8295;-0.0900;
-151.5000;0.8311;-0.0853;
-151.2000;0.8327;-0.0711;
-150.9000;0.8311;-0.0734;
-150.6000;0.8254;-0.0806;
-150.3000;0.8295;-0.0734;
-150.0000;0.8287;-0.0734;
-149.7000;0.8295;-0.0758;
-149.4000;0.8287;-0.0758;
-149.1000;0.8303;-0.0734;
-148.8000;0.8295;-0.0782;
-148.5000;0.8303;-0.0687;
-148.2000;0.8303;-0.0711;
-147.9000;0.8254;-0.0853;
-147.6000;0.8295;-0.0734;
-147.3000;0.8311;-0.0640;
-147.0000;0.8295;-0.0616;
-146.7000;0.8311;-0.0663;
-146.4000;0.8287;-0.0711;
-146.1000;0.8287;-0.0734;
-145.8000;0.8295;-0.0616;
-145.5000;0.8311;-0.0545;
-145.2000;0.8303;-0.0640;
-144.9000;0.8287;-0.0687;
-144.6000;0.8319;-0.0663;
-144.3000;0.8319;-0.0640;
-144.0000;0.8311;-0.0687;
-143.7000;0.8319;-0.0640;
-143.4000;0.8303;-0.0663;
-143.1000;0.8327;-0.0569;
-142.8000;0.8327;-0.0569;
-142.5000;0.8303;-0.0663;
-142.2000;0.8303;-0.0640;
-141.9000;0.8319;-0.0569;
-141.6000;0.8335;-0.0663;
-141.3000;0.8295;-0.0663;
-141.0000;0.8295;-0.0687;
-140.7000;0.8311;-0.0569;
-140.4000;0.8311;-0.0521;
-140.1000;0.8278;-0.0521;
-139.8000;0.8295;-0.0521;
-139.5000;0.8303;-0.0498;
-139.2000;0.8270;-0.0521;
-138.9000;0.8278;-0.0545;
-138.6000;0.8262;-0.0687;
-138.3000;0.8254;-0.0711;
-138.0000;0.8287;-0.0569;
-137.7000;0.8303;-0.0569;
-137.4000;0.8295;-0.0663;
-137.1000;0.8303;-0.0616;
-136.8000;0.8327;-0.0521;
-136.5000;0.8311;-0.0592;
-136.2000;0.8335;-0.0521;
-135.9000;0.8295;-0.0640;
-135.6000;0.8230;-0.0829;
-135.3000;0.8254;-0.0663;
-135.0000;0.8287;-0.0592;
-134.7000;0.8287;-0.0545;
-134.4000;0.8311;-0.0450;
-134.1000;0.8303;-0.0474;
-133.8000;0.8303;-0.0521;
-133.5000;0.8295;-0.0521;
-133.2000;0.8352;-0.0332;
-132.9000;0.8303;-0.0426;
-132.6000;0.8303;-0.0426;
-132.3000;0.8303;-0.0498;
-132.0000;0.8287;-0.0521;
-131.7000;0.8287;-0.0521;
-131.4000;0.8303;-0.0450;
-131.1000;0.8270;-0.0450;
-130.8000;0.8278;-0.0474;
-130.5000;0.8311;-0.0498;
-130.2000;0.8295;-0.0521;
-129.9000;0.8295;-0.0355;
-129.6000;0.8287;-0.0403;
-129.3000;0.8295;-0.0379;
-129.0000;0.8376;-0.0308;
-128.7000;0.8295;-0.0569;
-128.4000;0.8303;-0.0569;
-128.1000;0.8295;-0.0592;
-127.8000;0.8295;-0.0663;
-127.5000;0.8287;-0.0734;
-127.2000;0.8295;-0.0734;
-126.9000;0.8295;-0.0711;
-126.6000;0.8295;-0.0711;
-126.3000;0.8295;-0.0782;
-126.0000;0.8287;-0.0734;
-125.7000;0.8278;-0.0663;
-125.4000;0.8295;-0.0592;
-125.1000;0.8295;-0.0592;
-124.8000;0.8295;-0.0545;
-124.5000;0.8295;-0.0521;
-124.2000;0.8287;-0.0569;
-123.9000;0.8295;-0.0592;
-123.6000;0.8311;-0.0711;
-123.3000;0.8311;-0.0663;
-123.0000;0.8303;-0.0711;
-122.7000;0.8295;-0.0734;
-122.4000;0.8303;-0.0687;
-122.1000;0.8311;-0.0734;
-121.8000;0.8270;-0.0877;
-121.5000;0.8303;-0.0900;
-121.2000;0.8311;-0.0877;
-120.9000;0.8311;-0.0853;
-120.6000;0.8335;-0.0734;
-120.3000;0.8287;-0.0924;
-120.0000;0.8295;-0.0806;
-119.7000;0.8295;-0.0806;
-119.4000;0.8278;-0.0782;
-119.1000;0.8303;-0.0663;
-118.8000;0.8319;-0.0687;
-118.5000;0.8303;-0.0734;
-118.2000;0.8287;-0.0782;
-117.9000;0.8311;-0.0829;
-117.6000;0.8327;-0.0853;
-117.3000;0.8319;-0.0782;
-117.0000;0.8303;-0.0829;
-116.7000;0.8270;-0.0948;
-116.4000;0.8303;-0.0877;
-116.1000;0.8262;-0.0924;
-115.8000;0.8311;-0.0782;
-115.5000;0.8295;-0.0758;
-115.2000;0.8295;-0.0758;
-114.9000;0.8327;-0.0569;
-114.6000;0.8335;-0.0592;
-114.3000;0.8319;-0.0569;
-114.0000;0.8278;-0.0687;
-113.7000;0.8303;-0.0569;
-113.4000;0.8303;-0.0640;
-113.1000;0.8295;-0.0687;
-112.8000;0.8295;-0.0663;
-112.5000;0.8311;-0.0687;
-112.2000;0.8303;-0.0616;
-111.9000;0.8287;-0.0616;
-111.6000;0.8278;-0.0616;
-111.3000;0.8303;-0.0545;
-111.0000;0.8319;-0.0474;
-110.7000;0.8303;-0.0450;
-110.4000;0.8311;-0.0426;
-110.1000;0.8295;-0.0474;
-109.8000;0.8352;-0.0332;
-109.5000;0.8311;-0.0355;
-109.2000;0.8295;-0.0379;
-108.9000;0.8287;-0.0545;
-108.6000;0.8303;-0.0569;
-108.3000;0.8295;-0.0545;
-108.0000;0.8278;-0.0569;
-107.7000;0.8295;-0.0474;
-107.4000;0.8278;-0.0450;
-107.1000;0.8295;-0.0498;
-106.8000;0.8278;-0.0521;
-106.5000;0.8262;-0.0521;
-106.2000;0.8311;-0.0474;
-105.9000;0.8319;-0.0450;
-105.6000;0.8287;-0.0426;
-105.3000;0.8303;-0.0426;
-105.0000;0.8295;-0.0545;
-104.7000;0.8303;-0.0616;
-104.4000;0.8230;-0.0924;
-104.1000;0.8295;-0.0687;
-103.8000;0.8287;-0.0663;
-103.5000;0.8270;-0.0687;
-103.2000;0.8303;-0.0616;
-102.9000;0.8287;-0.0711;
-102.6000;0.8270;-0.0616;
-102.3000;0.8319;-0.0616;
-102.0000;0.8327;-0.0498;
-101.7000;0.8295;-0.0569;
-101.4000;0.8287;-0.0687;
-101.1000;0.8278;-0.0758;
-100.8000;0.8319;-0.0640;
-100.5000;0.8303;-0.0687;
-100.2000;0.8295;-0.0663;
-99.9000;0.8287;-0.0687;
-99.6000;0.8335;-0.0545;
-99.3000;0.8295;-0.0663;
-99.0000;0.8295;-0.0663;
-98.7000;0.8287;-0.0640;
-98.4000;0.8295;-0.0569;
-98.1000;0.8303;-0.0616;
-97.8000;0.8278;-0.0663;
-97.5000;0.8344;-0.0474;
-97.2000;0.8295;-0.0616;
-96.9000;0.8295;-0.0545;
-96.6000;0.8295;-0.0521;
-96.3000;0.8287;-0.0545;
-96.0000;0.8303;-0.0545;
-95.7000;0.8311;-0.0474;
-95.4000;0.8311;-0.0521;
-95.1000;0.8303;-0.0711;
-94.8000;0.8295;-0.0806;
-94.5000;0.8319;-0.0806;
-94.2000;0.8270;-0.0924;
-93.9000;0.8303;-0.0829;
-93.6000;0.8278;-0.0900;
-93.3000;0.8287;-0.0806;
-93.0000;0.8254;-0.0853;
-92.7000;0.8311;-0.0734;
-92.4000;0.8287;-0.0734;
-92.1000;0.8246;-0.0806;
-91.8000;0.8303;-0.0640;
-91.5000;0.8295;-0.0616;
-91.2000;0.8287;-0.0592;
-90.9000;0.8295;-0.0569;
-90.6000;0.8246;-0.0687;
-90.3000;0.8287;-0.0640;
-90.0000;0.8287;-0.0711;
-89.7000;0.8295;-0.0758;
-89.4000;0.8303;-0.0711;
-89.1000;0.8303;-0.0782;
-88.8000;0.8295;-0.0877;
-88.5000;0.8295;-0.0829;
-88.2000;0.8262;-0.0948;
-87.9000;0.8287;-0.0806;
-87.6000;0.8287;-0.0829;
-87.3000;0.8287;-0.0877;
-87.0000;0.8287;-0.0900;
-86.7000;0.8344;-0.0758;
-86.4000;0.8311;-0.0758;
-86.1000;0.8303;-0.0829;
-85.8000;0.8295;-0.0829;
-85.5000;0.8311;-0.0711;
-85.2000;0.8319;-0.0734;
-84.9000;0.8303;-0.0640;
-84.6000;0.8303;-0.0663;
-84.3000;0.8295;-0.0592;
-84.0000;0.8319;-0.0545;
-83.7000;0.8311;-0.0592;
-83.4000;0.8278;-0.0687;
-83.1000;0.8311;-0.0498;
-82.8000;0.8278;-0.0474;
-82.5000;0.8278;-0.0474;
-82.2000;0.8270;-0.0474;
-81.9000;0.8295;-0.0450;
-81.6000;0.8254;-0.0521;
-81.3000;0.8287;-0.0403;
-81.0000;0.8287;-0.0474;
-80.7000;0.8230;-0.0734;
-80.4000;0.8295;-0.0616;
-80.1000;0.8303;-0.0569;
-79.8000;0.8303;-0.0616;
-79.5000;0.8205;-0.0806;
-79.2000;0.8295;-0.0616;
-78.9000;0.8311;-0.0616;
-78.6000;0.8278;-0.0640;
-78.3000;0.8287;-0.0663;
-78.0000;0.8287;-0.0711;
-77.7000;0.8303;-0.0758;
-77.4000;0.8287;-0.0734;
-77.1000;0.8327;-0.0687;
-76.8000;0.8311;-0.0734;
-76.5000;0.8303;-0.0782;
-76.2000;0.8311;-0.0663;
-75.9000;0.8295;-0.0711;
-75.6000;0.8319;-0.0687;
-75.3000;0.8319;-0.0663;
-75.0000;0.8303;-0.0734;
-74.7000;0.8311;-0.0734;
-74.4000;0.8303;-0.0711;
-74.1000;0.8303;-0.0758;
-73.8000;0.8311;-0.0829;
-73.5000;0.8311;-0.0711;
-73.2000;0.8311;-0.0711;
-72.9000;0.8303;-0.0782;
-72.6000;0.8295;-0.0734;
-72.3000;0.8230;-0.0829;
-72.0000;0.8278;-0.0663;
-71.7000;0.8287;-0.0569;
-71.4000;0.8230;-0.0711;
-71.1000;0.8303;-0.0592;
-70.8000;0.8287;-0.0687;
-70.5000;0.8295;-0.0687;
-70.2000;0.8295;-0.0711;
-69.9000;0.8311;-0.0640;
-69.6000;0.8311;-0.0734;
-69.3000;0.8303;-0.0663;
-69.0000;0.8303;-0.0640;
-68.7000;0.8311;-0.0663;
-68.4000;0.8319;-0.0711;
-68.1000;0.8295;-0.0829;
-67.8000;0.8311;-0.0734;
-67.5000;0.8303;-0.0782;
-67.2000;0.8303;-0.0687;
-66.9000;0.8270;-0.0758;
-66.6000;0.8303;-0.0640;
-66.3000;0.8295;-0.0687;
-66.0000;0.8295;-0.0711;
-65.7000;0.8295;-0.0734;
-65.4000;0.8295;-0.0711;
-65.1000;0.8311;-0.0616;
-64.8000;0.8303;-0.0640;
-64.5000;0.8287;-0.0711;
-64.2000;0.8311;-0.0616;
-63.9000;0.8311;-0.0616;
-63.6000;0.8303;-0.0592;
-63.3000;0.8311;-0.0569;
-63.0000;0.8287;-0.0640;
-62.7000;0.8303;-0.0687;
-62.4000;0.8287;-0.0711;
-62.1000;0.8335;-0.0592;
-61.8000;0.8295;-0.0616;
-61.5000;0.8352;-0.0521;
-61.2000;0.8319;-0.0687;
-60.9000;0.8311;-0.0640;
-60.6000;0.8311;-0.0640;
-60.3000;0.8278;-0.0734;
-60.0000;0.8287;-0.0734;
-59.7000;0.8287;-0.0734;
-59.4000;0.8262;-0.0782;
-59.1000;0.8311;-0.0687;
-58.8000;0.8278;-0.0806;
-58.5000;0.8295;-0.0734;
-58.2000;0.8295;-0.0806;
-57.9000;0.8303;-0.0853;
-57.6000;0.8303;-0.0900;
-57.3000;0.8327;-0.0924;
-57.0000;0.8287;-0.1161;
-56.7000;0.8295;-0.1090;
-56.4000;0.8344;-0.0924;
-56.1000;0.8246;-0.1137;
-55.8000;0.8287;-0.0995;
-55.5000;0.8246;-0.1137;
-55.2000;0.8295;-0.0971;
-54.9000;0.8360;-0.0734;
-54.6000;0.8319;-0.0877;
-54.3000;0.8303;-0.0877;
-54.0000;0.8303;-0.0853;
-53.7000;0.8311;-0.0806;
-53.4000;0.8311;-0.0782;
-53.1000;0.8303;-0.0734;
-52.8000;0.8295;-0.0853;
-52.5000;0.8303;-0.0829;
-52.2000;0.8303;-0.0806;
-51.9000;0.8303;-0.0853;
-51.6000;0.8287;-0.0900;
-51.3000;0.8327;-0.0758;
-51.0000;0.8303;-0.0758;
-50.7000;0.8303;-0.0758;
-50.4000;0.8295;-0.0782;
-50.1000;0.8311;-0.0663;
-49.8000;0.8303;-0.0711;
-49.5000;0.8303;-0.0758;
-49.2000;0.8311;-0.0782;
-48.9000;0.8319;-0.0782;
-48.6000;0.8287;-0.0853;
-48.3000;0.8311;-0.0758;
-48.0000;0.8335;-0.0663;
-47.7000;0.8311;-0.0711;
-47.4000;0.8295;-0.0711;
-47.1000;0.8303;-0.0734;
-46.8000;0.8303;-0.0829;
-46.5000;0.8303;-0.0877;
-46.2000;0.8246;-0.1042;
-45.9000;0.8295;-0.0948;
-45.6000;0.8295;-0.0924;
-45.3000;0.8262;-0.0900;
-45.0000;0.8311;-0.0806;
-44.7000;0.8311;-0.0782;
-44.4000;0.8287;-0.0924;
-44.1000;0.8327;-0.0829;
-43.8000;0.8303;-0.0900;
-43.5000;0.8295;-0.0877;
-43.2000;0.8303;-0.0900;
-42.9000;0.8303;-0.0877;
-42.6000;0.8311;-0.0829;
-42.3000;0.8287;-0.0853;
-42.0000;0.8295;-0.0829;
-41.7000;0.8287;-0.0829;
-41.4000;0.8295;-0.0687;
-41.1000;0.8246;-0.0853;
-40.8000;0.8287;-0.0711;
-40.5000;0.8303;-0.0663;
-40.2000;0.8295;-0.0734;
-39.9000;0.8278;-0.0853;
-39.6000;0.8368;-0.0592;
-39.3000;0.8311;-0.0616;
-39.0000;0.8303;-0.0569;
-38.7000;0.8311;-0.0640;
-38.4000;0.8303;-0.0687;
-38.1000;0.8295;-0.0640;
-37.8000;0.8311;-0.0592;
-37.5000;0.8295;-0.0640;
-37.2000;0.8295;-0.0616;
-36.9000;0.8278;-0.0687;
-36.6000;0.8311;-0.0545;
-36.3000;0.8295;-0.0592;
-36.0000;0.8287;-0.0545;
-35.7000;0.8278;-0.0640;
-35.4000;0.8278;-0.0711;
-35.1000;0.8287;-0.0687;
-34.8000;0.8278;-0.0711;
-34.5000;0.8278;-0.0663;
-34.2000;0.8270;-0.0663;
-33.9000;0.8303;-0.0592;
-33.6000;0.8303;-0.0521;
-33.3000;0.8287;-0.0616;
-33.0000;0.8295;-0.0663;
-32.7000;0.8287;-0.0687;
-32.4000;0.8344;-0.0616;
-32.1000;0.8295;-0.0806;
-31.8000;0.8295;-0.0734;
-31.5000;0.8303;-0.0663;
-31.2000;0.8254;-0.0711;
-30.9000;0.8295;-0.0640;
-30.6000;0.8287;-0.0640;
-30.3000;0.8295;-0.0663;
-30.0000;0.8287;-0.0687;
-29.7000;0.8311;-0.0687;
-29.4000;0.8327;-0.0663;
-29.1000;0.8295;-0.0758;
-28.8000;0.8303;-0.0758;
-28.5000;0.8295;-0.0829;
-28.2000;0.8270;-0.0853;
-27.9000;0.8303;-0.0758;
-27.6000;0.8303;-0.0687;
-27.3000;0.8344;-0.0663;
-27.0000;0.8295;-0.0640;
-26.7000;0.8303;-0.0687;
-26.4000;0.8303;-0.0711;
-26.1000;0.8319;-0.0711;
-25.8000;0.8303;-0.0829;
-25.5000;0.8278;-0.0853;
-25.2000;0.8360;-0.0711;
-24.9000;0.8303;-0.0853;
-24.6000;0.8303;-0.0900;
-24.3000;0.8295;-0.0924;
-24.0000;0.8303;-0.0877;
-23.7000;0.8319;-0.0877;
-23.4000;0.8295;-0.0877;
-23.1000;0.8303;-0.0900;
-22.8000;0.8303;-0.0853;
-22.5000;0.8311;-0.0853;
-22.2000;0.8278;-0.0948;
-21.9000;0.8319;-0.0853;
-21.6000;0.8295;-0.0853;
-21.3000;0.8295;-0.0829;
-21.0000;0.8327;-0.0758;
-20.7000;0.8303;-0.0782;
-20.4000;0.8278;-0.0829;
-20.1000;0.8295;-0.0853;
-19.8000;0.8352;-0.0711;
-19.5000;0.8311;-0.0829;
-19.2000;0.8278;-0.0948;
-18.9000;0.8295;-0.0877;
-18.6000;0.8303;-0.0829;
-18.3000;0.8295;-0.0782;
-18.0000;0.8295;-0.0758;
-17.7000;0.8230;-0.0900;
-17.4000;0.8278;-0.0853;
-17.1000;0.8287;-0.0758;
-16.8000;0.8246;-0.0853;
-16.5000;0.8287;-0.0853;
-16.2000;0.8344;-0.0806;
-15.9000;0.8295;-0.0877;
-15.6000;0.8295;-0.0924;
-15.3000;0.8295;-0.0853;
-15.0000;0.8278;-0.0877;
-14.7000;0.8311;-0.0829;
-14.4000;0.8303;-0.0900;
-14.1000;0.8254;-0.1019;
-13.8000;0.8295;-0.0900;
-13.5000;0.8295;-0.0877;
-13.2000;0.8295;-0.0853;
-12.9000;0.8278;-0.0924;
-12.6000;0.8278;-0.0853;
-12.3000;0.8303;-0.0877;
-12.0000;0.8295;-0.0877;
-11.7000;0.8270;-0.0853;
-11.4000;0.8295;-0.0806;
-11.1000;0.8295;-0.0711;
-10.8000;0.8287;-0.0782;
-10.5000;0.8278;-0.0806;
-10.2000;0.8303;-0.0734;
-9.9000;0.8303;-0.0711;
-9.6000;0.8303;-0.0734;
-9.3000;0.8295;-0.0782;
-9.0000;0.8270;-0.0877;
-8.7000;0.8295;-0.0853;
-8.4000;0.8303;-0.0782;
-8.1000;0.8303;-0.0758;
-7.8000;0.8287;-0.0782;
-7.5000;0.8295;-0.0782;
-7.2000;0.8295;-0.0877;
-6.9000;0.8254;-0.0995;
-6.6000;0.8287;-0.0900;
-6.3000;0.8278;-0.0971;
-6.0000;0.8295;-0.0853;
-5.7000;0.8230;-0.0995;
-5.4000;0.8278;-0.0806;
-5.1000;0.8278;-0.0829;
-4.8000;0.8335;-0.0758;
-4.5000;0.8303;-0.0829;
-4.2000;0.8287;-0.0806;
-3.9000;0.8295;-0.0782;
-3.6000;0.8295;-0.0663;
-3.3000;0.8327;-0.0616;
-3.0000;0.8303;-0.0687;
-2.7000;0.8303;-0.0687;
-2.4000;0.8295;-0.0734;
-2.1000;0.8303;-0.0687;
-1.8000;0.8303;-0.0758;
-1.5000;0.8287;-0.0806;
-1.2000;0.8287;-0.0853;
-0.9000;0.8303;-0.0806;
-0.6000;0.8295;-0.0806;
-0.3000;0.8303;-0.0853;
0.0000;0.8303;-0.0853;
0.3000;0.8449;-0.0995;
0.6000;0.8734;-0.0261;
0.9000;0.8954;0.0355;
1.2000;0.9117;0.0900;
1.5000;0.9247;0.1256;
1.8000;0.9442;0.1753;
2.1000;0.9459;0.1943;
2.4000;0.9524;0.2275;
2.7000;0.9548;0.2369;
3.0000;0.9613;0.2583;
3.3000;0.9654;0.2748;
3.6000;0.9703;0.2891;
3.9000;0.9752;0.2938;
4.2000;0.9784;0.2914;
4.5000;0.9817;0.2962;
4.8000;0.9833;0.2962;
5.1000;0.9849;0.3080;
5.4000;0.9874;0.3222;
5.7000;0.9890;0.3270;
6.0000;0.9866;0.3222;
6.3000;0.9915;0.3341;
6.6000;0.9906;0.3270;
6.9000;0.9915;0.3293;
7.2000;0.9963;0.3317;
7.5000;0.9980;0.3270;
7.8000;0.9996;0.3270;
8.1000;1.0012;0.3341;
8.4000;1.0037;0.3364;
8.7000;1.0061;0.3364;
9.0000;1.0061;0.3293;
9.3000;1.0167;0.3601;
9.6000;1.0094;0.3364;
9.9000;1.0110;0.3412;
10.2000;1.0126;0.3388;
10.5000;1.0118;0.3364;
10.8000;1.0151;0.3364;
11.1000;1.0159;0.3364;
11.4000;1.0199;0.3388;
11.7000;1.0216;0.3293;
12.0000;1.0142;0.3151;
12.3000;1.0216;0.3341;
12.6000;1.0199;0.3341;
12.9000;1.0191;0.3293;
13.2000;1.0216;0.3222;
13.5000;1.0248;0.3364;
13.8000;1.0240;0.3317;
14.1000;1.0232;0.3270;
14.4000;1.0175;0.3033;
14.7000;1.0256;0.3222;
15.0000;1.0265;0.3246;
15.3000;1.0281;0.3175;
15.6000;1.0297;0.3199;
15.9000;1.0289;0.3246;
16.2000;1.0305;0.3222;
16.5000;1.0305;0.3222;
16.8000;1.0305;0.3270;
17.1000;1.0313;0.3293;
17.4000;1.0313;0.3293;
17.7000;1.0338;0.3364;
18.0000;1.0354;0.3388;
18.3000;1.0313;0.3388;
18.6000;1.0289;0.3222;
18.9000;1.0354;0.3388;
19.2000;1.0362;0.3293;
19.5000;1.0370;0.3246;
19.8000;1.0419;0.3222;
20.1000;1.0403;0.3246;
20.4000;1.0395;0.3151;
20.7000;1.0338;0.3033;
21.0000;1.0411;0.3222;
21.3000;1.0419;0.3246;
21.6000;1.0411;0.3199;
21.9000;1.0379;0.3199;
22.2000;1.0427;0.3341;
22.5000;1.0444;0.3459;
22.8000;1.0427;0.3412;
23.1000;1.0435;0.3364;
23.4000;1.0419;0.3317;
23.7000;1.0427;0.3246;
24.0000;1.0452;0.3246;
24.3000;1.0444;0.3246;
24.6000;1.0435;0.3199;
24.9000;1.0460;0.3246;
25.2000;1.0452;0.3199;
25.5000;1.0444;0.3222;
25.8000;1.0468;0.3151;
26.1000;1.0460;0.3056;
26.4000;1.0452;0.3033;
26.7000;1.0460;0.3056;
27.0000;1.0452;0.3104;
27.3000;1.0468;0.2985;
27.6000;1.0492;0.3104;
27.9000;1.0468;0.3056;
28.2000;1.0476;0.3009;
28.5000;1.0468;0.2962;
28.8000;1.0484;0.2985;
29.1000;1.0492;0.3009;
29.4000;1.0468;0.2985;
29.7000;1.0484;0.3056;
30.0000;1.0558;0.3222;
30.3000;1.0574;0.3175;
30.6000;1.0549;0.3056;
30.9000;1.0492;0.2962;
31.2000;1.0598;0.3270;
31.5000;1.0484;0.3033;
31.8000;1.0525;0.3104;
32.1000;1.0501;0.3033;
32.4000;1.0501;0.3104;
32.7000;1.0549;0.3175;
33.0000;1.0517;0.3127;
33.3000;1.0501;0.3151;
33.6000;1.0468;0.3056;
33.9000;1.0517;0.3222;
34.2000;1.0533;0.3293;
34.5000;1.0533;0.3270;
34.8000;1.0533;0.3293;
35.1000;1.0533;0.3317;
35.4000;1.0549;0.3341;
35.7000;1.0606;0.3459;
36.0000;1.0533;0.3293;
36.3000;1.0509;0.3222;
36.6000;1.0533;0.3270;
36.9000;1.0541;0.3341;
37.2000;1.0533;0.3246;
37.5000;1.0533;0.3246;
37.8000;1.0533;0.3175;
38.1000;1.0541;0.3246;
38.4000;1.0541;0.3270;
38.7000;1.0533;0.3151;
39.0000;1.0533;0.3222;
39.3000;1.0517;0.3199;
39.6000;1.0517;0.3127;
39.9000;1.0541;0.3199;
40.2000;1.0566;0.3199;
40.5000;1.0549;0.3199;
40.8000;1.0549;0.3151;
41.1000;1.0558;0.3151;
41.4000;1.0525;0.3104;
41.7000;1.0558;0.3175;
42.0000;1.0566;0.3199;
42.3000;1.0549;0.3151;
42.6000;1.0533;0.3080;
42.9000;1.0533;0.3127;
43.2000;1.0533;0.3199;
43.5000;1.0541;0.3151;
43.8000;1.0501;0.3056;
44.1000;1.0533;0.3222;
44.4000;1.0533;0.3270;
44.7000;1.0509;0.3246;
45.0000;1.0549;0.3317;
45.3000;1.0549;0.3270;
45.6000;1.0558;0.3246;
45.9000;1.0574;0.3317;
46.2000;1.0590;0.3317;
46.5000;1.0566;0.3270;
46.8000;1.0549;0.3199;
47.1000;1.0598;0.3341;
47.4000;1.0590;0.3388;
47.7000;1.0582;0.3341;
48.0000;1.0606;0.3317;
48.3000;1.0582;0.3270;
48.6000;1.0566;0.3293;
48.9000;1.0574;0.3246;
49.2000;1.0574;0.3270;
49.5000;1.0582;0.3364;
49.8000;1.0615;0.3507;
50.1000;1.0582;0.3317;
50.4000;1.0606;0.3364;
50.7000;1.0680;0.3601;
51.0000;1.0574;0.3341;
51.3000;1.0558;0.3341;
51.6000;1.0582;0.3317;
51.9000;1.0606;0.3293;
52.2000;1.0606;0.3222;
52.5000;1.0574;0.3246;
52.8000;1.0558;0.3222;
53.1000;1.0582;0.3246;
53.4000;1.0623;0.3293;
53.7000;1.0533;0.3104;
54.0000;1.0574;0.3056;
54.3000;1.0574;0.2985;
54.6000;1.0566;0.2985;
54.9000;1.0541;0.2891;
55.2000;1.0598;0.3009;
55.5000;1.0590;0.2985;
55.8000;1.0590;0.3033;
56.1000;1.0590;0.3056;
56.4000;1.0590;0.3104;
56.7000;1.0606;0.3104;
57.0000;1.0590;0.3104;
57.3000;1.0615;0.3033;
57.6000;1.0598;0.2962;
57.9000;1.0590;0.2962;
58.2000;1.0623;0.3009;
58.5000;1.0615;0.3056;
58.8000;1.0615;0.2962;
59.1000;1.0598;0.2962;
59.4000;1.0598;0.2938;
59.7000;1.0623;0.2914;
60.0000;1.0631;0.2938;
60.3000;1.0590;0.2914;
60.6000;1.0582;0.2843;
60.9000;1.0606;0.2962;
61.2000;1.0598;0.2985;
61.5000;1.0598;0.2985;
61.8000;1.0598;0.3009;
62.1000;1.0598;0.3033;
62.4000;1.0623;0.3127;
62.7000;1.0598;0.3009;
63.0000;1.0590;0.2938;
63.3000;1.0606;0.2962;
63.6000;1.0598;0.3056;
63.9000;1.0615;0.3151;
64.2000;1.0606;0.3127;
64.5000;1.0598;0.2985;
64.8000;1.0590;0.2985;
65.1000;1.0606;0.3056;
65.4000;1.0598;0.3033;
65.7000;1.0590;0.3056;
66.0000;1.0598;0.3151;
66.3000;1.0615;0.3175;
66.6000;1.0598;0.3127;
66.9000;1.0606;0.3056;
67.2000;1.0606;0.3104;
67.5000;1.0598;0.3080;
67.8000;1.0541;0.2914;
68.1000;1.0598;0.3151;
68.4000;1.0606;0.3199;
68.7000;1.0598;0.3127;
69.0000;1.0582;0.3151;
69.3000;1.0615;0.3175;
69.6000;1.0582;0.3009;
69.9000;1.0623;0.3033;
70.2000;1.0606;0.3033;
70.5000;1.0582;0.2938;
70.8000;1.0582;0.2891;
71.1000;1.0631;0.3033;
71.4000;1.0590;0.2962;
71.7000;1.0606;0.3033;
72.0000;1.0590;0.2962;
72.3000;1.0582;0.2962;
72.6000;1.0623;0.3056;
72.9000;1.0623;0.2914;
73.2000;1.0590;0.2772;
73.5000;1.0615;0.2796;
73.8000;1.0615;0.2796;
74.1000;1.0623;0.2772;
74.4000;1.0623;0.2677;
74.7000;1.0566;0.2440;
75.0000;1.0598;0.2630;
75.3000;1.0647;0.2819;
75.6000;1.0615;0.2725;
75.9000;1.0590;0.2701;
76.2000;1.0672;0.2867;
76.5000;1.0606;0.2677;
76.8000;1.0582;0.2583;
77.1000;1.0615;0.2701;
77.4000;1.0574;0.2677;
77.7000;1.0631;0.2819;
78.0000;1.0623;0.2772;
78.3000;1.0606;0.2867;
78.6000;1.0606;0.2867;
78.9000;1.0615;0.2938;
79.2000;1.0615;0.3056;
79.5000;1.0606;0.3056;
79.8000;1.0598;0.3056;
80.1000;1.0606;0.3151;
80.4000;1.0615;0.3175;
80.7000;1.0615;0.3175;
81.0000;1.0590;0.3151;
81.3000;1.0606;0.3222;
81.6000;1.0598;0.3104;
81.9000;1.0606;0.3080;
82.2000;1.0574;0.2985;
82.5000;1.0590;0.3009;
82.8000;1.0598;0.2938;
83.1000;1.0598;0.2985;
83.4000;1.0598;0.2891;
83.7000;1.0598;0.2938;
84.0000;1.0598;0.2985;
84.3000;1.0615;0.3056;
84.6000;1.0615;0.3056;
84.9000;1.0606;0.2914;
85.2000;1.0615;0.3009;
85.5000;1.0696;0.3175;
85.8000;1.0606;0.2891;
86.1000;1.0606;0.2914;
86.4000;1.0623;0.2914;
86.7000;1.0606;0.2867;
87.0000;1.0623;0.2843;
87.3000;1.0606;0.2843;
87.6000;1.0631;0.2938;
87.9000;1.0615;0.3033;
88.2000;1.0615;0.3080;
88.5000;1.0623;0.3009;
88.8000;1.0631;0.3009;
89.1000;1.0615;0.3033;
89.4000;1.0615;0.3080;
89.7000;1.0615;0.3033;
90.0000;1.0615;0.3056;
90.3000;1.0606;0.3056;
90.6000;1.0623;0.3033;
90.9000;1.0639;0.2985;
91.2000;1.0590;0.2819;
91.5000;1.0623;0.2819;
91.8000;1.0590;0.2819;
92.1000;1.0606;0.2796;
92.4000;1.0598;0.2701;
92.7000;1.0574;0.2583;
93.0000;1.0615;0.2654;
93.3000;1.0623;0.2677;
93.6000;1.0558;0.2630;
93.9000;1.0590;0.2772;
94.2000;1.0590;0.2796;
94.5000;1.0639;0.2867;
94.8000;1.0631;0.2867;
95.1000;1.0623;0.2891;
95.4000;1.0566;0.2796;
95.7000;1.0615;0.2938;
96.0000;1.0606;0.2914;
96.3000;1.0590;0.2748;
96.6000;1.0606;0.2772;
96.9000;1.0606;0.2867;
97.2000;1.0606;0.2891;
97.5000;1.0582;0.2772;
97.8000;1.0631;0.2843;
98.1000;1.0615;0.2748;
98.4000;1.0598;0.2701;
98.7000;1.0623;0.2843;
99.0000;1.0623;0.2819;
99.3000;1.0598;0.2796;
99.6000;1.0606;0.2819;
99.9000;1.0598;0.2725;
100.2000;1.0623;0.2867;
100.5000;1.0598;0.2772;
100.8000;1.0606;0.2748;
101.1000;1.0606;0.2796;
101.4000;1.0574;0.2748;
101.7000;1.0606;0.2772;
102.0000;1.0598;0.2819;
102.3000;1.0639;0.2891;
102.6000;1.0623;0.2914;
102.9000;1.0574;0.2748;
103.2000;1.0615;0.2914;
103.5000;1.0598;0.2843;
103.8000;1.0615;0.2914;
104.1000;1.0623;0.2985;
104.4000;1.0623;0.3056;
104.7000;1.0623;0.3104;
105.0000;1.0606;0.3080;
105.3000;1.0606;0.2962;
105.6000;1.0631;0.2891;
105.9000;1.0606;0.2819;
106.2000;1.0631;0.2819;
106.5000;1.0615;0.2819;
106.8000;1.0598;0.2843;
107.1000;1.0574;0.2796;
107.4000;1.0549;0.2725;
107.7000;1.0533;0.2677;
108.0000;1.0549;0.2725;
108.3000;1.0549;0.2796;
108.6000;1.0615;0.2962;
108.9000;1.0606;0.2985;
109.2000;1.0631;0.3104;
109.5000;1.0672;0.3222;
109.8000;1.0623;0.3080;
110.1000;1.0623;0.3104;
110.4000;1.0631;0.3080;
110.7000;1.0631;0.3056;
111.0000;1.0623;0.3080;
111.3000;1.0631;0.3104;
111.6000;1.0598;0.3056;
111.9000;1.0606;0.3151;
112.2000;1.0615;0.3151;
112.5000;1.0631;0.3104;
112.8000;1.0598;0.2985;
113.1000;1.0598;0.2796;
113.4000;1.0590;0.2772;
113.7000;1.0615;0.2772;
114.0000;1.0623;0.2819;
114.3000;1.0606;0.2748;
114.6000;1.0615;0.2796;
114.9000;1.0590;0.2867;
115.2000;1.0631;0.2985;
115.5000;1.0615;0.2914;
115.8000;1.0631;0.2914;
116.1000;1.0623;0.2867;
116.4000;1.0631;0.2891;
116.7000;1.0615;0.2843;
117.0000;1.0631;0.2891;
117.3000;1.0623;0.2867;
117.6000;1.0558;0.2701;
117.9000;1.0606;0.2843;
118.2000;1.0615;0.2867;
118.5000;1.0606;0.2843;
118.8000;1.0606;0.2796;
119.1000;1.0615;0.2748;
119.4000;1.0598;0.2677;
119.7000;1.0606;0.2725;
120.0000;1.0606;0.2725;
120.3000;1.0606;0.2725;
120.6000;1.0598;0.2772;
120.9000;1.0574;0.2677;
121.2000;1.0655;0.2891;
121.5000;1.0615;0.2796;
121.8000;1.0647;0.2867;
122.1000;1.0615;0.2796;
122.4000;1.0590;0.2725;
122.7000;1.0615;0.2748;
123.0000;1.0606;0.2772;
123.3000;1.0582;0.2772;
123.6000;1.0590;0.2796;
123.9000;1.0631;0.2843;
124.2000;1.0541;0.2725;
124.5000;1.0606;0.2867;
124.8000;1.0590;0.2843;
125.1000;1.0582;0.2819;
125.4000;1.0615;0.2914;
125.7000;1.0598;0.2938;
126.0000;1.0598;0.2938;
126.3000;1.0639;0.2962;
126.6000;1.0631;0.2796;
126.9000;1.0631;0.2867;
127.2000;1.0631;0.2843;
127.5000;1.0615;0.2843;
127.8000;1.0639;0.2819;
128.1000;1.0631;0.2796;
128.4000;1.0590;0.2701;
128.7000;1.0631;0.2867;
129.0000;1.0606;0.2819;
129.3000;1.0615;0.2748;
129.6000;1.0631;0.2725;
129.9000;1.0606;0.2701;
130.2000;1.0590;0.2677;
130.5000;1.0606;0.2867;
130.8000;1.0623;0.2914;
131.1000;1.0606;0.2843;
131.4000;1.0623;0.2819;
131.7000;1.0720;0.3009;
132.0000;1.0606;0.2796;
132.3000;1.0672;0.2843;
132.6000;1.0606;0.2606;
132.9000;1.0623;0.2654;
133.2000;1.0623;0.2701;
133.5000;1.0598;0.2677;
133.8000;1.0606;0.2796;
134.1000;1.0533;0.2748;
134.4000;1.0615;0.3104;
134.7000;1.0590;0.3080;
135.0000;1.0590;0.3033;
135.3000;1.0606;0.2962;
135.6000;1.0606;0.3104;
135.9000;1.0631;0.3151;
136.2000;1.0615;0.3199;
136.5000;1.0615;0.3151;
136.8000;1.0615;0.3104;
137.1000;1.0615;0.3104;
137.4000;1.0615;0.3009;
137.7000;1.0606;0.2914;
138.0000;1.0606;0.2843;
138.3000;1.0615;0.2867;
138.6000;1.0598;0.2796;
138.9000;1.0590;0.2914;
139.2000;1.0606;0.2985;
139.5000;1.0623;0.2962;
139.8000;1.0606;0.2914;
140.1000;1.0615;0.2914;
140.4000;1.0606;0.2938;
140.7000;1.0623;0.2938;
141.0000;1.0615;0.2962;
141.3000;1.0598;0.2867;
141.6000;1.0631;0.2819;
141.9000;1.0639;0.2772;
142.2000;1.0623;0.2796;
142.5000;1.0615;0.2701;
142.8000;1.0615;0.2796;
143.1000;1.0623;0.2819;
143.4000;1.0615;0.2796;
143.7000;1.0574;0.2843;
144.0000;1.0606;0.2819;
144.3000;1.0590;0.2796;
144.6000;1.0615;0.2701;
144.9000;1.0590;0.2559;
145.2000;1.0582;0.2511;
145.5000;1.0606;0.2511;
145.8000;1.0623;0.2630;
146.1000;1.0615;0.2630;
146.4000;1.0541;0.2464;
146.7000;1.0566;0.2488;
147.0000;1.0606;0.2606;
147.3000;1.0590;0.2701;
147.6000;1.0615;0.2725;
147.9000;1.0672;0.2867;
148.2000;1.0615;0.2606;
148.5000;1.0590;0.2511;
148.8000;1.0623;0.2559;
149.1000;1.0615;0.2630;
149.4000;1.0615;0.2559;
149.7000;1.0606;0.2606;
150.0000;1.0598;0.2677;
150.3000;1.0606;0.2677;
150.6000;1.0606;0.2725;
150.9000;1.0598;0.2725;
151.2000;1.0615;0.2819;
151.5000;1.0615;0.2843;
151.8000;1.0615;0.2867;
152.1000;1.0639;0.2914;
152.4000;1.0615;0.2867;
152.7000;1.0631;0.2891;
153.0000;1.0606;0.2867;
153.3000;1.0623;0.2891;
153.6000;1.0606;0.2891;
153.9000;1.0623;0.2938;
154.2000;1.0598;0.2891;
154.5000;1.0558;0.2725;
154.8000;1.0598;0.2843;
155.1000;1.0606;0.2843;
155.4000;1.0590;0.2772;
155.7000;1.0606;0.2796;
156.0000;1.0590;0.2796;
156.3000;1.0590;0.2772;
156.6000;1.0590;0.2725;
156.9000;1.0606;0.2772;
157.2000;1.0623;0.2748;
157.5000;1.0631;0.2819;
157.8000;1.0606;0.2867;
158.1000;1.0606;0.2843;
158.4000;1.0590;0.2796;
158.7000;1.0615;0.2796;
159.0000;1.0606;0.2867;
159.3000;1.0615;0.2843;
159.6000;1.0590;0.2819;
159.9000;1.0590;0.2843;
160.2000;1.0598;0.2891;
160.5000;1.0615;0.2819;
160.8000;1.0590;0.2796;
161.1000;1.0590;0.2819;
161.4000;1.0598;0.2819;
161.7000;1.0574;0.2772;
162.0000;1.0647;0.2985;
162.3000;1.0598;0.2748;
162.6000;1.0623;0.2772;
162.9000;1.0631;0.2748;
163.2000;1.0631;0.2796;
163.5000;1.0606;0.2748;
163.8000;1.0639;0.2843;
164.1000;1.0606;0.2772;
164.4000;1.0590;0.2867;
164.7000;1.0590;0.2891;
165.0000;1.0598;0.2843;
165.3000;1.0623;0.2938;
165.6000;1.0655;0.3009;
165.9000;1.0598;0.2867;
166.2000;1.0631;0.2914;
166.5000;1.0574;0.2701;
166.8000;1.0598;0.2725;
167.1000;1.0606;0.2701;
167.4000;1.0574;0.2701;
167.7000;1.0639;0.2819;
168.0000;1.0615;0.2796;
168.3000;1.0639;0.2772;
168.6000;1.0615;0.2701;
168.9000;1.0623;0.2701;
169.2000;1.0647;0.2819;
169.5000;1.0590;0.2819;
169.8000;1.0606;0.2819;
170.1000;1.0598;0.2772;
170.4000;1.0606;0.2843;
170.7000;1.0582;0.2701;
171.0000;1.0606;0.2677;
171.3000;1.0639;0.2843;
171.6000;1.0590;0.2748;
171.9000;1.0590;0.2819;
172.2000;1.0582;0.2677;
172.5000;1.0623;0.2796;
172.8000;1.0615;0.2748;
173.1000;1.0615;0.2654;
173.4000;1.0590;0.2630;
173.7000;1.0598;0.2654;
174.0000;1.0598;0.2583;
174.3000;1.0615;0.2654;
174.6000;1.0598;0.2748;
174.9000;1.0623;0.2867;
175.2000;1.0606;0.2867;
175.5000;1.0615;0.2867;
175.8000;1.0615;0.2748;
176.1000;1.0606;0.2630;
176.4000;1.0598;0.2677;
176.7000;1.0615;0.2654;
177.0000;1.0590;0.2583;
177.3000;1.0615;0.2630;
177.6000;1.0606;0.2630;
177.9000;1.0590;0.2630;
178.2000;1.0598;0.2654;
178.5000;1.0590;0.2677;
178.8000;1.0590;0.2654;
179.1000;1.0606;0.2654;
179.4000;1.0606;0.2606;
179.7000;1.0582;0.2630;
180.0000;1.0590;0.2654;
180.3000;1.0615;0.2677;
180.6000;1.0582;0.2559;
180.9000;1.0598;0.2606;
181.2000;1.0574;0.2654;
181.5000;1.0615;0.2677;
181.8000;1.0590;0.2654;
182.1000;1.0631;0.2796;
182.4000;1.0582;0.2748;
182.7000;1.0606;0.2867;
183.0000;1.0598;0.2796;
183.3000;1.0615;0.2819;
183.6000;1.0574;0.2748;
183.9000;1.0623;0.2867;
184.2000;1.0598;0.2867;
184.5000;1.0623;0.2914;
184.8000;1.0574;0.2748;
185.1000;1.0598;0.2748;
185.4000;1.0615;0.2819;
185.7000;1.0639;0.2843;
186.0000;1.0615;0.2748;
186.3000;1.0606;0.2772;
186.6000;1.0615;0.2819;
186.9000;1.0623;0.2843;
187.2000;1.0615;0.2772;
187.5000;1.0615;0.2748;
187.8000;1.0598;0.2748;
188.1000;1.0696;0.2914;
188.4000;1.0615;0.2819;
188.7000;1.0598;0.2891;
189.0000;1.0582;0.2938;
189.3000;1.0663;0.3056;
189.6000;1.0631;0.3009;
189.9000;1.0615;0.2938;
190.2000;1.0582;0.2867;
190.5000;1.0598;0.2867;
190.8000;1.0615;0.2891;
191.1000;1.0590;0.2819;
191.4000;1.0663;0.2914;
191.7000;1.0598;0.2701;
192.0000;1.0590;0.2630;
192.3000;1.0598;0.2677;
192.6000;1.0574;0.2677;
192.9000;1.0590;0.2772;
193.2000;1.0615;0.2891;
193.5000;1.0598;0.2914;
193.8000;1.0598;0.2819;
194.1000;1.0615;0.2819;
194.4000;1.0574;0.2772;
194.7000;1.0663;0.3009;
195.0000;1.0606;0.2891;
195.3000;1.0590;0.2891;
195.6000;1.0606;0.2914;
195.9000;1.0623;0.2891;
196.2000;1.0615;0.2867;
196.5000;1.0606;0.2772;
196.8000;1.0623;0.2748;
197.1000;1.0623;0.2772;
197.4000;1.0598;0.2748;
197.7000;1.0598;0.2891;
198.0000;1.0606;0.2962;
198.3000;1.0606;0.2914;
198.6000;1.0647;0.3080;
198.9000;1.0590;0.3009;
199.2000;1.0623;0.3033;
199.5000;1.0623;0.2962;
199.8000;1.0623;0.2962;
200.1000;1.0623;0.2962;
200.4000;1.0606;0.2891;
200.7000;1.0549;0.2701;
201.0000;1.0615;0.2772;
201.3000;1.0574;0.2606;
201.6000;1.0615;0.2725;
201.9000;1.0655;0.2843;
202.2000;1.0598;0.2748;
202.5000;1.0606;0.2772;
202.8000;1.0590;0.2796;
203.1000;1.0517;0.2654;
203.4000;1.0606;0.2891;
203.7000;1.0598;0.2843;
204.0000;1.0549;0.2748;
204.3000;1.0598;0.2962;
204.6000;1.0590;0.2938;
204.9000;1.0590;0.2962;
205.2000;1.0598;0.2914;
205.5000;1.0598;0.2867;
205.8000;1.0631;0.2843;
206.1000;1.0590;0.2796;
206.4000;1.0598;0.2796;
206.7000;1.0672;0.2962;
207.0000;1.0566;0.2796;
207.3000;1.0598;0.2843;
207.6000;1.0590;0.2819;
207.9000;1.0590;0.2748;
208.2000;1.0606;0.2796;
208.5000;1.0606;0.2819;
208.8000;1.0590;0.2796;
209.1000;1.0590;0.2819;
209.4000;1.0598;0.2867;
209.7000;1.0590;0.2914;
210.0000;1.0590;0.2843;
210.3000;1.0598;0.2867;
210.6000;1.0582;0.2819;
210.9000;1.0606;0.2891;
211.2000;1.0647;0.3056;
211.5000;1.0623;0.2962;
211.8000;1.0598;0.2891;
212.1000;1.0598;0.2891;
212.4000;1.0598;0.2772;
212.7000;1.0598;0.2725;
213.0000;1.0598;0.2748;
213.3000;1.0582;0.2772;
213.6000;1.0598;0.2772;
213.9000;1.0615;0.2772;
214.2000;1.0590;0.2819;
214.5000;1.0615;0.2938;
214.8000;1.0606;0.2843;
215.1000;1.0582;0.2796;
215.4000;1.0558;0.2748;
215.7000;1.0590;0.2796;
216.0000;1.0598;0.2843;
216.3000;1.0541;0.2819;
216.6000;1.0590;0.2938;
216.9000;1.0574;0.2819;
217.2000;1.0582;0.2748;
217.5000;1.0615;0.2772;
217.8000;1.0598;0.2796;
218.1000;1.0582;0.2725;
218.4000;1.0606;0.2772;
218.7000;1.0582;0.2725;
219.0000;1.0598;0.2796;
219.3000;1.0606;0.2843;
219.6000;1.0590;0.2701;
219.9000;1.0598;0.2654;
220.2000;1.0590;0.2725;
220.5000;1.0598;0.2677;
220.8000;1.0606;0.2701;
221.1000;1.0606;0.2772;
221.4000;1.0598;0.2819;
221.7000;1.0623;0.2867;
222.0000;1.0574;0.2819;
222.3000;1.0615;0.2843;
222.6000;1.0615;0.2891;
222.9000;1.0606;0.2938;
223.2000;1.0582;0.2891;
223.5000;1.0606;0.2914;
223.8000;1.0590;0.2843;
224.1000;1.0615;0.2843;
224.4000;1.0623;0.2891;
224.7000;1.0606;0.2843;
225.0000;1.0598;0.2843;
225.3000;1.0680;0.3033;
225.6000;1.0615;0.2819;
225.9000;1.0558;0.2725;
226.2000;1.0655;0.2962;
226.5000;1.0590;0.2843;
226.8000;1.0598;0.2819;
227.1000;1.0606;0.2772;
227.4000;1.0598;0.2843;
227.7000;1.0615;0.2819;
228.0000;1.0615;0.2725;
228.3000;1.0590;0.2630;
228.6000;1.0582;0.2606;
228.9000;1.0598;0.2677;
229.2000;1.0590;0.2725;
229.5000;1.0606;0.2748;
229.8000;1.0623;0.2701;
230.1000;1.0598;0.2677;
230.4000;1.0606;0.2701;
230.7000;1.0639;0.2725;
231.0000;1.0582;0.2654;
231.3000;1.0606;0.2748;
231.6000;1.0582;0.2748;
231.9000;1.0606;0.2843;
232.2000;1.0590;0.2772;
232.5000;1.0598;0.2796;
232.8000;1.0606;0.2867;
233.1000;1.0549;0.2701;
233.4000;1.0606;0.2772;
233.7000;1.0606;0.2796;
234.0000;1.0541;0.2606;
234.3000;1.0598;0.2725;
234.6000;1.0582;0.2606;
234.9000;1.0606;0.2606;
235.2000;1.0598;0.2725;
235.5000;1.0631;0.2725;
235.8000;1.0606;0.2701;
236.1000;1.0582;0.2748;
236.4000;1.0615;0.2772;
236.7000;1.0615;0.2748;
237.0000;1.0598;0.2748;
237.3000;1.0606;0.2772;
237.6000;1.0606;0.2843;
237.9000;1.0623;0.2914;
238.2000;1.0615;0.2914;
238.5000;1.0541;0.2772;
238.8000;1.0574;0.2914;
239.1000;1.0574;0.2891;
239.4000;1.0582;0.2843;
239.7000;1.0590;0.2772;
240.0000;1.0582;0.2725;
240.3000;1.0582;0.2677;
240.6000;1.0574;0.2677;
240.9000;1.0615;0.2796;
241.2000;1.0598;0.2843;
241.5000;1.0574;0.2796;
241.8000;1.0590;0.2819;
242.1000;1.0590;0.2677;
242.4000;1.0606;0.2677;
242.7000;1.0623;0.2796;
243.0000;1.0582;0.2748;
243.3000;1.0598;0.2819;
243.6000;1.0606;0.2867;
243.9000;1.0606;0.2938;
244.2000;1.0606;0.2867;
244.5000;1.0606;0.2772;
244.8000;1.0590;0.2630;
245.1000;1.0598;0.2654;
245.4000;1.0598;0.2677;
245.7000;1.0615;0.2725;
246.0000;1.0598;0.2630;
246.3000;1.0623;0.2701;
246.6000;1.0590;0.2701;
246.9000;1.0590;0.2725;
247.2000;1.0582;0.2796;
247.5000;1.0566;0.2748;
247.8000;1.0590;0.2796;
248.1000;1.0582;0.2843;
248.4000;1.0558;0.2796;
248.7000;1.0582;0.2772;
249.0000;1.0590;0.2725;
249.3000;1.0606;0.2677;
249.6000;1.0606;0.2559;
249.9000;1.0606;0.2583;
250.2000;1.0606;0.2583;
250.5000;1.0598;0.2511;
250.8000;1.0574;0.2488;
251.1000;1.0590;0.2583;
251.4000;1.0582;0.2488;
251.7000;1.0598;0.2583;
252.0000;1.0590;0.2606;
252.3000;1.0598;0.2677;
252.6000;1.0574;0.2535;
252.9000;1.0590;0.2606;
253.2000;1.0606;0.2654;
253.5000;1.0606;0.2583;
253.8000;1.0606;0.2559;
254.1000;1.0606;0.2488;
254.4000;1.0574;0.2322;
254.7000;1.0590;0.2275;
255.0000;1.0598;0.2369;
255.3000;1.0574;0.2369;
255.6000;1.0582;0.2369;
255.9000;1.0598;0.2440;
256.2000;1.0574;0.2440;
256.5000;1.0598;0.2559;
256.8000;1.0582;0.2583;
257.1000;1.0623;0.2725;
257.4000;1.0582;0.2748;
257.7000;1.0582;0.2748;
258.0000;1.0590;0.2748;
258.3000;1.0582;0.2701;
258.6000;1.0590;0.2701;
258.9000;1.0598;0.2606;
259.2000;1.0598;0.2630;
259.5000;1.0566;0.2511;
259.8000;1.0582;0.2559;
260.1000;1.0598;0.2535;
260.4000;1.0598;0.2511;
260.7000;1.0582;0.2488;
261.0000;1.0623;0.2559;
261.3000;1.0615;0.2583;
261.6000;1.0590;0.2535;
261.9000;1.0582;0.2511;
262.2000;1.0606;0.2535;
262.5000;1.0606;0.2511;
262.8000;1.0606;0.2511;
263.1000;1.0582;0.2488;
263.4000;1.0729;0.2891;
263.7000;1.0606;0.2559;
264.0000;1.0606;0.2606;
264.3000;1.0655;0.2677;
264.6000;1.0615;0.2559;
264.9000;1.0574;0.2488;
265.2000;1.0598;0.2559;
265.5000;1.0582;0.2583;
265.8000;1.0598;0.2583;
266.1000;1.0598;0.2559;
266.4000;1.0582;0.2535;
266.7000;1.0590;0.2535;
267.0000;1.0582;0.2559;
267.3000;1.0598;0.2583;
267.6000;1.0549;0.2393;
267.9000;1.0582;0.2583;
268.2000;1.0623;0.2654;
268.5000;1.0582;0.2606;
268.8000;1.0590;0.2606;
269.1000;1.0582;0.2630;
269.4000;1.0615;0.2677;
269.7000;1.0606;0.2677;
270.0000;1.0598;0.2677;
270.3000;1.0606;0.2630;
270.6000;1.0598;0.2583;
270.9000;1.0582;0.2606;
271.2000;1.0598;0.2630;
271.5000;1.0590;0.2654;
271.8000;1.0606;0.2819;
272.1000;1.0606;0.2938;
272.4000;1.0590;0.2843;
272.7000;1.0582;0.2819;
273.0000;1.0606;0.2772;
273.3000;1.0574;0.2725;
273.6000;1.0558;0.2701;
273.9000;1.0574;0.2701;
274.2000;1.0590;0.2701;
274.5000;1.0598;0.2654;
274.8000;1.0574;0.2630;
275.1000;1.0582;0.2677;
275.4000;1.0582;0.2630;
275.7000;1.0598;0.2701;
276.0000;1.0590;0.2725;
276.3000;1.0582;0.2677;
276.6000;1.0558;0.2606;
276.9000;1.0582;0.2606;
277.2000;1.0590;0.2440;
277.5000;1.0574;0.2322;
277.8000;1.0566;0.2322;
278.1000;1.0574;0.2464;
278.4000;1.0582;0.2535;
278.7000;1.0566;0.2464;
279.0000;1.0566;0.2464;
279.3000;1.0598;0.2630;
279.6000;1.0631;0.2748;
279.9000;1.0582;0.2677;
280.2000;1.0574;0.2654;
280.5000;1.0606;0.2654;
280.8000;1.0623;0.2559;
281.1000;1.0582;0.2464;
281.4000;1.0582;0.2417;
281.7000;1.0598;0.2417;
282.0000;1.0598;0.2346;
282.3000;1.0598;0.2417;
282.6000;1.0574;0.2488;
282.9000;1.0574;0.2606;
283.2000;1.0566;0.2488;
283.5000;1.0598;0.2488;
283.8000;1.0558;0.2346;
284.1000;1.0582;0.2440;
284.4000;1.0623;0.2677;
284.7000;1.0582;0.2583;
285.0000;1.0590;0.2606;
285.3000;1.0598;0.2677;
285.6000;1.0582;0.2630;
285.9000;1.0574;0.2725;
286.2000;1.0582;0.2748;
286.5000;1.0533;0.2630;
286.8000;1.0549;0.2583;
287.1000;1.0590;0.2725;
287.4000;1.0484;0.2583;
287.7000;1.0582;0.2772;
288.0000;1.0566;0.2819;
288.3000;1.0582;0.2725;
288.6000;1.0606;0.2748;
288.9000;1.0582;0.2701;
289.2000;1.0606;0.2725;
289.5000;1.0590;0.2654;
289.8000;1.0566;0.2606;
290.1000;1.0590;0.2654;
290.4000;1.0582;0.2583;
290.7000;1.0582;0.2606;
291.0000;1.0582;0.2630;
291.3000;1.0582;0.2559;
291.6000;1.0590;0.2535;
291.9000;1.0566;0.2559;
292.2000;1.0598;0.2559;
292.5000;1.0598;0.2559;
292.8000;1.0574;0.2630;
293.1000;1.0590;0.2630;
293.4000;1.0590;0.2606;
293.7000;1.0598;0.2606;
294.0000;1.0598;0.2583;
294.3000;1.0590;0.2630;
294.6000;1.0606;0.2654;
294.9000;1.0623;0.2677;
295.2000;1.0615;0.2701;
295.5000;1.0574;0.2606;
295.8000;1.0582;0.2654;
296.1000;1.0574;0.2654;
296.4000;1.0590;0.2701;
296.7000;1.0566;0.2630;
297.0000;1.0582;0.2677;
297.3000;1.0590;0.2677;
297.6000;1.0566;0.2583;
297.9000;1.0574;0.2677;
298.2000;1.0590;0.2583;
298.5000;1.0574;0.2583;
298.8000;1.0566;0.2583;
299.1000;1.0582;0.2559;
299.4000;1.0582;0.2488;
299.7000;1.0631;0.2701;
300.0000;1.0582;0.2583;
300.3000;1.0582;0.2677;
300.6000;1.0533;0.2488;
300.9000;1.0598;0.2606;
301.2000;1.0598;0.2748;
301.5000;1.0582;0.2772;
301.8000;1.0590;0.2725;
302.1000;1.0582;0.2677;
302.4000;1.0582;0.2701;
302.7000;1.0574;0.2725;
303.0000;1.0582;0.2748;
303.3000;1.0590;0.2772;
303.6000;1.0582;0.2796;
303.9000;1.0598;0.2819;
304.2000;1.0598;0.2796;
304.5000;1.0574;0.2843;
304.8000;1.0582;0.2843;
305.1000;1.0566;0.2772;
305.4000;1.0590;0.2748;
305.7000;1.0582;0.2819;
306.0000;1.0574;0.2772;
306.3000;1.0598;0.2796;
306.6000;1.0590;0.2772;
306.9000;1.0582;0.2701;
307.2000;1.0509;0.2606;
307.5000;1.0590;0.2748;
307.8000;1.0590;0.2701;
308.1000;1.0574;0.2654;
308.4000;1.0566;0.2654;
308.7000;1.0566;0.2701;
309.0000;1.0574;0.2701;
309.3000;1.0574;0.2677;
309.6000;1.0566;0.2677;
309.9000;1.0639;0.2796;
310.2000;1.0631;0.2796;
310.5000;1.0574;0.2701;
310.8000;1.0590;0.2772;
311.1000;1.0574;0.2772;
311.4000;1.0647;0.2938;
311.7000;1.0598;0.2819;
312.0000;1.0574;0.2772;
312.3000;1.0558;0.2796;
312.6000;1.0590;0.2891;
312.9000;1.0582;0.2891;
313.2000;1.0672;0.3033;
313.5000;1.0582;0.2867;
313.8000;1.0549;0.2819;
314.1000;1.0590;0.2843;
314.4000;1.0582;0.2796;
314.7000;1.0598;0.2796;
315.0000;1.0582;0.2796;
315.3000;1.0582;0.2867;
315.6000;1.0582;0.2867;
315.9000;1.0574;0.2938;
316.2000;1.0582;0.2985;
316.5000;1.0566;0.3009;
316.8000;1.0582;0.2985;
317.1000;1.0598;0.2891;
317.4000;1.0574;0.2748;
317.7000;1.0598;0.2891;
318.0000;1.0582;0.2891;
318.3000;1.0582;0.2843;
318.6000;1.0533;0.2677;
318.9000;1.0574;0.2772;
319.2000;1.0598;0.2748;
319.5000;1.0574;0.2630;
319.8000;1.0566;0.2630;
320.1000;1.0598;0.2725;
320.4000;1.0582;0.2701;
320.7000;1.0582;0.2630;
321.0000;1.0582;0.2654;
321.3000;1.0574;0.2654;
321.6000;1.0533;0.2630;
321.9000;1.0574;0.2701;
322.2000;1.0582;0.2796;
322.5000;1.0574;0.2748;
322.8000;1.0566;0.2772;
323.1000;1.0574;0.2867;
323.4000;1.0574;0.2843;
323.7000;1.0566;0.2819;
324.0000;1.0574;0.2796;
324.3000;1.0533;0.2748;
324.6000;1.0582;0.2748;
324.9000;1.0582;0.2701;
325.2000;1.0558;0.2748;
325.5000;1.0566;0.2772;
325.8000;1.0574;0.2819;
326.1000;1.0574;0.2843;
326.4000;1.0574;0.2962;
326.7000;1.0582;0.2962;
327.0000;1.0590;0.2891;
327.3000;1.0533;0.2725;
327.6000;1.0598;0.2725;
327.9000;1.0582;0.2725;
328.2000;1.0492;0.2559;
328.5000;1.0566;0.2772;
328.8000;1.0574;0.2772;
329.1000;1.0574;0.2819;
329.4000;1.0574;0.2962;
329.7000;1.0549;0.2962;
330.0000;1.0566;0.2985;
330.3000;1.0558;0.3080;
330.6000;1.0574;0.3009;
330.9000;1.0598;0.3009;
331.2000;1.0558;0.2843;
331.5000;1.0590;0.2867;
331.8000;1.0582;0.2843;
332.1000;1.0582;0.2819;
332.4000;1.0590;0.2819;
332.7000;1.0582;0.2819;
333.0000;1.0590;0.2843;
333.3000;1.0590;0.2772;
333.6000;1.0631;0.2867;
333.9000;1.0574;0.2772;
334.2000;1.0468;0.2535;
334.5000;1.0574;0.2796;
334.8000;1.0566;0.2725;
335.1000;1.0623;0.2772;
335.4000;1.0574;0.2725;
335.7000;1.0582;0.2748;
336.0000;1.0566;0.2748;
336.3000;1.0574;0.2725;
336.6000;1.0574;0.2748;
336.9000;1.0566;0.2748;
337.2000;1.0574;0.2725;
337.5000;1.0574;0.2748;
337.8000;1.0574;0.2725;
338.1000;1.0590;0.2654;
338.4000;1.0590;0.2677;
338.7000;1.0574;0.2677;
339.0000;1.0590;0.2748;
339.3000;1.0558;0.2725;
339.6000;1.0566;0.2701;
339.9000;1.0582;0.2701;
340.2000;1.0574;0.2748;
340.5000;1.0566;0.2748;
340.8000;1.0558;0.2701;
341.1000;1.0566;0.2725;
341.4000;1.0566;0.2748;
341.7000;1.0566;0.2654;
342.0000;1.0582;0.2725;
342.3000;1.0574;0.2725;
342.6000;1.0566;0.2654;
342.9000;1.0558;0.2630;
343.2000;1.0582;0.2725;
343.5000;1.0582;0.2748;
343.8000;1.0582;0.2748;
344.1000;1.0590;0.2701;
344.4000;1.0574;0.2677;
344.7000;1.0558;0.2677;
345.0000;1.0590;0.2701;
345.3000;1.0566;0.2630;
345.6000;1.0598;0.2701;
345.9000;1.0574;0.2701;
346.2000;1.0574;0.2748;
346.5000;1.0574;0.2701;
346.8000;1.0566;0.2654;
347.1000;1.0566;0.2701;
347.4000;1.0533;0.2606;
347.7000;1.0558;0.2725;
348.0000;1.0590;0.2772;
348.3000;1.0566;0.2772;
348.6000;1.0533;0.2725;
348.9000;1.0590;0.2796;
349.2000;1.0541;0.2796;
349.5000;1.0566;0.2843;
349.8000;1.0566;0.2843;
350.1000;1.0574;0.2796;
350.4000;1.0558;0.2796;
350.7000;1.0574;0.2843;
351.0000;1.0598;0.2843;
351.3000;1.0566;0.2748;
351.6000;1.0533;0.2725;
351.9000;1.0566;0.2819;
352.2000;1.0558;0.2748;
352.5000;1.0590;0.2772;
352.8000;1.0582;0.2748;
353.1000;1.0639;0.2985;
353.4000;1.0574;0.2867;
353.7000;1.0582;0.2867;
354.0000;1.0582;0.2819;
354.3000;1.0590;0.2772;
354.6000;1.0566;0.2819;
354.9000;1.0574;0.2891;
355.2000;1.0631;0.2985;
355.5000;1.0574;0.2819;
355.8000;1.0541;0.2725;
356.1000;1.0558;0.2796;
356.4000;1.0574;0.2772;
356.7000;1.0566;0.2748;
357.0000;1.0574;0.2796;
357.3000;1.0558;0.2772;
357.6000;1.0541;0.2748;
357.9000;1.0582;0.2891;
358.2000;1.0566;0.2938;
358.5000;1.0558;0.2938;
358.8000;1.0574;0.2985;
359.1000;1.0582;0.2985;
359.4000;1.0574;0.2962;
359.7000;1.0598;0.2962;
360.0000;1.0566;0.2891;
360.3000;1.0582;0.2891;
360.6000;1.0549;0.2843;
360.9000;1.0549;0.2891;
361.2000;1.0566;0.2938;
361.5000;1.0566;0.2938;
361.8000;1.0566;0.2938;
362.1000;1.0566;0.2891;
362.4000;1.0558;0.2891;
362.7000;1.0606;0.2985;
363.0000;1.0582;0.2867;
363.3000;1.0574;0.2819;
363.6000;1.0582;0.2772;
363.9000;1.0566;0.2772;
364.2000;1.0566;0.2843;
364.5000;1.0533;0.2701;
364.8000;1.0566;0.2796;
365.1000;1.0525;0.2748;
365.4000;1.0566;0.2867;
365.7000;1.0566;0.2843;
366.0000;1.0566;0.2867;
366.3000;1.0549;0.2914;
366.6000;1.0558;0.2914;
366.9000;1.0558;0.2891;
367.2000;1.0623;0.3033;
367.5000;1.0558;0.2891;
367.8000;1.0558;0.2843;
368.1000;1.0574;0.2891;
368.4000;1.0574;0.2867;
368.7000;1.0574;0.2867;
369.0000;1.0655;0.3080;
369.3000;1.0582;0.2938;
369.6000;1.0582;0.2867;
369.9000;1.0582;0.2772;
370.2000;1.0598;0.2725;
370.5000;1.0598;0.2867;
370.8000;1.0574;0.2867;
371.1000;1.0549;0.2914;
371.4000;1.0476;0.2725;
371.7000;1.0566;0.2962;
372.0000;1.0549;0.2938;
372.3000;1.0574;0.2843;
372.6000;1.0598;0.2985;
372.9000;1.0549;0.2938;
373.2000;1.0558;0.2914;
373.5000;1.0517;0.2772;
373.8000;1.0566;0.2938;
374.1000;1.0541;0.2843;
374.4000;1.0566;0.2938;
374.7000;1.0558;0.2914;
375.0000;1.0574;0.2914;
375.3000;1.0615;0.3009;
375.6000;1.0574;0.2819;
375.9000;1.0566;0.2867;
376.2000;1.0549;0.2796;
376.5000;1.0566;0.2772;
376.8000;1.0590;0.2867;
377.1000;1.0574;0.2867;
377.4000;1.0574;0.2772;
377.7000;1.0541;0.2748;
378.0000;1.0590;0.2914;
378.3000;1.0590;0.2985;
378.6000;1.0549;0.2914;
378.9000;1.0549;0.2962;
379.2000;1.0574;0.2962;
379.5000;1.0517;0.2819;
379.8000;1.0558;0.2867;
380.1000;1.0574;0.2867;
380.4000;1.0574;0.2867;
380.7000;1.0492;0.2701;
381.0000;1.0574;0.2891;
381.3000;1.0615;0.3104;
381.6000;1.0574;0.2962;
381.9000;1.0590;0.3056;
382.2000;1.0549;0.3033;
382.5000;1.0566;0.2985;
382.8000;1.0566;0.2914;
383.1000;1.0574;0.2914;
383.4000;1.0558;0.2938;
383.7000;1.0558;0.2938;
384.0000;1.0574;0.2891;
384.3000;1.0566;0.2891;
384.6000;1.0574;0.2938;
384.9000;1.0549;0.2891;
385.2000;1.0517;0.2891;
385.5000;1.0574;0.2962;
385.8000;1.0566;0.2962;
386.1000;1.0582;0.2985;
386.4000;1.0574;0.2985;
386.7000;1.0549;0.2843;
387.0000;1.0566;0.2891;
387.3000;1.0574;0.2843;
387.6000;1.0566;0.2701;
387.9000;1.0566;0.2796;
388.2000;1.0566;0.2796;
388.5000;1.0574;0.2819;
388.8000;1.0566;0.2725;
389.1000;1.0566;0.2725;
389.4000;1.0574;0.2654;
389.7000;1.0582;0.2677;
390.0000;1.0566;0.2748;
390.3000;1.0558;0.2701;
390.6000;1.0549;0.2630;
390.9000;1.0558;0.2701;
391.2000;1.0566;0.2772;
391.5000;1.0549;0.2677;
391.8000;1.0558;0.2701;
392.1000;1.0574;0.2772;
392.4000;1.0574;0.2796;
392.7000;1.0558;0.2772;
393.0000;1.0517;0.2677;
393.3000;1.0558;0.2772;
393.6000;1.0549;0.2725;
393.9000;1.0566;0.2701;
394.2000;1.0558;0.2725;
394.5000;1.0615;0.2819;
394.8000;1.0655;0.2796;
395.1000;1.0566;0.2654;
395.4000;1.0558;0.2630;
395.7000;1.0533;0.2488;
396.0000;1.0566;0.2559;
396.3000;1.0549;0.2583;
396.6000;1.0574;0.2654;
396.9000;1.0566;0.2559;
397.2000;1.0598;0.2583;
397.5000;1.0566;0.2535;
397.8000;1.0582;0.2559;
398.1000;1.0574;0.2630;
398.4000;1.0574;0.2654;
398.7000;1.0558;0.2630;
399.0000;1.0566;0.2630;
399.3000;1.0574;0.2701;
399.6000;1.0541;0.2630;
399.9000;1.0566;0.2654;
400.2000;1.0501;0.2488;
400.5000;1.0533;0.2630;
400.8000;1.0566;0.2701;
401.1000;1.0582;0.2772;
401.4000;1.0582;0.2725;
401.7000;1.0574;0.2701;
402.0000;1.0558;0.2748;
402.3000;1.0549;0.2725;
402.6000;1.0558;0.2796;
402.9000;1.0558;0.2701;
403.2000;1.0549;0.2654;
403.5000;1.0549;0.2701;
403.8000;1.0574;0.2748;
404.1000;1.0582;0.2772;
404.4000;1.0574;0.2796;
404.7000;1.0574;0.2701;
405.0000;1.0558;0.2654;
405.3000;1.0574;0.2701;
405.6000;1.0582;0.2606;
405.9000;1.0566;0.2559;
406.2000;1.0566;0.2511;
406.5000;1.0615;0.2677;
406.8000;1.0590;0.2630;
407.1000;1.0574;0.2725;
407.4000;1.0574;0.2725;
407.7000;1.0566;0.2677;
408.0000;1.0566;0.2701;
408.3000;1.0566;0.2701;
408.6000;1.0558;0.2630;
408.9000;1.0558;0.2630;
409.2000;1.0566;0.2748;
409.5000;1.0549;0.2677;
409.8000;1.0525;0.2606;
410.1000;1.0558;0.2654;
410.4000;1.0582;0.2725;
410.7000;1.0541;0.2748;
411.0000;1.0549;0.2725;
411.3000;1.0549;0.2701;
411.6000;1.0541;0.2583;
411.9000;1.0549;0.2606;
412.2000;1.0558;0.2654;
412.5000;1.0549;0.2630;
412.8000;1.0549;0.2583;
413.1000;1.0566;0.2583;
413.4000;1.0566;0.2630;
413.7000;1.0558;0.2535;
414.0000;1.0549;0.2583;
414.3000;1.0541;0.2701;
414.6000;1.0541;0.2725;
414.9000;1.0549;0.2654;
415.2000;1.0566;0.2654;
415.5000;1.0533;0.2606;
415.8000;1.0558;0.2677;
416.1000;1.0549;0.2583;
416.4000;1.0631;0.2914;
416.7000;1.0549;0.2819;
417.0000;1.0558;0.2772;
417.3000;1.0590;0.2748;
417.6000;1.0566;0.2796;
417.9000;1.0574;0.2819;
418.2000;1.0574;0.2843;
418.5000;1.0549;0.2843;
418.8000;1.0566;0.2772;
419.1000;1.0501;0.2583;
419.4000;1.0631;0.2938;
419.7000;1.0549;0.2772;
420.0000;1.0549;0.2843;
420.3000;1.0549;0.2914;
420.6000;1.0549;0.2843;
420.9000;1.0574;0.2819;
421.2000;1.0590;0.2819;
421.5000;1.0541;0.2748;
421.8000;1.0574;0.2796;
422.1000;1.0574;0.2796;
422.4000;1.0582;0.2843;
422.7000;1.0566;0.2701;
423.0000;1.0558;0.2630;
423.3000;1.0549;0.2606;
423.6000;1.0574;0.2606;
423.9000;1.0558;0.2559;
424.2000;1.0574;0.2654;
424.5000;1.0582;0.2677;
424.8000;1.0566;0.2748;
425.1000;1.0549;0.2772;
425.4000;1.0549;0.2725;
425.7000;1.0590;0.2677;
426.0000;1.0566;0.2677;
426.3000;1.0549;0.2677;
426.6000;1.0558;0.2654;
426.9000;1.0558;0.2630;
427.2000;1.0533;0.2606;
427.5000;1.0566;0.2630;
427.8000;1.0558;0.2701;
428.1000;1.0558;0.2725;
428.4000;1.0566;0.2748;
428.7000;1.0558;0.2796;
429.0000;1.0590;0.2843;
429.3000;1.0549;0.2772;
429.6000;1.0549;0.2748;
429.9000;1.0574;0.2772;
430.2000;1.0566;0.2796;
430.5000;1.0549;0.2748;
430.8000;1.0566;0.2772;
431.1000;1.0558;0.2772;
431.4000;1.0558;0.2748;
431.7000;1.0558;0.2867;
432.0000;1.0566;0.2891;
432.3000;1.0566;0.2843;
432.6000;1.0501;0.2654;
432.9000;1.0558;0.2748;
433.2000;1.0574;0.2725;
433.5000;1.0566;0.2748;
433.8000;1.0549;0.2654;
434.1000;1.0541;0.2630;
434.4000;1.0541;0.2677;
434.7000;1.0541;0.2701;
435.0000;1.0549;0.2725;
435.3000;1.0558;0.2772;
435.6000;1.0647;0.3033;
435.9000;1.0574;0.2843;
436.2000;1.0566;0.2914;
436.5000;1.0566;0.2891;
436.8000;1.0541;0.2701;
437.1000;1.0558;0.2843;
437.4000;1.0582;0.2867;
437.7000;1.0639;0.3033;
438.0000;1.0566;0.2891;
438.3000;1.0549;0.2819;
438.6000;1.0566;0.2891;
438.9000;1.0558;0.2843;
439.2000;1.0541;0.2843;
439.5000;1.0549;0.2867;
439.8000;1.0558;0.2985;
440.1000;1.0549;0.2938;
440.4000;1.0525;0.2748;
440.7000;1.0549;0.2701;
441.0000;1.0574;0.2748;
441.3000;1.0566;0.2725;
441.6000;1.0492;0.2559;
441.9000;1.0549;0.2748;
442.2000;1.0574;0.2819;
442.5000;1.0574;0.2843;
442.8000;1.0574;0.2843;
443.1000;1.0558;0.2772;
443.4000;1.0606;0.2891;
443.7000;1.0590;0.2772;
444.0000;1.0598;0.2796;
444.3000;1.0566;0.2748;
444.6000;1.0558;0.2772;
444.9000;1.0598;0.2938;
445.2000;1.0566;0.2891;
445.5000;1.0574;0.3009;
445.8000;1.0549;0.2938;
446.1000;1.0574;0.3104;
446.4000;1.0582;0.3056;
446.7000;1.0541;0.2891;
447.0000;1.0541;0.2867;
447.3000;1.0566;0.2938;
447.6000;1.0549;0.2938;
447.9000;1.0558;0.3009;
448.2000;1.0549;0.2962;
448.5000;1.0549;0.2914;
448.8000;1.0574;0.2985;
449.1000;1.0566;0.3033;
449.4000;1.0574;0.3033;
449.7000;1.0549;0.2962;
450.0000;1.0533;0.2938;
450.3000;1.0549;0.2962;
450.6000;1.0541;0.2843;
450.9000;1.0517;0.2748;
451.2000;1.0598;0.2891;
451.5000;1.0533;0.2772;
451.8000;1.0533;0.2819;
452.1000;1.0533;0.2867;
452.4000;1.0541;0.2914;
452.7000;1.0541;0.2914;
453.0000;1.0541;0.2867;
453.3000;1.0558;0.2914;
453.6000;1.0509;0.2867;
453.9000;1.0558;0.2914;
454.2000;1.0549;0.2796;
454.5000;1.0541;0.2677;
454.8000;1.0549;0.2748;
455.1000;1.0549;0.2819;
455.4000;1.0558;0.2867;
455.7000;1.0566;0.2843;
456.0000;1.0549;0.2843;
456.3000;1.0566;0.2914;
456.6000;1.0533;0.2748;
456.9000;1.0541;0.2772;
457.2000;1.0558;0.2725;
457.5000;1.0541;0.2654;
457.8000;1.0566;0.2772;
458.1000;1.0574;0.2701;
458.4000;1.0549;0.2772;
458.7000;1.0541;0.2772;
459.0000;1.0574;0.2819;
459.3000;1.0566;0.2796;
459.6000;1.0566;0.2796;
459.9000;1.0566;0.2796;
460.2000;1.0558;0.2748;
460.5000;1.0558;0.2701;
460.8000;1.0574;0.2772;
461.1000;1.0525;0.2701;
461.4000;1.0549;0.2748;
461.7000;1.0574;0.2725;
462.0000;1.0533;0.2701;
462.3000;1.0558;0.2701;
462.6000;1.0541;0.2701;
462.9000;1.0541;0.2654;
463.2000;1.0533;0.2677;
463.5000;1.0558;0.2606;
463.8000;1.0541;0.2630;
464.1000;1.0533;0.2677;
464.4000;1.0549;0.2748;
464.7000;1.0558;0.2819;
465.0000;1.0533;0.2748;
465.3000;1.0558;0.2843;
465.6000;1.0558;0.2772;
465.9000;1.0558;0.2725;
466.2000;1.0525;0.2772;
466.5000;1.0541;0.2796;
466.8000;1.0558;0.2748;
467.1000;1.0566;0.2725;
467.4000;1.0558;0.2725;
467.7000;1.0549;0.2701;
468.0000;1.0582;0.2725;
468.3000;1.0558;0.2654;
468.6000;1.0558;0.2559;
468.9000;1.0566;0.2559;
469.2000;1.0533;0.2535;
469.5000;1.0549;0.2630;
469.8000;1.0549;0.2654;
470.1000;1.0566;0.2630;
470.4000;1.0558;0.2559;
470.7000;1.0566;0.2559;
471.0000;1.0549;0.2535;
471.3000;1.0509;0.2464;
471.6000;1.0533;0.2559;
471.9000;1.0558;0.2630;
472.2000;1.0647;0.2796;
472.5000;1.0541;0.2583;
472.8000;1.0549;0.2559;
473.1000;1.0558;0.2606;
473.4000;1.0574;0.2701;
473.7000;1.0558;0.2677;
474.0000;1.0566;0.2677;
474.3000;1.0615;0.2867;
474.6000;1.0558;0.2819;
474.9000;1.0549;0.2843;
475.2000;1.0525;0.2701;
475.5000;1.0606;0.2819;
475.8000;1.0582;0.2772;
476.1000;1.0558;0.2772;
476.4000;1.0549;0.2772;
476.7000;1.0582;0.2891;
477.0000;1.0558;0.2819;
477.3000;1.0558;0.2843;
477.6000;1.0558;0.2843;
477.9000;1.0558;0.2843;
478.2000;1.0549;0.2891;
478.5000;1.0533;0.2819;
478.8000;1.0558;0.2819;
479.1000;1.0533;0.2772;
479.4000;1.0558;0.2891;
479.7000;1.0566;0.2891;
480.0000;1.0541;0.2914;
480.3000;1.0541;0.2938;
480.6000;1.0541;0.2938;
480.9000;1.0549;0.2914;
481.2000;1.0541;0.2985;
481.5000;1.0533;0.2938;
481.8000;1.0574;0.3009;
482.1000;1.0558;0.2891;
482.4000;1.0541;0.2914;
482.7000;1.0549;0.2867;
483.0000;1.0549;0.2796;
483.3000;1.0558;0.2843;
483.6000;1.0541;0.2819;
483.9000;1.0549;0.2914;
484.2000;1.0541;0.2914;
484.5000;1.0525;0.2867;
484.8000;1.0549;0.2938;
485.1000;1.0558;0.2867;
485.4000;1.0549;0.2867;
485.7000;1.0525;0.2772;
486.0000;1.0549;0.2796;
486.3000;1.0533;0.2677;
486.6000;1.0541;0.2748;
486.9000;1.0541;0.2819;
487.2000;1.0533;0.2819;
487.5000;1.0549;0.2867;
487.8000;1.0541;0.2843;
488.1000;1.0533;0.2843;
488.4000;1.0533;0.2843;
488.7000;1.0574;0.2914;
489.0000;1.0541;0.2796;
489.3000;1.0501;0.2701;
489.6000;1.0549;0.2796;
489.9000;1.0566;0.2843;
490.2000;1.0566;0.2843;
490.5000;1.0549;0.2914;
490.8000;1.0549;0.2843;
491.1000;1.0566;0.2891;
491.4000;1.0558;0.2914;
491.7000;1.0533;0.2796;
492.0000;1.0549;0.2867;
492.3000;1.0590;0.2962;
492.6000;1.0558;0.2867;
492.9000;1.0558;0.2891;
493.2000;1.0598;0.2938;
493.5000;1.0533;0.2867;
493.8000;1.0549;0.2819;
494.1000;1.0558;0.2819;
494.4000;1.0468;0.2606;
494.7000;1.0558;0.2725;
495.0000;1.0541;0.2725;
495.3000;1.0558;0.2725;
495.6000;1.0549;0.2654;
495.9000;1.0484;0.2464;
496.2000;1.0549;0.2654;
496.5000;1.0541;0.2630;
496.8000;1.0517;0.2583;
497.1000;1.0541;0.2654;
497.4000;1.0541;0.2654;
497.7000;1.0566;0.2630;
498.0000;1.0541;0.2630;
498.3000;1.0533;0.2654;
498.6000;1.0541;0.2677;
498.9000;1.0541;0.2677;
499.2000;1.0582;0.2725;
499.5000;1.0541;0.2748;
499.8000;1.0533;0.2677;
500.1000;1.0558;0.2772;
500.4000;1.0541;0.2772;
500.7000;1.0541;0.2796;
501.0000;1.0582;0.2914;
501.3000;1.0549;0.2867;
501.6000;1.0558;0.2843;
501.9000;1.0558;0.2891;
502.2000;1.0549;0.2891;
502.5000;1.0549;0.2867;
502.8000;1.0574;0.2891;
503.1000;1.0549;0.2891;
503.4000;1.0549;0.2867;
503.7000;1.0484;0.2725;
504.0000;1.0558;0.2891;
504.3000;1.0549;0.2867;
504.6000;1.0606;0.2985;
504.9000;1.0549;0.2819;
505.2000;1.0574;0.2867;
505.5000;1.0549;0.2796;
505.8000;1.0574;0.2819;
506.1000;1.0549;0.2867;
506.4000;1.0541;0.2891;
506.7000;1.0549;0.2891;
507.0000;1.0590;0.3033;
507.3000;1.0541;0.2938;
507.6000;1.0541;0.2962;
507.9000;1.0525;0.2891;
508.2000;1.0509;0.2843;
508.5000;1.0541;0.2867;
508.8000;1.0549;0.2796;
509.1000;1.0558;0.2819;
509.4000;1.0549;0.2796;
509.7000;1.0558;0.2914;
510.0000;1.0533;0.2819;
510.3000;1.0501;0.2796;
510.6000;1.0566;0.2843;
510.9000;1.0541;0.2796;
511.2000;1.0549;0.2819;
511.5000;1.0558;0.2796;
511.8000;1.0525;0.2772;
512.1000;1.0558;0.2772;
512.4000;1.0582;0.2748;
512.7000;1.0566;0.2701;
513.0000;1.0558;0.2725;
513.3000;1.0541;0.2748;
513.6000;1.0533;0.2583;
513.9000;1.0533;0.2654;
514.2000;1.0541;0.2677;
514.5000;1.0549;0.2819;
514.8000;1.0525;0.2701;
515.1000;1.0533;0.2748;
515.4000;1.0549;0.2748;
515.7000;1.0541;0.2725;
516.0000;1.0558;0.2819;
516.3000;1.0549;0.2796;
516.6000;1.0590;0.2891;
516.9000;1.0558;0.2938;
517.2000;1.0558;0.2867;
517.5000;1.0566;0.2867;
517.8000;1.0549;0.2891;
518.1000;1.0533;0.2867;
518.4000;1.0509;0.2843;
518.7000;1.0533;0.2962;
519.0000;1.0541;0.2891;
519.3000;1.0533;0.2914;
519.6000;1.0549;0.2914;
519.9000;1.0541;0.2867;
520.2000;1.0501;0.2796;
520.5000;1.0525;0.2867;
520.8000;1.0541;0.2867;
521.1000;1.0549;0.2843;
521.4000;1.0590;0.3009;
521.7000;1.0566;0.2938;
522.0000;1.0549;0.2891;
522.3000;1.0541;0.2914;
522.6000;1.0541;0.3033;
522.9000;1.0549;0.3127;
523.2000;1.0549;0.3151;
523.5000;1.0549;0.3104;
523.8000;1.0541;0.3009;
524.1000;1.0541;0.2962;
524.4000;1.0541;0.3080;
524.7000;1.0558;0.3080;
525.0000;1.0558;0.3080;
525.3000;1.0574;0.3033;
525.6000;1.0533;0.2962;
525.9000;1.0566;0.3080;
526.2000;1.0509;0.2962;
526.5000;1.0558;0.3033;
526.8000;1.0517;0.2962;
527.1000;1.0525;0.3056;
527.4000;1.0549;0.3033;
527.7000;1.0533;0.2962;
528.0000;1.0492;0.2867;
528.3000;1.0533;0.2938;
528.6000;1.0492;0.2867;
528.9000;1.0541;0.2962;
529.2000;1.0558;0.2962;
529.5000;1.0566;0.3033;
529.8000;1.0541;0.3033;
530.1000;1.0460;0.2891;
530.4000;1.0541;0.3056;
530.7000;1.0541;0.2985;
531.0000;1.0598;0.3056;
531.3000;1.0558;0.2938;
531.6000;1.0574;0.2962;
531.9000;1.0541;0.2962;
532.2000;1.0549;0.3080;
532.5000;1.0566;0.3104;
532.8000;1.0549;0.3009;
533.1000;1.0549;0.2938;
533.4000;1.0566;0.2938;
533.7000;1.0558;0.2867;
534.0000;1.0558;0.2914;
534.3000;1.0582;0.2891;
534.6000;1.0509;0.2796;
534.9000;1.0549;0.2938;
535.2000;1.0549;0.2914;
535.5000;1.0476;0.2772;
535.8000;1.0533;0.3033;
536.1000;1.0549;0.3033;
536.4000;1.0541;0.3056;
536.7000;1.0492;0.2938;
537.0000;1.0541;0.3080;
537.3000;1.0541;0.2985;
537.6000;1.0476;0.2843;
537.9000;1.0582;0.3009;
538.2000;1.0541;0.2819;
538.5000;1.0509;0.2772;
538.8000;1.0549;0.2819;
539.1000;1.0533;0.2630;
539.4000;1.0533;0.2559;
539.7000;1.0525;0.2535;
540.0000;1.0541;0.2654;
540.3000;1.0533;0.2725;
540.6000;1.0541;0.2748;
540.9000;1.0533;0.2701;
541.2000;1.0549;0.2819;
541.5000;1.0533;0.2891;
541.8000;1.0549;0.2891;
542.1000;1.0541;0.2772;
542.4000;1.0590;0.2891;
542.7000;1.0541;0.2819;
543.0000;1.0541;0.2819;
543.3000;1.0533;0.2796;
543.6000;1.0533;0.2819;
543.9000;1.0598;0.2962;
544.2000;1.0541;0.2962;
544.5000;1.0574;0.2938;
544.8000;1.0615;0.3056;
545.1000;1.0533;0.2867;
545.4000;1.0476;0.2748;
545.7000;1.0501;0.2891;
546.0000;1.0525;0.2985;
546.3000;1.0541;0.2962;
546.6000;1.0525;0.2985;
546.9000;1.0452;0.2725;
547.2000;1.0541;0.2914;
547.5000;1.0549;0.3009;
547.8000;1.0598;0.3104;
548.1000;1.0558;0.2938;
548.4000;1.0533;0.2867;
548.7000;1.0533;0.2867;
549.0000;1.0558;0.2938;
549.3000;1.0541;0.2891;
549.6000;1.0558;0.2914;
549.9000;1.0533;0.2914;
550.2000;1.0484;0.2772;
550.5000;1.0549;0.2891;
550.8000;1.0525;0.2772;
551.1000;1.0517;0.2701;
551.4000;1.0533;0.2748;
551.7000;1.0509;0.2677;
552.0000;1.0541;0.2796;
552.3000;1.0533;0.2843;
552.6000;1.0517;0.2867;
552.9000;1.0541;0.2985;
553.2000;1.0541;0.2962;
553.5000;1.0525;0.2843;
553.8000;1.0533;0.2796;
554.1000;1.0582;0.2985;
554.4000;1.0533;0.2938;
554.7000;1.0525;0.2938;
555.0000;1.0525;0.3033;
555.3000;1.0541;0.3151;
555.6000;1.0541;0.3175;
555.9000;1.0566;0.3151;
556.2000;1.0541;0.3080;
556.5000;1.0517;0.3056;
556.8000;1.0533;0.3056;
557.1000;1.0460;0.2819;
557.4000;1.0525;0.2985;
557.7000;1.0517;0.2962;
558.0000;1.0541;0.3033;
558.3000;1.0549;0.2962;
558.6000;1.0541;0.2938;
558.9000;1.0558;0.2938;
559.2000;1.0533;0.2962;
559.5000;1.0533;0.2938;
559.8000;1.0558;0.2985;
560.1000;1.0533;0.2985;
560.4000;1.0549;0.3009;
560.7000;1.0558;0.3104;
561.0000;1.0549;0.3056;
561.3000;1.0549;0.2938;
561.6000;1.0590;0.3033;
561.9000;1.0541;0.3033;
562.2000;1.0549;0.3033;
562.5000;1.0533;0.3056;
562.8000;1.0525;0.3056;
563.1000;1.0525;0.3175;
563.4000;1.0533;0.3175;
563.7000;1.0525;0.3080;
564.0000;1.0541;0.3104;
564.3000;1.0517;0.3151;
564.6000;1.0509;0.3056;
564.9000;1.0525;0.3009;
565.2000;1.0533;0.3080;
565.5000;1.0525;0.3104;
565.8000;1.0525;0.3222;
566.1000;1.0533;0.3246;
566.4000;1.0590;0.3341;
566.7000;1.0566;0.3175;
567.0000;1.0509;0.3080;
567.3000;1.0549;0.3199;
567.6000;1.0549;0.3151;
567.9000;1.0525;0.3056;
568.2000;1.0566;0.3151;
568.5000;1.0533;0.3033;
568.8000;1.0533;0.3080;
569.1000;1.0525;0.3080;
569.4000;1.0525;0.3080;
569.7000;1.0541;0.3104;
570.0000;1.0484;0.2985;
570.3000;1.0541;0.3104;
570.6000;1.0541;0.3104;
570.9000;1.0541;0.3080;
571.2000;1.0541;0.3009;
571.5000;1.0525;0.2867;
571.8000;1.0525;0.2819;
572.1000;1.0533;0.2914;
572.4000;1.0533;0.2914;
572.7000;1.0517;0.2914;
573.0000;1.0525;0.2962;
573.3000;1.0541;0.3033;
573.6000;1.0533;0.2938;
573.9000;1.0525;0.2891;
574.2000;1.0525;0.2796;
574.5000;1.0517;0.2843;
574.8000;1.0549;0.2867;
575.1000;1.0566;0.2891;
575.4000;1.0517;0.2819;
575.7000;1.0509;0.2867;
576.0000;1.0501;0.2891;
576.3000;1.0517;0.2938;
576.6000;1.0541;0.3080;
576.9000;1.0525;0.3056;
577.2000;1.0484;0.2891;
577.5000;1.0525;0.2938;
577.8000;1.0533;0.3009;
578.1000;1.0517;0.2938;
578.4000;1.0533;0.3033;
578.7000;1.0541;0.3009;
579.0000;1.0525;0.3009;
579.3000;1.0525;0.3080;
579.6000;1.0501;0.2914;
579.9000;1.0533;0.2938;
580.2000;1.0525;0.2867;
580.5000;1.0484;0.2867;
580.8000;1.0525;0.2914;
581.1000;1.0541;0.2962;
581.4000;1.0533;0.3033;
581.7000;1.0517;0.3009;
582.0000;1.0533;0.3080;
582.3000;1.0533;0.3104;
582.6000;1.0549;0.3127;
582.9000;1.0541;0.2985;
583.2000;1.0517;0.2891;
583.5000;1.0533;0.2819;
583.8000;1.0541;0.2819;
584.1000;1.0541;0.2867;
584.4000;1.0533;0.2819;
584.7000;1.0541;0.2819;
585.0000;1.0598;0.3056;
585.3000;1.0598;0.3127;
585.6000;1.0558;0.3009;
585.9000;1.0533;0.3056;
586.2000;1.0574;0.3270;
586.5000;1.0541;0.3222;
586.8000;1.0533;0.3127;
587.1000;1.0468;0.2867;
587.4000;1.0525;0.2962;
587.7000;1.0525;0.2962;
588.0000;1.0541;0.2962;
588.3000;1.0533;0.2985;
588.6000;1.0509;0.2843;
588.9000;1.0541;0.2891;
589.2000;1.0517;0.2891;
589.5000;1.0549;0.2962;
589.8000;1.0509;0.2962;
590.1000;1.0509;0.2914;
590.4000;1.0509;0.2914;
590.7000;1.0509;0.2867;
591.0000;1.0517;0.2819;
591.3000;1.0476;0.2772;
591.6000;1.0549;0.3033;
591.9000;1.0533;0.2819;
592.2000;1.0558;0.2867;
592.5000;1.0533;0.2819;
592.8000;1.0541;0.2914;
593.1000;1.0533;0.2985;
593.4000;1.0533;0.3056;
593.7000;1.0517;0.3127;
594.0000;1.0541;0.3056;
594.3000;1.0549;0.3080;
594.6000;1.0525;0.3104;
594.9000;1.0525;0.3033;
595.2000;1.0525;0.3033;
595.5000;1.0549;0.3033;
595.8000;1.0517;0.2914;
596.1000;1.0509;0.2891;
596.4000;1.0541;0.3033;
596.7000;1.0541;0.3151;
597.0000;1.0525;0.3199;
597.3000;1.0541;0.3151;
597.6000;1.0517;0.3127;
597.9000;1.0525;0.3127;
598.2000;1.0541;0.3056;
598.5000;1.0541;0.2938;
598.8000;1.0525;0.2772;
599.1000;1.0533;0.2748;
599.4000;1.0541;0.2796;
599.7000;1.0492;0.2701;
600.0000;1.0501;0.2701;
600.3000;1.0533;0.2606;
600.6000;1.0501;0.2417;
600.9000;1.0444;0.2227;
601.2000;1.0379;0.1943;
601.5000;1.0289;0.1564;
601.8000;1.0208;0.1279;
602.1000;1.0118;0.0971;
602.4000;1.0004;0.0687;
602.7000;0.9898;0.0545;
603.0000;0.9858;0.0450;
603.3000;0.9784;0.0426;
603.6000;0.9703;0.0261;
603.9000;0.9654;0.0142;
604.2000;0.9581;0.0047;
604.5000;0.9467;-0.0166;
604.8000;0.9483;-0.0118;
605.1000;0.9394;-0.0308;
605.4000;0.9345;-0.0403;
605.7000;0.9337;-0.0355;
606.0000;0.9239;-0.0521;
606.3000;0.9231;-0.0474;
606.6000;0.9174;-0.0450;
606.9000;0.9109;-0.0498;
607.2000;0.9084;-0.0569;
607.5000;0.8954;-0.0758;
607.8000;0.9019;-0.0640;
608.1000;0.8954;-0.0711;
608.4000;0.8930;-0.0687;
608.7000;0.8889;-0.0853;
609.0000;0.8848;-0.0971;
609.3000;0.8873;-0.0948;
609.6000;0.8791;-0.1185;
609.9000;0.8726;-0.1208;
610.2000;0.8685;-0.1208;
610.5000;0.8685;-0.1114;
610.8000;0.8637;-0.1208;
611.1000;0.8637;-0.1232;
611.4000;0.8604;-0.1256;
611.7000;0.8514;-0.1374;
612.0000;0.8531;-0.1327;
612.3000;0.8498;-0.1445;
612.6000;0.8466;-0.1469;
612.9000;0.8449;-0.1516;
613.2000;0.8425;-0.1469;
613.5000;0.8417;-0.1445;
613.8000;0.8384;-0.1445;
614.1000;0.8344;-0.1469;
614.4000;0.8344;-0.1540;
614.7000;0.8303;-0.1516;
615.0000;0.8278;-0.1516;
615.3000;0.8230;-0.1753;
615.6000;0.8238;-0.1706;
615.9000;0.8205;-0.1682;
616.2000;0.8205;-0.1730;
616.5000;0.8181;-0.1730;
616.8000;0.8140;-0.1706;
617.1000;0.8140;-0.1753;
617.4000;0.8116;-0.1824;
617.7000;0.8083;-0.1801;
618.0000;0.8083;-0.1872;
618.3000;0.8059;-0.2014;
618.6000;0.8034;-0.2085;
618.9000;0.8018;-0.2085;
619.2000;0.8018;-0.1919;
619.5000;0.8002;-0.1872;
619.8000;0.7985;-0.1801;
620.1000;0.7928;-0.1919;
620.4000;0.7937;-0.1990;
620.7000;0.7953;-0.1990;
621.0000;0.7928;-0.2038;
621.3000;0.7920;-0.2014;
621.6000;0.7912;-0.1990;
621.9000;0.7880;-0.2014;
622.2000;0.7871;-0.1990;
622.5000;0.7871;-0.2038;
622.8000;0.7831;-0.2132;
623.1000;0.7839;-0.2061;
623.4000;0.7798;-0.2156;
623.7000;0.7798;-0.2156;
624.0000;0.7782;-0.2180;
624.3000;0.7774;-0.2180;
624.6000;0.7757;-0.2180;
624.9000;0.7733;-0.2203;
625.2000;0.7725;-0.2203;
625.5000;0.7709;-0.2275;
625.8000;0.7700;-0.2180;
626.1000;0.7692;-0.2085;
626.4000;0.7684;-0.2180;
626.7000;0.7676;-0.2180;
627.0000;0.7652;-0.2203;
627.3000;0.7660;-0.2180;
627.6000;0.7619;-0.2275;
627.9000;0.7627;-0.2156;
628.2000;0.7635;-0.2061;
628.5000;0.7660;-0.1943;
628.8000;0.7643;-0.2014;
629.1000;0.7619;-0.2109;
629.4000;0.7586;-0.2109;
629.7000;0.7570;-0.2061;
630.0000;0.7546;-0.2109;
630.3000;0.7521;-0.2203;
630.6000;0.7521;-0.2156;
630.9000;0.7521;-0.2132;
631.2000;0.7538;-0.2014;
631.5000;0.7538;-0.2014;
631.8000;0.7570;-0.1895;
632.1000;0.7505;-0.2038;
632.4000;0.7489;-0.2109;
632.7000;0.7489;-0.2132;
633.0000;0.7489;-0.2132;
633.3000;0.7464;-0.2227;
633.6000;0.7473;-0.2227;
633.9000;0.7464;-0.2203;
634.2000;0.7448;-0.2180;
634.5000;0.7440;-0.2156;
634.8000;0.7440;-0.2132;
635.1000;0.7407;-0.2203;
635.4000;0.7432;-0.2109;
635.7000;0.7375;-0.2227;
636.0000;0.7334;-0.2369;
636.3000;0.7383;-0.2203;
636.6000;0.7375;-0.2227;
636.9000;0.7326;-0.2298;
637.2000;0.7342;-0.2322;
637.5000;0.7367;-0.2275;
637.8000;0.7350;-0.2393;
638.1000;0.7350;-0.2369;
638.4000;0.7367;-0.2227;
638.7000;0.7334;-0.2346;
639.0000;0.7326;-0.2298;
639.3000;0.7326;-0.2275;
639.6000;0.7310;-0.2322;
639.9000;0.7318;-0.2275;
640.2000;0.7318;-0.2227;
640.5000;0.7293;-0.2251;
640.8000;0.7261;-0.2298;
641.1000;0.7269;-0.2251;
641.4000;0.7277;-0.2346;
641.7000;0.7269;-0.2322;
642.0000;0.7261;-0.2322;
642.3000;0.7245;-0.2298;
642.6000;0.7245;-0.2251;
642.9000;0.7245;-0.2275;
643.2000;0.7228;-0.2369;
643.5000;0.7212;-0.2440;
643.8000;0.7171;-0.2511;
644.1000;0.7245;-0.2393;
644.4000;0.7204;-0.2393;
644.7000;0.7212;-0.2275;
645.0000;0.7204;-0.2275;
645.3000;0.7204;-0.2275;
645.6000;0.7204;-0.2298;
645.9000;0.7179;-0.2298;
646.2000;0.7155;-0.2322;
646.5000;0.7155;-0.2346;
646.8000;0.7179;-0.2251;
647.1000;0.7114;-0.2180;
647.4000;0.7147;-0.2156;
647.7000;0.7147;-0.2203;
648.0000;0.7204;-0.2061;
648.3000;0.7147;-0.2203;
648.6000;0.7139;-0.2275;
648.9000;0.7123;-0.2346;
649.2000;0.7131;-0.2298;
649.5000;0.7114;-0.2298;
649.8000;0.7131;-0.2322;
650.1000;0.7106;-0.2393;
650.4000;0.7098;-0.2440;
650.7000;0.7106;-0.2393;
651.0000;0.7090;-0.2440;
651.3000;0.7098;-0.2251;
651.6000;0.7074;-0.2180;
651.9000;0.7090;-0.2014;
652.2000;0.7074;-0.2156;
652.5000;0.7049;-0.2156;
652.8000;0.7057;-0.2180;
653.1000;0.7041;-0.2203;
653.4000;0.7049;-0.2180;
653.7000;0.7009;-0.2275;
654.0000;0.7041;-0.2203;
654.3000;0.7033;-0.2156;
654.6000;0.7049;-0.2180;
654.9000;0.7025;-0.2251;
655.2000;0.7025;-0.2322;
655.5000;0.7017;-0.2275;
655.8000;0.6984;-0.2346;
656.1000;0.7025;-0.2203;
656.4000;0.7000;-0.2203;
656.7000;0.7000;-0.2322;
657.0000;0.7000;-0.2298;
657.3000;0.7009;-0.2251;
657.6000;0.7000;-0.2346;
657.9000;0.6976;-0.2393;
658.2000;0.6984;-0.2417;
658.5000;0.6992;-0.2346;
658.8000;0.6976;-0.2440;
659.1000;0.6976;-0.2346;
659.4000;0.6992;-0.2251;
659.7000;0.6952;-0.2227;
660.0000;0.6943;-0.2203;
660.3000;0.6943;-0.2275;
660.6000;0.6911;-0.2346;
660.9000;0.6952;-0.2251;
661.2000;0.6952;-0.2298;
661.5000;0.6935;-0.2346;
661.8000;0.6935;-0.2322;
662.1000;0.6927;-0.2227;
662.4000;0.6952;-0.2132;
662.7000;0.6919;-0.2180;
663.0000;0.6919;-0.2251;
663.3000;0.6927;-0.2156;
663.6000;0.6952;-0.2109;
663.9000;0.6903;-0.2132;
664.2000;0.6911;-0.2085;
664.5000;0.6919;-0.2085;
664.8000;0.6919;-0.2203;
665.1000;0.6903;-0.2275;
665.4000;0.6903;-0.2322;
665.7000;0.6927;-0.2180;
666.0000;0.6878;-0.2322;
666.3000;0.6886;-0.2322;
666.6000;0.6870;-0.2346;
666.9000;0.6862;-0.2322;
667.2000;0.6862;-0.2346;
667.5000;0.6846;-0.2393;
667.8000;0.6821;-0.2464;
668.1000;0.6878;-0.2417;
668.4000;0.6846;-0.2464;
668.7000;0.6846;-0.2393;
669.0000;0.6829;-0.2369;
669.3000;0.6829;-0.2369;
669.6000;0.6829;-0.2203;
669.9000;0.6813;-0.2109;
670.2000;0.6838;-0.2014;
670.5000;0.6878;-0.1848;
670.8000;0.6797;-0.1990;
671.1000;0.6813;-0.1943;
671.4000;0.6805;-0.1967;
671.7000;0.6797;-0.1990;
672.0000;0.6805;-0.1943;
672.3000;0.6805;-0.1990;
672.6000;0.6813;-0.2109;
672.9000;0.6805;-0.2109;
673.2000;0.6805;-0.2061;
673.5000;0.6797;-0.2014;
673.8000;0.6797;-0.1967;
674.1000;0.6781;-0.2038;
674.4000;0.6764;-0.1967;
674.7000;0.6772;-0.1990;
675.0000;0.6772;-0.2038;
675.3000;0.6748;-0.2109;
675.6000;0.6772;-0.2014;
675.9000;0.6764;-0.2061;
676.2000;0.6772;-0.2038;
676.5000;0.6756;-0.2109;
676.8000;0.6797;-0.2085;
677.1000;0.6748;-0.2227;
677.4000;0.6764;-0.2156;
677.7000;0.6797;-0.2109;
678.0000;0.6748;-0.2227;
678.3000;0.6732;-0.2251;
678.6000;0.6740;-0.2085;
678.9000;0.6740;-0.2061;
679.2000;0.6740;-0.2132;
679.5000;0.6740;-0.2156;
679.8000;0.6740;-0.2061;
680.1000;0.6724;-0.2038;
680.4000;0.6707;-0.2203;
680.7000;0.6716;-0.2132;
681.0000;0.6764;-0.2038;
681.3000;0.6740;-0.2132;
681.6000;0.6764;-0.1990;
681.9000;0.6691;-0.2014;
682.2000;0.6724;-0.2038;
682.5000;0.6683;-0.2203;
682.8000;0.6699;-0.2275;
683.1000;0.6691;-0.2393;
683.4000;0.6691;-0.2369;
683.7000;0.6699;-0.2369;
684.0000;0.6699;-0.2298;
684.3000;0.6675;-0.2322;
684.6000;0.6716;-0.2180;
684.9000;0.6667;-0.2275;
685.2000;0.6675;-0.2251;
685.5000;0.6732;-0.2085;
685.8000;0.6659;-0.2322;
686.1000;0.6675;-0.2275;
686.4000;0.6675;-0.2275;
686.7000;0.6683;-0.2180;
687.0000;0.6659;-0.2180;
687.3000;0.6667;-0.2061;
687.6000;0.6650;-0.2132;
687.9000;0.6675;-0.2132;
688.2000;0.6659;-0.2038;
688.5000;0.6675;-0.2038;
688.8000;0.6642;-0.2109;
689.1000;0.6634;-0.2156;
689.4000;0.6642;-0.2109;
689.7000;0.6634;-0.2227;
690.0000;0.6650;-0.2109;
690.3000;0.6618;-0.2061;
690.6000;0.6642;-0.2109;
690.9000;0.6626;-0.2180;
691.2000;0.6618;-0.2227;
691.5000;0.6626;-0.2156;
691.8000;0.6618;-0.2203;
692.1000;0.6602;-0.2298;
692.4000;0.6593;-0.2251;
692.7000;0.6593;-0.2227;
693.0000;0.6577;-0.2275;
693.3000;0.6610;-0.2275;
693.6000;0.6536;-0.2417;
693.9000;0.6585;-0.2227;
694.2000;0.6602;-0.2298;
694.5000;0.6577;-0.2417;
694.8000;0.6602;-0.2369;
695.1000;0.6593;-0.2417;
695.4000;0.6577;-0.2440;
695.7000;0.6585;-0.2227;
696.0000;0.6577;-0.2251;
696.3000;0.6626;-0.2014;
696.6000;0.6561;-0.2227;
696.9000;0.6520;-0.2393;
697.2000;0.6593;-0.2251;
697.5000;0.6577;-0.2227;
697.8000;0.6577;-0.2275;
698.1000;0.6585;-0.2227;
698.4000;0.6577;-0.2251;
698.7000;0.6642;-0.2109;
699.0000;0.6577;-0.2275;
699.3000;0.6569;-0.2298;
699.6000;0.6561;-0.2393;
699.9000;0.6561;-0.2346;
700.2000;0.6561;-0.2298;
700.5000;0.6577;-0.2227;
700.8000;0.6520;-0.2346;
701.1000;0.6545;-0.2322;
701.4000;0.6585;-0.2180;
701.7000;0.6585;-0.2251;
702.0000;0.6553;-0.2203;
702.3000;0.6561;-0.2203;
702.6000;0.6536;-0.2298;
702.9000;0.6553;-0.2251;
703.2000;0.6561;-0.2203;
703.5000;0.6536;-0.2227;
703.8000;0.6528;-0.2346;
704.1000;0.6520;-0.2322;
704.4000;0.6545;-0.2251;
704.7000;0.6536;-0.2180;
705.0000;0.6520;-0.2275;
705.3000;0.6512;-0.2298;
705.6000;0.6520;-0.2346;
705.9000;0.6512;-0.2346;
706.2000;0.6496;-0.2298;
706.5000;0.6520;-0.2227;
706.8000;0.6512;-0.2180;
707.1000;0.6488;-0.2227;
707.4000;0.6496;-0.2203;
707.7000;0.6496;-0.2227;
708.0000;0.6504;-0.2251;
708.3000;0.6488;-0.2275;
708.6000;0.6569;-0.2132;
708.9000;0.6496;-0.2346;
709.2000;0.6488;-0.2298;
709.5000;0.6488;-0.2369;
709.8000;0.6504;-0.2369;
710.1000;0.6479;-0.2417;
710.4000;0.6471;-0.2417;
710.7000;0.6479;-0.2298;
711.0000;0.6488;-0.2227;
711.3000;0.6488;-0.2251;
711.6000;0.6471;-0.2180;
711.9000;0.6488;-0.2203;
712.2000;0.6455;-0.2346;
712.5000;0.6479;-0.2275;
712.8000;0.6463;-0.2346;
713.1000;0.6471;-0.2346;
713.4000;0.6463;-0.2417;
713.7000;0.6463;-0.2440;
714.0000;0.6463;-0.2464;
714.3000;0.6471;-0.2298;
714.6000;0.6496;-0.2156;
714.9000;0.6471;-0.2203;
715.2000;0.6455;-0.2203;
715.5000;0.6439;-0.2180;
715.8000;0.6455;-0.2156;
716.1000;0.6447;-0.2180;
716.4000;0.6471;-0.2061;
716.7000;0.6479;-0.1990;
717.0000;0.6422;-0.2251;
717.3000;0.6447;-0.2227;
717.6000;0.6431;-0.2251;
717.9000;0.6496;-0.2085;
718.2000;0.6414;-0.2275;
718.5000;0.6422;-0.2156;
718.8000;0.6414;-0.2109;
719.1000;0.6422;-0.2109;
719.4000;0.6422;-0.2156;
719.7000;0.6414;-0.2275;
720.0000;0.6414;-0.2180;
720.3000;0.6414;-0.2227;
720.6000;0.6406;-0.2203;
720.9000;0.6406;-0.2109;
721.2000;0.6414;-0.2085;
721.5000;0.6406;-0.2014;
721.8000;0.6422;-0.2014;
722.1000;0.6431;-0.2109;
722.4000;0.6390;-0.2156;
722.7000;0.6439;-0.1990;
723.0000;0.6414;-0.2061;
723.3000;0.6349;-0.2227;
723.6000;0.6414;-0.2132;
723.9000;0.6398;-0.2132;
724.2000;0.6398;-0.2156;
724.5000;0.6390;-0.2203;
724.8000;0.6398;-0.2203;
725.1000;0.6398;-0.2180;
725.4000;0.6422;-0.2085;
725.7000;0.6390;-0.2227;
726.0000;0.6382;-0.2298;
726.3000;0.6382;-0.2322;
726.6000;0.6365;-0.2346;
726.9000;0.6374;-0.2275;
727.2000;0.6374;-0.2227;
727.5000;0.6398;-0.2061;
727.8000;0.6382;-0.2038;
728.1000;0.6357;-0.2109;
728.4000;0.6382;-0.1872;
728.7000;0.6390;-0.1919;
729.0000;0.6398;-0.1990;
729.3000;0.6374;-0.2061;
729.6000;0.6414;-0.1943;
729.9000;0.6365;-0.1990;
730.2000;0.6357;-0.1990;
730.5000;0.6349;-0.2014;
730.8000;0.6374;-0.1943;
731.1000;0.6357;-0.2014;
731.4000;0.6382;-0.1895;
731.7000;0.6357;-0.2014;
732.0000;0.6365;-0.2085;
732.3000;0.6365;-0.2180;
732.6000;0.6349;-0.2132;
732.9000;0.6357;-0.2038;
733.2000;0.6382;-0.1967;
733.5000;0.6341;-0.2061;
733.8000;0.6349;-0.2156;
734.1000;0.6349;-0.2109;
734.4000;0.6357;-0.2038;
734.7000;0.6341;-0.1919;
735.0000;0.6341;-0.1919;
735.3000;0.6341;-0.1943;
735.6000;0.6357;-0.1990;
735.9000;0.6333;-0.1990;
736.2000;0.6349;-0.1943;
736.5000;0.6341;-0.1943;
736.8000;0.6341;-0.1990;
737.1000;0.6333;-0.2038;
737.4000;0.6341;-0.2038;
737.7000;0.6325;-0.2085;
738.0000;0.6333;-0.2085;
738.3000;0.6341;-0.2061;
738.6000;0.6349;-0.2085;
738.9000;0.6341;-0.2038;
739.2000;0.6349;-0.2038;
739.5000;0.6333;-0.2109;
739.8000;0.6333;-0.2085;
740.1000;0.6300;-0.2180;
740.4000;0.6325;-0.2061;
740.7000;0.6325;-0.2061;
741.0000;0.6357;-0.1872;
741.3000;0.6309;-0.1967;
741.6000;0.6325;-0.1990;
741.9000;0.6309;-0.2014;
742.2000;0.6284;-0.2014;
742.5000;0.6276;-0.2038;
742.8000;0.6276;-0.2109;
743.1000;0.6317;-0.2061;
743.4000;0.6292;-0.2132;
743.7000;0.6300;-0.2180;
744.0000;0.6325;-0.2061;
744.3000;0.6374;-0.1943;
744.6000;0.6292;-0.2061;
744.9000;0.6309;-0.2061;
745.2000;0.6292;-0.2085;
745.5000;0.6300;-0.2203;
745.8000;0.6300;-0.2156;
746.1000;0.6292;-0.2156;
746.4000;0.6276;-0.2180;
746.7000;0.6309;-0.1990;
747.0000;0.6292;-0.2038;
747.3000;0.6276;-0.2085;
747.6000;0.6284;-0.1990;
747.9000;0.6284;-0.1967;
748.2000;0.6292;-0.1967;
748.5000;0.6284;-0.1872;
748.8000;0.6292;-0.1919;
749.1000;0.6276;-0.1872;
749.4000;0.6284;-0.1895;
749.7000;0.6268;-0.1990;
750.0000;0.6268;-0.2038;
750.3000;0.6260;-0.2109;
750.6000;0.6284;-0.2014;
750.9000;0.6276;-0.2014;
751.2000;0.6268;-0.2085;
751.5000;0.6292;-0.2132;
751.8000;0.6268;-0.2085;
752.1000;0.6276;-0.2085;
752.4000;0.6268;-0.2180;
752.7000;0.6235;-0.2298;
753.0000;0.6252;-0.2203;
753.3000;0.6260;-0.2180;
753.6000;0.6227;-0.2132;
753.9000;0.6252;-0.2014;
754.2000;0.6235;-0.1990;
754.5000;0.6252;-0.1990;
754.8000;0.6227;-0.2109;
755.1000;0.6252;-0.2061;
755.4000;0.6252;-0.2085;
755.7000;0.6309;-0.2014;
756.0000;0.6260;-0.2085;
756.3000;0.6243;-0.2156;
756.6000;0.6154;-0.2393;
756.9000;0.6235;-0.2180;
757.2000;0.6235;-0.2085;
757.5000;0.6211;-0.2085;
757.8000;0.6252;-0.2085;
758.1000;0.6235;-0.2156;
758.4000;0.6227;-0.2227;
758.7000;0.6235;-0.2180;
759.0000;0.6219;-0.2203;
759.3000;0.6235;-0.2203;
759.6000;0.6219;-0.2227;
759.9000;0.6243;-0.2180;
760.2000;0.6227;-0.2180;
760.5000;0.6260;-0.2061;
760.8000;0.6235;-0.2180;
761.1000;0.6227;-0.2061;
761.4000;0.6227;-0.2109;
761.7000;0.6219;-0.2203;
762.0000;0.6243;-0.2203;
762.3000;0.6211;-0.2275;
762.6000;0.6186;-0.2275;
762.9000;0.6203;-0.2180;
763.2000;0.6178;-0.2203;
763.5000;0.6219;-0.2156;
763.8000;0.6203;-0.2061;
764.1000;0.6129;-0.2251;
764.4000;0.6211;-0.2038;
764.7000;0.6211;-0.2038;
765.0000;0.6203;-0.2014;
765.3000;0.6219;-0.2014;
765.6000;0.6195;-0.1990;
765.9000;0.6260;-0.1848;
766.2000;0.6203;-0.1990;
766.5000;0.6211;-0.1990;
766.8000;0.6203;-0.2061;
767.1000;0.6195;-0.2061;
767.4000;0.6227;-0.2061;
767.7000;0.6203;-0.2109;
768.0000;0.6195;-0.2156;
768.3000;0.6121;-0.2440;
768.6000;0.6186;-0.2227;
768.9000;0.6203;-0.2251;
769.2000;0.6219;-0.2156;
769.5000;0.6211;-0.2085;
769.8000;0.6203;-0.1967;
770.1000;0.6186;-0.1990;
770.4000;0.6195;-0.2132;
770.7000;0.6195;-0.2203;
771.0000;0.6211;-0.2203;
771.3000;0.6284;-0.1943;
771.6000;0.6195;-0.1990;
771.9000;0.6195;-0.2014;
772.2000;0.6203;-0.2014;
772.5000;0.6186;-0.2156;
772.8000;0.6203;-0.2156;
773.1000;0.6211;-0.2061;
773.4000;0.6178;-0.2109;
773.7000;0.6186;-0.2038;
774.0000;0.6178;-0.2061;
774.3000;0.6170;-0.2203;
774.6000;0.6195;-0.2061;
774.9000;0.6170;-0.1943;
775.2000;0.6178;-0.1824;
775.5000;0.6211;-0.1777;
775.8000;0.6162;-0.1990;
776.1000;0.6162;-0.1990;
776.4000;0.6178;-0.2014;
776.7000;0.6186;-0.2014;
777.0000;0.6195;-0.1895;
777.3000;0.6162;-0.1990;
777.6000;0.6162;-0.2038;
777.9000;0.6170;-0.2132;
778.2000;0.6186;-0.2227;
778.5000;0.6154;-0.2203;
778.8000;0.6178;-0.2203;
779.1000;0.6162;-0.2156;
779.4000;0.6154;-0.2085;
779.7000;0.6154;-0.2085;
780.0000;0.6162;-0.2014;
780.3000;0.6170;-0.2038;
780.6000;0.6162;-0.2203;
780.9000;0.6146;-0.2227;
781.2000;0.6178;-0.2203;
781.5000;0.6097;-0.2440;
781.8000;0.6154;-0.2275;
782.1000;0.6146;-0.2322;
782.4000;0.6170;-0.2109;
782.7000;0.6138;-0.2203;
783.0000;0.6154;-0.2180;
783.3000;0.6146;-0.2109;
783.6000;0.6146;-0.2061;
783.9000;0.6129;-0.2132;
784.2000;0.6154;-0.2085;
784.5000;0.6138;-0.2156;
784.8000;0.6129;-0.2061;
785.1000;0.6146;-0.2061;
785.4000;0.6162;-0.2014;
785.7000;0.6146;-0.1990;
786.0000;0.6129;-0.2038;
786.3000;0.6129;-0.2132;
786.6000;0.6146;-0.2156;
786.9000;0.6154;-0.2275;
787.2000;0.6154;-0.2251;
787.5000;0.6146;-0.2203;
787.8000;0.6154;-0.2180;
788.1000;0.6129;-0.2132;
788.4000;0.6081;-0.2251;
788.7000;0.6138;-0.2132;
789.0000;0.6146;-0.2061;
789.3000;0.6121;-0.2085;
789.6000;0.6146;-0.2085;
789.9000;0.6138;-0.2109;
790.2000;0.6113;-0.2109;
790.5000;0.6121;-0.1990;
790.8000;0.6138;-0.1990;
791.1000;0.6129;-0.2014;
791.4000;0.6186;-0.1967;
791.7000;0.6129;-0.2061;
792.0000;0.6138;-0.2109;
792.3000;0.6138;-0.2109;
792.6000;0.6121;-0.2132;
792.9000;0.6129;-0.2085;
793.2000;0.6121;-0.2132;
793.5000;0.6089;-0.2227;
793.8000;0.6113;-0.2251;
794.1000;0.6129;-0.2251;
794.4000;0.6129;-0.2180;
794.7000;0.6121;-0.2203;
795.0000;0.6129;-0.2156;
795.3000;0.6138;-0.2109;
795.6000;0.6129;-0.2132;
795.9000;0.6105;-0.2085;
796.2000;0.6105;-0.2132;
796.5000;0.6089;-0.2132;
796.8000;0.6129;-0.2085;
797.1000;0.6170;-0.1943;
797.4000;0.6113;-0.2180;
797.7000;0.6211;-0.2014;
798.0000;0.6129;-0.2156;
798.3000;0.6089;-0.2251;
798.6000;0.6105;-0.2203;
798.9000;0.6097;-0.2085;
799.2000;0.6113;-0.1967;
799.5000;0.6113;-0.2061;
799.8000;0.6097;-0.2109;
800.1000;0.6089;-0.2132;
800.4000;0.6089;-0.2061;
800.7000;0.6105;-0.2085;
801.0000;0.6081;-0.2227;
801.3000;0.6089;-0.2132;
801.6000;0.6056;-0.2085;
801.9000;0.6113;-0.1943;
802.2000;0.6113;-0.1872;
802.5000;0.6105;-0.1848;
802.8000;0.6138;-0.1777;
803.1000;0.6121;-0.1848;
803.4000;0.6105;-0.1801;
803.7000;0.6097;-0.1848;
804.0000;0.6105;-0.1919;
804.3000;0.6097;-0.1895;
804.6000;0.6105;-0.1872;
804.9000;0.6081;-0.1967;
805.2000;0.6105;-0.1967;
805.5000;0.6081;-0.1895;
805.8000;0.6097;-0.1848;
806.1000;0.6089;-0.1943;
806.4000;0.6089;-0.1943;
806.7000;0.6105;-0.2014;
807.0000;0.6064;-0.2061;
807.3000;0.6105;-0.2014;
807.6000;0.6048;-0.2227;
807.9000;0.6081;-0.2156;
808.2000;0.6089;-0.2109;
808.5000;0.6097;-0.2109;
808.8000;0.6072;-0.2085;
809.1000;0.6089;-0.2061;
809.4000;0.6081;-0.1990;
809.7000;0.6072;-0.2061;
810.0000;0.6048;-0.2132;
810.3000;0.6089;-0.2038;
810.6000;0.6072;-0.2085;
810.9000;0.6081;-0.2109;
811.2000;0.6064;-0.2109;
811.5000;0.6072;-0.2109;
811.8000;0.6081;-0.2109;
812.1000;0.6064;-0.2132;
812.4000;0.6081;-0.2061;
812.7000;0.6064;-0.2109;
813.0000;0.6032;-0.2156;
813.3000;0.6048;-0.2132;
813.6000;0.6081;-0.1990;
813.9000;0.6081;-0.2061;
814.2000;0.6064;-0.2132;
814.5000;0.6056;-0.2227;
814.8000;0.6048;-0.2203;
815.1000;0.6072;-0.2085;
815.4000;0.6040;-0.2014;
815.7000;0.6056;-0.1872;
816.0000;0.6064;-0.1919;
816.3000;0.6056;-0.1943;
816.6000;0.6072;-0.1919;
816.9000;0.6064;-0.1895;
817.2000;0.6072;-0.1872;
817.5000;0.6064;-0.1872;
817.8000;0.6072;-0.1943;
818.1000;0.6064;-0.2038;
818.4000;0.6048;-0.2132;
818.7000;0.6081;-0.1967;
819.0000;0.6064;-0.1943;
819.3000;0.6015;-0.1990;
819.6000;0.6032;-0.1990;
819.9000;0.6056;-0.1824;
820.2000;0.6089;-0.1777;
820.5000;0.6032;-0.1943;
820.8000;0.6048;-0.1824;
821.1000;0.6048;-0.1872;
821.4000;0.6032;-0.1895;
821.7000;0.6056;-0.1801;
822.0000;0.6072;-0.1777;
822.3000;0.6040;-0.1824;
822.6000;0.6040;-0.1730;
822.9000;0.6040;-0.1777;
823.2000;0.6032;-0.1919;
823.5000;0.6048;-0.1872;
823.8000;0.6064;-0.1848;
824.1000;0.6105;-0.1682;
824.4000;0.6040;-0.1777;
824.7000;0.6040;-0.1824;
825.0000;0.6032;-0.1801;
825.3000;0.6048;-0.1824;
825.6000;0.6048;-0.1777;
825.9000;0.6040;-0.1824;
826.2000;0.6040;-0.1824;
826.5000;0.6048;-0.1777;
826.8000;0.6032;-0.1753;
827.1000;0.6024;-0.1801;
827.4000;0.6048;-0.1872;
827.7000;0.6048;-0.1848;
828.0000;0.6024;-0.1824;
828.3000;0.6015;-0.1943;
828.6000;0.6024;-0.1943;
828.9000;0.6048;-0.1848;
829.2000;0.6064;-0.1848;
829.5000;0.6024;-0.1990;
829.8000;0.6015;-0.1990;
830.1000;0.6040;-0.1801;
830.4000;0.6040;-0.1824;
830.7000;0.6015;-0.1824;
831.0000;0.5999;-0.1872;
831.3000;0.6024;-0.1801;
831.6000;0.5999;-0.1895;
831.9000;0.6040;-0.1872;
832.2000;0.6097;-0.1706;
832.5000;0.6024;-0.1895;
832.8000;0.6024;-0.1895;
833.1000;0.6015;-0.1801;
833.4000;0.6015;-0.1801;
833.7000;0.6007;-0.1824;
834.0000;0.5958;-0.1967;
834.3000;0.6024;-0.1824;
834.6000;0.6015;-0.1848;
834.9000;0.6032;-0.1872;
835.2000;0.6032;-0.1872;
835.5000;0.6024;-0.1872;
835.8000;0.6007;-0.1919;
836.1000;0.6015;-0.1895;
836.4000;0.5958;-0.1919;
836.7000;0.6032;-0.1682;
837.0000;0.6032;-0.1682;
837.3000;0.6007;-0.1753;
837.6000;0.6007;-0.1824;
837.9000;0.6040;-0.1753;
838.2000;0.6007;-0.1753;
838.5000;0.6024;-0.1753;
838.8000;0.6007;-0.1659;
839.1000;0.6024;-0.1682;
839.4000;0.5983;-0.1777;
839.7000;0.6024;-0.1777;
840.0000;0.5999;-0.1824;
840.3000;0.5999;-0.1824;
840.6000;0.6015;-0.1777;
840.9000;0.6015;-0.1943;
841.2000;0.6024;-0.1967;
841.5000;0.6007;-0.2038;
841.8000;0.6015;-0.1990;
842.1000;0.5999;-0.1919;
842.4000;0.6007;-0.1919;
842.7000;0.5999;-0.2038;
843.0000;0.6024;-0.2038;
843.3000;0.6007;-0.2014;
843.6000;0.5999;-0.2038;
843.9000;0.6015;-0.1895;
844.2000;0.5999;-0.2014;
844.5000;0.6007;-0.1990;
844.8000;0.6007;-0.1967;
845.1000;0.6015;-0.1990;
845.4000;0.5991;-0.1943;
845.7000;0.6032;-0.1824;
846.0000;0.6007;-0.1848;
846.3000;0.5999;-0.1824;
846.6000;0.5999;-0.1872;
846.9000;0.5999;-0.1872;
847.2000;0.5999;-0.1848;
847.5000;0.5991;-0.1872;
847.8000;0.5991;-0.1895;
848.1000;0.6007;-0.1848;
848.4000;0.5975;-0.1895;
848.7000;0.6007;-0.1872;
849.0000;0.5999;-0.1943;
849.3000;0.6015;-0.1919;
849.6000;0.5950;-0.2061;
849.9000;0.5999;-0.1895;
850.2000;0.5999;-0.1967;
850.5000;0.6015;-0.1872;
850.8000;0.5999;-0.1919;
851.1000;0.6024;-0.1872;
851.4000;0.6007;-0.1895;
851.7000;0.5934;-0.2156;
852.0000;0.6024;-0.1990;
852.3000;0.5991;-0.2014;
852.6000;0.5975;-0.2061;
852.9000;0.6024;-0.2014;
853.2000;0.5983;-0.2109;
853.5000;0.5999;-0.1967;
853.8000;0.5999;-0.2014;
854.1000;0.5999;-0.2061;
854.4000;0.5999;-0.2156;
854.7000;0.5958;-0.2322;
855.0000;0.6015;-0.2132;
855.3000;0.5999;-0.2132;
855.6000;0.5942;-0.2132;
855.9000;0.5975;-0.2180;
856.2000;0.6040;-0.1872;
856.5000;0.6015;-0.1943;
856.8000;0.5983;-0.1967;
857.1000;0.6007;-0.1990;
857.4000;0.5999;-0.2014;
857.7000;0.6040;-0.2014;
858.0000;0.5975;-0.2109;
858.3000;0.6007;-0.2061;
858.6000;0.5991;-0.2061;
858.9000;0.5975;-0.2014;
859.2000;0.5958;-0.2038;
859.5000;0.5967;-0.1990;
859.8000;0.5975;-0.2085;
860.1000;0.5991;-0.2085;
860.4000;0.5983;-0.2227;
860.7000;0.5967;-0.2275;
861.0000;0.5967;-0.2251;
861.3000;0.5991;-0.2132;
861.6000;0.5983;-0.2156;
861.9000;0.5967;-0.2156;
862.2000;0.5975;-0.2227;
862.5000;0.5967;-0.2251;
862.8000;0.5983;-0.2227;
863.1000;0.5967;-0.2132;
863.4000;0.5950;-0.2132;
863.7000;0.5991;-0.2109;
864.0000;0.5967;-0.2109;
864.3000;0.5975;-0.2061;
864.6000;0.5991;-0.2085;
864.9000;0.5991;-0.2038;
865.2000;0.5934;-0.2180;
865.5000;0.5926;-0.2227;
865.8000;0.5975;-0.2038;
866.1000;0.5983;-0.1990;
866.4000;0.5975;-0.2038;
866.7000;0.5975;-0.1872;
867.0000;0.5958;-0.1777;
867.3000;0.5975;-0.1824;
867.6000;0.6007;-0.1730;
867.9000;0.5975;-0.1848;
868.2000;0.5983;-0.1895;
868.5000;0.5967;-0.1943;
868.8000;0.5991;-0.1872;
869.1000;0.5975;-0.1943;
869.4000;0.5958;-0.1990;
869.7000;0.5967;-0.1919;
870.0000;0.5967;-0.1895;
870.3000;0.5967;-0.1872;
870.6000;0.5958;-0.1895;
870.9000;0.5950;-0.1990;
871.2000;0.5950;-0.1967;
871.5000;0.5958;-0.1895;
871.8000;0.5950;-0.1919;
872.1000;0.5958;-0.1967;
872.4000;0.5893;-0.2132;
872.7000;0.5958;-0.1990;
873.0000;0.5958;-0.2038;
873.3000;0.5975;-0.2014;
873.6000;0.5991;-0.1967;
873.9000;0.5950;-0.1990;
874.2000;0.5958;-0.2014;
874.5000;0.5958;-0.1990;
874.8000;0.5950;-0.1990;
875.1000;0.5975;-0.1990;
875.4000;0.5967;-0.1990;
875.7000;0.5942;-0.2109;
876.0000;0.5950;-0.2180;
876.3000;0.5942;-0.2203;
876.6000;0.5975;-0.2038;
876.9000;0.5967;-0.1990;
877.2000;0.5950;-0.1943;
877.5000;0.5942;-0.1967;
877.8000;0.5950;-0.1919;
878.1000;0.5975;-0.2014;
878.4000;0.5950;-0.2014;
878.7000;0.5950;-0.2061;
879.0000;0.5926;-0.2061;
879.3000;0.5926;-0.2109;
879.6000;0.5942;-0.2109;
879.9000;0.5893;-0.2203;
880.2000;0.5958;-0.1990;
880.5000;0.5950;-0.2014;
880.8000;0.5967;-0.2038;
881.1000;0.5942;-0.2156;
881.4000;0.5950;-0.2061;
881.7000;0.5958;-0.2038;
882.0000;0.5983;-0.1967;
882.3000;0.5942;-0.2038;
882.6000;0.5934;-0.2038;
882.9000;0.5942;-0.2014;
883.2000;0.5934;-0.2085;
883.5000;0.5934;-0.2109;
883.8000;0.5934;-0.2109;
884.1000;0.5958;-0.2014;
884.4000;0.5950;-0.2038;
884.7000;0.5918;-0.2061;
885.0000;0.5942;-0.2038;
885.3000;0.5942;-0.2085;
885.6000;0.5950;-0.2156;
885.9000;0.5942;-0.2132;
886.2000;0.5934;-0.2038;
886.5000;0.5950;-0.1967;
886.8000;0.5958;-0.1990;
887.1000;0.5942;-0.1990;
887.4000;0.5999;-0.1919;
887.7000;0.5991;-0.2061;
888.0000;0.5942;-0.2156;
888.3000;0.5950;-0.2156;
888.6000;0.5885;-0.2322;
888.9000;0.5950;-0.2203;
889.2000;0.5869;-0.2440;
889.5000;0.5926;-0.2251;
889.8000;0.5934;-0.2227;
890.1000;0.5910;-0.2275;
890.4000;0.5950;-0.2109;
890.7000;0.5934;-0.2061;
891.0000;0.5918;-0.2156;
891.3000;0.5910;-0.2132;
891.6000;0.5918;-0.2038;
891.9000;0.5942;-0.1943;
892.2000;0.5910;-0.1967;
892.5000;0.5910;-0.2038;
892.8000;0.5934;-0.2038;
893.1000;0.5885;-0.2132;
893.4000;0.5942;-0.1967;
893.7000;0.5950;-0.1872;
894.0000;0.5934;-0.1895;
894.3000;0.5926;-0.1895;
894.6000;0.5942;-0.1801;
894.9000;0.5918;-0.1895;
895.2000;0.5934;-0.1919;
895.5000;0.5918;-0.1967;
895.8000;0.5934;-0.1943;
896.1000;0.5926;-0.1967;
896.4000;0.5918;-0.2014;
896.7000;0.5934;-0.2014;
897.0000;0.5926;-0.1990;
897.3000;0.5934;-0.1967;
897.6000;0.5918;-0.1967;
897.9000;0.5934;-0.1967;
898.2000;0.5934;-0.1919;
898.5000;0.5934;-0.1919;
898.8000;0.5910;-0.1895;
899.1000;0.5934;-0.1895;
899.4000;0.5942;-0.1967;
899.7000;0.5934;-0.1967;
900.0000;0.5918;-0.1967;
900.3000;0.5910;-0.2014;
900.6000;0.5926;-0.1895;
900.9000;0.5926;-0.1824;
901.2000;0.5950;-0.1848;
901.5000;0.5942;-0.1824;
901.8000;0.5893;-0.1967;
902.1000;0.5934;-0.1943;
902.4000;0.5926;-0.1919;
902.7000;0.5926;-0.1990;
903.0000;0.5926;-0.1943;
903.3000;0.5934;-0.1990;
903.6000;0.5926;-0.1967;
903.9000;0.5942;-0.1943;
904.2000;0.5926;-0.1848;
904.5000;0.5902;-0.1872;
904.8000;0.5910;-0.1801;
905.1000;0.5910;-0.1824;
905.4000;0.5861;-0.1967;
905.7000;0.5926;-0.1824;
906.0000;0.5926;-0.1895;
906.3000;0.5918;-0.1895;
906.6000;0.5910;-0.1895;
906.9000;0.5902;-0.2038;
907.2000;0.5918;-0.1967;
907.5000;0.5893;-0.2061;
907.8000;0.5934;-0.1967;
908.1000;0.5910;-0.2014;
908.4000;0.5861;-0.2132;
908.7000;0.5893;-0.1967;
909.0000;0.5942;-0.1895;
909.3000;0.5950;-0.1848;
909.6000;0.5910;-0.1919;
909.9000;0.5918;-0.1967;
910.2000;0.5910;-0.1943;
910.5000;0.5918;-0.1919;
910.8000;0.5934;-0.1895;
911.1000;0.5926;-0.1943;
911.4000;0.5983;-0.1777;
911.7000;0.5902;-0.1967;
912.0000;0.5958;-0.1706;
912.3000;0.5918;-0.1801;
912.6000;0.5934;-0.1801;
912.9000;0.5918;-0.1801;
913.2000;0.5910;-0.1801;
913.5000;0.5975;-0.1659;
913.8000;0.5926;-0.1895;
914.1000;0.5942;-0.1895;
914.4000;0.5910;-0.1895;
914.7000;0.5893;-0.1943;
915.0000;0.5926;-0.1919;
915.3000;0.5910;-0.2109;
915.6000;0.5918;-0.2085;
915.9000;0.5877;-0.2061;
916.2000;0.5926;-0.1848;
916.5000;0.5893;-0.1895;
916.8000;0.5918;-0.1872;
917.1000;0.5893;-0.1895;
917.4000;0.5885;-0.1919;
917.7000;0.5902;-0.1967;
918.0000;0.5902;-0.1967;
918.3000;0.5910;-0.1943;
918.6000;0.5893;-0.1967;
918.9000;0.5910;-0.1872;
919.2000;0.5918;-0.1824;
919.5000;0.5918;-0.1801;
919.8000;0.5902;-0.1777;
920.1000;0.5902;-0.1753;
920.4000;0.5877;-0.1824;
920.7000;0.5926;-0.1848;
921.0000;0.5910;-0.1990;
921.3000;0.5918;-0.1967;
921.6000;0.5910;-0.2061;
921.9000;0.5910;-0.2061;
922.2000;0.5910;-0.2061;
922.5000;0.5910;-0.1990;
922.8000;0.5910;-0.1895;
923.1000;0.5885;-0.1895;
923.4000;0.5885;-0.1848;
923.7000;0.5918;-0.1706;
924.0000;0.5934;-0.1730;
924.3000;0.5918;-0.1730;
924.6000;0.5885;-0.1824;
924.9000;0.5902;-0.1777;
925.2000;0.5893;-0.1753;
925.5000;0.5885;-0.1682;
925.8000;0.5885;-0.1706;
926.1000;0.5910;-0.1777;
926.4000;0.5885;-0.1895;
926.7000;0.5942;-0.1682;
927.0000;0.5942;-0.1682;
927.3000;0.5902;-0.1777;
927.6000;0.5902;-0.1895;
927.9000;0.5877;-0.1872;
928.2000;0.5885;-0.1919;
928.5000;0.5902;-0.1872;
928.8000;0.5877;-0.1872;
929.1000;0.5902;-0.1753;
929.4000;0.5926;-0.1848;
929.7000;0.5893;-0.1848;
930.0000;0.5893;-0.1730;
930.3000;0.5893;-0.1777;
930.6000;0.5893;-0.1872;
930.9000;0.5926;-0.1895;
931.2000;0.5869;-0.1919;
931.5000;0.5902;-0.1848;
931.8000;0.5902;-0.1919;
932.1000;0.5893;-0.1919;
932.4000;0.5885;-0.1967;
932.7000;0.5877;-0.1943;
933.0000;0.5910;-0.1872;
933.3000;0.5861;-0.1990;
933.6000;0.5885;-0.1872;
933.9000;0.5885;-0.1872;
934.2000;0.5902;-0.1824;
934.5000;0.5926;-0.1682;
934.8000;0.5910;-0.1635;
935.1000;0.5885;-0.1753;
935.4000;0.5902;-0.1753;
935.7000;0.5893;-0.1824;
936.0000;0.5877;-0.1895;
936.3000;0.5877;-0.1895;
936.6000;0.5893;-0.1872;
936.9000;0.5885;-0.1943;
937.2000;0.5885;-0.2038;
937.5000;0.5942;-0.1824;
937.8000;0.5877;-0.1919;
938.1000;0.5877;-0.1990;
938.4000;0.5885;-0.1967;
938.7000;0.5861;-0.1990;
939.0000;0.5877;-0.1848;
939.3000;0.5861;-0.1895;
939.6000;0.5885;-0.1824;
939.9000;0.5877;-0.1801;
940.2000;0.5853;-0.1682;
940.5000;0.5877;-0.1635;
940.8000;0.5869;-0.1706;
941.1000;0.5926;-0.1611;
941.4000;0.5836;-0.1848;
941.7000;0.5877;-0.1801;
942.0000;0.5869;-0.1824;
942.3000;0.5869;-0.1753;
942.6000;0.5812;-0.1848;
942.9000;0.5869;-0.1777;
943.2000;0.5853;-0.1801;
943.5000;0.5877;-0.1730;
943.8000;0.5885;-0.1730;
944.1000;0.5869;-0.1730;
944.4000;0.5893;-0.1730;
944.7000;0.5877;-0.1730;
945.0000;0.5869;-0.1753;
945.3000;0.5885;-0.1682;
945.6000;0.5877;-0.1682;
945.9000;0.5885;-0.1801;
946.2000;0.5877;-0.1872;
946.5000;0.5853;-0.1895;
946.8000;0.5796;-0.2038;
947.1000;0.5869;-0.1801;
947.4000;0.5853;-0.1919;
947.7000;0.5893;-0.1895;
948.0000;0.5836;-0.2014;
948.3000;0.5885;-0.1872;
948.6000;0.5869;-0.1943;
948.9000;0.5869;-0.2014;
949.2000;0.5853;-0.1990;
949.5000;0.5910;-0.1895;
949.8000;0.5877;-0.1895;
950.1000;0.5877;-0.1753;
950.4000;0.5869;-0.1706;
950.7000;0.5877;-0.1682;
951.0000;0.5861;-0.1730;
951.3000;0.5869;-0.1635;
951.6000;0.5853;-0.1777;
951.9000;0.5820;-0.1943;
952.2000;0.5885;-0.1753;
952.5000;0.5853;-0.1753;
952.8000;0.5861;-0.1635;
953.1000;0.5869;-0.1611;
953.4000;0.5869;-0.1611;
953.7000;0.5853;-0.1611;
954.0000;0.5828;-0.1730;
954.3000;0.5845;-0.1753;
954.6000;0.5877;-0.1801;
954.9000;0.5861;-0.1848;
955.2000;0.5853;-0.1872;
955.5000;0.5812;-0.1943;
955.8000;0.5861;-0.1777;
956.1000;0.5885;-0.1753;
956.4000;0.5934;-0.1516;
956.7000;0.5869;-0.1706;
957.0000;0.5861;-0.1706;
957.3000;0.5885;-0.1659;
957.6000;0.5885;-0.1564;
957.9000;0.5869;-0.1611;
958.2000;0.5869;-0.1659;
958.5000;0.5853;-0.1777;
958.8000;0.5885;-0.1635;
959.1000;0.5877;-0.1659;
959.4000;0.5861;-0.1516;
959.7000;0.5836;-0.1564;
960.0000;0.5877;-0.1422;
960.3000;0.5861;-0.1422;
960.6000;0.5861;-0.1469;
960.9000;0.5820;-0.1587;
961.2000;0.5885;-0.1422;
961.5000;0.5918;-0.1422;
961.8000;0.5861;-0.1659;
962.1000;0.5853;-0.1659;
962.4000;0.5853;-0.1635;
962.7000;0.5861;-0.1587;
963.0000;0.5845;-0.1682;
963.3000;0.5861;-0.1682;
963.6000;0.5869;-0.1730;
963.9000;0.5877;-0.1659;
964.2000;0.5853;-0.1730;
964.5000;0.5853;-0.1730;
964.8000;0.5861;-0.1730;
965.1000;0.5861;-0.1682;
965.4000;0.5845;-0.1635;
965.7000;0.5845;-0.1706;
966.0000;0.5869;-0.1730;
966.3000;0.5861;-0.1753;
966.6000;0.5861;-0.1777;
966.9000;0.5853;-0.1848;
967.2000;0.5853;-0.1824;
967.5000;0.5869;-0.1824;
967.8000;0.5869;-0.1824;
968.1000;0.5853;-0.1801;
968.4000;0.5869;-0.1730;
968.7000;0.5853;-0.1753;
969.0000;0.5836;-0.1848;
969.3000;0.5861;-0.1824;
969.6000;0.5853;-0.1753;
969.9000;0.5853;-0.1848;
970.2000;0.5845;-0.1919;
970.5000;0.5861;-0.1967;
970.8000;0.5853;-0.1895;
971.1000;0.5853;-0.1801;
971.4000;0.5861;-0.1730;
971.7000;0.5918;-0.1659;
972.0000;0.5869;-0.1706;
972.3000;0.5853;-0.1706;
972.6000;0.5836;-0.1801;
972.9000;0.5853;-0.1730;
973.2000;0.5804;-0.1824;
973.5000;0.5853;-0.1706;
973.8000;0.5853;-0.1611;
974.1000;0.5853;-0.1540;
974.4000;0.5853;-0.1611;
974.7000;0.5828;-0.1682;
975.0000;0.5812;-0.1753;
975.3000;0.5861;-0.1682;
975.6000;0.5836;-0.1682;
975.9000;0.5804;-0.1706;
976.2000;0.5820;-0.1635;
976.5000;0.5820;-0.1753;
976.8000;0.5828;-0.1824;
977.1000;0.5853;-0.1706;
977.4000;0.5845;-0.1659;
977.7000;0.5861;-0.1659;
978.0000;0.5869;-0.1706;
978.3000;0.5853;-0.1777;
978.6000;0.5853;-0.1801;
978.9000;0.5853;-0.1824;
979.2000;0.5861;-0.1777;
979.5000;0.5845;-0.1730;
979.8000;0.5828;-0.1706;
980.1000;0.5853;-0.1611;
980.4000;0.5820;-0.1730;
980.7000;0.5853;-0.1730;
981.0000;0.5869;-0.1682;
981.3000;0.5796;-0.1730;
981.6000;0.5861;-0.1540;
981.9000;0.5861;-0.1635;
982.2000;0.5861;-0.1611;
982.5000;0.5836;-0.1682;
982.8000;0.5828;-0.1587;
983.1000;0.5853;-0.1587;
983.4000;0.5836;-0.1682;
983.7000;0.5836;-0.1730;
984.0000;0.5836;-0.1706;
984.3000;0.5845;-0.1659;
984.6000;0.5820;-0.1635;
984.9000;0.5877;-0.1516;
985.2000;0.5836;-0.1611;
985.5000;0.5836;-0.1635;
985.8000;0.5845;-0.1730;
986.1000;0.5861;-0.1659;
986.4000;0.5836;-0.1706;
986.7000;0.5836;-0.1706;
987.0000;0.5861;-0.1659;
987.3000;0.5845;-0.1682;
987.6000;0.5869;-0.1659;
987.9000;0.5853;-0.1659;
988.2000;0.5845;-0.1635;
988.5000;0.5828;-0.1659;
988.8000;0.5836;-0.1635;
989.1000;0.5836;-0.1635;
989.4000;0.5820;-0.1706;
989.7000;0.5828;-0.1706;
990.0000;0.5828;-0.1753;
990.3000;0.5836;-0.1801;
990.6000;0.5828;-0.1777;
990.9000;0.5836;-0.1659;
991.2000;0.5836;-0.1659;
991.5000;0.5836;-0.1611;
991.8000;0.5853;-0.1587;
992.1000;0.5836;-0.1682;
992.4000;0.5820;-0.1801;
992.7000;0.5845;-0.1848;
993.0000;0.5836;-0.1872;
993.3000;0.5820;-0.1848;
993.6000;0.5853;-0.1777;
993.9000;0.5836;-0.1824;
994.2000;0.5828;-0.1777;
994.5000;0.5836;-0.1730;
994.8000;0.5869;-0.1706;
995.1000;0.5812;-0.1848;
995.4000;0.5828;-0.1848;
995.7000;0.5828;-0.1848;
996.0000;0.5836;-0.1824;
996.3000;0.5845;-0.1801;
996.6000;0.5845;-0.1848;
996.9000;0.5836;-0.1848;
997.2000;0.5877;-0.1659;
997.5000;0.5828;-0.1611;
997.8000;0.5763;-0.1682;
998.1000;0.5812;-0.1564;
998.4000;0.5836;-0.1540;
998.7000;0.5828;-0.1516;
999.0000;0.5820;-0.1635;
999.3000;0.5796;-0.1587;
999.6000;0.5820;-0.1493;
999.9000;0.5861;-0.1445;
1000.2000;0.5820;-0.1587;
1000.5000;0.5812;-0.1659;
1000.8000;0.5820;-0.1659;
1001.1000;0.5845;-0.1587;
1001.4000;0.5820;-0.1635;
1001.7000;0.5820;-0.1682;
1002.0000;0.5853;-0.1564;
1002.3000;0.5893;-0.1469;
1002.6000;0.5836;-0.1564;
1002.9000;0.5820;-0.1540;
1003.2000;0.5828;-0.1445;
1003.5000;0.5836;-0.1374;
1003.8000;0.5845;-0.1303;
1004.1000;0.5845;-0.1374;
1004.4000;0.5828;-0.1469;
1004.7000;0.5828;-0.1516;
1005.0000;0.5804;-0.1611;
1005.3000;0.5853;-0.1422;
1005.6000;0.5828;-0.1493;
1005.9000;0.5828;-0.1493;
1006.2000;0.5828;-0.1540;
1006.5000;0.5877;-0.1469;
1006.8000;0.5836;-0.1635;
1007.1000;0.5820;-0.1659;
1007.4000;0.5828;-0.1635;
1007.7000;0.5812;-0.1635;
1008.0000;0.5836;-0.1587;
1008.3000;0.5828;-0.1611;
1008.6000;0.5820;-0.1635;
1008.9000;0.5812;-0.1659;
1009.2000;0.5820;-0.1611;
1009.5000;0.5820;-0.1540;
1009.8000;0.5820;-0.1493;
1010.1000;0.5820;-0.1516;
1010.4000;0.5836;-0.1564;
1010.7000;0.5804;-0.1706;
1011.0000;0.5820;-0.1682;
1011.3000;0.5820;-0.1635;
1011.6000;0.5820;-0.1635;
1011.9000;0.5812;-0.1659;
1012.2000;0.5869;-0.1540;
1012.5000;0.5828;-0.1611;
1012.8000;0.5828;-0.1564;
1013.1000;0.5820;-0.1516;
1013.4000;0.5836;-0.1516;
1013.7000;0.5812;-0.1493;
1014.0000;0.5812;-0.1516;
1014.3000;0.5804;-0.1493;
1014.6000;0.5804;-0.1540;
1014.9000;0.5820;-0.1516;
1015.2000;0.5820;-0.1587;
1015.5000;0.5836;-0.1706;
1015.8000;0.5812;-0.1824;
1016.1000;0.5836;-0.1682;
1016.4000;0.5836;-0.1587;
1016.7000;0.5820;-0.1564;
1017.0000;0.5820;-0.1564;
1017.3000;0.5796;-0.1587;
1017.6000;0.5820;-0.1611;
1017.9000;0.5828;-0.1587;
1018.2000;0.5820;-0.1564;
1018.5000;0.5820;-0.1587;
1018.8000;0.5828;-0.1635;
1019.1000;0.5820;-0.1635;
1019.4000;0.5828;-0.1753;
1019.7000;0.5836;-0.1730;
1020.0000;0.5820;-0.1777;
1020.3000;0.5845;-0.1730;
1020.6000;0.5836;-0.1730;
1020.9000;0.5812;-0.1777;
1021.2000;0.5812;-0.1706;
1021.5000;0.5869;-0.1564;
1021.8000;0.5828;-0.1682;
1022.1000;0.5812;-0.1777;
1022.4000;0.5755;-0.1848;
1022.7000;0.5820;-0.1635;
1023.0000;0.5828;-0.1659;
1023.3000;0.5820;-0.1682;
1023.6000;0.5845;-0.1635;
1023.9000;0.5828;-0.1659;
1024.2000;0.5853;-0.1611;
1024.5000;0.5853;-0.1564;
1024.8000;0.5828;-0.1516;
1025.1000;0.5820;-0.1493;
1025.4000;0.5812;-0.1445;
1025.7000;0.5796;-0.1469;
1026.0000;0.5812;-0.1587;
1026.3000;0.5820;-0.1564;
1026.6000;0.5812;-0.1564;
1026.9000;0.5804;-0.1635;
1027.2000;0.5812;-0.1635;
1027.5000;0.5804;-0.1706;
1027.8000;0.5836;-0.1611;
1028.1000;0.5812;-0.1659;
1028.4000;0.5812;-0.1659;
1028.7000;0.5804;-0.1635;
1029.0000;0.5836;-0.1587;
1029.3000;0.5812;-0.1611;
1029.6000;0.5820;-0.1540;
1029.9000;0.5820;-0.1659;
1030.2000;0.5820;-0.1635;
1030.5000;0.5828;-0.1635;
1030.8000;0.5779;-0.1753;
1031.1000;0.5812;-0.1659;
1031.4000;0.5812;-0.1659;
1031.7000;0.5796;-0.1611;
1032.0000;0.5820;-0.1564;
1032.3000;0.5804;-0.1682;
1032.6000;0.5812;-0.1635;
1032.9000;0.5828;-0.1540;
1033.2000;0.5820;-0.1564;
1033.5000;0.5812;-0.1611;
1033.8000;0.5804;-0.1611;
1034.1000;0.5804;-0.1516;
1034.4000;0.5763;-0.1540;
1034.7000;0.5820;-0.1493;
1035.0000;0.5812;-0.1493;
1035.3000;0.5812;-0.1445;
1035.6000;0.5804;-0.1422;
1035.9000;0.5812;-0.1469;
1036.2000;0.5812;-0.1516;
1036.5000;0.5812;-0.1516;
1036.8000;0.5820;-0.1516;
1037.1000;0.5836;-0.1469;
1037.4000;0.5804;-0.1587;
1037.7000;0.5788;-0.1682;
1038.0000;0.5812;-0.1659;
1038.3000;0.5804;-0.1659;
1038.6000;0.5812;-0.1659;
1038.9000;0.5812;-0.1682;
1039.2000;0.5812;-0.1730;
1039.5000;0.5796;-0.1777;
1039.8000;0.5804;-0.1801;
1040.1000;0.5796;-0.1848;
1040.4000;0.5812;-0.1753;
1040.7000;0.5771;-0.1730;
1041.0000;0.5804;-0.1635;
1041.3000;0.5796;-0.1587;
1041.6000;0.5796;-0.1587;
1041.9000;0.5828;-0.1540;
1042.2000;0.5836;-0.1493;
1042.5000;0.5812;-0.1611;
1042.8000;0.5771;-0.1611;
1043.1000;0.5755;-0.1682;
1043.4000;0.5845;-0.1493;
1043.7000;0.5812;-0.1587;
1044.0000;0.5739;-0.1824;
1044.3000;0.5828;-0.1564;
1044.6000;0.5812;-0.1659;
1044.9000;0.5796;-0.1682;
1045.2000;0.5812;-0.1635;
1045.5000;0.5804;-0.1635;
1045.8000;0.5812;-0.1587;
1046.1000;0.5861;-0.1445;
1046.4000;0.5788;-0.1682;
1046.7000;0.5796;-0.1635;
1047.0000;0.5836;-0.1564;
1047.3000;0.5812;-0.1611;
1047.6000;0.5804;-0.1730;
1047.9000;0.5796;-0.1777;
1048.2000;0.5788;-0.1730;
1048.5000;0.5779;-0.1777;
1048.8000;0.5779;-0.1753;
1049.1000;0.5796;-0.1777;
1049.4000;0.5812;-0.1730;
1049.7000;0.5820;-0.1730;
1050.0000;0.5779;-0.1730;
1050.3000;0.5788;-0.1753;
1050.6000;0.5804;-0.1659;
1050.9000;0.5804;-0.1587;
1051.2000;0.5804;-0.1564;
1051.5000;0.5804;-0.1564;
1051.8000;0.5812;-0.1516;
1052.1000;0.5804;-0.1540;
1052.4000;0.5853;-0.1493;
1052.7000;0.5812;-0.1540;
1053.0000;0.5812;-0.1587;
1053.3000;0.5788;-0.1587;
1053.6000;0.5812;-0.1587;
1053.9000;0.5812;-0.1587;
1054.2000;0.5788;-0.1611;
1054.5000;0.5804;-0.1564;
1054.8000;0.5804;-0.1516;
1055.1000;0.5812;-0.1493;
1055.4000;0.5820;-0.1422;
1055.7000;0.5779;-0.1540;
1056.0000;0.5812;-0.1493;
1056.3000;0.5796;-0.1564;
1056.6000;0.5804;-0.1564;
1056.9000;0.5877;-0.1374;
1057.2000;0.5788;-0.1611;
1057.5000;0.5739;-0.1730;
1057.8000;0.5796;-0.1659;
1058.1000;0.5788;-0.1659;
1058.4000;0.5771;-0.1730;
1058.7000;0.5796;-0.1730;
1059.0000;0.5779;-0.1753;
1059.3000;0.5804;-0.1659;
1059.6000;0.5788;-0.1611;
1059.9000;0.5804;-0.1445;
1060.2000;0.5788;-0.1422;
1060.5000;0.5788;-0.1516;
1060.8000;0.5771;-0.1587;
1061.1000;0.5796;-0.1540;
1061.4000;0.5755;-0.1706;
1061.7000;0.5788;-0.1635;
1062.0000;0.5779;-0.1611;
1062.3000;0.5804;-0.1635;
1062.6000;0.5796;-0.1659;
1062.9000;0.5788;-0.1564;
1063.2000;0.5779;-0.1587;
1063.5000;0.5779;-0.1564;
1063.8000;0.5796;-0.1540;
1064.1000;0.5779;-0.1564;
1064.4000;0.5779;-0.1540;
1064.7000;0.5779;-0.1493;
1065.0000;0.5788;-0.1398;
1065.3000;0.5788;-0.1445;
1065.6000;0.5788;-0.1422;
1065.9000;0.5763;-0.1540;
1066.2000;0.5828;-0.1374;
1066.5000;0.5812;-0.1279;
1066.8000;0.5796;-0.1374;
1067.1000;0.5755;-0.1422;
1067.4000;0.5788;-0.1303;
1067.7000;0.5804;-0.1279;
1068.0000;0.5722;-0.1445;
1068.3000;0.5763;-0.1374;
1068.6000;0.5788;-0.1398;
1068.9000;0.5722;-0.1516;
1069.2000;0.5771;-0.1398;
1069.5000;0.5771;-0.1374;
1069.8000;0.5788;-0.1422;
1070.1000;0.5804;-0.1256;
1070.4000;0.5788;-0.1232;
1070.7000;0.5747;-0.1303;
1071.0000;0.5788;-0.1303;
1071.3000;0.5804;-0.1256;
1071.6000;0.5796;-0.1327;
1071.9000;0.5771;-0.1398;
1072.2000;0.5747;-0.1445;
1072.5000;0.5796;-0.1398;
1072.8000;0.5779;-0.1445;
1073.1000;0.5804;-0.1374;
1073.4000;0.5804;-0.1351;
1073.7000;0.5788;-0.1279;
1074.0000;0.5796;-0.1256;
1074.3000;0.5747;-0.1422;
1074.6000;0.5788;-0.1398;
1074.9000;0.5788;-0.1327;
1075.2000;0.5788;-0.1303;
1075.5000;0.5804;-0.1303;
1075.8000;0.5763;-0.1398;
1076.1000;0.5804;-0.1303;
1076.4000;0.5804;-0.1327;
1076.7000;0.5796;-0.1374;
1077.0000;0.5820;-0.1374;
1077.3000;0.5796;-0.1493;
1077.6000;0.5796;-0.1516;
1077.9000;0.5804;-0.1469;
1078.2000;0.5771;-0.1540;
1078.5000;0.5763;-0.1587;
1078.8000;0.5788;-0.1564;
1079.1000;0.5788;-0.1493;
1079.4000;0.5779;-0.1540;
1079.7000;0.5804;-0.1469;
1080.0000;0.5796;-0.1351;
1080.3000;0.5788;-0.1303;
1080.6000;0.5779;-0.1256;
1080.9000;0.5788;-0.1256;
1081.2000;0.5779;-0.1256;
1081.5000;0.5755;-0.1374;
1081.8000;0.5788;-0.1327;
1082.1000;0.5788;-0.1327;
1082.4000;0.5755;-0.1351;
1082.7000;0.5771;-0.1374;
1083.0000;0.5779;-0.1351;
1083.3000;0.5788;-0.1351;
1083.6000;0.5731;-0.1445;
1083.9000;0.5771;-0.1351;
1084.2000;0.5771;-0.1279;
1084.5000;0.5771;-0.1256;
1084.8000;0.5788;-0.1232;
1085.1000;0.5820;-0.1137;
1085.4000;0.5869;-0.1042;
1085.7000;0.5796;-0.1208;
1086.0000;0.5788;-0.1185;
1086.3000;0.5788;-0.1232;
1086.6000;0.5771;-0.1256;
1086.9000;0.5788;-0.1327;
1087.2000;0.5788;-0.1256;
1087.5000;0.5771;-0.1398;
1087.8000;0.5779;-0.1351;
1088.1000;0.5804;-0.1256;
1088.4000;0.5804;-0.1256;
1088.7000;0.5779;-0.1303;
1089.0000;0.5706;-0.1493;
1089.3000;0.5812;-0.1303;
1089.6000;0.5779;-0.1469;
1089.9000;0.5788;-0.1422;
1090.2000;0.5755;-0.1351;
1090.5000;0.5771;-0.1303;
1090.8000;0.5779;-0.1279;
1091.1000;0.5828;-0.1208;
1091.4000;0.5779;-0.1327;
1091.7000;0.5788;-0.1351;
1092.0000;0.5755;-0.1374;
1092.3000;0.5722;-0.1398;
1092.6000;0.5779;-0.1279;
1092.9000;0.5771;-0.1279;
1093.2000;0.5796;-0.1232;
1093.5000;0.5788;-0.1256;
1093.8000;0.5796;-0.1256;
1094.1000;0.5820;-0.1232;
1094.4000;0.5739;-0.1327;
1094.7000;0.5804;-0.1208;
1095.0000;0.5788;-0.1279;
1095.3000;0.5771;-0.1327;
1095.6000;0.5779;-0.1303;
1095.9000;0.5812;-0.1137;
1096.2000;0.5779;-0.1303;
1096.5000;0.5763;-0.1351;
1096.8000;0.5853;-0.1114;
1097.1000;0.5771;-0.1327;
1097.4000;0.5771;-0.1398;
1097.7000;0.5763;-0.1445;
1098.0000;0.5763;-0.1445;
1098.3000;0.5722;-0.1422;
1098.6000;0.5796;-0.1232;
1098.9000;0.5796;-0.1208;
1099.2000;0.5763;-0.1303;
1099.5000;0.5779;-0.1279;
1099.8000;0.5804;-0.1208;
1100.1000;0.5771;-0.1279;
1100.4000;0.5771;-0.1208;
1100.7000;0.5779;-0.1232;
1101.0000;0.5755;-0.1351;
1101.3000;0.5771;-0.1374;
1101.6000;0.5747;-0.1422;
1101.9000;0.5771;-0.1303;
1102.2000;0.5763;-0.1327;
1102.5000;0.5763;-0.1327;
1102.8000;0.5771;-0.1374;
1103.1000;0.5763;-0.1398;
1103.4000;0.5779;-0.1469;
1103.7000;0.5771;-0.1445;
1104.0000;0.5788;-0.1398;
1104.3000;0.5804;-0.1351;
1104.6000;0.5763;-0.1445;
1104.9000;0.5771;-0.1422;
1105.2000;0.5771;-0.1469;
1105.5000;0.5771;-0.1493;
1105.8000;0.5771;-0.1422;
1106.1000;0.5755;-0.1398;
1106.4000;0.5788;-0.1327;
1106.7000;0.5779;-0.1327;
1107.0000;0.5796;-0.1398;
1107.3000;0.5763;-0.1493;
1107.6000;0.5763;-0.1540;
1107.9000;0.5771;-0.1611;
1108.2000;0.5763;-0.1564;
1108.5000;0.5755;-0.1587;
1108.8000;0.5779;-0.1587;
1109.1000;0.5804;-0.1564;
1109.4000;0.5763;-0.1587;
1109.7000;0.5763;-0.1611;
1110.0000;0.5779;-0.1635;
1110.3000;0.5779;-0.1611;
1110.6000;0.5763;-0.1659;
1110.9000;0.5747;-0.1635;
1111.2000;0.5771;-0.1635;
1111.5000;0.5763;-0.1587;
1111.8000;0.5779;-0.1611;
1112.1000;0.5771;-0.1682;
1112.4000;0.5771;-0.1564;
1112.7000;0.5763;-0.1540;
1113.0000;0.5763;-0.1493;
1113.3000;0.5731;-0.1516;
1113.6000;0.5763;-0.1398;
1113.9000;0.5779;-0.1351;
1114.2000;0.5771;-0.1351;
1114.5000;0.5779;-0.1327;
1114.8000;0.5771;-0.1445;
1115.1000;0.5779;-0.1469;
1115.4000;0.5771;-0.1445;
1115.7000;0.5788;-0.1445;
1116.0000;0.5771;-0.1445;
1116.3000;0.5788;-0.1374;
1116.6000;0.5788;-0.1422;
1116.9000;0.5755;-0.1422;
1117.2000;0.5739;-0.1469;
1117.5000;0.5763;-0.1445;
1117.8000;0.5779;-0.1398;
1118.1000;0.5779;-0.1398;
1118.4000;0.5763;-0.1493;
1118.7000;0.5747;-0.1516;
1119.0000;0.5788;-0.1398;
1119.3000;0.5771;-0.1374;
1119.6000;0.5763;-0.1374;
1119.9000;0.5779;-0.1422;
1120.2000;0.5788;-0.1422;
1120.5000;0.5771;-0.1445;
1120.8000;0.5788;-0.1445;
1121.1000;0.5763;-0.1493;
1121.4000;0.5763;-0.1422;
1121.7000;0.5779;-0.1422;
1122.0000;0.5771;-0.1469;
1122.3000;0.5755;-0.1422;
1122.6000;0.5763;-0.1422;
1122.9000;0.5788;-0.1422;
1123.2000;0.5763;-0.1469;
1123.5000;0.5771;-0.1398;
1123.8000;0.5698;-0.1493;
1124.1000;0.5771;-0.1374;
1124.4000;0.5788;-0.1374;
1124.7000;0.5763;-0.1516;
1125.0000;0.5755;-0.1493;
1125.3000;0.5779;-0.1398;
1125.6000;0.5771;-0.1351;
1125.9000;0.5779;-0.1351;
1126.2000;0.5763;-0.1374;
1126.5000;0.5796;-0.1327;
1126.8000;0.5739;-0.1398;
1127.1000;0.5755;-0.1303;
1127.4000;0.5755;-0.1303;
1127.7000;0.5739;-0.1398;
1128.0000;0.5755;-0.1351;
1128.3000;0.5788;-0.1374;
1128.6000;0.5747;-0.1493;
1128.9000;0.5771;-0.1469;
1129.2000;0.5771;-0.1540;
1129.5000;0.5788;-0.1493;
1129.8000;0.5731;-0.1516;
1130.1000;0.5763;-0.1469;
1130.4000;0.5771;-0.1374;
1130.7000;0.5755;-0.1398;
1131.0000;0.5820;-0.1303;
1131.3000;0.5755;-0.1398;
1131.6000;0.5747;-0.1445;
1131.9000;0.5755;-0.1493;
1132.2000;0.5747;-0.1540;
1132.5000;0.5755;-0.1493;
1132.8000;0.5763;-0.1493;
1133.1000;0.5763;-0.1516;
1133.4000;0.5771;-0.1540;
1133.7000;0.5820;-0.1445;
1134.0000;0.5771;-0.1540;
1134.3000;0.5747;-0.1564;
1134.6000;0.5763;-0.1351;
1134.9000;0.5779;-0.1327;
1135.2000;0.5755;-0.1445;
1135.5000;0.5747;-0.1540;
1135.8000;0.5763;-0.1469;
1136.1000;0.5771;-0.1374;
1136.4000;0.5763;-0.1374;
1136.7000;0.5739;-0.1445;
1137.0000;0.5747;-0.1398;
1137.3000;0.5771;-0.1351;
1137.6000;0.5771;-0.1327;
1137.9000;0.5755;-0.1422;
1138.2000;0.5763;-0.1445;
1138.5000;0.5771;-0.1516;
1138.8000;0.5763;-0.1516;
1139.1000;0.5779;-0.1445;
1139.4000;0.5779;-0.1422;
1139.7000;0.5763;-0.1516;
1140.0000;0.5771;-0.1398;
1140.3000;0.5763;-0.1351;
1140.6000;0.5788;-0.1303;
1140.9000;0.5779;-0.1303;
1141.2000;0.5755;-0.1422;
1141.5000;0.5755;-0.1445;
1141.8000;0.5747;-0.1469;
1142.1000;0.5747;-0.1516;
1142.4000;0.5731;-0.1422;
1142.7000;0.5755;-0.1445;
1143.0000;0.5747;-0.1540;
1143.3000;0.5828;-0.1351;
1143.6000;0.5755;-0.1516;
1143.9000;0.5779;-0.1493;
1144.2000;0.5747;-0.1540;
1144.5000;0.5739;-0.1540;
1144.8000;0.5722;-0.1516;
1145.1000;0.5763;-0.1493;
1145.4000;0.5763;-0.1540;
1145.7000;0.5763;-0.1587;
1146.0000;0.5788;-0.1445;
1146.3000;0.5796;-0.1374;
1146.6000;0.5771;-0.1445;
1146.9000;0.5763;-0.1445;
1147.2000;0.5771;-0.1445;
1147.5000;0.5755;-0.1445;
1147.8000;0.5763;-0.1564;
1148.1000;0.5739;-0.1706;
1148.4000;0.5755;-0.1659;
1148.7000;0.5763;-0.1564;
1149.0000;0.5755;-0.1516;
1149.3000;0.5779;-0.1445;
1149.6000;0.5763;-0.1469;
1149.9000;0.5755;-0.1422;
1150.2000;0.5755;-0.1422;
1150.5000;0.5747;-0.1469;
1150.8000;0.5755;-0.1422;
1151.1000;0.5722;-0.1445;
1151.4000;0.5763;-0.1351;
1151.7000;0.5763;-0.1398;
1152.0000;0.5755;-0.1445;
1152.3000;0.5722;-0.1516;
1152.6000;0.5763;-0.1422;
1152.9000;0.5771;-0.1422;
1153.2000;0.5722;-0.1516;
1153.5000;0.5763;-0.1422;
1153.8000;0.5755;-0.1445;
1154.1000;0.5755;-0.1635;
1154.4000;0.5763;-0.1516;
1154.7000;0.5755;-0.1516;
1155.0000;0.5747;-0.1587;
1155.3000;0.5779;-0.1540;
1155.6000;0.5755;-0.1611;
1155.9000;0.5763;-0.1635;
1156.2000;0.5771;-0.1659;
1156.5000;0.5763;-0.1753;
1156.8000;0.5755;-0.1777;
1157.1000;0.5747;-0.1753;
1157.4000;0.5763;-0.1730;
1157.7000;0.5714;-0.1753;
1158.0000;0.5804;-0.1564;
1158.3000;0.5747;-0.1659;
1158.6000;0.5747;-0.1659;
1158.9000;0.5698;-0.1848;
1159.2000;0.5779;-0.1611;
1159.5000;0.5739;-0.1611;
1159.8000;0.5747;-0.1564;
1160.1000;0.5731;-0.1611;
1160.4000;0.5771;-0.1516;
1160.7000;0.5755;-0.1445;
1161.0000;0.5755;-0.1493;
1161.3000;0.5763;-0.1422;
1161.6000;0.5771;-0.1398;
1161.9000;0.5771;-0.1398;
1162.2000;0.5755;-0.1516;
1162.5000;0.5755;-0.1540;
1162.8000;0.5796;-0.1374;
1163.1000;0.5796;-0.1351;
1163.4000;0.5779;-0.1516;
1163.7000;0.5739;-0.1564;
1164.0000;0.5674;-0.1635;
1164.3000;0.5731;-0.1398;
1164.6000;0.5763;-0.1327;
1164.9000;0.5804;-0.1232;
1165.2000;0.5747;-0.1422;
1165.5000;0.5771;-0.1279;
1165.8000;0.5739;-0.1374;
1166.1000;0.5755;-0.1327;
1166.4000;0.5747;-0.1327;
1166.7000;0.5763;-0.1327;
1167.0000;0.5739;-0.1351;
1167.3000;0.5731;-0.1445;
1167.6000;0.5779;-0.1279;
1167.9000;0.5755;-0.1303;
1168.2000;0.5747;-0.1303;
1168.5000;0.5747;-0.1422;
1168.8000;0.5739;-0.1516;
1169.1000;0.5739;-0.1493;
1169.4000;0.5731;-0.1516;
1169.7000;0.5747;-0.1445;
1170.0000;0.5747;-0.1445;
1170.3000;0.5739;-0.1374;
1170.6000;0.5755;-0.1303;
1170.9000;0.5747;-0.1279;
1171.2000;0.5763;-0.1185;
1171.5000;0.5755;-0.1232;
1171.8000;0.5755;-0.1256;
1172.1000;0.5779;-0.1208;
1172.4000;0.5739;-0.1303;
1172.7000;0.5755;-0.1327;
1173.0000;0.5755;-0.1327;
1173.3000;0.5828;-0.1161;
1173.6000;0.5747;-0.1303;
1173.9000;0.5739;-0.1256;
1174.2000;0.5755;-0.1232;
1174.5000;0.5747;-0.1232;
1174.8000;0.5739;-0.1256;
1175.1000;0.5755;-0.1185;
1175.4000;0.5698;-0.1279;
1175.7000;0.5747;-0.1114;
1176.0000;0.5739;-0.1090;
1176.3000;0.5714;-0.1137;
1176.6000;0.5739;-0.1090;
1176.9000;0.5755;-0.1066;
1177.2000;0.5722;-0.1137;
1177.5000;0.5771;-0.0877;
1177.8000;0.5763;-0.0853;
1178.1000;0.5755;-0.0853;
1178.4000;0.5755;-0.0877;
1178.7000;0.5812;-0.0663;
1179.0000;0.5763;-0.0734;
1179.3000;0.5739;-0.0948;
1179.6000;0.5755;-0.0924;
1179.9000;0.5731;-0.1042;
1180.2000;0.5739;-0.1114;
1180.5000;0.5731;-0.1114;
1180.8000;0.5755;-0.1137;
1181.1000;0.5682;-0.1232;
1181.4000;0.5731;-0.1161;
1181.7000;0.5796;-0.0924;
1182.0000;0.5714;-0.1019;
1182.3000;0.5747;-0.0948;
1182.6000;0.5739;-0.1090;
1182.9000;0.5763;-0.1042;
1183.2000;0.5706;-0.1232;
1183.5000;0.5755;-0.1090;
1183.8000;0.5747;-0.0948;
1184.1000;0.5731;-0.1019;
1184.4000;0.5747;-0.0995;
1184.7000;0.5739;-0.0971;
1185.0000;0.5690;-0.1114;
1185.3000;0.5739;-0.1066;
1185.6000;0.5755;-0.1066;
1185.9000;0.5731;-0.1114;
1186.2000;0.5747;-0.1185;
1186.5000;0.5755;-0.1208;
1186.8000;0.5755;-0.1279;
1187.1000;0.5731;-0.1351;
1187.4000;0.5755;-0.1279;
1187.7000;0.5763;-0.1208;
1188.0000;0.5788;-0.1090;
1188.3000;0.5690;-0.1327;
1188.6000;0.5706;-0.1256;
1188.9000;0.5755;-0.1208;
1189.2000;0.5739;-0.1090;
1189.5000;0.5722;-0.1208;
1189.8000;0.5763;-0.1208;
1190.1000;0.5722;-0.1279;
1190.4000;0.5771;-0.1114;
1190.7000;0.5747;-0.1208;
1191.0000;0.5763;-0.1256;
1191.3000;0.5755;-0.1303;
1191.6000;0.5747;-0.1351;
1191.9000;0.5731;-0.1374;
1192.2000;0.5755;-0.1351;
1192.5000;0.5755;-0.1279;
1192.8000;0.5698;-0.1398;
1193.1000;0.5747;-0.1232;
1193.4000;0.5828;-0.0995;
1193.7000;0.5747;-0.1161;
1194.0000;0.5755;-0.1185;
1194.3000;0.5739;-0.1279;
1194.6000;0.5739;-0.1374;
1194.9000;0.5739;-0.1398;
1195.2000;0.5731;-0.1422;
1195.5000;0.5714;-0.1445;
1195.8000;0.5739;-0.1374;
1196.1000;0.5747;-0.1327;
1196.4000;0.5739;-0.1422;
1196.7000;0.5747;-0.1374;
1197.0000;0.5796;-0.1256;
1197.3000;0.5755;-0.1327;
1197.6000;0.5755;-0.1374;
1197.9000;0.5771;-0.1256;
1198.2000;0.5755;-0.1232;
1198.5000;0.5763;-0.1185;
1198.8000;0.5755;-0.1232;
1199.1000;0.5779;-0.1208;
1199.4000;0.5722;-0.1327;
1199.7000;0.5747;-0.1232;
1200.0000;0.5779;-0.1042;
1200.3000;0.5747;-0.1090;
1200.6000;0.5665;-0.1327;
1200.9000;0.5755;-0.1114;
1201.2000;0.5763;-0.1114;
1201.5000;0.5747;-0.1114;
1201.8000;0.5722;-0.1161;
1202.1000;0.5739;-0.1114;
1202.4000;0.5739;-0.1114;
1202.7000;0.5739;-0.1114;
1203.0000;0.5739;-0.1090;
1203.3000;0.5739;-0.1161;
1203.6000;0.5731;-0.1137;
1203.9000;0.5739;-0.1114;
1204.2000;0.5747;-0.1161;
1204.5000;0.5731;-0.1279;
1204.8000;0.5739;-0.1256;
1205.1000;0.5747;-0.1279;
1205.4000;0.5731;-0.1256;
1205.7000;0.5747;-0.1256;
1206.0000;0.5739;-0.1208;
1206.3000;0.5739;-0.1208;
1206.6000;0.5763;-0.1185;
1206.9000;0.5698;-0.1327;
1207.2000;0.5714;-0.1374;
1207.5000;0.5739;-0.1303;
1207.8000;0.5755;-0.1208;
1208.1000;0.5739;-0.1279;
1208.4000;0.5755;-0.1232;
1208.7000;0.5706;-0.1351;
1209.0000;0.5739;-0.1327;
1209.3000;0.5755;-0.1303;
1209.6000;0.5747;-0.1279;
1209.9000;0.5722;-0.1279;
1210.2000;0.5763;-0.1185;
1210.5000;0.5747;-0.1279;
1210.8000;0.5739;-0.1327;
1211.1000;0.5747;-0.1327;
1211.4000;0.5755;-0.1303;
1211.7000;0.5739;-0.1256;
1212.0000;0.5731;-0.1208;
1212.3000;0.5714;-0.1279;
1212.6000;0.5714;-0.1327;
1212.9000;0.5747;-0.1279;
1213.2000;0.5739;-0.1279;
1213.5000;0.5739;-0.1279;
1213.8000;0.5731;-0.1303;
1214.1000;0.5755;-0.1208;
1214.4000;0.5706;-0.1185;
1214.7000;0.5739;-0.1019;
1215.0000;0.5714;-0.1066;
1215.3000;0.5755;-0.1066;
1215.6000;0.5755;-0.1137;
1215.9000;0.5747;-0.1090;
1216.2000;0.5722;-0.1090;
1216.5000;0.5812;-0.0900;
1216.8000;0.5755;-0.1090;
1217.1000;0.5747;-0.1137;
1217.4000;0.5747;-0.1042;
1217.7000;0.5739;-0.1090;
1218.0000;0.5739;-0.1090;
1218.3000;0.5739;-0.1090;
1218.6000;0.5763;-0.0971;
1218.9000;0.5747;-0.0995;
1219.2000;0.5747;-0.0924;
1219.5000;0.5739;-0.0995;
1219.8000;0.5755;-0.1114;
1220.1000;0.5739;-0.1208;
1220.4000;0.5828;-0.0948;
1220.7000;0.5755;-0.1042;
1221.0000;0.5747;-0.0995;
1221.3000;0.5739;-0.0971;
1221.6000;0.5739;-0.0971;
1221.9000;0.5739;-0.1042;
1222.2000;0.5739;-0.1161;
1222.5000;0.5731;-0.1232;
1222.8000;0.5747;-0.1208;
1223.1000;0.5706;-0.1161;
1223.4000;0.5722;-0.1066;
1223.7000;0.5755;-0.0971;
1224.0000;0.5747;-0.0995;
1224.3000;0.5739;-0.1066;
1224.6000;0.5747;-0.1090;
1224.9000;0.5747;-0.1114;
1225.2000;0.5747;-0.1114;
1225.5000;0.5739;-0.1090;
1225.8000;0.5739;-0.1019;
1226.1000;0.5722;-0.1114;
1226.4000;0.5739;-0.1066;
1226.7000;0.5706;-0.1185;
1227.0000;0.5731;-0.1066;
1227.3000;0.5739;-0.0900;
1227.6000;0.5739;-0.0877;
1227.9000;0.5731;-0.0948;
1228.2000;0.5722;-0.0924;
1228.5000;0.5731;-0.0948;
1228.8000;0.5722;-0.0995;
1229.1000;0.5731;-0.0948;
1229.4000;0.5747;-0.0948;
1229.7000;0.5731;-0.1042;
1230.0000;0.5747;-0.0900;
1230.3000;0.5763;-0.0924;
1230.6000;0.5739;-0.0948;
1230.9000;0.5747;-0.0924;
1231.2000;0.5714;-0.0924;
1231.5000;0.5747;-0.0924;
1231.8000;0.5739;-0.0829;
1232.1000;0.5755;-0.0806;
1232.4000;0.5755;-0.0829;
1232.7000;0.5747;-0.0877;
1233.0000;0.5755;-0.0924;
1233.3000;0.5731;-0.1042;
1233.6000;0.5739;-0.0995;
1233.9000;0.5796;-0.0829;
1234.2000;0.5763;-0.0948;
1234.5000;0.5731;-0.1042;
1234.8000;0.5698;-0.1066;
1235.1000;0.5739;-0.0995;
1235.4000;0.5722;-0.0995;
1235.7000;0.5747;-0.0900;
1236.0000;0.5779;-0.0877;
1236.3000;0.5812;-0.0877;
1236.6000;0.5722;-0.1090;
1236.9000;0.5747;-0.1042;
1237.2000;0.5731;-0.0948;
1237.5000;0.5747;-0.1019;
1237.8000;0.5722;-0.1114;
1238.1000;0.5731;-0.1114;
1238.4000;0.5706;-0.1161;
1238.7000;0.5739;-0.1137;
1239.0000;0.5731;-0.1185;
1239.3000;0.5755;-0.1185;
1239.6000;0.5739;-0.1232;
1239.9000;0.5755;-0.1185;
1240.2000;0.5739;-0.1208;
1240.5000;0.5722;-0.1161;
1240.8000;0.5739;-0.1090;
1241.1000;0.5747;-0.1185;
1241.4000;0.5739;-0.1185;
1241.7000;0.5739;-0.1208;
1242.0000;0.5739;-0.1185;
1242.3000;0.5763;-0.1137;
1242.6000;0.5731;-0.1185;
1242.9000;0.5722;-0.1114;
1243.2000;0.5706;-0.1114;
1243.5000;0.5722;-0.1090;
1243.8000;0.5731;-0.1066;
1244.1000;0.5714;-0.0971;
1244.4000;0.5714;-0.0971;
1244.7000;0.5722;-0.1019;
1245.0000;0.5714;-0.1114;
1245.3000;0.5714;-0.1161;
1245.6000;0.5747;-0.1090;
1245.9000;0.5722;-0.1090;
1246.2000;0.5682;-0.1161;
1246.5000;0.5706;-0.1066;
1246.8000;0.5714;-0.1042;
1247.1000;0.5731;-0.1066;
1247.4000;0.5739;-0.1019;
1247.7000;0.5739;-0.0995;
1248.0000;0.5747;-0.0948;
1248.3000;0.5722;-0.0971;
1248.6000;0.5714;-0.0995;
1248.9000;0.5731;-0.1019;
1249.2000;0.5739;-0.1066;
1249.5000;0.5682;-0.1208;
1249.8000;0.5755;-0.1019;
1250.1000;0.5731;-0.1066;
1250.4000;0.5739;-0.1185;
1250.7000;0.5706;-0.1351;
1251.0000;0.5731;-0.1422;
1251.3000;0.5722;-0.1493;
1251.6000;0.5731;-0.1493;
1251.9000;0.5731;-0.1422;
1252.2000;0.5747;-0.1327;
1252.5000;0.5747;-0.1232;
1252.8000;0.5739;-0.1208;
1253.1000;0.5731;-0.1208;
1253.4000;0.5747;-0.1208;
1253.7000;0.5739;-0.1185;
1254.0000;0.5820;-0.0971;
1254.3000;0.5731;-0.1066;
1254.6000;0.5755;-0.0971;
1254.9000;0.5739;-0.0948;
1255.2000;0.5755;-0.0900;
1255.5000;0.5739;-0.0948;
1255.8000;0.5706;-0.1066;
1256.1000;0.5747;-0.0995;
1256.4000;0.5731;-0.1066;
1256.7000;0.5739;-0.1114;
1257.0000;0.5698;-0.1137;
1257.3000;0.5731;-0.0995;
1257.6000;0.5706;-0.1090;
1257.9000;0.5731;-0.1042;
1258.2000;0.5788;-0.0924;
1258.5000;0.5788;-0.0995;
1258.8000;0.5731;-0.1185;
1259.1000;0.5739;-0.1232;
1259.4000;0.5771;-0.1161;
1259.7000;0.5739;-0.1208;
1260.0000;0.5731;-0.1161;
1260.3000;0.5747;-0.1161;
1260.6000;0.5731;-0.1185;
1260.9000;0.5731;-0.1208;
1261.2000;0.5739;-0.1114;
1261.5000;0.5747;-0.1066;
1261.8000;0.5731;-0.1066;
1262.1000;0.5747;-0.1090;
1262.4000;0.5739;-0.1090;
1262.7000;0.5731;-0.1090;
1263.0000;0.5739;-0.0948;
1263.3000;0.5722;-0.1066;
1263.6000;0.5714;-0.1090;
1263.9000;0.5739;-0.1090;
1264.2000;0.5739;-0.1019;
1264.5000;0.5739;-0.1042;
1264.8000;0.5739;-0.1066;
1265.1000;0.5722;-0.1090;
1265.4000;0.5788;-0.0948;
1265.7000;0.5739;-0.1066;
1266.0000;0.5714;-0.1137;
1266.3000;0.5731;-0.1066;
1266.6000;0.5731;-0.0995;
1266.9000;0.5731;-0.0971;
1267.2000;0.5739;-0.0971;
1267.5000;0.5739;-0.0971;
1267.8000;0.5698;-0.1090;
1268.1000;0.5731;-0.0924;
1268.4000;0.5714;-0.0900;
1268.7000;0.5739;-0.0853;
1269.0000;0.5747;-0.0829;
1269.3000;0.5722;-0.0829;
1269.6000;0.5722;-0.0853;
1269.9000;0.5739;-0.0829;
1270.2000;0.5747;-0.0853;
1270.5000;0.5731;-0.0924;
1270.8000;0.5714;-0.0924;
1271.1000;0.5665;-0.0995;
1271.4000;0.5714;-0.0900;
1271.7000;0.5722;-0.0900;
1272.0000;0.5747;-0.0900;
1272.3000;0.5722;-0.0853;
1272.6000;0.5714;-0.0853;
1272.9000;0.5714;-0.0853;
1273.2000;0.5739;-0.0829;
1273.5000;0.5747;-0.0829;
1273.8000;0.5714;-0.0900;
1274.1000;0.5714;-0.0877;
1274.4000;0.5739;-0.0877;
1274.7000;0.5714;-0.0971;
1275.0000;0.5706;-0.0971;
1275.3000;0.5731;-0.0900;
1275.6000;0.5698;-0.1019;
1275.9000;0.5698;-0.1019;
1276.2000;0.5739;-0.0971;
1276.5000;0.5747;-0.0900;
1276.8000;0.5722;-0.0995;
1277.1000;0.5739;-0.1019;
1277.4000;0.5731;-0.1161;
1277.7000;0.5763;-0.1137;
1278.0000;0.5747;-0.1185;
1278.3000;0.5731;-0.1208;
1278.6000;0.5739;-0.1114;
1278.9000;0.5722;-0.1137;
1279.2000;0.5763;-0.1090;
1279.5000;0.5731;-0.1137;
1279.8000;0.5739;-0.1066;
1280.1000;0.5739;-0.1185;
1280.4000;0.5739;-0.1161;
1280.7000;0.5739;-0.1066;
1281.0000;0.5739;-0.1066;
1281.3000;0.5731;-0.1114;
1281.6000;0.5722;-0.1066;
1281.9000;0.5714;-0.1042;
1282.2000;0.5747;-0.1090;
1282.5000;0.5722;-0.1137;
1282.8000;0.5722;-0.1161;
1283.1000;0.5722;-0.1137;
1283.4000;0.5714;-0.1161;
1283.7000;0.5739;-0.1137;
1284.0000;0.5722;-0.1185;
1284.3000;0.5722;-0.1137;
1284.6000;0.5722;-0.1137;
1284.9000;0.5706;-0.1208;
1285.2000;0.5698;-0.1208;
1285.5000;0.5706;-0.1279;
1285.8000;0.5706;-0.1279;
1286.1000;0.5722;-0.1256;
1286.4000;0.5706;-0.1256;
1286.7000;0.5706;-0.1161;
1287.0000;0.5722;-0.1208;
1287.3000;0.5722;-0.1114;
1287.6000;0.5739;-0.1090;
1287.9000;0.5714;-0.1185;
1288.2000;0.5731;-0.1042;
1288.5000;0.5739;-0.0948;
1288.8000;0.5739;-0.1042;
1289.1000;0.5739;-0.1114;
1289.4000;0.5788;-0.1042;
1289.7000;0.5747;-0.1161;
1290.0000;0.5731;-0.1208;
1290.3000;0.5731;-0.1232;
1290.6000;0.5657;-0.1398;
1290.9000;0.5731;-0.1208;
1291.2000;0.5804;-0.1042;
1291.5000;0.5804;-0.1066;
1291.8000;0.5722;-0.1256;
1292.1000;0.5714;-0.1232;
1292.4000;0.5739;-0.1161;
1292.7000;0.5722;-0.1114;
1293.0000;0.5714;-0.1208;
1293.3000;0.5698;-0.1185;
1293.6000;0.5722;-0.1208;
1293.9000;0.5731;-0.1256;
1294.2000;0.5698;-0.1374;
1294.5000;0.5747;-0.1208;
1294.8000;0.5706;-0.1208;
1295.1000;0.5739;-0.1185;
1295.4000;0.5706;-0.1208;
1295.7000;0.5698;-0.1185;
1296.0000;0.5722;-0.1161;
1296.3000;0.5714;-0.1066;
1296.6000;0.5722;-0.1042;
1296.9000;0.5731;-0.1042;
1297.2000;0.5722;-0.1090;
1297.5000;0.5722;-0.1137;
1297.8000;0.5739;-0.1137;
1298.1000;0.5731;-0.1090;
1298.4000;0.5722;-0.1066;
1298.7000;0.5706;-0.1114;
1299.0000;0.5739;-0.1066;
1299.3000;0.5714;-0.1019;
1299.6000;0.5722;-0.1042;
1299.9000;0.5731;-0.1019;
1300.2000;0.5722;-0.1042;
1300.5000;0.5739;-0.1019;
1300.8000;0.5706;-0.1066;
1301.1000;0.5714;-0.1114;
1301.4000;0.5853;-0.0758;
1301.7000;0.5755;-0.1019;
1302.0000;0.5682;-0.1208;
1302.3000;0.5714;-0.1114;
1302.6000;0.5731;-0.1090;
1302.9000;0.5722;-0.1042;
1303.2000;0.5747;-0.0948;
1303.5000;0.5714;-0.0948;
1303.8000;0.5731;-0.0924;
1304.1000;0.5747;-0.0971;
1304.4000;0.5739;-0.1019;
1304.7000;0.5714;-0.1042;
1305.0000;0.5698;-0.1066;
1305.3000;0.5722;-0.0995;
1305.6000;0.5722;-0.0995;
1305.9000;0.5731;-0.1042;
1306.2000;0.5714;-0.1114;
1306.5000;0.5714;-0.1042;
1306.8000;0.5731;-0.1019;
1307.1000;0.5714;-0.1042;
1307.4000;0.5714;-0.1042;
1307.7000;0.5714;-0.0877;
1308.0000;0.5722;-0.0877;
1308.3000;0.5706;-0.0948;
1308.6000;0.5698;-0.0995;
1308.9000;0.5739;-0.0877;
1309.2000;0.5731;-0.0971;
1309.5000;0.5706;-0.1019;
1309.8000;0.5722;-0.0971;
1310.1000;0.5714;-0.1066;
1310.4000;0.5731;-0.1042;
1310.7000;0.5714;-0.0995;
1311.0000;0.5706;-0.1114;
1311.3000;0.5682;-0.1114;
1311.6000;0.5739;-0.0971;
1311.9000;0.5714;-0.1042;
1312.2000;0.5722;-0.1042;
1312.5000;0.5731;-0.1042;
1312.8000;0.5731;-0.0995;
1313.1000;0.5714;-0.1090;
1313.4000;0.5706;-0.1066;
1313.7000;0.5714;-0.1090;
1314.0000;0.5731;-0.1090;
1314.3000;0.5731;-0.1114;
1314.6000;0.5731;-0.1185;
1314.9000;0.5739;-0.1161;
1315.2000;0.5722;-0.1208;
1315.5000;0.5739;-0.1185;
1315.8000;0.5731;-0.1161;
1316.1000;0.5771;-0.1066;
1316.4000;0.5698;-0.1185;
1316.7000;0.5722;-0.1090;
1317.0000;0.5690;-0.1137;
1317.3000;0.5698;-0.1066;
1317.6000;0.5698;-0.0971;
1317.9000;0.5722;-0.1019;
1318.2000;0.5779;-0.0853;
1318.5000;0.5722;-0.0995;
1318.8000;0.5714;-0.0971;
1319.1000;0.5731;-0.0948;
1319.4000;0.5722;-0.0971;
1319.7000;0.5714;-0.0948;
1320.0000;0.5722;-0.0877;
1320.3000;0.5731;-0.0948;
1320.6000;0.5739;-0.0924;
1320.9000;0.5731;-0.0948;
1321.2000;0.5771;-0.0806;
1321.5000;0.5714;-0.1066;
1321.8000;0.5722;-0.1114;
1322.1000;0.5706;-0.1114;
1322.4000;0.5714;-0.1137;
1322.7000;0.5698;-0.1137;
1323.0000;0.5731;-0.1114;
1323.3000;0.5722;-0.1137;
1323.6000;0.5714;-0.1232;
1323.9000;0.5747;-0.1232;
1324.2000;0.5747;-0.1279;
1324.5000;0.5731;-0.1232;
1324.8000;0.5747;-0.1185;
1325.1000;0.5755;-0.1090;
1325.4000;0.5706;-0.1137;
1325.7000;0.5747;-0.0971;
1326.0000;0.5731;-0.0995;
1326.3000;0.5714;-0.1042;
1326.6000;0.5779;-0.0877;
1326.9000;0.5731;-0.0948;
1327.2000;0.5698;-0.1090;
1327.5000;0.5722;-0.1042;
1327.8000;0.5690;-0.0971;
1328.1000;0.5706;-0.0900;
1328.4000;0.5706;-0.0948;
1328.7000;0.5731;-0.0877;
1329.0000;0.5714;-0.0971;
1329.3000;0.5722;-0.0877;
1329.6000;0.5722;-0.0924;
1329.9000;0.5747;-0.0829;
1330.2000;0.5739;-0.0924;
1330.5000;0.5755;-0.0971;
1330.8000;0.5779;-0.0924;
1331.1000;0.5739;-0.0924;
1331.4000;0.5739;-0.0877;
1331.7000;0.5722;-0.0877;
1332.0000;0.5674;-0.1042;
1332.3000;0.5682;-0.0995;
1332.6000;0.5706;-0.0853;
1332.9000;0.5674;-0.0900;
1333.2000;0.5706;-0.0853;
1333.5000;0.5714;-0.0948;
1333.8000;0.5739;-0.0971;
1334.1000;0.5698;-0.1066;
1334.4000;0.5698;-0.1019;
1334.7000;0.5747;-0.0995;
1335.0000;0.5722;-0.0948;
1335.3000;0.5714;-0.1042;
1335.6000;0.5755;-0.0971;
1335.9000;0.5698;-0.1019;
1336.2000;0.5706;-0.1019;
1336.5000;0.5722;-0.0948;
1336.8000;0.5722;-0.0995;
1337.1000;0.5698;-0.1019;
1337.4000;0.5731;-0.0971;
1337.7000;0.5714;-0.1042;
1338.0000;0.5706;-0.0971;
1338.3000;0.5722;-0.0900;
1338.6000;0.5722;-0.0877;
1338.9000;0.5698;-0.0853;
1339.2000;0.5714;-0.0853;
1339.5000;0.5714;-0.0853;
1339.8000;0.5714;-0.0900;
1340.1000;0.5706;-0.0995;
1340.4000;0.5706;-0.1042;
1340.7000;0.5722;-0.1042;
1341.0000;0.5739;-0.1066;
1341.3000;0.5755;-0.0995;
1341.6000;0.5714;-0.1042;
1341.9000;0.5714;-0.0971;
1342.2000;0.5714;-0.0971;
1342.5000;0.5714;-0.0971;
1342.8000;0.5706;-0.1066;
1343.1000;0.5706;-0.1042;
1343.4000;0.5731;-0.0924;
1343.7000;0.5771;-0.0948;
1344.0000;0.5731;-0.1090;
1344.3000;0.5714;-0.1114;
1344.6000;0.5739;-0.1090;
1344.9000;0.5714;-0.1090;
1345.2000;0.5731;-0.1066;
1345.5000;0.5698;-0.0971;
1345.8000;0.5731;-0.0829;
1346.1000;0.5722;-0.0877;
1346.4000;0.5706;-0.0900;
1346.7000;0.5714;-0.0877;
1347.0000;0.5690;-0.1019;
1347.3000;0.5698;-0.0995;
1347.6000;0.5722;-0.1066;
1347.9000;0.5706;-0.1066;
1348.2000;0.5714;-0.1090;
1348.5000;0.5714;-0.1090;
1348.8000;0.5722;-0.1066;
1349.1000;0.5722;-0.1090;
1349.4000;0.5698;-0.1185;
1349.7000;0.5788;-0.0948;
1350.0000;0.5698;-0.1208;
1350.3000;0.5706;-0.1256;
1350.6000;0.5706;-0.1279;
1350.9000;0.5706;-0.1208;
1351.2000;0.5690;-0.1137;
1351.5000;0.5682;-0.1066;
1351.8000;0.5779;-0.0782;
1352.1000;0.5722;-0.0971;
1352.4000;0.5714;-0.0971;
1352.7000;0.5714;-0.0995;
1353.0000;0.5706;-0.1042;
1353.3000;0.5706;-0.1066;
1353.6000;0.5690;-0.1090;
1353.9000;0.5698;-0.1208;
1354.2000;0.5706;-0.1185;
1354.5000;0.5690;-0.1185;
1354.8000;0.5649;-0.1256;
1355.1000;0.5706;-0.1185;
1355.4000;0.5779;-0.1161;
1355.7000;0.5665;-0.1327;
1356.0000;0.5714;-0.1208;
1356.3000;0.5682;-0.1232;
1356.6000;0.5706;-0.1161;
1356.9000;0.5714;-0.1208;
1357.2000;0.5698;-0.1232;
1357.5000;0.5698;-0.1137;
1357.8000;0.5722;-0.1137;
1358.1000;0.5714;-0.1114;
1358.4000;0.5714;-0.1114;
1358.7000;0.5706;-0.1090;
1359.0000;0.5706;-0.1090;
1359.3000;0.5714;-0.1090;
1359.6000;0.5714;-0.1161;
1359.9000;0.5698;-0.1256;
1360.2000;0.5714;-0.1327;
1360.5000;0.5714;-0.1279;
1360.8000;0.5706;-0.1279;
1361.1000;0.5714;-0.1161;
1361.4000;0.5714;-0.1161;
1361.7000;0.5731;-0.1137;
1362.0000;0.5739;-0.1066;
1362.3000;0.5739;-0.0948;
1362.6000;0.5706;-0.1042;
1362.9000;0.5714;-0.1042;
1363.2000;0.5714;-0.1090;
1363.5000;0.5698;-0.1185;
1363.8000;0.5714;-0.1137;
1364.1000;0.5657;-0.1279;
1364.4000;0.5714;-0.1114;
1364.7000;0.5698;-0.1137;
1365.0000;0.5706;-0.1114;
1365.3000;0.5714;-0.1090;
1365.6000;0.5690;-0.1066;
1365.9000;0.5698;-0.1019;
1366.2000;0.5698;-0.0948;
1366.5000;0.5706;-0.0806;
1366.8000;0.5731;-0.0782;
1367.1000;0.5722;-0.0829;
1367.4000;0.5706;-0.0900;
1367.7000;0.5698;-0.0948;
1368.0000;0.5714;-0.0900;
1368.3000;0.5714;-0.0995;
1368.6000;0.5706;-0.1019;
1368.9000;0.5706;-0.1019;
1369.2000;0.5714;-0.0924;
1369.5000;0.5706;-0.0971;
1369.8000;0.5731;-0.0995;
1370.1000;0.5698;-0.1114;
1370.4000;0.5706;-0.1137;
1370.7000;0.5722;-0.1066;
1371.0000;0.5682;-0.1114;
1371.3000;0.5706;-0.1042;
1371.6000;0.5698;-0.0924;
1371.9000;0.5690;-0.0900;
1372.2000;0.5739;-0.0806;
1372.5000;0.5731;-0.0877;
1372.8000;0.5722;-0.0877;
1373.1000;0.5739;-0.0829;
1373.4000;0.5674;-0.0995;
1373.7000;0.5714;-0.1019;
1374.0000;0.5779;-0.0924;
1374.3000;0.5698;-0.1114;
1374.6000;0.5714;-0.1019;
1374.9000;0.5706;-0.1066;
1375.2000;0.5714;-0.1066;
1375.5000;0.5706;-0.1090;
1375.8000;0.5714;-0.1066;
1376.1000;0.5755;-0.0971;
1376.4000;0.5714;-0.1066;
1376.7000;0.5690;-0.1090;
1377.0000;0.5698;-0.1137;
1377.3000;0.5706;-0.1137;
1377.6000;0.5682;-0.1185;
1377.9000;0.5714;-0.1066;
1378.2000;0.5714;-0.1090;
1378.5000;0.5714;-0.1019;
1378.8000;0.5722;-0.1019;
1379.1000;0.5706;-0.1114;
1379.4000;0.5714;-0.1066;
1379.7000;0.5714;-0.1042;
1380.0000;0.5706;-0.1042;
1380.3000;0.5698;-0.1090;
1380.6000;0.5706;-0.1090;
1380.9000;0.5722;-0.1066;
1381.2000;0.5706;-0.1090;
1381.5000;0.5706;-0.1042;
1381.8000;0.5690;-0.0971;
1382.1000;0.5722;-0.0900;
1382.4000;0.5706;-0.0853;
1382.7000;0.5706;-0.0924;
1383.0000;0.5706;-0.0877;
1383.3000;0.5714;-0.0806;
1383.6000;0.5722;-0.0734;
1383.9000;0.5698;-0.0734;
1384.2000;0.5674;-0.0806;
1384.5000;0.5706;-0.0711;
1384.8000;0.5714;-0.0711;
1385.1000;0.5698;-0.0640;
1385.4000;0.5690;-0.0687;
1385.7000;0.5714;-0.0758;
1386.0000;0.5706;-0.0829;
1386.3000;0.5714;-0.0900;
1386.6000;0.5706;-0.0877;
1386.9000;0.5714;-0.0877;
1387.2000;0.5674;-0.0924;
1387.5000;0.5698;-0.0853;
1387.8000;0.5698;-0.0853;
1388.1000;0.5706;-0.0829;
1388.4000;0.5690;-0.0853;
1388.7000;0.5714;-0.0687;
1389.0000;0.5722;-0.0687;
1389.3000;0.5722;-0.0711;
1389.6000;0.5714;-0.0758;
1389.9000;0.5722;-0.0734;
1390.2000;0.5714;-0.0806;
1390.5000;0.5698;-0.0806;
1390.8000;0.5690;-0.0806;
1391.1000;0.5682;-0.0734;
1391.4000;0.5706;-0.0734;
1391.7000;0.5690;-0.0806;
1392.0000;0.5698;-0.0734;
1392.3000;0.5698;-0.0711;
1392.6000;0.5714;-0.0711;
1392.9000;0.5731;-0.0663;
1393.2000;0.5682;-0.0853;
1393.5000;0.5722;-0.0829;
1393.8000;0.5714;-0.0900;
1394.1000;0.5714;-0.0877;
1394.4000;0.5706;-0.0900;
1394.7000;0.5706;-0.0900;
1395.0000;0.5690;-0.0924;
1395.3000;0.5698;-0.0948;
1395.6000;0.5690;-0.1042;
1395.9000;0.5698;-0.1090;
1396.2000;0.5698;-0.1042;
1396.5000;0.5698;-0.1019;
1396.8000;0.5698;-0.0995;
1397.1000;0.5739;-0.0877;
1397.4000;0.5714;-0.0995;
1397.7000;0.5698;-0.0995;
1398.0000;0.5706;-0.1090;
1398.3000;0.5698;-0.1114;
1398.6000;0.5690;-0.1137;
1398.9000;0.5706;-0.1185;
1399.2000;0.5698;-0.1185;
1399.5000;0.5714;-0.1185;
1399.8000;0.5698;-0.1185;
