time/ms;Fluo/V;P700 deltaI/I x10³;
-199.8000;0.8954;-0.0355;
-199.5000;0.9027;-0.0237;
-199.2000;0.8954;-0.0308;
-198.9000;0.8978;-0.0379;
-198.6000;0.8970;-0.0403;
-198.3000;0.8970;-0.0403;
-198.0000;0.8987;-0.0426;
-197.7000;0.8954;-0.0426;
-197.4000;0.8962;-0.0403;
-197.1000;0.8995;-0.0355;
-196.8000;0.8962;-0.0379;
-196.5000;0.9011;-0.0284;
-196.2000;0.8962;-0.0355;
-195.9000;0.8962;-0.0403;
-195.6000;0.8970;-0.0332;
-195.3000;0.8962;-0.0379;
-195.0000;0.8970;-0.0284;
-194.7000;0.8970;-0.0261;
-194.4000;0.8978;-0.0261;
-194.1000;0.8962;-0.0355;
-193.8000;0.8970;-0.0332;
-193.5000;0.9019;-0.0190;
-193.2000;0.8962;-0.0284;
-192.9000;0.8954;-0.0284;
-192.6000;0.8921;-0.0355;
-192.3000;0.8946;-0.0308;
-192.0000;0.8954;-0.0261;
-191.7000;0.8987;-0.0166;
-191.4000;0.8962;-0.0237;
-191.1000;0.8962;-0.0308;
-190.8000;0.8962;-0.0403;
-190.5000;0.8962;-0.0403;
-190.2000;0.8954;-0.0355;
-189.9000;0.8946;-0.0403;
-189.6000;0.8954;-0.0379;
-189.3000;0.8954;-0.0403;
-189.0000;0.8954;-0.0379;
-188.7000;0.8962;-0.0403;
-188.4000;0.8970;-0.0403;
-188.1000;0.8954;-0.0403;
-187.8000;0.9011;-0.0261;
-187.5000;0.8954;-0.0355;
-187.2000;0.8962;-0.0308;
-186.9000;0.8954;-0.0237;
-186.6000;0.8962;-0.0213;
-186.3000;0.8954;-0.0261;
-186.0000;0.8946;-0.0308;
-185.7000;0.8946;-0.0284;
-185.4000;0.8978;-0.0213;
-185.1000;0.8970;-0.0213;
-184.8000;0.8938;-0.0308;
-184.5000;0.8962;-0.0332;
-184.2000;0.8954;-0.0332;
-183.9000;0.8970;-0.0261;
-183.6000;0.8970;-0.0213;
-183.3000;0.8954;-0.0237;
-183.0000;0.9003;-0.0095;
-182.7000;0.8978;-0.0118;
-182.4000;0.8962;-0.0142;
-182.1000;0.8962;-0.0024;
-181.8000;0.8962;-0.0024;
-181.5000;0.8962;-0.0142;
-181.2000;0.8954;-0.0237;
-180.9000;0.8946;-0.0284;
-180.6000;0.8954;-0.0237;
-180.3000;0.8978;-0.0308;
-180.0000;0.8962;-0.0308;
-179.7000;0.8954;-0.0332;
-179.4000;0.8970;-0.0332;
-179.1000;0.8970;-0.0261;
-178.8000;0.8954;-0.0332;
-178.5000;0.8954;-0.0332;
-178.2000;0.8995;-0.0332;
-177.9000;0.8978;-0.0332;
-177.6000;0.8987;-0.0261;
-177.3000;0.8954;-0.0284;
-177.0000;0.8970;-0.0190;
-176.7000;0.8978;-0.0142;
-176.4000;0.8978;-0.0166;
-176.1000;0.8978;-0.0118;
-175.8000;0.8962;-0.0213;
-175.5000;0.8930;-0.0355;
-175.2000;0.8970;-0.0332;
-174.9000;0.8970;-0.0332;
-174.6000;0.8938;-0.0284;
-174.3000;0.8938;-0.0284;
-174.0000;0.8978;-0.0237;
-173.7000;0.8954;-0.0308;
-173.4000;0.8954;-0.0190;
-173.1000;0.8946;-0.0142;
-172.8000;0.8970;-0.0095;
-172.5000;0.8970;-0.0118;
-172.2000;0.8970;-0.0166;
-171.9000;0.8970;-0.0237;
-171.6000;0.8970;-0.0237;
-171.3000;0.8962;-0.0213;
-171.0000;0.8962;-0.0379;
-170.7000;0.8954;-0.0332;
-170.4000;0.8889;-0.0498;
-170.1000;0.9011;-0.0190;
-169.8000;0.8962;-0.0190;
-169.5000;0.8962;-0.0118;
-169.2000;0.8962;-0.0118;
-168.9000;0.8962;-0.0213;
-168.6000;0.8987;-0.0142;
-168.3000;0.8946;-0.0166;
-168.0000;0.8970;-0.0071;
-167.7000;0.8995;-0.0118;
-167.4000;0.8970;-0.0118;
-167.1000;0.8970;-0.0166;
-166.8000;0.8970;-0.0142;
-166.5000;0.8970;-0.0142;
-166.2000;0.8970;-0.0142;
-165.9000;0.8970;-0.0190;
-165.6000;0.8995;-0.0095;
-165.3000;0.9044;0.0071;
-165.0000;0.8978;-0.0142;
-164.7000;0.8970;-0.0190;
-164.4000;0.8978;-0.0118;
-164.1000;0.8962;-0.0095;
-163.8000;0.8930;-0.0142;
-163.5000;0.8978;-0.0047;
-163.2000;0.9035;0.0024;
-162.9000;0.8970;-0.0095;
-162.6000;0.8970;-0.0071;
-162.3000;0.9003;-0.0142;
-162.0000;0.8938;-0.0213;
-161.7000;0.8962;-0.0190;
-161.4000;0.8962;-0.0213;
-161.1000;0.8954;-0.0237;
-160.8000;0.8954;-0.0355;
-160.5000;0.8954;-0.0379;
-160.2000;0.8962;-0.0450;
-159.9000;0.8946;-0.0474;
-159.6000;0.8946;-0.0403;
-159.3000;0.8946;-0.0308;
-159.0000;0.8946;-0.0332;
-158.7000;0.8873;-0.0450;
-158.4000;0.8938;-0.0261;
-158.1000;0.8946;-0.0284;
-157.8000;0.8946;-0.0261;
-157.5000;0.8962;-0.0284;
-157.2000;0.8905;-0.0498;
-156.9000;0.8946;-0.0379;
-156.6000;0.8930;-0.0403;
-156.3000;0.8946;-0.0379;
-156.0000;0.8962;-0.0379;
-155.7000;0.8962;-0.0355;
-155.4000;0.8962;-0.0450;
-155.1000;0.8962;-0.0284;
-154.8000;0.8962;-0.0261;
-154.5000;0.8962;-0.0190;
-154.2000;0.8954;-0.0190;
-153.9000;0.8946;-0.0237;
-153.6000;0.8946;-0.0261;
-153.3000;0.8970;-0.0237;
-153.0000;0.8962;-0.0166;
-152.7000;0.8962;-0.0118;
-152.4000;0.8962;-0.0095;
-152.1000;0.8954;-0.0142;
-151.8000;0.8978;-0.0142;
-151.5000;0.8970;-0.0213;
-151.2000;0.8970;-0.0213;
-150.9000;0.8962;-0.0166;
-150.6000;0.8978;-0.0142;
-150.3000;0.8962;-0.0118;
-150.0000;0.8962;-0.0095;
-149.7000;0.8978;-0.0047;
-149.4000;0.8946;-0.0071;
-149.1000;0.8938;-0.0142;
-148.8000;0.8946;-0.0190;
-148.5000;0.8962;-0.0190;
-148.2000;0.9035;-0.0047;
-147.9000;0.8954;-0.0237;
-147.6000;0.8946;-0.0237;
-147.3000;0.8970;-0.0237;
-147.0000;0.8946;-0.0332;
-146.7000;0.8962;-0.0308;
-146.4000;0.8962;-0.0332;
-146.1000;0.8954;-0.0355;
-145.8000;0.8970;-0.0261;
-145.5000;0.8970;-0.0308;
-145.2000;0.8970;-0.0332;
-144.9000;0.8954;-0.0332;
-144.6000;0.8978;-0.0261;
-144.3000;0.8946;-0.0284;
-144.0000;0.8978;-0.0261;
-143.7000;0.8954;-0.0261;
-143.4000;0.8962;-0.0379;
-143.1000;0.8962;-0.0379;
-142.8000;0.8978;-0.0426;
-142.5000;0.8978;-0.0426;
-142.2000;0.8954;-0.0426;
-141.9000;0.8962;-0.0450;
-141.6000;0.8978;-0.0379;
-141.3000;0.8954;-0.0474;
-141.0000;0.8954;-0.0545;
-140.7000;0.8970;-0.0498;
-140.4000;0.8962;-0.0521;
-140.1000;0.8978;-0.0545;
-139.8000;0.8970;-0.0521;
-139.5000;0.8962;-0.0426;
-139.2000;0.9019;-0.0261;
-138.9000;0.8970;-0.0403;
-138.6000;0.8946;-0.0403;
-138.3000;0.8962;-0.0379;
-138.0000;0.8938;-0.0403;
-137.7000;0.8962;-0.0403;
-137.4000;0.8946;-0.0426;
-137.1000;0.8954;-0.0426;
-136.8000;0.8946;-0.0332;
-136.5000;0.8954;-0.0355;
-136.2000;0.8946;-0.0355;
-135.9000;0.8954;-0.0379;
-135.6000;0.8938;-0.0403;
-135.3000;0.8946;-0.0521;
-135.0000;0.8954;-0.0521;
-134.7000;0.9027;-0.0332;
-134.4000;0.8946;-0.0426;
-134.1000;0.8962;-0.0450;
-133.8000;0.8946;-0.0450;
-133.5000;0.8962;-0.0498;
-133.2000;0.8954;-0.0521;
-132.9000;0.8962;-0.0474;
-132.6000;0.8954;-0.0450;
-132.3000;0.8946;-0.0474;
-132.0000;0.8970;-0.0545;
-131.7000;0.8970;-0.0545;
-131.4000;0.8987;-0.0450;
-131.1000;0.8897;-0.0640;
-130.8000;0.8962;-0.0498;
-130.5000;0.8978;-0.0474;
-130.2000;0.8987;-0.0474;
-129.9000;0.8987;-0.0403;
-129.6000;0.8938;-0.0498;
-129.3000;0.8954;-0.0379;
-129.0000;0.8962;-0.0379;
-128.7000;0.9003;-0.0284;
-128.4000;0.8954;-0.0450;
-128.1000;0.8954;-0.0498;
-127.8000;0.8970;-0.0474;
-127.5000;0.8962;-0.0592;
-127.2000;0.8897;-0.0687;
-126.9000;0.8954;-0.0616;
-126.6000;0.8946;-0.0569;
-126.3000;0.8978;-0.0521;
-126.0000;0.8954;-0.0545;
-125.7000;0.8946;-0.0616;
-125.4000;0.8962;-0.0592;
-125.1000;0.8962;-0.0592;
-124.8000;0.8962;-0.0545;
-124.5000;0.8954;-0.0521;
-124.2000;0.8962;-0.0521;
-123.9000;0.8962;-0.0545;
-123.6000;0.8970;-0.0521;
-123.3000;0.9052;-0.0261;
-123.0000;0.8946;-0.0498;
-122.7000;0.8970;-0.0403;
-122.4000;0.8946;-0.0426;
-122.1000;0.8946;-0.0403;
-121.8000;0.8954;-0.0332;
-121.5000;0.8954;-0.0403;
-121.2000;0.8970;-0.0426;
-120.9000;0.8962;-0.0355;
-120.6000;0.8962;-0.0332;
-120.3000;0.8970;-0.0190;
-120.0000;0.8954;-0.0237;
-119.7000;0.8962;-0.0261;
-119.4000;0.8962;-0.0284;
-119.1000;0.8962;-0.0308;
-118.8000;0.8954;-0.0355;
-118.5000;0.8962;-0.0332;
-118.2000;0.8946;-0.0308;
-117.9000;0.8970;-0.0237;
-117.6000;0.8970;-0.0166;
-117.3000;0.8970;-0.0142;
-117.0000;0.8946;-0.0213;
-116.7000;0.8962;-0.0118;
-116.4000;0.8962;-0.0261;
-116.1000;0.9052;-0.0118;
-115.8000;0.8913;-0.0474;
-115.5000;0.8970;-0.0332;
-115.2000;0.8946;-0.0379;
-114.9000;0.8946;-0.0403;
-114.6000;0.8962;-0.0450;
-114.3000;0.8987;-0.0498;
-114.0000;0.8995;-0.0498;
-113.7000;0.8978;-0.0450;
-113.4000;0.8970;-0.0403;
-113.1000;0.8987;-0.0379;
-112.8000;0.8881;-0.0569;
-112.5000;0.8954;-0.0308;
-112.2000;0.8921;-0.0308;
-111.9000;0.8978;-0.0213;
-111.6000;0.8962;-0.0213;
-111.3000;0.8962;-0.0142;
-111.0000;0.8970;-0.0213;
-110.7000;0.8962;-0.0095;
-110.4000;0.8962;-0.0118;
-110.1000;0.8946;-0.0190;
-109.8000;0.8970;-0.0166;
-109.5000;0.8970;-0.0237;
-109.2000;0.8962;-0.0308;
-108.9000;0.8954;-0.0308;
-108.6000;0.8995;-0.0237;
-108.3000;0.8954;-0.0332;
-108.0000;0.8946;-0.0355;
-107.7000;0.8946;-0.0332;
-107.4000;0.8962;-0.0332;
-107.1000;0.9052;-0.0071;
-106.8000;0.8962;-0.0237;
-106.5000;0.8905;-0.0426;
-106.2000;0.8938;-0.0355;
-105.9000;0.8978;-0.0355;
-105.6000;0.8970;-0.0284;
-105.3000;0.8954;-0.0355;
-105.0000;0.8962;-0.0355;
-104.7000;0.8954;-0.0403;
-104.4000;0.9003;-0.0261;
-104.1000;0.8930;-0.0379;
-103.8000;0.8962;-0.0308;
-103.5000;0.8954;-0.0355;
-103.2000;0.8913;-0.0521;
-102.9000;0.8938;-0.0426;
-102.6000;0.8954;-0.0355;
-102.3000;0.8970;-0.0379;
-102.0000;0.8954;-0.0498;
-101.7000;0.8946;-0.0521;
-101.4000;0.8954;-0.0498;
-101.1000;0.8946;-0.0521;
-100.8000;0.8938;-0.0521;
-100.5000;0.8954;-0.0498;
-100.2000;0.8930;-0.0545;
-99.9000;0.8938;-0.0474;
-99.6000;0.8946;-0.0403;
-99.3000;0.8946;-0.0403;
-99.0000;0.8962;-0.0403;
-98.7000;0.8946;-0.0308;
-98.4000;0.8962;-0.0332;
-98.1000;0.8946;-0.0332;
-97.8000;0.8962;-0.0332;
-97.5000;0.8954;-0.0403;
-97.2000;0.8954;-0.0498;
-96.9000;0.8978;-0.0474;
-96.6000;0.8946;-0.0498;
-96.3000;0.9011;-0.0426;
-96.0000;0.8978;-0.0426;
-95.7000;0.8954;-0.0521;
-95.4000;0.9011;-0.0403;
-95.1000;0.8954;-0.0521;
-94.8000;0.8946;-0.0474;
-94.5000;0.8962;-0.0379;
-94.2000;0.8970;-0.0379;
-93.9000;0.8962;-0.0332;
-93.6000;0.8970;-0.0261;
-93.3000;0.8962;-0.0237;
-93.0000;0.8930;-0.0332;
-92.7000;0.8938;-0.0332;
-92.4000;0.8978;-0.0284;
-92.1000;0.8962;-0.0308;
-91.8000;0.8987;-0.0213;
-91.5000;0.8946;-0.0237;
-91.2000;0.8946;-0.0213;
-90.9000;0.8954;-0.0284;
-90.6000;0.8962;-0.0261;
-90.3000;0.8946;-0.0213;
-90.0000;0.8970;-0.0284;
-89.7000;0.8962;-0.0355;
-89.4000;0.8946;-0.0403;
-89.1000;0.8946;-0.0521;
-88.8000;0.8921;-0.0569;
-88.5000;0.8954;-0.0521;
-88.2000;0.8970;-0.0521;
-87.9000;0.8954;-0.0569;
-87.6000;0.8978;-0.0521;
-87.3000;0.8978;-0.0521;
-87.0000;0.8962;-0.0521;
-86.7000;0.8946;-0.0592;
-86.4000;0.8978;-0.0521;
-86.1000;0.8946;-0.0569;
-85.8000;0.8946;-0.0640;
-85.5000;0.8946;-0.0640;
-85.2000;0.8962;-0.0545;
-84.9000;0.8946;-0.0545;
-84.6000;0.8946;-0.0592;
-84.3000;0.8954;-0.0640;
-84.0000;0.8970;-0.0616;
-83.7000;0.8970;-0.0592;
-83.4000;0.8954;-0.0474;
-83.1000;0.8978;-0.0450;
-82.8000;0.8962;-0.0498;
-82.5000;0.8970;-0.0521;
-82.2000;0.8954;-0.0569;
-81.9000;0.8962;-0.0521;
-81.6000;0.8970;-0.0498;
-81.3000;0.8970;-0.0521;
-81.0000;0.8970;-0.0450;
-80.7000;0.9019;-0.0237;
-80.4000;0.8987;-0.0403;
-80.1000;0.8954;-0.0592;
-79.8000;0.8962;-0.0545;
-79.5000;0.8954;-0.0450;
-79.2000;0.8881;-0.0545;
-78.9000;0.8995;-0.0308;
-78.6000;0.8954;-0.0355;
-78.3000;0.8938;-0.0355;
-78.0000;0.8954;-0.0332;
-77.7000;0.8954;-0.0355;
-77.4000;0.8962;-0.0237;
-77.1000;0.8881;-0.0379;
-76.8000;0.8962;-0.0213;
-76.5000;0.8962;-0.0261;
-76.2000;0.8954;-0.0284;
-75.9000;0.8946;-0.0308;
-75.6000;0.8930;-0.0332;
-75.3000;0.8946;-0.0332;
-75.0000;0.8970;-0.0308;
-74.7000;0.8978;-0.0213;
-74.4000;0.8962;-0.0166;
-74.1000;0.8962;-0.0261;
-73.8000;0.8946;-0.0308;
-73.5000;0.8970;-0.0284;
-73.2000;0.8938;-0.0450;
-72.9000;0.8970;-0.0355;
-72.6000;0.8995;-0.0332;
-72.3000;0.9019;-0.0308;
-72.0000;0.8987;-0.0379;
-71.7000;0.9011;-0.0261;
-71.4000;0.9027;-0.0308;
-71.1000;0.8978;-0.0426;
-70.8000;0.8970;-0.0450;
-70.5000;0.8946;-0.0498;
-70.2000;0.8913;-0.0616;
-69.9000;0.8970;-0.0545;
-69.6000;0.8987;-0.0426;
-69.3000;0.8970;-0.0521;
-69.0000;0.8987;-0.0640;
-68.7000;0.8881;-0.0782;
-68.4000;0.8995;-0.0521;
-68.1000;0.8962;-0.0616;
-67.8000;0.8970;-0.0569;
-67.5000;0.8946;-0.0569;
-67.2000;0.8962;-0.0545;
-66.9000;0.8954;-0.0569;
-66.6000;0.8946;-0.0569;
-66.3000;0.8970;-0.0498;
-66.0000;0.8970;-0.0403;
-65.7000;0.8946;-0.0308;
-65.4000;0.8962;-0.0237;
-65.1000;0.8946;-0.0190;
-64.8000;0.8938;-0.0237;
-64.5000;0.8938;-0.0142;
-64.2000;0.8938;-0.0166;
-63.9000;0.8970;-0.0142;
-63.6000;0.8954;-0.0213;
-63.3000;0.8962;-0.0284;
-63.0000;0.8987;-0.0355;
-62.7000;0.8970;-0.0426;
-62.4000;0.8970;-0.0426;
-62.1000;0.8978;-0.0355;
-61.8000;0.8970;-0.0308;
-61.5000;0.8970;-0.0332;
-61.2000;0.8978;-0.0403;
-60.9000;0.8970;-0.0426;
-60.6000;0.8970;-0.0450;
-60.3000;0.8954;-0.0426;
-60.0000;0.8987;-0.0403;
-59.7000;0.8962;-0.0355;
-59.4000;0.8962;-0.0403;
-59.1000;0.8954;-0.0426;
-58.8000;0.8913;-0.0569;
-58.5000;0.8962;-0.0474;
-58.2000;0.8962;-0.0498;
-57.9000;0.8954;-0.0474;
-57.6000;0.8970;-0.0474;
-57.3000;0.8938;-0.0521;
-57.0000;0.8987;-0.0308;
-56.7000;0.8970;-0.0308;
-56.4000;0.8962;-0.0332;
-56.1000;0.8962;-0.0237;
-55.8000;0.8954;-0.0308;
-55.5000;0.8978;-0.0237;
-55.2000;0.8946;-0.0284;
-54.9000;0.8905;-0.0474;
-54.6000;0.8946;-0.0426;
-54.3000;0.8946;-0.0403;
-54.0000;0.8954;-0.0379;
-53.7000;0.8954;-0.0355;
-53.4000;0.8954;-0.0403;
-53.1000;0.8970;-0.0426;
-52.8000;0.8978;-0.0426;
-52.5000;0.9019;-0.0379;
-52.2000;0.8946;-0.0521;
-51.9000;0.8970;-0.0521;
-51.6000;0.8954;-0.0521;
-51.3000;0.9011;-0.0379;
-51.0000;0.8962;-0.0426;
-50.7000;0.8978;-0.0403;
-50.4000;0.8954;-0.0403;
-50.1000;0.8970;-0.0403;
-49.8000;0.8921;-0.0592;
-49.5000;0.8962;-0.0592;
-49.2000;0.8978;-0.0640;
-48.9000;0.8962;-0.0498;
-48.6000;0.8946;-0.0426;
-48.3000;0.8995;-0.0379;
-48.0000;0.8970;-0.0379;
-47.7000;0.8987;-0.0308;
-47.4000;0.8946;-0.0308;
-47.1000;0.8978;-0.0190;
-46.8000;0.8987;-0.0237;
-46.5000;0.8978;-0.0237;
-46.2000;0.8978;-0.0213;
-45.9000;0.8970;-0.0166;
-45.6000;0.8921;-0.0308;
-45.3000;0.8978;-0.0237;
-45.0000;0.8962;-0.0332;
-44.7000;0.9011;-0.0213;
-44.4000;0.8946;-0.0332;
-44.1000;0.8962;-0.0355;
-43.8000;0.8946;-0.0426;
-43.5000;0.8954;-0.0474;
-43.2000;0.8954;-0.0426;
-42.9000;0.8954;-0.0474;
-42.6000;0.8987;-0.0379;
-42.3000;0.8938;-0.0403;
-42.0000;0.8946;-0.0379;
-41.7000;0.8954;-0.0498;
-41.4000;0.8962;-0.0474;
-41.1000;0.8946;-0.0521;
-40.8000;0.8946;-0.0474;
-40.5000;0.8962;-0.0426;
-40.2000;0.8962;-0.0355;
-39.9000;0.8978;-0.0332;
-39.6000;0.8962;-0.0403;
-39.3000;0.8970;-0.0450;
-39.0000;0.8987;-0.0474;
-38.7000;0.8962;-0.0403;
-38.4000;0.8954;-0.0403;
-38.1000;0.8978;-0.0379;
-37.8000;0.8970;-0.0474;
-37.5000;0.8978;-0.0616;
-37.2000;0.8978;-0.0569;
-36.9000;0.8970;-0.0616;
-36.6000;0.8970;-0.0545;
-36.3000;0.8970;-0.0545;
-36.0000;0.8962;-0.0498;
-35.7000;0.8987;-0.0450;
-35.4000;0.8987;-0.0498;
-35.1000;0.8995;-0.0403;
-34.8000;0.8970;-0.0474;
-34.5000;0.8946;-0.0450;
-34.2000;0.8881;-0.0521;
-33.9000;0.8978;-0.0403;
-33.6000;0.8995;-0.0426;
-33.3000;0.8962;-0.0545;
-33.0000;0.8946;-0.0545;
-32.7000;0.8962;-0.0521;
-32.4000;0.9019;-0.0403;
-32.1000;0.8954;-0.0545;
-31.8000;0.8946;-0.0474;
-31.5000;0.8995;-0.0379;
-31.2000;0.8946;-0.0521;
-30.9000;0.8954;-0.0569;
-30.6000;0.8987;-0.0450;
-30.3000;0.9003;-0.0426;
-30.0000;0.8962;-0.0569;
-29.7000;0.8970;-0.0545;
-29.4000;0.8987;-0.0474;
-29.1000;0.8962;-0.0521;
-28.8000;0.8970;-0.0403;
-28.5000;0.8954;-0.0403;
-28.2000;0.8962;-0.0355;
-27.9000;0.8954;-0.0332;
-27.6000;0.8970;-0.0332;
-27.3000;0.8954;-0.0379;
-27.0000;0.8946;-0.0379;
-26.7000;0.8970;-0.0332;
-26.4000;0.8954;-0.0355;
-26.1000;0.8970;-0.0426;
-25.8000;0.8962;-0.0426;
-25.5000;0.8954;-0.0498;
-25.2000;0.8962;-0.0450;
-24.9000;0.8970;-0.0403;
-24.6000;0.8962;-0.0426;
-24.3000;0.8954;-0.0498;
-24.0000;0.8938;-0.0498;
-23.7000;0.8978;-0.0521;
-23.4000;0.8978;-0.0521;
-23.1000;0.8962;-0.0474;
-22.8000;0.8954;-0.0426;
-22.5000;0.8962;-0.0355;
-22.2000;0.8995;-0.0308;
-21.9000;0.8954;-0.0284;
-21.6000;0.8962;-0.0308;
-21.3000;0.8946;-0.0379;
-21.0000;0.8938;-0.0474;
-20.7000;0.8954;-0.0498;
-20.4000;0.8954;-0.0545;
-20.1000;0.8946;-0.0545;
-19.8000;0.8962;-0.0450;
-19.5000;0.8970;-0.0450;
-19.2000;0.8921;-0.0545;
-18.9000;0.8954;-0.0426;
-18.6000;0.8954;-0.0450;
-18.3000;0.8970;-0.0450;
-18.0000;0.8962;-0.0450;
-17.7000;0.8954;-0.0498;
-17.4000;0.8978;-0.0426;
-17.1000;0.8954;-0.0498;
-16.8000;0.8954;-0.0498;
-16.5000;0.8930;-0.0569;
-16.2000;0.8946;-0.0592;
-15.9000;0.8962;-0.0569;
-15.6000;0.8970;-0.0474;
-15.3000;0.8938;-0.0498;
-15.0000;0.8962;-0.0426;
-14.7000;0.8962;-0.0403;
-14.4000;0.8954;-0.0450;
-14.1000;0.8946;-0.0379;
-13.8000;0.8962;-0.0403;
-13.5000;0.8962;-0.0403;
-13.2000;0.8970;-0.0426;
-12.9000;0.8946;-0.0426;
-12.6000;0.8978;-0.0403;
-12.3000;0.8987;-0.0426;
-12.0000;0.8970;-0.0545;
-11.7000;0.8978;-0.0569;
-11.4000;0.8962;-0.0521;
-11.1000;0.8889;-0.0687;
-10.8000;0.8987;-0.0521;
-10.5000;0.8954;-0.0545;
-10.2000;0.8970;-0.0545;
-9.9000;0.8913;-0.0711;
-9.6000;0.8970;-0.0545;
-9.3000;0.8962;-0.0592;
-9.0000;0.8970;-0.0640;
-8.7000;0.8970;-0.0687;
-8.4000;0.8946;-0.0711;
-8.1000;0.8970;-0.0663;
-7.8000;0.8970;-0.0640;
-7.5000;0.8946;-0.0616;
-7.2000;0.8978;-0.0545;
-6.9000;0.9003;-0.0521;
-6.6000;0.8946;-0.0616;
-6.3000;0.8897;-0.0734;
-6.0000;0.8962;-0.0521;
-5.7000;0.8970;-0.0426;
-5.4000;0.8954;-0.0474;
-5.1000;0.8954;-0.0545;
-4.8000;0.8954;-0.0569;
-4.5000;0.8970;-0.0569;
-4.2000;0.8978;-0.0498;
-3.9000;0.8954;-0.0498;
-3.6000;0.8970;-0.0545;
-3.3000;0.8987;-0.0521;
-3.0000;0.8970;-0.0545;
-2.7000;0.8970;-0.0616;
-2.4000;0.8962;-0.0569;
-2.1000;0.8954;-0.0569;
-1.8000;0.8970;-0.0474;
-1.5000;0.8978;-0.0616;
-1.2000;0.8970;-0.0616;
-0.9000;0.8987;-0.0569;
-0.6000;0.8995;-0.0569;
-0.3000;0.8962;-0.0640;
0.0000;0.8962;-0.0640;
0.3000;0.9076;-0.0426;
0.6000;0.9231;0.0047;
0.9000;0.9361;0.0592;
1.2000;0.9499;0.0995;
1.5000;0.9556;0.1327;
1.8000;0.9646;0.1753;
2.1000;0.9727;0.2014;
2.4000;0.9784;0.2275;
2.7000;0.9768;0.2346;
3.0000;0.9841;0.2559;
3.3000;0.9841;0.2511;
3.6000;0.9866;0.2630;
3.9000;0.9858;0.2748;
4.2000;0.9825;0.2677;
4.5000;0.9923;0.2843;
4.8000;0.9931;0.2914;
5.1000;0.9947;0.3033;
5.4000;0.9963;0.3104;
5.7000;0.9947;0.3104;
6.0000;0.9988;0.3151;
6.3000;0.9988;0.3175;
6.6000;1.0012;0.3199;
6.9000;1.0004;0.3151;
7.2000;1.0020;0.3222;
7.5000;1.0028;0.3246;
7.8000;1.0045;0.3293;
8.1000;1.0053;0.3317;
8.4000;1.0061;0.3364;
8.7000;1.0053;0.3341;
9.0000;1.0077;0.3388;
9.3000;1.0069;0.3270;
9.6000;1.0102;0.3270;
9.9000;1.0151;0.3364;
10.2000;1.0110;0.3364;
10.5000;1.0061;0.3317;
10.8000;1.0110;0.3483;
11.1000;1.0126;0.3412;
11.4000;1.0142;0.3459;
11.7000;1.0151;0.3388;
12.0000;1.0134;0.3341;
12.3000;1.0142;0.3317;
12.6000;1.0151;0.3412;
12.9000;1.0151;0.3435;
13.2000;1.0151;0.3435;
13.5000;1.0175;0.3554;
13.8000;1.0175;0.3483;
14.1000;1.0175;0.3341;
14.4000;1.0159;0.3293;
14.7000;1.0216;0.3293;
15.0000;1.0183;0.3175;
15.3000;1.0191;0.3080;
15.6000;1.0248;0.3175;
15.9000;1.0199;0.3056;
16.2000;1.0199;0.3127;
16.5000;1.0208;0.3127;
16.8000;1.0199;0.3199;
17.1000;1.0208;0.3151;
17.4000;1.0240;0.3199;
17.7000;1.0224;0.3104;
18.0000;1.0256;0.3151;
18.3000;1.0224;0.3175;
18.6000;1.0240;0.3175;
18.9000;1.0313;0.3412;
19.2000;1.0232;0.3246;
19.5000;1.0216;0.3175;
19.8000;1.0256;0.3293;
20.1000;1.0248;0.3246;
20.4000;1.0248;0.3033;
20.7000;1.0289;0.3127;
21.0000;1.0256;0.3175;
21.3000;1.0265;0.3127;
21.6000;1.0273;0.3104;
21.9000;1.0265;0.3056;
22.2000;1.0305;0.3199;
22.5000;1.0240;0.3080;
22.8000;1.0297;0.3199;
23.1000;1.0289;0.3199;
23.4000;1.0289;0.3104;
23.7000;1.0289;0.3033;
24.0000;1.0330;0.3009;
24.3000;1.0265;0.2938;
24.6000;1.0281;0.2938;
24.9000;1.0322;0.2938;
25.2000;1.0297;0.2962;
25.5000;1.0273;0.2914;
25.8000;1.0281;0.3033;
26.1000;1.0330;0.3175;
26.4000;1.0297;0.3151;
26.7000;1.0289;0.3199;
27.0000;1.0256;0.3056;
27.3000;1.0305;0.3151;
27.6000;1.0289;0.3080;
27.9000;1.0313;0.3056;
28.2000;1.0289;0.3151;
28.5000;1.0289;0.3175;
28.8000;1.0305;0.3222;
29.1000;1.0322;0.3151;
29.4000;1.0313;0.3104;
29.7000;1.0338;0.3151;
30.0000;1.0322;0.3127;
30.3000;1.0313;0.3127;
30.6000;1.0330;0.3151;
30.9000;1.0346;0.3270;
31.2000;1.0322;0.3175;
31.5000;1.0322;0.3175;
31.8000;1.0322;0.3151;
32.1000;1.0330;0.3222;
32.4000;1.0297;0.3080;
32.7000;1.0338;0.3033;
33.0000;1.0313;0.2938;
33.3000;1.0330;0.3033;
33.6000;1.0322;0.3033;
33.9000;1.0305;0.2985;
34.2000;1.0338;0.3127;
34.5000;1.0338;0.3080;
34.8000;1.0313;0.3009;
35.1000;1.0338;0.3056;
35.4000;1.0313;0.2962;
35.7000;1.0330;0.2938;
36.0000;1.0313;0.3033;
36.3000;1.0313;0.2962;
36.6000;1.0330;0.3033;
36.9000;1.0313;0.3104;
37.2000;1.0305;0.3127;
37.5000;1.0313;0.3080;
37.8000;1.0305;0.2962;
38.1000;1.0330;0.3033;
38.4000;1.0273;0.2985;
38.7000;1.0322;0.2962;
39.0000;1.0362;0.2962;
39.3000;1.0322;0.2843;
39.6000;1.0330;0.2867;
39.9000;1.0322;0.2796;
40.2000;1.0322;0.2819;
40.5000;1.0330;0.2843;
40.8000;1.0387;0.2962;
41.1000;1.0362;0.2867;
41.4000;1.0313;0.2843;
41.7000;1.0338;0.2914;
42.0000;1.0354;0.2914;
42.3000;1.0338;0.2867;
42.6000;1.0346;0.2985;
42.9000;1.0313;0.2985;
43.2000;1.0305;0.2962;
43.5000;1.0338;0.2985;
43.8000;1.0330;0.2938;
44.1000;1.0346;0.2891;
44.4000;1.0387;0.2962;
44.7000;1.0346;0.2891;
45.0000;1.0346;0.2891;
45.3000;1.0313;0.2796;
45.6000;1.0322;0.2938;
45.9000;1.0338;0.2985;
46.2000;1.0313;0.2867;
46.5000;1.0313;0.2843;
46.8000;1.0346;0.2867;
47.1000;1.0330;0.2819;
47.4000;1.0346;0.2748;
47.7000;1.0379;0.2843;
48.0000;1.0322;0.2677;
48.3000;1.0338;0.2796;
48.6000;1.0387;0.2867;
48.9000;1.0330;0.2748;
49.2000;1.0338;0.2772;
49.5000;1.0346;0.2843;
49.8000;1.0346;0.2891;
50.1000;1.0362;0.2938;
50.4000;1.0346;0.2914;
50.7000;1.0346;0.2938;
51.0000;1.0330;0.2938;
51.3000;1.0330;0.2938;
51.6000;1.0330;0.2985;
51.9000;1.0346;0.3080;
52.2000;1.0362;0.3104;
52.5000;1.0362;0.3104;
52.8000;1.0346;0.3033;
53.1000;1.0346;0.2985;
53.4000;1.0338;0.2938;
53.7000;1.0338;0.3009;
54.0000;1.0338;0.3056;
54.3000;1.0346;0.3056;
54.6000;1.0354;0.3175;
54.9000;1.0313;0.3151;
55.2000;1.0362;0.3199;
55.5000;1.0354;0.3127;
55.8000;1.0370;0.3080;
56.1000;1.0346;0.3033;
56.4000;1.0354;0.2938;
56.7000;1.0322;0.2938;
57.0000;1.0379;0.3104;
57.3000;1.0370;0.3151;
57.6000;1.0330;0.3080;
57.9000;1.0330;0.3104;
58.2000;1.0346;0.3127;
58.5000;1.0354;0.3009;
58.8000;1.0379;0.3009;
59.1000;1.0346;0.2843;
59.4000;1.0346;0.2891;
59.7000;1.0354;0.2962;
60.0000;1.0354;0.2914;
60.3000;1.0354;0.2867;
60.6000;1.0346;0.2867;
60.9000;1.0346;0.2867;
61.2000;1.0346;0.2891;
61.5000;1.0322;0.2796;
61.8000;1.0338;0.2819;
62.1000;1.0395;0.3033;
62.4000;1.0354;0.3033;
62.7000;1.0338;0.3033;
63.0000;1.0346;0.3056;
63.3000;1.0338;0.3033;
63.6000;1.0379;0.3127;
63.9000;1.0354;0.2914;
64.2000;1.0346;0.2891;
64.5000;1.0354;0.2914;
64.8000;1.0370;0.2962;
65.1000;1.0362;0.3056;
65.4000;1.0338;0.2938;
65.7000;1.0338;0.2985;
66.0000;1.0403;0.3127;
66.3000;1.0354;0.3056;
66.6000;1.0370;0.3033;
66.9000;1.0338;0.2962;
67.2000;1.0354;0.2962;
67.5000;1.0354;0.2938;
67.8000;1.0330;0.2819;
68.1000;1.0338;0.2796;
68.4000;1.0354;0.2796;
68.7000;1.0330;0.2701;
69.0000;1.0346;0.2748;
69.3000;1.0354;0.2867;
69.6000;1.0362;0.2938;
69.9000;1.0354;0.3009;
70.2000;1.0297;0.2914;
70.5000;1.0346;0.3033;
70.8000;1.0346;0.3056;
71.1000;1.0354;0.3175;
71.4000;1.0379;0.3270;
71.7000;1.0338;0.3175;
72.0000;1.0338;0.3317;
72.3000;1.0346;0.3270;
72.6000;1.0338;0.3293;
72.9000;1.0346;0.3127;
73.2000;1.0346;0.3056;
73.5000;1.0338;0.3104;
73.8000;1.0346;0.3056;
74.1000;1.0338;0.2938;
74.4000;1.0338;0.2867;
74.7000;1.0322;0.2796;
75.0000;1.0338;0.2819;
75.3000;1.0330;0.2843;
75.6000;1.0313;0.2843;
75.9000;1.0313;0.2819;
76.2000;1.0346;0.2891;
76.5000;1.0354;0.2914;
76.8000;1.0354;0.2867;
77.1000;1.0338;0.2843;
77.4000;1.0330;0.2891;
77.7000;1.0362;0.2914;
78.0000;1.0354;0.2914;
78.3000;1.0362;0.2938;
78.6000;1.0346;0.2938;
78.9000;1.0354;0.2938;
79.2000;1.0370;0.2867;
79.5000;1.0338;0.2891;
79.8000;1.0346;0.2867;
80.1000;1.0338;0.2867;
80.4000;1.0395;0.2985;
80.7000;1.0379;0.2985;
81.0000;1.0354;0.3009;
81.3000;1.0346;0.2985;
81.6000;1.0354;0.2985;
81.9000;1.0354;0.3104;
82.2000;1.0354;0.3104;
82.5000;1.0354;0.3056;
82.8000;1.0322;0.2985;
83.1000;1.0362;0.3056;
83.4000;1.0362;0.3056;
83.7000;1.0354;0.3056;
84.0000;1.0354;0.3009;
84.3000;1.0362;0.3009;
84.6000;1.0256;0.2654;
84.9000;1.0338;0.2891;
85.2000;1.0338;0.2938;
85.5000;1.0346;0.2891;
85.8000;1.0338;0.2867;
86.1000;1.0362;0.2914;
86.4000;1.0427;0.3080;
86.7000;1.0346;0.2938;
87.0000;1.0354;0.2867;
87.3000;1.0362;0.2796;
87.6000;1.0322;0.2725;
87.9000;1.0273;0.2606;
88.2000;1.0346;0.2725;
88.5000;1.0330;0.2701;
88.8000;1.0346;0.2819;
89.1000;1.0338;0.2962;
89.4000;1.0354;0.3009;
89.7000;1.0330;0.3033;
90.0000;1.0322;0.3080;
90.3000;1.0370;0.3175;
90.6000;1.0346;0.3127;
90.9000;1.0354;0.3222;
91.2000;1.0338;0.3199;
91.5000;1.0346;0.3199;
91.8000;1.0354;0.3127;
92.1000;1.0362;0.3080;
92.4000;1.0354;0.3104;
92.7000;1.0346;0.3151;
93.0000;1.0354;0.3080;
93.3000;1.0330;0.2938;
93.6000;1.0330;0.2891;
93.9000;1.0379;0.2962;
94.2000;1.0346;0.2867;
94.5000;1.0362;0.2843;
94.8000;1.0346;0.2819;
95.1000;1.0354;0.2962;
95.4000;1.0354;0.2914;
95.7000;1.0338;0.2914;
96.0000;1.0346;0.2914;
96.3000;1.0338;0.2962;
96.6000;1.0330;0.2962;
96.9000;1.0322;0.2985;
97.2000;1.0354;0.3175;
97.5000;1.0354;0.3104;
97.8000;1.0338;0.2985;
98.1000;1.0346;0.2938;
98.4000;1.0330;0.2962;
98.7000;1.0346;0.2938;
99.0000;1.0322;0.2985;
99.3000;1.0346;0.3033;
99.6000;1.0346;0.3009;
99.9000;1.0338;0.2914;
100.2000;1.0346;0.2796;
100.5000;1.0330;0.2725;
100.8000;1.0330;0.2748;
101.1000;1.0346;0.2748;
101.4000;1.0346;0.2843;
101.7000;1.0354;0.2938;
102.0000;1.0346;0.2867;
102.3000;1.0370;0.2843;
102.6000;1.0354;0.2867;
102.9000;1.0395;0.3033;
103.2000;1.0354;0.2938;
103.5000;1.0354;0.2938;
103.8000;1.0354;0.2891;
104.1000;1.0346;0.2819;
104.4000;1.0354;0.2891;
104.7000;1.0338;0.2914;
105.0000;1.0330;0.2962;
105.3000;1.0338;0.2891;
105.6000;1.0330;0.2843;
105.9000;1.0354;0.2796;
106.2000;1.0338;0.2843;
106.5000;1.0338;0.2843;
106.8000;1.0362;0.2891;
107.1000;1.0362;0.2891;
107.4000;1.0362;0.2891;
107.7000;1.0354;0.2867;
108.0000;1.0362;0.2819;
108.3000;1.0354;0.2725;
108.6000;1.0305;0.2606;
108.9000;1.0346;0.2654;
109.2000;1.0322;0.2606;
109.5000;1.0427;0.2914;
109.8000;1.0322;0.2630;
110.1000;1.0313;0.2654;
110.4000;1.0346;0.2867;
110.7000;1.0338;0.2914;
111.0000;1.0354;0.3009;
111.3000;1.0346;0.3056;
111.6000;1.0354;0.3080;
111.9000;1.0346;0.3151;
112.2000;1.0346;0.3104;
112.5000;1.0354;0.3080;
112.8000;1.0338;0.2938;
113.1000;1.0330;0.2985;
113.4000;1.0330;0.3009;
113.7000;1.0354;0.3009;
114.0000;1.0346;0.2938;
114.3000;1.0346;0.2843;
114.6000;1.0346;0.2796;
114.9000;1.0338;0.2796;
115.2000;1.0370;0.2748;
115.5000;1.0330;0.2654;
115.8000;1.0346;0.2725;
116.1000;1.0338;0.2677;
116.4000;1.0338;0.2701;
116.7000;1.0330;0.2772;
117.0000;1.0265;0.2725;
117.3000;1.0354;0.2914;
117.6000;1.0354;0.2891;
117.9000;1.0346;0.2867;
118.2000;1.0313;0.2725;
118.5000;1.0354;0.2796;
118.8000;1.0362;0.2891;
119.1000;1.0354;0.2962;
119.4000;1.0354;0.2914;
119.7000;1.0330;0.2985;
120.0000;1.0338;0.3009;
120.3000;1.0330;0.2962;
120.6000;1.0346;0.2891;
120.9000;1.0305;0.2796;
121.2000;1.0354;0.2962;
121.5000;1.0354;0.2962;
121.8000;1.0346;0.2938;
122.1000;1.0338;0.2891;
122.4000;1.0330;0.2819;
122.7000;1.0427;0.3056;
123.0000;1.0354;0.2867;
123.3000;1.0338;0.2891;
123.6000;1.0354;0.2867;
123.9000;1.0265;0.2677;
124.2000;1.0346;0.2843;
124.5000;1.0305;0.2819;
124.8000;1.0330;0.2938;
125.1000;1.0338;0.2891;
125.4000;1.0387;0.2985;
125.7000;1.0330;0.2891;
126.0000;1.0322;0.2867;
126.3000;1.0330;0.2938;
126.6000;1.0322;0.2938;
126.9000;1.0330;0.2914;
127.2000;1.0346;0.2938;
127.5000;1.0362;0.2985;
127.8000;1.0330;0.2914;
128.1000;1.0322;0.2914;
128.4000;1.0322;0.2891;
128.7000;1.0330;0.2914;
129.0000;1.0338;0.2938;
129.3000;1.0395;0.3127;
129.6000;1.0346;0.3033;
129.9000;1.0362;0.3033;
130.2000;1.0338;0.3009;
130.5000;1.0346;0.3009;
130.8000;1.0346;0.3033;
131.1000;1.0338;0.2985;
131.4000;1.0346;0.3009;
131.7000;1.0346;0.2867;
132.0000;1.0338;0.2772;
132.3000;1.0354;0.2891;
132.6000;1.0281;0.2725;
132.9000;1.0346;0.2867;
133.2000;1.0346;0.2914;
133.5000;1.0338;0.2796;
133.8000;1.0338;0.2796;
134.1000;1.0330;0.2891;
134.4000;1.0330;0.2962;
134.7000;1.0330;0.2914;
135.0000;1.0354;0.3009;
135.3000;1.0338;0.2867;
135.6000;1.0346;0.2819;
135.9000;1.0322;0.2796;
136.2000;1.0330;0.2748;
136.5000;1.0338;0.2796;
136.8000;1.0322;0.2867;
137.1000;1.0322;0.2891;
137.4000;1.0305;0.2891;
137.7000;1.0322;0.2891;
138.0000;1.0330;0.2843;
138.3000;1.0346;0.2914;
138.6000;1.0338;0.2985;
138.9000;1.0338;0.2891;
139.2000;1.0346;0.2891;
139.5000;1.0322;0.2796;
139.8000;1.0330;0.2772;
140.1000;1.0322;0.2843;
140.4000;1.0362;0.2843;
140.7000;1.0338;0.2772;
141.0000;1.0322;0.2725;
141.3000;1.0330;0.2748;
141.6000;1.0322;0.2843;
141.9000;1.0379;0.2867;
142.2000;1.0354;0.2796;
142.5000;1.0330;0.2748;
142.8000;1.0322;0.2725;
143.1000;1.0330;0.2796;
143.4000;1.0379;0.2914;
143.7000;1.0330;0.2796;
144.0000;1.0330;0.2796;
144.3000;1.0338;0.2819;
144.6000;1.0330;0.2772;
144.9000;1.0354;0.2819;
145.2000;1.0322;0.2819;
145.5000;1.0322;0.2748;
145.8000;1.0297;0.2677;
146.1000;1.0346;0.2725;
146.4000;1.0322;0.2701;
146.7000;1.0330;0.2677;
147.0000;1.0362;0.2701;
147.3000;1.0322;0.2630;
147.6000;1.0330;0.2654;
147.9000;1.0281;0.2630;
148.2000;1.0330;0.2914;
148.5000;1.0330;0.2938;
148.8000;1.0330;0.2914;
149.1000;1.0313;0.2914;
149.4000;1.0354;0.2985;
149.7000;1.0338;0.3080;
150.0000;1.0313;0.3009;
150.3000;1.0313;0.3151;
150.6000;1.0305;0.3127;
150.9000;1.0330;0.3104;
151.2000;1.0330;0.3009;
151.5000;1.0330;0.2891;
151.8000;1.0346;0.2914;
152.1000;1.0330;0.2843;
152.4000;1.0330;0.2819;
152.7000;1.0297;0.2843;
153.0000;1.0322;0.2914;
153.3000;1.0330;0.2867;
153.6000;1.0354;0.2891;
153.9000;1.0330;0.2819;
154.2000;1.0289;0.2701;
154.5000;1.0322;0.2891;
154.8000;1.0289;0.2772;
155.1000;1.0330;0.2772;
155.4000;1.0313;0.2796;
155.7000;1.0338;0.2819;
156.0000;1.0313;0.2819;
156.3000;1.0330;0.2867;
156.6000;1.0387;0.3080;
156.9000;1.0305;0.2914;
157.2000;1.0322;0.2962;
157.5000;1.0297;0.2867;
157.8000;1.0313;0.2962;
158.1000;1.0313;0.2914;
158.4000;1.0330;0.2938;
158.7000;1.0330;0.2843;
159.0000;1.0322;0.2819;
159.3000;1.0322;0.2772;
159.6000;1.0338;0.2796;
159.9000;1.0346;0.2748;
160.2000;1.0322;0.2701;
160.5000;1.0354;0.2725;
160.8000;1.0330;0.2701;
161.1000;1.0338;0.2677;
161.4000;1.0313;0.2701;
161.7000;1.0354;0.2819;
162.0000;1.0338;0.2867;
162.3000;1.0330;0.2891;
162.6000;1.0338;0.2962;
162.9000;1.0330;0.2962;
163.2000;1.0322;0.2962;
163.5000;1.0322;0.3033;
163.8000;1.0387;0.3175;
164.1000;1.0330;0.3009;
164.4000;1.0273;0.2843;
164.7000;1.0322;0.2938;
165.0000;1.0330;0.2938;
165.3000;1.0346;0.2962;
165.6000;1.0330;0.2985;
165.9000;1.0330;0.2962;
166.2000;1.0248;0.2867;
166.5000;1.0330;0.3033;
166.8000;1.0313;0.3009;
167.1000;1.0305;0.2938;
167.4000;1.0346;0.3033;
167.7000;1.0330;0.3009;
168.0000;1.0338;0.3009;
168.3000;1.0322;0.2891;
168.6000;1.0330;0.2819;
168.9000;1.0289;0.2748;
169.2000;1.0338;0.2796;
169.5000;1.0330;0.2772;
169.8000;1.0313;0.2654;
170.1000;1.0330;0.2772;
170.4000;1.0330;0.2867;
170.7000;1.0273;0.2819;
171.0000;1.0313;0.3033;
171.3000;1.0322;0.2985;
171.6000;1.0354;0.3033;
171.9000;1.0330;0.3056;
172.2000;1.0322;0.3127;
172.5000;1.0322;0.3080;
172.8000;1.0322;0.3009;
173.1000;1.0330;0.2867;
173.4000;1.0322;0.2819;
173.7000;1.0313;0.2985;
174.0000;1.0330;0.2938;
174.3000;1.0313;0.3033;
174.6000;1.0313;0.2938;
174.9000;1.0313;0.3009;
175.2000;1.0330;0.3056;
175.5000;1.0346;0.3199;
175.8000;1.0313;0.3104;
176.1000;1.0346;0.3127;
176.4000;1.0313;0.3009;
176.7000;1.0338;0.3104;
177.0000;1.0313;0.3080;
177.3000;1.0313;0.3104;
177.6000;1.0338;0.3104;
177.9000;1.0322;0.3104;
178.2000;1.0330;0.3080;
178.5000;1.0313;0.3033;
178.8000;1.0313;0.2938;
179.1000;1.0313;0.2962;
179.4000;1.0322;0.3009;
179.7000;1.0313;0.2891;
180.0000;1.0305;0.2772;
180.3000;1.0330;0.2748;
180.6000;1.0330;0.2748;
180.9000;1.0322;0.2725;
181.2000;1.0330;0.2843;
181.5000;1.0313;0.2962;
181.8000;1.0330;0.2985;
182.1000;1.0330;0.3009;
182.4000;1.0322;0.2867;
182.7000;1.0330;0.2914;
183.0000;1.0330;0.2891;
183.3000;1.0313;0.2891;
183.6000;1.0330;0.2891;
183.9000;1.0322;0.2796;
184.2000;1.0330;0.2843;
184.5000;1.0322;0.2772;
184.8000;1.0313;0.2796;
185.1000;1.0322;0.2748;
185.4000;1.0313;0.2725;
185.7000;1.0330;0.2772;
186.0000;1.0346;0.2867;
186.3000;1.0313;0.2843;
186.6000;1.0330;0.2891;
186.9000;1.0354;0.2891;
187.2000;1.0330;0.2867;
187.5000;1.0330;0.2914;
187.8000;1.0313;0.2819;
188.1000;1.0330;0.2891;
188.4000;1.0322;0.2843;
188.7000;1.0338;0.2843;
189.0000;1.0313;0.2867;
189.3000;1.0370;0.3009;
189.6000;1.0330;0.2914;
189.9000;1.0338;0.2819;
190.2000;1.0313;0.2819;
190.5000;1.0322;0.2772;
190.8000;1.0322;0.2819;
191.1000;1.0305;0.2819;
191.4000;1.0313;0.2843;
191.7000;1.0313;0.2891;
192.0000;1.0322;0.2843;
192.3000;1.0322;0.2867;
192.6000;1.0338;0.2843;
192.9000;1.0338;0.2914;
193.2000;1.0330;0.2914;
193.5000;1.0379;0.3009;
193.8000;1.0338;0.2843;
194.1000;1.0362;0.2891;
194.4000;1.0346;0.2819;
194.7000;1.0338;0.2867;
195.0000;1.0330;0.2772;
195.3000;1.0289;0.2654;
195.6000;1.0338;0.2677;
195.9000;1.0322;0.2630;
196.2000;1.0322;0.2606;
196.5000;1.0322;0.2606;
196.8000;1.0354;0.2725;
197.1000;1.0338;0.2725;
197.4000;1.0338;0.2701;
197.7000;1.0330;0.2677;
198.0000;1.0346;0.2819;
198.3000;1.0297;0.2748;
198.6000;1.0346;0.2867;
198.9000;1.0322;0.2843;
199.2000;1.0322;0.2772;
199.5000;1.0281;0.2654;
199.8000;1.0354;0.2819;
200.1000;1.0322;0.2867;
200.4000;1.0322;0.2891;
200.7000;1.0322;0.2867;
201.0000;1.0322;0.2985;
201.3000;1.0330;0.3009;
201.6000;1.0313;0.3009;
201.9000;1.0322;0.3033;
202.2000;1.0322;0.2985;
202.5000;1.0313;0.2938;
202.8000;1.0305;0.2891;
203.1000;1.0297;0.2867;
203.4000;1.0330;0.2891;
203.7000;1.0313;0.2843;
204.0000;1.0273;0.2748;
204.3000;1.0289;0.2796;
204.6000;1.0289;0.2772;
204.9000;1.0313;0.2843;
205.2000;1.0305;0.2843;
205.5000;1.0305;0.2891;
205.8000;1.0370;0.3009;
206.1000;1.0322;0.2819;
206.4000;1.0322;0.2772;
206.7000;1.0313;0.2772;
207.0000;1.0313;0.2748;
207.3000;1.0322;0.2748;
207.6000;1.0330;0.2796;
207.9000;1.0313;0.2772;
208.2000;1.0313;0.2796;
208.5000;1.0305;0.2772;
208.8000;1.0313;0.2867;
209.1000;1.0305;0.2819;
209.4000;1.0297;0.2748;
209.7000;1.0330;0.2701;
210.0000;1.0322;0.2701;
210.3000;1.0330;0.2701;
210.6000;1.0322;0.2748;
210.9000;1.0305;0.2819;
211.2000;1.0297;0.2796;
211.5000;1.0305;0.2796;
211.8000;1.0362;0.2914;
212.1000;1.0305;0.2748;
212.4000;1.0338;0.2796;
212.7000;1.0346;0.2867;
213.0000;1.0330;0.2796;
213.3000;1.0313;0.2772;
213.6000;1.0330;0.2843;
213.9000;1.0313;0.2819;
214.2000;1.0330;0.2819;
214.5000;1.0322;0.2796;
214.8000;1.0313;0.2748;
215.1000;1.0330;0.2796;
215.4000;1.0313;0.2843;
215.7000;1.0297;0.2725;
216.0000;1.0289;0.2772;
216.3000;1.0305;0.2772;
216.6000;1.0313;0.2867;
216.9000;1.0313;0.2867;
217.2000;1.0305;0.2819;
217.5000;1.0322;0.2843;
217.8000;1.0338;0.2796;
218.1000;1.0322;0.2701;
218.4000;1.0322;0.2677;
218.7000;1.0273;0.2606;
219.0000;1.0297;0.2701;
219.3000;1.0313;0.2748;
219.6000;1.0313;0.2796;
219.9000;1.0305;0.2819;
220.2000;1.0338;0.2867;
220.5000;1.0330;0.2914;
220.8000;1.0305;0.2867;
221.1000;1.0297;0.2748;
221.4000;1.0232;0.2488;
221.7000;1.0346;0.2654;
222.0000;1.0289;0.2511;
222.3000;1.0289;0.2464;
222.6000;1.0313;0.2583;
222.9000;1.0330;0.2654;
223.2000;1.0305;0.2630;
223.5000;1.0322;0.2725;
223.8000;1.0297;0.2630;
224.1000;1.0322;0.2583;
224.4000;1.0313;0.2606;
224.7000;1.0346;0.2725;
225.0000;1.0305;0.2630;
225.3000;1.0313;0.2701;
225.6000;1.0305;0.2819;
225.9000;1.0322;0.2843;
226.2000;1.0297;0.2748;
226.5000;1.0289;0.2701;
226.8000;1.0313;0.2701;
227.1000;1.0322;0.2748;
227.4000;1.0313;0.2772;
227.7000;1.0313;0.2843;
228.0000;1.0330;0.2962;
228.3000;1.0313;0.2891;
228.6000;1.0305;0.2891;
228.9000;1.0297;0.2891;
229.2000;1.0297;0.2843;
229.5000;1.0338;0.2938;
229.8000;1.0305;0.2891;
230.1000;1.0297;0.2914;
230.4000;1.0313;0.2938;
230.7000;1.0322;0.2938;
231.0000;1.0297;0.2891;
231.3000;1.0305;0.2843;
231.6000;1.0305;0.2867;
231.9000;1.0322;0.2914;
232.2000;1.0297;0.2867;
232.5000;1.0305;0.2891;
232.8000;1.0305;0.3033;
233.1000;1.0297;0.2914;
233.4000;1.0297;0.2962;
233.7000;1.0297;0.2962;
234.0000;1.0224;0.2701;
234.3000;1.0265;0.2891;
234.6000;1.0313;0.3009;
234.9000;1.0322;0.3056;
235.2000;1.0297;0.3033;
235.5000;1.0305;0.3056;
235.8000;1.0322;0.3151;
236.1000;1.0322;0.3080;
236.4000;1.0338;0.3033;
236.7000;1.0322;0.3056;
237.0000;1.0354;0.3151;
237.3000;1.0322;0.3056;
237.6000;1.0313;0.3056;
237.9000;1.0289;0.3009;
238.2000;1.0330;0.3080;
238.5000;1.0297;0.2938;
238.8000;1.0289;0.2867;
239.1000;1.0265;0.2796;
239.4000;1.0305;0.2962;
239.7000;1.0305;0.2985;
240.0000;1.0281;0.2962;
240.3000;1.0297;0.3009;
240.6000;1.0305;0.3033;
240.9000;1.0362;0.3104;
241.2000;1.0297;0.2962;
241.5000;1.0305;0.2962;
241.8000;1.0289;0.2962;
242.1000;1.0265;0.2914;
242.4000;1.0313;0.3033;
242.7000;1.0370;0.3127;
243.0000;1.0370;0.3151;
243.3000;1.0305;0.3246;
243.6000;1.0281;0.3104;
243.9000;1.0297;0.3127;
244.2000;1.0305;0.3175;
244.5000;1.0313;0.3151;
244.8000;1.0322;0.3175;
245.1000;1.0289;0.3080;
245.4000;1.0330;0.3127;
245.7000;1.0289;0.3009;
246.0000;1.0322;0.3199;
246.3000;1.0297;0.3175;
246.6000;1.0297;0.3151;
246.9000;1.0305;0.3127;
247.2000;1.0313;0.3033;
247.5000;1.0305;0.3033;
247.8000;1.0313;0.3009;
248.1000;1.0305;0.2962;
248.4000;1.0403;0.3270;
248.7000;1.0338;0.3127;
249.0000;1.0305;0.3056;
249.3000;1.0313;0.3175;
249.6000;1.0305;0.3246;
249.9000;1.0330;0.3270;
250.2000;1.0330;0.3222;
250.5000;1.0305;0.3151;
250.8000;1.0305;0.3151;
251.1000;1.0322;0.3222;
251.4000;1.0313;0.3246;
251.7000;1.0362;0.3364;
252.0000;1.0313;0.3317;
252.3000;1.0322;0.3364;
252.6000;1.0313;0.3341;
252.9000;1.0297;0.3246;
253.2000;1.0313;0.3270;
253.5000;1.0297;0.3270;
253.8000;1.0305;0.3270;
254.1000;1.0305;0.3246;
254.4000;1.0289;0.3151;
254.7000;1.0313;0.3175;
255.0000;1.0362;0.3246;
255.3000;1.0313;0.3127;
255.6000;1.0313;0.3175;
255.9000;1.0305;0.3151;
256.2000;1.0305;0.3080;
256.5000;1.0313;0.3104;
256.8000;1.0305;0.3009;
257.1000;1.0305;0.3009;
257.4000;1.0297;0.3033;
257.7000;1.0289;0.2962;
258.0000;1.0265;0.2891;
258.3000;1.0256;0.2843;
258.6000;1.0297;0.3033;
258.9000;1.0297;0.3033;
259.2000;1.0208;0.2938;
259.5000;1.0289;0.3199;
259.8000;1.0297;0.3222;
260.1000;1.0322;0.3293;
260.4000;1.0297;0.3270;
260.7000;1.0273;0.3199;
261.0000;1.0297;0.3246;
261.3000;1.0305;0.3151;
261.6000;1.0313;0.3199;
261.9000;1.0305;0.3127;
262.2000;1.0305;0.3175;
262.5000;1.0322;0.3175;
262.8000;1.0297;0.3080;
263.1000;1.0273;0.2914;
263.4000;1.0313;0.3033;
263.7000;1.0289;0.3009;
264.0000;1.0330;0.3056;
264.3000;1.0273;0.2985;
264.6000;1.0289;0.3080;
264.9000;1.0265;0.3127;
265.2000;1.0265;0.3222;
265.5000;1.0297;0.3293;
265.8000;1.0297;0.3222;
266.1000;1.0289;0.3222;
266.4000;1.0281;0.3199;
266.7000;1.0240;0.3056;
267.0000;1.0346;0.3246;
267.3000;1.0305;0.3127;
267.6000;1.0297;0.3151;
267.9000;1.0297;0.3127;
268.2000;1.0281;0.3199;
268.5000;1.0273;0.3151;
268.8000;1.0289;0.3222;
269.1000;1.0281;0.3199;
269.4000;1.0265;0.3151;
269.7000;1.0289;0.3151;
270.0000;1.0297;0.3246;
270.3000;1.0297;0.3175;
270.6000;1.0281;0.3222;
270.9000;1.0305;0.3246;
271.2000;1.0297;0.3246;
271.5000;1.0346;0.3246;
271.8000;1.0322;0.3104;
272.1000;1.0297;0.2985;
272.4000;1.0240;0.2891;
272.7000;1.0256;0.2938;
273.0000;1.0322;0.3127;
273.3000;1.0305;0.3222;
273.6000;1.0322;0.3222;
273.9000;1.0297;0.3127;
274.2000;1.0305;0.3104;
274.5000;1.0265;0.3127;
274.8000;1.0297;0.3270;
275.1000;1.0305;0.3222;
275.4000;1.0305;0.3127;
275.7000;1.0305;0.3104;
276.0000;1.0297;0.3175;
276.3000;1.0305;0.3175;
276.6000;1.0313;0.3175;
276.9000;1.0289;0.3199;
277.2000;1.0297;0.3127;
277.5000;1.0313;0.3175;
277.8000;1.0281;0.3080;
278.1000;1.0281;0.3080;
278.4000;1.0305;0.3175;
278.7000;1.0297;0.3104;
279.0000;1.0297;0.3104;
279.3000;1.0330;0.3151;
279.6000;1.0297;0.3175;
279.9000;1.0305;0.3199;
280.2000;1.0265;0.3056;
280.5000;1.0313;0.3175;
280.8000;1.0297;0.3151;
281.1000;1.0273;0.3151;
281.4000;1.0289;0.3175;
281.7000;1.0297;0.3270;
282.0000;1.0322;0.3341;
282.3000;1.0297;0.3293;
282.6000;1.0281;0.3270;
282.9000;1.0305;0.3270;
283.2000;1.0273;0.3175;
283.5000;1.0289;0.3222;
283.8000;1.0281;0.3199;
284.1000;1.0297;0.3270;
284.4000;1.0281;0.3293;
284.7000;1.0281;0.3246;
285.0000;1.0313;0.3293;
285.3000;1.0289;0.3151;
285.6000;1.0305;0.3175;
285.9000;1.0297;0.3175;
286.2000;1.0297;0.3104;
286.5000;1.0297;0.3104;
286.8000;1.0289;0.3056;
287.1000;1.0313;0.3127;
287.4000;1.0313;0.3127;
287.7000;1.0387;0.3270;
288.0000;1.0305;0.3175;
288.3000;1.0313;0.3151;
288.6000;1.0281;0.3009;
288.9000;1.0379;0.3293;
289.2000;1.0313;0.3175;
289.5000;1.0256;0.3104;
289.8000;1.0305;0.3293;
290.1000;1.0297;0.3246;
290.4000;1.0297;0.3270;
290.7000;1.0305;0.3341;
291.0000;1.0289;0.3364;
291.3000;1.0297;0.3317;
291.6000;1.0322;0.3364;
291.9000;1.0305;0.3270;
292.2000;1.0289;0.3246;
292.5000;1.0313;0.3199;
292.8000;1.0273;0.3056;
293.1000;1.0289;0.3127;
293.4000;1.0305;0.3175;
293.7000;1.0297;0.3151;
294.0000;1.0297;0.3175;
294.3000;1.0297;0.3246;
294.6000;1.0346;0.3388;
294.9000;1.0297;0.3270;
295.2000;1.0289;0.3293;
295.5000;1.0297;0.3222;
295.8000;1.0256;0.3104;
296.1000;1.0305;0.3222;
296.4000;1.0273;0.3270;
296.7000;1.0273;0.3199;
297.0000;1.0281;0.3270;
297.3000;1.0297;0.3222;
297.6000;1.0313;0.3175;
297.9000;1.0297;0.3199;
298.2000;1.0289;0.3199;
298.5000;1.0297;0.3175;
298.8000;1.0305;0.3175;
299.1000;1.0322;0.3246;
299.4000;1.0305;0.3175;
299.7000;1.0297;0.3033;
300.0000;1.0289;0.3033;
300.3000;1.0281;0.3080;
300.6000;1.0289;0.3009;
300.9000;1.0289;0.2985;
301.2000;1.0289;0.2914;
301.5000;1.0281;0.2962;
301.8000;1.0281;0.3080;
302.1000;1.0281;0.3151;
302.4000;1.0297;0.3151;
302.7000;1.0289;0.3175;
303.0000;1.0281;0.3151;
303.3000;1.0297;0.3199;
303.6000;1.0297;0.3127;
303.9000;1.0289;0.3151;
304.2000;1.0297;0.3317;
304.5000;1.0297;0.3364;
304.8000;1.0289;0.3317;
305.1000;1.0289;0.3293;
305.4000;1.0305;0.3293;
305.7000;1.0281;0.3317;
306.0000;1.0289;0.3270;
306.3000;1.0297;0.3270;
306.6000;1.0289;0.3175;
306.9000;1.0273;0.3104;
307.2000;1.0281;0.3056;
307.5000;1.0265;0.3009;
307.8000;1.0281;0.3104;
308.1000;1.0281;0.3127;
308.4000;1.0273;0.3199;
308.7000;1.0305;0.3270;
309.0000;1.0297;0.3270;
309.3000;1.0248;0.3080;
309.6000;1.0281;0.3246;
309.9000;1.0297;0.3246;
310.2000;1.0305;0.3222;
310.5000;1.0297;0.3175;
310.8000;1.0297;0.3222;
311.1000;1.0289;0.3199;
311.4000;1.0289;0.3270;
311.7000;1.0322;0.3364;
312.0000;1.0265;0.3222;
312.3000;1.0273;0.3246;
312.6000;1.0281;0.3222;
312.9000;1.0273;0.3104;
313.2000;1.0265;0.3151;
313.5000;1.0265;0.3104;
313.8000;1.0305;0.3104;
314.1000;1.0313;0.3033;
314.4000;1.0305;0.3127;
314.7000;1.0289;0.3104;
315.0000;1.0289;0.3151;
315.3000;1.0297;0.3175;
315.6000;1.0281;0.3127;
315.9000;1.0289;0.3222;
316.2000;1.0289;0.3199;
316.5000;1.0281;0.3151;
316.8000;1.0289;0.3080;
317.1000;1.0297;0.3104;
317.4000;1.0289;0.3033;
317.7000;1.0256;0.2985;
318.0000;1.0281;0.3056;
318.3000;1.0281;0.3009;
318.6000;1.0322;0.3104;
318.9000;1.0305;0.3009;
319.2000;1.0305;0.2891;
319.5000;1.0289;0.2985;
319.8000;1.0281;0.2938;
320.1000;1.0281;0.3009;
320.4000;1.0297;0.3080;
320.7000;1.0289;0.3056;
321.0000;1.0281;0.3080;
321.3000;1.0289;0.3080;
321.6000;1.0297;0.3151;
321.9000;1.0289;0.3151;
322.2000;1.0297;0.3175;
322.5000;1.0297;0.3199;
322.8000;1.0289;0.3270;
323.1000;1.0305;0.3222;
323.4000;1.0297;0.3222;
323.7000;1.0297;0.3246;
324.0000;1.0305;0.3317;
324.3000;1.0313;0.3341;
324.6000;1.0297;0.3388;
324.9000;1.0273;0.3341;
325.2000;1.0289;0.3341;
325.5000;1.0289;0.3412;
325.8000;1.0289;0.3388;
326.1000;1.0265;0.3246;
326.4000;1.0281;0.3317;
326.7000;1.0297;0.3270;
327.0000;1.0330;0.3388;
327.3000;1.0289;0.3270;
327.6000;1.0297;0.3270;
327.9000;1.0297;0.3246;
328.2000;1.0305;0.3270;
328.5000;1.0305;0.3199;
328.8000;1.0289;0.3127;
329.1000;1.0305;0.3199;
329.4000;1.0297;0.3175;
329.7000;1.0297;0.3151;
330.0000;1.0297;0.3175;
330.3000;1.0297;0.3175;
330.6000;1.0305;0.3175;
330.9000;1.0297;0.3199;
331.2000;1.0273;0.3127;
331.5000;1.0281;0.3104;
331.8000;1.0297;0.3151;
332.1000;1.0313;0.3104;
332.4000;1.0281;0.3033;
332.7000;1.0305;0.3080;
333.0000;1.0305;0.3080;
333.3000;1.0297;0.3104;
333.6000;1.0281;0.3080;
333.9000;1.0297;0.3127;
334.2000;1.0289;0.3104;
334.5000;1.0273;0.3151;
334.8000;1.0313;0.3293;
335.1000;1.0289;0.3175;
335.4000;1.0281;0.3151;
335.7000;1.0256;0.3127;
336.0000;1.0305;0.3199;
336.3000;1.0289;0.3104;
336.6000;1.0289;0.3009;
336.9000;1.0273;0.2985;
337.2000;1.0297;0.3033;
337.5000;1.0289;0.3009;
337.8000;1.0281;0.3009;
338.1000;1.0297;0.3104;
338.4000;1.0297;0.3199;
338.7000;1.0289;0.3175;
339.0000;1.0313;0.3175;
339.3000;1.0281;0.3104;
339.6000;1.0289;0.3080;
339.9000;1.0289;0.3127;
340.2000;1.0305;0.3199;
340.5000;1.0281;0.3104;
340.8000;1.0281;0.3151;
341.1000;1.0297;0.3199;
341.4000;1.0265;0.3104;
341.7000;1.0281;0.3175;
342.0000;1.0346;0.3293;
342.3000;1.0297;0.3199;
342.6000;1.0265;0.3080;
342.9000;1.0265;0.3080;
343.2000;1.0248;0.3104;
343.5000;1.0289;0.3104;
343.8000;1.0289;0.3056;
344.1000;1.0256;0.2962;
344.4000;1.0289;0.3080;
344.7000;1.0289;0.3127;
345.0000;1.0265;0.3080;
345.3000;1.0289;0.3104;
345.6000;1.0248;0.3056;
345.9000;1.0281;0.3127;
346.2000;1.0297;0.3175;
346.5000;1.0281;0.3080;
346.8000;1.0265;0.3033;
347.1000;1.0273;0.3056;
347.4000;1.0289;0.3033;
347.7000;1.0273;0.2938;
348.0000;1.0273;0.2962;
348.3000;1.0289;0.3056;
348.6000;1.0281;0.3056;
348.9000;1.0338;0.3127;
349.2000;1.0297;0.3033;
349.5000;1.0289;0.3009;
349.8000;1.0297;0.3056;
350.1000;1.0289;0.3009;
350.4000;1.0248;0.2962;
350.7000;1.0338;0.3056;
351.0000;1.0265;0.2962;
351.3000;1.0297;0.3009;
351.6000;1.0297;0.3033;
351.9000;1.0281;0.3056;
352.2000;1.0289;0.3009;
352.5000;1.0273;0.3009;
352.8000;1.0305;0.3104;
353.1000;1.0289;0.3056;
353.4000;1.0281;0.3080;
353.7000;1.0289;0.3080;
354.0000;1.0273;0.3104;
354.3000;1.0273;0.3104;
354.6000;1.0281;0.3151;
354.9000;1.0281;0.3151;
355.2000;1.0281;0.3033;
355.5000;1.0273;0.3009;
355.8000;1.0265;0.2985;
356.1000;1.0273;0.2985;
356.4000;1.0273;0.3009;
356.7000;1.0289;0.3056;
357.0000;1.0256;0.3009;
357.3000;1.0281;0.3033;
357.6000;1.0297;0.3104;
357.9000;1.0273;0.3151;
358.2000;1.0265;0.3222;
358.5000;1.0256;0.3222;
358.8000;1.0273;0.3270;
359.1000;1.0281;0.3293;
359.4000;1.0305;0.3293;
359.7000;1.0273;0.3127;
360.0000;1.0313;0.3270;
360.3000;1.0256;0.3199;
360.6000;1.0289;0.3199;
360.9000;1.0297;0.3246;
361.2000;1.0289;0.3270;
361.5000;1.0265;0.3293;
361.8000;1.0281;0.3341;
362.1000;1.0265;0.3364;
362.4000;1.0265;0.3364;
362.7000;1.0313;0.3364;
363.0000;1.0256;0.3199;
363.3000;1.0232;0.3033;
363.6000;1.0305;0.3127;
363.9000;1.0313;0.3127;
364.2000;1.0281;0.3080;
364.5000;1.0313;0.3199;
364.8000;1.0281;0.3151;
365.1000;1.0370;0.3317;
365.4000;1.0313;0.3222;
365.7000;1.0240;0.3080;
366.0000;1.0322;0.3317;
366.3000;1.0281;0.3175;
366.6000;1.0191;0.2985;
366.9000;1.0354;0.3364;
367.2000;1.0281;0.3222;
367.5000;1.0338;0.3317;
367.8000;1.0354;0.3293;
368.1000;1.0265;0.3056;
368.4000;1.0273;0.3080;
368.7000;1.0265;0.2938;
369.0000;1.0256;0.2938;
369.3000;1.0305;0.3009;
369.6000;1.0224;0.2891;
369.9000;1.0265;0.2985;
370.2000;1.0273;0.2985;
370.5000;1.0289;0.2914;
370.8000;1.0289;0.2962;
371.1000;1.0289;0.2938;
371.4000;1.0289;0.3009;
371.7000;1.0289;0.2938;
372.0000;1.0305;0.2962;
372.3000;1.0305;0.3080;
372.6000;1.0281;0.2962;
372.9000;1.0273;0.2938;
373.2000;1.0273;0.2891;
373.5000;1.0281;0.2985;
373.8000;1.0289;0.2962;
374.1000;1.0297;0.2962;
374.4000;1.0297;0.2891;
374.7000;1.0289;0.2843;
375.0000;1.0322;0.2938;
375.3000;1.0281;0.2938;
375.6000;1.0281;0.2962;
375.9000;1.0273;0.2985;
376.2000;1.0281;0.3104;
376.5000;1.0265;0.3009;
376.8000;1.0281;0.3033;
377.1000;1.0281;0.2985;
377.4000;1.0273;0.2843;
377.7000;1.0289;0.2891;
378.0000;1.0273;0.2819;
378.3000;1.0281;0.2772;
378.6000;1.0281;0.2725;
378.9000;1.0256;0.2772;
379.2000;1.0265;0.2843;
379.5000;1.0240;0.2867;
379.8000;1.0273;0.2914;
380.1000;1.0265;0.2796;
380.4000;1.0281;0.2819;
380.7000;1.0240;0.2725;
381.0000;1.0338;0.2867;
381.3000;1.0256;0.2748;
381.6000;1.0281;0.2867;
381.9000;1.0281;0.3009;
382.2000;1.0289;0.2962;
382.5000;1.0256;0.2891;
382.8000;1.0265;0.2985;
383.1000;1.0265;0.3056;
383.4000;1.0281;0.3127;
383.7000;1.0297;0.3127;
384.0000;1.0273;0.3127;
384.3000;1.0313;0.3151;
384.6000;1.0305;0.3056;
384.9000;1.0273;0.2938;
385.2000;1.0281;0.2914;
385.5000;1.0313;0.2962;
385.8000;1.0273;0.2985;
386.1000;1.0273;0.2914;
386.4000;1.0273;0.2914;
386.7000;1.0281;0.2843;
387.0000;1.0248;0.2677;
387.3000;1.0297;0.2962;
387.6000;1.0256;0.2938;
387.9000;1.0273;0.3009;
388.2000;1.0281;0.2962;
388.5000;1.0354;0.3151;
388.8000;1.0281;0.2914;
389.1000;1.0281;0.2843;
389.4000;1.0265;0.2867;
389.7000;1.0281;0.2891;
390.0000;1.0289;0.3033;
390.3000;1.0289;0.2985;
390.6000;1.0232;0.2867;
390.9000;1.0297;0.3080;
391.2000;1.0281;0.3080;
391.5000;1.0313;0.3175;
391.8000;1.0208;0.2962;
392.1000;1.0338;0.3199;
392.4000;1.0305;0.3080;
392.7000;1.0273;0.3056;
393.0000;1.0273;0.3080;
393.3000;1.0273;0.3104;
393.6000;1.0289;0.3056;
393.9000;1.0273;0.2985;
394.2000;1.0273;0.3009;
394.5000;1.0273;0.2985;
394.8000;1.0289;0.3009;
395.1000;1.0273;0.3009;
395.4000;1.0265;0.2985;
395.7000;1.0273;0.3009;
396.0000;1.0281;0.3033;
396.3000;1.0281;0.3033;
396.6000;1.0281;0.3009;
396.9000;1.0256;0.2891;
397.2000;1.0289;0.2914;
397.5000;1.0297;0.2867;
397.8000;1.0281;0.2843;
398.1000;1.0273;0.2891;
398.4000;1.0281;0.2914;
398.7000;1.0281;0.2938;
399.0000;1.0281;0.2962;
399.3000;1.0281;0.2843;
399.6000;1.0265;0.2843;
399.9000;1.0265;0.2796;
400.2000;1.0281;0.2843;
400.5000;1.0273;0.2843;
400.8000;1.0265;0.2891;
401.1000;1.0265;0.2914;
401.4000;1.0256;0.2938;
401.7000;1.0273;0.3080;
402.0000;1.0281;0.3104;
402.3000;1.0289;0.3199;
402.6000;1.0281;0.3127;
402.9000;1.0265;0.3104;
403.2000;1.0273;0.3033;
403.5000;1.0289;0.3104;
403.8000;1.0281;0.3104;
404.1000;1.0281;0.3175;
404.4000;1.0256;0.3127;
404.7000;1.0256;0.3104;
405.0000;1.0240;0.2985;
405.3000;1.0297;0.3104;
405.6000;1.0273;0.2985;
405.9000;1.0208;0.2796;
406.2000;1.0224;0.2772;
406.5000;1.0281;0.2891;
406.8000;1.0281;0.2914;
407.1000;1.0265;0.2985;
407.4000;1.0281;0.3080;
407.7000;1.0289;0.3080;
408.0000;1.0256;0.3009;
408.3000;1.0273;0.3056;
408.6000;1.0289;0.3104;
408.9000;1.0265;0.3104;
409.2000;1.0265;0.3175;
409.5000;1.0256;0.3246;
409.8000;1.0248;0.3199;
410.1000;1.0240;0.3222;
410.4000;1.0256;0.3151;
410.7000;1.0265;0.3151;
411.0000;1.0256;0.3199;
411.3000;1.0248;0.3199;
411.6000;1.0256;0.3127;
411.9000;1.0281;0.3104;
412.2000;1.0289;0.3009;
412.5000;1.0273;0.2985;
412.8000;1.0346;0.3270;
413.1000;1.0256;0.3056;
413.4000;1.0265;0.3009;
413.7000;1.0273;0.3056;
414.0000;1.0281;0.3080;
414.3000;1.0281;0.3056;
414.6000;1.0232;0.2867;
414.9000;1.0265;0.2962;
415.2000;1.0256;0.3009;
415.5000;1.0265;0.3056;
415.8000;1.0256;0.3056;
416.1000;1.0273;0.3009;
416.4000;1.0265;0.3033;
416.7000;1.0281;0.2985;
417.0000;1.0281;0.2938;
417.3000;1.0289;0.2867;
417.6000;1.0281;0.2914;
417.9000;1.0281;0.2938;
418.2000;1.0265;0.2891;
418.5000;1.0273;0.2985;
418.8000;1.0265;0.3009;
419.1000;1.0256;0.2962;
419.4000;1.0305;0.3033;
419.7000;1.0265;0.2867;
420.0000;1.0265;0.2843;
420.3000;1.0297;0.2867;
420.6000;1.0273;0.2772;
420.9000;1.0256;0.2701;
421.2000;1.0248;0.2725;
421.5000;1.0256;0.2725;
421.8000;1.0273;0.2914;
422.1000;1.0265;0.2914;
422.4000;1.0248;0.2796;
422.7000;1.0265;0.2819;
423.0000;1.0281;0.2914;
423.3000;1.0265;0.2867;
423.6000;1.0265;0.2843;
423.9000;1.0265;0.2796;
424.2000;1.0265;0.2796;
424.5000;1.0289;0.2772;
424.8000;1.0256;0.2748;
425.1000;1.0256;0.2772;
425.4000;1.0265;0.2772;
425.7000;1.0256;0.2819;
426.0000;1.0224;0.2772;
426.3000;1.0248;0.2891;
426.6000;1.0248;0.2867;
426.9000;1.0305;0.2938;
427.2000;1.0265;0.2843;
427.5000;1.0256;0.2891;
427.8000;1.0273;0.2914;
428.1000;1.0273;0.2962;
428.4000;1.0281;0.2962;
428.7000;1.0273;0.2938;
429.0000;1.0305;0.3033;
429.3000;1.0289;0.2938;
429.6000;1.0265;0.2914;
429.9000;1.0265;0.2891;
430.2000;1.0273;0.2867;
430.5000;1.0273;0.2891;
430.8000;1.0273;0.2843;
431.1000;1.0265;0.2914;
431.4000;1.0248;0.2867;
431.7000;1.0256;0.2938;
432.0000;1.0256;0.3056;
432.3000;1.0256;0.3056;
432.6000;1.0256;0.2938;
432.9000;1.0256;0.2914;
433.2000;1.0265;0.2985;
433.5000;1.0256;0.3009;
433.8000;1.0256;0.3056;
434.1000;1.0265;0.3056;
434.4000;1.0273;0.3033;
434.7000;1.0216;0.2938;
435.0000;1.0256;0.3056;
435.3000;1.0256;0.3080;
435.6000;1.0248;0.2985;
435.9000;1.0289;0.3033;
436.2000;1.0281;0.3080;
436.5000;1.0273;0.2985;
436.8000;1.0232;0.2962;
437.1000;1.0256;0.3104;
437.4000;1.0265;0.3080;
437.7000;1.0256;0.3056;
438.0000;1.0265;0.3056;
438.3000;1.0273;0.3009;
438.6000;1.0273;0.2938;
438.9000;1.0191;0.2819;
439.2000;1.0256;0.2985;
439.5000;1.0265;0.3104;
439.8000;1.0265;0.3127;
440.1000;1.0256;0.3175;
440.4000;1.0240;0.3127;
440.7000;1.0256;0.3056;
441.0000;1.0265;0.3080;
441.3000;1.0265;0.3151;
441.6000;1.0256;0.2985;
441.9000;1.0273;0.3033;
442.2000;1.0224;0.2914;
442.5000;1.0265;0.2962;
442.8000;1.0248;0.3056;
443.1000;1.0240;0.3080;
443.4000;1.0256;0.3056;
443.7000;1.0256;0.3056;
444.0000;1.0240;0.3056;
444.3000;1.0256;0.3104;
444.6000;1.0281;0.3056;
444.9000;1.0281;0.3080;
445.2000;1.0256;0.3151;
445.5000;1.0256;0.3056;
445.8000;1.0265;0.3104;
446.1000;1.0273;0.3056;
446.4000;1.0265;0.2938;
446.7000;1.0248;0.2985;
447.0000;1.0248;0.3009;
447.3000;1.0256;0.3009;
447.6000;1.0265;0.3009;
447.9000;1.0265;0.2985;
448.2000;1.0248;0.2962;
448.5000;1.0240;0.2962;
448.8000;1.0273;0.2985;
449.1000;1.0240;0.2938;
449.4000;1.0265;0.3056;
449.7000;1.0248;0.3056;
450.0000;1.0273;0.3033;
450.3000;1.0273;0.3056;
450.6000;1.0273;0.3033;
450.9000;1.0248;0.3033;
451.2000;1.0281;0.2985;
451.5000;1.0216;0.2796;
451.8000;1.0256;0.2843;
452.1000;1.0248;0.2891;
452.4000;1.0265;0.2867;
452.7000;1.0273;0.2819;
453.0000;1.0248;0.2772;
453.3000;1.0265;0.2867;
453.6000;1.0265;0.2796;
453.9000;1.0289;0.2867;
454.2000;1.0248;0.2796;
454.5000;1.0256;0.2772;
454.8000;1.0256;0.2867;
455.1000;1.0265;0.3009;
455.4000;1.0297;0.3056;
455.7000;1.0289;0.3009;
456.0000;1.0265;0.3033;
456.3000;1.0232;0.2914;
456.6000;1.0273;0.2985;
456.9000;1.0289;0.3033;
457.2000;1.0248;0.2962;
457.5000;1.0248;0.2891;
457.8000;1.0248;0.2891;
458.1000;1.0248;0.2914;
458.4000;1.0248;0.2914;
458.7000;1.0232;0.2867;
459.0000;1.0265;0.2891;
459.3000;1.0265;0.2891;
459.6000;1.0240;0.2867;
459.9000;1.0224;0.2772;
460.2000;1.0273;0.2843;
460.5000;1.0273;0.2819;
460.8000;1.0265;0.2772;
461.1000;1.0273;0.2867;
461.4000;1.0281;0.2867;
461.7000;1.0281;0.2891;
462.0000;1.0273;0.2914;
462.3000;1.0265;0.2914;
462.6000;1.0273;0.2843;
462.9000;1.0232;0.2701;
463.2000;1.0273;0.2796;
463.5000;1.0265;0.2772;
463.8000;1.0265;0.2819;
464.1000;1.0256;0.2867;
464.4000;1.0248;0.2938;
464.7000;1.0248;0.2914;
465.0000;1.0240;0.2891;
465.3000;1.0256;0.2938;
465.6000;1.0256;0.2867;
465.9000;1.0256;0.2891;
466.2000;1.0256;0.2914;
466.5000;1.0248;0.2891;
466.8000;1.0216;0.2701;
467.1000;1.0256;0.2796;
467.4000;1.0256;0.2819;
467.7000;1.0256;0.2796;
468.0000;1.0256;0.2891;
468.3000;1.0256;0.2867;
468.6000;1.0256;0.2819;
468.9000;1.0265;0.2796;
469.2000;1.0265;0.2677;
469.5000;1.0248;0.2654;
469.8000;1.0289;0.2748;
470.1000;1.0248;0.2677;
470.4000;1.0256;0.2748;
470.7000;1.0248;0.2748;
471.0000;1.0256;0.2725;
471.3000;1.0240;0.2630;
471.6000;1.0240;0.2583;
471.9000;1.0330;0.2654;
472.2000;1.0265;0.2535;
472.5000;1.0256;0.2511;
472.8000;1.0256;0.2511;
473.1000;1.0265;0.2630;
473.4000;1.0256;0.2559;
473.7000;1.0265;0.2535;
474.0000;1.0265;0.2511;
474.3000;1.0265;0.2511;
474.6000;1.0208;0.2464;
474.9000;1.0265;0.2630;
475.2000;1.0256;0.2583;
475.5000;1.0265;0.2677;
475.8000;1.0256;0.2701;
476.1000;1.0240;0.2772;
476.4000;1.0240;0.2772;
476.7000;1.0248;0.2819;
477.0000;1.0313;0.2985;
477.3000;1.0256;0.2748;
477.6000;1.0265;0.2701;
477.9000;1.0256;0.2701;
478.2000;1.0256;0.2748;
478.5000;1.0273;0.2843;
478.8000;1.0248;0.2843;
479.1000;1.0240;0.2772;
479.4000;1.0289;0.2867;
479.7000;1.0265;0.2819;
480.0000;1.0265;0.2843;
480.3000;1.0256;0.2748;
480.6000;1.0248;0.2677;
480.9000;1.0265;0.2725;
481.2000;1.0281;0.2796;
481.5000;1.0265;0.2654;
481.8000;1.0256;0.2630;
482.1000;1.0265;0.2606;
482.4000;1.0248;0.2583;
482.7000;1.0256;0.2630;
483.0000;1.0256;0.2630;
483.3000;1.0265;0.2583;
483.6000;1.0248;0.2535;
483.9000;1.0256;0.2511;
484.2000;1.0248;0.2464;
484.5000;1.0273;0.2583;
484.8000;1.0248;0.2417;
485.1000;1.0248;0.2417;
485.4000;1.0265;0.2511;
485.7000;1.0248;0.2559;
486.0000;1.0265;0.2701;
486.3000;1.0248;0.2748;
486.6000;1.0248;0.2796;
486.9000;1.0240;0.2796;
487.2000;1.0273;0.2819;
487.5000;1.0265;0.2867;
487.8000;1.0256;0.2819;
488.1000;1.0240;0.2819;
488.4000;1.0273;0.3033;
488.7000;1.0265;0.3104;
489.0000;1.0248;0.3127;
489.3000;1.0224;0.3056;
489.6000;1.0273;0.3080;
489.9000;1.0232;0.3056;
490.2000;1.0248;0.3033;
490.5000;1.0256;0.2938;
490.8000;1.0256;0.2938;
491.1000;1.0248;0.2938;
491.4000;1.0191;0.2748;
491.7000;1.0248;0.2914;
492.0000;1.0256;0.2938;
492.3000;1.0248;0.2914;
492.6000;1.0256;0.2962;
492.9000;1.0248;0.3009;
493.2000;1.0248;0.3080;
493.5000;1.0256;0.3127;
493.8000;1.0273;0.3199;
494.1000;1.0248;0.3056;
494.4000;1.0248;0.3056;
494.7000;1.0248;0.3033;
495.0000;1.0240;0.3056;
495.3000;1.0256;0.3033;
495.6000;1.0265;0.3056;
495.9000;1.0248;0.2962;
496.2000;1.0256;0.3033;
496.5000;1.0224;0.2843;
496.8000;1.0273;0.2938;
497.1000;1.0248;0.2891;
497.4000;1.0281;0.2938;
497.7000;1.0265;0.2938;
498.0000;1.0183;0.2701;
498.3000;1.0256;0.2914;
498.6000;1.0265;0.3009;
498.9000;1.0256;0.2938;
499.2000;1.0313;0.3009;
499.5000;1.0305;0.3033;
499.8000;1.0248;0.2867;
500.1000;1.0297;0.3033;
500.4000;1.0265;0.2867;
500.7000;1.0256;0.2819;
501.0000;1.0224;0.2701;
501.3000;1.0273;0.2843;
501.6000;1.0248;0.2819;
501.9000;1.0248;0.2819;
502.2000;1.0248;0.2796;
502.5000;1.0224;0.2701;
502.8000;1.0281;0.2796;
503.1000;1.0265;0.2843;
503.4000;1.0281;0.2914;
503.7000;1.0281;0.3033;
504.0000;1.0256;0.2962;
504.3000;1.0265;0.3009;
504.6000;1.0265;0.3009;
504.9000;1.0256;0.2985;
505.2000;1.0256;0.2938;
505.5000;1.0256;0.2843;
505.8000;1.0297;0.2914;
506.1000;1.0256;0.2796;
506.4000;1.0256;0.2914;
506.7000;1.0240;0.2962;
507.0000;1.0248;0.2914;
507.3000;1.0248;0.2962;
507.6000;1.0273;0.3009;
507.9000;1.0265;0.2985;
508.2000;1.0248;0.2938;
508.5000;1.0248;0.3009;
508.8000;1.0240;0.3009;
509.1000;1.0256;0.3056;
509.4000;1.0265;0.3056;
509.7000;1.0273;0.3033;
510.0000;1.0240;0.3056;
510.3000;1.0248;0.3104;
510.6000;1.0256;0.3033;
510.9000;1.0248;0.2938;
511.2000;1.0232;0.2938;
511.5000;1.0248;0.2914;
511.8000;1.0240;0.2914;
512.1000;1.0248;0.2938;
512.4000;1.0248;0.2914;
512.7000;1.0256;0.2985;
513.0000;1.0248;0.3056;
513.3000;1.0256;0.3056;
513.6000;1.0248;0.3033;
513.9000;1.0208;0.2938;
514.2000;1.0256;0.3056;
514.5000;1.0232;0.3033;
514.8000;1.0240;0.3009;
515.1000;1.0265;0.2985;
515.4000;1.0273;0.3056;
515.7000;1.0256;0.3056;
516.0000;1.0273;0.3056;
516.3000;1.0191;0.2843;
516.6000;1.0281;0.3056;
516.9000;1.0265;0.3033;
517.2000;1.0281;0.3104;
517.5000;1.0240;0.3009;
517.8000;1.0265;0.3009;
518.1000;1.0265;0.3033;
518.4000;1.0281;0.3056;
518.7000;1.0216;0.2938;
519.0000;1.0216;0.2962;
519.3000;1.0256;0.2938;
519.6000;1.0240;0.2819;
519.9000;1.0248;0.2772;
520.2000;1.0265;0.2796;
520.5000;1.0248;0.2748;
520.8000;1.0256;0.2748;
521.1000;1.0281;0.2748;
521.4000;1.0256;0.2677;
521.7000;1.0256;0.2819;
522.0000;1.0248;0.2891;
522.3000;1.0256;0.2843;
522.6000;1.0208;0.2772;
522.9000;1.0240;0.2843;
523.2000;1.0248;0.2843;
523.5000;1.0256;0.2867;
523.8000;1.0240;0.2843;
524.1000;1.0248;0.2867;
524.4000;1.0256;0.2867;
524.7000;1.0248;0.2843;
525.0000;1.0248;0.2772;
525.3000;1.0256;0.2748;
525.6000;1.0248;0.2796;
525.9000;1.0256;0.2725;
526.2000;1.0248;0.2725;
526.5000;1.0240;0.2677;
526.8000;1.0248;0.2725;
527.1000;1.0248;0.2843;
527.4000;1.0256;0.2962;
527.7000;1.0240;0.3009;
528.0000;1.0240;0.2938;
528.3000;1.0248;0.3056;
528.6000;1.0248;0.3056;
528.9000;1.0248;0.2962;
529.2000;1.0256;0.2867;
529.5000;1.0256;0.2819;
529.8000;1.0256;0.2914;
530.1000;1.0248;0.2867;
530.4000;1.0248;0.2914;
530.7000;1.0248;0.2891;
531.0000;1.0256;0.3009;
531.3000;1.0256;0.3056;
531.6000;1.0248;0.3080;
531.9000;1.0248;0.3104;
532.2000;1.0248;0.3033;
532.5000;1.0240;0.2985;
532.8000;1.0265;0.2962;
533.1000;1.0248;0.2867;
533.4000;1.0248;0.2914;
533.7000;1.0256;0.2962;
534.0000;1.0256;0.2985;
534.3000;1.0240;0.2938;
534.6000;1.0240;0.2891;
534.9000;1.0256;0.2914;
535.2000;1.0240;0.2914;
535.5000;1.0248;0.2985;
535.8000;1.0240;0.3009;
536.1000;1.0256;0.3080;
536.4000;1.0256;0.3151;
536.7000;1.0256;0.3080;
537.0000;1.0248;0.3056;
537.3000;1.0240;0.3056;
537.6000;1.0240;0.3033;
537.9000;1.0232;0.3127;
538.2000;1.0199;0.3080;
538.5000;1.0240;0.3222;
538.8000;1.0232;0.3151;
539.1000;1.0256;0.3127;
539.4000;1.0232;0.3056;
539.7000;1.0256;0.3056;
540.0000;1.0273;0.3009;
540.3000;1.0289;0.3056;
540.6000;1.0256;0.2962;
540.9000;1.0175;0.2819;
541.2000;1.0248;0.2962;
541.5000;1.0273;0.3080;
541.8000;1.0208;0.2914;
542.1000;1.0232;0.2985;
542.4000;1.0240;0.2914;
542.7000;1.0281;0.2962;
543.0000;1.0224;0.2843;
543.3000;1.0232;0.2867;
543.6000;1.0167;0.2748;
543.9000;1.0256;0.2985;
544.2000;1.0224;0.2938;
544.5000;1.0281;0.3056;
544.8000;1.0216;0.2867;
545.1000;1.0289;0.3009;
545.4000;1.0248;0.2962;
545.7000;1.0191;0.2867;
546.0000;1.0240;0.3033;
546.3000;1.0248;0.2938;
546.6000;1.0256;0.2962;
546.9000;1.0256;0.2914;
547.2000;1.0297;0.2962;
547.5000;1.0224;0.2725;
547.8000;1.0240;0.2843;
548.1000;1.0265;0.2914;
548.4000;1.0240;0.2819;
548.7000;1.0248;0.2819;
549.0000;1.0248;0.2819;
549.3000;1.0232;0.2843;
549.6000;1.0232;0.2796;
549.9000;1.0305;0.3009;
550.2000;1.0256;0.2891;
550.5000;1.0232;0.2867;
550.8000;1.0265;0.2914;
551.1000;1.0232;0.2819;
551.4000;1.0256;0.2891;
551.7000;1.0248;0.2962;
552.0000;1.0256;0.3009;
552.3000;1.0240;0.3056;
552.6000;1.0232;0.3009;
552.9000;1.0248;0.3009;
553.2000;1.0232;0.3009;
553.5000;1.0224;0.3033;
553.8000;1.0232;0.3080;
554.1000;1.0248;0.3151;
554.4000;1.0240;0.3104;
554.7000;1.0232;0.3080;
555.0000;1.0240;0.3127;
555.3000;1.0248;0.3199;
555.6000;1.0256;0.3151;
555.9000;1.0248;0.3104;
556.2000;1.0208;0.3009;
556.5000;1.0240;0.3056;
556.8000;1.0265;0.3056;
557.1000;1.0240;0.3033;
557.4000;1.0256;0.3009;
557.7000;1.0248;0.3009;
558.0000;1.0281;0.3033;
558.3000;1.0256;0.2938;
558.6000;1.0240;0.2914;
558.9000;1.0273;0.3056;
559.2000;1.0256;0.2962;
559.5000;1.0248;0.2962;
559.8000;1.0232;0.2962;
560.1000;1.0199;0.2938;
560.4000;1.0289;0.3199;
560.7000;1.0256;0.3080;
561.0000;1.0240;0.3104;
561.3000;1.0256;0.3127;
561.6000;1.0289;0.3175;
561.9000;1.0248;0.3056;
562.2000;1.0256;0.3104;
562.5000;1.0248;0.3033;
562.8000;1.0248;0.3009;
563.1000;1.0248;0.2985;
563.4000;1.0256;0.3033;
563.7000;1.0240;0.2867;
564.0000;1.0256;0.2938;
564.3000;1.0240;0.2867;
564.6000;1.0256;0.2843;
564.9000;1.0216;0.2819;
565.2000;1.0240;0.2843;
565.5000;1.0208;0.2654;
565.8000;1.0248;0.2677;
566.1000;1.0240;0.2654;
566.4000;1.0248;0.2701;
566.7000;1.0175;0.2583;
567.0000;1.0273;0.2867;
567.3000;1.0232;0.2772;
567.6000;1.0240;0.2843;
567.9000;1.0216;0.2843;
568.2000;1.0248;0.2985;
568.5000;1.0240;0.2914;
568.8000;1.0265;0.2938;
569.1000;1.0240;0.2891;
569.4000;1.0240;0.2843;
569.7000;1.0240;0.2867;
570.0000;1.0281;0.2938;
570.3000;1.0216;0.2891;
570.6000;1.0232;0.3033;
570.9000;1.0248;0.3080;
571.2000;1.0256;0.3009;
571.5000;1.0256;0.2962;
571.8000;1.0232;0.2867;
572.1000;1.0232;0.2962;
572.4000;1.0240;0.3009;
572.7000;1.0240;0.2891;
573.0000;1.0248;0.2819;
573.3000;1.0232;0.2772;
573.6000;1.0240;0.2725;
573.9000;1.0224;0.2725;
574.2000;1.0232;0.2796;
574.5000;1.0232;0.2867;
574.8000;1.0232;0.2962;
575.1000;1.0224;0.2962;
575.4000;1.0216;0.2938;
575.7000;1.0199;0.2962;
576.0000;1.0232;0.3009;
576.3000;1.0232;0.2938;
576.6000;1.0216;0.2962;
576.9000;1.0240;0.3009;
577.2000;1.0248;0.2938;
577.5000;1.0240;0.2891;
577.8000;1.0248;0.2891;
578.1000;1.0248;0.2867;
578.4000;1.0240;0.2891;
578.7000;1.0232;0.2891;
579.0000;1.0240;0.2891;
579.3000;1.0232;0.2938;
579.6000;1.0240;0.2938;
579.9000;1.0232;0.2985;
580.2000;1.0240;0.2938;
580.5000;1.0240;0.2914;
580.8000;1.0232;0.3009;
581.1000;1.0240;0.3009;
581.4000;1.0240;0.3033;
581.7000;1.0232;0.2985;
582.0000;1.0240;0.3009;
582.3000;1.0248;0.3009;
582.6000;1.0232;0.3033;
582.9000;1.0232;0.2938;
583.2000;1.0240;0.2985;
583.5000;1.0248;0.2962;
583.8000;1.0248;0.2938;
584.1000;1.0216;0.2938;
584.4000;1.0232;0.2985;
584.7000;1.0232;0.2914;
585.0000;1.0281;0.3009;
585.3000;1.0216;0.2938;
585.6000;1.0224;0.3009;
585.9000;1.0224;0.3033;
586.2000;1.0232;0.2985;
586.5000;1.0265;0.3009;
586.8000;1.0322;0.3175;
587.1000;1.0232;0.3009;
587.4000;1.0216;0.2891;
587.7000;1.0248;0.2985;
588.0000;1.0273;0.3033;
588.3000;1.0232;0.2891;
588.6000;1.0248;0.2914;
588.9000;1.0240;0.2843;
589.2000;1.0240;0.2867;
589.5000;1.0232;0.2796;
589.8000;1.0232;0.2819;
590.1000;1.0240;0.2772;
590.4000;1.0232;0.2772;
590.7000;1.0265;0.2843;
591.0000;1.0232;0.2819;
591.3000;1.0240;0.2843;
591.6000;1.0191;0.2819;
591.9000;1.0232;0.2914;
592.2000;1.0248;0.2962;
592.5000;1.0232;0.2914;
592.8000;1.0216;0.2843;
593.1000;1.0232;0.3009;
593.4000;1.0248;0.3104;
593.7000;1.0224;0.3080;
594.0000;1.0240;0.3056;
594.3000;1.0208;0.2914;
594.6000;1.0248;0.2985;
594.9000;1.0256;0.3009;
595.2000;1.0240;0.2985;
595.5000;1.0289;0.3104;
595.8000;1.0232;0.3080;
596.1000;1.0248;0.3104;
596.4000;1.0273;0.3104;
596.7000;1.0240;0.3033;
597.0000;1.0232;0.3080;
597.3000;1.0224;0.3104;
597.6000;1.0240;0.3033;
597.9000;1.0240;0.3033;
598.2000;1.0248;0.3127;
598.5000;1.0183;0.2843;
598.8000;1.0240;0.3033;
599.1000;1.0240;0.3033;
599.4000;1.0273;0.3199;
599.7000;1.0240;0.3127;
600.0000;1.0248;0.3080;
600.3000;1.0232;0.2819;
600.6000;1.0199;0.2606;
600.9000;1.0142;0.2322;
601.2000;1.0094;0.2132;
601.5000;1.0012;0.1801;
601.8000;0.9939;0.1516;
602.1000;0.9858;0.1232;
602.4000;0.9744;0.1066;
602.7000;0.9654;0.0758;
603.0000;0.9573;0.0616;
603.3000;0.9516;0.0498;
603.6000;0.9451;0.0332;
603.9000;0.9394;0.0213;
604.2000;0.9337;0.0024;
604.5000;0.9263;-0.0142;
604.8000;0.9223;-0.0166;
605.1000;0.9133;-0.0355;
605.4000;0.9084;-0.0474;
605.7000;0.9011;-0.0640;
606.0000;0.8946;-0.0663;
606.3000;0.8946;-0.0687;
606.6000;0.8905;-0.0711;
606.9000;0.8864;-0.0829;
607.2000;0.8824;-0.0948;
607.5000;0.8759;-0.1042;
607.8000;0.8767;-0.1019;
608.1000;0.8637;-0.1256;
608.4000;0.8653;-0.1066;
608.7000;0.8628;-0.1161;
609.0000;0.8620;-0.1232;
609.3000;0.8580;-0.1303;
609.6000;0.8555;-0.1279;
609.9000;0.8490;-0.1303;
610.2000;0.8482;-0.1351;
610.5000;0.8490;-0.1232;
610.8000;0.8433;-0.1374;
611.1000;0.8376;-0.1445;
611.4000;0.8368;-0.1398;
611.7000;0.8335;-0.1469;
612.0000;0.8303;-0.1587;
612.3000;0.8295;-0.1635;
612.6000;0.8246;-0.1801;
612.9000;0.8246;-0.1753;
613.2000;0.8221;-0.1706;
613.5000;0.8213;-0.1659;
613.8000;0.8221;-0.1564;
614.1000;0.8164;-0.1659;
614.4000;0.8132;-0.1659;
614.7000;0.8083;-0.1706;
615.0000;0.8034;-0.1801;
615.3000;0.8059;-0.1753;
615.6000;0.8059;-0.1682;
615.9000;0.8026;-0.1682;
616.2000;0.7969;-0.1777;
616.5000;0.7985;-0.1682;
616.8000;0.7977;-0.1611;
617.1000;0.7945;-0.1682;
617.4000;0.7928;-0.1659;
617.7000;0.7912;-0.1659;
618.0000;0.7928;-0.1564;
618.3000;0.7888;-0.1682;
618.6000;0.7928;-0.1493;
618.9000;0.7855;-0.1753;
619.2000;0.7839;-0.1801;
619.5000;0.7831;-0.1777;
619.8000;0.7823;-0.1848;
620.1000;0.7798;-0.1801;
620.4000;0.7806;-0.1777;
620.7000;0.7757;-0.1872;
621.0000;0.7741;-0.1872;
621.3000;0.7741;-0.1824;
621.6000;0.7725;-0.1848;
621.9000;0.7709;-0.1848;
622.2000;0.7684;-0.1753;
622.5000;0.7692;-0.1611;
622.8000;0.7668;-0.1706;
623.1000;0.7668;-0.1753;
623.4000;0.7652;-0.1753;
623.7000;0.7652;-0.1872;
624.0000;0.7619;-0.1967;
624.3000;0.7611;-0.1990;
624.6000;0.7611;-0.1895;
624.9000;0.7603;-0.1967;
625.2000;0.7570;-0.2038;
625.5000;0.7595;-0.1967;
625.8000;0.7562;-0.2014;
626.1000;0.7554;-0.1990;
626.4000;0.7546;-0.1967;
626.7000;0.7530;-0.1943;
627.0000;0.7513;-0.2014;
627.3000;0.7521;-0.2038;
627.6000;0.7521;-0.2014;
627.9000;0.7489;-0.2109;
628.2000;0.7473;-0.2180;
628.5000;0.7448;-0.2203;
628.8000;0.7440;-0.2109;
629.1000;0.7440;-0.2085;
629.4000;0.7424;-0.2203;
629.7000;0.7424;-0.2180;
630.0000;0.7424;-0.2227;
630.3000;0.7399;-0.2298;
630.6000;0.7375;-0.2251;
630.9000;0.7391;-0.2251;
631.2000;0.7464;-0.2132;
631.5000;0.7399;-0.2298;
631.8000;0.7375;-0.2322;
632.1000;0.7367;-0.2227;
632.4000;0.7302;-0.2369;
632.7000;0.7350;-0.2227;
633.0000;0.7342;-0.2203;
633.3000;0.7326;-0.2180;
633.6000;0.7334;-0.2085;
633.9000;0.7310;-0.2085;
634.2000;0.7310;-0.2109;
634.5000;0.7285;-0.2227;
634.8000;0.7302;-0.2298;
635.1000;0.7310;-0.2322;
635.4000;0.7318;-0.2227;
635.7000;0.7277;-0.2346;
636.0000;0.7277;-0.2275;
636.3000;0.7285;-0.2203;
636.6000;0.7285;-0.2132;
636.9000;0.7277;-0.2156;
637.2000;0.7236;-0.2203;
637.5000;0.7212;-0.2346;
637.8000;0.7228;-0.2275;
638.1000;0.7310;-0.1967;
638.4000;0.7228;-0.2109;
638.7000;0.7236;-0.2014;
639.0000;0.7196;-0.2109;
639.3000;0.7196;-0.2109;
639.6000;0.7196;-0.2203;
639.9000;0.7188;-0.2132;
640.2000;0.7123;-0.2298;
640.5000;0.7179;-0.2203;
640.8000;0.7171;-0.2203;
641.1000;0.7155;-0.2251;
641.4000;0.7163;-0.2180;
641.7000;0.7171;-0.2156;
642.0000;0.7114;-0.2322;
642.3000;0.7123;-0.2322;
642.6000;0.7123;-0.2227;
642.9000;0.7163;-0.2038;
643.2000;0.7131;-0.2038;
643.5000;0.7114;-0.2085;
643.8000;0.7114;-0.2038;
644.1000;0.7114;-0.2132;
644.4000;0.7098;-0.2156;
644.7000;0.7090;-0.2203;
645.0000;0.7082;-0.2322;
645.3000;0.7090;-0.2298;
645.6000;0.7057;-0.2322;
645.9000;0.7057;-0.2227;
646.2000;0.7057;-0.2251;
646.5000;0.7082;-0.2227;
646.8000;0.7049;-0.2322;
647.1000;0.7033;-0.2298;
647.4000;0.7033;-0.2298;
647.7000;0.7025;-0.2227;
648.0000;0.7041;-0.2132;
648.3000;0.7025;-0.2203;
648.6000;0.7033;-0.2109;
648.9000;0.7033;-0.2014;
649.2000;0.7017;-0.1990;
649.5000;0.7000;-0.2038;
649.8000;0.7009;-0.2061;
650.1000;0.7009;-0.2061;
650.4000;0.7025;-0.2061;
650.7000;0.7000;-0.2156;
651.0000;0.7041;-0.2014;
651.3000;0.6984;-0.2109;
651.6000;0.6984;-0.2038;
651.9000;0.6968;-0.2038;
652.2000;0.6968;-0.2038;
652.5000;0.6960;-0.2156;
652.8000;0.6952;-0.2180;
653.1000;0.6952;-0.2109;
653.4000;0.6935;-0.2203;
653.7000;0.6935;-0.2203;
654.0000;0.6943;-0.2085;
654.3000;0.6927;-0.2132;
654.6000;0.6943;-0.2156;
654.9000;0.6919;-0.2132;
655.2000;0.6911;-0.2109;
655.5000;0.6935;-0.1967;
655.8000;0.6919;-0.1919;
656.1000;0.6911;-0.2014;
656.4000;0.6829;-0.2180;
656.7000;0.6911;-0.2038;
657.0000;0.6911;-0.1990;
657.3000;0.6886;-0.2014;
657.6000;0.6870;-0.2085;
657.9000;0.6911;-0.2038;
658.2000;0.6854;-0.2156;
658.5000;0.6886;-0.2038;
658.8000;0.6870;-0.2109;
659.1000;0.6854;-0.2203;
659.4000;0.6846;-0.2203;
659.7000;0.6878;-0.2203;
660.0000;0.6862;-0.2346;
660.3000;0.6846;-0.2275;
660.6000;0.6862;-0.2275;
660.9000;0.6854;-0.2322;
661.2000;0.6862;-0.2180;
661.5000;0.6846;-0.2203;
661.8000;0.6919;-0.2038;
662.1000;0.6846;-0.2298;
662.4000;0.6821;-0.2346;
662.7000;0.6829;-0.2298;
663.0000;0.6829;-0.2275;
663.3000;0.6838;-0.2251;
663.6000;0.6813;-0.2203;
663.9000;0.6813;-0.2085;
664.2000;0.6805;-0.2014;
664.5000;0.6821;-0.2085;
664.8000;0.6829;-0.2085;
665.1000;0.6797;-0.2180;
665.4000;0.6740;-0.2251;
665.7000;0.6805;-0.2132;
666.0000;0.6797;-0.2132;
666.3000;0.6781;-0.2203;
666.6000;0.6781;-0.2203;
666.9000;0.6772;-0.2109;
667.2000;0.6789;-0.2038;
667.5000;0.6789;-0.2132;
667.8000;0.6821;-0.1990;
668.1000;0.6772;-0.2180;
668.4000;0.6748;-0.2298;
668.7000;0.6756;-0.2251;
669.0000;0.6756;-0.2203;
669.3000;0.6732;-0.2251;
669.6000;0.6748;-0.2156;
669.9000;0.6732;-0.2180;
670.2000;0.6732;-0.2180;
670.5000;0.6716;-0.2203;
670.8000;0.6724;-0.2369;
671.1000;0.6732;-0.2322;
671.4000;0.6716;-0.2346;
671.7000;0.6707;-0.2393;
672.0000;0.6748;-0.2393;
672.3000;0.6740;-0.2440;
672.6000;0.6707;-0.2464;
672.9000;0.6707;-0.2393;
673.2000;0.6716;-0.2322;
673.5000;0.6716;-0.2275;
673.8000;0.6707;-0.2275;
674.1000;0.6707;-0.2298;
674.4000;0.6699;-0.2298;
674.7000;0.6707;-0.2203;
675.0000;0.6691;-0.2227;
675.3000;0.6667;-0.2227;
675.6000;0.6683;-0.2180;
675.9000;0.6756;-0.2109;
676.2000;0.6634;-0.2393;
676.5000;0.6659;-0.2322;
676.8000;0.6667;-0.2203;
677.1000;0.6659;-0.2298;
677.4000;0.6707;-0.2203;
677.7000;0.6667;-0.2298;
678.0000;0.6642;-0.2369;
678.3000;0.6659;-0.2298;
678.6000;0.6667;-0.2298;
678.9000;0.6650;-0.2464;
679.2000;0.6634;-0.2464;
679.5000;0.6618;-0.2440;
679.8000;0.6618;-0.2369;
680.1000;0.6667;-0.2275;
680.4000;0.6634;-0.2275;
680.7000;0.6650;-0.2227;
681.0000;0.6634;-0.2227;
681.3000;0.6602;-0.2275;
681.6000;0.6642;-0.2156;
681.9000;0.6593;-0.2275;
682.2000;0.6602;-0.2251;
682.5000;0.6634;-0.2180;
682.8000;0.6626;-0.2227;
683.1000;0.6602;-0.2440;
683.4000;0.6626;-0.2393;
683.7000;0.6602;-0.2464;
684.0000;0.6585;-0.2511;
684.3000;0.6593;-0.2535;
684.6000;0.6659;-0.2440;
684.9000;0.6602;-0.2559;
685.2000;0.6602;-0.2654;
685.5000;0.6520;-0.2677;
685.8000;0.6577;-0.2511;
686.1000;0.6610;-0.2393;
686.4000;0.6593;-0.2322;
686.7000;0.6585;-0.2322;
687.0000;0.6585;-0.2251;
687.3000;0.6569;-0.2180;
687.6000;0.6569;-0.2132;
687.9000;0.6585;-0.2061;
688.2000;0.6569;-0.2085;
688.5000;0.6593;-0.2180;
688.8000;0.6593;-0.2203;
689.1000;0.6569;-0.2275;
689.4000;0.6545;-0.2251;
689.7000;0.6553;-0.2109;
690.0000;0.6488;-0.2322;
690.3000;0.6496;-0.2298;
690.6000;0.6536;-0.2132;
690.9000;0.6545;-0.2014;
691.2000;0.6553;-0.1872;
691.5000;0.6463;-0.2109;
691.8000;0.6553;-0.1824;
692.1000;0.6528;-0.1919;
692.4000;0.6545;-0.1801;
692.7000;0.6553;-0.1848;
693.0000;0.6536;-0.1943;
693.3000;0.6536;-0.1919;
693.6000;0.6520;-0.1943;
693.9000;0.6520;-0.1967;
694.2000;0.6520;-0.2061;
694.5000;0.6520;-0.1990;
694.8000;0.6504;-0.2038;
695.1000;0.6520;-0.2014;
695.4000;0.6512;-0.2038;
695.7000;0.6520;-0.2109;
696.0000;0.6504;-0.2109;
696.3000;0.6504;-0.2109;
696.6000;0.6504;-0.2203;
696.9000;0.6536;-0.2132;
697.2000;0.6488;-0.2180;
697.5000;0.6488;-0.2251;
697.8000;0.6528;-0.2156;
698.1000;0.6488;-0.2275;
698.4000;0.6496;-0.2322;
698.7000;0.6488;-0.2251;
699.0000;0.6488;-0.2180;
699.3000;0.6488;-0.2180;
699.6000;0.6463;-0.2132;
699.9000;0.6496;-0.2038;
700.2000;0.6471;-0.2085;
700.5000;0.6471;-0.2038;
700.8000;0.6471;-0.2061;
701.1000;0.6488;-0.2061;
701.4000;0.6479;-0.2014;
701.7000;0.6447;-0.2132;
702.0000;0.6463;-0.2061;
702.3000;0.6463;-0.1990;
702.6000;0.6398;-0.2203;
702.9000;0.6471;-0.2156;
703.2000;0.6455;-0.2180;
703.5000;0.6479;-0.2203;
703.8000;0.6455;-0.2275;
704.1000;0.6455;-0.2251;
704.4000;0.6455;-0.2275;
704.7000;0.6422;-0.2322;
705.0000;0.6463;-0.2203;
705.3000;0.6439;-0.2322;
705.6000;0.6439;-0.2346;
705.9000;0.6496;-0.2227;
706.2000;0.6463;-0.2251;
706.5000;0.6414;-0.2346;
706.8000;0.6447;-0.2275;
707.1000;0.6431;-0.2298;
707.4000;0.6422;-0.2275;
707.7000;0.6406;-0.2298;
708.0000;0.6406;-0.2346;
708.3000;0.6447;-0.2227;
708.6000;0.6431;-0.2275;
708.9000;0.6390;-0.2298;
709.2000;0.6488;-0.2061;
709.5000;0.6398;-0.2369;
709.8000;0.6414;-0.2322;
710.1000;0.6406;-0.2298;
710.4000;0.6422;-0.2227;
710.7000;0.6422;-0.2275;
711.0000;0.6504;-0.2061;
711.3000;0.6382;-0.2298;
711.6000;0.6439;-0.2180;
711.9000;0.6431;-0.2251;
712.2000;0.6414;-0.2275;
712.5000;0.6431;-0.2275;
712.8000;0.6414;-0.2251;
713.1000;0.6390;-0.2203;
713.4000;0.6406;-0.2109;
713.7000;0.6398;-0.2038;
714.0000;0.6374;-0.2156;
714.3000;0.6357;-0.2132;
714.6000;0.6398;-0.2085;
714.9000;0.6406;-0.2180;
715.2000;0.6406;-0.2180;
715.5000;0.6374;-0.2180;
715.8000;0.6382;-0.2061;
716.1000;0.6390;-0.2038;
716.4000;0.6365;-0.2156;
716.7000;0.6382;-0.2085;
717.0000;0.6382;-0.2109;
717.3000;0.6382;-0.2061;
717.6000;0.6374;-0.2132;
717.9000;0.6374;-0.2038;
718.2000;0.6374;-0.2132;
718.5000;0.6374;-0.2180;
718.8000;0.6390;-0.2203;
719.1000;0.6341;-0.2203;
719.4000;0.6341;-0.2109;
719.7000;0.6365;-0.2014;
720.0000;0.6382;-0.1895;
720.3000;0.6357;-0.1895;
720.6000;0.6341;-0.1990;
720.9000;0.6349;-0.1990;
721.2000;0.6349;-0.1990;
721.5000;0.6333;-0.2109;
721.8000;0.6309;-0.2251;
722.1000;0.6357;-0.2203;
722.4000;0.6333;-0.2180;
722.7000;0.6382;-0.1967;
723.0000;0.6317;-0.2085;
723.3000;0.6325;-0.2061;
723.6000;0.6349;-0.2038;
723.9000;0.6341;-0.2038;
724.2000;0.6365;-0.1919;
724.5000;0.6349;-0.2014;
724.8000;0.6333;-0.1990;
725.1000;0.6292;-0.2014;
725.4000;0.6317;-0.2038;
725.7000;0.6309;-0.2132;
726.0000;0.6300;-0.2109;
726.3000;0.6333;-0.2038;
726.6000;0.6300;-0.2156;
726.9000;0.6325;-0.2156;
727.2000;0.6211;-0.2417;
727.5000;0.6317;-0.2251;
727.8000;0.6300;-0.2227;
728.1000;0.6317;-0.2227;
728.4000;0.6357;-0.2156;
728.7000;0.6309;-0.2227;
729.0000;0.6325;-0.2132;
729.3000;0.6309;-0.2156;
729.6000;0.6268;-0.2322;
729.9000;0.6325;-0.2251;
730.2000;0.6292;-0.2251;
730.5000;0.6309;-0.2203;
730.8000;0.6309;-0.2156;
731.1000;0.6260;-0.2298;
731.4000;0.6357;-0.1943;
731.7000;0.6317;-0.2085;
732.0000;0.6333;-0.2014;
732.3000;0.6284;-0.2061;
732.6000;0.6284;-0.2038;
732.9000;0.6243;-0.2227;
733.2000;0.6219;-0.2227;
733.5000;0.6276;-0.2061;
733.8000;0.6300;-0.1919;
734.1000;0.6268;-0.1990;
734.4000;0.6260;-0.1967;
734.7000;0.6300;-0.1872;
735.0000;0.6333;-0.1824;
735.3000;0.6268;-0.1919;
735.6000;0.6276;-0.1967;
735.9000;0.6260;-0.2014;
736.2000;0.6276;-0.2014;
736.5000;0.6260;-0.1990;
736.8000;0.6252;-0.2061;
737.1000;0.6260;-0.2085;
737.4000;0.6252;-0.2132;
737.7000;0.6227;-0.2203;
738.0000;0.6260;-0.2132;
738.3000;0.6260;-0.2085;
738.6000;0.6260;-0.2061;
738.9000;0.6260;-0.2038;
739.2000;0.6235;-0.2061;
739.5000;0.6243;-0.2038;
739.8000;0.6243;-0.2109;
740.1000;0.6243;-0.2156;
740.4000;0.6243;-0.2203;
740.7000;0.6227;-0.2275;
741.0000;0.6235;-0.2298;
741.3000;0.6252;-0.2322;
741.6000;0.6243;-0.2393;
741.9000;0.6219;-0.2488;
742.2000;0.6227;-0.2346;
742.5000;0.6243;-0.2251;
742.8000;0.6243;-0.2085;
743.1000;0.6243;-0.2061;
743.4000;0.6219;-0.2061;
743.7000;0.6219;-0.2038;
744.0000;0.6227;-0.2014;
744.3000;0.6235;-0.1990;
744.6000;0.6203;-0.2038;
744.9000;0.6235;-0.1967;
745.2000;0.6243;-0.1895;
745.5000;0.6227;-0.1848;
745.8000;0.6260;-0.1753;
746.1000;0.6219;-0.1872;
746.4000;0.6186;-0.2038;
746.7000;0.6227;-0.2038;
747.0000;0.6235;-0.1990;
747.3000;0.6243;-0.1990;
747.6000;0.6211;-0.2085;
747.9000;0.6243;-0.2061;
748.2000;0.6284;-0.1943;
748.5000;0.6227;-0.2085;
748.8000;0.6195;-0.2061;
749.1000;0.6203;-0.2014;
749.4000;0.6203;-0.2109;
749.7000;0.6203;-0.2109;
750.0000;0.6235;-0.2014;
750.3000;0.6146;-0.2203;
750.6000;0.6211;-0.1990;
750.9000;0.6203;-0.1895;
751.2000;0.6227;-0.1848;
751.5000;0.6219;-0.1872;
751.8000;0.6203;-0.1895;
752.1000;0.6203;-0.1919;
752.4000;0.6203;-0.1895;
752.7000;0.6195;-0.1919;
753.0000;0.6195;-0.1943;
753.3000;0.6284;-0.1801;
753.6000;0.6146;-0.2180;
753.9000;0.6186;-0.2038;
754.2000;0.6203;-0.1990;
754.5000;0.6186;-0.1967;
754.8000;0.6186;-0.1872;
755.1000;0.6203;-0.1706;
755.4000;0.6195;-0.1730;
755.7000;0.6195;-0.1682;
756.0000;0.6129;-0.1824;
756.3000;0.6186;-0.1753;
756.6000;0.6178;-0.1824;
756.9000;0.6195;-0.1753;
757.2000;0.6195;-0.1753;
757.5000;0.6170;-0.1777;
757.8000;0.6162;-0.1682;
758.1000;0.6178;-0.1682;
758.4000;0.6186;-0.1753;
758.7000;0.6162;-0.1824;
759.0000;0.6162;-0.1824;
759.3000;0.6162;-0.1872;
759.6000;0.6170;-0.1824;
759.9000;0.6162;-0.1895;
760.2000;0.6146;-0.1990;
760.5000;0.6162;-0.1943;
760.8000;0.6178;-0.1919;
761.1000;0.6170;-0.1967;
761.4000;0.6162;-0.2038;
761.7000;0.6170;-0.2038;
762.0000;0.6146;-0.2061;
762.3000;0.6178;-0.1967;
762.6000;0.6146;-0.2014;
762.9000;0.6154;-0.1967;
763.2000;0.6170;-0.1824;
763.5000;0.6162;-0.1872;
763.8000;0.6162;-0.1824;
764.1000;0.6154;-0.1848;
764.4000;0.6154;-0.1824;
764.7000;0.6154;-0.1895;
765.0000;0.6146;-0.1967;
765.3000;0.6138;-0.1967;
765.6000;0.6154;-0.2014;
765.9000;0.6154;-0.2038;
766.2000;0.6146;-0.2085;
766.5000;0.6146;-0.2061;
766.8000;0.6121;-0.2061;
767.1000;0.6162;-0.1848;
767.4000;0.6146;-0.1872;
767.7000;0.6162;-0.1919;
768.0000;0.6154;-0.1990;
768.3000;0.6146;-0.1967;
768.6000;0.6138;-0.1895;
768.9000;0.6113;-0.1895;
769.2000;0.6138;-0.1848;
769.5000;0.6121;-0.1943;
769.8000;0.6129;-0.1895;
770.1000;0.6146;-0.1895;
770.4000;0.6089;-0.2061;
770.7000;0.6138;-0.1895;
771.0000;0.6170;-0.1801;
771.3000;0.6170;-0.1777;
771.6000;0.6146;-0.1824;
771.9000;0.6089;-0.1848;
772.2000;0.6129;-0.1777;
772.5000;0.6170;-0.1706;
772.8000;0.6138;-0.1801;
773.1000;0.6121;-0.1943;
773.4000;0.6097;-0.1919;
773.7000;0.6138;-0.1801;
774.0000;0.6121;-0.1777;
774.3000;0.6072;-0.1943;
774.6000;0.6129;-0.1801;
774.9000;0.6129;-0.1895;
775.2000;0.6097;-0.1919;
775.5000;0.6105;-0.1919;
775.8000;0.6113;-0.1848;
776.1000;0.6121;-0.1777;
776.4000;0.6121;-0.1801;
776.7000;0.6097;-0.1824;
777.0000;0.6105;-0.1824;
777.3000;0.6105;-0.1872;
777.6000;0.6105;-0.1943;
777.9000;0.6081;-0.1943;
778.2000;0.6097;-0.1895;
778.5000;0.6097;-0.1848;
778.8000;0.6089;-0.1824;
779.1000;0.6129;-0.1801;
779.4000;0.6105;-0.1706;
779.7000;0.6105;-0.1659;
780.0000;0.6089;-0.1540;
780.3000;0.6089;-0.1635;
780.6000;0.6097;-0.1611;
780.9000;0.6097;-0.1564;
781.2000;0.6089;-0.1611;
781.5000;0.6081;-0.1635;
781.8000;0.6097;-0.1706;
782.1000;0.6105;-0.1730;
782.4000;0.6097;-0.1848;
782.7000;0.6105;-0.1943;
783.0000;0.6097;-0.1895;
783.3000;0.6097;-0.1990;
783.6000;0.6105;-0.2014;
783.9000;0.6089;-0.1967;
784.2000;0.6097;-0.1967;
784.5000;0.6097;-0.1943;
784.8000;0.6081;-0.1990;
785.1000;0.6089;-0.2014;
785.4000;0.6089;-0.2038;
785.7000;0.6089;-0.2109;
786.0000;0.6072;-0.2132;
786.3000;0.6081;-0.2014;
786.6000;0.6056;-0.2061;
786.9000;0.6064;-0.2109;
787.2000;0.6089;-0.2038;
787.5000;0.6089;-0.2014;
787.8000;0.6048;-0.2132;
788.1000;0.6064;-0.2014;
788.4000;0.6072;-0.1919;
788.7000;0.6105;-0.1895;
789.0000;0.6081;-0.1872;
789.3000;0.6081;-0.1919;
789.6000;0.6048;-0.1895;
789.9000;0.6056;-0.1872;
790.2000;0.6072;-0.1895;
790.5000;0.6064;-0.1919;
790.8000;0.6032;-0.2085;
791.1000;0.6056;-0.1943;
791.4000;0.6064;-0.1872;
791.7000;0.6089;-0.1824;
792.0000;0.6056;-0.1753;
792.3000;0.6056;-0.1801;
792.6000;0.6064;-0.1777;
792.9000;0.6040;-0.1824;
793.2000;0.6048;-0.1801;
793.5000;0.6072;-0.1730;
793.8000;0.6040;-0.1848;
794.1000;0.6072;-0.1753;
794.4000;0.6056;-0.1730;
794.7000;0.6056;-0.1730;
795.0000;0.6032;-0.1777;
795.3000;0.6032;-0.1848;
795.6000;0.6064;-0.1706;
795.9000;0.6056;-0.1706;
796.2000;0.6048;-0.1659;
796.5000;0.6048;-0.1611;
796.8000;0.6056;-0.1540;
797.1000;0.6048;-0.1587;
797.4000;0.5999;-0.1706;
797.7000;0.6032;-0.1682;
798.0000;0.6056;-0.1706;
798.3000;0.6089;-0.1635;
798.6000;0.6032;-0.1753;
798.9000;0.6040;-0.1659;
799.2000;0.6048;-0.1635;
799.5000;0.6032;-0.1611;
799.8000;0.6032;-0.1659;
800.1000;0.6032;-0.1635;
800.4000;0.6072;-0.1540;
800.7000;0.6032;-0.1587;
801.0000;0.6048;-0.1564;
801.3000;0.6032;-0.1564;
801.6000;0.6048;-0.1611;
801.9000;0.6048;-0.1777;
802.2000;0.6015;-0.1777;
802.5000;0.6024;-0.1706;
802.8000;0.5975;-0.1848;
803.1000;0.6024;-0.1730;
803.4000;0.6032;-0.1848;
803.7000;0.6015;-0.1872;
804.0000;0.6024;-0.1943;
804.3000;0.6032;-0.1824;
804.6000;0.6048;-0.1919;
804.9000;0.6032;-0.1990;
805.2000;0.6015;-0.2014;
805.5000;0.6015;-0.2014;
805.8000;0.6032;-0.1943;
806.1000;0.6032;-0.1919;
806.4000;0.6032;-0.1872;
806.7000;0.5999;-0.1967;
807.0000;0.6032;-0.1848;
807.3000;0.6032;-0.1872;
807.6000;0.6032;-0.1753;
807.9000;0.6032;-0.1706;
808.2000;0.6024;-0.1753;
808.5000;0.6024;-0.1730;
808.8000;0.6032;-0.1777;
809.1000;0.6040;-0.1659;
809.4000;0.6024;-0.1730;
809.7000;0.6032;-0.1753;
810.0000;0.6015;-0.1730;
810.3000;0.6024;-0.1753;
810.6000;0.6032;-0.1801;
810.9000;0.6024;-0.1777;
811.2000;0.5999;-0.1824;
811.5000;0.6015;-0.1753;
811.8000;0.5950;-0.1872;
812.1000;0.6024;-0.1682;
812.4000;0.6015;-0.1635;
812.7000;0.6024;-0.1730;
813.0000;0.5999;-0.1848;
813.3000;0.6007;-0.1824;
813.6000;0.6007;-0.1824;
813.9000;0.6007;-0.1824;
814.2000;0.6015;-0.1801;
814.5000;0.6007;-0.1777;
814.8000;0.6015;-0.1777;
815.1000;0.6015;-0.1872;
815.4000;0.6015;-0.1872;
815.7000;0.6024;-0.1824;
816.0000;0.6007;-0.1824;
816.3000;0.6007;-0.1801;
816.6000;0.5999;-0.1848;
816.9000;0.6072;-0.1682;
817.2000;0.5999;-0.1753;
817.5000;0.5999;-0.1824;
817.8000;0.5991;-0.1824;
818.1000;0.5991;-0.1730;
818.4000;0.5991;-0.1635;
818.7000;0.5983;-0.1659;
819.0000;0.5983;-0.1730;
819.3000;0.5967;-0.1777;
819.6000;0.5991;-0.1706;
819.9000;0.6064;-0.1540;
820.2000;0.6007;-0.1706;
820.5000;0.5991;-0.1753;
820.8000;0.5991;-0.1706;
821.1000;0.6015;-0.1753;
821.4000;0.6015;-0.1753;
821.7000;0.5991;-0.1777;
822.0000;0.5991;-0.1824;
822.3000;0.5991;-0.1801;
822.6000;0.5999;-0.1777;
822.9000;0.5991;-0.1682;
823.2000;0.5958;-0.1777;
823.5000;0.5885;-0.1967;
823.8000;0.5999;-0.1635;
824.1000;0.5983;-0.1730;
824.4000;0.5975;-0.1801;
824.7000;0.5958;-0.1801;
825.0000;0.6007;-0.1706;
825.3000;0.5975;-0.1848;
825.6000;0.5983;-0.1895;
825.9000;0.5975;-0.1848;
826.2000;0.6048;-0.1611;
826.5000;0.6032;-0.1801;
826.8000;0.5975;-0.1990;
827.1000;0.6040;-0.1824;
827.4000;0.5975;-0.1919;
827.7000;0.5991;-0.1824;
828.0000;0.5926;-0.1990;
828.3000;0.5958;-0.1848;
828.6000;0.6007;-0.1801;
828.9000;0.5975;-0.1848;
829.2000;0.5991;-0.1872;
829.5000;0.5983;-0.1872;
829.8000;0.5942;-0.1943;
830.1000;0.5983;-0.1777;
830.4000;0.5975;-0.1872;
830.7000;0.5983;-0.1824;
831.0000;0.5975;-0.1848;
831.3000;0.5983;-0.1848;
831.6000;0.5975;-0.1872;
831.9000;0.5958;-0.1919;
832.2000;0.5967;-0.1848;
832.5000;0.5975;-0.1848;
832.8000;0.5967;-0.1753;
833.1000;0.5958;-0.1753;
833.4000;0.5983;-0.1682;
833.7000;0.5983;-0.1659;
834.0000;0.5975;-0.1611;
834.3000;0.5967;-0.1635;
834.6000;0.5983;-0.1611;
834.9000;0.5983;-0.1635;
835.2000;0.5958;-0.1635;
835.5000;0.5975;-0.1659;
835.8000;0.5958;-0.1635;
836.1000;0.5967;-0.1635;
836.4000;0.5967;-0.1635;
836.7000;0.5967;-0.1659;
837.0000;0.5950;-0.1753;
837.3000;0.5958;-0.1635;
837.6000;0.5958;-0.1682;
837.9000;0.5958;-0.1753;
838.2000;0.5958;-0.1753;
838.5000;0.5950;-0.1730;
838.8000;0.5958;-0.1682;
839.1000;0.5950;-0.1682;
839.4000;0.5942;-0.1730;
839.7000;0.5934;-0.1801;
840.0000;0.5958;-0.1801;
840.3000;0.5967;-0.1777;
840.6000;0.5975;-0.1635;
840.9000;0.5975;-0.1611;
841.2000;0.5967;-0.1611;
841.5000;0.5975;-0.1611;
841.8000;0.5975;-0.1587;
842.1000;0.5950;-0.1635;
842.4000;0.5934;-0.1706;
842.7000;0.5910;-0.1753;
843.0000;0.5958;-0.1659;
843.3000;0.5975;-0.1587;
843.6000;0.5950;-0.1587;
843.9000;0.5999;-0.1445;
844.2000;0.5869;-0.1753;
844.5000;0.5902;-0.1635;
844.8000;0.5934;-0.1516;
845.1000;0.5942;-0.1516;
845.4000;0.5958;-0.1516;
845.7000;0.5934;-0.1611;
846.0000;0.5958;-0.1706;
846.3000;0.5950;-0.1777;
846.6000;0.5950;-0.1706;
846.9000;0.5958;-0.1730;
847.2000;0.5934;-0.1706;
847.5000;0.5934;-0.1682;
847.8000;0.5950;-0.1682;
848.1000;0.5975;-0.1587;
848.4000;0.5934;-0.1706;
848.7000;0.5926;-0.1682;
849.0000;0.5950;-0.1611;
849.3000;0.5983;-0.1587;
849.6000;0.5934;-0.1682;
849.9000;0.5934;-0.1611;
850.2000;0.5942;-0.1611;
850.5000;0.5942;-0.1611;
850.8000;0.5942;-0.1659;
851.1000;0.5958;-0.1635;
851.4000;0.5942;-0.1730;
851.7000;0.5942;-0.1682;
852.0000;0.5991;-0.1587;
852.3000;0.5942;-0.1730;
852.6000;0.5950;-0.1706;
852.9000;0.5934;-0.1706;
853.2000;0.5926;-0.1824;
853.5000;0.5926;-0.1801;
853.8000;0.5950;-0.1777;
854.1000;0.5934;-0.1801;
854.4000;0.5918;-0.1824;
854.7000;0.5910;-0.1872;
855.0000;0.5918;-0.1872;
855.3000;0.5934;-0.1824;
855.6000;0.5934;-0.1777;
855.9000;0.5926;-0.1753;
856.2000;0.5902;-0.1777;
856.5000;0.5877;-0.1801;
856.8000;0.5934;-0.1540;
857.1000;0.5942;-0.1516;
857.4000;0.5918;-0.1564;
857.7000;0.5885;-0.1730;
858.0000;0.5910;-0.1682;
858.3000;0.5910;-0.1635;
858.6000;0.5926;-0.1635;
858.9000;0.5918;-0.1587;
859.2000;0.5926;-0.1611;
859.5000;0.5910;-0.1635;
859.8000;0.5942;-0.1540;
860.1000;0.5910;-0.1564;
860.4000;0.5902;-0.1753;
860.7000;0.5942;-0.1706;
861.0000;0.5918;-0.1753;
861.3000;0.5926;-0.1753;
861.6000;0.5918;-0.1777;
861.9000;0.5902;-0.1872;
862.2000;0.5926;-0.1801;
862.5000;0.5893;-0.1848;
862.8000;0.5902;-0.1872;
863.1000;0.5893;-0.1824;
863.4000;0.5877;-0.1848;
863.7000;0.5902;-0.1706;
864.0000;0.5885;-0.1659;
864.3000;0.5926;-0.1611;
864.6000;0.5934;-0.1540;
864.9000;0.5853;-0.1801;
865.2000;0.5885;-0.1753;
865.5000;0.5918;-0.1682;
865.8000;0.5902;-0.1659;
866.1000;0.5893;-0.1659;
866.4000;0.5910;-0.1682;
866.7000;0.5902;-0.1659;
867.0000;0.5918;-0.1659;
867.3000;0.5893;-0.1682;
867.6000;0.5910;-0.1706;
867.9000;0.5893;-0.1753;
868.2000;0.5942;-0.1635;
868.5000;0.5975;-0.1587;
868.8000;0.5893;-0.1730;
869.1000;0.5910;-0.1635;
869.4000;0.5902;-0.1730;
869.7000;0.5910;-0.1706;
870.0000;0.5910;-0.1706;
870.3000;0.5910;-0.1635;
870.6000;0.5836;-0.1848;
870.9000;0.5893;-0.1730;
871.2000;0.5918;-0.1706;
871.5000;0.5910;-0.1777;
871.8000;0.5869;-0.1824;
872.1000;0.5893;-0.1777;
872.4000;0.5910;-0.1659;
872.7000;0.5902;-0.1635;
873.0000;0.5861;-0.1682;
873.3000;0.5893;-0.1659;
873.6000;0.5910;-0.1635;
873.9000;0.5902;-0.1659;
874.2000;0.5893;-0.1635;
874.5000;0.5885;-0.1635;
874.8000;0.5885;-0.1706;
875.1000;0.5902;-0.1611;
875.4000;0.5885;-0.1635;
875.7000;0.5893;-0.1635;
876.0000;0.5902;-0.1611;
876.3000;0.5885;-0.1635;
876.6000;0.5902;-0.1611;
876.9000;0.5885;-0.1540;
877.2000;0.5893;-0.1564;
877.5000;0.5902;-0.1540;
877.8000;0.5918;-0.1469;
878.1000;0.5893;-0.1469;
878.4000;0.5885;-0.1493;
878.7000;0.5893;-0.1493;
879.0000;0.5885;-0.1516;
879.3000;0.5885;-0.1493;
879.6000;0.5877;-0.1516;
879.9000;0.5885;-0.1516;
880.2000;0.5893;-0.1540;
880.5000;0.5926;-0.1469;
880.8000;0.5877;-0.1587;
881.1000;0.5885;-0.1587;
881.4000;0.5885;-0.1659;
881.7000;0.5885;-0.1753;
882.0000;0.5902;-0.1801;
882.3000;0.5804;-0.1943;
882.6000;0.5836;-0.1895;
882.9000;0.5869;-0.1753;
883.2000;0.5885;-0.1824;
883.5000;0.5877;-0.1895;
883.8000;0.5861;-0.1848;
884.1000;0.5869;-0.1848;
884.4000;0.5861;-0.1848;
884.7000;0.5869;-0.1801;
885.0000;0.5869;-0.1872;
885.3000;0.5877;-0.1801;
885.6000;0.5869;-0.1801;
885.9000;0.5861;-0.1872;
886.2000;0.5828;-0.2038;
886.5000;0.5885;-0.1872;
886.8000;0.5885;-0.1848;
887.1000;0.5885;-0.1848;
887.4000;0.5885;-0.1872;
887.7000;0.5885;-0.1848;
888.0000;0.5885;-0.1730;
888.3000;0.5877;-0.1730;
888.6000;0.5893;-0.1682;
888.9000;0.5861;-0.1706;
889.2000;0.5877;-0.1682;
889.5000;0.5877;-0.1753;
889.8000;0.5861;-0.1848;
890.1000;0.5893;-0.1848;
890.4000;0.5877;-0.1872;
890.7000;0.5877;-0.1872;
891.0000;0.5820;-0.1967;
891.3000;0.5853;-0.1872;
891.6000;0.5885;-0.1801;
891.9000;0.5869;-0.1872;
892.2000;0.5877;-0.1872;
892.5000;0.5869;-0.1895;
892.8000;0.5885;-0.1848;
893.1000;0.5885;-0.1872;
893.4000;0.5861;-0.1919;
893.7000;0.5869;-0.1943;
894.0000;0.5967;-0.1682;
894.3000;0.5885;-0.1824;
894.6000;0.5918;-0.1682;
894.9000;0.5861;-0.1682;
895.2000;0.5877;-0.1587;
895.5000;0.5861;-0.1516;
895.8000;0.5861;-0.1445;
896.1000;0.5853;-0.1469;
896.4000;0.5869;-0.1445;
896.7000;0.5869;-0.1445;
897.0000;0.5853;-0.1540;
897.3000;0.5853;-0.1611;
897.6000;0.5861;-0.1587;
897.9000;0.5861;-0.1516;
898.2000;0.5869;-0.1469;
898.5000;0.5861;-0.1469;
898.8000;0.5869;-0.1493;
899.1000;0.5893;-0.1469;
899.4000;0.5893;-0.1493;
899.7000;0.5853;-0.1422;
900.0000;0.5853;-0.1469;
900.3000;0.5845;-0.1493;
900.6000;0.5845;-0.1516;
900.9000;0.5885;-0.1469;
901.2000;0.5853;-0.1445;
901.5000;0.5845;-0.1469;
901.8000;0.5861;-0.1422;
902.1000;0.5853;-0.1493;
902.4000;0.5861;-0.1469;
902.7000;0.5861;-0.1516;
903.0000;0.5869;-0.1564;
903.3000;0.5869;-0.1516;
903.6000;0.5861;-0.1445;
903.9000;0.5861;-0.1445;
904.2000;0.5861;-0.1351;
904.5000;0.5869;-0.1303;
904.8000;0.5861;-0.1351;
905.1000;0.5845;-0.1422;
905.4000;0.5828;-0.1422;
905.7000;0.5853;-0.1422;
906.0000;0.5869;-0.1445;
906.3000;0.5853;-0.1469;
906.6000;0.5836;-0.1540;
906.9000;0.5828;-0.1659;
907.2000;0.5836;-0.1659;
907.5000;0.5820;-0.1730;
907.8000;0.5812;-0.1659;
908.1000;0.5836;-0.1635;
908.4000;0.5853;-0.1611;
908.7000;0.5828;-0.1682;
909.0000;0.5820;-0.1611;
909.3000;0.5845;-0.1493;
909.6000;0.5869;-0.1469;
909.9000;0.5845;-0.1611;
910.2000;0.5845;-0.1587;
910.5000;0.5845;-0.1587;
910.8000;0.5853;-0.1493;
911.1000;0.5869;-0.1516;
911.4000;0.5836;-0.1659;
911.7000;0.5828;-0.1801;
912.0000;0.5836;-0.1777;
912.3000;0.5828;-0.1824;
912.6000;0.5836;-0.1919;
912.9000;0.5845;-0.1730;
913.2000;0.5853;-0.1706;
913.5000;0.5861;-0.1659;
913.8000;0.5836;-0.1777;
914.1000;0.5828;-0.1682;
914.4000;0.5845;-0.1587;
914.7000;0.5861;-0.1540;
915.0000;0.5845;-0.1564;
915.3000;0.5845;-0.1659;
915.6000;0.5861;-0.1635;
915.9000;0.5861;-0.1587;
916.2000;0.5828;-0.1635;
916.5000;0.5845;-0.1564;
916.8000;0.5845;-0.1611;
917.1000;0.5836;-0.1635;
917.4000;0.5845;-0.1635;
917.7000;0.5828;-0.1587;
918.0000;0.5828;-0.1564;
918.3000;0.5836;-0.1540;
918.6000;0.5828;-0.1659;
918.9000;0.5853;-0.1493;
919.2000;0.5836;-0.1564;
919.5000;0.5845;-0.1587;
919.8000;0.5788;-0.1659;
920.1000;0.5804;-0.1564;
920.4000;0.5845;-0.1540;
920.7000;0.5828;-0.1682;
921.0000;0.5885;-0.1564;
921.3000;0.5820;-0.1635;
921.6000;0.5828;-0.1587;
921.9000;0.5836;-0.1587;
922.2000;0.5820;-0.1516;
922.5000;0.5836;-0.1493;
922.8000;0.5836;-0.1516;
923.1000;0.5812;-0.1516;
923.4000;0.5828;-0.1493;
923.7000;0.5828;-0.1493;
924.0000;0.5828;-0.1469;
924.3000;0.5828;-0.1469;
924.6000;0.5812;-0.1493;
924.9000;0.5828;-0.1493;
925.2000;0.5836;-0.1540;
925.5000;0.5845;-0.1540;
925.8000;0.5812;-0.1564;
926.1000;0.5836;-0.1516;
926.4000;0.5853;-0.1635;
926.7000;0.5836;-0.1611;
927.0000;0.5836;-0.1611;
927.3000;0.5836;-0.1564;
927.6000;0.5853;-0.1587;
927.9000;0.5836;-0.1540;
928.2000;0.5820;-0.1493;
928.5000;0.5779;-0.1587;
928.8000;0.5877;-0.1422;
929.1000;0.5812;-0.1516;
929.4000;0.5812;-0.1516;
929.7000;0.5828;-0.1516;
930.0000;0.5820;-0.1493;
930.3000;0.5739;-0.1611;
930.6000;0.5796;-0.1540;
930.9000;0.5747;-0.1659;
931.2000;0.5820;-0.1398;
931.5000;0.5836;-0.1351;
931.8000;0.5812;-0.1445;
932.1000;0.5828;-0.1469;
932.4000;0.5812;-0.1469;
932.7000;0.5828;-0.1351;
933.0000;0.5812;-0.1351;
933.3000;0.5820;-0.1327;
933.6000;0.5804;-0.1374;
933.9000;0.5836;-0.1398;
934.2000;0.5820;-0.1469;
934.5000;0.5812;-0.1540;
934.8000;0.5779;-0.1611;
935.1000;0.5820;-0.1564;
935.4000;0.5812;-0.1587;
935.7000;0.5869;-0.1516;
936.0000;0.5755;-0.1801;
936.3000;0.5812;-0.1682;
936.6000;0.5836;-0.1587;
936.9000;0.5788;-0.1611;
937.2000;0.5820;-0.1493;
937.5000;0.5820;-0.1493;
937.8000;0.5836;-0.1422;
938.1000;0.5877;-0.1398;
938.4000;0.5836;-0.1587;
938.7000;0.5853;-0.1564;
939.0000;0.5812;-0.1682;
939.3000;0.5836;-0.1659;
939.6000;0.5820;-0.1587;
939.9000;0.5820;-0.1564;
940.2000;0.5796;-0.1659;
940.5000;0.5820;-0.1659;
940.8000;0.5820;-0.1635;
941.1000;0.5804;-0.1730;
941.4000;0.5820;-0.1753;
941.7000;0.5902;-0.1493;
942.0000;0.5820;-0.1635;
942.3000;0.5820;-0.1635;
942.6000;0.5804;-0.1706;
942.9000;0.5836;-0.1469;
943.2000;0.5796;-0.1587;
943.5000;0.5812;-0.1587;
943.8000;0.5779;-0.1611;
944.1000;0.5804;-0.1540;
944.4000;0.5804;-0.1493;
944.7000;0.5804;-0.1398;
945.0000;0.5845;-0.1256;
945.3000;0.5812;-0.1445;
945.6000;0.5804;-0.1374;
945.9000;0.5804;-0.1422;
946.2000;0.5796;-0.1516;
946.5000;0.5812;-0.1493;
946.8000;0.5779;-0.1564;
947.1000;0.5796;-0.1469;
947.4000;0.5804;-0.1493;
947.7000;0.5779;-0.1516;
948.0000;0.5812;-0.1469;
948.3000;0.5812;-0.1469;
948.6000;0.5804;-0.1445;
948.9000;0.5796;-0.1445;
949.2000;0.5796;-0.1398;
949.5000;0.5804;-0.1445;
949.8000;0.5812;-0.1445;
950.1000;0.5796;-0.1469;
950.4000;0.5796;-0.1516;
950.7000;0.5812;-0.1469;
951.0000;0.5812;-0.1422;
951.3000;0.5893;-0.1208;
951.6000;0.5820;-0.1351;
951.9000;0.5861;-0.1279;
952.2000;0.5820;-0.1351;
952.5000;0.5820;-0.1351;
952.8000;0.5812;-0.1422;
953.1000;0.5820;-0.1422;
953.4000;0.5836;-0.1374;
953.7000;0.5796;-0.1398;
954.0000;0.5796;-0.1351;
954.3000;0.5788;-0.1398;
954.6000;0.5796;-0.1327;
954.9000;0.5779;-0.1351;
955.2000;0.5853;-0.1256;
955.5000;0.5804;-0.1327;
955.8000;0.5812;-0.1256;
956.1000;0.5804;-0.1303;
956.4000;0.5812;-0.1374;
956.7000;0.5796;-0.1398;
957.0000;0.5812;-0.1351;
957.3000;0.5812;-0.1279;
957.6000;0.5812;-0.1303;
957.9000;0.5796;-0.1351;
958.2000;0.5812;-0.1327;
958.5000;0.5828;-0.1279;
958.8000;0.5796;-0.1327;
959.1000;0.5779;-0.1398;
959.4000;0.5820;-0.1279;
959.7000;0.5796;-0.1398;
960.0000;0.5796;-0.1422;
960.3000;0.5804;-0.1445;
960.6000;0.5771;-0.1516;
960.9000;0.5804;-0.1351;
961.2000;0.5771;-0.1445;
961.5000;0.5796;-0.1398;
961.8000;0.5804;-0.1303;
962.1000;0.5763;-0.1374;
962.4000;0.5804;-0.1208;
962.7000;0.5804;-0.1256;
963.0000;0.5779;-0.1303;
963.3000;0.5739;-0.1398;
963.6000;0.5747;-0.1303;
963.9000;0.5804;-0.1208;
964.2000;0.5779;-0.1137;
964.5000;0.5804;-0.1066;
964.8000;0.5804;-0.1019;
965.1000;0.5779;-0.1042;
965.4000;0.5788;-0.1042;
965.7000;0.5788;-0.1137;
966.0000;0.5828;-0.1042;
966.3000;0.5812;-0.1090;
966.6000;0.5812;-0.1114;
966.9000;0.5788;-0.1161;
967.2000;0.5788;-0.1185;
967.5000;0.5804;-0.1256;
967.8000;0.5747;-0.1303;
968.1000;0.5788;-0.1232;
968.4000;0.5779;-0.1256;
968.7000;0.5788;-0.1256;
969.0000;0.5804;-0.1185;
969.3000;0.5796;-0.1232;
969.6000;0.5779;-0.1303;
969.9000;0.5779;-0.1351;
970.2000;0.5779;-0.1374;
970.5000;0.5788;-0.1279;
970.8000;0.5796;-0.1161;
971.1000;0.5812;-0.1208;
971.4000;0.5771;-0.1279;
971.7000;0.5796;-0.1351;
972.0000;0.5771;-0.1374;
972.3000;0.5771;-0.1351;
972.6000;0.5788;-0.1279;
972.9000;0.5788;-0.1303;
973.2000;0.5788;-0.1303;
973.5000;0.5788;-0.1279;
973.8000;0.5788;-0.1232;
974.1000;0.5779;-0.1232;
974.4000;0.5796;-0.1161;
974.7000;0.5771;-0.1232;
975.0000;0.5779;-0.1185;
975.3000;0.5788;-0.1185;
975.6000;0.5779;-0.1185;
975.9000;0.5788;-0.1185;
976.2000;0.5796;-0.1161;
976.5000;0.5861;-0.1019;
976.8000;0.5796;-0.1185;
977.1000;0.5788;-0.1208;
977.4000;0.5771;-0.1232;
977.7000;0.5804;-0.1208;
978.0000;0.5788;-0.1279;
978.3000;0.5763;-0.1327;
978.6000;0.5788;-0.1279;
978.9000;0.5763;-0.1422;
979.2000;0.5779;-0.1422;
979.5000;0.5771;-0.1493;
979.8000;0.5771;-0.1540;
980.1000;0.5812;-0.1422;
980.4000;0.5820;-0.1469;
980.7000;0.5779;-0.1469;
981.0000;0.5796;-0.1445;
981.3000;0.5747;-0.1540;
981.6000;0.5771;-0.1398;
981.9000;0.5722;-0.1469;
982.2000;0.5731;-0.1398;
982.5000;0.5788;-0.1232;
982.8000;0.5763;-0.1351;
983.1000;0.5747;-0.1469;
983.4000;0.5771;-0.1422;
983.7000;0.5796;-0.1351;
984.0000;0.5788;-0.1374;
984.3000;0.5771;-0.1398;
984.6000;0.5796;-0.1256;
984.9000;0.5812;-0.1161;
985.2000;0.5796;-0.1232;
985.5000;0.5788;-0.1256;
985.8000;0.5796;-0.1374;
986.1000;0.5853;-0.1232;
986.4000;0.5796;-0.1469;
986.7000;0.5796;-0.1422;
987.0000;0.5812;-0.1351;
987.3000;0.5796;-0.1398;
987.6000;0.5779;-0.1445;
987.9000;0.5779;-0.1374;
988.2000;0.5788;-0.1303;
988.5000;0.5788;-0.1232;
988.8000;0.5771;-0.1279;
989.1000;0.5788;-0.1303;
989.4000;0.5796;-0.1279;
989.7000;0.5763;-0.1327;
990.0000;0.5828;-0.1161;
990.3000;0.5755;-0.1351;
990.6000;0.5763;-0.1279;
990.9000;0.5755;-0.1327;
991.2000;0.5771;-0.1327;
991.5000;0.5771;-0.1445;
991.8000;0.5771;-0.1469;
992.1000;0.5763;-0.1469;
992.4000;0.5763;-0.1422;
992.7000;0.5771;-0.1422;
993.0000;0.5779;-0.1422;
993.3000;0.5788;-0.1422;
993.6000;0.5763;-0.1493;
993.9000;0.5771;-0.1516;
994.2000;0.5771;-0.1445;
994.5000;0.5747;-0.1493;
994.8000;0.5804;-0.1327;
995.1000;0.5747;-0.1493;
995.4000;0.5771;-0.1398;
995.7000;0.5763;-0.1469;
996.0000;0.5788;-0.1422;
996.3000;0.5788;-0.1469;
996.6000;0.5763;-0.1516;
996.9000;0.5796;-0.1445;
997.2000;0.5755;-0.1469;
997.5000;0.5771;-0.1469;
997.8000;0.5771;-0.1469;
998.1000;0.5763;-0.1516;
998.4000;0.5788;-0.1493;
998.7000;0.5771;-0.1469;
999.0000;0.5739;-0.1611;
999.3000;0.5804;-0.1564;
999.6000;0.5788;-0.1682;
999.9000;0.5779;-0.1753;
1000.2000;0.5771;-0.1801;
1000.5000;0.5763;-0.1777;
1000.8000;0.5731;-0.1848;
1001.1000;0.5779;-0.1706;
1001.4000;0.5820;-0.1611;
1001.7000;0.5763;-0.1753;
1002.0000;0.5763;-0.1659;
1002.3000;0.5763;-0.1706;
1002.6000;0.5747;-0.1706;
1002.9000;0.5755;-0.1682;
1003.2000;0.5771;-0.1635;
1003.5000;0.5771;-0.1516;
1003.8000;0.5763;-0.1587;
1004.1000;0.5763;-0.1587;
1004.4000;0.5779;-0.1422;
1004.7000;0.5771;-0.1493;
1005.0000;0.5771;-0.1564;
1005.3000;0.5771;-0.1611;
1005.6000;0.5755;-0.1682;
1005.9000;0.5771;-0.1611;
1006.2000;0.5788;-0.1587;
1006.5000;0.5755;-0.1611;
1006.8000;0.5779;-0.1635;
1007.1000;0.5788;-0.1587;
1007.4000;0.5763;-0.1706;
1007.7000;0.5747;-0.1706;
1008.0000;0.5763;-0.1587;
1008.3000;0.5747;-0.1611;
1008.6000;0.5763;-0.1587;
1008.9000;0.5771;-0.1611;
1009.2000;0.5771;-0.1611;
1009.5000;0.5763;-0.1564;
1009.8000;0.5755;-0.1611;
1010.1000;0.5755;-0.1635;
1010.4000;0.5771;-0.1635;
1010.7000;0.5771;-0.1493;
1011.0000;0.5763;-0.1564;
1011.3000;0.5771;-0.1587;
1011.6000;0.5763;-0.1587;
1011.9000;0.5771;-0.1587;
1012.2000;0.5755;-0.1587;
1012.5000;0.5755;-0.1540;
1012.8000;0.5714;-0.1635;
1013.1000;0.5747;-0.1564;
1013.4000;0.5763;-0.1564;
1013.7000;0.5771;-0.1682;
1014.0000;0.5714;-0.1777;
1014.3000;0.5763;-0.1706;
1014.6000;0.5763;-0.1753;
1014.9000;0.5763;-0.1706;
1015.2000;0.5779;-0.1730;
1015.5000;0.5771;-0.1801;
1015.8000;0.5747;-0.1848;
1016.1000;0.5771;-0.1848;
1016.4000;0.5788;-0.1753;
1016.7000;0.5755;-0.1801;
1017.0000;0.5755;-0.1919;
1017.3000;0.5763;-0.1848;
1017.6000;0.5771;-0.1801;
1017.9000;0.5763;-0.1777;
1018.2000;0.5771;-0.1682;
1018.5000;0.5771;-0.1611;
1018.8000;0.5779;-0.1540;
1019.1000;0.5763;-0.1469;
1019.4000;0.5779;-0.1422;
1019.7000;0.5771;-0.1493;
1020.0000;0.5763;-0.1587;
1020.3000;0.5771;-0.1540;
1020.6000;0.5763;-0.1540;
1020.9000;0.5755;-0.1564;
1021.2000;0.5763;-0.1516;
1021.5000;0.5763;-0.1493;
1021.8000;0.5739;-0.1635;
1022.1000;0.5739;-0.1682;
1022.4000;0.5739;-0.1682;
1022.7000;0.5747;-0.1659;
1023.0000;0.5763;-0.1682;
1023.3000;0.5698;-0.1777;
1023.6000;0.5722;-0.1682;
1023.9000;0.5739;-0.1682;
1024.2000;0.5731;-0.1611;
1024.5000;0.5755;-0.1611;
1024.8000;0.5755;-0.1635;
1025.1000;0.5714;-0.1635;
1025.4000;0.5812;-0.1398;
1025.7000;0.5747;-0.1493;
1026.0000;0.5739;-0.1564;
1026.3000;0.5755;-0.1635;
1026.6000;0.5747;-0.1635;
1026.9000;0.5714;-0.1753;
1027.2000;0.5747;-0.1659;
1027.5000;0.5739;-0.1540;
1027.8000;0.5763;-0.1493;
1028.1000;0.5739;-0.1516;
1028.4000;0.5739;-0.1493;
1028.7000;0.5747;-0.1469;
1029.0000;0.5755;-0.1540;
1029.3000;0.5763;-0.1564;
1029.6000;0.5706;-0.1611;
1029.9000;0.5779;-0.1469;
1030.2000;0.5771;-0.1469;
1030.5000;0.5771;-0.1516;
1030.8000;0.5804;-0.1398;
1031.1000;0.5771;-0.1564;
1031.4000;0.5771;-0.1611;
1031.7000;0.5763;-0.1659;
1032.0000;0.5747;-0.1659;
1032.3000;0.5739;-0.1635;
1032.6000;0.5763;-0.1564;
1032.9000;0.5763;-0.1540;
1033.2000;0.5722;-0.1564;
1033.5000;0.5755;-0.1469;
1033.8000;0.5747;-0.1469;
1034.1000;0.5836;-0.1279;
1034.4000;0.5820;-0.1374;
1034.7000;0.5812;-0.1445;
1035.0000;0.5747;-0.1564;
1035.3000;0.5739;-0.1611;
1035.6000;0.5820;-0.1351;
1035.9000;0.5763;-0.1564;
1036.2000;0.5779;-0.1564;
1036.5000;0.5739;-0.1540;
1036.8000;0.5755;-0.1516;
1037.1000;0.5731;-0.1540;
1037.4000;0.5722;-0.1587;
1037.7000;0.5731;-0.1493;
1038.0000;0.5788;-0.1327;
1038.3000;0.5722;-0.1374;
1038.6000;0.5739;-0.1374;
1038.9000;0.5722;-0.1351;
1039.2000;0.5771;-0.1232;
1039.5000;0.5747;-0.1303;
1039.8000;0.5739;-0.1303;
1040.1000;0.5739;-0.1303;
1040.4000;0.5731;-0.1279;
1040.7000;0.5739;-0.1374;
1041.0000;0.5731;-0.1351;
1041.3000;0.5731;-0.1256;
1041.6000;0.5739;-0.1232;
1041.9000;0.5763;-0.1161;
1042.2000;0.5739;-0.1137;
1042.5000;0.5747;-0.1042;
1042.8000;0.5714;-0.1185;
1043.1000;0.5747;-0.1185;
1043.4000;0.5779;-0.1208;
1043.7000;0.5739;-0.1232;
1044.0000;0.5739;-0.1161;
1044.3000;0.5731;-0.1256;
1044.6000;0.5731;-0.1303;
1044.9000;0.5755;-0.1185;
1045.2000;0.5731;-0.1232;
1045.5000;0.5722;-0.1279;
1045.8000;0.5755;-0.1232;
1046.1000;0.5739;-0.1256;
1046.4000;0.5731;-0.1256;
1046.7000;0.5722;-0.1256;
1047.0000;0.5731;-0.1256;
1047.3000;0.5739;-0.1327;
1047.6000;0.5714;-0.1422;
1047.9000;0.5755;-0.1303;
1048.2000;0.5739;-0.1303;
1048.5000;0.5722;-0.1279;
1048.8000;0.5722;-0.1208;
1049.1000;0.5739;-0.1232;
1049.4000;0.5731;-0.1256;
1049.7000;0.5731;-0.1208;
1050.0000;0.5739;-0.1185;
1050.3000;0.5739;-0.1232;
1050.6000;0.5731;-0.1256;
1050.9000;0.5812;-0.1066;
1051.2000;0.5771;-0.1185;
1051.5000;0.5747;-0.1232;
1051.8000;0.5714;-0.1374;
1052.1000;0.5731;-0.1351;
1052.4000;0.5731;-0.1398;
1052.7000;0.5674;-0.1540;
1053.0000;0.5731;-0.1422;
1053.3000;0.5747;-0.1445;
1053.6000;0.5755;-0.1422;
1053.9000;0.5747;-0.1374;
1054.2000;0.5755;-0.1374;
1054.5000;0.5706;-0.1351;
1054.8000;0.5722;-0.1303;
1055.1000;0.5731;-0.1256;
1055.4000;0.5714;-0.1279;
1055.7000;0.5698;-0.1351;
1056.0000;0.5739;-0.1303;
1056.3000;0.5722;-0.1398;
1056.6000;0.5739;-0.1469;
1056.9000;0.5739;-0.1374;
1057.2000;0.5755;-0.1374;
1057.5000;0.5747;-0.1445;
1057.8000;0.5706;-0.1611;
1058.1000;0.5714;-0.1493;
1058.4000;0.5722;-0.1422;
1058.7000;0.5731;-0.1445;
1059.0000;0.5731;-0.1516;
1059.3000;0.5722;-0.1587;
1059.6000;0.5747;-0.1516;
1059.9000;0.5747;-0.1516;
1060.2000;0.5714;-0.1540;
1060.5000;0.5739;-0.1493;
1060.8000;0.5731;-0.1493;
1061.1000;0.5739;-0.1398;
1061.4000;0.5747;-0.1374;
1061.7000;0.5731;-0.1398;
1062.0000;0.5731;-0.1422;
1062.3000;0.5731;-0.1374;
1062.6000;0.5771;-0.1256;
1062.9000;0.5714;-0.1327;
1063.2000;0.5739;-0.1351;
1063.5000;0.5739;-0.1374;
1063.8000;0.5731;-0.1374;
1064.1000;0.5731;-0.1398;
1064.4000;0.5690;-0.1540;
1064.7000;0.5714;-0.1493;
1065.0000;0.5755;-0.1374;
1065.3000;0.5714;-0.1327;
1065.6000;0.5714;-0.1303;
1065.9000;0.5722;-0.1279;
1066.2000;0.5731;-0.1303;
1066.5000;0.5739;-0.1256;
1066.8000;0.5739;-0.1232;
1067.1000;0.5714;-0.1279;
1067.4000;0.5722;-0.1279;
1067.7000;0.5731;-0.1232;
1068.0000;0.5714;-0.1279;
1068.3000;0.5690;-0.1279;
1068.6000;0.5722;-0.1137;
1068.9000;0.5731;-0.1114;
1069.2000;0.5731;-0.1137;
1069.5000;0.5755;-0.1114;
1069.8000;0.5739;-0.1137;
1070.1000;0.5731;-0.1066;
1070.4000;0.5706;-0.1114;
1070.7000;0.5690;-0.1208;
1071.0000;0.5698;-0.1185;
1071.3000;0.5722;-0.1256;
1071.6000;0.5731;-0.1185;
1071.9000;0.5722;-0.1185;
1072.2000;0.5722;-0.1161;
1072.5000;0.5714;-0.1256;
1072.8000;0.5698;-0.1232;
1073.1000;0.5722;-0.1256;
1073.4000;0.5739;-0.1232;
1073.7000;0.5722;-0.1303;
1074.0000;0.5731;-0.1185;
1074.3000;0.5714;-0.1279;
1074.6000;0.5722;-0.1208;
1074.9000;0.5771;-0.1090;
1075.2000;0.5739;-0.1256;
1075.5000;0.5722;-0.1327;
1075.8000;0.5706;-0.1351;
1076.1000;0.5722;-0.1303;
1076.4000;0.5731;-0.1232;
1076.7000;0.5698;-0.1327;
1077.0000;0.5731;-0.1303;
1077.3000;0.5674;-0.1374;
1077.6000;0.5731;-0.1256;
1077.9000;0.5739;-0.1303;
1078.2000;0.5739;-0.1232;
1078.5000;0.5731;-0.1232;
1078.8000;0.5739;-0.1137;
1079.1000;0.5731;-0.1208;
1079.4000;0.5755;-0.1208;
1079.7000;0.5698;-0.1351;
1080.0000;0.5731;-0.1303;
1080.3000;0.5714;-0.1374;
1080.6000;0.5706;-0.1445;
1080.9000;0.5706;-0.1422;
1081.2000;0.5739;-0.1374;
1081.5000;0.5755;-0.1279;
1081.8000;0.5722;-0.1327;
1082.1000;0.5706;-0.1256;
1082.4000;0.5698;-0.1279;
1082.7000;0.5722;-0.1232;
1083.0000;0.5706;-0.1327;
1083.3000;0.5731;-0.1232;
1083.6000;0.5706;-0.1327;
1083.9000;0.5722;-0.1303;
1084.2000;0.5714;-0.1303;
1084.5000;0.5731;-0.1327;
1084.8000;0.5731;-0.1398;
1085.1000;0.5731;-0.1422;
1085.4000;0.5731;-0.1398;
1085.7000;0.5771;-0.1327;
1086.0000;0.5706;-0.1516;
1086.3000;0.5714;-0.1564;
1086.6000;0.5731;-0.1516;
1086.9000;0.5698;-0.1564;
1087.2000;0.5722;-0.1516;
1087.5000;0.5731;-0.1516;
1087.8000;0.5739;-0.1422;
1088.1000;0.5722;-0.1398;
1088.4000;0.5731;-0.1351;
1088.7000;0.5722;-0.1445;
1089.0000;0.5714;-0.1516;
1089.3000;0.5714;-0.1516;
1089.6000;0.5731;-0.1516;
1089.9000;0.5722;-0.1516;
1090.2000;0.5722;-0.1422;
1090.5000;0.5698;-0.1493;
1090.8000;0.5812;-0.1161;
1091.1000;0.5714;-0.1422;
1091.4000;0.5747;-0.1256;
1091.7000;0.5714;-0.1351;
1092.0000;0.5714;-0.1303;
1092.3000;0.5657;-0.1398;
1092.6000;0.5731;-0.1114;
1092.9000;0.5755;-0.1114;
1093.2000;0.5714;-0.1256;
1093.5000;0.5722;-0.1327;
1093.8000;0.5657;-0.1516;
1094.1000;0.5690;-0.1398;
1094.4000;0.5690;-0.1351;
1094.7000;0.5706;-0.1303;
1095.0000;0.5714;-0.1232;
1095.3000;0.5714;-0.1279;
1095.6000;0.5690;-0.1303;
1095.9000;0.5714;-0.1279;
1096.2000;0.5698;-0.1279;
1096.5000;0.5706;-0.1232;
1096.8000;0.5706;-0.1161;
1097.1000;0.5714;-0.1114;
1097.4000;0.5698;-0.1090;
1097.7000;0.5690;-0.1090;
1098.0000;0.5690;-0.1090;
1098.3000;0.5722;-0.1066;
1098.6000;0.5698;-0.1185;
1098.9000;0.5690;-0.1256;
1099.2000;0.5722;-0.1256;
1099.5000;0.5731;-0.1161;
1099.8000;0.5747;-0.1019;
1100.1000;0.5714;-0.1019;
1100.4000;0.5714;-0.0995;
1100.7000;0.5714;-0.1066;
1101.0000;0.5714;-0.1066;
1101.3000;0.5722;-0.1066;
1101.6000;0.5706;-0.1066;
1101.9000;0.5722;-0.1114;
1102.2000;0.5706;-0.1279;
1102.5000;0.5706;-0.1232;
1102.8000;0.5706;-0.1232;
1103.1000;0.5649;-0.1398;
1103.4000;0.5722;-0.1256;
1103.7000;0.5698;-0.1256;
1104.0000;0.5698;-0.1351;
1104.3000;0.5682;-0.1422;
1104.6000;0.5714;-0.1445;
1104.9000;0.5714;-0.1351;
1105.2000;0.5747;-0.1256;
1105.5000;0.5722;-0.1303;
1105.8000;0.5722;-0.1303;
1106.1000;0.5714;-0.1279;
1106.4000;0.5690;-0.1279;
1106.7000;0.5714;-0.1161;
1107.0000;0.5706;-0.1161;
1107.3000;0.5698;-0.1208;
1107.6000;0.5698;-0.1185;
1107.9000;0.5690;-0.1185;
1108.2000;0.5698;-0.1208;
1108.5000;0.5706;-0.1208;
1108.8000;0.5698;-0.1303;
1109.1000;0.5698;-0.1327;
1109.4000;0.5682;-0.1327;
1109.7000;0.5698;-0.1374;
1110.0000;0.5698;-0.1303;
1110.3000;0.5698;-0.1351;
1110.6000;0.5722;-0.1351;
1110.9000;0.5706;-0.1374;
1111.2000;0.5731;-0.1351;
1111.5000;0.5649;-0.1493;
1111.8000;0.5690;-0.1279;
1112.1000;0.5706;-0.1185;
1112.4000;0.5682;-0.1232;
1112.7000;0.5690;-0.1256;
1113.0000;0.5690;-0.1327;
1113.3000;0.5690;-0.1398;
1113.6000;0.5714;-0.1374;
1113.9000;0.5722;-0.1327;
1114.2000;0.5755;-0.1351;
1114.5000;0.5747;-0.1351;
1114.8000;0.5649;-0.1445;
1115.1000;0.5706;-0.1327;
1115.4000;0.5592;-0.1516;
1115.7000;0.5714;-0.1256;
1116.0000;0.5706;-0.1279;
1116.3000;0.5722;-0.1161;
1116.6000;0.5714;-0.1256;
1116.9000;0.5698;-0.1303;
1117.2000;0.5690;-0.1327;
1117.5000;0.5690;-0.1327;
1117.8000;0.5698;-0.1327;
1118.1000;0.5698;-0.1327;
1118.4000;0.5706;-0.1351;
1118.7000;0.5698;-0.1351;
1119.0000;0.5698;-0.1303;
1119.3000;0.5690;-0.1279;
1119.6000;0.5714;-0.1279;
1119.9000;0.5706;-0.1256;
1120.2000;0.5706;-0.1256;
1120.5000;0.5698;-0.1208;
1120.8000;0.5698;-0.1137;
1121.1000;0.5714;-0.1114;
1121.4000;0.5714;-0.1137;
1121.7000;0.5706;-0.1066;
1122.0000;0.5682;-0.1114;
1122.3000;0.5714;-0.1208;
1122.6000;0.5706;-0.1256;
1122.9000;0.5698;-0.1303;
1123.2000;0.5706;-0.1208;
1123.5000;0.5706;-0.1256;
1123.8000;0.5706;-0.1232;
1124.1000;0.5698;-0.1279;
1124.4000;0.5706;-0.1303;
1124.7000;0.5706;-0.1256;
1125.0000;0.5698;-0.1327;
1125.3000;0.5714;-0.1279;
1125.6000;0.5706;-0.1185;
1125.9000;0.5698;-0.1232;
1126.2000;0.5665;-0.1279;
1126.5000;0.5714;-0.1208;
1126.8000;0.5706;-0.1161;
1127.1000;0.5706;-0.1208;
1127.4000;0.5690;-0.1208;
1127.7000;0.5690;-0.1208;
1128.0000;0.5706;-0.1161;
1128.3000;0.5665;-0.1232;
1128.6000;0.5682;-0.1208;
1128.9000;0.5690;-0.1090;
1129.2000;0.5682;-0.1090;
1129.5000;0.5674;-0.1114;
1129.8000;0.5690;-0.1066;
1130.1000;0.5739;-0.0948;
1130.4000;0.5698;-0.1042;
1130.7000;0.5714;-0.1114;
1131.0000;0.5665;-0.1114;
1131.3000;0.5690;-0.1042;
1131.6000;0.5690;-0.1019;
1131.9000;0.5690;-0.1066;
1132.2000;0.5698;-0.1066;
1132.5000;0.5649;-0.1137;
1132.8000;0.5682;-0.0924;
1133.1000;0.5755;-0.0806;
1133.4000;0.5682;-0.1042;
1133.7000;0.5690;-0.1066;
1134.0000;0.5682;-0.1019;
1134.3000;0.5690;-0.1042;
1134.6000;0.5690;-0.1185;
1134.9000;0.5674;-0.1256;
1135.2000;0.5682;-0.1232;
1135.5000;0.5698;-0.1256;
1135.8000;0.5731;-0.1114;
1136.1000;0.5682;-0.1279;
1136.4000;0.5682;-0.1303;
1136.7000;0.5690;-0.1256;
1137.0000;0.5698;-0.1161;
1137.3000;0.5690;-0.1185;
1137.6000;0.5682;-0.1161;
1137.9000;0.5698;-0.1137;
1138.2000;0.5698;-0.1114;
1138.5000;0.5698;-0.1185;
1138.8000;0.5698;-0.1137;
1139.1000;0.5690;-0.1232;
1139.4000;0.5698;-0.1256;
1139.7000;0.5690;-0.1327;
1140.0000;0.5698;-0.1279;
1140.3000;0.5682;-0.1398;
1140.6000;0.5690;-0.1351;
1140.9000;0.5698;-0.1327;
1141.2000;0.5714;-0.1351;
1141.5000;0.5706;-0.1422;
1141.8000;0.5690;-0.1374;
1142.1000;0.5690;-0.1303;
1142.4000;0.5682;-0.1256;
1142.7000;0.5698;-0.1208;
1143.0000;0.5682;-0.1279;
1143.3000;0.5706;-0.1232;
1143.6000;0.5690;-0.1327;
1143.9000;0.5690;-0.1232;
1144.2000;0.5682;-0.1232;
1144.5000;0.5722;-0.1114;
1144.8000;0.5690;-0.1161;
1145.1000;0.5690;-0.1161;
1145.4000;0.5682;-0.1137;
1145.7000;0.5698;-0.1019;
1146.0000;0.5674;-0.1161;
1146.3000;0.5690;-0.1114;
1146.6000;0.5682;-0.1137;
1146.9000;0.5698;-0.1137;
1147.2000;0.5706;-0.1161;
1147.5000;0.5698;-0.1185;
1147.8000;0.5682;-0.1161;
1148.1000;0.5608;-0.1422;
1148.4000;0.5682;-0.1256;
1148.7000;0.5706;-0.1161;
1149.0000;0.5698;-0.1137;
1149.3000;0.5739;-0.1019;
1149.6000;0.5731;-0.1090;
1149.9000;0.5698;-0.1185;
1150.2000;0.5690;-0.1137;
1150.5000;0.5674;-0.1185;
1150.8000;0.5633;-0.1256;
1151.1000;0.5682;-0.1114;
1151.4000;0.5698;-0.1114;
1151.7000;0.5674;-0.1232;
1152.0000;0.5674;-0.1256;
1152.3000;0.5682;-0.1185;
1152.6000;0.5682;-0.1137;
1152.9000;0.5665;-0.1161;
1153.2000;0.5698;-0.1090;
1153.5000;0.5690;-0.1090;
1153.8000;0.5674;-0.1114;
1154.1000;0.5674;-0.1279;
1154.4000;0.5674;-0.1185;
1154.7000;0.5682;-0.1208;
1155.0000;0.5690;-0.1208;
1155.3000;0.5682;-0.1208;
1155.6000;0.5649;-0.1185;
1155.9000;0.5682;-0.1161;
1156.2000;0.5665;-0.1256;
1156.5000;0.5674;-0.1256;
1156.8000;0.5739;-0.1114;
1157.1000;0.5690;-0.1327;
1157.4000;0.5706;-0.1351;
1157.7000;0.5682;-0.1351;
1158.0000;0.5690;-0.1374;
1158.3000;0.5682;-0.1327;
1158.6000;0.5706;-0.1232;
1158.9000;0.5690;-0.1090;
1159.2000;0.5682;-0.1161;
1159.5000;0.5690;-0.1161;
1159.8000;0.5698;-0.1090;
1160.1000;0.5682;-0.1114;
1160.4000;0.5690;-0.1090;
1160.7000;0.5739;-0.0971;
1161.0000;0.5682;-0.1042;
1161.3000;0.5690;-0.1042;
1161.6000;0.5706;-0.1019;
1161.9000;0.5690;-0.1090;
1162.2000;0.5682;-0.1161;
1162.5000;0.5698;-0.1161;
1162.8000;0.5706;-0.1208;
1163.1000;0.5682;-0.1232;
1163.4000;0.5698;-0.1303;
1163.7000;0.5698;-0.1422;
1164.0000;0.5698;-0.1422;
1164.3000;0.5690;-0.1303;
1164.6000;0.5682;-0.1208;
1164.9000;0.5682;-0.1066;
1165.2000;0.5690;-0.1042;
1165.5000;0.5690;-0.1114;
1165.8000;0.5755;-0.0971;
1166.1000;0.5698;-0.1066;
1166.4000;0.5690;-0.1019;
1166.7000;0.5690;-0.1114;
1167.0000;0.5682;-0.1137;
1167.3000;0.5682;-0.1161;
1167.6000;0.5690;-0.1090;
1167.9000;0.5674;-0.1090;
1168.2000;0.5706;-0.1090;
1168.5000;0.5674;-0.1114;
1168.8000;0.5690;-0.1185;
1169.1000;0.5690;-0.1185;
1169.4000;0.5682;-0.1232;
1169.7000;0.5657;-0.1303;
1170.0000;0.5665;-0.1256;
1170.3000;0.5690;-0.1185;
1170.6000;0.5682;-0.1066;
1170.9000;0.5674;-0.1066;
1171.2000;0.5706;-0.0995;
1171.5000;0.5690;-0.1137;
1171.8000;0.5690;-0.1185;
1172.1000;0.5682;-0.1137;
1172.4000;0.5682;-0.1208;
1172.7000;0.5682;-0.1137;
1173.0000;0.5690;-0.1137;
1173.3000;0.5608;-0.1374;
1173.6000;0.5665;-0.1185;
1173.9000;0.5657;-0.1232;
1174.2000;0.5682;-0.1303;
1174.5000;0.5682;-0.1303;
1174.8000;0.5690;-0.1185;
1175.1000;0.5698;-0.1232;
1175.4000;0.5682;-0.1161;
1175.7000;0.5674;-0.1161;
1176.0000;0.5674;-0.1161;
1176.3000;0.5665;-0.1185;
1176.6000;0.5682;-0.1114;
1176.9000;0.5682;-0.1232;
1177.2000;0.5665;-0.1256;
1177.5000;0.5665;-0.1256;
1177.8000;0.5674;-0.1232;
1178.1000;0.5674;-0.1161;
1178.4000;0.5682;-0.1114;
1178.7000;0.5665;-0.1161;
1179.0000;0.5682;-0.1137;
1179.3000;0.5690;-0.1090;
1179.6000;0.5682;-0.0995;
1179.9000;0.5665;-0.0948;
1180.2000;0.5674;-0.0948;
1180.5000;0.5682;-0.0900;
1180.8000;0.5657;-0.1042;
1181.1000;0.5682;-0.1114;
1181.4000;0.5674;-0.1256;
1181.7000;0.5682;-0.1256;
1182.0000;0.5690;-0.1232;
1182.3000;0.5674;-0.1279;
1182.6000;0.5682;-0.1303;
1182.9000;0.5674;-0.1208;
1183.2000;0.5682;-0.1137;
1183.5000;0.5682;-0.1137;
1183.8000;0.5706;-0.1090;
1184.1000;0.5674;-0.1208;
1184.4000;0.5690;-0.1161;
1184.7000;0.5674;-0.1114;
1185.0000;0.5682;-0.0995;
1185.3000;0.5674;-0.1066;
1185.6000;0.5682;-0.1114;
1185.9000;0.5682;-0.1090;
1186.2000;0.5674;-0.1137;
1186.5000;0.5665;-0.1161;
1186.8000;0.5706;-0.1090;
1187.1000;0.5682;-0.1185;
1187.4000;0.5698;-0.1161;
1187.7000;0.5674;-0.1327;
1188.0000;0.5649;-0.1351;
1188.3000;0.5682;-0.1256;
1188.6000;0.5674;-0.1279;
1188.9000;0.5682;-0.1256;
1189.2000;0.5674;-0.1256;
1189.5000;0.5665;-0.1208;
1189.8000;0.5665;-0.1185;
1190.1000;0.5682;-0.1161;
1190.4000;0.5682;-0.1090;
1190.7000;0.5674;-0.1066;
1191.0000;0.5625;-0.1232;
1191.3000;0.5665;-0.1090;
1191.6000;0.5674;-0.1066;
1191.9000;0.5657;-0.1232;
1192.2000;0.5665;-0.1232;
1192.5000;0.5706;-0.1090;
1192.8000;0.5682;-0.1208;
1193.1000;0.5665;-0.1256;
1193.4000;0.5698;-0.1232;
1193.7000;0.5690;-0.1279;
1194.0000;0.5706;-0.1185;
1194.3000;0.5690;-0.1114;
1194.6000;0.5682;-0.1161;
1194.9000;0.5690;-0.1161;
1195.2000;0.5706;-0.1090;
1195.5000;0.5674;-0.1114;
1195.8000;0.5690;-0.1090;
1196.1000;0.5739;-0.0948;
1196.4000;0.5665;-0.1208;
1196.7000;0.5665;-0.1185;
1197.0000;0.5665;-0.1185;
1197.3000;0.5633;-0.1232;
1197.6000;0.5617;-0.1256;
1197.9000;0.5657;-0.1090;
1198.2000;0.5698;-0.1066;
1198.5000;0.5665;-0.1208;
1198.8000;0.5657;-0.1208;
1199.1000;0.5690;-0.1042;
1199.4000;0.5665;-0.1019;
1199.7000;0.5682;-0.0900;
1200.0000;0.5682;-0.1042;
1200.3000;0.5657;-0.1090;
1200.6000;0.5665;-0.1161;
1200.9000;0.5665;-0.1114;
1201.2000;0.5698;-0.0971;
1201.5000;0.5657;-0.1090;
1201.8000;0.5665;-0.1114;
1202.1000;0.5665;-0.1066;
1202.4000;0.5674;-0.1042;
1202.7000;0.5657;-0.1090;
1203.0000;0.5674;-0.1137;
1203.3000;0.5657;-0.1185;
1203.6000;0.5649;-0.1185;
1203.9000;0.5682;-0.1114;
1204.2000;0.5682;-0.1090;
1204.5000;0.5682;-0.1137;
1204.8000;0.5682;-0.1090;
1205.1000;0.5698;-0.1042;
1205.4000;0.5682;-0.1137;
1205.7000;0.5633;-0.1279;
1206.0000;0.5674;-0.1185;
1206.3000;0.5690;-0.1185;
1206.6000;0.5657;-0.1279;
1206.9000;0.5617;-0.1398;
1207.2000;0.5682;-0.1327;
1207.5000;0.5674;-0.1398;
1207.8000;0.5657;-0.1422;
1208.1000;0.5665;-0.1303;
1208.4000;0.5682;-0.1185;
1208.7000;0.5649;-0.1256;
1209.0000;0.5641;-0.1374;
1209.3000;0.5665;-0.1303;
1209.6000;0.5665;-0.1279;
1209.9000;0.5682;-0.1232;
1210.2000;0.5674;-0.1256;
1210.5000;0.5674;-0.1256;
1210.8000;0.5690;-0.1161;
1211.1000;0.5674;-0.1114;
1211.4000;0.5674;-0.1114;
1211.7000;0.5657;-0.1161;
1212.0000;0.5649;-0.1208;
1212.3000;0.5682;-0.1161;
1212.6000;0.5649;-0.1256;
1212.9000;0.5674;-0.1232;
1213.2000;0.5690;-0.1256;
1213.5000;0.5674;-0.1351;
1213.8000;0.5674;-0.1256;
1214.1000;0.5682;-0.1303;
1214.4000;0.5657;-0.1374;
1214.7000;0.5657;-0.1303;
1215.0000;0.5690;-0.1351;
1215.3000;0.5698;-0.1279;
1215.6000;0.5690;-0.1303;
1215.9000;0.5682;-0.1327;
1216.2000;0.5690;-0.1279;
1216.5000;0.5682;-0.1232;
1216.8000;0.5682;-0.1137;
1217.1000;0.5649;-0.1232;
1217.4000;0.5674;-0.1208;
1217.7000;0.5674;-0.1208;
1218.0000;0.5682;-0.1279;
1218.3000;0.5682;-0.1303;
1218.6000;0.5657;-0.1398;
1218.9000;0.5674;-0.1351;
1219.2000;0.5674;-0.1327;
1219.5000;0.5690;-0.1208;
1219.8000;0.5649;-0.1351;
1220.1000;0.5674;-0.1279;
1220.4000;0.5682;-0.1232;
1220.7000;0.5682;-0.1208;
1221.0000;0.5698;-0.1185;
1221.3000;0.5706;-0.1137;
1221.6000;0.5690;-0.1137;
1221.9000;0.5657;-0.1090;
1222.2000;0.5649;-0.1137;
1222.5000;0.5657;-0.1232;
1222.8000;0.5665;-0.1351;
1223.1000;0.5657;-0.1374;
1223.4000;0.5649;-0.1445;
1223.7000;0.5665;-0.1445;
1224.0000;0.5600;-0.1611;
1224.3000;0.5674;-0.1422;
1224.6000;0.5665;-0.1422;
1224.9000;0.5665;-0.1374;
1225.2000;0.5641;-0.1351;
1225.5000;0.5665;-0.1327;
1225.8000;0.5665;-0.1279;
1226.1000;0.5657;-0.1256;
1226.4000;0.5665;-0.1090;
1226.7000;0.5657;-0.1161;
1227.0000;0.5682;-0.1114;
1227.3000;0.5665;-0.1161;
1227.6000;0.5682;-0.1066;
1227.9000;0.5722;-0.0900;
1228.2000;0.5665;-0.0971;
1228.5000;0.5674;-0.0995;
1228.8000;0.5665;-0.0900;
1229.1000;0.5665;-0.0948;
1229.4000;0.5665;-0.0900;
1229.7000;0.5674;-0.0995;
1230.0000;0.5657;-0.0995;
1230.3000;0.5682;-0.0924;
1230.6000;0.5682;-0.0853;
1230.9000;0.5665;-0.0971;
1231.2000;0.5665;-0.0948;
1231.5000;0.5714;-0.0877;
1231.8000;0.5674;-0.0900;
1232.1000;0.5665;-0.0900;
1232.4000;0.5657;-0.1019;
1232.7000;0.5649;-0.1042;
1233.0000;0.5657;-0.1090;
1233.3000;0.5657;-0.1114;
1233.6000;0.5690;-0.0948;
1233.9000;0.5649;-0.1019;
1234.2000;0.5649;-0.1066;
1234.5000;0.5747;-0.0900;
1234.8000;0.5649;-0.1137;
1235.1000;0.5657;-0.1137;
1235.4000;0.5665;-0.1114;
1235.7000;0.5665;-0.1090;
1236.0000;0.5665;-0.1185;
1236.3000;0.5674;-0.1137;
1236.6000;0.5657;-0.1137;
1236.9000;0.5674;-0.1185;
1237.2000;0.5665;-0.1161;
1237.5000;0.5674;-0.1185;
1237.8000;0.5665;-0.1232;
1238.1000;0.5690;-0.1090;
1238.4000;0.5665;-0.1137;
1238.7000;0.5665;-0.1114;
1239.0000;0.5682;-0.1114;
1239.3000;0.5657;-0.1208;
1239.6000;0.5682;-0.1137;
1239.9000;0.5674;-0.1090;
1240.2000;0.5674;-0.1066;
1240.5000;0.5625;-0.1208;
1240.8000;0.5674;-0.1137;
1241.1000;0.5617;-0.1232;
1241.4000;0.5674;-0.1208;
1241.7000;0.5665;-0.1161;
1242.0000;0.5641;-0.1208;
1242.3000;0.5657;-0.1208;
1242.6000;0.5739;-0.0995;
1242.9000;0.5608;-0.1303;
1243.2000;0.5657;-0.1185;
1243.5000;0.5665;-0.1208;
1243.8000;0.5674;-0.1327;
1244.1000;0.5649;-0.1303;
1244.4000;0.5665;-0.1185;
1244.7000;0.5682;-0.1090;
1245.0000;0.5657;-0.1208;
1245.3000;0.5657;-0.1256;
1245.6000;0.5674;-0.1137;
1245.9000;0.5674;-0.1208;
1246.2000;0.5665;-0.1208;
1246.5000;0.5682;-0.1232;
1246.8000;0.5625;-0.1374;
1247.1000;0.5674;-0.1256;
1247.4000;0.5674;-0.1279;
1247.7000;0.5657;-0.1303;
1248.0000;0.5649;-0.1327;
1248.3000;0.5665;-0.1327;
1248.6000;0.5674;-0.1374;
1248.9000;0.5674;-0.1351;
1249.2000;0.5649;-0.1374;
1249.5000;0.5641;-0.1327;
1249.8000;0.5657;-0.1256;
1250.1000;0.5674;-0.1137;
1250.4000;0.5649;-0.1185;
1250.7000;0.5665;-0.1256;
1251.0000;0.5665;-0.1279;
1251.3000;0.5657;-0.1279;
1251.6000;0.5657;-0.1303;
1251.9000;0.5649;-0.1232;
1252.2000;0.5665;-0.1137;
1252.5000;0.5641;-0.1137;
1252.8000;0.5633;-0.1161;
1253.1000;0.5665;-0.1114;
1253.4000;0.5682;-0.1161;
1253.7000;0.5674;-0.1185;
1254.0000;0.5657;-0.1114;
1254.3000;0.5657;-0.1066;
1254.6000;0.5617;-0.1114;
1254.9000;0.5665;-0.0995;
1255.2000;0.5665;-0.1042;
1255.5000;0.5657;-0.1090;
1255.8000;0.5665;-0.0995;
1256.1000;0.5674;-0.0948;
1256.4000;0.5674;-0.1042;
1256.7000;0.5665;-0.1185;
1257.0000;0.5625;-0.1279;
1257.3000;0.5641;-0.1351;
1257.6000;0.5674;-0.1256;
1257.9000;0.5657;-0.1279;
1258.2000;0.5657;-0.1279;
1258.5000;0.5674;-0.1161;
1258.8000;0.5665;-0.1256;
1259.1000;0.5665;-0.1208;
1259.4000;0.5649;-0.1232;
1259.7000;0.5657;-0.1090;
1260.0000;0.5657;-0.1066;
1260.3000;0.5665;-0.1066;
1260.6000;0.5633;-0.1114;
1260.9000;0.5649;-0.1114;
1261.2000;0.5657;-0.1137;
1261.5000;0.5649;-0.1161;
1261.8000;0.5641;-0.1137;
1262.1000;0.5649;-0.1066;
1262.4000;0.5657;-0.1066;
1262.7000;0.5649;-0.1114;
1263.0000;0.5665;-0.1161;
1263.3000;0.5649;-0.1185;
1263.6000;0.5641;-0.1090;
1263.9000;0.5625;-0.1066;
1264.2000;0.5714;-0.0782;
1264.5000;0.5649;-0.0995;
1264.8000;0.5641;-0.1114;
1265.1000;0.5641;-0.1232;
1265.4000;0.5649;-0.1279;
1265.7000;0.5641;-0.1303;
1266.0000;0.5665;-0.1256;
1266.3000;0.5665;-0.1279;
1266.6000;0.5657;-0.1256;
1266.9000;0.5657;-0.1327;
1267.2000;0.5714;-0.1137;
1267.5000;0.5665;-0.1232;
1267.8000;0.5739;-0.1042;
1268.1000;0.5665;-0.1161;
1268.4000;0.5641;-0.1208;
1268.7000;0.5641;-0.1137;
1269.0000;0.5682;-0.1090;
1269.3000;0.5649;-0.1232;
1269.6000;0.5674;-0.1161;
1269.9000;0.5649;-0.1256;
1270.2000;0.5657;-0.1303;
1270.5000;0.5657;-0.1279;
1270.8000;0.5649;-0.1279;
1271.1000;0.5641;-0.1279;
1271.4000;0.5665;-0.1232;
1271.7000;0.5665;-0.1161;
1272.0000;0.5657;-0.1232;
1272.3000;0.5657;-0.1185;
1272.6000;0.5674;-0.1161;
1272.9000;0.5657;-0.1114;
1273.2000;0.5657;-0.1185;
1273.5000;0.5649;-0.1137;
1273.8000;0.5657;-0.1042;
1274.1000;0.5665;-0.1019;
1274.4000;0.5674;-0.1019;
1274.7000;0.5690;-0.0900;
1275.0000;0.5633;-0.0995;
1275.3000;0.5665;-0.0971;
1275.6000;0.5649;-0.1019;
1275.9000;0.5633;-0.1066;
1276.2000;0.5649;-0.1137;
1276.5000;0.5674;-0.1185;
1276.8000;0.5665;-0.1137;
1277.1000;0.5657;-0.1161;
1277.4000;0.5674;-0.1090;
1277.7000;0.5633;-0.1161;
1278.0000;0.5665;-0.1114;
1278.3000;0.5674;-0.1066;
1278.6000;0.5633;-0.1090;
1278.9000;0.5633;-0.1066;
1279.2000;0.5649;-0.1066;
1279.5000;0.5690;-0.0995;
1279.8000;0.5641;-0.1114;
1280.1000;0.5674;-0.1090;
1280.4000;0.5649;-0.1114;
1280.7000;0.5641;-0.1137;
1281.0000;0.5625;-0.1161;
1281.3000;0.5649;-0.1090;
1281.6000;0.5665;-0.1090;
1281.9000;0.5584;-0.1303;
1282.2000;0.5649;-0.1161;
1282.5000;0.5633;-0.1137;
1282.8000;0.5641;-0.1090;
1283.1000;0.5674;-0.1019;
1283.4000;0.5657;-0.1161;
1283.7000;0.5665;-0.1066;
1284.0000;0.5674;-0.0924;
1284.3000;0.5649;-0.0971;
1284.6000;0.5617;-0.1137;
1284.9000;0.5649;-0.1090;
1285.2000;0.5665;-0.1090;
1285.5000;0.5657;-0.1137;
1285.8000;0.5665;-0.1137;
1286.1000;0.5641;-0.1208;
1286.4000;0.5657;-0.1114;
1286.7000;0.5657;-0.1137;
1287.0000;0.5608;-0.1185;
1287.3000;0.5649;-0.1161;
1287.6000;0.5657;-0.1185;
1287.9000;0.5633;-0.1232;
1288.2000;0.5674;-0.1161;
1288.5000;0.5690;-0.1161;
1288.8000;0.5649;-0.1161;
1289.1000;0.5722;-0.0971;
1289.4000;0.5649;-0.1066;
1289.7000;0.5665;-0.1090;
1290.0000;0.5674;-0.1090;
1290.3000;0.5706;-0.0900;
1290.6000;0.5665;-0.1066;
1290.9000;0.5657;-0.1066;
1291.2000;0.5641;-0.1090;
1291.5000;0.5649;-0.1042;
1291.8000;0.5657;-0.0995;
1292.1000;0.5657;-0.0971;
1292.4000;0.5665;-0.1019;
1292.7000;0.5657;-0.1090;
1293.0000;0.5657;-0.1042;
1293.3000;0.5674;-0.1019;
1293.6000;0.5657;-0.1137;
1293.9000;0.5641;-0.1185;
1294.2000;0.5698;-0.1090;
1294.5000;0.5649;-0.1161;
1294.8000;0.5633;-0.1232;
1295.1000;0.5633;-0.1114;
1295.4000;0.5649;-0.1090;
1295.7000;0.5608;-0.1185;
1296.0000;0.5649;-0.1090;
1296.3000;0.5657;-0.1114;
1296.6000;0.5641;-0.1066;
1296.9000;0.5576;-0.1185;
1297.2000;0.5633;-0.1185;
1297.5000;0.5657;-0.1090;
1297.8000;0.5641;-0.1137;
1298.1000;0.5633;-0.1137;
1298.4000;0.5641;-0.1066;
1298.7000;0.5641;-0.1090;
1299.0000;0.5649;-0.1137;
1299.3000;0.5665;-0.1042;
1299.6000;0.5657;-0.1066;
1299.9000;0.5665;-0.1066;
1300.2000;0.5641;-0.1232;
1300.5000;0.5690;-0.1185;
1300.8000;0.5633;-0.1161;
1301.1000;0.5657;-0.1137;
1301.4000;0.5657;-0.1185;
1301.7000;0.5633;-0.1256;
1302.0000;0.5649;-0.1256;
1302.3000;0.5641;-0.1279;
1302.6000;0.5714;-0.1161;
1302.9000;0.5633;-0.1279;
1303.2000;0.5665;-0.1161;
1303.5000;0.5706;-0.1042;
1303.8000;0.5674;-0.1066;
1304.1000;0.5665;-0.1114;
1304.4000;0.5657;-0.1256;
1304.7000;0.5665;-0.1279;
1305.0000;0.5657;-0.1256;
1305.3000;0.5649;-0.1327;
1305.6000;0.5657;-0.1303;
1305.9000;0.5665;-0.1185;
1306.2000;0.5649;-0.1137;
1306.5000;0.5641;-0.1090;
1306.8000;0.5641;-0.0995;
1307.1000;0.5617;-0.1042;
1307.4000;0.5657;-0.0924;
1307.7000;0.5674;-0.0971;
1308.0000;0.5633;-0.1019;
1308.3000;0.5665;-0.0971;
1308.6000;0.5665;-0.0948;
1308.9000;0.5657;-0.0948;
1309.2000;0.5665;-0.0971;
1309.5000;0.5649;-0.1019;
1309.8000;0.5641;-0.1114;
1310.1000;0.5665;-0.1066;
1310.4000;0.5657;-0.1161;
1310.7000;0.5641;-0.1303;
1311.0000;0.5641;-0.1398;
1311.3000;0.5657;-0.1279;
1311.6000;0.5665;-0.1161;
1311.9000;0.5657;-0.1161;
1312.2000;0.5665;-0.1185;
1312.5000;0.5657;-0.1161;
1312.8000;0.5649;-0.1114;
1313.1000;0.5682;-0.1066;
1313.4000;0.5641;-0.1114;
1313.7000;0.5649;-0.1161;
1314.0000;0.5657;-0.1137;
1314.3000;0.5657;-0.1137;
1314.6000;0.5674;-0.1161;
1314.9000;0.5657;-0.1161;
1315.2000;0.5690;-0.1042;
1315.5000;0.5665;-0.1137;
1315.8000;0.5649;-0.1090;
1316.1000;0.5665;-0.1090;
1316.4000;0.5641;-0.1042;
1316.7000;0.5649;-0.0971;
1317.0000;0.5641;-0.1019;
1317.3000;0.5633;-0.1066;
1317.6000;0.5649;-0.1066;
1317.9000;0.5641;-0.1137;
1318.2000;0.5584;-0.1279;
1318.5000;0.5633;-0.1137;
1318.8000;0.5641;-0.1066;
1319.1000;0.5641;-0.1090;
1319.4000;0.5649;-0.1114;
1319.7000;0.5625;-0.1066;
1320.0000;0.5649;-0.1019;
1320.3000;0.5657;-0.1042;
1320.6000;0.5657;-0.1066;
1320.9000;0.5657;-0.1114;
1321.2000;0.5657;-0.1042;
1321.5000;0.5625;-0.1090;
1321.8000;0.5633;-0.1042;
1322.1000;0.5641;-0.1114;
1322.4000;0.5649;-0.1137;
1322.7000;0.5665;-0.1185;
1323.0000;0.5657;-0.1185;
1323.3000;0.5641;-0.1137;
1323.6000;0.5625;-0.1208;
1323.9000;0.5657;-0.1161;
1324.2000;0.5665;-0.1114;
1324.5000;0.5649;-0.1161;
1324.8000;0.5682;-0.1137;
1325.1000;0.5633;-0.1161;
1325.4000;0.5608;-0.1351;
1325.7000;0.5657;-0.1161;
1326.0000;0.5649;-0.1161;
1326.3000;0.5633;-0.1161;
1326.6000;0.5649;-0.1066;
1326.9000;0.5649;-0.1019;
1327.2000;0.5665;-0.0995;
1327.5000;0.5600;-0.1114;
1327.8000;0.5641;-0.1019;
1328.1000;0.5633;-0.1137;
1328.4000;0.5641;-0.1232;
1328.7000;0.5633;-0.1351;
1329.0000;0.5649;-0.1327;
1329.3000;0.5641;-0.1279;
1329.6000;0.5641;-0.1185;
1329.9000;0.5674;-0.1042;
1330.2000;0.5633;-0.1114;
1330.5000;0.5641;-0.1066;
1330.8000;0.5657;-0.1019;
1331.1000;0.5649;-0.1042;
1331.4000;0.5641;-0.1066;
1331.7000;0.5641;-0.0995;
1332.0000;0.5649;-0.0900;
1332.3000;0.5657;-0.0948;
1332.6000;0.5649;-0.0948;
1332.9000;0.5665;-0.1019;
1333.2000;0.5649;-0.0971;
1333.5000;0.5649;-0.0900;
1333.8000;0.5657;-0.0877;
1334.1000;0.5625;-0.0924;
1334.4000;0.5665;-0.0924;
1334.7000;0.5657;-0.0853;
1335.0000;0.5649;-0.0877;
1335.3000;0.5649;-0.0948;
1335.6000;0.5657;-0.0924;
1335.9000;0.5641;-0.0995;
1336.2000;0.5657;-0.1019;
1336.5000;0.5641;-0.0995;
1336.8000;0.5641;-0.0948;
1337.1000;0.5617;-0.0995;
1337.4000;0.5633;-0.0995;
1337.7000;0.5649;-0.0971;
1338.0000;0.5617;-0.1042;
1338.3000;0.5649;-0.0971;
1338.6000;0.5641;-0.0995;
1338.9000;0.5641;-0.1090;
1339.2000;0.5657;-0.1114;
1339.5000;0.5649;-0.1208;
1339.8000;0.5641;-0.1232;
1340.1000;0.5649;-0.1256;
1340.4000;0.5633;-0.1137;
1340.7000;0.5698;-0.1019;
1341.0000;0.5584;-0.1232;
1341.3000;0.5641;-0.0971;
1341.6000;0.5625;-0.0900;
1341.9000;0.5641;-0.0853;
1342.2000;0.5649;-0.0924;
1342.5000;0.5649;-0.0971;
1342.8000;0.5633;-0.1019;
1343.1000;0.5633;-0.0948;
1343.4000;0.5649;-0.0924;
1343.7000;0.5641;-0.0995;
1344.0000;0.5641;-0.1090;
1344.3000;0.5641;-0.1185;
1344.6000;0.5617;-0.1256;
1344.9000;0.5665;-0.1137;
1345.2000;0.5649;-0.1066;
1345.5000;0.5625;-0.1066;
1345.8000;0.5641;-0.1019;
1346.1000;0.5625;-0.1019;
1346.4000;0.5657;-0.0900;
1346.7000;0.5633;-0.0877;
1347.0000;0.5641;-0.0853;
1347.3000;0.5649;-0.0806;
1347.6000;0.5641;-0.0853;
1347.9000;0.5633;-0.0924;
1348.2000;0.5633;-0.0948;
1348.5000;0.5641;-0.0995;
1348.8000;0.5633;-0.0948;
1349.1000;0.5641;-0.0948;
1349.4000;0.5617;-0.1019;
1349.7000;0.5633;-0.0971;
1350.0000;0.5641;-0.0948;
1350.3000;0.5641;-0.0995;
1350.6000;0.5641;-0.1161;
1350.9000;0.5641;-0.1185;
1351.2000;0.5633;-0.1114;
1351.5000;0.5665;-0.1066;
1351.8000;0.5649;-0.1208;
1352.1000;0.5633;-0.1208;
1352.4000;0.5633;-0.1090;
1352.7000;0.5649;-0.1090;
1353.0000;0.5649;-0.1161;
1353.3000;0.5698;-0.1066;
1353.6000;0.5641;-0.1090;
1353.9000;0.5625;-0.1137;
1354.2000;0.5649;-0.1090;
1354.5000;0.5641;-0.1114;
1354.8000;0.5641;-0.1114;
1355.1000;0.5633;-0.1019;
1355.4000;0.5641;-0.0971;
1355.7000;0.5633;-0.0995;
1356.0000;0.5600;-0.1066;
1356.3000;0.5649;-0.0877;
1356.6000;0.5633;-0.0900;
1356.9000;0.5625;-0.0948;
1357.2000;0.5649;-0.0924;
1357.5000;0.5657;-0.0900;
1357.8000;0.5674;-0.0900;
1358.1000;0.5641;-0.0971;
1358.4000;0.5657;-0.0971;
1358.7000;0.5617;-0.1066;
1359.0000;0.5665;-0.0995;
1359.3000;0.5641;-0.1090;
1359.6000;0.5633;-0.1114;
1359.9000;0.5633;-0.1066;
1360.2000;0.5641;-0.1090;
1360.5000;0.5633;-0.1114;
1360.8000;0.5625;-0.1208;
1361.1000;0.5641;-0.1208;
1361.4000;0.5641;-0.1256;
1361.7000;0.5641;-0.1232;
1362.0000;0.5633;-0.1256;
1362.3000;0.5625;-0.1279;
1362.6000;0.5641;-0.1208;
1362.9000;0.5649;-0.1232;
1363.2000;0.5633;-0.1351;
1363.5000;0.5617;-0.1327;
1363.8000;0.5625;-0.1303;
1364.1000;0.5633;-0.1185;
1364.4000;0.5625;-0.1161;
1364.7000;0.5625;-0.1161;
1365.0000;0.5633;-0.1185;
1365.3000;0.5649;-0.1019;
1365.6000;0.5633;-0.0995;
1365.9000;0.5625;-0.1090;
1366.2000;0.5625;-0.1161;
1366.5000;0.5641;-0.1137;
1366.8000;0.5617;-0.1185;
1367.1000;0.5633;-0.1185;
1367.4000;0.5625;-0.1232;
1367.7000;0.5625;-0.1256;
1368.0000;0.5633;-0.1279;
1368.3000;0.5625;-0.1279;
1368.6000;0.5641;-0.1208;
1368.9000;0.5633;-0.1256;
1369.2000;0.5633;-0.1161;
1369.5000;0.5592;-0.1256;
1369.8000;0.5625;-0.1185;
1370.1000;0.5641;-0.1256;
1370.4000;0.5625;-0.1279;
1370.7000;0.5633;-0.1256;
1371.0000;0.5641;-0.1303;
1371.3000;0.5625;-0.1279;
1371.6000;0.5649;-0.1185;
1371.9000;0.5608;-0.1279;
1372.2000;0.5625;-0.1256;
1372.5000;0.5657;-0.1232;
1372.8000;0.5617;-0.1279;
1373.1000;0.5657;-0.1161;
1373.4000;0.5625;-0.1185;
1373.7000;0.5690;-0.0995;
1374.0000;0.5633;-0.1161;
1374.3000;0.5641;-0.1208;
1374.6000;0.5633;-0.1303;
1374.9000;0.5641;-0.1232;
1375.2000;0.5641;-0.1090;
1375.5000;0.5625;-0.1042;
1375.8000;0.5617;-0.1137;
1376.1000;0.5633;-0.0995;
1376.4000;0.5641;-0.0948;
1376.7000;0.5633;-0.0971;
1377.0000;0.5617;-0.1042;
1377.3000;0.5641;-0.1019;
1377.6000;0.5641;-0.1019;
1377.9000;0.5633;-0.1066;
1378.2000;0.5665;-0.1019;
1378.5000;0.5592;-0.1161;
1378.8000;0.5633;-0.1066;
1379.1000;0.5625;-0.1137;
1379.4000;0.5641;-0.1090;
1379.7000;0.5674;-0.0995;
1380.0000;0.5641;-0.1114;
1380.3000;0.5674;-0.1066;
1380.6000;0.5649;-0.1090;
1380.9000;0.5617;-0.1208;
1381.2000;0.5625;-0.1208;
1381.5000;0.5641;-0.1185;
1381.8000;0.5633;-0.1256;
1382.1000;0.5641;-0.1303;
1382.4000;0.5649;-0.1256;
1382.7000;0.5649;-0.1279;
1383.0000;0.5641;-0.1256;
1383.3000;0.5625;-0.1279;
1383.6000;0.5633;-0.1279;
1383.9000;0.5641;-0.1256;
1384.2000;0.5657;-0.1114;
1384.5000;0.5641;-0.1042;
1384.8000;0.5633;-0.1066;
1385.1000;0.5641;-0.1066;
1385.4000;0.5625;-0.1019;
1385.7000;0.5641;-0.1066;
1386.0000;0.5641;-0.1019;
1386.3000;0.5633;-0.1114;
1386.6000;0.5617;-0.1208;
1386.9000;0.5625;-0.1279;
1387.2000;0.5641;-0.1256;
1387.5000;0.5649;-0.1161;
1387.8000;0.5633;-0.1137;
1388.1000;0.5641;-0.1066;
1388.4000;0.5649;-0.1114;
1388.7000;0.5649;-0.1114;
1389.0000;0.5625;-0.1137;
1389.3000;0.5633;-0.1114;
1389.6000;0.5633;-0.1185;
1389.9000;0.5657;-0.1137;
1390.2000;0.5649;-0.1137;
1390.5000;0.5641;-0.1042;
1390.8000;0.5641;-0.1137;
1391.1000;0.5665;-0.1066;
1391.4000;0.5625;-0.1042;
1391.7000;0.5608;-0.1066;
1392.0000;0.5633;-0.0924;
1392.3000;0.5617;-0.1042;
1392.6000;0.5641;-0.1042;
1392.9000;0.5657;-0.1042;
1393.2000;0.5625;-0.1066;
1393.5000;0.5600;-0.1090;
1393.8000;0.5633;-0.1066;
1394.1000;0.5633;-0.1090;
1394.4000;0.5649;-0.1066;
1394.7000;0.5641;-0.1042;
1395.0000;0.5649;-0.0971;
1395.3000;0.5641;-0.1090;
1395.6000;0.5617;-0.1232;
1395.9000;0.5674;-0.1066;
1396.2000;0.5649;-0.1137;
1396.5000;0.5625;-0.1303;
1396.8000;0.5625;-0.1185;
1397.1000;0.5665;-0.1066;
1397.4000;0.5641;-0.1208;
1397.7000;0.5657;-0.1279;
1398.0000;0.5633;-0.1422;
1398.3000;0.5657;-0.1327;
1398.6000;0.5665;-0.1303;
1398.9000;0.5649;-0.1232;
1399.2000;0.5649;-0.1090;
1399.5000;0.5649;-0.1090;
1399.8000;0.5641;-0.1019;
