time/ms;Fluo/V;P700 deltaI/I x10³;
-199.8000;0.5283;1.1802;
-199.5000;0.5299;1.1753;
-199.2000;0.5283;1.1753;
-198.9000;0.5324;1.1851;
-198.6000;0.5299;1.1851;
-198.3000;0.5299;1.1851;
-198.0000;0.5332;1.1973;
-197.7000;0.5372;1.1998;
-197.4000;0.5324;1.1802;
-197.1000;0.5307;1.1777;
-196.8000;0.5364;1.1949;
-196.5000;0.5315;1.1900;
-196.2000;0.5332;1.1973;
-195.9000;0.5315;1.1900;
-195.6000;0.5315;1.1924;
-195.3000;0.5324;1.2047;
-195.0000;0.5267;1.1851;
-194.7000;0.5332;1.2022;
-194.4000;0.5315;1.1924;
-194.1000;0.5307;1.1973;
-193.8000;0.5324;1.2022;
-193.5000;0.5340;1.2096;
-193.2000;0.5348;1.2096;
-192.9000;0.5381;1.2169;
-192.6000;0.5340;1.2096;
-192.3000;0.5324;1.2047;
-192.0000;0.5332;1.2096;
-191.7000;0.5340;1.1998;
-191.4000;0.5340;1.1973;
-191.1000;0.5356;1.2047;
-190.8000;0.5332;1.2022;
-190.5000;0.5340;1.1949;
-190.2000;0.5332;1.1924;
-189.9000;0.5356;1.2022;
-189.6000;0.5389;1.2096;
-189.3000;0.5364;1.2047;
-189.0000;0.5364;1.2022;
-188.7000;0.5356;1.2022;
-188.4000;0.5364;1.2120;
-188.1000;0.5356;1.2047;
-187.8000;0.5372;1.2047;
-187.5000;0.5372;1.2120;
-187.2000;0.5372;1.2071;
-186.9000;0.5356;1.2022;
-186.6000;0.5372;1.2022;
-186.3000;0.5372;1.2022;
-186.0000;0.5381;1.1998;
-185.7000;0.5356;1.1998;
-185.4000;0.5381;1.2071;
-185.1000;0.5389;1.2071;
-184.8000;0.5381;1.2071;
-184.5000;0.5381;1.2022;
-184.2000;0.5324;1.1802;
-183.9000;0.5372;1.1924;
-183.6000;0.5397;1.1900;
-183.3000;0.5397;1.1900;
-183.0000;0.5405;1.1949;
-182.7000;0.5397;1.1851;
-182.4000;0.5405;1.1875;
-182.1000;0.5462;1.1998;
-181.8000;0.5405;1.1802;
-181.5000;0.5389;1.1753;
-181.2000;0.5413;1.1826;
-180.9000;0.5429;1.1900;
-180.6000;0.5429;1.1924;
-180.3000;0.5421;1.1900;
-180.0000;0.5446;1.1924;
-179.7000;0.5421;1.1851;
-179.4000;0.5405;1.1753;
-179.1000;0.5389;1.1802;
-178.8000;0.5421;1.1900;
-178.5000;0.5429;1.1875;
-178.2000;0.5438;1.1998;
-177.9000;0.5486;1.2218;
-177.6000;0.5429;1.2022;
-177.3000;0.5438;1.1973;
-177.0000;0.5446;1.1949;
-176.7000;0.5438;1.1900;
-176.4000;0.5438;1.1851;
-176.1000;0.5446;1.1875;
-175.8000;0.5470;1.1851;
-175.5000;0.5446;1.1802;
-175.2000;0.5446;1.1802;
-174.9000;0.5429;1.1704;
-174.6000;0.5454;1.1679;
-174.3000;0.5438;1.1655;
-174.0000;0.5446;1.1606;
-173.7000;0.5454;1.1655;
-173.4000;0.5462;1.1679;
-173.1000;0.5478;1.1679;
-172.8000;0.5470;1.1679;
-172.5000;0.5478;1.1630;
-172.2000;0.5470;1.1606;
-171.9000;0.5478;1.1679;
-171.6000;0.5446;1.1557;
-171.3000;0.5470;1.1606;
-171.0000;0.5470;1.1606;
-170.7000;0.5486;1.1606;
-170.4000;0.5495;1.1532;
-170.1000;0.5470;1.1483;
-169.8000;0.5503;1.1606;
-169.5000;0.5503;1.1704;
-169.2000;0.5503;1.1777;
-168.9000;0.5495;1.1851;
-168.6000;0.5503;1.1900;
-168.3000;0.5503;1.1851;
-168.0000;0.5519;1.1900;
-167.7000;0.5519;1.1949;
-167.4000;0.5495;1.1851;
-167.1000;0.5519;1.1826;
-166.8000;0.5519;1.1777;
-166.5000;0.5527;1.1826;
-166.2000;0.5503;1.1777;
-165.9000;0.5543;1.1875;
-165.6000;0.5535;1.1924;
-165.3000;0.5535;1.1851;
-165.0000;0.5527;1.1826;
-164.7000;0.5535;1.1826;
-164.4000;0.5543;1.1851;
-164.1000;0.5535;1.1851;
-163.8000;0.5543;1.1851;
-163.5000;0.5511;1.1826;
-163.2000;0.5560;1.1973;
-162.9000;0.5551;1.1924;
-162.6000;0.5543;1.1826;
-162.3000;0.5519;1.1777;
-162.0000;0.5576;1.1949;
-161.7000;0.5568;1.1973;
-161.4000;0.5568;1.1900;
-161.1000;0.5551;1.1875;
-160.8000;0.5584;1.1949;
-160.5000;0.5576;1.1924;
-160.2000;0.5560;1.1875;
-159.9000;0.5568;1.1851;
-159.6000;0.5592;1.1924;
-159.3000;0.5633;1.1973;
-159.0000;0.5600;1.1826;
-158.7000;0.5592;1.1777;
-158.4000;0.5608;1.1777;
-158.1000;0.5592;1.1826;
-157.8000;0.5608;1.1900;
-157.5000;0.5608;1.1924;
-157.2000;0.5576;1.1900;
-156.9000;0.5625;1.2047;
-156.6000;0.5625;1.1998;
-156.3000;0.5608;1.1973;
-156.0000;0.5617;1.1949;
-155.7000;0.5617;1.1875;
-155.4000;0.5641;1.1924;
-155.1000;0.5657;1.1875;
-154.8000;0.5641;1.1777;
-154.5000;0.5649;1.1875;
-154.2000;0.5649;1.1826;
-153.9000;0.5657;1.1826;
-153.6000;0.5665;1.1826;
-153.3000;0.5665;1.1875;
-153.0000;0.5665;1.1851;
-152.7000;0.5682;1.1851;
-152.4000;0.5674;1.1924;
-152.1000;0.5657;1.1998;
-151.8000;0.5682;1.2071;
-151.5000;0.5690;1.2096;
-151.2000;0.5682;1.2096;
-150.9000;0.5674;1.2071;
-150.6000;0.5657;1.1949;
-150.3000;0.5698;1.1973;
-150.0000;0.5698;1.1924;
-149.7000;0.5690;1.1875;
-149.4000;0.5714;1.1924;
-149.1000;0.5706;1.1949;
-148.8000;0.5722;1.1998;
-148.5000;0.5722;1.1900;
-148.2000;0.5731;1.1851;
-147.9000;0.5755;1.1826;
-147.6000;0.5747;1.1851;
-147.3000;0.5747;1.1826;
-147.0000;0.5747;1.1802;
-146.7000;0.5820;1.1949;
-146.4000;0.5779;1.1753;
-146.1000;0.5779;1.1728;
-145.8000;0.5739;1.1557;
-145.5000;0.5771;1.1557;
-145.2000;0.5779;1.1557;
-144.9000;0.5788;1.1508;
-144.6000;0.5812;1.1679;
-144.3000;0.5779;1.1581;
-144.0000;0.5788;1.1655;
-143.7000;0.5812;1.1655;
-143.4000;0.5796;1.1581;
-143.1000;0.5812;1.1606;
-142.8000;0.5820;1.1606;
-142.5000;0.5812;1.1557;
-142.2000;0.5820;1.1532;
-141.9000;0.5845;1.1557;
-141.6000;0.5820;1.1483;
-141.3000;0.5828;1.1483;
-141.0000;0.5845;1.1483;
-140.7000;0.5845;1.1435;
-140.4000;0.5853;1.1435;
-140.1000;0.5828;1.1410;
-139.8000;0.5869;1.1410;
-139.5000;0.5853;1.1435;
-139.2000;0.5869;1.1508;
-138.9000;0.5853;1.1508;
-138.6000;0.5869;1.1532;
-138.3000;0.5885;1.1508;
-138.0000;0.5877;1.1508;
-137.7000;0.5885;1.1606;
-137.4000;0.5893;1.1655;
-137.1000;0.5877;1.1532;
-136.8000;0.5902;1.1532;
-136.5000;0.5910;1.1532;
-136.2000;0.5934;1.1606;
-135.9000;0.5910;1.1532;
-135.6000;0.5910;1.1508;
-135.3000;0.5910;1.1532;
-135.0000;0.5934;1.1581;
-134.7000;0.5934;1.1606;
-134.4000;0.5950;1.1630;
-134.1000;0.5942;1.1606;
-133.8000;0.5967;1.1606;
-133.5000;0.5950;1.1508;
-133.2000;0.5975;1.1483;
-132.9000;0.5958;1.1435;
-132.6000;0.5983;1.1435;
-132.3000;0.6007;1.1435;
-132.0000;0.5991;1.1361;
-131.7000;0.6007;1.1508;
-131.4000;0.6024;1.1532;
-131.1000;0.6015;1.1508;
-130.8000;0.6024;1.1508;
-130.5000;0.6024;1.1459;
-130.2000;0.6040;1.1459;
-129.9000;0.6040;1.1410;
-129.6000;0.6048;1.1483;
-129.3000;0.6048;1.1459;
-129.0000;0.6056;1.1483;
-128.7000;0.6064;1.1483;
-128.4000;0.6064;1.1557;
-128.1000;0.6072;1.1532;
-127.8000;0.6064;1.1581;
-127.5000;0.6081;1.1581;
-127.2000;0.6089;1.1557;
-126.9000;0.6211;1.1924;
-126.6000;0.6089;1.1606;
-126.3000;0.6097;1.1606;
-126.0000;0.6113;1.1557;
-125.7000;0.6105;1.1532;
-125.4000;0.6113;1.1532;
-125.1000;0.6113;1.1557;
-124.8000;0.6121;1.1532;
-124.5000;0.6113;1.1435;
-124.2000;0.6138;1.1459;
-123.9000;0.6056;1.1190;
-123.6000;0.6162;1.1483;
-123.3000;0.6162;1.1459;
-123.0000;0.6154;1.1459;
-122.7000;0.6186;1.1459;
-122.4000;0.6186;1.1508;
-122.1000;0.6195;1.1508;
-121.8000;0.6186;1.1410;
-121.5000;0.6186;1.1361;
-121.2000;0.6219;1.1532;
-120.9000;0.6227;1.1532;
-120.6000;0.6227;1.1557;
-120.3000;0.6211;1.1459;
-120.0000;0.6252;1.1532;
-119.7000;0.6235;1.1508;
-119.4000;0.6235;1.1532;
-119.1000;0.6235;1.1581;
-118.8000;0.6268;1.1630;
-118.5000;0.6268;1.1581;
-118.2000;0.6276;1.1630;
-117.9000;0.6284;1.1630;
-117.6000;0.6276;1.1606;
-117.3000;0.6292;1.1655;
-117.0000;0.6292;1.1655;
-116.7000;0.6317;1.1679;
-116.4000;0.6325;1.1704;
-116.1000;0.6357;1.1777;
-115.8000;0.6349;1.1777;
-115.5000;0.6349;1.1753;
-115.2000;0.6349;1.1679;
-114.9000;0.6333;1.1704;
-114.6000;0.6365;1.1753;
-114.3000;0.6365;1.1704;
-114.0000;0.6374;1.1753;
-113.7000;0.6390;1.1777;
-113.4000;0.6390;1.1679;
-113.1000;0.6422;1.1753;
-112.8000;0.6365;1.1630;
-112.5000;0.6390;1.1655;
-112.2000;0.6479;1.1728;
-111.9000;0.6439;1.1606;
-111.6000;0.6414;1.1532;
-111.3000;0.6414;1.1532;
-111.0000;0.6447;1.1581;
-110.7000;0.6439;1.1532;
-110.4000;0.6455;1.1459;
-110.1000;0.6463;1.1508;
-109.8000;0.6479;1.1630;
-109.5000;0.6479;1.1606;
-109.2000;0.6488;1.1508;
-108.9000;0.6496;1.1508;
-108.6000;0.6504;1.1508;
-108.3000;0.6520;1.1532;
-108.0000;0.6471;1.1337;
-107.7000;0.6496;1.1435;
-107.4000;0.6528;1.1483;
-107.1000;0.6545;1.1508;
-106.8000;0.6553;1.1532;
-106.5000;0.6545;1.1459;
-106.2000;0.6561;1.1508;
-105.9000;0.6545;1.1435;
-105.6000;0.6577;1.1435;
-105.3000;0.6585;1.1435;
-105.0000;0.6593;1.1410;
-104.7000;0.6618;1.1435;
-104.4000;0.6585;1.1410;
-104.1000;0.6577;1.1361;
-103.8000;0.6618;1.1459;
-103.5000;0.6618;1.1435;
-103.2000;0.6618;1.1410;
-102.9000;0.6569;1.1239;
-102.6000;0.6634;1.1410;
-102.3000;0.6642;1.1410;
-102.0000;0.6659;1.1435;
-101.7000;0.6675;1.1435;
-101.4000;0.6699;1.1508;
-101.1000;0.6691;1.1410;
-100.8000;0.6699;1.1410;
-100.5000;0.6716;1.1410;
-100.2000;0.6764;1.1557;
-99.9000;0.6716;1.1532;
-99.6000;0.6724;1.1483;
-99.3000;0.6732;1.1483;
-99.0000;0.6740;1.1581;
-98.7000;0.6724;1.1508;
-98.4000;0.6772;1.1581;
-98.1000;0.6716;1.1435;
-97.8000;0.6740;1.1410;
-97.5000;0.6748;1.1386;
-97.2000;0.6789;1.1459;
-96.9000;0.6813;1.1410;
-96.6000;0.6813;1.1435;
-96.3000;0.6813;1.1386;
-96.0000;0.6789;1.1214;
-95.7000;0.6919;1.1459;
-95.4000;0.6846;1.1239;
-95.1000;0.6854;1.1361;
-94.8000;0.6838;1.1386;
-94.5000;0.6878;1.1483;
-94.2000;0.6862;1.1459;
-93.9000;0.6895;1.1483;
-93.6000;0.6870;1.1386;
-93.3000;0.6886;1.1483;
-93.0000;0.6886;1.1532;
-92.7000;0.6911;1.1532;
-92.4000;0.6935;1.1532;
-92.1000;0.6911;1.1483;
-91.8000;0.6935;1.1483;
-91.5000;0.6943;1.1508;
-91.2000;0.6943;1.1435;
-90.9000;0.6919;1.1361;
-90.6000;0.6984;1.1483;
-90.3000;0.6960;1.1508;
-90.0000;0.6968;1.1459;
-89.7000;0.6984;1.1435;
-89.4000;0.6976;1.1459;
-89.1000;0.7009;1.1532;
-88.8000;0.6992;1.1557;
-88.5000;0.7009;1.1557;
-88.2000;0.6903;1.1337;
-87.9000;0.7123;1.1851;
-87.6000;0.7049;1.1557;
-87.3000;0.7041;1.1532;
-87.0000;0.7057;1.1557;
-86.7000;0.7074;1.1630;
-86.4000;0.7074;1.1679;
-86.1000;0.7074;1.1655;
-85.8000;0.7098;1.1581;
-85.5000;0.7098;1.1557;
-85.2000;0.7114;1.1557;
-84.9000;0.7114;1.1557;
-84.6000;0.7090;1.1508;
-84.3000;0.7114;1.1557;
-84.0000;0.7147;1.1557;
-83.7000;0.7139;1.1581;
-83.4000;0.7131;1.1557;
-83.1000;0.7163;1.1532;
-82.8000;0.7212;1.1532;
-82.5000;0.7131;1.1435;
-82.2000;0.7196;1.1557;
-81.9000;0.7196;1.1508;
-81.6000;0.7212;1.1655;
-81.3000;0.7212;1.1606;
-81.0000;0.7220;1.1532;
-80.7000;0.7220;1.1483;
-80.4000;0.7236;1.1483;
-80.1000;0.7261;1.1459;
-79.8000;0.7261;1.1459;
-79.5000;0.7253;1.1386;
-79.2000;0.7269;1.1410;
-78.9000;0.7310;1.1459;
-78.6000;0.7220;1.1165;
-78.3000;0.7261;1.1190;
-78.0000;0.7285;1.1165;
-77.7000;0.7367;1.1361;
-77.4000;0.7310;1.1141;
-77.1000;0.7318;1.1214;
-76.8000;0.7318;1.1263;
-76.5000;0.7342;1.1410;
-76.2000;0.7334;1.1483;
-75.9000;0.7342;1.1435;
-75.6000;0.7359;1.1459;
-75.3000;0.7367;1.1459;
-75.0000;0.7383;1.1508;
-74.7000;0.7383;1.1459;
-74.4000;0.7391;1.1459;
-74.1000;0.7399;1.1459;
-73.8000;0.7416;1.1459;
-73.5000;0.7432;1.1508;
-73.2000;0.7407;1.1361;
-72.9000;0.7440;1.1410;
-72.6000;0.7448;1.1361;
-72.3000;0.7473;1.1459;
-72.0000;0.7456;1.1435;
-71.7000;0.7456;1.1337;
-71.4000;0.7473;1.1263;
-71.1000;0.7481;1.1312;
-70.8000;0.7497;1.1361;
-70.5000;0.7497;1.1386;
-70.2000;0.7505;1.1435;
-69.9000;0.7521;1.1483;
-69.6000;0.7448;1.1312;
-69.3000;0.7530;1.1435;
-69.0000;0.7546;1.1459;
-68.7000;0.7538;1.1386;
-68.4000;0.7538;1.1288;
-68.1000;0.7521;1.1190;
-67.8000;0.7546;1.1239;
-67.5000;0.7570;1.1361;
-67.2000;0.7619;1.1508;
-66.9000;0.7603;1.1361;
-66.6000;0.7578;1.1263;
-66.3000;0.7603;1.1239;
-66.0000;0.7627;1.1312;
-65.7000;0.7619;1.1386;
-65.4000;0.7627;1.1435;
-65.1000;0.7676;1.1581;
-64.8000;0.7652;1.1508;
-64.5000;0.7643;1.1410;
-64.2000;0.7668;1.1459;
-63.9000;0.7668;1.1435;
-63.6000;0.7676;1.1459;
-63.3000;0.7676;1.1459;
-63.0000;0.7660;1.1386;
-62.7000;0.7700;1.1435;
-62.4000;0.7684;1.1361;
-62.1000;0.7717;1.1435;
-61.8000;0.7733;1.1410;
-61.5000;0.7717;1.1386;
-61.2000;0.7733;1.1435;
-60.9000;0.7741;1.1386;
-60.6000;0.7749;1.1337;
-60.3000;0.7741;1.1288;
-60.0000;0.7774;1.1263;
-59.7000;0.7782;1.1239;
-59.4000;0.7766;1.1288;
-59.1000;0.7790;1.1337;
-58.8000;0.7798;1.1386;
-58.5000;0.7774;1.1337;
-58.2000;0.7790;1.1435;
-57.9000;0.7806;1.1386;
-57.6000;0.7806;1.1361;
-57.3000;0.7823;1.1410;
-57.0000;0.7831;1.1435;
-56.7000;0.7839;1.1483;
-56.4000;0.7847;1.1532;
-56.1000;0.7871;1.1557;
-55.8000;0.7896;1.1630;
-55.5000;0.7871;1.1581;
-55.2000;0.7871;1.1459;
-54.9000;0.7880;1.1337;
-54.6000;0.7904;1.1312;
-54.3000;0.7904;1.1337;
-54.0000;0.7871;1.1337;
-53.7000;0.7928;1.1337;
-53.4000;0.7937;1.1337;
-53.1000;0.7953;1.1361;
-52.8000;0.7928;1.1361;
-52.5000;0.7945;1.1483;
-52.2000;0.7953;1.1459;
-51.9000;0.7969;1.1483;
-51.6000;0.7977;1.1532;
-51.3000;0.7985;1.1606;
-51.0000;0.7993;1.1581;
-50.7000;0.7985;1.1655;
-50.4000;0.8010;1.1679;
-50.1000;0.8010;1.1630;
-49.8000;0.8018;1.1655;
-49.5000;0.8018;1.1655;
-49.2000;0.8026;1.1606;
-48.9000;0.8026;1.1483;
-48.6000;0.8034;1.1532;
-48.3000;0.8042;1.1581;
-48.0000;0.8075;1.1581;
-47.7000;0.8018;1.1459;
-47.4000;0.8059;1.1581;
-47.1000;0.8067;1.1557;
-46.8000;0.8091;1.1508;
-46.5000;0.8091;1.1483;
-46.2000;0.8107;1.1435;
-45.9000;0.8099;1.1312;
-45.6000;0.8124;1.1386;
-45.3000;0.8124;1.1386;
-45.0000;0.8124;1.1312;
-44.7000;0.8132;1.1288;
-44.4000;0.8132;1.1190;
-44.1000;0.8156;1.1092;
-43.8000;0.8140;1.1043;
-43.5000;0.8156;1.1190;
-43.2000;0.8156;1.1312;
-42.9000;0.8181;1.1312;
-42.6000;0.8156;1.1263;
-42.3000;0.8181;1.1263;
-42.0000;0.8221;1.1288;
-41.7000;0.8107;1.0945;
-41.4000;0.8205;1.1190;
-41.1000;0.8197;1.1165;
-40.8000;0.8213;1.1141;
-40.5000;0.8221;1.1165;
-40.2000;0.8238;1.1141;
-39.9000;0.8230;1.1092;
-39.6000;0.8238;1.1092;
-39.3000;0.8254;1.1165;
-39.0000;0.8230;1.1067;
-38.7000;0.8270;1.1214;
-38.4000;0.8278;1.1312;
-38.1000;0.8270;1.1337;
-37.8000;0.8270;1.1337;
-37.5000;0.8287;1.1410;
-37.2000;0.8287;1.1386;
-36.9000;0.8303;1.1386;
-36.6000;0.8319;1.1312;
-36.3000;0.8303;1.1386;
-36.0000;0.8319;1.1386;
-35.7000;0.8335;1.1410;
-35.4000;0.8368;1.1483;
-35.1000;0.8344;1.1312;
-34.8000;0.8352;1.1239;
-34.5000;0.8368;1.1239;
-34.2000;0.8360;1.1214;
-33.9000;0.8335;1.1141;
-33.6000;0.8360;1.1141;
-33.3000;0.8368;1.1141;
-33.0000;0.8392;1.1190;
-32.7000;0.8449;1.1337;
-32.4000;0.8384;1.1165;
-32.1000;0.8384;1.1239;
-31.8000;0.8425;1.1337;
-31.5000;0.8417;1.1214;
-31.2000;0.8335;1.0994;
-30.9000;0.8417;1.1141;
-30.6000;0.8457;1.1239;
-30.3000;0.8433;1.1214;
-30.0000;0.8433;1.1165;
-29.7000;0.8433;1.1141;
-29.4000;0.8449;1.1190;
-29.1000;0.8457;1.1214;
-28.8000;0.8490;1.1337;
-28.5000;0.8474;1.1214;
-28.2000;0.8457;1.1141;
-27.9000;0.8482;1.1263;
-27.6000;0.8466;1.1239;
-27.3000;0.8490;1.1288;
-27.0000;0.8482;1.1435;
-26.7000;0.8580;1.1704;
-26.4000;0.8506;1.1435;
-26.1000;0.8498;1.1312;
-25.8000;0.8531;1.1337;
-25.5000;0.8523;1.1386;
-25.2000;0.8547;1.1459;
-24.9000;0.8539;1.1483;
-24.6000;0.8588;1.1532;
-24.3000;0.8563;1.1361;
-24.0000;0.8571;1.1386;
-23.7000;0.8661;1.1606;
-23.4000;0.8571;1.1337;
-23.1000;0.8580;1.1288;
-22.8000;0.8571;1.1263;
-22.5000;0.8596;1.1165;
-22.2000;0.8580;1.1067;
-21.9000;0.8588;1.1092;
-21.6000;0.8596;1.1067;
-21.3000;0.8612;1.1165;
-21.0000;0.8604;1.1165;
-20.7000;0.8620;1.1116;
-20.4000;0.8628;1.1165;
-20.1000;0.8620;1.1141;
-19.8000;0.8628;1.1214;
-19.5000;0.8628;1.1165;
-19.2000;0.8612;1.1141;
-18.9000;0.8661;1.1190;
-18.6000;0.8677;1.1239;
-18.3000;0.8661;1.1190;
-18.0000;0.8669;1.1141;
-17.7000;0.8669;1.1141;
-17.4000;0.8694;1.1141;
-17.1000;0.8685;1.1067;
-16.8000;0.8685;1.1067;
-16.5000;0.8702;1.1116;
-16.2000;0.8702;1.1165;
-15.9000;0.8710;1.1239;
-15.6000;0.8726;1.1141;
-15.3000;0.8718;1.1165;
-15.0000;0.8734;1.1239;
-14.7000;0.8734;1.1214;
-14.4000;0.8726;1.1165;
-14.1000;0.8742;1.1190;
-13.8000;0.8742;1.1214;
-13.5000;0.8759;1.1288;
-13.2000;0.8751;1.1263;
-12.9000;0.8751;1.1263;
-12.6000;0.8759;1.1214;
-12.3000;0.8783;1.1239;
-12.0000;0.8742;1.1141;
-11.7000;0.8751;1.1116;
-11.4000;0.8775;1.1190;
-11.1000;0.8775;1.1141;
-10.8000;0.8807;1.1190;
-10.5000;0.8791;1.1190;
-10.2000;0.8791;1.1239;
-9.9000;0.8807;1.1263;
-9.6000;0.8799;1.1239;
-9.3000;0.8807;1.1190;
-9.0000;0.8832;1.1263;
-8.7000;0.8799;1.1239;
-8.4000;0.8840;1.1361;
-8.1000;0.8791;1.1190;
-7.8000;0.8840;1.1239;
-7.5000;0.8864;1.1312;
-7.2000;0.8856;1.1312;
-6.9000;0.8848;1.1214;
-6.6000;0.8848;1.1239;
-6.3000;0.8864;1.1239;
-6.0000;0.8881;1.1239;
-5.7000;0.8873;1.1214;
-5.4000;0.8873;1.1214;
-5.1000;0.8889;1.1239;
-4.8000;0.8881;1.1116;
-4.5000;0.8897;1.1141;
-4.2000;0.8897;1.1214;
-3.9000;0.8905;1.1141;
-3.6000;0.8905;1.1067;
-3.3000;0.8913;1.1043;
-3.0000;0.8921;1.1043;
-2.7000;0.8930;1.1018;
-2.4000;0.8921;1.0969;
-2.1000;0.8930;1.0945;
-1.8000;0.8962;1.1116;
-1.5000;0.8913;1.1018;
-1.2000;0.8938;1.1092;
-0.9000;0.8954;1.1141;
-0.6000;0.8970;1.1214;
-0.3000;0.8938;1.1165;
0.0000;0.8938;1.1165;
0.3000;0.9296;1.1557;
0.6000;0.9825;1.1875;
0.9000;1.0224;1.2120;
1.2000;1.0574;1.2340;
1.5000;1.0842;1.2463;
1.8000;1.1054;1.2610;
2.1000;1.1225;1.2610;
2.4000;1.1396;1.2683;
2.7000;1.1526;1.2830;
3.0000;1.1624;1.2904;
3.3000;1.1697;1.2977;
3.6000;1.1836;1.3148;
3.9000;1.1852;1.3173;
4.2000;1.1901;1.3197;
4.5000;1.1958;1.3320;
4.8000;1.2015;1.3442;
5.1000;1.2088;1.3614;
5.4000;1.2080;1.3589;
5.7000;1.2088;1.3540;
6.0000;1.2120;1.3589;
6.3000;1.2153;1.3614;
6.6000;1.2202;1.3589;
6.9000;1.2226;1.3565;
7.2000;1.2202;1.3491;
7.5000;1.2234;1.3589;
7.8000;1.2275;1.3638;
8.1000;1.2308;1.3663;
8.4000;1.2283;1.3589;
8.7000;1.2324;1.3540;
9.0000;1.2332;1.3540;
9.3000;1.2414;1.3663;
9.6000;1.2373;1.3491;
9.9000;1.2389;1.3467;
10.2000;1.2405;1.3442;
10.5000;1.2446;1.3565;
10.8000;1.2454;1.3491;
11.1000;1.2462;1.3491;
11.4000;1.2479;1.3565;
11.7000;1.2487;1.3614;
12.0000;1.2470;1.3540;
12.3000;1.2503;1.3589;
12.6000;1.2487;1.3467;
12.9000;1.2536;1.3565;
13.2000;1.2527;1.3589;
13.5000;1.2536;1.3516;
13.8000;1.2536;1.3516;
14.1000;1.2552;1.3491;
14.4000;1.2568;1.3516;
14.7000;1.2576;1.3516;
15.0000;1.2601;1.3516;
15.3000;1.2601;1.3540;
15.6000;1.2650;1.3589;
15.9000;1.2593;1.3467;
16.2000;1.2601;1.3491;
16.5000;1.2658;1.3467;
16.8000;1.2633;1.3393;
17.1000;1.2641;1.3467;
17.4000;1.2658;1.3442;
17.7000;1.2641;1.3442;
18.0000;1.2658;1.3442;
18.3000;1.2682;1.3516;
18.6000;1.2682;1.3467;
18.9000;1.2690;1.3467;
19.2000;1.2739;1.3516;
19.5000;1.2690;1.3418;
19.8000;1.2707;1.3418;
20.1000;1.2690;1.3393;
20.4000;1.2723;1.3467;
20.7000;1.2739;1.3589;
21.0000;1.2747;1.3516;
21.3000;1.2731;1.3442;
21.6000;1.2764;1.3369;
21.9000;1.2764;1.3442;
22.2000;1.2747;1.3369;
22.5000;1.2747;1.3344;
22.8000;1.2755;1.3344;
23.1000;1.2764;1.3271;
23.4000;1.2788;1.3320;
23.7000;1.2739;1.3197;
24.0000;1.2764;1.3222;
24.3000;1.2780;1.3173;
24.6000;1.2788;1.3197;
24.9000;1.2796;1.3124;
25.2000;1.2780;1.3075;
25.5000;1.2788;1.3051;
25.8000;1.2796;1.3075;
26.1000;1.2788;1.3124;
26.4000;1.2796;1.3222;
26.7000;1.2821;1.3271;
27.0000;1.2821;1.3295;
27.3000;1.2821;1.3295;
27.6000;1.2821;1.3369;
27.9000;1.2845;1.3442;
28.2000;1.2812;1.3393;
28.5000;1.2796;1.3467;
28.8000;1.2853;1.3565;
29.1000;1.2837;1.3540;
29.4000;1.2845;1.3589;
29.7000;1.2829;1.3540;
30.0000;1.2837;1.3467;
30.3000;1.2837;1.3418;
30.6000;1.2845;1.3418;
30.9000;1.2837;1.3320;
31.2000;1.2812;1.3197;
31.5000;1.2845;1.3320;
31.8000;1.2869;1.3246;
32.1000;1.2877;1.3246;
32.4000;1.2869;1.3173;
32.7000;1.2877;1.3222;
33.0000;1.2869;1.3246;
33.3000;1.2869;1.3295;
33.6000;1.2877;1.3393;
33.9000;1.2869;1.3418;
34.2000;1.2861;1.3344;
34.5000;1.2877;1.3344;
34.8000;1.2869;1.3271;
35.1000;1.2877;1.3222;
35.4000;1.2877;1.3148;
35.7000;1.2869;1.3148;
36.0000;1.2894;1.3295;
36.3000;1.2894;1.3344;
36.6000;1.2894;1.3369;
36.9000;1.2894;1.3320;
37.2000;1.2894;1.3344;
37.5000;1.2910;1.3344;
37.8000;1.2910;1.3369;
38.1000;1.2910;1.3442;
38.4000;1.2902;1.3369;
38.7000;1.2918;1.3320;
39.0000;1.2902;1.3295;
39.3000;1.2902;1.3369;
39.6000;1.2926;1.3393;
39.9000;1.2918;1.3271;
40.2000;1.2926;1.3246;
40.5000;1.2918;1.3222;
40.8000;1.2918;1.3295;
41.1000;1.2926;1.3271;
41.4000;1.2926;1.3271;
41.7000;1.2926;1.3271;
42.0000;1.2926;1.3295;
42.3000;1.2918;1.3197;
42.6000;1.2918;1.3222;
42.9000;1.2934;1.3197;
43.2000;1.2934;1.3173;
43.5000;1.2951;1.3197;
43.8000;1.2943;1.3222;
44.1000;1.2934;1.3124;
44.4000;1.2918;1.3051;
44.7000;1.2918;1.3051;
45.0000;1.2943;1.3100;
45.3000;1.2861;1.2928;
45.6000;1.2959;1.3197;
45.9000;1.2951;1.3246;
46.2000;1.2943;1.3271;
46.5000;1.2934;1.3369;
46.8000;1.2934;1.3344;
47.1000;1.2959;1.3320;
47.4000;1.2967;1.3295;
47.7000;1.2951;1.3197;
48.0000;1.2934;1.3222;
48.3000;1.2926;1.3197;
48.6000;1.2951;1.3222;
48.9000;1.2951;1.3271;
49.2000;1.2943;1.3271;
49.5000;1.2926;1.3197;
49.8000;1.2951;1.3246;
50.1000;1.2959;1.3295;
50.4000;1.2959;1.3344;
50.7000;1.2951;1.3197;
51.0000;1.3057;1.3442;
51.3000;1.2975;1.3197;
51.6000;1.2983;1.3295;
51.9000;1.2983;1.3271;
52.2000;1.2983;1.3271;
52.5000;1.2967;1.3271;
52.8000;1.2959;1.3295;
53.1000;1.2959;1.3222;
53.4000;1.2959;1.3100;
53.7000;1.2959;1.3075;
54.0000;1.2967;1.3124;
54.3000;1.2951;1.3148;
54.6000;1.2967;1.3148;
54.9000;1.2975;1.3222;
55.2000;1.2983;1.3271;
55.5000;1.2975;1.3222;
55.8000;1.2959;1.3246;
56.1000;1.2975;1.3222;
56.4000;1.2975;1.3344;
56.7000;1.2975;1.3344;
57.0000;1.2975;1.3320;
57.3000;1.2983;1.3295;
57.6000;1.2975;1.3222;
57.9000;1.2991;1.3197;
58.2000;1.3000;1.3222;
58.5000;1.2967;1.3197;
58.8000;1.2967;1.3222;
59.1000;1.2967;1.3344;
59.4000;1.2959;1.3418;
59.7000;1.2967;1.3442;
60.0000;1.2975;1.3393;
60.3000;1.2975;1.3295;
60.6000;1.2967;1.3246;
60.9000;1.2967;1.3295;
61.2000;1.2975;1.3271;
61.5000;1.2967;1.3197;
61.8000;1.2967;1.3124;
62.1000;1.2991;1.3100;
62.4000;1.2991;1.3124;
62.7000;1.2983;1.3173;
63.0000;1.2991;1.3222;
63.3000;1.2975;1.3173;
63.6000;1.2991;1.3173;
63.9000;1.2983;1.3246;
64.2000;1.2991;1.3246;
64.5000;1.2991;1.3222;
64.8000;1.2991;1.3295;
65.1000;1.2991;1.3344;
65.4000;1.2991;1.3344;
65.7000;1.2975;1.3246;
66.0000;1.2951;1.3197;
66.3000;1.2983;1.3246;
66.6000;1.3000;1.3197;
66.9000;1.2991;1.3197;
67.2000;1.3000;1.3222;
67.5000;1.2991;1.3246;
67.8000;1.3000;1.3246;
68.1000;1.2983;1.3246;
68.4000;1.2983;1.3222;
68.7000;1.2967;1.3100;
69.0000;1.2983;1.3148;
69.3000;1.2975;1.3173;
69.6000;1.2975;1.3197;
69.9000;1.3000;1.3197;
70.2000;1.2983;1.3100;
70.5000;1.3000;1.3075;
70.8000;1.3032;1.3148;
71.1000;1.3000;1.2977;
71.4000;1.2983;1.3002;
71.7000;1.2991;1.3124;
72.0000;1.2991;1.3075;
72.3000;1.2991;1.3100;
72.6000;1.2991;1.3124;
72.9000;1.3008;1.3173;
73.2000;1.2991;1.3148;
73.5000;1.2983;1.3075;
73.8000;1.2975;1.3148;
74.1000;1.3000;1.3173;
74.4000;1.3008;1.3173;
74.7000;1.2991;1.3148;
75.0000;1.2991;1.3124;
75.3000;1.3008;1.3100;
75.6000;1.3000;1.3100;
75.9000;1.3000;1.3148;
76.2000;1.3008;1.3222;
76.5000;1.2983;1.3197;
76.8000;1.2959;1.3075;
77.1000;1.3008;1.3075;
77.4000;1.2991;1.3075;
77.7000;1.2983;1.3051;
78.0000;1.2991;1.3002;
78.3000;1.2991;1.3051;
78.6000;1.2926;1.2855;
78.9000;1.2991;1.3100;
79.2000;1.2991;1.3051;
79.5000;1.3008;1.3075;
79.8000;1.2991;1.3075;
80.1000;1.2991;1.3026;
80.4000;1.3000;1.3075;
80.7000;1.3008;1.3002;
81.0000;1.2983;1.2977;
81.3000;1.2991;1.2855;
81.6000;1.2991;1.2781;
81.9000;1.3008;1.2830;
82.2000;1.3016;1.2830;
82.5000;1.2926;1.2610;
82.8000;1.3016;1.2904;
83.1000;1.3000;1.2879;
83.4000;1.3000;1.2928;
83.7000;1.2934;1.2781;
84.0000;1.3008;1.2977;
84.3000;1.3016;1.3026;
84.6000;1.3008;1.3026;
84.9000;1.3016;1.3075;
85.2000;1.3000;1.3075;
85.5000;1.3016;1.3148;
85.8000;1.3016;1.3148;
86.1000;1.3008;1.3197;
86.4000;1.2991;1.3222;
86.7000;1.3000;1.3320;
87.0000;1.2991;1.3393;
87.3000;1.2991;1.3320;
87.6000;1.2991;1.3295;
87.9000;1.3008;1.3295;
88.2000;1.3000;1.3271;
88.5000;1.3008;1.3197;
88.8000;1.3016;1.3222;
89.1000;1.3089;1.3344;
89.4000;1.3008;1.3075;
89.7000;1.2991;1.3075;
90.0000;1.2975;1.3124;
90.3000;1.2975;1.3148;
90.6000;1.3089;1.3369;
90.9000;1.2983;1.3173;
91.2000;1.2991;1.3246;
91.5000;1.3008;1.3246;
91.8000;1.2943;1.3051;
92.1000;1.3008;1.3246;
92.4000;1.2991;1.3173;
92.7000;1.2943;1.2928;
93.0000;1.2975;1.3002;
93.3000;1.3008;1.3124;
93.6000;1.3008;1.3100;
93.9000;1.3024;1.3173;
94.2000;1.3016;1.3295;
94.5000;1.2991;1.3295;
94.8000;1.2991;1.3271;
95.1000;1.2983;1.3271;
95.4000;1.3000;1.3295;
95.7000;1.2983;1.3271;
96.0000;1.2991;1.3246;
96.3000;1.2983;1.3173;
96.6000;1.2983;1.3075;
96.9000;1.2991;1.3173;
97.2000;1.3008;1.3173;
97.5000;1.3000;1.3100;
97.8000;1.3008;1.3124;
98.1000;1.3008;1.3148;
98.4000;1.3000;1.3148;
98.7000;1.3008;1.3173;
99.0000;1.2991;1.3148;
99.3000;1.3000;1.3148;
99.6000;1.2991;1.3148;
99.9000;1.3000;1.3197;
100.2000;1.2910;1.3002;
100.5000;1.2983;1.3222;
100.8000;1.3000;1.3271;
101.1000;1.2991;1.3222;
101.4000;1.2967;1.3222;
101.7000;1.2983;1.3197;
102.0000;1.3008;1.3197;
102.3000;1.3016;1.3148;
102.6000;1.2991;1.3124;
102.9000;1.2991;1.3222;
103.2000;1.3000;1.3271;
103.5000;1.2991;1.3295;
103.8000;1.3016;1.3418;
104.1000;1.3000;1.3393;
104.4000;1.2983;1.3320;
104.7000;1.3008;1.3369;
105.0000;1.2983;1.3246;
105.3000;1.2983;1.3197;
105.6000;1.2983;1.3295;
105.9000;1.2991;1.3393;
106.2000;1.2991;1.3442;
106.5000;1.2975;1.3418;
106.8000;1.2991;1.3467;
107.1000;1.2983;1.3344;
107.4000;1.3008;1.3246;
107.7000;1.2991;1.3295;
108.0000;1.2983;1.3369;
108.3000;1.2983;1.3344;
108.6000;1.2910;1.3124;
108.9000;1.2975;1.3320;
109.2000;1.3024;1.3418;
109.5000;1.2991;1.3369;
109.8000;1.2983;1.3393;
110.1000;1.3040;1.3491;
110.4000;1.2975;1.3246;
110.7000;1.2983;1.3197;
111.0000;1.2991;1.3271;
111.3000;1.2959;1.3197;
111.6000;1.2991;1.3271;
111.9000;1.2991;1.3222;
112.2000;1.3000;1.3295;
112.5000;1.3000;1.3320;
112.8000;1.3000;1.3295;
113.1000;1.2959;1.3246;
113.4000;1.2991;1.3295;
113.7000;1.3008;1.3295;
114.0000;1.3000;1.3246;
114.3000;1.2991;1.3222;
114.6000;1.3000;1.3271;
114.9000;1.2983;1.3271;
115.2000;1.3000;1.3295;
115.5000;1.2983;1.3173;
115.8000;1.2991;1.3173;
116.1000;1.2959;1.3173;
116.4000;1.3000;1.3246;
116.7000;1.2991;1.3271;
117.0000;1.2991;1.3271;
117.3000;1.2967;1.3197;
117.6000;1.2991;1.3271;
117.9000;1.3057;1.3442;
118.2000;1.2991;1.3271;
118.5000;1.2983;1.3271;
118.8000;1.3000;1.3320;
119.1000;1.2991;1.3344;
119.4000;1.2975;1.3344;
119.7000;1.2967;1.3442;
120.0000;1.3008;1.3540;
120.3000;1.2975;1.3442;
120.6000;1.2983;1.3418;
120.9000;1.2975;1.3369;
121.2000;1.3008;1.3418;
121.5000;1.2983;1.3393;
121.8000;1.2975;1.3369;
122.1000;1.2975;1.3271;
122.4000;1.2967;1.3295;
122.7000;1.2975;1.3320;
123.0000;1.2934;1.3197;
123.3000;1.2967;1.3246;
123.6000;1.2975;1.3246;
123.9000;1.2975;1.3197;
124.2000;1.2983;1.3100;
124.5000;1.3024;1.3222;
124.8000;1.2983;1.3051;
125.1000;1.2991;1.3148;
125.4000;1.2991;1.3197;
125.7000;1.2983;1.3222;
126.0000;1.2959;1.3148;
126.3000;1.2975;1.3246;
126.6000;1.2983;1.3246;
126.9000;1.2983;1.3295;
127.2000;1.2975;1.3344;
127.5000;1.2967;1.3295;
127.8000;1.2967;1.3369;
128.1000;1.2983;1.3369;
128.4000;1.2983;1.3344;
128.7000;1.2951;1.3246;
129.0000;1.2975;1.3246;
129.3000;1.2975;1.3197;
129.6000;1.2983;1.3197;
129.9000;1.2975;1.3222;
130.2000;1.3040;1.3369;
130.5000;1.2975;1.3222;
130.8000;1.2918;1.3002;
131.1000;1.2975;1.3222;
131.4000;1.2967;1.3222;
131.7000;1.2975;1.3246;
132.0000;1.2975;1.3246;
132.3000;1.2967;1.3222;
132.6000;1.2967;1.3222;
132.9000;1.2975;1.3271;
133.2000;1.2967;1.3320;
133.5000;1.2926;1.3173;
133.8000;1.2983;1.3320;
134.1000;1.2991;1.3271;
134.4000;1.2983;1.3197;
134.7000;1.2983;1.3320;
135.0000;1.2967;1.3271;
135.3000;1.2967;1.3271;
135.6000;1.2975;1.3222;
135.9000;1.3008;1.3222;
136.2000;1.2959;1.3075;
136.5000;1.2975;1.3051;
136.8000;1.2975;1.3075;
137.1000;1.2983;1.3100;
137.4000;1.2975;1.3075;
137.7000;1.2967;1.3075;
138.0000;1.2967;1.3075;
138.3000;1.2975;1.3051;
138.6000;1.2967;1.2977;
138.9000;1.2951;1.2928;
139.2000;1.2959;1.2928;
139.5000;1.2951;1.3002;
139.8000;1.2959;1.3026;
140.1000;1.2967;1.3002;
140.4000;1.2975;1.2977;
140.7000;1.2975;1.3051;
141.0000;1.2967;1.3051;
141.3000;1.2951;1.3026;
141.6000;1.2959;1.3026;
141.9000;1.2959;1.3002;
142.2000;1.2943;1.3002;
142.5000;1.2975;1.3026;
142.8000;1.2943;1.3051;
143.1000;1.2959;1.3051;
143.4000;1.2967;1.3026;
143.7000;1.2967;1.2953;
144.0000;1.3000;1.3002;
144.3000;1.2959;1.2904;
144.6000;1.2975;1.2977;
144.9000;1.2967;1.2928;
145.2000;1.2943;1.2781;
145.5000;1.2967;1.2830;
145.8000;1.2951;1.2830;
146.1000;1.2951;1.2928;
146.4000;1.2959;1.2904;
146.7000;1.2967;1.3026;
147.0000;1.2877;1.2830;
147.3000;1.2951;1.3002;
147.6000;1.2943;1.3002;
147.9000;1.2926;1.2928;
148.2000;1.2959;1.3026;
148.5000;1.2951;1.2977;
148.8000;1.2959;1.2977;
149.1000;1.2934;1.2977;
149.4000;1.2959;1.3100;
149.7000;1.2951;1.3124;
150.0000;1.2943;1.3026;
150.3000;1.2943;1.3051;
150.6000;1.2951;1.3051;
150.9000;1.2959;1.3026;
151.2000;1.2943;1.2928;
151.5000;1.2943;1.2904;
151.8000;1.2943;1.2928;
152.1000;1.2943;1.2855;
152.4000;1.2951;1.2879;
152.7000;1.2943;1.2928;
153.0000;1.2951;1.3124;
153.3000;1.2951;1.3100;
153.6000;1.2959;1.3148;
153.9000;1.2951;1.3100;
154.2000;1.2959;1.3124;
154.5000;1.2943;1.3148;
154.8000;1.2943;1.3148;
155.1000;1.2959;1.3173;
155.4000;1.2959;1.3173;
155.7000;1.2967;1.3148;
156.0000;1.2967;1.3075;
156.3000;1.2959;1.3002;
156.6000;1.2959;1.3026;
156.9000;1.2951;1.3051;
157.2000;1.2959;1.3100;
157.5000;1.2934;1.3075;
157.8000;1.2934;1.3075;
158.1000;1.2918;1.3075;
158.4000;1.2943;1.3124;
158.7000;1.2943;1.3100;
159.0000;1.2959;1.3075;
159.3000;1.2967;1.3075;
159.6000;1.2967;1.3100;
159.9000;1.2943;1.3100;
160.2000;1.2943;1.3124;
160.5000;1.2934;1.3026;
160.8000;1.2959;1.3002;
161.1000;1.2967;1.2953;
161.4000;1.2975;1.3002;
161.7000;1.2943;1.2855;
162.0000;1.2934;1.2830;
162.3000;1.2959;1.2928;
162.6000;1.2934;1.3026;
162.9000;1.2918;1.2904;
163.2000;1.2934;1.2977;
163.5000;1.2951;1.3100;
163.8000;1.2951;1.3173;
164.1000;1.2934;1.3051;
164.4000;1.2951;1.3051;
164.7000;1.3040;1.3271;
165.0000;1.2934;1.3075;
165.3000;1.2951;1.3148;
165.6000;1.2943;1.3124;
165.9000;1.2934;1.3173;
166.2000;1.2967;1.3271;
166.5000;1.2926;1.3197;
166.8000;1.2886;1.3002;
167.1000;1.2934;1.3124;
167.4000;1.2934;1.3051;
167.7000;1.2918;1.3002;
168.0000;1.2943;1.3075;
168.3000;1.2918;1.3100;
168.6000;1.2926;1.3075;
168.9000;1.2959;1.3075;
169.2000;1.2959;1.3051;
169.5000;1.2918;1.2977;
169.8000;1.2934;1.3100;
170.1000;1.2934;1.3124;
170.4000;1.2943;1.3148;
170.7000;1.2943;1.3148;
171.0000;1.2926;1.3271;
171.3000;1.2934;1.3246;
171.6000;1.2918;1.3197;
171.9000;1.2926;1.3246;
172.2000;1.2934;1.3246;
172.5000;1.2934;1.3222;
172.8000;1.2910;1.3173;
173.1000;1.2926;1.3246;
173.4000;1.2910;1.3222;
173.7000;1.2926;1.3246;
174.0000;1.2918;1.3173;
174.3000;1.2918;1.3148;
174.6000;1.2934;1.3246;
174.9000;1.2926;1.3173;
175.2000;1.2934;1.3148;
175.5000;1.2910;1.3100;
175.8000;1.2902;1.3026;
176.1000;1.2926;1.3075;
176.4000;1.2926;1.3148;
176.7000;1.2910;1.3148;
177.0000;1.2918;1.3173;
177.3000;1.2918;1.3197;
177.6000;1.2918;1.3222;
177.9000;1.2918;1.3173;
178.2000;1.2910;1.3295;
178.5000;1.2926;1.3246;
178.8000;1.2894;1.3295;
179.1000;1.2926;1.3418;
179.4000;1.2926;1.3369;
179.7000;1.2918;1.3369;
180.0000;1.2918;1.3442;
180.3000;1.2943;1.3418;
180.6000;1.2934;1.3344;
180.9000;1.2926;1.3320;
181.2000;1.2918;1.3295;
181.5000;1.2934;1.3271;
181.8000;1.2926;1.3246;
182.1000;1.2918;1.3271;
182.4000;1.2943;1.3295;
182.7000;1.2918;1.3246;
183.0000;1.2918;1.3246;
183.3000;1.2943;1.3295;
183.6000;1.2967;1.3271;
183.9000;1.2926;1.3173;
184.2000;1.2926;1.3222;
184.5000;1.2910;1.3173;
184.8000;1.2902;1.3124;
185.1000;1.2918;1.3246;
185.4000;1.2926;1.3295;
185.7000;1.2918;1.3320;
186.0000;1.2926;1.3271;
186.3000;1.2918;1.3295;
186.6000;1.2877;1.3222;
186.9000;1.2910;1.3295;
187.2000;1.2894;1.3246;
187.5000;1.2910;1.3320;
187.8000;1.2918;1.3320;
188.1000;1.2910;1.3295;
188.4000;1.2910;1.3344;
188.7000;1.2910;1.3418;
189.0000;1.2918;1.3442;
189.3000;1.2894;1.3320;
189.6000;1.2910;1.3344;
189.9000;1.2910;1.3271;
190.2000;1.2902;1.3271;
190.5000;1.2910;1.3295;
190.8000;1.2886;1.3197;
191.1000;1.2910;1.3148;
191.4000;1.2910;1.3197;
191.7000;1.2926;1.3148;
192.0000;1.2918;1.3148;
192.3000;1.2918;1.3246;
192.6000;1.2910;1.3393;
192.9000;1.2902;1.3344;
193.2000;1.2837;1.3148;
193.5000;1.2886;1.3246;
193.8000;1.2853;1.3197;
194.1000;1.2886;1.3222;
194.4000;1.2845;1.3148;
194.7000;1.2918;1.3246;
195.0000;1.2886;1.3271;
195.3000;1.2926;1.3369;
195.6000;1.2918;1.3295;
195.9000;1.2910;1.3271;
196.2000;1.2902;1.3222;
196.5000;1.2902;1.3246;
196.8000;1.2902;1.3271;
197.1000;1.2943;1.3320;
197.4000;1.2886;1.3173;
197.7000;1.2902;1.3246;
198.0000;1.2902;1.3271;
198.3000;1.2886;1.3222;
198.6000;1.2869;1.3197;
198.9000;1.2894;1.3173;
199.2000;1.2902;1.3197;
199.5000;1.2894;1.3148;
199.8000;1.2886;1.3075;
200.1000;1.2902;1.3148;
200.4000;1.2894;1.3100;
200.7000;1.2910;1.3124;
201.0000;1.2902;1.3075;
201.3000;1.2902;1.3100;
201.6000;1.2902;1.3173;
201.9000;1.2951;1.3369;
202.2000;1.2918;1.3344;
202.5000;1.2886;1.3246;
202.8000;1.2886;1.3222;
203.1000;1.2886;1.3246;
203.4000;1.2975;1.3442;
203.7000;1.2877;1.3197;
204.0000;1.2886;1.3148;
204.3000;1.2869;1.3075;
204.6000;1.2894;1.3051;
204.9000;1.2886;1.3075;
205.2000;1.2894;1.3173;
205.5000;1.2877;1.3222;
205.8000;1.2877;1.3222;
206.1000;1.2894;1.3271;
206.4000;1.2894;1.3222;
206.7000;1.2894;1.3148;
207.0000;1.2934;1.3197;
207.3000;1.2877;1.2977;
207.6000;1.2886;1.2928;
207.9000;1.2886;1.2879;
208.2000;1.2894;1.2855;
208.5000;1.2869;1.2732;
208.8000;1.2877;1.2806;
209.1000;1.2877;1.2781;
209.4000;1.2943;1.2953;
209.7000;1.2886;1.2879;
210.0000;1.2886;1.2928;
210.3000;1.2902;1.2928;
210.6000;1.2926;1.3051;
210.9000;1.2902;1.3100;
211.2000;1.2886;1.3026;
211.5000;1.2894;1.3051;
211.8000;1.2894;1.3124;
212.1000;1.2918;1.3173;
212.4000;1.2861;1.3124;
212.7000;1.2894;1.3197;
213.0000;1.2894;1.3173;
213.3000;1.2910;1.3320;
213.6000;1.2877;1.3271;
213.9000;1.2886;1.3222;
214.2000;1.2886;1.3295;
214.5000;1.2861;1.3148;
214.8000;1.2894;1.3295;
215.1000;1.2869;1.3320;
215.4000;1.2861;1.3320;
215.7000;1.2886;1.3295;
216.0000;1.2886;1.3295;
216.3000;1.2894;1.3246;
216.6000;1.2869;1.3148;
216.9000;1.2886;1.3197;
217.2000;1.2877;1.3197;
217.5000;1.2886;1.3222;
217.8000;1.2886;1.3197;
218.1000;1.2861;1.3173;
218.4000;1.2877;1.3100;
218.7000;1.2877;1.3100;
219.0000;1.2886;1.3148;
219.3000;1.2910;1.3173;
219.6000;1.2886;1.3026;
219.9000;1.2877;1.3026;
220.2000;1.2877;1.3075;
220.5000;1.2877;1.3173;
220.8000;1.2886;1.3197;
221.1000;1.2877;1.3246;
221.4000;1.2869;1.3222;
221.7000;1.2861;1.3197;
222.0000;1.2877;1.3173;
222.3000;1.2877;1.3148;
222.6000;1.2845;1.3124;
222.9000;1.2861;1.3173;
223.2000;1.2853;1.3173;
223.5000;1.2877;1.3246;
223.8000;1.2869;1.3295;
224.1000;1.2869;1.3246;
224.4000;1.2869;1.3271;
224.7000;1.2861;1.3271;
225.0000;1.2886;1.3320;
225.3000;1.2869;1.3246;
225.6000;1.2853;1.3271;
225.9000;1.2861;1.3271;
226.2000;1.2821;1.3100;
226.5000;1.2869;1.3222;
226.8000;1.2861;1.3148;
227.1000;1.2861;1.3173;
227.4000;1.2869;1.3295;
227.7000;1.2869;1.3393;
228.0000;1.2877;1.3467;
228.3000;1.2861;1.3565;
228.6000;1.2869;1.3614;
228.9000;1.2861;1.3589;
229.2000;1.2853;1.3589;
229.5000;1.2861;1.3516;
229.8000;1.2861;1.3589;
230.1000;1.2869;1.3614;
230.4000;1.2829;1.3565;
230.7000;1.2853;1.3589;
231.0000;1.2869;1.3589;
231.3000;1.2853;1.3516;
231.6000;1.2861;1.3491;
231.9000;1.2902;1.3565;
232.2000;1.2869;1.3442;
232.5000;1.2869;1.3467;
232.8000;1.2869;1.3565;
233.1000;1.2861;1.3516;
233.4000;1.2853;1.3491;
233.7000;1.2877;1.3516;
234.0000;1.2853;1.3467;
234.3000;1.2861;1.3418;
234.6000;1.2861;1.3467;
234.9000;1.2853;1.3393;
235.2000;1.2861;1.3344;
235.5000;1.2861;1.3442;
235.8000;1.2877;1.3467;
236.1000;1.2861;1.3491;
236.4000;1.2861;1.3467;
236.7000;1.2869;1.3467;
237.0000;1.2861;1.3467;
237.3000;1.2812;1.3393;
237.6000;1.2861;1.3442;
237.9000;1.2877;1.3418;
238.2000;1.2853;1.3295;
238.5000;1.2877;1.3369;
238.8000;1.2812;1.3295;
239.1000;1.2861;1.3442;
239.4000;1.2821;1.3344;
239.7000;1.2845;1.3369;
240.0000;1.2796;1.3295;
240.3000;1.2869;1.3540;
240.6000;1.2869;1.3614;
240.9000;1.2853;1.3638;
241.2000;1.2861;1.3589;
241.5000;1.2829;1.3369;
241.8000;1.2845;1.3442;
242.1000;1.2845;1.3418;
242.4000;1.2845;1.3467;
242.7000;1.2853;1.3442;
243.0000;1.2845;1.3442;
243.3000;1.2837;1.3418;
243.6000;1.2829;1.3393;
243.9000;1.2837;1.3393;
244.2000;1.2837;1.3369;
244.5000;1.2837;1.3369;
244.8000;1.2837;1.3393;
245.1000;1.2845;1.3442;
245.4000;1.2845;1.3467;
245.7000;1.2853;1.3467;
246.0000;1.2853;1.3393;
246.3000;1.2845;1.3369;
246.6000;1.2853;1.3393;
246.9000;1.2853;1.3393;
247.2000;1.2845;1.3320;
247.5000;1.2853;1.3246;
247.8000;1.2845;1.3222;
248.1000;1.2861;1.3344;
248.4000;1.2853;1.3393;
248.7000;1.2845;1.3369;
249.0000;1.2829;1.3344;
249.3000;1.2829;1.3295;
249.6000;1.2796;1.3197;
249.9000;1.2869;1.3320;
250.2000;1.2837;1.3197;
250.5000;1.2861;1.3271;
250.8000;1.2837;1.3271;
251.1000;1.2845;1.3295;
251.4000;1.2853;1.3369;
251.7000;1.2837;1.3295;
252.0000;1.2869;1.3295;
252.3000;1.2829;1.3222;
252.6000;1.2837;1.3222;
252.9000;1.2845;1.3271;
253.2000;1.2829;1.3173;
253.5000;1.2829;1.3173;
253.8000;1.2812;1.3148;
254.1000;1.2829;1.3100;
254.4000;1.2845;1.3075;
254.7000;1.2837;1.3002;
255.0000;1.2910;1.3222;
255.3000;1.2829;1.3026;
255.6000;1.2877;1.3124;
255.9000;1.2837;1.3051;
256.2000;1.2837;1.3173;
256.5000;1.2837;1.3148;
256.8000;1.2845;1.3197;
257.1000;1.2845;1.3075;
257.4000;1.2853;1.3124;
257.7000;1.2837;1.3075;
258.0000;1.2837;1.3124;
258.3000;1.2829;1.3051;
258.6000;1.2837;1.2977;
258.9000;1.2829;1.3002;
259.2000;1.2837;1.2977;
259.5000;1.2845;1.3002;
259.8000;1.2755;1.2757;
260.1000;1.2821;1.2879;
260.4000;1.2821;1.2953;
260.7000;1.2739;1.2806;
261.0000;1.2821;1.3100;
261.3000;1.2845;1.3148;
261.6000;1.2829;1.3173;
261.9000;1.2796;1.3100;
262.2000;1.2837;1.3295;
262.5000;1.2829;1.3295;
262.8000;1.2821;1.3271;
263.1000;1.2837;1.3295;
263.4000;1.2829;1.3271;
263.7000;1.2821;1.3246;
264.0000;1.2829;1.3344;
264.3000;1.2869;1.3565;
264.6000;1.2821;1.3295;
264.9000;1.2812;1.3295;
265.2000;1.2804;1.3344;
265.5000;1.2821;1.3393;
265.8000;1.2821;1.3271;
266.1000;1.2821;1.3222;
266.4000;1.2829;1.3197;
266.7000;1.2837;1.3148;
267.0000;1.2845;1.3246;
267.3000;1.2829;1.3369;
267.6000;1.2837;1.3491;
267.9000;1.2804;1.3467;
268.2000;1.2829;1.3540;
268.5000;1.2821;1.3418;
268.8000;1.2804;1.3344;
269.1000;1.2812;1.3442;
269.4000;1.2812;1.3516;
269.7000;1.2821;1.3516;
270.0000;1.2796;1.3516;
270.3000;1.2796;1.3516;
270.6000;1.2804;1.3516;
270.9000;1.2829;1.3491;
271.2000;1.2812;1.3491;
271.5000;1.2812;1.3418;
271.8000;1.2772;1.3246;
272.1000;1.2829;1.3369;
272.4000;1.2829;1.3344;
272.7000;1.2829;1.3222;
273.0000;1.2796;1.3148;
273.3000;1.2821;1.3222;
273.6000;1.2804;1.3124;
273.9000;1.2812;1.3222;
274.2000;1.2804;1.3197;
274.5000;1.2812;1.3246;
274.8000;1.2796;1.3051;
275.1000;1.2788;1.3124;
275.4000;1.2804;1.3197;
275.7000;1.2812;1.3197;
276.0000;1.2845;1.3222;
276.3000;1.2812;1.3197;
276.6000;1.2780;1.3173;
276.9000;1.2796;1.3271;
277.2000;1.2804;1.3320;
277.5000;1.2869;1.3467;
277.8000;1.2804;1.3295;
278.1000;1.2772;1.3246;
278.4000;1.2804;1.3369;
278.7000;1.2812;1.3369;
279.0000;1.2796;1.3320;
279.3000;1.2812;1.3344;
279.6000;1.2804;1.3320;
279.9000;1.2796;1.3295;
280.2000;1.2764;1.3100;
280.5000;1.2796;1.3222;
280.8000;1.2804;1.3295;
281.1000;1.2821;1.3295;
281.4000;1.2788;1.3246;
281.7000;1.2853;1.3442;
282.0000;1.2796;1.3393;
282.3000;1.2804;1.3393;
282.6000;1.2804;1.3344;
282.9000;1.2812;1.3246;
283.2000;1.2796;1.3148;
283.5000;1.2812;1.3100;
283.8000;1.2804;1.3246;
284.1000;1.2812;1.3246;
284.4000;1.2796;1.3295;
284.7000;1.2796;1.3246;
285.0000;1.2821;1.3246;
285.3000;1.2804;1.3222;
285.6000;1.2796;1.3124;
285.9000;1.2804;1.3124;
286.2000;1.2796;1.3124;
286.5000;1.2788;1.3197;
286.8000;1.2796;1.3295;
287.1000;1.2812;1.3344;
287.4000;1.2796;1.3344;
287.7000;1.2804;1.3271;
288.0000;1.2788;1.3295;
288.3000;1.2788;1.3393;
288.6000;1.2788;1.3418;
288.9000;1.2804;1.3442;
289.2000;1.2796;1.3442;
289.5000;1.2796;1.3320;
289.8000;1.2788;1.3369;
290.1000;1.2796;1.3320;
290.4000;1.2796;1.3344;
290.7000;1.2780;1.3369;
291.0000;1.2804;1.3442;
291.3000;1.2788;1.3246;
291.6000;1.2780;1.3222;
291.9000;1.2788;1.3197;
292.2000;1.2780;1.3197;
292.5000;1.2796;1.3246;
292.8000;1.2796;1.3246;
293.1000;1.2788;1.3148;
293.4000;1.2780;1.3124;
293.7000;1.2788;1.3124;
294.0000;1.2788;1.3124;
294.3000;1.2780;1.3148;
294.6000;1.2796;1.3173;
294.9000;1.2788;1.3075;
295.2000;1.2788;1.3026;
295.5000;1.2788;1.3002;
295.8000;1.2772;1.3100;
296.1000;1.2780;1.3148;
296.4000;1.2780;1.3222;
296.7000;1.2796;1.3271;
297.0000;1.2788;1.3197;
297.3000;1.2780;1.3173;
297.6000;1.2788;1.3222;
297.9000;1.2788;1.3246;
298.2000;1.2788;1.3271;
298.5000;1.2780;1.3369;
298.8000;1.2780;1.3393;
299.1000;1.2804;1.3418;
299.4000;1.2780;1.3393;
299.7000;1.2780;1.3344;
300.0000;1.2796;1.3369;
300.3000;1.2731;1.3148;
300.6000;1.2772;1.3246;
300.9000;1.2788;1.3246;
301.2000;1.2796;1.3246;
301.5000;1.2780;1.3222;
301.8000;1.2796;1.3222;
302.1000;1.2780;1.3246;
302.4000;1.2796;1.3246;
302.7000;1.2796;1.3320;
303.0000;1.2788;1.3271;
303.3000;1.2780;1.3295;
303.6000;1.2780;1.3271;
303.9000;1.2788;1.3344;
304.2000;1.2788;1.3369;
304.5000;1.2772;1.3344;
304.8000;1.2812;1.3467;
305.1000;1.2780;1.3418;
305.4000;1.2780;1.3344;
305.7000;1.2772;1.3442;
306.0000;1.2772;1.3418;
306.3000;1.2772;1.3467;
306.6000;1.2780;1.3442;
306.9000;1.2780;1.3467;
307.2000;1.2755;1.3320;
307.5000;1.2780;1.3369;
307.8000;1.2780;1.3320;
308.1000;1.2772;1.3320;
308.4000;1.2772;1.3369;
308.7000;1.2772;1.3344;
309.0000;1.2796;1.3418;
309.3000;1.2804;1.3516;
309.6000;1.2772;1.3467;
309.9000;1.2731;1.3369;
310.2000;1.2772;1.3540;
310.5000;1.2707;1.3369;
310.8000;1.2764;1.3589;
311.1000;1.2764;1.3614;
311.4000;1.2772;1.3565;
311.7000;1.2780;1.3540;
312.0000;1.2764;1.3442;
312.3000;1.2764;1.3393;
312.6000;1.2772;1.3418;
312.9000;1.2755;1.3369;
313.2000;1.2764;1.3418;
313.5000;1.2780;1.3467;
313.8000;1.2764;1.3418;
314.1000;1.2780;1.3442;
314.4000;1.2755;1.3344;
314.7000;1.2772;1.3369;
315.0000;1.2764;1.3320;
315.3000;1.2772;1.3369;
315.6000;1.2788;1.3369;
315.9000;1.2764;1.3295;
316.2000;1.2764;1.3246;
316.5000;1.2772;1.3246;
316.8000;1.2772;1.3320;
317.1000;1.2772;1.3344;
317.4000;1.2772;1.3369;
317.7000;1.2796;1.3369;
318.0000;1.2764;1.3295;
318.3000;1.2772;1.3295;
318.6000;1.2764;1.3295;
318.9000;1.2772;1.3320;
319.2000;1.2772;1.3418;
319.5000;1.2764;1.3467;
319.8000;1.2755;1.3369;
320.1000;1.2747;1.3320;
320.4000;1.2764;1.3491;
320.7000;1.2755;1.3516;
321.0000;1.2755;1.3540;
321.3000;1.2788;1.3589;
321.6000;1.2747;1.3491;
321.9000;1.2764;1.3491;
322.2000;1.2772;1.3442;
322.5000;1.2764;1.3442;
322.8000;1.2764;1.3442;
323.1000;1.2755;1.3491;
323.4000;1.2747;1.3467;
323.7000;1.2772;1.3442;
324.0000;1.2755;1.3369;
324.3000;1.2772;1.3491;
324.6000;1.2755;1.3565;
324.9000;1.2755;1.3540;
325.2000;1.2755;1.3516;
325.5000;1.2764;1.3491;
325.8000;1.2723;1.3418;
326.1000;1.2755;1.3516;
326.4000;1.2764;1.3614;
326.7000;1.2755;1.3565;
327.0000;1.2755;1.3565;
327.3000;1.2796;1.3736;
327.6000;1.2764;1.3712;
327.9000;1.2764;1.3785;
328.2000;1.2747;1.3638;
328.5000;1.2772;1.3761;
328.8000;1.2764;1.3663;
329.1000;1.2731;1.3540;
329.4000;1.2739;1.3565;
329.7000;1.2755;1.3614;
330.0000;1.2731;1.3491;
330.3000;1.2755;1.3516;
330.6000;1.2739;1.3467;
330.9000;1.2715;1.3418;
331.2000;1.2747;1.3491;
331.5000;1.2747;1.3491;
331.8000;1.2739;1.3467;
332.1000;1.2755;1.3467;
332.4000;1.2747;1.3540;
332.7000;1.2739;1.3516;
333.0000;1.2764;1.3589;
333.3000;1.2715;1.3638;
333.6000;1.2755;1.3663;
333.9000;1.2755;1.3663;
334.2000;1.2731;1.3589;
334.5000;1.2747;1.3491;
334.8000;1.2755;1.3491;
335.1000;1.2739;1.3467;
335.4000;1.2747;1.3516;
335.7000;1.2747;1.3467;
336.0000;1.2739;1.3540;
336.3000;1.2755;1.3565;
336.6000;1.2731;1.3491;
336.9000;1.2739;1.3467;
337.2000;1.2780;1.3540;
337.5000;1.2747;1.3491;
337.8000;1.2731;1.3516;
338.1000;1.2747;1.3516;
338.4000;1.2755;1.3491;
338.7000;1.2731;1.3491;
339.0000;1.2731;1.3516;
339.3000;1.2739;1.3589;
339.6000;1.2764;1.3589;
339.9000;1.2747;1.3467;
340.2000;1.2731;1.3467;
340.5000;1.2755;1.3540;
340.8000;1.2739;1.3540;
341.1000;1.2739;1.3540;
341.4000;1.2731;1.3516;
341.7000;1.2739;1.3540;
342.0000;1.2739;1.3614;
342.3000;1.2755;1.3614;
342.6000;1.2764;1.3614;
342.9000;1.2739;1.3614;
343.2000;1.2747;1.3687;
343.5000;1.2747;1.3687;
343.8000;1.2755;1.3687;
344.1000;1.2715;1.3589;
344.4000;1.2739;1.3712;
344.7000;1.2747;1.3810;
345.0000;1.2747;1.3785;
345.3000;1.2755;1.3761;
345.6000;1.2780;1.3785;
345.9000;1.2739;1.3834;
346.2000;1.2780;1.3883;
346.5000;1.2723;1.3785;
346.8000;1.2739;1.3761;
347.1000;1.2747;1.3761;
347.4000;1.2731;1.3687;
347.7000;1.2747;1.3687;
348.0000;1.2690;1.3565;
348.3000;1.2747;1.3736;
348.6000;1.2755;1.3810;
348.9000;1.2796;1.3810;
349.2000;1.2755;1.3761;
349.5000;1.2731;1.3761;
349.8000;1.2780;1.3834;
350.1000;1.2739;1.3712;
350.4000;1.2731;1.3785;
350.7000;1.2739;1.3834;
351.0000;1.2731;1.3785;
351.3000;1.2755;1.3810;
351.6000;1.2731;1.3761;
351.9000;1.2682;1.3589;
352.2000;1.2723;1.3687;
352.5000;1.2739;1.3712;
352.8000;1.2747;1.3712;
353.1000;1.2723;1.3687;
353.4000;1.2707;1.3638;
353.7000;1.2731;1.3687;
354.0000;1.2739;1.3687;
354.3000;1.2755;1.3687;
354.6000;1.2723;1.3712;
354.9000;1.2796;1.3956;
355.2000;1.2755;1.3859;
355.5000;1.2723;1.3810;
355.8000;1.2715;1.3712;
356.1000;1.2723;1.3712;
356.4000;1.2698;1.3638;
356.7000;1.2723;1.3663;
357.0000;1.2731;1.3614;
357.3000;1.2804;1.3736;
357.6000;1.2739;1.3589;
357.9000;1.2731;1.3565;
358.2000;1.2731;1.3589;
358.5000;1.2715;1.3516;
358.8000;1.2723;1.3540;
359.1000;1.2755;1.3614;
359.4000;1.2723;1.3516;
359.7000;1.2731;1.3344;
360.0000;1.2731;1.3393;
360.3000;1.2723;1.3393;
360.6000;1.2723;1.3442;
360.9000;1.2715;1.3442;
361.2000;1.2780;1.3614;
361.5000;1.2731;1.3540;
361.8000;1.2739;1.3614;
362.1000;1.2723;1.3540;
362.4000;1.2715;1.3565;
362.7000;1.2715;1.3589;
363.0000;1.2715;1.3589;
363.3000;1.2723;1.3663;
363.6000;1.2723;1.3663;
363.9000;1.2739;1.3638;
364.2000;1.2731;1.3614;
364.5000;1.2723;1.3687;
364.8000;1.2723;1.3712;
365.1000;1.2715;1.3736;
365.4000;1.2731;1.3761;
365.7000;1.2707;1.3638;
366.0000;1.2715;1.3491;
366.3000;1.2731;1.3467;
366.6000;1.2723;1.3418;
366.9000;1.2723;1.3393;
367.2000;1.2723;1.3491;
367.5000;1.2723;1.3540;
367.8000;1.2715;1.3540;
368.1000;1.2739;1.3491;
368.4000;1.2731;1.3516;
368.7000;1.2723;1.3467;
369.0000;1.2723;1.3467;
369.3000;1.2723;1.3540;
369.6000;1.2731;1.3663;
369.9000;1.2698;1.3540;
370.2000;1.2723;1.3589;
370.5000;1.2731;1.3589;
370.8000;1.2731;1.3467;
371.1000;1.2772;1.3565;
371.4000;1.2821;1.3736;
371.7000;1.2731;1.3467;
372.0000;1.2731;1.3467;
372.3000;1.2723;1.3467;
372.6000;1.2723;1.3467;
372.9000;1.2707;1.3418;
373.2000;1.2723;1.3589;
373.5000;1.2731;1.3638;
373.8000;1.2715;1.3638;
374.1000;1.2723;1.3663;
374.4000;1.2723;1.3589;
374.7000;1.2747;1.3638;
375.0000;1.2723;1.3540;
375.3000;1.2723;1.3614;
375.6000;1.2739;1.3663;
375.9000;1.2690;1.3589;
376.2000;1.2707;1.3663;
376.5000;1.2723;1.3663;
376.8000;1.2804;1.3908;
377.1000;1.2723;1.3614;
377.4000;1.2715;1.3491;
377.7000;1.2707;1.3467;
378.0000;1.2715;1.3491;
378.3000;1.2715;1.3565;
378.6000;1.2715;1.3589;
378.9000;1.2715;1.3638;
379.2000;1.2715;1.3663;
379.5000;1.2707;1.3687;
379.8000;1.2707;1.3785;
380.1000;1.2707;1.3810;
380.4000;1.2723;1.3883;
380.7000;1.2723;1.3859;
381.0000;1.2715;1.3761;
381.3000;1.2707;1.3785;
381.6000;1.2715;1.3859;
381.9000;1.2707;1.3810;
382.2000;1.2690;1.3810;
382.5000;1.2707;1.3883;
382.8000;1.2707;1.3883;
383.1000;1.2707;1.3859;
383.4000;1.2715;1.3859;
383.7000;1.2715;1.3834;
384.0000;1.2723;1.3859;
384.3000;1.2723;1.3834;
384.6000;1.2723;1.3883;
384.9000;1.2715;1.3810;
385.2000;1.2698;1.3810;
385.5000;1.2723;1.3810;
385.8000;1.2715;1.3810;
386.1000;1.2715;1.3834;
386.4000;1.2707;1.3761;
386.7000;1.2698;1.3712;
387.0000;1.2698;1.3663;
387.3000;1.2690;1.3687;
387.6000;1.2633;1.3516;
387.9000;1.2698;1.3785;
388.2000;1.2690;1.3736;
388.5000;1.2698;1.3834;
388.8000;1.2641;1.3687;
389.1000;1.2698;1.3761;
389.4000;1.2690;1.3834;
389.7000;1.2707;1.3810;
390.0000;1.2682;1.3712;
390.3000;1.2698;1.3761;
390.6000;1.2698;1.3834;
390.9000;1.2715;1.3859;
391.2000;1.2698;1.3810;
391.5000;1.2698;1.3712;
391.8000;1.2698;1.3687;
392.1000;1.2682;1.3663;
392.4000;1.2698;1.3589;
392.7000;1.2698;1.3638;
393.0000;1.2674;1.3663;
393.3000;1.2698;1.3736;
393.6000;1.2723;1.3859;
393.9000;1.2698;1.3810;
394.2000;1.2707;1.3834;
394.5000;1.2723;1.3956;
394.8000;1.2698;1.3883;
395.1000;1.2617;1.3712;
395.4000;1.2690;1.3859;
395.7000;1.2698;1.3859;
396.0000;1.2715;1.3932;
396.3000;1.2723;1.3883;
396.6000;1.2698;1.3859;
396.9000;1.2707;1.3908;
397.2000;1.2715;1.3932;
397.5000;1.2707;1.3981;
397.8000;1.2755;1.4128;
398.1000;1.2682;1.3908;
398.4000;1.2707;1.3981;
398.7000;1.2698;1.4005;
399.0000;1.2690;1.3908;
399.3000;1.2698;1.3908;
399.6000;1.2690;1.3981;
399.9000;1.2698;1.3981;
400.2000;1.2698;1.4005;
400.5000;1.2698;1.4005;
400.8000;1.2698;1.3956;
401.1000;1.2715;1.3932;
401.4000;1.2698;1.4005;
401.7000;1.2707;1.4005;
402.0000;1.2707;1.4054;
402.3000;1.2698;1.4030;
402.6000;1.2698;1.3956;
402.9000;1.2698;1.3956;
403.2000;1.2690;1.3956;
403.5000;1.2690;1.4005;
403.8000;1.2690;1.3932;
404.1000;1.2658;1.3859;
404.4000;1.2682;1.4005;
404.7000;1.2682;1.4005;
405.0000;1.2682;1.3981;
405.3000;1.2682;1.3981;
405.6000;1.2674;1.3908;
405.9000;1.2690;1.3883;
406.2000;1.2698;1.3834;
406.5000;1.2690;1.3810;
406.8000;1.2690;1.3785;
407.1000;1.2698;1.3810;
407.4000;1.2682;1.3834;
407.7000;1.2690;1.3883;
408.0000;1.2690;1.3859;
408.3000;1.2682;1.3883;
408.6000;1.2682;1.3956;
408.9000;1.2698;1.3932;
409.2000;1.2682;1.3956;
409.5000;1.2682;1.3932;
409.8000;1.2690;1.4005;
410.1000;1.2690;1.4005;
410.4000;1.2698;1.4079;
410.7000;1.2674;1.4128;
411.0000;1.2682;1.4005;
411.3000;1.2690;1.3956;
411.6000;1.2772;1.4128;
411.9000;1.2690;1.3883;
412.2000;1.2698;1.3908;
412.5000;1.2690;1.3932;
412.8000;1.2650;1.3883;
413.1000;1.2674;1.3859;
413.4000;1.2682;1.3956;
413.7000;1.2707;1.4054;
414.0000;1.2682;1.3932;
414.3000;1.2682;1.3883;
414.6000;1.2674;1.3908;
414.9000;1.2707;1.4005;
415.2000;1.2682;1.3956;
415.5000;1.2682;1.4030;
415.8000;1.2682;1.4054;
416.1000;1.2625;1.3908;
416.4000;1.2674;1.3981;
416.7000;1.2698;1.4030;
417.0000;1.2674;1.4079;
417.3000;1.2764;1.4250;
417.6000;1.2698;1.4079;
417.9000;1.2690;1.4030;
418.2000;1.2674;1.3981;
418.5000;1.2674;1.3908;
418.8000;1.2698;1.3981;
419.1000;1.2690;1.3859;
419.4000;1.2674;1.3883;
419.7000;1.2674;1.3810;
420.0000;1.2658;1.3908;
420.3000;1.2690;1.4030;
420.6000;1.2682;1.4054;
420.9000;1.2690;1.4030;
421.2000;1.2690;1.4005;
421.5000;1.2690;1.4054;
421.8000;1.2698;1.4079;
422.1000;1.2682;1.4079;
422.4000;1.2650;1.3981;
422.7000;1.2690;1.4079;
423.0000;1.2674;1.4054;
423.3000;1.2658;1.3908;
423.6000;1.2666;1.3932;
423.9000;1.2682;1.3956;
424.2000;1.2690;1.4030;
424.5000;1.2674;1.4005;
424.8000;1.2674;1.4079;
425.1000;1.2641;1.3956;
425.4000;1.2674;1.4054;
425.7000;1.2690;1.4152;
426.0000;1.2674;1.4177;
426.3000;1.2674;1.4128;
426.6000;1.2707;1.4079;
426.9000;1.2698;1.4005;
427.2000;1.2698;1.4152;
427.5000;1.2698;1.4128;
427.8000;1.2690;1.4103;
428.1000;1.2666;1.4054;
428.4000;1.2739;1.4299;
428.7000;1.2674;1.4103;
429.0000;1.2674;1.4128;
429.3000;1.2674;1.4128;
429.6000;1.2666;1.4128;
429.9000;1.2666;1.4226;
430.2000;1.2674;1.4152;
430.5000;1.2666;1.4152;
430.8000;1.2690;1.4177;
431.1000;1.2633;1.4103;
431.4000;1.2650;1.4128;
431.7000;1.2690;1.4226;
432.0000;1.2682;1.4152;
432.3000;1.2641;1.4079;
432.6000;1.2633;1.4005;
432.9000;1.2674;1.4128;
433.2000;1.2674;1.4128;
433.5000;1.2666;1.4079;
433.8000;1.2666;1.4054;
434.1000;1.2674;1.4152;
434.4000;1.2682;1.4128;
434.7000;1.2674;1.4152;
435.0000;1.2658;1.4201;
435.3000;1.2666;1.4250;
435.6000;1.2674;1.4324;
435.9000;1.2609;1.4201;
436.2000;1.2666;1.4275;
436.5000;1.2658;1.4250;
436.8000;1.2674;1.4299;
437.1000;1.2674;1.4250;
437.4000;1.2666;1.4226;
437.7000;1.2674;1.4226;
438.0000;1.2674;1.4152;
438.3000;1.2666;1.4030;
438.6000;1.2666;1.3956;
438.9000;1.2601;1.3810;
439.2000;1.2650;1.3908;
439.5000;1.2658;1.4054;
439.8000;1.2650;1.4054;
440.1000;1.2650;1.4030;
440.4000;1.2707;1.4128;
440.7000;1.2666;1.3932;
441.0000;1.2666;1.3908;
441.3000;1.2666;1.3956;
441.6000;1.2625;1.3834;
441.9000;1.2666;1.3859;
442.2000;1.2682;1.3956;
442.5000;1.2658;1.3956;
442.8000;1.2641;1.3908;
443.1000;1.2674;1.4005;
443.4000;1.2682;1.4054;
443.7000;1.2601;1.3932;
444.0000;1.2641;1.4152;
444.3000;1.2674;1.4177;
444.6000;1.2658;1.4177;
444.9000;1.2650;1.4226;
445.2000;1.2666;1.4177;
445.5000;1.2674;1.4226;
445.8000;1.2674;1.4201;
446.1000;1.2666;1.4128;
446.4000;1.2666;1.4152;
446.7000;1.2674;1.4226;
447.0000;1.2682;1.4201;
447.3000;1.2682;1.4226;
447.6000;1.2666;1.4201;
447.9000;1.2698;1.4275;
448.2000;1.2658;1.4177;
448.5000;1.2666;1.4177;
448.8000;1.2658;1.4152;
449.1000;1.2650;1.4177;
449.4000;1.2666;1.4201;
449.7000;1.2674;1.4275;
450.0000;1.2666;1.4201;
450.3000;1.2641;1.4103;
450.6000;1.2650;1.4177;
450.9000;1.2650;1.4201;
451.2000;1.2658;1.4250;
451.5000;1.2650;1.4250;
451.8000;1.2666;1.4348;
452.1000;1.2666;1.4373;
452.4000;1.2674;1.4397;
452.7000;1.2650;1.4373;
453.0000;1.2666;1.4373;
453.3000;1.2666;1.4299;
453.6000;1.2674;1.4275;
453.9000;1.2650;1.4250;
454.2000;1.2658;1.4226;
454.5000;1.2674;1.4275;
454.8000;1.2666;1.4250;
455.1000;1.2674;1.4324;
455.4000;1.2650;1.4275;
455.7000;1.2658;1.4275;
456.0000;1.2650;1.4177;
456.3000;1.2650;1.4201;
456.6000;1.2658;1.4177;
456.9000;1.2658;1.4177;
457.2000;1.2658;1.4275;
457.5000;1.2682;1.4299;
457.8000;1.2666;1.4226;
458.1000;1.2650;1.4275;
458.4000;1.2650;1.4299;
458.7000;1.2666;1.4373;
459.0000;1.2658;1.4373;
459.3000;1.2641;1.4299;
459.6000;1.2633;1.4348;
459.9000;1.2633;1.4373;
460.2000;1.2650;1.4348;
460.5000;1.2641;1.4299;
460.8000;1.2650;1.4299;
461.1000;1.2633;1.4152;
461.4000;1.2650;1.4275;
461.7000;1.2666;1.4373;
462.0000;1.2658;1.4422;
462.3000;1.2658;1.4495;
462.6000;1.2650;1.4544;
462.9000;1.2707;1.4642;
463.2000;1.2641;1.4446;
463.5000;1.2633;1.4422;
463.8000;1.2658;1.4422;
464.1000;1.2650;1.4446;
464.4000;1.2617;1.4324;
464.7000;1.2650;1.4373;
465.0000;1.2666;1.4520;
465.3000;1.2650;1.4422;
465.6000;1.2707;1.4569;
465.9000;1.2674;1.4593;
466.2000;1.2650;1.4495;
466.5000;1.2666;1.4471;
466.8000;1.2707;1.4544;
467.1000;1.2658;1.4397;
467.4000;1.2641;1.4446;
467.7000;1.2666;1.4495;
468.0000;1.2641;1.4348;
468.3000;1.2650;1.4373;
468.6000;1.2658;1.4373;
468.9000;1.2658;1.4373;
469.2000;1.2641;1.4446;
469.5000;1.2650;1.4446;
469.8000;1.2641;1.4495;
470.1000;1.2641;1.4495;
470.4000;1.2641;1.4520;
470.7000;1.2641;1.4446;
471.0000;1.2650;1.4446;
471.3000;1.2633;1.4446;
471.6000;1.2633;1.4495;
471.9000;1.2641;1.4422;
472.2000;1.2641;1.4422;
472.5000;1.2658;1.4446;
472.8000;1.2658;1.4495;
473.1000;1.2641;1.4471;
473.4000;1.2633;1.4422;
473.7000;1.2641;1.4397;
474.0000;1.2650;1.4397;
474.3000;1.2650;1.4373;
474.6000;1.2641;1.4397;
474.9000;1.2641;1.4471;
475.2000;1.2650;1.4471;
475.5000;1.2666;1.4471;
475.8000;1.2633;1.4348;
476.1000;1.2658;1.4397;
476.4000;1.2617;1.4275;
476.7000;1.2674;1.4299;
477.0000;1.2658;1.4250;
477.3000;1.2641;1.4250;
477.6000;1.2674;1.4324;
477.9000;1.2658;1.4348;
478.2000;1.2658;1.4397;
478.5000;1.2650;1.4373;
478.8000;1.2617;1.4226;
479.1000;1.2658;1.4299;
479.4000;1.2666;1.4348;
479.7000;1.2633;1.4275;
480.0000;1.2641;1.4226;
480.3000;1.2650;1.4201;
480.6000;1.2633;1.4177;
480.9000;1.2609;1.4152;
481.2000;1.2650;1.4201;
481.5000;1.2650;1.4152;
481.8000;1.2641;1.4201;
482.1000;1.2650;1.4201;
482.4000;1.2650;1.4201;
482.7000;1.2633;1.4201;
483.0000;1.2731;1.4324;
483.3000;1.2650;1.4128;
483.6000;1.2641;1.4177;
483.9000;1.2666;1.4250;
484.2000;1.2666;1.4226;
484.5000;1.2666;1.4373;
484.8000;1.2674;1.4250;
485.1000;1.2641;1.4177;
485.4000;1.2601;1.4103;
485.7000;1.2641;1.4275;
486.0000;1.2641;1.4324;
486.3000;1.2641;1.4299;
486.6000;1.2658;1.4373;
486.9000;1.2641;1.4299;
487.2000;1.2568;1.4103;
487.5000;1.2715;1.4348;
487.8000;1.2650;1.4177;
488.1000;1.2658;1.4226;
488.4000;1.2707;1.4348;
488.7000;1.2633;1.4152;
489.0000;1.2633;1.4152;
489.3000;1.2650;1.4177;
489.6000;1.2650;1.4201;
489.9000;1.2633;1.4226;
490.2000;1.2658;1.4201;
490.5000;1.2650;1.4201;
490.8000;1.2609;1.4250;
491.1000;1.2641;1.4299;
491.4000;1.2641;1.4275;
491.7000;1.2641;1.4299;
492.0000;1.2641;1.4299;
492.3000;1.2633;1.4250;
492.6000;1.2633;1.4324;
492.9000;1.2650;1.4299;
493.2000;1.2633;1.4226;
493.5000;1.2625;1.4177;
493.8000;1.2641;1.4250;
494.1000;1.2682;1.4373;
494.4000;1.2650;1.4348;
494.7000;1.2633;1.4299;
495.0000;1.2609;1.4201;
495.3000;1.2633;1.4250;
495.6000;1.2641;1.4226;
495.9000;1.2641;1.4201;
496.2000;1.2625;1.4177;
496.5000;1.2633;1.4250;
496.8000;1.2650;1.4299;
497.1000;1.2633;1.4226;
497.4000;1.2641;1.4250;
497.7000;1.2633;1.4324;
498.0000;1.2641;1.4348;
498.3000;1.2633;1.4422;
498.6000;1.2641;1.4422;
498.9000;1.2625;1.4397;
499.2000;1.2641;1.4397;
499.5000;1.2650;1.4397;
499.8000;1.2609;1.4348;
500.1000;1.2633;1.4397;
500.4000;1.2633;1.4373;
500.7000;1.2617;1.4422;
501.0000;1.2641;1.4495;
501.3000;1.2650;1.4495;
501.6000;1.2625;1.4373;
501.9000;1.2633;1.4348;
502.2000;1.2633;1.4275;
502.5000;1.2650;1.4226;
502.8000;1.2650;1.4152;
503.1000;1.2568;1.4054;
503.4000;1.2544;1.4079;
503.7000;1.2593;1.4275;
504.0000;1.2633;1.4275;
504.3000;1.2641;1.4299;
504.6000;1.2601;1.4226;
504.9000;1.2641;1.4324;
505.2000;1.2625;1.4299;
505.5000;1.2633;1.4299;
505.8000;1.2593;1.4201;
506.1000;1.2601;1.4226;
506.4000;1.2584;1.4226;
506.7000;1.2625;1.4275;
507.0000;1.2641;1.4299;
507.3000;1.2617;1.4201;
507.6000;1.2625;1.4152;
507.9000;1.2617;1.4152;
508.2000;1.2609;1.4177;
508.5000;1.2658;1.4275;
508.8000;1.2625;1.4275;
509.1000;1.2617;1.4275;
509.4000;1.2568;1.4079;
509.7000;1.2633;1.4275;
510.0000;1.2625;1.4275;
510.3000;1.2609;1.4275;
510.6000;1.2633;1.4373;
510.9000;1.2641;1.4422;
511.2000;1.2609;1.4397;
511.5000;1.2617;1.4422;
511.8000;1.2633;1.4373;
512.1000;1.2617;1.4495;
512.4000;1.2617;1.4446;
512.7000;1.2625;1.4446;
513.0000;1.2625;1.4422;
513.3000;1.2633;1.4422;
513.6000;1.2633;1.4422;
513.9000;1.2625;1.4422;
514.2000;1.2568;1.4226;
514.5000;1.2633;1.4471;
514.8000;1.2625;1.4544;
515.1000;1.2617;1.4569;
515.4000;1.2617;1.4495;
515.7000;1.2617;1.4422;
516.0000;1.2617;1.4495;
516.3000;1.2625;1.4520;
516.6000;1.2609;1.4471;
516.9000;1.2617;1.4544;
517.2000;1.2625;1.4520;
517.5000;1.2633;1.4520;
517.8000;1.2625;1.4544;
518.1000;1.2625;1.4422;
518.4000;1.2625;1.4397;
518.7000;1.2641;1.4446;
519.0000;1.2641;1.4422;
519.3000;1.2625;1.4446;
519.6000;1.2617;1.4422;
519.9000;1.2641;1.4544;
520.2000;1.2617;1.4544;
520.5000;1.2617;1.4667;
520.8000;1.2633;1.4618;
521.1000;1.2593;1.4569;
521.4000;1.2584;1.4520;
521.7000;1.2609;1.4520;
522.0000;1.2625;1.4593;
522.3000;1.2617;1.4642;
522.6000;1.2617;1.4618;
522.9000;1.2633;1.4642;
523.2000;1.2609;1.4667;
523.5000;1.2617;1.4593;
523.8000;1.2641;1.4667;
524.1000;1.2625;1.4716;
524.4000;1.2625;1.4667;
524.7000;1.2625;1.4642;
525.0000;1.2625;1.4642;
525.3000;1.2617;1.4716;
525.6000;1.2576;1.4593;
525.9000;1.2601;1.4642;
526.2000;1.2609;1.4716;
526.5000;1.2617;1.4691;
526.8000;1.2609;1.4642;
527.1000;1.2617;1.4740;
527.4000;1.2625;1.4667;
527.7000;1.2617;1.4667;
528.0000;1.2617;1.4593;
528.3000;1.2625;1.4618;
528.6000;1.2682;1.4813;
528.9000;1.2625;1.4618;
529.2000;1.2617;1.4593;
529.5000;1.2641;1.4642;
529.8000;1.2633;1.4544;
530.1000;1.2609;1.4495;
530.4000;1.2633;1.4569;
530.7000;1.2617;1.4569;
531.0000;1.2609;1.4544;
531.3000;1.2617;1.4569;
531.6000;1.2617;1.4544;
531.9000;1.2609;1.4569;
532.2000;1.2658;1.4740;
532.5000;1.2625;1.4618;
532.8000;1.2625;1.4593;
533.1000;1.2617;1.4593;
533.4000;1.2625;1.4642;
533.7000;1.2617;1.4593;
534.0000;1.2650;1.4642;
534.3000;1.2617;1.4446;
534.6000;1.2609;1.4422;
534.9000;1.2641;1.4495;
535.2000;1.2617;1.4569;
535.5000;1.2552;1.4471;
535.8000;1.2625;1.4618;
536.1000;1.2617;1.4642;
536.4000;1.2633;1.4667;
536.7000;1.2617;1.4618;
537.0000;1.2625;1.4593;
537.3000;1.2625;1.4520;
537.6000;1.2633;1.4495;
537.9000;1.2617;1.4495;
538.2000;1.2560;1.4397;
538.5000;1.2617;1.4471;
538.8000;1.2633;1.4495;
539.1000;1.2601;1.4471;
539.4000;1.2625;1.4495;
539.7000;1.2666;1.4569;
540.0000;1.2625;1.4495;
540.3000;1.2682;1.4691;
540.6000;1.2617;1.4642;
540.9000;1.2609;1.4716;
541.2000;1.2609;1.4764;
541.5000;1.2617;1.4740;
541.8000;1.2625;1.4764;
542.1000;1.2609;1.4716;
542.4000;1.2601;1.4716;
542.7000;1.2625;1.4813;
543.0000;1.2625;1.4789;
543.3000;1.2609;1.4740;
543.6000;1.2584;1.4642;
543.9000;1.2609;1.4740;
544.2000;1.2617;1.4667;
544.5000;1.2601;1.4716;
544.8000;1.2601;1.4716;
545.1000;1.2544;1.4544;
545.4000;1.2609;1.4691;
545.7000;1.2617;1.4740;
546.0000;1.2625;1.4813;
546.3000;1.2625;1.4789;
546.6000;1.2625;1.4740;
546.9000;1.2625;1.4813;
547.2000;1.2633;1.4838;
547.5000;1.2707;1.4960;
547.8000;1.2625;1.4764;
548.1000;1.2609;1.4642;
548.4000;1.2601;1.4740;
548.7000;1.2601;1.4667;
549.0000;1.2609;1.4667;
549.3000;1.2641;1.4764;
549.6000;1.2601;1.4691;
549.9000;1.2601;1.4642;
550.2000;1.2625;1.4667;
550.5000;1.2625;1.4691;
550.8000;1.2617;1.4691;
551.1000;1.2601;1.4691;
551.4000;1.2609;1.4667;
551.7000;1.2617;1.4667;
552.0000;1.2617;1.4716;
552.3000;1.2609;1.4691;
552.6000;1.2601;1.4691;
552.9000;1.2584;1.4593;
553.2000;1.2609;1.4569;
553.5000;1.2601;1.4446;
553.8000;1.2617;1.4495;
554.1000;1.2617;1.4593;
554.4000;1.2625;1.4667;
554.7000;1.2617;1.4813;
555.0000;1.2593;1.4764;
555.3000;1.2617;1.4764;
555.6000;1.2641;1.4813;
555.9000;1.2584;1.4667;
556.2000;1.2609;1.4667;
556.5000;1.2625;1.4691;
556.8000;1.2601;1.4642;
557.1000;1.2625;1.4667;
557.4000;1.2609;1.4740;
557.7000;1.2617;1.4740;
558.0000;1.2617;1.4813;
558.3000;1.2617;1.4813;
558.6000;1.2666;1.4936;
558.9000;1.2609;1.4813;
559.2000;1.2617;1.4691;
559.5000;1.2633;1.4740;
559.8000;1.2625;1.4618;
560.1000;1.2609;1.4569;
560.4000;1.2625;1.4740;
560.7000;1.2593;1.4691;
561.0000;1.2625;1.4789;
561.3000;1.2617;1.4887;
561.6000;1.2601;1.4838;
561.9000;1.2609;1.4838;
562.2000;1.2690;1.5034;
562.5000;1.2609;1.4740;
562.8000;1.2625;1.4764;
563.1000;1.2601;1.4667;
563.4000;1.2609;1.4667;
563.7000;1.2601;1.4691;
564.0000;1.2609;1.4667;
564.3000;1.2601;1.4642;
564.6000;1.2601;1.4642;
564.9000;1.2593;1.4569;
565.2000;1.2601;1.4569;
565.5000;1.2609;1.4544;
565.8000;1.2617;1.4569;
566.1000;1.2584;1.4471;
566.4000;1.2584;1.4495;
566.7000;1.2601;1.4471;
567.0000;1.2593;1.4397;
567.3000;1.2584;1.4397;
567.6000;1.2584;1.4397;
567.9000;1.2593;1.4471;
568.2000;1.2593;1.4471;
568.5000;1.2601;1.4520;
568.8000;1.2593;1.4593;
569.1000;1.2601;1.4691;
569.4000;1.2658;1.4813;
569.7000;1.2609;1.4716;
570.0000;1.2609;1.4764;
570.3000;1.2601;1.4789;
570.6000;1.2609;1.4838;
570.9000;1.2601;1.4911;
571.2000;1.2560;1.4838;
571.5000;1.2576;1.4838;
571.8000;1.2601;1.4936;
572.1000;1.2625;1.4862;
572.4000;1.2593;1.4789;
572.7000;1.2584;1.4838;
573.0000;1.2601;1.4813;
573.3000;1.2617;1.4716;
573.6000;1.2617;1.4740;
573.9000;1.2609;1.4667;
574.2000;1.2601;1.4642;
574.5000;1.2601;1.4667;
574.8000;1.2552;1.4495;
575.1000;1.2617;1.4618;
575.4000;1.2617;1.4593;
575.7000;1.2617;1.4618;
576.0000;1.2625;1.4642;
576.3000;1.2609;1.4544;
576.6000;1.2601;1.4569;
576.9000;1.2560;1.4495;
577.2000;1.2593;1.4520;
577.5000;1.2617;1.4667;
577.8000;1.2593;1.4618;
578.1000;1.2552;1.4471;
578.4000;1.2576;1.4520;
578.7000;1.2609;1.4618;
579.0000;1.2601;1.4593;
579.3000;1.2544;1.4397;
579.6000;1.2601;1.4544;
579.9000;1.2584;1.4593;
580.2000;1.2658;1.4789;
580.5000;1.2609;1.4764;
580.8000;1.2617;1.4838;
581.1000;1.2609;1.4838;
581.4000;1.2584;1.4789;
581.7000;1.2601;1.4764;
582.0000;1.2593;1.4740;
582.3000;1.2609;1.4838;
582.6000;1.2601;1.4716;
582.9000;1.2584;1.4593;
583.2000;1.2593;1.4642;
583.5000;1.2609;1.4691;
583.8000;1.2601;1.4618;
584.1000;1.2601;1.4642;
584.4000;1.2601;1.4691;
584.7000;1.2625;1.4764;
585.0000;1.2601;1.4764;
585.3000;1.2593;1.4789;
585.6000;1.2601;1.4789;
585.9000;1.2593;1.4789;
586.2000;1.2601;1.4764;
586.5000;1.2593;1.4740;
586.8000;1.2584;1.4691;
587.1000;1.2593;1.4716;
587.4000;1.2601;1.4740;
587.7000;1.2601;1.4813;
588.0000;1.2576;1.4764;
588.3000;1.2584;1.4789;
588.6000;1.2584;1.4740;
588.9000;1.2560;1.4642;
589.2000;1.2593;1.4789;
589.5000;1.2584;1.4716;
589.8000;1.2584;1.4838;
590.1000;1.2593;1.4789;
590.4000;1.2593;1.4789;
590.7000;1.2593;1.4838;
591.0000;1.2593;1.4960;
591.3000;1.2593;1.4887;
591.6000;1.2593;1.4838;
591.9000;1.2601;1.4862;
592.2000;1.2609;1.4838;
592.5000;1.2609;1.4813;
592.8000;1.2609;1.4716;
593.1000;1.2584;1.4691;
593.4000;1.2568;1.4691;
593.7000;1.2601;1.4764;
594.0000;1.2568;1.4593;
594.3000;1.2601;1.4716;
594.6000;1.2609;1.4764;
594.9000;1.2609;1.4789;
595.2000;1.2601;1.4862;
595.5000;1.2601;1.4887;
595.8000;1.2584;1.4960;
596.1000;1.2601;1.4985;
596.4000;1.2593;1.4936;
596.7000;1.2633;1.4960;
597.0000;1.2593;1.4838;
597.3000;1.2601;1.4838;
597.6000;1.2609;1.4862;
597.9000;1.2609;1.4911;
598.2000;1.2601;1.4862;
598.5000;1.2593;1.4838;
598.8000;1.2601;1.4789;
599.1000;1.2601;1.4764;
599.4000;1.2593;1.4813;
599.7000;1.2601;1.4789;
600.0000;1.2560;1.4642;
600.3000;1.2601;1.4569;
600.6000;1.2593;1.4446;
600.9000;1.2487;1.4226;
601.2000;1.2405;1.4226;
601.5000;1.2291;1.4054;
601.8000;1.2169;1.3883;
602.1000;1.2047;1.3736;
602.4000;1.1950;1.3589;
602.7000;1.1836;1.3442;
603.0000;1.1746;1.3271;
603.3000;1.1640;1.3197;
603.6000;1.1534;1.3075;
603.9000;1.1461;1.3002;
604.2000;1.1372;1.2855;
604.5000;1.1266;1.2634;
604.8000;1.1193;1.2585;
605.1000;1.1127;1.2536;
605.4000;1.1095;1.2659;
605.7000;1.0981;1.2512;
606.0000;1.0916;1.2438;
606.3000;1.0851;1.2414;
606.6000;1.0777;1.2267;
606.9000;1.0761;1.2365;
607.2000;1.0688;1.2243;
607.5000;1.0615;1.2169;
607.8000;1.0574;1.2243;
608.1000;1.0509;1.2243;
608.4000;1.0444;1.2291;
608.7000;1.0403;1.2340;
609.0000;1.0362;1.2340;
609.3000;1.0313;1.2291;
609.6000;1.0265;1.2291;
609.9000;1.0224;1.2316;
610.2000;1.0183;1.2218;
610.5000;1.0142;1.2194;
610.8000;1.0094;1.2071;
611.1000;1.0045;1.2071;
611.4000;1.0020;1.2145;
611.7000;0.9980;1.2047;
612.0000;0.9939;1.2047;
612.3000;0.9898;1.1998;
612.6000;0.9874;1.2047;
612.9000;0.9841;1.2096;
613.2000;0.9792;1.2071;
613.5000;0.9760;1.2145;
613.8000;0.9727;1.2145;
614.1000;0.9670;1.2047;
614.4000;0.9662;1.2096;
614.7000;0.9605;1.2071;
615.0000;0.9597;1.1998;
615.3000;0.9573;1.2047;
615.6000;0.9532;1.2022;
615.9000;0.9499;1.2096;
616.2000;0.9467;1.2071;
616.5000;0.9442;1.2022;
616.8000;0.9434;1.1924;
617.1000;0.9394;1.1924;
617.4000;0.9361;1.1973;
617.7000;0.9337;1.1924;
618.0000;0.9312;1.2022;
618.3000;0.9263;1.1949;
618.6000;0.9271;1.1949;
618.9000;0.9214;1.1826;
619.2000;0.9198;1.1875;
619.5000;0.9288;1.2145;
619.8000;0.9149;1.1802;
620.1000;0.9109;1.1655;
620.4000;0.9109;1.1753;
620.7000;0.9092;1.1777;
621.0000;0.9076;1.1802;
621.3000;0.9044;1.1826;
621.6000;0.9027;1.1753;
621.9000;0.9011;1.1802;
622.2000;0.8987;1.1826;
622.5000;0.8962;1.1802;
622.8000;0.8954;1.1777;
623.1000;0.8824;1.1581;
623.4000;0.8881;1.1875;
623.7000;0.8881;1.1949;
624.0000;0.8783;1.1802;
624.3000;0.8856;1.2022;
624.6000;0.8807;1.1875;
624.9000;0.8807;1.1875;
625.2000;0.8840;1.2047;
625.5000;0.8783;1.1826;
625.8000;0.8816;1.2022;
626.1000;0.8734;1.1900;
626.4000;0.8710;1.1973;
626.7000;0.8710;1.1949;
627.0000;0.8685;1.1900;
627.3000;0.8685;1.1949;
627.6000;0.8653;1.1900;
627.9000;0.8612;1.1826;
628.2000;0.8620;1.1851;
628.5000;0.8604;1.1826;
628.8000;0.8580;1.1728;
629.1000;0.8580;1.1777;
629.4000;0.8563;1.1826;
629.7000;0.8555;1.1900;
630.0000;0.8547;1.1949;
630.3000;0.8506;1.1973;
630.6000;0.8498;1.2047;
630.9000;0.8506;1.2022;
631.2000;0.8474;1.1973;
631.5000;0.8441;1.2022;
631.8000;0.8457;1.2022;
632.1000;0.8449;1.2071;
632.4000;0.8417;1.2022;
632.7000;0.8409;1.1949;
633.0000;0.8409;1.1924;
633.3000;0.8384;1.1949;
633.6000;0.8376;1.1924;
633.9000;0.8360;1.1851;
634.2000;0.8352;1.1826;
634.5000;0.8360;1.1851;
634.8000;0.8335;1.1802;
635.1000;0.8368;1.1826;
635.4000;0.8311;1.1777;
635.7000;0.8303;1.1802;
636.0000;0.8295;1.1851;
636.3000;0.8278;1.1802;
636.6000;0.8270;1.1802;
636.9000;0.8254;1.1826;
637.2000;0.8246;1.1802;
637.5000;0.8238;1.1851;
637.8000;0.8221;1.1802;
638.1000;0.8205;1.1826;
638.4000;0.8213;1.1802;
638.7000;0.8205;1.1900;
639.0000;0.8148;1.1802;
639.3000;0.8156;1.1826;
639.6000;0.8164;1.1875;
639.9000;0.8156;1.1826;
640.2000;0.8140;1.1826;
640.5000;0.8140;1.1851;
640.8000;0.8116;1.1851;
641.1000;0.8148;1.1973;
641.4000;0.8107;1.1777;
641.7000;0.8083;1.1728;
642.0000;0.8083;1.1851;
642.3000;0.8091;1.1924;
642.6000;0.8083;1.1900;
642.9000;0.8042;1.1802;
643.2000;0.8083;1.1949;
643.5000;0.8010;1.1802;
643.8000;0.8050;1.1826;
644.1000;0.8010;1.1777;
644.4000;0.7985;1.1753;
644.7000;0.7985;1.1777;
645.0000;0.7945;1.1704;
645.3000;0.7985;1.1777;
645.6000;0.7953;1.1753;
645.9000;0.7945;1.1802;
646.2000;0.7953;1.1949;
646.5000;0.7953;1.1998;
646.8000;0.7928;1.1973;
647.1000;0.7945;1.2096;
647.4000;0.7920;1.1973;
647.7000;0.7920;1.2096;
648.0000;0.7896;1.1998;
648.3000;0.7912;1.2047;
648.6000;0.7880;1.1924;
648.9000;0.7880;1.1973;
649.2000;0.7880;1.1973;
649.5000;0.7847;1.1826;
649.8000;0.7871;1.1973;
650.1000;0.7863;1.1949;
650.4000;0.7847;1.1973;
650.7000;0.7847;1.1900;
651.0000;0.7831;1.1900;
651.3000;0.7831;1.1998;
651.6000;0.7814;1.1924;
651.9000;0.7782;1.1851;
652.2000;0.7814;1.1875;
652.5000;0.7798;1.1753;
652.8000;0.7814;1.1875;
653.1000;0.7782;1.1753;
653.4000;0.7766;1.1753;
653.7000;0.7774;1.1826;
654.0000;0.7766;1.1753;
654.3000;0.7749;1.1728;
654.6000;0.7741;1.1753;
654.9000;0.7766;1.1826;
655.2000;0.7725;1.1753;
655.5000;0.7725;1.1728;
655.8000;0.7709;1.1630;
656.1000;0.7709;1.1655;
656.4000;0.7725;1.1777;
656.7000;0.7709;1.1777;
657.0000;0.7668;1.1630;
657.3000;0.7643;1.1532;
657.6000;0.7692;1.1679;
657.9000;0.7692;1.1728;
658.2000;0.7643;1.1606;
658.5000;0.7676;1.1704;
658.8000;0.7684;1.1728;
659.1000;0.7660;1.1679;
659.4000;0.7643;1.1679;
659.7000;0.7635;1.1679;
660.0000;0.7635;1.1630;
660.3000;0.7643;1.1679;
660.6000;0.7627;1.1630;
660.9000;0.7627;1.1704;
661.2000;0.7652;1.1826;
661.5000;0.7627;1.1826;
661.8000;0.7611;1.1777;
662.1000;0.7611;1.1728;
662.4000;0.7595;1.1851;
662.7000;0.7578;1.1900;
663.0000;0.7611;1.2022;
663.3000;0.7611;1.2022;
663.6000;0.7570;1.1924;
663.9000;0.7562;1.1875;
664.2000;0.7586;1.1900;
664.5000;0.7554;1.1851;
664.8000;0.7562;1.1851;
665.1000;0.7481;1.1581;
665.4000;0.7595;1.1777;
665.7000;0.7530;1.1679;
666.0000;0.7513;1.1630;
666.3000;0.7562;1.1728;
666.6000;0.7505;1.1630;
666.9000;0.7505;1.1655;
667.2000;0.7521;1.1655;
667.5000;0.7562;1.1777;
667.8000;0.7530;1.1679;
668.1000;0.7513;1.1728;
668.4000;0.7513;1.1704;
668.7000;0.7497;1.1655;
669.0000;0.7473;1.1679;
669.3000;0.7497;1.1679;
669.6000;0.7521;1.1753;
669.9000;0.7440;1.1581;
670.2000;0.7464;1.1630;
670.5000;0.7505;1.1777;
670.8000;0.7424;1.1679;
671.1000;0.7440;1.1728;
671.4000;0.7440;1.1777;
671.7000;0.7464;1.1875;
672.0000;0.7440;1.1777;
672.3000;0.7505;1.1924;
672.6000;0.7440;1.1728;
672.9000;0.7432;1.1777;
673.2000;0.7456;1.1802;
673.5000;0.7391;1.1606;
673.8000;0.7424;1.1753;
674.1000;0.7416;1.1728;
674.4000;0.7407;1.1655;
674.7000;0.7407;1.1581;
675.0000;0.7391;1.1581;
675.3000;0.7416;1.1606;
675.6000;0.7383;1.1508;
675.9000;0.7383;1.1508;
676.2000;0.7383;1.1532;
676.5000;0.7359;1.1532;
676.8000;0.7359;1.1606;
677.1000;0.7391;1.1704;
677.4000;0.7359;1.1557;
677.7000;0.7367;1.1606;
678.0000;0.7375;1.1679;
678.3000;0.7318;1.1459;
678.6000;0.7334;1.1532;
678.9000;0.7334;1.1508;
679.2000;0.7350;1.1483;
679.5000;0.7334;1.1435;
679.8000;0.7302;1.1483;
680.1000;0.7350;1.1630;
680.4000;0.7334;1.1557;
680.7000;0.7375;1.1581;
681.0000;0.7326;1.1435;
681.3000;0.7326;1.1337;
681.6000;0.7318;1.1410;
681.9000;0.7310;1.1386;
682.2000;0.7302;1.1459;
682.5000;0.7318;1.1581;
682.8000;0.7326;1.1557;
683.1000;0.7302;1.1508;
683.4000;0.7310;1.1557;
683.7000;0.7293;1.1581;
684.0000;0.7285;1.1581;
684.3000;0.7302;1.1655;
684.6000;0.7302;1.1728;
684.9000;0.7285;1.1777;
685.2000;0.7269;1.1753;
685.5000;0.7293;1.1875;
685.8000;0.7253;1.1802;
686.1000;0.7269;1.1826;
686.4000;0.7277;1.1924;
686.7000;0.7261;1.1875;
687.0000;0.7236;1.1777;
687.3000;0.7261;1.1777;
687.6000;0.7269;1.1728;
687.9000;0.7253;1.1704;
688.2000;0.7236;1.1704;
688.5000;0.7245;1.1704;
688.8000;0.7269;1.1777;
689.1000;0.7236;1.1777;
689.4000;0.7236;1.1851;
689.7000;0.7212;1.1826;
690.0000;0.7212;1.1900;
690.3000;0.7228;1.1949;
690.6000;0.7277;1.2120;
690.9000;0.7204;1.1900;
691.2000;0.7212;1.1949;
691.5000;0.7204;1.1973;
691.8000;0.7204;1.1949;
692.1000;0.7204;1.2022;
692.4000;0.7188;1.2120;
692.7000;0.7196;1.2145;
693.0000;0.7188;1.2022;
693.3000;0.7212;1.1949;
693.6000;0.7171;1.1851;
693.9000;0.7179;1.1777;
694.2000;0.7163;1.1777;
694.5000;0.7179;1.1753;
694.8000;0.7188;1.1802;
695.1000;0.7171;1.1704;
695.4000;0.7155;1.1728;
695.7000;0.7163;1.1753;
696.0000;0.7163;1.1826;
696.3000;0.7188;1.1949;
696.6000;0.7155;1.1949;
696.9000;0.7155;1.1973;
697.2000;0.7163;1.1949;
697.5000;0.7090;1.1728;
697.8000;0.7155;1.1826;
698.1000;0.7155;1.1826;
698.4000;0.7188;1.1949;
698.7000;0.7155;1.1875;
699.0000;0.7131;1.1753;
699.3000;0.7139;1.1728;
699.6000;0.7131;1.1777;
699.9000;0.7114;1.1728;
700.2000;0.7131;1.1704;
700.5000;0.7131;1.1753;
700.8000;0.7139;1.1802;
701.1000;0.7114;1.1802;
701.4000;0.7139;1.1826;
701.7000;0.7106;1.1777;
702.0000;0.7123;1.1777;
702.3000;0.7139;1.1851;
702.6000;0.7131;1.1777;
702.9000;0.7106;1.1777;
703.2000;0.7106;1.1704;
703.5000;0.7098;1.1704;
703.8000;0.7123;1.1728;
704.1000;0.7098;1.1679;
704.4000;0.7106;1.1753;
704.7000;0.7090;1.1777;
705.0000;0.7082;1.1679;
705.3000;0.7082;1.1630;
705.6000;0.7082;1.1630;
705.9000;0.7123;1.1655;
706.2000;0.7098;1.1630;
706.5000;0.7090;1.1630;
706.8000;0.7082;1.1606;
707.1000;0.7082;1.1728;
707.4000;0.7090;1.1875;
707.7000;0.7090;1.1851;
708.0000;0.7074;1.1826;
708.3000;0.7074;1.1900;
708.6000;0.7082;1.1924;
708.9000;0.7066;1.1900;
709.2000;0.7066;1.1826;
709.5000;0.7106;1.1875;
709.8000;0.7066;1.1777;
710.1000;0.7066;1.1777;
710.4000;0.7041;1.1802;
710.7000;0.7041;1.1753;
711.0000;0.7049;1.1851;
711.3000;0.7041;1.1851;
711.6000;0.7106;1.2096;
711.9000;0.7033;1.1900;
712.2000;0.6976;1.1728;
712.5000;0.7098;1.1998;
712.8000;0.7025;1.1753;
713.1000;0.7009;1.1728;
713.4000;0.7033;1.1728;
713.7000;0.7041;1.1704;
714.0000;0.7033;1.1802;
714.3000;0.7066;1.1826;
714.6000;0.7033;1.1777;
714.9000;0.7025;1.1679;
715.2000;0.7017;1.1728;
715.5000;0.6984;1.1728;
715.8000;0.7009;1.1851;
716.1000;0.7025;1.1826;
716.4000;0.7033;1.1900;
716.7000;0.7000;1.1826;
717.0000;0.6992;1.1704;
717.3000;0.7017;1.1851;
717.6000;0.7041;1.1900;
717.9000;0.7009;1.1851;
718.2000;0.7009;1.1826;
718.5000;0.6992;1.1802;
718.8000;0.7000;1.1802;
719.1000;0.7009;1.1777;
719.4000;0.6992;1.1679;
719.7000;0.6984;1.1655;
720.0000;0.7000;1.1704;
720.3000;0.6992;1.1679;
720.6000;0.6992;1.1753;
720.9000;0.6976;1.1753;
721.2000;0.6984;1.1728;
721.5000;0.6984;1.1728;
721.8000;0.6976;1.1679;
722.1000;0.6968;1.1630;
722.4000;0.6992;1.1655;
722.7000;0.6976;1.1679;
723.0000;0.6984;1.1753;
723.3000;0.6992;1.1802;
723.6000;0.6976;1.1728;
723.9000;0.6968;1.1704;
724.2000;0.6976;1.1728;
724.5000;0.6976;1.1753;
724.8000;0.6976;1.1655;
725.1000;0.6960;1.1728;
725.4000;0.6960;1.1679;
725.7000;0.6968;1.1728;
726.0000;0.6952;1.1679;
726.3000;0.6960;1.1679;
726.6000;0.6943;1.1581;
726.9000;0.6943;1.1606;
727.2000;0.6952;1.1655;
727.5000;0.6960;1.1630;
727.8000;0.6960;1.1655;
728.1000;0.6903;1.1532;
728.4000;0.6952;1.1679;
728.7000;0.6943;1.1630;
729.0000;0.6960;1.1630;
729.3000;0.6968;1.1655;
729.6000;0.6943;1.1655;
729.9000;0.6935;1.1655;
730.2000;0.6968;1.1679;
730.5000;0.6952;1.1679;
730.8000;0.6935;1.1679;
731.1000;0.6935;1.1655;
731.4000;0.6943;1.1704;
731.7000;0.6935;1.1753;
732.0000;0.6927;1.1728;
732.3000;0.6903;1.1704;
732.6000;0.6927;1.1728;
732.9000;0.6919;1.1777;
733.2000;0.6862;1.1679;
733.5000;0.6927;1.1802;
733.8000;0.6911;1.1777;
734.1000;0.6919;1.1851;
734.4000;0.6919;1.1802;
734.7000;0.6911;1.1802;
735.0000;0.6903;1.1851;
735.3000;0.6903;1.1949;
735.6000;0.6903;1.1826;
735.9000;0.6919;1.1777;
736.2000;0.6862;1.1581;
736.5000;0.7033;1.2022;
736.8000;0.6911;1.1802;
737.1000;0.6895;1.1802;
737.4000;0.6903;1.1826;
737.7000;0.6984;1.2047;
738.0000;0.6968;1.1998;
738.3000;0.6895;1.1851;
738.6000;0.6854;1.1777;
738.9000;0.6886;1.1875;
739.2000;0.6895;1.1900;
739.5000;0.6846;1.1777;
739.8000;0.6878;1.1875;
740.1000;0.6870;1.1753;
740.4000;0.6903;1.1753;
740.7000;0.6903;1.1802;
741.0000;0.6919;1.1802;
741.3000;0.6903;1.1753;
741.6000;0.6895;1.1753;
741.9000;0.6895;1.1704;
742.2000;0.6870;1.1753;
742.5000;0.6895;1.1851;
742.8000;0.6862;1.1826;
743.1000;0.6886;1.1802;
743.4000;0.6846;1.1777;
743.7000;0.6870;1.1826;
744.0000;0.6862;1.1802;
744.3000;0.6878;1.1851;
744.6000;0.6870;1.1826;
744.9000;0.6870;1.1777;
745.2000;0.6862;1.1679;
745.5000;0.6854;1.1655;
745.8000;0.6862;1.1679;
746.1000;0.6854;1.1679;
746.4000;0.6846;1.1704;
746.7000;0.6838;1.1606;
747.0000;0.6878;1.1679;
747.3000;0.6854;1.1753;
747.6000;0.6854;1.1753;
747.9000;0.6846;1.1777;
748.2000;0.6854;1.1777;
748.5000;0.6846;1.1753;
748.8000;0.6854;1.1826;
749.1000;0.6854;1.1851;
749.4000;0.6846;1.1826;
749.7000;0.6805;1.1777;
750.0000;0.6846;1.1973;
750.3000;0.6838;1.1851;
750.6000;0.6846;1.1826;
750.9000;0.6846;1.1900;
751.2000;0.6854;1.1900;
751.5000;0.6838;1.1851;
751.8000;0.6838;1.1875;
752.1000;0.6813;1.1826;
752.4000;0.6821;1.1900;
752.7000;0.6829;1.1851;
753.0000;0.6829;1.1875;
753.3000;0.6838;1.1949;
753.6000;0.6838;1.1973;
753.9000;0.6838;1.2022;
754.2000;0.6821;1.1973;
754.5000;0.6821;1.1851;
754.8000;0.6829;1.1826;
755.1000;0.6821;1.1826;
755.4000;0.6846;1.1875;
755.7000;0.6813;1.1851;
756.0000;0.6813;1.1875;
756.3000;0.6805;1.1851;
756.6000;0.6821;1.1900;
756.9000;0.6821;1.1949;
757.2000;0.6813;1.1998;
757.5000;0.6846;1.2022;
757.8000;0.6821;1.1924;
758.1000;0.6805;1.1924;
758.4000;0.6805;1.1973;
758.7000;0.6821;1.1949;
759.0000;0.6813;1.1924;
759.3000;0.6805;1.1851;
759.6000;0.6797;1.1826;
759.9000;0.6805;1.1851;
760.2000;0.6813;1.1826;
760.5000;0.6821;1.1900;
760.8000;0.6805;1.1875;
761.1000;0.6813;1.1924;
761.4000;0.6805;1.1875;
761.7000;0.6813;1.1802;
762.0000;0.6805;1.1777;
762.3000;0.6805;1.1777;
762.6000;0.6797;1.1704;
762.9000;0.6805;1.1753;
763.2000;0.6805;1.1704;
763.5000;0.6805;1.1826;
763.8000;0.6813;1.1777;
764.1000;0.6781;1.1704;
764.4000;0.6797;1.1655;
764.7000;0.6789;1.1704;
765.0000;0.6699;1.1459;
765.3000;0.6789;1.1753;
765.6000;0.6813;1.1802;
765.9000;0.6789;1.1728;
766.2000;0.6789;1.1753;
766.5000;0.6772;1.1655;
766.8000;0.6789;1.1753;
767.1000;0.6748;1.1679;
767.4000;0.6772;1.1728;
767.7000;0.6772;1.1875;
768.0000;0.6707;1.1777;
768.3000;0.6764;1.1851;
768.6000;0.6781;1.1875;
768.9000;0.6781;1.1851;
769.2000;0.6772;1.1826;
769.5000;0.6781;1.1900;
769.8000;0.6789;1.1900;
770.1000;0.6764;1.1924;
770.4000;0.6781;1.1998;
770.7000;0.6772;1.1998;
771.0000;0.6772;1.1949;
771.3000;0.6805;1.1924;
771.6000;0.6772;1.1900;
771.9000;0.6756;1.1924;
772.2000;0.6764;1.1875;
772.5000;0.6764;1.1924;
772.8000;0.6748;1.1924;
773.1000;0.6748;1.1998;
773.4000;0.6756;1.2022;
773.7000;0.6764;1.1924;
774.0000;0.6756;1.1875;
774.3000;0.6764;1.1728;
774.6000;0.6764;1.1679;
774.9000;0.6764;1.1777;
775.2000;0.6764;1.1802;
775.5000;0.6756;1.1777;
775.8000;0.6748;1.1704;
776.1000;0.6748;1.1704;
776.4000;0.6756;1.1802;
776.7000;0.6683;1.1704;
777.0000;0.6829;1.2169;
777.3000;0.6756;1.1998;
777.6000;0.6764;1.1973;
777.9000;0.6756;1.1973;
778.2000;0.6764;1.1949;
778.5000;0.6748;1.1949;
778.8000;0.6756;1.1949;
779.1000;0.6740;1.1973;
779.4000;0.6748;1.1998;
779.7000;0.6756;1.1949;
780.0000;0.6764;1.1998;
780.3000;0.6748;1.1998;
780.6000;0.6732;1.1973;
780.9000;0.6740;1.2047;
781.2000;0.6732;1.2145;
781.5000;0.6756;1.2194;
781.8000;0.6732;1.2169;
782.1000;0.6724;1.2071;
782.4000;0.6740;1.2071;
782.7000;0.6748;1.2071;
783.0000;0.6748;1.2096;
783.3000;0.6732;1.2047;
783.6000;0.6716;1.2169;
783.9000;0.6740;1.2194;
784.2000;0.6748;1.2194;
784.5000;0.6732;1.2120;
784.8000;0.6732;1.2096;
785.1000;0.6724;1.2145;
785.4000;0.6716;1.2243;
785.7000;0.6740;1.2267;
786.0000;0.6732;1.2218;
786.3000;0.6797;1.2291;
786.6000;0.6748;1.2120;
786.9000;0.6756;1.2071;
787.2000;0.6724;1.2047;
787.5000;0.6716;1.2120;
787.8000;0.6740;1.2120;
788.1000;0.6724;1.2022;
788.4000;0.6716;1.2022;
788.7000;0.6707;1.2022;
789.0000;0.6716;1.2096;
789.3000;0.6716;1.2120;
789.6000;0.6732;1.2218;
789.9000;0.6716;1.2096;
790.2000;0.6732;1.2120;
790.5000;0.6716;1.2071;
790.8000;0.6707;1.2022;
791.1000;0.6724;1.2022;
791.4000;0.6716;1.2022;
791.7000;0.6724;1.2047;
792.0000;0.6691;1.2022;
792.3000;0.6707;1.2022;
792.6000;0.6699;1.1973;
792.9000;0.6716;1.2022;
793.2000;0.6691;1.2047;
793.5000;0.6691;1.2022;
793.8000;0.6716;1.2022;
794.1000;0.6716;1.2022;
794.4000;0.6724;1.2120;
794.7000;0.6707;1.2022;
795.0000;0.6707;1.1998;
795.3000;0.6683;1.1949;
795.6000;0.6691;1.1973;
795.9000;0.6724;1.2022;
796.2000;0.6618;1.1728;
796.5000;0.6716;1.1998;
796.8000;0.6716;1.1973;
797.1000;0.6691;1.1998;
797.4000;0.6691;1.1998;
797.7000;0.6659;1.1826;
798.0000;0.6724;1.2120;
798.3000;0.6740;1.2071;
798.6000;0.6707;1.1998;
798.9000;0.6724;1.2096;
799.2000;0.6699;1.2022;
799.5000;0.6707;1.1998;
799.8000;0.6699;1.1900;
800.1000;0.6691;1.1949;
800.4000;0.6707;1.2071;
800.7000;0.6691;1.2047;
801.0000;0.6691;1.2096;
801.3000;0.6683;1.2096;
801.6000;0.6691;1.1998;
801.9000;0.6683;1.1973;
802.2000;0.6699;1.1998;
802.5000;0.6675;1.1900;
802.8000;0.6675;1.1973;
803.1000;0.6691;1.2022;
803.4000;0.6707;1.2047;
803.7000;0.6707;1.2169;
804.0000;0.6691;1.2096;
804.3000;0.6667;1.2096;
804.6000;0.6691;1.2194;
804.9000;0.6675;1.2169;
805.2000;0.6716;1.2169;
805.5000;0.6618;1.1875;
805.8000;0.6691;1.2022;
806.1000;0.6716;1.2145;
806.4000;0.6675;1.2120;
806.7000;0.6626;1.2096;
807.0000;0.6691;1.2365;
807.3000;0.6650;1.2291;
807.6000;0.6667;1.2316;
807.9000;0.6667;1.2316;
808.2000;0.6683;1.2316;
808.5000;0.6667;1.2365;
808.8000;0.6675;1.2389;
809.1000;0.6659;1.2340;
809.4000;0.6675;1.2316;
809.7000;0.6675;1.2291;
810.0000;0.6667;1.2194;
810.3000;0.6659;1.2169;
810.6000;0.6683;1.2194;
810.9000;0.6667;1.2169;
811.2000;0.6650;1.2291;
811.5000;0.6667;1.2316;
811.8000;0.6667;1.2243;
812.1000;0.6675;1.2291;
812.4000;0.6675;1.2267;
812.7000;0.6650;1.2169;
813.0000;0.6675;1.2243;
813.3000;0.6667;1.2169;
813.6000;0.6667;1.2194;
813.9000;0.6642;1.2145;
814.2000;0.6634;1.2120;
814.5000;0.6569;1.1973;
814.8000;0.6667;1.2267;
815.1000;0.6667;1.2218;
815.4000;0.6659;1.2218;
815.7000;0.6659;1.2120;
816.0000;0.6650;1.2096;
816.3000;0.6634;1.2120;
816.6000;0.6650;1.2194;
816.9000;0.6659;1.2218;
817.2000;0.6667;1.2316;
817.5000;0.6642;1.2169;
817.8000;0.6642;1.2096;
818.1000;0.6659;1.2096;
818.4000;0.6650;1.2096;
818.7000;0.6650;1.1998;
819.0000;0.6642;1.2022;
819.3000;0.6634;1.2071;
819.6000;0.6659;1.2169;
819.9000;0.6650;1.2243;
820.2000;0.6659;1.2218;
820.5000;0.6642;1.2169;
820.8000;0.6642;1.2096;
821.1000;0.6667;1.2120;
821.4000;0.6667;1.2120;
821.7000;0.6626;1.2071;
822.0000;0.6642;1.2096;
822.3000;0.6642;1.2047;
822.6000;0.6650;1.2096;
822.9000;0.6634;1.2120;
823.2000;0.6650;1.2120;
823.5000;0.6642;1.2169;
823.8000;0.6650;1.2194;
824.1000;0.6642;1.2169;
824.4000;0.6618;1.2145;
824.7000;0.6642;1.2218;
825.0000;0.6642;1.2267;
825.3000;0.6626;1.2243;
825.6000;0.6626;1.2169;
825.9000;0.6618;1.2047;
826.2000;0.6642;1.2071;
826.5000;0.6642;1.2047;
826.8000;0.6642;1.2022;
827.1000;0.6642;1.2096;
827.4000;0.6626;1.2096;
827.7000;0.6618;1.2096;
828.0000;0.6577;1.2022;
828.3000;0.6626;1.2022;
828.6000;0.6650;1.1949;
828.9000;0.6642;1.1973;
829.2000;0.6618;1.1900;
829.5000;0.6610;1.1924;
829.8000;0.6618;1.1900;
830.1000;0.6659;1.1998;
830.4000;0.6634;1.1900;
830.7000;0.6577;1.1728;
831.0000;0.6683;1.1998;
831.3000;0.6626;1.1900;
831.6000;0.6650;1.1973;
831.9000;0.6618;1.1851;
832.2000;0.6634;1.1949;
832.5000;0.6634;1.1949;
832.8000;0.6650;1.2047;
833.1000;0.6618;1.2071;
833.4000;0.6618;1.2120;
833.7000;0.6618;1.2145;
834.0000;0.6626;1.2169;
834.3000;0.6626;1.2145;
834.6000;0.6626;1.2243;
834.9000;0.6642;1.2316;
835.2000;0.6626;1.2291;
835.5000;0.6626;1.2169;
835.8000;0.6626;1.2169;
836.1000;0.6634;1.2169;
836.4000;0.6642;1.2145;
836.7000;0.6618;1.2120;
837.0000;0.6618;1.2022;
837.3000;0.6626;1.2071;
837.6000;0.6610;1.2096;
837.9000;0.6610;1.2096;
838.2000;0.6610;1.2071;
838.5000;0.6634;1.2145;
838.8000;0.6618;1.2145;
839.1000;0.6618;1.2169;
839.4000;0.6585;1.2047;
839.7000;0.6593;1.2120;
840.0000;0.6626;1.2194;
840.3000;0.6634;1.2291;
840.6000;0.6626;1.2316;
840.9000;0.6602;1.2340;
841.2000;0.6618;1.2365;
841.5000;0.6602;1.2365;
841.8000;0.6618;1.2389;
842.1000;0.6610;1.2291;
842.4000;0.6610;1.2365;
842.7000;0.6626;1.2414;
843.0000;0.6602;1.2291;
843.3000;0.6610;1.2243;
843.6000;0.6602;1.2169;
843.9000;0.6634;1.2169;
844.2000;0.6585;1.2022;
844.5000;0.6618;1.2071;
844.8000;0.6593;1.2071;
845.1000;0.6618;1.2145;
845.4000;0.6610;1.2169;
845.7000;0.6545;1.2047;
846.0000;0.6602;1.2243;
846.3000;0.6626;1.2267;
846.6000;0.6610;1.2243;
846.9000;0.6593;1.2096;
847.2000;0.6618;1.2120;
847.5000;0.6610;1.2169;
847.8000;0.6610;1.2194;
848.1000;0.6626;1.2218;
848.4000;0.6610;1.2145;
848.7000;0.6585;1.2096;
849.0000;0.6610;1.2218;
849.3000;0.6593;1.2291;
849.6000;0.6602;1.2243;
849.9000;0.6602;1.2218;
850.2000;0.6593;1.2194;
850.5000;0.6602;1.2267;
850.8000;0.6593;1.2218;
851.1000;0.6585;1.2243;
851.4000;0.6593;1.2365;
851.7000;0.6593;1.2365;
852.0000;0.6610;1.2291;
852.3000;0.6602;1.2291;
852.6000;0.6593;1.2267;
852.9000;0.6602;1.2267;
853.2000;0.6593;1.2243;
853.5000;0.6553;1.2194;
853.8000;0.6585;1.2267;
854.1000;0.6593;1.2340;
854.4000;0.6593;1.2340;
854.7000;0.6545;1.2145;
855.0000;0.6602;1.2291;
855.3000;0.6593;1.2365;
855.6000;0.6585;1.2365;
855.9000;0.6577;1.2291;
856.2000;0.6593;1.2218;
856.5000;0.6610;1.2291;
856.8000;0.6593;1.2194;
857.1000;0.6593;1.2169;
857.4000;0.6593;1.2096;
857.7000;0.6602;1.2047;
858.0000;0.6577;1.2022;
858.3000;0.6602;1.2096;
858.6000;0.6585;1.2120;
858.9000;0.6593;1.2120;
859.2000;0.6593;1.2096;
859.5000;0.6626;1.2145;
859.8000;0.6577;1.2022;
860.1000;0.6569;1.2022;
860.4000;0.6577;1.2071;
860.7000;0.6585;1.2096;
861.0000;0.6577;1.2096;
861.3000;0.6577;1.2071;
861.6000;0.6642;1.2291;
861.9000;0.6569;1.2194;
862.2000;0.6585;1.2194;
862.5000;0.6561;1.2120;
862.8000;0.6577;1.2218;
863.1000;0.6585;1.2316;
863.4000;0.6577;1.2291;
863.7000;0.6553;1.2267;
864.0000;0.6577;1.2316;
864.3000;0.6569;1.2267;
864.6000;0.6585;1.2340;
864.9000;0.6593;1.2316;
865.2000;0.6569;1.2169;
865.5000;0.6577;1.2218;
865.8000;0.6536;1.2047;
866.1000;0.6569;1.2145;
866.4000;0.6561;1.1998;
866.7000;0.6650;1.2194;
867.0000;0.6561;1.2071;
867.3000;0.6569;1.2120;
867.6000;0.6569;1.2096;
867.9000;0.6618;1.2194;
868.2000;0.6569;1.2096;
868.5000;0.6593;1.2169;
868.8000;0.6496;1.1949;
869.1000;0.6569;1.2169;
869.4000;0.6585;1.2243;
869.7000;0.6545;1.2120;
870.0000;0.6569;1.2218;
870.3000;0.6569;1.2145;
870.6000;0.6585;1.2169;
870.9000;0.6577;1.2145;
871.2000;0.6561;1.2145;
871.5000;0.6561;1.2071;
871.8000;0.6561;1.2096;
872.1000;0.6577;1.2120;
872.4000;0.6577;1.2120;
872.7000;0.6577;1.2194;
873.0000;0.6577;1.2120;
873.3000;0.6585;1.2120;
873.6000;0.6561;1.2096;
873.9000;0.6577;1.2145;
874.2000;0.6512;1.1973;
874.5000;0.6577;1.2120;
874.8000;0.6569;1.2047;
875.1000;0.6545;1.2022;
875.4000;0.6553;1.2071;
875.7000;0.6553;1.2096;
876.0000;0.6553;1.2145;
876.3000;0.6528;1.1998;
876.6000;0.6561;1.2145;
876.9000;0.6545;1.2120;
877.2000;0.6585;1.2267;
877.5000;0.6569;1.2243;
877.8000;0.6577;1.2267;
878.1000;0.6569;1.2267;
878.4000;0.6577;1.2243;
878.7000;0.6561;1.2267;
879.0000;0.6618;1.2414;
879.3000;0.6528;1.2145;
879.6000;0.6577;1.2267;
879.9000;0.6561;1.2243;
880.2000;0.6545;1.2218;
880.5000;0.6561;1.2218;
880.8000;0.6561;1.2194;
881.1000;0.6577;1.2243;
881.4000;0.6585;1.2267;
881.7000;0.6553;1.2267;
882.0000;0.6569;1.2340;
882.3000;0.6553;1.2316;
882.6000;0.6545;1.2267;
882.9000;0.6593;1.2291;
883.2000;0.6569;1.2096;
883.5000;0.6569;1.2120;
883.8000;0.6569;1.2145;
884.1000;0.6634;1.2316;
884.4000;0.6545;1.2022;
884.7000;0.6569;1.2120;
885.0000;0.6561;1.2218;
885.3000;0.6553;1.2267;
885.6000;0.6545;1.2267;
885.9000;0.6545;1.2291;
886.2000;0.6536;1.2291;
886.5000;0.6553;1.2414;
886.8000;0.6545;1.2340;
887.1000;0.6553;1.2389;
887.4000;0.6528;1.2389;
887.7000;0.6553;1.2365;
888.0000;0.6553;1.2291;
888.3000;0.6536;1.2243;
888.6000;0.6561;1.2218;
888.9000;0.6545;1.2243;
889.2000;0.6553;1.2218;
889.5000;0.6545;1.2120;
889.8000;0.6536;1.2169;
890.1000;0.6553;1.2218;
890.4000;0.6553;1.2194;
890.7000;0.6520;1.2120;
891.0000;0.6561;1.2243;
891.3000;0.6561;1.2243;
891.6000;0.6569;1.2243;
891.9000;0.6545;1.2218;
892.2000;0.6553;1.2243;
892.5000;0.6545;1.2194;
892.8000;0.6585;1.2316;
893.1000;0.6545;1.2243;
893.4000;0.6545;1.2316;
893.7000;0.6545;1.2291;
894.0000;0.6545;1.2291;
894.3000;0.6593;1.2340;
894.6000;0.6528;1.2145;
894.9000;0.6536;1.2194;
895.2000;0.6528;1.2120;
895.5000;0.6545;1.2194;
895.8000;0.6528;1.2243;
896.1000;0.6536;1.2194;
896.4000;0.6545;1.2218;
896.7000;0.6545;1.2169;
897.0000;0.6536;1.2071;
897.3000;0.6683;1.2512;
897.6000;0.6561;1.2169;
897.9000;0.6545;1.2194;
898.2000;0.6545;1.2145;
898.5000;0.6545;1.2120;
898.8000;0.6553;1.2120;
899.1000;0.6561;1.2169;
899.4000;0.6512;1.2145;
899.7000;0.6536;1.2120;
900.0000;0.6520;1.2169;
900.3000;0.6577;1.2389;
900.6000;0.6545;1.2291;
900.9000;0.6528;1.2340;
901.2000;0.6528;1.2340;
901.5000;0.6536;1.2340;
901.8000;0.6528;1.2291;
902.1000;0.6561;1.2340;
902.4000;0.6561;1.2267;
902.7000;0.6553;1.2316;
903.0000;0.6536;1.2291;
903.3000;0.6536;1.2169;
903.6000;0.6553;1.2120;
903.9000;0.6536;1.2145;
904.2000;0.6545;1.2194;
904.5000;0.6496;1.2071;
904.8000;0.6528;1.2096;
905.1000;0.6536;1.2071;
905.4000;0.6553;1.2194;
905.7000;0.6536;1.2169;
906.0000;0.6528;1.2145;
906.3000;0.6520;1.2243;
906.6000;0.6536;1.2267;
906.9000;0.6520;1.2340;
907.2000;0.6512;1.2316;
907.5000;0.6512;1.2218;
907.8000;0.6545;1.2291;
908.1000;0.6520;1.2218;
908.4000;0.6520;1.2267;
908.7000;0.6528;1.2291;
909.0000;0.6488;1.2267;
909.3000;0.6528;1.2291;
909.6000;0.6520;1.2316;
909.9000;0.6512;1.2340;
910.2000;0.6528;1.2365;
910.5000;0.6528;1.2316;
910.8000;0.6520;1.2194;
911.1000;0.6528;1.2169;
911.4000;0.6504;1.2071;
911.7000;0.6512;1.2096;
912.0000;0.6520;1.2218;
912.3000;0.6528;1.2218;
912.6000;0.6520;1.2267;
912.9000;0.6536;1.2291;
913.2000;0.6520;1.2194;
913.5000;0.6528;1.2169;
913.8000;0.6512;1.2120;
914.1000;0.6545;1.2145;
914.4000;0.6528;1.2096;
914.7000;0.6585;1.2243;
915.0000;0.6512;1.2047;
915.3000;0.6528;1.2071;
915.6000;0.6520;1.1998;
915.9000;0.6536;1.2047;
916.2000;0.6504;1.2096;
916.5000;0.6512;1.2145;
916.8000;0.6496;1.2145;
917.1000;0.6520;1.2169;
917.4000;0.6536;1.2194;
917.7000;0.6520;1.2194;
918.0000;0.6512;1.2194;
918.3000;0.6520;1.2218;
918.6000;0.6496;1.2194;
918.9000;0.6520;1.2267;
919.2000;0.6528;1.2243;
919.5000;0.6496;1.2120;
919.8000;0.6504;1.2047;
920.1000;0.6504;1.1973;
920.4000;0.6520;1.2022;
920.7000;0.6602;1.2316;
921.0000;0.6520;1.2120;
921.3000;0.6504;1.2096;
921.6000;0.6504;1.2145;
921.9000;0.6520;1.2145;
922.2000;0.6496;1.2096;
922.5000;0.6496;1.2218;
922.8000;0.6504;1.2169;
923.1000;0.6504;1.2145;
923.4000;0.6512;1.2194;
923.7000;0.6504;1.2218;
924.0000;0.6512;1.2267;
924.3000;0.6512;1.2291;
924.6000;0.6545;1.2365;
924.9000;0.6496;1.2340;
925.2000;0.6496;1.2365;
925.5000;0.6496;1.2365;
925.8000;0.6496;1.2389;
926.1000;0.6512;1.2414;
926.4000;0.6471;1.2365;
926.7000;0.6496;1.2365;
927.0000;0.6520;1.2340;
927.3000;0.6512;1.2291;
927.6000;0.6496;1.2243;
927.9000;0.6512;1.2389;
928.2000;0.6504;1.2438;
928.5000;0.6496;1.2438;
928.8000;0.6504;1.2438;
929.1000;0.6520;1.2438;
929.4000;0.6512;1.2389;
929.7000;0.6512;1.2389;
930.0000;0.6504;1.2340;
930.3000;0.6496;1.2291;
930.6000;0.6528;1.2389;
930.9000;0.6520;1.2316;
931.2000;0.6504;1.2340;
931.5000;0.6496;1.2365;
931.8000;0.6520;1.2414;
932.1000;0.6504;1.2365;
932.4000;0.6496;1.2389;
932.7000;0.6488;1.2291;
933.0000;0.6496;1.2389;
933.3000;0.6504;1.2414;
933.6000;0.6504;1.2389;
933.9000;0.6504;1.2340;
934.2000;0.6488;1.2267;
934.5000;0.6512;1.2316;
934.8000;0.6488;1.2291;
935.1000;0.6504;1.2340;
935.4000;0.6496;1.2316;
935.7000;0.6504;1.2316;
936.0000;0.6512;1.2291;
936.3000;0.6504;1.2365;
936.6000;0.6488;1.2389;
936.9000;0.6488;1.2414;
937.2000;0.6496;1.2512;
937.5000;0.6496;1.2487;
937.8000;0.6496;1.2414;
938.1000;0.6496;1.2414;
938.4000;0.6496;1.2414;
938.7000;0.6528;1.2585;
939.0000;0.6496;1.2438;
939.3000;0.6488;1.2365;
939.6000;0.6496;1.2316;
939.9000;0.6496;1.2316;
940.2000;0.6504;1.2291;
940.5000;0.6504;1.2340;
940.8000;0.6479;1.2316;
941.1000;0.6488;1.2218;
941.4000;0.6512;1.2243;
941.7000;0.6479;1.2096;
942.0000;0.6504;1.2218;
942.3000;0.6496;1.2243;
942.6000;0.6471;1.2218;
942.9000;0.6496;1.2243;
943.2000;0.6536;1.2340;
943.5000;0.6520;1.2340;
943.8000;0.6512;1.2365;
944.1000;0.6496;1.2340;
944.4000;0.6528;1.2438;
944.7000;0.6488;1.2291;
945.0000;0.6496;1.2365;
945.3000;0.6545;1.2438;
945.6000;0.6488;1.2414;
945.9000;0.6479;1.2414;
946.2000;0.6479;1.2463;
946.5000;0.6512;1.2512;
946.8000;0.6488;1.2438;
947.1000;0.6471;1.2389;
947.4000;0.6496;1.2438;
947.7000;0.6553;1.2561;
948.0000;0.6479;1.2340;
948.3000;0.6488;1.2316;
948.6000;0.6488;1.2291;
948.9000;0.6512;1.2316;
949.2000;0.6488;1.2340;
949.5000;0.6455;1.2243;
949.8000;0.6504;1.2438;
950.1000;0.6496;1.2536;
950.4000;0.6496;1.2634;
950.7000;0.6488;1.2659;
951.0000;0.6504;1.2634;
951.3000;0.6488;1.2512;
951.6000;0.6479;1.2463;
951.9000;0.6479;1.2487;
952.2000;0.6496;1.2487;
952.5000;0.6528;1.2512;
952.8000;0.6512;1.2487;
953.1000;0.6479;1.2463;
953.4000;0.6488;1.2536;
953.7000;0.6496;1.2512;
954.0000;0.6504;1.2512;
954.3000;0.6488;1.2487;
954.6000;0.6455;1.2414;
954.9000;0.6496;1.2463;
955.2000;0.6496;1.2438;
955.5000;0.6471;1.2316;
955.8000;0.6479;1.2389;
956.1000;0.6471;1.2463;
956.4000;0.6496;1.2487;
956.7000;0.6496;1.2463;
957.0000;0.6471;1.2340;
957.3000;0.6496;1.2340;
957.6000;0.6496;1.2243;
957.9000;0.6471;1.2243;
958.2000;0.6488;1.2267;
958.5000;0.6488;1.2316;
958.8000;0.6479;1.2267;
959.1000;0.6488;1.2291;
959.4000;0.6488;1.2291;
959.7000;0.6431;1.2194;
960.0000;0.6496;1.2267;
960.3000;0.6488;1.2243;
960.6000;0.6496;1.2291;
960.9000;0.6488;1.2218;
961.2000;0.6545;1.2365;
961.5000;0.6488;1.2218;
961.8000;0.6479;1.2145;
962.1000;0.6471;1.2145;
962.4000;0.6479;1.2145;
962.7000;0.6545;1.2291;
963.0000;0.6488;1.2169;
963.3000;0.6488;1.2243;
963.6000;0.6496;1.2340;
963.9000;0.6439;1.2120;
964.2000;0.6488;1.2218;
964.5000;0.6488;1.2169;
964.8000;0.6504;1.2243;
965.1000;0.6455;1.2194;
965.4000;0.6471;1.2218;
965.7000;0.6488;1.2340;
966.0000;0.6488;1.2365;
966.3000;0.6488;1.2340;
966.6000;0.6479;1.2218;
966.9000;0.6496;1.2145;
967.2000;0.6479;1.2169;
967.5000;0.6479;1.2194;
967.8000;0.6496;1.2218;
968.1000;0.6463;1.2169;
968.4000;0.6471;1.2120;
968.7000;0.6479;1.2218;
969.0000;0.6479;1.2145;
969.3000;0.6496;1.2120;
969.6000;0.6479;1.2169;
969.9000;0.6496;1.2071;
970.2000;0.6496;1.2096;
970.5000;0.6479;1.2022;
970.8000;0.6471;1.1998;
971.1000;0.6471;1.1998;
971.4000;0.6479;1.2120;
971.7000;0.6471;1.2096;
972.0000;0.6512;1.2267;
972.3000;0.6471;1.2145;
972.6000;0.6463;1.2096;
972.9000;0.6471;1.2120;
973.2000;0.6479;1.2218;
973.5000;0.6504;1.2316;
973.8000;0.6463;1.2218;
974.1000;0.6488;1.2267;
974.4000;0.6431;1.2120;
974.7000;0.6488;1.2291;
975.0000;0.6471;1.2291;
975.3000;0.6471;1.2267;
975.6000;0.6479;1.2243;
975.9000;0.6479;1.2218;
976.2000;0.6455;1.2120;
976.5000;0.6471;1.2145;
976.8000;0.6496;1.2218;
977.1000;0.6447;1.2071;
977.4000;0.6479;1.2169;
977.7000;0.6471;1.2145;
978.0000;0.6471;1.2194;
978.3000;0.6463;1.2194;
978.6000;0.6496;1.2218;
978.9000;0.6463;1.2169;
979.2000;0.6479;1.2120;
979.5000;0.6463;1.2071;
979.8000;0.6471;1.2145;
980.1000;0.6479;1.2194;
980.4000;0.6488;1.2291;
980.7000;0.6471;1.2316;
981.0000;0.6455;1.2267;
981.3000;0.6479;1.2291;
981.6000;0.6471;1.2316;
981.9000;0.6479;1.2365;
982.2000;0.6455;1.2316;
982.5000;0.6471;1.2365;
982.8000;0.6471;1.2414;
983.1000;0.6471;1.2512;
983.4000;0.6455;1.2463;
983.7000;0.6455;1.2487;
984.0000;0.6471;1.2438;
984.3000;0.6471;1.2414;
984.6000;0.6479;1.2487;
984.9000;0.6439;1.2340;
985.2000;0.6471;1.2389;
985.5000;0.6471;1.2365;
985.8000;0.6479;1.2389;
986.1000;0.6463;1.2316;
986.4000;0.6463;1.2365;
986.7000;0.6463;1.2389;
987.0000;0.6463;1.2414;
987.3000;0.6439;1.2365;
987.6000;0.6455;1.2316;
987.9000;0.6447;1.2316;
988.2000;0.6471;1.2365;
988.5000;0.6479;1.2340;
988.8000;0.6463;1.2316;
989.1000;0.6463;1.2463;
989.4000;0.6447;1.2438;
989.7000;0.6471;1.2463;
990.0000;0.6463;1.2365;
990.3000;0.6479;1.2340;
990.6000;0.6471;1.2389;
990.9000;0.6471;1.2340;
991.2000;0.6463;1.2291;
991.5000;0.6455;1.2169;
991.8000;0.6447;1.2194;
992.1000;0.6471;1.2243;
992.4000;0.6463;1.2145;
992.7000;0.6471;1.2071;
993.0000;0.6479;1.2047;
993.3000;0.6390;1.1900;
993.6000;0.6455;1.2145;
993.9000;0.6463;1.2194;
994.2000;0.6479;1.2267;
994.5000;0.6414;1.2120;
994.8000;0.6471;1.2267;
995.1000;0.6471;1.2291;
995.4000;0.6455;1.2267;
995.7000;0.6463;1.2291;
996.0000;0.6455;1.2218;
996.3000;0.6463;1.2267;
996.6000;0.6463;1.2340;
996.9000;0.6471;1.2316;
997.2000;0.6471;1.2267;
997.5000;0.6455;1.2218;
997.8000;0.6455;1.2243;
998.1000;0.6447;1.2316;
998.4000;0.6479;1.2389;
998.7000;0.6447;1.2218;
999.0000;0.6439;1.2218;
999.3000;0.6455;1.2365;
999.6000;0.6422;1.2316;
999.9000;0.6463;1.2463;
1000.2000;0.6447;1.2463;
1000.5000;0.6447;1.2463;
1000.8000;0.6455;1.2389;
1001.1000;0.6455;1.2389;
1001.4000;0.6463;1.2414;
1001.7000;0.6463;1.2414;
1002.0000;0.6455;1.2389;
1002.3000;0.6471;1.2365;
1002.6000;0.6447;1.2291;
1002.9000;0.6447;1.2291;
1003.2000;0.6455;1.2316;
1003.5000;0.6463;1.2365;
1003.8000;0.6447;1.2340;
1004.1000;0.6447;1.2316;
1004.4000;0.6479;1.2414;
1004.7000;0.6455;1.2316;
1005.0000;0.6447;1.2169;
1005.3000;0.6471;1.2267;
1005.6000;0.6455;1.2316;
1005.9000;0.6439;1.2316;
1006.2000;0.6463;1.2316;
1006.5000;0.6447;1.2243;
1006.8000;0.6447;1.2316;
1007.1000;0.6439;1.2414;
1007.4000;0.6447;1.2365;
1007.7000;0.6463;1.2365;
1008.0000;0.6463;1.2365;
1008.3000;0.6455;1.2340;
1008.6000;0.6439;1.2389;
1008.9000;0.6431;1.2389;
1009.2000;0.6512;1.2536;
1009.5000;0.6463;1.2340;
1009.8000;0.6479;1.2438;
1010.1000;0.6455;1.2438;
1010.4000;0.6545;1.2634;
1010.7000;0.6447;1.2365;
1011.0000;0.6431;1.2316;
1011.3000;0.6439;1.2291;
1011.6000;0.6431;1.2365;
1011.9000;0.6455;1.2463;
1012.2000;0.6479;1.2487;
1012.5000;0.6439;1.2365;
1012.8000;0.6431;1.2291;
1013.1000;0.6520;1.2487;
1013.4000;0.6488;1.2316;
1013.7000;0.6431;1.2120;
1014.0000;0.6439;1.2218;
1014.3000;0.6455;1.2316;
1014.6000;0.6447;1.2316;
1014.9000;0.6463;1.2316;
1015.2000;0.6512;1.2487;
1015.5000;0.6431;1.2389;
1015.8000;0.6406;1.2365;
1016.1000;0.6422;1.2438;
1016.4000;0.6447;1.2512;
1016.7000;0.6447;1.2610;
1017.0000;0.6414;1.2487;
1017.3000;0.6439;1.2512;
1017.6000;0.6447;1.2512;
1017.9000;0.6439;1.2463;
1018.2000;0.6455;1.2487;
1018.5000;0.6398;1.2316;
1018.8000;0.6496;1.2536;
1019.1000;0.6439;1.2340;
1019.4000;0.6447;1.2340;
1019.7000;0.6439;1.2218;
1020.0000;0.6455;1.2218;
1020.3000;0.6439;1.2243;
1020.6000;0.6439;1.2291;
1020.9000;0.6447;1.2340;
1021.2000;0.6455;1.2414;
1021.5000;0.6447;1.2414;
1021.8000;0.6447;1.2438;
1022.1000;0.6455;1.2438;
1022.4000;0.6447;1.2463;
1022.7000;0.6439;1.2463;
1023.0000;0.6422;1.2438;
1023.3000;0.6431;1.2463;
1023.6000;0.6447;1.2414;
1023.9000;0.6447;1.2340;
1024.2000;0.6463;1.2218;
1024.5000;0.6431;1.2169;
1024.8000;0.6463;1.2096;
1025.1000;0.6439;1.1949;
1025.4000;0.6439;1.1949;
1025.7000;0.6471;1.2047;
1026.0000;0.6431;1.1973;
1026.3000;0.6439;1.2022;
1026.6000;0.6439;1.2096;
1026.9000;0.6447;1.2145;
1027.2000;0.6439;1.2145;
1027.5000;0.6439;1.2145;
1027.8000;0.6463;1.2194;
1028.1000;0.6447;1.2071;
1028.4000;0.6422;1.2096;
1028.7000;0.6439;1.2194;
1029.0000;0.6357;1.1998;
1029.3000;0.6406;1.2169;
1029.6000;0.6422;1.2267;
1029.9000;0.6431;1.2316;
1030.2000;0.6422;1.2267;
1030.5000;0.6439;1.2316;
1030.8000;0.6422;1.2218;
1031.1000;0.6398;1.2169;
1031.4000;0.6422;1.2243;
1031.7000;0.6439;1.2316;
1032.0000;0.6455;1.2414;
1032.3000;0.6422;1.2365;
1032.6000;0.6455;1.2414;
1032.9000;0.6447;1.2438;
1033.2000;0.6439;1.2414;
1033.5000;0.6447;1.2512;
1033.8000;0.6422;1.2463;
1034.1000;0.6447;1.2585;
1034.4000;0.6488;1.2708;
1034.7000;0.6439;1.2487;
1035.0000;0.6463;1.2561;
1035.3000;0.6414;1.2389;
1035.6000;0.6422;1.2414;
1035.9000;0.6431;1.2389;
1036.2000;0.6422;1.2389;
1036.5000;0.6463;1.2389;
1036.8000;0.6463;1.2414;
1037.1000;0.6447;1.2340;
1037.4000;0.6463;1.2340;
1037.7000;0.6414;1.2267;
1038.0000;0.6422;1.2316;
1038.3000;0.6422;1.2389;
1038.6000;0.6447;1.2365;
1038.9000;0.6431;1.2340;
1039.2000;0.6431;1.2340;
1039.5000;0.6422;1.2340;
1039.8000;0.6422;1.2340;
1040.1000;0.6406;1.2243;
1040.4000;0.6422;1.2316;
1040.7000;0.6422;1.2340;
1041.0000;0.6414;1.2414;
1041.3000;0.6431;1.2414;
1041.6000;0.6447;1.2438;
1041.9000;0.6447;1.2365;
1042.2000;0.6447;1.2365;
1042.5000;0.6439;1.2389;
1042.8000;0.6447;1.2438;
1043.1000;0.6414;1.2389;
1043.4000;0.6422;1.2389;
1043.7000;0.6422;1.2463;
1044.0000;0.6431;1.2463;
1044.3000;0.6431;1.2463;
1044.6000;0.6439;1.2438;
1044.9000;0.6447;1.2414;
1045.2000;0.6439;1.2389;
1045.5000;0.6447;1.2414;
1045.8000;0.6431;1.2340;
1046.1000;0.6431;1.2414;
1046.4000;0.6431;1.2414;
1046.7000;0.6439;1.2340;
1047.0000;0.6431;1.2291;
1047.3000;0.6431;1.2267;
1047.6000;0.6431;1.2267;
1047.9000;0.6439;1.2267;
1048.2000;0.6439;1.2243;
1048.5000;0.6431;1.2291;
1048.8000;0.6431;1.2291;
1049.1000;0.6431;1.2267;
1049.4000;0.6439;1.2340;
1049.7000;0.6431;1.2389;
1050.0000;0.6374;1.2218;
1050.3000;0.6431;1.2316;
1050.6000;0.6422;1.2291;
1050.9000;0.6431;1.2340;
1051.2000;0.6447;1.2316;
1051.5000;0.6422;1.2316;
1051.8000;0.6455;1.2487;
1052.1000;0.6447;1.2536;
1052.4000;0.6422;1.2463;
1052.7000;0.6414;1.2438;
1053.0000;0.6414;1.2463;
1053.3000;0.6349;1.2267;
1053.6000;0.6414;1.2389;
1053.9000;0.6422;1.2340;
1054.2000;0.6455;1.2438;
1054.5000;0.6406;1.2267;
1054.8000;0.6431;1.2340;
1055.1000;0.6422;1.2316;
1055.4000;0.6414;1.2365;
1055.7000;0.6422;1.2438;
1056.0000;0.6422;1.2389;
1056.3000;0.6431;1.2389;
1056.6000;0.6439;1.2267;
1056.9000;0.6447;1.2267;
1057.2000;0.6422;1.2316;
1057.5000;0.6382;1.2267;
1057.8000;0.6422;1.2291;
1058.1000;0.6422;1.2316;
1058.4000;0.6422;1.2316;
1058.7000;0.6431;1.2389;
1059.0000;0.6414;1.2365;
1059.3000;0.6455;1.2463;
1059.6000;0.6422;1.2365;
1059.9000;0.6422;1.2414;
1060.2000;0.6431;1.2414;
1060.5000;0.6431;1.2389;
1060.8000;0.6431;1.2438;
1061.1000;0.6431;1.2389;
1061.4000;0.6455;1.2414;
1061.7000;0.6447;1.2438;
1062.0000;0.6422;1.2438;
1062.3000;0.6431;1.2438;
1062.6000;0.6447;1.2610;
1062.9000;0.6422;1.2512;
1063.2000;0.6422;1.2463;
1063.5000;0.6422;1.2512;
1063.8000;0.6447;1.2414;
1064.1000;0.6422;1.2291;
1064.4000;0.6398;1.2365;
1064.7000;0.6406;1.2340;
1065.0000;0.6414;1.2414;
1065.3000;0.6398;1.2389;
1065.6000;0.6398;1.2340;
1065.9000;0.6414;1.2291;
1066.2000;0.6414;1.2340;
1066.5000;0.6431;1.2365;
1066.8000;0.6422;1.2291;
1067.1000;0.6431;1.2340;
1067.4000;0.6414;1.2340;
1067.7000;0.6422;1.2438;
1068.0000;0.6431;1.2389;
1068.3000;0.6422;1.2414;
1068.6000;0.6414;1.2438;
1068.9000;0.6431;1.2414;
1069.2000;0.6471;1.2438;
1069.5000;0.6479;1.2512;
1069.8000;0.6422;1.2389;
1070.1000;0.6431;1.2340;
1070.4000;0.6382;1.2267;
1070.7000;0.6406;1.2243;
1071.0000;0.6479;1.2463;
1071.3000;0.6414;1.2267;
1071.6000;0.6439;1.2316;
1071.9000;0.6422;1.2316;
1072.2000;0.6431;1.2316;
1072.5000;0.6422;1.2316;
1072.8000;0.6431;1.2389;
1073.1000;0.6414;1.2414;
1073.4000;0.6431;1.2463;
1073.7000;0.6414;1.2463;
1074.0000;0.6406;1.2463;
1074.3000;0.6431;1.2536;
1074.6000;0.6422;1.2536;
1074.9000;0.6422;1.2463;
1075.2000;0.6471;1.2536;
1075.5000;0.6422;1.2414;
1075.8000;0.6406;1.2365;
1076.1000;0.6374;1.2267;
1076.4000;0.6398;1.2414;
1076.7000;0.6431;1.2463;
1077.0000;0.6422;1.2512;
1077.3000;0.6422;1.2487;
1077.6000;0.6406;1.2365;
1077.9000;0.6406;1.2316;
1078.2000;0.6390;1.2316;
1078.5000;0.6439;1.2438;
1078.8000;0.6422;1.2389;
1079.1000;0.6422;1.2438;
1079.4000;0.6414;1.2414;
1079.7000;0.6422;1.2512;
1080.0000;0.6422;1.2610;
1080.3000;0.6422;1.2561;
1080.6000;0.6406;1.2561;
1080.9000;0.6422;1.2659;
1081.2000;0.6422;1.2659;
1081.5000;0.6406;1.2487;
1081.8000;0.6414;1.2512;
1082.1000;0.6414;1.2438;
1082.4000;0.6406;1.2438;
1082.7000;0.6422;1.2414;
1083.0000;0.6414;1.2389;
1083.3000;0.6414;1.2365;
1083.6000;0.6414;1.2414;
1083.9000;0.6406;1.2414;
1084.2000;0.6406;1.2316;
1084.5000;0.6422;1.2316;
1084.8000;0.6455;1.2512;
1085.1000;0.6422;1.2438;
1085.4000;0.6422;1.2536;
1085.7000;0.6406;1.2561;
1086.0000;0.6414;1.2561;
1086.3000;0.6414;1.2561;
1086.6000;0.6431;1.2585;
1086.9000;0.6414;1.2634;
1087.2000;0.6406;1.2634;
1087.5000;0.6414;1.2634;
1087.8000;0.6431;1.2634;
1088.1000;0.6414;1.2634;
1088.4000;0.6398;1.2561;
1088.7000;0.6422;1.2585;
1089.0000;0.6422;1.2585;
1089.3000;0.6398;1.2561;
1089.6000;0.6398;1.2610;
1089.9000;0.6398;1.2708;
1090.2000;0.6398;1.2610;
1090.5000;0.6406;1.2659;
1090.8000;0.6439;1.2708;
1091.1000;0.6422;1.2659;
1091.4000;0.6431;1.2708;
1091.7000;0.6406;1.2757;
1092.0000;0.6414;1.2806;
1092.3000;0.6414;1.2757;
1092.6000;0.6414;1.2732;
1092.9000;0.6439;1.2830;
1093.2000;0.6422;1.2732;
1093.5000;0.6414;1.2634;
1093.8000;0.6439;1.2683;
1094.1000;0.6414;1.2610;
1094.4000;0.6414;1.2610;
1094.7000;0.6406;1.2757;
1095.0000;0.6414;1.2855;
1095.3000;0.6422;1.2904;
1095.6000;0.6414;1.2855;
1095.9000;0.6398;1.2732;
1096.2000;0.6382;1.2683;
1096.5000;0.6431;1.2757;
1096.8000;0.6414;1.2732;
1097.1000;0.6422;1.2732;
1097.4000;0.6398;1.2659;
1097.7000;0.6414;1.2585;
1098.0000;0.6422;1.2487;
1098.3000;0.6414;1.2561;
1098.6000;0.6406;1.2536;
1098.9000;0.6422;1.2634;
1099.2000;0.6414;1.2659;
1099.5000;0.6414;1.2585;
1099.8000;0.6406;1.2487;
1100.1000;0.6382;1.2414;
1100.4000;0.6406;1.2487;
1100.7000;0.6398;1.2389;
1101.0000;0.6398;1.2389;
1101.3000;0.6317;1.2145;
1101.6000;0.6398;1.2291;
1101.9000;0.6317;1.2120;
1102.2000;0.6406;1.2438;
1102.5000;0.6398;1.2512;
1102.8000;0.6398;1.2512;
1103.1000;0.6414;1.2585;
1103.4000;0.6406;1.2561;
1103.7000;0.6406;1.2561;
1104.0000;0.6406;1.2463;
1104.3000;0.6414;1.2463;
1104.6000;0.6422;1.2512;
1104.9000;0.6422;1.2512;
1105.2000;0.6406;1.2463;
1105.5000;0.6422;1.2512;
1105.8000;0.6406;1.2487;
1106.1000;0.6398;1.2610;
1106.4000;0.6414;1.2683;
1106.7000;0.6422;1.2659;
1107.0000;0.6414;1.2634;
1107.3000;0.6374;1.2512;
1107.6000;0.6390;1.2536;
1107.9000;0.6406;1.2634;
1108.2000;0.6414;1.2610;
1108.5000;0.6406;1.2634;
1108.8000;0.6406;1.2585;
1109.1000;0.6406;1.2732;
1109.4000;0.6422;1.2781;
1109.7000;0.6406;1.2806;
1110.0000;0.6406;1.2781;
1110.3000;0.6398;1.2757;
1110.6000;0.6406;1.2830;
1110.9000;0.6406;1.2781;
1111.2000;0.6406;1.2683;
1111.5000;0.6390;1.2585;
1111.8000;0.6414;1.2634;
1112.1000;0.6398;1.2561;
1112.4000;0.6390;1.2610;
1112.7000;0.6398;1.2634;
1113.0000;0.6398;1.2512;
1113.3000;0.6414;1.2536;
1113.6000;0.6455;1.2659;
1113.9000;0.6398;1.2487;
1114.2000;0.6398;1.2512;
1114.5000;0.6390;1.2610;
1114.8000;0.6374;1.2536;
1115.1000;0.6406;1.2610;
1115.4000;0.6390;1.2512;
1115.7000;0.6398;1.2487;
1116.0000;0.6398;1.2536;
1116.3000;0.6398;1.2536;
1116.6000;0.6374;1.2414;
1116.9000;0.6406;1.2438;
1117.2000;0.6398;1.2463;
1117.5000;0.6390;1.2438;
1117.8000;0.6398;1.2536;
1118.1000;0.6382;1.2610;
1118.4000;0.6406;1.2708;
1118.7000;0.6398;1.2659;
1119.0000;0.6398;1.2732;
1119.3000;0.6398;1.2732;
1119.6000;0.6398;1.2781;
1119.9000;0.6390;1.2757;
1120.2000;0.6365;1.2732;
1120.5000;0.6390;1.2781;
1120.8000;0.6382;1.2781;
1121.1000;0.6406;1.2806;
1121.4000;0.6414;1.2855;
1121.7000;0.6390;1.2879;
1122.0000;0.6406;1.2855;
1122.3000;0.6398;1.2855;
1122.6000;0.6382;1.2806;
1122.9000;0.6406;1.2879;
1123.2000;0.6439;1.2953;
1123.5000;0.6398;1.2781;
1123.8000;0.6406;1.2830;
1124.1000;0.6365;1.2757;
1124.4000;0.6447;1.2977;
1124.7000;0.6406;1.2855;
1125.0000;0.6406;1.2830;
1125.3000;0.6390;1.2781;
1125.6000;0.6398;1.2732;
1125.9000;0.6398;1.2659;
1126.2000;0.6398;1.2634;
1126.5000;0.6398;1.2708;
1126.8000;0.6406;1.2708;
1127.1000;0.6406;1.2610;
1127.4000;0.6414;1.2536;
1127.7000;0.6390;1.2561;
1128.0000;0.6390;1.2463;
1128.3000;0.6422;1.2463;
1128.6000;0.6406;1.2414;
1128.9000;0.6398;1.2438;
1129.2000;0.6390;1.2340;
1129.5000;0.6406;1.2340;
1129.8000;0.6406;1.2316;
1130.1000;0.6406;1.2291;
1130.4000;0.6406;1.2365;
1130.7000;0.6390;1.2365;
1131.0000;0.6414;1.2487;
1131.3000;0.6414;1.2487;
1131.6000;0.6349;1.2340;
1131.9000;0.6422;1.2463;
1132.2000;0.6414;1.2487;
1132.5000;0.6406;1.2463;
1132.8000;0.6390;1.2389;
1133.1000;0.6406;1.2414;
1133.4000;0.6398;1.2389;
1133.7000;0.6414;1.2365;
1134.0000;0.6414;1.2316;
1134.3000;0.6406;1.2365;
1134.6000;0.6382;1.2389;
1134.9000;0.6398;1.2487;
1135.2000;0.6406;1.2536;
1135.5000;0.6414;1.2585;
1135.8000;0.6398;1.2536;
1136.1000;0.6349;1.2463;
1136.4000;0.6398;1.2708;
1136.7000;0.6390;1.2634;
1137.0000;0.6390;1.2634;
1137.3000;0.6406;1.2610;
1137.6000;0.6406;1.2512;
1137.9000;0.6406;1.2536;
1138.2000;0.6390;1.2536;
1138.5000;0.6439;1.2879;
1138.8000;0.6398;1.2757;
1139.1000;0.6398;1.2732;
1139.4000;0.6382;1.2732;
1139.7000;0.6398;1.2781;
1140.0000;0.6406;1.2855;
1140.3000;0.6398;1.2757;
1140.6000;0.6398;1.2757;
1140.9000;0.6398;1.2683;
1141.2000;0.6406;1.2634;
1141.5000;0.6398;1.2634;
1141.8000;0.6390;1.2512;
1142.1000;0.6398;1.2487;
1142.4000;0.6390;1.2487;
1142.7000;0.6406;1.2634;
1143.0000;0.6390;1.2585;
1143.3000;0.6390;1.2659;
1143.6000;0.6390;1.2732;
1143.9000;0.6439;1.2855;
1144.2000;0.6390;1.2659;
1144.5000;0.6390;1.2610;
1144.8000;0.6414;1.2634;
1145.1000;0.6390;1.2561;
1145.4000;0.6398;1.2561;
1145.7000;0.6398;1.2487;
1146.0000;0.6390;1.2585;
1146.3000;0.6374;1.2659;
1146.6000;0.6398;1.2830;
1146.9000;0.6382;1.2830;
1147.2000;0.6406;1.2830;
1147.5000;0.6390;1.2781;
1147.8000;0.6398;1.2585;
1148.1000;0.6374;1.2512;
1148.4000;0.6414;1.2610;
1148.7000;0.6398;1.2634;
1149.0000;0.6398;1.2732;
1149.3000;0.6398;1.2757;
1149.6000;0.6398;1.2610;
1149.9000;0.6398;1.2561;
1150.2000;0.6398;1.2561;
1150.5000;0.6382;1.2512;
1150.8000;0.6398;1.2512;
1151.1000;0.6398;1.2463;
1151.4000;0.6382;1.2389;
1151.7000;0.6414;1.2438;
1152.0000;0.6390;1.2316;
1152.3000;0.6422;1.2389;
1152.6000;0.6406;1.2340;
1152.9000;0.6374;1.2316;
1153.2000;0.6382;1.2267;
1153.5000;0.6390;1.2316;
1153.8000;0.6398;1.2487;
1154.1000;0.6398;1.2512;
1154.4000;0.6398;1.2487;
1154.7000;0.6333;1.2316;
1155.0000;0.6398;1.2463;
1155.3000;0.6374;1.2414;
1155.6000;0.6382;1.2438;
1155.9000;0.6398;1.2487;
1156.2000;0.6406;1.2438;
1156.5000;0.6406;1.2536;
1156.8000;0.6406;1.2512;
1157.1000;0.6390;1.2512;
1157.4000;0.6382;1.2561;
1157.7000;0.6382;1.2585;
1158.0000;0.6398;1.2634;
1158.3000;0.6390;1.2561;
1158.6000;0.6382;1.2561;
1158.9000;0.6382;1.2610;
1159.2000;0.6390;1.2536;
1159.5000;0.6390;1.2610;
1159.8000;0.6398;1.2512;
1160.1000;0.6406;1.2634;
1160.4000;0.6398;1.2757;
1160.7000;0.6382;1.2659;
1161.0000;0.6406;1.2757;
1161.3000;0.6398;1.2806;
1161.6000;0.6365;1.2610;
1161.9000;0.6390;1.2634;
1162.2000;0.6406;1.2659;
1162.5000;0.6357;1.2414;
1162.8000;0.6390;1.2561;
1163.1000;0.6398;1.2634;
1163.4000;0.6382;1.2585;
1163.7000;0.6374;1.2561;
1164.0000;0.6414;1.2659;
1164.3000;0.6390;1.2610;
1164.6000;0.6382;1.2536;
1164.9000;0.6390;1.2536;
1165.2000;0.6398;1.2561;
1165.5000;0.6406;1.2585;
1165.8000;0.6406;1.2659;
1166.1000;0.6471;1.2879;
1166.4000;0.6374;1.2634;
1166.7000;0.6382;1.2561;
1167.0000;0.6374;1.2634;
1167.3000;0.6374;1.2634;
1167.6000;0.6365;1.2634;
1167.9000;0.6374;1.2708;
1168.2000;0.6414;1.2879;
1168.5000;0.6398;1.2708;
1168.8000;0.6382;1.2634;
1169.1000;0.6406;1.2781;
1169.4000;0.6382;1.2708;
1169.7000;0.6390;1.2708;
1170.0000;0.6374;1.2487;
1170.3000;0.6382;1.2487;
1170.6000;0.6398;1.2463;
1170.9000;0.6398;1.2512;
1171.2000;0.6382;1.2438;
1171.5000;0.6398;1.2512;
1171.8000;0.6390;1.2512;
1172.1000;0.6390;1.2512;
1172.4000;0.6382;1.2463;
1172.7000;0.6374;1.2414;
1173.0000;0.6390;1.2438;
1173.3000;0.6390;1.2463;
1173.6000;0.6382;1.2536;
1173.9000;0.6390;1.2610;
1174.2000;0.6398;1.2610;
1174.5000;0.6406;1.2634;
1174.8000;0.6398;1.2610;
1175.1000;0.6390;1.2536;
1175.4000;0.6390;1.2561;
1175.7000;0.6406;1.2659;
1176.0000;0.6447;1.2830;
1176.3000;0.6390;1.2708;
1176.6000;0.6382;1.2757;
1176.9000;0.6390;1.2757;
1177.2000;0.6390;1.2683;
1177.5000;0.6422;1.2708;
1177.8000;0.6374;1.2536;
1178.1000;0.6390;1.2585;
1178.4000;0.6382;1.2610;
1178.7000;0.6382;1.2585;
1179.0000;0.6382;1.2610;
1179.3000;0.6390;1.2610;
1179.6000;0.6390;1.2487;
1179.9000;0.6382;1.2438;
1180.2000;0.6390;1.2463;
1180.5000;0.6333;1.2438;
1180.8000;0.6390;1.2487;
1181.1000;0.6382;1.2463;
1181.4000;0.6382;1.2365;
1181.7000;0.6374;1.2389;
1182.0000;0.6390;1.2414;
1182.3000;0.6390;1.2536;
1182.6000;0.6374;1.2463;
1182.9000;0.6406;1.2512;
1183.2000;0.6374;1.2463;
1183.5000;0.6390;1.2536;
1183.8000;0.6414;1.2512;
1184.1000;0.6390;1.2536;
1184.4000;0.6357;1.2438;
1184.7000;0.6390;1.2536;
1185.0000;0.6390;1.2512;
1185.3000;0.6374;1.2438;
1185.6000;0.6341;1.2340;
1185.9000;0.6390;1.2463;
1186.2000;0.6390;1.2389;
1186.5000;0.6406;1.2438;
1186.8000;0.6406;1.2414;
1187.1000;0.6398;1.2438;
1187.4000;0.6398;1.2340;
1187.7000;0.6374;1.2291;
1188.0000;0.6390;1.2267;
1188.3000;0.6374;1.2316;
1188.6000;0.6382;1.2365;
1188.9000;0.6398;1.2463;
1189.2000;0.6398;1.2463;
1189.5000;0.6398;1.2512;
1189.8000;0.6398;1.2561;
1190.1000;0.6374;1.2512;
1190.4000;0.6374;1.2487;
1190.7000;0.6382;1.2463;
1191.0000;0.6390;1.2463;
1191.3000;0.6390;1.2438;
1191.6000;0.6374;1.2414;
1191.9000;0.6357;1.2414;
1192.2000;0.6382;1.2512;
1192.5000;0.6390;1.2634;
1192.8000;0.6374;1.2561;
1193.1000;0.6382;1.2634;
1193.4000;0.6357;1.2536;
1193.7000;0.6390;1.2585;
1194.0000;0.6382;1.2438;
1194.3000;0.6414;1.2536;
1194.6000;0.6374;1.2389;
1194.9000;0.6382;1.2414;
1195.2000;0.6398;1.2389;
1195.5000;0.6382;1.2414;
1195.8000;0.6382;1.2414;
1196.1000;0.6398;1.2414;
1196.4000;0.6374;1.2365;
1196.7000;0.6382;1.2414;
1197.0000;0.6422;1.2634;
1197.3000;0.6390;1.2585;
1197.6000;0.6382;1.2512;
1197.9000;0.6382;1.2512;
1198.2000;0.6374;1.2512;
1198.5000;0.6390;1.2585;
1198.8000;0.6390;1.2536;
1199.1000;0.6422;1.2683;
1199.4000;0.6398;1.2561;
1199.7000;0.6398;1.2561;
1200.0000;0.6398;1.2561;
1200.3000;0.6398;1.2585;
1200.6000;0.6390;1.2561;
1200.9000;0.6382;1.2438;
1201.2000;0.6357;1.2365;
1201.5000;0.6382;1.2463;
1201.8000;0.6365;1.2438;
1202.1000;0.6374;1.2438;
1202.4000;0.6374;1.2463;
1202.7000;0.6374;1.2487;
1203.0000;0.6365;1.2463;
1203.3000;0.6365;1.2536;
1203.6000;0.6382;1.2536;
1203.9000;0.6357;1.2414;
1204.2000;0.6374;1.2487;
1204.5000;0.6382;1.2536;
1204.8000;0.6382;1.2463;
1205.1000;0.6398;1.2634;
1205.4000;0.6374;1.2610;
1205.7000;0.6382;1.2561;
1206.0000;0.6365;1.2561;
1206.3000;0.6390;1.2634;
1206.6000;0.6382;1.2610;
1206.9000;0.6382;1.2512;
1207.2000;0.6374;1.2487;
1207.5000;0.6390;1.2463;
1207.8000;0.6390;1.2512;
1208.1000;0.6374;1.2536;
1208.4000;0.6390;1.2561;
1208.7000;0.6374;1.2512;
1209.0000;0.6390;1.2561;
1209.3000;0.6390;1.2463;
1209.6000;0.6382;1.2463;
1209.9000;0.6390;1.2463;
1210.2000;0.6398;1.2512;
1210.5000;0.6382;1.2463;
1210.8000;0.6390;1.2463;
1211.1000;0.6390;1.2438;
1211.4000;0.6390;1.2414;
1211.7000;0.6390;1.2463;
1212.0000;0.6341;1.2365;
1212.3000;0.6374;1.2438;
1212.6000;0.6382;1.2512;
1212.9000;0.6406;1.2610;
1213.2000;0.6374;1.2512;
1213.5000;0.6365;1.2463;
1213.8000;0.6390;1.2561;
1214.1000;0.6406;1.2683;
1214.4000;0.6382;1.2585;
1214.7000;0.6374;1.2585;
1215.0000;0.6439;1.2634;
1215.3000;0.6398;1.2536;
1215.6000;0.6382;1.2389;
1215.9000;0.6382;1.2389;
1216.2000;0.6382;1.2463;
1216.5000;0.6390;1.2414;
1216.8000;0.6390;1.2438;
1217.1000;0.6398;1.2438;
1217.4000;0.6382;1.2414;
1217.7000;0.6431;1.2610;
1218.0000;0.6390;1.2536;
1218.3000;0.6414;1.2561;
1218.6000;0.6382;1.2463;
1218.9000;0.6382;1.2365;
1219.2000;0.6374;1.2340;
1219.5000;0.6390;1.2340;
1219.8000;0.6390;1.2316;
1220.1000;0.6382;1.2414;
1220.4000;0.6382;1.2365;
1220.7000;0.6365;1.2267;
1221.0000;0.6382;1.2365;
1221.3000;0.6374;1.2438;
1221.6000;0.6398;1.2512;
1221.9000;0.6374;1.2414;
1222.2000;0.6365;1.2340;
1222.5000;0.6374;1.2291;
1222.8000;0.6390;1.2389;
1223.1000;0.6365;1.2340;
1223.4000;0.6357;1.2438;
1223.7000;0.6390;1.2561;
1224.0000;0.6365;1.2585;
1224.3000;0.6382;1.2634;
1224.6000;0.6357;1.2561;
1224.9000;0.6374;1.2585;
1225.2000;0.6365;1.2610;
1225.5000;0.6382;1.2683;
1225.8000;0.6382;1.2634;
1226.1000;0.6382;1.2585;
1226.4000;0.6382;1.2585;
1226.7000;0.6300;1.2463;
1227.0000;0.6390;1.2659;
1227.3000;0.6390;1.2610;
1227.6000;0.6374;1.2561;
1227.9000;0.6382;1.2659;
1228.2000;0.6374;1.2634;
1228.5000;0.6374;1.2610;
1228.8000;0.6374;1.2610;
1229.1000;0.6382;1.2634;
1229.4000;0.6374;1.2585;
1229.7000;0.6374;1.2585;
1230.0000;0.6374;1.2561;
1230.3000;0.6382;1.2610;
1230.6000;0.6382;1.2561;
1230.9000;0.6382;1.2610;
1231.2000;0.6439;1.2708;
1231.5000;0.6398;1.2512;
1231.8000;0.6422;1.2708;
1232.1000;0.6390;1.2561;
1232.4000;0.6382;1.2512;
1232.7000;0.6365;1.2463;
1233.0000;0.6374;1.2512;
1233.3000;0.6382;1.2610;
1233.6000;0.6365;1.2561;
1233.9000;0.6374;1.2634;
1234.2000;0.6374;1.2610;
1234.5000;0.6349;1.2634;
1234.8000;0.6374;1.2683;
1235.1000;0.6382;1.2634;
1235.4000;0.6365;1.2610;
1235.7000;0.6374;1.2634;
1236.0000;0.6382;1.2610;
1236.3000;0.6398;1.2634;
1236.6000;0.6374;1.2659;
1236.9000;0.6390;1.2659;
1237.2000;0.6284;1.2340;
1237.5000;0.6406;1.2781;
1237.8000;0.6357;1.2536;
1238.1000;0.6341;1.2438;
1238.4000;0.6382;1.2512;
1238.7000;0.6390;1.2487;
1239.0000;0.6374;1.2438;
1239.3000;0.6374;1.2463;
1239.6000;0.6357;1.2487;
1239.9000;0.6349;1.2463;
1240.2000;0.6365;1.2512;
1240.5000;0.6382;1.2536;
1240.8000;0.6390;1.2512;
1241.1000;0.6414;1.2585;
1241.4000;0.6365;1.2585;
1241.7000;0.6390;1.2585;
1242.0000;0.6382;1.2610;
1242.3000;0.6365;1.2634;
1242.6000;0.6374;1.2659;
1242.9000;0.6382;1.2683;
1243.2000;0.6390;1.2806;
1243.5000;0.6390;1.2830;
1243.8000;0.6374;1.2757;
1244.1000;0.6382;1.2732;
1244.4000;0.6333;1.2512;
1244.7000;0.6382;1.2659;
1245.0000;0.6382;1.2781;
1245.3000;0.6382;1.2732;
1245.6000;0.6365;1.2806;
1245.9000;0.6374;1.2830;
1246.2000;0.6374;1.2830;
1246.5000;0.6357;1.2781;
1246.8000;0.6382;1.2830;
1247.1000;0.6390;1.2830;
1247.4000;0.6300;1.2610;
1247.7000;0.6325;1.2683;
1248.0000;0.6382;1.2855;
1248.3000;0.6374;1.2855;
1248.6000;0.6414;1.2879;
1248.9000;0.6365;1.2732;
1249.2000;0.6374;1.2708;
1249.5000;0.6309;1.2610;
1249.8000;0.6390;1.2781;
1250.1000;0.6365;1.2683;
1250.4000;0.6365;1.2683;
1250.7000;0.6439;1.2879;
1251.0000;0.6390;1.2708;
1251.3000;0.6365;1.2634;
1251.6000;0.6365;1.2585;
1251.9000;0.6390;1.2683;
1252.2000;0.6374;1.2634;
1252.5000;0.6374;1.2659;
1252.8000;0.6374;1.2659;
1253.1000;0.6382;1.2708;
1253.4000;0.6365;1.2659;
1253.7000;0.6357;1.2585;
1254.0000;0.6365;1.2512;
1254.3000;0.6365;1.2512;
1254.6000;0.6349;1.2463;
1254.9000;0.6365;1.2512;
1255.2000;0.6374;1.2487;
1255.5000;0.6365;1.2463;
1255.8000;0.6374;1.2438;
1256.1000;0.6374;1.2463;
1256.4000;0.6382;1.2463;
1256.7000;0.6382;1.2463;
1257.0000;0.6365;1.2536;
1257.3000;0.6382;1.2708;
1257.6000;0.6357;1.2683;
1257.9000;0.6439;1.2879;
1258.2000;0.6357;1.2659;
1258.5000;0.6382;1.2659;
1258.8000;0.6365;1.2634;
1259.1000;0.6357;1.2512;
1259.4000;0.6349;1.2438;
1259.7000;0.6374;1.2463;
1260.0000;0.6382;1.2463;
1260.3000;0.6357;1.2389;
1260.6000;0.6382;1.2414;
1260.9000;0.6382;1.2512;
1261.2000;0.6447;1.2732;
1261.5000;0.6374;1.2561;
1261.8000;0.6365;1.2512;
1262.1000;0.6390;1.2561;
1262.4000;0.6390;1.2512;
1262.7000;0.6365;1.2438;
1263.0000;0.6325;1.2414;
1263.3000;0.6357;1.2487;
1263.6000;0.6365;1.2414;
1263.9000;0.6382;1.2414;
1264.2000;0.6357;1.2340;
1264.5000;0.6374;1.2340;
1264.8000;0.6382;1.2389;
1265.1000;0.6398;1.2365;
1265.4000;0.6365;1.2340;
1265.7000;0.6357;1.2414;
1266.0000;0.6333;1.2316;
1266.3000;0.6357;1.2438;
1266.6000;0.6382;1.2536;
1266.9000;0.6357;1.2561;
1267.2000;0.6374;1.2561;
1267.5000;0.6382;1.2487;
1267.8000;0.6398;1.2536;
1268.1000;0.6390;1.2389;
1268.4000;0.6374;1.2291;
1268.7000;0.6365;1.2365;
1269.0000;0.6374;1.2512;
1269.3000;0.6374;1.2512;
1269.6000;0.6374;1.2561;
1269.9000;0.6382;1.2585;
1270.2000;0.6374;1.2536;
1270.5000;0.6390;1.2585;
1270.8000;0.6365;1.2536;
1271.1000;0.6349;1.2463;
1271.4000;0.6325;1.2512;
1271.7000;0.6357;1.2610;
1272.0000;0.6374;1.2683;
1272.3000;0.6349;1.2659;
1272.6000;0.6398;1.2757;
1272.9000;0.6365;1.2732;
1273.2000;0.6357;1.2659;
1273.5000;0.6365;1.2659;
1273.8000;0.6365;1.2610;
1274.1000;0.6374;1.2659;
1274.4000;0.6357;1.2634;
1274.7000;0.6365;1.2561;
1275.0000;0.6365;1.2561;
1275.3000;0.6374;1.2585;
1275.6000;0.6374;1.2659;
1275.9000;0.6365;1.2585;
1276.2000;0.6292;1.2316;
1276.5000;0.6357;1.2561;
1276.8000;0.6374;1.2610;
1277.1000;0.6365;1.2683;
1277.4000;0.6374;1.2659;
1277.7000;0.6382;1.2659;
1278.0000;0.6365;1.2634;
1278.3000;0.6382;1.2683;
1278.6000;0.6382;1.2781;
1278.9000;0.6374;1.2683;
1279.2000;0.6382;1.2683;
1279.5000;0.6357;1.2634;
1279.8000;0.6374;1.2634;
1280.1000;0.6365;1.2634;
1280.4000;0.6349;1.2585;
1280.7000;0.6365;1.2634;
1281.0000;0.6365;1.2585;
1281.3000;0.6374;1.2659;
1281.6000;0.6382;1.2659;
1281.9000;0.6365;1.2634;
1282.2000;0.6357;1.2561;
1282.5000;0.6374;1.2634;
1282.8000;0.6365;1.2561;
1283.1000;0.6365;1.2536;
1283.4000;0.6357;1.2512;
1283.7000;0.6357;1.2438;
1284.0000;0.6390;1.2512;
1284.3000;0.6382;1.2438;
1284.6000;0.6382;1.2389;
1284.9000;0.6365;1.2340;
1285.2000;0.6374;1.2414;
1285.5000;0.6382;1.2487;
1285.8000;0.6374;1.2536;
1286.1000;0.6365;1.2463;
1286.4000;0.6349;1.2536;
1286.7000;0.6374;1.2512;
1287.0000;0.6374;1.2536;
1287.3000;0.6382;1.2536;
1287.6000;0.6357;1.2487;
1287.9000;0.6431;1.2659;
1288.2000;0.6414;1.2659;
1288.5000;0.6365;1.2487;
1288.8000;0.6357;1.2414;
1289.1000;0.6357;1.2340;
1289.4000;0.6365;1.2389;
1289.7000;0.6357;1.2365;
1290.0000;0.6365;1.2438;
1290.3000;0.6374;1.2414;
1290.6000;0.6382;1.2414;
1290.9000;0.6365;1.2438;
1291.2000;0.6357;1.2463;
1291.5000;0.6365;1.2487;
1291.8000;0.6382;1.2487;
1292.1000;0.6374;1.2512;
1292.4000;0.6365;1.2414;
1292.7000;0.6357;1.2463;
1293.0000;0.6365;1.2634;
1293.3000;0.6333;1.2463;
1293.6000;0.6374;1.2561;
1293.9000;0.6317;1.2389;
1294.2000;0.6382;1.2487;
1294.5000;0.6406;1.2536;
1294.8000;0.6365;1.2340;
1295.1000;0.6365;1.2340;
1295.4000;0.6374;1.2389;
1295.7000;0.6390;1.2389;
1296.0000;0.6365;1.2316;
1296.3000;0.6357;1.2316;
1296.6000;0.6349;1.2340;
1296.9000;0.6406;1.2438;
1297.2000;0.6382;1.2365;
1297.5000;0.6390;1.2340;
1297.8000;0.6374;1.2438;
1298.1000;0.6365;1.2438;
1298.4000;0.6374;1.2463;
1298.7000;0.6374;1.2438;
1299.0000;0.6357;1.2463;
1299.3000;0.6365;1.2463;
1299.6000;0.6382;1.2487;
1299.9000;0.6374;1.2463;
1300.2000;0.6365;1.2414;
1300.5000;0.6374;1.2414;
1300.8000;0.6382;1.2463;
1301.1000;0.6374;1.2512;
1301.4000;0.6374;1.2463;
1301.7000;0.6349;1.2414;
1302.0000;0.6365;1.2389;
1302.3000;0.6374;1.2389;
1302.6000;0.6365;1.2340;
1302.9000;0.6357;1.2340;
1303.2000;0.6374;1.2438;
1303.5000;0.6374;1.2487;
1303.8000;0.6365;1.2536;
1304.1000;0.6374;1.2561;
1304.4000;0.6374;1.2561;
1304.7000;0.6365;1.2536;
1305.0000;0.6349;1.2536;
1305.3000;0.6317;1.2438;
1305.6000;0.6357;1.2561;
1305.9000;0.6365;1.2561;
1306.2000;0.6357;1.2487;
1306.5000;0.6365;1.2389;
1306.8000;0.6382;1.2512;
1307.1000;0.6365;1.2463;
1307.4000;0.6333;1.2365;
1307.7000;0.6357;1.2414;
1308.0000;0.6382;1.2512;
1308.3000;0.6382;1.2561;
1308.6000;0.6374;1.2463;
1308.9000;0.6341;1.2365;
1309.2000;0.6357;1.2438;
1309.5000;0.6341;1.2389;
1309.8000;0.6357;1.2487;
1310.1000;0.6365;1.2536;
1310.4000;0.6374;1.2512;
1310.7000;0.6365;1.2463;
1311.0000;0.6365;1.2414;
1311.3000;0.6357;1.2389;
1311.6000;0.6349;1.2438;
1311.9000;0.6365;1.2463;
1312.2000;0.6357;1.2487;
1312.5000;0.6357;1.2438;
1312.8000;0.6357;1.2438;
1313.1000;0.6365;1.2389;
1313.4000;0.6349;1.2536;
1313.7000;0.6357;1.2561;
1314.0000;0.6382;1.2512;
1314.3000;0.6374;1.2512;
1314.6000;0.6349;1.2487;
1314.9000;0.6365;1.2438;
1315.2000;0.6374;1.2389;
1315.5000;0.6365;1.2463;
1315.8000;0.6357;1.2414;
1316.1000;0.6374;1.2463;
1316.4000;0.6349;1.2561;
1316.7000;0.6365;1.2561;
1317.0000;0.6357;1.2512;
1317.3000;0.6374;1.2438;
1317.6000;0.6365;1.2291;
1317.9000;0.6357;1.2243;
1318.2000;0.6365;1.2291;
1318.5000;0.6349;1.2340;
1318.8000;0.6365;1.2365;
1319.1000;0.6365;1.2316;
1319.4000;0.6382;1.2414;
1319.7000;0.6365;1.2414;
1320.0000;0.6374;1.2487;
1320.3000;0.6357;1.2463;
1320.6000;0.6333;1.2414;
1320.9000;0.6357;1.2414;
1321.2000;0.6365;1.2389;
1321.5000;0.6349;1.2414;
1321.8000;0.6349;1.2316;
1322.1000;0.6374;1.2389;
1322.4000;0.6349;1.2340;
1322.7000;0.6349;1.2340;
1323.0000;0.6374;1.2487;
1323.3000;0.6349;1.2389;
1323.6000;0.6374;1.2365;
1323.9000;0.6357;1.2365;
1324.2000;0.6374;1.2389;
1324.5000;0.6414;1.2463;
1324.8000;0.6365;1.2340;
1325.1000;0.6382;1.2463;
1325.4000;0.6374;1.2438;
1325.7000;0.6357;1.2365;
1326.0000;0.6382;1.2487;
1326.3000;0.6341;1.2316;
1326.6000;0.6268;1.2194;
1326.9000;0.6341;1.2267;
1327.2000;0.6349;1.2340;
1327.5000;0.6349;1.2438;
1327.8000;0.6365;1.2487;
1328.1000;0.6349;1.2389;
1328.4000;0.6349;1.2512;
1328.7000;0.6374;1.2512;
1329.0000;0.6357;1.2536;
1329.3000;0.6341;1.2487;
1329.6000;0.6357;1.2512;
1329.9000;0.6357;1.2536;
1330.2000;0.6382;1.2585;
1330.5000;0.6365;1.2561;
1330.8000;0.6357;1.2585;
1331.1000;0.6357;1.2561;
1331.4000;0.6325;1.2536;
1331.7000;0.6357;1.2634;
1332.0000;0.6382;1.2585;
1332.3000;0.6349;1.2512;
1332.6000;0.6357;1.2610;
1332.9000;0.6365;1.2561;
1333.2000;0.6374;1.2585;
1333.5000;0.6357;1.2610;
1333.8000;0.6357;1.2536;
1334.1000;0.6414;1.2732;
1334.4000;0.6357;1.2634;
1334.7000;0.6357;1.2610;
1335.0000;0.6357;1.2610;
1335.3000;0.6374;1.2683;
1335.6000;0.6357;1.2634;
1335.9000;0.6365;1.2585;
1336.2000;0.6349;1.2610;
1336.5000;0.6341;1.2561;
1336.8000;0.6349;1.2659;
1337.1000;0.6357;1.2659;
1337.4000;0.6374;1.2732;
1337.7000;0.6374;1.2708;
1338.0000;0.6406;1.2708;
1338.3000;0.6349;1.2536;
1338.6000;0.6365;1.2512;
1338.9000;0.6365;1.2512;
1339.2000;0.6357;1.2561;
1339.5000;0.6398;1.2708;
1339.8000;0.6374;1.2683;
1340.1000;0.6365;1.2732;
1340.4000;0.6357;1.2634;
1340.7000;0.6333;1.2512;
1341.0000;0.6365;1.2610;
1341.3000;0.6325;1.2438;
1341.6000;0.6374;1.2610;
1341.9000;0.6349;1.2585;
1342.2000;0.6365;1.2634;
1342.5000;0.6406;1.2757;
1342.8000;0.6349;1.2634;
1343.1000;0.6349;1.2634;
1343.4000;0.6357;1.2683;
1343.7000;0.6357;1.2659;
1344.0000;0.6357;1.2659;
1344.3000;0.6365;1.2732;
1344.6000;0.6357;1.2732;
1344.9000;0.6357;1.2610;
1345.2000;0.6357;1.2610;
1345.5000;0.6357;1.2536;
1345.8000;0.6357;1.2585;
1346.1000;0.6365;1.2634;
1346.4000;0.6374;1.2708;
1346.7000;0.6365;1.2585;
1347.0000;0.6382;1.2634;
1347.3000;0.6382;1.2561;
1347.6000;0.6365;1.2536;
1347.9000;0.6374;1.2610;
1348.2000;0.6374;1.2561;
1348.5000;0.6382;1.2659;
1348.8000;0.6365;1.2610;
1349.1000;0.6390;1.2757;
1349.4000;0.6390;1.2683;
1349.7000;0.6365;1.2536;
1350.0000;0.6357;1.2463;
1350.3000;0.6374;1.2463;
1350.6000;0.6365;1.2438;
1350.9000;0.6439;1.2659;
1351.2000;0.6365;1.2463;
1351.5000;0.6349;1.2487;
1351.8000;0.6349;1.2536;
1352.1000;0.6341;1.2536;
1352.4000;0.6374;1.2536;
1352.7000;0.6341;1.2438;
1353.0000;0.6357;1.2463;
1353.3000;0.6365;1.2512;
1353.6000;0.6365;1.2512;
1353.9000;0.6349;1.2487;
1354.2000;0.6382;1.2561;
1354.5000;0.6374;1.2487;
1354.8000;0.6357;1.2463;
1355.1000;0.6390;1.2536;
1355.4000;0.6414;1.2634;
1355.7000;0.6365;1.2463;
1356.0000;0.6374;1.2536;
1356.3000;0.6382;1.2561;
1356.6000;0.6374;1.2536;
1356.9000;0.6357;1.2561;
1357.2000;0.6365;1.2659;
1357.5000;0.6374;1.2536;
1357.8000;0.6374;1.2512;
1358.1000;0.6341;1.2463;
1358.4000;0.6357;1.2463;
1358.7000;0.6374;1.2585;
1359.0000;0.6365;1.2536;
1359.3000;0.6365;1.2487;
1359.6000;0.6357;1.2512;
1359.9000;0.6349;1.2414;
1360.2000;0.6349;1.2463;
1360.5000;0.6357;1.2463;
1360.8000;0.6357;1.2512;
1361.1000;0.6357;1.2585;
1361.4000;0.6390;1.2708;
1361.7000;0.6365;1.2659;
1362.0000;0.6357;1.2659;
1362.3000;0.6374;1.2659;
1362.6000;0.6333;1.2512;
1362.9000;0.6317;1.2463;
1363.2000;0.6357;1.2487;
1363.5000;0.6341;1.2512;
1363.8000;0.6374;1.2634;
1364.1000;0.6349;1.2536;
1364.4000;0.6374;1.2585;
1364.7000;0.6365;1.2512;
1365.0000;0.6390;1.2487;
1365.3000;0.6365;1.2463;
1365.6000;0.6357;1.2512;
1365.9000;0.6365;1.2610;
1366.2000;0.6365;1.2536;
1366.5000;0.6309;1.2463;
1366.8000;0.6341;1.2561;
1367.1000;0.6390;1.2683;
1367.4000;0.6357;1.2683;
1367.7000;0.6390;1.2757;
1368.0000;0.6357;1.2634;
1368.3000;0.6333;1.2634;
1368.6000;0.6325;1.2585;
1368.9000;0.6349;1.2585;
1369.2000;0.6357;1.2512;
1369.5000;0.6349;1.2512;
1369.8000;0.6333;1.2438;
1370.1000;0.6374;1.2634;
1370.4000;0.6357;1.2659;
1370.7000;0.6374;1.2659;
1371.0000;0.6357;1.2536;
1371.3000;0.6382;1.2634;
1371.6000;0.6357;1.2561;
1371.9000;0.6357;1.2561;
1372.2000;0.6365;1.2561;
1372.5000;0.6365;1.2610;
1372.8000;0.6357;1.2683;
1373.1000;0.6325;1.2561;
1373.4000;0.6357;1.2683;
1373.7000;0.6365;1.2757;
1374.0000;0.6300;1.2585;
1374.3000;0.6357;1.2634;
1374.6000;0.6374;1.2610;
1374.9000;0.6365;1.2585;
1375.2000;0.6390;1.2683;
1375.5000;0.6374;1.2610;
1375.8000;0.6357;1.2634;
1376.1000;0.6357;1.2634;
1376.4000;0.6439;1.2879;
1376.7000;0.6357;1.2561;
1377.0000;0.6374;1.2683;
1377.3000;0.6349;1.2634;
1377.6000;0.6365;1.2732;
1377.9000;0.6365;1.2757;
1378.2000;0.6357;1.2732;
1378.5000;0.6382;1.2830;
1378.8000;0.6374;1.2757;
1379.1000;0.6357;1.2610;
1379.4000;0.6357;1.2585;
1379.7000;0.6365;1.2512;
1380.0000;0.6365;1.2536;
1380.3000;0.6365;1.2536;
1380.6000;0.6365;1.2487;
1380.9000;0.6357;1.2463;
1381.2000;0.6349;1.2463;
1381.5000;0.6349;1.2414;
1381.8000;0.6349;1.2438;
1382.1000;0.6365;1.2463;
1382.4000;0.6349;1.2487;
1382.7000;0.6349;1.2536;
1383.0000;0.6365;1.2561;
1383.3000;0.6357;1.2512;
1383.6000;0.6349;1.2463;
1383.9000;0.6357;1.2463;
1384.2000;0.6357;1.2512;
1384.5000;0.6357;1.2561;
1384.8000;0.6365;1.2585;
1385.1000;0.6357;1.2512;
1385.4000;0.6365;1.2487;
1385.7000;0.6374;1.2536;
1386.0000;0.6365;1.2487;
1386.3000;0.6382;1.2512;
1386.6000;0.6365;1.2487;
1386.9000;0.6341;1.2414;
1387.2000;0.6349;1.2267;
1387.5000;0.6374;1.2365;
1387.8000;0.6365;1.2365;
1388.1000;0.6357;1.2438;
1388.4000;0.6357;1.2438;
1388.7000;0.6357;1.2414;
1389.0000;0.6365;1.2487;
1389.3000;0.6374;1.2536;
1389.6000;0.6349;1.2487;
1389.9000;0.6406;1.2610;
1390.2000;0.6357;1.2585;
1390.5000;0.6365;1.2634;
1390.8000;0.6357;1.2610;
1391.1000;0.6365;1.2536;
1391.4000;0.6357;1.2561;
1391.7000;0.6357;1.2634;
1392.0000;0.6349;1.2561;
1392.3000;0.6357;1.2659;
1392.6000;0.6374;1.2683;
1392.9000;0.6357;1.2585;
1393.2000;0.6357;1.2536;
1393.5000;0.6357;1.2438;
1393.8000;0.6349;1.2438;
1394.1000;0.6382;1.2487;
1394.4000;0.6365;1.2365;
1394.7000;0.6365;1.2365;
1395.0000;0.6349;1.2291;
1395.3000;0.6365;1.2340;
1395.6000;0.6365;1.2438;
1395.9000;0.6357;1.2389;
1396.2000;0.6341;1.2316;
1396.5000;0.6357;1.2340;
1396.8000;0.6382;1.2438;
1397.1000;0.6325;1.2365;
1397.4000;0.6341;1.2463;
1397.7000;0.6374;1.2512;
1398.0000;0.6357;1.2487;
1398.3000;0.6341;1.2438;
1398.6000;0.6341;1.2414;
1398.9000;0.6357;1.2463;
1399.2000;0.6374;1.2414;
1399.5000;0.6357;1.2414;
1399.8000;0.6349;1.2365;
