time/ms;Fluo/V;P700 deltaI/I x10³;
-199.8000;0.9019;1.3344;
-199.5000;0.9035;1.3320;
-199.2000;0.9027;1.3369;
-198.9000;0.9044;1.3369;
-198.6000;0.9011;1.3271;
-198.3000;0.9035;1.3320;
-198.0000;0.9044;1.3295;
-197.7000;0.9101;1.3393;
-197.4000;0.9060;1.3197;
-197.1000;0.9044;1.3148;
-196.8000;0.9060;1.3271;
-196.5000;0.9052;1.3246;
-196.2000;0.9003;1.3124;
-195.9000;0.9068;1.3344;
-195.6000;0.9035;1.3246;
-195.3000;0.9060;1.3246;
-195.0000;0.9060;1.3246;
-194.7000;0.9068;1.3197;
-194.4000;0.9060;1.3124;
-194.1000;0.9060;1.3148;
-193.8000;0.9117;1.3320;
-193.5000;0.9060;1.3173;
-193.2000;0.9035;1.3173;
-192.9000;0.9044;1.3222;
-192.6000;0.9052;1.3344;
-192.3000;0.9035;1.3295;
-192.0000;0.9052;1.3344;
-191.7000;0.9044;1.3369;
-191.4000;0.9044;1.3344;
-191.1000;0.9068;1.3344;
-190.8000;0.9052;1.3295;
-190.5000;0.9052;1.3320;
-190.2000;0.9052;1.3271;
-189.9000;0.9060;1.3222;
-189.6000;0.9044;1.3222;
-189.3000;0.9052;1.3246;
-189.0000;0.9052;1.3246;
-188.7000;0.9060;1.3271;
-188.4000;0.9068;1.3295;
-188.1000;0.9019;1.3222;
-187.8000;0.9044;1.3320;
-187.5000;0.9060;1.3393;
-187.2000;0.9060;1.3418;
-186.9000;0.9019;1.3320;
-186.6000;0.9060;1.3369;
-186.3000;0.9060;1.3344;
-186.0000;0.9052;1.3271;
-185.7000;0.9060;1.3295;
-185.4000;0.9133;1.3540;
-185.1000;0.9068;1.3344;
-184.8000;0.9052;1.3344;
-184.5000;0.9068;1.3418;
-184.2000;0.9068;1.3418;
-183.9000;0.9060;1.3442;
-183.6000;0.9060;1.3393;
-183.3000;0.8987;1.3222;
-183.0000;0.9027;1.3246;
-182.7000;0.9044;1.3295;
-182.4000;0.9052;1.3271;
-182.1000;0.9052;1.3271;
-181.8000;0.9060;1.3320;
-181.5000;0.9052;1.3295;
-181.2000;0.9068;1.3271;
-180.9000;0.9044;1.3295;
-180.6000;0.9052;1.3246;
-180.3000;0.9035;1.3197;
-180.0000;0.9052;1.3222;
-179.7000;0.9052;1.3295;
-179.4000;0.8987;1.3075;
-179.1000;0.9060;1.3197;
-178.8000;0.9044;1.3148;
-178.5000;0.9109;1.3246;
-178.2000;0.9044;1.3148;
-177.9000;0.9068;1.3246;
-177.6000;0.9044;1.3222;
-177.3000;0.9052;1.3271;
-177.0000;0.8987;1.3173;
-176.7000;0.9044;1.3320;
-176.4000;0.9035;1.3320;
-176.1000;0.9044;1.3320;
-175.8000;0.9052;1.3369;
-175.5000;0.9060;1.3271;
-175.2000;0.9068;1.3271;
-174.9000;0.9060;1.3271;
-174.6000;0.9035;1.3222;
-174.3000;0.9052;1.3271;
-174.0000;0.9052;1.3222;
-173.7000;0.9052;1.3295;
-173.4000;0.9060;1.3344;
-173.1000;0.9052;1.3369;
-172.8000;0.9052;1.3271;
-172.5000;0.9044;1.3271;
-172.2000;0.9044;1.3418;
-171.9000;0.9019;1.3418;
-171.6000;0.9044;1.3369;
-171.3000;0.9044;1.3418;
-171.0000;0.9060;1.3418;
-170.7000;0.9068;1.3393;
-170.4000;0.9060;1.3369;
-170.1000;0.9060;1.3369;
-169.8000;0.9060;1.3369;
-169.5000;0.9060;1.3418;
-169.2000;0.9052;1.3320;
-168.9000;0.8938;1.2977;
-168.6000;0.9060;1.3246;
-168.3000;0.9052;1.3344;
-168.0000;0.9052;1.3344;
-167.7000;0.9052;1.3295;
-167.4000;0.9035;1.3271;
-167.1000;0.9052;1.3246;
-166.8000;0.9035;1.3148;
-166.5000;0.9035;1.3148;
-166.2000;0.9076;1.3148;
-165.9000;0.9109;1.3246;
-165.6000;0.9068;1.3197;
-165.3000;0.9052;1.3246;
-165.0000;0.9052;1.3246;
-164.7000;0.9060;1.3222;
-164.4000;0.9035;1.3173;
-164.1000;0.9068;1.3295;
-163.8000;0.9052;1.3246;
-163.5000;0.9060;1.3320;
-163.2000;0.9052;1.3271;
-162.9000;0.9019;1.3197;
-162.6000;0.9052;1.3197;
-162.3000;0.9035;1.3124;
-162.0000;0.9044;1.3173;
-161.7000;0.9052;1.3197;
-161.4000;0.9044;1.3197;
-161.1000;0.9068;1.3246;
-160.8000;0.9052;1.3148;
-160.5000;0.9044;1.3148;
-160.2000;0.9052;1.3148;
-159.9000;0.9044;1.3100;
-159.6000;0.9044;1.3051;
-159.3000;0.9060;1.3051;
-159.0000;0.9068;1.3124;
-158.7000;0.9044;1.3075;
-158.4000;0.9044;1.3197;
-158.1000;0.9076;1.3320;
-157.8000;0.9052;1.3222;
-157.5000;0.9060;1.3222;
-157.2000;0.9052;1.3173;
-156.9000;0.9052;1.3246;
-156.6000;0.9052;1.3148;
-156.3000;0.9060;1.3100;
-156.0000;0.9052;1.3002;
-155.7000;0.9052;1.3002;
-155.4000;0.9052;1.3051;
-155.1000;0.9044;1.3051;
-154.8000;0.9044;1.3051;
-154.5000;0.9044;1.3075;
-154.2000;0.9035;1.3100;
-153.9000;0.9044;1.3222;
-153.6000;0.9044;1.3295;
-153.3000;0.9060;1.3295;
-153.0000;0.9076;1.3344;
-152.7000;0.9060;1.3271;
-152.4000;0.9035;1.3295;
-152.1000;0.9117;1.3418;
-151.8000;0.9060;1.3320;
-151.5000;0.9052;1.3246;
-151.2000;0.9060;1.3197;
-150.9000;0.9060;1.3246;
-150.6000;0.9044;1.3246;
-150.3000;0.9052;1.3246;
-150.0000;0.9027;1.3271;
-149.7000;0.9027;1.3271;
-149.4000;0.9044;1.3320;
-149.1000;0.9044;1.3246;
-148.8000;0.9035;1.3124;
-148.5000;0.9035;1.3124;
-148.2000;0.9035;1.3197;
-147.9000;0.9060;1.3148;
-147.6000;0.9052;1.3124;
-147.3000;0.9052;1.3100;
-147.0000;0.9060;1.3100;
-146.7000;0.9052;1.3100;
-146.4000;0.9044;1.3173;
-146.1000;0.9044;1.3197;
-145.8000;0.9044;1.3222;
-145.5000;0.9035;1.3222;
-145.2000;0.9076;1.3222;
-144.9000;0.9052;1.3148;
-144.6000;0.9052;1.3197;
-144.3000;0.9060;1.3246;
-144.0000;0.9068;1.3148;
-143.7000;0.9060;1.3124;
-143.4000;0.9035;1.3075;
-143.1000;0.9060;1.3100;
-142.8000;0.9092;1.3026;
-142.5000;0.9068;1.3002;
-142.2000;0.9052;1.3002;
-141.9000;0.9027;1.2953;
-141.6000;0.9060;1.2953;
-141.3000;0.9060;1.2977;
-141.0000;0.9076;1.3026;
-140.7000;0.9060;1.2977;
-140.4000;0.9044;1.2953;
-140.1000;0.9117;1.3075;
-139.8000;0.9060;1.2953;
-139.5000;0.9035;1.2928;
-139.2000;0.9052;1.2977;
-138.9000;0.9052;1.2953;
-138.6000;0.9044;1.2977;
-138.3000;0.9052;1.3002;
-138.0000;0.9019;1.3026;
-137.7000;0.9052;1.3100;
-137.4000;0.9060;1.3100;
-137.1000;0.9044;1.3051;
-136.8000;0.9044;1.2977;
-136.5000;0.9052;1.3026;
-136.2000;0.9052;1.3051;
-135.9000;0.9052;1.3002;
-135.6000;0.9044;1.2977;
-135.3000;0.9027;1.2879;
-135.0000;0.9060;1.3002;
-134.7000;0.9060;1.3002;
-134.4000;0.9052;1.3075;
-134.1000;0.9068;1.3197;
-133.8000;0.9060;1.3222;
-133.5000;0.9060;1.3197;
-133.2000;0.9060;1.3271;
-132.9000;0.9052;1.3222;
-132.6000;0.9052;1.3222;
-132.3000;0.9052;1.3197;
-132.0000;0.9052;1.3271;
-131.7000;0.9044;1.3246;
-131.4000;0.9060;1.3271;
-131.1000;0.9044;1.3197;
-130.8000;0.9035;1.3148;
-130.5000;0.9052;1.3271;
-130.2000;0.9052;1.3295;
-129.9000;0.9060;1.3271;
-129.6000;0.9060;1.3197;
-129.3000;0.9068;1.3222;
-129.0000;0.9052;1.3173;
-128.7000;0.9068;1.3271;
-128.4000;0.9068;1.3271;
-128.1000;0.9060;1.3246;
-127.8000;0.9052;1.3173;
-127.5000;0.9060;1.3197;
-127.2000;0.9068;1.3124;
-126.9000;0.9084;1.3246;
-126.6000;0.9035;1.3148;
-126.3000;0.9076;1.3271;
-126.0000;0.9060;1.3271;
-125.7000;0.9052;1.3197;
-125.4000;0.9060;1.3271;
-125.1000;0.9019;1.3271;
-124.8000;0.9092;1.3344;
-124.5000;0.9052;1.3295;
-124.2000;0.9060;1.3369;
-123.9000;0.9027;1.3320;
-123.6000;0.9060;1.3320;
-123.3000;0.9060;1.3344;
-123.0000;0.9052;1.3320;
-122.7000;0.9060;1.3295;
-122.4000;0.9060;1.3246;
-122.1000;0.9060;1.3295;
-121.8000;0.9060;1.3271;
-121.5000;0.9060;1.3295;
-121.2000;0.9052;1.3295;
-120.9000;0.9060;1.3271;
-120.6000;0.9060;1.3271;
-120.3000;0.9068;1.3222;
-120.0000;0.9052;1.3197;
-119.7000;0.9060;1.3271;
-119.4000;0.9060;1.3295;
-119.1000;0.8995;1.3124;
-118.8000;0.9117;1.3442;
-118.5000;0.9068;1.3295;
-118.2000;0.9060;1.3173;
-117.9000;0.9060;1.3100;
-117.6000;0.9052;1.3100;
-117.3000;0.9068;1.3051;
-117.0000;0.9027;1.3026;
-116.7000;0.9035;1.3075;
-116.4000;0.9052;1.3075;
-116.1000;0.9052;1.3124;
-115.8000;0.8987;1.3124;
-115.5000;0.9044;1.3295;
-115.2000;0.9052;1.3295;
-114.9000;0.9044;1.3197;
-114.6000;0.9052;1.3246;
-114.3000;0.9052;1.3197;
-114.0000;0.9052;1.3100;
-113.7000;0.9052;1.3173;
-113.4000;0.9084;1.3197;
-113.1000;0.9092;1.3222;
-112.8000;0.9060;1.3148;
-112.5000;0.9060;1.3075;
-112.2000;0.9068;1.3197;
-111.9000;0.9052;1.3148;
-111.6000;0.8970;1.3026;
-111.3000;0.9052;1.3271;
-111.0000;0.9052;1.3320;
-110.7000;0.9052;1.3369;
-110.4000;0.9035;1.3344;
-110.1000;0.9035;1.3271;
-109.8000;0.9052;1.3197;
-109.5000;0.9044;1.3271;
-109.2000;0.9044;1.3222;
-108.9000;0.9052;1.3271;
-108.6000;0.9060;1.3246;
-108.3000;0.9068;1.3271;
-108.0000;0.9044;1.3271;
-107.7000;0.9052;1.3295;
-107.4000;0.9044;1.3295;
-107.1000;0.9044;1.3320;
-106.8000;0.9068;1.3344;
-106.5000;0.9060;1.3246;
-106.2000;0.9052;1.3222;
-105.9000;0.9052;1.3295;
-105.6000;0.9052;1.3295;
-105.3000;0.9068;1.3393;
-105.0000;0.9027;1.3295;
-104.7000;0.9035;1.3418;
-104.4000;0.9052;1.3393;
-104.1000;0.9052;1.3418;
-103.8000;0.9060;1.3369;
-103.5000;0.9044;1.3295;
-103.2000;0.9052;1.3320;
-102.9000;0.9084;1.3369;
-102.6000;0.9052;1.3369;
-102.3000;0.9068;1.3418;
-102.0000;0.9060;1.3540;
-101.7000;0.9060;1.3565;
-101.4000;0.9052;1.3565;
-101.1000;0.9052;1.3540;
-100.8000;0.9052;1.3442;
-100.5000;0.9052;1.3393;
-100.2000;0.9044;1.3369;
-99.9000;0.9027;1.3295;
-99.6000;0.9060;1.3344;
-99.3000;0.9060;1.3344;
-99.0000;0.9060;1.3344;
-98.7000;0.9052;1.3295;
-98.4000;0.9052;1.3222;
-98.1000;0.9060;1.3197;
-97.8000;0.9052;1.3197;
-97.5000;0.9060;1.3124;
-97.2000;0.9035;1.3051;
-96.9000;0.9052;1.3100;
-96.6000;0.9068;1.3173;
-96.3000;0.9044;1.3148;
-96.0000;0.9035;1.3148;
-95.7000;0.9060;1.3295;
-95.4000;0.9076;1.3344;
-95.1000;0.9011;1.3222;
-94.8000;0.9052;1.3246;
-94.5000;0.9035;1.3246;
-94.2000;0.9019;1.3197;
-93.9000;0.9060;1.3295;
-93.6000;0.8987;1.3148;
-93.3000;0.9109;1.3589;
-93.0000;0.9060;1.3467;
-92.7000;0.9060;1.3442;
-92.4000;0.9044;1.3418;
-92.1000;0.9035;1.3418;
-91.8000;0.9060;1.3467;
-91.5000;0.8995;1.3320;
-91.2000;0.9044;1.3442;
-90.9000;0.9052;1.3491;
-90.6000;0.9109;1.3589;
-90.3000;0.9084;1.3565;
-90.0000;0.9044;1.3418;
-89.7000;0.9035;1.3418;
-89.4000;0.9109;1.3589;
-89.1000;0.9044;1.3442;
-88.8000;0.9044;1.3491;
-88.5000;0.9027;1.3467;
-88.2000;0.8987;1.3393;
-87.9000;0.9044;1.3516;
-87.6000;0.9035;1.3540;
-87.3000;0.9011;1.3442;
-87.0000;0.9052;1.3540;
-86.7000;0.9060;1.3540;
-86.4000;0.9035;1.3467;
-86.1000;0.9019;1.3344;
-85.8000;0.9052;1.3369;
-85.5000;0.9060;1.3491;
-85.2000;0.9003;1.3393;
-84.9000;0.9035;1.3467;
-84.6000;0.9044;1.3491;
-84.3000;0.9060;1.3663;
-84.0000;0.9060;1.3638;
-83.7000;0.9052;1.3614;
-83.4000;0.9068;1.3589;
-83.1000;0.9052;1.3638;
-82.8000;0.9052;1.3638;
-82.5000;0.9052;1.3491;
-82.2000;0.9019;1.3369;
-81.9000;0.9076;1.3491;
-81.6000;0.9052;1.3467;
-81.3000;0.9035;1.3442;
-81.0000;0.9052;1.3467;
-80.7000;0.9019;1.3393;
-80.4000;0.9035;1.3369;
-80.1000;0.9060;1.3320;
-79.8000;0.9060;1.3320;
-79.5000;0.9084;1.3393;
-79.2000;0.9044;1.3320;
-78.9000;0.9060;1.3320;
-78.6000;0.9060;1.3320;
-78.3000;0.9035;1.3246;
-78.0000;0.9052;1.3271;
-77.7000;0.9060;1.3271;
-77.4000;0.9060;1.3246;
-77.1000;0.9068;1.3295;
-76.8000;0.9076;1.3344;
-76.5000;0.9044;1.3344;
-76.2000;0.9060;1.3393;
-75.9000;0.9052;1.3418;
-75.6000;0.9052;1.3467;
-75.3000;0.9044;1.3491;
-75.0000;0.9068;1.3369;
-74.7000;0.9052;1.3320;
-74.4000;0.9044;1.3295;
-74.1000;0.9035;1.3271;
-73.8000;0.9068;1.3271;
-73.5000;0.9068;1.3271;
-73.2000;0.9044;1.3100;
-72.9000;0.9044;1.3026;
-72.6000;0.9044;1.3026;
-72.3000;0.9060;1.3100;
-72.0000;0.9052;1.3100;
-71.7000;0.9044;1.3124;
-71.4000;0.9035;1.3148;
-71.1000;0.9052;1.3124;
-70.8000;0.9052;1.3124;
-70.5000;0.9044;1.3100;
-70.2000;0.9035;1.3100;
-69.9000;0.9125;1.3369;
-69.6000;0.9044;1.3051;
-69.3000;0.9076;1.3173;
-69.0000;0.9044;1.3075;
-68.7000;0.9027;1.3026;
-68.4000;0.9052;1.3100;
-68.1000;0.9019;1.3002;
-67.8000;0.9052;1.3173;
-67.5000;0.9068;1.3246;
-67.2000;0.9052;1.3197;
-66.9000;0.9060;1.3197;
-66.6000;0.9052;1.3246;
-66.3000;0.9060;1.3295;
-66.0000;0.9052;1.3222;
-65.7000;0.9068;1.3222;
-65.4000;0.9044;1.3222;
-65.1000;0.9052;1.3295;
-64.8000;0.9044;1.3271;
-64.5000;0.9060;1.3344;
-64.2000;0.9076;1.3320;
-63.9000;0.9052;1.3344;
-63.6000;0.9052;1.3369;
-63.3000;0.9035;1.3344;
-63.0000;0.9052;1.3320;
-62.7000;0.9052;1.3344;
-62.4000;0.9044;1.3320;
-62.1000;0.9044;1.3344;
-61.8000;0.9060;1.3467;
-61.5000;0.9044;1.3393;
-61.2000;0.9044;1.3393;
-60.9000;0.9060;1.3369;
-60.6000;0.9060;1.3344;
-60.3000;0.9027;1.3222;
-60.0000;0.9068;1.3222;
-59.7000;0.9076;1.3295;
-59.4000;0.9027;1.3075;
-59.1000;0.9044;1.3075;
-58.8000;0.9044;1.3100;
-58.5000;0.9044;1.3075;
-58.2000;0.9068;1.3100;
-57.9000;0.9052;1.3124;
-57.6000;0.9052;1.3148;
-57.3000;0.9044;1.3148;
-57.0000;0.9044;1.3075;
-56.7000;0.9052;1.3075;
-56.4000;0.9044;1.3124;
-56.1000;0.9060;1.3124;
-55.8000;0.9044;1.3100;
-55.5000;0.9109;1.3222;
-55.2000;0.9052;1.3197;
-54.9000;0.9068;1.3197;
-54.6000;0.9076;1.3148;
-54.3000;0.9068;1.3051;
-54.0000;0.9052;1.3026;
-53.7000;0.9052;1.3148;
-53.4000;0.9076;1.3271;
-53.1000;0.9044;1.3246;
-52.8000;0.8970;1.3124;
-52.5000;0.9044;1.3344;
-52.2000;0.9044;1.3320;
-51.9000;0.9044;1.3295;
-51.6000;0.9044;1.3222;
-51.3000;0.9060;1.3197;
-51.0000;0.9060;1.3148;
-50.7000;0.9060;1.3100;
-50.4000;0.9044;1.3124;
-50.1000;0.9035;1.3173;
-49.8000;0.9044;1.3271;
-49.5000;0.9076;1.3369;
-49.2000;0.9027;1.3222;
-48.9000;0.9044;1.3222;
-48.6000;0.9044;1.3173;
-48.3000;0.9068;1.3173;
-48.0000;0.9060;1.3173;
-47.7000;0.9035;1.3075;
-47.4000;0.9035;1.3075;
-47.1000;0.9060;1.3148;
-46.8000;0.9060;1.3222;
-46.5000;0.9060;1.3246;
-46.2000;0.9044;1.3148;
-45.9000;0.9052;1.3222;
-45.6000;0.9044;1.3197;
-45.3000;0.9052;1.3295;
-45.0000;0.9003;1.3075;
-44.7000;0.9044;1.3148;
-44.4000;0.9052;1.3173;
-44.1000;0.9044;1.3197;
-43.8000;0.9035;1.3222;
-43.5000;0.9044;1.3320;
-43.2000;0.9052;1.3369;
-42.9000;0.9068;1.3540;
-42.6000;0.9044;1.3516;
-42.3000;0.9052;1.3589;
-42.0000;0.9068;1.3589;
-41.7000;0.9052;1.3467;
-41.4000;0.9044;1.3467;
-41.1000;0.9035;1.3442;
-40.8000;0.9052;1.3442;
-40.5000;0.9044;1.3540;
-40.2000;0.9060;1.3565;
-39.9000;0.9052;1.3516;
-39.6000;0.9035;1.3491;
-39.3000;0.9060;1.3589;
-39.0000;0.9035;1.3638;
-38.7000;0.9035;1.3565;
-38.4000;0.9044;1.3614;
-38.1000;0.9052;1.3638;
-37.8000;0.9044;1.3589;
-37.5000;0.9044;1.3540;
-37.2000;0.9044;1.3638;
-36.9000;0.9060;1.3638;
-36.6000;0.9060;1.3614;
-36.3000;0.9068;1.3614;
-36.0000;0.9068;1.3589;
-35.7000;0.9035;1.3589;
-35.4000;0.9068;1.3589;
-35.1000;0.9060;1.3614;
-34.8000;0.9076;1.3565;
-34.5000;0.9044;1.3418;
-34.2000;0.9052;1.3369;
-33.9000;0.9060;1.3393;
-33.6000;0.9068;1.3442;
-33.3000;0.9052;1.3467;
-33.0000;0.9068;1.3442;
-32.7000;0.9060;1.3393;
-32.4000;0.9068;1.3467;
-32.1000;0.9060;1.3467;
-31.8000;0.9044;1.3418;
-31.5000;0.9044;1.3442;
-31.2000;0.9101;1.3491;
-30.9000;0.9076;1.3442;
-30.6000;0.9044;1.3369;
-30.3000;0.9060;1.3344;
-30.0000;0.9052;1.3320;
-29.7000;0.9035;1.3320;
-29.4000;0.9068;1.3418;
-29.1000;0.9060;1.3467;
-28.8000;0.9027;1.3467;
-28.5000;0.9035;1.3467;
-28.2000;0.9060;1.3442;
-27.9000;0.9044;1.3393;
-27.6000;0.9044;1.3320;
-27.3000;0.9076;1.3320;
-27.0000;0.9060;1.3320;
-26.7000;0.9052;1.3369;
-26.4000;0.9060;1.3418;
-26.1000;0.9060;1.3369;
-25.8000;0.9044;1.3295;
-25.5000;0.9052;1.3344;
-25.2000;0.9011;1.3442;
-24.9000;0.9068;1.3614;
-24.6000;0.9044;1.3516;
-24.3000;0.9052;1.3540;
-24.0000;0.9044;1.3516;
-23.7000;0.9052;1.3516;
-23.4000;0.9035;1.3393;
-23.1000;0.9052;1.3393;
-22.8000;0.9060;1.3467;
-22.5000;0.9044;1.3442;
-22.2000;0.9044;1.3516;
-21.9000;0.9044;1.3467;
-21.6000;0.9060;1.3516;
-21.3000;0.9060;1.3442;
-21.0000;0.9060;1.3442;
-20.7000;0.9060;1.3491;
-20.4000;0.9044;1.3418;
-20.1000;0.9060;1.3467;
-19.8000;0.9060;1.3442;
-19.5000;0.9060;1.3589;
-19.2000;0.9027;1.3565;
-18.9000;0.9060;1.3638;
-18.6000;0.9060;1.3589;
-18.3000;0.9060;1.3663;
-18.0000;0.9060;1.3614;
-17.7000;0.9027;1.3491;
-17.4000;0.9052;1.3516;
-17.1000;0.9044;1.3467;
-16.8000;0.9052;1.3369;
-16.5000;0.9052;1.3369;
-16.2000;0.9052;1.3418;
-15.9000;0.9019;1.3295;
-15.6000;0.9052;1.3344;
-15.3000;0.9060;1.3418;
-15.0000;0.9060;1.3540;
-14.7000;0.9076;1.3663;
-14.4000;0.9068;1.3516;
-14.1000;0.9060;1.3491;
-13.8000;0.9035;1.3442;
-13.5000;0.9044;1.3467;
-13.2000;0.9003;1.3320;
-12.9000;0.9035;1.3540;
-12.6000;0.9076;1.3687;
-12.3000;0.9052;1.3540;
-12.0000;0.9052;1.3565;
-11.7000;0.9052;1.3540;
-11.4000;0.9076;1.3663;
-11.1000;0.9052;1.3614;
-10.8000;0.9052;1.3565;
-10.5000;0.9052;1.3467;
-10.2000;0.9052;1.3393;
-9.9000;0.9052;1.3369;
-9.6000;0.9052;1.3369;
-9.3000;0.9060;1.3418;
-9.0000;0.9044;1.3442;
-8.7000;0.9044;1.3491;
-8.4000;0.9052;1.3516;
-8.1000;0.9035;1.3442;
-7.8000;0.9035;1.3467;
-7.5000;0.9052;1.3442;
-7.2000;0.9052;1.3418;
-6.9000;0.9068;1.3442;
-6.6000;0.9052;1.3491;
-6.3000;0.9052;1.3467;
-6.0000;0.9060;1.3418;
-5.7000;0.9052;1.3442;
-5.4000;0.9060;1.3442;
-5.1000;0.9060;1.3516;
-4.8000;0.9060;1.3589;
-4.5000;0.9044;1.3589;
-4.2000;0.9052;1.3540;
-3.9000;0.9044;1.3516;
-3.6000;0.9052;1.3467;
-3.3000;0.9052;1.3491;
-3.0000;0.9027;1.3442;
-2.7000;0.9052;1.3442;
-2.4000;0.9052;1.3393;
-2.1000;0.9052;1.3467;
-1.8000;0.9052;1.3442;
-1.5000;0.9027;1.3320;
-1.2000;0.9052;1.3467;
-0.9000;0.9035;1.3418;
-0.6000;0.9011;1.3369;
-0.3000;0.9035;1.3369;
0.0000;0.9035;1.3369;
0.3000;0.9084;1.3100;
0.6000;0.9109;1.3344;
0.9000;0.9068;1.3344;
1.2000;0.9158;1.3736;
1.5000;0.9198;1.4030;
1.8000;0.9214;1.4201;
2.1000;0.9190;1.4299;
2.4000;0.9231;1.4446;
2.7000;0.9312;1.4667;
3.0000;0.9255;1.4618;
3.3000;0.9263;1.4813;
3.6000;0.9255;1.4813;
3.9000;0.9280;1.4936;
4.2000;0.9288;1.5009;
4.5000;0.9271;1.4985;
4.8000;0.9288;1.5034;
5.1000;0.9288;1.4960;
5.4000;0.9320;1.5058;
5.7000;0.9312;1.5034;
6.0000;0.9296;1.5034;
6.3000;0.9320;1.5034;
6.6000;0.9328;1.4985;
6.9000;0.9328;1.5058;
7.2000;0.9353;1.5083;
7.5000;0.9328;1.5034;
7.8000;0.9328;1.5107;
8.1000;0.9361;1.5181;
8.4000;0.9337;1.5132;
8.7000;0.9353;1.5181;
9.0000;0.9345;1.5230;
9.3000;0.9369;1.5279;
9.6000;0.9377;1.5303;
9.9000;0.9377;1.5279;
10.2000;0.9385;1.5230;
10.5000;0.9385;1.5279;
10.8000;0.9337;1.5181;
11.1000;0.9369;1.5279;
11.4000;0.9361;1.5279;
11.7000;0.9385;1.5254;
12.0000;0.9402;1.5230;
12.3000;0.9394;1.5303;
12.6000;0.9402;1.5254;
12.9000;0.9410;1.5254;
13.2000;0.9410;1.5279;
13.5000;0.9385;1.5230;
13.8000;0.9394;1.5156;
14.1000;0.9394;1.5181;
14.4000;0.9402;1.5181;
14.7000;0.9402;1.5132;
15.0000;0.9402;1.5181;
15.3000;0.9418;1.5230;
15.6000;0.9418;1.5205;
15.9000;0.9475;1.5377;
16.2000;0.9418;1.5230;
16.5000;0.9418;1.5205;
16.8000;0.9402;1.5181;
17.1000;0.9402;1.5230;
17.4000;0.9410;1.5230;
17.7000;0.9410;1.5279;
18.0000;0.9410;1.5328;
18.3000;0.9426;1.5426;
18.6000;0.9418;1.5426;
18.9000;0.9426;1.5352;
19.2000;0.9442;1.5450;
19.5000;0.9418;1.5426;
19.8000;0.9426;1.5426;
20.1000;0.9426;1.5426;
20.4000;0.9434;1.5450;
20.7000;0.9434;1.5524;
21.0000;0.9467;1.5548;
21.3000;0.9410;1.5328;
21.6000;0.9418;1.5328;
21.9000;0.9418;1.5303;
22.2000;0.9426;1.5377;
22.5000;0.9426;1.5328;
22.8000;0.9426;1.5352;
23.1000;0.9418;1.5401;
23.4000;0.9442;1.5426;
23.7000;0.9451;1.5450;
24.0000;0.9426;1.5328;
24.3000;0.9434;1.5303;
24.6000;0.9426;1.5254;
24.9000;0.9451;1.5279;
25.2000;0.9451;1.5230;
25.5000;0.9516;1.5426;
25.8000;0.9467;1.5279;
26.1000;0.9442;1.5328;
26.4000;0.9442;1.5377;
26.7000;0.9451;1.5450;
27.0000;0.9516;1.5719;
27.3000;0.9451;1.5597;
27.6000;0.9410;1.5499;
27.9000;0.9451;1.5572;
28.2000;0.9434;1.5597;
28.5000;0.9442;1.5572;
28.8000;0.9451;1.5475;
29.1000;0.9434;1.5426;
29.4000;0.9442;1.5475;
29.7000;0.9459;1.5475;
30.0000;0.9426;1.5450;
30.3000;0.9434;1.5426;
30.6000;0.9418;1.5401;
30.9000;0.9434;1.5401;
31.2000;0.9442;1.5377;
31.5000;0.9451;1.5377;
31.8000;0.9394;1.5254;
32.1000;0.9442;1.5426;
32.4000;0.9451;1.5352;
32.7000;0.9442;1.5352;
33.0000;0.9426;1.5303;
33.3000;0.9442;1.5401;
33.6000;0.9442;1.5328;
33.9000;0.9451;1.5401;
34.2000;0.9442;1.5377;
34.5000;0.9451;1.5401;
34.8000;0.9508;1.5548;
35.1000;0.9434;1.5450;
35.4000;0.9451;1.5475;
35.7000;0.9426;1.5377;
36.0000;0.9442;1.5352;
36.3000;0.9442;1.5426;
36.6000;0.9434;1.5499;
36.9000;0.9434;1.5524;
37.2000;0.9483;1.5572;
37.5000;0.9442;1.5352;
37.8000;0.9442;1.5352;
38.1000;0.9451;1.5328;
38.4000;0.9451;1.5303;
38.7000;0.9451;1.5254;
39.0000;0.9426;1.5181;
39.3000;0.9426;1.5181;
39.6000;0.9434;1.5230;
39.9000;0.9442;1.5303;
40.2000;0.9434;1.5230;
40.5000;0.9434;1.5205;
40.8000;0.9451;1.5230;
41.1000;0.9426;1.5205;
41.4000;0.9434;1.5205;
41.7000;0.9451;1.5181;
42.0000;0.9451;1.5156;
42.3000;0.9451;1.5132;
42.6000;0.9442;1.5132;
42.9000;0.9442;1.5181;
43.2000;0.9459;1.5132;
43.5000;0.9451;1.5058;
43.8000;0.9451;1.5058;
44.1000;0.9483;1.5058;
44.4000;0.9434;1.5083;
44.7000;0.9434;1.5083;
45.0000;0.9410;1.4936;
45.3000;0.9442;1.4985;
45.6000;0.9442;1.4960;
45.9000;0.9442;1.4960;
46.2000;0.9442;1.4936;
46.5000;0.9442;1.5009;
46.8000;0.9442;1.4960;
47.1000;0.9451;1.4960;
47.4000;0.9451;1.5009;
47.7000;0.9434;1.5034;
48.0000;0.9434;1.5107;
48.3000;0.9426;1.5156;
48.6000;0.9434;1.5254;
48.9000;0.9451;1.5230;
49.2000;0.9483;1.5205;
49.5000;0.9442;1.5156;
49.8000;0.9442;1.5205;
50.1000;0.9451;1.5230;
50.4000;0.9451;1.5230;
50.7000;0.9442;1.5254;
51.0000;0.9442;1.5254;
51.3000;0.9451;1.5230;
51.6000;0.9426;1.5181;
51.9000;0.9451;1.5083;
52.2000;0.9426;1.5156;
52.5000;0.9442;1.5254;
52.8000;0.9459;1.5303;
53.1000;0.9418;1.5303;
53.4000;0.9418;1.5230;
53.7000;0.9442;1.5254;
54.0000;0.9483;1.5303;
54.3000;0.9434;1.5181;
54.6000;0.9434;1.5107;
54.9000;0.9451;1.5156;
55.2000;0.9442;1.5205;
55.5000;0.9426;1.5205;
55.8000;0.9491;1.5328;
56.1000;0.9418;1.5181;
56.4000;0.9459;1.5279;
56.7000;0.9467;1.5205;
57.0000;0.9442;1.5181;
57.3000;0.9442;1.5230;
57.6000;0.9451;1.5279;
57.9000;0.9442;1.5352;
58.2000;0.9442;1.5401;
58.5000;0.9426;1.5450;
58.8000;0.9426;1.5450;
59.1000;0.9434;1.5450;
59.4000;0.9434;1.5303;
59.7000;0.9426;1.5254;
60.0000;0.9459;1.5279;
60.3000;0.9434;1.5156;
60.6000;0.9434;1.5058;
60.9000;0.9442;1.5083;
61.2000;0.9451;1.5181;
61.5000;0.9442;1.5181;
61.8000;0.9442;1.5181;
62.1000;0.9442;1.5156;
62.4000;0.9418;1.5205;
62.7000;0.9434;1.5254;
63.0000;0.9442;1.5181;
63.3000;0.9426;1.5230;
63.6000;0.9402;1.5156;
63.9000;0.9434;1.5181;
64.2000;0.9434;1.5254;
64.5000;0.9426;1.5230;
64.8000;0.9402;1.5156;
65.1000;0.9418;1.5132;
65.4000;0.9459;1.5181;
65.7000;0.9459;1.5279;
66.0000;0.9451;1.5279;
66.3000;0.9442;1.5279;
66.6000;0.9434;1.5328;
66.9000;0.9442;1.5401;
67.2000;0.9426;1.5377;
67.5000;0.9442;1.5352;
67.8000;0.9434;1.5377;
68.1000;0.9442;1.5426;
68.4000;0.9418;1.5426;
68.7000;0.9402;1.5352;
69.0000;0.9410;1.5352;
69.3000;0.9410;1.5254;
69.6000;0.9418;1.5254;
69.9000;0.9434;1.5254;
70.2000;0.9434;1.5279;
70.5000;0.9434;1.5426;
70.8000;0.9410;1.5426;
71.1000;0.9426;1.5426;
71.4000;0.9434;1.5377;
71.7000;0.9442;1.5450;
72.0000;0.9434;1.5450;
72.3000;0.9426;1.5475;
72.6000;0.9434;1.5548;
72.9000;0.9434;1.5499;
73.2000;0.9442;1.5524;
73.5000;0.9426;1.5475;
73.8000;0.9418;1.5499;
74.1000;0.9434;1.5426;
74.4000;0.9426;1.5499;
74.7000;0.9426;1.5499;
75.0000;0.9451;1.5548;
75.3000;0.9426;1.5499;
75.6000;0.9426;1.5524;
75.9000;0.9459;1.5475;
76.2000;0.9410;1.5450;
76.5000;0.9426;1.5426;
76.8000;0.9426;1.5401;
77.1000;0.9434;1.5450;
77.4000;0.9434;1.5377;
77.7000;0.9442;1.5426;
78.0000;0.9426;1.5352;
78.3000;0.9434;1.5328;
78.6000;0.9426;1.5377;
78.9000;0.9410;1.5401;
79.2000;0.9426;1.5475;
79.5000;0.9434;1.5597;
79.8000;0.9410;1.5621;
80.1000;0.9410;1.5646;
80.4000;0.9442;1.5695;
80.7000;0.9434;1.5670;
81.0000;0.9434;1.5621;
81.3000;0.9418;1.5597;
81.6000;0.9418;1.5646;
81.9000;0.9410;1.5597;
82.2000;0.9426;1.5597;
82.5000;0.9410;1.5572;
82.8000;0.9426;1.5475;
83.1000;0.9434;1.5450;
83.4000;0.9426;1.5352;
83.7000;0.9410;1.5377;
84.0000;0.9377;1.5279;
84.3000;0.9426;1.5352;
84.6000;0.9418;1.5377;
84.9000;0.9459;1.5572;
85.2000;0.9426;1.5450;
85.5000;0.9410;1.5377;
85.8000;0.9434;1.5352;
86.1000;0.9475;1.5377;
86.4000;0.9434;1.5303;
86.7000;0.9426;1.5230;
87.0000;0.9394;1.5205;
87.3000;0.9451;1.5377;
87.6000;0.9402;1.5303;
87.9000;0.9402;1.5279;
88.2000;0.9418;1.5328;
88.5000;0.9426;1.5303;
88.8000;0.9418;1.5303;
89.1000;0.9426;1.5328;
89.4000;0.9410;1.5303;
89.7000;0.9418;1.5254;
90.0000;0.9410;1.5230;
90.3000;0.9410;1.5230;
90.6000;0.9410;1.5230;
90.9000;0.9418;1.5279;
91.2000;0.9402;1.5328;
91.5000;0.9410;1.5352;
91.8000;0.9418;1.5401;
92.1000;0.9402;1.5426;
92.4000;0.9410;1.5475;
92.7000;0.9418;1.5475;
93.0000;0.9377;1.5352;
93.3000;0.9410;1.5475;
93.6000;0.9418;1.5572;
93.9000;0.9418;1.5548;
94.2000;0.9377;1.5426;
94.5000;0.9410;1.5475;
94.8000;0.9418;1.5475;
95.1000;0.9410;1.5450;
95.4000;0.9337;1.5303;
95.7000;0.9426;1.5499;
96.0000;0.9442;1.5499;
96.3000;0.9410;1.5475;
96.6000;0.9410;1.5499;
96.9000;0.9410;1.5401;
97.2000;0.9434;1.5426;
97.5000;0.9418;1.5450;
97.8000;0.9426;1.5475;
98.1000;0.9410;1.5377;
98.4000;0.9426;1.5401;
98.7000;0.9418;1.5352;
99.0000;0.9426;1.5401;
99.3000;0.9418;1.5328;
99.6000;0.9410;1.5352;
99.9000;0.9410;1.5426;
100.2000;0.9361;1.5352;
100.5000;0.9385;1.5401;
100.8000;0.9426;1.5475;
101.1000;0.9418;1.5548;
101.4000;0.9410;1.5499;
101.7000;0.9402;1.5524;
102.0000;0.9418;1.5572;
102.3000;0.9418;1.5548;
102.6000;0.9418;1.5524;
102.9000;0.9377;1.5401;
103.2000;0.9402;1.5426;
103.5000;0.9426;1.5401;
103.8000;0.9434;1.5426;
104.1000;0.9402;1.5328;
104.4000;0.9410;1.5328;
104.7000;0.9426;1.5352;
105.0000;0.9418;1.5426;
105.3000;0.9418;1.5450;
105.6000;0.9418;1.5401;
105.9000;0.9410;1.5352;
106.2000;0.9418;1.5328;
106.5000;0.9418;1.5303;
106.8000;0.9434;1.5328;
107.1000;0.9418;1.5328;
107.4000;0.9426;1.5377;
107.7000;0.9434;1.5401;
108.0000;0.9385;1.5328;
108.3000;0.9426;1.5499;
108.6000;0.9475;1.5670;
108.9000;0.9426;1.5572;
109.2000;0.9410;1.5524;
109.5000;0.9410;1.5524;
109.8000;0.9402;1.5352;
110.1000;0.9418;1.5352;
110.4000;0.9402;1.5377;
110.7000;0.9418;1.5548;
111.0000;0.9410;1.5572;
111.3000;0.9426;1.5548;
111.6000;0.9402;1.5548;
111.9000;0.9385;1.5450;
112.2000;0.9418;1.5450;
112.5000;0.9418;1.5499;
112.8000;0.9426;1.5450;
113.1000;0.9410;1.5352;
113.4000;0.9426;1.5450;
113.7000;0.9434;1.5499;
114.0000;0.9410;1.5450;
114.3000;0.9402;1.5352;
114.6000;0.9361;1.5328;
114.9000;0.9410;1.5499;
115.2000;0.9410;1.5450;
115.5000;0.9418;1.5352;
115.8000;0.9410;1.5279;
116.1000;0.9410;1.5279;
116.4000;0.9410;1.5328;
116.7000;0.9418;1.5328;
117.0000;0.9418;1.5303;
117.3000;0.9402;1.5303;
117.6000;0.9402;1.5328;
117.9000;0.9418;1.5352;
118.2000;0.9402;1.5352;
118.5000;0.9451;1.5475;
118.8000;0.9410;1.5352;
119.1000;0.9402;1.5303;
119.4000;0.9410;1.5303;
119.7000;0.9402;1.5230;
120.0000;0.9434;1.5279;
120.3000;0.9459;1.5426;
120.6000;0.9377;1.5279;
120.9000;0.9402;1.5279;
121.2000;0.9410;1.5377;
121.5000;0.9369;1.5230;
121.8000;0.9410;1.5328;
122.1000;0.9410;1.5279;
122.4000;0.9394;1.5181;
122.7000;0.9394;1.5156;
123.0000;0.9451;1.5279;
123.3000;0.9394;1.5205;
123.6000;0.9394;1.5230;
123.9000;0.9426;1.5303;
124.2000;0.9475;1.5328;
124.5000;0.9394;1.5132;
124.8000;0.9394;1.5132;
125.1000;0.9402;1.5156;
125.4000;0.9402;1.5254;
125.7000;0.9402;1.5254;
126.0000;0.9402;1.5328;
126.3000;0.9394;1.5303;
126.6000;0.9402;1.5303;
126.9000;0.9426;1.5328;
127.2000;0.9377;1.5156;
127.5000;0.9402;1.5181;
127.8000;0.9402;1.5254;
128.1000;0.9402;1.5279;
128.4000;0.9402;1.5205;
128.7000;0.9402;1.5254;
129.0000;0.9402;1.5303;
129.3000;0.9402;1.5279;
129.6000;0.9394;1.5279;
129.9000;0.9385;1.5230;
130.2000;0.9402;1.5254;
130.5000;0.9418;1.5328;
130.8000;0.9410;1.5303;
131.1000;0.9402;1.5254;
131.4000;0.9410;1.5254;
131.7000;0.9418;1.5254;
132.0000;0.9410;1.5230;
132.3000;0.9410;1.5230;
132.6000;0.9410;1.5279;
132.9000;0.9394;1.5279;
133.2000;0.9394;1.5352;
133.5000;0.9402;1.5377;
133.8000;0.9434;1.5450;
134.1000;0.9402;1.5426;
134.4000;0.9410;1.5401;
134.7000;0.9418;1.5352;
135.0000;0.9402;1.5303;
135.3000;0.9402;1.5230;
135.6000;0.9402;1.5254;
135.9000;0.9410;1.5254;
136.2000;0.9394;1.5254;
136.5000;0.9394;1.5230;
136.8000;0.9402;1.5279;
137.1000;0.9410;1.5205;
137.4000;0.9402;1.5279;
137.7000;0.9402;1.5279;
138.0000;0.9410;1.5230;
138.3000;0.9410;1.5303;
138.6000;0.9402;1.5377;
138.9000;0.9402;1.5450;
139.2000;0.9385;1.5401;
139.5000;0.9385;1.5401;
139.8000;0.9402;1.5401;
140.1000;0.9394;1.5426;
140.4000;0.9394;1.5377;
140.7000;0.9402;1.5401;
141.0000;0.9385;1.5377;
141.3000;0.9402;1.5524;
141.6000;0.9394;1.5548;
141.9000;0.9410;1.5695;
142.2000;0.9402;1.5621;
142.5000;0.9402;1.5597;
142.8000;0.9434;1.5646;
143.1000;0.9394;1.5475;
143.4000;0.9402;1.5450;
143.7000;0.9410;1.5499;
144.0000;0.9385;1.5524;
144.3000;0.9402;1.5572;
144.6000;0.9328;1.5426;
144.9000;0.9434;1.5768;
145.2000;0.9385;1.5646;
145.5000;0.9426;1.5719;
145.8000;0.9410;1.5744;
146.1000;0.9385;1.5621;
146.4000;0.9377;1.5621;
146.7000;0.9402;1.5572;
147.0000;0.9410;1.5499;
147.3000;0.9410;1.5499;
147.6000;0.9410;1.5475;
147.9000;0.9402;1.5524;
148.2000;0.9410;1.5475;
148.5000;0.9418;1.5401;
148.8000;0.9394;1.5328;
149.1000;0.9385;1.5303;
149.4000;0.9410;1.5426;
149.7000;0.9402;1.5352;
150.0000;0.9410;1.5352;
150.3000;0.9410;1.5401;
150.6000;0.9394;1.5328;
150.9000;0.9451;1.5572;
151.2000;0.9402;1.5401;
151.5000;0.9394;1.5450;
151.8000;0.9377;1.5401;
152.1000;0.9402;1.5450;
152.4000;0.9394;1.5377;
152.7000;0.9394;1.5303;
153.0000;0.9426;1.5377;
153.3000;0.9394;1.5205;
153.6000;0.9402;1.5156;
153.9000;0.9377;1.5058;
154.2000;0.9394;1.5083;
154.5000;0.9394;1.5181;
154.8000;0.9394;1.5181;
155.1000;0.9394;1.5205;
155.4000;0.9402;1.5205;
155.7000;0.9402;1.5156;
156.0000;0.9459;1.5352;
156.3000;0.9402;1.5181;
156.6000;0.9434;1.5205;
156.9000;0.9402;1.5254;
157.2000;0.9385;1.5181;
157.5000;0.9394;1.5254;
157.8000;0.9385;1.5279;
158.1000;0.9377;1.5279;
158.4000;0.9394;1.5303;
158.7000;0.9402;1.5303;
159.0000;0.9394;1.5181;
159.3000;0.9385;1.5132;
159.6000;0.9385;1.5205;
159.9000;0.9402;1.5205;
160.2000;0.9377;1.5181;
160.5000;0.9377;1.5132;
160.8000;0.9394;1.5156;
161.1000;0.9402;1.5156;
161.4000;0.9377;1.5156;
161.7000;0.9377;1.5205;
162.0000;0.9402;1.5279;
162.3000;0.9394;1.5254;
162.6000;0.9394;1.5205;
162.9000;0.9385;1.5205;
163.2000;0.9402;1.5254;
163.5000;0.9394;1.5181;
163.8000;0.9394;1.5181;
164.1000;0.9385;1.5132;
164.4000;0.9402;1.5205;
164.7000;0.9394;1.5230;
165.0000;0.9402;1.5181;
165.3000;0.9385;1.5156;
165.6000;0.9394;1.5132;
165.9000;0.9402;1.5230;
166.2000;0.9345;1.5156;
166.5000;0.9385;1.5303;
166.8000;0.9394;1.5303;
167.1000;0.9394;1.5426;
167.4000;0.9385;1.5401;
167.7000;0.9369;1.5401;
168.0000;0.9369;1.5377;
168.3000;0.9377;1.5377;
168.6000;0.9377;1.5377;
168.9000;0.9345;1.5352;
169.2000;0.9385;1.5426;
169.5000;0.9377;1.5475;
169.8000;0.9385;1.5572;
170.1000;0.9394;1.5572;
170.4000;0.9410;1.5597;
170.7000;0.9385;1.5548;
171.0000;0.9385;1.5548;
171.3000;0.9385;1.5475;
171.6000;0.9394;1.5524;
171.9000;0.9345;1.5401;
172.2000;0.9377;1.5450;
172.5000;0.9377;1.5426;
172.8000;0.9361;1.5401;
173.1000;0.9377;1.5377;
173.4000;0.9377;1.5328;
173.7000;0.9402;1.5377;
174.0000;0.9394;1.5303;
174.3000;0.9394;1.5303;
174.6000;0.9385;1.5279;
174.9000;0.9394;1.5132;
175.2000;0.9385;1.5083;
175.5000;0.9402;1.5058;
175.8000;0.9385;1.4985;
176.1000;0.9394;1.5009;
176.4000;0.9369;1.5009;
176.7000;0.9402;1.5156;
177.0000;0.9385;1.5156;
177.3000;0.9394;1.5230;
177.6000;0.9394;1.5279;
177.9000;0.9280;1.5083;
178.2000;0.9385;1.5328;
178.5000;0.9394;1.5328;
178.8000;0.9418;1.5401;
179.1000;0.9385;1.5377;
179.4000;0.9402;1.5401;
179.7000;0.9369;1.5230;
180.0000;0.9385;1.5230;
180.3000;0.9377;1.5377;
180.6000;0.9410;1.5377;
180.9000;0.9402;1.5328;
181.2000;0.9377;1.5303;
181.5000;0.9369;1.5254;
181.8000;0.9369;1.5303;
182.1000;0.9369;1.5303;
182.4000;0.9385;1.5328;
182.7000;0.9385;1.5401;
183.0000;0.9385;1.5377;
183.3000;0.9377;1.5426;
183.6000;0.9369;1.5426;
183.9000;0.9369;1.5377;
184.2000;0.9369;1.5426;
184.5000;0.9369;1.5352;
184.8000;0.9369;1.5303;
185.1000;0.9369;1.5303;
185.4000;0.9402;1.5426;
185.7000;0.9385;1.5377;
186.0000;0.9369;1.5328;
186.3000;0.9361;1.5303;
186.6000;0.9377;1.5328;
186.9000;0.9353;1.5230;
187.2000;0.9385;1.5328;
187.5000;0.9394;1.5254;
187.8000;0.9377;1.5230;
188.1000;0.9385;1.5230;
188.4000;0.9377;1.5254;
188.7000;0.9377;1.5205;
189.0000;0.9377;1.5230;
189.3000;0.9385;1.5279;
189.6000;0.9369;1.5279;
189.9000;0.9369;1.5328;
190.2000;0.9377;1.5401;
190.5000;0.9385;1.5377;
190.8000;0.9345;1.5254;
191.1000;0.9369;1.5279;
191.4000;0.9385;1.5303;
191.7000;0.9385;1.5254;
192.0000;0.9377;1.5181;
192.3000;0.9345;1.5107;
192.6000;0.9361;1.5132;
192.9000;0.9353;1.5181;
193.2000;0.9361;1.5205;
193.5000;0.9353;1.5205;
193.8000;0.9353;1.5205;
194.1000;0.9361;1.5181;
194.4000;0.9369;1.5279;
194.7000;0.9361;1.5254;
195.0000;0.9361;1.5279;
195.3000;0.9353;1.5254;
195.6000;0.9377;1.5352;
195.9000;0.9369;1.5401;
196.2000;0.9361;1.5548;
196.5000;0.9361;1.5524;
196.8000;0.9377;1.5426;
197.1000;0.9385;1.5426;
197.4000;0.9361;1.5450;
197.7000;0.9361;1.5475;
198.0000;0.9377;1.5475;
198.3000;0.9369;1.5401;
198.6000;0.9369;1.5377;
198.9000;0.9377;1.5352;
199.2000;0.9361;1.5352;
199.5000;0.9402;1.5401;
199.8000;0.9377;1.5352;
200.1000;0.9369;1.5377;
200.4000;0.9394;1.5426;
200.7000;0.9394;1.5328;
201.0000;0.9369;1.5328;
201.3000;0.9369;1.5328;
201.6000;0.9394;1.5450;
201.9000;0.9459;1.5621;
202.2000;0.9369;1.5401;
202.5000;0.9385;1.5352;
202.8000;0.9377;1.5352;
203.1000;0.9410;1.5475;
203.4000;0.9369;1.5377;
203.7000;0.9369;1.5401;
204.0000;0.9377;1.5450;
204.3000;0.9377;1.5475;
204.6000;0.9385;1.5572;
204.9000;0.9377;1.5426;
205.2000;0.9353;1.5426;
205.5000;0.9385;1.5524;
205.8000;0.9377;1.5426;
206.1000;0.9385;1.5303;
206.4000;0.9369;1.5279;
206.7000;0.9328;1.5205;
207.0000;0.9361;1.5303;
207.3000;0.9394;1.5352;
207.6000;0.9377;1.5328;
207.9000;0.9377;1.5328;
208.2000;0.9320;1.5205;
208.5000;0.9385;1.5352;
208.8000;0.9361;1.5279;
209.1000;0.9361;1.5303;
209.4000;0.9369;1.5401;
209.7000;0.9369;1.5450;
210.0000;0.9369;1.5426;
210.3000;0.9377;1.5377;
210.6000;0.9312;1.5205;
210.9000;0.9361;1.5303;
211.2000;0.9369;1.5352;
211.5000;0.9394;1.5426;
211.8000;0.9369;1.5303;
212.1000;0.9361;1.5303;
212.4000;0.9361;1.5303;
212.7000;0.9418;1.5475;
213.0000;0.9369;1.5401;
213.3000;0.9377;1.5377;
213.6000;0.9402;1.5450;
213.9000;0.9377;1.5377;
214.2000;0.9369;1.5401;
214.5000;0.9369;1.5377;
214.8000;0.9369;1.5426;
215.1000;0.9337;1.5352;
215.4000;0.9361;1.5450;
215.7000;0.9361;1.5572;
216.0000;0.9394;1.5524;
216.3000;0.9361;1.5450;
216.6000;0.9377;1.5499;
216.9000;0.9377;1.5548;
217.2000;0.9369;1.5426;
217.5000;0.9377;1.5401;
217.8000;0.9394;1.5499;
218.1000;0.9385;1.5597;
218.4000;0.9361;1.5524;
218.7000;0.9369;1.5524;
219.0000;0.9377;1.5524;
219.3000;0.9361;1.5426;
219.6000;0.9394;1.5499;
219.9000;0.9418;1.5524;
220.2000;0.9353;1.5377;
220.5000;0.9361;1.5352;
220.8000;0.9361;1.5303;
221.1000;0.9369;1.5254;
221.4000;0.9361;1.5205;
221.7000;0.9353;1.5132;
222.0000;0.9353;1.5156;
222.3000;0.9361;1.5156;
222.6000;0.9377;1.5230;
222.9000;0.9353;1.5205;
223.2000;0.9337;1.5230;
223.5000;0.9369;1.5328;
223.8000;0.9385;1.5401;
224.1000;0.9361;1.5303;
224.4000;0.9353;1.5254;
224.7000;0.9369;1.5279;
225.0000;0.9377;1.5303;
225.3000;0.9377;1.5254;
225.6000;0.9369;1.5279;
225.9000;0.9353;1.5303;
226.2000;0.9369;1.5352;
226.5000;0.9361;1.5475;
226.8000;0.9353;1.5475;
227.1000;0.9353;1.5401;
227.4000;0.9361;1.5377;
227.7000;0.9353;1.5352;
228.0000;0.9361;1.5426;
228.3000;0.9345;1.5352;
228.6000;0.9353;1.5352;
228.9000;0.9337;1.5377;
229.2000;0.9320;1.5328;
229.5000;0.9337;1.5352;
229.8000;0.9402;1.5597;
230.1000;0.9385;1.5524;
230.4000;0.9337;1.5475;
230.7000;0.9402;1.5597;
231.0000;0.9361;1.5524;
231.3000;0.9377;1.5572;
231.6000;0.9361;1.5597;
231.9000;0.9369;1.5695;
232.2000;0.9328;1.5597;
232.5000;0.9361;1.5793;
232.8000;0.9353;1.5719;
233.1000;0.9337;1.5670;
233.4000;0.9361;1.5572;
233.7000;0.9345;1.5548;
234.0000;0.9361;1.5597;
234.3000;0.9345;1.5524;
234.6000;0.9353;1.5450;
234.9000;0.9361;1.5475;
235.2000;0.9353;1.5475;
235.5000;0.9353;1.5426;
235.8000;0.9418;1.5524;
236.1000;0.9353;1.5475;
236.4000;0.9377;1.5524;
236.7000;0.9361;1.5524;
237.0000;0.9345;1.5475;
237.3000;0.9353;1.5426;
237.6000;0.9353;1.5450;
237.9000;0.9328;1.5450;
238.2000;0.9361;1.5572;
238.5000;0.9345;1.5572;
238.8000;0.9353;1.5548;
239.1000;0.9345;1.5524;
239.4000;0.9361;1.5499;
239.7000;0.9337;1.5377;
240.0000;0.9304;1.5205;
240.3000;0.9377;1.5426;
240.6000;0.9361;1.5475;
240.9000;0.9337;1.5352;
241.2000;0.9361;1.5499;
241.5000;0.9369;1.5597;
241.8000;0.9377;1.5524;
242.1000;0.9361;1.5572;
242.4000;0.9345;1.5572;
242.7000;0.9345;1.5499;
243.0000;0.9353;1.5524;
243.3000;0.9312;1.5450;
243.6000;0.9328;1.5524;
243.9000;0.9337;1.5524;
244.2000;0.9328;1.5499;
244.5000;0.9337;1.5524;
244.8000;0.9345;1.5621;
245.1000;0.9402;1.5695;
245.4000;0.9361;1.5597;
245.7000;0.9353;1.5548;
246.0000;0.9328;1.5475;
246.3000;0.9369;1.5499;
246.6000;0.9353;1.5426;
246.9000;0.9353;1.5377;
247.2000;0.9353;1.5524;
247.5000;0.9345;1.5548;
247.8000;0.9337;1.5499;
248.1000;0.9328;1.5475;
248.4000;0.9361;1.5572;
248.7000;0.9353;1.5524;
249.0000;0.9353;1.5597;
249.3000;0.9345;1.5572;
249.6000;0.9345;1.5450;
249.9000;0.9353;1.5426;
250.2000;0.9361;1.5524;
250.5000;0.9353;1.5548;
250.8000;0.9337;1.5450;
251.1000;0.9353;1.5475;
251.4000;0.9361;1.5524;
251.7000;0.9361;1.5475;
252.0000;0.9353;1.5426;
252.3000;0.9345;1.5499;
252.6000;0.9312;1.5352;
252.9000;0.9353;1.5524;
253.2000;0.9353;1.5450;
253.5000;0.9337;1.5426;
253.8000;0.9337;1.5377;
254.1000;0.9361;1.5499;
254.4000;0.9353;1.5597;
254.7000;0.9337;1.5646;
255.0000;0.9345;1.5621;
255.3000;0.9353;1.5572;
255.6000;0.9369;1.5548;
255.9000;0.9280;1.5279;
256.2000;0.9353;1.5548;
256.5000;0.9353;1.5548;
256.8000;0.9369;1.5597;
257.1000;0.9337;1.5499;
257.4000;0.9353;1.5572;
257.7000;0.9345;1.5548;
258.0000;0.9345;1.5548;
258.3000;0.9353;1.5499;
258.6000;0.9345;1.5475;
258.9000;0.9361;1.5450;
259.2000;0.9345;1.5524;
259.5000;0.9361;1.5548;
259.8000;0.9353;1.5524;
260.1000;0.9345;1.5524;
260.4000;0.9377;1.5621;
260.7000;0.9361;1.5621;
261.0000;0.9345;1.5524;
261.3000;0.9345;1.5548;
261.6000;0.9345;1.5548;
261.9000;0.9361;1.5572;
262.2000;0.9353;1.5572;
262.5000;0.9361;1.5548;
262.8000;0.9369;1.5524;
263.1000;0.9353;1.5548;
263.4000;0.9345;1.5524;
263.7000;0.9345;1.5597;
264.0000;0.9345;1.5548;
264.3000;0.9377;1.5621;
264.6000;0.9361;1.5597;
264.9000;0.9304;1.5450;
265.2000;0.9361;1.5597;
265.5000;0.9369;1.5621;
265.8000;0.9361;1.5670;
266.1000;0.9369;1.5695;
266.4000;0.9369;1.5646;
266.7000;0.9353;1.5695;
267.0000;0.9353;1.5670;
267.3000;0.9361;1.5646;
267.6000;0.9353;1.5621;
267.9000;0.9361;1.5597;
268.2000;0.9361;1.5719;
268.5000;0.9353;1.5670;
268.8000;0.9353;1.5695;
269.1000;0.9345;1.5670;
269.4000;0.9361;1.5695;
269.7000;0.9345;1.5621;
270.0000;0.9280;1.5401;
270.3000;0.9337;1.5597;
270.6000;0.9353;1.5670;
270.9000;0.9353;1.5621;
271.2000;0.9361;1.5621;
271.5000;0.9353;1.5572;
271.8000;0.9353;1.5572;
272.1000;0.9328;1.5450;
272.4000;0.9288;1.5328;
272.7000;0.9328;1.5377;
273.0000;0.9377;1.5426;
273.3000;0.9353;1.5377;
273.6000;0.9361;1.5401;
273.9000;0.9353;1.5401;
274.2000;0.9337;1.5426;
274.5000;0.9353;1.5499;
274.8000;0.9361;1.5548;
275.1000;0.9337;1.5450;
275.4000;0.9345;1.5524;
275.7000;0.9353;1.5475;
276.0000;0.9353;1.5499;
276.3000;0.9345;1.5572;
276.6000;0.9361;1.5621;
276.9000;0.9353;1.5597;
277.2000;0.9361;1.5524;
277.5000;0.9361;1.5524;
277.8000;0.9361;1.5524;
278.1000;0.9345;1.5401;
278.4000;0.9353;1.5328;
278.7000;0.9337;1.5352;
279.0000;0.9328;1.5303;
279.3000;0.9337;1.5328;
279.6000;0.9337;1.5377;
279.9000;0.9328;1.5401;
280.2000;0.9337;1.5401;
280.5000;0.9337;1.5328;
280.8000;0.9345;1.5426;
281.1000;0.9337;1.5426;
281.4000;0.9345;1.5524;
281.7000;0.9328;1.5499;
282.0000;0.9345;1.5548;
282.3000;0.9353;1.5548;
282.6000;0.9345;1.5524;
282.9000;0.9345;1.5499;
283.2000;0.9337;1.5499;
283.5000;0.9345;1.5548;
283.8000;0.9361;1.5597;
284.1000;0.9328;1.5475;
284.4000;0.9328;1.5475;
284.7000;0.9328;1.5426;
285.0000;0.9337;1.5499;
285.3000;0.9410;1.5646;
285.6000;0.9320;1.5426;
285.9000;0.9312;1.5450;
286.2000;0.9345;1.5524;
286.5000;0.9320;1.5499;
286.8000;0.9345;1.5499;
287.1000;0.9345;1.5450;
287.4000;0.9312;1.5352;
287.7000;0.9328;1.5401;
288.0000;0.9345;1.5426;
288.3000;0.9328;1.5401;
288.6000;0.9345;1.5475;
288.9000;0.9345;1.5548;
289.2000;0.9312;1.5475;
289.5000;0.9328;1.5548;
289.8000;0.9345;1.5548;
290.1000;0.9337;1.5646;
290.4000;0.9353;1.5670;
290.7000;0.9328;1.5621;
291.0000;0.9353;1.5646;
291.3000;0.9369;1.5670;
291.6000;0.9345;1.5646;
291.9000;0.9337;1.5572;
292.2000;0.9361;1.5621;
292.5000;0.9345;1.5695;
292.8000;0.9345;1.5670;
293.1000;0.9353;1.5621;
293.4000;0.9320;1.5524;
293.7000;0.9337;1.5524;
294.0000;0.9369;1.5621;
294.3000;0.9361;1.5499;
294.6000;0.9345;1.5499;
294.9000;0.9361;1.5499;
295.2000;0.9345;1.5426;
295.5000;0.9369;1.5450;
295.8000;0.9345;1.5450;
296.1000;0.9328;1.5475;
296.4000;0.9337;1.5377;
296.7000;0.9394;1.5475;
297.0000;0.9361;1.5377;
297.3000;0.9385;1.5450;
297.6000;0.9385;1.5450;
297.9000;0.9353;1.5401;
298.2000;0.9385;1.5524;
298.5000;0.9369;1.5548;
298.8000;0.9328;1.5426;
299.1000;0.9328;1.5401;
299.4000;0.9337;1.5328;
299.7000;0.9337;1.5352;
300.0000;0.9337;1.5401;
300.3000;0.9394;1.5548;
300.6000;0.9320;1.5499;
300.9000;0.9328;1.5548;
301.2000;0.9328;1.5548;
301.5000;0.9353;1.5597;
301.8000;0.9337;1.5572;
302.1000;0.9337;1.5597;
302.4000;0.9320;1.5646;
302.7000;0.9353;1.5695;
303.0000;0.9337;1.5524;
303.3000;0.9328;1.5426;
303.6000;0.9353;1.5426;
303.9000;0.9320;1.5377;
304.2000;0.9345;1.5377;
304.5000;0.9337;1.5328;
304.8000;0.9345;1.5279;
305.1000;0.9337;1.5328;
305.4000;0.9353;1.5328;
305.7000;0.9337;1.5303;
306.0000;0.9337;1.5352;
306.3000;0.9345;1.5352;
306.6000;0.9345;1.5377;
306.9000;0.9345;1.5328;
307.2000;0.9402;1.5450;
307.5000;0.9353;1.5279;
307.8000;0.9320;1.5156;
308.1000;0.9337;1.5181;
308.4000;0.9320;1.5156;
308.7000;0.9328;1.5230;
309.0000;0.9312;1.5205;
309.3000;0.9337;1.5352;
309.6000;0.9353;1.5279;
309.9000;0.9271;1.5132;
310.2000;0.9345;1.5303;
310.5000;0.9320;1.5254;
310.8000;0.9337;1.5279;
311.1000;0.9312;1.5254;
311.4000;0.9312;1.5303;
311.7000;0.9345;1.5352;
312.0000;0.9345;1.5377;
312.3000;0.9328;1.5352;
312.6000;0.9320;1.5303;
312.9000;0.9353;1.5328;
313.2000;0.9361;1.5401;
313.5000;0.9328;1.5377;
313.8000;0.9337;1.5401;
314.1000;0.9385;1.5572;
314.4000;0.9312;1.5352;
314.7000;0.9312;1.5352;
315.0000;0.9328;1.5254;
315.3000;0.9345;1.5254;
315.6000;0.9320;1.5181;
315.9000;0.9410;1.5426;
316.2000;0.9320;1.5205;
316.5000;0.9345;1.5352;
316.8000;0.9345;1.5377;
317.1000;0.9337;1.5328;
317.4000;0.9353;1.5377;
317.7000;0.9345;1.5426;
318.0000;0.9345;1.5303;
318.3000;0.9345;1.5328;
318.6000;0.9320;1.5328;
318.9000;0.9312;1.5328;
319.2000;0.9328;1.5377;
319.5000;0.9312;1.5352;
319.8000;0.9320;1.5352;
320.1000;0.9312;1.5230;
320.4000;0.9369;1.5377;
320.7000;0.9353;1.5328;
321.0000;0.9320;1.5230;
321.3000;0.9337;1.5303;
321.6000;0.9320;1.5401;
321.9000;0.9345;1.5426;
322.2000;0.9304;1.5352;
322.5000;0.9280;1.5352;
322.8000;0.9328;1.5450;
323.1000;0.9328;1.5426;
323.4000;0.9320;1.5426;
323.7000;0.9328;1.5426;
324.0000;0.9304;1.5499;
324.3000;0.9320;1.5499;
324.6000;0.9320;1.5499;
324.9000;0.9296;1.5475;
325.2000;0.9377;1.5597;
325.5000;0.9320;1.5450;
325.8000;0.9328;1.5426;
326.1000;0.9328;1.5524;
326.4000;0.9328;1.5475;
326.7000;0.9345;1.5475;
327.0000;0.9345;1.5548;
327.3000;0.9337;1.5548;
327.6000;0.9337;1.5499;
327.9000;0.9328;1.5475;
328.2000;0.9337;1.5450;
328.5000;0.9280;1.5352;
328.8000;0.9328;1.5499;
329.1000;0.9320;1.5572;
329.4000;0.9320;1.5597;
329.7000;0.9312;1.5548;
330.0000;0.9223;1.5303;
330.3000;0.9304;1.5524;
330.6000;0.9328;1.5499;
330.9000;0.9320;1.5377;
331.2000;0.9312;1.5303;
331.5000;0.9263;1.5254;
331.8000;0.9353;1.5475;
332.1000;0.9345;1.5303;
332.4000;0.9312;1.5230;
332.7000;0.9320;1.5279;
333.0000;0.9271;1.5279;
333.3000;0.9312;1.5426;
333.6000;0.9312;1.5426;
333.9000;0.9320;1.5450;
334.2000;0.9312;1.5475;
334.5000;0.9304;1.5426;
334.8000;0.9328;1.5401;
335.1000;0.9312;1.5352;
335.4000;0.9288;1.5254;
335.7000;0.9320;1.5328;
336.0000;0.9320;1.5352;
336.3000;0.9304;1.5401;
336.6000;0.9304;1.5401;
336.9000;0.9320;1.5426;
337.2000;0.9320;1.5475;
337.5000;0.9320;1.5450;
337.8000;0.9320;1.5475;
338.1000;0.9337;1.5475;
338.4000;0.9320;1.5450;
338.7000;0.9304;1.5426;
339.0000;0.9304;1.5426;
339.3000;0.9320;1.5499;
339.6000;0.9304;1.5597;
339.9000;0.9337;1.5572;
340.2000;0.9320;1.5597;
340.5000;0.9288;1.5475;
340.8000;0.9320;1.5524;
341.1000;0.9337;1.5426;
341.4000;0.9304;1.5328;
341.7000;0.9312;1.5377;
342.0000;0.9328;1.5352;
342.3000;0.9328;1.5377;
342.6000;0.9337;1.5401;
342.9000;0.9320;1.5328;
343.2000;0.9296;1.5377;
343.5000;0.9312;1.5401;
343.8000;0.9304;1.5401;
344.1000;0.9320;1.5377;
344.4000;0.9320;1.5450;
344.7000;0.9320;1.5450;
345.0000;0.9320;1.5450;
345.3000;0.9223;1.5230;
345.6000;0.9263;1.5328;
345.9000;0.9312;1.5524;
346.2000;0.9328;1.5524;
346.5000;0.9328;1.5450;
346.8000;0.9304;1.5377;
347.1000;0.9320;1.5401;
347.4000;0.9353;1.5548;
347.7000;0.9369;1.5548;
348.0000;0.9361;1.5548;
348.3000;0.9312;1.5401;
348.6000;0.9328;1.5524;
348.9000;0.9304;1.5499;
349.2000;0.9312;1.5597;
349.5000;0.9312;1.5499;
349.8000;0.9263;1.5401;
350.1000;0.9288;1.5450;
350.4000;0.9288;1.5450;
350.7000;0.9255;1.5328;
351.0000;0.9320;1.5450;
351.3000;0.9312;1.5426;
351.6000;0.9328;1.5352;
351.9000;0.9312;1.5254;
352.2000;0.9345;1.5352;
352.5000;0.9345;1.5328;
352.8000;0.9312;1.5156;
353.1000;0.9312;1.5181;
353.4000;0.9312;1.5107;
353.7000;0.9296;1.5034;
354.0000;0.9296;1.4985;
354.3000;0.9304;1.4985;
354.6000;0.9288;1.4985;
354.9000;0.9328;1.5009;
355.2000;0.9328;1.5083;
355.5000;0.9304;1.4985;
355.8000;0.9312;1.4985;
356.1000;0.9304;1.5009;
356.4000;0.9304;1.4985;
356.7000;0.9304;1.4985;
357.0000;0.9304;1.4960;
357.3000;0.9304;1.4862;
357.6000;0.9328;1.5009;
357.9000;0.9320;1.4985;
358.2000;0.9304;1.4936;
358.5000;0.9312;1.4985;
358.8000;0.9304;1.5083;
359.1000;0.9328;1.5132;
359.4000;0.9304;1.5058;
359.7000;0.9304;1.5107;
360.0000;0.9296;1.5058;
360.3000;0.9304;1.5034;
360.6000;0.9304;1.5058;
360.9000;0.9312;1.5058;
361.2000;0.9304;1.5034;
361.5000;0.9328;1.5058;
361.8000;0.9296;1.5058;
362.1000;0.9296;1.5034;
362.4000;0.9312;1.4985;
362.7000;0.9320;1.4936;
363.0000;0.9320;1.5034;
363.3000;0.9288;1.5034;
363.6000;0.9320;1.5205;
363.9000;0.9280;1.5181;
364.2000;0.9328;1.5303;
364.5000;0.9312;1.5230;
364.8000;0.9320;1.5254;
365.1000;0.9328;1.5377;
365.4000;0.9263;1.5401;
365.7000;0.9312;1.5499;
366.0000;0.9288;1.5377;
366.3000;0.9320;1.5450;
366.6000;0.9320;1.5499;
366.9000;0.9239;1.5303;
367.2000;0.9296;1.5401;
367.5000;0.9296;1.5303;
367.8000;0.9304;1.5328;
368.1000;0.9385;1.5450;
368.4000;0.9312;1.5254;
368.7000;0.9280;1.5254;
369.0000;0.9328;1.5328;
369.3000;0.9337;1.5279;
369.6000;0.9320;1.5230;
369.9000;0.9312;1.5303;
370.2000;0.9304;1.5230;
370.5000;0.9312;1.5254;
370.8000;0.9304;1.5303;
371.1000;0.9304;1.5352;
371.4000;0.9304;1.5401;
371.7000;0.9312;1.5450;
372.0000;0.9304;1.5426;
372.3000;0.9304;1.5475;
372.6000;0.9296;1.5475;
372.9000;0.9377;1.5719;
373.2000;0.9304;1.5548;
373.5000;0.9304;1.5548;
373.8000;0.9312;1.5524;
374.1000;0.9312;1.5475;
374.4000;0.9296;1.5401;
374.7000;0.9328;1.5352;
375.0000;0.9304;1.5377;
375.3000;0.9304;1.5352;
375.6000;0.9320;1.5401;
375.9000;0.9328;1.5401;
376.2000;0.9288;1.5279;
376.5000;0.9328;1.5279;
376.8000;0.9312;1.5205;
377.1000;0.9296;1.5156;
377.4000;0.9320;1.5205;
377.7000;0.9312;1.5205;
378.0000;0.9320;1.5254;
378.3000;0.9328;1.5279;
378.6000;0.9312;1.5328;
378.9000;0.9304;1.5328;
379.2000;0.9312;1.5401;
379.5000;0.9320;1.5499;
379.8000;0.9312;1.5524;
380.1000;0.9312;1.5450;
380.4000;0.9312;1.5524;
380.7000;0.9312;1.5475;
381.0000;0.9304;1.5450;
381.3000;0.9312;1.5450;
381.6000;0.9304;1.5377;
381.9000;0.9288;1.5328;
382.2000;0.9304;1.5205;
382.5000;0.9288;1.5156;
382.8000;0.9296;1.5181;
383.1000;0.9304;1.5156;
383.4000;0.9312;1.5254;
383.7000;0.9304;1.5279;
384.0000;0.9337;1.5328;
384.3000;0.9296;1.5254;
384.6000;0.9320;1.5230;
384.9000;0.9312;1.5205;
385.2000;0.9280;1.5279;
385.5000;0.9296;1.5328;
385.8000;0.9320;1.5401;
386.1000;0.9304;1.5426;
386.4000;0.9296;1.5303;
386.7000;0.9328;1.5303;
387.0000;0.9288;1.5254;
387.3000;0.9304;1.5377;
387.6000;0.9247;1.5181;
387.9000;0.9320;1.5352;
388.2000;0.9312;1.5279;
388.5000;0.9353;1.5303;
388.8000;0.9304;1.5205;
389.1000;0.9328;1.5279;
389.4000;0.9280;1.5279;
389.7000;0.9263;1.5279;
390.0000;0.9288;1.5303;
390.3000;0.9296;1.5254;
390.6000;0.9304;1.5303;
390.9000;0.9320;1.5254;
391.2000;0.9312;1.5279;
391.5000;0.9288;1.5352;
391.8000;0.9304;1.5450;
392.1000;0.9304;1.5426;
392.4000;0.9345;1.5475;
392.7000;0.9304;1.5328;
393.0000;0.9288;1.5377;
393.3000;0.9304;1.5401;
393.6000;0.9320;1.5401;
393.9000;0.9296;1.5303;
394.2000;0.9304;1.5328;
394.5000;0.9312;1.5328;
394.8000;0.9288;1.5303;
395.1000;0.9296;1.5303;
395.4000;0.9312;1.5279;
395.7000;0.9312;1.5303;
396.0000;0.9304;1.5279;
396.3000;0.9312;1.5352;
396.6000;0.9312;1.5303;
396.9000;0.9320;1.5279;
397.2000;0.9312;1.5254;
397.5000;0.9304;1.5279;
397.8000;0.9296;1.5303;
398.1000;0.9296;1.5303;
398.4000;0.9304;1.5279;
398.7000;0.9280;1.5254;
399.0000;0.9280;1.5205;
399.3000;0.9328;1.5401;
399.6000;0.9312;1.5401;
399.9000;0.9320;1.5401;
400.2000;0.9304;1.5230;
400.5000;0.9304;1.5181;
400.8000;0.9280;1.5034;
401.1000;0.9304;1.5107;
401.4000;0.9304;1.5181;
401.7000;0.9296;1.5254;
402.0000;0.9304;1.5328;
402.3000;0.9296;1.5254;
402.6000;0.9304;1.5205;
402.9000;0.9312;1.5230;
403.2000;0.9288;1.5230;
403.5000;0.9296;1.5205;
403.8000;0.9353;1.5279;
404.1000;0.9288;1.5107;
404.4000;0.9312;1.5205;
404.7000;0.9304;1.5279;
405.0000;0.9385;1.5450;
405.3000;0.9271;1.5181;
405.6000;0.9288;1.5254;
405.9000;0.9288;1.5328;
406.2000;0.9304;1.5303;
406.5000;0.9296;1.5181;
406.8000;0.9296;1.5156;
407.1000;0.9296;1.5107;
407.4000;0.9296;1.5181;
407.7000;0.9296;1.5205;
408.0000;0.9296;1.5230;
408.3000;0.9288;1.5156;
408.6000;0.9304;1.5132;
408.9000;0.9304;1.5132;
409.2000;0.9296;1.5205;
409.5000;0.9304;1.5279;
409.8000;0.9304;1.5303;
410.1000;0.9312;1.5254;
410.4000;0.9312;1.5254;
410.7000;0.9288;1.5181;
411.0000;0.9280;1.5230;
411.3000;0.9304;1.5254;
411.6000;0.9320;1.5254;
411.9000;0.9328;1.5254;
412.2000;0.9296;1.5254;
412.5000;0.9304;1.5328;
412.8000;0.9304;1.5303;
413.1000;0.9296;1.5328;
413.4000;0.9255;1.5181;
413.7000;0.9320;1.5328;
414.0000;0.9280;1.5254;
414.3000;0.9288;1.5303;
414.6000;0.9288;1.5352;
414.9000;0.9304;1.5450;
415.2000;0.9304;1.5426;
415.5000;0.9288;1.5328;
415.8000;0.9288;1.5254;
416.1000;0.9320;1.5377;
416.4000;0.9296;1.5352;
416.7000;0.9320;1.5401;
417.0000;0.9288;1.5352;
417.3000;0.9296;1.5352;
417.6000;0.9312;1.5352;
417.9000;0.9263;1.5230;
418.2000;0.9288;1.5377;
418.5000;0.9296;1.5401;
418.8000;0.9296;1.5426;
419.1000;0.9312;1.5352;
419.4000;0.9304;1.5377;
419.7000;0.9304;1.5328;
420.0000;0.9304;1.5352;
420.3000;0.9304;1.5377;
420.6000;0.9304;1.5377;
420.9000;0.9288;1.5303;
421.2000;0.9296;1.5279;
421.5000;0.9288;1.5254;
421.8000;0.9271;1.5230;
422.1000;0.9280;1.5254;
422.4000;0.9288;1.5254;
422.7000;0.9288;1.5303;
423.0000;0.9288;1.5279;
423.3000;0.9288;1.5254;
423.6000;0.9296;1.5230;
423.9000;0.9288;1.5034;
424.2000;0.9312;1.5132;
424.5000;0.9304;1.5181;
424.8000;0.9280;1.5156;
425.1000;0.9296;1.5254;
425.4000;0.9288;1.5230;
425.7000;0.9288;1.5230;
426.0000;0.9296;1.5205;
426.3000;0.9296;1.5254;
426.6000;0.9280;1.5377;
426.9000;0.9280;1.5426;
427.2000;0.9271;1.5401;
427.5000;0.9288;1.5377;
427.8000;0.9296;1.5401;
428.1000;0.9304;1.5328;
428.4000;0.9288;1.5328;
428.7000;0.9280;1.5279;
429.0000;0.9296;1.5279;
429.3000;0.9296;1.5426;
429.6000;0.9288;1.5352;
429.9000;0.9271;1.5279;
430.2000;0.9288;1.5279;
430.5000;0.9280;1.5279;
430.8000;0.9304;1.5352;
431.1000;0.9288;1.5303;
431.4000;0.9280;1.5205;
431.7000;0.9271;1.5156;
432.0000;0.9271;1.5205;
432.3000;0.9271;1.5181;
432.6000;0.9288;1.5254;
432.9000;0.9296;1.5254;
433.2000;0.9296;1.5181;
433.5000;0.9288;1.5181;
433.8000;0.9280;1.5205;
434.1000;0.9280;1.5132;
434.4000;0.9296;1.5230;
434.7000;0.9280;1.5205;
435.0000;0.9288;1.5279;
435.3000;0.9320;1.5328;
435.6000;0.9288;1.5230;
435.9000;0.9296;1.5230;
436.2000;0.9296;1.5205;
436.5000;0.9304;1.5181;
436.8000;0.9271;1.5107;
437.1000;0.9280;1.5034;
437.4000;0.9280;1.5009;
437.7000;0.9280;1.4985;
438.0000;0.9312;1.5083;
438.3000;0.9288;1.5009;
438.6000;0.9247;1.5034;
438.9000;0.9280;1.5009;
439.2000;0.9296;1.5034;
439.5000;0.9288;1.5034;
439.8000;0.9288;1.5107;
440.1000;0.9280;1.5230;
440.4000;0.9280;1.5279;
440.7000;0.9361;1.5401;
441.0000;0.9296;1.5181;
441.3000;0.9271;1.5132;
441.6000;0.9271;1.5205;
441.9000;0.9304;1.5254;
442.2000;0.9312;1.5328;
442.5000;0.9263;1.5083;
442.8000;0.9271;1.5132;
443.1000;0.9280;1.5156;
443.4000;0.9280;1.5181;
443.7000;0.9263;1.5205;
444.0000;0.9288;1.5205;
444.3000;0.9296;1.5205;
444.6000;0.9296;1.5254;
444.9000;0.9304;1.5230;
445.2000;0.9304;1.5181;
445.5000;0.9288;1.5205;
445.8000;0.9288;1.5230;
446.1000;0.9345;1.5401;
446.4000;0.9337;1.5279;
446.7000;0.9296;1.5328;
447.0000;0.9296;1.5377;
447.3000;0.9288;1.5377;
447.6000;0.9288;1.5352;
447.9000;0.9280;1.5303;
448.2000;0.9280;1.5352;
448.5000;0.9288;1.5352;
448.8000;0.9271;1.5328;
449.1000;0.9288;1.5303;
449.4000;0.9288;1.5279;
449.7000;0.9288;1.5254;
450.0000;0.9288;1.5230;
450.3000;0.9280;1.5230;
450.6000;0.9296;1.5279;
450.9000;0.9271;1.5279;
451.2000;0.9271;1.5254;
451.5000;0.9353;1.5499;
451.8000;0.9280;1.5303;
452.1000;0.9304;1.5303;
452.4000;0.9304;1.5352;
452.7000;0.9288;1.5303;
453.0000;0.9337;1.5475;
453.3000;0.9320;1.5524;
453.6000;0.9280;1.5426;
453.9000;0.9280;1.5450;
454.2000;0.9280;1.5475;
454.5000;0.9288;1.5401;
454.8000;0.9296;1.5426;
455.1000;0.9280;1.5475;
455.4000;0.9271;1.5475;
455.7000;0.9288;1.5499;
456.0000;0.9280;1.5450;
456.3000;0.9280;1.5377;
456.6000;0.9296;1.5401;
456.9000;0.9296;1.5401;
457.2000;0.9280;1.5377;
457.5000;0.9271;1.5328;
457.8000;0.9255;1.5205;
458.1000;0.9288;1.5254;
458.4000;0.9280;1.5279;
458.7000;0.9263;1.5230;
459.0000;0.9320;1.5475;
459.3000;0.9271;1.5352;
459.6000;0.9271;1.5426;
459.9000;0.9288;1.5499;
460.2000;0.9280;1.5377;
460.5000;0.9255;1.5254;
460.8000;0.9296;1.5426;
461.1000;0.9271;1.5328;
461.4000;0.9288;1.5230;
461.7000;0.9296;1.5230;
462.0000;0.9280;1.5132;
462.3000;0.9280;1.5230;
462.6000;0.9312;1.5328;
462.9000;0.9271;1.5352;
463.2000;0.9271;1.5401;
463.5000;0.9288;1.5426;
463.8000;0.9353;1.5597;
464.1000;0.9271;1.5426;
464.4000;0.9271;1.5475;
464.7000;0.9255;1.5450;
465.0000;0.9280;1.5499;
465.3000;0.9280;1.5499;
465.6000;0.9263;1.5499;
465.9000;0.9255;1.5572;
466.2000;0.9296;1.5572;
466.5000;0.9271;1.5475;
466.8000;0.9280;1.5475;
467.1000;0.9271;1.5450;
467.4000;0.9280;1.5352;
467.7000;0.9280;1.5279;
468.0000;0.9255;1.5205;
468.3000;0.9280;1.5254;
468.6000;0.9280;1.5254;
468.9000;0.9263;1.5279;
469.2000;0.9271;1.5328;
469.5000;0.9263;1.5426;
469.8000;0.9280;1.5450;
470.1000;0.9312;1.5499;
470.4000;0.9271;1.5377;
470.7000;0.9271;1.5450;
471.0000;0.9288;1.5450;
471.3000;0.9288;1.5426;
471.6000;0.9271;1.5352;
471.9000;0.9271;1.5303;
472.2000;0.9280;1.5230;
472.5000;0.9280;1.5230;
472.8000;0.9271;1.5279;
473.1000;0.9271;1.5230;
473.4000;0.9271;1.5279;
473.7000;0.9304;1.5303;
474.0000;0.9255;1.5230;
474.3000;0.9263;1.5205;
474.6000;0.9288;1.5254;
474.9000;0.9271;1.5254;
475.2000;0.9280;1.5303;
475.5000;0.9271;1.5254;
475.8000;0.9304;1.5279;
476.1000;0.9271;1.5303;
476.4000;0.9280;1.5352;
476.7000;0.9345;1.5475;
477.0000;0.9271;1.5303;
477.3000;0.9263;1.5279;
477.6000;0.9271;1.5328;
477.9000;0.9271;1.5328;
478.2000;0.9263;1.5352;
478.5000;0.9271;1.5401;
478.8000;0.9263;1.5401;
479.1000;0.9280;1.5328;
479.4000;0.9255;1.5328;
479.7000;0.9288;1.5401;
480.0000;0.9280;1.5377;
480.3000;0.9280;1.5426;
480.6000;0.9214;1.5254;
480.9000;0.9255;1.5328;
481.2000;0.9280;1.5426;
481.5000;0.9271;1.5450;
481.8000;0.9271;1.5377;
482.1000;0.9271;1.5377;
482.4000;0.9263;1.5426;
482.7000;0.9239;1.5401;
483.0000;0.9288;1.5475;
483.3000;0.9223;1.5303;
483.6000;0.9263;1.5377;
483.9000;0.9271;1.5401;
484.2000;0.9280;1.5401;
484.5000;0.9271;1.5352;
484.8000;0.9247;1.5279;
485.1000;0.9280;1.5205;
485.4000;0.9263;1.5181;
485.7000;0.9304;1.5328;
486.0000;0.9255;1.5230;
486.3000;0.9271;1.5303;
486.6000;0.9280;1.5328;
486.9000;0.9271;1.5303;
487.2000;0.9271;1.5401;
487.5000;0.9271;1.5450;
487.8000;0.9304;1.5499;
488.1000;0.9288;1.5548;
488.4000;0.9223;1.5426;
488.7000;0.9263;1.5450;
489.0000;0.9263;1.5450;
489.3000;0.9271;1.5524;
489.6000;0.9271;1.5499;
489.9000;0.9231;1.5426;
490.2000;0.9263;1.5524;
490.5000;0.9271;1.5524;
490.8000;0.9288;1.5499;
491.1000;0.9263;1.5450;
491.4000;0.9271;1.5475;
491.7000;0.9271;1.5450;
492.0000;0.9263;1.5524;
492.3000;0.9280;1.5499;
492.6000;0.9280;1.5499;
492.9000;0.9288;1.5426;
493.2000;0.9280;1.5426;
493.5000;0.9255;1.5401;
493.8000;0.9255;1.5401;
494.1000;0.9271;1.5450;
494.4000;0.9280;1.5450;
494.7000;0.9280;1.5303;
495.0000;0.9255;1.5230;
495.3000;0.9271;1.5279;
495.6000;0.9255;1.5303;
495.9000;0.9263;1.5303;
496.2000;0.9255;1.5328;
496.5000;0.9280;1.5303;
496.8000;0.9296;1.5352;
497.1000;0.9263;1.5328;
497.4000;0.9271;1.5328;
497.7000;0.9280;1.5328;
498.0000;0.9280;1.5377;
498.3000;0.9361;1.5524;
498.6000;0.9255;1.5181;
498.9000;0.9239;1.5156;
499.2000;0.9263;1.5254;
499.5000;0.9271;1.5205;
499.8000;0.9255;1.5279;
500.1000;0.9255;1.5303;
500.4000;0.9263;1.5303;
500.7000;0.9288;1.5377;
501.0000;0.9271;1.5352;
501.3000;0.9280;1.5328;
501.6000;0.9288;1.5352;
501.9000;0.9280;1.5352;
502.2000;0.9247;1.5230;
502.5000;0.9263;1.5426;
502.8000;0.9263;1.5401;
503.1000;0.9271;1.5426;
503.4000;0.9255;1.5401;
503.7000;0.9247;1.5377;
504.0000;0.9255;1.5426;
504.3000;0.9271;1.5426;
504.6000;0.9288;1.5499;
504.9000;0.9271;1.5377;
505.2000;0.9271;1.5352;
505.5000;0.9288;1.5401;
505.8000;0.9255;1.5352;
506.1000;0.9271;1.5377;
506.4000;0.9296;1.5352;
506.7000;0.9280;1.5254;
507.0000;0.9288;1.5279;
507.3000;0.9263;1.5254;
507.6000;0.9247;1.5279;
507.9000;0.9271;1.5352;
508.2000;0.9271;1.5377;
508.5000;0.9280;1.5426;
508.8000;0.9247;1.5303;
509.1000;0.9247;1.5279;
509.4000;0.9263;1.5328;
509.7000;0.9239;1.5279;
510.0000;0.9263;1.5377;
510.3000;0.9271;1.5303;
510.6000;0.9280;1.5377;
510.9000;0.9263;1.5401;
511.2000;0.9255;1.5401;
511.5000;0.9247;1.5377;
511.8000;0.9263;1.5401;
512.1000;0.9206;1.5279;
512.4000;0.9214;1.5230;
512.7000;0.9255;1.5279;
513.0000;0.9263;1.5279;
513.3000;0.9231;1.5230;
513.6000;0.9255;1.5254;
513.9000;0.9247;1.5205;
514.2000;0.9255;1.5156;
514.5000;0.9263;1.5254;
514.8000;0.9296;1.5279;
515.1000;0.9263;1.5205;
515.4000;0.9255;1.5156;
515.7000;0.9263;1.5181;
516.0000;0.9271;1.5279;
516.3000;0.9280;1.5352;
516.6000;0.9255;1.5377;
516.9000;0.9296;1.5450;
517.2000;0.9288;1.5303;
517.5000;0.9271;1.5303;
517.8000;0.9271;1.5352;
518.1000;0.9271;1.5279;
518.4000;0.9280;1.5401;
518.7000;0.9263;1.5401;
519.0000;0.9263;1.5475;
519.3000;0.9247;1.5352;
519.6000;0.9263;1.5401;
519.9000;0.9263;1.5377;
520.2000;0.9263;1.5328;
520.5000;0.9255;1.5254;
520.8000;0.9239;1.5279;
521.1000;0.9280;1.5401;
521.4000;0.9247;1.5377;
521.7000;0.9263;1.5401;
522.0000;0.9247;1.5303;
522.3000;0.9255;1.5352;
522.6000;0.9198;1.5181;
522.9000;0.9255;1.5328;
523.2000;0.9255;1.5377;
523.5000;0.9271;1.5352;
523.8000;0.9271;1.5352;
524.1000;0.9288;1.5401;
524.4000;0.9231;1.5303;
524.7000;0.9255;1.5377;
525.0000;0.9247;1.5352;
525.3000;0.9271;1.5328;
525.6000;0.9255;1.5254;
525.9000;0.9247;1.5279;
526.2000;0.9239;1.5303;
526.5000;0.9255;1.5328;
526.8000;0.9247;1.5254;
527.1000;0.9247;1.5279;
527.4000;0.9263;1.5377;
527.7000;0.9263;1.5352;
528.0000;0.9263;1.5401;
528.3000;0.9296;1.5475;
528.6000;0.9263;1.5377;
528.9000;0.9255;1.5328;
529.2000;0.9271;1.5377;
529.5000;0.9263;1.5328;
529.8000;0.9263;1.5303;
530.1000;0.9263;1.5352;
530.4000;0.9271;1.5377;
530.7000;0.9255;1.5401;
531.0000;0.9255;1.5377;
531.3000;0.9337;1.5475;
531.6000;0.9271;1.5303;
531.9000;0.9231;1.5205;
532.2000;0.9280;1.5230;
532.5000;0.9271;1.5181;
532.8000;0.9255;1.5132;
533.1000;0.9255;1.5205;
533.4000;0.9255;1.5230;
533.7000;0.9247;1.5230;
534.0000;0.9271;1.5401;
534.3000;0.9263;1.5377;
534.6000;0.9255;1.5328;
534.9000;0.9263;1.5401;
535.2000;0.9288;1.5524;
535.5000;0.9247;1.5450;
535.8000;0.9288;1.5548;
536.1000;0.9239;1.5475;
536.4000;0.9255;1.5475;
536.7000;0.9255;1.5401;
537.0000;0.9247;1.5401;
537.3000;0.9255;1.5426;
537.6000;0.9247;1.5401;
537.9000;0.9247;1.5328;
538.2000;0.9255;1.5254;
538.5000;0.9263;1.5230;
538.8000;0.9263;1.5205;
539.1000;0.9263;1.5205;
539.4000;0.9214;1.5181;
539.7000;0.9239;1.5303;
540.0000;0.9255;1.5377;
540.3000;0.9239;1.5401;
540.6000;0.9247;1.5450;
540.9000;0.9263;1.5450;
541.2000;0.9296;1.5475;
541.5000;0.9271;1.5426;
541.8000;0.9304;1.5499;
542.1000;0.9280;1.5450;
542.4000;0.9255;1.5426;
542.7000;0.9263;1.5377;
543.0000;0.9263;1.5352;
543.3000;0.9280;1.5352;
543.6000;0.9247;1.5328;
543.9000;0.9263;1.5401;
544.2000;0.9263;1.5426;
544.5000;0.9255;1.5303;
544.8000;0.9255;1.5303;
545.1000;0.9263;1.5328;
545.4000;0.9255;1.5254;
545.7000;0.9255;1.5279;
546.0000;0.9263;1.5328;
546.3000;0.9280;1.5352;
546.6000;0.9214;1.5156;
546.9000;0.9239;1.5181;
547.2000;0.9239;1.5205;
547.5000;0.9255;1.5230;
547.8000;0.9271;1.5254;
548.1000;0.9255;1.5205;
548.4000;0.9255;1.5181;
548.7000;0.9247;1.5205;
549.0000;0.9239;1.5181;
549.3000;0.9271;1.5303;
549.6000;0.9231;1.5254;
549.9000;0.9239;1.5254;
550.2000;0.9247;1.5279;
550.5000;0.9263;1.5352;
550.8000;0.9247;1.5377;
551.1000;0.9247;1.5377;
551.4000;0.9263;1.5450;
551.7000;0.9255;1.5426;
552.0000;0.9255;1.5450;
552.3000;0.9263;1.5499;
552.6000;0.9271;1.5572;
552.9000;0.9263;1.5499;
553.2000;0.9255;1.5401;
553.5000;0.9255;1.5426;
553.8000;0.9247;1.5426;
554.1000;0.9337;1.5621;
554.4000;0.9263;1.5426;
554.7000;0.9247;1.5352;
555.0000;0.9247;1.5377;
555.3000;0.9247;1.5279;
555.6000;0.9280;1.5303;
555.9000;0.9247;1.5205;
556.2000;0.9247;1.5230;
556.5000;0.9231;1.5230;
556.8000;0.9263;1.5230;
557.1000;0.9247;1.5205;
557.4000;0.9263;1.5352;
557.7000;0.9247;1.5352;
558.0000;0.9255;1.5303;
558.3000;0.9255;1.5328;
558.6000;0.9255;1.5352;
558.9000;0.9255;1.5279;
559.2000;0.9263;1.5279;
559.5000;0.9255;1.5205;
559.8000;0.9255;1.5083;
560.1000;0.9231;1.5083;
560.4000;0.9255;1.5181;
560.7000;0.9263;1.5205;
561.0000;0.9247;1.5303;
561.3000;0.9255;1.5303;
561.6000;0.9247;1.5279;
561.9000;0.9247;1.5328;
562.2000;0.9247;1.5303;
562.5000;0.9239;1.5279;
562.8000;0.9247;1.5303;
563.1000;0.9255;1.5279;
563.4000;0.9263;1.5205;
563.7000;0.9247;1.5156;
564.0000;0.9271;1.5230;
564.3000;0.9247;1.5181;
564.6000;0.9255;1.5230;
564.9000;0.9247;1.5254;
565.2000;0.9255;1.5254;
565.5000;0.9247;1.5303;
565.8000;0.9247;1.5230;
566.1000;0.9247;1.5230;
566.4000;0.9247;1.5205;
566.7000;0.9247;1.5205;
567.0000;0.9247;1.5156;
567.3000;0.9255;1.5083;
567.6000;0.9214;1.4985;
567.9000;0.9214;1.5132;
568.2000;0.9223;1.5132;
568.5000;0.9239;1.5107;
568.8000;0.9239;1.5107;
569.1000;0.9223;1.5156;
569.4000;0.9239;1.5156;
569.7000;0.9247;1.5230;
570.0000;0.9239;1.5181;
570.3000;0.9231;1.5254;
570.6000;0.9255;1.5328;
570.9000;0.9255;1.5328;
571.2000;0.9231;1.5328;
571.5000;0.9231;1.5328;
571.8000;0.9231;1.5352;
572.1000;0.9247;1.5426;
572.4000;0.9239;1.5303;
572.7000;0.9231;1.5279;
573.0000;0.9231;1.5254;
573.3000;0.9247;1.5254;
573.6000;0.9239;1.5230;
573.9000;0.9239;1.5230;
574.2000;0.9255;1.5205;
574.5000;0.9239;1.5156;
574.8000;0.9271;1.5254;
575.1000;0.9239;1.5205;
575.4000;0.9247;1.5181;
575.7000;0.9239;1.5205;
576.0000;0.9231;1.5205;
576.3000;0.9239;1.5230;
576.6000;0.9255;1.5205;
576.9000;0.9263;1.5279;
577.2000;0.9255;1.5401;
577.5000;0.9255;1.5352;
577.8000;0.9214;1.5254;
578.1000;0.9296;1.5303;
578.4000;0.9280;1.5254;
578.7000;0.9198;1.5083;
579.0000;0.9223;1.5156;
579.3000;0.9247;1.5156;
579.6000;0.9247;1.5254;
579.9000;0.9231;1.5303;
580.2000;0.9239;1.5254;
580.5000;0.9223;1.5279;
580.8000;0.9271;1.5426;
581.1000;0.9231;1.5254;
581.4000;0.9239;1.5279;
581.7000;0.9231;1.5205;
582.0000;0.9223;1.5230;
582.3000;0.9231;1.5303;
582.6000;0.9239;1.5254;
582.9000;0.9223;1.5254;
583.2000;0.9223;1.5279;
583.5000;0.9255;1.5328;
583.8000;0.9223;1.5254;
584.1000;0.9239;1.5205;
584.4000;0.9231;1.5254;
584.7000;0.9247;1.5328;
585.0000;0.9247;1.5352;
585.3000;0.9239;1.5352;
585.6000;0.9231;1.5352;
585.9000;0.9247;1.5426;
586.2000;0.9239;1.5352;
586.5000;0.9239;1.5352;
586.8000;0.9255;1.5450;
587.1000;0.9231;1.5450;
587.4000;0.9247;1.5475;
587.7000;0.9247;1.5499;
588.0000;0.9223;1.5377;
588.3000;0.9255;1.5426;
588.6000;0.9239;1.5524;
588.9000;0.9247;1.5572;
589.2000;0.9239;1.5572;
589.5000;0.9247;1.5646;
589.8000;0.9271;1.5597;
590.1000;0.9247;1.5524;
590.4000;0.9239;1.5303;
590.7000;0.9231;1.5303;
591.0000;0.9223;1.5230;
591.3000;0.9255;1.5230;
591.6000;0.9214;1.5181;
591.9000;0.9231;1.5230;
592.2000;0.9231;1.5303;
592.5000;0.9174;1.5156;
592.8000;0.9239;1.5328;
593.1000;0.9214;1.5303;
593.4000;0.9231;1.5303;
593.7000;0.9247;1.5352;
594.0000;0.9239;1.5303;
594.3000;0.9239;1.5205;
594.6000;0.9255;1.5254;
594.9000;0.9239;1.5279;
595.2000;0.9255;1.5352;
595.5000;0.9312;1.5499;
595.8000;0.9247;1.5377;
596.1000;0.9239;1.5426;
596.4000;0.9247;1.5499;
596.7000;0.9239;1.5401;
597.0000;0.9231;1.5426;
597.3000;0.9255;1.5475;
597.6000;0.9280;1.5524;
597.9000;0.9247;1.5426;
598.2000;0.9231;1.5279;
598.5000;0.9247;1.5279;
598.8000;0.9231;1.5205;
599.1000;0.9239;1.5205;
599.4000;0.9182;1.5009;
599.7000;0.9231;1.5205;
600.0000;0.9223;1.5156;
600.3000;0.9239;1.5083;
600.6000;0.9312;1.5230;
600.9000;0.9174;1.4838;
601.2000;0.9125;1.4716;
601.5000;0.9052;1.4520;
601.8000;0.8978;1.4348;
602.1000;0.8946;1.4250;
602.4000;0.8799;1.3932;
602.7000;0.8767;1.3956;
603.0000;0.8694;1.3834;
603.3000;0.8620;1.3565;
603.6000;0.8563;1.3344;
603.9000;0.8514;1.3246;
604.2000;0.8482;1.3173;
604.5000;0.8376;1.2904;
604.8000;0.8344;1.2855;
605.1000;0.8295;1.2781;
605.4000;0.8262;1.2732;
605.7000;0.8189;1.2536;
606.0000;0.8164;1.2561;
606.3000;0.8107;1.2536;
606.6000;0.8075;1.2536;
606.9000;0.8026;1.2512;
607.2000;0.8034;1.2634;
607.5000;0.7969;1.2512;
607.8000;0.7945;1.2610;
608.1000;0.7977;1.2879;
608.4000;0.7847;1.2610;
608.7000;0.7806;1.2561;
609.0000;0.7774;1.2463;
609.3000;0.7757;1.2414;
609.6000;0.7709;1.2340;
609.9000;0.7709;1.2365;
610.2000;0.7660;1.2316;
610.5000;0.7652;1.2340;
610.8000;0.7595;1.2218;
611.1000;0.7627;1.2340;
611.4000;0.7554;1.2218;
611.7000;0.7513;1.2120;
612.0000;0.7440;1.1998;
612.3000;0.7473;1.2096;
612.6000;0.7456;1.2120;
612.9000;0.7416;1.2145;
613.2000;0.7383;1.2047;
613.5000;0.7342;1.2022;
613.8000;0.7277;1.1851;
614.1000;0.7310;1.1998;
614.4000;0.7302;1.1949;
614.7000;0.7261;1.1949;
615.0000;0.7171;1.1777;
615.3000;0.7220;1.1924;
615.6000;0.7236;1.1998;
615.9000;0.7179;1.1802;
616.2000;0.7147;1.1826;
616.5000;0.7131;1.1777;
616.8000;0.7139;1.1826;
617.1000;0.7074;1.1728;
617.4000;0.7098;1.1826;
617.7000;0.7057;1.1704;
618.0000;0.7025;1.1728;
618.3000;0.6992;1.1655;
618.6000;0.6976;1.1704;
618.9000;0.7000;1.1777;
619.2000;0.6968;1.1679;
619.5000;0.6935;1.1630;
619.8000;0.6943;1.1630;
620.1000;0.6886;1.1581;
620.4000;0.6895;1.1630;
620.7000;0.6911;1.1728;
621.0000;0.6960;1.1900;
621.3000;0.6846;1.1581;
621.6000;0.6870;1.1704;
621.9000;0.6838;1.1655;
622.2000;0.6829;1.1606;
622.5000;0.6813;1.1532;
622.8000;0.6789;1.1655;
623.1000;0.6797;1.1704;
623.4000;0.6748;1.1630;
623.7000;0.6724;1.1655;
624.0000;0.6748;1.1704;
624.3000;0.6675;1.1606;
624.6000;0.6716;1.1679;
624.9000;0.6707;1.1679;
625.2000;0.6699;1.1704;
625.5000;0.6683;1.1728;
625.8000;0.6667;1.1630;
626.1000;0.6667;1.1581;
626.4000;0.6650;1.1557;
626.7000;0.6618;1.1606;
627.0000;0.6642;1.1753;
627.3000;0.6618;1.1606;
627.6000;0.6585;1.1581;
627.9000;0.6585;1.1630;
628.2000;0.6561;1.1606;
628.5000;0.6561;1.1557;
628.8000;0.6545;1.1532;
629.1000;0.6520;1.1508;
629.4000;0.6536;1.1655;
629.7000;0.6512;1.1581;
630.0000;0.6520;1.1630;
630.3000;0.6439;1.1386;
630.6000;0.6479;1.1630;
630.9000;0.6479;1.1606;
631.2000;0.6382;1.1312;
631.5000;0.6455;1.1532;
631.8000;0.6455;1.1581;
632.1000;0.6439;1.1630;
632.4000;0.6431;1.1655;
632.7000;0.6422;1.1606;
633.0000;0.6422;1.1655;
633.3000;0.6382;1.1581;
633.6000;0.6390;1.1630;
633.9000;0.6382;1.1508;
634.2000;0.6382;1.1606;
634.5000;0.6325;1.1410;
634.8000;0.6374;1.1557;
635.1000;0.6382;1.1606;
635.4000;0.6357;1.1581;
635.7000;0.6349;1.1532;
636.0000;0.6365;1.1581;
636.3000;0.6317;1.1410;
636.6000;0.6325;1.1483;
636.9000;0.6243;1.1337;
637.2000;0.6309;1.1557;
637.5000;0.6292;1.1532;
637.8000;0.6300;1.1532;
638.1000;0.6268;1.1435;
638.4000;0.6284;1.1483;
638.7000;0.6268;1.1532;
639.0000;0.6252;1.1581;
639.3000;0.6243;1.1532;
639.6000;0.6235;1.1557;
639.9000;0.6243;1.1581;
640.2000;0.6227;1.1532;
640.5000;0.6235;1.1532;
640.8000;0.6203;1.1532;
641.1000;0.6211;1.1532;
641.4000;0.6211;1.1508;
641.7000;0.6195;1.1459;
642.0000;0.6203;1.1508;
642.3000;0.6170;1.1459;
642.6000;0.6170;1.1435;
642.9000;0.6154;1.1410;
643.2000;0.6138;1.1361;
643.5000;0.6154;1.1361;
643.8000;0.6138;1.1337;
644.1000;0.6138;1.1361;
644.4000;0.6138;1.1288;
644.7000;0.6138;1.1263;
645.0000;0.6129;1.1239;
645.3000;0.6138;1.1239;
645.6000;0.6129;1.1239;
645.9000;0.6129;1.1239;
646.2000;0.6105;1.1239;
646.5000;0.6138;1.1361;
646.8000;0.6072;1.1190;
647.1000;0.6105;1.1337;
647.4000;0.6154;1.1483;
647.7000;0.6089;1.1386;
648.0000;0.6089;1.1386;
648.3000;0.6048;1.1337;
648.6000;0.6072;1.1312;
648.9000;0.6056;1.1214;
649.2000;0.6048;1.1288;
649.5000;0.6072;1.1337;
649.8000;0.6064;1.1386;
650.1000;0.6081;1.1361;
650.4000;0.6032;1.1337;
650.7000;0.6007;1.1239;
651.0000;0.6032;1.1263;
651.3000;0.6024;1.1239;
651.6000;0.6015;1.1141;
651.9000;0.5983;1.1239;
652.2000;0.5950;1.1214;
652.5000;0.5999;1.1410;
652.8000;0.6007;1.1410;
653.1000;0.5950;1.1165;
653.4000;0.6048;1.1483;
653.7000;0.5975;1.1312;
654.0000;0.5991;1.1386;
654.3000;0.5975;1.1337;
654.6000;0.5983;1.1337;
654.9000;0.5983;1.1361;
655.2000;0.5967;1.1337;
655.5000;0.5975;1.1361;
655.8000;0.5958;1.1410;
656.1000;0.5967;1.1459;
656.4000;0.5958;1.1483;
656.7000;0.5950;1.1483;
657.0000;0.5942;1.1483;
657.3000;0.5950;1.1532;
657.6000;0.5942;1.1483;
657.9000;0.5926;1.1508;
658.2000;0.5926;1.1532;
658.5000;0.5902;1.1532;
658.8000;0.5902;1.1557;
659.1000;0.5926;1.1581;
659.4000;0.5926;1.1581;
659.7000;0.5918;1.1581;
660.0000;0.5902;1.1606;
660.3000;0.5893;1.1508;
660.6000;0.5893;1.1459;
660.9000;0.5902;1.1459;
661.2000;0.5918;1.1581;
661.5000;0.5845;1.1410;
661.8000;0.5877;1.1532;
662.1000;0.5877;1.1532;
662.4000;0.5885;1.1483;
662.7000;0.5869;1.1581;
663.0000;0.5861;1.1606;
663.3000;0.5853;1.1581;
663.6000;0.5861;1.1508;
663.9000;0.5869;1.1532;
664.2000;0.5845;1.1532;
664.5000;0.5845;1.1606;
664.8000;0.5836;1.1557;
665.1000;0.5853;1.1581;
665.4000;0.5845;1.1557;
665.7000;0.5836;1.1581;
666.0000;0.5812;1.1532;
666.3000;0.5845;1.1630;
666.6000;0.5836;1.1508;
666.9000;0.5820;1.1483;
667.2000;0.5812;1.1483;
667.5000;0.5820;1.1410;
667.8000;0.5796;1.1435;
668.1000;0.5796;1.1483;
668.4000;0.5812;1.1459;
668.7000;0.5804;1.1435;
669.0000;0.5812;1.1435;
669.3000;0.5804;1.1435;
669.6000;0.5796;1.1435;
669.9000;0.5885;1.1753;
670.2000;0.5788;1.1508;
670.5000;0.5788;1.1557;
670.8000;0.5779;1.1581;
671.1000;0.5796;1.1606;
671.4000;0.5771;1.1630;
671.7000;0.5788;1.1777;
672.0000;0.5722;1.1655;
672.3000;0.5771;1.1728;
672.6000;0.5771;1.1704;
672.9000;0.5763;1.1679;
673.2000;0.5788;1.1728;
673.5000;0.5755;1.1655;
673.8000;0.5747;1.1655;
674.1000;0.5731;1.1630;
674.4000;0.5747;1.1655;
674.7000;0.5739;1.1630;
675.0000;0.5747;1.1655;
675.3000;0.5747;1.1630;
675.6000;0.5747;1.1679;
675.9000;0.5682;1.1508;
676.2000;0.5779;1.1826;
676.5000;0.5722;1.1753;
676.8000;0.5747;1.1851;
677.1000;0.5739;1.1900;
677.4000;0.5747;1.1924;
677.7000;0.5731;1.1826;
678.0000;0.5714;1.1753;
678.3000;0.5722;1.1777;
678.6000;0.5714;1.1704;
678.9000;0.5722;1.1753;
679.2000;0.5706;1.1753;
679.5000;0.5714;1.1679;
679.8000;0.5714;1.1606;
680.1000;0.5698;1.1532;
680.4000;0.5739;1.1532;
680.7000;0.5706;1.1581;
681.0000;0.5714;1.1508;
681.3000;0.5690;1.1483;
681.6000;0.5714;1.1557;
681.9000;0.5706;1.1435;
682.2000;0.5706;1.1361;
682.5000;0.5698;1.1337;
682.8000;0.5682;1.1361;
683.1000;0.5682;1.1337;
683.4000;0.5674;1.1337;
683.7000;0.5682;1.1386;
684.0000;0.5674;1.1410;
684.3000;0.5690;1.1557;
684.6000;0.5682;1.1557;
684.9000;0.5674;1.1630;
685.2000;0.5649;1.1532;
685.5000;0.5665;1.1459;
685.8000;0.5657;1.1483;
686.1000;0.5657;1.1581;
686.4000;0.5633;1.1557;
686.7000;0.5625;1.1606;
687.0000;0.5698;1.1728;
687.3000;0.5649;1.1581;
687.6000;0.5657;1.1532;
687.9000;0.5641;1.1459;
688.2000;0.5657;1.1459;
688.5000;0.5625;1.1337;
688.8000;0.5617;1.1263;
689.1000;0.5633;1.1239;
689.4000;0.5641;1.1312;
689.7000;0.5649;1.1312;
690.0000;0.5625;1.1214;
690.3000;0.5641;1.1263;
690.6000;0.5641;1.1288;
690.9000;0.5641;1.1361;
691.2000;0.5592;1.1190;
691.5000;0.5608;1.1239;
691.8000;0.5633;1.1288;
692.1000;0.5625;1.1361;
692.4000;0.5633;1.1532;
692.7000;0.5665;1.1606;
693.0000;0.5625;1.1532;
693.3000;0.5617;1.1532;
693.6000;0.5592;1.1410;
693.9000;0.5617;1.1386;
694.2000;0.5625;1.1459;
694.5000;0.5608;1.1410;
694.8000;0.5608;1.1337;
695.1000;0.5551;1.1239;
695.4000;0.5617;1.1435;
695.7000;0.5560;1.1361;
696.0000;0.5633;1.1606;
696.3000;0.5600;1.1508;
696.6000;0.5600;1.1508;
696.9000;0.5608;1.1532;
697.2000;0.5600;1.1508;
697.5000;0.5592;1.1557;
697.8000;0.5560;1.1483;
698.1000;0.5584;1.1459;
698.4000;0.5600;1.1459;
698.7000;0.5592;1.1459;
699.0000;0.5576;1.1459;
699.3000;0.5633;1.1606;
699.6000;0.5576;1.1410;
699.9000;0.5576;1.1459;
700.2000;0.5584;1.1532;
700.5000;0.5576;1.1630;
700.8000;0.5576;1.1704;
701.1000;0.5584;1.1679;
701.4000;0.5568;1.1679;
701.7000;0.5551;1.1606;
702.0000;0.5560;1.1630;
702.3000;0.5576;1.1655;
702.6000;0.5568;1.1532;
702.9000;0.5560;1.1630;
703.2000;0.5568;1.1728;
703.5000;0.5560;1.1777;
703.8000;0.5551;1.1802;
704.1000;0.5560;1.1777;
704.4000;0.5551;1.1802;
704.7000;0.5543;1.1728;
705.0000;0.5543;1.1753;
705.3000;0.5560;1.1704;
705.6000;0.5543;1.1704;
705.9000;0.5543;1.1728;
706.2000;0.5543;1.1851;
706.5000;0.5617;1.2047;
706.8000;0.5551;1.1851;
707.1000;0.5511;1.1728;
707.4000;0.5535;1.1777;
707.7000;0.5543;1.1704;
708.0000;0.5535;1.1630;
708.3000;0.5543;1.1581;
708.6000;0.5543;1.1679;
708.9000;0.5535;1.1704;
709.2000;0.5527;1.1704;
709.5000;0.5527;1.1704;
709.8000;0.5543;1.1728;
710.1000;0.5527;1.1679;
710.4000;0.5527;1.1655;
710.7000;0.5527;1.1630;
711.0000;0.5535;1.1630;
711.3000;0.5543;1.1704;
711.6000;0.5527;1.1728;
711.9000;0.5527;1.1802;
712.2000;0.5527;1.1753;
712.5000;0.5527;1.1826;
712.8000;0.5527;1.1753;
713.1000;0.5503;1.1753;
713.4000;0.5535;1.1802;
713.7000;0.5519;1.1728;
714.0000;0.5495;1.1728;
714.3000;0.5535;1.1777;
714.6000;0.5519;1.1679;
714.9000;0.5527;1.1777;
715.2000;0.5511;1.1704;
715.5000;0.5495;1.1679;
715.8000;0.5503;1.1655;
716.1000;0.5486;1.1606;
716.4000;0.5519;1.1655;
716.7000;0.5495;1.1532;
717.0000;0.5503;1.1508;
717.3000;0.5535;1.1630;
717.6000;0.5503;1.1630;
717.9000;0.5503;1.1704;
718.2000;0.5503;1.1728;
718.5000;0.5486;1.1753;
718.8000;0.5511;1.1802;
719.1000;0.5495;1.1704;
719.4000;0.5495;1.1679;
719.7000;0.5527;1.1802;
720.0000;0.5495;1.1704;
720.3000;0.5495;1.1704;
720.6000;0.5486;1.1655;
720.9000;0.5470;1.1679;
721.2000;0.5486;1.1655;
721.5000;0.5495;1.1655;
721.8000;0.5438;1.1557;
722.1000;0.5486;1.1679;
722.4000;0.5478;1.1655;
722.7000;0.5486;1.1777;
723.0000;0.5478;1.1777;
723.3000;0.5446;1.1704;
723.6000;0.5486;1.1777;
723.9000;0.5486;1.1802;
724.2000;0.5470;1.1802;
724.5000;0.5470;1.1753;
724.8000;0.5470;1.1728;
725.1000;0.5462;1.1753;
725.4000;0.5462;1.1728;
725.7000;0.5462;1.1826;
726.0000;0.5462;1.1826;
726.3000;0.5478;1.1900;
726.6000;0.5478;1.1900;
726.9000;0.5462;1.1924;
727.2000;0.5462;1.1924;
727.5000;0.5462;1.1949;
727.8000;0.5470;1.1924;
728.1000;0.5454;1.1851;
728.4000;0.5462;1.1949;
728.7000;0.5446;1.1875;
729.0000;0.5446;1.1900;
729.3000;0.5454;1.1900;
729.6000;0.5429;1.1777;
729.9000;0.5438;1.1704;
730.2000;0.5446;1.1704;
730.5000;0.5470;1.1777;
730.8000;0.5446;1.1679;
731.1000;0.5429;1.1630;
731.4000;0.5446;1.1704;
731.7000;0.5413;1.1728;
732.0000;0.5438;1.1728;
732.3000;0.5429;1.1753;
732.6000;0.5470;1.1875;
732.9000;0.5454;1.1826;
733.2000;0.5438;1.1826;
733.5000;0.5438;1.1875;
733.8000;0.5438;1.1924;
734.1000;0.5397;1.1851;
734.4000;0.5429;1.1924;
734.7000;0.5438;1.1973;
735.0000;0.5421;1.1973;
735.3000;0.5462;1.2096;
735.6000;0.5429;1.2022;
735.9000;0.5421;1.2047;
736.2000;0.5421;1.2047;
736.5000;0.5429;1.2022;
736.8000;0.5446;1.1949;
737.1000;0.5421;1.1875;
737.4000;0.5413;1.1924;
737.7000;0.5413;1.1875;
738.0000;0.5438;1.1998;
738.3000;0.5454;1.1998;
738.6000;0.5413;1.1949;
738.9000;0.5429;1.1900;
739.2000;0.5421;1.1875;
739.5000;0.5429;1.1900;
739.8000;0.5429;1.1826;
740.1000;0.5421;1.1777;
740.4000;0.5421;1.1900;
740.7000;0.5421;1.1900;
741.0000;0.5397;1.1802;
741.3000;0.5389;1.1900;
741.6000;0.5413;1.2022;
741.9000;0.5421;1.2022;
742.2000;0.5389;1.1973;
742.5000;0.5405;1.1924;
742.8000;0.5413;1.1900;
743.1000;0.5421;1.1949;
743.4000;0.5397;1.1949;
743.7000;0.5397;1.1900;
744.0000;0.5413;1.1949;
744.3000;0.5405;1.1900;
744.6000;0.5405;1.1875;
744.9000;0.5356;1.1606;
745.2000;0.5413;1.1826;
745.5000;0.5397;1.1875;
745.8000;0.5405;1.1949;
746.1000;0.5405;1.1900;
746.4000;0.5429;1.2022;
746.7000;0.5405;1.1973;
747.0000;0.5413;1.2047;
747.3000;0.5397;1.1949;
747.6000;0.5381;1.1826;
747.9000;0.5397;1.1802;
748.2000;0.5405;1.1802;
748.5000;0.5389;1.1728;
748.8000;0.5381;1.1802;
749.1000;0.5372;1.1875;
749.4000;0.5405;1.1973;
749.7000;0.5397;1.2022;
750.0000;0.5389;1.1900;
750.3000;0.5381;1.1851;
750.6000;0.5364;1.1851;
750.9000;0.5397;1.1900;
751.2000;0.5356;1.1949;
751.5000;0.5389;1.1973;
751.8000;0.5405;1.1949;
752.1000;0.5372;1.1998;
752.4000;0.5405;1.2071;
752.7000;0.5397;1.2096;
753.0000;0.5389;1.2120;
753.3000;0.5397;1.2071;
753.6000;0.5332;1.1851;
753.9000;0.5381;1.1924;
754.2000;0.5389;1.1949;
754.5000;0.5356;1.1949;
754.8000;0.5381;1.1998;
755.1000;0.5397;1.1973;
755.4000;0.5356;1.1777;
755.7000;0.5372;1.1826;
756.0000;0.5389;1.1826;
756.3000;0.5381;1.1753;
756.6000;0.5381;1.1704;
756.9000;0.5389;1.1777;
757.2000;0.5381;1.1802;
757.5000;0.5372;1.1802;
757.8000;0.5372;1.1826;
758.1000;0.5421;1.1949;
758.4000;0.5372;1.1924;
758.7000;0.5364;1.1875;
759.0000;0.5372;1.1973;
759.3000;0.5381;1.2022;
759.6000;0.5372;1.1949;
759.9000;0.5364;1.1949;
760.2000;0.5381;1.1924;
760.5000;0.5364;1.1924;
760.8000;0.5381;1.1924;
761.1000;0.5413;1.1949;
761.4000;0.5372;1.1875;
761.7000;0.5381;1.1875;
762.0000;0.5381;1.1851;
762.3000;0.5372;1.1777;
762.6000;0.5372;1.1826;
762.9000;0.5372;1.1826;
763.2000;0.5364;1.1802;
763.5000;0.5397;1.1875;
763.8000;0.5397;1.1777;
764.1000;0.5372;1.1777;
764.4000;0.5364;1.1826;
764.7000;0.5364;1.1826;
765.0000;0.5364;1.1973;
765.3000;0.5381;1.1973;
765.6000;0.5356;1.1998;
765.9000;0.5364;1.1998;
766.2000;0.5372;1.2047;
766.5000;0.5348;1.2022;
766.8000;0.5356;1.1949;
767.1000;0.5405;1.1973;
767.4000;0.5389;1.1875;
767.7000;0.5364;1.1753;
768.0000;0.5356;1.1728;
768.3000;0.5372;1.1851;
768.6000;0.5364;1.1924;
768.9000;0.5364;1.1924;
769.2000;0.5348;1.1900;
769.5000;0.5348;1.1826;
769.8000;0.5348;1.1851;
770.1000;0.5364;1.1900;
770.4000;0.5356;1.1900;
770.7000;0.5372;1.1949;
771.0000;0.5348;1.1949;
771.3000;0.5348;1.1973;
771.6000;0.5348;1.1924;
771.9000;0.5348;1.1949;
772.2000;0.5348;1.2022;
772.5000;0.5340;1.1998;
772.8000;0.5348;1.1998;
773.1000;0.5348;1.2022;
773.4000;0.5340;1.1900;
773.7000;0.5348;1.1924;
774.0000;0.5340;1.1924;
774.3000;0.5332;1.1998;
774.6000;0.5340;1.2071;
774.9000;0.5356;1.2071;
775.2000;0.5332;1.2071;
775.5000;0.5340;1.2022;
775.8000;0.5324;1.1900;
776.1000;0.5356;1.1998;
776.4000;0.5332;1.1924;
776.7000;0.5267;1.1777;
777.0000;0.5324;1.2022;
777.3000;0.5332;1.1998;
777.6000;0.5315;1.1924;
777.9000;0.5332;1.1900;
778.2000;0.5332;1.1851;
778.5000;0.5348;1.1851;
778.8000;0.5340;1.1875;
779.1000;0.5307;1.1753;
779.4000;0.5315;1.1777;
779.7000;0.5315;1.1826;
780.0000;0.5332;1.1924;
780.3000;0.5332;1.1900;
780.6000;0.5340;1.1900;
780.9000;0.5372;1.1998;
781.2000;0.5340;1.1851;
781.5000;0.5332;1.1851;
781.8000;0.5389;1.1924;
782.1000;0.5340;1.1802;
782.4000;0.5332;1.1802;
782.7000;0.5340;1.1900;
783.0000;0.5324;1.1924;
783.3000;0.5332;1.1900;
783.6000;0.5332;1.1973;
783.9000;0.5348;1.2047;
784.2000;0.5275;1.1851;
784.5000;0.5307;1.1924;
784.8000;0.5324;1.1924;
785.1000;0.5324;1.1998;
785.4000;0.5324;1.2047;
785.7000;0.5315;1.2047;
786.0000;0.5324;1.1973;
786.3000;0.5315;1.1924;
786.6000;0.5267;1.1802;
786.9000;0.5324;1.1949;
787.2000;0.5364;1.2047;
787.5000;0.5340;1.1998;
787.8000;0.5356;1.2120;
788.1000;0.5332;1.2096;
788.4000;0.5315;1.2022;
788.7000;0.5340;1.2022;
789.0000;0.5332;1.1998;
789.3000;0.5307;1.1973;
789.6000;0.5299;1.1949;
789.9000;0.5315;1.1900;
790.2000;0.5324;1.1998;
790.5000;0.5332;1.1973;
790.8000;0.5324;1.1998;
791.1000;0.5299;1.1949;
791.4000;0.5291;1.1973;
791.7000;0.5315;1.2145;
792.0000;0.5307;1.2145;
792.3000;0.5315;1.2096;
792.6000;0.5307;1.2047;
792.9000;0.5307;1.1998;
793.2000;0.5315;1.2022;
793.5000;0.5299;1.1998;
793.8000;0.5315;1.2071;
794.1000;0.5315;1.2047;
794.4000;0.5307;1.2022;
794.7000;0.5315;1.1998;
795.0000;0.5324;1.1973;
795.3000;0.5291;1.1949;
795.6000;0.5324;1.1949;
795.9000;0.5307;1.1973;
796.2000;0.5299;1.1924;
796.5000;0.5315;1.1924;
796.8000;0.5324;1.1875;
797.1000;0.5315;1.1924;
797.4000;0.5299;1.1924;
797.7000;0.5291;1.1973;
798.0000;0.5307;1.1998;
798.3000;0.5307;1.1973;
798.6000;0.5307;1.1924;
798.9000;0.5299;1.1851;
799.2000;0.5324;1.1924;
799.5000;0.5307;1.1900;
799.8000;0.5283;1.1851;
800.1000;0.5307;1.1949;
800.4000;0.5299;1.1973;
800.7000;0.5307;1.2022;
801.0000;0.5291;1.2022;
801.3000;0.5275;1.2047;
801.6000;0.5299;1.2071;
801.9000;0.5283;1.2096;
802.2000;0.5275;1.2096;
802.5000;0.5291;1.2096;
802.8000;0.5291;1.2022;
803.1000;0.5283;1.1924;
803.4000;0.5275;1.1973;
803.7000;0.5291;1.2022;
804.0000;0.5291;1.2071;
804.3000;0.5307;1.2096;
804.6000;0.5299;1.2145;
804.9000;0.5283;1.2194;
805.2000;0.5283;1.2169;
805.5000;0.5283;1.2120;
805.8000;0.5283;1.2047;
806.1000;0.5283;1.2022;
806.4000;0.5275;1.2047;
806.7000;0.5291;1.2022;
807.0000;0.5283;1.1924;
807.3000;0.5291;1.1875;
807.6000;0.5291;1.1924;
807.9000;0.5307;1.1973;
808.2000;0.5283;1.1875;
808.5000;0.5299;1.1875;
808.8000;0.5283;1.1851;
809.1000;0.5291;1.1802;
809.4000;0.5307;1.1924;
809.7000;0.5332;1.1998;
810.0000;0.5299;1.1924;
810.3000;0.5291;1.1949;
810.6000;0.5307;1.2047;
810.9000;0.5291;1.1998;
811.2000;0.5275;1.1998;
811.5000;0.5275;1.2047;
811.8000;0.5332;1.2218;
812.1000;0.5299;1.2120;
812.4000;0.5275;1.2071;
812.7000;0.5234;1.1924;
813.0000;0.5299;1.2096;
813.3000;0.5291;1.2096;
813.6000;0.5291;1.2047;
813.9000;0.5283;1.2047;
814.2000;0.5291;1.1949;
814.5000;0.5283;1.1949;
814.8000;0.5315;1.2071;
815.1000;0.5283;1.1998;
815.4000;0.5275;1.2096;
815.7000;0.5275;1.2145;
816.0000;0.5283;1.2145;
816.3000;0.5283;1.2145;
816.6000;0.5275;1.2145;
816.9000;0.5283;1.2145;
817.2000;0.5283;1.2120;
817.5000;0.5283;1.2096;
817.8000;0.5275;1.1998;
818.1000;0.5283;1.2022;
818.4000;0.5275;1.2047;
818.7000;0.5291;1.2071;
819.0000;0.5291;1.2194;
819.3000;0.5267;1.2120;
819.6000;0.5299;1.2120;
819.9000;0.5283;1.2022;
820.2000;0.5267;1.2022;
820.5000;0.5258;1.2022;
820.8000;0.5299;1.2047;
821.1000;0.5275;1.2071;
821.4000;0.5242;1.1998;
821.7000;0.5307;1.2096;
822.0000;0.5291;1.2120;
822.3000;0.5267;1.1998;
822.6000;0.5242;1.1924;
822.9000;0.5250;1.1924;
823.2000;0.5258;1.1949;
823.5000;0.5275;1.1900;
823.8000;0.5258;1.1851;
824.1000;0.5267;1.1826;
824.4000;0.5283;1.1900;
824.7000;0.5283;1.1900;
825.0000;0.5283;1.1851;
825.3000;0.5291;1.1851;
825.6000;0.5275;1.1802;
825.9000;0.5291;1.1802;
826.2000;0.5267;1.1802;
826.5000;0.5267;1.1851;
826.8000;0.5258;1.1826;
827.1000;0.5275;1.1777;
827.4000;0.5267;1.1753;
827.7000;0.5267;1.1753;
828.0000;0.5275;1.1679;
828.3000;0.5258;1.1679;
828.6000;0.5275;1.1704;
828.9000;0.5291;1.1728;
829.2000;0.5267;1.1630;
829.5000;0.5267;1.1753;
829.8000;0.5283;1.1826;
830.1000;0.5299;1.1900;
830.4000;0.5258;1.1851;
830.7000;0.5267;1.1875;
831.0000;0.5348;1.2071;
831.3000;0.5283;1.1851;
831.6000;0.5258;1.1826;
831.9000;0.5258;1.1802;
832.2000;0.5267;1.1826;
832.5000;0.5218;1.1728;
832.8000;0.5242;1.1802;
833.1000;0.5250;1.1826;
833.4000;0.5291;1.2071;
833.7000;0.5242;1.1924;
834.0000;0.5267;1.2022;
834.3000;0.5258;1.1973;
834.6000;0.5258;1.1973;
834.9000;0.5258;1.1900;
835.2000;0.5275;1.1924;
835.5000;0.5267;1.1924;
835.8000;0.5226;1.1826;
836.1000;0.5258;1.1949;
836.4000;0.5258;1.1900;
836.7000;0.5267;1.1924;
837.0000;0.5242;1.1900;
837.3000;0.5324;1.2194;
837.6000;0.5275;1.1973;
837.9000;0.5226;1.1900;
838.2000;0.5242;1.1973;
838.5000;0.5258;1.2022;
838.8000;0.5275;1.2047;
839.1000;0.5267;1.2022;
839.4000;0.5283;1.2047;
839.7000;0.5250;1.2047;
840.0000;0.5258;1.2120;
840.3000;0.5234;1.1998;
840.6000;0.5258;1.2071;
840.9000;0.5258;1.2047;
841.2000;0.5250;1.2047;
841.5000;0.5250;1.2096;
841.8000;0.5250;1.2047;
842.1000;0.5250;1.2096;
842.4000;0.5258;1.2120;
842.7000;0.5234;1.2022;
843.0000;0.5267;1.2145;
843.3000;0.5242;1.2169;
843.6000;0.5250;1.2169;
843.9000;0.5242;1.2071;
844.2000;0.5258;1.2047;
844.5000;0.5234;1.1949;
844.8000;0.5250;1.2047;
845.1000;0.5267;1.2120;
845.4000;0.5267;1.2071;
845.7000;0.5258;1.2096;
846.0000;0.5275;1.2169;
846.3000;0.5258;1.2194;
846.6000;0.5250;1.2194;
846.9000;0.5250;1.2194;
847.2000;0.5234;1.2169;
847.5000;0.5250;1.2145;
847.8000;0.5258;1.2120;
848.1000;0.5242;1.2047;
848.4000;0.5242;1.2022;
848.7000;0.5242;1.1973;
849.0000;0.5250;1.1973;
849.3000;0.5250;1.1900;
849.6000;0.5258;1.1875;
849.9000;0.5250;1.1851;
850.2000;0.5258;1.1802;
850.5000;0.5258;1.1826;
850.8000;0.5275;1.1802;
851.1000;0.5258;1.1924;
851.4000;0.5250;1.1998;
851.7000;0.5258;1.1924;
852.0000;0.5234;1.1924;
852.3000;0.5242;1.2022;
852.6000;0.5234;1.2145;
852.9000;0.5250;1.2194;
853.2000;0.5234;1.2071;
853.5000;0.5234;1.2071;
853.8000;0.5258;1.2169;
854.1000;0.5218;1.2022;
854.4000;0.5250;1.2120;
854.7000;0.5234;1.2120;
855.0000;0.5234;1.2145;
855.3000;0.5234;1.2096;
855.6000;0.5234;1.1998;
855.9000;0.5234;1.2047;
856.2000;0.5250;1.2071;
856.5000;0.5250;1.2096;
856.8000;0.5267;1.2047;
857.1000;0.5242;1.1924;
857.4000;0.5234;1.1802;
857.7000;0.5242;1.1826;
858.0000;0.5234;1.1826;
858.3000;0.5242;1.1875;
858.6000;0.5250;1.1900;
858.9000;0.5218;1.1826;
859.2000;0.5242;1.1826;
859.5000;0.5250;1.1802;
859.8000;0.5250;1.1704;
860.1000;0.5218;1.1704;
860.4000;0.5210;1.1753;
860.7000;0.5283;1.1900;
861.0000;0.5242;1.1900;
861.3000;0.5218;1.1851;
861.6000;0.5218;1.1728;
861.9000;0.5242;1.1826;
862.2000;0.5210;1.1777;
862.5000;0.5242;1.1900;
862.8000;0.5267;1.1924;
863.1000;0.5242;1.1875;
863.4000;0.5226;1.1802;
863.7000;0.5234;1.1826;
864.0000;0.5267;1.1949;
864.3000;0.5234;1.1973;
864.6000;0.5242;1.1924;
864.9000;0.5226;1.1826;
865.2000;0.5234;1.1851;
865.5000;0.5234;1.1875;
865.8000;0.5242;1.1900;
866.1000;0.5242;1.1949;
866.4000;0.5242;1.1924;
866.7000;0.5250;1.1851;
867.0000;0.5234;1.1875;
867.3000;0.5242;1.1949;
867.6000;0.5234;1.1924;
867.9000;0.5307;1.2145;
868.2000;0.5242;1.1851;
868.5000;0.5218;1.1802;
868.8000;0.5226;1.1802;
869.1000;0.5242;1.1753;
869.4000;0.5250;1.1753;
869.7000;0.5250;1.1802;
870.0000;0.5234;1.1851;
870.3000;0.5226;1.1900;
870.6000;0.5258;1.2047;
870.9000;0.5226;1.2071;
871.2000;0.5234;1.2071;
871.5000;0.5226;1.2071;
871.8000;0.5250;1.2071;
872.1000;0.5226;1.2047;
872.4000;0.5242;1.2145;
872.7000;0.5218;1.2047;
873.0000;0.5218;1.2096;
873.3000;0.5218;1.2022;
873.6000;0.5234;1.2047;
873.9000;0.5242;1.2145;
874.2000;0.5234;1.2120;
874.5000;0.5226;1.2096;
874.8000;0.5234;1.2145;
875.1000;0.5226;1.2194;
875.4000;0.5226;1.2194;
875.7000;0.5234;1.2218;
876.0000;0.5234;1.2120;
876.3000;0.5226;1.2047;
876.6000;0.5218;1.2096;
876.9000;0.5250;1.2243;
877.2000;0.5218;1.2267;
877.5000;0.5242;1.2243;
877.8000;0.5226;1.2243;
878.1000;0.5250;1.2267;
878.4000;0.5234;1.2194;
878.7000;0.5218;1.2145;
879.0000;0.5210;1.2120;
879.3000;0.5218;1.2145;
879.6000;0.5234;1.2120;
879.9000;0.5234;1.2145;
880.2000;0.5210;1.2145;
880.5000;0.5210;1.2145;
880.8000;0.5226;1.2120;
881.1000;0.5226;1.2096;
881.4000;0.5218;1.2071;
881.7000;0.5242;1.2145;
882.0000;0.5210;1.2096;
882.3000;0.5242;1.2071;
882.6000;0.5226;1.2096;
882.9000;0.5210;1.2022;
883.2000;0.5226;1.1998;
883.5000;0.5218;1.2071;
883.8000;0.5218;1.2120;
884.1000;0.5218;1.1998;
884.4000;0.5234;1.1973;
884.7000;0.5218;1.1924;
885.0000;0.5201;1.1875;
885.3000;0.5226;1.1900;
885.6000;0.5226;1.1900;
885.9000;0.5210;1.1973;
886.2000;0.5161;1.1753;
886.5000;0.5226;1.1826;
886.8000;0.5250;1.1924;
887.1000;0.5234;1.1826;
887.4000;0.5210;1.1851;
887.7000;0.5226;1.1875;
888.0000;0.5218;1.1826;
888.3000;0.5201;1.1924;
888.6000;0.5218;1.1998;
888.9000;0.5218;1.1973;
889.2000;0.5201;1.1998;
889.5000;0.5226;1.2047;
889.8000;0.5226;1.2145;
890.1000;0.5210;1.2120;
890.4000;0.5226;1.2096;
890.7000;0.5218;1.2047;
891.0000;0.5226;1.2047;
891.3000;0.5226;1.2096;
891.6000;0.5210;1.2047;
891.9000;0.5234;1.2096;
892.2000;0.5234;1.2071;
892.5000;0.5275;1.2218;
892.8000;0.5201;1.2071;
893.1000;0.5218;1.2169;
893.4000;0.5201;1.2169;
893.7000;0.5193;1.2022;
894.0000;0.5267;1.2169;
894.3000;0.5210;1.2071;
894.6000;0.5242;1.2169;
894.9000;0.5234;1.2145;
895.2000;0.5218;1.2243;
895.5000;0.5226;1.2194;
895.8000;0.5210;1.2096;
896.1000;0.5210;1.2096;
896.4000;0.5218;1.2145;
896.7000;0.5226;1.2120;
897.0000;0.5218;1.2096;
897.3000;0.5210;1.2096;
897.6000;0.5226;1.2071;
897.9000;0.5218;1.1973;
898.2000;0.5226;1.1973;
898.5000;0.5210;1.1900;
898.8000;0.5193;1.1875;
899.1000;0.5218;1.1900;
899.4000;0.5218;1.1949;
899.7000;0.5218;1.1949;
900.0000;0.5218;1.1924;
900.3000;0.5234;1.1998;
900.6000;0.5218;1.1900;
900.9000;0.5210;1.1924;
901.2000;0.5226;1.1949;
901.5000;0.5210;1.1998;
901.8000;0.5218;1.1998;
902.1000;0.5201;1.1973;
902.4000;0.5226;1.1949;
902.7000;0.5226;1.1949;
903.0000;0.5218;1.1949;
903.3000;0.5234;1.1900;
903.6000;0.5226;1.1851;
903.9000;0.5226;1.1875;
904.2000;0.5218;1.1900;
904.5000;0.5161;1.1704;
904.8000;0.5210;1.1875;
905.1000;0.5226;1.1875;
905.4000;0.5218;1.1900;
905.7000;0.5218;1.2022;
906.0000;0.5210;1.1998;
906.3000;0.5226;1.2022;
906.6000;0.5210;1.1949;
906.9000;0.5193;1.1851;
907.2000;0.5218;1.1900;
907.5000;0.5210;1.1875;
907.8000;0.5226;1.1900;
908.1000;0.5226;1.1973;
908.4000;0.5193;1.1949;
908.7000;0.5210;1.1973;
909.0000;0.5210;1.1998;
909.3000;0.5201;1.1998;
909.6000;0.5201;1.1998;
909.9000;0.5210;1.2120;
910.2000;0.5210;1.2145;
910.5000;0.5201;1.2120;
910.8000;0.5201;1.2120;
911.1000;0.5210;1.2169;
911.4000;0.5234;1.2267;
911.7000;0.5210;1.2145;
912.0000;0.5210;1.2071;
912.3000;0.5218;1.2047;
912.6000;0.5226;1.2120;
912.9000;0.5218;1.2145;
913.2000;0.5210;1.2120;
913.5000;0.5201;1.2096;
913.8000;0.5193;1.2071;
914.1000;0.5218;1.2120;
914.4000;0.5193;1.2071;
914.7000;0.5185;1.2120;
915.0000;0.5169;1.2096;
915.3000;0.5210;1.2169;
915.6000;0.5210;1.2047;
915.9000;0.5161;1.1949;
916.2000;0.5218;1.2096;
916.5000;0.5210;1.2096;
916.8000;0.5193;1.2071;
917.1000;0.5201;1.2096;
917.4000;0.5201;1.2120;
917.7000;0.5193;1.2120;
918.0000;0.5201;1.2120;
918.3000;0.5185;1.2047;
918.6000;0.5201;1.2047;
918.9000;0.5193;1.2071;
919.2000;0.5193;1.2071;
919.5000;0.5201;1.1998;
919.8000;0.5193;1.1875;
920.1000;0.5193;1.1973;
920.4000;0.5210;1.2047;
920.7000;0.5193;1.1998;
921.0000;0.5193;1.2047;
921.3000;0.5210;1.2096;
921.6000;0.5226;1.2145;
921.9000;0.5226;1.2145;
922.2000;0.5201;1.2096;
922.5000;0.5201;1.2047;
922.8000;0.5185;1.1998;
923.1000;0.5218;1.2071;
923.4000;0.5185;1.1973;
923.7000;0.5185;1.1998;
924.0000;0.5185;1.1998;
924.3000;0.5201;1.1998;
924.6000;0.5201;1.1924;
924.9000;0.5201;1.1875;
925.2000;0.5201;1.1949;
925.5000;0.5161;1.1851;
925.8000;0.5193;1.2022;
926.1000;0.5210;1.2022;
926.4000;0.5144;1.1826;
926.7000;0.5201;1.2096;
927.0000;0.5218;1.2022;
927.3000;0.5242;1.2022;
927.6000;0.5210;1.1998;
927.9000;0.5201;1.2071;
928.2000;0.5193;1.2022;
928.5000;0.5193;1.2071;
928.8000;0.5201;1.1998;
929.1000;0.5193;1.1949;
929.4000;0.5201;1.1900;
929.7000;0.5193;1.1826;
930.0000;0.5185;1.1924;
930.3000;0.5210;1.1900;
930.6000;0.5210;1.1875;
930.9000;0.5210;1.1875;
931.2000;0.5226;1.1949;
931.5000;0.5201;1.1802;
931.8000;0.5210;1.1826;
932.1000;0.5201;1.1777;
932.4000;0.5242;1.1900;
932.7000;0.5193;1.1826;
933.0000;0.5210;1.1851;
933.3000;0.5226;1.1802;
933.6000;0.5193;1.1728;
933.9000;0.5201;1.1777;
934.2000;0.5218;1.1802;
934.5000;0.5218;1.1875;
934.8000;0.5193;1.1851;
935.1000;0.5185;1.1753;
935.4000;0.5234;1.1900;
935.7000;0.5218;1.1875;
936.0000;0.5193;1.1875;
936.3000;0.5218;1.1973;
936.6000;0.5210;1.2022;
936.9000;0.5210;1.2071;
937.2000;0.5201;1.1998;
937.5000;0.5210;1.2022;
937.8000;0.5218;1.2120;
938.1000;0.5169;1.1924;
938.4000;0.5193;1.1973;
938.7000;0.5234;1.2047;
939.0000;0.5210;1.1998;
939.3000;0.5201;1.2071;
939.6000;0.5193;1.2120;
939.9000;0.5242;1.2218;
940.2000;0.5193;1.2071;
940.5000;0.5112;1.1851;
940.8000;0.5210;1.2047;
941.1000;0.5185;1.1998;
941.4000;0.5201;1.2071;
941.7000;0.5185;1.1998;
942.0000;0.5210;1.2120;
942.3000;0.5218;1.2120;
942.6000;0.5169;1.2022;
942.9000;0.5193;1.2096;
943.2000;0.5226;1.2194;
943.5000;0.5210;1.2120;
943.8000;0.5185;1.2047;
944.1000;0.5185;1.2047;
944.4000;0.5193;1.2071;
944.7000;0.5201;1.2120;
945.0000;0.5201;1.2145;
945.3000;0.5193;1.2120;
945.6000;0.5218;1.2169;
945.9000;0.5201;1.2169;
946.2000;0.5267;1.2291;
946.5000;0.5193;1.2145;
946.8000;0.5193;1.2047;
947.1000;0.5210;1.2022;
947.4000;0.5218;1.1998;
947.7000;0.5193;1.1900;
948.0000;0.5210;1.1875;
948.3000;0.5185;1.1875;
948.6000;0.5193;1.1924;
948.9000;0.5185;1.1949;
949.2000;0.5177;1.1973;
949.5000;0.5185;1.1998;
949.8000;0.5177;1.1924;
950.1000;0.5185;1.1851;
950.4000;0.5177;1.1900;
950.7000;0.5185;1.1949;
951.0000;0.5234;1.2022;
951.3000;0.5169;1.1851;
951.6000;0.5201;1.2022;
951.9000;0.5201;1.1949;
952.2000;0.5218;1.2047;
952.5000;0.5185;1.2022;
952.8000;0.5153;1.2022;
953.1000;0.5185;1.1998;
953.4000;0.5193;1.2022;
953.7000;0.5201;1.2071;
954.0000;0.5185;1.2047;
954.3000;0.5128;1.1900;
954.6000;0.5193;1.2120;
954.9000;0.5185;1.2169;
955.2000;0.5201;1.2145;
955.5000;0.5185;1.2071;
955.8000;0.5185;1.2047;
956.1000;0.5185;1.2022;
956.4000;0.5193;1.2047;
956.7000;0.5201;1.2022;
957.0000;0.5193;1.2022;
957.3000;0.5210;1.2047;
957.6000;0.5201;1.2022;
957.9000;0.5193;1.1973;
958.2000;0.5201;1.2022;
958.5000;0.5185;1.1973;
958.8000;0.5193;1.1973;
959.1000;0.5185;1.1900;
959.4000;0.5201;1.1924;
959.7000;0.5210;1.1949;
960.0000;0.5210;1.1875;
960.3000;0.5210;1.1949;
960.6000;0.5193;1.1973;
960.9000;0.5193;1.1949;
961.2000;0.5201;1.1998;
961.5000;0.5169;1.1851;
961.8000;0.5193;1.1924;
962.1000;0.5185;1.1998;
962.4000;0.5193;1.2071;
962.7000;0.5201;1.2096;
963.0000;0.5193;1.2047;
963.3000;0.5185;1.2096;
963.6000;0.5201;1.2096;
963.9000;0.5201;1.2145;
964.2000;0.5193;1.2047;
964.5000;0.5177;1.2022;
964.8000;0.5201;1.2071;
965.1000;0.5201;1.2071;
965.4000;0.5185;1.2071;
965.7000;0.5193;1.2120;
966.0000;0.5185;1.2096;
966.3000;0.5193;1.2047;
966.6000;0.5201;1.2047;
966.9000;0.5185;1.2022;
967.2000;0.5201;1.2071;
967.5000;0.5201;1.2047;
967.8000;0.5201;1.2096;
968.1000;0.5201;1.2169;
968.4000;0.5201;1.2120;
968.7000;0.5210;1.2071;
969.0000;0.5201;1.2022;
969.3000;0.5185;1.1998;
969.6000;0.5185;1.2071;
969.9000;0.5201;1.2071;
970.2000;0.5193;1.1973;
970.5000;0.5185;1.1949;
970.8000;0.5226;1.2071;
971.1000;0.5185;1.2047;
971.4000;0.5185;1.2096;
971.7000;0.5185;1.2096;
972.0000;0.5185;1.2047;
972.3000;0.5201;1.2022;
972.6000;0.5185;1.1973;
972.9000;0.5185;1.1998;
973.2000;0.5210;1.2071;
973.5000;0.5177;1.1924;
973.8000;0.5218;1.2096;
974.1000;0.5185;1.2022;
974.4000;0.5185;1.1973;
974.7000;0.5153;1.1900;
975.0000;0.5169;1.2047;
975.3000;0.5144;1.1973;
975.6000;0.5193;1.2071;
975.9000;0.5177;1.2022;
976.2000;0.5177;1.1998;
976.5000;0.5185;1.2047;
976.8000;0.5185;1.2071;
977.1000;0.5185;1.2071;
977.4000;0.5218;1.2145;
977.7000;0.5210;1.2096;
978.0000;0.5210;1.2022;
978.3000;0.5218;1.2047;
978.6000;0.5185;1.2047;
978.9000;0.5193;1.2071;
979.2000;0.5201;1.2071;
979.5000;0.5177;1.2022;
979.8000;0.5185;1.1973;
980.1000;0.5193;1.1949;
980.4000;0.5218;1.1949;
980.7000;0.5185;1.1924;
981.0000;0.5161;1.1777;
981.3000;0.5185;1.1753;
981.6000;0.5193;1.1802;
981.9000;0.5201;1.1826;
982.2000;0.5193;1.1777;
982.5000;0.5185;1.1728;
982.8000;0.5193;1.1728;
983.1000;0.5185;1.1728;
983.4000;0.5185;1.1802;
983.7000;0.5193;1.1875;
984.0000;0.5177;1.1851;
984.3000;0.5177;1.1900;
984.6000;0.5218;1.1924;
984.9000;0.5177;1.1802;
985.2000;0.5185;1.1900;
985.5000;0.5210;1.1973;
985.8000;0.5201;1.1900;
986.1000;0.5177;1.1851;
986.4000;0.5193;1.1826;
986.7000;0.5185;1.1826;
987.0000;0.5201;1.1900;
987.3000;0.5201;1.2022;
987.6000;0.5193;1.2022;
987.9000;0.5218;1.2071;
988.2000;0.5185;1.2047;
988.5000;0.5177;1.2071;
988.8000;0.5193;1.2071;
989.1000;0.5210;1.2096;
989.4000;0.5201;1.2096;
989.7000;0.5177;1.2047;
990.0000;0.5193;1.2096;
990.3000;0.5169;1.2096;
990.6000;0.5258;1.2291;
990.9000;0.5185;1.2047;
991.2000;0.5177;1.2047;
991.5000;0.5193;1.2071;
991.8000;0.5177;1.2071;
992.1000;0.5185;1.2022;
992.4000;0.5185;1.2022;
992.7000;0.5185;1.2022;
993.0000;0.5185;1.1949;
993.3000;0.5201;1.1973;
993.6000;0.5177;1.1900;
993.9000;0.5210;1.1900;
994.2000;0.5210;1.1851;
994.5000;0.5193;1.1851;
994.8000;0.5161;1.1753;
995.1000;0.5193;1.1777;
995.4000;0.5185;1.1875;
995.7000;0.5193;1.1900;
996.0000;0.5193;1.1998;
996.3000;0.5169;1.1949;
996.6000;0.5136;1.1851;
996.9000;0.5177;1.1998;
997.2000;0.5177;1.2022;
997.5000;0.5169;1.1973;
997.8000;0.5177;1.1900;
998.1000;0.5177;1.1875;
998.4000;0.5177;1.1924;
998.7000;0.5161;1.1949;
999.0000;0.5177;1.1973;
999.3000;0.5177;1.2047;
999.6000;0.5185;1.2047;
999.9000;0.5136;1.1924;
1000.2000;0.5185;1.1973;
1000.5000;0.5161;1.1998;
1000.8000;0.5169;1.2120;
1001.1000;0.5210;1.2169;
1001.4000;0.5153;1.1973;
1001.7000;0.5169;1.1900;
1002.0000;0.5177;1.1998;
1002.3000;0.5177;1.1973;
1002.6000;0.5169;1.1973;
1002.9000;0.5177;1.2022;
1003.2000;0.5177;1.2047;
1003.5000;0.5169;1.1949;
1003.8000;0.5177;1.1998;
1004.1000;0.5169;1.1973;
1004.4000;0.5177;1.2022;
1004.7000;0.5185;1.2145;
1005.0000;0.5177;1.2145;
1005.3000;0.5169;1.2120;
1005.6000;0.5169;1.2145;
1005.9000;0.5161;1.2071;
1006.2000;0.5144;1.2047;
1006.5000;0.5177;1.2022;
1006.8000;0.5169;1.1949;
1007.1000;0.5177;1.1924;
1007.4000;0.5185;1.2022;
1007.7000;0.5161;1.1924;
1008.0000;0.5177;1.2022;
1008.3000;0.5185;1.2022;
1008.6000;0.5250;1.2169;
1008.9000;0.5169;1.2047;
1009.2000;0.5169;1.2047;
1009.5000;0.5193;1.2022;
1009.8000;0.5185;1.1949;
1010.1000;0.5177;1.1900;
1010.4000;0.5169;1.1900;
1010.7000;0.5169;1.1949;
1011.0000;0.5185;1.1998;
1011.3000;0.5185;1.2120;
1011.6000;0.5218;1.2194;
1011.9000;0.5169;1.2047;
1012.2000;0.5161;1.2047;
1012.5000;0.5177;1.1949;
1012.8000;0.5120;1.1704;
1013.1000;0.5177;1.1802;
1013.4000;0.5169;1.1875;
1013.7000;0.5169;1.1973;
1014.0000;0.5136;1.1851;
1014.3000;0.5161;1.1973;
1014.6000;0.5185;1.2047;
1014.9000;0.5136;1.1924;
1015.2000;0.5169;1.1875;
1015.5000;0.5169;1.1875;
1015.8000;0.5185;1.1826;
1016.1000;0.5185;1.1900;
1016.4000;0.5169;1.1826;
1016.7000;0.5177;1.1777;
1017.0000;0.5177;1.1753;
1017.3000;0.5193;1.1753;
1017.6000;0.5210;1.1777;
1017.9000;0.5185;1.1802;
1018.2000;0.5234;1.1998;
1018.5000;0.5185;1.1875;
1018.8000;0.5177;1.1924;
1019.1000;0.5201;1.2047;
1019.4000;0.5177;1.1924;
1019.7000;0.5201;1.1998;
1020.0000;0.5177;1.1973;
1020.3000;0.5169;1.1900;
1020.6000;0.5177;1.1875;
1020.9000;0.5185;1.1924;
1021.2000;0.5193;1.1998;
1021.5000;0.5104;1.1777;
1021.8000;0.5161;1.1924;
1022.1000;0.5177;1.1900;
1022.4000;0.5185;1.1900;
1022.7000;0.5185;1.1802;
1023.0000;0.5128;1.1679;
1023.3000;0.5177;1.1851;
1023.6000;0.5226;1.1949;
1023.9000;0.5226;1.1924;
1024.2000;0.5185;1.1900;
1024.5000;0.5193;1.1949;
1024.8000;0.5185;1.2022;
1025.1000;0.5193;1.1973;
1025.4000;0.5177;1.1973;
1025.7000;0.5185;1.2022;
1026.0000;0.5169;1.2047;
1026.3000;0.5177;1.2071;
1026.6000;0.5177;1.2022;
1026.9000;0.5177;1.2047;
1027.2000;0.5177;1.2096;
1027.5000;0.5177;1.2096;
1027.8000;0.5144;1.2022;
1028.1000;0.5169;1.2145;
1028.4000;0.5161;1.2047;
1028.7000;0.5169;1.2047;
1029.0000;0.5177;1.2022;
1029.3000;0.5177;1.1998;
1029.6000;0.5177;1.1875;
1029.9000;0.5120;1.1802;
1030.2000;0.5169;1.1900;
1030.5000;0.5177;1.1924;
1030.8000;0.5153;1.1875;
1031.1000;0.5185;1.2022;
1031.4000;0.5161;1.1949;
1031.7000;0.5169;1.1973;
1032.0000;0.5177;1.2071;
1032.3000;0.5177;1.2096;
1032.6000;0.5153;1.2071;
1032.9000;0.5161;1.2096;
1033.2000;0.5120;1.2022;
1033.5000;0.5136;1.1949;
1033.8000;0.5169;1.1949;
1034.1000;0.5161;1.1949;
1034.4000;0.5169;1.1973;
1034.7000;0.5153;1.1949;
1035.0000;0.5169;1.2047;
1035.3000;0.5169;1.2120;
1035.6000;0.5161;1.2096;
1035.9000;0.5201;1.2194;
1036.2000;0.5120;1.2047;
1036.5000;0.5177;1.2145;
1036.8000;0.5169;1.2169;
1037.1000;0.5153;1.2071;
1037.4000;0.5161;1.2022;
1037.7000;0.5169;1.1949;
1038.0000;0.5161;1.1949;
1038.3000;0.5177;1.1998;
1038.6000;0.5161;1.1973;
1038.9000;0.5144;1.1949;
1039.2000;0.5161;1.1949;
1039.5000;0.5169;1.1973;
1039.8000;0.5177;1.2047;
1040.1000;0.5177;1.2047;
1040.4000;0.5161;1.2022;
1040.7000;0.5169;1.2071;
1041.0000;0.5185;1.1998;
1041.3000;0.5104;1.1802;
1041.6000;0.5177;1.1998;
1041.9000;0.5177;1.2145;
1042.2000;0.5136;1.2120;
1042.5000;0.5185;1.2218;
1042.8000;0.5153;1.2169;
1043.1000;0.5201;1.2267;
1043.4000;0.5177;1.2267;
1043.7000;0.5169;1.2291;
1044.0000;0.5185;1.2291;
1044.3000;0.5128;1.2145;
1044.6000;0.5153;1.2169;
1044.9000;0.5153;1.2194;
1045.2000;0.5193;1.2291;
1045.5000;0.5234;1.2438;
1045.8000;0.5177;1.2194;
1046.1000;0.5185;1.2120;
1046.4000;0.5169;1.2096;
1046.7000;0.5169;1.2145;
1047.0000;0.5169;1.2096;
1047.3000;0.5161;1.2071;
1047.6000;0.5177;1.2169;
1047.9000;0.5161;1.2169;
1048.2000;0.5169;1.2194;
1048.5000;0.5169;1.2316;
1048.8000;0.5185;1.2389;
1049.1000;0.5177;1.2365;
1049.4000;0.5177;1.2316;
1049.7000;0.5169;1.2291;
1050.0000;0.5128;1.2218;
1050.3000;0.5177;1.2291;
1050.6000;0.5169;1.2267;
1050.9000;0.5177;1.2291;
1051.2000;0.5169;1.2316;
1051.5000;0.5177;1.2414;
1051.8000;0.5193;1.2487;
1052.1000;0.5177;1.2414;
1052.4000;0.5161;1.2340;
1052.7000;0.5177;1.2340;
1053.0000;0.5177;1.2316;
1053.3000;0.5177;1.2243;
1053.6000;0.5169;1.2243;
1053.9000;0.5153;1.2194;
1054.2000;0.5193;1.2243;
1054.5000;0.5177;1.2218;
1054.8000;0.5169;1.2267;
1055.1000;0.5161;1.2291;
1055.4000;0.5169;1.2365;
1055.7000;0.5177;1.2365;
1056.0000;0.5169;1.2316;
1056.3000;0.5169;1.2267;
1056.6000;0.5169;1.2340;
1056.9000;0.5161;1.2316;
1057.2000;0.5177;1.2365;
1057.5000;0.5144;1.2340;
1057.8000;0.5169;1.2340;
1058.1000;0.5161;1.2267;
1058.4000;0.5177;1.2291;
1058.7000;0.5153;1.2267;
1059.0000;0.5169;1.2316;
1059.3000;0.5169;1.2316;
1059.6000;0.5169;1.2291;
1059.9000;0.5169;1.2291;
1060.2000;0.5169;1.2267;
1060.5000;0.5153;1.2291;
1060.8000;0.5169;1.2291;
1061.1000;0.5161;1.2169;
1061.4000;0.5161;1.2169;
1061.7000;0.5161;1.2218;
1062.0000;0.5177;1.2340;
1062.3000;0.5169;1.2365;
1062.6000;0.5161;1.2340;
1062.9000;0.5177;1.2365;
1063.2000;0.5153;1.2316;
1063.5000;0.5169;1.2291;
1063.8000;0.5161;1.2267;
1064.1000;0.5193;1.2316;
1064.4000;0.5169;1.2218;
1064.7000;0.5177;1.2267;
1065.0000;0.5177;1.2218;
1065.3000;0.5161;1.2194;
1065.6000;0.5161;1.2120;
1065.9000;0.5161;1.2120;
1066.2000;0.5161;1.2145;
1066.5000;0.5169;1.2169;
1066.8000;0.5161;1.2267;
1067.1000;0.5193;1.2340;
1067.4000;0.5161;1.2194;
1067.7000;0.5161;1.2218;
1068.0000;0.5153;1.2267;
1068.3000;0.5177;1.2267;
1068.6000;0.5161;1.2194;
1068.9000;0.5161;1.2218;
1069.2000;0.5144;1.2120;
1069.5000;0.5169;1.2243;
1069.8000;0.5218;1.2389;
1070.1000;0.5153;1.2243;
1070.4000;0.5177;1.2243;
1070.7000;0.5161;1.2169;
1071.0000;0.5177;1.2145;
1071.3000;0.5136;1.2022;
1071.6000;0.5153;1.2145;
1071.9000;0.5153;1.2120;
1072.2000;0.5177;1.2145;
1072.5000;0.5169;1.2096;
1072.8000;0.5153;1.1998;
1073.1000;0.5161;1.2096;
1073.4000;0.5193;1.2194;
1073.7000;0.5169;1.2071;
1074.0000;0.5177;1.2194;
1074.3000;0.5161;1.2096;
1074.6000;0.5169;1.2194;
1074.9000;0.5185;1.2267;
1075.2000;0.5177;1.2169;
1075.5000;0.5161;1.2218;
1075.8000;0.5177;1.2243;
1076.1000;0.5177;1.2218;
1076.4000;0.5161;1.2194;
1076.7000;0.5177;1.2145;
1077.0000;0.5153;1.2145;
1077.3000;0.5169;1.2243;
1077.6000;0.5169;1.2267;
1077.9000;0.5177;1.2243;
1078.2000;0.5185;1.2267;
1078.5000;0.5153;1.2267;
1078.8000;0.5169;1.2291;
1079.1000;0.5161;1.2267;
1079.4000;0.5177;1.2218;
1079.7000;0.5201;1.2365;
1080.0000;0.5169;1.2291;
1080.3000;0.5169;1.2267;
1080.6000;0.5161;1.2316;
1080.9000;0.5161;1.2340;
1081.2000;0.5161;1.2389;
1081.5000;0.5161;1.2365;
1081.8000;0.5161;1.2316;
1082.1000;0.5169;1.2365;
1082.4000;0.5169;1.2365;
1082.7000;0.5177;1.2340;
1083.0000;0.5153;1.2316;
1083.3000;0.5153;1.2267;
1083.6000;0.5169;1.2291;
1083.9000;0.5161;1.2291;
1084.2000;0.5161;1.2340;
1084.5000;0.5161;1.2365;
1084.8000;0.5177;1.2316;
1085.1000;0.5177;1.2316;
1085.4000;0.5161;1.2267;
1085.7000;0.5177;1.2365;
1086.0000;0.5177;1.2389;
1086.3000;0.5177;1.2291;
1086.6000;0.5144;1.2218;
1086.9000;0.5169;1.2316;
1087.2000;0.5161;1.2194;
1087.5000;0.5169;1.2169;
1087.8000;0.5177;1.2194;
1088.1000;0.5161;1.2120;
1088.4000;0.5144;1.2169;
1088.7000;0.5161;1.2169;
1089.0000;0.5169;1.2218;
1089.3000;0.5153;1.2218;
1089.6000;0.5153;1.2218;
1089.9000;0.5210;1.2340;
1090.2000;0.5169;1.2169;
1090.5000;0.5161;1.2120;
1090.8000;0.5169;1.2145;
1091.1000;0.5218;1.2243;
1091.4000;0.5169;1.2145;
1091.7000;0.5201;1.2243;
1092.0000;0.5169;1.2218;
1092.3000;0.5161;1.2169;
1092.6000;0.5104;1.1973;
1092.9000;0.5161;1.2169;
1093.2000;0.5177;1.2145;
1093.5000;0.5144;1.2120;
1093.8000;0.5153;1.2243;
1094.1000;0.5161;1.2243;
1094.4000;0.5136;1.2218;
1094.7000;0.5161;1.2291;
1095.0000;0.5161;1.2316;
1095.3000;0.5161;1.2316;
1095.6000;0.5169;1.2316;
1095.9000;0.5177;1.2414;
1096.2000;0.5177;1.2389;
1096.5000;0.5153;1.2340;
1096.8000;0.5161;1.2365;
1097.1000;0.5136;1.2316;
1097.4000;0.5169;1.2340;
1097.7000;0.5169;1.2340;
1098.0000;0.5161;1.2267;
1098.3000;0.5144;1.2218;
1098.6000;0.5161;1.2267;
1098.9000;0.5161;1.2267;
1099.2000;0.5153;1.2365;
1099.5000;0.5169;1.2389;
1099.8000;0.5169;1.2389;
1100.1000;0.5234;1.2610;
1100.4000;0.5185;1.2414;
1100.7000;0.5177;1.2365;
1101.0000;0.5144;1.2218;
1101.3000;0.5161;1.2291;
1101.6000;0.5185;1.2365;
1101.9000;0.5169;1.2291;
1102.2000;0.5169;1.2316;
1102.5000;0.5153;1.2218;
1102.8000;0.5169;1.2218;
1103.1000;0.5144;1.2145;
1103.4000;0.5153;1.2194;
1103.7000;0.5169;1.2243;
1104.0000;0.5169;1.2291;
1104.3000;0.5161;1.2316;
1104.6000;0.5161;1.2267;
1104.9000;0.5153;1.2267;
1105.2000;0.5153;1.2291;
1105.5000;0.5201;1.2316;
1105.8000;0.5144;1.2243;
1106.1000;0.5169;1.2291;
1106.4000;0.5161;1.2267;
1106.7000;0.5161;1.2316;
1107.0000;0.5161;1.2291;
1107.3000;0.5153;1.2291;
1107.6000;0.5161;1.2291;
1107.9000;0.5169;1.2389;
1108.2000;0.5161;1.2389;
1108.5000;0.5161;1.2340;
1108.8000;0.5185;1.2316;
1109.1000;0.5136;1.2218;
1109.4000;0.5169;1.2340;
1109.7000;0.5153;1.2340;
1110.0000;0.5161;1.2414;
1110.3000;0.5193;1.2463;
1110.6000;0.5169;1.2463;
1110.9000;0.5161;1.2463;
1111.2000;0.5169;1.2463;
1111.5000;0.5177;1.2438;
1111.8000;0.5169;1.2414;
1112.1000;0.5169;1.2365;
1112.4000;0.5161;1.2316;
1112.7000;0.5161;1.2365;
1113.0000;0.5161;1.2389;
1113.3000;0.5177;1.2340;
1113.6000;0.5161;1.2365;
1113.9000;0.5193;1.2438;
1114.2000;0.5177;1.2487;
1114.5000;0.5169;1.2487;
1114.8000;0.5161;1.2316;
1115.1000;0.5161;1.2218;
1115.4000;0.5169;1.2243;
1115.7000;0.5169;1.2218;
1116.0000;0.5177;1.2169;
1116.3000;0.5136;1.2047;
1116.6000;0.5161;1.2218;
1116.9000;0.5120;1.2145;
1117.2000;0.5161;1.2291;
1117.5000;0.5153;1.2267;
1117.8000;0.5161;1.2316;
1118.1000;0.5169;1.2316;
1118.4000;0.5153;1.2218;
1118.7000;0.5161;1.2267;
1119.0000;0.5153;1.2218;
1119.3000;0.5169;1.2243;
1119.6000;0.5161;1.2169;
1119.9000;0.5120;1.2145;
1120.2000;0.5153;1.2291;
1120.5000;0.5169;1.2414;
1120.8000;0.5177;1.2438;
1121.1000;0.5177;1.2487;
1121.4000;0.5153;1.2438;
1121.7000;0.5161;1.2389;
1122.0000;0.5169;1.2340;
1122.3000;0.5169;1.2389;
1122.6000;0.5169;1.2340;
1122.9000;0.5161;1.2389;
1123.2000;0.5169;1.2340;
1123.5000;0.5161;1.2243;
1123.8000;0.5161;1.2169;
1124.1000;0.5104;1.1973;
1124.4000;0.5144;1.2120;
1124.7000;0.5136;1.2120;
1125.0000;0.5153;1.2096;
1125.3000;0.5153;1.2071;
1125.6000;0.5136;1.2047;
1125.9000;0.5177;1.2071;
1126.2000;0.5169;1.2022;
1126.5000;0.5169;1.2096;
1126.8000;0.5177;1.2071;
1127.1000;0.5161;1.2047;
1127.4000;0.5153;1.2022;
1127.7000;0.5136;1.2047;
1128.0000;0.5144;1.2120;
1128.3000;0.5153;1.2243;
1128.6000;0.5169;1.2291;
1128.9000;0.5104;1.2145;
1129.2000;0.5153;1.2267;
1129.5000;0.5153;1.2243;
1129.8000;0.5153;1.2169;
1130.1000;0.5144;1.2169;
1130.4000;0.5177;1.2145;
1130.7000;0.5161;1.2145;
1131.0000;0.5088;1.1949;
1131.3000;0.5169;1.2145;
1131.6000;0.5169;1.2194;
1131.9000;0.5153;1.2243;
1132.2000;0.5193;1.2438;
1132.5000;0.5193;1.2512;
1132.8000;0.5153;1.2389;
1133.1000;0.5153;1.2365;
1133.4000;0.5120;1.2291;
1133.7000;0.5169;1.2340;
1134.0000;0.5161;1.2291;
1134.3000;0.5153;1.2340;
1134.6000;0.5153;1.2316;
1134.9000;0.5161;1.2291;
1135.2000;0.5144;1.2340;
1135.5000;0.5161;1.2316;
1135.8000;0.5136;1.2365;
1136.1000;0.5177;1.2389;
1136.4000;0.5161;1.2243;
1136.7000;0.5169;1.2243;
1137.0000;0.5177;1.2291;
1137.3000;0.5161;1.2291;
1137.6000;0.5161;1.2389;
1137.9000;0.5169;1.2389;
1138.2000;0.5169;1.2414;
1138.5000;0.5153;1.2340;
1138.8000;0.5177;1.2389;
1139.1000;0.5234;1.2487;
1139.4000;0.5153;1.2243;
1139.7000;0.5144;1.2194;
1140.0000;0.5153;1.2243;
1140.3000;0.5153;1.2243;
1140.6000;0.5144;1.2267;
1140.9000;0.5161;1.2291;
1141.2000;0.5161;1.2291;
1141.5000;0.5185;1.2316;
1141.8000;0.5161;1.2340;
1142.1000;0.5177;1.2340;
1142.4000;0.5226;1.2414;
1142.7000;0.5169;1.2243;
1143.0000;0.5177;1.2243;
1143.3000;0.5161;1.2218;
1143.6000;0.5169;1.2145;
1143.9000;0.5144;1.2120;
1144.2000;0.5153;1.2169;
1144.5000;0.5161;1.2218;
1144.8000;0.5169;1.2291;
1145.1000;0.5161;1.2267;
1145.4000;0.5161;1.2291;
1145.7000;0.5153;1.2316;
1146.0000;0.5177;1.2340;
1146.3000;0.5169;1.2365;
1146.6000;0.5161;1.2340;
1146.9000;0.5169;1.2365;
1147.2000;0.5185;1.2414;
1147.5000;0.5153;1.2316;
1147.8000;0.5144;1.2243;
1148.1000;0.5201;1.2414;
1148.4000;0.5169;1.2487;
1148.7000;0.5153;1.2463;
1149.0000;0.5185;1.2463;
1149.3000;0.5144;1.2365;
1149.6000;0.5128;1.2291;
1149.9000;0.5193;1.2438;
1150.2000;0.5169;1.2365;
1150.5000;0.5161;1.2389;
1150.8000;0.5169;1.2438;
1151.1000;0.5177;1.2438;
1151.4000;0.5161;1.2316;
1151.7000;0.5120;1.2145;
1152.0000;0.5153;1.2194;
1152.3000;0.5169;1.2291;
1152.6000;0.5177;1.2389;
1152.9000;0.5153;1.2414;
1153.2000;0.5169;1.2536;
1153.5000;0.5153;1.2438;
1153.8000;0.5153;1.2463;
1154.1000;0.5161;1.2487;
1154.4000;0.5153;1.2389;
1154.7000;0.5144;1.2267;
1155.0000;0.5153;1.2218;
1155.3000;0.5161;1.2120;
1155.6000;0.5169;1.2120;
1155.9000;0.5153;1.2145;
1156.2000;0.5161;1.2218;
1156.5000;0.5161;1.2218;
1156.8000;0.5161;1.2194;
1157.1000;0.5161;1.2267;
1157.4000;0.5161;1.2340;
1157.7000;0.5161;1.2316;
1158.0000;0.5153;1.2243;
1158.3000;0.5177;1.2316;
1158.6000;0.5161;1.2365;
1158.9000;0.5169;1.2463;
1159.2000;0.5169;1.2365;
1159.5000;0.5153;1.2340;
1159.8000;0.5144;1.2316;
1160.1000;0.5161;1.2365;
1160.4000;0.5161;1.2316;
1160.7000;0.5169;1.2340;
1161.0000;0.5153;1.2340;
1161.3000;0.5153;1.2316;
1161.6000;0.5177;1.2316;
1161.9000;0.5169;1.2291;
1162.2000;0.5128;1.2243;
1162.5000;0.5161;1.2389;
1162.8000;0.5161;1.2316;
1163.1000;0.5161;1.2340;
1163.4000;0.5144;1.2365;
1163.7000;0.5144;1.2389;
1164.0000;0.5161;1.2414;
1164.3000;0.5136;1.2365;
1164.6000;0.5144;1.2340;
1164.9000;0.5161;1.2389;
1165.2000;0.5161;1.2389;
1165.5000;0.5161;1.2340;
1165.8000;0.5161;1.2389;
1166.1000;0.5144;1.2316;
1166.4000;0.5128;1.2316;
1166.7000;0.5177;1.2365;
1167.0000;0.5153;1.2365;
1167.3000;0.5169;1.2414;
1167.6000;0.5153;1.2389;
1167.9000;0.5161;1.2340;
1168.2000;0.5161;1.2389;
1168.5000;0.5169;1.2463;
1168.8000;0.5153;1.2414;
1169.1000;0.5153;1.2365;
1169.4000;0.5169;1.2340;
1169.7000;0.5144;1.2316;
1170.0000;0.5112;1.2218;
1170.3000;0.5161;1.2365;
1170.6000;0.5153;1.2243;
1170.9000;0.5177;1.2316;
1171.2000;0.5161;1.2340;
1171.5000;0.5153;1.2316;
1171.8000;0.5185;1.2389;
1172.1000;0.5177;1.2512;
1172.4000;0.5153;1.2487;
1172.7000;0.5169;1.2536;
1173.0000;0.5169;1.2512;
1173.3000;0.5153;1.2487;
1173.6000;0.5161;1.2610;
1173.9000;0.5153;1.2634;
1174.2000;0.5169;1.2683;
1174.5000;0.5144;1.2512;
1174.8000;0.5153;1.2463;
1175.1000;0.5161;1.2536;
1175.4000;0.5161;1.2536;
1175.7000;0.5153;1.2585;
1176.0000;0.5153;1.2659;
1176.3000;0.5144;1.2634;
1176.6000;0.5144;1.2463;
1176.9000;0.5169;1.2512;
1177.2000;0.5169;1.2512;
1177.5000;0.5161;1.2487;
1177.8000;0.5169;1.2463;
1178.1000;0.5161;1.2365;
1178.4000;0.5144;1.2267;
1178.7000;0.5144;1.2243;
1179.0000;0.5161;1.2316;
1179.3000;0.5169;1.2365;
1179.6000;0.5136;1.2291;
1179.9000;0.5169;1.2340;
1180.2000;0.5120;1.2145;
1180.5000;0.5161;1.2243;
1180.8000;0.5169;1.2316;
1181.1000;0.5128;1.2243;
1181.4000;0.5144;1.2316;
1181.7000;0.5161;1.2414;
1182.0000;0.5161;1.2414;
1182.3000;0.5226;1.2561;
1182.6000;0.5169;1.2340;
1182.9000;0.5177;1.2438;
1183.2000;0.5177;1.2512;
1183.5000;0.5161;1.2512;
1183.8000;0.5153;1.2561;
1184.1000;0.5226;1.2683;
1184.4000;0.5169;1.2438;
1184.7000;0.5169;1.2512;
1185.0000;0.5144;1.2414;
1185.3000;0.5161;1.2536;
1185.6000;0.5153;1.2512;
1185.9000;0.5161;1.2536;
1186.2000;0.5177;1.2536;
1186.5000;0.5144;1.2438;
1186.8000;0.5153;1.2389;
1187.1000;0.5161;1.2389;
1187.4000;0.5153;1.2414;
1187.7000;0.5161;1.2438;
1188.0000;0.5161;1.2414;
1188.3000;0.5177;1.2414;
1188.6000;0.5153;1.2291;
1188.9000;0.5153;1.2291;
1189.2000;0.5250;1.2512;
1189.5000;0.5169;1.2291;
1189.8000;0.5169;1.2316;
1190.1000;0.5153;1.2291;
1190.4000;0.5136;1.2267;
1190.7000;0.5161;1.2389;
1191.0000;0.5144;1.2340;
1191.3000;0.5153;1.2340;
1191.6000;0.5144;1.2365;
1191.9000;0.5112;1.2243;
1192.2000;0.5169;1.2389;
1192.5000;0.5144;1.2340;
1192.8000;0.5079;1.2169;
1193.1000;0.5169;1.2389;
1193.4000;0.5161;1.2487;
1193.7000;0.5104;1.2340;
1194.0000;0.5136;1.2487;
1194.3000;0.5144;1.2463;
1194.6000;0.5153;1.2512;
1194.9000;0.5169;1.2487;
1195.2000;0.5128;1.2365;
1195.5000;0.5144;1.2316;
1195.8000;0.5161;1.2316;
1196.1000;0.5153;1.2218;
1196.4000;0.5144;1.2218;
1196.7000;0.5153;1.2243;
1197.0000;0.5136;1.2243;
1197.3000;0.5185;1.2414;
1197.6000;0.5169;1.2267;
1197.9000;0.5161;1.2218;
1198.2000;0.5169;1.2267;
1198.5000;0.5169;1.2414;
1198.8000;0.5144;1.2291;
1199.1000;0.5226;1.2585;
1199.4000;0.5153;1.2291;
1199.7000;0.5169;1.2291;
1200.0000;0.5144;1.2316;
1200.3000;0.5161;1.2340;
1200.6000;0.5153;1.2267;
1200.9000;0.5169;1.2291;
1201.2000;0.5185;1.2243;
1201.5000;0.5153;1.2267;
1201.8000;0.5161;1.2316;
1202.1000;0.5177;1.2365;
1202.4000;0.5169;1.2389;
1202.7000;0.5161;1.2340;
1203.0000;0.5161;1.2316;
1203.3000;0.5161;1.2267;
1203.6000;0.5161;1.2169;
1203.9000;0.5144;1.2169;
1204.2000;0.5104;1.1924;
1204.5000;0.5153;1.2047;
1204.8000;0.5153;1.2022;
1205.1000;0.5161;1.1998;
1205.4000;0.5161;1.2071;
1205.7000;0.5153;1.2120;
1206.0000;0.5153;1.2145;
1206.3000;0.5136;1.2145;
1206.6000;0.5153;1.2169;
1206.9000;0.5104;1.2071;
1207.2000;0.5136;1.2071;
1207.5000;0.5144;1.2071;
1207.8000;0.5161;1.1973;
1208.1000;0.5169;1.2120;
1208.4000;0.5161;1.2096;
1208.7000;0.5169;1.2120;
1209.0000;0.5161;1.2047;
1209.3000;0.5153;1.2120;
1209.6000;0.5153;1.2145;
1209.9000;0.5153;1.2096;
1210.2000;0.5153;1.2047;
1210.5000;0.5144;1.1973;
1210.8000;0.5161;1.2047;
1211.1000;0.5144;1.2022;
1211.4000;0.5153;1.2120;
1211.7000;0.5153;1.2145;
1212.0000;0.5153;1.2194;
1212.3000;0.5112;1.2047;
1212.6000;0.5161;1.2145;
1212.9000;0.5161;1.2145;
1213.2000;0.5153;1.2169;
1213.5000;0.5153;1.2194;
1213.8000;0.5161;1.2291;
1214.1000;0.5169;1.2340;
1214.4000;0.5161;1.2389;
1214.7000;0.5136;1.2291;
1215.0000;0.5153;1.2316;
1215.3000;0.5153;1.2267;
1215.6000;0.5144;1.2120;
1215.9000;0.5144;1.2071;
1216.2000;0.5177;1.2145;
1216.5000;0.5161;1.2120;
1216.8000;0.5144;1.2071;
1217.1000;0.5153;1.2120;
1217.4000;0.5161;1.2096;
1217.7000;0.5153;1.2145;
1218.0000;0.5153;1.2120;
1218.3000;0.5169;1.2071;
1218.6000;0.5169;1.1998;
1218.9000;0.5177;1.2022;
1219.2000;0.5153;1.1900;
1219.5000;0.5153;1.1924;
1219.8000;0.5144;1.1900;
1220.1000;0.5161;1.1949;
1220.4000;0.5161;1.1900;
1220.7000;0.5153;1.1998;
1221.0000;0.5161;1.2022;
1221.3000;0.5169;1.2047;
1221.6000;0.5161;1.2071;
1221.9000;0.5153;1.2120;
1222.2000;0.5136;1.2169;
1222.5000;0.5144;1.2194;
1222.8000;0.5153;1.2267;
1223.1000;0.5169;1.2218;
1223.4000;0.5153;1.2145;
1223.7000;0.5136;1.1998;
1224.0000;0.5161;1.1998;
1224.3000;0.5136;1.1998;
1224.6000;0.5169;1.2071;
1224.9000;0.5161;1.1998;
1225.2000;0.5161;1.1998;
1225.5000;0.5153;1.2022;
1225.8000;0.5169;1.1998;
1226.1000;0.5153;1.1973;
1226.4000;0.5161;1.2022;
1226.7000;0.5161;1.2071;
1227.0000;0.5153;1.2120;
1227.3000;0.5153;1.2169;
1227.6000;0.5161;1.2145;
1227.9000;0.5161;1.2145;
1228.2000;0.5177;1.2169;
1228.5000;0.5144;1.2145;
1228.8000;0.5153;1.2243;
1229.1000;0.5169;1.2194;
1229.4000;0.5210;1.2267;
1229.7000;0.5144;1.2120;
1230.0000;0.5153;1.2194;
1230.3000;0.5153;1.2047;
1230.6000;0.5193;1.2218;
1230.9000;0.5128;1.2096;
1231.2000;0.5128;1.2096;
1231.5000;0.5144;1.2096;
1231.8000;0.5177;1.2145;
1232.1000;0.5153;1.2145;
1232.4000;0.5144;1.2145;
1232.7000;0.5185;1.2218;
1233.0000;0.5153;1.2145;
1233.3000;0.5153;1.2120;
1233.6000;0.5144;1.2194;
1233.9000;0.5161;1.2267;
1234.2000;0.5161;1.2291;
1234.5000;0.5153;1.2243;
1234.8000;0.5153;1.2120;
1235.1000;0.5144;1.2096;
1235.4000;0.5153;1.2096;
1235.7000;0.5193;1.2291;
1236.0000;0.5153;1.2267;
1236.3000;0.5153;1.2243;
1236.6000;0.5161;1.2194;
1236.9000;0.5169;1.2169;
1237.2000;0.5161;1.2218;
1237.5000;0.5144;1.2145;
1237.8000;0.5161;1.2194;
1238.1000;0.5120;1.2120;
1238.4000;0.5153;1.2145;
1238.7000;0.5144;1.2022;
1239.0000;0.5169;1.1949;
1239.3000;0.5169;1.1973;
1239.6000;0.5153;1.1998;
1239.9000;0.5161;1.1998;
1240.2000;0.5169;1.2022;
1240.5000;0.5144;1.1924;
1240.8000;0.5161;1.1949;
1241.1000;0.5136;1.1924;
1241.4000;0.5153;1.1998;
1241.7000;0.5120;1.1924;
1242.0000;0.5088;1.1924;
1242.3000;0.5153;1.2145;
1242.6000;0.5177;1.2218;
1242.9000;0.5193;1.2145;
1243.2000;0.5161;1.2096;
1243.5000;0.5120;1.1973;
1243.8000;0.5144;1.1875;
1244.1000;0.5153;1.1875;
1244.4000;0.5161;1.1924;
1244.7000;0.5193;1.2022;
1245.0000;0.5153;1.2022;
1245.3000;0.5153;1.2096;
1245.6000;0.5193;1.2243;
1245.9000;0.5161;1.2267;
1246.2000;0.5136;1.2194;
1246.5000;0.5153;1.2243;
1246.8000;0.5144;1.2340;
1247.1000;0.5161;1.2365;
1247.4000;0.5177;1.2389;
1247.7000;0.5161;1.2267;
1248.0000;0.5161;1.2267;
1248.3000;0.5161;1.2169;
1248.6000;0.5161;1.2169;
1248.9000;0.5169;1.2145;
1249.2000;0.5161;1.2096;
1249.5000;0.5136;1.1949;
1249.8000;0.5144;1.1998;
1250.1000;0.5161;1.1949;
1250.4000;0.5153;1.1851;
1250.7000;0.5153;1.1949;
1251.0000;0.5161;1.1949;
1251.3000;0.5088;1.1753;
1251.6000;0.5161;1.1924;
1251.9000;0.5153;1.1973;
1252.2000;0.5136;1.2047;
1252.5000;0.5153;1.2096;
1252.8000;0.5128;1.1949;
1253.1000;0.5144;1.1973;
1253.4000;0.5161;1.2145;
1253.7000;0.5161;1.2218;
1254.0000;0.5144;1.2047;
1254.3000;0.5153;1.2047;
1254.6000;0.5177;1.2071;
1254.9000;0.5161;1.2096;
1255.2000;0.5144;1.2169;
1255.5000;0.5161;1.2120;
1255.8000;0.5153;1.2096;
1256.1000;0.5136;1.2096;
1256.4000;0.5185;1.2145;
1256.7000;0.5169;1.2145;
1257.0000;0.5161;1.2120;
1257.3000;0.5153;1.2145;
1257.6000;0.5144;1.2096;
1257.9000;0.5153;1.1973;
1258.2000;0.5096;1.1826;
1258.5000;0.5177;1.1973;
1258.8000;0.5169;1.2022;
1259.1000;0.5144;1.2047;
1259.4000;0.5185;1.2145;
1259.7000;0.5153;1.2071;
1260.0000;0.5136;1.1998;
1260.3000;0.5144;1.2071;
1260.6000;0.5153;1.2096;
1260.9000;0.5136;1.1973;
1261.2000;0.5161;1.2071;
1261.5000;0.5144;1.2047;
1261.8000;0.5144;1.1949;
1262.1000;0.5153;1.1973;
1262.4000;0.5153;1.1973;
1262.7000;0.5153;1.1949;
1263.0000;0.5153;1.1998;
1263.3000;0.5169;1.2071;
1263.6000;0.5169;1.2145;
1263.9000;0.5161;1.2145;
1264.2000;0.5153;1.2194;
1264.5000;0.5128;1.2145;
1264.8000;0.5185;1.2291;
1265.1000;0.5169;1.2267;
1265.4000;0.5161;1.2291;
1265.7000;0.5153;1.2243;
1266.0000;0.5120;1.2096;
1266.3000;0.5153;1.2291;
1266.6000;0.5177;1.2267;
1266.9000;0.5153;1.2194;
1267.2000;0.5169;1.2218;
1267.5000;0.5161;1.2218;
1267.8000;0.5144;1.2218;
1268.1000;0.5153;1.2218;
1268.4000;0.5153;1.2194;
1268.7000;0.5153;1.2218;
1269.0000;0.5161;1.2194;
1269.3000;0.5144;1.2169;
1269.6000;0.5169;1.2243;
1269.9000;0.5128;1.2218;
1270.2000;0.5169;1.2267;
1270.5000;0.5153;1.2267;
1270.8000;0.5128;1.2169;
1271.1000;0.5136;1.2194;
1271.4000;0.5144;1.2145;
1271.7000;0.5144;1.2120;
1272.0000;0.5144;1.2145;
1272.3000;0.5136;1.2120;
1272.6000;0.5136;1.2071;
1272.9000;0.5144;1.1973;
1273.2000;0.5153;1.1973;
1273.5000;0.5161;1.2047;
1273.8000;0.5153;1.1973;
1274.1000;0.5153;1.1973;
1274.4000;0.5144;1.1875;
1274.7000;0.5177;1.2022;
1275.0000;0.5153;1.1924;
1275.3000;0.5169;1.1973;
1275.6000;0.5153;1.1998;
1275.9000;0.5144;1.2047;
1276.2000;0.5144;1.2047;
1276.5000;0.5153;1.2096;
1276.8000;0.5136;1.2145;
1277.1000;0.5161;1.2243;
1277.4000;0.5161;1.2243;
1277.7000;0.5153;1.2145;
1278.0000;0.5161;1.2194;
1278.3000;0.5144;1.2145;
1278.6000;0.5169;1.2145;
1278.9000;0.5161;1.2218;
1279.2000;0.5169;1.2243;
1279.5000;0.5153;1.2243;
1279.8000;0.5153;1.2243;
1280.1000;0.5169;1.2267;
1280.4000;0.5161;1.2291;
1280.7000;0.5144;1.2267;
1281.0000;0.5161;1.2243;
1281.3000;0.5128;1.2169;
1281.6000;0.5161;1.2218;
1281.9000;0.5144;1.2169;
1282.2000;0.5185;1.2365;
1282.5000;0.5153;1.2145;
1282.8000;0.5136;1.2120;
1283.1000;0.5153;1.2145;
1283.4000;0.5112;1.1998;
1283.7000;0.5161;1.2169;
1284.0000;0.5144;1.2194;
1284.3000;0.5128;1.2145;
1284.6000;0.5128;1.2169;
1284.9000;0.5144;1.2218;
1285.2000;0.5169;1.2291;
1285.5000;0.5153;1.2365;
1285.8000;0.5144;1.2438;
1286.1000;0.5128;1.2414;
1286.4000;0.5161;1.2463;
1286.7000;0.5144;1.2414;
1287.0000;0.5161;1.2389;
1287.3000;0.5144;1.2365;
1287.6000;0.5153;1.2267;
1287.9000;0.5144;1.2243;
1288.2000;0.5169;1.2316;
1288.5000;0.5144;1.2218;
1288.8000;0.5144;1.2169;
1289.1000;0.5144;1.2218;
1289.4000;0.5144;1.2145;
1289.7000;0.5153;1.2194;
1290.0000;0.5161;1.2291;
1290.3000;0.5169;1.2218;
1290.6000;0.5161;1.2120;
1290.9000;0.5153;1.2047;
1291.2000;0.5153;1.2120;
1291.5000;0.5161;1.2120;
1291.8000;0.5153;1.2047;
1292.1000;0.5144;1.2022;
1292.4000;0.5153;1.2022;
1292.7000;0.5153;1.2096;
1293.0000;0.5153;1.2145;
1293.3000;0.5161;1.2194;
1293.6000;0.5144;1.2120;
1293.9000;0.5088;1.1973;
1294.2000;0.5153;1.2169;
1294.5000;0.5258;1.2389;
1294.8000;0.5153;1.2071;
1295.1000;0.5169;1.2194;
1295.4000;0.5153;1.2096;
1295.7000;0.5169;1.2145;
1296.0000;0.5153;1.2071;
1296.3000;0.5088;1.1973;
1296.6000;0.5153;1.2218;
1296.9000;0.5161;1.2169;
1297.2000;0.5112;1.2022;
1297.5000;0.5128;1.2145;
1297.8000;0.5128;1.2218;
1298.1000;0.5136;1.2291;
1298.4000;0.5144;1.2267;
1298.7000;0.5136;1.2218;
1299.0000;0.5161;1.2316;
1299.3000;0.5161;1.2365;
1299.6000;0.5210;1.2438;
1299.9000;0.5210;1.2389;
1300.2000;0.5169;1.2316;
1300.5000;0.5161;1.2316;
1300.8000;0.5177;1.2316;
1301.1000;0.5144;1.2218;
1301.4000;0.5144;1.2145;
1301.7000;0.5153;1.2218;
1302.0000;0.5153;1.2145;
1302.3000;0.5136;1.2120;
1302.6000;0.5128;1.2071;
1302.9000;0.5144;1.2071;
1303.2000;0.5169;1.2145;
1303.5000;0.5144;1.2145;
1303.8000;0.5128;1.2120;
1304.1000;0.5144;1.2096;
1304.4000;0.5153;1.2120;
1304.7000;0.5193;1.2291;
1305.0000;0.5144;1.2218;
1305.3000;0.5136;1.2169;
1305.6000;0.5161;1.2218;
1305.9000;0.5136;1.2145;
1306.2000;0.5153;1.2194;
1306.5000;0.5144;1.2194;
1306.8000;0.5169;1.2194;
1307.1000;0.5161;1.2218;
1307.4000;0.5144;1.2120;
1307.7000;0.5136;1.2120;
1308.0000;0.5153;1.2096;
1308.3000;0.5153;1.2096;
1308.6000;0.5161;1.2120;
1308.9000;0.5161;1.2145;
1309.2000;0.5153;1.2145;
1309.5000;0.5144;1.2071;
1309.8000;0.5144;1.2194;
1310.1000;0.5144;1.2291;
1310.4000;0.5153;1.2218;
1310.7000;0.5161;1.2243;
1311.0000;0.5153;1.2145;
1311.3000;0.5144;1.2096;
1311.6000;0.5153;1.2071;
1311.9000;0.5161;1.2194;
1312.2000;0.5169;1.2267;
1312.5000;0.5218;1.2512;
1312.8000;0.5144;1.2267;
1313.1000;0.5169;1.2267;
1313.4000;0.5153;1.2194;
1313.7000;0.5161;1.2145;
1314.0000;0.5136;1.2120;
1314.3000;0.5136;1.2145;
1314.6000;0.5153;1.2145;
1314.9000;0.5144;1.2243;
1315.2000;0.5153;1.2194;
1315.5000;0.5153;1.2218;
1315.8000;0.5120;1.2022;
1316.1000;0.5161;1.2120;
1316.4000;0.5144;1.2096;
1316.7000;0.5153;1.2243;
1317.0000;0.5161;1.2218;
1317.3000;0.5144;1.2218;
1317.6000;0.5144;1.2169;
1317.9000;0.5144;1.2169;
1318.2000;0.5185;1.2267;
1318.5000;0.5136;1.2243;
1318.8000;0.5177;1.2243;
1319.1000;0.5161;1.2218;
1319.4000;0.5153;1.2120;
1319.7000;0.5153;1.2120;
1320.0000;0.5161;1.2169;
1320.3000;0.5161;1.2194;
1320.6000;0.5144;1.2194;
1320.9000;0.5153;1.2218;
1321.2000;0.5161;1.2218;
1321.5000;0.5136;1.2194;
1321.8000;0.5153;1.2194;
1322.1000;0.5136;1.2194;
1322.4000;0.5136;1.2194;
1322.7000;0.5136;1.2194;
1323.0000;0.5144;1.2169;
1323.3000;0.5161;1.2218;
1323.6000;0.5153;1.2169;
1323.9000;0.5153;1.2243;
1324.2000;0.5144;1.2218;
1324.5000;0.5153;1.2243;
1324.8000;0.5153;1.2194;
1325.1000;0.5161;1.2218;
1325.4000;0.5161;1.2291;
1325.7000;0.5169;1.2389;
1326.0000;0.5161;1.2365;
1326.3000;0.5136;1.2389;
1326.6000;0.5144;1.2340;
1326.9000;0.5153;1.2267;
1327.2000;0.5161;1.2218;
1327.5000;0.5169;1.2218;
1327.8000;0.5136;1.2145;
1328.1000;0.5210;1.2316;
1328.4000;0.5144;1.2218;
1328.7000;0.5161;1.2267;
1329.0000;0.5128;1.2071;
1329.3000;0.5144;1.2047;
1329.6000;0.5153;1.1998;
1329.9000;0.5161;1.2120;
1330.2000;0.5153;1.2169;
1330.5000;0.5161;1.2194;
1330.8000;0.5153;1.2169;
1331.1000;0.5177;1.2218;
1331.4000;0.5136;1.2169;
1331.7000;0.5153;1.2120;
1332.0000;0.5128;1.2096;
1332.3000;0.5169;1.2194;
1332.6000;0.5161;1.2120;
1332.9000;0.5161;1.2120;
1333.2000;0.5144;1.2145;
1333.5000;0.5153;1.2169;
1333.8000;0.5153;1.2169;
1334.1000;0.5153;1.2267;
1334.4000;0.5144;1.2096;
1334.7000;0.5136;1.2169;
1335.0000;0.5136;1.2145;
1335.3000;0.5153;1.2291;
1335.6000;0.5136;1.2291;
1335.9000;0.5136;1.2243;
1336.2000;0.5136;1.2243;
1336.5000;0.5153;1.2243;
1336.8000;0.5161;1.2267;
1337.1000;0.5161;1.2267;
1337.4000;0.5153;1.2291;
1337.7000;0.5169;1.2267;
1338.0000;0.5144;1.2218;
1338.3000;0.5136;1.2243;
1338.6000;0.5144;1.2291;
1338.9000;0.5161;1.2487;
1339.2000;0.5144;1.2512;
1339.5000;0.5144;1.2438;
1339.8000;0.5136;1.2389;
1340.1000;0.5144;1.2365;
1340.4000;0.5153;1.2414;
1340.7000;0.5144;1.2365;
1341.0000;0.5153;1.2389;
1341.3000;0.5136;1.2340;
1341.6000;0.5169;1.2389;
1341.9000;0.5153;1.2316;
1342.2000;0.5104;1.2218;
1342.5000;0.5153;1.2291;
1342.8000;0.5153;1.2340;
1343.1000;0.5144;1.2316;
1343.4000;0.5136;1.2218;
1343.7000;0.5161;1.2316;
1344.0000;0.5144;1.2267;
1344.3000;0.5153;1.2389;
1344.6000;0.5153;1.2414;
1344.9000;0.5144;1.2438;
1345.2000;0.5144;1.2365;
1345.5000;0.5153;1.2389;
1345.8000;0.5210;1.2463;
1346.1000;0.5153;1.2291;
1346.4000;0.5161;1.2316;
1346.7000;0.5169;1.2316;
1347.0000;0.5136;1.2267;
1347.3000;0.5153;1.2389;
1347.6000;0.5161;1.2438;
1347.9000;0.5112;1.2414;
1348.2000;0.5136;1.2438;
1348.5000;0.5144;1.2487;
1348.8000;0.5153;1.2512;
1349.1000;0.5144;1.2438;
1349.4000;0.5144;1.2463;
1349.7000;0.5185;1.2512;
1350.0000;0.5185;1.2536;
1350.3000;0.5136;1.2414;
1350.6000;0.5234;1.2512;
1350.9000;0.5136;1.2389;
1351.2000;0.5169;1.2438;
1351.5000;0.5153;1.2365;
1351.8000;0.5128;1.2316;
1352.1000;0.5144;1.2365;
1352.4000;0.5161;1.2316;
1352.7000;0.5177;1.2365;
1353.0000;0.5153;1.2316;
1353.3000;0.5144;1.2316;
1353.6000;0.5144;1.2267;
1353.9000;0.5144;1.2267;
1354.2000;0.5153;1.2243;
1354.5000;0.5153;1.2218;
1354.8000;0.5144;1.2194;
1355.1000;0.5144;1.2243;
1355.4000;0.5161;1.2316;
1355.7000;0.5177;1.2536;
1356.0000;0.5144;1.2487;
1356.3000;0.5161;1.2512;
1356.6000;0.5169;1.2512;
1356.9000;0.5128;1.2463;
1357.2000;0.5161;1.2438;
1357.5000;0.5161;1.2389;
1357.8000;0.5161;1.2365;
1358.1000;0.5153;1.2414;
1358.4000;0.5161;1.2463;
1358.7000;0.5136;1.2438;
1359.0000;0.5169;1.2463;
1359.3000;0.5153;1.2487;
1359.6000;0.5144;1.2487;
1359.9000;0.5136;1.2414;
1360.2000;0.5112;1.2389;
1360.5000;0.5120;1.2365;
1360.8000;0.5161;1.2438;
1361.1000;0.5161;1.2267;
1361.4000;0.5161;1.2316;
1361.7000;0.5136;1.2243;
1362.0000;0.5177;1.2389;
1362.3000;0.5153;1.2340;
1362.6000;0.5112;1.2291;
1362.9000;0.5153;1.2365;
1363.2000;0.5136;1.2316;
1363.5000;0.5144;1.2316;
1363.8000;0.5161;1.2438;
1364.1000;0.5144;1.2389;
1364.4000;0.5153;1.2291;
1364.7000;0.5144;1.2218;
1365.0000;0.5144;1.2316;
1365.3000;0.5120;1.2267;
1365.6000;0.5153;1.2316;
1365.9000;0.5144;1.2291;
1366.2000;0.5153;1.2340;
1366.5000;0.5136;1.2316;
1366.8000;0.5144;1.2389;
1367.1000;0.5169;1.2340;
1367.4000;0.5153;1.2389;
1367.7000;0.5226;1.2610;
1368.0000;0.5153;1.2463;
1368.3000;0.5144;1.2463;
1368.6000;0.5144;1.2414;
1368.9000;0.5153;1.2340;
1369.2000;0.5112;1.2145;
1369.5000;0.5161;1.2365;
1369.8000;0.5161;1.2414;
1370.1000;0.5144;1.2438;
1370.4000;0.5161;1.2463;
1370.7000;0.5153;1.2463;
1371.0000;0.5144;1.2463;
1371.3000;0.5144;1.2463;
1371.6000;0.5161;1.2536;
1371.9000;0.5161;1.2610;
1372.2000;0.5153;1.2610;
1372.5000;0.5153;1.2438;
1372.8000;0.5120;1.2389;
1373.1000;0.5153;1.2389;
1373.4000;0.5112;1.2365;
1373.7000;0.5161;1.2463;
1374.0000;0.5153;1.2414;
1374.3000;0.5120;1.2291;
1374.6000;0.5153;1.2414;
1374.9000;0.5136;1.2340;
1375.2000;0.5177;1.2487;
1375.5000;0.5153;1.2414;
1375.8000;0.5144;1.2463;
1376.1000;0.5144;1.2463;
1376.4000;0.5218;1.2536;
1376.7000;0.5144;1.2316;
1377.0000;0.5161;1.2365;
1377.3000;0.5153;1.2267;
1377.6000;0.5153;1.2243;
1377.9000;0.5161;1.2267;
1378.2000;0.5177;1.2365;
1378.5000;0.5153;1.2365;
1378.8000;0.5161;1.2316;
1379.1000;0.5136;1.2291;
1379.4000;0.5153;1.2340;
1379.7000;0.5153;1.2316;
1380.0000;0.5128;1.2218;
1380.3000;0.5144;1.2316;
1380.6000;0.5153;1.2365;
1380.9000;0.5169;1.2414;
1381.2000;0.5144;1.2365;
1381.5000;0.5153;1.2365;
1381.8000;0.5153;1.2340;
1382.1000;0.5144;1.2267;
1382.4000;0.5136;1.2218;
1382.7000;0.5128;1.2218;
1383.0000;0.5153;1.2267;
1383.3000;0.5144;1.2267;
1383.6000;0.5104;1.2120;
1383.9000;0.5153;1.2267;
1384.2000;0.5153;1.2267;
1384.5000;0.5153;1.2218;
1384.8000;0.5144;1.2243;
1385.1000;0.5128;1.2243;
1385.4000;0.5136;1.2243;
1385.7000;0.5144;1.2218;
1386.0000;0.5128;1.2120;
1386.3000;0.5144;1.2194;
1386.6000;0.5128;1.2096;
1386.9000;0.5136;1.2120;
1387.2000;0.5153;1.2194;
1387.5000;0.5136;1.2120;
1387.8000;0.5153;1.2218;
1388.1000;0.5153;1.2243;
1388.4000;0.5153;1.2316;
1388.7000;0.5144;1.2267;
1389.0000;0.5144;1.2291;
1389.3000;0.5153;1.2291;
1389.6000;0.5161;1.2316;
1389.9000;0.5128;1.2194;
1390.2000;0.5185;1.2316;
1390.5000;0.5079;1.2096;
1390.8000;0.5153;1.2316;
1391.1000;0.5161;1.2340;
1391.4000;0.5161;1.2365;
1391.7000;0.5136;1.2316;
1392.0000;0.5153;1.2438;
1392.3000;0.5153;1.2463;
1392.6000;0.5161;1.2463;
1392.9000;0.5120;1.2389;
1393.2000;0.5112;1.2365;
1393.5000;0.5144;1.2414;
1393.8000;0.5136;1.2414;
1394.1000;0.5161;1.2389;
1394.4000;0.5161;1.2389;
1394.7000;0.5153;1.2414;
1395.0000;0.5161;1.2316;
1395.3000;0.5153;1.2291;
1395.6000;0.5185;1.2340;
1395.9000;0.5144;1.2365;
1396.2000;0.5153;1.2389;
1396.5000;0.5153;1.2414;
1396.8000;0.5144;1.2340;
1397.1000;0.5153;1.2316;
1397.4000;0.5153;1.2291;
1397.7000;0.5136;1.2169;
1398.0000;0.5161;1.2169;
1398.3000;0.5161;1.2145;
1398.6000;0.5144;1.2120;
1398.9000;0.5153;1.2194;
1399.2000;0.5169;1.2194;
1399.5000;0.5153;1.2145;
1399.8000;0.5144;1.2169;
