time/ms;Fluo/V;P700 deltaI/I x10³;
-199.8000;0.2108;7.0122;
-199.5000;0.2214;7.0425;
-199.2000;0.2206;7.0332;
-198.9000;0.2222;7.0401;
-198.6000;0.2173;7.0332;
-198.3000;0.2182;7.0332;
-198.0000;0.2222;7.0448;
-197.7000;0.2190;7.0332;
-197.4000;0.2247;7.0541;
-197.1000;0.2279;7.0588;
-196.8000;0.2198;7.0378;
-196.5000;0.2206;7.0425;
-196.2000;0.2206;7.0448;
-195.9000;0.2222;7.0541;
-195.6000;0.2206;7.0588;
-195.3000;0.2214;7.0611;
-195.0000;0.2214;7.0541;
-194.7000;0.2100;7.0401;
-194.4000;0.2222;7.0658;
-194.1000;0.2206;7.0495;
-193.8000;0.2214;7.0518;
-193.5000;0.2182;7.0448;
-193.2000;0.2206;7.0588;
-192.9000;0.2206;7.0565;
-192.6000;0.2214;7.0658;
-192.3000;0.2198;7.0658;
-192.0000;0.2190;7.0611;
-191.7000;0.2214;7.0565;
-191.4000;0.2239;7.0518;
-191.1000;0.2173;7.0401;
-190.8000;0.2182;7.0448;
-190.5000;0.2198;7.0471;
-190.2000;0.2157;7.0378;
-189.9000;0.2206;7.0495;
-189.6000;0.2198;7.0495;
-189.3000;0.2222;7.0634;
-189.0000;0.2133;7.0401;
-188.7000;0.2198;7.0518;
-188.4000;0.2190;7.0471;
-188.1000;0.2206;7.0541;
-187.8000;0.2190;7.0425;
-187.5000;0.2182;7.0448;
-187.2000;0.2173;7.0378;
-186.9000;0.2206;7.0495;
-186.6000;0.2239;7.0495;
-186.3000;0.2222;7.0495;
-186.0000;0.2198;7.0448;
-185.7000;0.2173;7.0448;
-185.4000;0.2198;7.0518;
-185.1000;0.2190;7.0495;
-184.8000;0.2239;7.0611;
-184.5000;0.2263;7.0774;
-184.2000;0.2206;7.0634;
-183.9000;0.2230;7.0611;
-183.6000;0.2214;7.0518;
-183.3000;0.2230;7.0541;
-183.0000;0.2263;7.0634;
-182.7000;0.2271;7.0658;
-182.4000;0.2190;7.0495;
-182.1000;0.2165;7.0355;
-181.8000;0.2206;7.0401;
-181.5000;0.2222;7.0425;
-181.2000;0.2230;7.0518;
-180.9000;0.2190;7.0495;
-180.6000;0.2206;7.0495;
-180.3000;0.2173;7.0425;
-180.0000;0.2165;7.0308;
-179.7000;0.2247;7.0518;
-179.4000;0.2198;7.0401;
-179.1000;0.2092;7.0168;
-178.8000;0.2182;7.0401;
-178.5000;0.2141;7.0355;
-178.2000;0.2206;7.0471;
-177.9000;0.2206;7.0401;
-177.6000;0.2173;7.0262;
-177.3000;0.2206;7.0355;
-177.0000;0.2182;7.0355;
-176.7000;0.2222;7.0448;
-176.4000;0.2173;7.0285;
-176.1000;0.2149;7.0285;
-175.8000;0.2198;7.0401;
-175.5000;0.2198;7.0355;
-175.2000;0.2255;7.0518;
-174.9000;0.2295;7.0751;
-174.6000;0.2190;7.0495;
-174.3000;0.2239;7.0518;
-174.0000;0.2206;7.0425;
-173.7000;0.2230;7.0495;
-173.4000;0.2214;7.0425;
-173.1000;0.2214;7.0448;
-172.8000;0.2214;7.0401;
-172.5000;0.2214;7.0355;
-172.2000;0.2198;7.0425;
-171.9000;0.2222;7.0518;
-171.6000;0.2206;7.0518;
-171.3000;0.2239;7.0541;
-171.0000;0.2255;7.0588;
-170.7000;0.2230;7.0611;
-170.4000;0.2230;7.0681;
-170.1000;0.2206;7.0611;
-169.8000;0.2190;7.0611;
-169.5000;0.2198;7.0658;
-169.2000;0.2182;7.0681;
-168.9000;0.2230;7.0751;
-168.6000;0.2214;7.0658;
-168.3000;0.2230;7.0611;
-168.0000;0.2255;7.0728;
-167.7000;0.2214;7.0634;
-167.4000;0.2198;7.0518;
-167.1000;0.2157;7.0308;
-166.8000;0.2206;7.0401;
-166.5000;0.2190;7.0285;
-166.2000;0.2190;7.0332;
-165.9000;0.2206;7.0355;
-165.6000;0.2190;7.0401;
-165.3000;0.2222;7.0565;
-165.0000;0.2239;7.0565;
-164.7000;0.2279;7.0611;
-164.4000;0.2230;7.0471;
-164.1000;0.2190;7.0308;
-163.8000;0.2222;7.0308;
-163.5000;0.2165;7.0215;
-163.2000;0.2214;7.0262;
-162.9000;0.2198;7.0355;
-162.6000;0.2182;7.0262;
-162.3000;0.2190;7.0192;
-162.0000;0.2214;7.0308;
-161.7000;0.2206;7.0262;
-161.4000;0.2222;7.0332;
-161.1000;0.2239;7.0565;
-160.8000;0.2165;7.0401;
-160.5000;0.2190;7.0518;
-160.2000;0.2198;7.0471;
-159.9000;0.2247;7.0541;
-159.6000;0.2214;7.0541;
-159.3000;0.2125;7.0332;
-159.0000;0.2190;7.0565;
-158.7000;0.2287;7.0704;
-158.4000;0.2239;7.0611;
-158.1000;0.2198;7.0448;
-157.8000;0.2230;7.0565;
-157.5000;0.2206;7.0425;
-157.2000;0.2198;7.0332;
-156.9000;0.2190;7.0401;
-156.6000;0.2198;7.0401;
-156.3000;0.2198;7.0518;
-156.0000;0.2271;7.0634;
-155.7000;0.2214;7.0495;
-155.4000;0.2198;7.0471;
-155.1000;0.2206;7.0401;
-154.8000;0.2214;7.0495;
-154.5000;0.2190;7.0425;
-154.2000;0.2206;7.0378;
-153.9000;0.2198;7.0471;
-153.6000;0.2198;7.0448;
-153.3000;0.2198;7.0425;
-153.0000;0.2198;7.0448;
-152.7000;0.2165;7.0378;
-152.4000;0.2173;7.0378;
-152.1000;0.2182;7.0355;
-151.8000;0.2190;7.0285;
-151.5000;0.2206;7.0262;
-151.2000;0.2206;7.0262;
-150.9000;0.2133;7.0052;
-150.6000;0.2247;7.0355;
-150.3000;0.2190;7.0332;
-150.0000;0.2190;7.0332;
-149.7000;0.2190;7.0401;
-149.4000;0.2198;7.0565;
-149.1000;0.2206;7.0518;
-148.8000;0.2206;7.0495;
-148.5000;0.2149;7.0355;
-148.2000;0.2190;7.0471;
-147.9000;0.2182;7.0518;
-147.6000;0.2198;7.0471;
-147.3000;0.2182;7.0425;
-147.0000;0.2182;7.0471;
-146.7000;0.2190;7.0541;
-146.4000;0.2247;7.0728;
-146.1000;0.2222;7.0634;
-145.8000;0.2198;7.0518;
-145.5000;0.2206;7.0401;
-145.2000;0.2190;7.0401;
-144.9000;0.2198;7.0518;
-144.6000;0.2190;7.0471;
-144.3000;0.2173;7.0448;
-144.0000;0.2198;7.0471;
-143.7000;0.2206;7.0518;
-143.4000;0.2230;7.0541;
-143.1000;0.2230;7.0471;
-142.8000;0.2198;7.0332;
-142.5000;0.2190;7.0378;
-142.2000;0.2247;7.0448;
-141.9000;0.2198;7.0448;
-141.6000;0.2173;7.0518;
-141.3000;0.2198;7.0565;
-141.0000;0.2190;7.0634;
-140.7000;0.2206;7.0681;
-140.4000;0.2182;7.0658;
-140.1000;0.2173;7.0611;
-139.8000;0.2165;7.0634;
-139.5000;0.2173;7.0658;
-139.2000;0.2198;7.0704;
-138.9000;0.2173;7.0634;
-138.6000;0.2182;7.0681;
-138.3000;0.2182;7.0681;
-138.0000;0.2165;7.0704;
-137.7000;0.2182;7.0704;
-137.4000;0.2182;7.0728;
-137.1000;0.2190;7.0728;
-136.8000;0.2165;7.0611;
-136.5000;0.2173;7.0541;
-136.2000;0.2206;7.0611;
-135.9000;0.2190;7.0448;
-135.6000;0.2190;7.0425;
-135.3000;0.2206;7.0425;
-135.0000;0.2214;7.0448;
-134.7000;0.2214;7.0401;
-134.4000;0.2206;7.0332;
-134.1000;0.2206;7.0332;
-133.8000;0.2182;7.0308;
-133.5000;0.2230;7.0471;
-133.2000;0.2206;7.0471;
-132.9000;0.2206;7.0425;
-132.6000;0.2206;7.0378;
-132.3000;0.2214;7.0448;
-132.0000;0.2190;7.0448;
-131.7000;0.2214;7.0355;
-131.4000;0.2198;7.0378;
-131.1000;0.2206;7.0332;
-130.8000;0.2230;7.0401;
-130.5000;0.2190;7.0238;
-130.2000;0.2190;7.0285;
-129.9000;0.2182;7.0332;
-129.6000;0.2198;7.0425;
-129.3000;0.2190;7.0378;
-129.0000;0.2182;7.0285;
-128.7000;0.2198;7.0355;
-128.4000;0.2165;7.0238;
-128.1000;0.2149;7.0145;
-127.8000;0.2165;7.0262;
-127.5000;0.2173;7.0262;
-127.2000;0.2214;7.0378;
-126.9000;0.2182;7.0308;
-126.6000;0.2133;7.0145;
-126.3000;0.2214;7.0378;
-126.0000;0.2157;7.0401;
-125.7000;0.2190;7.0425;
-125.4000;0.2190;7.0378;
-125.1000;0.2190;7.0332;
-124.8000;0.2198;7.0308;
-124.5000;0.2255;7.0518;
-124.2000;0.2198;7.0401;
-123.9000;0.2173;7.0378;
-123.6000;0.2206;7.0471;
-123.3000;0.2214;7.0495;
-123.0000;0.2214;7.0611;
-122.7000;0.2182;7.0588;
-122.4000;0.2198;7.0541;
-122.1000;0.2182;7.0518;
-121.8000;0.2198;7.0565;
-121.5000;0.2198;7.0541;
-121.2000;0.2206;7.0495;
-120.9000;0.2190;7.0471;
-120.6000;0.2206;7.0471;
-120.3000;0.2190;7.0425;
-120.0000;0.2182;7.0401;
-119.7000;0.2190;7.0495;
-119.4000;0.2206;7.0448;
-119.1000;0.2206;7.0378;
-118.8000;0.2230;7.0425;
-118.5000;0.2214;7.0425;
-118.2000;0.2214;7.0471;
-117.9000;0.2222;7.0518;
-117.6000;0.2190;7.0448;
-117.3000;0.2198;7.0448;
-117.0000;0.2190;7.0401;
-116.7000;0.2239;7.0565;
-116.4000;0.2190;7.0471;
-116.1000;0.2198;7.0425;
-115.8000;0.2198;7.0378;
-115.5000;0.2198;7.0308;
-115.2000;0.2206;7.0401;
-114.9000;0.2198;7.0448;
-114.6000;0.2173;7.0448;
-114.3000;0.2198;7.0611;
-114.0000;0.2182;7.0565;
-113.7000;0.2255;7.0751;
-113.4000;0.2198;7.0681;
-113.1000;0.2198;7.0658;
-112.8000;0.2198;7.0518;
-112.5000;0.2190;7.0518;
-112.2000;0.2173;7.0541;
-111.9000;0.2206;7.0565;
-111.6000;0.2198;7.0611;
-111.3000;0.2182;7.0541;
-111.0000;0.2125;7.0425;
-110.7000;0.2182;7.0565;
-110.4000;0.2190;7.0588;
-110.1000;0.2271;7.0821;
-109.8000;0.2247;7.0774;
-109.5000;0.2206;7.0704;
-109.2000;0.2263;7.0891;
-108.9000;0.2206;7.0704;
-108.6000;0.2255;7.0774;
-108.3000;0.2198;7.0588;
-108.0000;0.2206;7.0681;
-107.7000;0.2206;7.0588;
-107.4000;0.2222;7.0634;
-107.1000;0.2182;7.0565;
-106.8000;0.2198;7.0611;
-106.5000;0.2214;7.0681;
-106.2000;0.2173;7.0541;
-105.9000;0.2182;7.0588;
-105.6000;0.2190;7.0565;
-105.3000;0.2206;7.0565;
-105.0000;0.2190;7.0565;
-104.7000;0.2173;7.0634;
-104.4000;0.2165;7.0541;
-104.1000;0.2222;7.0565;
-103.8000;0.2206;7.0518;
-103.5000;0.2230;7.0611;
-103.2000;0.2182;7.0565;
-102.9000;0.2198;7.0704;
-102.6000;0.2190;7.0681;
-102.3000;0.2173;7.0681;
-102.0000;0.2173;7.0751;
-101.7000;0.2198;7.0751;
-101.4000;0.2190;7.0728;
-101.1000;0.2198;7.0704;
-100.8000;0.2198;7.0681;
-100.5000;0.2230;7.0821;
-100.2000;0.2190;7.0774;
-99.9000;0.2206;7.0751;
-99.6000;0.2214;7.0704;
-99.3000;0.2149;7.0588;
-99.0000;0.2214;7.0798;
-98.7000;0.2198;7.0774;
-98.4000;0.2206;7.0798;
-98.1000;0.2198;7.0704;
-97.8000;0.2214;7.0658;
-97.5000;0.2206;7.0611;
-97.2000;0.2190;7.0565;
-96.9000;0.2190;7.0681;
-96.6000;0.2173;7.0681;
-96.3000;0.2230;7.0774;
-96.0000;0.2173;7.0704;
-95.7000;0.2214;7.0798;
-95.4000;0.2198;7.0751;
-95.1000;0.2190;7.0728;
-94.8000;0.2206;7.0704;
-94.5000;0.2198;7.0634;
-94.2000;0.2206;7.0704;
-93.9000;0.2173;7.0541;
-93.6000;0.2173;7.0565;
-93.3000;0.2214;7.0565;
-93.0000;0.2182;7.0541;
-92.7000;0.2182;7.0541;
-92.4000;0.2214;7.0611;
-92.1000;0.2165;7.0588;
-91.8000;0.2165;7.0634;
-91.5000;0.2190;7.0634;
-91.2000;0.2190;7.0704;
-90.9000;0.2206;7.0728;
-90.6000;0.2173;7.0611;
-90.3000;0.2198;7.0611;
-90.0000;0.2198;7.0588;
-89.7000;0.2206;7.0681;
-89.4000;0.2198;7.0611;
-89.1000;0.2206;7.0588;
-88.8000;0.2198;7.0634;
-88.5000;0.2190;7.0588;
-88.2000;0.2141;7.0401;
-87.9000;0.2190;7.0518;
-87.6000;0.2173;7.0611;
-87.3000;0.2182;7.0634;
-87.0000;0.2141;7.0611;
-86.7000;0.2190;7.0821;
-86.4000;0.2182;7.0821;
-86.1000;0.2198;7.0774;
-85.8000;0.2239;7.0868;
-85.5000;0.2165;7.0751;
-85.2000;0.2190;7.0774;
-84.9000;0.2206;7.0774;
-84.6000;0.2173;7.0751;
-84.3000;0.2182;7.0751;
-84.0000;0.2182;7.0751;
-83.7000;0.2173;7.0751;
-83.4000;0.2190;7.0798;
-83.1000;0.2182;7.0821;
-82.8000;0.2247;7.0961;
-82.5000;0.2198;7.0821;
-82.2000;0.2182;7.0821;
-81.9000;0.2165;7.0704;
-81.6000;0.2173;7.0681;
-81.3000;0.2198;7.0704;
-81.0000;0.2198;7.0728;
-80.7000;0.2182;7.0611;
-80.4000;0.2198;7.0565;
-80.1000;0.2198;7.0611;
-79.8000;0.2214;7.0588;
-79.5000;0.2149;7.0448;
-79.2000;0.2190;7.0495;
-78.9000;0.2198;7.0634;
-78.6000;0.2206;7.0658;
-78.3000;0.2182;7.0728;
-78.0000;0.2149;7.0658;
-77.7000;0.2173;7.0821;
-77.4000;0.2173;7.0798;
-77.1000;0.2190;7.0704;
-76.8000;0.2084;7.0425;
-76.5000;0.2198;7.0774;
-76.2000;0.2230;7.0844;
-75.9000;0.2182;7.0728;
-75.6000;0.2206;7.0728;
-75.3000;0.2214;7.0821;
-75.0000;0.2214;7.0774;
-74.7000;0.2182;7.0588;
-74.4000;0.2222;7.0728;
-74.1000;0.2198;7.0681;
-73.8000;0.2182;7.0634;
-73.5000;0.2214;7.0658;
-73.2000;0.2165;7.0541;
-72.9000;0.2214;7.0658;
-72.6000;0.2198;7.0634;
-72.3000;0.2198;7.0658;
-72.0000;0.2198;7.0634;
-71.7000;0.2190;7.0681;
-71.4000;0.2190;7.0704;
-71.1000;0.2206;7.0844;
-70.8000;0.2182;7.0798;
-70.5000;0.2198;7.0821;
-70.2000;0.2206;7.0798;
-69.9000;0.2206;7.0681;
-69.6000;0.2182;7.0681;
-69.3000;0.2182;7.0658;
-69.0000;0.2190;7.0611;
-68.7000;0.2198;7.0658;
-68.4000;0.2198;7.0565;
-68.1000;0.2222;7.0658;
-67.8000;0.2198;7.0588;
-67.5000;0.2190;7.0611;
-67.2000;0.2165;7.0588;
-66.9000;0.2190;7.0798;
-66.6000;0.2182;7.0751;
-66.3000;0.2198;7.0798;
-66.0000;0.2165;7.0704;
-65.7000;0.2084;7.0588;
-65.4000;0.2190;7.0751;
-65.1000;0.2173;7.0704;
-64.8000;0.2206;7.0774;
-64.5000;0.2190;7.0798;
-64.2000;0.2108;7.0518;
-63.9000;0.2198;7.0821;
-63.6000;0.2198;7.0774;
-63.3000;0.2198;7.0844;
-63.0000;0.2190;7.0774;
-62.7000;0.2198;7.0751;
-62.4000;0.2198;7.0728;
-62.1000;0.2230;7.0728;
-61.8000;0.2190;7.0658;
-61.5000;0.2165;7.0518;
-61.2000;0.2206;7.0611;
-60.9000;0.2198;7.0681;
-60.6000;0.2214;7.0774;
-60.3000;0.2182;7.0728;
-60.0000;0.2173;7.0634;
-59.7000;0.2190;7.0634;
-59.4000;0.2190;7.0704;
-59.1000;0.2190;7.0634;
-58.8000;0.2190;7.0658;
-58.5000;0.2190;7.0704;
-58.2000;0.2198;7.0774;
-57.9000;0.2279;7.0891;
-57.6000;0.2190;7.0611;
-57.3000;0.2116;7.0518;
-57.0000;0.2173;7.0681;
-56.7000;0.2198;7.0704;
-56.4000;0.2165;7.0704;
-56.1000;0.2198;7.0751;
-55.8000;0.2108;7.0495;
-55.5000;0.2190;7.0565;
-55.2000;0.2206;7.0634;
-54.9000;0.2149;7.0471;
-54.6000;0.2198;7.0611;
-54.3000;0.2182;7.0541;
-54.0000;0.2312;7.0961;
-53.7000;0.2198;7.0728;
-53.4000;0.2165;7.0658;
-53.1000;0.2206;7.0751;
-52.8000;0.2149;7.0565;
-52.5000;0.2182;7.0681;
-52.2000;0.2173;7.0704;
-51.9000;0.2206;7.0751;
-51.6000;0.2173;7.0658;
-51.3000;0.2247;7.0798;
-51.0000;0.2239;7.0728;
-50.7000;0.2173;7.0634;
-50.4000;0.2198;7.0634;
-50.1000;0.2190;7.0611;
-49.8000;0.2182;7.0565;
-49.5000;0.2206;7.0611;
-49.2000;0.2190;7.0588;
-48.9000;0.2182;7.0518;
-48.6000;0.2157;7.0518;
-48.3000;0.2165;7.0611;
-48.0000;0.2190;7.0728;
-47.7000;0.2198;7.0798;
-47.4000;0.2165;7.0821;
-47.1000;0.2190;7.0798;
-46.8000;0.2198;7.0751;
-46.5000;0.2182;7.0728;
-46.2000;0.2190;7.0821;
-45.9000;0.2190;7.0868;
-45.6000;0.2190;7.0868;
-45.3000;0.2198;7.0868;
-45.0000;0.2182;7.0844;
-44.7000;0.2173;7.0798;
-44.4000;0.2198;7.0704;
-44.1000;0.2173;7.0681;
-43.8000;0.2190;7.0751;
-43.5000;0.2182;7.0728;
-43.2000;0.2190;7.0681;
-42.9000;0.2222;7.0868;
-42.6000;0.2173;7.0868;
-42.3000;0.2182;7.0914;
-42.0000;0.2165;7.0891;
-41.7000;0.2206;7.0891;
-41.4000;0.2165;7.0844;
-41.1000;0.2182;7.0798;
-40.8000;0.2206;7.0774;
-40.5000;0.2190;7.0658;
-40.2000;0.2116;7.0495;
-39.9000;0.2206;7.0634;
-39.6000;0.2182;7.0565;
-39.3000;0.2190;7.0611;
-39.0000;0.2190;7.0658;
-38.7000;0.2182;7.0588;
-38.4000;0.2182;7.0634;
-38.1000;0.2190;7.0728;
-37.8000;0.2173;7.0821;
-37.5000;0.2182;7.0728;
-37.2000;0.2190;7.0611;
-36.9000;0.2190;7.0704;
-36.6000;0.2100;7.0495;
-36.3000;0.2173;7.0704;
-36.0000;0.2182;7.0681;
-35.7000;0.2182;7.0728;
-35.4000;0.2190;7.0798;
-35.1000;0.2198;7.0798;
-34.8000;0.2182;7.0844;
-34.5000;0.2182;7.0774;
-34.2000;0.2173;7.0774;
-33.9000;0.2230;7.0984;
-33.6000;0.2206;7.0937;
-33.3000;0.2173;7.0868;
-33.0000;0.2239;7.0961;
-32.7000;0.2214;7.0891;
-32.4000;0.2239;7.0937;
-32.1000;0.2182;7.0868;
-31.8000;0.2230;7.1007;
-31.5000;0.2133;7.0774;
-31.2000;0.2149;7.0844;
-30.9000;0.2173;7.0798;
-30.6000;0.2190;7.0891;
-30.3000;0.2173;7.0868;
-30.0000;0.2173;7.0868;
-29.7000;0.2182;7.0868;
-29.4000;0.2182;7.0728;
-29.1000;0.2182;7.0704;
-28.8000;0.2165;7.0751;
-28.5000;0.2190;7.0728;
-28.2000;0.2165;7.0541;
-27.9000;0.2190;7.0611;
-27.6000;0.2206;7.0658;
-27.3000;0.2100;7.0448;
-27.0000;0.2198;7.0658;
-26.7000;0.2173;7.0611;
-26.4000;0.2214;7.0681;
-26.1000;0.2190;7.0681;
-25.8000;0.2190;7.0751;
-25.5000;0.2173;7.0634;
-25.2000;0.2165;7.0541;
-24.9000;0.2182;7.0518;
-24.6000;0.2125;7.0425;
-24.3000;0.2206;7.0611;
-24.0000;0.2206;7.0658;
-23.7000;0.2190;7.0658;
-23.4000;0.2165;7.0681;
-23.1000;0.2173;7.0728;
-22.8000;0.2173;7.0798;
-22.5000;0.2182;7.0844;
-22.2000;0.2157;7.0798;
-21.9000;0.2149;7.0821;
-21.6000;0.2182;7.0844;
-21.3000;0.2173;7.0821;
-21.0000;0.2173;7.0868;
-20.7000;0.2182;7.0937;
-20.4000;0.2165;7.0914;
-20.1000;0.2206;7.0914;
-19.8000;0.2198;7.0984;
-19.5000;0.2182;7.0914;
-19.2000;0.2133;7.0774;
-18.9000;0.2182;7.0961;
-18.6000;0.2198;7.0961;
-18.3000;0.2182;7.1054;
-18.0000;0.2182;7.1031;
-17.7000;0.2182;7.1054;
-17.4000;0.2190;7.1031;
-17.1000;0.2182;7.0984;
-16.8000;0.2206;7.1007;
-16.5000;0.2190;7.0891;
-16.2000;0.2214;7.0844;
-15.9000;0.2190;7.0844;
-15.6000;0.2190;7.0891;
-15.3000;0.2190;7.0868;
-15.0000;0.2206;7.1054;
-14.7000;0.2190;7.1054;
-14.4000;0.2173;7.1054;
-14.1000;0.2173;7.1124;
-13.8000;0.2206;7.1194;
-13.5000;0.2182;7.1101;
-13.2000;0.2173;7.1101;
-12.9000;0.2198;7.1054;
-12.6000;0.2230;7.1147;
-12.3000;0.2182;7.1031;
-12.0000;0.2247;7.1101;
-11.7000;0.2182;7.0961;
-11.4000;0.2165;7.0844;
-11.1000;0.2214;7.0891;
-10.8000;0.2206;7.0774;
-10.5000;0.2157;7.0611;
-10.2000;0.2206;7.0798;
-9.9000;0.2190;7.0728;
-9.6000;0.2198;7.0751;
-9.3000;0.2206;7.0658;
-9.0000;0.2247;7.0658;
-8.7000;0.2198;7.0634;
-8.4000;0.2173;7.0681;
-8.1000;0.2190;7.0774;
-7.8000;0.2198;7.0751;
-7.5000;0.2173;7.0681;
-7.2000;0.2165;7.0681;
-6.9000;0.2198;7.0658;
-6.6000;0.2141;7.0588;
-6.3000;0.2182;7.0704;
-6.0000;0.2182;7.0658;
-5.7000;0.2173;7.0611;
-5.4000;0.2198;7.0681;
-5.1000;0.2182;7.0658;
-4.8000;0.2141;7.0541;
-4.5000;0.2190;7.0704;
-4.2000;0.2133;7.0658;
-3.9000;0.2190;7.0798;
-3.6000;0.2190;7.0914;
-3.3000;0.2198;7.0937;
-3.0000;0.2190;7.0937;
-2.7000;0.2255;7.1077;
-2.4000;0.2190;7.0937;
-2.1000;0.2173;7.0821;
-1.8000;0.2182;7.0728;
-1.5000;0.2165;7.0681;
-1.2000;0.2198;7.0704;
-0.9000;0.2247;7.0844;
-0.6000;0.2157;7.0704;
-0.3000;0.2198;7.0891;
0.0000;0.2198;7.0891;
0.3000;0.2222;7.0634;
0.6000;0.2369;7.0937;
0.9000;0.2442;7.1240;
1.2000;0.2556;7.1637;
1.5000;0.2637;7.1753;
1.8000;0.2694;7.1939;
2.1000;0.2629;7.1753;
2.4000;0.2825;7.2266;
2.7000;0.2800;7.2359;
3.0000;0.2784;7.2266;
3.3000;0.2816;7.2429;
3.6000;0.2865;7.2545;
3.9000;0.2865;7.2615;
4.2000;0.2922;7.2802;
4.5000;0.2857;7.2732;
4.8000;0.2939;7.2872;
5.1000;0.2914;7.2872;
5.4000;0.2922;7.2825;
5.7000;0.2906;7.2825;
6.0000;0.2955;7.2965;
6.3000;0.2898;7.2825;
6.6000;0.2930;7.2895;
6.9000;0.2914;7.2988;
7.2000;0.2930;7.3058;
7.5000;0.2947;7.3105;
7.8000;0.2930;7.3128;
8.1000;0.2922;7.3035;
8.4000;0.2939;7.3151;
8.7000;0.2947;7.3128;
9.0000;0.3085;7.3384;
9.3000;0.2987;7.3081;
9.6000;0.2987;7.3105;
9.9000;0.2971;7.3081;
10.2000;0.2963;7.3105;
10.5000;0.3061;7.3291;
10.8000;0.3004;7.3221;
11.1000;0.2996;7.3221;
11.4000;0.2996;7.3221;
11.7000;0.2996;7.3128;
12.0000;0.3004;7.3175;
12.3000;0.2996;7.3245;
12.6000;0.3004;7.3175;
12.9000;0.3012;7.3035;
13.2000;0.3020;7.2965;
13.5000;0.3012;7.2918;
13.8000;0.3004;7.2895;
14.1000;0.3004;7.2895;
14.4000;0.2947;7.2802;
14.7000;0.3028;7.2965;
15.0000;0.3020;7.3011;
15.3000;0.3036;7.2988;
15.6000;0.3044;7.2988;
15.9000;0.3053;7.3011;
16.2000;0.3044;7.3081;
16.5000;0.3012;7.2965;
16.8000;0.3077;7.3058;
17.1000;0.3061;7.2918;
17.4000;0.3036;7.2918;
17.7000;0.3028;7.2918;
18.0000;0.3020;7.2872;
18.3000;0.3061;7.2988;
18.6000;0.3061;7.2872;
18.9000;0.3061;7.2825;
19.2000;0.3085;7.2942;
19.5000;0.3061;7.2895;
19.8000;0.3101;7.2918;
20.1000;0.3069;7.2825;
20.4000;0.3061;7.2802;
20.7000;0.3061;7.2848;
21.0000;0.3077;7.2825;
21.3000;0.3061;7.2732;
21.6000;0.3085;7.2732;
21.9000;0.3077;7.2802;
22.2000;0.3101;7.2988;
22.5000;0.3093;7.2965;
22.8000;0.3126;7.2965;
23.1000;0.3101;7.2988;
23.4000;0.3109;7.2942;
23.7000;0.3101;7.2918;
24.0000;0.3109;7.2848;
24.3000;0.3101;7.2778;
24.6000;0.3118;7.2825;
24.9000;0.3101;7.2732;
25.2000;0.3101;7.2732;
25.5000;0.3150;7.2825;
25.8000;0.3118;7.2802;
26.1000;0.3109;7.2755;
26.4000;0.3215;7.2918;
26.7000;0.3118;7.2709;
27.0000;0.3134;7.2685;
27.3000;0.3109;7.2499;
27.6000;0.3093;7.2452;
27.9000;0.3199;7.2662;
28.2000;0.3142;7.2406;
28.5000;0.3158;7.2406;
28.8000;0.3118;7.2382;
29.1000;0.3134;7.2569;
29.4000;0.3158;7.2755;
29.7000;0.3142;7.2732;
30.0000;0.3142;7.2848;
30.3000;0.3142;7.2802;
30.6000;0.3142;7.2802;
30.9000;0.3240;7.3081;
31.2000;0.3134;7.2848;
31.5000;0.3158;7.2942;
31.8000;0.3166;7.2965;
32.1000;0.3158;7.2872;
32.4000;0.3142;7.2755;
32.7000;0.3175;7.2895;
33.0000;0.3199;7.2988;
33.3000;0.3175;7.2942;
33.6000;0.3158;7.2895;
33.9000;0.3166;7.2848;
34.2000;0.3166;7.2802;
34.5000;0.3166;7.2778;
34.8000;0.3166;7.2755;
35.1000;0.3175;7.2755;
35.4000;0.3166;7.2755;
35.7000;0.3175;7.2755;
36.0000;0.3232;7.2825;
36.3000;0.3215;7.2732;
36.6000;0.3191;7.2732;
36.9000;0.3183;7.2685;
37.2000;0.3215;7.2709;
37.5000;0.3191;7.2709;
37.8000;0.3207;7.2778;
38.1000;0.3207;7.2825;
38.4000;0.3207;7.2895;
38.7000;0.3215;7.2872;
39.0000;0.3191;7.2709;
39.3000;0.3191;7.2709;
39.6000;0.3215;7.2662;
39.9000;0.3223;7.2615;
40.2000;0.3223;7.2545;
40.5000;0.3199;7.2475;
40.8000;0.3207;7.2522;
41.1000;0.3232;7.2569;
41.4000;0.3280;7.2685;
41.7000;0.3166;7.2475;
42.0000;0.3215;7.2429;
42.3000;0.3207;7.2382;
42.6000;0.3223;7.2499;
42.9000;0.3223;7.2475;
43.2000;0.3215;7.2452;
43.5000;0.3240;7.2499;
43.8000;0.3313;7.2732;
44.1000;0.3248;7.2545;
44.4000;0.3232;7.2569;
44.7000;0.3297;7.2685;
45.0000;0.3223;7.2569;
45.3000;0.3240;7.2545;
45.6000;0.3248;7.2545;
45.9000;0.3256;7.2592;
46.2000;0.3248;7.2475;
46.5000;0.3248;7.2499;
46.8000;0.3240;7.2499;
47.1000;0.3248;7.2592;
47.4000;0.3256;7.2522;
47.7000;0.3248;7.2475;
48.0000;0.3256;7.2452;
48.3000;0.3248;7.2429;
48.6000;0.3248;7.2406;
48.9000;0.3215;7.2359;
49.2000;0.3256;7.2522;
49.5000;0.3248;7.2522;
49.8000;0.3248;7.2569;
50.1000;0.3256;7.2522;
50.4000;0.3215;7.2429;
50.7000;0.3248;7.2522;
51.0000;0.3256;7.2475;
51.3000;0.3264;7.2452;
51.6000;0.3272;7.2522;
51.9000;0.3256;7.2545;
52.2000;0.3264;7.2522;
52.5000;0.3272;7.2475;
52.8000;0.3207;7.2452;
53.1000;0.3297;7.2615;
53.4000;0.3264;7.2545;
53.7000;0.3215;7.2452;
54.0000;0.3232;7.2499;
54.3000;0.3272;7.2569;
54.6000;0.3289;7.2639;
54.9000;0.3264;7.2685;
55.2000;0.3297;7.2732;
55.5000;0.3297;7.2662;
55.8000;0.3272;7.2639;
56.1000;0.3297;7.2662;
56.4000;0.3280;7.2639;
56.7000;0.3272;7.2569;
57.0000;0.3280;7.2615;
57.3000;0.3305;7.2662;
57.6000;0.3272;7.2592;
57.9000;0.3289;7.2569;
58.2000;0.3272;7.2499;
58.5000;0.3280;7.2569;
58.8000;0.3297;7.2592;
59.1000;0.3280;7.2522;
59.4000;0.3289;7.2639;
59.7000;0.3289;7.2662;
60.0000;0.3297;7.2662;
60.3000;0.3272;7.2615;
60.6000;0.3321;7.2662;
60.9000;0.3240;7.2522;
61.2000;0.3297;7.2569;
61.5000;0.3289;7.2592;
61.8000;0.3305;7.2662;
62.1000;0.3305;7.2685;
62.4000;0.3297;7.2709;
62.7000;0.3264;7.2709;
63.0000;0.3346;7.2895;
63.3000;0.3305;7.2825;
63.6000;0.3272;7.2662;
63.9000;0.3280;7.2709;
64.2000;0.3297;7.2778;
64.5000;0.3297;7.2778;
64.8000;0.3313;7.2848;
65.1000;0.3297;7.2872;
65.4000;0.3305;7.2825;
65.7000;0.3305;7.2872;
66.0000;0.3313;7.2802;
66.3000;0.3321;7.2709;
66.6000;0.3305;7.2685;
66.9000;0.3321;7.2755;
67.2000;0.3313;7.2709;
67.5000;0.3313;7.2709;
67.8000;0.3313;7.2709;
68.1000;0.3313;7.2732;
68.4000;0.3329;7.2709;
68.7000;0.3305;7.2732;
69.0000;0.3313;7.2755;
69.3000;0.3321;7.2662;
69.6000;0.3321;7.2662;
69.9000;0.3362;7.2755;
70.2000;0.3329;7.2685;
70.5000;0.3346;7.2709;
70.8000;0.3419;7.2918;
71.1000;0.3305;7.2685;
71.4000;0.3321;7.2685;
71.7000;0.3297;7.2639;
72.0000;0.3248;7.2452;
72.3000;0.3313;7.2569;
72.6000;0.3329;7.2662;
72.9000;0.3305;7.2662;
73.2000;0.3256;7.2475;
73.5000;0.3321;7.2615;
73.8000;0.3297;7.2615;
74.1000;0.3232;7.2475;
74.4000;0.3313;7.2685;
74.7000;0.3313;7.2662;
75.0000;0.3394;7.2848;
75.3000;0.3346;7.2755;
75.6000;0.3329;7.2662;
75.9000;0.3305;7.2522;
76.2000;0.3329;7.2569;
76.5000;0.3321;7.2545;
76.8000;0.3321;7.2569;
77.1000;0.3313;7.2592;
77.4000;0.3313;7.2592;
77.7000;0.3354;7.2615;
78.0000;0.3435;7.2848;
78.3000;0.3329;7.2615;
78.6000;0.3321;7.2545;
78.9000;0.3313;7.2452;
79.2000;0.3329;7.2475;
79.5000;0.3337;7.2545;
79.8000;0.3354;7.2615;
80.1000;0.3329;7.2592;
80.4000;0.3329;7.2569;
80.7000;0.3346;7.2615;
81.0000;0.3337;7.2499;
81.3000;0.3337;7.2499;
81.6000;0.3280;7.2406;
81.9000;0.3386;7.2569;
82.2000;0.3337;7.2545;
82.5000;0.3329;7.2545;
82.8000;0.3378;7.2569;
83.1000;0.3362;7.2499;
83.4000;0.3337;7.2475;
83.7000;0.3354;7.2382;
84.0000;0.3297;7.2312;
84.3000;0.3354;7.2475;
84.6000;0.3394;7.2615;
84.9000;0.3354;7.2499;
85.2000;0.3305;7.2359;
85.5000;0.3354;7.2522;
85.8000;0.3329;7.2475;
86.1000;0.3394;7.2732;
86.4000;0.3232;7.2359;
86.7000;0.3280;7.2429;
87.0000;0.3337;7.2662;
87.3000;0.3313;7.2639;
87.6000;0.3362;7.2778;
87.9000;0.3370;7.2848;
88.2000;0.3354;7.2755;
88.5000;0.3362;7.2755;
88.8000;0.3346;7.2755;
89.1000;0.3346;7.2802;
89.4000;0.3362;7.2872;
89.7000;0.3403;7.2965;
90.0000;0.3346;7.2778;
90.3000;0.3354;7.2825;
90.6000;0.3362;7.2872;
90.9000;0.3370;7.2872;
91.2000;0.3354;7.2802;
91.5000;0.3370;7.2848;
91.8000;0.3354;7.2802;
92.1000;0.3370;7.2802;
92.4000;0.3370;7.2778;
92.7000;0.3378;7.2802;
93.0000;0.3362;7.2755;
93.3000;0.3370;7.2825;
93.6000;0.3370;7.2825;
93.9000;0.3370;7.2778;
94.2000;0.3346;7.2755;
94.5000;0.3346;7.2662;
94.8000;0.3354;7.2685;
95.1000;0.3370;7.2825;
95.4000;0.3378;7.2825;
95.7000;0.3411;7.2895;
96.0000;0.3337;7.2755;
96.3000;0.3370;7.2918;
96.6000;0.3321;7.2732;
96.9000;0.3370;7.2778;
97.2000;0.3386;7.2732;
97.5000;0.3346;7.2592;
97.8000;0.3362;7.2615;
98.1000;0.3378;7.2615;
98.4000;0.3362;7.2522;
98.7000;0.3354;7.2592;
99.0000;0.3337;7.2569;
99.3000;0.3386;7.2732;
99.6000;0.3354;7.2732;
99.9000;0.3321;7.2592;
100.2000;0.3346;7.2732;
100.5000;0.3386;7.2825;
100.8000;0.3378;7.2778;
101.1000;0.3370;7.2755;
101.4000;0.3370;7.2755;
101.7000;0.3346;7.2685;
102.0000;0.3362;7.2592;
102.3000;0.3354;7.2592;
102.6000;0.3370;7.2778;
102.9000;0.3419;7.2872;
103.2000;0.3378;7.2685;
103.5000;0.3378;7.2615;
103.8000;0.3378;7.2569;
104.1000;0.3370;7.2545;
104.4000;0.3370;7.2639;
104.7000;0.3370;7.2662;
105.0000;0.3370;7.2662;
105.3000;0.3362;7.2615;
105.6000;0.3362;7.2639;
105.9000;0.3386;7.2592;
106.2000;0.3362;7.2545;
106.5000;0.3427;7.2662;
106.8000;0.3337;7.2545;
107.1000;0.3411;7.2685;
107.4000;0.3337;7.2639;
107.7000;0.3403;7.2709;
108.0000;0.3354;7.2545;
108.3000;0.3394;7.2685;
108.6000;0.3386;7.2662;
108.9000;0.3354;7.2639;
109.2000;0.3378;7.2592;
109.5000;0.3370;7.2615;
109.8000;0.3362;7.2662;
110.1000;0.3394;7.2709;
110.4000;0.3346;7.2615;
110.7000;0.3443;7.2965;
111.0000;0.3362;7.2778;
111.3000;0.3403;7.2988;
111.6000;0.3362;7.2895;
111.9000;0.3386;7.2918;
112.2000;0.3321;7.2755;
112.5000;0.3394;7.2918;
112.8000;0.3378;7.2825;
113.1000;0.3386;7.2802;
113.4000;0.3386;7.2778;
113.7000;0.3354;7.2732;
114.0000;0.3337;7.2732;
114.3000;0.3272;7.2499;
114.6000;0.3370;7.2709;
114.9000;0.3370;7.2639;
115.2000;0.3370;7.2615;
115.5000;0.3378;7.2639;
115.8000;0.3378;7.2615;
116.1000;0.3378;7.2662;
116.4000;0.3370;7.2755;
116.7000;0.3378;7.2592;
117.0000;0.3378;7.2615;
117.3000;0.3362;7.2615;
117.6000;0.3362;7.2429;
117.9000;0.3378;7.2499;
118.2000;0.3362;7.2452;
118.5000;0.3378;7.2499;
118.8000;0.3346;7.2312;
119.1000;0.3403;7.2382;
119.4000;0.3354;7.2266;
119.7000;0.3354;7.2359;
120.0000;0.3305;7.2266;
120.3000;0.3362;7.2406;
120.6000;0.3362;7.2452;
120.9000;0.3378;7.2452;
121.2000;0.3362;7.2452;
121.5000;0.3435;7.2569;
121.8000;0.3370;7.2382;
122.1000;0.3362;7.2336;
122.4000;0.3386;7.2382;
122.7000;0.3370;7.2312;
123.0000;0.3378;7.2336;
123.3000;0.3362;7.2266;
123.6000;0.3378;7.2312;
123.9000;0.3337;7.2219;
124.2000;0.3370;7.2219;
124.5000;0.3354;7.2219;
124.8000;0.3362;7.2289;
125.1000;0.3378;7.2359;
125.4000;0.3386;7.2429;
125.7000;0.3370;7.2475;
126.0000;0.3386;7.2452;
126.3000;0.3354;7.2359;
126.6000;0.3354;7.2475;
126.9000;0.3362;7.2499;
127.2000;0.3403;7.2569;
127.5000;0.3386;7.2429;
127.8000;0.3378;7.2359;
128.1000;0.3386;7.2359;
128.4000;0.3346;7.2336;
128.7000;0.3386;7.2429;
129.0000;0.3435;7.2475;
129.3000;0.3362;7.2336;
129.6000;0.3370;7.2382;
129.9000;0.3378;7.2382;
130.2000;0.3370;7.2359;
130.5000;0.3378;7.2359;
130.8000;0.3370;7.2382;
131.1000;0.3394;7.2406;
131.4000;0.3354;7.2312;
131.7000;0.3378;7.2429;
132.0000;0.3460;7.2662;
132.3000;0.3370;7.2475;
132.6000;0.3443;7.2615;
132.9000;0.3378;7.2499;
133.2000;0.3411;7.2615;
133.5000;0.3313;7.2475;
133.8000;0.3378;7.2592;
134.1000;0.3370;7.2545;
134.4000;0.3362;7.2499;
134.7000;0.3443;7.2615;
135.0000;0.3378;7.2452;
135.3000;0.3419;7.2615;
135.6000;0.3370;7.2522;
135.9000;0.3386;7.2522;
136.2000;0.3403;7.2569;
136.5000;0.3394;7.2662;
136.8000;0.3370;7.2615;
137.1000;0.3427;7.2755;
137.4000;0.3394;7.2732;
137.7000;0.3386;7.2755;
138.0000;0.3362;7.2732;
138.3000;0.3394;7.2755;
138.6000;0.3362;7.2709;
138.9000;0.3346;7.2709;
139.2000;0.3378;7.2778;
139.5000;0.3386;7.2755;
139.8000;0.3370;7.2685;
140.1000;0.3403;7.2662;
140.4000;0.3362;7.2545;
140.7000;0.3370;7.2545;
141.0000;0.3370;7.2475;
141.3000;0.3386;7.2592;
141.6000;0.3362;7.2592;
141.9000;0.3394;7.2639;
142.2000;0.3370;7.2639;
142.5000;0.3386;7.2662;
142.8000;0.3362;7.2615;
143.1000;0.3370;7.2662;
143.4000;0.3354;7.2615;
143.7000;0.3370;7.2755;
144.0000;0.3386;7.2778;
144.3000;0.3394;7.2802;
144.6000;0.3378;7.2662;
144.9000;0.3403;7.2802;
145.2000;0.3362;7.2755;
145.5000;0.3272;7.2452;
145.8000;0.3394;7.2709;
146.1000;0.3370;7.2732;
146.4000;0.3394;7.2802;
146.7000;0.3378;7.2778;
147.0000;0.3378;7.2802;
147.3000;0.3386;7.2778;
147.6000;0.3460;7.2988;
147.9000;0.3394;7.2732;
148.2000;0.3354;7.2615;
148.5000;0.3386;7.2732;
148.8000;0.3370;7.2709;
149.1000;0.3370;7.2755;
149.4000;0.3378;7.2709;
149.7000;0.3370;7.2778;
150.0000;0.3370;7.2732;
150.3000;0.3378;7.2732;
150.6000;0.3378;7.2709;
150.9000;0.3394;7.2709;
151.2000;0.3394;7.2685;
151.5000;0.3403;7.2685;
151.8000;0.3386;7.2685;
152.1000;0.3394;7.2732;
152.4000;0.3419;7.2825;
152.7000;0.3394;7.2709;
153.0000;0.3403;7.2755;
153.3000;0.3386;7.2709;
153.6000;0.3378;7.2662;
153.9000;0.3386;7.2662;
154.2000;0.3378;7.2615;
154.5000;0.3362;7.2522;
154.8000;0.3321;7.2452;
155.1000;0.3329;7.2452;
155.4000;0.3411;7.2662;
155.7000;0.3403;7.2615;
156.0000;0.3378;7.2592;
156.3000;0.3419;7.2709;
156.6000;0.3411;7.2778;
156.9000;0.3394;7.2709;
157.2000;0.3394;7.2685;
157.5000;0.3386;7.2662;
157.8000;0.3370;7.2685;
158.1000;0.3476;7.2895;
158.4000;0.3378;7.2499;
158.7000;0.3378;7.2406;
159.0000;0.3403;7.2406;
159.3000;0.3386;7.2406;
159.6000;0.3394;7.2359;
159.9000;0.3378;7.2359;
160.2000;0.3435;7.2475;
160.5000;0.3378;7.2429;
160.8000;0.3370;7.2429;
161.1000;0.3370;7.2452;
161.4000;0.3346;7.2382;
161.7000;0.3394;7.2569;
162.0000;0.3403;7.2522;
162.3000;0.3386;7.2499;
162.6000;0.3394;7.2615;
162.9000;0.3411;7.2639;
163.2000;0.3411;7.2685;
163.5000;0.3394;7.2709;
163.8000;0.3386;7.2709;
164.1000;0.3403;7.2778;
164.4000;0.3394;7.2825;
164.7000;0.3386;7.2802;
165.0000;0.3394;7.2848;
165.3000;0.3394;7.2918;
165.6000;0.3394;7.2778;
165.9000;0.3403;7.2685;
166.2000;0.3378;7.2662;
166.5000;0.3394;7.2639;
166.8000;0.3403;7.2615;
167.1000;0.3394;7.2592;
167.4000;0.3403;7.2522;
167.7000;0.3386;7.2406;
168.0000;0.3386;7.2336;
168.3000;0.3378;7.2242;
168.6000;0.3354;7.2196;
168.9000;0.3370;7.2312;
169.2000;0.3386;7.2336;
169.5000;0.3411;7.2429;
169.8000;0.3370;7.2312;
170.1000;0.3362;7.2312;
170.4000;0.3386;7.2406;
170.7000;0.3329;7.2242;
171.0000;0.3378;7.2429;
171.3000;0.3354;7.2522;
171.6000;0.3378;7.2615;
171.9000;0.3386;7.2709;
172.2000;0.3427;7.2685;
172.5000;0.3386;7.2615;
172.8000;0.3394;7.2522;
173.1000;0.3419;7.2592;
173.4000;0.3354;7.2452;
173.7000;0.3386;7.2475;
174.0000;0.3378;7.2452;
174.3000;0.3386;7.2475;
174.6000;0.3411;7.2499;
174.9000;0.3394;7.2475;
175.2000;0.3386;7.2452;
175.5000;0.3419;7.2569;
175.8000;0.3403;7.2452;
176.1000;0.3403;7.2452;
176.4000;0.3346;7.2406;
176.7000;0.3403;7.2569;
177.0000;0.3386;7.2545;
177.3000;0.3419;7.2592;
177.6000;0.3394;7.2545;
177.9000;0.3403;7.2499;
178.2000;0.3370;7.2545;
178.5000;0.3443;7.2685;
178.8000;0.3337;7.2475;
179.1000;0.3419;7.2639;
179.4000;0.3362;7.2522;
179.7000;0.3394;7.2615;
180.0000;0.3394;7.2639;
180.3000;0.3378;7.2685;
180.6000;0.3411;7.2709;
180.9000;0.3386;7.2639;
181.2000;0.3394;7.2685;
181.5000;0.3362;7.2592;
181.8000;0.3394;7.2755;
182.1000;0.3394;7.2802;
182.4000;0.3386;7.2732;
182.7000;0.3394;7.2709;
183.0000;0.3337;7.2592;
183.3000;0.3394;7.2639;
183.6000;0.3362;7.2569;
183.9000;0.3362;7.2592;
184.2000;0.3386;7.2592;
184.5000;0.3411;7.2592;
184.8000;0.3419;7.2615;
185.1000;0.3403;7.2615;
185.4000;0.3370;7.2569;
185.7000;0.3378;7.2639;
186.0000;0.3394;7.2615;
186.3000;0.3468;7.2778;
186.6000;0.3386;7.2545;
186.9000;0.3394;7.2592;
187.2000;0.3427;7.2755;
187.5000;0.3362;7.2732;
187.8000;0.3386;7.2778;
188.1000;0.3386;7.2802;
188.4000;0.3403;7.2802;
188.7000;0.3378;7.2685;
189.0000;0.3386;7.2569;
189.3000;0.3411;7.2662;
189.6000;0.3435;7.2802;
189.9000;0.3394;7.2778;
190.2000;0.3403;7.2709;
190.5000;0.3386;7.2639;
190.8000;0.3362;7.2592;
191.1000;0.3403;7.2639;
191.4000;0.3378;7.2569;
191.7000;0.3370;7.2499;
192.0000;0.3443;7.2615;
192.3000;0.3362;7.2406;
192.6000;0.3427;7.2499;
192.9000;0.3297;7.2149;
193.2000;0.3378;7.2359;
193.5000;0.3362;7.2312;
193.8000;0.3394;7.2429;
194.1000;0.3378;7.2475;
194.4000;0.3354;7.2429;
194.7000;0.3378;7.2545;
195.0000;0.3378;7.2499;
195.3000;0.3370;7.2499;
195.6000;0.3378;7.2499;
195.9000;0.3386;7.2545;
196.2000;0.3386;7.2499;
196.5000;0.3378;7.2522;
196.8000;0.3362;7.2452;
197.1000;0.3378;7.2522;
197.4000;0.3386;7.2522;
197.7000;0.3370;7.2499;
198.0000;0.3419;7.2592;
198.3000;0.3362;7.2475;
198.6000;0.3411;7.2569;
198.9000;0.3443;7.2592;
199.2000;0.3403;7.2499;
199.5000;0.3378;7.2499;
199.8000;0.3403;7.2475;
200.1000;0.3427;7.2522;
200.4000;0.3362;7.2429;
200.7000;0.3411;7.2545;
201.0000;0.3419;7.2615;
201.3000;0.3403;7.2522;
201.6000;0.3411;7.2545;
201.9000;0.3394;7.2499;
202.2000;0.3370;7.2406;
202.5000;0.3492;7.2709;
202.8000;0.3378;7.2545;
203.1000;0.3386;7.2545;
203.4000;0.3435;7.2732;
203.7000;0.3386;7.2592;
204.0000;0.3370;7.2475;
204.3000;0.3370;7.2429;
204.6000;0.3362;7.2452;
204.9000;0.3394;7.2569;
205.2000;0.3394;7.2639;
205.5000;0.3362;7.2569;
205.8000;0.3386;7.2685;
206.1000;0.3427;7.2778;
206.4000;0.3403;7.2732;
206.7000;0.3378;7.2732;
207.0000;0.3378;7.2662;
207.3000;0.3403;7.2709;
207.6000;0.3419;7.2802;
207.9000;0.3354;7.2615;
208.2000;0.3346;7.2545;
208.5000;0.3394;7.2755;
208.8000;0.3411;7.2755;
209.1000;0.3386;7.2639;
209.4000;0.3386;7.2615;
209.7000;0.3370;7.2569;
210.0000;0.3419;7.2732;
210.3000;0.3394;7.2639;
210.6000;0.3403;7.2709;
210.9000;0.3370;7.2685;
211.2000;0.3370;7.2662;
211.5000;0.3394;7.2802;
211.8000;0.3394;7.2755;
212.1000;0.3378;7.2755;
212.4000;0.3411;7.2709;
212.7000;0.3403;7.2545;
213.0000;0.3337;7.2266;
213.3000;0.3394;7.2359;
213.6000;0.3394;7.2452;
213.9000;0.3435;7.2569;
214.2000;0.3403;7.2475;
214.5000;0.3386;7.2429;
214.8000;0.3386;7.2382;
215.1000;0.3394;7.2382;
215.4000;0.3370;7.2312;
215.7000;0.3386;7.2336;
216.0000;0.3394;7.2406;
216.3000;0.3394;7.2406;
216.6000;0.3272;7.2103;
216.9000;0.3354;7.2266;
217.2000;0.3386;7.2312;
217.5000;0.3337;7.2219;
217.8000;0.3403;7.2336;
218.1000;0.3386;7.2336;
218.4000;0.3394;7.2406;
218.7000;0.3394;7.2359;
219.0000;0.3386;7.2312;
219.3000;0.3427;7.2429;
219.6000;0.3403;7.2429;
219.9000;0.3378;7.2359;
220.2000;0.3403;7.2406;
220.5000;0.3394;7.2359;
220.8000;0.3386;7.2196;
221.1000;0.3411;7.2196;
221.4000;0.3411;7.2266;
221.7000;0.3394;7.2196;
222.0000;0.3394;7.2196;
222.3000;0.3386;7.2149;
222.6000;0.3403;7.2149;
222.9000;0.3313;7.2033;
223.2000;0.3403;7.2336;
223.5000;0.3370;7.2289;
223.8000;0.3362;7.2242;
224.1000;0.3378;7.2312;
224.4000;0.3378;7.2336;
224.7000;0.3362;7.2336;
225.0000;0.3403;7.2429;
225.3000;0.3386;7.2475;
225.6000;0.3354;7.2359;
225.9000;0.3378;7.2429;
226.2000;0.3411;7.2522;
226.5000;0.3337;7.2406;
226.8000;0.3386;7.2545;
227.1000;0.3378;7.2475;
227.4000;0.3378;7.2522;
227.7000;0.3386;7.2499;
228.0000;0.3386;7.2499;
228.3000;0.3378;7.2429;
228.6000;0.3394;7.2452;
228.9000;0.3394;7.2452;
229.2000;0.3394;7.2452;
229.5000;0.3394;7.2406;
229.8000;0.3378;7.2289;
230.1000;0.3386;7.2359;
230.4000;0.3370;7.2359;
230.7000;0.3386;7.2336;
231.0000;0.3378;7.2359;
231.3000;0.3476;7.2522;
231.6000;0.3386;7.2336;
231.9000;0.3346;7.2359;
232.2000;0.3362;7.2429;
232.5000;0.3411;7.2522;
232.8000;0.3411;7.2452;
233.1000;0.3411;7.2452;
233.4000;0.3435;7.2522;
233.7000;0.3378;7.2406;
234.0000;0.3403;7.2452;
234.3000;0.3403;7.2406;
234.6000;0.3394;7.2499;
234.9000;0.3394;7.2522;
235.2000;0.3403;7.2499;
235.5000;0.3411;7.2499;
235.8000;0.3403;7.2522;
236.1000;0.3411;7.2545;
236.4000;0.3354;7.2406;
236.7000;0.3427;7.2475;
237.0000;0.3525;7.2732;
237.3000;0.3394;7.2429;
237.6000;0.3451;7.2615;
237.9000;0.3378;7.2359;
238.2000;0.3411;7.2382;
238.5000;0.3403;7.2406;
238.8000;0.3403;7.2429;
239.1000;0.3337;7.2359;
239.4000;0.3386;7.2475;
239.7000;0.3394;7.2499;
240.0000;0.3354;7.2475;
240.3000;0.3419;7.2639;
240.6000;0.3362;7.2545;
240.9000;0.3443;7.2732;
241.2000;0.3427;7.2592;
241.5000;0.3419;7.2569;
241.8000;0.3378;7.2592;
242.1000;0.3403;7.2615;
242.4000;0.3403;7.2545;
242.7000;0.3411;7.2545;
243.0000;0.3419;7.2569;
243.3000;0.3403;7.2429;
243.6000;0.3378;7.2289;
243.9000;0.3394;7.2312;
244.2000;0.3394;7.2336;
244.5000;0.3386;7.2336;
244.8000;0.3386;7.2312;
245.1000;0.3394;7.2406;
245.4000;0.3403;7.2406;
245.7000;0.3394;7.2359;
246.0000;0.3394;7.2242;
246.3000;0.3386;7.2219;
246.6000;0.3403;7.2242;
246.9000;0.3411;7.2242;
247.2000;0.3403;7.2126;
247.5000;0.3394;7.2242;
247.8000;0.3419;7.2219;
248.1000;0.3394;7.2149;
248.4000;0.3386;7.2219;
248.7000;0.3403;7.2312;
249.0000;0.3411;7.2382;
249.3000;0.3370;7.2312;
249.6000;0.3394;7.2312;
249.9000;0.3386;7.2312;
250.2000;0.3403;7.2312;
250.5000;0.3386;7.2289;
250.8000;0.3386;7.2312;
251.1000;0.3386;7.2336;
251.4000;0.3378;7.2196;
251.7000;0.3362;7.2196;
252.0000;0.3386;7.2266;
252.3000;0.3411;7.2242;
252.6000;0.3411;7.2173;
252.9000;0.3386;7.2149;
253.2000;0.3419;7.2219;
253.5000;0.3411;7.2149;
253.8000;0.3476;7.2312;
254.1000;0.3403;7.2242;
254.4000;0.3370;7.2103;
254.7000;0.3411;7.2266;
255.0000;0.3378;7.2149;
255.3000;0.3394;7.2219;
255.6000;0.3394;7.2149;
255.9000;0.3403;7.2126;
256.2000;0.3394;7.2033;
256.5000;0.3386;7.2009;
256.8000;0.3411;7.2149;
257.1000;0.3419;7.2173;
257.4000;0.3403;7.2079;
257.7000;0.3378;7.2079;
258.0000;0.3427;7.2149;
258.3000;0.3451;7.2266;
258.6000;0.3403;7.2173;
258.9000;0.3394;7.2173;
259.2000;0.3403;7.2219;
259.5000;0.3386;7.2196;
259.8000;0.3394;7.2149;
260.1000;0.3386;7.2126;
260.4000;0.3403;7.2126;
260.7000;0.3411;7.2149;
261.0000;0.3427;7.2289;
261.3000;0.3394;7.2173;
261.6000;0.3394;7.2242;
261.9000;0.3411;7.2289;
262.2000;0.3411;7.2406;
262.5000;0.3386;7.2336;
262.8000;0.3403;7.2289;
263.1000;0.3386;7.2196;
263.4000;0.3403;7.2219;
263.7000;0.3386;7.2149;
264.0000;0.3394;7.2149;
264.3000;0.3419;7.2242;
264.6000;0.3476;7.2452;
264.9000;0.3394;7.2219;
265.2000;0.3370;7.2196;
265.5000;0.3386;7.2266;
265.8000;0.3411;7.2429;
266.1000;0.3419;7.2312;
266.4000;0.3411;7.2196;
266.7000;0.3419;7.2219;
267.0000;0.3403;7.2266;
267.3000;0.3403;7.2196;
267.6000;0.3419;7.2359;
267.9000;0.3411;7.2359;
268.2000;0.3403;7.2336;
268.5000;0.3411;7.2359;
268.8000;0.3419;7.2312;
269.1000;0.3378;7.2149;
269.4000;0.3419;7.2289;
269.7000;0.3403;7.2336;
270.0000;0.3386;7.2312;
270.3000;0.3394;7.2312;
270.6000;0.3370;7.2219;
270.9000;0.3386;7.2242;
271.2000;0.3403;7.2289;
271.5000;0.3346;7.2103;
271.8000;0.3386;7.2149;
272.1000;0.3403;7.2149;
272.4000;0.3419;7.2149;
272.7000;0.3435;7.2219;
273.0000;0.3378;7.2196;
273.3000;0.3394;7.2196;
273.6000;0.3337;7.2079;
273.9000;0.3419;7.2312;
274.2000;0.3427;7.2336;
274.5000;0.3386;7.2266;
274.8000;0.3411;7.2336;
275.1000;0.3411;7.2359;
275.4000;0.3378;7.2289;
275.7000;0.3394;7.2336;
276.0000;0.3403;7.2452;
276.3000;0.3394;7.2429;
276.6000;0.3403;7.2406;
276.9000;0.3411;7.2406;
277.2000;0.3403;7.2382;
277.5000;0.3386;7.2359;
277.8000;0.3370;7.2336;
278.1000;0.3386;7.2336;
278.4000;0.3403;7.2289;
278.7000;0.3403;7.2289;
279.0000;0.3394;7.2266;
279.3000;0.3386;7.2219;
279.6000;0.3394;7.2219;
279.9000;0.3411;7.2289;
280.2000;0.3378;7.2126;
280.5000;0.3419;7.2196;
280.8000;0.3403;7.2126;
281.1000;0.3386;7.2149;
281.4000;0.3386;7.2126;
281.7000;0.3394;7.2056;
282.0000;0.3411;7.2126;
282.3000;0.3403;7.2196;
282.6000;0.3403;7.2219;
282.9000;0.3403;7.2242;
283.2000;0.3403;7.2289;
283.5000;0.3419;7.2359;
283.8000;0.3403;7.2359;
284.1000;0.3394;7.2406;
284.4000;0.3403;7.2499;
284.7000;0.3411;7.2406;
285.0000;0.3411;7.2499;
285.3000;0.3394;7.2475;
285.6000;0.3394;7.2475;
285.9000;0.3411;7.2569;
286.2000;0.3394;7.2569;
286.5000;0.3386;7.2499;
286.8000;0.3427;7.2615;
287.1000;0.3411;7.2499;
287.4000;0.3394;7.2382;
287.7000;0.3394;7.2312;
288.0000;0.3362;7.2289;
288.3000;0.3370;7.2406;
288.6000;0.3403;7.2592;
288.9000;0.3394;7.2709;
289.2000;0.3386;7.2615;
289.5000;0.3386;7.2639;
289.8000;0.3394;7.2592;
290.1000;0.3419;7.2662;
290.4000;0.3394;7.2685;
290.7000;0.3411;7.2709;
291.0000;0.3403;7.2639;
291.3000;0.3378;7.2522;
291.6000;0.3403;7.2592;
291.9000;0.3403;7.2662;
292.2000;0.3411;7.2662;
292.5000;0.3419;7.2615;
292.8000;0.3435;7.2615;
293.1000;0.3354;7.2475;
293.4000;0.3386;7.2475;
293.7000;0.3419;7.2452;
294.0000;0.3394;7.2406;
294.3000;0.3378;7.2382;
294.6000;0.3394;7.2406;
294.9000;0.3403;7.2406;
295.2000;0.3403;7.2429;
295.5000;0.3378;7.2359;
295.8000;0.3362;7.2312;
296.1000;0.3346;7.2173;
296.4000;0.3435;7.2382;
296.7000;0.3411;7.2266;
297.0000;0.3386;7.2219;
297.3000;0.3362;7.2196;
297.6000;0.3394;7.2429;
297.9000;0.3394;7.2569;
298.2000;0.3403;7.2615;
298.5000;0.3354;7.2499;
298.8000;0.3419;7.2639;
299.1000;0.3403;7.2592;
299.4000;0.3394;7.2569;
299.7000;0.3484;7.2732;
300.0000;0.3386;7.2452;
300.3000;0.3403;7.2522;
300.6000;0.3378;7.2499;
300.9000;0.3386;7.2545;
301.2000;0.3411;7.2592;
301.5000;0.3411;7.2569;
301.8000;0.3403;7.2545;
302.1000;0.3403;7.2475;
302.4000;0.3427;7.2522;
302.7000;0.3403;7.2522;
303.0000;0.3403;7.2569;
303.3000;0.3419;7.2615;
303.6000;0.3378;7.2522;
303.9000;0.3394;7.2569;
304.2000;0.3403;7.2569;
304.5000;0.3394;7.2592;
304.8000;0.3394;7.2522;
305.1000;0.3411;7.2545;
305.4000;0.3394;7.2592;
305.7000;0.3386;7.2545;
306.0000;0.3403;7.2592;
306.3000;0.3386;7.2499;
306.6000;0.3435;7.2615;
306.9000;0.3370;7.2569;
307.2000;0.3460;7.2778;
307.5000;0.3411;7.2592;
307.8000;0.3427;7.2662;
308.1000;0.3394;7.2592;
308.4000;0.3403;7.2569;
308.7000;0.3403;7.2615;
309.0000;0.3427;7.2709;
309.3000;0.3394;7.2545;
309.6000;0.3378;7.2545;
309.9000;0.3370;7.2545;
310.2000;0.3394;7.2639;
310.5000;0.3411;7.2778;
310.8000;0.3313;7.2592;
311.1000;0.3403;7.2685;
311.4000;0.3394;7.2592;
311.7000;0.3386;7.2569;
312.0000;0.3386;7.2406;
312.3000;0.3346;7.2312;
312.6000;0.3394;7.2475;
312.9000;0.3378;7.2475;
313.2000;0.3403;7.2452;
313.5000;0.3411;7.2522;
313.8000;0.3394;7.2569;
314.1000;0.3394;7.2569;
314.4000;0.3411;7.2569;
314.7000;0.3386;7.2475;
315.0000;0.3386;7.2499;
315.3000;0.3419;7.2592;
315.6000;0.3394;7.2522;
315.9000;0.3468;7.2662;
316.2000;0.3386;7.2499;
316.5000;0.3411;7.2499;
316.8000;0.3403;7.2475;
317.1000;0.3411;7.2569;
317.4000;0.3443;7.2685;
317.7000;0.3435;7.2662;
318.0000;0.3435;7.2592;
318.3000;0.3394;7.2475;
318.6000;0.3427;7.2592;
318.9000;0.3394;7.2545;
319.2000;0.3411;7.2522;
319.5000;0.3411;7.2522;
319.8000;0.3386;7.2522;
320.1000;0.3411;7.2615;
320.4000;0.3403;7.2662;
320.7000;0.3411;7.2709;
321.0000;0.3403;7.2569;
321.3000;0.3394;7.2545;
321.6000;0.3337;7.2406;
321.9000;0.3411;7.2592;
322.2000;0.3394;7.2569;
322.5000;0.3403;7.2522;
322.8000;0.3386;7.2475;
323.1000;0.3451;7.2545;
323.4000;0.3378;7.2406;
323.7000;0.3435;7.2592;
324.0000;0.3378;7.2545;
324.3000;0.3337;7.2406;
324.6000;0.3419;7.2639;
324.9000;0.3394;7.2639;
325.2000;0.3370;7.2592;
325.5000;0.3403;7.2639;
325.8000;0.3525;7.3011;
326.1000;0.3403;7.2778;
326.4000;0.3411;7.2755;
326.7000;0.3411;7.2662;
327.0000;0.3411;7.2639;
327.3000;0.3411;7.2592;
327.6000;0.3378;7.2475;
327.9000;0.3419;7.2569;
328.2000;0.3403;7.2662;
328.5000;0.3394;7.2685;
328.8000;0.3394;7.2778;
329.1000;0.3378;7.2732;
329.4000;0.3403;7.2732;
329.7000;0.3403;7.2662;
330.0000;0.3329;7.2452;
330.3000;0.3411;7.2592;
330.6000;0.3378;7.2499;
330.9000;0.3337;7.2406;
331.2000;0.3403;7.2522;
331.5000;0.3386;7.2429;
331.8000;0.3378;7.2452;
332.1000;0.3403;7.2499;
332.4000;0.3394;7.2499;
332.7000;0.3468;7.2755;
333.0000;0.3297;7.2312;
333.3000;0.3394;7.2522;
333.6000;0.3394;7.2545;
333.9000;0.3378;7.2499;
334.2000;0.3394;7.2499;
334.5000;0.3386;7.2382;
334.8000;0.3394;7.2359;
335.1000;0.3394;7.2336;
335.4000;0.3403;7.2522;
335.7000;0.3394;7.2522;
336.0000;0.3394;7.2522;
336.3000;0.3394;7.2499;
336.6000;0.3370;7.2475;
336.9000;0.3403;7.2592;
337.2000;0.3386;7.2522;
337.5000;0.3403;7.2569;
337.8000;0.3403;7.2522;
338.1000;0.3403;7.2499;
338.4000;0.3394;7.2522;
338.7000;0.3411;7.2522;
339.0000;0.3378;7.2452;
339.3000;0.3419;7.2545;
339.6000;0.3394;7.2569;
339.9000;0.3403;7.2569;
340.2000;0.3394;7.2522;
340.5000;0.3394;7.2615;
340.8000;0.3394;7.2639;
341.1000;0.3394;7.2662;
341.4000;0.3386;7.2639;
341.7000;0.3403;7.2685;
342.0000;0.3411;7.2639;
342.3000;0.3427;7.2639;
342.6000;0.3411;7.2592;
342.9000;0.3394;7.2639;
343.2000;0.3411;7.2662;
343.5000;0.3451;7.2802;
343.8000;0.3370;7.2569;
344.1000;0.3394;7.2685;
344.4000;0.3435;7.2825;
344.7000;0.3362;7.2709;
345.0000;0.3394;7.2848;
345.3000;0.3451;7.2918;
345.6000;0.3378;7.2709;
345.9000;0.3362;7.2662;
346.2000;0.3354;7.2662;
346.5000;0.3419;7.2848;
346.8000;0.3394;7.2802;
347.1000;0.3394;7.2802;
347.4000;0.3394;7.2778;
347.7000;0.3386;7.2685;
348.0000;0.3394;7.2709;
348.3000;0.3354;7.2545;
348.6000;0.3403;7.2639;
348.9000;0.3460;7.2685;
349.2000;0.3508;7.2755;
349.5000;0.3403;7.2545;
349.8000;0.3354;7.2522;
350.1000;0.3370;7.2475;
350.4000;0.3403;7.2522;
350.7000;0.3394;7.2475;
351.0000;0.3394;7.2429;
351.3000;0.3386;7.2429;
351.6000;0.3443;7.2569;
351.9000;0.3427;7.2475;
352.2000;0.3386;7.2382;
352.5000;0.3443;7.2522;
352.8000;0.3411;7.2522;
353.1000;0.3394;7.2452;
353.4000;0.3419;7.2499;
353.7000;0.3403;7.2522;
354.0000;0.3378;7.2475;
354.3000;0.3378;7.2429;
354.6000;0.3394;7.2382;
354.9000;0.3386;7.2359;
355.2000;0.3394;7.2406;
355.5000;0.3394;7.2382;
355.8000;0.3394;7.2452;
356.1000;0.3386;7.2452;
356.4000;0.3394;7.2569;
356.7000;0.3362;7.2545;
357.0000;0.3394;7.2615;
357.3000;0.3427;7.2615;
357.6000;0.3386;7.2452;
357.9000;0.3394;7.2406;
358.2000;0.3394;7.2382;
358.5000;0.3411;7.2382;
358.8000;0.3378;7.2312;
359.1000;0.3378;7.2429;
359.4000;0.3403;7.2569;
359.7000;0.3411;7.2662;
360.0000;0.3354;7.2569;
360.3000;0.3403;7.2545;
360.6000;0.3419;7.2569;
360.9000;0.3403;7.2499;
361.2000;0.3419;7.2429;
361.5000;0.3419;7.2499;
361.8000;0.3435;7.2522;
362.1000;0.3403;7.2522;
362.4000;0.3411;7.2522;
362.7000;0.3435;7.2639;
363.0000;0.3460;7.2732;
363.3000;0.3394;7.2685;
363.6000;0.3443;7.2732;
363.9000;0.3378;7.2475;
364.2000;0.3403;7.2499;
364.5000;0.3394;7.2429;
364.8000;0.3386;7.2336;
365.1000;0.3354;7.2382;
365.4000;0.3394;7.2499;
365.7000;0.3386;7.2475;
366.0000;0.3394;7.2452;
366.3000;0.3419;7.2522;
366.6000;0.3394;7.2499;
366.9000;0.3362;7.2522;
367.2000;0.3403;7.2685;
367.5000;0.3403;7.2848;
367.8000;0.3443;7.3035;
368.1000;0.3411;7.2872;
368.4000;0.3378;7.2755;
368.7000;0.3362;7.2685;
369.0000;0.3403;7.2755;
369.3000;0.3411;7.2662;
369.6000;0.3411;7.2615;
369.9000;0.3370;7.2522;
370.2000;0.3443;7.2709;
370.5000;0.3386;7.2592;
370.8000;0.3394;7.2615;
371.1000;0.3419;7.2662;
371.4000;0.3403;7.2709;
371.7000;0.3378;7.2685;
372.0000;0.3394;7.2755;
372.3000;0.3451;7.2802;
372.6000;0.3394;7.2685;
372.9000;0.3403;7.2755;
373.2000;0.3468;7.2848;
373.5000;0.3403;7.2709;
373.8000;0.3403;7.2709;
374.1000;0.3419;7.2732;
374.4000;0.3386;7.2639;
374.7000;0.3394;7.2615;
375.0000;0.3394;7.2592;
375.3000;0.3419;7.2639;
375.6000;0.3411;7.2732;
375.9000;0.3394;7.2662;
376.2000;0.3460;7.2732;
376.5000;0.3394;7.2522;
376.8000;0.3394;7.2522;
377.1000;0.3386;7.2499;
377.4000;0.3394;7.2522;
377.7000;0.3419;7.2615;
378.0000;0.3394;7.2615;
378.3000;0.3403;7.2569;
378.6000;0.3394;7.2499;
378.9000;0.3411;7.2545;
379.2000;0.3427;7.2615;
379.5000;0.3394;7.2615;
379.8000;0.3403;7.2662;
380.1000;0.3370;7.2592;
380.4000;0.3403;7.2615;
380.7000;0.3386;7.2615;
381.0000;0.3386;7.2592;
381.3000;0.3411;7.2685;
381.6000;0.3435;7.2662;
381.9000;0.3419;7.2639;
382.2000;0.3378;7.2522;
382.5000;0.3362;7.2475;
382.8000;0.3411;7.2615;
383.1000;0.3403;7.2592;
383.4000;0.3403;7.2522;
383.7000;0.3403;7.2499;
384.0000;0.3411;7.2662;
384.3000;0.3419;7.2755;
384.6000;0.3403;7.2709;
384.9000;0.3403;7.2592;
385.2000;0.3411;7.2615;
385.5000;0.3403;7.2639;
385.8000;0.3403;7.2709;
386.1000;0.3394;7.2662;
386.4000;0.3394;7.2639;
386.7000;0.3419;7.2755;
387.0000;0.3411;7.2732;
387.3000;0.3419;7.2802;
387.6000;0.3419;7.2778;
387.9000;0.3411;7.2802;
388.2000;0.3427;7.2825;
388.5000;0.3354;7.2615;
388.8000;0.3460;7.2709;
389.1000;0.3411;7.2639;
389.4000;0.3435;7.2755;
389.7000;0.3411;7.2639;
390.0000;0.3386;7.2569;
390.3000;0.3435;7.2802;
390.6000;0.3394;7.2802;
390.9000;0.3394;7.2895;
391.2000;0.3386;7.2778;
391.5000;0.3411;7.2755;
391.8000;0.3394;7.2755;
392.1000;0.3403;7.2755;
392.4000;0.3386;7.2685;
392.7000;0.3386;7.2592;
393.0000;0.3419;7.2755;
393.3000;0.3386;7.2709;
393.6000;0.3394;7.2732;
393.9000;0.3386;7.2662;
394.2000;0.3354;7.2685;
394.5000;0.3419;7.2872;
394.8000;0.3403;7.2848;
395.1000;0.3411;7.2802;
395.4000;0.3394;7.2732;
395.7000;0.3419;7.2755;
396.0000;0.3394;7.2685;
396.3000;0.3411;7.2755;
396.6000;0.3386;7.2685;
396.9000;0.3394;7.2685;
397.2000;0.3403;7.2685;
397.5000;0.3394;7.2709;
397.8000;0.3394;7.2615;
398.1000;0.3329;7.2406;
398.4000;0.3403;7.2639;
398.7000;0.3394;7.2709;
399.0000;0.3411;7.2825;
399.3000;0.3403;7.2988;
399.6000;0.3370;7.2942;
399.9000;0.3370;7.2895;
400.2000;0.3394;7.2895;
400.5000;0.3403;7.2942;
400.8000;0.3403;7.2918;
401.1000;0.3394;7.2778;
401.4000;0.3403;7.2802;
401.7000;0.3362;7.2639;
402.0000;0.3394;7.2662;
402.3000;0.3403;7.2592;
402.6000;0.3313;7.2429;
402.9000;0.3403;7.2755;
403.2000;0.3435;7.2802;
403.5000;0.3492;7.2988;
403.8000;0.3411;7.2825;
404.1000;0.3394;7.2755;
404.4000;0.3411;7.2755;
404.7000;0.3305;7.2499;
405.0000;0.3411;7.2732;
405.3000;0.3411;7.2732;
405.6000;0.3411;7.2732;
405.9000;0.3411;7.2709;
406.2000;0.3403;7.2732;
406.5000;0.3419;7.2755;
406.8000;0.3411;7.2802;
407.1000;0.3411;7.2825;
407.4000;0.3370;7.2709;
407.7000;0.3394;7.2639;
408.0000;0.3378;7.2569;
408.3000;0.3370;7.2475;
408.6000;0.3427;7.2569;
408.9000;0.3403;7.2499;
409.2000;0.3394;7.2499;
409.5000;0.3403;7.2522;
409.8000;0.3468;7.2732;
410.1000;0.3394;7.2522;
410.4000;0.3403;7.2522;
410.7000;0.3419;7.2639;
411.0000;0.3329;7.2429;
411.3000;0.3460;7.2755;
411.6000;0.3354;7.2615;
411.9000;0.3516;7.2942;
412.2000;0.3411;7.2639;
412.5000;0.3419;7.2685;
412.8000;0.3370;7.2545;
413.1000;0.3362;7.2545;
413.4000;0.3370;7.2592;
413.7000;0.3411;7.2662;
414.0000;0.3378;7.2592;
414.3000;0.3394;7.2569;
414.6000;0.3394;7.2615;
414.9000;0.3427;7.2639;
415.2000;0.3394;7.2569;
415.5000;0.3403;7.2569;
415.8000;0.3386;7.2545;
416.1000;0.3394;7.2569;
416.4000;0.3403;7.2569;
416.7000;0.3394;7.2592;
417.0000;0.3403;7.2709;
417.3000;0.3378;7.2662;
417.6000;0.3394;7.2545;
417.9000;0.3394;7.2499;
418.2000;0.3386;7.2545;
418.5000;0.3427;7.2685;
418.8000;0.3443;7.2709;
419.1000;0.3378;7.2592;
419.4000;0.3427;7.2685;
419.7000;0.3370;7.2592;
420.0000;0.3386;7.2522;
420.3000;0.3394;7.2592;
420.6000;0.3403;7.2685;
420.9000;0.3394;7.2732;
421.2000;0.3403;7.2825;
421.5000;0.3386;7.2825;
421.8000;0.3386;7.2802;
422.1000;0.3403;7.2732;
422.4000;0.3394;7.2685;
422.7000;0.3329;7.2545;
423.0000;0.3370;7.2592;
423.3000;0.3411;7.2639;
423.6000;0.3329;7.2406;
423.9000;0.3403;7.2569;
424.2000;0.3394;7.2569;
424.5000;0.3386;7.2545;
424.8000;0.3378;7.2499;
425.1000;0.3386;7.2475;
425.4000;0.3394;7.2452;
425.7000;0.3394;7.2475;
426.0000;0.3370;7.2522;
426.3000;0.3419;7.2615;
426.6000;0.3386;7.2522;
426.9000;0.3394;7.2545;
427.2000;0.3394;7.2662;
427.5000;0.3403;7.2662;
427.8000;0.3411;7.2709;
428.1000;0.3411;7.2615;
428.4000;0.3386;7.2592;
428.7000;0.3386;7.2499;
429.0000;0.3394;7.2452;
429.3000;0.3419;7.2569;
429.6000;0.3394;7.2639;
429.9000;0.3386;7.2545;
430.2000;0.3386;7.2499;
430.5000;0.3435;7.2592;
430.8000;0.3403;7.2452;
431.1000;0.3427;7.2452;
431.4000;0.3394;7.2406;
431.7000;0.3394;7.2406;
432.0000;0.3411;7.2359;
432.3000;0.3394;7.2289;
432.6000;0.3386;7.2336;
432.9000;0.3378;7.2289;
433.2000;0.3419;7.2452;
433.5000;0.3403;7.2499;
433.8000;0.3394;7.2452;
434.1000;0.3403;7.2452;
434.4000;0.3386;7.2406;
434.7000;0.3419;7.2522;
435.0000;0.3492;7.2709;
435.3000;0.3443;7.2569;
435.6000;0.3337;7.2336;
435.9000;0.3370;7.2452;
436.2000;0.3411;7.2475;
436.5000;0.3362;7.2382;
436.8000;0.3386;7.2452;
437.1000;0.3403;7.2475;
437.4000;0.3394;7.2499;
437.7000;0.3403;7.2475;
438.0000;0.3411;7.2592;
438.3000;0.3378;7.2569;
438.6000;0.3403;7.2569;
438.9000;0.3394;7.2545;
439.2000;0.3370;7.2569;
439.5000;0.3386;7.2592;
439.8000;0.3427;7.2709;
440.1000;0.3378;7.2499;
440.4000;0.3362;7.2522;
440.7000;0.3346;7.2522;
441.0000;0.3386;7.2685;
441.3000;0.3370;7.2615;
441.6000;0.3394;7.2685;
441.9000;0.3394;7.2615;
442.2000;0.3354;7.2406;
442.5000;0.3419;7.2545;
442.8000;0.3460;7.2615;
443.1000;0.3403;7.2592;
443.4000;0.3508;7.2848;
443.7000;0.3403;7.2615;
444.0000;0.3378;7.2569;
444.3000;0.3403;7.2639;
444.6000;0.3411;7.2639;
444.9000;0.3403;7.2615;
445.2000;0.3403;7.2615;
445.5000;0.3411;7.2639;
445.8000;0.3394;7.2615;
446.1000;0.3403;7.2615;
446.4000;0.3403;7.2592;
446.7000;0.3403;7.2639;
447.0000;0.3403;7.2662;
447.3000;0.3386;7.2615;
447.6000;0.3378;7.2615;
447.9000;0.3386;7.2592;
448.2000;0.3411;7.2639;
448.5000;0.3394;7.2592;
448.8000;0.3378;7.2569;
449.1000;0.3386;7.2615;
449.4000;0.3386;7.2685;
449.7000;0.3297;7.2475;
450.0000;0.3394;7.2732;
450.3000;0.3394;7.2709;
450.6000;0.3394;7.2755;
450.9000;0.3370;7.2662;
451.2000;0.3386;7.2639;
451.5000;0.3378;7.2685;
451.8000;0.3394;7.2662;
452.1000;0.3411;7.2545;
452.4000;0.3378;7.2452;
452.7000;0.3394;7.2406;
453.0000;0.3451;7.2452;
453.3000;0.3411;7.2452;
453.6000;0.3411;7.2429;
453.9000;0.3386;7.2336;
454.2000;0.3411;7.2359;
454.5000;0.3403;7.2359;
454.8000;0.3346;7.2359;
455.1000;0.3427;7.2592;
455.4000;0.3411;7.2569;
455.7000;0.3419;7.2569;
456.0000;0.3411;7.2569;
456.3000;0.3386;7.2475;
456.6000;0.3419;7.2569;
456.9000;0.3443;7.2592;
457.2000;0.3427;7.2522;
457.5000;0.3403;7.2545;
457.8000;0.3435;7.2732;
458.1000;0.3354;7.2452;
458.4000;0.3394;7.2545;
458.7000;0.3403;7.2522;
459.0000;0.3378;7.2475;
459.3000;0.3484;7.2662;
459.6000;0.3394;7.2429;
459.9000;0.3435;7.2499;
460.2000;0.3435;7.2592;
460.5000;0.3386;7.2545;
460.8000;0.3419;7.2685;
461.1000;0.3492;7.2872;
461.4000;0.3394;7.2662;
461.7000;0.3411;7.2662;
462.0000;0.3411;7.2685;
462.3000;0.3435;7.2732;
462.6000;0.3394;7.2639;
462.9000;0.3346;7.2499;
463.2000;0.3427;7.2732;
463.5000;0.3403;7.2802;
463.8000;0.3411;7.2778;
464.1000;0.3427;7.2848;
464.4000;0.3411;7.2872;
464.7000;0.3403;7.2872;
465.0000;0.3386;7.2848;
465.3000;0.3346;7.2685;
465.6000;0.3386;7.2732;
465.9000;0.3394;7.2639;
466.2000;0.3329;7.2406;
466.5000;0.3394;7.2569;
466.8000;0.3403;7.2569;
467.1000;0.3394;7.2569;
467.4000;0.3386;7.2522;
467.7000;0.3411;7.2639;
468.0000;0.3403;7.2592;
468.3000;0.3394;7.2499;
468.6000;0.3394;7.2569;
468.9000;0.3386;7.2522;
469.2000;0.3394;7.2522;
469.5000;0.3435;7.2522;
469.8000;0.3403;7.2545;
470.1000;0.3394;7.2592;
470.4000;0.3403;7.2685;
470.7000;0.3411;7.2709;
471.0000;0.3403;7.2592;
471.3000;0.3411;7.2615;
471.6000;0.3378;7.2615;
471.9000;0.3411;7.2685;
472.2000;0.3403;7.2662;
472.5000;0.3386;7.2592;
472.8000;0.3394;7.2569;
473.1000;0.3411;7.2545;
473.4000;0.3411;7.2522;
473.7000;0.3419;7.2475;
474.0000;0.3411;7.2429;
474.3000;0.3378;7.2336;
474.6000;0.3386;7.2452;
474.9000;0.3403;7.2545;
475.2000;0.3386;7.2545;
475.5000;0.3386;7.2592;
475.8000;0.3386;7.2662;
476.1000;0.3403;7.2685;
476.4000;0.3386;7.2545;
476.7000;0.3411;7.2545;
477.0000;0.3419;7.2475;
477.3000;0.3419;7.2475;
477.6000;0.3460;7.2545;
477.9000;0.3394;7.2475;
478.2000;0.3403;7.2499;
478.5000;0.3394;7.2545;
478.8000;0.3403;7.2639;
479.1000;0.3403;7.2709;
479.4000;0.3394;7.2685;
479.7000;0.3403;7.2662;
480.0000;0.3354;7.2499;
480.3000;0.3411;7.2615;
480.6000;0.3403;7.2475;
480.9000;0.3403;7.2452;
481.2000;0.3419;7.2499;
481.5000;0.3394;7.2522;
481.8000;0.3411;7.2592;
482.1000;0.3451;7.2685;
482.4000;0.3394;7.2499;
482.7000;0.3394;7.2452;
483.0000;0.3386;7.2592;
483.3000;0.3370;7.2545;
483.6000;0.3386;7.2639;
483.9000;0.3403;7.2732;
484.2000;0.3427;7.2778;
484.5000;0.3419;7.2778;
484.8000;0.3386;7.2709;
485.1000;0.3378;7.2709;
485.4000;0.3386;7.2732;
485.7000;0.3394;7.2755;
486.0000;0.3419;7.2732;
486.3000;0.3443;7.2802;
486.6000;0.3370;7.2639;
486.9000;0.3370;7.2639;
487.2000;0.3346;7.2545;
487.5000;0.3386;7.2545;
487.8000;0.3394;7.2475;
488.1000;0.3419;7.2452;
488.4000;0.3394;7.2382;
488.7000;0.3346;7.2312;
489.0000;0.3370;7.2475;
489.3000;0.3394;7.2685;
489.6000;0.3386;7.2662;
489.9000;0.3411;7.2685;
490.2000;0.3378;7.2592;
490.5000;0.3346;7.2569;
490.8000;0.3419;7.2802;
491.1000;0.3403;7.2778;
491.4000;0.3394;7.2778;
491.7000;0.3386;7.2709;
492.0000;0.3386;7.2732;
492.3000;0.3403;7.2732;
492.6000;0.3411;7.2709;
492.9000;0.3386;7.2615;
493.2000;0.3394;7.2639;
493.5000;0.3346;7.2475;
493.8000;0.3386;7.2592;
494.1000;0.3419;7.2685;
494.4000;0.3403;7.2639;
494.7000;0.3394;7.2639;
495.0000;0.3394;7.2662;
495.3000;0.3394;7.2592;
495.6000;0.3394;7.2615;
495.9000;0.3378;7.2685;
496.2000;0.3394;7.2732;
496.5000;0.3403;7.2662;
496.8000;0.3378;7.2592;
497.1000;0.3394;7.2499;
497.4000;0.3394;7.2475;
497.7000;0.3460;7.2615;
498.0000;0.3386;7.2569;
498.3000;0.3419;7.2639;
498.6000;0.3419;7.2592;
498.9000;0.3386;7.2569;
499.2000;0.3394;7.2545;
499.5000;0.3394;7.2592;
499.8000;0.3354;7.2475;
500.1000;0.3394;7.2545;
500.4000;0.3386;7.2569;
500.7000;0.3354;7.2499;
501.0000;0.3362;7.2545;
501.3000;0.3337;7.2475;
501.6000;0.3386;7.2545;
501.9000;0.3394;7.2545;
502.2000;0.3427;7.2569;
502.5000;0.3394;7.2452;
502.8000;0.3362;7.2382;
503.1000;0.3394;7.2382;
503.4000;0.3386;7.2475;
503.7000;0.3386;7.2406;
504.0000;0.3394;7.2359;
504.3000;0.3516;7.2662;
504.6000;0.3370;7.2359;
504.9000;0.3394;7.2429;
505.2000;0.3394;7.2499;
505.5000;0.3329;7.2336;
505.8000;0.3403;7.2545;
506.1000;0.3394;7.2452;
506.4000;0.3394;7.2499;
506.7000;0.3378;7.2429;
507.0000;0.3329;7.2359;
507.3000;0.3378;7.2615;
507.6000;0.3370;7.2709;
507.9000;0.3386;7.2685;
508.2000;0.3386;7.2639;
508.5000;0.3378;7.2615;
508.8000;0.3386;7.2685;
509.1000;0.3386;7.2755;
509.4000;0.3378;7.2709;
509.7000;0.3386;7.2709;
510.0000;0.3378;7.2709;
510.3000;0.3411;7.2732;
510.6000;0.3394;7.2662;
510.9000;0.3403;7.2592;
511.2000;0.3411;7.2569;
511.5000;0.3386;7.2475;
511.8000;0.3354;7.2406;
512.1000;0.3394;7.2522;
512.4000;0.3394;7.2545;
512.7000;0.3411;7.2592;
513.0000;0.3394;7.2569;
513.3000;0.3394;7.2522;
513.6000;0.3419;7.2545;
513.9000;0.3386;7.2569;
514.2000;0.3370;7.2545;
514.5000;0.3394;7.2569;
514.8000;0.3386;7.2709;
515.1000;0.3394;7.2802;
515.4000;0.3394;7.2848;
515.7000;0.3370;7.2825;
516.0000;0.3386;7.2848;
516.3000;0.3370;7.2848;
516.6000;0.3386;7.2755;
516.9000;0.3386;7.2755;
517.2000;0.3386;7.2778;
517.5000;0.3403;7.2848;
517.8000;0.3419;7.2755;
518.1000;0.3403;7.2709;
518.4000;0.3386;7.2732;
518.7000;0.3386;7.2755;
519.0000;0.3394;7.2802;
519.3000;0.3378;7.2709;
519.6000;0.3411;7.2732;
519.9000;0.3403;7.2825;
520.2000;0.3394;7.2802;
520.5000;0.3305;7.2522;
520.8000;0.3394;7.2848;
521.1000;0.3411;7.2778;
521.4000;0.3378;7.2615;
521.7000;0.3370;7.2592;
522.0000;0.3386;7.2639;
522.3000;0.3386;7.2732;
522.6000;0.3386;7.2802;
522.9000;0.3419;7.2825;
523.2000;0.3386;7.2639;
523.5000;0.3370;7.2569;
523.8000;0.3394;7.2545;
524.1000;0.3386;7.2522;
524.4000;0.3403;7.2475;
524.7000;0.3386;7.2475;
525.0000;0.3411;7.2522;
525.3000;0.3427;7.2592;
525.6000;0.3378;7.2592;
525.9000;0.3411;7.2592;
526.2000;0.3394;7.2639;
526.5000;0.3403;7.2592;
526.8000;0.3403;7.2522;
527.1000;0.3411;7.2545;
527.4000;0.3370;7.2475;
527.7000;0.3403;7.2569;
528.0000;0.3411;7.2545;
528.3000;0.3460;7.2615;
528.6000;0.3403;7.2522;
528.9000;0.3394;7.2639;
529.2000;0.3394;7.2662;
529.5000;0.3354;7.2615;
529.8000;0.3354;7.2662;
530.1000;0.3394;7.2778;
530.4000;0.3394;7.2732;
530.7000;0.3386;7.2685;
531.0000;0.3362;7.2662;
531.3000;0.3435;7.2802;
531.6000;0.3403;7.2615;
531.9000;0.3394;7.2499;
532.2000;0.3386;7.2499;
532.5000;0.3378;7.2452;
532.8000;0.3386;7.2452;
533.1000;0.3394;7.2359;
533.4000;0.3386;7.2429;
533.7000;0.3394;7.2522;
534.0000;0.3403;7.2499;
534.3000;0.3386;7.2475;
534.6000;0.3378;7.2499;
534.9000;0.3394;7.2545;
535.2000;0.3370;7.2522;
535.5000;0.3378;7.2522;
535.8000;0.3378;7.2475;
536.1000;0.3419;7.2592;
536.4000;0.3378;7.2569;
536.7000;0.3386;7.2592;
537.0000;0.3394;7.2732;
537.3000;0.3370;7.2709;
537.6000;0.3378;7.2639;
537.9000;0.3394;7.2592;
538.2000;0.3394;7.2639;
538.5000;0.3386;7.2615;
538.8000;0.3386;7.2662;
539.1000;0.3403;7.2569;
539.4000;0.3403;7.2522;
539.7000;0.3378;7.2499;
540.0000;0.3378;7.2522;
540.3000;0.3378;7.2522;
540.6000;0.3411;7.2545;
540.9000;0.3386;7.2406;
541.2000;0.3378;7.2452;
541.5000;0.3403;7.2499;
541.8000;0.3386;7.2499;
542.1000;0.3386;7.2499;
542.4000;0.3378;7.2545;
542.7000;0.3394;7.2615;
543.0000;0.3394;7.2545;
543.3000;0.3403;7.2545;
543.6000;0.3394;7.2592;
543.9000;0.3394;7.2615;
544.2000;0.3403;7.2662;
544.5000;0.3394;7.2615;
544.8000;0.3394;7.2639;
545.1000;0.3386;7.2639;
545.4000;0.3378;7.2615;
545.7000;0.3411;7.2615;
546.0000;0.3378;7.2569;
546.3000;0.3386;7.2545;
546.6000;0.3394;7.2569;
546.9000;0.3386;7.2545;
547.2000;0.3411;7.2615;
547.5000;0.3394;7.2709;
547.8000;0.3394;7.2639;
548.1000;0.3403;7.2709;
548.4000;0.3386;7.2709;
548.7000;0.3403;7.2778;
549.0000;0.3411;7.2802;
549.3000;0.3451;7.2872;
549.6000;0.3419;7.2755;
549.9000;0.3378;7.2639;
550.2000;0.3321;7.2452;
550.5000;0.3394;7.2569;
550.8000;0.3403;7.2592;
551.1000;0.3313;7.2382;
551.4000;0.3411;7.2522;
551.7000;0.3378;7.2499;
552.0000;0.3403;7.2592;
552.3000;0.3386;7.2639;
552.6000;0.3386;7.2709;
552.9000;0.3354;7.2709;
553.2000;0.3411;7.2778;
553.5000;0.3386;7.2592;
553.8000;0.3403;7.2592;
554.1000;0.3394;7.2545;
554.4000;0.3378;7.2545;
554.7000;0.3386;7.2569;
555.0000;0.3394;7.2592;
555.3000;0.3403;7.2662;
555.6000;0.3411;7.2685;
555.9000;0.3378;7.2662;
556.2000;0.3500;7.3058;
556.5000;0.3394;7.2755;
556.8000;0.3443;7.2895;
557.1000;0.3386;7.2778;
557.4000;0.3460;7.2918;
557.7000;0.3394;7.2825;
558.0000;0.3394;7.2872;
558.3000;0.3386;7.2965;
558.6000;0.3394;7.2988;
558.9000;0.3394;7.2988;
559.2000;0.3362;7.2918;
559.5000;0.3411;7.2988;
559.8000;0.3427;7.3035;
560.1000;0.3362;7.2848;
560.4000;0.3370;7.2825;
560.7000;0.3362;7.2755;
561.0000;0.3394;7.2802;
561.3000;0.3378;7.2778;
561.6000;0.3403;7.2802;
561.9000;0.3394;7.2848;
562.2000;0.3411;7.2755;
562.5000;0.3394;7.2639;
562.8000;0.3500;7.2942;
563.1000;0.3386;7.2615;
563.4000;0.3386;7.2615;
563.7000;0.3403;7.2732;
564.0000;0.3403;7.2709;
564.3000;0.3403;7.2732;
564.6000;0.3370;7.2732;
564.9000;0.3378;7.2778;
565.2000;0.3378;7.2778;
565.5000;0.3378;7.2778;
565.8000;0.3386;7.2848;
566.1000;0.3386;7.2825;
566.4000;0.3362;7.2918;
566.7000;0.3362;7.2965;
567.0000;0.3362;7.2965;
567.3000;0.3370;7.2918;
567.6000;0.3386;7.2918;
567.9000;0.3427;7.2965;
568.2000;0.3386;7.2872;
568.5000;0.3386;7.2988;
568.8000;0.3378;7.3105;
569.1000;0.3403;7.3128;
569.4000;0.3386;7.3081;
569.7000;0.3403;7.3035;
570.0000;0.3362;7.2988;
570.3000;0.3394;7.3011;
570.6000;0.3386;7.2988;
570.9000;0.3394;7.2825;
571.2000;0.3394;7.2895;
571.5000;0.3386;7.2918;
571.8000;0.3378;7.2825;
572.1000;0.3443;7.2942;
572.4000;0.3386;7.2895;
572.7000;0.3411;7.2965;
573.0000;0.3370;7.2895;
573.3000;0.3313;7.2825;
573.6000;0.3386;7.2895;
573.9000;0.3394;7.2872;
574.2000;0.3394;7.2895;
574.5000;0.3411;7.2942;
574.8000;0.3403;7.2942;
575.1000;0.3411;7.2942;
575.4000;0.3403;7.2942;
575.7000;0.3329;7.2778;
576.0000;0.3394;7.2895;
576.3000;0.3394;7.2895;
576.6000;0.3378;7.2872;
576.9000;0.3354;7.2802;
577.2000;0.3370;7.2802;
577.5000;0.3378;7.2848;
577.8000;0.3370;7.2802;
578.1000;0.3378;7.2778;
578.4000;0.3378;7.2755;
578.7000;0.3419;7.2848;
579.0000;0.3386;7.2802;
579.3000;0.3370;7.2732;
579.6000;0.3403;7.2848;
579.9000;0.3329;7.2732;
580.2000;0.3386;7.2918;
580.5000;0.3394;7.2802;
580.8000;0.3386;7.2732;
581.1000;0.3305;7.2499;
581.4000;0.3394;7.2662;
581.7000;0.3362;7.2569;
582.0000;0.3386;7.2662;
582.3000;0.3403;7.2778;
582.6000;0.3378;7.2709;
582.9000;0.3386;7.2709;
583.2000;0.3329;7.2662;
583.5000;0.3378;7.2732;
583.8000;0.3403;7.2778;
584.1000;0.3305;7.2522;
584.4000;0.3386;7.2592;
584.7000;0.3394;7.2615;
585.0000;0.3386;7.2615;
585.3000;0.3403;7.2709;
585.6000;0.3386;7.2569;
585.9000;0.3394;7.2592;
586.2000;0.3411;7.2615;
586.5000;0.3354;7.2522;
586.8000;0.3370;7.2569;
587.1000;0.3370;7.2615;
587.4000;0.3378;7.2685;
587.7000;0.3411;7.2755;
588.0000;0.3460;7.2872;
588.3000;0.3370;7.2569;
588.6000;0.3378;7.2685;
588.9000;0.3370;7.2662;
589.2000;0.3370;7.2545;
589.5000;0.3443;7.2685;
589.8000;0.3386;7.2545;
590.1000;0.3403;7.2569;
590.4000;0.3378;7.2499;
590.7000;0.3386;7.2545;
591.0000;0.3394;7.2522;
591.3000;0.3403;7.2639;
591.6000;0.3362;7.2639;
591.9000;0.3378;7.2709;
592.2000;0.3403;7.2755;
592.5000;0.3386;7.2732;
592.8000;0.3394;7.2825;
593.1000;0.3370;7.2802;
593.4000;0.3386;7.2802;
593.7000;0.3403;7.2848;
594.0000;0.3403;7.2755;
594.3000;0.3370;7.2778;
594.6000;0.3403;7.2895;
594.9000;0.3403;7.2778;
595.2000;0.3403;7.2685;
595.5000;0.3386;7.2615;
595.8000;0.3386;7.2569;
596.1000;0.3411;7.2662;
596.4000;0.3386;7.2639;
596.7000;0.3411;7.2732;
597.0000;0.3362;7.2639;
597.3000;0.3370;7.2615;
597.6000;0.3370;7.2615;
597.9000;0.3386;7.2709;
598.2000;0.3386;7.2709;
598.5000;0.3378;7.2685;
598.8000;0.3370;7.2685;
599.1000;0.3411;7.2732;
599.4000;0.3370;7.2545;
599.7000;0.3378;7.2615;
600.0000;0.3435;7.2732;
600.3000;0.3354;7.2406;
600.6000;0.3386;7.2475;
600.9000;0.3354;7.2336;
601.2000;0.3337;7.2312;
601.5000;0.3346;7.2242;
601.8000;0.3305;7.2056;
602.1000;0.3183;7.1776;
602.4000;0.3280;7.1916;
602.7000;0.3232;7.1706;
603.0000;0.3256;7.1730;
603.3000;0.3240;7.1637;
603.6000;0.3199;7.1427;
603.9000;0.3215;7.1473;
604.2000;0.3191;7.1334;
604.5000;0.3158;7.1240;
604.8000;0.3142;7.1147;
605.1000;0.3199;7.1264;
605.4000;0.3109;7.1147;
605.7000;0.3109;7.1007;
606.0000;0.3101;7.0961;
606.3000;0.3109;7.1054;
606.6000;0.3093;7.0961;
606.9000;0.3085;7.0984;
607.2000;0.3044;7.0891;
607.5000;0.3044;7.0844;
607.8000;0.3053;7.0891;
608.1000;0.3053;7.0914;
608.4000;0.3028;7.0891;
608.7000;0.3028;7.0868;
609.0000;0.3004;7.0891;
609.3000;0.3012;7.0961;
609.6000;0.2979;7.0821;
609.9000;0.2996;7.0844;
610.2000;0.2963;7.0821;
610.5000;0.2979;7.0844;
610.8000;0.2987;7.0774;
611.1000;0.2939;7.0774;
611.4000;0.2955;7.0844;
611.7000;0.2971;7.0868;
612.0000;0.2947;7.0844;
612.3000;0.2939;7.0914;
612.6000;0.2979;7.0961;
612.9000;0.2963;7.0914;
613.2000;0.2922;7.0774;
613.5000;0.2882;7.0751;
613.8000;0.2922;7.0751;
614.1000;0.2930;7.0774;
614.4000;0.2930;7.0798;
614.7000;0.2906;7.0751;
615.0000;0.2906;7.0798;
615.3000;0.2890;7.0774;
615.6000;0.2906;7.0751;
615.9000;0.2898;7.0751;
616.2000;0.2947;7.0844;
616.5000;0.2882;7.0658;
616.8000;0.2898;7.0704;
617.1000;0.2816;7.0541;
617.4000;0.2865;7.0611;
617.7000;0.2873;7.0611;
618.0000;0.2857;7.0588;
618.3000;0.2857;7.0681;
618.6000;0.2857;7.0565;
618.9000;0.2882;7.0541;
619.2000;0.2776;7.0308;
619.5000;0.2857;7.0518;
619.8000;0.2816;7.0541;
620.1000;0.2816;7.0471;
620.4000;0.2816;7.0495;
620.7000;0.2833;7.0518;
621.0000;0.2800;7.0541;
621.3000;0.2808;7.0541;
621.6000;0.2792;7.0565;
621.9000;0.2816;7.0565;
622.2000;0.2792;7.0588;
622.5000;0.2776;7.0541;
622.8000;0.2784;7.0541;
623.1000;0.2792;7.0541;
623.4000;0.2768;7.0541;
623.7000;0.2833;7.0681;
624.0000;0.2694;7.0401;
624.3000;0.2768;7.0658;
624.6000;0.2784;7.0634;
624.9000;0.2768;7.0495;
625.2000;0.2784;7.0448;
625.5000;0.2768;7.0565;
625.8000;0.2759;7.0658;
626.1000;0.2768;7.0728;
626.4000;0.2743;7.0611;
626.7000;0.2751;7.0565;
627.0000;0.2768;7.0611;
627.3000;0.2727;7.0588;
627.6000;0.2719;7.0541;
627.9000;0.2743;7.0541;
628.2000;0.2751;7.0518;
628.5000;0.2743;7.0425;
628.8000;0.2719;7.0448;
629.1000;0.2670;7.0378;
629.4000;0.2849;7.0728;
629.7000;0.2751;7.0448;
630.0000;0.2735;7.0425;
630.3000;0.2711;7.0495;
630.6000;0.2702;7.0518;
630.9000;0.2719;7.0611;
631.2000;0.2694;7.0495;
631.5000;0.2678;7.0401;
631.8000;0.2678;7.0355;
632.1000;0.2719;7.0448;
632.4000;0.2702;7.0471;
632.7000;0.2646;7.0355;
633.0000;0.2686;7.0448;
633.3000;0.2678;7.0401;
633.6000;0.2686;7.0495;
633.9000;0.2670;7.0448;
634.2000;0.2694;7.0611;
634.5000;0.2686;7.0681;
634.8000;0.2670;7.0681;
635.1000;0.2662;7.0541;
635.4000;0.2662;7.0611;
635.7000;0.2597;7.0565;
636.0000;0.2662;7.0658;
636.3000;0.2662;7.0565;
636.6000;0.2629;7.0495;
636.9000;0.2637;7.0425;
637.2000;0.2646;7.0378;
637.5000;0.2621;7.0285;
637.8000;0.2646;7.0355;
638.1000;0.2629;7.0378;
638.4000;0.2621;7.0332;
638.7000;0.2637;7.0355;
639.0000;0.2629;7.0401;
639.3000;0.2629;7.0425;
639.6000;0.2654;7.0401;
639.9000;0.2629;7.0355;
640.2000;0.2629;7.0332;
640.5000;0.2613;7.0355;
640.8000;0.2621;7.0425;
641.1000;0.2629;7.0355;
641.4000;0.2605;7.0401;
641.7000;0.2605;7.0401;
642.0000;0.2629;7.0495;
642.3000;0.2540;7.0308;
642.6000;0.2605;7.0425;
642.9000;0.2621;7.0448;
643.2000;0.2580;7.0378;
643.5000;0.2613;7.0518;
643.8000;0.2597;7.0471;
644.1000;0.2613;7.0425;
644.4000;0.2540;7.0308;
644.7000;0.2605;7.0378;
645.0000;0.2621;7.0378;
645.3000;0.2589;7.0378;
645.6000;0.2572;7.0355;
645.9000;0.2580;7.0308;
646.2000;0.2564;7.0285;
646.5000;0.2580;7.0401;
646.8000;0.2654;7.0518;
647.1000;0.2548;7.0238;
647.4000;0.2613;7.0355;
647.7000;0.2589;7.0285;
648.0000;0.2572;7.0262;
648.3000;0.2597;7.0425;
648.6000;0.2613;7.0495;
648.9000;0.2589;7.0471;
649.2000;0.2621;7.0611;
649.5000;0.2556;7.0425;
649.8000;0.2589;7.0401;
650.1000;0.2589;7.0355;
650.4000;0.2532;7.0168;
650.7000;0.2466;6.9959;
651.0000;0.2540;7.0098;
651.3000;0.2613;7.0262;
651.6000;0.2556;7.0122;
651.9000;0.2556;7.0122;
652.2000;0.2564;7.0238;
652.5000;0.2532;7.0332;
652.8000;0.2564;7.0401;
653.1000;0.2540;7.0332;
653.4000;0.2572;7.0308;
653.7000;0.2540;7.0285;
654.0000;0.2548;7.0332;
654.3000;0.2523;7.0262;
654.6000;0.2548;7.0308;
654.9000;0.2556;7.0308;
655.2000;0.2540;7.0355;
655.5000;0.2564;7.0471;
655.8000;0.2540;7.0471;
656.1000;0.2548;7.0495;
656.4000;0.2548;7.0448;
656.7000;0.2515;7.0308;
657.0000;0.2507;7.0215;
657.3000;0.2523;7.0238;
657.6000;0.2532;7.0168;
657.9000;0.2523;7.0215;
658.2000;0.2515;7.0215;
658.5000;0.2466;6.9959;
658.8000;0.2523;7.0168;
659.1000;0.2499;7.0168;
659.4000;0.2523;7.0215;
659.7000;0.2515;7.0238;
660.0000;0.2515;7.0262;
660.3000;0.2515;7.0215;
660.6000;0.2442;7.0029;
660.9000;0.2499;7.0238;
661.2000;0.2507;7.0262;
661.5000;0.2491;7.0168;
661.8000;0.2483;7.0168;
662.1000;0.2483;7.0192;
662.4000;0.2491;7.0215;
662.7000;0.2491;7.0308;
663.0000;0.2475;7.0238;
663.3000;0.2475;7.0215;
663.6000;0.2491;7.0262;
663.9000;0.2499;7.0192;
664.2000;0.2499;7.0262;
664.5000;0.2491;7.0448;
664.8000;0.2532;7.0541;
665.1000;0.2475;7.0401;
665.4000;0.2507;7.0448;
665.7000;0.2491;7.0355;
666.0000;0.2491;7.0355;
666.3000;0.2466;7.0285;
666.6000;0.2523;7.0471;
666.9000;0.2491;7.0401;
667.2000;0.2475;7.0378;
667.5000;0.2475;7.0401;
667.8000;0.2450;7.0285;
668.1000;0.2458;7.0308;
668.4000;0.2466;7.0332;
668.7000;0.2540;7.0518;
669.0000;0.2442;7.0285;
669.3000;0.2475;7.0378;
669.6000;0.2458;7.0355;
669.9000;0.2466;7.0518;
670.2000;0.2466;7.0471;
670.5000;0.2466;7.0401;
670.8000;0.2499;7.0332;
671.1000;0.2401;7.0168;
671.4000;0.2450;7.0332;
671.7000;0.2426;7.0308;
672.0000;0.2442;7.0308;
672.3000;0.2426;7.0238;
672.6000;0.2466;7.0378;
672.9000;0.2426;7.0262;
673.2000;0.2434;7.0308;
673.5000;0.2475;7.0378;
673.8000;0.2458;7.0355;
674.1000;0.2418;7.0238;
674.4000;0.2418;7.0168;
674.7000;0.2418;7.0238;
675.0000;0.2442;7.0238;
675.3000;0.2458;7.0332;
675.6000;0.2458;7.0401;
675.9000;0.2426;7.0448;
676.2000;0.2434;7.0425;
676.5000;0.2442;7.0425;
676.8000;0.2450;7.0355;
677.1000;0.2442;7.0378;
677.4000;0.2418;7.0332;
677.7000;0.2442;7.0378;
678.0000;0.2523;7.0541;
678.3000;0.2434;7.0285;
678.6000;0.2393;7.0238;
678.9000;0.2401;7.0215;
679.2000;0.2442;7.0425;
679.5000;0.2434;7.0495;
679.8000;0.2409;7.0518;
680.1000;0.2475;7.0518;
680.4000;0.2442;7.0425;
680.7000;0.2409;7.0308;
681.0000;0.2426;7.0308;
681.3000;0.2426;7.0332;
681.6000;0.2434;7.0355;
681.9000;0.2369;7.0145;
682.2000;0.2418;7.0355;
682.5000;0.2434;7.0378;
682.8000;0.2434;7.0448;
683.1000;0.2434;7.0518;
683.4000;0.2418;7.0471;
683.7000;0.2426;7.0425;
684.0000;0.2426;7.0378;
684.3000;0.2426;7.0332;
684.6000;0.2426;7.0238;
684.9000;0.2409;7.0332;
685.2000;0.2442;7.0401;
685.5000;0.2418;7.0378;
685.8000;0.2426;7.0332;
686.1000;0.2401;7.0192;
686.4000;0.2401;7.0238;
686.7000;0.2409;7.0262;
687.0000;0.2466;7.0355;
687.3000;0.2385;7.0238;
687.6000;0.2418;7.0378;
687.9000;0.2385;7.0355;
688.2000;0.2385;7.0401;
688.5000;0.2385;7.0378;
688.8000;0.2377;7.0285;
689.1000;0.2434;7.0332;
689.4000;0.2361;7.0122;
689.7000;0.2385;7.0192;
690.0000;0.2401;7.0238;
690.3000;0.2434;7.0332;
690.6000;0.2401;7.0355;
690.9000;0.2442;7.0518;
691.2000;0.2377;7.0355;
691.5000;0.2458;7.0495;
691.8000;0.2377;7.0262;
692.1000;0.2377;7.0285;
692.4000;0.2393;7.0285;
692.7000;0.2385;7.0192;
693.0000;0.2401;7.0308;
693.3000;0.2385;7.0285;
693.6000;0.2393;7.0262;
693.9000;0.2385;7.0285;
694.2000;0.2385;7.0285;
694.5000;0.2377;7.0238;
694.8000;0.2385;7.0308;
695.1000;0.2369;7.0262;
695.4000;0.2418;7.0401;
695.7000;0.2385;7.0378;
696.0000;0.2369;7.0355;
696.3000;0.2393;7.0355;
696.6000;0.2377;7.0262;
696.9000;0.2393;7.0285;
697.2000;0.2377;7.0262;
697.5000;0.2377;7.0215;
697.8000;0.2377;7.0145;
698.1000;0.2369;7.0192;
698.4000;0.2377;7.0332;
698.7000;0.2385;7.0355;
699.0000;0.2377;7.0332;
699.3000;0.2369;7.0308;
699.6000;0.2377;7.0355;
699.9000;0.2361;7.0192;
700.2000;0.2426;7.0285;
700.5000;0.2385;7.0192;
700.8000;0.2369;7.0168;
701.1000;0.2361;7.0168;
701.4000;0.2377;7.0238;
701.7000;0.2369;7.0215;
702.0000;0.2344;7.0192;
702.3000;0.2352;7.0192;
702.6000;0.2344;7.0122;
702.9000;0.2369;7.0192;
703.2000;0.2377;7.0285;
703.5000;0.2377;7.0308;
703.8000;0.2352;7.0215;
704.1000;0.2377;7.0215;
704.4000;0.2385;7.0192;
704.7000;0.2377;7.0168;
705.0000;0.2393;7.0145;
705.3000;0.2369;7.0098;
705.6000;0.2401;7.0098;
705.9000;0.2377;7.0122;
706.2000;0.2369;7.0192;
706.5000;0.2393;7.0238;
706.8000;0.2377;7.0192;
707.1000;0.2304;7.0005;
707.4000;0.2336;7.0098;
707.7000;0.2361;7.0238;
708.0000;0.2344;7.0308;
708.3000;0.2320;7.0238;
708.6000;0.2377;7.0308;
708.9000;0.2369;7.0145;
709.2000;0.2401;7.0285;
709.5000;0.2377;7.0262;
709.8000;0.2361;7.0192;
710.1000;0.2361;7.0145;
710.4000;0.2369;7.0215;
710.7000;0.2344;7.0215;
711.0000;0.2344;7.0192;
711.3000;0.2312;7.0145;
711.6000;0.2352;7.0262;
711.9000;0.2352;7.0285;
712.2000;0.2361;7.0238;
712.5000;0.2361;7.0145;
712.8000;0.2361;7.0192;
713.1000;0.2369;7.0168;
713.4000;0.2352;7.0215;
713.7000;0.2328;7.0145;
714.0000;0.2336;7.0052;
714.3000;0.2377;7.0238;
714.6000;0.2418;7.0308;
714.9000;0.2344;7.0122;
715.2000;0.2352;7.0122;
715.5000;0.2385;7.0238;
715.8000;0.2352;7.0238;
716.1000;0.2361;7.0308;
716.4000;0.2320;7.0215;
716.7000;0.2369;7.0285;
717.0000;0.2336;7.0145;
717.3000;0.2336;7.0075;
717.6000;0.2344;7.0098;
717.9000;0.2336;7.0215;
718.2000;0.2336;7.0122;
718.5000;0.2336;7.0168;
718.8000;0.2328;7.0145;
719.1000;0.2336;7.0145;
719.4000;0.2336;7.0285;
719.7000;0.2344;7.0262;
720.0000;0.2344;7.0145;
720.3000;0.2336;7.0168;
720.6000;0.2336;7.0098;
720.9000;0.2336;7.0145;
721.2000;0.2344;7.0098;
721.5000;0.2312;7.0122;
721.8000;0.2336;7.0168;
722.1000;0.2328;7.0098;
722.4000;0.2344;7.0098;
722.7000;0.2328;7.0029;
723.0000;0.2320;6.9935;
723.3000;0.2336;6.9982;
723.6000;0.2344;7.0075;
723.9000;0.2344;7.0075;
724.2000;0.2344;7.0192;
724.5000;0.2336;7.0168;
724.8000;0.2352;7.0122;
725.1000;0.2328;7.0145;
725.4000;0.2312;7.0098;
725.7000;0.2320;7.0122;
726.0000;0.2369;7.0262;
726.3000;0.2320;7.0145;
726.6000;0.2304;7.0168;
726.9000;0.2304;7.0192;
727.2000;0.2312;7.0262;
727.5000;0.2320;7.0145;
727.8000;0.2312;7.0168;
728.1000;0.2279;7.0098;
728.4000;0.2320;7.0168;
728.7000;0.2369;7.0285;
729.0000;0.2352;7.0262;
729.3000;0.2295;7.0145;
729.6000;0.2393;7.0308;
729.9000;0.2255;6.9889;
730.2000;0.2320;7.0052;
730.5000;0.2328;7.0122;
730.8000;0.2279;7.0075;
731.1000;0.2328;7.0192;
731.4000;0.2336;7.0262;
731.7000;0.2279;7.0145;
732.0000;0.2336;7.0308;
732.3000;0.2352;7.0401;
732.6000;0.2320;7.0308;
732.9000;0.2222;7.0098;
733.2000;0.2295;7.0378;
733.5000;0.2393;7.0751;
733.8000;0.2320;7.0495;
734.1000;0.2304;7.0448;
734.4000;0.2344;7.0518;
734.7000;0.2320;7.0518;
735.0000;0.2328;7.0541;
735.3000;0.2312;7.0471;
735.6000;0.2328;7.0471;
735.9000;0.2279;7.0401;
736.2000;0.2320;7.0495;
736.5000;0.2336;7.0448;
736.8000;0.2312;7.0401;
737.1000;0.2295;7.0308;
737.4000;0.2320;7.0262;
737.7000;0.2320;7.0192;
738.0000;0.2312;7.0075;
738.3000;0.2312;7.0005;
738.6000;0.2279;7.0005;
738.9000;0.2369;7.0262;
739.2000;0.2295;7.0122;
739.5000;0.2304;7.0168;
739.8000;0.2320;7.0192;
740.1000;0.2304;7.0145;
740.4000;0.2344;7.0332;
740.7000;0.2312;7.0285;
741.0000;0.2304;7.0238;
741.3000;0.2287;7.0192;
741.6000;0.2328;7.0238;
741.9000;0.2304;7.0215;
742.2000;0.2304;7.0168;
742.5000;0.2312;7.0215;
742.8000;0.2295;7.0145;
743.1000;0.2263;7.0168;
743.4000;0.2271;7.0192;
743.7000;0.2287;7.0285;
744.0000;0.2320;7.0378;
744.3000;0.2304;7.0332;
744.6000;0.2295;7.0215;
744.9000;0.2320;7.0285;
745.2000;0.2295;7.0215;
745.5000;0.2312;7.0168;
745.8000;0.2295;7.0168;
746.1000;0.2287;7.0075;
746.4000;0.2304;7.0005;
746.7000;0.2287;7.0029;
747.0000;0.2279;7.0122;
747.3000;0.2336;7.0378;
747.6000;0.2279;7.0285;
747.9000;0.2295;7.0332;
748.2000;0.2312;7.0308;
748.5000;0.2271;7.0401;
748.8000;0.2287;7.0401;
749.1000;0.2361;7.0518;
749.4000;0.2271;7.0238;
749.7000;0.2263;7.0168;
750.0000;0.2312;7.0098;
750.3000;0.2312;7.0168;
750.6000;0.2304;7.0098;
750.9000;0.2239;7.0005;
751.2000;0.2304;7.0285;
751.5000;0.2287;7.0308;
751.8000;0.2239;7.0238;
752.1000;0.2304;7.0355;
752.4000;0.2279;7.0238;
752.7000;0.2295;7.0355;
753.0000;0.2377;7.0565;
753.3000;0.2287;7.0238;
753.6000;0.2247;7.0122;
753.9000;0.2287;7.0308;
754.2000;0.2312;7.0285;
754.5000;0.2279;7.0145;
754.8000;0.2263;6.9959;
755.1000;0.2279;7.0052;
755.4000;0.2279;7.0098;
755.7000;0.2320;7.0192;
756.0000;0.2279;7.0192;
756.3000;0.2320;7.0425;
756.6000;0.2287;7.0308;
756.9000;0.2279;7.0262;
757.2000;0.2287;7.0145;
757.5000;0.2271;7.0145;
757.8000;0.2304;7.0192;
758.1000;0.2287;7.0168;
758.4000;0.2255;7.0098;
758.7000;0.2312;7.0192;
759.0000;0.2263;7.0075;
759.3000;0.2320;7.0262;
759.6000;0.2287;7.0168;
759.9000;0.2344;7.0332;
760.2000;0.2271;7.0215;
760.5000;0.2271;7.0308;
760.8000;0.2279;7.0285;
761.1000;0.2279;7.0215;
761.4000;0.2287;7.0285;
761.7000;0.2287;7.0238;
762.0000;0.2271;7.0098;
762.3000;0.2263;7.0122;
762.6000;0.2336;7.0355;
762.9000;0.2279;7.0215;
763.2000;0.2206;7.0029;
763.5000;0.2255;7.0192;
763.8000;0.2271;7.0168;
764.1000;0.2263;7.0168;
764.4000;0.2255;7.0145;
764.7000;0.2320;7.0332;
765.0000;0.2279;7.0262;
765.3000;0.2336;7.0238;
765.6000;0.2222;7.0098;
765.9000;0.2287;7.0285;
766.2000;0.2336;7.0448;
766.5000;0.2279;7.0355;
766.8000;0.2271;7.0378;
767.1000;0.2263;7.0401;
767.4000;0.2271;7.0332;
767.7000;0.2328;7.0448;
768.0000;0.2271;7.0378;
768.3000;0.2173;7.0052;
768.6000;0.2271;7.0215;
768.9000;0.2271;7.0238;
769.2000;0.2271;7.0192;
769.5000;0.2279;7.0145;
769.8000;0.2279;7.0168;
770.1000;0.2287;7.0215;
770.4000;0.2271;7.0168;
770.7000;0.2295;7.0238;
771.0000;0.2295;7.0238;
771.3000;0.2271;7.0145;
771.6000;0.2279;7.0215;
771.9000;0.2271;7.0262;
772.2000;0.2287;7.0285;
772.5000;0.2255;7.0215;
772.8000;0.2279;7.0285;
773.1000;0.2352;7.0495;
773.4000;0.2247;7.0122;
773.7000;0.2295;7.0215;
774.0000;0.2279;7.0168;
774.3000;0.2295;7.0262;
774.6000;0.2263;7.0262;
774.9000;0.2230;7.0192;
775.2000;0.2263;7.0332;
775.5000;0.2271;7.0262;
775.8000;0.2255;7.0262;
776.1000;0.2271;7.0262;
776.4000;0.2263;7.0238;
776.7000;0.2247;7.0238;
777.0000;0.2279;7.0262;
777.3000;0.2255;7.0262;
777.6000;0.2239;7.0122;
777.9000;0.2255;7.0145;
778.2000;0.2239;7.0238;
778.5000;0.2255;7.0308;
778.8000;0.2255;7.0285;
779.1000;0.2255;7.0355;
779.4000;0.2247;7.0378;
779.7000;0.2263;7.0425;
780.0000;0.2287;7.0518;
780.3000;0.2263;7.0495;
780.6000;0.2271;7.0518;
780.9000;0.2263;7.0425;
781.2000;0.2295;7.0448;
781.5000;0.2247;7.0262;
781.8000;0.2263;7.0285;
782.1000;0.2222;7.0238;
782.4000;0.2295;7.0355;
782.7000;0.2263;7.0168;
783.0000;0.2263;7.0192;
783.3000;0.2312;7.0378;
783.6000;0.2247;7.0308;
783.9000;0.2255;7.0308;
784.2000;0.2287;7.0401;
784.5000;0.2255;7.0262;
784.8000;0.2247;7.0145;
785.1000;0.2263;7.0145;
785.4000;0.2255;7.0122;
785.7000;0.2255;7.0145;
786.0000;0.2263;7.0192;
786.3000;0.2295;7.0308;
786.6000;0.2255;7.0262;
786.9000;0.2271;7.0401;
787.2000;0.2157;7.0075;
787.5000;0.2247;7.0355;
787.8000;0.2239;7.0425;
788.1000;0.2263;7.0495;
788.4000;0.2263;7.0495;
788.7000;0.2173;7.0192;
789.0000;0.2287;7.0448;
789.3000;0.2247;7.0332;
789.6000;0.2287;7.0308;
789.9000;0.2247;7.0168;
790.2000;0.2255;7.0145;
790.5000;0.2263;7.0145;
790.8000;0.2247;7.0168;
791.1000;0.2239;7.0238;
791.4000;0.2255;7.0308;
791.7000;0.2222;7.0308;
792.0000;0.2263;7.0378;
792.3000;0.2247;7.0378;
792.6000;0.2247;7.0355;
792.9000;0.2230;7.0401;
793.2000;0.2239;7.0285;
793.5000;0.2239;7.0262;
793.8000;0.2222;7.0262;
794.1000;0.2247;7.0285;
794.4000;0.2247;7.0285;
794.7000;0.2239;7.0355;
795.0000;0.2295;7.0518;
795.3000;0.2263;7.0588;
795.6000;0.2263;7.0658;
795.9000;0.2263;7.0634;
796.2000;0.2247;7.0611;
796.5000;0.2247;7.0611;
796.8000;0.2190;7.0471;
797.1000;0.2295;7.0681;
797.4000;0.2230;7.0565;
797.7000;0.2214;7.0541;
798.0000;0.2279;7.0611;
798.3000;0.2247;7.0565;
798.6000;0.2279;7.0588;
798.9000;0.2247;7.0401;
799.2000;0.2295;7.0565;
799.5000;0.2279;7.0518;
799.8000;0.2271;7.0588;
800.1000;0.2239;7.0541;
800.4000;0.2263;7.0565;
800.7000;0.2263;7.0611;
801.0000;0.2247;7.0658;
801.3000;0.2222;7.0704;
801.6000;0.2239;7.0658;
801.9000;0.2230;7.0704;
802.2000;0.2247;7.0728;
802.5000;0.2230;7.0658;
802.8000;0.2255;7.0681;
803.1000;0.2271;7.0681;
803.4000;0.2239;7.0588;
803.7000;0.2230;7.0541;
804.0000;0.2263;7.0681;
804.3000;0.2230;7.0588;
804.6000;0.2255;7.0565;
804.9000;0.2263;7.0611;
805.2000;0.2247;7.0541;
805.5000;0.2247;7.0425;
805.8000;0.2247;7.0448;
806.1000;0.2239;7.0448;
806.4000;0.2287;7.0588;
806.7000;0.2214;7.0448;
807.0000;0.2222;7.0448;
807.3000;0.2214;7.0425;
807.6000;0.2255;7.0471;
807.9000;0.2230;7.0448;
808.2000;0.2222;7.0448;
808.5000;0.2239;7.0355;
808.8000;0.2198;7.0238;
809.1000;0.2214;7.0285;
809.4000;0.2230;7.0378;
809.7000;0.2247;7.0565;
810.0000;0.2239;7.0518;
810.3000;0.2230;7.0401;
810.6000;0.2222;7.0448;
810.9000;0.2190;7.0332;
811.2000;0.2239;7.0541;
811.5000;0.2239;7.0518;
811.8000;0.2222;7.0588;
812.1000;0.2206;7.0565;
812.4000;0.2222;7.0588;
812.7000;0.2206;7.0611;
813.0000;0.2222;7.0728;
813.3000;0.2222;7.0658;
813.6000;0.2222;7.0658;
813.9000;0.2247;7.0681;
814.2000;0.2255;7.0611;
814.5000;0.2230;7.0634;
814.8000;0.2190;7.0565;
815.1000;0.2239;7.0658;
815.4000;0.2239;7.0611;
815.7000;0.2222;7.0565;
816.0000;0.2182;7.0425;
816.3000;0.2255;7.0634;
816.6000;0.2230;7.0471;
816.9000;0.2230;7.0308;
817.2000;0.2222;7.0262;
817.5000;0.2230;7.0285;
817.8000;0.2271;7.0355;
818.1000;0.2222;7.0308;
818.4000;0.2239;7.0401;
818.7000;0.2263;7.0378;
819.0000;0.2206;7.0262;
819.3000;0.2230;7.0308;
819.6000;0.2230;7.0285;
819.9000;0.2279;7.0425;
820.2000;0.2247;7.0308;
820.5000;0.2182;7.0168;
820.8000;0.2214;7.0262;
821.1000;0.2239;7.0308;
821.4000;0.2247;7.0355;
821.7000;0.2320;7.0681;
822.0000;0.2214;7.0448;
822.3000;0.2214;7.0378;
822.6000;0.2214;7.0332;
822.9000;0.2222;7.0308;
823.2000;0.2206;7.0238;
823.5000;0.2222;7.0262;
823.8000;0.2230;7.0332;
824.1000;0.2287;7.0565;
824.4000;0.2214;7.0378;
824.7000;0.2206;7.0308;
825.0000;0.2222;7.0425;
825.3000;0.2222;7.0448;
825.6000;0.2239;7.0495;
825.9000;0.2287;7.0634;
826.2000;0.2230;7.0518;
826.5000;0.2230;7.0658;
826.8000;0.2230;7.0681;
827.1000;0.2230;7.0681;
827.4000;0.2230;7.0658;
827.7000;0.2222;7.0681;
828.0000;0.2239;7.0798;
828.3000;0.2214;7.0751;
828.6000;0.2206;7.0704;
828.9000;0.2214;7.0728;
829.2000;0.2214;7.0658;
829.5000;0.2222;7.0565;
829.8000;0.2198;7.0471;
830.1000;0.2149;7.0401;
830.4000;0.2222;7.0518;
830.7000;0.2239;7.0495;
831.0000;0.2230;7.0518;
831.3000;0.2230;7.0588;
831.6000;0.2239;7.0588;
831.9000;0.2222;7.0634;
832.2000;0.2214;7.0704;
832.5000;0.2222;7.0728;
832.8000;0.2206;7.0728;
833.1000;0.2295;7.0914;
833.4000;0.2214;7.0681;
833.7000;0.2206;7.0728;
834.0000;0.2214;7.0821;
834.3000;0.2214;7.0821;
834.6000;0.2222;7.0844;
834.9000;0.2222;7.0937;
835.2000;0.2206;7.0868;
835.5000;0.2214;7.0798;
835.8000;0.2255;7.0914;
836.1000;0.2239;7.0868;
836.4000;0.2230;7.0774;
836.7000;0.2206;7.0751;
837.0000;0.2214;7.0728;
837.3000;0.2206;7.0728;
837.6000;0.2222;7.0728;
837.9000;0.2247;7.0821;
838.2000;0.2214;7.0844;
838.5000;0.2198;7.0774;
838.8000;0.2182;7.0704;
839.1000;0.2271;7.0891;
839.4000;0.2279;7.0984;
839.7000;0.2230;7.0868;
840.0000;0.2198;7.0728;
840.3000;0.2222;7.0728;
840.6000;0.2206;7.0681;
840.9000;0.2198;7.0704;
841.2000;0.2255;7.0844;
841.5000;0.2239;7.0798;
841.8000;0.2214;7.0751;
842.1000;0.2230;7.0751;
842.4000;0.2198;7.0634;
842.7000;0.2239;7.0728;
843.0000;0.2214;7.0681;
843.3000;0.2198;7.0681;
843.6000;0.2214;7.0704;
843.9000;0.2198;7.0611;
844.2000;0.2214;7.0658;
844.5000;0.2304;7.0844;
844.8000;0.2206;7.0541;
845.1000;0.2165;7.0518;
845.4000;0.2214;7.0658;
845.7000;0.2222;7.0821;
846.0000;0.2157;7.0681;
846.3000;0.2206;7.0774;
846.6000;0.2206;7.0821;
846.9000;0.2157;7.0704;
847.2000;0.2239;7.0798;
847.5000;0.2190;7.0704;
847.8000;0.2198;7.0728;
848.1000;0.2206;7.0774;
848.4000;0.2206;7.0774;
848.7000;0.2198;7.0681;
849.0000;0.2206;7.0658;
849.3000;0.2214;7.0634;
849.6000;0.2222;7.0588;
849.9000;0.2214;7.0541;
850.2000;0.2222;7.0541;
850.5000;0.2239;7.0634;
850.8000;0.2206;7.0658;
851.1000;0.2263;7.0798;
851.4000;0.2263;7.0704;
851.7000;0.2214;7.0681;
852.0000;0.2214;7.0681;
852.3000;0.2214;7.0634;
852.6000;0.2206;7.0658;
852.9000;0.2255;7.0681;
853.2000;0.2222;7.0634;
853.5000;0.2206;7.0634;
853.8000;0.2214;7.0681;
854.1000;0.2214;7.0681;
854.4000;0.2222;7.0821;
854.7000;0.2222;7.0798;
855.0000;0.2222;7.0751;
855.3000;0.2214;7.0658;
855.6000;0.2230;7.0681;
855.9000;0.2214;7.0611;
856.2000;0.2198;7.0495;
856.5000;0.2206;7.0448;
856.8000;0.2198;7.0495;
857.1000;0.2214;7.0518;
857.4000;0.2190;7.0425;
857.7000;0.2190;7.0471;
858.0000;0.2190;7.0588;
858.3000;0.2182;7.0634;
858.6000;0.2206;7.0634;
858.9000;0.2206;7.0658;
859.2000;0.2157;7.0425;
859.5000;0.2214;7.0541;
859.8000;0.2182;7.0401;
860.1000;0.2230;7.0565;
860.4000;0.2198;7.0495;
860.7000;0.2222;7.0565;
861.0000;0.2198;7.0471;
861.3000;0.2230;7.0425;
861.6000;0.2165;7.0262;
861.9000;0.2230;7.0425;
862.2000;0.2247;7.0565;
862.5000;0.2182;7.0565;
862.8000;0.2165;7.0518;
863.1000;0.2222;7.0634;
863.4000;0.2190;7.0611;
863.7000;0.2182;7.0658;
864.0000;0.2239;7.0798;
864.3000;0.2190;7.0658;
864.6000;0.2206;7.0704;
864.9000;0.2247;7.0774;
865.2000;0.2198;7.0634;
865.5000;0.2206;7.0611;
865.8000;0.2206;7.0611;
866.1000;0.2206;7.0681;
866.4000;0.2206;7.0704;
866.7000;0.2206;7.0728;
867.0000;0.2222;7.0728;
867.3000;0.2182;7.0704;
867.6000;0.2198;7.0751;
867.9000;0.2165;7.0728;
868.2000;0.2206;7.0751;
868.5000;0.2214;7.0728;
868.8000;0.2198;7.0728;
869.1000;0.2198;7.0798;
869.4000;0.2182;7.0844;
869.7000;0.2206;7.0891;
870.0000;0.2222;7.0914;
870.3000;0.2198;7.0821;
870.6000;0.2230;7.0798;
870.9000;0.2214;7.0868;
871.2000;0.2206;7.0937;
871.5000;0.2198;7.0914;
871.8000;0.2190;7.0844;
872.1000;0.2190;7.0774;
872.4000;0.2190;7.0844;
872.7000;0.2198;7.0891;
873.0000;0.2125;7.0798;
873.3000;0.2214;7.0984;
873.6000;0.2198;7.1054;
873.9000;0.2190;7.1077;
874.2000;0.2182;7.1007;
874.5000;0.2165;7.0891;
874.8000;0.2190;7.0961;
875.1000;0.2222;7.1031;
875.4000;0.2133;7.0868;
875.7000;0.2214;7.1054;
876.0000;0.2206;7.0984;
876.3000;0.2222;7.1007;
876.6000;0.2198;7.0868;
876.9000;0.2198;7.0891;
877.2000;0.2247;7.0984;
877.5000;0.2190;7.0798;
877.8000;0.2182;7.0728;
878.1000;0.2076;7.0588;
878.4000;0.2157;7.0821;
878.7000;0.2230;7.0937;
879.0000;0.2214;7.0891;
879.3000;0.2206;7.0914;
879.6000;0.2206;7.0914;
879.9000;0.2198;7.0937;
880.2000;0.2214;7.1007;
880.5000;0.2190;7.0937;
880.8000;0.2222;7.0984;
881.1000;0.2190;7.0984;
881.4000;0.2165;7.0868;
881.7000;0.2092;7.0681;
882.0000;0.2206;7.0961;
882.3000;0.2182;7.0821;
882.6000;0.2198;7.0798;
882.9000;0.2182;7.0728;
883.2000;0.2165;7.0681;
883.5000;0.2198;7.0798;
883.8000;0.2190;7.0798;
884.1000;0.2263;7.0961;
884.4000;0.2149;7.0634;
884.7000;0.2198;7.0751;
885.0000;0.2182;7.0751;
885.3000;0.2149;7.0728;
885.6000;0.2173;7.0821;
885.9000;0.2190;7.0751;
886.2000;0.2263;7.0937;
886.5000;0.2190;7.0751;
886.8000;0.2198;7.0751;
887.1000;0.2182;7.0704;
887.4000;0.2247;7.1031;
887.7000;0.2214;7.0937;
888.0000;0.2173;7.0751;
888.3000;0.2206;7.0728;
888.6000;0.2165;7.0634;
888.9000;0.2198;7.0681;
889.2000;0.2165;7.0658;
889.5000;0.2182;7.0704;
889.8000;0.2190;7.0751;
890.1000;0.2206;7.0798;
890.4000;0.2198;7.0798;
890.7000;0.2165;7.0751;
891.0000;0.2173;7.0844;
891.3000;0.2190;7.0914;
891.6000;0.2279;7.1287;
891.9000;0.2182;7.0984;
892.2000;0.2182;7.0984;
892.5000;0.2182;7.1054;
892.8000;0.2182;7.0984;
893.1000;0.2173;7.1007;
893.4000;0.2165;7.0961;
893.7000;0.2173;7.0891;
894.0000;0.2182;7.0821;
894.3000;0.2133;7.0681;
894.6000;0.2125;7.0634;
894.9000;0.2182;7.0751;
895.2000;0.2165;7.0704;
895.5000;0.2165;7.0728;
895.8000;0.2198;7.0774;
896.1000;0.2182;7.0751;
896.4000;0.2206;7.0891;
896.7000;0.2149;7.0774;
897.0000;0.2182;7.0868;
897.3000;0.2255;7.1054;
897.6000;0.2165;7.0891;
897.9000;0.2173;7.0961;
898.2000;0.2271;7.1170;
898.5000;0.2173;7.0798;
898.8000;0.2182;7.0844;
899.1000;0.2206;7.0891;
899.4000;0.2173;7.0774;
899.7000;0.2173;7.0704;
900.0000;0.2190;7.0774;
900.3000;0.2141;7.0658;
900.6000;0.2214;7.0821;
900.9000;0.2190;7.0658;
901.2000;0.2165;7.0565;
901.5000;0.2198;7.0611;
901.8000;0.2182;7.0658;
902.1000;0.2165;7.0658;
902.4000;0.2182;7.0704;
902.7000;0.2173;7.0704;
903.0000;0.2165;7.0704;
903.3000;0.2149;7.0565;
903.6000;0.2173;7.0728;
903.9000;0.2149;7.0704;
904.2000;0.2190;7.0751;
904.5000;0.2190;7.0751;
904.8000;0.2190;7.0798;
905.1000;0.2222;7.0937;
905.4000;0.2182;7.0914;
905.7000;0.2214;7.0984;
906.0000;0.2239;7.1007;
906.3000;0.2182;7.0937;
906.6000;0.2206;7.0891;
906.9000;0.2190;7.0891;
907.2000;0.2157;7.0821;
907.5000;0.2182;7.0914;
907.8000;0.2133;7.0821;
908.1000;0.2182;7.0844;
908.4000;0.2190;7.0914;
908.7000;0.2133;7.0751;
909.0000;0.2165;7.0891;
909.3000;0.2173;7.0891;
909.6000;0.2149;7.0937;
909.9000;0.2182;7.0961;
910.2000;0.2173;7.0891;
910.5000;0.2157;7.0891;
910.8000;0.2182;7.1007;
911.1000;0.2125;7.0844;
911.4000;0.2173;7.0937;
911.7000;0.2149;7.0914;
912.0000;0.2230;7.1147;
912.3000;0.2173;7.0914;
912.6000;0.2222;7.1031;
912.9000;0.2182;7.1007;
913.2000;0.2125;7.0844;
913.5000;0.2206;7.0937;
913.8000;0.2173;7.0844;
914.1000;0.2239;7.1054;
914.4000;0.2190;7.1077;
914.7000;0.2165;7.1054;
915.0000;0.2149;7.0961;
915.3000;0.2190;7.1054;
915.6000;0.2222;7.1147;
915.9000;0.2157;7.1077;
916.2000;0.2182;7.1077;
916.5000;0.2222;7.1101;
916.8000;0.2182;7.1031;
917.1000;0.2165;7.1054;
917.4000;0.2206;7.1194;
917.7000;0.2173;7.1194;
918.0000;0.2182;7.1101;
918.3000;0.2149;7.1054;
918.6000;0.2190;7.1124;
918.9000;0.2133;7.0891;
919.2000;0.2149;7.0937;
919.5000;0.2165;7.0961;
919.8000;0.2157;7.0868;
920.1000;0.2182;7.1031;
920.4000;0.2165;7.0961;
920.7000;0.2190;7.1054;
921.0000;0.2173;7.1007;
921.3000;0.2149;7.0914;
921.6000;0.2173;7.0984;
921.9000;0.2190;7.0984;
922.2000;0.2190;7.1124;
922.5000;0.2173;7.1101;
922.8000;0.2173;7.1124;
923.1000;0.2182;7.1031;
923.4000;0.2190;7.1054;
923.7000;0.2165;7.1124;
924.0000;0.2279;7.1380;
924.3000;0.2173;7.1124;
924.6000;0.2157;7.1147;
924.9000;0.2157;7.1054;
925.2000;0.2247;7.1310;
925.5000;0.2182;7.1077;
925.8000;0.2190;7.1054;
926.1000;0.2198;7.1054;
926.4000;0.2190;7.1054;
926.7000;0.2190;7.0984;
927.0000;0.2198;7.1007;
927.3000;0.2173;7.0891;
927.6000;0.2165;7.0868;
927.9000;0.2133;7.0821;
928.2000;0.2173;7.0937;
928.5000;0.2165;7.0914;
928.8000;0.2133;7.0844;
929.1000;0.2182;7.0937;
929.4000;0.2182;7.1101;
929.7000;0.2165;7.1124;
930.0000;0.2165;7.1147;
930.3000;0.2173;7.1101;
930.6000;0.2182;7.1077;
930.9000;0.2182;7.1007;
931.2000;0.2198;7.0961;
931.5000;0.2157;7.0891;
931.8000;0.2165;7.0961;
932.1000;0.2173;7.0937;
932.4000;0.2165;7.0891;
932.7000;0.2157;7.0868;
933.0000;0.2190;7.0961;
933.3000;0.2182;7.0914;
933.6000;0.2165;7.0798;
933.9000;0.2173;7.0798;
934.2000;0.2165;7.0751;
934.5000;0.2182;7.0821;
934.8000;0.2173;7.0891;
935.1000;0.2141;7.0914;
935.4000;0.2157;7.1007;
935.7000;0.2141;7.1077;
936.0000;0.2133;7.1124;
936.3000;0.2157;7.1170;
936.6000;0.2165;7.1147;
936.9000;0.2182;7.1147;
937.2000;0.2173;7.1054;
937.5000;0.2157;7.0961;
937.8000;0.2190;7.0984;
938.1000;0.2190;7.0891;
938.4000;0.2173;7.0728;
938.7000;0.2198;7.0751;
939.0000;0.2157;7.0658;
939.3000;0.2165;7.0751;
939.6000;0.2182;7.0774;
939.9000;0.2198;7.0774;
940.2000;0.2255;7.1147;
940.5000;0.2149;7.0914;
940.8000;0.2182;7.1077;
941.1000;0.2157;7.1124;
941.4000;0.2165;7.1007;
941.7000;0.2165;7.0984;
942.0000;0.2182;7.1031;
942.3000;0.2173;7.1007;
942.6000;0.2165;7.1007;
942.9000;0.2198;7.1124;
943.2000;0.2206;7.1170;
943.5000;0.2173;7.1077;
943.8000;0.2133;7.0868;
944.1000;0.2059;7.0658;
944.4000;0.2141;7.0914;
944.7000;0.2165;7.0961;
945.0000;0.2173;7.1031;
945.3000;0.2222;7.1077;
945.6000;0.2173;7.1031;
945.9000;0.2173;7.1101;
946.2000;0.2173;7.1240;
946.5000;0.2182;7.1334;
946.8000;0.2173;7.1287;
947.1000;0.2173;7.1310;
947.4000;0.2173;7.1310;
947.7000;0.2165;7.1264;
948.0000;0.2125;7.1124;
948.3000;0.2173;7.1170;
948.6000;0.2173;7.1101;
948.9000;0.2141;7.1031;
949.2000;0.2149;7.0984;
949.5000;0.2165;7.1101;
949.8000;0.2182;7.1101;
950.1000;0.2214;7.1124;
950.4000;0.2157;7.1054;
950.7000;0.2165;7.1007;
951.0000;0.2182;7.1054;
951.3000;0.2173;7.0984;
951.6000;0.2173;7.0961;
951.9000;0.2149;7.0984;
952.2000;0.2157;7.1054;
952.5000;0.2173;7.1124;
952.8000;0.2165;7.1054;
953.1000;0.2149;7.1077;
953.4000;0.2165;7.1194;
953.7000;0.2182;7.1240;
954.0000;0.2149;7.1147;
954.3000;0.2173;7.1147;
954.6000;0.2165;7.1054;
954.9000;0.2182;7.1007;
955.2000;0.2173;7.1007;
955.5000;0.2157;7.0984;
955.8000;0.2165;7.0937;
956.1000;0.2141;7.0937;
956.4000;0.2173;7.1077;
956.7000;0.2165;7.1240;
957.0000;0.2198;7.1287;
957.3000;0.2173;7.1287;
957.6000;0.2173;7.1334;
957.9000;0.2157;7.1264;
958.2000;0.2133;7.1124;
958.5000;0.2157;7.1054;
958.8000;0.2125;7.0914;
959.1000;0.2157;7.0937;
959.4000;0.2173;7.0984;
959.7000;0.2157;7.1031;
960.0000;0.2320;7.1380;
960.3000;0.2157;7.1007;
960.6000;0.2206;7.1240;
960.9000;0.2157;7.1147;
961.2000;0.2173;7.1194;
961.5000;0.2149;7.1147;
961.8000;0.2141;7.1077;
962.1000;0.2165;7.1054;
962.4000;0.2230;7.1240;
962.7000;0.2173;7.1101;
963.0000;0.2198;7.1170;
963.3000;0.2182;7.1101;
963.6000;0.2149;7.1031;
963.9000;0.2165;7.1077;
964.2000;0.2173;7.1147;
964.5000;0.2133;7.1077;
964.8000;0.2141;7.1101;
965.1000;0.2149;7.1217;
965.4000;0.2149;7.1217;
965.7000;0.2149;7.1264;
966.0000;0.2149;7.1264;
966.3000;0.2141;7.1170;
966.6000;0.2157;7.1101;
966.9000;0.2173;7.1124;
967.2000;0.2165;7.1170;
967.5000;0.2165;7.1124;
967.8000;0.2190;7.1170;
968.1000;0.2141;7.1077;
968.4000;0.2190;7.1264;
968.7000;0.2173;7.1194;
969.0000;0.2149;7.1147;
969.3000;0.2247;7.1403;
969.6000;0.2133;7.1124;
969.9000;0.2214;7.1287;
970.2000;0.2157;7.1240;
970.5000;0.2173;7.1310;
970.8000;0.2157;7.1264;
971.1000;0.2157;7.1217;
971.4000;0.2182;7.1194;
971.7000;0.2173;7.1101;
972.0000;0.2157;7.0937;
972.3000;0.2149;7.1007;
972.6000;0.2182;7.1240;
972.9000;0.2222;7.1357;
973.2000;0.2141;7.1170;
973.5000;0.2149;7.1240;
973.8000;0.2149;7.1217;
974.1000;0.2157;7.1217;
974.4000;0.2141;7.1007;
974.7000;0.2165;7.1077;
975.0000;0.2141;7.1031;
975.3000;0.2173;7.1170;
975.6000;0.2173;7.1217;
975.9000;0.2165;7.1310;
976.2000;0.2190;7.1287;
976.5000;0.2173;7.1170;
976.8000;0.2141;7.1170;
977.1000;0.2141;7.1194;
977.4000;0.2157;7.1334;
977.7000;0.2157;7.1334;
978.0000;0.2051;7.1031;
978.3000;0.2133;7.1240;
978.6000;0.2157;7.1147;
978.9000;0.2222;7.1310;
979.2000;0.2157;7.1124;
979.5000;0.2149;7.1147;
979.8000;0.2100;7.1101;
980.1000;0.2165;7.1194;
980.4000;0.2173;7.1147;
980.7000;0.2198;7.1124;
981.0000;0.2141;7.0891;
981.3000;0.2165;7.0914;
981.6000;0.2173;7.0984;
981.9000;0.2157;7.1007;
982.2000;0.2165;7.1077;
982.5000;0.2157;7.1077;
982.8000;0.2165;7.1077;
983.1000;0.2165;7.1101;
983.4000;0.2165;7.1124;
983.7000;0.2141;7.1101;
984.0000;0.2165;7.1194;
984.3000;0.2165;7.1124;
984.6000;0.2157;7.1147;
984.9000;0.2141;7.1147;
985.2000;0.2141;7.1054;
985.5000;0.2165;7.1007;
985.8000;0.2149;7.1007;
986.1000;0.2084;7.0961;
986.4000;0.2157;7.1147;
986.7000;0.2092;7.1031;
987.0000;0.2157;7.1124;
987.3000;0.2157;7.1194;
987.6000;0.2141;7.1170;
987.9000;0.2165;7.1170;
988.2000;0.2141;7.1124;
988.5000;0.2149;7.1124;
988.8000;0.2149;7.1170;
989.1000;0.2125;7.1124;
989.4000;0.2149;7.1240;
989.7000;0.2165;7.1264;
990.0000;0.2149;7.1264;
990.3000;0.2108;7.1124;
990.6000;0.2173;7.1147;
990.9000;0.2149;7.1101;
991.2000;0.2165;7.1147;
991.5000;0.2198;7.1194;
991.8000;0.2173;7.1194;
992.1000;0.2157;7.1054;
992.4000;0.2173;7.1147;
992.7000;0.2141;7.1031;
993.0000;0.2182;7.1147;
993.3000;0.2141;7.1147;
993.6000;0.2149;7.1194;
993.9000;0.2141;7.1264;
994.2000;0.2149;7.1170;
994.5000;0.2125;7.1077;
994.8000;0.2173;7.1170;
995.1000;0.2255;7.1380;
995.4000;0.2149;7.1124;
995.7000;0.2157;7.1240;
996.0000;0.2125;7.1124;
996.3000;0.2198;7.1264;
996.6000;0.2149;7.1124;
996.9000;0.2100;7.1031;
997.2000;0.2157;7.1240;
997.5000;0.2149;7.1194;
997.8000;0.2141;7.1147;
998.1000;0.2157;7.1124;
998.4000;0.2157;7.1124;
998.7000;0.2125;7.1031;
999.0000;0.2100;7.1031;
999.3000;0.2141;7.1101;
999.6000;0.2133;7.1054;
999.9000;0.2157;7.1101;
1000.2000;0.2133;7.1101;
1000.5000;0.2141;7.1124;
1000.8000;0.2141;7.1170;
1001.1000;0.2068;7.0961;
1001.4000;0.2149;7.1147;
1001.7000;0.2157;7.1334;
1002.0000;0.2149;7.1357;
1002.3000;0.2165;7.1287;
1002.6000;0.2157;7.1194;
1002.9000;0.2149;7.1147;
1003.2000;0.2157;7.1077;
1003.5000;0.2149;7.1124;
1003.8000;0.2100;7.1007;
1004.1000;0.2165;7.1147;
1004.4000;0.2165;7.1101;
1004.7000;0.2133;7.0984;
1005.0000;0.2149;7.1101;
1005.3000;0.2141;7.1077;
1005.6000;0.2141;7.1124;
1005.9000;0.2182;7.1170;
1006.2000;0.2141;7.1124;
1006.5000;0.2133;7.1147;
1006.8000;0.2149;7.1194;
1007.1000;0.2116;7.1124;
1007.4000;0.2149;7.1101;
1007.7000;0.2141;7.1054;
1008.0000;0.2149;7.1147;
1008.3000;0.2108;7.1194;
1008.6000;0.2173;7.1357;
1008.9000;0.2141;7.1287;
1009.2000;0.2173;7.1403;
1009.5000;0.2125;7.1287;
1009.8000;0.2157;7.1240;
1010.1000;0.2149;7.1240;
1010.4000;0.2125;7.1217;
1010.7000;0.2173;7.1287;
1011.0000;0.2214;7.1217;
1011.3000;0.2165;7.1077;
1011.6000;0.2149;7.1054;
1011.9000;0.2157;7.1054;
1012.2000;0.2173;7.1124;
1012.5000;0.2125;7.0984;
1012.8000;0.2133;7.1031;
1013.1000;0.2133;7.1007;
1013.4000;0.2141;7.1007;
1013.7000;0.2149;7.1031;
1014.0000;0.2141;7.1170;
1014.3000;0.2182;7.1264;
1014.6000;0.2149;7.1194;
1014.9000;0.2214;7.1194;
1015.2000;0.2133;7.1007;
1015.5000;0.2149;7.1054;
1015.8000;0.2230;7.1287;
1016.1000;0.2157;7.1147;
1016.4000;0.2157;7.1054;
1016.7000;0.2165;7.1170;
1017.0000;0.2165;7.1264;
1017.3000;0.2116;7.1124;
1017.6000;0.2182;7.1217;
1017.9000;0.2173;7.1240;
1018.2000;0.2149;7.1101;
1018.5000;0.2141;7.1101;
1018.8000;0.2133;7.1101;
1019.1000;0.2182;7.1077;
1019.4000;0.2141;7.0984;
1019.7000;0.2141;7.0914;
1020.0000;0.2100;7.0891;
1020.3000;0.2125;7.1007;
1020.6000;0.2133;7.1031;
1020.9000;0.2141;7.1147;
1021.2000;0.2149;7.1240;
1021.5000;0.2133;7.1147;
1021.8000;0.2149;7.1124;
1022.1000;0.2157;7.1124;
1022.4000;0.2141;7.1077;
1022.7000;0.2141;7.0961;
1023.0000;0.2141;7.1031;
1023.3000;0.2141;7.0984;
1023.6000;0.2149;7.1007;
1023.9000;0.2157;7.0984;
1024.2000;0.2149;7.0891;
1024.5000;0.2125;7.0868;
1024.8000;0.2149;7.0868;
1025.1000;0.2173;7.0984;
1025.4000;0.2157;7.0937;
1025.7000;0.2149;7.0937;
1026.0000;0.2141;7.0984;
1026.3000;0.2149;7.1124;
1026.6000;0.2133;7.1077;
1026.9000;0.2133;7.1124;
1027.2000;0.2141;7.1054;
1027.5000;0.2173;7.1077;
1027.8000;0.2157;7.0961;
1028.1000;0.2157;7.0961;
1028.4000;0.2133;7.0961;
1028.7000;0.2108;7.0914;
1029.0000;0.2108;7.0961;
1029.3000;0.2125;7.0891;
1029.6000;0.2100;7.0798;
1029.9000;0.2149;7.0868;
1030.2000;0.2182;7.1031;
1030.5000;0.2149;7.1031;
1030.8000;0.2149;7.1054;
1031.1000;0.2141;7.1054;
1031.4000;0.2125;7.0984;
1031.7000;0.2141;7.1170;
1032.0000;0.2100;7.1101;
1032.3000;0.2149;7.1334;
1032.6000;0.2027;7.0984;
1032.9000;0.2125;7.1147;
1033.2000;0.2222;7.1264;
1033.5000;0.2149;7.1101;
1033.8000;0.2116;7.1007;
1034.1000;0.2157;7.1124;
1034.4000;0.2125;7.0961;
1034.7000;0.2165;7.0891;
1035.0000;0.2141;7.0844;
1035.3000;0.2149;7.0844;
1035.6000;0.2198;7.1054;
1035.9000;0.2149;7.0937;
1036.2000;0.2116;7.0891;
1036.5000;0.2198;7.1077;
1036.8000;0.2133;7.0891;
1037.1000;0.2133;7.0937;
1037.4000;0.2149;7.0961;
1037.7000;0.2133;7.0984;
1038.0000;0.2133;7.0961;
1038.3000;0.2125;7.0914;
1038.6000;0.2133;7.0891;
1038.9000;0.2141;7.0961;
1039.2000;0.2141;7.0914;
1039.5000;0.2149;7.0868;
1039.8000;0.2190;7.0961;
1040.1000;0.2084;7.0751;
1040.4000;0.2141;7.0844;
1040.7000;0.2133;7.0868;
1041.0000;0.2141;7.0914;
1041.3000;0.2165;7.1031;
1041.6000;0.2125;7.0961;
1041.9000;0.2125;7.0844;
1042.2000;0.2133;7.0914;
1042.5000;0.2149;7.0868;
1042.8000;0.2182;7.0961;
1043.1000;0.2116;7.0868;
1043.4000;0.2116;7.0821;
1043.7000;0.2190;7.1031;
1044.0000;0.2157;7.1054;
1044.3000;0.2133;7.1031;
1044.6000;0.2141;7.1124;
1044.9000;0.2141;7.1147;
1045.2000;0.2133;7.1264;
1045.5000;0.2141;7.1287;
1045.8000;0.2141;7.1287;
1046.1000;0.2149;7.1194;
1046.4000;0.2149;7.1194;
1046.7000;0.2125;7.1124;
1047.0000;0.2116;7.1170;
1047.3000;0.2141;7.1147;
1047.6000;0.2149;7.1124;
1047.9000;0.2133;7.1007;
1048.2000;0.2133;7.1124;
1048.5000;0.2116;7.1077;
1048.8000;0.2230;7.1310;
1049.1000;0.2149;7.1124;
1049.4000;0.2092;7.1007;
1049.7000;0.2141;7.1077;
1050.0000;0.2133;7.1101;
1050.3000;0.2125;7.1147;
1050.6000;0.2133;7.1101;
1050.9000;0.2100;7.0891;
1051.2000;0.2149;7.1007;
1051.5000;0.2133;7.1101;
1051.8000;0.2125;7.1077;
1052.1000;0.2133;7.1077;
1052.4000;0.2173;7.1077;
1052.7000;0.2125;7.0961;
1053.0000;0.2149;7.1007;
1053.3000;0.2157;7.1077;
1053.6000;0.2116;7.1031;
1053.9000;0.2141;7.0961;
1054.2000;0.2141;7.0891;
1054.5000;0.2141;7.0914;
1054.8000;0.2133;7.0937;
1055.1000;0.2141;7.1031;
1055.4000;0.2133;7.1077;
1055.7000;0.2141;7.1124;
1056.0000;0.2133;7.1147;
1056.3000;0.2133;7.1217;
1056.6000;0.2100;7.1147;
1056.9000;0.2125;7.1101;
1057.2000;0.2157;7.1147;
1057.5000;0.2141;7.1217;
1057.8000;0.2133;7.1170;
1058.1000;0.2125;7.1101;
1058.4000;0.2149;7.1077;
1058.7000;0.2149;7.1077;
1059.0000;0.2149;7.1170;
1059.3000;0.2108;7.1124;
1059.6000;0.2149;7.1217;
1059.9000;0.2141;7.1194;
1060.2000;0.2141;7.1170;
1060.5000;0.2149;7.1194;
1060.8000;0.2116;7.1124;
1061.1000;0.2125;7.1101;
1061.4000;0.2133;7.1054;
1061.7000;0.2125;7.0984;
1062.0000;0.2125;7.1054;
1062.3000;0.2149;7.1170;
1062.6000;0.2125;7.1170;
1062.9000;0.2125;7.1147;
1063.2000;0.2141;7.1217;
1063.5000;0.2133;7.1194;
1063.8000;0.2141;7.1240;
1064.1000;0.2149;7.1217;
1064.4000;0.2141;7.1147;
1064.7000;0.2133;7.1217;
1065.0000;0.2125;7.1264;
1065.3000;0.2133;7.1310;
1065.6000;0.2149;7.1334;
1065.9000;0.2100;7.1194;
1066.2000;0.2125;7.1240;
1066.5000;0.2133;7.1240;
1066.8000;0.2157;7.1310;
1067.1000;0.2133;7.1194;
1067.4000;0.2157;7.1217;
1067.7000;0.2100;7.1124;
1068.0000;0.2125;7.1147;
1068.3000;0.2125;7.1147;
1068.6000;0.2133;7.1217;
1068.9000;0.2141;7.1264;
1069.2000;0.2149;7.1357;
1069.5000;0.2133;7.1427;
1069.8000;0.2116;7.1310;
1070.1000;0.2125;7.1264;
1070.4000;0.2108;7.1147;
1070.7000;0.2165;7.1217;
1071.0000;0.2116;7.1124;
1071.3000;0.2141;7.1077;
1071.6000;0.2149;7.1124;
1071.9000;0.2141;7.1170;
1072.2000;0.2141;7.1240;
1072.5000;0.2149;7.1217;
1072.8000;0.2116;7.1240;
1073.1000;0.2133;7.1357;
1073.4000;0.2125;7.1357;
1073.7000;0.2125;7.1264;
1074.0000;0.2125;7.1287;
1074.3000;0.2149;7.1287;
1074.6000;0.2133;7.1287;
1074.9000;0.2108;7.1240;
1075.2000;0.2125;7.1310;
1075.5000;0.2116;7.1264;
1075.8000;0.2125;7.1310;
1076.1000;0.2133;7.1310;
1076.4000;0.2125;7.1217;
1076.7000;0.2108;7.1147;
1077.0000;0.2141;7.1217;
1077.3000;0.2133;7.1240;
1077.6000;0.2133;7.1264;
1077.9000;0.2133;7.1264;
1078.2000;0.2149;7.1334;
1078.5000;0.2133;7.1357;
1078.8000;0.2141;7.1357;
1079.1000;0.2133;7.1287;
1079.4000;0.2116;7.1264;
1079.7000;0.2116;7.1264;
1080.0000;0.2190;7.1427;
1080.3000;0.2133;7.1334;
1080.6000;0.2149;7.1287;
1080.9000;0.2133;7.1334;
1081.2000;0.2125;7.1380;
1081.5000;0.2108;7.1240;
1081.8000;0.2092;7.1194;
1082.1000;0.2149;7.1287;
1082.4000;0.2133;7.1217;
1082.7000;0.2116;7.1170;
1083.0000;0.2149;7.1287;
1083.3000;0.2133;7.1240;
1083.6000;0.2116;7.1147;
1083.9000;0.2116;7.1264;
1084.2000;0.2125;7.1357;
1084.5000;0.2165;7.1450;
1084.8000;0.2133;7.1403;
1085.1000;0.2108;7.1264;
1085.4000;0.2116;7.1287;
1085.7000;0.2133;7.1380;
1086.0000;0.2125;7.1380;
1086.3000;0.2043;7.1170;
1086.6000;0.2125;7.1380;
1086.9000;0.2116;7.1310;
1087.2000;0.2116;7.1287;
1087.5000;0.2133;7.1240;
1087.8000;0.2141;7.1240;
1088.1000;0.2133;7.1264;
1088.4000;0.2149;7.1334;
1088.7000;0.2125;7.1287;
1089.0000;0.2125;7.1357;
1089.3000;0.2133;7.1380;
1089.6000;0.2141;7.1380;
1089.9000;0.2149;7.1334;
1090.2000;0.2157;7.1334;
1090.5000;0.2108;7.1147;
1090.8000;0.2149;7.1240;
1091.1000;0.2125;7.1194;
1091.4000;0.2149;7.1287;
1091.7000;0.2165;7.1450;
1092.0000;0.2125;7.1357;
1092.3000;0.2141;7.1310;
1092.6000;0.2108;7.1264;
1092.9000;0.2125;7.1240;
1093.2000;0.2141;7.1217;
1093.5000;0.2133;7.1194;
1093.8000;0.2108;7.1124;
1094.1000;0.2108;7.1147;
1094.4000;0.2116;7.1101;
1094.7000;0.2125;7.1124;
1095.0000;0.2133;7.1194;
1095.3000;0.2108;7.1147;
1095.6000;0.2116;7.1170;
1095.9000;0.2141;7.1240;
1096.2000;0.2116;7.1264;
1096.5000;0.2133;7.1287;
1096.8000;0.2230;7.1590;
1097.1000;0.2125;7.1380;
1097.4000;0.2116;7.1334;
1097.7000;0.2100;7.1310;
1098.0000;0.2125;7.1287;
1098.3000;0.2133;7.1334;
1098.6000;0.2157;7.1334;
1098.9000;0.2133;7.1310;
1099.2000;0.2133;7.1287;
1099.5000;0.2125;7.1194;
1099.8000;0.2149;7.1240;
1100.1000;0.2230;7.1403;
1100.4000;0.2084;7.0868;
1100.7000;0.2206;7.1217;
1101.0000;0.2222;7.1334;
1101.3000;0.2116;7.1101;
1101.6000;0.2019;7.0774;
1101.9000;0.2125;7.1031;
1102.2000;0.2133;7.1054;
1102.5000;0.2133;7.1007;
1102.8000;0.2125;7.1031;
1103.1000;0.2190;7.1170;
1103.4000;0.2116;7.1031;
1103.7000;0.2100;7.0984;
1104.0000;0.2100;7.0891;
1104.3000;0.2108;7.1007;
1104.6000;0.2108;7.1054;
1104.9000;0.2190;7.1310;
1105.2000;0.2125;7.1170;
1105.5000;0.2133;7.1240;
1105.8000;0.2149;7.1310;
1106.1000;0.2108;7.1217;
1106.4000;0.2149;7.1310;
1106.7000;0.2141;7.1310;
1107.0000;0.2157;7.1357;
1107.3000;0.2116;7.1240;
1107.6000;0.2141;7.1310;
1107.9000;0.2116;7.1310;
1108.2000;0.2198;7.1473;
1108.5000;0.2100;7.1240;
1108.8000;0.2141;7.1310;
1109.1000;0.2182;7.1497;
1109.4000;0.2133;7.1334;
1109.7000;0.2133;7.1287;
1110.0000;0.2125;7.1310;
1110.3000;0.2043;7.1054;
1110.6000;0.2190;7.1473;
1110.9000;0.2125;7.1287;
1111.2000;0.2141;7.1310;
1111.5000;0.2133;7.1240;
1111.8000;0.2116;7.1217;
1112.1000;0.2133;7.1287;
1112.4000;0.2133;7.1217;
1112.7000;0.2125;7.1217;
1113.0000;0.2092;7.1124;
1113.3000;0.2125;7.1170;
1113.6000;0.2125;7.1124;
1113.9000;0.2116;7.1054;
1114.2000;0.2125;7.1031;
1114.5000;0.2133;7.1007;
1114.8000;0.2108;7.1007;
1115.1000;0.2108;7.0961;
1115.4000;0.2108;7.0844;
1115.7000;0.2108;7.0891;
1116.0000;0.2230;7.1264;
1116.3000;0.2116;7.1054;
1116.6000;0.2125;7.1147;
1116.9000;0.2076;7.0984;
1117.2000;0.2108;7.0984;
1117.5000;0.2108;7.0961;
1117.8000;0.2108;7.1007;
1118.1000;0.2108;7.1007;
1118.4000;0.2133;7.1054;
1118.7000;0.2116;7.1101;
1119.0000;0.2100;7.1101;
1119.3000;0.2141;7.1147;
1119.6000;0.2108;7.1031;
1119.9000;0.2108;7.1077;
1120.2000;0.2116;7.1031;
1120.5000;0.2116;7.1031;
1120.8000;0.2100;7.1007;
1121.1000;0.2125;7.1077;
1121.4000;0.2116;7.1194;
1121.7000;0.2149;7.1264;
1122.0000;0.2076;7.1101;
1122.3000;0.2157;7.1124;
1122.6000;0.2116;7.1077;
1122.9000;0.2116;7.1077;
1123.2000;0.2100;7.1054;
1123.5000;0.2190;7.1240;
1123.8000;0.2125;7.1101;
1124.1000;0.2133;7.1170;
1124.4000;0.2116;7.1101;
1124.7000;0.2133;7.1077;
1125.0000;0.2019;7.0844;
1125.3000;0.2108;7.1170;
1125.6000;0.2108;7.1217;
1125.9000;0.2100;7.1147;
1126.2000;0.2125;7.1217;
1126.5000;0.2125;7.1217;
1126.8000;0.2190;7.1357;
1127.1000;0.2149;7.1380;
1127.4000;0.2084;7.1147;
1127.7000;0.2035;7.1031;
1128.0000;0.2141;7.1240;
1128.3000;0.2149;7.1217;
1128.6000;0.2116;7.1170;
1128.9000;0.2125;7.1147;
1129.2000;0.2125;7.1147;
1129.5000;0.2100;7.1031;
1129.8000;0.2100;7.1101;
1130.1000;0.2116;7.1170;
1130.4000;0.2125;7.1147;
1130.7000;0.2108;7.1077;
1131.0000;0.2125;7.1217;
1131.3000;0.2149;7.1264;
1131.6000;0.2125;7.1194;
1131.9000;0.2173;7.1264;
1132.2000;0.2141;7.1077;
1132.5000;0.2125;7.1077;
1132.8000;0.2149;7.1101;
1133.1000;0.2125;7.1031;
1133.4000;0.2027;7.0844;
1133.7000;0.2116;7.1077;
1134.0000;0.2116;7.1101;
1134.3000;0.2133;7.1170;
1134.6000;0.2116;7.1124;
1134.9000;0.2116;7.1147;
1135.2000;0.2116;7.1170;
1135.5000;0.2125;7.1101;
1135.8000;0.2100;7.1031;
1136.1000;0.2108;7.0984;
1136.4000;0.2116;7.1007;
1136.7000;0.2125;7.1194;
1137.0000;0.2149;7.1287;
1137.3000;0.2116;7.1077;
1137.6000;0.2108;7.0961;
1137.9000;0.2019;7.0681;
1138.2000;0.2125;7.0961;
1138.5000;0.2108;7.1007;
1138.8000;0.2100;7.1124;
1139.1000;0.2133;7.1124;
1139.4000;0.2133;7.1170;
1139.7000;0.2133;7.1147;
1140.0000;0.2116;7.1031;
1140.3000;0.2125;7.1031;
1140.6000;0.2125;7.1054;
1140.9000;0.2108;7.1031;
1141.2000;0.2108;7.0961;
1141.5000;0.2100;7.0961;
1141.8000;0.2125;7.0984;
1142.1000;0.2116;7.1007;
1142.4000;0.2116;7.1054;
1142.7000;0.2133;7.1077;
1143.0000;0.2108;7.1031;
1143.3000;0.2125;7.1101;
1143.6000;0.2108;7.1101;
1143.9000;0.2116;7.1194;
1144.2000;0.2125;7.1147;
1144.5000;0.2141;7.1101;
1144.8000;0.2247;7.1334;
1145.1000;0.2157;7.1194;
1145.4000;0.2116;7.1147;
1145.7000;0.2116;7.1194;
1146.0000;0.2157;7.1240;
1146.3000;0.2116;7.1217;
1146.6000;0.2125;7.1310;
1146.9000;0.2125;7.1264;
1147.2000;0.2165;7.1403;
1147.5000;0.2125;7.1334;
1147.8000;0.2133;7.1334;
1148.1000;0.2051;7.1170;
1148.4000;0.2133;7.1240;
1148.7000;0.2157;7.1334;
1149.0000;0.2116;7.1264;
1149.3000;0.2108;7.1310;
1149.6000;0.2108;7.1264;
1149.9000;0.2116;7.1334;
1150.2000;0.2100;7.1264;
1150.5000;0.2125;7.1310;
1150.8000;0.2100;7.1264;
1151.1000;0.2011;7.1077;
1151.4000;0.2133;7.1380;
1151.7000;0.2092;7.1334;
1152.0000;0.2125;7.1357;
1152.3000;0.2133;7.1334;
1152.6000;0.2133;7.1310;
1152.9000;0.2116;7.1217;
1153.2000;0.2157;7.1287;
1153.5000;0.2149;7.1264;
1153.8000;0.2133;7.1240;
1154.1000;0.2141;7.1264;
1154.4000;0.2125;7.1217;
1154.7000;0.2100;7.1101;
1155.0000;0.2125;7.1124;
1155.3000;0.2214;7.1240;
1155.6000;0.2108;7.0937;
1155.9000;0.2125;7.0984;
1156.2000;0.2100;7.0914;
1156.5000;0.2116;7.0914;
1156.8000;0.2165;7.1124;
1157.1000;0.2125;7.1077;
1157.4000;0.2116;7.0984;
1157.7000;0.2165;7.1054;
1158.0000;0.2116;7.1007;
1158.3000;0.2133;7.1194;
1158.6000;0.2125;7.1147;
1158.9000;0.2108;7.1147;
1159.2000;0.2125;7.1147;
1159.5000;0.2116;7.1101;
1159.8000;0.2125;7.1101;
1160.1000;0.2165;7.1287;
1160.4000;0.2108;7.1147;
1160.7000;0.2125;7.1170;
1161.0000;0.2125;7.1101;
1161.3000;0.2116;7.1054;
1161.6000;0.2141;7.1101;
1161.9000;0.2092;7.1007;
1162.2000;0.2165;7.1101;
1162.5000;0.2141;7.1147;
1162.8000;0.2125;7.1170;
1163.1000;0.2125;7.1287;
1163.4000;0.2125;7.1334;
1163.7000;0.2108;7.1310;
1164.0000;0.2043;7.1147;
1164.3000;0.2100;7.1240;
1164.6000;0.2116;7.1170;
1164.9000;0.2214;7.1450;
1165.2000;0.2116;7.1217;
1165.5000;0.2092;7.1287;
1165.8000;0.2190;7.1473;
1166.1000;0.2116;7.1240;
1166.4000;0.2125;7.1287;
1166.7000;0.2116;7.1357;
1167.0000;0.2173;7.1450;
1167.3000;0.2133;7.1334;
1167.6000;0.2141;7.1240;
1167.9000;0.2133;7.1217;
1168.2000;0.2125;7.1217;
1168.5000;0.2116;7.1217;
1168.8000;0.2133;7.1334;
1169.1000;0.2116;7.1357;
1169.4000;0.2084;7.1380;
1169.7000;0.2116;7.1334;
1170.0000;0.2141;7.1380;
1170.3000;0.2108;7.1334;
1170.6000;0.2133;7.1380;
1170.9000;0.2108;7.1380;
1171.2000;0.2133;7.1427;
1171.5000;0.2084;7.1194;
1171.8000;0.2133;7.1310;
1172.1000;0.2125;7.1334;
1172.4000;0.2222;7.1543;
1172.7000;0.2116;7.1240;
1173.0000;0.2133;7.1357;
1173.3000;0.2125;7.1427;
1173.6000;0.2035;7.1217;
1173.9000;0.2116;7.1403;
1174.2000;0.2125;7.1450;
1174.5000;0.2157;7.1590;
1174.8000;0.2173;7.1590;
1175.1000;0.2116;7.1427;
1175.4000;0.2108;7.1403;
1175.7000;0.2100;7.1427;
1176.0000;0.2141;7.1567;
1176.3000;0.2125;7.1520;
1176.6000;0.2149;7.1520;
1176.9000;0.2108;7.1403;
1177.2000;0.2133;7.1590;
1177.5000;0.2116;7.1567;
1177.8000;0.2116;7.1520;
1178.1000;0.2133;7.1520;
1178.4000;0.2116;7.1543;
1178.7000;0.2108;7.1613;
1179.0000;0.2108;7.1637;
1179.3000;0.2116;7.1660;
1179.6000;0.2125;7.1706;
1179.9000;0.2108;7.1637;
1180.2000;0.2116;7.1660;
1180.5000;0.2108;7.1683;
1180.8000;0.2157;7.1823;
1181.1000;0.2125;7.1753;
1181.4000;0.2035;7.1450;
1181.7000;0.2116;7.1543;
1182.0000;0.2100;7.1450;
1182.3000;0.2198;7.1543;
1182.6000;0.2141;7.1450;
1182.9000;0.2116;7.1473;
1183.2000;0.2149;7.1543;
1183.5000;0.2108;7.1543;
1183.8000;0.2141;7.1613;
1184.1000;0.2027;7.1287;
1184.4000;0.2100;7.1473;
1184.7000;0.2092;7.1590;
1185.0000;0.1986;7.1287;
1185.3000;0.2100;7.1543;
1185.6000;0.2108;7.1590;
1185.9000;0.2173;7.1590;
1186.2000;0.2149;7.1567;
1186.5000;0.2133;7.1497;
1186.8000;0.2100;7.1380;
1187.1000;0.2141;7.1403;
1187.4000;0.2198;7.1497;
1187.7000;0.2125;7.1473;
1188.0000;0.2133;7.1543;
1188.3000;0.2084;7.1403;
1188.6000;0.2076;7.1403;
1188.9000;0.2092;7.1380;
1189.2000;0.2116;7.1403;
1189.5000;0.2084;7.1403;
1189.8000;0.2100;7.1450;
1190.1000;0.2108;7.1473;
1190.4000;0.2116;7.1427;
1190.7000;0.2108;7.1380;
1191.0000;0.2092;7.1357;
1191.3000;0.2108;7.1450;
1191.6000;0.2100;7.1427;
1191.9000;0.2133;7.1497;
1192.2000;0.2108;7.1497;
1192.5000;0.2125;7.1497;
1192.8000;0.2116;7.1497;
1193.1000;0.2116;7.1380;
1193.4000;0.2116;7.1380;
1193.7000;0.2133;7.1334;
1194.0000;0.2116;7.1287;
1194.3000;0.2108;7.1264;
1194.6000;0.2100;7.1264;
1194.9000;0.2116;7.1287;
1195.2000;0.2100;7.1217;
1195.5000;0.2116;7.1264;
1195.8000;0.2116;7.1334;
1196.1000;0.2108;7.1380;
1196.4000;0.2116;7.1473;
1196.7000;0.2125;7.1450;
1197.0000;0.2116;7.1403;
1197.3000;0.2108;7.1310;
1197.6000;0.2076;7.1334;
1197.9000;0.2084;7.1380;
1198.2000;0.2116;7.1497;
1198.5000;0.2125;7.1520;
1198.8000;0.2100;7.1497;
1199.1000;0.2222;7.1753;
1199.4000;0.2092;7.1450;
1199.7000;0.2092;7.1403;
1200.0000;0.2116;7.1473;
1200.3000;0.2092;7.1357;
1200.6000;0.2108;7.1310;
1200.9000;0.2092;7.1194;
1201.2000;0.2206;7.1520;
1201.5000;0.2182;7.1450;
1201.8000;0.2149;7.1427;
1202.1000;0.2141;7.1334;
1202.4000;0.2116;7.1264;
1202.7000;0.2084;7.1287;
1203.0000;0.2108;7.1310;
1203.3000;0.2092;7.1310;
1203.6000;0.2125;7.1403;
1203.9000;0.2116;7.1450;
1204.2000;0.2125;7.1427;
1204.5000;0.2116;7.1310;
1204.8000;0.2084;7.1240;
1205.1000;0.2141;7.1450;
1205.4000;0.2125;7.1403;
1205.7000;0.2125;7.1473;
1206.0000;0.2100;7.1543;
1206.3000;0.2092;7.1497;
1206.6000;0.2141;7.1637;
1206.9000;0.2125;7.1567;
1207.2000;0.2019;7.1310;
1207.5000;0.2092;7.1403;
1207.8000;0.2125;7.1520;
1208.1000;0.2165;7.1543;
1208.4000;0.2116;7.1334;
1208.7000;0.2108;7.1310;
1209.0000;0.2116;7.1427;
1209.3000;0.2125;7.1427;
1209.6000;0.2059;7.1334;
1209.9000;0.2084;7.1357;
1210.2000;0.2108;7.1567;
1210.5000;0.2125;7.1567;
1210.8000;0.2133;7.1613;
1211.1000;0.2092;7.1497;
1211.4000;0.2108;7.1380;
1211.7000;0.2084;7.1287;
1212.0000;0.2116;7.1473;
1212.3000;0.2100;7.1473;
1212.6000;0.2100;7.1520;
1212.9000;0.2100;7.1403;
1213.2000;0.2092;7.1403;
1213.5000;0.2108;7.1450;
1213.8000;0.2108;7.1427;
1214.1000;0.2133;7.1450;
1214.4000;0.2141;7.1567;
1214.7000;0.2125;7.1497;
1215.0000;0.2133;7.1543;
1215.3000;0.2125;7.1473;
1215.6000;0.2108;7.1497;
1215.9000;0.2100;7.1520;
1216.2000;0.2149;7.1660;
1216.5000;0.2108;7.1590;
1216.8000;0.2133;7.1660;
1217.1000;0.2125;7.1660;
1217.4000;0.2116;7.1637;
1217.7000;0.2108;7.1706;
1218.0000;0.2133;7.1706;
1218.3000;0.2108;7.1567;
1218.6000;0.2108;7.1497;
1218.9000;0.2100;7.1520;
1219.2000;0.2084;7.1543;
1219.5000;0.2116;7.1613;
1219.8000;0.2165;7.1753;
1220.1000;0.2084;7.1497;
1220.4000;0.2116;7.1497;
1220.7000;0.2100;7.1473;
1221.0000;0.2116;7.1497;
1221.3000;0.2125;7.1497;
1221.6000;0.2108;7.1380;
1221.9000;0.2116;7.1334;
1222.2000;0.2133;7.1334;
1222.5000;0.2116;7.1334;
1222.8000;0.2092;7.1264;
1223.1000;0.2100;7.1240;
1223.4000;0.2108;7.1217;
1223.7000;0.2108;7.1287;
1224.0000;0.2108;7.1194;
1224.3000;0.2141;7.1310;
1224.6000;0.2100;7.1287;
1224.9000;0.2100;7.1287;
1225.2000;0.2141;7.1310;
1225.5000;0.2100;7.1217;
1225.8000;0.2100;7.1240;
1226.1000;0.2076;7.1310;
1226.4000;0.2116;7.1380;
1226.7000;0.2125;7.1334;
1227.0000;0.2133;7.1380;
1227.3000;0.2011;7.1124;
1227.6000;0.2108;7.1334;
1227.9000;0.2084;7.1240;
1228.2000;0.2092;7.1240;
1228.5000;0.2125;7.1357;
1228.8000;0.2092;7.1380;
1229.1000;0.2125;7.1473;
1229.4000;0.2100;7.1450;
1229.7000;0.2173;7.1637;
1230.0000;0.2108;7.1473;
1230.3000;0.2116;7.1567;
1230.6000;0.2133;7.1543;
1230.9000;0.2108;7.1473;
1231.2000;0.2108;7.1450;
1231.5000;0.2084;7.1427;
1231.8000;0.2116;7.1520;
1232.1000;0.2108;7.1613;
1232.4000;0.2116;7.1590;
1232.7000;0.2092;7.1543;
1233.0000;0.2100;7.1567;
1233.3000;0.2092;7.1473;
1233.6000;0.2100;7.1520;
1233.9000;0.2092;7.1473;
1234.2000;0.2116;7.1450;
1234.5000;0.2125;7.1380;
1234.8000;0.2116;7.1357;
1235.1000;0.2084;7.1287;
1235.4000;0.2100;7.1264;
1235.7000;0.2084;7.1240;
1236.0000;0.2108;7.1357;
1236.3000;0.2100;7.1264;
1236.6000;0.2092;7.1334;
1236.9000;0.2092;7.1380;
1237.2000;0.2133;7.1427;
1237.5000;0.2108;7.1357;
1237.8000;0.2116;7.1380;
1238.1000;0.2116;7.1264;
1238.4000;0.2125;7.1334;
1238.7000;0.2100;7.1310;
1239.0000;0.2092;7.1264;
1239.3000;0.2100;7.1264;
1239.6000;0.2108;7.1264;
1239.9000;0.2100;7.1264;
1240.2000;0.2068;7.1194;
1240.5000;0.2108;7.1264;
1240.8000;0.2125;7.1334;
1241.1000;0.2182;7.1403;
1241.4000;0.2100;7.1264;
1241.7000;0.2076;7.1147;
1242.0000;0.2100;7.1170;
1242.3000;0.2108;7.1287;
1242.6000;0.2092;7.1264;
1242.9000;0.2108;7.1380;
1243.2000;0.2141;7.1357;
1243.5000;0.2076;7.1147;
1243.8000;0.2125;7.1264;
1244.1000;0.2092;7.1287;
1244.4000;0.2108;7.1380;
1244.7000;0.2059;7.1264;
1245.0000;0.2116;7.1473;
1245.3000;0.2108;7.1473;
1245.6000;0.2011;7.1287;
1245.9000;0.2092;7.1543;
1246.2000;0.2125;7.1497;
1246.5000;0.2100;7.1403;
1246.8000;0.2084;7.1403;
1247.1000;0.2116;7.1427;
1247.4000;0.2149;7.1473;
1247.7000;0.2043;7.1427;
1248.0000;0.2100;7.1567;
1248.3000;0.2125;7.1590;
1248.6000;0.2108;7.1590;
1248.9000;0.2116;7.1543;
1249.2000;0.2141;7.1567;
1249.5000;0.2092;7.1403;
1249.8000;0.2116;7.1450;
1250.1000;0.2108;7.1427;
1250.4000;0.2076;7.1217;
1250.7000;0.2100;7.1403;
1251.0000;0.2125;7.1497;
1251.3000;0.2108;7.1497;
1251.6000;0.2108;7.1497;
1251.9000;0.2116;7.1497;
1252.2000;0.2100;7.1380;
1252.5000;0.2100;7.1403;
1252.8000;0.2076;7.1287;
1253.1000;0.2108;7.1427;
1253.4000;0.2108;7.1450;
1253.7000;0.2108;7.1497;
1254.0000;0.2092;7.1497;
1254.3000;0.2100;7.1543;
1254.6000;0.2100;7.1613;
1254.9000;0.2116;7.1543;
1255.2000;0.2076;7.1357;
1255.5000;0.2133;7.1403;
1255.8000;0.2149;7.1427;
1256.1000;0.2108;7.1334;
1256.4000;0.2100;7.1287;
1256.7000;0.2116;7.1427;
1257.0000;0.2100;7.1473;
1257.3000;0.2108;7.1567;
1257.6000;0.2100;7.1543;
1257.9000;0.2198;7.1683;
1258.2000;0.2092;7.1427;
1258.5000;0.2173;7.1613;
1258.8000;0.2125;7.1567;
1259.1000;0.2068;7.1497;
1259.4000;0.2100;7.1473;
1259.7000;0.2084;7.1427;
1260.0000;0.2133;7.1567;
1260.3000;0.2108;7.1637;
1260.6000;0.2092;7.1637;
1260.9000;0.2149;7.1706;
1261.2000;0.2133;7.1683;
1261.5000;0.2165;7.1637;
1261.8000;0.2076;7.1380;
1262.1000;0.2076;7.1357;
1262.4000;0.2108;7.1427;
1262.7000;0.2190;7.1567;
1263.0000;0.2108;7.1334;
1263.3000;0.2100;7.1240;
1263.6000;0.2141;7.1334;
1263.9000;0.2125;7.1310;
1264.2000;0.2035;7.1101;
1264.5000;0.2051;7.1170;
1264.8000;0.2100;7.1334;
1265.1000;0.2165;7.1543;
1265.4000;0.2035;7.1217;
1265.7000;0.2076;7.1287;
1266.0000;0.2116;7.1357;
1266.3000;0.2116;7.1427;
1266.6000;0.2157;7.1543;
1266.9000;0.2125;7.1334;
1267.2000;0.2100;7.1310;
1267.5000;0.2108;7.1357;
1267.8000;0.2100;7.1334;
1268.1000;0.2100;7.1334;
1268.4000;0.2141;7.1497;
1268.7000;0.2116;7.1427;
1269.0000;0.2108;7.1520;
1269.3000;0.2084;7.1450;
1269.6000;0.2157;7.1590;
1269.9000;0.2100;7.1567;
1270.2000;0.2108;7.1590;
1270.5000;0.2092;7.1637;
1270.8000;0.2100;7.1660;
1271.1000;0.2100;7.1706;
1271.4000;0.2100;7.1683;
1271.7000;0.2116;7.1753;
1272.0000;0.2133;7.1776;
1272.3000;0.2108;7.1660;
1272.6000;0.2125;7.1660;
1272.9000;0.2076;7.1543;
1273.2000;0.2100;7.1520;
1273.5000;0.2076;7.1403;
1273.8000;0.2230;7.1706;
1274.1000;0.2108;7.1473;
1274.4000;0.2100;7.1520;
1274.7000;0.2084;7.1473;
1275.0000;0.2108;7.1567;
1275.3000;0.2100;7.1590;
1275.6000;0.2092;7.1637;
1275.9000;0.2133;7.1613;
1276.2000;0.2116;7.1520;
1276.5000;0.2133;7.1567;
1276.8000;0.2116;7.1473;
1277.1000;0.2157;7.1450;
1277.4000;0.2108;7.1310;
1277.7000;0.2116;7.1357;
1278.0000;0.2125;7.1310;
1278.3000;0.2116;7.1310;
1278.6000;0.2108;7.1264;
1278.9000;0.2133;7.1357;
1279.2000;0.2125;7.1287;
1279.5000;0.2133;7.1310;
1279.8000;0.2092;7.1240;
1280.1000;0.2100;7.1310;
1280.4000;0.2092;7.1310;
1280.7000;0.2076;7.1334;
1281.0000;0.2092;7.1427;
1281.3000;0.2092;7.1427;
1281.6000;0.2092;7.1334;
1281.9000;0.2108;7.1403;
1282.2000;0.2068;7.1357;
1282.5000;0.2100;7.1380;
1282.8000;0.2108;7.1403;
1283.1000;0.2116;7.1403;
1283.4000;0.2100;7.1427;
1283.7000;0.2092;7.1473;
1284.0000;0.2125;7.1497;
1284.3000;0.2059;7.1310;
1284.6000;0.2084;7.1427;
1284.9000;0.2116;7.1473;
1285.2000;0.2116;7.1450;
1285.5000;0.2108;7.1427;
1285.8000;0.2100;7.1403;
1286.1000;0.2084;7.1357;
1286.4000;0.2076;7.1310;
1286.7000;0.2108;7.1287;
1287.0000;0.2100;7.1310;
1287.3000;0.2125;7.1334;
1287.6000;0.2108;7.1334;
1287.9000;0.2092;7.1334;
1288.2000;0.2051;7.1240;
1288.5000;0.2092;7.1334;
1288.8000;0.2108;7.1380;
1289.1000;0.2108;7.1357;
1289.4000;0.2125;7.1427;
1289.7000;0.2092;7.1287;
1290.0000;0.2092;7.1310;
1290.3000;0.2108;7.1403;
1290.6000;0.2165;7.1543;
1290.9000;0.2084;7.1334;
1291.2000;0.2116;7.1380;
1291.5000;0.2108;7.1473;
1291.8000;0.2108;7.1450;
1292.1000;0.2092;7.1403;
1292.4000;0.2092;7.1357;
1292.7000;0.2100;7.1403;
1293.0000;0.2100;7.1520;
1293.3000;0.2108;7.1473;
1293.6000;0.2084;7.1427;
1293.9000;0.2108;7.1427;
1294.2000;0.2092;7.1473;
1294.5000;0.2068;7.1427;
1294.8000;0.2084;7.1380;
1295.1000;0.2076;7.1217;
1295.4000;0.2092;7.1217;
1295.7000;0.2092;7.1264;
1296.0000;0.2100;7.1357;
1296.3000;0.2100;7.1357;
1296.6000;0.2092;7.1217;
1296.9000;0.2084;7.1357;
1297.2000;0.2108;7.1357;
1297.5000;0.2092;7.1403;
1297.8000;0.2092;7.1450;
1298.1000;0.2116;7.1450;
1298.4000;0.2108;7.1380;
1298.7000;0.2108;7.1427;
1299.0000;0.2108;7.1473;
1299.3000;0.2108;7.1520;
1299.6000;0.2116;7.1683;
1299.9000;0.2100;7.1730;
1300.2000;0.2100;7.1776;
1300.5000;0.2100;7.1800;
1300.8000;0.2125;7.1730;
1301.1000;0.2092;7.1590;
1301.4000;0.2116;7.1683;
1301.7000;0.2100;7.1660;
1302.0000;0.2125;7.1730;
1302.3000;0.2125;7.1613;
1302.6000;0.2108;7.1590;
1302.9000;0.2100;7.1613;
1303.2000;0.2133;7.1590;
1303.5000;0.2125;7.1497;
1303.8000;0.2100;7.1427;
1304.1000;0.2108;7.1473;
1304.4000;0.2100;7.1403;
1304.7000;0.2100;7.1450;
1305.0000;0.2141;7.1590;
1305.3000;0.2100;7.1450;
1305.6000;0.2092;7.1450;
1305.9000;0.2108;7.1450;
1306.2000;0.2108;7.1450;
1306.5000;0.2092;7.1403;
1306.8000;0.2108;7.1403;
1307.1000;0.2076;7.1380;
1307.4000;0.2092;7.1427;
1307.7000;0.2059;7.1287;
1308.0000;0.2108;7.1380;
1308.3000;0.2100;7.1334;
1308.6000;0.2108;7.1357;
1308.9000;0.2100;7.1357;
1309.2000;0.2051;7.1217;
1309.5000;0.2116;7.1520;
1309.8000;0.2092;7.1543;
1310.1000;0.2100;7.1613;
1310.4000;0.2092;7.1520;
1310.7000;0.2100;7.1473;
1311.0000;0.2092;7.1497;
1311.3000;0.2092;7.1520;
1311.6000;0.2076;7.1543;
1311.9000;0.2149;7.1637;
1312.2000;0.2108;7.1473;
1312.5000;0.2092;7.1427;
1312.8000;0.2092;7.1450;
1313.1000;0.2125;7.1473;
1313.4000;0.2116;7.1473;
1313.7000;0.2092;7.1473;
1314.0000;0.2100;7.1520;
1314.3000;0.2092;7.1613;
1314.6000;0.2108;7.1753;
1314.9000;0.2108;7.1637;
1315.2000;0.2002;7.1287;
1315.5000;0.2019;7.1264;
1315.8000;0.2092;7.1427;
1316.1000;0.2108;7.1403;
1316.4000;0.2084;7.1287;
1316.7000;0.2084;7.1240;
1317.0000;0.2100;7.1287;
1317.3000;0.2108;7.1427;
1317.6000;0.2108;7.1403;
1317.9000;0.2100;7.1497;
1318.2000;0.2092;7.1497;
1318.5000;0.2100;7.1590;
1318.8000;0.2190;7.1800;
1319.1000;0.2108;7.1590;
1319.4000;0.2092;7.1567;
1319.7000;0.2108;7.1590;
1320.0000;0.2092;7.1567;
1320.3000;0.2092;7.1590;
1320.6000;0.2084;7.1637;
1320.9000;0.2100;7.1613;
1321.2000;0.2100;7.1660;
1321.5000;0.2092;7.1660;
1321.8000;0.2084;7.1637;
1322.1000;0.2116;7.1660;
1322.4000;0.2076;7.1637;
1322.7000;0.2092;7.1660;
1323.0000;0.2141;7.1753;
1323.3000;0.2108;7.1706;
1323.6000;0.2092;7.1590;
1323.9000;0.2141;7.1706;
1324.2000;0.2092;7.1683;
1324.5000;0.2092;7.1637;
1324.8000;0.1978;7.1310;
1325.1000;0.2076;7.1567;
1325.4000;0.2116;7.1683;
1325.7000;0.2084;7.1543;
1326.0000;0.2084;7.1543;
1326.3000;0.2100;7.1567;
1326.6000;0.2092;7.1497;
1326.9000;0.2043;7.1240;
1327.2000;0.2141;7.1427;
1327.5000;0.2092;7.1357;
1327.8000;0.2092;7.1334;
1328.1000;0.2173;7.1613;
1328.4000;0.2084;7.1450;
1328.7000;0.2059;7.1264;
1329.0000;0.2100;7.1380;
1329.3000;0.2100;7.1334;
1329.6000;0.2092;7.1310;
1329.9000;0.2100;7.1380;
1330.2000;0.2100;7.1287;
1330.5000;0.2084;7.1287;
1330.8000;0.2076;7.1310;
1331.1000;0.2108;7.1357;
1331.4000;0.2092;7.1427;
1331.7000;0.2116;7.1497;
1332.0000;0.2116;7.1473;
1332.3000;0.2100;7.1380;
1332.6000;0.2092;7.1380;
1332.9000;0.2092;7.1310;
1333.2000;0.2011;7.1101;
1333.5000;0.2100;7.1240;
1333.8000;0.2100;7.1217;
1334.1000;0.2092;7.1217;
1334.4000;0.2100;7.1170;
1334.7000;0.2108;7.1194;
1335.0000;0.2100;7.1287;
1335.3000;0.2059;7.1217;
1335.6000;0.2100;7.1240;
1335.9000;0.2100;7.1170;
1336.2000;0.2100;7.1240;
1336.5000;0.2125;7.1357;
1336.8000;0.2092;7.1334;
1337.1000;0.2108;7.1310;
1337.4000;0.2084;7.1287;
1337.7000;0.2108;7.1427;
1338.0000;0.2092;7.1403;
1338.3000;0.2100;7.1403;
1338.6000;0.2027;7.1310;
1338.9000;0.2092;7.1427;
1339.2000;0.2165;7.1637;
1339.5000;0.2084;7.1450;
1339.8000;0.2051;7.1334;
1340.1000;0.2092;7.1380;
1340.4000;0.2051;7.1380;
1340.7000;0.2125;7.1450;
1341.0000;0.2125;7.1357;
1341.3000;0.2092;7.1287;
1341.6000;0.2100;7.1380;
1341.9000;0.2092;7.1310;
1342.2000;0.2100;7.1403;
1342.5000;0.2035;7.1240;
1342.8000;0.2092;7.1357;
1343.1000;0.2084;7.1264;
1343.4000;0.2092;7.1287;
1343.7000;0.2116;7.1287;
1344.0000;0.2125;7.1264;
1344.3000;0.2092;7.1124;
1344.6000;0.2100;7.1170;
1344.9000;0.2059;7.1054;
1345.2000;0.2092;7.1147;
1345.5000;0.2092;7.1217;
1345.8000;0.2100;7.1194;
1346.1000;0.2092;7.1217;
1346.4000;0.2100;7.1310;
1346.7000;0.2100;7.1357;
1347.0000;0.2149;7.1473;
1347.3000;0.2108;7.1427;
1347.6000;0.2100;7.1334;
1347.9000;0.2157;7.1403;
1348.2000;0.2092;7.1287;
1348.5000;0.2100;7.1357;
1348.8000;0.2084;7.1357;
1349.1000;0.2092;7.1473;
1349.4000;0.2084;7.1310;
1349.7000;0.2043;7.1217;
1350.0000;0.2100;7.1427;
1350.3000;0.2051;7.1334;
1350.6000;0.2108;7.1403;
1350.9000;0.2149;7.1590;
1351.2000;0.2076;7.1380;
1351.5000;0.2108;7.1403;
1351.8000;0.2100;7.1380;
1352.1000;0.2092;7.1403;
1352.4000;0.2084;7.1497;
1352.7000;0.2108;7.1637;
1353.0000;0.2108;7.1590;
1353.3000;0.2116;7.1613;
1353.6000;0.2108;7.1567;
1353.9000;0.2084;7.1473;
1354.2000;0.2108;7.1543;
1354.5000;0.2035;7.1334;
1354.8000;0.2108;7.1590;
1355.1000;0.2076;7.1543;
1355.4000;0.2116;7.1637;
1355.7000;0.2100;7.1543;
1356.0000;0.2198;7.1730;
1356.3000;0.2141;7.1567;
1356.6000;0.2084;7.1403;
1356.9000;0.2182;7.1637;
1357.2000;0.2076;7.1450;
1357.5000;0.2100;7.1427;
1357.8000;0.2100;7.1427;
1358.1000;0.2092;7.1497;
1358.4000;0.2084;7.1473;
1358.7000;0.2092;7.1473;
1359.0000;0.2133;7.1543;
1359.3000;0.2108;7.1543;
1359.6000;0.2092;7.1567;
1359.9000;0.2076;7.1473;
1360.2000;0.2108;7.1427;
1360.5000;0.2068;7.1357;
1360.8000;0.2108;7.1403;
1361.1000;0.2100;7.1450;
1361.4000;0.2108;7.1403;
1361.7000;0.2027;7.1240;
1362.0000;0.2133;7.1543;
1362.3000;0.2133;7.1497;
1362.6000;0.2084;7.1264;
1362.9000;0.2084;7.1287;
1363.2000;0.2100;7.1380;
1363.5000;0.2100;7.1403;
1363.8000;0.2100;7.1497;
1364.1000;0.2116;7.1497;
1364.4000;0.2059;7.1287;
1364.7000;0.2076;7.1170;
1365.0000;0.2084;7.1170;
1365.3000;0.2125;7.1334;
1365.6000;0.2076;7.1194;
1365.9000;0.2100;7.1310;
1366.2000;0.2076;7.1240;
1366.5000;0.2011;7.1077;
1366.8000;0.2108;7.1334;
1367.1000;0.2100;7.1334;
1367.4000;0.2100;7.1380;
1367.7000;0.2108;7.1310;
1368.0000;0.2108;7.1310;
1368.3000;0.2100;7.1310;
1368.6000;0.2116;7.1357;
1368.9000;0.2108;7.1287;
1369.2000;0.2149;7.1380;
1369.5000;0.2125;7.1450;
1369.8000;0.2100;7.1520;
1370.1000;0.2100;7.1543;
1370.4000;0.2092;7.1637;
1370.7000;0.2116;7.1637;
1371.0000;0.2076;7.1450;
1371.3000;0.2059;7.1427;
1371.6000;0.2092;7.1613;
1371.9000;0.2108;7.1660;
1372.2000;0.2100;7.1683;
1372.5000;0.2092;7.1706;
1372.8000;0.2173;7.1916;
1373.1000;0.2043;7.1520;
1373.4000;0.2125;7.1683;
1373.7000;0.2035;7.1427;
1374.0000;0.2051;7.1450;
1374.3000;0.2092;7.1543;
1374.6000;0.2100;7.1590;
1374.9000;0.2076;7.1497;
1375.2000;0.2100;7.1497;
1375.5000;0.2100;7.1520;
1375.8000;0.2116;7.1543;
1376.1000;0.2173;7.1683;
1376.4000;0.2092;7.1497;
1376.7000;0.2108;7.1497;
1377.0000;0.2141;7.1567;
1377.3000;0.2092;7.1450;
1377.6000;0.2108;7.1520;
1377.9000;0.2108;7.1497;
1378.2000;0.2100;7.1427;
1378.5000;0.2108;7.1427;
1378.8000;0.2157;7.1590;
1379.1000;0.2165;7.1613;
1379.4000;0.2133;7.1660;
1379.7000;0.2092;7.1567;
1380.0000;0.2084;7.1543;
1380.3000;0.2108;7.1706;
1380.6000;0.2100;7.1637;
1380.9000;0.2100;7.1660;
1381.2000;0.2125;7.1730;
1381.5000;0.2133;7.1706;
1381.8000;0.2084;7.1613;
1382.1000;0.2100;7.1660;
1382.4000;0.2059;7.1567;
1382.7000;0.2084;7.1613;
1383.0000;0.2100;7.1637;
1383.3000;0.2068;7.1567;
1383.6000;0.2051;7.1567;
1383.9000;0.2108;7.1706;
1384.2000;0.2084;7.1660;
1384.5000;0.2068;7.1706;
1384.8000;0.2100;7.1730;
1385.1000;0.2100;7.1800;
1385.4000;0.2092;7.1730;
1385.7000;0.2068;7.1613;
1386.0000;0.2100;7.1660;
1386.3000;0.2092;7.1567;
1386.6000;0.2084;7.1590;
1386.9000;0.2084;7.1543;
1387.2000;0.2084;7.1520;
1387.5000;0.2059;7.1497;
1387.8000;0.2076;7.1520;
1388.1000;0.2100;7.1613;
1388.4000;0.2092;7.1590;
1388.7000;0.2108;7.1543;
1389.0000;0.2100;7.1497;
1389.3000;0.2084;7.1427;
1389.6000;0.2092;7.1450;
1389.9000;0.2100;7.1473;
1390.2000;0.2076;7.1450;
1390.5000;0.2100;7.1520;
1390.8000;0.2198;7.1800;
1391.1000;0.2133;7.1660;
1391.4000;0.2084;7.1520;
1391.7000;0.2035;7.1450;
1392.0000;0.2084;7.1473;
1392.3000;0.2100;7.1567;
1392.6000;0.2116;7.1660;
1392.9000;0.2100;7.1520;
1393.2000;0.2100;7.1450;
1393.5000;0.2084;7.1403;
1393.8000;0.2076;7.1357;
1394.1000;0.2043;7.1334;
1394.4000;0.2100;7.1450;
1394.7000;0.2116;7.1520;
1395.0000;0.2076;7.1403;
1395.3000;0.2076;7.1450;
1395.6000;0.2092;7.1450;
1395.9000;0.2092;7.1380;
1396.2000;0.2084;7.1380;
1396.5000;0.2092;7.1403;
1396.8000;0.2076;7.1427;
1397.1000;0.2100;7.1450;
1397.4000;0.2092;7.1403;
1397.7000;0.2084;7.1310;
1398.0000;0.2076;7.1264;
1398.3000;0.2076;7.1287;
1398.6000;0.2116;7.1473;
1398.9000;0.2141;7.1637;
1399.2000;0.2100;7.1543;
1399.5000;0.2092;7.1543;
1399.8000;0.2116;7.1543;
