time/ms;Fluo/V;P700 deltaI/I x10³;
-199.8000;0.1962;7.1870;
-199.5000;0.1970;7.1870;
-199.2000;0.1897;7.1637;
-198.9000;0.1905;7.1683;
-198.6000;0.1962;7.1870;
-198.3000;0.1978;7.1870;
-198.0000;0.1872;7.1660;
-197.7000;0.1945;7.1870;
-197.4000;0.1954;7.1870;
-197.1000;0.1945;7.1916;
-196.8000;0.1986;7.1939;
-196.5000;0.1962;7.1800;
-196.2000;0.1954;7.1776;
-195.9000;0.1921;7.1637;
-195.6000;0.1994;7.1776;
-195.3000;0.2002;7.1823;
-195.0000;0.1962;7.1683;
-194.7000;0.1970;7.1753;
-194.4000;0.1978;7.1800;
-194.1000;0.1905;7.1590;
-193.8000;0.1954;7.1730;
-193.5000;0.1994;7.1730;
-193.2000;0.1978;7.1613;
-192.9000;0.1937;7.1637;
-192.6000;0.1978;7.1753;
-192.3000;0.1929;7.1637;
-192.0000;0.1921;7.1613;
-191.7000;0.1978;7.1823;
-191.4000;0.1978;7.1870;
-191.1000;0.1986;7.1893;
-190.8000;0.1970;7.1823;
-190.5000;0.1954;7.1800;
-190.2000;0.1954;7.1683;
-189.9000;0.1929;7.1823;
-189.6000;0.1962;7.1800;
-189.3000;0.1986;7.1870;
-189.0000;0.1913;7.1753;
-188.7000;0.1970;7.1963;
-188.4000;0.1954;7.1986;
-188.1000;0.1962;7.1939;
-187.8000;0.1905;7.1753;
-187.5000;0.1970;7.1963;
-187.2000;0.1962;7.2033;
-186.9000;0.1937;7.1986;
-186.6000;0.1954;7.2033;
-186.3000;0.1978;7.2033;
-186.0000;0.1962;7.1939;
-185.7000;0.1978;7.1846;
-185.4000;0.1954;7.1823;
-185.1000;0.1921;7.1683;
-184.8000;0.1970;7.1893;
-184.5000;0.1970;7.1939;
-184.2000;0.1986;7.1939;
-183.9000;0.1937;7.1660;
-183.6000;0.1978;7.1706;
-183.3000;0.1986;7.1706;
-183.0000;0.1921;7.1613;
-182.7000;0.1937;7.1730;
-182.4000;0.1962;7.1893;
-182.1000;0.1897;7.1730;
-181.8000;0.1970;7.1870;
-181.5000;0.1954;7.1823;
-181.2000;0.1929;7.1776;
-180.9000;0.1986;7.1870;
-180.6000;0.1986;7.1800;
-180.3000;0.1970;7.1823;
-180.0000;0.1994;7.1870;
-179.7000;0.1954;7.1730;
-179.4000;0.1962;7.1706;
-179.1000;0.1978;7.1800;
-178.8000;0.1945;7.1753;
-178.5000;0.1954;7.1846;
-178.2000;0.1970;7.1916;
-177.9000;0.1970;7.1939;
-177.6000;0.1978;7.1870;
-177.3000;0.1970;7.1846;
-177.0000;0.2051;7.2009;
-176.7000;0.2011;7.1963;
-176.4000;0.1978;7.1823;
-176.1000;0.1913;7.1706;
-175.8000;0.1954;7.1753;
-175.5000;0.1872;7.1637;
-175.2000;0.1954;7.1776;
-174.9000;0.1986;7.1823;
-174.6000;0.2035;7.1986;
-174.3000;0.1994;7.1916;
-174.0000;0.2002;7.1893;
-173.7000;0.1945;7.1800;
-173.4000;0.1954;7.1800;
-173.1000;0.1937;7.1776;
-172.8000;0.1970;7.1846;
-172.5000;0.1945;7.1823;
-172.2000;0.1978;7.1846;
-171.9000;0.1929;7.1823;
-171.6000;0.1978;7.1893;
-171.3000;0.1897;7.1590;
-171.0000;0.1945;7.1683;
-170.7000;0.1986;7.1776;
-170.4000;0.1962;7.1683;
-170.1000;0.1872;7.1497;
-169.8000;0.1962;7.1706;
-169.5000;0.1962;7.1637;
-169.2000;0.2019;7.1776;
-168.9000;0.1880;7.1403;
-168.6000;0.1994;7.1753;
-168.3000;0.1970;7.1567;
-168.0000;0.1954;7.1613;
-167.7000;0.1978;7.1753;
-167.4000;0.2084;7.2033;
-167.1000;0.1962;7.1753;
-166.8000;0.2027;7.1846;
-166.5000;0.1880;7.1497;
-166.2000;0.2027;7.1916;
-165.9000;0.1970;7.1870;
-165.6000;0.1897;7.1567;
-165.3000;0.1962;7.1753;
-165.0000;0.1962;7.1753;
-164.7000;0.1945;7.1776;
-164.4000;0.1970;7.1823;
-164.1000;0.1986;7.1776;
-163.8000;0.1970;7.1753;
-163.5000;0.1962;7.1683;
-163.2000;0.1978;7.1683;
-162.9000;0.1970;7.1683;
-162.6000;0.1962;7.1776;
-162.3000;0.1962;7.1800;
-162.0000;0.1970;7.1893;
-161.7000;0.1978;7.1916;
-161.4000;0.1970;7.1916;
-161.1000;0.1945;7.1893;
-160.8000;0.1905;7.1823;
-160.5000;0.1978;7.1963;
-160.2000;0.1937;7.1823;
-159.9000;0.1954;7.1846;
-159.6000;0.1978;7.1800;
-159.3000;0.2027;7.1939;
-159.0000;0.1978;7.1893;
-158.7000;0.1978;7.1893;
-158.4000;0.1970;7.1939;
-158.1000;0.1945;7.1846;
-157.8000;0.1954;7.1870;
-157.5000;0.1970;7.1916;
-157.2000;0.1954;7.1870;
-156.9000;0.1954;7.1893;
-156.6000;0.1994;7.1986;
-156.3000;0.1978;7.1916;
-156.0000;0.1978;7.1963;
-155.7000;0.1945;7.1916;
-155.4000;0.1929;7.1870;
-155.1000;0.1962;7.1963;
-154.8000;0.1962;7.1939;
-154.5000;0.1978;7.1986;
-154.2000;0.1954;7.1963;
-153.9000;0.1970;7.2033;
-153.6000;0.1970;7.1963;
-153.3000;0.1962;7.1916;
-153.0000;0.1978;7.1916;
-152.7000;0.1945;7.1823;
-152.4000;0.1962;7.1846;
-152.1000;0.1962;7.1870;
-151.8000;0.1970;7.1823;
-151.5000;0.1962;7.1870;
-151.2000;0.1954;7.1800;
-150.9000;0.1962;7.1846;
-150.6000;0.1970;7.1800;
-150.3000;0.2011;7.1963;
-150.0000;0.2002;7.1846;
-149.7000;0.1962;7.1846;
-149.4000;0.1929;7.1776;
-149.1000;0.1913;7.1683;
-148.8000;0.1970;7.1800;
-148.5000;0.1945;7.1800;
-148.2000;0.1978;7.1916;
-147.9000;0.1962;7.1939;
-147.6000;0.1970;7.1939;
-147.3000;0.1962;7.1893;
-147.0000;0.2002;7.2033;
-146.7000;0.1994;7.1916;
-146.4000;0.1962;7.1916;
-146.1000;0.1970;7.1963;
-145.8000;0.1945;7.1846;
-145.5000;0.1937;7.1730;
-145.2000;0.1937;7.1823;
-144.9000;0.1986;7.1893;
-144.6000;0.1994;7.1893;
-144.3000;0.2035;7.1939;
-144.0000;0.1954;7.1753;
-143.7000;0.1962;7.1823;
-143.4000;0.1986;7.1823;
-143.1000;0.1913;7.1637;
-142.8000;0.1954;7.1776;
-142.5000;0.1945;7.1776;
-142.2000;0.1994;7.1870;
-141.9000;0.1954;7.1823;
-141.6000;0.1970;7.1893;
-141.3000;0.1986;7.1916;
-141.0000;0.2002;7.1916;
-140.7000;0.1937;7.1870;
-140.4000;0.1970;7.1916;
-140.1000;0.1970;7.1916;
-139.8000;0.1962;7.1870;
-139.5000;0.1978;7.1823;
-139.2000;0.1897;7.1637;
-138.9000;0.1962;7.1776;
-138.6000;0.2002;7.1963;
-138.3000;0.1962;7.1870;
-138.0000;0.2019;7.1939;
-137.7000;0.1945;7.1800;
-137.4000;0.1962;7.1776;
-137.1000;0.1970;7.1800;
-136.8000;0.1970;7.1776;
-136.5000;0.1905;7.1543;
-136.2000;0.1962;7.1660;
-135.9000;0.1929;7.1427;
-135.6000;0.1937;7.1520;
-135.3000;0.1954;7.1660;
-135.0000;0.1970;7.1637;
-134.7000;0.1945;7.1613;
-134.4000;0.1945;7.1683;
-134.1000;0.1945;7.1660;
-133.8000;0.1970;7.1776;
-133.5000;0.1978;7.1800;
-133.2000;0.1978;7.1846;
-132.9000;0.1970;7.1800;
-132.6000;0.1994;7.1800;
-132.3000;0.1954;7.1637;
-132.0000;0.1978;7.1730;
-131.7000;0.1970;7.1706;
-131.4000;0.1970;7.1706;
-131.1000;0.1994;7.1823;
-130.8000;0.1962;7.1776;
-130.5000;0.1962;7.1753;
-130.2000;0.1954;7.1706;
-129.9000;0.1962;7.1683;
-129.6000;0.1954;7.1730;
-129.3000;0.1962;7.1776;
-129.0000;0.1954;7.1846;
-128.7000;0.1994;7.1963;
-128.4000;0.1937;7.1893;
-128.1000;0.1970;7.1986;
-127.8000;0.1978;7.2103;
-127.5000;0.1954;7.1986;
-127.2000;0.1954;7.2056;
-126.9000;0.1970;7.2149;
-126.6000;0.1954;7.2056;
-126.3000;0.1978;7.2079;
-126.0000;0.1978;7.2033;
-125.7000;0.1970;7.1986;
-125.4000;0.1962;7.1986;
-125.1000;0.1945;7.1870;
-124.8000;0.1962;7.1916;
-124.5000;0.1962;7.1939;
-124.2000;0.1954;7.1916;
-123.9000;0.1962;7.2009;
-123.6000;0.1954;7.2126;
-123.3000;0.1970;7.2056;
-123.0000;0.2011;7.2126;
-122.7000;0.1970;7.2103;
-122.4000;0.1978;7.2126;
-122.1000;0.1978;7.2103;
-121.8000;0.1986;7.2079;
-121.5000;0.1954;7.1963;
-121.2000;0.1945;7.1870;
-120.9000;0.1962;7.1963;
-120.6000;0.1945;7.2009;
-120.3000;0.2035;7.2173;
-120.0000;0.1962;7.2033;
-119.7000;0.1962;7.2009;
-119.4000;0.2035;7.2196;
-119.1000;0.1954;7.1939;
-118.8000;0.1962;7.1870;
-118.5000;0.1978;7.1870;
-118.2000;0.1978;7.1823;
-117.9000;0.1986;7.1800;
-117.6000;0.1994;7.1753;
-117.3000;0.1929;7.1590;
-117.0000;0.1978;7.1753;
-116.7000;0.1978;7.1730;
-116.4000;0.1970;7.1776;
-116.1000;0.1962;7.1870;
-115.8000;0.1978;7.1916;
-115.5000;0.1954;7.1846;
-115.2000;0.1986;7.1916;
-114.9000;0.1994;7.1963;
-114.6000;0.1962;7.1870;
-114.3000;0.1945;7.1846;
-114.0000;0.2011;7.2079;
-113.7000;0.1962;7.1939;
-113.4000;0.1962;7.1893;
-113.1000;0.1954;7.1939;
-112.8000;0.1962;7.1893;
-112.5000;0.1937;7.1800;
-112.2000;0.1986;7.1939;
-111.9000;0.1962;7.1823;
-111.6000;0.1970;7.1870;
-111.3000;0.1962;7.1776;
-111.0000;0.1945;7.1660;
-110.7000;0.1954;7.1683;
-110.4000;0.1937;7.1730;
-110.1000;0.1962;7.1800;
-109.8000;0.1905;7.1660;
-109.5000;0.1945;7.1846;
-109.2000;0.1954;7.1870;
-108.9000;0.1962;7.1870;
-108.6000;0.1970;7.1893;
-108.3000;0.1970;7.1846;
-108.0000;0.1978;7.1846;
-107.7000;0.1954;7.1846;
-107.4000;0.1954;7.1823;
-107.1000;0.1954;7.1893;
-106.8000;0.1954;7.1893;
-106.5000;0.1978;7.1939;
-106.2000;0.1945;7.1870;
-105.9000;0.1962;7.1939;
-105.6000;0.1937;7.1893;
-105.3000;0.1945;7.1846;
-105.0000;0.1986;7.1893;
-104.7000;0.1970;7.1870;
-104.4000;0.1962;7.1800;
-104.1000;0.1986;7.1846;
-103.8000;0.1978;7.1730;
-103.5000;0.1962;7.1683;
-103.2000;0.1962;7.1706;
-102.9000;0.1986;7.1706;
-102.6000;0.1986;7.1846;
-102.3000;0.1962;7.1893;
-102.0000;0.1970;7.1893;
-101.7000;0.1986;7.1893;
-101.4000;0.1986;7.1800;
-101.1000;0.1970;7.1823;
-100.8000;0.1954;7.1939;
-100.5000;0.1962;7.2009;
-100.2000;0.1962;7.1893;
-99.9000;0.1994;7.1939;
-99.6000;0.1945;7.1823;
-99.3000;0.1954;7.1846;
-99.0000;0.1978;7.1823;
-98.7000;0.1970;7.1730;
-98.4000;0.2027;7.1870;
-98.1000;0.1962;7.1753;
-97.8000;0.1970;7.1753;
-97.5000;0.2035;7.1939;
-97.2000;0.1970;7.1870;
-96.9000;0.1994;7.1846;
-96.6000;0.1970;7.1823;
-96.3000;0.1962;7.1939;
-96.0000;0.1970;7.1893;
-95.7000;0.1962;7.1870;
-95.4000;0.1954;7.1916;
-95.1000;0.1970;7.2009;
-94.8000;0.1945;7.1986;
-94.5000;0.1978;7.1963;
-94.2000;0.1970;7.1870;
-93.9000;0.1970;7.1939;
-93.6000;0.1945;7.1893;
-93.3000;0.1970;7.1870;
-93.0000;0.1978;7.1823;
-92.7000;0.1962;7.1800;
-92.4000;0.1945;7.1730;
-92.1000;0.1962;7.1846;
-91.8000;0.1978;7.1939;
-91.5000;0.1970;7.1893;
-91.2000;0.1970;7.1870;
-90.9000;0.1937;7.1846;
-90.6000;0.1962;7.1963;
-90.3000;0.1954;7.1870;
-90.0000;0.1954;7.1870;
-89.7000;0.1954;7.1800;
-89.4000;0.1978;7.1893;
-89.1000;0.1978;7.1963;
-88.8000;0.1962;7.1893;
-88.5000;0.1970;7.1893;
-88.2000;0.1978;7.1870;
-87.9000;0.2011;7.1986;
-87.6000;0.1986;7.1916;
-87.3000;0.1978;7.1916;
-87.0000;0.1962;7.1870;
-86.7000;0.1970;7.1800;
-86.4000;0.1937;7.1776;
-86.1000;0.1962;7.1800;
-85.8000;0.1962;7.1823;
-85.5000;0.1994;7.1870;
-85.2000;0.1945;7.1776;
-84.9000;0.1978;7.1800;
-84.6000;0.1986;7.1846;
-84.3000;0.1978;7.1893;
-84.0000;0.1970;7.1893;
-83.7000;0.1970;7.1916;
-83.4000;0.1954;7.1846;
-83.1000;0.1962;7.1870;
-82.8000;0.1962;7.1893;
-82.5000;0.1978;7.1870;
-82.2000;0.1872;7.1613;
-81.9000;0.1954;7.1846;
-81.6000;0.1954;7.1963;
-81.3000;0.1905;7.1939;
-81.0000;0.1986;7.2079;
-80.7000;0.1945;7.1986;
-80.4000;0.1962;7.2009;
-80.1000;0.2011;7.2149;
-79.8000;0.1962;7.1963;
-79.5000;0.1954;7.2009;
-79.2000;0.2027;7.2196;
-78.9000;0.1962;7.2009;
-78.6000;0.1962;7.1986;
-78.3000;0.1978;7.1986;
-78.0000;0.1962;7.1963;
-77.7000;0.2019;7.2149;
-77.4000;0.1962;7.2126;
-77.1000;0.1937;7.2103;
-76.8000;0.1913;7.2033;
-76.5000;0.1962;7.2126;
-76.2000;0.1929;7.2056;
-75.9000;0.1937;7.2126;
-75.6000;0.1962;7.2103;
-75.3000;0.1970;7.2009;
-75.0000;0.1954;7.2033;
-74.7000;0.1962;7.2033;
-74.4000;0.1954;7.2079;
-74.1000;0.1905;7.2033;
-73.8000;0.1954;7.1986;
-73.5000;0.1970;7.2079;
-73.2000;0.1962;7.2149;
-72.9000;0.1897;7.2033;
-72.6000;0.1970;7.2173;
-72.3000;0.1945;7.2009;
-72.0000;0.1954;7.1916;
-71.7000;0.1937;7.1916;
-71.4000;0.1978;7.1963;
-71.1000;0.1954;7.2009;
-70.8000;0.1970;7.1916;
-70.5000;0.1962;7.1939;
-70.2000;0.1962;7.1893;
-69.9000;0.1962;7.1893;
-69.6000;0.1962;7.1916;
-69.3000;0.1945;7.1776;
-69.0000;0.1970;7.1870;
-68.7000;0.1962;7.1870;
-68.4000;0.1970;7.1870;
-68.1000;0.1937;7.1893;
-67.8000;0.1937;7.1939;
-67.5000;0.1970;7.2103;
-67.2000;0.1970;7.2103;
-66.9000;0.1913;7.2033;
-66.6000;0.2068;7.2266;
-66.3000;0.1945;7.2009;
-66.0000;0.1978;7.2103;
-65.7000;0.1945;7.2103;
-65.4000;0.1954;7.2056;
-65.1000;0.1962;7.1963;
-64.8000;0.1978;7.1986;
-64.5000;0.1945;7.1916;
-64.2000;0.1954;7.1963;
-63.9000;0.1962;7.1916;
-63.6000;0.1962;7.1939;
-63.3000;0.1962;7.1916;
-63.0000;0.1970;7.1893;
-62.7000;0.1986;7.1916;
-62.4000;0.1978;7.1939;
-62.1000;0.1994;7.1986;
-61.8000;0.1970;7.1939;
-61.5000;0.1970;7.1916;
-61.2000;0.1962;7.1870;
-60.9000;0.1970;7.1753;
-60.6000;0.1937;7.1730;
-60.3000;0.1986;7.1823;
-60.0000;0.1962;7.1660;
-59.7000;0.1954;7.1706;
-59.4000;0.1970;7.1776;
-59.1000;0.1954;7.1823;
-58.8000;0.1937;7.1823;
-58.5000;0.1962;7.1939;
-58.2000;0.2002;7.2033;
-57.9000;0.1929;7.1846;
-57.6000;0.1994;7.2009;
-57.3000;0.2019;7.2079;
-57.0000;0.1962;7.1823;
-56.7000;0.1970;7.1939;
-56.4000;0.1962;7.2079;
-56.1000;0.1954;7.2033;
-55.8000;0.1945;7.1963;
-55.5000;0.1962;7.1986;
-55.2000;0.1937;7.1893;
-54.9000;0.1970;7.2009;
-54.6000;0.1978;7.2103;
-54.3000;0.1962;7.1963;
-54.0000;0.1962;7.1870;
-53.7000;0.1970;7.1823;
-53.4000;0.1962;7.1753;
-53.1000;0.2027;7.1846;
-52.8000;0.1970;7.1706;
-52.5000;0.1962;7.1800;
-52.2000;0.1978;7.1846;
-51.9000;0.1970;7.1823;
-51.6000;0.1937;7.1753;
-51.3000;0.1978;7.1800;
-51.0000;0.2002;7.1823;
-50.7000;0.2011;7.1870;
-50.4000;0.1954;7.1706;
-50.1000;0.2002;7.1823;
-49.8000;0.1978;7.1730;
-49.5000;0.1954;7.1613;
-49.2000;0.1962;7.1613;
-48.9000;0.1954;7.1730;
-48.6000;0.1945;7.1753;
-48.3000;0.1954;7.1776;
-48.0000;0.1905;7.1660;
-47.7000;0.1954;7.1870;
-47.4000;0.1986;7.1963;
-47.1000;0.1962;7.1916;
-46.8000;0.1994;7.1916;
-46.5000;0.1954;7.1823;
-46.2000;0.2011;7.1963;
-45.9000;0.1962;7.1730;
-45.6000;0.1970;7.1776;
-45.3000;0.1962;7.1823;
-45.0000;0.1978;7.1893;
-44.7000;0.1937;7.1753;
-44.4000;0.1970;7.1870;
-44.1000;0.1954;7.1870;
-43.8000;0.1954;7.1893;
-43.5000;0.1954;7.2009;
-43.2000;0.1954;7.1986;
-42.9000;0.1970;7.1986;
-42.6000;0.1970;7.1846;
-42.3000;0.1962;7.1846;
-42.0000;0.1970;7.1916;
-41.7000;0.1954;7.1939;
-41.4000;0.1962;7.1986;
-41.1000;0.1962;7.2149;
-40.8000;0.1970;7.2103;
-40.5000;0.1945;7.2056;
-40.2000;0.1945;7.2033;
-39.9000;0.1970;7.2103;
-39.6000;0.1954;7.2056;
-39.3000;0.1962;7.1963;
-39.0000;0.1954;7.2033;
-38.7000;0.1962;7.1986;
-38.4000;0.1954;7.2009;
-38.1000;0.1962;7.2009;
-37.8000;0.1954;7.1986;
-37.5000;0.1937;7.1916;
-37.2000;0.1937;7.1846;
-36.9000;0.1978;7.2009;
-36.6000;0.1970;7.2033;
-36.3000;0.1986;7.2033;
-36.0000;0.1954;7.1963;
-35.7000;0.1970;7.2079;
-35.4000;0.1986;7.2079;
-35.1000;0.1954;7.2079;
-34.8000;0.1945;7.2009;
-34.5000;0.1954;7.1986;
-34.2000;0.2068;7.2289;
-33.9000;0.1954;7.1963;
-33.6000;0.1962;7.1939;
-33.3000;0.1945;7.1986;
-33.0000;0.1994;7.2103;
-32.7000;0.1945;7.2033;
-32.4000;0.1978;7.2103;
-32.1000;0.1954;7.2103;
-31.8000;0.1970;7.2149;
-31.5000;0.2035;7.2289;
-31.2000;0.2035;7.2242;
-30.9000;0.1970;7.2056;
-30.6000;0.2100;7.2382;
-30.3000;0.1986;7.2173;
-30.0000;0.2084;7.2499;
-29.7000;0.1921;7.1963;
-29.4000;0.1978;7.2103;
-29.1000;0.1970;7.2009;
-28.8000;0.1978;7.1986;
-28.5000;0.1897;7.1846;
-28.2000;0.1986;7.2056;
-27.9000;0.1929;7.1939;
-27.6000;0.1937;7.1939;
-27.3000;0.1937;7.1963;
-27.0000;0.1970;7.2009;
-26.7000;0.2002;7.2126;
-26.4000;0.1970;7.2149;
-26.1000;0.1945;7.2126;
-25.8000;0.1962;7.2219;
-25.5000;0.1970;7.2242;
-25.2000;0.1929;7.2126;
-24.9000;0.1970;7.2173;
-24.6000;0.1986;7.2149;
-24.3000;0.1970;7.2079;
-24.0000;0.1970;7.2033;
-23.7000;0.1945;7.1870;
-23.4000;0.1962;7.1776;
-23.1000;0.1929;7.1683;
-22.8000;0.1970;7.1730;
-22.5000;0.1978;7.1800;
-22.2000;0.1954;7.1683;
-21.9000;0.1994;7.1730;
-21.6000;0.1978;7.1753;
-21.3000;0.1962;7.1800;
-21.0000;0.1970;7.1753;
-20.7000;0.1945;7.1870;
-20.4000;0.1954;7.1870;
-20.1000;0.1954;7.1846;
-19.8000;0.1954;7.1730;
-19.5000;0.1937;7.1800;
-19.2000;0.1962;7.1776;
-18.9000;0.1937;7.1613;
-18.6000;0.1986;7.1800;
-18.3000;0.1970;7.1776;
-18.0000;0.1970;7.1846;
-17.7000;0.1986;7.1916;
-17.4000;0.1994;7.1800;
-17.1000;0.1962;7.1776;
-16.8000;0.1962;7.1753;
-16.5000;0.2011;7.1823;
-16.2000;0.1970;7.1823;
-15.9000;0.1962;7.1800;
-15.6000;0.1970;7.1846;
-15.3000;0.1962;7.1800;
-15.0000;0.1970;7.1800;
-14.7000;0.1986;7.1939;
-14.4000;0.1945;7.1893;
-14.1000;0.1945;7.1893;
-13.8000;0.1954;7.1800;
-13.5000;0.1929;7.1730;
-13.2000;0.1994;7.1823;
-12.9000;0.1962;7.1683;
-12.6000;0.1954;7.1776;
-12.3000;0.1945;7.1823;
-12.0000;0.1994;7.1800;
-11.7000;0.1962;7.1706;
-11.4000;0.1954;7.1706;
-11.1000;0.1962;7.1730;
-10.8000;0.1978;7.1753;
-10.5000;0.1945;7.1776;
-10.2000;0.1945;7.1776;
-9.9000;0.1970;7.1870;
-9.6000;0.1978;7.1939;
-9.3000;0.1954;7.1986;
-9.0000;0.1978;7.2009;
-8.7000;0.1937;7.1870;
-8.4000;0.1954;7.1870;
-8.1000;0.1962;7.1800;
-7.8000;0.1945;7.1706;
-7.5000;0.1954;7.1753;
-7.2000;0.1929;7.1706;
-6.9000;0.1954;7.1916;
-6.6000;0.1986;7.1893;
-6.3000;0.1962;7.1893;
-6.0000;0.1962;7.1800;
-5.7000;0.1880;7.1543;
-5.4000;0.1970;7.1776;
-5.1000;0.1978;7.1823;
-4.8000;0.1848;7.1590;
-4.5000;0.1954;7.1893;
-4.2000;0.1954;7.1939;
-3.9000;0.1970;7.1916;
-3.6000;0.2002;7.2009;
-3.3000;0.1954;7.1939;
-3.0000;0.1986;7.1963;
-2.7000;0.1978;7.1916;
-2.4000;0.1970;7.1939;
-2.1000;0.1962;7.1823;
-1.8000;0.1970;7.1776;
-1.5000;0.1962;7.1823;
-1.2000;0.1970;7.1846;
-0.9000;0.1954;7.1730;
-0.6000;0.1962;7.1706;
-0.3000;0.1978;7.1800;
0.0000;0.1978;7.1800;
0.3000;0.2035;7.1870;
0.6000;0.2157;7.2079;
0.9000;0.2295;7.2336;
1.2000;0.2385;7.2475;
1.5000;0.2450;7.2592;
1.8000;0.2515;7.2895;
2.1000;0.2556;7.3058;
2.4000;0.2597;7.3198;
2.7000;0.2637;7.3338;
3.0000;0.2654;7.3454;
3.3000;0.2662;7.3571;
3.6000;0.2662;7.3571;
3.9000;0.2686;7.3687;
4.2000;0.2686;7.3664;
4.5000;0.2702;7.3781;
4.8000;0.2694;7.3827;
5.1000;0.2727;7.3944;
5.4000;0.2727;7.3967;
5.7000;0.2694;7.3874;
6.0000;0.2735;7.3897;
6.3000;0.2759;7.4014;
6.6000;0.2719;7.3897;
6.9000;0.2727;7.3804;
7.2000;0.2735;7.3850;
7.5000;0.2702;7.3804;
7.8000;0.2735;7.3874;
8.1000;0.2759;7.3990;
8.4000;0.2751;7.3920;
8.7000;0.2776;7.3897;
9.0000;0.2759;7.3827;
9.3000;0.2735;7.3804;
9.6000;0.2857;7.4060;
9.9000;0.2776;7.3874;
10.2000;0.2776;7.3874;
10.5000;0.2743;7.3804;
10.8000;0.2751;7.3687;
11.1000;0.2686;7.3547;
11.4000;0.2792;7.3781;
11.7000;0.2792;7.3641;
12.0000;0.2784;7.3664;
12.3000;0.2890;7.3804;
12.6000;0.2800;7.3641;
12.9000;0.2776;7.3524;
13.2000;0.2800;7.3734;
13.5000;0.2808;7.3734;
13.8000;0.2800;7.3734;
14.1000;0.2816;7.3734;
14.4000;0.2816;7.3827;
14.7000;0.2808;7.3757;
15.0000;0.2800;7.3757;
15.3000;0.2833;7.3781;
15.6000;0.2825;7.3757;
15.9000;0.2808;7.3804;
16.2000;0.2841;7.3850;
16.5000;0.2841;7.3874;
16.8000;0.2849;7.3897;
17.1000;0.2816;7.3804;
17.4000;0.2841;7.3967;
17.7000;0.2873;7.4083;
18.0000;0.2898;7.4107;
18.3000;0.2857;7.3874;
18.6000;0.2865;7.3804;
18.9000;0.2865;7.3874;
19.2000;0.2882;7.3944;
19.5000;0.2857;7.3804;
19.8000;0.2865;7.3827;
20.1000;0.2873;7.3897;
20.4000;0.2882;7.3920;
20.7000;0.2882;7.4060;
21.0000;0.2865;7.4014;
21.3000;0.2873;7.4060;
21.6000;0.2890;7.4223;
21.9000;0.2914;7.4247;
22.2000;0.2857;7.4107;
22.5000;0.2882;7.4153;
22.8000;0.2882;7.3990;
23.1000;0.2906;7.3967;
23.4000;0.2890;7.3897;
23.7000;0.2882;7.3920;
24.0000;0.2898;7.4014;
24.3000;0.2898;7.3990;
24.6000;0.2898;7.4037;
24.9000;0.2914;7.4037;
25.2000;0.2914;7.4060;
25.5000;0.2914;7.4014;
25.8000;0.2922;7.4083;
26.1000;0.2922;7.4060;
26.4000;0.2914;7.3990;
26.7000;0.2939;7.4107;
27.0000;0.2963;7.4177;
27.3000;0.2947;7.4153;
27.6000;0.2939;7.4014;
27.9000;0.2939;7.4037;
28.2000;0.2971;7.4037;
28.5000;0.2922;7.3897;
28.8000;0.2939;7.4037;
29.1000;0.2947;7.4083;
29.4000;0.2979;7.4107;
29.7000;0.2947;7.3990;
30.0000;0.2939;7.3920;
30.3000;0.2939;7.3967;
30.6000;0.2930;7.3944;
30.9000;0.2963;7.3944;
31.2000;0.2947;7.3804;
31.5000;0.2955;7.3687;
31.8000;0.2971;7.3757;
32.1000;0.2963;7.3827;
32.4000;0.2963;7.3850;
32.7000;0.2979;7.3897;
33.0000;0.2987;7.3897;
33.3000;0.2930;7.3827;
33.6000;0.2947;7.3920;
33.9000;0.2971;7.3990;
34.2000;0.2987;7.4037;
34.5000;0.2882;7.3850;
34.8000;0.2898;7.3827;
35.1000;0.3012;7.4083;
35.4000;0.2979;7.4037;
35.7000;0.2987;7.4037;
36.0000;0.2979;7.4060;
36.3000;0.2979;7.4037;
36.6000;0.2963;7.3897;
36.9000;0.3036;7.4014;
37.2000;0.2996;7.3897;
37.5000;0.2996;7.3944;
37.8000;0.3012;7.4014;
38.1000;0.2996;7.4060;
38.4000;0.3004;7.4037;
38.7000;0.3020;7.4014;
39.0000;0.3012;7.4060;
39.3000;0.3004;7.4037;
39.6000;0.2996;7.3967;
39.9000;0.2947;7.3920;
40.2000;0.3012;7.4014;
40.5000;0.3020;7.4083;
40.8000;0.3012;7.4083;
41.1000;0.3012;7.3990;
41.4000;0.3020;7.4107;
41.7000;0.3044;7.4153;
42.0000;0.3053;7.4223;
42.3000;0.3028;7.4083;
42.6000;0.3036;7.4037;
42.9000;0.3036;7.4060;
43.2000;0.3077;7.4083;
43.5000;0.3028;7.3920;
43.8000;0.3053;7.3967;
44.1000;0.3020;7.3897;
44.4000;0.3061;7.3967;
44.7000;0.3020;7.3920;
45.0000;0.3020;7.3944;
45.3000;0.2955;7.3757;
45.6000;0.3053;7.3874;
45.9000;0.3036;7.3897;
46.2000;0.3028;7.3944;
46.5000;0.3012;7.3897;
46.8000;0.3036;7.3897;
47.1000;0.3053;7.3990;
47.4000;0.3036;7.3920;
47.7000;0.3012;7.3827;
48.0000;0.3053;7.3920;
48.3000;0.3053;7.3967;
48.6000;0.3053;7.3967;
48.9000;0.3053;7.3967;
49.2000;0.3053;7.3874;
49.5000;0.3069;7.3920;
49.8000;0.3061;7.3874;
50.1000;0.3085;7.3897;
50.4000;0.3053;7.3827;
50.7000;0.3077;7.3827;
51.0000;0.3093;7.3944;
51.3000;0.3077;7.3874;
51.6000;0.3077;7.3804;
51.9000;0.3077;7.3827;
52.2000;0.2996;7.3711;
52.5000;0.3077;7.3804;
52.8000;0.3069;7.3850;
53.1000;0.3093;7.3944;
53.4000;0.3085;7.3944;
53.7000;0.3085;7.3944;
54.0000;0.3109;7.4014;
54.3000;0.3077;7.4014;
54.6000;0.3069;7.3944;
54.9000;0.3069;7.3897;
55.2000;0.3085;7.3874;
55.5000;0.3053;7.3711;
55.8000;0.3109;7.3827;
56.1000;0.3085;7.3897;
56.4000;0.3118;7.3967;
56.7000;0.3101;7.3920;
57.0000;0.3077;7.3874;
57.3000;0.3093;7.3920;
57.6000;0.3101;7.3967;
57.9000;0.3109;7.4014;
58.2000;0.3101;7.4014;
58.5000;0.3093;7.4060;
58.8000;0.3093;7.4060;
59.1000;0.3134;7.4130;
59.4000;0.3109;7.4107;
59.7000;0.3126;7.4130;
60.0000;0.3061;7.4014;
60.3000;0.3126;7.4083;
60.6000;0.3118;7.4083;
60.9000;0.3166;7.4177;
61.2000;0.3109;7.3897;
61.5000;0.3069;7.3757;
61.8000;0.3118;7.3850;
62.1000;0.3118;7.3897;
62.4000;0.3134;7.3874;
62.7000;0.3134;7.3920;
63.0000;0.3069;7.3874;
63.3000;0.3126;7.4083;
63.6000;0.3126;7.4060;
63.9000;0.3126;7.4037;
64.2000;0.3118;7.3920;
64.5000;0.3118;7.3897;
64.8000;0.3142;7.3897;
65.1000;0.3093;7.3850;
65.4000;0.3126;7.3920;
65.7000;0.3109;7.3990;
66.0000;0.3134;7.4037;
66.3000;0.3126;7.3944;
66.6000;0.3126;7.3944;
66.9000;0.3191;7.4107;
67.2000;0.3158;7.4014;
67.5000;0.3150;7.4037;
67.8000;0.3134;7.3944;
68.1000;0.3142;7.4060;
68.4000;0.3126;7.4083;
68.7000;0.3126;7.4060;
69.0000;0.3126;7.4014;
69.3000;0.3126;7.4083;
69.6000;0.3150;7.4130;
69.9000;0.3158;7.4130;
70.2000;0.3118;7.3990;
70.5000;0.3126;7.4037;
70.8000;0.3093;7.3967;
71.1000;0.3150;7.4037;
71.4000;0.3142;7.3990;
71.7000;0.3150;7.3990;
72.0000;0.3142;7.3990;
72.3000;0.3166;7.4014;
72.6000;0.3166;7.4014;
72.9000;0.3044;7.3711;
73.2000;0.3142;7.4014;
73.5000;0.3175;7.3967;
73.8000;0.3150;7.3781;
74.1000;0.3166;7.3920;
74.4000;0.3150;7.3944;
74.7000;0.3150;7.4014;
75.0000;0.3166;7.4060;
75.3000;0.3142;7.4014;
75.6000;0.3158;7.4130;
75.9000;0.3142;7.4107;
76.2000;0.3183;7.4083;
76.5000;0.3183;7.4177;
76.8000;0.3150;7.4083;
77.1000;0.3166;7.3944;
77.4000;0.3175;7.3920;
77.7000;0.3166;7.3920;
78.0000;0.3183;7.3920;
78.3000;0.3215;7.4037;
78.6000;0.3166;7.3990;
78.9000;0.3191;7.4060;
79.2000;0.3191;7.4037;
79.5000;0.3175;7.3944;
79.8000;0.3166;7.3944;
80.1000;0.3199;7.3967;
80.4000;0.3158;7.3967;
80.7000;0.3150;7.3967;
81.0000;0.3183;7.4037;
81.3000;0.3166;7.4014;
81.6000;0.3134;7.3897;
81.9000;0.3183;7.3944;
82.2000;0.3166;7.3920;
82.5000;0.3191;7.3990;
82.8000;0.3158;7.3990;
83.1000;0.3118;7.3920;
83.4000;0.3150;7.3967;
83.7000;0.3183;7.4153;
84.0000;0.3134;7.4107;
84.3000;0.3175;7.4107;
84.6000;0.3183;7.4083;
84.9000;0.3232;7.4153;
85.2000;0.3175;7.4014;
85.5000;0.3199;7.4083;
85.8000;0.3166;7.3944;
86.1000;0.3175;7.4037;
86.4000;0.3272;7.4317;
86.7000;0.3158;7.4060;
87.0000;0.3183;7.4130;
87.3000;0.3118;7.3920;
87.6000;0.3183;7.4037;
87.9000;0.3175;7.4083;
88.2000;0.3158;7.4083;
88.5000;0.3158;7.4037;
88.8000;0.3166;7.4107;
89.1000;0.3207;7.4083;
89.4000;0.3142;7.3920;
89.7000;0.3166;7.3944;
90.0000;0.3199;7.3920;
90.3000;0.3223;7.3990;
90.6000;0.3199;7.3897;
90.9000;0.3191;7.3874;
91.2000;0.3183;7.3897;
91.5000;0.3175;7.3850;
91.8000;0.3207;7.3897;
92.1000;0.3183;7.3897;
92.4000;0.3183;7.3990;
92.7000;0.3183;7.3944;
93.0000;0.3199;7.3990;
93.3000;0.3191;7.3990;
93.6000;0.3183;7.4014;
93.9000;0.3215;7.4130;
94.2000;0.3207;7.4107;
94.5000;0.3207;7.4130;
94.8000;0.3215;7.4130;
95.1000;0.3199;7.4083;
95.4000;0.3191;7.4107;
95.7000;0.3191;7.4060;
96.0000;0.3183;7.3967;
96.3000;0.3183;7.3874;
96.6000;0.3199;7.3897;
96.9000;0.3166;7.3850;
97.2000;0.3191;7.3874;
97.5000;0.3183;7.3850;
97.8000;0.3207;7.3920;
98.1000;0.3207;7.3920;
98.4000;0.3207;7.3967;
98.7000;0.3199;7.3920;
99.0000;0.3199;7.3967;
99.3000;0.3232;7.4014;
99.6000;0.3191;7.4014;
99.9000;0.3183;7.3967;
100.2000;0.3215;7.4014;
100.5000;0.3223;7.3967;
100.8000;0.3191;7.3850;
101.1000;0.3199;7.3804;
101.4000;0.3223;7.3874;
101.7000;0.3232;7.3827;
102.0000;0.3207;7.3827;
102.3000;0.3199;7.3897;
102.6000;0.3264;7.4083;
102.9000;0.3223;7.3920;
103.2000;0.3183;7.3804;
103.5000;0.3191;7.3804;
103.8000;0.3191;7.3827;
104.1000;0.3223;7.3897;
104.4000;0.3215;7.3920;
104.7000;0.3240;7.3920;
105.0000;0.3223;7.3850;
105.3000;0.3240;7.3874;
105.6000;0.3240;7.3920;
105.9000;0.3207;7.3990;
106.2000;0.3199;7.3990;
106.5000;0.3223;7.4014;
106.8000;0.3240;7.3990;
107.1000;0.3207;7.3850;
107.4000;0.3240;7.3897;
107.7000;0.3232;7.3804;
108.0000;0.3232;7.3804;
108.3000;0.3158;7.3734;
108.6000;0.3223;7.3920;
108.9000;0.3215;7.3897;
109.2000;0.3248;7.3944;
109.5000;0.3207;7.3920;
109.8000;0.3264;7.4130;
110.1000;0.3215;7.4037;
110.4000;0.3166;7.3897;
110.7000;0.3232;7.4037;
111.0000;0.3199;7.3920;
111.3000;0.3199;7.3920;
111.6000;0.3215;7.3967;
111.9000;0.3215;7.3897;
112.2000;0.3207;7.3897;
112.5000;0.3191;7.3874;
112.8000;0.3223;7.3990;
113.1000;0.3232;7.4060;
113.4000;0.3207;7.4083;
113.7000;0.3207;7.4107;
114.0000;0.3215;7.4060;
114.3000;0.3207;7.4060;
114.6000;0.3215;7.4037;
114.9000;0.3207;7.3920;
115.2000;0.3199;7.3967;
115.5000;0.3240;7.4060;
115.8000;0.3199;7.4107;
116.1000;0.3199;7.4107;
116.4000;0.3207;7.4130;
116.7000;0.3215;7.4083;
117.0000;0.3223;7.4014;
117.3000;0.3232;7.3944;
117.6000;0.3223;7.4037;
117.9000;0.3232;7.4130;
118.2000;0.3240;7.4107;
118.5000;0.3223;7.4037;
118.8000;0.3232;7.4037;
119.1000;0.3256;7.4083;
119.4000;0.3240;7.4037;
119.7000;0.3232;7.4060;
120.0000;0.3223;7.4083;
120.3000;0.3223;7.4014;
120.6000;0.3232;7.4037;
120.9000;0.3215;7.3897;
121.2000;0.3232;7.4037;
121.5000;0.3191;7.3967;
121.8000;0.3240;7.4083;
122.1000;0.3223;7.4107;
122.4000;0.3199;7.3990;
122.7000;0.3199;7.3967;
123.0000;0.3215;7.3990;
123.3000;0.3215;7.4014;
123.6000;0.3223;7.3967;
123.9000;0.3215;7.3967;
124.2000;0.3232;7.3967;
124.5000;0.3215;7.3897;
124.8000;0.3240;7.3874;
125.1000;0.3223;7.3897;
125.4000;0.3215;7.3944;
125.7000;0.3248;7.4083;
126.0000;0.3223;7.4060;
126.3000;0.3289;7.4293;
126.6000;0.3232;7.4037;
126.9000;0.3256;7.4130;
127.2000;0.3232;7.4083;
127.5000;0.3199;7.4060;
127.8000;0.3215;7.4107;
128.1000;0.3215;7.4130;
128.4000;0.3240;7.4247;
128.7000;0.3207;7.4083;
129.0000;0.3232;7.4060;
129.3000;0.3223;7.3944;
129.6000;0.3240;7.3850;
129.9000;0.3240;7.3920;
130.2000;0.3223;7.3920;
130.5000;0.3248;7.3990;
130.8000;0.3232;7.3897;
131.1000;0.3240;7.3967;
131.4000;0.3329;7.4177;
131.7000;0.3248;7.4014;
132.0000;0.3240;7.4014;
132.3000;0.3240;7.3944;
132.6000;0.3215;7.3781;
132.9000;0.3232;7.3827;
133.2000;0.3240;7.3874;
133.5000;0.3232;7.3827;
133.8000;0.3223;7.3827;
134.1000;0.3199;7.3781;
134.4000;0.3240;7.3874;
134.7000;0.3215;7.3920;
135.0000;0.3207;7.3874;
135.3000;0.3183;7.3781;
135.6000;0.3215;7.3874;
135.9000;0.3240;7.3967;
136.2000;0.3232;7.3944;
136.5000;0.3191;7.4037;
136.8000;0.3232;7.4060;
137.1000;0.3207;7.4014;
137.4000;0.3207;7.4083;
137.7000;0.3223;7.4083;
138.0000;0.3215;7.3944;
138.3000;0.3199;7.3967;
138.6000;0.3215;7.4060;
138.9000;0.3215;7.4083;
139.2000;0.3215;7.4014;
139.5000;0.3232;7.3990;
139.8000;0.3223;7.3990;
140.1000;0.3215;7.3897;
140.4000;0.3215;7.3874;
140.7000;0.3223;7.3850;
141.0000;0.3264;7.3897;
141.3000;0.3232;7.3850;
141.6000;0.3256;7.3944;
141.9000;0.3240;7.3850;
142.2000;0.3223;7.3850;
142.5000;0.3240;7.3897;
142.8000;0.3232;7.3897;
143.1000;0.3248;7.4014;
143.4000;0.3248;7.4107;
143.7000;0.3248;7.4083;
144.0000;0.3240;7.3920;
144.3000;0.3240;7.3920;
144.6000;0.3264;7.3920;
144.9000;0.3256;7.3827;
145.2000;0.3256;7.3850;
145.5000;0.3223;7.3897;
145.8000;0.3248;7.3990;
146.1000;0.3248;7.3990;
146.4000;0.3240;7.3827;
146.7000;0.3223;7.3850;
147.0000;0.3272;7.3920;
147.3000;0.3175;7.3711;
147.6000;0.3175;7.3641;
147.9000;0.3240;7.3711;
148.2000;0.3248;7.3687;
148.5000;0.3183;7.3571;
148.8000;0.3256;7.3664;
149.1000;0.3223;7.3711;
149.4000;0.3305;7.3827;
149.7000;0.3199;7.3687;
150.0000;0.3240;7.3781;
150.3000;0.3232;7.3827;
150.6000;0.3207;7.3734;
150.9000;0.3248;7.3827;
151.2000;0.3158;7.3594;
151.5000;0.3248;7.3711;
151.8000;0.3232;7.3711;
152.1000;0.3240;7.3711;
152.4000;0.3329;7.4014;
152.7000;0.3248;7.3804;
153.0000;0.3248;7.3687;
153.3000;0.3272;7.3734;
153.6000;0.3248;7.3757;
153.9000;0.3264;7.3781;
154.2000;0.3240;7.3781;
154.5000;0.3264;7.3897;
154.8000;0.3175;7.3711;
155.1000;0.3199;7.3874;
155.4000;0.3248;7.3967;
155.7000;0.3215;7.3920;
156.0000;0.3240;7.4037;
156.3000;0.3264;7.4037;
156.6000;0.3240;7.3944;
156.9000;0.3256;7.3990;
157.2000;0.3240;7.3897;
157.5000;0.3240;7.3874;
157.8000;0.3256;7.3897;
158.1000;0.3232;7.3757;
158.4000;0.3248;7.3781;
158.7000;0.3232;7.3757;
159.0000;0.3289;7.3897;
159.3000;0.3223;7.3827;
159.6000;0.3248;7.4037;
159.9000;0.3232;7.4060;
160.2000;0.3305;7.4270;
160.5000;0.3223;7.4037;
160.8000;0.3183;7.3874;
161.1000;0.3248;7.4060;
161.4000;0.3240;7.3990;
161.7000;0.3240;7.3920;
162.0000;0.3232;7.3944;
162.3000;0.3248;7.3920;
162.6000;0.3232;7.3850;
162.9000;0.3289;7.4014;
163.2000;0.3248;7.3804;
163.5000;0.3240;7.3781;
163.8000;0.3264;7.3944;
164.1000;0.3256;7.3850;
164.4000;0.3264;7.3734;
164.7000;0.3248;7.3641;
165.0000;0.3256;7.3781;
165.3000;0.3232;7.3711;
165.6000;0.3240;7.3781;
165.9000;0.3256;7.3850;
166.2000;0.3207;7.3711;
166.5000;0.3240;7.3781;
166.8000;0.3240;7.3781;
167.1000;0.3175;7.3571;
167.4000;0.3256;7.3711;
167.7000;0.3240;7.3664;
168.0000;0.3240;7.3687;
168.3000;0.3240;7.3781;
168.6000;0.3272;7.3874;
168.9000;0.3223;7.3757;
169.2000;0.3232;7.3781;
169.5000;0.3215;7.3781;
169.8000;0.3240;7.3781;
170.1000;0.3264;7.3781;
170.4000;0.3248;7.3827;
170.7000;0.3272;7.3827;
171.0000;0.3232;7.3711;
171.3000;0.3248;7.3757;
171.6000;0.3215;7.3734;
171.9000;0.3183;7.3664;
172.2000;0.3215;7.3687;
172.5000;0.3240;7.3804;
172.8000;0.3232;7.3781;
173.1000;0.3256;7.3804;
173.4000;0.3248;7.3850;
173.7000;0.3248;7.3804;
174.0000;0.3256;7.3827;
174.3000;0.3232;7.3804;
174.6000;0.3272;7.3920;
174.9000;0.3232;7.3781;
175.2000;0.3256;7.3850;
175.5000;0.3232;7.3687;
175.8000;0.3150;7.3454;
176.1000;0.3256;7.3734;
176.4000;0.3191;7.3641;
176.7000;0.3248;7.3804;
177.0000;0.3191;7.3571;
177.3000;0.3215;7.3711;
177.6000;0.3240;7.3804;
177.9000;0.3248;7.3827;
178.2000;0.3175;7.3664;
178.5000;0.3248;7.3804;
178.8000;0.3215;7.3711;
179.1000;0.3248;7.3711;
179.4000;0.3297;7.3850;
179.7000;0.3232;7.3571;
180.0000;0.3223;7.3687;
180.3000;0.3264;7.3827;
180.6000;0.3215;7.3664;
180.9000;0.3240;7.3664;
181.2000;0.3248;7.3734;
181.5000;0.3264;7.3711;
181.8000;0.3264;7.3734;
182.1000;0.3191;7.3524;
182.4000;0.3240;7.3641;
182.7000;0.3232;7.3617;
183.0000;0.3248;7.3594;
183.3000;0.3223;7.3571;
183.6000;0.3191;7.3454;
183.9000;0.3248;7.3687;
184.2000;0.3248;7.3711;
184.5000;0.3240;7.3687;
184.8000;0.3337;7.3944;
185.1000;0.3256;7.3781;
185.4000;0.3256;7.3757;
185.7000;0.3183;7.3571;
186.0000;0.3232;7.3711;
186.3000;0.3248;7.3641;
186.6000;0.3240;7.3664;
186.9000;0.3142;7.3408;
187.2000;0.3248;7.3734;
187.5000;0.3223;7.3711;
187.8000;0.3256;7.3827;
188.1000;0.3256;7.3827;
188.4000;0.3321;7.3967;
188.7000;0.3272;7.3967;
189.0000;0.3240;7.3990;
189.3000;0.3232;7.3920;
189.6000;0.3264;7.3967;
189.9000;0.3232;7.3804;
190.2000;0.3223;7.3850;
190.5000;0.3248;7.3781;
190.8000;0.3264;7.3874;
191.1000;0.3240;7.3781;
191.4000;0.3248;7.3804;
191.7000;0.3272;7.3874;
192.0000;0.3256;7.3874;
192.3000;0.3256;7.3850;
192.6000;0.3199;7.3641;
192.9000;0.3248;7.3804;
193.2000;0.3240;7.3804;
193.5000;0.3240;7.3827;
193.8000;0.3240;7.3850;
194.1000;0.3248;7.3757;
194.4000;0.3223;7.3734;
194.7000;0.3240;7.3734;
195.0000;0.3264;7.3804;
195.3000;0.3240;7.3687;
195.6000;0.3232;7.3617;
195.9000;0.3256;7.3687;
196.2000;0.3223;7.3617;
196.5000;0.3248;7.3687;
196.8000;0.3256;7.3711;
197.1000;0.3305;7.3827;
197.4000;0.3256;7.3827;
197.7000;0.3256;7.3990;
198.0000;0.3215;7.3967;
198.3000;0.3264;7.4014;
198.6000;0.3199;7.3874;
198.9000;0.3256;7.3944;
199.2000;0.3158;7.3594;
199.5000;0.3280;7.3874;
199.8000;0.3354;7.4014;
200.1000;0.3166;7.3547;
200.4000;0.3215;7.3664;
200.7000;0.3289;7.3897;
201.0000;0.3183;7.3617;
201.3000;0.3232;7.3687;
201.6000;0.3264;7.3734;
201.9000;0.3166;7.3478;
202.2000;0.3256;7.3617;
202.5000;0.3248;7.3617;
202.8000;0.3240;7.3687;
203.1000;0.3272;7.3781;
203.4000;0.3321;7.3874;
203.7000;0.3240;7.3687;
204.0000;0.3248;7.3687;
204.3000;0.3240;7.3804;
204.6000;0.3264;7.3850;
204.9000;0.3256;7.3850;
205.2000;0.3215;7.3711;
205.5000;0.3256;7.3827;
205.8000;0.3256;7.3711;
206.1000;0.3256;7.3687;
206.4000;0.3207;7.3641;
206.7000;0.3240;7.3757;
207.0000;0.3248;7.3804;
207.3000;0.3264;7.3804;
207.6000;0.3321;7.3967;
207.9000;0.3256;7.3804;
208.2000;0.3240;7.3781;
208.5000;0.3256;7.3781;
208.8000;0.3272;7.3711;
209.1000;0.3264;7.3641;
209.4000;0.3232;7.3594;
209.7000;0.3248;7.3617;
210.0000;0.3240;7.3617;
210.3000;0.3248;7.3711;
210.6000;0.3248;7.3664;
210.9000;0.3248;7.3664;
211.2000;0.3248;7.3711;
211.5000;0.3240;7.3687;
211.8000;0.3232;7.3617;
212.1000;0.3207;7.3547;
212.4000;0.3240;7.3617;
212.7000;0.3232;7.3664;
213.0000;0.3223;7.3687;
213.3000;0.3232;7.3711;
213.6000;0.3256;7.3804;
213.9000;0.3256;7.3850;
214.2000;0.3272;7.3874;
214.5000;0.3280;7.3874;
214.8000;0.3256;7.3641;
215.1000;0.3289;7.3641;
215.4000;0.3248;7.3524;
215.7000;0.3256;7.3664;
216.0000;0.3248;7.3687;
216.3000;0.3240;7.3641;
216.6000;0.3272;7.3687;
216.9000;0.3215;7.3594;
217.2000;0.3256;7.3617;
217.5000;0.3313;7.3711;
217.8000;0.3240;7.3547;
218.1000;0.3289;7.3641;
218.4000;0.3264;7.3617;
218.7000;0.3289;7.3664;
219.0000;0.3256;7.3547;
219.3000;0.3232;7.3594;
219.6000;0.3280;7.3757;
219.9000;0.3272;7.3734;
220.2000;0.3207;7.3571;
220.5000;0.3248;7.3641;
220.8000;0.3158;7.3454;
221.1000;0.3240;7.3664;
221.4000;0.3248;7.3617;
221.7000;0.3158;7.3361;
222.0000;0.3240;7.3664;
222.3000;0.3256;7.3711;
222.6000;0.3240;7.3664;
222.9000;0.3297;7.3757;
223.2000;0.3256;7.3687;
223.5000;0.3321;7.3850;
223.8000;0.3240;7.3687;
224.1000;0.3272;7.3687;
224.4000;0.3215;7.3501;
224.7000;0.3337;7.3734;
225.0000;0.3256;7.3734;
225.3000;0.3264;7.3687;
225.6000;0.3256;7.3664;
225.9000;0.3232;7.3664;
226.2000;0.3240;7.3757;
226.5000;0.3248;7.3734;
226.8000;0.3232;7.3664;
227.1000;0.3256;7.3687;
227.4000;0.3256;7.3664;
227.7000;0.3240;7.3617;
228.0000;0.3232;7.3571;
228.3000;0.3248;7.3547;
228.6000;0.3232;7.3524;
228.9000;0.3256;7.3524;
229.2000;0.3248;7.3501;
229.5000;0.3223;7.3524;
229.8000;0.3240;7.3641;
230.1000;0.3240;7.3641;
230.4000;0.3264;7.3617;
230.7000;0.3232;7.3524;
231.0000;0.3240;7.3478;
231.3000;0.3223;7.3547;
231.6000;0.3215;7.3454;
231.9000;0.3232;7.3501;
232.2000;0.3223;7.3478;
232.5000;0.3248;7.3524;
232.8000;0.3240;7.3524;
233.1000;0.3240;7.3571;
233.4000;0.3215;7.3501;
233.7000;0.3248;7.3547;
234.0000;0.3256;7.3547;
234.3000;0.3240;7.3641;
234.6000;0.3248;7.3687;
234.9000;0.3248;7.3687;
235.2000;0.3256;7.3734;
235.5000;0.3264;7.3734;
235.8000;0.3248;7.3664;
236.1000;0.3256;7.3711;
236.4000;0.3264;7.3781;
236.7000;0.3223;7.3827;
237.0000;0.3272;7.3827;
237.3000;0.3256;7.3850;
237.6000;0.3256;7.3850;
237.9000;0.3199;7.3617;
238.2000;0.3232;7.3687;
238.5000;0.3264;7.3874;
238.8000;0.3248;7.3804;
239.1000;0.3256;7.3734;
239.4000;0.3232;7.3734;
239.7000;0.3232;7.3734;
240.0000;0.3256;7.3734;
240.3000;0.3248;7.3757;
240.6000;0.3191;7.3617;
240.9000;0.3264;7.3711;
241.2000;0.3232;7.3664;
241.5000;0.3280;7.3711;
241.8000;0.3199;7.3478;
242.1000;0.3280;7.3664;
242.4000;0.3215;7.3571;
242.7000;0.3313;7.3804;
243.0000;0.3248;7.3664;
243.3000;0.3199;7.3641;
243.6000;0.3337;7.3920;
243.9000;0.3240;7.3757;
244.2000;0.3264;7.3827;
244.5000;0.3248;7.3781;
244.8000;0.3232;7.3757;
245.1000;0.3289;7.3874;
245.4000;0.3256;7.3804;
245.7000;0.3248;7.3804;
246.0000;0.3223;7.3781;
246.3000;0.3232;7.3827;
246.6000;0.3207;7.3734;
246.9000;0.3240;7.3804;
247.2000;0.3248;7.3734;
247.5000;0.3362;7.3990;
247.8000;0.3256;7.3641;
248.1000;0.3256;7.3617;
248.4000;0.3280;7.3641;
248.7000;0.3248;7.3571;
249.0000;0.3240;7.3478;
249.3000;0.3264;7.3501;
249.6000;0.3248;7.3571;
249.9000;0.3232;7.3594;
250.2000;0.3248;7.3594;
250.5000;0.3232;7.3641;
250.8000;0.3240;7.3641;
251.1000;0.3223;7.3687;
251.4000;0.3232;7.3641;
251.7000;0.3256;7.3664;
252.0000;0.3248;7.3687;
252.3000;0.3256;7.3781;
252.6000;0.3240;7.3804;
252.9000;0.3240;7.3850;
253.2000;0.3232;7.3804;
253.5000;0.3223;7.3711;
253.8000;0.3297;7.3827;
254.1000;0.3248;7.3687;
254.4000;0.3248;7.3804;
254.7000;0.3248;7.3897;
255.0000;0.3240;7.3920;
255.3000;0.3264;7.3967;
255.6000;0.3256;7.3897;
255.9000;0.3248;7.3874;
256.2000;0.3248;7.3804;
256.5000;0.3264;7.3850;
256.8000;0.3240;7.3781;
257.1000;0.3248;7.3734;
257.4000;0.3240;7.3664;
257.7000;0.3232;7.3617;
258.0000;0.3280;7.3664;
258.3000;0.3289;7.3711;
258.6000;0.3256;7.3711;
258.9000;0.3248;7.3734;
259.2000;0.3248;7.3734;
259.5000;0.3248;7.3781;
259.8000;0.3240;7.3734;
260.1000;0.3264;7.3827;
260.4000;0.3264;7.3757;
260.7000;0.3256;7.3781;
261.0000;0.3289;7.3781;
261.3000;0.3256;7.3734;
261.6000;0.3248;7.3711;
261.9000;0.3256;7.3687;
262.2000;0.3248;7.3781;
262.5000;0.3223;7.3781;
262.8000;0.3240;7.3804;
263.1000;0.3248;7.3781;
263.4000;0.3232;7.3757;
263.7000;0.3240;7.3711;
264.0000;0.3280;7.3687;
264.3000;0.3256;7.3617;
264.6000;0.3272;7.3711;
264.9000;0.3256;7.3757;
265.2000;0.3297;7.3850;
265.5000;0.3280;7.3850;
265.8000;0.3240;7.3781;
266.1000;0.3215;7.3687;
266.4000;0.3232;7.3711;
266.7000;0.3248;7.3781;
267.0000;0.3223;7.3757;
267.3000;0.3215;7.3687;
267.6000;0.3183;7.3664;
267.9000;0.3240;7.3897;
268.2000;0.3248;7.3967;
268.5000;0.3240;7.3897;
268.8000;0.3256;7.3990;
269.1000;0.3248;7.3827;
269.4000;0.3240;7.3827;
269.7000;0.3264;7.3874;
270.0000;0.3264;7.3827;
270.3000;0.3256;7.3781;
270.6000;0.3272;7.3804;
270.9000;0.3232;7.3641;
271.2000;0.3264;7.3664;
271.5000;0.3248;7.3617;
271.8000;0.3264;7.3617;
272.1000;0.3240;7.3501;
272.4000;0.3232;7.3547;
272.7000;0.3248;7.3664;
273.0000;0.3289;7.3757;
273.3000;0.3264;7.3757;
273.6000;0.3248;7.3734;
273.9000;0.3240;7.3711;
274.2000;0.3256;7.3734;
274.5000;0.3248;7.3711;
274.8000;0.3248;7.3594;
275.1000;0.3175;7.3478;
275.4000;0.3207;7.3547;
275.7000;0.3256;7.3664;
276.0000;0.3248;7.3664;
276.3000;0.3256;7.3641;
276.6000;0.3232;7.3687;
276.9000;0.3240;7.3781;
277.2000;0.3248;7.3850;
277.5000;0.3215;7.3850;
277.8000;0.3240;7.3827;
278.1000;0.3248;7.3781;
278.4000;0.3248;7.3804;
278.7000;0.3264;7.3850;
279.0000;0.3248;7.3874;
279.3000;0.3264;7.3920;
279.6000;0.3240;7.3804;
279.9000;0.3248;7.3757;
280.2000;0.3240;7.3757;
280.5000;0.3248;7.3734;
280.8000;0.3248;7.3781;
281.1000;0.3272;7.3804;
281.4000;0.3256;7.3874;
281.7000;0.3256;7.3827;
282.0000;0.3256;7.3850;
282.3000;0.3370;7.4223;
282.6000;0.3256;7.3897;
282.9000;0.3256;7.3920;
283.2000;0.3256;7.3897;
283.5000;0.3223;7.3734;
283.8000;0.3264;7.3757;
284.1000;0.3248;7.3804;
284.4000;0.3256;7.3804;
284.7000;0.3264;7.3874;
285.0000;0.3337;7.3990;
285.3000;0.3264;7.3734;
285.6000;0.3264;7.3734;
285.9000;0.3256;7.3781;
286.2000;0.3232;7.3711;
286.5000;0.3232;7.3687;
286.8000;0.3264;7.3781;
287.1000;0.3256;7.3850;
287.4000;0.3256;7.3757;
287.7000;0.3240;7.3687;
288.0000;0.3248;7.3734;
288.3000;0.3248;7.3711;
288.6000;0.3256;7.3594;
288.9000;0.3240;7.3571;
289.2000;0.3223;7.3501;
289.5000;0.3232;7.3594;
289.8000;0.3264;7.3711;
290.1000;0.3248;7.3711;
290.4000;0.3321;7.3944;
290.7000;0.3256;7.3711;
291.0000;0.3321;7.4014;
291.3000;0.3264;7.3944;
291.6000;0.3248;7.3920;
291.9000;0.3199;7.3804;
292.2000;0.3256;7.3874;
292.5000;0.3215;7.3734;
292.8000;0.3240;7.3757;
293.1000;0.3256;7.3734;
293.4000;0.3248;7.3711;
293.7000;0.3264;7.3757;
294.0000;0.3240;7.3711;
294.3000;0.3256;7.3804;
294.6000;0.3272;7.3804;
294.9000;0.3272;7.3757;
295.2000;0.3240;7.3711;
295.5000;0.3264;7.3711;
295.8000;0.3256;7.3664;
296.1000;0.3280;7.3641;
296.4000;0.3256;7.3664;
296.7000;0.3248;7.3617;
297.0000;0.3240;7.3571;
297.3000;0.3240;7.3617;
297.6000;0.3248;7.3641;
297.9000;0.3248;7.3757;
298.2000;0.3248;7.3781;
298.5000;0.3248;7.3804;
298.8000;0.3248;7.3827;
299.1000;0.3240;7.3804;
299.4000;0.3321;7.4014;
299.7000;0.3264;7.3850;
300.0000;0.3248;7.3827;
300.3000;0.3232;7.3804;
300.6000;0.3232;7.3804;
300.9000;0.3223;7.3781;
301.2000;0.3248;7.3850;
301.5000;0.3256;7.3804;
301.8000;0.3207;7.3641;
302.1000;0.3240;7.3617;
302.4000;0.3256;7.3687;
302.7000;0.3256;7.3711;
303.0000;0.3248;7.3781;
303.3000;0.3256;7.3781;
303.6000;0.3256;7.3781;
303.9000;0.3272;7.3757;
304.2000;0.3264;7.3781;
304.5000;0.3248;7.3687;
304.8000;0.3256;7.3687;
305.1000;0.3264;7.3757;
305.4000;0.3199;7.3711;
305.7000;0.3256;7.3827;
306.0000;0.3240;7.3734;
306.3000;0.3248;7.3757;
306.6000;0.3272;7.3804;
306.9000;0.3256;7.3734;
307.2000;0.3256;7.3874;
307.5000;0.3240;7.3827;
307.8000;0.3223;7.3827;
308.1000;0.3240;7.3781;
308.4000;0.3256;7.3804;
308.7000;0.3264;7.3874;
309.0000;0.3207;7.3757;
309.3000;0.3240;7.3850;
309.6000;0.3264;7.3920;
309.9000;0.3272;7.4014;
310.2000;0.3223;7.3990;
310.5000;0.3256;7.4037;
310.8000;0.3215;7.3967;
311.1000;0.3305;7.4153;
311.4000;0.3264;7.4083;
311.7000;0.3223;7.3874;
312.0000;0.3256;7.3967;
312.3000;0.3248;7.4014;
312.6000;0.3191;7.3874;
312.9000;0.3232;7.4060;
313.2000;0.3199;7.3920;
313.5000;0.3191;7.3897;
313.8000;0.3256;7.4060;
314.1000;0.3232;7.4037;
314.4000;0.3207;7.3920;
314.7000;0.3158;7.3827;
315.0000;0.3240;7.3897;
315.3000;0.3329;7.4083;
315.6000;0.3256;7.3850;
315.9000;0.3240;7.3804;
316.2000;0.3280;7.3827;
316.5000;0.3264;7.3827;
316.8000;0.3256;7.3827;
317.1000;0.3240;7.3897;
317.4000;0.3280;7.3990;
317.7000;0.3248;7.4014;
318.0000;0.3264;7.4037;
318.3000;0.3264;7.4130;
318.6000;0.3272;7.4153;
318.9000;0.3272;7.4107;
319.2000;0.3272;7.4037;
319.5000;0.3272;7.4107;
319.8000;0.3248;7.3990;
320.1000;0.3264;7.4014;
320.4000;0.3264;7.4107;
320.7000;0.3256;7.4107;
321.0000;0.3264;7.4060;
321.3000;0.3264;7.3967;
321.6000;0.3240;7.3874;
321.9000;0.3280;7.3967;
322.2000;0.3248;7.3874;
322.5000;0.3248;7.3874;
322.8000;0.3240;7.3874;
323.1000;0.3264;7.3920;
323.4000;0.3223;7.3920;
323.7000;0.3248;7.3920;
324.0000;0.3248;7.3990;
324.3000;0.3256;7.3944;
324.6000;0.3248;7.3944;
324.9000;0.3256;7.3944;
325.2000;0.3264;7.4060;
325.5000;0.3256;7.3990;
325.8000;0.3280;7.4037;
326.1000;0.3248;7.4014;
326.4000;0.3248;7.4083;
326.7000;0.3264;7.4014;
327.0000;0.3248;7.3990;
327.3000;0.3232;7.4060;
327.6000;0.3264;7.4107;
327.9000;0.3264;7.4107;
328.2000;0.3256;7.4037;
328.5000;0.3256;7.4037;
328.8000;0.3329;7.4247;
329.1000;0.3272;7.4083;
329.4000;0.3280;7.4107;
329.7000;0.3240;7.4107;
330.0000;0.3256;7.4153;
330.3000;0.3272;7.4130;
330.6000;0.3272;7.4037;
330.9000;0.3272;7.3967;
331.2000;0.3240;7.4014;
331.5000;0.3256;7.4130;
331.8000;0.3280;7.4107;
332.1000;0.3199;7.3850;
332.4000;0.3264;7.4060;
332.7000;0.3256;7.4014;
333.0000;0.3248;7.4107;
333.3000;0.3264;7.4130;
333.6000;0.3272;7.4200;
333.9000;0.3248;7.4153;
334.2000;0.3207;7.4037;
334.5000;0.3297;7.4153;
334.8000;0.3240;7.4014;
335.1000;0.3370;7.4340;
335.4000;0.3289;7.4153;
335.7000;0.3232;7.4083;
336.0000;0.3215;7.4037;
336.3000;0.3240;7.4200;
336.6000;0.3280;7.4293;
336.9000;0.3264;7.4177;
337.2000;0.3264;7.4153;
337.5000;0.3321;7.4223;
337.8000;0.3158;7.3804;
338.1000;0.3264;7.4014;
338.4000;0.3321;7.4130;
338.7000;0.3199;7.3967;
339.0000;0.3272;7.4247;
339.3000;0.3297;7.4270;
339.6000;0.3256;7.4200;
339.9000;0.3256;7.4200;
340.2000;0.3256;7.4153;
340.5000;0.3264;7.4130;
340.8000;0.3272;7.4107;
341.1000;0.3256;7.4014;
341.4000;0.3207;7.3897;
341.7000;0.3248;7.4060;
342.0000;0.3248;7.4130;
342.3000;0.3240;7.4014;
342.6000;0.3280;7.4153;
342.9000;0.3240;7.4083;
343.2000;0.3248;7.4037;
343.5000;0.3232;7.4060;
343.8000;0.3248;7.4083;
344.1000;0.3256;7.4014;
344.4000;0.3264;7.4083;
344.7000;0.3248;7.4060;
345.0000;0.3272;7.4130;
345.3000;0.3248;7.4107;
345.6000;0.3256;7.4060;
345.9000;0.3272;7.4060;
346.2000;0.3256;7.3990;
346.5000;0.3256;7.4014;
346.8000;0.3240;7.3990;
347.1000;0.3264;7.3990;
347.4000;0.3207;7.3990;
347.7000;0.3264;7.4107;
348.0000;0.3256;7.4130;
348.3000;0.3232;7.4037;
348.6000;0.3256;7.4130;
348.9000;0.3248;7.4107;
349.2000;0.3223;7.3944;
349.5000;0.3240;7.3827;
349.8000;0.3248;7.3850;
350.1000;0.3248;7.3874;
350.4000;0.3256;7.3781;
350.7000;0.3264;7.3850;
351.0000;0.3248;7.3850;
351.3000;0.3175;7.3734;
351.6000;0.3248;7.3920;
351.9000;0.3264;7.3990;
352.2000;0.3248;7.4037;
352.5000;0.3264;7.4153;
352.8000;0.3272;7.4200;
353.1000;0.3256;7.4177;
353.4000;0.3240;7.4014;
353.7000;0.3232;7.4014;
354.0000;0.3248;7.4130;
354.3000;0.3248;7.4107;
354.6000;0.3272;7.4223;
354.9000;0.3280;7.4247;
355.2000;0.3248;7.4060;
355.5000;0.3272;7.4060;
355.8000;0.3297;7.4130;
356.1000;0.3289;7.4200;
356.4000;0.3232;7.4060;
356.7000;0.3256;7.4083;
357.0000;0.3248;7.4083;
357.3000;0.3240;7.4037;
357.6000;0.3248;7.4037;
357.9000;0.3240;7.4014;
358.2000;0.3264;7.4037;
358.5000;0.3240;7.3897;
358.8000;0.3232;7.3874;
359.1000;0.3240;7.3920;
359.4000;0.3248;7.3920;
359.7000;0.3272;7.3897;
360.0000;0.3248;7.3897;
360.3000;0.3256;7.3967;
360.6000;0.3248;7.3967;
360.9000;0.3215;7.3944;
361.2000;0.3248;7.3967;
361.5000;0.3207;7.3897;
361.8000;0.3240;7.3944;
362.1000;0.3256;7.4060;
362.4000;0.3272;7.4200;
362.7000;0.3248;7.4153;
363.0000;0.3248;7.4223;
363.3000;0.3256;7.4200;
363.6000;0.3256;7.4200;
363.9000;0.3272;7.4107;
364.2000;0.3264;7.4037;
364.5000;0.3264;7.3967;
364.8000;0.3256;7.3850;
365.1000;0.3297;7.3944;
365.4000;0.3240;7.3827;
365.7000;0.3264;7.3897;
366.0000;0.3264;7.3874;
366.3000;0.3256;7.3850;
366.6000;0.3232;7.3781;
366.9000;0.3264;7.3874;
367.2000;0.3232;7.3781;
367.5000;0.3232;7.3804;
367.8000;0.3264;7.3874;
368.1000;0.3240;7.3850;
368.4000;0.3223;7.3827;
368.7000;0.3256;7.3850;
369.0000;0.3256;7.3874;
369.3000;0.3248;7.3874;
369.6000;0.3223;7.3827;
369.9000;0.3256;7.3897;
370.2000;0.3248;7.3850;
370.5000;0.3264;7.3827;
370.8000;0.3272;7.3734;
371.1000;0.3240;7.3711;
371.4000;0.3256;7.3781;
371.7000;0.3232;7.3757;
372.0000;0.3256;7.3874;
372.3000;0.3248;7.3850;
372.6000;0.3272;7.3920;
372.9000;0.3354;7.4177;
373.2000;0.3215;7.3687;
373.5000;0.3264;7.3804;
373.8000;0.3191;7.3641;
374.1000;0.3248;7.3781;
374.4000;0.3354;7.4014;
374.7000;0.3289;7.3850;
375.0000;0.3321;7.3967;
375.3000;0.3256;7.3920;
375.6000;0.3256;7.3920;
375.9000;0.3272;7.3990;
376.2000;0.3248;7.3990;
376.5000;0.3256;7.3944;
376.8000;0.3215;7.3827;
377.1000;0.3256;7.3897;
377.4000;0.3248;7.3897;
377.7000;0.3240;7.3850;
378.0000;0.3264;7.3850;
378.3000;0.3256;7.3850;
378.6000;0.3256;7.3874;
378.9000;0.3256;7.3897;
379.2000;0.3248;7.3804;
379.5000;0.3280;7.3827;
379.8000;0.3256;7.3757;
380.1000;0.3248;7.3781;
380.4000;0.3240;7.3781;
380.7000;0.3240;7.3827;
381.0000;0.3264;7.3897;
381.3000;0.3248;7.3897;
381.6000;0.3240;7.3990;
381.9000;0.3207;7.3944;
382.2000;0.3248;7.3967;
382.5000;0.3207;7.3804;
382.8000;0.3240;7.3897;
383.1000;0.3223;7.3967;
383.4000;0.3264;7.4037;
383.7000;0.3256;7.4037;
384.0000;0.3256;7.3967;
384.3000;0.3313;7.4014;
384.6000;0.3264;7.3920;
384.9000;0.3264;7.3967;
385.2000;0.3264;7.3967;
385.5000;0.3215;7.3874;
385.8000;0.3272;7.3944;
386.1000;0.3289;7.4037;
386.4000;0.3264;7.4060;
386.7000;0.3256;7.4014;
387.0000;0.3248;7.4037;
387.3000;0.3248;7.3990;
387.6000;0.3256;7.3967;
387.9000;0.3272;7.4014;
388.2000;0.3240;7.3897;
388.5000;0.3240;7.3920;
388.8000;0.3264;7.3920;
389.1000;0.3272;7.3897;
389.4000;0.3386;7.4200;
389.7000;0.3280;7.3967;
390.0000;0.3313;7.3990;
390.3000;0.3280;7.3944;
390.6000;0.3305;7.4014;
390.9000;0.3264;7.3897;
391.2000;0.3248;7.3850;
391.5000;0.3215;7.3804;
391.8000;0.3248;7.3920;
392.1000;0.3199;7.3850;
392.4000;0.3223;7.3944;
392.7000;0.3256;7.3967;
393.0000;0.3264;7.3967;
393.3000;0.3248;7.3874;
393.6000;0.3264;7.3874;
393.9000;0.3256;7.3897;
394.2000;0.3256;7.3920;
394.5000;0.3256;7.3920;
394.8000;0.3256;7.3944;
395.1000;0.3240;7.3967;
395.4000;0.3264;7.4037;
395.7000;0.3215;7.3944;
396.0000;0.3256;7.4037;
396.3000;0.3240;7.4014;
396.6000;0.3256;7.4037;
396.9000;0.3264;7.4037;
397.2000;0.3232;7.4060;
397.5000;0.3256;7.4060;
397.8000;0.3248;7.4014;
398.1000;0.3248;7.4060;
398.4000;0.3272;7.4153;
398.7000;0.3240;7.4060;
399.0000;0.3297;7.4130;
399.3000;0.3207;7.3944;
399.6000;0.3256;7.4037;
399.9000;0.3240;7.4014;
400.2000;0.3313;7.4083;
400.5000;0.3248;7.3920;
400.8000;0.3272;7.3850;
401.1000;0.3280;7.3827;
401.4000;0.3289;7.3920;
401.7000;0.3248;7.3804;
402.0000;0.3175;7.3617;
402.3000;0.3232;7.3687;
402.6000;0.3232;7.3687;
402.9000;0.3264;7.3850;
403.2000;0.3256;7.3850;
403.5000;0.3240;7.3897;
403.8000;0.3248;7.3967;
404.1000;0.3248;7.4037;
404.4000;0.3264;7.3990;
404.7000;0.3256;7.3944;
405.0000;0.3240;7.4014;
405.3000;0.3362;7.4317;
405.6000;0.3240;7.4060;
405.9000;0.3240;7.4083;
406.2000;0.3240;7.4060;
406.5000;0.3264;7.4014;
406.8000;0.3248;7.3967;
407.1000;0.3272;7.4083;
407.4000;0.3256;7.4037;
407.7000;0.3248;7.3990;
408.0000;0.3264;7.4060;
408.3000;0.3264;7.4037;
408.6000;0.3297;7.4130;
408.9000;0.3256;7.4014;
409.2000;0.3264;7.4014;
409.5000;0.3264;7.4107;
409.8000;0.3248;7.4153;
410.1000;0.3248;7.4083;
410.4000;0.3264;7.4153;
410.7000;0.3264;7.4130;
411.0000;0.3264;7.4060;
411.3000;0.3240;7.4083;
411.6000;0.3232;7.3920;
411.9000;0.3248;7.3897;
412.2000;0.3256;7.3944;
412.5000;0.3329;7.4247;
412.8000;0.3240;7.3944;
413.1000;0.3207;7.3874;
413.4000;0.3297;7.4014;
413.7000;0.3256;7.3897;
414.0000;0.3256;7.3944;
414.3000;0.3256;7.3874;
414.6000;0.3207;7.3850;
414.9000;0.3305;7.4107;
415.2000;0.3256;7.3990;
415.5000;0.3150;7.3804;
415.8000;0.3248;7.4083;
416.1000;0.3256;7.4037;
416.4000;0.3248;7.3944;
416.7000;0.3248;7.3897;
417.0000;0.3207;7.3781;
417.3000;0.3240;7.3944;
417.6000;0.3248;7.4014;
417.9000;0.3248;7.4037;
418.2000;0.3248;7.4177;
418.5000;0.3264;7.4293;
418.8000;0.3264;7.4270;
419.1000;0.3256;7.4247;
419.4000;0.3215;7.4270;
419.7000;0.3240;7.4363;
420.0000;0.3248;7.4247;
420.3000;0.3256;7.4223;
420.6000;0.3240;7.4177;
420.9000;0.3321;7.4363;
421.2000;0.3313;7.4247;
421.5000;0.3256;7.4037;
421.8000;0.3256;7.3967;
422.1000;0.3256;7.4037;
422.4000;0.3256;7.3967;
422.7000;0.3240;7.3920;
423.0000;0.3240;7.4014;
423.3000;0.3240;7.4014;
423.6000;0.3256;7.4037;
423.9000;0.3191;7.3990;
424.2000;0.3175;7.3944;
424.5000;0.3256;7.4130;
424.8000;0.3248;7.4037;
425.1000;0.3256;7.4014;
425.4000;0.3240;7.3967;
425.7000;0.3256;7.4014;
426.0000;0.3248;7.4037;
426.3000;0.3297;7.4107;
426.6000;0.3248;7.3967;
426.9000;0.3248;7.3944;
427.2000;0.3248;7.3827;
427.5000;0.3248;7.3711;
427.8000;0.3256;7.3687;
428.1000;0.3248;7.3757;
428.4000;0.3248;7.3804;
428.7000;0.3191;7.3617;
429.0000;0.3248;7.3781;
429.3000;0.3321;7.3967;
429.6000;0.3297;7.3967;
429.9000;0.3264;7.3874;
430.2000;0.3289;7.3897;
430.5000;0.3199;7.3757;
430.8000;0.3256;7.3874;
431.1000;0.3321;7.3967;
431.4000;0.3248;7.3874;
431.7000;0.3264;7.3920;
432.0000;0.3264;7.3897;
432.3000;0.3256;7.3827;
432.6000;0.3248;7.3804;
432.9000;0.3297;7.3897;
433.2000;0.3264;7.3920;
433.5000;0.3240;7.3827;
433.8000;0.3248;7.3920;
434.1000;0.3264;7.3920;
434.4000;0.3256;7.3944;
434.7000;0.3256;7.3897;
435.0000;0.3256;7.3827;
435.3000;0.3272;7.3874;
435.6000;0.3256;7.3850;
435.9000;0.3264;7.3967;
436.2000;0.3223;7.3920;
436.5000;0.3256;7.4037;
436.8000;0.3240;7.4014;
437.1000;0.3256;7.4060;
437.4000;0.3199;7.3920;
437.7000;0.3240;7.4083;
438.0000;0.3223;7.3990;
438.3000;0.3248;7.3944;
438.6000;0.3248;7.4014;
438.9000;0.3248;7.4014;
439.2000;0.3256;7.4014;
439.5000;0.3248;7.3944;
439.8000;0.3248;7.4014;
440.1000;0.3248;7.4060;
440.4000;0.3256;7.3920;
440.7000;0.3256;7.4037;
441.0000;0.3256;7.4014;
441.3000;0.3256;7.3990;
441.6000;0.3264;7.3967;
441.9000;0.3272;7.3944;
442.2000;0.3223;7.3920;
442.5000;0.3232;7.3920;
442.8000;0.3256;7.4014;
443.1000;0.3223;7.4014;
443.4000;0.3280;7.4130;
443.7000;0.3240;7.4014;
444.0000;0.3240;7.3920;
444.3000;0.3240;7.4014;
444.6000;0.3223;7.4083;
444.9000;0.3264;7.4130;
445.2000;0.3207;7.3920;
445.5000;0.3223;7.3967;
445.8000;0.3232;7.4060;
446.1000;0.3272;7.4200;
446.4000;0.3272;7.4247;
446.7000;0.3191;7.3990;
447.0000;0.3272;7.4200;
447.3000;0.3240;7.4200;
447.6000;0.3240;7.4153;
447.9000;0.3264;7.4130;
448.2000;0.3256;7.4083;
448.5000;0.3232;7.4014;
448.8000;0.3264;7.4014;
449.1000;0.3256;7.3967;
449.4000;0.3215;7.3827;
449.7000;0.3240;7.3827;
450.0000;0.3248;7.3874;
450.3000;0.3264;7.4014;
450.6000;0.3215;7.4014;
450.9000;0.3264;7.4060;
451.2000;0.3264;7.4107;
451.5000;0.3199;7.3990;
451.8000;0.3248;7.4153;
452.1000;0.3215;7.4037;
452.4000;0.3272;7.4200;
452.7000;0.3207;7.4037;
453.0000;0.3240;7.3990;
453.3000;0.3166;7.3827;
453.6000;0.3215;7.3897;
453.9000;0.3264;7.4014;
454.2000;0.3232;7.4060;
454.5000;0.3191;7.3990;
454.8000;0.3223;7.4107;
455.1000;0.3321;7.4247;
455.4000;0.3264;7.4107;
455.7000;0.3256;7.4037;
456.0000;0.3256;7.4037;
456.3000;0.3272;7.4107;
456.6000;0.3248;7.4014;
456.9000;0.3289;7.4107;
457.2000;0.3232;7.4037;
457.5000;0.3256;7.4107;
457.8000;0.3232;7.4037;
458.1000;0.3248;7.4130;
458.4000;0.3232;7.4060;
458.7000;0.3240;7.4060;
459.0000;0.3207;7.3967;
459.3000;0.3232;7.4060;
459.6000;0.3232;7.4107;
459.9000;0.3223;7.4107;
460.2000;0.3240;7.4153;
460.5000;0.3240;7.4200;
460.8000;0.3280;7.4247;
461.1000;0.3256;7.4223;
461.4000;0.3272;7.4153;
461.7000;0.3256;7.4037;
462.0000;0.3248;7.3920;
462.3000;0.3264;7.4014;
462.6000;0.3223;7.3990;
462.9000;0.3232;7.3990;
463.2000;0.3256;7.4083;
463.5000;0.3248;7.4060;
463.8000;0.3248;7.4200;
464.1000;0.3232;7.4223;
464.4000;0.3240;7.4270;
464.7000;0.3232;7.4223;
465.0000;0.3248;7.4153;
465.3000;0.3256;7.4153;
465.6000;0.3240;7.4177;
465.9000;0.3223;7.4177;
466.2000;0.3232;7.4130;
466.5000;0.3272;7.4153;
466.8000;0.3264;7.4083;
467.1000;0.3256;7.4060;
467.4000;0.3264;7.4037;
467.7000;0.3264;7.3944;
468.0000;0.3248;7.3850;
468.3000;0.3207;7.3734;
468.6000;0.3240;7.3804;
468.9000;0.3248;7.3804;
469.2000;0.3240;7.3781;
469.5000;0.3240;7.3850;
469.8000;0.3256;7.3897;
470.1000;0.3150;7.3641;
470.4000;0.3256;7.3897;
470.7000;0.3248;7.3874;
471.0000;0.3240;7.3897;
471.3000;0.3256;7.3967;
471.6000;0.3256;7.3990;
471.9000;0.3256;7.3990;
472.2000;0.3248;7.3920;
472.5000;0.3248;7.3990;
472.8000;0.3264;7.3990;
473.1000;0.3248;7.3897;
473.4000;0.3248;7.3874;
473.7000;0.3240;7.3827;
474.0000;0.3264;7.3874;
474.3000;0.3256;7.3897;
474.6000;0.3272;7.3990;
474.9000;0.3223;7.3990;
475.2000;0.3256;7.4083;
475.5000;0.3264;7.4107;
475.8000;0.3240;7.4014;
476.1000;0.3248;7.4014;
476.4000;0.3232;7.3967;
476.7000;0.3240;7.3897;
477.0000;0.3232;7.3967;
477.3000;0.3240;7.4037;
477.6000;0.3248;7.4107;
477.9000;0.3289;7.4200;
478.2000;0.3223;7.4060;
478.5000;0.3240;7.4014;
478.8000;0.3256;7.4014;
479.1000;0.3264;7.4083;
479.4000;0.3248;7.4083;
479.7000;0.3223;7.4083;
480.0000;0.3232;7.4200;
480.3000;0.3248;7.4223;
480.6000;0.3264;7.4223;
480.9000;0.3264;7.4247;
481.2000;0.3256;7.4130;
481.5000;0.3223;7.4014;
481.8000;0.3272;7.4083;
482.1000;0.3232;7.4037;
482.4000;0.3232;7.4153;
482.7000;0.3248;7.4200;
483.0000;0.3248;7.4153;
483.3000;0.3240;7.4153;
483.6000;0.3248;7.4247;
483.9000;0.3232;7.4223;
484.2000;0.3264;7.4340;
484.5000;0.3223;7.4270;
484.8000;0.3264;7.4340;
485.1000;0.3256;7.4363;
485.4000;0.3321;7.4526;
485.7000;0.3280;7.4410;
486.0000;0.3256;7.4340;
486.3000;0.3264;7.4386;
486.6000;0.3256;7.4340;
486.9000;0.3403;7.4713;
487.2000;0.3232;7.4247;
487.5000;0.3240;7.4223;
487.8000;0.3264;7.4247;
488.1000;0.3248;7.4200;
488.4000;0.3264;7.4270;
488.7000;0.3223;7.4200;
489.0000;0.3207;7.4153;
489.3000;0.3215;7.4223;
489.6000;0.3264;7.4363;
489.9000;0.3232;7.4247;
490.2000;0.3248;7.4270;
490.5000;0.3248;7.4223;
490.8000;0.3248;7.4177;
491.1000;0.3272;7.4153;
491.4000;0.3207;7.4060;
491.7000;0.3297;7.4270;
492.0000;0.3248;7.4130;
492.3000;0.3256;7.4200;
492.6000;0.3256;7.4060;
492.9000;0.3223;7.4014;
493.2000;0.3215;7.4014;
493.5000;0.3280;7.4200;
493.8000;0.3256;7.4107;
494.1000;0.3256;7.4060;
494.4000;0.3264;7.4083;
494.7000;0.3248;7.4014;
495.0000;0.3207;7.3920;
495.3000;0.3215;7.3897;
495.6000;0.3256;7.4107;
495.9000;0.3215;7.4153;
496.2000;0.3313;7.4317;
496.5000;0.3232;7.4153;
496.8000;0.3240;7.4153;
497.1000;0.3232;7.4107;
497.4000;0.3232;7.4130;
497.7000;0.3264;7.4130;
498.0000;0.3256;7.4247;
498.3000;0.3248;7.4247;
498.6000;0.3240;7.4247;
498.9000;0.3199;7.4083;
499.2000;0.3232;7.4037;
499.5000;0.3191;7.3967;
499.8000;0.3248;7.4130;
500.1000;0.3215;7.4083;
500.4000;0.3248;7.4130;
500.7000;0.3215;7.4130;
501.0000;0.3264;7.4200;
501.3000;0.3150;7.3874;
501.6000;0.3240;7.4083;
501.9000;0.3256;7.4107;
502.2000;0.3272;7.4060;
502.5000;0.3256;7.4037;
502.8000;0.3240;7.3944;
503.1000;0.3313;7.4130;
503.4000;0.3256;7.4037;
503.7000;0.3248;7.3967;
504.0000;0.3175;7.3827;
504.3000;0.3166;7.3757;
504.6000;0.3248;7.3990;
504.9000;0.3264;7.3967;
505.2000;0.3240;7.3897;
505.5000;0.3248;7.3850;
505.8000;0.3256;7.3967;
506.1000;0.3248;7.4037;
506.4000;0.3248;7.4014;
506.7000;0.3256;7.4014;
507.0000;0.3248;7.3967;
507.3000;0.3264;7.4060;
507.6000;0.3305;7.4083;
507.9000;0.3248;7.4014;
508.2000;0.3248;7.4037;
508.5000;0.3240;7.4060;
508.8000;0.3232;7.3967;
509.1000;0.3240;7.4060;
509.4000;0.3232;7.4037;
509.7000;0.3256;7.3990;
510.0000;0.3223;7.3920;
510.3000;0.3232;7.3944;
510.6000;0.3248;7.4037;
510.9000;0.3297;7.4200;
511.2000;0.3232;7.4060;
511.5000;0.3240;7.4037;
511.8000;0.3240;7.4083;
512.1000;0.3256;7.4014;
512.4000;0.3232;7.3897;
512.7000;0.3248;7.3897;
513.0000;0.3223;7.3827;
513.3000;0.3240;7.3897;
513.6000;0.3240;7.3897;
513.9000;0.3256;7.3920;
514.2000;0.3240;7.3897;
514.5000;0.3248;7.3781;
514.8000;0.3264;7.3804;
515.1000;0.3207;7.3711;
515.4000;0.3248;7.3804;
515.7000;0.3297;7.3920;
516.0000;0.3248;7.3827;
516.3000;0.3232;7.3757;
516.6000;0.3240;7.3687;
516.9000;0.3215;7.3641;
517.2000;0.3240;7.3804;
517.5000;0.3256;7.3874;
517.8000;0.3256;7.3944;
518.1000;0.3158;7.3734;
518.4000;0.3232;7.4014;
518.7000;0.3256;7.4060;
519.0000;0.3240;7.3967;
519.3000;0.3264;7.3920;
519.6000;0.3248;7.3967;
519.9000;0.3256;7.4083;
520.2000;0.3337;7.4317;
520.5000;0.3264;7.4060;
520.8000;0.3240;7.3944;
521.1000;0.3297;7.4060;
521.4000;0.3207;7.3850;
521.7000;0.3264;7.3897;
522.0000;0.3264;7.3850;
522.3000;0.3329;7.4060;
522.6000;0.3223;7.3920;
522.9000;0.3199;7.3850;
523.2000;0.3264;7.4014;
523.5000;0.3207;7.3874;
523.8000;0.3248;7.3897;
524.1000;0.3207;7.3827;
524.4000;0.3240;7.3897;
524.7000;0.3289;7.3990;
525.0000;0.3166;7.3687;
525.3000;0.3272;7.3920;
525.6000;0.3329;7.4014;
525.9000;0.3280;7.3944;
526.2000;0.3248;7.3967;
526.5000;0.3256;7.4014;
526.8000;0.3232;7.3967;
527.1000;0.3264;7.4014;
527.4000;0.3264;7.3920;
527.7000;0.3240;7.3874;
528.0000;0.3232;7.3827;
528.3000;0.3256;7.3874;
528.6000;0.3240;7.3990;
528.9000;0.3248;7.3967;
529.2000;0.3280;7.3967;
529.5000;0.3248;7.3944;
529.8000;0.3248;7.3967;
530.1000;0.3272;7.4107;
530.4000;0.3256;7.4130;
530.7000;0.3240;7.4107;
531.0000;0.3199;7.3967;
531.3000;0.3232;7.3990;
531.6000;0.3183;7.3874;
531.9000;0.3280;7.4037;
532.2000;0.3264;7.4014;
532.5000;0.3264;7.4014;
532.8000;0.3248;7.3897;
533.1000;0.3272;7.3874;
533.4000;0.3240;7.3874;
533.7000;0.3248;7.3944;
534.0000;0.3256;7.3944;
534.3000;0.3232;7.3920;
534.6000;0.3240;7.3967;
534.9000;0.3232;7.3920;
535.2000;0.3256;7.3990;
535.5000;0.3240;7.3944;
535.8000;0.3248;7.3967;
536.1000;0.3240;7.3920;
536.4000;0.3264;7.4037;
536.7000;0.3232;7.3897;
537.0000;0.3256;7.3897;
537.3000;0.3240;7.4037;
537.6000;0.3248;7.4037;
537.9000;0.3272;7.4060;
538.2000;0.3240;7.4037;
538.5000;0.3248;7.3990;
538.8000;0.3240;7.4014;
539.1000;0.3223;7.4060;
539.4000;0.3240;7.4060;
539.7000;0.3240;7.3990;
540.0000;0.3248;7.3990;
540.3000;0.3305;7.4037;
540.6000;0.3264;7.3944;
540.9000;0.3248;7.3920;
541.2000;0.3223;7.3874;
541.5000;0.3240;7.3967;
541.8000;0.3240;7.3920;
542.1000;0.3175;7.3897;
542.4000;0.3256;7.4014;
542.7000;0.3256;7.3874;
543.0000;0.3256;7.3850;
543.3000;0.3272;7.3967;
543.6000;0.3248;7.3920;
543.9000;0.3264;7.3990;
544.2000;0.3199;7.3804;
544.5000;0.3240;7.3827;
544.8000;0.3215;7.3804;
545.1000;0.3248;7.3850;
545.4000;0.3264;7.3944;
545.7000;0.3305;7.4014;
546.0000;0.3240;7.3897;
546.3000;0.3240;7.3874;
546.6000;0.3223;7.3897;
546.9000;0.3248;7.3944;
547.2000;0.3191;7.3781;
547.5000;0.3166;7.3850;
547.8000;0.3240;7.4107;
548.1000;0.3248;7.4130;
548.4000;0.3240;7.4060;
548.7000;0.3240;7.4060;
549.0000;0.3240;7.3944;
549.3000;0.3207;7.3874;
549.6000;0.3297;7.4177;
549.9000;0.3240;7.4083;
550.2000;0.3256;7.4130;
550.5000;0.3346;7.4363;
550.8000;0.3264;7.4083;
551.1000;0.3248;7.4037;
551.4000;0.3248;7.3967;
551.7000;0.3256;7.3920;
552.0000;0.3248;7.3874;
552.3000;0.3248;7.3897;
552.6000;0.3223;7.3967;
552.9000;0.3248;7.3990;
553.2000;0.3240;7.3967;
553.5000;0.3321;7.4247;
553.8000;0.3240;7.3967;
554.1000;0.3256;7.4037;
554.4000;0.3199;7.3944;
554.7000;0.3240;7.4107;
555.0000;0.3264;7.4223;
555.3000;0.3264;7.4200;
555.6000;0.3142;7.3920;
555.9000;0.3264;7.4223;
556.2000;0.3264;7.4200;
556.5000;0.3272;7.4153;
556.8000;0.3256;7.4130;
557.1000;0.3256;7.4177;
557.4000;0.3248;7.4153;
557.7000;0.3256;7.4130;
558.0000;0.3264;7.4083;
558.3000;0.3240;7.4037;
558.6000;0.3240;7.3990;
558.9000;0.3232;7.3897;
559.2000;0.3297;7.3990;
559.5000;0.3248;7.3897;
559.8000;0.3240;7.3850;
560.1000;0.3248;7.3920;
560.4000;0.3248;7.4130;
560.7000;0.3272;7.4247;
561.0000;0.3264;7.4223;
561.3000;0.3248;7.4200;
561.6000;0.3256;7.4293;
561.9000;0.3248;7.4317;
562.2000;0.3240;7.4247;
562.5000;0.3256;7.4223;
562.8000;0.3240;7.4107;
563.1000;0.3313;7.4177;
563.4000;0.3232;7.3990;
563.7000;0.3248;7.4014;
564.0000;0.3329;7.4293;
564.3000;0.3240;7.4107;
564.6000;0.3248;7.4083;
564.9000;0.3248;7.4037;
565.2000;0.3248;7.3967;
565.5000;0.3272;7.4083;
565.8000;0.3248;7.4014;
566.1000;0.3248;7.4060;
566.4000;0.3264;7.4153;
566.7000;0.3256;7.4177;
567.0000;0.3256;7.4130;
567.3000;0.3248;7.4177;
567.6000;0.3248;7.4177;
567.9000;0.3248;7.4177;
568.2000;0.3256;7.4177;
568.5000;0.3240;7.4153;
568.8000;0.3240;7.4153;
569.1000;0.3240;7.4107;
569.4000;0.3240;7.4037;
569.7000;0.3207;7.3897;
570.0000;0.3248;7.3920;
570.3000;0.3183;7.3850;
570.6000;0.3240;7.3990;
570.9000;0.3256;7.4037;
571.2000;0.3248;7.4037;
571.5000;0.3240;7.3967;
571.8000;0.3256;7.4014;
572.1000;0.3272;7.4037;
572.4000;0.3240;7.3897;
572.7000;0.3199;7.3850;
573.0000;0.3240;7.3967;
573.3000;0.3264;7.4014;
573.6000;0.3256;7.3920;
573.9000;0.3223;7.3920;
574.2000;0.3248;7.4060;
574.5000;0.3240;7.4153;
574.8000;0.3256;7.4247;
575.1000;0.3240;7.4200;
575.4000;0.3223;7.4107;
575.7000;0.3256;7.4153;
576.0000;0.3232;7.4130;
576.3000;0.3248;7.4107;
576.6000;0.3289;7.4200;
576.9000;0.3256;7.4153;
577.2000;0.3256;7.4083;
577.5000;0.3215;7.3990;
577.8000;0.3158;7.3687;
578.1000;0.3256;7.3944;
578.4000;0.3240;7.3897;
578.7000;0.3175;7.3757;
579.0000;0.3240;7.3967;
579.3000;0.3256;7.3920;
579.6000;0.3191;7.3711;
579.9000;0.3264;7.3967;
580.2000;0.3232;7.3990;
580.5000;0.3232;7.4037;
580.8000;0.3264;7.4153;
581.1000;0.3256;7.4107;
581.4000;0.3232;7.3920;
581.7000;0.3240;7.3967;
582.0000;0.3215;7.3920;
582.3000;0.3240;7.3967;
582.6000;0.3207;7.3897;
582.9000;0.3272;7.3990;
583.2000;0.3240;7.3967;
583.5000;0.3240;7.3990;
583.8000;0.3240;7.3920;
584.1000;0.3207;7.3874;
584.4000;0.3223;7.3944;
584.7000;0.3297;7.4083;
585.0000;0.3207;7.3827;
585.3000;0.3240;7.3874;
585.6000;0.3207;7.3734;
585.9000;0.3248;7.3850;
586.2000;0.3256;7.3874;
586.5000;0.3248;7.3897;
586.8000;0.3223;7.3804;
587.1000;0.3240;7.3757;
587.4000;0.3240;7.3734;
587.7000;0.3264;7.3920;
588.0000;0.3240;7.3897;
588.3000;0.3215;7.3804;
588.6000;0.3240;7.3827;
588.9000;0.3248;7.3850;
589.2000;0.3248;7.3827;
589.5000;0.3256;7.3850;
589.8000;0.3248;7.3897;
590.1000;0.3248;7.3944;
590.4000;0.3223;7.3897;
590.7000;0.3248;7.4014;
591.0000;0.3215;7.3967;
591.3000;0.3256;7.4037;
591.6000;0.3232;7.4037;
591.9000;0.3215;7.4083;
592.2000;0.3248;7.4223;
592.5000;0.3248;7.4247;
592.8000;0.3232;7.4223;
593.1000;0.3248;7.4130;
593.4000;0.3256;7.4130;
593.7000;0.3248;7.4153;
594.0000;0.3240;7.4153;
594.3000;0.3248;7.4130;
594.6000;0.3264;7.4200;
594.9000;0.3240;7.4107;
595.2000;0.3240;7.4200;
595.5000;0.3232;7.4200;
595.8000;0.3256;7.4247;
596.1000;0.3256;7.4177;
596.4000;0.3256;7.4060;
596.7000;0.3240;7.3920;
597.0000;0.3240;7.4014;
597.3000;0.3248;7.4014;
597.6000;0.3264;7.4107;
597.9000;0.3256;7.4153;
598.2000;0.3248;7.3944;
598.5000;0.3223;7.3920;
598.8000;0.3272;7.4014;
599.1000;0.3264;7.3920;
599.4000;0.3313;7.4014;
599.7000;0.3272;7.3920;
600.0000;0.3240;7.3920;
600.3000;0.3248;7.3920;
600.6000;0.3240;7.3897;
600.9000;0.3215;7.3757;
601.2000;0.3207;7.3617;
601.5000;0.3280;7.3734;
601.8000;0.3118;7.3314;
602.1000;0.3126;7.3338;
602.4000;0.3150;7.3384;
602.7000;0.3101;7.3175;
603.0000;0.3061;7.2988;
603.3000;0.3044;7.2848;
603.6000;0.3069;7.2825;
603.9000;0.3028;7.2662;
604.2000;0.2971;7.2569;
604.5000;0.2996;7.2522;
604.8000;0.2963;7.2522;
605.1000;0.2955;7.2475;
605.4000;0.2930;7.2475;
605.7000;0.2939;7.2452;
606.0000;0.2914;7.2452;
606.3000;0.2914;7.2429;
606.6000;0.2898;7.2312;
606.9000;0.2873;7.2289;
607.2000;0.2930;7.2312;
607.5000;0.2873;7.2149;
607.8000;0.2841;7.2009;
608.1000;0.2833;7.1986;
608.4000;0.2833;7.2009;
608.7000;0.2833;7.2033;
609.0000;0.2816;7.2009;
609.3000;0.2825;7.1986;
609.6000;0.2792;7.1939;
609.9000;0.2784;7.1916;
610.2000;0.2792;7.1986;
610.5000;0.2800;7.1939;
610.8000;0.2784;7.1916;
611.1000;0.2784;7.1916;
611.4000;0.2759;7.1870;
611.7000;0.2743;7.1776;
612.0000;0.2743;7.1706;
612.3000;0.2776;7.1870;
612.6000;0.2719;7.1730;
612.9000;0.2735;7.1706;
613.2000;0.2719;7.1683;
613.5000;0.2711;7.1660;
613.8000;0.2719;7.1637;
614.1000;0.2686;7.1567;
614.4000;0.2646;7.1427;
614.7000;0.2686;7.1427;
615.0000;0.2727;7.1520;
615.3000;0.2694;7.1380;
615.6000;0.2711;7.1543;
615.9000;0.2670;7.1543;
616.2000;0.2654;7.1567;
616.5000;0.2662;7.1637;
616.8000;0.2637;7.1567;
617.1000;0.2629;7.1543;
617.4000;0.2629;7.1613;
617.7000;0.2637;7.1567;
618.0000;0.2637;7.1613;
618.3000;0.2621;7.1567;
618.6000;0.2621;7.1520;
618.9000;0.2613;7.1613;
619.2000;0.2605;7.1683;
619.5000;0.2605;7.1706;
619.8000;0.2597;7.1637;
620.1000;0.2589;7.1637;
620.4000;0.2597;7.1637;
620.7000;0.2597;7.1520;
621.0000;0.2621;7.1590;
621.3000;0.2580;7.1473;
621.6000;0.2572;7.1473;
621.9000;0.2548;7.1357;
622.2000;0.2556;7.1403;
622.5000;0.2572;7.1427;
622.8000;0.2564;7.1520;
623.1000;0.2556;7.1450;
623.4000;0.2589;7.1567;
623.7000;0.2540;7.1473;
624.0000;0.2556;7.1520;
624.3000;0.2540;7.1613;
624.6000;0.2540;7.1590;
624.9000;0.2532;7.1497;
625.2000;0.2532;7.1473;
625.5000;0.2532;7.1497;
625.8000;0.2515;7.1403;
626.1000;0.2507;7.1310;
626.4000;0.2523;7.1357;
626.7000;0.2515;7.1473;
627.0000;0.2515;7.1520;
627.3000;0.2507;7.1497;
627.6000;0.2507;7.1567;
627.9000;0.2499;7.1497;
628.2000;0.2499;7.1543;
628.5000;0.2483;7.1590;
628.8000;0.2556;7.1660;
629.1000;0.2491;7.1520;
629.4000;0.2483;7.1427;
629.7000;0.2458;7.1334;
630.0000;0.2483;7.1380;
630.3000;0.2483;7.1357;
630.6000;0.2458;7.1240;
630.9000;0.2426;7.1217;
631.2000;0.2450;7.1194;
631.5000;0.2458;7.1287;
631.8000;0.2426;7.1287;
632.1000;0.2499;7.1427;
632.4000;0.2466;7.1334;
632.7000;0.2434;7.1310;
633.0000;0.2409;7.1334;
633.3000;0.2409;7.1240;
633.6000;0.2401;7.1310;
633.9000;0.2426;7.1357;
634.2000;0.2434;7.1497;
634.5000;0.2426;7.1450;
634.8000;0.2442;7.1613;
635.1000;0.2344;7.1473;
635.4000;0.2426;7.1753;
635.7000;0.2434;7.1683;
636.0000;0.2320;7.1380;
636.3000;0.2426;7.1590;
636.6000;0.2409;7.1520;
636.9000;0.2434;7.1520;
637.2000;0.2434;7.1450;
637.5000;0.2409;7.1380;
637.8000;0.2418;7.1334;
638.1000;0.2393;7.1287;
638.4000;0.2377;7.1287;
638.7000;0.2418;7.1310;
639.0000;0.2352;7.1264;
639.3000;0.2442;7.1427;
639.6000;0.2393;7.1334;
639.9000;0.2409;7.1357;
640.2000;0.2401;7.1264;
640.5000;0.2401;7.1240;
640.8000;0.2377;7.1264;
641.1000;0.2393;7.1380;
641.4000;0.2361;7.1287;
641.7000;0.2409;7.1403;
642.0000;0.2369;7.1380;
642.3000;0.2361;7.1334;
642.6000;0.2393;7.1380;
642.9000;0.2352;7.1287;
643.2000;0.2369;7.1170;
643.5000;0.2304;7.1031;
643.8000;0.2361;7.1217;
644.1000;0.2344;7.1170;
644.4000;0.2369;7.1240;
644.7000;0.2336;7.1240;
645.0000;0.2320;7.1147;
645.3000;0.2352;7.1194;
645.6000;0.2336;7.1147;
645.9000;0.2344;7.1194;
646.2000;0.2295;7.1054;
646.5000;0.2352;7.1194;
646.8000;0.2344;7.1217;
647.1000;0.2385;7.1357;
647.4000;0.2320;7.1264;
647.7000;0.2336;7.1380;
648.0000;0.2344;7.1427;
648.3000;0.2352;7.1543;
648.6000;0.2336;7.1450;
648.9000;0.2304;7.1427;
649.2000;0.2312;7.1380;
649.5000;0.2320;7.1403;
649.8000;0.2377;7.1473;
650.1000;0.2320;7.1264;
650.4000;0.2295;7.1240;
650.7000;0.2320;7.1334;
651.0000;0.2279;7.1264;
651.3000;0.2295;7.1357;
651.6000;0.2279;7.1427;
651.9000;0.2328;7.1520;
652.2000;0.2320;7.1473;
652.5000;0.2312;7.1473;
652.8000;0.2295;7.1473;
653.1000;0.2344;7.1637;
653.4000;0.2401;7.1730;
653.7000;0.2255;7.1520;
654.0000;0.2295;7.1543;
654.3000;0.2255;7.1473;
654.6000;0.2295;7.1543;
654.9000;0.2304;7.1520;
655.2000;0.2263;7.1450;
655.5000;0.2230;7.1473;
655.8000;0.2271;7.1567;
656.1000;0.2304;7.1543;
656.4000;0.2279;7.1543;
656.7000;0.2287;7.1497;
657.0000;0.2377;7.1753;
657.3000;0.2287;7.1427;
657.6000;0.2271;7.1427;
657.9000;0.2304;7.1543;
658.2000;0.2279;7.1520;
658.5000;0.2304;7.1590;
658.8000;0.2295;7.1567;
659.1000;0.2271;7.1567;
659.4000;0.2271;7.1590;
659.7000;0.2287;7.1637;
660.0000;0.2287;7.1683;
660.3000;0.2344;7.1776;
660.6000;0.2271;7.1683;
660.9000;0.2271;7.1660;
661.2000;0.2279;7.1637;
661.5000;0.2287;7.1473;
661.8000;0.2271;7.1310;
662.1000;0.2255;7.1287;
662.4000;0.2295;7.1403;
662.7000;0.2263;7.1334;
663.0000;0.2222;7.1217;
663.3000;0.2271;7.1357;
663.6000;0.2263;7.1450;
663.9000;0.2255;7.1403;
664.2000;0.2247;7.1403;
664.5000;0.2247;7.1427;
664.8000;0.2279;7.1520;
665.1000;0.2263;7.1567;
665.4000;0.2263;7.1520;
665.7000;0.2304;7.1637;
666.0000;0.2255;7.1543;
666.3000;0.2271;7.1567;
666.6000;0.2173;7.1310;
666.9000;0.2247;7.1567;
667.2000;0.2271;7.1520;
667.5000;0.2247;7.1520;
667.8000;0.2255;7.1567;
668.1000;0.2263;7.1567;
668.4000;0.2344;7.1846;
668.7000;0.2255;7.1543;
669.0000;0.2222;7.1543;
669.3000;0.2214;7.1613;
669.6000;0.2214;7.1590;
669.9000;0.2165;7.1427;
670.2000;0.2230;7.1497;
670.5000;0.2222;7.1450;
670.8000;0.2304;7.1660;
671.1000;0.2239;7.1450;
671.4000;0.2198;7.1403;
671.7000;0.2239;7.1473;
672.0000;0.2214;7.1403;
672.3000;0.2239;7.1543;
672.6000;0.2206;7.1497;
672.9000;0.2230;7.1590;
673.2000;0.2214;7.1520;
673.5000;0.2206;7.1543;
673.8000;0.2247;7.1660;
674.1000;0.2214;7.1590;
674.4000;0.2230;7.1613;
674.7000;0.2190;7.1567;
675.0000;0.2247;7.1706;
675.3000;0.2222;7.1613;
675.6000;0.2263;7.1613;
675.9000;0.2198;7.1473;
676.2000;0.2230;7.1590;
676.5000;0.2214;7.1520;
676.8000;0.2222;7.1497;
677.1000;0.2263;7.1567;
677.4000;0.2173;7.1310;
677.7000;0.2230;7.1427;
678.0000;0.2222;7.1357;
678.3000;0.2198;7.1334;
678.6000;0.2206;7.1357;
678.9000;0.2230;7.1427;
679.2000;0.2214;7.1473;
679.5000;0.2190;7.1403;
679.8000;0.2222;7.1497;
680.1000;0.2182;7.1520;
680.4000;0.2206;7.1567;
680.7000;0.2214;7.1590;
681.0000;0.2206;7.1613;
681.3000;0.2182;7.1520;
681.6000;0.2206;7.1543;
681.9000;0.2247;7.1637;
682.2000;0.2206;7.1497;
682.5000;0.2198;7.1543;
682.8000;0.2198;7.1590;
683.1000;0.2206;7.1590;
683.4000;0.2239;7.1613;
683.7000;0.2222;7.1590;
684.0000;0.2198;7.1450;
684.3000;0.2190;7.1520;
684.6000;0.2230;7.1637;
684.9000;0.2182;7.1590;
685.2000;0.2182;7.1567;
685.5000;0.2182;7.1590;
685.8000;0.2165;7.1543;
686.1000;0.2190;7.1637;
686.4000;0.2133;7.1613;
686.7000;0.2173;7.1637;
687.0000;0.2182;7.1637;
687.3000;0.2182;7.1753;
687.6000;0.2198;7.1730;
687.9000;0.2182;7.1613;
688.2000;0.2182;7.1613;
688.5000;0.2182;7.1520;
688.8000;0.2173;7.1473;
689.1000;0.2165;7.1497;
689.4000;0.2182;7.1520;
689.7000;0.2165;7.1567;
690.0000;0.2165;7.1637;
690.3000;0.2206;7.1706;
690.6000;0.2198;7.1637;
690.9000;0.2190;7.1660;
691.2000;0.2190;7.1613;
691.5000;0.2165;7.1450;
691.8000;0.2182;7.1473;
692.1000;0.2165;7.1520;
692.4000;0.2133;7.1543;
692.7000;0.2182;7.1660;
693.0000;0.2190;7.1753;
693.3000;0.2182;7.1823;
693.6000;0.2165;7.1846;
693.9000;0.2165;7.1730;
694.2000;0.2206;7.1823;
694.5000;0.2157;7.1660;
694.8000;0.2165;7.1683;
695.1000;0.2133;7.1520;
695.4000;0.2149;7.1520;
695.7000;0.2157;7.1567;
696.0000;0.2092;7.1380;
696.3000;0.2157;7.1543;
696.6000;0.2157;7.1473;
696.9000;0.2165;7.1520;
697.2000;0.2149;7.1567;
697.5000;0.2157;7.1660;
697.8000;0.2182;7.1706;
698.1000;0.2116;7.1473;
698.4000;0.2173;7.1706;
698.7000;0.2165;7.1613;
699.0000;0.2165;7.1613;
699.3000;0.2133;7.1543;
699.6000;0.2141;7.1334;
699.9000;0.2149;7.1357;
700.2000;0.2141;7.1403;
700.5000;0.2190;7.1473;
700.8000;0.2149;7.1450;
701.1000;0.2149;7.1543;
701.4000;0.2157;7.1567;
701.7000;0.2141;7.1590;
702.0000;0.2141;7.1683;
702.3000;0.2141;7.1660;
702.6000;0.2173;7.1800;
702.9000;0.2198;7.1870;
703.2000;0.2141;7.1637;
703.5000;0.2149;7.1590;
703.8000;0.2133;7.1543;
704.1000;0.2141;7.1543;
704.4000;0.2149;7.1497;
704.7000;0.2133;7.1567;
705.0000;0.2141;7.1520;
705.3000;0.2108;7.1567;
705.6000;0.2149;7.1753;
705.9000;0.2182;7.1800;
706.2000;0.2133;7.1730;
706.5000;0.2149;7.1800;
706.8000;0.2092;7.1543;
707.1000;0.2165;7.1683;
707.4000;0.2141;7.1637;
707.7000;0.2214;7.1776;
708.0000;0.2149;7.1613;
708.3000;0.2141;7.1590;
708.6000;0.2141;7.1590;
708.9000;0.2125;7.1590;
709.2000;0.2108;7.1637;
709.5000;0.2133;7.1613;
709.8000;0.2125;7.1613;
710.1000;0.2125;7.1590;
710.4000;0.2173;7.1637;
710.7000;0.2125;7.1473;
711.0000;0.2108;7.1497;
711.3000;0.2116;7.1520;
711.6000;0.2125;7.1543;
711.9000;0.2149;7.1613;
712.2000;0.2133;7.1637;
712.5000;0.2108;7.1590;
712.8000;0.2108;7.1637;
713.1000;0.2173;7.1823;
713.4000;0.2157;7.1637;
713.7000;0.2116;7.1590;
714.0000;0.2051;7.1473;
714.3000;0.2100;7.1637;
714.6000;0.2125;7.1753;
714.9000;0.2116;7.1730;
715.2000;0.2116;7.1706;
715.5000;0.2157;7.1683;
715.8000;0.2190;7.1730;
716.1000;0.2108;7.1543;
716.4000;0.2125;7.1567;
716.7000;0.2133;7.1660;
717.0000;0.2149;7.1730;
717.3000;0.2108;7.1613;
717.6000;0.2116;7.1730;
717.9000;0.2141;7.1753;
718.2000;0.2125;7.1753;
718.5000;0.2076;7.1613;
718.8000;0.2125;7.1660;
719.1000;0.2116;7.1613;
719.4000;0.2076;7.1473;
719.7000;0.2116;7.1590;
720.0000;0.2133;7.1637;
720.3000;0.2133;7.1683;
720.6000;0.2125;7.1660;
720.9000;0.2116;7.1660;
721.2000;0.2108;7.1567;
721.5000;0.2116;7.1520;
721.8000;0.2125;7.1497;
722.1000;0.2125;7.1543;
722.4000;0.2141;7.1543;
722.7000;0.2108;7.1473;
723.0000;0.2108;7.1520;
723.3000;0.2125;7.1380;
723.6000;0.2108;7.1380;
723.9000;0.2141;7.1450;
724.2000;0.2125;7.1590;
724.5000;0.2133;7.1637;
724.8000;0.2116;7.1567;
725.1000;0.2068;7.1380;
725.4000;0.2027;7.1334;
725.7000;0.2125;7.1543;
726.0000;0.2125;7.1520;
726.3000;0.2125;7.1473;
726.6000;0.2108;7.1520;
726.9000;0.2133;7.1567;
727.2000;0.2108;7.1497;
727.5000;0.2157;7.1613;
727.8000;0.2125;7.1543;
728.1000;0.2092;7.1497;
728.4000;0.2182;7.1730;
728.7000;0.2100;7.1497;
729.0000;0.2100;7.1427;
729.3000;0.2133;7.1497;
729.6000;0.2116;7.1543;
729.9000;0.2108;7.1543;
730.2000;0.2108;7.1567;
730.5000;0.2133;7.1567;
730.8000;0.2100;7.1473;
731.1000;0.2116;7.1613;
731.4000;0.2157;7.1706;
731.7000;0.2108;7.1613;
732.0000;0.2108;7.1706;
732.3000;0.2116;7.1613;
732.6000;0.2108;7.1543;
732.9000;0.2108;7.1567;
733.2000;0.2100;7.1590;
733.5000;0.2084;7.1543;
733.8000;0.2108;7.1660;
734.1000;0.2068;7.1753;
734.4000;0.2108;7.1846;
734.7000;0.2116;7.1870;
735.0000;0.2100;7.1776;
735.3000;0.2084;7.1730;
735.6000;0.2076;7.1660;
735.9000;0.2108;7.1660;
736.2000;0.2092;7.1660;
736.5000;0.2059;7.1613;
736.8000;0.2084;7.1660;
737.1000;0.2092;7.1800;
737.4000;0.2084;7.1823;
737.7000;0.2092;7.1823;
738.0000;0.2092;7.1776;
738.3000;0.2100;7.1800;
738.6000;0.2116;7.1776;
738.9000;0.2100;7.1683;
739.2000;0.2068;7.1683;
739.5000;0.2116;7.1823;
739.8000;0.2084;7.1776;
740.1000;0.2108;7.1823;
740.4000;0.2182;7.1963;
740.7000;0.2190;7.1963;
741.0000;0.2116;7.1800;
741.3000;0.2092;7.1753;
741.6000;0.2051;7.1590;
741.9000;0.2141;7.1800;
742.2000;0.2100;7.1776;
742.5000;0.2035;7.1660;
742.8000;0.2092;7.1800;
743.1000;0.2108;7.1870;
743.4000;0.2068;7.1776;
743.7000;0.2084;7.1846;
744.0000;0.2084;7.1893;
744.3000;0.2116;7.1870;
744.6000;0.2100;7.1870;
744.9000;0.2084;7.1823;
745.2000;0.2051;7.1753;
745.5000;0.2100;7.1800;
745.8000;0.2149;7.1963;
746.1000;0.2076;7.1706;
746.4000;0.2076;7.1730;
746.7000;0.2076;7.1613;
747.0000;0.2035;7.1543;
747.3000;0.2100;7.1637;
747.6000;0.2100;7.1660;
747.9000;0.2116;7.1753;
748.2000;0.2092;7.1776;
748.5000;0.2092;7.1823;
748.8000;0.2084;7.1823;
749.1000;0.2068;7.1776;
749.4000;0.2092;7.1823;
749.7000;0.2076;7.1706;
750.0000;0.2255;7.2196;
750.3000;0.2100;7.1846;
750.6000;0.2076;7.1776;
750.9000;0.2108;7.1730;
751.2000;0.2092;7.1567;
751.5000;0.2059;7.1473;
751.8000;0.2092;7.1520;
752.1000;0.2100;7.1590;
752.4000;0.2100;7.1637;
752.7000;0.2100;7.1613;
753.0000;0.2084;7.1543;
753.3000;0.2076;7.1590;
753.6000;0.2076;7.1590;
753.9000;0.2092;7.1683;
754.2000;0.2084;7.1730;
754.5000;0.2043;7.1520;
754.8000;0.2068;7.1520;
755.1000;0.2076;7.1590;
755.4000;0.2173;7.1753;
755.7000;0.2059;7.1567;
756.0000;0.2068;7.1567;
756.3000;0.2076;7.1637;
756.6000;0.2051;7.1473;
756.9000;0.2076;7.1520;
757.2000;0.2076;7.1590;
757.5000;0.2027;7.1473;
757.8000;0.2076;7.1637;
758.1000;0.2100;7.1637;
758.4000;0.2059;7.1567;
758.7000;0.2059;7.1497;
759.0000;0.2084;7.1543;
759.3000;0.2084;7.1590;
759.6000;0.2068;7.1613;
759.9000;0.2084;7.1590;
760.2000;0.2043;7.1473;
760.5000;0.2108;7.1590;
760.8000;0.2076;7.1473;
761.1000;0.2157;7.1706;
761.4000;0.2059;7.1590;
761.7000;0.2133;7.1823;
762.0000;0.2059;7.1543;
762.3000;0.2076;7.1567;
762.6000;0.2084;7.1613;
762.9000;0.2084;7.1660;
763.2000;0.2076;7.1683;
763.5000;0.2165;7.1916;
763.8000;0.2059;7.1613;
764.1000;0.2068;7.1590;
764.4000;0.2068;7.1637;
764.7000;0.2043;7.1590;
765.0000;0.2068;7.1637;
765.3000;0.2133;7.1870;
765.6000;0.2141;7.1916;
765.9000;0.2068;7.1683;
766.2000;0.2051;7.1706;
766.5000;0.2068;7.1753;
766.8000;0.2076;7.1753;
767.1000;0.2068;7.1776;
767.4000;0.2076;7.1776;
767.7000;0.2068;7.1730;
768.0000;0.2076;7.1730;
768.3000;0.2043;7.1660;
768.6000;0.2076;7.1776;
768.9000;0.2141;7.2009;
769.2000;0.2068;7.1823;
769.5000;0.2051;7.1683;
769.8000;0.2165;7.2009;
770.1000;0.2068;7.1823;
770.4000;0.2068;7.1846;
770.7000;0.2051;7.1893;
771.0000;0.2068;7.1986;
771.3000;0.2068;7.1963;
771.6000;0.2084;7.2009;
771.9000;0.2043;7.1963;
772.2000;0.2051;7.1939;
772.5000;0.2051;7.1870;
772.8000;0.2084;7.1916;
773.1000;0.1970;7.1613;
773.4000;0.2043;7.1893;
773.7000;0.2043;7.1963;
774.0000;0.2076;7.2056;
774.3000;0.2100;7.1986;
774.6000;0.2059;7.1800;
774.9000;0.2051;7.1776;
775.2000;0.2084;7.1846;
775.5000;0.2043;7.1800;
775.8000;0.2068;7.1916;
776.1000;0.2035;7.1823;
776.4000;0.2125;7.2009;
776.7000;0.2076;7.1963;
777.0000;0.2076;7.1986;
777.3000;0.2076;7.1846;
777.6000;0.2084;7.1846;
777.9000;0.2068;7.1800;
778.2000;0.2092;7.1916;
778.5000;0.2011;7.1706;
778.8000;0.2076;7.1846;
779.1000;0.2076;7.1893;
779.4000;0.2059;7.1963;
779.7000;0.2043;7.1916;
780.0000;0.2059;7.1893;
780.3000;0.2084;7.1870;
780.6000;0.2035;7.1637;
780.9000;0.2059;7.1637;
781.2000;0.2133;7.1893;
781.5000;0.2092;7.1800;
781.8000;0.2068;7.1776;
782.1000;0.2019;7.1660;
782.4000;0.2051;7.1730;
782.7000;0.2027;7.1660;
783.0000;0.2051;7.1660;
783.3000;0.2035;7.1613;
783.6000;0.2051;7.1660;
783.9000;0.2011;7.1543;
784.2000;0.2043;7.1683;
784.5000;0.2019;7.1706;
784.8000;0.2035;7.1730;
785.1000;0.2043;7.1753;
785.4000;0.2068;7.1776;
785.7000;0.2043;7.1776;
786.0000;0.2043;7.1823;
786.3000;0.2035;7.1823;
786.6000;0.2059;7.1800;
786.9000;0.2076;7.1753;
787.2000;0.2076;7.1753;
787.5000;0.2035;7.1753;
787.8000;0.2051;7.1753;
788.1000;0.2116;7.1846;
788.4000;0.2002;7.1613;
788.7000;0.2043;7.1730;
789.0000;0.2068;7.1800;
789.3000;0.2035;7.1683;
789.6000;0.2068;7.1846;
789.9000;0.2035;7.1916;
790.2000;0.2027;7.1916;
790.5000;0.2043;7.1916;
790.8000;0.2068;7.1823;
791.1000;0.2027;7.1776;
791.4000;0.2051;7.1870;
791.7000;0.2084;7.2009;
792.0000;0.2059;7.2009;
792.3000;0.2043;7.2056;
792.6000;0.2043;7.1986;
792.9000;0.2059;7.1916;
793.2000;0.2011;7.1800;
793.5000;0.2068;7.1893;
793.8000;0.2027;7.1893;
794.1000;0.2027;7.2009;
794.4000;0.2051;7.2009;
794.7000;0.2027;7.1986;
795.0000;0.2011;7.1823;
795.3000;0.2043;7.1986;
795.6000;0.2027;7.2009;
795.9000;0.2035;7.2033;
796.2000;0.2051;7.1963;
796.5000;0.2043;7.2009;
796.8000;0.2084;7.2056;
797.1000;0.2133;7.2219;
797.4000;0.2051;7.1986;
797.7000;0.2043;7.2009;
798.0000;0.2059;7.2056;
798.3000;0.2043;7.2103;
798.6000;0.2027;7.1986;
798.9000;0.2043;7.1939;
799.2000;0.2027;7.1986;
799.5000;0.2068;7.2056;
799.8000;0.2043;7.1986;
800.1000;0.2043;7.1986;
800.4000;0.2059;7.2126;
800.7000;0.2068;7.2196;
801.0000;0.2051;7.2103;
801.3000;0.2059;7.2103;
801.6000;0.2019;7.2009;
801.9000;0.2059;7.2009;
802.2000;0.2059;7.2103;
802.5000;0.2059;7.2126;
802.8000;0.2059;7.2149;
803.1000;0.2027;7.2009;
803.4000;0.2051;7.2009;
803.7000;0.2043;7.2033;
804.0000;0.2027;7.1963;
804.3000;0.1970;7.1800;
804.6000;0.2059;7.2009;
804.9000;0.2019;7.1916;
805.2000;0.2019;7.1800;
805.5000;0.2051;7.1939;
805.8000;0.2035;7.1870;
806.1000;0.2019;7.1800;
806.4000;0.2059;7.1846;
806.7000;0.2019;7.1893;
807.0000;0.2027;7.1963;
807.3000;0.2035;7.1986;
807.6000;0.2027;7.2009;
807.9000;0.2035;7.2009;
808.2000;0.2027;7.1939;
808.5000;0.2068;7.1986;
808.8000;0.2011;7.1893;
809.1000;0.2035;7.1939;
809.4000;0.2051;7.2056;
809.7000;0.2027;7.2079;
810.0000;0.2043;7.2196;
810.3000;0.2068;7.2289;
810.6000;0.2019;7.2079;
810.9000;0.2035;7.2149;
811.2000;0.2084;7.2219;
811.5000;0.2027;7.2056;
811.8000;0.2035;7.2009;
812.1000;0.2019;7.2009;
812.4000;0.2084;7.2126;
812.7000;0.2059;7.2056;
813.0000;0.2051;7.2009;
813.3000;0.2035;7.1963;
813.6000;0.2035;7.1939;
813.9000;0.2011;7.1893;
814.2000;0.2043;7.2009;
814.5000;0.2027;7.1986;
814.8000;0.2043;7.1986;
815.1000;0.2027;7.1986;
815.4000;0.2019;7.1916;
815.7000;0.2027;7.1963;
816.0000;0.2027;7.2009;
816.3000;0.2027;7.1963;
816.6000;0.2035;7.1986;
816.9000;0.2051;7.1986;
817.2000;0.2043;7.1963;
817.5000;0.2043;7.1939;
817.8000;0.2035;7.1893;
818.1000;0.2035;7.1916;
818.4000;0.2035;7.1916;
818.7000;0.2019;7.1916;
819.0000;0.2019;7.1986;
819.3000;0.2011;7.1893;
819.6000;0.2035;7.1939;
819.9000;0.2019;7.1846;
820.2000;0.2092;7.2056;
820.5000;0.1978;7.1846;
820.8000;0.2027;7.1823;
821.1000;0.2035;7.1823;
821.4000;0.1994;7.1753;
821.7000;0.2019;7.1846;
822.0000;0.2027;7.1963;
822.3000;0.2059;7.2033;
822.6000;0.2059;7.2033;
822.9000;0.2043;7.1893;
823.2000;0.2019;7.1706;
823.5000;0.2027;7.1753;
823.8000;0.2035;7.1776;
824.1000;0.2027;7.1846;
824.4000;0.2027;7.1823;
824.7000;0.2019;7.1753;
825.0000;0.2035;7.1776;
825.3000;0.2035;7.1823;
825.6000;0.2035;7.1846;
825.9000;0.2035;7.1916;
826.2000;0.2019;7.1870;
826.5000;0.2019;7.1870;
826.8000;0.2051;7.1939;
827.1000;0.2019;7.1846;
827.4000;0.2051;7.1963;
827.7000;0.2035;7.1916;
828.0000;0.2027;7.1893;
828.3000;0.2084;7.1916;
828.6000;0.2051;7.1800;
828.9000;0.2043;7.1776;
829.2000;0.2059;7.1800;
829.5000;0.2019;7.1846;
829.8000;0.2019;7.1870;
830.1000;0.2027;7.2009;
830.4000;0.1994;7.2056;
830.7000;0.2019;7.2149;
831.0000;0.2027;7.2103;
831.3000;0.2011;7.1963;
831.6000;0.2076;7.2103;
831.9000;0.2035;7.1963;
832.2000;0.2019;7.1916;
832.5000;0.2035;7.1893;
832.8000;0.2027;7.1846;
833.1000;0.2002;7.1706;
833.4000;0.2027;7.1753;
833.7000;0.2019;7.1753;
834.0000;0.2019;7.1800;
834.3000;0.2011;7.1823;
834.6000;0.1978;7.1706;
834.9000;0.2019;7.1730;
835.2000;0.2019;7.1823;
835.5000;0.1994;7.1846;
835.8000;0.2002;7.1823;
836.1000;0.1994;7.1823;
836.4000;0.2011;7.1870;
836.7000;0.2019;7.1870;
837.0000;0.2019;7.1939;
837.3000;0.2019;7.1823;
837.6000;0.2027;7.1823;
837.9000;0.2027;7.1870;
838.2000;0.2011;7.1893;
838.5000;0.2011;7.1846;
838.8000;0.2019;7.1893;
839.1000;0.2019;7.1870;
839.4000;0.2035;7.1846;
839.7000;0.1994;7.1730;
840.0000;0.2043;7.1823;
840.3000;0.2051;7.1893;
840.6000;0.2027;7.1800;
840.9000;0.2035;7.1706;
841.2000;0.2035;7.1800;
841.5000;0.2019;7.1823;
841.8000;0.2019;7.1823;
842.1000;0.2027;7.1986;
842.4000;0.2100;7.2196;
842.7000;0.2019;7.2079;
843.0000;0.2011;7.2033;
843.3000;0.2035;7.1963;
843.6000;0.2011;7.1846;
843.9000;0.2019;7.1823;
844.2000;0.2027;7.1823;
844.5000;0.2027;7.1800;
844.8000;0.2002;7.1776;
845.1000;0.2011;7.1800;
845.4000;0.2068;7.1916;
845.7000;0.2027;7.1893;
846.0000;0.2027;7.1870;
846.3000;0.2011;7.1776;
846.6000;0.2027;7.1800;
846.9000;0.2019;7.1800;
847.2000;0.2019;7.1823;
847.5000;0.1970;7.1730;
847.8000;0.2019;7.1986;
848.1000;0.1994;7.1916;
848.4000;0.2011;7.1916;
848.7000;0.1986;7.1870;
849.0000;0.2100;7.2196;
849.3000;0.2027;7.1963;
849.6000;0.1986;7.1870;
849.9000;0.2002;7.1893;
850.2000;0.2027;7.1939;
850.5000;0.2035;7.2126;
850.8000;0.2002;7.1986;
851.1000;0.2051;7.2033;
851.4000;0.2035;7.1893;
851.7000;0.2027;7.1870;
852.0000;0.2019;7.1939;
852.3000;0.2027;7.2009;
852.6000;0.1978;7.1870;
852.9000;0.1970;7.1776;
853.2000;0.2011;7.1800;
853.5000;0.2035;7.1893;
853.8000;0.2011;7.1823;
854.1000;0.1978;7.1870;
854.4000;0.2019;7.1986;
854.7000;0.2027;7.2033;
855.0000;0.2002;7.1963;
855.3000;0.2019;7.2033;
855.6000;0.2019;7.2149;
855.9000;0.2002;7.2103;
856.2000;0.2059;7.2196;
856.5000;0.2002;7.2149;
856.8000;0.2019;7.2103;
857.1000;0.2051;7.2149;
857.4000;0.2011;7.2009;
857.7000;0.2035;7.1986;
858.0000;0.2019;7.1963;
858.3000;0.1978;7.1893;
858.6000;0.2002;7.1939;
858.9000;0.2002;7.1870;
859.2000;0.2002;7.1939;
859.5000;0.2043;7.2009;
859.8000;0.2019;7.2009;
860.1000;0.1978;7.2033;
860.4000;0.2011;7.2149;
860.7000;0.2002;7.2126;
861.0000;0.2043;7.2173;
861.3000;0.2027;7.2173;
861.6000;0.2011;7.2056;
861.9000;0.2068;7.2173;
862.2000;0.1994;7.2079;
862.5000;0.1970;7.2126;
862.8000;0.2011;7.2359;
863.1000;0.2035;7.2312;
863.4000;0.2002;7.2173;
863.7000;0.2002;7.2149;
864.0000;0.1954;7.2079;
864.3000;0.2043;7.2312;
864.6000;0.2019;7.2219;
864.9000;0.2011;7.2173;
865.2000;0.2027;7.2149;
865.5000;0.1994;7.2056;
865.8000;0.2027;7.2056;
866.1000;0.1978;7.1939;
866.4000;0.2011;7.2009;
866.7000;0.2019;7.2056;
867.0000;0.2011;7.2103;
867.3000;0.2019;7.2196;
867.6000;0.2011;7.2289;
867.9000;0.2027;7.2312;
868.2000;0.1954;7.2126;
868.5000;0.2011;7.2196;
868.8000;0.1978;7.2033;
869.1000;0.1994;7.2126;
869.4000;0.2019;7.2079;
869.7000;0.1994;7.1963;
870.0000;0.1994;7.1893;
870.3000;0.2002;7.1916;
870.6000;0.1986;7.1963;
870.9000;0.2011;7.2079;
871.2000;0.1994;7.2126;
871.5000;0.2019;7.2126;
871.8000;0.2011;7.2056;
872.1000;0.2002;7.1916;
872.4000;0.2002;7.2009;
872.7000;0.2002;7.2056;
873.0000;0.2002;7.2079;
873.3000;0.2011;7.2103;
873.6000;0.1994;7.2033;
873.9000;0.1986;7.1986;
874.2000;0.2002;7.1986;
874.5000;0.2035;7.2079;
874.8000;0.2002;7.1939;
875.1000;0.1994;7.1963;
875.4000;0.2027;7.2009;
875.7000;0.2011;7.1916;
876.0000;0.2002;7.2009;
876.3000;0.2002;7.1893;
876.6000;0.1954;7.1753;
876.9000;0.2011;7.1963;
877.2000;0.1994;7.1916;
877.5000;0.2068;7.2079;
877.8000;0.2011;7.1939;
878.1000;0.2011;7.1939;
878.4000;0.2002;7.1939;
878.7000;0.2002;7.1986;
879.0000;0.2019;7.2033;
879.3000;0.2027;7.2126;
879.6000;0.2084;7.2289;
879.9000;0.2019;7.2126;
880.2000;0.2027;7.2149;
880.5000;0.1937;7.2009;
880.8000;0.2002;7.2289;
881.1000;0.1994;7.2266;
881.4000;0.2011;7.2242;
881.7000;0.2027;7.2173;
882.0000;0.2027;7.2196;
882.3000;0.2019;7.2173;
882.6000;0.2002;7.2196;
882.9000;0.2002;7.2219;
883.2000;0.1970;7.2173;
883.5000;0.2002;7.2266;
883.8000;0.2002;7.2149;
884.1000;0.1986;7.2149;
884.4000;0.1986;7.2173;
884.7000;0.2011;7.2219;
885.0000;0.2035;7.2289;
885.3000;0.1978;7.2149;
885.6000;0.1986;7.2173;
885.9000;0.1962;7.2103;
886.2000;0.1897;7.1986;
886.5000;0.1986;7.2266;
886.8000;0.2059;7.2429;
887.1000;0.2027;7.2312;
887.4000;0.1986;7.2079;
887.7000;0.2035;7.2173;
888.0000;0.2002;7.2126;
888.3000;0.2035;7.2219;
888.6000;0.2011;7.2149;
888.9000;0.1970;7.2033;
889.2000;0.1954;7.2009;
889.5000;0.2011;7.2126;
889.8000;0.2043;7.2173;
890.1000;0.2019;7.2126;
890.4000;0.2011;7.2033;
890.7000;0.2002;7.1986;
891.0000;0.2051;7.2103;
891.3000;0.1978;7.1870;
891.6000;0.1994;7.1870;
891.9000;0.2076;7.2033;
892.2000;0.2059;7.2009;
892.5000;0.2019;7.1986;
892.8000;0.1994;7.1963;
893.1000;0.2019;7.2079;
893.4000;0.2002;7.2056;
893.7000;0.2019;7.2033;
894.0000;0.2002;7.1986;
894.3000;0.2011;7.2033;
894.6000;0.1994;7.2033;
894.9000;0.1954;7.1800;
895.2000;0.1994;7.1893;
895.5000;0.1986;7.1963;
895.8000;0.2027;7.2126;
896.1000;0.1994;7.2173;
896.4000;0.1978;7.2219;
896.7000;0.1986;7.2289;
897.0000;0.1994;7.2312;
897.3000;0.2019;7.2336;
897.6000;0.1994;7.2242;
897.9000;0.1994;7.2079;
898.2000;0.1994;7.2009;
898.5000;0.2002;7.2009;
898.8000;0.2002;7.2056;
899.1000;0.1978;7.2009;
899.4000;0.1970;7.2056;
899.7000;0.1986;7.2126;
900.0000;0.1962;7.2079;
900.3000;0.1978;7.2103;
900.6000;0.1994;7.2103;
900.9000;0.1994;7.2079;
901.2000;0.1986;7.2149;
901.5000;0.1945;7.1986;
901.8000;0.1970;7.2079;
902.1000;0.1978;7.2056;
902.4000;0.1970;7.2056;
902.7000;0.2002;7.2103;
903.0000;0.2011;7.2173;
903.3000;0.2002;7.2103;
903.6000;0.2019;7.2079;
903.9000;0.2027;7.2056;
904.2000;0.2027;7.2056;
904.5000;0.1994;7.2033;
904.8000;0.2027;7.2103;
905.1000;0.2002;7.2033;
905.4000;0.1994;7.1963;
905.7000;0.2011;7.1986;
906.0000;0.2002;7.2033;
906.3000;0.1986;7.1986;
906.6000;0.2011;7.1963;
906.9000;0.2011;7.2056;
907.2000;0.2027;7.2056;
907.5000;0.1986;7.1963;
907.8000;0.1994;7.2033;
908.1000;0.1913;7.1939;
908.4000;0.1978;7.2149;
908.7000;0.2002;7.2219;
909.0000;0.2002;7.2219;
909.3000;0.1986;7.2336;
909.6000;0.1978;7.2336;
909.9000;0.1978;7.2312;
910.2000;0.1970;7.2289;
910.5000;0.1978;7.2266;
910.8000;0.1994;7.2219;
911.1000;0.1994;7.2149;
911.4000;0.1978;7.2126;
911.7000;0.1994;7.2219;
912.0000;0.1978;7.2219;
912.3000;0.1945;7.2196;
912.6000;0.1986;7.2336;
912.9000;0.1994;7.2289;
913.2000;0.1986;7.2242;
913.5000;0.1986;7.2219;
913.8000;0.1978;7.2196;
914.1000;0.1986;7.2242;
914.4000;0.1970;7.2196;
914.7000;0.1978;7.2242;
915.0000;0.1986;7.2336;
915.3000;0.2002;7.2312;
915.6000;0.1994;7.2242;
915.9000;0.1970;7.2219;
916.2000;0.1962;7.2359;
916.5000;0.2019;7.2406;
916.8000;0.2002;7.2266;
917.1000;0.2011;7.2289;
917.4000;0.2019;7.2312;
917.7000;0.2011;7.2289;
918.0000;0.1978;7.2266;
918.3000;0.1978;7.2359;
918.6000;0.2011;7.2475;
918.9000;0.2011;7.2569;
919.2000;0.2035;7.2639;
919.5000;0.1978;7.2475;
919.8000;0.1986;7.2499;
920.1000;0.2027;7.2639;
920.4000;0.2035;7.2452;
920.7000;0.1986;7.2382;
921.0000;0.1986;7.2382;
921.3000;0.1978;7.2452;
921.6000;0.1994;7.2452;
921.9000;0.1986;7.2545;
922.2000;0.2002;7.2522;
922.5000;0.2002;7.2685;
922.8000;0.1986;7.2615;
923.1000;0.1978;7.2592;
923.4000;0.1970;7.2569;
923.7000;0.1880;7.2336;
924.0000;0.1994;7.2662;
924.3000;0.1921;7.2406;
924.6000;0.1978;7.2452;
924.9000;0.1970;7.2406;
925.2000;0.1986;7.2429;
925.5000;0.2051;7.2499;
925.8000;0.1978;7.2242;
926.1000;0.1978;7.2289;
926.4000;0.1962;7.2336;
926.7000;0.2011;7.2452;
927.0000;0.1962;7.2359;
927.3000;0.1978;7.2499;
927.6000;0.1962;7.2406;
927.9000;0.1986;7.2475;
928.2000;0.2027;7.2499;
928.5000;0.1994;7.2452;
928.8000;0.1986;7.2382;
929.1000;0.2011;7.2382;
929.4000;0.2011;7.2336;
929.7000;0.1986;7.2336;
930.0000;0.1994;7.2266;
930.3000;0.1978;7.2312;
930.6000;0.1994;7.2336;
930.9000;0.1994;7.2406;
931.2000;0.1978;7.2406;
931.5000;0.1978;7.2545;
931.8000;0.2002;7.2522;
932.1000;0.1986;7.2452;
932.4000;0.1962;7.2336;
932.7000;0.1994;7.2429;
933.0000;0.2002;7.2522;
933.3000;0.1994;7.2522;
933.6000;0.1978;7.2475;
933.9000;0.1994;7.2545;
934.2000;0.1986;7.2639;
934.5000;0.2002;7.2709;
934.8000;0.1986;7.2592;
935.1000;0.1970;7.2499;
935.4000;0.2051;7.2545;
935.7000;0.2002;7.2475;
936.0000;0.1970;7.2312;
936.3000;0.1954;7.2242;
936.6000;0.1978;7.2312;
936.9000;0.2002;7.2312;
937.2000;0.1986;7.2149;
937.5000;0.1994;7.2149;
937.8000;0.1994;7.2219;
938.1000;0.1978;7.2289;
938.4000;0.1962;7.2359;
938.7000;0.1994;7.2452;
939.0000;0.1986;7.2452;
939.3000;0.2002;7.2545;
939.6000;0.2002;7.2406;
939.9000;0.1994;7.2242;
940.2000;0.1994;7.2289;
940.5000;0.1986;7.2196;
940.8000;0.1994;7.2173;
941.1000;0.1978;7.2126;
941.4000;0.2002;7.2126;
941.7000;0.2002;7.2149;
942.0000;0.1945;7.2033;
942.3000;0.1994;7.2103;
942.6000;0.1986;7.2056;
942.9000;0.2011;7.2056;
943.2000;0.2002;7.2103;
943.5000;0.2011;7.2149;
943.8000;0.1994;7.2173;
944.1000;0.1994;7.2219;
944.4000;0.2002;7.2149;
944.7000;0.2002;7.2149;
945.0000;0.1945;7.2033;
945.3000;0.1978;7.2196;
945.6000;0.1978;7.2149;
945.9000;0.1978;7.2126;
946.2000;0.1978;7.2103;
946.5000;0.1978;7.2103;
946.8000;0.1994;7.2079;
947.1000;0.2002;7.2079;
947.4000;0.2002;7.1963;
947.7000;0.1994;7.1986;
948.0000;0.1994;7.2079;
948.3000;0.1986;7.2056;
948.6000;0.1978;7.2009;
948.9000;0.1970;7.2033;
949.2000;0.1986;7.2056;
949.5000;0.2027;7.2149;
949.8000;0.1994;7.2056;
950.1000;0.1970;7.1893;
950.4000;0.1994;7.1893;
950.7000;0.1986;7.1916;
951.0000;0.1962;7.1939;
951.3000;0.1962;7.1986;
951.6000;0.1970;7.1986;
951.9000;0.1970;7.1986;
952.2000;0.2051;7.2173;
952.5000;0.1986;7.1893;
952.8000;0.1994;7.1870;
953.1000;0.2002;7.1846;
953.4000;0.1978;7.1870;
953.7000;0.1994;7.1939;
954.0000;0.1978;7.1870;
954.3000;0.2019;7.1916;
954.6000;0.1986;7.1916;
954.9000;0.1986;7.2033;
955.2000;0.1978;7.2033;
955.5000;0.1994;7.2033;
955.8000;0.1986;7.2056;
956.1000;0.1986;7.2009;
956.4000;0.1978;7.2103;
956.7000;0.2068;7.2429;
957.0000;0.2027;7.2336;
957.3000;0.1986;7.2242;
957.6000;0.1986;7.2266;
957.9000;0.1978;7.2289;
958.2000;0.1978;7.2336;
958.5000;0.1978;7.2266;
958.8000;0.1954;7.2033;
959.1000;0.1962;7.2033;
959.4000;0.2002;7.2173;
959.7000;0.1994;7.2173;
960.0000;0.2011;7.2173;
960.3000;0.1978;7.2009;
960.6000;0.1970;7.2009;
960.9000;0.1986;7.2103;
961.2000;0.1986;7.2103;
961.5000;0.1962;7.2103;
961.8000;0.1986;7.2196;
962.1000;0.1994;7.2196;
962.4000;0.2002;7.2149;
962.7000;0.2027;7.2149;
963.0000;0.1978;7.2079;
963.3000;0.1986;7.2056;
963.6000;0.1994;7.2009;
963.9000;0.2002;7.2009;
964.2000;0.1994;7.2079;
964.5000;0.1978;7.1986;
964.8000;0.2011;7.2033;
965.1000;0.1994;7.2009;
965.4000;0.2043;7.2149;
965.7000;0.2059;7.2126;
966.0000;0.1872;7.1683;
966.3000;0.1872;7.1776;
966.6000;0.1994;7.2103;
966.9000;0.1978;7.2103;
967.2000;0.1986;7.2196;
967.5000;0.2002;7.2149;
967.8000;0.1986;7.2126;
968.1000;0.1978;7.2196;
968.4000;0.2059;7.2312;
968.7000;0.1986;7.2149;
969.0000;0.2002;7.2196;
969.3000;0.2002;7.2219;
969.6000;0.1994;7.2173;
969.9000;0.2019;7.2196;
970.2000;0.2002;7.2079;
970.5000;0.1994;7.2009;
970.8000;0.1994;7.1939;
971.1000;0.1978;7.1939;
971.4000;0.1994;7.1963;
971.7000;0.1978;7.1916;
972.0000;0.2019;7.2009;
972.3000;0.1970;7.2009;
972.6000;0.2043;7.2173;
972.9000;0.1986;7.2033;
973.2000;0.1970;7.2033;
973.5000;0.2002;7.2126;
973.8000;0.2002;7.2079;
974.1000;0.1986;7.2103;
974.4000;0.1978;7.2103;
974.7000;0.1986;7.2103;
975.0000;0.1888;7.1823;
975.3000;0.2011;7.2103;
975.6000;0.1994;7.2056;
975.9000;0.1978;7.2033;
976.2000;0.1978;7.2033;
976.5000;0.1986;7.2126;
976.8000;0.1986;7.2126;
977.1000;0.2011;7.2196;
977.4000;0.1994;7.2126;
977.7000;0.1986;7.2056;
978.0000;0.1978;7.2196;
978.3000;0.2002;7.2289;
978.6000;0.1994;7.2173;
978.9000;0.1962;7.2103;
979.2000;0.1986;7.2079;
979.5000;0.1978;7.2009;
979.8000;0.1970;7.2079;
980.1000;0.1994;7.2056;
980.4000;0.1954;7.2056;
980.7000;0.1994;7.2196;
981.0000;0.1970;7.2103;
981.3000;0.1970;7.2126;
981.6000;0.1978;7.2126;
981.9000;0.1954;7.2126;
982.2000;0.1962;7.2149;
982.5000;0.1970;7.2219;
982.8000;0.1970;7.2149;
983.1000;0.2019;7.2219;
983.4000;0.1970;7.2103;
983.7000;0.1978;7.2033;
984.0000;0.1970;7.2033;
984.3000;0.1962;7.1986;
984.6000;0.1970;7.2009;
984.9000;0.1978;7.2079;
985.2000;0.1937;7.1963;
985.5000;0.1962;7.2009;
985.8000;0.1986;7.2126;
986.1000;0.1994;7.2196;
986.4000;0.1994;7.2173;
986.7000;0.1994;7.2196;
987.0000;0.1954;7.2173;
987.3000;0.1962;7.2219;
987.6000;0.2002;7.2312;
987.9000;0.2011;7.2336;
988.2000;0.1970;7.2219;
988.5000;0.1945;7.2103;
988.8000;0.1994;7.2149;
989.1000;0.1929;7.1986;
989.4000;0.1986;7.2173;
989.7000;0.1986;7.2079;
990.0000;0.1978;7.2103;
990.3000;0.1962;7.2056;
990.6000;0.1994;7.2056;
990.9000;0.1978;7.2079;
991.2000;0.1978;7.2079;
991.5000;0.1945;7.1963;
991.8000;0.1986;7.2126;
992.1000;0.1978;7.2149;
992.4000;0.1962;7.2219;
992.7000;0.1970;7.2173;
993.0000;0.2100;7.2499;
993.3000;0.1986;7.2219;
993.6000;0.1970;7.2242;
993.9000;0.1978;7.2196;
994.2000;0.1994;7.2266;
994.5000;0.2011;7.2219;
994.8000;0.1994;7.2149;
995.1000;0.1994;7.2173;
995.4000;0.2059;7.2452;
995.7000;0.1978;7.2242;
996.0000;0.1994;7.2266;
996.3000;0.2011;7.2336;
996.6000;0.1986;7.2289;
996.9000;0.1994;7.2266;
997.2000;0.2035;7.2289;
997.5000;0.1962;7.2126;
997.8000;0.1994;7.2312;
998.1000;0.1978;7.2336;
998.4000;0.1986;7.2312;
998.7000;0.1986;7.2429;
999.0000;0.1986;7.2406;
999.3000;0.1994;7.2429;
999.6000;0.1970;7.2359;
999.9000;0.2019;7.2406;
1000.2000;0.1986;7.2196;
1000.5000;0.1978;7.2126;
1000.8000;0.1945;7.2056;
1001.1000;0.1970;7.1986;
1001.4000;0.1978;7.2009;
1001.7000;0.1994;7.2103;
1002.0000;0.1994;7.2149;
1002.3000;0.1978;7.2079;
1002.6000;0.1986;7.2033;
1002.9000;0.1986;7.2009;
1003.2000;0.2035;7.2149;
1003.5000;0.1978;7.2103;
1003.8000;0.1962;7.2079;
1004.1000;0.1978;7.2173;
1004.4000;0.1986;7.2219;
1004.7000;0.1962;7.2196;
1005.0000;0.1954;7.2242;
1005.3000;0.1921;7.2242;
1005.6000;0.1970;7.2336;
1005.9000;0.1970;7.2289;
1006.2000;0.1954;7.2289;
1006.5000;0.1954;7.2359;
1006.8000;0.1945;7.2289;
1007.1000;0.1962;7.2149;
1007.4000;0.1970;7.2173;
1007.7000;0.1954;7.2173;
1008.0000;0.1978;7.2336;
1008.3000;0.2043;7.2429;
1008.6000;0.1978;7.2312;
1008.9000;0.1978;7.2312;
1009.2000;0.1994;7.2242;
1009.5000;0.1986;7.2173;
1009.8000;0.1994;7.2079;
1010.1000;0.2002;7.2126;
1010.4000;0.1978;7.2126;
1010.7000;0.1978;7.2103;
1011.0000;0.1921;7.1963;
1011.3000;0.1921;7.2009;
1011.6000;0.1986;7.2219;
1011.9000;0.1962;7.2219;
1012.2000;0.1986;7.2312;
1012.5000;0.1970;7.2219;
1012.8000;0.1962;7.2103;
1013.1000;0.1986;7.2149;
1013.4000;0.1978;7.2289;
1013.7000;0.1962;7.2219;
1014.0000;0.1929;7.2173;
1014.3000;0.2002;7.2359;
1014.6000;0.1905;7.2126;
1014.9000;0.1986;7.2336;
1015.2000;0.2068;7.2545;
1015.5000;0.1970;7.2196;
1015.8000;0.1978;7.2173;
1016.1000;0.1880;7.1963;
1016.4000;0.2019;7.2289;
1016.7000;0.1954;7.2173;
1017.0000;0.2002;7.2289;
1017.3000;0.1929;7.2149;
1017.6000;0.1970;7.2126;
1017.9000;0.1978;7.2266;
1018.2000;0.1978;7.2242;
1018.5000;0.1970;7.2219;
1018.8000;0.1994;7.2242;
1019.1000;0.2084;7.2522;
1019.4000;0.2002;7.2429;
1019.7000;0.1994;7.2406;
1020.0000;0.1986;7.2359;
1020.3000;0.1921;7.2126;
1020.6000;0.1986;7.2196;
1020.9000;0.1962;7.2336;
1021.2000;0.1945;7.2406;
1021.5000;0.2068;7.2685;
1021.8000;0.1954;7.2382;
1022.1000;0.2019;7.2522;
1022.4000;0.2059;7.2592;
1022.7000;0.1970;7.2406;
1023.0000;0.1986;7.2452;
1023.3000;0.1994;7.2382;
1023.6000;0.1978;7.2359;
1023.9000;0.1897;7.2126;
1024.2000;0.2027;7.2359;
1024.5000;0.1978;7.2312;
1024.8000;0.1978;7.2382;
1025.1000;0.1962;7.2359;
1025.4000;0.1986;7.2499;
1025.7000;0.1970;7.2406;
1026.0000;0.1970;7.2382;
1026.3000;0.1962;7.2336;
1026.6000;0.1954;7.2242;
1026.9000;0.2035;7.2382;
1027.2000;0.1994;7.2312;
1027.5000;0.1970;7.2173;
1027.8000;0.1970;7.2219;
1028.1000;0.1978;7.2242;
1028.4000;0.1978;7.2196;
1028.7000;0.1978;7.2219;
1029.0000;0.1970;7.2219;
1029.3000;0.1994;7.2173;
1029.6000;0.1994;7.2149;
1029.9000;0.1994;7.2196;
1030.2000;0.1970;7.2126;
1030.5000;0.1954;7.2056;
1030.8000;0.1978;7.2033;
1031.1000;0.1970;7.1986;
1031.4000;0.1945;7.1963;
1031.7000;0.1962;7.2033;
1032.0000;0.1954;7.2056;
1032.3000;0.1986;7.2079;
1032.6000;0.1994;7.2173;
1032.9000;0.1978;7.2242;
1033.2000;0.1970;7.2196;
1033.5000;0.1913;7.1986;
1033.8000;0.2019;7.2126;
1034.1000;0.1970;7.2079;
1034.4000;0.1978;7.2196;
1034.7000;0.1978;7.2196;
1035.0000;0.1978;7.2196;
1035.3000;0.1978;7.2266;
1035.6000;0.1986;7.2196;
1035.9000;0.1970;7.2173;
1036.2000;0.1986;7.2219;
1036.5000;0.2002;7.2289;
1036.8000;0.1962;7.2219;
1037.1000;0.1962;7.2173;
1037.4000;0.1937;7.2033;
1037.7000;0.1962;7.2079;
1038.0000;0.1962;7.1986;
1038.3000;0.2043;7.2219;
1038.6000;0.1970;7.2173;
1038.9000;0.1970;7.2196;
1039.2000;0.1978;7.2196;
1039.5000;0.1970;7.2219;
1039.8000;0.1970;7.2266;
1040.1000;0.2043;7.2499;
1040.4000;0.1962;7.2289;
1040.7000;0.1970;7.2289;
1041.0000;0.1970;7.2219;
1041.3000;0.1962;7.2242;
1041.6000;0.1954;7.2173;
1041.9000;0.1962;7.2149;
1042.2000;0.1970;7.2173;
1042.5000;0.1986;7.2196;
1042.8000;0.1897;7.1986;
1043.1000;0.1954;7.2173;
1043.4000;0.1970;7.2196;
1043.7000;0.1962;7.2149;
1044.0000;0.1970;7.2056;
1044.3000;0.1945;7.1986;
1044.6000;0.1962;7.2033;
1044.9000;0.1978;7.2126;
1045.2000;0.1970;7.2196;
1045.5000;0.2019;7.2242;
1045.8000;0.1970;7.2079;
1046.1000;0.1978;7.2196;
1046.4000;0.1954;7.2219;
1046.7000;0.1962;7.2219;
1047.0000;0.1970;7.2266;
1047.3000;0.1970;7.2266;
1047.6000;0.1986;7.2196;
1047.9000;0.1970;7.2173;
1048.2000;0.2019;7.2312;
1048.5000;0.1978;7.2266;
1048.8000;0.1994;7.2406;
1049.1000;0.1954;7.2336;
1049.4000;0.1962;7.2359;
1049.7000;0.1970;7.2406;
1050.0000;0.1970;7.2429;
1050.3000;0.1962;7.2336;
1050.6000;0.1962;7.2266;
1050.9000;0.1954;7.2266;
1051.2000;0.1994;7.2336;
1051.5000;0.1945;7.2149;
1051.8000;0.1978;7.2242;
1052.1000;0.1962;7.2126;
1052.4000;0.2019;7.2266;
1052.7000;0.1994;7.2149;
1053.0000;0.1978;7.2196;
1053.3000;0.1986;7.2242;
1053.6000;0.1962;7.2196;
1053.9000;0.1986;7.2359;
1054.2000;0.1929;7.2242;
1054.5000;0.1945;7.2336;
1054.8000;0.1986;7.2289;
1055.1000;0.1978;7.2382;
1055.4000;0.1978;7.2406;
1055.7000;0.1962;7.2382;
1056.0000;0.1978;7.2359;
1056.3000;0.1962;7.2359;
1056.6000;0.2011;7.2475;
1056.9000;0.1962;7.2336;
1057.2000;0.1962;7.2382;
1057.5000;0.2059;7.2615;
1057.8000;0.1962;7.2359;
1058.1000;0.1945;7.2219;
1058.4000;0.1994;7.2312;
1058.7000;0.2035;7.2359;
1059.0000;0.1978;7.2149;
1059.3000;0.1962;7.2149;
1059.6000;0.1962;7.2126;
1059.9000;0.1962;7.2173;
1060.2000;0.1954;7.2079;
1060.5000;0.1921;7.1986;
1060.8000;0.1962;7.1986;
1061.1000;0.1978;7.1939;
1061.4000;0.1962;7.1963;
1061.7000;0.1962;7.2056;
1062.0000;0.1954;7.2079;
1062.3000;0.1970;7.2196;
1062.6000;0.1970;7.2242;
1062.9000;0.1962;7.2242;
1063.2000;0.1962;7.2173;
1063.5000;0.1978;7.2173;
1063.8000;0.1970;7.2149;
1064.1000;0.1945;7.2079;
1064.4000;0.1954;7.2173;
1064.7000;0.1978;7.2242;
1065.0000;0.1937;7.2196;
1065.3000;0.1937;7.2126;
1065.6000;0.1945;7.2126;
1065.9000;0.1945;7.2009;
1066.2000;0.1962;7.2056;
1066.5000;0.1970;7.2103;
1066.8000;0.1962;7.2126;
1067.1000;0.1978;7.2173;
1067.4000;0.1962;7.2242;
1067.7000;0.1978;7.2289;
1068.0000;0.1962;7.2196;
1068.3000;0.1986;7.2242;
1068.6000;0.1986;7.2266;
1068.9000;0.1970;7.2173;
1069.2000;0.1994;7.2242;
1069.5000;0.1978;7.2196;
1069.8000;0.1954;7.2149;
1070.1000;0.1962;7.2173;
1070.4000;0.1978;7.2103;
1070.7000;0.1962;7.2103;
1071.0000;0.1962;7.2079;
1071.3000;0.1954;7.1986;
1071.6000;0.1970;7.2103;
1071.9000;0.1929;7.2033;
1072.2000;0.1986;7.2079;
1072.5000;0.1994;7.2079;
1072.8000;0.1970;7.2126;
1073.1000;0.1970;7.2056;
1073.4000;0.2011;7.2289;
1073.7000;0.1954;7.2266;
1074.0000;0.1970;7.2173;
1074.3000;0.1970;7.2219;
1074.6000;0.1970;7.2173;
1074.9000;0.1962;7.2149;
1075.2000;0.1994;7.2219;
1075.5000;0.1962;7.2219;
1075.8000;0.1962;7.2289;
1076.1000;0.1954;7.2289;
1076.4000;0.1945;7.2149;
1076.7000;0.1962;7.2173;
1077.0000;0.1954;7.2149;
1077.3000;0.2011;7.2219;
1077.6000;0.1978;7.2219;
1077.9000;0.1962;7.2242;
1078.2000;0.1962;7.2312;
1078.5000;0.2011;7.2336;
1078.8000;0.1954;7.2312;
1079.1000;0.1970;7.2382;
1079.4000;0.1970;7.2429;
1079.7000;0.1970;7.2429;
1080.0000;0.1978;7.2382;
1080.3000;0.1962;7.2312;
1080.6000;0.2043;7.2522;
1080.9000;0.1962;7.2359;
1081.2000;0.1986;7.2406;
1081.5000;0.1970;7.2312;
1081.8000;0.1978;7.2359;
1082.1000;0.1962;7.2406;
1082.4000;0.1937;7.2429;
1082.7000;0.2068;7.2778;
1083.0000;0.1986;7.2592;
1083.3000;0.1945;7.2475;
1083.6000;0.1945;7.2499;
1083.9000;0.1954;7.2406;
1084.2000;0.1970;7.2359;
1084.5000;0.2019;7.2336;
1084.8000;0.1954;7.2103;
1085.1000;0.1954;7.2103;
1085.4000;0.1945;7.2173;
1085.7000;0.1954;7.2266;
1086.0000;0.1962;7.2359;
1086.3000;0.1937;7.2266;
1086.6000;0.1954;7.2312;
1086.9000;0.1962;7.2312;
1087.2000;0.1945;7.2289;
1087.5000;0.1954;7.2173;
1087.8000;0.1978;7.2126;
1088.1000;0.1978;7.2219;
1088.4000;0.1962;7.2196;
1088.7000;0.1978;7.2336;
1089.0000;0.1970;7.2219;
1089.3000;0.1945;7.2219;
1089.6000;0.1970;7.2312;
1089.9000;0.1937;7.2312;
1090.2000;0.1945;7.2336;
1090.5000;0.1954;7.2312;
1090.8000;0.1970;7.2312;
1091.1000;0.1913;7.2149;
1091.4000;0.1962;7.2312;
1091.7000;0.1962;7.2382;
1092.0000;0.1994;7.2312;
1092.3000;0.1962;7.2173;
1092.6000;0.1872;7.1963;
1092.9000;0.1978;7.2196;
1093.2000;0.1970;7.2219;
1093.5000;0.1954;7.2173;
1093.8000;0.1954;7.2242;
1094.1000;0.1978;7.2289;
1094.4000;0.1962;7.2289;
1094.7000;0.1970;7.2382;
1095.0000;0.1929;7.2266;
1095.3000;0.1986;7.2359;
1095.6000;0.1970;7.2289;
1095.9000;0.1970;7.2242;
1096.2000;0.1954;7.2196;
1096.5000;0.1962;7.2149;
1096.8000;0.1970;7.2173;
1097.1000;0.1962;7.2196;
1097.4000;0.2002;7.2289;
1097.7000;0.1986;7.2266;
1098.0000;0.1954;7.2336;
1098.3000;0.1929;7.2289;
1098.6000;0.1986;7.2359;
1098.9000;0.1986;7.2406;
1099.2000;0.1945;7.2336;
1099.5000;0.1954;7.2406;
1099.8000;0.1945;7.2266;
1100.1000;0.1970;7.2219;
1100.4000;0.1970;7.2219;
1100.7000;0.1986;7.2196;
1101.0000;0.1962;7.2196;
1101.3000;0.1962;7.2149;
1101.6000;0.1962;7.2126;
1101.9000;0.1970;7.2289;
1102.2000;0.1954;7.2266;
1102.5000;0.1954;7.2312;
1102.8000;0.1986;7.2429;
1103.1000;0.1954;7.2289;
1103.4000;0.1970;7.2359;
1103.7000;0.1970;7.2336;
1104.0000;0.1994;7.2242;
1104.3000;0.1937;7.2056;
1104.6000;0.1986;7.2126;
1104.9000;0.1978;7.2149;
1105.2000;0.1986;7.2266;
1105.5000;0.2011;7.2289;
1105.8000;0.1978;7.2219;
1106.1000;0.1962;7.2149;
1106.4000;0.1970;7.2079;
1106.7000;0.2035;7.2242;
1107.0000;0.1970;7.2149;
1107.3000;0.2068;7.2429;
1107.6000;0.1994;7.2126;
1107.9000;0.1962;7.2103;
1108.2000;0.1945;7.2149;
1108.5000;0.2068;7.2499;
1108.8000;0.1962;7.2242;
1109.1000;0.1986;7.2336;
1109.4000;0.1986;7.2359;
1109.7000;0.1962;7.2359;
1110.0000;0.1962;7.2289;
1110.3000;0.1962;7.2336;
1110.6000;0.1962;7.2382;
1110.9000;0.1937;7.2312;
1111.2000;0.1929;7.2359;
1111.5000;0.1937;7.2336;
1111.8000;0.1962;7.2382;
1112.1000;0.1994;7.2475;
1112.4000;0.1978;7.2406;
1112.7000;0.1937;7.2336;
1113.0000;0.1962;7.2475;
1113.3000;0.2027;7.2592;
1113.6000;0.1929;7.2359;
1113.9000;0.1913;7.2289;
1114.2000;0.1872;7.2079;
1114.5000;0.1856;7.2056;
1114.8000;0.1929;7.2196;
1115.1000;0.1954;7.2242;
1115.4000;0.1937;7.2219;
1115.7000;0.1962;7.2219;
1116.0000;0.1962;7.2336;
1116.3000;0.1986;7.2406;
1116.6000;0.1962;7.2289;
1116.9000;0.1945;7.2312;
1117.2000;0.1954;7.2289;
1117.5000;0.1954;7.2406;
1117.8000;0.1937;7.2382;
1118.1000;0.1962;7.2499;
1118.4000;0.1962;7.2592;
1118.7000;0.1994;7.2639;
1119.0000;0.1970;7.2569;
1119.3000;0.1945;7.2522;
1119.6000;0.1954;7.2336;
1119.9000;0.1986;7.2406;
1120.2000;0.1970;7.2359;
1120.5000;0.1954;7.2289;
1120.8000;0.1962;7.2336;
1121.1000;0.1970;7.2359;
1121.4000;0.1929;7.2266;
1121.7000;0.1962;7.2266;
1122.0000;0.1962;7.2242;
1122.3000;0.2019;7.2382;
1122.6000;0.1962;7.2173;
1122.9000;0.1978;7.2149;
1123.2000;0.1970;7.2126;
1123.5000;0.1954;7.2219;
1123.8000;0.1978;7.2289;
1124.1000;0.1986;7.2266;
1124.4000;0.1986;7.2219;
1124.7000;0.1986;7.2219;
1125.0000;0.1986;7.2242;
1125.3000;0.1962;7.2219;
1125.6000;0.1994;7.2266;
1125.9000;0.1962;7.2173;
1126.2000;0.1962;7.2196;
1126.5000;0.1962;7.2196;
1126.8000;0.1954;7.2173;
1127.1000;0.1954;7.2056;
1127.4000;0.1970;7.2079;
1127.7000;0.1945;7.2033;
1128.0000;0.1954;7.1986;
1128.3000;0.1954;7.2033;
1128.6000;0.1986;7.2196;
1128.9000;0.1945;7.2149;
1129.2000;0.1970;7.2196;
1129.5000;0.1970;7.2289;
1129.8000;0.1986;7.2382;
1130.1000;0.1986;7.2289;
1130.4000;0.1994;7.2149;
1130.7000;0.1954;7.2056;
1131.0000;0.1945;7.2103;
1131.3000;0.1962;7.2173;
1131.6000;0.1945;7.2103;
1131.9000;0.1986;7.2173;
1132.2000;0.1937;7.2149;
1132.5000;0.1970;7.2266;
1132.8000;0.2019;7.2289;
1133.1000;0.1978;7.2149;
1133.4000;0.1945;7.2149;
1133.7000;0.1954;7.2196;
1134.0000;0.1921;7.2149;
1134.3000;0.1929;7.2149;
1134.6000;0.1994;7.2242;
1134.9000;0.1970;7.2103;
1135.2000;0.1970;7.2126;
1135.5000;0.2043;7.2242;
1135.8000;0.1970;7.2126;
1136.1000;0.2035;7.2359;
1136.4000;0.1970;7.2242;
1136.7000;0.1962;7.2266;
1137.0000;0.1954;7.2173;
1137.3000;0.2011;7.2219;
1137.6000;0.1929;7.2056;
1137.9000;0.1880;7.1939;
1138.2000;0.1994;7.2219;
1138.5000;0.1962;7.2219;
1138.8000;0.1978;7.2336;
1139.1000;0.2043;7.2499;
1139.4000;0.2002;7.2312;
1139.7000;0.1970;7.2219;
1140.0000;0.1970;7.2242;
1140.3000;0.2002;7.2406;
1140.6000;0.2043;7.2359;
1140.9000;0.1994;7.2219;
1141.2000;0.1978;7.2219;
1141.5000;0.1954;7.2289;
1141.8000;0.1970;7.2336;
1142.1000;0.1945;7.2266;
1142.4000;0.1945;7.2289;
1142.7000;0.1962;7.2336;
1143.0000;0.1962;7.2266;
1143.3000;0.1978;7.2382;
1143.6000;0.1970;7.2336;
1143.9000;0.1970;7.2382;
1144.2000;0.1962;7.2289;
1144.5000;0.1954;7.2103;
1144.8000;0.1978;7.2219;
1145.1000;0.1954;7.2242;
1145.4000;0.1945;7.2242;
1145.7000;0.1954;7.2196;
1146.0000;0.1978;7.2196;
1146.3000;0.1970;7.2196;
1146.6000;0.1986;7.2196;
1146.9000;0.1962;7.2219;
1147.2000;0.1954;7.2266;
1147.5000;0.1954;7.2429;
1147.8000;0.1970;7.2382;
1148.1000;0.1962;7.2336;
1148.4000;0.1970;7.2336;
1148.7000;0.2002;7.2336;
1149.0000;0.1937;7.2219;
1149.3000;0.1986;7.2289;
1149.6000;0.1913;7.2266;
1149.9000;0.1954;7.2266;
1150.2000;0.1954;7.2429;
1150.5000;0.1945;7.2289;
1150.8000;0.1945;7.2289;
1151.1000;0.1937;7.2289;
1151.4000;0.1978;7.2312;
1151.7000;0.1970;7.2219;
1152.0000;0.1962;7.2196;
1152.3000;0.1962;7.2149;
1152.6000;0.1970;7.2196;
1152.9000;0.1994;7.2312;
1153.2000;0.1897;7.2126;
1153.5000;0.1913;7.2149;
1153.8000;0.1954;7.2266;
1154.1000;0.1994;7.2382;
1154.4000;0.1970;7.2242;
1154.7000;0.1978;7.2312;
1155.0000;0.1994;7.2359;
1155.3000;0.1978;7.2312;
1155.6000;0.1978;7.2219;
1155.9000;0.1962;7.2079;
1156.2000;0.1978;7.2103;
1156.5000;0.1954;7.2126;
1156.8000;0.1962;7.2149;
1157.1000;0.1970;7.2103;
1157.4000;0.1962;7.2056;
1157.7000;0.2068;7.2289;
1158.0000;0.1978;7.2079;
1158.3000;0.1954;7.2149;
1158.6000;0.1945;7.2126;
1158.9000;0.1978;7.2219;
1159.2000;0.1921;7.2033;
1159.5000;0.1905;7.1870;
1159.8000;0.1986;7.2056;
1160.1000;0.1945;7.1939;
1160.4000;0.1954;7.1986;
1160.7000;0.1937;7.1963;
1161.0000;0.1954;7.1986;
1161.3000;0.1962;7.1986;
1161.6000;0.1962;7.2079;
1161.9000;0.1970;7.2126;
1162.2000;0.1954;7.2103;
1162.5000;0.1970;7.2056;
1162.8000;0.1954;7.2033;
1163.1000;0.1962;7.2079;
1163.4000;0.1994;7.2219;
1163.7000;0.1970;7.2173;
1164.0000;0.1962;7.2173;
1164.3000;0.1970;7.2149;
1164.6000;0.1970;7.2079;
1164.9000;0.2011;7.2033;
1165.2000;0.1962;7.1870;
1165.5000;0.1978;7.1963;
1165.8000;0.1978;7.1963;
1166.1000;0.1978;7.2033;
1166.4000;0.2011;7.2149;
1166.7000;0.1978;7.2079;
1167.0000;0.1970;7.2126;
1167.3000;0.1962;7.2126;
1167.6000;0.1970;7.2056;
1167.9000;0.1962;7.2056;
1168.2000;0.1970;7.1986;
1168.5000;0.1970;7.1939;
1168.8000;0.1962;7.1939;
1169.1000;0.1978;7.1986;
1169.4000;0.1978;7.1986;
1169.7000;0.1978;7.2103;
1170.0000;0.1962;7.2103;
1170.3000;0.1970;7.2056;
1170.6000;0.1954;7.2126;
1170.9000;0.1970;7.2033;
1171.2000;0.1954;7.2009;
1171.5000;0.1954;7.2033;
1171.8000;0.1905;7.1986;
1172.1000;0.1945;7.2149;
1172.4000;0.2027;7.2382;
1172.7000;0.1970;7.2312;
1173.0000;0.1962;7.2289;
1173.3000;0.1978;7.2382;
1173.6000;0.1962;7.2336;
1173.9000;0.1986;7.2359;
1174.2000;0.2002;7.2429;
1174.5000;0.1970;7.2289;
1174.8000;0.1970;7.2336;
1175.1000;0.1970;7.2289;
1175.4000;0.1978;7.2242;
1175.7000;0.1978;7.2126;
1176.0000;0.1994;7.2289;
1176.3000;0.1954;7.2219;
1176.6000;0.1954;7.2219;
1176.9000;0.1978;7.2289;
1177.2000;0.2019;7.2289;
1177.5000;0.1962;7.2219;
1177.8000;0.1978;7.2196;
1178.1000;0.1945;7.2149;
1178.4000;0.1994;7.2242;
1178.7000;0.1994;7.2336;
1179.0000;0.1962;7.2196;
1179.3000;0.1937;7.2219;
1179.6000;0.1954;7.2336;
1179.9000;0.1962;7.2429;
1180.2000;0.1962;7.2406;
1180.5000;0.1986;7.2429;
1180.8000;0.1970;7.2406;
1181.1000;0.1978;7.2359;
1181.4000;0.1954;7.2266;
1181.7000;0.1954;7.2242;
1182.0000;0.1970;7.2312;
1182.3000;0.2108;7.2685;
1182.6000;0.1954;7.2242;
1182.9000;0.1962;7.2103;
1183.2000;0.1945;7.2056;
1183.5000;0.1978;7.2149;
1183.8000;0.1954;7.2126;
1184.1000;0.1962;7.2219;
1184.4000;0.1978;7.2289;
1184.7000;0.1962;7.2219;
1185.0000;0.1962;7.2196;
1185.3000;0.1954;7.2196;
1185.6000;0.1962;7.2266;
1185.9000;0.1962;7.2242;
1186.2000;0.1962;7.2126;
1186.5000;0.1954;7.2103;
1186.8000;0.1945;7.2126;
1187.1000;0.1937;7.2103;
1187.4000;0.1945;7.2103;
1187.7000;0.1954;7.2149;
1188.0000;0.1970;7.2173;
1188.3000;0.2019;7.2196;
1188.6000;0.1962;7.2103;
1188.9000;0.1986;7.2126;
1189.2000;0.1905;7.1916;
1189.5000;0.1962;7.2056;
1189.8000;0.1970;7.2219;
1190.1000;0.1970;7.2173;
1190.4000;0.1986;7.2359;
1190.7000;0.1970;7.2173;
1191.0000;0.1970;7.2126;
1191.3000;0.1962;7.2126;
1191.6000;0.1954;7.2196;
1191.9000;0.1954;7.2103;
1192.2000;0.1945;7.1939;
1192.5000;0.1954;7.2009;
1192.8000;0.1913;7.1823;
1193.1000;0.1954;7.1986;
1193.4000;0.1962;7.1893;
1193.7000;0.1962;7.1893;
1194.0000;0.1954;7.1846;
1194.3000;0.1962;7.1893;
1194.6000;0.1970;7.1916;
1194.9000;0.1880;7.1800;
1195.2000;0.1962;7.1939;
1195.5000;0.1978;7.1963;
1195.8000;0.1945;7.1963;
1196.1000;0.1954;7.1986;
1196.4000;0.1954;7.1986;
1196.7000;0.1945;7.2033;
1197.0000;0.1962;7.2033;
1197.3000;0.1962;7.2079;
1197.6000;0.1970;7.2056;
1197.9000;0.1962;7.2056;
1198.2000;0.1970;7.1986;
1198.5000;0.1954;7.1870;
1198.8000;0.1962;7.1870;
1199.1000;0.1962;7.1893;
1199.4000;0.1954;7.1916;
1199.7000;0.1986;7.2079;
1200.0000;0.2076;7.2336;
1200.3000;0.1945;7.2103;
1200.6000;0.1937;7.2033;
1200.9000;0.1937;7.2079;
1201.2000;0.1978;7.2079;
1201.5000;0.1954;7.2033;
1201.8000;0.1945;7.2056;
1202.1000;0.1994;7.2173;
1202.4000;0.1962;7.2056;
1202.7000;0.1978;7.2009;
1203.0000;0.1970;7.2009;
1203.3000;0.1937;7.1893;
1203.6000;0.1945;7.1893;
1203.9000;0.2051;7.2149;
1204.2000;0.1994;7.2079;
1204.5000;0.1994;7.2126;
1204.8000;0.1937;7.2079;
1205.1000;0.1937;7.2079;
1205.4000;0.2019;7.2266;
1205.7000;0.1962;7.2173;
1206.0000;0.1945;7.2079;
1206.3000;0.1978;7.2196;
1206.6000;0.1954;7.2079;
1206.9000;0.1937;7.2079;
1207.2000;0.1978;7.2033;
1207.5000;0.1994;7.2126;
1207.8000;0.1954;7.2079;
1208.1000;0.1945;7.2009;
1208.4000;0.1897;7.1916;
1208.7000;0.1945;7.2056;
1209.0000;0.1937;7.1986;
1209.3000;0.1954;7.2056;
1209.6000;0.1970;7.2196;
1209.9000;0.1913;7.2056;
1210.2000;0.2051;7.2336;
1210.5000;0.1962;7.2103;
1210.8000;0.1962;7.2126;
1211.1000;0.1929;7.2009;
1211.4000;0.1954;7.2033;
1211.7000;0.1954;7.2079;
1212.0000;0.2019;7.2312;
1212.3000;0.1937;7.2173;
1212.6000;0.1945;7.2173;
1212.9000;0.1905;7.2079;
1213.2000;0.1929;7.2149;
1213.5000;0.1954;7.2149;
1213.8000;0.1954;7.2196;
1214.1000;0.1970;7.2173;
1214.4000;0.1978;7.2126;
1214.7000;0.1954;7.2149;
1215.0000;0.1970;7.2173;
1215.3000;0.2019;7.2312;
1215.6000;0.1962;7.2126;
1215.9000;0.1962;7.2126;
1216.2000;0.1888;7.1939;
1216.5000;0.1962;7.2126;
1216.8000;0.1962;7.2033;
1217.1000;0.1986;7.2126;
1217.4000;0.1970;7.2056;
1217.7000;0.1937;7.1939;
1218.0000;0.1954;7.1939;
1218.3000;0.1945;7.2079;
1218.6000;0.1978;7.2149;
1218.9000;0.1970;7.2126;
1219.2000;0.1962;7.2079;
1219.5000;0.1970;7.2126;
1219.8000;0.1986;7.2289;
1220.1000;0.1962;7.2312;
1220.4000;0.1970;7.2242;
1220.7000;0.1962;7.2196;
1221.0000;0.1986;7.2126;
1221.3000;0.1978;7.2079;
1221.6000;0.1994;7.1986;
1221.9000;0.1962;7.1823;
1222.2000;0.1970;7.1846;
1222.5000;0.1937;7.1870;
1222.8000;0.1945;7.1963;
1223.1000;0.1978;7.1986;
1223.4000;0.1970;7.2079;
1223.7000;0.1962;7.2149;
1224.0000;0.1986;7.2126;
1224.3000;0.1945;7.2056;
1224.6000;0.1962;7.2009;
1224.9000;0.1921;7.1893;
1225.2000;0.1986;7.2079;
1225.5000;0.1962;7.2149;
1225.8000;0.1970;7.2196;
1226.1000;0.1978;7.2149;
1226.4000;0.1970;7.2196;
1226.7000;0.1986;7.2196;
1227.0000;0.1978;7.2289;
1227.3000;0.1954;7.2242;
1227.6000;0.1929;7.2196;
1227.9000;0.1962;7.2196;
1228.2000;0.1962;7.2126;
1228.5000;0.1978;7.2196;
1228.8000;0.1962;7.2219;
1229.1000;0.2043;7.2452;
1229.4000;0.2019;7.2312;
1229.7000;0.1970;7.2219;
1230.0000;0.1962;7.2219;
1230.3000;0.1962;7.2219;
1230.6000;0.1962;7.2266;
1230.9000;0.1905;7.2103;
1231.2000;0.1970;7.2196;
1231.5000;0.1905;7.1963;
1231.8000;0.1962;7.2149;
1232.1000;0.2068;7.2336;
1232.4000;0.1929;7.2009;
1232.7000;0.1945;7.2126;
1233.0000;0.1962;7.2219;
1233.3000;0.1962;7.2312;
1233.6000;0.1954;7.2266;
1233.9000;0.1970;7.2126;
1234.2000;0.1994;7.2173;
1234.5000;0.1986;7.2219;
1234.8000;0.1970;7.2242;
1235.1000;0.1970;7.2382;
1235.4000;0.1978;7.2382;
1235.7000;0.1978;7.2336;
1236.0000;0.1962;7.2196;
1236.3000;0.1962;7.2173;
1236.6000;0.1945;7.2079;
1236.9000;0.1986;7.2196;
1237.2000;0.1962;7.2103;
1237.5000;0.1945;7.1986;
1237.8000;0.1954;7.2056;
1238.1000;0.1970;7.1986;
1238.4000;0.1970;7.1963;
1238.7000;0.1994;7.2056;
1239.0000;0.1937;7.1939;
1239.3000;0.1970;7.2033;
1239.6000;0.1986;7.2149;
1239.9000;0.1986;7.2173;
1240.2000;0.1937;7.2103;
1240.5000;0.1970;7.2173;
1240.8000;0.1954;7.2103;
1241.1000;0.1978;7.2079;
1241.4000;0.1962;7.2126;
1241.7000;0.1945;7.2056;
1242.0000;0.1978;7.2149;
1242.3000;0.1962;7.2149;
1242.6000;0.1970;7.2033;
1242.9000;0.1954;7.1963;
1243.2000;0.1954;7.2009;
1243.5000;0.1954;7.2033;
1243.8000;0.1978;7.2056;
1244.1000;0.1954;7.2056;
1244.4000;0.1978;7.2149;
1244.7000;0.1994;7.2149;
1245.0000;0.2027;7.2196;
1245.3000;0.2002;7.2219;
1245.6000;0.1970;7.2242;
1245.9000;0.1986;7.2266;
1246.2000;0.1970;7.2312;
1246.5000;0.2019;7.2382;
1246.8000;0.1994;7.2266;
1247.1000;0.1945;7.2196;
1247.4000;0.1962;7.2196;
1247.7000;0.1970;7.2242;
1248.0000;0.1978;7.2242;
1248.3000;0.1962;7.2242;
1248.6000;0.1970;7.2149;
1248.9000;0.1970;7.2103;
1249.2000;0.1970;7.2126;
1249.5000;0.1945;7.2009;
1249.8000;0.2019;7.2173;
1250.1000;0.1962;7.2103;
1250.4000;0.1962;7.2079;
1250.7000;0.1954;7.2079;
1251.0000;0.1970;7.2149;
1251.3000;0.1962;7.2126;
1251.6000;0.1954;7.2219;
1251.9000;0.1962;7.2242;
1252.2000;0.1962;7.2336;
1252.5000;0.1945;7.2266;
1252.8000;0.1962;7.2336;
1253.1000;0.1945;7.2219;
1253.4000;0.1954;7.2173;
1253.7000;0.2011;7.2266;
1254.0000;0.1962;7.2242;
1254.3000;0.1970;7.2266;
1254.6000;0.1954;7.2196;
1254.9000;0.1954;7.2219;
1255.2000;0.1954;7.2173;
1255.5000;0.1970;7.2242;
1255.8000;0.1970;7.2196;
1256.1000;0.1921;7.2009;
1256.4000;0.1962;7.2079;
1256.7000;0.1945;7.2056;
1257.0000;0.1962;7.2126;
1257.3000;0.1970;7.2126;
1257.6000;0.1937;7.2033;
1257.9000;0.1970;7.2196;
1258.2000;0.1945;7.2079;
1258.5000;0.1978;7.2126;
1258.8000;0.1937;7.2033;
1259.1000;0.1962;7.2149;
1259.4000;0.1962;7.2126;
1259.7000;0.2002;7.2242;
1260.0000;0.1994;7.2173;
1260.3000;0.1970;7.2149;
1260.6000;0.1954;7.2149;
1260.9000;0.1978;7.2149;
1261.2000;0.1970;7.2173;
1261.5000;0.1970;7.2173;
1261.8000;0.1954;7.2079;
1262.1000;0.1954;7.2033;
1262.4000;0.1970;7.1986;
1262.7000;0.2019;7.2126;
1263.0000;0.1954;7.2056;
1263.3000;0.1954;7.1963;
1263.6000;0.1962;7.1986;
1263.9000;0.1978;7.2056;
1264.2000;0.1954;7.2009;
1264.5000;0.1962;7.2079;
1264.8000;0.1978;7.2126;
1265.1000;0.1970;7.2009;
1265.4000;0.1978;7.2033;
1265.7000;0.1962;7.1963;
1266.0000;0.1954;7.2009;
1266.3000;0.1921;7.1939;
1266.6000;0.1954;7.1986;
1266.9000;0.1945;7.2033;
1267.2000;0.1970;7.2033;
1267.5000;0.1970;7.1939;
1267.8000;0.1945;7.1916;
1268.1000;0.1954;7.1893;
1268.4000;0.1945;7.1893;
1268.7000;0.1978;7.1939;
1269.0000;0.1929;7.1800;
1269.3000;0.1921;7.1823;
1269.6000;0.1962;7.2009;
1269.9000;0.1978;7.2079;
1270.2000;0.2002;7.2149;
1270.5000;0.1921;7.2033;
1270.8000;0.1970;7.2103;
1271.1000;0.1970;7.2149;
1271.4000;0.1962;7.2126;
1271.7000;0.1945;7.2103;
1272.0000;0.1937;7.2079;
1272.3000;0.1970;7.2149;
1272.6000;0.1962;7.2219;
1272.9000;0.1954;7.2219;
1273.2000;0.1970;7.2242;
1273.5000;0.1970;7.2219;
1273.8000;0.1929;7.2033;
1274.1000;0.1954;7.2009;
1274.4000;0.1954;7.2079;
1274.7000;0.1921;7.1986;
1275.0000;0.1970;7.2103;
1275.3000;0.1962;7.2079;
1275.6000;0.1954;7.2126;
1275.9000;0.1937;7.2173;
1276.2000;0.1978;7.2219;
1276.5000;0.1954;7.2126;
1276.8000;0.1945;7.2173;
1277.1000;0.1937;7.2219;
1277.4000;0.1937;7.2149;
1277.7000;0.1970;7.2196;
1278.0000;0.1945;7.2266;
1278.3000;0.2035;7.2475;
1278.6000;0.1954;7.2149;
1278.9000;0.1954;7.2196;
1279.2000;0.1937;7.2149;
1279.5000;0.1962;7.2289;
1279.8000;0.1937;7.2196;
1280.1000;0.1962;7.2359;
1280.4000;0.1970;7.2406;
1280.7000;0.1962;7.2359;
1281.0000;0.1978;7.2336;
1281.3000;0.1962;7.2336;
1281.6000;0.1929;7.2242;
1281.9000;0.1954;7.2359;
1282.2000;0.1929;7.2336;
1282.5000;0.1986;7.2406;
1282.8000;0.1970;7.2312;
1283.1000;0.1970;7.2312;
1283.4000;0.2002;7.2429;
1283.7000;0.1986;7.2429;
1284.0000;0.1978;7.2406;
1284.3000;0.1962;7.2312;
1284.6000;0.2002;7.2429;
1284.9000;0.1978;7.2359;
1285.2000;0.1954;7.2359;
1285.5000;0.1970;7.2382;
1285.8000;0.1994;7.2406;
1286.1000;0.1970;7.2242;
1286.4000;0.1962;7.2219;
1286.7000;0.1954;7.2196;
1287.0000;0.1954;7.2126;
1287.3000;0.1954;7.2079;
1287.6000;0.1962;7.2149;
1287.9000;0.1970;7.2242;
1288.2000;0.1954;7.2126;
1288.5000;0.1954;7.2126;
1288.8000;0.1954;7.1986;
1289.1000;0.1945;7.1963;
1289.4000;0.1962;7.2009;
1289.7000;0.1970;7.1963;
1290.0000;0.1962;7.1939;
1290.3000;0.1978;7.2126;
1290.6000;0.1970;7.1963;
1290.9000;0.1994;7.2149;
1291.2000;0.1978;7.2079;
1291.5000;0.1970;7.2126;
1291.8000;0.2002;7.2242;
1292.1000;0.1954;7.2079;
1292.4000;0.1954;7.2149;
1292.7000;0.1962;7.2196;
1293.0000;0.1954;7.2289;
1293.3000;0.1937;7.2219;
1293.6000;0.1945;7.2219;
1293.9000;0.1864;7.1916;
1294.2000;0.1954;7.2173;
1294.5000;0.1962;7.2219;
1294.8000;0.1962;7.2266;
1295.1000;0.1962;7.2266;
1295.4000;0.1954;7.2126;
1295.7000;0.1945;7.2149;
1296.0000;0.1913;7.2103;
1296.3000;0.1962;7.2266;
1296.6000;0.1954;7.2103;
1296.9000;0.1954;7.2126;
1297.2000;0.1954;7.2173;
1297.5000;0.1970;7.2173;
1297.8000;0.2027;7.2289;
1298.1000;0.1970;7.2149;
1298.4000;0.1962;7.2126;
1298.7000;0.1954;7.2149;
1299.0000;0.1945;7.2242;
1299.3000;0.1954;7.2266;
1299.6000;0.1954;7.2126;
1299.9000;0.1954;7.2033;
1300.2000;0.1994;7.2103;
1300.5000;0.1962;7.2009;
1300.8000;0.1970;7.2033;
1301.1000;0.1937;7.1963;
1301.4000;0.1970;7.2033;
1301.7000;0.1945;7.2079;
1302.0000;0.1994;7.2173;
1302.3000;0.1954;7.2056;
1302.6000;0.1954;7.2103;
1302.9000;0.1962;7.2149;
1303.2000;0.1970;7.2149;
1303.5000;0.1962;7.2103;
1303.8000;0.1954;7.2009;
1304.1000;0.1978;7.2033;
1304.4000;0.1962;7.2009;
1304.7000;0.1954;7.1963;
1305.0000;0.1962;7.1986;
1305.3000;0.2002;7.2056;
1305.6000;0.1978;7.1963;
1305.9000;0.1978;7.2009;
1306.2000;0.1978;7.2056;
1306.5000;0.1954;7.2126;
1306.8000;0.1937;7.2056;
1307.1000;0.1970;7.2126;
1307.4000;0.1978;7.2149;
1307.7000;0.1929;7.2103;
1308.0000;0.1945;7.2149;
1308.3000;0.1986;7.2242;
1308.6000;0.1970;7.2242;
1308.9000;0.1970;7.2219;
1309.2000;0.1978;7.2242;
1309.5000;0.1978;7.2219;
1309.8000;0.1962;7.2173;
1310.1000;0.1921;7.2033;
1310.4000;0.1962;7.2103;
1310.7000;0.1954;7.2196;
1311.0000;0.1945;7.2173;
1311.3000;0.1945;7.2196;
1311.6000;0.1962;7.2149;
1311.9000;0.1962;7.2103;
1312.2000;0.1962;7.2079;
1312.5000;0.1954;7.2126;
1312.8000;0.1937;7.2103;
1313.1000;0.1945;7.2126;
1313.4000;0.1962;7.2126;
1313.7000;0.1978;7.2149;
1314.0000;0.1970;7.2173;
1314.3000;0.1962;7.2149;
1314.6000;0.1954;7.2103;
1314.9000;0.1970;7.2149;
1315.2000;0.1945;7.2149;
1315.5000;0.1970;7.2103;
1315.8000;0.2084;7.2429;
1316.1000;0.1962;7.2033;
1316.4000;0.1986;7.2009;
1316.7000;0.1994;7.2056;
1317.0000;0.1978;7.2033;
1317.3000;0.1962;7.2149;
1317.6000;0.1970;7.2196;
1317.9000;0.1994;7.2336;
1318.2000;0.1986;7.2289;
1318.5000;0.1970;7.2219;
1318.8000;0.1954;7.1986;
1319.1000;0.1962;7.1986;
1319.4000;0.1986;7.2126;
1319.7000;0.1978;7.2242;
1320.0000;0.2027;7.2359;
1320.3000;0.1921;7.2149;
1320.6000;0.1986;7.2266;
1320.9000;0.1978;7.2289;
1321.2000;0.1986;7.2289;
1321.5000;0.1962;7.2219;
1321.8000;0.1970;7.2173;
1322.1000;0.2019;7.2266;
1322.4000;0.1970;7.2173;
1322.7000;0.1945;7.2149;
1323.0000;0.1962;7.2242;
1323.3000;0.1970;7.2312;
1323.6000;0.1970;7.2219;
1323.9000;0.1970;7.2196;
1324.2000;0.1937;7.2126;
1324.5000;0.1962;7.2289;
1324.8000;0.1962;7.2196;
1325.1000;0.1970;7.2336;
1325.4000;0.1962;7.2173;
1325.7000;0.1978;7.2126;
1326.0000;0.1962;7.2196;
1326.3000;0.1978;7.2266;
1326.6000;0.1954;7.2126;
1326.9000;0.1962;7.2149;
1327.2000;0.1978;7.2173;
1327.5000;0.1970;7.2056;
1327.8000;0.1978;7.2126;
1328.1000;0.2035;7.2289;
1328.4000;0.1945;7.2056;
1328.7000;0.1945;7.1963;
1329.0000;0.1962;7.2056;
1329.3000;0.1945;7.2009;
1329.6000;0.2002;7.2173;
1329.9000;0.1962;7.2103;
1330.2000;0.1978;7.2103;
1330.5000;0.2019;7.2242;
1330.8000;0.1970;7.2079;
1331.1000;0.1978;7.2126;
1331.4000;0.1945;7.2009;
1331.7000;0.2011;7.2149;
1332.0000;0.1937;7.1939;
1332.3000;0.2043;7.2289;
1332.6000;0.1978;7.2173;
1332.9000;0.1921;7.2079;
1333.2000;0.1945;7.2126;
1333.5000;0.1945;7.2103;
1333.8000;0.2011;7.2196;
1334.1000;0.1945;7.1916;
1334.4000;0.1937;7.1963;
1334.7000;0.1937;7.2079;
1335.0000;0.1962;7.2126;
1335.3000;0.1937;7.2056;
1335.6000;0.1937;7.2033;
1335.9000;0.1921;7.2009;
1336.2000;0.1954;7.2196;
1336.5000;0.1937;7.2173;
1336.8000;0.1937;7.2149;
1337.1000;0.1921;7.2126;
1337.4000;0.1954;7.2196;
1337.7000;0.1945;7.2196;
1338.0000;0.1945;7.2196;
1338.3000;0.1954;7.2103;
1338.6000;0.1962;7.2079;
1338.9000;0.1978;7.2056;
1339.2000;0.1970;7.2009;
1339.5000;0.1937;7.1800;
1339.8000;0.1905;7.1776;
1340.1000;0.1945;7.1916;
1340.4000;0.1962;7.2009;
1340.7000;0.1962;7.2103;
1341.0000;0.1970;7.2056;
1341.3000;0.1994;7.2056;
1341.6000;0.1954;7.1963;
1341.9000;0.1970;7.2056;
1342.2000;0.1937;7.2126;
1342.5000;0.1937;7.2173;
1342.8000;0.1937;7.2149;
1343.1000;0.1954;7.2033;
1343.4000;0.1962;7.2009;
1343.7000;0.1962;7.1986;
1344.0000;0.1929;7.1963;
1344.3000;0.1937;7.2033;
1344.6000;0.1978;7.2242;
1344.9000;0.1978;7.2196;
1345.2000;0.1970;7.2079;
1345.5000;0.1962;7.2009;
1345.8000;0.1962;7.2033;
1346.1000;0.1945;7.2033;
1346.4000;0.1954;7.2056;
1346.7000;0.1897;7.1870;
1347.0000;0.1945;7.2009;
1347.3000;0.1970;7.2056;
1347.6000;0.1970;7.2079;
1347.9000;0.1986;7.2149;
1348.2000;0.1897;7.1939;
1348.5000;0.1954;7.2196;
1348.8000;0.1954;7.2173;
1349.1000;0.1945;7.2126;
1349.4000;0.1954;7.2079;
1349.7000;0.1945;7.2196;
1350.0000;0.1954;7.2173;
1350.3000;0.1954;7.2079;
1350.6000;0.1970;7.2056;
1350.9000;0.1970;7.1986;
1351.2000;0.1986;7.1870;
1351.5000;0.1954;7.1776;
1351.8000;0.1970;7.1823;
1352.1000;0.1978;7.1823;
1352.4000;0.1962;7.1823;
1352.7000;0.1962;7.1916;
1353.0000;0.1986;7.2079;
1353.3000;0.2051;7.2266;
1353.6000;0.2019;7.2242;
1353.9000;0.1962;7.2079;
1354.2000;0.1962;7.2009;
1354.5000;0.1954;7.1963;
1354.8000;0.1978;7.1939;
1355.1000;0.1962;7.1963;
1355.4000;0.1994;7.2079;
1355.7000;0.1978;7.1963;
1356.0000;0.1970;7.1986;
1356.3000;0.1929;7.1986;
1356.6000;0.1962;7.2033;
1356.9000;0.1954;7.2033;
1357.2000;0.1962;7.2079;
1357.5000;0.2011;7.2149;
1357.8000;0.1954;7.1963;
1358.1000;0.1978;7.2056;
1358.4000;0.1945;7.2009;
1358.7000;0.1945;7.1986;
1359.0000;0.1970;7.2009;
1359.3000;0.1954;7.1916;
1359.6000;0.1962;7.1846;
1359.9000;0.1962;7.1846;
1360.2000;0.1970;7.1846;
1360.5000;0.1954;7.1870;
1360.8000;0.1970;7.1916;
1361.1000;0.1962;7.2033;
1361.4000;0.1970;7.2103;
1361.7000;0.1945;7.2079;
1362.0000;0.1921;7.2103;
1362.3000;0.1945;7.2079;
1362.6000;0.1954;7.2149;
1362.9000;0.1970;7.2266;
1363.2000;0.1945;7.2103;
1363.5000;0.1970;7.2219;
1363.8000;0.1970;7.2126;
1364.1000;0.1962;7.2103;
1364.4000;0.1970;7.2033;
1364.7000;0.1962;7.1939;
1365.0000;0.1954;7.1916;
1365.3000;0.1978;7.1963;
1365.6000;0.1970;7.1986;
1365.9000;0.1962;7.1893;
1366.2000;0.1954;7.1916;
1366.5000;0.1978;7.2126;
1366.8000;0.1978;7.2219;
1367.1000;0.1954;7.2173;
1367.4000;0.1954;7.2336;
1367.7000;0.1954;7.2289;
1368.0000;0.1970;7.2266;
1368.3000;0.1954;7.2242;
1368.6000;0.1945;7.2242;
1368.9000;0.2002;7.2406;
1369.2000;0.1970;7.2336;
1369.5000;0.1962;7.2312;
1369.8000;0.1962;7.2336;
1370.1000;0.1962;7.2266;
1370.4000;0.1962;7.2242;
1370.7000;0.1962;7.2173;
1371.0000;0.1962;7.2149;
1371.3000;0.1945;7.2149;
1371.6000;0.1962;7.2149;
1371.9000;0.1913;7.2009;
1372.2000;0.1954;7.2103;
1372.5000;0.1945;7.2242;
1372.8000;0.1962;7.2196;
1373.1000;0.1945;7.2126;
1373.4000;0.1954;7.2126;
1373.7000;0.1945;7.2056;
1374.0000;0.1945;7.2009;
1374.3000;0.1954;7.2173;
1374.6000;0.1945;7.2196;
1374.9000;0.1954;7.2173;
1375.2000;0.1962;7.2219;
1375.5000;0.1962;7.2126;
1375.8000;0.1978;7.2173;
1376.1000;0.1954;7.2079;
1376.4000;0.1945;7.2033;
1376.7000;0.1954;7.2126;
1377.0000;0.1970;7.2196;
1377.3000;0.2002;7.2219;
1377.6000;0.1962;7.2242;
1377.9000;0.1945;7.2149;
1378.2000;0.1897;7.2173;
1378.5000;0.1872;7.2079;
1378.8000;0.1945;7.2266;
1379.1000;0.1962;7.2289;
1379.4000;0.1970;7.2406;
1379.7000;0.1954;7.2359;
1380.0000;0.1986;7.2382;
1380.3000;0.1954;7.2382;
1380.6000;0.1970;7.2406;
1380.9000;0.1986;7.2382;
1381.2000;0.1962;7.2266;
1381.5000;0.1921;7.2196;
1381.8000;0.1962;7.2406;
1382.1000;0.1970;7.2382;
1382.4000;0.1897;7.2126;
1382.7000;0.1970;7.2242;
1383.0000;0.2027;7.2406;
1383.3000;0.1937;7.2126;
1383.6000;0.1945;7.2126;
1383.9000;0.1978;7.2219;
1384.2000;0.1970;7.2196;
1384.5000;0.1962;7.2219;
1384.8000;0.1954;7.2196;
1385.1000;0.1905;7.2033;
1385.4000;0.1970;7.2242;
1385.7000;0.1978;7.2266;
1386.0000;0.1954;7.2266;
1386.3000;0.1962;7.2219;
1386.6000;0.1937;7.2149;
1386.9000;0.1945;7.2196;
1387.2000;0.1945;7.2196;
1387.5000;0.1929;7.2219;
1387.8000;0.1945;7.2242;
1388.1000;0.1945;7.2149;
1388.4000;0.1937;7.2149;
1388.7000;0.1954;7.2242;
1389.0000;0.1856;7.1916;
1389.3000;0.1954;7.2149;
1389.6000;0.1945;7.2079;
1389.9000;0.1954;7.2103;
1390.2000;0.1994;7.2289;
1390.5000;0.1970;7.2173;
1390.8000;0.1970;7.2173;
1391.1000;0.2043;7.2382;
1391.4000;0.1954;7.2242;
1391.7000;0.1962;7.2289;
1392.0000;0.1962;7.2266;
1392.3000;0.1937;7.2289;
1392.6000;0.1954;7.2266;
1392.9000;0.1962;7.2336;
1393.2000;0.1978;7.2359;
1393.5000;0.1986;7.2382;
1393.8000;0.1962;7.2266;
1394.1000;0.1954;7.2126;
1394.4000;0.1970;7.2103;
1394.7000;0.1954;7.2009;
1395.0000;0.1937;7.1986;
1395.3000;0.1929;7.2056;
1395.6000;0.1962;7.2149;
1395.9000;0.1945;7.2173;
1396.2000;0.1897;7.1986;
1396.5000;0.1986;7.2173;
1396.8000;0.1954;7.2103;
1397.1000;0.1962;7.2103;
1397.4000;0.1970;7.2056;
1397.7000;0.1937;7.2009;
1398.0000;0.1970;7.2103;
1398.3000;0.1945;7.2033;
1398.6000;0.1970;7.2126;
1398.9000;0.1954;7.2103;
1399.2000;0.1962;7.2126;
1399.5000;0.1970;7.2196;
1399.8000;0.1945;7.2266;
