time/ms;Fluo/V;P700 deltaI/I x10³;
-199.8000;0.6716;1.2934;
-199.5000;0.6642;1.2668;
-199.2000;0.6675;1.2717;
-198.9000;0.6691;1.2717;
-198.6000;0.6691;1.2837;
-198.3000;0.6691;1.2837;
-198.0000;0.6699;1.2910;
-197.7000;0.6756;1.3007;
-197.4000;0.6691;1.2934;
-197.1000;0.6691;1.2958;
-196.8000;0.6716;1.2982;
-196.5000;0.6699;1.2982;
-196.2000;0.6764;1.3079;
-195.9000;0.6732;1.3079;
-195.6000;0.6691;1.2982;
-195.3000;0.6764;1.3152;
-195.0000;0.6707;1.3007;
-194.7000;0.6740;1.3031;
-194.4000;0.6691;1.2910;
-194.1000;0.6772;1.3103;
-193.8000;0.6699;1.2886;
-193.5000;0.6691;1.2837;
-193.2000;0.6691;1.2813;
-192.9000;0.6724;1.2958;
-192.6000;0.6716;1.2813;
-192.3000;0.6699;1.2789;
-192.0000;0.6675;1.2668;
-191.7000;0.6699;1.2692;
-191.4000;0.6716;1.2741;
-191.1000;0.6667;1.2620;
-190.8000;0.6699;1.2741;
-190.5000;0.6756;1.2958;
-190.2000;0.6716;1.2837;
-189.9000;0.6724;1.2862;
-189.6000;0.6683;1.2765;
-189.3000;0.6699;1.2837;
-189.0000;0.6716;1.2934;
-188.7000;0.6691;1.2934;
-188.4000;0.6675;1.2982;
-188.1000;0.6691;1.3079;
-187.8000;0.6707;1.3103;
-187.5000;0.6699;1.3103;
-187.2000;0.6707;1.3128;
-186.9000;0.6716;1.3055;
-186.6000;0.6675;1.2958;
-186.3000;0.6756;1.3176;
-186.0000;0.6691;1.2958;
-185.7000;0.6707;1.2934;
-185.4000;0.6707;1.2862;
-185.1000;0.6716;1.2862;
-184.8000;0.6772;1.3007;
-184.5000;0.6707;1.2813;
-184.2000;0.6716;1.2765;
-183.9000;0.6691;1.2620;
-183.6000;0.6699;1.2668;
-183.3000;0.6691;1.2668;
-183.0000;0.6683;1.2765;
-182.7000;0.6699;1.2765;
-182.4000;0.6691;1.2765;
-182.1000;0.6707;1.2765;
-181.8000;0.6716;1.2813;
-181.5000;0.6716;1.2886;
-181.2000;0.6699;1.2862;
-180.9000;0.6659;1.2789;
-180.6000;0.6716;1.2934;
-180.3000;0.6634;1.2741;
-180.0000;0.6691;1.2958;
-179.7000;0.6699;1.2982;
-179.4000;0.6659;1.2910;
-179.1000;0.6683;1.3103;
-178.8000;0.6699;1.3152;
-178.5000;0.6691;1.3007;
-178.2000;0.6707;1.2982;
-177.9000;0.6707;1.2982;
-177.6000;0.6699;1.2910;
-177.3000;0.6716;1.2886;
-177.0000;0.6724;1.2813;
-176.7000;0.6724;1.2813;
-176.4000;0.6716;1.2789;
-176.1000;0.6716;1.2789;
-175.8000;0.6707;1.2765;
-175.5000;0.6699;1.2837;
-175.2000;0.6707;1.2886;
-174.9000;0.6699;1.2717;
-174.6000;0.6683;1.2596;
-174.3000;0.6683;1.2596;
-174.0000;0.6707;1.2644;
-173.7000;0.6675;1.2620;
-173.4000;0.6707;1.2692;
-173.1000;0.6691;1.2765;
-172.8000;0.6667;1.2668;
-172.5000;0.6699;1.2668;
-172.2000;0.6716;1.2668;
-171.9000;0.6675;1.2668;
-171.6000;0.6675;1.2692;
-171.3000;0.6699;1.2765;
-171.0000;0.6724;1.2813;
-170.7000;0.6707;1.2717;
-170.4000;0.6707;1.2668;
-170.1000;0.6691;1.2717;
-169.8000;0.6724;1.2668;
-169.5000;0.6748;1.2668;
-169.2000;0.6707;1.2620;
-168.9000;0.6683;1.2499;
-168.6000;0.6716;1.2572;
-168.3000;0.6691;1.2644;
-168.0000;0.6691;1.2741;
-167.7000;0.6699;1.2668;
-167.4000;0.6740;1.2813;
-167.1000;0.6691;1.2644;
-166.8000;0.6675;1.2620;
-166.5000;0.6732;1.2813;
-166.2000;0.6634;1.2547;
-165.9000;0.6789;1.2982;
-165.6000;0.6716;1.2717;
-165.3000;0.6707;1.2692;
-165.0000;0.6691;1.2668;
-164.7000;0.6707;1.2717;
-164.4000;0.6707;1.2741;
-164.1000;0.6691;1.2765;
-163.8000;0.6675;1.2765;
-163.5000;0.6691;1.2741;
-163.2000;0.6659;1.2668;
-162.9000;0.6667;1.2668;
-162.6000;0.6675;1.2692;
-162.3000;0.6683;1.2717;
-162.0000;0.6699;1.2741;
-161.7000;0.6691;1.2741;
-161.4000;0.6691;1.2692;
-161.1000;0.6699;1.2789;
-160.8000;0.6716;1.2837;
-160.5000;0.6707;1.2886;
-160.2000;0.6716;1.2910;
-159.9000;0.6675;1.2934;
-159.6000;0.6707;1.3007;
-159.3000;0.6707;1.2982;
-159.0000;0.6683;1.2813;
-158.7000;0.6691;1.2789;
-158.4000;0.6707;1.2837;
-158.1000;0.6707;1.2862;
-157.8000;0.6691;1.2837;
-157.5000;0.6667;1.2765;
-157.2000;0.6691;1.2717;
-156.9000;0.6675;1.2620;
-156.6000;0.6716;1.2668;
-156.3000;0.6716;1.2668;
-156.0000;0.6724;1.2692;
-155.7000;0.6716;1.2765;
-155.4000;0.6716;1.2765;
-155.1000;0.6789;1.2958;
-154.8000;0.6716;1.2692;
-154.5000;0.6716;1.2741;
-154.2000;0.6724;1.2837;
-153.9000;0.6716;1.2741;
-153.6000;0.6716;1.2741;
-153.3000;0.6699;1.2717;
-153.0000;0.6699;1.2717;
-152.7000;0.6691;1.2741;
-152.4000;0.6691;1.2765;
-152.1000;0.6691;1.2741;
-151.8000;0.6699;1.2765;
-151.5000;0.6675;1.2717;
-151.2000;0.6691;1.2717;
-150.9000;0.6699;1.2644;
-150.6000;0.6691;1.2620;
-150.3000;0.6699;1.2596;
-150.0000;0.6707;1.2572;
-149.7000;0.6707;1.2596;
-149.4000;0.6691;1.2668;
-149.1000;0.6724;1.2789;
-148.8000;0.6683;1.2668;
-148.5000;0.6683;1.2620;
-148.2000;0.6691;1.2644;
-147.9000;0.6699;1.2547;
-147.6000;0.6732;1.2692;
-147.3000;0.6683;1.2596;
-147.0000;0.6691;1.2596;
-146.7000;0.6724;1.2717;
-146.4000;0.6699;1.2717;
-146.1000;0.6707;1.2741;
-145.8000;0.6691;1.2620;
-145.5000;0.6699;1.2668;
-145.2000;0.6675;1.2596;
-144.9000;0.6732;1.2789;
-144.6000;0.6699;1.2668;
-144.3000;0.6659;1.2499;
-144.0000;0.6724;1.2717;
-143.7000;0.6659;1.2523;
-143.4000;0.6691;1.2620;
-143.1000;0.6683;1.2596;
-142.8000;0.6764;1.2765;
-142.5000;0.6691;1.2668;
-142.2000;0.6691;1.2668;
-141.9000;0.6699;1.2717;
-141.6000;0.6699;1.2765;
-141.3000;0.6707;1.2717;
-141.0000;0.6740;1.2862;
-140.7000;0.6659;1.2572;
-140.4000;0.6740;1.2741;
-140.1000;0.6650;1.2547;
-139.8000;0.6699;1.2741;
-139.5000;0.6797;1.2982;
-139.2000;0.6650;1.2572;
-138.9000;0.6756;1.2837;
-138.6000;0.6707;1.2717;
-138.3000;0.6691;1.2620;
-138.0000;0.6650;1.2499;
-137.7000;0.6642;1.2499;
-137.4000;0.6683;1.2572;
-137.1000;0.6691;1.2620;
-136.8000;0.6724;1.2789;
-136.5000;0.6716;1.2596;
-136.2000;0.6699;1.2644;
-135.9000;0.6724;1.2789;
-135.6000;0.6724;1.2910;
-135.3000;0.6707;1.2837;
-135.0000;0.6707;1.2862;
-134.7000;0.6691;1.2837;
-134.4000;0.6724;1.2886;
-134.1000;0.6699;1.2741;
-133.8000;0.6707;1.2717;
-133.5000;0.6699;1.2620;
-133.2000;0.6691;1.2644;
-132.9000;0.6691;1.2596;
-132.6000;0.6691;1.2596;
-132.3000;0.6691;1.2644;
-132.0000;0.6691;1.2620;
-131.7000;0.6683;1.2523;
-131.4000;0.6724;1.2644;
-131.1000;0.6683;1.2475;
-130.8000;0.6675;1.2547;
-130.5000;0.6707;1.2668;
-130.2000;0.6772;1.2837;
-129.9000;0.6683;1.2644;
-129.6000;0.6691;1.2717;
-129.3000;0.6691;1.2789;
-129.0000;0.6683;1.2741;
-128.7000;0.6699;1.2813;
-128.4000;0.6691;1.2765;
-128.1000;0.6691;1.2668;
-127.8000;0.6691;1.2620;
-127.5000;0.6683;1.2523;
-127.2000;0.6683;1.2475;
-126.9000;0.6707;1.2644;
-126.6000;0.6691;1.2596;
-126.3000;0.6707;1.2692;
-126.0000;0.6683;1.2644;
-125.7000;0.6650;1.2572;
-125.4000;0.6699;1.2523;
-125.1000;0.6716;1.2499;
-124.8000;0.6699;1.2499;
-124.5000;0.6699;1.2596;
-124.2000;0.6683;1.2572;
-123.9000;0.6716;1.2789;
-123.6000;0.6707;1.2741;
-123.3000;0.6732;1.2765;
-123.0000;0.6707;1.2789;
-122.7000;0.6699;1.2910;
-122.4000;0.6691;1.2910;
-122.1000;0.6659;1.2644;
-121.8000;0.6659;1.2644;
-121.5000;0.6691;1.2572;
-121.2000;0.6634;1.2451;
-120.9000;0.6699;1.2547;
-120.6000;0.6724;1.2523;
-120.3000;0.6691;1.2523;
-120.0000;0.6699;1.2572;
-119.7000;0.6716;1.2717;
-119.4000;0.6683;1.2692;
-119.1000;0.6626;1.2499;
-118.8000;0.6732;1.2837;
-118.5000;0.6699;1.2837;
-118.2000;0.6667;1.2741;
-117.9000;0.6699;1.2765;
-117.6000;0.6716;1.2910;
-117.3000;0.6691;1.2789;
-117.0000;0.6683;1.2765;
-116.7000;0.6667;1.2741;
-116.4000;0.6683;1.2765;
-116.1000;0.6699;1.2862;
-115.8000;0.6724;1.2862;
-115.5000;0.6772;1.2886;
-115.2000;0.6716;1.2789;
-114.9000;0.6691;1.2789;
-114.6000;0.6716;1.2862;
-114.3000;0.6699;1.2837;
-114.0000;0.6699;1.2813;
-113.7000;0.6707;1.2886;
-113.4000;0.6699;1.2789;
-113.1000;0.6675;1.2692;
-112.8000;0.6691;1.2741;
-112.5000;0.6691;1.2765;
-112.2000;0.6683;1.2692;
-111.9000;0.6667;1.2765;
-111.6000;0.6691;1.2862;
-111.3000;0.6659;1.2813;
-111.0000;0.6699;1.2862;
-110.7000;0.6707;1.2837;
-110.4000;0.6675;1.2692;
-110.1000;0.6675;1.2741;
-109.8000;0.6707;1.2837;
-109.5000;0.6707;1.2813;
-109.2000;0.6683;1.2765;
-108.9000;0.6683;1.2765;
-108.6000;0.6683;1.2886;
-108.3000;0.6691;1.2886;
-108.0000;0.6683;1.2910;
-107.7000;0.6707;1.2958;
-107.4000;0.6691;1.2862;
-107.1000;0.6699;1.2862;
-106.8000;0.6691;1.2910;
-106.5000;0.6707;1.2934;
-106.2000;0.6707;1.2934;
-105.9000;0.6699;1.2982;
-105.6000;0.6691;1.2958;
-105.3000;0.6667;1.2910;
-105.0000;0.6699;1.2982;
-104.7000;0.6707;1.3055;
-104.4000;0.6691;1.3007;
-104.1000;0.6683;1.2958;
-103.8000;0.6667;1.2886;
-103.5000;0.6699;1.2862;
-103.2000;0.6691;1.2692;
-102.9000;0.6699;1.2692;
-102.6000;0.6683;1.2644;
-102.3000;0.6675;1.2644;
-102.0000;0.6699;1.2572;
-101.7000;0.6716;1.2499;
-101.4000;0.6675;1.2475;
-101.1000;0.6683;1.2596;
-100.8000;0.6699;1.2644;
-100.5000;0.6642;1.2523;
-100.2000;0.6691;1.2692;
-99.9000;0.6716;1.2741;
-99.6000;0.6707;1.2717;
-99.3000;0.6732;1.2717;
-99.0000;0.6707;1.2596;
-98.7000;0.6707;1.2692;
-98.4000;0.6707;1.2717;
-98.1000;0.6707;1.2620;
-97.8000;0.6683;1.2572;
-97.5000;0.6699;1.2620;
-97.2000;0.6699;1.2692;
-96.9000;0.6683;1.2741;
-96.6000;0.6667;1.2717;
-96.3000;0.6707;1.2862;
-96.0000;0.6699;1.2886;
-95.7000;0.6724;1.3031;
-95.4000;0.6707;1.2934;
-95.1000;0.6683;1.2934;
-94.8000;0.6732;1.3007;
-94.5000;0.6691;1.2958;
-94.2000;0.6691;1.3007;
-93.9000;0.6691;1.3031;
-93.6000;0.6683;1.2934;
-93.3000;0.6683;1.2958;
-93.0000;0.6675;1.2910;
-92.7000;0.6683;1.2886;
-92.4000;0.6683;1.2862;
-92.1000;0.6691;1.2837;
-91.8000;0.6707;1.2837;
-91.5000;0.6675;1.2717;
-91.2000;0.6675;1.2765;
-90.9000;0.6691;1.2837;
-90.6000;0.6699;1.2862;
-90.3000;0.6699;1.2862;
-90.0000;0.6699;1.2789;
-89.7000;0.6691;1.2668;
-89.4000;0.6699;1.2789;
-89.1000;0.6764;1.2934;
-88.8000;0.6707;1.2862;
-88.5000;0.6699;1.2886;
-88.2000;0.6716;1.2886;
-87.9000;0.6756;1.2958;
-87.6000;0.6707;1.2837;
-87.3000;0.6699;1.2789;
-87.0000;0.6642;1.2620;
-86.7000;0.6707;1.2789;
-86.4000;0.6724;1.2813;
-86.1000;0.6724;1.2837;
-85.8000;0.6699;1.2837;
-85.5000;0.6707;1.2862;
-85.2000;0.6667;1.2741;
-84.9000;0.6650;1.2644;
-84.6000;0.6716;1.2813;
-84.3000;0.6691;1.2741;
-84.0000;0.6748;1.2837;
-83.7000;0.6642;1.2596;
-83.4000;0.6732;1.2862;
-83.1000;0.6707;1.2765;
-82.8000;0.6691;1.2692;
-82.5000;0.6667;1.2644;
-82.2000;0.6675;1.2620;
-81.9000;0.6675;1.2596;
-81.6000;0.6675;1.2620;
-81.3000;0.6683;1.2620;
-81.0000;0.6683;1.2765;
-80.7000;0.6691;1.2837;
-80.4000;0.6691;1.2789;
-80.1000;0.6691;1.2741;
-79.8000;0.6675;1.2717;
-79.5000;0.6691;1.2789;
-79.2000;0.6699;1.2813;
-78.9000;0.6724;1.2837;
-78.6000;0.6650;1.2692;
-78.3000;0.6716;1.2910;
-78.0000;0.6716;1.2886;
-77.7000;0.6707;1.2813;
-77.4000;0.6683;1.2765;
-77.1000;0.6716;1.2765;
-76.8000;0.6707;1.2741;
-76.5000;0.6740;1.2837;
-76.2000;0.6699;1.2741;
-75.9000;0.6667;1.2668;
-75.6000;0.6675;1.2741;
-75.3000;0.6699;1.2862;
-75.0000;0.6707;1.2886;
-74.7000;0.6659;1.2813;
-74.4000;0.6699;1.2837;
-74.1000;0.6707;1.2813;
-73.8000;0.6691;1.2789;
-73.5000;0.6716;1.2789;
-73.2000;0.6683;1.2644;
-72.9000;0.6699;1.2692;
-72.6000;0.6691;1.2620;
-72.3000;0.6699;1.2692;
-72.0000;0.6724;1.2813;
-71.7000;0.6699;1.2717;
-71.4000;0.6699;1.2765;
-71.1000;0.6805;1.3128;
-70.8000;0.6659;1.2837;
-70.5000;0.6691;1.3007;
-70.2000;0.6683;1.3031;
-69.9000;0.6659;1.2982;
-69.6000;0.6683;1.2910;
-69.3000;0.6707;1.2982;
-69.0000;0.6691;1.2886;
-68.7000;0.6691;1.2862;
-68.4000;0.6707;1.2862;
-68.1000;0.6707;1.2813;
-67.8000;0.6707;1.2765;
-67.5000;0.6667;1.2644;
-67.2000;0.6691;1.2620;
-66.9000;0.6683;1.2596;
-66.6000;0.6699;1.2620;
-66.3000;0.6659;1.2596;
-66.0000;0.6675;1.2644;
-65.7000;0.6699;1.2765;
-65.4000;0.6699;1.2789;
-65.1000;0.6707;1.2886;
-64.8000;0.6707;1.2886;
-64.5000;0.6707;1.2862;
-64.2000;0.6691;1.2837;
-63.9000;0.6756;1.2910;
-63.6000;0.6699;1.2789;
-63.3000;0.6707;1.2765;
-63.0000;0.6683;1.2717;
-62.7000;0.6707;1.2837;
-62.4000;0.6683;1.2813;
-62.1000;0.6618;1.2572;
-61.8000;0.6699;1.2668;
-61.5000;0.6691;1.2668;
-61.2000;0.6699;1.2692;
-60.9000;0.6691;1.2668;
-60.6000;0.6699;1.2692;
-60.3000;0.6659;1.2572;
-60.0000;0.6675;1.2596;
-59.7000;0.6675;1.2668;
-59.4000;0.6675;1.2692;
-59.1000;0.6691;1.2789;
-58.8000;0.6691;1.2862;
-58.5000;0.6691;1.2837;
-58.2000;0.6699;1.2886;
-57.9000;0.6683;1.2886;
-57.6000;0.6699;1.2886;
-57.3000;0.6707;1.2910;
-57.0000;0.6675;1.2765;
-56.7000;0.6675;1.2813;
-56.4000;0.6699;1.2813;
-56.1000;0.6683;1.2668;
-55.8000;0.6699;1.2620;
-55.5000;0.6683;1.2547;
-55.2000;0.6707;1.2668;
-54.9000;0.6691;1.2741;
-54.6000;0.6683;1.2789;
-54.3000;0.6699;1.2837;
-54.0000;0.6707;1.2789;
-53.7000;0.6707;1.2741;
-53.4000;0.6691;1.2765;
-53.1000;0.6683;1.2789;
-52.8000;0.6691;1.2813;
-52.5000;0.6699;1.2886;
-52.2000;0.6716;1.2910;
-51.9000;0.6675;1.2862;
-51.6000;0.6675;1.2862;
-51.3000;0.6642;1.2620;
-51.0000;0.6716;1.2741;
-50.7000;0.6667;1.2620;
-50.4000;0.6707;1.2717;
-50.1000;0.6724;1.2741;
-49.8000;0.6707;1.2789;
-49.5000;0.6740;1.2886;
-49.2000;0.6699;1.2934;
-48.9000;0.6716;1.3007;
-48.6000;0.6707;1.2837;
-48.3000;0.6707;1.2765;
-48.0000;0.6716;1.2789;
-47.7000;0.6716;1.2837;
-47.4000;0.6716;1.2837;
-47.1000;0.6699;1.2813;
-46.8000;0.6683;1.2692;
-46.5000;0.6691;1.2741;
-46.2000;0.6691;1.2813;
-45.9000;0.6626;1.2668;
-45.6000;0.6797;1.3079;
-45.3000;0.6691;1.2789;
-45.0000;0.6707;1.2789;
-44.7000;0.6707;1.2765;
-44.4000;0.6699;1.2765;
-44.1000;0.6724;1.2789;
-43.8000;0.6707;1.2765;
-43.5000;0.6716;1.2789;
-43.2000;0.6716;1.2813;
-42.9000;0.6699;1.2741;
-42.6000;0.6691;1.2620;
-42.3000;0.6707;1.2668;
-42.0000;0.6650;1.2547;
-41.7000;0.6707;1.2668;
-41.4000;0.6667;1.2620;
-41.1000;0.6683;1.2620;
-40.8000;0.6707;1.2765;
-40.5000;0.6707;1.2789;
-40.2000;0.6691;1.2813;
-39.9000;0.6699;1.2910;
-39.6000;0.6699;1.2958;
-39.3000;0.6691;1.2934;
-39.0000;0.6634;1.2813;
-38.7000;0.6707;1.2910;
-38.4000;0.6683;1.2789;
-38.1000;0.6699;1.2910;
-37.8000;0.6659;1.2862;
-37.5000;0.6691;1.2886;
-37.2000;0.6699;1.2837;
-36.9000;0.6683;1.2692;
-36.6000;0.6675;1.2620;
-36.3000;0.6699;1.2644;
-36.0000;0.6683;1.2620;
-35.7000;0.6699;1.2668;
-35.4000;0.6699;1.2596;
-35.1000;0.6691;1.2644;
-34.8000;0.6699;1.2765;
-34.5000;0.6683;1.2813;
-34.2000;0.6683;1.2862;
-33.9000;0.6675;1.2886;
-33.6000;0.6699;1.2958;
-33.3000;0.6699;1.2862;
-33.0000;0.6618;1.2644;
-32.7000;0.6707;1.2982;
-32.4000;0.6691;1.2886;
-32.1000;0.6699;1.3007;
-31.8000;0.6707;1.2982;
-31.5000;0.6699;1.2958;
-31.2000;0.6707;1.2958;
-30.9000;0.6716;1.2910;
-30.6000;0.6699;1.2862;
-30.3000;0.6691;1.2862;
-30.0000;0.6699;1.2837;
-29.7000;0.6683;1.2789;
-29.4000;0.6724;1.2862;
-29.1000;0.6626;1.2572;
-28.8000;0.6699;1.2741;
-28.5000;0.6707;1.2765;
-28.2000;0.6699;1.2765;
-27.9000;0.6707;1.2813;
-27.6000;0.6691;1.2765;
-27.3000;0.6675;1.2789;
-27.0000;0.6716;1.3007;
-26.7000;0.6707;1.2958;
-26.4000;0.6691;1.2813;
-26.1000;0.6626;1.2620;
-25.8000;0.6650;1.2717;
-25.5000;0.6781;1.2982;
-25.2000;0.6691;1.2837;
-24.9000;0.6683;1.2837;
-24.6000;0.6724;1.2982;
-24.3000;0.6699;1.2910;
-24.0000;0.6675;1.2886;
-23.7000;0.6667;1.2813;
-23.4000;0.6683;1.2886;
-23.1000;0.6699;1.2862;
-22.8000;0.6740;1.2982;
-22.5000;0.6732;1.2934;
-22.2000;0.6634;1.2837;
-21.9000;0.6707;1.2982;
-21.6000;0.6707;1.2958;
-21.3000;0.6683;1.2910;
-21.0000;0.6675;1.2982;
-20.7000;0.6707;1.2910;
-20.4000;0.6683;1.2886;
-20.1000;0.6699;1.2741;
-19.8000;0.6707;1.2765;
-19.5000;0.6707;1.2765;
-19.2000;0.6707;1.2741;
-18.9000;0.6707;1.2717;
-18.6000;0.6707;1.2765;
-18.3000;0.6724;1.2862;
-18.0000;0.6716;1.2910;
-17.7000;0.6667;1.2789;
-17.4000;0.6740;1.2934;
-17.1000;0.6707;1.2789;
-16.8000;0.6691;1.2813;
-16.5000;0.6707;1.2886;
-16.2000;0.6675;1.2837;
-15.9000;0.6707;1.2982;
-15.6000;0.6707;1.3007;
-15.3000;0.6650;1.2910;
-15.0000;0.6691;1.3007;
-14.7000;0.6691;1.2982;
-14.4000;0.6667;1.2934;
-14.1000;0.6707;1.2934;
-13.8000;0.6683;1.2837;
-13.5000;0.6667;1.2813;
-13.2000;0.6634;1.2692;
-12.9000;0.6675;1.2717;
-12.6000;0.6691;1.2692;
-12.3000;0.6691;1.2668;
-12.0000;0.6699;1.2789;
-11.7000;0.6650;1.2596;
-11.4000;0.6683;1.2813;
-11.1000;0.6650;1.2862;
-10.8000;0.6691;1.2958;
-10.5000;0.6691;1.2837;
-10.2000;0.6707;1.2862;
-9.9000;0.6675;1.2813;
-9.6000;0.6683;1.2813;
-9.3000;0.6699;1.2813;
-9.0000;0.6683;1.2789;
-8.7000;0.6691;1.2837;
-8.4000;0.6716;1.2862;
-8.1000;0.6699;1.2910;
-7.8000;0.6659;1.2789;
-7.5000;0.6707;1.2813;
-7.2000;0.6667;1.2692;
-6.9000;0.6642;1.2620;
-6.6000;0.6691;1.2741;
-6.3000;0.6756;1.2910;
-6.0000;0.6716;1.2886;
-5.7000;0.6659;1.2765;
-5.4000;0.6699;1.2789;
-5.1000;0.6707;1.2741;
-4.8000;0.6699;1.2741;
-4.5000;0.6691;1.2692;
-4.2000;0.6675;1.2620;
-3.9000;0.6691;1.2620;
-3.6000;0.6650;1.2451;
-3.3000;0.6675;1.2547;
-3.0000;0.6675;1.2547;
-2.7000;0.6789;1.2837;
-2.4000;0.6683;1.2596;
-2.1000;0.6683;1.2572;
-1.8000;0.6699;1.2692;
-1.5000;0.6699;1.2789;
-1.2000;0.6716;1.2765;
-0.9000;0.6699;1.2741;
-0.6000;0.6683;1.2620;
-0.3000;0.6691;1.2620;
0.0000;0.6691;1.2620;
0.3000;0.6960;1.3007;
0.6000;0.7481;1.3539;
0.9000;0.7920;1.4046;
1.2000;0.8287;1.4481;
1.5000;0.8563;1.4820;
1.8000;0.8783;1.5134;
2.1000;0.8962;1.5473;
2.4000;0.9109;1.5666;
2.7000;0.9214;1.5932;
3.0000;0.9320;1.6004;
3.3000;0.9410;1.6174;
3.6000;0.9475;1.6295;
3.9000;0.9540;1.6464;
4.2000;0.9573;1.6561;
4.5000;0.9646;1.6706;
4.8000;0.9719;1.6899;
5.1000;0.9760;1.6851;
5.4000;0.9817;1.6826;
5.7000;0.9841;1.6754;
6.0000;0.9955;1.6947;
6.3000;0.9915;1.6802;
6.6000;0.9963;1.6778;
6.9000;1.0004;1.6899;
7.2000;1.0037;1.6802;
7.5000;1.0069;1.6826;
7.8000;1.0094;1.6923;
8.1000;1.0134;1.6923;
8.4000;1.0142;1.6923;
8.7000;1.0175;1.6875;
9.0000;1.0208;1.6947;
9.3000;1.0256;1.6996;
9.6000;1.0281;1.6996;
9.9000;1.0305;1.6996;
10.2000;1.0354;1.7020;
10.5000;1.0379;1.6923;
10.8000;1.0403;1.6947;
11.1000;1.0419;1.6996;
11.4000;1.0452;1.6996;
11.7000;1.0484;1.6899;
12.0000;1.0509;1.6972;
12.3000;1.0541;1.6923;
12.6000;1.0566;1.6923;
12.9000;1.0590;1.6899;
13.2000;1.0639;1.7020;
13.5000;1.0663;1.7044;
13.8000;1.0704;1.7068;
14.1000;1.0720;1.7092;
14.4000;1.0704;1.6947;
14.7000;1.0737;1.7020;
15.0000;1.0761;1.6996;
15.3000;1.0818;1.7020;
15.6000;1.0810;1.6947;
15.9000;1.0834;1.6875;
16.2000;1.0875;1.6875;
16.5000;1.0818;1.6706;
16.8000;1.0891;1.6923;
17.1000;1.0908;1.6899;
17.4000;1.0891;1.6681;
17.7000;1.0989;1.6875;
18.0000;1.1013;1.6851;
18.3000;1.1005;1.6778;
18.6000;1.1022;1.6851;
18.9000;1.1062;1.6923;
19.2000;1.1062;1.6875;
19.5000;1.1095;1.6875;
19.8000;1.1103;1.6826;
20.1000;1.1111;1.6778;
20.4000;1.1136;1.6875;
20.7000;1.1168;1.6947;
21.0000;1.1168;1.6923;
21.3000;1.1176;1.6802;
21.6000;1.1184;1.6851;
21.9000;1.1209;1.6996;
22.2000;1.1209;1.6947;
22.5000;1.1249;1.7068;
22.8000;1.1209;1.6972;
23.1000;1.1266;1.7020;
23.4000;1.1266;1.6972;
23.7000;1.1290;1.6851;
24.0000;1.1306;1.6899;
24.3000;1.1347;1.6899;
24.6000;1.1323;1.6826;
24.9000;1.1315;1.6947;
25.2000;1.1355;1.6972;
25.5000;1.1355;1.6899;
25.8000;1.1355;1.6802;
26.1000;1.1372;1.6875;
26.4000;1.1404;1.7068;
26.7000;1.1404;1.7020;
27.0000;1.1412;1.6972;
27.3000;1.1420;1.6875;
27.6000;1.1404;1.6851;
27.9000;1.1445;1.6875;
28.2000;1.1469;1.6802;
28.5000;1.1453;1.6706;
28.8000;1.1461;1.6657;
29.1000;1.1486;1.6778;
29.4000;1.1486;1.6778;
29.7000;1.1486;1.6778;
30.0000;1.1502;1.6778;
30.3000;1.1494;1.6802;
30.6000;1.1518;1.6802;
30.9000;1.1502;1.6730;
31.2000;1.1543;1.6706;
31.5000;1.1559;1.6657;
31.8000;1.1526;1.6536;
32.1000;1.1559;1.6730;
32.4000;1.1559;1.6778;
32.7000;1.1575;1.6754;
33.0000;1.1575;1.6657;
33.3000;1.1583;1.6609;
33.6000;1.1575;1.6633;
33.9000;1.1608;1.6657;
34.2000;1.1600;1.6609;
34.5000;1.1608;1.6633;
34.8000;1.1600;1.6706;
35.1000;1.1616;1.6730;
35.4000;1.1608;1.6657;
35.7000;1.1640;1.6754;
36.0000;1.1640;1.6778;
36.3000;1.1624;1.6730;
36.6000;1.1665;1.6754;
36.9000;1.1665;1.6657;
37.2000;1.1648;1.6633;
37.5000;1.1681;1.6730;
37.8000;1.1681;1.6681;
38.1000;1.1665;1.6609;
38.4000;1.1681;1.6681;
38.7000;1.1689;1.6681;
39.0000;1.1689;1.6609;
39.3000;1.1779;1.6778;
39.6000;1.1770;1.6657;
39.9000;1.1705;1.6512;
40.2000;1.1705;1.6488;
40.5000;1.1681;1.6464;
40.8000;1.1754;1.6561;
41.1000;1.1722;1.6561;
41.4000;1.1713;1.6609;
41.7000;1.1722;1.6609;
42.0000;1.1738;1.6609;
42.3000;1.1722;1.6488;
42.6000;1.1754;1.6561;
42.9000;1.1762;1.6536;
43.2000;1.1738;1.6561;
43.5000;1.1722;1.6585;
43.8000;1.1754;1.6657;
44.1000;1.1738;1.6633;
44.4000;1.1836;1.6826;
44.7000;1.1762;1.6706;
45.0000;1.1730;1.6536;
45.3000;1.1779;1.6561;
45.6000;1.1779;1.6512;
45.9000;1.1770;1.6561;
46.2000;1.1738;1.6415;
46.5000;1.1819;1.6681;
46.8000;1.1893;1.6754;
47.1000;1.1827;1.6488;
47.4000;1.1795;1.6343;
47.7000;1.1795;1.6319;
48.0000;1.1795;1.6246;
48.3000;1.1811;1.6295;
48.6000;1.1819;1.6319;
48.9000;1.1803;1.6343;
49.2000;1.1803;1.6295;
49.5000;1.1819;1.6343;
49.8000;1.1811;1.6391;
50.1000;1.1819;1.6488;
50.4000;1.1827;1.6440;
50.7000;1.1819;1.6415;
51.0000;1.1819;1.6343;
51.3000;1.1811;1.6295;
51.6000;1.1819;1.6319;
51.9000;1.1860;1.6391;
52.2000;1.1860;1.6367;
52.5000;1.1844;1.6319;
52.8000;1.1860;1.6319;
53.1000;1.1884;1.6415;
53.4000;1.1860;1.6415;
53.7000;1.1860;1.6343;
54.0000;1.1836;1.6391;
54.3000;1.1860;1.6488;
54.6000;1.1893;1.6609;
54.9000;1.1868;1.6609;
55.2000;1.1844;1.6585;
55.5000;1.1827;1.6415;
55.8000;1.1893;1.6657;
56.1000;1.1860;1.6609;
56.4000;1.1844;1.6585;
56.7000;1.1884;1.6681;
57.0000;1.1876;1.6633;
57.3000;1.1876;1.6633;
57.6000;1.1860;1.6488;
57.9000;1.1868;1.6464;
58.2000;1.1901;1.6512;
58.5000;1.1876;1.6415;
58.8000;1.1876;1.6440;
59.1000;1.1876;1.6367;
59.4000;1.1884;1.6440;
59.7000;1.1893;1.6440;
60.0000;1.1884;1.6391;
60.3000;1.1860;1.6319;
60.6000;1.1901;1.6391;
60.9000;1.1876;1.6440;
61.2000;1.1852;1.6367;
61.5000;1.1901;1.6440;
61.8000;1.1893;1.6343;
62.1000;1.1893;1.6367;
62.4000;1.1933;1.6415;
62.7000;1.1901;1.6270;
63.0000;1.1925;1.6295;
63.3000;1.1917;1.6367;
63.6000;1.1925;1.6367;
63.9000;1.1925;1.6270;
64.2000;1.1909;1.6270;
64.5000;1.1909;1.6319;
64.8000;1.1844;1.6125;
65.1000;1.2015;1.6561;
65.4000;1.1925;1.6343;
65.7000;1.1893;1.6343;
66.0000;1.1925;1.6440;
66.3000;1.1893;1.6367;
66.6000;1.1909;1.6464;
66.9000;1.1917;1.6440;
67.2000;1.1974;1.6561;
67.5000;1.1933;1.6415;
67.8000;1.1958;1.6295;
68.1000;1.1958;1.6270;
68.4000;1.1950;1.6319;
68.7000;1.1950;1.6319;
69.0000;1.1925;1.6319;
69.3000;1.1982;1.6488;
69.6000;1.1950;1.6391;
69.9000;1.1917;1.6295;
70.2000;1.1917;1.6391;
70.5000;1.1893;1.6295;
70.8000;1.1893;1.6270;
71.1000;1.1941;1.6367;
71.4000;1.1941;1.6440;
71.7000;1.1950;1.6464;
72.0000;1.1950;1.6464;
72.3000;1.1941;1.6440;
72.6000;1.1958;1.6391;
72.9000;1.1958;1.6415;
73.2000;1.1966;1.6415;
73.5000;1.1974;1.6488;
73.8000;1.1990;1.6391;
74.1000;1.1950;1.6295;
74.4000;1.1950;1.6198;
74.7000;1.1950;1.6125;
75.0000;1.1982;1.6174;
75.3000;1.1909;1.6029;
75.6000;1.1958;1.6174;
75.9000;1.1966;1.6174;
76.2000;1.1982;1.6174;
76.5000;1.1974;1.6150;
76.8000;1.1917;1.5980;
77.1000;1.2088;1.6391;
77.4000;1.1974;1.6270;
77.7000;1.1974;1.6295;
78.0000;1.1958;1.6222;
78.3000;1.1974;1.6295;
78.6000;1.1982;1.6246;
78.9000;1.1998;1.6198;
79.2000;1.1998;1.6150;
79.5000;1.1958;1.5980;
79.8000;1.1974;1.6053;
80.1000;1.1982;1.6053;
80.4000;1.1958;1.5908;
80.7000;1.1990;1.6029;
81.0000;1.1990;1.6101;
81.3000;1.1974;1.6053;
81.6000;1.1990;1.6101;
81.9000;1.1982;1.6077;
82.2000;1.1982;1.6077;
82.5000;1.1998;1.6029;
82.8000;1.1982;1.6053;
83.1000;1.1966;1.6004;
83.4000;1.1990;1.6029;
83.7000;1.1998;1.6101;
84.0000;1.1998;1.6150;
84.3000;1.2039;1.6150;
84.6000;1.1990;1.5980;
84.9000;1.2007;1.6053;
85.2000;1.1998;1.6004;
85.5000;1.2015;1.6004;
85.8000;1.1990;1.6053;
86.1000;1.2007;1.6198;
86.4000;1.1958;1.6150;
86.7000;1.1982;1.6198;
87.0000;1.1982;1.6053;
87.3000;1.1982;1.6077;
87.6000;1.1998;1.6101;
87.9000;1.2047;1.6222;
88.2000;1.2007;1.6174;
88.5000;1.2015;1.6174;
88.8000;1.2080;1.6319;
89.1000;1.1982;1.6150;
89.4000;1.2031;1.6246;
89.7000;1.1909;1.5835;
90.0000;1.2039;1.6101;
90.3000;1.1982;1.6004;
90.6000;1.2015;1.6004;
90.9000;1.1998;1.5884;
91.2000;1.1974;1.5835;
91.5000;1.2007;1.6004;
91.8000;1.2031;1.6029;
92.1000;1.2015;1.6004;
92.4000;1.2015;1.6053;
92.7000;1.2023;1.6053;
93.0000;1.1933;1.5859;
93.3000;1.1974;1.5908;
93.6000;1.1998;1.5956;
93.9000;1.2031;1.5980;
94.2000;1.2031;1.6077;
94.5000;1.2007;1.5980;
94.8000;1.2023;1.6004;
95.1000;1.2031;1.6053;
95.4000;1.2039;1.6174;
95.7000;1.2007;1.6150;
96.0000;1.2023;1.6150;
96.3000;1.2007;1.6053;
96.6000;1.2023;1.6053;
96.9000;1.2023;1.6077;
97.2000;1.2031;1.6101;
97.5000;1.2031;1.6174;
97.8000;1.2047;1.6174;
98.1000;1.2039;1.6150;
98.4000;1.2031;1.6101;
98.7000;1.2047;1.6198;
99.0000;1.2023;1.6125;
99.3000;1.2007;1.5956;
99.6000;1.2031;1.6004;
99.9000;1.2015;1.5980;
100.2000;1.2023;1.6004;
100.5000;1.2031;1.6101;
100.8000;1.2031;1.6077;
101.1000;1.2039;1.6053;
101.4000;1.2055;1.6198;
101.7000;1.2023;1.6198;
102.0000;1.2047;1.6246;
102.3000;1.2072;1.6270;
102.6000;1.2031;1.6174;
102.9000;1.2039;1.6222;
103.2000;1.2047;1.6270;
103.5000;1.2023;1.6125;
103.8000;1.2047;1.6053;
104.1000;1.2047;1.6029;
104.4000;1.2031;1.5932;
104.7000;1.2015;1.5908;
105.0000;1.2055;1.5980;
105.3000;1.1998;1.5859;
105.6000;1.2031;1.5932;
105.9000;1.2023;1.5908;
106.2000;1.2031;1.5932;
106.5000;1.2047;1.5932;
106.8000;1.2072;1.6029;
107.1000;1.2039;1.5932;
107.4000;1.2055;1.5932;
107.7000;1.2072;1.5908;
108.0000;1.2047;1.5884;
108.3000;1.2088;1.5908;
108.6000;1.2031;1.5763;
108.9000;1.2063;1.5908;
109.2000;1.2096;1.5932;
109.5000;1.2063;1.5787;
109.8000;1.2039;1.5714;
110.1000;1.2072;1.5666;
110.4000;1.2047;1.5714;
110.7000;1.2039;1.5666;
111.0000;1.2039;1.5666;
111.3000;1.2047;1.5666;
111.6000;1.2063;1.5714;
111.9000;1.2063;1.5739;
112.2000;1.2080;1.5811;
112.5000;1.2063;1.5763;
112.8000;1.2031;1.5714;
113.1000;1.2088;1.5835;
113.4000;1.2063;1.5859;
113.7000;1.2055;1.5908;
114.0000;1.2047;1.5884;
114.3000;1.2063;1.5908;
114.6000;1.2063;1.5908;
114.9000;1.2112;1.6029;
115.2000;1.2055;1.5908;
115.5000;1.2047;1.5884;
115.8000;1.2055;1.5859;
116.1000;1.2055;1.5811;
116.4000;1.2055;1.5884;
116.7000;1.2063;1.5956;
117.0000;1.2112;1.6174;
117.3000;1.2055;1.6101;
117.6000;1.2047;1.6029;
117.9000;1.2072;1.6101;
118.2000;1.2088;1.6125;
118.5000;1.2063;1.6077;
118.8000;1.2072;1.5980;
119.1000;1.2055;1.5932;
119.4000;1.2063;1.5908;
119.7000;1.2055;1.5859;
120.0000;1.2055;1.5835;
120.3000;1.2063;1.5690;
120.6000;1.2063;1.5739;
120.9000;1.2088;1.5739;
121.2000;1.2072;1.5763;
121.5000;1.2055;1.5739;
121.8000;1.2063;1.5787;
122.1000;1.2072;1.5763;
122.4000;1.2072;1.5811;
122.7000;1.2055;1.5739;
123.0000;1.2063;1.5714;
123.3000;1.2088;1.5690;
123.6000;1.2023;1.5497;
123.9000;1.2072;1.5642;
124.2000;1.2063;1.5666;
124.5000;1.2088;1.5690;
124.8000;1.2088;1.5787;
125.1000;1.2096;1.5835;
125.4000;1.2088;1.5739;
125.7000;1.2096;1.5763;
126.0000;1.2080;1.5618;
126.3000;1.2047;1.5594;
126.6000;1.1982;1.5497;
126.9000;1.2112;1.5811;
127.2000;1.2088;1.5884;
127.5000;1.2063;1.5739;
127.8000;1.2088;1.5811;
128.1000;1.2072;1.5739;
128.4000;1.2072;1.5690;
128.7000;1.2096;1.5714;
129.0000;1.2072;1.5690;
129.3000;1.2072;1.5714;
129.6000;1.2096;1.5835;
129.9000;1.2104;1.5739;
130.2000;1.2096;1.5811;
130.5000;1.2080;1.5787;
130.8000;1.2120;1.5739;
131.1000;1.2080;1.5714;
131.4000;1.2063;1.5714;
131.7000;1.2072;1.5690;
132.0000;1.2080;1.5787;
132.3000;1.2088;1.5835;
132.6000;1.2088;1.5763;
132.9000;1.2072;1.5690;
133.2000;1.2088;1.5666;
133.5000;1.2112;1.5739;
133.8000;1.2063;1.5569;
134.1000;1.2112;1.5763;
134.4000;1.2080;1.5714;
134.7000;1.2088;1.5714;
135.0000;1.2080;1.5763;
135.3000;1.2080;1.5859;
135.6000;1.2080;1.5763;
135.9000;1.2080;1.5690;
136.2000;1.2088;1.5739;
136.5000;1.2072;1.5690;
136.8000;1.2072;1.5714;
137.1000;1.2072;1.5739;
137.4000;1.2080;1.5690;
137.7000;1.2161;1.5811;
138.0000;1.2088;1.5642;
138.3000;1.2088;1.5666;
138.6000;1.2104;1.5787;
138.9000;1.2039;1.5618;
139.2000;1.2088;1.5859;
139.5000;1.2104;1.5932;
139.8000;1.2096;1.5859;
140.1000;1.2120;1.5908;
140.4000;1.2096;1.5714;
140.7000;1.2112;1.5690;
141.0000;1.2104;1.5739;
141.3000;1.2096;1.5739;
141.6000;1.2047;1.5569;
141.9000;1.2080;1.5618;
142.2000;1.2080;1.5642;
142.5000;1.2080;1.5714;
142.8000;1.2088;1.5835;
143.1000;1.2080;1.5739;
143.4000;1.2080;1.5763;
143.7000;1.2112;1.5763;
144.0000;1.2112;1.5763;
144.3000;1.2088;1.5739;
144.6000;1.2096;1.5739;
144.9000;1.2112;1.5811;
145.2000;1.2088;1.5884;
145.5000;1.2096;1.5956;
145.8000;1.2088;1.5932;
146.1000;1.2088;1.5859;
146.4000;1.2104;1.5884;
146.7000;1.2088;1.5811;
147.0000;1.2088;1.5811;
147.3000;1.2088;1.5787;
147.6000;1.2088;1.5884;
147.9000;1.2096;1.5932;
148.2000;1.2088;1.5932;
148.5000;1.2104;1.6004;
148.8000;1.2072;1.5884;
149.1000;1.2112;1.6053;
149.4000;1.2112;1.5956;
149.7000;1.2088;1.5884;
150.0000;1.2096;1.5884;
150.3000;1.2120;1.5763;
150.6000;1.2112;1.5763;
150.9000;1.2104;1.5690;
151.2000;1.2137;1.5642;
151.5000;1.2129;1.5714;
151.8000;1.2104;1.5569;
152.1000;1.2088;1.5569;
152.4000;1.2129;1.5569;
152.7000;1.2112;1.5594;
153.0000;1.2088;1.5545;
153.3000;1.2112;1.5618;
153.6000;1.2120;1.5618;
153.9000;1.2104;1.5690;
154.2000;1.2104;1.5690;
154.5000;1.2088;1.5545;
154.8000;1.2096;1.5545;
155.1000;1.2112;1.5569;
155.4000;1.2088;1.5448;
155.7000;1.2104;1.5448;
156.0000;1.2112;1.5521;
156.3000;1.2120;1.5642;
156.6000;1.2120;1.5642;
156.9000;1.2145;1.5666;
157.2000;1.2088;1.5521;
157.5000;1.2096;1.5448;
157.8000;1.2104;1.5448;
158.1000;1.2047;1.5255;
158.4000;1.2104;1.5545;
158.7000;1.2096;1.5666;
159.0000;1.2120;1.5714;
159.3000;1.2112;1.5690;
159.6000;1.2104;1.5666;
159.9000;1.2088;1.5594;
160.2000;1.2112;1.5666;
160.5000;1.2055;1.5521;
160.8000;1.2104;1.5594;
161.1000;1.2104;1.5521;
161.4000;1.2129;1.5642;
161.7000;1.2112;1.5666;
162.0000;1.2120;1.5594;
162.3000;1.2129;1.5545;
162.6000;1.2112;1.5521;
162.9000;1.2120;1.5521;
163.2000;1.2112;1.5473;
163.5000;1.2145;1.5497;
163.8000;1.2112;1.5424;
164.1000;1.2137;1.5594;
164.4000;1.2112;1.5594;
164.7000;1.2104;1.5521;
165.0000;1.2145;1.5618;
165.3000;1.2120;1.5569;
165.6000;1.2112;1.5569;
165.9000;1.2129;1.5569;
166.2000;1.2112;1.5569;
166.5000;1.2112;1.5642;
166.8000;1.2137;1.5666;
167.1000;1.2161;1.5618;
167.4000;1.2112;1.5448;
167.7000;1.2137;1.5594;
168.0000;1.2112;1.5666;
168.3000;1.2137;1.5739;
168.6000;1.2120;1.5618;
168.9000;1.2129;1.5618;
169.2000;1.2129;1.5618;
169.5000;1.2112;1.5448;
169.8000;1.2120;1.5497;
170.1000;1.2112;1.5545;
170.4000;1.2104;1.5594;
170.7000;1.2161;1.5835;
171.0000;1.2112;1.5666;
171.3000;1.2063;1.5521;
171.6000;1.2120;1.5666;
171.9000;1.2112;1.5642;
172.2000;1.2096;1.5545;
172.5000;1.2129;1.5545;
172.8000;1.2112;1.5569;
173.1000;1.2145;1.5787;
173.4000;1.2129;1.5714;
173.7000;1.2112;1.5666;
174.0000;1.2112;1.5642;
174.3000;1.2112;1.5594;
174.6000;1.2129;1.5666;
174.9000;1.2104;1.5666;
175.2000;1.2096;1.5690;
175.5000;1.2120;1.5739;
175.8000;1.2129;1.5739;
176.1000;1.2104;1.5642;
176.4000;1.2112;1.5618;
176.7000;1.2104;1.5594;
177.0000;1.2120;1.5690;
177.3000;1.2104;1.5666;
177.6000;1.2096;1.5642;
177.9000;1.2112;1.5739;
178.2000;1.2104;1.5739;
178.5000;1.2145;1.5690;
178.8000;1.2112;1.5618;
179.1000;1.2137;1.5666;
179.4000;1.2112;1.5666;
179.7000;1.2112;1.5666;
180.0000;1.2104;1.5594;
180.3000;1.2137;1.5618;
180.6000;1.2120;1.5569;
180.9000;1.2129;1.5594;
181.2000;1.2088;1.5545;
181.5000;1.2112;1.5448;
181.8000;1.2112;1.5424;
182.1000;1.2129;1.5545;
182.4000;1.2120;1.5521;
182.7000;1.2112;1.5497;
183.0000;1.2129;1.5545;
183.3000;1.2104;1.5473;
183.6000;1.2104;1.5497;
183.9000;1.2080;1.5497;
184.2000;1.2112;1.5642;
184.5000;1.2120;1.5690;
184.8000;1.2145;1.5714;
185.1000;1.2112;1.5714;
185.4000;1.2112;1.5666;
185.7000;1.2104;1.5618;
186.0000;1.2080;1.5594;
186.3000;1.2169;1.5835;
186.6000;1.2104;1.5666;
186.9000;1.2104;1.5690;
187.2000;1.2104;1.5714;
187.5000;1.2161;1.5908;
187.8000;1.2112;1.5666;
188.1000;1.2120;1.5594;
188.4000;1.2112;1.5545;
188.7000;1.2120;1.5545;
189.0000;1.2112;1.5424;
189.3000;1.2129;1.5303;
189.6000;1.2120;1.5376;
189.9000;1.2120;1.5376;
190.2000;1.2096;1.5376;
190.5000;1.2129;1.5521;
190.8000;1.2137;1.5594;
191.1000;1.2104;1.5545;
191.4000;1.2129;1.5545;
191.7000;1.2129;1.5473;
192.0000;1.2137;1.5473;
192.3000;1.2120;1.5376;
192.6000;1.2153;1.5376;
192.9000;1.2104;1.5352;
193.2000;1.2120;1.5473;
193.5000;1.2120;1.5424;
193.8000;1.2120;1.5424;
194.1000;1.2112;1.5352;
194.4000;1.2137;1.5448;
194.7000;1.2161;1.5497;
195.0000;1.2129;1.5521;
195.3000;1.2137;1.5521;
195.6000;1.2145;1.5545;
195.9000;1.2145;1.5569;
196.2000;1.2104;1.5521;
196.5000;1.2120;1.5497;
196.8000;1.2153;1.5521;
197.1000;1.2129;1.5473;
197.4000;1.2153;1.5497;
197.7000;1.2145;1.5545;
198.0000;1.2129;1.5448;
198.3000;1.2137;1.5521;
198.6000;1.2120;1.5497;
198.9000;1.2186;1.5642;
199.2000;1.2104;1.5521;
199.5000;1.2104;1.5448;
199.8000;1.2120;1.5521;
200.1000;1.2031;1.5231;
200.4000;1.2031;1.5158;
200.7000;1.2120;1.5497;
201.0000;1.2129;1.5569;
201.3000;1.2088;1.5545;
201.6000;1.2112;1.5545;
201.9000;1.2120;1.5569;
202.2000;1.2112;1.5642;
202.5000;1.2072;1.5545;
202.8000;1.2129;1.5618;
203.1000;1.2186;1.5569;
203.4000;1.2063;1.5303;
203.7000;1.2104;1.5352;
204.0000;1.2088;1.5424;
204.3000;1.2194;1.5666;
204.6000;1.2129;1.5521;
204.9000;1.2120;1.5521;
205.2000;1.2169;1.5666;
205.5000;1.2112;1.5497;
205.8000;1.2112;1.5497;
206.1000;1.2145;1.5618;
206.4000;1.2120;1.5594;
206.7000;1.2129;1.5714;
207.0000;1.2120;1.5714;
207.3000;1.2210;1.5908;
207.6000;1.2145;1.5666;
207.9000;1.2243;1.5908;
208.2000;1.2137;1.5618;
208.5000;1.2153;1.5642;
208.8000;1.2129;1.5618;
209.1000;1.2129;1.5714;
209.4000;1.2145;1.5594;
209.7000;1.2129;1.5642;
210.0000;1.2129;1.5787;
210.3000;1.2137;1.5763;
210.6000;1.2112;1.5690;
210.9000;1.2129;1.5739;
211.2000;1.2145;1.5714;
211.5000;1.2153;1.5642;
211.8000;1.2137;1.5714;
212.1000;1.2137;1.5763;
212.4000;1.2129;1.5690;
212.7000;1.2129;1.5690;
213.0000;1.2080;1.5545;
213.3000;1.2112;1.5666;
213.6000;1.2153;1.5763;
213.9000;1.2137;1.5714;
214.2000;1.2120;1.5690;
214.5000;1.2129;1.5739;
214.8000;1.2129;1.5787;
215.1000;1.2137;1.5690;
215.4000;1.2112;1.5642;
215.7000;1.2137;1.5618;
216.0000;1.2129;1.5642;
216.3000;1.2120;1.5690;
216.6000;1.2129;1.5714;
216.9000;1.2112;1.5739;
217.2000;1.2096;1.5666;
217.5000;1.2112;1.5739;
217.8000;1.2112;1.5714;
218.1000;1.2104;1.5569;
218.4000;1.2120;1.5569;
218.7000;1.2137;1.5739;
219.0000;1.2120;1.5642;
219.3000;1.2169;1.5642;
219.6000;1.2104;1.5400;
219.9000;1.2129;1.5473;
220.2000;1.2145;1.5473;
220.5000;1.2129;1.5448;
220.8000;1.2120;1.5448;
221.1000;1.2137;1.5521;
221.4000;1.2088;1.5352;
221.7000;1.2145;1.5473;
222.0000;1.2112;1.5473;
222.3000;1.2120;1.5328;
222.6000;1.2129;1.5328;
222.9000;1.2112;1.5352;
223.2000;1.2145;1.5328;
223.5000;1.2104;1.5328;
223.8000;1.2145;1.5473;
224.1000;1.2145;1.5497;
224.4000;1.2080;1.5328;
224.7000;1.2120;1.5497;
225.0000;1.2112;1.5424;
225.3000;1.2137;1.5473;
225.6000;1.2129;1.5424;
225.9000;1.2120;1.5424;
226.2000;1.2145;1.5521;
226.5000;1.2169;1.5594;
226.8000;1.2120;1.5521;
227.1000;1.2112;1.5545;
227.4000;1.2202;1.5714;
227.7000;1.2120;1.5473;
228.0000;1.2088;1.5424;
228.3000;1.2112;1.5473;
228.6000;1.2129;1.5424;
228.9000;1.2137;1.5473;
229.2000;1.2137;1.5424;
229.5000;1.2120;1.5352;
229.8000;1.2137;1.5424;
230.1000;1.2129;1.5400;
230.4000;1.2129;1.5424;
230.7000;1.2120;1.5352;
231.0000;1.2104;1.5255;
231.3000;1.2145;1.5376;
231.6000;1.2137;1.5424;
231.9000;1.2039;1.5158;
232.2000;1.2120;1.5376;
232.5000;1.2137;1.5448;
232.8000;1.2129;1.5473;
233.1000;1.2129;1.5473;
233.4000;1.2120;1.5424;
233.7000;1.2145;1.5473;
234.0000;1.2145;1.5545;
234.3000;1.2137;1.5594;
234.6000;1.2129;1.5497;
234.9000;1.2120;1.5424;
235.2000;1.2137;1.5400;
235.5000;1.2153;1.5497;
235.8000;1.2129;1.5424;
236.1000;1.2112;1.5376;
236.4000;1.2120;1.5279;
236.7000;1.2096;1.5255;
237.0000;1.2096;1.5207;
237.3000;1.2145;1.5303;
237.6000;1.2120;1.5183;
237.9000;1.2145;1.5231;
238.2000;1.2129;1.5158;
238.5000;1.2120;1.5183;
238.8000;1.2129;1.5255;
239.1000;1.2145;1.5207;
239.4000;1.2129;1.5134;
239.7000;1.2177;1.5183;
240.0000;1.2112;1.5062;
240.3000;1.2129;1.5062;
240.6000;1.2145;1.5183;
240.9000;1.2096;1.5086;
241.2000;1.2129;1.5352;
241.5000;1.2112;1.5328;
241.8000;1.2153;1.5376;
242.1000;1.2137;1.5328;
242.4000;1.2120;1.5255;
242.7000;1.2137;1.5231;
243.0000;1.2120;1.5279;
243.3000;1.2137;1.5328;
243.6000;1.2129;1.5376;
243.9000;1.2145;1.5352;
244.2000;1.2137;1.5328;
244.5000;1.2202;1.5448;
244.8000;1.2145;1.5352;
245.1000;1.2153;1.5473;
245.4000;1.2129;1.5400;
245.7000;1.2153;1.5473;
246.0000;1.2137;1.5424;
246.3000;1.2137;1.5424;
246.6000;1.2080;1.5352;
246.9000;1.2129;1.5473;
247.2000;1.2137;1.5521;
247.5000;1.2145;1.5594;
247.8000;1.2112;1.5473;
248.1000;1.2120;1.5448;
248.4000;1.2096;1.5424;
248.7000;1.2104;1.5448;
249.0000;1.2129;1.5376;
249.3000;1.2153;1.5400;
249.6000;1.2153;1.5424;
249.9000;1.2129;1.5424;
250.2000;1.2129;1.5473;
250.5000;1.2194;1.5714;
250.8000;1.2210;1.5714;
251.1000;1.2186;1.5618;
251.4000;1.2153;1.5521;
251.7000;1.2145;1.5545;
252.0000;1.2234;1.5642;
252.3000;1.2243;1.5642;
252.6000;1.2137;1.5497;
252.9000;1.2129;1.5545;
253.2000;1.2145;1.5521;
253.5000;1.2145;1.5521;
253.8000;1.2129;1.5448;
254.1000;1.2137;1.5424;
254.4000;1.2145;1.5473;
254.7000;1.2243;1.5763;
255.0000;1.2096;1.5376;
255.3000;1.2120;1.5424;
255.6000;1.2129;1.5521;
255.9000;1.2137;1.5521;
256.2000;1.2129;1.5497;
256.5000;1.2145;1.5473;
256.8000;1.2129;1.5424;
257.1000;1.2112;1.5352;
257.4000;1.2202;1.5569;
257.7000;1.2153;1.5448;
258.0000;1.2137;1.5424;
258.3000;1.2145;1.5473;
258.6000;1.2120;1.5352;
258.9000;1.2137;1.5328;
259.2000;1.2129;1.5424;
259.5000;1.2137;1.5545;
259.8000;1.2153;1.5642;
260.1000;1.2161;1.5690;
260.4000;1.2153;1.5642;
260.7000;1.2153;1.5594;
261.0000;1.2145;1.5594;
261.3000;1.2104;1.5569;
261.6000;1.2137;1.5618;
261.9000;1.2153;1.5642;
262.2000;1.2137;1.5666;
262.5000;1.2129;1.5714;
262.8000;1.2120;1.5642;
263.1000;1.2120;1.5569;
263.4000;1.2145;1.5569;
263.7000;1.2063;1.5376;
264.0000;1.2112;1.5400;
264.3000;1.2129;1.5424;
264.6000;1.2096;1.5352;
264.9000;1.2120;1.5400;
265.2000;1.2145;1.5497;
265.5000;1.2112;1.5400;
265.8000;1.2112;1.5279;
266.1000;1.2145;1.5352;
266.4000;1.2153;1.5448;
266.7000;1.2153;1.5473;
267.0000;1.2129;1.5594;
267.3000;1.2112;1.5497;
267.6000;1.2129;1.5473;
267.9000;1.2129;1.5376;
268.2000;1.2120;1.5328;
268.5000;1.2137;1.5473;
268.8000;1.2137;1.5545;
269.1000;1.2112;1.5448;
269.4000;1.2112;1.5376;
269.7000;1.2137;1.5448;
270.0000;1.2137;1.5448;
270.3000;1.2137;1.5424;
270.6000;1.2137;1.5497;
270.9000;1.2096;1.5279;
271.2000;1.2129;1.5279;
271.5000;1.2137;1.5352;
271.8000;1.2137;1.5328;
272.1000;1.2120;1.5352;
272.4000;1.2145;1.5400;
272.7000;1.2161;1.5424;
273.0000;1.2153;1.5352;
273.3000;1.2210;1.5497;
273.6000;1.2153;1.5400;
273.9000;1.2096;1.5134;
274.2000;1.2145;1.5158;
274.5000;1.2129;1.5158;
274.8000;1.2145;1.5352;
275.1000;1.2202;1.5521;
275.4000;1.2129;1.5400;
275.7000;1.2088;1.5328;
276.0000;1.2129;1.5400;
276.3000;1.2120;1.5352;
276.6000;1.2137;1.5497;
276.9000;1.2145;1.5521;
277.2000;1.2161;1.5545;
277.5000;1.2137;1.5473;
277.8000;1.2169;1.5642;
278.1000;1.2129;1.5521;
278.4000;1.2129;1.5497;
278.7000;1.2153;1.5473;
279.0000;1.2145;1.5594;
279.3000;1.2137;1.5521;
279.6000;1.2120;1.5497;
279.9000;1.2145;1.5497;
280.2000;1.2153;1.5448;
280.5000;1.2137;1.5545;
280.8000;1.2137;1.5473;
281.1000;1.2177;1.5569;
281.4000;1.2218;1.5690;
281.7000;1.2137;1.5473;
282.0000;1.2153;1.5473;
282.3000;1.2153;1.5448;
282.6000;1.2145;1.5424;
282.9000;1.2161;1.5473;
283.2000;1.2137;1.5376;
283.5000;1.2153;1.5328;
283.8000;1.2145;1.5352;
284.1000;1.2169;1.5473;
284.4000;1.2161;1.5424;
284.7000;1.2137;1.5352;
285.0000;1.2153;1.5376;
285.3000;1.2161;1.5352;
285.6000;1.2194;1.5497;
285.9000;1.2137;1.5376;
286.2000;1.2186;1.5448;
286.5000;1.2153;1.5400;
286.8000;1.2251;1.5618;
287.1000;1.2153;1.5376;
287.4000;1.2120;1.5352;
287.7000;1.2153;1.5448;
288.0000;1.2137;1.5352;
288.3000;1.2153;1.5352;
288.6000;1.2137;1.5352;
288.9000;1.2145;1.5424;
289.2000;1.2120;1.5400;
289.5000;1.2129;1.5424;
289.8000;1.2145;1.5521;
290.1000;1.2210;1.5666;
290.4000;1.2129;1.5594;
290.7000;1.2096;1.5448;
291.0000;1.2120;1.5473;
291.3000;1.2145;1.5521;
291.6000;1.2129;1.5448;
291.9000;1.2153;1.5545;
292.2000;1.2137;1.5497;
292.5000;1.2137;1.5569;
292.8000;1.2145;1.5666;
293.1000;1.2137;1.5497;
293.4000;1.2177;1.5594;
293.7000;1.2137;1.5497;
294.0000;1.2096;1.5303;
294.3000;1.2137;1.5448;
294.6000;1.2120;1.5400;
294.9000;1.2129;1.5328;
295.2000;1.2145;1.5303;
295.5000;1.2137;1.5328;
295.8000;1.2104;1.5352;
296.1000;1.2137;1.5497;
296.4000;1.2153;1.5521;
296.7000;1.2104;1.5328;
297.0000;1.2161;1.5473;
297.3000;1.2153;1.5400;
297.6000;1.2153;1.5400;
297.9000;1.2186;1.5521;
298.2000;1.2153;1.5473;
298.5000;1.2120;1.5448;
298.8000;1.2137;1.5473;
299.1000;1.2153;1.5569;
299.4000;1.2120;1.5618;
299.7000;1.2145;1.5714;
300.0000;1.2161;1.5739;
300.3000;1.2169;1.5763;
300.6000;1.2145;1.5666;
300.9000;1.2161;1.5642;
301.2000;1.2145;1.5594;
301.5000;1.2202;1.5714;
301.8000;1.2153;1.5666;
302.1000;1.2063;1.5400;
302.4000;1.2137;1.5569;
302.7000;1.2129;1.5569;
303.0000;1.2153;1.5569;
303.3000;1.2153;1.5473;
303.6000;1.2137;1.5473;
303.9000;1.2031;1.5279;
304.2000;1.2169;1.5618;
304.5000;1.2202;1.5787;
304.8000;1.2120;1.5569;
305.1000;1.2104;1.5545;
305.4000;1.2120;1.5521;
305.7000;1.2104;1.5400;
306.0000;1.2145;1.5521;
306.3000;1.2137;1.5424;
306.6000;1.2145;1.5424;
306.9000;1.2145;1.5448;
307.2000;1.2161;1.5497;
307.5000;1.2145;1.5521;
307.8000;1.2137;1.5473;
308.1000;1.2153;1.5569;
308.4000;1.2145;1.5569;
308.7000;1.2153;1.5521;
309.0000;1.2161;1.5473;
309.3000;1.2153;1.5424;
309.6000;1.2161;1.5473;
309.9000;1.2145;1.5400;
310.2000;1.2112;1.5255;
310.5000;1.2145;1.5424;
310.8000;1.2177;1.5497;
311.1000;1.2096;1.5352;
311.4000;1.2137;1.5352;
311.7000;1.2080;1.5207;
312.0000;1.2096;1.5207;
312.3000;1.2129;1.5303;
312.6000;1.2137;1.5352;
312.9000;1.2129;1.5400;
313.2000;1.2137;1.5448;
313.5000;1.2153;1.5545;
313.8000;1.2137;1.5448;
314.1000;1.2112;1.5424;
314.4000;1.2129;1.5424;
314.7000;1.2104;1.5473;
315.0000;1.2104;1.5545;
315.3000;1.2120;1.5666;
315.6000;1.2137;1.5714;
315.9000;1.2129;1.5714;
316.2000;1.2153;1.5739;
316.5000;1.2153;1.5666;
316.8000;1.2137;1.5569;
317.1000;1.2169;1.5642;
317.4000;1.2137;1.5521;
317.7000;1.2112;1.5545;
318.0000;1.2145;1.5545;
318.3000;1.2080;1.5376;
318.6000;1.2039;1.5207;
318.9000;1.2120;1.5400;
319.2000;1.2120;1.5376;
319.5000;1.2137;1.5545;
319.8000;1.2120;1.5521;
320.1000;1.2120;1.5569;
320.4000;1.2153;1.5666;
320.7000;1.2104;1.5545;
321.0000;1.2145;1.5739;
321.3000;1.2137;1.5690;
321.6000;1.2129;1.5859;
321.9000;1.2194;1.6004;
322.2000;1.2153;1.5859;
322.5000;1.2137;1.5787;
322.8000;1.2129;1.5763;
323.1000;1.2145;1.5811;
323.4000;1.2137;1.5859;
323.7000;1.2104;1.5835;
324.0000;1.2137;1.5884;
324.3000;1.2137;1.5811;
324.6000;1.2129;1.5763;
324.9000;1.2112;1.5666;
325.2000;1.2137;1.5714;
325.5000;1.2120;1.5714;
325.8000;1.2129;1.5859;
326.1000;1.2104;1.5787;
326.4000;1.2137;1.5690;
326.7000;1.2137;1.5787;
327.0000;1.2104;1.5690;
327.3000;1.2112;1.5739;
327.6000;1.2129;1.5690;
327.9000;1.2145;1.5642;
328.2000;1.2129;1.5714;
328.5000;1.2137;1.5642;
328.8000;1.2120;1.5594;
329.1000;1.2104;1.5594;
329.4000;1.2129;1.5618;
329.7000;1.2145;1.5666;
330.0000;1.2145;1.5642;
330.3000;1.2104;1.5497;
330.6000;1.2145;1.5642;
330.9000;1.2153;1.5569;
331.2000;1.2153;1.5594;
331.5000;1.2145;1.5618;
331.8000;1.2169;1.5545;
332.1000;1.2169;1.5497;
332.4000;1.2161;1.5497;
332.7000;1.2186;1.5642;
333.0000;1.2129;1.5497;
333.3000;1.2177;1.5497;
333.6000;1.2153;1.5448;
333.9000;1.2120;1.5400;
334.2000;1.2129;1.5400;
334.5000;1.2129;1.5448;
334.8000;1.2145;1.5497;
335.1000;1.2169;1.5497;
335.4000;1.2153;1.5545;
335.7000;1.2129;1.5424;
336.0000;1.2145;1.5497;
336.3000;1.2145;1.5497;
336.6000;1.2129;1.5473;
336.9000;1.2137;1.5497;
337.2000;1.2112;1.5521;
337.5000;1.2177;1.5618;
337.8000;1.2145;1.5521;
338.1000;1.2137;1.5521;
338.4000;1.2104;1.5424;
338.7000;1.2145;1.5473;
339.0000;1.2112;1.5448;
339.3000;1.2137;1.5448;
339.6000;1.2120;1.5376;
339.9000;1.2145;1.5497;
340.2000;1.2137;1.5497;
340.5000;1.2137;1.5521;
340.8000;1.2145;1.5545;
341.1000;1.2177;1.5642;
341.4000;1.2169;1.5569;
341.7000;1.2153;1.5448;
342.0000;1.2145;1.5521;
342.3000;1.2153;1.5618;
342.6000;1.2145;1.5690;
342.9000;1.2112;1.5666;
343.2000;1.2120;1.5690;
343.5000;1.2137;1.5714;
343.8000;1.2145;1.5618;
344.1000;1.2129;1.5448;
344.4000;1.2137;1.5448;
344.7000;1.2145;1.5569;
345.0000;1.2120;1.5521;
345.3000;1.2145;1.5545;
345.6000;1.2177;1.5521;
345.9000;1.2137;1.5521;
346.2000;1.2169;1.5690;
346.5000;1.2145;1.5739;
346.8000;1.2161;1.5811;
347.1000;1.2072;1.5545;
347.4000;1.2153;1.5787;
347.7000;1.2145;1.5642;
348.0000;1.2112;1.5521;
348.3000;1.2137;1.5545;
348.6000;1.2153;1.5618;
348.9000;1.2186;1.5690;
349.2000;1.2137;1.5448;
349.5000;1.2145;1.5424;
349.8000;1.2194;1.5497;
350.1000;1.2161;1.5424;
350.4000;1.2145;1.5376;
350.7000;1.2137;1.5352;
351.0000;1.2145;1.5352;
351.3000;1.2145;1.5328;
351.6000;1.2169;1.5376;
351.9000;1.2161;1.5424;
352.2000;1.2161;1.5521;
352.5000;1.2153;1.5497;
352.8000;1.2186;1.5521;
353.1000;1.2120;1.5400;
353.4000;1.2129;1.5400;
353.7000;1.2137;1.5473;
354.0000;1.2153;1.5448;
354.3000;1.2145;1.5448;
354.6000;1.2145;1.5448;
354.9000;1.2145;1.5497;
355.2000;1.2145;1.5448;
355.5000;1.2104;1.5352;
355.8000;1.2137;1.5448;
356.1000;1.2137;1.5545;
356.4000;1.2153;1.5666;
356.7000;1.2129;1.5545;
357.0000;1.2137;1.5545;
357.3000;1.2129;1.5473;
357.6000;1.2169;1.5569;
357.9000;1.2153;1.5497;
358.2000;1.2120;1.5473;
358.5000;1.2137;1.5594;
358.8000;1.2104;1.5521;
359.1000;1.2137;1.5666;
359.4000;1.2129;1.5666;
359.7000;1.2137;1.5642;
360.0000;1.2129;1.5690;
360.3000;1.2137;1.5787;
360.6000;1.2129;1.5739;
360.9000;1.2137;1.5666;
361.2000;1.2153;1.5569;
361.5000;1.2145;1.5473;
361.8000;1.2129;1.5448;
362.1000;1.2137;1.5521;
362.4000;1.2145;1.5521;
362.7000;1.2145;1.5569;
363.0000;1.2129;1.5497;
363.3000;1.2129;1.5569;
363.6000;1.2055;1.5497;
363.9000;1.2129;1.5642;
364.2000;1.2120;1.5594;
364.5000;1.2161;1.5666;
364.8000;1.2129;1.5642;
365.1000;1.2129;1.5545;
365.4000;1.2161;1.5642;
365.7000;1.2120;1.5521;
366.0000;1.2096;1.5473;
366.3000;1.2120;1.5521;
366.6000;1.2137;1.5545;
366.9000;1.2145;1.5545;
367.2000;1.2169;1.5594;
367.5000;1.2129;1.5424;
367.8000;1.2186;1.5376;
368.1000;1.2129;1.5328;
368.4000;1.2137;1.5328;
368.7000;1.2129;1.5303;
369.0000;1.2129;1.5400;
369.3000;1.2145;1.5497;
369.6000;1.2145;1.5521;
369.9000;1.2080;1.5303;
370.2000;1.2137;1.5448;
370.5000;1.2129;1.5376;
370.8000;1.2145;1.5400;
371.1000;1.2161;1.5497;
371.4000;1.2177;1.5569;
371.7000;1.2161;1.5521;
372.0000;1.2153;1.5473;
372.3000;1.2177;1.5545;
372.6000;1.2137;1.5473;
372.9000;1.2161;1.5569;
373.2000;1.2129;1.5569;
373.5000;1.2129;1.5497;
373.8000;1.2112;1.5376;
374.1000;1.2129;1.5400;
374.4000;1.2112;1.5352;
374.7000;1.2153;1.5521;
375.0000;1.2120;1.5473;
375.3000;1.2112;1.5497;
375.6000;1.2137;1.5642;
375.9000;1.2112;1.5521;
376.2000;1.2177;1.5618;
376.5000;1.2137;1.5545;
376.8000;1.2137;1.5545;
377.1000;1.2145;1.5497;
377.4000;1.2145;1.5424;
377.7000;1.2145;1.5473;
378.0000;1.2161;1.5521;
378.3000;1.2210;1.5714;
378.6000;1.2169;1.5569;
378.9000;1.2129;1.5424;
379.2000;1.2153;1.5497;
379.5000;1.2145;1.5497;
379.8000;1.2145;1.5473;
380.1000;1.2104;1.5328;
380.4000;1.2145;1.5497;
380.7000;1.2137;1.5497;
381.0000;1.2129;1.5448;
381.3000;1.2137;1.5424;
381.6000;1.2129;1.5376;
381.9000;1.2120;1.5400;
382.2000;1.2137;1.5400;
382.5000;1.2129;1.5424;
382.8000;1.2112;1.5400;
383.1000;1.2120;1.5424;
383.4000;1.2137;1.5424;
383.7000;1.2129;1.5497;
384.0000;1.2129;1.5545;
384.3000;1.2145;1.5569;
384.6000;1.2137;1.5545;
384.9000;1.2145;1.5545;
385.2000;1.2145;1.5473;
385.5000;1.2145;1.5497;
385.8000;1.2129;1.5400;
386.1000;1.2112;1.5231;
386.4000;1.2202;1.5521;
386.7000;1.2145;1.5400;
387.0000;1.2145;1.5352;
387.3000;1.2161;1.5473;
387.6000;1.2161;1.5497;
387.9000;1.2129;1.5448;
388.2000;1.2112;1.5352;
388.5000;1.2129;1.5376;
388.8000;1.2145;1.5400;
389.1000;1.2063;1.5231;
389.4000;1.2161;1.5497;
389.7000;1.2145;1.5424;
390.0000;1.2137;1.5352;
390.3000;1.2112;1.5255;
390.6000;1.2145;1.5207;
390.9000;1.2145;1.5279;
391.2000;1.2145;1.5328;
391.5000;1.2129;1.5303;
391.8000;1.2161;1.5473;
392.1000;1.2153;1.5497;
392.4000;1.2129;1.5448;
392.7000;1.2120;1.5352;
393.0000;1.2129;1.5328;
393.3000;1.2088;1.5255;
393.6000;1.2161;1.5473;
393.9000;1.2145;1.5448;
394.2000;1.2145;1.5521;
394.5000;1.2153;1.5642;
394.8000;1.2137;1.5545;
395.1000;1.2161;1.5618;
395.4000;1.2129;1.5521;
395.7000;1.2153;1.5569;
396.0000;1.2129;1.5497;
396.3000;1.2129;1.5424;
396.6000;1.2145;1.5521;
396.9000;1.2137;1.5521;
397.2000;1.2145;1.5473;
397.5000;1.2194;1.5594;
397.8000;1.2129;1.5448;
398.1000;1.2129;1.5521;
398.4000;1.2129;1.5521;
398.7000;1.2120;1.5521;
399.0000;1.2145;1.5714;
399.3000;1.2137;1.5666;
399.6000;1.2145;1.5690;
399.9000;1.2145;1.5714;
400.2000;1.2137;1.5618;
400.5000;1.2161;1.5594;
400.8000;1.2120;1.5497;
401.1000;1.2153;1.5497;
401.4000;1.2137;1.5424;
401.7000;1.2137;1.5448;
402.0000;1.2218;1.5763;
402.3000;1.2153;1.5618;
402.6000;1.2120;1.5473;
402.9000;1.2145;1.5594;
403.2000;1.2104;1.5400;
403.5000;1.2137;1.5497;
403.8000;1.2129;1.5376;
404.1000;1.2137;1.5424;
404.4000;1.2129;1.5328;
404.7000;1.2137;1.5328;
405.0000;1.2177;1.5448;
405.3000;1.2202;1.5569;
405.6000;1.2145;1.5448;
405.9000;1.2104;1.5400;
406.2000;1.2112;1.5497;
406.5000;1.2129;1.5448;
406.8000;1.2177;1.5521;
407.1000;1.2055;1.5255;
407.4000;1.2129;1.5473;
407.7000;1.2129;1.5473;
408.0000;1.2120;1.5424;
408.3000;1.2120;1.5448;
408.6000;1.2096;1.5400;
408.9000;1.2129;1.5473;
409.2000;1.2145;1.5594;
409.5000;1.2120;1.5545;
409.8000;1.2129;1.5521;
410.1000;1.2153;1.5618;
410.4000;1.2137;1.5594;
410.7000;1.2120;1.5521;
411.0000;1.2137;1.5545;
411.3000;1.2161;1.5521;
411.6000;1.2161;1.5497;
411.9000;1.2145;1.5424;
412.2000;1.2088;1.5376;
412.5000;1.2194;1.5618;
412.8000;1.2153;1.5497;
413.1000;1.2186;1.5642;
413.4000;1.2226;1.5739;
413.7000;1.2153;1.5545;
414.0000;1.2120;1.5448;
414.3000;1.2145;1.5497;
414.6000;1.2129;1.5448;
414.9000;1.2145;1.5473;
415.2000;1.2145;1.5521;
415.5000;1.2137;1.5497;
415.8000;1.2145;1.5448;
416.1000;1.2137;1.5521;
416.4000;1.2120;1.5497;
416.7000;1.2153;1.5497;
417.0000;1.2120;1.5376;
417.3000;1.2120;1.5303;
417.6000;1.2137;1.5328;
417.9000;1.2137;1.5376;
418.2000;1.2137;1.5497;
418.5000;1.2129;1.5545;
418.8000;1.2153;1.5448;
419.1000;1.2161;1.5400;
419.4000;1.2145;1.5448;
419.7000;1.2137;1.5497;
420.0000;1.2145;1.5642;
420.3000;1.2145;1.5739;
420.6000;1.2153;1.5714;
420.9000;1.2120;1.5642;
421.2000;1.2145;1.5569;
421.5000;1.2153;1.5521;
421.8000;1.2145;1.5497;
422.1000;1.2153;1.5473;
422.4000;1.2129;1.5473;
422.7000;1.2137;1.5497;
423.0000;1.2145;1.5400;
423.3000;1.2129;1.5400;
423.6000;1.2129;1.5473;
423.9000;1.2177;1.5690;
424.2000;1.2161;1.5666;
424.5000;1.2153;1.5690;
424.8000;1.2137;1.5666;
425.1000;1.2177;1.5811;
425.4000;1.2161;1.5835;
425.7000;1.2161;1.5787;
426.0000;1.2145;1.5739;
426.3000;1.2169;1.5763;
426.6000;1.2129;1.5642;
426.9000;1.2129;1.5618;
427.2000;1.2161;1.5666;
427.5000;1.2153;1.5618;
427.8000;1.2145;1.5569;
428.1000;1.2161;1.5618;
428.4000;1.2145;1.5618;
428.7000;1.2088;1.5521;
429.0000;1.2137;1.5714;
429.3000;1.2137;1.5739;
429.6000;1.2153;1.5714;
429.9000;1.2137;1.5690;
430.2000;1.2186;1.5835;
430.5000;1.2177;1.5811;
430.8000;1.2120;1.5690;
431.1000;1.2129;1.5690;
431.4000;1.2161;1.5787;
431.7000;1.2145;1.5787;
432.0000;1.2129;1.5835;
432.3000;1.2153;1.5739;
432.6000;1.2080;1.5545;
432.9000;1.2153;1.5690;
433.2000;1.2177;1.5714;
433.5000;1.2161;1.5618;
433.8000;1.2137;1.5618;
434.1000;1.2145;1.5642;
434.4000;1.2120;1.5473;
434.7000;1.2137;1.5642;
435.0000;1.2145;1.5618;
435.3000;1.2120;1.5594;
435.6000;1.2120;1.5569;
435.9000;1.2104;1.5521;
436.2000;1.2202;1.5763;
436.5000;1.2112;1.5594;
436.8000;1.2129;1.5618;
437.1000;1.2120;1.5569;
437.4000;1.2112;1.5497;
437.7000;1.2129;1.5569;
438.0000;1.2145;1.5497;
438.3000;1.2137;1.5473;
438.6000;1.2137;1.5400;
438.9000;1.2047;1.5183;
439.2000;1.2112;1.5448;
439.5000;1.2145;1.5618;
439.8000;1.2120;1.5545;
440.1000;1.2137;1.5569;
440.4000;1.2145;1.5521;
440.7000;1.2153;1.5569;
441.0000;1.2120;1.5521;
441.3000;1.2137;1.5521;
441.6000;1.2120;1.5521;
441.9000;1.2145;1.5594;
442.2000;1.2129;1.5521;
442.5000;1.2129;1.5473;
442.8000;1.2145;1.5424;
443.1000;1.2120;1.5303;
443.4000;1.2137;1.5328;
443.7000;1.2129;1.5352;
444.0000;1.2153;1.5424;
444.3000;1.2145;1.5424;
444.6000;1.2153;1.5448;
444.9000;1.2137;1.5448;
445.2000;1.2137;1.5497;
445.5000;1.2153;1.5594;
445.8000;1.2129;1.5618;
446.1000;1.2137;1.5569;
446.4000;1.2137;1.5569;
446.7000;1.2153;1.5569;
447.0000;1.2194;1.5473;
447.3000;1.2112;1.5255;
447.6000;1.2153;1.5352;
447.9000;1.2137;1.5352;
448.2000;1.2137;1.5352;
448.5000;1.2161;1.5303;
448.8000;1.2161;1.5328;
449.1000;1.2251;1.5545;
449.4000;1.2153;1.5279;
449.7000;1.2186;1.5400;
450.0000;1.2129;1.5231;
450.3000;1.2177;1.5303;
450.6000;1.2153;1.5279;
450.9000;1.2137;1.5328;
451.2000;1.2120;1.5328;
451.5000;1.2129;1.5497;
451.8000;1.2096;1.5448;
452.1000;1.2145;1.5521;
452.4000;1.2112;1.5448;
452.7000;1.2112;1.5400;
453.0000;1.2120;1.5521;
453.3000;1.2145;1.5594;
453.6000;1.2137;1.5569;
453.9000;1.2120;1.5448;
454.2000;1.2137;1.5497;
454.5000;1.2153;1.5448;
454.8000;1.2129;1.5376;
455.1000;1.2039;1.5062;
455.4000;1.2104;1.5303;
455.7000;1.2153;1.5303;
456.0000;1.2145;1.5424;
456.3000;1.2137;1.5424;
456.6000;1.2104;1.5328;
456.9000;1.2129;1.5376;
457.2000;1.2120;1.5207;
457.5000;1.2129;1.5279;
457.8000;1.2137;1.5352;
458.1000;1.2169;1.5328;
458.4000;1.2104;1.5231;
458.7000;1.2145;1.5352;
459.0000;1.2137;1.5400;
459.3000;1.2137;1.5448;
459.6000;1.2129;1.5424;
459.9000;1.2120;1.5424;
460.2000;1.2072;1.5352;
460.5000;1.2129;1.5521;
460.8000;1.2145;1.5545;
461.1000;1.2153;1.5545;
461.4000;1.2112;1.5521;
461.7000;1.2202;1.5739;
462.0000;1.2120;1.5545;
462.3000;1.2120;1.5594;
462.6000;1.2129;1.5594;
462.9000;1.2112;1.5594;
463.2000;1.2104;1.5666;
463.5000;1.2137;1.5763;
463.8000;1.2153;1.5811;
464.1000;1.2137;1.5739;
464.4000;1.2120;1.5714;
464.7000;1.2137;1.5739;
465.0000;1.2137;1.5594;
465.3000;1.2129;1.5594;
465.6000;1.2112;1.5594;
465.9000;1.2112;1.5618;
466.2000;1.2112;1.5569;
466.5000;1.2104;1.5594;
466.8000;1.2104;1.5545;
467.1000;1.2120;1.5521;
467.4000;1.2137;1.5545;
467.7000;1.2129;1.5497;
468.0000;1.2129;1.5376;
468.3000;1.2153;1.5328;
468.6000;1.2129;1.5328;
468.9000;1.2137;1.5255;
469.2000;1.2161;1.5231;
469.5000;1.2137;1.5158;
469.8000;1.2145;1.5328;
470.1000;1.2129;1.5255;
470.4000;1.2137;1.5231;
470.7000;1.2137;1.5279;
471.0000;1.2145;1.5303;
471.3000;1.2120;1.5303;
471.6000;1.2112;1.5352;
471.9000;1.2137;1.5352;
472.2000;1.2145;1.5400;
472.5000;1.2137;1.5376;
472.8000;1.2137;1.5328;
473.1000;1.2129;1.5255;
473.4000;1.2145;1.5303;
473.7000;1.2120;1.5207;
474.0000;1.2153;1.5255;
474.3000;1.2145;1.5231;
474.6000;1.2145;1.5255;
474.9000;1.2129;1.5303;
475.2000;1.2169;1.5424;
475.5000;1.2137;1.5303;
475.8000;1.2145;1.5279;
476.1000;1.2129;1.5231;
476.4000;1.2129;1.5255;
476.7000;1.2104;1.5255;
477.0000;1.2104;1.5255;
477.3000;1.2129;1.5231;
477.6000;1.2153;1.5255;
477.9000;1.2137;1.5279;
478.2000;1.2129;1.5376;
478.5000;1.2129;1.5352;
478.8000;1.2120;1.5376;
479.1000;1.2145;1.5352;
479.4000;1.2120;1.5231;
479.7000;1.2104;1.5110;
480.0000;1.2137;1.5134;
480.3000;1.2137;1.5134;
480.6000;1.2129;1.5110;
480.9000;1.2137;1.5207;
481.2000;1.2210;1.5376;
481.5000;1.2129;1.5158;
481.8000;1.2153;1.5255;
482.1000;1.2104;1.5183;
482.4000;1.1998;1.4989;
482.7000;1.2177;1.5497;
483.0000;1.2137;1.5376;
483.3000;1.2218;1.5618;
483.6000;1.2145;1.5424;
483.9000;1.2153;1.5400;
484.2000;1.2161;1.5303;
484.5000;1.2145;1.5303;
484.8000;1.2080;1.5231;
485.1000;1.2161;1.5328;
485.4000;1.2137;1.5376;
485.7000;1.2145;1.5328;
486.0000;1.2129;1.5279;
486.3000;1.2129;1.5255;
486.6000;1.2153;1.5303;
486.9000;1.2120;1.5303;
487.2000;1.2129;1.5424;
487.5000;1.2145;1.5545;
487.8000;1.2112;1.5521;
488.1000;1.2145;1.5545;
488.4000;1.2129;1.5352;
488.7000;1.2137;1.5352;
489.0000;1.2145;1.5424;
489.3000;1.2112;1.5400;
489.6000;1.2137;1.5400;
489.9000;1.2186;1.5545;
490.2000;1.2137;1.5352;
490.5000;1.2120;1.5303;
490.8000;1.2137;1.5376;
491.1000;1.2137;1.5497;
491.4000;1.2161;1.5473;
491.7000;1.2169;1.5545;
492.0000;1.2137;1.5497;
492.3000;1.2153;1.5545;
492.6000;1.2145;1.5473;
492.9000;1.2145;1.5521;
493.2000;1.2120;1.5473;
493.5000;1.2153;1.5594;
493.8000;1.2120;1.5424;
494.1000;1.2153;1.5497;
494.4000;1.2177;1.5594;
494.7000;1.2080;1.5376;
495.0000;1.2169;1.5594;
495.3000;1.2145;1.5473;
495.6000;1.2186;1.5545;
495.9000;1.2145;1.5424;
496.2000;1.2137;1.5376;
496.5000;1.2137;1.5376;
496.8000;1.2072;1.5279;
497.1000;1.2137;1.5521;
497.4000;1.2161;1.5545;
497.7000;1.2137;1.5545;
498.0000;1.2194;1.5714;
498.3000;1.2161;1.5666;
498.6000;1.2145;1.5739;
498.9000;1.2218;1.5884;
499.2000;1.2145;1.5666;
499.5000;1.2137;1.5642;
499.8000;1.2112;1.5545;
500.1000;1.2104;1.5473;
500.4000;1.2063;1.5352;
500.7000;1.2145;1.5521;
501.0000;1.2137;1.5424;
501.3000;1.2129;1.5400;
501.6000;1.2104;1.5376;
501.9000;1.2129;1.5473;
502.2000;1.2129;1.5545;
502.5000;1.2096;1.5424;
502.8000;1.2153;1.5569;
503.1000;1.2145;1.5618;
503.4000;1.2145;1.5594;
503.7000;1.2137;1.5545;
504.0000;1.2161;1.5569;
504.3000;1.2145;1.5569;
504.6000;1.2137;1.5497;
504.9000;1.2137;1.5473;
505.2000;1.2129;1.5448;
505.5000;1.2145;1.5424;
505.8000;1.2177;1.5521;
506.1000;1.2129;1.5400;
506.4000;1.2153;1.5473;
506.7000;1.2129;1.5424;
507.0000;1.2112;1.5400;
507.3000;1.2169;1.5473;
507.6000;1.2120;1.5400;
507.9000;1.2129;1.5376;
508.2000;1.2137;1.5376;
508.5000;1.2129;1.5400;
508.8000;1.2129;1.5424;
509.1000;1.2129;1.5473;
509.4000;1.2153;1.5569;
509.7000;1.2120;1.5473;
510.0000;1.2120;1.5424;
510.3000;1.2129;1.5424;
510.6000;1.2137;1.5521;
510.9000;1.2104;1.5448;
511.2000;1.2120;1.5400;
511.5000;1.2129;1.5376;
511.8000;1.2129;1.5400;
512.1000;1.2153;1.5448;
512.4000;1.2129;1.5376;
512.7000;1.2120;1.5424;
513.0000;1.2129;1.5400;
513.3000;1.2145;1.5448;
513.6000;1.2120;1.5424;
513.9000;1.2120;1.5497;
514.2000;1.2145;1.5618;
514.5000;1.2145;1.5594;
514.8000;1.2145;1.5642;
515.1000;1.2129;1.5690;
515.4000;1.2112;1.5642;
515.7000;1.2145;1.5739;
516.0000;1.2129;1.5787;
516.3000;1.2120;1.5690;
516.6000;1.2129;1.5714;
516.9000;1.2137;1.5714;
517.2000;1.2129;1.5690;
517.5000;1.2177;1.5811;
517.8000;1.2129;1.5545;
518.1000;1.2096;1.5448;
518.4000;1.2137;1.5618;
518.7000;1.2120;1.5545;
519.0000;1.2161;1.5545;
519.3000;1.2137;1.5376;
519.6000;1.2186;1.5376;
519.9000;1.2129;1.5231;
520.2000;1.2129;1.5255;
520.5000;1.2112;1.5183;
520.8000;1.2120;1.5279;
521.1000;1.2194;1.5352;
521.4000;1.2145;1.5328;
521.7000;1.2129;1.5328;
522.0000;1.2129;1.5328;
522.3000;1.2129;1.5328;
522.6000;1.2112;1.5207;
522.9000;1.2112;1.5328;
523.2000;1.2104;1.5328;
523.5000;1.2186;1.5545;
523.8000;1.2104;1.5352;
524.1000;1.2104;1.5376;
524.4000;1.2137;1.5545;
524.7000;1.2137;1.5497;
525.0000;1.2129;1.5569;
525.3000;1.2129;1.5521;
525.6000;1.2112;1.5521;
525.9000;1.2120;1.5521;
526.2000;1.2194;1.5666;
526.5000;1.2088;1.5352;
526.8000;1.2129;1.5473;
527.1000;1.2137;1.5521;
527.4000;1.2145;1.5497;
527.7000;1.2137;1.5473;
528.0000;1.2112;1.5448;
528.3000;1.2202;1.5666;
528.6000;1.2145;1.5569;
528.9000;1.2104;1.5448;
529.2000;1.2088;1.5400;
529.5000;1.2145;1.5497;
529.8000;1.2072;1.5279;
530.1000;1.2129;1.5376;
530.4000;1.2129;1.5400;
530.7000;1.2129;1.5376;
531.0000;1.2153;1.5376;
531.3000;1.2145;1.5400;
531.6000;1.2129;1.5376;
531.9000;1.2129;1.5352;
532.2000;1.2145;1.5424;
532.5000;1.2153;1.5521;
532.8000;1.2129;1.5545;
533.1000;1.2137;1.5569;
533.4000;1.2137;1.5545;
533.7000;1.2137;1.5521;
534.0000;1.2120;1.5521;
534.3000;1.2112;1.5545;
534.6000;1.2145;1.5497;
534.9000;1.2153;1.5448;
535.2000;1.2031;1.5207;
535.5000;1.2137;1.5497;
535.8000;1.2137;1.5521;
536.1000;1.2137;1.5569;
536.4000;1.2129;1.5569;
536.7000;1.2112;1.5618;
537.0000;1.2129;1.5618;
537.3000;1.2137;1.5666;
537.6000;1.2129;1.5594;
537.9000;1.2129;1.5690;
538.2000;1.2120;1.5666;
538.5000;1.2120;1.5594;
538.8000;1.2145;1.5569;
539.1000;1.2120;1.5545;
539.4000;1.2145;1.5642;
539.7000;1.2153;1.5714;
540.0000;1.2153;1.5690;
540.3000;1.2145;1.5714;
540.6000;1.2129;1.5739;
540.9000;1.2145;1.5835;
541.2000;1.2104;1.5739;
541.5000;1.2145;1.5884;
541.8000;1.2120;1.5739;
542.1000;1.2145;1.5690;
542.4000;1.2129;1.5666;
542.7000;1.2120;1.5545;
543.0000;1.2120;1.5497;
543.3000;1.2104;1.5400;
543.6000;1.2080;1.5303;
543.9000;1.2112;1.5352;
544.2000;1.2218;1.5594;
544.5000;1.2080;1.5424;
544.8000;1.2088;1.5521;
545.1000;1.2112;1.5594;
545.4000;1.2088;1.5521;
545.7000;1.2112;1.5642;
546.0000;1.2112;1.5690;
546.3000;1.2120;1.5763;
546.6000;1.2129;1.5763;
546.9000;1.2096;1.5739;
547.2000;1.2104;1.5690;
547.5000;1.2063;1.5594;
547.8000;1.2112;1.5714;
548.1000;1.2145;1.5690;
548.4000;1.2120;1.5569;
548.7000;1.2120;1.5569;
549.0000;1.2120;1.5594;
549.3000;1.2104;1.5594;
549.6000;1.2104;1.5497;
549.9000;1.2129;1.5473;
550.2000;1.2145;1.5448;
550.5000;1.2120;1.5473;
550.8000;1.2145;1.5545;
551.1000;1.2120;1.5569;
551.4000;1.2145;1.5618;
551.7000;1.2145;1.5569;
552.0000;1.2129;1.5569;
552.3000;1.2120;1.5521;
552.6000;1.2129;1.5521;
552.9000;1.2129;1.5642;
553.2000;1.2120;1.5642;
553.5000;1.2096;1.5569;
553.8000;1.2120;1.5618;
554.1000;1.2112;1.5642;
554.4000;1.2112;1.5521;
554.7000;1.2120;1.5521;
555.0000;1.2120;1.5497;
555.3000;1.2129;1.5521;
555.6000;1.2129;1.5400;
555.9000;1.2104;1.5376;
556.2000;1.2120;1.5473;
556.5000;1.2120;1.5569;
556.8000;1.2129;1.5594;
557.1000;1.2104;1.5569;
557.4000;1.2120;1.5594;
557.7000;1.2129;1.5618;
558.0000;1.2145;1.5714;
558.3000;1.2112;1.5666;
558.6000;1.2112;1.5690;
558.9000;1.2112;1.5714;
559.2000;1.2129;1.5642;
559.5000;1.2112;1.5569;
559.8000;1.2137;1.5618;
560.1000;1.2120;1.5545;
560.4000;1.2129;1.5545;
560.7000;1.2145;1.5497;
561.0000;1.2153;1.5424;
561.3000;1.2145;1.5352;
561.6000;1.2161;1.5352;
561.9000;1.2112;1.5255;
562.2000;1.2137;1.5303;
562.5000;1.2137;1.5255;
562.8000;1.2137;1.5303;
563.1000;1.2129;1.5328;
563.4000;1.2120;1.5352;
563.7000;1.2129;1.5303;
564.0000;1.2137;1.5303;
564.3000;1.2120;1.5352;
564.6000;1.2112;1.5231;
564.9000;1.2112;1.5134;
565.2000;1.2063;1.5062;
565.5000;1.2145;1.5279;
565.8000;1.2096;1.5110;
566.1000;1.2145;1.5207;
566.4000;1.2129;1.5207;
566.7000;1.2202;1.5279;
567.0000;1.2137;1.5158;
567.3000;1.2153;1.5279;
567.6000;1.2063;1.5134;
567.9000;1.2129;1.5328;
568.2000;1.2137;1.5303;
568.5000;1.2112;1.5134;
568.8000;1.2120;1.5303;
569.1000;1.2145;1.5497;
569.4000;1.2120;1.5521;
569.7000;1.2129;1.5569;
570.0000;1.2104;1.5473;
570.3000;1.2112;1.5569;
570.6000;1.2137;1.5666;
570.9000;1.2120;1.5666;
571.2000;1.2129;1.5690;
571.5000;1.2137;1.5666;
571.8000;1.2153;1.5739;
572.1000;1.2145;1.5690;
572.4000;1.2137;1.5594;
572.7000;1.2129;1.5594;
573.0000;1.2137;1.5497;
573.3000;1.2137;1.5424;
573.6000;1.2137;1.5328;
573.9000;1.2218;1.5521;
574.2000;1.2120;1.5400;
574.5000;1.2104;1.5376;
574.8000;1.2120;1.5424;
575.1000;1.2104;1.5376;
575.4000;1.2145;1.5400;
575.7000;1.2145;1.5424;
576.0000;1.2129;1.5448;
576.3000;1.2153;1.5521;
576.6000;1.2145;1.5473;
576.9000;1.2145;1.5594;
577.2000;1.2153;1.5618;
577.5000;1.2104;1.5545;
577.8000;1.2169;1.5594;
578.1000;1.2129;1.5545;
578.4000;1.2129;1.5594;
578.7000;1.2112;1.5521;
579.0000;1.2120;1.5424;
579.3000;1.2055;1.5255;
579.6000;1.2112;1.5328;
579.9000;1.2112;1.5328;
580.2000;1.2104;1.5376;
580.5000;1.2129;1.5424;
580.8000;1.2120;1.5424;
581.1000;1.2112;1.5400;
581.4000;1.2112;1.5473;
581.7000;1.2120;1.5448;
582.0000;1.2145;1.5521;
582.3000;1.2145;1.5569;
582.6000;1.2120;1.5448;
582.9000;1.2129;1.5473;
583.2000;1.2137;1.5497;
583.5000;1.2129;1.5448;
583.8000;1.2112;1.5448;
584.1000;1.2063;1.5303;
584.4000;1.2120;1.5328;
584.7000;1.2120;1.5376;
585.0000;1.2129;1.5448;
585.3000;1.2161;1.5545;
585.6000;1.2137;1.5424;
585.9000;1.2137;1.5497;
586.2000;1.2120;1.5497;
586.5000;1.2137;1.5424;
586.8000;1.2112;1.5352;
587.1000;1.2210;1.5569;
587.4000;1.2129;1.5400;
587.7000;1.2137;1.5424;
588.0000;1.2120;1.5279;
588.3000;1.2088;1.5183;
588.6000;1.2120;1.5255;
588.9000;1.2120;1.5303;
589.2000;1.2112;1.5328;
589.5000;1.2129;1.5279;
589.8000;1.2177;1.5448;
590.1000;1.2072;1.5134;
590.4000;1.2129;1.5424;
590.7000;1.2129;1.5497;
591.0000;1.2063;1.5231;
591.3000;1.2177;1.5400;
591.6000;1.2063;1.5183;
591.9000;1.2120;1.5328;
592.2000;1.2145;1.5328;
592.5000;1.2137;1.5279;
592.8000;1.2120;1.5134;
593.1000;1.2145;1.5231;
593.4000;1.2104;1.5086;
593.7000;1.2112;1.5183;
594.0000;1.2153;1.5376;
594.3000;1.2112;1.5328;
594.6000;1.2120;1.5376;
594.9000;1.2120;1.5303;
595.2000;1.2161;1.5279;
595.5000;1.2104;1.5183;
595.8000;1.2145;1.5255;
596.1000;1.2129;1.5279;
596.4000;1.2145;1.5279;
596.7000;1.2120;1.5303;
597.0000;1.2120;1.5376;
597.3000;1.2137;1.5352;
597.6000;1.2137;1.5376;
597.9000;1.2112;1.5400;
598.2000;1.2072;1.5328;
598.5000;1.2129;1.5497;
598.8000;1.2120;1.5497;
599.1000;1.2120;1.5497;
599.4000;1.2145;1.5569;
599.7000;1.2129;1.5545;
600.0000;1.2120;1.5473;
600.3000;1.2112;1.5303;
600.6000;1.2088;1.5255;
600.9000;1.2023;1.5086;
601.2000;1.1925;1.4892;
601.5000;1.1819;1.4626;
601.8000;1.1713;1.4385;
602.1000;1.1689;1.4433;
602.4000;1.1518;1.4022;
602.7000;1.1404;1.3756;
603.0000;1.1331;1.3635;
603.3000;1.1225;1.3442;
603.6000;1.1144;1.3345;
603.9000;1.1062;1.3176;
604.2000;1.0989;1.3152;
604.5000;1.0924;1.3055;
604.8000;1.0859;1.3055;
605.1000;1.0802;1.3103;
605.4000;1.0729;1.3128;
605.7000;1.0672;1.3055;
606.0000;1.0615;1.2958;
606.3000;1.0566;1.2813;
606.6000;1.0517;1.2717;
606.9000;1.0468;1.2620;
607.2000;1.0435;1.2620;
607.5000;1.0395;1.2644;
607.8000;1.0338;1.2523;
608.1000;1.0297;1.2499;
608.4000;1.0273;1.2499;
608.7000;1.0224;1.2547;
609.0000;1.0167;1.2499;
609.3000;1.0110;1.2499;
609.6000;1.0094;1.2499;
609.9000;1.0061;1.2572;
610.2000;1.0037;1.2547;
610.5000;0.9996;1.2426;
610.8000;0.9980;1.2233;
611.1000;0.9963;1.2209;
611.4000;0.9915;1.2161;
611.7000;0.9890;1.2185;
612.0000;0.9841;1.2112;
612.3000;0.9849;1.2088;
612.6000;0.9801;1.2015;
612.9000;0.9768;1.2088;
613.2000;0.9801;1.2330;
613.5000;0.9695;1.2136;
613.8000;0.9695;1.2185;
614.1000;0.9662;1.2209;
614.4000;0.9613;1.2088;
614.7000;0.9573;1.1967;
615.0000;0.9589;1.2088;
615.3000;0.9532;1.1991;
615.6000;0.9540;1.1991;
615.9000;0.9524;1.2015;
616.2000;0.9434;1.1870;
616.5000;0.9483;1.2064;
616.8000;0.9467;1.2112;
617.1000;0.9402;1.1991;
617.4000;0.9442;1.2088;
617.7000;0.9385;1.2064;
618.0000;0.9377;1.2015;
618.3000;0.9320;1.1943;
618.6000;0.9361;1.2015;
618.9000;0.9312;1.1846;
619.2000;0.9280;1.1846;
619.5000;0.9296;1.1919;
619.8000;0.9288;1.1967;
620.1000;0.9255;1.1895;
620.4000;0.9223;1.1846;
620.7000;0.9214;1.1895;
621.0000;0.9198;1.1919;
621.3000;0.9149;1.1822;
621.6000;0.9133;1.1846;
621.9000;0.9149;1.1943;
622.2000;0.9117;1.1991;
622.5000;0.9125;1.2136;
622.8000;0.9117;1.2233;
623.1000;0.9084;1.2112;
623.4000;0.9092;1.2161;
623.7000;0.9068;1.2161;
624.0000;0.9052;1.2233;
624.3000;0.9035;1.2209;
624.6000;0.9003;1.2161;
624.9000;0.9011;1.2257;
625.2000;0.9027;1.2330;
625.5000;0.8987;1.2185;
625.8000;0.8913;1.2064;
626.1000;0.8954;1.2185;
626.4000;0.8938;1.2233;
626.7000;0.8946;1.2281;
627.0000;0.8921;1.2233;
627.3000;0.8913;1.2161;
627.6000;0.8938;1.2161;
627.9000;0.8913;1.2064;
628.2000;0.8832;1.1895;
628.5000;0.8848;1.1895;
628.8000;0.8864;1.1943;
629.1000;0.8848;1.1943;
629.4000;0.8824;1.1943;
629.7000;0.8791;1.1870;
630.0000;0.8807;1.1846;
630.3000;0.8799;1.1725;
630.6000;0.8799;1.1701;
630.9000;0.8767;1.1725;
631.2000;0.8759;1.1750;
631.5000;0.8759;1.1822;
631.8000;0.8840;1.2015;
632.1000;0.8751;1.1846;
632.4000;0.8742;1.1846;
632.7000;0.8710;1.1846;
633.0000;0.8702;1.1895;
633.3000;0.8702;1.1943;
633.6000;0.8677;1.1943;
633.9000;0.8677;1.2015;
634.2000;0.8653;1.1895;
634.5000;0.8669;1.1943;
634.8000;0.8645;1.1967;
635.1000;0.8637;1.1943;
635.4000;0.8628;1.1895;
635.7000;0.8628;1.1798;
636.0000;0.8596;1.1701;
636.3000;0.8571;1.1725;
636.6000;0.8637;1.1846;
636.9000;0.8612;1.1822;
637.2000;0.8637;1.1967;
637.5000;0.8563;1.1798;
637.8000;0.8604;1.1943;
638.1000;0.8555;1.1967;
638.4000;0.8571;1.1967;
638.7000;0.8539;1.1870;
639.0000;0.8539;1.1943;
639.3000;0.8514;1.1895;
639.6000;0.8514;1.1895;
639.9000;0.8490;1.1846;
640.2000;0.8482;1.1870;
640.5000;0.8490;1.1846;
640.8000;0.8482;1.1919;
641.1000;0.8490;1.1919;
641.4000;0.8425;1.1846;
641.7000;0.8457;1.2015;
642.0000;0.8457;1.1967;
642.3000;0.8433;1.1919;
642.6000;0.8441;1.1895;
642.9000;0.8449;1.2015;
643.2000;0.8433;1.1991;
643.5000;0.8425;1.1991;
643.8000;0.8384;1.2040;
644.1000;0.8409;1.2040;
644.4000;0.8400;1.2015;
644.7000;0.8417;1.1943;
645.0000;0.8400;1.1991;
645.3000;0.8368;1.1943;
645.6000;0.8376;1.1991;
645.9000;0.8360;1.1943;
646.2000;0.8360;1.2015;
646.5000;0.8335;1.1991;
646.8000;0.8368;1.1991;
647.1000;0.8360;1.1943;
647.4000;0.8360;1.1967;
647.7000;0.8327;1.1895;
648.0000;0.8327;1.1846;
648.3000;0.8327;1.1774;
648.6000;0.8295;1.1653;
648.9000;0.8303;1.1725;
649.2000;0.8311;1.1846;
649.5000;0.8287;1.1870;
649.8000;0.8311;1.1943;
650.1000;0.8270;1.1822;
650.4000;0.8246;1.1774;
650.7000;0.8270;1.1895;
651.0000;0.8262;1.1919;
651.3000;0.8246;1.1798;
651.6000;0.8254;1.1750;
651.9000;0.8238;1.1677;
652.2000;0.8221;1.1556;
652.5000;0.8238;1.1604;
652.8000;0.8221;1.1604;
653.1000;0.8213;1.1629;
653.4000;0.8221;1.1629;
653.7000;0.8213;1.1604;
654.0000;0.8189;1.1580;
654.3000;0.8197;1.1580;
654.6000;0.8189;1.1604;
654.9000;0.8189;1.1629;
655.2000;0.8189;1.1677;
655.5000;0.8164;1.1750;
655.8000;0.8173;1.1725;
656.1000;0.8189;1.1822;
656.4000;0.8107;1.1629;
656.7000;0.8140;1.1774;
657.0000;0.8140;1.1798;
657.3000;0.8124;1.1870;
657.6000;0.8124;1.1943;
657.9000;0.8132;1.1943;
658.2000;0.8156;1.1991;
658.5000;0.8181;1.2040;
658.8000;0.8107;1.1943;
659.1000;0.8059;1.1822;
659.4000;0.8091;1.1870;
659.7000;0.8067;1.1798;
660.0000;0.8083;1.1846;
660.3000;0.8075;1.1967;
660.6000;0.8034;1.1822;
660.9000;0.8018;1.1798;
661.2000;0.8140;1.2161;
661.5000;0.8107;1.2040;
661.8000;0.8026;1.1798;
662.1000;0.8059;1.1846;
662.4000;0.8067;1.1870;
662.7000;0.8042;1.1895;
663.0000;0.8042;1.1870;
663.3000;0.7937;1.1604;
663.6000;0.8026;1.1774;
663.9000;0.7961;1.1604;
664.2000;0.8010;1.1774;
664.5000;0.8010;1.1870;
664.8000;0.8002;1.1870;
665.1000;0.7985;1.1870;
665.4000;0.8010;1.1991;
665.7000;0.8002;1.2040;
666.0000;0.7969;1.1943;
666.3000;0.7985;1.2040;
666.6000;0.7977;1.2015;
666.9000;0.8026;1.2112;
667.2000;0.7977;1.2015;
667.5000;0.7977;1.1895;
667.8000;0.7953;1.1919;
668.1000;0.7937;1.1943;
668.4000;0.7953;1.1991;
668.7000;0.7945;1.1919;
669.0000;0.7945;1.2015;
669.3000;0.7953;1.2136;
669.6000;0.7912;1.2064;
669.9000;0.7937;1.2015;
670.2000;0.7920;1.2015;
670.5000;0.7937;1.1943;
670.8000;0.7928;1.1943;
671.1000;0.7920;1.1991;
671.4000;0.7904;1.2040;
671.7000;0.7904;1.2064;
672.0000;0.7880;1.2015;
672.3000;0.7920;1.1991;
672.6000;0.7904;1.1943;
672.9000;0.7912;1.1967;
673.2000;0.7880;1.1870;
673.5000;0.7904;1.1919;
673.8000;0.7896;1.1943;
674.1000;0.7961;1.2088;
674.4000;0.7863;1.1846;
674.7000;0.7871;1.1895;
675.0000;0.7880;1.1919;
675.3000;0.7863;1.1919;
675.6000;0.7823;1.1846;
675.9000;0.7839;1.1870;
676.2000;0.7766;1.1750;
676.5000;0.7855;1.1991;
676.8000;0.7814;1.1870;
677.1000;0.7823;1.1967;
677.4000;0.7823;1.1943;
677.7000;0.7839;1.1943;
678.0000;0.7823;1.1943;
678.3000;0.7774;1.1870;
678.6000;0.7806;1.1846;
678.9000;0.7814;1.1919;
679.2000;0.7839;1.2064;
679.5000;0.7798;1.1943;
679.8000;0.7798;1.1895;
680.1000;0.7798;1.1967;
680.4000;0.7814;1.2040;
680.7000;0.7757;1.1870;
681.0000;0.7798;1.1919;
681.3000;0.7806;1.1943;
681.6000;0.7806;1.1967;
681.9000;0.7806;1.2040;
682.2000;0.7782;1.2064;
682.5000;0.7766;1.2040;
682.8000;0.7766;1.2088;
683.1000;0.7749;1.2064;
683.4000;0.7741;1.2088;
683.7000;0.7692;1.1991;
684.0000;0.7741;1.2064;
684.3000;0.7741;1.2064;
684.6000;0.7725;1.2040;
684.9000;0.7741;1.1991;
685.2000;0.7700;1.1846;
685.5000;0.7725;1.2040;
685.8000;0.7733;1.2040;
686.1000;0.7700;1.1943;
686.4000;0.7725;1.1991;
686.7000;0.7692;1.1967;
687.0000;0.7676;1.2040;
687.3000;0.7700;1.2088;
687.6000;0.7709;1.2209;
687.9000;0.7692;1.2185;
688.2000;0.7717;1.2233;
688.5000;0.7741;1.2161;
688.8000;0.7700;1.2040;
689.1000;0.7700;1.1991;
689.4000;0.7676;1.1919;
689.7000;0.7668;1.1919;
690.0000;0.7668;1.2040;
690.3000;0.7660;1.2064;
690.6000;0.7676;1.2015;
690.9000;0.7668;1.2161;
691.2000;0.7635;1.2088;
691.5000;0.7660;1.2185;
691.8000;0.7652;1.2112;
692.1000;0.7692;1.2209;
692.4000;0.7660;1.2112;
692.7000;0.7660;1.2088;
693.0000;0.7643;1.1991;
693.3000;0.7643;1.1895;
693.6000;0.7627;1.1919;
693.9000;0.7635;1.1895;
694.2000;0.7635;1.1870;
694.5000;0.7619;1.1750;
694.8000;0.7603;1.1774;
695.1000;0.7611;1.1870;
695.4000;0.7595;1.1846;
695.7000;0.7603;1.1870;
696.0000;0.7586;1.1822;
696.3000;0.7586;1.1895;
696.6000;0.7595;1.1846;
696.9000;0.7595;1.1846;
697.2000;0.7595;1.1798;
697.5000;0.7595;1.1822;
697.8000;0.7603;1.1846;
698.1000;0.7619;1.1919;
698.4000;0.7578;1.1895;
698.7000;0.7586;1.1895;
699.0000;0.7586;1.1870;
699.3000;0.7554;1.1750;
699.6000;0.7578;1.1846;
699.9000;0.7554;1.1870;
700.2000;0.7586;1.1919;
700.5000;0.7595;1.1991;
700.8000;0.7578;1.1991;
701.1000;0.7570;1.2064;
701.4000;0.7578;1.2088;
701.7000;0.7570;1.2040;
702.0000;0.7562;1.2040;
702.3000;0.7562;1.1991;
702.6000;0.7570;1.1967;
702.9000;0.7570;1.1991;
703.2000;0.7554;1.1919;
703.5000;0.7538;1.1846;
703.8000;0.7562;1.1967;
704.1000;0.7546;1.1895;
704.4000;0.7538;1.1774;
704.7000;0.7530;1.1750;
705.0000;0.7546;1.1798;
705.3000;0.7538;1.1822;
705.6000;0.7530;1.1870;
705.9000;0.7513;1.1943;
706.2000;0.7521;1.1919;
706.5000;0.7497;1.1895;
706.8000;0.7521;1.1991;
707.1000;0.7538;1.1967;
707.4000;0.7521;1.1991;
707.7000;0.7497;1.1967;
708.0000;0.7530;1.2064;
708.3000;0.7530;1.1991;
708.6000;0.7505;1.1943;
708.9000;0.7489;1.2015;
709.2000;0.7497;1.2015;
709.5000;0.7497;1.1991;
709.8000;0.7473;1.1870;
710.1000;0.7481;1.1870;
710.4000;0.7505;1.1919;
710.7000;0.7464;1.1870;
711.0000;0.7456;1.1870;
711.3000;0.7481;1.1895;
711.6000;0.7464;1.1870;
711.9000;0.7481;1.1943;
712.2000;0.7497;1.1991;
712.5000;0.7562;1.2233;
712.8000;0.7440;1.1991;
713.1000;0.7473;1.2064;
713.4000;0.7497;1.2161;
713.7000;0.7464;1.1991;
714.0000;0.7464;1.1991;
714.3000;0.7481;1.1919;
714.6000;0.7456;1.1870;
714.9000;0.7440;1.1846;
715.2000;0.7432;1.1870;
715.5000;0.7440;1.2015;
715.8000;0.7432;1.2015;
716.1000;0.7456;1.1991;
716.4000;0.7432;1.1967;
716.7000;0.7456;1.1919;
717.0000;0.7464;1.1919;
717.3000;0.7456;1.1943;
717.6000;0.7440;1.1991;
717.9000;0.7473;1.2040;
718.2000;0.7481;1.2088;
718.5000;0.7448;1.1991;
718.8000;0.7383;1.1870;
719.1000;0.7424;1.1967;
719.4000;0.7375;1.1895;
719.7000;0.7432;1.2040;
720.0000;0.7424;1.1967;
720.3000;0.7399;1.1846;
720.6000;0.7416;1.1991;
720.9000;0.7391;1.1991;
721.2000;0.7432;1.2136;
721.5000;0.7424;1.2161;
721.8000;0.7464;1.2209;
722.1000;0.7424;1.2112;
722.4000;0.7416;1.2015;
722.7000;0.7416;1.1991;
723.0000;0.7416;1.1967;
723.3000;0.7391;1.1943;
723.6000;0.7416;1.1919;
723.9000;0.7391;1.1943;
724.2000;0.7391;1.1967;
724.5000;0.7391;1.2015;
724.8000;0.7391;1.2088;
725.1000;0.7391;1.2015;
725.4000;0.7367;1.1991;
725.7000;0.7359;1.2040;
726.0000;0.7342;1.2088;
726.3000;0.7383;1.2112;
726.6000;0.7367;1.2088;
726.9000;0.7367;1.2088;
727.2000;0.7367;1.2136;
727.5000;0.7359;1.2112;
727.8000;0.7310;1.1895;
728.1000;0.7342;1.1991;
728.4000;0.7383;1.2161;
728.7000;0.7359;1.2112;
729.0000;0.7359;1.2112;
729.3000;0.7399;1.2281;
729.6000;0.7375;1.2112;
729.9000;0.7375;1.1967;
730.2000;0.7367;1.1895;
730.5000;0.7350;1.1895;
730.8000;0.7342;1.2015;
731.1000;0.7359;1.2015;
731.4000;0.7350;1.1967;
731.7000;0.7391;1.2064;
732.0000;0.7326;1.2112;
732.3000;0.7318;1.2015;
732.6000;0.7302;1.1943;
732.9000;0.7326;1.1895;
733.2000;0.7359;1.1967;
733.5000;0.7383;1.2015;
733.8000;0.7326;1.1870;
734.1000;0.7310;1.1895;
734.4000;0.7326;1.1967;
734.7000;0.7350;1.2015;
735.0000;0.7310;1.1967;
735.3000;0.7318;1.1991;
735.6000;0.7326;1.2064;
735.9000;0.7310;1.2112;
736.2000;0.7302;1.2015;
736.5000;0.7359;1.2161;
736.8000;0.7318;1.2040;
737.1000;0.7318;1.2112;
737.4000;0.7318;1.2064;
737.7000;0.7326;1.2040;
738.0000;0.7350;1.2136;
738.3000;0.7285;1.1943;
738.6000;0.7334;1.2015;
738.9000;0.7318;1.1967;
739.2000;0.7293;1.1967;
739.5000;0.7310;1.2015;
739.8000;0.7293;1.1943;
740.1000;0.7310;1.1919;
740.4000;0.7245;1.1846;
740.7000;0.7302;1.1943;
741.0000;0.7285;1.1943;
741.3000;0.7293;1.1967;
741.6000;0.7302;1.1967;
741.9000;0.7261;1.1895;
742.2000;0.7302;1.2064;
742.5000;0.7302;1.2040;
742.8000;0.7293;1.2015;
743.1000;0.7269;1.2040;
743.4000;0.7302;1.2161;
743.7000;0.7285;1.2185;
744.0000;0.7285;1.2112;
744.3000;0.7293;1.2136;
744.6000;0.7261;1.2064;
744.9000;0.7253;1.2064;
745.2000;0.7269;1.2136;
745.5000;0.7245;1.2112;
745.8000;0.7253;1.2088;
746.1000;0.7245;1.2112;
746.4000;0.7253;1.2112;
746.7000;0.7261;1.2112;
747.0000;0.7261;1.2136;
747.3000;0.7269;1.2161;
747.6000;0.7269;1.2088;
747.9000;0.7277;1.2015;
748.2000;0.7236;1.1943;
748.5000;0.7277;1.2040;
748.8000;0.7245;1.1967;
749.1000;0.7261;1.1895;
749.4000;0.7261;1.1943;
749.7000;0.7269;1.1943;
750.0000;0.7253;1.2015;
750.3000;0.7253;1.1991;
750.6000;0.7245;1.2064;
750.9000;0.7245;1.2064;
751.2000;0.7236;1.2088;
751.5000;0.7269;1.2185;
751.8000;0.7293;1.2161;
752.1000;0.7285;1.2112;
752.4000;0.7253;1.2015;
752.7000;0.7350;1.2185;
753.0000;0.7253;1.2015;
753.3000;0.7236;1.2015;
753.6000;0.7139;1.1774;
753.9000;0.7236;1.1991;
754.2000;0.7147;1.1774;
754.5000;0.7285;1.2136;
754.8000;0.7245;1.2064;
755.1000;0.7293;1.2112;
755.4000;0.7253;1.1991;
755.7000;0.7212;1.1870;
756.0000;0.7228;1.1943;
756.3000;0.7228;1.2064;
756.6000;0.7277;1.2161;
756.9000;0.7236;1.2112;
757.2000;0.7212;1.2015;
757.5000;0.7212;1.1967;
757.8000;0.7220;1.2088;
758.1000;0.7220;1.1991;
758.4000;0.7212;1.1870;
758.7000;0.7228;1.1943;
759.0000;0.7212;1.2015;
759.3000;0.7228;1.2064;
759.6000;0.7220;1.2161;
759.9000;0.7204;1.2112;
760.2000;0.7212;1.2112;
760.5000;0.7196;1.2064;
760.8000;0.7220;1.2064;
761.1000;0.7212;1.1991;
761.4000;0.7196;1.1967;
761.7000;0.7220;1.2040;
762.0000;0.7212;1.2064;
762.3000;0.7188;1.2088;
762.6000;0.7196;1.2136;
762.9000;0.7188;1.2136;
763.2000;0.7212;1.2209;
763.5000;0.7212;1.2209;
763.8000;0.7236;1.2233;
764.1000;0.7204;1.2161;
764.4000;0.7212;1.2185;
764.7000;0.7204;1.2136;
765.0000;0.7212;1.2112;
765.3000;0.7204;1.2136;
765.6000;0.7204;1.2112;
765.9000;0.7179;1.2136;
766.2000;0.7179;1.2209;
766.5000;0.7179;1.2185;
766.8000;0.7196;1.2112;
767.1000;0.7163;1.2040;
767.4000;0.7163;1.2015;
767.7000;0.7204;1.2040;
768.0000;0.7204;1.2112;
768.3000;0.7196;1.2015;
768.6000;0.7196;1.2064;
768.9000;0.7163;1.2015;
769.2000;0.7188;1.2088;
769.5000;0.7196;1.2112;
769.8000;0.7163;1.2015;
770.1000;0.7171;1.2015;
770.4000;0.7163;1.1991;
770.7000;0.7147;1.1919;
771.0000;0.7155;1.2040;
771.3000;0.7163;1.2088;
771.6000;0.7139;1.2015;
771.9000;0.7171;1.2161;
772.2000;0.7188;1.2161;
772.5000;0.7155;1.2136;
772.8000;0.7179;1.2088;
773.1000;0.7228;1.2185;
773.4000;0.7171;1.2040;
773.7000;0.7179;1.2112;
774.0000;0.7196;1.2161;
774.3000;0.7163;1.2161;
774.6000;0.7179;1.2185;
774.9000;0.7163;1.2136;
775.2000;0.7171;1.2088;
775.5000;0.7196;1.2161;
775.8000;0.7171;1.2136;
776.1000;0.7123;1.1991;
776.4000;0.7131;1.2112;
776.7000;0.7147;1.2064;
777.0000;0.7131;1.2064;
777.3000;0.7147;1.2136;
777.6000;0.7204;1.2354;
777.9000;0.7147;1.2257;
778.2000;0.7163;1.2185;
778.5000;0.7147;1.2088;
778.8000;0.7139;1.2112;
779.1000;0.7163;1.2136;
779.4000;0.7253;1.2402;
779.7000;0.7179;1.2233;
780.0000;0.7131;1.2112;
780.3000;0.7139;1.2185;
780.6000;0.7147;1.2136;
780.9000;0.7139;1.2088;
781.2000;0.7139;1.2040;
781.5000;0.7155;1.1967;
781.8000;0.7139;1.1725;
782.1000;0.7155;1.1846;
782.4000;0.7147;1.1846;
782.7000;0.7139;1.1895;
783.0000;0.7147;1.1943;
783.3000;0.7139;1.1991;
783.6000;0.7131;1.1967;
783.9000;0.7139;1.2040;
784.2000;0.7139;1.2015;
784.5000;0.7155;1.2064;
784.8000;0.7131;1.2064;
785.1000;0.7147;1.2112;
785.4000;0.7114;1.2015;
785.7000;0.7131;1.2015;
786.0000;0.7147;1.1991;
786.3000;0.7131;1.1967;
786.6000;0.7196;1.2088;
786.9000;0.7123;1.1919;
787.2000;0.7106;1.1943;
787.5000;0.7106;1.1919;
787.8000;0.7106;1.1895;
788.1000;0.7131;1.1919;
788.4000;0.7139;1.1895;
788.7000;0.7123;1.1943;
789.0000;0.7098;1.1919;
789.3000;0.7123;1.2040;
789.6000;0.7098;1.2040;
789.9000;0.7123;1.2040;
790.2000;0.7098;1.2015;
790.5000;0.7098;1.1943;
790.8000;0.7106;1.1870;
791.1000;0.7098;1.1725;
791.4000;0.7106;1.1653;
791.7000;0.7082;1.1580;
792.0000;0.7106;1.1629;
792.3000;0.7090;1.1508;
792.6000;0.7114;1.1532;
792.9000;0.7106;1.1532;
793.2000;0.7098;1.1629;
793.5000;0.7114;1.1653;
793.8000;0.7090;1.1604;
794.1000;0.7106;1.1580;
794.4000;0.7106;1.1508;
794.7000;0.7123;1.1604;
795.0000;0.7106;1.1701;
795.3000;0.7090;1.1822;
795.6000;0.7106;1.1967;
795.9000;0.7098;1.2064;
796.2000;0.7106;1.2088;
796.5000;0.7123;1.2257;
796.8000;0.7098;1.2112;
797.1000;0.7082;1.2040;
797.4000;0.7098;1.2064;
797.7000;0.7090;1.2088;
798.0000;0.7074;1.2040;
798.3000;0.7139;1.2185;
798.6000;0.7106;1.2136;
798.9000;0.7090;1.2064;
799.2000;0.7090;1.2112;
799.5000;0.7098;1.2064;
799.8000;0.7082;1.2015;
800.1000;0.7090;1.2015;
800.4000;0.7098;1.1895;
800.7000;0.7090;1.1870;
801.0000;0.7098;1.1967;
801.3000;0.7139;1.2088;
801.6000;0.7066;1.2015;
801.9000;0.7066;1.1895;
802.2000;0.7090;1.1895;
802.5000;0.7074;1.1895;
802.8000;0.7098;1.1919;
803.1000;0.7074;1.1870;
803.4000;0.7098;1.1895;
803.7000;0.7074;1.1870;
804.0000;0.7082;1.1846;
804.3000;0.7066;1.1774;
804.6000;0.7090;1.1822;
804.9000;0.7074;1.1967;
805.2000;0.7074;1.2088;
805.5000;0.7041;1.1991;
805.8000;0.7074;1.2064;
806.1000;0.7082;1.2064;
806.4000;0.7057;1.2015;
806.7000;0.7057;1.1967;
807.0000;0.7057;1.1919;
807.3000;0.7057;1.1991;
807.6000;0.7057;1.1991;
807.9000;0.7000;1.1870;
808.2000;0.7057;1.1967;
808.5000;0.7082;1.2088;
808.8000;0.7057;1.2088;
809.1000;0.7074;1.2112;
809.4000;0.7082;1.2112;
809.7000;0.6992;1.1919;
810.0000;0.7090;1.2185;
810.3000;0.7057;1.2185;
810.6000;0.7057;1.2185;
810.9000;0.7049;1.2161;
811.2000;0.7057;1.2233;
811.5000;0.7066;1.2257;
811.8000;0.7057;1.2209;
812.1000;0.7082;1.2209;
812.4000;0.7041;1.2209;
812.7000;0.7066;1.2233;
813.0000;0.7049;1.2112;
813.3000;0.7057;1.1943;
813.6000;0.7041;1.2015;
813.9000;0.7049;1.2040;
814.2000;0.7106;1.2161;
814.5000;0.7057;1.2015;
814.8000;0.7074;1.2015;
815.1000;0.7041;1.1991;
815.4000;0.7017;1.2064;
815.7000;0.7041;1.2136;
816.0000;0.7017;1.2040;
816.3000;0.7114;1.2281;
816.6000;0.7033;1.2136;
816.9000;0.7041;1.2185;
817.2000;0.7041;1.2233;
817.5000;0.7033;1.2257;
817.8000;0.7041;1.2233;
818.1000;0.7049;1.2233;
818.4000;0.7041;1.2209;
818.7000;0.7049;1.2281;
819.0000;0.7041;1.2233;
819.3000;0.7049;1.2136;
819.6000;0.7017;1.2088;
819.9000;0.7033;1.2185;
820.2000;0.7033;1.2281;
820.5000;0.7041;1.2306;
820.8000;0.7041;1.2330;
821.1000;0.6952;1.2040;
821.4000;0.6984;1.2088;
821.7000;0.7033;1.2161;
822.0000;0.7017;1.2112;
822.3000;0.7066;1.2161;
822.6000;0.7082;1.2281;
822.9000;0.7033;1.2281;
823.2000;0.7057;1.2306;
823.5000;0.7025;1.2185;
823.8000;0.7017;1.2136;
824.1000;0.7041;1.2040;
824.4000;0.7025;1.1991;
824.7000;0.7049;1.2064;
825.0000;0.6984;1.1967;
825.3000;0.7049;1.2112;
825.6000;0.7025;1.2185;
825.9000;0.7025;1.2185;
826.2000;0.7025;1.2209;
826.5000;0.7049;1.2281;
826.8000;0.7025;1.2233;
827.1000;0.7025;1.2233;
827.4000;0.6992;1.2112;
827.7000;0.7009;1.2161;
828.0000;0.7000;1.2161;
828.3000;0.7033;1.2257;
828.6000;0.6976;1.2185;
828.9000;0.7025;1.2281;
829.2000;0.7025;1.2257;
829.5000;0.6960;1.2064;
829.8000;0.7025;1.2233;
830.1000;0.7017;1.2281;
830.4000;0.7057;1.2426;
830.7000;0.7017;1.2330;
831.0000;0.6984;1.2209;
831.3000;0.7000;1.2257;
831.6000;0.7009;1.2306;
831.9000;0.7041;1.2306;
832.2000;0.6976;1.2185;
832.5000;0.6984;1.2161;
832.8000;0.7009;1.2185;
833.1000;0.7009;1.2185;
833.4000;0.7009;1.2064;
833.7000;0.6976;1.2040;
834.0000;0.7009;1.2064;
834.3000;0.7009;1.2088;
834.6000;0.7009;1.2112;
834.9000;0.6960;1.1967;
835.2000;0.7009;1.2136;
835.5000;0.7025;1.2233;
835.8000;0.7009;1.2209;
836.1000;0.7090;1.2378;
836.4000;0.6976;1.2040;
836.7000;0.7025;1.2112;
837.0000;0.7033;1.2112;
837.3000;0.7098;1.2306;
837.6000;0.7000;1.2136;
837.9000;0.7017;1.2185;
838.2000;0.7049;1.2354;
838.5000;0.7009;1.2281;
838.8000;0.6976;1.2209;
839.1000;0.7009;1.2233;
839.4000;0.7017;1.2185;
839.7000;0.7017;1.2209;
840.0000;0.6992;1.2136;
840.3000;0.7017;1.2088;
840.6000;0.6992;1.2015;
840.9000;0.6960;1.1991;
841.2000;0.7000;1.2185;
841.5000;0.6992;1.2209;
841.8000;0.6976;1.2136;
842.1000;0.6984;1.2185;
842.4000;0.6968;1.2064;
842.7000;0.7009;1.2040;
843.0000;0.6976;1.1991;
843.3000;0.7000;1.2040;
843.6000;0.6992;1.2064;
843.9000;0.6968;1.2088;
844.2000;0.7009;1.2136;
844.5000;0.6992;1.2064;
844.8000;0.6968;1.2064;
845.1000;0.6927;1.1870;
845.4000;0.6984;1.2088;
845.7000;0.6984;1.2088;
846.0000;0.7000;1.2136;
846.3000;0.6952;1.2040;
846.6000;0.6976;1.2209;
846.9000;0.6968;1.2209;
847.2000;0.6984;1.2281;
847.5000;0.6968;1.2257;
847.8000;0.6984;1.2281;
848.1000;0.7009;1.2402;
848.4000;0.7017;1.2402;
848.7000;0.6992;1.2330;
849.0000;0.6976;1.2354;
849.3000;0.6968;1.2306;
849.6000;0.6919;1.2161;
849.9000;0.7000;1.2378;
850.2000;0.6968;1.2209;
850.5000;0.6976;1.2402;
850.8000;0.7033;1.2499;
851.1000;0.7041;1.2402;
851.4000;0.6976;1.2233;
851.7000;0.6976;1.2209;
852.0000;0.7049;1.2402;
852.3000;0.6976;1.2185;
852.6000;0.7033;1.2306;
852.9000;0.6968;1.2112;
853.2000;0.7000;1.2281;
853.5000;0.6984;1.2209;
853.8000;0.6984;1.2209;
854.1000;0.7000;1.2233;
854.4000;0.6984;1.2136;
854.7000;0.6976;1.2040;
855.0000;0.6976;1.2040;
855.3000;0.6976;1.2040;
855.6000;0.6976;1.1991;
855.9000;0.6984;1.1991;
856.2000;0.6984;1.2015;
856.5000;0.6992;1.2015;
856.8000;0.6968;1.2088;
857.1000;0.6984;1.2088;
857.4000;0.6976;1.1967;
857.7000;0.6960;1.1870;
858.0000;0.6968;1.1967;
858.3000;0.6968;1.1895;
858.6000;0.6976;1.1846;
858.9000;0.6968;1.1895;
859.2000;0.6992;1.1943;
859.5000;0.6943;1.1822;
859.8000;0.6943;1.1774;
860.1000;0.6976;1.1943;
860.4000;0.7000;1.2088;
860.7000;0.6976;1.2064;
861.0000;0.6943;1.1991;
861.3000;0.6984;1.2064;
861.6000;0.6960;1.2112;
861.9000;0.6943;1.2136;
862.2000;0.6960;1.2209;
862.5000;0.6935;1.2161;
862.8000;0.6960;1.2281;
863.1000;0.6968;1.2354;
863.4000;0.6976;1.2402;
863.7000;0.6943;1.2402;
864.0000;0.7098;1.2668;
864.3000;0.6927;1.2161;
864.6000;0.6943;1.2136;
864.9000;0.6943;1.2088;
865.2000;0.6952;1.2136;
865.5000;0.6960;1.2136;
865.8000;0.6960;1.2257;
866.1000;0.6943;1.2112;
866.4000;0.6935;1.2040;
866.7000;0.6952;1.2112;
867.0000;0.6943;1.2136;
867.3000;0.6992;1.2281;
867.6000;0.6960;1.2209;
867.9000;0.6960;1.2354;
868.2000;0.6943;1.2306;
868.5000;0.7017;1.2572;
868.8000;0.6968;1.2426;
869.1000;0.6952;1.2354;
869.4000;0.6935;1.2233;
869.7000;0.6968;1.2402;
870.0000;0.6927;1.2209;
870.3000;0.6935;1.2233;
870.6000;0.6952;1.2306;
870.9000;0.6927;1.2281;
871.2000;0.6960;1.2233;
871.5000;0.6952;1.2257;
871.8000;0.6943;1.2257;
872.1000;0.6935;1.2257;
872.4000;0.6960;1.2209;
872.7000;0.6960;1.2088;
873.0000;0.6943;1.2015;
873.3000;0.6952;1.2112;
873.6000;0.6886;1.1943;
873.9000;0.7009;1.2233;
874.2000;0.6943;1.2112;
874.5000;0.6911;1.2112;
874.8000;0.6935;1.2185;
875.1000;0.6943;1.2209;
875.4000;0.6927;1.2136;
875.7000;0.6927;1.2112;
876.0000;0.6960;1.2161;
876.3000;0.6919;1.2040;
876.6000;0.6943;1.2064;
876.9000;0.6927;1.2040;
877.2000;0.6943;1.2088;
877.5000;0.6935;1.2136;
877.8000;0.6927;1.2088;
878.1000;0.6935;1.2040;
878.4000;0.6903;1.1870;
878.7000;0.6935;1.1943;
879.0000;0.6943;1.1991;
879.3000;0.6960;1.2088;
879.6000;0.6927;1.2040;
879.9000;0.6943;1.2088;
880.2000;0.6976;1.2233;
880.5000;0.6927;1.2185;
880.8000;0.6927;1.2209;
881.1000;0.6984;1.2281;
881.4000;0.6968;1.2281;
881.7000;0.6976;1.2330;
882.0000;0.6952;1.2378;
882.3000;0.6935;1.2330;
882.6000;0.6952;1.2402;
882.9000;0.6960;1.2426;
883.2000;0.6903;1.2330;
883.5000;0.6952;1.2426;
883.8000;0.6927;1.2378;
884.1000;0.6919;1.2354;
884.4000;0.6927;1.2354;
884.7000;0.6919;1.2306;
885.0000;0.6976;1.2475;
885.3000;0.6846;1.2136;
885.6000;0.6943;1.2354;
885.9000;0.6927;1.2209;
886.2000;0.6960;1.2281;
886.5000;0.6927;1.2161;
886.8000;0.6935;1.2185;
887.1000;0.6927;1.2185;
887.4000;0.6927;1.2112;
887.7000;0.6919;1.2112;
888.0000;0.6927;1.2112;
888.3000;0.6911;1.2185;
888.6000;0.6903;1.2112;
888.9000;0.6911;1.2136;
889.2000;0.6903;1.2088;
889.5000;0.6960;1.2161;
889.8000;0.6927;1.2136;
890.1000;0.6911;1.2064;
890.4000;0.6919;1.1967;
890.7000;0.6927;1.1967;
891.0000;0.6919;1.1943;
891.3000;0.6919;1.2015;
891.6000;0.6919;1.2064;
891.9000;0.6935;1.2064;
892.2000;0.6919;1.2136;
892.5000;0.6878;1.1943;
892.8000;0.6911;1.2015;
893.1000;0.6911;1.2040;
893.4000;0.6911;1.2015;
893.7000;0.6911;1.2064;
894.0000;0.6935;1.2112;
894.3000;0.6903;1.2064;
894.6000;0.6903;1.2088;
894.9000;0.6927;1.2088;
895.2000;0.6911;1.2064;
895.5000;0.6903;1.2015;
895.8000;0.6903;1.2015;
896.1000;0.6911;1.2088;
896.4000;0.6935;1.2088;
896.7000;0.7017;1.2209;
897.0000;0.6927;1.2015;
897.3000;0.6903;1.1967;
897.6000;0.6927;1.1943;
897.9000;0.6927;1.2015;
898.2000;0.6919;1.2064;
898.5000;0.6919;1.2112;
898.8000;0.6903;1.2161;
899.1000;0.6911;1.2185;
899.4000;0.6886;1.2233;
899.7000;0.6903;1.2281;
900.0000;0.6911;1.2257;
900.3000;0.6895;1.2257;
900.6000;0.6886;1.2161;
900.9000;0.6903;1.2185;
901.2000;0.6911;1.2209;
901.5000;0.6911;1.2257;
901.8000;0.6919;1.2257;
902.1000;0.6903;1.2233;
902.4000;0.6895;1.2209;
902.7000;0.6903;1.2185;
903.0000;0.6919;1.2209;
903.3000;0.6911;1.2281;
903.6000;0.6927;1.2257;
903.9000;0.6886;1.2185;
904.2000;0.6943;1.2330;
904.5000;0.6903;1.2281;
904.8000;0.6895;1.2209;
905.1000;0.6911;1.2330;
905.4000;0.6960;1.2402;
905.7000;0.6919;1.2306;
906.0000;0.6886;1.2209;
906.3000;0.6838;1.2136;
906.6000;0.6919;1.2378;
906.9000;0.6911;1.2330;
907.2000;0.6903;1.2330;
907.5000;0.6919;1.2475;
907.8000;0.6919;1.2378;
908.1000;0.6903;1.2330;
908.4000;0.6919;1.2306;
908.7000;0.6886;1.2257;
909.0000;0.6903;1.2354;
909.3000;0.6878;1.2402;
909.6000;0.6903;1.2426;
909.9000;0.6829;1.2209;
910.2000;0.6903;1.2233;
910.5000;0.6903;1.2209;
910.8000;0.6821;1.2161;
911.1000;0.6903;1.2354;
911.4000;0.6895;1.2378;
911.7000;0.6943;1.2378;
912.0000;0.6903;1.2257;
912.3000;0.6886;1.2185;
912.6000;0.6886;1.2330;
912.9000;0.6878;1.2257;
913.2000;0.6911;1.2402;
913.5000;0.6886;1.2281;
913.8000;0.6886;1.2257;
914.1000;0.6886;1.2281;
914.4000;0.6878;1.2257;
914.7000;0.6895;1.2330;
915.0000;0.6878;1.2233;
915.3000;0.6895;1.2233;
915.6000;0.6903;1.2161;
915.9000;0.6903;1.2185;
916.2000;0.6911;1.2233;
916.5000;0.6895;1.2281;
916.8000;0.6895;1.2257;
917.1000;0.6935;1.2257;
917.4000;0.6895;1.2112;
917.7000;0.6960;1.2306;
918.0000;0.6895;1.2136;
918.3000;0.6895;1.2185;
918.6000;0.6886;1.2136;
918.9000;0.6886;1.2209;
919.2000;0.6846;1.2233;
919.5000;0.6903;1.2330;
919.8000;0.6903;1.2378;
920.1000;0.6903;1.2378;
920.4000;0.6870;1.2451;
920.7000;0.6911;1.2499;
921.0000;0.6911;1.2499;
921.3000;0.6878;1.2354;
921.6000;0.6911;1.2354;
921.9000;0.6895;1.2209;
922.2000;0.6919;1.2257;
922.5000;0.6895;1.2233;
922.8000;0.6935;1.2330;
923.1000;0.6886;1.2257;
923.4000;0.6886;1.2354;
923.7000;0.6862;1.2306;
924.0000;0.6870;1.2354;
924.3000;0.6862;1.2354;
924.6000;0.6911;1.2426;
924.9000;0.6895;1.2426;
925.2000;0.6895;1.2451;
925.5000;0.6870;1.2354;
925.8000;0.6732;1.1967;
926.1000;0.6870;1.2209;
926.4000;0.6886;1.2161;
926.7000;0.6878;1.2112;
927.0000;0.6895;1.2112;
927.3000;0.6895;1.2136;
927.6000;0.6903;1.2088;
927.9000;0.6878;1.2088;
928.2000;0.6862;1.2088;
928.5000;0.6878;1.2112;
928.8000;0.6886;1.2064;
929.1000;0.6919;1.2136;
929.4000;0.6870;1.2064;
929.7000;0.6886;1.2161;
930.0000;0.6886;1.2185;
930.3000;0.6862;1.2112;
930.6000;0.6862;1.2233;
930.9000;0.6878;1.2378;
931.2000;0.6895;1.2330;
931.5000;0.6878;1.2281;
931.8000;0.6935;1.2499;
932.1000;0.6870;1.2281;
932.4000;0.6829;1.2088;
932.7000;0.6870;1.2281;
933.0000;0.6870;1.2281;
933.3000;0.6927;1.2426;
933.6000;0.6878;1.2378;
933.9000;0.6878;1.2306;
934.2000;0.6854;1.2185;
934.5000;0.6854;1.2209;
934.8000;0.6870;1.2257;
935.1000;0.6862;1.2330;
935.4000;0.6854;1.2257;
935.7000;0.6870;1.2257;
936.0000;0.6878;1.2281;
936.3000;0.6878;1.2378;
936.6000;0.6870;1.2402;
936.9000;0.6878;1.2426;
937.2000;0.6886;1.2281;
937.5000;0.6854;1.2209;
937.8000;0.6903;1.2306;
938.1000;0.6862;1.2209;
938.4000;0.6870;1.2209;
938.7000;0.6878;1.2136;
939.0000;0.6862;1.2209;
939.3000;0.6862;1.2257;
939.6000;0.6886;1.2306;
939.9000;0.6895;1.2281;
940.2000;0.6927;1.2426;
940.5000;0.6805;1.2088;
940.8000;0.6878;1.2233;
941.1000;0.6903;1.2451;
941.4000;0.6870;1.2451;
941.7000;0.6878;1.2451;
942.0000;0.6878;1.2451;
942.3000;0.6878;1.2426;
942.6000;0.6911;1.2499;
942.9000;0.6870;1.2354;
943.2000;0.6789;1.2112;
943.5000;0.6870;1.2330;
943.8000;0.6895;1.2378;
944.1000;0.6862;1.2281;
944.4000;0.6789;1.2161;
944.7000;0.6870;1.2281;
945.0000;0.6821;1.2257;
945.3000;0.6854;1.2330;
945.6000;0.6846;1.2330;
945.9000;0.6862;1.2257;
946.2000;0.6862;1.2257;
946.5000;0.6911;1.2451;
946.8000;0.6870;1.2330;
947.1000;0.6878;1.2378;
947.4000;0.6878;1.2378;
947.7000;0.6878;1.2402;
948.0000;0.6862;1.2451;
948.3000;0.6846;1.2451;
948.6000;0.6846;1.2499;
948.9000;0.6870;1.2547;
949.2000;0.6862;1.2523;
949.5000;0.6846;1.2426;
949.8000;0.6846;1.2378;
950.1000;0.6862;1.2451;
950.4000;0.6870;1.2499;
950.7000;0.6854;1.2596;
951.0000;0.6846;1.2668;
951.3000;0.6870;1.2668;
951.6000;0.6862;1.2644;
951.9000;0.6854;1.2572;
952.2000;0.6870;1.2692;
952.5000;0.6878;1.2692;
952.8000;0.6854;1.2572;
953.1000;0.6838;1.2475;
953.4000;0.6846;1.2523;
953.7000;0.6886;1.2596;
954.0000;0.6878;1.2523;
954.3000;0.6854;1.2451;
954.6000;0.6854;1.2451;
954.9000;0.6740;1.2209;
955.2000;0.6838;1.2426;
955.5000;0.6854;1.2354;
955.8000;0.6846;1.2354;
956.1000;0.6838;1.2378;
956.4000;0.6862;1.2523;
956.7000;0.6870;1.2475;
957.0000;0.6862;1.2451;
957.3000;0.6862;1.2426;
957.6000;0.6854;1.2451;
957.9000;0.6821;1.2354;
958.2000;0.6854;1.2378;
958.5000;0.6838;1.2354;
958.8000;0.6854;1.2378;
959.1000;0.6846;1.2402;
959.4000;0.6838;1.2451;
959.7000;0.6829;1.2499;
960.0000;0.6821;1.2378;
960.3000;0.6846;1.2426;
960.6000;0.6846;1.2426;
960.9000;0.6854;1.2378;
961.2000;0.6878;1.2475;
961.5000;0.6854;1.2451;
961.8000;0.6878;1.2475;
962.1000;0.6862;1.2475;
962.4000;0.6895;1.2572;
962.7000;0.6862;1.2402;
963.0000;0.6878;1.2257;
963.3000;0.6846;1.2136;
963.6000;0.6862;1.2185;
963.9000;0.6772;1.1967;
964.2000;0.6805;1.2185;
964.5000;0.6878;1.2451;
964.8000;0.6838;1.2281;
965.1000;0.6846;1.2306;
965.4000;0.6870;1.2378;
965.7000;0.6895;1.2426;
966.0000;0.6846;1.2281;
966.3000;0.6838;1.2281;
966.6000;0.6854;1.2402;
966.9000;0.6846;1.2257;
967.2000;0.6813;1.2209;
967.5000;0.6846;1.2306;
967.8000;0.6846;1.2402;
968.1000;0.6846;1.2475;
968.4000;0.6838;1.2499;
968.7000;0.6821;1.2475;
969.0000;0.6846;1.2426;
969.3000;0.6854;1.2451;
969.6000;0.6878;1.2475;
969.9000;0.6829;1.2402;
970.2000;0.6838;1.2475;
970.5000;0.6870;1.2572;
970.8000;0.6846;1.2523;
971.1000;0.6829;1.2547;
971.4000;0.6846;1.2572;
971.7000;0.6846;1.2547;
972.0000;0.6846;1.2596;
972.3000;0.6854;1.2572;
972.6000;0.6854;1.2475;
972.9000;0.6838;1.2402;
973.2000;0.6854;1.2451;
973.5000;0.6854;1.2451;
973.8000;0.6838;1.2499;
974.1000;0.6846;1.2547;
974.4000;0.6838;1.2572;
974.7000;0.6838;1.2596;
975.0000;0.6829;1.2547;
975.3000;0.6829;1.2499;
975.6000;0.6870;1.2572;
975.9000;0.6846;1.2499;
976.2000;0.6846;1.2523;
976.5000;0.6829;1.2451;
976.8000;0.6838;1.2451;
977.1000;0.6846;1.2499;
977.4000;0.6838;1.2426;
977.7000;0.6854;1.2426;
978.0000;0.6895;1.2451;
978.3000;0.6764;1.2233;
978.6000;0.6838;1.2426;
978.9000;0.6821;1.2426;
979.2000;0.6903;1.2644;
979.5000;0.6829;1.2475;
979.8000;0.6813;1.2475;
980.1000;0.6829;1.2499;
980.4000;0.6797;1.2475;
980.7000;0.6878;1.2620;
981.0000;0.6821;1.2451;
981.3000;0.6781;1.2402;
981.6000;0.6854;1.2547;
981.9000;0.6829;1.2451;
982.2000;0.6838;1.2547;
982.5000;0.6903;1.2644;
982.8000;0.6846;1.2475;
983.1000;0.6821;1.2426;
983.4000;0.6829;1.2402;
983.7000;0.6870;1.2475;
984.0000;0.6838;1.2402;
984.3000;0.6821;1.2426;
984.6000;0.6854;1.2499;
984.9000;0.6854;1.2475;
985.2000;0.6829;1.2499;
985.5000;0.6854;1.2426;
985.8000;0.6838;1.2451;
986.1000;0.6838;1.2378;
986.4000;0.6829;1.2378;
986.7000;0.6764;1.2209;
987.0000;0.6821;1.2378;
987.3000;0.6821;1.2330;
987.6000;0.6854;1.2451;
987.9000;0.6846;1.2402;
988.2000;0.6886;1.2475;
988.5000;0.6764;1.2233;
988.8000;0.6846;1.2547;
989.1000;0.6781;1.2354;
989.4000;0.6821;1.2451;
989.7000;0.6716;1.2209;
990.0000;0.6797;1.2378;
990.3000;0.6813;1.2378;
990.6000;0.6813;1.2378;
990.9000;0.6829;1.2402;
991.2000;0.6829;1.2451;
991.5000;0.6797;1.2523;
991.8000;0.6838;1.2572;
992.1000;0.6838;1.2475;
992.4000;0.6846;1.2451;
992.7000;0.6813;1.2426;
993.0000;0.6862;1.2547;
993.3000;0.6821;1.2499;
993.6000;0.6862;1.2644;
993.9000;0.6821;1.2499;
994.2000;0.6813;1.2523;
994.5000;0.6813;1.2547;
994.8000;0.6838;1.2547;
995.1000;0.6797;1.2475;
995.4000;0.6821;1.2523;
995.7000;0.6838;1.2523;
996.0000;0.6829;1.2475;
996.3000;0.6805;1.2523;
996.6000;0.6805;1.2572;
996.9000;0.6813;1.2596;
997.2000;0.6797;1.2620;
997.5000;0.6838;1.2717;
997.8000;0.6838;1.2644;
998.1000;0.6846;1.2644;
998.4000;0.6829;1.2523;
998.7000;0.6821;1.2306;
999.0000;0.6813;1.2281;
999.3000;0.6829;1.2306;
999.6000;0.6813;1.2257;
999.9000;0.6878;1.2523;
1000.2000;0.6805;1.2306;
1000.5000;0.6813;1.2354;
1000.8000;0.6813;1.2426;
1001.1000;0.6821;1.2378;
1001.4000;0.6878;1.2451;
1001.7000;0.6821;1.2281;
1002.0000;0.6886;1.2451;
1002.3000;0.6821;1.2185;
1002.6000;0.6797;1.2161;
1002.9000;0.6838;1.2233;
1003.2000;0.6870;1.2306;
1003.5000;0.6846;1.2330;
1003.8000;0.6829;1.2378;
1004.1000;0.6748;1.2257;
1004.4000;0.6797;1.2451;
1004.7000;0.6797;1.2426;
1005.0000;0.6829;1.2499;
1005.3000;0.6797;1.2426;
1005.6000;0.6829;1.2547;
1005.9000;0.6886;1.2644;
1006.2000;0.6805;1.2499;
1006.5000;0.6813;1.2499;
1006.8000;0.6829;1.2523;
1007.1000;0.6813;1.2426;
1007.4000;0.6805;1.2426;
1007.7000;0.6829;1.2547;
1008.0000;0.6805;1.2402;
1008.3000;0.6813;1.2475;
1008.6000;0.6805;1.2475;
1008.9000;0.6821;1.2547;
1009.2000;0.6805;1.2523;
1009.5000;0.6732;1.2354;
1009.8000;0.6821;1.2547;
1010.1000;0.6821;1.2572;
1010.4000;0.6813;1.2523;
1010.7000;0.6805;1.2523;
1011.0000;0.6821;1.2451;
1011.3000;0.6829;1.2378;
1011.6000;0.6862;1.2451;
1011.9000;0.6789;1.2306;
1012.2000;0.6829;1.2402;
1012.5000;0.6789;1.2402;
1012.8000;0.6813;1.2402;
1013.1000;0.6813;1.2378;
1013.4000;0.6813;1.2426;
1013.7000;0.6813;1.2402;
1014.0000;0.6813;1.2330;
1014.3000;0.6797;1.2257;
1014.6000;0.6805;1.2281;
1014.9000;0.6805;1.2209;
1015.2000;0.6805;1.2136;
1015.5000;0.6781;1.2040;
1015.8000;0.6805;1.2185;
1016.1000;0.6870;1.2257;
1016.4000;0.6846;1.2136;
1016.7000;0.6813;1.2064;
1017.0000;0.6854;1.2233;
1017.3000;0.6829;1.2136;
1017.6000;0.6846;1.2233;
1017.9000;0.6813;1.2281;
1018.2000;0.6805;1.2306;
1018.5000;0.6878;1.2644;
1018.8000;0.6813;1.2451;
1019.1000;0.6870;1.2668;
1019.4000;0.6821;1.2547;
1019.7000;0.6797;1.2499;
1020.0000;0.6829;1.2547;
1020.3000;0.6805;1.2499;
1020.6000;0.6805;1.2475;
1020.9000;0.6797;1.2451;
1021.2000;0.6829;1.2547;
1021.5000;0.6838;1.2523;
1021.8000;0.6846;1.2523;
1022.1000;0.6813;1.2451;
1022.4000;0.6797;1.2451;
1022.7000;0.6805;1.2499;
1023.0000;0.6838;1.2572;
1023.3000;0.6805;1.2475;
1023.6000;0.6821;1.2523;
1023.9000;0.6821;1.2499;
1024.2000;0.6813;1.2426;
1024.5000;0.6805;1.2402;
1024.8000;0.6813;1.2378;
1025.1000;0.6805;1.2330;
1025.4000;0.6805;1.2306;
1025.7000;0.6805;1.2281;
1026.0000;0.6756;1.2136;
1026.3000;0.6805;1.2306;
1026.6000;0.6805;1.2426;
1026.9000;0.6813;1.2402;
1027.2000;0.6789;1.2209;
1027.5000;0.6789;1.2209;
1027.8000;0.6821;1.2330;
1028.1000;0.6789;1.2257;
1028.4000;0.6821;1.2354;
1028.7000;0.6789;1.2306;
1029.0000;0.6797;1.2330;
1029.3000;0.6829;1.2330;
1029.6000;0.6797;1.2281;
1029.9000;0.6805;1.2306;
1030.2000;0.6805;1.2306;
1030.5000;0.6789;1.2330;
1030.8000;0.6797;1.2281;
1031.1000;0.6813;1.2281;
1031.4000;0.6781;1.2330;
1031.7000;0.6781;1.2402;
1032.0000;0.6813;1.2426;
1032.3000;0.6805;1.2451;
1032.6000;0.6756;1.2354;
1032.9000;0.6821;1.2475;
1033.2000;0.6838;1.2499;
1033.5000;0.6805;1.2475;
1033.8000;0.6781;1.2402;
1034.1000;0.6797;1.2475;
1034.4000;0.6797;1.2523;
1034.7000;0.6797;1.2451;
1035.0000;0.6805;1.2426;
1035.3000;0.6740;1.2257;
1035.6000;0.6781;1.2330;
1035.9000;0.6797;1.2475;
1036.2000;0.6797;1.2475;
1036.5000;0.6813;1.2499;
1036.8000;0.6805;1.2523;
1037.1000;0.6797;1.2523;
1037.4000;0.6789;1.2475;
1037.7000;0.6781;1.2451;
1038.0000;0.6805;1.2475;
1038.3000;0.6797;1.2523;
1038.6000;0.6797;1.2499;
1038.9000;0.6781;1.2426;
1039.2000;0.6797;1.2523;
1039.5000;0.6813;1.2547;
1039.8000;0.6878;1.2644;
1040.1000;0.6789;1.2306;
1040.4000;0.6829;1.2426;
1040.7000;0.6781;1.2257;
1041.0000;0.6772;1.2233;
1041.3000;0.6781;1.2257;
1041.6000;0.6805;1.2306;
1041.9000;0.6797;1.2354;
1042.2000;0.6781;1.2306;
1042.5000;0.6813;1.2354;
1042.8000;0.6781;1.2281;
1043.1000;0.6789;1.2257;
1043.4000;0.6870;1.2523;
1043.7000;0.6805;1.2378;
1044.0000;0.6805;1.2402;
1044.3000;0.6797;1.2378;
1044.6000;0.6797;1.2426;
1044.9000;0.6797;1.2499;
1045.2000;0.6797;1.2451;
1045.5000;0.6813;1.2523;
1045.8000;0.6821;1.2596;
1046.1000;0.6789;1.2402;
1046.4000;0.6772;1.2354;
1046.7000;0.6748;1.2426;
1047.0000;0.6805;1.2572;
1047.3000;0.6789;1.2426;
1047.6000;0.6781;1.2451;
1047.9000;0.6797;1.2426;
1048.2000;0.6805;1.2426;
1048.5000;0.6781;1.2402;
1048.8000;0.6805;1.2451;
1049.1000;0.6781;1.2402;
1049.4000;0.6724;1.2330;
1049.7000;0.6732;1.2233;
1050.0000;0.6772;1.2451;
1050.3000;0.6781;1.2402;
1050.6000;0.6797;1.2451;
1050.9000;0.6813;1.2378;
1051.2000;0.6691;1.2112;
1051.5000;0.6789;1.2378;
1051.8000;0.6813;1.2499;
1052.1000;0.6781;1.2451;
1052.4000;0.6797;1.2523;
1052.7000;0.6789;1.2499;
1053.0000;0.6854;1.2547;
1053.3000;0.6821;1.2426;
1053.6000;0.6805;1.2402;
1053.9000;0.6805;1.2475;
1054.2000;0.6829;1.2547;
1054.5000;0.6797;1.2499;
1054.8000;0.6805;1.2620;
1055.1000;0.6789;1.2596;
1055.4000;0.6797;1.2644;
1055.7000;0.6772;1.2451;
1056.0000;0.6789;1.2499;
1056.3000;0.6797;1.2402;
1056.6000;0.6764;1.2233;
1056.9000;0.6789;1.2281;
1057.2000;0.6748;1.2136;
1057.5000;0.6789;1.2136;
1057.8000;0.6829;1.2233;
1058.1000;0.6805;1.2185;
1058.4000;0.6821;1.2257;
1058.7000;0.6740;1.2088;
1059.0000;0.6789;1.2281;
1059.3000;0.6748;1.2185;
1059.6000;0.6797;1.2451;
1059.9000;0.6797;1.2572;
1060.2000;0.6797;1.2572;
1060.5000;0.6772;1.2499;
1060.8000;0.6838;1.2523;
1061.1000;0.6781;1.2426;
1061.4000;0.6805;1.2354;
1061.7000;0.6838;1.2451;
1062.0000;0.6748;1.2306;
1062.3000;0.6797;1.2402;
1062.6000;0.6805;1.2451;
1062.9000;0.6781;1.2426;
1063.2000;0.6781;1.2499;
1063.5000;0.6781;1.2499;
1063.8000;0.6789;1.2499;
1064.1000;0.6764;1.2475;
1064.4000;0.6789;1.2596;
1064.7000;0.6748;1.2451;
1065.0000;0.6854;1.2668;
1065.3000;0.6772;1.2499;
1065.6000;0.6789;1.2426;
1065.9000;0.6772;1.2451;
1066.2000;0.6764;1.2451;
1066.5000;0.6870;1.2692;
1066.8000;0.6805;1.2451;
1067.1000;0.6772;1.2378;
1067.4000;0.6772;1.2330;
1067.7000;0.6764;1.2402;
1068.0000;0.6772;1.2426;
1068.3000;0.6789;1.2426;
1068.6000;0.6805;1.2523;
1068.9000;0.6813;1.2547;
1069.2000;0.6732;1.2306;
1069.5000;0.6789;1.2426;
1069.8000;0.6789;1.2523;
1070.1000;0.6789;1.2692;
1070.4000;0.6813;1.2765;
1070.7000;0.6756;1.2596;
1071.0000;0.6781;1.2596;
1071.3000;0.6797;1.2572;
1071.6000;0.6789;1.2523;
1071.9000;0.6789;1.2475;
1072.2000;0.6764;1.2378;
1072.5000;0.6789;1.2378;
1072.8000;0.6797;1.2402;
1073.1000;0.6716;1.2209;
1073.4000;0.6805;1.2402;
1073.7000;0.6797;1.2378;
1074.0000;0.6781;1.2378;
1074.3000;0.6764;1.2402;
1074.6000;0.6781;1.2426;
1074.9000;0.6789;1.2402;
1075.2000;0.6756;1.2354;
1075.5000;0.6772;1.2402;
1075.8000;0.6764;1.2402;
1076.1000;0.6805;1.2523;
1076.4000;0.6772;1.2451;
1076.7000;0.6772;1.2451;
1077.0000;0.6781;1.2402;
1077.3000;0.6748;1.2233;
1077.6000;0.6748;1.2257;
1077.9000;0.6764;1.2306;
1078.2000;0.6821;1.2378;
1078.5000;0.6789;1.2306;
1078.8000;0.6821;1.2426;
1079.1000;0.6781;1.2354;
1079.4000;0.6772;1.2354;
1079.7000;0.6764;1.2426;
1080.0000;0.6789;1.2499;
1080.3000;0.6748;1.2281;
1080.6000;0.6748;1.2281;
1080.9000;0.6740;1.2257;
1081.2000;0.6781;1.2330;
1081.5000;0.6829;1.2426;
1081.8000;0.6748;1.2233;
1082.1000;0.6764;1.2306;
1082.4000;0.6781;1.2402;
1082.7000;0.6732;1.2306;
1083.0000;0.6781;1.2499;
1083.3000;0.6789;1.2572;
1083.6000;0.6732;1.2523;
1083.9000;0.6764;1.2572;
1084.2000;0.6764;1.2523;
1084.5000;0.6756;1.2451;
1084.8000;0.6789;1.2547;
1085.1000;0.6789;1.2547;
1085.4000;0.6699;1.2306;
1085.7000;0.6748;1.2378;
1086.0000;0.6813;1.2499;
1086.3000;0.6789;1.2378;
1086.6000;0.6821;1.2451;
1086.9000;0.6764;1.2233;
1087.2000;0.6772;1.2354;
1087.5000;0.6781;1.2451;
1087.8000;0.6764;1.2572;
1088.1000;0.6764;1.2596;
1088.4000;0.6789;1.2620;
1088.7000;0.6789;1.2547;
1089.0000;0.6772;1.2451;
1089.3000;0.6789;1.2451;
1089.6000;0.6764;1.2451;
1089.9000;0.6789;1.2475;
1090.2000;0.6781;1.2426;
1090.5000;0.6781;1.2523;
1090.8000;0.6772;1.2499;
1091.1000;0.6691;1.2330;
1091.4000;0.6772;1.2426;
1091.7000;0.6781;1.2426;
1092.0000;0.6789;1.2499;
1092.3000;0.6772;1.2426;
1092.6000;0.6772;1.2499;
1092.9000;0.6764;1.2523;
1093.2000;0.6756;1.2499;
1093.5000;0.6772;1.2523;
1093.8000;0.6797;1.2668;
1094.1000;0.6732;1.2499;
1094.4000;0.6772;1.2475;
1094.7000;0.6772;1.2523;
1095.0000;0.6805;1.2668;
1095.3000;0.6764;1.2572;
1095.6000;0.6772;1.2547;
1095.9000;0.6756;1.2451;
1096.2000;0.6675;1.2257;
1096.5000;0.6740;1.2402;
1096.8000;0.6748;1.2330;
1097.1000;0.6772;1.2426;
1097.4000;0.6805;1.2572;
1097.7000;0.6764;1.2402;
1098.0000;0.6748;1.2378;
1098.3000;0.6781;1.2547;
1098.6000;0.6748;1.2451;
1098.9000;0.6789;1.2523;
1099.2000;0.6732;1.2306;
1099.5000;0.6748;1.2402;
1099.8000;0.6772;1.2451;
1100.1000;0.6764;1.2402;
1100.4000;0.6764;1.2402;
1100.7000;0.6764;1.2451;
1101.0000;0.6764;1.2523;
1101.3000;0.6756;1.2523;
1101.6000;0.6748;1.2475;
1101.9000;0.6756;1.2451;
1102.2000;0.6764;1.2596;
1102.5000;0.6748;1.2499;
1102.8000;0.6699;1.2451;
1103.1000;0.6756;1.2692;
1103.4000;0.6764;1.2644;
1103.7000;0.6781;1.2692;
1104.0000;0.6789;1.2717;
1104.3000;0.6772;1.2668;
1104.6000;0.6756;1.2596;
1104.9000;0.6724;1.2547;
1105.2000;0.6764;1.2620;
1105.5000;0.6797;1.2620;
1105.8000;0.6756;1.2426;
1106.1000;0.6764;1.2523;
1106.4000;0.6732;1.2330;
1106.7000;0.6732;1.2354;
1107.0000;0.6772;1.2475;
1107.3000;0.6805;1.2523;
1107.6000;0.6772;1.2475;
1107.9000;0.6748;1.2378;
1108.2000;0.6756;1.2330;
1108.5000;0.6748;1.2257;
1108.8000;0.6772;1.2378;
1109.1000;0.6756;1.2330;
1109.4000;0.6838;1.2572;
1109.7000;0.6748;1.2306;
1110.0000;0.6748;1.2402;
1110.3000;0.6756;1.2475;
1110.6000;0.6748;1.2499;
1110.9000;0.6764;1.2499;
1111.2000;0.6764;1.2426;
1111.5000;0.6813;1.2475;
1111.8000;0.6772;1.2378;
1112.1000;0.6789;1.2281;
1112.4000;0.6764;1.2209;
1112.7000;0.6732;1.2233;
1113.0000;0.6748;1.2330;
1113.3000;0.6748;1.2306;
1113.6000;0.6781;1.2426;
1113.9000;0.6781;1.2426;
1114.2000;0.6764;1.2426;
1114.5000;0.6764;1.2330;
1114.8000;0.6764;1.2402;
1115.1000;0.6716;1.2257;
1115.4000;0.6748;1.2330;
1115.7000;0.6716;1.2209;
1116.0000;0.6756;1.2354;
1116.3000;0.6756;1.2378;
1116.6000;0.6821;1.2499;
1116.9000;0.6764;1.2426;
1117.2000;0.6740;1.2354;
1117.5000;0.6756;1.2402;
1117.8000;0.6781;1.2451;
1118.1000;0.6675;1.2257;
1118.4000;0.6764;1.2378;
1118.7000;0.6748;1.2330;
1119.0000;0.6756;1.2426;
1119.3000;0.6772;1.2451;
1119.6000;0.6732;1.2378;
1119.9000;0.6756;1.2378;
1120.2000;0.6813;1.2572;
1120.5000;0.6756;1.2451;
1120.8000;0.6732;1.2426;
1121.1000;0.6756;1.2402;
1121.4000;0.6756;1.2378;
1121.7000;0.6740;1.2354;
1122.0000;0.6764;1.2402;
1122.3000;0.6772;1.2426;
1122.6000;0.6756;1.2426;
1122.9000;0.6764;1.2523;
1123.2000;0.6748;1.2596;
1123.5000;0.6764;1.2572;
1123.8000;0.6764;1.2547;
1124.1000;0.6756;1.2475;
1124.4000;0.6764;1.2475;
1124.7000;0.6764;1.2451;
1125.0000;0.6748;1.2499;
1125.3000;0.6764;1.2523;
1125.6000;0.6756;1.2547;
1125.9000;0.6756;1.2523;
1126.2000;0.6748;1.2572;
1126.5000;0.6683;1.2426;
1126.8000;0.6756;1.2572;
1127.1000;0.6756;1.2499;
1127.4000;0.6797;1.2620;
1127.7000;0.6740;1.2523;
1128.0000;0.6748;1.2692;
1128.3000;0.6772;1.2765;
1128.6000;0.6740;1.2717;
1128.9000;0.6748;1.2668;
1129.2000;0.6748;1.2644;
1129.5000;0.6772;1.2692;
1129.8000;0.6781;1.2668;
1130.1000;0.6781;1.2668;
1130.4000;0.6797;1.2692;
1130.7000;0.6748;1.2620;
1131.0000;0.6756;1.2620;
1131.3000;0.6764;1.2620;
1131.6000;0.6748;1.2620;
1131.9000;0.6740;1.2620;
1132.2000;0.6748;1.2668;
1132.5000;0.6797;1.2741;
1132.8000;0.6756;1.2596;
1133.1000;0.6789;1.2717;
1133.4000;0.6756;1.2668;
1133.7000;0.6756;1.2596;
1134.0000;0.6740;1.2596;
1134.3000;0.6748;1.2596;
1134.6000;0.6829;1.2789;
1134.9000;0.6756;1.2620;
1135.2000;0.6756;1.2644;
1135.5000;0.6764;1.2692;
1135.8000;0.6772;1.2596;
1136.1000;0.6756;1.2499;
1136.4000;0.6756;1.2620;
1136.7000;0.6764;1.2572;
1137.0000;0.6772;1.2475;
1137.3000;0.6764;1.2547;
1137.6000;0.6756;1.2547;
1137.9000;0.6748;1.2572;
1138.2000;0.6748;1.2620;
1138.5000;0.6756;1.2644;
1138.8000;0.6748;1.2596;
1139.1000;0.6789;1.2692;
1139.4000;0.6732;1.2596;
1139.7000;0.6748;1.2596;
1140.0000;0.6756;1.2547;
1140.3000;0.6756;1.2451;
1140.6000;0.6748;1.2547;
1140.9000;0.6813;1.2692;
1141.2000;0.6764;1.2547;
1141.5000;0.6756;1.2572;
1141.8000;0.6821;1.2741;
1142.1000;0.6740;1.2499;
1142.4000;0.6732;1.2451;
1142.7000;0.6724;1.2475;
1143.0000;0.6707;1.2426;
1143.3000;0.6748;1.2572;
1143.6000;0.6756;1.2523;
1143.9000;0.6748;1.2523;
1144.2000;0.6732;1.2596;
1144.5000;0.6707;1.2668;
1144.8000;0.6732;1.2741;
1145.1000;0.6748;1.2692;
1145.4000;0.6724;1.2620;
1145.7000;0.6748;1.2523;
1146.0000;0.6748;1.2475;
1146.3000;0.6748;1.2426;
1146.6000;0.6748;1.2378;
1146.9000;0.6724;1.2354;
1147.2000;0.6756;1.2330;
1147.5000;0.6740;1.2378;
1147.8000;0.6740;1.2475;
1148.1000;0.6732;1.2426;
1148.4000;0.6756;1.2426;
1148.7000;0.6756;1.2451;
1149.0000;0.6748;1.2451;
1149.3000;0.6740;1.2499;
1149.6000;0.6724;1.2475;
1149.9000;0.6781;1.2620;
1150.2000;0.6772;1.2620;
1150.5000;0.6740;1.2620;
1150.8000;0.6740;1.2620;
1151.1000;0.6764;1.2668;
1151.4000;0.6732;1.2620;
1151.7000;0.6789;1.2668;
1152.0000;0.6740;1.2644;
1152.3000;0.6724;1.2692;
1152.6000;0.6756;1.2717;
1152.9000;0.6772;1.2813;
1153.2000;0.6748;1.2789;
1153.5000;0.6748;1.2789;
1153.8000;0.6740;1.2692;
1154.1000;0.6707;1.2596;
1154.4000;0.6764;1.2644;
1154.7000;0.6740;1.2596;
1155.0000;0.6732;1.2523;
1155.3000;0.6756;1.2547;
1155.6000;0.6732;1.2451;
1155.9000;0.6716;1.2451;
1156.2000;0.6756;1.2451;
1156.5000;0.6691;1.2281;
1156.8000;0.6756;1.2451;
1157.1000;0.6748;1.2451;
1157.4000;0.6740;1.2499;
1157.7000;0.6756;1.2596;
1158.0000;0.6764;1.2620;
1158.3000;0.6748;1.2523;
1158.6000;0.6756;1.2475;
1158.9000;0.6748;1.2572;
1159.2000;0.6764;1.2547;
1159.5000;0.6740;1.2475;
1159.8000;0.6764;1.2499;
1160.1000;0.6740;1.2572;
1160.4000;0.6781;1.2644;
1160.7000;0.6756;1.2596;
1161.0000;0.6756;1.2499;
1161.3000;0.6748;1.2572;
1161.6000;0.6748;1.2741;
1161.9000;0.6724;1.2620;
1162.2000;0.6724;1.2692;
1162.5000;0.6740;1.2741;
1162.8000;0.6748;1.2741;
1163.1000;0.6748;1.2717;
1163.4000;0.6724;1.2668;
1163.7000;0.6724;1.2717;
1164.0000;0.6740;1.2668;
1164.3000;0.6781;1.2741;
1164.6000;0.6740;1.2644;
1164.9000;0.6716;1.2620;
1165.2000;0.6707;1.2572;
1165.5000;0.6772;1.2620;
1165.8000;0.6781;1.2620;
1166.1000;0.6724;1.2523;
1166.4000;0.6740;1.2572;
1166.7000;0.6756;1.2596;
1167.0000;0.6748;1.2596;
1167.3000;0.6732;1.2523;
1167.6000;0.6732;1.2402;
1167.9000;0.6732;1.2354;
1168.2000;0.6707;1.2330;
1168.5000;0.6732;1.2426;
1168.8000;0.6699;1.2378;
1169.1000;0.6732;1.2475;
1169.4000;0.6707;1.2451;
1169.7000;0.6691;1.2281;
1170.0000;0.6724;1.2281;
1170.3000;0.6732;1.2257;
1170.6000;0.6756;1.2402;
1170.9000;0.6748;1.2402;
1171.2000;0.6764;1.2426;
1171.5000;0.6740;1.2330;
1171.8000;0.6740;1.2233;
1172.1000;0.6724;1.2257;
1172.4000;0.6748;1.2354;
1172.7000;0.6756;1.2306;
1173.0000;0.6748;1.2378;
1173.3000;0.6756;1.2426;
1173.6000;0.6748;1.2426;
1173.9000;0.6724;1.2426;
1174.2000;0.6740;1.2547;
1174.5000;0.6716;1.2523;
1174.8000;0.6732;1.2620;
1175.1000;0.6732;1.2620;
1175.4000;0.6724;1.2620;
1175.7000;0.6821;1.2765;
1176.0000;0.6732;1.2523;
1176.3000;0.6732;1.2475;
1176.6000;0.6732;1.2572;
1176.9000;0.6691;1.2523;
1177.2000;0.6740;1.2547;
1177.5000;0.6732;1.2547;
1177.8000;0.6748;1.2668;
1178.1000;0.6805;1.2886;
1178.4000;0.6781;1.2765;
1178.7000;0.6732;1.2668;
1179.0000;0.6724;1.2717;
1179.3000;0.6748;1.2789;
1179.6000;0.6732;1.2741;
1179.9000;0.6748;1.2692;
1180.2000;0.6724;1.2668;
1180.5000;0.6732;1.2596;
1180.8000;0.6724;1.2620;
1181.1000;0.6634;1.2402;
1181.4000;0.6748;1.2692;
1181.7000;0.6756;1.2837;
1182.0000;0.6748;1.2837;
1182.3000;0.6732;1.2741;
1182.6000;0.6716;1.2668;
1182.9000;0.6707;1.2547;
1183.2000;0.6716;1.2644;
1183.5000;0.6732;1.2668;
1183.8000;0.6716;1.2620;
1184.1000;0.6748;1.2644;
1184.4000;0.6740;1.2620;
1184.7000;0.6724;1.2547;
1185.0000;0.6724;1.2596;
1185.3000;0.6732;1.2596;
1185.6000;0.6732;1.2523;
1185.9000;0.6724;1.2620;
1186.2000;0.6748;1.2620;
1186.5000;0.6756;1.2668;
1186.8000;0.6748;1.2620;
1187.1000;0.6756;1.2717;
1187.4000;0.6732;1.2692;
1187.7000;0.6724;1.2523;
1188.0000;0.6748;1.2499;
1188.3000;0.6748;1.2451;
1188.6000;0.6838;1.2692;
1188.9000;0.6707;1.2378;
1189.2000;0.6740;1.2475;
1189.5000;0.6789;1.2547;
1189.8000;0.6732;1.2426;
1190.1000;0.6764;1.2475;
1190.4000;0.6732;1.2451;
1190.7000;0.6748;1.2402;
1191.0000;0.6756;1.2451;
1191.3000;0.6716;1.2330;
1191.6000;0.6732;1.2330;
1191.9000;0.6740;1.2475;
1192.2000;0.6732;1.2523;
1192.5000;0.6707;1.2426;
1192.8000;0.6707;1.2426;
1193.1000;0.6740;1.2475;
1193.4000;0.6740;1.2426;
1193.7000;0.6724;1.2354;
1194.0000;0.6724;1.2257;
1194.3000;0.6781;1.2475;
1194.6000;0.6756;1.2426;
1194.9000;0.6732;1.2378;
1195.2000;0.6740;1.2402;
1195.5000;0.6756;1.2330;
1195.8000;0.6724;1.2281;
1196.1000;0.6756;1.2330;
1196.4000;0.6732;1.2257;
1196.7000;0.6740;1.2257;
1197.0000;0.6740;1.2257;
1197.3000;0.6756;1.2257;
1197.6000;0.6724;1.2209;
1197.9000;0.6756;1.2233;
1198.2000;0.6699;1.2136;
1198.5000;0.6724;1.2257;
1198.8000;0.6724;1.2209;
1199.1000;0.6716;1.2161;
1199.4000;0.6724;1.2185;
1199.7000;0.6724;1.2185;
1200.0000;0.6724;1.2257;
1200.3000;0.6748;1.2257;
1200.6000;0.6732;1.2185;
1200.9000;0.6724;1.2330;
1201.2000;0.6724;1.2330;
1201.5000;0.6716;1.2281;
1201.8000;0.6732;1.2257;
1202.1000;0.6716;1.2233;
1202.4000;0.6724;1.2257;
1202.7000;0.6724;1.2281;
1203.0000;0.6699;1.2378;
1203.3000;0.6740;1.2354;
1203.6000;0.6716;1.2257;
1203.9000;0.6732;1.2209;
1204.2000;0.6675;1.2088;
1204.5000;0.6724;1.2257;
1204.8000;0.6699;1.2233;
1205.1000;0.6732;1.2378;
1205.4000;0.6707;1.2354;
1205.7000;0.6699;1.2233;
1206.0000;0.6691;1.2233;
1206.3000;0.6691;1.2330;
1206.6000;0.6716;1.2378;
1206.9000;0.6683;1.2233;
1207.2000;0.6691;1.2257;
1207.5000;0.6707;1.2233;
1207.8000;0.6716;1.2257;
1208.1000;0.6699;1.2185;
1208.4000;0.6707;1.2209;
1208.7000;0.6716;1.2257;
1209.0000;0.6716;1.2281;
1209.3000;0.6772;1.2426;
1209.6000;0.6724;1.2281;
1209.9000;0.6740;1.2354;
1210.2000;0.6772;1.2451;
1210.5000;0.6748;1.2306;
1210.8000;0.6740;1.2306;
1211.1000;0.6748;1.2330;
1211.4000;0.6756;1.2354;
1211.7000;0.6724;1.2257;
1212.0000;0.6732;1.2281;
1212.3000;0.6724;1.2257;
1212.6000;0.6716;1.2209;
1212.9000;0.6724;1.2330;
1213.2000;0.6772;1.2378;
1213.5000;0.6716;1.2306;
1213.8000;0.6724;1.2402;
1214.1000;0.6724;1.2354;
1214.4000;0.6724;1.2330;
1214.7000;0.6740;1.2451;
1215.0000;0.6675;1.2378;
1215.3000;0.6748;1.2620;
1215.6000;0.6732;1.2596;
1215.9000;0.6756;1.2547;
1216.2000;0.6724;1.2499;
1216.5000;0.6716;1.2354;
1216.8000;0.6716;1.2354;
1217.1000;0.6748;1.2475;
1217.4000;0.6740;1.2499;
1217.7000;0.6732;1.2426;
1218.0000;0.6748;1.2499;
1218.3000;0.6707;1.2547;
1218.6000;0.6699;1.2547;
1218.9000;0.6748;1.2668;
1219.2000;0.6724;1.2499;
1219.5000;0.6707;1.2451;
1219.8000;0.6707;1.2426;
1220.1000;0.6732;1.2572;
1220.4000;0.6838;1.2789;
1220.7000;0.6748;1.2572;
1221.0000;0.6716;1.2547;
1221.3000;0.6740;1.2572;
1221.6000;0.6748;1.2620;
1221.9000;0.6732;1.2620;
1222.2000;0.6716;1.2572;
1222.5000;0.6732;1.2572;
1222.8000;0.6740;1.2547;
1223.1000;0.6724;1.2499;
1223.4000;0.6716;1.2475;
1223.7000;0.6732;1.2475;
1224.0000;0.6732;1.2475;
1224.3000;0.6724;1.2475;
1224.6000;0.6716;1.2499;
1224.9000;0.6707;1.2451;
1225.2000;0.6683;1.2402;
1225.5000;0.6659;1.2281;
1225.8000;0.6707;1.2402;
1226.1000;0.6716;1.2354;
1226.4000;0.6724;1.2451;
1226.7000;0.6732;1.2354;
1227.0000;0.6699;1.2354;
1227.3000;0.6659;1.2281;
1227.6000;0.6724;1.2475;
1227.9000;0.6675;1.2451;
1228.2000;0.6740;1.2523;
1228.5000;0.6707;1.2475;
1228.8000;0.6724;1.2426;
1229.1000;0.6716;1.2475;
1229.4000;0.6699;1.2499;
1229.7000;0.6683;1.2426;
1230.0000;0.6716;1.2547;
1230.3000;0.6707;1.2547;
1230.6000;0.6716;1.2547;
1230.9000;0.6740;1.2596;
1231.2000;0.6813;1.2765;
1231.5000;0.6716;1.2499;
1231.8000;0.6732;1.2499;
1232.1000;0.6667;1.2306;
1232.4000;0.6724;1.2451;
1232.7000;0.6724;1.2426;
1233.0000;0.6732;1.2499;
1233.3000;0.6740;1.2572;
1233.6000;0.6716;1.2523;
1233.9000;0.6699;1.2426;
1234.2000;0.6716;1.2402;
1234.5000;0.6740;1.2426;
1234.8000;0.6707;1.2378;
1235.1000;0.6716;1.2402;
1235.4000;0.6707;1.2306;
1235.7000;0.6707;1.2233;
1236.0000;0.6724;1.2281;
1236.3000;0.6691;1.2257;
1236.6000;0.6724;1.2281;
1236.9000;0.6740;1.2354;
1237.2000;0.6667;1.2209;
1237.5000;0.6732;1.2402;
1237.8000;0.6732;1.2378;
1238.1000;0.6724;1.2330;
1238.4000;0.6716;1.2281;
1238.7000;0.6748;1.2378;
1239.0000;0.6724;1.2402;
1239.3000;0.6781;1.2596;
1239.6000;0.6716;1.2523;
1239.9000;0.6716;1.2475;
1240.2000;0.6740;1.2499;
1240.5000;0.6732;1.2475;
1240.8000;0.6732;1.2451;
1241.1000;0.6740;1.2572;
1241.4000;0.6724;1.2547;
1241.7000;0.6724;1.2547;
1242.0000;0.6691;1.2475;
1242.3000;0.6707;1.2499;
1242.6000;0.6707;1.2426;
1242.9000;0.6748;1.2547;
1243.2000;0.6724;1.2451;
1243.5000;0.6691;1.2281;
1243.8000;0.6683;1.2233;
1244.1000;0.6691;1.2257;
1244.4000;0.6716;1.2354;
1244.7000;0.6699;1.2330;
1245.0000;0.6675;1.2233;
1245.3000;0.6724;1.2330;
1245.6000;0.6716;1.2378;
1245.9000;0.6821;1.2692;
1246.2000;0.6699;1.2281;
1246.5000;0.6724;1.2451;
1246.8000;0.6707;1.2451;
1247.1000;0.6716;1.2451;
1247.4000;0.6724;1.2426;
1247.7000;0.6716;1.2451;
1248.0000;0.6797;1.2596;
1248.3000;0.6716;1.2402;
1248.6000;0.6699;1.2402;
1248.9000;0.6707;1.2378;
1249.2000;0.6683;1.2378;
1249.5000;0.6724;1.2475;
1249.8000;0.6716;1.2523;
1250.1000;0.6618;1.2209;
1250.4000;0.6716;1.2426;
1250.7000;0.6707;1.2378;
1251.0000;0.6675;1.2233;
1251.3000;0.6707;1.2233;
1251.6000;0.6699;1.2330;
1251.9000;0.6724;1.2475;
1252.2000;0.6691;1.2451;
1252.5000;0.6683;1.2354;
1252.8000;0.6683;1.2330;
1253.1000;0.6699;1.2451;
1253.4000;0.6707;1.2451;
1253.7000;0.6724;1.2620;
1254.0000;0.6716;1.2572;
1254.3000;0.6732;1.2596;
1254.6000;0.6716;1.2547;
1254.9000;0.6683;1.2523;
1255.2000;0.6716;1.2572;
1255.5000;0.6724;1.2596;
1255.8000;0.6716;1.2572;
1256.1000;0.6707;1.2644;
1256.4000;0.6699;1.2668;
1256.7000;0.6724;1.2765;
1257.0000;0.6732;1.2741;
1257.3000;0.6756;1.2717;
1257.6000;0.6724;1.2596;
1257.9000;0.6740;1.2692;
1258.2000;0.6659;1.2475;
1258.5000;0.6707;1.2475;
1258.8000;0.6732;1.2475;
1259.1000;0.6740;1.2572;
1259.4000;0.6707;1.2547;
1259.7000;0.6707;1.2620;
1260.0000;0.6691;1.2451;
1260.3000;0.6707;1.2451;
1260.6000;0.6707;1.2475;
1260.9000;0.6707;1.2475;
1261.2000;0.6699;1.2572;
1261.5000;0.6691;1.2596;
1261.8000;0.6699;1.2620;
1262.1000;0.6724;1.2692;
1262.4000;0.6732;1.2644;
1262.7000;0.6724;1.2644;
1263.0000;0.6707;1.2644;
1263.3000;0.6716;1.2620;
1263.6000;0.6716;1.2717;
1263.9000;0.6707;1.2813;
1264.2000;0.6699;1.2717;
1264.5000;0.6667;1.2596;
1264.8000;0.6716;1.2765;
1265.1000;0.6699;1.2717;
1265.4000;0.6699;1.2813;
1265.7000;0.6716;1.2813;
1266.0000;0.6724;1.2837;
1266.3000;0.6724;1.2765;
1266.6000;0.6732;1.2789;
1266.9000;0.6699;1.2765;
1267.2000;0.6699;1.2717;
1267.5000;0.6724;1.2765;
1267.8000;0.6707;1.2692;
1268.1000;0.6699;1.2692;
1268.4000;0.6707;1.2668;
1268.7000;0.6634;1.2523;
1269.0000;0.6667;1.2572;
1269.3000;0.6740;1.2717;
1269.6000;0.6707;1.2765;
1269.9000;0.6699;1.2813;
1270.2000;0.6691;1.2862;
1270.5000;0.6716;1.2886;
1270.8000;0.6716;1.2862;
1271.1000;0.6732;1.2886;
1271.4000;0.6707;1.2789;
1271.7000;0.6707;1.2717;
1272.0000;0.6707;1.2717;
1272.3000;0.6707;1.2813;
1272.6000;0.6724;1.2765;
1272.9000;0.6691;1.2692;
1273.2000;0.6724;1.2789;
1273.5000;0.6716;1.2934;
1273.8000;0.6699;1.2934;
1274.1000;0.6691;1.2837;
1274.4000;0.6699;1.2813;
1274.7000;0.6699;1.2813;
1275.0000;0.6707;1.2789;
1275.3000;0.6691;1.2741;
1275.6000;0.6691;1.2717;
1275.9000;0.6691;1.2765;
1276.2000;0.6699;1.2741;
1276.5000;0.6724;1.2789;
1276.8000;0.6691;1.2644;
1277.1000;0.6699;1.2547;
1277.4000;0.6740;1.2596;
1277.7000;0.6716;1.2547;
1278.0000;0.6699;1.2668;
1278.3000;0.6699;1.2741;
1278.6000;0.6707;1.2692;
1278.9000;0.6667;1.2572;
1279.2000;0.6659;1.2572;
1279.5000;0.6699;1.2692;
1279.8000;0.6707;1.2741;
1280.1000;0.6707;1.2741;
1280.4000;0.6707;1.2717;
1280.7000;0.6707;1.2717;
1281.0000;0.6716;1.2765;
1281.3000;0.6748;1.2958;
1281.6000;0.6724;1.2837;
1281.9000;0.6707;1.2765;
1282.2000;0.6732;1.2837;
1282.5000;0.6707;1.2789;
1282.8000;0.6716;1.2789;
1283.1000;0.6707;1.2692;
1283.4000;0.6716;1.2765;
1283.7000;0.6691;1.2668;
1284.0000;0.6707;1.2813;
1284.3000;0.6691;1.2765;
1284.6000;0.6626;1.2692;
1284.9000;0.6691;1.2765;
1285.2000;0.6699;1.2692;
1285.5000;0.6716;1.2765;
1285.8000;0.6699;1.2741;
1286.1000;0.6699;1.2717;
1286.4000;0.6707;1.2620;
1286.7000;0.6707;1.2547;
1287.0000;0.6699;1.2475;
1287.3000;0.6691;1.2426;
1287.6000;0.6707;1.2499;
1287.9000;0.6724;1.2596;
1288.2000;0.6724;1.2499;
1288.5000;0.6691;1.2426;
1288.8000;0.6683;1.2402;
1289.1000;0.6667;1.2402;
1289.4000;0.6699;1.2402;
1289.7000;0.6699;1.2354;
1290.0000;0.6707;1.2306;
1290.3000;0.6691;1.2330;
1290.6000;0.6699;1.2281;
1290.9000;0.6691;1.2281;
1291.2000;0.6716;1.2402;
1291.5000;0.6813;1.2741;
1291.8000;0.6756;1.2644;
1292.1000;0.6699;1.2499;
1292.4000;0.6699;1.2499;
1292.7000;0.6716;1.2475;
1293.0000;0.6707;1.2499;
1293.3000;0.6691;1.2402;
1293.6000;0.6707;1.2451;
1293.9000;0.6716;1.2426;
1294.2000;0.6707;1.2402;
1294.5000;0.6724;1.2523;
1294.8000;0.6707;1.2547;
1295.1000;0.6707;1.2596;
1295.4000;0.6699;1.2523;
1295.7000;0.6699;1.2572;
1296.0000;0.6699;1.2572;
1296.3000;0.6699;1.2620;
1296.6000;0.6724;1.2668;
1296.9000;0.6756;1.2837;
1297.2000;0.6707;1.2741;
1297.5000;0.6707;1.2717;
1297.8000;0.6724;1.2668;
1298.1000;0.6683;1.2596;
1298.4000;0.6675;1.2572;
1298.7000;0.6699;1.2572;
1299.0000;0.6707;1.2572;
1299.3000;0.6683;1.2547;
1299.6000;0.6724;1.2668;
1299.9000;0.6691;1.2692;
1300.2000;0.6683;1.2717;
1300.5000;0.6707;1.2741;
1300.8000;0.6691;1.2596;
1301.1000;0.6683;1.2523;
1301.4000;0.6716;1.2547;
1301.7000;0.6716;1.2644;
1302.0000;0.6659;1.2596;
1302.3000;0.6724;1.2741;
1302.6000;0.6699;1.2644;
1302.9000;0.6740;1.2717;
1303.2000;0.6732;1.2717;
1303.5000;0.6699;1.2644;
1303.8000;0.6699;1.2644;
1304.1000;0.6740;1.2717;
1304.4000;0.6707;1.2596;
1304.7000;0.6683;1.2499;
1305.0000;0.6707;1.2475;
1305.3000;0.6699;1.2451;
1305.6000;0.6716;1.2475;
1305.9000;0.6724;1.2499;
1306.2000;0.6675;1.2451;
1306.5000;0.6716;1.2499;
1306.8000;0.6724;1.2451;
1307.1000;0.6764;1.2596;
1307.4000;0.6716;1.2523;
1307.7000;0.6716;1.2475;
1308.0000;0.6724;1.2475;
1308.3000;0.6732;1.2547;
1308.6000;0.6707;1.2572;
1308.9000;0.6699;1.2668;
1309.2000;0.6675;1.2644;
1309.5000;0.6683;1.2596;
1309.8000;0.6691;1.2692;
1310.1000;0.6683;1.2596;
1310.4000;0.6699;1.2451;
1310.7000;0.6699;1.2426;
1311.0000;0.6683;1.2523;
1311.3000;0.6683;1.2547;
1311.6000;0.6724;1.2717;
1311.9000;0.6724;1.2668;
1312.2000;0.6707;1.2572;
1312.5000;0.6707;1.2620;
1312.8000;0.6691;1.2668;
1313.1000;0.6699;1.2789;
1313.4000;0.6707;1.2813;
1313.7000;0.6691;1.2765;
1314.0000;0.6724;1.2789;
1314.3000;0.6707;1.2644;
1314.6000;0.6748;1.2644;
1314.9000;0.6707;1.2523;
1315.2000;0.6707;1.2596;
1315.5000;0.6724;1.2596;
1315.8000;0.6716;1.2644;
1316.1000;0.6724;1.2620;
1316.4000;0.6691;1.2523;
1316.7000;0.6707;1.2523;
1317.0000;0.6691;1.2451;
1317.3000;0.6707;1.2475;
1317.6000;0.6699;1.2451;
1317.9000;0.6618;1.2233;
1318.2000;0.6716;1.2596;
1318.5000;0.6699;1.2620;
1318.8000;0.6699;1.2692;
1319.1000;0.6699;1.2644;
1319.4000;0.6667;1.2644;
1319.7000;0.6748;1.2813;
1320.0000;0.6675;1.2644;
1320.3000;0.6642;1.2499;
1320.6000;0.6691;1.2692;
1320.9000;0.6716;1.2692;
1321.2000;0.6716;1.2692;
1321.5000;0.6772;1.2837;
1321.8000;0.6675;1.2644;
1322.1000;0.6699;1.2620;
1322.4000;0.6683;1.2547;
1322.7000;0.6716;1.2620;
1323.0000;0.6683;1.2451;
1323.3000;0.6691;1.2523;
1323.6000;0.6764;1.2644;
1323.9000;0.6650;1.2426;
1324.2000;0.6699;1.2547;
1324.5000;0.6716;1.2668;
1324.8000;0.6699;1.2596;
1325.1000;0.6691;1.2596;
1325.4000;0.6691;1.2499;
1325.7000;0.6667;1.2402;
1326.0000;0.6707;1.2426;
1326.3000;0.6716;1.2547;
1326.6000;0.6699;1.2523;
1326.9000;0.6707;1.2596;
1327.2000;0.6716;1.2547;
1327.5000;0.6707;1.2475;
1327.8000;0.6716;1.2596;
1328.1000;0.6691;1.2572;
1328.4000;0.6716;1.2547;
1328.7000;0.6716;1.2620;
1329.0000;0.6699;1.2547;
1329.3000;0.6683;1.2451;
1329.6000;0.6699;1.2499;
1329.9000;0.6699;1.2451;
1330.2000;0.6675;1.2402;
1330.5000;0.6691;1.2475;
1330.8000;0.6691;1.2499;
1331.1000;0.6699;1.2596;
1331.4000;0.6691;1.2572;
1331.7000;0.6699;1.2547;
1332.0000;0.6707;1.2547;
1332.3000;0.6683;1.2475;
1332.6000;0.6707;1.2523;
1332.9000;0.6683;1.2354;
1333.2000;0.6699;1.2257;
1333.5000;0.6699;1.2136;
1333.8000;0.6707;1.2088;
1334.1000;0.6699;1.2015;
1334.4000;0.6699;1.2040;
1334.7000;0.6699;1.2040;
1335.0000;0.6699;1.2112;
1335.3000;0.6683;1.2112;
1335.6000;0.6683;1.2161;
1335.9000;0.6699;1.2161;
1336.2000;0.6691;1.2064;
1336.5000;0.6691;1.1991;
1336.8000;0.6699;1.2136;
1337.1000;0.6707;1.2136;
1337.4000;0.6699;1.2185;
1337.7000;0.6691;1.2185;
1338.0000;0.6659;1.2088;
1338.3000;0.6716;1.2330;
1338.6000;0.6724;1.2499;
1338.9000;0.6675;1.2402;
1339.2000;0.6683;1.2426;
1339.5000;0.6699;1.2426;
1339.8000;0.6667;1.2451;
1340.1000;0.6691;1.2572;
1340.4000;0.6699;1.2572;
1340.7000;0.6716;1.2596;
1341.0000;0.6691;1.2475;
1341.3000;0.6675;1.2451;
1341.6000;0.6691;1.2330;
1341.9000;0.6691;1.2281;
1342.2000;0.6675;1.2306;
1342.5000;0.6675;1.2306;
1342.8000;0.6691;1.2402;
1343.1000;0.6724;1.2523;
1343.4000;0.6683;1.2499;
1343.7000;0.6707;1.2596;
1344.0000;0.6691;1.2572;
1344.3000;0.6667;1.2596;
1344.6000;0.6626;1.2451;
1344.9000;0.6756;1.2644;
1345.2000;0.6699;1.2499;
1345.5000;0.6707;1.2499;
1345.8000;0.6707;1.2523;
1346.1000;0.6667;1.2402;
1346.4000;0.6683;1.2547;
1346.7000;0.6699;1.2475;
1347.0000;0.6699;1.2451;
1347.3000;0.6691;1.2547;
1347.6000;0.6683;1.2572;
1347.9000;0.6707;1.2572;
1348.2000;0.6707;1.2572;
1348.5000;0.6691;1.2451;
1348.8000;0.6699;1.2475;
1349.1000;0.6683;1.2354;
1349.4000;0.6659;1.2233;
1349.7000;0.6683;1.2306;
1350.0000;0.6683;1.2281;
1350.3000;0.6699;1.2378;
1350.6000;0.6691;1.2426;
1350.9000;0.6691;1.2499;
1351.2000;0.6691;1.2572;
1351.5000;0.6699;1.2523;
1351.8000;0.6699;1.2499;
1352.1000;0.6675;1.2475;
1352.4000;0.6699;1.2523;
1352.7000;0.6707;1.2523;
1353.0000;0.6699;1.2547;
1353.3000;0.6772;1.2620;
1353.6000;0.6691;1.2499;
1353.9000;0.6691;1.2523;
1354.2000;0.6699;1.2620;
1354.5000;0.6691;1.2620;
1354.8000;0.6683;1.2620;
1355.1000;0.6675;1.2547;
1355.4000;0.6691;1.2572;
1355.7000;0.6675;1.2499;
1356.0000;0.6683;1.2596;
1356.3000;0.6667;1.2378;
1356.6000;0.6699;1.2402;
1356.9000;0.6618;1.2185;
1357.2000;0.6683;1.2378;
1357.5000;0.6707;1.2426;
1357.8000;0.6699;1.2402;
1358.1000;0.6699;1.2426;
1358.4000;0.6707;1.2499;
1358.7000;0.6675;1.2354;
1359.0000;0.6691;1.2475;
1359.3000;0.6699;1.2475;
1359.6000;0.6675;1.2426;
1359.9000;0.6707;1.2572;
1360.2000;0.6699;1.2620;
1360.5000;0.6797;1.2789;
1360.8000;0.6691;1.2426;
1361.1000;0.6675;1.2402;
1361.4000;0.6659;1.2378;
1361.7000;0.6716;1.2499;
1362.0000;0.6667;1.2451;
1362.3000;0.6707;1.2451;
1362.6000;0.6716;1.2572;
1362.9000;0.6748;1.2692;
1363.2000;0.6699;1.2572;
1363.5000;0.6691;1.2475;
1363.8000;0.6756;1.2692;
1364.1000;0.6707;1.2523;
1364.4000;0.6691;1.2523;
1364.7000;0.6691;1.2620;
1365.0000;0.6716;1.2620;
1365.3000;0.6691;1.2523;
1365.6000;0.6691;1.2475;
1365.9000;0.6732;1.2596;
1366.2000;0.6683;1.2572;
1366.5000;0.6724;1.2572;
1366.8000;0.6716;1.2475;
1367.1000;0.6683;1.2499;
1367.4000;0.6691;1.2596;
1367.7000;0.6716;1.2596;
1368.0000;0.6699;1.2620;
1368.3000;0.6699;1.2644;
1368.6000;0.6691;1.2668;
1368.9000;0.6675;1.2692;
1369.2000;0.6683;1.2668;
1369.5000;0.6691;1.2668;
1369.8000;0.6683;1.2596;
1370.1000;0.6683;1.2572;
1370.4000;0.6699;1.2475;
1370.7000;0.6699;1.2499;
1371.0000;0.6667;1.2475;
1371.3000;0.6667;1.2572;
1371.6000;0.6675;1.2547;
1371.9000;0.6691;1.2620;
1372.2000;0.6683;1.2596;
1372.5000;0.6683;1.2668;
1372.8000;0.6699;1.2717;
1373.1000;0.6691;1.2741;
1373.4000;0.6691;1.2765;
1373.7000;0.6683;1.2741;
1374.0000;0.6683;1.2717;
1374.3000;0.6650;1.2644;
1374.6000;0.6691;1.2692;
1374.9000;0.6659;1.2717;
1375.2000;0.6667;1.2620;
1375.5000;0.6650;1.2547;
1375.8000;0.6699;1.2596;
1376.1000;0.6691;1.2620;
1376.4000;0.6675;1.2692;
1376.7000;0.6683;1.2644;
1377.0000;0.6699;1.2596;
1377.3000;0.6642;1.2451;
1377.6000;0.6748;1.2765;
1377.9000;0.6683;1.2644;
1378.2000;0.6683;1.2741;
1378.5000;0.6716;1.2741;
1378.8000;0.6675;1.2596;
1379.1000;0.6675;1.2523;
1379.4000;0.6675;1.2475;
1379.7000;0.6675;1.2426;
1380.0000;0.6683;1.2523;
1380.3000;0.6691;1.2475;
1380.6000;0.6691;1.2451;
1380.9000;0.6675;1.2426;
1381.2000;0.6667;1.2402;
1381.5000;0.6764;1.2668;
1381.8000;0.6691;1.2499;
1382.1000;0.6667;1.2523;
1382.4000;0.6691;1.2547;
1382.7000;0.6675;1.2547;
1383.0000;0.6691;1.2620;
1383.3000;0.6683;1.2644;
1383.6000;0.6683;1.2620;
1383.9000;0.6675;1.2499;
1384.2000;0.6691;1.2523;
1384.5000;0.6683;1.2572;
1384.8000;0.6724;1.2692;
1385.1000;0.6707;1.2741;
1385.4000;0.6691;1.2765;
1385.7000;0.6699;1.2813;
1386.0000;0.6675;1.2620;
1386.3000;0.6691;1.2596;
1386.6000;0.6683;1.2644;
1386.9000;0.6683;1.2644;
1387.2000;0.6699;1.2668;
1387.5000;0.6716;1.2717;
1387.8000;0.6610;1.2426;
1388.1000;0.6707;1.2717;
1388.4000;0.6683;1.2644;
1388.7000;0.6683;1.2692;
1389.0000;0.6691;1.2668;
1389.3000;0.6675;1.2644;
1389.6000;0.6683;1.2547;
1389.9000;0.6683;1.2596;
1390.2000;0.6675;1.2596;
1390.5000;0.6675;1.2572;
1390.8000;0.6675;1.2572;
1391.1000;0.6724;1.2692;
1391.4000;0.6707;1.2668;
1391.7000;0.6675;1.2572;
1392.0000;0.6675;1.2644;
1392.3000;0.6683;1.2692;
1392.6000;0.6683;1.2668;
1392.9000;0.6650;1.2644;
1393.2000;0.6691;1.2741;
1393.5000;0.6675;1.2692;
1393.8000;0.6667;1.2644;
1394.1000;0.6691;1.2644;
1394.4000;0.6699;1.2644;
1394.7000;0.6691;1.2692;
1395.0000;0.6683;1.2692;
1395.3000;0.6683;1.2717;
1395.6000;0.6675;1.2813;
1395.9000;0.6659;1.2644;
1396.2000;0.6667;1.2692;
1396.5000;0.6650;1.2668;
1396.8000;0.6667;1.2717;
1397.1000;0.6634;1.2644;
1397.4000;0.6650;1.2741;
1397.7000;0.6675;1.2765;
1398.0000;0.6667;1.2765;
1398.3000;0.6691;1.2886;
1398.6000;0.6699;1.2982;
1398.9000;0.6667;1.2958;
1399.2000;0.6667;1.2982;
1399.5000;0.6650;1.2982;
1399.8000;0.6659;1.3055;
