time/ms;Fluo/V;P700 deltaI/I x10³;
-199.8000;0.7375;1.2813;
-199.5000;0.7424;1.2934;
-199.2000;0.7350;1.2837;
-198.9000;0.7350;1.2910;
-198.6000;0.7342;1.2886;
-198.3000;0.7350;1.2886;
-198.0000;0.7350;1.2862;
-197.7000;0.7367;1.2886;
-197.4000;0.7375;1.2862;
-197.1000;0.7326;1.2789;
-196.8000;0.7269;1.2620;
-196.5000;0.7350;1.2765;
-196.2000;0.7375;1.2910;
-195.9000;0.7375;1.2813;
-195.6000;0.7342;1.2789;
-195.3000;0.7375;1.2862;
-195.0000;0.7383;1.2862;
-194.7000;0.7350;1.2813;
-194.4000;0.7318;1.2717;
-194.1000;0.7350;1.2813;
-193.8000;0.7359;1.2886;
-193.5000;0.7375;1.2934;
-193.2000;0.7359;1.2934;
-192.9000;0.7375;1.3079;
-192.6000;0.7359;1.3152;
-192.3000;0.7367;1.3176;
-192.0000;0.7375;1.3079;
-191.7000;0.7407;1.2982;
-191.4000;0.7383;1.2813;
-191.1000;0.7383;1.2813;
-190.8000;0.7367;1.2813;
-190.5000;0.7367;1.2692;
-190.2000;0.7383;1.2692;
-189.9000;0.7367;1.2644;
-189.6000;0.7334;1.2668;
-189.3000;0.7350;1.2765;
-189.0000;0.7399;1.2813;
-188.7000;0.7375;1.2741;
-188.4000;0.7367;1.2765;
-188.1000;0.7367;1.2644;
-187.8000;0.7367;1.2692;
-187.5000;0.7359;1.2813;
-187.2000;0.7359;1.2741;
-186.9000;0.7350;1.2644;
-186.6000;0.7383;1.2692;
-186.3000;0.7375;1.2741;
-186.0000;0.7367;1.2765;
-185.7000;0.7359;1.2717;
-185.4000;0.7359;1.2644;
-185.1000;0.7383;1.2717;
-184.8000;0.7375;1.2813;
-184.5000;0.7473;1.3007;
-184.2000;0.7375;1.2668;
-183.9000;0.7367;1.2620;
-183.6000;0.7407;1.2765;
-183.3000;0.7383;1.2572;
-183.0000;0.7367;1.2547;
-182.7000;0.7399;1.2596;
-182.4000;0.7342;1.2547;
-182.1000;0.7383;1.2668;
-181.8000;0.7375;1.2717;
-181.5000;0.7383;1.2717;
-181.2000;0.7391;1.2837;
-180.9000;0.7359;1.2910;
-180.6000;0.7367;1.2982;
-180.3000;0.7293;1.2837;
-180.0000;0.7375;1.2958;
-179.7000;0.7359;1.2910;
-179.4000;0.7350;1.2789;
-179.1000;0.7367;1.2789;
-178.8000;0.7383;1.2886;
-178.5000;0.7367;1.2837;
-178.2000;0.7359;1.2813;
-177.9000;0.7350;1.2862;
-177.6000;0.7367;1.2837;
-177.3000;0.7367;1.2813;
-177.0000;0.7383;1.2837;
-176.7000;0.7375;1.2789;
-176.4000;0.7383;1.2717;
-176.1000;0.7383;1.2813;
-175.8000;0.7375;1.2813;
-175.5000;0.7424;1.2886;
-175.2000;0.7350;1.2741;
-174.9000;0.7383;1.2837;
-174.6000;0.7383;1.2837;
-174.3000;0.7285;1.2475;
-174.0000;0.7375;1.2717;
-173.7000;0.7326;1.2668;
-173.4000;0.7432;1.2862;
-173.1000;0.7367;1.2644;
-172.8000;0.7375;1.2644;
-172.5000;0.7375;1.2765;
-172.2000;0.7375;1.2620;
-171.9000;0.7424;1.2717;
-171.6000;0.7383;1.2668;
-171.3000;0.7350;1.2692;
-171.0000;0.7391;1.2813;
-170.7000;0.7383;1.2789;
-170.4000;0.7375;1.2789;
-170.1000;0.7375;1.2741;
-169.8000;0.7399;1.2765;
-169.5000;0.7383;1.2789;
-169.2000;0.7391;1.2765;
-168.9000;0.7367;1.2765;
-168.6000;0.7383;1.2789;
-168.3000;0.7334;1.2717;
-168.0000;0.7367;1.2862;
-167.7000;0.7383;1.2862;
-167.4000;0.7293;1.2644;
-167.1000;0.7310;1.2596;
-166.8000;0.7383;1.2813;
-166.5000;0.7334;1.2765;
-166.2000;0.7521;1.3248;
-165.9000;0.7359;1.2910;
-165.6000;0.7350;1.2910;
-165.3000;0.7375;1.2886;
-165.0000;0.7375;1.2886;
-164.7000;0.7399;1.2982;
-164.4000;0.7342;1.2862;
-164.1000;0.7375;1.2862;
-163.8000;0.7359;1.2813;
-163.5000;0.7367;1.2934;
-163.2000;0.7334;1.2813;
-162.9000;0.7383;1.2910;
-162.6000;0.7407;1.2982;
-162.3000;0.7399;1.2934;
-162.0000;0.7383;1.2886;
-161.7000;0.7416;1.2910;
-161.4000;0.7383;1.2813;
-161.1000;0.7391;1.2862;
-160.8000;0.7399;1.2910;
-160.5000;0.7391;1.2813;
-160.2000;0.7375;1.2717;
-159.9000;0.7375;1.2765;
-159.6000;0.7391;1.2717;
-159.3000;0.7416;1.2789;
-159.0000;0.7375;1.2741;
-158.7000;0.7367;1.2717;
-158.4000;0.7399;1.2813;
-158.1000;0.7383;1.2789;
-157.8000;0.7424;1.2886;
-157.5000;0.7399;1.2910;
-157.2000;0.7407;1.2910;
-156.9000;0.7375;1.2837;
-156.6000;0.7359;1.2813;
-156.3000;0.7359;1.2862;
-156.0000;0.7391;1.2910;
-155.7000;0.7464;1.3128;
-155.4000;0.7367;1.2837;
-155.1000;0.7383;1.2813;
-154.8000;0.7456;1.3055;
-154.5000;0.7391;1.2982;
-154.2000;0.7359;1.2837;
-153.9000;0.7367;1.2886;
-153.6000;0.7383;1.2934;
-153.3000;0.7350;1.2862;
-153.0000;0.7375;1.2862;
-152.7000;0.7407;1.2982;
-152.4000;0.7464;1.3031;
-152.1000;0.7416;1.2886;
-151.8000;0.7391;1.2813;
-151.5000;0.7399;1.2886;
-151.2000;0.7383;1.2910;
-150.9000;0.7424;1.2958;
-150.6000;0.7383;1.2958;
-150.3000;0.7359;1.2910;
-150.0000;0.7375;1.2934;
-149.7000;0.7350;1.2958;
-149.4000;0.7359;1.2982;
-149.1000;0.7391;1.2982;
-148.8000;0.7375;1.2982;
-148.5000;0.7375;1.2934;
-148.2000;0.7383;1.2910;
-147.9000;0.7383;1.2958;
-147.6000;0.7391;1.2958;
-147.3000;0.7342;1.2910;
-147.0000;0.7367;1.2934;
-146.7000;0.7375;1.2934;
-146.4000;0.7342;1.2837;
-146.1000;0.7383;1.2789;
-145.8000;0.7416;1.2862;
-145.5000;0.7367;1.2765;
-145.2000;0.7456;1.3031;
-144.9000;0.7359;1.2886;
-144.6000;0.7424;1.3007;
-144.3000;0.7416;1.2886;
-144.0000;0.7359;1.2765;
-143.7000;0.7391;1.2813;
-143.4000;0.7350;1.2862;
-143.1000;0.7416;1.3031;
-142.8000;0.7424;1.3031;
-142.5000;0.7359;1.2910;
-142.2000;0.7367;1.2934;
-141.9000;0.7375;1.3007;
-141.6000;0.7383;1.3031;
-141.3000;0.7399;1.2886;
-141.0000;0.7473;1.3031;
-140.7000;0.7367;1.2813;
-140.4000;0.7391;1.2813;
-140.1000;0.7424;1.2910;
-139.8000;0.7407;1.2934;
-139.5000;0.7383;1.2934;
-139.2000;0.7432;1.3007;
-138.9000;0.7367;1.2862;
-138.6000;0.7375;1.2837;
-138.3000;0.7391;1.2886;
-138.0000;0.7383;1.2862;
-137.7000;0.7383;1.2837;
-137.4000;0.7383;1.2910;
-137.1000;0.7375;1.2910;
-136.8000;0.7359;1.2789;
-136.5000;0.7399;1.2862;
-136.2000;0.7310;1.2668;
-135.9000;0.7375;1.2813;
-135.6000;0.7383;1.2886;
-135.3000;0.7383;1.2886;
-135.0000;0.7367;1.2789;
-134.7000;0.7375;1.2886;
-134.4000;0.7383;1.2910;
-134.1000;0.7383;1.2910;
-133.8000;0.7375;1.2886;
-133.5000;0.7350;1.2837;
-133.2000;0.7350;1.2886;
-132.9000;0.7375;1.2813;
-132.6000;0.7375;1.2789;
-132.3000;0.7367;1.2765;
-132.0000;0.7342;1.2741;
-131.7000;0.7350;1.2692;
-131.4000;0.7383;1.2741;
-131.1000;0.7391;1.2741;
-130.8000;0.7367;1.2717;
-130.5000;0.7391;1.2668;
-130.2000;0.7391;1.2644;
-129.9000;0.7383;1.2644;
-129.6000;0.7416;1.2765;
-129.3000;0.7383;1.2692;
-129.0000;0.7383;1.2741;
-128.7000;0.7407;1.2837;
-128.4000;0.7407;1.2813;
-128.1000;0.7399;1.2789;
-127.8000;0.7350;1.2692;
-127.5000;0.7383;1.2837;
-127.2000;0.7383;1.2910;
-126.9000;0.7367;1.2886;
-126.6000;0.7359;1.2862;
-126.3000;0.7375;1.2934;
-126.0000;0.7375;1.2862;
-125.7000;0.7383;1.2886;
-125.4000;0.7375;1.2813;
-125.1000;0.7367;1.2862;
-124.8000;0.7399;1.2813;
-124.5000;0.7391;1.2862;
-124.2000;0.7391;1.2886;
-123.9000;0.7318;1.2644;
-123.6000;0.7464;1.3031;
-123.3000;0.7375;1.2813;
-123.0000;0.7375;1.2862;
-122.7000;0.7464;1.2982;
-122.4000;0.7391;1.2741;
-122.1000;0.7375;1.2789;
-121.8000;0.7367;1.2789;
-121.5000;0.7391;1.2862;
-121.2000;0.7383;1.2910;
-120.9000;0.7375;1.2862;
-120.6000;0.7375;1.2837;
-120.3000;0.7391;1.2934;
-120.0000;0.7391;1.2934;
-119.7000;0.7367;1.2789;
-119.4000;0.7383;1.2862;
-119.1000;0.7375;1.2837;
-118.8000;0.7391;1.2837;
-118.5000;0.7383;1.2765;
-118.2000;0.7399;1.2741;
-117.9000;0.7432;1.2910;
-117.6000;0.7399;1.2837;
-117.3000;0.7416;1.2862;
-117.0000;0.7383;1.2789;
-116.7000;0.7375;1.2741;
-116.4000;0.7407;1.2741;
-116.1000;0.7359;1.2644;
-115.8000;0.7383;1.2572;
-115.5000;0.7383;1.2644;
-115.2000;0.7432;1.2886;
-114.9000;0.7391;1.2862;
-114.6000;0.7350;1.2789;
-114.3000;0.7391;1.3007;
-114.0000;0.7375;1.2982;
-113.7000;0.7391;1.3031;
-113.4000;0.7383;1.3007;
-113.1000;0.7375;1.3007;
-112.8000;0.7391;1.3007;
-112.5000;0.7375;1.3055;
-112.2000;0.7375;1.3103;
-111.9000;0.7350;1.3055;
-111.6000;0.7342;1.2910;
-111.3000;0.7367;1.2910;
-111.0000;0.7375;1.3031;
-110.7000;0.7399;1.3128;
-110.4000;0.7367;1.3007;
-110.1000;0.7350;1.2958;
-109.8000;0.7391;1.3031;
-109.5000;0.7342;1.2934;
-109.2000;0.7424;1.3152;
-108.9000;0.7367;1.2958;
-108.6000;0.7310;1.2717;
-108.3000;0.7383;1.2910;
-108.0000;0.7375;1.2958;
-107.7000;0.7383;1.2982;
-107.4000;0.7383;1.3055;
-107.1000;0.7399;1.3079;
-106.8000;0.7440;1.3128;
-106.5000;0.7359;1.2886;
-106.2000;0.7359;1.2910;
-105.9000;0.7391;1.2982;
-105.6000;0.7359;1.2886;
-105.3000;0.7391;1.2982;
-105.0000;0.7391;1.2837;
-104.7000;0.7391;1.2813;
-104.4000;0.7399;1.2813;
-104.1000;0.7383;1.2789;
-103.8000;0.7399;1.2862;
-103.5000;0.7375;1.2765;
-103.2000;0.7383;1.2813;
-102.9000;0.7391;1.2789;
-102.6000;0.7383;1.2837;
-102.3000;0.7391;1.2813;
-102.0000;0.7391;1.2886;
-101.7000;0.7350;1.2789;
-101.4000;0.7342;1.2741;
-101.1000;0.7391;1.2837;
-100.8000;0.7391;1.2910;
-100.5000;0.7375;1.2789;
-100.2000;0.7375;1.2862;
-99.9000;0.7391;1.2862;
-99.6000;0.7399;1.2813;
-99.3000;0.7375;1.2741;
-99.0000;0.7399;1.2789;
-98.7000;0.7375;1.2765;
-98.4000;0.7407;1.2813;
-98.1000;0.7367;1.2789;
-97.8000;0.7367;1.2741;
-97.5000;0.7407;1.2741;
-97.2000;0.7391;1.2813;
-96.9000;0.7440;1.2934;
-96.6000;0.7375;1.2765;
-96.3000;0.7383;1.2692;
-96.0000;0.7383;1.2692;
-95.7000;0.7399;1.2692;
-95.4000;0.7407;1.2741;
-95.1000;0.7424;1.2692;
-94.8000;0.7440;1.2813;
-94.5000;0.7359;1.2668;
-94.2000;0.7383;1.2717;
-93.9000;0.7383;1.2765;
-93.6000;0.7383;1.2717;
-93.3000;0.7383;1.2717;
-93.0000;0.7399;1.2765;
-92.7000;0.7383;1.2765;
-92.4000;0.7359;1.2717;
-92.1000;0.7391;1.2717;
-91.8000;0.7367;1.2668;
-91.5000;0.7456;1.2862;
-91.2000;0.7367;1.2596;
-90.9000;0.7375;1.2644;
-90.6000;0.7391;1.2668;
-90.3000;0.7367;1.2596;
-90.0000;0.7375;1.2596;
-89.7000;0.7375;1.2499;
-89.4000;0.7367;1.2499;
-89.1000;0.7383;1.2451;
-88.8000;0.7375;1.2499;
-88.5000;0.7375;1.2523;
-88.2000;0.7375;1.2644;
-87.9000;0.7391;1.2789;
-87.6000;0.7383;1.2789;
-87.3000;0.7350;1.2789;
-87.0000;0.7383;1.2789;
-86.7000;0.7350;1.2765;
-86.4000;0.7424;1.3055;
-86.1000;0.7375;1.2886;
-85.8000;0.7391;1.2958;
-85.5000;0.7383;1.2982;
-85.2000;0.7342;1.2765;
-84.9000;0.7375;1.2934;
-84.6000;0.7416;1.2982;
-84.3000;0.7342;1.2789;
-84.0000;0.7375;1.2837;
-83.7000;0.7391;1.2837;
-83.4000;0.7375;1.2789;
-83.1000;0.7383;1.2741;
-82.8000;0.7391;1.2789;
-82.5000;0.7383;1.2717;
-82.2000;0.7375;1.2692;
-81.9000;0.7375;1.2692;
-81.6000;0.7391;1.2765;
-81.3000;0.7383;1.2837;
-81.0000;0.7375;1.2837;
-80.7000;0.7391;1.2789;
-80.4000;0.7391;1.2547;
-80.1000;0.7391;1.2572;
-79.8000;0.7342;1.2451;
-79.5000;0.7391;1.2523;
-79.2000;0.7399;1.2596;
-78.9000;0.7416;1.2692;
-78.6000;0.7391;1.2572;
-78.3000;0.7391;1.2547;
-78.0000;0.7399;1.2572;
-77.7000;0.7383;1.2620;
-77.4000;0.7350;1.2499;
-77.1000;0.7416;1.2596;
-76.8000;0.7383;1.2644;
-76.5000;0.7399;1.2692;
-76.2000;0.7375;1.2620;
-75.9000;0.7383;1.2644;
-75.6000;0.7375;1.2692;
-75.3000;0.7383;1.2692;
-75.0000;0.7359;1.2668;
-74.7000;0.7367;1.2692;
-74.4000;0.7391;1.2862;
-74.1000;0.7399;1.2789;
-73.8000;0.7375;1.2813;
-73.5000;0.7359;1.2813;
-73.2000;0.7375;1.2958;
-72.9000;0.7359;1.2934;
-72.6000;0.7448;1.3055;
-72.3000;0.7375;1.2886;
-72.0000;0.7375;1.2886;
-71.7000;0.7383;1.2813;
-71.4000;0.7367;1.2741;
-71.1000;0.7383;1.2692;
-70.8000;0.7375;1.2692;
-70.5000;0.7318;1.2547;
-70.2000;0.7383;1.2789;
-69.9000;0.7383;1.2765;
-69.6000;0.7367;1.2765;
-69.3000;0.7383;1.2765;
-69.0000;0.7399;1.2692;
-68.7000;0.7391;1.2668;
-68.4000;0.7416;1.2668;
-68.1000;0.7399;1.2644;
-67.8000;0.7407;1.2789;
-67.5000;0.7424;1.2862;
-67.2000;0.7391;1.2886;
-66.9000;0.7383;1.2862;
-66.6000;0.7383;1.2765;
-66.3000;0.7367;1.2741;
-66.0000;0.7399;1.2837;
-65.7000;0.7310;1.2644;
-65.4000;0.7383;1.2813;
-65.1000;0.7391;1.2717;
-64.8000;0.7383;1.2644;
-64.5000;0.7359;1.2547;
-64.2000;0.7375;1.2596;
-63.9000;0.7375;1.2620;
-63.6000;0.7391;1.2717;
-63.3000;0.7367;1.2668;
-63.0000;0.7399;1.2644;
-62.7000;0.7302;1.2378;
-62.4000;0.7383;1.2644;
-62.1000;0.7375;1.2644;
-61.8000;0.7399;1.2717;
-61.5000;0.7399;1.2644;
-61.2000;0.7448;1.2789;
-60.9000;0.7383;1.2620;
-60.6000;0.7383;1.2620;
-60.3000;0.7391;1.2644;
-60.0000;0.7367;1.2668;
-59.7000;0.7383;1.2741;
-59.4000;0.7375;1.2765;
-59.1000;0.7375;1.2813;
-58.8000;0.7416;1.2958;
-58.5000;0.7391;1.2813;
-58.2000;0.7383;1.2813;
-57.9000;0.7383;1.2765;
-57.6000;0.7416;1.2862;
-57.3000;0.7383;1.2789;
-57.0000;0.7383;1.2765;
-56.7000;0.7407;1.2789;
-56.4000;0.7391;1.2692;
-56.1000;0.7383;1.2765;
-55.8000;0.7383;1.2741;
-55.5000;0.7367;1.2789;
-55.2000;0.7391;1.2837;
-54.9000;0.7391;1.2789;
-54.6000;0.7367;1.2789;
-54.3000;0.7375;1.2741;
-54.0000;0.7399;1.2789;
-53.7000;0.7391;1.2741;
-53.4000;0.7391;1.2741;
-53.1000;0.7391;1.2692;
-52.8000;0.7383;1.2692;
-52.5000;0.7310;1.2523;
-52.2000;0.7391;1.2765;
-51.9000;0.7367;1.2789;
-51.6000;0.7383;1.2886;
-51.3000;0.7424;1.2958;
-51.0000;0.7375;1.2934;
-50.7000;0.7375;1.2886;
-50.4000;0.7359;1.2813;
-50.1000;0.7399;1.2813;
-49.8000;0.7375;1.2813;
-49.5000;0.7383;1.2741;
-49.2000;0.7383;1.2692;
-48.9000;0.7383;1.2692;
-48.6000;0.7391;1.2717;
-48.3000;0.7383;1.2692;
-48.0000;0.7375;1.2741;
-47.7000;0.7391;1.2741;
-47.4000;0.7440;1.2910;
-47.1000;0.7399;1.2910;
-46.8000;0.7383;1.2862;
-46.5000;0.7383;1.2862;
-46.2000;0.7334;1.2789;
-45.9000;0.7383;1.2982;
-45.6000;0.7391;1.3031;
-45.3000;0.7391;1.3103;
-45.0000;0.7375;1.3031;
-44.7000;0.7375;1.3007;
-44.4000;0.7375;1.2982;
-44.1000;0.7432;1.3152;
-43.8000;0.7383;1.3007;
-43.5000;0.7407;1.3007;
-43.2000;0.7489;1.3200;
-42.9000;0.7391;1.2958;
-42.6000;0.7359;1.2862;
-42.3000;0.7391;1.3007;
-42.0000;0.7383;1.2934;
-41.7000;0.7383;1.3007;
-41.4000;0.7432;1.3176;
-41.1000;0.7383;1.3079;
-40.8000;0.7326;1.2934;
-40.5000;0.7359;1.3055;
-40.2000;0.7359;1.2958;
-39.9000;0.7383;1.2982;
-39.6000;0.7383;1.2934;
-39.3000;0.7375;1.2958;
-39.0000;0.7383;1.3031;
-38.7000;0.7359;1.2982;
-38.4000;0.7383;1.3079;
-38.1000;0.7383;1.3007;
-37.8000;0.7383;1.2886;
-37.5000;0.7383;1.2958;
-37.2000;0.7399;1.2934;
-36.9000;0.7383;1.2886;
-36.6000;0.7375;1.2910;
-36.3000;0.7383;1.2910;
-36.0000;0.7383;1.2765;
-35.7000;0.7383;1.2741;
-35.4000;0.7375;1.2717;
-35.1000;0.7383;1.2789;
-34.8000;0.7359;1.2765;
-34.5000;0.7391;1.2692;
-34.2000;0.7383;1.2668;
-33.9000;0.7383;1.2789;
-33.6000;0.7440;1.2813;
-33.3000;0.7391;1.2620;
-33.0000;0.7407;1.2668;
-32.7000;0.7350;1.2547;
-32.4000;0.7359;1.2596;
-32.1000;0.7399;1.2620;
-31.8000;0.7285;1.2402;
-31.5000;0.7424;1.2741;
-31.2000;0.7350;1.2596;
-30.9000;0.7448;1.2837;
-30.6000;0.7261;1.2475;
-30.3000;0.7367;1.2765;
-30.0000;0.7367;1.2862;
-29.7000;0.7399;1.2886;
-29.4000;0.7367;1.2741;
-29.1000;0.7375;1.2765;
-28.8000;0.7391;1.2813;
-28.5000;0.7432;1.2934;
-28.2000;0.7399;1.2837;
-27.9000;0.7375;1.2813;
-27.6000;0.7367;1.2765;
-27.3000;0.7383;1.2741;
-27.0000;0.7391;1.2668;
-26.7000;0.7399;1.2547;
-26.4000;0.7375;1.2499;
-26.1000;0.7383;1.2547;
-25.8000;0.7424;1.2813;
-25.5000;0.7407;1.2813;
-25.2000;0.7399;1.2620;
-24.9000;0.7375;1.2692;
-24.6000;0.7383;1.2765;
-24.3000;0.7375;1.2717;
-24.0000;0.7432;1.2886;
-23.7000;0.7375;1.2741;
-23.4000;0.7326;1.2572;
-23.1000;0.7359;1.2741;
-22.8000;0.7391;1.2837;
-22.5000;0.7440;1.2982;
-22.2000;0.7424;1.2886;
-21.9000;0.7407;1.2958;
-21.6000;0.7367;1.2813;
-21.3000;0.7375;1.2765;
-21.0000;0.7375;1.2741;
-20.7000;0.7391;1.2765;
-20.4000;0.7391;1.2596;
-20.1000;0.7456;1.2765;
-19.8000;0.7391;1.2620;
-19.5000;0.7399;1.2741;
-19.2000;0.7375;1.2717;
-18.9000;0.7383;1.2668;
-18.6000;0.7440;1.2813;
-18.3000;0.7391;1.2741;
-18.0000;0.7383;1.2717;
-17.7000;0.7456;1.2886;
-17.4000;0.7342;1.2668;
-17.1000;0.7383;1.2837;
-16.8000;0.7375;1.2717;
-16.5000;0.7391;1.2741;
-16.2000;0.7367;1.2765;
-15.9000;0.7391;1.2765;
-15.6000;0.7416;1.2862;
-15.3000;0.7391;1.2813;
-15.0000;0.7375;1.2765;
-14.7000;0.7399;1.2837;
-14.4000;0.7391;1.2837;
-14.1000;0.7399;1.2813;
-13.8000;0.7367;1.2668;
-13.5000;0.7399;1.2765;
-13.2000;0.7407;1.2765;
-12.9000;0.7383;1.2692;
-12.6000;0.7391;1.2789;
-12.3000;0.7464;1.3007;
-12.0000;0.7399;1.2813;
-11.7000;0.7391;1.2813;
-11.4000;0.7391;1.2741;
-11.1000;0.7383;1.2717;
-10.8000;0.7399;1.2741;
-10.5000;0.7440;1.2837;
-10.2000;0.7399;1.2765;
-9.9000;0.7391;1.2692;
-9.6000;0.7456;1.2837;
-9.3000;0.7383;1.2789;
-9.0000;0.7440;1.2910;
-8.7000;0.7383;1.2741;
-8.4000;0.7342;1.2572;
-8.1000;0.7383;1.2572;
-7.8000;0.7367;1.2572;
-7.5000;0.7367;1.2596;
-7.2000;0.7375;1.2644;
-6.9000;0.7383;1.2717;
-6.6000;0.7432;1.2837;
-6.3000;0.7375;1.2789;
-6.0000;0.7367;1.2741;
-5.7000;0.7375;1.2813;
-5.4000;0.7375;1.2837;
-5.1000;0.7391;1.2813;
-4.8000;0.7359;1.2789;
-4.5000;0.7383;1.2789;
-4.2000;0.7399;1.2862;
-3.9000;0.7399;1.2837;
-3.6000;0.7375;1.2789;
-3.3000;0.7399;1.2813;
-3.0000;0.7383;1.2813;
-2.7000;0.7375;1.2837;
-2.4000;0.7399;1.2886;
-2.1000;0.7375;1.2813;
-1.8000;0.7367;1.2741;
-1.5000;0.7342;1.2668;
-1.2000;0.7383;1.2765;
-0.9000;0.7383;1.2741;
-0.6000;0.7375;1.2789;
-0.3000;0.7350;1.2765;
0.0000;0.7350;1.2765;
0.3000;0.7643;1.2958;
0.6000;0.8189;1.3611;
0.9000;0.8612;1.4143;
1.2000;0.8921;1.4481;
1.5000;0.9182;1.4892;
1.8000;0.9434;1.5255;
2.1000;0.9621;1.5545;
2.4000;0.9735;1.5666;
2.7000;0.9874;1.5956;
3.0000;0.9947;1.5980;
3.3000;1.0037;1.6077;
3.6000;1.0142;1.6319;
3.9000;1.0151;1.6295;
4.2000;1.0183;1.6319;
4.5000;1.0273;1.6488;
4.8000;1.0305;1.6415;
5.1000;1.0362;1.6488;
5.4000;1.0395;1.6609;
5.7000;1.0444;1.6609;
6.0000;1.0492;1.6778;
6.3000;1.0549;1.6826;
6.6000;1.0558;1.6851;
6.9000;1.0598;1.6875;
7.2000;1.0623;1.6778;
7.5000;1.0615;1.6609;
7.8000;1.0598;1.6633;
8.1000;1.0720;1.6826;
8.4000;1.0737;1.6730;
8.7000;1.0786;1.6778;
9.0000;1.0794;1.6730;
9.3000;1.0826;1.6826;
9.6000;1.0867;1.6851;
9.9000;1.0883;1.6899;
10.2000;1.0908;1.6947;
10.5000;1.0932;1.6972;
10.8000;1.0940;1.6947;
11.1000;1.0965;1.6826;
11.4000;1.1046;1.6923;
11.7000;1.1054;1.6875;
12.0000;1.1054;1.6899;
12.3000;1.1087;1.6996;
12.6000;1.1095;1.6996;
12.9000;1.1111;1.7068;
13.2000;1.1144;1.7044;
13.5000;1.1193;1.7068;
13.8000;1.1201;1.7020;
14.1000;1.1233;1.6899;
14.4000;1.1241;1.6778;
14.7000;1.1266;1.6826;
15.0000;1.1290;1.6851;
15.3000;1.1298;1.6778;
15.6000;1.1331;1.6778;
15.9000;1.1355;1.6802;
16.2000;1.1355;1.6802;
16.5000;1.1372;1.6802;
16.8000;1.1388;1.6754;
17.1000;1.1412;1.6778;
17.4000;1.1429;1.6730;
17.7000;1.1469;1.6923;
18.0000;1.1534;1.6947;
18.3000;1.1477;1.6802;
18.6000;1.1518;1.6851;
18.9000;1.1526;1.6826;
19.2000;1.1534;1.6754;
19.5000;1.1526;1.6681;
19.8000;1.1551;1.6851;
20.1000;1.1543;1.6851;
20.4000;1.1583;1.6899;
20.7000;1.1624;1.6754;
21.0000;1.1608;1.6633;
21.3000;1.1616;1.6657;
21.6000;1.1640;1.6657;
21.9000;1.1640;1.6585;
22.2000;1.1656;1.6561;
22.5000;1.1591;1.6295;
22.8000;1.1705;1.6464;
23.1000;1.1689;1.6367;
23.4000;1.1697;1.6512;
23.7000;1.1722;1.6536;
24.0000;1.1730;1.6585;
24.3000;1.1730;1.6585;
24.6000;1.1746;1.6488;
24.9000;1.1762;1.6561;
25.2000;1.1754;1.6561;
25.5000;1.1770;1.6633;
25.8000;1.1795;1.6633;
26.1000;1.1779;1.6561;
26.4000;1.1836;1.6730;
26.7000;1.1795;1.6730;
27.0000;1.1803;1.6706;
27.3000;1.1819;1.6730;
27.6000;1.1876;1.6802;
27.9000;1.1827;1.6585;
28.2000;1.1836;1.6609;
28.5000;1.1836;1.6536;
28.8000;1.1860;1.6536;
29.1000;1.1868;1.6561;
29.4000;1.1836;1.6415;
29.7000;1.1876;1.6512;
30.0000;1.1893;1.6512;
30.3000;1.1893;1.6488;
30.6000;1.1909;1.6536;
30.9000;1.1893;1.6488;
31.2000;1.1917;1.6415;
31.5000;1.1901;1.6440;
31.8000;1.1925;1.6367;
32.1000;1.1933;1.6391;
32.4000;1.1998;1.6706;
32.7000;1.1958;1.6536;
33.0000;1.1958;1.6536;
33.3000;1.1958;1.6536;
33.6000;1.1966;1.6488;
33.9000;1.1966;1.6488;
34.2000;1.1982;1.6512;
34.5000;1.1998;1.6512;
34.8000;1.1990;1.6391;
35.1000;1.1982;1.6391;
35.4000;1.2007;1.6512;
35.7000;1.1982;1.6488;
36.0000;1.2007;1.6415;
36.3000;1.1982;1.6270;
36.6000;1.2007;1.6391;
36.9000;1.2015;1.6415;
37.2000;1.2015;1.6464;
37.5000;1.2015;1.6440;
37.8000;1.2023;1.6391;
38.1000;1.2047;1.6464;
38.4000;1.2023;1.6415;
38.7000;1.2039;1.6415;
39.0000;1.2047;1.6440;
39.3000;1.2063;1.6391;
39.6000;1.1982;1.6222;
39.9000;1.2047;1.6391;
40.2000;1.2055;1.6295;
40.5000;1.2031;1.6319;
40.8000;1.2072;1.6440;
41.1000;1.1982;1.6222;
41.4000;1.2063;1.6391;
41.7000;1.2096;1.6488;
42.0000;1.2063;1.6367;
42.3000;1.2063;1.6367;
42.6000;1.2072;1.6343;
42.9000;1.2088;1.6343;
43.2000;1.2088;1.6440;
43.5000;1.2063;1.6319;
43.8000;1.2088;1.6319;
44.1000;1.2096;1.6343;
44.4000;1.2112;1.6415;
44.7000;1.2120;1.6415;
45.0000;1.2104;1.6440;
45.3000;1.2112;1.6391;
45.6000;1.2072;1.6415;
45.9000;1.2112;1.6536;
46.2000;1.2104;1.6536;
46.5000;1.2120;1.6536;
46.8000;1.2129;1.6585;
47.1000;1.2112;1.6609;
47.4000;1.2120;1.6488;
47.7000;1.2137;1.6464;
48.0000;1.2145;1.6440;
48.3000;1.2145;1.6367;
48.6000;1.2153;1.6319;
48.9000;1.2145;1.6319;
49.2000;1.2120;1.6319;
49.5000;1.2153;1.6488;
49.8000;1.2153;1.6464;
50.1000;1.2129;1.6391;
50.4000;1.2104;1.6295;
50.7000;1.2145;1.6415;
51.0000;1.2153;1.6367;
51.3000;1.2153;1.6367;
51.6000;1.2161;1.6343;
51.9000;1.2161;1.6222;
52.2000;1.2169;1.6150;
52.5000;1.2153;1.6198;
52.8000;1.2169;1.6246;
53.1000;1.2177;1.6222;
53.4000;1.2186;1.6270;
53.7000;1.2169;1.6198;
54.0000;1.2194;1.6198;
54.3000;1.2202;1.6174;
54.6000;1.2210;1.6270;
54.9000;1.2186;1.6198;
55.2000;1.2112;1.5980;
55.5000;1.2186;1.6174;
55.8000;1.2194;1.6222;
56.1000;1.2177;1.6174;
56.4000;1.2194;1.6198;
56.7000;1.2202;1.6222;
57.0000;1.2218;1.6198;
57.3000;1.2202;1.6053;
57.6000;1.2186;1.5980;
57.9000;1.2202;1.6004;
58.2000;1.2202;1.6101;
58.5000;1.2210;1.6029;
58.8000;1.2210;1.5956;
59.1000;1.2234;1.6077;
59.4000;1.2218;1.6053;
59.7000;1.2218;1.6029;
60.0000;1.2218;1.6004;
60.3000;1.2226;1.5980;
60.6000;1.2243;1.6053;
60.9000;1.2226;1.6053;
61.2000;1.2218;1.6198;
61.5000;1.2210;1.6198;
61.8000;1.2226;1.6125;
62.1000;1.2251;1.6222;
62.4000;1.2226;1.6101;
62.7000;1.2218;1.6222;
63.0000;1.2234;1.6174;
63.3000;1.2243;1.6053;
63.6000;1.2243;1.6101;
63.9000;1.2243;1.6077;
64.2000;1.2234;1.6125;
64.5000;1.2251;1.6150;
64.8000;1.2267;1.6101;
65.1000;1.2259;1.6125;
65.4000;1.2243;1.6004;
65.7000;1.2243;1.6053;
66.0000;1.2218;1.6077;
66.3000;1.2177;1.6029;
66.6000;1.2226;1.6150;
66.9000;1.2226;1.6077;
67.2000;1.2243;1.6029;
67.5000;1.2243;1.6004;
67.8000;1.2186;1.5859;
68.1000;1.2243;1.6029;
68.4000;1.2251;1.6029;
68.7000;1.2259;1.6029;
69.0000;1.2283;1.6174;
69.3000;1.2251;1.6125;
69.6000;1.2259;1.6174;
69.9000;1.2251;1.6198;
70.2000;1.2259;1.6125;
70.5000;1.2275;1.6125;
70.8000;1.2259;1.6029;
71.1000;1.2234;1.6004;
71.4000;1.2251;1.5884;
71.7000;1.2243;1.5859;
72.0000;1.2251;1.5908;
72.3000;1.2267;1.6029;
72.6000;1.2234;1.5932;
72.9000;1.2267;1.5980;
73.2000;1.2267;1.5956;
73.5000;1.2267;1.5908;
73.8000;1.2259;1.5884;
74.1000;1.2275;1.5908;
74.4000;1.2218;1.5714;
74.7000;1.2275;1.5859;
75.0000;1.2283;1.5859;
75.3000;1.2283;1.5835;
75.6000;1.2267;1.5787;
75.9000;1.2275;1.5787;
76.2000;1.2267;1.5908;
76.5000;1.2275;1.5956;
76.8000;1.2234;1.5884;
77.1000;1.2283;1.5835;
77.4000;1.2283;1.5811;
77.7000;1.2283;1.5690;
78.0000;1.2283;1.5714;
78.3000;1.2300;1.5763;
78.6000;1.2291;1.5714;
78.9000;1.2291;1.5787;
79.2000;1.2275;1.5811;
79.5000;1.2308;1.5835;
79.8000;1.2414;1.6077;
80.1000;1.2275;1.5618;
80.4000;1.2332;1.5739;
80.7000;1.2291;1.5690;
81.0000;1.2300;1.5714;
81.3000;1.2300;1.5787;
81.6000;1.2267;1.5714;
81.9000;1.2291;1.5835;
82.2000;1.2291;1.5787;
82.5000;1.2348;1.5859;
82.8000;1.2308;1.5739;
83.1000;1.2291;1.5811;
83.4000;1.2300;1.5908;
83.7000;1.2308;1.5884;
84.0000;1.2300;1.5763;
84.3000;1.2291;1.5714;
84.6000;1.2316;1.5666;
84.9000;1.2324;1.5690;
85.2000;1.2405;1.5908;
85.5000;1.2291;1.5690;
85.8000;1.2300;1.5714;
86.1000;1.2316;1.5714;
86.4000;1.2381;1.5835;
86.7000;1.2324;1.5642;
87.0000;1.2300;1.5618;
87.3000;1.2332;1.5763;
87.6000;1.2291;1.5811;
87.9000;1.2308;1.5956;
88.2000;1.2300;1.5835;
88.5000;1.2308;1.5884;
88.8000;1.2316;1.5739;
89.1000;1.2430;1.5980;
89.4000;1.2332;1.5763;
89.7000;1.2275;1.5618;
90.0000;1.2324;1.5690;
90.3000;1.2332;1.5714;
90.6000;1.2357;1.5859;
90.9000;1.2381;1.5908;
91.2000;1.2177;1.5424;
91.5000;1.2348;1.5763;
91.8000;1.2348;1.5739;
92.1000;1.2300;1.5690;
92.4000;1.2308;1.5690;
92.7000;1.2324;1.5690;
93.0000;1.2332;1.5739;
93.3000;1.2316;1.5763;
93.6000;1.2324;1.5884;
93.9000;1.2357;1.5932;
94.2000;1.2291;1.5811;
94.5000;1.2324;1.5859;
94.8000;1.2332;1.5859;
95.1000;1.2340;1.5835;
95.4000;1.2324;1.5811;
95.7000;1.2316;1.5859;
96.0000;1.2332;1.5787;
96.3000;1.2348;1.5787;
96.6000;1.2316;1.5739;
96.9000;1.2340;1.5739;
97.2000;1.2316;1.5666;
97.5000;1.2340;1.5690;
97.8000;1.2340;1.5811;
98.1000;1.2340;1.5787;
98.4000;1.2324;1.5811;
98.7000;1.2381;1.5859;
99.0000;1.2348;1.5884;
99.3000;1.2283;1.5884;
99.6000;1.2430;1.6053;
99.9000;1.2332;1.5739;
100.2000;1.2348;1.5714;
100.5000;1.2373;1.5787;
100.8000;1.2291;1.5690;
101.1000;1.2348;1.5739;
101.4000;1.2283;1.5594;
101.7000;1.2283;1.5618;
102.0000;1.2357;1.5811;
102.3000;1.2308;1.5714;
102.6000;1.2340;1.5763;
102.9000;1.2357;1.5835;
103.2000;1.2324;1.5763;
103.5000;1.2324;1.5763;
103.8000;1.2348;1.5884;
104.1000;1.2373;1.5980;
104.4000;1.2324;1.6004;
104.7000;1.2357;1.5980;
105.0000;1.2324;1.5932;
105.3000;1.2340;1.6029;
105.6000;1.2324;1.5956;
105.9000;1.2348;1.5980;
106.2000;1.2316;1.5739;
106.5000;1.2324;1.5763;
106.8000;1.2357;1.5884;
107.1000;1.2357;1.5859;
107.4000;1.2348;1.5908;
107.7000;1.2357;1.6004;
108.0000;1.2365;1.6004;
108.3000;1.2357;1.5956;
108.6000;1.2332;1.5884;
108.9000;1.2348;1.5980;
109.2000;1.2357;1.5956;
109.5000;1.2348;1.5884;
109.8000;1.2348;1.5835;
110.1000;1.2340;1.5714;
110.4000;1.2365;1.5859;
110.7000;1.2340;1.5859;
111.0000;1.2316;1.5787;
111.3000;1.2340;1.5835;
111.6000;1.2348;1.5835;
111.9000;1.2381;1.5932;
112.2000;1.2365;1.5884;
112.5000;1.2357;1.5835;
112.8000;1.2365;1.5932;
113.1000;1.2365;1.5787;
113.4000;1.2357;1.5787;
113.7000;1.2316;1.5787;
114.0000;1.2365;1.6053;
114.3000;1.2373;1.6004;
114.6000;1.2373;1.5932;
114.9000;1.2340;1.5859;
115.2000;1.2348;1.5884;
115.5000;1.2389;1.5884;
115.8000;1.2397;1.5859;
116.1000;1.2357;1.5835;
116.4000;1.2357;1.5859;
116.7000;1.2348;1.5739;
117.0000;1.2365;1.5787;
117.3000;1.2348;1.5763;
117.6000;1.2316;1.5618;
117.9000;1.2373;1.5739;
118.2000;1.2397;1.5884;
118.5000;1.2348;1.5859;
118.8000;1.2373;1.5787;
119.1000;1.2381;1.5763;
119.4000;1.2381;1.5739;
119.7000;1.2389;1.5739;
120.0000;1.2381;1.5739;
120.3000;1.2340;1.5690;
120.6000;1.2381;1.5666;
120.9000;1.2373;1.5642;
121.2000;1.2365;1.5642;
121.5000;1.2340;1.5594;
121.8000;1.2373;1.5618;
122.1000;1.2373;1.5642;
122.4000;1.2373;1.5594;
122.7000;1.2365;1.5690;
123.0000;1.2365;1.5594;
123.3000;1.2373;1.5642;
123.6000;1.2462;1.5835;
123.9000;1.2381;1.5618;
124.2000;1.2397;1.5618;
124.5000;1.2373;1.5594;
124.8000;1.2365;1.5666;
125.1000;1.2389;1.5594;
125.4000;1.2381;1.5569;
125.7000;1.2397;1.5690;
126.0000;1.2381;1.5690;
126.3000;1.2365;1.5739;
126.6000;1.2357;1.5666;
126.9000;1.2373;1.5545;
127.2000;1.2381;1.5521;
127.5000;1.2348;1.5497;
127.8000;1.2348;1.5497;
128.1000;1.2381;1.5569;
128.4000;1.2340;1.5545;
128.7000;1.2381;1.5690;
129.0000;1.2365;1.5594;
129.3000;1.2373;1.5714;
129.6000;1.2389;1.5835;
129.9000;1.2381;1.5811;
130.2000;1.2365;1.5787;
130.5000;1.2389;1.5811;
130.8000;1.2389;1.5763;
131.1000;1.2438;1.5835;
131.4000;1.2348;1.5642;
131.7000;1.2373;1.5763;
132.0000;1.2381;1.5835;
132.3000;1.2389;1.5908;
132.6000;1.2365;1.5787;
132.9000;1.2373;1.5835;
133.2000;1.2414;1.5980;
133.5000;1.2381;1.5739;
133.8000;1.2381;1.5787;
134.1000;1.2430;1.5956;
134.4000;1.2389;1.5908;
134.7000;1.2381;1.5835;
135.0000;1.2405;1.5787;
135.3000;1.2373;1.5642;
135.6000;1.2308;1.5545;
135.9000;1.2405;1.5835;
136.2000;1.2397;1.5787;
136.5000;1.2365;1.5714;
136.8000;1.2373;1.5787;
137.1000;1.2357;1.5787;
137.4000;1.2381;1.5763;
137.7000;1.2340;1.5618;
138.0000;1.2357;1.5666;
138.3000;1.2389;1.5787;
138.6000;1.2332;1.5618;
138.9000;1.2316;1.5569;
139.2000;1.2332;1.5594;
139.5000;1.2373;1.5714;
139.8000;1.2365;1.5787;
140.1000;1.2397;1.5884;
140.4000;1.2389;1.5835;
140.7000;1.2381;1.5714;
141.0000;1.2414;1.5618;
141.3000;1.2389;1.5545;
141.6000;1.2373;1.5424;
141.9000;1.2381;1.5448;
142.2000;1.2381;1.5424;
142.5000;1.2405;1.5448;
142.8000;1.2389;1.5376;
143.1000;1.2389;1.5448;
143.4000;1.2373;1.5497;
143.7000;1.2414;1.5521;
144.0000;1.2405;1.5448;
144.3000;1.2397;1.5545;
144.6000;1.2422;1.5594;
144.9000;1.2381;1.5569;
145.2000;1.2389;1.5594;
145.5000;1.2454;1.5690;
145.8000;1.2389;1.5594;
146.1000;1.2414;1.5618;
146.4000;1.2430;1.5690;
146.7000;1.2389;1.5690;
147.0000;1.2381;1.5594;
147.3000;1.2405;1.5618;
147.6000;1.2405;1.5666;
147.9000;1.2373;1.5545;
148.2000;1.2389;1.5594;
148.5000;1.2389;1.5618;
148.8000;1.2405;1.5642;
149.1000;1.2414;1.5642;
149.4000;1.2340;1.5497;
149.7000;1.2373;1.5545;
150.0000;1.2405;1.5642;
150.3000;1.2397;1.5666;
150.6000;1.2414;1.5690;
150.9000;1.2405;1.5763;
151.2000;1.2397;1.5739;
151.5000;1.2381;1.5739;
151.8000;1.2397;1.5714;
152.1000;1.2381;1.5714;
152.4000;1.2397;1.5666;
152.7000;1.2397;1.5594;
153.0000;1.2389;1.5642;
153.3000;1.2405;1.5739;
153.6000;1.2397;1.5714;
153.9000;1.2462;1.5859;
154.2000;1.2340;1.5473;
154.5000;1.2324;1.5352;
154.8000;1.2389;1.5594;
155.1000;1.2348;1.5545;
155.4000;1.2389;1.5594;
155.7000;1.2397;1.5545;
156.0000;1.2397;1.5497;
156.3000;1.2381;1.5521;
156.6000;1.2389;1.5521;
156.9000;1.2381;1.5545;
157.2000;1.2389;1.5569;
157.5000;1.2389;1.5714;
157.8000;1.2397;1.5787;
158.1000;1.2389;1.5787;
158.4000;1.2373;1.5690;
158.7000;1.2405;1.5690;
159.0000;1.2422;1.5714;
159.3000;1.2397;1.5642;
159.6000;1.2389;1.5618;
159.9000;1.2414;1.5642;
160.2000;1.2414;1.5666;
160.5000;1.2414;1.5666;
160.8000;1.2430;1.5594;
161.1000;1.2405;1.5521;
161.4000;1.2422;1.5497;
161.7000;1.2438;1.5473;
162.0000;1.2405;1.5497;
162.3000;1.2389;1.5473;
162.6000;1.2405;1.5473;
162.9000;1.2348;1.5279;
163.2000;1.2405;1.5352;
163.5000;1.2373;1.5279;
163.8000;1.2397;1.5424;
164.1000;1.2405;1.5448;
164.4000;1.2414;1.5448;
164.7000;1.2397;1.5473;
165.0000;1.2414;1.5545;
165.3000;1.2405;1.5473;
165.6000;1.2405;1.5497;
165.9000;1.2405;1.5569;
166.2000;1.2405;1.5714;
166.5000;1.2405;1.5739;
166.8000;1.2405;1.5739;
167.1000;1.2405;1.5763;
167.4000;1.2405;1.5739;
167.7000;1.2397;1.5666;
168.0000;1.2405;1.5642;
168.3000;1.2381;1.5594;
168.6000;1.2430;1.5569;
168.9000;1.2430;1.5569;
169.2000;1.2438;1.5521;
169.5000;1.2430;1.5497;
169.8000;1.2414;1.5521;
170.1000;1.2414;1.5521;
170.4000;1.2389;1.5521;
170.7000;1.2430;1.5618;
171.0000;1.2422;1.5497;
171.3000;1.2422;1.5594;
171.6000;1.2357;1.5424;
171.9000;1.2414;1.5594;
172.2000;1.2381;1.5521;
172.5000;1.2389;1.5569;
172.8000;1.2414;1.5666;
173.1000;1.2397;1.5618;
173.4000;1.2340;1.5473;
173.7000;1.2414;1.5666;
174.0000;1.2405;1.5618;
174.3000;1.2422;1.5642;
174.6000;1.2405;1.5594;
174.9000;1.2405;1.5521;
175.2000;1.2438;1.5569;
175.5000;1.2397;1.5594;
175.8000;1.2438;1.5642;
176.1000;1.2422;1.5545;
176.4000;1.2462;1.5497;
176.7000;1.2422;1.5400;
177.0000;1.2414;1.5473;
177.3000;1.2389;1.5424;
177.6000;1.2381;1.5521;
177.9000;1.2414;1.5569;
178.2000;1.2405;1.5545;
178.5000;1.2454;1.5666;
178.8000;1.2389;1.5618;
179.1000;1.2414;1.5594;
179.4000;1.2414;1.5424;
179.7000;1.2405;1.5352;
180.0000;1.2397;1.5400;
180.3000;1.2422;1.5545;
180.6000;1.2405;1.5497;
180.9000;1.2438;1.5521;
181.2000;1.2422;1.5569;
181.5000;1.2414;1.5545;
181.8000;1.2430;1.5569;
182.1000;1.2422;1.5521;
182.4000;1.2405;1.5473;
182.7000;1.2397;1.5473;
183.0000;1.2422;1.5521;
183.3000;1.2405;1.5497;
183.6000;1.2414;1.5521;
183.9000;1.2414;1.5497;
184.2000;1.2405;1.5473;
184.5000;1.2405;1.5473;
184.8000;1.2430;1.5545;
185.1000;1.2348;1.5303;
185.4000;1.2430;1.5473;
185.7000;1.2422;1.5545;
186.0000;1.2430;1.5569;
186.3000;1.2340;1.5376;
186.6000;1.2430;1.5569;
186.9000;1.2422;1.5594;
187.2000;1.2446;1.5594;
187.5000;1.2397;1.5521;
187.8000;1.2405;1.5521;
188.1000;1.2414;1.5594;
188.4000;1.2405;1.5497;
188.7000;1.2414;1.5521;
189.0000;1.2397;1.5545;
189.3000;1.2389;1.5473;
189.6000;1.2430;1.5521;
189.9000;1.2397;1.5473;
190.2000;1.2430;1.5497;
190.5000;1.2414;1.5521;
190.8000;1.2405;1.5448;
191.1000;1.2430;1.5448;
191.4000;1.2414;1.5424;
191.7000;1.2414;1.5424;
192.0000;1.2422;1.5424;
192.3000;1.2422;1.5473;
192.6000;1.2365;1.5376;
192.9000;1.2405;1.5376;
193.2000;1.2405;1.5352;
193.5000;1.2340;1.5183;
193.8000;1.2422;1.5400;
194.1000;1.2373;1.5376;
194.4000;1.2536;1.5739;
194.7000;1.2438;1.5400;
195.0000;1.2430;1.5473;
195.3000;1.2389;1.5448;
195.6000;1.2430;1.5594;
195.9000;1.2430;1.5594;
196.2000;1.2357;1.5424;
196.5000;1.2422;1.5545;
196.8000;1.2422;1.5545;
197.1000;1.2430;1.5545;
197.4000;1.2414;1.5497;
197.7000;1.2422;1.5521;
198.0000;1.2422;1.5448;
198.3000;1.2430;1.5569;
198.6000;1.2414;1.5424;
198.9000;1.2414;1.5376;
199.2000;1.2422;1.5400;
199.5000;1.2414;1.5448;
199.8000;1.2430;1.5521;
200.1000;1.2438;1.5594;
200.4000;1.2365;1.5376;
200.7000;1.2430;1.5448;
201.0000;1.2438;1.5569;
201.3000;1.2430;1.5569;
201.6000;1.2454;1.5594;
201.9000;1.2414;1.5569;
202.2000;1.2397;1.5545;
202.5000;1.2414;1.5569;
202.8000;1.2397;1.5618;
203.1000;1.2340;1.5497;
203.4000;1.2405;1.5618;
203.7000;1.2422;1.5618;
204.0000;1.2397;1.5497;
204.3000;1.2414;1.5497;
204.6000;1.2422;1.5545;
204.9000;1.2430;1.5642;
205.2000;1.2430;1.5690;
205.5000;1.2454;1.5642;
205.8000;1.2446;1.5666;
206.1000;1.2487;1.5739;
206.4000;1.2430;1.5666;
206.7000;1.2414;1.5618;
207.0000;1.2414;1.5642;
207.3000;1.2422;1.5594;
207.6000;1.2405;1.5521;
207.9000;1.2422;1.5569;
208.2000;1.2414;1.5545;
208.5000;1.2397;1.5569;
208.8000;1.2422;1.5594;
209.1000;1.2381;1.5400;
209.4000;1.2422;1.5424;
209.7000;1.2479;1.5521;
210.0000;1.2430;1.5424;
210.3000;1.2422;1.5497;
210.6000;1.2414;1.5473;
210.9000;1.2430;1.5424;
211.2000;1.2446;1.5448;
211.5000;1.2479;1.5448;
211.8000;1.2422;1.5231;
212.1000;1.2308;1.4917;
212.4000;1.2438;1.5231;
212.7000;1.2438;1.5303;
213.0000;1.2414;1.5255;
213.3000;1.2397;1.5255;
213.6000;1.2454;1.5400;
213.9000;1.2422;1.5303;
214.2000;1.2422;1.5207;
214.5000;1.2430;1.5207;
214.8000;1.2389;1.5110;
215.1000;1.2422;1.5110;
215.4000;1.2405;1.5183;
215.7000;1.2414;1.5328;
216.0000;1.2414;1.5352;
216.3000;1.2438;1.5352;
216.6000;1.2414;1.5158;
216.9000;1.2422;1.5231;
217.2000;1.2422;1.5134;
217.5000;1.2446;1.5255;
217.8000;1.2414;1.5158;
218.1000;1.2552;1.5545;
218.4000;1.2405;1.5303;
218.7000;1.2430;1.5303;
219.0000;1.2430;1.5328;
219.3000;1.2462;1.5400;
219.6000;1.2422;1.5303;
219.9000;1.2414;1.5352;
220.2000;1.2430;1.5352;
220.5000;1.2438;1.5400;
220.8000;1.2422;1.5424;
221.1000;1.2414;1.5521;
221.4000;1.2438;1.5569;
221.7000;1.2397;1.5497;
222.0000;1.2397;1.5497;
222.3000;1.2414;1.5424;
222.6000;1.2430;1.5424;
222.9000;1.2422;1.5376;
223.2000;1.2397;1.5424;
223.5000;1.2422;1.5594;
223.8000;1.2430;1.5642;
224.1000;1.2430;1.5545;
224.4000;1.2430;1.5569;
224.7000;1.2422;1.5569;
225.0000;1.2422;1.5594;
225.3000;1.2462;1.5618;
225.6000;1.2454;1.5521;
225.9000;1.2446;1.5594;
226.2000;1.2446;1.5690;
226.5000;1.2438;1.5690;
226.8000;1.2438;1.5569;
227.1000;1.2462;1.5521;
227.4000;1.2340;1.5207;
227.7000;1.2438;1.5521;
228.0000;1.2405;1.5376;
228.3000;1.2422;1.5376;
228.6000;1.2430;1.5328;
228.9000;1.2422;1.5303;
229.2000;1.2438;1.5207;
229.5000;1.2422;1.5207;
229.8000;1.2430;1.5207;
230.1000;1.2438;1.5183;
230.4000;1.2462;1.5183;
230.7000;1.2414;1.5037;
231.0000;1.2430;1.5134;
231.3000;1.2422;1.5231;
231.6000;1.2438;1.5303;
231.9000;1.2430;1.5328;
232.2000;1.2422;1.5279;
232.5000;1.2470;1.5473;
232.8000;1.2389;1.5279;
233.1000;1.2422;1.5279;
233.4000;1.2414;1.5255;
233.7000;1.2397;1.5134;
234.0000;1.2430;1.5231;
234.3000;1.2438;1.5255;
234.6000;1.2454;1.5279;
234.9000;1.2430;1.5303;
235.2000;1.2414;1.5231;
235.5000;1.2430;1.5279;
235.8000;1.2430;1.5279;
236.1000;1.2422;1.5231;
236.4000;1.2454;1.5328;
236.7000;1.2446;1.5352;
237.0000;1.2422;1.5231;
237.3000;1.2414;1.5207;
237.6000;1.2381;1.5134;
237.9000;1.2430;1.5231;
238.2000;1.2397;1.5207;
238.5000;1.2405;1.5231;
238.8000;1.2422;1.5255;
239.1000;1.2446;1.5328;
239.4000;1.2438;1.5328;
239.7000;1.2430;1.5328;
240.0000;1.2414;1.5279;
240.3000;1.2438;1.5448;
240.6000;1.2405;1.5376;
240.9000;1.2446;1.5424;
241.2000;1.2373;1.5158;
241.5000;1.2422;1.5255;
241.8000;1.2438;1.5255;
242.1000;1.2454;1.5207;
242.4000;1.2430;1.5134;
242.7000;1.2405;1.5037;
243.0000;1.2430;1.5062;
243.3000;1.2430;1.5013;
243.6000;1.2430;1.5086;
243.9000;1.2430;1.5158;
244.2000;1.2438;1.5158;
244.5000;1.2446;1.5303;
244.8000;1.2422;1.5158;
245.1000;1.2422;1.5231;
245.4000;1.2446;1.5255;
245.7000;1.2422;1.5158;
246.0000;1.2414;1.5086;
246.3000;1.2430;1.5037;
246.6000;1.2454;1.5158;
246.9000;1.2446;1.5207;
247.2000;1.2430;1.5255;
247.5000;1.2430;1.5231;
247.8000;1.2470;1.5448;
248.1000;1.2422;1.5279;
248.4000;1.2446;1.5231;
248.7000;1.2430;1.5255;
249.0000;1.2430;1.5158;
249.3000;1.2422;1.5158;
249.6000;1.2446;1.5207;
249.9000;1.2446;1.5255;
250.2000;1.2405;1.5183;
250.5000;1.2430;1.5328;
250.8000;1.2454;1.5376;
251.1000;1.2438;1.5328;
251.4000;1.2479;1.5376;
251.7000;1.2405;1.5255;
252.0000;1.2446;1.5400;
252.3000;1.2397;1.5352;
252.6000;1.2454;1.5473;
252.9000;1.2438;1.5424;
253.2000;1.2438;1.5424;
253.5000;1.2373;1.5255;
253.8000;1.2422;1.5400;
254.1000;1.2422;1.5424;
254.4000;1.2446;1.5473;
254.7000;1.2438;1.5448;
255.0000;1.2422;1.5352;
255.3000;1.2405;1.5328;
255.6000;1.2422;1.5376;
255.9000;1.2438;1.5424;
256.2000;1.2414;1.5376;
256.5000;1.2316;1.5110;
256.8000;1.2430;1.5352;
257.1000;1.2430;1.5328;
257.4000;1.2422;1.5255;
257.7000;1.2414;1.5183;
258.0000;1.2430;1.5328;
258.3000;1.2430;1.5328;
258.6000;1.2422;1.5207;
258.9000;1.2422;1.5231;
259.2000;1.2430;1.5352;
259.5000;1.2438;1.5376;
259.8000;1.2446;1.5328;
260.1000;1.2438;1.5328;
260.4000;1.2438;1.5279;
260.7000;1.2446;1.5352;
261.0000;1.2422;1.5279;
261.3000;1.2430;1.5183;
261.6000;1.2414;1.5134;
261.9000;1.2430;1.5158;
262.2000;1.2438;1.5110;
262.5000;1.2430;1.5037;
262.8000;1.2438;1.5158;
263.1000;1.2414;1.5183;
263.4000;1.2405;1.5086;
263.7000;1.2414;1.5207;
264.0000;1.2414;1.5255;
264.3000;1.2430;1.5352;
264.6000;1.2430;1.5448;
264.9000;1.2430;1.5521;
265.2000;1.2438;1.5521;
265.5000;1.2430;1.5545;
265.8000;1.2430;1.5594;
266.1000;1.2438;1.5594;
266.4000;1.2422;1.5545;
266.7000;1.2414;1.5497;
267.0000;1.2454;1.5594;
267.3000;1.2430;1.5473;
267.6000;1.2430;1.5400;
267.9000;1.2430;1.5352;
268.2000;1.2438;1.5376;
268.5000;1.2422;1.5328;
268.8000;1.2414;1.5279;
269.1000;1.2430;1.5328;
269.4000;1.2422;1.5400;
269.7000;1.2446;1.5376;
270.0000;1.2438;1.5352;
270.3000;1.2438;1.5424;
270.6000;1.2462;1.5569;
270.9000;1.2446;1.5545;
271.2000;1.2422;1.5448;
271.5000;1.2422;1.5473;
271.8000;1.2430;1.5448;
272.1000;1.2430;1.5376;
272.4000;1.2422;1.5303;
272.7000;1.2438;1.5328;
273.0000;1.2422;1.5279;
273.3000;1.2454;1.5352;
273.6000;1.2422;1.5255;
273.9000;1.2422;1.5207;
274.2000;1.2446;1.5279;
274.5000;1.2422;1.5255;
274.8000;1.2422;1.5279;
275.1000;1.2430;1.5303;
275.4000;1.2519;1.5545;
275.7000;1.2430;1.5279;
276.0000;1.2495;1.5448;
276.3000;1.2438;1.5303;
276.6000;1.2414;1.5303;
276.9000;1.2430;1.5255;
277.2000;1.2527;1.5497;
277.5000;1.2414;1.5279;
277.8000;1.2479;1.5352;
278.1000;1.2430;1.5255;
278.4000;1.2430;1.5279;
278.7000;1.2438;1.5207;
279.0000;1.2430;1.5231;
279.3000;1.2422;1.5231;
279.6000;1.2438;1.5279;
279.9000;1.2430;1.5183;
280.2000;1.2430;1.5110;
280.5000;1.2446;1.5183;
280.8000;1.2422;1.5207;
281.1000;1.2430;1.5207;
281.4000;1.2438;1.5183;
281.7000;1.2446;1.5207;
282.0000;1.2430;1.5134;
282.3000;1.2446;1.5255;
282.6000;1.2454;1.5183;
282.9000;1.2430;1.5086;
283.2000;1.2438;1.5086;
283.5000;1.2438;1.5231;
283.8000;1.2454;1.5231;
284.1000;1.2422;1.5207;
284.4000;1.2422;1.5279;
284.7000;1.2414;1.5279;
285.0000;1.2422;1.5303;
285.3000;1.2511;1.5545;
285.6000;1.2430;1.5376;
285.9000;1.2422;1.5352;
286.2000;1.2438;1.5328;
286.5000;1.2422;1.5303;
286.8000;1.2422;1.5279;
287.1000;1.2414;1.5279;
287.4000;1.2438;1.5279;
287.7000;1.2438;1.5255;
288.0000;1.2430;1.5231;
288.3000;1.2430;1.5158;
288.6000;1.2430;1.5158;
288.9000;1.2430;1.5158;
289.2000;1.2430;1.5231;
289.5000;1.2422;1.5400;
289.8000;1.2414;1.5303;
290.1000;1.2438;1.5303;
290.4000;1.2430;1.5303;
290.7000;1.2430;1.5231;
291.0000;1.2430;1.5183;
291.3000;1.2519;1.5497;
291.6000;1.2446;1.5303;
291.9000;1.2414;1.5303;
292.2000;1.2430;1.5303;
292.5000;1.2495;1.5448;
292.8000;1.2430;1.5303;
293.1000;1.2422;1.5231;
293.4000;1.2422;1.5207;
293.7000;1.2438;1.5255;
294.0000;1.2438;1.5303;
294.3000;1.2430;1.5303;
294.6000;1.2422;1.5303;
294.9000;1.2430;1.5352;
295.2000;1.2454;1.5424;
295.5000;1.2438;1.5376;
295.8000;1.2454;1.5400;
296.1000;1.2397;1.5207;
296.4000;1.2454;1.5352;
296.7000;1.2438;1.5400;
297.0000;1.2470;1.5473;
297.3000;1.2422;1.5303;
297.6000;1.2430;1.5328;
297.9000;1.2438;1.5279;
298.2000;1.2381;1.5279;
298.5000;1.2454;1.5448;
298.8000;1.2430;1.5328;
299.1000;1.2422;1.5352;
299.4000;1.2454;1.5473;
299.7000;1.2422;1.5448;
300.0000;1.2446;1.5376;
300.3000;1.2438;1.5303;
300.6000;1.2430;1.5352;
300.9000;1.2430;1.5279;
301.2000;1.2422;1.5086;
301.5000;1.2438;1.5158;
301.8000;1.2438;1.5158;
302.1000;1.2438;1.5183;
302.4000;1.2438;1.5255;
302.7000;1.2438;1.5207;
303.0000;1.2446;1.5134;
303.3000;1.2446;1.5110;
303.6000;1.2389;1.5013;
303.9000;1.2446;1.5207;
304.2000;1.2454;1.5279;
304.5000;1.2470;1.5279;
304.8000;1.2430;1.5303;
305.1000;1.2422;1.5279;
305.4000;1.2446;1.5400;
305.7000;1.2446;1.5328;
306.0000;1.2503;1.5448;
306.3000;1.2446;1.5352;
306.6000;1.2446;1.5255;
306.9000;1.2454;1.5255;
307.2000;1.2438;1.5183;
307.5000;1.2438;1.5183;
307.8000;1.2470;1.5207;
308.1000;1.2430;1.5207;
308.4000;1.2430;1.5328;
308.7000;1.2487;1.5521;
309.0000;1.2470;1.5400;
309.3000;1.2381;1.5207;
309.6000;1.2422;1.5376;
309.9000;1.2462;1.5448;
310.2000;1.2381;1.5279;
310.5000;1.2381;1.5352;
310.8000;1.2462;1.5521;
311.1000;1.2389;1.5279;
311.4000;1.2414;1.5231;
311.7000;1.2446;1.5255;
312.0000;1.2430;1.5303;
312.3000;1.2430;1.5303;
312.6000;1.2438;1.5207;
312.9000;1.2446;1.5207;
313.2000;1.2430;1.5158;
313.5000;1.2438;1.5231;
313.8000;1.2446;1.5279;
314.1000;1.2430;1.5352;
314.4000;1.2430;1.5376;
314.7000;1.2422;1.5279;
315.0000;1.2446;1.5303;
315.3000;1.2438;1.5279;
315.6000;1.2487;1.5376;
315.9000;1.2446;1.5352;
316.2000;1.2422;1.5448;
316.5000;1.2454;1.5448;
316.8000;1.2438;1.5328;
317.1000;1.2446;1.5303;
317.4000;1.2438;1.5279;
317.7000;1.2438;1.5255;
318.0000;1.2454;1.5303;
318.3000;1.2446;1.5328;
318.6000;1.2405;1.5328;
318.9000;1.2430;1.5448;
319.2000;1.2430;1.5424;
319.5000;1.2454;1.5473;
319.8000;1.2446;1.5497;
320.1000;1.2470;1.5448;
320.4000;1.2438;1.5303;
320.7000;1.2438;1.5352;
321.0000;1.2438;1.5352;
321.3000;1.2430;1.5207;
321.6000;1.2422;1.5158;
321.9000;1.2446;1.5134;
322.2000;1.2430;1.5037;
322.5000;1.2414;1.5086;
322.8000;1.2430;1.5183;
323.1000;1.2438;1.5279;
323.4000;1.2446;1.5328;
323.7000;1.2430;1.5303;
324.0000;1.2438;1.5279;
324.3000;1.2470;1.5448;
324.6000;1.2389;1.5303;
324.9000;1.2405;1.5352;
325.2000;1.2479;1.5569;
325.5000;1.2438;1.5400;
325.8000;1.2397;1.5279;
326.1000;1.2422;1.5352;
326.4000;1.2422;1.5352;
326.7000;1.2430;1.5231;
327.0000;1.2414;1.5231;
327.3000;1.2422;1.5183;
327.6000;1.2487;1.5352;
327.9000;1.2454;1.5303;
328.2000;1.2430;1.5231;
328.5000;1.2430;1.5086;
328.8000;1.2422;1.5062;
329.1000;1.2438;1.5110;
329.4000;1.2422;1.5110;
329.7000;1.2430;1.5183;
330.0000;1.2405;1.5086;
330.3000;1.2503;1.5328;
330.6000;1.2422;1.5134;
330.9000;1.2438;1.5158;
331.2000;1.2462;1.5158;
331.5000;1.2446;1.5110;
331.8000;1.2438;1.5134;
332.1000;1.2438;1.5086;
332.4000;1.2397;1.4989;
332.7000;1.2462;1.5062;
333.0000;1.2430;1.5013;
333.3000;1.2462;1.5086;
333.6000;1.2470;1.5110;
333.9000;1.2438;1.5013;
334.2000;1.2389;1.4844;
334.5000;1.2422;1.4941;
334.8000;1.2365;1.4965;
335.1000;1.2414;1.5037;
335.4000;1.2405;1.5013;
335.7000;1.2405;1.5037;
336.0000;1.2430;1.5134;
336.3000;1.2405;1.5134;
336.6000;1.2430;1.5134;
336.9000;1.2414;1.5158;
337.2000;1.2454;1.5207;
337.5000;1.2430;1.5183;
337.8000;1.2422;1.5183;
338.1000;1.2454;1.5183;
338.4000;1.2446;1.5207;
338.7000;1.2446;1.5207;
339.0000;1.2430;1.5231;
339.3000;1.2422;1.5231;
339.6000;1.2430;1.5183;
339.9000;1.2438;1.5207;
340.2000;1.2430;1.5158;
340.5000;1.2446;1.5158;
340.8000;1.2438;1.5158;
341.1000;1.2438;1.5134;
341.4000;1.2446;1.5110;
341.7000;1.2454;1.5110;
342.0000;1.2446;1.5110;
342.3000;1.2422;1.5013;
342.6000;1.2536;1.5255;
342.9000;1.2495;1.5207;
343.2000;1.2454;1.5255;
343.5000;1.2438;1.5279;
343.8000;1.2430;1.5255;
344.1000;1.2438;1.5134;
344.4000;1.2438;1.5158;
344.7000;1.2422;1.5207;
345.0000;1.2438;1.5183;
345.3000;1.2414;1.5110;
345.6000;1.2405;1.5086;
345.9000;1.2446;1.5207;
346.2000;1.2454;1.5255;
346.5000;1.2454;1.5207;
346.8000;1.2389;1.5134;
347.1000;1.2422;1.5207;
347.4000;1.2430;1.5183;
347.7000;1.2438;1.5183;
348.0000;1.2405;1.5134;
348.3000;1.2422;1.5134;
348.6000;1.2414;1.5062;
348.9000;1.2430;1.5134;
349.2000;1.2405;1.5086;
349.5000;1.2373;1.5062;
349.8000;1.2389;1.5037;
350.1000;1.2430;1.5183;
350.4000;1.2430;1.5183;
350.7000;1.2430;1.5255;
351.0000;1.2422;1.5255;
351.3000;1.2438;1.5231;
351.6000;1.2438;1.5207;
351.9000;1.2446;1.5183;
352.2000;1.2422;1.5037;
352.5000;1.2422;1.5037;
352.8000;1.2430;1.4965;
353.1000;1.2373;1.5037;
353.4000;1.2430;1.5231;
353.7000;1.2430;1.5207;
354.0000;1.2446;1.5328;
354.3000;1.2430;1.5279;
354.6000;1.2430;1.5207;
354.9000;1.2414;1.5158;
355.2000;1.2446;1.5303;
355.5000;1.2438;1.5183;
355.8000;1.2446;1.5158;
356.1000;1.2446;1.5231;
356.4000;1.2454;1.5231;
356.7000;1.2454;1.5231;
357.0000;1.2438;1.5207;
357.3000;1.2536;1.5400;
357.6000;1.2438;1.5183;
357.9000;1.2446;1.5110;
358.2000;1.2438;1.5062;
358.5000;1.2430;1.5183;
358.8000;1.2438;1.5255;
359.1000;1.2430;1.5279;
359.4000;1.2446;1.5279;
359.7000;1.2470;1.5303;
360.0000;1.2438;1.5231;
360.3000;1.2454;1.5231;
360.6000;1.2446;1.5134;
360.9000;1.2430;1.5062;
361.2000;1.2438;1.5086;
361.5000;1.2438;1.5110;
361.8000;1.2430;1.5158;
362.1000;1.2438;1.5158;
362.4000;1.2422;1.5134;
362.7000;1.2438;1.5183;
363.0000;1.2430;1.5158;
363.3000;1.2430;1.5255;
363.6000;1.2438;1.5303;
363.9000;1.2454;1.5255;
364.2000;1.2438;1.5231;
364.5000;1.2430;1.5231;
364.8000;1.2422;1.5158;
365.1000;1.2446;1.5231;
365.4000;1.2438;1.5328;
365.7000;1.2422;1.5207;
366.0000;1.2405;1.5279;
366.3000;1.2454;1.5400;
366.6000;1.2552;1.5690;
366.9000;1.2430;1.5328;
367.2000;1.2446;1.5352;
367.5000;1.2446;1.5328;
367.8000;1.2438;1.5400;
368.1000;1.2454;1.5424;
368.4000;1.2438;1.5400;
368.7000;1.2454;1.5473;
369.0000;1.2422;1.5448;
369.3000;1.2430;1.5448;
369.6000;1.2348;1.5207;
369.9000;1.2414;1.5279;
370.2000;1.2462;1.5352;
370.5000;1.2438;1.5328;
370.8000;1.2422;1.5303;
371.1000;1.2365;1.5110;
371.4000;1.2422;1.5279;
371.7000;1.2397;1.5328;
372.0000;1.2414;1.5328;
372.3000;1.2430;1.5376;
372.6000;1.2422;1.5400;
372.9000;1.2422;1.5448;
373.2000;1.2389;1.5448;
373.5000;1.2414;1.5448;
373.8000;1.2438;1.5473;
374.1000;1.2438;1.5328;
374.4000;1.2438;1.5328;
374.7000;1.2438;1.5328;
375.0000;1.2430;1.5279;
375.3000;1.2422;1.5255;
375.6000;1.2381;1.5158;
375.9000;1.2422;1.5183;
376.2000;1.2414;1.5183;
376.5000;1.2397;1.5086;
376.8000;1.2446;1.5134;
377.1000;1.2430;1.5110;
377.4000;1.2430;1.5158;
377.7000;1.2430;1.5207;
378.0000;1.2438;1.5303;
378.3000;1.2438;1.5303;
378.6000;1.2454;1.5303;
378.9000;1.2462;1.5279;
379.2000;1.2446;1.5279;
379.5000;1.2422;1.5279;
379.8000;1.2454;1.5328;
380.1000;1.2430;1.5279;
380.4000;1.2430;1.5279;
380.7000;1.2454;1.5279;
381.0000;1.2430;1.5231;
381.3000;1.2446;1.5303;
381.6000;1.2438;1.5231;
381.9000;1.2462;1.5279;
382.2000;1.2446;1.5183;
382.5000;1.2454;1.5303;
382.8000;1.2446;1.5328;
383.1000;1.2430;1.5352;
383.4000;1.2446;1.5328;
383.7000;1.2454;1.5279;
384.0000;1.2438;1.5279;
384.3000;1.2446;1.5231;
384.6000;1.2479;1.5255;
384.9000;1.2430;1.5134;
385.2000;1.2430;1.5231;
385.5000;1.2430;1.5231;
385.8000;1.2430;1.5231;
386.1000;1.2438;1.5183;
386.4000;1.2487;1.5352;
386.7000;1.2438;1.5448;
387.0000;1.2446;1.5400;
387.3000;1.2422;1.5400;
387.6000;1.2438;1.5400;
387.9000;1.2438;1.5448;
388.2000;1.2462;1.5545;
388.5000;1.2405;1.5473;
388.8000;1.2430;1.5594;
389.1000;1.2430;1.5618;
389.4000;1.2430;1.5594;
389.7000;1.2430;1.5594;
390.0000;1.2446;1.5594;
390.3000;1.2430;1.5473;
390.6000;1.2430;1.5473;
390.9000;1.2438;1.5569;
391.2000;1.2454;1.5569;
391.5000;1.2422;1.5376;
391.8000;1.2446;1.5352;
392.1000;1.2430;1.5255;
392.4000;1.2430;1.5303;
392.7000;1.2405;1.5255;
393.0000;1.2430;1.5448;
393.3000;1.2438;1.5473;
393.6000;1.2454;1.5497;
393.9000;1.2422;1.5545;
394.2000;1.2430;1.5594;
394.5000;1.2438;1.5594;
394.8000;1.2503;1.5666;
395.1000;1.2405;1.5424;
395.4000;1.2430;1.5521;
395.7000;1.2438;1.5642;
396.0000;1.2446;1.5545;
396.3000;1.2430;1.5642;
396.6000;1.2405;1.5642;
396.9000;1.2405;1.5594;
397.2000;1.2430;1.5642;
397.5000;1.2422;1.5666;
397.8000;1.2438;1.5569;
398.1000;1.2430;1.5545;
398.4000;1.2470;1.5690;
398.7000;1.2438;1.5690;
399.0000;1.2414;1.5690;
399.3000;1.2446;1.5714;
399.6000;1.2422;1.5594;
399.9000;1.2430;1.5666;
400.2000;1.2438;1.5569;
400.5000;1.2438;1.5497;
400.8000;1.2430;1.5545;
401.1000;1.2438;1.5594;
401.4000;1.2422;1.5690;
401.7000;1.2414;1.5739;
402.0000;1.2414;1.5690;
402.3000;1.2373;1.5497;
402.6000;1.2438;1.5666;
402.9000;1.2422;1.5521;
403.2000;1.2430;1.5569;
403.5000;1.2430;1.5569;
403.8000;1.2430;1.5545;
404.1000;1.2438;1.5521;
404.4000;1.2479;1.5666;
404.7000;1.2422;1.5594;
405.0000;1.2430;1.5594;
405.3000;1.2430;1.5594;
405.6000;1.2414;1.5618;
405.9000;1.2430;1.5666;
406.2000;1.2446;1.5690;
406.5000;1.2430;1.5690;
406.8000;1.2405;1.5690;
407.1000;1.2430;1.5690;
407.4000;1.2438;1.5690;
407.7000;1.2422;1.5618;
408.0000;1.2430;1.5545;
408.3000;1.2430;1.5521;
408.6000;1.2422;1.5448;
408.9000;1.2422;1.5424;
409.2000;1.2430;1.5352;
409.5000;1.2438;1.5400;
409.8000;1.2438;1.5376;
410.1000;1.2438;1.5424;
410.4000;1.2422;1.5497;
410.7000;1.2414;1.5569;
411.0000;1.2438;1.5497;
411.3000;1.2454;1.5545;
411.6000;1.2422;1.5618;
411.9000;1.2414;1.5618;
412.2000;1.2446;1.5594;
412.5000;1.2454;1.5618;
412.8000;1.2438;1.5594;
413.1000;1.2487;1.5666;
413.4000;1.2446;1.5473;
413.7000;1.2438;1.5448;
414.0000;1.2462;1.5424;
414.3000;1.2430;1.5376;
414.6000;1.2438;1.5448;
414.9000;1.2422;1.5448;
415.2000;1.2438;1.5448;
415.5000;1.2430;1.5473;
415.8000;1.2414;1.5473;
416.1000;1.2414;1.5448;
416.4000;1.2438;1.5497;
416.7000;1.2381;1.5328;
417.0000;1.2365;1.5231;
417.3000;1.2446;1.5448;
417.6000;1.2430;1.5400;
417.9000;1.2422;1.5376;
418.2000;1.2414;1.5303;
418.5000;1.2438;1.5352;
418.8000;1.2422;1.5400;
419.1000;1.2405;1.5352;
419.4000;1.2422;1.5328;
419.7000;1.2365;1.5183;
420.0000;1.2405;1.5231;
420.3000;1.2430;1.5303;
420.6000;1.2430;1.5303;
420.9000;1.2576;1.5666;
421.2000;1.2422;1.5376;
421.5000;1.2446;1.5376;
421.8000;1.2430;1.5328;
422.1000;1.2462;1.5352;
422.4000;1.2438;1.5207;
422.7000;1.2414;1.5207;
423.0000;1.2422;1.5255;
423.3000;1.2381;1.5183;
423.6000;1.2470;1.5400;
423.9000;1.2422;1.5255;
424.2000;1.2348;1.5037;
424.5000;1.2414;1.5158;
424.8000;1.2430;1.5134;
425.1000;1.2422;1.5134;
425.4000;1.2438;1.5158;
425.7000;1.2446;1.5183;
426.0000;1.2430;1.5086;
426.3000;1.2446;1.5183;
426.6000;1.2454;1.5279;
426.9000;1.2479;1.5376;
427.2000;1.2430;1.5279;
427.5000;1.2397;1.5183;
427.8000;1.2430;1.5328;
428.1000;1.2430;1.5376;
428.4000;1.2422;1.5424;
428.7000;1.2430;1.5400;
429.0000;1.2430;1.5473;
429.3000;1.2438;1.5545;
429.6000;1.2470;1.5545;
429.9000;1.2397;1.5400;
430.2000;1.2438;1.5473;
430.5000;1.2454;1.5521;
430.8000;1.2446;1.5545;
431.1000;1.2422;1.5497;
431.4000;1.2422;1.5473;
431.7000;1.2454;1.5473;
432.0000;1.2422;1.5424;
432.3000;1.2422;1.5400;
432.6000;1.2438;1.5424;
432.9000;1.2438;1.5424;
433.2000;1.2454;1.5545;
433.5000;1.2430;1.5448;
433.8000;1.2430;1.5352;
434.1000;1.2438;1.5303;
434.4000;1.2414;1.5255;
434.7000;1.2438;1.5255;
435.0000;1.2405;1.5183;
435.3000;1.2503;1.5352;
435.6000;1.2446;1.5231;
435.9000;1.2430;1.5183;
436.2000;1.2430;1.5255;
436.5000;1.2454;1.5352;
436.8000;1.2438;1.5255;
437.1000;1.2430;1.5255;
437.4000;1.2414;1.5134;
437.7000;1.2422;1.5183;
438.0000;1.2438;1.5207;
438.3000;1.2365;1.5013;
438.6000;1.2422;1.5158;
438.9000;1.2438;1.5279;
439.2000;1.2438;1.5424;
439.5000;1.2430;1.5328;
439.8000;1.2414;1.5328;
440.1000;1.2397;1.5231;
440.4000;1.2438;1.5303;
440.7000;1.2422;1.5303;
441.0000;1.2422;1.5400;
441.3000;1.2446;1.5424;
441.6000;1.2479;1.5448;
441.9000;1.2438;1.5328;
442.2000;1.2430;1.5328;
442.5000;1.2348;1.5086;
442.8000;1.2430;1.5303;
443.1000;1.2422;1.5207;
443.4000;1.2422;1.5183;
443.7000;1.2430;1.5279;
444.0000;1.2405;1.5303;
444.3000;1.2438;1.5424;
444.6000;1.2422;1.5328;
444.9000;1.2430;1.5279;
445.2000;1.2487;1.5400;
445.5000;1.2446;1.5207;
445.8000;1.2438;1.5158;
446.1000;1.2479;1.5255;
446.4000;1.2446;1.5207;
446.7000;1.2438;1.5376;
447.0000;1.2422;1.5424;
447.3000;1.2430;1.5473;
447.6000;1.2389;1.5473;
447.9000;1.2422;1.5569;
448.2000;1.2422;1.5473;
448.5000;1.2405;1.5376;
448.8000;1.2430;1.5376;
449.1000;1.2397;1.5303;
449.4000;1.2462;1.5400;
449.7000;1.2430;1.5255;
450.0000;1.2414;1.5231;
450.3000;1.2414;1.5231;
450.6000;1.2422;1.5255;
450.9000;1.2479;1.5473;
451.2000;1.2438;1.5400;
451.5000;1.2430;1.5376;
451.8000;1.2422;1.5424;
452.1000;1.2422;1.5424;
452.4000;1.2397;1.5376;
452.7000;1.2422;1.5473;
453.0000;1.2430;1.5473;
453.3000;1.2438;1.5521;
453.6000;1.2422;1.5328;
453.9000;1.2438;1.5303;
454.2000;1.2430;1.5279;
454.5000;1.2438;1.5303;
454.8000;1.2438;1.5352;
455.1000;1.2446;1.5400;
455.4000;1.2405;1.5376;
455.7000;1.2438;1.5448;
456.0000;1.2446;1.5569;
456.3000;1.2446;1.5690;
456.6000;1.2397;1.5545;
456.9000;1.2422;1.5666;
457.2000;1.2422;1.5618;
457.5000;1.2454;1.5618;
457.8000;1.2422;1.5473;
458.1000;1.2405;1.5448;
458.4000;1.2462;1.5545;
458.7000;1.2511;1.5690;
459.0000;1.2430;1.5473;
459.3000;1.2422;1.5497;
459.6000;1.2454;1.5545;
459.9000;1.2438;1.5569;
460.2000;1.2414;1.5521;
460.5000;1.2438;1.5618;
460.8000;1.2430;1.5594;
461.1000;1.2438;1.5569;
461.4000;1.2438;1.5424;
461.7000;1.2414;1.5303;
462.0000;1.2414;1.5303;
462.3000;1.2430;1.5328;
462.6000;1.2446;1.5448;
462.9000;1.2422;1.5424;
463.2000;1.2397;1.5279;
463.5000;1.2438;1.5303;
463.8000;1.2373;1.5134;
464.1000;1.2414;1.5255;
464.4000;1.2422;1.5303;
464.7000;1.2479;1.5521;
465.0000;1.2430;1.5521;
465.3000;1.2405;1.5497;
465.6000;1.2381;1.5400;
465.9000;1.2438;1.5545;
466.2000;1.2470;1.5569;
466.5000;1.2324;1.5158;
466.8000;1.2414;1.5400;
467.1000;1.2422;1.5352;
467.4000;1.2422;1.5352;
467.7000;1.2405;1.5255;
468.0000;1.2422;1.5279;
468.3000;1.2422;1.5328;
468.6000;1.2454;1.5424;
468.9000;1.2422;1.5376;
469.2000;1.2430;1.5279;
469.5000;1.2446;1.5352;
469.8000;1.2454;1.5352;
470.1000;1.2438;1.5376;
470.4000;1.2430;1.5352;
470.7000;1.2422;1.5303;
471.0000;1.2438;1.5424;
471.3000;1.2422;1.5376;
471.6000;1.2405;1.5352;
471.9000;1.2430;1.5352;
472.2000;1.2414;1.5303;
472.5000;1.2446;1.5328;
472.8000;1.2422;1.5328;
473.1000;1.2430;1.5231;
473.4000;1.2430;1.5279;
473.7000;1.2446;1.5255;
474.0000;1.2430;1.5231;
474.3000;1.2422;1.5231;
474.6000;1.2422;1.5183;
474.9000;1.2446;1.5279;
475.2000;1.2438;1.5231;
475.5000;1.2414;1.5158;
475.8000;1.2430;1.5158;
476.1000;1.2422;1.5134;
476.4000;1.2446;1.5255;
476.7000;1.2438;1.5279;
477.0000;1.2430;1.5207;
477.3000;1.2438;1.5255;
477.6000;1.2422;1.5158;
477.9000;1.2430;1.5279;
478.2000;1.2430;1.5303;
478.5000;1.2430;1.5352;
478.8000;1.2430;1.5303;
479.1000;1.2422;1.5328;
479.4000;1.2414;1.5303;
479.7000;1.2430;1.5400;
480.0000;1.2438;1.5448;
480.3000;1.2438;1.5424;
480.6000;1.2430;1.5424;
480.9000;1.2422;1.5424;
481.2000;1.2438;1.5400;
481.5000;1.2422;1.5352;
481.8000;1.2438;1.5279;
482.1000;1.2414;1.5207;
482.4000;1.2430;1.5207;
482.7000;1.2438;1.5110;
483.0000;1.2430;1.5062;
483.3000;1.2422;1.5062;
483.6000;1.2430;1.5013;
483.9000;1.2405;1.4989;
484.2000;1.2462;1.5158;
484.5000;1.2438;1.5134;
484.8000;1.2446;1.5231;
485.1000;1.2430;1.5279;
485.4000;1.2430;1.5279;
485.7000;1.2430;1.5255;
486.0000;1.2414;1.5183;
486.3000;1.2365;1.5062;
486.6000;1.2446;1.5352;
486.9000;1.2430;1.5303;
487.2000;1.2422;1.5279;
487.5000;1.2422;1.5255;
487.8000;1.2430;1.5255;
488.1000;1.2405;1.5303;
488.4000;1.2414;1.5400;
488.7000;1.2414;1.5400;
489.0000;1.2438;1.5521;
489.3000;1.2422;1.5521;
489.6000;1.2438;1.5521;
489.9000;1.2430;1.5473;
490.2000;1.2446;1.5497;
490.5000;1.2454;1.5545;
490.8000;1.2438;1.5569;
491.1000;1.2365;1.5352;
491.4000;1.2438;1.5521;
491.7000;1.2430;1.5521;
492.0000;1.2422;1.5569;
492.3000;1.2422;1.5521;
492.6000;1.2430;1.5521;
492.9000;1.2422;1.5400;
493.2000;1.2422;1.5303;
493.5000;1.2430;1.5376;
493.8000;1.2422;1.5448;
494.1000;1.2438;1.5352;
494.4000;1.2381;1.5183;
494.7000;1.2422;1.5303;
495.0000;1.2438;1.5303;
495.3000;1.2446;1.5231;
495.6000;1.2430;1.5158;
495.9000;1.2430;1.5134;
496.2000;1.2422;1.5158;
496.5000;1.2430;1.5134;
496.8000;1.2414;1.5158;
497.1000;1.2422;1.5231;
497.4000;1.2430;1.5207;
497.7000;1.2414;1.5183;
498.0000;1.2422;1.5279;
498.3000;1.2422;1.5376;
498.6000;1.2422;1.5352;
498.9000;1.2405;1.5255;
499.2000;1.2414;1.5231;
499.5000;1.2357;1.5110;
499.8000;1.2422;1.5328;
500.1000;1.2438;1.5352;
500.4000;1.2470;1.5521;
500.7000;1.2446;1.5448;
501.0000;1.2430;1.5400;
501.3000;1.2422;1.5328;
501.6000;1.2446;1.5424;
501.9000;1.2430;1.5376;
502.2000;1.2430;1.5303;
502.5000;1.2438;1.5424;
502.8000;1.2422;1.5448;
503.1000;1.2414;1.5400;
503.4000;1.2414;1.5279;
503.7000;1.2405;1.5231;
504.0000;1.2405;1.5255;
504.3000;1.2438;1.5255;
504.6000;1.2487;1.5352;
504.9000;1.2438;1.5279;
505.2000;1.2430;1.5328;
505.5000;1.2430;1.5255;
505.8000;1.2422;1.5134;
506.1000;1.2422;1.5183;
506.4000;1.2430;1.5158;
506.7000;1.2438;1.5134;
507.0000;1.2422;1.5134;
507.3000;1.2414;1.5086;
507.6000;1.2462;1.5134;
507.9000;1.2422;1.5134;
508.2000;1.2430;1.5183;
508.5000;1.2405;1.5183;
508.8000;1.2430;1.5207;
509.1000;1.2430;1.5207;
509.4000;1.2462;1.5376;
509.7000;1.2422;1.5328;
510.0000;1.2422;1.5376;
510.3000;1.2405;1.5497;
510.6000;1.2422;1.5618;
510.9000;1.2422;1.5569;
511.2000;1.2446;1.5569;
511.5000;1.2438;1.5521;
511.8000;1.2438;1.5448;
512.1000;1.2422;1.5400;
512.4000;1.2422;1.5400;
512.7000;1.2430;1.5352;
513.0000;1.2430;1.5400;
513.3000;1.2446;1.5424;
513.6000;1.2405;1.5352;
513.9000;1.2430;1.5424;
514.2000;1.2438;1.5279;
514.5000;1.2430;1.5231;
514.8000;1.2430;1.5352;
515.1000;1.2373;1.5279;
515.4000;1.2405;1.5352;
515.7000;1.2422;1.5207;
516.0000;1.2430;1.5207;
516.3000;1.2430;1.5352;
516.6000;1.2430;1.5376;
516.9000;1.2414;1.5303;
517.2000;1.2422;1.5352;
517.5000;1.2357;1.5231;
517.8000;1.2438;1.5303;
518.1000;1.2430;1.5255;
518.4000;1.2397;1.5303;
518.7000;1.2430;1.5303;
519.0000;1.2405;1.5255;
519.3000;1.2430;1.5303;
519.6000;1.2430;1.5352;
519.9000;1.2438;1.5352;
520.2000;1.2397;1.5352;
520.5000;1.2430;1.5448;
520.8000;1.2414;1.5448;
521.1000;1.2438;1.5497;
521.4000;1.2373;1.5400;
521.7000;1.2405;1.5473;
522.0000;1.2422;1.5448;
522.3000;1.2422;1.5400;
522.6000;1.2430;1.5376;
522.9000;1.2414;1.5303;
523.2000;1.2405;1.5134;
523.5000;1.2373;1.5110;
523.8000;1.2422;1.5231;
524.1000;1.2414;1.5158;
524.4000;1.2389;1.5158;
524.7000;1.2430;1.5255;
525.0000;1.2430;1.5110;
525.3000;1.2422;1.5134;
525.6000;1.2414;1.5134;
525.9000;1.2438;1.5183;
526.2000;1.2414;1.5207;
526.5000;1.2389;1.5158;
526.8000;1.2397;1.5231;
527.1000;1.2446;1.5376;
527.4000;1.2430;1.5279;
527.7000;1.2446;1.5279;
528.0000;1.2422;1.5231;
528.3000;1.2422;1.5279;
528.6000;1.2430;1.5328;
528.9000;1.2422;1.5255;
529.2000;1.2373;1.5110;
529.5000;1.2414;1.5183;
529.8000;1.2422;1.5255;
530.1000;1.2446;1.5303;
530.4000;1.2397;1.5255;
530.7000;1.2430;1.5328;
531.0000;1.2438;1.5352;
531.3000;1.2414;1.5279;
531.6000;1.2430;1.5279;
531.9000;1.2430;1.5183;
532.2000;1.2430;1.5134;
532.5000;1.2438;1.5183;
532.8000;1.2405;1.5158;
533.1000;1.2430;1.5158;
533.4000;1.2438;1.5207;
533.7000;1.2446;1.5207;
534.0000;1.2422;1.5183;
534.3000;1.2389;1.5134;
534.6000;1.2487;1.5328;
534.9000;1.2430;1.5279;
535.2000;1.2405;1.5231;
535.5000;1.2422;1.5352;
535.8000;1.2470;1.5424;
536.1000;1.2438;1.5279;
536.4000;1.2430;1.5183;
536.7000;1.2422;1.5183;
537.0000;1.2454;1.5255;
537.3000;1.2430;1.5183;
537.6000;1.2430;1.5110;
537.9000;1.2511;1.5255;
538.2000;1.2470;1.5183;
538.5000;1.2430;1.5134;
538.8000;1.2430;1.5183;
539.1000;1.2389;1.5086;
539.4000;1.2365;1.4965;
539.7000;1.2389;1.5013;
540.0000;1.2438;1.5110;
540.3000;1.2430;1.5231;
540.6000;1.2397;1.5279;
540.9000;1.2389;1.5279;
541.2000;1.2430;1.5328;
541.5000;1.2422;1.5255;
541.8000;1.2422;1.5231;
542.1000;1.2438;1.5279;
542.4000;1.2414;1.5231;
542.7000;1.2430;1.5352;
543.0000;1.2414;1.5424;
543.3000;1.2422;1.5352;
543.6000;1.2430;1.5352;
543.9000;1.2422;1.5279;
544.2000;1.2422;1.5158;
544.5000;1.2365;1.4941;
544.8000;1.2405;1.5062;
545.1000;1.2438;1.5207;
545.4000;1.2511;1.5473;
545.7000;1.2422;1.5279;
546.0000;1.2430;1.5352;
546.3000;1.2422;1.5376;
546.6000;1.2430;1.5424;
546.9000;1.2430;1.5352;
547.2000;1.2430;1.5400;
547.5000;1.2422;1.5473;
547.8000;1.2438;1.5545;
548.1000;1.2430;1.5376;
548.4000;1.2438;1.5328;
548.7000;1.2422;1.5328;
549.0000;1.2438;1.5328;
549.3000;1.2422;1.5231;
549.6000;1.2414;1.5231;
549.9000;1.2414;1.5328;
550.2000;1.2430;1.5424;
550.5000;1.2422;1.5376;
550.8000;1.2422;1.5400;
551.1000;1.2381;1.5231;
551.4000;1.2446;1.5400;
551.7000;1.2430;1.5400;
552.0000;1.2430;1.5376;
552.3000;1.2454;1.5376;
552.6000;1.2422;1.5303;
552.9000;1.2422;1.5328;
553.2000;1.2405;1.5303;
553.5000;1.2414;1.5255;
553.8000;1.2414;1.5303;
554.1000;1.2414;1.5376;
554.4000;1.2414;1.5400;
554.7000;1.2414;1.5279;
555.0000;1.2365;1.5183;
555.3000;1.2414;1.5328;
555.6000;1.2462;1.5424;
555.9000;1.2446;1.5328;
556.2000;1.2422;1.5207;
556.5000;1.2405;1.5037;
556.8000;1.2446;1.5062;
557.1000;1.2422;1.5086;
557.4000;1.2462;1.5255;
557.7000;1.2446;1.5255;
558.0000;1.2414;1.5110;
558.3000;1.2438;1.5110;
558.6000;1.2373;1.5037;
558.9000;1.2422;1.5086;
559.2000;1.2438;1.5134;
559.5000;1.2414;1.5231;
559.8000;1.2414;1.5279;
560.1000;1.2422;1.5303;
560.4000;1.2462;1.5448;
560.7000;1.2381;1.5255;
561.0000;1.2365;1.5158;
561.3000;1.2405;1.5352;
561.6000;1.2414;1.5376;
561.9000;1.2414;1.5424;
562.2000;1.2381;1.5255;
562.5000;1.2414;1.5400;
562.8000;1.2430;1.5400;
563.1000;1.2414;1.5424;
563.4000;1.2389;1.5400;
563.7000;1.2389;1.5328;
564.0000;1.2389;1.5255;
564.3000;1.2422;1.5352;
564.6000;1.2389;1.5328;
564.9000;1.2414;1.5376;
565.2000;1.2397;1.5400;
565.5000;1.2422;1.5352;
565.8000;1.2414;1.5400;
566.1000;1.2397;1.5352;
566.4000;1.2422;1.5473;
566.7000;1.2438;1.5521;
567.0000;1.2430;1.5473;
567.3000;1.2422;1.5424;
567.6000;1.2446;1.5448;
567.9000;1.2430;1.5352;
568.2000;1.2446;1.5400;
568.5000;1.2438;1.5400;
568.8000;1.2422;1.5424;
569.1000;1.2430;1.5448;
569.4000;1.2438;1.5497;
569.7000;1.2422;1.5497;
570.0000;1.2422;1.5521;
570.3000;1.2438;1.5497;
570.6000;1.2430;1.5473;
570.9000;1.2430;1.5473;
571.2000;1.2438;1.5473;
571.5000;1.2422;1.5376;
571.8000;1.2422;1.5328;
572.1000;1.2438;1.5448;
572.4000;1.2454;1.5521;
572.7000;1.2397;1.5328;
573.0000;1.2430;1.5400;
573.3000;1.2414;1.5376;
573.6000;1.2495;1.5618;
573.9000;1.2430;1.5448;
574.2000;1.2405;1.5497;
574.5000;1.2438;1.5545;
574.8000;1.2422;1.5473;
575.1000;1.2462;1.5569;
575.4000;1.2405;1.5400;
575.7000;1.2397;1.5448;
576.0000;1.2414;1.5473;
576.3000;1.2414;1.5352;
576.6000;1.2397;1.5231;
576.9000;1.2438;1.5255;
577.2000;1.2397;1.5255;
577.5000;1.2405;1.5328;
577.8000;1.2405;1.5376;
578.1000;1.2511;1.5642;
578.4000;1.2397;1.5328;
578.7000;1.2405;1.5376;
579.0000;1.2414;1.5376;
579.3000;1.2422;1.5376;
579.6000;1.2422;1.5352;
579.9000;1.2405;1.5424;
580.2000;1.2414;1.5473;
580.5000;1.2414;1.5424;
580.8000;1.2422;1.5376;
581.1000;1.2405;1.5376;
581.4000;1.2430;1.5424;
581.7000;1.2414;1.5424;
582.0000;1.2438;1.5473;
582.3000;1.2422;1.5497;
582.6000;1.2430;1.5569;
582.9000;1.2430;1.5521;
583.2000;1.2438;1.5594;
583.5000;1.2422;1.5521;
583.8000;1.2422;1.5569;
584.1000;1.2430;1.5497;
584.4000;1.2405;1.5400;
584.7000;1.2438;1.5424;
585.0000;1.2422;1.5376;
585.3000;1.2414;1.5328;
585.6000;1.2438;1.5352;
585.9000;1.2422;1.5328;
586.2000;1.2430;1.5352;
586.5000;1.2430;1.5400;
586.8000;1.2422;1.5521;
587.1000;1.2446;1.5690;
587.4000;1.2430;1.5666;
587.7000;1.2430;1.5618;
588.0000;1.2414;1.5569;
588.3000;1.2430;1.5642;
588.6000;1.2422;1.5690;
588.9000;1.2422;1.5666;
589.2000;1.2422;1.5714;
589.5000;1.2422;1.5690;
589.8000;1.2422;1.5739;
590.1000;1.2397;1.5714;
590.4000;1.2348;1.5569;
590.7000;1.2414;1.5690;
591.0000;1.2430;1.5714;
591.3000;1.2430;1.5714;
591.6000;1.2405;1.5569;
591.9000;1.2414;1.5569;
592.2000;1.2446;1.5594;
592.5000;1.2438;1.5642;
592.8000;1.2422;1.5618;
593.1000;1.2430;1.5642;
593.4000;1.2422;1.5642;
593.7000;1.2414;1.5666;
594.0000;1.2414;1.5642;
594.3000;1.2414;1.5642;
594.6000;1.2422;1.5714;
594.9000;1.2414;1.5545;
595.2000;1.2414;1.5521;
595.5000;1.2397;1.5473;
595.8000;1.2405;1.5328;
596.1000;1.2422;1.5352;
596.4000;1.2511;1.5594;
596.7000;1.2422;1.5448;
597.0000;1.2414;1.5497;
597.3000;1.2438;1.5569;
597.6000;1.2381;1.5497;
597.9000;1.2430;1.5569;
598.2000;1.2438;1.5618;
598.5000;1.2397;1.5545;
598.8000;1.2414;1.5594;
599.1000;1.2397;1.5497;
599.4000;1.2454;1.5569;
599.7000;1.2414;1.5400;
600.0000;1.2414;1.5521;
600.3000;1.2414;1.5400;
600.6000;1.2389;1.5255;
600.9000;1.2300;1.4941;
601.2000;1.2243;1.4747;
601.5000;1.2145;1.4481;
601.8000;1.2063;1.4312;
602.1000;1.1982;1.4240;
602.4000;1.1893;1.4095;
602.7000;1.1803;1.3925;
603.0000;1.1697;1.3684;
603.3000;1.1640;1.3635;
603.6000;1.1575;1.3514;
603.9000;1.1502;1.3418;
604.2000;1.1437;1.3321;
604.5000;1.1372;1.3176;
604.8000;1.1306;1.3079;
605.1000;1.1266;1.3055;
605.4000;1.1184;1.2958;
605.7000;1.1136;1.2934;
606.0000;1.1103;1.2958;
606.3000;1.1070;1.3031;
606.6000;1.1022;1.2958;
606.9000;1.0965;1.2910;
607.2000;1.1046;1.3152;
607.5000;1.0899;1.2837;
607.8000;1.0859;1.2765;
608.1000;1.0810;1.2741;
608.4000;1.0745;1.2668;
608.7000;1.0745;1.2668;
609.0000;1.0704;1.2644;
609.3000;1.0696;1.2668;
609.6000;1.0639;1.2572;
609.9000;1.0598;1.2620;
610.2000;1.0574;1.2572;
610.5000;1.0566;1.2668;
610.8000;1.0492;1.2499;
611.1000;1.0492;1.2572;
611.4000;1.0468;1.2547;
611.7000;1.0435;1.2547;
612.0000;1.0411;1.2499;
612.3000;1.0435;1.2572;
612.6000;1.0395;1.2475;
612.9000;1.0354;1.2547;
613.2000;1.0313;1.2451;
613.5000;1.0297;1.2547;
613.8000;1.0297;1.2596;
614.1000;1.0248;1.2547;
614.4000;1.0199;1.2451;
614.7000;1.0208;1.2499;
615.0000;1.0191;1.2451;
615.3000;1.0175;1.2451;
615.6000;1.0175;1.2499;
615.9000;1.0134;1.2402;
616.2000;1.0102;1.2378;
616.5000;1.0110;1.2378;
616.8000;1.0102;1.2402;
617.1000;1.0069;1.2378;
617.4000;1.0045;1.2306;
617.7000;1.0004;1.2330;
618.0000;1.0004;1.2330;
618.3000;0.9980;1.2257;
618.6000;0.9898;1.2015;
618.9000;0.9947;1.2136;
619.2000;0.9931;1.2064;
619.5000;0.9939;1.2209;
619.8000;0.9858;1.2015;
620.1000;0.9882;1.2257;
620.4000;0.9915;1.2330;
620.7000;0.9833;1.2161;
621.0000;0.9841;1.2161;
621.3000;0.9817;1.2185;
621.6000;0.9817;1.2161;
621.9000;0.9809;1.2161;
622.2000;0.9784;1.2112;
622.5000;0.9760;1.2136;
622.8000;0.9760;1.2136;
623.1000;0.9760;1.2136;
623.4000;0.9735;1.2161;
623.7000;0.9727;1.2040;
624.0000;0.9719;1.2064;
624.3000;0.9703;1.2064;
624.6000;0.9670;1.2064;
624.9000;0.9670;1.2161;
625.2000;0.9670;1.2209;
625.5000;0.9638;1.2136;
625.8000;0.9638;1.2136;
626.1000;0.9621;1.2136;
626.4000;0.9605;1.2185;
626.7000;0.9613;1.2185;
627.0000;0.9605;1.2233;
627.3000;0.9589;1.2112;
627.6000;0.9597;1.2112;
627.9000;0.9573;1.2064;
628.2000;0.9548;1.1943;
628.5000;0.9516;1.1967;
628.8000;0.9532;1.2015;
629.1000;0.9532;1.2040;
629.4000;0.9499;1.2064;
629.7000;0.9540;1.2233;
630.0000;0.9483;1.2088;
630.3000;0.9548;1.2354;
630.6000;0.9467;1.2233;
630.9000;0.9434;1.2161;
631.2000;0.9442;1.2233;
631.5000;0.9451;1.2209;
631.8000;0.9442;1.2185;
632.1000;0.9426;1.2185;
632.4000;0.9483;1.2306;
632.7000;0.9410;1.2040;
633.0000;0.9320;1.1846;
633.3000;0.9402;1.2112;
633.6000;0.9369;1.2088;
633.9000;0.9361;1.2088;
634.2000;0.9271;1.1967;
634.5000;0.9304;1.2064;
634.8000;0.9361;1.2136;
635.1000;0.9312;1.2015;
635.4000;0.9361;1.2136;
635.7000;0.9320;1.1991;
636.0000;0.9312;1.1967;
636.3000;0.9337;1.2064;
636.6000;0.9271;1.1943;
636.9000;0.9312;1.2015;
637.2000;0.9296;1.1991;
637.5000;0.9271;1.2015;
637.8000;0.9280;1.2064;
638.1000;0.9280;1.2064;
638.4000;0.9255;1.2040;
638.7000;0.9247;1.2040;
639.0000;0.9231;1.1991;
639.3000;0.9174;1.1919;
639.6000;0.9198;1.2040;
639.9000;0.9223;1.2112;
640.2000;0.9198;1.2064;
640.5000;0.9190;1.1991;
640.8000;0.9166;1.1895;
641.1000;0.9190;1.1991;
641.4000;0.9166;1.2064;
641.7000;0.9158;1.2112;
642.0000;0.9133;1.1991;
642.3000;0.9133;1.1991;
642.6000;0.9125;1.1967;
642.9000;0.9133;1.1919;
643.2000;0.9125;1.1919;
643.5000;0.9141;1.1967;
643.8000;0.9117;1.2015;
644.1000;0.9133;1.2136;
644.4000;0.9117;1.2161;
644.7000;0.9027;1.1919;
645.0000;0.9076;1.2040;
645.3000;0.9084;1.1967;
645.6000;0.9084;1.1943;
645.9000;0.9035;1.1967;
646.2000;0.9076;1.2088;
646.5000;0.9052;1.2064;
646.8000;0.9060;1.2136;
647.1000;0.9060;1.2161;
647.4000;0.9035;1.2088;
647.7000;0.9035;1.2064;
648.0000;0.9035;1.2015;
648.3000;0.8962;1.1798;
648.6000;0.9011;1.1919;
648.9000;0.9003;1.1822;
649.2000;0.9019;1.1798;
649.5000;0.9003;1.1677;
649.8000;0.8930;1.1484;
650.1000;0.8987;1.1629;
650.4000;0.9003;1.1750;
650.7000;0.8962;1.1750;
651.0000;0.8954;1.1846;
651.3000;0.8962;1.1870;
651.6000;0.8970;1.1919;
651.9000;0.8946;1.1895;
652.2000;0.8930;1.1943;
652.5000;0.8864;1.1870;
652.8000;0.8995;1.2112;
653.1000;0.8962;1.1967;
653.4000;0.8954;1.2064;
653.7000;0.8921;1.1991;
654.0000;0.8897;1.2015;
654.3000;0.8897;1.2015;
654.6000;0.8897;1.2040;
654.9000;0.8889;1.1943;
655.2000;0.8873;1.1846;
655.5000;0.8881;1.1846;
655.8000;0.8873;1.1943;
656.1000;0.8987;1.2233;
656.4000;0.8840;1.1870;
656.7000;0.8864;1.1943;
657.0000;0.8848;1.1919;
657.3000;0.8856;1.2040;
657.6000;0.8840;1.2015;
657.9000;0.8832;1.2088;
658.2000;0.8775;1.1943;
658.5000;0.8881;1.2233;
658.8000;0.8832;1.2185;
659.1000;0.8791;1.2088;
659.4000;0.8807;1.2112;
659.7000;0.8840;1.2185;
660.0000;0.8799;1.2161;
660.3000;0.8807;1.2233;
660.6000;0.8807;1.2185;
660.9000;0.8799;1.1991;
661.2000;0.8807;1.2015;
661.5000;0.8799;1.2088;
661.8000;0.8775;1.2112;
662.1000;0.8775;1.2161;
662.4000;0.8783;1.2185;
662.7000;0.8742;1.2064;
663.0000;0.8767;1.2064;
663.3000;0.8775;1.2088;
663.6000;0.8742;1.2015;
663.9000;0.8751;1.1919;
664.2000;0.8759;1.1967;
664.5000;0.8775;1.2015;
664.8000;0.8710;1.1870;
665.1000;0.8710;1.1967;
665.4000;0.8726;1.2040;
665.7000;0.8718;1.2136;
666.0000;0.8718;1.2209;
666.3000;0.8718;1.2257;
666.6000;0.8710;1.2330;
666.9000;0.8677;1.2257;
667.2000;0.8702;1.2330;
667.5000;0.8694;1.2330;
667.8000;0.8694;1.2402;
668.1000;0.8669;1.2354;
668.4000;0.8685;1.2402;
668.7000;0.8661;1.2306;
669.0000;0.8694;1.2233;
669.3000;0.8661;1.2257;
669.6000;0.8661;1.2185;
669.9000;0.8645;1.2185;
670.2000;0.8620;1.2064;
670.5000;0.8612;1.2088;
670.8000;0.8645;1.2233;
671.1000;0.8571;1.2088;
671.4000;0.8628;1.2233;
671.7000;0.8645;1.2233;
672.0000;0.8653;1.2330;
672.3000;0.8588;1.2136;
672.6000;0.8596;1.2281;
672.9000;0.8588;1.2233;
673.2000;0.8539;1.2161;
673.5000;0.8612;1.2281;
673.8000;0.8628;1.2306;
674.1000;0.8628;1.2354;
674.4000;0.8596;1.2306;
674.7000;0.8653;1.2354;
675.0000;0.8604;1.2257;
675.3000;0.8612;1.2257;
675.6000;0.8628;1.2330;
675.9000;0.8588;1.2257;
676.2000;0.8563;1.2088;
676.5000;0.8514;1.1967;
676.8000;0.8563;1.2088;
677.1000;0.8547;1.2136;
677.4000;0.8580;1.2306;
677.7000;0.8628;1.2402;
678.0000;0.8563;1.2306;
678.3000;0.8539;1.2330;
678.6000;0.8547;1.2257;
678.9000;0.8555;1.2378;
679.2000;0.8555;1.2306;
679.5000;0.8539;1.2330;
679.8000;0.8547;1.2402;
680.1000;0.8539;1.2354;
680.4000;0.8547;1.2402;
680.7000;0.8514;1.2306;
681.0000;0.8523;1.2330;
681.3000;0.8523;1.2330;
681.6000;0.8498;1.2233;
681.9000;0.8506;1.2233;
682.2000;0.8490;1.2306;
682.5000;0.8498;1.2257;
682.8000;0.8498;1.2136;
683.1000;0.8474;1.2185;
683.4000;0.8482;1.2088;
683.7000;0.8498;1.2064;
684.0000;0.8457;1.1967;
684.3000;0.8392;1.1725;
684.6000;0.8474;1.1919;
684.9000;0.8449;1.1822;
685.2000;0.8449;1.1895;
685.5000;0.8466;1.1895;
685.8000;0.8400;1.1750;
686.1000;0.8466;1.2040;
686.4000;0.8433;1.1991;
686.7000;0.8441;1.1991;
687.0000;0.8457;1.1991;
687.3000;0.8449;1.2040;
687.6000;0.8441;1.2040;
687.9000;0.8449;1.2064;
688.2000;0.8457;1.2112;
688.5000;0.8425;1.2112;
688.8000;0.8441;1.2136;
689.1000;0.8449;1.2185;
689.4000;0.8400;1.2040;
689.7000;0.8400;1.2040;
690.0000;0.8392;1.2112;
690.3000;0.8392;1.2064;
690.6000;0.8368;1.1967;
690.9000;0.8400;1.2136;
691.2000;0.8392;1.2233;
691.5000;0.8400;1.2257;
691.8000;0.8376;1.2136;
692.1000;0.8376;1.2161;
692.4000;0.8384;1.2209;
692.7000;0.8392;1.2233;
693.0000;0.8392;1.2209;
693.3000;0.8376;1.2281;
693.6000;0.8384;1.2257;
693.9000;0.8384;1.2257;
694.2000;0.8303;1.2015;
694.5000;0.8352;1.2209;
694.8000;0.8360;1.2257;
695.1000;0.8392;1.2426;
695.4000;0.8335;1.2330;
695.7000;0.8425;1.2572;
696.0000;0.8335;1.2306;
696.3000;0.8303;1.2185;
696.6000;0.8360;1.2402;
696.9000;0.8368;1.2330;
697.2000;0.8360;1.2281;
697.5000;0.8344;1.2257;
697.8000;0.8344;1.2233;
698.1000;0.8344;1.2233;
698.4000;0.8352;1.2209;
698.7000;0.8344;1.2112;
699.0000;0.8335;1.2112;
699.3000;0.8335;1.2088;
699.6000;0.8303;1.2112;
699.9000;0.8319;1.2088;
700.2000;0.8238;1.1846;
700.5000;0.8327;1.2064;
700.8000;0.8327;1.2088;
701.1000;0.8287;1.2112;
701.4000;0.8311;1.2185;
701.7000;0.8295;1.2185;
702.0000;0.8303;1.2136;
702.3000;0.8287;1.2015;
702.6000;0.8278;1.1943;
702.9000;0.8278;1.1870;
703.2000;0.8287;1.1967;
703.5000;0.8278;1.2040;
703.8000;0.8278;1.2015;
704.1000;0.8270;1.1991;
704.4000;0.8262;1.1967;
704.7000;0.8262;1.2015;
705.0000;0.8254;1.2064;
705.3000;0.8303;1.2136;
705.6000;0.8254;1.2040;
705.9000;0.8270;1.2112;
706.2000;0.8246;1.2064;
706.5000;0.8221;1.1991;
706.8000;0.8278;1.2136;
707.1000;0.8254;1.2088;
707.4000;0.8197;1.1943;
707.7000;0.8254;1.2040;
708.0000;0.8246;1.1991;
708.3000;0.8230;1.1943;
708.6000;0.8254;1.2040;
708.9000;0.8238;1.2015;
709.2000;0.8254;1.2064;
709.5000;0.8238;1.2136;
709.8000;0.8230;1.2185;
710.1000;0.8246;1.2209;
710.4000;0.8238;1.2088;
710.7000;0.8213;1.2040;
711.0000;0.8181;1.2064;
711.3000;0.8246;1.2185;
711.6000;0.8230;1.2136;
711.9000;0.8230;1.2136;
712.2000;0.8197;1.2112;
712.5000;0.8197;1.2161;
712.8000;0.8164;1.2040;
713.1000;0.8221;1.2112;
713.4000;0.8205;1.2136;
713.7000;0.8205;1.2136;
714.0000;0.8197;1.2233;
714.3000;0.8213;1.2257;
714.6000;0.8238;1.2306;
714.9000;0.8189;1.2185;
715.2000;0.8238;1.2306;
715.5000;0.8124;1.2040;
715.8000;0.8116;1.2015;
716.1000;0.8189;1.2209;
716.4000;0.8181;1.2233;
716.7000;0.8173;1.2281;
717.0000;0.8181;1.2281;
717.3000;0.8173;1.2161;
717.6000;0.8164;1.2112;
717.9000;0.8189;1.2088;
718.2000;0.8205;1.2185;
718.5000;0.8164;1.2064;
718.8000;0.8164;1.2040;
719.1000;0.8189;1.2088;
719.4000;0.8181;1.2136;
719.7000;0.8173;1.2088;
720.0000;0.8173;1.1991;
720.3000;0.8132;1.1943;
720.6000;0.8148;1.2040;
720.9000;0.8156;1.2015;
721.2000;0.8156;1.1943;
721.5000;0.8140;1.1895;
721.8000;0.8148;1.1943;
722.1000;0.8140;1.1943;
722.4000;0.8075;1.1870;
722.7000;0.8132;1.1991;
723.0000;0.8148;1.2015;
723.3000;0.8140;1.1991;
723.6000;0.8148;1.1943;
723.9000;0.8156;1.1991;
724.2000;0.8132;1.2015;
724.5000;0.8148;1.2088;
724.8000;0.8140;1.2064;
725.1000;0.8124;1.2064;
725.4000;0.8132;1.2112;
725.7000;0.8075;1.1919;
726.0000;0.8132;1.2015;
726.3000;0.8099;1.2088;
726.6000;0.8107;1.2209;
726.9000;0.8059;1.2112;
727.2000;0.8124;1.2257;
727.5000;0.8099;1.2257;
727.8000;0.8091;1.2233;
728.1000;0.8107;1.2209;
728.4000;0.8124;1.2185;
728.7000;0.8107;1.2064;
729.0000;0.8107;1.2064;
729.3000;0.8164;1.2257;
729.6000;0.8107;1.2209;
729.9000;0.8091;1.2136;
730.2000;0.8083;1.2185;
730.5000;0.8018;1.2015;
730.8000;0.8099;1.2209;
731.1000;0.8091;1.2185;
731.4000;0.8107;1.2209;
731.7000;0.8091;1.2112;
732.0000;0.8075;1.2112;
732.3000;0.8083;1.2136;
732.6000;0.8091;1.2209;
732.9000;0.8116;1.2281;
733.2000;0.8067;1.2233;
733.5000;0.8083;1.2306;
733.8000;0.8034;1.2112;
734.1000;0.8075;1.2161;
734.4000;0.8083;1.2112;
734.7000;0.8075;1.2015;
735.0000;0.8067;1.1967;
735.3000;0.8075;1.1967;
735.6000;0.8083;1.1943;
735.9000;0.8083;1.1822;
736.2000;0.8067;1.1870;
736.5000;0.8067;1.1822;
736.8000;0.8002;1.1653;
737.1000;0.8083;1.1895;
737.4000;0.8067;1.1846;
737.7000;0.8018;1.1750;
738.0000;0.8050;1.1895;
738.3000;0.8018;1.1798;
738.6000;0.8067;1.1822;
738.9000;0.8026;1.1725;
739.2000;0.8010;1.1774;
739.5000;0.8018;1.1870;
739.8000;0.8042;1.1895;
740.1000;0.8059;1.1895;
740.4000;0.8002;1.1822;
740.7000;0.8034;1.1895;
741.0000;0.8132;1.2185;
741.3000;0.8026;1.1919;
741.6000;0.8026;1.2064;
741.9000;0.8018;1.2015;
742.2000;0.8034;1.2064;
742.5000;0.8034;1.2088;
742.8000;0.8042;1.2136;
743.1000;0.8010;1.2064;
743.4000;0.8026;1.2161;
743.7000;0.8034;1.2209;
744.0000;0.8034;1.2257;
744.3000;0.8018;1.2185;
744.6000;0.8010;1.2209;
744.9000;0.8018;1.2306;
745.2000;0.7977;1.2257;
745.5000;0.8010;1.2378;
745.8000;0.8010;1.2354;
746.1000;0.8010;1.2354;
746.4000;0.8010;1.2330;
746.7000;0.7993;1.2281;
747.0000;0.8018;1.2281;
747.3000;0.7961;1.2161;
747.6000;0.8010;1.2281;
747.9000;0.7993;1.2257;
748.2000;0.8002;1.2257;
748.5000;0.7993;1.2185;
748.8000;0.8026;1.2161;
749.1000;0.7993;1.2185;
749.4000;0.7993;1.2136;
749.7000;0.7993;1.2161;
750.0000;0.7985;1.2209;
750.3000;0.7977;1.2209;
750.6000;0.7985;1.2209;
750.9000;0.7993;1.2257;
751.2000;0.8002;1.2257;
751.5000;0.7969;1.2185;
751.8000;0.7993;1.2161;
752.1000;0.7985;1.2064;
752.4000;0.7993;1.2136;
752.7000;0.8002;1.2015;
753.0000;0.7985;1.1991;
753.3000;0.7953;1.1943;
753.6000;0.7969;1.2088;
753.9000;0.7985;1.2161;
754.2000;0.7977;1.2161;
754.5000;0.7969;1.2161;
754.8000;0.7945;1.2136;
755.1000;0.7985;1.2233;
755.4000;0.7985;1.2233;
755.7000;0.7969;1.2257;
756.0000;0.7961;1.2209;
756.3000;0.7985;1.2281;
756.6000;0.7961;1.2112;
756.9000;0.7961;1.2040;
757.2000;0.7961;1.2112;
757.5000;0.7961;1.2185;
757.8000;0.7985;1.2306;
758.1000;0.7953;1.2233;
758.4000;0.7945;1.2281;
758.7000;0.7945;1.2330;
759.0000;0.7977;1.2378;
759.3000;0.7945;1.2233;
759.6000;0.7953;1.2209;
759.9000;0.7904;1.2040;
760.2000;0.7945;1.2136;
760.5000;0.7953;1.2209;
760.8000;0.7863;1.2040;
761.1000;0.7945;1.2233;
761.4000;0.8002;1.2426;
761.7000;0.8050;1.2620;
762.0000;0.7945;1.2378;
762.3000;0.7969;1.2426;
762.6000;0.7953;1.2475;
762.9000;0.7969;1.2451;
763.2000;0.7945;1.2306;
763.5000;0.7928;1.2161;
763.8000;0.7953;1.2233;
764.1000;0.7961;1.2161;
764.4000;0.7945;1.2112;
764.7000;0.7969;1.2185;
765.0000;0.7937;1.2064;
765.3000;0.7920;1.2040;
765.6000;0.7961;1.2136;
765.9000;0.7928;1.2015;
766.2000;0.7985;1.2209;
766.5000;0.7928;1.2112;
766.8000;0.7920;1.2064;
767.1000;0.7928;1.2064;
767.4000;0.7945;1.2112;
767.7000;0.7912;1.2088;
768.0000;0.7945;1.2112;
768.3000;0.7937;1.2209;
768.6000;0.7888;1.2209;
768.9000;0.7928;1.2378;
769.2000;0.7896;1.2354;
769.5000;0.7928;1.2523;
769.8000;0.7920;1.2451;
770.1000;0.7896;1.2402;
770.4000;0.7928;1.2499;
770.7000;0.7920;1.2451;
771.0000;0.7896;1.2475;
771.3000;0.7880;1.2426;
771.6000;0.7904;1.2547;
771.9000;0.7920;1.2475;
772.2000;0.7904;1.2426;
772.5000;0.7896;1.2402;
772.8000;0.7904;1.2378;
773.1000;0.7847;1.2281;
773.4000;0.7937;1.2475;
773.7000;0.7896;1.2378;
774.0000;0.7912;1.2426;
774.3000;0.7937;1.2402;
774.6000;0.7928;1.2330;
774.9000;0.7880;1.2306;
775.2000;0.7888;1.2257;
775.5000;0.7920;1.2306;
775.8000;0.7912;1.2257;
776.1000;0.7920;1.2378;
776.4000;0.7896;1.2426;
776.7000;0.7847;1.2209;
777.0000;0.7888;1.2354;
777.3000;0.7888;1.2281;
777.6000;0.7847;1.2185;
777.9000;0.8002;1.2620;
778.2000;0.7912;1.2475;
778.5000;0.7863;1.2306;
778.8000;0.7880;1.2281;
779.1000;0.7896;1.2354;
779.4000;0.7871;1.2330;
779.7000;0.7814;1.2209;
780.0000;0.7896;1.2426;
780.3000;0.7896;1.2426;
780.6000;0.7880;1.2378;
780.9000;0.7863;1.2330;
781.2000;0.7871;1.2233;
781.5000;0.7888;1.2281;
781.8000;0.7896;1.2257;
782.1000;0.7823;1.2161;
782.4000;0.7871;1.2233;
782.7000;0.7806;1.2088;
783.0000;0.7863;1.2233;
783.3000;0.7863;1.2233;
783.6000;0.7839;1.2185;
783.9000;0.7839;1.2185;
784.2000;0.7880;1.2306;
784.5000;0.7831;1.2136;
784.8000;0.7912;1.2306;
785.1000;0.7880;1.2233;
785.4000;0.7863;1.2185;
785.7000;0.7871;1.2136;
786.0000;0.7904;1.2161;
786.3000;0.7880;1.2161;
786.6000;0.7937;1.2281;
786.9000;0.7880;1.2088;
787.2000;0.7855;1.2015;
787.5000;0.7790;1.1919;
787.8000;0.7863;1.2233;
788.1000;0.7880;1.2281;
788.4000;0.7888;1.2306;
788.7000;0.7847;1.2209;
789.0000;0.7847;1.2233;
789.3000;0.7937;1.2475;
789.6000;0.7847;1.2257;
789.9000;0.7863;1.2281;
790.2000;0.7888;1.2402;
790.5000;0.7871;1.2354;
790.8000;0.7863;1.2257;
791.1000;0.7871;1.2354;
791.4000;0.7831;1.2306;
791.7000;0.7863;1.2330;
792.0000;0.7855;1.2257;
792.3000;0.7839;1.2306;
792.6000;0.7839;1.2354;
792.9000;0.7855;1.2354;
793.2000;0.7839;1.2330;
793.5000;0.7847;1.2426;
793.8000;0.7823;1.2354;
794.1000;0.7806;1.2281;
794.4000;0.7839;1.2354;
794.7000;0.7863;1.2354;
795.0000;0.7855;1.2281;
795.3000;0.7847;1.2354;
795.6000;0.7847;1.2402;
795.9000;0.7855;1.2402;
796.2000;0.7855;1.2378;
796.5000;0.7847;1.2330;
796.8000;0.7847;1.2306;
797.1000;0.7839;1.2306;
797.4000;0.7823;1.2233;
797.7000;0.7814;1.2209;
798.0000;0.7847;1.2209;
798.3000;0.7814;1.2161;
798.6000;0.7904;1.2426;
798.9000;0.7814;1.2281;
799.2000;0.7790;1.2233;
799.5000;0.7831;1.2233;
799.8000;0.7831;1.2257;
800.1000;0.7814;1.2209;
800.4000;0.7798;1.2354;
800.7000;0.7831;1.2451;
801.0000;0.7806;1.2475;
801.3000;0.7831;1.2547;
801.6000;0.7831;1.2499;
801.9000;0.7782;1.2330;
802.2000;0.7823;1.2354;
802.5000;0.7814;1.2306;
802.8000;0.7831;1.2330;
803.1000;0.7814;1.2330;
803.4000;0.7814;1.2475;
803.7000;0.7806;1.2499;
804.0000;0.7847;1.2547;
804.3000;0.7823;1.2499;
804.6000;0.7798;1.2475;
804.9000;0.7790;1.2378;
805.2000;0.7806;1.2330;
805.5000;0.7823;1.2354;
805.8000;0.7855;1.2378;
806.1000;0.7855;1.2451;
806.4000;0.7814;1.2330;
806.7000;0.7806;1.2257;
807.0000;0.7814;1.2281;
807.3000;0.7766;1.2233;
807.6000;0.7782;1.2257;
807.9000;0.7790;1.2185;
808.2000;0.7774;1.2209;
808.5000;0.7741;1.2161;
808.8000;0.7798;1.2354;
809.1000;0.7790;1.2354;
809.4000;0.7814;1.2402;
809.7000;0.7806;1.2402;
810.0000;0.7790;1.2330;
810.3000;0.7831;1.2378;
810.6000;0.7798;1.2281;
810.9000;0.7798;1.2281;
811.2000;0.7806;1.2330;
811.5000;0.7798;1.2281;
811.8000;0.7790;1.2281;
812.1000;0.7831;1.2451;
812.4000;0.7782;1.2378;
812.7000;0.7806;1.2257;
813.0000;0.7774;1.2257;
813.3000;0.7790;1.2233;
813.6000;0.7774;1.2209;
813.9000;0.7806;1.2281;
814.2000;0.7871;1.2378;
814.5000;0.7782;1.2088;
814.8000;0.7798;1.2088;
815.1000;0.7839;1.2136;
815.4000;0.7831;1.2136;
815.7000;0.7798;1.2015;
816.0000;0.7782;1.2064;
816.3000;0.7806;1.2136;
816.6000;0.7790;1.2161;
816.9000;0.7798;1.2136;
817.2000;0.7790;1.2136;
817.5000;0.7790;1.2161;
817.8000;0.7782;1.2088;
818.1000;0.7806;1.2185;
818.4000;0.7774;1.2088;
818.7000;0.7806;1.2161;
819.0000;0.7790;1.2112;
819.3000;0.7814;1.2209;
819.6000;0.7782;1.2209;
819.9000;0.7806;1.2306;
820.2000;0.7790;1.2281;
820.5000;0.7806;1.2378;
820.8000;0.7790;1.2426;
821.1000;0.7782;1.2426;
821.4000;0.7839;1.2596;
821.7000;0.7790;1.2426;
822.0000;0.7790;1.2330;
822.3000;0.7782;1.2330;
822.6000;0.7790;1.2330;
822.9000;0.7774;1.2402;
823.2000;0.7766;1.2402;
823.5000;0.7774;1.2281;
823.8000;0.7757;1.2233;
824.1000;0.7766;1.2281;
824.4000;0.7774;1.2306;
824.7000;0.7798;1.2330;
825.0000;0.7798;1.2402;
825.3000;0.7782;1.2402;
825.6000;0.7766;1.2354;
825.9000;0.7766;1.2402;
826.2000;0.7757;1.2281;
826.5000;0.7757;1.2257;
826.8000;0.7766;1.2185;
827.1000;0.7757;1.2209;
827.4000;0.7725;1.2185;
827.7000;0.7725;1.2209;
828.0000;0.7774;1.2330;
828.3000;0.7782;1.2306;
828.6000;0.7766;1.2281;
828.9000;0.7766;1.2281;
829.2000;0.7774;1.2330;
829.5000;0.7766;1.2306;
829.8000;0.7741;1.2281;
830.1000;0.7782;1.2426;
830.4000;0.7774;1.2402;
830.7000;0.7766;1.2451;
831.0000;0.7757;1.2451;
831.3000;0.7766;1.2402;
831.6000;0.7790;1.2378;
831.9000;0.7741;1.2306;
832.2000;0.7741;1.2185;
832.5000;0.7741;1.2233;
832.8000;0.7766;1.2209;
833.1000;0.7741;1.2136;
833.4000;0.7733;1.2161;
833.7000;0.7733;1.2088;
834.0000;0.7741;1.2136;
834.3000;0.7749;1.2136;
834.6000;0.7741;1.2088;
834.9000;0.7733;1.2088;
835.2000;0.7757;1.2136;
835.5000;0.7749;1.2088;
835.8000;0.7733;1.2185;
836.1000;0.7733;1.2233;
836.4000;0.7733;1.2306;
836.7000;0.7741;1.2281;
837.0000;0.7749;1.2378;
837.3000;0.7757;1.2402;
837.6000;0.7749;1.2451;
837.9000;0.7749;1.2475;
838.2000;0.7749;1.2426;
838.5000;0.7733;1.2378;
838.8000;0.7733;1.2281;
839.1000;0.7749;1.2330;
839.4000;0.7692;1.2257;
839.7000;0.7725;1.2257;
840.0000;0.7733;1.2306;
840.3000;0.7717;1.2306;
840.6000;0.7733;1.2354;
840.9000;0.7741;1.2378;
841.2000;0.7741;1.2402;
841.5000;0.7749;1.2378;
841.8000;0.7757;1.2378;
842.1000;0.7766;1.2475;
842.4000;0.7741;1.2475;
842.7000;0.7725;1.2451;
843.0000;0.7717;1.2402;
843.3000;0.7839;1.2644;
843.6000;0.7733;1.2378;
843.9000;0.7798;1.2620;
844.2000;0.7733;1.2499;
844.5000;0.7814;1.2741;
844.8000;0.7741;1.2475;
845.1000;0.7741;1.2451;
845.4000;0.7717;1.2475;
845.7000;0.7741;1.2475;
846.0000;0.7757;1.2475;
846.3000;0.7798;1.2596;
846.6000;0.7717;1.2257;
846.9000;0.7733;1.2330;
847.2000;0.7733;1.2402;
847.5000;0.7741;1.2378;
847.8000;0.7692;1.2209;
848.1000;0.7733;1.2306;
848.4000;0.7700;1.2209;
848.7000;0.7725;1.2233;
849.0000;0.7709;1.2281;
849.3000;0.7692;1.2306;
849.6000;0.7725;1.2378;
849.9000;0.7733;1.2354;
850.2000;0.7749;1.2475;
850.5000;0.7733;1.2499;
850.8000;0.7741;1.2499;
851.1000;0.7733;1.2547;
851.4000;0.7798;1.2620;
851.7000;0.7725;1.2475;
852.0000;0.7725;1.2523;
852.3000;0.7741;1.2547;
852.6000;0.7733;1.2620;
852.9000;0.7717;1.2547;
853.2000;0.7814;1.2813;
853.5000;0.7733;1.2644;
853.8000;0.7692;1.2499;
854.1000;0.7709;1.2499;
854.4000;0.7733;1.2547;
854.7000;0.7676;1.2354;
855.0000;0.7717;1.2451;
855.3000;0.7733;1.2475;
855.6000;0.7733;1.2451;
855.9000;0.7733;1.2475;
856.2000;0.7725;1.2499;
856.5000;0.7733;1.2572;
856.8000;0.7709;1.2547;
857.1000;0.7733;1.2620;
857.4000;0.7733;1.2547;
857.7000;0.7709;1.2451;
858.0000;0.7717;1.2426;
858.3000;0.7757;1.2499;
858.6000;0.7709;1.2426;
858.9000;0.7700;1.2354;
859.2000;0.7733;1.2426;
859.5000;0.7733;1.2426;
859.8000;0.7717;1.2378;
860.1000;0.7717;1.2354;
860.4000;0.7668;1.2257;
860.7000;0.7717;1.2451;
861.0000;0.7725;1.2426;
861.3000;0.7692;1.2354;
861.6000;0.7733;1.2402;
861.9000;0.7692;1.2306;
862.2000;0.7725;1.2330;
862.5000;0.7733;1.2378;
862.8000;0.7733;1.2426;
863.1000;0.7700;1.2402;
863.4000;0.7709;1.2402;
863.7000;0.7709;1.2475;
864.0000;0.7700;1.2451;
864.3000;0.7709;1.2402;
864.6000;0.7709;1.2330;
864.9000;0.7717;1.2402;
865.2000;0.7717;1.2354;
865.5000;0.7692;1.2306;
865.8000;0.7717;1.2281;
866.1000;0.7709;1.2233;
866.4000;0.7676;1.2185;
866.7000;0.7627;1.2088;
867.0000;0.7709;1.2330;
867.3000;0.7709;1.2354;
867.6000;0.7733;1.2354;
867.9000;0.7692;1.2233;
868.2000;0.7709;1.2354;
868.5000;0.7749;1.2451;
868.8000;0.7798;1.2596;
869.1000;0.7717;1.2499;
869.4000;0.7668;1.2378;
869.7000;0.7643;1.2306;
870.0000;0.7741;1.2596;
870.3000;0.7717;1.2523;
870.6000;0.7692;1.2499;
870.9000;0.7709;1.2547;
871.2000;0.7709;1.2547;
871.5000;0.7635;1.2354;
871.8000;0.7717;1.2378;
872.1000;0.7717;1.2426;
872.4000;0.7709;1.2475;
872.7000;0.7700;1.2572;
873.0000;0.7709;1.2547;
873.3000;0.7684;1.2523;
873.6000;0.7700;1.2572;
873.9000;0.7684;1.2596;
874.2000;0.7692;1.2620;
874.5000;0.7692;1.2523;
874.8000;0.7709;1.2547;
875.1000;0.7725;1.2475;
875.4000;0.7660;1.2354;
875.7000;0.7660;1.2257;
876.0000;0.7700;1.2378;
876.3000;0.7692;1.2402;
876.6000;0.7676;1.2354;
876.9000;0.7692;1.2402;
877.2000;0.7668;1.2378;
877.5000;0.7733;1.2547;
877.8000;0.7692;1.2451;
878.1000;0.7676;1.2475;
878.4000;0.7709;1.2596;
878.7000;0.7668;1.2475;
879.0000;0.7676;1.2475;
879.3000;0.7725;1.2499;
879.6000;0.7611;1.2209;
879.9000;0.7676;1.2281;
880.2000;0.7725;1.2354;
880.5000;0.7684;1.2330;
880.8000;0.7700;1.2426;
881.1000;0.7684;1.2402;
881.4000;0.7692;1.2354;
881.7000;0.7692;1.2281;
882.0000;0.7692;1.2281;
882.3000;0.7668;1.2402;
882.6000;0.7692;1.2499;
882.9000;0.7709;1.2547;
883.2000;0.7692;1.2426;
883.5000;0.7692;1.2354;
883.8000;0.7709;1.2402;
884.1000;0.7595;1.2209;
884.4000;0.7676;1.2402;
884.7000;0.7668;1.2426;
885.0000;0.7676;1.2547;
885.3000;0.7700;1.2620;
885.6000;0.7700;1.2620;
885.9000;0.7684;1.2426;
886.2000;0.7684;1.2451;
886.5000;0.7692;1.2523;
886.8000;0.7717;1.2596;
887.1000;0.7668;1.2475;
887.4000;0.7684;1.2475;
887.7000;0.7676;1.2451;
888.0000;0.7611;1.2306;
888.3000;0.7652;1.2402;
888.6000;0.7676;1.2402;
888.9000;0.7684;1.2354;
889.2000;0.7668;1.2378;
889.5000;0.7660;1.2402;
889.8000;0.7668;1.2523;
890.1000;0.7676;1.2475;
890.4000;0.7643;1.2475;
890.7000;0.7652;1.2499;
891.0000;0.7652;1.2451;
891.3000;0.7676;1.2499;
891.6000;0.7692;1.2547;
891.9000;0.7668;1.2426;
892.2000;0.7684;1.2378;
892.5000;0.7635;1.2257;
892.8000;0.7668;1.2354;
893.1000;0.7668;1.2306;
893.4000;0.7660;1.2281;
893.7000;0.7676;1.2354;
894.0000;0.7700;1.2426;
894.3000;0.7668;1.2378;
894.6000;0.7676;1.2354;
894.9000;0.7643;1.2257;
895.2000;0.7676;1.2281;
895.5000;0.7619;1.2209;
895.8000;0.7668;1.2330;
896.1000;0.7668;1.2354;
896.4000;0.7668;1.2354;
896.7000;0.7684;1.2378;
897.0000;0.7595;1.2112;
897.3000;0.7684;1.2330;
897.6000;0.7668;1.2257;
897.9000;0.7676;1.2330;
898.2000;0.7684;1.2354;
898.5000;0.7652;1.2257;
898.8000;0.7676;1.2306;
899.1000;0.7660;1.2257;
899.4000;0.7668;1.2209;
899.7000;0.7668;1.2161;
900.0000;0.7676;1.2185;
900.3000;0.7668;1.2233;
900.6000;0.7652;1.2257;
900.9000;0.7538;1.1919;
901.2000;0.7652;1.2161;
901.5000;0.7619;1.2161;
901.8000;0.7668;1.2354;
902.1000;0.7635;1.2281;
902.4000;0.7676;1.2281;
902.7000;0.7652;1.2257;
903.0000;0.7635;1.2281;
903.3000;0.7668;1.2233;
903.6000;0.7619;1.2040;
903.9000;0.7652;1.2209;
904.2000;0.7692;1.2426;
904.5000;0.7676;1.2451;
904.8000;0.7643;1.2402;
905.1000;0.7684;1.2426;
905.4000;0.7660;1.2354;
905.7000;0.7652;1.2402;
906.0000;0.7660;1.2426;
906.3000;0.7660;1.2402;
906.6000;0.7660;1.2402;
906.9000;0.7619;1.2257;
907.2000;0.7635;1.2257;
907.5000;0.7627;1.2185;
907.8000;0.7619;1.2112;
908.1000;0.7676;1.2209;
908.4000;0.7652;1.2064;
908.7000;0.7668;1.2112;
909.0000;0.7668;1.2088;
909.3000;0.7668;1.2088;
909.6000;0.7643;1.2136;
909.9000;0.7660;1.2257;
910.2000;0.7643;1.2257;
910.5000;0.7660;1.2281;
910.8000;0.7643;1.2306;
911.1000;0.7635;1.2426;
911.4000;0.7643;1.2426;
911.7000;0.7684;1.2499;
912.0000;0.7652;1.2402;
912.3000;0.7668;1.2402;
912.6000;0.7635;1.2281;
912.9000;0.7652;1.2354;
913.2000;0.7652;1.2426;
913.5000;0.7652;1.2451;
913.8000;0.7652;1.2451;
914.1000;0.7643;1.2451;
914.4000;0.7635;1.2475;
914.7000;0.7643;1.2402;
915.0000;0.7676;1.2499;
915.3000;0.7635;1.2426;
915.6000;0.7660;1.2451;
915.9000;0.7668;1.2378;
916.2000;0.7643;1.2330;
916.5000;0.7603;1.2281;
916.8000;0.7660;1.2523;
917.1000;0.7652;1.2451;
917.4000;0.7635;1.2354;
917.7000;0.7652;1.2426;
918.0000;0.7635;1.2378;
918.3000;0.7652;1.2378;
918.6000;0.7627;1.2402;
918.9000;0.7635;1.2451;
919.2000;0.7643;1.2499;
919.5000;0.7668;1.2426;
919.8000;0.7660;1.2281;
920.1000;0.7627;1.2209;
920.4000;0.7660;1.2209;
920.7000;0.7627;1.2185;
921.0000;0.7619;1.2161;
921.3000;0.7660;1.2257;
921.6000;0.7603;1.2209;
921.9000;0.7676;1.2306;
922.2000;0.7660;1.2161;
922.5000;0.7709;1.2330;
922.8000;0.7652;1.2233;
923.1000;0.7635;1.2136;
923.4000;0.7660;1.2161;
923.7000;0.7652;1.2136;
924.0000;0.7578;1.2015;
924.3000;0.7652;1.2402;
924.6000;0.7611;1.2378;
924.9000;0.7652;1.2426;
925.2000;0.7611;1.2306;
925.5000;0.7643;1.2378;
925.8000;0.7700;1.2426;
926.1000;0.7627;1.2281;
926.4000;0.7627;1.2257;
926.7000;0.7635;1.2257;
927.0000;0.7627;1.2330;
927.3000;0.7635;1.2330;
927.6000;0.7635;1.2354;
927.9000;0.7635;1.2354;
928.2000;0.7635;1.2378;
928.5000;0.7643;1.2451;
928.8000;0.7635;1.2354;
929.1000;0.7635;1.2281;
929.4000;0.7643;1.2257;
929.7000;0.7635;1.2257;
930.0000;0.7676;1.2475;
930.3000;0.7676;1.2547;
930.6000;0.7635;1.2426;
930.9000;0.7643;1.2475;
931.2000;0.7595;1.2306;
931.5000;0.7668;1.2475;
931.8000;0.7627;1.2475;
932.1000;0.7611;1.2354;
932.4000;0.7619;1.2378;
932.7000;0.7627;1.2402;
933.0000;0.7619;1.2330;
933.3000;0.7660;1.2330;
933.6000;0.7652;1.2378;
933.9000;0.7627;1.2378;
934.2000;0.7635;1.2426;
934.5000;0.7635;1.2547;
934.8000;0.7627;1.2596;
935.1000;0.7643;1.2644;
935.4000;0.7603;1.2547;
935.7000;0.7611;1.2572;
936.0000;0.7652;1.2644;
936.3000;0.7619;1.2499;
936.6000;0.7635;1.2572;
936.9000;0.7635;1.2499;
937.2000;0.7652;1.2547;
937.5000;0.7627;1.2426;
937.8000;0.7627;1.2451;
938.1000;0.7643;1.2499;
938.4000;0.7717;1.2717;
938.7000;0.7635;1.2499;
939.0000;0.7611;1.2426;
939.3000;0.7595;1.2378;
939.6000;0.7619;1.2378;
939.9000;0.7627;1.2378;
940.2000;0.7627;1.2451;
940.5000;0.7538;1.2378;
940.8000;0.7627;1.2692;
941.1000;0.7627;1.2644;
941.4000;0.7627;1.2644;
941.7000;0.7643;1.2644;
942.0000;0.7619;1.2620;
942.3000;0.7627;1.2692;
942.6000;0.7643;1.2789;
942.9000;0.7627;1.2668;
943.2000;0.7652;1.2765;
943.5000;0.7643;1.2741;
943.8000;0.7643;1.2644;
944.1000;0.7627;1.2499;
944.4000;0.7627;1.2426;
944.7000;0.7635;1.2620;
945.0000;0.7619;1.2596;
945.3000;0.7595;1.2547;
945.6000;0.7619;1.2572;
945.9000;0.7619;1.2475;
946.2000;0.7627;1.2523;
946.5000;0.7619;1.2426;
946.8000;0.7627;1.2402;
947.1000;0.7643;1.2475;
947.4000;0.7619;1.2402;
947.7000;0.7676;1.2547;
948.0000;0.7627;1.2499;
948.3000;0.7619;1.2378;
948.6000;0.7619;1.2426;
948.9000;0.7643;1.2499;
949.2000;0.7652;1.2547;
949.5000;0.7619;1.2475;
949.8000;0.7611;1.2426;
950.1000;0.7619;1.2426;
950.4000;0.7635;1.2451;
950.7000;0.7611;1.2523;
951.0000;0.7603;1.2451;
951.3000;0.7603;1.2475;
951.6000;0.7619;1.2547;
951.9000;0.7635;1.2499;
952.2000;0.7643;1.2499;
952.5000;0.7619;1.2426;
952.8000;0.7562;1.2330;
953.1000;0.7668;1.2499;
953.4000;0.7611;1.2378;
953.7000;0.7611;1.2354;
954.0000;0.7652;1.2378;
954.3000;0.7627;1.2330;
954.6000;0.7635;1.2378;
954.9000;0.7619;1.2402;
955.2000;0.7627;1.2523;
955.5000;0.7619;1.2523;
955.8000;0.7619;1.2572;
956.1000;0.7595;1.2523;
956.4000;0.7586;1.2475;
956.7000;0.7619;1.2475;
957.0000;0.7611;1.2426;
957.3000;0.7595;1.2475;
957.6000;0.7619;1.2547;
957.9000;0.7635;1.2620;
958.2000;0.7603;1.2523;
958.5000;0.7668;1.2741;
958.8000;0.7627;1.2668;
959.1000;0.7635;1.2572;
959.4000;0.7619;1.2523;
959.7000;0.7603;1.2402;
960.0000;0.7611;1.2378;
960.3000;0.7611;1.2378;
960.6000;0.7595;1.2354;
960.9000;0.7611;1.2426;
961.2000;0.7611;1.2354;
961.5000;0.7774;1.2717;
961.8000;0.7635;1.2354;
962.1000;0.7546;1.2185;
962.4000;0.7611;1.2426;
962.7000;0.7603;1.2402;
963.0000;0.7619;1.2499;
963.3000;0.7619;1.2378;
963.6000;0.7627;1.2451;
963.9000;0.7595;1.2330;
964.2000;0.7619;1.2426;
964.5000;0.7595;1.2426;
964.8000;0.7595;1.2451;
965.1000;0.7595;1.2475;
965.4000;0.7619;1.2572;
965.7000;0.7619;1.2475;
966.0000;0.7611;1.2426;
966.3000;0.7619;1.2426;
966.6000;0.7627;1.2451;
966.9000;0.7619;1.2426;
967.2000;0.7570;1.2281;
967.5000;0.7603;1.2426;
967.8000;0.7635;1.2572;
968.1000;0.7611;1.2475;
968.4000;0.7611;1.2451;
968.7000;0.7603;1.2523;
969.0000;0.7619;1.2620;
969.3000;0.7603;1.2644;
969.6000;0.7603;1.2572;
969.9000;0.7603;1.2475;
970.2000;0.7586;1.2426;
970.5000;0.7586;1.2426;
970.8000;0.7627;1.2402;
971.1000;0.7635;1.2451;
971.4000;0.7635;1.2499;
971.7000;0.7611;1.2426;
972.0000;0.7619;1.2523;
972.3000;0.7619;1.2475;
972.6000;0.7603;1.2499;
972.9000;0.7611;1.2499;
973.2000;0.7684;1.2620;
973.5000;0.7619;1.2596;
973.8000;0.7595;1.2620;
974.1000;0.7619;1.2668;
974.4000;0.7627;1.2765;
974.7000;0.7611;1.2741;
975.0000;0.7595;1.2668;
975.3000;0.7619;1.2741;
975.6000;0.7611;1.2644;
975.9000;0.7595;1.2620;
976.2000;0.7595;1.2596;
976.5000;0.7586;1.2547;
976.8000;0.7578;1.2499;
977.1000;0.7603;1.2596;
977.4000;0.7603;1.2620;
977.7000;0.7570;1.2523;
978.0000;0.7603;1.2547;
978.3000;0.7611;1.2596;
978.6000;0.7603;1.2572;
978.9000;0.7611;1.2547;
979.2000;0.7595;1.2475;
979.5000;0.7603;1.2475;
979.8000;0.7603;1.2475;
980.1000;0.7603;1.2426;
980.4000;0.7603;1.2451;
980.7000;0.7603;1.2426;
981.0000;0.7603;1.2426;
981.3000;0.7595;1.2378;
981.6000;0.7603;1.2451;
981.9000;0.7668;1.2620;
982.2000;0.7635;1.2475;
982.5000;0.7595;1.2402;
982.8000;0.7611;1.2475;
983.1000;0.7635;1.2596;
983.4000;0.7611;1.2620;
983.7000;0.7619;1.2644;
984.0000;0.7603;1.2523;
984.3000;0.7603;1.2475;
984.6000;0.7611;1.2499;
984.9000;0.7586;1.2426;
985.2000;0.7652;1.2668;
985.5000;0.7611;1.2596;
985.8000;0.7611;1.2572;
986.1000;0.7546;1.2402;
986.4000;0.7586;1.2523;
986.7000;0.7497;1.2330;
987.0000;0.7595;1.2596;
987.3000;0.7595;1.2668;
987.6000;0.7578;1.2572;
987.9000;0.7538;1.2475;
988.2000;0.7586;1.2523;
988.5000;0.7619;1.2668;
988.8000;0.7578;1.2523;
989.1000;0.7595;1.2572;
989.4000;0.7595;1.2523;
989.7000;0.7586;1.2523;
990.0000;0.7505;1.2330;
990.3000;0.7595;1.2523;
990.6000;0.7562;1.2426;
990.9000;0.7570;1.2475;
991.2000;0.7603;1.2547;
991.5000;0.7595;1.2499;
991.8000;0.7586;1.2475;
992.1000;0.7595;1.2547;
992.4000;0.7554;1.2354;
992.7000;0.7619;1.2499;
993.0000;0.7562;1.2402;
993.3000;0.7611;1.2523;
993.6000;0.7578;1.2426;
993.9000;0.7660;1.2741;
994.2000;0.7586;1.2523;
994.5000;0.7521;1.2281;
994.8000;0.7578;1.2523;
995.1000;0.7578;1.2668;
995.4000;0.7586;1.2692;
995.7000;0.7627;1.2789;
996.0000;0.7578;1.2572;
996.3000;0.7586;1.2572;
996.6000;0.7595;1.2596;
996.9000;0.7578;1.2475;
997.2000;0.7643;1.2596;
997.5000;0.7619;1.2499;
997.8000;0.7586;1.2523;
998.1000;0.7578;1.2426;
998.4000;0.7586;1.2572;
998.7000;0.7595;1.2620;
999.0000;0.7586;1.2572;
999.3000;0.7578;1.2451;
999.6000;0.7595;1.2426;
999.9000;0.7595;1.2354;
1000.2000;0.7586;1.2402;
1000.5000;0.7578;1.2402;
1000.8000;0.7595;1.2572;
1001.1000;0.7586;1.2523;
1001.4000;0.7586;1.2402;
1001.7000;0.7595;1.2451;
1002.0000;0.7595;1.2426;
1002.3000;0.7603;1.2499;
1002.6000;0.7603;1.2523;
1002.9000;0.7595;1.2523;
1003.2000;0.7611;1.2572;
1003.5000;0.7603;1.2499;
1003.8000;0.7603;1.2523;
1004.1000;0.7627;1.2644;
1004.4000;0.7595;1.2620;
1004.7000;0.7570;1.2572;
1005.0000;0.7586;1.2620;
1005.3000;0.7603;1.2692;
1005.6000;0.7570;1.2717;
1005.9000;0.7595;1.2741;
1006.2000;0.7595;1.2620;
1006.5000;0.7595;1.2572;
1006.8000;0.7595;1.2547;
1007.1000;0.7570;1.2523;
1007.4000;0.7595;1.2572;
1007.7000;0.7595;1.2644;
1008.0000;0.7570;1.2523;
1008.3000;0.7611;1.2572;
1008.6000;0.7586;1.2499;
1008.9000;0.7595;1.2451;
1009.2000;0.7570;1.2475;
1009.5000;0.7538;1.2354;
1009.8000;0.7586;1.2523;
1010.1000;0.7627;1.2668;
1010.4000;0.7586;1.2572;
1010.7000;0.7611;1.2596;
1011.0000;0.7538;1.2451;
1011.3000;0.7611;1.2596;
1011.6000;0.7570;1.2475;
1011.9000;0.7586;1.2499;
1012.2000;0.7570;1.2499;
1012.5000;0.7570;1.2499;
1012.8000;0.7578;1.2475;
1013.1000;0.7570;1.2523;
1013.4000;0.7595;1.2523;
1013.7000;0.7578;1.2499;
1014.0000;0.7570;1.2547;
1014.3000;0.7586;1.2644;
1014.6000;0.7578;1.2620;
1014.9000;0.7578;1.2596;
1015.2000;0.7578;1.2572;
1015.5000;0.7562;1.2547;
1015.8000;0.7562;1.2475;
1016.1000;0.7562;1.2523;
1016.4000;0.7627;1.2644;
1016.7000;0.7578;1.2475;
1017.0000;0.7578;1.2451;
1017.3000;0.7570;1.2378;
1017.6000;0.7586;1.2475;
1017.9000;0.7562;1.2426;
1018.2000;0.7562;1.2451;
1018.5000;0.7586;1.2572;
1018.8000;0.7554;1.2451;
1019.1000;0.7586;1.2596;
1019.4000;0.7635;1.2644;
1019.7000;0.7473;1.2354;
1020.0000;0.7570;1.2475;
1020.3000;0.7562;1.2378;
1020.6000;0.7554;1.2378;
1020.9000;0.7554;1.2378;
1021.2000;0.7619;1.2523;
1021.5000;0.7578;1.2378;
1021.8000;0.7578;1.2354;
1022.1000;0.7578;1.2330;
1022.4000;0.7554;1.2281;
1022.7000;0.7570;1.2354;
1023.0000;0.7554;1.2426;
1023.3000;0.7578;1.2547;
1023.6000;0.7570;1.2499;
1023.9000;0.7586;1.2596;
1024.2000;0.7595;1.2620;
1024.5000;0.7570;1.2572;
1024.8000;0.7554;1.2572;
1025.1000;0.7562;1.2572;
1025.4000;0.7562;1.2402;
1025.7000;0.7538;1.2378;
1026.0000;0.7570;1.2451;
1026.3000;0.7586;1.2451;
1026.6000;0.7578;1.2402;
1026.9000;0.7586;1.2426;
1027.2000;0.7603;1.2475;
1027.5000;0.7578;1.2499;
1027.8000;0.7586;1.2475;
1028.1000;0.7578;1.2451;
1028.4000;0.7578;1.2451;
1028.7000;0.7578;1.2499;
1029.0000;0.7570;1.2451;
1029.3000;0.7635;1.2572;
1029.6000;0.7570;1.2426;
1029.9000;0.7578;1.2378;
1030.2000;0.7586;1.2402;
1030.5000;0.7538;1.2306;
1030.8000;0.7578;1.2402;
1031.1000;0.7578;1.2354;
1031.4000;0.7562;1.2475;
1031.7000;0.7578;1.2451;
1032.0000;0.7521;1.2306;
1032.3000;0.7530;1.2136;
1032.6000;0.7562;1.2354;
1032.9000;0.7570;1.2402;
1033.2000;0.7497;1.2209;
1033.5000;0.7562;1.2354;
1033.8000;0.7578;1.2330;
1034.1000;0.7619;1.2547;
1034.4000;0.7586;1.2426;
1034.7000;0.7643;1.2644;
1035.0000;0.7521;1.2306;
1035.3000;0.7627;1.2523;
1035.6000;0.7570;1.2354;
1035.9000;0.7554;1.2402;
1036.2000;0.7570;1.2523;
1036.5000;0.7570;1.2572;
1036.8000;0.7570;1.2596;
1037.1000;0.7570;1.2620;
1037.4000;0.7619;1.2692;
1037.7000;0.7578;1.2547;
1038.0000;0.7586;1.2620;
1038.3000;0.7570;1.2644;
1038.6000;0.7586;1.2692;
1038.9000;0.7570;1.2572;
1039.2000;0.7570;1.2547;
1039.5000;0.7586;1.2475;
1039.8000;0.7570;1.2499;
1040.1000;0.7538;1.2426;
1040.4000;0.7570;1.2572;
1040.7000;0.7562;1.2572;
1041.0000;0.7570;1.2572;
1041.3000;0.7562;1.2572;
1041.6000;0.7570;1.2717;
1041.9000;0.7570;1.2717;
1042.2000;0.7554;1.2765;
1042.5000;0.7586;1.2765;
1042.8000;0.7643;1.2886;
1043.1000;0.7570;1.2692;
1043.4000;0.7570;1.2837;
1043.7000;0.7464;1.2523;
1044.0000;0.7562;1.2741;
1044.3000;0.7562;1.2644;
1044.6000;0.7570;1.2644;
1044.9000;0.7554;1.2668;
1045.2000;0.7562;1.2717;
1045.5000;0.7562;1.2741;
1045.8000;0.7570;1.2717;
1046.1000;0.7554;1.2692;
1046.4000;0.7530;1.2523;
1046.7000;0.7562;1.2547;
1047.0000;0.7570;1.2572;
1047.3000;0.7562;1.2596;
1047.6000;0.7562;1.2523;
1047.9000;0.7538;1.2547;
1048.2000;0.7611;1.2813;
1048.5000;0.7562;1.2741;
1048.8000;0.7562;1.2717;
1049.1000;0.7538;1.2717;
1049.4000;0.7473;1.2499;
1049.7000;0.7554;1.2644;
1050.0000;0.7546;1.2668;
1050.3000;0.7554;1.2741;
1050.6000;0.7562;1.2886;
1050.9000;0.7562;1.2741;
1051.2000;0.7546;1.2668;
1051.5000;0.7521;1.2620;
1051.8000;0.7554;1.2837;
1052.1000;0.7570;1.2765;
1052.4000;0.7578;1.2837;
1052.7000;0.7546;1.2717;
1053.0000;0.7546;1.2668;
1053.3000;0.7546;1.2789;
1053.6000;0.7562;1.2765;
1053.9000;0.7546;1.2717;
1054.2000;0.7562;1.2765;
1054.5000;0.7554;1.2692;
1054.8000;0.7554;1.2668;
1055.1000;0.7578;1.2741;
1055.4000;0.7554;1.2668;
1055.7000;0.7586;1.2765;
1056.0000;0.7554;1.2668;
1056.3000;0.7578;1.2668;
1056.6000;0.7554;1.2668;
1056.9000;0.7513;1.2499;
1057.2000;0.7521;1.2523;
1057.5000;0.7595;1.2789;
1057.8000;0.7538;1.2862;
1058.1000;0.7578;1.2862;
1058.4000;0.7595;1.2862;
1058.7000;0.7578;1.2886;
1059.0000;0.7578;1.2886;
1059.3000;0.7578;1.2837;
1059.6000;0.7586;1.2862;
1059.9000;0.7554;1.2813;
1060.2000;0.7586;1.2862;
1060.5000;0.7554;1.2717;
1060.8000;0.7562;1.2789;
1061.1000;0.7570;1.2789;
1061.4000;0.7546;1.2692;
1061.7000;0.7554;1.2789;
1062.0000;0.7562;1.2741;
1062.3000;0.7562;1.2813;
1062.6000;0.7554;1.2837;
1062.9000;0.7546;1.2862;
1063.2000;0.7562;1.2910;
1063.5000;0.7554;1.2813;
1063.8000;0.7554;1.2741;
1064.1000;0.7538;1.2644;
1064.4000;0.7570;1.2717;
1064.7000;0.7570;1.2717;
1065.0000;0.7578;1.2644;
1065.3000;0.7595;1.2620;
1065.6000;0.7562;1.2547;
1065.9000;0.7586;1.2668;
1066.2000;0.7538;1.2547;
1066.5000;0.7530;1.2620;
1066.8000;0.7513;1.2692;
1067.1000;0.7562;1.2813;
1067.4000;0.7562;1.2668;
1067.7000;0.7546;1.2620;
1068.0000;0.7546;1.2620;
1068.3000;0.7595;1.2765;
1068.6000;0.7562;1.2644;
1068.9000;0.7530;1.2547;
1069.2000;0.7554;1.2596;
1069.5000;0.7562;1.2620;
1069.8000;0.7570;1.2644;
1070.1000;0.7578;1.2644;
1070.4000;0.7505;1.2499;
1070.7000;0.7530;1.2475;
1071.0000;0.7562;1.2547;
1071.3000;0.7578;1.2668;
1071.6000;0.7546;1.2547;
1071.9000;0.7538;1.2596;
1072.2000;0.7538;1.2644;
1072.5000;0.7554;1.2644;
1072.8000;0.7505;1.2547;
1073.1000;0.7546;1.2692;
1073.4000;0.7456;1.2451;
1073.7000;0.7546;1.2789;
1074.0000;0.7562;1.2910;
1074.3000;0.7611;1.2910;
1074.6000;0.7562;1.2813;
1074.9000;0.7578;1.2934;
1075.2000;0.7554;1.2813;
1075.5000;0.7562;1.2837;
1075.8000;0.7562;1.2765;
1076.1000;0.7570;1.2692;
1076.4000;0.7489;1.2523;
1076.7000;0.7546;1.2789;
1077.0000;0.7546;1.2910;
1077.3000;0.7546;1.2934;
1077.6000;0.7546;1.2813;
1077.9000;0.7513;1.2644;
1078.2000;0.7554;1.2692;
1078.5000;0.7586;1.2765;
1078.8000;0.7538;1.2717;
1079.1000;0.7562;1.2813;
1079.4000;0.7530;1.2789;
1079.7000;0.7530;1.2910;
1080.0000;0.7586;1.3055;
1080.3000;0.7554;1.2837;
1080.6000;0.7546;1.2813;
1080.9000;0.7635;1.3007;
1081.2000;0.7562;1.2789;
1081.5000;0.7619;1.2934;
1081.8000;0.7497;1.2547;
1082.1000;0.7546;1.2668;
1082.4000;0.7546;1.2692;
1082.7000;0.7546;1.2741;
1083.0000;0.7538;1.2717;
1083.3000;0.7530;1.2692;
1083.6000;0.7554;1.2692;
1083.9000;0.7603;1.2837;
1084.2000;0.7546;1.2717;
1084.5000;0.7562;1.2668;
1084.8000;0.7562;1.2572;
1085.1000;0.7546;1.2620;
1085.4000;0.7538;1.2620;
1085.7000;0.7546;1.2523;
1086.0000;0.7546;1.2572;
1086.3000;0.7538;1.2620;
1086.6000;0.7546;1.2789;
1086.9000;0.7546;1.2813;
1087.2000;0.7440;1.2572;
1087.5000;0.7554;1.2813;
1087.8000;0.7554;1.2789;
1088.1000;0.7513;1.2644;
1088.4000;0.7538;1.2813;
1088.7000;0.7586;1.2862;
1089.0000;0.7570;1.2813;
1089.3000;0.7513;1.2620;
1089.6000;0.7570;1.2668;
1089.9000;0.7554;1.2765;
1090.2000;0.7570;1.2886;
1090.5000;0.7554;1.2813;
1090.8000;0.7586;1.2886;
1091.1000;0.7554;1.2789;
1091.4000;0.7554;1.2789;
1091.7000;0.7424;1.2426;
1092.0000;0.7530;1.2620;
1092.3000;0.7554;1.2789;
1092.6000;0.7546;1.2620;
1092.9000;0.7538;1.2620;
1093.2000;0.7521;1.2499;
1093.5000;0.7538;1.2475;
1093.8000;0.7546;1.2499;
1094.1000;0.7570;1.2644;
1094.4000;0.7554;1.2547;
1094.7000;0.7546;1.2475;
1095.0000;0.7546;1.2426;
1095.3000;0.7546;1.2475;
1095.6000;0.7554;1.2499;
1095.9000;0.7546;1.2523;
1096.2000;0.7554;1.2475;
1096.5000;0.7521;1.2475;
1096.8000;0.7546;1.2475;
1097.1000;0.7546;1.2451;
1097.4000;0.7546;1.2451;
1097.7000;0.7554;1.2499;
1098.0000;0.7595;1.2572;
1098.3000;0.7538;1.2475;
1098.6000;0.7554;1.2596;
1098.9000;0.7530;1.2596;
1099.2000;0.7538;1.2741;
1099.5000;0.7546;1.2717;
1099.8000;0.7546;1.2668;
1100.1000;0.7554;1.2692;
1100.4000;0.7562;1.2644;
1100.7000;0.7538;1.2668;
1101.0000;0.7505;1.2596;
1101.3000;0.7546;1.2741;
1101.6000;0.7546;1.2741;
1101.9000;0.7554;1.2765;
1102.2000;0.7595;1.2765;
1102.5000;0.7554;1.2668;
1102.8000;0.7554;1.2741;
1103.1000;0.7505;1.2620;
1103.4000;0.7538;1.2620;
1103.7000;0.7521;1.2596;
1104.0000;0.7530;1.2572;
1104.3000;0.7562;1.2644;
1104.6000;0.7546;1.2499;
1104.9000;0.7554;1.2499;
1105.2000;0.7464;1.2306;
1105.5000;0.7562;1.2547;
1105.8000;0.7538;1.2572;
1106.1000;0.7554;1.2644;
1106.4000;0.7546;1.2596;
1106.7000;0.7546;1.2596;
1107.0000;0.7505;1.2475;
1107.3000;0.7497;1.2499;
1107.6000;0.7521;1.2475;
1107.9000;0.7513;1.2426;
1108.2000;0.7538;1.2451;
1108.5000;0.7530;1.2402;
1108.8000;0.7554;1.2330;
1109.1000;0.7546;1.2402;
1109.4000;0.7554;1.2523;
1109.7000;0.7546;1.2547;
1110.0000;0.7538;1.2644;
1110.3000;0.7554;1.2620;
1110.6000;0.7546;1.2620;
1110.9000;0.7554;1.2620;
1111.2000;0.7619;1.2765;
1111.5000;0.7432;1.2306;
1111.8000;0.7538;1.2475;
1112.1000;0.7513;1.2499;
1112.4000;0.7530;1.2547;
1112.7000;0.7521;1.2596;
1113.0000;0.7538;1.2644;
1113.3000;0.7546;1.2644;
1113.6000;0.7562;1.2644;
1113.9000;0.7513;1.2547;
1114.2000;0.7538;1.2402;
1114.5000;0.7546;1.2426;
1114.8000;0.7521;1.2402;
1115.1000;0.7538;1.2330;
1115.4000;0.7546;1.2330;
1115.7000;0.7530;1.2281;
1116.0000;0.7546;1.2209;
1116.3000;0.7481;1.2136;
1116.6000;0.7505;1.2136;
1116.9000;0.7530;1.2233;
1117.2000;0.7464;1.2112;
1117.5000;0.7505;1.2233;
1117.8000;0.7530;1.2330;
1118.1000;0.7513;1.2281;
1118.4000;0.7530;1.2281;
1118.7000;0.7521;1.2281;
1119.0000;0.7530;1.2257;
1119.3000;0.7538;1.2257;
1119.6000;0.7546;1.2281;
1119.9000;0.7521;1.2136;
1120.2000;0.7530;1.2209;
1120.5000;0.7530;1.2185;
1120.8000;0.7530;1.2185;
1121.1000;0.7546;1.2209;
1121.4000;0.7530;1.2257;
1121.7000;0.7538;1.2233;
1122.0000;0.7538;1.2378;
1122.3000;0.7538;1.2330;
1122.6000;0.7481;1.2209;
1122.9000;0.7530;1.2402;
1123.2000;0.7546;1.2451;
1123.5000;0.7521;1.2378;
1123.8000;0.7538;1.2426;
1124.1000;0.7521;1.2451;
1124.4000;0.7530;1.2547;
1124.7000;0.7546;1.2596;
1125.0000;0.7530;1.2523;
1125.3000;0.7481;1.2354;
1125.6000;0.7448;1.2330;
1125.9000;0.7538;1.2451;
1126.2000;0.7619;1.2620;
1126.5000;0.7448;1.2233;
1126.8000;0.7546;1.2499;
1127.1000;0.7538;1.2475;
1127.4000;0.7546;1.2523;
1127.7000;0.7513;1.2475;
1128.0000;0.7578;1.2668;
1128.3000;0.7513;1.2499;
1128.6000;0.7530;1.2523;
1128.9000;0.7546;1.2523;
1129.2000;0.7521;1.2523;
1129.5000;0.7505;1.2620;
1129.8000;0.7546;1.2741;
1130.1000;0.7538;1.2620;
1130.4000;0.7513;1.2475;
1130.7000;0.7530;1.2451;
1131.0000;0.7530;1.2451;
1131.3000;0.7538;1.2402;
1131.6000;0.7538;1.2402;
1131.9000;0.7521;1.2426;
1132.2000;0.7530;1.2475;
1132.5000;0.7538;1.2451;
1132.8000;0.7538;1.2426;
1133.1000;0.7538;1.2426;
1133.4000;0.7538;1.2426;
1133.7000;0.7538;1.2402;
1134.0000;0.7546;1.2451;
1134.3000;0.7530;1.2499;
1134.6000;0.7554;1.2547;
1134.9000;0.7538;1.2572;
1135.2000;0.7603;1.2741;
1135.5000;0.7538;1.2596;
1135.8000;0.7554;1.2596;
1136.1000;0.7505;1.2426;
1136.4000;0.7554;1.2572;
1136.7000;0.7546;1.2596;
1137.0000;0.7521;1.2572;
1137.3000;0.7578;1.2692;
1137.6000;0.7546;1.2620;
1137.9000;0.7513;1.2499;
1138.2000;0.7521;1.2451;
1138.5000;0.7530;1.2620;
1138.8000;0.7554;1.2692;
1139.1000;0.7513;1.2596;
1139.4000;0.7530;1.2547;
1139.7000;0.7530;1.2499;
1140.0000;0.7521;1.2596;
1140.3000;0.7546;1.2692;
1140.6000;0.7505;1.2499;
1140.9000;0.7473;1.2499;
1141.2000;0.7505;1.2596;
1141.5000;0.7513;1.2692;
1141.8000;0.7530;1.2644;
1142.1000;0.7521;1.2547;
1142.4000;0.7530;1.2620;
1142.7000;0.7521;1.2547;
1143.0000;0.7513;1.2523;
1143.3000;0.7538;1.2644;
1143.6000;0.7521;1.2620;
1143.9000;0.7521;1.2547;
1144.2000;0.7513;1.2499;
1144.5000;0.7538;1.2451;
1144.8000;0.7619;1.2692;
1145.1000;0.7530;1.2523;
1145.4000;0.7538;1.2547;
1145.7000;0.7497;1.2451;
1146.0000;0.7546;1.2596;
1146.3000;0.7521;1.2499;
1146.6000;0.7546;1.2620;
1146.9000;0.7538;1.2572;
1147.2000;0.7513;1.2499;
1147.5000;0.7530;1.2499;
1147.8000;0.7546;1.2572;
1148.1000;0.7538;1.2572;
1148.4000;0.7448;1.2354;
1148.7000;0.7489;1.2572;
1149.0000;0.7473;1.2426;
1149.3000;0.7513;1.2451;
1149.6000;0.7521;1.2378;
1149.9000;0.7538;1.2451;
1150.2000;0.7530;1.2451;
1150.5000;0.7505;1.2378;
1150.8000;0.7497;1.2426;
1151.1000;0.7538;1.2547;
1151.4000;0.7546;1.2596;
1151.7000;0.7554;1.2620;
1152.0000;0.7513;1.2644;
1152.3000;0.7513;1.2620;
1152.6000;0.7521;1.2668;
1152.9000;0.7513;1.2644;
1153.2000;0.7538;1.2596;
1153.5000;0.7473;1.2451;
1153.8000;0.7530;1.2547;
1154.1000;0.7513;1.2547;
1154.4000;0.7513;1.2692;
1154.7000;0.7497;1.2620;
1155.0000;0.7497;1.2596;
1155.3000;0.7530;1.2596;
1155.6000;0.7505;1.2644;
1155.9000;0.7554;1.2668;
1156.2000;0.7521;1.2620;
1156.5000;0.7538;1.2620;
1156.8000;0.7530;1.2499;
1157.1000;0.7530;1.2402;
1157.4000;0.7513;1.2426;
1157.7000;0.7521;1.2475;
1158.0000;0.7530;1.2426;
1158.3000;0.7546;1.2475;
1158.6000;0.7530;1.2475;
1158.9000;0.7530;1.2475;
1159.2000;0.7448;1.2281;
1159.5000;0.7546;1.2547;
1159.8000;0.7513;1.2451;
1160.1000;0.7521;1.2378;
1160.4000;0.7538;1.2354;
1160.7000;0.7513;1.2257;
1161.0000;0.7505;1.2306;
1161.3000;0.7538;1.2378;
1161.6000;0.7538;1.2354;
1161.9000;0.7521;1.2426;
1162.2000;0.7521;1.2523;
1162.5000;0.7562;1.2668;
1162.8000;0.7538;1.2572;
1163.1000;0.7505;1.2499;
1163.4000;0.7497;1.2523;
1163.7000;0.7521;1.2596;
1164.0000;0.7530;1.2620;
1164.3000;0.7586;1.2765;
1164.6000;0.7530;1.2572;
1164.9000;0.7513;1.2572;
1165.2000;0.7513;1.2644;
1165.5000;0.7473;1.2547;
1165.8000;0.7521;1.2765;
1166.1000;0.7497;1.2765;
1166.4000;0.7603;1.3031;
1166.7000;0.7513;1.2813;
1167.0000;0.7521;1.2862;
1167.3000;0.7538;1.2934;
1167.6000;0.7546;1.3055;
1167.9000;0.7513;1.2886;
1168.2000;0.7530;1.2813;
1168.5000;0.7505;1.2837;
1168.8000;0.7505;1.2886;
1169.1000;0.7513;1.2862;
1169.4000;0.7530;1.2886;
1169.7000;0.7489;1.2789;
1170.0000;0.7473;1.2717;
1170.3000;0.7497;1.2717;
1170.6000;0.7513;1.2717;
1170.9000;0.7530;1.2692;
1171.2000;0.7505;1.2668;
1171.5000;0.7530;1.2692;
1171.8000;0.7513;1.2717;
1172.1000;0.7505;1.2620;
1172.4000;0.7530;1.2547;
1172.7000;0.7530;1.2596;
1173.0000;0.7521;1.2668;
1173.3000;0.7513;1.2644;
1173.6000;0.7505;1.2692;
1173.9000;0.7513;1.2717;
1174.2000;0.7489;1.2572;
1174.5000;0.7521;1.2547;
1174.8000;0.7489;1.2499;
1175.1000;0.7489;1.2475;
1175.4000;0.7521;1.2523;
1175.7000;0.7497;1.2354;
1176.0000;0.7521;1.2426;
1176.3000;0.7513;1.2402;
1176.6000;0.7505;1.2426;
1176.9000;0.7521;1.2475;
1177.2000;0.7586;1.2741;
1177.5000;0.7497;1.2547;
1177.8000;0.7505;1.2620;
1178.1000;0.7521;1.2596;
1178.4000;0.7513;1.2523;
1178.7000;0.7497;1.2499;
1179.0000;0.7546;1.2572;
1179.3000;0.7521;1.2499;
1179.6000;0.7489;1.2402;
1179.9000;0.7489;1.2499;
1180.2000;0.7489;1.2547;
1180.5000;0.7521;1.2668;
1180.8000;0.7432;1.2378;
1181.1000;0.7513;1.2596;
1181.4000;0.7513;1.2523;
1181.7000;0.7530;1.2644;
1182.0000;0.7505;1.2692;
1182.3000;0.7521;1.2789;
1182.6000;0.7505;1.2789;
1182.9000;0.7603;1.2910;
1183.2000;0.7513;1.2596;
1183.5000;0.7521;1.2499;
1183.8000;0.7513;1.2523;
1184.1000;0.7513;1.2596;
1184.4000;0.7497;1.2475;
1184.7000;0.7513;1.2499;
1185.0000;0.7505;1.2499;
1185.3000;0.7554;1.2668;
1185.6000;0.7473;1.2523;
1185.9000;0.7521;1.2668;
1186.2000;0.7521;1.2692;
1186.5000;0.7521;1.2692;
1186.8000;0.7521;1.2717;
1187.1000;0.7530;1.2717;
1187.4000;0.7497;1.2668;
1187.7000;0.7513;1.2644;
1188.0000;0.7513;1.2523;
1188.3000;0.7513;1.2475;
1188.6000;0.7497;1.2523;
1188.9000;0.7497;1.2572;
1189.2000;0.7481;1.2547;
1189.5000;0.7416;1.2378;
1189.8000;0.7521;1.2644;
1190.1000;0.7505;1.2620;
1190.4000;0.7505;1.2717;
1190.7000;0.7530;1.2668;
1191.0000;0.7513;1.2692;
1191.3000;0.7481;1.2596;
1191.6000;0.7521;1.2765;
1191.9000;0.7497;1.2668;
1192.2000;0.7505;1.2668;
1192.5000;0.7513;1.2668;
1192.8000;0.7546;1.2765;
1193.1000;0.7521;1.2668;
1193.4000;0.7530;1.2692;
1193.7000;0.7530;1.2717;
1194.0000;0.7489;1.2644;
1194.3000;0.7530;1.2668;
1194.6000;0.7538;1.2572;
1194.9000;0.7521;1.2596;
1195.2000;0.7521;1.2547;
1195.5000;0.7489;1.2451;
1195.8000;0.7513;1.2523;
1196.1000;0.7513;1.2644;
1196.4000;0.7497;1.2741;
1196.7000;0.7513;1.2692;
1197.0000;0.7513;1.2668;
1197.3000;0.7538;1.2741;
1197.6000;0.7521;1.2765;
1197.9000;0.7481;1.2668;
1198.2000;0.7497;1.2644;
1198.5000;0.7489;1.2620;
1198.8000;0.7513;1.2644;
1199.1000;0.7489;1.2596;
1199.4000;0.7497;1.2644;
1199.7000;0.7530;1.2789;
1200.0000;0.7521;1.2741;
1200.3000;0.7497;1.2692;
1200.6000;0.7513;1.2644;
1200.9000;0.7562;1.2741;
1201.2000;0.7489;1.2572;
1201.5000;0.7505;1.2596;
1201.8000;0.7497;1.2644;
1202.1000;0.7497;1.2644;
1202.4000;0.7521;1.2717;
1202.7000;0.7554;1.2765;
1203.0000;0.7521;1.2813;
1203.3000;0.7530;1.2765;
1203.6000;0.7521;1.2765;
1203.9000;0.7505;1.2789;
1204.2000;0.7538;1.2886;
1204.5000;0.7505;1.2765;
1204.8000;0.7513;1.2789;
1205.1000;0.7505;1.2692;
1205.4000;0.7521;1.2741;
1205.7000;0.7505;1.2789;
1206.0000;0.7530;1.2813;
1206.3000;0.7538;1.2862;
1206.6000;0.7505;1.2765;
1206.9000;0.7513;1.2837;
1207.2000;0.7521;1.2789;
1207.5000;0.7497;1.2741;
1207.8000;0.7521;1.2886;
1208.1000;0.7473;1.2765;
1208.4000;0.7505;1.2958;
1208.7000;0.7489;1.2862;
1209.0000;0.7489;1.2934;
1209.3000;0.7481;1.2837;
1209.6000;0.7473;1.2765;
1209.9000;0.7497;1.2789;
1210.2000;0.7513;1.2934;
1210.5000;0.7521;1.2934;
1210.8000;0.7513;1.2886;
1211.1000;0.7505;1.2765;
1211.4000;0.7521;1.2741;
1211.7000;0.7530;1.2741;
1212.0000;0.7513;1.2813;
1212.3000;0.7521;1.2789;
1212.6000;0.7521;1.2837;
1212.9000;0.7481;1.2789;
1213.2000;0.7513;1.2886;
1213.5000;0.7497;1.2837;
1213.8000;0.7513;1.2862;
1214.1000;0.7521;1.2934;
1214.4000;0.7505;1.2958;
1214.7000;0.7521;1.3079;
1215.0000;0.7513;1.2982;
1215.3000;0.7497;1.2765;
1215.6000;0.7505;1.2692;
1215.9000;0.7530;1.2717;
1216.2000;0.7521;1.2692;
1216.5000;0.7489;1.2644;
1216.8000;0.7513;1.2789;
1217.1000;0.7497;1.2765;
1217.4000;0.7538;1.2789;
1217.7000;0.7521;1.2741;
1218.0000;0.7497;1.2692;
1218.3000;0.7513;1.2765;
1218.6000;0.7505;1.2765;
1218.9000;0.7554;1.2886;
1219.2000;0.7513;1.2789;
1219.5000;0.7513;1.2837;
1219.8000;0.7497;1.2837;
1220.1000;0.7521;1.2910;
1220.4000;0.7505;1.2886;
1220.7000;0.7521;1.2862;
1221.0000;0.7489;1.2692;
1221.3000;0.7497;1.2789;
1221.6000;0.7513;1.2765;
1221.9000;0.7546;1.2789;
1222.2000;0.7489;1.2668;
1222.5000;0.7505;1.2717;
1222.8000;0.7505;1.2620;
1223.1000;0.7521;1.2668;
1223.4000;0.7407;1.2451;
1223.7000;0.7497;1.2765;
1224.0000;0.7440;1.2692;
1224.3000;0.7489;1.2982;
1224.6000;0.7497;1.2958;
1224.9000;0.7489;1.2789;
1225.2000;0.7497;1.2837;
1225.5000;0.7489;1.2741;
1225.8000;0.7513;1.2862;
1226.1000;0.7505;1.2862;
1226.4000;0.7521;1.2934;
1226.7000;0.7505;1.2813;
1227.0000;0.7521;1.2813;
1227.3000;0.7489;1.2789;
1227.6000;0.7505;1.2765;
1227.9000;0.7530;1.2789;
1228.2000;0.7521;1.2717;
1228.5000;0.7481;1.2668;
1228.8000;0.7497;1.2789;
1229.1000;0.7505;1.2813;
1229.4000;0.7497;1.2644;
1229.7000;0.7497;1.2789;
1230.0000;0.7497;1.2813;
1230.3000;0.7513;1.2813;
1230.6000;0.7489;1.2789;
1230.9000;0.7489;1.2741;
1231.2000;0.7505;1.2717;
1231.5000;0.7530;1.2765;
1231.8000;0.7521;1.2837;
1232.1000;0.7473;1.2668;
1232.4000;0.7456;1.2668;
1232.7000;0.7481;1.2717;
1233.0000;0.7497;1.2789;
1233.3000;0.7497;1.2813;
1233.6000;0.7521;1.2837;
1233.9000;0.7497;1.2717;
1234.2000;0.7497;1.2741;
1234.5000;0.7497;1.2741;
1234.8000;0.7497;1.2741;
1235.1000;0.7497;1.2789;
1235.4000;0.7489;1.2789;
1235.7000;0.7505;1.2934;
1236.0000;0.7489;1.2837;
1236.3000;0.7497;1.2813;
1236.6000;0.7505;1.2837;
1236.9000;0.7497;1.2741;
1237.2000;0.7505;1.2789;
1237.5000;0.7497;1.2741;
1237.8000;0.7513;1.2692;
1238.1000;0.7505;1.2596;
1238.4000;0.7489;1.2572;
1238.7000;0.7497;1.2572;
1239.0000;0.7497;1.2596;
1239.3000;0.7554;1.2741;
1239.6000;0.7464;1.2402;
1239.9000;0.7505;1.2451;
1240.2000;0.7489;1.2547;
1240.5000;0.7489;1.2547;
1240.8000;0.7505;1.2547;
1241.1000;0.7521;1.2620;
1241.4000;0.7554;1.2813;
1241.7000;0.7489;1.2620;
1242.0000;0.7546;1.2765;
1242.3000;0.7546;1.2837;
1242.6000;0.7464;1.2596;
1242.9000;0.7481;1.2620;
1243.2000;0.7505;1.2620;
1243.5000;0.7505;1.2644;
1243.8000;0.7497;1.2572;
1244.1000;0.7440;1.2402;
1244.4000;0.7497;1.2572;
1244.7000;0.7473;1.2475;
1245.0000;0.7473;1.2426;
1245.3000;0.7473;1.2475;
1245.6000;0.7481;1.2572;
1245.9000;0.7464;1.2620;
1246.2000;0.7513;1.2620;
1246.5000;0.7473;1.2596;
1246.8000;0.7481;1.2717;
1247.1000;0.7489;1.2717;
1247.4000;0.7489;1.2813;
1247.7000;0.7505;1.2789;
1248.0000;0.7521;1.2862;
1248.3000;0.7505;1.2765;
1248.6000;0.7505;1.2692;
1248.9000;0.7505;1.2668;
1249.2000;0.7497;1.2547;
1249.5000;0.7513;1.2717;
1249.8000;0.7497;1.2596;
1250.1000;0.7521;1.2596;
1250.4000;0.7521;1.2596;
1250.7000;0.7505;1.2620;
1251.0000;0.7513;1.2692;
1251.3000;0.7497;1.2668;
1251.6000;0.7497;1.2668;
1251.9000;0.7546;1.2862;
1252.2000;0.7497;1.2741;
1252.5000;0.7505;1.2741;
1252.8000;0.7497;1.2741;
1253.1000;0.7521;1.2813;
1253.4000;0.7521;1.2886;
1253.7000;0.7513;1.2862;
1254.0000;0.7505;1.2765;
1254.3000;0.7505;1.2717;
1254.6000;0.7473;1.2547;
1254.9000;0.7440;1.2451;
1255.2000;0.7497;1.2692;
1255.5000;0.7505;1.2789;
1255.8000;0.7489;1.2765;
1256.1000;0.7489;1.2813;
1256.4000;0.7546;1.2934;
1256.7000;0.7489;1.2765;
1257.0000;0.7505;1.2765;
1257.3000;0.7481;1.2692;
1257.6000;0.7481;1.2717;
1257.9000;0.7481;1.2717;
1258.2000;0.7399;1.2475;
1258.5000;0.7497;1.2765;
1258.8000;0.7497;1.2717;
1259.1000;0.7497;1.2668;
1259.4000;0.7448;1.2620;
1259.7000;0.7489;1.2765;
1260.0000;0.7513;1.2837;
1260.3000;0.7481;1.2789;
1260.6000;0.7505;1.2837;
1260.9000;0.7513;1.2717;
1261.2000;0.7521;1.2668;
1261.5000;0.7513;1.2547;
1261.8000;0.7497;1.2523;
1262.1000;0.7521;1.2572;
1262.4000;0.7513;1.2572;
1262.7000;0.7481;1.2547;
1263.0000;0.7530;1.2644;
1263.3000;0.7497;1.2620;
1263.6000;0.7538;1.2717;
1263.9000;0.7481;1.2717;
1264.2000;0.7489;1.2668;
1264.5000;0.7489;1.2717;
1264.8000;0.7497;1.2741;
1265.1000;0.7489;1.2789;
1265.4000;0.7546;1.3007;
1265.7000;0.7497;1.2886;
1266.0000;0.7538;1.2862;
1266.3000;0.7440;1.2596;
1266.6000;0.7481;1.2789;
1266.9000;0.7473;1.2813;
1267.2000;0.7505;1.2934;
1267.5000;0.7505;1.2837;
1267.8000;0.7505;1.2813;
1268.1000;0.7497;1.2789;
1268.4000;0.7497;1.2813;
1268.7000;0.7497;1.2837;
1269.0000;0.7505;1.2958;
1269.3000;0.7481;1.2862;
1269.6000;0.7489;1.2934;
1269.9000;0.7489;1.2958;
1270.2000;0.7497;1.3031;
1270.5000;0.7456;1.2958;
1270.8000;0.7489;1.3031;
1271.1000;0.7464;1.2813;
1271.4000;0.7586;1.3055;
1271.7000;0.7554;1.2982;
1272.0000;0.7497;1.2862;
1272.3000;0.7481;1.2886;
1272.6000;0.7489;1.2958;
1272.9000;0.7489;1.2958;
1273.2000;0.7456;1.2934;
1273.5000;0.7489;1.3007;
1273.8000;0.7489;1.2982;
1274.1000;0.7481;1.2934;
1274.4000;0.7497;1.2934;
1274.7000;0.7473;1.2862;
1275.0000;0.7481;1.2958;
1275.3000;0.7530;1.3079;
1275.6000;0.7497;1.2958;
1275.9000;0.7489;1.2862;
1276.2000;0.7464;1.2886;
1276.5000;0.7489;1.2910;
1276.8000;0.7497;1.2934;
1277.1000;0.7489;1.2886;
1277.4000;0.7473;1.2789;
1277.7000;0.7481;1.2765;
1278.0000;0.7497;1.2644;
1278.3000;0.7456;1.2596;
1278.6000;0.7513;1.2717;
1278.9000;0.7505;1.2644;
1279.2000;0.7497;1.2644;
1279.5000;0.7489;1.2596;
1279.8000;0.7489;1.2620;
1280.1000;0.7489;1.2596;
1280.4000;0.7399;1.2402;
1280.7000;0.7473;1.2547;
1281.0000;0.7481;1.2523;
1281.3000;0.7530;1.2717;
1281.6000;0.7481;1.2692;
1281.9000;0.7489;1.2813;
1282.2000;0.7481;1.2765;
1282.5000;0.7473;1.2765;
1282.8000;0.7489;1.2765;
1283.1000;0.7489;1.2837;
1283.4000;0.7505;1.2789;
1283.7000;0.7481;1.2765;
1284.0000;0.7489;1.2765;
1284.3000;0.7473;1.2789;
1284.6000;0.7473;1.2765;
1284.9000;0.7497;1.2765;
1285.2000;0.7489;1.2741;
1285.5000;0.7489;1.2741;
1285.8000;0.7497;1.2765;
1286.1000;0.7497;1.2668;
1286.4000;0.7497;1.2741;
1286.7000;0.7489;1.2813;
1287.0000;0.7497;1.2886;
1287.3000;0.7489;1.2982;
1287.6000;0.7473;1.2982;
1287.9000;0.7505;1.2934;
1288.2000;0.7497;1.2934;
1288.5000;0.7497;1.2982;
1288.8000;0.7505;1.2982;
1289.1000;0.7497;1.2934;
1289.4000;0.7489;1.2910;
1289.7000;0.7497;1.2934;
1290.0000;0.7481;1.2934;
1290.3000;0.7497;1.3031;
1290.6000;0.7481;1.3007;
1290.9000;0.7464;1.2958;
1291.2000;0.7464;1.2934;
1291.5000;0.7578;1.3176;
1291.8000;0.7481;1.3031;
1292.1000;0.7505;1.3079;
1292.4000;0.7456;1.3007;
1292.7000;0.7497;1.3031;
1293.0000;0.7489;1.3079;
1293.3000;0.7489;1.3103;
1293.6000;0.7505;1.3055;
1293.9000;0.7489;1.2982;
1294.2000;0.7497;1.3055;
1294.5000;0.7464;1.3055;
1294.8000;0.7456;1.2886;
1295.1000;0.7464;1.2910;
1295.4000;0.7489;1.2910;
1295.7000;0.7456;1.2837;
1296.0000;0.7481;1.2862;
1296.3000;0.7497;1.2910;
1296.6000;0.7481;1.2886;
1296.9000;0.7489;1.2934;
1297.2000;0.7448;1.2837;
1297.5000;0.7489;1.2934;
1297.8000;0.7505;1.2958;
1298.1000;0.7489;1.2934;
1298.4000;0.7497;1.2958;
1298.7000;0.7432;1.2692;
1299.0000;0.7497;1.2862;
1299.3000;0.7513;1.2862;
1299.6000;0.7513;1.2886;
1299.9000;0.7497;1.2862;
1300.2000;0.7505;1.2813;
1300.5000;0.7521;1.2958;
1300.8000;0.7497;1.2982;
1301.1000;0.7481;1.2886;
1301.4000;0.7464;1.2837;
1301.7000;0.7456;1.2741;
1302.0000;0.7481;1.2789;
1302.3000;0.7464;1.2765;
1302.6000;0.7473;1.2692;
1302.9000;0.7481;1.2717;
1303.2000;0.7505;1.2789;
1303.5000;0.7497;1.2813;
1303.8000;0.7497;1.2765;
1304.1000;0.7489;1.2765;
1304.4000;0.7497;1.2813;
1304.7000;0.7489;1.2886;
1305.0000;0.7489;1.2982;
1305.3000;0.7489;1.2982;
1305.6000;0.7432;1.2862;
1305.9000;0.7481;1.3031;
1306.2000;0.7473;1.2958;
1306.5000;0.7481;1.2910;
1306.8000;0.7464;1.2789;
1307.1000;0.7481;1.2813;
1307.4000;0.7570;1.3128;
1307.7000;0.7456;1.2813;
1308.0000;0.7473;1.2837;
1308.3000;0.7481;1.2837;
1308.6000;0.7489;1.2862;
1308.9000;0.7497;1.2886;
1309.2000;0.7481;1.2837;
1309.5000;0.7489;1.2837;
1309.8000;0.7481;1.2741;
1310.1000;0.7489;1.2789;
1310.4000;0.7481;1.2717;
1310.7000;0.7473;1.2668;
1311.0000;0.7497;1.2886;
1311.3000;0.7489;1.2862;
1311.6000;0.7489;1.2862;
1311.9000;0.7481;1.2862;
1312.2000;0.7562;1.3055;
1312.5000;0.7481;1.2934;
1312.8000;0.7416;1.2765;
1313.1000;0.7481;1.3079;
1313.4000;0.7489;1.3055;
1313.7000;0.7489;1.3007;
1314.0000;0.7473;1.2982;
1314.3000;0.7489;1.3031;
1314.6000;0.7538;1.3152;
1314.9000;0.7481;1.2982;
1315.2000;0.7481;1.2958;
1315.5000;0.7489;1.2934;
1315.8000;0.7489;1.2862;
1316.1000;0.7473;1.2765;
1316.4000;0.7489;1.2862;
1316.7000;0.7578;1.3128;
1317.0000;0.7497;1.2886;
1317.3000;0.7497;1.2862;
1317.6000;0.7464;1.2717;
1317.9000;0.7407;1.2523;
1318.2000;0.7481;1.2765;
1318.5000;0.7473;1.2813;
1318.8000;0.7464;1.2717;
1319.1000;0.7416;1.2572;
1319.4000;0.7464;1.2741;
1319.7000;0.7473;1.2813;
1320.0000;0.7464;1.2741;
1320.3000;0.7481;1.2717;
1320.6000;0.7489;1.2741;
1320.9000;0.7521;1.2837;
1321.2000;0.7513;1.2837;
1321.5000;0.7481;1.2765;
1321.8000;0.7432;1.2499;
1322.1000;0.7530;1.2741;
1322.4000;0.7473;1.2620;
1322.7000;0.7497;1.2741;
1323.0000;0.7489;1.2741;
1323.3000;0.7481;1.2692;
1323.6000;0.7489;1.2692;
1323.9000;0.7489;1.2741;
1324.2000;0.7489;1.2813;
1324.5000;0.7489;1.2789;
1324.8000;0.7570;1.3031;
1325.1000;0.7391;1.2596;
1325.4000;0.7464;1.2862;
1325.7000;0.7497;1.2934;
1326.0000;0.7481;1.2789;
1326.3000;0.7464;1.2813;
1326.6000;0.7473;1.2862;
1326.9000;0.7489;1.2934;
1327.2000;0.7489;1.2862;
1327.5000;0.7497;1.2862;
1327.8000;0.7464;1.2837;
1328.1000;0.7489;1.2862;
1328.4000;0.7481;1.2862;
1328.7000;0.7481;1.2862;
1329.0000;0.7481;1.2789;
1329.3000;0.7481;1.2789;
1329.6000;0.7497;1.2886;
1329.9000;0.7489;1.2934;
1330.2000;0.7473;1.2837;
1330.5000;0.7473;1.2886;
1330.8000;0.7497;1.2982;
1331.1000;0.7505;1.3007;
1331.4000;0.7481;1.2886;
1331.7000;0.7497;1.2862;
1332.0000;0.7481;1.2813;
1332.3000;0.7456;1.2765;
1332.6000;0.7464;1.2862;
1332.9000;0.7481;1.2982;
1333.2000;0.7456;1.2958;
1333.5000;0.7489;1.3007;
1333.8000;0.7481;1.3031;
1334.1000;0.7473;1.3031;
1334.4000;0.7432;1.2862;
1334.7000;0.7481;1.2982;
1335.0000;0.7473;1.3007;
1335.3000;0.7481;1.3007;
1335.6000;0.7456;1.3055;
1335.9000;0.7448;1.2982;
1336.2000;0.7473;1.3152;
1336.5000;0.7448;1.3103;
1336.8000;0.7505;1.3200;
1337.1000;0.7464;1.3152;
1337.4000;0.7546;1.3176;
1337.7000;0.7464;1.3031;
1338.0000;0.7546;1.3176;
1338.3000;0.7464;1.3007;
1338.6000;0.7448;1.2910;
1338.9000;0.7513;1.3007;
1339.2000;0.7489;1.3007;
1339.5000;0.7464;1.3007;
1339.8000;0.7497;1.3103;
1340.1000;0.7473;1.2982;
1340.4000;0.7489;1.3031;
1340.7000;0.7489;1.3007;
1341.0000;0.7481;1.3055;
1341.3000;0.7497;1.3224;
1341.6000;0.7473;1.3079;
1341.9000;0.7505;1.3007;
1342.2000;0.7481;1.2934;
1342.5000;0.7497;1.2982;
1342.8000;0.7481;1.2862;
1343.1000;0.7497;1.2837;
1343.4000;0.7481;1.2789;
1343.7000;0.7481;1.2837;
1344.0000;0.7473;1.2813;
1344.3000;0.7481;1.2813;
1344.6000;0.7489;1.2862;
1344.9000;0.7497;1.2982;
1345.2000;0.7497;1.2958;
1345.5000;0.7473;1.2958;
1345.8000;0.7497;1.3031;
1346.1000;0.7473;1.2934;
1346.4000;0.7489;1.2837;
1346.7000;0.7481;1.2717;
1347.0000;0.7456;1.2644;
1347.3000;0.7464;1.2620;
1347.6000;0.7505;1.2620;
1347.9000;0.7464;1.2523;
1348.2000;0.7473;1.2523;
1348.5000;0.7448;1.2547;
1348.8000;0.7456;1.2547;
1349.1000;0.7505;1.2668;
1349.4000;0.7448;1.2523;
1349.7000;0.7473;1.2596;
1350.0000;0.7481;1.2741;
1350.3000;0.7489;1.2886;
1350.6000;0.7505;1.2862;
1350.9000;0.7473;1.2765;
1351.2000;0.7481;1.2765;
1351.5000;0.7481;1.2789;
1351.8000;0.7464;1.2886;
1352.1000;0.7473;1.2789;
1352.4000;0.7505;1.2837;
1352.7000;0.7497;1.2765;
1353.0000;0.7489;1.2813;
1353.3000;0.7538;1.2862;
1353.6000;0.7489;1.2765;
1353.9000;0.7513;1.2813;
1354.2000;0.7481;1.2813;
1354.5000;0.7464;1.2765;
1354.8000;0.7489;1.2765;
1355.1000;0.7497;1.2765;
1355.4000;0.7546;1.2910;
1355.7000;0.7448;1.2692;
1356.0000;0.7481;1.2862;
1356.3000;0.7464;1.2789;
1356.6000;0.7481;1.2789;
1356.9000;0.7473;1.2765;
1357.2000;0.7464;1.2717;
1357.5000;0.7489;1.2717;
1357.8000;0.7505;1.2692;
1358.1000;0.7603;1.2958;
1358.4000;0.7505;1.2837;
1358.7000;0.7489;1.2934;
1359.0000;0.7481;1.2862;
1359.3000;0.7464;1.2837;
1359.6000;0.7473;1.2837;
1359.9000;0.7456;1.2765;
1360.2000;0.7456;1.2717;
1360.5000;0.7399;1.2547;
1360.8000;0.7464;1.2741;
1361.1000;0.7432;1.2596;
1361.4000;0.7513;1.2765;
1361.7000;0.7456;1.2765;
1362.0000;0.7489;1.2741;
1362.3000;0.7448;1.2741;
1362.6000;0.7554;1.3007;
1362.9000;0.7473;1.2910;
1363.2000;0.7464;1.2958;
1363.5000;0.7473;1.2982;
1363.8000;0.7481;1.2910;
1364.1000;0.7473;1.2765;
1364.4000;0.7473;1.2765;
1364.7000;0.7456;1.2692;
1365.0000;0.7481;1.2741;
1365.3000;0.7489;1.2789;
1365.6000;0.7473;1.2765;
1365.9000;0.7473;1.2717;
1366.2000;0.7473;1.2717;
1366.5000;0.7481;1.2813;
1366.8000;0.7481;1.2837;
1367.1000;0.7432;1.2717;
1367.4000;0.7481;1.2741;
1367.7000;0.7473;1.2596;
1368.0000;0.7473;1.2523;
1368.3000;0.7497;1.2644;
1368.6000;0.7481;1.2596;
1368.9000;0.7481;1.2572;
1369.2000;0.7473;1.2499;
1369.5000;0.7456;1.2523;
1369.8000;0.7481;1.2596;
1370.1000;0.7473;1.2644;
1370.4000;0.7497;1.2741;
1370.7000;0.7407;1.2572;
1371.0000;0.7473;1.2741;
1371.3000;0.7464;1.2741;
1371.6000;0.7497;1.2765;
1371.9000;0.7481;1.2741;
1372.2000;0.7473;1.2692;
1372.5000;0.7497;1.2741;
1372.8000;0.7473;1.2765;
1373.1000;0.7456;1.2644;
1373.4000;0.7595;1.2982;
1373.7000;0.7473;1.2620;
1374.0000;0.7473;1.2741;
1374.3000;0.7424;1.2547;
1374.6000;0.7440;1.2620;
1374.9000;0.7456;1.2620;
1375.2000;0.7448;1.2596;
1375.5000;0.7473;1.2523;
1375.8000;0.7464;1.2547;
1376.1000;0.7481;1.2523;
1376.4000;0.7489;1.2596;
1376.7000;0.7481;1.2572;
1377.0000;0.7497;1.2717;
1377.3000;0.7481;1.2668;
1377.6000;0.7464;1.2620;
1377.9000;0.7456;1.2620;
1378.2000;0.7481;1.2572;
1378.5000;0.7505;1.2572;
1378.8000;0.7489;1.2572;
1379.1000;0.7481;1.2475;
1379.4000;0.7464;1.2475;
1379.7000;0.7481;1.2620;
1380.0000;0.7473;1.2620;
1380.3000;0.7473;1.2620;
1380.6000;0.7481;1.2692;
1380.9000;0.7481;1.2644;
1381.2000;0.7456;1.2620;
1381.5000;0.7456;1.2668;
1381.8000;0.7473;1.2620;
1382.1000;0.7489;1.2668;
1382.4000;0.7473;1.2547;
1382.7000;0.7448;1.2499;
1383.0000;0.7481;1.2620;
1383.3000;0.7489;1.2668;
1383.6000;0.7473;1.2572;
1383.9000;0.7464;1.2596;
1384.2000;0.7473;1.2644;
1384.5000;0.7481;1.2644;
1384.8000;0.7473;1.2596;
1385.1000;0.7448;1.2620;
1385.4000;0.7464;1.2644;
1385.7000;0.7481;1.2692;
1386.0000;0.7489;1.2692;
1386.3000;0.7448;1.2596;
1386.6000;0.7481;1.2692;
1386.9000;0.7464;1.2692;
1387.2000;0.7489;1.2765;
1387.5000;0.7473;1.2692;
1387.8000;0.7456;1.2644;
1388.1000;0.7464;1.2547;
1388.4000;0.7489;1.2596;
1388.7000;0.7473;1.2572;
1389.0000;0.7464;1.2596;
1389.3000;0.7456;1.2547;
1389.6000;0.7489;1.2620;
1389.9000;0.7473;1.2547;
1390.2000;0.7473;1.2572;
1390.5000;0.7481;1.2523;
1390.8000;0.7473;1.2596;
1391.1000;0.7481;1.2523;
1391.4000;0.7464;1.2523;
1391.7000;0.7481;1.2523;
1392.0000;0.7489;1.2596;
1392.3000;0.7497;1.2620;
1392.6000;0.7489;1.2644;
1392.9000;0.7473;1.2692;
1393.2000;0.7497;1.2644;
1393.5000;0.7473;1.2596;
1393.8000;0.7473;1.2523;
1394.1000;0.7473;1.2572;
1394.4000;0.7473;1.2596;
1394.7000;0.7481;1.2547;
1395.0000;0.7473;1.2523;
1395.3000;0.7489;1.2451;
1395.6000;0.7456;1.2306;
1395.9000;0.7473;1.2475;
1396.2000;0.7481;1.2523;
1396.5000;0.7464;1.2523;
1396.8000;0.7448;1.2523;
1397.1000;0.7440;1.2499;
1397.4000;0.7464;1.2620;
1397.7000;0.7464;1.2596;
1398.0000;0.7448;1.2475;
1398.3000;0.7464;1.2475;
1398.6000;0.7456;1.2402;
1398.9000;0.7456;1.2402;
1399.2000;0.7473;1.2451;
1399.5000;0.7448;1.2354;
1399.8000;0.7464;1.2402;
