time/ms;Fluo/V;P700 deltaI/I x10³;
-199.8000;0.9418;1.4409;
-199.5000;0.9385;1.4312;
-199.2000;0.9402;1.4312;
-198.9000;0.9418;1.4336;
-198.6000;0.9402;1.4215;
-198.3000;0.9402;1.4215;
-198.0000;0.9385;1.4215;
-197.7000;0.9394;1.4119;
-197.4000;0.9385;1.4143;
-197.1000;0.9394;1.4215;
-196.8000;0.9377;1.4240;
-196.5000;0.9385;1.4385;
-196.2000;0.9385;1.4433;
-195.9000;0.9394;1.4361;
-195.6000;0.9418;1.4433;
-195.3000;0.9361;1.4385;
-195.0000;0.9402;1.4409;
-194.7000;0.9369;1.4457;
-194.4000;0.9442;1.4626;
-194.1000;0.9385;1.4457;
-193.8000;0.9410;1.4506;
-193.5000;0.9385;1.4530;
-193.2000;0.9402;1.4530;
-192.9000;0.9410;1.4433;
-192.6000;0.9402;1.4457;
-192.3000;0.9418;1.4578;
-192.0000;0.9402;1.4554;
-191.7000;0.9394;1.4433;
-191.4000;0.9418;1.4530;
-191.1000;0.9402;1.4530;
-190.8000;0.9394;1.4506;
-190.5000;0.9451;1.4602;
-190.2000;0.9402;1.4506;
-189.9000;0.9426;1.4506;
-189.6000;0.9418;1.4433;
-189.3000;0.9459;1.4578;
-189.0000;0.9402;1.4385;
-188.7000;0.9410;1.4385;
-188.4000;0.9426;1.4506;
-188.1000;0.9402;1.4481;
-187.8000;0.9345;1.4288;
-187.5000;0.9402;1.4409;
-187.2000;0.9434;1.4481;
-186.9000;0.9418;1.4409;
-186.6000;0.9418;1.4385;
-186.3000;0.9328;1.4361;
-186.0000;0.9402;1.4530;
-185.7000;0.9402;1.4530;
-185.4000;0.9353;1.4361;
-185.1000;0.9377;1.4409;
-184.8000;0.9426;1.4530;
-184.5000;0.9410;1.4506;
-184.2000;0.9385;1.4457;
-183.9000;0.9385;1.4481;
-183.6000;0.9402;1.4506;
-183.3000;0.9394;1.4481;
-183.0000;0.9402;1.4457;
-182.7000;0.9377;1.4385;
-182.4000;0.9312;1.4119;
-182.1000;0.9402;1.4264;
-181.8000;0.9377;1.4264;
-181.5000;0.9418;1.4385;
-181.2000;0.9402;1.4361;
-180.9000;0.9451;1.4457;
-180.6000;0.9394;1.4336;
-180.3000;0.9451;1.4457;
-180.0000;0.9402;1.4312;
-179.7000;0.9402;1.4336;
-179.4000;0.9402;1.4336;
-179.1000;0.9385;1.4361;
-178.8000;0.9385;1.4361;
-178.5000;0.9402;1.4433;
-178.2000;0.9410;1.4409;
-177.9000;0.9434;1.4481;
-177.6000;0.9442;1.4530;
-177.3000;0.9410;1.4312;
-177.0000;0.9312;1.4070;
-176.7000;0.9426;1.4457;
-176.4000;0.9442;1.4457;
-176.1000;0.9410;1.4240;
-175.8000;0.9434;1.4433;
-175.5000;0.9345;1.4143;
-175.2000;0.9394;1.4264;
-174.9000;0.9385;1.4288;
-174.6000;0.9442;1.4409;
-174.3000;0.9442;1.4409;
-174.0000;0.9377;1.4240;
-173.7000;0.9361;1.4264;
-173.4000;0.9410;1.4336;
-173.1000;0.9402;1.4288;
-172.8000;0.9410;1.4312;
-172.5000;0.9377;1.4191;
-172.2000;0.9394;1.4264;
-171.9000;0.9410;1.4264;
-171.6000;0.9385;1.4264;
-171.3000;0.9402;1.4312;
-171.0000;0.9410;1.4385;
-170.7000;0.9385;1.4336;
-170.4000;0.9402;1.4361;
-170.1000;0.9369;1.4312;
-169.8000;0.9410;1.4361;
-169.5000;0.9410;1.4361;
-169.2000;0.9385;1.4191;
-168.9000;0.9402;1.4215;
-168.6000;0.9394;1.4312;
-168.3000;0.9426;1.4457;
-168.0000;0.9394;1.4385;
-167.7000;0.9410;1.4409;
-167.4000;0.9385;1.4361;
-167.1000;0.9394;1.4361;
-166.8000;0.9385;1.4312;
-166.5000;0.9499;1.4602;
-166.2000;0.9434;1.4409;
-165.9000;0.9402;1.4457;
-165.6000;0.9402;1.4433;
-165.3000;0.9361;1.4336;
-165.0000;0.9345;1.4288;
-164.7000;0.9377;1.4361;
-164.4000;0.9369;1.4336;
-164.1000;0.9467;1.4530;
-163.8000;0.9410;1.4361;
-163.5000;0.9369;1.4264;
-163.2000;0.9369;1.4143;
-162.9000;0.9418;1.4288;
-162.6000;0.9418;1.4191;
-162.3000;0.9410;1.4215;
-162.0000;0.9418;1.4361;
-161.7000;0.9394;1.4361;
-161.4000;0.9385;1.4361;
-161.1000;0.9377;1.4336;
-160.8000;0.9369;1.4312;
-160.5000;0.9434;1.4409;
-160.2000;0.9361;1.4167;
-159.9000;0.9394;1.4143;
-159.6000;0.9361;1.3998;
-159.3000;0.9369;1.4095;
-159.0000;0.9410;1.4215;
-158.7000;0.9418;1.4312;
-158.4000;0.9467;1.4409;
-158.1000;0.9410;1.4361;
-157.8000;0.9402;1.4336;
-157.5000;0.9410;1.4385;
-157.2000;0.9418;1.4481;
-156.9000;0.9426;1.4409;
-156.6000;0.9418;1.4457;
-156.3000;0.9459;1.4506;
-156.0000;0.9402;1.4385;
-155.7000;0.9410;1.4481;
-155.4000;0.9426;1.4385;
-155.1000;0.9394;1.4288;
-154.8000;0.9369;1.4215;
-154.5000;0.9394;1.4361;
-154.2000;0.9394;1.4336;
-153.9000;0.9434;1.4385;
-153.6000;0.9410;1.4312;
-153.3000;0.9410;1.4264;
-153.0000;0.9434;1.4288;
-152.7000;0.9418;1.4264;
-152.4000;0.9402;1.4240;
-152.1000;0.9418;1.4264;
-151.8000;0.9410;1.4312;
-151.5000;0.9394;1.4240;
-151.2000;0.9402;1.4240;
-150.9000;0.9394;1.4288;
-150.6000;0.9394;1.4264;
-150.3000;0.9459;1.4530;
-150.0000;0.9418;1.4433;
-149.7000;0.9394;1.4481;
-149.4000;0.9402;1.4530;
-149.1000;0.9418;1.4506;
-148.8000;0.9426;1.4602;
-148.5000;0.9385;1.4554;
-148.2000;0.9402;1.4602;
-147.9000;0.9402;1.4554;
-147.6000;0.9385;1.4530;
-147.3000;0.9418;1.4554;
-147.0000;0.9418;1.4506;
-146.7000;0.9434;1.4457;
-146.4000;0.9426;1.4481;
-146.1000;0.9394;1.4409;
-145.8000;0.9410;1.4433;
-145.5000;0.9434;1.4554;
-145.2000;0.9402;1.4433;
-144.9000;0.9410;1.4433;
-144.6000;0.9451;1.4506;
-144.3000;0.9369;1.4385;
-144.0000;0.9394;1.4385;
-143.7000;0.9369;1.4312;
-143.4000;0.9410;1.4409;
-143.1000;0.9394;1.4385;
-142.8000;0.9410;1.4433;
-142.5000;0.9394;1.4481;
-142.2000;0.9394;1.4433;
-141.9000;0.9385;1.4506;
-141.6000;0.9394;1.4481;
-141.3000;0.9418;1.4530;
-141.0000;0.9394;1.4530;
-140.7000;0.9426;1.4675;
-140.4000;0.9394;1.4723;
-140.1000;0.9394;1.4602;
-139.8000;0.9377;1.4530;
-139.5000;0.9353;1.4530;
-139.2000;0.9394;1.4554;
-138.9000;0.9410;1.4651;
-138.6000;0.9402;1.4675;
-138.3000;0.9361;1.4626;
-138.0000;0.9410;1.4651;
-137.7000;0.9459;1.4747;
-137.4000;0.9434;1.4578;
-137.1000;0.9410;1.4481;
-136.8000;0.9394;1.4554;
-136.5000;0.9394;1.4602;
-136.2000;0.9418;1.4699;
-135.9000;0.9418;1.4699;
-135.6000;0.9369;1.4506;
-135.3000;0.9499;1.4844;
-135.0000;0.9394;1.4530;
-134.7000;0.9426;1.4602;
-134.4000;0.9475;1.4723;
-134.1000;0.9402;1.4554;
-133.8000;0.9394;1.4530;
-133.5000;0.9410;1.4530;
-133.2000;0.9394;1.4506;
-132.9000;0.9385;1.4554;
-132.6000;0.9426;1.4651;
-132.3000;0.9402;1.4578;
-132.0000;0.9402;1.4578;
-131.7000;0.9377;1.4554;
-131.4000;0.9385;1.4651;
-131.1000;0.9361;1.4651;
-130.8000;0.9402;1.4772;
-130.5000;0.9385;1.4699;
-130.2000;0.9394;1.4675;
-129.9000;0.9394;1.4675;
-129.6000;0.9385;1.4602;
-129.3000;0.9402;1.4530;
-129.0000;0.9394;1.4481;
-128.7000;0.9385;1.4530;
-128.4000;0.9304;1.4385;
-128.1000;0.9394;1.4554;
-127.8000;0.9402;1.4578;
-127.5000;0.9394;1.4578;
-127.2000;0.9385;1.4602;
-126.9000;0.9434;1.4651;
-126.6000;0.9385;1.4481;
-126.3000;0.9385;1.4481;
-126.0000;0.9418;1.4602;
-125.7000;0.9434;1.4602;
-125.4000;0.9418;1.4554;
-125.1000;0.9426;1.4554;
-124.8000;0.9418;1.4530;
-124.5000;0.9385;1.4457;
-124.2000;0.9385;1.4554;
-123.9000;0.9410;1.4554;
-123.6000;0.9410;1.4578;
-123.3000;0.9475;1.4844;
-123.0000;0.9402;1.4626;
-122.7000;0.9377;1.4554;
-122.4000;0.9426;1.4675;
-122.1000;0.9369;1.4554;
-121.8000;0.9402;1.4530;
-121.5000;0.9402;1.4481;
-121.2000;0.9442;1.4602;
-120.9000;0.9410;1.4481;
-120.6000;0.9337;1.4361;
-120.3000;0.9385;1.4433;
-120.0000;0.9394;1.4530;
-119.7000;0.9369;1.4506;
-119.4000;0.9410;1.4506;
-119.1000;0.9288;1.4264;
-118.8000;0.9402;1.4530;
-118.5000;0.9410;1.4530;
-118.2000;0.9426;1.4530;
-117.9000;0.9361;1.4385;
-117.6000;0.9385;1.4457;
-117.3000;0.9402;1.4457;
-117.0000;0.9410;1.4457;
-116.7000;0.9410;1.4433;
-116.4000;0.9410;1.4457;
-116.1000;0.9410;1.4481;
-115.8000;0.9369;1.4457;
-115.5000;0.9385;1.4385;
-115.2000;0.9377;1.4336;
-114.9000;0.9418;1.4361;
-114.6000;0.9418;1.4288;
-114.3000;0.9418;1.4361;
-114.0000;0.9402;1.4361;
-113.7000;0.9418;1.4409;
-113.4000;0.9418;1.4481;
-113.1000;0.9418;1.4433;
-112.8000;0.9402;1.4336;
-112.5000;0.9402;1.4240;
-112.2000;0.9402;1.4240;
-111.9000;0.9402;1.4240;
-111.6000;0.9394;1.4312;
-111.3000;0.9345;1.4167;
-111.0000;0.9402;1.4361;
-110.7000;0.9385;1.4361;
-110.4000;0.9410;1.4385;
-110.1000;0.9402;1.4385;
-109.8000;0.9377;1.4385;
-109.5000;0.9385;1.4409;
-109.2000;0.9402;1.4433;
-108.9000;0.9402;1.4457;
-108.6000;0.9394;1.4433;
-108.3000;0.9410;1.4385;
-108.0000;0.9394;1.4361;
-107.7000;0.9377;1.4361;
-107.4000;0.9402;1.4433;
-107.1000;0.9402;1.4457;
-106.8000;0.9410;1.4554;
-106.5000;0.9402;1.4530;
-106.2000;0.9483;1.4844;
-105.9000;0.9426;1.4723;
-105.6000;0.9426;1.4626;
-105.3000;0.9385;1.4481;
-105.0000;0.9377;1.4481;
-104.7000;0.9377;1.4433;
-104.4000;0.9377;1.4385;
-104.1000;0.9410;1.4385;
-103.8000;0.9402;1.4288;
-103.5000;0.9402;1.4240;
-103.2000;0.9418;1.4167;
-102.9000;0.9434;1.4191;
-102.6000;0.9394;1.4167;
-102.3000;0.9418;1.4191;
-102.0000;0.9410;1.4240;
-101.7000;0.9459;1.4336;
-101.4000;0.9410;1.4215;
-101.1000;0.9410;1.4240;
-100.8000;0.9394;1.4191;
-100.5000;0.9402;1.4288;
-100.2000;0.9377;1.4167;
-99.9000;0.9385;1.4167;
-99.6000;0.9418;1.4215;
-99.3000;0.9345;1.4070;
-99.0000;0.9385;1.4167;
-98.7000;0.9410;1.4240;
-98.4000;0.9369;1.4143;
-98.1000;0.9451;1.4264;
-97.8000;0.9394;1.4264;
-97.5000;0.9353;1.4167;
-97.2000;0.9361;1.4264;
-96.9000;0.9394;1.4264;
-96.6000;0.9508;1.4506;
-96.3000;0.9377;1.4215;
-96.0000;0.9377;1.4191;
-95.7000;0.9394;1.4167;
-95.4000;0.9410;1.4191;
-95.1000;0.9402;1.4215;
-94.8000;0.9369;1.4143;
-94.5000;0.9402;1.4264;
-94.2000;0.9410;1.4288;
-93.9000;0.9418;1.4336;
-93.6000;0.9394;1.4264;
-93.3000;0.9418;1.4409;
-93.0000;0.9491;1.4506;
-92.7000;0.9402;1.4336;
-92.4000;0.9410;1.4336;
-92.1000;0.9394;1.4312;
-91.8000;0.9402;1.4312;
-91.5000;0.9394;1.4264;
-91.2000;0.9394;1.4215;
-90.9000;0.9320;1.3974;
-90.6000;0.9418;1.4095;
-90.3000;0.9402;1.4095;
-90.0000;0.9402;1.4095;
-89.7000;0.9394;1.4143;
-89.4000;0.9369;1.4095;
-89.1000;0.9402;1.4095;
-88.8000;0.9377;1.4119;
-88.5000;0.9410;1.4167;
-88.2000;0.9418;1.4191;
-87.9000;0.9426;1.4288;
-87.6000;0.9426;1.4240;
-87.3000;0.9402;1.4288;
-87.0000;0.9418;1.4288;
-86.7000;0.9410;1.4336;
-86.4000;0.9402;1.4215;
-86.1000;0.9402;1.4215;
-85.8000;0.9361;1.4215;
-85.5000;0.9402;1.4336;
-85.2000;0.9394;1.4409;
-84.9000;0.9394;1.4361;
-84.6000;0.9410;1.4409;
-84.3000;0.9394;1.4336;
-84.0000;0.9410;1.4240;
-83.7000;0.9410;1.4191;
-83.4000;0.9394;1.4215;
-83.1000;0.9402;1.4191;
-82.8000;0.9426;1.4264;
-82.5000;0.9394;1.4215;
-82.2000;0.9394;1.4167;
-81.9000;0.9402;1.4167;
-81.6000;0.9394;1.4191;
-81.3000;0.9442;1.4361;
-81.0000;0.9410;1.4240;
-80.7000;0.9402;1.4167;
-80.4000;0.9410;1.4312;
-80.1000;0.9402;1.4240;
-79.8000;0.9377;1.4240;
-79.5000;0.9402;1.4191;
-79.2000;0.9385;1.4143;
-78.9000;0.9385;1.4095;
-78.6000;0.9385;1.4191;
-78.3000;0.9369;1.4119;
-78.0000;0.9402;1.4167;
-77.7000;0.9410;1.4119;
-77.4000;0.9418;1.4095;
-77.1000;0.9394;1.3950;
-76.8000;0.9369;1.3877;
-76.5000;0.9402;1.3925;
-76.2000;0.9410;1.3974;
-75.9000;0.9385;1.4022;
-75.6000;0.9385;1.4119;
-75.3000;0.9369;1.4143;
-75.0000;0.9385;1.4215;
-74.7000;0.9394;1.4288;
-74.4000;0.9385;1.4264;
-74.1000;0.9402;1.4312;
-73.8000;0.9402;1.4336;
-73.5000;0.9402;1.4336;
-73.2000;0.9385;1.4361;
-72.9000;0.9394;1.4361;
-72.6000;0.9385;1.4312;
-72.3000;0.9418;1.4385;
-72.0000;0.9385;1.4336;
-71.7000;0.9377;1.4336;
-71.4000;0.9410;1.4457;
-71.1000;0.9377;1.4409;
-70.8000;0.9385;1.4336;
-70.5000;0.9394;1.4288;
-70.2000;0.9410;1.4336;
-69.9000;0.9394;1.4312;
-69.6000;0.9377;1.4215;
-69.3000;0.9410;1.4264;
-69.0000;0.9402;1.4312;
-68.7000;0.9394;1.4336;
-68.4000;0.9377;1.4312;
-68.1000;0.9402;1.4312;
-67.8000;0.9426;1.4361;
-67.5000;0.9410;1.4312;
-67.2000;0.9394;1.4288;
-66.9000;0.9394;1.4336;
-66.6000;0.9402;1.4385;
-66.3000;0.9410;1.4385;
-66.0000;0.9394;1.4409;
-65.7000;0.9418;1.4361;
-65.4000;0.9312;1.4119;
-65.1000;0.9402;1.4361;
-64.8000;0.9402;1.4409;
-64.5000;0.9361;1.4409;
-64.2000;0.9394;1.4457;
-63.9000;0.9402;1.4506;
-63.6000;0.9402;1.4506;
-63.3000;0.9394;1.4433;
-63.0000;0.9402;1.4433;
-62.7000;0.9377;1.4385;
-62.4000;0.9377;1.4457;
-62.1000;0.9402;1.4433;
-61.8000;0.9410;1.4433;
-61.5000;0.9410;1.4433;
-61.2000;0.9402;1.4433;
-60.9000;0.9353;1.4385;
-60.6000;0.9410;1.4481;
-60.3000;0.9442;1.4626;
-60.0000;0.9377;1.4506;
-59.7000;0.9394;1.4530;
-59.4000;0.9361;1.4409;
-59.1000;0.9385;1.4457;
-58.8000;0.9385;1.4530;
-58.5000;0.9402;1.4626;
-58.2000;0.9402;1.4602;
-57.9000;0.9394;1.4578;
-57.6000;0.9402;1.4602;
-57.3000;0.9426;1.4651;
-57.0000;0.9394;1.4530;
-56.7000;0.9402;1.4530;
-56.4000;0.9361;1.4530;
-56.1000;0.9410;1.4602;
-55.8000;0.9385;1.4602;
-55.5000;0.9385;1.4506;
-55.2000;0.9385;1.4481;
-54.9000;0.9402;1.4530;
-54.6000;0.9418;1.4554;
-54.3000;0.9402;1.4481;
-54.0000;0.9410;1.4626;
-53.7000;0.9418;1.4602;
-53.4000;0.9402;1.4602;
-53.1000;0.9410;1.4578;
-52.8000;0.9410;1.4651;
-52.5000;0.9394;1.4626;
-52.2000;0.9426;1.4651;
-51.9000;0.9434;1.4675;
-51.6000;0.9418;1.4530;
-51.3000;0.9337;1.4264;
-51.0000;0.9410;1.4457;
-50.7000;0.9394;1.4481;
-50.4000;0.9394;1.4481;
-50.1000;0.9394;1.4457;
-49.8000;0.9304;1.4240;
-49.5000;0.9402;1.4457;
-49.2000;0.9394;1.4433;
-48.9000;0.9385;1.4530;
-48.6000;0.9394;1.4530;
-48.3000;0.9426;1.4651;
-48.0000;0.9385;1.4530;
-47.7000;0.9410;1.4506;
-47.4000;0.9385;1.4409;
-47.1000;0.9475;1.4602;
-46.8000;0.9410;1.4361;
-46.5000;0.9385;1.4336;
-46.2000;0.9394;1.4361;
-45.9000;0.9361;1.4240;
-45.6000;0.9385;1.4240;
-45.3000;0.9418;1.4240;
-45.0000;0.9337;1.4119;
-44.7000;0.9418;1.4409;
-44.4000;0.9385;1.4457;
-44.1000;0.9402;1.4506;
-43.8000;0.9369;1.4409;
-43.5000;0.9377;1.4409;
-43.2000;0.9328;1.4312;
-42.9000;0.9385;1.4361;
-42.6000;0.9394;1.4433;
-42.3000;0.9369;1.4433;
-42.0000;0.9402;1.4481;
-41.7000;0.9394;1.4481;
-41.4000;0.9475;1.4651;
-41.1000;0.9418;1.4578;
-40.8000;0.9434;1.4554;
-40.5000;0.9499;1.4626;
-40.2000;0.9385;1.4336;
-39.9000;0.9410;1.4409;
-39.6000;0.9410;1.4409;
-39.3000;0.9426;1.4361;
-39.0000;0.9410;1.4288;
-38.7000;0.9377;1.4312;
-38.4000;0.9385;1.4409;
-38.1000;0.9402;1.4481;
-37.8000;0.9426;1.4554;
-37.5000;0.9385;1.4530;
-37.2000;0.9451;1.4602;
-36.9000;0.9385;1.4433;
-36.6000;0.9434;1.4530;
-36.3000;0.9491;1.4651;
-36.0000;0.9402;1.4578;
-35.7000;0.9377;1.4506;
-35.4000;0.9418;1.4578;
-35.1000;0.9377;1.4578;
-34.8000;0.9361;1.4554;
-34.5000;0.9361;1.4530;
-34.2000;0.9394;1.4651;
-33.9000;0.9377;1.4554;
-33.6000;0.9377;1.4481;
-33.3000;0.9402;1.4530;
-33.0000;0.9385;1.4578;
-32.7000;0.9361;1.4602;
-32.4000;0.9385;1.4651;
-32.1000;0.9402;1.4626;
-31.8000;0.9394;1.4651;
-31.5000;0.9402;1.4651;
-31.2000;0.9402;1.4530;
-30.9000;0.9394;1.4506;
-30.6000;0.9418;1.4530;
-30.3000;0.9418;1.4554;
-30.0000;0.9410;1.4626;
-29.7000;0.9467;1.4772;
-29.4000;0.9410;1.4699;
-29.1000;0.9434;1.4675;
-28.8000;0.9394;1.4602;
-28.5000;0.9394;1.4626;
-28.2000;0.9442;1.4602;
-27.9000;0.9394;1.4554;
-27.6000;0.9385;1.4433;
-27.3000;0.9385;1.4409;
-27.0000;0.9402;1.4385;
-26.7000;0.9402;1.4385;
-26.4000;0.9402;1.4312;
-26.1000;0.9385;1.4288;
-25.8000;0.9394;1.4409;
-25.5000;0.9410;1.4457;
-25.2000;0.9451;1.4602;
-24.9000;0.9418;1.4530;
-24.6000;0.9402;1.4481;
-24.3000;0.9402;1.4554;
-24.0000;0.9410;1.4626;
-23.7000;0.9402;1.4554;
-23.4000;0.9410;1.4457;
-23.1000;0.9426;1.4530;
-22.8000;0.9410;1.4457;
-22.5000;0.9361;1.4481;
-22.2000;0.9402;1.4554;
-21.9000;0.9394;1.4602;
-21.6000;0.9418;1.4723;
-21.3000;0.9394;1.4675;
-21.0000;0.9385;1.4723;
-20.7000;0.9418;1.4747;
-20.4000;0.9410;1.4626;
-20.1000;0.9410;1.4481;
-19.8000;0.9418;1.4626;
-19.5000;0.9369;1.4554;
-19.2000;0.9410;1.4554;
-18.9000;0.9402;1.4578;
-18.6000;0.9394;1.4578;
-18.3000;0.9394;1.4530;
-18.0000;0.9385;1.4578;
-17.7000;0.9402;1.4626;
-17.4000;0.9385;1.4481;
-17.1000;0.9394;1.4457;
-16.8000;0.9394;1.4409;
-16.5000;0.9418;1.4481;
-16.2000;0.9402;1.4433;
-15.9000;0.9394;1.4433;
-15.6000;0.9385;1.4457;
-15.3000;0.9499;1.4626;
-15.0000;0.9402;1.4385;
-14.7000;0.9394;1.4409;
-14.4000;0.9353;1.4336;
-14.1000;0.9402;1.4506;
-13.8000;0.9410;1.4506;
-13.5000;0.9410;1.4602;
-13.2000;0.9361;1.4578;
-12.9000;0.9402;1.4578;
-12.6000;0.9385;1.4530;
-12.3000;0.9385;1.4530;
-12.0000;0.9394;1.4457;
-11.7000;0.9377;1.4312;
-11.4000;0.9402;1.4336;
-11.1000;0.9353;1.4240;
-10.8000;0.9369;1.4336;
-10.5000;0.9385;1.4385;
-10.2000;0.9483;1.4602;
-9.9000;0.9385;1.4433;
-9.6000;0.9410;1.4554;
-9.3000;0.9385;1.4457;
-9.0000;0.9418;1.4457;
-8.7000;0.9385;1.4433;
-8.4000;0.9402;1.4481;
-8.1000;0.9426;1.4506;
-7.8000;0.9418;1.4409;
-7.5000;0.9402;1.4506;
-7.2000;0.9451;1.4651;
-6.9000;0.9361;1.4481;
-6.6000;0.9451;1.4602;
-6.3000;0.9426;1.4578;
-6.0000;0.9410;1.4578;
-5.7000;0.9556;1.4892;
-5.4000;0.9418;1.4651;
-5.1000;0.9442;1.4675;
-4.8000;0.9451;1.4651;
-4.5000;0.9410;1.4530;
-4.2000;0.9377;1.4481;
-3.9000;0.9418;1.4651;
-3.6000;0.9418;1.4675;
-3.3000;0.9410;1.4626;
-3.0000;0.9426;1.4723;
-2.7000;0.9418;1.4796;
-2.4000;0.9418;1.4723;
-2.1000;0.9394;1.4626;
-1.8000;0.9385;1.4554;
-1.5000;0.9410;1.4481;
-1.2000;0.9394;1.4433;
-0.9000;0.9410;1.4433;
-0.6000;0.9426;1.4481;
-0.3000;0.9426;1.4506;
0.0000;0.9426;1.4506;
0.3000;0.9508;1.4554;
0.6000;0.9727;1.4844;
0.9000;0.9923;1.5207;
1.2000;1.0118;1.5642;
1.5000;1.0208;1.5835;
1.8000;1.0305;1.6125;
2.1000;1.0395;1.6367;
2.4000;1.0484;1.6536;
2.7000;1.0533;1.6657;
3.0000;1.0574;1.6706;
3.3000;1.0598;1.6730;
3.6000;1.0655;1.6947;
3.9000;1.0688;1.6996;
4.2000;1.0704;1.7044;
4.5000;1.0753;1.7044;
4.8000;1.0753;1.7068;
5.1000;1.0777;1.7165;
5.4000;1.0810;1.7237;
5.7000;1.0818;1.7334;
6.0000;1.0826;1.7431;
6.3000;1.0851;1.7407;
6.6000;1.0867;1.7358;
6.9000;1.0883;1.7310;
7.2000;1.0899;1.7286;
7.5000;1.0932;1.7358;
7.8000;1.0924;1.7358;
8.1000;1.0916;1.7286;
8.4000;1.0948;1.7262;
8.7000;1.0981;1.7407;
9.0000;1.0989;1.7455;
9.3000;1.1005;1.7455;
9.6000;1.1005;1.7552;
9.9000;1.1013;1.7528;
10.2000;1.0989;1.7431;
10.5000;1.0997;1.7358;
10.8000;1.0924;1.7141;
11.1000;1.1022;1.7358;
11.4000;1.1046;1.7262;
11.7000;1.1062;1.7310;
12.0000;1.1095;1.7262;
12.3000;1.1070;1.7189;
12.6000;1.1070;1.7189;
12.9000;1.1095;1.7141;
13.2000;1.1095;1.7237;
13.5000;1.1168;1.7407;
13.8000;1.1103;1.7165;
14.1000;1.1095;1.7189;
14.4000;1.1144;1.7310;
14.7000;1.1127;1.7262;
15.0000;1.1136;1.7334;
15.3000;1.1144;1.7310;
15.6000;1.1152;1.7358;
15.9000;1.1127;1.7310;
16.2000;1.1160;1.7334;
16.5000;1.1258;1.7479;
16.8000;1.1184;1.7286;
17.1000;1.1095;1.7068;
17.4000;1.1184;1.7262;
17.7000;1.1201;1.7286;
18.0000;1.1209;1.7237;
18.3000;1.1209;1.7262;
18.6000;1.1217;1.7262;
18.9000;1.1225;1.7358;
19.2000;1.1233;1.7479;
19.5000;1.1249;1.7503;
19.8000;1.1241;1.7431;
20.1000;1.1258;1.7503;
20.4000;1.1266;1.7455;
20.7000;1.1249;1.7383;
21.0000;1.1274;1.7431;
21.3000;1.1225;1.7262;
21.6000;1.1249;1.7286;
21.9000;1.1241;1.7237;
22.2000;1.1258;1.7213;
22.5000;1.1274;1.7237;
22.8000;1.1266;1.7334;
23.1000;1.1298;1.7334;
23.4000;1.1274;1.7334;
23.7000;1.1290;1.7237;
24.0000;1.1298;1.7383;
24.3000;1.1306;1.7455;
24.6000;1.1298;1.7552;
24.9000;1.1306;1.7431;
25.2000;1.1298;1.7383;
25.5000;1.1298;1.7334;
25.8000;1.1306;1.7334;
26.1000;1.1290;1.7358;
26.4000;1.1282;1.7310;
26.7000;1.1249;1.7286;
27.0000;1.1290;1.7334;
27.3000;1.1290;1.7286;
27.6000;1.1315;1.7213;
27.9000;1.1323;1.7213;
28.2000;1.1323;1.7237;
28.5000;1.1323;1.7141;
28.8000;1.1315;1.7237;
29.1000;1.1331;1.7310;
29.4000;1.1339;1.7262;
29.7000;1.1323;1.7141;
30.0000;1.1315;1.7141;
30.3000;1.1323;1.7262;
30.6000;1.1306;1.7213;
30.9000;1.1347;1.7334;
31.2000;1.1323;1.7286;
31.5000;1.1331;1.7262;
31.8000;1.1282;1.7165;
32.1000;1.1331;1.7213;
32.4000;1.1347;1.7141;
32.7000;1.1420;1.7407;
33.0000;1.1355;1.7262;
33.3000;1.1355;1.7213;
33.6000;1.1363;1.7141;
33.9000;1.1380;1.7141;
34.2000;1.1380;1.7165;
34.5000;1.1412;1.7213;
34.8000;1.1331;1.7044;
35.1000;1.1331;1.7165;
35.4000;1.1461;1.7479;
35.7000;1.1429;1.7455;
36.0000;1.1339;1.7141;
36.3000;1.1339;1.7141;
36.6000;1.1372;1.7141;
36.9000;1.1315;1.6996;
37.2000;1.1380;1.7165;
37.5000;1.1355;1.7141;
37.8000;1.1388;1.7189;
38.1000;1.1372;1.7141;
38.4000;1.1380;1.7165;
38.7000;1.1380;1.7165;
39.0000;1.1372;1.7092;
39.3000;1.1388;1.7189;
39.6000;1.1380;1.7165;
39.9000;1.1372;1.7141;
40.2000;1.1355;1.7117;
40.5000;1.1372;1.7117;
40.8000;1.1347;1.7044;
41.1000;1.1363;1.7117;
41.4000;1.1412;1.7092;
41.7000;1.1380;1.6972;
42.0000;1.1363;1.6947;
42.3000;1.1380;1.7068;
42.6000;1.1372;1.7044;
42.9000;1.1388;1.7117;
43.2000;1.1363;1.7044;
43.5000;1.1420;1.7068;
43.8000;1.1388;1.7044;
44.1000;1.1372;1.7117;
44.4000;1.1396;1.7117;
44.7000;1.1306;1.6972;
45.0000;1.1372;1.7117;
45.3000;1.1363;1.7068;
45.6000;1.1363;1.7092;
45.9000;1.1396;1.7068;
46.2000;1.1363;1.7020;
46.5000;1.1372;1.7068;
46.8000;1.1347;1.7068;
47.1000;1.1388;1.7068;
47.4000;1.1363;1.6875;
47.7000;1.1347;1.6899;
48.0000;1.1372;1.6996;
48.3000;1.1372;1.7044;
48.6000;1.1396;1.7141;
48.9000;1.1388;1.7165;
49.2000;1.1388;1.7237;
49.5000;1.1429;1.7213;
49.8000;1.1388;1.7092;
50.1000;1.1388;1.7020;
50.4000;1.1380;1.6996;
50.7000;1.1396;1.7092;
51.0000;1.1412;1.7068;
51.3000;1.1420;1.7141;
51.6000;1.1388;1.7141;
51.9000;1.1355;1.6972;
52.2000;1.1396;1.7020;
52.5000;1.1372;1.6947;
52.8000;1.1380;1.7044;
53.1000;1.1380;1.6947;
53.4000;1.1372;1.6899;
53.7000;1.1412;1.6947;
54.0000;1.1388;1.6923;
54.3000;1.1363;1.6875;
54.6000;1.1404;1.7117;
54.9000;1.1396;1.7044;
55.2000;1.1380;1.6947;
55.5000;1.1404;1.6972;
55.8000;1.1363;1.6851;
56.1000;1.1404;1.6899;
56.4000;1.1404;1.6947;
56.7000;1.1396;1.6996;
57.0000;1.1420;1.7092;
57.3000;1.1412;1.7044;
57.6000;1.1412;1.6996;
57.9000;1.1396;1.6972;
58.2000;1.1412;1.7092;
58.5000;1.1437;1.7117;
58.8000;1.1404;1.7044;
59.1000;1.1420;1.7117;
59.4000;1.1404;1.7141;
59.7000;1.1404;1.7141;
60.0000;1.1404;1.7068;
60.3000;1.1396;1.7092;
60.6000;1.1388;1.7020;
60.9000;1.1396;1.7020;
61.2000;1.1445;1.7189;
61.5000;1.1404;1.6972;
61.8000;1.1388;1.6923;
62.1000;1.1396;1.6947;
62.4000;1.1404;1.6947;
62.7000;1.1404;1.6996;
63.0000;1.1396;1.7068;
63.3000;1.1372;1.6996;
63.6000;1.1388;1.6972;
63.9000;1.1420;1.6972;
64.2000;1.1404;1.6996;
64.5000;1.1396;1.7020;
64.8000;1.1420;1.7020;
65.1000;1.1404;1.7044;
65.4000;1.1404;1.6923;
65.7000;1.1445;1.7068;
66.0000;1.1412;1.7044;
66.3000;1.1339;1.6875;
66.6000;1.1396;1.7092;
66.9000;1.1396;1.7092;
67.2000;1.1412;1.7092;
67.5000;1.1437;1.7141;
67.8000;1.1404;1.7020;
68.1000;1.1404;1.6947;
68.4000;1.1396;1.6899;
68.7000;1.1412;1.6972;
69.0000;1.1380;1.6851;
69.3000;1.1429;1.6826;
69.6000;1.1412;1.6730;
69.9000;1.1412;1.6657;
70.2000;1.1420;1.6681;
70.5000;1.1404;1.6585;
70.8000;1.1404;1.6609;
71.1000;1.1412;1.6657;
71.4000;1.1420;1.6609;
71.7000;1.1404;1.6585;
72.0000;1.1404;1.6633;
72.3000;1.1404;1.6681;
72.6000;1.1396;1.6778;
72.9000;1.1396;1.6923;
73.2000;1.1412;1.7068;
73.5000;1.1469;1.7189;
73.8000;1.1420;1.7044;
74.1000;1.1420;1.7020;
74.4000;1.1404;1.6972;
74.7000;1.1396;1.7020;
75.0000;1.1429;1.7165;
75.3000;1.1388;1.7092;
75.6000;1.1461;1.7165;
75.9000;1.1396;1.6996;
76.2000;1.1363;1.6875;
76.5000;1.1429;1.6947;
76.8000;1.1412;1.6947;
77.1000;1.1429;1.6996;
77.4000;1.1396;1.6923;
77.7000;1.1412;1.6851;
78.0000;1.1429;1.6875;
78.3000;1.1363;1.6706;
78.6000;1.1380;1.6778;
78.9000;1.1396;1.6851;
79.2000;1.1396;1.6899;
79.5000;1.1404;1.6996;
79.8000;1.1429;1.7141;
80.1000;1.1420;1.7044;
80.4000;1.1412;1.6923;
80.7000;1.1420;1.6972;
81.0000;1.1404;1.6851;
81.3000;1.1429;1.6947;
81.6000;1.1372;1.6754;
81.9000;1.1429;1.6947;
82.2000;1.1420;1.6923;
82.5000;1.1429;1.6996;
82.8000;1.1453;1.7092;
83.1000;1.1412;1.6947;
83.4000;1.1412;1.6996;
83.7000;1.1420;1.7092;
84.0000;1.1420;1.7044;
84.3000;1.1429;1.7044;
84.6000;1.1461;1.7068;
84.9000;1.1380;1.6875;
85.2000;1.1437;1.7020;
85.5000;1.1404;1.6923;
85.8000;1.1380;1.6972;
86.1000;1.1412;1.7068;
86.4000;1.1429;1.7068;
86.7000;1.1420;1.6972;
87.0000;1.1404;1.6923;
87.3000;1.1469;1.7092;
87.6000;1.1396;1.6754;
87.9000;1.1469;1.6875;
88.2000;1.1445;1.6754;
88.5000;1.1420;1.6802;
88.8000;1.1412;1.6657;
89.1000;1.1396;1.6657;
89.4000;1.1363;1.6536;
89.7000;1.1306;1.6367;
90.0000;1.1404;1.6585;
90.3000;1.1510;1.6875;
90.6000;1.1404;1.6681;
90.9000;1.1388;1.6730;
91.2000;1.1429;1.6899;
91.5000;1.1453;1.6972;
91.8000;1.1420;1.6947;
92.1000;1.1412;1.7044;
92.4000;1.1412;1.7020;
92.7000;1.1412;1.7092;
93.0000;1.1404;1.7092;
93.3000;1.1429;1.7165;
93.6000;1.1396;1.7092;
93.9000;1.1412;1.7020;
94.2000;1.1437;1.7020;
94.5000;1.1461;1.7020;
94.8000;1.1420;1.6972;
95.1000;1.1420;1.6972;
95.4000;1.1420;1.7020;
95.7000;1.1420;1.6947;
96.0000;1.1412;1.6899;
96.3000;1.1437;1.6899;
96.6000;1.1445;1.6923;
96.9000;1.1453;1.6972;
97.2000;1.1429;1.6947;
97.5000;1.1437;1.6947;
97.8000;1.1404;1.6899;
98.1000;1.1429;1.6996;
98.4000;1.1412;1.6947;
98.7000;1.1477;1.7165;
99.0000;1.1445;1.7117;
99.3000;1.1396;1.7020;
99.6000;1.1388;1.6996;
99.9000;1.1429;1.7068;
100.2000;1.1412;1.7068;
100.5000;1.1420;1.7068;
100.8000;1.1412;1.6972;
101.1000;1.1420;1.6972;
101.4000;1.1404;1.6899;
101.7000;1.1404;1.6972;
102.0000;1.1412;1.6972;
102.3000;1.1372;1.6851;
102.6000;1.1396;1.6826;
102.9000;1.1396;1.6826;
103.2000;1.1396;1.6923;
103.5000;1.1396;1.6996;
103.8000;1.1388;1.6923;
104.1000;1.1420;1.7020;
104.4000;1.1404;1.7092;
104.7000;1.1412;1.7068;
105.0000;1.1355;1.6851;
105.3000;1.1486;1.7165;
105.6000;1.1429;1.6947;
105.9000;1.1437;1.6923;
106.2000;1.1388;1.6851;
106.5000;1.1453;1.6826;
106.8000;1.1477;1.6754;
107.1000;1.1429;1.6681;
107.4000;1.1429;1.6754;
107.7000;1.1412;1.6851;
108.0000;1.1445;1.6972;
108.3000;1.1396;1.6899;
108.6000;1.1380;1.6875;
108.9000;1.1412;1.6972;
109.2000;1.1469;1.7044;
109.5000;1.1437;1.6996;
109.8000;1.1420;1.6851;
110.1000;1.1461;1.6972;
110.4000;1.1396;1.6851;
110.7000;1.1469;1.7068;
111.0000;1.1412;1.6947;
111.3000;1.1453;1.7141;
111.6000;1.1429;1.7068;
111.9000;1.1437;1.7092;
112.2000;1.1420;1.7117;
112.5000;1.1420;1.7092;
112.8000;1.1388;1.7068;
113.1000;1.1420;1.7165;
113.4000;1.1437;1.7213;
113.7000;1.1429;1.7165;
114.0000;1.1396;1.7165;
114.3000;1.1412;1.7213;
114.6000;1.1502;1.7479;
114.9000;1.1412;1.7141;
115.2000;1.1412;1.7165;
115.5000;1.1429;1.7189;
115.8000;1.1404;1.7141;
116.1000;1.1404;1.7068;
116.4000;1.1420;1.7044;
116.7000;1.1396;1.6996;
117.0000;1.1420;1.7068;
117.3000;1.1437;1.7092;
117.6000;1.1412;1.7044;
117.9000;1.1388;1.6972;
118.2000;1.1412;1.6972;
118.5000;1.1420;1.7117;
118.8000;1.1404;1.7044;
119.1000;1.1388;1.7020;
119.4000;1.1412;1.7092;
119.7000;1.1437;1.7141;
120.0000;1.1420;1.7165;
120.3000;1.1396;1.7068;
120.6000;1.1420;1.7189;
120.9000;1.1412;1.7117;
121.2000;1.1429;1.7092;
121.5000;1.1404;1.7092;
121.8000;1.1420;1.7092;
122.1000;1.1429;1.7117;
122.4000;1.1420;1.7092;
122.7000;1.1388;1.6972;
123.0000;1.1412;1.6996;
123.3000;1.1412;1.6996;
123.6000;1.1429;1.7044;
123.9000;1.1396;1.7068;
124.2000;1.1412;1.7068;
124.5000;1.1420;1.7092;
124.8000;1.1420;1.7020;
125.1000;1.1429;1.7141;
125.4000;1.1420;1.7117;
125.7000;1.1372;1.7020;
126.0000;1.1437;1.7092;
126.3000;1.1372;1.6996;
126.6000;1.1445;1.7141;
126.9000;1.1429;1.7092;
127.2000;1.1404;1.7044;
127.5000;1.1461;1.7262;
127.8000;1.1380;1.7189;
128.1000;1.1380;1.7117;
128.4000;1.1486;1.7334;
128.7000;1.1429;1.7141;
129.0000;1.1412;1.7092;
129.3000;1.1380;1.7020;
129.6000;1.1404;1.7020;
129.9000;1.1429;1.7068;
130.2000;1.1477;1.7189;
130.5000;1.1396;1.7068;
130.8000;1.1420;1.7092;
131.1000;1.1445;1.7189;
131.4000;1.1445;1.7141;
131.7000;1.1420;1.7117;
132.0000;1.1437;1.7141;
132.3000;1.1420;1.7092;
132.6000;1.1445;1.7141;
132.9000;1.1412;1.7044;
133.2000;1.1396;1.7020;
133.5000;1.1412;1.7092;
133.8000;1.1429;1.7141;
134.1000;1.1461;1.7213;
134.4000;1.1437;1.7020;
134.7000;1.1445;1.7092;
135.0000;1.1412;1.7044;
135.3000;1.1429;1.7117;
135.6000;1.1429;1.7068;
135.9000;1.1420;1.7213;
136.2000;1.1420;1.7237;
136.5000;1.1437;1.7165;
136.8000;1.1404;1.7141;
137.1000;1.1388;1.7068;
137.4000;1.1510;1.7286;
137.7000;1.1429;1.7020;
138.0000;1.1404;1.6947;
138.3000;1.1404;1.6972;
138.6000;1.1396;1.6972;
138.9000;1.1420;1.7020;
139.2000;1.1412;1.6972;
139.5000;1.1396;1.6923;
139.8000;1.1404;1.7044;
140.1000;1.1420;1.7165;
140.4000;1.1396;1.7141;
140.7000;1.1404;1.7165;
141.0000;1.1412;1.7141;
141.3000;1.1412;1.7141;
141.6000;1.1404;1.7165;
141.9000;1.1404;1.7117;
142.2000;1.1404;1.7068;
142.5000;1.1404;1.7092;
142.8000;1.1404;1.7020;
143.1000;1.1420;1.7117;
143.4000;1.1412;1.7068;
143.7000;1.1429;1.7044;
144.0000;1.1420;1.7068;
144.3000;1.1404;1.6972;
144.6000;1.1396;1.6996;
144.9000;1.1420;1.7044;
145.2000;1.1404;1.7044;
145.5000;1.1412;1.6923;
145.8000;1.1420;1.6996;
146.1000;1.1412;1.6996;
146.4000;1.1420;1.7068;
146.7000;1.1420;1.7141;
147.0000;1.1420;1.7092;
147.3000;1.1445;1.7165;
147.6000;1.1396;1.7141;
147.9000;1.1404;1.7165;
148.2000;1.1396;1.7165;
148.5000;1.1372;1.7117;
148.8000;1.1396;1.7189;
149.1000;1.1404;1.7165;
149.4000;1.1445;1.7189;
149.7000;1.1396;1.7068;
150.0000;1.1404;1.7092;
150.3000;1.1412;1.7068;
150.6000;1.1420;1.7044;
150.9000;1.1396;1.7068;
151.2000;1.1412;1.7068;
151.5000;1.1404;1.7068;
151.8000;1.1404;1.7020;
152.1000;1.1412;1.6972;
152.4000;1.1388;1.7020;
152.7000;1.1396;1.6996;
153.0000;1.1404;1.6996;
153.3000;1.1380;1.6899;
153.6000;1.1404;1.6947;
153.9000;1.1404;1.6996;
154.2000;1.1429;1.6972;
154.5000;1.1388;1.6923;
154.8000;1.1372;1.6923;
155.1000;1.1404;1.7068;
155.4000;1.1429;1.7189;
155.7000;1.1420;1.7189;
156.0000;1.1388;1.7092;
156.3000;1.1412;1.7165;
156.6000;1.1420;1.7213;
156.9000;1.1420;1.7189;
157.2000;1.1420;1.7092;
157.5000;1.1404;1.7117;
157.8000;1.1396;1.7189;
158.1000;1.1412;1.7165;
158.4000;1.1404;1.7141;
158.7000;1.1396;1.7141;
159.0000;1.1445;1.7213;
159.3000;1.1404;1.7068;
159.6000;1.1429;1.7117;
159.9000;1.1404;1.6923;
160.2000;1.1372;1.6875;
160.5000;1.1372;1.6972;
160.8000;1.1404;1.7117;
161.1000;1.1412;1.7213;
161.4000;1.1396;1.7213;
161.7000;1.1412;1.7310;
162.0000;1.1404;1.7189;
162.3000;1.1404;1.7141;
162.6000;1.1388;1.7117;
162.9000;1.1404;1.7189;
163.2000;1.1396;1.7189;
163.5000;1.1372;1.7165;
163.8000;1.1372;1.7189;
164.1000;1.1388;1.7165;
164.4000;1.1412;1.7262;
164.7000;1.1363;1.7044;
165.0000;1.1404;1.7117;
165.3000;1.1404;1.7165;
165.6000;1.1355;1.7044;
165.9000;1.1420;1.7165;
166.2000;1.1420;1.7117;
166.5000;1.1420;1.7141;
166.8000;1.1420;1.7165;
167.1000;1.1429;1.7141;
167.4000;1.1412;1.7068;
167.7000;1.1518;1.7334;
168.0000;1.1429;1.7117;
168.3000;1.1404;1.7117;
168.6000;1.1396;1.6996;
168.9000;1.1412;1.7020;
169.2000;1.1355;1.6875;
169.5000;1.1420;1.7092;
169.8000;1.1396;1.7092;
170.1000;1.1396;1.7165;
170.4000;1.1437;1.7310;
170.7000;1.1420;1.7237;
171.0000;1.1396;1.7189;
171.3000;1.1429;1.7237;
171.6000;1.1347;1.7068;
171.9000;1.1412;1.7189;
172.2000;1.1404;1.7213;
172.5000;1.1388;1.7141;
172.8000;1.1396;1.7165;
173.1000;1.1396;1.7165;
173.4000;1.1339;1.6996;
173.7000;1.1404;1.7117;
174.0000;1.1396;1.7117;
174.3000;1.1372;1.7068;
174.6000;1.1404;1.7189;
174.9000;1.1388;1.7165;
175.2000;1.1396;1.7262;
175.5000;1.1396;1.7262;
175.8000;1.1396;1.7165;
176.1000;1.1420;1.7165;
176.4000;1.1388;1.7141;
176.7000;1.1420;1.7213;
177.0000;1.1396;1.7165;
177.3000;1.1412;1.7165;
177.6000;1.1404;1.7213;
177.9000;1.1404;1.7237;
178.2000;1.1404;1.7213;
178.5000;1.1412;1.7165;
178.8000;1.1388;1.7020;
179.1000;1.1412;1.7044;
179.4000;1.1363;1.6947;
179.7000;1.1429;1.6996;
180.0000;1.1404;1.6923;
180.3000;1.1396;1.6923;
180.6000;1.1404;1.6972;
180.9000;1.1412;1.7068;
181.2000;1.1396;1.7068;
181.5000;1.1396;1.7092;
181.8000;1.1306;1.6923;
182.1000;1.1420;1.7262;
182.4000;1.1461;1.7503;
182.7000;1.1380;1.7310;
183.0000;1.1388;1.7358;
183.3000;1.1372;1.7237;
183.6000;1.1396;1.7262;
183.9000;1.1461;1.7431;
184.2000;1.1404;1.7286;
184.5000;1.1437;1.7237;
184.8000;1.1412;1.7213;
185.1000;1.1388;1.7141;
185.4000;1.1404;1.7237;
185.7000;1.1396;1.7213;
186.0000;1.1396;1.7189;
186.3000;1.1420;1.7189;
186.6000;1.1404;1.7213;
186.9000;1.1380;1.7165;
187.2000;1.1404;1.7262;
187.5000;1.1388;1.7213;
187.8000;1.1380;1.7237;
188.1000;1.1388;1.7286;
188.4000;1.1396;1.7358;
188.7000;1.1388;1.7286;
189.0000;1.1396;1.7334;
189.3000;1.1388;1.7310;
189.6000;1.1347;1.7237;
189.9000;1.1412;1.7383;
190.2000;1.1404;1.7334;
190.5000;1.1396;1.7358;
190.8000;1.1412;1.7334;
191.1000;1.1429;1.7455;
191.4000;1.1388;1.7383;
191.7000;1.1404;1.7334;
192.0000;1.1412;1.7262;
192.3000;1.1429;1.7358;
192.6000;1.1412;1.7455;
192.9000;1.1404;1.7407;
193.2000;1.1404;1.7383;
193.5000;1.1420;1.7334;
193.8000;1.1396;1.7310;
194.1000;1.1388;1.7358;
194.4000;1.1388;1.7310;
194.7000;1.1396;1.7334;
195.0000;1.1355;1.7286;
195.3000;1.1404;1.7407;
195.6000;1.1404;1.7479;
195.9000;1.1412;1.7576;
196.2000;1.1420;1.7600;
196.5000;1.1396;1.7552;
196.8000;1.1388;1.7455;
197.1000;1.1388;1.7407;
197.4000;1.1388;1.7334;
197.7000;1.1412;1.7286;
198.0000;1.1363;1.7117;
198.3000;1.1388;1.7165;
198.6000;1.1420;1.7237;
198.9000;1.1396;1.7286;
199.2000;1.1388;1.7334;
199.5000;1.1404;1.7213;
199.8000;1.1388;1.7141;
200.1000;1.1380;1.7189;
200.4000;1.1412;1.7286;
200.7000;1.1420;1.7383;
201.0000;1.1445;1.7431;
201.3000;1.1420;1.7334;
201.6000;1.1420;1.7407;
201.9000;1.1429;1.7431;
202.2000;1.1502;1.7528;
202.5000;1.1404;1.7262;
202.8000;1.1372;1.7213;
203.1000;1.1404;1.7262;
203.4000;1.1323;1.7165;
203.7000;1.1404;1.7237;
204.0000;1.1404;1.7165;
204.3000;1.1396;1.7141;
204.6000;1.1388;1.7141;
204.9000;1.1404;1.7189;
205.2000;1.1404;1.7213;
205.5000;1.1461;1.7358;
205.8000;1.1388;1.7141;
206.1000;1.1388;1.7213;
206.4000;1.1339;1.6996;
206.7000;1.1355;1.7092;
207.0000;1.1396;1.7213;
207.3000;1.1404;1.7262;
207.6000;1.1486;1.7431;
207.9000;1.1494;1.7407;
208.2000;1.1412;1.7237;
208.5000;1.1396;1.7189;
208.8000;1.1412;1.7286;
209.1000;1.1396;1.7165;
209.4000;1.1380;1.7020;
209.7000;1.1404;1.7068;
210.0000;1.1388;1.6996;
210.3000;1.1429;1.7068;
210.6000;1.1412;1.7020;
210.9000;1.1396;1.6996;
211.2000;1.1420;1.7044;
211.5000;1.1412;1.7189;
211.8000;1.1412;1.7237;
212.1000;1.1380;1.7189;
212.4000;1.1396;1.7262;
212.7000;1.1412;1.7237;
213.0000;1.1404;1.7262;
213.3000;1.1396;1.7213;
213.6000;1.1396;1.7213;
213.9000;1.1396;1.7213;
214.2000;1.1420;1.7213;
214.5000;1.1420;1.7141;
214.8000;1.1412;1.7141;
215.1000;1.1420;1.7117;
215.4000;1.1420;1.7189;
215.7000;1.1396;1.7165;
216.0000;1.1412;1.7213;
216.3000;1.1380;1.7117;
216.6000;1.1420;1.7092;
216.9000;1.1412;1.7117;
217.2000;1.1429;1.7165;
217.5000;1.1404;1.7092;
217.8000;1.1420;1.7189;
218.1000;1.1404;1.7117;
218.4000;1.1412;1.7092;
218.7000;1.1429;1.7092;
219.0000;1.1396;1.7020;
219.3000;1.1404;1.7020;
219.6000;1.1363;1.6923;
219.9000;1.1388;1.7044;
220.2000;1.1420;1.7141;
220.5000;1.1404;1.7092;
220.8000;1.1396;1.7044;
221.1000;1.1404;1.7117;
221.4000;1.1388;1.7068;
221.7000;1.1363;1.7020;
222.0000;1.1420;1.7286;
222.3000;1.1429;1.7237;
222.6000;1.1388;1.7310;
222.9000;1.1404;1.7479;
223.2000;1.1388;1.7552;
223.5000;1.1380;1.7407;
223.8000;1.1461;1.7576;
224.1000;1.1404;1.7479;
224.4000;1.1388;1.7479;
224.7000;1.1396;1.7431;
225.0000;1.1388;1.7407;
225.3000;1.1429;1.7455;
225.6000;1.1404;1.7455;
225.9000;1.1380;1.7431;
226.2000;1.1363;1.7358;
226.5000;1.1412;1.7528;
226.8000;1.1404;1.7528;
227.1000;1.1412;1.7455;
227.4000;1.1404;1.7383;
227.7000;1.1412;1.7383;
228.0000;1.1404;1.7479;
228.3000;1.1412;1.7479;
228.6000;1.1420;1.7455;
228.9000;1.1388;1.7383;
229.2000;1.1396;1.7407;
229.5000;1.1404;1.7407;
229.8000;1.1396;1.7479;
230.1000;1.1396;1.7455;
230.4000;1.1404;1.7528;
230.7000;1.1412;1.7455;
231.0000;1.1404;1.7383;
231.3000;1.1404;1.7455;
231.6000;1.1388;1.7334;
231.9000;1.1372;1.7310;
232.2000;1.1396;1.7286;
232.5000;1.1404;1.7286;
232.8000;1.1396;1.7334;
233.1000;1.1396;1.7334;
233.4000;1.1396;1.7334;
233.7000;1.1388;1.7237;
234.0000;1.1396;1.7262;
234.3000;1.1396;1.7237;
234.6000;1.1412;1.7262;
234.9000;1.1404;1.7213;
235.2000;1.1404;1.7213;
235.5000;1.1420;1.7286;
235.8000;1.1396;1.7237;
236.1000;1.1396;1.7262;
236.4000;1.1396;1.7117;
236.7000;1.1372;1.7020;
237.0000;1.1404;1.7068;
237.3000;1.1396;1.7141;
237.6000;1.1388;1.7141;
237.9000;1.1396;1.7092;
238.2000;1.1429;1.7189;
238.5000;1.1380;1.7092;
238.8000;1.1404;1.7092;
239.1000;1.1380;1.7044;
239.4000;1.1420;1.7141;
239.7000;1.1420;1.7262;
240.0000;1.1396;1.7165;
240.3000;1.1396;1.7117;
240.6000;1.1363;1.7092;
240.9000;1.1404;1.7262;
241.2000;1.1372;1.7237;
241.5000;1.1412;1.7383;
241.8000;1.1404;1.7407;
242.1000;1.1388;1.7407;
242.4000;1.1412;1.7407;
242.7000;1.1518;1.7528;
243.0000;1.1388;1.7213;
243.3000;1.1404;1.7237;
243.6000;1.1404;1.7237;
243.9000;1.1388;1.7213;
244.2000;1.1388;1.7237;
244.5000;1.1388;1.7286;
244.8000;1.1404;1.7286;
245.1000;1.1380;1.7189;
245.4000;1.1396;1.7262;
245.7000;1.1380;1.7213;
246.0000;1.1404;1.7262;
246.3000;1.1404;1.7189;
246.6000;1.1396;1.7213;
246.9000;1.1396;1.7165;
247.2000;1.1396;1.7189;
247.5000;1.1372;1.7165;
247.8000;1.1412;1.7334;
248.1000;1.1404;1.7358;
248.4000;1.1429;1.7310;
248.7000;1.1412;1.7358;
249.0000;1.1396;1.7310;
249.3000;1.1363;1.7237;
249.6000;1.1396;1.7383;
249.9000;1.1396;1.7407;
250.2000;1.1388;1.7455;
250.5000;1.1388;1.7455;
250.8000;1.1412;1.7503;
251.1000;1.1420;1.7455;
251.4000;1.1363;1.7334;
251.7000;1.1420;1.7503;
252.0000;1.1396;1.7334;
252.3000;1.1396;1.7358;
252.6000;1.1372;1.7310;
252.9000;1.1404;1.7334;
253.2000;1.1404;1.7237;
253.5000;1.1437;1.7213;
253.8000;1.1429;1.7189;
254.1000;1.1396;1.7213;
254.4000;1.1420;1.7334;
254.7000;1.1372;1.7189;
255.0000;1.1404;1.7237;
255.3000;1.1396;1.7310;
255.6000;1.1420;1.7334;
255.9000;1.1404;1.7237;
256.2000;1.1372;1.7262;
256.5000;1.1372;1.7407;
256.8000;1.1396;1.7407;
257.1000;1.1396;1.7431;
257.4000;1.1404;1.7334;
257.7000;1.1437;1.7407;
258.0000;1.1404;1.7310;
258.3000;1.1388;1.7286;
258.6000;1.1437;1.7431;
258.9000;1.1396;1.7358;
259.2000;1.1380;1.7237;
259.5000;1.1396;1.7310;
259.8000;1.1412;1.7383;
260.1000;1.1412;1.7358;
260.4000;1.1372;1.7286;
260.7000;1.1363;1.7189;
261.0000;1.1396;1.7189;
261.3000;1.1396;1.7262;
261.6000;1.1363;1.7165;
261.9000;1.1404;1.7262;
262.2000;1.1404;1.7310;
262.5000;1.1420;1.7213;
262.8000;1.1404;1.7213;
263.1000;1.1355;1.7141;
263.4000;1.1404;1.7262;
263.7000;1.1396;1.7310;
264.0000;1.1396;1.7262;
264.3000;1.1396;1.7310;
264.6000;1.1388;1.7310;
264.9000;1.1396;1.7286;
265.2000;1.1380;1.7286;
265.5000;1.1363;1.7237;
265.8000;1.1404;1.7237;
266.1000;1.1380;1.7237;
266.4000;1.1380;1.7213;
266.7000;1.1388;1.7310;
267.0000;1.1380;1.7237;
267.3000;1.1388;1.7286;
267.6000;1.1404;1.7286;
267.9000;1.1396;1.7262;
268.2000;1.1331;1.7141;
268.5000;1.1420;1.7383;
268.8000;1.1396;1.7262;
269.1000;1.1404;1.7237;
269.4000;1.1363;1.7141;
269.7000;1.1388;1.7117;
270.0000;1.1404;1.7092;
270.3000;1.1380;1.7044;
270.6000;1.1396;1.7044;
270.9000;1.1372;1.6996;
271.2000;1.1396;1.7020;
271.5000;1.1380;1.6996;
271.8000;1.1372;1.7213;
272.1000;1.1461;1.7528;
272.4000;1.1388;1.7262;
272.7000;1.1396;1.7310;
273.0000;1.1404;1.7286;
273.3000;1.1404;1.7262;
273.6000;1.1396;1.7213;
273.9000;1.1388;1.7213;
274.2000;1.1420;1.7358;
274.5000;1.1380;1.7237;
274.8000;1.1363;1.7237;
275.1000;1.1380;1.7213;
275.4000;1.1396;1.7165;
275.7000;1.1396;1.7262;
276.0000;1.1380;1.7286;
276.3000;1.1380;1.7262;
276.6000;1.1380;1.7262;
276.9000;1.1372;1.7262;
277.2000;1.1404;1.7237;
277.5000;1.1363;1.7117;
277.8000;1.1396;1.7165;
278.1000;1.1396;1.7141;
278.4000;1.1380;1.7165;
278.7000;1.1388;1.7141;
279.0000;1.1420;1.7286;
279.3000;1.1388;1.7165;
279.6000;1.1420;1.7286;
279.9000;1.1396;1.7237;
280.2000;1.1404;1.7213;
280.5000;1.1404;1.7141;
280.8000;1.1363;1.7068;
281.1000;1.1404;1.7117;
281.4000;1.1380;1.6996;
281.7000;1.1404;1.7092;
282.0000;1.1412;1.7141;
282.3000;1.1380;1.7068;
282.6000;1.1404;1.7165;
282.9000;1.1412;1.7141;
283.2000;1.1388;1.7165;
283.5000;1.1388;1.7165;
283.8000;1.1396;1.7189;
284.1000;1.1412;1.7237;
284.4000;1.1404;1.7262;
284.7000;1.1388;1.7213;
285.0000;1.1420;1.7213;
285.3000;1.1412;1.7141;
285.6000;1.1396;1.7165;
285.9000;1.1380;1.7189;
286.2000;1.1372;1.7117;
286.5000;1.1388;1.7092;
286.8000;1.1388;1.7141;
287.1000;1.1372;1.7213;
287.4000;1.1355;1.7044;
287.7000;1.1380;1.7092;
288.0000;1.1404;1.7165;
288.3000;1.1404;1.7189;
288.6000;1.1380;1.7237;
288.9000;1.1437;1.7407;
289.2000;1.1412;1.7286;
289.5000;1.1396;1.7165;
289.8000;1.1388;1.7141;
290.1000;1.1388;1.7189;
290.4000;1.1396;1.7189;
290.7000;1.1396;1.7117;
291.0000;1.1380;1.7044;
291.3000;1.1363;1.7068;
291.6000;1.1388;1.7141;
291.9000;1.1396;1.7189;
292.2000;1.1404;1.7262;
292.5000;1.1404;1.7262;
292.8000;1.1363;1.7213;
293.1000;1.1445;1.7479;
293.4000;1.1404;1.7431;
293.7000;1.1388;1.7358;
294.0000;1.1396;1.7237;
294.3000;1.1380;1.7189;
294.6000;1.1420;1.7286;
294.9000;1.1486;1.7528;
295.2000;1.1388;1.7262;
295.5000;1.1355;1.7092;
295.8000;1.1380;1.7141;
296.1000;1.1380;1.7141;
296.4000;1.1380;1.7092;
296.7000;1.1363;1.7044;
297.0000;1.1380;1.7141;
297.3000;1.1372;1.7117;
297.6000;1.1347;1.6996;
297.9000;1.1404;1.7165;
298.2000;1.1404;1.7189;
298.5000;1.1404;1.7237;
298.8000;1.1372;1.7237;
299.1000;1.1380;1.7262;
299.4000;1.1388;1.7262;
299.7000;1.1404;1.7165;
300.0000;1.1380;1.7068;
300.3000;1.1404;1.7165;
300.6000;1.1396;1.7117;
300.9000;1.1388;1.7165;
301.2000;1.1396;1.7213;
301.5000;1.1396;1.7213;
301.8000;1.1372;1.7286;
302.1000;1.1404;1.7237;
302.4000;1.1380;1.7237;
302.7000;1.1363;1.7189;
303.0000;1.1388;1.7237;
303.3000;1.1404;1.7286;
303.6000;1.1404;1.7286;
303.9000;1.1380;1.7262;
304.2000;1.1380;1.7334;
304.5000;1.1380;1.7334;
304.8000;1.1380;1.7262;
305.1000;1.1388;1.7237;
305.4000;1.1388;1.7117;
305.7000;1.1388;1.7117;
306.0000;1.1404;1.7141;
306.3000;1.1388;1.7092;
306.6000;1.1388;1.7189;
306.9000;1.1339;1.7165;
307.2000;1.1355;1.7165;
307.5000;1.1372;1.7213;
307.8000;1.1396;1.7141;
308.1000;1.1380;1.7117;
308.4000;1.1412;1.7165;
308.7000;1.1372;1.7117;
309.0000;1.1372;1.7165;
309.3000;1.1380;1.7165;
309.6000;1.1396;1.7141;
309.9000;1.1372;1.7068;
310.2000;1.1323;1.6972;
310.5000;1.1380;1.7141;
310.8000;1.1396;1.7213;
311.1000;1.1363;1.7237;
311.4000;1.1372;1.7189;
311.7000;1.1355;1.7117;
312.0000;1.1380;1.7068;
312.3000;1.1347;1.7044;
312.6000;1.1372;1.7141;
312.9000;1.1372;1.7141;
313.2000;1.1380;1.7044;
313.5000;1.1404;1.7141;
313.8000;1.1372;1.7141;
314.1000;1.1380;1.7189;
314.4000;1.1363;1.7189;
314.7000;1.1420;1.7383;
315.0000;1.1315;1.7141;
315.3000;1.1380;1.7383;
315.6000;1.1372;1.7431;
315.9000;1.1388;1.7479;
316.2000;1.1372;1.7286;
316.5000;1.1388;1.7165;
316.8000;1.1388;1.7189;
317.1000;1.1396;1.7237;
317.4000;1.1486;1.7503;
317.7000;1.1372;1.7237;
318.0000;1.1404;1.7213;
318.3000;1.1380;1.7068;
318.6000;1.1404;1.7141;
318.9000;1.1380;1.7165;
319.2000;1.1429;1.7286;
319.5000;1.1388;1.7189;
319.8000;1.1396;1.7310;
320.1000;1.1380;1.7310;
320.4000;1.1380;1.7262;
320.7000;1.1331;1.7141;
321.0000;1.1363;1.7262;
321.3000;1.1412;1.7431;
321.6000;1.1404;1.7334;
321.9000;1.1396;1.7310;
322.2000;1.1396;1.7310;
322.5000;1.1445;1.7358;
322.8000;1.1380;1.7286;
323.1000;1.1372;1.7358;
323.4000;1.1469;1.7576;
323.7000;1.1388;1.7358;
324.0000;1.1396;1.7358;
324.3000;1.1372;1.7286;
324.6000;1.1420;1.7407;
324.9000;1.1388;1.7334;
325.2000;1.1372;1.7262;
325.5000;1.1363;1.7213;
325.8000;1.1363;1.7141;
326.1000;1.1363;1.7117;
326.4000;1.1363;1.7020;
326.7000;1.1388;1.7068;
327.0000;1.1323;1.6899;
327.3000;1.1396;1.7068;
327.6000;1.1363;1.7020;
327.9000;1.1372;1.6972;
328.2000;1.1355;1.6972;
328.5000;1.1404;1.7141;
328.8000;1.1388;1.7237;
329.1000;1.1429;1.7286;
329.4000;1.1412;1.7189;
329.7000;1.1388;1.7068;
330.0000;1.1388;1.7068;
330.3000;1.1388;1.7117;
330.6000;1.1380;1.7141;
330.9000;1.1380;1.7117;
331.2000;1.1388;1.7068;
331.5000;1.1363;1.7068;
331.8000;1.1420;1.7213;
332.1000;1.1388;1.7117;
332.4000;1.1388;1.7092;
332.7000;1.1331;1.7092;
333.0000;1.1380;1.7141;
333.3000;1.1396;1.7165;
333.6000;1.1396;1.7165;
333.9000;1.1388;1.7117;
334.2000;1.1363;1.7044;
334.5000;1.1363;1.7068;
334.8000;1.1372;1.7044;
335.1000;1.1380;1.7092;
335.4000;1.1225;1.6633;
335.7000;1.1396;1.6947;
336.0000;1.1380;1.6996;
336.3000;1.1404;1.7141;
336.6000;1.1372;1.7092;
336.9000;1.1372;1.7044;
337.2000;1.1372;1.6972;
337.5000;1.1380;1.6996;
337.8000;1.1388;1.7189;
338.1000;1.1388;1.7189;
338.4000;1.1363;1.7189;
338.7000;1.1380;1.7286;
339.0000;1.1372;1.7334;
339.3000;1.1380;1.7286;
339.6000;1.1388;1.7262;
339.9000;1.1380;1.7262;
340.2000;1.1380;1.7286;
340.5000;1.1388;1.7237;
340.8000;1.1363;1.7237;
341.1000;1.1380;1.7237;
341.4000;1.1355;1.7141;
341.7000;1.1380;1.7165;
342.0000;1.1363;1.6996;
342.3000;1.1380;1.7044;
342.6000;1.1372;1.7068;
342.9000;1.1396;1.7189;
343.2000;1.1396;1.7237;
343.5000;1.1388;1.7237;
343.8000;1.1380;1.7262;
344.1000;1.1388;1.7213;
344.4000;1.1388;1.7237;
344.7000;1.1347;1.7092;
345.0000;1.1404;1.7213;
345.3000;1.1380;1.7237;
345.6000;1.1412;1.7237;
345.9000;1.1363;1.7092;
346.2000;1.1363;1.7092;
346.5000;1.1380;1.7068;
346.8000;1.1372;1.7068;
347.1000;1.1380;1.7068;
347.4000;1.1363;1.6996;
347.7000;1.1396;1.7141;
348.0000;1.1380;1.7020;
348.3000;1.1380;1.7020;
348.6000;1.1323;1.6996;
348.9000;1.1380;1.7117;
349.2000;1.1404;1.7141;
349.5000;1.1388;1.7068;
349.8000;1.1372;1.6996;
350.1000;1.1412;1.7165;
350.4000;1.1388;1.7141;
350.7000;1.1372;1.7262;
351.0000;1.1404;1.7334;
351.3000;1.1363;1.7286;
351.6000;1.1396;1.7358;
351.9000;1.1372;1.7213;
352.2000;1.1363;1.7165;
352.5000;1.1380;1.7213;
352.8000;1.1404;1.7262;
353.1000;1.1412;1.7189;
353.4000;1.1388;1.7189;
353.7000;1.1412;1.7286;
354.0000;1.1388;1.7237;
354.3000;1.1404;1.7237;
354.6000;1.1380;1.7189;
354.9000;1.1388;1.7237;
355.2000;1.1258;1.6923;
355.5000;1.1380;1.7165;
355.8000;1.1396;1.7068;
356.1000;1.1372;1.7020;
356.4000;1.1388;1.7068;
356.7000;1.1396;1.7165;
357.0000;1.1380;1.7117;
357.3000;1.1347;1.7068;
357.6000;1.1372;1.7237;
357.9000;1.1339;1.7189;
358.2000;1.1347;1.7262;
358.5000;1.1372;1.7213;
358.8000;1.1372;1.7286;
359.1000;1.1363;1.7237;
359.4000;1.1380;1.7237;
359.7000;1.1372;1.7189;
360.0000;1.1372;1.7237;
360.3000;1.1388;1.7213;
360.6000;1.1372;1.7189;
360.9000;1.1363;1.7092;
361.2000;1.1347;1.6996;
361.5000;1.1298;1.6875;
361.8000;1.1363;1.7020;
362.1000;1.1363;1.7044;
362.4000;1.1315;1.6923;
362.7000;1.1372;1.7117;
363.0000;1.1380;1.7092;
363.3000;1.1388;1.7117;
363.6000;1.1355;1.7068;
363.9000;1.1363;1.7092;
364.2000;1.1380;1.7020;
364.5000;1.1404;1.7141;
364.8000;1.1412;1.7237;
365.1000;1.1380;1.7117;
365.4000;1.1372;1.7068;
365.7000;1.1396;1.7092;
366.0000;1.1363;1.7068;
366.3000;1.1380;1.7165;
366.6000;1.1380;1.7189;
366.9000;1.1388;1.7117;
367.2000;1.1388;1.7117;
367.5000;1.1372;1.6996;
367.8000;1.1380;1.6923;
368.1000;1.1396;1.7068;
368.4000;1.1420;1.7117;
368.7000;1.1388;1.7068;
369.0000;1.1363;1.7044;
369.3000;1.1363;1.7020;
369.6000;1.1388;1.7165;
369.9000;1.1355;1.7068;
370.2000;1.1339;1.7020;
370.5000;1.1331;1.6972;
370.8000;1.1372;1.7092;
371.1000;1.1372;1.7092;
371.4000;1.1331;1.7044;
371.7000;1.1339;1.7141;
372.0000;1.1380;1.7068;
372.3000;1.1388;1.7141;
372.6000;1.1355;1.7068;
372.9000;1.1355;1.7165;
373.2000;1.1372;1.7213;
373.5000;1.1380;1.7189;
373.8000;1.1388;1.7189;
374.1000;1.1388;1.7141;
374.4000;1.1380;1.7092;
374.7000;1.1331;1.7068;
375.0000;1.1323;1.7141;
375.3000;1.1380;1.7310;
375.6000;1.1388;1.7431;
375.9000;1.1380;1.7383;
376.2000;1.1388;1.7455;
376.5000;1.1388;1.7431;
376.8000;1.1380;1.7455;
377.1000;1.1355;1.7334;
377.4000;1.1380;1.7479;
377.7000;1.1363;1.7479;
378.0000;1.1363;1.7407;
378.3000;1.1388;1.7503;
378.6000;1.1331;1.7383;
378.9000;1.1306;1.7286;
379.2000;1.1331;1.7334;
379.5000;1.1355;1.7310;
379.8000;1.1363;1.7358;
380.1000;1.1372;1.7358;
380.4000;1.1355;1.7479;
380.7000;1.1388;1.7552;
381.0000;1.1372;1.7528;
381.3000;1.1380;1.7455;
381.6000;1.1363;1.7407;
381.9000;1.1388;1.7358;
382.2000;1.1396;1.7310;
382.5000;1.1380;1.7262;
382.8000;1.1363;1.7213;
383.1000;1.1363;1.7092;
383.4000;1.1331;1.7068;
383.7000;1.1396;1.7165;
384.0000;1.1347;1.7117;
384.3000;1.1404;1.7237;
384.6000;1.1388;1.7213;
384.9000;1.1396;1.7262;
385.2000;1.1380;1.7237;
385.5000;1.1372;1.7237;
385.8000;1.1380;1.7262;
386.1000;1.1396;1.7262;
386.4000;1.1388;1.7262;
386.7000;1.1380;1.7189;
387.0000;1.1372;1.7213;
387.3000;1.1388;1.7262;
387.6000;1.1380;1.7286;
387.9000;1.1355;1.7310;
388.2000;1.1274;1.7068;
388.5000;1.1347;1.7237;
388.8000;1.1429;1.7455;
389.1000;1.1323;1.7092;
389.4000;1.1380;1.7262;
389.7000;1.1380;1.7310;
390.0000;1.1388;1.7358;
390.3000;1.1437;1.7407;
390.6000;1.1372;1.7189;
390.9000;1.1396;1.7213;
391.2000;1.1380;1.7189;
391.5000;1.1372;1.7165;
391.8000;1.1396;1.7237;
392.1000;1.1396;1.7165;
392.4000;1.1388;1.7213;
392.7000;1.1363;1.7165;
393.0000;1.1388;1.7213;
393.3000;1.1380;1.7213;
393.6000;1.1363;1.7117;
393.9000;1.1363;1.7044;
394.2000;1.1372;1.7068;
394.5000;1.1380;1.7044;
394.8000;1.1363;1.7044;
395.1000;1.1429;1.7117;
395.4000;1.1372;1.7044;
395.7000;1.1372;1.7020;
396.0000;1.1380;1.7092;
396.3000;1.1396;1.7213;
396.6000;1.1396;1.7262;
396.9000;1.1372;1.7237;
397.2000;1.1372;1.7286;
397.5000;1.1339;1.7213;
397.8000;1.1323;1.7165;
398.1000;1.1380;1.7310;
398.4000;1.1363;1.7310;
398.7000;1.1355;1.7262;
399.0000;1.1380;1.7165;
399.3000;1.1380;1.7262;
399.6000;1.1380;1.7262;
399.9000;1.1355;1.7310;
400.2000;1.1380;1.7334;
400.5000;1.1429;1.7431;
400.8000;1.1380;1.7286;
401.1000;1.1372;1.7237;
401.4000;1.1372;1.7286;
401.7000;1.1420;1.7358;
402.0000;1.1306;1.7044;
402.3000;1.1380;1.7189;
402.6000;1.1380;1.7189;
402.9000;1.1363;1.7165;
403.2000;1.1404;1.7286;
403.5000;1.1363;1.7213;
403.8000;1.1363;1.7237;
404.1000;1.1372;1.7189;
404.4000;1.1372;1.7165;
404.7000;1.1380;1.7262;
405.0000;1.1396;1.7213;
405.3000;1.1380;1.7237;
405.6000;1.1388;1.7165;
405.9000;1.1372;1.7068;
406.2000;1.1388;1.7237;
406.5000;1.1477;1.7503;
406.8000;1.1331;1.7165;
407.1000;1.1363;1.7237;
407.4000;1.1372;1.7286;
407.7000;1.1347;1.7213;
408.0000;1.1388;1.7286;
408.3000;1.1404;1.7310;
408.6000;1.1429;1.7262;
408.9000;1.1388;1.7141;
409.2000;1.1347;1.7117;
409.5000;1.1355;1.7141;
409.8000;1.1355;1.7141;
410.1000;1.1420;1.7262;
410.4000;1.1404;1.7237;
410.7000;1.1396;1.7117;
411.0000;1.1372;1.7020;
411.3000;1.1396;1.7117;
411.6000;1.1380;1.7092;
411.9000;1.1372;1.7117;
412.2000;1.1339;1.7165;
412.5000;1.1266;1.6947;
412.8000;1.1388;1.7237;
413.1000;1.1363;1.7286;
413.4000;1.1380;1.7358;
413.7000;1.1363;1.7237;
414.0000;1.1355;1.7117;
414.3000;1.1486;1.7431;
414.6000;1.1372;1.7334;
414.9000;1.1363;1.7334;
415.2000;1.1396;1.7383;
415.5000;1.1420;1.7431;
415.8000;1.1380;1.7286;
416.1000;1.1363;1.7237;
416.4000;1.1404;1.7310;
416.7000;1.1355;1.7262;
417.0000;1.1372;1.7310;
417.3000;1.1372;1.7286;
417.6000;1.1420;1.7431;
417.9000;1.1388;1.7310;
418.2000;1.1372;1.7237;
418.5000;1.1388;1.7189;
418.8000;1.1355;1.7044;
419.1000;1.1372;1.7092;
419.4000;1.1380;1.7117;
419.7000;1.1372;1.7117;
420.0000;1.1388;1.7141;
420.3000;1.1380;1.7213;
420.6000;1.1380;1.7213;
420.9000;1.1380;1.7189;
421.2000;1.1363;1.7165;
421.5000;1.1372;1.7189;
421.8000;1.1372;1.7117;
422.1000;1.1388;1.7141;
422.4000;1.1363;1.7117;
422.7000;1.1396;1.7141;
423.0000;1.1380;1.7117;
423.3000;1.1363;1.7092;
423.6000;1.1355;1.7044;
423.9000;1.1363;1.7020;
424.2000;1.1372;1.7044;
424.5000;1.1355;1.6996;
424.8000;1.1363;1.7044;
425.1000;1.1396;1.7141;
425.4000;1.1339;1.7092;
425.7000;1.1380;1.7189;
426.0000;1.1445;1.7431;
426.3000;1.1363;1.7310;
426.6000;1.1363;1.7189;
426.9000;1.1380;1.7286;
427.2000;1.1372;1.7165;
427.5000;1.1363;1.7165;
427.8000;1.1388;1.7189;
428.1000;1.1380;1.7189;
428.4000;1.1347;1.7117;
428.7000;1.1347;1.7092;
429.0000;1.1355;1.7068;
429.3000;1.1347;1.7044;
429.6000;1.1347;1.7068;
429.9000;1.1363;1.7117;
430.2000;1.1363;1.7092;
430.5000;1.1412;1.7189;
430.8000;1.1315;1.7020;
431.1000;1.1372;1.7165;
431.4000;1.1355;1.7141;
431.7000;1.1290;1.6947;
432.0000;1.1363;1.7141;
432.3000;1.1355;1.7165;
432.6000;1.1363;1.7141;
432.9000;1.1363;1.7092;
433.2000;1.1355;1.6923;
433.5000;1.1388;1.7020;
433.8000;1.1380;1.7020;
434.1000;1.1380;1.7020;
434.4000;1.1388;1.7044;
434.7000;1.1363;1.6972;
435.0000;1.1372;1.6947;
435.3000;1.1380;1.6947;
435.6000;1.1372;1.7068;
435.9000;1.1355;1.7044;
436.2000;1.1372;1.7044;
436.5000;1.1363;1.7044;
436.8000;1.1347;1.6875;
437.1000;1.1363;1.6947;
437.4000;1.1388;1.7068;
437.7000;1.1372;1.7044;
438.0000;1.1355;1.7068;
438.3000;1.1429;1.7213;
438.6000;1.1372;1.7044;
438.9000;1.1380;1.7092;
439.2000;1.1363;1.7068;
439.5000;1.1363;1.7189;
439.8000;1.1388;1.7213;
440.1000;1.1396;1.7141;
440.4000;1.1388;1.7141;
440.7000;1.1380;1.7213;
441.0000;1.1380;1.7286;
441.3000;1.1388;1.7262;
441.6000;1.1380;1.7262;
441.9000;1.1388;1.7237;
442.2000;1.1388;1.7262;
442.5000;1.1363;1.7237;
442.8000;1.1380;1.7310;
443.1000;1.1363;1.7310;
443.4000;1.1372;1.7334;
443.7000;1.1355;1.7262;
444.0000;1.1372;1.7262;
444.3000;1.1355;1.7286;
444.6000;1.1372;1.7407;
444.9000;1.1372;1.7262;
445.2000;1.1372;1.7262;
445.5000;1.1323;1.7213;
445.8000;1.1372;1.7310;
446.1000;1.1372;1.7334;
446.4000;1.1355;1.7310;
446.7000;1.1306;1.7213;
447.0000;1.1388;1.7407;
447.3000;1.1380;1.7383;
447.6000;1.1323;1.7262;
447.9000;1.1363;1.7383;
448.2000;1.1363;1.7262;
448.5000;1.1323;1.7189;
448.8000;1.1355;1.7189;
449.1000;1.1404;1.7262;
449.4000;1.1339;1.7165;
449.7000;1.1380;1.7262;
450.0000;1.1380;1.7237;
450.3000;1.1372;1.7189;
450.6000;1.1363;1.7189;
450.9000;1.1363;1.7262;
451.2000;1.1404;1.7286;
451.5000;1.1372;1.7189;
451.8000;1.1355;1.7189;
452.1000;1.1380;1.7165;
452.4000;1.1372;1.7141;
452.7000;1.1388;1.7092;
453.0000;1.1372;1.7044;
453.3000;1.1355;1.6972;
453.6000;1.1420;1.7213;
453.9000;1.1355;1.7044;
454.2000;1.1380;1.7044;
454.5000;1.1331;1.6923;
454.8000;1.1388;1.7092;
455.1000;1.1388;1.7117;
455.4000;1.1331;1.6996;
455.7000;1.1339;1.7141;
456.0000;1.1380;1.7237;
456.3000;1.1339;1.7068;
456.6000;1.1380;1.7117;
456.9000;1.1380;1.7141;
457.2000;1.1388;1.7189;
457.5000;1.1380;1.7189;
457.8000;1.1347;1.7141;
458.1000;1.1429;1.7358;
458.4000;1.1372;1.7189;
458.7000;1.1339;1.7044;
459.0000;1.1347;1.7189;
459.3000;1.1347;1.7334;
459.6000;1.1363;1.7383;
459.9000;1.1372;1.7334;
460.2000;1.1355;1.7310;
460.5000;1.1372;1.7310;
460.8000;1.1347;1.7286;
461.1000;1.1372;1.7286;
461.4000;1.1380;1.7358;
461.7000;1.1363;1.7262;
462.0000;1.1372;1.7310;
462.3000;1.1380;1.7262;
462.6000;1.1380;1.7165;
462.9000;1.1372;1.7117;
463.2000;1.1355;1.7117;
463.5000;1.1380;1.7189;
463.8000;1.1372;1.7213;
464.1000;1.1372;1.7310;
464.4000;1.1372;1.7334;
464.7000;1.1372;1.7310;
465.0000;1.1363;1.7286;
465.3000;1.1355;1.7358;
465.6000;1.1331;1.7237;
465.9000;1.1363;1.7334;
466.2000;1.1388;1.7407;
466.5000;1.1412;1.7431;
466.8000;1.1396;1.7310;
467.1000;1.1372;1.7262;
467.4000;1.1339;1.7286;
467.7000;1.1363;1.7262;
468.0000;1.1372;1.7310;
468.3000;1.1372;1.7262;
468.6000;1.1363;1.7286;
468.9000;1.1363;1.7310;
469.2000;1.1380;1.7358;
469.5000;1.1380;1.7479;
469.8000;1.1331;1.7455;
470.1000;1.1404;1.7576;
470.4000;1.1380;1.7455;
470.7000;1.1363;1.7455;
471.0000;1.1363;1.7431;
471.3000;1.1372;1.7358;
471.6000;1.1380;1.7358;
471.9000;1.1372;1.7310;
472.2000;1.1347;1.7237;
472.5000;1.1388;1.7407;
472.8000;1.1380;1.7358;
473.1000;1.1437;1.7383;
473.4000;1.1372;1.7165;
473.7000;1.1355;1.7092;
474.0000;1.1355;1.7020;
474.3000;1.1347;1.6996;
474.6000;1.1323;1.7020;
474.9000;1.1347;1.7068;
475.2000;1.1363;1.7117;
475.5000;1.1396;1.7213;
475.8000;1.1347;1.7117;
476.1000;1.1363;1.7286;
476.4000;1.1372;1.7286;
476.7000;1.1363;1.7237;
477.0000;1.1355;1.7310;
477.3000;1.1363;1.7286;
477.6000;1.1339;1.7310;
477.9000;1.1363;1.7334;
478.2000;1.1363;1.7358;
478.5000;1.1339;1.7286;
478.8000;1.1363;1.7358;
479.1000;1.1347;1.7407;
479.4000;1.1388;1.7455;
479.7000;1.1380;1.7455;
480.0000;1.1363;1.7358;
480.3000;1.1363;1.7310;
480.6000;1.1355;1.7383;
480.9000;1.1355;1.7383;
481.2000;1.1363;1.7479;
481.5000;1.1363;1.7407;
481.8000;1.1363;1.7383;
482.1000;1.1355;1.7334;
482.4000;1.1347;1.7213;
482.7000;1.1380;1.7262;
483.0000;1.1380;1.7237;
483.3000;1.1339;1.7117;
483.6000;1.1363;1.7213;
483.9000;1.1420;1.7286;
484.2000;1.1372;1.7189;
484.5000;1.1331;1.7092;
484.8000;1.1347;1.7141;
485.1000;1.1372;1.7237;
485.4000;1.1372;1.7286;
485.7000;1.1355;1.7334;
486.0000;1.1355;1.7262;
486.3000;1.1347;1.7310;
486.6000;1.1363;1.7286;
486.9000;1.1355;1.7334;
487.2000;1.1347;1.7286;
487.5000;1.1339;1.7165;
487.8000;1.1380;1.7213;
488.1000;1.1388;1.7237;
488.4000;1.1290;1.7020;
488.7000;1.1363;1.7262;
489.0000;1.1355;1.7237;
489.3000;1.1347;1.7189;
489.6000;1.1372;1.7165;
489.9000;1.1323;1.7068;
490.2000;1.1363;1.7117;
490.5000;1.1372;1.7165;
490.8000;1.1363;1.7189;
491.1000;1.1363;1.7237;
491.4000;1.1355;1.7237;
491.7000;1.1347;1.7237;
492.0000;1.1372;1.7237;
492.3000;1.1363;1.7213;
492.6000;1.1380;1.7213;
492.9000;1.1347;1.7092;
493.2000;1.1396;1.7237;
493.5000;1.1331;1.7189;
493.8000;1.1372;1.7262;
494.1000;1.1388;1.7334;
494.4000;1.1372;1.7310;
494.7000;1.1339;1.7092;
495.0000;1.1363;1.7141;
495.3000;1.1347;1.7092;
495.6000;1.1388;1.7213;
495.9000;1.1372;1.7165;
496.2000;1.1323;1.6996;
496.5000;1.1355;1.6996;
496.8000;1.1363;1.7068;
497.1000;1.1380;1.7068;
497.4000;1.1380;1.7092;
497.7000;1.1412;1.7141;
498.0000;1.1372;1.7020;
498.3000;1.1372;1.6996;
498.6000;1.1355;1.7020;
498.9000;1.1396;1.7117;
499.2000;1.1355;1.7092;
499.5000;1.1355;1.7044;
499.8000;1.1347;1.7068;
500.1000;1.1363;1.7141;
500.4000;1.1347;1.7165;
500.7000;1.1339;1.7092;
501.0000;1.1355;1.7189;
501.3000;1.1347;1.7141;
501.6000;1.1363;1.7117;
501.9000;1.1380;1.7092;
502.2000;1.1347;1.6972;
502.5000;1.1363;1.7068;
502.8000;1.1372;1.7092;
503.1000;1.1363;1.6996;
503.4000;1.1380;1.7117;
503.7000;1.1355;1.7141;
504.0000;1.1347;1.7165;
504.3000;1.1363;1.7262;
504.6000;1.1315;1.7117;
504.9000;1.1355;1.7286;
505.2000;1.1331;1.7262;
505.5000;1.1372;1.7358;
505.8000;1.1372;1.7310;
506.1000;1.1355;1.7286;
506.4000;1.1339;1.7237;
506.7000;1.1331;1.7165;
507.0000;1.1347;1.7165;
507.3000;1.1429;1.7286;
507.6000;1.1420;1.7237;
507.9000;1.1355;1.7092;
508.2000;1.1372;1.7165;
508.5000;1.1355;1.7141;
508.8000;1.1355;1.7117;
509.1000;1.1355;1.7117;
509.4000;1.1355;1.7117;
509.7000;1.1355;1.7117;
510.0000;1.1363;1.7068;
510.3000;1.1339;1.7044;
510.6000;1.1363;1.7213;
510.9000;1.1355;1.7141;
511.2000;1.1363;1.7092;
511.5000;1.1355;1.7092;
511.8000;1.1355;1.7117;
512.1000;1.1355;1.7141;
512.4000;1.1331;1.7068;
512.7000;1.1339;1.7092;
513.0000;1.1363;1.7092;
513.3000;1.1380;1.7044;
513.6000;1.1363;1.7044;
513.9000;1.1388;1.7262;
514.2000;1.1347;1.7092;
514.5000;1.1339;1.7068;
514.8000;1.1315;1.6947;
515.1000;1.1355;1.7141;
515.4000;1.1339;1.7165;
515.7000;1.1347;1.7213;
516.0000;1.1347;1.7189;
516.3000;1.1355;1.7237;
516.6000;1.1363;1.7141;
516.9000;1.1339;1.7165;
517.2000;1.1323;1.7092;
517.5000;1.1298;1.6923;
517.8000;1.1355;1.7044;
518.1000;1.1347;1.7020;
518.4000;1.1347;1.6947;
518.7000;1.1363;1.6972;
519.0000;1.1339;1.6947;
519.3000;1.1274;1.6802;
519.6000;1.1363;1.7044;
519.9000;1.1355;1.7068;
520.2000;1.1396;1.7165;
520.5000;1.1355;1.7117;
520.8000;1.1315;1.6972;
521.1000;1.1347;1.7068;
521.4000;1.1339;1.6996;
521.7000;1.1347;1.6996;
522.0000;1.1339;1.6996;
522.3000;1.1331;1.6972;
522.6000;1.1355;1.7044;
522.9000;1.1380;1.7092;
523.2000;1.1363;1.7117;
523.5000;1.1347;1.7044;
523.8000;1.1445;1.7213;
524.1000;1.1339;1.7117;
524.4000;1.1306;1.7068;
524.7000;1.1363;1.7092;
525.0000;1.1372;1.7092;
525.3000;1.1388;1.7189;
525.6000;1.1315;1.7044;
525.9000;1.1372;1.7117;
526.2000;1.1380;1.7165;
526.5000;1.1363;1.7165;
526.8000;1.1380;1.7141;
527.1000;1.1355;1.7141;
527.4000;1.1380;1.7213;
527.7000;1.1388;1.7213;
528.0000;1.1355;1.7141;
528.3000;1.1396;1.7165;
528.6000;1.1306;1.6802;
528.9000;1.1396;1.7044;
529.2000;1.1331;1.6899;
529.5000;1.1298;1.6851;
529.8000;1.1363;1.7092;
530.1000;1.1331;1.7044;
530.4000;1.1363;1.7189;
530.7000;1.1347;1.7189;
531.0000;1.1355;1.7117;
531.3000;1.1372;1.7189;
531.6000;1.1372;1.7141;
531.9000;1.1388;1.7141;
532.2000;1.1363;1.7141;
532.5000;1.1372;1.7213;
532.8000;1.1372;1.7334;
533.1000;1.1363;1.7431;
533.4000;1.1372;1.7358;
533.7000;1.1380;1.7455;
534.0000;1.1355;1.7455;
534.3000;1.1331;1.7455;
534.6000;1.1355;1.7358;
534.9000;1.1372;1.7358;
535.2000;1.1339;1.7262;
535.5000;1.1363;1.7334;
535.8000;1.1363;1.7286;
536.1000;1.1323;1.7165;
536.4000;1.1355;1.7286;
536.7000;1.1372;1.7262;
537.0000;1.1372;1.7237;
537.3000;1.1355;1.7189;
537.6000;1.1347;1.7262;
537.9000;1.1372;1.7262;
538.2000;1.1372;1.7286;
538.5000;1.1372;1.7189;
538.8000;1.1477;1.7479;
539.1000;1.1372;1.7189;
539.4000;1.1347;1.7237;
539.7000;1.1372;1.7407;
540.0000;1.1339;1.7358;
540.3000;1.1339;1.7286;
540.6000;1.1331;1.7165;
540.9000;1.1380;1.7141;
541.2000;1.1331;1.7165;
541.5000;1.1363;1.7213;
541.8000;1.1363;1.7189;
542.1000;1.1355;1.7310;
542.4000;1.1363;1.7286;
542.7000;1.1347;1.7189;
543.0000;1.1363;1.7237;
543.3000;1.1355;1.7213;
543.6000;1.1388;1.7310;
543.9000;1.1363;1.7237;
544.2000;1.1355;1.7165;
544.5000;1.1355;1.7213;
544.8000;1.1347;1.7213;
545.1000;1.1347;1.7165;
545.4000;1.1306;1.7044;
545.7000;1.1323;1.7092;
546.0000;1.1355;1.7237;
546.3000;1.1347;1.7262;
546.6000;1.1355;1.7407;
546.9000;1.1372;1.7334;
547.2000;1.1372;1.7407;
547.5000;1.1355;1.7286;
547.8000;1.1404;1.7407;
548.1000;1.1372;1.7358;
548.4000;1.1315;1.7286;
548.7000;1.1323;1.7286;
549.0000;1.1355;1.7286;
549.3000;1.1363;1.7286;
549.6000;1.1355;1.7213;
549.9000;1.1331;1.7189;
550.2000;1.1347;1.7213;
550.5000;1.1355;1.7117;
550.8000;1.1331;1.6972;
551.1000;1.1347;1.7020;
551.4000;1.1339;1.6947;
551.7000;1.1347;1.7020;
552.0000;1.1347;1.6996;
552.3000;1.1306;1.6996;
552.6000;1.1363;1.7141;
552.9000;1.1355;1.7092;
553.2000;1.1347;1.7044;
553.5000;1.1331;1.7092;
553.8000;1.1331;1.7020;
554.1000;1.1355;1.6972;
554.4000;1.1355;1.7044;
554.7000;1.1339;1.7020;
555.0000;1.1347;1.7117;
555.3000;1.1347;1.7141;
555.6000;1.1298;1.7020;
555.9000;1.1388;1.7117;
556.2000;1.1331;1.6996;
556.5000;1.1347;1.7020;
556.8000;1.1298;1.6947;
557.1000;1.1347;1.7092;
557.4000;1.1388;1.7213;
557.7000;1.1347;1.7092;
558.0000;1.1347;1.7092;
558.3000;1.1323;1.7068;
558.6000;1.1339;1.7068;
558.9000;1.1355;1.6996;
559.2000;1.1363;1.6996;
559.5000;1.1347;1.6972;
559.8000;1.1339;1.7044;
560.1000;1.1331;1.7092;
560.4000;1.1323;1.7141;
560.7000;1.1347;1.7189;
561.0000;1.1347;1.7213;
561.3000;1.1331;1.7165;
561.6000;1.1315;1.7068;
561.9000;1.1339;1.7141;
562.2000;1.1315;1.7044;
562.5000;1.1429;1.7286;
562.8000;1.1363;1.7165;
563.1000;1.1315;1.7044;
563.4000;1.1315;1.7068;
563.7000;1.1363;1.7117;
564.0000;1.1315;1.7044;
564.3000;1.1388;1.7165;
564.6000;1.1429;1.7213;
564.9000;1.1347;1.7020;
565.2000;1.1298;1.6972;
565.5000;1.1306;1.6947;
565.8000;1.1347;1.7020;
566.1000;1.1306;1.6826;
566.4000;1.1339;1.6851;
566.7000;1.1331;1.6851;
567.0000;1.1355;1.6851;
567.3000;1.1380;1.6899;
567.6000;1.1388;1.7044;
567.9000;1.1380;1.6947;
568.2000;1.1347;1.6875;
568.5000;1.1323;1.6826;
568.8000;1.1331;1.6899;
569.1000;1.1339;1.6947;
569.4000;1.1363;1.7092;
569.7000;1.1331;1.7044;
570.0000;1.1331;1.7044;
570.3000;1.1347;1.7117;
570.6000;1.1339;1.7092;
570.9000;1.1339;1.7141;
571.2000;1.1347;1.7068;
571.5000;1.1347;1.7044;
571.8000;1.1339;1.7165;
572.1000;1.1339;1.7189;
572.4000;1.1323;1.7092;
572.7000;1.1339;1.7117;
573.0000;1.1363;1.7092;
573.3000;1.1363;1.7117;
573.6000;1.1339;1.7044;
573.9000;1.1347;1.7044;
574.2000;1.1363;1.7092;
574.5000;1.1363;1.6996;
574.8000;1.1363;1.7044;
575.1000;1.1339;1.6947;
575.4000;1.1355;1.6996;
575.7000;1.1363;1.7020;
576.0000;1.1347;1.7044;
576.3000;1.1266;1.6826;
576.6000;1.1339;1.7044;
576.9000;1.1355;1.7165;
577.2000;1.1331;1.7141;
577.5000;1.1372;1.7141;
577.8000;1.1298;1.6947;
578.1000;1.1355;1.7044;
578.4000;1.1396;1.7141;
578.7000;1.1282;1.6947;
579.0000;1.1347;1.7020;
579.3000;1.1339;1.7044;
579.6000;1.1347;1.6996;
579.9000;1.1355;1.6996;
580.2000;1.1331;1.6947;
580.5000;1.1298;1.6802;
580.8000;1.1355;1.7044;
581.1000;1.1347;1.6996;
581.4000;1.1339;1.6972;
581.7000;1.1339;1.7020;
582.0000;1.1339;1.7020;
582.3000;1.1339;1.6996;
582.6000;1.1339;1.6996;
582.9000;1.1347;1.7020;
583.2000;1.1372;1.7117;
583.5000;1.1355;1.7117;
583.8000;1.1347;1.7068;
584.1000;1.1339;1.7141;
584.4000;1.1363;1.7117;
584.7000;1.1339;1.7117;
585.0000;1.1315;1.7020;
585.3000;1.1331;1.7044;
585.6000;1.1388;1.7068;
585.9000;1.1331;1.6899;
586.2000;1.1331;1.6947;
586.5000;1.1363;1.7092;
586.8000;1.1347;1.7020;
587.1000;1.1339;1.7117;
587.4000;1.1347;1.7117;
587.7000;1.1331;1.7092;
588.0000;1.1339;1.7141;
588.3000;1.1331;1.7068;
588.6000;1.1355;1.7068;
588.9000;1.1347;1.6972;
589.2000;1.1347;1.6972;
589.5000;1.1323;1.6899;
589.8000;1.1355;1.6972;
590.1000;1.1347;1.6875;
590.4000;1.1363;1.6899;
590.7000;1.1331;1.6923;
591.0000;1.1355;1.6947;
591.3000;1.1363;1.7020;
591.6000;1.1363;1.6923;
591.9000;1.1445;1.7237;
592.2000;1.1331;1.6972;
592.5000;1.1355;1.6972;
592.8000;1.1347;1.6972;
593.1000;1.1339;1.6972;
593.4000;1.1347;1.7117;
593.7000;1.1355;1.7068;
594.0000;1.1347;1.7092;
594.3000;1.1355;1.7020;
594.6000;1.1339;1.6899;
594.9000;1.1372;1.6972;
595.2000;1.1355;1.6875;
595.5000;1.1331;1.6851;
595.8000;1.1339;1.6826;
596.1000;1.1339;1.6851;
596.4000;1.1298;1.6754;
596.7000;1.1258;1.6657;
597.0000;1.1355;1.6947;
597.3000;1.1355;1.6923;
597.6000;1.1355;1.6899;
597.9000;1.1388;1.6923;
598.2000;1.1355;1.6875;
598.5000;1.1372;1.6923;
598.8000;1.1372;1.7020;
599.1000;1.1363;1.6996;
599.4000;1.1347;1.6947;
599.7000;1.1355;1.6996;
600.0000;1.1339;1.6923;
600.3000;1.1355;1.6875;
600.6000;1.1290;1.6561;
600.9000;1.1306;1.6561;
601.2000;1.1119;1.6270;
601.5000;1.1013;1.6077;
601.8000;1.0916;1.5932;
602.1000;1.0794;1.5690;
602.4000;1.0704;1.5642;
602.7000;1.0623;1.5497;
603.0000;1.0525;1.5424;
603.3000;1.0444;1.5303;
603.6000;1.0322;1.5037;
603.9000;1.0232;1.4917;
604.2000;1.0208;1.4868;
604.5000;1.0175;1.4892;
604.8000;1.0061;1.4651;
605.1000;1.0012;1.4554;
605.4000;0.9939;1.4361;
605.7000;0.9841;1.4191;
606.0000;0.9841;1.4167;
606.3000;0.9792;1.4191;
606.6000;0.9695;1.4022;
606.9000;0.9638;1.3998;
607.2000;0.9638;1.4070;
607.5000;0.9605;1.4022;
607.8000;0.9548;1.3974;
608.1000;0.9524;1.3998;
608.4000;0.9475;1.3950;
608.7000;0.9442;1.3877;
609.0000;0.9402;1.3780;
609.3000;0.9369;1.3780;
609.6000;0.9320;1.3925;
609.9000;0.9304;1.3998;
610.2000;0.9231;1.3925;
610.5000;0.9190;1.3901;
610.8000;0.9182;1.3853;
611.1000;0.9158;1.3829;
611.4000;0.9133;1.3780;
611.7000;0.9117;1.3804;
612.0000;0.9027;1.3611;
612.3000;0.9044;1.3708;
612.6000;0.9027;1.3756;
612.9000;0.8946;1.3587;
613.2000;0.8978;1.3635;
613.5000;0.8930;1.3563;
613.8000;0.8905;1.3587;
614.1000;0.8913;1.3659;
614.4000;0.8881;1.3684;
614.7000;0.8840;1.3587;
615.0000;0.8824;1.3539;
615.3000;0.8767;1.3442;
615.6000;0.8775;1.3490;
615.9000;0.8734;1.3369;
616.2000;0.8791;1.3587;
616.5000;0.8734;1.3442;
616.8000;0.8710;1.3224;
617.1000;0.8661;1.3152;
617.4000;0.8653;1.3248;
617.7000;0.8571;1.3152;
618.0000;0.8637;1.3297;
618.3000;0.8580;1.3321;
618.6000;0.8571;1.3393;
618.9000;0.8563;1.3321;
619.2000;0.8563;1.3321;
619.5000;0.8523;1.3273;
619.8000;0.8531;1.3297;
620.1000;0.8474;1.3273;
620.4000;0.8498;1.3345;
620.7000;0.8482;1.3345;
621.0000;0.8449;1.3224;
621.3000;0.8441;1.3152;
621.6000;0.8417;1.3103;
621.9000;0.8409;1.3079;
622.2000;0.8409;1.3152;
622.5000;0.8392;1.3224;
622.8000;0.8344;1.3152;
623.1000;0.8384;1.3200;
623.4000;0.8319;1.3128;
623.7000;0.8376;1.3273;
624.0000;0.8335;1.3176;
624.3000;0.8327;1.3224;
624.6000;0.8311;1.3103;
624.9000;0.8303;1.3152;
625.2000;0.8270;1.3176;
625.5000;0.8254;1.3224;
625.8000;0.8254;1.3224;
626.1000;0.8230;1.3200;
626.4000;0.8205;1.3176;
626.7000;0.8205;1.3273;
627.0000;0.8181;1.3176;
627.3000;0.8164;1.3055;
627.6000;0.8156;1.3128;
627.9000;0.8173;1.3248;
628.2000;0.8164;1.3200;
628.5000;0.8132;1.3031;
628.8000;0.8132;1.3007;
629.1000;0.8124;1.3055;
629.4000;0.8116;1.2958;
629.7000;0.8099;1.2958;
630.0000;0.8091;1.2958;
630.3000;0.8075;1.2958;
630.6000;0.8067;1.3079;
630.9000;0.8050;1.3103;
631.2000;0.8034;1.3128;
631.5000;0.8026;1.3103;
631.8000;0.8034;1.3128;
632.1000;0.8018;1.3079;
632.4000;0.8002;1.2982;
632.7000;0.8002;1.3055;
633.0000;0.8002;1.3152;
633.3000;0.7993;1.3152;
633.6000;0.7985;1.3176;
633.9000;0.7977;1.3128;
634.2000;0.7993;1.3176;
634.5000;0.7977;1.3152;
634.8000;0.7945;1.3031;
635.1000;0.7945;1.2934;
635.4000;0.7961;1.2910;
635.7000;0.7928;1.2982;
636.0000;0.7928;1.3007;
636.3000;0.7904;1.2934;
636.6000;0.7920;1.2982;
636.9000;0.7839;1.2910;
637.2000;0.7896;1.3055;
637.5000;0.7863;1.3007;
637.8000;0.7888;1.3055;
638.1000;0.7928;1.3103;
638.4000;0.7855;1.2910;
638.7000;0.7839;1.2886;
639.0000;0.7831;1.2958;
639.3000;0.7847;1.2982;
639.6000;0.7831;1.2910;
639.9000;0.7814;1.2886;
640.2000;0.7814;1.2886;
640.5000;0.7798;1.2886;
640.8000;0.7757;1.2741;
641.1000;0.7790;1.2910;
641.4000;0.7774;1.2837;
641.7000;0.7774;1.2789;
642.0000;0.7774;1.2837;
642.3000;0.7757;1.2934;
642.6000;0.7749;1.2886;
642.9000;0.7733;1.3007;
643.2000;0.7749;1.3055;
643.5000;0.7733;1.3031;
643.8000;0.7741;1.3031;
644.1000;0.7733;1.3007;
644.4000;0.7717;1.3055;
644.7000;0.7725;1.3079;
645.0000;0.7700;1.3103;
645.3000;0.7700;1.3176;
645.6000;0.7700;1.3103;
645.9000;0.7709;1.3128;
646.2000;0.7668;1.3007;
646.5000;0.7676;1.3007;
646.8000;0.7652;1.3055;
647.1000;0.7668;1.3128;
647.4000;0.7660;1.3007;
647.7000;0.7652;1.3055;
648.0000;0.7652;1.3031;
648.3000;0.7635;1.3079;
648.6000;0.7643;1.3103;
648.9000;0.7619;1.3128;
649.2000;0.7619;1.3128;
649.5000;0.7619;1.3103;
649.8000;0.7611;1.3079;
650.1000;0.7562;1.3031;
650.4000;0.7603;1.3152;
650.7000;0.7578;1.3152;
651.0000;0.7595;1.3273;
651.3000;0.7586;1.3273;
651.6000;0.7619;1.3273;
651.9000;0.7570;1.3079;
652.2000;0.7554;1.3079;
652.5000;0.7513;1.3007;
652.8000;0.7538;1.3128;
653.1000;0.7546;1.3152;
653.4000;0.7546;1.3152;
653.7000;0.7530;1.3128;
654.0000;0.7538;1.3248;
654.3000;0.7497;1.3200;
654.6000;0.7505;1.3248;
654.9000;0.7481;1.3224;
655.2000;0.7530;1.3321;
655.5000;0.7513;1.3345;
655.8000;0.7505;1.3321;
656.1000;0.7497;1.3297;
656.4000;0.7489;1.3297;
656.7000;0.7456;1.3200;
657.0000;0.7448;1.3224;
657.3000;0.7505;1.3345;
657.6000;0.7407;1.3031;
657.9000;0.7464;1.3152;
658.2000;0.7530;1.3273;
658.5000;0.7464;1.3103;
658.8000;0.7440;1.2982;
659.1000;0.7538;1.3273;
659.4000;0.7432;1.3031;
659.7000;0.7456;1.3103;
660.0000;0.7464;1.3200;
660.3000;0.7464;1.3297;
660.6000;0.7407;1.3176;
660.9000;0.7473;1.3490;
661.2000;0.7432;1.3418;
661.5000;0.7432;1.3466;
661.8000;0.7391;1.3393;
662.1000;0.7407;1.3442;
662.4000;0.7407;1.3490;
662.7000;0.7399;1.3490;
663.0000;0.7383;1.3369;
663.3000;0.7375;1.3297;
663.6000;0.7375;1.3273;
663.9000;0.7399;1.3297;
664.2000;0.7375;1.3273;
664.5000;0.7383;1.3248;
664.8000;0.7375;1.3152;
665.1000;0.7375;1.3103;
665.4000;0.7342;1.3007;
665.7000;0.7350;1.3007;
666.0000;0.7359;1.3007;
666.3000;0.7359;1.3007;
666.6000;0.7440;1.3128;
666.9000;0.7326;1.2765;
667.2000;0.7318;1.2837;
667.5000;0.7326;1.2910;
667.8000;0.7342;1.2886;
668.1000;0.7318;1.2910;
668.4000;0.7293;1.2886;
668.7000;0.7302;1.2934;
669.0000;0.7334;1.3079;
669.3000;0.7302;1.3079;
669.6000;0.7285;1.3031;
669.9000;0.7293;1.2982;
670.2000;0.7277;1.3007;
670.5000;0.7277;1.3007;
670.8000;0.7277;1.3128;
671.1000;0.7245;1.3128;
671.4000;0.7269;1.3152;
671.7000;0.7253;1.3103;
672.0000;0.7253;1.3152;
672.3000;0.7253;1.3176;
672.6000;0.7253;1.3273;
672.9000;0.7220;1.3176;
673.2000;0.7236;1.3200;
673.5000;0.7228;1.3248;
673.8000;0.7228;1.3200;
674.1000;0.7285;1.3321;
674.4000;0.7228;1.3273;
674.7000;0.7204;1.3273;
675.0000;0.7212;1.3248;
675.3000;0.7196;1.3152;
675.6000;0.7236;1.3297;
675.9000;0.7204;1.3200;
676.2000;0.7204;1.3297;
676.5000;0.7212;1.3345;
676.8000;0.7253;1.3369;
677.1000;0.7204;1.3321;
677.4000;0.7179;1.3224;
677.7000;0.7196;1.3273;
678.0000;0.7179;1.3176;
678.3000;0.7179;1.3176;
678.6000;0.7171;1.3224;
678.9000;0.7204;1.3321;
679.2000;0.7179;1.3321;
679.5000;0.7204;1.3369;
679.8000;0.7163;1.3248;
680.1000;0.7163;1.3273;
680.4000;0.7163;1.3224;
680.7000;0.7163;1.3297;
681.0000;0.7147;1.3200;
681.3000;0.7155;1.3248;
681.6000;0.7163;1.3321;
681.9000;0.7188;1.3393;
682.2000;0.7123;1.3200;
682.5000;0.7123;1.3200;
682.8000;0.7155;1.3345;
683.1000;0.7139;1.3321;
683.4000;0.7106;1.3297;
683.7000;0.7090;1.3224;
684.0000;0.7106;1.3224;
684.3000;0.7139;1.3297;
684.6000;0.7114;1.3321;
684.9000;0.7114;1.3321;
685.2000;0.7114;1.3321;
685.5000;0.7098;1.3442;
685.8000;0.7106;1.3418;
686.1000;0.7106;1.3345;
686.4000;0.7049;1.3079;
686.7000;0.7090;1.3152;
687.0000;0.7082;1.3152;
687.3000;0.7082;1.3152;
687.6000;0.7082;1.3200;
687.9000;0.7090;1.3055;
688.2000;0.7106;1.3128;
688.5000;0.7106;1.3176;
688.8000;0.7082;1.3103;
689.1000;0.7057;1.3007;
689.4000;0.7098;1.3224;
689.7000;0.7041;1.3055;
690.0000;0.7082;1.3079;
690.3000;0.7074;1.3103;
690.6000;0.7049;1.3055;
690.9000;0.6968;1.2910;
691.2000;0.7057;1.3152;
691.5000;0.7057;1.3152;
691.8000;0.7066;1.3128;
692.1000;0.7033;1.3055;
692.4000;0.7033;1.3055;
692.7000;0.7000;1.2982;
693.0000;0.7041;1.3055;
693.3000;0.7017;1.3103;
693.6000;0.7000;1.3007;
693.9000;0.7025;1.3103;
694.2000;0.7017;1.3128;
694.5000;0.7074;1.3200;
694.8000;0.7017;1.3103;
695.1000;0.7025;1.3103;
695.4000;0.7009;1.3079;
695.7000;0.6992;1.3079;
696.0000;0.7066;1.3273;
696.3000;0.6968;1.2982;
696.6000;0.6927;1.2886;
696.9000;0.7009;1.3031;
697.2000;0.6984;1.3007;
697.5000;0.6984;1.3007;
697.8000;0.6968;1.3055;
698.1000;0.6960;1.2982;
698.4000;0.6992;1.3031;
698.7000;0.6960;1.2982;
699.0000;0.6968;1.3031;
699.3000;0.6968;1.3031;
699.6000;0.6960;1.2958;
699.9000;0.6968;1.3055;
700.2000;0.6968;1.3031;
700.5000;0.6968;1.2958;
700.8000;0.6968;1.3007;
701.1000;0.6927;1.2910;
701.4000;0.6976;1.3031;
701.7000;0.6984;1.2958;
702.0000;0.6960;1.2910;
702.3000;0.6943;1.2958;
702.6000;0.6992;1.2886;
702.9000;0.6927;1.2717;
703.2000;0.6943;1.2717;
703.5000;0.6952;1.2837;
703.8000;0.6960;1.2886;
704.1000;0.6935;1.2958;
704.4000;0.6903;1.2862;
704.7000;0.6935;1.2910;
705.0000;0.6927;1.2886;
705.3000;0.6935;1.2958;
705.6000;0.6935;1.3007;
705.9000;0.6927;1.3007;
706.2000;0.6976;1.3224;
706.5000;0.6927;1.3248;
706.8000;0.6895;1.3224;
707.1000;0.6846;1.3007;
707.4000;0.6984;1.3369;
707.7000;0.6911;1.3152;
708.0000;0.6911;1.3200;
708.3000;0.6911;1.3200;
708.6000;0.6919;1.3200;
708.9000;0.6952;1.3273;
709.2000;0.6886;1.3152;
709.5000;0.6895;1.3200;
709.8000;0.6960;1.3345;
710.1000;0.6895;1.3200;
710.4000;0.6911;1.3200;
710.7000;0.6903;1.3176;
711.0000;0.6919;1.3224;
711.3000;0.6878;1.3200;
711.6000;0.6878;1.3128;
711.9000;0.6919;1.3128;
712.2000;0.6862;1.3079;
712.5000;0.6854;1.3128;
712.8000;0.6878;1.3103;
713.1000;0.6854;1.3176;
713.4000;0.6862;1.3248;
713.7000;0.6846;1.3176;
714.0000;0.6870;1.3297;
714.3000;0.6862;1.3224;
714.6000;0.6895;1.3321;
714.9000;0.6870;1.3273;
715.2000;0.6862;1.3248;
715.5000;0.6846;1.3176;
715.8000;0.6886;1.3248;
716.1000;0.6862;1.3128;
716.4000;0.6862;1.3103;
716.7000;0.6870;1.3200;
717.0000;0.6805;1.3103;
717.3000;0.6821;1.3128;
717.6000;0.6886;1.3200;
717.9000;0.6838;1.3055;
718.2000;0.6805;1.2958;
718.5000;0.6821;1.3031;
718.8000;0.6821;1.2982;
719.1000;0.6846;1.3031;
719.4000;0.6805;1.2934;
719.7000;0.6813;1.3007;
720.0000;0.6829;1.3007;
720.3000;0.6829;1.3055;
720.6000;0.6821;1.3103;
720.9000;0.6805;1.3079;
721.2000;0.6829;1.3176;
721.5000;0.6813;1.3200;
721.8000;0.6789;1.3152;
722.1000;0.6805;1.3079;
722.4000;0.6813;1.3128;
722.7000;0.6805;1.2982;
723.0000;0.6797;1.3007;
723.3000;0.6789;1.3031;
723.6000;0.6789;1.3079;
723.9000;0.6797;1.3031;
724.2000;0.6748;1.2789;
724.5000;0.6805;1.2958;
724.8000;0.6781;1.3031;
725.1000;0.6781;1.3103;
725.4000;0.6789;1.3103;
725.7000;0.6772;1.3055;
726.0000;0.6789;1.3007;
726.3000;0.6781;1.2886;
726.6000;0.6781;1.2910;
726.9000;0.6748;1.2813;
727.2000;0.6789;1.2934;
727.5000;0.6772;1.2934;
727.8000;0.6781;1.2982;
728.1000;0.6772;1.2982;
728.4000;0.6781;1.3031;
728.7000;0.6781;1.3200;
729.0000;0.6781;1.3128;
729.3000;0.6789;1.3152;
729.6000;0.6781;1.3152;
729.9000;0.6756;1.3103;
730.2000;0.6732;1.3031;
730.5000;0.6797;1.3200;
730.8000;0.6756;1.3055;
731.1000;0.6764;1.3031;
731.4000;0.6756;1.2982;
731.7000;0.6756;1.3007;
732.0000;0.6748;1.2934;
732.3000;0.6732;1.2910;
732.6000;0.6732;1.2886;
732.9000;0.6748;1.2934;
733.2000;0.6740;1.2934;
733.5000;0.6707;1.2813;
733.8000;0.6748;1.3007;
734.1000;0.6748;1.2982;
734.4000;0.6772;1.3055;
734.7000;0.6707;1.2910;
735.0000;0.6732;1.2982;
735.3000;0.6691;1.2910;
735.6000;0.6724;1.3007;
735.9000;0.6707;1.2934;
736.2000;0.6732;1.3031;
736.5000;0.6748;1.3031;
736.8000;0.6724;1.2982;
737.1000;0.6724;1.3079;
737.4000;0.6724;1.3103;
737.7000;0.6732;1.3128;
738.0000;0.6724;1.3128;
738.3000;0.6707;1.3079;
738.6000;0.6740;1.3176;
738.9000;0.6740;1.3200;
739.2000;0.6724;1.3176;
739.5000;0.6724;1.3200;
739.8000;0.6707;1.3152;
740.1000;0.6724;1.3152;
740.4000;0.6732;1.3176;
740.7000;0.6707;1.3152;
741.0000;0.6724;1.3273;
741.3000;0.6707;1.3297;
741.6000;0.6724;1.3248;
741.9000;0.6691;1.3152;
742.2000;0.6683;1.3200;
742.5000;0.6707;1.3224;
742.8000;0.6699;1.3224;
743.1000;0.6683;1.3200;
743.4000;0.6683;1.3200;
743.7000;0.6699;1.3321;
744.0000;0.6691;1.3345;
744.3000;0.6691;1.3273;
744.6000;0.6691;1.3369;
744.9000;0.6691;1.3345;
745.2000;0.6772;1.3587;
745.5000;0.6683;1.3369;
745.8000;0.6626;1.3152;
746.1000;0.6667;1.3297;
746.4000;0.6675;1.3273;
746.7000;0.6675;1.3273;
747.0000;0.6683;1.3369;
747.3000;0.6659;1.3273;
747.6000;0.6650;1.3248;
747.9000;0.6667;1.3224;
748.2000;0.6659;1.3273;
748.5000;0.6650;1.3200;
748.8000;0.6675;1.3273;
749.1000;0.6650;1.3224;
749.4000;0.6659;1.3224;
749.7000;0.6659;1.3273;
750.0000;0.6683;1.3224;
750.3000;0.6675;1.3248;
750.6000;0.6659;1.3200;
750.9000;0.6650;1.3128;
751.2000;0.6650;1.3128;
751.5000;0.6650;1.3200;
751.8000;0.6667;1.3224;
752.1000;0.6659;1.3152;
752.4000;0.6593;1.3103;
752.7000;0.6634;1.3200;
753.0000;0.6659;1.3297;
753.3000;0.6683;1.3273;
753.6000;0.6642;1.3200;
753.9000;0.6642;1.3152;
754.2000;0.6642;1.3007;
754.5000;0.6650;1.3079;
754.8000;0.6634;1.3079;
755.1000;0.6642;1.3152;
755.4000;0.6626;1.3152;
755.7000;0.6634;1.3224;
756.0000;0.6634;1.3200;
756.3000;0.6626;1.3176;
756.6000;0.6634;1.3273;
756.9000;0.6642;1.3345;
757.2000;0.6626;1.3224;
757.5000;0.6626;1.3321;
757.8000;0.6602;1.3345;
758.1000;0.6634;1.3345;
758.4000;0.6593;1.3321;
758.7000;0.6626;1.3297;
759.0000;0.6626;1.3297;
759.3000;0.6585;1.3248;
759.6000;0.6626;1.3442;
759.9000;0.6610;1.3393;
760.2000;0.6602;1.3418;
760.5000;0.6593;1.3442;
760.8000;0.6593;1.3442;
761.1000;0.6602;1.3418;
761.4000;0.6593;1.3466;
761.7000;0.6618;1.3587;
762.0000;0.6602;1.3563;
762.3000;0.6602;1.3539;
762.6000;0.6602;1.3539;
762.9000;0.6618;1.3418;
763.2000;0.6593;1.3248;
763.5000;0.6602;1.3273;
763.8000;0.6602;1.3152;
764.1000;0.6553;1.3031;
764.4000;0.6618;1.3079;
764.7000;0.6602;1.3152;
765.0000;0.6610;1.3152;
765.3000;0.6585;1.3055;
765.6000;0.6602;1.3152;
765.9000;0.6683;1.3345;
766.2000;0.6577;1.3007;
766.5000;0.6610;1.3007;
766.8000;0.6602;1.2934;
767.1000;0.6593;1.2982;
767.4000;0.6626;1.3079;
767.7000;0.6602;1.3031;
768.0000;0.6618;1.3031;
768.3000;0.6593;1.2934;
768.6000;0.6585;1.3031;
768.9000;0.6585;1.3055;
769.2000;0.6569;1.3079;
769.5000;0.6593;1.3273;
769.8000;0.6602;1.3273;
770.1000;0.6585;1.3224;
770.4000;0.6577;1.3200;
770.7000;0.6593;1.3200;
771.0000;0.6577;1.3128;
771.3000;0.6585;1.3079;
771.6000;0.6642;1.3248;
771.9000;0.6561;1.3103;
772.2000;0.6650;1.3393;
772.5000;0.6602;1.3224;
772.8000;0.6569;1.3248;
773.1000;0.6650;1.3514;
773.4000;0.6602;1.3418;
773.7000;0.6561;1.3369;
774.0000;0.6569;1.3442;
774.3000;0.6602;1.3514;
774.6000;0.6545;1.3345;
774.9000;0.6561;1.3297;
775.2000;0.6585;1.3297;
775.5000;0.6561;1.3176;
775.8000;0.6569;1.3224;
776.1000;0.6561;1.3297;
776.4000;0.6561;1.3248;
776.7000;0.6577;1.3345;
777.0000;0.6569;1.3297;
777.3000;0.6528;1.3152;
777.6000;0.6553;1.3200;
777.9000;0.6553;1.3200;
778.2000;0.6536;1.3224;
778.5000;0.6561;1.3224;
778.8000;0.6545;1.3273;
779.1000;0.6536;1.3224;
779.4000;0.6553;1.3248;
779.7000;0.6545;1.3224;
780.0000;0.6561;1.3248;
780.3000;0.6553;1.3152;
780.6000;0.6569;1.3128;
780.9000;0.6545;1.3055;
781.2000;0.6569;1.3152;
781.5000;0.6520;1.3055;
781.8000;0.6536;1.3079;
782.1000;0.6545;1.3103;
782.4000;0.6585;1.3321;
782.7000;0.6536;1.3248;
783.0000;0.6512;1.3224;
783.3000;0.6545;1.3248;
783.6000;0.6528;1.3321;
783.9000;0.6536;1.3321;
784.2000;0.6528;1.3297;
784.5000;0.6528;1.3321;
784.8000;0.6536;1.3345;
785.1000;0.6528;1.3321;
785.4000;0.6512;1.3200;
785.7000;0.6602;1.3369;
786.0000;0.6528;1.3224;
786.3000;0.6528;1.3103;
786.6000;0.6512;1.3055;
786.9000;0.6545;1.3200;
787.2000;0.6553;1.3176;
787.5000;0.6569;1.3248;
787.8000;0.6528;1.3297;
788.1000;0.6520;1.3152;
788.4000;0.6512;1.3176;
788.7000;0.6528;1.3224;
789.0000;0.6520;1.3224;
789.3000;0.6545;1.3273;
789.6000;0.6553;1.3345;
789.9000;0.6504;1.3248;
790.2000;0.6479;1.3224;
790.5000;0.6496;1.3248;
790.8000;0.6512;1.3224;
791.1000;0.6593;1.3490;
791.4000;0.6512;1.3321;
791.7000;0.6504;1.3297;
792.0000;0.6447;1.3200;
792.3000;0.6520;1.3442;
792.6000;0.6569;1.3611;
792.9000;0.6488;1.3418;
793.2000;0.6512;1.3345;
793.5000;0.6463;1.3297;
793.8000;0.6553;1.3393;
794.1000;0.6471;1.3200;
794.4000;0.6496;1.3273;
794.7000;0.6504;1.3345;
795.0000;0.6520;1.3418;
795.3000;0.6504;1.3418;
795.6000;0.6553;1.3490;
795.9000;0.6496;1.3345;
796.2000;0.6504;1.3345;
796.5000;0.6496;1.3418;
796.8000;0.6488;1.3393;
797.1000;0.6390;1.3273;
797.4000;0.6471;1.3393;
797.7000;0.6463;1.3369;
798.0000;0.6496;1.3418;
798.3000;0.6496;1.3442;
798.6000;0.6512;1.3490;
798.9000;0.6422;1.3297;
799.2000;0.6463;1.3345;
799.5000;0.6479;1.3297;
799.8000;0.6479;1.3321;
800.1000;0.6496;1.3345;
800.4000;0.6528;1.3369;
800.7000;0.6496;1.3321;
801.0000;0.6496;1.3490;
801.3000;0.6496;1.3466;
801.6000;0.6488;1.3466;
801.9000;0.6463;1.3345;
802.2000;0.6463;1.3273;
802.5000;0.6479;1.3321;
802.8000;0.6463;1.3297;
803.1000;0.6479;1.3369;
803.4000;0.6447;1.3321;
803.7000;0.6479;1.3442;
804.0000;0.6471;1.3539;
804.3000;0.6463;1.3466;
804.6000;0.6463;1.3393;
804.9000;0.6471;1.3345;
805.2000;0.6471;1.3248;
805.5000;0.6463;1.3273;
805.8000;0.6455;1.3321;
806.1000;0.6471;1.3418;
806.4000;0.6479;1.3539;
806.7000;0.6471;1.3514;
807.0000;0.6439;1.3393;
807.3000;0.6471;1.3393;
807.6000;0.6455;1.3297;
807.9000;0.6406;1.3345;
808.2000;0.6479;1.3514;
808.5000;0.6447;1.3418;
808.8000;0.6455;1.3345;
809.1000;0.6463;1.3345;
809.4000;0.6479;1.3418;
809.7000;0.6390;1.3224;
810.0000;0.6479;1.3490;
810.3000;0.6471;1.3490;
810.6000;0.6439;1.3418;
810.9000;0.6471;1.3514;
811.2000;0.6463;1.3466;
811.5000;0.6536;1.3611;
811.8000;0.6471;1.3466;
812.1000;0.6471;1.3466;
812.4000;0.6447;1.3345;
812.7000;0.6463;1.3369;
813.0000;0.6447;1.3224;
813.3000;0.6455;1.3200;
813.6000;0.6520;1.3321;
813.9000;0.6422;1.3103;
814.2000;0.6431;1.3176;
814.5000;0.6439;1.3103;
814.8000;0.6431;1.3103;
815.1000;0.6422;1.3273;
815.4000;0.6439;1.3321;
815.7000;0.6439;1.3297;
816.0000;0.6422;1.3273;
816.3000;0.6479;1.3393;
816.6000;0.6447;1.3345;
816.9000;0.6439;1.3297;
817.2000;0.6431;1.3273;
817.5000;0.6431;1.3248;
817.8000;0.6479;1.3345;
818.1000;0.6431;1.3345;
818.4000;0.6463;1.3418;
818.7000;0.6439;1.3369;
819.0000;0.6431;1.3369;
819.3000;0.6455;1.3514;
819.6000;0.6471;1.3563;
819.9000;0.6422;1.3418;
820.2000;0.6439;1.3466;
820.5000;0.6422;1.3442;
820.8000;0.6422;1.3393;
821.1000;0.6447;1.3321;
821.4000;0.6439;1.3273;
821.7000;0.6447;1.3273;
822.0000;0.6479;1.3345;
822.3000;0.6431;1.3079;
822.6000;0.6439;1.3200;
822.9000;0.6488;1.3369;
823.2000;0.6439;1.3321;
823.5000;0.6439;1.3369;
823.8000;0.6439;1.3418;
824.1000;0.6439;1.3466;
824.4000;0.6422;1.3418;
824.7000;0.6431;1.3490;
825.0000;0.6422;1.3442;
825.3000;0.6439;1.3345;
825.6000;0.6431;1.3224;
825.9000;0.6422;1.3200;
826.2000;0.6431;1.3248;
826.5000;0.6504;1.3490;
826.8000;0.6439;1.3273;
827.1000;0.6439;1.3297;
827.4000;0.6398;1.3176;
827.7000;0.6414;1.3297;
828.0000;0.6431;1.3418;
828.3000;0.6374;1.3369;
828.6000;0.6414;1.3442;
828.9000;0.6447;1.3514;
829.2000;0.6398;1.3490;
829.5000;0.6414;1.3563;
829.8000;0.6406;1.3490;
830.1000;0.6406;1.3514;
830.4000;0.6414;1.3587;
830.7000;0.6414;1.3490;
831.0000;0.6390;1.3466;
831.3000;0.6439;1.3587;
831.6000;0.6447;1.3563;
831.9000;0.6406;1.3442;
832.2000;0.6439;1.3490;
832.5000;0.6463;1.3514;
832.8000;0.6414;1.3466;
833.1000;0.6414;1.3466;
833.4000;0.6382;1.3393;
833.7000;0.6414;1.3466;
834.0000;0.6398;1.3369;
834.3000;0.6414;1.3418;
834.6000;0.6463;1.3418;
834.9000;0.6398;1.3297;
835.2000;0.6447;1.3442;
835.5000;0.6406;1.3466;
835.8000;0.6365;1.3418;
836.1000;0.6422;1.3587;
836.4000;0.6406;1.3684;
836.7000;0.6406;1.3708;
837.0000;0.6431;1.3780;
837.3000;0.6382;1.3611;
837.6000;0.6422;1.3732;
837.9000;0.6431;1.3804;
838.2000;0.6398;1.3708;
838.5000;0.6390;1.3708;
838.8000;0.6431;1.3950;
839.1000;0.6382;1.3756;
839.4000;0.6374;1.3780;
839.7000;0.6390;1.3829;
840.0000;0.6382;1.3756;
840.3000;0.6390;1.3659;
840.6000;0.6398;1.3684;
840.9000;0.6382;1.3635;
841.2000;0.6398;1.3635;
841.5000;0.6398;1.3587;
841.8000;0.6357;1.3418;
842.1000;0.6406;1.3442;
842.4000;0.6390;1.3514;
842.7000;0.6382;1.3563;
843.0000;0.6390;1.3708;
843.3000;0.6398;1.3708;
843.6000;0.6382;1.3659;
843.9000;0.6390;1.3611;
844.2000;0.6382;1.3563;
844.5000;0.6398;1.3659;
844.8000;0.6398;1.3708;
845.1000;0.6382;1.3611;
845.4000;0.6357;1.3514;
845.7000;0.6406;1.3587;
846.0000;0.6333;1.3466;
846.3000;0.6406;1.3684;
846.6000;0.6398;1.3635;
846.9000;0.6333;1.3490;
847.2000;0.6382;1.3587;
847.5000;0.6382;1.3539;
847.8000;0.6382;1.3539;
848.1000;0.6398;1.3490;
848.4000;0.6374;1.3418;
848.7000;0.6325;1.3345;
849.0000;0.6357;1.3369;
849.3000;0.6463;1.3635;
849.6000;0.6349;1.3418;
849.9000;0.6349;1.3369;
850.2000;0.6374;1.3418;
850.5000;0.6349;1.3418;
850.8000;0.6365;1.3490;
851.1000;0.6382;1.3563;
851.4000;0.6382;1.3514;
851.7000;0.6341;1.3418;
852.0000;0.6382;1.3442;
852.3000;0.6357;1.3418;
852.6000;0.6357;1.3442;
852.9000;0.6382;1.3514;
853.2000;0.6374;1.3490;
853.5000;0.6365;1.3442;
853.8000;0.6333;1.3393;
854.1000;0.6365;1.3393;
854.4000;0.6341;1.3442;
854.7000;0.6349;1.3490;
855.0000;0.6357;1.3563;
855.3000;0.6357;1.3514;
855.6000;0.6325;1.3442;
855.9000;0.6309;1.3393;
856.2000;0.6374;1.3539;
856.5000;0.6382;1.3514;
856.8000;0.6439;1.3684;
857.1000;0.6349;1.3418;
857.4000;0.6382;1.3466;
857.7000;0.6374;1.3393;
858.0000;0.6349;1.3345;
858.3000;0.6365;1.3393;
858.6000;0.6398;1.3418;
858.9000;0.6365;1.3273;
859.2000;0.6374;1.3273;
859.5000;0.6325;1.3031;
859.8000;0.6365;1.3031;
860.1000;0.6374;1.3103;
860.4000;0.6341;1.3176;
860.7000;0.6333;1.3152;
861.0000;0.6333;1.3321;
861.3000;0.6309;1.3273;
861.6000;0.6341;1.3393;
861.9000;0.6309;1.3466;
862.2000;0.6374;1.3659;
862.5000;0.6333;1.3635;
862.8000;0.6325;1.3563;
863.1000;0.6349;1.3611;
863.4000;0.6341;1.3611;
863.7000;0.6268;1.3490;
864.0000;0.6309;1.3587;
864.3000;0.6349;1.3563;
864.6000;0.6325;1.3393;
864.9000;0.6341;1.3490;
865.2000;0.6365;1.3611;
865.5000;0.6341;1.3514;
865.8000;0.6374;1.3611;
866.1000;0.6341;1.3587;
866.4000;0.6357;1.3563;
866.7000;0.6365;1.3466;
867.0000;0.6357;1.3490;
867.3000;0.6365;1.3539;
867.6000;0.6333;1.3539;
867.9000;0.6349;1.3539;
868.2000;0.6349;1.3514;
868.5000;0.6414;1.3659;
868.8000;0.6357;1.3514;
869.1000;0.6309;1.3393;
869.4000;0.6406;1.3635;
869.7000;0.6341;1.3514;
870.0000;0.6422;1.3732;
870.3000;0.6333;1.3611;
870.6000;0.6284;1.3587;
870.9000;0.6325;1.3708;
871.2000;0.6325;1.3708;
871.5000;0.6317;1.3659;
871.8000;0.6341;1.3708;
872.1000;0.6333;1.3732;
872.4000;0.6357;1.3780;
872.7000;0.6317;1.3659;
873.0000;0.6325;1.3708;
873.3000;0.6390;1.3877;
873.6000;0.6349;1.3732;
873.9000;0.6325;1.3611;
874.2000;0.6349;1.3659;
874.5000;0.6309;1.3563;
874.8000;0.6309;1.3563;
875.1000;0.6325;1.3563;
875.4000;0.6390;1.3804;
875.7000;0.6268;1.3369;
876.0000;0.6309;1.3345;
876.3000;0.6333;1.3442;
876.6000;0.6349;1.3587;
876.9000;0.6333;1.3539;
877.2000;0.6341;1.3563;
877.5000;0.6341;1.3611;
877.8000;0.6333;1.3539;
878.1000;0.6341;1.3514;
878.4000;0.6309;1.3563;
878.7000;0.6325;1.3611;
879.0000;0.6309;1.3563;
879.3000;0.6317;1.3611;
879.6000;0.6300;1.3587;
879.9000;0.6292;1.3563;
880.2000;0.6325;1.3684;
880.5000;0.6309;1.3684;
880.8000;0.6357;1.3829;
881.1000;0.6325;1.3659;
881.4000;0.6365;1.3659;
881.7000;0.6309;1.3563;
882.0000;0.6309;1.3490;
882.3000;0.6309;1.3418;
882.6000;0.6292;1.3321;
882.9000;0.6333;1.3514;
883.2000;0.6300;1.3514;
883.5000;0.6317;1.3490;
883.8000;0.6317;1.3539;
884.1000;0.6300;1.3418;
884.4000;0.6317;1.3442;
884.7000;0.6309;1.3393;
885.0000;0.6309;1.3514;
885.3000;0.6300;1.3539;
885.6000;0.6317;1.3659;
885.9000;0.6300;1.3635;
886.2000;0.6284;1.3659;
886.5000;0.6309;1.3659;
886.8000;0.6309;1.3659;
887.1000;0.6300;1.3611;
887.4000;0.6284;1.3611;
887.7000;0.6300;1.3587;
888.0000;0.6317;1.3587;
888.3000;0.6284;1.3442;
888.6000;0.6374;1.3611;
888.9000;0.6309;1.3466;
889.2000;0.6309;1.3393;
889.5000;0.6325;1.3490;
889.8000;0.6300;1.3611;
890.1000;0.6276;1.3587;
890.4000;0.6300;1.3659;
890.7000;0.6309;1.3635;
891.0000;0.6317;1.3611;
891.3000;0.6333;1.3611;
891.6000;0.6309;1.3611;
891.9000;0.6292;1.3563;
892.2000;0.6309;1.3635;
892.5000;0.6292;1.3611;
892.8000;0.6300;1.3659;
893.1000;0.6357;1.3804;
893.4000;0.6284;1.3587;
893.7000;0.6292;1.3611;
894.0000;0.6243;1.3466;
894.3000;0.6284;1.3563;
894.6000;0.6300;1.3539;
894.9000;0.6292;1.3490;
895.2000;0.6292;1.3563;
895.5000;0.6317;1.3659;
895.8000;0.6292;1.3708;
896.1000;0.6292;1.3708;
896.4000;0.6276;1.3708;
896.7000;0.6292;1.3756;
897.0000;0.6300;1.3756;
897.3000;0.6260;1.3684;
897.6000;0.6284;1.3756;
897.9000;0.6284;1.3756;
898.2000;0.6292;1.3732;
898.5000;0.6292;1.3756;
898.8000;0.6276;1.3732;
899.1000;0.6300;1.3659;
899.4000;0.6243;1.3563;
899.7000;0.6292;1.3635;
900.0000;0.6300;1.3635;
900.3000;0.6300;1.3539;
900.6000;0.6333;1.3563;
900.9000;0.6260;1.3418;
901.2000;0.6260;1.3418;
901.5000;0.6309;1.3611;
901.8000;0.6309;1.3611;
902.1000;0.6300;1.3587;
902.4000;0.6325;1.3611;
902.7000;0.6284;1.3635;
903.0000;0.6300;1.3708;
903.3000;0.6317;1.3708;
903.6000;0.6300;1.3708;
903.9000;0.6309;1.3829;
904.2000;0.6284;1.3756;
904.5000;0.6260;1.3756;
904.8000;0.6284;1.3732;
905.1000;0.6284;1.3684;
905.4000;0.6309;1.3684;
905.7000;0.6284;1.3732;
906.0000;0.6276;1.3635;
906.3000;0.6276;1.3611;
906.6000;0.6276;1.3732;
906.9000;0.6300;1.3732;
907.2000;0.6284;1.3539;
907.5000;0.6309;1.3466;
907.8000;0.6276;1.3442;
908.1000;0.6292;1.3514;
908.4000;0.6300;1.3539;
908.7000;0.6276;1.3539;
909.0000;0.6300;1.3611;
909.3000;0.6268;1.3587;
909.6000;0.6268;1.3684;
909.9000;0.6300;1.3780;
910.2000;0.6268;1.3684;
910.5000;0.6260;1.3563;
910.8000;0.6276;1.3563;
911.1000;0.6243;1.3490;
911.4000;0.6276;1.3514;
911.7000;0.6252;1.3418;
912.0000;0.6260;1.3393;
912.3000;0.6292;1.3466;
912.6000;0.6284;1.3393;
912.9000;0.6260;1.3442;
913.2000;0.6276;1.3490;
913.5000;0.6284;1.3466;
913.8000;0.6268;1.3442;
914.1000;0.6252;1.3418;
914.4000;0.6284;1.3466;
914.7000;0.6235;1.3418;
915.0000;0.6317;1.3611;
915.3000;0.6268;1.3514;
915.6000;0.6276;1.3490;
915.9000;0.6243;1.3442;
916.2000;0.6284;1.3539;
916.5000;0.6276;1.3466;
916.8000;0.6268;1.3418;
917.1000;0.6260;1.3514;
917.4000;0.6276;1.3587;
917.7000;0.6284;1.3611;
918.0000;0.6268;1.3659;
918.3000;0.6260;1.3659;
918.6000;0.6300;1.3684;
918.9000;0.6284;1.3587;
919.2000;0.6276;1.3490;
919.5000;0.6260;1.3514;
919.8000;0.6309;1.3635;
920.1000;0.6284;1.3490;
920.4000;0.6276;1.3563;
920.7000;0.6260;1.3490;
921.0000;0.6284;1.3514;
921.3000;0.6219;1.3369;
921.6000;0.6268;1.3587;
921.9000;0.6268;1.3587;
922.2000;0.6260;1.3563;
922.5000;0.6219;1.3442;
922.8000;0.6235;1.3563;
923.1000;0.6252;1.3659;
923.4000;0.6186;1.3442;
923.7000;0.6276;1.3490;
924.0000;0.6252;1.3393;
924.3000;0.6260;1.3393;
924.6000;0.6235;1.3345;
924.9000;0.6252;1.3466;
925.2000;0.6284;1.3514;
925.5000;0.6276;1.3490;
925.8000;0.6243;1.3418;
926.1000;0.6252;1.3418;
926.4000;0.6300;1.3611;
926.7000;0.6211;1.3345;
927.0000;0.6252;1.3442;
927.3000;0.6260;1.3539;
927.6000;0.6268;1.3587;
927.9000;0.6243;1.3539;
928.2000;0.6276;1.3563;
928.5000;0.6252;1.3418;
928.8000;0.6252;1.3369;
929.1000;0.6309;1.3514;
929.4000;0.6186;1.3273;
929.7000;0.6219;1.3321;
930.0000;0.6211;1.3369;
930.3000;0.6252;1.3563;
930.6000;0.6260;1.3539;
930.9000;0.6276;1.3563;
931.2000;0.6325;1.3732;
931.5000;0.6235;1.3490;
931.8000;0.6260;1.3563;
932.1000;0.6252;1.3563;
932.4000;0.6260;1.3563;
932.7000;0.6243;1.3466;
933.0000;0.6252;1.3466;
933.3000;0.6227;1.3418;
933.6000;0.6252;1.3442;
933.9000;0.6252;1.3442;
934.2000;0.6252;1.3490;
934.5000;0.6235;1.3393;
934.8000;0.6227;1.3297;
935.1000;0.6260;1.3297;
935.4000;0.6243;1.3345;
935.7000;0.6260;1.3345;
936.0000;0.6243;1.3248;
936.3000;0.6252;1.3345;
936.6000;0.6252;1.3297;
936.9000;0.6243;1.3297;
937.2000;0.6235;1.3248;
937.5000;0.6260;1.3297;
937.8000;0.6268;1.3345;
938.1000;0.6252;1.3393;
938.4000;0.6235;1.3393;
938.7000;0.6268;1.3418;
939.0000;0.6252;1.3442;
939.3000;0.6235;1.3514;
939.6000;0.6243;1.3563;
939.9000;0.6252;1.3587;
940.2000;0.6252;1.3611;
940.5000;0.6243;1.3539;
940.8000;0.6268;1.3539;
941.1000;0.6292;1.3587;
941.4000;0.6219;1.3418;
941.7000;0.6178;1.3418;
942.0000;0.6227;1.3611;
942.3000;0.6195;1.3611;
942.6000;0.6227;1.3684;
942.9000;0.6252;1.3587;
943.2000;0.6219;1.3539;
943.5000;0.6227;1.3514;
943.8000;0.6252;1.3587;
944.1000;0.6252;1.3587;
944.4000;0.6235;1.3514;
944.7000;0.6243;1.3442;
945.0000;0.6178;1.3418;
945.3000;0.6178;1.3442;
945.6000;0.6243;1.3611;
945.9000;0.6300;1.3780;
946.2000;0.6219;1.3659;
946.5000;0.6243;1.3684;
946.8000;0.6284;1.3732;
947.1000;0.6235;1.3659;
947.4000;0.6235;1.3635;
947.7000;0.6227;1.3514;
948.0000;0.6227;1.3539;
948.3000;0.6227;1.3442;
948.6000;0.6243;1.3442;
948.9000;0.6227;1.3369;
949.2000;0.6227;1.3466;
949.5000;0.6227;1.3563;
949.8000;0.6219;1.3466;
950.1000;0.6211;1.3442;
950.4000;0.6219;1.3514;
950.7000;0.6219;1.3514;
951.0000;0.6227;1.3466;
951.3000;0.6219;1.3418;
951.6000;0.6268;1.3539;
951.9000;0.6243;1.3466;
952.2000;0.6235;1.3466;
952.5000;0.6219;1.3345;
952.8000;0.6203;1.3393;
953.1000;0.6227;1.3514;
953.4000;0.6219;1.3393;
953.7000;0.6227;1.3539;
954.0000;0.6252;1.3659;
954.3000;0.6219;1.3587;
954.6000;0.6219;1.3635;
954.9000;0.6260;1.3659;
955.2000;0.6243;1.3635;
955.5000;0.6195;1.3490;
955.8000;0.6195;1.3466;
956.1000;0.6309;1.3732;
956.4000;0.6219;1.3490;
956.7000;0.6219;1.3490;
957.0000;0.6243;1.3563;
957.3000;0.6219;1.3393;
957.6000;0.6211;1.3442;
957.9000;0.6227;1.3539;
958.2000;0.6203;1.3539;
958.5000;0.6219;1.3393;
958.8000;0.6227;1.3321;
959.1000;0.6227;1.3369;
959.4000;0.6260;1.3490;
959.7000;0.6227;1.3418;
960.0000;0.6211;1.3345;
960.3000;0.6219;1.3297;
960.6000;0.6211;1.3345;
960.9000;0.6227;1.3321;
961.2000;0.6219;1.3297;
961.5000;0.6178;1.3297;
961.8000;0.6260;1.3490;
962.1000;0.6227;1.3442;
962.4000;0.6252;1.3514;
962.7000;0.6219;1.3466;
963.0000;0.6203;1.3490;
963.3000;0.6227;1.3539;
963.6000;0.6227;1.3563;
963.9000;0.6211;1.3418;
964.2000;0.6243;1.3514;
964.5000;0.6227;1.3369;
964.8000;0.6227;1.3297;
965.1000;0.6292;1.3466;
965.4000;0.6195;1.3321;
965.7000;0.6227;1.3466;
966.0000;0.6219;1.3418;
966.3000;0.6203;1.3369;
966.6000;0.6211;1.3466;
966.9000;0.6268;1.3587;
967.2000;0.6227;1.3514;
967.5000;0.6219;1.3563;
967.8000;0.6170;1.3418;
968.1000;0.6219;1.3466;
968.4000;0.6227;1.3490;
968.7000;0.6235;1.3635;
969.0000;0.6195;1.3490;
969.3000;0.6186;1.3466;
969.6000;0.6219;1.3393;
969.9000;0.6227;1.3345;
970.2000;0.6219;1.3442;
970.5000;0.6227;1.3490;
970.8000;0.6211;1.3442;
971.1000;0.6219;1.3490;
971.4000;0.6211;1.3539;
971.7000;0.6211;1.3539;
972.0000;0.6203;1.3587;
972.3000;0.6195;1.3539;
972.6000;0.6260;1.3587;
972.9000;0.6203;1.3418;
973.2000;0.6243;1.3442;
973.5000;0.6227;1.3442;
973.8000;0.6219;1.3490;
974.1000;0.6219;1.3490;
974.4000;0.6227;1.3514;
974.7000;0.6219;1.3442;
975.0000;0.6219;1.3539;
975.3000;0.6211;1.3539;
975.6000;0.6203;1.3611;
975.9000;0.6203;1.3635;
976.2000;0.6219;1.3611;
976.5000;0.6227;1.3611;
976.8000;0.6195;1.3418;
977.1000;0.6227;1.3490;
977.4000;0.6227;1.3393;
977.7000;0.6243;1.3466;
978.0000;0.6219;1.3514;
978.3000;0.6186;1.3490;
978.6000;0.6219;1.3611;
978.9000;0.6203;1.3659;
979.2000;0.6219;1.3684;
979.5000;0.6235;1.3756;
979.8000;0.6211;1.3635;
980.1000;0.6292;1.3780;
980.4000;0.6178;1.3442;
980.7000;0.6203;1.3563;
981.0000;0.6195;1.3563;
981.3000;0.6195;1.3539;
981.6000;0.6186;1.3587;
981.9000;0.6203;1.3635;
982.2000;0.6211;1.3635;
982.5000;0.6211;1.3490;
982.8000;0.6203;1.3539;
983.1000;0.6203;1.3490;
983.4000;0.6203;1.3466;
983.7000;0.6203;1.3539;
984.0000;0.6219;1.3611;
984.3000;0.6243;1.3635;
984.6000;0.6211;1.3587;
984.9000;0.6325;1.3925;
985.2000;0.6252;1.3684;
985.5000;0.6203;1.3611;
985.8000;0.6195;1.3587;
986.1000;0.6211;1.3635;
986.4000;0.6219;1.3684;
986.7000;0.6186;1.3611;
987.0000;0.6219;1.3756;
987.3000;0.6211;1.3708;
987.6000;0.6219;1.3684;
987.9000;0.6300;1.3901;
988.2000;0.6195;1.3708;
988.5000;0.6227;1.3708;
988.8000;0.6203;1.3563;
989.1000;0.6203;1.3514;
989.4000;0.6211;1.3490;
989.7000;0.6203;1.3514;
990.0000;0.6186;1.3418;
990.3000;0.6186;1.3393;
990.6000;0.6186;1.3466;
990.9000;0.6186;1.3514;
991.2000;0.6178;1.3539;
991.5000;0.6170;1.3539;
991.8000;0.6170;1.3611;
992.1000;0.6178;1.3684;
992.4000;0.6203;1.3804;
992.7000;0.6186;1.3780;
993.0000;0.6195;1.3780;
993.3000;0.6284;1.4046;
993.6000;0.6195;1.3708;
993.9000;0.6186;1.3514;
994.2000;0.6203;1.3514;
994.5000;0.6178;1.3442;
994.8000;0.6203;1.3539;
995.1000;0.6203;1.3611;
995.4000;0.6170;1.3611;
995.7000;0.6203;1.3684;
996.0000;0.6195;1.3756;
996.3000;0.6195;1.3780;
996.6000;0.6195;1.3684;
996.9000;0.6195;1.3635;
997.2000;0.6170;1.3659;
997.5000;0.6235;1.3756;
997.8000;0.6195;1.3611;
998.1000;0.6211;1.3635;
998.4000;0.6195;1.3539;
998.7000;0.6211;1.3659;
999.0000;0.6203;1.3611;
999.3000;0.6195;1.3659;
999.6000;0.6195;1.3611;
999.9000;0.6203;1.3659;
1000.2000;0.6203;1.3587;
1000.5000;0.6170;1.3466;
1000.8000;0.6178;1.3514;
1001.1000;0.6195;1.3539;
1001.4000;0.6178;1.3539;
1001.7000;0.6235;1.3659;
1002.0000;0.6219;1.3587;
1002.3000;0.6268;1.3659;
1002.6000;0.6235;1.3539;
1002.9000;0.6186;1.3369;
1003.2000;0.6186;1.3369;
1003.5000;0.6186;1.3442;
1003.8000;0.6186;1.3466;
1004.1000;0.6211;1.3611;
1004.4000;0.6186;1.3611;
1004.7000;0.6178;1.3539;
1005.0000;0.6178;1.3490;
1005.3000;0.6195;1.3563;
1005.6000;0.6170;1.3514;
1005.9000;0.6146;1.3369;
1006.2000;0.6195;1.3563;
1006.5000;0.6178;1.3490;
1006.8000;0.6170;1.3442;
1007.1000;0.6170;1.3490;
1007.4000;0.6146;1.3466;
1007.7000;0.6227;1.3684;
1008.0000;0.6121;1.3466;
1008.3000;0.6170;1.3611;
1008.6000;0.6186;1.3732;
1008.9000;0.6203;1.3732;
1009.2000;0.6170;1.3756;
1009.5000;0.6178;1.3756;
1009.8000;0.6170;1.3684;
1010.1000;0.6162;1.3611;
1010.4000;0.6195;1.3563;
1010.7000;0.6178;1.3466;
1011.0000;0.6243;1.3539;
1011.3000;0.6195;1.3490;
1011.6000;0.6178;1.3442;
1011.9000;0.6203;1.3442;
1012.2000;0.6162;1.3418;
1012.5000;0.6178;1.3418;
1012.8000;0.6203;1.3418;
1013.1000;0.6162;1.3393;
1013.4000;0.6186;1.3514;
1013.7000;0.6203;1.3635;
1014.0000;0.6170;1.3563;
1014.3000;0.6178;1.3587;
1014.6000;0.6178;1.3635;
1014.9000;0.6064;1.3393;
1015.2000;0.6170;1.3684;
1015.5000;0.6121;1.3514;
1015.8000;0.6170;1.3611;
1016.1000;0.6170;1.3587;
1016.4000;0.6178;1.3684;
1016.7000;0.6162;1.3732;
1017.0000;0.6235;1.3804;
1017.3000;0.6170;1.3659;
1017.6000;0.6195;1.3684;
1017.9000;0.6170;1.3539;
1018.2000;0.6186;1.3611;
1018.5000;0.6170;1.3563;
1018.8000;0.6178;1.3587;
1019.1000;0.6195;1.3587;
1019.4000;0.6178;1.3587;
1019.7000;0.6154;1.3611;
1020.0000;0.6178;1.3659;
1020.3000;0.6195;1.3708;
1020.6000;0.6146;1.3490;
1020.9000;0.6162;1.3514;
1021.2000;0.6154;1.3539;
1021.5000;0.6170;1.3587;
1021.8000;0.6162;1.3418;
1022.1000;0.6178;1.3369;
1022.4000;0.6170;1.3490;
1022.7000;0.6186;1.3514;
1023.0000;0.6178;1.3539;
1023.3000;0.6178;1.3587;
1023.6000;0.6260;1.3853;
1023.9000;0.6178;1.3659;
1024.2000;0.6170;1.3684;
1024.5000;0.6178;1.3635;
1024.8000;0.6170;1.3611;
1025.1000;0.6219;1.3780;
1025.4000;0.6195;1.3756;
1025.7000;0.6178;1.3659;
1026.0000;0.6186;1.3659;
1026.3000;0.6162;1.3611;
1026.6000;0.6162;1.3635;
1026.9000;0.6138;1.3635;
1027.2000;0.6186;1.3659;
1027.5000;0.6178;1.3659;
1027.8000;0.6146;1.3514;
1028.1000;0.6146;1.3539;
1028.4000;0.6146;1.3539;
1028.7000;0.6138;1.3514;
1029.0000;0.6154;1.3611;
1029.3000;0.6170;1.3708;
1029.6000;0.6195;1.3635;
1029.9000;0.6178;1.3563;
1030.2000;0.6154;1.3563;
1030.5000;0.6162;1.3587;
1030.8000;0.6195;1.3587;
1031.1000;0.6178;1.3442;
1031.4000;0.6162;1.3442;
1031.7000;0.6195;1.3466;
1032.0000;0.6170;1.3418;
1032.3000;0.6064;1.3248;
1032.6000;0.6154;1.3418;
1032.9000;0.6138;1.3224;
1033.2000;0.6178;1.3200;
1033.5000;0.6186;1.3321;
1033.8000;0.6162;1.3297;
1034.1000;0.6162;1.3345;
1034.4000;0.6186;1.3393;
1034.7000;0.6162;1.3369;
1035.0000;0.6154;1.3321;
1035.3000;0.6170;1.3418;
1035.6000;0.6178;1.3442;
1035.9000;0.6178;1.3514;
1036.2000;0.6178;1.3539;
1036.5000;0.6170;1.3635;
1036.8000;0.6138;1.3563;
1037.1000;0.6162;1.3611;
1037.4000;0.6138;1.3635;
1037.7000;0.6154;1.3587;
1038.0000;0.6195;1.3587;
1038.3000;0.6081;1.3321;
1038.6000;0.6129;1.3442;
1038.9000;0.6154;1.3539;
1039.2000;0.6178;1.3587;
1039.5000;0.6162;1.3539;
1039.8000;0.6211;1.3684;
1040.1000;0.6146;1.3490;
1040.4000;0.6162;1.3539;
1040.7000;0.6170;1.3635;
1041.0000;0.6178;1.3708;
1041.3000;0.6154;1.3611;
1041.6000;0.6146;1.3635;
1041.9000;0.6162;1.3756;
1042.2000;0.6162;1.3732;
1042.5000;0.6129;1.3635;
1042.8000;0.6129;1.3635;
1043.1000;0.6154;1.3708;
1043.4000;0.6195;1.3780;
1043.7000;0.6154;1.3635;
1044.0000;0.6162;1.3563;
1044.3000;0.6170;1.3563;
1044.6000;0.6195;1.3708;
1044.9000;0.6170;1.3659;
1045.2000;0.6129;1.3539;
1045.5000;0.6170;1.3587;
1045.8000;0.6186;1.3635;
1046.1000;0.6219;1.3684;
1046.4000;0.6170;1.3514;
1046.7000;0.6170;1.3539;
1047.0000;0.6162;1.3539;
1047.3000;0.6178;1.3635;
1047.6000;0.6195;1.3684;
1047.9000;0.6162;1.3587;
1048.2000;0.6162;1.3708;
1048.5000;0.6154;1.3708;
1048.8000;0.6121;1.3611;
1049.1000;0.6146;1.3708;
1049.4000;0.6154;1.3780;
1049.7000;0.6146;1.3684;
1050.0000;0.6154;1.3659;
1050.3000;0.6170;1.3684;
1050.6000;0.6154;1.3611;
1050.9000;0.6129;1.3587;
1051.2000;0.6154;1.3611;
1051.5000;0.6138;1.3563;
1051.8000;0.6162;1.3587;
1052.1000;0.6162;1.3611;
1052.4000;0.6170;1.3587;
1052.7000;0.6162;1.3611;
1053.0000;0.6162;1.3611;
1053.3000;0.6129;1.3539;
1053.6000;0.6154;1.3684;
1053.9000;0.6154;1.3587;
1054.2000;0.6154;1.3635;
1054.5000;0.6178;1.3780;
1054.8000;0.6178;1.3829;
1055.1000;0.6178;1.3708;
1055.4000;0.6162;1.3635;
1055.7000;0.6162;1.3732;
1056.0000;0.6138;1.3708;
1056.3000;0.6056;1.3587;
1056.6000;0.6162;1.3853;
1056.9000;0.6146;1.3829;
1057.2000;0.6146;1.3853;
1057.5000;0.6138;1.3829;
1057.8000;0.6138;1.3732;
1058.1000;0.6129;1.3756;
1058.4000;0.6154;1.3756;
1058.7000;0.6138;1.3684;
1059.0000;0.6146;1.3684;
1059.3000;0.6138;1.3635;
1059.6000;0.6154;1.3659;
1059.9000;0.6138;1.3659;
1060.2000;0.6154;1.3684;
1060.5000;0.6154;1.3659;
1060.8000;0.6154;1.3659;
1061.1000;0.6121;1.3611;
1061.4000;0.6146;1.3611;
1061.7000;0.6138;1.3587;
1062.0000;0.6105;1.3587;
1062.3000;0.6097;1.3659;
1062.6000;0.6162;1.3780;
1062.9000;0.6121;1.3708;
1063.2000;0.6129;1.3732;
1063.5000;0.6203;1.3853;
1063.8000;0.6235;1.3829;
1064.1000;0.6146;1.3563;
1064.4000;0.6138;1.3539;
1064.7000;0.6146;1.3587;
1065.0000;0.6138;1.3539;
1065.3000;0.6154;1.3490;
1065.6000;0.6146;1.3442;
1065.9000;0.6162;1.3442;
1066.2000;0.6154;1.3418;
1066.5000;0.6186;1.3611;
1066.8000;0.6146;1.3490;
1067.1000;0.6146;1.3466;
1067.4000;0.6154;1.3587;
1067.7000;0.6146;1.3539;
1068.0000;0.6138;1.3490;
1068.3000;0.6129;1.3490;
1068.6000;0.6154;1.3490;
1068.9000;0.6146;1.3418;
1069.2000;0.6129;1.3466;
1069.5000;0.6129;1.3514;
1069.8000;0.6162;1.3611;
1070.1000;0.6154;1.3539;
1070.4000;0.6154;1.3490;
1070.7000;0.6170;1.3514;
1071.0000;0.6146;1.3466;
1071.3000;0.6154;1.3466;
1071.6000;0.6138;1.3418;
1071.9000;0.6121;1.3393;
1072.2000;0.6129;1.3466;
1072.5000;0.6146;1.3393;
1072.8000;0.6162;1.3393;
1073.1000;0.6138;1.3273;
1073.4000;0.6146;1.3369;
1073.7000;0.6154;1.3418;
1074.0000;0.6129;1.3369;
1074.3000;0.6146;1.3490;
1074.6000;0.6138;1.3418;
1074.9000;0.6121;1.3345;
1075.2000;0.6121;1.3393;
1075.5000;0.6138;1.3490;
1075.8000;0.6146;1.3466;
1076.1000;0.6138;1.3442;
1076.4000;0.6146;1.3490;
1076.7000;0.6097;1.3321;
1077.0000;0.6129;1.3345;
1077.3000;0.6154;1.3490;
1077.6000;0.6138;1.3539;
1077.9000;0.6072;1.3418;
1078.2000;0.6138;1.3587;
1078.5000;0.6178;1.3684;
1078.8000;0.6154;1.3587;
1079.1000;0.6105;1.3418;
1079.4000;0.6146;1.3587;
1079.7000;0.6138;1.3611;
1080.0000;0.6154;1.3756;
1080.3000;0.6154;1.3877;
1080.6000;0.6170;1.3877;
1080.9000;0.6129;1.3804;
1081.2000;0.6105;1.3708;
1081.5000;0.6138;1.3756;
1081.8000;0.6146;1.3708;
1082.1000;0.6154;1.3708;
1082.4000;0.6113;1.3635;
1082.7000;0.6056;1.3611;
1083.0000;0.6138;1.3780;
1083.3000;0.6154;1.3877;
1083.6000;0.6129;1.3804;
1083.9000;0.6121;1.3853;
1084.2000;0.6121;1.3804;
1084.5000;0.6113;1.3780;
1084.8000;0.6129;1.3780;
1085.1000;0.6129;1.3829;
1085.4000;0.6113;1.3708;
1085.7000;0.6121;1.3684;
1086.0000;0.6129;1.3708;
1086.3000;0.6211;1.3877;
1086.6000;0.6138;1.3804;
1086.9000;0.6113;1.3853;
1087.2000;0.6154;1.3853;
1087.5000;0.6178;1.3853;
1087.8000;0.6129;1.3756;
1088.1000;0.6121;1.3708;
1088.4000;0.6146;1.3756;
1088.7000;0.6129;1.3780;
1089.0000;0.6138;1.3780;
1089.3000;0.6146;1.3780;
1089.6000;0.6121;1.3684;
1089.9000;0.6146;1.3684;
1090.2000;0.6113;1.3611;
1090.5000;0.6154;1.3659;
1090.8000;0.6129;1.3587;
1091.1000;0.6138;1.3659;
1091.4000;0.6129;1.3684;
1091.7000;0.6113;1.3732;
1092.0000;0.6138;1.3829;
1092.3000;0.6154;1.3708;
1092.6000;0.6121;1.3635;
1092.9000;0.6121;1.3563;
1093.2000;0.6105;1.3563;
1093.5000;0.6129;1.3659;
1093.8000;0.6146;1.3756;
1094.1000;0.6138;1.3853;
1094.4000;0.6121;1.3853;
1094.7000;0.6138;1.3780;
1095.0000;0.6121;1.3780;
1095.3000;0.6178;1.3780;
1095.6000;0.6129;1.3684;
1095.9000;0.6105;1.3611;
1096.2000;0.6129;1.3611;
1096.5000;0.6121;1.3587;
1096.8000;0.6113;1.3563;
1097.1000;0.6121;1.3563;
1097.4000;0.6129;1.3684;
1097.7000;0.6121;1.3804;
1098.0000;0.6129;1.3853;
1098.3000;0.6121;1.3780;
1098.6000;0.6105;1.3829;
1098.9000;0.6146;1.3974;
1099.2000;0.6105;1.3877;
1099.5000;0.6138;1.3901;
1099.8000;0.6138;1.3804;
1100.1000;0.6129;1.3780;
1100.4000;0.6113;1.3780;
1100.7000;0.6129;1.3804;
1101.0000;0.6089;1.3635;
1101.3000;0.6121;1.3684;
1101.6000;0.6129;1.3684;
1101.9000;0.6178;1.3708;
1102.2000;0.6113;1.3587;
1102.5000;0.6138;1.3635;
1102.8000;0.6138;1.3611;
1103.1000;0.6154;1.3611;
1103.4000;0.6178;1.3635;
1103.7000;0.6138;1.3635;
1104.0000;0.6170;1.3732;
1104.3000;0.6162;1.3708;
1104.6000;0.6138;1.3708;
1104.9000;0.6129;1.3611;
1105.2000;0.6121;1.3563;
1105.5000;0.6121;1.3563;
1105.8000;0.6138;1.3659;
1106.1000;0.6129;1.3635;
1106.4000;0.6129;1.3563;
1106.7000;0.6154;1.3635;
1107.0000;0.6129;1.3587;
1107.3000;0.6129;1.3563;
1107.6000;0.6089;1.3466;
1107.9000;0.6089;1.3466;
1108.2000;0.6121;1.3611;
1108.5000;0.6154;1.3659;
1108.8000;0.6105;1.3587;
1109.1000;0.6097;1.3442;
1109.4000;0.6129;1.3563;
1109.7000;0.6105;1.3539;
1110.0000;0.6113;1.3563;
1110.3000;0.6105;1.3563;
1110.6000;0.6105;1.3539;
1110.9000;0.6113;1.3466;
1111.2000;0.6113;1.3442;
1111.5000;0.6129;1.3563;
1111.8000;0.6105;1.3563;
1112.1000;0.6121;1.3563;
1112.4000;0.6121;1.3514;
1112.7000;0.6113;1.3466;
1113.0000;0.6113;1.3539;
1113.3000;0.6105;1.3490;
1113.6000;0.6121;1.3466;
1113.9000;0.6105;1.3514;
1114.2000;0.6113;1.3611;
1114.5000;0.6154;1.3635;
1114.8000;0.6138;1.3539;
1115.1000;0.6170;1.3659;
1115.4000;0.6138;1.3611;
1115.7000;0.6121;1.3684;
1116.0000;0.6129;1.3684;
1116.3000;0.6154;1.3780;
1116.6000;0.6072;1.3587;
1116.9000;0.6097;1.3659;
1117.2000;0.6015;1.3418;
1117.5000;0.6072;1.3563;
1117.8000;0.6089;1.3635;
1118.1000;0.6081;1.3587;
1118.4000;0.6113;1.3635;
1118.7000;0.6113;1.3635;
1119.0000;0.6105;1.3611;
1119.3000;0.6121;1.3684;
1119.6000;0.6113;1.3659;
1119.9000;0.6129;1.3780;
1120.2000;0.6105;1.3732;
1120.5000;0.6129;1.3684;
1120.8000;0.6113;1.3708;
1121.1000;0.6129;1.3635;
1121.4000;0.6121;1.3684;
1121.7000;0.6048;1.3490;
1122.0000;0.6121;1.3635;
1122.3000;0.6129;1.3684;
1122.6000;0.6105;1.3587;
1122.9000;0.6081;1.3514;
1123.2000;0.6105;1.3635;
1123.5000;0.6089;1.3659;
1123.8000;0.6105;1.3732;
1124.1000;0.6113;1.3756;
1124.4000;0.6040;1.3514;
1124.7000;0.6121;1.3732;
1125.0000;0.6105;1.3804;
1125.3000;0.6129;1.3804;
1125.6000;0.6097;1.3853;
1125.9000;0.6089;1.3804;
1126.2000;0.6129;1.3853;
1126.5000;0.6081;1.3756;
1126.8000;0.6105;1.3756;
1127.1000;0.6113;1.3756;
1127.4000;0.6072;1.3756;
1127.7000;0.6129;1.3853;
1128.0000;0.6129;1.3829;
1128.3000;0.6138;1.3925;
1128.6000;0.6113;1.3877;
1128.9000;0.6097;1.3853;
1129.2000;0.6089;1.3804;
1129.5000;0.6121;1.3901;
1129.8000;0.6105;1.3829;
1130.1000;0.6105;1.3780;
1130.4000;0.6032;1.3539;
1130.7000;0.6113;1.3684;
1131.0000;0.6089;1.3635;
1131.3000;0.6129;1.3732;
1131.6000;0.6129;1.3659;
1131.9000;0.6072;1.3563;
1132.2000;0.6097;1.3587;
1132.5000;0.6138;1.3780;
1132.8000;0.6072;1.3659;
1133.1000;0.6105;1.3708;
1133.4000;0.6162;1.3877;
1133.7000;0.6089;1.3756;
1134.0000;0.6089;1.3732;
1134.3000;0.6097;1.3708;
1134.6000;0.6138;1.3804;
1134.9000;0.6081;1.3708;
1135.2000;0.6121;1.3732;
1135.5000;0.6121;1.3659;
1135.8000;0.6113;1.3611;
1136.1000;0.6097;1.3684;
1136.4000;0.6121;1.3708;
1136.7000;0.6129;1.3708;
1137.0000;0.6121;1.3635;
1137.3000;0.6121;1.3635;
1137.6000;0.6121;1.3780;
1137.9000;0.6146;1.3804;
1138.2000;0.6105;1.3756;
1138.5000;0.6121;1.3877;
1138.8000;0.6105;1.3853;
1139.1000;0.6113;1.3853;
1139.4000;0.6072;1.3659;
1139.7000;0.6081;1.3732;
1140.0000;0.6129;1.3829;
1140.3000;0.6113;1.3829;
1140.6000;0.6081;1.3780;
1140.9000;0.6081;1.3829;
1141.2000;0.6097;1.3829;
1141.5000;0.6113;1.3901;
1141.8000;0.6138;1.3877;
1142.1000;0.6113;1.3780;
1142.4000;0.6089;1.3829;
1142.7000;0.6121;1.3950;
1143.0000;0.6105;1.3925;
1143.3000;0.6097;1.3853;
1143.6000;0.6105;1.3901;
1143.9000;0.6097;1.3829;
1144.2000;0.6105;1.3756;
1144.5000;0.6097;1.3708;
1144.8000;0.6097;1.3732;
1145.1000;0.6097;1.3708;
1145.4000;0.6105;1.3756;
1145.7000;0.6064;1.3732;
1146.0000;0.6105;1.3804;
1146.3000;0.6113;1.3708;
1146.6000;0.6081;1.3611;
1146.9000;0.6113;1.3659;
1147.2000;0.6089;1.3684;
1147.5000;0.6089;1.3659;
1147.8000;0.6138;1.3829;
1148.1000;0.6113;1.3732;
1148.4000;0.6105;1.3732;
1148.7000;0.6121;1.3804;
1149.0000;0.6113;1.3804;
1149.3000;0.6121;1.3804;
1149.6000;0.6081;1.3684;
1149.9000;0.6121;1.3780;
1150.2000;0.6129;1.3829;
1150.5000;0.6121;1.3804;
1150.8000;0.6105;1.3756;
1151.1000;0.6113;1.3659;
1151.4000;0.6121;1.3659;
1151.7000;0.6105;1.3708;
1152.0000;0.6105;1.3804;
1152.3000;0.6105;1.3829;
1152.6000;0.6162;1.4022;
1152.9000;0.6113;1.3877;
1153.2000;0.6097;1.3804;
1153.5000;0.6089;1.3756;
1153.8000;0.6113;1.3853;
1154.1000;0.6097;1.3901;
1154.4000;0.6105;1.3925;
1154.7000;0.6105;1.3829;
1155.0000;0.6072;1.3708;
1155.3000;0.6089;1.3684;
1155.6000;0.6015;1.3490;
1155.9000;0.6089;1.3708;
1156.2000;0.6105;1.3756;
1156.5000;0.6089;1.3708;
1156.8000;0.6105;1.3780;
1157.1000;0.6105;1.3877;
1157.4000;0.6113;1.3877;
1157.7000;0.6105;1.3756;
1158.0000;0.6113;1.3780;
1158.3000;0.6097;1.3732;
1158.6000;0.6097;1.3756;
1158.9000;0.6138;1.3925;
1159.2000;0.6105;1.3901;
1159.5000;0.6113;1.3877;
1159.8000;0.6089;1.3780;
1160.1000;0.6097;1.3877;
1160.4000;0.6097;1.4022;
1160.7000;0.6105;1.4070;
1161.0000;0.6121;1.4119;
1161.3000;0.6113;1.4046;
1161.6000;0.6129;1.4143;
1161.9000;0.6113;1.3974;
1162.2000;0.6097;1.3901;
1162.5000;0.6105;1.3901;
1162.8000;0.6105;1.3901;
1163.1000;0.6105;1.3853;
1163.4000;0.6129;1.3853;
1163.7000;0.6089;1.3780;
1164.0000;0.6089;1.3756;
1164.3000;0.6097;1.3780;
1164.6000;0.6105;1.3780;
1164.9000;0.6081;1.3756;
1165.2000;0.6129;1.3998;
1165.5000;0.6056;1.3877;
1165.8000;0.6089;1.3950;
1166.1000;0.6097;1.3950;
1166.4000;0.6089;1.3950;
1166.7000;0.6097;1.3950;
1167.0000;0.6105;1.3950;
1167.3000;0.6097;1.3925;
1167.6000;0.6032;1.3732;
1167.9000;0.6097;1.3901;
1168.2000;0.6105;1.3925;
1168.5000;0.6113;1.3950;
1168.8000;0.6097;1.3925;
1169.1000;0.6105;1.3998;
1169.4000;0.6121;1.4046;
1169.7000;0.6081;1.3925;
1170.0000;0.6105;1.3974;
1170.3000;0.6089;1.3925;
1170.6000;0.6089;1.3925;
1170.9000;0.6113;1.3901;
1171.2000;0.6089;1.3901;
1171.5000;0.6081;1.3829;
1171.8000;0.6089;1.3877;
1172.1000;0.6105;1.3925;
1172.4000;0.6105;1.3925;
1172.7000;0.6089;1.3804;
1173.0000;0.6113;1.3877;
1173.3000;0.6146;1.4046;
1173.6000;0.6089;1.3853;
1173.9000;0.6097;1.3901;
1174.2000;0.6121;1.3950;
1174.5000;0.6138;1.3974;
1174.8000;0.6113;1.3853;
1175.1000;0.6097;1.3732;
1175.4000;0.6072;1.3708;
1175.7000;0.6056;1.3684;
1176.0000;0.6089;1.3756;
1176.3000;0.6089;1.3853;
1176.6000;0.6121;1.3925;
1176.9000;0.6097;1.3853;
1177.2000;0.6097;1.3877;
1177.5000;0.6105;1.3925;
1177.8000;0.6097;1.3925;
1178.1000;0.6097;1.3877;
1178.4000;0.6105;1.3925;
1178.7000;0.6081;1.3901;
1179.0000;0.6081;1.3877;
1179.3000;0.6097;1.3974;
1179.6000;0.6113;1.4046;
1179.9000;0.6089;1.4046;
1180.2000;0.6081;1.4095;
1180.5000;0.6081;1.3998;
1180.8000;0.6097;1.3950;
1181.1000;0.6138;1.4070;
1181.4000;0.6081;1.3950;
1181.7000;0.6097;1.4022;
1182.0000;0.6097;1.4143;
1182.3000;0.6097;1.4046;
1182.6000;0.6089;1.4070;
1182.9000;0.6089;1.4022;
1183.2000;0.6064;1.3950;
1183.5000;0.5999;1.3756;
1183.8000;0.6072;1.3925;
1184.1000;0.6081;1.3829;
1184.4000;0.6081;1.3877;
1184.7000;0.6105;1.3829;
1185.0000;0.6089;1.3877;
1185.3000;0.6105;1.3974;
1185.6000;0.6089;1.3853;
1185.9000;0.6097;1.3804;
1186.2000;0.6097;1.3853;
1186.5000;0.6097;1.3780;
1186.8000;0.6113;1.3901;
1187.1000;0.6097;1.3804;
1187.4000;0.6129;1.3804;
1187.7000;0.6121;1.3684;
1188.0000;0.6097;1.3635;
1188.3000;0.6056;1.3587;
1188.6000;0.6089;1.3659;
1188.9000;0.6113;1.3635;
1189.2000;0.6113;1.3684;
1189.5000;0.6097;1.3659;
1189.8000;0.6072;1.3563;
1190.1000;0.6097;1.3563;
1190.4000;0.6089;1.3611;
1190.7000;0.6154;1.3829;
1191.0000;0.6081;1.3635;
1191.3000;0.6097;1.3756;
1191.6000;0.6081;1.3708;
1191.9000;0.6146;1.3780;
1192.2000;0.6097;1.3708;
1192.5000;0.6105;1.3708;
1192.8000;0.6081;1.3587;
1193.1000;0.6097;1.3756;
1193.4000;0.6113;1.3877;
1193.7000;0.6089;1.3853;
1194.0000;0.6113;1.3829;
1194.3000;0.6105;1.3829;
1194.6000;0.6089;1.3877;
1194.9000;0.6121;1.4070;
1195.2000;0.6081;1.4022;
1195.5000;0.6097;1.4046;
1195.8000;0.6064;1.3998;
1196.1000;0.6089;1.4119;
1196.4000;0.6105;1.4095;
1196.7000;0.6048;1.3950;
1197.0000;0.6113;1.4143;
1197.3000;0.6064;1.3925;
1197.6000;0.6097;1.3974;
1197.9000;0.6129;1.4046;
1198.2000;0.6015;1.3780;
1198.5000;0.6089;1.3901;
1198.8000;0.6089;1.3950;
1199.1000;0.6064;1.3925;
1199.4000;0.6064;1.3925;
1199.7000;0.6072;1.3950;
1200.0000;0.6089;1.3925;
1200.3000;0.6064;1.3853;
1200.6000;0.6064;1.3756;
1200.9000;0.6081;1.3708;
1201.2000;0.6081;1.3732;
1201.5000;0.6040;1.3563;
1201.8000;0.6064;1.3659;
1202.1000;0.6097;1.3780;
1202.4000;0.6105;1.3853;
1202.7000;0.6097;1.3901;
1203.0000;0.6097;1.3853;
1203.3000;0.6097;1.3925;
1203.6000;0.6081;1.3974;
1203.9000;0.6081;1.3998;
1204.2000;0.6081;1.3974;
1204.5000;0.6072;1.3901;
1204.8000;0.6081;1.3950;
1205.1000;0.6072;1.3925;
1205.4000;0.6097;1.3998;
1205.7000;0.6081;1.3804;
1206.0000;0.6081;1.3780;
1206.3000;0.6081;1.3804;
1206.6000;0.6081;1.3804;
1206.9000;0.6072;1.3829;
1207.2000;0.6064;1.3780;
1207.5000;0.6121;1.3829;
1207.8000;0.6089;1.3732;
1208.1000;0.6081;1.3756;
1208.4000;0.6081;1.3829;
1208.7000;0.6105;1.3901;
1209.0000;0.6089;1.3829;
1209.3000;0.6032;1.3635;
1209.6000;0.6032;1.3635;
1209.9000;0.6056;1.3732;
1210.2000;0.6072;1.3756;
1210.5000;0.6081;1.3804;
1210.8000;0.6072;1.3708;
1211.1000;0.6064;1.3659;
1211.4000;0.6072;1.3732;
1211.7000;0.6064;1.3684;
1212.0000;0.6072;1.3611;
1212.3000;0.6072;1.3466;
1212.6000;0.6081;1.3563;
1212.9000;0.6129;1.3635;
1213.2000;0.6089;1.3466;
1213.5000;0.6089;1.3514;
1213.8000;0.6056;1.3563;
1214.1000;0.6064;1.3563;
1214.4000;0.6064;1.3539;
1214.7000;0.6081;1.3611;
1215.0000;0.6081;1.3780;
1215.3000;0.6081;1.3853;
1215.6000;0.6129;1.3901;
1215.9000;0.6064;1.3611;
1216.2000;0.6064;1.3659;
1216.5000;0.6072;1.3708;
1216.8000;0.6097;1.3732;
1217.1000;0.6032;1.3587;
1217.4000;0.6081;1.3684;
1217.7000;0.6089;1.3804;
1218.0000;0.6105;1.3901;
1218.3000;0.6064;1.3877;
1218.6000;0.6056;1.3780;
1218.9000;0.6105;1.3732;
1219.2000;0.6089;1.3563;
1219.5000;0.6072;1.3466;
1219.8000;0.6064;1.3563;
1220.1000;0.6089;1.3611;
1220.4000;0.6105;1.3659;
1220.7000;0.6064;1.3659;
1221.0000;0.6056;1.3684;
1221.3000;0.6072;1.3732;
1221.6000;0.6089;1.3756;
1221.9000;0.6072;1.3611;
1222.2000;0.6089;1.3490;
1222.5000;0.6072;1.3418;
1222.8000;0.6081;1.3539;
1223.1000;0.6081;1.3539;
1223.4000;0.6089;1.3611;
1223.7000;0.6097;1.3684;
1224.0000;0.6056;1.3708;
1224.3000;0.6097;1.3780;
1224.6000;0.6081;1.3684;
1224.9000;0.6032;1.3466;
1225.2000;0.6056;1.3563;
1225.5000;0.6081;1.3635;
1225.8000;0.6048;1.3539;
1226.1000;0.6081;1.3490;
1226.4000;0.5991;1.3224;
1226.7000;0.6072;1.3539;
1227.0000;0.6081;1.3684;
1227.3000;0.6081;1.3635;
1227.6000;0.6081;1.3684;
1227.9000;0.6081;1.3659;
1228.2000;0.6105;1.3756;
1228.5000;0.6081;1.3684;
1228.8000;0.6081;1.3684;
1229.1000;0.6113;1.3732;
1229.4000;0.6072;1.3659;
1229.7000;0.6064;1.3708;
1230.0000;0.6081;1.3756;
1230.3000;0.6089;1.3853;
1230.6000;0.6097;1.3925;
1230.9000;0.6064;1.3877;
1231.2000;0.6081;1.3853;
1231.5000;0.6081;1.3780;
1231.8000;0.6097;1.3780;
1232.1000;0.6040;1.3635;
1232.4000;0.6081;1.3635;
1232.7000;0.6064;1.3635;
1233.0000;0.6056;1.3563;
1233.3000;0.6089;1.3684;
1233.6000;0.6072;1.3732;
1233.9000;0.6081;1.3708;
1234.2000;0.6064;1.3684;
1234.5000;0.6089;1.3804;
1234.8000;0.6064;1.3684;
1235.1000;0.6081;1.3780;
1235.4000;0.6081;1.3877;
1235.7000;0.6089;1.3974;
1236.0000;0.6072;1.3950;
1236.3000;0.6081;1.3853;
1236.6000;0.6081;1.3974;
1236.9000;0.6089;1.3877;
1237.2000;0.6064;1.3732;
1237.5000;0.6072;1.3732;
1237.8000;0.6081;1.3635;
1238.1000;0.6081;1.3563;
1238.4000;0.6064;1.3611;
1238.7000;0.6072;1.3611;
1239.0000;0.6081;1.3635;
1239.3000;0.6056;1.3587;
1239.6000;0.6056;1.3635;
1239.9000;0.6097;1.3708;
1240.2000;0.6072;1.3514;
1240.5000;0.6081;1.3563;
1240.8000;0.6056;1.3490;
1241.1000;0.6081;1.3514;
1241.4000;0.6064;1.3514;
1241.7000;0.6072;1.3587;
1242.0000;0.6121;1.3708;
1242.3000;0.6097;1.3611;
1242.6000;0.6097;1.3684;
1242.9000;0.6089;1.3684;
1243.2000;0.6081;1.3684;
1243.5000;0.6089;1.3780;
1243.8000;0.6081;1.3684;
1244.1000;0.6081;1.3684;
1244.4000;0.6113;1.3804;
1244.7000;0.6081;1.3732;
1245.0000;0.6064;1.3708;
1245.3000;0.6048;1.3611;
1245.6000;0.6056;1.3563;
1245.9000;0.6154;1.3780;
1246.2000;0.6081;1.3635;
1246.5000;0.6072;1.3539;
1246.8000;0.6072;1.3563;
1247.1000;0.6081;1.3587;
1247.4000;0.6064;1.3563;
1247.7000;0.6072;1.3563;
1248.0000;0.6032;1.3611;
1248.3000;0.6081;1.3804;
1248.6000;0.6081;1.3804;
1248.9000;0.5991;1.3611;
1249.2000;0.6072;1.3804;
1249.5000;0.6081;1.3853;
1249.8000;0.6121;1.3877;
1250.1000;0.6048;1.3732;
1250.4000;0.6056;1.3853;
1250.7000;0.6064;1.3829;
1251.0000;0.6056;1.3780;
1251.3000;0.6089;1.3804;
1251.6000;0.6089;1.3804;
1251.9000;0.6064;1.3829;
1252.2000;0.6089;1.3804;
1252.5000;0.6072;1.3756;
1252.8000;0.6089;1.3780;
1253.1000;0.6097;1.3756;
1253.4000;0.6089;1.3780;
1253.7000;0.6048;1.3684;
1254.0000;0.6081;1.3684;
1254.3000;0.6081;1.3684;
1254.6000;0.6032;1.3587;
1254.9000;0.6072;1.3756;
1255.2000;0.6064;1.3756;
1255.5000;0.6072;1.3853;
1255.8000;0.6089;1.3877;
1256.1000;0.6040;1.3780;
1256.4000;0.6064;1.3804;
1256.7000;0.6064;1.3708;
1257.0000;0.6081;1.3756;
1257.3000;0.6072;1.3804;
1257.6000;0.6081;1.3853;
1257.9000;0.6072;1.3780;
1258.2000;0.6056;1.3756;
1258.5000;0.6081;1.3756;
1258.8000;0.6064;1.3732;
1259.1000;0.6072;1.3756;
1259.4000;0.6081;1.3780;
1259.7000;0.6056;1.3804;
1260.0000;0.6081;1.3780;
1260.3000;0.6007;1.3539;
1260.6000;0.6089;1.3684;
1260.9000;0.6089;1.3659;
1261.2000;0.6081;1.3684;
1261.5000;0.6097;1.3732;
1261.8000;0.6097;1.3708;
1262.1000;0.6056;1.3635;
1262.4000;0.6081;1.3756;
1262.7000;0.6195;1.4070;
1263.0000;0.6056;1.3708;
1263.3000;0.6024;1.3611;
1263.6000;0.6032;1.3708;
1263.9000;0.6064;1.3780;
1264.2000;0.6056;1.3780;
1264.5000;0.6064;1.3732;
1264.8000;0.6048;1.3611;
1265.1000;0.6072;1.3635;
1265.4000;0.6048;1.3563;
1265.7000;0.6064;1.3563;
1266.0000;0.6064;1.3635;
1266.3000;0.6113;1.3804;
1266.6000;0.6072;1.3732;
1266.9000;0.6056;1.3659;
1267.2000;0.6097;1.3756;
1267.5000;0.6081;1.3659;
1267.8000;0.6089;1.3659;
1268.1000;0.6064;1.3611;
1268.4000;0.6089;1.3684;
1268.7000;0.6064;1.3708;
1269.0000;0.6064;1.3756;
1269.3000;0.6056;1.3756;
1269.6000;0.6064;1.3780;
1269.9000;0.6015;1.3611;
1270.2000;0.6064;1.3732;
1270.5000;0.6040;1.3684;
1270.8000;0.6007;1.3611;
1271.1000;0.6056;1.3780;
1271.4000;0.6072;1.3756;
1271.7000;0.6024;1.3635;
1272.0000;0.6048;1.3635;
1272.3000;0.5991;1.3442;
1272.6000;0.6081;1.3708;
1272.9000;0.6072;1.3732;
1273.2000;0.6056;1.3684;
1273.5000;0.6048;1.3684;
1273.8000;0.6072;1.3732;
1274.1000;0.6064;1.3708;
1274.4000;0.6064;1.3780;
1274.7000;0.6048;1.3708;
1275.0000;0.6064;1.3780;
1275.3000;0.6089;1.3756;
1275.6000;0.6056;1.3684;
1275.9000;0.6056;1.3708;
1276.2000;0.6056;1.3659;
1276.5000;0.6056;1.3708;
1276.8000;0.6048;1.3684;
1277.1000;0.6056;1.3684;
1277.4000;0.6056;1.3659;
1277.7000;0.6089;1.3756;
1278.0000;0.6072;1.3708;
1278.3000;0.6089;1.3684;
1278.6000;0.6089;1.3684;
1278.9000;0.6048;1.3563;
1279.2000;0.6040;1.3563;
1279.5000;0.6064;1.3659;
1279.8000;0.6072;1.3635;
1280.1000;0.6015;1.3587;
1280.4000;0.6121;1.3804;
1280.7000;0.6048;1.3635;
1281.0000;0.6056;1.3635;
1281.3000;0.6040;1.3635;
1281.6000;0.6064;1.3611;
1281.9000;0.6048;1.3563;
1282.2000;0.6089;1.3635;
1282.5000;0.6056;1.3684;
1282.8000;0.6081;1.3635;
1283.1000;0.6064;1.3756;
1283.4000;0.6064;1.3756;
1283.7000;0.5999;1.3635;
1284.0000;0.6072;1.3732;
1284.3000;0.6064;1.3708;
1284.6000;0.6056;1.3732;
1284.9000;0.6056;1.3756;
1285.2000;0.6040;1.3756;
1285.5000;0.6064;1.3829;
1285.8000;0.5983;1.3539;
1286.1000;0.6064;1.3708;
1286.4000;0.6072;1.3804;
1286.7000;0.6105;1.3732;
1287.0000;0.6056;1.3659;
1287.3000;0.6072;1.3708;
1287.6000;0.6040;1.3611;
1287.9000;0.6015;1.3587;
1288.2000;0.6072;1.3684;
1288.5000;0.6072;1.3635;
1288.8000;0.6105;1.3732;
1289.1000;0.6072;1.3780;
1289.4000;0.6040;1.3732;
1289.7000;0.6024;1.3684;
1290.0000;0.6048;1.3780;
1290.3000;0.6048;1.3877;
1290.6000;0.6056;1.3974;
1290.9000;0.6056;1.3950;
1291.2000;0.6048;1.3925;
1291.5000;0.6072;1.3925;
1291.8000;0.6056;1.3901;
1292.1000;0.6056;1.3804;
1292.4000;0.6056;1.3732;
1292.7000;0.6056;1.3756;
1293.0000;0.6032;1.3804;
1293.3000;0.6138;1.4022;
1293.6000;0.6056;1.3853;
1293.9000;0.6032;1.3756;
1294.2000;0.6072;1.3877;
1294.5000;0.6056;1.3998;
1294.8000;0.6048;1.3998;
1295.1000;0.6056;1.3950;
1295.4000;0.5991;1.3804;
1295.7000;0.6064;1.3853;
1296.0000;0.6048;1.3853;
1296.3000;0.6113;1.3974;
1296.6000;0.6056;1.3780;
1296.9000;0.6056;1.3804;
1297.2000;0.6040;1.3780;
1297.5000;0.6056;1.3877;
1297.8000;0.6048;1.3829;
1298.1000;0.6081;1.3853;
1298.4000;0.6081;1.3780;
1298.7000;0.6056;1.3732;
1299.0000;0.6048;1.3708;
1299.3000;0.6064;1.3684;
1299.6000;0.6064;1.3684;
1299.9000;0.6064;1.3659;
1300.2000;0.6032;1.3563;
1300.5000;0.6064;1.3708;
1300.8000;0.6056;1.3635;
1301.1000;0.6048;1.3563;
1301.4000;0.6056;1.3563;
1301.7000;0.6064;1.3587;
1302.0000;0.6040;1.3490;
1302.3000;0.6040;1.3442;
1302.6000;0.6048;1.3466;
1302.9000;0.6040;1.3563;
1303.2000;0.6040;1.3635;
1303.5000;0.6048;1.3659;
1303.8000;0.6064;1.3708;
1304.1000;0.6015;1.3514;
1304.4000;0.6064;1.3756;
1304.7000;0.6048;1.3732;
1305.0000;0.6064;1.3756;
1305.3000;0.6048;1.3708;
1305.6000;0.6056;1.3756;
1305.9000;0.6056;1.3804;
1306.2000;0.6048;1.3804;
1306.5000;0.6064;1.3877;
1306.8000;0.6040;1.3877;
1307.1000;0.6007;1.3684;
1307.4000;0.6064;1.3780;
1307.7000;0.6048;1.3780;
1308.0000;0.6056;1.3804;
1308.3000;0.6064;1.3877;
1308.6000;0.6064;1.3950;
1308.9000;0.6040;1.4022;
1309.2000;0.6048;1.3925;
1309.5000;0.6081;1.3925;
1309.8000;0.6040;1.3829;
1310.1000;0.5975;1.3635;
1310.4000;0.6105;1.3853;
1310.7000;0.6105;1.3901;
1311.0000;0.6072;1.3853;
1311.3000;0.6064;1.3804;
1311.6000;0.6007;1.3635;
1311.9000;0.6056;1.3780;
1312.2000;0.6040;1.3756;
1312.5000;0.6048;1.3684;
1312.8000;0.6056;1.3635;
1313.1000;0.6056;1.3659;
1313.4000;0.6032;1.3587;
1313.7000;0.6072;1.3635;
1314.0000;0.6040;1.3635;
1314.3000;0.6089;1.3853;
1314.6000;0.6072;1.3780;
1314.9000;0.6089;1.3829;
1315.2000;0.6072;1.3732;
1315.5000;0.6048;1.3732;
1315.8000;0.6048;1.3684;
1316.1000;0.6056;1.3684;
1316.4000;0.6064;1.3684;
1316.7000;0.6007;1.3611;
1317.0000;0.6032;1.3732;
1317.3000;0.6056;1.3804;
1317.6000;0.6048;1.3732;
1317.9000;0.6032;1.3708;
1318.2000;0.6040;1.3780;
1318.5000;0.6072;1.3829;
1318.8000;0.5983;1.3587;
1319.1000;0.6040;1.3708;
1319.4000;0.6048;1.3780;
1319.7000;0.6048;1.3732;
1320.0000;0.6024;1.3659;
1320.3000;0.6072;1.3780;
1320.6000;0.6048;1.3780;
1320.9000;0.6015;1.3611;
1321.2000;0.6032;1.3708;
1321.5000;0.6048;1.3804;
1321.8000;0.6032;1.3732;
1322.1000;0.6040;1.3804;
1322.4000;0.6040;1.3780;
1322.7000;0.6048;1.3780;
1323.0000;0.6032;1.3780;
1323.3000;0.6048;1.3901;
1323.6000;0.6072;1.3998;
1323.9000;0.6081;1.4070;
1324.2000;0.6072;1.4070;
1324.5000;0.6056;1.4119;
1324.8000;0.6064;1.4143;
1325.1000;0.6056;1.4119;
1325.4000;0.6056;1.4070;
1325.7000;0.6048;1.3998;
1326.0000;0.6056;1.3998;
1326.3000;0.5975;1.3756;
1326.6000;0.6040;1.3877;
1326.9000;0.6056;1.3877;
1327.2000;0.6024;1.3829;
1327.5000;0.6048;1.3853;
1327.8000;0.6064;1.3901;
1328.1000;0.6056;1.3901;
1328.4000;0.6056;1.3950;
1328.7000;0.6056;1.3925;
1329.0000;0.6081;1.3950;
1329.3000;0.6064;1.3877;
1329.6000;0.6064;1.3804;
1329.9000;0.6081;1.3804;
1330.2000;0.6048;1.3732;
1330.5000;0.6056;1.3708;
1330.8000;0.6032;1.3635;
1331.1000;0.6089;1.3877;
1331.4000;0.6072;1.3877;
1331.7000;0.6064;1.3877;
1332.0000;0.6040;1.3780;
1332.3000;0.6048;1.3732;
1332.6000;0.6089;1.3804;
1332.9000;0.6064;1.3804;
1333.2000;0.6040;1.3684;
1333.5000;0.6040;1.3732;
1333.8000;0.6040;1.3684;
1334.1000;0.5999;1.3587;
1334.4000;0.6064;1.3804;
1334.7000;0.6048;1.3756;
1335.0000;0.6040;1.3732;
1335.3000;0.6056;1.3732;
1335.6000;0.6024;1.3635;
1335.9000;0.6048;1.3563;
1336.2000;0.6056;1.3490;
1336.5000;0.6040;1.3539;
1336.8000;0.6015;1.3466;
1337.1000;0.6040;1.3587;
1337.4000;0.6064;1.3659;
1337.7000;0.6064;1.3587;
1338.0000;0.6048;1.3490;
1338.3000;0.6064;1.3539;
1338.6000;0.6032;1.3539;
1338.9000;0.6072;1.3563;
1339.2000;0.6064;1.3611;
1339.5000;0.6064;1.3635;
1339.8000;0.6113;1.3829;
1340.1000;0.6064;1.3684;
1340.4000;0.6105;1.3732;
1340.7000;0.6072;1.3587;
1341.0000;0.6064;1.3587;
1341.3000;0.6040;1.3635;
1341.6000;0.6072;1.3684;
1341.9000;0.6024;1.3490;
1342.2000;0.6056;1.3587;
1342.5000;0.6032;1.3563;
1342.8000;0.6089;1.3780;
1343.1000;0.6056;1.3804;
1343.4000;0.6048;1.3804;
1343.7000;0.6064;1.3901;
1344.0000;0.6064;1.3974;
1344.3000;0.6089;1.3974;
1344.6000;0.6048;1.3780;
1344.9000;0.6048;1.3732;
1345.2000;0.6056;1.3684;
1345.5000;0.6064;1.3732;
1345.8000;0.6048;1.3804;
1346.1000;0.6040;1.3829;
1346.4000;0.6032;1.3829;
1346.7000;0.6056;1.3853;
1347.0000;0.6032;1.3684;
1347.3000;0.6048;1.3635;
1347.6000;0.6048;1.3587;
1347.9000;0.6056;1.3611;
1348.2000;0.6032;1.3635;
1348.5000;0.6048;1.3659;
1348.8000;0.6064;1.3780;
1349.1000;0.6056;1.3853;
1349.4000;0.6056;1.3780;
1349.7000;0.6072;1.3732;
1350.0000;0.6048;1.3684;
1350.3000;0.6056;1.3708;
1350.6000;0.6064;1.3684;
1350.9000;0.6056;1.3635;
1351.2000;0.6105;1.3659;
1351.5000;0.6040;1.3539;
1351.8000;0.6056;1.3611;
1352.1000;0.6048;1.3611;
1352.4000;0.6048;1.3684;
1352.7000;0.6056;1.3708;
1353.0000;0.6048;1.3684;
1353.3000;0.6056;1.3732;
1353.6000;0.6048;1.3756;
1353.9000;0.6064;1.3853;
1354.2000;0.6048;1.3925;
1354.5000;0.6040;1.3829;
1354.8000;0.6040;1.3901;
1355.1000;0.6040;1.3901;
1355.4000;0.6048;1.3901;
1355.7000;0.6032;1.3708;
1356.0000;0.6064;1.3804;
1356.3000;0.6048;1.3804;
1356.6000;0.6040;1.3780;
1356.9000;0.5991;1.3635;
1357.2000;0.6056;1.3829;
1357.5000;0.6032;1.3732;
1357.8000;0.6032;1.3659;
1358.1000;0.6048;1.3732;
1358.4000;0.6040;1.3780;
1358.7000;0.6072;1.3804;
1359.0000;0.6056;1.3853;
1359.3000;0.6032;1.3732;
1359.6000;0.6040;1.3659;
1359.9000;0.6040;1.3732;
1360.2000;0.6154;1.4119;
1360.5000;0.6040;1.3829;
1360.8000;0.5999;1.3684;
1361.1000;0.6032;1.3708;
1361.4000;0.6032;1.3732;
1361.7000;0.6056;1.3708;
1362.0000;0.6056;1.3659;
1362.3000;0.6007;1.3514;
1362.6000;0.6048;1.3684;
1362.9000;0.6105;1.3804;
1363.2000;0.6056;1.3635;
1363.5000;0.6056;1.3587;
1363.8000;0.6015;1.3563;
1364.1000;0.6056;1.3732;
1364.4000;0.6089;1.3780;
1364.7000;0.6056;1.3659;
1365.0000;0.6040;1.3611;
1365.3000;0.5999;1.3587;
1365.6000;0.6048;1.3732;
1365.9000;0.6072;1.3829;
1366.2000;0.6056;1.3853;
1366.5000;0.6064;1.3950;
1366.8000;0.6056;1.3974;
1367.1000;0.6048;1.3974;
1367.4000;0.6048;1.3974;
1367.7000;0.6048;1.4022;
1368.0000;0.6056;1.4022;
1368.3000;0.6040;1.3950;
1368.6000;0.6056;1.3925;
1368.9000;0.6032;1.3950;
1369.2000;0.6015;1.3925;
1369.5000;0.6056;1.3877;
1369.8000;0.6056;1.3853;
1370.1000;0.6040;1.3877;
1370.4000;0.6048;1.3901;
1370.7000;0.6048;1.3853;
1371.0000;0.6048;1.3901;
1371.3000;0.6048;1.3780;
1371.6000;0.6048;1.3756;
1371.9000;0.6024;1.3708;
1372.2000;0.6056;1.3708;
1372.5000;0.6056;1.3756;
1372.8000;0.6040;1.3708;
1373.1000;0.5999;1.3659;
1373.4000;0.6040;1.3684;
1373.7000;0.6024;1.3659;
1374.0000;0.6056;1.3708;
1374.3000;0.5991;1.3659;
1374.6000;0.6032;1.3877;
1374.9000;0.6032;1.3925;
1375.2000;0.6032;1.3901;
1375.5000;0.6024;1.3853;
1375.8000;0.6040;1.3853;
1376.1000;0.6048;1.3877;
1376.4000;0.6024;1.3901;
1376.7000;0.6056;1.3950;
1377.0000;0.6056;1.3974;
1377.3000;0.6032;1.3974;
1377.6000;0.6048;1.3877;
1377.9000;0.6105;1.3998;
1378.2000;0.6048;1.3877;
1378.5000;0.6056;1.3780;
1378.8000;0.6040;1.3708;
1379.1000;0.6024;1.3684;
1379.4000;0.6024;1.3611;
1379.7000;0.6015;1.3659;
1380.0000;0.6056;1.3756;
1380.3000;0.6024;1.3684;
1380.6000;0.6024;1.3611;
1380.9000;0.5991;1.3563;
1381.2000;0.6024;1.3587;
1381.5000;0.6024;1.3587;
1381.8000;0.6024;1.3611;
1382.1000;0.6064;1.3732;
1382.4000;0.6048;1.3756;
1382.7000;0.6040;1.3659;
1383.0000;0.6024;1.3563;
1383.3000;0.6032;1.3611;
1383.6000;0.5991;1.3539;
1383.9000;0.6048;1.3611;
1384.2000;0.6048;1.3659;
1384.5000;0.6048;1.3635;
1384.8000;0.6056;1.3684;
1385.1000;0.6040;1.3563;
1385.4000;0.6048;1.3563;
1385.7000;0.6056;1.3635;
1386.0000;0.6056;1.3611;
1386.3000;0.6048;1.3611;
1386.6000;0.6048;1.3563;
1386.9000;0.6040;1.3611;
1387.2000;0.6040;1.3563;
1387.5000;0.6032;1.3635;
1387.8000;0.6040;1.3563;
1388.1000;0.5999;1.3490;
1388.4000;0.6040;1.3563;
1388.7000;0.6032;1.3587;
1389.0000;0.6015;1.3563;
1389.3000;0.5967;1.3442;
1389.6000;0.6162;1.3853;
1389.9000;0.6032;1.3635;
1390.2000;0.6056;1.3756;
1390.5000;0.6064;1.3853;
1390.8000;0.6040;1.3732;
1391.1000;0.6048;1.3756;
1391.4000;0.6040;1.3684;
1391.7000;0.6048;1.3684;
1392.0000;0.6040;1.3708;
1392.3000;0.6007;1.3732;
1392.6000;0.6048;1.3829;
1392.9000;0.6024;1.3684;
1393.2000;0.6015;1.3635;
1393.5000;0.6040;1.3659;
1393.8000;0.6040;1.3732;
1394.1000;0.6040;1.3756;
1394.4000;0.6040;1.3829;
1394.7000;0.6040;1.3732;
1395.0000;0.6040;1.3684;
1395.3000;0.6048;1.3659;
1395.6000;0.6032;1.3539;
1395.9000;0.6007;1.3611;
1396.2000;0.6015;1.3611;
1396.5000;0.6040;1.3563;
1396.8000;0.6032;1.3539;
1397.1000;0.6024;1.3466;
1397.4000;0.5991;1.3369;
1397.7000;0.6024;1.3490;
1398.0000;0.6015;1.3587;
1398.3000;0.6040;1.3732;
1398.6000;0.6113;1.3901;
1398.9000;0.6048;1.3780;
1399.2000;0.6040;1.3732;
1399.5000;0.6040;1.3684;
1399.8000;0.6032;1.3708;
