time/ms;Fluo/V;P700 deltaI/I x10³;
-199.8000;0.7424;1.3539;
-199.5000;0.7432;1.3514;
-199.2000;0.7407;1.3514;
-198.9000;0.7424;1.3490;
-198.6000;0.7424;1.3490;
-198.3000;0.7391;1.3418;
-198.0000;0.7456;1.3563;
-197.7000;0.7440;1.3442;
-197.4000;0.7318;1.3176;
-197.1000;0.7424;1.3345;
-196.8000;0.7432;1.3393;
-196.5000;0.7399;1.3345;
-196.2000;0.7432;1.3418;
-195.9000;0.7424;1.3393;
-195.6000;0.7367;1.3321;
-195.3000;0.7497;1.3659;
-195.0000;0.7399;1.3514;
-194.7000;0.7432;1.3635;
-194.4000;0.7424;1.3611;
-194.1000;0.7432;1.3635;
-193.8000;0.7416;1.3684;
-193.5000;0.7342;1.3514;
-193.2000;0.7391;1.3635;
-192.9000;0.7448;1.3732;
-192.6000;0.7416;1.3539;
-192.3000;0.7416;1.3539;
-192.0000;0.7432;1.3490;
-191.7000;0.7407;1.3442;
-191.4000;0.7416;1.3466;
-191.1000;0.7416;1.3490;
-190.8000;0.7424;1.3514;
-190.5000;0.7416;1.3466;
-190.2000;0.7424;1.3393;
-189.9000;0.7432;1.3345;
-189.6000;0.7473;1.3539;
-189.3000;0.7456;1.3587;
-189.0000;0.7367;1.3393;
-188.7000;0.7432;1.3442;
-188.4000;0.7399;1.3321;
-188.1000;0.7424;1.3418;
-187.8000;0.7424;1.3418;
-187.5000;0.7424;1.3490;
-187.2000;0.7416;1.3514;
-186.9000;0.7416;1.3490;
-186.6000;0.7424;1.3466;
-186.3000;0.7383;1.3321;
-186.0000;0.7432;1.3442;
-185.7000;0.7432;1.3466;
-185.4000;0.7407;1.3369;
-185.1000;0.7440;1.3393;
-184.8000;0.7424;1.3369;
-184.5000;0.7383;1.3297;
-184.2000;0.7424;1.3418;
-183.9000;0.7432;1.3369;
-183.6000;0.7432;1.3345;
-183.3000;0.7424;1.3321;
-183.0000;0.7464;1.3490;
-182.7000;0.7432;1.3490;
-182.4000;0.7399;1.3418;
-182.1000;0.7440;1.3490;
-181.8000;0.7424;1.3466;
-181.5000;0.7440;1.3514;
-181.2000;0.7424;1.3514;
-180.9000;0.7399;1.3514;
-180.6000;0.7440;1.3514;
-180.3000;0.7432;1.3442;
-180.0000;0.7440;1.3442;
-179.7000;0.7424;1.3466;
-179.4000;0.7440;1.3490;
-179.1000;0.7424;1.3273;
-178.8000;0.7416;1.3200;
-178.5000;0.7424;1.3345;
-178.2000;0.7407;1.3273;
-177.9000;0.7416;1.3321;
-177.6000;0.7432;1.3393;
-177.3000;0.7424;1.3369;
-177.0000;0.7416;1.3345;
-176.7000;0.7432;1.3369;
-176.4000;0.7440;1.3369;
-176.1000;0.7432;1.3321;
-175.8000;0.7432;1.3345;
-175.5000;0.7456;1.3369;
-175.2000;0.7416;1.3345;
-174.9000;0.7489;1.3563;
-174.6000;0.7407;1.3345;
-174.3000;0.7407;1.3321;
-174.0000;0.7432;1.3514;
-173.7000;0.7407;1.3418;
-173.4000;0.7407;1.3490;
-173.1000;0.7399;1.3442;
-172.8000;0.7424;1.3539;
-172.5000;0.7407;1.3490;
-172.2000;0.7416;1.3563;
-171.9000;0.7399;1.3635;
-171.6000;0.7432;1.3756;
-171.3000;0.7424;1.3659;
-171.0000;0.7416;1.3635;
-170.7000;0.7424;1.3684;
-170.4000;0.7448;1.3756;
-170.1000;0.7416;1.3708;
-169.8000;0.7424;1.3684;
-169.5000;0.7416;1.3635;
-169.2000;0.7440;1.3611;
-168.9000;0.7440;1.3611;
-168.6000;0.7448;1.3708;
-168.3000;0.7440;1.3853;
-168.0000;0.7432;1.3853;
-167.7000;0.7432;1.3925;
-167.4000;0.7416;1.3780;
-167.1000;0.7424;1.3780;
-166.8000;0.7432;1.3756;
-166.5000;0.7432;1.3756;
-166.2000;0.7448;1.3804;
-165.9000;0.7432;1.3708;
-165.6000;0.7432;1.3732;
-165.3000;0.7416;1.3756;
-165.0000;0.7424;1.3780;
-164.7000;0.7424;1.3756;
-164.4000;0.7416;1.3756;
-164.1000;0.7424;1.3756;
-163.8000;0.7424;1.3804;
-163.5000;0.7424;1.3804;
-163.2000;0.7416;1.3804;
-162.9000;0.7432;1.3877;
-162.6000;0.7424;1.3853;
-162.3000;0.7424;1.3780;
-162.0000;0.7424;1.3780;
-161.7000;0.7424;1.3780;
-161.4000;0.7440;1.3780;
-161.1000;0.7448;1.3756;
-160.8000;0.7424;1.3659;
-160.5000;0.7440;1.3611;
-160.2000;0.7432;1.3563;
-159.9000;0.7440;1.3563;
-159.6000;0.7432;1.3635;
-159.3000;0.7424;1.3587;
-159.0000;0.7416;1.3659;
-158.7000;0.7456;1.3708;
-158.4000;0.7432;1.3587;
-158.1000;0.7416;1.3514;
-157.8000;0.7432;1.3611;
-157.5000;0.7432;1.3635;
-157.2000;0.7432;1.3611;
-156.9000;0.7432;1.3611;
-156.6000;0.7432;1.3514;
-156.3000;0.7416;1.3442;
-156.0000;0.7448;1.3563;
-155.7000;0.7456;1.3659;
-155.4000;0.7456;1.3732;
-155.1000;0.7456;1.3708;
-154.8000;0.7448;1.3539;
-154.5000;0.7383;1.3321;
-154.2000;0.7440;1.3563;
-153.9000;0.7440;1.3708;
-153.6000;0.7432;1.3659;
-153.3000;0.7424;1.3684;
-153.0000;0.7416;1.3659;
-152.7000;0.7424;1.3708;
-152.4000;0.7440;1.3804;
-152.1000;0.7416;1.3708;
-151.8000;0.7424;1.3732;
-151.5000;0.7407;1.3659;
-151.2000;0.7424;1.3708;
-150.9000;0.7424;1.3635;
-150.6000;0.7416;1.3587;
-150.3000;0.7440;1.3563;
-150.0000;0.7432;1.3611;
-149.7000;0.7440;1.3659;
-149.4000;0.7432;1.3659;
-149.1000;0.7416;1.3659;
-148.8000;0.7440;1.3708;
-148.5000;0.7432;1.3732;
-148.2000;0.7424;1.3684;
-147.9000;0.7424;1.3635;
-147.6000;0.7448;1.3684;
-147.3000;0.7432;1.3635;
-147.0000;0.7481;1.3829;
-146.7000;0.7407;1.3611;
-146.4000;0.7432;1.3780;
-146.1000;0.7407;1.3732;
-145.8000;0.7407;1.3684;
-145.5000;0.7424;1.3732;
-145.2000;0.7432;1.3732;
-144.9000;0.7416;1.3732;
-144.6000;0.7424;1.3708;
-144.3000;0.7448;1.3756;
-144.0000;0.7440;1.3635;
-143.7000;0.7432;1.3563;
-143.4000;0.7432;1.3587;
-143.1000;0.7424;1.3611;
-142.8000;0.7399;1.3539;
-142.5000;0.7432;1.3539;
-142.2000;0.7416;1.3539;
-141.9000;0.7416;1.3563;
-141.6000;0.7424;1.3442;
-141.3000;0.7432;1.3369;
-141.0000;0.7416;1.3345;
-140.7000;0.7424;1.3442;
-140.4000;0.7416;1.3466;
-140.1000;0.7416;1.3418;
-139.8000;0.7440;1.3442;
-139.5000;0.7416;1.3418;
-139.2000;0.7424;1.3514;
-138.9000;0.7440;1.3563;
-138.6000;0.7440;1.3514;
-138.3000;0.7432;1.3563;
-138.0000;0.7416;1.3539;
-137.7000;0.7342;1.3369;
-137.4000;0.7399;1.3587;
-137.1000;0.7424;1.3635;
-136.8000;0.7440;1.3587;
-136.5000;0.7440;1.3684;
-136.2000;0.7424;1.3587;
-135.9000;0.7424;1.3635;
-135.6000;0.7416;1.3684;
-135.3000;0.7448;1.3684;
-135.0000;0.7424;1.3635;
-134.7000;0.7448;1.3684;
-134.4000;0.7432;1.3611;
-134.1000;0.7521;1.3829;
-133.8000;0.7448;1.3659;
-133.5000;0.7424;1.3514;
-133.2000;0.7432;1.3514;
-132.9000;0.7440;1.3514;
-132.6000;0.7432;1.3442;
-132.3000;0.7424;1.3442;
-132.0000;0.7424;1.3490;
-131.7000;0.7416;1.3514;
-131.4000;0.7424;1.3490;
-131.1000;0.7416;1.3466;
-130.8000;0.7407;1.3442;
-130.5000;0.7440;1.3466;
-130.2000;0.7375;1.3224;
-129.9000;0.7424;1.3393;
-129.6000;0.7432;1.3442;
-129.3000;0.7432;1.3466;
-129.0000;0.7424;1.3539;
-128.7000;0.7424;1.3563;
-128.4000;0.7416;1.3490;
-128.1000;0.7424;1.3563;
-127.8000;0.7464;1.3611;
-127.5000;0.7432;1.3611;
-127.2000;0.7424;1.3708;
-126.9000;0.7456;1.3732;
-126.6000;0.7424;1.3635;
-126.3000;0.7416;1.3684;
-126.0000;0.7440;1.3659;
-125.7000;0.7440;1.3732;
-125.4000;0.7448;1.3829;
-125.1000;0.7424;1.3756;
-124.8000;0.7448;1.3780;
-124.5000;0.7432;1.3756;
-124.2000;0.7424;1.3804;
-123.9000;0.7432;1.3853;
-123.6000;0.7416;1.3732;
-123.3000;0.7432;1.3853;
-123.0000;0.7440;1.3853;
-122.7000;0.7391;1.3611;
-122.4000;0.7416;1.3563;
-122.1000;0.7424;1.3611;
-121.8000;0.7416;1.3539;
-121.5000;0.7424;1.3587;
-121.2000;0.7424;1.3659;
-120.9000;0.7432;1.3659;
-120.6000;0.7375;1.3466;
-120.3000;0.7432;1.3587;
-120.0000;0.7424;1.3635;
-119.7000;0.7481;1.3756;
-119.4000;0.7432;1.3732;
-119.1000;0.7440;1.3780;
-118.8000;0.7424;1.3780;
-118.5000;0.7407;1.3804;
-118.2000;0.7432;1.3780;
-117.9000;0.7448;1.3829;
-117.6000;0.7432;1.3853;
-117.3000;0.7391;1.3708;
-117.0000;0.7424;1.3829;
-116.7000;0.7375;1.3708;
-116.4000;0.7448;1.3853;
-116.1000;0.7424;1.3708;
-115.8000;0.7424;1.3732;
-115.5000;0.7440;1.3732;
-115.2000;0.7432;1.3780;
-114.9000;0.7416;1.3780;
-114.6000;0.7473;1.3853;
-114.3000;0.7416;1.3635;
-114.0000;0.7416;1.3635;
-113.7000;0.7424;1.3635;
-113.4000;0.7424;1.3611;
-113.1000;0.7432;1.3563;
-112.8000;0.7440;1.3635;
-112.5000;0.7440;1.3635;
-112.2000;0.7432;1.3635;
-111.9000;0.7424;1.3659;
-111.6000;0.7407;1.3611;
-111.3000;0.7424;1.3635;
-111.0000;0.7416;1.3611;
-110.7000;0.7424;1.3563;
-110.4000;0.7432;1.3539;
-110.1000;0.7448;1.3587;
-109.8000;0.7440;1.3587;
-109.5000;0.7481;1.3732;
-109.2000;0.7432;1.3732;
-108.9000;0.7448;1.3708;
-108.6000;0.7391;1.3514;
-108.3000;0.7432;1.3587;
-108.0000;0.7432;1.3539;
-107.7000;0.7424;1.3490;
-107.4000;0.7424;1.3539;
-107.1000;0.7416;1.3563;
-106.8000;0.7391;1.3539;
-106.5000;0.7440;1.3563;
-106.2000;0.7424;1.3466;
-105.9000;0.7383;1.3321;
-105.6000;0.7416;1.3466;
-105.3000;0.7432;1.3539;
-105.0000;0.7424;1.3563;
-104.7000;0.7407;1.3587;
-104.4000;0.7440;1.3611;
-104.1000;0.7432;1.3635;
-103.8000;0.7440;1.3563;
-103.5000;0.7416;1.3587;
-103.2000;0.7399;1.3587;
-102.9000;0.7432;1.3611;
-102.6000;0.7440;1.3539;
-102.3000;0.7416;1.3539;
-102.0000;0.7432;1.3587;
-101.7000;0.7432;1.3563;
-101.4000;0.7424;1.3587;
-101.1000;0.7448;1.3611;
-100.8000;0.7416;1.3539;
-100.5000;0.7416;1.3539;
-100.2000;0.7416;1.3466;
-99.9000;0.7440;1.3490;
-99.6000;0.7432;1.3611;
-99.3000;0.7416;1.3756;
-99.0000;0.7424;1.3804;
-98.7000;0.7432;1.3708;
-98.4000;0.7440;1.3708;
-98.1000;0.7407;1.3635;
-97.8000;0.7481;1.3635;
-97.5000;0.7432;1.3539;
-97.2000;0.7416;1.3539;
-96.9000;0.7407;1.3514;
-96.6000;0.7424;1.3563;
-96.3000;0.7416;1.3587;
-96.0000;0.7399;1.3539;
-95.7000;0.7424;1.3466;
-95.4000;0.7416;1.3563;
-95.1000;0.7448;1.3611;
-94.8000;0.7448;1.3708;
-94.5000;0.7416;1.3659;
-94.2000;0.7432;1.3708;
-93.9000;0.7432;1.3659;
-93.6000;0.7407;1.3611;
-93.3000;0.7432;1.3635;
-93.0000;0.7424;1.3587;
-92.7000;0.7481;1.3635;
-92.4000;0.7440;1.3466;
-92.1000;0.7407;1.3418;
-91.8000;0.7407;1.3514;
-91.5000;0.7424;1.3587;
-91.2000;0.7416;1.3563;
-90.9000;0.7432;1.3539;
-90.6000;0.7334;1.3345;
-90.3000;0.7464;1.3587;
-90.0000;0.7432;1.3490;
-89.7000;0.7432;1.3466;
-89.4000;0.7416;1.3418;
-89.1000;0.7432;1.3466;
-88.8000;0.7407;1.3466;
-88.5000;0.7440;1.3418;
-88.2000;0.7424;1.3442;
-87.9000;0.7432;1.3490;
-87.6000;0.7407;1.3466;
-87.3000;0.7432;1.3490;
-87.0000;0.7424;1.3611;
-86.7000;0.7424;1.3659;
-86.4000;0.7432;1.3611;
-86.1000;0.7407;1.3611;
-85.8000;0.7407;1.3611;
-85.5000;0.7440;1.3708;
-85.2000;0.7424;1.3611;
-84.9000;0.7432;1.3611;
-84.6000;0.7432;1.3539;
-84.3000;0.7424;1.3418;
-84.0000;0.7424;1.3369;
-83.7000;0.7432;1.3369;
-83.4000;0.7440;1.3418;
-83.1000;0.7424;1.3466;
-82.8000;0.7416;1.3442;
-82.5000;0.7424;1.3393;
-82.2000;0.7424;1.3369;
-81.9000;0.7407;1.3345;
-81.6000;0.7399;1.3369;
-81.3000;0.7424;1.3345;
-81.0000;0.7424;1.3393;
-80.7000;0.7407;1.3393;
-80.4000;0.7424;1.3563;
-80.1000;0.7424;1.3466;
-79.8000;0.7481;1.3587;
-79.5000;0.7416;1.3369;
-79.2000;0.7424;1.3393;
-78.9000;0.7407;1.3466;
-78.6000;0.7416;1.3490;
-78.3000;0.7440;1.3539;
-78.0000;0.7464;1.3708;
-77.7000;0.7375;1.3466;
-77.4000;0.7440;1.3514;
-77.1000;0.7481;1.3708;
-76.8000;0.7399;1.3490;
-76.5000;0.7424;1.3563;
-76.2000;0.7432;1.3611;
-75.9000;0.7432;1.3635;
-75.6000;0.7416;1.3659;
-75.3000;0.7416;1.3659;
-75.0000;0.7407;1.3635;
-74.7000;0.7505;1.3804;
-74.4000;0.7424;1.3708;
-74.1000;0.7432;1.3684;
-73.8000;0.7424;1.3659;
-73.5000;0.7440;1.3611;
-73.2000;0.7440;1.3466;
-72.9000;0.7416;1.3418;
-72.6000;0.7440;1.3587;
-72.3000;0.7416;1.3587;
-72.0000;0.7399;1.3563;
-71.7000;0.7391;1.3466;
-71.4000;0.7432;1.3659;
-71.1000;0.7391;1.3514;
-70.8000;0.7448;1.3659;
-70.5000;0.7350;1.3466;
-70.2000;0.7448;1.3780;
-69.9000;0.7448;1.3829;
-69.6000;0.7424;1.3756;
-69.3000;0.7432;1.3756;
-69.0000;0.7432;1.3756;
-68.7000;0.7432;1.3708;
-68.4000;0.7440;1.3756;
-68.1000;0.7432;1.3829;
-67.8000;0.7448;1.3853;
-67.5000;0.7375;1.3756;
-67.2000;0.7432;1.3925;
-66.9000;0.7424;1.3804;
-66.6000;0.7424;1.3804;
-66.3000;0.7456;1.3829;
-66.0000;0.7432;1.3659;
-65.7000;0.7448;1.3732;
-65.4000;0.7407;1.3684;
-65.1000;0.7407;1.3684;
-64.8000;0.7432;1.3611;
-64.5000;0.7432;1.3587;
-64.2000;0.7481;1.3587;
-63.9000;0.7424;1.3466;
-63.6000;0.7432;1.3514;
-63.3000;0.7432;1.3466;
-63.0000;0.7424;1.3539;
-62.7000;0.7432;1.3539;
-62.4000;0.7424;1.3514;
-62.1000;0.7456;1.3611;
-61.8000;0.7416;1.3539;
-61.5000;0.7497;1.3780;
-61.2000;0.7424;1.3514;
-60.9000;0.7432;1.3514;
-60.6000;0.7432;1.3418;
-60.3000;0.7424;1.3442;
-60.0000;0.7424;1.3418;
-59.7000;0.7432;1.3442;
-59.4000;0.7464;1.3587;
-59.1000;0.7399;1.3490;
-58.8000;0.7473;1.3684;
-58.5000;0.7416;1.3611;
-58.2000;0.7432;1.3587;
-57.9000;0.7448;1.3684;
-57.6000;0.7440;1.3659;
-57.3000;0.7416;1.3659;
-57.0000;0.7473;1.3756;
-56.7000;0.7416;1.3684;
-56.4000;0.7424;1.3708;
-56.1000;0.7416;1.3587;
-55.8000;0.7407;1.3635;
-55.5000;0.7424;1.3732;
-55.2000;0.7432;1.3756;
-54.9000;0.7424;1.3756;
-54.6000;0.7521;1.3998;
-54.3000;0.7424;1.3732;
-54.0000;0.7416;1.3732;
-53.7000;0.7424;1.3684;
-53.4000;0.7424;1.3732;
-53.1000;0.7424;1.3684;
-52.8000;0.7464;1.3780;
-52.5000;0.7432;1.3708;
-52.2000;0.7440;1.3684;
-51.9000;0.7448;1.3732;
-51.6000;0.7464;1.3756;
-51.3000;0.7407;1.3732;
-51.0000;0.7432;1.3877;
-50.7000;0.7456;1.3974;
-50.4000;0.7432;1.3925;
-50.1000;0.7424;1.3804;
-49.8000;0.7473;1.3901;
-49.5000;0.7424;1.3804;
-49.2000;0.7440;1.3756;
-48.9000;0.7416;1.3659;
-48.6000;0.7416;1.3635;
-48.3000;0.7432;1.3635;
-48.0000;0.7367;1.3563;
-47.7000;0.7448;1.3756;
-47.4000;0.7432;1.3708;
-47.1000;0.7407;1.3635;
-46.8000;0.7424;1.3708;
-46.5000;0.7448;1.3684;
-46.2000;0.7481;1.3804;
-45.9000;0.7440;1.3684;
-45.6000;0.7424;1.3708;
-45.3000;0.7432;1.3659;
-45.0000;0.7440;1.3611;
-44.7000;0.7432;1.3490;
-44.4000;0.7424;1.3442;
-44.1000;0.7464;1.3563;
-43.8000;0.7416;1.3490;
-43.5000;0.7448;1.3563;
-43.2000;0.7432;1.3563;
-42.9000;0.7448;1.3587;
-42.6000;0.7448;1.3611;
-42.3000;0.7432;1.3490;
-42.0000;0.7416;1.3466;
-41.7000;0.7424;1.3563;
-41.4000;0.7464;1.3708;
-41.1000;0.7416;1.3611;
-40.8000;0.7464;1.3684;
-40.5000;0.7424;1.3708;
-40.2000;0.7424;1.3732;
-39.9000;0.7448;1.3732;
-39.6000;0.7424;1.3659;
-39.3000;0.7432;1.3780;
-39.0000;0.7432;1.3684;
-38.7000;0.7456;1.3732;
-38.4000;0.7416;1.3587;
-38.1000;0.7440;1.3684;
-37.8000;0.7440;1.3684;
-37.5000;0.7481;1.3853;
-37.2000;0.7399;1.3611;
-36.9000;0.7448;1.3635;
-36.6000;0.7473;1.3708;
-36.3000;0.7432;1.3514;
-36.0000;0.7432;1.3490;
-35.7000;0.7424;1.3539;
-35.4000;0.7407;1.3418;
-35.1000;0.7424;1.3514;
-34.8000;0.7456;1.3708;
-34.5000;0.7448;1.3708;
-34.2000;0.7440;1.3780;
-33.9000;0.7416;1.3684;
-33.6000;0.7448;1.3708;
-33.3000;0.7424;1.3611;
-33.0000;0.7440;1.3684;
-32.7000;0.7424;1.3635;
-32.4000;0.7432;1.3635;
-32.1000;0.7424;1.3635;
-31.8000;0.7448;1.3659;
-31.5000;0.7440;1.3611;
-31.2000;0.7448;1.3659;
-30.9000;0.7416;1.3611;
-30.6000;0.7424;1.3659;
-30.3000;0.7448;1.3659;
-30.0000;0.7424;1.3708;
-29.7000;0.7424;1.3684;
-29.4000;0.7432;1.3659;
-29.1000;0.7416;1.3659;
-28.8000;0.7440;1.3635;
-28.5000;0.7416;1.3659;
-28.2000;0.7399;1.3756;
-27.9000;0.7424;1.3804;
-27.6000;0.7424;1.3756;
-27.3000;0.7424;1.3708;
-27.0000;0.7432;1.3708;
-26.7000;0.7424;1.3587;
-26.4000;0.7424;1.3611;
-26.1000;0.7473;1.3708;
-25.8000;0.7416;1.3611;
-25.5000;0.7407;1.3635;
-25.2000;0.7481;1.3853;
-24.9000;0.7424;1.3756;
-24.6000;0.7440;1.3732;
-24.3000;0.7424;1.3635;
-24.0000;0.7416;1.3684;
-23.7000;0.7424;1.3659;
-23.4000;0.7424;1.3587;
-23.1000;0.7432;1.3659;
-22.8000;0.7424;1.3732;
-22.5000;0.7424;1.3732;
-22.2000;0.7440;1.3708;
-21.9000;0.7424;1.3659;
-21.6000;0.7432;1.3684;
-21.3000;0.7416;1.3708;
-21.0000;0.7424;1.3756;
-20.7000;0.7416;1.3659;
-20.4000;0.7448;1.3804;
-20.1000;0.7416;1.3829;
-19.8000;0.7432;1.3877;
-19.5000;0.7448;1.3950;
-19.2000;0.7440;1.3853;
-18.9000;0.7448;1.3829;
-18.6000;0.7440;1.3780;
-18.3000;0.7440;1.3829;
-18.0000;0.7432;1.3804;
-17.7000;0.7416;1.3780;
-17.4000;0.7456;1.3877;
-17.1000;0.7424;1.3780;
-16.8000;0.7440;1.3804;
-16.5000;0.7424;1.3780;
-16.2000;0.7440;1.3829;
-15.9000;0.7432;1.3708;
-15.6000;0.7399;1.3659;
-15.3000;0.7424;1.3659;
-15.0000;0.7416;1.3635;
-14.7000;0.7432;1.3587;
-14.4000;0.7407;1.3490;
-14.1000;0.7416;1.3514;
-13.8000;0.7424;1.3611;
-13.5000;0.7407;1.3611;
-13.2000;0.7440;1.3708;
-12.9000;0.7432;1.3684;
-12.6000;0.7432;1.3563;
-12.3000;0.7456;1.3587;
-12.0000;0.7440;1.3563;
-11.7000;0.7424;1.3442;
-11.4000;0.7416;1.3490;
-11.1000;0.7440;1.3635;
-10.8000;0.7416;1.3708;
-10.5000;0.7432;1.3708;
-10.2000;0.7440;1.3708;
-9.9000;0.7440;1.3708;
-9.6000;0.7424;1.3659;
-9.3000;0.7432;1.3635;
-9.0000;0.7432;1.3466;
-8.7000;0.7432;1.3393;
-8.4000;0.7440;1.3393;
-8.1000;0.7448;1.3393;
-7.8000;0.7424;1.3393;
-7.5000;0.7440;1.3442;
-7.2000;0.7440;1.3587;
-6.9000;0.7432;1.3611;
-6.6000;0.7440;1.3587;
-6.3000;0.7440;1.3539;
-6.0000;0.7416;1.3466;
-5.7000;0.7432;1.3442;
-5.4000;0.7440;1.3466;
-5.1000;0.7440;1.3442;
-4.8000;0.7473;1.3466;
-4.5000;0.7464;1.3514;
-4.2000;0.7440;1.3514;
-3.9000;0.7424;1.3539;
-3.6000;0.7530;1.3804;
-3.3000;0.7448;1.3539;
-3.0000;0.7440;1.3418;
-2.7000;0.7440;1.3466;
-2.4000;0.7440;1.3442;
-2.1000;0.7424;1.3490;
-1.8000;0.7432;1.3466;
-1.5000;0.7464;1.3490;
-1.2000;0.7448;1.3418;
-0.9000;0.7424;1.3418;
-0.6000;0.7391;1.3345;
-0.3000;0.7424;1.3418;
0.0000;0.7424;1.3418;
0.3000;0.7643;1.3756;
0.6000;0.8107;1.4312;
0.9000;0.8498;1.4844;
1.2000;0.8775;1.5183;
1.5000;0.9019;1.5594;
1.8000;0.9223;1.5956;
2.1000;0.9353;1.6270;
2.4000;0.9475;1.6464;
2.7000;0.9581;1.6657;
3.0000;0.9678;1.6826;
3.3000;0.9744;1.6923;
3.6000;0.9801;1.7020;
3.9000;0.9858;1.7117;
4.2000;0.9923;1.7165;
4.5000;0.9947;1.7189;
4.8000;0.9988;1.7237;
5.1000;1.0037;1.7262;
5.4000;1.0069;1.7358;
5.7000;1.0094;1.7455;
6.0000;1.0118;1.7455;
6.3000;1.0159;1.7528;
6.6000;1.0191;1.7503;
6.9000;1.0216;1.7503;
7.2000;1.0256;1.7503;
7.5000;1.0265;1.7503;
7.8000;1.0338;1.7576;
8.1000;1.0354;1.7552;
8.4000;1.0370;1.7503;
8.7000;1.0403;1.7528;
9.0000;1.0395;1.7383;
9.3000;1.0444;1.7358;
9.6000;1.0460;1.7383;
9.9000;1.0484;1.7407;
10.2000;1.0525;1.7407;
10.5000;1.0541;1.7383;
10.8000;1.0574;1.7358;
11.1000;1.0647;1.7503;
11.4000;1.0606;1.7334;
11.7000;1.0606;1.7334;
12.0000;1.0647;1.7286;
12.3000;1.0615;1.7092;
12.6000;1.0680;1.7189;
12.9000;1.0712;1.7237;
13.2000;1.0704;1.7117;
13.5000;1.0745;1.7165;
13.8000;1.0761;1.7165;
14.1000;1.0786;1.7286;
14.4000;1.0810;1.7262;
14.7000;1.0842;1.7358;
15.0000;1.0834;1.7262;
15.3000;1.0956;1.7552;
15.6000;1.0875;1.7358;
15.9000;1.0908;1.7358;
16.2000;1.0932;1.7407;
16.5000;1.0924;1.7310;
16.8000;1.0932;1.7334;
17.1000;1.0899;1.7286;
17.4000;1.0973;1.7455;
17.7000;1.0981;1.7407;
18.0000;1.1005;1.7383;
18.3000;1.1095;1.7503;
18.6000;1.1038;1.7310;
18.9000;1.1030;1.7262;
19.2000;1.1054;1.7262;
19.5000;1.1087;1.7358;
19.8000;1.1079;1.7407;
20.1000;1.1103;1.7528;
20.4000;1.1184;1.7721;
20.7000;1.1119;1.7528;
21.0000;1.1152;1.7455;
21.3000;1.1127;1.7286;
21.6000;1.1160;1.7286;
21.9000;1.1209;1.7407;
22.2000;1.1184;1.7310;
22.5000;1.1193;1.7213;
22.8000;1.1209;1.7262;
23.1000;1.1201;1.7286;
23.4000;1.1233;1.7407;
23.7000;1.1217;1.7407;
24.0000;1.1282;1.7528;
24.3000;1.1233;1.7479;
24.6000;1.1274;1.7600;
24.9000;1.1282;1.7624;
25.2000;1.1258;1.7552;
25.5000;1.1258;1.7383;
25.8000;1.1298;1.7286;
26.1000;1.1233;1.7117;
26.4000;1.1315;1.7334;
26.7000;1.1315;1.7262;
27.0000;1.1315;1.7237;
27.3000;1.1388;1.7358;
27.6000;1.1347;1.7262;
27.9000;1.1363;1.7286;
28.2000;1.1347;1.7237;
28.5000;1.1388;1.7213;
28.8000;1.1380;1.7068;
29.1000;1.1396;1.7092;
29.4000;1.1388;1.7165;
29.7000;1.1404;1.7213;
30.0000;1.1486;1.7334;
30.3000;1.1396;1.7262;
30.6000;1.1404;1.7334;
30.9000;1.1396;1.7262;
31.2000;1.1396;1.7237;
31.5000;1.1404;1.7237;
31.8000;1.1420;1.7237;
32.1000;1.1494;1.7455;
32.4000;1.1437;1.7455;
32.7000;1.1429;1.7431;
33.0000;1.1437;1.7358;
33.3000;1.1461;1.7503;
33.6000;1.1453;1.7528;
33.9000;1.1469;1.7528;
34.2000;1.1469;1.7479;
34.5000;1.1453;1.7479;
34.8000;1.1461;1.7431;
35.1000;1.1486;1.7455;
35.4000;1.1461;1.7455;
35.7000;1.1469;1.7358;
36.0000;1.1502;1.7503;
36.3000;1.1404;1.7286;
36.6000;1.1551;1.7624;
36.9000;1.1494;1.7431;
37.2000;1.1453;1.7334;
37.5000;1.1502;1.7383;
37.8000;1.1591;1.7528;
38.1000;1.1518;1.7334;
38.4000;1.1510;1.7262;
38.7000;1.1510;1.7262;
39.0000;1.1518;1.7237;
39.3000;1.1518;1.7237;
39.6000;1.1518;1.7262;
39.9000;1.1640;1.7673;
40.2000;1.1543;1.7479;
40.5000;1.1543;1.7431;
40.8000;1.1518;1.7479;
41.1000;1.1510;1.7455;
41.4000;1.1559;1.7479;
41.7000;1.1543;1.7334;
42.0000;1.1551;1.7334;
42.3000;1.1551;1.7286;
42.6000;1.1559;1.7334;
42.9000;1.1616;1.7479;
43.2000;1.1551;1.7286;
43.5000;1.1567;1.7334;
43.8000;1.1567;1.7237;
44.1000;1.1575;1.7165;
44.4000;1.1656;1.7310;
44.7000;1.1583;1.7117;
45.0000;1.1591;1.7141;
45.3000;1.1583;1.7213;
45.6000;1.1575;1.7237;
45.9000;1.1591;1.7262;
46.2000;1.1583;1.7189;
46.5000;1.1559;1.7068;
46.8000;1.1583;1.7117;
47.1000;1.1543;1.7092;
47.4000;1.1616;1.7286;
47.7000;1.1624;1.7262;
48.0000;1.1600;1.7358;
48.3000;1.1608;1.7431;
48.6000;1.1608;1.7479;
48.9000;1.1600;1.7503;
49.2000;1.1608;1.7479;
49.5000;1.1591;1.7479;
49.8000;1.1608;1.7407;
50.1000;1.1608;1.7334;
50.4000;1.1608;1.7237;
50.7000;1.1608;1.7165;
51.0000;1.1640;1.7286;
51.3000;1.1600;1.7165;
51.6000;1.1608;1.7213;
51.9000;1.1624;1.7237;
52.2000;1.1616;1.7358;
52.5000;1.1616;1.7358;
52.8000;1.1632;1.7334;
53.1000;1.1608;1.7262;
53.4000;1.1600;1.7189;
53.7000;1.1624;1.7165;
54.0000;1.1656;1.7213;
54.3000;1.1673;1.7286;
54.6000;1.1673;1.7334;
54.9000;1.1632;1.7358;
55.2000;1.1640;1.7407;
55.5000;1.1616;1.7431;
55.8000;1.1632;1.7552;
56.1000;1.1616;1.7479;
56.4000;1.1632;1.7528;
56.7000;1.1632;1.7503;
57.0000;1.1640;1.7479;
57.3000;1.1624;1.7334;
57.6000;1.1656;1.7310;
57.9000;1.1665;1.7262;
58.2000;1.1673;1.7237;
58.5000;1.1656;1.7213;
58.8000;1.1673;1.7286;
59.1000;1.1681;1.7334;
59.4000;1.1665;1.7358;
59.7000;1.1665;1.7334;
60.0000;1.1665;1.7383;
60.3000;1.1665;1.7358;
60.6000;1.1673;1.7286;
60.9000;1.1648;1.7237;
61.2000;1.1640;1.7286;
61.5000;1.1673;1.7262;
61.8000;1.1640;1.7262;
62.1000;1.1681;1.7262;
62.4000;1.1665;1.7141;
62.7000;1.1681;1.7189;
63.0000;1.1689;1.7286;
63.3000;1.1730;1.7383;
63.6000;1.1673;1.7237;
63.9000;1.1713;1.7310;
64.2000;1.1697;1.7262;
64.5000;1.1673;1.7237;
64.8000;1.1673;1.7189;
65.1000;1.1681;1.7189;
65.4000;1.1689;1.7189;
65.7000;1.1689;1.7165;
66.0000;1.1656;1.7165;
66.3000;1.1681;1.7141;
66.6000;1.1689;1.7092;
66.9000;1.1689;1.7141;
67.2000;1.1681;1.7044;
67.5000;1.1697;1.7044;
67.8000;1.1705;1.7020;
68.1000;1.1681;1.7044;
68.4000;1.1681;1.7117;
68.7000;1.1600;1.6923;
69.0000;1.1689;1.7020;
69.3000;1.1681;1.7068;
69.6000;1.1689;1.7092;
69.9000;1.1681;1.6972;
70.2000;1.1697;1.6996;
70.5000;1.1665;1.7020;
70.8000;1.1697;1.7092;
71.1000;1.1713;1.7020;
71.4000;1.1803;1.7189;
71.7000;1.1689;1.6972;
72.0000;1.1673;1.6972;
72.3000;1.1705;1.7068;
72.6000;1.1738;1.7141;
72.9000;1.1697;1.7092;
73.2000;1.1689;1.7141;
73.5000;1.1673;1.7044;
73.8000;1.1665;1.6972;
74.1000;1.1705;1.6996;
74.4000;1.1697;1.7020;
74.7000;1.1705;1.7092;
75.0000;1.1713;1.7165;
75.3000;1.1722;1.7092;
75.6000;1.1705;1.7044;
75.9000;1.1689;1.6996;
76.2000;1.1705;1.6996;
76.5000;1.1779;1.7189;
76.8000;1.1713;1.7117;
77.1000;1.1689;1.7092;
77.4000;1.1656;1.6972;
77.7000;1.1713;1.7092;
78.0000;1.1722;1.7165;
78.3000;1.1779;1.7237;
78.6000;1.1705;1.7092;
78.9000;1.1713;1.7092;
79.2000;1.1713;1.7068;
79.5000;1.1762;1.7141;
79.8000;1.1722;1.7020;
80.1000;1.1713;1.7020;
80.4000;1.1681;1.6899;
80.7000;1.1705;1.6996;
81.0000;1.1713;1.7068;
81.3000;1.1705;1.7020;
81.6000;1.1697;1.6996;
81.9000;1.1673;1.6947;
82.2000;1.1705;1.7092;
82.5000;1.1665;1.6947;
82.8000;1.1697;1.6947;
83.1000;1.1705;1.6972;
83.4000;1.1713;1.6972;
83.7000;1.1738;1.6947;
84.0000;1.1705;1.6875;
84.3000;1.1713;1.6899;
84.6000;1.1713;1.6923;
84.9000;1.1722;1.6923;
85.2000;1.1705;1.6875;
85.5000;1.1705;1.6826;
85.8000;1.1689;1.6851;
86.1000;1.1713;1.6947;
86.4000;1.1697;1.6851;
86.7000;1.1705;1.6826;
87.0000;1.1681;1.6802;
87.3000;1.1705;1.6923;
87.6000;1.1697;1.6899;
87.9000;1.1730;1.6899;
88.2000;1.1844;1.7189;
88.5000;1.1722;1.6972;
88.8000;1.1713;1.6996;
89.1000;1.1722;1.6947;
89.4000;1.1762;1.7020;
89.7000;1.1722;1.6996;
90.0000;1.1738;1.7117;
90.3000;1.1762;1.7213;
90.6000;1.1730;1.7068;
90.9000;1.1787;1.7165;
91.2000;1.1738;1.7044;
91.5000;1.1722;1.6996;
91.8000;1.1730;1.7068;
92.1000;1.1762;1.7141;
92.4000;1.1697;1.6996;
92.7000;1.1713;1.7020;
93.0000;1.1713;1.6923;
93.3000;1.1722;1.6875;
93.6000;1.1819;1.6996;
93.9000;1.1746;1.6826;
94.2000;1.1754;1.6875;
94.5000;1.1827;1.7141;
94.8000;1.1697;1.6754;
95.1000;1.1746;1.6875;
95.4000;1.1746;1.6826;
95.7000;1.1746;1.6826;
96.0000;1.1722;1.6826;
96.3000;1.1779;1.6899;
96.6000;1.1754;1.6899;
96.9000;1.1746;1.6923;
97.2000;1.1738;1.6875;
97.5000;1.1722;1.6706;
97.8000;1.1754;1.6826;
98.1000;1.1738;1.6899;
98.4000;1.1770;1.7020;
98.7000;1.1681;1.6706;
99.0000;1.1754;1.6802;
99.3000;1.1762;1.6875;
99.6000;1.1762;1.6851;
99.9000;1.1762;1.6923;
100.2000;1.1754;1.6826;
100.5000;1.1705;1.6706;
100.8000;1.1738;1.6826;
101.1000;1.1770;1.6947;
101.4000;1.1779;1.6947;
101.7000;1.1738;1.6826;
102.0000;1.1738;1.6851;
102.3000;1.1762;1.6851;
102.6000;1.1779;1.6851;
102.9000;1.1746;1.6754;
103.2000;1.1722;1.6754;
103.5000;1.1746;1.6851;
103.8000;1.1746;1.6899;
104.1000;1.1746;1.6899;
104.4000;1.1754;1.6851;
104.7000;1.1754;1.6826;
105.0000;1.1762;1.6802;
105.3000;1.1746;1.6778;
105.6000;1.1738;1.6754;
105.9000;1.1738;1.6826;
106.2000;1.1730;1.6875;
106.5000;1.1730;1.6851;
106.8000;1.1738;1.6923;
107.1000;1.1738;1.6875;
107.4000;1.1738;1.6802;
107.7000;1.1746;1.6947;
108.0000;1.1746;1.7092;
108.3000;1.1722;1.7068;
108.6000;1.1738;1.7141;
108.9000;1.1746;1.7117;
109.2000;1.1730;1.7141;
109.5000;1.1738;1.7213;
109.8000;1.1746;1.7165;
110.1000;1.1762;1.7165;
110.4000;1.1762;1.7068;
110.7000;1.1738;1.6923;
111.0000;1.1746;1.6826;
111.3000;1.1705;1.6681;
111.6000;1.1746;1.6851;
111.9000;1.1754;1.6899;
112.2000;1.1770;1.6875;
112.5000;1.1770;1.6875;
112.8000;1.1754;1.6923;
113.1000;1.1762;1.6996;
113.4000;1.1738;1.6996;
113.7000;1.1779;1.7189;
114.0000;1.1762;1.7117;
114.3000;1.1762;1.7044;
114.6000;1.1762;1.7141;
114.9000;1.1779;1.7141;
115.2000;1.1795;1.7189;
115.5000;1.1770;1.7092;
115.8000;1.1762;1.7020;
116.1000;1.1787;1.7020;
116.4000;1.1770;1.6972;
116.7000;1.1770;1.6899;
117.0000;1.1754;1.6826;
117.3000;1.1770;1.6875;
117.6000;1.1827;1.6996;
117.9000;1.1770;1.6875;
118.2000;1.1754;1.6899;
118.5000;1.1648;1.6778;
118.8000;1.1762;1.7092;
119.1000;1.1770;1.7068;
119.4000;1.1754;1.7092;
119.7000;1.1754;1.7092;
120.0000;1.1762;1.7092;
120.3000;1.1787;1.7141;
120.6000;1.1754;1.7092;
120.9000;1.1770;1.7044;
121.2000;1.1770;1.6972;
121.5000;1.1779;1.6875;
121.8000;1.1770;1.6754;
122.1000;1.1779;1.6802;
122.4000;1.1787;1.6802;
122.7000;1.1770;1.6754;
123.0000;1.1779;1.6802;
123.3000;1.1762;1.6754;
123.6000;1.1754;1.6730;
123.9000;1.1779;1.6851;
124.2000;1.1795;1.6899;
124.5000;1.1787;1.6826;
124.8000;1.1770;1.6826;
125.1000;1.1738;1.6681;
125.4000;1.1795;1.6899;
125.7000;1.1770;1.6899;
126.0000;1.1770;1.6851;
126.3000;1.1779;1.6923;
126.6000;1.1795;1.7020;
126.9000;1.1787;1.7044;
127.2000;1.1827;1.7092;
127.5000;1.1754;1.6875;
127.8000;1.1787;1.6899;
128.1000;1.1762;1.6802;
128.4000;1.1770;1.6802;
128.7000;1.1762;1.6730;
129.0000;1.1762;1.6754;
129.3000;1.1779;1.6899;
129.6000;1.1770;1.6851;
129.9000;1.1787;1.6851;
130.2000;1.1770;1.6923;
130.5000;1.1770;1.7020;
130.8000;1.1762;1.6972;
131.1000;1.1770;1.6899;
131.4000;1.1762;1.6875;
131.7000;1.1779;1.6875;
132.0000;1.1779;1.6899;
132.3000;1.1754;1.6802;
132.6000;1.1770;1.6754;
132.9000;1.1746;1.6730;
133.2000;1.1803;1.6875;
133.5000;1.1754;1.6778;
133.8000;1.1779;1.6778;
134.1000;1.1770;1.6754;
134.4000;1.1697;1.6609;
134.7000;1.1770;1.6754;
135.0000;1.1787;1.6754;
135.3000;1.1787;1.6706;
135.6000;1.1779;1.6657;
135.9000;1.1779;1.6706;
136.2000;1.1787;1.6730;
136.5000;1.1819;1.6875;
136.8000;1.1787;1.6657;
137.1000;1.1754;1.6561;
137.4000;1.1770;1.6609;
137.7000;1.1770;1.6730;
138.0000;1.1811;1.6899;
138.3000;1.1770;1.6778;
138.6000;1.1779;1.6802;
138.9000;1.1746;1.6802;
139.2000;1.1738;1.6778;
139.5000;1.1754;1.6826;
139.8000;1.1779;1.6754;
140.1000;1.1779;1.6730;
140.4000;1.1779;1.6826;
140.7000;1.1779;1.6899;
141.0000;1.1811;1.7092;
141.3000;1.1795;1.7044;
141.6000;1.1770;1.6996;
141.9000;1.1779;1.6996;
142.2000;1.1656;1.6633;
142.5000;1.1770;1.6875;
142.8000;1.1787;1.6996;
143.1000;1.1787;1.6996;
143.4000;1.1762;1.6923;
143.7000;1.1779;1.6947;
144.0000;1.1779;1.6923;
144.3000;1.1795;1.6947;
144.6000;1.1787;1.6923;
144.9000;1.1787;1.7044;
145.2000;1.1779;1.7044;
145.5000;1.1787;1.7141;
145.8000;1.1779;1.7068;
146.1000;1.1795;1.7068;
146.4000;1.1770;1.7117;
146.7000;1.1779;1.7117;
147.0000;1.1787;1.6996;
147.3000;1.1827;1.7044;
147.6000;1.1779;1.6923;
147.9000;1.1795;1.6972;
148.2000;1.1795;1.7020;
148.5000;1.1803;1.6923;
148.8000;1.1917;1.7262;
149.1000;1.1746;1.6802;
149.4000;1.1795;1.6899;
149.7000;1.1681;1.6657;
150.0000;1.1827;1.6996;
150.3000;1.1722;1.6730;
150.6000;1.1787;1.6923;
150.9000;1.1787;1.6923;
151.2000;1.1779;1.6802;
151.5000;1.1746;1.6657;
151.8000;1.1697;1.6512;
152.1000;1.1779;1.6706;
152.4000;1.1884;1.6972;
152.7000;1.1779;1.6802;
153.0000;1.1787;1.6826;
153.3000;1.1787;1.6875;
153.6000;1.1787;1.6923;
153.9000;1.1787;1.6899;
154.2000;1.1746;1.6778;
154.5000;1.1787;1.6851;
154.8000;1.1803;1.6730;
155.1000;1.1787;1.6633;
155.4000;1.1722;1.6488;
155.7000;1.1795;1.6609;
156.0000;1.1787;1.6633;
156.3000;1.1803;1.6681;
156.6000;1.1779;1.6609;
156.9000;1.1787;1.6681;
157.2000;1.1779;1.6609;
157.5000;1.1770;1.6561;
157.8000;1.1754;1.6561;
158.1000;1.1770;1.6657;
158.4000;1.1787;1.6585;
158.7000;1.1738;1.6488;
159.0000;1.1811;1.6706;
159.3000;1.1795;1.6706;
159.6000;1.1795;1.6826;
159.9000;1.1795;1.6826;
160.2000;1.1803;1.6826;
160.5000;1.1795;1.6754;
160.8000;1.1795;1.6802;
161.1000;1.1795;1.6899;
161.4000;1.1795;1.6826;
161.7000;1.1803;1.6826;
162.0000;1.1795;1.6899;
162.3000;1.1779;1.6875;
162.6000;1.1762;1.6802;
162.9000;1.1779;1.6730;
163.2000;1.1787;1.6778;
163.5000;1.1827;1.6851;
163.8000;1.1770;1.6681;
164.1000;1.1779;1.6681;
164.4000;1.1787;1.6609;
164.7000;1.1746;1.6585;
165.0000;1.1779;1.6657;
165.3000;1.1738;1.6585;
165.6000;1.1787;1.6778;
165.9000;1.1795;1.6851;
166.2000;1.1795;1.6851;
166.5000;1.1787;1.6754;
166.8000;1.1803;1.6754;
167.1000;1.1779;1.6681;
167.4000;1.1787;1.6585;
167.7000;1.1803;1.6609;
168.0000;1.1795;1.6706;
168.3000;1.1770;1.6754;
168.6000;1.1762;1.6706;
168.9000;1.1787;1.6681;
169.2000;1.1770;1.6609;
169.5000;1.1811;1.6657;
169.8000;1.1779;1.6609;
170.1000;1.1819;1.6706;
170.4000;1.1770;1.6561;
170.7000;1.1795;1.6681;
171.0000;1.1827;1.6778;
171.3000;1.1827;1.6875;
171.6000;1.1722;1.6633;
171.9000;1.1803;1.6754;
172.2000;1.1827;1.6778;
172.5000;1.1868;1.6826;
172.8000;1.1787;1.6706;
173.1000;1.1827;1.6826;
173.4000;1.1884;1.6923;
173.7000;1.1787;1.6706;
174.0000;1.1795;1.6730;
174.3000;1.1787;1.6754;
174.6000;1.1893;1.7020;
174.9000;1.1827;1.6923;
175.2000;1.1795;1.6802;
175.5000;1.1852;1.6947;
175.8000;1.1779;1.6851;
176.1000;1.1811;1.6826;
176.4000;1.1787;1.6730;
176.7000;1.1770;1.6706;
177.0000;1.1770;1.6633;
177.3000;1.1779;1.6681;
177.6000;1.1779;1.6706;
177.9000;1.1770;1.6802;
178.2000;1.1762;1.6826;
178.5000;1.1779;1.6802;
178.8000;1.1754;1.6706;
179.1000;1.1811;1.6851;
179.4000;1.1787;1.6826;
179.7000;1.1852;1.6996;
180.0000;1.1795;1.6851;
180.3000;1.1795;1.6851;
180.6000;1.1787;1.6826;
180.9000;1.1746;1.6802;
181.2000;1.1787;1.6802;
181.5000;1.1787;1.6657;
181.8000;1.1803;1.6633;
182.1000;1.1787;1.6536;
182.4000;1.1811;1.6633;
182.7000;1.1795;1.6561;
183.0000;1.1779;1.6536;
183.3000;1.1762;1.6536;
183.6000;1.1787;1.6681;
183.9000;1.1795;1.6706;
184.2000;1.1779;1.6706;
184.5000;1.1770;1.6657;
184.8000;1.1770;1.6561;
185.1000;1.1787;1.6585;
185.4000;1.1795;1.6561;
185.7000;1.1779;1.6609;
186.0000;1.1795;1.6681;
186.3000;1.1803;1.6609;
186.6000;1.1811;1.6681;
186.9000;1.1819;1.6681;
187.2000;1.1860;1.6706;
187.5000;1.1795;1.6561;
187.8000;1.1803;1.6585;
188.1000;1.1803;1.6561;
188.4000;1.1795;1.6561;
188.7000;1.1901;1.6802;
189.0000;1.1787;1.6561;
189.3000;1.1754;1.6464;
189.6000;1.1787;1.6488;
189.9000;1.1779;1.6609;
190.2000;1.1844;1.6802;
190.5000;1.1770;1.6657;
190.8000;1.1770;1.6706;
191.1000;1.1827;1.6754;
191.4000;1.1803;1.6706;
191.7000;1.1811;1.6802;
192.0000;1.1779;1.6633;
192.3000;1.1779;1.6657;
192.6000;1.1787;1.6754;
192.9000;1.1770;1.6681;
193.2000;1.1770;1.6754;
193.5000;1.1770;1.6730;
193.8000;1.1803;1.6754;
194.1000;1.1787;1.6706;
194.4000;1.1754;1.6657;
194.7000;1.1795;1.6730;
195.0000;1.1811;1.6681;
195.3000;1.1819;1.6609;
195.6000;1.1811;1.6609;
195.9000;1.1803;1.6609;
196.2000;1.1811;1.6633;
196.5000;1.1787;1.6730;
196.8000;1.1795;1.6754;
197.1000;1.1770;1.6730;
197.4000;1.1779;1.6706;
197.7000;1.1779;1.6706;
198.0000;1.1803;1.6778;
198.3000;1.1787;1.6657;
198.6000;1.1836;1.6730;
198.9000;1.1787;1.6512;
199.2000;1.1795;1.6415;
199.5000;1.1770;1.6415;
199.8000;1.1852;1.6657;
200.1000;1.1811;1.6585;
200.4000;1.1803;1.6561;
200.7000;1.1803;1.6585;
201.0000;1.1787;1.6585;
201.3000;1.1795;1.6681;
201.6000;1.1795;1.6754;
201.9000;1.1795;1.6706;
202.2000;1.1803;1.6754;
202.5000;1.1795;1.6681;
202.8000;1.1779;1.6657;
203.1000;1.1811;1.6754;
203.4000;1.1787;1.6730;
203.7000;1.1770;1.6778;
204.0000;1.1803;1.6851;
204.3000;1.1779;1.6778;
204.6000;1.1811;1.6851;
204.9000;1.1787;1.6778;
205.2000;1.1754;1.6633;
205.5000;1.1811;1.6609;
205.8000;1.1803;1.6561;
206.1000;1.1803;1.6609;
206.4000;1.1779;1.6536;
206.7000;1.1836;1.6609;
207.0000;1.1819;1.6633;
207.3000;1.1795;1.6609;
207.6000;1.1770;1.6561;
207.9000;1.1746;1.6464;
208.2000;1.1893;1.6875;
208.5000;1.1787;1.6657;
208.8000;1.1795;1.6706;
209.1000;1.1795;1.6681;
209.4000;1.1811;1.6681;
209.7000;1.1787;1.6633;
210.0000;1.1860;1.6875;
210.3000;1.1795;1.6826;
210.6000;1.1836;1.6899;
210.9000;1.1811;1.6875;
211.2000;1.1827;1.6899;
211.5000;1.1844;1.6851;
211.8000;1.1779;1.6706;
212.1000;1.1795;1.6730;
212.4000;1.1795;1.6778;
212.7000;1.1795;1.6851;
213.0000;1.1779;1.6826;
213.3000;1.1787;1.6875;
213.6000;1.1803;1.6802;
213.9000;1.1779;1.6754;
214.2000;1.1787;1.6730;
214.5000;1.1811;1.6730;
214.8000;1.1787;1.6706;
215.1000;1.1779;1.6681;
215.4000;1.1795;1.6633;
215.7000;1.1787;1.6585;
216.0000;1.1787;1.6561;
216.3000;1.1746;1.6464;
216.6000;1.1795;1.6633;
216.9000;1.1811;1.6706;
217.2000;1.1770;1.6609;
217.5000;1.1787;1.6609;
217.8000;1.1779;1.6681;
218.1000;1.1787;1.6754;
218.4000;1.1787;1.6730;
218.7000;1.1779;1.6657;
219.0000;1.1795;1.6657;
219.3000;1.1901;1.6923;
219.6000;1.1795;1.6561;
219.9000;1.1787;1.6585;
220.2000;1.1770;1.6657;
220.5000;1.1795;1.6681;
220.8000;1.1819;1.6681;
221.1000;1.1795;1.6633;
221.4000;1.1795;1.6609;
221.7000;1.1770;1.6585;
222.0000;1.1795;1.6609;
222.3000;1.1787;1.6633;
222.6000;1.1779;1.6633;
222.9000;1.1770;1.6585;
223.2000;1.1762;1.6512;
223.5000;1.1795;1.6488;
223.8000;1.1795;1.6488;
224.1000;1.1762;1.6488;
224.4000;1.1787;1.6585;
224.7000;1.1779;1.6561;
225.0000;1.1795;1.6609;
225.3000;1.1787;1.6488;
225.6000;1.1811;1.6464;
225.9000;1.1803;1.6440;
226.2000;1.1738;1.6343;
226.5000;1.1803;1.6609;
226.8000;1.1787;1.6633;
227.1000;1.1803;1.6633;
227.4000;1.1770;1.6464;
227.7000;1.1787;1.6536;
228.0000;1.1754;1.6440;
228.3000;1.1844;1.6561;
228.6000;1.1811;1.6488;
228.9000;1.1770;1.6440;
229.2000;1.1795;1.6391;
229.5000;1.1819;1.6415;
229.8000;1.1803;1.6415;
230.1000;1.1795;1.6367;
230.4000;1.1795;1.6464;
230.7000;1.1803;1.6561;
231.0000;1.1803;1.6609;
231.3000;1.1795;1.6609;
231.6000;1.1803;1.6633;
231.9000;1.1844;1.6681;
232.2000;1.1779;1.6561;
232.5000;1.1770;1.6512;
232.8000;1.1844;1.6681;
233.1000;1.1770;1.6464;
233.4000;1.1795;1.6488;
233.7000;1.1827;1.6633;
234.0000;1.1779;1.6536;
234.3000;1.1827;1.6609;
234.6000;1.1795;1.6609;
234.9000;1.1795;1.6561;
235.2000;1.1779;1.6536;
235.5000;1.1762;1.6536;
235.8000;1.1770;1.6536;
236.1000;1.1787;1.6633;
236.4000;1.1787;1.6609;
236.7000;1.1787;1.6657;
237.0000;1.1827;1.6730;
237.3000;1.1779;1.6561;
237.6000;1.1787;1.6561;
237.9000;1.1779;1.6512;
238.2000;1.1779;1.6585;
238.5000;1.1770;1.6488;
238.8000;1.1795;1.6512;
239.1000;1.1795;1.6488;
239.4000;1.1803;1.6561;
239.7000;1.1811;1.6730;
240.0000;1.1787;1.6778;
240.3000;1.1803;1.6706;
240.6000;1.1827;1.6730;
240.9000;1.1795;1.6706;
241.2000;1.1803;1.6778;
241.5000;1.1787;1.6778;
241.8000;1.1803;1.6730;
242.1000;1.1811;1.6633;
242.4000;1.1811;1.6681;
242.7000;1.1795;1.6536;
243.0000;1.1770;1.6488;
243.3000;1.1884;1.6802;
243.6000;1.1803;1.6536;
243.9000;1.1836;1.6561;
244.2000;1.1803;1.6512;
244.5000;1.1803;1.6536;
244.8000;1.1803;1.6681;
245.1000;1.1795;1.6730;
245.4000;1.1795;1.6730;
245.7000;1.1779;1.6730;
246.0000;1.1844;1.6826;
246.3000;1.1803;1.6681;
246.6000;1.1795;1.6657;
246.9000;1.1770;1.6609;
247.2000;1.1819;1.6609;
247.5000;1.1795;1.6633;
247.8000;1.1762;1.6681;
248.1000;1.1754;1.6561;
248.4000;1.1779;1.6657;
248.7000;1.1770;1.6633;
249.0000;1.1779;1.6561;
249.3000;1.1762;1.6488;
249.6000;1.1779;1.6488;
249.9000;1.1787;1.6585;
250.2000;1.1795;1.6609;
250.5000;1.1803;1.6706;
250.8000;1.1795;1.6730;
251.1000;1.1795;1.6754;
251.4000;1.1836;1.6851;
251.7000;1.1795;1.6730;
252.0000;1.1795;1.6657;
252.3000;1.1795;1.6706;
252.6000;1.1803;1.6706;
252.9000;1.1795;1.6681;
253.2000;1.1819;1.6706;
253.5000;1.1787;1.6609;
253.8000;1.1795;1.6585;
254.1000;1.1803;1.6609;
254.4000;1.1779;1.6609;
254.7000;1.1803;1.6609;
255.0000;1.1795;1.6657;
255.3000;1.1811;1.6706;
255.6000;1.1795;1.6681;
255.9000;1.1803;1.6657;
256.2000;1.1787;1.6585;
256.5000;1.1795;1.6633;
256.8000;1.1811;1.6706;
257.1000;1.1779;1.6609;
257.4000;1.1779;1.6633;
257.7000;1.1795;1.6512;
258.0000;1.1779;1.6464;
258.3000;1.1795;1.6464;
258.6000;1.1779;1.6464;
258.9000;1.1770;1.6536;
259.2000;1.1803;1.6512;
259.5000;1.1762;1.6488;
259.8000;1.1762;1.6512;
260.1000;1.1697;1.6367;
260.4000;1.1795;1.6561;
260.7000;1.1779;1.6585;
261.0000;1.1754;1.6512;
261.3000;1.1770;1.6657;
261.6000;1.1795;1.6706;
261.9000;1.1819;1.6730;
262.2000;1.1795;1.6681;
262.5000;1.1787;1.6609;
262.8000;1.1803;1.6706;
263.1000;1.1819;1.6802;
263.4000;1.1770;1.6754;
263.7000;1.1787;1.6826;
264.0000;1.1795;1.6851;
264.3000;1.1795;1.6802;
264.6000;1.1762;1.6609;
264.9000;1.1779;1.6657;
265.2000;1.1795;1.6754;
265.5000;1.1819;1.6754;
265.8000;1.1787;1.6633;
266.1000;1.1762;1.6585;
266.4000;1.1746;1.6657;
266.7000;1.1779;1.6681;
267.0000;1.1754;1.6536;
267.3000;1.1770;1.6585;
267.6000;1.1713;1.6415;
267.9000;1.1819;1.6536;
268.2000;1.1803;1.6536;
268.5000;1.1787;1.6536;
268.8000;1.1779;1.6512;
269.1000;1.1779;1.6488;
269.4000;1.1803;1.6609;
269.7000;1.1803;1.6657;
270.0000;1.1803;1.6657;
270.3000;1.1787;1.6633;
270.6000;1.1811;1.6706;
270.9000;1.1787;1.6681;
271.2000;1.1803;1.6681;
271.5000;1.1795;1.6754;
271.8000;1.1803;1.6802;
272.1000;1.1876;1.6899;
272.4000;1.1803;1.6730;
272.7000;1.1803;1.6754;
273.0000;1.1803;1.6730;
273.3000;1.1819;1.6730;
273.6000;1.1803;1.6609;
273.9000;1.1795;1.6561;
274.2000;1.1787;1.6488;
274.5000;1.1803;1.6561;
274.8000;1.1795;1.6561;
275.1000;1.1787;1.6633;
275.4000;1.1787;1.6585;
275.7000;1.1836;1.6681;
276.0000;1.1795;1.6585;
276.3000;1.1803;1.6585;
276.6000;1.1803;1.6706;
276.9000;1.1811;1.6802;
277.2000;1.1811;1.6899;
277.5000;1.1779;1.6754;
277.8000;1.1811;1.6875;
278.1000;1.1803;1.6730;
278.4000;1.1795;1.6754;
278.7000;1.1811;1.6657;
279.0000;1.1795;1.6633;
279.3000;1.1795;1.6585;
279.6000;1.1827;1.6585;
279.9000;1.1779;1.6464;
280.2000;1.1779;1.6561;
280.5000;1.1876;1.6826;
280.8000;1.1819;1.6754;
281.1000;1.1811;1.6706;
281.4000;1.1795;1.6778;
281.7000;1.1787;1.6802;
282.0000;1.1722;1.6585;
282.3000;1.1787;1.6754;
282.6000;1.1779;1.6706;
282.9000;1.1779;1.6657;
283.2000;1.1779;1.6778;
283.5000;1.1795;1.6802;
283.8000;1.1795;1.6826;
284.1000;1.1803;1.6778;
284.4000;1.1819;1.6875;
284.7000;1.1795;1.6754;
285.0000;1.1762;1.6609;
285.3000;1.1795;1.6706;
285.6000;1.1803;1.6706;
285.9000;1.1811;1.6754;
286.2000;1.1779;1.6657;
286.5000;1.1819;1.6730;
286.8000;1.1795;1.6730;
287.1000;1.1770;1.6681;
287.4000;1.1754;1.6609;
287.7000;1.1787;1.6706;
288.0000;1.1811;1.6730;
288.3000;1.1803;1.6778;
288.6000;1.1811;1.6802;
288.9000;1.1795;1.6851;
289.2000;1.1787;1.6778;
289.5000;1.1762;1.6681;
289.8000;1.1779;1.6730;
290.1000;1.1673;1.6391;
290.4000;1.1746;1.6536;
290.7000;1.1738;1.6488;
291.0000;1.1770;1.6488;
291.3000;1.1779;1.6440;
291.6000;1.1795;1.6391;
291.9000;1.1787;1.6440;
292.2000;1.1803;1.6512;
292.5000;1.1770;1.6391;
292.8000;1.1787;1.6391;
293.1000;1.1770;1.6391;
293.4000;1.1819;1.6464;
293.7000;1.1787;1.6464;
294.0000;1.1819;1.6706;
294.3000;1.1787;1.6561;
294.6000;1.1787;1.6536;
294.9000;1.1779;1.6488;
295.2000;1.1803;1.6561;
295.5000;1.1787;1.6536;
295.8000;1.1787;1.6536;
296.1000;1.1795;1.6609;
296.4000;1.1779;1.6512;
296.7000;1.1779;1.6488;
297.0000;1.1795;1.6440;
297.3000;1.1762;1.6415;
297.6000;1.1803;1.6585;
297.9000;1.1787;1.6633;
298.2000;1.1803;1.6633;
298.5000;1.1803;1.6657;
298.8000;1.1811;1.6633;
299.1000;1.1811;1.6633;
299.4000;1.1803;1.6536;
299.7000;1.1746;1.6415;
300.0000;1.1795;1.6512;
300.3000;1.1852;1.6706;
300.6000;1.1803;1.6585;
300.9000;1.1811;1.6657;
301.2000;1.1795;1.6585;
301.5000;1.1795;1.6609;
301.8000;1.1787;1.6633;
302.1000;1.1787;1.6585;
302.4000;1.1803;1.6657;
302.7000;1.1811;1.6633;
303.0000;1.1836;1.6657;
303.3000;1.1738;1.6440;
303.6000;1.1762;1.6464;
303.9000;1.1779;1.6609;
304.2000;1.1795;1.6633;
304.5000;1.1795;1.6681;
304.8000;1.1779;1.6706;
305.1000;1.1795;1.6802;
305.4000;1.1787;1.6778;
305.7000;1.1779;1.6657;
306.0000;1.1795;1.6706;
306.3000;1.1795;1.6706;
306.6000;1.1787;1.6657;
306.9000;1.1803;1.6657;
307.2000;1.1811;1.6585;
307.5000;1.1819;1.6633;
307.8000;1.1787;1.6488;
308.1000;1.1795;1.6440;
308.4000;1.1803;1.6536;
308.7000;1.1803;1.6512;
309.0000;1.1827;1.6585;
309.3000;1.1795;1.6536;
309.6000;1.1795;1.6512;
309.9000;1.1795;1.6488;
310.2000;1.1795;1.6536;
310.5000;1.1803;1.6512;
310.8000;1.1795;1.6536;
311.1000;1.1787;1.6585;
311.4000;1.1787;1.6633;
311.7000;1.1803;1.6657;
312.0000;1.1779;1.6657;
312.3000;1.1779;1.6657;
312.6000;1.1795;1.6754;
312.9000;1.1795;1.6730;
313.2000;1.1779;1.6802;
313.5000;1.1795;1.6899;
313.8000;1.1795;1.6851;
314.1000;1.1779;1.6730;
314.4000;1.1762;1.6754;
314.7000;1.1779;1.6778;
315.0000;1.1787;1.6802;
315.3000;1.1787;1.6851;
315.6000;1.1770;1.6802;
315.9000;1.1770;1.6706;
316.2000;1.1746;1.6585;
316.5000;1.1795;1.6561;
316.8000;1.1779;1.6488;
317.1000;1.1770;1.6561;
317.4000;1.1803;1.6609;
317.7000;1.1852;1.6633;
318.0000;1.1787;1.6391;
318.3000;1.1787;1.6464;
318.6000;1.1795;1.6536;
318.9000;1.1803;1.6585;
319.2000;1.1811;1.6585;
319.5000;1.1811;1.6633;
319.8000;1.1787;1.6633;
320.1000;1.1787;1.6585;
320.4000;1.1779;1.6512;
320.7000;1.1762;1.6440;
321.0000;1.1770;1.6512;
321.3000;1.1762;1.6561;
321.6000;1.1770;1.6536;
321.9000;1.1779;1.6585;
322.2000;1.1730;1.6488;
322.5000;1.1762;1.6512;
322.8000;1.1803;1.6512;
323.1000;1.1819;1.6585;
323.4000;1.1754;1.6512;
323.7000;1.1795;1.6561;
324.0000;1.1795;1.6681;
324.3000;1.1787;1.6657;
324.6000;1.1779;1.6488;
324.9000;1.1762;1.6464;
325.2000;1.1795;1.6561;
325.5000;1.1762;1.6488;
325.8000;1.1795;1.6367;
326.1000;1.1795;1.6295;
326.4000;1.1779;1.6198;
326.7000;1.1811;1.6343;
327.0000;1.1746;1.6222;
327.3000;1.1730;1.6198;
327.6000;1.1852;1.6561;
327.9000;1.1770;1.6440;
328.2000;1.1803;1.6536;
328.5000;1.1779;1.6657;
328.8000;1.1787;1.6633;
329.1000;1.1779;1.6657;
329.4000;1.1754;1.6609;
329.7000;1.1811;1.6706;
330.0000;1.1844;1.6730;
330.3000;1.1779;1.6609;
330.6000;1.1795;1.6657;
330.9000;1.1746;1.6440;
331.2000;1.1787;1.6561;
331.5000;1.1803;1.6536;
331.8000;1.1795;1.6633;
332.1000;1.1909;1.6972;
332.4000;1.1795;1.6681;
332.7000;1.1811;1.6730;
333.0000;1.1803;1.6633;
333.3000;1.1770;1.6561;
333.6000;1.1795;1.6754;
333.9000;1.1795;1.6706;
334.2000;1.1819;1.6633;
334.5000;1.1795;1.6609;
334.8000;1.1803;1.6706;
335.1000;1.1770;1.6657;
335.4000;1.1811;1.6706;
335.7000;1.1762;1.6657;
336.0000;1.1787;1.6706;
336.3000;1.1819;1.6778;
336.6000;1.1770;1.6730;
336.9000;1.1787;1.6681;
337.2000;1.1787;1.6633;
337.5000;1.1803;1.6609;
337.8000;1.1787;1.6585;
338.1000;1.1803;1.6512;
338.4000;1.1803;1.6488;
338.7000;1.1787;1.6440;
339.0000;1.1803;1.6585;
339.3000;1.1779;1.6561;
339.6000;1.1779;1.6585;
339.9000;1.1779;1.6681;
340.2000;1.1770;1.6657;
340.5000;1.1795;1.6657;
340.8000;1.1779;1.6657;
341.1000;1.1770;1.6706;
341.4000;1.1795;1.6681;
341.7000;1.1795;1.6536;
342.0000;1.1811;1.6561;
342.3000;1.1779;1.6561;
342.6000;1.1787;1.6609;
342.9000;1.1811;1.6657;
343.2000;1.1795;1.6561;
343.5000;1.1803;1.6561;
343.8000;1.1803;1.6657;
344.1000;1.1795;1.6633;
344.4000;1.1754;1.6536;
344.7000;1.1787;1.6681;
345.0000;1.1787;1.6681;
345.3000;1.1819;1.6706;
345.6000;1.1787;1.6657;
345.9000;1.1779;1.6633;
346.2000;1.1795;1.6536;
346.5000;1.1779;1.6488;
346.8000;1.1787;1.6561;
347.1000;1.1811;1.6681;
347.4000;1.1754;1.6536;
347.7000;1.1795;1.6730;
348.0000;1.1795;1.6778;
348.3000;1.1779;1.6754;
348.6000;1.1787;1.6754;
348.9000;1.1779;1.6706;
349.2000;1.1779;1.6657;
349.5000;1.1779;1.6706;
349.8000;1.1811;1.6851;
350.1000;1.1795;1.6826;
350.4000;1.1779;1.6826;
350.7000;1.1795;1.6826;
351.0000;1.1795;1.6851;
351.3000;1.1787;1.6802;
351.6000;1.1787;1.6754;
351.9000;1.1787;1.6730;
352.2000;1.1779;1.6681;
352.5000;1.1746;1.6585;
352.8000;1.1795;1.6802;
353.1000;1.1795;1.6851;
353.4000;1.1795;1.6875;
353.7000;1.1697;1.6706;
354.0000;1.1762;1.6802;
354.3000;1.1803;1.6875;
354.6000;1.1795;1.6802;
354.9000;1.1787;1.6851;
355.2000;1.1787;1.6802;
355.5000;1.1779;1.6730;
355.8000;1.1795;1.6681;
356.1000;1.1779;1.6633;
356.4000;1.1795;1.6633;
356.7000;1.1779;1.6609;
357.0000;1.1795;1.6681;
357.3000;1.1795;1.6657;
357.6000;1.1787;1.6681;
357.9000;1.1787;1.6730;
358.2000;1.1795;1.6681;
358.5000;1.1803;1.6657;
358.8000;1.1779;1.6633;
359.1000;1.1762;1.6561;
359.4000;1.1770;1.6633;
359.7000;1.1811;1.6657;
360.0000;1.1795;1.6609;
360.3000;1.1819;1.6730;
360.6000;1.1787;1.6633;
360.9000;1.1779;1.6754;
361.2000;1.1868;1.6996;
361.5000;1.1779;1.6706;
361.8000;1.1779;1.6609;
362.1000;1.1803;1.6536;
362.4000;1.1779;1.6488;
362.7000;1.1795;1.6512;
363.0000;1.1795;1.6536;
363.3000;1.1795;1.6512;
363.6000;1.1803;1.6561;
363.9000;1.1795;1.6585;
364.2000;1.1803;1.6657;
364.5000;1.1770;1.6512;
364.8000;1.1787;1.6633;
365.1000;1.1787;1.6657;
365.4000;1.1795;1.6681;
365.7000;1.1787;1.6633;
366.0000;1.1787;1.6585;
366.3000;1.1795;1.6585;
366.6000;1.1779;1.6585;
366.9000;1.1787;1.6561;
367.2000;1.1779;1.6440;
367.5000;1.1787;1.6488;
367.8000;1.1795;1.6440;
368.1000;1.1787;1.6488;
368.4000;1.1803;1.6585;
368.7000;1.1819;1.6585;
369.0000;1.1787;1.6536;
369.3000;1.1770;1.6512;
369.6000;1.1787;1.6488;
369.9000;1.1787;1.6440;
370.2000;1.1795;1.6488;
370.5000;1.1787;1.6440;
370.8000;1.1779;1.6440;
371.1000;1.1779;1.6343;
371.4000;1.1787;1.6464;
371.7000;1.1746;1.6440;
372.0000;1.1803;1.6585;
372.3000;1.1795;1.6536;
372.6000;1.1787;1.6633;
372.9000;1.1819;1.6778;
373.2000;1.1770;1.6706;
373.5000;1.1779;1.6754;
373.8000;1.1795;1.6754;
374.1000;1.1827;1.6802;
374.4000;1.1779;1.6657;
374.7000;1.1827;1.6778;
375.0000;1.1795;1.6536;
375.3000;1.1811;1.6561;
375.6000;1.1787;1.6536;
375.9000;1.1770;1.6440;
376.2000;1.1754;1.6440;
376.5000;1.1787;1.6512;
376.8000;1.1762;1.6488;
377.1000;1.1779;1.6488;
377.4000;1.1787;1.6585;
377.7000;1.1803;1.6633;
378.0000;1.1803;1.6609;
378.3000;1.1803;1.6561;
378.6000;1.1787;1.6561;
378.9000;1.1811;1.6657;
379.2000;1.1803;1.6609;
379.5000;1.1787;1.6585;
379.8000;1.1779;1.6512;
380.1000;1.1787;1.6561;
380.4000;1.1779;1.6609;
380.7000;1.1901;1.6899;
381.0000;1.1779;1.6609;
381.3000;1.1787;1.6561;
381.6000;1.1795;1.6512;
381.9000;1.1795;1.6633;
382.2000;1.1787;1.6561;
382.5000;1.1795;1.6440;
382.8000;1.1795;1.6488;
383.1000;1.1836;1.6488;
383.4000;1.1795;1.6367;
383.7000;1.1787;1.6536;
384.0000;1.1803;1.6585;
384.3000;1.1779;1.6464;
384.6000;1.1787;1.6488;
384.9000;1.1738;1.6464;
385.2000;1.1787;1.6536;
385.5000;1.1779;1.6609;
385.8000;1.1787;1.6657;
386.1000;1.1762;1.6633;
386.4000;1.1770;1.6657;
386.7000;1.1787;1.6706;
387.0000;1.1762;1.6681;
387.3000;1.1770;1.6633;
387.6000;1.1779;1.6561;
387.9000;1.1762;1.6561;
388.2000;1.1754;1.6561;
388.5000;1.1803;1.6609;
388.8000;1.1795;1.6585;
389.1000;1.1803;1.6681;
389.4000;1.1803;1.6706;
389.7000;1.1787;1.6706;
390.0000;1.1762;1.6561;
390.3000;1.1779;1.6536;
390.6000;1.1738;1.6488;
390.9000;1.1779;1.6561;
391.2000;1.1754;1.6512;
391.5000;1.1730;1.6367;
391.8000;1.1754;1.6464;
392.1000;1.1844;1.6609;
392.4000;1.1779;1.6536;
392.7000;1.1779;1.6488;
393.0000;1.1787;1.6464;
393.3000;1.1779;1.6561;
393.6000;1.1762;1.6633;
393.9000;1.1787;1.6657;
394.2000;1.1779;1.6609;
394.5000;1.1770;1.6585;
394.8000;1.1762;1.6536;
395.1000;1.1787;1.6657;
395.4000;1.1779;1.6536;
395.7000;1.1787;1.6464;
396.0000;1.1779;1.6488;
396.3000;1.1779;1.6536;
396.6000;1.1787;1.6585;
396.9000;1.1787;1.6585;
397.2000;1.1827;1.6633;
397.5000;1.1722;1.6488;
397.8000;1.1811;1.6754;
398.1000;1.1795;1.6778;
398.4000;1.1762;1.6681;
398.7000;1.1762;1.6681;
399.0000;1.1770;1.6681;
399.3000;1.1795;1.6826;
399.6000;1.1770;1.6706;
399.9000;1.1819;1.6778;
400.2000;1.1738;1.6536;
400.5000;1.1762;1.6464;
400.8000;1.1779;1.6536;
401.1000;1.1779;1.6488;
401.4000;1.1754;1.6440;
401.7000;1.1787;1.6512;
402.0000;1.1836;1.6754;
402.3000;1.1779;1.6681;
402.6000;1.1779;1.6730;
402.9000;1.1819;1.6778;
403.2000;1.1787;1.6633;
403.5000;1.1787;1.6609;
403.8000;1.1762;1.6561;
404.1000;1.1779;1.6609;
404.4000;1.1787;1.6536;
404.7000;1.1730;1.6391;
405.0000;1.1754;1.6367;
405.3000;1.1795;1.6415;
405.6000;1.1795;1.6415;
405.9000;1.1779;1.6488;
406.2000;1.1779;1.6488;
406.5000;1.1795;1.6536;
406.8000;1.1779;1.6536;
407.1000;1.1893;1.6778;
407.4000;1.1779;1.6512;
407.7000;1.1722;1.6415;
408.0000;1.1779;1.6609;
408.3000;1.1803;1.6657;
408.6000;1.1746;1.6464;
408.9000;1.1779;1.6536;
409.2000;1.1770;1.6512;
409.5000;1.1787;1.6585;
409.8000;1.1787;1.6633;
410.1000;1.1787;1.6609;
410.4000;1.1803;1.6633;
410.7000;1.1795;1.6657;
411.0000;1.1787;1.6681;
411.3000;1.1795;1.6754;
411.6000;1.1779;1.6730;
411.9000;1.1787;1.6754;
412.2000;1.1779;1.6657;
412.5000;1.1770;1.6633;
412.8000;1.1779;1.6730;
413.1000;1.1803;1.6851;
413.4000;1.1811;1.6972;
413.7000;1.1787;1.6947;
414.0000;1.1795;1.7020;
414.3000;1.1811;1.7092;
414.6000;1.1795;1.6996;
414.9000;1.1803;1.6947;
415.2000;1.1730;1.6778;
415.5000;1.1787;1.7044;
415.8000;1.1779;1.6923;
416.1000;1.1770;1.6875;
416.4000;1.1836;1.6947;
416.7000;1.1787;1.6802;
417.0000;1.1754;1.6730;
417.3000;1.1787;1.6923;
417.6000;1.1779;1.6972;
417.9000;1.1762;1.6996;
418.2000;1.1787;1.6972;
418.5000;1.1770;1.6923;
418.8000;1.1779;1.6851;
419.1000;1.1779;1.6778;
419.4000;1.1762;1.6730;
419.7000;1.1803;1.6826;
420.0000;1.1746;1.6609;
420.3000;1.1795;1.6730;
420.6000;1.1779;1.6754;
420.9000;1.1722;1.6633;
421.2000;1.1779;1.6730;
421.5000;1.1803;1.6802;
421.8000;1.1770;1.6778;
422.1000;1.1787;1.6802;
422.4000;1.1754;1.6706;
422.7000;1.1770;1.6706;
423.0000;1.1770;1.6609;
423.3000;1.1665;1.6440;
423.6000;1.1787;1.6778;
423.9000;1.1795;1.6778;
424.2000;1.1746;1.6585;
424.5000;1.1762;1.6633;
424.8000;1.1746;1.6657;
425.1000;1.1770;1.6681;
425.4000;1.1762;1.6681;
425.7000;1.1770;1.6730;
426.0000;1.1787;1.6730;
426.3000;1.1730;1.6536;
426.6000;1.1754;1.6657;
426.9000;1.1770;1.6657;
427.2000;1.1795;1.6802;
427.5000;1.1779;1.6706;
427.8000;1.1762;1.6754;
428.1000;1.1762;1.6826;
428.4000;1.1770;1.6875;
428.7000;1.1787;1.6875;
429.0000;1.1779;1.6899;
429.3000;1.1779;1.6851;
429.6000;1.1787;1.6875;
429.9000;1.1787;1.6875;
430.2000;1.1787;1.6826;
430.5000;1.1730;1.6633;
430.8000;1.1779;1.6730;
431.1000;1.1795;1.6609;
431.4000;1.1811;1.6657;
431.7000;1.1770;1.6512;
432.0000;1.1770;1.6536;
432.3000;1.1770;1.6609;
432.6000;1.1803;1.6730;
432.9000;1.1762;1.6657;
433.2000;1.1795;1.6754;
433.5000;1.1746;1.6681;
433.8000;1.1770;1.6826;
434.1000;1.1787;1.6875;
434.4000;1.1762;1.6875;
434.7000;1.1779;1.6923;
435.0000;1.1787;1.6947;
435.3000;1.1787;1.6851;
435.6000;1.1779;1.6802;
435.9000;1.1779;1.6730;
436.2000;1.1795;1.6802;
436.5000;1.1779;1.6826;
436.8000;1.1770;1.6802;
437.1000;1.1795;1.6826;
437.4000;1.1811;1.6947;
437.7000;1.1779;1.6851;
438.0000;1.1803;1.6802;
438.3000;1.1852;1.6923;
438.6000;1.1770;1.6681;
438.9000;1.1795;1.6730;
439.2000;1.1770;1.6681;
439.5000;1.1779;1.6681;
439.8000;1.1779;1.6561;
440.1000;1.1746;1.6536;
440.4000;1.1697;1.6488;
440.7000;1.1762;1.6657;
441.0000;1.1722;1.6585;
441.3000;1.1770;1.6681;
441.6000;1.1770;1.6609;
441.9000;1.1754;1.6633;
442.2000;1.1795;1.6706;
442.5000;1.1754;1.6585;
442.8000;1.1795;1.6633;
443.1000;1.1770;1.6609;
443.4000;1.1779;1.6706;
443.7000;1.1779;1.6778;
444.0000;1.1779;1.6802;
444.3000;1.1770;1.6730;
444.6000;1.1779;1.6851;
444.9000;1.1770;1.6875;
445.2000;1.1762;1.6851;
445.5000;1.1779;1.6730;
445.8000;1.1787;1.6826;
446.1000;1.1787;1.6826;
446.4000;1.1795;1.6851;
446.7000;1.1787;1.6730;
447.0000;1.1787;1.6657;
447.3000;1.1770;1.6633;
447.6000;1.1779;1.6657;
447.9000;1.1787;1.6681;
448.2000;1.1811;1.6730;
448.5000;1.1787;1.6585;
448.8000;1.1795;1.6706;
449.1000;1.1795;1.6681;
449.4000;1.1811;1.6706;
449.7000;1.1884;1.6899;
450.0000;1.1787;1.6633;
450.3000;1.1803;1.6681;
450.6000;1.1779;1.6536;
450.9000;1.1770;1.6585;
451.2000;1.1827;1.6826;
451.5000;1.1770;1.6730;
451.8000;1.1836;1.6826;
452.1000;1.1770;1.6730;
452.4000;1.1779;1.6778;
452.7000;1.1795;1.6706;
453.0000;1.1770;1.6706;
453.3000;1.1770;1.6681;
453.6000;1.1852;1.6778;
453.9000;1.1787;1.6536;
454.2000;1.1787;1.6585;
454.5000;1.1787;1.6536;
454.8000;1.1779;1.6512;
455.1000;1.1795;1.6488;
455.4000;1.1787;1.6488;
455.7000;1.1787;1.6464;
456.0000;1.1754;1.6464;
456.3000;1.1722;1.6440;
456.6000;1.1787;1.6609;
456.9000;1.1787;1.6609;
457.2000;1.1803;1.6706;
457.5000;1.1803;1.6681;
457.8000;1.1779;1.6681;
458.1000;1.1770;1.6585;
458.4000;1.1730;1.6367;
458.7000;1.1770;1.6536;
459.0000;1.1787;1.6512;
459.3000;1.1779;1.6440;
459.6000;1.1779;1.6415;
459.9000;1.1787;1.6367;
460.2000;1.1787;1.6319;
460.5000;1.1779;1.6440;
460.8000;1.1770;1.6464;
461.1000;1.1738;1.6343;
461.4000;1.1779;1.6464;
461.7000;1.1779;1.6488;
462.0000;1.1754;1.6512;
462.3000;1.1762;1.6536;
462.6000;1.1754;1.6536;
462.9000;1.1770;1.6536;
463.2000;1.1770;1.6440;
463.5000;1.1762;1.6391;
463.8000;1.1754;1.6536;
464.1000;1.1779;1.6512;
464.4000;1.1795;1.6585;
464.7000;1.1787;1.6536;
465.0000;1.1795;1.6536;
465.3000;1.1795;1.6585;
465.6000;1.1795;1.6633;
465.9000;1.1738;1.6488;
466.2000;1.1713;1.6391;
466.5000;1.1770;1.6681;
466.8000;1.1787;1.6657;
467.1000;1.1779;1.6633;
467.4000;1.1770;1.6536;
467.7000;1.1770;1.6536;
468.0000;1.1770;1.6536;
468.3000;1.1779;1.6609;
468.6000;1.1779;1.6706;
468.9000;1.1754;1.6585;
469.2000;1.1779;1.6633;
469.5000;1.1787;1.6633;
469.8000;1.1746;1.6488;
470.1000;1.1795;1.6512;
470.4000;1.1795;1.6585;
470.7000;1.1811;1.6681;
471.0000;1.1787;1.6512;
471.3000;1.1770;1.6561;
471.6000;1.1787;1.6633;
471.9000;1.1860;1.6730;
472.2000;1.1754;1.6464;
472.5000;1.1770;1.6536;
472.8000;1.1722;1.6343;
473.1000;1.1787;1.6561;
473.4000;1.1787;1.6633;
473.7000;1.1787;1.6609;
474.0000;1.1803;1.6657;
474.3000;1.1779;1.6585;
474.6000;1.1795;1.6706;
474.9000;1.1795;1.6754;
475.2000;1.1811;1.6875;
475.5000;1.1787;1.6802;
475.8000;1.1762;1.6754;
476.1000;1.1779;1.6778;
476.4000;1.1779;1.6826;
476.7000;1.1787;1.6778;
477.0000;1.1795;1.6778;
477.3000;1.1803;1.6754;
477.6000;1.1762;1.6633;
477.9000;1.1770;1.6681;
478.2000;1.1770;1.6633;
478.5000;1.1787;1.6681;
478.8000;1.1770;1.6609;
479.1000;1.1787;1.6657;
479.4000;1.1762;1.6609;
479.7000;1.1762;1.6657;
480.0000;1.1795;1.6706;
480.3000;1.1754;1.6657;
480.6000;1.1779;1.6681;
480.9000;1.1779;1.6657;
481.2000;1.1795;1.6706;
481.5000;1.1722;1.6561;
481.8000;1.1770;1.6706;
482.1000;1.1762;1.6706;
482.4000;1.1746;1.6633;
482.7000;1.1770;1.6657;
483.0000;1.1770;1.6609;
483.3000;1.1787;1.6609;
483.6000;1.1795;1.6536;
483.9000;1.1730;1.6367;
484.2000;1.1787;1.6536;
484.5000;1.1779;1.6585;
484.8000;1.1795;1.6657;
485.1000;1.1819;1.6754;
485.4000;1.1787;1.6681;
485.7000;1.1795;1.6633;
486.0000;1.1795;1.6609;
486.3000;1.1746;1.6609;
486.6000;1.1770;1.6706;
486.9000;1.1770;1.6730;
487.2000;1.1779;1.6754;
487.5000;1.1770;1.6875;
487.8000;1.1795;1.6875;
488.1000;1.1730;1.6754;
488.4000;1.1762;1.6802;
488.7000;1.1770;1.6851;
489.0000;1.1738;1.6754;
489.3000;1.1795;1.6826;
489.6000;1.1787;1.6851;
489.9000;1.1795;1.6851;
490.2000;1.1795;1.6826;
490.5000;1.1795;1.6851;
490.8000;1.1795;1.6778;
491.1000;1.1803;1.6730;
491.4000;1.1779;1.6706;
491.7000;1.1779;1.6657;
492.0000;1.1770;1.6681;
492.3000;1.1770;1.6585;
492.6000;1.1779;1.6657;
492.9000;1.1762;1.6730;
493.2000;1.1811;1.6875;
493.5000;1.1811;1.6875;
493.8000;1.1770;1.6802;
494.1000;1.1795;1.6778;
494.4000;1.1787;1.6730;
494.7000;1.1803;1.6778;
495.0000;1.1754;1.6706;
495.3000;1.1803;1.6778;
495.6000;1.1779;1.6706;
495.9000;1.1795;1.6681;
496.2000;1.1722;1.6561;
496.5000;1.1705;1.6609;
496.8000;1.1705;1.6561;
497.1000;1.1827;1.6875;
497.4000;1.1770;1.6706;
497.7000;1.1779;1.6730;
498.0000;1.1754;1.6681;
498.3000;1.1795;1.6778;
498.6000;1.1770;1.6609;
498.9000;1.1762;1.6633;
499.2000;1.1746;1.6561;
499.5000;1.1795;1.6657;
499.8000;1.1787;1.6706;
500.1000;1.1827;1.6851;
500.4000;1.1770;1.6706;
500.7000;1.1779;1.6657;
501.0000;1.1795;1.6730;
501.3000;1.1779;1.6706;
501.6000;1.1770;1.6706;
501.9000;1.1762;1.6706;
502.2000;1.1746;1.6633;
502.5000;1.1770;1.6585;
502.8000;1.1779;1.6561;
503.1000;1.1762;1.6512;
503.4000;1.1762;1.6633;
503.7000;1.1787;1.6609;
504.0000;1.1787;1.6657;
504.3000;1.1779;1.6706;
504.6000;1.1787;1.6706;
504.9000;1.1779;1.6754;
505.2000;1.1770;1.6706;
505.5000;1.1770;1.6730;
505.8000;1.1762;1.6681;
506.1000;1.1787;1.6730;
506.4000;1.1713;1.6561;
506.7000;1.1762;1.6657;
507.0000;1.1762;1.6633;
507.3000;1.1787;1.6657;
507.6000;1.1738;1.6536;
507.9000;1.1705;1.6585;
508.2000;1.1762;1.6681;
508.5000;1.1779;1.6706;
508.8000;1.1787;1.6730;
509.1000;1.1754;1.6706;
509.4000;1.1811;1.6778;
509.7000;1.1754;1.6730;
510.0000;1.1746;1.6657;
510.3000;1.1738;1.6633;
510.6000;1.1762;1.6657;
510.9000;1.1795;1.6778;
511.2000;1.1779;1.6706;
511.5000;1.1770;1.6730;
511.8000;1.1754;1.6730;
512.1000;1.1762;1.6754;
512.4000;1.1836;1.6875;
512.7000;1.1779;1.6706;
513.0000;1.1738;1.6657;
513.3000;1.1803;1.6754;
513.6000;1.1779;1.6706;
513.9000;1.1770;1.6754;
514.2000;1.1770;1.6778;
514.5000;1.1665;1.6561;
514.8000;1.1779;1.6778;
515.1000;1.1787;1.6778;
515.4000;1.1836;1.6899;
515.7000;1.1787;1.6826;
516.0000;1.1779;1.6778;
516.3000;1.1787;1.6851;
516.6000;1.1762;1.6754;
516.9000;1.1738;1.6633;
517.2000;1.1681;1.6512;
517.5000;1.1844;1.6923;
517.8000;1.1730;1.6657;
518.1000;1.1754;1.6681;
518.4000;1.1779;1.6681;
518.7000;1.1803;1.6706;
519.0000;1.1811;1.6633;
519.3000;1.1779;1.6585;
519.6000;1.1762;1.6657;
519.9000;1.1762;1.6681;
520.2000;1.1762;1.6778;
520.5000;1.1770;1.6754;
520.8000;1.1787;1.6826;
521.1000;1.1779;1.6802;
521.4000;1.1779;1.6826;
521.7000;1.1779;1.6899;
522.0000;1.1770;1.6875;
522.3000;1.1770;1.6802;
522.6000;1.1779;1.6826;
522.9000;1.1779;1.6826;
523.2000;1.1762;1.6826;
523.5000;1.1762;1.6754;
523.8000;1.1762;1.6730;
524.1000;1.1787;1.6754;
524.4000;1.1746;1.6706;
524.7000;1.1770;1.6851;
525.0000;1.1779;1.6851;
525.3000;1.1779;1.6899;
525.6000;1.1787;1.6851;
525.9000;1.1787;1.6875;
526.2000;1.1787;1.6899;
526.5000;1.1819;1.6875;
526.8000;1.1795;1.6826;
527.1000;1.1754;1.6754;
527.4000;1.1787;1.6706;
527.7000;1.1779;1.6681;
528.0000;1.1770;1.6706;
528.3000;1.1770;1.6730;
528.6000;1.1779;1.6730;
528.9000;1.1779;1.6633;
529.2000;1.1762;1.6730;
529.5000;1.1803;1.6754;
529.8000;1.1762;1.6585;
530.1000;1.1762;1.6633;
530.4000;1.1754;1.6706;
530.7000;1.1770;1.6706;
531.0000;1.1770;1.6706;
531.3000;1.1779;1.6730;
531.6000;1.1819;1.6875;
531.9000;1.1770;1.6730;
532.2000;1.1746;1.6706;
532.5000;1.1713;1.6681;
532.8000;1.1787;1.6899;
533.1000;1.1746;1.6778;
533.4000;1.1770;1.6802;
533.7000;1.1770;1.6802;
534.0000;1.1770;1.6754;
534.3000;1.1787;1.6778;
534.6000;1.1754;1.6754;
534.9000;1.1762;1.6826;
535.2000;1.1779;1.6875;
535.5000;1.1746;1.6778;
535.8000;1.1770;1.6778;
536.1000;1.1762;1.6802;
536.4000;1.1795;1.6826;
536.7000;1.1762;1.6706;
537.0000;1.1795;1.6681;
537.3000;1.1770;1.6657;
537.6000;1.1779;1.6585;
537.9000;1.1770;1.6561;
538.2000;1.1770;1.6633;
538.5000;1.1795;1.6633;
538.8000;1.1770;1.6585;
539.1000;1.1738;1.6536;
539.4000;1.1754;1.6609;
539.7000;1.1770;1.6585;
540.0000;1.1844;1.6778;
540.3000;1.1795;1.6633;
540.6000;1.1795;1.6609;
540.9000;1.1795;1.6609;
541.2000;1.1770;1.6633;
541.5000;1.1787;1.6754;
541.8000;1.1779;1.6730;
542.1000;1.1803;1.6826;
542.4000;1.1762;1.6730;
542.7000;1.1762;1.6657;
543.0000;1.1770;1.6657;
543.3000;1.1779;1.6730;
543.6000;1.1770;1.6681;
543.9000;1.1738;1.6657;
544.2000;1.1738;1.6754;
544.5000;1.1762;1.6826;
544.8000;1.1754;1.6802;
545.1000;1.1746;1.6730;
545.4000;1.1754;1.6681;
545.7000;1.1762;1.6802;
546.0000;1.1722;1.6706;
546.3000;1.1762;1.6657;
546.6000;1.1779;1.6681;
546.9000;1.1779;1.6802;
547.2000;1.1787;1.6754;
547.5000;1.1795;1.6681;
547.8000;1.1787;1.6585;
548.1000;1.1884;1.6826;
548.4000;1.1787;1.6512;
548.7000;1.1770;1.6464;
549.0000;1.1762;1.6391;
549.3000;1.1770;1.6464;
549.6000;1.1770;1.6488;
549.9000;1.1770;1.6512;
550.2000;1.1779;1.6536;
550.5000;1.1762;1.6561;
550.8000;1.1779;1.6633;
551.1000;1.1762;1.6633;
551.4000;1.1738;1.6512;
551.7000;1.1762;1.6585;
552.0000;1.1754;1.6561;
552.3000;1.1787;1.6585;
552.6000;1.1770;1.6536;
552.9000;1.1779;1.6609;
553.2000;1.1779;1.6754;
553.5000;1.1795;1.6754;
553.8000;1.1762;1.6633;
554.1000;1.1779;1.6681;
554.4000;1.1819;1.6778;
554.7000;1.1770;1.6681;
555.0000;1.1787;1.6730;
555.3000;1.1762;1.6657;
555.6000;1.1722;1.6536;
555.9000;1.1770;1.6778;
556.2000;1.1811;1.6851;
556.5000;1.1779;1.6826;
556.8000;1.1770;1.6706;
557.1000;1.1779;1.6778;
557.4000;1.1770;1.6681;
557.7000;1.1673;1.6464;
558.0000;1.1803;1.6706;
558.3000;1.1787;1.6681;
558.6000;1.1795;1.6730;
558.9000;1.1787;1.6706;
559.2000;1.1762;1.6681;
559.5000;1.1779;1.6754;
559.8000;1.1787;1.6681;
560.1000;1.1779;1.6681;
560.4000;1.1803;1.6706;
560.7000;1.1787;1.6633;
561.0000;1.1746;1.6633;
561.3000;1.1787;1.6681;
561.6000;1.1762;1.6585;
561.9000;1.1770;1.6561;
562.2000;1.1770;1.6561;
562.5000;1.1795;1.6609;
562.8000;1.1779;1.6561;
563.1000;1.1779;1.6536;
563.4000;1.1787;1.6681;
563.7000;1.1876;1.6899;
564.0000;1.1754;1.6754;
564.3000;1.1770;1.6802;
564.6000;1.1770;1.6778;
564.9000;1.1779;1.6923;
565.2000;1.1770;1.6899;
565.5000;1.1762;1.6923;
565.8000;1.1762;1.6923;
566.1000;1.1770;1.6972;
566.4000;1.1770;1.6923;
566.7000;1.1762;1.6899;
567.0000;1.1762;1.6802;
567.3000;1.1762;1.6778;
567.6000;1.1762;1.6754;
567.9000;1.1779;1.6706;
568.2000;1.1770;1.6681;
568.5000;1.1770;1.6657;
568.8000;1.1770;1.6657;
569.1000;1.1795;1.6730;
569.4000;1.1754;1.6633;
569.7000;1.1754;1.6681;
570.0000;1.1762;1.6706;
570.3000;1.1770;1.6778;
570.6000;1.1754;1.6778;
570.9000;1.1762;1.6730;
571.2000;1.1795;1.6778;
571.5000;1.1770;1.6681;
571.8000;1.1770;1.6681;
572.1000;1.1779;1.6657;
572.4000;1.1770;1.6561;
572.7000;1.1787;1.6633;
573.0000;1.1787;1.6681;
573.3000;1.1762;1.6681;
573.6000;1.1770;1.6778;
573.9000;1.1787;1.6802;
574.2000;1.1770;1.6802;
574.5000;1.1746;1.6706;
574.8000;1.1754;1.6681;
575.1000;1.1762;1.6681;
575.4000;1.1754;1.6754;
575.7000;1.1779;1.6778;
576.0000;1.1779;1.6754;
576.3000;1.1770;1.6754;
576.6000;1.1770;1.6681;
576.9000;1.1762;1.6633;
577.2000;1.1738;1.6657;
577.5000;1.1787;1.6778;
577.8000;1.1770;1.6730;
578.1000;1.1779;1.6706;
578.4000;1.1713;1.6488;
578.7000;1.1770;1.6536;
579.0000;1.1754;1.6585;
579.3000;1.1762;1.6609;
579.6000;1.1754;1.6657;
579.9000;1.1738;1.6633;
580.2000;1.1754;1.6657;
580.5000;1.1754;1.6609;
580.8000;1.1754;1.6609;
581.1000;1.1787;1.6657;
581.4000;1.1779;1.6536;
581.7000;1.1770;1.6609;
582.0000;1.1730;1.6488;
582.3000;1.1762;1.6536;
582.6000;1.1795;1.6657;
582.9000;1.1795;1.6609;
583.2000;1.1705;1.6415;
583.5000;1.1754;1.6536;
583.8000;1.1795;1.6657;
584.1000;1.1803;1.6706;
584.4000;1.1754;1.6609;
584.7000;1.1787;1.6730;
585.0000;1.1770;1.6754;
585.3000;1.1770;1.6706;
585.6000;1.1770;1.6730;
585.9000;1.1762;1.6802;
586.2000;1.1770;1.6730;
586.5000;1.1779;1.6681;
586.8000;1.1754;1.6681;
587.1000;1.1738;1.6609;
587.4000;1.1770;1.6706;
587.7000;1.1770;1.6681;
588.0000;1.1795;1.6802;
588.3000;1.1730;1.6609;
588.6000;1.1754;1.6585;
588.9000;1.1713;1.6391;
589.2000;1.1762;1.6633;
589.5000;1.1770;1.6657;
589.8000;1.1730;1.6609;
590.1000;1.1754;1.6657;
590.4000;1.1779;1.6826;
590.7000;1.1762;1.6778;
591.0000;1.1770;1.6851;
591.3000;1.1754;1.6706;
591.6000;1.1770;1.6657;
591.9000;1.1762;1.6633;
592.2000;1.1779;1.6681;
592.5000;1.1746;1.6585;
592.8000;1.1762;1.6657;
593.1000;1.1762;1.6778;
593.4000;1.1754;1.6778;
593.7000;1.1722;1.6681;
594.0000;1.1779;1.6706;
594.3000;1.1770;1.6681;
594.6000;1.1746;1.6633;
594.9000;1.1770;1.6706;
595.2000;1.1803;1.6802;
595.5000;1.1779;1.6730;
595.8000;1.1762;1.6681;
596.1000;1.1762;1.6706;
596.4000;1.1762;1.6681;
596.7000;1.1779;1.6754;
597.0000;1.1762;1.6681;
597.3000;1.1779;1.6657;
597.6000;1.1762;1.6585;
597.9000;1.1779;1.6609;
598.2000;1.1746;1.6512;
598.5000;1.1762;1.6536;
598.8000;1.1746;1.6488;
599.1000;1.1754;1.6440;
599.4000;1.1754;1.6561;
599.7000;1.1730;1.6488;
600.0000;1.1746;1.6536;
600.3000;1.1738;1.6440;
600.6000;1.1722;1.6343;
600.9000;1.1632;1.6198;
601.2000;1.1461;1.5859;
601.5000;1.1453;1.5787;
601.8000;1.1331;1.5569;
602.1000;1.1233;1.5352;
602.4000;1.1103;1.5183;
602.7000;1.0997;1.5062;
603.0000;1.0891;1.4796;
603.3000;1.0810;1.4626;
603.6000;1.0680;1.4409;
603.9000;1.0680;1.4457;
604.2000;1.0574;1.4240;
604.5000;1.0517;1.4167;
604.8000;1.0427;1.3998;
605.1000;1.0362;1.3950;
605.4000;1.0297;1.3780;
605.7000;1.0248;1.3684;
606.0000;1.0167;1.3708;
606.3000;1.0126;1.3539;
606.6000;1.0102;1.3563;
606.9000;1.0037;1.3514;
607.2000;0.9996;1.3587;
607.5000;1.0020;1.3732;
607.8000;0.9906;1.3514;
608.1000;0.9874;1.3539;
608.4000;0.9841;1.3490;
608.7000;0.9760;1.3321;
609.0000;0.9744;1.3369;
609.3000;0.9735;1.3442;
609.6000;0.9662;1.3297;
609.9000;0.9662;1.3418;
610.2000;0.9597;1.3345;
610.5000;0.9581;1.3418;
610.8000;0.9581;1.3418;
611.1000;0.9499;1.3176;
611.4000;0.9491;1.3176;
611.7000;0.9410;1.3103;
612.0000;0.9402;1.3152;
612.3000;0.9337;1.3031;
612.6000;0.9337;1.3152;
612.9000;0.9353;1.3200;
613.2000;0.9296;1.3055;
613.5000;0.9255;1.2934;
613.8000;0.9198;1.2862;
614.1000;0.9190;1.2958;
614.4000;0.9158;1.2886;
614.7000;0.9133;1.2886;
615.0000;0.9076;1.2886;
615.3000;0.9092;1.2910;
615.6000;0.9035;1.2862;
615.9000;0.9060;1.2886;
616.2000;0.9027;1.2910;
616.5000;0.8995;1.2837;
616.8000;0.8930;1.2765;
617.1000;0.8970;1.2982;
617.4000;0.8930;1.2958;
617.7000;0.8930;1.2862;
618.0000;0.8921;1.2862;
618.3000;0.8913;1.2910;
618.6000;0.8905;1.2886;
618.9000;0.8840;1.2789;
619.2000;0.8832;1.2862;
619.5000;0.8799;1.2862;
619.8000;0.8791;1.2934;
620.1000;0.8816;1.3007;
620.4000;0.8775;1.2958;
620.7000;0.8685;1.2668;
621.0000;0.8734;1.2789;
621.3000;0.8718;1.2813;
621.6000;0.8694;1.2717;
621.9000;0.8653;1.2572;
622.2000;0.8677;1.2692;
622.5000;0.8653;1.2741;
622.8000;0.8637;1.2765;
623.1000;0.8653;1.2862;
623.4000;0.8628;1.2837;
623.7000;0.8604;1.2692;
624.0000;0.8547;1.2644;
624.3000;0.8555;1.2741;
624.6000;0.8604;1.2837;
624.9000;0.8531;1.2717;
625.2000;0.8523;1.2717;
625.5000;0.8628;1.2886;
625.8000;0.8498;1.2572;
626.1000;0.8506;1.2620;
626.4000;0.8457;1.2451;
626.7000;0.8457;1.2475;
627.0000;0.8466;1.2596;
627.3000;0.8449;1.2644;
627.6000;0.8449;1.2692;
627.9000;0.8466;1.2765;
628.2000;0.8400;1.2668;
628.5000;0.8425;1.2717;
628.8000;0.8409;1.2741;
629.1000;0.8352;1.2620;
629.4000;0.8360;1.2692;
629.7000;0.8368;1.2692;
630.0000;0.8303;1.2644;
630.3000;0.8303;1.2644;
630.6000;0.8311;1.2596;
630.9000;0.8327;1.2644;
631.2000;0.8303;1.2644;
631.5000;0.8327;1.2765;
631.8000;0.8270;1.2596;
632.1000;0.8254;1.2596;
632.4000;0.8246;1.2523;
632.7000;0.8262;1.2547;
633.0000;0.8254;1.2523;
633.3000;0.8205;1.2475;
633.6000;0.8230;1.2572;
633.9000;0.8254;1.2717;
634.2000;0.8173;1.2523;
634.5000;0.8246;1.2741;
634.8000;0.8189;1.2547;
635.1000;0.8173;1.2426;
635.4000;0.8164;1.2306;
635.7000;0.8156;1.2330;
636.0000;0.8189;1.2402;
636.3000;0.8140;1.2378;
636.6000;0.8132;1.2402;
636.9000;0.8124;1.2378;
637.2000;0.8116;1.2330;
637.5000;0.8099;1.2306;
637.8000;0.8116;1.2330;
638.1000;0.8091;1.2451;
638.4000;0.8083;1.2451;
638.7000;0.8075;1.2547;
639.0000;0.8075;1.2547;
639.3000;0.8116;1.2692;
639.6000;0.8059;1.2572;
639.9000;0.8050;1.2644;
640.2000;0.8010;1.2644;
640.5000;0.8034;1.2741;
640.8000;0.8010;1.2717;
641.1000;0.8018;1.2692;
641.4000;0.8018;1.2668;
641.7000;0.7985;1.2547;
642.0000;0.7993;1.2523;
642.3000;0.7953;1.2354;
642.6000;0.7985;1.2475;
642.9000;0.7969;1.2378;
643.2000;0.7969;1.2475;
643.5000;0.7977;1.2523;
643.8000;0.7961;1.2547;
644.1000;0.7904;1.2378;
644.4000;0.7920;1.2402;
644.7000;0.7945;1.2523;
645.0000;0.7920;1.2426;
645.3000;0.7961;1.2547;
645.6000;0.7888;1.2378;
645.9000;0.7904;1.2451;
646.2000;0.7896;1.2402;
646.5000;0.7880;1.2402;
646.8000;0.7896;1.2499;
647.1000;0.7839;1.2281;
647.4000;0.7928;1.2475;
647.7000;0.7863;1.2306;
648.0000;0.7790;1.2161;
648.3000;0.7831;1.2257;
648.6000;0.7847;1.2330;
648.9000;0.7831;1.2426;
649.2000;0.7831;1.2499;
649.5000;0.7814;1.2451;
649.8000;0.7823;1.2475;
650.1000;0.7831;1.2499;
650.4000;0.7806;1.2426;
650.7000;0.7790;1.2402;
651.0000;0.7798;1.2451;
651.3000;0.7782;1.2378;
651.6000;0.7774;1.2281;
651.9000;0.7774;1.2185;
652.2000;0.7749;1.2161;
652.5000;0.7757;1.2209;
652.8000;0.7757;1.2161;
653.1000;0.7749;1.2257;
653.4000;0.7741;1.2306;
653.7000;0.7757;1.2402;
654.0000;0.7733;1.2330;
654.3000;0.7717;1.2426;
654.6000;0.7733;1.2572;
654.9000;0.7717;1.2596;
655.2000;0.7668;1.2451;
655.5000;0.7709;1.2596;
655.8000;0.7684;1.2572;
656.1000;0.7627;1.2426;
656.4000;0.7766;1.2644;
656.7000;0.7676;1.2451;
657.0000;0.7684;1.2451;
657.3000;0.7684;1.2523;
657.6000;0.7668;1.2547;
657.9000;0.7660;1.2523;
658.2000;0.7643;1.2475;
658.5000;0.7652;1.2451;
658.8000;0.7660;1.2451;
659.1000;0.7660;1.2499;
659.4000;0.7635;1.2426;
659.7000;0.7652;1.2475;
660.0000;0.7627;1.2281;
660.3000;0.7619;1.2306;
660.6000;0.7627;1.2426;
660.9000;0.7627;1.2426;
661.2000;0.7611;1.2354;
661.5000;0.7603;1.2426;
661.8000;0.7619;1.2451;
662.1000;0.7619;1.2451;
662.4000;0.7570;1.2402;
662.7000;0.7586;1.2572;
663.0000;0.7603;1.2475;
663.3000;0.7562;1.2402;
663.6000;0.7586;1.2499;
663.9000;0.7578;1.2426;
664.2000;0.7603;1.2547;
664.5000;0.7586;1.2426;
664.8000;0.7562;1.2451;
665.1000;0.7595;1.2451;
665.4000;0.7570;1.2330;
665.7000;0.7538;1.2378;
666.0000;0.7521;1.2378;
666.3000;0.7546;1.2426;
666.6000;0.7505;1.2330;
666.9000;0.7521;1.2402;
667.2000;0.7530;1.2451;
667.5000;0.7538;1.2475;
667.8000;0.7448;1.2281;
668.1000;0.7497;1.2426;
668.4000;0.7497;1.2378;
668.7000;0.7432;1.2233;
669.0000;0.7497;1.2451;
669.3000;0.7521;1.2596;
669.6000;0.7538;1.2572;
669.9000;0.7473;1.2402;
670.2000;0.7473;1.2547;
670.5000;0.7464;1.2717;
670.8000;0.7456;1.2572;
671.1000;0.7489;1.2692;
671.4000;0.7432;1.2547;
671.7000;0.7440;1.2620;
672.0000;0.7448;1.2572;
672.3000;0.7448;1.2596;
672.6000;0.7440;1.2547;
672.9000;0.7448;1.2572;
673.2000;0.7456;1.2547;
673.5000;0.7440;1.2499;
673.8000;0.7440;1.2475;
674.1000;0.7424;1.2523;
674.4000;0.7424;1.2523;
674.7000;0.7448;1.2523;
675.0000;0.7456;1.2547;
675.3000;0.7407;1.2426;
675.6000;0.7416;1.2523;
675.9000;0.7407;1.2523;
676.2000;0.7375;1.2402;
676.5000;0.7375;1.2426;
676.8000;0.7375;1.2499;
677.1000;0.7424;1.2644;
677.4000;0.7383;1.2572;
677.7000;0.7375;1.2523;
678.0000;0.7318;1.2354;
678.3000;0.7383;1.2572;
678.6000;0.7367;1.2620;
678.9000;0.7359;1.2523;
679.2000;0.7367;1.2547;
679.5000;0.7375;1.2596;
679.8000;0.7359;1.2572;
680.1000;0.7350;1.2644;
680.4000;0.7350;1.2644;
680.7000;0.7350;1.2596;
681.0000;0.7318;1.2523;
681.3000;0.7318;1.2523;
681.6000;0.7326;1.2499;
681.9000;0.7318;1.2499;
682.2000;0.7326;1.2596;
682.5000;0.7326;1.2668;
682.8000;0.7318;1.2717;
683.1000;0.7359;1.2765;
683.4000;0.7326;1.2620;
683.7000;0.7310;1.2572;
684.0000;0.7302;1.2475;
684.3000;0.7310;1.2523;
684.6000;0.7318;1.2572;
684.9000;0.7310;1.2620;
685.2000;0.7302;1.2668;
685.5000;0.7277;1.2596;
685.8000;0.7293;1.2596;
686.1000;0.7269;1.2572;
686.4000;0.7269;1.2620;
686.7000;0.7269;1.2668;
687.0000;0.7253;1.2596;
687.3000;0.7277;1.2620;
687.6000;0.7269;1.2547;
687.9000;0.7245;1.2572;
688.2000;0.7236;1.2572;
688.5000;0.7269;1.2620;
688.8000;0.7253;1.2644;
689.1000;0.7253;1.2717;
689.4000;0.7236;1.2620;
689.7000;0.7245;1.2741;
690.0000;0.7253;1.2837;
690.3000;0.7220;1.2741;
690.6000;0.7228;1.2741;
690.9000;0.7228;1.2668;
691.2000;0.7228;1.2572;
691.5000;0.7220;1.2668;
691.8000;0.7212;1.2692;
692.1000;0.7228;1.2862;
692.4000;0.7228;1.2813;
692.7000;0.7261;1.2789;
693.0000;0.7212;1.2644;
693.3000;0.7204;1.2644;
693.6000;0.7212;1.2547;
693.9000;0.7179;1.2523;
694.2000;0.7220;1.2644;
694.5000;0.7204;1.2572;
694.8000;0.7212;1.2620;
695.1000;0.7188;1.2523;
695.4000;0.7123;1.2402;
695.7000;0.7179;1.2547;
696.0000;0.7179;1.2499;
696.3000;0.7196;1.2547;
696.6000;0.7179;1.2596;
696.9000;0.7163;1.2523;
697.2000;0.7179;1.2572;
697.5000;0.7171;1.2620;
697.8000;0.7155;1.2596;
698.1000;0.7179;1.2644;
698.4000;0.7171;1.2741;
698.7000;0.7163;1.2765;
699.0000;0.7123;1.2717;
699.3000;0.7139;1.2765;
699.6000;0.7155;1.2813;
699.9000;0.7147;1.2789;
700.2000;0.7155;1.2910;
700.5000;0.7139;1.2789;
700.8000;0.7147;1.2813;
701.1000;0.7147;1.2837;
701.4000;0.7123;1.2644;
701.7000;0.7131;1.2523;
702.0000;0.7123;1.2596;
702.3000;0.7131;1.2765;
702.6000;0.7212;1.3031;
702.9000;0.7123;1.2741;
703.2000;0.7131;1.2886;
703.5000;0.7114;1.2934;
703.8000;0.7131;1.2934;
704.1000;0.7114;1.2910;
704.4000;0.7090;1.2862;
704.7000;0.7114;1.2934;
705.0000;0.7106;1.2862;
705.3000;0.7114;1.2862;
705.6000;0.7123;1.2934;
705.9000;0.7090;1.2813;
706.2000;0.7090;1.2813;
706.5000;0.7090;1.2862;
706.8000;0.7131;1.2934;
707.1000;0.7049;1.2765;
707.4000;0.7082;1.2982;
707.7000;0.7090;1.3007;
708.0000;0.7082;1.2934;
708.3000;0.7082;1.2886;
708.6000;0.7074;1.2813;
708.9000;0.7090;1.2910;
709.2000;0.7049;1.2789;
709.5000;0.7033;1.2765;
709.8000;0.7066;1.2813;
710.1000;0.7082;1.2837;
710.4000;0.7074;1.2813;
710.7000;0.7114;1.2886;
711.0000;0.7049;1.2765;
711.3000;0.7057;1.2934;
711.6000;0.7041;1.2934;
711.9000;0.7033;1.2982;
712.2000;0.7033;1.3055;
712.5000;0.7041;1.3007;
712.8000;0.7033;1.3007;
713.1000;0.7041;1.3007;
713.4000;0.7025;1.2982;
713.7000;0.7041;1.3031;
714.0000;0.7057;1.2934;
714.3000;0.7041;1.2982;
714.6000;0.7033;1.2982;
714.9000;0.7049;1.3031;
715.2000;0.7041;1.3055;
715.5000;0.7049;1.3079;
715.8000;0.7049;1.3055;
716.1000;0.7017;1.2958;
716.4000;0.7033;1.3079;
716.7000;0.7025;1.3031;
717.0000;0.7000;1.3031;
717.3000;0.7009;1.3128;
717.6000;0.7017;1.3079;
717.9000;0.7033;1.3031;
718.2000;0.7000;1.2982;
718.5000;0.7131;1.3248;
718.8000;0.7041;1.3031;
719.1000;0.7000;1.2910;
719.4000;0.7000;1.2886;
719.7000;0.7009;1.2910;
720.0000;0.6992;1.2862;
720.3000;0.7049;1.3103;
720.6000;0.7009;1.3176;
720.9000;0.7041;1.3224;
721.2000;0.6992;1.3103;
721.5000;0.7009;1.3152;
721.8000;0.6984;1.3152;
722.1000;0.6976;1.3200;
722.4000;0.6992;1.3200;
722.7000;0.6984;1.3152;
723.0000;0.6919;1.2910;
723.3000;0.6984;1.2982;
723.6000;0.6984;1.3031;
723.9000;0.6976;1.2982;
724.2000;0.6976;1.3007;
724.5000;0.6968;1.2958;
724.8000;0.6943;1.2958;
725.1000;0.6935;1.2886;
725.4000;0.6960;1.2982;
725.7000;0.6960;1.2982;
726.0000;0.6952;1.3007;
726.3000;0.6952;1.3007;
726.6000;0.6960;1.3079;
726.9000;0.6952;1.3055;
727.2000;0.6952;1.2958;
727.5000;0.6952;1.2982;
727.8000;0.6927;1.2910;
728.1000;0.6911;1.2862;
728.4000;0.6935;1.2837;
728.7000;0.6927;1.2886;
729.0000;0.7009;1.2982;
729.3000;0.6943;1.2837;
729.6000;0.6927;1.2765;
729.9000;0.6943;1.2765;
730.2000;0.6943;1.2886;
730.5000;0.6903;1.2813;
730.8000;0.6919;1.2934;
731.1000;0.6919;1.2886;
731.4000;0.6911;1.2813;
731.7000;0.6927;1.2958;
732.0000;0.6911;1.2982;
732.3000;0.6903;1.2910;
732.6000;0.6903;1.2958;
732.9000;0.6919;1.2910;
733.2000;0.6919;1.2837;
733.5000;0.6903;1.2765;
733.8000;0.6870;1.2692;
734.1000;0.6895;1.2837;
734.4000;0.6911;1.2886;
734.7000;0.6895;1.2862;
735.0000;0.6919;1.2910;
735.3000;0.6911;1.2765;
735.6000;0.6927;1.2813;
735.9000;0.6919;1.2813;
736.2000;0.6895;1.2692;
736.5000;0.6854;1.2451;
736.8000;0.6886;1.2596;
737.1000;0.6919;1.2741;
737.4000;0.6878;1.2644;
737.7000;0.6895;1.2620;
738.0000;0.6903;1.2692;
738.3000;0.6911;1.2741;
738.6000;0.6895;1.2789;
738.9000;0.6919;1.2837;
739.2000;0.6886;1.2886;
739.5000;0.6895;1.2934;
739.8000;0.6895;1.2837;
740.1000;0.6895;1.2837;
740.4000;0.6878;1.2862;
740.7000;0.6878;1.2910;
741.0000;0.6862;1.2862;
741.3000;0.6886;1.2934;
741.6000;0.6829;1.2934;
741.9000;0.7000;1.3369;
742.2000;0.6878;1.2982;
742.5000;0.6862;1.2862;
742.8000;0.6813;1.2741;
743.1000;0.6878;1.2837;
743.4000;0.6870;1.2741;
743.7000;0.6854;1.2813;
744.0000;0.6797;1.2644;
744.3000;0.6911;1.3007;
744.6000;0.6821;1.2668;
744.9000;0.6829;1.2765;
745.2000;0.6846;1.2765;
745.5000;0.6854;1.2765;
745.8000;0.6829;1.2741;
746.1000;0.6838;1.2813;
746.4000;0.6846;1.2741;
746.7000;0.6870;1.2717;
747.0000;0.6813;1.2572;
747.3000;0.6846;1.2620;
747.6000;0.6838;1.2572;
747.9000;0.6846;1.2644;
748.2000;0.6878;1.2765;
748.5000;0.6862;1.2741;
748.8000;0.6813;1.2692;
749.1000;0.6829;1.2717;
749.4000;0.6813;1.2789;
749.7000;0.6846;1.2934;
750.0000;0.6838;1.2862;
750.3000;0.6838;1.2910;
750.6000;0.6838;1.2910;
750.9000;0.6829;1.2934;
751.2000;0.6838;1.2886;
751.5000;0.6821;1.2862;
751.8000;0.6829;1.2934;
752.1000;0.6838;1.2910;
752.4000;0.6813;1.2958;
752.7000;0.6821;1.3031;
753.0000;0.6829;1.2934;
753.3000;0.6838;1.2910;
753.6000;0.6821;1.2910;
753.9000;0.6813;1.2886;
754.2000;0.6805;1.2813;
754.5000;0.6813;1.2765;
754.8000;0.6829;1.2837;
755.1000;0.6829;1.2813;
755.4000;0.6772;1.2789;
755.7000;0.6805;1.2813;
756.0000;0.6805;1.2910;
756.3000;0.6829;1.2982;
756.6000;0.6797;1.2934;
756.9000;0.6829;1.2910;
757.2000;0.6838;1.2934;
757.5000;0.6797;1.2862;
757.8000;0.6821;1.2982;
758.1000;0.6789;1.2982;
758.4000;0.6789;1.2982;
758.7000;0.6789;1.2862;
759.0000;0.6789;1.2862;
759.3000;0.6756;1.2765;
759.6000;0.6797;1.2886;
759.9000;0.6805;1.2910;
760.2000;0.6789;1.2886;
760.5000;0.6838;1.2934;
760.8000;0.6821;1.3007;
761.1000;0.6813;1.3031;
761.4000;0.6772;1.2886;
761.7000;0.6764;1.2837;
762.0000;0.6772;1.2958;
762.3000;0.6772;1.3079;
762.6000;0.6772;1.3007;
762.9000;0.6772;1.2982;
763.2000;0.6805;1.3055;
763.5000;0.6797;1.3007;
763.8000;0.6707;1.2813;
764.1000;0.6772;1.2958;
764.4000;0.6781;1.2958;
764.7000;0.6748;1.2886;
765.0000;0.6772;1.2958;
765.3000;0.6772;1.2813;
765.6000;0.6846;1.2910;
765.9000;0.6805;1.2837;
766.2000;0.6764;1.2813;
766.5000;0.6756;1.2813;
766.8000;0.6756;1.2789;
767.1000;0.6748;1.2692;
767.4000;0.6740;1.2717;
767.7000;0.6756;1.2813;
768.0000;0.6764;1.2934;
768.3000;0.6748;1.3103;
768.6000;0.6756;1.3152;
768.9000;0.6748;1.3176;
769.2000;0.6716;1.3055;
769.5000;0.6724;1.3055;
769.8000;0.6740;1.3128;
770.1000;0.6764;1.3152;
770.4000;0.6732;1.3103;
770.7000;0.6764;1.3103;
771.0000;0.6764;1.3055;
771.3000;0.6756;1.2958;
771.6000;0.6740;1.2910;
771.9000;0.6740;1.2910;
772.2000;0.6740;1.2958;
772.5000;0.6748;1.3007;
772.8000;0.6732;1.3031;
773.1000;0.6797;1.3176;
773.4000;0.6740;1.3055;
773.7000;0.6748;1.3079;
774.0000;0.6740;1.3079;
774.3000;0.6724;1.3007;
774.6000;0.6732;1.2982;
774.9000;0.6724;1.2982;
775.2000;0.6724;1.2982;
775.5000;0.6756;1.2982;
775.8000;0.6740;1.2910;
776.1000;0.6732;1.2886;
776.4000;0.6732;1.2862;
776.7000;0.6740;1.2958;
777.0000;0.6724;1.3031;
777.3000;0.6740;1.3055;
777.6000;0.6707;1.3031;
777.9000;0.6732;1.3176;
778.2000;0.6724;1.3297;
778.5000;0.6716;1.3345;
778.8000;0.6707;1.3248;
779.1000;0.6667;1.3079;
779.4000;0.6716;1.3200;
779.7000;0.6724;1.3297;
780.0000;0.6724;1.3321;
780.3000;0.6732;1.3321;
780.6000;0.6707;1.3297;
780.9000;0.6716;1.3248;
781.2000;0.6716;1.3200;
781.5000;0.6618;1.2862;
781.8000;0.6707;1.3079;
782.1000;0.6716;1.3128;
782.4000;0.6716;1.3103;
782.7000;0.6732;1.3055;
783.0000;0.6699;1.3055;
783.3000;0.6716;1.3103;
783.6000;0.6699;1.3103;
783.9000;0.6724;1.3176;
784.2000;0.6707;1.3103;
784.5000;0.6707;1.3079;
784.8000;0.6691;1.3007;
785.1000;0.6699;1.3031;
785.4000;0.6707;1.3079;
785.7000;0.6602;1.2886;
786.0000;0.6675;1.3055;
786.3000;0.6683;1.3007;
786.6000;0.6707;1.3055;
786.9000;0.6691;1.2982;
787.2000;0.6691;1.3055;
787.5000;0.6650;1.2982;
787.8000;0.6691;1.3055;
788.1000;0.6691;1.3055;
788.4000;0.6675;1.3031;
788.7000;0.6667;1.3055;
789.0000;0.6699;1.3128;
789.3000;0.6724;1.3248;
789.6000;0.6691;1.3273;
789.9000;0.6716;1.3345;
790.2000;0.6683;1.3224;
790.5000;0.6683;1.3224;
790.8000;0.6675;1.3176;
791.1000;0.6675;1.3176;
791.4000;0.6675;1.3200;
791.7000;0.6667;1.3200;
792.0000;0.6764;1.3369;
792.3000;0.6683;1.3176;
792.6000;0.6716;1.3248;
792.9000;0.6691;1.3273;
793.2000;0.6691;1.3297;
793.5000;0.6683;1.3345;
793.8000;0.6699;1.3273;
794.1000;0.6675;1.3200;
794.4000;0.6683;1.3273;
794.7000;0.6667;1.3321;
795.0000;0.6650;1.3248;
795.3000;0.6650;1.3200;
795.6000;0.6618;1.3007;
795.9000;0.6634;1.3152;
796.2000;0.6659;1.3128;
796.5000;0.6667;1.3128;
796.8000;0.6683;1.3200;
797.1000;0.6650;1.3152;
797.4000;0.6626;1.3128;
797.7000;0.6675;1.3224;
798.0000;0.6659;1.3176;
798.3000;0.6659;1.3176;
798.6000;0.6659;1.3152;
798.9000;0.6659;1.3200;
799.2000;0.6659;1.3200;
799.5000;0.6667;1.3176;
799.8000;0.6642;1.3103;
800.1000;0.6650;1.3079;
800.4000;0.6659;1.3007;
800.7000;0.6675;1.3079;
801.0000;0.6683;1.3176;
801.3000;0.6683;1.3224;
801.6000;0.6667;1.3297;
801.9000;0.6667;1.3273;
802.2000;0.6683;1.3224;
802.5000;0.6634;1.3128;
802.8000;0.6650;1.3297;
803.1000;0.6634;1.3297;
803.4000;0.6691;1.3418;
803.7000;0.6659;1.3297;
804.0000;0.6659;1.3200;
804.3000;0.6683;1.3200;
804.6000;0.6667;1.3152;
804.9000;0.6618;1.3031;
805.2000;0.6740;1.3297;
805.5000;0.6659;1.3128;
805.8000;0.6642;1.3152;
806.1000;0.6642;1.3079;
806.4000;0.6618;1.3079;
806.7000;0.6634;1.3128;
807.0000;0.6667;1.3176;
807.3000;0.6634;1.3103;
807.6000;0.6642;1.3152;
807.9000;0.6642;1.3224;
808.2000;0.6642;1.3273;
808.5000;0.6724;1.3514;
808.8000;0.6642;1.3345;
809.1000;0.6626;1.3321;
809.4000;0.6634;1.3369;
809.7000;0.6634;1.3297;
810.0000;0.6602;1.3248;
810.3000;0.6610;1.3297;
810.6000;0.6634;1.3297;
810.9000;0.6642;1.3273;
811.2000;0.6610;1.3176;
811.5000;0.6585;1.3079;
811.8000;0.6626;1.3152;
812.1000;0.6634;1.3248;
812.4000;0.6626;1.3273;
812.7000;0.6618;1.3224;
813.0000;0.6667;1.3321;
813.3000;0.6618;1.3248;
813.6000;0.6618;1.3248;
813.9000;0.6626;1.3297;
814.2000;0.6602;1.3248;
814.5000;0.6610;1.3224;
814.8000;0.6553;1.3200;
815.1000;0.6667;1.3466;
815.4000;0.6626;1.3273;
815.7000;0.6610;1.3273;
816.0000;0.6650;1.3297;
816.3000;0.6634;1.3176;
816.6000;0.6610;1.3273;
816.9000;0.6618;1.3248;
817.2000;0.6626;1.3248;
817.5000;0.6602;1.3297;
817.8000;0.6602;1.3297;
818.1000;0.6593;1.3248;
818.4000;0.6602;1.3248;
818.7000;0.6610;1.3224;
819.0000;0.6593;1.3297;
819.3000;0.6602;1.3297;
819.6000;0.6618;1.3345;
819.9000;0.6610;1.3224;
820.2000;0.6667;1.3345;
820.5000;0.6593;1.3248;
820.8000;0.6593;1.3224;
821.1000;0.6618;1.3200;
821.4000;0.6610;1.3128;
821.7000;0.6650;1.3273;
822.0000;0.6561;1.3103;
822.3000;0.6602;1.3176;
822.6000;0.6618;1.3200;
822.9000;0.6593;1.3200;
823.2000;0.6610;1.3297;
823.5000;0.6593;1.3297;
823.8000;0.6602;1.3248;
824.1000;0.6659;1.3369;
824.4000;0.6593;1.3176;
824.7000;0.6593;1.3248;
825.0000;0.6593;1.3297;
825.3000;0.6593;1.3297;
825.6000;0.6610;1.3369;
825.9000;0.6593;1.3273;
826.2000;0.6585;1.3224;
826.5000;0.6593;1.3200;
826.8000;0.6585;1.3200;
827.1000;0.6610;1.3176;
827.4000;0.6577;1.3128;
827.7000;0.6602;1.3200;
828.0000;0.6585;1.3200;
828.3000;0.6577;1.3079;
828.6000;0.6618;1.3248;
828.9000;0.6602;1.3152;
829.2000;0.6585;1.3055;
829.5000;0.6585;1.3152;
829.8000;0.6585;1.3152;
830.1000;0.6593;1.3176;
830.4000;0.6545;1.3103;
830.7000;0.6585;1.3248;
831.0000;0.6585;1.3152;
831.3000;0.6585;1.3200;
831.6000;0.6545;1.3103;
831.9000;0.6569;1.3128;
832.2000;0.6585;1.3079;
832.5000;0.6585;1.3128;
832.8000;0.6528;1.2910;
833.1000;0.6569;1.3055;
833.4000;0.6569;1.3103;
833.7000;0.6610;1.3224;
834.0000;0.6593;1.3128;
834.3000;0.6528;1.2958;
834.6000;0.6626;1.3176;
834.9000;0.6577;1.3176;
835.2000;0.6569;1.3200;
835.5000;0.6577;1.3297;
835.8000;0.6602;1.3418;
836.1000;0.6602;1.3442;
836.4000;0.6667;1.3490;
836.7000;0.6602;1.3224;
837.0000;0.6593;1.3248;
837.3000;0.6545;1.3055;
837.6000;0.6569;1.3103;
837.9000;0.6553;1.3007;
838.2000;0.6561;1.2982;
838.5000;0.6553;1.3007;
838.8000;0.6569;1.3055;
839.1000;0.6577;1.3031;
839.4000;0.6553;1.2982;
839.7000;0.6569;1.3055;
840.0000;0.6577;1.3031;
840.3000;0.6561;1.3007;
840.6000;0.6569;1.3103;
840.9000;0.6577;1.3200;
841.2000;0.6561;1.3079;
841.5000;0.6561;1.3200;
841.8000;0.6553;1.3200;
842.1000;0.6496;1.3079;
842.4000;0.6553;1.3200;
842.7000;0.6577;1.3224;
843.0000;0.6528;1.3152;
843.3000;0.6553;1.3176;
843.6000;0.6577;1.3273;
843.9000;0.6553;1.3176;
844.2000;0.6569;1.3176;
844.5000;0.6561;1.3200;
844.8000;0.6561;1.3297;
845.1000;0.6561;1.3321;
845.4000;0.6553;1.3297;
845.7000;0.6553;1.3176;
846.0000;0.6569;1.3152;
846.3000;0.6569;1.3224;
846.6000;0.6569;1.3345;
846.9000;0.6585;1.3418;
847.2000;0.6528;1.3248;
847.5000;0.6545;1.3200;
847.8000;0.6569;1.3273;
848.1000;0.6553;1.3321;
848.4000;0.6528;1.3297;
848.7000;0.6520;1.3297;
849.0000;0.6536;1.3345;
849.3000;0.6545;1.3224;
849.6000;0.6561;1.3200;
849.9000;0.6561;1.3200;
850.2000;0.6553;1.3200;
850.5000;0.6561;1.3176;
850.8000;0.6536;1.3103;
851.1000;0.6488;1.3007;
851.4000;0.6593;1.3224;
851.7000;0.6569;1.3200;
852.0000;0.6545;1.3152;
852.3000;0.6520;1.3224;
852.6000;0.6536;1.3248;
852.9000;0.6569;1.3248;
853.2000;0.6561;1.3321;
853.5000;0.6520;1.3224;
853.8000;0.6520;1.3248;
854.1000;0.6553;1.3248;
854.4000;0.6536;1.3176;
854.7000;0.6431;1.2982;
855.0000;0.6536;1.3273;
855.3000;0.6545;1.3321;
855.6000;0.6553;1.3297;
855.9000;0.6536;1.3200;
856.2000;0.6536;1.3224;
856.5000;0.6520;1.3200;
856.8000;0.6642;1.3490;
857.1000;0.6536;1.3273;
857.4000;0.6520;1.3224;
857.7000;0.6561;1.3345;
858.0000;0.6520;1.3248;
858.3000;0.6471;1.3055;
858.6000;0.6471;1.2934;
858.9000;0.6569;1.3248;
859.2000;0.6577;1.3321;
859.5000;0.6512;1.3055;
859.8000;0.6512;1.3152;
860.1000;0.6512;1.3152;
860.4000;0.6431;1.2958;
860.7000;0.6528;1.3176;
861.0000;0.6520;1.3176;
861.3000;0.6496;1.3055;
861.6000;0.6545;1.3152;
861.9000;0.6422;1.2837;
862.2000;0.6520;1.3055;
862.5000;0.6528;1.3007;
862.8000;0.6520;1.3079;
863.1000;0.6536;1.3055;
863.4000;0.6504;1.3055;
863.7000;0.6520;1.3007;
864.0000;0.6496;1.2982;
864.3000;0.6520;1.3055;
864.6000;0.6569;1.3176;
864.9000;0.6512;1.3031;
865.2000;0.6504;1.3055;
865.5000;0.6536;1.3103;
865.8000;0.6634;1.3393;
866.1000;0.6504;1.3031;
866.4000;0.6536;1.3176;
866.7000;0.6512;1.3200;
867.0000;0.6512;1.3055;
867.3000;0.6504;1.3103;
867.6000;0.6512;1.3128;
867.9000;0.6512;1.3176;
868.2000;0.6520;1.3273;
868.5000;0.6488;1.3200;
868.8000;0.6504;1.3152;
869.1000;0.6520;1.3248;
869.4000;0.6512;1.3224;
869.7000;0.6536;1.3273;
870.0000;0.6496;1.3152;
870.3000;0.6528;1.3248;
870.6000;0.6504;1.3248;
870.9000;0.6512;1.3248;
871.2000;0.6479;1.3152;
871.5000;0.6504;1.3273;
871.8000;0.6496;1.3248;
872.1000;0.6520;1.3369;
872.4000;0.6496;1.3345;
872.7000;0.6520;1.3297;
873.0000;0.6479;1.3079;
873.3000;0.6512;1.3079;
873.6000;0.6488;1.3007;
873.9000;0.6504;1.3007;
874.2000;0.6496;1.3055;
874.5000;0.6496;1.3176;
874.8000;0.6504;1.3224;
875.1000;0.6479;1.3200;
875.4000;0.6463;1.3079;
875.7000;0.6520;1.3176;
876.0000;0.6512;1.3176;
876.3000;0.6512;1.3200;
876.6000;0.6496;1.3200;
876.9000;0.6455;1.3200;
877.2000;0.6496;1.3200;
877.5000;0.6496;1.3152;
877.8000;0.6496;1.3200;
878.1000;0.6496;1.3152;
878.4000;0.6512;1.3248;
878.7000;0.6471;1.3152;
879.0000;0.6496;1.3248;
879.3000;0.6496;1.3248;
879.6000;0.6504;1.3176;
879.9000;0.6512;1.3224;
880.2000;0.6471;1.3248;
880.5000;0.6479;1.3345;
880.8000;0.6479;1.3345;
881.1000;0.6488;1.3345;
881.4000;0.6471;1.3273;
881.7000;0.6463;1.3273;
882.0000;0.6496;1.3345;
882.3000;0.6471;1.3297;
882.6000;0.6479;1.3321;
882.9000;0.6593;1.3635;
883.2000;0.6504;1.3321;
883.5000;0.6479;1.3224;
883.8000;0.6479;1.3224;
884.1000;0.6455;1.3128;
884.4000;0.6520;1.3345;
884.7000;0.6528;1.3466;
885.0000;0.6496;1.3466;
885.3000;0.6488;1.3490;
885.6000;0.6479;1.3345;
885.9000;0.6504;1.3200;
886.2000;0.6488;1.3103;
886.5000;0.6504;1.2982;
886.8000;0.6496;1.2958;
887.1000;0.6463;1.2862;
887.4000;0.6488;1.2982;
887.7000;0.6479;1.2958;
888.0000;0.6488;1.3007;
888.3000;0.6479;1.2934;
888.6000;0.6488;1.2934;
888.9000;0.6479;1.2958;
889.2000;0.6463;1.2934;
889.5000;0.6488;1.3031;
889.8000;0.6471;1.3079;
890.1000;0.6488;1.3176;
890.4000;0.6471;1.3152;
890.7000;0.6471;1.3055;
891.0000;0.6479;1.2958;
891.3000;0.6455;1.2886;
891.6000;0.6471;1.2886;
891.9000;0.6479;1.3055;
892.2000;0.6463;1.2958;
892.5000;0.6463;1.2934;
892.8000;0.6471;1.2982;
893.1000;0.6496;1.3031;
893.4000;0.6479;1.3055;
893.7000;0.6504;1.3152;
894.0000;0.6463;1.3103;
894.3000;0.6504;1.3297;
894.6000;0.6488;1.3273;
894.9000;0.6479;1.3345;
895.2000;0.6512;1.3393;
895.5000;0.6374;1.3031;
895.8000;0.6528;1.3321;
896.1000;0.6488;1.3273;
896.4000;0.6479;1.3248;
896.7000;0.6471;1.3273;
897.0000;0.6479;1.3442;
897.3000;0.6382;1.3273;
897.6000;0.6471;1.3369;
897.9000;0.6447;1.3369;
898.2000;0.6545;1.3563;
898.5000;0.6471;1.3466;
898.8000;0.6463;1.3466;
899.1000;0.6471;1.3369;
899.4000;0.6455;1.3393;
899.7000;0.6471;1.3393;
900.0000;0.6463;1.3321;
900.3000;0.6406;1.3128;
900.6000;0.6455;1.3248;
900.9000;0.6455;1.3176;
901.2000;0.6455;1.3152;
901.5000;0.6447;1.3176;
901.8000;0.6479;1.3273;
902.1000;0.6439;1.3176;
902.4000;0.6414;1.3152;
902.7000;0.6463;1.3224;
903.0000;0.6447;1.3273;
903.3000;0.6463;1.3321;
903.6000;0.6479;1.3393;
903.9000;0.6512;1.3442;
904.2000;0.6496;1.3418;
904.5000;0.6488;1.3297;
904.8000;0.6463;1.3273;
905.1000;0.6488;1.3297;
905.4000;0.6455;1.3273;
905.7000;0.6463;1.3273;
906.0000;0.6455;1.3297;
906.3000;0.6479;1.3369;
906.6000;0.6455;1.3176;
906.9000;0.6471;1.3200;
907.2000;0.6439;1.3128;
907.5000;0.6447;1.3128;
907.8000;0.6463;1.3297;
908.1000;0.6463;1.3345;
908.4000;0.6463;1.3297;
908.7000;0.6455;1.3321;
909.0000;0.6357;1.3128;
909.3000;0.6447;1.3345;
909.6000;0.6439;1.3297;
909.9000;0.6365;1.3007;
910.2000;0.6398;1.2958;
910.5000;0.6431;1.3079;
910.8000;0.6455;1.3152;
911.1000;0.6390;1.3152;
911.4000;0.6447;1.3297;
911.7000;0.6439;1.3345;
912.0000;0.6422;1.3345;
912.3000;0.6463;1.3418;
912.6000;0.6439;1.3297;
912.9000;0.6439;1.3297;
913.2000;0.6398;1.3176;
913.5000;0.6447;1.3466;
913.8000;0.6455;1.3490;
914.1000;0.6455;1.3490;
914.4000;0.6455;1.3587;
914.7000;0.6439;1.3539;
915.0000;0.6447;1.3490;
915.3000;0.6447;1.3490;
915.6000;0.6463;1.3539;
915.9000;0.6431;1.3514;
916.2000;0.6439;1.3563;
916.5000;0.6431;1.3442;
916.8000;0.6431;1.3345;
917.1000;0.6439;1.3321;
917.4000;0.6447;1.3345;
917.7000;0.6439;1.3297;
918.0000;0.6463;1.3321;
918.3000;0.6463;1.3393;
918.6000;0.6447;1.3418;
918.9000;0.6471;1.3442;
919.2000;0.6463;1.3369;
919.5000;0.6447;1.3369;
919.8000;0.6422;1.3393;
920.1000;0.6422;1.3393;
920.4000;0.6447;1.3514;
920.7000;0.6496;1.3539;
921.0000;0.6439;1.3490;
921.3000;0.6439;1.3466;
921.6000;0.6447;1.3490;
921.9000;0.6455;1.3466;
922.2000;0.6512;1.3635;
922.5000;0.6431;1.3418;
922.8000;0.6431;1.3393;
923.1000;0.6439;1.3466;
923.4000;0.6431;1.3369;
923.7000;0.6431;1.3345;
924.0000;0.6512;1.3611;
924.3000;0.6447;1.3369;
924.6000;0.6431;1.3321;
924.9000;0.6422;1.3321;
925.2000;0.6422;1.3466;
925.5000;0.6431;1.3466;
925.8000;0.6431;1.3442;
926.1000;0.6422;1.3539;
926.4000;0.6431;1.3369;
926.7000;0.6431;1.3393;
927.0000;0.6422;1.3297;
927.3000;0.6431;1.3224;
927.6000;0.6479;1.3273;
927.9000;0.6463;1.3345;
928.2000;0.6455;1.3176;
928.5000;0.6431;1.3128;
928.8000;0.6431;1.3176;
929.1000;0.6431;1.3200;
929.4000;0.6447;1.3297;
929.7000;0.6422;1.3200;
930.0000;0.6414;1.3224;
930.3000;0.6406;1.3224;
930.6000;0.6431;1.3273;
930.9000;0.6447;1.3393;
931.2000;0.6447;1.3393;
931.5000;0.6382;1.3321;
931.8000;0.6431;1.3369;
932.1000;0.6398;1.3345;
932.4000;0.6422;1.3418;
932.7000;0.6406;1.3418;
933.0000;0.6431;1.3442;
933.3000;0.6422;1.3297;
933.6000;0.6447;1.3321;
933.9000;0.6422;1.3297;
934.2000;0.6414;1.3297;
934.5000;0.6414;1.3224;
934.8000;0.6414;1.3224;
935.1000;0.6398;1.3248;
935.4000;0.6422;1.3248;
935.7000;0.6496;1.3442;
936.0000;0.6422;1.3297;
936.3000;0.6422;1.3248;
936.6000;0.6422;1.3273;
936.9000;0.6431;1.3248;
937.2000;0.6431;1.3345;
937.5000;0.6357;1.3152;
937.8000;0.6422;1.3248;
938.1000;0.6439;1.3248;
938.4000;0.6406;1.3200;
938.7000;0.6398;1.3224;
939.0000;0.6439;1.3297;
939.3000;0.6414;1.3273;
939.6000;0.6422;1.3273;
939.9000;0.6414;1.3273;
940.2000;0.6398;1.3224;
940.5000;0.6414;1.3176;
940.8000;0.6406;1.3248;
941.1000;0.6422;1.3273;
941.4000;0.6414;1.3152;
941.7000;0.6455;1.3224;
942.0000;0.6422;1.3128;
942.3000;0.6431;1.3079;
942.6000;0.6422;1.3055;
942.9000;0.6414;1.3103;
943.2000;0.6422;1.3224;
943.5000;0.6422;1.3224;
943.8000;0.6406;1.3200;
944.1000;0.6398;1.3200;
944.4000;0.6390;1.3079;
944.7000;0.6374;1.3079;
945.0000;0.6398;1.3128;
945.3000;0.6398;1.3103;
945.6000;0.6406;1.3200;
945.9000;0.6398;1.3128;
946.2000;0.6398;1.3200;
946.5000;0.6431;1.3200;
946.8000;0.6414;1.3200;
947.1000;0.6398;1.3176;
947.4000;0.6422;1.3200;
947.7000;0.6365;1.3079;
948.0000;0.6406;1.3224;
948.3000;0.6414;1.3297;
948.6000;0.6414;1.3321;
948.9000;0.6406;1.3248;
949.2000;0.6496;1.3442;
949.5000;0.6414;1.3273;
949.8000;0.6406;1.3273;
950.1000;0.6357;1.3176;
950.4000;0.6431;1.3273;
950.7000;0.6431;1.3224;
951.0000;0.6398;1.3103;
951.3000;0.6357;1.3031;
951.6000;0.6349;1.3031;
951.9000;0.6496;1.3321;
952.2000;0.6455;1.3369;
952.5000;0.6414;1.3321;
952.8000;0.6374;1.3176;
953.1000;0.6422;1.3224;
953.4000;0.6447;1.3297;
953.7000;0.6357;1.3031;
954.0000;0.6382;1.2958;
954.3000;0.6414;1.3055;
954.6000;0.6406;1.3079;
954.9000;0.6431;1.3224;
955.2000;0.6390;1.3128;
955.5000;0.6414;1.3176;
955.8000;0.6406;1.3128;
956.1000;0.6406;1.3152;
956.4000;0.6390;1.3103;
956.7000;0.6382;1.3128;
957.0000;0.6455;1.3273;
957.3000;0.6398;1.3200;
957.6000;0.6390;1.3176;
957.9000;0.6414;1.3200;
958.2000;0.6406;1.3273;
958.5000;0.6398;1.3176;
958.8000;0.6406;1.3224;
959.1000;0.6398;1.3273;
959.4000;0.6390;1.3369;
959.7000;0.6390;1.3369;
960.0000;0.6504;1.3684;
960.3000;0.6374;1.3345;
960.6000;0.6398;1.3321;
960.9000;0.6406;1.3345;
961.2000;0.6406;1.3369;
961.5000;0.6300;1.3128;
961.8000;0.6398;1.3418;
962.1000;0.6406;1.3442;
962.4000;0.6414;1.3442;
962.7000;0.6390;1.3393;
963.0000;0.6382;1.3369;
963.3000;0.6406;1.3369;
963.6000;0.6398;1.3442;
963.9000;0.6406;1.3418;
964.2000;0.6406;1.3490;
964.5000;0.6398;1.3393;
964.8000;0.6398;1.3321;
965.1000;0.6382;1.3369;
965.4000;0.6406;1.3442;
965.7000;0.6374;1.3393;
966.0000;0.6390;1.3442;
966.3000;0.6284;1.3224;
966.6000;0.6398;1.3442;
966.9000;0.6382;1.3442;
967.2000;0.6406;1.3611;
967.5000;0.6422;1.3708;
967.8000;0.6382;1.3587;
968.1000;0.6406;1.3635;
968.4000;0.6406;1.3539;
968.7000;0.6406;1.3466;
969.0000;0.6447;1.3466;
969.3000;0.6382;1.3176;
969.6000;0.6382;1.3224;
969.9000;0.6365;1.3176;
970.2000;0.6406;1.3273;
970.5000;0.6365;1.3152;
970.8000;0.6365;1.3200;
971.1000;0.6390;1.3369;
971.4000;0.6382;1.3321;
971.7000;0.6374;1.3321;
972.0000;0.6382;1.3248;
972.3000;0.6365;1.3200;
972.6000;0.6357;1.3248;
972.9000;0.6390;1.3273;
973.2000;0.6422;1.3297;
973.5000;0.6422;1.3297;
973.8000;0.6398;1.3248;
974.1000;0.6390;1.3200;
974.4000;0.6398;1.3176;
974.7000;0.6374;1.3152;
975.0000;0.6374;1.3176;
975.3000;0.6349;1.3176;
975.6000;0.6382;1.3200;
975.9000;0.6333;1.3031;
976.2000;0.6406;1.3273;
976.5000;0.6382;1.3152;
976.8000;0.6382;1.3055;
977.1000;0.6325;1.2958;
977.4000;0.6390;1.3224;
977.7000;0.6398;1.3273;
978.0000;0.6390;1.3200;
978.3000;0.6406;1.3224;
978.6000;0.6390;1.3152;
978.9000;0.6374;1.3152;
979.2000;0.6382;1.3224;
979.5000;0.6398;1.3248;
979.8000;0.6374;1.3200;
980.1000;0.6390;1.3248;
980.4000;0.6398;1.3248;
980.7000;0.6382;1.3152;
981.0000;0.6374;1.3248;
981.3000;0.6382;1.3176;
981.6000;0.6382;1.3128;
981.9000;0.6382;1.3152;
982.2000;0.6374;1.3152;
982.5000;0.6374;1.3152;
982.8000;0.6398;1.3248;
983.1000;0.6357;1.3248;
983.4000;0.6382;1.3369;
983.7000;0.6382;1.3321;
984.0000;0.6357;1.3273;
984.3000;0.6398;1.3224;
984.6000;0.6390;1.3103;
984.9000;0.6365;1.3128;
985.2000;0.6390;1.3200;
985.5000;0.6365;1.3248;
985.8000;0.6357;1.3297;
986.1000;0.6374;1.3345;
986.4000;0.6390;1.3393;
986.7000;0.6357;1.3345;
987.0000;0.6341;1.3200;
987.3000;0.6414;1.3297;
987.6000;0.6357;1.3152;
987.9000;0.6382;1.3224;
988.2000;0.6390;1.3273;
988.5000;0.6374;1.3200;
988.8000;0.6431;1.3200;
989.1000;0.6406;1.3128;
989.4000;0.6422;1.3152;
989.7000;0.6382;1.3103;
990.0000;0.6374;1.3128;
990.3000;0.6374;1.3176;
990.6000;0.6374;1.3176;
990.9000;0.6357;1.3200;
991.2000;0.6374;1.3248;
991.5000;0.6349;1.3200;
991.8000;0.6333;1.3176;
992.1000;0.6382;1.3345;
992.4000;0.6374;1.3369;
992.7000;0.6374;1.3345;
993.0000;0.6374;1.3466;
993.3000;0.6349;1.3393;
993.6000;0.6365;1.3369;
993.9000;0.6382;1.3345;
994.2000;0.6406;1.3393;
994.5000;0.6374;1.3345;
994.8000;0.6365;1.3273;
995.1000;0.6382;1.3369;
995.4000;0.6382;1.3442;
995.7000;0.6365;1.3466;
996.0000;0.6357;1.3369;
996.3000;0.6374;1.3345;
996.6000;0.6333;1.3224;
996.9000;0.6382;1.3152;
997.2000;0.6374;1.3128;
997.5000;0.6374;1.3079;
997.8000;0.6382;1.3128;
998.1000;0.6357;1.3152;
998.4000;0.6390;1.3248;
998.7000;0.6374;1.3273;
999.0000;0.6374;1.3297;
999.3000;0.6390;1.3297;
999.6000;0.6349;1.3224;
999.9000;0.6365;1.3200;
1000.2000;0.6374;1.3248;
1000.5000;0.6357;1.3224;
1000.8000;0.6365;1.3273;
1001.1000;0.6357;1.3248;
1001.4000;0.6341;1.3224;
1001.7000;0.6365;1.3224;
1002.0000;0.6341;1.3176;
1002.3000;0.6357;1.3152;
1002.6000;0.6357;1.3176;
1002.9000;0.6309;1.3103;
1003.2000;0.6325;1.3273;
1003.5000;0.6365;1.3369;
1003.8000;0.6357;1.3418;
1004.1000;0.6357;1.3466;
1004.4000;0.6365;1.3466;
1004.7000;0.6341;1.3514;
1005.0000;0.6398;1.3684;
1005.3000;0.6341;1.3466;
1005.6000;0.6341;1.3514;
1005.9000;0.6374;1.3684;
1006.2000;0.6325;1.3514;
1006.5000;0.6341;1.3514;
1006.8000;0.6357;1.3466;
1007.1000;0.6325;1.3369;
1007.4000;0.6357;1.3442;
1007.7000;0.6333;1.3345;
1008.0000;0.6349;1.3369;
1008.3000;0.6357;1.3418;
1008.6000;0.6365;1.3563;
1008.9000;0.6374;1.3563;
1009.2000;0.6398;1.3539;
1009.5000;0.6325;1.3393;
1009.8000;0.6341;1.3393;
1010.1000;0.6317;1.3297;
1010.4000;0.6333;1.3393;
1010.7000;0.6374;1.3490;
1011.0000;0.6357;1.3393;
1011.3000;0.6325;1.3273;
1011.6000;0.6333;1.3200;
1011.9000;0.6390;1.3369;
1012.2000;0.6357;1.3321;
1012.5000;0.6365;1.3345;
1012.8000;0.6398;1.3514;
1013.1000;0.6341;1.3418;
1013.4000;0.6406;1.3514;
1013.7000;0.6374;1.3514;
1014.0000;0.6341;1.3466;
1014.3000;0.6357;1.3539;
1014.6000;0.6374;1.3563;
1014.9000;0.6431;1.3611;
1015.2000;0.6341;1.3418;
1015.5000;0.6333;1.3466;
1015.8000;0.6333;1.3393;
1016.1000;0.6357;1.3418;
1016.4000;0.6325;1.3466;
1016.7000;0.6357;1.3466;
1017.0000;0.6357;1.3442;
1017.3000;0.6341;1.3393;
1017.6000;0.6333;1.3369;
1017.9000;0.6325;1.3345;
1018.2000;0.6325;1.3369;
1018.5000;0.6431;1.3490;
1018.8000;0.6357;1.3224;
1019.1000;0.6349;1.3224;
1019.4000;0.6341;1.3321;
1019.7000;0.6357;1.3369;
1020.0000;0.6390;1.3490;
1020.3000;0.6357;1.3466;
1020.6000;0.6349;1.3393;
1020.9000;0.6341;1.3273;
1021.2000;0.6374;1.3418;
1021.5000;0.6365;1.3442;
1021.8000;0.6341;1.3369;
1022.1000;0.6333;1.3466;
1022.4000;0.6341;1.3418;
1022.7000;0.6349;1.3418;
1023.0000;0.6382;1.3514;
1023.3000;0.6341;1.3466;
1023.6000;0.6357;1.3393;
1023.9000;0.6365;1.3466;
1024.2000;0.6349;1.3393;
1024.5000;0.6349;1.3345;
1024.8000;0.6365;1.3321;
1025.1000;0.6365;1.3393;
1025.4000;0.6365;1.3393;
1025.7000;0.6357;1.3297;
1026.0000;0.6357;1.3345;
1026.3000;0.6341;1.3393;
1026.6000;0.6357;1.3466;
1026.9000;0.6365;1.3393;
1027.2000;0.6357;1.3490;
1027.5000;0.6349;1.3514;
1027.8000;0.6357;1.3587;
1028.1000;0.6325;1.3514;
1028.4000;0.6333;1.3514;
1028.7000;0.6357;1.3466;
1029.0000;0.6447;1.3708;
1029.3000;0.6300;1.3321;
1029.6000;0.6333;1.3345;
1029.9000;0.6341;1.3369;
1030.2000;0.6268;1.3273;
1030.5000;0.6349;1.3442;
1030.8000;0.6374;1.3490;
1031.1000;0.6357;1.3442;
1031.4000;0.6333;1.3321;
1031.7000;0.6325;1.3297;
1032.0000;0.6341;1.3418;
1032.3000;0.6341;1.3442;
1032.6000;0.6357;1.3539;
1032.9000;0.6325;1.3442;
1033.2000;0.6341;1.3369;
1033.5000;0.6357;1.3345;
1033.8000;0.6325;1.3200;
1034.1000;0.6349;1.3248;
1034.4000;0.6341;1.3200;
1034.7000;0.6382;1.3369;
1035.0000;0.6349;1.3345;
1035.3000;0.6333;1.3297;
1035.6000;0.6349;1.3345;
1035.9000;0.6341;1.3369;
1036.2000;0.6341;1.3418;
1036.5000;0.6341;1.3418;
1036.8000;0.6341;1.3345;
1037.1000;0.6333;1.3393;
1037.4000;0.6398;1.3708;
1037.7000;0.6333;1.3587;
1038.0000;0.6300;1.3563;
1038.3000;0.6333;1.3611;
1038.6000;0.6341;1.3684;
1038.9000;0.6325;1.3684;
1039.2000;0.6325;1.3659;
1039.5000;0.6325;1.3514;
1039.8000;0.6374;1.3659;
1040.1000;0.6349;1.3587;
1040.4000;0.6341;1.3539;
1040.7000;0.6414;1.3684;
1041.0000;0.6349;1.3539;
1041.3000;0.6357;1.3442;
1041.6000;0.6333;1.3418;
1041.9000;0.6325;1.3393;
1042.2000;0.6325;1.3442;
1042.5000;0.6333;1.3442;
1042.8000;0.6325;1.3393;
1043.1000;0.6317;1.3442;
1043.4000;0.6325;1.3563;
1043.7000;0.6317;1.3563;
1044.0000;0.6349;1.3659;
1044.3000;0.6349;1.3635;
1044.6000;0.6325;1.3563;
1044.9000;0.6365;1.3611;
1045.2000;0.6341;1.3442;
1045.5000;0.6333;1.3345;
1045.8000;0.6341;1.3442;
1046.1000;0.6325;1.3442;
1046.4000;0.6341;1.3539;
1046.7000;0.6341;1.3587;
1047.0000;0.6300;1.3442;
1047.3000;0.6341;1.3563;
1047.6000;0.6357;1.3611;
1047.9000;0.6365;1.3635;
1048.2000;0.6325;1.3466;
1048.5000;0.6357;1.3514;
1048.8000;0.6333;1.3418;
1049.1000;0.6317;1.3466;
1049.4000;0.6341;1.3418;
1049.7000;0.6341;1.3393;
1050.0000;0.6325;1.3490;
1050.3000;0.6349;1.3611;
1050.6000;0.6365;1.3684;
1050.9000;0.6317;1.3490;
1051.2000;0.6431;1.3684;
1051.5000;0.6309;1.3418;
1051.8000;0.6341;1.3466;
1052.1000;0.6300;1.3466;
1052.4000;0.6317;1.3514;
1052.7000;0.6309;1.3490;
1053.0000;0.6317;1.3490;
1053.3000;0.6317;1.3563;
1053.6000;0.6325;1.3587;
1053.9000;0.6317;1.3563;
1054.2000;0.6341;1.3587;
1054.5000;0.6309;1.3563;
1054.8000;0.6333;1.3587;
1055.1000;0.6341;1.3635;
1055.4000;0.6333;1.3563;
1055.7000;0.6309;1.3539;
1056.0000;0.6333;1.3587;
1056.3000;0.6317;1.3442;
1056.6000;0.6325;1.3466;
1056.9000;0.6317;1.3442;
1057.2000;0.6325;1.3321;
1057.5000;0.6309;1.3248;
1057.8000;0.6309;1.3345;
1058.1000;0.6317;1.3393;
1058.4000;0.6317;1.3321;
1058.7000;0.6341;1.3297;
1059.0000;0.6276;1.3128;
1059.3000;0.6333;1.3393;
1059.6000;0.6341;1.3442;
1059.9000;0.6333;1.3442;
1060.2000;0.6374;1.3514;
1060.5000;0.6317;1.3418;
1060.8000;0.6325;1.3442;
1061.1000;0.6333;1.3490;
1061.4000;0.6325;1.3490;
1061.7000;0.6349;1.3611;
1062.0000;0.6317;1.3611;
1062.3000;0.6382;1.3756;
1062.6000;0.6317;1.3611;
1062.9000;0.6309;1.3563;
1063.2000;0.6325;1.3611;
1063.5000;0.6300;1.3514;
1063.8000;0.6309;1.3587;
1064.1000;0.6357;1.3635;
1064.4000;0.6357;1.3708;
1064.7000;0.6300;1.3514;
1065.0000;0.6349;1.3587;
1065.3000;0.6325;1.3587;
1065.6000;0.6333;1.3611;
1065.9000;0.6317;1.3635;
1066.2000;0.6341;1.3659;
1066.5000;0.6317;1.3587;
1066.8000;0.6325;1.3635;
1067.1000;0.6309;1.3563;
1067.4000;0.6333;1.3563;
1067.7000;0.6260;1.3224;
1068.0000;0.6325;1.3369;
1068.3000;0.6309;1.3418;
1068.6000;0.6309;1.3539;
1068.9000;0.6292;1.3539;
1069.2000;0.6325;1.3659;
1069.5000;0.6284;1.3539;
1069.8000;0.6309;1.3587;
1070.1000;0.6317;1.3587;
1070.4000;0.6349;1.3611;
1070.7000;0.6341;1.3611;
1071.0000;0.6309;1.3466;
1071.3000;0.6333;1.3490;
1071.6000;0.6309;1.3418;
1071.9000;0.6349;1.3539;
1072.2000;0.6317;1.3611;
1072.5000;0.6325;1.3635;
1072.8000;0.6317;1.3539;
1073.1000;0.6300;1.3514;
1073.4000;0.6333;1.3514;
1073.7000;0.6300;1.3345;
1074.0000;0.6309;1.3393;
1074.3000;0.6333;1.3345;
1074.6000;0.6300;1.3297;
1074.9000;0.6317;1.3418;
1075.2000;0.6309;1.3393;
1075.5000;0.6309;1.3321;
1075.8000;0.6317;1.3200;
1076.1000;0.6349;1.3345;
1076.4000;0.6309;1.3297;
1076.7000;0.6309;1.3273;
1077.0000;0.6300;1.3224;
1077.3000;0.6309;1.3248;
1077.6000;0.6284;1.3321;
1077.9000;0.6300;1.3345;
1078.2000;0.6300;1.3393;
1078.5000;0.6333;1.3442;
1078.8000;0.6309;1.3369;
1079.1000;0.6309;1.3418;
1079.4000;0.6317;1.3466;
1079.7000;0.6325;1.3514;
1080.0000;0.6292;1.3466;
1080.3000;0.6317;1.3466;
1080.6000;0.6325;1.3442;
1080.9000;0.6300;1.3466;
1081.2000;0.6357;1.3563;
1081.5000;0.6414;1.3732;
1081.8000;0.6357;1.3514;
1082.1000;0.6309;1.3418;
1082.4000;0.6292;1.3393;
1082.7000;0.6309;1.3514;
1083.0000;0.6309;1.3466;
1083.3000;0.6195;1.3248;
1083.6000;0.6292;1.3490;
1083.9000;0.6317;1.3539;
1084.2000;0.6292;1.3466;
1084.5000;0.6341;1.3563;
1084.8000;0.6309;1.3539;
1085.1000;0.6317;1.3611;
1085.4000;0.6300;1.3611;
1085.7000;0.6317;1.3635;
1086.0000;0.6357;1.3708;
1086.3000;0.6300;1.3635;
1086.6000;0.6300;1.3684;
1086.9000;0.6276;1.3611;
1087.2000;0.6292;1.3635;
1087.5000;0.6284;1.3563;
1087.8000;0.6284;1.3490;
1088.1000;0.6309;1.3539;
1088.4000;0.6300;1.3587;
1088.7000;0.6317;1.3587;
1089.0000;0.6309;1.3539;
1089.3000;0.6325;1.3466;
1089.6000;0.6300;1.3418;
1089.9000;0.6325;1.3490;
1090.2000;0.6309;1.3418;
1090.5000;0.6333;1.3345;
1090.8000;0.6317;1.3345;
1091.1000;0.6309;1.3369;
1091.4000;0.6333;1.3442;
1091.7000;0.6317;1.3393;
1092.0000;0.6309;1.3418;
1092.3000;0.6309;1.3418;
1092.6000;0.6300;1.3442;
1092.9000;0.6300;1.3418;
1093.2000;0.6300;1.3563;
1093.5000;0.6300;1.3563;
1093.8000;0.6300;1.3514;
1094.1000;0.6300;1.3418;
1094.4000;0.6309;1.3466;
1094.7000;0.6309;1.3466;
1095.0000;0.6300;1.3466;
1095.3000;0.6317;1.3466;
1095.6000;0.6309;1.3466;
1095.9000;0.6317;1.3539;
1096.2000;0.6309;1.3539;
1096.5000;0.6300;1.3442;
1096.8000;0.6292;1.3345;
1097.1000;0.6317;1.3418;
1097.4000;0.6300;1.3418;
1097.7000;0.6292;1.3466;
1098.0000;0.6300;1.3490;
1098.3000;0.6227;1.3297;
1098.6000;0.6292;1.3442;
1098.9000;0.6309;1.3418;
1099.2000;0.6317;1.3442;
1099.5000;0.6325;1.3490;
1099.8000;0.6292;1.3466;
1100.1000;0.6292;1.3418;
1100.4000;0.6292;1.3393;
1100.7000;0.6292;1.3418;
1101.0000;0.6300;1.3442;
1101.3000;0.6300;1.3418;
1101.6000;0.6292;1.3345;
1101.9000;0.6309;1.3369;
1102.2000;0.6292;1.3393;
1102.5000;0.6309;1.3418;
1102.8000;0.6284;1.3321;
1103.1000;0.6276;1.3248;
1103.4000;0.6260;1.3152;
1103.7000;0.6317;1.3248;
1104.0000;0.6300;1.3297;
1104.3000;0.6284;1.3273;
1104.6000;0.6317;1.3369;
1104.9000;0.6374;1.3587;
1105.2000;0.6349;1.3539;
1105.5000;0.6317;1.3539;
1105.8000;0.6276;1.3490;
1106.1000;0.6268;1.3442;
1106.4000;0.6300;1.3466;
1106.7000;0.6292;1.3418;
1107.0000;0.6268;1.3273;
1107.3000;0.6195;1.3079;
1107.6000;0.6284;1.3321;
1107.9000;0.6276;1.3369;
1108.2000;0.6349;1.3466;
1108.5000;0.6276;1.3369;
1108.8000;0.6300;1.3442;
1109.1000;0.6292;1.3393;
1109.4000;0.6309;1.3393;
1109.7000;0.6292;1.3297;
1110.0000;0.6309;1.3393;
1110.3000;0.6292;1.3345;
1110.6000;0.6292;1.3248;
1110.9000;0.6292;1.3369;
1111.2000;0.6292;1.3393;
1111.5000;0.6300;1.3539;
1111.8000;0.6284;1.3514;
1112.1000;0.6284;1.3393;
1112.4000;0.6284;1.3418;
1112.7000;0.6292;1.3442;
1113.0000;0.6300;1.3442;
1113.3000;0.6276;1.3490;
1113.6000;0.6260;1.3321;
1113.9000;0.6268;1.3345;
1114.2000;0.6300;1.3321;
1114.5000;0.6292;1.3345;
1114.8000;0.6300;1.3321;
1115.1000;0.6325;1.3321;
1115.4000;0.6300;1.3297;
1115.7000;0.6309;1.3369;
1116.0000;0.6292;1.3442;
1116.3000;0.6284;1.3369;
1116.6000;0.6284;1.3345;
1116.9000;0.6325;1.3418;
1117.2000;0.6284;1.3321;
1117.5000;0.6300;1.3369;
1117.8000;0.6309;1.3297;
1118.1000;0.6284;1.3297;
1118.4000;0.6268;1.3248;
1118.7000;0.6300;1.3345;
1119.0000;0.6276;1.3273;
1119.3000;0.6317;1.3442;
1119.6000;0.6292;1.3466;
1119.9000;0.6276;1.3369;
1120.2000;0.6309;1.3442;
1120.5000;0.6292;1.3490;
1120.8000;0.6292;1.3490;
1121.1000;0.6292;1.3539;
1121.4000;0.6292;1.3514;
1121.7000;0.6292;1.3514;
1122.0000;0.6333;1.3563;
1122.3000;0.6292;1.3442;
1122.6000;0.6284;1.3393;
1122.9000;0.6300;1.3393;
1123.2000;0.6300;1.3466;
1123.5000;0.6284;1.3369;
1123.8000;0.6268;1.3418;
1124.1000;0.6292;1.3490;
1124.4000;0.6292;1.3514;
1124.7000;0.6300;1.3563;
1125.0000;0.6284;1.3490;
1125.3000;0.6325;1.3611;
1125.6000;0.6292;1.3563;
1125.9000;0.6284;1.3587;
1126.2000;0.6268;1.3490;
1126.5000;0.6300;1.3490;
1126.8000;0.6243;1.3369;
1127.1000;0.6309;1.3563;
1127.4000;0.6276;1.3514;
1127.7000;0.6276;1.3514;
1128.0000;0.6276;1.3514;
1128.3000;0.6300;1.3587;
1128.6000;0.6284;1.3539;
1128.9000;0.6300;1.3466;
1129.2000;0.6284;1.3345;
1129.5000;0.6292;1.3418;
1129.8000;0.6284;1.3393;
1130.1000;0.6235;1.3200;
1130.4000;0.6284;1.3442;
1130.7000;0.6284;1.3369;
1131.0000;0.6235;1.3200;
1131.3000;0.6268;1.3345;
1131.6000;0.6211;1.3393;
1131.9000;0.6300;1.3635;
1132.2000;0.6284;1.3587;
1132.5000;0.6276;1.3539;
1132.8000;0.6276;1.3539;
1133.1000;0.6284;1.3635;
1133.4000;0.6292;1.3684;
1133.7000;0.6300;1.3780;
1134.0000;0.6292;1.3732;
1134.3000;0.6284;1.3684;
1134.6000;0.6300;1.3659;
1134.9000;0.6309;1.3659;
1135.2000;0.6268;1.3587;
1135.5000;0.6292;1.3684;
1135.8000;0.6284;1.3780;
1136.1000;0.6252;1.3780;
1136.4000;0.6325;1.3829;
1136.7000;0.6292;1.3708;
1137.0000;0.6300;1.3635;
1137.3000;0.6284;1.3635;
1137.6000;0.6252;1.3611;
1137.9000;0.6276;1.3684;
1138.2000;0.6292;1.3732;
1138.5000;0.6300;1.3684;
1138.8000;0.6292;1.3539;
1139.1000;0.6276;1.3514;
1139.4000;0.6284;1.3563;
1139.7000;0.6317;1.3684;
1140.0000;0.6268;1.3635;
1140.3000;0.6260;1.3635;
1140.6000;0.6284;1.3684;
1140.9000;0.6300;1.3780;
1141.2000;0.6292;1.3708;
1141.5000;0.6292;1.3708;
1141.8000;0.6309;1.3829;
1142.1000;0.6284;1.3853;
1142.4000;0.6292;1.3732;
1142.7000;0.6276;1.3684;
1143.0000;0.6162;1.3369;
1143.3000;0.6349;1.3708;
1143.6000;0.6333;1.3708;
1143.9000;0.6284;1.3587;
1144.2000;0.6300;1.3611;
1144.5000;0.6292;1.3635;
1144.8000;0.6292;1.3587;
1145.1000;0.6284;1.3539;
1145.4000;0.6284;1.3563;
1145.7000;0.6309;1.3514;
1146.0000;0.6243;1.3418;
1146.3000;0.6268;1.3442;
1146.6000;0.6276;1.3393;
1146.9000;0.6268;1.3393;
1147.2000;0.6325;1.3563;
1147.5000;0.6268;1.3418;
1147.8000;0.6268;1.3393;
1148.1000;0.6284;1.3418;
1148.4000;0.6219;1.3297;
1148.7000;0.6276;1.3321;
1149.0000;0.6292;1.3345;
1149.3000;0.6268;1.3345;
1149.6000;0.6300;1.3273;
1149.9000;0.6300;1.3369;
1150.2000;0.6284;1.3393;
1150.5000;0.6284;1.3466;
1150.8000;0.6268;1.3393;
1151.1000;0.6317;1.3539;
1151.4000;0.6243;1.3200;
1151.7000;0.6276;1.3273;
1152.0000;0.6276;1.3369;
1152.3000;0.6252;1.3297;
1152.6000;0.6243;1.3248;
1152.9000;0.6235;1.3297;
1153.2000;0.6260;1.3297;
1153.5000;0.6292;1.3345;
1153.8000;0.6284;1.3321;
1154.1000;0.6268;1.3248;
1154.4000;0.6268;1.3273;
1154.7000;0.6309;1.3466;
1155.0000;0.6276;1.3442;
1155.3000;0.6252;1.3442;
1155.6000;0.6243;1.3490;
1155.9000;0.6284;1.3514;
1156.2000;0.6170;1.3200;
1156.5000;0.6292;1.3466;
1156.8000;0.6341;1.3659;
1157.1000;0.6292;1.3563;
1157.4000;0.6276;1.3539;
1157.7000;0.6260;1.3490;
1158.0000;0.6268;1.3466;
1158.3000;0.6252;1.3466;
1158.6000;0.6276;1.3466;
1158.9000;0.6260;1.3418;
1159.2000;0.6268;1.3466;
1159.5000;0.6300;1.3442;
1159.8000;0.6276;1.3418;
1160.1000;0.6268;1.3466;
1160.4000;0.6268;1.3442;
1160.7000;0.6292;1.3490;
1161.0000;0.6268;1.3418;
1161.3000;0.6284;1.3418;
1161.6000;0.6284;1.3369;
1161.9000;0.6260;1.3297;
1162.2000;0.6284;1.3369;
1162.5000;0.6341;1.3466;
1162.8000;0.6284;1.3345;
1163.1000;0.6235;1.3224;
1163.4000;0.6268;1.3345;
1163.7000;0.6260;1.3490;
1164.0000;0.6341;1.3708;
1164.3000;0.6260;1.3563;
1164.6000;0.6292;1.3708;
1164.9000;0.6268;1.3587;
1165.2000;0.6260;1.3539;
1165.5000;0.6284;1.3563;
1165.8000;0.6252;1.3539;
1166.1000;0.6260;1.3587;
1166.4000;0.6260;1.3539;
1166.7000;0.6260;1.3539;
1167.0000;0.6309;1.3563;
1167.3000;0.6260;1.3563;
1167.6000;0.6276;1.3563;
1167.9000;0.6268;1.3539;
1168.2000;0.6219;1.3393;
1168.5000;0.6260;1.3418;
1168.8000;0.6268;1.3490;
1169.1000;0.6300;1.3490;
1169.4000;0.6284;1.3587;
1169.7000;0.6260;1.3563;
1170.0000;0.6317;1.3780;
1170.3000;0.6260;1.3611;
1170.6000;0.6243;1.3466;
1170.9000;0.6243;1.3442;
1171.2000;0.6260;1.3442;
1171.5000;0.6268;1.3418;
1171.8000;0.6260;1.3490;
1172.1000;0.6309;1.3659;
1172.4000;0.6219;1.3514;
1172.7000;0.6268;1.3563;
1173.0000;0.6276;1.3635;
1173.3000;0.6235;1.3539;
1173.6000;0.6276;1.3732;
1173.9000;0.6252;1.3635;
1174.2000;0.6260;1.3563;
1174.5000;0.6284;1.3635;
1174.8000;0.6260;1.3684;
1175.1000;0.6252;1.3635;
1175.4000;0.6227;1.3539;
1175.7000;0.6252;1.3635;
1176.0000;0.6252;1.3563;
1176.3000;0.6252;1.3539;
1176.6000;0.6276;1.3587;
1176.9000;0.6284;1.3539;
1177.2000;0.6276;1.3490;
1177.5000;0.6276;1.3466;
1177.8000;0.6178;1.3224;
1178.1000;0.6252;1.3466;
1178.4000;0.6268;1.3369;
1178.7000;0.6309;1.3442;
1179.0000;0.6268;1.3369;
1179.3000;0.6252;1.3418;
1179.6000;0.6252;1.3490;
1179.9000;0.6260;1.3563;
1180.2000;0.6309;1.3635;
1180.5000;0.6268;1.3539;
1180.8000;0.6186;1.3418;
1181.1000;0.6276;1.3587;
1181.4000;0.6276;1.3514;
1181.7000;0.6243;1.3442;
1182.0000;0.6252;1.3490;
1182.3000;0.6260;1.3514;
1182.6000;0.6276;1.3563;
1182.9000;0.6235;1.3611;
1183.2000;0.6268;1.3659;
1183.5000;0.6260;1.3539;
1183.8000;0.6268;1.3563;
1184.1000;0.6260;1.3490;
1184.4000;0.6219;1.3442;
1184.7000;0.6243;1.3539;
1185.0000;0.6260;1.3539;
1185.3000;0.6276;1.3442;
1185.6000;0.6276;1.3345;
1185.9000;0.6284;1.3393;
1186.2000;0.6268;1.3490;
1186.5000;0.6276;1.3587;
1186.8000;0.6284;1.3659;
1187.1000;0.6341;1.3780;
1187.4000;0.6252;1.3490;
1187.7000;0.6260;1.3466;
1188.0000;0.6325;1.3684;
1188.3000;0.6260;1.3684;
1188.6000;0.6252;1.3659;
1188.9000;0.6260;1.3659;
1189.2000;0.6276;1.3587;
1189.5000;0.6309;1.3659;
1189.8000;0.6260;1.3539;
1190.1000;0.6276;1.3539;
1190.4000;0.6260;1.3466;
1190.7000;0.6268;1.3418;
1191.0000;0.6154;1.3128;
1191.3000;0.6154;1.3152;
1191.6000;0.6195;1.3297;
1191.9000;0.6268;1.3539;
1192.2000;0.6268;1.3611;
1192.5000;0.6268;1.3708;
1192.8000;0.6268;1.3756;
1193.1000;0.6268;1.3732;
1193.4000;0.6219;1.3659;
1193.7000;0.6252;1.3804;
1194.0000;0.6260;1.3829;
1194.3000;0.6284;1.3780;
1194.6000;0.6268;1.3708;
1194.9000;0.6268;1.3684;
1195.2000;0.6243;1.3611;
1195.5000;0.6276;1.3611;
1195.8000;0.6268;1.3611;
1196.1000;0.6300;1.3659;
1196.4000;0.6260;1.3466;
1196.7000;0.6349;1.3732;
1197.0000;0.6284;1.3587;
1197.3000;0.6252;1.3587;
1197.6000;0.6276;1.3635;
1197.9000;0.6284;1.3659;
1198.2000;0.6341;1.3756;
1198.5000;0.6309;1.3708;
1198.8000;0.6276;1.3635;
1199.1000;0.6243;1.3587;
1199.4000;0.6276;1.3659;
1199.7000;0.6276;1.3635;
1200.0000;0.6268;1.3611;
1200.3000;0.6211;1.3442;
1200.6000;0.6309;1.3756;
1200.9000;0.6219;1.3587;
1201.2000;0.6260;1.3635;
1201.5000;0.6243;1.3490;
1201.8000;0.6268;1.3587;
1202.1000;0.6268;1.3587;
1202.4000;0.6219;1.3514;
1202.7000;0.6260;1.3635;
1203.0000;0.6252;1.3708;
1203.3000;0.6243;1.3708;
1203.6000;0.6260;1.3804;
1203.9000;0.6260;1.3780;
1204.2000;0.6235;1.3684;
1204.5000;0.6243;1.3684;
1204.8000;0.6227;1.3635;
1205.1000;0.6235;1.3732;
1205.4000;0.6243;1.3756;
1205.7000;0.6276;1.3780;
1206.0000;0.6252;1.3659;
1206.3000;0.6252;1.3587;
1206.6000;0.6252;1.3587;
1206.9000;0.6260;1.3539;
1207.2000;0.6260;1.3539;
1207.5000;0.6252;1.3539;
1207.8000;0.6276;1.3611;
1208.1000;0.6227;1.3490;
1208.4000;0.6252;1.3635;
1208.7000;0.6252;1.3684;
1209.0000;0.6268;1.3732;
1209.3000;0.6268;1.3780;
1209.6000;0.6211;1.3635;
1209.9000;0.6235;1.3659;
1210.2000;0.6235;1.3587;
1210.5000;0.6260;1.3659;
1210.8000;0.6260;1.3587;
1211.1000;0.6292;1.3635;
1211.4000;0.6260;1.3539;
1211.7000;0.6235;1.3514;
1212.0000;0.6235;1.3563;
1212.3000;0.6260;1.3490;
1212.6000;0.6162;1.3297;
1212.9000;0.6227;1.3442;
1213.2000;0.6260;1.3418;
1213.5000;0.6252;1.3393;
1213.8000;0.6252;1.3418;
1214.1000;0.6243;1.3442;
1214.4000;0.6235;1.3442;
1214.7000;0.6252;1.3514;
1215.0000;0.6154;1.3200;
1215.3000;0.6235;1.3393;
1215.6000;0.6235;1.3418;
1215.9000;0.6260;1.3611;
1216.2000;0.6186;1.3418;
1216.5000;0.6186;1.3393;
1216.8000;0.6243;1.3587;
1217.1000;0.6260;1.3635;
1217.4000;0.6276;1.3684;
1217.7000;0.6252;1.3659;
1218.0000;0.6252;1.3708;
1218.3000;0.6284;1.3732;
1218.6000;0.6268;1.3635;
1218.9000;0.6252;1.3442;
1219.2000;0.6235;1.3490;
1219.5000;0.6260;1.3563;
1219.8000;0.6300;1.3611;
1220.1000;0.6235;1.3442;
1220.4000;0.6284;1.3563;
1220.7000;0.6243;1.3514;
1221.0000;0.6260;1.3563;
1221.3000;0.6284;1.3539;
1221.6000;0.6252;1.3514;
1221.9000;0.6268;1.3466;
1222.2000;0.6243;1.3345;
1222.5000;0.6235;1.3369;
1222.8000;0.6300;1.3514;
1223.1000;0.6235;1.3393;
1223.4000;0.6243;1.3466;
1223.7000;0.6243;1.3442;
1224.0000;0.6252;1.3442;
1224.3000;0.6243;1.3490;
1224.6000;0.6243;1.3442;
1224.9000;0.6260;1.3442;
1225.2000;0.6260;1.3418;
1225.5000;0.6227;1.3321;
1225.8000;0.6219;1.3273;
1226.1000;0.6260;1.3442;
1226.4000;0.6235;1.3466;
1226.7000;0.6243;1.3442;
1227.0000;0.6252;1.3418;
1227.3000;0.6252;1.3466;
1227.6000;0.6252;1.3514;
1227.9000;0.6243;1.3393;
1228.2000;0.6260;1.3418;
1228.5000;0.6252;1.3418;
1228.8000;0.6243;1.3248;
1229.1000;0.6252;1.3248;
1229.4000;0.6252;1.3297;
1229.7000;0.6243;1.3393;
1230.0000;0.6276;1.3393;
1230.3000;0.6252;1.3442;
1230.6000;0.6252;1.3418;
1230.9000;0.6252;1.3466;
1231.2000;0.6243;1.3393;
1231.5000;0.6260;1.3563;
1231.8000;0.6252;1.3611;
1232.1000;0.6260;1.3587;
1232.4000;0.6252;1.3563;
1232.7000;0.6252;1.3514;
1233.0000;0.6292;1.3659;
1233.3000;0.6260;1.3587;
1233.6000;0.6268;1.3587;
1233.9000;0.6292;1.3756;
1234.2000;0.6211;1.3587;
1234.5000;0.6252;1.3587;
1234.8000;0.6268;1.3708;
1235.1000;0.6309;1.3756;
1235.4000;0.6260;1.3587;
1235.7000;0.6252;1.3563;
1236.0000;0.6227;1.3563;
1236.3000;0.6260;1.3611;
1236.6000;0.6300;1.3732;
1236.9000;0.6243;1.3563;
1237.2000;0.6309;1.3756;
1237.5000;0.6252;1.3563;
1237.8000;0.6235;1.3466;
1238.1000;0.6211;1.3345;
1238.4000;0.6300;1.3611;
1238.7000;0.6260;1.3635;
1239.0000;0.6252;1.3611;
1239.3000;0.6227;1.3659;
1239.6000;0.6219;1.3587;
1239.9000;0.6235;1.3514;
1240.2000;0.6235;1.3490;
1240.5000;0.6227;1.3611;
1240.8000;0.6252;1.3659;
1241.1000;0.6243;1.3587;
1241.4000;0.6243;1.3611;
1241.7000;0.6252;1.3563;
1242.0000;0.6268;1.3659;
1242.3000;0.6260;1.3611;
1242.6000;0.6276;1.3659;
1242.9000;0.6276;1.3635;
1243.2000;0.6260;1.3587;
1243.5000;0.6276;1.3635;
1243.8000;0.6260;1.3659;
1244.1000;0.6268;1.3732;
1244.4000;0.6268;1.3684;
1244.7000;0.6260;1.3732;
1245.0000;0.6268;1.3708;
1245.3000;0.6260;1.3708;
1245.6000;0.6243;1.3732;
1245.9000;0.6243;1.3684;
1246.2000;0.6260;1.3684;
1246.5000;0.6243;1.3659;
1246.8000;0.6243;1.3708;
1247.1000;0.6252;1.3708;
1247.4000;0.6300;1.3732;
1247.7000;0.6252;1.3756;
1248.0000;0.6235;1.3780;
1248.3000;0.6260;1.3829;
1248.6000;0.6243;1.3853;
1248.9000;0.6252;1.3829;
1249.2000;0.6235;1.3829;
1249.5000;0.6243;1.3901;
1249.8000;0.6235;1.3829;
1250.1000;0.6227;1.3829;
1250.4000;0.6243;1.3804;
1250.7000;0.6235;1.3732;
1251.0000;0.6211;1.3756;
1251.3000;0.6227;1.3829;
1251.6000;0.6219;1.3804;
1251.9000;0.6195;1.3732;
1252.2000;0.6243;1.3829;
1252.5000;0.6235;1.3780;
1252.8000;0.6260;1.3780;
1253.1000;0.6227;1.3756;
1253.4000;0.6243;1.3780;
1253.7000;0.6252;1.3732;
1254.0000;0.6227;1.3684;
1254.3000;0.6260;1.3708;
1254.6000;0.6243;1.3635;
1254.9000;0.6227;1.3611;
1255.2000;0.6243;1.3635;
1255.5000;0.6243;1.3635;
1255.8000;0.6243;1.3732;
1256.1000;0.6243;1.3780;
1256.4000;0.6309;1.3853;
1256.7000;0.6243;1.3708;
1257.0000;0.6227;1.3708;
1257.3000;0.6235;1.3780;
1257.6000;0.6252;1.3853;
1257.9000;0.6260;1.3804;
1258.2000;0.6243;1.3756;
1258.5000;0.6252;1.3829;
1258.8000;0.6235;1.3804;
1259.1000;0.6219;1.3732;
1259.4000;0.6268;1.3780;
1259.7000;0.6252;1.3708;
1260.0000;0.6252;1.3780;
1260.3000;0.6235;1.3756;
1260.6000;0.6260;1.3780;
1260.9000;0.6235;1.3804;
1261.2000;0.6227;1.3756;
1261.5000;0.6309;1.3901;
1261.8000;0.6243;1.3611;
1262.1000;0.6227;1.3684;
1262.4000;0.6260;1.3829;
1262.7000;0.6235;1.3829;
1263.0000;0.6219;1.3829;
1263.3000;0.6235;1.3877;
1263.6000;0.6252;1.3853;
1263.9000;0.6235;1.3829;
1264.2000;0.6235;1.3853;
1264.5000;0.6268;1.3925;
1264.8000;0.6243;1.3877;
1265.1000;0.6227;1.3853;
1265.4000;0.6309;1.4046;
1265.7000;0.6252;1.3950;
1266.0000;0.6252;1.3756;
1266.3000;0.6243;1.3659;
1266.6000;0.6276;1.3780;
1266.9000;0.6235;1.3732;
1267.2000;0.6252;1.3804;
1267.5000;0.6243;1.3684;
1267.8000;0.6243;1.3708;
1268.1000;0.6260;1.3829;
1268.4000;0.6300;1.3974;
1268.7000;0.6227;1.3780;
1269.0000;0.6300;1.3804;
1269.3000;0.6260;1.3708;
1269.6000;0.6235;1.3635;
1269.9000;0.6227;1.3635;
1270.2000;0.6260;1.3780;
1270.5000;0.6252;1.3756;
1270.8000;0.6243;1.3829;
1271.1000;0.6227;1.3804;
1271.4000;0.6227;1.3853;
1271.7000;0.6227;1.3877;
1272.0000;0.6243;1.3925;
1272.3000;0.6300;1.4022;
1272.6000;0.6243;1.3804;
1272.9000;0.6235;1.3684;
1273.2000;0.6268;1.3780;
1273.5000;0.6260;1.3708;
1273.8000;0.6243;1.3684;
1274.1000;0.6219;1.3659;
1274.4000;0.6243;1.3684;
1274.7000;0.6195;1.3418;
1275.0000;0.6227;1.3539;
1275.3000;0.6243;1.3490;
1275.6000;0.6162;1.3369;
1275.9000;0.6235;1.3587;
1276.2000;0.6235;1.3514;
1276.5000;0.6227;1.3539;
1276.8000;0.6235;1.3635;
1277.1000;0.6243;1.3708;
1277.4000;0.6243;1.3780;
1277.7000;0.6252;1.3780;
1278.0000;0.6252;1.3780;
1278.3000;0.6252;1.3829;
1278.6000;0.6268;1.3804;
1278.9000;0.6243;1.3780;
1279.2000;0.6260;1.3829;
1279.5000;0.6252;1.3853;
1279.8000;0.6252;1.3829;
1280.1000;0.6219;1.3732;
1280.4000;0.6235;1.3804;
1280.7000;0.6219;1.3732;
1281.0000;0.6260;1.3829;
1281.3000;0.6235;1.3756;
1281.6000;0.6235;1.3780;
1281.9000;0.6235;1.3780;
1282.2000;0.6252;1.3684;
1282.5000;0.6219;1.3684;
1282.8000;0.6227;1.3611;
1283.1000;0.6284;1.3804;
1283.4000;0.6227;1.3659;
1283.7000;0.6235;1.3708;
1284.0000;0.6243;1.3732;
1284.3000;0.6211;1.3635;
1284.6000;0.6235;1.3732;
1284.9000;0.6243;1.3684;
1285.2000;0.6186;1.3490;
1285.5000;0.6219;1.3611;
1285.8000;0.6227;1.3684;
1286.1000;0.6235;1.3756;
1286.4000;0.6243;1.3780;
1286.7000;0.6243;1.3732;
1287.0000;0.6243;1.3780;
1287.3000;0.6235;1.3756;
1287.6000;0.6219;1.3756;
1287.9000;0.6243;1.3780;
1288.2000;0.6219;1.3780;
1288.5000;0.6260;1.3829;
1288.8000;0.6252;1.3901;
1289.1000;0.6219;1.3804;
1289.4000;0.6260;1.3829;
1289.7000;0.6235;1.3756;
1290.0000;0.6276;1.3925;
1290.3000;0.6178;1.3684;
1290.6000;0.6227;1.3708;
1290.9000;0.6243;1.3804;
1291.2000;0.6300;1.3925;
1291.5000;0.6195;1.3684;
1291.8000;0.6235;1.3732;
1292.1000;0.6227;1.3756;
1292.4000;0.6219;1.3756;
1292.7000;0.6211;1.3684;
1293.0000;0.6268;1.3780;
1293.3000;0.6260;1.3611;
1293.6000;0.6252;1.3611;
1293.9000;0.6235;1.3539;
1294.2000;0.6276;1.3635;
1294.5000;0.6211;1.3587;
1294.8000;0.6227;1.3635;
1295.1000;0.6235;1.3684;
1295.4000;0.6211;1.3684;
1295.7000;0.6219;1.3684;
1296.0000;0.6178;1.3563;
1296.3000;0.6211;1.3611;
1296.6000;0.6227;1.3539;
1296.9000;0.6219;1.3514;
1297.2000;0.6227;1.3563;
1297.5000;0.6260;1.3635;
1297.8000;0.6203;1.3514;
1298.1000;0.6235;1.3611;
1298.4000;0.6243;1.3611;
1298.7000;0.6227;1.3587;
1299.0000;0.6235;1.3563;
1299.3000;0.6227;1.3635;
1299.6000;0.6186;1.3563;
1299.9000;0.6243;1.3684;
1300.2000;0.6227;1.3635;
1300.5000;0.6243;1.3659;
1300.8000;0.6211;1.3563;
1301.1000;0.6235;1.3587;
1301.4000;0.6252;1.3611;
1301.7000;0.6260;1.3587;
1302.0000;0.6268;1.3659;
1302.3000;0.6268;1.3659;
1302.6000;0.6219;1.3514;
1302.9000;0.6235;1.3635;
1303.2000;0.6211;1.3635;
1303.5000;0.6243;1.3708;
1303.8000;0.6260;1.3756;
1304.1000;0.6235;1.3684;
1304.4000;0.6235;1.3684;
1304.7000;0.6227;1.3732;
1305.0000;0.6227;1.3780;
1305.3000;0.6211;1.3780;
1305.6000;0.6219;1.3877;
1305.9000;0.6219;1.3829;
1306.2000;0.6211;1.3804;
1306.5000;0.6227;1.3853;
1306.8000;0.6211;1.3780;
1307.1000;0.6252;1.3901;
1307.4000;0.6235;1.3901;
1307.7000;0.6235;1.3877;
1308.0000;0.6243;1.3780;
1308.3000;0.6219;1.3732;
1308.6000;0.6252;1.3829;
1308.9000;0.6260;1.3756;
1309.2000;0.6268;1.3804;
1309.5000;0.6235;1.3708;
1309.8000;0.6252;1.3756;
1310.1000;0.6227;1.3732;
1310.4000;0.6227;1.3829;
1310.7000;0.6219;1.3708;
1311.0000;0.6219;1.3684;
1311.3000;0.6243;1.3780;
1311.6000;0.6235;1.3877;
1311.9000;0.6195;1.3780;
1312.2000;0.6162;1.3732;
1312.5000;0.6235;1.3998;
1312.8000;0.6227;1.3925;
1313.1000;0.6195;1.3804;
1313.4000;0.6219;1.3877;
1313.7000;0.6219;1.3950;
1314.0000;0.6243;1.3974;
1314.3000;0.6235;1.3829;
1314.6000;0.6235;1.3853;
1314.9000;0.6252;1.3853;
1315.2000;0.6268;1.3974;
1315.5000;0.6219;1.3974;
1315.8000;0.6235;1.3901;
1316.1000;0.6235;1.3853;
1316.4000;0.6252;1.3780;
1316.7000;0.6227;1.3635;
1317.0000;0.6243;1.3635;
1317.3000;0.6227;1.3684;
1317.6000;0.6235;1.3659;
1317.9000;0.6243;1.3611;
1318.2000;0.6203;1.3442;
1318.5000;0.6235;1.3490;
1318.8000;0.6243;1.3490;
1319.1000;0.6227;1.3466;
1319.4000;0.6243;1.3466;
1319.7000;0.6243;1.3563;
1320.0000;0.6235;1.3611;
1320.3000;0.6170;1.3490;
1320.6000;0.6195;1.3611;
1320.9000;0.6227;1.3659;
1321.2000;0.6211;1.3563;
1321.5000;0.6276;1.3684;
1321.8000;0.6227;1.3659;
1322.1000;0.6219;1.3611;
1322.4000;0.6211;1.3490;
1322.7000;0.6211;1.3490;
1323.0000;0.6195;1.3393;
1323.3000;0.6186;1.3345;
1323.6000;0.6227;1.3418;
1323.9000;0.6219;1.3466;
1324.2000;0.6243;1.3563;
1324.5000;0.6235;1.3635;
1324.8000;0.6211;1.3587;
1325.1000;0.6219;1.3539;
1325.4000;0.6227;1.3514;
1325.7000;0.6235;1.3563;
1326.0000;0.6235;1.3563;
1326.3000;0.6227;1.3587;
1326.6000;0.6235;1.3684;
1326.9000;0.6243;1.3659;
1327.2000;0.6227;1.3611;
1327.5000;0.6227;1.3635;
1327.8000;0.6235;1.3659;
1328.1000;0.6243;1.3684;
1328.4000;0.6243;1.3756;
1328.7000;0.6227;1.3756;
1329.0000;0.6138;1.3514;
1329.3000;0.6325;1.3925;
1329.6000;0.6227;1.3659;
1329.9000;0.6219;1.3708;
1330.2000;0.6162;1.3684;
1330.5000;0.6219;1.3732;
1330.8000;0.6252;1.3756;
1331.1000;0.6227;1.3732;
1331.4000;0.6178;1.3539;
1331.7000;0.6227;1.3563;
1332.0000;0.6235;1.3514;
1332.3000;0.6203;1.3466;
1332.6000;0.6227;1.3490;
1332.9000;0.6227;1.3539;
1333.2000;0.6235;1.3563;
1333.5000;0.6227;1.3539;
1333.8000;0.6243;1.3611;
1334.1000;0.6235;1.3587;
1334.4000;0.6227;1.3563;
1334.7000;0.6219;1.3514;
1335.0000;0.6235;1.3563;
1335.3000;0.6203;1.3611;
1335.6000;0.6219;1.3732;
1335.9000;0.6227;1.3708;
1336.2000;0.6211;1.3587;
1336.5000;0.6219;1.3539;
1336.8000;0.6227;1.3442;
1337.1000;0.6243;1.3418;
1337.4000;0.6219;1.3345;
1337.7000;0.6219;1.3273;
1338.0000;0.6227;1.3369;
1338.3000;0.6227;1.3490;
1338.6000;0.6235;1.3514;
1338.9000;0.6211;1.3563;
1339.2000;0.6235;1.3587;
1339.5000;0.6243;1.3611;
1339.8000;0.6243;1.3659;
1340.1000;0.6211;1.3563;
1340.4000;0.6260;1.3708;
1340.7000;0.6235;1.3708;
1341.0000;0.6243;1.3756;
1341.3000;0.6276;1.3853;
1341.6000;0.6203;1.3635;
1341.9000;0.6235;1.3684;
1342.2000;0.6211;1.3684;
1342.5000;0.6211;1.3659;
1342.8000;0.6227;1.3659;
1343.1000;0.6211;1.3659;
1343.4000;0.6235;1.3756;
1343.7000;0.6219;1.3684;
1344.0000;0.6203;1.3684;
1344.3000;0.6203;1.3756;
1344.6000;0.6219;1.3756;
1344.9000;0.6227;1.3756;
1345.2000;0.6203;1.3756;
1345.5000;0.6219;1.3877;
1345.8000;0.6235;1.3998;
1346.1000;0.6219;1.3853;
1346.4000;0.6219;1.3756;
1346.7000;0.6203;1.3708;
1347.0000;0.6227;1.3708;
1347.3000;0.6235;1.3780;
1347.6000;0.6219;1.3684;
1347.9000;0.6235;1.3659;
1348.2000;0.6227;1.3708;
1348.5000;0.6203;1.3780;
1348.8000;0.6227;1.3780;
1349.1000;0.6235;1.3853;
1349.4000;0.6276;1.3950;
1349.7000;0.6252;1.3829;
1350.0000;0.6243;1.3853;
1350.3000;0.6227;1.3925;
1350.6000;0.6235;1.3950;
1350.9000;0.6211;1.3925;
1351.2000;0.6211;1.3925;
1351.5000;0.6227;1.3901;
1351.8000;0.6227;1.3925;
1352.1000;0.6211;1.3853;
1352.4000;0.6219;1.3829;
1352.7000;0.6219;1.3732;
1353.0000;0.6227;1.3756;
1353.3000;0.6227;1.3853;
1353.6000;0.6219;1.3829;
1353.9000;0.6219;1.3853;
1354.2000;0.6219;1.3829;
1354.5000;0.6219;1.3756;
1354.8000;0.6252;1.3732;
1355.1000;0.6203;1.3659;
1355.4000;0.6211;1.3780;
1355.7000;0.6219;1.3780;
1356.0000;0.6252;1.3732;
1356.3000;0.6195;1.3611;
1356.6000;0.6203;1.3659;
1356.9000;0.6227;1.3587;
1357.2000;0.6211;1.3635;
1357.5000;0.6235;1.3659;
1357.8000;0.6203;1.3611;
1358.1000;0.6243;1.3708;
1358.4000;0.6219;1.3708;
1358.7000;0.6219;1.3732;
1359.0000;0.6243;1.3732;
1359.3000;0.6227;1.3659;
1359.6000;0.6219;1.3539;
1359.9000;0.6235;1.3563;
1360.2000;0.6211;1.3466;
1360.5000;0.6227;1.3539;
1360.8000;0.6211;1.3539;
1361.1000;0.6235;1.3514;
1361.4000;0.6129;1.3224;
1361.7000;0.6203;1.3466;
1362.0000;0.6203;1.3418;
1362.3000;0.6211;1.3514;
1362.6000;0.6219;1.3587;
1362.9000;0.6203;1.3466;
1363.2000;0.6195;1.3490;
1363.5000;0.6235;1.3539;
1363.8000;0.6227;1.3587;
1364.1000;0.6211;1.3539;
1364.4000;0.6219;1.3684;
1364.7000;0.6203;1.3684;
1365.0000;0.6227;1.3635;
1365.3000;0.6203;1.3539;
1365.6000;0.6203;1.3587;
1365.9000;0.6203;1.3587;
1366.2000;0.6211;1.3659;
1366.5000;0.6227;1.3684;
1366.8000;0.6203;1.3708;
1367.1000;0.6195;1.3732;
1367.4000;0.6219;1.3732;
1367.7000;0.6227;1.3684;
1368.0000;0.6276;1.3732;
1368.3000;0.6203;1.3611;
1368.6000;0.6227;1.3611;
1368.9000;0.6243;1.3659;
1369.2000;0.6219;1.3635;
1369.5000;0.6227;1.3659;
1369.8000;0.6235;1.3708;
1370.1000;0.6243;1.3708;
1370.4000;0.6211;1.3684;
1370.7000;0.6203;1.3659;
1371.0000;0.6186;1.3659;
1371.3000;0.6211;1.3659;
1371.6000;0.6211;1.3708;
1371.9000;0.6186;1.3684;
1372.2000;0.6195;1.3635;
1372.5000;0.6203;1.3563;
1372.8000;0.6203;1.3563;
1373.1000;0.6211;1.3563;
1373.4000;0.6219;1.3611;
1373.7000;0.6227;1.3635;
1374.0000;0.6235;1.3539;
1374.3000;0.6227;1.3539;
1374.6000;0.6235;1.3539;
1374.9000;0.6178;1.3418;
1375.2000;0.6211;1.3563;
1375.5000;0.6219;1.3587;
1375.8000;0.6211;1.3490;
1376.1000;0.6211;1.3539;
1376.4000;0.6211;1.3466;
1376.7000;0.6252;1.3563;
1377.0000;0.6219;1.3587;
1377.3000;0.6325;1.3804;
1377.6000;0.6162;1.3345;
1377.9000;0.6219;1.3466;
1378.2000;0.6170;1.3345;
1378.5000;0.6227;1.3466;
1378.8000;0.6227;1.3539;
1379.1000;0.6243;1.3587;
1379.4000;0.6243;1.3611;
1379.7000;0.6211;1.3635;
1380.0000;0.6219;1.3708;
1380.3000;0.6219;1.3804;
1380.6000;0.6219;1.3708;
1380.9000;0.6219;1.3756;
1381.2000;0.6211;1.3708;
1381.5000;0.6186;1.3635;
1381.8000;0.6162;1.3539;
1382.1000;0.6195;1.3514;
1382.4000;0.6203;1.3563;
1382.7000;0.6203;1.3539;
1383.0000;0.6268;1.3659;
1383.3000;0.6243;1.3563;
1383.6000;0.6203;1.3442;
1383.9000;0.6195;1.3442;
1384.2000;0.6219;1.3587;
1384.5000;0.6146;1.3466;
1384.8000;0.6211;1.3659;
1385.1000;0.6219;1.3708;
1385.4000;0.6243;1.3756;
1385.7000;0.6235;1.3732;
1386.0000;0.6195;1.3635;
1386.3000;0.6235;1.3539;
1386.6000;0.6211;1.3490;
1386.9000;0.6203;1.3514;
1387.2000;0.6227;1.3490;
1387.5000;0.6211;1.3442;
1387.8000;0.6211;1.3466;
1388.1000;0.6227;1.3514;
1388.4000;0.6227;1.3442;
1388.7000;0.6211;1.3369;
1389.0000;0.6219;1.3393;
1389.3000;0.6211;1.3345;
1389.6000;0.6235;1.3393;
1389.9000;0.6211;1.3369;
1390.2000;0.6203;1.3393;
1390.5000;0.6227;1.3442;
1390.8000;0.6211;1.3442;
1391.1000;0.6211;1.3490;
1391.4000;0.6235;1.3490;
1391.7000;0.6284;1.3539;
1392.0000;0.6211;1.3490;
1392.3000;0.6219;1.3539;
1392.6000;0.6268;1.3659;
1392.9000;0.6219;1.3611;
1393.2000;0.6211;1.3611;
1393.5000;0.6097;1.3345;
1393.8000;0.6154;1.3539;
1394.1000;0.6219;1.3708;
1394.4000;0.6203;1.3659;
1394.7000;0.6276;1.3780;
1395.0000;0.6243;1.3708;
1395.3000;0.6219;1.3611;
1395.6000;0.6243;1.3587;
1395.9000;0.6227;1.3466;
1396.2000;0.6211;1.3490;
1396.5000;0.6203;1.3514;
1396.8000;0.6219;1.3563;
1397.1000;0.6203;1.3466;
1397.4000;0.6211;1.3539;
1397.7000;0.6195;1.3563;
1398.0000;0.6203;1.3587;
1398.3000;0.6211;1.3539;
1398.6000;0.6211;1.3539;
1398.9000;0.6219;1.3563;
1399.2000;0.6219;1.3563;
1399.5000;0.6203;1.3539;
1399.8000;0.6227;1.3514;
