time/ms;Fluo/V;P700 deltaI/I x10³;
-199.8000;0.8376;1.3877;
-199.5000;0.8376;1.3829;
-199.2000;0.8400;1.3829;
-198.9000;0.8417;1.3732;
-198.6000;0.8449;1.3780;
-198.3000;0.8400;1.3684;
-198.0000;0.8384;1.3708;
-197.7000;0.8409;1.3708;
-197.4000;0.8392;1.3684;
-197.1000;0.8400;1.3804;
-196.8000;0.8344;1.3684;
-196.5000;0.8400;1.3853;
-196.2000;0.8409;1.3804;
-195.9000;0.8400;1.3804;
-195.6000;0.8400;1.3804;
-195.3000;0.8400;1.3780;
-195.0000;0.8400;1.3853;
-194.7000;0.8392;1.3804;
-194.4000;0.8384;1.3829;
-194.1000;0.8400;1.3780;
-193.8000;0.8392;1.3708;
-193.5000;0.8400;1.3684;
-193.2000;0.8409;1.3684;
-192.9000;0.8400;1.3756;
-192.6000;0.8425;1.3804;
-192.3000;0.8400;1.3756;
-192.0000;0.8400;1.3732;
-191.7000;0.8400;1.3756;
-191.4000;0.8498;1.4022;
-191.1000;0.8400;1.3853;
-190.8000;0.8400;1.3925;
-190.5000;0.8409;1.3901;
-190.2000;0.8417;1.3853;
-189.9000;0.8417;1.3853;
-189.6000;0.8335;1.3635;
-189.3000;0.8384;1.3756;
-189.0000;0.8392;1.3756;
-188.7000;0.8417;1.3829;
-188.4000;0.8384;1.3756;
-188.1000;0.8400;1.3756;
-187.8000;0.8392;1.3829;
-187.5000;0.8384;1.3853;
-187.2000;0.8376;1.3974;
-186.9000;0.8376;1.4022;
-186.6000;0.8392;1.4070;
-186.3000;0.8409;1.4095;
-186.0000;0.8400;1.4070;
-185.7000;0.8400;1.3998;
-185.4000;0.8400;1.4022;
-185.1000;0.8400;1.3925;
-184.8000;0.8417;1.4046;
-184.5000;0.8417;1.4022;
-184.2000;0.8400;1.3950;
-183.9000;0.8392;1.3950;
-183.6000;0.8417;1.3950;
-183.3000;0.8400;1.3998;
-183.0000;0.8417;1.3998;
-182.7000;0.8384;1.3877;
-182.4000;0.8433;1.3901;
-182.1000;0.8392;1.3853;
-181.8000;0.8392;1.3853;
-181.5000;0.8433;1.3950;
-181.2000;0.8409;1.3853;
-180.9000;0.8384;1.3756;
-180.6000;0.8392;1.3756;
-180.3000;0.8384;1.3780;
-180.0000;0.8384;1.3732;
-179.7000;0.8400;1.3732;
-179.4000;0.8400;1.3780;
-179.1000;0.8392;1.3756;
-178.8000;0.8409;1.3684;
-178.5000;0.8400;1.3635;
-178.2000;0.8392;1.3684;
-177.9000;0.8376;1.3684;
-177.6000;0.8392;1.3780;
-177.3000;0.8400;1.3925;
-177.0000;0.8384;1.3877;
-176.7000;0.8376;1.3853;
-176.4000;0.8392;1.3901;
-176.1000;0.8409;1.3950;
-175.8000;0.8417;1.3877;
-175.5000;0.8425;1.3877;
-175.2000;0.8400;1.3950;
-174.9000;0.8400;1.3998;
-174.6000;0.8384;1.3950;
-174.3000;0.8376;1.3998;
-174.0000;0.8392;1.3974;
-173.7000;0.8384;1.3974;
-173.4000;0.8376;1.3974;
-173.1000;0.8392;1.3998;
-172.8000;0.8384;1.3925;
-172.5000;0.8400;1.3998;
-172.2000;0.8327;1.3780;
-171.9000;0.8400;1.3974;
-171.6000;0.8384;1.3829;
-171.3000;0.8409;1.3853;
-171.0000;0.8400;1.3780;
-170.7000;0.8409;1.3732;
-170.4000;0.8392;1.3756;
-170.1000;0.8400;1.3829;
-169.8000;0.8400;1.3877;
-169.5000;0.8400;1.3804;
-169.2000;0.8392;1.3756;
-168.9000;0.8392;1.3756;
-168.6000;0.8441;1.3901;
-168.3000;0.8400;1.3756;
-168.0000;0.8376;1.3732;
-167.7000;0.8392;1.3756;
-167.4000;0.8409;1.3804;
-167.1000;0.8400;1.3829;
-166.8000;0.8392;1.3756;
-166.5000;0.8376;1.3708;
-166.2000;0.8384;1.3684;
-165.9000;0.8392;1.3684;
-165.6000;0.8417;1.3756;
-165.3000;0.8400;1.3708;
-165.0000;0.8392;1.3708;
-164.7000;0.8409;1.3829;
-164.4000;0.8400;1.3732;
-164.1000;0.8352;1.3539;
-163.8000;0.8368;1.3563;
-163.5000;0.8441;1.3804;
-163.2000;0.8400;1.3732;
-162.9000;0.8466;1.3998;
-162.6000;0.8319;1.3659;
-162.3000;0.8392;1.3829;
-162.0000;0.8417;1.3901;
-161.7000;0.8409;1.3901;
-161.4000;0.8335;1.3780;
-161.1000;0.8384;1.3877;
-160.8000;0.8425;1.3950;
-160.5000;0.8498;1.4143;
-160.2000;0.8392;1.3950;
-159.9000;0.8400;1.3925;
-159.6000;0.8417;1.3901;
-159.3000;0.8400;1.3732;
-159.0000;0.8417;1.3659;
-158.7000;0.8400;1.3611;
-158.4000;0.8400;1.3587;
-158.1000;0.8384;1.3490;
-157.8000;0.8278;1.3248;
-157.5000;0.8360;1.3539;
-157.2000;0.8376;1.3659;
-156.9000;0.8287;1.3466;
-156.6000;0.8384;1.3684;
-156.3000;0.8376;1.3659;
-156.0000;0.8384;1.3804;
-155.7000;0.8392;1.3756;
-155.4000;0.8384;1.3756;
-155.1000;0.8409;1.3804;
-154.8000;0.8417;1.3804;
-154.5000;0.8449;1.3901;
-154.2000;0.8368;1.3708;
-153.9000;0.8400;1.3780;
-153.6000;0.8490;1.4070;
-153.3000;0.8384;1.3780;
-153.0000;0.8409;1.3853;
-152.7000;0.8409;1.3829;
-152.4000;0.8392;1.3901;
-152.1000;0.8392;1.3974;
-151.8000;0.8311;1.3780;
-151.5000;0.8400;1.3974;
-151.2000;0.8409;1.3998;
-150.9000;0.8392;1.3901;
-150.6000;0.8384;1.3853;
-150.3000;0.8482;1.3998;
-150.0000;0.8482;1.4095;
-149.7000;0.8417;1.3925;
-149.4000;0.8425;1.3925;
-149.1000;0.8417;1.3901;
-148.8000;0.8400;1.3756;
-148.5000;0.8417;1.3804;
-148.2000;0.8409;1.3853;
-147.9000;0.8409;1.3901;
-147.6000;0.8409;1.3925;
-147.3000;0.8392;1.3877;
-147.0000;0.8360;1.3829;
-146.7000;0.8384;1.3804;
-146.4000;0.8457;1.3950;
-146.1000;0.8376;1.3780;
-145.8000;0.8392;1.3756;
-145.5000;0.8400;1.3804;
-145.2000;0.8392;1.3684;
-144.9000;0.8392;1.3780;
-144.6000;0.8384;1.3780;
-144.3000;0.8368;1.3804;
-144.0000;0.8433;1.3974;
-143.7000;0.8360;1.3829;
-143.4000;0.8392;1.3853;
-143.1000;0.8400;1.3950;
-142.8000;0.8400;1.4022;
-142.5000;0.8433;1.4095;
-142.2000;0.8409;1.4022;
-141.9000;0.8392;1.3901;
-141.6000;0.8392;1.3829;
-141.3000;0.8384;1.3853;
-141.0000;0.8392;1.3877;
-140.7000;0.8400;1.3950;
-140.4000;0.8482;1.4215;
-140.1000;0.8417;1.3925;
-139.8000;0.8352;1.3853;
-139.5000;0.8409;1.3901;
-139.2000;0.8400;1.3780;
-138.9000;0.8400;1.3756;
-138.6000;0.8400;1.3780;
-138.3000;0.8384;1.3732;
-138.0000;0.8400;1.3756;
-137.7000;0.8392;1.3708;
-137.4000;0.8392;1.3708;
-137.1000;0.8352;1.3635;
-136.8000;0.8409;1.3635;
-136.5000;0.8400;1.3732;
-136.2000;0.8400;1.3804;
-135.9000;0.8409;1.3804;
-135.6000;0.8392;1.3804;
-135.3000;0.8409;1.3925;
-135.0000;0.8392;1.3950;
-134.7000;0.8449;1.4022;
-134.4000;0.8400;1.3974;
-134.1000;0.8400;1.3974;
-133.8000;0.8376;1.3950;
-133.5000;0.8400;1.3974;
-133.2000;0.8376;1.3829;
-132.9000;0.8335;1.3659;
-132.6000;0.8409;1.3829;
-132.3000;0.8392;1.3684;
-132.0000;0.8425;1.3829;
-131.7000;0.8400;1.3901;
-131.4000;0.8392;1.3925;
-131.1000;0.8400;1.3877;
-130.8000;0.8368;1.3684;
-130.5000;0.8392;1.3708;
-130.2000;0.8384;1.3804;
-129.9000;0.8409;1.3853;
-129.6000;0.8376;1.3780;
-129.3000;0.8392;1.3804;
-129.0000;0.8400;1.3901;
-128.7000;0.8392;1.3950;
-128.4000;0.8409;1.3877;
-128.1000;0.8376;1.3756;
-127.8000;0.8400;1.3829;
-127.5000;0.8384;1.3756;
-127.2000;0.8433;1.3925;
-126.9000;0.8400;1.3950;
-126.6000;0.8400;1.4070;
-126.3000;0.8400;1.4095;
-126.0000;0.8400;1.3974;
-125.7000;0.8400;1.3974;
-125.4000;0.8400;1.4070;
-125.1000;0.8466;1.4119;
-124.8000;0.8441;1.3998;
-124.5000;0.8384;1.3829;
-124.2000;0.8400;1.3829;
-123.9000;0.8417;1.3901;
-123.6000;0.8400;1.3901;
-123.3000;0.8392;1.3853;
-123.0000;0.8392;1.3877;
-122.7000;0.8344;1.3732;
-122.4000;0.8441;1.3925;
-122.1000;0.8400;1.3853;
-121.8000;0.8409;1.3853;
-121.5000;0.8376;1.3853;
-121.2000;0.8417;1.4022;
-120.9000;0.8392;1.3925;
-120.6000;0.8376;1.3925;
-120.3000;0.8384;1.3950;
-120.0000;0.8392;1.4070;
-119.7000;0.8360;1.3950;
-119.4000;0.8376;1.3950;
-119.1000;0.8392;1.4022;
-118.8000;0.8400;1.4095;
-118.5000;0.8392;1.3998;
-118.2000;0.8368;1.4022;
-117.9000;0.8400;1.4046;
-117.6000;0.8400;1.3974;
-117.3000;0.8400;1.3877;
-117.0000;0.8417;1.3877;
-116.7000;0.8384;1.3756;
-116.4000;0.8400;1.3804;
-116.1000;0.8441;1.3974;
-115.8000;0.8368;1.3780;
-115.5000;0.8376;1.3804;
-115.2000;0.8400;1.3853;
-114.9000;0.8400;1.3780;
-114.6000;0.8376;1.3708;
-114.3000;0.8409;1.3829;
-114.0000;0.8376;1.3732;
-113.7000;0.8392;1.3708;
-113.4000;0.8400;1.3684;
-113.1000;0.8425;1.3780;
-112.8000;0.8376;1.3587;
-112.5000;0.8392;1.3635;
-112.2000;0.8449;1.3829;
-111.9000;0.8376;1.3756;
-111.6000;0.8417;1.3804;
-111.3000;0.8392;1.3804;
-111.0000;0.8409;1.3780;
-110.7000;0.8384;1.3804;
-110.4000;0.8392;1.3829;
-110.1000;0.8384;1.3804;
-109.8000;0.8392;1.3925;
-109.5000;0.8425;1.4022;
-109.2000;0.8392;1.3925;
-108.9000;0.8392;1.3925;
-108.6000;0.8400;1.3974;
-108.3000;0.8400;1.3950;
-108.0000;0.8482;1.4143;
-107.7000;0.8384;1.3901;
-107.4000;0.8409;1.4046;
-107.1000;0.8400;1.4022;
-106.8000;0.8384;1.3925;
-106.5000;0.8360;1.3877;
-106.2000;0.8392;1.3925;
-105.9000;0.8392;1.3877;
-105.6000;0.8392;1.3853;
-105.3000;0.8368;1.3732;
-105.0000;0.8392;1.3756;
-104.7000;0.8376;1.3708;
-104.4000;0.8384;1.3659;
-104.1000;0.8368;1.3659;
-103.8000;0.8392;1.3684;
-103.5000;0.8400;1.3780;
-103.2000;0.8384;1.3732;
-102.9000;0.8376;1.3659;
-102.6000;0.8392;1.3611;
-102.3000;0.8376;1.3587;
-102.0000;0.8409;1.3684;
-101.7000;0.8360;1.3659;
-101.4000;0.8384;1.3829;
-101.1000;0.8400;1.3877;
-100.8000;0.8368;1.3804;
-100.5000;0.8376;1.3804;
-100.2000;0.8392;1.3804;
-99.9000;0.8392;1.3804;
-99.6000;0.8409;1.3925;
-99.3000;0.8400;1.3877;
-99.0000;0.8384;1.3756;
-98.7000;0.8490;1.4022;
-98.4000;0.8400;1.3804;
-98.1000;0.8392;1.3756;
-97.8000;0.8400;1.3829;
-97.5000;0.8352;1.3804;
-97.2000;0.8368;1.3974;
-96.9000;0.8368;1.3998;
-96.6000;0.8368;1.3998;
-96.3000;0.8384;1.3950;
-96.0000;0.8384;1.3877;
-95.7000;0.8384;1.3804;
-95.4000;0.8400;1.3780;
-95.1000;0.8384;1.3732;
-94.8000;0.8376;1.3659;
-94.5000;0.8392;1.3659;
-94.2000;0.8409;1.3659;
-93.9000;0.8400;1.3684;
-93.6000;0.8409;1.3635;
-93.3000;0.8417;1.3684;
-93.0000;0.8384;1.3587;
-92.7000;0.8400;1.3563;
-92.4000;0.8409;1.3563;
-92.1000;0.8409;1.3611;
-91.8000;0.8392;1.3563;
-91.5000;0.8433;1.3659;
-91.2000;0.8368;1.3635;
-90.9000;0.8376;1.3587;
-90.6000;0.8433;1.3780;
-90.3000;0.8392;1.3659;
-90.0000;0.8400;1.3708;
-89.7000;0.8433;1.3877;
-89.4000;0.8392;1.3780;
-89.1000;0.8400;1.3756;
-88.8000;0.8409;1.3804;
-88.5000;0.8360;1.3708;
-88.2000;0.8457;1.4022;
-87.9000;0.8400;1.3925;
-87.6000;0.8376;1.3853;
-87.3000;0.8392;1.3853;
-87.0000;0.8409;1.3829;
-86.7000;0.8376;1.3853;
-86.4000;0.8327;1.3756;
-86.1000;0.8392;1.3901;
-85.8000;0.8384;1.3877;
-85.5000;0.8417;1.3950;
-85.2000;0.8384;1.3950;
-84.9000;0.8400;1.4022;
-84.6000;0.8392;1.4046;
-84.3000;0.8409;1.4095;
-84.0000;0.8400;1.4046;
-83.7000;0.8384;1.3974;
-83.4000;0.8384;1.3998;
-83.1000;0.8409;1.4022;
-82.8000;0.8409;1.3974;
-82.5000;0.8392;1.3950;
-82.2000;0.8392;1.3877;
-81.9000;0.8384;1.3853;
-81.6000;0.8392;1.3853;
-81.3000;0.8384;1.3901;
-81.0000;0.8392;1.3901;
-80.7000;0.8409;1.3877;
-80.4000;0.8400;1.3877;
-80.1000;0.8392;1.3877;
-79.8000;0.8400;1.3853;
-79.5000;0.8392;1.3877;
-79.2000;0.8392;1.3853;
-78.9000;0.8368;1.3708;
-78.6000;0.8384;1.3804;
-78.3000;0.8400;1.3901;
-78.0000;0.8384;1.3853;
-77.7000;0.8433;1.3901;
-77.4000;0.8400;1.3853;
-77.1000;0.8384;1.3853;
-76.8000;0.8392;1.3853;
-76.5000;0.8376;1.3756;
-76.2000;0.8392;1.3780;
-75.9000;0.8409;1.3804;
-75.6000;0.8376;1.3756;
-75.3000;0.8392;1.3829;
-75.0000;0.8400;1.3901;
-74.7000;0.8376;1.3780;
-74.4000;0.8409;1.3829;
-74.1000;0.8400;1.3780;
-73.8000;0.8400;1.3780;
-73.5000;0.8409;1.3877;
-73.2000;0.8384;1.3877;
-72.9000;0.8441;1.4022;
-72.6000;0.8384;1.3950;
-72.3000;0.8376;1.3974;
-72.0000;0.8344;1.3829;
-71.7000;0.8368;1.3877;
-71.4000;0.8360;1.3829;
-71.1000;0.8392;1.3829;
-70.8000;0.8376;1.3780;
-70.5000;0.8441;1.3974;
-70.2000;0.8409;1.4022;
-69.9000;0.8409;1.3998;
-69.6000;0.8376;1.3901;
-69.3000;0.8376;1.3853;
-69.0000;0.8392;1.3974;
-68.7000;0.8441;1.3901;
-68.4000;0.8425;1.3853;
-68.1000;0.8335;1.3490;
-67.8000;0.8409;1.3708;
-67.5000;0.8344;1.3563;
-67.2000;0.8376;1.3732;
-66.9000;0.8319;1.3587;
-66.6000;0.8384;1.3804;
-66.3000;0.8368;1.3708;
-66.0000;0.8400;1.3732;
-65.7000;0.8360;1.3684;
-65.4000;0.8433;1.3804;
-65.1000;0.8400;1.3732;
-64.8000;0.8433;1.3877;
-64.5000;0.8392;1.3804;
-64.2000;0.8384;1.3829;
-63.9000;0.8490;1.4070;
-63.6000;0.8392;1.3853;
-63.3000;0.8409;1.3877;
-63.0000;0.8400;1.3877;
-62.7000;0.8400;1.3901;
-62.4000;0.8360;1.3732;
-62.1000;0.8368;1.3684;
-61.8000;0.8417;1.3587;
-61.5000;0.8457;1.3756;
-61.2000;0.8392;1.3659;
-60.9000;0.8392;1.3732;
-60.6000;0.8425;1.3732;
-60.3000;0.8400;1.3804;
-60.0000;0.8376;1.3684;
-59.7000;0.8409;1.3780;
-59.4000;0.8417;1.3877;
-59.1000;0.8409;1.3974;
-58.8000;0.8384;1.3950;
-58.5000;0.8400;1.3901;
-58.2000;0.8400;1.3901;
-57.9000;0.8409;1.3901;
-57.6000;0.8409;1.3877;
-57.3000;0.8417;1.3950;
-57.0000;0.8425;1.3877;
-56.7000;0.8409;1.3829;
-56.4000;0.8417;1.3829;
-56.1000;0.8400;1.3732;
-55.8000;0.8409;1.3684;
-55.5000;0.8384;1.3611;
-55.2000;0.8392;1.3659;
-54.9000;0.8409;1.3756;
-54.6000;0.8392;1.3708;
-54.3000;0.8400;1.3659;
-54.0000;0.8409;1.3635;
-53.7000;0.8409;1.3611;
-53.4000;0.8457;1.3732;
-53.1000;0.8360;1.3490;
-52.8000;0.8400;1.3587;
-52.5000;0.8417;1.3780;
-52.2000;0.8392;1.3804;
-51.9000;0.8376;1.3780;
-51.6000;0.8441;1.3901;
-51.3000;0.8376;1.3756;
-51.0000;0.8384;1.3756;
-50.7000;0.8384;1.3756;
-50.4000;0.8303;1.3539;
-50.1000;0.8384;1.3804;
-49.8000;0.8392;1.3804;
-49.5000;0.8433;1.3901;
-49.2000;0.8400;1.3829;
-48.9000;0.8392;1.3829;
-48.6000;0.8482;1.4022;
-48.3000;0.8441;1.3829;
-48.0000;0.8392;1.3732;
-47.7000;0.8400;1.3684;
-47.4000;0.8417;1.3780;
-47.1000;0.8400;1.3732;
-46.8000;0.8400;1.3659;
-46.5000;0.8392;1.3659;
-46.2000;0.8392;1.3611;
-45.9000;0.8392;1.3539;
-45.6000;0.8400;1.3466;
-45.3000;0.8384;1.3418;
-45.0000;0.8409;1.3490;
-44.7000;0.8417;1.3587;
-44.4000;0.8400;1.3587;
-44.1000;0.8392;1.3635;
-43.8000;0.8409;1.3659;
-43.5000;0.8417;1.3708;
-43.2000;0.8384;1.3635;
-42.9000;0.8392;1.3684;
-42.6000;0.8384;1.3635;
-42.3000;0.8400;1.3635;
-42.0000;0.8400;1.3659;
-41.7000;0.8384;1.3635;
-41.4000;0.8425;1.3732;
-41.1000;0.8368;1.3587;
-40.8000;0.8392;1.3635;
-40.5000;0.8368;1.3587;
-40.2000;0.8376;1.3587;
-39.9000;0.8400;1.3732;
-39.6000;0.8400;1.3780;
-39.3000;0.8376;1.3780;
-39.0000;0.8384;1.3708;
-38.7000;0.8409;1.3756;
-38.4000;0.8368;1.3756;
-38.1000;0.8400;1.3804;
-37.8000;0.8384;1.3829;
-37.5000;0.8376;1.3877;
-37.2000;0.8400;1.3877;
-36.9000;0.8400;1.3829;
-36.6000;0.8392;1.3829;
-36.3000;0.8368;1.3804;
-36.0000;0.8352;1.3659;
-35.7000;0.8400;1.3804;
-35.4000;0.8392;1.3684;
-35.1000;0.8384;1.3708;
-34.8000;0.8392;1.3853;
-34.5000;0.8400;1.3901;
-34.2000;0.8384;1.3804;
-33.9000;0.8384;1.3708;
-33.6000;0.8409;1.3756;
-33.3000;0.8384;1.3756;
-33.0000;0.8384;1.3684;
-32.7000;0.8392;1.3587;
-32.4000;0.8392;1.3587;
-32.1000;0.8384;1.3635;
-31.8000;0.8392;1.3684;
-31.5000;0.8376;1.3684;
-31.2000;0.8392;1.3829;
-30.9000;0.8392;1.3853;
-30.6000;0.8433;1.3877;
-30.3000;0.8376;1.3732;
-30.0000;0.8400;1.3756;
-29.7000;0.8384;1.3684;
-29.4000;0.8400;1.3708;
-29.1000;0.8392;1.3635;
-28.8000;0.8466;1.3804;
-28.5000;0.8384;1.3635;
-28.2000;0.8392;1.3611;
-27.9000;0.8392;1.3563;
-27.6000;0.8392;1.3587;
-27.3000;0.8360;1.3587;
-27.0000;0.8425;1.3684;
-26.7000;0.8409;1.3708;
-26.4000;0.8360;1.3659;
-26.1000;0.8392;1.3708;
-25.8000;0.8400;1.3732;
-25.5000;0.8409;1.3756;
-25.2000;0.8327;1.3442;
-24.9000;0.8409;1.3732;
-24.6000;0.8400;1.3732;
-24.3000;0.8392;1.3732;
-24.0000;0.8409;1.3829;
-23.7000;0.8392;1.3756;
-23.4000;0.8417;1.3756;
-23.1000;0.8262;1.3418;
-22.8000;0.8392;1.3635;
-22.5000;0.8409;1.3708;
-22.2000;0.8409;1.3635;
-21.9000;0.8400;1.3684;
-21.6000;0.8400;1.3780;
-21.3000;0.8409;1.3780;
-21.0000;0.8384;1.3684;
-20.7000;0.8384;1.3780;
-20.4000;0.8392;1.3804;
-20.1000;0.8400;1.3732;
-19.8000;0.8409;1.3756;
-19.5000;0.8384;1.3732;
-19.2000;0.8409;1.3804;
-18.9000;0.8400;1.3804;
-18.6000;0.8392;1.3829;
-18.3000;0.8409;1.3829;
-18.0000;0.8417;1.3853;
-17.7000;0.8449;1.3950;
-17.4000;0.8376;1.3829;
-17.1000;0.8400;1.3877;
-16.8000;0.8376;1.3684;
-16.5000;0.8384;1.3756;
-16.2000;0.8376;1.3780;
-15.9000;0.8392;1.3780;
-15.6000;0.8409;1.3732;
-15.3000;0.8482;1.3877;
-15.0000;0.8392;1.3635;
-14.7000;0.8441;1.3708;
-14.4000;0.8400;1.3659;
-14.1000;0.8384;1.3684;
-13.8000;0.8384;1.3563;
-13.5000;0.8384;1.3539;
-13.2000;0.8384;1.3563;
-12.9000;0.8409;1.3659;
-12.6000;0.8409;1.3659;
-12.3000;0.8400;1.3635;
-12.0000;0.8441;1.3732;
-11.7000;0.8392;1.3611;
-11.4000;0.8392;1.3611;
-11.1000;0.8417;1.3659;
-10.8000;0.8433;1.3659;
-10.5000;0.8392;1.3611;
-10.2000;0.8384;1.3659;
-9.9000;0.8409;1.3804;
-9.6000;0.8360;1.3659;
-9.3000;0.8392;1.3732;
-9.0000;0.8400;1.3780;
-8.7000;0.8384;1.3756;
-8.4000;0.8368;1.3756;
-8.1000;0.8384;1.3780;
-7.8000;0.8392;1.3804;
-7.5000;0.8392;1.3780;
-7.2000;0.8392;1.3708;
-6.9000;0.8392;1.3611;
-6.6000;0.8417;1.3659;
-6.3000;0.8392;1.3563;
-6.0000;0.8376;1.3514;
-5.7000;0.8376;1.3563;
-5.4000;0.8360;1.3587;
-5.1000;0.8392;1.3756;
-4.8000;0.8368;1.3659;
-4.5000;0.8368;1.3635;
-4.2000;0.8409;1.3611;
-3.9000;0.8384;1.3393;
-3.6000;0.8400;1.3418;
-3.3000;0.8400;1.3539;
-3.0000;0.8392;1.3539;
-2.7000;0.8409;1.3659;
-2.4000;0.8400;1.3684;
-2.1000;0.8376;1.3587;
-1.8000;0.8409;1.3611;
-1.5000;0.8368;1.3490;
-1.2000;0.8278;1.3321;
-0.9000;0.8392;1.3659;
-0.6000;0.8392;1.3635;
-0.3000;0.8376;1.3635;
0.0000;0.8376;1.3635;
0.3000;0.8588;1.3925;
0.6000;0.8938;1.4215;
0.9000;0.9247;1.4675;
1.2000;0.9508;1.5037;
1.5000;0.9687;1.5328;
1.8000;0.9817;1.5545;
2.1000;0.9955;1.5859;
2.4000;1.0045;1.5956;
2.7000;1.0134;1.6029;
3.0000;1.0232;1.6246;
3.3000;1.0256;1.6367;
3.6000;1.0313;1.6415;
3.9000;1.0346;1.6536;
4.2000;1.0387;1.6536;
4.5000;1.0444;1.6657;
4.8000;1.0452;1.6754;
5.1000;1.0501;1.6730;
5.4000;1.0492;1.6778;
5.7000;1.0501;1.6778;
6.0000;1.0582;1.6923;
6.3000;1.0606;1.7020;
6.6000;1.0623;1.7117;
6.9000;1.0639;1.7020;
7.2000;1.0680;1.7068;
7.5000;1.0704;1.7165;
7.8000;1.0729;1.7189;
8.1000;1.0745;1.7141;
8.4000;1.0753;1.7044;
8.7000;1.0777;1.6996;
9.0000;1.0794;1.6996;
9.3000;1.0810;1.6947;
9.6000;1.0851;1.6923;
9.9000;1.0777;1.6730;
10.2000;1.0851;1.6923;
10.5000;1.0883;1.6947;
10.8000;1.0875;1.6996;
11.1000;1.0924;1.7044;
11.4000;1.0940;1.7092;
11.7000;1.0924;1.7044;
12.0000;1.0965;1.7068;
12.3000;1.0997;1.7117;
12.6000;1.1005;1.7117;
12.9000;1.1005;1.7044;
13.2000;1.1062;1.7189;
13.5000;1.1046;1.7068;
13.8000;1.1062;1.7044;
14.1000;1.1087;1.7092;
14.4000;1.1087;1.7068;
14.7000;1.1087;1.7044;
15.0000;1.1111;1.7044;
15.3000;1.1168;1.7141;
15.6000;1.1136;1.7068;
15.9000;1.1127;1.7141;
16.2000;1.1160;1.7189;
16.5000;1.1168;1.7141;
16.8000;1.1193;1.7117;
17.1000;1.1258;1.7334;
17.4000;1.1201;1.7165;
17.7000;1.1217;1.7310;
18.0000;1.1217;1.7310;
18.3000;1.1184;1.7262;
18.6000;1.1209;1.7358;
18.9000;1.1249;1.7334;
19.2000;1.1266;1.7189;
19.5000;1.1249;1.7141;
19.8000;1.1249;1.7092;
20.1000;1.1266;1.7117;
20.4000;1.1266;1.7068;
20.7000;1.1290;1.7092;
21.0000;1.1298;1.7068;
21.3000;1.1315;1.7068;
21.6000;1.1339;1.7092;
21.9000;1.1266;1.6899;
22.2000;1.1315;1.7044;
22.5000;1.1306;1.7044;
22.8000;1.1355;1.7189;
23.1000;1.1355;1.7117;
23.4000;1.1355;1.7044;
23.7000;1.1363;1.6972;
24.0000;1.1380;1.7068;
24.3000;1.1372;1.7092;
24.6000;1.1372;1.7213;
24.9000;1.1355;1.7092;
25.2000;1.1380;1.7117;
25.5000;1.1363;1.6996;
25.8000;1.1429;1.7117;
26.1000;1.1396;1.7092;
26.4000;1.1396;1.7117;
26.7000;1.1388;1.6996;
27.0000;1.1412;1.7044;
27.3000;1.1412;1.7117;
27.6000;1.1429;1.7141;
27.9000;1.1429;1.7213;
28.2000;1.1412;1.7068;
28.5000;1.1429;1.7189;
28.8000;1.1412;1.7092;
29.1000;1.1420;1.7141;
29.4000;1.1477;1.7189;
29.7000;1.1404;1.6996;
30.0000;1.1453;1.7044;
30.3000;1.1453;1.7165;
30.6000;1.1551;1.7334;
30.9000;1.1445;1.7117;
31.2000;1.1445;1.7068;
31.5000;1.1477;1.7141;
31.8000;1.1526;1.7334;
32.1000;1.1469;1.7189;
32.4000;1.1477;1.7262;
32.7000;1.1469;1.7262;
33.0000;1.1502;1.7334;
33.3000;1.1486;1.7141;
33.6000;1.1494;1.7141;
33.9000;1.1502;1.7189;
34.2000;1.1502;1.7165;
34.5000;1.1518;1.7165;
34.8000;1.1494;1.7189;
35.1000;1.1502;1.7213;
35.4000;1.1526;1.7334;
35.7000;1.1502;1.7358;
36.0000;1.1518;1.7334;
36.3000;1.1518;1.7286;
36.6000;1.1518;1.7213;
36.9000;1.1534;1.7189;
37.2000;1.1551;1.7141;
37.5000;1.1518;1.7068;
37.8000;1.1543;1.7117;
38.1000;1.1534;1.7092;
38.4000;1.1551;1.7237;
38.7000;1.1534;1.7165;
39.0000;1.1543;1.7165;
39.3000;1.1559;1.7141;
39.6000;1.1543;1.7165;
39.9000;1.1551;1.7165;
40.2000;1.1543;1.7165;
40.5000;1.1608;1.7358;
40.8000;1.1534;1.7213;
41.1000;1.1567;1.7237;
41.4000;1.1559;1.7286;
41.7000;1.1600;1.7407;
42.0000;1.1575;1.7213;
42.3000;1.1567;1.7165;
42.6000;1.1543;1.7141;
42.9000;1.1567;1.7189;
43.2000;1.1559;1.7189;
43.5000;1.1575;1.7189;
43.8000;1.1567;1.7189;
44.1000;1.1567;1.7117;
44.4000;1.1567;1.7068;
44.7000;1.1567;1.7020;
45.0000;1.1583;1.7020;
45.3000;1.1567;1.7068;
45.6000;1.1600;1.7189;
45.9000;1.1600;1.7165;
46.2000;1.1575;1.7165;
46.5000;1.1583;1.7117;
46.8000;1.1583;1.7213;
47.1000;1.1591;1.7213;
47.4000;1.1600;1.7262;
47.7000;1.1616;1.7407;
48.0000;1.1600;1.7334;
48.3000;1.1583;1.7237;
48.6000;1.1608;1.7286;
48.9000;1.1559;1.7117;
49.2000;1.1600;1.7237;
49.5000;1.1583;1.7165;
49.8000;1.1600;1.7117;
50.1000;1.1608;1.7068;
50.4000;1.1600;1.7117;
50.7000;1.1600;1.7092;
51.0000;1.1624;1.7141;
51.3000;1.1608;1.7092;
51.6000;1.1656;1.7141;
51.9000;1.1608;1.6996;
52.2000;1.1624;1.6996;
52.5000;1.1583;1.6923;
52.8000;1.1608;1.6996;
53.1000;1.1616;1.7068;
53.4000;1.1608;1.7068;
53.7000;1.1608;1.7117;
54.0000;1.1608;1.7068;
54.3000;1.1600;1.7044;
54.6000;1.1616;1.7117;
54.9000;1.1591;1.7068;
55.2000;1.1591;1.6923;
55.5000;1.1616;1.6996;
55.8000;1.1624;1.7068;
56.1000;1.1608;1.7020;
56.4000;1.1575;1.6947;
56.7000;1.1583;1.6947;
57.0000;1.1616;1.6996;
57.3000;1.1616;1.7044;
57.6000;1.1608;1.7068;
57.9000;1.1608;1.7092;
58.2000;1.1608;1.7068;
58.5000;1.1616;1.7092;
58.8000;1.1608;1.7189;
59.1000;1.1624;1.7165;
59.4000;1.1608;1.7165;
59.7000;1.1632;1.7237;
60.0000;1.1624;1.7213;
60.3000;1.1616;1.7237;
60.6000;1.1616;1.7213;
60.9000;1.1648;1.7213;
61.2000;1.1624;1.7092;
61.5000;1.1624;1.7044;
61.8000;1.1616;1.7020;
62.1000;1.1632;1.7020;
62.4000;1.1624;1.6996;
62.7000;1.1632;1.7044;
63.0000;1.1640;1.7020;
63.3000;1.1640;1.6972;
63.6000;1.1730;1.7237;
63.9000;1.1608;1.6899;
64.2000;1.1640;1.6996;
64.5000;1.1616;1.6923;
64.8000;1.1608;1.6972;
65.1000;1.1632;1.7068;
65.4000;1.1632;1.6972;
65.7000;1.1640;1.6923;
66.0000;1.1624;1.6875;
66.3000;1.1624;1.6802;
66.6000;1.1591;1.6754;
66.9000;1.1543;1.6585;
67.2000;1.1624;1.6899;
67.5000;1.1665;1.6923;
67.8000;1.1616;1.6754;
68.1000;1.1608;1.6730;
68.4000;1.1632;1.6706;
68.7000;1.1632;1.6754;
69.0000;1.1624;1.6730;
69.3000;1.1640;1.6778;
69.6000;1.1632;1.6778;
69.9000;1.1697;1.6802;
70.2000;1.1648;1.6778;
70.5000;1.1665;1.6730;
70.8000;1.1713;1.6826;
71.1000;1.1681;1.6681;
71.4000;1.1648;1.6633;
71.7000;1.1648;1.6609;
72.0000;1.1648;1.6633;
72.3000;1.1656;1.6609;
72.6000;1.1656;1.6706;
72.9000;1.1632;1.6633;
73.2000;1.1640;1.6778;
73.5000;1.1648;1.6923;
73.8000;1.1656;1.6875;
74.1000;1.1656;1.6923;
74.4000;1.1665;1.6996;
74.7000;1.1648;1.6947;
75.0000;1.1608;1.6778;
75.3000;1.1656;1.6972;
75.6000;1.1656;1.6899;
75.9000;1.1656;1.6923;
76.2000;1.1681;1.6947;
76.5000;1.1665;1.6851;
76.8000;1.1673;1.6899;
77.1000;1.1656;1.6899;
77.4000;1.1665;1.6923;
77.7000;1.1648;1.6899;
78.0000;1.1665;1.6875;
78.3000;1.1656;1.6899;
78.6000;1.1665;1.6802;
78.9000;1.1656;1.6778;
79.2000;1.1656;1.6802;
79.5000;1.1624;1.6754;
79.8000;1.1648;1.6754;
80.1000;1.1656;1.6754;
80.4000;1.1616;1.6778;
80.7000;1.1567;1.6633;
81.0000;1.1656;1.6875;
81.3000;1.1640;1.6875;
81.6000;1.1665;1.6875;
81.9000;1.1656;1.6754;
82.2000;1.1656;1.6802;
82.5000;1.1656;1.6754;
82.8000;1.1673;1.6754;
83.1000;1.1648;1.6681;
83.4000;1.1665;1.6681;
83.7000;1.1648;1.6730;
84.0000;1.1632;1.6706;
84.3000;1.1697;1.6802;
84.6000;1.1640;1.6778;
84.9000;1.1656;1.6754;
85.2000;1.1648;1.6730;
85.5000;1.1632;1.6657;
85.8000;1.1648;1.6754;
86.1000;1.1673;1.6778;
86.4000;1.1722;1.6706;
86.7000;1.1665;1.6512;
87.0000;1.1632;1.6440;
87.3000;1.1705;1.6633;
87.6000;1.1624;1.6440;
87.9000;1.1673;1.6633;
88.2000;1.1681;1.6633;
88.5000;1.1673;1.6657;
88.8000;1.1689;1.6657;
89.1000;1.1697;1.6730;
89.4000;1.1673;1.6706;
89.7000;1.1640;1.6657;
90.0000;1.1591;1.6512;
90.3000;1.1673;1.6730;
90.6000;1.1665;1.6730;
90.9000;1.1681;1.6778;
91.2000;1.1648;1.6754;
91.5000;1.1656;1.6657;
91.8000;1.1673;1.6657;
92.1000;1.1665;1.6681;
92.4000;1.1665;1.6706;
92.7000;1.1616;1.6609;
93.0000;1.1656;1.6706;
93.3000;1.1673;1.6730;
93.6000;1.1673;1.6826;
93.9000;1.1681;1.6778;
94.2000;1.1689;1.6802;
94.5000;1.1665;1.6802;
94.8000;1.1673;1.6802;
95.1000;1.1673;1.6778;
95.4000;1.1697;1.6851;
95.7000;1.1665;1.6778;
96.0000;1.1656;1.6778;
96.3000;1.1681;1.6802;
96.6000;1.1640;1.6730;
96.9000;1.1681;1.6875;
97.2000;1.1673;1.6802;
97.5000;1.1665;1.6778;
97.8000;1.1624;1.6657;
98.1000;1.1665;1.6754;
98.4000;1.1656;1.6851;
98.7000;1.1673;1.6947;
99.0000;1.1681;1.6899;
99.3000;1.1648;1.6826;
99.6000;1.1673;1.6875;
99.9000;1.1656;1.6923;
100.2000;1.1673;1.6851;
100.5000;1.1681;1.6947;
100.8000;1.1665;1.6875;
101.1000;1.1648;1.6802;
101.4000;1.1648;1.6826;
101.7000;1.1656;1.6778;
102.0000;1.1681;1.6826;
102.3000;1.1681;1.6826;
102.6000;1.1681;1.6778;
102.9000;1.1673;1.6754;
103.2000;1.1705;1.6875;
103.5000;1.1673;1.6802;
103.8000;1.1673;1.6899;
104.1000;1.1689;1.7020;
104.4000;1.1673;1.7020;
104.7000;1.1722;1.7092;
105.0000;1.1648;1.6826;
105.3000;1.1681;1.6778;
105.6000;1.1673;1.6730;
105.9000;1.1689;1.6730;
106.2000;1.1665;1.6657;
106.5000;1.1689;1.6778;
106.8000;1.1697;1.6802;
107.1000;1.1697;1.6875;
107.4000;1.1689;1.6899;
107.7000;1.1705;1.6923;
108.0000;1.1689;1.6947;
108.3000;1.1697;1.6923;
108.6000;1.1640;1.6778;
108.9000;1.1673;1.6826;
109.2000;1.1608;1.6706;
109.5000;1.1673;1.6826;
109.8000;1.1665;1.6826;
110.1000;1.1705;1.6899;
110.4000;1.1673;1.6875;
110.7000;1.1681;1.6875;
111.0000;1.1681;1.6899;
111.3000;1.1624;1.6706;
111.6000;1.1673;1.6778;
111.9000;1.1673;1.6754;
112.2000;1.1673;1.6706;
112.5000;1.1689;1.6706;
112.8000;1.1673;1.6754;
113.1000;1.1689;1.6730;
113.4000;1.1665;1.6633;
113.7000;1.1656;1.6609;
114.0000;1.1673;1.6609;
114.3000;1.1673;1.6633;
114.6000;1.1681;1.6609;
114.9000;1.1616;1.6488;
115.2000;1.1656;1.6657;
115.5000;1.1632;1.6561;
115.8000;1.1754;1.6826;
116.1000;1.1665;1.6657;
116.4000;1.1665;1.6633;
116.7000;1.1779;1.6851;
117.0000;1.1673;1.6488;
117.3000;1.1689;1.6536;
117.6000;1.1697;1.6633;
117.9000;1.1681;1.6561;
118.2000;1.1697;1.6609;
118.5000;1.1681;1.6730;
118.8000;1.1681;1.6826;
119.1000;1.1681;1.6875;
119.4000;1.1689;1.6899;
119.7000;1.1656;1.6875;
120.0000;1.1656;1.6875;
120.3000;1.1656;1.6730;
120.6000;1.1665;1.6802;
120.9000;1.1689;1.6875;
121.2000;1.1673;1.6923;
121.5000;1.1665;1.6826;
121.8000;1.1616;1.6657;
122.1000;1.1656;1.6730;
122.4000;1.1632;1.6609;
122.7000;1.1689;1.6754;
123.0000;1.1665;1.6657;
123.3000;1.1673;1.6778;
123.6000;1.1632;1.6730;
123.9000;1.1681;1.6851;
124.2000;1.1648;1.6778;
124.5000;1.1681;1.6899;
124.8000;1.1681;1.6875;
125.1000;1.1681;1.6875;
125.4000;1.1648;1.6730;
125.7000;1.1665;1.6609;
126.0000;1.1697;1.6657;
126.3000;1.1681;1.6657;
126.6000;1.1697;1.6681;
126.9000;1.1697;1.6754;
127.2000;1.1697;1.6754;
127.5000;1.1681;1.6802;
127.8000;1.1697;1.6802;
128.1000;1.1681;1.6826;
128.4000;1.1673;1.6802;
128.7000;1.1689;1.6851;
129.0000;1.1591;1.6561;
129.3000;1.1689;1.6826;
129.6000;1.1705;1.6875;
129.9000;1.1689;1.6851;
130.2000;1.1697;1.6826;
130.5000;1.1681;1.6875;
130.8000;1.1673;1.6875;
131.1000;1.1697;1.6899;
131.4000;1.1681;1.6899;
131.7000;1.1681;1.6851;
132.0000;1.1673;1.6802;
132.3000;1.1681;1.6754;
132.6000;1.1673;1.6730;
132.9000;1.1689;1.6754;
133.2000;1.1681;1.6826;
133.5000;1.1689;1.6851;
133.8000;1.1681;1.6778;
134.1000;1.1632;1.6657;
134.4000;1.1673;1.6851;
134.7000;1.1673;1.6851;
135.0000;1.1673;1.6851;
135.3000;1.1697;1.6778;
135.6000;1.1681;1.6681;
135.9000;1.1640;1.6536;
136.2000;1.1722;1.6754;
136.5000;1.1673;1.6754;
136.8000;1.1681;1.6778;
137.1000;1.1689;1.6826;
137.4000;1.1681;1.6851;
137.7000;1.1689;1.6923;
138.0000;1.1705;1.6923;
138.3000;1.1673;1.6802;
138.6000;1.1705;1.6826;
138.9000;1.1673;1.6730;
139.2000;1.1673;1.6657;
139.5000;1.1673;1.6633;
139.8000;1.1681;1.6633;
140.1000;1.1665;1.6633;
140.4000;1.1697;1.6681;
140.7000;1.1689;1.6706;
141.0000;1.1697;1.6633;
141.3000;1.1697;1.6706;
141.6000;1.1697;1.6754;
141.9000;1.1656;1.6706;
142.2000;1.1689;1.6826;
142.5000;1.1689;1.6875;
142.8000;1.1656;1.6778;
143.1000;1.1689;1.6947;
143.4000;1.1681;1.6899;
143.7000;1.1648;1.6826;
144.0000;1.1689;1.6923;
144.3000;1.1608;1.6706;
144.6000;1.1673;1.6706;
144.9000;1.1713;1.6754;
145.2000;1.1697;1.6754;
145.5000;1.1697;1.6754;
145.8000;1.1689;1.6778;
146.1000;1.1689;1.6681;
146.4000;1.1648;1.6464;
146.7000;1.1665;1.6464;
147.0000;1.1705;1.6536;
147.3000;1.1648;1.6464;
147.6000;1.1673;1.6633;
147.9000;1.1665;1.6657;
148.2000;1.1665;1.6633;
148.5000;1.1656;1.6754;
148.8000;1.1673;1.6875;
149.1000;1.1697;1.6923;
149.4000;1.1681;1.6947;
149.7000;1.1681;1.6923;
150.0000;1.1681;1.6996;
150.3000;1.1681;1.6947;
150.6000;1.1681;1.6899;
150.9000;1.1689;1.6899;
151.2000;1.1673;1.6947;
151.5000;1.1697;1.6947;
151.8000;1.1681;1.6875;
152.1000;1.1665;1.6826;
152.4000;1.1762;1.7020;
152.7000;1.1681;1.6826;
153.0000;1.1681;1.6706;
153.3000;1.1697;1.6826;
153.6000;1.1689;1.6802;
153.9000;1.1689;1.6778;
154.2000;1.1705;1.6730;
154.5000;1.1681;1.6633;
154.8000;1.1689;1.6657;
155.1000;1.1713;1.6657;
155.4000;1.1689;1.6561;
155.7000;1.1705;1.6536;
156.0000;1.1681;1.6561;
156.3000;1.1689;1.6706;
156.6000;1.1730;1.6778;
156.9000;1.1722;1.6754;
157.2000;1.1673;1.6609;
157.5000;1.1681;1.6681;
157.8000;1.1656;1.6633;
158.1000;1.1689;1.6706;
158.4000;1.1730;1.6778;
158.7000;1.1656;1.6561;
159.0000;1.1697;1.6609;
159.3000;1.1689;1.6633;
159.6000;1.1624;1.6536;
159.9000;1.1697;1.6585;
160.2000;1.1705;1.6561;
160.5000;1.1681;1.6536;
160.8000;1.1681;1.6633;
161.1000;1.1673;1.6681;
161.4000;1.1681;1.6754;
161.7000;1.1665;1.6754;
162.0000;1.1730;1.6802;
162.3000;1.1673;1.6585;
162.6000;1.1656;1.6561;
162.9000;1.1632;1.6561;
163.2000;1.1689;1.6730;
163.5000;1.1632;1.6609;
163.8000;1.1681;1.6730;
164.1000;1.1697;1.6754;
164.4000;1.1697;1.6754;
164.7000;1.1762;1.6899;
165.0000;1.1673;1.6609;
165.3000;1.1665;1.6633;
165.6000;1.1689;1.6585;
165.9000;1.1673;1.6585;
166.2000;1.1673;1.6730;
166.5000;1.1665;1.6706;
166.8000;1.1689;1.6802;
167.1000;1.1681;1.6826;
167.4000;1.1689;1.6826;
167.7000;1.1681;1.6875;
168.0000;1.1689;1.6851;
168.3000;1.1697;1.6875;
168.6000;1.1705;1.6875;
168.9000;1.1689;1.6706;
169.2000;1.1689;1.6826;
169.5000;1.1722;1.6923;
169.8000;1.1681;1.6754;
170.1000;1.1681;1.6802;
170.4000;1.1689;1.6826;
170.7000;1.1681;1.6851;
171.0000;1.1616;1.6657;
171.3000;1.1681;1.6778;
171.6000;1.1656;1.6657;
171.9000;1.1673;1.6681;
172.2000;1.1689;1.6730;
172.5000;1.1673;1.6706;
172.8000;1.1689;1.6754;
173.1000;1.1665;1.6657;
173.4000;1.1665;1.6657;
173.7000;1.1673;1.6633;
174.0000;1.1681;1.6633;
174.3000;1.1673;1.6706;
174.6000;1.1673;1.6730;
174.9000;1.1697;1.6802;
175.2000;1.1681;1.6706;
175.5000;1.1697;1.6706;
175.8000;1.1632;1.6633;
176.1000;1.1681;1.6802;
176.4000;1.1697;1.6754;
176.7000;1.1722;1.6826;
177.0000;1.1705;1.6826;
177.3000;1.1673;1.6730;
177.6000;1.1705;1.6802;
177.9000;1.1697;1.6826;
178.2000;1.1681;1.6778;
178.5000;1.1681;1.6778;
178.8000;1.1713;1.6972;
179.1000;1.1673;1.6826;
179.4000;1.1705;1.6947;
179.7000;1.1697;1.6923;
180.0000;1.1681;1.6851;
180.3000;1.1689;1.6826;
180.6000;1.1689;1.6851;
180.9000;1.1705;1.6875;
181.2000;1.1689;1.6851;
181.5000;1.1689;1.6875;
181.8000;1.1624;1.6730;
182.1000;1.1681;1.6802;
182.4000;1.1640;1.6633;
182.7000;1.1746;1.6923;
183.0000;1.1665;1.6633;
183.3000;1.1673;1.6585;
183.6000;1.1697;1.6585;
183.9000;1.1648;1.6512;
184.2000;1.1665;1.6561;
184.5000;1.1681;1.6730;
184.8000;1.1648;1.6609;
185.1000;1.1689;1.6681;
185.4000;1.1681;1.6657;
185.7000;1.1722;1.6730;
186.0000;1.1656;1.6536;
186.3000;1.1697;1.6609;
186.6000;1.1665;1.6609;
186.9000;1.1665;1.6657;
187.2000;1.1681;1.6681;
187.5000;1.1665;1.6730;
187.8000;1.1681;1.6851;
188.1000;1.1689;1.6778;
188.4000;1.1697;1.6754;
188.7000;1.1689;1.6778;
189.0000;1.1673;1.6730;
189.3000;1.1705;1.6802;
189.6000;1.1673;1.6681;
189.9000;1.1681;1.6706;
190.2000;1.1673;1.6730;
190.5000;1.1673;1.6754;
190.8000;1.1689;1.6706;
191.1000;1.1681;1.6633;
191.4000;1.1697;1.6681;
191.7000;1.1681;1.6681;
192.0000;1.1705;1.6609;
192.3000;1.1746;1.6681;
192.6000;1.1632;1.6319;
192.9000;1.1673;1.6367;
193.2000;1.1673;1.6415;
193.5000;1.1656;1.6415;
193.8000;1.1697;1.6561;
194.1000;1.1689;1.6585;
194.4000;1.1673;1.6464;
194.7000;1.1689;1.6464;
195.0000;1.1681;1.6391;
195.3000;1.1689;1.6391;
195.6000;1.1689;1.6391;
195.9000;1.1648;1.6295;
196.2000;1.1665;1.6270;
196.5000;1.1681;1.6319;
196.8000;1.1632;1.6222;
197.1000;1.1681;1.6415;
197.4000;1.1681;1.6367;
197.7000;1.1673;1.6246;
198.0000;1.1648;1.6319;
198.3000;1.1689;1.6440;
198.6000;1.1689;1.6295;
198.9000;1.1705;1.6270;
199.2000;1.1705;1.6270;
199.5000;1.1697;1.6174;
199.8000;1.1689;1.6101;
200.1000;1.1713;1.6150;
200.4000;1.1689;1.6198;
200.7000;1.1705;1.6198;
201.0000;1.1713;1.6198;
201.3000;1.1697;1.6246;
201.6000;1.1681;1.6222;
201.9000;1.1673;1.6246;
202.2000;1.1616;1.6101;
202.5000;1.1632;1.6222;
202.8000;1.1673;1.6391;
203.1000;1.1600;1.6270;
203.4000;1.1673;1.6585;
203.7000;1.1689;1.6633;
204.0000;1.1681;1.6536;
204.3000;1.1689;1.6536;
204.6000;1.1705;1.6706;
204.9000;1.1648;1.6730;
205.2000;1.1689;1.6802;
205.5000;1.1656;1.6633;
205.8000;1.1673;1.6681;
206.1000;1.1681;1.6706;
206.4000;1.1722;1.6851;
206.7000;1.1656;1.6657;
207.0000;1.1656;1.6585;
207.3000;1.1673;1.6633;
207.6000;1.1697;1.6706;
207.9000;1.1705;1.6754;
208.2000;1.1681;1.6706;
208.5000;1.1681;1.6706;
208.8000;1.1689;1.6681;
209.1000;1.1681;1.6633;
209.4000;1.1689;1.6633;
209.7000;1.1697;1.6681;
210.0000;1.1689;1.6730;
210.3000;1.1697;1.6778;
210.6000;1.1689;1.6681;
210.9000;1.1681;1.6706;
211.2000;1.1697;1.6706;
211.5000;1.1697;1.6730;
211.8000;1.1697;1.6681;
212.1000;1.1722;1.6706;
212.4000;1.1713;1.6730;
212.7000;1.1681;1.6633;
213.0000;1.1681;1.6657;
213.3000;1.1681;1.6706;
213.6000;1.1705;1.6754;
213.9000;1.1697;1.6778;
214.2000;1.1681;1.6657;
214.5000;1.1689;1.6657;
214.8000;1.1640;1.6440;
215.1000;1.1681;1.6561;
215.4000;1.1665;1.6512;
215.7000;1.1787;1.6730;
216.0000;1.1681;1.6415;
216.3000;1.1738;1.6681;
216.6000;1.1665;1.6585;
216.9000;1.1730;1.6754;
217.2000;1.1681;1.6585;
217.5000;1.1648;1.6464;
217.8000;1.1754;1.6730;
218.1000;1.1640;1.6440;
218.4000;1.1713;1.6633;
218.7000;1.1648;1.6512;
219.0000;1.1673;1.6609;
219.3000;1.1681;1.6561;
219.6000;1.1697;1.6633;
219.9000;1.1673;1.6633;
220.2000;1.1705;1.6633;
220.5000;1.1795;1.6778;
220.8000;1.1689;1.6512;
221.1000;1.1722;1.6585;
221.4000;1.1697;1.6464;
221.7000;1.1689;1.6464;
222.0000;1.1689;1.6561;
222.3000;1.1689;1.6488;
222.6000;1.1697;1.6512;
222.9000;1.1689;1.6464;
223.2000;1.1689;1.6391;
223.5000;1.1681;1.6415;
223.8000;1.1689;1.6488;
224.1000;1.1632;1.6295;
224.4000;1.1681;1.6415;
224.7000;1.1697;1.6440;
225.0000;1.1689;1.6464;
225.3000;1.1705;1.6585;
225.6000;1.1705;1.6609;
225.9000;1.1681;1.6561;
226.2000;1.1673;1.6512;
226.5000;1.1689;1.6512;
226.8000;1.1697;1.6536;
227.1000;1.1640;1.6440;
227.4000;1.1665;1.6561;
227.7000;1.1681;1.6536;
228.0000;1.1673;1.6488;
228.3000;1.1673;1.6488;
228.6000;1.1665;1.6488;
228.9000;1.1681;1.6512;
229.2000;1.1697;1.6464;
229.5000;1.1746;1.6657;
229.8000;1.1656;1.6488;
230.1000;1.1762;1.6706;
230.4000;1.1689;1.6512;
230.7000;1.1681;1.6512;
231.0000;1.1665;1.6464;
231.3000;1.1624;1.6415;
231.6000;1.1713;1.6609;
231.9000;1.1738;1.6609;
232.2000;1.1665;1.6391;
232.5000;1.1640;1.6319;
232.8000;1.1673;1.6464;
233.1000;1.1665;1.6440;
233.4000;1.1665;1.6464;
233.7000;1.1648;1.6343;
234.0000;1.1673;1.6440;
234.3000;1.1681;1.6367;
234.6000;1.1681;1.6319;
234.9000;1.1681;1.6343;
235.2000;1.1673;1.6343;
235.5000;1.1722;1.6415;
235.8000;1.1665;1.6246;
236.1000;1.1665;1.6343;
236.4000;1.1681;1.6464;
236.7000;1.1681;1.6391;
237.0000;1.1681;1.6464;
237.3000;1.1665;1.6464;
237.6000;1.1681;1.6512;
237.9000;1.1681;1.6512;
238.2000;1.1681;1.6512;
238.5000;1.1681;1.6512;
238.8000;1.1705;1.6585;
239.1000;1.1689;1.6754;
239.4000;1.1681;1.6657;
239.7000;1.1648;1.6561;
240.0000;1.1681;1.6609;
240.3000;1.1681;1.6633;
240.6000;1.1697;1.6681;
240.9000;1.1673;1.6633;
241.2000;1.1681;1.6609;
241.5000;1.1681;1.6585;
241.8000;1.1665;1.6561;
242.1000;1.1640;1.6488;
242.4000;1.1681;1.6585;
242.7000;1.1681;1.6633;
243.0000;1.1689;1.6754;
243.3000;1.1681;1.6681;
243.6000;1.1689;1.6657;
243.9000;1.1722;1.6778;
244.2000;1.1673;1.6681;
244.5000;1.1673;1.6681;
244.8000;1.1665;1.6706;
245.1000;1.1681;1.6730;
245.4000;1.1673;1.6633;
245.7000;1.1689;1.6609;
246.0000;1.1697;1.6512;
246.3000;1.1689;1.6415;
246.6000;1.1673;1.6512;
246.9000;1.1713;1.6657;
247.2000;1.1681;1.6657;
247.5000;1.1656;1.6633;
247.8000;1.1689;1.6657;
248.1000;1.1673;1.6609;
248.4000;1.1673;1.6585;
248.7000;1.1656;1.6561;
249.0000;1.1689;1.6730;
249.3000;1.1673;1.6802;
249.6000;1.1713;1.6947;
249.9000;1.1697;1.6875;
250.2000;1.1689;1.6899;
250.5000;1.1713;1.6875;
250.8000;1.1689;1.6875;
251.1000;1.1673;1.6754;
251.4000;1.1673;1.6681;
251.7000;1.1673;1.6778;
252.0000;1.1640;1.6706;
252.3000;1.1673;1.6754;
252.6000;1.1665;1.6706;
252.9000;1.1665;1.6681;
253.2000;1.1681;1.6778;
253.5000;1.1705;1.6826;
253.8000;1.1616;1.6512;
254.1000;1.1600;1.6440;
254.4000;1.1681;1.6657;
254.7000;1.1697;1.6657;
255.0000;1.1689;1.6633;
255.3000;1.1656;1.6730;
255.6000;1.1600;1.6585;
255.9000;1.1673;1.6802;
256.2000;1.1640;1.6706;
256.5000;1.1616;1.6633;
256.8000;1.1640;1.6681;
257.1000;1.1681;1.6826;
257.4000;1.1681;1.6802;
257.7000;1.1697;1.6754;
258.0000;1.1673;1.6730;
258.3000;1.1689;1.6802;
258.6000;1.1656;1.6851;
258.9000;1.1656;1.6802;
259.2000;1.1681;1.6730;
259.5000;1.1681;1.6706;
259.8000;1.1681;1.6754;
260.1000;1.1673;1.6802;
260.4000;1.1673;1.6754;
260.7000;1.1689;1.6754;
261.0000;1.1681;1.6681;
261.3000;1.1681;1.6657;
261.6000;1.1705;1.6657;
261.9000;1.1681;1.6657;
262.2000;1.1697;1.6681;
262.5000;1.1722;1.6730;
262.8000;1.1673;1.6657;
263.1000;1.1673;1.6585;
263.4000;1.1673;1.6633;
263.7000;1.1673;1.6657;
264.0000;1.1673;1.6657;
264.3000;1.1665;1.6633;
264.6000;1.1648;1.6609;
264.9000;1.1681;1.6657;
265.2000;1.1656;1.6585;
265.5000;1.1665;1.6585;
265.8000;1.1673;1.6536;
266.1000;1.1665;1.6488;
266.4000;1.1673;1.6488;
266.7000;1.1665;1.6561;
267.0000;1.1697;1.6633;
267.3000;1.1681;1.6512;
267.6000;1.1673;1.6512;
267.9000;1.1681;1.6585;
268.2000;1.1681;1.6561;
268.5000;1.1689;1.6609;
268.8000;1.1689;1.6657;
269.1000;1.1673;1.6609;
269.4000;1.1673;1.6633;
269.7000;1.1681;1.6561;
270.0000;1.1681;1.6585;
270.3000;1.1673;1.6561;
270.6000;1.1673;1.6536;
270.9000;1.1697;1.6633;
271.2000;1.1705;1.6657;
271.5000;1.1689;1.6609;
271.8000;1.1673;1.6609;
272.1000;1.1689;1.6633;
272.4000;1.1738;1.6706;
272.7000;1.1681;1.6633;
273.0000;1.1673;1.6657;
273.3000;1.1673;1.6657;
273.6000;1.1632;1.6561;
273.9000;1.1681;1.6706;
274.2000;1.1697;1.6730;
274.5000;1.1673;1.6754;
274.8000;1.1689;1.6778;
275.1000;1.1705;1.6899;
275.4000;1.1665;1.6826;
275.7000;1.1681;1.6851;
276.0000;1.1673;1.6899;
276.3000;1.1665;1.6778;
276.6000;1.1616;1.6561;
276.9000;1.1665;1.6657;
277.2000;1.1673;1.6585;
277.5000;1.1697;1.6609;
277.8000;1.1673;1.6561;
278.1000;1.1656;1.6512;
278.4000;1.1656;1.6561;
278.7000;1.1722;1.6657;
279.0000;1.1632;1.6488;
279.3000;1.1665;1.6609;
279.6000;1.1762;1.6972;
279.9000;1.1640;1.6706;
280.2000;1.1681;1.6754;
280.5000;1.1673;1.6706;
280.8000;1.1681;1.6778;
281.1000;1.1665;1.6681;
281.4000;1.1689;1.6657;
281.7000;1.1656;1.6585;
282.0000;1.1681;1.6633;
282.3000;1.1697;1.6609;
282.6000;1.1697;1.6585;
282.9000;1.1689;1.6561;
283.2000;1.1689;1.6536;
283.5000;1.1665;1.6585;
283.8000;1.1689;1.6681;
284.1000;1.1673;1.6657;
284.4000;1.1656;1.6706;
284.7000;1.1673;1.6730;
285.0000;1.1689;1.6706;
285.3000;1.1713;1.6826;
285.6000;1.1697;1.6826;
285.9000;1.1648;1.6706;
286.2000;1.1665;1.6754;
286.5000;1.1665;1.6802;
286.8000;1.1600;1.6512;
287.1000;1.1665;1.6706;
287.4000;1.1722;1.6851;
287.7000;1.1665;1.6657;
288.0000;1.1681;1.6657;
288.3000;1.1648;1.6609;
288.6000;1.1656;1.6681;
288.9000;1.1665;1.6657;
289.2000;1.1656;1.6561;
289.5000;1.1665;1.6585;
289.8000;1.1656;1.6609;
290.1000;1.1673;1.6585;
290.4000;1.1681;1.6633;
290.7000;1.1665;1.6706;
291.0000;1.1673;1.6730;
291.3000;1.1640;1.6609;
291.6000;1.1681;1.6754;
291.9000;1.1600;1.6561;
292.2000;1.1648;1.6681;
292.5000;1.1665;1.6585;
292.8000;1.1673;1.6633;
293.1000;1.1665;1.6754;
293.4000;1.1673;1.6706;
293.7000;1.1673;1.6730;
294.0000;1.1673;1.6706;
294.3000;1.1681;1.6681;
294.6000;1.1656;1.6633;
294.9000;1.1665;1.6633;
295.2000;1.1681;1.6730;
295.5000;1.1665;1.6633;
295.8000;1.1665;1.6633;
296.1000;1.1673;1.6609;
296.4000;1.1673;1.6730;
296.7000;1.1681;1.6778;
297.0000;1.1705;1.6802;
297.3000;1.1681;1.6681;
297.6000;1.1640;1.6561;
297.9000;1.1665;1.6706;
298.2000;1.1665;1.6730;
298.5000;1.1624;1.6609;
298.8000;1.1656;1.6633;
299.1000;1.1665;1.6609;
299.4000;1.1567;1.6391;
299.7000;1.1665;1.6561;
300.0000;1.1648;1.6488;
300.3000;1.1665;1.6609;
300.6000;1.1665;1.6561;
300.9000;1.1656;1.6561;
301.2000;1.1665;1.6561;
301.5000;1.1673;1.6536;
301.8000;1.1681;1.6609;
302.1000;1.1673;1.6415;
302.4000;1.1681;1.6391;
302.7000;1.1608;1.6174;
303.0000;1.1673;1.6222;
303.3000;1.1673;1.6174;
303.6000;1.1681;1.6246;
303.9000;1.1665;1.6174;
304.2000;1.1689;1.6174;
304.5000;1.1689;1.6125;
304.8000;1.1665;1.6101;
305.1000;1.1673;1.6222;
305.4000;1.1673;1.6246;
305.7000;1.1689;1.6270;
306.0000;1.1640;1.6101;
306.3000;1.1697;1.6150;
306.6000;1.1697;1.6150;
306.9000;1.1681;1.6101;
307.2000;1.1681;1.6077;
307.5000;1.1705;1.6270;
307.8000;1.1640;1.6222;
308.1000;1.1648;1.6270;
308.4000;1.1673;1.6343;
308.7000;1.1665;1.6319;
309.0000;1.1697;1.6440;
309.3000;1.1673;1.6343;
309.6000;1.1673;1.6319;
309.9000;1.1738;1.6319;
310.2000;1.1665;1.6150;
310.5000;1.1648;1.6174;
310.8000;1.1713;1.6367;
311.1000;1.1689;1.6343;
311.4000;1.1624;1.6222;
311.7000;1.1665;1.6343;
312.0000;1.1656;1.6343;
312.3000;1.1762;1.6657;
312.6000;1.1681;1.6488;
312.9000;1.1673;1.6536;
313.2000;1.1681;1.6488;
313.5000;1.1681;1.6488;
313.8000;1.1689;1.6488;
314.1000;1.1689;1.6367;
314.4000;1.1713;1.6415;
314.7000;1.1738;1.6561;
315.0000;1.1665;1.6343;
315.3000;1.1673;1.6391;
315.6000;1.1673;1.6367;
315.9000;1.1681;1.6464;
316.2000;1.1665;1.6488;
316.5000;1.1665;1.6488;
316.8000;1.1608;1.6246;
317.1000;1.1640;1.6391;
317.4000;1.1705;1.6512;
317.7000;1.1673;1.6415;
318.0000;1.1656;1.6415;
318.3000;1.1681;1.6415;
318.6000;1.1673;1.6367;
318.9000;1.1673;1.6319;
319.2000;1.1673;1.6222;
319.5000;1.1681;1.6174;
319.8000;1.1681;1.6174;
320.1000;1.1648;1.6077;
320.4000;1.1665;1.6125;
320.7000;1.1665;1.6174;
321.0000;1.1697;1.6295;
321.3000;1.1648;1.6246;
321.6000;1.1673;1.6319;
321.9000;1.1673;1.6391;
322.2000;1.1665;1.6464;
322.5000;1.1656;1.6536;
322.8000;1.1648;1.6585;
323.1000;1.1648;1.6657;
323.4000;1.1738;1.6923;
323.7000;1.1656;1.6706;
324.0000;1.1648;1.6754;
324.3000;1.1656;1.6851;
324.6000;1.1665;1.6875;
324.9000;1.1624;1.6802;
325.2000;1.1656;1.6851;
325.5000;1.1608;1.6681;
325.8000;1.1665;1.6851;
326.1000;1.1665;1.6851;
326.4000;1.1656;1.6899;
326.7000;1.1665;1.6826;
327.0000;1.1673;1.6875;
327.3000;1.1681;1.6899;
327.6000;1.1656;1.6754;
327.9000;1.1738;1.6826;
328.2000;1.1673;1.6609;
328.5000;1.1673;1.6681;
328.8000;1.1697;1.6730;
329.1000;1.1697;1.6657;
329.4000;1.1656;1.6464;
329.7000;1.1673;1.6561;
330.0000;1.1681;1.6464;
330.3000;1.1640;1.6343;
330.6000;1.1697;1.6536;
330.9000;1.1689;1.6609;
331.2000;1.1681;1.6633;
331.5000;1.1673;1.6633;
331.8000;1.1681;1.6657;
332.1000;1.1681;1.6681;
332.4000;1.1681;1.6730;
332.7000;1.1673;1.6706;
333.0000;1.1632;1.6561;
333.3000;1.1665;1.6657;
333.6000;1.1689;1.6730;
333.9000;1.1738;1.6826;
334.2000;1.1665;1.6657;
334.5000;1.1656;1.6657;
334.8000;1.1673;1.6681;
335.1000;1.1673;1.6633;
335.4000;1.1640;1.6609;
335.7000;1.1648;1.6657;
336.0000;1.1673;1.6681;
336.3000;1.1705;1.6754;
336.6000;1.1648;1.6657;
336.9000;1.1616;1.6754;
337.2000;1.1656;1.6899;
337.5000;1.1656;1.6826;
337.8000;1.1600;1.6633;
338.1000;1.1697;1.6778;
338.4000;1.1673;1.6706;
338.7000;1.1681;1.6706;
339.0000;1.1673;1.6706;
339.3000;1.1665;1.6730;
339.6000;1.1673;1.6754;
339.9000;1.1681;1.6851;
340.2000;1.1665;1.6754;
340.5000;1.1648;1.6754;
340.8000;1.1656;1.6730;
341.1000;1.1665;1.6706;
341.4000;1.1681;1.6706;
341.7000;1.1656;1.6536;
342.0000;1.1648;1.6488;
342.3000;1.1697;1.6561;
342.6000;1.1648;1.6415;
342.9000;1.1681;1.6561;
343.2000;1.1656;1.6633;
343.5000;1.1705;1.6778;
343.8000;1.1681;1.6681;
344.1000;1.1681;1.6681;
344.4000;1.1616;1.6488;
344.7000;1.1665;1.6561;
345.0000;1.1689;1.6681;
345.3000;1.1673;1.6681;
345.6000;1.1640;1.6585;
345.9000;1.1673;1.6633;
346.2000;1.1673;1.6681;
346.5000;1.1713;1.6826;
346.8000;1.1656;1.6802;
347.1000;1.1632;1.6778;
347.4000;1.1673;1.6802;
347.7000;1.1713;1.6851;
348.0000;1.1697;1.6802;
348.3000;1.1656;1.6706;
348.6000;1.1656;1.6561;
348.9000;1.1681;1.6706;
349.2000;1.1681;1.6706;
349.5000;1.1665;1.6633;
349.8000;1.1656;1.6609;
350.1000;1.1665;1.6657;
350.4000;1.1665;1.6778;
350.7000;1.1673;1.6754;
351.0000;1.1689;1.6802;
351.3000;1.1689;1.6875;
351.6000;1.1697;1.6802;
351.9000;1.1673;1.6730;
352.2000;1.1673;1.6657;
352.5000;1.1689;1.6657;
352.8000;1.1673;1.6633;
353.1000;1.1673;1.6706;
353.4000;1.1648;1.6609;
353.7000;1.1673;1.6633;
354.0000;1.1673;1.6730;
354.3000;1.1681;1.6706;
354.6000;1.1681;1.6657;
354.9000;1.1681;1.6681;
355.2000;1.1697;1.6754;
355.5000;1.1689;1.6826;
355.8000;1.1665;1.6730;
356.1000;1.1648;1.6633;
356.4000;1.1648;1.6609;
356.7000;1.1673;1.6706;
357.0000;1.1656;1.6802;
357.3000;1.1624;1.6609;
357.6000;1.1665;1.6706;
357.9000;1.1681;1.6706;
358.2000;1.1681;1.6706;
358.5000;1.1656;1.6633;
358.8000;1.1640;1.6609;
359.1000;1.1656;1.6536;
359.4000;1.1656;1.6561;
359.7000;1.1656;1.6633;
360.0000;1.1673;1.6657;
360.3000;1.1681;1.6681;
360.6000;1.1665;1.6609;
360.9000;1.1656;1.6585;
361.2000;1.1673;1.6633;
361.5000;1.1665;1.6561;
361.8000;1.1697;1.6633;
362.1000;1.1673;1.6585;
362.4000;1.1656;1.6585;
362.7000;1.1665;1.6633;
363.0000;1.1673;1.6681;
363.3000;1.1665;1.6681;
363.6000;1.1640;1.6609;
363.9000;1.1648;1.6633;
364.2000;1.1689;1.6657;
364.5000;1.1681;1.6681;
364.8000;1.1673;1.6681;
365.1000;1.1673;1.6730;
365.4000;1.1673;1.6633;
365.7000;1.1665;1.6657;
366.0000;1.1648;1.6585;
366.3000;1.1673;1.6754;
366.6000;1.1681;1.6802;
366.9000;1.1656;1.6730;
367.2000;1.1656;1.6633;
367.5000;1.1681;1.6730;
367.8000;1.1665;1.6657;
368.1000;1.1640;1.6657;
368.4000;1.1648;1.6706;
368.7000;1.1648;1.6706;
369.0000;1.1656;1.6730;
369.3000;1.1665;1.6633;
369.6000;1.1632;1.6585;
369.9000;1.1656;1.6681;
370.2000;1.1656;1.6730;
370.5000;1.1697;1.6754;
370.8000;1.1648;1.6609;
371.1000;1.1640;1.6512;
371.4000;1.1640;1.6561;
371.7000;1.1648;1.6512;
372.0000;1.1567;1.6343;
372.3000;1.1665;1.6585;
372.6000;1.1673;1.6561;
372.9000;1.1656;1.6440;
373.2000;1.1673;1.6512;
373.5000;1.1640;1.6440;
373.8000;1.1665;1.6536;
374.1000;1.1762;1.6754;
374.4000;1.1673;1.6488;
374.7000;1.1665;1.6440;
375.0000;1.1665;1.6488;
375.3000;1.1681;1.6609;
375.6000;1.1673;1.6536;
375.9000;1.1656;1.6488;
376.2000;1.1665;1.6464;
376.5000;1.1705;1.6609;
376.8000;1.1665;1.6512;
377.1000;1.1673;1.6585;
377.4000;1.1689;1.6609;
377.7000;1.1673;1.6657;
378.0000;1.1665;1.6585;
378.3000;1.1673;1.6536;
378.6000;1.1673;1.6561;
378.9000;1.1689;1.6681;
379.2000;1.1665;1.6681;
379.5000;1.1616;1.6512;
379.8000;1.1656;1.6706;
380.1000;1.1648;1.6706;
380.4000;1.1648;1.6706;
380.7000;1.1681;1.6706;
381.0000;1.1656;1.6706;
381.3000;1.1656;1.6706;
381.6000;1.1681;1.6754;
381.9000;1.1648;1.6706;
382.2000;1.1656;1.6754;
382.5000;1.1665;1.6754;
382.8000;1.1656;1.6802;
383.1000;1.1648;1.6706;
383.4000;1.1665;1.6609;
383.7000;1.1681;1.6681;
384.0000;1.1665;1.6512;
384.3000;1.1697;1.6585;
384.6000;1.1673;1.6512;
384.9000;1.1665;1.6488;
385.2000;1.1665;1.6488;
385.5000;1.1656;1.6512;
385.8000;1.1665;1.6536;
386.1000;1.1705;1.6585;
386.4000;1.1665;1.6464;
386.7000;1.1673;1.6512;
387.0000;1.1656;1.6464;
387.3000;1.1673;1.6536;
387.6000;1.1681;1.6536;
387.9000;1.1673;1.6488;
388.2000;1.1689;1.6585;
388.5000;1.1673;1.6609;
388.8000;1.1616;1.6415;
389.1000;1.1665;1.6536;
389.4000;1.1656;1.6585;
389.7000;1.1673;1.6609;
390.0000;1.1673;1.6585;
390.3000;1.1665;1.6585;
390.6000;1.1656;1.6585;
390.9000;1.1673;1.6561;
391.2000;1.1673;1.6488;
391.5000;1.1640;1.6391;
391.8000;1.1697;1.6585;
392.1000;1.1713;1.6681;
392.4000;1.1673;1.6536;
392.7000;1.1656;1.6488;
393.0000;1.1665;1.6343;
393.3000;1.1665;1.6343;
393.6000;1.1795;1.6633;
393.9000;1.1656;1.6319;
394.2000;1.1665;1.6367;
394.5000;1.1665;1.6440;
394.8000;1.1656;1.6415;
395.1000;1.1665;1.6391;
395.4000;1.1665;1.6295;
395.7000;1.1656;1.6343;
396.0000;1.1624;1.6343;
396.3000;1.1656;1.6488;
396.6000;1.1648;1.6512;
396.9000;1.1648;1.6512;
397.2000;1.1673;1.6561;
397.5000;1.1656;1.6585;
397.8000;1.1559;1.6270;
398.1000;1.1656;1.6488;
398.4000;1.1673;1.6609;
398.7000;1.1665;1.6609;
399.0000;1.1656;1.6561;
399.3000;1.1673;1.6730;
399.6000;1.1681;1.6706;
399.9000;1.1681;1.6730;
400.2000;1.1681;1.6609;
400.5000;1.1656;1.6585;
400.8000;1.1665;1.6609;
401.1000;1.1656;1.6609;
401.4000;1.1648;1.6657;
401.7000;1.1656;1.6730;
402.0000;1.1665;1.6802;
402.3000;1.1673;1.6802;
402.6000;1.1689;1.6730;
402.9000;1.1705;1.6826;
403.2000;1.1656;1.6730;
403.5000;1.1673;1.6802;
403.8000;1.1673;1.6778;
404.1000;1.1673;1.6802;
404.4000;1.1665;1.6802;
404.7000;1.1665;1.6754;
405.0000;1.1681;1.6778;
405.3000;1.1591;1.6561;
405.6000;1.1665;1.6802;
405.9000;1.1648;1.6681;
406.2000;1.1648;1.6657;
406.5000;1.1656;1.6730;
406.8000;1.1648;1.6706;
407.1000;1.1640;1.6561;
407.4000;1.1656;1.6536;
407.7000;1.1648;1.6609;
408.0000;1.1656;1.6585;
408.3000;1.1656;1.6464;
408.6000;1.1673;1.6512;
408.9000;1.1665;1.6561;
409.2000;1.1656;1.6561;
409.5000;1.1673;1.6536;
409.8000;1.1648;1.6633;
410.1000;1.1665;1.6706;
410.4000;1.1681;1.6681;
410.7000;1.1648;1.6536;
411.0000;1.1648;1.6536;
411.3000;1.1616;1.6391;
411.6000;1.1656;1.6415;
411.9000;1.1713;1.6561;
412.2000;1.1656;1.6440;
412.5000;1.1665;1.6464;
412.8000;1.1673;1.6440;
413.1000;1.1673;1.6391;
413.4000;1.1722;1.6585;
413.7000;1.1681;1.6585;
414.0000;1.1673;1.6561;
414.3000;1.1648;1.6512;
414.6000;1.1665;1.6585;
414.9000;1.1665;1.6609;
415.2000;1.1665;1.6681;
415.5000;1.1656;1.6657;
415.8000;1.1648;1.6585;
416.1000;1.1681;1.6609;
416.4000;1.1665;1.6585;
416.7000;1.1648;1.6512;
417.0000;1.1656;1.6633;
417.3000;1.1665;1.6585;
417.6000;1.1648;1.6488;
417.9000;1.1648;1.6488;
418.2000;1.1656;1.6536;
418.5000;1.1665;1.6585;
418.8000;1.1673;1.6536;
419.1000;1.1673;1.6609;
419.4000;1.1656;1.6609;
419.7000;1.1656;1.6633;
420.0000;1.1640;1.6609;
420.3000;1.1648;1.6633;
420.6000;1.1640;1.6561;
420.9000;1.1624;1.6585;
421.2000;1.1697;1.6826;
421.5000;1.1673;1.6706;
421.8000;1.1648;1.6609;
422.1000;1.1648;1.6561;
422.4000;1.1673;1.6585;
422.7000;1.1656;1.6585;
423.0000;1.1673;1.6585;
423.3000;1.1648;1.6561;
423.6000;1.1656;1.6561;
423.9000;1.1665;1.6609;
424.2000;1.1665;1.6585;
424.5000;1.1632;1.6512;
424.8000;1.1697;1.6681;
425.1000;1.1656;1.6681;
425.4000;1.1665;1.6754;
425.7000;1.1648;1.6657;
426.0000;1.1640;1.6657;
426.3000;1.1673;1.6754;
426.6000;1.1656;1.6681;
426.9000;1.1689;1.6706;
427.2000;1.1665;1.6681;
427.5000;1.1616;1.6609;
427.8000;1.1665;1.6657;
428.1000;1.1624;1.6609;
428.4000;1.1648;1.6609;
428.7000;1.1640;1.6633;
429.0000;1.1656;1.6633;
429.3000;1.1730;1.6730;
429.6000;1.1648;1.6488;
429.9000;1.1648;1.6464;
430.2000;1.1673;1.6561;
430.5000;1.1673;1.6536;
430.8000;1.1713;1.6633;
431.1000;1.1665;1.6536;
431.4000;1.1665;1.6561;
431.7000;1.1656;1.6585;
432.0000;1.1648;1.6536;
432.3000;1.1640;1.6512;
432.6000;1.1640;1.6536;
432.9000;1.1665;1.6585;
433.2000;1.1648;1.6464;
433.5000;1.1656;1.6488;
433.8000;1.1648;1.6536;
434.1000;1.1730;1.6730;
434.4000;1.1656;1.6561;
434.7000;1.1673;1.6415;
435.0000;1.1656;1.6440;
435.3000;1.1656;1.6488;
435.6000;1.1665;1.6609;
435.9000;1.1665;1.6609;
436.2000;1.1656;1.6561;
436.5000;1.1722;1.6754;
436.8000;1.1656;1.6585;
437.1000;1.1648;1.6512;
437.4000;1.1705;1.6585;
437.7000;1.1681;1.6536;
438.0000;1.1689;1.6609;
438.3000;1.1656;1.6585;
438.6000;1.1665;1.6657;
438.9000;1.1656;1.6585;
439.2000;1.1665;1.6585;
439.5000;1.1697;1.6778;
439.8000;1.1640;1.6657;
440.1000;1.1656;1.6730;
440.4000;1.1648;1.6657;
440.7000;1.1681;1.6778;
441.0000;1.1640;1.6585;
441.3000;1.1567;1.6415;
441.6000;1.1665;1.6633;
441.9000;1.1681;1.6657;
442.2000;1.1656;1.6633;
442.5000;1.1656;1.6609;
442.8000;1.1648;1.6633;
443.1000;1.1705;1.6754;
443.4000;1.1673;1.6609;
443.7000;1.1656;1.6536;
444.0000;1.1648;1.6585;
444.3000;1.1673;1.6609;
444.6000;1.1665;1.6609;
444.9000;1.1730;1.6754;
445.2000;1.1656;1.6488;
445.5000;1.1648;1.6464;
445.8000;1.1648;1.6343;
446.1000;1.1640;1.6270;
446.4000;1.1624;1.6295;
446.7000;1.1640;1.6391;
447.0000;1.1665;1.6536;
447.3000;1.1656;1.6536;
447.6000;1.1632;1.6391;
447.9000;1.1738;1.6609;
448.2000;1.1648;1.6415;
448.5000;1.1673;1.6391;
448.8000;1.1656;1.6391;
449.1000;1.1656;1.6488;
449.4000;1.1689;1.6464;
449.7000;1.1665;1.6367;
450.0000;1.1648;1.6367;
450.3000;1.1640;1.6295;
450.6000;1.1665;1.6319;
450.9000;1.1722;1.6391;
451.2000;1.1656;1.6222;
451.5000;1.1648;1.6125;
451.8000;1.1632;1.6174;
452.1000;1.1656;1.6295;
452.4000;1.1648;1.6343;
452.7000;1.1648;1.6415;
453.0000;1.1656;1.6440;
453.3000;1.1656;1.6488;
453.6000;1.1648;1.6512;
453.9000;1.1656;1.6512;
454.2000;1.1640;1.6536;
454.5000;1.1640;1.6585;
454.8000;1.1648;1.6585;
455.1000;1.1656;1.6536;
455.4000;1.1656;1.6585;
455.7000;1.1648;1.6536;
456.0000;1.1648;1.6536;
456.3000;1.1673;1.6657;
456.6000;1.1656;1.6754;
456.9000;1.1656;1.6754;
457.2000;1.1665;1.6706;
457.5000;1.1648;1.6730;
457.8000;1.1640;1.6633;
458.1000;1.1665;1.6681;
458.4000;1.1673;1.6657;
458.7000;1.1730;1.6802;
459.0000;1.1681;1.6657;
459.3000;1.1673;1.6609;
459.6000;1.1648;1.6585;
459.9000;1.1665;1.6633;
460.2000;1.1616;1.6464;
460.5000;1.1665;1.6609;
460.8000;1.1656;1.6706;
461.1000;1.1673;1.6778;
461.4000;1.1640;1.6706;
461.7000;1.1648;1.6730;
462.0000;1.1648;1.6730;
462.3000;1.1648;1.6681;
462.6000;1.1681;1.6730;
462.9000;1.1681;1.6681;
463.2000;1.1648;1.6609;
463.5000;1.1713;1.6802;
463.8000;1.1665;1.6609;
464.1000;1.1697;1.6657;
464.4000;1.1624;1.6464;
464.7000;1.1640;1.6464;
465.0000;1.1689;1.6585;
465.3000;1.1665;1.6464;
465.6000;1.1567;1.6270;
465.9000;1.1656;1.6488;
466.2000;1.1591;1.6295;
466.5000;1.1640;1.6464;
466.8000;1.1632;1.6536;
467.1000;1.1640;1.6488;
467.4000;1.1665;1.6561;
467.7000;1.1665;1.6609;
468.0000;1.1640;1.6609;
468.3000;1.1665;1.6657;
468.6000;1.1665;1.6657;
468.9000;1.1648;1.6706;
469.2000;1.1656;1.6657;
469.5000;1.1665;1.6585;
469.8000;1.1673;1.6609;
470.1000;1.1673;1.6536;
470.4000;1.1665;1.6536;
470.7000;1.1673;1.6440;
471.0000;1.1600;1.6367;
471.3000;1.1640;1.6488;
471.6000;1.1665;1.6657;
471.9000;1.1640;1.6512;
472.2000;1.1656;1.6585;
472.5000;1.1673;1.6585;
472.8000;1.1640;1.6512;
473.1000;1.1640;1.6585;
473.4000;1.1648;1.6681;
473.7000;1.1673;1.6730;
474.0000;1.1665;1.6802;
474.3000;1.1665;1.6730;
474.6000;1.1681;1.6802;
474.9000;1.1656;1.6778;
475.2000;1.1681;1.6826;
475.5000;1.1656;1.6802;
475.8000;1.1640;1.6730;
476.1000;1.1665;1.6778;
476.4000;1.1575;1.6440;
476.7000;1.1616;1.6561;
477.0000;1.1640;1.6585;
477.3000;1.1656;1.6633;
477.6000;1.1681;1.6633;
477.9000;1.1665;1.6585;
478.2000;1.1640;1.6512;
478.5000;1.1673;1.6657;
478.8000;1.1656;1.6561;
479.1000;1.1673;1.6657;
479.4000;1.1640;1.6585;
479.7000;1.1656;1.6681;
480.0000;1.1640;1.6561;
480.3000;1.1673;1.6706;
480.6000;1.1681;1.6754;
480.9000;1.1624;1.6706;
481.2000;1.1648;1.6754;
481.5000;1.1640;1.6754;
481.8000;1.1648;1.6730;
482.1000;1.1648;1.6754;
482.4000;1.1656;1.6730;
482.7000;1.1648;1.6706;
483.0000;1.1705;1.6899;
483.3000;1.1640;1.6706;
483.6000;1.1673;1.6826;
483.9000;1.1648;1.6706;
484.2000;1.1648;1.6609;
484.5000;1.1722;1.6754;
484.8000;1.1656;1.6561;
485.1000;1.1600;1.6488;
485.4000;1.1673;1.6633;
485.7000;1.1624;1.6488;
486.0000;1.1624;1.6488;
486.3000;1.1648;1.6585;
486.6000;1.1632;1.6536;
486.9000;1.1648;1.6609;
487.2000;1.1648;1.6609;
487.5000;1.1689;1.6681;
487.8000;1.1656;1.6681;
488.1000;1.1656;1.6657;
488.4000;1.1640;1.6609;
488.7000;1.1656;1.6585;
489.0000;1.1616;1.6536;
489.3000;1.1640;1.6609;
489.6000;1.1648;1.6681;
489.9000;1.1665;1.6681;
490.2000;1.1632;1.6681;
490.5000;1.1730;1.6875;
490.8000;1.1656;1.6730;
491.1000;1.1665;1.6730;
491.4000;1.1648;1.6730;
491.7000;1.1665;1.6681;
492.0000;1.1648;1.6754;
492.3000;1.1648;1.6633;
492.6000;1.1673;1.6657;
492.9000;1.1632;1.6585;
493.2000;1.1648;1.6561;
493.5000;1.1648;1.6585;
493.8000;1.1648;1.6633;
494.1000;1.1632;1.6657;
494.4000;1.1640;1.6706;
494.7000;1.1665;1.6754;
495.0000;1.1665;1.6730;
495.3000;1.1656;1.6802;
495.6000;1.1640;1.6778;
495.9000;1.1665;1.6802;
496.2000;1.1673;1.6826;
496.5000;1.1681;1.6826;
496.8000;1.1656;1.6851;
497.1000;1.1648;1.6899;
497.4000;1.1656;1.6851;
497.7000;1.1648;1.6802;
498.0000;1.1656;1.6730;
498.3000;1.1648;1.6730;
498.6000;1.1640;1.6657;
498.9000;1.1632;1.6609;
499.2000;1.1632;1.6561;
499.5000;1.1673;1.6633;
499.8000;1.1648;1.6585;
500.1000;1.1648;1.6561;
500.4000;1.1648;1.6585;
500.7000;1.1665;1.6633;
501.0000;1.1673;1.6657;
501.3000;1.1648;1.6488;
501.6000;1.1665;1.6609;
501.9000;1.1673;1.6681;
502.2000;1.1656;1.6730;
502.5000;1.1640;1.6657;
502.8000;1.1616;1.6609;
503.1000;1.1616;1.6706;
503.4000;1.1632;1.6754;
503.7000;1.1648;1.6754;
504.0000;1.1632;1.6730;
504.3000;1.1648;1.6706;
504.6000;1.1648;1.6657;
504.9000;1.1648;1.6657;
505.2000;1.1648;1.6706;
505.5000;1.1665;1.6778;
505.8000;1.1616;1.6633;
506.1000;1.1640;1.6730;
506.4000;1.1640;1.6754;
506.7000;1.1624;1.6657;
507.0000;1.1665;1.6778;
507.3000;1.1648;1.6633;
507.6000;1.1575;1.6415;
507.9000;1.1648;1.6681;
508.2000;1.1665;1.6681;
508.5000;1.1640;1.6609;
508.8000;1.1656;1.6609;
509.1000;1.1632;1.6609;
509.4000;1.1640;1.6585;
509.7000;1.1640;1.6512;
510.0000;1.1656;1.6464;
510.3000;1.1648;1.6464;
510.6000;1.1665;1.6512;
510.9000;1.1640;1.6440;
511.2000;1.1648;1.6536;
511.5000;1.1632;1.6488;
511.8000;1.1632;1.6536;
512.1000;1.1656;1.6657;
512.4000;1.1648;1.6657;
512.7000;1.1640;1.6609;
513.0000;1.1632;1.6512;
513.3000;1.1624;1.6464;
513.6000;1.1632;1.6488;
513.9000;1.1640;1.6585;
514.2000;1.1640;1.6585;
514.5000;1.1648;1.6657;
514.8000;1.1624;1.6585;
515.1000;1.1640;1.6561;
515.4000;1.1656;1.6512;
515.7000;1.1648;1.6585;
516.0000;1.1673;1.6609;
516.3000;1.1632;1.6585;
516.6000;1.1632;1.6609;
516.9000;1.1681;1.6826;
517.2000;1.1656;1.6706;
517.5000;1.1665;1.6730;
517.8000;1.1640;1.6633;
518.1000;1.1665;1.6754;
518.4000;1.1713;1.6851;
518.7000;1.1656;1.6706;
519.0000;1.1648;1.6681;
519.3000;1.1656;1.6802;
519.6000;1.1632;1.6706;
519.9000;1.1640;1.6681;
520.2000;1.1648;1.6681;
520.5000;1.1648;1.6681;
520.8000;1.1665;1.6681;
521.1000;1.1665;1.6681;
521.4000;1.1640;1.6681;
521.7000;1.1616;1.6681;
522.0000;1.1624;1.6730;
522.3000;1.1648;1.6730;
522.6000;1.1632;1.6681;
522.9000;1.1648;1.6706;
523.2000;1.1648;1.6561;
523.5000;1.1656;1.6561;
523.8000;1.1656;1.6585;
524.1000;1.1616;1.6512;
524.4000;1.1640;1.6585;
524.7000;1.1640;1.6585;
525.0000;1.1632;1.6536;
525.3000;1.1632;1.6536;
525.6000;1.1648;1.6440;
525.9000;1.1713;1.6536;
526.2000;1.1705;1.6464;
526.5000;1.1656;1.6391;
526.8000;1.1648;1.6440;
527.1000;1.1543;1.6198;
527.4000;1.1673;1.6512;
527.7000;1.1640;1.6561;
528.0000;1.1640;1.6561;
528.3000;1.1681;1.6657;
528.6000;1.1632;1.6585;
528.9000;1.1632;1.6585;
529.2000;1.1640;1.6609;
529.5000;1.1640;1.6609;
529.8000;1.1665;1.6681;
530.1000;1.1656;1.6706;
530.4000;1.1673;1.6778;
530.7000;1.1656;1.6706;
531.0000;1.1648;1.6633;
531.3000;1.1656;1.6633;
531.6000;1.1640;1.6681;
531.9000;1.1632;1.6730;
532.2000;1.1640;1.6778;
532.5000;1.1624;1.6633;
532.8000;1.1648;1.6681;
533.1000;1.1624;1.6585;
533.4000;1.1624;1.6609;
533.7000;1.1640;1.6657;
534.0000;1.1624;1.6681;
534.3000;1.1632;1.6681;
534.6000;1.1632;1.6706;
534.9000;1.1648;1.6754;
535.2000;1.1640;1.6730;
535.5000;1.1648;1.6754;
535.8000;1.1656;1.6826;
536.1000;1.1640;1.6802;
536.4000;1.1648;1.6899;
536.7000;1.1689;1.6923;
537.0000;1.1640;1.6802;
537.3000;1.1656;1.6802;
537.6000;1.1656;1.6802;
537.9000;1.1632;1.6681;
538.2000;1.1648;1.6681;
538.5000;1.1632;1.6633;
538.8000;1.1656;1.6706;
539.1000;1.1632;1.6730;
539.4000;1.1632;1.6754;
539.7000;1.1648;1.6778;
540.0000;1.1656;1.6778;
540.3000;1.1656;1.6681;
540.6000;1.1656;1.6706;
540.9000;1.1665;1.6802;
541.2000;1.1656;1.7020;
541.5000;1.1648;1.6947;
541.8000;1.1648;1.6875;
542.1000;1.1648;1.6851;
542.4000;1.1583;1.6730;
542.7000;1.1673;1.6947;
543.0000;1.1681;1.6875;
543.3000;1.1648;1.6802;
543.6000;1.1640;1.6802;
543.9000;1.1640;1.6730;
544.2000;1.1648;1.6681;
544.5000;1.1632;1.6585;
544.8000;1.1640;1.6488;
545.1000;1.1640;1.6585;
545.4000;1.1673;1.6633;
545.7000;1.1616;1.6536;
546.0000;1.1665;1.6585;
546.3000;1.1648;1.6536;
546.6000;1.1648;1.6585;
546.9000;1.1640;1.6585;
547.2000;1.1648;1.6536;
547.5000;1.1656;1.6561;
547.8000;1.1656;1.6633;
548.1000;1.1640;1.6609;
548.4000;1.1640;1.6536;
548.7000;1.1624;1.6536;
549.0000;1.1640;1.6609;
549.3000;1.1632;1.6585;
549.6000;1.1632;1.6609;
549.9000;1.1673;1.6706;
550.2000;1.1624;1.6657;
550.5000;1.1640;1.6706;
550.8000;1.1648;1.6754;
551.1000;1.1640;1.6681;
551.4000;1.1648;1.6633;
551.7000;1.1656;1.6609;
552.0000;1.1640;1.6633;
552.3000;1.1656;1.6681;
552.6000;1.1681;1.6730;
552.9000;1.1648;1.6657;
553.2000;1.1648;1.6706;
553.5000;1.1656;1.6730;
553.8000;1.1632;1.6633;
554.1000;1.1624;1.6536;
554.4000;1.1730;1.6826;
554.7000;1.1616;1.6536;
555.0000;1.1665;1.6585;
555.3000;1.1656;1.6609;
555.6000;1.1624;1.6585;
555.9000;1.1624;1.6488;
556.2000;1.1648;1.6536;
556.5000;1.1632;1.6464;
556.8000;1.1656;1.6512;
557.1000;1.1591;1.6343;
557.4000;1.1640;1.6512;
557.7000;1.1575;1.6343;
558.0000;1.1583;1.6440;
558.3000;1.1640;1.6585;
558.6000;1.1567;1.6391;
558.9000;1.1632;1.6585;
559.2000;1.1705;1.6778;
559.5000;1.1656;1.6609;
559.8000;1.1632;1.6415;
560.1000;1.1754;1.6754;
560.4000;1.1665;1.6536;
560.7000;1.1648;1.6609;
561.0000;1.1640;1.6561;
561.3000;1.1705;1.6754;
561.6000;1.1640;1.6633;
561.9000;1.1673;1.6657;
562.2000;1.1648;1.6585;
562.5000;1.1632;1.6633;
562.8000;1.1648;1.6706;
563.1000;1.1632;1.6706;
563.4000;1.1640;1.6681;
563.7000;1.1648;1.6657;
564.0000;1.1640;1.6561;
564.3000;1.1648;1.6512;
564.6000;1.1632;1.6440;
564.9000;1.1616;1.6343;
565.2000;1.1648;1.6512;
565.5000;1.1665;1.6536;
565.8000;1.1665;1.6512;
566.1000;1.1632;1.6585;
566.4000;1.1624;1.6512;
566.7000;1.1624;1.6609;
567.0000;1.1640;1.6633;
567.3000;1.1583;1.6488;
567.6000;1.1648;1.6585;
567.9000;1.1616;1.6488;
568.2000;1.1640;1.6536;
568.5000;1.1656;1.6561;
568.8000;1.1632;1.6609;
569.1000;1.1624;1.6754;
569.4000;1.1632;1.6778;
569.7000;1.1640;1.6730;
570.0000;1.1624;1.6681;
570.3000;1.1624;1.6633;
570.6000;1.1648;1.6802;
570.9000;1.1640;1.6681;
571.2000;1.1640;1.6657;
571.5000;1.1640;1.6633;
571.8000;1.1648;1.6609;
572.1000;1.1640;1.6585;
572.4000;1.1632;1.6633;
572.7000;1.1648;1.6706;
573.0000;1.1616;1.6633;
573.3000;1.1632;1.6633;
573.6000;1.1591;1.6536;
573.9000;1.1616;1.6561;
574.2000;1.1624;1.6609;
574.5000;1.1656;1.6778;
574.8000;1.1632;1.6657;
575.1000;1.1665;1.6706;
575.4000;1.1665;1.6730;
575.7000;1.1665;1.6730;
576.0000;1.1640;1.6706;
576.3000;1.1656;1.6754;
576.6000;1.1640;1.6730;
576.9000;1.1705;1.6875;
577.2000;1.1656;1.6706;
577.5000;1.1632;1.6633;
577.8000;1.1624;1.6609;
578.1000;1.1665;1.6730;
578.4000;1.1648;1.6681;
578.7000;1.1624;1.6633;
579.0000;1.1640;1.6681;
579.3000;1.1632;1.6633;
579.6000;1.1559;1.6488;
579.9000;1.1673;1.6633;
580.2000;1.1648;1.6585;
580.5000;1.1591;1.6488;
580.8000;1.1673;1.6730;
581.1000;1.1656;1.6681;
581.4000;1.1600;1.6585;
581.7000;1.1591;1.6536;
582.0000;1.1640;1.6706;
582.3000;1.1624;1.6706;
582.6000;1.1616;1.6561;
582.9000;1.1624;1.6561;
583.2000;1.1591;1.6415;
583.5000;1.1705;1.6706;
583.8000;1.1600;1.6464;
584.1000;1.1600;1.6464;
584.4000;1.1575;1.6440;
584.7000;1.1689;1.6730;
585.0000;1.1624;1.6536;
585.3000;1.1616;1.6415;
585.6000;1.1624;1.6367;
585.9000;1.1640;1.6415;
586.2000;1.1656;1.6367;
586.5000;1.1632;1.6391;
586.8000;1.1648;1.6464;
587.1000;1.1656;1.6512;
587.4000;1.1624;1.6512;
587.7000;1.1648;1.6488;
588.0000;1.1632;1.6415;
588.3000;1.1624;1.6295;
588.6000;1.1624;1.6270;
588.9000;1.1616;1.6246;
589.2000;1.1632;1.6295;
589.5000;1.1616;1.6295;
589.8000;1.1632;1.6246;
590.1000;1.1632;1.6222;
590.4000;1.1608;1.6101;
590.7000;1.1640;1.6174;
591.0000;1.1648;1.6270;
591.3000;1.1632;1.6246;
591.6000;1.1648;1.6295;
591.9000;1.1616;1.6246;
592.2000;1.1640;1.6246;
592.5000;1.1665;1.6343;
592.8000;1.1632;1.6319;
593.1000;1.1656;1.6319;
593.4000;1.1640;1.6343;
593.7000;1.1648;1.6391;
594.0000;1.1616;1.6367;
594.3000;1.1632;1.6343;
594.6000;1.1624;1.6343;
594.9000;1.1648;1.6536;
595.2000;1.1665;1.6609;
595.5000;1.1632;1.6609;
595.8000;1.1648;1.6561;
596.1000;1.1656;1.6657;
596.4000;1.1640;1.6536;
596.7000;1.1648;1.6633;
597.0000;1.1665;1.6633;
597.3000;1.1689;1.6657;
597.6000;1.1648;1.6512;
597.9000;1.1583;1.6464;
598.2000;1.1640;1.6657;
598.5000;1.1632;1.6730;
598.8000;1.1624;1.6706;
599.1000;1.1689;1.6778;
599.4000;1.1616;1.6464;
599.7000;1.1640;1.6440;
600.0000;1.1624;1.6488;
600.3000;1.1640;1.6488;
600.6000;1.1534;1.6077;
600.9000;1.1534;1.5980;
601.2000;1.1429;1.5787;
601.5000;1.1306;1.5545;
601.8000;1.1193;1.5231;
602.1000;1.1103;1.5134;
602.4000;1.1005;1.5062;
602.7000;1.0875;1.4844;
603.0000;1.0794;1.4578;
603.3000;1.0704;1.4506;
603.6000;1.0566;1.4215;
603.9000;1.0533;1.4215;
604.2000;1.0468;1.4119;
604.5000;1.0387;1.4046;
604.8000;1.0232;1.3659;
605.1000;1.0273;1.3780;
605.4000;1.0191;1.3684;
605.7000;1.0183;1.3611;
606.0000;1.0110;1.3490;
606.3000;1.0028;1.3539;
606.6000;0.9996;1.3563;
606.9000;0.9947;1.3442;
607.2000;0.9898;1.3490;
607.5000;0.9833;1.3418;
607.8000;0.9784;1.3393;
608.1000;0.9768;1.3393;
608.4000;0.9711;1.3393;
608.7000;0.9687;1.3393;
609.0000;0.9630;1.3369;
609.3000;0.9605;1.3369;
609.6000;0.9573;1.3297;
609.9000;0.9532;1.3273;
610.2000;0.9516;1.3273;
610.5000;0.9467;1.3273;
610.8000;0.9426;1.3152;
611.1000;0.9410;1.3176;
611.4000;0.9377;1.3152;
611.7000;0.9320;1.3103;
612.0000;0.9288;1.3055;
612.3000;0.9288;1.3031;
612.6000;0.9255;1.2982;
612.9000;0.9198;1.2910;
613.2000;0.9174;1.2934;
613.5000;0.9109;1.2886;
613.8000;0.9182;1.3103;
614.1000;0.9101;1.2934;
614.4000;0.9060;1.2765;
614.7000;0.9044;1.2813;
615.0000;0.8987;1.2741;
615.3000;0.9052;1.2958;
615.6000;0.8962;1.2862;
615.9000;0.8962;1.2982;
616.2000;0.8938;1.3031;
616.5000;0.8905;1.3128;
616.8000;0.8881;1.3103;
617.1000;0.8873;1.3103;
617.4000;0.8848;1.3007;
617.7000;0.8783;1.2789;
618.0000;0.8807;1.2741;
618.3000;0.8799;1.2741;
618.6000;0.8775;1.2692;
618.9000;0.8816;1.2862;
619.2000;0.8726;1.2620;
619.5000;0.8726;1.2620;
619.8000;0.8702;1.2596;
620.1000;0.8685;1.2668;
620.4000;0.8555;1.2378;
620.7000;0.8620;1.2596;
621.0000;0.8661;1.2668;
621.3000;0.8620;1.2692;
621.6000;0.8628;1.2741;
621.9000;0.8563;1.2620;
622.2000;0.8628;1.2813;
622.5000;0.8563;1.2644;
622.8000;0.8555;1.2741;
623.1000;0.8571;1.2741;
623.4000;0.8514;1.2499;
623.7000;0.8506;1.2426;
624.0000;0.8490;1.2402;
624.3000;0.8466;1.2402;
624.6000;0.8457;1.2378;
624.9000;0.8457;1.2451;
625.2000;0.8441;1.2475;
625.5000;0.8441;1.2451;
625.8000;0.8344;1.2233;
626.1000;0.8392;1.2378;
626.4000;0.8384;1.2451;
626.7000;0.8368;1.2572;
627.0000;0.8352;1.2620;
627.3000;0.8376;1.2644;
627.6000;0.8344;1.2692;
627.9000;0.8327;1.2692;
628.2000;0.8311;1.2572;
628.5000;0.8311;1.2572;
628.8000;0.8311;1.2499;
629.1000;0.8287;1.2402;
629.4000;0.8270;1.2306;
629.7000;0.8230;1.2233;
630.0000;0.8254;1.2378;
630.3000;0.8254;1.2499;
630.6000;0.8230;1.2402;
630.9000;0.8238;1.2378;
631.2000;0.8213;1.2378;
631.5000;0.8221;1.2402;
631.8000;0.8197;1.2330;
632.1000;0.8213;1.2378;
632.4000;0.8181;1.2330;
632.7000;0.8189;1.2330;
633.0000;0.8164;1.2257;
633.3000;0.8173;1.2354;
633.6000;0.8132;1.2354;
633.9000;0.8156;1.2402;
634.2000;0.8124;1.2378;
634.5000;0.8116;1.2281;
634.8000;0.8083;1.2257;
635.1000;0.8083;1.2281;
635.4000;0.8067;1.2330;
635.7000;0.8075;1.2451;
636.0000;0.8059;1.2451;
636.3000;0.8050;1.2475;
636.6000;0.8059;1.2451;
636.9000;0.8042;1.2378;
637.2000;0.8042;1.2281;
637.5000;0.8026;1.2233;
637.8000;0.8002;1.2233;
638.1000;0.8026;1.2281;
638.4000;0.8075;1.2402;
638.7000;0.7993;1.2185;
639.0000;0.7993;1.2281;
639.3000;0.7977;1.2330;
639.6000;0.7977;1.2354;
639.9000;0.7953;1.2378;
640.2000;0.7945;1.2330;
640.5000;0.7953;1.2281;
640.8000;0.7945;1.2233;
641.1000;0.7937;1.2233;
641.4000;0.7920;1.2257;
641.7000;0.7912;1.2281;
642.0000;0.7928;1.2402;
642.3000;0.7896;1.2306;
642.6000;0.7985;1.2596;
642.9000;0.7896;1.2378;
643.2000;0.7880;1.2378;
643.5000;0.7888;1.2354;
643.8000;0.7863;1.2354;
644.1000;0.7880;1.2281;
644.4000;0.7871;1.2306;
644.7000;0.7863;1.2112;
645.0000;0.7823;1.2040;
645.3000;0.7847;1.2233;
645.6000;0.7847;1.2281;
645.9000;0.7855;1.2257;
646.2000;0.7814;1.2233;
646.5000;0.7798;1.2257;
646.8000;0.7814;1.2209;
647.1000;0.7798;1.2161;
647.4000;0.7782;1.2185;
647.7000;0.7766;1.2161;
648.0000;0.7790;1.2281;
648.3000;0.7790;1.2306;
648.6000;0.7766;1.2354;
648.9000;0.7823;1.2620;
649.2000;0.7749;1.2499;
649.5000;0.7741;1.2402;
649.8000;0.7733;1.2451;
650.1000;0.7741;1.2475;
650.4000;0.7652;1.2257;
650.7000;0.7725;1.2451;
651.0000;0.7717;1.2451;
651.3000;0.7700;1.2523;
651.6000;0.7692;1.2547;
651.9000;0.7717;1.2596;
652.2000;0.7700;1.2572;
652.5000;0.7684;1.2499;
652.8000;0.7676;1.2620;
653.1000;0.7603;1.2451;
653.4000;0.7684;1.2644;
653.7000;0.7676;1.2596;
654.0000;0.7676;1.2475;
654.3000;0.7660;1.2499;
654.6000;0.7660;1.2475;
654.9000;0.7660;1.2523;
655.2000;0.7643;1.2499;
655.5000;0.7627;1.2475;
655.8000;0.7660;1.2523;
656.1000;0.7611;1.2354;
656.4000;0.7635;1.2402;
656.7000;0.7627;1.2378;
657.0000;0.7676;1.2547;
657.3000;0.7684;1.2523;
657.6000;0.7603;1.2402;
657.9000;0.7595;1.2330;
658.2000;0.7595;1.2281;
658.5000;0.7595;1.2354;
658.8000;0.7603;1.2499;
659.1000;0.7562;1.2451;
659.4000;0.7570;1.2451;
659.7000;0.7570;1.2378;
660.0000;0.7570;1.2330;
660.3000;0.7546;1.2233;
660.6000;0.7538;1.2257;
660.9000;0.7505;1.2161;
661.2000;0.7562;1.2354;
661.5000;0.7546;1.2402;
661.8000;0.7513;1.2330;
662.1000;0.7530;1.2378;
662.4000;0.7530;1.2330;
662.7000;0.7513;1.2257;
663.0000;0.7513;1.2306;
663.3000;0.7505;1.2306;
663.6000;0.7513;1.2402;
663.9000;0.7497;1.2426;
664.2000;0.7489;1.2475;
664.5000;0.7505;1.2451;
664.8000;0.7489;1.2451;
665.1000;0.7473;1.2306;
665.4000;0.7489;1.2378;
665.7000;0.7473;1.2306;
666.0000;0.7440;1.2402;
666.3000;0.7456;1.2499;
666.6000;0.7440;1.2499;
666.9000;0.7432;1.2523;
667.2000;0.7359;1.2330;
667.5000;0.7424;1.2499;
667.8000;0.7424;1.2499;
668.1000;0.7399;1.2426;
668.4000;0.7440;1.2572;
668.7000;0.7448;1.2620;
669.0000;0.7375;1.2451;
669.3000;0.7416;1.2547;
669.6000;0.7416;1.2572;
669.9000;0.7432;1.2620;
670.2000;0.7391;1.2668;
670.5000;0.7391;1.2668;
670.8000;0.7383;1.2572;
671.1000;0.7383;1.2499;
671.4000;0.7407;1.2644;
671.7000;0.7375;1.2547;
672.0000;0.7375;1.2475;
672.3000;0.7367;1.2499;
672.6000;0.7383;1.2596;
672.9000;0.7391;1.2644;
673.2000;0.7375;1.2596;
673.5000;0.7350;1.2644;
673.8000;0.7391;1.2692;
674.1000;0.7350;1.2547;
674.4000;0.7342;1.2499;
674.7000;0.7334;1.2547;
675.0000;0.7318;1.2523;
675.3000;0.7326;1.2523;
675.6000;0.7310;1.2523;
675.9000;0.7407;1.2862;
676.2000;0.7310;1.2644;
676.5000;0.7342;1.2717;
676.8000;0.7318;1.2668;
677.1000;0.7326;1.2596;
677.4000;0.7318;1.2596;
677.7000;0.7318;1.2692;
678.0000;0.7277;1.2620;
678.3000;0.7302;1.2644;
678.6000;0.7302;1.2596;
678.9000;0.7367;1.2717;
679.2000;0.7310;1.2572;
679.5000;0.7302;1.2475;
679.8000;0.7293;1.2426;
680.1000;0.7302;1.2402;
680.4000;0.7269;1.2330;
680.7000;0.7269;1.2378;
681.0000;0.7269;1.2451;
681.3000;0.7293;1.2451;
681.6000;0.7342;1.2596;
681.9000;0.7245;1.2354;
682.2000;0.7212;1.2330;
682.5000;0.7302;1.2572;
682.8000;0.7277;1.2547;
683.1000;0.7261;1.2475;
683.4000;0.7245;1.2402;
683.7000;0.7228;1.2402;
684.0000;0.7277;1.2572;
684.3000;0.7245;1.2451;
684.6000;0.7204;1.2451;
684.9000;0.7245;1.2572;
685.2000;0.7236;1.2523;
685.5000;0.7310;1.2789;
685.8000;0.7228;1.2572;
686.1000;0.7220;1.2547;
686.4000;0.7220;1.2451;
686.7000;0.7212;1.2402;
687.0000;0.7204;1.2426;
687.3000;0.7212;1.2402;
687.6000;0.7196;1.2281;
687.9000;0.7188;1.2354;
688.2000;0.7196;1.2402;
688.5000;0.7204;1.2475;
688.8000;0.7188;1.2523;
689.1000;0.7179;1.2620;
689.4000;0.7179;1.2547;
689.7000;0.7228;1.2572;
690.0000;0.7196;1.2523;
690.3000;0.7155;1.2378;
690.6000;0.7163;1.2451;
690.9000;0.7147;1.2499;
691.2000;0.7171;1.2620;
691.5000;0.7163;1.2668;
691.8000;0.7163;1.2644;
692.1000;0.7082;1.2523;
692.4000;0.7155;1.2741;
692.7000;0.7139;1.2717;
693.0000;0.7188;1.2692;
693.3000;0.7147;1.2644;
693.6000;0.7147;1.2668;
693.9000;0.7139;1.2692;
694.2000;0.7131;1.2668;
694.5000;0.7114;1.2499;
694.8000;0.7139;1.2547;
695.1000;0.7131;1.2620;
695.4000;0.7131;1.2644;
695.7000;0.7123;1.2644;
696.0000;0.7106;1.2717;
696.3000;0.7098;1.2741;
696.6000;0.7123;1.2837;
696.9000;0.7123;1.2910;
697.2000;0.7098;1.2862;
697.5000;0.7155;1.3055;
697.8000;0.7114;1.3007;
698.1000;0.7098;1.3031;
698.4000;0.7090;1.2958;
698.7000;0.7098;1.2862;
699.0000;0.7106;1.2765;
699.3000;0.7090;1.2692;
699.6000;0.7098;1.2692;
699.9000;0.7082;1.2692;
700.2000;0.7066;1.2596;
700.5000;0.7066;1.2692;
700.8000;0.7074;1.2765;
701.1000;0.7057;1.2765;
701.4000;0.7057;1.2717;
701.7000;0.7057;1.2692;
702.0000;0.7057;1.2741;
702.3000;0.7049;1.2644;
702.6000;0.7049;1.2668;
702.9000;0.7057;1.2717;
703.2000;0.7057;1.2668;
703.5000;0.7025;1.2620;
703.8000;0.7025;1.2572;
704.1000;0.7033;1.2523;
704.4000;0.7041;1.2499;
704.7000;0.7041;1.2572;
705.0000;0.7009;1.2572;
705.3000;0.7033;1.2572;
705.6000;0.7025;1.2620;
705.9000;0.7009;1.2668;
706.2000;0.7017;1.2644;
706.5000;0.7025;1.2644;
706.8000;0.7033;1.2668;
707.1000;0.7049;1.2765;
707.4000;0.7025;1.2692;
707.7000;0.7000;1.2572;
708.0000;0.7009;1.2523;
708.3000;0.7017;1.2523;
708.6000;0.7082;1.2668;
708.9000;0.7009;1.2475;
709.2000;0.6943;1.2233;
709.5000;0.7009;1.2354;
709.8000;0.7000;1.2233;
710.1000;0.6984;1.2161;
710.4000;0.7009;1.2185;
710.7000;0.7033;1.2233;
711.0000;0.6976;1.2136;
711.3000;0.7041;1.2330;
711.6000;0.6984;1.2281;
711.9000;0.6976;1.2354;
712.2000;0.7017;1.2499;
712.5000;0.6992;1.2499;
712.8000;0.7041;1.2668;
713.1000;0.6960;1.2499;
713.4000;0.6976;1.2620;
713.7000;0.6976;1.2596;
714.0000;0.6919;1.2523;
714.3000;0.6952;1.2620;
714.6000;0.6960;1.2547;
714.9000;0.6968;1.2620;
715.2000;0.6952;1.2644;
715.5000;0.6960;1.2596;
715.8000;0.6960;1.2523;
716.1000;0.6968;1.2499;
716.4000;0.6952;1.2523;
716.7000;0.6960;1.2620;
717.0000;0.6952;1.2644;
717.3000;0.6968;1.2741;
717.6000;0.6952;1.2668;
717.9000;0.6943;1.2668;
718.2000;0.6952;1.2620;
718.5000;0.6919;1.2523;
718.8000;0.6927;1.2596;
719.1000;0.6919;1.2596;
719.4000;0.6960;1.2789;
719.7000;0.6943;1.2741;
720.0000;0.6903;1.2668;
720.3000;0.6911;1.2692;
720.6000;0.6919;1.2692;
720.9000;0.6927;1.2813;
721.2000;0.6903;1.2741;
721.5000;0.6886;1.2547;
721.8000;0.6895;1.2572;
722.1000;0.6927;1.2692;
722.4000;0.6903;1.2668;
722.7000;0.6903;1.2717;
723.0000;0.6919;1.2765;
723.3000;0.6911;1.2717;
723.6000;0.6911;1.2717;
723.9000;0.6895;1.2620;
724.2000;0.6886;1.2620;
724.5000;0.6895;1.2596;
724.8000;0.6911;1.2644;
725.1000;0.6895;1.2644;
725.4000;0.6878;1.2572;
725.7000;0.6895;1.2547;
726.0000;0.6911;1.2668;
726.3000;0.6895;1.2741;
726.6000;0.6870;1.2765;
726.9000;0.6862;1.2813;
727.2000;0.6895;1.2813;
727.5000;0.6870;1.2644;
727.8000;0.6878;1.2717;
728.1000;0.6911;1.2741;
728.4000;0.6895;1.2765;
728.7000;0.6886;1.2692;
729.0000;0.6886;1.2644;
729.3000;0.6903;1.2717;
729.6000;0.6854;1.2596;
729.9000;0.6960;1.2910;
730.2000;0.6870;1.2717;
730.5000;0.6854;1.2813;
730.8000;0.6854;1.2813;
731.1000;0.6862;1.2789;
731.4000;0.6854;1.2717;
731.7000;0.6862;1.2717;
732.0000;0.6854;1.2692;
732.3000;0.6870;1.2741;
732.6000;0.6854;1.2692;
732.9000;0.6854;1.2692;
733.2000;0.6870;1.2692;
733.5000;0.6878;1.2765;
733.8000;0.6854;1.2741;
734.1000;0.6838;1.2668;
734.4000;0.6846;1.2620;
734.7000;0.6903;1.2668;
735.0000;0.6870;1.2523;
735.3000;0.6821;1.2451;
735.6000;0.6829;1.2475;
735.9000;0.6805;1.2378;
736.2000;0.6838;1.2257;
736.5000;0.6821;1.2281;
736.8000;0.6821;1.2306;
737.1000;0.6821;1.2306;
737.4000;0.6838;1.2306;
737.7000;0.6829;1.2402;
738.0000;0.6846;1.2499;
738.3000;0.6797;1.2475;
738.6000;0.6829;1.2547;
738.9000;0.6821;1.2572;
739.2000;0.6846;1.2596;
739.5000;0.6805;1.2499;
739.8000;0.6838;1.2547;
740.1000;0.6821;1.2402;
740.4000;0.6813;1.2451;
740.7000;0.6797;1.2426;
741.0000;0.6772;1.2451;
741.3000;0.6797;1.2451;
741.6000;0.6781;1.2354;
741.9000;0.6781;1.2354;
742.2000;0.6805;1.2572;
742.5000;0.6805;1.2644;
742.8000;0.6797;1.2668;
743.1000;0.6789;1.2620;
743.4000;0.6805;1.2523;
743.7000;0.6813;1.2547;
744.0000;0.6797;1.2596;
744.3000;0.6813;1.2620;
744.6000;0.6772;1.2547;
744.9000;0.6797;1.2692;
745.2000;0.6797;1.2668;
745.5000;0.6781;1.2596;
745.8000;0.6732;1.2475;
746.1000;0.6789;1.2668;
746.4000;0.6805;1.2668;
746.7000;0.6740;1.2572;
747.0000;0.6772;1.2789;
747.3000;0.6805;1.2717;
747.6000;0.6781;1.2692;
747.9000;0.6764;1.2620;
748.2000;0.6772;1.2596;
748.5000;0.6772;1.2620;
748.8000;0.6781;1.2620;
749.1000;0.6772;1.2596;
749.4000;0.6772;1.2644;
749.7000;0.6756;1.2547;
750.0000;0.6748;1.2572;
750.3000;0.6781;1.2572;
750.6000;0.6756;1.2596;
750.9000;0.6740;1.2596;
751.2000;0.6756;1.2572;
751.5000;0.6772;1.2547;
751.8000;0.6772;1.2596;
752.1000;0.6740;1.2572;
752.4000;0.6756;1.2644;
752.7000;0.6756;1.2620;
753.0000;0.6756;1.2692;
753.3000;0.6756;1.2692;
753.6000;0.6764;1.2717;
753.9000;0.6764;1.2668;
754.2000;0.6756;1.2668;
754.5000;0.6724;1.2620;
754.8000;0.6724;1.2668;
755.1000;0.6740;1.2692;
755.4000;0.6764;1.2765;
755.7000;0.6789;1.2813;
756.0000;0.6740;1.2717;
756.3000;0.6716;1.2717;
756.6000;0.6724;1.2668;
756.9000;0.6732;1.2741;
757.2000;0.6699;1.2668;
757.5000;0.6675;1.2596;
757.8000;0.6764;1.2717;
758.1000;0.6732;1.2692;
758.4000;0.6740;1.2692;
758.7000;0.6716;1.2668;
759.0000;0.6707;1.2668;
759.3000;0.6683;1.2596;
759.6000;0.6683;1.2596;
759.9000;0.6707;1.2837;
760.2000;0.6813;1.3176;
760.5000;0.6724;1.2862;
760.8000;0.6756;1.2910;
761.1000;0.6724;1.2910;
761.4000;0.6691;1.2692;
761.7000;0.6707;1.2741;
762.0000;0.6691;1.2789;
762.3000;0.6732;1.2837;
762.6000;0.6707;1.2668;
762.9000;0.6764;1.2813;
763.2000;0.6707;1.2717;
763.5000;0.6707;1.2668;
763.8000;0.6707;1.2620;
764.1000;0.6716;1.2644;
764.4000;0.6707;1.2644;
764.7000;0.6691;1.2596;
765.0000;0.6707;1.2692;
765.3000;0.6724;1.2741;
765.6000;0.6707;1.2789;
765.9000;0.6683;1.2741;
766.2000;0.6675;1.2813;
766.5000;0.6699;1.2837;
766.8000;0.6699;1.2789;
767.1000;0.6699;1.2813;
767.4000;0.6675;1.2765;
767.7000;0.6675;1.2789;
768.0000;0.6707;1.2789;
768.3000;0.6707;1.2886;
768.6000;0.6707;1.2862;
768.9000;0.6683;1.2837;
769.2000;0.6716;1.2958;
769.5000;0.6667;1.2837;
769.8000;0.6634;1.2741;
770.1000;0.6675;1.2837;
770.4000;0.6691;1.2910;
770.7000;0.6691;1.2934;
771.0000;0.6675;1.2789;
771.3000;0.6675;1.2717;
771.6000;0.6683;1.2668;
771.9000;0.6691;1.2692;
772.2000;0.6675;1.2668;
772.5000;0.6683;1.2668;
772.8000;0.6667;1.2620;
773.1000;0.6659;1.2741;
773.4000;0.6667;1.2789;
773.7000;0.6667;1.2717;
774.0000;0.6724;1.2813;
774.3000;0.6675;1.2789;
774.6000;0.6683;1.2789;
774.9000;0.6659;1.2692;
775.2000;0.6667;1.2668;
775.5000;0.6667;1.2620;
775.8000;0.6675;1.2644;
776.1000;0.6659;1.2717;
776.4000;0.6650;1.2717;
776.7000;0.6642;1.2644;
777.0000;0.6650;1.2741;
777.3000;0.6634;1.2644;
777.6000;0.6659;1.2717;
777.9000;0.6659;1.2644;
778.2000;0.6659;1.2692;
778.5000;0.6642;1.2741;
778.8000;0.6602;1.2644;
779.1000;0.6659;1.2813;
779.4000;0.6650;1.2837;
779.7000;0.6634;1.2813;
780.0000;0.6642;1.2837;
780.3000;0.6642;1.2765;
780.6000;0.6602;1.2523;
780.9000;0.6659;1.2620;
781.2000;0.6618;1.2596;
781.5000;0.6642;1.2741;
781.8000;0.6642;1.2668;
782.1000;0.6748;1.2862;
782.4000;0.6626;1.2572;
782.7000;0.6642;1.2668;
783.0000;0.6634;1.2741;
783.3000;0.6634;1.2692;
783.6000;0.6667;1.2741;
783.9000;0.6545;1.2523;
784.2000;0.6634;1.2765;
784.5000;0.6650;1.2862;
784.8000;0.6642;1.2837;
785.1000;0.6569;1.2692;
785.4000;0.6610;1.2886;
785.7000;0.6618;1.2837;
786.0000;0.6610;1.2813;
786.3000;0.6610;1.2717;
786.6000;0.6610;1.2692;
786.9000;0.6618;1.2741;
787.2000;0.6634;1.2837;
787.5000;0.6634;1.2765;
787.8000;0.6618;1.2765;
788.1000;0.6626;1.2789;
788.4000;0.6691;1.3031;
788.7000;0.6610;1.2862;
789.0000;0.6634;1.2910;
789.3000;0.6642;1.2837;
789.6000;0.6618;1.2813;
789.9000;0.6618;1.2765;
790.2000;0.6610;1.2692;
790.5000;0.6691;1.2862;
790.8000;0.6610;1.2717;
791.1000;0.6610;1.2765;
791.4000;0.6618;1.2765;
791.7000;0.6610;1.2837;
792.0000;0.6610;1.2934;
792.3000;0.6602;1.2958;
792.6000;0.6626;1.3007;
792.9000;0.6610;1.3007;
793.2000;0.6593;1.2982;
793.5000;0.6602;1.3007;
793.8000;0.6610;1.2934;
794.1000;0.6610;1.2886;
794.4000;0.6610;1.2958;
794.7000;0.6626;1.2910;
795.0000;0.6626;1.2862;
795.3000;0.6610;1.2862;
795.6000;0.6602;1.2789;
795.9000;0.6634;1.2910;
796.2000;0.6659;1.3031;
796.5000;0.6618;1.2910;
796.8000;0.6593;1.2837;
797.1000;0.6585;1.2717;
797.4000;0.6593;1.2668;
797.7000;0.6610;1.2717;
798.0000;0.6593;1.2837;
798.3000;0.6602;1.2837;
798.6000;0.6618;1.2886;
798.9000;0.6585;1.2886;
799.2000;0.6545;1.2717;
799.5000;0.6528;1.2765;
799.8000;0.6585;1.2886;
800.1000;0.6593;1.2789;
800.4000;0.6610;1.2741;
800.7000;0.6471;1.2330;
801.0000;0.6569;1.2547;
801.3000;0.6593;1.2717;
801.6000;0.6593;1.2741;
801.9000;0.6618;1.2837;
802.2000;0.6569;1.2692;
802.5000;0.6577;1.2644;
802.8000;0.6593;1.2620;
803.1000;0.6593;1.2692;
803.4000;0.6593;1.2644;
803.7000;0.6577;1.2644;
804.0000;0.6593;1.2644;
804.3000;0.6618;1.2741;
804.6000;0.6585;1.2668;
804.9000;0.6569;1.2620;
805.2000;0.6585;1.2620;
805.5000;0.6593;1.2596;
805.8000;0.6602;1.2644;
806.1000;0.6610;1.2837;
806.4000;0.6545;1.2765;
806.7000;0.6577;1.2837;
807.0000;0.6577;1.2717;
807.3000;0.6577;1.2644;
807.6000;0.6569;1.2620;
807.9000;0.6716;1.2958;
808.2000;0.6650;1.2789;
808.5000;0.6561;1.2596;
808.8000;0.6585;1.2620;
809.1000;0.6512;1.2499;
809.4000;0.6528;1.2596;
809.7000;0.6585;1.2886;
810.0000;0.6561;1.2862;
810.3000;0.6553;1.2837;
810.6000;0.6536;1.2692;
810.9000;0.6610;1.2862;
811.2000;0.6561;1.2692;
811.5000;0.6528;1.2523;
811.8000;0.6569;1.2596;
812.1000;0.6545;1.2596;
812.4000;0.6553;1.2596;
812.7000;0.6642;1.2934;
813.0000;0.6553;1.2717;
813.3000;0.6520;1.2620;
813.6000;0.6545;1.2717;
813.9000;0.6545;1.2717;
814.2000;0.6569;1.2741;
814.5000;0.6561;1.2717;
814.8000;0.6553;1.2813;
815.1000;0.6545;1.2765;
815.4000;0.6561;1.2765;
815.7000;0.6577;1.2886;
816.0000;0.6553;1.2813;
816.3000;0.6561;1.2886;
816.6000;0.6545;1.2862;
816.9000;0.6528;1.2910;
817.2000;0.6536;1.2910;
817.5000;0.6520;1.2910;
817.8000;0.6528;1.2910;
818.1000;0.6536;1.2862;
818.4000;0.6520;1.2813;
818.7000;0.6520;1.2765;
819.0000;0.6561;1.2862;
819.3000;0.6528;1.2765;
819.6000;0.6528;1.2813;
819.9000;0.6545;1.2789;
820.2000;0.6536;1.2789;
820.5000;0.6512;1.2789;
820.8000;0.6545;1.2741;
821.1000;0.6545;1.2789;
821.4000;0.6593;1.2886;
821.7000;0.6504;1.2668;
822.0000;0.6553;1.2765;
822.3000;0.6488;1.2620;
822.6000;0.6504;1.2765;
822.9000;0.6471;1.2692;
823.2000;0.6512;1.2813;
823.5000;0.6504;1.2717;
823.8000;0.6414;1.2499;
824.1000;0.6488;1.2765;
824.4000;0.6512;1.2837;
824.7000;0.6496;1.2765;
825.0000;0.6553;1.2910;
825.3000;0.6512;1.2765;
825.6000;0.6520;1.2765;
825.9000;0.6553;1.2862;
826.2000;0.6496;1.2741;
826.5000;0.6520;1.2813;
826.8000;0.6488;1.2765;
827.1000;0.6520;1.2717;
827.4000;0.6504;1.2692;
827.7000;0.6569;1.2886;
828.0000;0.6512;1.2789;
828.3000;0.6520;1.2789;
828.6000;0.6504;1.2741;
828.9000;0.6528;1.2813;
829.2000;0.6536;1.2862;
829.5000;0.6496;1.2765;
829.8000;0.6496;1.2813;
830.1000;0.6545;1.2886;
830.4000;0.6512;1.2813;
830.7000;0.6536;1.2789;
831.0000;0.6488;1.2765;
831.3000;0.6439;1.2741;
831.6000;0.6520;1.2910;
831.9000;0.6520;1.2886;
832.2000;0.6504;1.2813;
832.5000;0.6512;1.2837;
832.8000;0.6520;1.2958;
833.1000;0.6512;1.2982;
833.4000;0.6520;1.2934;
833.7000;0.6512;1.2958;
834.0000;0.6504;1.2789;
834.3000;0.6512;1.2741;
834.6000;0.6504;1.2741;
834.9000;0.6496;1.2741;
835.2000;0.6528;1.2837;
835.5000;0.6512;1.2862;
835.8000;0.6488;1.2837;
836.1000;0.6496;1.2910;
836.4000;0.6488;1.2837;
836.7000;0.6512;1.2886;
837.0000;0.6496;1.2862;
837.3000;0.6496;1.2789;
837.6000;0.6496;1.2958;
837.9000;0.6512;1.3055;
838.2000;0.6488;1.3079;
838.5000;0.6488;1.3079;
838.8000;0.6496;1.3031;
839.1000;0.6504;1.3007;
839.4000;0.6512;1.2958;
839.7000;0.6520;1.3007;
840.0000;0.6520;1.3103;
840.3000;0.6512;1.3007;
840.6000;0.6512;1.3103;
840.9000;0.6520;1.3152;
841.2000;0.6504;1.3103;
841.5000;0.6496;1.3031;
841.8000;0.6479;1.3031;
842.1000;0.6496;1.2958;
842.4000;0.6504;1.2934;
842.7000;0.6488;1.2934;
843.0000;0.6496;1.2910;
843.3000;0.6520;1.2862;
843.6000;0.6463;1.2692;
843.9000;0.6479;1.2813;
844.2000;0.6504;1.2934;
844.5000;0.6496;1.2958;
844.8000;0.6479;1.2982;
845.1000;0.6496;1.2886;
845.4000;0.6536;1.2910;
845.7000;0.6496;1.2837;
846.0000;0.6528;1.2958;
846.3000;0.6479;1.2886;
846.6000;0.6488;1.2934;
846.9000;0.6488;1.2910;
847.2000;0.6488;1.2934;
847.5000;0.6463;1.2910;
847.8000;0.6520;1.2982;
848.1000;0.6479;1.2837;
848.4000;0.6577;1.3007;
848.7000;0.6479;1.2837;
849.0000;0.6528;1.2934;
849.3000;0.6520;1.2813;
849.6000;0.6488;1.2765;
849.9000;0.6479;1.2813;
850.2000;0.6496;1.2934;
850.5000;0.6496;1.2910;
850.8000;0.6479;1.2934;
851.1000;0.6488;1.2982;
851.4000;0.6471;1.3007;
851.7000;0.6479;1.3055;
852.0000;0.6471;1.3176;
852.3000;0.6536;1.3248;
852.6000;0.6488;1.3079;
852.9000;0.6471;1.3079;
853.2000;0.6463;1.3031;
853.5000;0.6471;1.3007;
853.8000;0.6504;1.3055;
854.1000;0.6471;1.2982;
854.4000;0.6463;1.2934;
854.7000;0.6479;1.3007;
855.0000;0.6471;1.3031;
855.3000;0.6488;1.2958;
855.6000;0.6463;1.2910;
855.9000;0.6496;1.3007;
856.2000;0.6439;1.2862;
856.5000;0.6414;1.2813;
856.8000;0.6439;1.2910;
857.1000;0.6455;1.2958;
857.4000;0.6447;1.2862;
857.7000;0.6447;1.2934;
858.0000;0.6455;1.2910;
858.3000;0.6463;1.2837;
858.6000;0.6520;1.3031;
858.9000;0.6447;1.2982;
859.2000;0.6455;1.2910;
859.5000;0.6447;1.2958;
859.8000;0.6414;1.2813;
860.1000;0.6455;1.2813;
860.4000;0.6455;1.2741;
860.7000;0.6471;1.2741;
861.0000;0.6447;1.2717;
861.3000;0.6447;1.2813;
861.6000;0.6455;1.2837;
861.9000;0.6447;1.2813;
862.2000;0.6463;1.2837;
862.5000;0.6455;1.2862;
862.8000;0.6431;1.2789;
863.1000;0.6455;1.2862;
863.4000;0.6463;1.2910;
863.7000;0.6447;1.2886;
864.0000;0.6447;1.2982;
864.3000;0.6439;1.3055;
864.6000;0.6463;1.3079;
864.9000;0.6447;1.3079;
865.2000;0.6463;1.3079;
865.5000;0.6439;1.2982;
865.8000;0.6431;1.3055;
866.1000;0.6406;1.2910;
866.4000;0.6455;1.3031;
866.7000;0.6414;1.2837;
867.0000;0.6398;1.2813;
867.3000;0.6471;1.3103;
867.6000;0.6455;1.3128;
867.9000;0.6536;1.3321;
868.2000;0.6431;1.3007;
868.5000;0.6439;1.3031;
868.8000;0.6357;1.2886;
869.1000;0.6422;1.3031;
869.4000;0.6455;1.3031;
869.7000;0.6439;1.2982;
870.0000;0.6390;1.2741;
870.3000;0.6479;1.2934;
870.6000;0.6431;1.2886;
870.9000;0.6512;1.3079;
871.2000;0.6325;1.2547;
871.5000;0.6488;1.2958;
871.8000;0.6439;1.2886;
872.1000;0.6431;1.2934;
872.4000;0.6479;1.3079;
872.7000;0.6455;1.3079;
873.0000;0.6406;1.3007;
873.3000;0.6431;1.3055;
873.6000;0.6414;1.3055;
873.9000;0.6431;1.3152;
874.2000;0.6512;1.3369;
874.5000;0.6414;1.3224;
874.8000;0.6422;1.3224;
875.1000;0.6447;1.3224;
875.4000;0.6431;1.3176;
875.7000;0.6431;1.3079;
876.0000;0.6447;1.3128;
876.3000;0.6447;1.3176;
876.6000;0.6422;1.3055;
876.9000;0.6414;1.3007;
877.2000;0.6463;1.3079;
877.5000;0.6439;1.3055;
877.8000;0.6455;1.3103;
878.1000;0.6357;1.2958;
878.4000;0.6398;1.3007;
878.7000;0.6439;1.3079;
879.0000;0.6422;1.3128;
879.3000;0.6431;1.3103;
879.6000;0.6414;1.3079;
879.9000;0.6422;1.3103;
880.2000;0.6431;1.3152;
880.5000;0.6406;1.3079;
880.8000;0.6422;1.3103;
881.1000;0.6382;1.2910;
881.4000;0.6422;1.3031;
881.7000;0.6422;1.3007;
882.0000;0.6422;1.2886;
882.3000;0.6414;1.2982;
882.6000;0.6422;1.3007;
882.9000;0.6406;1.2982;
883.2000;0.6398;1.2886;
883.5000;0.6398;1.2910;
883.8000;0.6414;1.2934;
884.1000;0.6406;1.2910;
884.4000;0.6414;1.2910;
884.7000;0.6422;1.2934;
885.0000;0.6414;1.2934;
885.3000;0.6431;1.2910;
885.6000;0.6390;1.2862;
885.9000;0.6414;1.2910;
886.2000;0.6439;1.2862;
886.5000;0.6422;1.2813;
886.8000;0.6406;1.2765;
887.1000;0.6406;1.2789;
887.4000;0.6398;1.2765;
887.7000;0.6406;1.2910;
888.0000;0.6382;1.2934;
888.3000;0.6374;1.2958;
888.6000;0.6390;1.3007;
888.9000;0.6431;1.3031;
889.2000;0.6431;1.2982;
889.5000;0.6414;1.2958;
889.8000;0.6414;1.2982;
890.1000;0.6414;1.2982;
890.4000;0.6414;1.2958;
890.7000;0.6431;1.2934;
891.0000;0.6390;1.2934;
891.3000;0.6414;1.2886;
891.6000;0.6422;1.2910;
891.9000;0.6390;1.2886;
892.2000;0.6439;1.2982;
892.5000;0.6317;1.2717;
892.8000;0.6414;1.2910;
893.1000;0.6439;1.2958;
893.4000;0.6406;1.2837;
893.7000;0.6390;1.2789;
894.0000;0.6414;1.2934;
894.3000;0.6365;1.2765;
894.6000;0.6398;1.2934;
894.9000;0.6398;1.2910;
895.2000;0.6292;1.2717;
895.5000;0.6406;1.3007;
895.8000;0.6365;1.2862;
896.1000;0.6398;1.2934;
896.4000;0.6398;1.2982;
896.7000;0.6357;1.3007;
897.0000;0.6455;1.3152;
897.3000;0.6414;1.3055;
897.6000;0.6374;1.3031;
897.9000;0.6382;1.3055;
898.2000;0.6398;1.3031;
898.5000;0.6414;1.3031;
898.8000;0.6406;1.2910;
899.1000;0.6317;1.2692;
899.4000;0.6390;1.2862;
899.7000;0.6382;1.2862;
900.0000;0.6357;1.2789;
900.3000;0.6398;1.2837;
900.6000;0.6414;1.2862;
900.9000;0.6365;1.2741;
901.2000;0.6284;1.2547;
901.5000;0.6431;1.2934;
901.8000;0.6390;1.2837;
902.1000;0.6431;1.3007;
902.4000;0.6382;1.2910;
902.7000;0.6382;1.2934;
903.0000;0.6374;1.2934;
903.3000;0.6390;1.3007;
903.6000;0.6349;1.2934;
903.9000;0.6382;1.2958;
904.2000;0.6374;1.2910;
904.5000;0.6374;1.2862;
904.8000;0.6357;1.2813;
905.1000;0.6325;1.2692;
905.4000;0.6374;1.2717;
905.7000;0.6382;1.2644;
906.0000;0.6382;1.2572;
906.3000;0.6390;1.2620;
906.6000;0.6300;1.2426;
906.9000;0.6390;1.2717;
907.2000;0.6382;1.2717;
907.5000;0.6422;1.2813;
907.8000;0.6382;1.2789;
908.1000;0.6390;1.2837;
908.4000;0.6390;1.2958;
908.7000;0.6374;1.2982;
909.0000;0.6374;1.2910;
909.3000;0.6382;1.2886;
909.6000;0.6365;1.2789;
909.9000;0.6374;1.2813;
910.2000;0.6390;1.2813;
910.5000;0.6382;1.2837;
910.8000;0.6406;1.2837;
911.1000;0.6398;1.2910;
911.4000;0.6431;1.3103;
911.7000;0.6382;1.2934;
912.0000;0.6398;1.3055;
912.3000;0.6382;1.2958;
912.6000;0.6382;1.3007;
912.9000;0.6406;1.2958;
913.2000;0.6406;1.2958;
913.5000;0.6398;1.2910;
913.8000;0.6365;1.2813;
914.1000;0.6349;1.2789;
914.4000;0.6398;1.2934;
914.7000;0.6382;1.2934;
915.0000;0.6333;1.2813;
915.3000;0.6374;1.2934;
915.6000;0.6382;1.2982;
915.9000;0.6390;1.2934;
916.2000;0.6374;1.2837;
916.5000;0.6398;1.2837;
916.8000;0.6390;1.2789;
917.1000;0.6422;1.2934;
917.4000;0.6390;1.2837;
917.7000;0.6382;1.2813;
918.0000;0.6382;1.2789;
918.3000;0.6341;1.2765;
918.6000;0.6365;1.2886;
918.9000;0.6349;1.2910;
919.2000;0.6390;1.2910;
919.5000;0.6382;1.2910;
919.8000;0.6349;1.2910;
920.1000;0.6357;1.2910;
920.4000;0.6365;1.2934;
920.7000;0.6374;1.2982;
921.0000;0.6382;1.2910;
921.3000;0.6357;1.2982;
921.6000;0.6365;1.3055;
921.9000;0.6365;1.3128;
922.2000;0.6374;1.3152;
922.5000;0.6374;1.3152;
922.8000;0.6382;1.3128;
923.1000;0.6398;1.3103;
923.4000;0.6365;1.3055;
923.7000;0.6357;1.3103;
924.0000;0.6341;1.3128;
924.3000;0.6349;1.3200;
924.6000;0.6374;1.3224;
924.9000;0.6349;1.3224;
925.2000;0.6341;1.3176;
925.5000;0.6382;1.3200;
925.8000;0.6390;1.3297;
926.1000;0.6341;1.3224;
926.4000;0.6349;1.3176;
926.7000;0.6349;1.3224;
927.0000;0.6341;1.3152;
927.3000;0.6365;1.2982;
927.6000;0.6374;1.3055;
927.9000;0.6365;1.2982;
928.2000;0.6357;1.3007;
928.5000;0.6333;1.2934;
928.8000;0.6349;1.2958;
929.1000;0.6349;1.2982;
929.4000;0.6349;1.3031;
929.7000;0.6333;1.3031;
930.0000;0.6349;1.3079;
930.3000;0.6333;1.2982;
930.6000;0.6357;1.2982;
930.9000;0.6349;1.3007;
931.2000;0.6365;1.2934;
931.5000;0.6349;1.2886;
931.8000;0.6349;1.2886;
932.1000;0.6357;1.2886;
932.4000;0.6365;1.2934;
932.7000;0.6341;1.2958;
933.0000;0.6341;1.3031;
933.3000;0.6341;1.3103;
933.6000;0.6374;1.3128;
933.9000;0.6374;1.3224;
934.2000;0.6382;1.3345;
934.5000;0.6357;1.3248;
934.8000;0.6341;1.3152;
935.1000;0.6333;1.3103;
935.4000;0.6317;1.2982;
935.7000;0.6349;1.3031;
936.0000;0.6357;1.3128;
936.3000;0.6374;1.3103;
936.6000;0.6341;1.3079;
936.9000;0.6333;1.3152;
937.2000;0.6349;1.3248;
937.5000;0.6349;1.3273;
937.8000;0.6349;1.3176;
938.1000;0.6341;1.3103;
938.4000;0.6292;1.2862;
938.7000;0.6325;1.2958;
939.0000;0.6276;1.2837;
939.3000;0.6292;1.2837;
939.6000;0.6317;1.2862;
939.9000;0.6325;1.2958;
940.2000;0.6325;1.2958;
940.5000;0.6357;1.3031;
940.8000;0.6374;1.3031;
941.1000;0.6349;1.2982;
941.4000;0.6357;1.2982;
941.7000;0.6333;1.2910;
942.0000;0.6365;1.2910;
942.3000;0.6357;1.2886;
942.6000;0.6374;1.2934;
942.9000;0.6333;1.2886;
943.2000;0.6333;1.2934;
943.5000;0.6382;1.3031;
943.8000;0.6357;1.3031;
944.1000;0.6357;1.3103;
944.4000;0.6431;1.3273;
944.7000;0.6382;1.3248;
945.0000;0.6333;1.3103;
945.3000;0.6365;1.3103;
945.6000;0.6341;1.2982;
945.9000;0.6317;1.2982;
946.2000;0.6325;1.2982;
946.5000;0.6333;1.2982;
946.8000;0.6341;1.2958;
947.1000;0.6398;1.3055;
947.4000;0.6357;1.2934;
947.7000;0.6349;1.2910;
948.0000;0.6325;1.2958;
948.3000;0.6333;1.2910;
948.6000;0.6333;1.2934;
948.9000;0.6325;1.2886;
949.2000;0.6284;1.2692;
949.5000;0.6317;1.2958;
949.8000;0.6317;1.2982;
950.1000;0.6341;1.3007;
950.4000;0.6325;1.2910;
950.7000;0.6374;1.3103;
951.0000;0.6309;1.2982;
951.3000;0.6341;1.3007;
951.6000;0.6300;1.2910;
951.9000;0.6300;1.2886;
952.2000;0.6317;1.2837;
952.5000;0.6341;1.2886;
952.8000;0.6349;1.2886;
953.1000;0.6325;1.2910;
953.4000;0.6309;1.2934;
953.7000;0.6309;1.2958;
954.0000;0.6341;1.3055;
954.3000;0.6317;1.3055;
954.6000;0.6325;1.3103;
954.9000;0.6300;1.3031;
955.2000;0.6325;1.3007;
955.5000;0.6325;1.2982;
955.8000;0.6349;1.3055;
956.1000;0.6349;1.3103;
956.4000;0.6309;1.2982;
956.7000;0.6390;1.3103;
957.0000;0.6341;1.2910;
957.3000;0.6325;1.2958;
957.6000;0.6325;1.2910;
957.9000;0.6317;1.3007;
958.2000;0.6349;1.3152;
958.5000;0.6317;1.3055;
958.8000;0.6374;1.3200;
959.1000;0.6325;1.3055;
959.4000;0.6276;1.2958;
959.7000;0.6260;1.2765;
960.0000;0.6317;1.2886;
960.3000;0.6317;1.2982;
960.6000;0.6309;1.2982;
960.9000;0.6333;1.3055;
961.2000;0.6292;1.2910;
961.5000;0.6325;1.2982;
961.8000;0.6300;1.2813;
962.1000;0.6325;1.2910;
962.4000;0.6325;1.3031;
962.7000;0.6325;1.3055;
963.0000;0.6333;1.3007;
963.3000;0.6268;1.2886;
963.6000;0.6325;1.3079;
963.9000;0.6317;1.3031;
964.2000;0.6374;1.3200;
964.5000;0.6309;1.3055;
964.8000;0.6309;1.3079;
965.1000;0.6309;1.3079;
965.4000;0.6292;1.3055;
965.7000;0.6317;1.3128;
966.0000;0.6317;1.3176;
966.3000;0.6317;1.3176;
966.6000;0.6300;1.3128;
966.9000;0.6341;1.3176;
967.2000;0.6325;1.3176;
967.5000;0.6317;1.3200;
967.8000;0.6317;1.3297;
968.1000;0.6365;1.3369;
968.4000;0.6333;1.3273;
968.7000;0.6317;1.3273;
969.0000;0.6325;1.3224;
969.3000;0.6357;1.3297;
969.6000;0.6325;1.3200;
969.9000;0.6325;1.3128;
970.2000;0.6309;1.3103;
970.5000;0.6333;1.3224;
970.8000;0.6300;1.3176;
971.1000;0.6309;1.3176;
971.4000;0.6317;1.3176;
971.7000;0.6309;1.3128;
972.0000;0.6309;1.3128;
972.3000;0.6276;1.3031;
972.6000;0.6325;1.3152;
972.9000;0.6333;1.3248;
973.2000;0.6268;1.3152;
973.5000;0.6309;1.3345;
973.8000;0.6309;1.3321;
974.1000;0.6317;1.3297;
974.4000;0.6300;1.3273;
974.7000;0.6292;1.3224;
975.0000;0.6300;1.3200;
975.3000;0.6309;1.3176;
975.6000;0.6309;1.3176;
975.9000;0.6300;1.3248;
976.2000;0.6292;1.3248;
976.5000;0.6300;1.3200;
976.8000;0.6292;1.3200;
977.1000;0.6317;1.3176;
977.4000;0.6292;1.3103;
977.7000;0.6268;1.3079;
978.0000;0.6317;1.3176;
978.3000;0.6284;1.3224;
978.6000;0.6292;1.3273;
978.9000;0.6292;1.3345;
979.2000;0.6317;1.3393;
979.5000;0.6309;1.3393;
979.8000;0.6284;1.3297;
980.1000;0.6300;1.3345;
980.4000;0.6292;1.3273;
980.7000;0.6341;1.3393;
981.0000;0.6300;1.3297;
981.3000;0.6325;1.3321;
981.6000;0.6300;1.3176;
981.9000;0.6309;1.3200;
982.2000;0.6309;1.3128;
982.5000;0.6300;1.3079;
982.8000;0.6325;1.3055;
983.1000;0.6309;1.3103;
983.4000;0.6292;1.3128;
983.7000;0.6260;1.3224;
984.0000;0.6292;1.3248;
984.3000;0.6252;1.3152;
984.6000;0.6357;1.3418;
984.9000;0.6284;1.3200;
985.2000;0.6300;1.3176;
985.5000;0.6292;1.3152;
985.8000;0.6260;1.3055;
986.1000;0.6349;1.3273;
986.4000;0.6292;1.3176;
986.7000;0.6276;1.3031;
987.0000;0.6300;1.3031;
987.3000;0.6300;1.3031;
987.6000;0.6260;1.2982;
987.9000;0.6284;1.3079;
988.2000;0.6292;1.3152;
988.5000;0.6292;1.3224;
988.8000;0.6349;1.3514;
989.1000;0.6357;1.3442;
989.4000;0.6325;1.3345;
989.7000;0.6284;1.3103;
990.0000;0.6284;1.3103;
990.3000;0.6268;1.3103;
990.6000;0.6292;1.3176;
990.9000;0.6300;1.3224;
991.2000;0.6292;1.3297;
991.5000;0.6276;1.3273;
991.8000;0.6268;1.3152;
992.1000;0.6284;1.3273;
992.4000;0.6276;1.3321;
992.7000;0.6243;1.3273;
993.0000;0.6317;1.3490;
993.3000;0.6349;1.3490;
993.6000;0.6268;1.3369;
993.9000;0.6276;1.3297;
994.2000;0.6260;1.3248;
994.5000;0.6268;1.3248;
994.8000;0.6333;1.3369;
995.1000;0.6276;1.3152;
995.4000;0.6276;1.3176;
995.7000;0.6268;1.3200;
996.0000;0.6292;1.3297;
996.3000;0.6276;1.3297;
996.6000;0.6268;1.3248;
996.9000;0.6276;1.3321;
997.2000;0.6292;1.3369;
997.5000;0.6268;1.3321;
997.8000;0.6268;1.3345;
998.1000;0.6268;1.3393;
998.4000;0.6276;1.3418;
998.7000;0.6284;1.3321;
999.0000;0.6268;1.3224;
999.3000;0.6268;1.3103;
999.6000;0.6268;1.3055;
999.9000;0.6284;1.3103;
1000.2000;0.6268;1.3079;
1000.5000;0.6235;1.2982;
1000.8000;0.6276;1.3079;
1001.1000;0.6349;1.3176;
1001.4000;0.6284;1.3055;
1001.7000;0.6292;1.3079;
1002.0000;0.6300;1.3079;
1002.3000;0.6309;1.3128;
1002.6000;0.6292;1.3103;
1002.9000;0.6292;1.3128;
1003.2000;0.6284;1.3128;
1003.5000;0.6219;1.2958;
1003.8000;0.6284;1.3103;
1004.1000;0.6317;1.3176;
1004.4000;0.6268;1.3152;
1004.7000;0.6276;1.3176;
1005.0000;0.6284;1.3200;
1005.3000;0.6268;1.3176;
1005.6000;0.6276;1.3128;
1005.9000;0.6292;1.3152;
1006.2000;0.6300;1.3079;
1006.5000;0.6284;1.3055;
1006.8000;0.6252;1.3079;
1007.1000;0.6284;1.3200;
1007.4000;0.6276;1.3128;
1007.7000;0.6284;1.3103;
1008.0000;0.6276;1.3152;
1008.3000;0.6284;1.3200;
1008.6000;0.6268;1.3055;
1008.9000;0.6260;1.3007;
1009.2000;0.6260;1.2958;
1009.5000;0.6260;1.3055;
1009.8000;0.6276;1.3007;
1010.1000;0.6284;1.3007;
1010.4000;0.6317;1.3055;
1010.7000;0.6284;1.3031;
1011.0000;0.6268;1.3055;
1011.3000;0.6268;1.3079;
1011.6000;0.6276;1.3079;
1011.9000;0.6284;1.3152;
1012.2000;0.6268;1.3152;
1012.5000;0.6276;1.3152;
1012.8000;0.6243;1.3079;
1013.1000;0.6268;1.3103;
1013.4000;0.6284;1.3103;
1013.7000;0.6292;1.3103;
1014.0000;0.6284;1.3079;
1014.3000;0.6243;1.3007;
1014.6000;0.6252;1.3031;
1014.9000;0.6260;1.3103;
1015.2000;0.6260;1.3103;
1015.5000;0.6268;1.3152;
1015.8000;0.6284;1.3103;
1016.1000;0.6268;1.3128;
1016.4000;0.6268;1.3055;
1016.7000;0.6268;1.3079;
1017.0000;0.6268;1.3031;
1017.3000;0.6227;1.2837;
1017.6000;0.6276;1.3007;
1017.9000;0.6276;1.3055;
1018.2000;0.6252;1.2982;
1018.5000;0.6260;1.2982;
1018.8000;0.6317;1.3152;
1019.1000;0.6276;1.3128;
1019.4000;0.6260;1.3055;
1019.7000;0.6195;1.2862;
1020.0000;0.6276;1.3128;
1020.3000;0.6284;1.3128;
1020.6000;0.6268;1.3079;
1020.9000;0.6268;1.3055;
1021.2000;0.6252;1.2910;
1021.5000;0.6252;1.2886;
1021.8000;0.6252;1.2862;
1022.1000;0.6243;1.2934;
1022.4000;0.6252;1.3007;
1022.7000;0.6260;1.3103;
1023.0000;0.6317;1.3200;
1023.3000;0.6260;1.3055;
1023.6000;0.6309;1.3152;
1023.9000;0.6243;1.3176;
1024.2000;0.6268;1.3176;
1024.5000;0.6203;1.2910;
1024.8000;0.6252;1.2982;
1025.1000;0.6243;1.2886;
1025.4000;0.6268;1.3079;
1025.7000;0.6252;1.3007;
1026.0000;0.6260;1.3128;
1026.3000;0.6252;1.3152;
1026.6000;0.6195;1.2934;
1026.9000;0.6252;1.3079;
1027.2000;0.6260;1.3128;
1027.5000;0.6252;1.3055;
1027.8000;0.6300;1.3200;
1028.1000;0.6276;1.3176;
1028.4000;0.6195;1.2958;
1028.7000;0.6260;1.3055;
1029.0000;0.6365;1.3224;
1029.3000;0.6252;1.2886;
1029.6000;0.6235;1.2813;
1029.9000;0.6252;1.2886;
1030.2000;0.6252;1.2958;
1030.5000;0.6211;1.2813;
1030.8000;0.6357;1.3200;
1031.1000;0.6252;1.2982;
1031.4000;0.6276;1.3031;
1031.7000;0.6260;1.3031;
1032.0000;0.6260;1.3079;
1032.3000;0.6268;1.3128;
1032.6000;0.6276;1.3224;
1032.9000;0.6268;1.3176;
1033.2000;0.6268;1.3200;
1033.5000;0.6178;1.2958;
1033.8000;0.6252;1.3079;
1034.1000;0.6260;1.3176;
1034.4000;0.6121;1.2789;
1034.7000;0.6260;1.3103;
1035.0000;0.6235;1.3128;
1035.3000;0.6252;1.3152;
1035.6000;0.6260;1.3152;
1035.9000;0.6243;1.3079;
1036.2000;0.6284;1.3176;
1036.5000;0.6260;1.3079;
1036.8000;0.6309;1.3103;
1037.1000;0.6260;1.3103;
1037.4000;0.6235;1.3152;
1037.7000;0.6235;1.3103;
1038.0000;0.6268;1.3128;
1038.3000;0.6252;1.3079;
1038.6000;0.6276;1.3152;
1038.9000;0.6252;1.3079;
1039.2000;0.6276;1.3055;
1039.5000;0.6284;1.3031;
1039.8000;0.6268;1.3055;
1040.1000;0.6227;1.2982;
1040.4000;0.6243;1.3007;
1040.7000;0.6252;1.3007;
1041.0000;0.6243;1.3055;
1041.3000;0.6195;1.2910;
1041.6000;0.6243;1.2958;
1041.9000;0.6243;1.2958;
1042.2000;0.6227;1.2934;
1042.5000;0.6268;1.3055;
1042.8000;0.6268;1.3031;
1043.1000;0.6235;1.3007;
1043.4000;0.6260;1.3128;
1043.7000;0.6252;1.3128;
1044.0000;0.6268;1.3103;
1044.3000;0.6260;1.3079;
1044.6000;0.6260;1.3103;
1044.9000;0.6252;1.3031;
1045.2000;0.6260;1.2934;
1045.5000;0.6268;1.3007;
1045.8000;0.6252;1.3007;
1046.1000;0.6284;1.2958;
1046.4000;0.6235;1.2886;
1046.7000;0.6252;1.3007;
1047.0000;0.6243;1.2958;
1047.3000;0.6252;1.3031;
1047.6000;0.6292;1.3031;
1047.9000;0.6252;1.3007;
1048.2000;0.6268;1.3007;
1048.5000;0.6309;1.3055;
1048.8000;0.6268;1.3079;
1049.1000;0.6284;1.3128;
1049.4000;0.6252;1.3079;
1049.7000;0.6162;1.2741;
1050.0000;0.6292;1.2958;
1050.3000;0.6284;1.2934;
1050.6000;0.6243;1.2958;
1050.9000;0.6260;1.2982;
1051.2000;0.6276;1.2982;
1051.5000;0.6243;1.2910;
1051.8000;0.6268;1.3103;
1052.1000;0.6252;1.3031;
1052.4000;0.6227;1.2958;
1052.7000;0.6292;1.3055;
1053.0000;0.6260;1.3007;
1053.3000;0.6260;1.3007;
1053.6000;0.6243;1.2982;
1053.9000;0.6252;1.3055;
1054.2000;0.6252;1.3007;
1054.5000;0.6252;1.3031;
1054.8000;0.6252;1.3031;
1055.1000;0.6252;1.3031;
1055.4000;0.6211;1.2813;
1055.7000;0.6243;1.2813;
1056.0000;0.6243;1.2837;
1056.3000;0.6235;1.2886;
1056.6000;0.6252;1.2958;
1056.9000;0.6260;1.3031;
1057.2000;0.6333;1.3297;
1057.5000;0.6195;1.2958;
1057.8000;0.6219;1.3031;
1058.1000;0.6284;1.3176;
1058.4000;0.6252;1.3103;
1058.7000;0.6252;1.3031;
1059.0000;0.6252;1.3007;
1059.3000;0.6178;1.2813;
1059.6000;0.6235;1.2934;
1059.9000;0.6243;1.2958;
1060.2000;0.6121;1.2692;
1060.5000;0.6243;1.3055;
1060.8000;0.6227;1.3055;
1061.1000;0.6227;1.3031;
1061.4000;0.6195;1.2910;
1061.7000;0.6227;1.2958;
1062.0000;0.6235;1.2982;
1062.3000;0.6235;1.3007;
1062.6000;0.6211;1.2958;
1062.9000;0.6292;1.3103;
1063.2000;0.6252;1.3055;
1063.5000;0.6252;1.3079;
1063.8000;0.6252;1.3055;
1064.1000;0.6178;1.2886;
1064.4000;0.6252;1.3055;
1064.7000;0.6227;1.3031;
1065.0000;0.6235;1.3031;
1065.3000;0.6243;1.3055;
1065.6000;0.6211;1.3031;
1065.9000;0.6235;1.3152;
1066.2000;0.6227;1.3103;
1066.5000;0.6219;1.3079;
1066.8000;0.6235;1.3103;
1067.1000;0.6243;1.3200;
1067.4000;0.6243;1.3128;
1067.7000;0.6276;1.3248;
1068.0000;0.6243;1.3176;
1068.3000;0.6219;1.3079;
1068.6000;0.6243;1.3103;
1068.9000;0.6235;1.3103;
1069.2000;0.6227;1.2982;
1069.5000;0.6211;1.2886;
1069.8000;0.6219;1.2886;
1070.1000;0.6268;1.3079;
1070.4000;0.6252;1.3079;
1070.7000;0.6219;1.3055;
1071.0000;0.6219;1.3079;
1071.3000;0.6219;1.3128;
1071.6000;0.6268;1.3224;
1071.9000;0.6219;1.3079;
1072.2000;0.6243;1.3152;
1072.5000;0.6203;1.3079;
1072.8000;0.6243;1.3103;
1073.1000;0.6235;1.3079;
1073.4000;0.6235;1.3079;
1073.7000;0.6252;1.3103;
1074.0000;0.6260;1.3103;
1074.3000;0.6252;1.3176;
1074.6000;0.6276;1.3248;
1074.9000;0.6268;1.3297;
1075.2000;0.6243;1.3224;
1075.5000;0.6252;1.3248;
1075.8000;0.6227;1.3248;
1076.1000;0.6235;1.3297;
1076.4000;0.6243;1.3297;
1076.7000;0.6252;1.3248;
1077.0000;0.6203;1.3128;
1077.3000;0.6235;1.3176;
1077.6000;0.6235;1.3079;
1077.9000;0.6252;1.3031;
1078.2000;0.6235;1.2910;
1078.5000;0.6211;1.2910;
1078.8000;0.6235;1.2982;
1079.1000;0.6252;1.3055;
1079.4000;0.6243;1.2982;
1079.7000;0.6243;1.2910;
1080.0000;0.6170;1.2765;
1080.3000;0.6260;1.2910;
1080.6000;0.6235;1.3007;
1080.9000;0.6203;1.2934;
1081.2000;0.6211;1.3103;
1081.5000;0.6219;1.3128;
1081.8000;0.6211;1.3103;
1082.1000;0.6211;1.3079;
1082.4000;0.6203;1.3031;
1082.7000;0.6219;1.3176;
1083.0000;0.6243;1.3248;
1083.3000;0.6227;1.3152;
1083.6000;0.6195;1.3055;
1083.9000;0.6243;1.3128;
1084.2000;0.6195;1.3055;
1084.5000;0.6243;1.3176;
1084.8000;0.6235;1.3128;
1085.1000;0.6211;1.3079;
1085.4000;0.6219;1.3152;
1085.7000;0.6235;1.3152;
1086.0000;0.6227;1.3200;
1086.3000;0.6235;1.3224;
1086.6000;0.6235;1.3224;
1086.9000;0.6211;1.3224;
1087.2000;0.6227;1.3273;
1087.5000;0.6243;1.3297;
1087.8000;0.6219;1.3200;
1088.1000;0.6235;1.3176;
1088.4000;0.6243;1.3224;
1088.7000;0.6284;1.3393;
1089.0000;0.6252;1.3200;
1089.3000;0.6178;1.3007;
1089.6000;0.6243;1.3128;
1089.9000;0.6235;1.3224;
1090.2000;0.6219;1.3152;
1090.5000;0.6235;1.3200;
1090.8000;0.6227;1.3152;
1091.1000;0.6219;1.3055;
1091.4000;0.6252;1.3128;
1091.7000;0.6268;1.3128;
1092.0000;0.6178;1.2934;
1092.3000;0.6276;1.3128;
1092.6000;0.6235;1.3055;
1092.9000;0.6211;1.3128;
1093.2000;0.6219;1.3031;
1093.5000;0.6219;1.3055;
1093.8000;0.6227;1.3128;
1094.1000;0.6227;1.3128;
1094.4000;0.6235;1.3103;
1094.7000;0.6243;1.3079;
1095.0000;0.6235;1.3103;
1095.3000;0.6235;1.2982;
1095.6000;0.6227;1.3007;
1095.9000;0.6235;1.2934;
1096.2000;0.6203;1.2886;
1096.5000;0.6154;1.2692;
1096.8000;0.6211;1.2886;
1097.1000;0.6203;1.2934;
1097.4000;0.6211;1.3007;
1097.7000;0.6227;1.3055;
1098.0000;0.6219;1.3007;
1098.3000;0.6243;1.2982;
1098.6000;0.6243;1.2934;
1098.9000;0.6235;1.2958;
1099.2000;0.6243;1.3031;
1099.5000;0.6235;1.3055;
1099.8000;0.6227;1.3055;
1100.1000;0.6235;1.3079;
1100.4000;0.6219;1.3128;
1100.7000;0.6235;1.3128;
1101.0000;0.6235;1.3200;
1101.3000;0.6243;1.3273;
1101.6000;0.6227;1.3176;
1101.9000;0.6203;1.3200;
1102.2000;0.6154;1.3079;
1102.5000;0.6227;1.3273;
1102.8000;0.6211;1.3200;
1103.1000;0.6227;1.3176;
1103.4000;0.6227;1.3055;
1103.7000;0.6195;1.2958;
1104.0000;0.6235;1.3031;
1104.3000;0.6243;1.3031;
1104.6000;0.6219;1.3007;
1104.9000;0.6211;1.3031;
1105.2000;0.6178;1.2982;
1105.5000;0.6227;1.3152;
1105.8000;0.6227;1.3079;
1106.1000;0.6227;1.3079;
1106.4000;0.6195;1.2982;
1106.7000;0.6203;1.3007;
1107.0000;0.6219;1.3007;
1107.3000;0.6203;1.2934;
1107.6000;0.6219;1.2934;
1107.9000;0.6186;1.2934;
1108.2000;0.6203;1.2958;
1108.5000;0.6211;1.2958;
1108.8000;0.6211;1.2837;
1109.1000;0.6227;1.2862;
1109.4000;0.6235;1.2837;
1109.7000;0.6219;1.2837;
1110.0000;0.6211;1.2862;
1110.3000;0.6227;1.2958;
1110.6000;0.6219;1.3007;
1110.9000;0.6235;1.3007;
1111.2000;0.6219;1.3007;
1111.5000;0.6186;1.2886;
1111.8000;0.6235;1.3007;
1112.1000;0.6276;1.3031;
1112.4000;0.6211;1.2886;
1112.7000;0.6219;1.3055;
1113.0000;0.6235;1.2982;
1113.3000;0.6227;1.3055;
1113.6000;0.6235;1.3031;
1113.9000;0.6227;1.2982;
1114.2000;0.6219;1.3007;
1114.5000;0.6219;1.2982;
1114.8000;0.6211;1.2862;
1115.1000;0.6243;1.3055;
1115.4000;0.6203;1.2982;
1115.7000;0.6284;1.3128;
1116.0000;0.6235;1.3055;
1116.3000;0.6203;1.2982;
1116.6000;0.6154;1.2910;
1116.9000;0.6186;1.3007;
1117.2000;0.6211;1.3055;
1117.5000;0.6203;1.3007;
1117.8000;0.6162;1.3007;
1118.1000;0.6211;1.3248;
1118.4000;0.6203;1.3200;
1118.7000;0.6211;1.3103;
1119.0000;0.6211;1.3152;
1119.3000;0.6203;1.3176;
1119.6000;0.6235;1.3273;
1119.9000;0.6219;1.3224;
1120.2000;0.6211;1.3176;
1120.5000;0.6227;1.3152;
1120.8000;0.6219;1.3297;
1121.1000;0.6186;1.3200;
1121.4000;0.6211;1.3273;
1121.7000;0.6170;1.3248;
1122.0000;0.6219;1.3273;
1122.3000;0.6219;1.3248;
1122.6000;0.6211;1.3297;
1122.9000;0.6227;1.3321;
1123.2000;0.6186;1.3224;
1123.5000;0.6203;1.3200;
1123.8000;0.6219;1.3248;
1124.1000;0.6227;1.3152;
1124.4000;0.6227;1.3176;
1124.7000;0.6219;1.3273;
1125.0000;0.6243;1.3345;
1125.3000;0.6195;1.3273;
1125.6000;0.6146;1.3152;
1125.9000;0.6260;1.3369;
1126.2000;0.6195;1.3176;
1126.5000;0.6186;1.3079;
1126.8000;0.6105;1.2765;
1127.1000;0.6211;1.3007;
1127.4000;0.6203;1.3079;
1127.7000;0.6235;1.3273;
1128.0000;0.6243;1.3321;
1128.3000;0.6186;1.3152;
1128.6000;0.6203;1.3200;
1128.9000;0.6235;1.3369;
1129.2000;0.6284;1.3442;
1129.5000;0.6211;1.3200;
1129.8000;0.6235;1.3176;
1130.1000;0.6203;1.3031;
1130.4000;0.6219;1.3031;
1130.7000;0.6227;1.3103;
1131.0000;0.6195;1.3007;
1131.3000;0.6195;1.3103;
1131.6000;0.6203;1.3103;
1131.9000;0.6211;1.3007;
1132.2000;0.6219;1.2982;
1132.5000;0.6203;1.3079;
1132.8000;0.6235;1.3176;
1133.1000;0.6203;1.3128;
1133.4000;0.6219;1.3176;
1133.7000;0.6203;1.3200;
1134.0000;0.6211;1.3152;
1134.3000;0.6178;1.3103;
1134.6000;0.6243;1.3176;
1134.9000;0.6203;1.3176;
1135.2000;0.6195;1.3103;
1135.5000;0.6211;1.3128;
1135.8000;0.6227;1.3200;
1136.1000;0.6227;1.3128;
1136.4000;0.6203;1.3055;
1136.7000;0.6203;1.3128;
1137.0000;0.6203;1.3152;
1137.3000;0.6219;1.3176;
1137.6000;0.6195;1.3103;
1137.9000;0.6186;1.3031;
1138.2000;0.6203;1.3031;
1138.5000;0.6154;1.2910;
1138.8000;0.6195;1.2934;
1139.1000;0.6195;1.2837;
1139.4000;0.6186;1.2862;
1139.7000;0.6211;1.2982;
1140.0000;0.6235;1.3055;
1140.3000;0.6203;1.3055;
1140.6000;0.6186;1.3007;
1140.9000;0.6203;1.3103;
1141.2000;0.6211;1.3152;
1141.5000;0.6195;1.3176;
1141.8000;0.6178;1.3128;
1142.1000;0.6162;1.3079;
1142.4000;0.6203;1.3152;
1142.7000;0.6374;1.3539;
1143.0000;0.6243;1.3055;
1143.3000;0.6170;1.2958;
1143.6000;0.6211;1.3055;
1143.9000;0.6178;1.2934;
1144.2000;0.6195;1.2958;
1144.5000;0.6227;1.3128;
1144.8000;0.6162;1.3055;
1145.1000;0.6186;1.3273;
1145.4000;0.6211;1.3345;
1145.7000;0.6211;1.3345;
1146.0000;0.6178;1.3200;
1146.3000;0.6268;1.3418;
1146.6000;0.6186;1.3200;
1146.9000;0.6211;1.3273;
1147.2000;0.6203;1.3200;
1147.5000;0.6105;1.2837;
1147.8000;0.6195;1.3055;
1148.1000;0.6260;1.3273;
1148.4000;0.6195;1.3176;
1148.7000;0.6219;1.3273;
1149.0000;0.6203;1.3248;
1149.3000;0.6252;1.3369;
1149.6000;0.6195;1.3128;
1149.9000;0.6162;1.2934;
1150.2000;0.6309;1.3200;
1150.5000;0.6195;1.2982;
1150.8000;0.6178;1.2958;
1151.1000;0.6211;1.3128;
1151.4000;0.6349;1.3587;
1151.7000;0.6203;1.3200;
1152.0000;0.6178;1.3152;
1152.3000;0.6186;1.3176;
1152.6000;0.6203;1.3273;
1152.9000;0.6195;1.3224;
1153.2000;0.6186;1.3321;
1153.5000;0.6195;1.3345;
1153.8000;0.6203;1.3297;
1154.1000;0.6178;1.3321;
1154.4000;0.6252;1.3514;
1154.7000;0.6203;1.3369;
1155.0000;0.6203;1.3345;
1155.3000;0.6219;1.3369;
1155.6000;0.6211;1.3297;
1155.9000;0.6211;1.3248;
1156.2000;0.6195;1.3176;
1156.5000;0.6195;1.3297;
1156.8000;0.6195;1.3248;
1157.1000;0.6186;1.3224;
1157.4000;0.6186;1.3224;
1157.7000;0.6203;1.3297;
1158.0000;0.6195;1.3224;
1158.3000;0.6178;1.3176;
1158.6000;0.6211;1.3176;
1158.9000;0.6211;1.3152;
1159.2000;0.6195;1.3079;
1159.5000;0.6219;1.3128;
1159.8000;0.6203;1.3007;
1160.1000;0.6195;1.3031;
1160.4000;0.6211;1.3055;
1160.7000;0.6195;1.3055;
1161.0000;0.6211;1.3055;
1161.3000;0.6227;1.3055;
1161.6000;0.6203;1.3031;
1161.9000;0.6195;1.3152;
1162.2000;0.6195;1.3103;
1162.5000;0.6186;1.3200;
1162.8000;0.6162;1.3248;
1163.1000;0.6186;1.3248;
1163.4000;0.6162;1.3128;
1163.7000;0.6195;1.3224;
1164.0000;0.6203;1.3297;
1164.3000;0.6195;1.3297;
1164.6000;0.6195;1.3345;
1164.9000;0.6178;1.3248;
1165.2000;0.6195;1.3224;
1165.5000;0.6162;1.3128;
1165.8000;0.6219;1.3200;
1166.1000;0.6203;1.3248;
1166.4000;0.6186;1.3200;
1166.7000;0.6203;1.3297;
1167.0000;0.6178;1.3321;
1167.3000;0.6211;1.3466;
1167.6000;0.6203;1.3442;
1167.9000;0.6219;1.3418;
1168.2000;0.6170;1.3200;
1168.5000;0.6186;1.3152;
1168.8000;0.6105;1.2958;
1169.1000;0.6219;1.3273;
1169.4000;0.6235;1.3297;
1169.7000;0.6211;1.3224;
1170.0000;0.6178;1.3055;
1170.3000;0.6186;1.3176;
1170.6000;0.6195;1.3224;
1170.9000;0.6211;1.3248;
1171.2000;0.6170;1.3152;
1171.5000;0.6129;1.3055;
1171.8000;0.6227;1.3248;
1172.1000;0.6178;1.3079;
1172.4000;0.6178;1.3079;
1172.7000;0.6178;1.3079;
1173.0000;0.6195;1.3103;
1173.3000;0.6195;1.3055;
1173.6000;0.6186;1.3128;
1173.9000;0.6186;1.3103;
1174.2000;0.6235;1.3273;
1174.5000;0.6243;1.3345;
1174.8000;0.6195;1.3248;
1175.1000;0.6162;1.3224;
1175.4000;0.6260;1.3466;
1175.7000;0.6195;1.3248;
1176.0000;0.6186;1.3200;
1176.3000;0.6203;1.3055;
1176.6000;0.6227;1.3103;
1176.9000;0.6203;1.3007;
1177.2000;0.6162;1.2958;
1177.5000;0.6178;1.3031;
1177.8000;0.6170;1.3055;
1178.1000;0.6195;1.3176;
1178.4000;0.6186;1.3176;
1178.7000;0.6203;1.3176;
1179.0000;0.6186;1.3128;
1179.3000;0.6186;1.3200;
1179.6000;0.6186;1.3200;
1179.9000;0.6211;1.3128;
1180.2000;0.6195;1.3128;
1180.5000;0.6186;1.3055;
1180.8000;0.6203;1.3224;
1181.1000;0.6195;1.3273;
1181.4000;0.6186;1.3224;
1181.7000;0.6170;1.3176;
1182.0000;0.6195;1.3128;
1182.3000;0.6195;1.3079;
1182.6000;0.6170;1.3128;
1182.9000;0.6195;1.3224;
1183.2000;0.6178;1.3079;
1183.5000;0.6203;1.3079;
1183.8000;0.6211;1.3055;
1184.1000;0.6178;1.2982;
1184.4000;0.6203;1.2910;
1184.7000;0.6203;1.2910;
1185.0000;0.6203;1.2958;
1185.3000;0.6203;1.2910;
1185.6000;0.6178;1.2910;
1185.9000;0.6162;1.2837;
1186.2000;0.6195;1.2886;
1186.5000;0.6219;1.2910;
1186.8000;0.6195;1.2886;
1187.1000;0.6186;1.2837;
1187.4000;0.6186;1.2813;
1187.7000;0.6178;1.2886;
1188.0000;0.6186;1.2958;
1188.3000;0.6203;1.3055;
1188.6000;0.6195;1.3055;
1188.9000;0.6195;1.3152;
1189.2000;0.6195;1.3200;
1189.5000;0.6186;1.3176;
1189.8000;0.6162;1.3176;
1190.1000;0.6195;1.3297;
1190.4000;0.6195;1.3176;
1190.7000;0.6162;1.3176;
1191.0000;0.6227;1.3393;
1191.3000;0.6178;1.3321;
1191.6000;0.6186;1.3369;
1191.9000;0.6178;1.3297;
1192.2000;0.6195;1.3273;
1192.5000;0.6195;1.3273;
1192.8000;0.6186;1.3273;
1193.1000;0.6203;1.3345;
1193.4000;0.6203;1.3418;
1193.7000;0.6186;1.3442;
1194.0000;0.6219;1.3418;
1194.3000;0.6186;1.3393;
1194.6000;0.6195;1.3369;
1194.9000;0.6203;1.3321;
1195.2000;0.6186;1.3248;
1195.5000;0.6170;1.3200;
1195.8000;0.6186;1.3321;
1196.1000;0.6219;1.3539;
1196.4000;0.6203;1.3466;
1196.7000;0.6195;1.3393;
1197.0000;0.6186;1.3345;
1197.3000;0.6211;1.3442;
1197.6000;0.6186;1.3442;
1197.9000;0.6178;1.3345;
1198.2000;0.6186;1.3321;
1198.5000;0.6146;1.3321;
1198.8000;0.6178;1.3466;
1199.1000;0.6146;1.3393;
1199.4000;0.6170;1.3442;
1199.7000;0.6195;1.3442;
1200.0000;0.6178;1.3369;
1200.3000;0.6146;1.3321;
1200.6000;0.6170;1.3321;
1200.9000;0.6178;1.3393;
1201.2000;0.6186;1.3418;
1201.5000;0.6170;1.3297;
1201.8000;0.6170;1.3224;
1202.1000;0.6203;1.3321;
1202.4000;0.6186;1.3200;
1202.7000;0.6186;1.3224;
1203.0000;0.6178;1.3152;
1203.3000;0.6186;1.3297;
1203.6000;0.6203;1.3297;
1203.9000;0.6186;1.3273;
1204.2000;0.6170;1.3297;
1204.5000;0.6105;1.3152;
1204.8000;0.6186;1.3321;
1205.1000;0.6146;1.3224;
1205.4000;0.6178;1.3297;
1205.7000;0.6186;1.3393;
1206.0000;0.6203;1.3369;
1206.3000;0.6203;1.3321;
1206.6000;0.6203;1.3321;
1206.9000;0.6162;1.3200;
1207.2000;0.6203;1.3248;
1207.5000;0.6260;1.3418;
1207.8000;0.6178;1.3248;
1208.1000;0.6178;1.3176;
1208.4000;0.6170;1.3248;
1208.7000;0.6186;1.3297;
1209.0000;0.6203;1.3345;
1209.3000;0.6186;1.3297;
1209.6000;0.6178;1.3297;
1209.9000;0.6178;1.3273;
1210.2000;0.6178;1.3321;
1210.5000;0.6170;1.3273;
1210.8000;0.6162;1.3248;
1211.1000;0.6105;1.3176;
1211.4000;0.6178;1.3248;
1211.7000;0.6089;1.3007;
1212.0000;0.6154;1.3128;
1212.3000;0.6170;1.3224;
1212.6000;0.6178;1.3345;
1212.9000;0.6178;1.3248;
1213.2000;0.6178;1.3200;
1213.5000;0.6235;1.3369;
1213.8000;0.6195;1.3273;
1214.1000;0.6186;1.3200;
1214.4000;0.6178;1.3152;
1214.7000;0.6186;1.3224;
1215.0000;0.6170;1.3200;
1215.3000;0.6170;1.3200;
1215.6000;0.6186;1.3176;
1215.9000;0.6178;1.3152;
1216.2000;0.6186;1.3224;
1216.5000;0.6195;1.3273;
1216.8000;0.6186;1.3248;
1217.1000;0.6186;1.3273;
1217.4000;0.6178;1.3152;
1217.7000;0.6178;1.3128;
1218.0000;0.6211;1.3176;
1218.3000;0.6146;1.3055;
1218.6000;0.6211;1.3200;
1218.9000;0.6195;1.3248;
1219.2000;0.6203;1.3200;
1219.5000;0.6186;1.3200;
1219.8000;0.6186;1.3224;
1220.1000;0.6203;1.3297;
1220.4000;0.6195;1.3393;
1220.7000;0.6186;1.3418;
1221.0000;0.6170;1.3418;
1221.3000;0.6186;1.3418;
1221.6000;0.6186;1.3393;
1221.9000;0.6154;1.3345;
1222.2000;0.6178;1.3393;
1222.5000;0.6178;1.3345;
1222.8000;0.6186;1.3369;
1223.1000;0.6146;1.3393;
1223.4000;0.6252;1.3611;
1223.7000;0.6162;1.3442;
1224.0000;0.6170;1.3587;
1224.3000;0.6178;1.3539;
1224.6000;0.6138;1.3369;
1224.9000;0.6178;1.3321;
1225.2000;0.6170;1.3248;
1225.5000;0.6162;1.3200;
1225.8000;0.6186;1.3248;
1226.1000;0.6170;1.3176;
1226.4000;0.6178;1.3248;
1226.7000;0.6186;1.3273;
1227.0000;0.6162;1.3176;
1227.3000;0.6121;1.3200;
1227.6000;0.6162;1.3345;
1227.9000;0.6162;1.3418;
1228.2000;0.6154;1.3345;
1228.5000;0.6170;1.3345;
1228.8000;0.6146;1.3224;
1229.1000;0.6162;1.3321;
1229.4000;0.6170;1.3345;
1229.7000;0.6154;1.3369;
1230.0000;0.6162;1.3418;
1230.3000;0.6162;1.3418;
1230.6000;0.6154;1.3345;
1230.9000;0.6186;1.3418;
1231.2000;0.6162;1.3297;
1231.5000;0.6170;1.3393;
1231.8000;0.6252;1.3490;
1232.1000;0.6154;1.3297;
1232.4000;0.6170;1.3393;
1232.7000;0.6178;1.3466;
1233.0000;0.6178;1.3539;
1233.3000;0.6178;1.3466;
1233.6000;0.6097;1.3321;
1233.9000;0.6170;1.3393;
1234.2000;0.6170;1.3418;
1234.5000;0.6162;1.3490;
1234.8000;0.6162;1.3418;
1235.1000;0.6162;1.3393;
1235.4000;0.6170;1.3442;
1235.7000;0.6162;1.3442;
1236.0000;0.6178;1.3466;
1236.3000;0.6162;1.3466;
1236.6000;0.6219;1.3539;
1236.9000;0.6195;1.3466;
1237.2000;0.6195;1.3539;
1237.5000;0.6154;1.3539;
1237.8000;0.6195;1.3490;
1238.1000;0.6203;1.3369;
1238.4000;0.6195;1.3393;
1238.7000;0.6195;1.3393;
1239.0000;0.6162;1.3297;
1239.3000;0.6154;1.3345;
1239.6000;0.6170;1.3442;
1239.9000;0.6203;1.3563;
1240.2000;0.6178;1.3466;
1240.5000;0.6195;1.3466;
1240.8000;0.6195;1.3466;
1241.1000;0.6195;1.3539;
1241.4000;0.6186;1.3466;
1241.7000;0.6186;1.3418;
1242.0000;0.6146;1.3345;
1242.3000;0.6129;1.3321;
1242.6000;0.6186;1.3345;
1242.9000;0.6235;1.3442;
1243.2000;0.6178;1.3273;
1243.5000;0.6243;1.3418;
1243.8000;0.6276;1.3466;
1244.1000;0.6235;1.3224;
1244.4000;0.6186;1.3079;
1244.7000;0.6129;1.3007;
1245.0000;0.6268;1.3345;
1245.3000;0.6097;1.2982;
1245.6000;0.6178;1.3103;
1245.9000;0.6154;1.3103;
1246.2000;0.6154;1.3152;
1246.5000;0.6146;1.3176;
1246.8000;0.6129;1.3248;
1247.1000;0.6186;1.3297;
1247.4000;0.6276;1.3393;
1247.7000;0.6154;1.3103;
1248.0000;0.6178;1.3079;
1248.3000;0.6170;1.3152;
1248.6000;0.6178;1.3176;
1248.9000;0.6170;1.3079;
1249.2000;0.6170;1.3103;
1249.5000;0.6154;1.3007;
1249.8000;0.6178;1.3055;
1250.1000;0.6121;1.3055;
1250.4000;0.6170;1.3176;
1250.7000;0.6170;1.3128;
1251.0000;0.6170;1.3152;
1251.3000;0.6235;1.3224;
1251.6000;0.6162;1.3031;
1251.9000;0.6195;1.2982;
1252.2000;0.6178;1.2982;
1252.5000;0.6178;1.2958;
1252.8000;0.6178;1.2886;
1253.1000;0.6178;1.2910;
1253.4000;0.6178;1.2910;
1253.7000;0.6178;1.2934;
1254.0000;0.6195;1.2837;
1254.3000;0.6170;1.2813;
1254.6000;0.6170;1.2886;
1254.9000;0.6170;1.2886;
1255.2000;0.6154;1.2934;
1255.5000;0.6178;1.3031;
1255.8000;0.6195;1.3224;
1256.1000;0.6195;1.3273;
1256.4000;0.6162;1.3152;
1256.7000;0.6178;1.3103;
1257.0000;0.6146;1.2982;
1257.3000;0.6170;1.2982;
1257.6000;0.6138;1.2910;
1257.9000;0.6162;1.2982;
1258.2000;0.6203;1.3103;
1258.5000;0.6146;1.3128;
1258.8000;0.6105;1.3128;
1259.1000;0.6146;1.3273;
1259.4000;0.6146;1.3297;
1259.7000;0.6178;1.3369;
1260.0000;0.6162;1.3393;
1260.3000;0.6170;1.3442;
1260.6000;0.6235;1.3514;
1260.9000;0.6170;1.3369;
1261.2000;0.6186;1.3369;
1261.5000;0.6146;1.3224;
1261.8000;0.6178;1.3273;
1262.1000;0.6186;1.3297;
1262.4000;0.6170;1.3248;
1262.7000;0.6162;1.3248;
1263.0000;0.6154;1.3176;
1263.3000;0.6195;1.3297;
1263.6000;0.6162;1.3297;
1263.9000;0.6186;1.3345;
1264.2000;0.6219;1.3393;
1264.5000;0.6154;1.3273;
1264.8000;0.6178;1.3369;
1265.1000;0.6203;1.3539;
1265.4000;0.6170;1.3490;
1265.7000;0.6154;1.3442;
1266.0000;0.6154;1.3490;
1266.3000;0.6154;1.3442;
1266.6000;0.6138;1.3369;
1266.9000;0.6105;1.3248;
1267.2000;0.6146;1.3248;
1267.5000;0.6170;1.3369;
1267.8000;0.6211;1.3490;
1268.1000;0.6138;1.3345;
1268.4000;0.6203;1.3442;
1268.7000;0.6162;1.3297;
1269.0000;0.6170;1.3297;
1269.3000;0.6081;1.3103;
1269.6000;0.6203;1.3345;
1269.9000;0.6170;1.3273;
1270.2000;0.6154;1.3369;
1270.5000;0.6162;1.3393;
1270.8000;0.6178;1.3418;
1271.1000;0.6170;1.3369;
1271.4000;0.6186;1.3442;
1271.7000;0.6178;1.3418;
1272.0000;0.6170;1.3321;
1272.3000;0.6219;1.3321;
1272.6000;0.6170;1.3321;
1272.9000;0.6154;1.3345;
1273.2000;0.6211;1.3418;
1273.5000;0.6162;1.3224;
1273.8000;0.6162;1.3224;
1274.1000;0.6178;1.3152;
1274.4000;0.6162;1.3176;
1274.7000;0.6162;1.3200;
1275.0000;0.6154;1.3273;
1275.3000;0.6146;1.3200;
1275.6000;0.6162;1.3152;
1275.9000;0.6146;1.3103;
1276.2000;0.6162;1.3103;
1276.5000;0.6170;1.3176;
1276.8000;0.6154;1.3200;
1277.1000;0.6170;1.3224;
1277.4000;0.6195;1.3321;
1277.7000;0.6162;1.3176;
1278.0000;0.6146;1.3176;
1278.3000;0.6146;1.3224;
1278.6000;0.6268;1.3442;
1278.9000;0.6121;1.3103;
1279.2000;0.6170;1.3152;
1279.5000;0.6186;1.3176;
1279.8000;0.6146;1.3224;
1280.1000;0.6162;1.3248;
1280.4000;0.6178;1.3297;
1280.7000;0.6162;1.3248;
1281.0000;0.6162;1.3248;
1281.3000;0.6186;1.3297;
1281.6000;0.6170;1.3321;
1281.9000;0.6138;1.3248;
1282.2000;0.6170;1.3393;
1282.5000;0.6178;1.3442;
1282.8000;0.6186;1.3345;
1283.1000;0.6178;1.3369;
1283.4000;0.6170;1.3345;
1283.7000;0.6138;1.3128;
1284.0000;0.6146;1.3055;
1284.3000;0.6170;1.3152;
1284.6000;0.6203;1.3248;
1284.9000;0.6129;1.3224;
1285.2000;0.6195;1.3369;
1285.5000;0.6162;1.3248;
1285.8000;0.6178;1.3224;
1286.1000;0.6170;1.3273;
1286.4000;0.6170;1.3321;
1286.7000;0.6146;1.3224;
1287.0000;0.6170;1.3297;
1287.3000;0.6146;1.3297;
1287.6000;0.6154;1.3273;
1287.9000;0.6170;1.3297;
1288.2000;0.6138;1.3224;
1288.5000;0.6195;1.3369;
1288.8000;0.6138;1.3345;
1289.1000;0.6162;1.3369;
1289.4000;0.6170;1.3393;
1289.7000;0.6162;1.3442;
1290.0000;0.6178;1.3369;
1290.3000;0.6219;1.3539;
1290.6000;0.6129;1.3321;
1290.9000;0.6154;1.3369;
1291.2000;0.6154;1.3442;
1291.5000;0.6162;1.3514;
1291.8000;0.6154;1.3514;
1292.1000;0.6154;1.3490;
1292.4000;0.6170;1.3563;
1292.7000;0.6178;1.3490;
1293.0000;0.6178;1.3466;
1293.3000;0.6170;1.3418;
1293.6000;0.6178;1.3442;
1293.9000;0.6162;1.3418;
1294.2000;0.6162;1.3345;
1294.5000;0.6186;1.3297;
1294.8000;0.6162;1.3321;
1295.1000;0.6203;1.3418;
1295.4000;0.6170;1.3442;
1295.7000;0.6162;1.3393;
1296.0000;0.6154;1.3393;
1296.3000;0.6170;1.3466;
1296.6000;0.6048;1.3152;
1296.9000;0.6170;1.3393;
1297.2000;0.6105;1.3224;
1297.5000;0.6186;1.3393;
1297.8000;0.6170;1.3393;
1298.1000;0.6203;1.3539;
1298.4000;0.6146;1.3393;
1298.7000;0.6162;1.3345;
1299.0000;0.6170;1.3297;
1299.3000;0.6154;1.3273;
1299.6000;0.6178;1.3297;
1299.9000;0.6162;1.3176;
1300.2000;0.6154;1.3176;
1300.5000;0.6146;1.3176;
1300.8000;0.6162;1.3248;
1301.1000;0.6162;1.3248;
1301.4000;0.6146;1.3200;
1301.7000;0.6170;1.3248;
1302.0000;0.6162;1.3248;
1302.3000;0.6195;1.3297;
1302.6000;0.6170;1.3345;
1302.9000;0.6195;1.3369;
1303.2000;0.6170;1.3297;
1303.5000;0.6186;1.3224;
1303.8000;0.6195;1.3321;
1304.1000;0.6129;1.3128;
1304.4000;0.6129;1.3176;
1304.7000;0.6162;1.3224;
1305.0000;0.6138;1.3176;
1305.3000;0.6097;1.3152;
1305.6000;0.6162;1.3321;
1305.9000;0.6105;1.3248;
1306.2000;0.6154;1.3248;
1306.5000;0.6219;1.3418;
1306.8000;0.6227;1.3466;
1307.1000;0.6138;1.3248;
1307.4000;0.6170;1.3297;
1307.7000;0.6162;1.3321;
1308.0000;0.6154;1.3345;
1308.3000;0.6170;1.3297;
1308.6000;0.6170;1.3345;
1308.9000;0.6146;1.3297;
1309.2000;0.6178;1.3418;
1309.5000;0.6138;1.3321;
1309.8000;0.6138;1.3273;
1310.1000;0.6129;1.3297;
1310.4000;0.6154;1.3393;
1310.7000;0.6162;1.3393;
1311.0000;0.6154;1.3273;
1311.3000;0.6170;1.3248;
1311.6000;0.6162;1.3321;
1311.9000;0.6170;1.3418;
1312.2000;0.6105;1.3297;
1312.5000;0.6162;1.3393;
1312.8000;0.6170;1.3442;
1313.1000;0.6186;1.3442;
1313.4000;0.6146;1.3297;
1313.7000;0.6162;1.3393;
1314.0000;0.6162;1.3418;
1314.3000;0.6170;1.3490;
1314.6000;0.6129;1.3442;
1314.9000;0.6138;1.3369;
1315.2000;0.6138;1.3345;
1315.5000;0.6170;1.3466;
1315.8000;0.6170;1.3393;
1316.1000;0.6146;1.3321;
1316.4000;0.6154;1.3273;
1316.7000;0.6154;1.3297;
1317.0000;0.6121;1.3345;
1317.3000;0.6138;1.3466;
1317.6000;0.6162;1.3466;
1317.9000;0.6138;1.3466;
1318.2000;0.6178;1.3514;
1318.5000;0.6121;1.3442;
1318.8000;0.6146;1.3563;
1319.1000;0.6146;1.3539;
1319.4000;0.6195;1.3563;
1319.7000;0.6170;1.3563;
1320.0000;0.6146;1.3466;
1320.3000;0.6129;1.3345;
1320.6000;0.6162;1.3442;
1320.9000;0.6154;1.3273;
1321.2000;0.6154;1.3273;
1321.5000;0.6154;1.3248;
1321.8000;0.6146;1.3297;
1322.1000;0.6178;1.3418;
1322.4000;0.6154;1.3393;
1322.7000;0.6146;1.3393;
1323.0000;0.6162;1.3393;
1323.3000;0.6162;1.3466;
1323.6000;0.6154;1.3369;
1323.9000;0.6162;1.3248;
1324.2000;0.6138;1.3128;
1324.5000;0.6154;1.3176;
1324.8000;0.6154;1.3200;
1325.1000;0.6170;1.3200;
1325.4000;0.6138;1.3152;
1325.7000;0.6203;1.3200;
1326.0000;0.6186;1.3200;
1326.3000;0.6138;1.3152;
1326.6000;0.6146;1.3176;
1326.9000;0.6211;1.3321;
1327.2000;0.6138;1.3248;
1327.5000;0.6146;1.3393;
1327.8000;0.6154;1.3514;
1328.1000;0.6121;1.3418;
1328.4000;0.6146;1.3418;
1328.7000;0.6113;1.3248;
1329.0000;0.6105;1.3200;
1329.3000;0.6154;1.3369;
1329.6000;0.6154;1.3418;
1329.9000;0.6129;1.3297;
1330.2000;0.6129;1.3393;
1330.5000;0.6081;1.3224;
1330.8000;0.6129;1.3321;
1331.1000;0.6146;1.3273;
1331.4000;0.6138;1.3273;
1331.7000;0.6154;1.3273;
1332.0000;0.6138;1.3321;
1332.3000;0.6154;1.3442;
1332.6000;0.6146;1.3514;
1332.9000;0.6154;1.3490;
1333.2000;0.6121;1.3369;
1333.5000;0.6146;1.3418;
1333.8000;0.6203;1.3635;
1334.1000;0.6121;1.3369;
1334.4000;0.6081;1.3297;
1334.7000;0.6162;1.3466;
1335.0000;0.6154;1.3466;
1335.3000;0.6138;1.3587;
1335.6000;0.6121;1.3563;
1335.9000;0.6138;1.3466;
1336.2000;0.6138;1.3490;
1336.5000;0.6138;1.3490;
1336.8000;0.6129;1.3490;
1337.1000;0.6170;1.3611;
1337.4000;0.6170;1.3708;
1337.7000;0.6162;1.3635;
1338.0000;0.6129;1.3514;
1338.3000;0.6056;1.3273;
1338.6000;0.6081;1.3321;
1338.9000;0.6146;1.3442;
1339.2000;0.6072;1.3273;
1339.5000;0.6138;1.3393;
1339.8000;0.6146;1.3369;
1340.1000;0.6138;1.3345;
1340.4000;0.6146;1.3369;
1340.7000;0.6170;1.3345;
1341.0000;0.6252;1.3539;
1341.3000;0.6105;1.3103;
1341.6000;0.6170;1.3200;
1341.9000;0.6162;1.3248;
1342.2000;0.6170;1.3224;
1342.5000;0.6170;1.3297;
1342.8000;0.6178;1.3369;
1343.1000;0.6154;1.3345;
1343.4000;0.6146;1.3248;
1343.7000;0.6170;1.3297;
1344.0000;0.6170;1.3345;
1344.3000;0.6154;1.3273;
1344.6000;0.6154;1.3393;
1344.9000;0.6170;1.3442;
1345.2000;0.6252;1.3659;
1345.5000;0.6154;1.3393;
1345.8000;0.6129;1.3273;
1346.1000;0.6138;1.3297;
1346.4000;0.6154;1.3442;
1346.7000;0.6146;1.3369;
1347.0000;0.6154;1.3393;
1347.3000;0.6162;1.3321;
1347.6000;0.6146;1.3297;
1347.9000;0.6121;1.3224;
1348.2000;0.6154;1.3369;
1348.5000;0.6154;1.3418;
1348.8000;0.6162;1.3418;
1349.1000;0.6162;1.3539;
1349.4000;0.6121;1.3418;
1349.7000;0.6081;1.3224;
1350.0000;0.6146;1.3418;
1350.3000;0.6162;1.3466;
1350.6000;0.6154;1.3466;
1350.9000;0.6146;1.3490;
1351.2000;0.6162;1.3490;
1351.5000;0.6146;1.3466;
1351.8000;0.6129;1.3466;
1352.1000;0.6178;1.3514;
1352.4000;0.6154;1.3418;
1352.7000;0.6162;1.3345;
1353.0000;0.6146;1.3224;
1353.3000;0.6138;1.3224;
1353.6000;0.6105;1.3152;
1353.9000;0.6276;1.3635;
1354.2000;0.6146;1.3297;
1354.5000;0.6146;1.3369;
1354.8000;0.6138;1.3345;
1355.1000;0.6170;1.3418;
1355.4000;0.6146;1.3369;
1355.7000;0.6146;1.3345;
1356.0000;0.6113;1.3273;
1356.3000;0.6154;1.3273;
1356.6000;0.6162;1.3248;
1356.9000;0.6146;1.3176;
1357.2000;0.6146;1.3224;
1357.5000;0.6162;1.3224;
1357.8000;0.6146;1.3248;
1358.1000;0.6113;1.3273;
1358.4000;0.6138;1.3345;
1358.7000;0.6154;1.3418;
1359.0000;0.6146;1.3321;
1359.3000;0.6162;1.3393;
1359.6000;0.6154;1.3393;
1359.9000;0.6138;1.3345;
1360.2000;0.6154;1.3345;
1360.5000;0.6154;1.3369;
1360.8000;0.6146;1.3345;
1361.1000;0.6154;1.3297;
1361.4000;0.6129;1.3176;
1361.7000;0.6162;1.3297;
1362.0000;0.6121;1.3248;
1362.3000;0.6227;1.3514;
1362.6000;0.6162;1.3393;
1362.9000;0.6162;1.3418;
1363.2000;0.6162;1.3321;
1363.5000;0.6146;1.3297;
1363.8000;0.6162;1.3248;
1364.1000;0.6146;1.3224;
1364.4000;0.6146;1.3224;
1364.7000;0.6113;1.3248;
1365.0000;0.6129;1.3321;
1365.3000;0.6121;1.3297;
1365.6000;0.6146;1.3321;
1365.9000;0.6146;1.3345;
1366.2000;0.6154;1.3345;
1366.5000;0.6162;1.3393;
1366.8000;0.6235;1.3490;
1367.1000;0.6121;1.3224;
1367.4000;0.6146;1.3200;
1367.7000;0.6121;1.3200;
1368.0000;0.6162;1.3321;
1368.3000;0.6154;1.3297;
1368.6000;0.6162;1.3297;
1368.9000;0.6138;1.3297;
1369.2000;0.6154;1.3248;
1369.5000;0.6178;1.3152;
1369.8000;0.6138;1.3103;
1370.1000;0.6146;1.3152;
1370.4000;0.6146;1.3152;
1370.7000;0.6178;1.3248;
1371.0000;0.6129;1.3200;
1371.3000;0.6113;1.3200;
1371.6000;0.6138;1.3297;
1371.9000;0.6138;1.3442;
1372.2000;0.6129;1.3539;
1372.5000;0.6138;1.3539;
1372.8000;0.6138;1.3563;
1373.1000;0.6170;1.3611;
1373.4000;0.6146;1.3539;
1373.7000;0.6154;1.3563;
1374.0000;0.6195;1.3635;
1374.3000;0.6138;1.3466;
1374.6000;0.6186;1.3539;
1374.9000;0.6081;1.3273;
1375.2000;0.6121;1.3345;
1375.5000;0.6146;1.3369;
1375.8000;0.6048;1.3103;
1376.1000;0.6129;1.3273;
1376.4000;0.6129;1.3297;
1376.7000;0.6178;1.3393;
1377.0000;0.6105;1.3200;
1377.3000;0.6105;1.3176;
1377.6000;0.6121;1.3248;
1377.9000;0.6138;1.3248;
1378.2000;0.6154;1.3297;
1378.5000;0.6146;1.3297;
1378.8000;0.6154;1.3393;
1379.1000;0.6154;1.3369;
1379.4000;0.6064;1.3176;
1379.7000;0.6146;1.3345;
1380.0000;0.6170;1.3466;
1380.3000;0.6129;1.3393;
1380.6000;0.6129;1.3393;
1380.9000;0.6138;1.3393;
1381.2000;0.6121;1.3345;
1381.5000;0.6138;1.3369;
1381.8000;0.6138;1.3418;
1382.1000;0.6097;1.3297;
1382.4000;0.6113;1.3321;
1382.7000;0.6138;1.3297;
1383.0000;0.6260;1.3611;
1383.3000;0.6121;1.3297;
1383.6000;0.6129;1.3345;
1383.9000;0.6154;1.3393;
1384.2000;0.6170;1.3418;
1384.5000;0.6146;1.3418;
1384.8000;0.6154;1.3418;
1385.1000;0.6138;1.3418;
1385.4000;0.6121;1.3418;
1385.7000;0.6154;1.3514;
1386.0000;0.6146;1.3466;
1386.3000;0.6105;1.3224;
1386.6000;0.6129;1.3273;
1386.9000;0.6154;1.3345;
1387.2000;0.6178;1.3393;
1387.5000;0.6186;1.3418;
1387.8000;0.6146;1.3273;
1388.1000;0.6138;1.3224;
1388.4000;0.6162;1.3248;
1388.7000;0.6211;1.3393;
1389.0000;0.6138;1.3176;
1389.3000;0.6203;1.3345;
1389.6000;0.6252;1.3442;
1389.9000;0.6146;1.3152;
1390.2000;0.6178;1.3224;
1390.5000;0.6138;1.3103;
1390.8000;0.6121;1.3128;
1391.1000;0.6138;1.3200;
1391.4000;0.6154;1.3200;
1391.7000;0.6138;1.3200;
1392.0000;0.6138;1.3224;
1392.3000;0.6146;1.3200;
1392.6000;0.6121;1.3128;
1392.9000;0.6138;1.3200;
1393.2000;0.6146;1.3297;
1393.5000;0.6146;1.3248;
1393.8000;0.6162;1.3321;
1394.1000;0.6138;1.3273;
1394.4000;0.6138;1.3273;
1394.7000;0.6154;1.3248;
1395.0000;0.6162;1.3224;
1395.3000;0.6162;1.3224;
1395.6000;0.6129;1.3224;
1395.9000;0.6138;1.3273;
1396.2000;0.6138;1.3297;
1396.5000;0.6146;1.3321;
1396.8000;0.6138;1.3297;
1397.1000;0.6146;1.3345;
1397.4000;0.6146;1.3345;
1397.7000;0.6146;1.3369;
1398.0000;0.6138;1.3321;
1398.3000;0.6154;1.3369;
1398.6000;0.6146;1.3321;
1398.9000;0.6121;1.3321;
1399.2000;0.6129;1.3321;
1399.5000;0.6129;1.3248;
1399.8000;0.6138;1.3248;
