time/ms;Fluo/V;P700 deltaI/I x10³;
-199.8000;0.0879;4.4088;
-199.5000;0.0887;4.4088;
-199.2000;0.0895;4.4039;
-198.9000;0.0928;4.4137;
-198.6000;0.0863;4.3892;
-198.3000;0.0887;4.3941;
-198.0000;0.0928;4.4015;
-197.7000;0.0993;4.4161;
-197.4000;0.0887;4.3868;
-197.1000;0.0969;4.4137;
-196.8000;0.0871;4.3843;
-196.5000;0.0871;4.3892;
-196.2000;0.0879;4.3990;
-195.9000;0.0895;4.4039;
-195.6000;0.0936;4.4112;
-195.3000;0.0822;4.3819;
-195.0000;0.0879;4.3966;
-194.7000;0.0871;4.3917;
-194.4000;0.0879;4.3941;
-194.1000;0.0944;4.4210;
-193.8000;0.0895;4.4161;
-193.5000;0.0863;4.4088;
-193.2000;0.0847;4.4112;
-192.9000;0.0879;4.4161;
-192.6000;0.0887;4.4112;
-192.3000;0.0952;4.4308;
-192.0000;0.0863;4.3966;
-191.7000;0.0887;4.4015;
-191.4000;0.0887;4.3966;
-191.1000;0.0838;4.3892;
-190.8000;0.0830;4.3819;
-190.5000;0.0944;4.4112;
-190.2000;0.0895;4.3990;
-189.9000;0.0912;4.3990;
-189.6000;0.0830;4.3721;
-189.3000;0.0904;4.3966;
-189.0000;0.0904;4.3892;
-188.7000;0.0879;4.3941;
-188.4000;0.0847;4.3843;
-188.1000;0.0895;4.3966;
-187.8000;0.0895;4.3990;
-187.5000;0.0871;4.3843;
-187.2000;0.0887;4.3917;
-186.9000;0.0887;4.3966;
-186.6000;0.0887;4.4015;
-186.3000;0.0895;4.3966;
-186.0000;0.0928;4.4064;
-185.7000;0.0879;4.3868;
-185.4000;0.0879;4.3868;
-185.1000;0.0887;4.3966;
-184.8000;0.0855;4.3892;
-184.5000;0.0863;4.3892;
-184.2000;0.0895;4.3966;
-183.9000;0.0920;4.4039;
-183.6000;0.0895;4.3868;
-183.3000;0.0928;4.4039;
-183.0000;0.0879;4.3892;
-182.7000;0.0887;4.3868;
-182.4000;0.0895;4.3795;
-182.1000;0.0863;4.3672;
-181.8000;0.0895;4.3843;
-181.5000;0.0887;4.3795;
-181.2000;0.0895;4.3746;
-180.9000;0.0871;4.3721;
-180.6000;0.0912;4.3746;
-180.3000;0.0912;4.3843;
-180.0000;0.0814;4.3574;
-179.7000;0.0895;4.3819;
-179.4000;0.0863;4.3721;
-179.1000;0.0879;4.3721;
-178.8000;0.0863;4.3746;
-178.5000;0.0887;4.3795;
-178.2000;0.0887;4.3795;
-177.9000;0.0887;4.3770;
-177.6000;0.0887;4.3770;
-177.3000;0.0863;4.3648;
-177.0000;0.0879;4.3672;
-176.7000;0.0895;4.3795;
-176.4000;0.0741;4.3354;
-176.1000;0.0863;4.3648;
-175.8000;0.0895;4.3746;
-175.5000;0.0887;4.3843;
-175.2000;0.0904;4.3868;
-174.9000;0.0863;4.3746;
-174.6000;0.0944;4.3990;
-174.3000;0.0838;4.3746;
-174.0000;0.0895;4.3892;
-173.7000;0.0879;4.3770;
-173.4000;0.0887;4.3721;
-173.1000;0.0879;4.3697;
-172.8000;0.0895;4.3721;
-172.5000;0.0871;4.3672;
-172.2000;0.0863;4.3672;
-171.9000;0.0887;4.3721;
-171.6000;0.0904;4.3746;
-171.3000;0.0895;4.3721;
-171.0000;0.0879;4.3721;
-170.7000;0.0855;4.3746;
-170.4000;0.0879;4.3868;
-170.1000;0.0920;4.3990;
-169.8000;0.0879;4.3990;
-169.5000;0.0879;4.3941;
-169.2000;0.0879;4.3966;
-168.9000;0.0863;4.3966;
-168.6000;0.0895;4.3990;
-168.3000;0.0879;4.3941;
-168.0000;0.0822;4.3746;
-167.7000;0.0887;4.3917;
-167.4000;0.0838;4.3721;
-167.1000;0.0944;4.4039;
-166.8000;0.0887;4.3917;
-166.5000;0.0798;4.3721;
-166.2000;0.1034;4.4357;
-165.9000;0.0887;4.4015;
-165.6000;0.0879;4.3966;
-165.3000;0.0920;4.4064;
-165.0000;0.0895;4.4039;
-164.7000;0.0871;4.3892;
-164.4000;0.0887;4.3892;
-164.1000;0.0822;4.3721;
-163.8000;0.0814;4.3574;
-163.5000;0.0904;4.3770;
-163.2000;0.0871;4.3623;
-162.9000;0.0871;4.3526;
-162.6000;0.0830;4.3330;
-162.3000;0.1018;4.3892;
-162.0000;0.0863;4.3452;
-161.7000;0.0969;4.3892;
-161.4000;0.0920;4.3795;
-161.1000;0.0806;4.3477;
-160.8000;0.0847;4.3672;
-160.5000;0.0887;4.3795;
-160.2000;0.0822;4.3599;
-159.9000;0.0977;4.3941;
-159.6000;0.0969;4.3941;
-159.3000;0.0871;4.3721;
-159.0000;0.0790;4.3403;
-158.7000;0.0855;4.3721;
-158.4000;0.0871;4.3721;
-158.1000;0.0838;4.3623;
-157.8000;0.0912;4.3966;
-157.5000;0.0822;4.3746;
-157.2000;0.0879;4.3868;
-156.9000;0.0871;4.3868;
-156.6000;0.0863;4.3843;
-156.3000;0.0895;4.3966;
-156.0000;0.0887;4.3868;
-155.7000;0.0904;4.3843;
-155.4000;0.0863;4.3721;
-155.1000;0.0871;4.3697;
-154.8000;0.0887;4.3697;
-154.5000;0.0855;4.3721;
-154.2000;0.0887;4.3868;
-153.9000;0.0904;4.3819;
-153.6000;0.0895;4.3795;
-153.3000;0.0822;4.3746;
-153.0000;0.0879;4.3941;
-152.7000;0.0912;4.4088;
-152.4000;0.0961;4.4284;
-152.1000;0.0863;4.4039;
-151.8000;0.0912;4.4259;
-151.5000;0.0871;4.4088;
-151.2000;0.0904;4.4161;
-150.9000;0.0920;4.4112;
-150.6000;0.0871;4.3966;
-150.3000;0.0879;4.3990;
-150.0000;0.0871;4.4015;
-149.7000;0.0904;4.4088;
-149.4000;0.0879;4.3966;
-149.1000;0.0895;4.4039;
-148.8000;0.0863;4.3892;
-148.5000;0.0887;4.4015;
-148.2000;0.0895;4.4088;
-147.9000;0.0912;4.4161;
-147.6000;0.0855;4.4064;
-147.3000;0.0895;4.4088;
-147.0000;0.0904;4.4112;
-146.7000;0.0912;4.4235;
-146.4000;0.0895;4.4137;
-146.1000;0.0863;4.3990;
-145.8000;0.0855;4.3966;
-145.5000;0.0895;4.3990;
-145.2000;0.0814;4.3819;
-144.9000;0.0895;4.3990;
-144.6000;0.0879;4.3966;
-144.3000;0.0741;4.3574;
-144.0000;0.0887;4.3941;
-143.7000;0.0904;4.3990;
-143.4000;0.0879;4.3941;
-143.1000;0.0977;4.4235;
-142.8000;0.0887;4.3966;
-142.5000;0.0879;4.3868;
-142.2000;0.0912;4.3843;
-141.9000;0.0863;4.3721;
-141.6000;0.0871;4.3746;
-141.3000;0.0912;4.3892;
-141.0000;0.0871;4.3819;
-140.7000;0.0961;4.4039;
-140.4000;0.0904;4.3917;
-140.1000;0.0887;4.3892;
-139.8000;0.0887;4.3819;
-139.5000;0.0895;4.3917;
-139.2000;0.0879;4.3746;
-138.9000;0.0904;4.3868;
-138.6000;0.0912;4.3966;
-138.3000;0.0879;4.3868;
-138.0000;0.0928;4.4112;
-137.7000;0.0961;4.4137;
-137.4000;0.0863;4.3892;
-137.1000;0.0798;4.3746;
-136.8000;0.0855;4.3843;
-136.5000;0.0871;4.3868;
-136.2000;0.0895;4.3966;
-135.9000;0.0887;4.3990;
-135.6000;0.0895;4.3941;
-135.3000;0.0871;4.3917;
-135.0000;0.0920;4.3941;
-134.7000;0.0879;4.3819;
-134.4000;0.0887;4.3795;
-134.1000;0.0863;4.3770;
-133.8000;0.0871;4.3795;
-133.5000;0.0920;4.3868;
-133.2000;0.0887;4.3819;
-132.9000;0.0863;4.3795;
-132.6000;0.0871;4.3770;
-132.3000;0.0863;4.3819;
-132.0000;0.0871;4.3843;
-131.7000;0.0904;4.3990;
-131.4000;0.0871;4.3941;
-131.1000;0.0879;4.4015;
-130.8000;0.0895;4.3990;
-130.5000;0.0822;4.3917;
-130.2000;0.0904;4.4137;
-129.9000;0.0863;4.3966;
-129.6000;0.0887;4.4015;
-129.3000;0.0879;4.4039;
-129.0000;0.0879;4.4112;
-128.7000;0.0863;4.4064;
-128.4000;0.0928;4.4210;
-128.1000;0.0920;4.4161;
-127.8000;0.0871;4.4088;
-127.5000;0.0871;4.3966;
-127.2000;0.0879;4.4088;
-126.9000;0.0895;4.4161;
-126.6000;0.0879;4.4284;
-126.3000;0.0838;4.4259;
-126.0000;0.0879;4.4406;
-125.7000;0.0952;4.4553;
-125.4000;0.0871;4.4308;
-125.1000;0.0855;4.4308;
-124.8000;0.0904;4.4455;
-124.5000;0.0904;4.4626;
-124.2000;0.1001;4.4846;
-123.9000;0.0863;4.4381;
-123.6000;0.0895;4.4357;
-123.3000;0.0863;4.4161;
-123.0000;0.0936;4.4308;
-122.7000;0.0904;4.4161;
-122.4000;0.0855;4.4064;
-122.1000;0.0895;4.4235;
-121.8000;0.0904;4.4210;
-121.5000;0.0887;4.4064;
-121.2000;0.0871;4.4064;
-120.9000;0.0863;4.4015;
-120.6000;0.0879;4.4137;
-120.3000;0.0969;4.4333;
-120.0000;0.0895;4.4210;
-119.7000;0.0879;4.4088;
-119.4000;0.0944;4.4381;
-119.1000;0.0944;4.4333;
-118.8000;0.0912;4.4235;
-118.5000;0.0879;4.4186;
-118.2000;0.0879;4.4235;
-117.9000;0.0863;4.4137;
-117.6000;0.0887;4.4088;
-117.3000;0.0847;4.4015;
-117.0000;0.0871;4.4137;
-116.7000;0.0887;4.4161;
-116.4000;0.0879;4.4088;
-116.1000;0.0912;4.4284;
-115.8000;0.0871;4.4088;
-115.5000;0.0879;4.4210;
-115.2000;0.0895;4.4235;
-114.9000;0.0887;4.4210;
-114.6000;0.0871;4.4186;
-114.3000;0.0887;4.4259;
-114.0000;0.0798;4.4039;
-113.7000;0.0863;4.4284;
-113.4000;0.0879;4.4308;
-113.1000;0.0798;4.4015;
-112.8000;0.0871;4.4284;
-112.5000;0.0855;4.4284;
-112.2000;0.0847;4.4210;
-111.9000;0.0887;4.4333;
-111.6000;0.0887;4.4455;
-111.3000;0.0887;4.4528;
-111.0000;0.0887;4.4504;
-110.7000;0.0830;4.4284;
-110.4000;0.0895;4.4504;
-110.1000;0.0887;4.4430;
-109.8000;0.0920;4.4406;
-109.5000;0.0855;4.4308;
-109.2000;0.0879;4.4430;
-108.9000;0.0879;4.4381;
-108.6000;0.0895;4.4479;
-108.3000;0.0904;4.4455;
-108.0000;0.0879;4.4381;
-107.7000;0.0904;4.4406;
-107.4000;0.0855;4.4333;
-107.1000;0.0879;4.4430;
-106.8000;0.0871;4.4406;
-106.5000;0.0912;4.4577;
-106.2000;0.0879;4.4357;
-105.9000;0.0904;4.4455;
-105.6000;0.0871;4.4284;
-105.3000;0.0879;4.4308;
-105.0000;0.0887;4.4259;
-104.7000;0.0887;4.4210;
-104.4000;0.0847;4.4112;
-104.1000;0.0879;4.4186;
-103.8000;0.0993;4.4577;
-103.5000;0.0798;4.4186;
-103.2000;0.0879;4.4381;
-102.9000;0.0912;4.4357;
-102.6000;0.0855;4.4259;
-102.3000;0.0838;4.4186;
-102.0000;0.0855;4.4259;
-101.7000;0.0895;4.4333;
-101.4000;0.0895;4.4357;
-101.1000;0.0895;4.4357;
-100.8000;0.0879;4.4308;
-100.5000;0.0887;4.4333;
-100.2000;0.0969;4.4577;
-99.9000;0.0855;4.4381;
-99.6000;0.0871;4.4455;
-99.3000;0.0895;4.4504;
-99.0000;0.0855;4.4381;
-98.7000;0.0871;4.4406;
-98.4000;0.0904;4.4381;
-98.1000;0.0887;4.4284;
-97.8000;0.0879;4.4186;
-97.5000;0.0871;4.4161;
-97.2000;0.0879;4.4259;
-96.9000;0.0895;4.4308;
-96.6000;0.0912;4.4357;
-96.3000;0.0895;4.4333;
-96.0000;0.0912;4.4479;
-95.7000;0.0887;4.4455;
-95.4000;0.0887;4.4479;
-95.1000;0.0838;4.4333;
-94.8000;0.0830;4.4284;
-94.5000;0.0757;4.4039;
-94.2000;0.0904;4.4455;
-93.9000;0.0895;4.4333;
-93.6000;0.0895;4.4333;
-93.3000;0.0879;4.4308;
-93.0000;0.0847;4.4186;
-92.7000;0.0887;4.4259;
-92.4000;0.0879;4.4137;
-92.1000;0.0944;4.4259;
-91.8000;0.0863;4.4259;
-91.5000;0.0871;4.4284;
-91.2000;0.0887;4.4284;
-90.9000;0.0887;4.4333;
-90.6000;0.0912;4.4455;
-90.3000;0.0912;4.4381;
-90.0000;0.0887;4.4259;
-89.7000;0.0879;4.4333;
-89.4000;0.0895;4.4381;
-89.1000;0.0895;4.4308;
-88.8000;0.0895;4.4308;
-88.5000;0.0879;4.4308;
-88.2000;0.0887;4.4308;
-87.9000;0.0895;4.4308;
-87.6000;0.0863;4.4186;
-87.3000;0.0806;4.4039;
-87.0000;0.0879;4.4284;
-86.7000;0.0920;4.4504;
-86.4000;0.0790;4.4137;
-86.1000;0.0879;4.4333;
-85.8000;0.0879;4.4210;
-85.5000;0.0733;4.3770;
-85.2000;0.0871;4.4112;
-84.9000;0.0814;4.3892;
-84.6000;0.0912;4.4137;
-84.3000;0.0920;4.4161;
-84.0000;0.0879;4.4064;
-83.7000;0.0879;4.4137;
-83.4000;0.0855;4.4088;
-83.1000;0.0879;4.4137;
-82.8000;0.0814;4.4015;
-82.5000;0.0895;4.4308;
-82.2000;0.0895;4.4308;
-81.9000;0.1001;4.4626;
-81.6000;0.0887;4.4333;
-81.3000;0.0904;4.4406;
-81.0000;0.0838;4.4235;
-80.7000;0.0904;4.4284;
-80.4000;0.0912;4.4333;
-80.1000;0.0863;4.4259;
-79.8000;0.0887;4.4333;
-79.5000;0.0904;4.4406;
-79.2000;0.0879;4.4357;
-78.9000;0.0912;4.4455;
-78.6000;0.0887;4.4357;
-78.3000;0.0879;4.4406;
-78.0000;0.0887;4.4430;
-77.7000;0.0895;4.4430;
-77.4000;0.0904;4.4406;
-77.1000;0.0944;4.4577;
-76.8000;0.0871;4.4284;
-76.5000;0.0895;4.4259;
-76.2000;0.0944;4.4430;
-75.9000;0.0936;4.4381;
-75.6000;0.0879;4.4235;
-75.3000;0.0879;4.4308;
-75.0000;0.0895;4.4308;
-74.7000;0.0887;4.4308;
-74.4000;0.0904;4.4430;
-74.1000;0.0887;4.4381;
-73.8000;0.0904;4.4430;
-73.5000;0.0838;4.4259;
-73.2000;0.0879;4.4284;
-72.9000;0.0887;4.4259;
-72.6000;0.0863;4.4308;
-72.3000;0.0855;4.4406;
-72.0000;0.0895;4.4528;
-71.7000;0.0887;4.4479;
-71.4000;0.0741;4.4039;
-71.1000;0.0765;4.4112;
-70.8000;0.0895;4.4455;
-70.5000;0.0863;4.4333;
-70.2000;0.0944;4.4626;
-69.9000;0.0863;4.4406;
-69.6000;0.0871;4.4430;
-69.3000;0.0871;4.4333;
-69.0000;0.0887;4.4308;
-68.7000;0.0887;4.4357;
-68.4000;0.0879;4.4357;
-68.1000;0.1026;4.4773;
-67.8000;0.0863;4.4259;
-67.5000;0.0952;4.4430;
-67.2000;0.0936;4.4479;
-66.9000;0.0895;4.4381;
-66.6000;0.0912;4.4455;
-66.3000;0.0944;4.4504;
-66.0000;0.0895;4.4406;
-65.7000;0.0871;4.4333;
-65.4000;0.0985;4.4675;
-65.1000;0.0871;4.4504;
-64.8000;0.0944;4.4675;
-64.5000;0.0822;4.4308;
-64.2000;0.0895;4.4504;
-63.9000;0.0895;4.4504;
-63.6000;0.0790;4.4112;
-63.3000;0.0814;4.4235;
-63.0000;0.0912;4.4479;
-62.7000;0.0895;4.4504;
-62.4000;0.0904;4.4455;
-62.1000;0.0879;4.4430;
-61.8000;0.0887;4.4284;
-61.5000;0.0855;4.4235;
-61.2000;0.0904;4.4406;
-60.9000;0.0895;4.4381;
-60.6000;0.0887;4.4308;
-60.3000;0.0895;4.4333;
-60.0000;0.0871;4.4284;
-59.7000;0.0871;4.4284;
-59.4000;0.0904;4.4259;
-59.1000;0.0904;4.4333;
-58.8000;0.0895;4.4381;
-58.5000;0.0904;4.4381;
-58.2000;0.0879;4.4210;
-57.9000;0.0879;4.4235;
-57.6000;0.0895;4.4186;
-57.3000;0.0879;4.4161;
-57.0000;0.0904;4.4259;
-56.7000;0.0863;4.4088;
-56.4000;0.0944;4.4333;
-56.1000;0.0871;4.4137;
-55.8000;0.0887;4.4235;
-55.5000;0.0838;4.4112;
-55.2000;0.0912;4.4259;
-54.9000;0.0895;4.4186;
-54.6000;0.0887;4.4161;
-54.3000;0.0936;4.4259;
-54.0000;0.0855;4.4137;
-53.7000;0.0895;4.4235;
-53.4000;0.0895;4.4235;
-53.1000;0.0871;4.4210;
-52.8000;0.0920;4.4381;
-52.5000;0.0765;4.3966;
-52.2000;0.0887;4.4284;
-51.9000;0.0879;4.4210;
-51.6000;0.0879;4.4284;
-51.3000;0.0920;4.4406;
-51.0000;0.0944;4.4528;
-50.7000;0.0806;4.4186;
-50.4000;0.0855;4.4235;
-50.1000;0.0879;4.4210;
-49.8000;0.0887;4.4235;
-49.5000;0.0993;4.4504;
-49.2000;0.0904;4.4210;
-48.9000;0.0871;4.4186;
-48.6000;0.0863;4.4235;
-48.3000;0.0879;4.4210;
-48.0000;0.0871;4.4186;
-47.7000;0.0863;4.4161;
-47.4000;0.0904;4.4357;
-47.1000;0.0871;4.4210;
-46.8000;0.0887;4.4210;
-46.5000;0.0887;4.4259;
-46.2000;0.0920;4.4284;
-45.9000;0.0904;4.4284;
-45.6000;0.0879;4.4259;
-45.3000;0.0895;4.4333;
-45.0000;0.0912;4.4381;
-44.7000;0.0928;4.4333;
-44.4000;0.0887;4.4259;
-44.1000;0.0879;4.4186;
-43.8000;0.0904;4.4284;
-43.5000;0.0855;4.4161;
-43.2000;0.0879;4.4210;
-42.9000;0.0887;4.4259;
-42.6000;0.0871;4.4259;
-42.3000;0.0952;4.4455;
-42.0000;0.0879;4.4235;
-41.7000;0.0871;4.4064;
-41.4000;0.0944;4.4357;
-41.1000;0.0887;4.4210;
-40.8000;0.1009;4.4577;
-40.5000;0.0847;4.4186;
-40.2000;0.0879;4.4161;
-39.9000;0.0879;4.4210;
-39.6000;0.0887;4.4161;
-39.3000;0.0887;4.4112;
-39.0000;0.0912;4.4235;
-38.7000;0.0895;4.4186;
-38.4000;0.0830;4.3966;
-38.1000;0.0871;4.4186;
-37.8000;0.0781;4.3917;
-37.5000;0.0887;4.4112;
-37.2000;0.0887;4.4039;
-36.9000;0.0904;4.4161;
-36.6000;0.0904;4.4161;
-36.3000;0.0822;4.3990;
-36.0000;0.0879;4.4186;
-35.7000;0.0855;4.4112;
-35.4000;0.0912;4.4235;
-35.1000;0.0936;4.4406;
-34.8000;0.0887;4.4333;
-34.5000;0.0895;4.4284;
-34.2000;0.0887;4.4259;
-33.9000;0.0887;4.4235;
-33.6000;0.0904;4.4308;
-33.3000;0.0895;4.4381;
-33.0000;0.0887;4.4406;
-32.7000;0.0887;4.4381;
-32.4000;0.0887;4.4284;
-32.1000;0.0855;4.4210;
-31.8000;0.0871;4.4186;
-31.5000;0.0871;4.4235;
-31.2000;0.0887;4.4259;
-30.9000;0.0887;4.4284;
-30.6000;0.0904;4.4284;
-30.3000;0.0863;4.4210;
-30.0000;0.0773;4.3941;
-29.7000;0.0838;4.4064;
-29.4000;0.0920;4.4357;
-29.1000;0.0847;4.4210;
-28.8000;0.0855;4.4088;
-28.5000;0.0887;4.4259;
-28.2000;0.0855;4.4161;
-27.9000;0.0879;4.4186;
-27.6000;0.0871;4.4186;
-27.3000;0.0863;4.4210;
-27.0000;0.0920;4.4333;
-26.7000;0.0912;4.4284;
-26.4000;0.0895;4.4235;
-26.1000;0.0879;4.4186;
-25.8000;0.0895;4.4137;
-25.5000;0.0895;4.4088;
-25.2000;0.0887;4.3941;
-24.9000;0.0887;4.3990;
-24.6000;0.0928;4.4186;
-24.3000;0.0912;4.4235;
-24.0000;0.0895;4.4137;
-23.7000;0.0895;4.4064;
-23.4000;0.0879;4.4015;
-23.1000;0.0879;4.4015;
-22.8000;0.0912;4.4186;
-22.5000;0.0895;4.4137;
-22.2000;0.0895;4.4235;
-21.9000;0.0895;4.4308;
-21.6000;0.0887;4.4259;
-21.3000;0.0887;4.4210;
-21.0000;0.0871;4.4137;
-20.7000;0.0871;4.4137;
-20.4000;0.0944;4.4284;
-20.1000;0.0863;4.4161;
-19.8000;0.0871;4.4210;
-19.5000;0.0798;4.3941;
-19.2000;0.0895;4.4259;
-18.9000;0.0814;4.4088;
-18.6000;0.0912;4.4284;
-18.3000;0.0912;4.4210;
-18.0000;0.0895;4.4137;
-17.7000;0.1009;4.4430;
-17.4000;0.0887;4.4137;
-17.1000;0.0920;4.4259;
-16.8000;0.0928;4.4235;
-16.5000;0.0904;4.4137;
-16.2000;0.0887;4.4064;
-15.9000;0.0895;4.4064;
-15.6000;0.0895;4.4064;
-15.3000;0.0887;4.4039;
-15.0000;0.0904;4.3990;
-14.7000;0.0895;4.4039;
-14.4000;0.0887;4.3941;
-14.1000;0.0887;4.4064;
-13.8000;0.0879;4.4015;
-13.5000;0.0952;4.4210;
-13.2000;0.0871;4.3868;
-12.9000;0.0879;4.3892;
-12.6000;0.0887;4.3941;
-12.3000;0.0887;4.3990;
-12.0000;0.0822;4.3795;
-11.7000;0.0879;4.3941;
-11.4000;0.0879;4.3917;
-11.1000;0.0904;4.4064;
-10.8000;0.0904;4.4064;
-10.5000;0.0920;4.4137;
-10.2000;0.0904;4.4112;
-9.9000;0.0871;4.4039;
-9.6000;0.0863;4.4015;
-9.3000;0.0904;4.4137;
-9.0000;0.0920;4.4308;
-8.7000;0.0830;4.4112;
-8.4000;0.0863;4.4210;
-8.1000;0.0847;4.4186;
-7.8000;0.1001;4.4553;
-7.5000;0.0895;4.4259;
-7.2000;0.0871;4.4235;
-6.9000;0.0879;4.4308;
-6.6000;0.0879;4.4284;
-6.3000;0.0912;4.4430;
-6.0000;0.0879;4.4357;
-5.7000;0.0879;4.4357;
-5.4000;0.0895;4.4333;
-5.1000;0.0952;4.4455;
-4.8000;0.0871;4.4186;
-4.5000;0.0895;4.4284;
-4.2000;0.0871;4.4284;
-3.9000;0.0904;4.4308;
-3.6000;0.0895;4.4161;
-3.3000;0.0895;4.4161;
-3.0000;0.0961;4.4381;
-2.7000;0.0879;4.4210;
-2.4000;0.0895;4.4235;
-2.1000;0.0887;4.4259;
-1.8000;0.0887;4.4259;
-1.5000;0.0879;4.4210;
-1.2000;0.0920;4.4235;
-0.9000;0.0887;4.4235;
-0.6000;0.0904;4.4333;
-0.3000;0.0904;4.4308;
0.0000;0.0904;4.4308;
0.3000;0.0847;4.4112;
0.6000;0.0887;4.4357;
0.9000;0.0944;4.4577;
1.2000;0.0961;4.4699;
1.5000;0.0936;4.4748;
1.8000;0.0961;4.4993;
2.1000;0.0961;4.5091;
2.4000;0.1001;4.5262;
2.7000;0.0977;4.5262;
3.0000;0.0969;4.5262;
3.3000;0.1001;4.5408;
3.6000;0.1026;4.5482;
3.9000;0.1018;4.5506;
4.2000;0.1026;4.5482;
4.5000;0.1001;4.5482;
4.8000;0.1026;4.5531;
5.1000;0.1042;4.5531;
5.4000;0.0904;4.5188;
5.7000;0.0985;4.5457;
6.0000;0.1018;4.5531;
6.3000;0.1001;4.5506;
6.6000;0.1058;4.5726;
6.9000;0.1050;4.5751;
7.2000;0.0985;4.5555;
7.5000;0.0961;4.5457;
7.8000;0.1034;4.5653;
8.1000;0.1018;4.5628;
8.4000;0.1034;4.5653;
8.7000;0.1050;4.5702;
9.0000;0.1026;4.5726;
9.3000;0.1034;4.5653;
9.6000;0.1066;4.5726;
9.9000;0.0969;4.5384;
10.2000;0.1018;4.5531;
10.5000;0.1009;4.5457;
10.8000;0.1026;4.5531;
11.1000;0.1050;4.5677;
11.4000;0.1042;4.5751;
11.7000;0.1123;4.5824;
12.0000;0.1026;4.5580;
12.3000;0.1034;4.5628;
12.6000;0.0961;4.5408;
12.9000;0.1026;4.5628;
13.2000;0.1026;4.5580;
13.5000;0.1042;4.5604;
13.8000;0.1034;4.5628;
14.1000;0.1066;4.5677;
14.4000;0.1050;4.5628;
14.7000;0.1042;4.5653;
15.0000;0.1026;4.5628;
15.3000;0.1042;4.5653;
15.6000;0.1050;4.5702;
15.9000;0.0969;4.5531;
16.2000;0.1050;4.5775;
16.5000;0.1018;4.5800;
16.8000;0.1042;4.5824;
17.1000;0.1034;4.5702;
17.4000;0.1099;4.5800;
17.7000;0.1066;4.5726;
18.0000;0.1026;4.5628;
18.3000;0.1156;4.6020;
18.6000;0.1050;4.5775;
18.9000;0.1042;4.5800;
19.2000;0.1026;4.5800;
19.5000;0.1050;4.5897;
19.8000;0.1058;4.6020;
20.1000;0.1026;4.5849;
20.4000;0.1034;4.5800;
20.7000;0.1009;4.5677;
21.0000;0.1058;4.5775;
21.3000;0.1058;4.5800;
21.6000;0.1066;4.5775;
21.9000;0.1034;4.5726;
22.2000;0.1066;4.5800;
22.5000;0.1042;4.5775;
22.8000;0.1034;4.5677;
23.1000;0.0895;4.5139;
23.4000;0.1042;4.5677;
23.7000;0.1050;4.5702;
24.0000;0.1001;4.5531;
24.3000;0.1066;4.5702;
24.6000;0.1066;4.5702;
24.9000;0.1066;4.5775;
25.2000;0.1066;4.5726;
25.5000;0.1091;4.5702;
25.8000;0.1034;4.5604;
26.1000;0.0961;4.5433;
26.4000;0.1074;4.5702;
26.7000;0.1026;4.5580;
27.0000;0.1042;4.5628;
27.3000;0.0993;4.5506;
27.6000;0.1074;4.5555;
27.9000;0.1042;4.5506;
28.2000;0.1050;4.5531;
28.5000;0.1050;4.5506;
28.8000;0.1058;4.5482;
29.1000;0.1058;4.5531;
29.4000;0.1123;4.5775;
29.7000;0.1042;4.5531;
30.0000;0.1042;4.5531;
30.3000;0.1034;4.5555;
30.6000;0.1034;4.5604;
30.9000;0.1050;4.5604;
31.2000;0.1026;4.5506;
31.5000;0.0985;4.5360;
31.8000;0.1050;4.5506;
32.1000;0.1042;4.5457;
32.4000;0.1091;4.5604;
32.7000;0.1074;4.5580;
33.0000;0.1050;4.5433;
33.3000;0.1034;4.5262;
33.6000;0.0985;4.5164;
33.9000;0.1058;4.5262;
34.2000;0.1058;4.5286;
34.5000;0.1042;4.5213;
34.8000;0.1042;4.5262;
35.1000;0.1058;4.5188;
35.4000;0.1058;4.5213;
35.7000;0.1123;4.5457;
36.0000;0.1042;4.5139;
36.3000;0.1058;4.5262;
36.6000;0.1050;4.5286;
36.9000;0.1172;4.5628;
37.2000;0.1001;4.5213;
37.5000;0.1066;4.5506;
37.8000;0.1107;4.5580;
38.1000;0.1026;4.5384;
38.4000;0.1074;4.5506;
38.7000;0.1058;4.5482;
39.0000;0.1058;4.5457;
39.3000;0.1066;4.5482;
39.6000;0.1066;4.5457;
39.9000;0.1058;4.5408;
40.2000;0.1050;4.5360;
40.5000;0.1050;4.5360;
40.8000;0.1058;4.5335;
41.1000;0.1074;4.5384;
41.4000;0.1066;4.5360;
41.7000;0.1050;4.5360;
42.0000;0.1083;4.5482;
42.3000;0.1026;4.5311;
42.6000;0.1066;4.5408;
42.9000;0.1058;4.5408;
43.2000;0.1083;4.5433;
43.5000;0.1042;4.5311;
43.8000;0.1050;4.5311;
44.1000;0.1058;4.5213;
44.4000;0.1066;4.5213;
44.7000;0.1148;4.5628;
45.0000;0.1107;4.5506;
45.3000;0.1058;4.5433;
45.6000;0.1058;4.5384;
45.9000;0.1066;4.5360;
46.2000;0.1074;4.5360;
46.5000;0.1066;4.5311;
46.8000;0.1066;4.5360;
47.1000;0.1123;4.5482;
47.4000;0.1058;4.5335;
47.7000;0.1091;4.5360;
48.0000;0.1083;4.5360;
48.3000;0.1074;4.5384;
48.6000;0.1066;4.5433;
48.9000;0.1058;4.5482;
49.2000;0.1074;4.5555;
49.5000;0.1074;4.5506;
49.8000;0.1066;4.5433;
50.1000;0.1066;4.5408;
50.4000;0.1050;4.5262;
50.7000;0.1066;4.5311;
51.0000;0.1074;4.5311;
51.3000;0.1042;4.5286;
51.6000;0.1009;4.5262;
51.9000;0.1058;4.5408;
52.2000;0.1001;4.5311;
52.5000;0.1058;4.5384;
52.8000;0.1042;4.5286;
53.1000;0.1066;4.5360;
53.4000;0.1066;4.5457;
53.7000;0.1034;4.5384;
54.0000;0.1050;4.5506;
54.3000;0.1058;4.5628;
54.6000;0.1074;4.5580;
54.9000;0.1066;4.5433;
55.2000;0.1058;4.5408;
55.5000;0.1107;4.5506;
55.8000;0.1083;4.5482;
56.1000;0.1058;4.5408;
56.4000;0.1042;4.5335;
56.7000;0.1066;4.5482;
57.0000;0.1066;4.5506;
57.3000;0.1074;4.5506;
57.6000;0.1058;4.5506;
57.9000;0.1074;4.5506;
58.2000;0.1083;4.5457;
58.5000;0.1083;4.5457;
58.8000;0.1083;4.5384;
59.1000;0.1083;4.5360;
59.4000;0.1091;4.5384;
59.7000;0.1074;4.5384;
60.0000;0.1074;4.5408;
60.3000;0.1058;4.5360;
60.6000;0.1107;4.5531;
60.9000;0.1058;4.5433;
61.2000;0.0985;4.5311;
61.5000;0.1050;4.5433;
61.8000;0.1058;4.5433;
62.1000;0.1066;4.5335;
62.4000;0.1066;4.5188;
62.7000;0.1058;4.5188;
63.0000;0.1050;4.5164;
63.3000;0.1001;4.5066;
63.6000;0.1099;4.5311;
63.9000;0.1066;4.5164;
64.2000;0.1074;4.5164;
64.5000;0.1058;4.5139;
64.8000;0.1091;4.5286;
65.1000;0.1058;4.5188;
65.4000;0.1074;4.5237;
65.7000;0.1058;4.5237;
66.0000;0.1083;4.5286;
66.3000;0.1066;4.5286;
66.6000;0.1034;4.5237;
66.9000;0.1074;4.5335;
67.2000;0.1074;4.5457;
67.5000;0.1083;4.5555;
67.8000;0.1083;4.5555;
68.1000;0.1058;4.5555;
68.4000;0.1074;4.5604;
68.7000;0.1083;4.5628;
69.0000;0.1058;4.5531;
69.3000;0.1066;4.5433;
69.6000;0.1091;4.5457;
69.9000;0.1083;4.5482;
70.2000;0.1074;4.5482;
70.5000;0.1074;4.5482;
70.8000;0.1074;4.5555;
71.1000;0.1091;4.5580;
71.4000;0.1058;4.5457;
71.7000;0.1058;4.5531;
72.0000;0.1066;4.5580;
72.3000;0.1066;4.5628;
72.6000;0.1107;4.5800;
72.9000;0.1058;4.5580;
73.2000;0.1074;4.5580;
73.5000;0.1083;4.5506;
73.8000;0.1066;4.5457;
74.1000;0.1058;4.5384;
74.4000;0.1066;4.5311;
74.7000;0.1026;4.5213;
75.0000;0.1050;4.5286;
75.3000;0.0993;4.5139;
75.6000;0.1074;4.5408;
75.9000;0.1099;4.5482;
76.2000;0.1091;4.5531;
76.5000;0.1074;4.5457;
76.8000;0.1091;4.5506;
77.1000;0.1074;4.5408;
77.4000;0.1074;4.5360;
77.7000;0.1050;4.5335;
78.0000;0.1074;4.5506;
78.3000;0.1074;4.5604;
78.6000;0.1197;4.5971;
78.9000;0.1018;4.5506;
79.2000;0.1083;4.5604;
79.5000;0.1074;4.5531;
79.8000;0.1074;4.5408;
80.1000;0.1083;4.5408;
80.4000;0.1099;4.5457;
80.7000;0.1131;4.5555;
81.0000;0.1091;4.5457;
81.3000;0.1074;4.5457;
81.6000;0.1074;4.5335;
81.9000;0.1042;4.5335;
82.2000;0.1197;4.5800;
82.5000;0.1066;4.5457;
82.8000;0.1058;4.5482;
83.1000;0.1091;4.5482;
83.4000;0.1074;4.5506;
83.7000;0.1091;4.5482;
84.0000;0.1074;4.5506;
84.3000;0.1026;4.5384;
84.6000;0.1050;4.5433;
84.9000;0.1026;4.5433;
85.2000;0.1074;4.5555;
85.5000;0.1066;4.5408;
85.8000;0.1042;4.5262;
86.1000;0.1074;4.5360;
86.4000;0.1066;4.5384;
86.7000;0.1229;4.5922;
87.0000;0.1050;4.5335;
87.3000;0.1083;4.5555;
87.6000;0.1115;4.5580;
87.9000;0.1018;4.5237;
88.2000;0.1074;4.5457;
88.5000;0.1074;4.5408;
88.8000;0.1066;4.5457;
89.1000;0.1148;4.5580;
89.4000;0.1026;4.5286;
89.7000;0.1058;4.5384;
90.0000;0.1066;4.5311;
90.3000;0.1066;4.5237;
90.6000;0.1083;4.5335;
90.9000;0.1066;4.5335;
91.2000;0.1074;4.5286;
91.5000;0.1074;4.5237;
91.8000;0.1091;4.5237;
92.1000;0.1058;4.5262;
92.4000;0.0944;4.4895;
92.7000;0.1091;4.5457;
93.0000;0.1066;4.5433;
93.3000;0.1074;4.5457;
93.6000;0.1074;4.5457;
93.9000;0.1107;4.5506;
94.2000;0.1083;4.5360;
94.5000;0.1066;4.5213;
94.8000;0.1074;4.5213;
95.1000;0.1001;4.4919;
95.4000;0.1083;4.5091;
95.7000;0.1042;4.5066;
96.0000;0.1083;4.5164;
96.3000;0.1148;4.5433;
96.6000;0.1083;4.5286;
96.9000;0.1083;4.5335;
97.2000;0.1066;4.5384;
97.5000;0.1058;4.5457;
97.8000;0.1058;4.5506;
98.1000;0.1091;4.5580;
98.4000;0.1091;4.5555;
98.7000;0.1050;4.5335;
99.0000;0.1058;4.5408;
99.3000;0.1074;4.5506;
99.6000;0.1091;4.5531;
99.9000;0.1083;4.5506;
100.2000;0.1074;4.5433;
100.5000;0.1066;4.5457;
100.8000;0.1058;4.5408;
101.1000;0.1074;4.5384;
101.4000;0.1099;4.5457;
101.7000;0.1091;4.5482;
102.0000;0.1115;4.5677;
102.3000;0.1074;4.5531;
102.6000;0.1229;4.5946;
102.9000;0.1050;4.5311;
103.2000;0.1058;4.5408;
103.5000;0.1115;4.5580;
103.8000;0.1091;4.5531;
104.1000;0.1074;4.5506;
104.4000;0.1091;4.5555;
104.7000;0.1001;4.5286;
105.0000;0.1083;4.5628;
105.3000;0.1099;4.5653;
105.6000;0.1034;4.5433;
105.9000;0.1099;4.5506;
106.2000;0.1066;4.5408;
106.5000;0.1058;4.5408;
106.8000;0.1066;4.5531;
107.1000;0.1001;4.5335;
107.4000;0.1083;4.5506;
107.7000;0.1091;4.5457;
108.0000;0.1066;4.5286;
108.3000;0.1083;4.5286;
108.6000;0.1058;4.5188;
108.9000;0.1083;4.5188;
109.2000;0.1091;4.5237;
109.5000;0.1074;4.5262;
109.8000;0.1107;4.5335;
110.1000;0.1074;4.5311;
110.4000;0.1107;4.5384;
110.7000;0.1074;4.5311;
111.0000;0.0969;4.5164;
111.3000;0.1066;4.5457;
111.6000;0.1034;4.5433;
111.9000;0.1091;4.5653;
112.2000;0.1091;4.5531;
112.5000;0.1083;4.5457;
112.8000;0.1091;4.5482;
113.1000;0.1091;4.5457;
113.4000;0.1074;4.5384;
113.7000;0.1074;4.5360;
114.0000;0.1058;4.5384;
114.3000;0.1107;4.5482;
114.6000;0.1083;4.5457;
114.9000;0.1050;4.5408;
115.2000;0.1083;4.5408;
115.5000;0.1074;4.5360;
115.8000;0.1074;4.5311;
116.1000;0.1066;4.5408;
116.4000;0.1123;4.5580;
116.7000;0.1058;4.5360;
117.0000;0.1083;4.5311;
117.3000;0.1074;4.5286;
117.6000;0.1074;4.5311;
117.9000;0.1074;4.5335;
118.2000;0.1083;4.5335;
118.5000;0.1074;4.5286;
118.8000;0.1050;4.5164;
119.1000;0.1099;4.5262;
119.4000;0.1083;4.5237;
119.7000;0.1066;4.5188;
120.0000;0.1131;4.5360;
120.3000;0.1091;4.5188;
120.6000;0.1164;4.5384;
120.9000;0.1091;4.5311;
121.2000;0.1074;4.5311;
121.5000;0.1083;4.5286;
121.8000;0.1091;4.5335;
122.1000;0.1066;4.5262;
122.4000;0.1042;4.5262;
122.7000;0.1107;4.5457;
123.0000;0.1074;4.5360;
123.3000;0.1083;4.5335;
123.6000;0.1066;4.5335;
123.9000;0.1034;4.5311;
124.2000;0.1099;4.5408;
124.5000;0.1091;4.5360;
124.8000;0.1066;4.5286;
125.1000;0.1074;4.5311;
125.4000;0.1131;4.5457;
125.7000;0.1123;4.5286;
126.0000;0.1050;4.5091;
126.3000;0.1074;4.5139;
126.6000;0.1083;4.5188;
126.9000;0.1074;4.5311;
127.2000;0.1091;4.5311;
127.5000;0.1009;4.5066;
127.8000;0.1180;4.5457;
128.1000;0.1083;4.5139;
128.4000;0.1074;4.4968;
128.7000;0.1083;4.4919;
129.0000;0.1050;4.4870;
129.3000;0.1107;4.5042;
129.6000;0.1083;4.5017;
129.9000;0.1074;4.5017;
130.2000;0.1074;4.4993;
130.5000;0.1083;4.5017;
130.8000;0.1066;4.5017;
131.1000;0.1156;4.5286;
131.4000;0.1074;4.5091;
131.7000;0.1050;4.5066;
132.0000;0.1083;4.5139;
132.3000;0.1091;4.5213;
132.6000;0.1091;4.5262;
132.9000;0.1180;4.5580;
133.2000;0.1066;4.5262;
133.5000;0.1074;4.5286;
133.8000;0.1074;4.5360;
134.1000;0.1083;4.5457;
134.4000;0.1156;4.5628;
134.7000;0.1107;4.5433;
135.0000;0.1083;4.5360;
135.3000;0.1074;4.5408;
135.6000;0.1099;4.5482;
135.9000;0.1091;4.5408;
136.2000;0.1083;4.5335;
136.5000;0.1066;4.5262;
136.8000;0.1074;4.5286;
137.1000;0.1074;4.5335;
137.4000;0.0961;4.5017;
137.7000;0.1066;4.5286;
138.0000;0.1107;4.5482;
138.3000;0.1099;4.5408;
138.6000;0.1140;4.5457;
138.9000;0.1042;4.5213;
139.2000;0.1099;4.5360;
139.5000;0.1074;4.5335;
139.8000;0.1091;4.5335;
140.1000;0.1123;4.5433;
140.4000;0.1099;4.5335;
140.7000;0.1074;4.5311;
141.0000;0.1074;4.5360;
141.3000;0.1066;4.5311;
141.6000;0.1058;4.5262;
141.9000;0.1050;4.5262;
142.2000;0.1083;4.5311;
142.5000;0.1099;4.5311;
142.8000;0.1066;4.5286;
143.1000;0.1099;4.5311;
143.4000;0.1074;4.5213;
143.7000;0.1083;4.5213;
144.0000;0.1042;4.5115;
144.3000;0.1083;4.5262;
144.6000;0.1026;4.5164;
144.9000;0.1074;4.5237;
145.2000;0.1083;4.5188;
145.5000;0.1066;4.5091;
145.8000;0.1066;4.5017;
146.1000;0.1156;4.5335;
146.4000;0.1074;4.5091;
146.7000;0.1066;4.5017;
147.0000;0.1042;4.5017;
147.3000;0.1083;4.5042;
147.6000;0.1018;4.4895;
147.9000;0.1099;4.5091;
148.2000;0.1074;4.5042;
148.5000;0.1091;4.5066;
148.8000;0.1099;4.5042;
149.1000;0.1099;4.5115;
149.4000;0.1074;4.5115;
149.7000;0.1099;4.5091;
150.0000;0.1066;4.5066;
150.3000;0.1083;4.5066;
150.6000;0.1058;4.5042;
150.9000;0.1091;4.5188;
151.2000;0.1074;4.5042;
151.5000;0.1099;4.5017;
151.8000;0.1140;4.5115;
152.1000;0.1107;4.5066;
152.4000;0.1066;4.5017;
152.7000;0.1131;4.5115;
153.0000;0.1074;4.4993;
153.3000;0.1091;4.5017;
153.6000;0.1115;4.5091;
153.9000;0.1091;4.5091;
154.2000;0.1074;4.4968;
154.5000;0.1083;4.4944;
154.8000;0.1074;4.4993;
155.1000;0.1083;4.4919;
155.4000;0.1074;4.4968;
155.7000;0.1107;4.5066;
156.0000;0.1107;4.5091;
156.3000;0.1083;4.5017;
156.6000;0.1083;4.5042;
156.9000;0.1009;4.4870;
157.2000;0.1026;4.5042;
157.5000;0.1074;4.5262;
157.8000;0.1058;4.5286;
158.1000;0.1050;4.5311;
158.4000;0.1050;4.5286;
158.7000;0.1091;4.5408;
159.0000;0.1197;4.5628;
159.3000;0.1034;4.5188;
159.6000;0.1066;4.5139;
159.9000;0.1058;4.5115;
160.2000;0.1107;4.5262;
160.5000;0.1083;4.5188;
160.8000;0.1123;4.5262;
161.1000;0.1099;4.5164;
161.4000;0.1091;4.5237;
161.7000;0.1074;4.5188;
162.0000;0.1042;4.5115;
162.3000;0.1083;4.5213;
162.6000;0.1066;4.5164;
162.9000;0.1074;4.5237;
163.2000;0.1083;4.5237;
163.5000;0.1074;4.5262;
163.8000;0.1099;4.5408;
164.1000;0.1107;4.5360;
164.4000;0.1099;4.5335;
164.7000;0.1058;4.5213;
165.0000;0.1074;4.5213;
165.3000;0.1074;4.5286;
165.6000;0.1083;4.5262;
165.9000;0.1050;4.5164;
166.2000;0.1066;4.5188;
166.5000;0.1066;4.5139;
166.8000;0.1091;4.5213;
167.1000;0.1026;4.4993;
167.4000;0.1107;4.5311;
167.7000;0.1091;4.5262;
168.0000;0.1074;4.5311;
168.3000;0.1083;4.5311;
168.6000;0.1123;4.5433;
168.9000;0.1091;4.5384;
169.2000;0.1115;4.5335;
169.5000;0.1083;4.5237;
169.8000;0.1091;4.5311;
170.1000;0.1066;4.5188;
170.4000;0.1091;4.5237;
170.7000;0.1066;4.5213;
171.0000;0.1066;4.5237;
171.3000;0.1107;4.5286;
171.6000;0.1091;4.5164;
171.9000;0.0969;4.4822;
172.2000;0.1083;4.5139;
172.5000;0.1074;4.5066;
172.8000;0.1115;4.5042;
173.1000;0.1083;4.4968;
173.4000;0.1083;4.4968;
173.7000;0.1066;4.4919;
174.0000;0.1074;4.4993;
174.3000;0.1083;4.5091;
174.6000;0.1083;4.5188;
174.9000;0.1074;4.5115;
175.2000;0.1074;4.5139;
175.5000;0.1099;4.5164;
175.8000;0.1058;4.5188;
176.1000;0.1034;4.5066;
176.4000;0.1066;4.5139;
176.7000;0.1107;4.5311;
177.0000;0.1083;4.5262;
177.3000;0.1066;4.5286;
177.6000;0.1083;4.5286;
177.9000;0.1074;4.5311;
178.2000;0.1074;4.5384;
178.5000;0.1091;4.5531;
178.8000;0.1172;4.5677;
179.1000;0.1083;4.5555;
179.4000;0.1091;4.5580;
179.7000;0.1034;4.5335;
180.0000;0.1131;4.5677;
180.3000;0.1066;4.5506;
180.6000;0.1099;4.5628;
180.9000;0.1074;4.5555;
181.2000;0.1050;4.5457;
181.5000;0.1074;4.5433;
181.8000;0.0993;4.5164;
182.1000;0.1066;4.5335;
182.4000;0.1091;4.5384;
182.7000;0.1050;4.5237;
183.0000;0.1083;4.5384;
183.3000;0.1066;4.5408;
183.6000;0.1074;4.5360;
183.9000;0.1083;4.5335;
184.2000;0.1091;4.5286;
184.5000;0.1083;4.5237;
184.8000;0.1107;4.5311;
185.1000;0.1083;4.5188;
185.4000;0.1099;4.5286;
185.7000;0.1042;4.5164;
186.0000;0.1074;4.5164;
186.3000;0.1058;4.5188;
186.6000;0.1083;4.5213;
186.9000;0.1083;4.5188;
187.2000;0.1099;4.5286;
187.5000;0.1099;4.5286;
187.8000;0.1091;4.5311;
188.1000;0.1099;4.5286;
188.4000;0.1083;4.5286;
188.7000;0.1091;4.5262;
189.0000;0.1099;4.5384;
189.3000;0.1058;4.5237;
189.6000;0.1099;4.5286;
189.9000;0.1050;4.5115;
190.2000;0.1026;4.5066;
190.5000;0.1083;4.5237;
190.8000;0.1083;4.5139;
191.1000;0.1123;4.5237;
191.4000;0.1066;4.5042;
191.7000;0.1058;4.5066;
192.0000;0.1066;4.5115;
192.3000;0.1083;4.5115;
192.6000;0.1074;4.5091;
192.9000;0.1066;4.5091;
193.2000;0.1091;4.5213;
193.5000;0.1083;4.5115;
193.8000;0.1066;4.5139;
194.1000;0.1164;4.5360;
194.4000;0.1091;4.4968;
194.7000;0.1074;4.4895;
195.0000;0.1058;4.4846;
195.3000;0.1074;4.4944;
195.6000;0.1172;4.5286;
195.9000;0.1026;4.4993;
196.2000;0.1148;4.5262;
196.5000;0.1074;4.5115;
196.8000;0.1083;4.5115;
197.1000;0.1091;4.5188;
197.4000;0.1074;4.5213;
197.7000;0.1115;4.5335;
198.0000;0.1074;4.5213;
198.3000;0.1083;4.5237;
198.6000;0.1066;4.5286;
198.9000;0.1026;4.5286;
199.2000;0.1074;4.5384;
199.5000;0.1091;4.5433;
199.8000;0.1091;4.5360;
200.1000;0.1066;4.5262;
200.4000;0.1099;4.5335;
200.7000;0.1197;4.5555;
201.0000;0.1058;4.5139;
201.3000;0.1091;4.5262;
201.6000;0.1050;4.5262;
201.9000;0.1099;4.5335;
202.2000;0.1074;4.5433;
202.5000;0.1156;4.5677;
202.8000;0.1140;4.5555;
203.1000;0.1115;4.5360;
203.4000;0.1083;4.5384;
203.7000;0.1083;4.5457;
204.0000;0.1140;4.5677;
204.3000;0.1180;4.5800;
204.6000;0.1050;4.5384;
204.9000;0.1083;4.5433;
205.2000;0.1091;4.5457;
205.5000;0.1083;4.5384;
205.8000;0.1009;4.5091;
206.1000;0.1074;4.5384;
206.4000;0.1066;4.5311;
206.7000;0.1091;4.5457;
207.0000;0.1115;4.5482;
207.3000;0.1042;4.5188;
207.6000;0.1099;4.5286;
207.9000;0.1083;4.5237;
208.2000;0.1074;4.5213;
208.5000;0.1083;4.5286;
208.8000;0.1050;4.5164;
209.1000;0.1066;4.5286;
209.4000;0.1066;4.5262;
209.7000;0.1091;4.5384;
210.0000;0.1091;4.5311;
210.3000;0.1099;4.5237;
210.6000;0.1083;4.5286;
210.9000;0.1083;4.5262;
211.2000;0.1083;4.5213;
211.5000;0.1091;4.5139;
211.8000;0.1074;4.5066;
212.1000;0.1074;4.5262;
212.4000;0.1042;4.5164;
212.7000;0.1091;4.5311;
213.0000;0.1099;4.5408;
213.3000;0.1074;4.5360;
213.6000;0.1107;4.5408;
213.9000;0.1074;4.5262;
214.2000;0.1026;4.5139;
214.5000;0.1180;4.5555;
214.8000;0.1058;4.5213;
215.1000;0.1074;4.5335;
215.4000;0.1050;4.5262;
215.7000;0.1099;4.5408;
216.0000;0.1115;4.5433;
216.3000;0.1058;4.5262;
216.6000;0.1050;4.5237;
216.9000;0.1083;4.5262;
217.2000;0.1009;4.5066;
217.5000;0.1058;4.5213;
217.8000;0.1034;4.5139;
218.1000;0.1091;4.5262;
218.4000;0.0952;4.4968;
218.7000;0.1148;4.5604;
219.0000;0.1074;4.5408;
219.3000;0.1066;4.5286;
219.6000;0.1026;4.5139;
219.9000;0.1001;4.5042;
220.2000;0.1058;4.5188;
220.5000;0.1042;4.5237;
220.8000;0.1066;4.5311;
221.1000;0.1091;4.5457;
221.4000;0.1066;4.5360;
221.7000;0.1042;4.5262;
222.0000;0.1066;4.5360;
222.3000;0.1074;4.5384;
222.6000;0.1083;4.5384;
222.9000;0.1058;4.5360;
223.2000;0.1009;4.5237;
223.5000;0.1083;4.5457;
223.8000;0.1115;4.5506;
224.1000;0.1074;4.5408;
224.4000;0.1091;4.5506;
224.7000;0.1066;4.5433;
225.0000;0.1083;4.5408;
225.3000;0.1074;4.5335;
225.6000;0.1099;4.5360;
225.9000;0.1083;4.5335;
226.2000;0.1050;4.5335;
226.5000;0.1083;4.5384;
226.8000;0.1066;4.5335;
227.1000;0.1074;4.5262;
227.4000;0.1091;4.5286;
227.7000;0.1083;4.5286;
228.0000;0.1066;4.5237;
228.3000;0.1074;4.5213;
228.6000;0.1091;4.5237;
228.9000;0.1074;4.5164;
229.2000;0.1074;4.5213;
229.5000;0.1180;4.5506;
229.8000;0.1066;4.5115;
230.1000;0.1066;4.4944;
230.4000;0.1066;4.4993;
230.7000;0.1050;4.4968;
231.0000;0.1066;4.4993;
231.3000;0.1074;4.4968;
231.6000;0.1066;4.4993;
231.9000;0.1083;4.5066;
232.2000;0.1083;4.5139;
232.5000;0.1018;4.4968;
232.8000;0.1083;4.5115;
233.1000;0.1091;4.5213;
233.4000;0.1050;4.5139;
233.7000;0.1083;4.5139;
234.0000;0.1099;4.5164;
234.3000;0.1074;4.5091;
234.6000;0.1083;4.5188;
234.9000;0.1083;4.5213;
235.2000;0.1074;4.5115;
235.5000;0.1091;4.5164;
235.8000;0.1066;4.5115;
236.1000;0.1123;4.5286;
236.4000;0.1074;4.5188;
236.7000;0.1066;4.5164;
237.0000;0.1074;4.5115;
237.3000;0.1083;4.5115;
237.6000;0.1074;4.5066;
237.9000;0.1091;4.5091;
238.2000;0.1074;4.5066;
238.5000;0.1042;4.5042;
238.8000;0.1074;4.5042;
239.1000;0.1091;4.5091;
239.4000;0.1026;4.5017;
239.7000;0.1050;4.5213;
240.0000;0.0969;4.4968;
240.3000;0.1091;4.5237;
240.6000;0.1058;4.5262;
240.9000;0.1074;4.5360;
241.2000;0.1066;4.5335;
241.5000;0.1009;4.5188;
241.8000;0.1099;4.5408;
242.1000;0.1026;4.5311;
242.4000;0.1050;4.5335;
242.7000;0.1083;4.5408;
243.0000;0.1107;4.5433;
243.3000;0.1091;4.5457;
243.6000;0.1164;4.5677;
243.9000;0.1074;4.5335;
244.2000;0.0961;4.4993;
244.5000;0.1091;4.5335;
244.8000;0.1050;4.5213;
245.1000;0.1083;4.5262;
245.4000;0.1091;4.5311;
245.7000;0.1058;4.5262;
246.0000;0.1083;4.5286;
246.3000;0.1083;4.5213;
246.6000;0.1083;4.5311;
246.9000;0.1091;4.5335;
247.2000;0.1083;4.5335;
247.5000;0.1107;4.5384;
247.8000;0.1074;4.5286;
248.1000;0.1172;4.5531;
248.4000;0.1083;4.5262;
248.7000;0.1074;4.5188;
249.0000;0.1066;4.5286;
249.3000;0.1066;4.5262;
249.6000;0.1050;4.5311;
249.9000;0.1099;4.5433;
250.2000;0.1083;4.5360;
250.5000;0.1115;4.5408;
250.8000;0.1066;4.5188;
251.1000;0.1074;4.5188;
251.4000;0.1083;4.5213;
251.7000;0.1042;4.5091;
252.0000;0.1026;4.5042;
252.3000;0.1066;4.5262;
252.6000;0.1026;4.5237;
252.9000;0.1050;4.5188;
253.2000;0.1066;4.5262;
253.5000;0.0993;4.5115;
253.8000;0.1083;4.5384;
254.1000;0.1099;4.5482;
254.4000;0.1066;4.5335;
254.7000;0.1091;4.5457;
255.0000;0.1123;4.5580;
255.3000;0.1091;4.5457;
255.6000;0.1074;4.5482;
255.9000;0.1074;4.5555;
256.2000;0.1091;4.5506;
256.5000;0.1107;4.5531;
256.8000;0.1066;4.5408;
257.1000;0.1066;4.5433;
257.4000;0.1066;4.5311;
257.7000;0.1083;4.5335;
258.0000;0.1058;4.5311;
258.3000;0.1083;4.5335;
258.6000;0.1074;4.5433;
258.9000;0.1099;4.5311;
259.2000;0.1099;4.5311;
259.5000;0.1083;4.5164;
259.8000;0.1083;4.5164;
260.1000;0.1131;4.5286;
260.4000;0.1107;4.5262;
260.7000;0.1066;4.5164;
261.0000;0.1083;4.5262;
261.3000;0.1026;4.5042;
261.6000;0.1050;4.5237;
261.9000;0.1091;4.5286;
262.2000;0.1083;4.5311;
262.5000;0.1140;4.5555;
262.8000;0.1066;4.5360;
263.1000;0.0936;4.4993;
263.4000;0.0993;4.5139;
263.7000;0.1091;4.5457;
264.0000;0.1107;4.5408;
264.3000;0.1091;4.5360;
264.6000;0.1001;4.5286;
264.9000;0.1083;4.5482;
265.2000;0.1066;4.5360;
265.5000;0.1099;4.5457;
265.8000;0.1074;4.5408;
266.1000;0.1066;4.5384;
266.4000;0.1083;4.5408;
266.7000;0.1140;4.5628;
267.0000;0.1018;4.5311;
267.3000;0.1074;4.5580;
267.6000;0.1107;4.5580;
267.9000;0.1083;4.5384;
268.2000;0.1091;4.5384;
268.5000;0.1091;4.5433;
268.8000;0.1091;4.5384;
269.1000;0.1066;4.5262;
269.4000;0.1074;4.5408;
269.7000;0.1058;4.5360;
270.0000;0.1066;4.5335;
270.3000;0.1091;4.5408;
270.6000;0.1083;4.5482;
270.9000;0.1042;4.5408;
271.2000;0.1091;4.5506;
271.5000;0.1099;4.5506;
271.8000;0.1042;4.5237;
272.1000;0.1083;4.5237;
272.4000;0.1066;4.5164;
272.7000;0.1083;4.5262;
273.0000;0.1099;4.5335;
273.3000;0.1074;4.5286;
273.6000;0.1245;4.5726;
273.9000;0.1083;4.5286;
274.2000;0.1107;4.5360;
274.5000;0.1083;4.5360;
274.8000;0.1009;4.5164;
275.1000;0.1099;4.5384;
275.4000;0.1074;4.5384;
275.7000;0.1172;4.5726;
276.0000;0.1091;4.5433;
276.3000;0.1042;4.5335;
276.6000;0.1156;4.5555;
276.9000;0.1083;4.5311;
277.2000;0.1058;4.5213;
277.5000;0.1074;4.5262;
277.8000;0.1074;4.5237;
278.1000;0.1074;4.5262;
278.4000;0.1099;4.5335;
278.7000;0.1066;4.5262;
279.0000;0.1042;4.5237;
279.3000;0.1050;4.5213;
279.6000;0.1074;4.5262;
279.9000;0.1058;4.5237;
280.2000;0.1074;4.5286;
280.5000;0.1083;4.5384;
280.8000;0.1099;4.5360;
281.1000;0.1058;4.5335;
281.4000;0.1074;4.5335;
281.7000;0.1074;4.5360;
282.0000;0.1099;4.5335;
282.3000;0.1058;4.5262;
282.6000;0.1050;4.5213;
282.9000;0.1099;4.5311;
283.2000;0.1050;4.5188;
283.5000;0.1066;4.5237;
283.8000;0.1099;4.5311;
284.1000;0.1107;4.5311;
284.4000;0.1009;4.5091;
284.7000;0.1074;4.5286;
285.0000;0.1050;4.5286;
285.3000;0.0961;4.5017;
285.6000;0.1058;4.5237;
285.9000;0.1042;4.5188;
286.2000;0.1213;4.5653;
286.5000;0.1066;4.5188;
286.8000;0.1074;4.5237;
287.1000;0.1180;4.5580;
287.4000;0.1123;4.5335;
287.7000;0.1107;4.5286;
288.0000;0.1099;4.5237;
288.3000;0.1091;4.5311;
288.6000;0.1074;4.5311;
288.9000;0.1074;4.5311;
289.2000;0.1066;4.5360;
289.5000;0.1074;4.5384;
289.8000;0.1026;4.5139;
290.1000;0.1074;4.5262;
290.4000;0.1083;4.5286;
290.7000;0.0977;4.5139;
291.0000;0.1083;4.5457;
291.3000;0.1066;4.5408;
291.6000;0.1099;4.5408;
291.9000;0.1066;4.5335;
292.2000;0.1074;4.5384;
292.5000;0.1123;4.5531;
292.8000;0.1009;4.5164;
293.1000;0.1066;4.5335;
293.4000;0.1091;4.5360;
293.7000;0.1083;4.5457;
294.0000;0.1074;4.5506;
294.3000;0.1058;4.5506;
294.6000;0.1066;4.5580;
294.9000;0.1245;4.6118;
295.2000;0.1074;4.5604;
295.5000;0.1099;4.5677;
295.8000;0.1042;4.5555;
296.1000;0.1074;4.5457;
296.4000;0.1058;4.5433;
296.7000;0.1083;4.5384;
297.0000;0.1091;4.5335;
297.3000;0.1050;4.5286;
297.6000;0.1058;4.5311;
297.9000;0.1083;4.5335;
298.2000;0.1099;4.5384;
298.5000;0.1164;4.5531;
298.8000;0.1140;4.5408;
299.1000;0.1083;4.5384;
299.4000;0.1083;4.5408;
299.7000;0.1066;4.5360;
300.0000;0.1083;4.5408;
300.3000;0.1083;4.5237;
300.6000;0.1074;4.5188;
300.9000;0.1083;4.5262;
301.2000;0.1066;4.5188;
301.5000;0.1058;4.5188;
301.8000;0.1066;4.5262;
302.1000;0.1058;4.5457;
302.4000;0.1058;4.5555;
302.7000;0.1042;4.5457;
303.0000;0.1066;4.5531;
303.3000;0.1083;4.5531;
303.6000;0.1058;4.5433;
303.9000;0.1083;4.5457;
304.2000;0.1074;4.5457;
304.5000;0.1107;4.5555;
304.8000;0.1034;4.5311;
305.1000;0.1083;4.5408;
305.4000;0.1074;4.5408;
305.7000;0.1074;4.5457;
306.0000;0.1074;4.5482;
306.3000;0.1074;4.5506;
306.6000;0.1066;4.5482;
306.9000;0.1074;4.5482;
307.2000;0.1058;4.5262;
307.5000;0.1099;4.5335;
307.8000;0.1091;4.5384;
308.1000;0.1091;4.5433;
308.4000;0.1058;4.5384;
308.7000;0.1099;4.5580;
309.0000;0.1074;4.5457;
309.3000;0.1074;4.5482;
309.6000;0.1091;4.5506;
309.9000;0.1058;4.5482;
310.2000;0.1074;4.5482;
310.5000;0.1074;4.5433;
310.8000;0.1034;4.5311;
311.1000;0.1091;4.5335;
311.4000;0.1091;4.5286;
311.7000;0.1180;4.5506;
312.0000;0.1074;4.5237;
312.3000;0.1083;4.5311;
312.6000;0.1091;4.5311;
312.9000;0.1058;4.5213;
313.2000;0.1066;4.5188;
313.5000;0.1018;4.5042;
313.8000;0.1066;4.5213;
314.1000;0.1148;4.5482;
314.4000;0.1091;4.5286;
314.7000;0.1074;4.5311;
315.0000;0.0928;4.4968;
315.3000;0.1058;4.5262;
315.6000;0.1140;4.5506;
315.9000;0.1091;4.5433;
316.2000;0.1099;4.5506;
316.5000;0.1123;4.5531;
316.8000;0.0952;4.5115;
317.1000;0.1042;4.5408;
317.4000;0.1074;4.5482;
317.7000;0.1066;4.5457;
318.0000;0.1058;4.5433;
318.3000;0.1083;4.5457;
318.6000;0.1066;4.5384;
318.9000;0.1066;4.5360;
319.2000;0.1099;4.5457;
319.5000;0.1058;4.5408;
319.8000;0.1091;4.5531;
320.1000;0.1107;4.5482;
320.4000;0.1074;4.5482;
320.7000;0.1083;4.5457;
321.0000;0.1050;4.5408;
321.3000;0.1058;4.5457;
321.6000;0.1034;4.5457;
321.9000;0.1034;4.5408;
322.2000;0.1058;4.5384;
322.5000;0.1066;4.5482;
322.8000;0.1099;4.5555;
323.1000;0.1066;4.5482;
323.4000;0.1074;4.5433;
323.7000;0.1099;4.5482;
324.0000;0.1074;4.5457;
324.3000;0.1180;4.5702;
324.6000;0.1107;4.5433;
324.9000;0.1107;4.5360;
325.2000;0.1083;4.5262;
325.5000;0.1042;4.5262;
325.8000;0.1050;4.5262;
326.1000;0.1074;4.5360;
326.4000;0.1091;4.5335;
326.7000;0.1066;4.5286;
327.0000;0.1074;4.5360;
327.3000;0.1091;4.5482;
327.6000;0.1083;4.5531;
327.9000;0.1074;4.5408;
328.2000;0.1066;4.5311;
328.5000;0.1074;4.5384;
328.8000;0.1058;4.5384;
329.1000;0.1066;4.5457;
329.4000;0.1083;4.5531;
329.7000;0.1042;4.5384;
330.0000;0.1066;4.5482;
330.3000;0.1091;4.5482;
330.6000;0.1091;4.5457;
330.9000;0.1066;4.5408;
331.2000;0.1091;4.5433;
331.5000;0.1099;4.5482;
331.8000;0.1083;4.5384;
332.1000;0.1042;4.5286;
332.4000;0.1074;4.5384;
332.7000;0.1091;4.5262;
333.0000;0.1083;4.5335;
333.3000;0.1058;4.5213;
333.6000;0.1099;4.5286;
333.9000;0.1066;4.5164;
334.2000;0.1083;4.5262;
334.5000;0.1050;4.5139;
334.8000;0.1001;4.5042;
335.1000;0.1066;4.5213;
335.4000;0.1083;4.5286;
335.7000;0.1050;4.5384;
336.0000;0.1042;4.5311;
336.3000;0.1074;4.5286;
336.6000;0.1123;4.5433;
336.9000;0.1074;4.5213;
337.2000;0.1083;4.5262;
337.5000;0.1066;4.5237;
337.8000;0.1099;4.5311;
338.1000;0.0985;4.5091;
338.4000;0.1083;4.5262;
338.7000;0.1148;4.5482;
339.0000;0.1074;4.5335;
339.3000;0.1091;4.5384;
339.6000;0.1026;4.5286;
339.9000;0.1042;4.5335;
340.2000;0.1083;4.5482;
340.5000;0.1058;4.5384;
340.8000;0.1066;4.5360;
341.1000;0.1083;4.5335;
341.4000;0.1074;4.5360;
341.7000;0.1107;4.5506;
342.0000;0.1091;4.5384;
342.3000;0.1083;4.5335;
342.6000;0.1091;4.5311;
342.9000;0.1074;4.5213;
343.2000;0.1083;4.5237;
343.5000;0.1164;4.5555;
343.8000;0.1074;4.5408;
344.1000;0.1083;4.5457;
344.4000;0.1091;4.5433;
344.7000;0.1083;4.5360;
345.0000;0.1042;4.5262;
345.3000;0.0952;4.4846;
345.6000;0.1050;4.5091;
345.9000;0.0977;4.4993;
346.2000;0.1050;4.5262;
346.5000;0.0993;4.5164;
346.8000;0.1091;4.5408;
347.1000;0.1091;4.5311;
347.4000;0.1099;4.5384;
347.7000;0.1066;4.5286;
348.0000;0.1066;4.5311;
348.3000;0.1083;4.5360;
348.6000;0.1058;4.5360;
348.9000;0.1083;4.5408;
349.2000;0.1050;4.5384;
349.5000;0.1074;4.5433;
349.8000;0.1083;4.5408;
350.1000;0.1050;4.5286;
350.4000;0.1074;4.5360;
350.7000;0.1066;4.5286;
351.0000;0.1058;4.5311;
351.3000;0.1074;4.5360;
351.6000;0.1115;4.5482;
351.9000;0.1058;4.5408;
352.2000;0.1066;4.5384;
352.5000;0.0961;4.5017;
352.8000;0.1074;4.5335;
353.1000;0.1066;4.5335;
353.4000;0.1074;4.5433;
353.7000;0.1066;4.5408;
354.0000;0.1058;4.5335;
354.3000;0.1099;4.5482;
354.6000;0.1066;4.5311;
354.9000;0.1131;4.5580;
355.2000;0.1083;4.5457;
355.5000;0.1091;4.5384;
355.8000;0.1042;4.5311;
356.1000;0.1066;4.5311;
356.4000;0.1083;4.5335;
356.7000;0.1066;4.5360;
357.0000;0.1091;4.5482;
357.3000;0.1074;4.5457;
357.6000;0.1074;4.5384;
357.9000;0.1074;4.5457;
358.2000;0.1091;4.5457;
358.5000;0.1148;4.5555;
358.8000;0.1123;4.5433;
359.1000;0.1091;4.5433;
359.4000;0.1058;4.5286;
359.7000;0.1034;4.5164;
360.0000;0.1083;4.5335;
360.3000;0.1074;4.5360;
360.6000;0.1074;4.5335;
360.9000;0.1034;4.5237;
361.2000;0.1050;4.5286;
361.5000;0.1115;4.5408;
361.8000;0.1066;4.5360;
362.1000;0.1074;4.5408;
362.4000;0.1050;4.5335;
362.7000;0.1066;4.5384;
363.0000;0.1099;4.5433;
363.3000;0.1091;4.5408;
363.6000;0.1074;4.5335;
363.9000;0.1091;4.5335;
364.2000;0.1083;4.5213;
364.5000;0.1091;4.5237;
364.8000;0.1099;4.5188;
365.1000;0.1074;4.4993;
365.4000;0.1074;4.5017;
365.7000;0.1074;4.5091;
366.0000;0.1066;4.5066;
366.3000;0.1058;4.5042;
366.6000;0.1050;4.5066;
366.9000;0.1213;4.5433;
367.2000;0.1074;4.5115;
367.5000;0.1074;4.5066;
367.8000;0.1091;4.5139;
368.1000;0.1099;4.5188;
368.4000;0.1058;4.5066;
368.7000;0.1083;4.5164;
369.0000;0.1018;4.5091;
369.3000;0.1107;4.5311;
369.6000;0.1083;4.5262;
369.9000;0.1091;4.5335;
370.2000;0.1050;4.5188;
370.5000;0.1091;4.5286;
370.8000;0.1074;4.5360;
371.1000;0.1115;4.5506;
371.4000;0.1066;4.5457;
371.7000;0.1091;4.5580;
372.0000;0.1074;4.5653;
372.3000;0.1083;4.5580;
372.6000;0.1083;4.5457;
372.9000;0.1074;4.5531;
373.2000;0.1091;4.5531;
373.5000;0.1091;4.5506;
373.8000;0.1066;4.5531;
374.1000;0.1115;4.5628;
374.4000;0.1074;4.5555;
374.7000;0.1066;4.5457;
375.0000;0.1066;4.5408;
375.3000;0.1083;4.5506;
375.6000;0.1066;4.5506;
375.9000;0.1180;4.5873;
376.2000;0.1074;4.5628;
376.5000;0.1066;4.5604;
376.8000;0.1083;4.5531;
377.1000;0.1074;4.5408;
377.4000;0.1083;4.5457;
377.7000;0.1066;4.5482;
378.0000;0.1066;4.5433;
378.3000;0.1083;4.5408;
378.6000;0.1066;4.5384;
378.9000;0.1074;4.5311;
379.2000;0.1091;4.5311;
379.5000;0.1074;4.5335;
379.8000;0.1099;4.5433;
380.1000;0.1083;4.5335;
380.4000;0.1074;4.5384;
380.7000;0.1180;4.5775;
381.0000;0.1058;4.5506;
381.3000;0.1083;4.5555;
381.6000;0.1099;4.5531;
381.9000;0.1123;4.5580;
382.2000;0.1066;4.5360;
382.5000;0.1074;4.5360;
382.8000;0.1074;4.5384;
383.1000;0.1115;4.5482;
383.4000;0.1091;4.5482;
383.7000;0.1091;4.5433;
384.0000;0.1066;4.5360;
384.3000;0.1074;4.5311;
384.6000;0.1050;4.5311;
384.9000;0.1083;4.5384;
385.2000;0.1074;4.5457;
385.5000;0.1083;4.5506;
385.8000;0.1058;4.5433;
386.1000;0.1083;4.5433;
386.4000;0.1083;4.5384;
386.7000;0.1074;4.5335;
387.0000;0.1091;4.5506;
387.3000;0.1074;4.5457;
387.6000;0.1074;4.5482;
387.9000;0.1091;4.5506;
388.2000;0.1074;4.5335;
388.5000;0.1042;4.5213;
388.8000;0.1074;4.5286;
389.1000;0.1148;4.5457;
389.4000;0.1074;4.5311;
389.7000;0.1083;4.5311;
390.0000;0.1148;4.5580;
390.3000;0.1083;4.5384;
390.6000;0.1074;4.5311;
390.9000;0.1066;4.5262;
391.2000;0.1083;4.5408;
391.5000;0.1050;4.5384;
391.8000;0.1066;4.5482;
392.1000;0.1058;4.5531;
392.4000;0.1066;4.5506;
392.7000;0.1074;4.5506;
393.0000;0.1042;4.5384;
393.3000;0.1107;4.5531;
393.6000;0.1091;4.5482;
393.9000;0.1074;4.5482;
394.2000;0.1066;4.5433;
394.5000;0.1091;4.5482;
394.8000;0.1107;4.5506;
395.1000;0.1026;4.5360;
395.4000;0.1066;4.5457;
395.7000;0.1018;4.5311;
396.0000;0.1083;4.5506;
396.3000;0.1083;4.5482;
396.6000;0.1042;4.5408;
396.9000;0.1083;4.5457;
397.2000;0.1091;4.5384;
397.5000;0.1099;4.5433;
397.8000;0.0993;4.5091;
398.1000;0.0993;4.5139;
398.4000;0.1066;4.5482;
398.7000;0.1083;4.5457;
399.0000;0.1034;4.5262;
399.3000;0.1066;4.5311;
399.6000;0.1074;4.5262;
399.9000;0.1083;4.5262;
400.2000;0.1083;4.5213;
400.5000;0.0961;4.4895;
400.8000;0.1205;4.5653;
401.1000;0.1083;4.5384;
401.4000;0.1083;4.5311;
401.7000;0.1050;4.5139;
402.0000;0.1058;4.5091;
402.3000;0.1083;4.5213;
402.6000;0.1091;4.5286;
402.9000;0.1074;4.5335;
403.2000;0.1074;4.5360;
403.5000;0.1131;4.5506;
403.8000;0.1066;4.5262;
404.1000;0.1074;4.5188;
404.4000;0.1058;4.5042;
404.7000;0.1074;4.5042;
405.0000;0.1107;4.5213;
405.3000;0.1099;4.5237;
405.6000;0.1074;4.5213;
405.9000;0.1066;4.5188;
406.2000;0.0977;4.4944;
406.5000;0.1050;4.5188;
406.8000;0.1050;4.5311;
407.1000;0.1091;4.5482;
407.4000;0.1066;4.5555;
407.7000;0.1083;4.5628;
408.0000;0.1066;4.5555;
408.3000;0.1083;4.5580;
408.6000;0.1026;4.5311;
408.9000;0.1091;4.5506;
409.2000;0.1213;4.5800;
409.5000;0.1018;4.5286;
409.8000;0.1066;4.5433;
410.1000;0.1066;4.5433;
410.4000;0.1066;4.5457;
410.7000;0.1074;4.5433;
411.0000;0.1034;4.5335;
411.3000;0.1066;4.5457;
411.6000;0.1058;4.5433;
411.9000;0.1091;4.5555;
412.2000;0.1050;4.5555;
412.5000;0.1042;4.5457;
412.8000;0.1107;4.5580;
413.1000;0.1034;4.5408;
413.4000;0.1074;4.5433;
413.7000;0.1074;4.5433;
414.0000;0.1099;4.5433;
414.3000;0.1074;4.5408;
414.6000;0.1066;4.5286;
414.9000;0.1107;4.5457;
415.2000;0.1058;4.5311;
415.5000;0.1083;4.5311;
415.8000;0.1074;4.5188;
416.1000;0.1066;4.5164;
416.4000;0.1066;4.5091;
416.7000;0.1083;4.5091;
417.0000;0.1058;4.5017;
417.3000;0.1050;4.4993;
417.6000;0.1074;4.5115;
417.9000;0.1058;4.5213;
418.2000;0.1083;4.5213;
418.5000;0.1050;4.5115;
418.8000;0.1074;4.5139;
419.1000;0.1083;4.5164;
419.4000;0.1074;4.5139;
419.7000;0.1018;4.4993;
420.0000;0.1074;4.5164;
420.3000;0.1091;4.5188;
420.6000;0.1083;4.5091;
420.9000;0.1034;4.4944;
421.2000;0.1066;4.5042;
421.5000;0.1074;4.5139;
421.8000;0.1066;4.5091;
422.1000;0.1042;4.5042;
422.4000;0.1091;4.5115;
422.7000;0.1099;4.5115;
423.0000;0.1083;4.5164;
423.3000;0.1140;4.5311;
423.6000;0.1091;4.5188;
423.9000;0.1083;4.5262;
424.2000;0.1058;4.5311;
424.5000;0.1074;4.5335;
424.8000;0.0985;4.5139;
425.1000;0.1091;4.5408;
425.4000;0.1083;4.5457;
425.7000;0.1042;4.5311;
426.0000;0.1083;4.5335;
426.3000;0.1066;4.5262;
426.6000;0.1009;4.5115;
426.9000;0.1107;4.5384;
427.2000;0.1083;4.5311;
427.5000;0.1131;4.5506;
427.8000;0.1107;4.5457;
428.1000;0.1148;4.5531;
428.4000;0.1058;4.5286;
428.7000;0.1123;4.5433;
429.0000;0.1091;4.5335;
429.3000;0.1115;4.5360;
429.6000;0.1050;4.5164;
429.9000;0.1083;4.5213;
430.2000;0.1018;4.5017;
430.5000;0.1034;4.5066;
430.8000;0.1131;4.5384;
431.1000;0.0944;4.4993;
431.4000;0.1074;4.5262;
431.7000;0.1009;4.5115;
432.0000;0.1107;4.5311;
432.3000;0.1074;4.5213;
432.6000;0.1091;4.5262;
432.9000;0.1083;4.5213;
433.2000;0.1066;4.5213;
433.5000;0.1074;4.5237;
433.8000;0.1066;4.5237;
434.1000;0.1083;4.5237;
434.4000;0.1074;4.5335;
434.7000;0.1074;4.5286;
435.0000;0.1099;4.5237;
435.3000;0.1083;4.5188;
435.6000;0.1091;4.5237;
435.9000;0.1099;4.5262;
436.2000;0.1074;4.5237;
436.5000;0.1099;4.5311;
436.8000;0.1066;4.5286;
437.1000;0.1074;4.5286;
437.4000;0.1026;4.5213;
437.7000;0.1091;4.5335;
438.0000;0.1083;4.5286;
438.3000;0.1091;4.5262;
438.6000;0.1074;4.5311;
438.9000;0.1083;4.5335;
439.2000;0.1074;4.5237;
439.5000;0.1074;4.5286;
439.8000;0.1091;4.5262;
440.1000;0.1107;4.5408;
440.4000;0.1115;4.5433;
440.7000;0.1074;4.5335;
441.0000;0.1091;4.5311;
441.3000;0.1074;4.5237;
441.6000;0.1009;4.5213;
441.9000;0.1074;4.5286;
442.2000;0.1091;4.5311;
442.5000;0.1091;4.5262;
442.8000;0.1074;4.5237;
443.1000;0.1083;4.5237;
443.4000;0.1091;4.5237;
443.7000;0.1091;4.5286;
444.0000;0.1083;4.5262;
444.3000;0.1091;4.5311;
444.6000;0.1074;4.5213;
444.9000;0.1099;4.5335;
445.2000;0.1083;4.5262;
445.5000;0.1066;4.5213;
445.8000;0.1107;4.5360;
446.1000;0.1083;4.5262;
446.4000;0.1083;4.5262;
446.7000;0.1083;4.5237;
447.0000;0.1091;4.5213;
447.3000;0.1074;4.5139;
447.6000;0.1058;4.5262;
447.9000;0.1091;4.5433;
448.2000;0.1074;4.5335;
448.5000;0.1066;4.5286;
448.8000;0.1074;4.5237;
449.1000;0.1107;4.5335;
449.4000;0.1042;4.5213;
449.7000;0.1074;4.5237;
450.0000;0.1074;4.5335;
450.3000;0.1066;4.5286;
450.6000;0.1099;4.5335;
450.9000;0.1083;4.5286;
451.2000;0.1058;4.5262;
451.5000;0.0936;4.4919;
451.8000;0.1148;4.5457;
452.1000;0.1083;4.5311;
452.4000;0.1091;4.5335;
452.7000;0.1107;4.5360;
453.0000;0.1083;4.5286;
453.3000;0.1083;4.5286;
453.6000;0.1107;4.5335;
453.9000;0.1083;4.5262;
454.2000;0.1074;4.5311;
454.5000;0.1058;4.5188;
454.8000;0.1140;4.5408;
455.1000;0.1050;4.5188;
455.4000;0.1099;4.5311;
455.7000;0.1018;4.5115;
456.0000;0.1115;4.5408;
456.3000;0.1083;4.5286;
456.6000;0.1026;4.5262;
456.9000;0.1066;4.5360;
457.2000;0.1034;4.5360;
457.5000;0.1091;4.5457;
457.8000;0.1050;4.5384;
458.1000;0.1115;4.5482;
458.4000;0.1074;4.5360;
458.7000;0.1058;4.5433;
459.0000;0.1074;4.5408;
459.3000;0.1066;4.5360;
459.6000;0.1058;4.5115;
459.9000;0.1066;4.5164;
460.2000;0.1083;4.5262;
460.5000;0.1091;4.5360;
460.8000;0.1074;4.5262;
461.1000;0.1066;4.5286;
461.4000;0.0969;4.4895;
461.7000;0.1058;4.5139;
462.0000;0.1083;4.5139;
462.3000;0.1074;4.5188;
462.6000;0.1066;4.5213;
462.9000;0.1058;4.5115;
463.2000;0.1091;4.5262;
463.5000;0.1148;4.5457;
463.8000;0.1018;4.5091;
464.1000;0.1066;4.5262;
464.4000;0.1034;4.5262;
464.7000;0.1091;4.5384;
465.0000;0.1091;4.5457;
465.3000;0.1042;4.5360;
465.6000;0.1066;4.5580;
465.9000;0.1131;4.5751;
466.2000;0.1091;4.5555;
466.5000;0.1050;4.5433;
466.8000;0.1140;4.5653;
467.1000;0.1091;4.5531;
467.4000;0.1083;4.5457;
467.7000;0.1099;4.5506;
468.0000;0.1034;4.5262;
468.3000;0.1091;4.5262;
468.6000;0.1066;4.5262;
468.9000;0.1083;4.5237;
469.2000;0.1042;4.5042;
469.5000;0.1074;4.5213;
469.8000;0.1042;4.5066;
470.1000;0.1083;4.5213;
470.4000;0.1083;4.5262;
470.7000;0.1066;4.5311;
471.0000;0.1099;4.5213;
471.3000;0.1074;4.5188;
471.6000;0.1083;4.5213;
471.9000;0.1066;4.5188;
472.2000;0.1058;4.5213;
472.5000;0.1066;4.5335;
472.8000;0.1083;4.5408;
473.1000;0.1091;4.5335;
473.4000;0.1131;4.5286;
473.7000;0.1091;4.5188;
474.0000;0.1074;4.5164;
474.3000;0.1074;4.5139;
474.6000;0.1066;4.5164;
474.9000;0.1107;4.5188;
475.2000;0.1066;4.5213;
475.5000;0.1009;4.5091;
475.8000;0.1066;4.5237;
476.1000;0.1074;4.5311;
476.4000;0.1058;4.5262;
476.7000;0.1058;4.5286;
477.0000;0.1066;4.5335;
477.3000;0.1074;4.5384;
477.6000;0.1058;4.5286;
477.9000;0.1083;4.5311;
478.2000;0.1066;4.5311;
478.5000;0.1083;4.5335;
478.8000;0.1058;4.5311;
479.1000;0.1083;4.5482;
479.4000;0.1074;4.5482;
479.7000;0.1099;4.5433;
480.0000;0.1083;4.5286;
480.3000;0.1074;4.5237;
480.6000;0.1205;4.5506;
480.9000;0.0993;4.4968;
481.2000;0.1066;4.5164;
481.5000;0.1107;4.5213;
481.8000;0.1074;4.5237;
482.1000;0.1058;4.5237;
482.4000;0.1058;4.5213;
482.7000;0.1091;4.5286;
483.0000;0.1050;4.5262;
483.3000;0.1091;4.5311;
483.6000;0.1107;4.5482;
483.9000;0.0969;4.5139;
484.2000;0.1058;4.5433;
484.5000;0.1123;4.5482;
484.8000;0.1074;4.5286;
485.1000;0.1140;4.5408;
485.4000;0.1001;4.5066;
485.7000;0.1140;4.5408;
486.0000;0.1066;4.5262;
486.3000;0.0952;4.4993;
486.6000;0.1091;4.5433;
486.9000;0.1050;4.5311;
487.2000;0.1083;4.5335;
487.5000;0.1123;4.5408;
487.8000;0.1058;4.5188;
488.1000;0.1050;4.5139;
488.4000;0.1066;4.5213;
488.7000;0.1074;4.5213;
489.0000;0.1083;4.5286;
489.3000;0.1099;4.5311;
489.6000;0.1066;4.5237;
489.9000;0.1099;4.5262;
490.2000;0.1091;4.5237;
490.5000;0.1091;4.5237;
490.8000;0.1066;4.5091;
491.1000;0.1083;4.5188;
491.4000;0.1066;4.5164;
491.7000;0.1083;4.5311;
492.0000;0.1083;4.5335;
492.3000;0.1083;4.5335;
492.6000;0.1050;4.5286;
492.9000;0.1058;4.5311;
493.2000;0.1074;4.5408;
493.5000;0.1058;4.5482;
493.8000;0.1034;4.5384;
494.1000;0.1074;4.5555;
494.4000;0.1115;4.5580;
494.7000;0.1083;4.5482;
495.0000;0.1066;4.5433;
495.3000;0.1083;4.5384;
495.6000;0.1058;4.5262;
495.9000;0.1074;4.5360;
496.2000;0.1083;4.5360;
496.5000;0.0985;4.5017;
496.8000;0.1074;4.5286;
497.1000;0.1058;4.5213;
497.4000;0.1083;4.5286;
497.7000;0.1083;4.5286;
498.0000;0.1099;4.5335;
498.3000;0.1074;4.5286;
498.6000;0.1083;4.5360;
498.9000;0.1091;4.5335;
499.2000;0.1058;4.5262;
499.5000;0.1083;4.5262;
499.8000;0.1058;4.5262;
500.1000;0.1083;4.5360;
500.4000;0.1083;4.5360;
500.7000;0.1042;4.5164;
501.0000;0.1123;4.5311;
501.3000;0.1074;4.5237;
501.6000;0.1107;4.5311;
501.9000;0.1042;4.5188;
502.2000;0.1066;4.5237;
502.5000;0.1091;4.5360;
502.8000;0.1099;4.5408;
503.1000;0.1172;4.5555;
503.4000;0.1091;4.5360;
503.7000;0.1083;4.5335;
504.0000;0.1115;4.5384;
504.3000;0.1083;4.5286;
504.6000;0.1099;4.5360;
504.9000;0.1091;4.5360;
505.2000;0.1066;4.5335;
505.5000;0.1083;4.5335;
505.8000;0.1066;4.5262;
506.1000;0.1074;4.5360;
506.4000;0.1074;4.5286;
506.7000;0.1099;4.5360;
507.0000;0.1099;4.5360;
507.3000;0.0985;4.4993;
507.6000;0.1083;4.5360;
507.9000;0.1034;4.5286;
508.2000;0.1066;4.5286;
508.5000;0.1034;4.5213;
508.8000;0.1066;4.5262;
509.1000;0.1091;4.5360;
509.4000;0.1115;4.5482;
509.7000;0.1083;4.5360;
510.0000;0.1066;4.5262;
510.3000;0.1074;4.5213;
510.6000;0.1066;4.5213;
510.9000;0.1091;4.5237;
511.2000;0.1083;4.5237;
511.5000;0.1099;4.5237;
511.8000;0.1058;4.5115;
512.1000;0.1050;4.5017;
512.4000;0.1115;4.5262;
512.7000;0.1083;4.5115;
513.0000;0.1066;4.5115;
513.3000;0.1083;4.5188;
513.6000;0.1066;4.5091;
513.9000;0.1001;4.4993;
514.2000;0.1074;4.5286;
514.5000;0.1074;4.5311;
514.8000;0.1050;4.5335;
515.1000;0.0928;4.4944;
515.4000;0.1074;4.5286;
515.7000;0.1074;4.5262;
516.0000;0.1042;4.5237;
516.3000;0.1074;4.5360;
516.6000;0.1026;4.5188;
516.9000;0.1091;4.5311;
517.2000;0.1066;4.5286;
517.5000;0.1058;4.5262;
517.8000;0.1066;4.5237;
518.1000;0.1066;4.5262;
518.4000;0.1083;4.5311;
518.7000;0.1066;4.5286;
519.0000;0.1074;4.5286;
519.3000;0.1083;4.5262;
519.6000;0.1074;4.5188;
519.9000;0.1058;4.5164;
520.2000;0.1083;4.5213;
520.5000;0.1026;4.5139;
520.8000;0.1050;4.5237;
521.1000;0.1074;4.5262;
521.4000;0.1066;4.5262;
521.7000;0.1001;4.5115;
522.0000;0.0961;4.4993;
522.3000;0.1083;4.5335;
522.6000;0.1034;4.5188;
522.9000;0.1009;4.5115;
523.2000;0.1140;4.5457;
523.5000;0.1083;4.5286;
523.8000;0.0969;4.5066;
524.1000;0.1115;4.5384;
524.4000;0.1091;4.5311;
524.7000;0.1123;4.5335;
525.0000;0.1083;4.5286;
525.3000;0.1074;4.5335;
525.6000;0.1083;4.5311;
525.9000;0.1058;4.5286;
526.2000;0.1009;4.5066;
526.5000;0.1083;4.5286;
526.8000;0.1123;4.5408;
527.1000;0.1099;4.5311;
527.4000;0.1091;4.5262;
527.7000;0.1042;4.5164;
528.0000;0.1107;4.5262;
528.3000;0.1091;4.5237;
528.6000;0.1066;4.5237;
528.9000;0.0977;4.4968;
529.2000;0.1083;4.5262;
529.5000;0.1026;4.5139;
529.8000;0.1042;4.5188;
530.1000;0.1058;4.5360;
530.4000;0.1066;4.5360;
530.7000;0.1091;4.5433;
531.0000;0.1050;4.5311;
531.3000;0.0993;4.5262;
531.6000;0.1050;4.5457;
531.9000;0.1083;4.5531;
532.2000;0.1091;4.5482;
532.5000;0.0985;4.5262;
532.8000;0.1066;4.5360;
533.1000;0.1099;4.5482;
533.4000;0.1083;4.5433;
533.7000;0.1083;4.5482;
534.0000;0.1083;4.5408;
534.3000;0.1074;4.5457;
534.6000;0.1066;4.5555;
534.9000;0.1083;4.5555;
535.2000;0.1066;4.5482;
535.5000;0.1099;4.5555;
535.8000;0.1074;4.5531;
536.1000;0.1066;4.5506;
536.4000;0.1058;4.5408;
536.7000;0.1074;4.5482;
537.0000;0.1066;4.5457;
537.3000;0.1074;4.5433;
537.6000;0.1066;4.5531;
537.9000;0.1091;4.5555;
538.2000;0.1148;4.5677;
538.5000;0.1066;4.5408;
538.8000;0.1099;4.5457;
539.1000;0.1058;4.5408;
539.4000;0.1074;4.5360;
539.7000;0.0928;4.4968;
540.0000;0.1083;4.5384;
540.3000;0.1083;4.5408;
540.6000;0.1156;4.5604;
540.9000;0.1091;4.5457;
541.2000;0.1018;4.5237;
541.5000;0.1009;4.5286;
541.8000;0.1058;4.5433;
542.1000;0.1115;4.5604;
542.4000;0.1148;4.5628;
542.7000;0.1034;4.5311;
543.0000;0.1083;4.5433;
543.3000;0.1107;4.5457;
543.6000;0.1074;4.5384;
543.9000;0.1091;4.5457;
544.2000;0.1091;4.5433;
544.5000;0.1066;4.5531;
544.8000;0.1066;4.5604;
545.1000;0.1066;4.5580;
545.4000;0.1058;4.5506;
545.7000;0.1042;4.5433;
546.0000;0.1083;4.5457;
546.3000;0.1058;4.5360;
546.6000;0.1148;4.5531;
546.9000;0.1115;4.5408;
547.2000;0.1099;4.5457;
547.5000;0.1083;4.5408;
547.8000;0.1074;4.5457;
548.1000;0.1180;4.5800;
548.4000;0.1083;4.5457;
548.7000;0.1066;4.5335;
549.0000;0.1083;4.5286;
549.3000;0.1066;4.5237;
549.6000;0.1074;4.5262;
549.9000;0.1091;4.5213;
550.2000;0.1074;4.5188;
550.5000;0.1091;4.5213;
550.8000;0.1083;4.5115;
551.1000;0.1107;4.5237;
551.4000;0.1074;4.5286;
551.7000;0.1074;4.5311;
552.0000;0.1099;4.5531;
552.3000;0.1083;4.5531;
552.6000;0.1074;4.5580;
552.9000;0.1018;4.5408;
553.2000;0.1083;4.5531;
553.5000;0.1018;4.5408;
553.8000;0.1091;4.5580;
554.1000;0.1058;4.5531;
554.4000;0.1074;4.5555;
554.7000;0.1066;4.5433;
555.0000;0.1074;4.5384;
555.3000;0.1083;4.5433;
555.6000;0.1091;4.5531;
555.9000;0.1083;4.5457;
556.2000;0.1099;4.5531;
556.5000;0.0961;4.5213;
556.8000;0.1066;4.5384;
557.1000;0.1091;4.5457;
557.4000;0.1091;4.5408;
557.7000;0.1026;4.5213;
558.0000;0.1083;4.5360;
558.3000;0.1050;4.5311;
558.6000;0.1083;4.5408;
558.9000;0.1074;4.5482;
559.2000;0.1074;4.5457;
559.5000;0.1083;4.5457;
559.8000;0.1074;4.5457;
560.1000;0.1107;4.5580;
560.4000;0.1066;4.5433;
560.7000;0.1083;4.5482;
561.0000;0.1107;4.5457;
561.3000;0.1034;4.5188;
561.6000;0.1083;4.5335;
561.9000;0.1066;4.5213;
562.2000;0.1018;4.5139;
562.5000;0.1058;4.5262;
562.8000;0.1074;4.5335;
563.1000;0.1058;4.5213;
563.4000;0.1083;4.5311;
563.7000;0.1074;4.5262;
564.0000;0.1074;4.5335;
564.3000;0.1074;4.5262;
564.6000;0.1074;4.5311;
564.9000;0.1083;4.5311;
565.2000;0.1091;4.5237;
565.5000;0.1066;4.5311;
565.8000;0.1099;4.5262;
566.1000;0.1058;4.5262;
566.4000;0.1001;4.5188;
566.7000;0.1058;4.5384;
567.0000;0.1066;4.5384;
567.3000;0.1066;4.5408;
567.6000;0.1099;4.5482;
567.9000;0.1066;4.5408;
568.2000;0.1074;4.5384;
568.5000;0.1050;4.5360;
568.8000;0.1091;4.5506;
569.1000;0.1066;4.5384;
569.4000;0.1074;4.5384;
569.7000;0.1091;4.5433;
570.0000;0.1066;4.5360;
570.3000;0.1066;4.5311;
570.6000;0.1066;4.5384;
570.9000;0.1042;4.5360;
571.2000;0.1091;4.5506;
571.5000;0.1066;4.5433;
571.8000;0.1001;4.5262;
572.1000;0.1042;4.5457;
572.4000;0.1074;4.5555;
572.7000;0.1083;4.5531;
573.0000;0.1074;4.5482;
573.3000;0.1058;4.5408;
573.6000;0.1058;4.5408;
573.9000;0.1091;4.5482;
574.2000;0.1099;4.5408;
574.5000;0.1091;4.5408;
574.8000;0.1091;4.5360;
575.1000;0.1091;4.5311;
575.4000;0.1107;4.5408;
575.7000;0.1099;4.5433;
576.0000;0.1083;4.5408;
576.3000;0.1066;4.5384;
576.6000;0.1050;4.5237;
576.9000;0.1074;4.5335;
577.2000;0.1074;4.5311;
577.5000;0.1148;4.5506;
577.8000;0.1148;4.5628;
578.1000;0.1050;4.5286;
578.4000;0.1083;4.5506;
578.7000;0.1042;4.5360;
579.0000;0.1099;4.5506;
579.3000;0.1026;4.5237;
579.6000;0.1083;4.5482;
579.9000;0.1074;4.5482;
580.2000;0.1074;4.5408;
580.5000;0.1066;4.5482;
580.8000;0.1074;4.5580;
581.1000;0.1074;4.5580;
581.4000;0.1066;4.5506;
581.7000;0.1066;4.5384;
582.0000;0.1058;4.5360;
582.3000;0.1058;4.5433;
582.6000;0.1083;4.5457;
582.9000;0.1091;4.5531;
583.2000;0.1107;4.5604;
583.5000;0.1107;4.5555;
583.8000;0.1066;4.5335;
584.1000;0.1221;4.5702;
584.4000;0.1050;4.5115;
584.7000;0.1083;4.5213;
585.0000;0.1066;4.5139;
585.3000;0.1091;4.5213;
585.6000;0.1074;4.5188;
585.9000;0.1083;4.5188;
586.2000;0.1115;4.5262;
586.5000;0.1050;4.5188;
586.8000;0.0944;4.4993;
587.1000;0.1066;4.5311;
587.4000;0.1058;4.5262;
587.7000;0.1083;4.5286;
588.0000;0.1083;4.5311;
588.3000;0.1074;4.5262;
588.6000;0.1083;4.5262;
588.9000;0.1083;4.5262;
589.2000;0.1091;4.5311;
589.5000;0.1091;4.5311;
589.8000;0.1066;4.5213;
590.1000;0.1083;4.5262;
590.4000;0.1099;4.5311;
590.7000;0.1099;4.5237;
591.0000;0.1066;4.5188;
591.3000;0.1066;4.5286;
591.6000;0.1074;4.5408;
591.9000;0.1123;4.5555;
592.2000;0.1074;4.5408;
592.5000;0.1066;4.5408;
592.8000;0.1091;4.5457;
593.1000;0.1074;4.5360;
593.4000;0.1074;4.5360;
593.7000;0.1083;4.5311;
594.0000;0.1164;4.5457;
594.3000;0.1083;4.5335;
594.6000;0.1066;4.5311;
594.9000;0.1107;4.5384;
595.2000;0.1058;4.5237;
595.5000;0.1083;4.5237;
595.8000;0.1107;4.5262;
596.1000;0.1058;4.5115;
596.4000;0.1083;4.5139;
596.7000;0.1074;4.5164;
597.0000;0.1058;4.5066;
597.3000;0.1050;4.5066;
597.6000;0.1074;4.5213;
597.9000;0.1115;4.5335;
598.2000;0.1099;4.5286;
598.5000;0.1091;4.5286;
598.8000;0.1140;4.5360;
599.1000;0.1074;4.5066;
599.4000;0.1058;4.5066;
599.7000;0.1083;4.5164;
600.0000;0.1058;4.5188;
600.3000;0.1083;4.5115;
600.6000;0.1083;4.5091;
600.9000;0.1026;4.4822;
601.2000;0.1083;4.4919;
601.5000;0.1034;4.4773;
601.8000;0.1009;4.4797;
602.1000;0.1001;4.4675;
602.4000;0.1091;4.4846;
602.7000;0.1034;4.4650;
603.0000;0.1034;4.4675;
603.3000;0.0895;4.4333;
603.6000;0.1026;4.4675;
603.9000;0.1026;4.4528;
604.2000;0.1018;4.4479;
604.5000;0.1083;4.4601;
604.8000;0.1026;4.4430;
605.1000;0.0985;4.4479;
605.4000;0.1050;4.4626;
605.7000;0.0977;4.4357;
606.0000;0.1009;4.4504;
606.3000;0.0961;4.4406;
606.6000;0.1001;4.4504;
606.9000;0.0936;4.4430;
607.2000;0.1050;4.4675;
607.5000;0.0985;4.4455;
607.8000;0.1001;4.4333;
608.1000;0.1009;4.4308;
608.4000;0.1009;4.4210;
608.7000;0.1001;4.4161;
609.0000;0.0952;4.3990;
609.3000;0.0993;4.4210;
609.6000;0.0928;4.4064;
609.9000;0.1074;4.4430;
610.2000;0.1034;4.4333;
610.5000;0.0985;4.4112;
610.8000;0.1026;4.4186;
611.1000;0.0985;4.4112;
611.4000;0.1034;4.4186;
611.7000;0.0977;4.3990;
612.0000;0.0985;4.4015;
612.3000;0.0977;4.4015;
612.6000;0.0961;4.4039;
612.9000;0.0969;4.3966;
613.2000;0.1001;4.4088;
613.5000;0.0985;4.4088;
613.8000;0.0952;4.3941;
614.1000;0.0952;4.3917;
614.4000;0.0993;4.3941;
614.7000;0.0993;4.3868;
615.0000;0.0944;4.3770;
615.3000;0.0961;4.3892;
615.6000;0.1034;4.4015;
615.9000;0.0977;4.3966;
616.2000;0.1009;4.3966;
616.5000;0.0977;4.3892;
616.8000;0.0952;4.3892;
617.1000;0.0961;4.3917;
617.4000;0.0985;4.3843;
617.7000;0.0912;4.3770;
618.0000;0.0985;4.3917;
618.3000;0.0952;4.3892;
618.6000;0.0863;4.3623;
618.9000;0.0936;4.3843;
619.2000;0.1026;4.4039;
619.5000;0.0969;4.3819;
619.8000;0.0969;4.3795;
620.1000;0.0977;4.3746;
620.4000;0.0928;4.3648;
620.7000;0.0993;4.3770;
621.0000;0.1009;4.3843;
621.3000;0.0961;4.3697;
621.6000;0.0952;4.3574;
621.9000;0.0895;4.3452;
622.2000;0.0936;4.3574;
622.5000;0.0952;4.3697;
622.8000;0.0936;4.3697;
623.1000;0.0936;4.3770;
623.4000;0.0944;4.3843;
623.7000;0.0944;4.3843;
624.0000;0.0993;4.4039;
624.3000;0.0928;4.3990;
624.6000;0.0928;4.3941;
624.9000;0.0887;4.3892;
625.2000;0.0936;4.3990;
625.5000;0.0944;4.3966;
625.8000;0.0936;4.3892;
626.1000;0.1066;4.4235;
626.4000;0.0936;4.3819;
626.7000;0.0936;4.3819;
627.0000;0.0961;4.3941;
627.3000;0.0952;4.3868;
627.6000;0.0904;4.3746;
627.9000;0.0920;4.3795;
628.2000;0.0928;4.3770;
628.5000;0.0969;4.3843;
628.8000;0.0936;4.3868;
629.1000;0.0985;4.3966;
629.4000;0.0928;4.3917;
629.7000;0.0928;4.3966;
630.0000;0.0920;4.3917;
630.3000;0.0961;4.4039;
630.6000;0.0920;4.3917;
630.9000;0.0936;4.4112;
631.2000;0.0969;4.4088;
631.5000;0.0920;4.3966;
631.8000;0.0871;4.3770;
632.1000;0.1001;4.4088;
632.4000;0.0895;4.3892;
632.7000;0.0985;4.4112;
633.0000;0.0969;4.4088;
633.3000;0.0944;4.3990;
633.6000;0.0936;4.4039;
633.9000;0.0928;4.3941;
634.2000;0.1009;4.4210;
634.5000;0.0928;4.3892;
634.8000;0.0985;4.4088;
635.1000;0.0928;4.4015;
635.4000;0.1018;4.4333;
635.7000;0.0952;4.4210;
636.0000;0.0920;4.4064;
636.3000;0.0928;4.3941;
636.6000;0.0936;4.3917;
636.9000;0.0920;4.3917;
637.2000;0.0920;4.4039;
637.5000;0.1009;4.4333;
637.8000;0.0920;4.4137;
638.1000;0.0944;4.4112;
638.4000;0.0969;4.4088;
638.7000;0.0985;4.4039;
639.0000;0.0952;4.3892;
639.3000;0.0944;4.3917;
639.6000;0.0952;4.3941;
639.9000;0.0895;4.3770;
640.2000;0.1009;4.4015;
640.5000;0.0920;4.3795;
640.8000;0.0912;4.3843;
641.1000;0.0895;4.3795;
641.4000;0.0936;4.3966;
641.7000;0.0847;4.3843;
642.0000;0.0904;4.4088;
642.3000;0.0912;4.4088;
642.6000;0.0895;4.4039;
642.9000;0.0912;4.4064;
643.2000;0.0920;4.4064;
643.5000;0.0920;4.4161;
643.8000;0.0928;4.4161;
644.1000;0.0904;4.4088;
644.4000;0.0920;4.4088;
644.7000;0.0944;4.4088;
645.0000;0.0920;4.4064;
645.3000;0.0952;4.4112;
645.6000;0.0920;4.3966;
645.9000;0.0895;4.3941;
646.2000;0.0944;4.4088;
646.5000;0.0904;4.4015;
646.8000;0.0936;4.4088;
647.1000;0.0928;4.4137;
647.4000;0.0936;4.4088;
647.7000;0.0928;4.4064;
648.0000;0.0912;4.4039;
648.3000;0.0895;4.3990;
648.6000;0.0928;4.4064;
648.9000;0.0904;4.3990;
649.2000;0.0895;4.4039;
649.5000;0.0887;4.4039;
649.8000;0.0904;4.4112;
650.1000;0.0944;4.4333;
650.4000;0.0912;4.4186;
650.7000;0.0936;4.4186;
651.0000;0.0879;4.4112;
651.3000;0.0887;4.4137;
651.6000;0.0904;4.4186;
651.9000;0.0895;4.4259;
652.2000;0.0928;4.4333;
652.5000;0.0912;4.4235;
652.8000;0.0887;4.4137;
653.1000;0.0936;4.4308;
653.4000;0.0904;4.4235;
653.7000;0.0871;4.4186;
654.0000;0.0944;4.4308;
654.3000;0.0912;4.4308;
654.6000;0.1042;4.4626;
654.9000;0.0871;4.4112;
655.2000;0.0912;4.4186;
655.5000;0.0912;4.4259;
655.8000;0.0879;4.4112;
656.1000;0.0773;4.3892;
656.4000;0.0814;4.3990;
656.7000;0.0912;4.4235;
657.0000;0.0928;4.4259;
657.3000;0.1009;4.4430;
657.6000;0.0904;4.4161;
657.9000;0.0912;4.4186;
658.2000;0.0895;4.4112;
658.5000;0.0895;4.4088;
658.8000;0.0928;4.4210;
659.1000;0.0912;4.4210;
659.4000;0.0936;4.4210;
659.7000;0.0912;4.4186;
660.0000;0.0887;4.4015;
660.3000;0.0904;4.4088;
660.6000;0.0904;4.4112;
660.9000;0.0912;4.4137;
661.2000;0.0912;4.4137;
661.5000;0.0952;4.4308;
661.8000;0.0912;4.4210;
662.1000;0.0895;4.4137;
662.4000;0.0895;4.4039;
662.7000;0.0904;4.4015;
663.0000;0.0895;4.3990;
663.3000;0.0920;4.4039;
663.6000;0.0993;4.4308;
663.9000;0.0952;4.4186;
664.2000;0.0928;4.4284;
664.5000;0.0879;4.4259;
664.8000;0.0895;4.4259;
665.1000;0.0895;4.4308;
665.4000;0.0904;4.4235;
665.7000;0.0904;4.4235;
666.0000;0.0969;4.4430;
666.3000;0.0904;4.4308;
666.6000;0.0895;4.4308;
666.9000;0.0887;4.4235;
667.2000;0.0904;4.4210;
667.5000;0.0847;4.4064;
667.8000;0.0920;4.4284;
668.1000;0.0920;4.4235;
668.4000;0.0912;4.4210;
668.7000;0.0912;4.4259;
669.0000;0.0912;4.4333;
669.3000;0.0912;4.4357;
669.6000;0.0871;4.4333;
669.9000;0.0904;4.4455;
670.2000;0.0904;4.4381;
670.5000;0.0961;4.4455;
670.8000;0.0895;4.4235;
671.1000;0.0879;4.4235;
671.4000;0.0895;4.4161;
671.7000;0.0904;4.4064;
672.0000;0.0887;4.4015;
672.3000;0.0871;4.4015;
672.6000;0.0920;4.4186;
672.9000;0.0912;4.4088;
673.2000;0.0904;4.4015;
673.5000;0.0798;4.3819;
673.8000;0.0920;4.4064;
674.1000;0.0920;4.4088;
674.4000;0.0920;4.4161;
674.7000;0.0863;4.4015;
675.0000;0.0863;4.4039;
675.3000;0.0912;4.4186;
675.6000;0.0887;4.4015;
675.9000;0.0895;4.4088;
676.2000;0.0961;4.4259;
676.5000;0.0904;4.4161;
676.8000;0.0871;4.4088;
677.1000;0.0895;4.4186;
677.4000;0.0887;4.4235;
677.7000;0.0912;4.4308;
678.0000;0.0871;4.4137;
678.3000;0.0887;4.4137;
678.6000;0.0879;4.4039;
678.9000;0.0912;4.4064;
679.2000;0.0920;4.4112;
679.5000;0.0895;4.4064;
679.8000;0.0904;4.4088;
680.1000;0.0871;4.4015;
680.4000;0.0904;4.4112;
680.7000;0.1001;4.4357;
681.0000;0.0904;4.4064;
681.3000;0.0904;4.4039;
681.6000;0.0977;4.4357;
681.9000;0.0904;4.4186;
682.2000;0.0912;4.4210;
682.5000;0.0871;4.4112;
682.8000;0.0912;4.4161;
683.1000;0.0895;4.4137;
683.4000;0.0912;4.4137;
683.7000;0.0847;4.3966;
684.0000;0.0904;4.3990;
684.3000;0.0895;4.3941;
684.6000;0.0895;4.3941;
684.9000;0.0887;4.3990;
685.2000;0.0904;4.4112;
685.5000;0.0904;4.4088;
685.8000;0.0879;4.4015;
686.1000;0.0887;4.4064;
686.4000;0.0871;4.4064;
686.7000;0.0887;4.4088;
687.0000;0.0904;4.4112;
687.3000;0.0879;4.4064;
687.6000;0.0855;4.3966;
687.9000;0.0887;4.4161;
688.2000;0.0904;4.4186;
688.5000;0.0928;4.4186;
688.8000;0.0895;4.4064;
689.1000;0.0895;4.3990;
689.4000;0.0904;4.4039;
689.7000;0.1001;4.4284;
690.0000;0.0895;4.3941;
690.3000;0.0904;4.3966;
690.6000;0.0895;4.4015;
690.9000;0.0977;4.4186;
691.2000;0.0871;4.3795;
691.5000;0.0879;4.3892;
691.8000;0.0855;4.3819;
692.1000;0.0887;4.3892;
692.4000;0.0871;4.3990;
692.7000;0.0871;4.4015;
693.0000;0.0912;4.4088;
693.3000;0.0855;4.3966;
693.6000;0.0904;4.4137;
693.9000;0.0855;4.4064;
694.2000;0.0904;4.3990;
694.5000;0.0961;4.4039;
694.8000;0.0887;4.3990;
695.1000;0.0871;4.4015;
695.4000;0.0895;4.4064;
695.7000;0.0912;4.3966;
696.0000;0.0904;4.4039;
696.3000;0.0879;4.4137;
696.6000;0.0879;4.4210;
696.9000;0.0912;4.4284;
697.2000;0.0904;4.4259;
697.5000;0.0895;4.4357;
697.8000;0.0895;4.4259;
698.1000;0.0879;4.4210;
698.4000;0.0879;4.4210;
698.7000;0.0895;4.4161;
699.0000;0.0944;4.4259;
699.3000;0.0912;4.4186;
699.6000;0.0879;4.4015;
699.9000;0.0895;4.4064;
700.2000;0.0871;4.4064;
700.5000;0.0879;4.4064;
700.8000;0.0887;4.4039;
701.1000;0.0814;4.3721;
701.4000;0.0871;4.3868;
701.7000;0.0838;4.3721;
702.0000;0.0928;4.4015;
702.3000;0.0887;4.3941;
702.6000;0.0863;4.3892;
702.9000;0.0879;4.3892;
703.2000;0.0879;4.3819;
703.5000;0.0887;4.3868;
703.8000;0.0879;4.3819;
704.1000;0.0814;4.3623;
704.4000;0.0904;4.3917;
704.7000;0.0814;4.3697;
705.0000;0.0895;4.3917;
705.3000;0.0806;4.3574;
705.6000;0.0887;4.3819;
705.9000;0.0887;4.3892;
706.2000;0.0847;4.3721;
706.5000;0.0912;4.3966;
706.8000;0.0814;4.3428;
707.1000;0.0904;4.3648;
707.4000;0.0904;4.3574;
707.7000;0.0895;4.3574;
708.0000;0.0879;4.3574;
708.3000;0.0904;4.3599;
708.6000;0.0936;4.3721;
708.9000;0.0887;4.3648;
709.2000;0.0895;4.3697;
709.5000;0.0904;4.3819;
709.8000;0.0887;4.3868;
710.1000;0.0879;4.3868;
710.4000;0.0887;4.3892;
710.7000;0.0871;4.3868;
711.0000;0.0871;4.3892;
711.3000;0.0912;4.4015;
711.6000;0.0871;4.3990;
711.9000;0.0863;4.4112;
712.2000;0.0879;4.4186;
712.5000;0.0879;4.4112;
712.8000;0.0879;4.4088;
713.1000;0.0887;4.4088;
713.4000;0.0895;4.4039;
713.7000;0.0904;4.4064;
714.0000;0.0920;4.4112;
714.3000;0.0863;4.4039;
714.6000;0.0887;4.4210;
714.9000;0.0944;4.4430;
715.2000;0.0904;4.4284;
715.5000;0.0855;4.4088;
715.8000;0.0871;4.4064;
716.1000;0.0920;4.4161;
716.4000;0.0928;4.4235;
716.7000;0.0879;4.4064;
717.0000;0.0904;4.4112;
717.3000;0.0895;4.4088;
717.6000;0.0887;4.4088;
717.9000;0.0895;4.4112;
718.2000;0.0895;4.4137;
718.5000;0.0855;4.4015;
718.8000;0.0838;4.3917;
719.1000;0.0895;4.4015;
719.4000;0.0961;4.4210;
719.7000;0.0895;4.4112;
720.0000;0.0757;4.3770;
720.3000;0.0912;4.4137;
720.6000;0.0895;4.4015;
720.9000;0.0879;4.3941;
721.2000;0.0879;4.3941;
721.5000;0.0879;4.3990;
721.8000;0.0871;4.3966;
722.1000;0.0912;4.3941;
722.4000;0.0879;4.3941;
722.7000;0.0904;4.4015;
723.0000;0.0879;4.3966;
723.3000;0.0887;4.4088;
723.6000;0.0912;4.4112;
723.9000;0.0838;4.3795;
724.2000;0.0879;4.3819;
724.5000;0.0879;4.3795;
724.8000;0.0928;4.3843;
725.1000;0.0952;4.3990;
725.4000;0.0879;4.3746;
725.7000;0.0879;4.3648;
726.0000;0.0887;4.3623;
726.3000;0.0969;4.3941;
726.6000;0.0887;4.3746;
726.9000;0.0863;4.3648;
727.2000;0.0895;4.3746;
727.5000;0.0863;4.3623;
727.8000;0.0895;4.3795;
728.1000;0.0879;4.3843;
728.4000;0.0838;4.3770;
728.7000;0.0904;4.3941;
729.0000;0.0855;4.3819;
729.3000;0.0912;4.3990;
729.6000;0.0920;4.3917;
729.9000;0.0879;4.3795;
730.2000;0.0895;4.3941;
730.5000;0.0944;4.4112;
730.8000;0.0879;4.3917;
731.1000;0.0887;4.3892;
731.4000;0.0863;4.3795;
731.7000;0.0871;4.3868;
732.0000;0.0952;4.4161;
732.3000;0.0904;4.3966;
732.6000;0.0879;4.3966;
732.9000;0.0904;4.3990;
733.2000;0.0887;4.3990;
733.5000;0.0887;4.4015;
733.8000;0.0904;4.4161;
734.1000;0.0887;4.4137;
734.4000;0.0879;4.4088;
734.7000;0.0863;4.4210;
735.0000;0.0887;4.4259;
735.3000;0.0847;4.4112;
735.6000;0.0961;4.4430;
735.9000;0.0895;4.4210;
736.2000;0.0871;4.4112;
736.5000;0.0879;4.4064;
736.8000;0.0904;4.4088;
737.1000;0.0871;4.4064;
737.4000;0.0887;4.4112;
737.7000;0.0887;4.4112;
738.0000;0.0741;4.3648;
738.3000;0.0879;4.4137;
738.6000;0.0879;4.4186;
738.9000;0.0871;4.4186;
739.2000;0.1018;4.4553;
739.5000;0.0871;4.4039;
739.8000;0.0895;4.4259;
740.1000;0.0904;4.4161;
740.4000;0.0887;4.4259;
740.7000;0.0895;4.4210;
741.0000;0.0895;4.4259;
741.3000;0.0879;4.4186;
741.6000;0.0879;4.4137;
741.9000;0.0895;4.4137;
742.2000;0.0952;4.4333;
742.5000;0.0912;4.4161;
742.8000;0.0895;4.4088;
743.1000;0.0879;4.3966;
743.4000;0.0879;4.3966;
743.7000;0.0847;4.4015;
744.0000;0.0920;4.4161;
744.3000;0.0887;4.4064;
744.6000;0.0871;4.3966;
744.9000;0.0895;4.3917;
745.2000;0.0887;4.4015;
745.5000;0.0879;4.4015;
745.8000;0.0855;4.3868;
746.1000;0.0871;4.4015;
746.4000;0.0879;4.4039;
746.7000;0.0871;4.3966;
747.0000;0.0904;4.3990;
747.3000;0.0871;4.3941;
747.6000;0.0887;4.3990;
747.9000;0.1026;4.4406;
748.2000;0.0871;4.3990;
748.5000;0.0887;4.4088;
748.8000;0.0855;4.3941;
749.1000;0.0887;4.4039;
749.4000;0.0895;4.4161;
749.7000;0.0855;4.4039;
750.0000;0.0879;4.4088;
750.3000;0.0830;4.3868;
750.6000;0.0895;4.4137;
750.9000;0.0879;4.4064;
751.2000;0.0969;4.4308;
751.5000;0.0912;4.4112;
751.8000;0.0895;4.4088;
752.1000;0.0871;4.4015;
752.4000;0.0895;4.4064;
752.7000;0.0879;4.4235;
753.0000;0.0781;4.4039;
753.3000;0.0879;4.4308;
753.6000;0.0961;4.4528;
753.9000;0.0863;4.4186;
754.2000;0.0871;4.4088;
754.5000;0.0936;4.4284;
754.8000;0.0887;4.4112;
755.1000;0.0863;4.4137;
755.4000;0.0806;4.4039;
755.7000;0.0879;4.4137;
756.0000;0.0879;4.4112;
756.3000;0.0887;4.4186;
756.6000;0.0879;4.4112;
756.9000;0.0887;4.4210;
757.2000;0.0871;4.4186;
757.5000;0.0879;4.4112;
757.8000;0.0879;4.4088;
758.1000;0.0855;4.4137;
758.4000;0.0895;4.4235;
758.7000;0.0879;4.4210;
759.0000;0.0904;4.4210;
759.3000;0.0912;4.4284;
759.6000;0.0879;4.4235;
759.9000;0.0887;4.4357;
760.2000;0.0904;4.4308;
760.5000;0.0863;4.4088;
760.8000;0.0912;4.4112;
761.1000;0.0838;4.3966;
761.4000;0.0912;4.4186;
761.7000;0.0871;4.4112;
762.0000;0.0887;4.4161;
762.3000;0.0863;4.3966;
762.6000;0.0904;4.4088;
762.9000;0.0855;4.4064;
763.2000;0.0871;4.4161;
763.5000;0.0895;4.4186;
763.8000;0.0887;4.4210;
764.1000;0.0871;4.4137;
764.4000;0.0887;4.4161;
764.7000;0.0830;4.3917;
765.0000;0.0904;4.4186;
765.3000;0.0838;4.4039;
765.6000;0.0863;4.4064;
765.9000;0.0887;4.4112;
766.2000;0.0863;4.4112;
766.5000;0.0871;4.4088;
766.8000;0.0887;4.4112;
767.1000;0.0855;4.4112;
767.4000;0.0871;4.4186;
767.7000;0.0895;4.4284;
768.0000;0.0895;4.4333;
768.3000;0.0887;4.4406;
768.6000;0.0838;4.4137;
768.9000;0.0879;4.4284;
769.2000;0.0887;4.4259;
769.5000;0.0887;4.4284;
769.8000;0.0887;4.4235;
770.1000;0.0863;4.4210;
770.4000;0.0871;4.4186;
770.7000;0.0822;4.3868;
771.0000;0.0912;4.4088;
771.3000;0.0863;4.3941;
771.6000;0.0871;4.4015;
771.9000;0.0952;4.4308;
772.2000;0.0879;4.4039;
772.5000;0.0879;4.4064;
772.8000;0.0863;4.4064;
773.1000;0.0904;4.4235;
773.4000;0.0879;4.4112;
773.7000;0.0781;4.3819;
774.0000;0.0879;4.4064;
774.3000;0.0887;4.4088;
774.6000;0.0912;4.4210;
774.9000;0.0855;4.4112;
775.2000;0.0863;4.4064;
775.5000;0.0887;4.4064;
775.8000;0.0855;4.3941;
776.1000;0.0887;4.4015;
776.4000;0.0871;4.3966;
776.7000;0.0855;4.3917;
777.0000;0.0887;4.4088;
777.3000;0.0904;4.4064;
777.6000;0.0838;4.3892;
777.9000;0.0863;4.3990;
778.2000;0.0863;4.3966;
778.5000;0.0904;4.4015;
778.8000;0.0879;4.3990;
779.1000;0.0879;4.4015;
779.4000;0.0887;4.3990;
779.7000;0.0904;4.4015;
780.0000;0.0847;4.3892;
780.3000;0.0855;4.3941;
780.6000;0.0895;4.3966;
780.9000;0.0904;4.4088;
781.2000;0.0879;4.3966;
781.5000;0.0863;4.3941;
781.8000;0.0887;4.3917;
782.1000;0.0904;4.3941;
782.4000;0.0863;4.3868;
782.7000;0.0871;4.3892;
783.0000;0.0863;4.3941;
783.3000;0.0887;4.3990;
783.6000;0.0879;4.3941;
783.9000;0.0863;4.3892;
784.2000;0.0879;4.3966;
784.5000;0.0781;4.3721;
784.8000;0.0912;4.4112;
785.1000;0.0887;4.4039;
785.4000;0.0920;4.4112;
785.7000;0.0912;4.3941;
786.0000;0.0895;4.3917;
786.3000;0.0895;4.3941;
786.6000;0.0895;4.3966;
786.9000;0.0879;4.3941;
787.2000;0.0838;4.3819;
787.5000;0.0798;4.3746;
787.8000;0.0863;4.3917;
788.1000;0.0895;4.3990;
788.4000;0.0904;4.4015;
788.7000;0.0887;4.3941;
789.0000;0.0855;4.3795;
789.3000;0.0936;4.4064;
789.6000;0.0879;4.3819;
789.9000;0.0887;4.3868;
790.2000;0.1001;4.4259;
790.5000;0.0961;4.4088;
790.8000;0.0895;4.3917;
791.1000;0.0904;4.3892;
791.4000;0.0798;4.3623;
791.7000;0.0871;4.3843;
792.0000;0.0920;4.3941;
792.3000;0.0887;4.3917;
792.6000;0.0895;4.3892;
792.9000;0.0855;4.3795;
793.2000;0.0904;4.3843;
793.5000;0.0855;4.3746;
793.8000;0.0879;4.3795;
794.1000;0.0904;4.3917;
794.4000;0.0887;4.3868;
794.7000;0.0847;4.3697;
795.0000;0.0895;4.3795;
795.3000;0.0895;4.3892;
795.6000;0.0863;4.3795;
795.9000;0.0830;4.3672;
796.2000;0.0887;4.3770;
796.5000;0.0863;4.3623;
796.8000;0.0904;4.3746;
797.1000;0.0814;4.3599;
797.4000;0.0887;4.3819;
797.7000;0.0977;4.4088;
798.0000;0.0936;4.3917;
798.3000;0.0871;4.3623;
798.6000;0.0871;4.3672;
798.9000;0.0895;4.3795;
799.2000;0.0879;4.3819;
799.5000;0.0879;4.3819;
799.8000;0.0895;4.3770;
800.1000;0.0912;4.3868;
800.4000;0.0871;4.3843;
800.7000;0.0912;4.3966;
801.0000;0.0895;4.4015;
801.3000;0.0879;4.4088;
801.6000;0.0871;4.4039;
801.9000;0.0879;4.4088;
802.2000;0.0879;4.4161;
802.5000;0.0847;4.4064;
802.8000;0.0879;4.4112;
803.1000;0.0847;4.4015;
803.4000;0.0871;4.4015;
803.7000;0.0904;4.4064;
804.0000;0.0863;4.3966;
804.3000;0.0863;4.3990;
804.6000;0.0944;4.4259;
804.9000;0.0879;4.4015;
805.2000;0.0895;4.4064;
805.5000;0.0879;4.4015;
805.8000;0.0961;4.4259;
806.1000;0.0920;4.4112;
806.4000;0.0871;4.3966;
806.7000;0.0806;4.3843;
807.0000;0.0855;4.3941;
807.3000;0.0863;4.3917;
807.6000;0.0895;4.4015;
807.9000;0.0863;4.3917;
808.2000;0.0871;4.3917;
808.5000;0.0863;4.3966;
808.8000;0.0887;4.4015;
809.1000;0.0879;4.3990;
809.4000;0.0895;4.3941;
809.7000;0.0879;4.3917;
810.0000;0.0830;4.3770;
810.3000;0.0863;4.3892;
810.6000;0.0879;4.3892;
810.9000;0.0887;4.3990;
811.2000;0.0904;4.4064;
811.5000;0.1001;4.4357;
811.8000;0.0895;4.4039;
812.1000;0.0863;4.4039;
812.4000;0.0871;4.4088;
812.7000;0.0879;4.4137;
813.0000;0.0871;4.4161;
813.3000;0.0830;4.4088;
813.6000;0.0928;4.4284;
813.9000;0.0863;4.4064;
814.2000;0.0879;4.4088;
814.5000;0.0871;4.4088;
814.8000;0.0855;4.3941;
815.1000;0.0871;4.4064;
815.4000;0.0887;4.3966;
815.7000;0.0708;4.3403;
816.0000;0.0855;4.3892;
816.3000;0.0895;4.3990;
816.6000;0.0855;4.3917;
816.9000;0.0871;4.3966;
817.2000;0.0879;4.3966;
817.5000;0.0806;4.3746;
817.8000;0.0871;4.3941;
818.1000;0.0887;4.4015;
818.4000;0.0871;4.4088;
818.7000;0.0895;4.4210;
819.0000;0.0944;4.4259;
819.3000;0.0879;4.4064;
819.6000;0.0863;4.4039;
819.9000;0.0863;4.4039;
820.2000;0.0887;4.4064;
820.5000;0.0806;4.3892;
820.8000;0.0920;4.4161;
821.1000;0.0879;4.4015;
821.4000;0.0879;4.4137;
821.7000;0.0895;4.4137;
822.0000;0.0863;4.4112;
822.3000;0.0855;4.4112;
822.6000;0.0928;4.4406;
822.9000;0.0871;4.4186;
823.2000;0.0855;4.4137;
823.5000;0.0863;4.4064;
823.8000;0.0838;4.4064;
824.1000;0.0895;4.4161;
824.4000;0.0879;4.4088;
824.7000;0.0895;4.3966;
825.0000;0.0879;4.4039;
825.3000;0.0879;4.4112;
825.6000;0.0863;4.4235;
825.9000;0.0863;4.4137;
826.2000;0.0879;4.4161;
826.5000;0.0879;4.4259;
826.8000;0.0879;4.4210;
827.1000;0.0879;4.4161;
827.4000;0.0871;4.4064;
827.7000;0.0887;4.4186;
828.0000;0.0773;4.3795;
828.3000;0.0871;4.4039;
828.6000;0.0871;4.4088;
828.9000;0.0895;4.4210;
829.2000;0.0871;4.4161;
829.5000;0.0871;4.4137;
829.8000;0.0847;4.4064;
830.1000;0.0895;4.4161;
830.4000;0.0879;4.4112;
830.7000;0.0847;4.4039;
831.0000;0.0855;4.3990;
831.3000;0.0895;4.4137;
831.6000;0.0871;4.4015;
831.9000;0.0871;4.3990;
832.2000;0.0855;4.3966;
832.5000;0.0871;4.4112;
832.8000;0.0895;4.4112;
833.1000;0.0871;4.4064;
833.4000;0.0895;4.4088;
833.7000;0.0830;4.3892;
834.0000;0.0952;4.4137;
834.3000;0.0887;4.3966;
834.6000;0.0855;4.3966;
834.9000;0.0895;4.4112;
835.2000;0.0863;4.4064;
835.5000;0.0871;4.4137;
835.8000;0.0847;4.3966;
836.1000;0.0879;4.3990;
836.4000;0.0887;4.4039;
836.7000;0.0863;4.4015;
837.0000;0.0879;4.4064;
837.3000;0.0847;4.4015;
837.6000;0.0879;4.4137;
837.9000;0.0895;4.4137;
838.2000;0.0879;4.4088;
838.5000;0.0830;4.3917;
838.8000;0.0855;4.4015;
839.1000;0.0863;4.4064;
839.4000;0.0904;4.4137;
839.7000;0.0904;4.4088;
840.0000;0.0871;4.3966;
840.3000;0.0871;4.4088;
840.6000;0.0871;4.4137;
840.9000;0.0830;4.3941;
841.2000;0.0879;4.4039;
841.5000;0.0879;4.3990;
841.8000;0.0920;4.4015;
842.1000;0.0928;4.4112;
842.4000;0.0871;4.4088;
842.7000;0.0855;4.4039;
843.0000;0.0887;4.4161;
843.3000;0.0798;4.3941;
843.6000;0.0871;4.4015;
843.9000;0.0822;4.3892;
844.2000;0.0871;4.4088;
844.5000;0.0814;4.3966;
844.8000;0.0871;4.4137;
845.1000;0.0944;4.4235;
845.4000;0.0757;4.3795;
845.7000;0.0863;4.4039;
846.0000;0.0863;4.3990;
846.3000;0.0863;4.3990;
846.6000;0.0887;4.3990;
846.9000;0.0863;4.4064;
847.2000;0.0887;4.4112;
847.5000;0.0920;4.4235;
847.8000;0.0863;4.4015;
848.1000;0.0879;4.4186;
848.4000;0.0871;4.4137;
848.7000;0.0879;4.4137;
849.0000;0.0879;4.4064;
849.3000;0.0904;4.4137;
849.6000;0.0887;4.4137;
849.9000;0.0863;4.4088;
850.2000;0.0847;4.4015;
850.5000;0.0879;4.4137;
850.8000;0.0863;4.4064;
851.1000;0.0904;4.4112;
851.4000;0.0879;4.4112;
851.7000;0.0871;4.4112;
852.0000;0.0879;4.4137;
852.3000;0.0822;4.4137;
852.6000;0.0863;4.4161;
852.9000;0.0855;4.4112;
853.2000;0.0863;4.4112;
853.5000;0.0887;4.4112;
853.8000;0.0904;4.4210;
854.1000;0.0879;4.4112;
854.4000;0.0895;4.4137;
854.7000;0.0863;4.4088;
855.0000;0.0855;4.4064;
855.3000;0.0879;4.4112;
855.6000;0.0871;4.4064;
855.9000;0.0887;4.4112;
856.2000;0.0855;4.4039;
856.5000;0.0863;4.4039;
856.8000;0.0879;4.4259;
857.1000;0.0871;4.4284;
857.4000;0.0944;4.4430;
857.7000;0.0855;4.4210;
858.0000;0.0863;4.4259;
858.3000;0.0781;4.3917;
858.6000;0.0895;4.4235;
858.9000;0.0904;4.4235;
859.2000;0.0838;4.4064;
859.5000;0.0879;4.4259;
859.8000;0.0765;4.3892;
860.1000;0.0855;4.4161;
860.4000;0.0830;4.4039;
860.7000;0.0887;4.4186;
861.0000;0.0863;4.4112;
861.3000;0.0863;4.4161;
861.6000;0.0790;4.3892;
861.9000;0.0838;4.4015;
862.2000;0.0879;4.4088;
862.5000;0.0904;4.4161;
862.8000;0.0887;4.4039;
863.1000;0.0895;4.4064;
863.4000;0.0855;4.4088;
863.7000;0.0871;4.4039;
864.0000;0.0904;4.4186;
864.3000;0.0879;4.4088;
864.6000;0.0806;4.3941;
864.9000;0.0863;4.4088;
865.2000;0.0887;4.4186;
865.5000;0.0871;4.4186;
865.8000;0.0863;4.4235;
866.1000;0.0830;4.4064;
866.4000;0.0847;4.4112;
866.7000;0.0863;4.4137;
867.0000;0.0928;4.4308;
867.3000;0.0871;4.4186;
867.6000;0.0887;4.4235;
867.9000;0.0904;4.4161;
868.2000;0.0855;4.4088;
868.5000;0.0895;4.4137;
868.8000;0.0871;4.4210;
869.1000;0.0936;4.4504;
869.4000;0.0928;4.4479;
869.7000;0.0863;4.4259;
870.0000;0.0855;4.4161;
870.3000;0.0887;4.4186;
870.6000;0.0806;4.3917;
870.9000;0.0904;4.4186;
871.2000;0.0871;4.4088;
871.5000;0.0863;4.4088;
871.8000;0.0887;4.4137;
872.1000;0.0838;4.4137;
872.4000;0.0863;4.4161;
872.7000;0.0724;4.3843;
873.0000;0.0887;4.4210;
873.3000;0.0871;4.4235;
873.6000;0.0847;4.4112;
873.9000;0.0863;4.4186;
874.2000;0.0871;4.4137;
874.5000;0.0871;4.4235;
874.8000;0.0887;4.4284;
875.1000;0.0887;4.4235;
875.4000;0.0871;4.4137;
875.7000;0.0871;4.4088;
876.0000;0.0879;4.4186;
876.3000;0.0871;4.4112;
876.6000;0.0863;4.4161;
876.9000;0.0912;4.4284;
877.2000;0.0838;4.4210;
877.5000;0.0863;4.4333;
877.8000;0.0879;4.4284;
878.1000;0.0879;4.4308;
878.4000;0.0879;4.4284;
878.7000;0.0871;4.4235;
879.0000;0.0814;4.4039;
879.3000;0.0904;4.4308;
879.6000;0.0879;4.4161;
879.9000;0.0879;4.4284;
880.2000;0.0838;4.4210;
880.5000;0.0871;4.4308;
880.8000;0.0806;4.3966;
881.1000;0.0822;4.3941;
881.4000;0.0838;4.4112;
881.7000;0.0871;4.4112;
882.0000;0.0830;4.4039;
882.3000;0.0928;4.4284;
882.6000;0.0871;4.4088;
882.9000;0.0790;4.3843;
883.2000;0.0863;4.4064;
883.5000;0.0920;4.4308;
883.8000;0.0863;4.4088;
884.1000;0.0871;4.4186;
884.4000;0.0871;4.4186;
884.7000;0.0863;4.4137;
885.0000;0.0733;4.3795;
885.3000;0.0871;4.4259;
885.6000;0.0838;4.4210;
885.9000;0.0814;4.4186;
886.2000;0.0847;4.4137;
886.5000;0.0895;4.4259;
886.8000;0.0855;4.4259;
887.1000;0.0847;4.4186;
887.4000;0.0887;4.4235;
887.7000;0.0863;4.4210;
888.0000;0.0912;4.4455;
888.3000;0.0879;4.4308;
888.6000;0.0920;4.4333;
888.9000;0.0847;4.4088;
889.2000;0.0806;4.3892;
889.5000;0.0879;4.4112;
889.8000;0.0871;4.4015;
890.1000;0.0863;4.3941;
890.4000;0.0871;4.3941;
890.7000;0.0855;4.3892;
891.0000;0.0863;4.3990;
891.3000;0.0879;4.4112;
891.6000;0.0871;4.4259;
891.9000;0.0863;4.4186;
892.2000;0.0895;4.4284;
892.5000;0.0912;4.4381;
892.8000;0.0871;4.4259;
893.1000;0.0855;4.4259;
893.4000;0.0855;4.4284;
893.7000;0.0863;4.4259;
894.0000;0.0879;4.4308;
894.3000;0.0879;4.4308;
894.6000;0.0920;4.4430;
894.9000;0.0904;4.4406;
895.2000;0.0871;4.4259;
895.5000;0.0887;4.4357;
895.8000;0.0855;4.4235;
896.1000;0.0871;4.4357;
896.4000;0.0887;4.4333;
896.7000;0.0895;4.4406;
897.0000;0.0879;4.4284;
897.3000;0.0887;4.4308;
897.6000;0.0871;4.4186;
897.9000;0.0871;4.4235;
898.2000;0.0887;4.4161;
898.5000;0.0887;4.4186;
898.8000;0.0879;4.4137;
899.1000;0.0887;4.4186;
899.4000;0.0871;4.4210;
899.7000;0.0928;4.4430;
900.0000;0.0895;4.4333;
900.3000;0.0879;4.4308;
900.6000;0.0863;4.4308;
900.9000;0.0855;4.4308;
901.2000;0.0871;4.4333;
901.5000;0.0830;4.4308;
901.8000;0.0855;4.4357;
902.1000;0.0961;4.4650;
902.4000;0.0863;4.4357;
902.7000;0.0887;4.4455;
903.0000;0.0887;4.4455;
903.3000;0.0830;4.4284;
903.6000;0.0863;4.4284;
903.9000;0.0879;4.4308;
904.2000;0.0977;4.4601;
904.5000;0.0847;4.4259;
904.8000;0.0863;4.4333;
905.1000;0.0961;4.4479;
905.4000;0.0855;4.4210;
905.7000;0.0847;4.4112;
906.0000;0.0887;4.4235;
906.3000;0.0879;4.4210;
906.6000;0.0871;4.4259;
906.9000;0.0871;4.4308;
907.2000;0.0773;4.4064;
907.5000;0.0822;4.4112;
907.8000;0.0879;4.4406;
908.1000;0.0879;4.4333;
908.4000;0.0806;4.4186;
908.7000;0.0871;4.4357;
909.0000;0.0952;4.4626;
909.3000;0.0879;4.4284;
909.6000;0.0733;4.3917;
909.9000;0.0887;4.4357;
910.2000;0.0822;4.4235;
910.5000;0.0847;4.4259;
910.8000;0.0879;4.4357;
911.1000;0.0920;4.4430;
911.4000;0.0830;4.4112;
911.7000;0.0879;4.4186;
912.0000;0.0871;4.4235;
912.3000;0.0879;4.4259;
912.6000;0.0952;4.4528;
912.9000;0.0871;4.4235;
913.2000;0.0887;4.4308;
913.5000;0.0863;4.4284;
913.8000;0.0871;4.4284;
914.1000;0.0863;4.4210;
914.4000;0.0895;4.4259;
914.7000;0.0879;4.4210;
915.0000;0.0904;4.4284;
915.3000;0.0895;4.4259;
915.6000;0.0855;4.4186;
915.9000;0.0871;4.4284;
916.2000;0.0855;4.4235;
916.5000;0.0887;4.4284;
916.8000;0.0871;4.4210;
917.1000;0.0871;4.4308;
917.4000;0.0863;4.4210;
917.7000;0.0887;4.4235;
918.0000;0.0871;4.4333;
918.3000;0.0879;4.4308;
918.6000;0.0855;4.4308;
918.9000;0.0920;4.4357;
919.2000;0.0895;4.4333;
919.5000;0.0863;4.4161;
919.8000;0.0798;4.4088;
920.1000;0.0871;4.4235;
920.4000;0.0863;4.4210;
920.7000;0.0879;4.4186;
921.0000;0.0863;4.4235;
921.3000;0.0871;4.4235;
921.6000;0.0912;4.4381;
921.9000;0.0887;4.4308;
922.2000;0.0855;4.4186;
922.5000;0.0863;4.4112;
922.8000;0.0871;4.4112;
923.1000;0.0887;4.4186;
923.4000;0.0871;4.4259;
923.7000;0.0855;4.4186;
924.0000;0.0895;4.4308;
924.3000;0.0863;4.4186;
924.6000;0.0847;4.4161;
924.9000;0.0871;4.4210;
925.2000;0.0863;4.4259;
925.5000;0.0871;4.4284;
925.8000;0.0871;4.4235;
926.1000;0.0879;4.4210;
926.4000;0.0871;4.4308;
926.7000;0.0871;4.4381;
927.0000;0.0961;4.4601;
927.3000;0.0871;4.4308;
927.6000;0.0879;4.4430;
927.9000;0.0871;4.4357;
928.2000;0.0814;4.4137;
928.5000;0.0871;4.4259;
928.8000;0.0895;4.4308;
929.1000;0.0847;4.4210;
929.4000;0.0912;4.4504;
929.7000;0.0887;4.4357;
930.0000;0.0887;4.4357;
930.3000;0.0879;4.4259;
930.6000;0.0871;4.4235;
930.9000;0.0863;4.4210;
931.2000;0.0879;4.4064;
931.5000;0.0904;4.4210;
931.8000;0.0887;4.4235;
932.1000;0.0879;4.4186;
932.4000;0.0863;4.4210;
932.7000;0.0879;4.4210;
933.0000;0.0863;4.4039;
933.3000;0.0887;4.4088;
933.6000;0.0871;4.4039;
933.9000;0.0830;4.4039;
934.2000;0.0879;4.4186;
934.5000;0.0912;4.4333;
934.8000;0.0879;4.4259;
935.1000;0.0781;4.3966;
935.4000;0.0838;4.4112;
935.7000;0.0830;4.3966;
936.0000;0.0847;4.4064;
936.3000;0.0798;4.4015;
936.6000;0.0814;4.3966;
936.9000;0.0879;4.4039;
937.2000;0.0863;4.4039;
937.5000;0.0879;4.4112;
937.8000;0.0904;4.4112;
938.1000;0.0961;4.4357;
938.4000;0.0863;4.4088;
938.7000;0.0855;4.3966;
939.0000;0.0879;4.4039;
939.3000;0.0904;4.4235;
939.6000;0.0969;4.4406;
939.9000;0.0879;4.4161;
940.2000;0.0904;4.4210;
940.5000;0.0879;4.4235;
940.8000;0.0822;4.4137;
941.1000;0.0961;4.4553;
941.4000;0.0904;4.4455;
941.7000;0.0912;4.4406;
942.0000;0.0871;4.4406;
942.3000;0.0871;4.4381;
942.6000;0.1026;4.4822;
942.9000;0.0871;4.4357;
943.2000;0.0855;4.4406;
943.5000;0.0895;4.4479;
943.8000;0.0716;4.3990;
944.1000;0.0863;4.4430;
944.4000;0.0871;4.4430;
944.7000;0.0855;4.4333;
945.0000;0.0944;4.4577;
945.3000;0.0863;4.4381;
945.6000;0.0855;4.4308;
945.9000;0.0863;4.4357;
946.2000;0.0855;4.4357;
946.5000;0.0879;4.4357;
946.8000;0.0904;4.4430;
947.1000;0.0871;4.4210;
947.4000;0.0879;4.4137;
947.7000;0.0830;4.4015;
948.0000;0.0879;4.4137;
948.3000;0.0887;4.4210;
948.6000;0.0879;4.4235;
948.9000;0.0871;4.4186;
949.2000;0.0871;4.4210;
949.5000;0.0863;4.4137;
949.8000;0.0822;4.4015;
950.1000;0.0904;4.4210;
950.4000;0.0863;4.4112;
950.7000;0.0863;4.4235;
951.0000;0.0887;4.4333;
951.3000;0.0863;4.4284;
951.6000;0.0847;4.4186;
951.9000;0.0871;4.4284;
952.2000;0.0855;4.4137;
952.5000;0.0879;4.4137;
952.8000;0.0855;4.4039;
953.1000;0.0855;4.4088;
953.4000;0.0879;4.4137;
953.7000;0.0879;4.4186;
954.0000;0.0928;4.4528;
954.3000;0.0879;4.4406;
954.6000;0.0863;4.4406;
954.9000;0.0847;4.4308;
955.2000;0.0847;4.4235;
955.5000;0.0871;4.4235;
955.8000;0.0814;4.4112;
956.1000;0.0871;4.4308;
956.4000;0.0895;4.4381;
956.7000;0.0920;4.4479;
957.0000;0.0847;4.4186;
957.3000;0.0863;4.4186;
957.6000;0.0887;4.4259;
957.9000;0.0895;4.4284;
958.2000;0.0855;4.4259;
958.5000;0.0952;4.4504;
958.8000;0.0855;4.4161;
959.1000;0.0879;4.4308;
959.4000;0.0887;4.4357;
959.7000;0.0855;4.4308;
960.0000;0.0790;4.4112;
960.3000;0.0822;4.4210;
960.6000;0.0814;4.4088;
960.9000;0.0887;4.4186;
961.2000;0.0993;4.4528;
961.5000;0.0895;4.4161;
961.8000;0.0904;4.4210;
962.1000;0.0879;4.4064;
962.4000;0.0855;4.4015;
962.7000;0.0863;4.4112;
963.0000;0.0855;4.4112;
963.3000;0.0887;4.4259;
963.6000;0.0928;4.4381;
963.9000;0.0904;4.4308;
964.2000;0.0838;4.4235;
964.5000;0.0855;4.4112;
964.8000;0.0912;4.4161;
965.1000;0.0879;4.4161;
965.4000;0.0765;4.3868;
965.7000;0.0895;4.4161;
966.0000;0.0863;4.4112;
966.3000;0.0871;4.4088;
966.6000;0.0830;4.3868;
966.9000;0.0855;4.3868;
967.2000;0.0855;4.3892;
967.5000;0.0855;4.3868;
967.8000;0.0936;4.4112;
968.1000;0.0855;4.3990;
968.4000;0.0814;4.3868;
968.7000;0.0871;4.4088;
969.0000;0.0863;4.4088;
969.3000;0.0895;4.4186;
969.6000;0.0887;4.4088;
969.9000;0.0871;4.4112;
970.2000;0.0863;4.4015;
970.5000;0.0863;4.4015;
970.8000;0.0855;4.4039;
971.1000;0.0871;4.4039;
971.4000;0.0855;4.4015;
971.7000;0.0863;4.4039;
972.0000;0.0847;4.3917;
972.3000;0.0871;4.3917;
972.6000;0.0871;4.3892;
972.9000;0.0887;4.3966;
973.2000;0.0879;4.3966;
973.5000;0.0887;4.4112;
973.8000;0.0871;4.4039;
974.1000;0.0871;4.4064;
974.4000;0.0863;4.4137;
974.7000;0.0879;4.4235;
975.0000;0.0798;4.4039;
975.3000;0.0871;4.4186;
975.6000;0.0871;4.4161;
975.9000;0.0814;4.4015;
976.2000;0.0855;4.4039;
976.5000;0.0887;4.4064;
976.8000;0.0773;4.3672;
977.1000;0.0952;4.4210;
977.4000;0.1009;4.4381;
977.7000;0.0895;4.3990;
978.0000;0.0895;4.4064;
978.3000;0.0887;4.4039;
978.6000;0.0879;4.3966;
978.9000;0.0928;4.4088;
979.2000;0.0855;4.3843;
979.5000;0.0871;4.3868;
979.8000;0.0847;4.3843;
980.1000;0.0895;4.3892;
980.4000;0.0863;4.3843;
980.7000;0.0904;4.3917;
981.0000;0.0879;4.3795;
981.3000;0.0961;4.4088;
981.6000;0.0887;4.3990;
981.9000;0.0895;4.3990;
982.2000;0.0969;4.4161;
982.5000;0.0904;4.3966;
982.8000;0.0879;4.3941;
983.1000;0.0773;4.3599;
983.4000;0.0871;4.3966;
983.7000;0.0895;4.4039;
984.0000;0.0830;4.3843;
984.3000;0.0879;4.3966;
984.6000;0.0871;4.3966;
984.9000;0.0879;4.4015;
985.2000;0.0871;4.4064;
985.5000;0.0887;4.4088;
985.8000;0.0887;4.4112;
986.1000;0.0895;4.4088;
986.4000;0.0863;4.3941;
986.7000;0.0887;4.4015;
987.0000;0.0879;4.4088;
987.3000;0.0871;4.4137;
987.6000;0.0879;4.4137;
987.9000;0.0847;4.4112;
988.2000;0.0871;4.4210;
988.5000;0.0879;4.4186;
988.8000;0.0855;4.4235;
989.1000;0.0879;4.4210;
989.4000;0.0887;4.4235;
989.7000;0.0855;4.4210;
990.0000;0.0855;4.4186;
990.3000;0.0879;4.4308;
990.6000;0.0871;4.4284;
990.9000;0.0838;4.4259;
991.2000;0.0871;4.4357;
991.5000;0.0855;4.4210;
991.8000;0.0855;4.4112;
992.1000;0.0863;4.4161;
992.4000;0.0855;4.4137;
992.7000;0.0879;4.4186;
993.0000;0.0895;4.4186;
993.3000;0.0847;4.3990;
993.6000;0.0838;4.3990;
993.9000;0.0887;4.4137;
994.2000;0.0806;4.3917;
994.5000;0.0887;4.4064;
994.8000;0.0863;4.4015;
995.1000;0.0887;4.3966;
995.4000;0.0863;4.3843;
995.7000;0.0863;4.3868;
996.0000;0.0928;4.4112;
996.3000;0.0871;4.3990;
996.6000;0.0879;4.3966;
996.9000;0.0879;4.3892;
997.2000;0.0863;4.3892;
997.5000;0.0822;4.3795;
997.8000;0.0895;4.3990;
998.1000;0.0920;4.4186;
998.4000;0.0798;4.3843;
998.7000;0.0855;4.4088;
999.0000;0.0952;4.4381;
999.3000;0.0790;4.4015;
999.6000;0.0895;4.4210;
999.9000;0.0920;4.4235;
1000.2000;0.0790;4.3941;
1000.5000;0.0928;4.4186;
1000.8000;0.0895;4.4064;
1001.1000;0.0895;4.3941;
1001.4000;0.0855;4.3868;
1001.7000;0.0871;4.3843;
1002.0000;0.0863;4.3868;
1002.3000;0.0806;4.3746;
1002.6000;0.0871;4.3941;
1002.9000;0.0879;4.4039;
1003.2000;0.0895;4.4137;
1003.5000;0.0887;4.4064;
1003.8000;0.0863;4.4039;
1004.1000;0.0944;4.4259;
1004.4000;0.0871;4.4015;
1004.7000;0.0920;4.4112;
1005.0000;0.0863;4.4015;
1005.3000;0.0855;4.4039;
1005.6000;0.0863;4.4088;
1005.9000;0.0855;4.4137;
1006.2000;0.0855;4.4112;
1006.5000;0.0879;4.4235;
1006.8000;0.0790;4.4112;
1007.1000;0.0847;4.4284;
1007.4000;0.0847;4.4284;
1007.7000;0.0928;4.4406;
1008.0000;0.0855;4.4235;
1008.3000;0.0855;4.4284;
1008.6000;0.0790;4.4137;
1008.9000;0.0895;4.4333;
1009.2000;0.0895;4.4284;
1009.5000;0.0838;4.4015;
1009.8000;0.0830;4.4064;
1010.1000;0.0855;4.4064;
1010.4000;0.0887;4.4186;
1010.7000;0.0863;4.4088;
1011.0000;0.0847;4.4015;
1011.3000;0.0847;4.4015;
1011.6000;0.0895;4.4039;
1011.9000;0.0871;4.4088;
1012.2000;0.0904;4.4186;
1012.5000;0.0871;4.4137;
1012.8000;0.0895;4.4137;
1013.1000;0.0895;4.4161;
1013.4000;0.0879;4.4088;
1013.7000;0.0879;4.4088;
1014.0000;0.0871;4.4161;
1014.3000;0.0871;4.4186;
1014.6000;0.0895;4.4235;
1014.9000;0.0895;4.4235;
1015.2000;0.0855;4.4186;
1015.5000;0.0879;4.4186;
1015.8000;0.0879;4.4137;
1016.1000;0.0895;4.4137;
1016.4000;0.0871;4.4064;
1016.7000;0.0887;4.4088;
1017.0000;0.0895;4.4039;
1017.3000;0.0871;4.3941;
1017.6000;0.0855;4.3966;
1017.9000;0.0847;4.4015;
1018.2000;0.0855;4.4015;
1018.5000;0.0879;4.4112;
1018.8000;0.0887;4.4161;
1019.1000;0.0895;4.4235;
1019.4000;0.0904;4.4210;
1019.7000;0.0879;4.4161;
1020.0000;0.0863;4.4112;
1020.3000;0.0920;4.4284;
1020.6000;0.0863;4.4039;
1020.9000;0.0847;4.3966;
1021.2000;0.0871;4.4015;
1021.5000;0.0863;4.4015;
1021.8000;0.0920;4.4161;
1022.1000;0.0871;4.3990;
1022.4000;0.0814;4.3892;
1022.7000;0.0863;4.4039;
1023.0000;0.0879;4.3990;
1023.3000;0.0944;4.4161;
1023.6000;0.0895;4.4112;
1023.9000;0.0879;4.4112;
1024.2000;0.0838;4.4039;
1024.5000;0.0863;4.4039;
1024.8000;0.0838;4.3990;
1025.1000;0.0871;4.4039;
1025.4000;0.0993;4.4333;
1025.7000;0.0863;4.4015;
1026.0000;0.0887;4.4088;
1026.3000;0.0871;4.3941;
1026.6000;0.0871;4.3966;
1026.9000;0.0871;4.4064;
1027.2000;0.0887;4.4137;
1027.5000;0.0798;4.3941;
1027.8000;0.0871;4.4235;
1028.1000;0.0871;4.4235;
1028.4000;0.0879;4.4112;
1028.7000;0.0847;4.4161;
1029.0000;0.0863;4.4235;
1029.3000;0.0904;4.4308;
1029.6000;0.0895;4.4308;
1029.9000;0.0887;4.4235;
1030.2000;0.0871;4.4088;
1030.5000;0.0847;4.4039;
1030.8000;0.0863;4.4064;
1031.1000;0.0863;4.4064;
1031.4000;0.0879;4.4112;
1031.7000;0.0855;4.4015;
1032.0000;0.0904;4.4112;
1032.3000;0.0887;4.4064;
1032.6000;0.0936;4.4308;
1032.9000;0.0847;4.4015;
1033.2000;0.0879;4.4088;
1033.5000;0.0887;4.4186;
1033.8000;0.0855;4.4064;
1034.1000;0.0879;4.4137;
1034.4000;0.0879;4.4161;
1034.7000;0.0879;4.4284;
1035.0000;0.0871;4.4186;
1035.3000;0.0895;4.4210;
1035.6000;0.0855;4.4235;
1035.9000;0.0855;4.4333;
1036.2000;0.0887;4.4381;
1036.5000;0.0863;4.4381;
1036.8000;0.0879;4.4357;
1037.1000;0.0871;4.4333;
1037.4000;0.0871;4.4333;
1037.7000;0.0879;4.4381;
1038.0000;0.0863;4.4406;
1038.3000;0.0879;4.4430;
1038.6000;0.0887;4.4333;
1038.9000;0.0879;4.4308;
1039.2000;0.0863;4.4284;
1039.5000;0.0855;4.4210;
1039.8000;0.0920;4.4284;
1040.1000;0.0863;4.4186;
1040.4000;0.0863;4.4210;
1040.7000;0.0830;4.4186;
1041.0000;0.0863;4.4259;
1041.3000;0.0879;4.4235;
1041.6000;0.0863;4.4259;
1041.9000;0.0855;4.4210;
1042.2000;0.0838;4.4210;
1042.5000;0.0847;4.4284;
1042.8000;0.0863;4.4284;
1043.1000;0.0871;4.4235;
1043.4000;0.0871;4.4284;
1043.7000;0.0961;4.4504;
1044.0000;0.0871;4.4186;
1044.3000;0.0879;4.4235;
1044.6000;0.0879;4.4235;
1044.9000;0.0895;4.4259;
1045.2000;0.0879;4.4235;
1045.5000;0.0863;4.4112;
1045.8000;0.0863;4.4259;
1046.1000;0.0863;4.4259;
1046.4000;0.0838;4.4161;
1046.7000;0.0855;4.4284;
1047.0000;0.0871;4.4186;
1047.3000;0.0871;4.4235;
1047.6000;0.0871;4.4088;
1047.9000;0.0879;4.4088;
1048.2000;0.0863;4.4039;
1048.5000;0.0879;4.4088;
1048.8000;0.1001;4.4381;
1049.1000;0.0887;4.4186;
1049.4000;0.0855;4.4112;
1049.7000;0.0961;4.4479;
1050.0000;0.0887;4.4210;
1050.3000;0.0838;4.4137;
1050.6000;0.0871;4.4137;
1050.9000;0.0847;4.4039;
1051.2000;0.0985;4.4528;
1051.5000;0.0977;4.4455;
1051.8000;0.0887;4.4235;
1052.1000;0.0895;4.4284;
1052.4000;0.0855;4.4210;
1052.7000;0.0863;4.4284;
1053.0000;0.0871;4.4357;
1053.3000;0.0847;4.4259;
1053.6000;0.0879;4.4308;
1053.9000;0.0847;4.4235;
1054.2000;0.0863;4.4259;
1054.5000;0.0838;4.4259;
1054.8000;0.0879;4.4308;
1055.1000;0.0887;4.4357;
1055.4000;0.0863;4.4357;
1055.7000;0.0855;4.4333;
1056.0000;0.0879;4.4406;
1056.3000;0.0822;4.4235;
1056.6000;0.0879;4.4259;
1056.9000;0.0879;4.4308;
1057.2000;0.0855;4.4210;
1057.5000;0.0855;4.4137;
1057.8000;0.0863;4.4161;
1058.1000;0.0847;4.4161;
1058.4000;0.0838;4.4259;
1058.7000;0.0855;4.4308;
1059.0000;0.0871;4.4333;
1059.3000;0.0863;4.4259;
1059.6000;0.0855;4.4357;
1059.9000;0.0879;4.4528;
1060.2000;0.0855;4.4430;
1060.5000;0.0847;4.4357;
1060.8000;0.0887;4.4430;
1061.1000;0.0895;4.4455;
1061.4000;0.0879;4.4333;
1061.7000;0.0887;4.4357;
1062.0000;0.0887;4.4259;
1062.3000;0.0855;4.4235;
1062.6000;0.0863;4.4259;
1062.9000;0.0879;4.4284;
1063.2000;0.0887;4.4186;
1063.5000;0.0855;4.4064;
1063.8000;0.0887;4.4137;
1064.1000;0.0879;4.4186;
1064.4000;0.0847;4.4210;
1064.7000;0.0871;4.4259;
1065.0000;0.0863;4.4284;
1065.3000;0.0863;4.4357;
1065.6000;0.0887;4.4333;
1065.9000;0.0895;4.4357;
1066.2000;0.0863;4.4186;
1066.5000;0.0871;4.4284;
1066.8000;0.0798;4.4088;
1067.1000;0.0871;4.4284;
1067.4000;0.0790;4.4039;
1067.7000;0.0936;4.4504;
1068.0000;0.0871;4.4186;
1068.3000;0.0871;4.4137;
1068.6000;0.0871;4.4235;
1068.9000;0.0920;4.4430;
1069.2000;0.0887;4.4357;
1069.5000;0.0863;4.4381;
1069.8000;0.0855;4.4308;
1070.1000;0.0879;4.4308;
1070.4000;0.0904;4.4357;
1070.7000;0.0855;4.4284;
1071.0000;0.0887;4.4308;
1071.3000;0.0863;4.4210;
1071.6000;0.0904;4.4284;
1071.9000;0.0863;4.4186;
1072.2000;0.0838;4.4161;
1072.5000;0.0871;4.4235;
1072.8000;0.0798;4.4015;
1073.1000;0.0936;4.4333;
1073.4000;0.0887;4.4235;
1073.7000;0.0879;4.4210;
1074.0000;0.0887;4.4259;
1074.3000;0.0879;4.4284;
1074.6000;0.0879;4.4259;
1074.9000;0.0887;4.4284;
1075.2000;0.0887;4.4381;
1075.5000;0.0749;4.3941;
1075.8000;0.0871;4.4284;
1076.1000;0.0863;4.4235;
1076.4000;0.0863;4.4235;
1076.7000;0.0904;4.4333;
1077.0000;0.0871;4.4161;
1077.3000;0.0879;4.4112;
1077.6000;0.0871;4.4137;
1077.9000;0.0887;4.4210;
1078.2000;0.0895;4.4235;
1078.5000;0.0871;4.4161;
1078.8000;0.0912;4.4161;
1079.1000;0.0863;4.4088;
1079.4000;0.0895;4.4259;
1079.7000;0.0895;4.4259;
1080.0000;0.0879;4.4284;
1080.3000;0.0887;4.4333;
1080.6000;0.0952;4.4455;
1080.9000;0.0830;4.4161;
1081.2000;0.0871;4.4186;
1081.5000;0.0904;4.4406;
1081.8000;0.0928;4.4406;
1082.1000;0.0879;4.4235;
1082.4000;0.0863;4.4112;
1082.7000;0.0887;4.4112;
1083.0000;0.0879;4.4039;
1083.3000;0.0871;4.4064;
1083.6000;0.0790;4.3843;
1083.9000;0.0863;4.4064;
1084.2000;0.0863;4.4015;
1084.5000;0.0879;4.4088;
1084.8000;0.0847;4.4039;
1085.1000;0.0863;4.4088;
1085.4000;0.0879;4.4161;
1085.7000;0.0855;4.4064;
1086.0000;0.0879;4.4161;
1086.3000;0.0863;4.4088;
1086.6000;0.0855;4.3990;
1086.9000;0.0887;4.4112;
1087.2000;0.0838;4.4039;
1087.5000;0.0847;4.4088;
1087.8000;0.0871;4.4064;
1088.1000;0.0838;4.3941;
1088.4000;0.0895;4.3990;
1088.7000;0.0855;4.3941;
1089.0000;0.0847;4.3941;
1089.3000;0.0912;4.4064;
1089.6000;0.0887;4.4064;
1089.9000;0.0863;4.4039;
1090.2000;0.0879;4.4112;
1090.5000;0.0952;4.4284;
1090.8000;0.0887;4.4064;
1091.1000;0.0871;4.3892;
1091.4000;0.0765;4.3697;
1091.7000;0.0863;4.3990;
1092.0000;0.0895;4.4186;
1092.3000;0.0863;4.4039;
1092.6000;0.0863;4.3966;
1092.9000;0.0887;4.4064;
1093.2000;0.0855;4.4039;
1093.5000;0.0944;4.4235;
1093.8000;0.0879;4.3966;
1094.1000;0.0879;4.3941;
1094.4000;0.0838;4.3819;
1094.7000;0.0912;4.4088;
1095.0000;0.0871;4.3941;
1095.3000;0.0863;4.3990;
1095.6000;0.0871;4.4039;
1095.9000;0.0912;4.4064;
1096.2000;0.0855;4.3819;
1096.5000;0.0871;4.3917;
1096.8000;0.0904;4.3990;
1097.1000;0.0830;4.3795;
1097.4000;0.0887;4.3966;
1097.7000;0.0887;4.3990;
1098.0000;0.0887;4.4015;
1098.3000;0.0904;4.4088;
1098.6000;0.0830;4.3941;
1098.9000;0.0847;4.4015;
1099.2000;0.0879;4.4137;
1099.5000;0.0887;4.4210;
1099.8000;0.0847;4.4088;
1100.1000;0.0985;4.4430;
1100.4000;0.0879;4.4088;
1100.7000;0.0928;4.4259;
1101.0000;0.0871;4.4137;
1101.3000;0.0904;4.4284;
1101.6000;0.0871;4.4161;
1101.9000;0.0879;4.4112;
1102.2000;0.0863;4.4039;
1102.5000;0.0871;4.4088;
1102.8000;0.0887;4.4137;
1103.1000;0.0895;4.4259;
1103.4000;0.0904;4.4284;
1103.7000;0.0887;4.4088;
1104.0000;0.0879;4.4015;
1104.3000;0.0895;4.4039;
1104.6000;0.0879;4.4015;
1104.9000;0.0855;4.3868;
1105.2000;0.0871;4.3819;
1105.5000;0.0887;4.3892;
1105.8000;0.0847;4.3770;
1106.1000;0.0855;4.3819;
1106.4000;0.0838;4.3721;
1106.7000;0.0871;4.3746;
1107.0000;0.0806;4.3550;
1107.3000;0.0871;4.3770;
1107.6000;0.0871;4.3819;
1107.9000;0.0847;4.3819;
1108.2000;0.0879;4.4039;
1108.5000;0.0863;4.3990;
1108.8000;0.0871;4.4088;
1109.1000;0.0814;4.3892;
1109.4000;0.0847;4.3966;
1109.7000;0.0879;4.4112;
1110.0000;0.0871;4.4064;
1110.3000;0.0871;4.3966;
1110.6000;0.0863;4.3941;
1110.9000;0.0895;4.3941;
1111.2000;0.0887;4.3941;
1111.5000;0.0822;4.3795;
1111.8000;0.0871;4.3892;
1112.1000;0.0855;4.3819;
1112.4000;0.0847;4.3746;
1112.7000;0.0838;4.3843;
1113.0000;0.0879;4.3941;
1113.3000;0.0863;4.3941;
1113.6000;0.0863;4.3990;
1113.9000;0.0847;4.3892;
1114.2000;0.0814;4.3868;
1114.5000;0.0830;4.3892;
1114.8000;0.0993;4.4284;
1115.1000;0.0871;4.4064;
1115.4000;0.0855;4.4039;
1115.7000;0.0822;4.4015;
1116.0000;0.1074;4.4577;
1116.3000;0.0863;4.4015;
1116.6000;0.0863;4.4015;
1116.9000;0.0936;4.4235;
1117.2000;0.0838;4.3941;
1117.5000;0.0806;4.3819;
1117.8000;0.0871;4.4039;
1118.1000;0.0863;4.4015;
1118.4000;0.0749;4.3721;
1118.7000;0.0871;4.4039;
1119.0000;0.0912;4.4088;
1119.3000;0.0961;4.4161;
1119.6000;0.0879;4.3966;
1119.9000;0.0887;4.4039;
1120.2000;0.0863;4.4064;
1120.5000;0.0895;4.4039;
1120.8000;0.0855;4.3941;
1121.1000;0.0871;4.3917;
1121.4000;0.0838;4.3917;
1121.7000;0.0871;4.4039;
1122.0000;0.0863;4.4112;
1122.3000;0.0887;4.4137;
1122.6000;0.0895;4.4088;
1122.9000;0.0847;4.3966;
1123.2000;0.0871;4.4039;
1123.5000;0.0895;4.4186;
1123.8000;0.0944;4.4333;
1124.1000;0.0871;4.4137;
1124.4000;0.0871;4.4186;
1124.7000;0.0895;4.4235;
1125.0000;0.0887;4.4186;
1125.3000;0.0773;4.3843;
1125.6000;0.0887;4.4259;
1125.9000;0.0855;4.4161;
1126.2000;0.0887;4.4210;
1126.5000;0.0879;4.4161;
1126.8000;0.0936;4.4357;
1127.1000;0.0822;4.3990;
1127.4000;0.0879;4.4137;
1127.7000;0.0855;4.4137;
1128.0000;0.0863;4.4112;
1128.3000;0.0855;4.3990;
1128.6000;0.0904;4.4161;
1128.9000;0.0863;4.4064;
1129.2000;0.0879;4.4088;
1129.5000;0.0887;4.4284;
1129.8000;0.0879;4.4161;
1130.1000;0.0887;4.4039;
1130.4000;0.0904;4.4137;
1130.7000;0.0879;4.4064;
1131.0000;0.0879;4.4064;
1131.3000;0.0895;4.4161;
1131.6000;0.0863;4.4039;
1131.9000;0.0855;4.4015;
1132.2000;0.0822;4.3941;
1132.5000;0.0993;4.4381;
1132.8000;0.0838;4.4015;
1133.1000;0.0871;4.4064;
1133.4000;0.0863;4.4039;
1133.7000;0.0871;4.4186;
1134.0000;0.0879;4.4186;
1134.3000;0.0847;4.4039;
1134.6000;0.0855;4.4088;
1134.9000;0.0887;4.4186;
1135.2000;0.0904;4.4137;
1135.5000;0.0830;4.3966;
1135.8000;0.0822;4.4039;
1136.1000;0.0773;4.3795;
1136.4000;0.0847;4.3990;
1136.7000;0.0814;4.3868;
1137.0000;0.0912;4.4064;
1137.3000;0.0871;4.3966;
1137.6000;0.0830;4.3843;
1137.9000;0.0944;4.4210;
1138.2000;0.0879;4.4064;
1138.5000;0.0855;4.3941;
1138.8000;0.0838;4.3966;
1139.1000;0.0904;4.4161;
1139.4000;0.0952;4.4259;
1139.7000;0.0879;4.4088;
1140.0000;0.0887;4.4137;
1140.3000;0.0806;4.3868;
1140.6000;0.0871;4.4088;
1140.9000;0.0871;4.4112;
1141.2000;0.0871;4.4088;
1141.5000;0.0855;4.4015;
1141.8000;0.0855;4.4064;
1142.1000;0.0863;4.4161;
1142.4000;0.0904;4.4333;
1142.7000;0.0887;4.4284;
1143.0000;0.0895;4.4259;
1143.3000;0.0855;4.4088;
1143.6000;0.0863;4.4015;
1143.9000;0.0871;4.4039;
1144.2000;0.0863;4.3990;
1144.5000;0.0895;4.4112;
1144.8000;0.0847;4.4015;
1145.1000;0.0765;4.3795;
1145.4000;0.0879;4.4112;
1145.7000;0.0871;4.3966;
1146.0000;0.0879;4.3966;
1146.3000;0.0847;4.3966;
1146.6000;0.0847;4.3917;
1146.9000;0.0855;4.3843;
1147.2000;0.0863;4.3868;
1147.5000;0.0895;4.3990;
1147.8000;0.0895;4.3941;
1148.1000;0.0879;4.4015;
1148.4000;0.0871;4.3966;
1148.7000;0.0879;4.3966;
1149.0000;0.0863;4.4039;
1149.3000;0.0871;4.3917;
1149.6000;0.0871;4.3966;
1149.9000;0.0838;4.3966;
1150.2000;0.0871;4.4112;
1150.5000;0.0871;4.4088;
1150.8000;0.0871;4.4112;
1151.1000;0.0838;4.3990;
1151.4000;0.0887;4.4015;
1151.7000;0.0871;4.4088;
1152.0000;0.0781;4.3868;
1152.3000;0.0863;4.4235;
1152.6000;0.0838;4.4161;
1152.9000;0.0879;4.4284;
1153.2000;0.0904;4.4259;
1153.5000;0.0887;4.4259;
1153.8000;0.0969;4.4504;
1154.1000;0.0847;4.4210;
1154.4000;0.0855;4.4210;
1154.7000;0.0855;4.4357;
1155.0000;0.0847;4.4455;
1155.3000;0.0863;4.4504;
1155.6000;0.0863;4.4553;
1155.9000;0.0838;4.4504;
1156.2000;0.0871;4.4504;
1156.5000;0.0741;4.4088;
1156.8000;0.0871;4.4455;
1157.1000;0.0952;4.4748;
1157.4000;0.0855;4.4455;
1157.7000;0.0887;4.4406;
1158.0000;0.0847;4.4308;
1158.3000;0.0847;4.4333;
1158.6000;0.0871;4.4381;
1158.9000;0.0822;4.4308;
1159.2000;0.0879;4.4504;
1159.5000;0.0895;4.4479;
1159.8000;0.0830;4.4284;
1160.1000;0.0879;4.4381;
1160.4000;0.0879;4.4308;
1160.7000;0.0895;4.4333;
1161.0000;0.0863;4.4308;
1161.3000;0.0879;4.4259;
1161.6000;0.0855;4.4259;
1161.9000;0.0879;4.4284;
1162.2000;0.0879;4.4284;
1162.5000;0.0871;4.4235;
1162.8000;0.0855;4.4161;
1163.1000;0.0847;4.4088;
1163.4000;0.0806;4.3917;
1163.7000;0.0855;4.4039;
1164.0000;0.0952;4.4430;
1164.3000;0.0961;4.4553;
1164.6000;0.0863;4.4235;
1164.9000;0.0895;4.4308;
1165.2000;0.0887;4.4357;
1165.5000;0.0887;4.4357;
1165.8000;0.0985;4.4601;
1166.1000;0.0863;4.4259;
1166.4000;0.0838;4.4186;
1166.7000;0.0887;4.4210;
1167.0000;0.0871;4.4161;
1167.3000;0.0871;4.4235;
1167.6000;0.0847;4.4137;
1167.9000;0.0895;4.4308;
1168.2000;0.0871;4.4284;
1168.5000;0.0863;4.4284;
1168.8000;0.0904;4.4357;
1169.1000;0.0920;4.4430;
1169.4000;0.0855;4.4210;
1169.7000;0.0895;4.4284;
1170.0000;0.0879;4.4210;
1170.3000;0.0895;4.4333;
1170.6000;0.0879;4.4308;
1170.9000;0.0871;4.4259;
1171.2000;0.0887;4.4284;
1171.5000;0.0863;4.4210;
1171.8000;0.0887;4.4284;
1172.1000;0.0863;4.4186;
1172.4000;0.0863;4.4186;
1172.7000;0.0904;4.4308;
1173.0000;0.0879;4.4186;
1173.3000;0.0887;4.4210;
1173.6000;0.0887;4.4259;
1173.9000;0.0879;4.4430;
1174.2000;0.0855;4.4357;
1174.5000;0.0871;4.4308;
1174.8000;0.0887;4.4235;
1175.1000;0.0863;4.4161;
1175.4000;0.0855;4.4210;
1175.7000;0.0912;4.4333;
1176.0000;0.0936;4.4455;
1176.3000;0.0847;4.4284;
1176.6000;0.0773;4.3941;
1176.9000;0.0879;4.4186;
1177.2000;0.0871;4.4161;
1177.5000;0.0806;4.3917;
1177.8000;0.0887;4.4308;
1178.1000;0.0904;4.4357;
1178.4000;0.0879;4.4308;
1178.7000;0.0855;4.4259;
1179.0000;0.1001;4.4724;
1179.3000;0.0855;4.4406;
1179.6000;0.0912;4.4479;
1179.9000;0.0863;4.4357;
1180.2000;0.0871;4.4357;
1180.5000;0.0855;4.4357;
1180.8000;0.0879;4.4406;
1181.1000;0.0871;4.4406;
1181.4000;0.0855;4.4357;
1181.7000;0.0838;4.4308;
1182.0000;0.0855;4.4308;
1182.3000;0.0871;4.4308;
1182.6000;0.0863;4.4284;
1182.9000;0.0822;4.4186;
1183.2000;0.0790;4.4039;
1183.5000;0.0871;4.4284;
1183.8000;0.0879;4.4186;
1184.1000;0.0912;4.4235;
1184.4000;0.0895;4.4186;
1184.7000;0.0871;4.4088;
1185.0000;0.0838;4.3966;
1185.3000;0.0904;4.4137;
1185.6000;0.0871;4.4064;
1185.9000;0.0871;4.4112;
1186.2000;0.0871;4.4137;
1186.5000;0.0838;4.4088;
1186.8000;0.0879;4.4161;
1187.1000;0.0871;4.4112;
1187.4000;0.0879;4.4112;
1187.7000;0.0830;4.3990;
1188.0000;0.0887;4.4210;
1188.3000;0.0838;4.4088;
1188.6000;0.0895;4.4284;
1188.9000;0.0871;4.4210;
1189.2000;0.0879;4.4137;
1189.5000;0.0912;4.4308;
1189.8000;0.0879;4.4186;
1190.1000;0.0855;4.4064;
1190.4000;0.0838;4.3941;
1190.7000;0.0879;4.4064;
1191.0000;0.0855;4.4015;
1191.3000;0.0920;4.4235;
1191.6000;0.0847;4.4039;
1191.9000;0.0855;4.4064;
1192.2000;0.0863;4.4088;
1192.5000;0.0847;4.3990;
1192.8000;0.0936;4.4088;
1193.1000;0.0895;4.4039;
1193.4000;0.0895;4.4088;
1193.7000;0.0887;4.4112;
1194.0000;0.0871;4.4088;
1194.3000;0.0944;4.4333;
1194.6000;0.0887;4.4112;
1194.9000;0.0887;4.4088;
1195.2000;0.0863;4.4064;
1195.5000;0.0863;4.4088;
1195.8000;0.0822;4.3990;
1196.1000;0.0879;4.4137;
1196.4000;0.0879;4.4112;
1196.7000;0.0863;4.4161;
1197.0000;0.0871;4.4137;
1197.3000;0.0912;4.4308;
1197.6000;0.0871;4.4210;
1197.9000;0.0814;4.3966;
1198.2000;0.0863;4.3966;
1198.5000;0.0887;4.4064;
1198.8000;0.0879;4.4039;
1199.1000;0.0871;4.4039;
1199.4000;0.0871;4.3941;
1199.7000;0.0879;4.4015;
1200.0000;0.0798;4.3819;
1200.3000;0.0871;4.3892;
1200.6000;0.0920;4.4015;
1200.9000;0.0879;4.3843;
1201.2000;0.0855;4.3795;
1201.5000;0.0944;4.3966;
1201.8000;0.0855;4.3819;
1202.1000;0.0895;4.4039;
1202.4000;0.0871;4.4064;
1202.7000;0.0887;4.4161;
1203.0000;0.0895;4.4235;
1203.3000;0.0871;4.4186;
1203.6000;0.0936;4.4259;
1203.9000;0.0887;4.4235;
1204.2000;0.0855;4.4088;
1204.5000;0.0855;4.4259;
1204.8000;0.0855;4.4284;
1205.1000;0.0879;4.4284;
1205.4000;0.0790;4.3892;
1205.7000;0.0863;4.4112;
1206.0000;0.0781;4.4015;
1206.3000;0.0798;4.4088;
1206.6000;0.0871;4.4210;
1206.9000;0.0781;4.4039;
1207.2000;0.0879;4.4210;
1207.5000;0.0765;4.3868;
1207.8000;0.0798;4.4039;
1208.1000;0.0879;4.4137;
1208.4000;0.0871;4.4137;
1208.7000;0.0895;4.4186;
1209.0000;0.0855;4.4186;
1209.3000;0.0863;4.4161;
1209.6000;0.0879;4.4137;
1209.9000;0.0936;4.4210;
1210.2000;0.0863;4.4015;
1210.5000;0.0855;4.3941;
1210.8000;0.0806;4.3746;
1211.1000;0.0879;4.4064;
1211.4000;0.0879;4.4112;
1211.7000;0.0847;4.4064;
1212.0000;0.0887;4.4137;
1212.3000;0.0879;4.4088;
1212.6000;0.0765;4.3697;
1212.9000;0.0855;4.3941;
1213.2000;0.0944;4.4259;
1213.5000;0.0879;4.4112;
1213.8000;0.0879;4.4186;
1214.1000;0.0912;4.4210;
1214.4000;0.0855;4.3941;
1214.7000;0.0871;4.3892;
1215.0000;0.0871;4.3917;
1215.3000;0.0887;4.4015;
1215.6000;0.0887;4.4039;
1215.9000;0.0871;4.4015;
1216.2000;0.0879;4.4039;
1216.5000;0.0895;4.4088;
1216.8000;0.0855;4.4015;
1217.1000;0.0855;4.4064;
1217.4000;0.0904;4.4161;
1217.7000;0.0863;4.4088;
1218.0000;0.0830;4.4015;
1218.3000;0.0879;4.4161;
1218.6000;0.0863;4.4112;
1218.9000;0.0863;4.4137;
1219.2000;0.0879;4.4186;
1219.5000;0.0871;4.4039;
1219.8000;0.0879;4.4039;
1220.1000;0.0879;4.4015;
1220.4000;0.0855;4.3892;
1220.7000;0.0798;4.3672;
1221.0000;0.0920;4.4015;
1221.3000;0.0855;4.3868;
1221.6000;0.0904;4.4112;
1221.9000;0.0855;4.4039;
1222.2000;0.0879;4.4064;
1222.5000;0.0887;4.4064;
1222.8000;0.0879;4.4064;
1223.1000;0.0928;4.4210;
1223.4000;0.0855;4.3966;
1223.7000;0.0879;4.4015;
1224.0000;0.0863;4.4015;
1224.3000;0.0895;4.4039;
1224.6000;0.0936;4.4186;
1224.9000;0.0838;4.3990;
1225.2000;0.0838;4.4039;
1225.5000;0.0871;4.4015;
1225.8000;0.0863;4.4015;
1226.1000;0.0879;4.4039;
1226.4000;0.0871;4.3966;
1226.7000;0.0887;4.3892;
1227.0000;0.0855;4.3892;
1227.3000;0.0879;4.3990;
1227.6000;0.0863;4.3941;
1227.9000;0.0855;4.3941;
1228.2000;0.0887;4.3990;
1228.5000;0.0887;4.4064;
1228.8000;0.0871;4.4064;
1229.1000;0.0887;4.4137;
1229.4000;0.0928;4.4308;
1229.7000;0.0879;4.4186;
1230.0000;0.0871;4.4039;
1230.3000;0.0920;4.4235;
1230.6000;0.0863;4.4088;
1230.9000;0.0879;4.4186;
1231.2000;0.0847;4.4088;
1231.5000;0.0952;4.4381;
1231.8000;0.0871;4.4088;
1232.1000;0.0855;4.4015;
1232.4000;0.0879;4.4064;
1232.7000;0.0716;4.3599;
1233.0000;0.0798;4.3795;
1233.3000;0.0847;4.3966;
1233.6000;0.0847;4.4039;
1233.9000;0.0806;4.4015;
1234.2000;0.0952;4.4357;
1234.5000;0.0904;4.4308;
1234.8000;0.0863;4.4137;
1235.1000;0.0855;4.4112;
1235.4000;0.0798;4.3892;
1235.7000;0.0863;4.4015;
1236.0000;0.0814;4.3843;
1236.3000;0.0887;4.3966;
1236.6000;0.0822;4.3941;
1236.9000;0.0887;4.4137;
1237.2000;0.0814;4.3990;
1237.5000;0.0847;4.4039;
1237.8000;0.0822;4.3868;
1238.1000;0.0806;4.3819;
1238.4000;0.0814;4.3819;
1238.7000;0.0887;4.4064;
1239.0000;0.0871;4.4112;
1239.3000;0.0887;4.4235;
1239.6000;0.0863;4.4235;
1239.9000;0.0847;4.4259;
1240.2000;0.0887;4.4308;
1240.5000;0.0879;4.4235;
1240.8000;0.0871;4.4137;
1241.1000;0.0895;4.4137;
1241.4000;0.0855;4.4137;
1241.7000;0.0912;4.4308;
1242.0000;0.0863;4.4186;
1242.3000;0.0847;4.4137;
1242.6000;0.0855;4.4284;
1242.9000;0.0887;4.4357;
1243.2000;0.0879;4.4333;
1243.5000;0.0887;4.4381;
1243.8000;0.0887;4.4333;
1244.1000;0.0863;4.4259;
1244.4000;0.0871;4.4284;
1244.7000;0.0871;4.4284;
1245.0000;0.0830;4.4210;
1245.3000;0.0895;4.4381;
1245.6000;0.0887;4.4357;
1245.9000;0.0838;4.4284;
1246.2000;0.0855;4.4308;
1246.5000;0.0887;4.4333;
1246.8000;0.0798;4.4015;
1247.1000;0.0863;4.4161;
1247.4000;0.0952;4.4455;
1247.7000;0.0879;4.4259;
1248.0000;0.0847;4.4064;
1248.3000;0.0887;4.4186;
1248.6000;0.0790;4.3966;
1248.9000;0.0895;4.4259;
1249.2000;0.0871;4.4186;
1249.5000;0.0863;4.4235;
1249.8000;0.0863;4.4284;
1250.1000;0.0830;4.4161;
1250.4000;0.0863;4.4235;
1250.7000;0.0895;4.4235;
1251.0000;0.0838;4.4112;
1251.3000;0.0863;4.4210;
1251.6000;0.0887;4.4308;
1251.9000;0.0863;4.4235;
1252.2000;0.0871;4.4308;
1252.5000;0.0887;4.4308;
1252.8000;0.0863;4.4284;
1253.1000;0.0879;4.4406;
1253.4000;0.0887;4.4357;
1253.7000;0.0855;4.4186;
1254.0000;0.0863;4.4235;
1254.3000;0.0838;4.4161;
1254.6000;0.0871;4.4186;
1254.9000;0.0879;4.4259;
1255.2000;0.0871;4.4308;
1255.5000;0.0855;4.4259;
1255.8000;0.0814;4.4088;
1256.1000;0.0733;4.3843;
1256.4000;0.0871;4.4210;
1256.7000;0.0871;4.4186;
1257.0000;0.1009;4.4504;
1257.3000;0.0855;4.4015;
1257.6000;0.0830;4.3966;
1257.9000;0.0887;4.4161;
1258.2000;0.0887;4.4161;
1258.5000;0.0863;4.4112;
1258.8000;0.0912;4.4235;
1259.1000;0.0895;4.4137;
1259.4000;0.0879;4.4112;
1259.7000;0.0855;4.4088;
1260.0000;0.0895;4.4186;
1260.3000;0.0879;4.4112;
1260.6000;0.0879;4.4161;
1260.9000;0.0879;4.4112;
1261.2000;0.0855;4.3966;
1261.5000;0.0863;4.3892;
1261.8000;0.0895;4.3941;
1262.1000;0.0871;4.3990;
1262.4000;0.0855;4.4039;
1262.7000;0.0879;4.4088;
1263.0000;0.0838;4.4039;
1263.3000;0.0887;4.4161;
1263.6000;0.0871;4.4112;
1263.9000;0.0871;4.4186;
1264.2000;0.0871;4.4235;
1264.5000;0.0879;4.4235;
1264.8000;0.0879;4.4308;
1265.1000;0.0879;4.4235;
1265.4000;0.0895;4.4186;
1265.7000;0.0863;4.4137;
1266.0000;0.0895;4.4284;
1266.3000;0.0904;4.4259;
1266.6000;0.0847;4.4088;
1266.9000;0.0855;4.4186;
1267.2000;0.0879;4.4161;
1267.5000;0.0879;4.4112;
1267.8000;0.0887;4.4161;
1268.1000;0.0879;4.4137;
1268.4000;0.0855;4.4088;
1268.7000;0.0855;4.4112;
1269.0000;0.0871;4.4284;
1269.3000;0.0863;4.4259;
1269.6000;0.0863;4.4284;
1269.9000;0.0855;4.4235;
1270.2000;0.0847;4.4284;
1270.5000;0.0847;4.4186;
1270.8000;0.0871;4.4210;
1271.1000;0.0871;4.4186;
1271.4000;0.0895;4.4112;
1271.7000;0.0977;4.4333;
1272.0000;0.0879;4.4137;
1272.3000;0.0871;4.3966;
1272.6000;0.0879;4.3966;
1272.9000;0.0855;4.3819;
1273.2000;0.0904;4.3941;
1273.5000;0.0895;4.3917;
1273.8000;0.0855;4.3795;
1274.1000;0.0879;4.3795;
1274.4000;0.0871;4.3746;
1274.7000;0.0855;4.3599;
1275.0000;0.0904;4.3721;
1275.3000;0.0847;4.3648;
1275.6000;0.0936;4.3990;
1275.9000;0.0879;4.3819;
1276.2000;0.0912;4.4064;
1276.5000;0.0847;4.3868;
1276.8000;0.0814;4.3819;
1277.1000;0.0879;4.3941;
1277.4000;0.0871;4.4064;
1277.7000;0.0847;4.3966;
1278.0000;0.0790;4.3746;
1278.3000;0.0879;4.4015;
1278.6000;0.0863;4.4015;
1278.9000;0.0887;4.3941;
1279.2000;0.0871;4.3795;
1279.5000;0.0871;4.3868;
1279.8000;0.0887;4.3990;
1280.1000;0.0863;4.4015;
1280.4000;0.0855;4.3990;
1280.7000;0.0863;4.4064;
1281.0000;0.0904;4.4259;
1281.3000;0.0871;4.3990;
1281.6000;0.0847;4.3941;
1281.9000;0.0863;4.3892;
1282.2000;0.0855;4.3868;
1282.5000;0.0863;4.3917;
1282.8000;0.0871;4.3966;
1283.1000;0.0887;4.4112;
1283.4000;0.0887;4.4112;
1283.7000;0.0904;4.4112;
1284.0000;0.0871;4.3990;
1284.3000;0.0822;4.3843;
1284.6000;0.0904;4.4088;
1284.9000;0.0887;4.4064;
1285.2000;0.0822;4.3941;
1285.5000;0.0887;4.4064;
1285.8000;0.0806;4.3795;
1286.1000;0.0838;4.3795;
1286.4000;0.0879;4.3966;
1286.7000;0.0871;4.3892;
1287.0000;0.0895;4.4064;
1287.3000;0.0871;4.4064;
1287.6000;0.0838;4.3941;
1287.9000;0.0895;4.4112;
1288.2000;0.0879;4.4015;
1288.5000;0.0887;4.4064;
1288.8000;0.0855;4.3941;
1289.1000;0.0855;4.3941;
1289.4000;0.0904;4.4015;
1289.7000;0.0887;4.4088;
1290.0000;0.0863;4.4112;
1290.3000;0.0863;4.4137;
1290.6000;0.0855;4.4064;
1290.9000;0.0871;4.4088;
1291.2000;0.0855;4.4161;
1291.5000;0.0855;4.4161;
1291.8000;0.0871;4.4308;
1292.1000;0.0781;4.3990;
1292.4000;0.0879;4.4161;
1292.7000;0.0879;4.4186;
1293.0000;0.0879;4.4064;
1293.3000;0.0855;4.4064;
1293.6000;0.0879;4.4015;
1293.9000;0.0871;4.3990;
1294.2000;0.0863;4.3990;
1294.5000;0.0863;4.3941;
1294.8000;0.0798;4.3697;
1295.1000;0.0912;4.3892;
1295.4000;0.0863;4.3721;
1295.7000;0.0855;4.3721;
1296.0000;0.0871;4.3770;
1296.3000;0.0855;4.3770;
1296.6000;0.0871;4.3746;
1296.9000;0.0757;4.3526;
1297.2000;0.0855;4.3868;
1297.5000;0.0855;4.3917;
1297.8000;0.0879;4.3990;
1298.1000;0.0879;4.4015;
1298.4000;0.0855;4.3990;
1298.7000;0.0887;4.4186;
1299.0000;0.0855;4.4039;
1299.3000;0.0863;4.3990;
1299.6000;0.0879;4.4088;
1299.9000;0.0952;4.4235;
1300.2000;0.0830;4.3941;
1300.5000;0.0879;4.4039;
1300.8000;0.0855;4.4039;
1301.1000;0.0871;4.4064;
1301.4000;0.0814;4.3966;
1301.7000;0.0814;4.3892;
1302.0000;0.0773;4.3795;
1302.3000;0.0879;4.4088;
1302.6000;0.0879;4.4210;
1302.9000;0.0733;4.3795;
1303.2000;0.0879;4.4235;
1303.5000;0.0887;4.4259;
1303.8000;0.0855;4.4210;
1304.1000;0.0855;4.4210;
1304.4000;0.0920;4.4357;
1304.7000;0.0847;4.4210;
1305.0000;0.0765;4.3990;
1305.3000;0.0822;4.4064;
1305.6000;0.0871;4.4088;
1305.9000;0.0887;4.4186;
1306.2000;0.0879;4.4112;
1306.5000;0.0847;4.4064;
1306.8000;0.0863;4.4161;
1307.1000;0.0871;4.4039;
1307.4000;0.0887;4.3990;
1307.7000;0.0863;4.3843;
1308.0000;0.0895;4.3966;
1308.3000;0.0871;4.3795;
1308.6000;0.0879;4.3843;
1308.9000;0.0904;4.3966;
1309.2000;0.0855;4.3917;
1309.5000;0.0879;4.3990;
1309.8000;0.0936;4.4186;
1310.1000;0.0879;4.3941;
1310.4000;0.0895;4.3917;
1310.7000;0.0887;4.3868;
1311.0000;0.0871;4.3795;
1311.3000;0.0863;4.3795;
1311.6000;0.0855;4.3819;
1311.9000;0.0830;4.3892;
1312.2000;0.0871;4.4015;
1312.5000;0.0904;4.4088;
1312.8000;0.0895;4.3941;
1313.1000;0.0871;4.3941;
1313.4000;0.0855;4.3843;
1313.7000;0.0895;4.3941;
1314.0000;0.0887;4.3917;
1314.3000;0.0855;4.3819;
1314.6000;0.0855;4.3819;
1314.9000;0.0855;4.3843;
1315.2000;0.0855;4.3917;
1315.5000;0.0895;4.4039;
1315.8000;0.0863;4.4039;
1316.1000;0.0871;4.4015;
1316.4000;0.0863;4.3966;
1316.7000;0.0855;4.4015;
1317.0000;0.0855;4.4039;
1317.3000;0.0855;4.4186;
1317.6000;0.0895;4.4284;
1317.9000;0.0879;4.4137;
1318.2000;0.0871;4.4112;
1318.5000;0.0895;4.4112;
1318.8000;0.0847;4.4112;
1319.1000;0.0887;4.4235;
1319.4000;0.0879;4.4186;
1319.7000;0.0879;4.4137;
1320.0000;0.0904;4.4112;
1320.3000;0.0847;4.4039;
1320.6000;0.0887;4.4235;
1320.9000;0.0781;4.3941;
1321.2000;0.0871;4.4235;
1321.5000;0.0887;4.4333;
1321.8000;0.0863;4.4210;
1322.1000;0.0855;4.4210;
1322.4000;0.0863;4.4186;
1322.7000;0.0855;4.4137;
1323.0000;0.0863;4.3990;
1323.3000;0.0895;4.4015;
1323.6000;0.0855;4.3941;
1323.9000;0.0904;4.4039;
1324.2000;0.0798;4.3721;
1324.5000;0.0879;4.3990;
1324.8000;0.0863;4.3917;
1325.1000;0.0830;4.3819;
1325.4000;0.0928;4.4064;
1325.7000;0.0847;4.3819;
1326.0000;0.0798;4.3721;
1326.3000;0.0863;4.3770;
1326.6000;0.0871;4.3770;
1326.9000;0.0838;4.3795;
1327.2000;0.0790;4.3770;
1327.5000;0.0855;4.3941;
1327.8000;0.0863;4.3941;
1328.1000;0.0855;4.3917;
1328.4000;0.0830;4.3843;
1328.7000;0.0879;4.3941;
1329.0000;0.0879;4.3917;
1329.3000;0.0944;4.4137;
1329.6000;0.0879;4.4039;
1329.9000;0.0879;4.4112;
1330.2000;0.0855;4.3990;
1330.5000;0.0895;4.3990;
1330.8000;0.0855;4.3917;
1331.1000;0.0879;4.3966;
1331.4000;0.0855;4.3892;
1331.7000;0.0855;4.3941;
1332.0000;0.0863;4.3941;
1332.3000;0.0871;4.3892;
1332.6000;0.0847;4.3892;
1332.9000;0.0887;4.4064;
1333.2000;0.0871;4.4015;
1333.5000;0.0847;4.3868;
1333.8000;0.0969;4.4333;
1334.1000;0.0863;4.4015;
1334.4000;0.0871;4.4015;
1334.7000;0.0871;4.4015;
1335.0000;0.0822;4.3892;
1335.3000;0.0838;4.4039;
1335.6000;0.0863;4.4064;
1335.9000;0.0879;4.4064;
1336.2000;0.0863;4.4064;
1336.5000;0.0879;4.4088;
1336.8000;0.0895;4.4186;
1337.1000;0.0887;4.4088;
1337.4000;0.0871;4.4064;
1337.7000;0.0879;4.4039;
1338.0000;0.0806;4.3868;
1338.3000;0.0838;4.3892;
1338.6000;0.0863;4.3941;
1338.9000;0.0733;4.3574;
1339.2000;0.0871;4.3868;
1339.5000;0.0936;4.4112;
1339.8000;0.0863;4.3990;
1340.1000;0.0871;4.4064;
1340.4000;0.0879;4.4112;
1340.7000;0.0977;4.4381;
1341.0000;0.0871;4.4039;
1341.3000;0.0838;4.3892;
1341.6000;0.0863;4.3966;
1341.9000;0.1018;4.4381;
1342.2000;0.0912;4.4039;
1342.5000;0.0879;4.4039;
1342.8000;0.0912;4.4112;
1343.1000;0.0830;4.3795;
1343.4000;0.0920;4.4015;
1343.7000;0.0855;4.3892;
1344.0000;0.0847;4.3917;
1344.3000;0.0879;4.3990;
1344.6000;0.0879;4.4015;
1344.9000;0.0904;4.4088;
1345.2000;0.0855;4.3966;
1345.5000;0.0879;4.4064;
1345.8000;0.0847;4.4015;
1346.1000;0.0863;4.4064;
1346.4000;0.0895;4.4137;
1346.7000;0.0863;4.4088;
1347.0000;0.0863;4.4210;
1347.3000;0.0847;4.4064;
1347.6000;0.0855;4.4064;
1347.9000;0.0847;4.3990;
1348.2000;0.0871;4.4088;
1348.5000;0.0863;4.4015;
1348.8000;0.0879;4.3941;
1349.1000;0.0879;4.3990;
1349.4000;0.0879;4.3966;
1349.7000;0.0879;4.3941;
1350.0000;0.0822;4.3843;
1350.3000;0.0879;4.3966;
1350.6000;0.0928;4.4064;
1350.9000;0.0871;4.3966;
1351.2000;0.0847;4.3917;
1351.5000;0.0879;4.3990;
1351.8000;0.0855;4.3892;
1352.1000;0.0887;4.3966;
1352.4000;0.0855;4.3941;
1352.7000;0.0871;4.3917;
1353.0000;0.0879;4.4039;
1353.3000;0.0871;4.3966;
1353.6000;0.0928;4.4137;
1353.9000;0.0863;4.3892;
1354.2000;0.0863;4.3966;
1354.5000;0.0895;4.4015;
1354.8000;0.0863;4.3892;
1355.1000;0.0887;4.4039;
1355.4000;0.0871;4.4015;
1355.7000;0.0879;4.4015;
1356.0000;0.0895;4.4137;
1356.3000;0.0871;4.3990;
1356.6000;0.0895;4.4015;
1356.9000;0.0863;4.3941;
1357.2000;0.0838;4.3892;
1357.5000;0.0879;4.3990;
1357.8000;0.0871;4.4015;
1358.1000;0.0871;4.3843;
1358.4000;0.0887;4.3819;
1358.7000;0.0879;4.3770;
1359.0000;0.0887;4.3721;
1359.3000;0.0830;4.3672;
1359.6000;0.0871;4.3746;
1359.9000;0.0887;4.3795;
1360.2000;0.0904;4.3843;
1360.5000;0.0887;4.3892;
1360.8000;0.0855;4.3770;
1361.1000;0.0863;4.3770;
1361.4000;0.0863;4.3819;
1361.7000;0.0863;4.3868;
1362.0000;0.0847;4.3721;
1362.3000;0.0936;4.3990;
1362.6000;0.0985;4.4112;
1362.9000;0.0790;4.3648;
1363.2000;0.0871;4.3819;
1363.5000;0.0822;4.3672;
1363.8000;0.0977;4.4112;
1364.1000;0.0798;4.3623;
1364.4000;0.0887;4.3819;
1364.7000;0.0887;4.3843;
1365.0000;0.0863;4.3966;
1365.3000;0.0838;4.3868;
1365.6000;0.0847;4.3795;
1365.9000;0.0838;4.3770;
1366.2000;0.0830;4.3721;
1366.5000;0.0855;4.3721;
1366.8000;0.0879;4.3721;
1367.1000;0.0847;4.3697;
1367.4000;0.0838;4.3721;
1367.7000;0.0847;4.3795;
1368.0000;0.0830;4.3697;
1368.3000;0.0871;4.3770;
1368.6000;0.0871;4.3770;
1368.9000;0.0887;4.3966;
1369.2000;0.0871;4.3990;
1369.5000;0.0822;4.3819;
1369.8000;0.0887;4.3966;
1370.1000;0.0855;4.3868;
1370.4000;0.0863;4.3892;
1370.7000;0.0855;4.3868;
1371.0000;0.0871;4.3868;
1371.3000;0.0895;4.3917;
1371.6000;0.0871;4.3917;
1371.9000;0.0879;4.3892;
1372.2000;0.0798;4.3623;
1372.5000;0.0871;4.3819;
1372.8000;0.0871;4.3843;
1373.1000;0.0822;4.3892;
1373.4000;0.0863;4.3941;
1373.7000;0.0871;4.4039;
1374.0000;0.0977;4.4357;
1374.3000;0.0871;4.4039;
1374.6000;0.0887;4.4015;
1374.9000;0.0871;4.3966;
1375.2000;0.0895;4.4039;
1375.5000;0.0806;4.3697;
1375.8000;0.0814;4.3697;
1376.1000;0.0879;4.3966;
1376.4000;0.0863;4.3941;
1376.7000;0.0879;4.4015;
1377.0000;0.0830;4.3819;
1377.3000;0.0806;4.3819;
1377.6000;0.0895;4.4088;
1377.9000;0.0838;4.4039;
1378.2000;0.0912;4.4284;
1378.5000;0.0887;4.4112;
1378.8000;0.0871;4.4015;
1379.1000;0.0863;4.3966;
1379.4000;0.0879;4.3966;
1379.7000;0.0847;4.3843;
1380.0000;0.0887;4.3892;
1380.3000;0.0822;4.3770;
1380.6000;0.0895;4.3990;
1380.9000;0.0863;4.3917;
1381.2000;0.0806;4.3770;
1381.5000;0.0871;4.3990;
1381.8000;0.0871;4.4039;
1382.1000;0.0822;4.3941;
1382.4000;0.0904;4.4112;
1382.7000;0.0887;4.4137;
1383.0000;0.0879;4.4088;
1383.3000;0.0879;4.4064;
1383.6000;0.0855;4.3966;
1383.9000;0.0887;4.3990;
1384.2000;0.0879;4.4039;
1384.5000;0.0847;4.3868;
1384.8000;0.0863;4.4039;
1385.1000;0.0847;4.3966;
1385.4000;0.0895;4.4015;
1385.7000;0.0847;4.3868;
1386.0000;0.0863;4.3892;
1386.3000;0.0871;4.3941;
1386.6000;0.0871;4.3941;
1386.9000;0.0871;4.3966;
1387.2000;0.0936;4.4015;
1387.5000;0.0871;4.3892;
1387.8000;0.0895;4.4015;
1388.1000;0.0879;4.4064;
1388.4000;0.0855;4.4064;
1388.7000;0.0879;4.4064;
1389.0000;0.0887;4.4088;
1389.3000;0.0920;4.4186;
1389.6000;0.0944;4.4284;
1389.9000;0.0855;4.4039;
1390.2000;0.0830;4.3941;
1390.5000;0.0855;4.3966;
1390.8000;0.0879;4.4015;
1391.1000;0.0879;4.4015;
1391.4000;0.0887;4.3990;
1391.7000;0.0863;4.3917;
1392.0000;0.0855;4.3868;
1392.3000;0.0879;4.3892;
1392.6000;0.0871;4.3990;
1392.9000;0.0895;4.4088;
1393.2000;0.0895;4.4210;
1393.5000;0.0863;4.4039;
1393.8000;0.0871;4.4064;
1394.1000;0.0855;4.4015;
1394.4000;0.0855;4.3966;
1394.7000;0.0863;4.3966;
1395.0000;0.0863;4.4015;
1395.3000;0.0887;4.4112;
1395.6000;0.0855;4.3990;
1395.9000;0.0863;4.4015;
1396.2000;0.0871;4.4064;
1396.5000;0.0863;4.4064;
1396.8000;0.0871;4.4039;
1397.1000;0.0863;4.3990;
1397.4000;0.0847;4.3990;
1397.7000;0.0855;4.4088;
1398.0000;0.0887;4.4112;
1398.3000;0.0904;4.4137;
1398.6000;0.0879;4.4015;
1398.9000;0.0879;4.4039;
1399.2000;0.0863;4.3966;
1399.5000;0.0838;4.3892;
1399.8000;0.0765;4.3648;
