time/ms;Fluo/V;P700 deltaI/I x10³;
-199.8000;0.1009;4.5017;
-199.5000;0.1034;4.4968;
-199.2000;0.1009;4.4870;
-198.9000;0.1018;4.4968;
-198.6000;0.1009;4.4944;
-198.3000;0.1026;4.4944;
-198.0000;0.1107;4.5262;
-197.7000;0.1009;4.4944;
-197.4000;0.1050;4.5042;
-197.1000;0.1042;4.5017;
-196.8000;0.0985;4.4944;
-196.5000;0.1018;4.5066;
-196.2000;0.1018;4.4993;
-195.9000;0.1034;4.4993;
-195.6000;0.1009;4.4968;
-195.3000;0.1009;4.4968;
-195.0000;0.1001;4.4993;
-194.7000;0.1091;4.5311;
-194.4000;0.1034;4.5164;
-194.1000;0.0993;4.5042;
-193.8000;0.0912;4.4773;
-193.5000;0.1009;4.5017;
-193.2000;0.1026;4.5017;
-192.9000;0.1083;4.5188;
-192.6000;0.1001;4.5115;
-192.3000;0.1009;4.5115;
-192.0000;0.1026;4.5213;
-191.7000;0.0993;4.5237;
-191.4000;0.0977;4.5188;
-191.1000;0.1050;4.5408;
-190.8000;0.0993;4.5360;
-190.5000;0.1042;4.5311;
-190.2000;0.1001;4.5286;
-189.9000;0.1156;4.5653;
-189.6000;0.1018;4.5237;
-189.3000;0.1009;4.5262;
-189.0000;0.0920;4.5042;
-188.7000;0.0904;4.5188;
-188.4000;0.1009;4.5506;
-188.1000;0.1009;4.5408;
-187.8000;0.1026;4.5531;
-187.5000;0.1009;4.5506;
-187.2000;0.1018;4.5531;
-186.9000;0.1050;4.5580;
-186.6000;0.1018;4.5506;
-186.3000;0.1009;4.5457;
-186.0000;0.1034;4.5506;
-185.7000;0.1042;4.5580;
-185.4000;0.1115;4.5751;
-185.1000;0.1018;4.5457;
-184.8000;0.1001;4.5433;
-184.5000;0.1018;4.5384;
-184.2000;0.1009;4.5408;
-183.9000;0.0952;4.5237;
-183.6000;0.0985;4.5311;
-183.3000;0.0969;4.5384;
-183.0000;0.1099;4.5751;
-182.7000;0.1034;4.5457;
-182.4000;0.0985;4.5335;
-182.1000;0.1009;4.5408;
-181.8000;0.1009;4.5433;
-181.5000;0.1018;4.5360;
-181.2000;0.1034;4.5457;
-180.9000;0.1026;4.5384;
-180.6000;0.1034;4.5286;
-180.3000;0.1018;4.5311;
-180.0000;0.1018;4.5360;
-179.7000;0.0969;4.5237;
-179.4000;0.0993;4.5262;
-179.1000;0.1034;4.5384;
-178.8000;0.1034;4.5457;
-178.5000;0.1009;4.5408;
-178.2000;0.0977;4.5335;
-177.9000;0.0985;4.5360;
-177.6000;0.1050;4.5482;
-177.3000;0.1001;4.5311;
-177.0000;0.1018;4.5360;
-176.7000;0.1009;4.5360;
-176.4000;0.0985;4.5335;
-176.1000;0.0936;4.5139;
-175.8000;0.1009;4.5457;
-175.5000;0.1034;4.5506;
-175.2000;0.0993;4.5384;
-174.9000;0.1009;4.5286;
-174.6000;0.1034;4.5262;
-174.3000;0.0936;4.5017;
-174.0000;0.1042;4.5384;
-173.7000;0.1026;4.5360;
-173.4000;0.1034;4.5360;
-173.1000;0.1107;4.5604;
-172.8000;0.1001;4.5360;
-172.5000;0.1034;4.5286;
-172.2000;0.1026;4.5311;
-171.9000;0.1083;4.5482;
-171.6000;0.1009;4.5311;
-171.3000;0.1009;4.5237;
-171.0000;0.1001;4.5164;
-170.7000;0.0993;4.5139;
-170.4000;0.1026;4.5311;
-170.1000;0.1018;4.5384;
-169.8000;0.1009;4.5360;
-169.5000;0.1018;4.5335;
-169.2000;0.1009;4.5188;
-168.9000;0.1009;4.5262;
-168.6000;0.1018;4.5188;
-168.3000;0.0993;4.5115;
-168.0000;0.1026;4.5139;
-167.7000;0.1018;4.5164;
-167.4000;0.1001;4.5139;
-167.1000;0.0855;4.4822;
-166.8000;0.1042;4.5213;
-166.5000;0.1050;4.5164;
-166.2000;0.0969;4.5017;
-165.9000;0.1050;4.5262;
-165.6000;0.1050;4.5237;
-165.3000;0.1091;4.5457;
-165.0000;0.0977;4.5139;
-164.7000;0.1009;4.5262;
-164.4000;0.1026;4.5286;
-164.1000;0.1042;4.5408;
-163.8000;0.1026;4.5335;
-163.5000;0.1026;4.5311;
-163.2000;0.1042;4.5335;
-162.9000;0.0993;4.5139;
-162.6000;0.1009;4.5066;
-162.3000;0.1009;4.5237;
-162.0000;0.1042;4.5237;
-161.7000;0.1009;4.5115;
-161.4000;0.1001;4.5139;
-161.1000;0.0993;4.5115;
-160.8000;0.1018;4.5139;
-160.5000;0.0985;4.5042;
-160.2000;0.1009;4.5115;
-159.9000;0.1001;4.5139;
-159.6000;0.1026;4.5188;
-159.3000;0.1009;4.5188;
-159.0000;0.1099;4.5408;
-158.7000;0.0904;4.4870;
-158.4000;0.1009;4.5188;
-158.1000;0.1018;4.5360;
-157.8000;0.1042;4.5433;
-157.5000;0.1009;4.5433;
-157.2000;0.1001;4.5286;
-156.9000;0.1001;4.5286;
-156.6000;0.1018;4.5286;
-156.3000;0.1026;4.5384;
-156.0000;0.0985;4.5335;
-155.7000;0.0993;4.5360;
-155.4000;0.1009;4.5433;
-155.1000;0.0993;4.5457;
-154.8000;0.1026;4.5457;
-154.5000;0.0993;4.5360;
-154.2000;0.0977;4.5237;
-153.9000;0.1026;4.5384;
-153.6000;0.0985;4.5286;
-153.3000;0.1026;4.5360;
-153.0000;0.1001;4.5262;
-152.7000;0.1050;4.5408;
-152.4000;0.1001;4.5335;
-152.1000;0.1009;4.5335;
-151.8000;0.0961;4.5164;
-151.5000;0.1018;4.5311;
-151.2000;0.1050;4.5384;
-150.9000;0.1018;4.5335;
-150.6000;0.1018;4.5286;
-150.3000;0.1001;4.5262;
-150.0000;0.0993;4.5286;
-149.7000;0.1026;4.5433;
-149.4000;0.0993;4.5384;
-149.1000;0.1009;4.5408;
-148.8000;0.0985;4.5286;
-148.5000;0.1018;4.5188;
-148.2000;0.1009;4.5164;
-147.9000;0.0977;4.5164;
-147.6000;0.1050;4.5262;
-147.3000;0.0952;4.5017;
-147.0000;0.1001;4.5139;
-146.7000;0.1018;4.5237;
-146.4000;0.1058;4.5408;
-146.1000;0.0985;4.5164;
-145.8000;0.1018;4.5262;
-145.5000;0.1009;4.5286;
-145.2000;0.1058;4.5506;
-144.9000;0.1026;4.5408;
-144.6000;0.1001;4.5286;
-144.3000;0.1091;4.5482;
-144.0000;0.1026;4.5213;
-143.7000;0.1001;4.5139;
-143.4000;0.1018;4.5237;
-143.1000;0.1009;4.5188;
-142.8000;0.1018;4.5213;
-142.5000;0.1026;4.5237;
-142.2000;0.1042;4.5213;
-141.9000;0.1026;4.5164;
-141.6000;0.1123;4.5408;
-141.3000;0.0993;4.5066;
-141.0000;0.1091;4.5360;
-140.7000;0.1001;4.5091;
-140.4000;0.1001;4.5091;
-140.1000;0.1001;4.4870;
-139.8000;0.1026;4.5042;
-139.5000;0.0993;4.4993;
-139.2000;0.1018;4.5091;
-138.9000;0.1050;4.5188;
-138.6000;0.1001;4.5091;
-138.3000;0.1001;4.5066;
-138.0000;0.0993;4.5017;
-137.7000;0.0863;4.4724;
-137.4000;0.1009;4.5213;
-137.1000;0.1026;4.5311;
-136.8000;0.1018;4.5237;
-136.5000;0.0993;4.5139;
-136.2000;0.1001;4.5286;
-135.9000;0.0936;4.5188;
-135.6000;0.1026;4.5360;
-135.3000;0.1001;4.5213;
-135.0000;0.1009;4.5286;
-134.7000;0.1001;4.5286;
-134.4000;0.1026;4.5408;
-134.1000;0.0993;4.5262;
-133.8000;0.0985;4.5311;
-133.5000;0.1058;4.5482;
-133.2000;0.1026;4.5311;
-132.9000;0.0993;4.5139;
-132.6000;0.1042;4.5213;
-132.3000;0.1034;4.5237;
-132.0000;0.1001;4.5164;
-131.7000;0.1042;4.5286;
-131.4000;0.1018;4.5311;
-131.1000;0.1099;4.5506;
-130.8000;0.1018;4.5237;
-130.5000;0.1009;4.5213;
-130.2000;0.1083;4.5335;
-129.9000;0.1018;4.5213;
-129.6000;0.1018;4.5262;
-129.3000;0.1026;4.5213;
-129.0000;0.1042;4.5286;
-128.7000;0.0952;4.5115;
-128.4000;0.0985;4.5115;
-128.1000;0.0985;4.5213;
-127.8000;0.1018;4.5262;
-127.5000;0.1001;4.5237;
-127.2000;0.1066;4.5360;
-126.9000;0.1018;4.5164;
-126.6000;0.0985;4.5042;
-126.3000;0.1009;4.5091;
-126.0000;0.1018;4.5115;
-125.7000;0.1018;4.5164;
-125.4000;0.1066;4.5262;
-125.1000;0.1042;4.5213;
-124.8000;0.0961;4.4944;
-124.5000;0.0895;4.4699;
-124.2000;0.1018;4.5042;
-123.9000;0.0944;4.4944;
-123.6000;0.1066;4.5262;
-123.3000;0.1001;4.5115;
-123.0000;0.1026;4.5262;
-122.7000;0.0895;4.4797;
-122.4000;0.1018;4.5164;
-122.1000;0.1001;4.5164;
-121.8000;0.1026;4.5213;
-121.5000;0.1026;4.5237;
-121.2000;0.1050;4.5262;
-120.9000;0.1009;4.5091;
-120.6000;0.1009;4.5091;
-120.3000;0.1018;4.5213;
-120.0000;0.1018;4.5139;
-119.7000;0.1026;4.5115;
-119.4000;0.1018;4.5091;
-119.1000;0.1034;4.5091;
-118.8000;0.1018;4.4944;
-118.5000;0.1034;4.4870;
-118.2000;0.1034;4.5017;
-117.9000;0.1018;4.4968;
-117.6000;0.1001;4.4944;
-117.3000;0.1026;4.4895;
-117.0000;0.1034;4.4944;
-116.7000;0.1009;4.4895;
-116.4000;0.1042;4.5042;
-116.1000;0.1026;4.5017;
-115.8000;0.0993;4.5017;
-115.5000;0.1001;4.5017;
-115.2000;0.1009;4.5017;
-114.9000;0.1018;4.5164;
-114.6000;0.1001;4.5091;
-114.3000;0.1018;4.5164;
-114.0000;0.1042;4.5237;
-113.7000;0.1001;4.5042;
-113.4000;0.1001;4.5017;
-113.1000;0.1018;4.5139;
-112.8000;0.1026;4.5066;
-112.5000;0.1001;4.5017;
-112.2000;0.1026;4.5017;
-111.9000;0.1034;4.4993;
-111.6000;0.1026;4.5017;
-111.3000;0.1009;4.4993;
-111.0000;0.1009;4.5017;
-110.7000;0.1018;4.5042;
-110.4000;0.1018;4.5066;
-110.1000;0.1001;4.5017;
-109.8000;0.1018;4.5042;
-109.5000;0.1058;4.5188;
-109.2000;0.1001;4.5042;
-108.9000;0.0871;4.4724;
-108.6000;0.1001;4.5115;
-108.3000;0.0944;4.4846;
-108.0000;0.1107;4.5384;
-107.7000;0.1083;4.5262;
-107.4000;0.0961;4.5042;
-107.1000;0.0985;4.5091;
-106.8000;0.1131;4.5482;
-106.5000;0.1001;4.5237;
-106.2000;0.0855;4.4797;
-105.9000;0.1018;4.5188;
-105.6000;0.1009;4.5188;
-105.3000;0.1042;4.5311;
-105.0000;0.1009;4.5164;
-104.7000;0.1018;4.5188;
-104.4000;0.1042;4.5213;
-104.1000;0.1034;4.5311;
-103.8000;0.0944;4.5091;
-103.5000;0.1034;4.5213;
-103.2000;0.1018;4.5237;
-102.9000;0.1009;4.5188;
-102.6000;0.1001;4.5115;
-102.3000;0.1018;4.5213;
-102.0000;0.1026;4.5262;
-101.7000;0.1034;4.5237;
-101.4000;0.0993;4.5262;
-101.1000;0.1009;4.5237;
-100.8000;0.0952;4.5262;
-100.5000;0.1018;4.5335;
-100.2000;0.0977;4.5188;
-99.9000;0.1001;4.5213;
-99.6000;0.0985;4.5164;
-99.3000;0.1026;4.5311;
-99.0000;0.1107;4.5457;
-98.7000;0.1009;4.5164;
-98.4000;0.1050;4.5237;
-98.1000;0.0977;4.5091;
-97.8000;0.1018;4.5213;
-97.5000;0.1034;4.5262;
-97.2000;0.1050;4.5262;
-96.9000;0.1026;4.5213;
-96.6000;0.1009;4.5188;
-96.3000;0.1009;4.5164;
-96.0000;0.1026;4.5188;
-95.7000;0.1001;4.5213;
-95.4000;0.1009;4.5237;
-95.1000;0.0993;4.5262;
-94.8000;0.1009;4.5286;
-94.5000;0.1009;4.5360;
-94.2000;0.0993;4.5286;
-93.9000;0.0993;4.5237;
-93.6000;0.1009;4.5360;
-93.3000;0.1034;4.5360;
-93.0000;0.1018;4.5384;
-92.7000;0.1009;4.5408;
-92.4000;0.1042;4.5384;
-92.1000;0.1009;4.5311;
-91.8000;0.1026;4.5384;
-91.5000;0.1026;4.5433;
-91.2000;0.0985;4.5335;
-90.9000;0.0944;4.5139;
-90.6000;0.0993;4.5408;
-90.3000;0.1026;4.5457;
-90.0000;0.1009;4.5408;
-89.7000;0.1001;4.5311;
-89.4000;0.0961;4.5237;
-89.1000;0.0993;4.5286;
-88.8000;0.1001;4.5164;
-88.5000;0.1026;4.5139;
-88.2000;0.1009;4.5091;
-87.9000;0.1107;4.5433;
-87.6000;0.1026;4.5188;
-87.3000;0.0920;4.4870;
-87.0000;0.0993;4.5237;
-86.7000;0.1042;4.5237;
-86.4000;0.1042;4.5188;
-86.1000;0.1018;4.5042;
-85.8000;0.1026;4.5042;
-85.5000;0.1009;4.4944;
-85.2000;0.1018;4.4944;
-84.9000;0.1026;4.4968;
-84.6000;0.1018;4.5042;
-84.3000;0.1018;4.5066;
-84.0000;0.1009;4.5139;
-83.7000;0.1034;4.5213;
-83.4000;0.0985;4.5066;
-83.1000;0.1034;4.5188;
-82.8000;0.1009;4.5164;
-82.5000;0.1009;4.5213;
-82.2000;0.0952;4.5066;
-81.9000;0.1018;4.5286;
-81.6000;0.1034;4.5286;
-81.3000;0.1026;4.5311;
-81.0000;0.1042;4.5408;
-80.7000;0.1001;4.5213;
-80.4000;0.1009;4.5188;
-80.1000;0.1009;4.5164;
-79.8000;0.0985;4.5164;
-79.5000;0.1009;4.5213;
-79.2000;0.1026;4.5262;
-78.9000;0.1018;4.5237;
-78.6000;0.1083;4.5408;
-78.3000;0.1018;4.5286;
-78.0000;0.1018;4.5286;
-77.7000;0.1001;4.5286;
-77.4000;0.1066;4.5457;
-77.1000;0.0977;4.5237;
-76.8000;0.1034;4.5335;
-76.5000;0.1018;4.5262;
-76.2000;0.1026;4.5237;
-75.9000;0.1034;4.5262;
-75.6000;0.0993;4.5188;
-75.3000;0.1009;4.5188;
-75.0000;0.1042;4.5213;
-74.7000;0.1034;4.5188;
-74.4000;0.1034;4.5188;
-74.1000;0.1018;4.5066;
-73.8000;0.1042;4.5066;
-73.5000;0.0969;4.4968;
-73.2000;0.1001;4.4968;
-72.9000;0.1066;4.5066;
-72.6000;0.1018;4.4919;
-72.3000;0.1026;4.4968;
-72.0000;0.0985;4.4846;
-71.7000;0.1009;4.4968;
-71.4000;0.1026;4.4968;
-71.1000;0.1009;4.4993;
-70.8000;0.1018;4.5042;
-70.5000;0.1018;4.5139;
-70.2000;0.1018;4.5164;
-69.9000;0.1042;4.5286;
-69.6000;0.1001;4.5139;
-69.3000;0.1001;4.5139;
-69.0000;0.1099;4.5457;
-68.7000;0.1107;4.5457;
-68.4000;0.1018;4.5139;
-68.1000;0.1042;4.5164;
-67.8000;0.1018;4.5115;
-67.5000;0.1034;4.5091;
-67.2000;0.1009;4.5115;
-66.9000;0.1026;4.5164;
-66.6000;0.1001;4.5017;
-66.3000;0.1009;4.4919;
-66.0000;0.0993;4.4797;
-65.7000;0.1034;4.4944;
-65.4000;0.1001;4.5017;
-65.1000;0.1026;4.5066;
-64.8000;0.1066;4.5213;
-64.5000;0.1009;4.5115;
-64.2000;0.1026;4.5115;
-63.9000;0.0993;4.5042;
-63.6000;0.1026;4.5237;
-63.3000;0.0961;4.5042;
-63.0000;0.0993;4.5115;
-62.7000;0.1074;4.5408;
-62.4000;0.0969;4.5262;
-62.1000;0.1001;4.5433;
-61.8000;0.1009;4.5360;
-61.5000;0.1026;4.5311;
-61.2000;0.1009;4.5286;
-60.9000;0.1009;4.5262;
-60.6000;0.1026;4.5237;
-60.3000;0.1009;4.5213;
-60.0000;0.1018;4.5237;
-59.7000;0.1018;4.5188;
-59.4000;0.1001;4.5115;
-59.1000;0.1009;4.5066;
-58.8000;0.1042;4.5139;
-58.5000;0.1009;4.5213;
-58.2000;0.0879;4.4870;
-57.9000;0.1018;4.5237;
-57.6000;0.1026;4.5188;
-57.3000;0.1009;4.5164;
-57.0000;0.1001;4.5164;
-56.7000;0.1018;4.5164;
-56.4000;0.1018;4.5188;
-56.1000;0.0993;4.5091;
-55.8000;0.1001;4.5017;
-55.5000;0.1018;4.5066;
-55.2000;0.0993;4.5091;
-54.9000;0.1009;4.5091;
-54.6000;0.0985;4.5066;
-54.3000;0.0993;4.5017;
-54.0000;0.1001;4.5115;
-53.7000;0.1018;4.5188;
-53.4000;0.1001;4.5066;
-53.1000;0.0969;4.5017;
-52.8000;0.1001;4.5213;
-52.5000;0.1026;4.5262;
-52.2000;0.1026;4.5384;
-51.9000;0.1009;4.5335;
-51.6000;0.1074;4.5482;
-51.3000;0.1074;4.5457;
-51.0000;0.1042;4.5384;
-50.7000;0.1001;4.5237;
-50.4000;0.1026;4.5213;
-50.1000;0.0887;4.4846;
-49.8000;0.1018;4.5286;
-49.5000;0.1034;4.5433;
-49.2000;0.0904;4.5115;
-48.9000;0.0928;4.5164;
-48.6000;0.1009;4.5408;
-48.3000;0.1018;4.5384;
-48.0000;0.1042;4.5335;
-47.7000;0.1001;4.5237;
-47.4000;0.1018;4.5237;
-47.1000;0.1026;4.5262;
-46.8000;0.1107;4.5506;
-46.5000;0.1026;4.5360;
-46.2000;0.1042;4.5506;
-45.9000;0.0969;4.5237;
-45.6000;0.1001;4.5408;
-45.3000;0.1050;4.5457;
-45.0000;0.1009;4.5360;
-44.7000;0.1018;4.5335;
-44.4000;0.1009;4.5360;
-44.1000;0.1018;4.5335;
-43.8000;0.1058;4.5335;
-43.5000;0.1042;4.5335;
-43.2000;0.1001;4.5262;
-42.9000;0.1026;4.5360;
-42.6000;0.0952;4.5091;
-42.3000;0.1018;4.5188;
-42.0000;0.1018;4.5164;
-41.7000;0.1050;4.5262;
-41.4000;0.1026;4.5188;
-41.1000;0.1026;4.5213;
-40.8000;0.0920;4.4944;
-40.5000;0.1001;4.5164;
-40.2000;0.1001;4.5139;
-39.9000;0.1026;4.5286;
-39.6000;0.0912;4.4822;
-39.3000;0.1018;4.5139;
-39.0000;0.0985;4.5115;
-38.7000;0.1018;4.5091;
-38.4000;0.1034;4.5164;
-38.1000;0.1026;4.5213;
-37.8000;0.1018;4.5213;
-37.5000;0.1009;4.5164;
-37.2000;0.1042;4.5213;
-36.9000;0.1018;4.5091;
-36.6000;0.1009;4.5042;
-36.3000;0.0912;4.4748;
-36.0000;0.1018;4.5017;
-35.7000;0.1034;4.5017;
-35.4000;0.1026;4.4895;
-35.1000;0.0961;4.4773;
-34.8000;0.0977;4.4895;
-34.5000;0.1034;4.5042;
-34.2000;0.1009;4.5042;
-33.9000;0.1026;4.5042;
-33.6000;0.1018;4.5164;
-33.3000;0.1042;4.5286;
-33.0000;0.1026;4.5384;
-32.7000;0.1009;4.5360;
-32.4000;0.0920;4.5139;
-32.1000;0.1026;4.5433;
-31.8000;0.1009;4.5311;
-31.5000;0.1009;4.5188;
-31.2000;0.1001;4.5042;
-30.9000;0.1009;4.5066;
-30.6000;0.1001;4.5017;
-30.3000;0.1001;4.4968;
-30.0000;0.1034;4.5091;
-29.7000;0.1018;4.5066;
-29.4000;0.1009;4.5042;
-29.1000;0.0961;4.4895;
-28.8000;0.1001;4.5091;
-28.5000;0.0993;4.5164;
-28.2000;0.1018;4.5188;
-27.9000;0.1026;4.5286;
-27.6000;0.0993;4.5188;
-27.3000;0.0952;4.5042;
-27.0000;0.1026;4.5213;
-26.7000;0.1018;4.5188;
-26.4000;0.1001;4.5164;
-26.1000;0.1123;4.5457;
-25.8000;0.1009;4.5188;
-25.5000;0.1042;4.5262;
-25.2000;0.1083;4.5335;
-24.9000;0.1026;4.5213;
-24.6000;0.1009;4.5188;
-24.3000;0.1001;4.5139;
-24.0000;0.1026;4.5139;
-23.7000;0.1018;4.5091;
-23.4000;0.0985;4.5091;
-23.1000;0.1042;4.5262;
-22.8000;0.1018;4.5188;
-22.5000;0.1009;4.5188;
-22.2000;0.1018;4.5188;
-21.9000;0.1001;4.5115;
-21.6000;0.1001;4.5091;
-21.3000;0.1026;4.5188;
-21.0000;0.1042;4.5213;
-20.7000;0.1018;4.5188;
-20.4000;0.1026;4.5237;
-20.1000;0.1018;4.5164;
-19.8000;0.1009;4.5188;
-19.5000;0.1034;4.5237;
-19.2000;0.1001;4.5091;
-18.9000;0.1034;4.5164;
-18.6000;0.1009;4.5091;
-18.3000;0.1034;4.5188;
-18.0000;0.0993;4.5115;
-17.7000;0.1001;4.5164;
-17.4000;0.1083;4.5335;
-17.1000;0.0993;4.5115;
-16.8000;0.0952;4.4993;
-16.5000;0.1009;4.5091;
-16.2000;0.1018;4.5066;
-15.9000;0.1042;4.5139;
-15.6000;0.1026;4.5115;
-15.3000;0.1001;4.5164;
-15.0000;0.1099;4.5482;
-14.7000;0.0961;4.5139;
-14.4000;0.1123;4.5531;
-14.1000;0.1066;4.5286;
-13.8000;0.1074;4.5311;
-13.5000;0.1018;4.5066;
-13.2000;0.1058;4.5139;
-12.9000;0.1140;4.5506;
-12.6000;0.1042;4.5188;
-12.3000;0.0993;4.5115;
-12.0000;0.0985;4.5115;
-11.7000;0.1009;4.5091;
-11.4000;0.1009;4.5017;
-11.1000;0.1115;4.5311;
-10.8000;0.0936;4.4822;
-10.5000;0.0993;4.5017;
-10.2000;0.1001;4.5091;
-9.9000;0.1009;4.5017;
-9.6000;0.1009;4.5164;
-9.3000;0.0985;4.5091;
-9.0000;0.0993;4.5188;
-8.7000;0.0993;4.5188;
-8.4000;0.1058;4.5408;
-8.1000;0.1009;4.5286;
-7.8000;0.1001;4.5237;
-7.5000;0.0985;4.5213;
-7.2000;0.1026;4.5360;
-6.9000;0.1018;4.5335;
-6.6000;0.1001;4.5311;
-6.3000;0.1034;4.5408;
-6.0000;0.0961;4.5164;
-5.7000;0.1009;4.5286;
-5.4000;0.0993;4.5335;
-5.1000;0.1001;4.5360;
-4.8000;0.1026;4.5360;
-4.5000;0.1001;4.5286;
-4.2000;0.1001;4.5213;
-3.9000;0.1001;4.5164;
-3.6000;0.1001;4.5115;
-3.3000;0.1018;4.5115;
-3.0000;0.1058;4.5360;
-2.7000;0.1042;4.5213;
-2.4000;0.1018;4.5091;
-2.1000;0.1018;4.5139;
-1.8000;0.1009;4.5066;
-1.5000;0.1018;4.4968;
-1.2000;0.0993;4.4944;
-0.9000;0.0993;4.4968;
-0.6000;0.1026;4.5091;
-0.3000;0.1050;4.5115;
0.0000;0.1050;4.5115;
0.3000;0.0993;4.4993;
0.6000;0.0993;4.5017;
0.9000;0.1042;4.5237;
1.2000;0.1034;4.5262;
1.5000;0.1034;4.5335;
1.8000;0.1034;4.5408;
2.1000;0.1050;4.5482;
2.4000;0.1042;4.5555;
2.7000;0.1026;4.5628;
3.0000;0.1042;4.5702;
3.3000;0.1034;4.5751;
3.6000;0.1066;4.5849;
3.9000;0.1026;4.5726;
4.2000;0.1148;4.6118;
4.5000;0.1050;4.5849;
4.8000;0.1074;4.5922;
5.1000;0.1042;4.5873;
5.4000;0.1042;4.5897;
5.7000;0.1107;4.5971;
6.0000;0.1058;4.5897;
6.3000;0.1034;4.6020;
6.6000;0.1009;4.6069;
6.9000;0.0936;4.5824;
7.2000;0.1050;4.6093;
7.5000;0.1066;4.6118;
7.8000;0.1083;4.6142;
8.1000;0.1074;4.6069;
8.4000;0.1066;4.6020;
8.7000;0.1026;4.5922;
9.0000;0.1058;4.5946;
9.3000;0.1066;4.5995;
9.6000;0.1237;4.6411;
9.9000;0.1058;4.5995;
10.2000;0.1058;4.6020;
10.5000;0.1026;4.5873;
10.8000;0.1018;4.5873;
11.1000;0.1058;4.5971;
11.4000;0.1091;4.6118;
11.7000;0.1091;4.6215;
12.0000;0.1091;4.6240;
12.3000;0.1074;4.6289;
12.6000;0.0985;4.6044;
12.9000;0.1058;4.6191;
13.2000;0.0985;4.5897;
13.5000;0.1148;4.6338;
13.8000;0.1066;4.6020;
14.1000;0.1050;4.6044;
14.4000;0.1034;4.5946;
14.7000;0.1050;4.6044;
15.0000;0.1026;4.5946;
15.3000;0.1058;4.6020;
15.6000;0.1066;4.6044;
15.9000;0.1058;4.6093;
16.2000;0.1050;4.6166;
16.5000;0.1066;4.6240;
16.8000;0.1042;4.6093;
17.1000;0.1058;4.6093;
17.4000;0.1066;4.6093;
17.7000;0.1042;4.5995;
18.0000;0.1066;4.6044;
18.3000;0.1058;4.6093;
18.6000;0.1066;4.6093;
18.9000;0.1050;4.6191;
19.2000;0.1099;4.6264;
19.5000;0.1050;4.6240;
19.8000;0.1034;4.6191;
20.1000;0.1074;4.6264;
20.4000;0.1074;4.6215;
20.7000;0.1050;4.6118;
21.0000;0.1066;4.6069;
21.3000;0.1066;4.6118;
21.6000;0.1058;4.6118;
21.9000;0.1050;4.6142;
22.2000;0.1050;4.6142;
22.5000;0.1066;4.6240;
22.8000;0.1074;4.6118;
23.1000;0.0920;4.5726;
23.4000;0.1066;4.6142;
23.7000;0.1099;4.6289;
24.0000;0.1042;4.6142;
24.3000;0.1042;4.6069;
24.6000;0.1026;4.6020;
24.9000;0.1074;4.6166;
25.2000;0.1050;4.6044;
25.5000;0.1042;4.5971;
25.8000;0.1009;4.5922;
26.1000;0.1034;4.6020;
26.4000;0.1066;4.6118;
26.7000;0.1058;4.6069;
27.0000;0.1066;4.6069;
27.3000;0.1042;4.6044;
27.6000;0.1042;4.6069;
27.9000;0.1050;4.6069;
28.2000;0.1058;4.5995;
28.5000;0.1034;4.5971;
28.8000;0.1066;4.6069;
29.1000;0.1050;4.6044;
29.4000;0.1050;4.6093;
29.7000;0.1050;4.6166;
30.0000;0.1083;4.6191;
30.3000;0.1074;4.6118;
30.6000;0.1042;4.6020;
30.9000;0.1058;4.6093;
31.2000;0.1050;4.6093;
31.5000;0.1188;4.6484;
31.8000;0.1042;4.6044;
32.1000;0.1066;4.6044;
32.4000;0.1058;4.5946;
32.7000;0.1074;4.5946;
33.0000;0.1066;4.5995;
33.3000;0.1066;4.5971;
33.6000;0.1066;4.5946;
33.9000;0.1221;4.6338;
34.2000;0.1034;4.5971;
34.5000;0.1050;4.6020;
34.8000;0.1042;4.6093;
35.1000;0.1058;4.6215;
35.4000;0.1042;4.6142;
35.7000;0.1066;4.6142;
36.0000;0.1034;4.6044;
36.3000;0.1058;4.6093;
36.6000;0.1058;4.6069;
36.9000;0.1066;4.6069;
37.2000;0.1050;4.6093;
37.5000;0.1042;4.5995;
37.8000;0.1083;4.6118;
38.1000;0.1050;4.6069;
38.4000;0.1091;4.6215;
38.7000;0.1058;4.6093;
39.0000;0.1050;4.6118;
39.3000;0.1058;4.6191;
39.6000;0.1050;4.6264;
39.9000;0.1066;4.6215;
40.2000;0.1058;4.6191;
40.5000;0.1091;4.6215;
40.8000;0.1066;4.6093;
41.1000;0.1164;4.6240;
41.4000;0.1050;4.5971;
41.7000;0.1034;4.6020;
42.0000;0.1018;4.5971;
42.3000;0.1009;4.6020;
42.6000;0.1042;4.6142;
42.9000;0.1083;4.6240;
43.2000;0.1091;4.6215;
43.5000;0.1066;4.6069;
43.8000;0.1074;4.6166;
44.1000;0.1074;4.6215;
44.4000;0.1058;4.6118;
44.7000;0.1099;4.6215;
45.0000;0.1001;4.5922;
45.3000;0.1058;4.6142;
45.6000;0.1058;4.6142;
45.9000;0.1058;4.6093;
46.2000;0.1050;4.6215;
46.5000;0.1066;4.6240;
46.8000;0.1074;4.6191;
47.1000;0.1042;4.6166;
47.4000;0.1058;4.6166;
47.7000;0.1188;4.6509;
48.0000;0.1026;4.6093;
48.3000;0.1058;4.6289;
48.6000;0.1058;4.6289;
48.9000;0.1058;4.6313;
49.2000;0.1066;4.6264;
49.5000;0.1083;4.6240;
49.8000;0.1058;4.6142;
50.1000;0.1058;4.6191;
50.4000;0.1058;4.6338;
50.7000;0.1083;4.6435;
51.0000;0.1050;4.6264;
51.3000;0.1050;4.6191;
51.6000;0.1058;4.6191;
51.9000;0.1042;4.6142;
52.2000;0.0993;4.5922;
52.5000;0.1009;4.6020;
52.8000;0.1091;4.6289;
53.1000;0.1074;4.6240;
53.4000;0.1058;4.6240;
53.7000;0.1018;4.6044;
54.0000;0.1034;4.6093;
54.3000;0.1083;4.6142;
54.6000;0.1066;4.6118;
54.9000;0.1083;4.6191;
55.2000;0.0944;4.5897;
55.5000;0.1058;4.6166;
55.8000;0.1058;4.6166;
56.1000;0.1050;4.6215;
56.4000;0.1058;4.6191;
56.7000;0.1058;4.6240;
57.0000;0.1066;4.6264;
57.3000;0.1058;4.6313;
57.6000;0.1074;4.6338;
57.9000;0.1091;4.6411;
58.2000;0.1066;4.6313;
58.5000;0.1050;4.6264;
58.8000;0.1066;4.6313;
59.1000;0.1074;4.6264;
59.4000;0.1083;4.6313;
59.7000;0.1131;4.6387;
60.0000;0.1066;4.6215;
60.3000;0.1042;4.6142;
60.6000;0.1066;4.6240;
60.9000;0.1058;4.6264;
61.2000;0.1050;4.6166;
61.5000;0.1042;4.6166;
61.8000;0.1091;4.6142;
62.1000;0.1034;4.5922;
62.4000;0.1058;4.5922;
62.7000;0.1180;4.6387;
63.0000;0.1042;4.5995;
63.3000;0.1074;4.6093;
63.6000;0.1058;4.6044;
63.9000;0.1058;4.6069;
64.2000;0.1034;4.5995;
64.5000;0.1050;4.6044;
64.8000;0.1042;4.5995;
65.1000;0.1074;4.6044;
65.4000;0.1050;4.5995;
65.7000;0.1083;4.6044;
66.0000;0.1091;4.5995;
66.3000;0.1058;4.5873;
66.6000;0.1066;4.5824;
66.9000;0.1083;4.5897;
67.2000;0.1058;4.5946;
67.5000;0.1083;4.6020;
67.8000;0.1050;4.5946;
68.1000;0.1058;4.5897;
68.4000;0.1083;4.6118;
68.7000;0.1042;4.6118;
69.0000;0.1058;4.6191;
69.3000;0.1066;4.6215;
69.6000;0.1058;4.6166;
69.9000;0.1058;4.6093;
70.2000;0.1074;4.6069;
70.5000;0.1058;4.5971;
70.8000;0.1058;4.6069;
71.1000;0.0928;4.5677;
71.4000;0.1058;4.6069;
71.7000;0.1058;4.6118;
72.0000;0.1001;4.5995;
72.3000;0.1058;4.6166;
72.6000;0.1074;4.6191;
72.9000;0.1042;4.6093;
73.2000;0.1066;4.6215;
73.5000;0.1066;4.6240;
73.8000;0.0936;4.5971;
74.1000;0.1058;4.6338;
74.4000;0.1074;4.6362;
74.7000;0.0993;4.6166;
75.0000;0.1050;4.6362;
75.3000;0.1050;4.6289;
75.6000;0.1050;4.6264;
75.9000;0.1034;4.6240;
76.2000;0.1091;4.6509;
76.5000;0.1058;4.6338;
76.8000;0.1050;4.6289;
77.1000;0.1058;4.6313;
77.4000;0.1058;4.6264;
77.7000;0.1009;4.6240;
78.0000;0.1115;4.6460;
78.3000;0.1172;4.6607;
78.6000;0.1197;4.6680;
78.9000;0.1066;4.6313;
79.2000;0.1050;4.6215;
79.5000;0.1058;4.6338;
79.8000;0.0952;4.6044;
80.1000;0.1074;4.6435;
80.4000;0.1018;4.6313;
80.7000;0.1083;4.6387;
81.0000;0.1140;4.6460;
81.3000;0.1050;4.6289;
81.6000;0.1140;4.6484;
81.9000;0.1050;4.6313;
82.2000;0.1058;4.6338;
82.5000;0.1050;4.6264;
82.8000;0.1042;4.6240;
83.1000;0.1058;4.6313;
83.4000;0.1074;4.6240;
83.7000;0.1083;4.6240;
84.0000;0.1050;4.6191;
84.3000;0.1066;4.6264;
84.6000;0.1148;4.6484;
84.9000;0.1074;4.6313;
85.2000;0.1058;4.6313;
85.5000;0.1066;4.6313;
85.8000;0.1058;4.6240;
86.1000;0.1050;4.6142;
86.4000;0.1066;4.6264;
86.7000;0.1050;4.6215;
87.0000;0.1074;4.6289;
87.3000;0.1074;4.6313;
87.6000;0.1050;4.6289;
87.9000;0.1058;4.6313;
88.2000;0.1034;4.6240;
88.5000;0.1074;4.6264;
88.8000;0.1066;4.6191;
89.1000;0.1066;4.6191;
89.4000;0.1058;4.6191;
89.7000;0.1083;4.6264;
90.0000;0.1058;4.6289;
90.3000;0.1066;4.6338;
90.6000;0.1066;4.6313;
90.9000;0.1026;4.6240;
91.2000;0.1034;4.6264;
91.5000;0.1083;4.6387;
91.8000;0.1058;4.6240;
92.1000;0.1091;4.6215;
92.4000;0.1058;4.6191;
92.7000;0.1083;4.6289;
93.0000;0.1066;4.6289;
93.3000;0.1009;4.6166;
93.6000;0.1050;4.6240;
93.9000;0.1034;4.6142;
94.2000;0.1205;4.6582;
94.5000;0.1074;4.6289;
94.8000;0.1074;4.6240;
95.1000;0.1058;4.6118;
95.4000;0.1042;4.6142;
95.7000;0.1050;4.6191;
96.0000;0.1050;4.6166;
96.3000;0.0936;4.5873;
96.6000;0.1083;4.6240;
96.9000;0.1058;4.6240;
97.2000;0.1148;4.6411;
97.5000;0.1034;4.6093;
97.8000;0.1074;4.6191;
98.1000;0.1026;4.6166;
98.4000;0.1034;4.6240;
98.7000;0.1099;4.6533;
99.0000;0.1058;4.6387;
99.3000;0.1050;4.6338;
99.6000;0.1050;4.6289;
99.9000;0.1091;4.6435;
100.2000;0.1066;4.6411;
100.5000;0.1034;4.6387;
100.8000;0.1058;4.6411;
101.1000;0.1050;4.6411;
101.4000;0.1026;4.6313;
101.7000;0.1042;4.6460;
102.0000;0.1034;4.6338;
102.3000;0.1074;4.6435;
102.6000;0.1091;4.6362;
102.9000;0.1034;4.6118;
103.2000;0.1066;4.6215;
103.5000;0.1058;4.6166;
103.8000;0.1099;4.6313;
104.1000;0.1058;4.6240;
104.4000;0.1050;4.6215;
104.7000;0.1107;4.6338;
105.0000;0.1018;4.6215;
105.3000;0.1074;4.6338;
105.6000;0.1091;4.6411;
105.9000;0.1058;4.6240;
106.2000;0.1042;4.6166;
106.5000;0.1091;4.6362;
106.8000;0.1091;4.6387;
107.1000;0.1001;4.6118;
107.4000;0.1026;4.6264;
107.7000;0.1058;4.6338;
108.0000;0.1042;4.6264;
108.3000;0.1074;4.6289;
108.6000;0.1074;4.6338;
108.9000;0.1083;4.6289;
109.2000;0.1050;4.6240;
109.5000;0.1058;4.6264;
109.8000;0.1026;4.6142;
110.1000;0.1074;4.6264;
110.4000;0.1058;4.6191;
110.7000;0.1050;4.6215;
111.0000;0.1042;4.6093;
111.3000;0.1074;4.6191;
111.6000;0.1066;4.6240;
111.9000;0.1074;4.6338;
112.2000;0.1099;4.6362;
112.5000;0.1074;4.6289;
112.8000;0.1066;4.6338;
113.1000;0.1083;4.6362;
113.4000;0.1074;4.6460;
113.7000;0.1066;4.6509;
114.0000;0.1066;4.6558;
114.3000;0.1074;4.6460;
114.6000;0.1058;4.6387;
114.9000;0.1026;4.6289;
115.2000;0.1058;4.6411;
115.5000;0.0977;4.6166;
115.8000;0.1050;4.6484;
116.1000;0.1058;4.6558;
116.4000;0.1074;4.6509;
116.7000;0.1083;4.6435;
117.0000;0.1026;4.6240;
117.3000;0.1001;4.6191;
117.6000;0.1066;4.6289;
117.9000;0.1074;4.6264;
118.2000;0.1066;4.6289;
118.5000;0.1042;4.6264;
118.8000;0.1050;4.6264;
119.1000;0.1083;4.6411;
119.4000;0.1026;4.6215;
119.7000;0.1083;4.6387;
120.0000;0.0993;4.6093;
120.3000;0.1042;4.6191;
120.6000;0.1058;4.6289;
120.9000;0.1066;4.6411;
121.2000;0.0961;4.6166;
121.5000;0.1026;4.6411;
121.8000;0.1091;4.6533;
122.1000;0.1050;4.6435;
122.4000;0.1058;4.6460;
122.7000;0.1115;4.6631;
123.0000;0.1058;4.6484;
123.3000;0.1050;4.6411;
123.6000;0.1026;4.6191;
123.9000;0.1083;4.6362;
124.2000;0.1058;4.6338;
124.5000;0.1050;4.6313;
124.8000;0.1018;4.6215;
125.1000;0.1099;4.6387;
125.4000;0.1107;4.6435;
125.7000;0.1074;4.6362;
126.0000;0.1074;4.6289;
126.3000;0.1058;4.6215;
126.6000;0.1091;4.6289;
126.9000;0.1083;4.6264;
127.2000;0.1091;4.6362;
127.5000;0.1140;4.6533;
127.8000;0.1066;4.6338;
128.1000;0.1115;4.6509;
128.4000;0.1083;4.6484;
128.7000;0.1034;4.6387;
129.0000;0.1066;4.6435;
129.3000;0.1091;4.6435;
129.6000;0.1066;4.6411;
129.9000;0.1066;4.6435;
130.2000;0.1050;4.6362;
130.5000;0.1042;4.6362;
130.8000;0.1058;4.6460;
131.1000;0.1050;4.6484;
131.4000;0.0985;4.6362;
131.7000;0.1091;4.6558;
132.0000;0.1058;4.6460;
132.3000;0.1058;4.6558;
132.6000;0.1058;4.6533;
132.9000;0.1042;4.6509;
133.2000;0.1074;4.6631;
133.5000;0.1034;4.6460;
133.8000;0.1066;4.6484;
134.1000;0.1050;4.6387;
134.4000;0.1074;4.6387;
134.7000;0.1066;4.6338;
135.0000;0.1091;4.6338;
135.3000;0.1074;4.6289;
135.6000;0.1050;4.6264;
135.9000;0.1042;4.6264;
136.2000;0.1074;4.6362;
136.5000;0.1083;4.6338;
136.8000;0.1050;4.6215;
137.1000;0.1083;4.6362;
137.4000;0.1058;4.6289;
137.7000;0.1058;4.6313;
138.0000;0.1066;4.6289;
138.3000;0.1058;4.6264;
138.6000;0.1083;4.6240;
138.9000;0.0920;4.5849;
139.2000;0.1058;4.6191;
139.5000;0.1066;4.6166;
139.8000;0.1107;4.6240;
140.1000;0.1091;4.6118;
140.4000;0.1083;4.6166;
140.7000;0.1018;4.6069;
141.0000;0.1083;4.6240;
141.3000;0.1066;4.6240;
141.6000;0.1058;4.6313;
141.9000;0.1188;4.6655;
142.2000;0.1050;4.6215;
142.5000;0.1148;4.6460;
142.8000;0.1058;4.6289;
143.1000;0.1083;4.6338;
143.4000;0.1066;4.6362;
143.7000;0.1083;4.6435;
144.0000;0.1058;4.6362;
144.3000;0.1066;4.6411;
144.6000;0.1091;4.6435;
144.9000;0.0993;4.6142;
145.2000;0.0985;4.6093;
145.5000;0.1050;4.6289;
145.8000;0.1074;4.6313;
146.1000;0.1034;4.6166;
146.4000;0.1066;4.6240;
146.7000;0.1034;4.6240;
147.0000;0.1066;4.6338;
147.3000;0.1066;4.6411;
147.6000;0.1050;4.6460;
147.9000;0.1074;4.6435;
148.2000;0.1074;4.6484;
148.5000;0.1066;4.6484;
148.8000;0.1050;4.6435;
149.1000;0.1058;4.6460;
149.4000;0.1050;4.6460;
149.7000;0.1042;4.6435;
150.0000;0.1074;4.6460;
150.3000;0.1074;4.6484;
150.6000;0.1074;4.6460;
150.9000;0.1058;4.6362;
151.2000;0.1050;4.6460;
151.5000;0.1074;4.6460;
151.8000;0.1042;4.6460;
152.1000;0.1050;4.6484;
152.4000;0.0985;4.6313;
152.7000;0.1018;4.6411;
153.0000;0.1034;4.6460;
153.3000;0.1058;4.6509;
153.6000;0.1058;4.6558;
153.9000;0.1034;4.6533;
154.2000;0.1074;4.6607;
154.5000;0.1066;4.6680;
154.8000;0.1042;4.6582;
155.1000;0.1074;4.6631;
155.4000;0.1042;4.6533;
155.7000;0.1034;4.6435;
156.0000;0.1066;4.6509;
156.3000;0.1083;4.6558;
156.6000;0.1042;4.6484;
156.9000;0.1156;4.6729;
157.2000;0.1050;4.6460;
157.5000;0.1042;4.6435;
157.8000;0.1050;4.6387;
158.1000;0.1001;4.6240;
158.4000;0.1050;4.6338;
158.7000;0.1058;4.6338;
159.0000;0.1074;4.6435;
159.3000;0.1066;4.6460;
159.6000;0.1018;4.6362;
159.9000;0.1009;4.6362;
160.2000;0.1042;4.6460;
160.5000;0.1034;4.6387;
160.8000;0.1058;4.6387;
161.1000;0.1001;4.6166;
161.4000;0.1050;4.6289;
161.7000;0.1050;4.6387;
162.0000;0.1083;4.6411;
162.3000;0.1148;4.6655;
162.6000;0.1050;4.6460;
162.9000;0.1074;4.6484;
163.2000;0.1074;4.6484;
163.5000;0.1074;4.6484;
163.8000;0.1074;4.6582;
164.1000;0.1066;4.6582;
164.4000;0.1074;4.6607;
164.7000;0.1148;4.6851;
165.0000;0.1042;4.6582;
165.3000;0.1050;4.6631;
165.6000;0.1074;4.6607;
165.9000;0.1066;4.6533;
166.2000;0.1058;4.6509;
166.5000;0.1058;4.6460;
166.8000;0.1050;4.6387;
167.1000;0.1058;4.6387;
167.4000;0.1066;4.6460;
167.7000;0.1034;4.6362;
168.0000;0.1050;4.6387;
168.3000;0.1066;4.6387;
168.6000;0.1074;4.6387;
168.9000;0.1066;4.6387;
169.2000;0.1058;4.6387;
169.5000;0.1058;4.6387;
169.8000;0.1066;4.6435;
170.1000;0.1058;4.6509;
170.4000;0.1050;4.6533;
170.7000;0.1009;4.6387;
171.0000;0.1026;4.6460;
171.3000;0.1074;4.6582;
171.6000;0.1042;4.6484;
171.9000;0.1058;4.6509;
172.2000;0.1083;4.6533;
172.5000;0.1066;4.6411;
172.8000;0.1026;4.6264;
173.1000;0.1058;4.6338;
173.4000;0.1034;4.6264;
173.7000;0.1172;4.6655;
174.0000;0.1074;4.6387;
174.3000;0.1083;4.6460;
174.6000;0.1001;4.6289;
174.9000;0.1074;4.6435;
175.2000;0.1058;4.6387;
175.5000;0.1050;4.6289;
175.8000;0.1156;4.6582;
176.1000;0.1180;4.6704;
176.4000;0.1042;4.6289;
176.7000;0.1034;4.6240;
177.0000;0.1091;4.6509;
177.3000;0.1058;4.6387;
177.6000;0.1066;4.6387;
177.9000;0.1066;4.6362;
178.2000;0.1091;4.6411;
178.5000;0.1083;4.6411;
178.8000;0.1107;4.6484;
179.1000;0.1058;4.6313;
179.4000;0.1050;4.6264;
179.7000;0.1050;4.6411;
180.0000;0.1066;4.6362;
180.3000;0.1026;4.6191;
180.6000;0.1066;4.6264;
180.9000;0.1050;4.6166;
181.2000;0.1107;4.6264;
181.5000;0.1091;4.6313;
181.8000;0.1026;4.6166;
182.1000;0.1042;4.6289;
182.4000;0.1042;4.6313;
182.7000;0.1042;4.6289;
183.0000;0.1083;4.6362;
183.3000;0.1026;4.6118;
183.6000;0.1123;4.6387;
183.9000;0.1058;4.6240;
184.2000;0.1066;4.6240;
184.5000;0.0993;4.6142;
184.8000;0.1058;4.6411;
185.1000;0.1050;4.6362;
185.4000;0.1066;4.6362;
185.7000;0.1042;4.6338;
186.0000;0.1042;4.6338;
186.3000;0.1107;4.6558;
186.6000;0.1115;4.6655;
186.9000;0.1074;4.6631;
187.2000;0.1050;4.6509;
187.5000;0.1050;4.6411;
187.8000;0.1164;4.6778;
188.1000;0.1042;4.6460;
188.4000;0.1074;4.6509;
188.7000;0.1058;4.6533;
189.0000;0.1066;4.6484;
189.3000;0.1058;4.6411;
189.6000;0.1050;4.6362;
189.9000;0.1018;4.6215;
190.2000;0.1066;4.6362;
190.5000;0.1042;4.6338;
190.8000;0.1083;4.6484;
191.1000;0.1026;4.6338;
191.4000;0.1074;4.6387;
191.7000;0.1083;4.6558;
192.0000;0.1091;4.6582;
192.3000;0.1058;4.6607;
192.6000;0.1083;4.6607;
192.9000;0.1066;4.6558;
193.2000;0.1066;4.6631;
193.5000;0.1074;4.6558;
193.8000;0.1050;4.6460;
194.1000;0.1066;4.6460;
194.4000;0.1050;4.6387;
194.7000;0.1009;4.6338;
195.0000;0.1172;4.6778;
195.3000;0.1131;4.6631;
195.6000;0.1099;4.6582;
195.9000;0.1058;4.6435;
196.2000;0.1058;4.6509;
196.5000;0.1050;4.6435;
196.8000;0.1034;4.6411;
197.1000;0.1042;4.6411;
197.4000;0.1034;4.6240;
197.7000;0.1115;4.6509;
198.0000;0.1148;4.6607;
198.3000;0.1042;4.6387;
198.6000;0.1058;4.6387;
198.9000;0.1074;4.6387;
199.2000;0.1083;4.6484;
199.5000;0.1042;4.6460;
199.8000;0.1058;4.6411;
200.1000;0.1026;4.6411;
200.4000;0.1050;4.6435;
200.7000;0.1042;4.6435;
201.0000;0.1066;4.6484;
201.3000;0.1042;4.6460;
201.6000;0.1083;4.6558;
201.9000;0.1107;4.6704;
202.2000;0.1066;4.6631;
202.5000;0.1074;4.6631;
202.8000;0.1034;4.6533;
203.1000;0.1042;4.6533;
203.4000;0.1050;4.6484;
203.7000;0.1058;4.6484;
204.0000;0.1074;4.6387;
204.3000;0.1083;4.6411;
204.6000;0.1050;4.6338;
204.9000;0.1058;4.6411;
205.2000;0.1042;4.6460;
205.5000;0.1058;4.6387;
205.8000;0.1042;4.6362;
206.1000;0.1034;4.6264;
206.4000;0.1058;4.6338;
206.7000;0.1042;4.6313;
207.0000;0.1034;4.6338;
207.3000;0.1034;4.6338;
207.6000;0.1074;4.6435;
207.9000;0.1058;4.6362;
208.2000;0.1034;4.6313;
208.5000;0.1050;4.6338;
208.8000;0.1018;4.6142;
209.1000;0.1066;4.6338;
209.4000;0.1074;4.6387;
209.7000;0.1083;4.6411;
210.0000;0.1083;4.6411;
210.3000;0.1050;4.6362;
210.6000;0.1058;4.6313;
210.9000;0.1083;4.6240;
211.2000;0.1026;4.6118;
211.5000;0.1058;4.6240;
211.8000;0.0936;4.5995;
212.1000;0.1058;4.6362;
212.4000;0.1058;4.6264;
212.7000;0.1058;4.6215;
213.0000;0.1034;4.6264;
213.3000;0.1066;4.6411;
213.6000;0.1034;4.6435;
213.9000;0.1066;4.6435;
214.2000;0.0904;4.6020;
214.5000;0.1050;4.6435;
214.8000;0.1050;4.6411;
215.1000;0.1066;4.6362;
215.4000;0.1164;4.6704;
215.7000;0.1083;4.6460;
216.0000;0.1058;4.6289;
216.3000;0.1042;4.6166;
216.6000;0.1115;4.6313;
216.9000;0.1034;4.6240;
217.2000;0.1034;4.6289;
217.5000;0.1074;4.6484;
217.8000;0.1009;4.6289;
218.1000;0.1018;4.6313;
218.4000;0.1066;4.6484;
218.7000;0.1050;4.6362;
219.0000;0.1042;4.6313;
219.3000;0.1058;4.6338;
219.6000;0.1001;4.6142;
219.9000;0.1188;4.6631;
220.2000;0.1058;4.6240;
220.5000;0.1018;4.6215;
220.8000;0.1115;4.6509;
221.1000;0.1042;4.6387;
221.4000;0.1050;4.6460;
221.7000;0.1066;4.6607;
222.0000;0.1034;4.6460;
222.3000;0.0969;4.6264;
222.6000;0.1058;4.6607;
222.9000;0.1099;4.6802;
223.2000;0.1083;4.6729;
223.5000;0.1074;4.6729;
223.8000;0.1107;4.6827;
224.1000;0.1058;4.6655;
224.4000;0.1091;4.6729;
224.7000;0.1074;4.6631;
225.0000;0.1074;4.6582;
225.3000;0.1066;4.6558;
225.6000;0.1058;4.6435;
225.9000;0.1050;4.6411;
226.2000;0.1066;4.6509;
226.5000;0.1042;4.6484;
226.8000;0.1107;4.6631;
227.1000;0.1083;4.6607;
227.4000;0.1001;4.6362;
227.7000;0.1074;4.6558;
228.0000;0.1058;4.6460;
228.3000;0.1066;4.6509;
228.6000;0.1083;4.6631;
228.9000;0.1123;4.6753;
229.2000;0.1058;4.6558;
229.5000;0.1058;4.6607;
229.8000;0.1091;4.6704;
230.1000;0.1091;4.6607;
230.4000;0.1042;4.6558;
230.7000;0.1066;4.6631;
231.0000;0.1074;4.6704;
231.3000;0.1066;4.6704;
231.6000;0.1058;4.6680;
231.9000;0.1050;4.6680;
232.2000;0.1042;4.6582;
232.5000;0.1066;4.6631;
232.8000;0.1018;4.6460;
233.1000;0.1074;4.6558;
233.4000;0.1083;4.6631;
233.7000;0.1050;4.6533;
234.0000;0.1050;4.6509;
234.3000;0.1083;4.6582;
234.6000;0.1099;4.6607;
234.9000;0.1034;4.6411;
235.2000;0.1050;4.6411;
235.5000;0.1074;4.6533;
235.8000;0.1131;4.6680;
236.1000;0.1115;4.6558;
236.4000;0.1050;4.6313;
236.7000;0.1058;4.6313;
237.0000;0.1123;4.6558;
237.3000;0.1058;4.6435;
237.6000;0.1058;4.6533;
237.9000;0.1034;4.6509;
238.2000;0.1123;4.6655;
238.5000;0.1156;4.6778;
238.8000;0.1058;4.6631;
239.1000;0.1074;4.6631;
239.4000;0.1066;4.6631;
239.7000;0.1034;4.6558;
240.0000;0.1042;4.6533;
240.3000;0.1066;4.6484;
240.6000;0.1042;4.6558;
240.9000;0.1026;4.6484;
241.2000;0.1066;4.6558;
241.5000;0.1042;4.6509;
241.8000;0.1066;4.6533;
242.1000;0.1091;4.6607;
242.4000;0.1058;4.6533;
242.7000;0.1058;4.6607;
243.0000;0.1074;4.6631;
243.3000;0.1034;4.6558;
243.6000;0.1115;4.6753;
243.9000;0.1058;4.6631;
244.2000;0.1083;4.6582;
244.5000;0.1066;4.6460;
244.8000;0.1074;4.6533;
245.1000;0.1074;4.6533;
245.4000;0.1042;4.6533;
245.7000;0.1074;4.6607;
246.0000;0.1050;4.6484;
246.3000;0.1066;4.6484;
246.6000;0.1050;4.6362;
246.9000;0.1050;4.6362;
247.2000;0.1083;4.6484;
247.5000;0.1042;4.6435;
247.8000;0.1066;4.6582;
248.1000;0.1042;4.6509;
248.4000;0.1074;4.6582;
248.7000;0.1083;4.6655;
249.0000;0.1083;4.6753;
249.3000;0.1091;4.6851;
249.6000;0.1018;4.6631;
249.9000;0.1026;4.6680;
250.2000;0.1074;4.6729;
250.5000;0.1042;4.6607;
250.8000;0.1066;4.6680;
251.1000;0.1034;4.6680;
251.4000;0.1050;4.6704;
251.7000;0.1042;4.6655;
252.0000;0.1050;4.6558;
252.3000;0.1058;4.6582;
252.6000;0.1074;4.6533;
252.9000;0.1018;4.6362;
253.2000;0.1074;4.6607;
253.5000;0.0977;4.6264;
253.8000;0.1066;4.6411;
254.1000;0.1115;4.6680;
254.4000;0.1058;4.6558;
254.7000;0.1050;4.6582;
255.0000;0.1026;4.6533;
255.3000;0.1091;4.6704;
255.6000;0.1107;4.6655;
255.9000;0.1083;4.6607;
256.2000;0.1058;4.6533;
256.5000;0.1074;4.6655;
256.8000;0.1026;4.6558;
257.1000;0.1091;4.6680;
257.4000;0.1066;4.6655;
257.7000;0.1083;4.6582;
258.0000;0.1074;4.6582;
258.3000;0.1099;4.6753;
258.6000;0.1074;4.6631;
258.9000;0.1074;4.6533;
259.2000;0.1034;4.6387;
259.5000;0.1050;4.6533;
259.8000;0.1066;4.6558;
260.1000;0.1058;4.6582;
260.4000;0.0993;4.6362;
260.7000;0.1034;4.6533;
261.0000;0.0977;4.6387;
261.3000;0.1066;4.6655;
261.6000;0.1042;4.6631;
261.9000;0.1066;4.6607;
262.2000;0.1083;4.6680;
262.5000;0.1123;4.6827;
262.8000;0.1066;4.6631;
263.1000;0.0969;4.6264;
263.4000;0.1050;4.6509;
263.7000;0.1042;4.6435;
264.0000;0.1050;4.6460;
264.3000;0.1050;4.6460;
264.6000;0.1050;4.6484;
264.9000;0.1058;4.6509;
265.2000;0.1050;4.6607;
265.5000;0.1058;4.6582;
265.8000;0.1042;4.6509;
266.1000;0.1074;4.6582;
266.4000;0.1083;4.6631;
266.7000;0.1066;4.6607;
267.0000;0.1066;4.6607;
267.3000;0.1050;4.6558;
267.6000;0.1058;4.6533;
267.9000;0.1018;4.6435;
268.2000;0.1091;4.6558;
268.5000;0.1050;4.6533;
268.8000;0.1066;4.6607;
269.1000;0.1042;4.6558;
269.4000;0.1026;4.6484;
269.7000;0.1042;4.6533;
270.0000;0.1042;4.6484;
270.3000;0.1050;4.6435;
270.6000;0.1074;4.6387;
270.9000;0.1042;4.6313;
271.2000;0.1001;4.6166;
271.5000;0.1050;4.6387;
271.8000;0.1066;4.6435;
272.1000;0.1034;4.6460;
272.4000;0.1050;4.6484;
272.7000;0.1074;4.6558;
273.0000;0.1058;4.6533;
273.3000;0.1074;4.6460;
273.6000;0.1083;4.6460;
273.9000;0.1058;4.6484;
274.2000;0.1074;4.6558;
274.5000;0.1058;4.6509;
274.8000;0.1091;4.6558;
275.1000;0.1050;4.6509;
275.4000;0.1115;4.6655;
275.7000;0.1042;4.6460;
276.0000;0.1009;4.6313;
276.3000;0.1066;4.6460;
276.6000;0.1131;4.6680;
276.9000;0.1074;4.6435;
277.2000;0.1058;4.6387;
277.5000;0.1042;4.6362;
277.8000;0.1066;4.6460;
278.1000;0.1009;4.6215;
278.4000;0.1107;4.6435;
278.7000;0.1058;4.6240;
279.0000;0.0961;4.5971;
279.3000;0.1066;4.6191;
279.6000;0.1099;4.6240;
279.9000;0.1042;4.6118;
280.2000;0.1058;4.6093;
280.5000;0.1034;4.6093;
280.8000;0.1099;4.6289;
281.1000;0.1050;4.6093;
281.4000;0.1058;4.6142;
281.7000;0.1131;4.6338;
282.0000;0.1066;4.6264;
282.3000;0.1066;4.6240;
282.6000;0.1034;4.6142;
282.9000;0.1083;4.6191;
283.2000;0.1107;4.6191;
283.5000;0.1050;4.6142;
283.8000;0.0993;4.6020;
284.1000;0.0985;4.5995;
284.4000;0.1058;4.6215;
284.7000;0.1058;4.6215;
285.0000;0.1018;4.6215;
285.3000;0.1099;4.6484;
285.6000;0.1058;4.6435;
285.9000;0.1026;4.6289;
286.2000;0.1050;4.6289;
286.5000;0.1042;4.6289;
286.8000;0.1074;4.6411;
287.1000;0.0977;4.6264;
287.4000;0.1074;4.6533;
287.7000;0.1066;4.6484;
288.0000;0.1099;4.6607;
288.3000;0.1050;4.6484;
288.6000;0.1066;4.6509;
288.9000;0.1034;4.6362;
289.2000;0.1083;4.6411;
289.5000;0.0936;4.5995;
289.8000;0.1172;4.6582;
290.1000;0.1058;4.6362;
290.4000;0.1074;4.6362;
290.7000;0.1058;4.6362;
291.0000;0.1066;4.6387;
291.3000;0.1026;4.6313;
291.6000;0.1140;4.6533;
291.9000;0.1026;4.6215;
292.2000;0.1066;4.6264;
292.5000;0.1083;4.6264;
292.8000;0.0952;4.5971;
293.1000;0.1066;4.6240;
293.4000;0.1042;4.6191;
293.7000;0.1066;4.6240;
294.0000;0.1083;4.6240;
294.3000;0.1042;4.6191;
294.6000;0.1099;4.6411;
294.9000;0.1058;4.6313;
295.2000;0.1050;4.6313;
295.5000;0.1034;4.6338;
295.8000;0.1058;4.6411;
296.1000;0.1091;4.6460;
296.4000;0.1026;4.6313;
296.7000;0.1042;4.6411;
297.0000;0.1083;4.6509;
297.3000;0.1066;4.6484;
297.6000;0.1058;4.6387;
297.9000;0.1115;4.6607;
298.2000;0.1058;4.6362;
298.5000;0.1066;4.6411;
298.8000;0.1042;4.6484;
299.1000;0.1123;4.6704;
299.4000;0.1058;4.6533;
299.7000;0.1026;4.6387;
300.0000;0.1074;4.6607;
300.3000;0.1058;4.6460;
300.6000;0.1042;4.6558;
300.9000;0.1074;4.6607;
301.2000;0.1058;4.6533;
301.5000;0.1026;4.6411;
301.8000;0.1050;4.6435;
302.1000;0.1066;4.6411;
302.4000;0.1066;4.6411;
302.7000;0.1058;4.6313;
303.0000;0.1091;4.6313;
303.3000;0.1074;4.6362;
303.6000;0.1050;4.6240;
303.9000;0.1050;4.6338;
304.2000;0.1034;4.6289;
304.5000;0.1074;4.6387;
304.8000;0.1058;4.6387;
305.1000;0.1066;4.6411;
305.4000;0.1058;4.6411;
305.7000;0.1058;4.6362;
306.0000;0.1050;4.6362;
306.3000;0.1074;4.6362;
306.6000;0.1034;4.6313;
306.9000;0.1034;4.6313;
307.2000;0.1058;4.6435;
307.5000;0.1066;4.6411;
307.8000;0.1083;4.6387;
308.1000;0.1107;4.6435;
308.4000;0.1083;4.6411;
308.7000;0.1091;4.6435;
309.0000;0.1074;4.6411;
309.3000;0.1050;4.6460;
309.6000;0.1058;4.6582;
309.9000;0.1058;4.6533;
310.2000;0.1034;4.6411;
310.5000;0.1050;4.6435;
310.8000;0.1050;4.6387;
311.1000;0.1066;4.6338;
311.4000;0.1026;4.6289;
311.7000;0.1001;4.6142;
312.0000;0.1083;4.6387;
312.3000;0.1066;4.6435;
312.6000;0.0985;4.6264;
312.9000;0.1050;4.6509;
313.2000;0.1140;4.6631;
313.5000;0.1074;4.6435;
313.8000;0.1188;4.6802;
314.1000;0.1083;4.6484;
314.4000;0.1074;4.6411;
314.7000;0.1091;4.6509;
315.0000;0.1091;4.6509;
315.3000;0.0977;4.6118;
315.6000;0.1050;4.6313;
315.9000;0.1058;4.6313;
316.2000;0.1156;4.6582;
316.5000;0.1066;4.6264;
316.8000;0.0977;4.6093;
317.1000;0.1083;4.6264;
317.4000;0.1066;4.6215;
317.7000;0.1091;4.6387;
318.0000;0.1058;4.6313;
318.3000;0.1058;4.6289;
318.6000;0.1066;4.6387;
318.9000;0.1058;4.6387;
319.2000;0.1034;4.6313;
319.5000;0.1034;4.6313;
319.8000;0.1066;4.6411;
320.1000;0.1058;4.6435;
320.4000;0.1042;4.6558;
320.7000;0.1034;4.6460;
321.0000;0.0993;4.6166;
321.3000;0.1042;4.6289;
321.6000;0.1042;4.6191;
321.9000;0.1058;4.6142;
322.2000;0.1058;4.6118;
322.5000;0.1066;4.6166;
322.8000;0.1083;4.6289;
323.1000;0.1050;4.6093;
323.4000;0.1058;4.6142;
323.7000;0.1074;4.6166;
324.0000;0.1042;4.6118;
324.3000;0.1058;4.6044;
324.6000;0.0969;4.5775;
324.9000;0.1066;4.5922;
325.2000;0.1066;4.5995;
325.5000;0.1074;4.5995;
325.8000;0.1042;4.5995;
326.1000;0.1066;4.6069;
326.4000;0.1074;4.6166;
326.7000;0.1042;4.6166;
327.0000;0.1058;4.6215;
327.3000;0.1066;4.6215;
327.6000;0.1083;4.6362;
327.9000;0.1058;4.6313;
328.2000;0.1050;4.6313;
328.5000;0.1034;4.6264;
328.8000;0.0977;4.6069;
329.1000;0.1050;4.6191;
329.4000;0.1050;4.6191;
329.7000;0.1050;4.6191;
330.0000;0.1066;4.6166;
330.3000;0.1050;4.6142;
330.6000;0.1099;4.6191;
330.9000;0.1058;4.6069;
331.2000;0.1099;4.6240;
331.5000;0.1074;4.6142;
331.8000;0.1058;4.6093;
332.1000;0.1066;4.6166;
332.4000;0.1066;4.6191;
332.7000;0.1066;4.6142;
333.0000;0.1058;4.6166;
333.3000;0.1050;4.6118;
333.6000;0.1074;4.6240;
333.9000;0.1026;4.6142;
334.2000;0.1066;4.6191;
334.5000;0.1050;4.6118;
334.8000;0.1058;4.6215;
335.1000;0.1034;4.6166;
335.4000;0.1083;4.6387;
335.7000;0.1034;4.6289;
336.0000;0.1058;4.6338;
336.3000;0.1058;4.6387;
336.6000;0.1107;4.6509;
336.9000;0.1050;4.6387;
337.2000;0.1009;4.6362;
337.5000;0.1042;4.6411;
337.8000;0.1034;4.6411;
338.1000;0.1099;4.6680;
338.4000;0.1058;4.6558;
338.7000;0.1083;4.6533;
339.0000;0.1026;4.6387;
339.3000;0.1050;4.6387;
339.6000;0.1050;4.6338;
339.9000;0.1091;4.6460;
340.2000;0.0977;4.6118;
340.5000;0.1066;4.6387;
340.8000;0.1074;4.6338;
341.1000;0.1058;4.6338;
341.4000;0.1058;4.6289;
341.7000;0.1042;4.6215;
342.0000;0.1018;4.6142;
342.3000;0.1083;4.6338;
342.6000;0.1066;4.6387;
342.9000;0.1091;4.6460;
343.2000;0.1001;4.6166;
343.5000;0.1066;4.6313;
343.8000;0.1042;4.6240;
344.1000;0.1066;4.6338;
344.4000;0.1058;4.6289;
344.7000;0.1042;4.6264;
345.0000;0.0952;4.5922;
345.3000;0.1074;4.6240;
345.6000;0.0936;4.5873;
345.9000;0.1058;4.6264;
346.2000;0.0936;4.5971;
346.5000;0.1074;4.6435;
346.8000;0.1058;4.6313;
347.1000;0.1026;4.6215;
347.4000;0.1131;4.6558;
347.7000;0.1050;4.6240;
348.0000;0.1115;4.6484;
348.3000;0.1042;4.6289;
348.6000;0.1058;4.6411;
348.9000;0.1066;4.6313;
349.2000;0.1058;4.6240;
349.5000;0.1050;4.6215;
349.8000;0.1042;4.6166;
350.1000;0.1066;4.6313;
350.4000;0.1001;4.6166;
350.7000;0.1058;4.6240;
351.0000;0.1034;4.6264;
351.3000;0.1066;4.6313;
351.6000;0.1074;4.6289;
351.9000;0.1050;4.6264;
352.2000;0.1058;4.6289;
352.5000;0.1074;4.6460;
352.8000;0.1058;4.6484;
353.1000;0.1074;4.6558;
353.4000;0.1074;4.6582;
353.7000;0.1140;4.6778;
354.0000;0.1066;4.6680;
354.3000;0.1050;4.6655;
354.6000;0.1034;4.6582;
354.9000;0.1074;4.6631;
355.2000;0.1050;4.6509;
355.5000;0.1042;4.6509;
355.8000;0.1058;4.6484;
356.1000;0.1050;4.6460;
356.4000;0.1074;4.6582;
356.7000;0.1083;4.6509;
357.0000;0.1066;4.6533;
357.3000;0.1058;4.6533;
357.6000;0.1050;4.6582;
357.9000;0.1066;4.6631;
358.2000;0.0977;4.6387;
358.5000;0.1026;4.6484;
358.8000;0.1066;4.6631;
359.1000;0.1074;4.6509;
359.4000;0.1083;4.6558;
359.7000;0.1058;4.6435;
360.0000;0.1148;4.6704;
360.3000;0.1083;4.6509;
360.6000;0.1074;4.6509;
360.9000;0.1050;4.6460;
361.2000;0.1148;4.6778;
361.5000;0.1042;4.6484;
361.8000;0.1058;4.6582;
362.1000;0.1074;4.6509;
362.4000;0.1058;4.6435;
362.7000;0.1058;4.6435;
363.0000;0.1066;4.6435;
363.3000;0.1050;4.6411;
363.6000;0.1050;4.6435;
363.9000;0.1074;4.6558;
364.2000;0.1091;4.6631;
364.5000;0.1066;4.6558;
364.8000;0.1058;4.6484;
365.1000;0.1066;4.6558;
365.4000;0.1050;4.6411;
365.7000;0.1074;4.6484;
366.0000;0.1074;4.6460;
366.3000;0.1074;4.6509;
366.6000;0.1074;4.6435;
366.9000;0.1066;4.6338;
367.2000;0.0985;4.6240;
367.5000;0.1034;4.6460;
367.8000;0.1050;4.6460;
368.1000;0.1026;4.6313;
368.4000;0.1099;4.6558;
368.7000;0.1074;4.6533;
369.0000;0.1050;4.6509;
369.3000;0.1058;4.6484;
369.6000;0.1074;4.6558;
369.9000;0.1083;4.6558;
370.2000;0.1026;4.6387;
370.5000;0.1066;4.6362;
370.8000;0.1066;4.6435;
371.1000;0.1074;4.6509;
371.4000;0.1066;4.6558;
371.7000;0.1066;4.6558;
372.0000;0.1066;4.6558;
372.3000;0.1001;4.6338;
372.6000;0.1034;4.6362;
372.9000;0.1131;4.6680;
373.2000;0.1058;4.6533;
373.5000;0.1001;4.6289;
373.8000;0.1115;4.6558;
374.1000;0.1123;4.6582;
374.4000;0.1074;4.6387;
374.7000;0.1058;4.6362;
375.0000;0.1115;4.6533;
375.3000;0.1058;4.6362;
375.6000;0.1066;4.6411;
375.9000;0.1066;4.6362;
376.2000;0.1050;4.6240;
376.5000;0.1050;4.6215;
376.8000;0.1042;4.6215;
377.1000;0.1058;4.6289;
377.4000;0.1131;4.6460;
377.7000;0.1066;4.6289;
378.0000;0.1050;4.6289;
378.3000;0.1050;4.6362;
378.6000;0.1066;4.6460;
378.9000;0.1042;4.6411;
379.2000;0.1050;4.6411;
379.5000;0.1034;4.6338;
379.8000;0.1026;4.6387;
380.1000;0.1058;4.6484;
380.4000;0.1050;4.6509;
380.7000;0.1050;4.6533;
381.0000;0.1058;4.6533;
381.3000;0.1058;4.6533;
381.6000;0.1115;4.6631;
381.9000;0.1058;4.6387;
382.2000;0.1083;4.6484;
382.5000;0.1058;4.6313;
382.8000;0.1050;4.6387;
383.1000;0.1058;4.6435;
383.4000;0.1042;4.6411;
383.7000;0.1074;4.6509;
384.0000;0.1156;4.6753;
384.3000;0.1066;4.6533;
384.6000;0.1050;4.6607;
384.9000;0.1083;4.6704;
385.2000;0.1066;4.6582;
385.5000;0.1034;4.6387;
385.8000;0.1034;4.6338;
386.1000;0.1066;4.6387;
386.4000;0.1042;4.6191;
386.7000;0.1058;4.6166;
387.0000;0.0985;4.6020;
387.3000;0.1050;4.6264;
387.6000;0.1034;4.6240;
387.9000;0.1074;4.6387;
388.2000;0.1074;4.6387;
388.5000;0.1074;4.6338;
388.8000;0.1034;4.6240;
389.1000;0.1066;4.6313;
389.4000;0.1042;4.6362;
389.7000;0.1058;4.6435;
390.0000;0.1026;4.6289;
390.3000;0.1042;4.6362;
390.6000;0.1050;4.6362;
390.9000;0.1066;4.6313;
391.2000;0.1058;4.6240;
391.5000;0.1066;4.6313;
391.8000;0.1066;4.6313;
392.1000;0.1107;4.6435;
392.4000;0.1131;4.6435;
392.7000;0.1074;4.6142;
393.0000;0.1001;4.6044;
393.3000;0.1058;4.6264;
393.6000;0.1058;4.6240;
393.9000;0.1009;4.6191;
394.2000;0.1050;4.6387;
394.5000;0.1083;4.6484;
394.8000;0.1099;4.6582;
395.1000;0.1074;4.6533;
395.4000;0.1058;4.6484;
395.7000;0.1050;4.6411;
396.0000;0.1042;4.6387;
396.3000;0.1066;4.6509;
396.6000;0.1066;4.6509;
396.9000;0.1091;4.6484;
397.2000;0.1083;4.6484;
397.5000;0.1066;4.6362;
397.8000;0.1058;4.6411;
398.1000;0.1042;4.6362;
398.4000;0.1058;4.6435;
398.7000;0.1058;4.6387;
399.0000;0.1026;4.6313;
399.3000;0.1026;4.6289;
399.6000;0.1058;4.6435;
399.9000;0.1107;4.6558;
400.2000;0.1107;4.6509;
400.5000;0.1058;4.6338;
400.8000;0.1050;4.6313;
401.1000;0.1042;4.6289;
401.4000;0.1042;4.6289;
401.7000;0.1042;4.6313;
402.0000;0.1042;4.6289;
402.3000;0.1083;4.6435;
402.6000;0.1180;4.6729;
402.9000;0.1050;4.6387;
403.2000;0.1034;4.6313;
403.5000;0.1172;4.6655;
403.8000;0.1074;4.6240;
404.1000;0.1058;4.6191;
404.4000;0.1050;4.6313;
404.7000;0.1034;4.6264;
405.0000;0.1083;4.6387;
405.3000;0.1050;4.6289;
405.6000;0.1018;4.6215;
405.9000;0.1156;4.6631;
406.2000;0.1066;4.6362;
406.5000;0.1034;4.6435;
406.8000;0.1026;4.6338;
407.1000;0.1058;4.6362;
407.4000;0.1034;4.6338;
407.7000;0.1099;4.6484;
408.0000;0.1083;4.6411;
408.3000;0.1042;4.6460;
408.6000;0.1066;4.6509;
408.9000;0.1148;4.6753;
409.2000;0.1058;4.6509;
409.5000;0.1058;4.6484;
409.8000;0.1107;4.6582;
410.1000;0.1083;4.6435;
410.4000;0.1066;4.6338;
410.7000;0.1058;4.6289;
411.0000;0.1074;4.6338;
411.3000;0.1050;4.6289;
411.6000;0.1058;4.6362;
411.9000;0.1042;4.6338;
412.2000;0.1074;4.6484;
412.5000;0.1042;4.6387;
412.8000;0.1050;4.6411;
413.1000;0.1058;4.6435;
413.4000;0.1058;4.6484;
413.7000;0.1050;4.6533;
414.0000;0.1018;4.6460;
414.3000;0.1058;4.6582;
414.6000;0.1066;4.6509;
414.9000;0.1066;4.6558;
415.2000;0.1066;4.6582;
415.5000;0.1050;4.6509;
415.8000;0.1050;4.6509;
416.1000;0.0904;4.6093;
416.4000;0.1058;4.6484;
416.7000;0.1042;4.6435;
417.0000;0.1050;4.6387;
417.3000;0.1066;4.6362;
417.6000;0.1001;4.6215;
417.9000;0.1074;4.6460;
418.2000;0.1066;4.6362;
418.5000;0.1074;4.6484;
418.8000;0.1188;4.6876;
419.1000;0.1066;4.6460;
419.4000;0.1042;4.6362;
419.7000;0.0977;4.6118;
420.0000;0.1074;4.6387;
420.3000;0.1050;4.6435;
420.6000;0.1050;4.6362;
420.9000;0.1026;4.6264;
421.2000;0.1034;4.6289;
421.5000;0.1058;4.6313;
421.8000;0.1042;4.6215;
422.1000;0.1066;4.6142;
422.4000;0.1058;4.6020;
422.7000;0.1058;4.6069;
423.0000;0.1034;4.5995;
423.3000;0.1058;4.6118;
423.6000;0.1058;4.6191;
423.9000;0.1042;4.6191;
424.2000;0.1148;4.6607;
424.5000;0.1058;4.6362;
424.8000;0.1099;4.6435;
425.1000;0.1018;4.6191;
425.4000;0.1058;4.6191;
425.7000;0.1058;4.6166;
426.0000;0.1034;4.6093;
426.3000;0.1018;4.6166;
426.6000;0.1009;4.6118;
426.9000;0.1009;4.6166;
427.2000;0.1050;4.6240;
427.5000;0.0969;4.6118;
427.8000;0.1083;4.6362;
428.1000;0.1074;4.6362;
428.4000;0.1066;4.6362;
428.7000;0.0993;4.6166;
429.0000;0.1066;4.6509;
429.3000;0.1058;4.6607;
429.6000;0.0993;4.6411;
429.9000;0.1083;4.6582;
430.2000;0.1066;4.6509;
430.5000;0.1058;4.6484;
430.8000;0.1050;4.6509;
431.1000;0.1058;4.6533;
431.4000;0.1050;4.6484;
431.7000;0.1083;4.6509;
432.0000;0.0977;4.6142;
432.3000;0.1058;4.6264;
432.6000;0.1083;4.6313;
432.9000;0.1148;4.6435;
433.2000;0.1107;4.6411;
433.5000;0.1050;4.6240;
433.8000;0.1026;4.6215;
434.1000;0.1058;4.6289;
434.4000;0.1058;4.6338;
434.7000;0.1066;4.6289;
435.0000;0.1074;4.6240;
435.3000;0.1058;4.6191;
435.6000;0.1050;4.6191;
435.9000;0.1058;4.6142;
436.2000;0.1034;4.6191;
436.5000;0.1066;4.6387;
436.8000;0.1050;4.6435;
437.1000;0.1026;4.6362;
437.4000;0.1050;4.6411;
437.7000;0.1050;4.6460;
438.0000;0.1042;4.6435;
438.3000;0.1001;4.6166;
438.6000;0.1058;4.6313;
438.9000;0.1074;4.6362;
439.2000;0.1107;4.6484;
439.5000;0.1001;4.6264;
439.8000;0.1026;4.6240;
440.1000;0.1042;4.6240;
440.4000;0.1042;4.6313;
440.7000;0.1066;4.6411;
441.0000;0.1083;4.6289;
441.3000;0.1058;4.6240;
441.6000;0.1066;4.6313;
441.9000;0.1091;4.6435;
442.2000;0.1058;4.6411;
442.5000;0.1050;4.6362;
442.8000;0.0961;4.6044;
443.1000;0.1172;4.6558;
443.4000;0.1050;4.6264;
443.7000;0.1034;4.6338;
444.0000;0.1107;4.6435;
444.3000;0.1066;4.6215;
444.6000;0.1018;4.6044;
444.9000;0.1050;4.6191;
445.2000;0.1034;4.6142;
445.5000;0.1066;4.6264;
445.8000;0.1107;4.6362;
446.1000;0.1026;4.6215;
446.4000;0.1074;4.6289;
446.7000;0.1042;4.6191;
447.0000;0.1042;4.6240;
447.3000;0.1042;4.6166;
447.6000;0.1074;4.6240;
447.9000;0.1058;4.6166;
448.2000;0.1099;4.6166;
448.5000;0.1042;4.6044;
448.8000;0.0952;4.5800;
449.1000;0.1074;4.6264;
449.4000;0.1058;4.6264;
449.7000;0.1050;4.6264;
450.0000;0.1050;4.6313;
450.3000;0.1050;4.6313;
450.6000;0.1074;4.6338;
450.9000;0.1140;4.6558;
451.2000;0.1074;4.6411;
451.5000;0.1066;4.6338;
451.8000;0.1058;4.6215;
452.1000;0.1083;4.6191;
452.4000;0.1058;4.6166;
452.7000;0.1066;4.6166;
453.0000;0.1066;4.6118;
453.3000;0.1083;4.6215;
453.6000;0.1074;4.6191;
453.9000;0.1050;4.6166;
454.2000;0.1083;4.6289;
454.5000;0.1058;4.6240;
454.8000;0.1050;4.6240;
455.1000;0.1066;4.6338;
455.4000;0.1107;4.6435;
455.7000;0.1034;4.6240;
456.0000;0.1099;4.6313;
456.3000;0.1058;4.6289;
456.6000;0.1034;4.6313;
456.9000;0.1074;4.6411;
457.2000;0.1050;4.6387;
457.5000;0.1066;4.6509;
457.8000;0.1099;4.6435;
458.1000;0.1074;4.6362;
458.4000;0.1058;4.6264;
458.7000;0.1066;4.6313;
459.0000;0.1050;4.6289;
459.3000;0.1066;4.6338;
459.6000;0.1074;4.6338;
459.9000;0.1018;4.6191;
460.2000;0.1058;4.6215;
460.5000;0.1034;4.6118;
460.8000;0.1034;4.6093;
461.1000;0.1058;4.6166;
461.4000;0.1001;4.6069;
461.7000;0.1042;4.6264;
462.0000;0.1058;4.6387;
462.3000;0.1042;4.6387;
462.6000;0.1034;4.6460;
462.9000;0.1058;4.6484;
463.2000;0.0985;4.6289;
463.5000;0.1066;4.6509;
463.8000;0.1083;4.6533;
464.1000;0.1140;4.6680;
464.4000;0.1123;4.6582;
464.7000;0.1107;4.6607;
465.0000;0.1050;4.6362;
465.3000;0.1034;4.6362;
465.6000;0.0977;4.6215;
465.9000;0.1074;4.6582;
466.2000;0.1042;4.6484;
466.5000;0.1083;4.6460;
466.8000;0.0928;4.5995;
467.1000;0.1001;4.6215;
467.4000;0.1083;4.6411;
467.7000;0.1172;4.6704;
468.0000;0.1042;4.6387;
468.3000;0.1009;4.6411;
468.6000;0.1066;4.6484;
468.9000;0.1042;4.6460;
469.2000;0.1066;4.6484;
469.5000;0.1083;4.6484;
469.8000;0.1172;4.6631;
470.1000;0.1148;4.6607;
470.4000;0.1050;4.6215;
470.7000;0.1074;4.6289;
471.0000;0.1058;4.6387;
471.3000;0.1066;4.6387;
471.6000;0.1042;4.6313;
471.9000;0.1034;4.6313;
472.2000;0.1050;4.6387;
472.5000;0.1050;4.6362;
472.8000;0.1042;4.6411;
473.1000;0.1042;4.6362;
473.4000;0.1034;4.6435;
473.7000;0.1066;4.6460;
474.0000;0.1058;4.6435;
474.3000;0.1066;4.6435;
474.6000;0.1066;4.6411;
474.9000;0.1091;4.6484;
475.2000;0.1050;4.6387;
475.5000;0.1058;4.6362;
475.8000;0.1066;4.6411;
476.1000;0.1058;4.6484;
476.4000;0.1042;4.6411;
476.7000;0.1058;4.6362;
477.0000;0.1074;4.6387;
477.3000;0.1091;4.6509;
477.6000;0.1050;4.6362;
477.9000;0.1042;4.6435;
478.2000;0.1050;4.6362;
478.5000;0.1058;4.6338;
478.8000;0.0993;4.6191;
479.1000;0.1074;4.6387;
479.4000;0.1083;4.6411;
479.7000;0.1058;4.6338;
480.0000;0.1115;4.6362;
480.3000;0.1058;4.6289;
480.6000;0.1074;4.6362;
480.9000;0.1050;4.6313;
481.2000;0.1058;4.6313;
481.5000;0.1050;4.6362;
481.8000;0.1034;4.6289;
482.1000;0.1042;4.6338;
482.4000;0.1066;4.6411;
482.7000;0.1042;4.6460;
483.0000;0.1058;4.6509;
483.3000;0.1001;4.6435;
483.6000;0.1058;4.6607;
483.9000;0.1009;4.6411;
484.2000;0.1050;4.6484;
484.5000;0.1066;4.6484;
484.8000;0.1058;4.6387;
485.1000;0.1018;4.6215;
485.4000;0.1115;4.6533;
485.7000;0.1026;4.6313;
486.0000;0.0936;4.6118;
486.3000;0.1018;4.6118;
486.6000;0.1050;4.6264;
486.9000;0.1083;4.6387;
487.2000;0.1099;4.6460;
487.5000;0.1058;4.6387;
487.8000;0.1009;4.6166;
488.1000;0.1009;4.6044;
488.4000;0.1066;4.6191;
488.7000;0.1050;4.6166;
489.0000;0.1058;4.6215;
489.3000;0.1083;4.6264;
489.6000;0.1058;4.6191;
489.9000;0.1091;4.6289;
490.2000;0.1083;4.6264;
490.5000;0.0993;4.6142;
490.8000;0.1050;4.6289;
491.1000;0.1050;4.6289;
491.4000;0.1074;4.6460;
491.7000;0.1042;4.6387;
492.0000;0.1066;4.6338;
492.3000;0.1034;4.6289;
492.6000;0.1026;4.6240;
492.9000;0.1058;4.6411;
493.2000;0.1042;4.6435;
493.5000;0.1050;4.6435;
493.8000;0.1001;4.6289;
494.1000;0.0985;4.6240;
494.4000;0.1066;4.6460;
494.7000;0.1026;4.6362;
495.0000;0.1066;4.6460;
495.3000;0.1050;4.6362;
495.6000;0.1034;4.6313;
495.9000;0.1066;4.6338;
496.2000;0.1074;4.6387;
496.5000;0.1091;4.6387;
496.8000;0.1050;4.6264;
497.1000;0.1050;4.6289;
497.4000;0.1058;4.6313;
497.7000;0.0969;4.6044;
498.0000;0.1001;4.6191;
498.3000;0.1091;4.6313;
498.6000;0.0985;4.6093;
498.9000;0.1107;4.6509;
499.2000;0.1123;4.6533;
499.5000;0.1058;4.6387;
499.8000;0.1058;4.6362;
500.1000;0.1091;4.6387;
500.4000;0.1026;4.6142;
500.7000;0.1066;4.6240;
501.0000;0.1034;4.6191;
501.3000;0.1050;4.6313;
501.6000;0.1050;4.6264;
501.9000;0.1099;4.6460;
502.2000;0.1099;4.6582;
502.5000;0.1058;4.6460;
502.8000;0.1009;4.6338;
503.1000;0.1034;4.6387;
503.4000;0.1042;4.6411;
503.7000;0.1058;4.6362;
504.0000;0.1099;4.6460;
504.3000;0.1091;4.6435;
504.6000;0.1066;4.6338;
504.9000;0.1058;4.6264;
505.2000;0.1058;4.6338;
505.5000;0.1042;4.6338;
505.8000;0.1066;4.6387;
506.1000;0.1197;4.6753;
506.4000;0.1058;4.6240;
506.7000;0.1050;4.6240;
507.0000;0.1042;4.6264;
507.3000;0.1074;4.6362;
507.6000;0.1050;4.6387;
507.9000;0.1050;4.6387;
508.2000;0.1034;4.6313;
508.5000;0.1066;4.6484;
508.8000;0.1066;4.6558;
509.1000;0.0993;4.6362;
509.4000;0.1034;4.6460;
509.7000;0.1034;4.6411;
510.0000;0.1066;4.6509;
510.3000;0.1042;4.6411;
510.6000;0.1066;4.6460;
510.9000;0.1058;4.6484;
511.2000;0.1034;4.6435;
511.5000;0.1066;4.6509;
511.8000;0.0969;4.6313;
512.1000;0.1058;4.6558;
512.4000;0.1058;4.6533;
512.7000;0.1066;4.6484;
513.0000;0.1018;4.6387;
513.3000;0.1050;4.6435;
513.6000;0.0993;4.6215;
513.9000;0.1050;4.6240;
514.2000;0.1066;4.6215;
514.5000;0.1050;4.6215;
514.8000;0.1050;4.6191;
515.1000;0.1066;4.6240;
515.4000;0.1042;4.6289;
515.7000;0.1058;4.6264;
516.0000;0.1018;4.6166;
516.3000;0.1050;4.6264;
516.6000;0.1034;4.6264;
516.9000;0.0977;4.6020;
517.2000;0.1058;4.6264;
517.5000;0.1058;4.6362;
517.8000;0.1115;4.6533;
518.1000;0.1083;4.6411;
518.4000;0.1042;4.6264;
518.7000;0.1058;4.6264;
519.0000;0.1074;4.6411;
519.3000;0.1066;4.6362;
519.6000;0.1058;4.6387;
519.9000;0.1026;4.6289;
520.2000;0.1042;4.6289;
520.5000;0.1066;4.6533;
520.8000;0.1026;4.6362;
521.1000;0.1001;4.6313;
521.4000;0.1050;4.6484;
521.7000;0.1140;4.6680;
522.0000;0.1074;4.6460;
522.3000;0.1042;4.6484;
522.6000;0.1066;4.6411;
522.9000;0.1058;4.6362;
523.2000;0.1123;4.6533;
523.5000;0.1107;4.6387;
523.8000;0.1058;4.6289;
524.1000;0.1058;4.6240;
524.4000;0.1066;4.6362;
524.7000;0.1066;4.6411;
525.0000;0.1074;4.6411;
525.3000;0.1042;4.6387;
525.6000;0.1034;4.6264;
525.9000;0.1050;4.6338;
526.2000;0.1058;4.6362;
526.5000;0.1058;4.6362;
526.8000;0.1058;4.6313;
527.1000;0.1066;4.6313;
527.4000;0.1050;4.6264;
527.7000;0.1066;4.6215;
528.0000;0.1009;4.6093;
528.3000;0.1042;4.6093;
528.6000;0.1042;4.6118;
528.9000;0.1058;4.6093;
529.2000;0.1074;4.6142;
529.5000;0.1042;4.6093;
529.8000;0.1066;4.6142;
530.1000;0.1066;4.6166;
530.4000;0.1066;4.6264;
530.7000;0.1058;4.6338;
531.0000;0.0977;4.6191;
531.3000;0.1099;4.6533;
531.6000;0.1050;4.6387;
531.9000;0.1066;4.6411;
532.2000;0.1107;4.6435;
532.5000;0.1050;4.6313;
532.8000;0.1034;4.6362;
533.1000;0.1058;4.6362;
533.4000;0.1058;4.6387;
533.7000;0.1058;4.6411;
534.0000;0.0985;4.6191;
534.3000;0.1050;4.6338;
534.6000;0.1066;4.6338;
534.9000;0.1042;4.6338;
535.2000;0.1034;4.6289;
535.5000;0.1050;4.6264;
535.8000;0.1131;4.6460;
536.1000;0.1034;4.6264;
536.4000;0.1042;4.6313;
536.7000;0.1042;4.6215;
537.0000;0.1066;4.6240;
537.3000;0.1074;4.6338;
537.6000;0.1050;4.6338;
537.9000;0.0985;4.6142;
538.2000;0.1074;4.6338;
538.5000;0.1050;4.6240;
538.8000;0.1034;4.6142;
539.1000;0.1026;4.6069;
539.4000;0.1058;4.6118;
539.7000;0.1099;4.6387;
540.0000;0.1074;4.6313;
540.3000;0.1034;4.6289;
540.6000;0.1074;4.6411;
540.9000;0.1107;4.6484;
541.2000;0.1058;4.6362;
541.5000;0.1042;4.6338;
541.8000;0.0985;4.6166;
542.1000;0.1050;4.6338;
542.4000;0.1083;4.6387;
542.7000;0.1050;4.6264;
543.0000;0.1058;4.6313;
543.3000;0.1074;4.6484;
543.6000;0.1083;4.6509;
543.9000;0.1091;4.6509;
544.2000;0.1034;4.6289;
544.5000;0.1131;4.6387;
544.8000;0.1042;4.6044;
545.1000;0.1042;4.5995;
545.4000;0.1083;4.6118;
545.7000;0.0993;4.5849;
546.0000;0.1050;4.6069;
546.3000;0.1034;4.6044;
546.6000;0.1066;4.6142;
546.9000;0.1083;4.6191;
547.2000;0.1083;4.6142;
547.5000;0.1009;4.6044;
547.8000;0.1001;4.5971;
548.1000;0.1074;4.6166;
548.4000;0.1066;4.6118;
548.7000;0.1083;4.6191;
549.0000;0.1009;4.6044;
549.3000;0.1058;4.6166;
549.6000;0.1042;4.6166;
549.9000;0.1018;4.6069;
550.2000;0.1058;4.6166;
550.5000;0.1058;4.6215;
550.8000;0.1042;4.6166;
551.1000;0.1042;4.6093;
551.4000;0.1050;4.6240;
551.7000;0.1042;4.6118;
552.0000;0.1066;4.6142;
552.3000;0.1083;4.6166;
552.6000;0.1058;4.6215;
552.9000;0.1018;4.6142;
553.2000;0.1050;4.6264;
553.5000;0.1058;4.6338;
553.8000;0.1050;4.6289;
554.1000;0.1074;4.6338;
554.4000;0.1074;4.6362;
554.7000;0.1083;4.6338;
555.0000;0.0993;4.6118;
555.3000;0.1042;4.6313;
555.6000;0.1001;4.6215;
555.9000;0.1042;4.6289;
556.2000;0.1042;4.6338;
556.5000;0.1221;4.6778;
556.8000;0.1034;4.6215;
557.1000;0.1009;4.6215;
557.4000;0.1050;4.6338;
557.7000;0.1042;4.6289;
558.0000;0.1123;4.6533;
558.3000;0.1058;4.6387;
558.6000;0.0961;4.6020;
558.9000;0.1034;4.6362;
559.2000;0.1009;4.6166;
559.5000;0.1066;4.6240;
559.8000;0.1140;4.6558;
560.1000;0.1107;4.6533;
560.4000;0.1050;4.6362;
560.7000;0.1034;4.6240;
561.0000;0.1058;4.6264;
561.3000;0.1058;4.6289;
561.6000;0.1018;4.6191;
561.9000;0.1018;4.6191;
562.2000;0.1091;4.6435;
562.5000;0.1058;4.6435;
562.8000;0.1058;4.6435;
563.1000;0.1058;4.6411;
563.4000;0.1074;4.6435;
563.7000;0.1018;4.6166;
564.0000;0.1058;4.6289;
564.3000;0.1066;4.6338;
564.6000;0.1058;4.6338;
564.9000;0.1074;4.6313;
565.2000;0.1131;4.6509;
565.5000;0.1050;4.6264;
565.8000;0.1034;4.6215;
566.1000;0.1074;4.6362;
566.4000;0.1050;4.6338;
566.7000;0.1050;4.6338;
567.0000;0.0871;4.5873;
567.3000;0.1042;4.6362;
567.6000;0.1066;4.6509;
567.9000;0.1066;4.6509;
568.2000;0.1050;4.6509;
568.5000;0.1050;4.6509;
568.8000;0.1050;4.6484;
569.1000;0.1074;4.6484;
569.4000;0.1042;4.6435;
569.7000;0.1042;4.6435;
570.0000;0.1107;4.6509;
570.3000;0.1058;4.6435;
570.6000;0.1042;4.6338;
570.9000;0.1050;4.6215;
571.2000;0.1083;4.6264;
571.5000;0.1066;4.6264;
571.8000;0.1074;4.6338;
572.1000;0.1066;4.6313;
572.4000;0.1066;4.6411;
572.7000;0.1042;4.6387;
573.0000;0.1026;4.6338;
573.3000;0.1083;4.6435;
573.6000;0.1042;4.6338;
573.9000;0.1058;4.6362;
574.2000;0.1058;4.6411;
574.5000;0.1050;4.6411;
574.8000;0.1042;4.6362;
575.1000;0.1074;4.6387;
575.4000;0.1058;4.6240;
575.7000;0.1034;4.6093;
576.0000;0.1042;4.6118;
576.3000;0.1058;4.6142;
576.6000;0.1066;4.6142;
576.9000;0.1058;4.6166;
577.2000;0.1148;4.6509;
577.5000;0.1050;4.6387;
577.8000;0.1018;4.6313;
578.1000;0.1066;4.6362;
578.4000;0.1123;4.6533;
578.7000;0.1050;4.6338;
579.0000;0.1058;4.6264;
579.3000;0.1042;4.6264;
579.6000;0.1074;4.6362;
579.9000;0.1074;4.6435;
580.2000;0.1099;4.6411;
580.5000;0.1058;4.6313;
580.8000;0.1058;4.6362;
581.1000;0.1083;4.6313;
581.4000;0.0952;4.5971;
581.7000;0.1066;4.6362;
582.0000;0.1018;4.6240;
582.3000;0.1026;4.6313;
582.6000;0.0993;4.6191;
582.9000;0.1066;4.6387;
583.2000;0.1050;4.6313;
583.5000;0.1034;4.6289;
583.8000;0.1042;4.6289;
584.1000;0.1050;4.6435;
584.4000;0.1058;4.6509;
584.7000;0.1083;4.6582;
585.0000;0.1026;4.6435;
585.3000;0.1148;4.6802;
585.6000;0.1050;4.6582;
585.9000;0.1034;4.6460;
586.2000;0.1034;4.6509;
586.5000;0.1066;4.6558;
586.8000;0.1074;4.6582;
587.1000;0.1058;4.6582;
587.4000;0.1042;4.6509;
587.7000;0.1042;4.6387;
588.0000;0.1058;4.6411;
588.3000;0.1050;4.6289;
588.6000;0.1034;4.6264;
588.9000;0.1140;4.6582;
589.2000;0.1058;4.6411;
589.5000;0.1034;4.6460;
589.8000;0.1026;4.6387;
590.1000;0.1058;4.6484;
590.4000;0.1050;4.6484;
590.7000;0.1066;4.6631;
591.0000;0.1026;4.6533;
591.3000;0.1042;4.6558;
591.6000;0.1034;4.6582;
591.9000;0.1050;4.6533;
592.2000;0.1066;4.6435;
592.5000;0.1066;4.6533;
592.8000;0.1074;4.6607;
593.1000;0.1050;4.6484;
593.4000;0.1058;4.6558;
593.7000;0.1050;4.6631;
594.0000;0.1058;4.6680;
594.3000;0.1034;4.6558;
594.6000;0.1074;4.6729;
594.9000;0.1042;4.6704;
595.2000;0.1066;4.6753;
595.5000;0.1074;4.6827;
595.8000;0.0977;4.6558;
596.1000;0.1042;4.6704;
596.4000;0.1099;4.6827;
596.7000;0.1083;4.6827;
597.0000;0.1058;4.6802;
597.3000;0.1050;4.6680;
597.6000;0.1058;4.6704;
597.9000;0.1042;4.6631;
598.2000;0.1066;4.6655;
598.5000;0.1066;4.6582;
598.8000;0.1066;4.6607;
599.1000;0.1074;4.6631;
599.4000;0.1001;4.6387;
599.7000;0.1050;4.6582;
600.0000;0.1050;4.6631;
600.3000;0.1050;4.6558;
600.6000;0.1050;4.6607;
600.9000;0.1042;4.6582;
601.2000;0.1042;4.6533;
601.5000;0.1018;4.6387;
601.8000;0.1042;4.6338;
602.1000;0.1009;4.6166;
602.4000;0.0985;4.5995;
602.7000;0.1026;4.6044;
603.0000;0.1009;4.5946;
603.3000;0.1009;4.5995;
603.6000;0.1009;4.5995;
603.9000;0.0993;4.5873;
604.2000;0.0993;4.5775;
604.5000;0.0920;4.5433;
604.8000;0.0985;4.5653;
605.1000;0.0928;4.5384;
605.4000;0.0928;4.5360;
605.7000;0.0977;4.5408;
606.0000;0.0904;4.5139;
606.3000;0.0952;4.5237;
606.6000;0.0977;4.5188;
606.9000;0.0969;4.5115;
607.2000;0.0961;4.5066;
607.5000;0.0904;4.4846;
607.8000;0.0969;4.4968;
608.1000;0.0977;4.4919;
608.4000;0.0961;4.4919;
608.7000;0.0977;4.4968;
609.0000;0.0944;4.4870;
609.3000;0.1018;4.5164;
609.6000;0.0952;4.5042;
609.9000;0.0961;4.5017;
610.2000;0.0985;4.5042;
610.5000;0.0904;4.4748;
610.8000;0.0944;4.4944;
611.1000;0.0952;4.4895;
611.4000;0.0928;4.4895;
611.7000;0.0952;4.5066;
612.0000;0.0944;4.5091;
612.3000;0.0912;4.4968;
612.6000;0.0944;4.5042;
612.9000;0.0961;4.5139;
613.2000;0.0838;4.4797;
613.5000;0.0879;4.4870;
613.8000;0.0944;4.5042;
614.1000;0.0944;4.5066;
614.4000;0.0920;4.4968;
614.7000;0.0879;4.4895;
615.0000;0.0822;4.4724;
615.3000;0.0952;4.5115;
615.6000;0.1042;4.5237;
615.9000;0.0928;4.5017;
616.2000;0.0920;4.4870;
616.5000;0.1018;4.5262;
616.8000;0.1001;4.5262;
617.1000;0.0912;4.4968;
617.4000;0.0928;4.4919;
617.7000;0.1018;4.5091;
618.0000;0.0961;4.4968;
618.3000;0.0936;4.4822;
618.6000;0.0912;4.4822;
618.9000;0.0920;4.4797;
619.2000;0.0977;4.5042;
619.5000;0.0920;4.4895;
619.8000;0.1058;4.5262;
620.1000;0.0936;4.4919;
620.4000;0.0928;4.4944;
620.7000;0.0895;4.4870;
621.0000;0.0936;4.5017;
621.3000;0.0920;4.5066;
621.6000;0.0920;4.5115;
621.9000;0.0928;4.5066;
622.2000;0.0920;4.4944;
622.5000;0.0887;4.4797;
622.8000;0.0904;4.4822;
623.1000;0.0928;4.4797;
623.4000;0.0904;4.4650;
623.7000;0.0879;4.4675;
624.0000;0.0895;4.4748;
624.3000;0.0879;4.4650;
624.6000;0.0904;4.4675;
624.9000;0.0920;4.4773;
625.2000;0.0895;4.4577;
625.5000;0.0887;4.4504;
625.8000;0.0920;4.4528;
626.1000;0.0895;4.4601;
626.4000;0.0879;4.4626;
626.7000;0.0912;4.4699;
627.0000;0.0904;4.4699;
627.3000;0.0969;4.4993;
627.6000;0.0895;4.4724;
627.9000;0.0887;4.4748;
628.2000;0.0806;4.4553;
628.5000;0.0912;4.4773;
628.8000;0.0895;4.4724;
629.1000;0.0961;4.4822;
629.4000;0.0912;4.4724;
629.7000;0.0912;4.4773;
630.0000;0.0920;4.4748;
630.3000;0.0871;4.4773;
630.6000;0.0912;4.4895;
630.9000;0.0944;4.4944;
631.2000;0.0895;4.4797;
631.5000;0.0887;4.4748;
631.8000;0.0895;4.4822;
632.1000;0.0936;4.5017;
632.4000;0.0895;4.4846;
632.7000;0.0952;4.5066;
633.0000;0.0944;4.5091;
633.3000;0.0912;4.4968;
633.6000;0.0928;4.4968;
633.9000;0.0895;4.4968;
634.2000;0.0912;4.4968;
634.5000;0.0944;4.5115;
634.8000;0.0904;4.5066;
635.1000;0.0993;4.5384;
635.4000;0.0895;4.4993;
635.7000;0.0863;4.4895;
636.0000;0.0822;4.4699;
636.3000;0.0985;4.5042;
636.6000;0.0855;4.4675;
636.9000;0.0887;4.4748;
637.2000;0.0887;4.4797;
637.5000;0.0798;4.4528;
637.8000;0.0863;4.4675;
638.1000;0.0904;4.4846;
638.4000;0.0814;4.4626;
638.7000;0.0871;4.4870;
639.0000;0.0887;4.4870;
639.3000;0.0936;4.5066;
639.6000;0.0830;4.4675;
639.9000;0.0847;4.4601;
640.2000;0.0904;4.4870;
640.5000;0.0904;4.5017;
640.8000;0.0847;4.4944;
641.1000;0.0904;4.4968;
641.4000;0.0838;4.4797;
641.7000;0.0871;4.4895;
642.0000;0.0887;4.4870;
642.3000;0.0871;4.4846;
642.6000;0.0895;4.4822;
642.9000;0.0863;4.4797;
643.2000;0.0887;4.4846;
643.5000;0.0871;4.4822;
643.8000;0.0895;4.4944;
644.1000;0.0871;4.4797;
644.4000;0.0879;4.4822;
644.7000;0.0879;4.4797;
645.0000;0.0879;4.4797;
645.3000;0.0871;4.4699;
645.6000;0.0855;4.4699;
645.9000;0.0895;4.4773;
646.2000;0.0871;4.4699;
646.5000;0.0847;4.4577;
646.8000;0.0912;4.4822;
647.1000;0.0855;4.4773;
647.4000;0.0895;4.4870;
647.7000;0.0887;4.4846;
648.0000;0.0879;4.4870;
648.3000;0.0879;4.4968;
648.6000;0.0912;4.5115;
648.9000;0.0887;4.5066;
649.2000;0.0855;4.4968;
649.5000;0.0912;4.5115;
649.8000;0.0871;4.5017;
650.1000;0.0863;4.4870;
650.4000;0.0838;4.4822;
650.7000;0.0871;4.4870;
651.0000;0.0879;4.4993;
651.3000;0.0895;4.5091;
651.6000;0.0912;4.5091;
651.9000;0.0887;4.5042;
652.2000;0.0887;4.4993;
652.5000;0.0969;4.5213;
652.8000;0.1018;4.5408;
653.1000;0.0879;4.4919;
653.4000;0.0904;4.5042;
653.7000;0.0847;4.4993;
654.0000;0.0879;4.5091;
654.3000;0.0855;4.5091;
654.6000;0.0879;4.5115;
654.9000;0.0928;4.5286;
655.2000;0.0847;4.5066;
655.5000;0.0887;4.5091;
655.8000;0.0887;4.4993;
656.1000;0.0879;4.4895;
656.4000;0.0871;4.4846;
656.7000;0.0879;4.4797;
657.0000;0.0879;4.4895;
657.3000;0.0863;4.4870;
657.6000;0.0895;4.4993;
657.9000;0.0879;4.4944;
658.2000;0.0806;4.4870;
658.5000;0.0895;4.5066;
658.8000;0.0904;4.5139;
659.1000;0.0879;4.5017;
659.4000;0.0863;4.4944;
659.7000;0.0847;4.4895;
660.0000;0.0879;4.4870;
660.3000;0.0838;4.4773;
660.6000;0.0863;4.4846;
660.9000;0.0855;4.4895;
661.2000;0.0863;4.4870;
661.5000;0.0855;4.4773;
661.8000;0.0887;4.4870;
662.1000;0.0855;4.4724;
662.4000;0.0798;4.4528;
662.7000;0.0879;4.4773;
663.0000;0.0847;4.4748;
663.3000;0.0847;4.4797;
663.6000;0.0904;4.4944;
663.9000;0.0830;4.4822;
664.2000;0.0879;4.4993;
664.5000;0.0871;4.4968;
664.8000;0.0928;4.5115;
665.1000;0.0855;4.4944;
665.4000;0.0920;4.5188;
665.7000;0.0855;4.5017;
666.0000;0.0871;4.4968;
666.3000;0.0855;4.4944;
666.6000;0.0895;4.5091;
666.9000;0.0855;4.4993;
667.2000;0.0895;4.5066;
667.5000;0.0904;4.5115;
667.8000;0.0830;4.4944;
668.1000;0.0790;4.4773;
668.4000;0.0871;4.4968;
668.7000;0.0847;4.4797;
669.0000;0.0895;4.4870;
669.3000;0.0895;4.4846;
669.6000;0.0879;4.4748;
669.9000;0.0855;4.4797;
670.2000;0.0912;4.4895;
670.5000;0.0847;4.4748;
670.8000;0.0822;4.4650;
671.1000;0.0912;4.4870;
671.4000;0.0863;4.4699;
671.7000;0.0895;4.4822;
672.0000;0.0830;4.4675;
672.3000;0.0887;4.4944;
672.6000;0.0993;4.5213;
672.9000;0.0830;4.4773;
673.2000;0.0887;4.4846;
673.5000;0.0822;4.4553;
673.8000;0.0895;4.4895;
674.1000;0.0855;4.4895;
674.4000;0.0855;4.4870;
674.7000;0.0863;4.4968;
675.0000;0.0871;4.4993;
675.3000;0.0904;4.5115;
675.6000;0.0969;4.5335;
675.9000;0.0871;4.5017;
676.2000;0.0814;4.4846;
676.5000;0.0936;4.5188;
676.8000;0.0822;4.4944;
677.1000;0.0879;4.5091;
677.4000;0.0871;4.4993;
677.7000;0.0871;4.4993;
678.0000;0.0871;4.4919;
678.3000;0.0928;4.4993;
678.6000;0.0904;4.4993;
678.9000;0.0895;4.4968;
679.2000;0.0895;4.4919;
679.5000;0.0871;4.4822;
679.8000;0.0928;4.4944;
680.1000;0.0879;4.4870;
680.4000;0.0863;4.4846;
680.7000;0.0863;4.4870;
681.0000;0.0847;4.4773;
681.3000;0.0863;4.4846;
681.6000;0.0879;4.4944;
681.9000;0.0863;4.4944;
682.2000;0.0863;4.4870;
682.5000;0.0863;4.4870;
682.8000;0.0773;4.4601;
683.1000;0.0887;4.4944;
683.4000;0.0871;4.4968;
683.7000;0.0798;4.4699;
684.0000;0.0822;4.4822;
684.3000;0.0863;4.4895;
684.6000;0.0871;4.4968;
684.9000;0.0879;4.4944;
685.2000;0.0863;4.4944;
685.5000;0.0838;4.4919;
685.8000;0.0871;4.4993;
686.1000;0.0838;4.4944;
686.4000;0.0822;4.4919;
686.7000;0.0855;4.4895;
687.0000;0.0904;4.4993;
687.3000;0.0871;4.4870;
687.6000;0.0847;4.4895;
687.9000;0.0781;4.4699;
688.2000;0.0863;4.5091;
688.5000;0.0863;4.5017;
688.8000;0.0920;4.5115;
689.1000;0.0879;4.5017;
689.4000;0.0871;4.5017;
689.7000;0.0895;4.5066;
690.0000;0.0757;4.4699;
690.3000;0.0847;4.4993;
690.6000;0.0863;4.4944;
690.9000;0.0944;4.5213;
691.2000;0.0847;4.4944;
691.5000;0.0847;4.4895;
691.8000;0.0879;4.4895;
692.1000;0.0855;4.4773;
692.4000;0.0838;4.4601;
692.7000;0.0822;4.4553;
693.0000;0.0863;4.4773;
693.3000;0.0863;4.4797;
693.6000;0.0871;4.4870;
693.9000;0.0855;4.4870;
694.2000;0.0855;4.4870;
694.5000;0.0936;4.5017;
694.8000;0.0806;4.4724;
695.1000;0.0855;4.4968;
695.4000;0.0920;4.5066;
695.7000;0.0847;4.4968;
696.0000;0.0863;4.4993;
696.3000;0.0944;4.5164;
696.6000;0.0879;4.5017;
696.9000;0.0887;4.5091;
697.2000;0.0855;4.5017;
697.5000;0.0863;4.4993;
697.8000;0.0920;4.5115;
698.1000;0.0855;4.5017;
698.4000;0.0904;4.5213;
698.7000;0.0920;4.5213;
699.0000;0.0838;4.5042;
699.3000;0.0912;4.5164;
699.6000;0.0822;4.4944;
699.9000;0.0855;4.4968;
700.2000;0.0838;4.4919;
700.5000;0.0814;4.4870;
700.8000;0.0879;4.4968;
701.1000;0.0855;4.4919;
701.4000;0.0847;4.4895;
701.7000;0.0904;4.5042;
702.0000;0.0863;4.4870;
702.3000;0.0863;4.4870;
702.6000;0.0863;4.4822;
702.9000;0.0863;4.4895;
703.2000;0.0863;4.4968;
703.5000;0.0863;4.5017;
703.8000;0.0855;4.4993;
704.1000;0.0847;4.5091;
704.4000;0.0871;4.5066;
704.7000;0.0871;4.5066;
705.0000;0.0871;4.5042;
705.3000;0.0863;4.4944;
705.6000;0.0871;4.4895;
705.9000;0.0879;4.4870;
706.2000;0.0855;4.4797;
706.5000;0.0863;4.4748;
706.8000;0.0855;4.4650;
707.1000;0.0879;4.4626;
707.4000;0.0887;4.4748;
707.7000;0.0871;4.4748;
708.0000;0.0863;4.4797;
708.3000;0.0863;4.4822;
708.6000;0.0904;4.4870;
708.9000;0.0863;4.4724;
709.2000;0.0904;4.4944;
709.5000;0.0879;4.4822;
709.8000;0.0879;4.4797;
710.1000;0.0879;4.4773;
710.4000;0.0855;4.4822;
710.7000;0.0871;4.4846;
711.0000;0.0871;4.4846;
711.3000;0.0879;4.4846;
711.6000;0.0879;4.4797;
711.9000;0.0790;4.4601;
712.2000;0.0879;4.4797;
712.5000;0.0871;4.4797;
712.8000;0.1001;4.5213;
713.1000;0.0863;4.4846;
713.4000;0.0887;4.4822;
713.7000;0.0904;4.4895;
714.0000;0.0838;4.4797;
714.3000;0.0855;4.4822;
714.6000;0.0863;4.4870;
714.9000;0.0887;4.4846;
715.2000;0.0830;4.4724;
715.5000;0.0863;4.4748;
715.8000;0.0847;4.4822;
716.1000;0.0871;4.4870;
716.4000;0.0838;4.4822;
716.7000;0.0855;4.4846;
717.0000;0.0879;4.4944;
717.3000;0.0961;4.5188;
717.6000;0.0871;4.4944;
717.9000;0.0871;4.4919;
718.2000;0.0855;4.4968;
718.5000;0.0806;4.4870;
718.8000;0.0871;4.5091;
719.1000;0.0863;4.5017;
719.4000;0.0838;4.4895;
719.7000;0.0863;4.4797;
720.0000;0.0838;4.4773;
720.3000;0.0863;4.4846;
720.6000;0.0855;4.4846;
720.9000;0.0838;4.4870;
721.2000;0.0855;4.4968;
721.5000;0.0773;4.4822;
721.8000;0.0838;4.5066;
722.1000;0.0879;4.5091;
722.4000;0.1042;4.5580;
722.7000;0.0847;4.5066;
723.0000;0.0838;4.4944;
723.3000;0.0928;4.5164;
723.6000;0.0806;4.4797;
723.9000;0.0855;4.4968;
724.2000;0.0855;4.4993;
724.5000;0.0847;4.4944;
724.8000;0.0887;4.5091;
725.1000;0.0969;4.5262;
725.4000;0.0863;4.4870;
725.7000;0.1009;4.5188;
726.0000;0.0871;4.4797;
726.3000;0.0952;4.4968;
726.6000;0.0855;4.4797;
726.9000;0.0855;4.4846;
727.2000;0.0822;4.4797;
727.5000;0.0871;4.4993;
727.8000;0.0969;4.5213;
728.1000;0.0863;4.4944;
728.4000;0.0790;4.4724;
728.7000;0.0969;4.5286;
729.0000;0.0781;4.4748;
729.3000;0.0855;4.4968;
729.6000;0.0871;4.4944;
729.9000;0.0871;4.4944;
730.2000;0.0855;4.4968;
730.5000;0.0871;4.4993;
730.8000;0.0838;4.4870;
731.1000;0.0863;4.4797;
731.4000;0.0863;4.4870;
731.7000;0.0879;4.4919;
732.0000;0.0855;4.4895;
732.3000;0.0895;4.4944;
732.6000;0.0863;4.4822;
732.9000;0.0912;4.4968;
733.2000;0.0871;4.5017;
733.5000;0.0863;4.4993;
733.8000;0.0798;4.4944;
734.1000;0.0830;4.4919;
734.4000;0.0863;4.4968;
734.7000;0.0863;4.5017;
735.0000;0.0863;4.5042;
735.3000;0.0855;4.5091;
735.6000;0.0838;4.5017;
735.9000;0.0887;4.5139;
736.2000;0.0863;4.4993;
736.5000;0.0863;4.5017;
736.8000;0.0961;4.5237;
737.1000;0.0863;4.4944;
737.4000;0.0855;4.4968;
737.7000;0.0985;4.5237;
738.0000;0.0863;4.4846;
738.3000;0.0871;4.4773;
738.6000;0.0855;4.4822;
738.9000;0.0863;4.4846;
739.2000;0.0977;4.5213;
739.5000;0.0838;4.4919;
739.8000;0.0863;4.5017;
740.1000;0.0830;4.4968;
740.4000;0.0847;4.5042;
740.7000;0.0871;4.5017;
741.0000;0.0855;4.4968;
741.3000;0.0871;4.4944;
741.6000;0.0855;4.4895;
741.9000;0.0895;4.4993;
742.2000;0.0863;4.4870;
742.5000;0.0879;4.4919;
742.8000;0.0838;4.4895;
743.1000;0.0855;4.4993;
743.4000;0.0855;4.4944;
743.7000;0.0879;4.5042;
744.0000;0.0879;4.5188;
744.3000;0.0838;4.5066;
744.6000;0.0847;4.5091;
744.9000;0.0855;4.5164;
745.2000;0.0912;4.5237;
745.5000;0.0830;4.4993;
745.8000;0.0716;4.4699;
746.1000;0.0798;4.5017;
746.4000;0.0863;4.5188;
746.7000;0.0863;4.5115;
747.0000;0.0838;4.4968;
747.3000;0.0887;4.5066;
747.6000;0.0855;4.5091;
747.9000;0.0912;4.5311;
748.2000;0.0855;4.5188;
748.5000;0.0879;4.5237;
748.8000;0.0847;4.5164;
749.1000;0.0863;4.5213;
749.4000;0.0855;4.5164;
749.7000;0.0863;4.5139;
750.0000;0.0822;4.4993;
750.3000;0.0838;4.4968;
750.6000;0.0847;4.4993;
750.9000;0.0871;4.5042;
751.2000;0.0830;4.4993;
751.5000;0.0855;4.4993;
751.8000;0.0847;4.4895;
752.1000;0.0814;4.4773;
752.4000;0.0961;4.5115;
752.7000;0.0806;4.4553;
753.0000;0.0855;4.4773;
753.3000;0.0847;4.4748;
753.6000;0.0855;4.4773;
753.9000;0.0847;4.4724;
754.2000;0.0895;4.4895;
754.5000;0.0855;4.4773;
754.8000;0.0855;4.4846;
755.1000;0.0863;4.4895;
755.4000;0.0879;4.4895;
755.7000;0.0855;4.4895;
756.0000;0.0814;4.4870;
756.3000;0.0863;4.4993;
756.6000;0.0855;4.4895;
756.9000;0.0830;4.4822;
757.2000;0.0855;4.5017;
757.5000;0.0855;4.4968;
757.8000;0.0871;4.5066;
758.1000;0.0871;4.5066;
758.4000;0.0838;4.4944;
758.7000;0.0871;4.4944;
759.0000;0.0806;4.4822;
759.3000;0.0879;4.5091;
759.6000;0.0855;4.5066;
759.9000;0.0887;4.5115;
760.2000;0.0838;4.4968;
760.5000;0.0887;4.5213;
760.8000;0.0887;4.5188;
761.1000;0.0879;4.5091;
761.4000;0.0895;4.5139;
761.7000;0.0887;4.5139;
762.0000;0.0855;4.5042;
762.3000;0.0887;4.5091;
762.6000;0.0879;4.5042;
762.9000;0.0895;4.5091;
763.2000;0.0879;4.5042;
763.5000;0.0855;4.5017;
763.8000;0.0879;4.5042;
764.1000;0.0863;4.5066;
764.4000;0.0863;4.5091;
764.7000;0.0863;4.5213;
765.0000;0.0847;4.5213;
765.3000;0.0838;4.5213;
765.6000;0.0798;4.5091;
765.9000;0.0838;4.5262;
766.2000;0.0838;4.5237;
766.5000;0.0904;4.5433;
766.8000;0.0863;4.5237;
767.1000;0.0863;4.5213;
767.4000;0.0814;4.5017;
767.7000;0.0855;4.5139;
768.0000;0.0847;4.5091;
768.3000;0.0855;4.5115;
768.6000;0.0912;4.5262;
768.9000;0.0855;4.5115;
769.2000;0.0838;4.5017;
769.5000;0.0977;4.5335;
769.8000;0.0781;4.4919;
770.1000;0.0855;4.5115;
770.4000;0.0847;4.5091;
770.7000;0.0912;4.5262;
771.0000;0.0847;4.5091;
771.3000;0.0944;4.5286;
771.6000;0.0847;4.4968;
771.9000;0.0830;4.5066;
772.2000;0.0838;4.5042;
772.5000;0.0855;4.5115;
772.8000;0.0806;4.5017;
773.1000;0.0887;4.5262;
773.4000;0.0855;4.5066;
773.7000;0.0830;4.4944;
774.0000;0.0838;4.5042;
774.3000;0.0838;4.5066;
774.6000;0.0847;4.5091;
774.9000;0.0855;4.5066;
775.2000;0.0879;4.5188;
775.5000;0.0855;4.4993;
775.8000;0.0863;4.5017;
776.1000;0.0863;4.4993;
776.4000;0.0847;4.4895;
776.7000;0.0871;4.4895;
777.0000;0.0855;4.4944;
777.3000;0.0871;4.5066;
777.6000;0.0838;4.4944;
777.9000;0.0879;4.5042;
778.2000;0.0879;4.5139;
778.5000;0.0855;4.4919;
778.8000;0.0806;4.4870;
779.1000;0.0863;4.5042;
779.4000;0.0838;4.4822;
779.7000;0.0855;4.4944;
780.0000;0.0871;4.4968;
780.3000;0.0871;4.5091;
780.6000;0.0871;4.5017;
780.9000;0.0863;4.4993;
781.2000;0.0847;4.4968;
781.5000;0.0944;4.5237;
781.8000;0.0847;4.4944;
782.1000;0.0920;4.5188;
782.4000;0.0847;4.5017;
782.7000;0.0847;4.4993;
783.0000;0.0855;4.5017;
783.3000;0.0863;4.5042;
783.6000;0.0863;4.4993;
783.9000;0.0871;4.4993;
784.2000;0.0871;4.5017;
784.5000;0.0838;4.4944;
784.8000;0.0830;4.4895;
785.1000;0.0847;4.4846;
785.4000;0.0830;4.4797;
785.7000;0.0879;4.4870;
786.0000;0.0855;4.4822;
786.3000;0.0871;4.4822;
786.6000;0.0879;4.4822;
786.9000;0.0838;4.4773;
787.2000;0.0855;4.4846;
787.5000;0.0822;4.4724;
787.8000;0.0838;4.4773;
788.1000;0.0822;4.4773;
788.4000;0.0871;4.4870;
788.7000;0.0855;4.4773;
789.0000;0.0871;4.4846;
789.3000;0.0847;4.4846;
789.6000;0.0871;4.4919;
789.9000;0.0847;4.4773;
790.2000;0.0822;4.4675;
790.5000;0.0814;4.4601;
790.8000;0.0895;4.4724;
791.1000;0.0806;4.4504;
791.4000;0.0781;4.4455;
791.7000;0.0871;4.4724;
792.0000;0.0887;4.4748;
792.3000;0.0855;4.4650;
792.6000;0.0765;4.4455;
792.9000;0.0879;4.4724;
793.2000;0.0838;4.4626;
793.5000;0.0912;4.4870;
793.8000;0.0847;4.4675;
794.1000;0.0838;4.4675;
794.4000;0.0879;4.4797;
794.7000;0.0871;4.4822;
795.0000;0.0871;4.4846;
795.3000;0.0838;4.4822;
795.6000;0.0871;4.4846;
795.9000;0.0855;4.4822;
796.2000;0.0847;4.4822;
796.5000;0.0863;4.4919;
796.8000;0.0879;4.4919;
797.1000;0.0838;4.4773;
797.4000;0.0969;4.5091;
797.7000;0.0879;4.4944;
798.0000;0.0838;4.4944;
798.3000;0.0847;4.4968;
798.6000;0.0855;4.4993;
798.9000;0.0863;4.4993;
799.2000;0.0879;4.5164;
799.5000;0.0863;4.5042;
799.8000;0.0879;4.5188;
800.1000;0.0936;4.5360;
800.4000;0.0855;4.5139;
800.7000;0.0863;4.5066;
801.0000;0.0830;4.4944;
801.3000;0.0855;4.4919;
801.6000;0.0838;4.4919;
801.9000;0.0855;4.4944;
802.2000;0.0838;4.4870;
802.5000;0.0871;4.4944;
802.8000;0.0806;4.4822;
803.1000;0.0847;4.4944;
803.4000;0.0879;4.5042;
803.7000;0.0847;4.4993;
804.0000;0.0806;4.4919;
804.3000;0.0936;4.5286;
804.6000;0.0830;4.5042;
804.9000;0.0855;4.5042;
805.2000;0.0830;4.5017;
805.5000;0.0912;4.5237;
805.8000;0.0936;4.5311;
806.1000;0.0863;4.5017;
806.4000;0.0855;4.5042;
806.7000;0.0855;4.5017;
807.0000;0.0781;4.4773;
807.3000;0.0863;4.4919;
807.6000;0.0838;4.4895;
807.9000;0.0863;4.4944;
808.2000;0.0814;4.4919;
808.5000;0.0814;4.4944;
808.8000;0.0887;4.5091;
809.1000;0.0879;4.5237;
809.4000;0.0847;4.5188;
809.7000;0.0838;4.5091;
810.0000;0.0757;4.4797;
810.3000;0.0855;4.5042;
810.6000;0.0855;4.5091;
810.9000;0.0822;4.4944;
811.2000;0.0871;4.5066;
811.5000;0.0863;4.5066;
811.8000;0.0838;4.5017;
812.1000;0.0863;4.5091;
812.4000;0.0871;4.5115;
812.7000;0.0863;4.5139;
813.0000;0.0847;4.5164;
813.3000;0.0887;4.5237;
813.6000;0.0863;4.5164;
813.9000;0.0855;4.5115;
814.2000;0.0830;4.5091;
814.5000;0.0871;4.5188;
814.8000;0.0822;4.5139;
815.1000;0.0871;4.5286;
815.4000;0.0895;4.5384;
815.7000;0.0838;4.5115;
816.0000;0.0838;4.5115;
816.3000;0.0879;4.5213;
816.6000;0.0863;4.5115;
816.9000;0.0879;4.5115;
817.2000;0.0847;4.5091;
817.5000;0.0838;4.5017;
817.8000;0.0871;4.5164;
818.1000;0.0871;4.5139;
818.4000;0.0863;4.5139;
818.7000;0.0904;4.5237;
819.0000;0.0847;4.5139;
819.3000;0.0912;4.5237;
819.6000;0.0855;4.5115;
819.9000;0.0887;4.5188;
820.2000;0.0887;4.5164;
820.5000;0.0830;4.4944;
820.8000;0.0814;4.4919;
821.1000;0.0757;4.4822;
821.4000;0.0830;4.4944;
821.7000;0.0944;4.5286;
822.0000;0.0830;4.5042;
822.3000;0.0855;4.5066;
822.6000;0.0863;4.5066;
822.9000;0.0920;4.5213;
823.2000;0.0830;4.4944;
823.5000;0.0879;4.5091;
823.8000;0.0847;4.4968;
824.1000;0.0944;4.5237;
824.4000;0.0781;4.4699;
824.7000;0.0863;4.4919;
825.0000;0.0871;4.5042;
825.3000;0.0863;4.4993;
825.6000;0.0830;4.4846;
825.9000;0.0822;4.4822;
826.2000;0.0936;4.5017;
826.5000;0.0830;4.4797;
826.8000;0.0879;4.4944;
827.1000;0.0871;4.4968;
827.4000;0.0863;4.4919;
827.7000;0.0863;4.4895;
828.0000;0.0814;4.4675;
828.3000;0.0863;4.4919;
828.6000;0.0879;4.5091;
828.9000;0.0855;4.5066;
829.2000;0.0879;4.5042;
829.5000;0.0838;4.4944;
829.8000;0.0855;4.5017;
830.1000;0.0838;4.4919;
830.4000;0.0855;4.4993;
830.7000;0.0847;4.5017;
831.0000;0.0855;4.5017;
831.3000;0.0798;4.4822;
831.6000;0.0798;4.4748;
831.9000;0.0838;4.4919;
832.2000;0.0838;4.4944;
832.5000;0.0871;4.5139;
832.8000;0.0822;4.4993;
833.1000;0.0830;4.4993;
833.4000;0.0863;4.4919;
833.7000;0.0847;4.4895;
834.0000;0.0863;4.4944;
834.3000;0.0855;4.5042;
834.6000;0.0830;4.5017;
834.9000;0.0871;4.5042;
835.2000;0.0855;4.5017;
835.5000;0.0847;4.4993;
835.8000;0.0830;4.4968;
836.1000;0.0838;4.4919;
836.4000;0.0855;4.4944;
836.7000;0.0855;4.4895;
837.0000;0.0830;4.4919;
837.3000;0.0847;4.4895;
837.6000;0.0855;4.5017;
837.9000;0.0847;4.4993;
838.2000;0.0863;4.5066;
838.5000;0.0863;4.5115;
838.8000;0.0822;4.4993;
839.1000;0.0847;4.4919;
839.4000;0.0830;4.4870;
839.7000;0.0855;4.4846;
840.0000;0.0863;4.4895;
840.3000;0.0806;4.4822;
840.6000;0.0920;4.5262;
840.9000;0.0887;4.5139;
841.2000;0.0798;4.4919;
841.5000;0.0895;4.5066;
841.8000;0.0830;4.5017;
842.1000;0.0847;4.5091;
842.4000;0.0855;4.5017;
842.7000;0.0871;4.5017;
843.0000;0.0871;4.4870;
843.3000;0.0912;4.5091;
843.6000;0.0887;4.5066;
843.9000;0.0855;4.4919;
844.2000;0.0830;4.4822;
844.5000;0.0863;4.4870;
844.8000;0.0830;4.4748;
845.1000;0.0830;4.4797;
845.4000;0.0814;4.4699;
845.7000;0.0806;4.4699;
846.0000;0.0790;4.4675;
846.3000;0.0920;4.5066;
846.6000;0.0871;4.4846;
846.9000;0.1018;4.5213;
847.2000;0.0871;4.4797;
847.5000;0.0838;4.4626;
847.8000;0.0871;4.4626;
848.1000;0.0855;4.4699;
848.4000;0.0871;4.4724;
848.7000;0.0838;4.4699;
849.0000;0.0863;4.4724;
849.3000;0.0838;4.4675;
849.6000;0.0871;4.4797;
849.9000;0.0871;4.4895;
850.2000;0.0887;4.4846;
850.5000;0.0863;4.4822;
850.8000;0.0863;4.4773;
851.1000;0.0855;4.4724;
851.4000;0.0855;4.4870;
851.7000;0.0838;4.4846;
852.0000;0.0790;4.4968;
852.3000;0.0847;4.5066;
852.6000;0.0806;4.4895;
852.9000;0.0855;4.5115;
853.2000;0.0863;4.5115;
853.5000;0.0863;4.5017;
853.8000;0.0887;4.5066;
854.1000;0.0863;4.5042;
854.4000;0.0863;4.4993;
854.7000;0.0871;4.5091;
855.0000;0.0887;4.5091;
855.3000;0.0879;4.5042;
855.6000;0.0847;4.4919;
855.9000;0.0847;4.4822;
856.2000;0.0838;4.4773;
856.5000;0.0863;4.4870;
856.8000;0.0863;4.4846;
857.1000;0.0838;4.4797;
857.4000;0.0847;4.4870;
857.7000;0.0855;4.4993;
858.0000;0.0847;4.4993;
858.3000;0.0838;4.4895;
858.6000;0.0863;4.4870;
858.9000;0.0822;4.4822;
859.2000;0.0798;4.4724;
859.5000;0.0855;4.4895;
859.8000;0.0863;4.4870;
860.1000;0.0863;4.4944;
860.4000;0.0855;4.4919;
860.7000;0.0863;4.4944;
861.0000;0.0977;4.5188;
861.3000;0.0855;4.4822;
861.6000;0.0855;4.4822;
861.9000;0.0847;4.4773;
862.2000;0.0847;4.4748;
862.5000;0.0855;4.4724;
862.8000;0.0871;4.4870;
863.1000;0.0814;4.4699;
863.4000;0.0871;4.4870;
863.7000;0.0781;4.4577;
864.0000;0.0847;4.4748;
864.3000;0.0838;4.4650;
864.6000;0.0855;4.4797;
864.9000;0.0830;4.4650;
865.2000;0.0863;4.4748;
865.5000;0.0863;4.4919;
865.8000;0.0773;4.4601;
866.1000;0.0887;4.4993;
866.4000;0.0765;4.4748;
866.7000;0.0912;4.5091;
867.0000;0.0838;4.4822;
867.3000;0.0855;4.4919;
867.6000;0.0863;4.4993;
867.9000;0.0838;4.4822;
868.2000;0.0838;4.4870;
868.5000;0.0879;4.4968;
868.8000;0.0863;4.4968;
869.1000;0.0847;4.4895;
869.4000;0.0847;4.4993;
869.7000;0.0855;4.4944;
870.0000;0.0830;4.4797;
870.3000;0.0830;4.4724;
870.6000;0.0847;4.4773;
870.9000;0.0863;4.4699;
871.2000;0.0871;4.4724;
871.5000;0.0855;4.4650;
871.8000;0.0879;4.4724;
872.1000;0.0838;4.4601;
872.4000;0.0863;4.4797;
872.7000;0.0838;4.4822;
873.0000;0.0887;4.4895;
873.3000;0.0855;4.4822;
873.6000;0.0912;4.5017;
873.9000;0.0871;4.4919;
874.2000;0.0822;4.4870;
874.5000;0.0863;4.5042;
874.8000;0.0838;4.4993;
875.1000;0.0830;4.4919;
875.4000;0.0855;4.4944;
875.7000;0.0847;4.4846;
876.0000;0.0838;4.4870;
876.3000;0.0855;4.4822;
876.6000;0.0871;4.4822;
876.9000;0.0871;4.4773;
877.2000;0.0871;4.4919;
877.5000;0.0879;4.5066;
877.8000;0.0863;4.5042;
878.1000;0.0912;4.5188;
878.4000;0.0871;4.5017;
878.7000;0.0830;4.4968;
879.0000;0.0838;4.4895;
879.3000;0.0838;4.4846;
879.6000;0.0830;4.4822;
879.9000;0.0847;4.4895;
880.2000;0.0879;4.4993;
880.5000;0.0952;4.5139;
880.8000;0.0855;4.4895;
881.1000;0.0806;4.4797;
881.4000;0.0912;4.5139;
881.7000;0.0855;4.4968;
882.0000;0.0871;4.4895;
882.3000;0.0904;4.5042;
882.6000;0.0871;4.5017;
882.9000;0.0871;4.5042;
883.2000;0.0879;4.5091;
883.5000;0.0912;4.5213;
883.8000;0.0838;4.4993;
884.1000;0.0863;4.5042;
884.4000;0.0855;4.4993;
884.7000;0.0855;4.5042;
885.0000;0.0863;4.4993;
885.3000;0.0814;4.4822;
885.6000;0.0798;4.4846;
885.9000;0.0863;4.4944;
886.2000;0.0847;4.4895;
886.5000;0.0847;4.4944;
886.8000;0.0838;4.5017;
887.1000;0.0863;4.5042;
887.4000;0.0847;4.5017;
887.7000;0.0855;4.4993;
888.0000;0.0847;4.4968;
888.3000;0.0863;4.5042;
888.6000;0.0887;4.5066;
888.9000;0.0879;4.5017;
889.2000;0.0773;4.4797;
889.5000;0.0871;4.5066;
889.8000;0.0993;4.5408;
890.1000;0.0847;4.5017;
890.4000;0.0847;4.5042;
890.7000;0.0847;4.5164;
891.0000;0.0863;4.5237;
891.3000;0.0838;4.5017;
891.6000;0.0863;4.5139;
891.9000;0.0838;4.5017;
892.2000;0.0863;4.5188;
892.5000;0.0855;4.5139;
892.8000;0.0863;4.5139;
893.1000;0.0838;4.5017;
893.4000;0.0863;4.5115;
893.7000;0.0855;4.5115;
894.0000;0.0887;4.5139;
894.3000;0.0830;4.5017;
894.6000;0.0847;4.5066;
894.9000;0.0871;4.5139;
895.2000;0.0871;4.5262;
895.5000;0.0879;4.5335;
895.8000;0.0838;4.5213;
896.1000;0.0863;4.5188;
896.4000;0.0871;4.5091;
896.7000;0.0887;4.5139;
897.0000;0.0863;4.5139;
897.3000;0.0847;4.5091;
897.6000;0.0855;4.5091;
897.9000;0.0855;4.5066;
898.2000;0.0847;4.5091;
898.5000;0.0871;4.5188;
898.8000;0.0871;4.5286;
899.1000;0.0871;4.5213;
899.4000;0.0847;4.5188;
899.7000;0.0912;4.5408;
900.0000;0.0871;4.5311;
900.3000;0.0830;4.5237;
900.6000;0.0814;4.5139;
900.9000;0.0765;4.4944;
901.2000;0.0855;4.5262;
901.5000;0.0830;4.5139;
901.8000;0.0830;4.5139;
902.1000;0.0847;4.5188;
902.4000;0.0871;4.5139;
902.7000;0.0863;4.5213;
903.0000;0.0871;4.5213;
903.3000;0.0871;4.5237;
903.6000;0.0855;4.5188;
903.9000;0.0855;4.5139;
904.2000;0.0847;4.5237;
904.5000;0.0790;4.5042;
904.8000;0.0838;4.5213;
905.1000;0.0887;4.5335;
905.4000;0.0855;4.5139;
905.7000;0.0838;4.5139;
906.0000;0.0838;4.5115;
906.3000;0.0863;4.5164;
906.6000;0.0871;4.5139;
906.9000;0.0879;4.5091;
907.2000;0.0920;4.5188;
907.5000;0.0871;4.5066;
907.8000;0.0895;4.5139;
908.1000;0.0855;4.5115;
908.4000;0.0838;4.5091;
908.7000;0.0863;4.5115;
909.0000;0.0790;4.4870;
909.3000;0.0871;4.5091;
909.6000;0.0904;4.5213;
909.9000;0.0879;4.5164;
910.2000;0.0847;4.5115;
910.5000;0.0855;4.5066;
910.8000;0.0928;4.5286;
911.1000;0.0855;4.5115;
911.4000;0.0855;4.5091;
911.7000;0.0806;4.4919;
912.0000;0.0871;4.5066;
912.3000;0.0863;4.5017;
912.6000;0.0855;4.5017;
912.9000;0.0879;4.5115;
913.2000;0.0822;4.4919;
913.5000;0.0855;4.4993;
913.8000;0.0904;4.5139;
914.1000;0.0879;4.4968;
914.4000;0.0847;4.4919;
914.7000;0.0977;4.5286;
915.0000;0.0855;4.4968;
915.3000;0.0871;4.5042;
915.6000;0.0863;4.5017;
915.9000;0.0847;4.5017;
916.2000;0.0814;4.4870;
916.5000;0.0887;4.5066;
916.8000;0.0822;4.4895;
917.1000;0.0847;4.4993;
917.4000;0.0855;4.5042;
917.7000;0.0871;4.4993;
918.0000;0.0863;4.4968;
918.3000;0.0863;4.4944;
918.6000;0.0871;4.4944;
918.9000;0.0863;4.4895;
919.2000;0.0863;4.4919;
919.5000;0.0847;4.4919;
919.8000;0.0822;4.4797;
920.1000;0.0847;4.4846;
920.4000;0.0863;4.4919;
920.7000;0.0838;4.4846;
921.0000;0.0871;4.4944;
921.3000;0.0871;4.5017;
921.6000;0.0904;4.5164;
921.9000;0.0855;4.4993;
922.2000;0.0863;4.5066;
922.5000;0.0871;4.5091;
922.8000;0.0863;4.5066;
923.1000;0.0863;4.5164;
923.4000;0.0944;4.5360;
923.7000;0.0790;4.4870;
924.0000;0.0838;4.4944;
924.3000;0.0879;4.5042;
924.6000;0.0871;4.5042;
924.9000;0.0871;4.4993;
925.2000;0.0855;4.5091;
925.5000;0.0895;4.5164;
925.8000;0.0855;4.4944;
926.1000;0.0879;4.5017;
926.4000;0.0863;4.4968;
926.7000;0.0733;4.4601;
927.0000;0.0798;4.4748;
927.3000;0.0847;4.4919;
927.6000;0.0855;4.4993;
927.9000;0.0871;4.4895;
928.2000;0.0830;4.4773;
928.5000;0.0879;4.4919;
928.8000;0.0830;4.4919;
929.1000;0.0838;4.4895;
929.4000;0.0855;4.4919;
929.7000;0.0830;4.4870;
930.0000;0.0838;4.4822;
930.3000;0.0798;4.4626;
930.6000;0.0790;4.4626;
930.9000;0.0847;4.4846;
931.2000;0.0814;4.4822;
931.5000;0.0904;4.5017;
931.8000;0.0871;4.4968;
932.1000;0.0830;4.4846;
932.4000;0.0847;4.4919;
932.7000;0.0765;4.4748;
933.0000;0.0838;4.5017;
933.3000;0.0765;4.4846;
933.6000;0.0847;4.5042;
933.9000;0.0838;4.4895;
934.2000;0.0838;4.4895;
934.5000;0.0855;4.4895;
934.8000;0.0838;4.4944;
935.1000;0.0838;4.5017;
935.4000;0.0838;4.5042;
935.7000;0.0847;4.5042;
936.0000;0.0847;4.5017;
936.3000;0.0847;4.5042;
936.6000;0.0838;4.5115;
936.9000;0.0806;4.4993;
937.2000;0.0920;4.5286;
937.5000;0.0806;4.4895;
937.8000;0.0863;4.5042;
938.1000;0.0879;4.5164;
938.4000;0.0887;4.5091;
938.7000;0.0814;4.4919;
939.0000;0.0904;4.5066;
939.3000;0.0684;4.4577;
939.6000;0.0863;4.4993;
939.9000;0.0863;4.4919;
940.2000;0.0847;4.4919;
940.5000;0.0838;4.4919;
940.8000;0.0822;4.4846;
941.1000;0.0847;4.4919;
941.4000;0.0838;4.4846;
941.7000;0.0814;4.4748;
942.0000;0.0879;4.4919;
942.3000;0.0895;4.5017;
942.6000;0.0838;4.4968;
942.9000;0.0887;4.5066;
943.2000;0.0887;4.5042;
943.5000;0.0863;4.4968;
943.8000;0.0847;4.4919;
944.1000;0.0847;4.4968;
944.4000;0.0871;4.5066;
944.7000;0.0863;4.5017;
945.0000;0.0847;4.4944;
945.3000;0.0847;4.5091;
945.6000;0.0879;4.5115;
945.9000;0.0855;4.5066;
946.2000;0.0863;4.4993;
946.5000;0.0757;4.4724;
946.8000;0.0871;4.4919;
947.1000;0.0879;4.5091;
947.4000;0.0871;4.5017;
947.7000;0.0855;4.4895;
948.0000;0.0879;4.5017;
948.3000;0.0838;4.4822;
948.6000;0.0871;4.4968;
948.9000;0.0838;4.4919;
949.2000;0.0855;4.4944;
949.5000;0.0863;4.4944;
949.8000;0.0871;4.5042;
950.1000;0.0871;4.5091;
950.4000;0.0863;4.5042;
950.7000;0.0879;4.5066;
951.0000;0.0830;4.4993;
951.3000;0.0822;4.4895;
951.6000;0.0863;4.5017;
951.9000;0.0847;4.4919;
952.2000;0.0863;4.4895;
952.5000;0.0863;4.4895;
952.8000;0.0855;4.4846;
953.1000;0.0855;4.4919;
953.4000;0.0871;4.4846;
953.7000;0.0855;4.4870;
954.0000;0.0887;4.5017;
954.3000;0.0871;4.4944;
954.6000;0.0863;4.4944;
954.9000;0.0847;4.4822;
955.2000;0.0847;4.4846;
955.5000;0.0855;4.4870;
955.8000;0.0879;4.4895;
956.1000;0.0757;4.4479;
956.4000;0.0912;4.5017;
956.7000;0.0773;4.4577;
957.0000;0.0822;4.4748;
957.3000;0.0863;4.4822;
957.6000;0.0765;4.4528;
957.9000;0.0830;4.4748;
958.2000;0.0847;4.4797;
958.5000;0.0887;4.4919;
958.8000;0.0838;4.4822;
959.1000;0.0871;4.4895;
959.4000;0.0847;4.4968;
959.7000;0.0928;4.5262;
960.0000;0.0855;4.5091;
960.3000;0.0838;4.5017;
960.6000;0.0855;4.4993;
960.9000;0.0806;4.4797;
961.2000;0.0936;4.5213;
961.5000;0.0871;4.5042;
961.8000;0.0855;4.5042;
962.1000;0.0863;4.5139;
962.4000;0.0871;4.5115;
962.7000;0.0838;4.5042;
963.0000;0.0895;4.5115;
963.3000;0.0871;4.5042;
963.6000;0.0887;4.4968;
963.9000;0.0863;4.4895;
964.2000;0.0871;4.4944;
964.5000;0.0855;4.4846;
964.8000;0.0781;4.4626;
965.1000;0.0863;4.4822;
965.4000;0.0855;4.4748;
965.7000;0.0863;4.4822;
966.0000;0.0741;4.4504;
966.3000;0.0855;4.4895;
966.6000;0.0863;4.5017;
966.9000;0.0847;4.4968;
967.2000;0.0847;4.5017;
967.5000;0.0863;4.4993;
967.8000;0.0806;4.4870;
968.1000;0.0904;4.5066;
968.4000;0.0790;4.4748;
968.7000;0.0863;4.4968;
969.0000;0.0928;4.5115;
969.3000;0.0830;4.4895;
969.6000;0.0855;4.4919;
969.9000;0.0757;4.4650;
970.2000;0.0847;4.4993;
970.5000;0.0847;4.4968;
970.8000;0.0871;4.5042;
971.1000;0.0928;4.5213;
971.4000;0.0863;4.5066;
971.7000;0.0830;4.4944;
972.0000;0.0651;4.4553;
972.3000;0.0887;4.5237;
972.6000;0.0871;4.5188;
972.9000;0.0830;4.5066;
973.2000;0.0855;4.5262;
973.5000;0.0879;4.5188;
973.8000;0.0847;4.5042;
974.1000;0.0847;4.5066;
974.4000;0.0871;4.5115;
974.7000;0.0838;4.5042;
975.0000;0.0822;4.4919;
975.3000;0.0838;4.4944;
975.6000;0.0855;4.5017;
975.9000;0.0838;4.5066;
976.2000;0.0741;4.4748;
976.5000;0.0855;4.5091;
976.8000;0.0838;4.5042;
977.1000;0.0830;4.4968;
977.4000;0.0773;4.4870;
977.7000;0.0871;4.5042;
978.0000;0.0863;4.5066;
978.3000;0.0863;4.5091;
978.6000;0.0920;4.5262;
978.9000;0.0879;4.5139;
979.2000;0.0855;4.5115;
979.5000;0.0798;4.4993;
979.8000;0.0838;4.5091;
980.1000;0.0863;4.5091;
980.4000;0.0912;4.5360;
980.7000;0.0879;4.5262;
981.0000;0.0863;4.5188;
981.3000;0.0855;4.5188;
981.6000;0.0659;4.4675;
981.9000;0.0773;4.5042;
982.2000;0.0863;4.5091;
982.5000;0.0895;4.5115;
982.8000;0.0830;4.5066;
983.1000;0.0847;4.5213;
983.4000;0.0838;4.5188;
983.7000;0.0838;4.5164;
984.0000;0.0887;4.5237;
984.3000;0.0822;4.5042;
984.6000;0.0847;4.5066;
984.9000;0.0855;4.5091;
985.2000;0.0936;4.5311;
985.5000;0.0847;4.5115;
985.8000;0.0847;4.5139;
986.1000;0.0838;4.4993;
986.4000;0.0798;4.4797;
986.7000;0.0847;4.4895;
987.0000;0.0847;4.4919;
987.3000;0.0855;4.4846;
987.6000;0.0887;4.4968;
987.9000;0.0871;4.4944;
988.2000;0.0847;4.4993;
988.5000;0.0847;4.5042;
988.8000;0.0847;4.4993;
989.1000;0.0863;4.5066;
989.4000;0.0838;4.5017;
989.7000;0.0855;4.5091;
990.0000;0.0847;4.5188;
990.3000;0.0855;4.5164;
990.6000;0.0830;4.5091;
990.9000;0.0814;4.5017;
991.2000;0.0830;4.4993;
991.5000;0.0798;4.4773;
991.8000;0.0847;4.5017;
992.1000;0.0847;4.5091;
992.4000;0.0879;4.5115;
992.7000;0.1018;4.5531;
993.0000;0.0887;4.5115;
993.3000;0.0855;4.5066;
993.6000;0.0887;4.5164;
993.9000;0.0838;4.5017;
994.2000;0.0847;4.5017;
994.5000;0.0961;4.5311;
994.8000;0.0952;4.5286;
995.1000;0.0814;4.4944;
995.4000;0.0855;4.4968;
995.7000;0.0855;4.4968;
996.0000;0.0838;4.4993;
996.3000;0.0838;4.4944;
996.6000;0.0847;4.4919;
996.9000;0.0863;4.4993;
997.2000;0.0847;4.4944;
997.5000;0.0847;4.4968;
997.8000;0.0895;4.4993;
998.1000;0.0838;4.4797;
998.4000;0.0830;4.4846;
998.7000;0.0895;4.5066;
999.0000;0.0806;4.4797;
999.3000;0.0879;4.5115;
999.6000;0.0838;4.4968;
999.9000;0.0847;4.4993;
1000.2000;0.0781;4.4822;
1000.5000;0.0790;4.4846;
1000.8000;0.0847;4.4993;
1001.1000;0.0952;4.5237;
1001.4000;0.0847;4.4993;
1001.7000;0.0879;4.5017;
1002.0000;0.0838;4.4944;
1002.3000;0.0790;4.4895;
1002.6000;0.0879;4.5188;
1002.9000;0.0863;4.5091;
1003.2000;0.0822;4.4968;
1003.5000;0.0798;4.5017;
1003.8000;0.0781;4.4944;
1004.1000;0.0830;4.5164;
1004.4000;0.0806;4.5091;
1004.7000;0.0790;4.5115;
1005.0000;0.0798;4.5139;
1005.3000;0.0765;4.4870;
1005.6000;0.0879;4.5188;
1005.9000;0.0855;4.5213;
1006.2000;0.0871;4.5262;
1006.5000;0.0847;4.5237;
1006.8000;0.0830;4.5262;
1007.1000;0.0871;4.5384;
1007.4000;0.0855;4.5360;
1007.7000;0.0871;4.5360;
1008.0000;0.0847;4.5286;
1008.3000;0.0838;4.5213;
1008.6000;0.0847;4.5066;
1008.9000;0.0830;4.4870;
1009.2000;0.0830;4.4919;
1009.5000;0.0847;4.5017;
1009.8000;0.0847;4.5066;
1010.1000;0.0920;4.5286;
1010.4000;0.0847;4.5017;
1010.7000;0.0977;4.5408;
1011.0000;0.0838;4.5017;
1011.3000;0.0838;4.5042;
1011.6000;0.0871;4.5066;
1011.9000;0.0863;4.4968;
1012.2000;0.0863;4.4968;
1012.5000;0.0879;4.5017;
1012.8000;0.0830;4.4968;
1013.1000;0.0855;4.5066;
1013.4000;0.0838;4.5042;
1013.7000;0.0847;4.5042;
1014.0000;0.0847;4.5139;
1014.3000;0.0863;4.5164;
1014.6000;0.0863;4.5188;
1014.9000;0.0863;4.5188;
1015.2000;0.0838;4.5115;
1015.5000;0.0814;4.5091;
1015.8000;0.0814;4.5017;
1016.1000;0.0871;4.5115;
1016.4000;0.0887;4.5091;
1016.7000;0.0847;4.4944;
1017.0000;0.0855;4.4944;
1017.3000;0.0863;4.5042;
1017.6000;0.0985;4.5360;
1017.9000;0.0863;4.5115;
1018.2000;0.0871;4.5164;
1018.5000;0.0781;4.4895;
1018.8000;0.0847;4.5164;
1019.1000;0.0830;4.5139;
1019.4000;0.0838;4.5188;
1019.7000;0.0855;4.5237;
1020.0000;0.0847;4.5188;
1020.3000;0.0830;4.5164;
1020.6000;0.0863;4.5262;
1020.9000;0.0871;4.5188;
1021.2000;0.0847;4.5237;
1021.5000;0.0847;4.5164;
1021.8000;0.0871;4.5237;
1022.1000;0.0879;4.5262;
1022.4000;0.0847;4.5164;
1022.7000;0.0871;4.5139;
1023.0000;0.0847;4.4968;
1023.3000;0.0838;4.4993;
1023.6000;0.0822;4.4895;
1023.9000;0.0855;4.4870;
1024.2000;0.0855;4.4870;
1024.5000;0.0855;4.5017;
1024.8000;0.0863;4.5042;
1025.1000;0.0855;4.5017;
1025.4000;0.0863;4.5066;
1025.7000;0.0855;4.5042;
1026.0000;0.0871;4.4993;
1026.3000;0.0855;4.4944;
1026.6000;0.0871;4.4968;
1026.9000;0.0879;4.4993;
1027.2000;0.0863;4.4919;
1027.5000;0.0928;4.5115;
1027.8000;0.0847;4.4895;
1028.1000;0.0847;4.4919;
1028.4000;0.0847;4.4944;
1028.7000;0.0887;4.5017;
1029.0000;0.0855;4.4993;
1029.3000;0.0830;4.4944;
1029.6000;0.0855;4.5017;
1029.9000;0.0863;4.5042;
1030.2000;0.0798;4.4895;
1030.5000;0.0871;4.5115;
1030.8000;0.0855;4.5091;
1031.1000;0.0855;4.5139;
1031.4000;0.0838;4.5115;
1031.7000;0.0952;4.5433;
1032.0000;0.0936;4.5311;
1032.3000;0.0863;4.5164;
1032.6000;0.0855;4.5164;
1032.9000;0.0887;4.5286;
1033.2000;0.0855;4.5311;
1033.5000;0.0855;4.5213;
1033.8000;0.0806;4.5091;
1034.1000;0.0830;4.5091;
1034.4000;0.0887;4.5262;
1034.7000;0.0855;4.5139;
1035.0000;0.0879;4.5188;
1035.3000;0.0855;4.5139;
1035.6000;0.0863;4.5042;
1035.9000;0.0838;4.4919;
1036.2000;0.0847;4.4846;
1036.5000;0.0855;4.4919;
1036.8000;0.0847;4.4797;
1037.1000;0.0863;4.4822;
1037.4000;0.0863;4.4822;
1037.7000;0.0847;4.4846;
1038.0000;0.0863;4.4870;
1038.3000;0.0871;4.4993;
1038.6000;0.0863;4.5066;
1038.9000;0.0855;4.5042;
1039.2000;0.0838;4.4993;
1039.5000;0.0912;4.5188;
1039.8000;0.0855;4.5091;
1040.1000;0.0855;4.5115;
1040.4000;0.0830;4.5091;
1040.7000;0.0847;4.5115;
1041.0000;0.0855;4.5237;
1041.3000;0.0822;4.5091;
1041.6000;0.0855;4.5115;
1041.9000;0.0871;4.5091;
1042.2000;0.0879;4.5091;
1042.5000;0.0912;4.5091;
1042.8000;0.0887;4.5017;
1043.1000;0.0847;4.4822;
1043.4000;0.0863;4.4846;
1043.7000;0.0830;4.4870;
1044.0000;0.0847;4.5042;
1044.3000;0.0887;4.5237;
1044.6000;0.0838;4.5091;
1044.9000;0.0879;4.5091;
1045.2000;0.0895;4.5042;
1045.5000;0.0838;4.5017;
1045.8000;0.0830;4.5042;
1046.1000;0.0855;4.5091;
1046.4000;0.0863;4.5066;
1046.7000;0.0879;4.5091;
1047.0000;0.0879;4.5017;
1047.3000;0.0879;4.4944;
1047.6000;0.0822;4.4870;
1047.9000;0.0855;4.5042;
1048.2000;0.0871;4.5017;
1048.5000;0.0855;4.4993;
1048.8000;0.0879;4.5091;
1049.1000;0.0871;4.5042;
1049.4000;0.0838;4.5066;
1049.7000;0.0879;4.5139;
1050.0000;0.0871;4.5164;
1050.3000;0.0887;4.5237;
1050.6000;0.0928;4.5335;
1050.9000;0.0863;4.5237;
1051.2000;0.0871;4.5188;
1051.5000;0.0887;4.5213;
1051.8000;0.0838;4.5164;
1052.1000;0.0838;4.5164;
1052.4000;0.0847;4.5188;
1052.7000;0.0781;4.4968;
1053.0000;0.0863;4.5262;
1053.3000;0.0863;4.5262;
1053.6000;0.0838;4.5164;
1053.9000;0.0806;4.5042;
1054.2000;0.0912;4.5360;
1054.5000;0.0838;4.5066;
1054.8000;0.0822;4.4846;
1055.1000;0.0838;4.4895;
1055.4000;0.0822;4.4846;
1055.7000;0.0855;4.4870;
1056.0000;0.0863;4.4773;
1056.3000;0.0847;4.4748;
1056.6000;0.0838;4.4822;
1056.9000;0.0855;4.4846;
1057.2000;0.0887;4.4968;
1057.5000;0.0871;4.4968;
1057.8000;0.0765;4.4748;
1058.1000;0.0847;4.5042;
1058.4000;0.0838;4.5066;
1058.7000;0.0847;4.5042;
1059.0000;0.0879;4.5115;
1059.3000;0.0855;4.5164;
1059.6000;0.0830;4.5115;
1059.9000;0.0855;4.5115;
1060.2000;0.0838;4.4993;
1060.5000;0.0830;4.4968;
1060.8000;0.0847;4.4919;
1061.1000;0.0993;4.5311;
1061.4000;0.0871;4.4944;
1061.7000;0.0863;4.4993;
1062.0000;0.0871;4.5091;
1062.3000;0.0863;4.5091;
1062.6000;0.0895;4.5066;
1062.9000;0.0855;4.4870;
1063.2000;0.0838;4.4822;
1063.5000;0.0871;4.4919;
1063.8000;0.0871;4.4968;
1064.1000;0.0871;4.5017;
1064.4000;0.0830;4.4968;
1064.7000;0.0855;4.4968;
1065.0000;0.0806;4.4797;
1065.3000;0.0871;4.4870;
1065.6000;0.0863;4.4699;
1065.9000;0.0855;4.4601;
1066.2000;0.0863;4.4675;
1066.5000;0.0855;4.4675;
1066.8000;0.0863;4.4675;
1067.1000;0.0863;4.4675;
1067.4000;0.0912;4.4797;
1067.7000;0.0879;4.4846;
1068.0000;0.0830;4.4724;
1068.3000;0.0855;4.4822;
1068.6000;0.0838;4.4797;
1068.9000;0.0847;4.4797;
1069.2000;0.0936;4.4968;
1069.5000;0.0847;4.4773;
1069.8000;0.0855;4.4822;
1070.1000;0.0830;4.4724;
1070.4000;0.0830;4.4797;
1070.7000;0.0830;4.4895;
1071.0000;0.0855;4.4968;
1071.3000;0.0895;4.5139;
1071.6000;0.0904;4.5139;
1071.9000;0.0855;4.5139;
1072.2000;0.0887;4.5286;
1072.5000;0.0855;4.5188;
1072.8000;0.0887;4.5286;
1073.1000;0.0847;4.5115;
1073.4000;0.0847;4.5042;
1073.7000;0.0879;4.5115;
1074.0000;0.0871;4.5066;
1074.3000;0.0814;4.4944;
1074.6000;0.0871;4.5091;
1074.9000;0.0855;4.5115;
1075.2000;0.0936;4.5335;
1075.5000;0.0838;4.5066;
1075.8000;0.0700;4.4675;
1076.1000;0.0863;4.5139;
1076.4000;0.0969;4.5433;
1076.7000;0.0757;4.4773;
1077.0000;0.0830;4.5017;
1077.3000;0.0781;4.4870;
1077.6000;0.0879;4.5164;
1077.9000;0.0879;4.5017;
1078.2000;0.0879;4.5115;
1078.5000;0.0847;4.5017;
1078.8000;0.0773;4.4846;
1079.1000;0.0863;4.5042;
1079.4000;0.0847;4.4993;
1079.7000;0.0855;4.4968;
1080.0000;0.0733;4.4650;
1080.3000;0.0838;4.4919;
1080.6000;0.0855;4.4919;
1080.9000;0.0847;4.4919;
1081.2000;0.0904;4.5066;
1081.5000;0.0847;4.4919;
1081.8000;0.0847;4.5017;
1082.1000;0.0847;4.5017;
1082.4000;0.0855;4.4919;
1082.7000;0.0879;4.4919;
1083.0000;0.0855;4.4797;
1083.3000;0.0830;4.4748;
1083.6000;0.0847;4.4748;
1083.9000;0.0855;4.4822;
1084.2000;0.0879;4.4870;
1084.5000;0.0847;4.4748;
1084.8000;0.0847;4.4699;
1085.1000;0.0838;4.4748;
1085.4000;0.0863;4.4797;
1085.7000;0.0847;4.4748;
1086.0000;0.0838;4.4773;
1086.3000;0.0887;4.4993;
1086.6000;0.0855;4.4919;
1086.9000;0.0855;4.4919;
1087.2000;0.0822;4.4846;
1087.5000;0.0920;4.5042;
1087.8000;0.0863;4.4846;
1088.1000;0.0871;4.4895;
1088.4000;0.0838;4.4870;
1088.7000;0.0830;4.4846;
1089.0000;0.0855;4.4870;
1089.3000;0.0863;4.4870;
1089.6000;0.0863;4.4870;
1089.9000;0.0798;4.4724;
1090.2000;0.0912;4.5139;
1090.5000;0.0855;4.4968;
1090.8000;0.0871;4.5066;
1091.1000;0.0855;4.5042;
1091.4000;0.0855;4.4968;
1091.7000;0.0855;4.4944;
1092.0000;0.0847;4.5066;
1092.3000;0.0855;4.5091;
1092.6000;0.0863;4.5262;
1092.9000;0.0847;4.5213;
1093.2000;0.0781;4.4993;
1093.5000;0.0814;4.5066;
1093.8000;0.0838;4.5042;
1094.1000;0.0863;4.5091;
1094.4000;0.0830;4.5213;
1094.7000;0.0822;4.5115;
1095.0000;0.0838;4.5164;
1095.3000;0.0887;4.5335;
1095.6000;0.0895;4.5188;
1095.9000;0.0855;4.5066;
1096.2000;0.0847;4.5115;
1096.5000;0.0822;4.5188;
1096.8000;0.0765;4.4968;
1097.1000;0.0806;4.5066;
1097.4000;0.0871;4.5164;
1097.7000;0.0904;4.5335;
1098.0000;0.0863;4.5213;
1098.3000;0.0871;4.5188;
1098.6000;0.0855;4.5115;
1098.9000;0.0838;4.5066;
1099.2000;0.0838;4.5017;
1099.5000;0.0855;4.5066;
1099.8000;0.0863;4.5017;
1100.1000;0.0838;4.5066;
1100.4000;0.0847;4.5066;
1100.7000;0.0830;4.4993;
1101.0000;0.0847;4.5066;
1101.3000;0.0822;4.5017;
1101.6000;0.0863;4.5042;
1101.9000;0.0773;4.4870;
1102.2000;0.0838;4.5066;
1102.5000;0.0847;4.5115;
1102.8000;0.0863;4.5115;
1103.1000;0.0920;4.5237;
1103.4000;0.0863;4.5091;
1103.7000;0.0838;4.4968;
1104.0000;0.0855;4.4968;
1104.3000;0.0863;4.4944;
1104.6000;0.0838;4.4870;
1104.9000;0.0904;4.5017;
1105.2000;0.0855;4.4822;
1105.5000;0.0895;4.4968;
1105.8000;0.0822;4.4773;
1106.1000;0.0863;4.4968;
1106.4000;0.0847;4.4919;
1106.7000;0.0814;4.4846;
1107.0000;0.0855;4.4919;
1107.3000;0.0847;4.4919;
1107.6000;0.0798;4.4797;
1107.9000;0.0814;4.4968;
1108.2000;0.0879;4.5213;
1108.5000;0.0895;4.5360;
1108.8000;0.0863;4.5188;
1109.1000;0.0855;4.5188;
1109.4000;0.0871;4.5091;
1109.7000;0.0952;4.5360;
1110.0000;0.0847;4.5115;
1110.3000;0.0838;4.5066;
1110.6000;0.0863;4.5115;
1110.9000;0.1009;4.5580;
1111.2000;0.0871;4.5188;
1111.5000;0.0863;4.5139;
1111.8000;0.0855;4.5164;
1112.1000;0.0855;4.5139;
1112.4000;0.0855;4.5115;
1112.7000;0.0830;4.4993;
1113.0000;0.0879;4.5164;
1113.3000;0.0863;4.5188;
1113.6000;0.0830;4.5066;
1113.9000;0.0822;4.5017;
1114.2000;0.0822;4.5017;
1114.5000;0.0863;4.4993;
1114.8000;0.0855;4.5042;
1115.1000;0.0879;4.4968;
1115.4000;0.0855;4.4895;
1115.7000;0.0855;4.4993;
1116.0000;0.0830;4.4919;
1116.3000;0.0838;4.5042;
1116.6000;0.0838;4.5115;
1116.9000;0.0847;4.5066;
1117.2000;0.0855;4.5091;
1117.5000;0.0806;4.5017;
1117.8000;0.0863;4.5139;
1118.1000;0.0855;4.5115;
1118.4000;0.0879;4.5262;
1118.7000;0.0757;4.4993;
1119.0000;0.0863;4.5311;
1119.3000;0.0757;4.4919;
1119.6000;0.0904;4.5311;
1119.9000;0.0847;4.5115;
1120.2000;0.0863;4.5115;
1120.5000;0.0895;4.5213;
1120.8000;0.0847;4.5164;
1121.1000;0.0855;4.5237;
1121.4000;0.0863;4.5286;
1121.7000;0.0879;4.5262;
1122.0000;0.0879;4.5139;
1122.3000;0.0961;4.5360;
1122.6000;0.0863;4.5188;
1122.9000;0.0838;4.5139;
1123.2000;0.0895;4.5213;
1123.5000;0.0847;4.5139;
1123.8000;0.0879;4.5213;
1124.1000;0.0879;4.5237;
1124.4000;0.0847;4.5091;
1124.7000;0.0887;4.5139;
1125.0000;0.0961;4.5384;
1125.3000;0.0855;4.5066;
1125.6000;0.0847;4.4993;
1125.9000;0.0847;4.5017;
1126.2000;0.0863;4.5091;
1126.5000;0.0871;4.5139;
1126.8000;0.0863;4.5091;
1127.1000;0.0855;4.5213;
1127.4000;0.0863;4.5237;
1127.7000;0.0847;4.5188;
1128.0000;0.0847;4.5115;
1128.3000;0.0830;4.5091;
1128.6000;0.0871;4.5188;
1128.9000;0.0863;4.5164;
1129.2000;0.0830;4.5139;
1129.5000;0.0855;4.5139;
1129.8000;0.0855;4.5115;
1130.1000;0.0855;4.5091;
1130.4000;0.0863;4.5042;
1130.7000;0.0822;4.4968;
1131.0000;0.0904;4.5139;
1131.3000;0.0855;4.4944;
1131.6000;0.0863;4.5017;
1131.9000;0.0855;4.4919;
1132.2000;0.0847;4.4944;
1132.5000;0.0863;4.4895;
1132.8000;0.0847;4.4944;
1133.1000;0.0871;4.5017;
1133.4000;0.0855;4.4895;
1133.7000;0.0887;4.4993;
1134.0000;0.0871;4.5017;
1134.3000;0.0838;4.4895;
1134.6000;0.0830;4.4797;
1134.9000;0.0904;4.4993;
1135.2000;0.0855;4.4895;
1135.5000;0.0830;4.4773;
1135.8000;0.0847;4.4748;
1136.1000;0.0855;4.4846;
1136.4000;0.0879;4.4895;
1136.7000;0.0871;4.4870;
1137.0000;0.0855;4.4797;
1137.3000;0.0863;4.4870;
1137.6000;0.0847;4.4846;
1137.9000;0.0847;4.4797;
1138.2000;0.0822;4.4699;
1138.5000;0.0871;4.4773;
1138.8000;0.0863;4.4822;
1139.1000;0.0838;4.4822;
1139.4000;0.0847;4.4846;
1139.7000;0.0863;4.4919;
1140.0000;0.0863;4.4944;
1140.3000;0.0847;4.4968;
1140.6000;0.0863;4.5066;
1140.9000;0.0830;4.4968;
1141.2000;0.0871;4.5066;
1141.5000;0.0887;4.5042;
1141.8000;0.0855;4.4919;
1142.1000;0.0871;4.5017;
1142.4000;0.0920;4.5066;
1142.7000;0.0863;4.4895;
1143.0000;0.0855;4.4919;
1143.3000;0.0838;4.4870;
1143.6000;0.0830;4.4797;
1143.9000;0.0847;4.4846;
1144.2000;0.0887;4.4797;
1144.5000;0.0838;4.4601;
1144.8000;0.0887;4.4724;
1145.1000;0.0830;4.4626;
1145.4000;0.0822;4.4601;
1145.7000;0.0961;4.5091;
1146.0000;0.0847;4.4797;
1146.3000;0.0749;4.4553;
1146.6000;0.0863;4.4895;
1146.9000;0.0855;4.4944;
1147.2000;0.0847;4.4822;
1147.5000;0.0855;4.4919;
1147.8000;0.0863;4.4944;
1148.1000;0.0847;4.4822;
1148.4000;0.0830;4.4724;
1148.7000;0.0847;4.4870;
1149.0000;0.0822;4.4822;
1149.3000;0.0773;4.4626;
1149.6000;0.0855;4.4822;
1149.9000;0.0863;4.4870;
1150.2000;0.0887;4.4993;
1150.5000;0.0855;4.5017;
1150.8000;0.0798;4.4773;
1151.1000;0.0952;4.5164;
1151.4000;0.0773;4.4724;
1151.7000;0.0863;4.4944;
1152.0000;0.0895;4.4968;
1152.3000;0.0830;4.4895;
1152.6000;0.0871;4.5017;
1152.9000;0.0871;4.5091;
1153.2000;0.0855;4.5115;
1153.5000;0.0871;4.5091;
1153.8000;0.0847;4.5115;
1154.1000;0.0855;4.5066;
1154.4000;0.0830;4.4870;
1154.7000;0.0790;4.4699;
1155.0000;0.0806;4.4748;
1155.3000;0.0871;4.4870;
1155.6000;0.0847;4.4895;
1155.9000;0.0814;4.4919;
1156.2000;0.0863;4.5042;
1156.5000;0.0952;4.5262;
1156.8000;0.0838;4.4919;
1157.1000;0.0855;4.4993;
1157.4000;0.0855;4.4968;
1157.7000;0.0871;4.4895;
1158.0000;0.0838;4.4870;
1158.3000;0.0879;4.4993;
1158.6000;0.0847;4.4944;
1158.9000;0.0944;4.5188;
1159.2000;0.0879;4.5042;
1159.5000;0.0863;4.4968;
1159.8000;0.0863;4.4870;
1160.1000;0.0830;4.4822;
1160.4000;0.0847;4.4870;
1160.7000;0.0863;4.4846;
1161.0000;0.0863;4.4797;
1161.3000;0.0838;4.4822;
1161.6000;0.0855;4.4846;
1161.9000;0.0855;4.4870;
1162.2000;0.0863;4.4846;
1162.5000;0.0855;4.4895;
1162.8000;0.0847;4.4846;
1163.1000;0.0830;4.4870;
1163.4000;0.0855;4.4895;
1163.7000;0.0863;4.4870;
1164.0000;0.0847;4.4870;
1164.3000;0.0928;4.5164;
1164.6000;0.0847;4.4895;
1164.9000;0.0879;4.4919;
1165.2000;0.0863;4.4944;
1165.5000;0.0847;4.4968;
1165.8000;0.0887;4.5066;
1166.1000;0.0847;4.4993;
1166.4000;0.0855;4.4944;
1166.7000;0.0855;4.4993;
1167.0000;0.0814;4.4919;
1167.3000;0.0838;4.5017;
1167.6000;0.0814;4.4968;
1167.9000;0.0863;4.5091;
1168.2000;0.0944;4.5262;
1168.5000;0.0863;4.5042;
1168.8000;0.0814;4.4944;
1169.1000;0.0863;4.5066;
1169.4000;0.0838;4.4919;
1169.7000;0.0830;4.4919;
1170.0000;0.0863;4.5042;
1170.3000;0.0871;4.5042;
1170.6000;0.0863;4.5042;
1170.9000;0.0863;4.5066;
1171.2000;0.0814;4.5042;
1171.5000;0.0830;4.5042;
1171.8000;0.0863;4.5091;
1172.1000;0.0912;4.5164;
1172.4000;0.0871;4.5091;
1172.7000;0.0847;4.5091;
1173.0000;0.0847;4.5066;
1173.3000;0.0830;4.4968;
1173.6000;0.0830;4.4968;
1173.9000;0.0798;4.4870;
1174.2000;0.0847;4.5017;
1174.5000;0.0830;4.5066;
1174.8000;0.0847;4.5066;
1175.1000;0.0838;4.5091;
1175.4000;0.0781;4.4895;
1175.7000;0.0871;4.5188;
1176.0000;0.0855;4.5262;
1176.3000;0.0822;4.5139;
1176.6000;0.0847;4.5213;
1176.9000;0.0847;4.5115;
1177.2000;0.0855;4.5213;
1177.5000;0.0863;4.5139;
1177.8000;0.0847;4.5115;
1178.1000;0.0871;4.5115;
1178.4000;0.0806;4.4993;
1178.7000;0.0863;4.5091;
1179.0000;0.0814;4.4968;
1179.3000;0.0863;4.5115;
1179.6000;0.0855;4.4993;
1179.9000;0.0847;4.4944;
1180.2000;0.0871;4.4993;
1180.5000;0.0887;4.4993;
1180.8000;0.0838;4.4846;
1181.1000;0.0814;4.4895;
1181.4000;0.0863;4.4968;
1181.7000;0.0838;4.4944;
1182.0000;0.0708;4.4528;
1182.3000;0.0879;4.5066;
1182.6000;0.0871;4.5139;
1182.9000;0.0855;4.5115;
1183.2000;0.0847;4.5091;
1183.5000;0.0838;4.5042;
1183.8000;0.0838;4.5066;
1184.1000;0.0879;4.5213;
1184.4000;0.0871;4.5164;
1184.7000;0.0847;4.5066;
1185.0000;0.0855;4.5164;
1185.3000;0.0871;4.5213;
1185.6000;0.0855;4.5164;
1185.9000;0.0822;4.5091;
1186.2000;0.0798;4.4919;
1186.5000;0.0855;4.5066;
1186.8000;0.0871;4.4968;
1187.1000;0.0895;4.5091;
1187.4000;0.0895;4.5213;
1187.7000;0.0871;4.5115;
1188.0000;0.0847;4.5091;
1188.3000;0.0871;4.5091;
1188.6000;0.0855;4.4944;
1188.9000;0.0855;4.4968;
1189.2000;0.0790;4.4773;
1189.5000;0.0838;4.4870;
1189.8000;0.0904;4.5091;
1190.1000;0.0879;4.4944;
1190.4000;0.0822;4.4846;
1190.7000;0.0863;4.4822;
1191.0000;0.0879;4.4895;
1191.3000;0.0855;4.4968;
1191.6000;0.0847;4.4919;
1191.9000;0.0871;4.5042;
1192.2000;0.0830;4.4993;
1192.5000;0.0847;4.4968;
1192.8000;0.0822;4.5066;
1193.1000;0.0838;4.5066;
1193.4000;0.0855;4.5139;
1193.7000;0.0863;4.5066;
1194.0000;0.0863;4.5115;
1194.3000;0.0871;4.5115;
1194.6000;0.0871;4.5115;
1194.9000;0.0822;4.4944;
1195.2000;0.0879;4.5115;
1195.5000;0.0830;4.4968;
1195.8000;0.0790;4.4870;
1196.1000;0.0855;4.5115;
1196.4000;0.0855;4.4993;
1196.7000;0.0863;4.5042;
1197.0000;0.0871;4.5042;
1197.3000;0.0847;4.4968;
1197.6000;0.0863;4.5017;
1197.9000;0.0855;4.5042;
1198.2000;0.0830;4.5017;
1198.5000;0.0847;4.5139;
1198.8000;0.0838;4.5066;
1199.1000;0.0863;4.5139;
1199.4000;0.0847;4.5115;
1199.7000;0.0879;4.5213;
1200.0000;0.0847;4.5115;
1200.3000;0.0855;4.5017;
1200.6000;0.0838;4.4968;
1200.9000;0.0830;4.4895;
1201.2000;0.0871;4.4993;
1201.5000;0.0887;4.5017;
1201.8000;0.0847;4.4895;
1202.1000;0.0838;4.4846;
1202.4000;0.0855;4.4944;
1202.7000;0.0936;4.5091;
1203.0000;0.0733;4.4601;
1203.3000;0.0863;4.5066;
1203.6000;0.0855;4.4993;
1203.9000;0.0822;4.4944;
1204.2000;0.0847;4.5066;
1204.5000;0.0871;4.5139;
1204.8000;0.0822;4.4944;
1205.1000;0.0855;4.4968;
1205.4000;0.0855;4.4944;
1205.7000;0.0871;4.4993;
1206.0000;0.0838;4.4870;
1206.3000;0.0879;4.4993;
1206.6000;0.0928;4.5091;
1206.9000;0.0847;4.4846;
1207.2000;0.0863;4.4944;
1207.5000;0.0863;4.5017;
1207.8000;0.0838;4.4968;
1208.1000;0.0936;4.5213;
1208.4000;0.0814;4.4846;
1208.7000;0.0847;4.4993;
1209.0000;0.0855;4.4968;
1209.3000;0.0863;4.5091;
1209.6000;0.0855;4.4993;
1209.9000;0.0855;4.4846;
1210.2000;0.0847;4.4773;
1210.5000;0.0863;4.4822;
1210.8000;0.0871;4.4968;
1211.1000;0.0822;4.4870;
1211.4000;0.0830;4.4797;
1211.7000;0.0863;4.4993;
1212.0000;0.0871;4.5115;
1212.3000;0.0781;4.4895;
1212.6000;0.0879;4.5164;
1212.9000;0.0879;4.5188;
1213.2000;0.0863;4.5237;
1213.5000;0.0790;4.4993;
1213.8000;0.0757;4.4919;
1214.1000;0.0871;4.5213;
1214.4000;0.0847;4.5213;
1214.7000;0.0855;4.5286;
1215.0000;0.0871;4.5335;
1215.3000;0.0928;4.5580;
1215.6000;0.0781;4.5115;
1215.9000;0.0838;4.5237;
1216.2000;0.0863;4.5262;
1216.5000;0.0822;4.5139;
1216.8000;0.0847;4.5262;
1217.1000;0.0847;4.5262;
1217.4000;0.0863;4.5213;
1217.7000;0.0863;4.5139;
1218.0000;0.0781;4.4944;
1218.3000;0.0879;4.5237;
1218.6000;0.0871;4.5188;
1218.9000;0.0855;4.5188;
1219.2000;0.0838;4.5091;
1219.5000;0.0855;4.5188;
1219.8000;0.0871;4.5237;
1220.1000;0.0855;4.5237;
1220.4000;0.0847;4.5213;
1220.7000;0.0830;4.5213;
1221.0000;0.0887;4.5335;
1221.3000;0.0879;4.5237;
1221.6000;0.0847;4.5066;
1221.9000;0.0871;4.5115;
1222.2000;0.0830;4.5042;
1222.5000;0.0847;4.5017;
1222.8000;0.0855;4.5164;
1223.1000;0.0847;4.5164;
1223.4000;0.0822;4.5066;
1223.7000;0.0912;4.5213;
1224.0000;0.0871;4.5042;
1224.3000;0.0847;4.4895;
1224.6000;0.0765;4.4528;
1224.9000;0.0863;4.4846;
1225.2000;0.0838;4.4748;
1225.5000;0.0871;4.4797;
1225.8000;0.0773;4.4504;
1226.1000;0.0863;4.4797;
1226.4000;0.0871;4.4895;
1226.7000;0.0847;4.4919;
1227.0000;0.0822;4.4822;
1227.3000;0.0871;4.4993;
1227.6000;0.0871;4.4993;
1227.9000;0.0879;4.4993;
1228.2000;0.0847;4.4944;
1228.5000;0.0822;4.4870;
1228.8000;0.0887;4.4993;
1229.1000;0.0847;4.4846;
1229.4000;0.0887;4.4895;
1229.7000;0.0847;4.4773;
1230.0000;0.0863;4.4822;
1230.3000;0.0912;4.5042;
1230.6000;0.0838;4.4895;
1230.9000;0.0838;4.4968;
1231.2000;0.0855;4.4993;
1231.5000;0.0879;4.5017;
1231.8000;0.0863;4.5017;
1232.1000;0.0863;4.5042;
1232.4000;0.0855;4.5017;
1232.7000;0.0871;4.4968;
1233.0000;0.0830;4.4895;
1233.3000;0.0879;4.4993;
1233.6000;0.0871;4.4993;
1233.9000;0.0871;4.4993;
1234.2000;0.0879;4.4968;
1234.5000;0.0879;4.4919;
1234.8000;0.0822;4.4797;
1235.1000;0.0838;4.4822;
1235.4000;0.0855;4.4895;
1235.7000;0.0838;4.4822;
1236.0000;0.0855;4.4846;
1236.3000;0.0879;4.4919;
1236.6000;0.0716;4.4528;
1236.9000;0.0863;4.4993;
1237.2000;0.0904;4.5115;
1237.5000;0.0863;4.4895;
1237.8000;0.0855;4.4870;
1238.1000;0.0871;4.4797;
1238.4000;0.0822;4.4675;
1238.7000;0.0838;4.4699;
1239.0000;0.0863;4.4773;
1239.3000;0.0822;4.4773;
1239.6000;0.0847;4.4846;
1239.9000;0.0863;4.4944;
1240.2000;0.0863;4.5042;
1240.5000;0.0895;4.5164;
1240.8000;0.0830;4.4968;
1241.1000;0.0838;4.4993;
1241.4000;0.0887;4.5115;
1241.7000;0.0871;4.5066;
1242.0000;0.0871;4.5017;
1242.3000;0.0855;4.4919;
1242.6000;0.0871;4.4993;
1242.9000;0.0847;4.4895;
1243.2000;0.0847;4.4870;
1243.5000;0.0847;4.4846;
1243.8000;0.0863;4.4919;
1244.1000;0.0847;4.4870;
1244.4000;0.0830;4.4870;
1244.7000;0.0871;4.4968;
1245.0000;0.0847;4.4895;
1245.3000;0.0863;4.4895;
1245.6000;0.0863;4.4895;
1245.9000;0.0952;4.5139;
1246.2000;0.0838;4.4846;
1246.5000;0.0855;4.4895;
1246.8000;0.0895;4.4944;
1247.1000;0.0871;4.4895;
1247.4000;0.0847;4.4773;
1247.7000;0.0879;4.4846;
1248.0000;0.0895;4.4822;
1248.3000;0.0871;4.4773;
1248.6000;0.0863;4.4724;
1248.9000;0.0855;4.4626;
1249.2000;0.0863;4.4699;
1249.5000;0.0838;4.4699;
1249.8000;0.0863;4.4846;
1250.1000;0.0863;4.4773;
1250.4000;0.0887;4.4919;
1250.7000;0.0757;4.4479;
1251.0000;0.0814;4.4553;
1251.3000;0.0838;4.4650;
1251.6000;0.0838;4.4650;
1251.9000;0.0830;4.4724;
1252.2000;0.0879;4.4822;
1252.5000;0.0855;4.4822;
1252.8000;0.0871;4.4846;
1253.1000;0.0871;4.4895;
1253.4000;0.0847;4.4822;
1253.7000;0.0879;4.4944;
1254.0000;0.0879;4.4895;
1254.3000;0.0863;4.4846;
1254.6000;0.0863;4.4944;
1254.9000;0.0887;4.5017;
1255.2000;0.0863;4.5042;
1255.5000;0.0887;4.5139;
1255.8000;0.0863;4.5115;
1256.1000;0.0879;4.5091;
1256.4000;0.0871;4.4968;
1256.7000;0.0871;4.4944;
1257.0000;0.0871;4.5017;
1257.3000;0.0863;4.4919;
1257.6000;0.0855;4.4846;
1257.9000;0.0871;4.4919;
1258.2000;0.0928;4.5017;
1258.5000;0.0855;4.4846;
1258.8000;0.0830;4.4773;
1259.1000;0.0847;4.4773;
1259.4000;0.0863;4.4895;
1259.7000;0.0912;4.5091;
1260.0000;0.0822;4.4846;
1260.3000;0.0838;4.4919;
1260.6000;0.0871;4.4919;
1260.9000;0.0855;4.4870;
1261.2000;0.0847;4.4870;
1261.5000;0.0855;4.4870;
1261.8000;0.0863;4.4870;
1262.1000;0.0838;4.4724;
1262.4000;0.0847;4.4724;
1262.7000;0.0855;4.4822;
1263.0000;0.0830;4.4748;
1263.3000;0.0879;4.4895;
1263.6000;0.0790;4.4626;
1263.9000;0.0716;4.4406;
1264.2000;0.0855;4.4797;
1264.5000;0.0855;4.4846;
1264.8000;0.0855;4.4968;
1265.1000;0.0863;4.4993;
1265.4000;0.0838;4.4968;
1265.7000;0.0847;4.5066;
1266.0000;0.0847;4.5042;
1266.3000;0.0830;4.4846;
1266.6000;0.0838;4.4895;
1266.9000;0.0855;4.4919;
1267.2000;0.0863;4.4944;
1267.5000;0.0847;4.4846;
1267.8000;0.0847;4.4748;
1268.1000;0.0822;4.4650;
1268.4000;0.0855;4.4846;
1268.7000;0.0863;4.4846;
1269.0000;0.0838;4.4773;
1269.3000;0.0855;4.4822;
1269.6000;0.0863;4.4846;
1269.9000;0.0838;4.4748;
1270.2000;0.0855;4.4748;
1270.5000;0.0855;4.4748;
1270.8000;0.0871;4.4797;
1271.1000;0.0822;4.4699;
1271.4000;0.0822;4.4748;
1271.7000;0.0855;4.4797;
1272.0000;0.0863;4.4846;
1272.3000;0.0830;4.4748;
1272.6000;0.0830;4.4748;
1272.9000;0.0855;4.4773;
1273.2000;0.0863;4.4797;
1273.5000;0.0863;4.4846;
1273.8000;0.0855;4.4870;
1274.1000;0.0863;4.4846;
1274.4000;0.0904;4.4944;
1274.7000;0.0879;4.4773;
1275.0000;0.0798;4.4528;
1275.3000;0.0838;4.4626;
1275.6000;0.0855;4.4650;
1275.9000;0.0855;4.4626;
1276.2000;0.0847;4.4601;
1276.5000;0.0855;4.4773;
1276.8000;0.0879;4.4797;
1277.1000;0.0838;4.4699;
1277.4000;0.0855;4.4846;
1277.7000;0.0855;4.4870;
1278.0000;0.0855;4.4870;
1278.3000;0.0895;4.4870;
1278.6000;0.0863;4.4748;
1278.9000;0.0822;4.4650;
1279.2000;0.0863;4.4773;
1279.5000;0.0855;4.4846;
1279.8000;0.0871;4.4797;
1280.1000;0.0879;4.4797;
1280.4000;0.0855;4.4724;
1280.7000;0.0863;4.4895;
1281.0000;0.0887;4.4846;
1281.3000;0.0936;4.4968;
1281.6000;0.0830;4.4601;
1281.9000;0.0871;4.4699;
1282.2000;0.0879;4.4797;
1282.5000;0.0855;4.4724;
1282.8000;0.0904;4.4773;
1283.1000;0.0847;4.4601;
1283.4000;0.0863;4.4626;
1283.7000;0.0830;4.4553;
1284.0000;0.0871;4.4601;
1284.3000;0.0830;4.4528;
1284.6000;0.0855;4.4724;
1284.9000;0.0855;4.4846;
1285.2000;0.0863;4.4993;
1285.5000;0.0838;4.4919;
1285.8000;0.0847;4.4944;
1286.1000;0.0830;4.4919;
1286.4000;0.0855;4.4919;
1286.7000;0.0855;4.4895;
1287.0000;0.0895;4.4919;
1287.3000;0.0838;4.4822;
1287.6000;0.0855;4.4919;
1287.9000;0.0855;4.4919;
1288.2000;0.0879;4.4944;
1288.5000;0.0863;4.4895;
1288.8000;0.0855;4.4895;
1289.1000;0.0830;4.4846;
1289.4000;0.0855;4.4919;
1289.7000;0.0855;4.5017;
1290.0000;0.0855;4.4944;
1290.3000;0.0871;4.4944;
1290.6000;0.0847;4.4919;
1290.9000;0.0814;4.4846;
1291.2000;0.0847;4.5042;
1291.5000;0.0855;4.5091;
1291.8000;0.0847;4.5115;
1292.1000;0.0879;4.5164;
1292.4000;0.0847;4.5042;
1292.7000;0.0863;4.5017;
1293.0000;0.0855;4.5066;
1293.3000;0.0863;4.5042;
1293.6000;0.0847;4.5042;
1293.9000;0.0855;4.5042;
1294.2000;0.0773;4.4699;
1294.5000;0.0855;4.4895;
1294.8000;0.0847;4.4846;
1295.1000;0.0871;4.4846;
1295.4000;0.0847;4.4773;
1295.7000;0.0830;4.4748;
1296.0000;0.0871;4.4797;
1296.3000;0.0855;4.4675;
1296.6000;0.0838;4.4650;
1296.9000;0.0863;4.4748;
1297.2000;0.0936;4.4895;
1297.5000;0.0863;4.4650;
1297.8000;0.0855;4.4626;
1298.1000;0.0847;4.4699;
1298.4000;0.0863;4.4748;
1298.7000;0.0863;4.4748;
1299.0000;0.0863;4.4699;
1299.3000;0.0838;4.4650;
1299.6000;0.0830;4.4577;
1299.9000;0.0871;4.4675;
1300.2000;0.0847;4.4553;
1300.5000;0.0855;4.4479;
1300.8000;0.0838;4.4504;
1301.1000;0.0838;4.4577;
1301.4000;0.0871;4.4699;
1301.7000;0.0863;4.4724;
1302.0000;0.0806;4.4626;
1302.3000;0.0879;4.4846;
1302.6000;0.0838;4.4846;
1302.9000;0.0847;4.4797;
1303.2000;0.0847;4.4822;
1303.5000;0.0822;4.4699;
1303.8000;0.0871;4.4797;
1304.1000;0.0806;4.4626;
1304.4000;0.0822;4.4650;
1304.7000;0.0838;4.4699;
1305.0000;0.0863;4.4797;
1305.3000;0.0887;4.4822;
1305.6000;0.0847;4.4797;
1305.9000;0.0838;4.4846;
1306.2000;0.0838;4.4773;
1306.5000;0.0871;4.4822;
1306.8000;0.0806;4.4650;
1307.1000;0.0855;4.4797;
1307.4000;0.0733;4.4406;
1307.7000;0.0855;4.4724;
1308.0000;0.0847;4.4748;
1308.3000;0.0838;4.4797;
1308.6000;0.0855;4.4846;
1308.9000;0.0863;4.4822;
1309.2000;0.0814;4.4699;
1309.5000;0.0830;4.4724;
1309.8000;0.0790;4.4601;
1310.1000;0.0855;4.4748;
1310.4000;0.0855;4.4797;
1310.7000;0.0895;4.4993;
1311.0000;0.0806;4.4650;
1311.3000;0.0920;4.4968;
1311.6000;0.0863;4.4822;
1311.9000;0.0749;4.4528;
1312.2000;0.0855;4.4870;
1312.5000;0.0855;4.4968;
1312.8000;0.0985;4.5286;
1313.1000;0.0879;4.4968;
1313.4000;0.0847;4.4919;
1313.7000;0.0928;4.5139;
1314.0000;0.0879;4.5017;
1314.3000;0.0847;4.5066;
1314.6000;0.0879;4.5115;
1314.9000;0.0912;4.5091;
1315.2000;0.0855;4.5017;
1315.5000;0.0830;4.4919;
1315.8000;0.0863;4.4944;
1316.1000;0.0863;4.4895;
1316.4000;0.0863;4.4919;
1316.7000;0.0822;4.4870;
1317.0000;0.0847;4.4919;
1317.3000;0.0855;4.4919;
1317.6000;0.0879;4.5042;
1317.9000;0.0895;4.4993;
1318.2000;0.0830;4.4797;
1318.5000;0.0855;4.4895;
1318.8000;0.0822;4.4822;
1319.1000;0.0798;4.4724;
1319.4000;0.0838;4.4822;
1319.7000;0.0838;4.4797;
1320.0000;0.0855;4.4846;
1320.3000;0.0863;4.4919;
1320.6000;0.0944;4.5139;
1320.9000;0.0879;4.4870;
1321.2000;0.0855;4.4895;
1321.5000;0.0855;4.4944;
1321.8000;0.0847;4.4944;
1322.1000;0.0855;4.4895;
1322.4000;0.0847;4.4895;
1322.7000;0.0863;4.4944;
1323.0000;0.0928;4.5042;
1323.3000;0.0855;4.4895;
1323.6000;0.0847;4.4895;
1323.9000;0.0863;4.4944;
1324.2000;0.0863;4.4895;
1324.5000;0.0855;4.4944;
1324.8000;0.0830;4.4846;
1325.1000;0.0806;4.4748;
1325.4000;0.0879;4.4822;
1325.7000;0.0863;4.4748;
1326.0000;0.0830;4.4699;
1326.3000;0.0855;4.4797;
1326.6000;0.0871;4.4846;
1326.9000;0.0871;4.4822;
1327.2000;0.0830;4.4675;
1327.5000;0.0822;4.4626;
1327.8000;0.0871;4.4797;
1328.1000;0.0838;4.4797;
1328.4000;0.0904;4.4968;
1328.7000;0.0847;4.4797;
1329.0000;0.0855;4.4822;
1329.3000;0.0920;4.5017;
1329.6000;0.0879;4.4797;
1329.9000;0.0912;4.4846;
1330.2000;0.0863;4.4699;
1330.5000;0.0863;4.4724;
1330.8000;0.0838;4.4773;
1331.1000;0.0855;4.4773;
1331.4000;0.0790;4.4430;
1331.7000;0.0879;4.4650;
1332.0000;0.0871;4.4650;
1332.3000;0.0798;4.4504;
1332.6000;0.0855;4.4699;
1332.9000;0.0863;4.4748;
1333.2000;0.0871;4.4919;
1333.5000;0.0847;4.4919;
1333.8000;0.0895;4.4993;
1334.1000;0.0928;4.5115;
1334.4000;0.0871;4.4993;
1334.7000;0.0830;4.4919;
1335.0000;0.0936;4.5188;
1335.3000;0.0944;4.5164;
1335.6000;0.0830;4.4797;
1335.9000;0.0904;4.5091;
1336.2000;0.0871;4.5017;
1336.5000;0.0838;4.5017;
1336.8000;0.0879;4.5139;
1337.1000;0.0806;4.4944;
1337.4000;0.0863;4.5139;
1337.7000;0.0863;4.5066;
1338.0000;0.1009;4.5384;
1338.3000;0.0863;4.4968;
1338.6000;0.0822;4.4944;
1338.9000;0.0863;4.4968;
1339.2000;0.0830;4.4846;
1339.5000;0.0838;4.4919;
1339.8000;0.0871;4.4944;
1340.1000;0.0741;4.4553;
1340.4000;0.0838;4.4724;
1340.7000;0.0838;4.4724;
1341.0000;0.0822;4.4773;
1341.3000;0.0855;4.4944;
1341.6000;0.0822;4.4797;
1341.9000;0.0814;4.4822;
1342.2000;0.0798;4.4748;
1342.5000;0.0895;4.4968;
1342.8000;0.0830;4.4724;
1343.1000;0.0928;4.4968;
1343.4000;0.0855;4.4748;
1343.7000;0.0863;4.4846;
1344.0000;0.0838;4.4773;
1344.3000;0.0838;4.4675;
1344.6000;0.0855;4.4797;
1344.9000;0.0830;4.4870;
1345.2000;0.0863;4.4895;
1345.5000;0.0855;4.4919;
1345.8000;0.0798;4.4675;
1346.1000;0.0847;4.4797;
1346.4000;0.0855;4.4822;
1346.7000;0.0847;4.4846;
1347.0000;0.0838;4.4822;
1347.3000;0.0863;4.4870;
1347.6000;0.0863;4.4846;
1347.9000;0.0806;4.4699;
1348.2000;0.0855;4.4797;
1348.5000;0.0863;4.4895;
1348.8000;0.0863;4.4846;
1349.1000;0.0855;4.4944;
1349.4000;0.0847;4.4968;
1349.7000;0.0838;4.4993;
1350.0000;0.0847;4.5017;
1350.3000;0.0944;4.5262;
1350.6000;0.0830;4.5115;
1350.9000;0.0855;4.5115;
1351.2000;0.0847;4.5115;
1351.5000;0.0822;4.5066;
1351.8000;0.0838;4.5017;
1352.1000;0.0847;4.5091;
1352.4000;0.0855;4.5017;
1352.7000;0.0838;4.4968;
1353.0000;0.0838;4.4944;
1353.3000;0.0879;4.5066;
1353.6000;0.0822;4.4919;
1353.9000;0.0863;4.5066;
1354.2000;0.0863;4.5066;
1354.5000;0.0838;4.5042;
1354.8000;0.0871;4.5139;
1355.1000;0.0895;4.5139;
1355.4000;0.0863;4.4968;
1355.7000;0.0863;4.5017;
1356.0000;0.0912;4.5042;
1356.3000;0.0855;4.4846;
1356.6000;0.0822;4.4822;
1356.9000;0.0855;4.4944;
1357.2000;0.0920;4.5188;
1357.5000;0.0855;4.4993;
1357.8000;0.0830;4.4895;
1358.1000;0.0830;4.4895;
1358.4000;0.0855;4.5042;
1358.7000;0.0838;4.4919;
1359.0000;0.0806;4.4748;
1359.3000;0.0847;4.4944;
1359.6000;0.0863;4.4968;
1359.9000;0.0838;4.4895;
1360.2000;0.0838;4.4944;
1360.5000;0.0847;4.4919;
1360.8000;0.0863;4.4870;
1361.1000;0.0838;4.4895;
1361.4000;0.0847;4.4870;
1361.7000;0.0863;4.4870;
1362.0000;0.0863;4.4846;
1362.3000;0.0863;4.4846;
1362.6000;0.0847;4.4797;
1362.9000;0.0847;4.4846;
1363.2000;0.0863;4.4895;
1363.5000;0.0847;4.4822;
1363.8000;0.0806;4.4675;
1364.1000;0.0830;4.4846;
1364.4000;0.0871;4.4895;
1364.7000;0.0847;4.4822;
1365.0000;0.0863;4.4822;
1365.3000;0.0879;4.4944;
1365.6000;0.0863;4.4895;
1365.9000;0.0855;4.4944;
1366.2000;0.0855;4.4993;
1366.5000;0.0879;4.5115;
1366.8000;0.0830;4.5066;
1367.1000;0.0855;4.5115;
1367.4000;0.0871;4.5115;
1367.7000;0.0863;4.5042;
1368.0000;0.0855;4.5042;
1368.3000;0.0879;4.5115;
1368.6000;0.0855;4.5115;
1368.9000;0.0838;4.4993;
1369.2000;0.0716;4.4699;
1369.5000;0.0855;4.5066;
1369.8000;0.0871;4.5139;
1370.1000;0.0855;4.5091;
1370.4000;0.0838;4.5042;
1370.7000;0.0765;4.4944;
1371.0000;0.0879;4.5213;
1371.3000;0.0847;4.5115;
1371.6000;0.0830;4.4993;
1371.9000;0.0830;4.4968;
1372.2000;0.0871;4.5066;
1372.5000;0.0855;4.4993;
1372.8000;0.0863;4.4968;
1373.1000;0.0879;4.5139;
1373.4000;0.0855;4.4993;
1373.7000;0.0855;4.4919;
1374.0000;0.0895;4.5042;
1374.3000;0.0847;4.4919;
1374.6000;0.0838;4.4944;
1374.9000;0.0871;4.4895;
1375.2000;0.0830;4.4675;
1375.5000;0.0822;4.4626;
1375.8000;0.0863;4.4797;
1376.1000;0.0863;4.4773;
1376.4000;0.0863;4.4822;
1376.7000;0.0822;4.4724;
1377.0000;0.0830;4.4748;
1377.3000;0.0871;4.4919;
1377.6000;0.0855;4.4919;
1377.9000;0.0830;4.4919;
1378.2000;0.0871;4.5139;
1378.5000;0.0879;4.5164;
1378.8000;0.0863;4.5091;
1379.1000;0.0855;4.5017;
1379.4000;0.0847;4.4944;
1379.7000;0.0830;4.4846;
1380.0000;0.0879;4.4993;
1380.3000;0.0830;4.4968;
1380.6000;0.0830;4.5017;
1380.9000;0.0936;4.5311;
1381.2000;0.0895;4.5237;
1381.5000;0.0871;4.5164;
1381.8000;0.0871;4.5042;
1382.1000;0.0806;4.4919;
1382.4000;0.0855;4.5017;
1382.7000;0.0855;4.4968;
1383.0000;0.0847;4.4919;
1383.3000;0.0847;4.4748;
1383.6000;0.0887;4.4822;
1383.9000;0.0863;4.4724;
1384.2000;0.0847;4.4675;
1384.5000;0.0838;4.4699;
1384.8000;0.0871;4.4797;
1385.1000;0.0847;4.4797;
1385.4000;0.0847;4.4675;
1385.7000;0.0855;4.4699;
1386.0000;0.0822;4.4773;
1386.3000;0.0847;4.4870;
1386.6000;0.0838;4.4822;
1386.9000;0.0855;4.4870;
1387.2000;0.0879;4.4895;
1387.5000;0.0871;4.4797;
1387.8000;0.0871;4.4773;
1388.1000;0.0855;4.4822;
1388.4000;0.0847;4.4773;
1388.7000;0.0838;4.4675;
1389.0000;0.0798;4.4626;
1389.3000;0.0855;4.4724;
1389.6000;0.0838;4.4650;
1389.9000;0.0863;4.4773;
1390.2000;0.0830;4.4650;
1390.5000;0.0838;4.4724;
1390.8000;0.0855;4.4773;
1391.1000;0.0887;4.4870;
1391.4000;0.0879;4.4944;
1391.7000;0.0838;4.4822;
1392.0000;0.0847;4.4919;
1392.3000;0.0887;4.5017;
1392.6000;0.0879;4.5017;
1392.9000;0.0838;4.4895;
1393.2000;0.0871;4.4993;
1393.5000;0.0838;4.4822;
1393.8000;0.0847;4.4870;
1394.1000;0.0863;4.4944;
1394.4000;0.0855;4.4895;
1394.7000;0.0847;4.4895;
1395.0000;0.0863;4.4919;
1395.3000;0.0863;4.4870;
1395.6000;0.0847;4.4822;
1395.9000;0.0830;4.4748;
1396.2000;0.0855;4.4846;
1396.5000;0.0847;4.4870;
1396.8000;0.0871;4.4846;
1397.1000;0.0847;4.4699;
1397.4000;0.0855;4.4773;
1397.7000;0.0855;4.4748;
1398.0000;0.0847;4.4773;
1398.3000;0.0855;4.4822;
1398.6000;0.0863;4.4822;
1398.9000;0.0830;4.4748;
1399.2000;0.0871;4.4993;
1399.5000;0.0847;4.4944;
1399.8000;0.0863;4.4968;
