time/ms;Fluo/V;P700 deltaI/I x10³;
-199.8000;0.0887;4.4161;
-199.5000;0.0928;4.4186;
-199.2000;0.0879;4.4112;
-198.9000;0.0985;4.4357;
-198.6000;0.0879;4.4112;
-198.3000;0.0895;4.4137;
-198.0000;0.0936;4.4186;
-197.7000;0.0912;4.4088;
-197.4000;0.0879;4.3941;
-197.1000;0.0904;4.3990;
-196.8000;0.0912;4.4039;
-196.5000;0.0920;4.4112;
-196.2000;0.0904;4.4088;
-195.9000;0.0895;4.4015;
-195.6000;0.1001;4.4308;
-195.3000;0.0895;4.4064;
-195.0000;0.0912;4.4112;
-194.7000;0.0830;4.3892;
-194.4000;0.0952;4.4284;
-194.1000;0.0895;4.4088;
-193.8000;0.1050;4.4553;
-193.5000;0.0904;4.4161;
-193.2000;0.0887;4.4112;
-192.9000;0.0887;4.4112;
-192.6000;0.0887;4.4039;
-192.3000;0.0863;4.4137;
-192.0000;0.0887;4.4137;
-191.7000;0.0904;4.4137;
-191.4000;0.0920;4.4088;
-191.1000;0.0895;4.4015;
-190.8000;0.0912;4.3966;
-190.5000;0.0879;4.3990;
-190.2000;0.0904;4.4064;
-189.9000;0.0977;4.4259;
-189.6000;0.0887;4.3990;
-189.3000;0.0912;4.4088;
-189.0000;0.0904;4.4137;
-188.7000;0.0969;4.4381;
-188.4000;0.0912;4.4186;
-188.1000;0.0904;4.4161;
-187.8000;0.0912;4.4235;
-187.5000;0.0838;4.4039;
-187.2000;0.0912;4.4235;
-186.9000;0.0912;4.4161;
-186.6000;0.0904;4.4137;
-186.3000;0.0952;4.4259;
-186.0000;0.0904;4.4088;
-185.7000;0.0879;4.4039;
-185.4000;0.0904;4.4112;
-185.1000;0.0920;4.4161;
-184.8000;0.0912;4.4039;
-184.5000;0.0920;4.4064;
-184.2000;0.0879;4.3892;
-183.9000;0.0920;4.4039;
-183.6000;0.0944;4.4186;
-183.3000;0.0993;4.4308;
-183.0000;0.0912;4.3990;
-182.7000;0.0904;4.4039;
-182.4000;0.0920;4.4112;
-182.1000;0.0912;4.4088;
-181.8000;0.0895;4.4088;
-181.5000;0.0920;4.4137;
-181.2000;0.0895;4.3990;
-180.9000;0.0887;4.3990;
-180.6000;0.0887;4.4015;
-180.3000;0.0904;4.4064;
-180.0000;0.0895;4.4039;
-179.7000;0.0895;4.3990;
-179.4000;0.0855;4.3917;
-179.1000;0.0904;4.3990;
-178.8000;0.0912;4.4039;
-178.5000;0.0887;4.4064;
-178.2000;0.0895;4.3966;
-177.9000;0.0912;4.3941;
-177.6000;0.0912;4.3917;
-177.3000;0.0895;4.3868;
-177.0000;0.0887;4.3868;
-176.7000;0.0863;4.3843;
-176.4000;0.0895;4.3941;
-176.1000;0.0904;4.3917;
-175.8000;0.0765;4.3477;
-175.5000;0.0895;4.3795;
-175.2000;0.0887;4.3868;
-174.9000;0.0887;4.3843;
-174.6000;0.0904;4.3892;
-174.3000;0.0863;4.3795;
-174.0000;0.0904;4.3990;
-173.7000;0.0912;4.3941;
-173.4000;0.0928;4.4039;
-173.1000;0.0912;4.3966;
-172.8000;0.0904;4.4039;
-172.5000;0.0904;4.3966;
-172.2000;0.0847;4.3721;
-171.9000;0.0895;4.3966;
-171.6000;0.0904;4.4039;
-171.3000;0.0985;4.4333;
-171.0000;0.0887;4.4039;
-170.7000;0.0904;4.4137;
-170.4000;0.0912;4.4161;
-170.1000;0.0895;4.4161;
-169.8000;0.0920;4.4308;
-169.5000;0.0871;4.4210;
-169.2000;0.0912;4.4186;
-168.9000;0.0895;4.4088;
-168.6000;0.0895;4.4015;
-168.3000;0.0895;4.4064;
-168.0000;0.0895;4.4039;
-167.7000;0.0904;4.4112;
-167.4000;0.0912;4.4210;
-167.1000;0.0912;4.4137;
-166.8000;0.0855;4.3917;
-166.5000;0.0871;4.4015;
-166.2000;0.0912;4.4039;
-165.9000;0.0944;4.4137;
-165.6000;0.0887;4.4039;
-165.3000;0.0895;4.4015;
-165.0000;0.0879;4.3941;
-164.7000;0.0912;4.4039;
-164.4000;0.0904;4.4039;
-164.1000;0.0887;4.3941;
-163.8000;0.0912;4.3941;
-163.5000;0.0912;4.3917;
-163.2000;0.0928;4.3843;
-162.9000;0.0895;4.3892;
-162.6000;0.0912;4.3917;
-162.3000;0.0904;4.3941;
-162.0000;0.0887;4.3941;
-161.7000;0.0847;4.3868;
-161.4000;0.0879;4.4015;
-161.1000;0.0887;4.4088;
-160.8000;0.0920;4.4186;
-160.5000;0.0895;4.4112;
-160.2000;0.0912;4.4186;
-159.9000;0.0895;4.4161;
-159.6000;0.0847;4.3990;
-159.3000;0.0928;4.4137;
-159.0000;0.0814;4.3990;
-158.7000;0.0993;4.4406;
-158.4000;0.0920;4.4137;
-158.1000;0.0993;4.4357;
-157.8000;0.0895;4.4015;
-157.5000;0.0904;4.4137;
-157.2000;0.1009;4.4381;
-156.9000;0.0895;4.3966;
-156.6000;0.0993;4.4137;
-156.3000;0.0895;4.3917;
-156.0000;0.0944;4.4088;
-155.7000;0.0912;4.3966;
-155.4000;0.0904;4.3941;
-155.1000;0.0895;4.3843;
-154.8000;0.0912;4.3819;
-154.5000;0.0887;4.3868;
-154.2000;0.0855;4.3819;
-153.9000;0.0904;4.3892;
-153.6000;0.0928;4.3917;
-153.3000;0.0838;4.3721;
-153.0000;0.0904;4.3843;
-152.7000;0.0879;4.3746;
-152.4000;0.0879;4.3746;
-152.1000;0.0912;4.3770;
-151.8000;0.0895;4.3721;
-151.5000;0.0920;4.3819;
-151.2000;0.0887;4.3721;
-150.9000;0.0887;4.3672;
-150.6000;0.0879;4.3770;
-150.3000;0.0879;4.3843;
-150.0000;0.0895;4.3941;
-149.7000;0.0887;4.3990;
-149.4000;0.0863;4.4064;
-149.1000;0.0863;4.4161;
-148.8000;0.0904;4.4357;
-148.5000;0.0895;4.4284;
-148.2000;0.0895;4.4284;
-147.9000;0.0895;4.4259;
-147.6000;0.0904;4.4235;
-147.3000;0.0912;4.4235;
-147.0000;0.0904;4.4235;
-146.7000;0.0904;4.4186;
-146.4000;0.0887;4.4112;
-146.1000;0.0895;4.4161;
-145.8000;0.0985;4.4455;
-145.5000;0.0895;4.4161;
-145.2000;0.0887;4.4112;
-144.9000;0.0920;4.4186;
-144.6000;0.0904;4.4064;
-144.3000;0.0887;4.3990;
-144.0000;0.0904;4.4015;
-143.7000;0.0895;4.4064;
-143.4000;0.0855;4.4039;
-143.1000;0.0912;4.4186;
-142.8000;0.0928;4.4333;
-142.5000;0.0895;4.4284;
-142.2000;0.0855;4.4161;
-141.9000;0.0928;4.4308;
-141.6000;0.0863;4.4210;
-141.3000;0.0985;4.4479;
-141.0000;0.0904;4.4259;
-140.7000;0.0920;4.4259;
-140.4000;0.0920;4.4210;
-140.1000;0.0912;4.4284;
-139.8000;0.0969;4.4308;
-139.5000;0.0895;4.4161;
-139.2000;0.0912;4.4210;
-138.9000;0.0961;4.4406;
-138.6000;0.0798;4.4064;
-138.3000;0.0887;4.4259;
-138.0000;0.0904;4.4284;
-137.7000;0.0952;4.4381;
-137.4000;0.0895;4.4161;
-137.1000;0.0855;4.4088;
-136.8000;0.0904;4.4112;
-136.5000;0.0920;4.4210;
-136.2000;0.0912;4.4259;
-135.9000;0.0887;4.4161;
-135.6000;0.0847;4.4088;
-135.3000;0.0936;4.4308;
-135.0000;0.0944;4.4381;
-134.7000;0.0944;4.4357;
-134.4000;0.0822;4.4039;
-134.1000;0.0855;4.4064;
-133.8000;0.0887;4.4210;
-133.5000;0.1009;4.4479;
-133.2000;0.0977;4.4455;
-132.9000;0.0895;4.4259;
-132.6000;0.0895;4.4259;
-132.3000;0.0904;4.4186;
-132.0000;0.0928;4.4308;
-131.7000;0.0920;4.4259;
-131.4000;0.0928;4.4284;
-131.1000;0.0904;4.4161;
-130.8000;0.0920;4.4137;
-130.5000;0.0895;4.4064;
-130.2000;0.0912;4.4088;
-129.9000;0.0895;4.4137;
-129.6000;0.0904;4.4210;
-129.3000;0.0912;4.4284;
-129.0000;0.0928;4.4259;
-128.7000;0.0879;4.4112;
-128.4000;0.0879;4.4015;
-128.1000;0.0912;4.4039;
-127.8000;0.0904;4.4039;
-127.5000;0.0904;4.4088;
-127.2000;0.0920;4.4161;
-126.9000;0.0879;4.4039;
-126.6000;0.0887;4.4015;
-126.3000;0.0895;4.4088;
-126.0000;0.0920;4.4112;
-125.7000;0.0855;4.3990;
-125.4000;0.0912;4.4088;
-125.1000;0.0879;4.4088;
-124.8000;0.0977;4.4357;
-124.5000;0.0912;4.4112;
-124.2000;0.0904;4.4088;
-123.9000;0.0912;4.4064;
-123.6000;0.0863;4.4015;
-123.3000;0.0912;4.4186;
-123.0000;0.0895;4.4137;
-122.7000;0.0912;4.4112;
-122.4000;0.0895;4.4137;
-122.1000;0.0912;4.4161;
-121.8000;0.0895;4.4161;
-121.5000;0.0936;4.4210;
-121.2000;0.0904;4.4186;
-120.9000;0.0863;4.3941;
-120.6000;0.0920;4.4064;
-120.3000;0.0895;4.4039;
-120.0000;0.0847;4.4015;
-119.7000;0.0936;4.4308;
-119.4000;0.0920;4.4210;
-119.1000;0.0944;4.4308;
-118.8000;0.0912;4.4381;
-118.5000;0.0920;4.4333;
-118.2000;0.0904;4.4235;
-117.9000;0.0928;4.4284;
-117.6000;0.0936;4.4455;
-117.3000;0.0928;4.4455;
-117.0000;0.0904;4.4455;
-116.7000;0.0904;4.4504;
-116.4000;0.0912;4.4406;
-116.1000;0.0871;4.4210;
-115.8000;0.0895;4.4284;
-115.5000;0.0871;4.4186;
-115.2000;0.0887;4.4235;
-114.9000;0.0912;4.4308;
-114.6000;0.0920;4.4308;
-114.3000;0.0920;4.4259;
-114.0000;0.0912;4.4308;
-113.7000;0.0928;4.4333;
-113.4000;0.0928;4.4308;
-113.1000;0.0895;4.4186;
-112.8000;0.0952;4.4308;
-112.5000;0.0871;4.4064;
-112.2000;0.0895;4.4112;
-111.9000;0.0879;4.4137;
-111.6000;0.0904;4.4210;
-111.3000;0.0920;4.4284;
-111.0000;0.0847;4.4161;
-110.7000;0.0928;4.4381;
-110.4000;0.0904;4.4308;
-110.1000;0.0887;4.4235;
-109.8000;0.0879;4.4259;
-109.5000;0.0855;4.4161;
-109.2000;0.0895;4.4161;
-108.9000;0.0920;4.4210;
-108.6000;0.0904;4.4137;
-108.3000;0.0904;4.4137;
-108.0000;0.0920;4.4259;
-107.7000;0.0887;4.4235;
-107.4000;0.0887;4.4259;
-107.1000;0.0904;4.4308;
-106.8000;0.0928;4.4357;
-106.5000;0.0871;4.4161;
-106.2000;0.0895;4.4235;
-105.9000;0.0904;4.4235;
-105.6000;0.0895;4.4259;
-105.3000;0.0912;4.4235;
-105.0000;0.0887;4.4284;
-104.7000;0.0887;4.4112;
-104.4000;0.0895;4.3990;
-104.1000;0.0887;4.4039;
-103.8000;0.0879;4.4088;
-103.5000;0.0863;4.4015;
-103.2000;0.0904;4.4112;
-102.9000;0.0895;4.4112;
-102.6000;0.0920;4.4137;
-102.3000;0.0887;4.4112;
-102.0000;0.0887;4.4112;
-101.7000;0.0879;4.4112;
-101.4000;0.0895;4.4161;
-101.1000;0.0944;4.4235;
-100.8000;0.0879;4.4039;
-100.5000;0.0887;4.4137;
-100.2000;0.0871;4.4137;
-99.9000;0.0806;4.3892;
-99.6000;0.0961;4.4308;
-99.3000;0.0912;4.4210;
-99.0000;0.0920;4.4259;
-98.7000;0.0887;4.4112;
-98.4000;0.0855;4.4112;
-98.1000;0.0838;4.4039;
-97.8000;0.0912;4.4284;
-97.5000;0.0920;4.4210;
-97.2000;0.0904;4.4161;
-96.9000;0.0920;4.4039;
-96.6000;0.0904;4.4064;
-96.3000;0.0879;4.4064;
-96.0000;0.0928;4.4210;
-95.7000;0.0904;4.4137;
-95.4000;0.0895;4.4039;
-95.1000;0.0895;4.4039;
-94.8000;0.0887;4.4064;
-94.5000;0.0895;4.4137;
-94.2000;0.0838;4.4039;
-93.9000;0.0912;4.4186;
-93.6000;0.0936;4.4284;
-93.3000;0.0871;4.4161;
-93.0000;0.0904;4.4235;
-92.7000;0.0895;4.4161;
-92.4000;0.0871;4.4064;
-92.1000;0.0912;4.4161;
-91.8000;0.0863;4.3966;
-91.5000;0.0961;4.4381;
-91.2000;0.0895;4.4259;
-90.9000;0.0912;4.4284;
-90.6000;0.0969;4.4553;
-90.3000;0.0806;4.4210;
-90.0000;0.0904;4.4406;
-89.7000;0.0912;4.4406;
-89.4000;0.0887;4.4235;
-89.1000;0.0904;4.4186;
-88.8000;0.0904;4.4210;
-88.5000;0.0895;4.4161;
-88.2000;0.0904;4.4235;
-87.9000;0.0895;4.4161;
-87.6000;0.0879;4.4088;
-87.3000;0.0904;4.4210;
-87.0000;0.0887;4.4112;
-86.7000;0.0993;4.4333;
-86.4000;0.0871;4.3966;
-86.1000;0.0887;4.4015;
-85.8000;0.0871;4.4064;
-85.5000;0.0879;4.4039;
-85.2000;0.0887;4.4039;
-84.9000;0.0904;4.4088;
-84.6000;0.0887;4.4064;
-84.3000;0.0904;4.4186;
-84.0000;0.0887;4.4137;
-83.7000;0.0863;4.4186;
-83.4000;0.0920;4.4235;
-83.1000;0.0855;4.4088;
-82.8000;0.0912;4.4259;
-82.5000;0.0887;4.4259;
-82.2000;0.0863;4.4039;
-81.9000;0.0928;4.4333;
-81.6000;0.0879;4.4235;
-81.3000;0.0871;4.4235;
-81.0000;0.0912;4.4259;
-80.7000;0.0895;4.4259;
-80.4000;0.0838;4.4039;
-80.1000;0.0912;4.4161;
-79.8000;0.0936;4.4259;
-79.5000;0.0928;4.4259;
-79.2000;0.0904;4.4210;
-78.9000;0.0863;4.4137;
-78.6000;0.0887;4.4186;
-78.3000;0.0879;4.4235;
-78.0000;0.0895;4.4210;
-77.7000;0.0895;4.4210;
-77.4000;0.0887;4.4284;
-77.1000;0.0904;4.4259;
-76.8000;0.0912;4.4333;
-76.5000;0.0920;4.4381;
-76.2000;0.0985;4.4553;
-75.9000;0.0887;4.4284;
-75.6000;0.0920;4.4430;
-75.3000;0.0912;4.4381;
-75.0000;0.0904;4.4259;
-74.7000;0.0879;4.4161;
-74.4000;0.0969;4.4381;
-74.1000;0.0961;4.4430;
-73.8000;0.0871;4.4210;
-73.5000;0.0920;4.4259;
-73.2000;0.0887;4.4308;
-72.9000;0.0904;4.4381;
-72.6000;0.0847;4.4259;
-72.3000;0.0904;4.4406;
-72.0000;0.0904;4.4406;
-71.7000;0.0895;4.4504;
-71.4000;0.0895;4.4406;
-71.1000;0.0920;4.4430;
-70.8000;0.0798;4.4137;
-70.5000;0.0961;4.4650;
-70.2000;0.0895;4.4430;
-69.9000;0.0904;4.4479;
-69.6000;0.0887;4.4406;
-69.3000;0.0895;4.4430;
-69.0000;0.0879;4.4381;
-68.7000;0.0904;4.4333;
-68.4000;0.0879;4.4308;
-68.1000;0.0887;4.4284;
-67.8000;0.0904;4.4308;
-67.5000;0.0830;4.4137;
-67.2000;0.0904;4.4284;
-66.9000;0.0904;4.4333;
-66.6000;0.0912;4.4259;
-66.3000;0.0887;4.4186;
-66.0000;0.0887;4.4161;
-65.7000;0.0904;4.4235;
-65.4000;0.0895;4.4186;
-65.1000;0.0871;4.4137;
-64.8000;0.0895;4.4235;
-64.5000;0.0912;4.4259;
-64.2000;0.0887;4.4186;
-63.9000;0.0879;4.4259;
-63.6000;0.0904;4.4284;
-63.3000;0.0879;4.4186;
-63.0000;0.0904;4.4259;
-62.7000;0.0912;4.4284;
-62.4000;0.0912;4.4210;
-62.1000;0.0920;4.4284;
-61.8000;0.0912;4.4186;
-61.5000;0.0912;4.4235;
-61.2000;0.0904;4.4161;
-60.9000;0.0904;4.4210;
-60.6000;0.0936;4.4259;
-60.3000;0.0887;4.4064;
-60.0000;0.0912;4.4064;
-59.7000;0.0871;4.4064;
-59.4000;0.0928;4.4235;
-59.1000;0.0904;4.4235;
-58.8000;0.0912;4.4333;
-58.5000;0.0920;4.4284;
-58.2000;0.0944;4.4333;
-57.9000;0.0904;4.4235;
-57.6000;0.0904;4.4186;
-57.3000;0.0895;4.4235;
-57.0000;0.0920;4.4357;
-56.7000;0.0879;4.4210;
-56.4000;0.0904;4.4210;
-56.1000;0.0993;4.4479;
-55.8000;0.0895;4.4210;
-55.5000;0.0928;4.4308;
-55.2000;0.0887;4.4186;
-54.9000;0.0887;4.4161;
-54.6000;0.0920;4.4259;
-54.3000;0.0887;4.4259;
-54.0000;0.0904;4.4308;
-53.7000;0.0895;4.4284;
-53.4000;0.0904;4.4333;
-53.1000;0.0928;4.4333;
-52.8000;0.0936;4.4357;
-52.5000;0.0920;4.4333;
-52.2000;0.0904;4.4308;
-51.9000;0.0887;4.4381;
-51.6000;0.0920;4.4381;
-51.3000;0.0904;4.4333;
-51.0000;0.0895;4.4284;
-50.7000;0.0920;4.4357;
-50.4000;0.0912;4.4308;
-50.1000;0.0887;4.4357;
-49.8000;0.0887;4.4284;
-49.5000;0.0838;4.4186;
-49.2000;0.0765;4.4015;
-48.9000;0.0920;4.4308;
-48.6000;0.0928;4.4406;
-48.3000;0.0985;4.4577;
-48.0000;0.0904;4.4381;
-47.7000;0.0904;4.4455;
-47.4000;0.0871;4.4235;
-47.1000;0.0912;4.4284;
-46.8000;0.1026;4.4626;
-46.5000;0.0904;4.4333;
-46.2000;0.0912;4.4406;
-45.9000;0.0912;4.4430;
-45.6000;0.1001;4.4748;
-45.3000;0.0944;4.4553;
-45.0000;0.0895;4.4430;
-44.7000;0.0912;4.4528;
-44.4000;0.0920;4.4553;
-44.1000;0.0904;4.4455;
-43.8000;0.0806;4.4210;
-43.5000;0.0969;4.4650;
-43.2000;0.0895;4.4357;
-42.9000;0.0928;4.4430;
-42.6000;0.0928;4.4479;
-42.3000;0.0895;4.4479;
-42.0000;0.0904;4.4504;
-41.7000;0.0879;4.4430;
-41.4000;0.0920;4.4430;
-41.1000;0.0912;4.4430;
-40.8000;0.0887;4.4406;
-40.5000;0.0879;4.4333;
-40.2000;0.0904;4.4430;
-39.9000;0.0887;4.4479;
-39.6000;0.0928;4.4528;
-39.3000;0.0895;4.4479;
-39.0000;0.0904;4.4479;
-38.7000;0.0912;4.4406;
-38.4000;0.0904;4.4381;
-38.1000;0.0887;4.4357;
-37.8000;0.0895;4.4406;
-37.5000;0.0920;4.4455;
-37.2000;0.0912;4.4430;
-36.9000;0.0920;4.4406;
-36.6000;0.0920;4.4430;
-36.3000;0.0904;4.4504;
-36.0000;0.0887;4.4406;
-35.7000;0.0871;4.4259;
-35.4000;0.0904;4.4357;
-35.1000;0.0944;4.4553;
-34.8000;0.0871;4.4333;
-34.5000;0.0855;4.4259;
-34.2000;0.0863;4.4259;
-33.9000;0.0912;4.4333;
-33.6000;0.0912;4.4333;
-33.3000;0.0879;4.4259;
-33.0000;0.0904;4.4333;
-32.7000;0.0838;4.4039;
-32.4000;0.0830;4.4039;
-32.1000;0.0887;4.4186;
-31.8000;0.0904;4.4235;
-31.5000;0.0920;4.4381;
-31.2000;0.0871;4.4210;
-30.9000;0.0895;4.4357;
-30.6000;0.0887;4.4381;
-30.3000;0.0895;4.4357;
-30.0000;0.0895;4.4308;
-29.7000;0.0904;4.4186;
-29.4000;0.0904;4.4161;
-29.1000;0.0912;4.4186;
-28.8000;0.0904;4.4210;
-28.5000;0.0912;4.4235;
-28.2000;0.0887;4.4161;
-27.9000;0.0904;4.4235;
-27.6000;0.0887;4.4235;
-27.3000;0.0895;4.4210;
-27.0000;0.0904;4.4161;
-26.7000;0.0879;4.4064;
-26.4000;0.0928;4.4259;
-26.1000;0.0781;4.3941;
-25.8000;0.0887;4.4259;
-25.5000;0.0928;4.4333;
-25.2000;0.0993;4.4601;
-24.9000;0.0863;4.4210;
-24.6000;0.0773;4.3917;
-24.3000;0.0887;4.4186;
-24.0000;0.0904;4.4186;
-23.7000;0.0871;4.4088;
-23.4000;0.0887;4.4210;
-23.1000;0.0887;4.4235;
-22.8000;0.0838;4.4039;
-22.5000;0.0952;4.4381;
-22.2000;0.0887;4.4284;
-21.9000;0.0920;4.4284;
-21.6000;0.0847;4.4015;
-21.3000;0.0944;4.4186;
-21.0000;0.0912;4.4161;
-20.7000;0.0879;4.4161;
-20.4000;0.0838;4.3966;
-20.1000;0.0830;4.3941;
-19.8000;0.0928;4.4259;
-19.5000;0.0969;4.4455;
-19.2000;0.0871;4.4308;
-18.9000;0.0920;4.4479;
-18.6000;0.0920;4.4333;
-18.3000;0.0871;4.4161;
-18.0000;0.0936;4.4333;
-17.7000;0.0912;4.4284;
-17.4000;0.0912;4.4308;
-17.1000;0.0912;4.4333;
-16.8000;0.0904;4.4357;
-16.5000;0.0904;4.4284;
-16.2000;0.0904;4.4284;
-15.9000;0.0895;4.4284;
-15.6000;0.0863;4.4161;
-15.3000;0.0904;4.4161;
-15.0000;0.0928;4.4137;
-14.7000;0.0904;4.4112;
-14.4000;0.0879;4.4039;
-14.1000;0.0879;4.4088;
-13.8000;0.0928;4.4235;
-13.5000;0.0928;4.4137;
-13.2000;0.0895;4.3990;
-12.9000;0.0887;4.4088;
-12.6000;0.0871;4.4112;
-12.3000;0.0944;4.4259;
-12.0000;0.0904;4.4137;
-11.7000;0.0912;4.4161;
-11.4000;0.0895;4.4186;
-11.1000;0.0904;4.4259;
-10.8000;0.0904;4.4259;
-10.5000;0.0904;4.4333;
-10.2000;0.0830;4.4161;
-9.9000;0.0904;4.4210;
-9.6000;0.0887;4.4088;
-9.3000;0.0887;4.4064;
-9.0000;0.0895;4.4186;
-8.7000;0.0969;4.4357;
-8.4000;0.0887;4.4088;
-8.1000;0.0830;4.3941;
-7.8000;0.0879;4.4015;
-7.5000;0.0879;4.4039;
-7.2000;0.0912;4.4210;
-6.9000;0.0904;4.4259;
-6.6000;0.0952;4.4430;
-6.3000;0.0936;4.4381;
-6.0000;0.0895;4.4284;
-5.7000;0.0879;4.4210;
-5.4000;0.0895;4.4161;
-5.1000;0.0928;4.4235;
-4.8000;0.0920;4.4137;
-4.5000;0.0912;4.4064;
-4.2000;0.0920;4.4064;
-3.9000;0.0912;4.4112;
-3.6000;0.0920;4.4112;
-3.3000;0.0969;4.4235;
-3.0000;0.0920;4.4161;
-2.7000;0.0904;4.4161;
-2.4000;0.0814;4.3892;
-2.1000;0.0879;4.4137;
-1.8000;0.0904;4.4112;
-1.5000;0.0920;4.4088;
-1.2000;0.0879;4.3990;
-0.9000;0.0871;4.4015;
-0.6000;0.0838;4.3990;
-0.3000;0.0708;4.3648;
0.0000;0.0708;4.3648;
0.3000;0.0904;4.3892;
0.6000;0.0944;4.4088;
0.9000;0.0936;4.4161;
1.2000;0.0944;4.4259;
1.5000;0.0944;4.4333;
1.8000;0.1018;4.4650;
2.1000;0.0993;4.4675;
2.4000;0.1026;4.4846;
2.7000;0.0936;4.4724;
3.0000;0.1083;4.5262;
3.3000;0.1009;4.5139;
3.6000;0.0985;4.5091;
3.9000;0.0936;4.5139;
4.2000;0.1034;4.5408;
4.5000;0.0969;4.5188;
4.8000;0.1009;4.5311;
5.1000;0.1026;4.5335;
5.4000;0.1018;4.5408;
5.7000;0.1034;4.5482;
6.0000;0.0985;4.5262;
6.3000;0.1042;4.5360;
6.6000;0.1066;4.5311;
6.9000;0.1026;4.5188;
7.2000;0.1026;4.5262;
7.5000;0.1026;4.5237;
7.8000;0.1026;4.5139;
8.1000;0.1042;4.5139;
8.4000;0.1018;4.5139;
8.7000;0.1001;4.5066;
9.0000;0.1042;4.5139;
9.3000;0.1042;4.5213;
9.6000;0.1091;4.5335;
9.9000;0.1034;4.5091;
10.2000;0.1123;4.5457;
10.5000;0.1083;4.5335;
10.8000;0.0969;4.5139;
11.1000;0.1026;4.5286;
11.4000;0.1050;4.5360;
11.7000;0.1050;4.5311;
12.0000;0.1034;4.5335;
12.3000;0.1074;4.5457;
12.6000;0.1018;4.5335;
12.9000;0.1107;4.5482;
13.2000;0.1058;4.5335;
13.5000;0.1058;4.5311;
13.8000;0.1131;4.5482;
14.1000;0.1018;4.5213;
14.4000;0.1034;4.5262;
14.7000;0.1050;4.5286;
15.0000;0.1050;4.5237;
15.3000;0.1180;4.5677;
15.6000;0.1050;4.5335;
15.9000;0.1066;4.5384;
16.2000;0.1148;4.5604;
16.5000;0.1074;4.5408;
16.8000;0.1042;4.5457;
17.1000;0.1058;4.5604;
17.4000;0.1050;4.5628;
17.7000;0.1042;4.5457;
18.0000;0.1066;4.5457;
18.3000;0.1066;4.5457;
18.6000;0.1131;4.5702;
18.9000;0.1042;4.5433;
19.2000;0.1066;4.5531;
19.5000;0.1018;4.5311;
19.8000;0.1091;4.5531;
20.1000;0.1058;4.5506;
20.4000;0.1107;4.5604;
20.7000;0.1074;4.5555;
21.0000;0.1066;4.5580;
21.3000;0.1050;4.5506;
21.6000;0.1058;4.5457;
21.9000;0.1148;4.5726;
22.2000;0.1058;4.5482;
22.5000;0.1058;4.5531;
22.8000;0.1034;4.5408;
23.1000;0.1034;4.5408;
23.4000;0.1115;4.5531;
23.7000;0.1058;4.5531;
24.0000;0.1058;4.5531;
24.3000;0.1050;4.5555;
24.6000;0.1042;4.5506;
24.9000;0.1074;4.5628;
25.2000;0.1050;4.5628;
25.5000;0.1050;4.5653;
25.8000;0.1050;4.5604;
26.1000;0.1034;4.5408;
26.4000;0.1034;4.5482;
26.7000;0.0977;4.5384;
27.0000;0.1066;4.5653;
27.3000;0.1042;4.5580;
27.6000;0.1083;4.5580;
27.9000;0.1058;4.5531;
28.2000;0.1066;4.5531;
28.5000;0.1050;4.5433;
28.8000;0.1091;4.5531;
29.1000;0.1058;4.5457;
29.4000;0.1042;4.5482;
29.7000;0.1131;4.5726;
30.0000;0.1058;4.5433;
30.3000;0.1018;4.5360;
30.6000;0.1058;4.5482;
30.9000;0.1050;4.5360;
31.2000;0.1058;4.5311;
31.5000;0.1066;4.5335;
31.8000;0.1058;4.5335;
32.1000;0.1066;4.5360;
32.4000;0.1066;4.5408;
32.7000;0.1050;4.5360;
33.0000;0.1018;4.5311;
33.3000;0.1050;4.5433;
33.6000;0.1083;4.5555;
33.9000;0.1066;4.5384;
34.2000;0.1107;4.5433;
34.5000;0.1083;4.5360;
34.8000;0.1156;4.5482;
35.1000;0.1058;4.5311;
35.4000;0.1026;4.5188;
35.7000;0.1074;4.5384;
36.0000;0.1050;4.5384;
36.3000;0.1034;4.5286;
36.6000;0.1099;4.5506;
36.9000;0.1058;4.5408;
37.2000;0.1066;4.5311;
37.5000;0.1058;4.5335;
37.8000;0.1083;4.5360;
38.1000;0.1058;4.5384;
38.4000;0.1074;4.5384;
38.7000;0.1083;4.5360;
39.0000;0.1058;4.5262;
39.3000;0.1066;4.5164;
39.6000;0.1058;4.5164;
39.9000;0.1026;4.5213;
40.2000;0.1066;4.5360;
40.5000;0.1083;4.5531;
40.8000;0.1066;4.5482;
41.1000;0.1066;4.5433;
41.4000;0.1066;4.5433;
41.7000;0.1050;4.5457;
42.0000;0.1058;4.5408;
42.3000;0.1074;4.5335;
42.6000;0.1074;4.5335;
42.9000;0.1066;4.5335;
43.2000;0.1034;4.5311;
43.5000;0.1050;4.5311;
43.8000;0.1050;4.5286;
44.1000;0.1026;4.5360;
44.4000;0.1066;4.5360;
44.7000;0.1050;4.5311;
45.0000;0.1026;4.5262;
45.3000;0.1091;4.5482;
45.6000;0.1074;4.5408;
45.9000;0.1066;4.5335;
46.2000;0.1083;4.5384;
46.5000;0.1066;4.5384;
46.8000;0.1050;4.5262;
47.1000;0.1066;4.5262;
47.4000;0.1026;4.5262;
47.7000;0.1099;4.5360;
48.0000;0.1074;4.5286;
48.3000;0.1107;4.5384;
48.6000;0.1074;4.5384;
48.9000;0.1066;4.5311;
49.2000;0.1009;4.5213;
49.5000;0.1026;4.5286;
49.8000;0.1058;4.5360;
50.1000;0.1066;4.5433;
50.4000;0.1058;4.5506;
50.7000;0.1083;4.5555;
51.0000;0.1066;4.5531;
51.3000;0.1091;4.5604;
51.6000;0.1050;4.5482;
51.9000;0.1074;4.5482;
52.2000;0.1058;4.5360;
52.5000;0.1091;4.5384;
52.8000;0.1058;4.5311;
53.1000;0.1066;4.5311;
53.4000;0.1042;4.5237;
53.7000;0.1074;4.5360;
54.0000;0.1042;4.5311;
54.3000;0.1066;4.5286;
54.6000;0.1083;4.5408;
54.9000;0.1058;4.5360;
55.2000;0.1066;4.5408;
55.5000;0.1156;4.5555;
55.8000;0.1050;4.5335;
56.1000;0.1058;4.5262;
56.4000;0.1050;4.5286;
56.7000;0.1083;4.5433;
57.0000;0.1066;4.5384;
57.3000;0.1083;4.5433;
57.6000;0.1083;4.5433;
57.9000;0.1066;4.5433;
58.2000;0.1042;4.5286;
58.5000;0.1091;4.5311;
58.8000;0.1018;4.5188;
59.1000;0.1050;4.5237;
59.4000;0.1083;4.5360;
59.7000;0.1066;4.5384;
60.0000;0.1115;4.5457;
60.3000;0.1083;4.5360;
60.6000;0.1058;4.5286;
60.9000;0.1074;4.5262;
61.2000;0.1083;4.5360;
61.5000;0.1115;4.5335;
61.8000;0.1066;4.5286;
62.1000;0.1058;4.5286;
62.4000;0.1099;4.5360;
62.7000;0.1083;4.5360;
63.0000;0.1083;4.5408;
63.3000;0.1091;4.5384;
63.6000;0.1197;4.5628;
63.9000;0.1083;4.5384;
64.2000;0.1074;4.5360;
64.5000;0.1009;4.5139;
64.8000;0.1066;4.5360;
65.1000;0.1058;4.5286;
65.4000;0.1091;4.5335;
65.7000;0.1066;4.5360;
66.0000;0.1091;4.5384;
66.3000;0.1066;4.5360;
66.6000;0.1042;4.5237;
66.9000;0.1074;4.5408;
67.2000;0.1083;4.5457;
67.5000;0.1058;4.5457;
67.8000;0.1042;4.5286;
68.1000;0.1042;4.5188;
68.4000;0.1058;4.5188;
68.7000;0.1074;4.5237;
69.0000;0.0952;4.4870;
69.3000;0.1026;4.5091;
69.6000;0.1034;4.5164;
69.9000;0.1058;4.5335;
70.2000;0.1083;4.5384;
70.5000;0.1074;4.5262;
70.8000;0.1083;4.5286;
71.1000;0.1131;4.5433;
71.4000;0.1115;4.5408;
71.7000;0.1050;4.5164;
72.0000;0.1058;4.5188;
72.3000;0.1018;4.5139;
72.6000;0.1066;4.5262;
72.9000;0.1091;4.5408;
73.2000;0.1115;4.5506;
73.5000;0.0993;4.5262;
73.8000;0.1066;4.5433;
74.1000;0.1091;4.5457;
74.4000;0.1164;4.5677;
74.7000;0.1042;4.5311;
75.0000;0.1074;4.5408;
75.3000;0.1074;4.5457;
75.6000;0.1066;4.5360;
75.9000;0.1066;4.5286;
76.2000;0.1066;4.5360;
76.5000;0.1091;4.5482;
76.8000;0.1083;4.5531;
77.1000;0.1034;4.5408;
77.4000;0.1091;4.5580;
77.7000;0.1074;4.5531;
78.0000;0.1083;4.5604;
78.3000;0.1074;4.5580;
78.6000;0.1058;4.5531;
78.9000;0.1083;4.5555;
79.2000;0.1107;4.5604;
79.5000;0.1066;4.5457;
79.8000;0.1066;4.5457;
80.1000;0.1074;4.5531;
80.4000;0.1091;4.5580;
80.7000;0.1034;4.5408;
81.0000;0.1050;4.5433;
81.3000;0.1091;4.5555;
81.6000;0.1107;4.5482;
81.9000;0.1131;4.5604;
82.2000;0.1083;4.5531;
82.5000;0.1042;4.5408;
82.8000;0.1083;4.5555;
83.1000;0.1091;4.5604;
83.4000;0.0969;4.5237;
83.7000;0.1050;4.5457;
84.0000;0.1042;4.5457;
84.3000;0.1083;4.5360;
84.6000;0.1131;4.5506;
84.9000;0.1050;4.5213;
85.2000;0.1066;4.5262;
85.5000;0.1074;4.5262;
85.8000;0.1091;4.5360;
86.1000;0.0969;4.5017;
86.4000;0.1083;4.5408;
86.7000;0.1083;4.5335;
87.0000;0.1058;4.5237;
87.3000;0.1034;4.5164;
87.6000;0.1091;4.5311;
87.9000;0.1107;4.5360;
88.2000;0.1083;4.5335;
88.5000;0.1115;4.5360;
88.8000;0.1091;4.5360;
89.1000;0.1074;4.5360;
89.4000;0.1180;4.5604;
89.7000;0.1107;4.5311;
90.0000;0.1083;4.5237;
90.3000;0.1058;4.5213;
90.6000;0.1107;4.5384;
90.9000;0.1009;4.5139;
91.2000;0.1074;4.5311;
91.5000;0.1074;4.5360;
91.8000;0.1131;4.5506;
92.1000;0.1009;4.5188;
92.4000;0.1050;4.5408;
92.7000;0.1058;4.5482;
93.0000;0.1140;4.5702;
93.3000;0.1099;4.5628;
93.6000;0.1083;4.5506;
93.9000;0.1050;4.5335;
94.2000;0.1107;4.5384;
94.5000;0.1058;4.5335;
94.8000;0.1058;4.5335;
95.1000;0.1066;4.5408;
95.4000;0.1066;4.5335;
95.7000;0.1099;4.5384;
96.0000;0.1074;4.5262;
96.3000;0.1074;4.5286;
96.6000;0.1074;4.5286;
96.9000;0.1066;4.5311;
97.2000;0.1009;4.5017;
97.5000;0.1083;4.5188;
97.8000;0.1058;4.5164;
98.1000;0.1083;4.5164;
98.4000;0.1123;4.5139;
98.7000;0.1066;4.5042;
99.0000;0.1066;4.5091;
99.3000;0.1074;4.5066;
99.6000;0.1074;4.5139;
99.9000;0.1066;4.5164;
100.2000;0.1058;4.5139;
100.5000;0.1091;4.5311;
100.8000;0.1099;4.5384;
101.1000;0.1083;4.5311;
101.4000;0.1074;4.5237;
101.7000;0.1058;4.5262;
102.0000;0.1083;4.5286;
102.3000;0.1066;4.5286;
102.6000;0.1066;4.5311;
102.9000;0.1083;4.5237;
103.2000;0.1083;4.5286;
103.5000;0.1074;4.5213;
103.8000;0.1066;4.5164;
104.1000;0.1074;4.5164;
104.4000;0.1074;4.5286;
104.7000;0.0969;4.5091;
105.0000;0.1058;4.5482;
105.3000;0.1066;4.5457;
105.6000;0.1074;4.5482;
105.9000;0.1107;4.5580;
106.2000;0.1074;4.5433;
106.5000;0.1058;4.5408;
106.8000;0.1009;4.5164;
107.1000;0.1074;4.5335;
107.4000;0.1099;4.5384;
107.7000;0.1026;4.5139;
108.0000;0.1107;4.5311;
108.3000;0.1066;4.5188;
108.6000;0.1083;4.5213;
108.9000;0.1042;4.5164;
109.2000;0.1156;4.5433;
109.5000;0.1131;4.5335;
109.8000;0.1066;4.5139;
110.1000;0.1066;4.5115;
110.4000;0.1099;4.5262;
110.7000;0.1099;4.5311;
111.0000;0.1066;4.5237;
111.3000;0.1074;4.5262;
111.6000;0.1083;4.5188;
111.9000;0.1083;4.5164;
112.2000;0.1099;4.5213;
112.5000;0.1083;4.5237;
112.8000;0.1180;4.5433;
113.1000;0.1083;4.5139;
113.4000;0.1099;4.5188;
113.7000;0.1107;4.5286;
114.0000;0.1066;4.5188;
114.3000;0.1058;4.5188;
114.6000;0.1091;4.5311;
114.9000;0.1091;4.5213;
115.2000;0.1074;4.5262;
115.5000;0.1074;4.5139;
115.8000;0.1066;4.5115;
116.1000;0.1091;4.5213;
116.4000;0.1083;4.5311;
116.7000;0.1083;4.5335;
117.0000;0.1091;4.5311;
117.3000;0.1083;4.5384;
117.6000;0.1074;4.5335;
117.9000;0.1050;4.5335;
118.2000;0.1074;4.5384;
118.5000;0.1123;4.5531;
118.8000;0.1115;4.5506;
119.1000;0.1066;4.5433;
119.4000;0.1042;4.5360;
119.7000;0.1074;4.5360;
120.0000;0.1083;4.5433;
120.3000;0.1066;4.5384;
120.6000;0.1058;4.5311;
120.9000;0.1083;4.5286;
121.2000;0.1091;4.5188;
121.5000;0.1083;4.5164;
121.8000;0.1083;4.5213;
122.1000;0.1083;4.5237;
122.4000;0.1083;4.5335;
122.7000;0.1083;4.5311;
123.0000;0.1083;4.5262;
123.3000;0.1107;4.5262;
123.6000;0.1050;4.5115;
123.9000;0.1091;4.5188;
124.2000;0.1148;4.5311;
124.5000;0.1099;4.5164;
124.8000;0.1074;4.5115;
125.1000;0.1074;4.5262;
125.4000;0.1074;4.5237;
125.7000;0.1058;4.5188;
126.0000;0.1074;4.5091;
126.3000;0.1066;4.5091;
126.6000;0.1115;4.5262;
126.9000;0.1066;4.5286;
127.2000;0.1099;4.5408;
127.5000;0.1091;4.5433;
127.8000;0.1034;4.5384;
128.1000;0.1083;4.5433;
128.4000;0.1083;4.5408;
128.7000;0.0993;4.5164;
129.0000;0.1050;4.5384;
129.3000;0.1066;4.5408;
129.6000;0.1083;4.5408;
129.9000;0.1091;4.5457;
130.2000;0.1066;4.5457;
130.5000;0.1066;4.5433;
130.8000;0.1091;4.5506;
131.1000;0.1091;4.5457;
131.4000;0.1180;4.5775;
131.7000;0.1074;4.5457;
132.0000;0.1066;4.5482;
132.3000;0.1107;4.5604;
132.6000;0.1074;4.5506;
132.9000;0.1066;4.5482;
133.2000;0.1066;4.5506;
133.5000;0.1164;4.5726;
133.8000;0.1042;4.5433;
134.1000;0.1083;4.5482;
134.4000;0.1034;4.5433;
134.7000;0.1066;4.5555;
135.0000;0.1091;4.5653;
135.3000;0.1099;4.5604;
135.6000;0.1091;4.5580;
135.9000;0.1066;4.5506;
136.2000;0.1091;4.5506;
136.5000;0.1034;4.5262;
136.8000;0.1083;4.5482;
137.1000;0.1107;4.5531;
137.4000;0.1123;4.5653;
137.7000;0.1091;4.5555;
138.0000;0.1107;4.5531;
138.3000;0.1131;4.5555;
138.6000;0.1083;4.5384;
138.9000;0.1091;4.5384;
139.2000;0.1115;4.5555;
139.5000;0.1083;4.5335;
139.8000;0.1091;4.5360;
140.1000;0.1083;4.5335;
140.4000;0.1074;4.5360;
140.7000;0.1050;4.5286;
141.0000;0.1050;4.5311;
141.3000;0.1091;4.5457;
141.6000;0.1026;4.5384;
141.9000;0.1066;4.5408;
142.2000;0.1066;4.5408;
142.5000;0.1083;4.5335;
142.8000;0.1058;4.5262;
143.1000;0.1107;4.5360;
143.4000;0.1083;4.5335;
143.7000;0.1091;4.5286;
144.0000;0.1050;4.5237;
144.3000;0.1074;4.5311;
144.6000;0.1074;4.5262;
144.9000;0.1091;4.5262;
145.2000;0.1091;4.5237;
145.5000;0.1115;4.5286;
145.8000;0.1074;4.5139;
146.1000;0.1083;4.5213;
146.4000;0.1083;4.5188;
146.7000;0.1074;4.5188;
147.0000;0.1107;4.5286;
147.3000;0.1066;4.5237;
147.6000;0.1091;4.5262;
147.9000;0.1107;4.5311;
148.2000;0.1074;4.5237;
148.5000;0.1091;4.5286;
148.8000;0.1058;4.5360;
149.1000;0.1083;4.5506;
149.4000;0.1058;4.5408;
149.7000;0.1066;4.5482;
150.0000;0.1018;4.5408;
150.3000;0.1074;4.5531;
150.6000;0.1066;4.5531;
150.9000;0.1026;4.5433;
151.2000;0.1083;4.5653;
151.5000;0.1074;4.5580;
151.8000;0.1074;4.5555;
152.1000;0.1074;4.5408;
152.4000;0.1066;4.5335;
152.7000;0.1091;4.5408;
153.0000;0.1091;4.5408;
153.3000;0.1099;4.5286;
153.6000;0.1001;4.5042;
153.9000;0.1099;4.5286;
154.2000;0.1083;4.5286;
154.5000;0.1074;4.5262;
154.8000;0.1164;4.5628;
155.1000;0.1131;4.5580;
155.4000;0.1074;4.5384;
155.7000;0.1058;4.5360;
156.0000;0.1058;4.5360;
156.3000;0.1172;4.5604;
156.6000;0.1074;4.5433;
156.9000;0.1099;4.5457;
157.2000;0.1066;4.5335;
157.5000;0.1091;4.5384;
157.8000;0.1091;4.5311;
158.1000;0.1091;4.5237;
158.4000;0.1058;4.5139;
158.7000;0.1083;4.5262;
159.0000;0.1074;4.5262;
159.3000;0.1066;4.5335;
159.6000;0.1083;4.5384;
159.9000;0.1099;4.5408;
160.2000;0.1050;4.5360;
160.5000;0.1083;4.5384;
160.8000;0.1083;4.5384;
161.1000;0.1066;4.5360;
161.4000;0.1115;4.5506;
161.7000;0.1074;4.5384;
162.0000;0.1074;4.5384;
162.3000;0.1083;4.5482;
162.6000;0.1115;4.5433;
162.9000;0.1083;4.5360;
163.2000;0.1131;4.5482;
163.5000;0.0985;4.5066;
163.8000;0.1009;4.5139;
164.1000;0.1074;4.5286;
164.4000;0.1018;4.5091;
164.7000;0.1050;4.5262;
165.0000;0.1074;4.5360;
165.3000;0.0977;4.5017;
165.6000;0.1131;4.5384;
165.9000;0.1074;4.5286;
166.2000;0.1197;4.5677;
166.5000;0.1018;4.5262;
166.8000;0.1058;4.5213;
167.1000;0.1066;4.5164;
167.4000;0.1058;4.5237;
167.7000;0.1083;4.5311;
168.0000;0.1115;4.5335;
168.3000;0.1115;4.5360;
168.6000;0.1205;4.5628;
168.9000;0.1083;4.5237;
169.2000;0.1050;4.5188;
169.5000;0.1140;4.5335;
169.8000;0.1066;4.5164;
170.1000;0.1066;4.5139;
170.4000;0.1099;4.5213;
170.7000;0.1131;4.5311;
171.0000;0.1050;4.5091;
171.3000;0.1058;4.5115;
171.6000;0.1074;4.5262;
171.9000;0.1058;4.5237;
172.2000;0.1091;4.5335;
172.5000;0.1050;4.5286;
172.8000;0.1066;4.5384;
173.1000;0.1091;4.5433;
173.4000;0.1066;4.5360;
173.7000;0.1083;4.5433;
174.0000;0.0977;4.5213;
174.3000;0.1091;4.5506;
174.6000;0.1107;4.5580;
174.9000;0.1001;4.5311;
175.2000;0.1058;4.5408;
175.5000;0.1074;4.5482;
175.8000;0.1074;4.5360;
176.1000;0.1107;4.5433;
176.4000;0.1074;4.5384;
176.7000;0.1099;4.5408;
177.0000;0.1172;4.5628;
177.3000;0.1066;4.5408;
177.6000;0.1042;4.5213;
177.9000;0.1107;4.5408;
178.2000;0.1074;4.5384;
178.5000;0.1099;4.5482;
178.8000;0.1074;4.5433;
179.1000;0.1042;4.5360;
179.4000;0.1083;4.5457;
179.7000;0.1083;4.5506;
180.0000;0.1074;4.5408;
180.3000;0.1083;4.5335;
180.6000;0.1107;4.5384;
180.9000;0.1058;4.5139;
181.2000;0.1074;4.5408;
181.5000;0.1083;4.5457;
181.8000;0.1140;4.5433;
182.1000;0.1083;4.5335;
182.4000;0.1123;4.5408;
182.7000;0.0969;4.4993;
183.0000;0.1083;4.5457;
183.3000;0.1107;4.5555;
183.6000;0.1091;4.5555;
183.9000;0.1058;4.5531;
184.2000;0.1091;4.5555;
184.5000;0.1091;4.5506;
184.8000;0.1188;4.5751;
185.1000;0.1074;4.5335;
185.4000;0.1091;4.5311;
185.7000;0.1050;4.5188;
186.0000;0.1091;4.5384;
186.3000;0.1058;4.5286;
186.6000;0.1099;4.5384;
186.9000;0.1099;4.5384;
187.2000;0.1107;4.5408;
187.5000;0.1099;4.5457;
187.8000;0.1156;4.5555;
188.1000;0.1050;4.5262;
188.4000;0.0993;4.5115;
188.7000;0.1099;4.5433;
189.0000;0.1091;4.5433;
189.3000;0.1107;4.5506;
189.6000;0.1058;4.5433;
189.9000;0.1074;4.5360;
190.2000;0.1164;4.5482;
190.5000;0.1164;4.5506;
190.8000;0.1091;4.5433;
191.1000;0.1050;4.5311;
191.4000;0.1107;4.5457;
191.7000;0.1074;4.5433;
192.0000;0.1074;4.5384;
192.3000;0.1123;4.5506;
192.6000;0.1074;4.5408;
192.9000;0.1091;4.5360;
193.2000;0.1091;4.5335;
193.5000;0.1091;4.5335;
193.8000;0.1074;4.5360;
194.1000;0.1018;4.5188;
194.4000;0.1083;4.5408;
194.7000;0.1083;4.5384;
195.0000;0.1083;4.5408;
195.3000;0.1058;4.5237;
195.6000;0.1042;4.5213;
195.9000;0.1050;4.5286;
196.2000;0.1091;4.5433;
196.5000;0.1050;4.5384;
196.8000;0.1066;4.5408;
197.1000;0.1074;4.5506;
197.4000;0.1099;4.5457;
197.7000;0.1083;4.5335;
198.0000;0.1286;4.5946;
198.3000;0.1074;4.5384;
198.6000;0.1074;4.5580;
198.9000;0.1074;4.5580;
199.2000;0.1050;4.5506;
199.5000;0.0969;4.5213;
199.8000;0.1058;4.5506;
200.1000;0.1083;4.5580;
200.4000;0.1066;4.5457;
200.7000;0.1074;4.5457;
201.0000;0.1066;4.5457;
201.3000;0.0936;4.5066;
201.6000;0.1074;4.5335;
201.9000;0.1050;4.5286;
202.2000;0.1172;4.5604;
202.5000;0.1107;4.5360;
202.8000;0.1091;4.5213;
203.1000;0.1091;4.5262;
203.4000;0.1083;4.5262;
203.7000;0.1140;4.5457;
204.0000;0.1319;4.5873;
204.3000;0.1123;4.5262;
204.6000;0.1066;4.5311;
204.9000;0.1066;4.5384;
205.2000;0.1066;4.5408;
205.5000;0.1050;4.5408;
205.8000;0.1058;4.5360;
206.1000;0.1058;4.5457;
206.4000;0.1083;4.5555;
206.7000;0.1074;4.5580;
207.0000;0.1099;4.5653;
207.3000;0.1099;4.5628;
207.6000;0.1091;4.5580;
207.9000;0.1050;4.5482;
208.2000;0.1066;4.5531;
208.5000;0.1083;4.5531;
208.8000;0.1026;4.5360;
209.1000;0.1074;4.5531;
209.4000;0.1074;4.5433;
209.7000;0.1074;4.5482;
210.0000;0.1066;4.5457;
210.3000;0.1066;4.5531;
210.6000;0.1091;4.5531;
210.9000;0.1066;4.5433;
211.2000;0.1099;4.5360;
211.5000;0.1091;4.5408;
211.8000;0.1107;4.5360;
212.1000;0.1074;4.5237;
212.4000;0.1099;4.5384;
212.7000;0.1083;4.5262;
213.0000;0.1091;4.5213;
213.3000;0.1099;4.5164;
213.6000;0.1083;4.5066;
213.9000;0.1091;4.5115;
214.2000;0.1115;4.5188;
214.5000;0.1123;4.5262;
214.8000;0.1091;4.5188;
215.1000;0.1042;4.5115;
215.4000;0.1083;4.5188;
215.7000;0.1050;4.5139;
216.0000;0.1083;4.5286;
216.3000;0.1099;4.5408;
216.6000;0.1091;4.5408;
216.9000;0.1083;4.5433;
217.2000;0.1074;4.5482;
217.5000;0.1099;4.5482;
217.8000;0.1074;4.5433;
218.1000;0.1107;4.5580;
218.4000;0.1091;4.5531;
218.7000;0.1115;4.5580;
219.0000;0.1083;4.5433;
219.3000;0.1074;4.5335;
219.6000;0.1083;4.5262;
219.9000;0.1083;4.5286;
220.2000;0.1074;4.5286;
220.5000;0.1042;4.5139;
220.8000;0.1018;4.5017;
221.1000;0.1107;4.5286;
221.4000;0.1050;4.5091;
221.7000;0.1074;4.5164;
222.0000;0.1074;4.5213;
222.3000;0.1050;4.5213;
222.6000;0.1107;4.5360;
222.9000;0.1213;4.5751;
223.2000;0.1091;4.5482;
223.5000;0.1074;4.5482;
223.8000;0.1156;4.5531;
224.1000;0.1140;4.5457;
224.4000;0.1107;4.5188;
224.7000;0.1107;4.5213;
225.0000;0.1091;4.5213;
225.3000;0.1058;4.5139;
225.6000;0.1074;4.5213;
225.9000;0.1042;4.5115;
226.2000;0.1099;4.5164;
226.5000;0.1091;4.5164;
226.8000;0.1091;4.5188;
227.1000;0.1074;4.5213;
227.4000;0.1099;4.5360;
227.7000;0.1091;4.5360;
228.0000;0.1140;4.5408;
228.3000;0.1083;4.5262;
228.6000;0.1091;4.5286;
228.9000;0.1083;4.5237;
229.2000;0.1058;4.5115;
229.5000;0.1026;4.5042;
229.8000;0.1083;4.5164;
230.1000;0.1099;4.5237;
230.4000;0.1042;4.5017;
230.7000;0.1083;4.5237;
231.0000;0.1066;4.5286;
231.3000;0.1140;4.5506;
231.6000;0.1083;4.5433;
231.9000;0.1099;4.5384;
232.2000;0.1034;4.5188;
232.5000;0.1099;4.5311;
232.8000;0.1066;4.5311;
233.1000;0.1099;4.5335;
233.4000;0.1058;4.5286;
233.7000;0.1107;4.5335;
234.0000;0.1091;4.5286;
234.3000;0.1091;4.5262;
234.6000;0.1083;4.5311;
234.9000;0.1050;4.5213;
235.2000;0.1083;4.5262;
235.5000;0.1083;4.5335;
235.8000;0.1074;4.5408;
236.1000;0.1083;4.5506;
236.4000;0.1083;4.5482;
236.7000;0.0961;4.5115;
237.0000;0.0993;4.5164;
237.3000;0.1074;4.5311;
237.6000;0.1123;4.5580;
237.9000;0.1123;4.5555;
238.2000;0.1099;4.5506;
238.5000;0.1066;4.5408;
238.8000;0.1066;4.5335;
239.1000;0.1213;4.5726;
239.4000;0.1099;4.5408;
239.7000;0.1115;4.5433;
240.0000;0.1091;4.5335;
240.3000;0.1099;4.5384;
240.6000;0.1099;4.5335;
240.9000;0.1074;4.5237;
241.2000;0.1083;4.5188;
241.5000;0.1074;4.5262;
241.8000;0.1140;4.5506;
242.1000;0.1083;4.5286;
242.4000;0.1074;4.5188;
242.7000;0.1066;4.5188;
243.0000;0.1034;4.5115;
243.3000;0.1156;4.5457;
243.6000;0.1074;4.5164;
243.9000;0.1066;4.5237;
244.2000;0.1083;4.5286;
244.5000;0.1083;4.5262;
244.8000;0.1001;4.4968;
245.1000;0.1058;4.5164;
245.4000;0.1091;4.5237;
245.7000;0.1172;4.5457;
246.0000;0.1123;4.5408;
246.3000;0.1091;4.5335;
246.6000;0.1156;4.5457;
246.9000;0.1091;4.5335;
247.2000;0.1074;4.5384;
247.5000;0.1091;4.5457;
247.8000;0.1091;4.5457;
248.1000;0.1107;4.5506;
248.4000;0.1083;4.5433;
248.7000;0.1074;4.5311;
249.0000;0.1229;4.5677;
249.3000;0.1099;4.5237;
249.6000;0.1107;4.5311;
249.9000;0.1050;4.5213;
250.2000;0.1050;4.5360;
250.5000;0.1140;4.5628;
250.8000;0.1050;4.5335;
251.1000;0.1034;4.5237;
251.4000;0.1148;4.5580;
251.7000;0.1074;4.5360;
252.0000;0.1107;4.5433;
252.3000;0.1074;4.5237;
252.6000;0.0977;4.4993;
252.9000;0.0993;4.4919;
253.2000;0.1091;4.5335;
253.5000;0.1074;4.5408;
253.8000;0.1107;4.5482;
254.1000;0.1066;4.5360;
254.4000;0.1091;4.5433;
254.7000;0.1099;4.5433;
255.0000;0.1074;4.5433;
255.3000;0.1066;4.5384;
255.6000;0.1091;4.5384;
255.9000;0.1083;4.5384;
256.2000;0.1083;4.5262;
256.5000;0.1058;4.5213;
256.8000;0.1083;4.5213;
257.1000;0.1083;4.5237;
257.4000;0.1074;4.5164;
257.7000;0.1066;4.5164;
258.0000;0.1058;4.5139;
258.3000;0.1074;4.5139;
258.6000;0.1099;4.5115;
258.9000;0.1107;4.5091;
259.2000;0.1074;4.4944;
259.5000;0.1074;4.4968;
259.8000;0.1066;4.5042;
260.1000;0.1066;4.5066;
260.4000;0.1091;4.5115;
260.7000;0.1083;4.5115;
261.0000;0.1074;4.5139;
261.3000;0.1058;4.5139;
261.6000;0.1148;4.5433;
261.9000;0.1107;4.5335;
262.2000;0.1058;4.5311;
262.5000;0.1074;4.5335;
262.8000;0.1091;4.5311;
263.1000;0.1083;4.5335;
263.4000;0.1091;4.5360;
263.7000;0.1099;4.5360;
264.0000;0.1074;4.5262;
264.3000;0.1099;4.5237;
264.6000;0.1058;4.5164;
264.9000;0.1074;4.5262;
265.2000;0.1091;4.5286;
265.5000;0.1107;4.5408;
265.8000;0.1091;4.5360;
266.1000;0.1083;4.5286;
266.4000;0.1066;4.5262;
266.7000;0.1058;4.5262;
267.0000;0.1221;4.5775;
267.3000;0.1083;4.5311;
267.6000;0.1050;4.5213;
267.9000;0.1091;4.5311;
268.2000;0.1074;4.5237;
268.5000;0.1099;4.5311;
268.8000;0.1050;4.5164;
269.1000;0.1091;4.5311;
269.4000;0.1091;4.5262;
269.7000;0.1074;4.5164;
270.0000;0.1074;4.5262;
270.3000;0.1066;4.5262;
270.6000;0.1083;4.5360;
270.9000;0.1091;4.5335;
271.2000;0.1115;4.5408;
271.5000;0.1018;4.5188;
271.8000;0.1083;4.5384;
272.1000;0.1091;4.5408;
272.4000;0.1074;4.5262;
272.7000;0.1074;4.5286;
273.0000;0.1107;4.5384;
273.3000;0.1115;4.5384;
273.6000;0.1091;4.5384;
273.9000;0.1074;4.5384;
274.2000;0.1083;4.5213;
274.5000;0.1066;4.5188;
274.8000;0.1066;4.5164;
275.1000;0.1099;4.5164;
275.4000;0.1074;4.5164;
275.7000;0.1099;4.5237;
276.0000;0.1066;4.5237;
276.3000;0.1050;4.5164;
276.6000;0.0993;4.5115;
276.9000;0.1140;4.5433;
277.2000;0.1091;4.5188;
277.5000;0.0985;4.4822;
277.8000;0.1091;4.5066;
278.1000;0.1091;4.5115;
278.4000;0.1091;4.5237;
278.7000;0.1066;4.5262;
279.0000;0.1091;4.5286;
279.3000;0.1074;4.5262;
279.6000;0.1107;4.5335;
279.9000;0.1099;4.5384;
280.2000;0.1074;4.5311;
280.5000;0.1074;4.5286;
280.8000;0.1066;4.5311;
281.1000;0.1074;4.5384;
281.4000;0.1066;4.5408;
281.7000;0.1091;4.5457;
282.0000;0.1001;4.5286;
282.3000;0.1083;4.5531;
282.6000;0.1058;4.5433;
282.9000;0.1058;4.5384;
283.2000;0.1091;4.5384;
283.5000;0.1083;4.5335;
283.8000;0.1091;4.5335;
284.1000;0.1074;4.5360;
284.4000;0.1115;4.5433;
284.7000;0.1074;4.5433;
285.0000;0.1050;4.5286;
285.3000;0.1066;4.5335;
285.6000;0.1050;4.5360;
285.9000;0.1066;4.5335;
286.2000;0.1074;4.5384;
286.5000;0.1001;4.5115;
286.8000;0.1066;4.5237;
287.1000;0.1066;4.5237;
287.4000;0.1083;4.5335;
287.7000;0.1083;4.5360;
288.0000;0.1083;4.5311;
288.3000;0.1099;4.5311;
288.6000;0.1099;4.5286;
288.9000;0.1091;4.5213;
289.2000;0.1001;4.4944;
289.5000;0.1083;4.5164;
289.8000;0.1074;4.5115;
290.1000;0.1074;4.5213;
290.4000;0.1058;4.5188;
290.7000;0.1066;4.5213;
291.0000;0.1091;4.5262;
291.3000;0.1107;4.5262;
291.6000;0.1091;4.5237;
291.9000;0.1083;4.5164;
292.2000;0.1074;4.5115;
292.5000;0.1058;4.5164;
292.8000;0.1050;4.5188;
293.1000;0.1074;4.5213;
293.4000;0.1083;4.5262;
293.7000;0.1058;4.5213;
294.0000;0.1115;4.5384;
294.3000;0.1083;4.5360;
294.6000;0.1099;4.5335;
294.9000;0.1091;4.5286;
295.2000;0.1156;4.5408;
295.5000;0.1131;4.5384;
295.8000;0.1074;4.5188;
296.1000;0.1058;4.5262;
296.4000;0.1026;4.5164;
296.7000;0.1107;4.5384;
297.0000;0.1066;4.5237;
297.3000;0.1042;4.5139;
297.6000;0.1042;4.5091;
297.9000;0.1074;4.5188;
298.2000;0.1083;4.5115;
298.5000;0.1066;4.5066;
298.8000;0.1083;4.5139;
299.1000;0.1083;4.5139;
299.4000;0.1042;4.5115;
299.7000;0.1066;4.5115;
300.0000;0.1083;4.5139;
300.3000;0.1066;4.5188;
300.6000;0.1074;4.5188;
300.9000;0.1074;4.5335;
301.2000;0.1074;4.5384;
301.5000;0.1213;4.5726;
301.8000;0.1083;4.5311;
302.1000;0.1074;4.5262;
302.4000;0.1099;4.5360;
302.7000;0.1074;4.5335;
303.0000;0.1083;4.5335;
303.3000;0.1074;4.5360;
303.6000;0.1083;4.5360;
303.9000;0.1091;4.5384;
304.2000;0.1074;4.5335;
304.5000;0.1050;4.5237;
304.8000;0.1009;4.5213;
305.1000;0.1050;4.5188;
305.4000;0.1074;4.5213;
305.7000;0.1050;4.5091;
306.0000;0.1058;4.5164;
306.3000;0.1091;4.5286;
306.6000;0.1083;4.5237;
306.9000;0.1083;4.5017;
307.2000;0.1042;4.4944;
307.5000;0.1058;4.4993;
307.8000;0.1091;4.5066;
308.1000;0.1083;4.5066;
308.4000;0.1066;4.4968;
308.7000;0.1148;4.5115;
309.0000;0.1042;4.4919;
309.3000;0.1074;4.5017;
309.6000;0.1156;4.5213;
309.9000;0.1091;4.5164;
310.2000;0.1083;4.5213;
310.5000;0.1074;4.5237;
310.8000;0.1058;4.5311;
311.1000;0.1099;4.5384;
311.4000;0.1083;4.5311;
311.7000;0.1074;4.5360;
312.0000;0.1058;4.5360;
312.3000;0.1074;4.5360;
312.6000;0.1091;4.5360;
312.9000;0.1083;4.5286;
313.2000;0.1074;4.5262;
313.5000;0.1058;4.5115;
313.8000;0.1107;4.5213;
314.1000;0.1034;4.5115;
314.4000;0.1066;4.5139;
314.7000;0.1180;4.5531;
315.0000;0.1286;4.5873;
315.3000;0.1058;4.5286;
315.6000;0.1066;4.5262;
315.9000;0.1091;4.5311;
316.2000;0.1058;4.5311;
316.5000;0.1083;4.5286;
316.8000;0.1140;4.5457;
317.1000;0.1050;4.5237;
317.4000;0.1066;4.5262;
317.7000;0.1213;4.5653;
318.0000;0.1099;4.5237;
318.3000;0.1188;4.5335;
318.6000;0.1050;4.4919;
318.9000;0.1058;4.4846;
319.2000;0.1066;4.4919;
319.5000;0.1083;4.5017;
319.8000;0.1034;4.4895;
320.1000;0.1050;4.4993;
320.4000;0.1123;4.5188;
320.7000;0.1099;4.5237;
321.0000;0.1091;4.5311;
321.3000;0.1074;4.5286;
321.6000;0.1074;4.5286;
321.9000;0.1083;4.5286;
322.2000;0.1066;4.5311;
322.5000;0.1074;4.5311;
322.8000;0.1091;4.5262;
323.1000;0.1074;4.5213;
323.4000;0.1115;4.5360;
323.7000;0.1058;4.5237;
324.0000;0.1091;4.5237;
324.3000;0.1115;4.5311;
324.6000;0.1156;4.5531;
324.9000;0.1083;4.5237;
325.2000;0.1083;4.5237;
325.5000;0.1066;4.5262;
325.8000;0.1058;4.5213;
326.1000;0.1066;4.5360;
326.4000;0.1058;4.5360;
326.7000;0.1091;4.5384;
327.0000;0.1066;4.5262;
327.3000;0.1066;4.5286;
327.6000;0.1066;4.5262;
327.9000;0.1083;4.5286;
328.2000;0.1131;4.5335;
328.5000;0.1018;4.5017;
328.8000;0.1099;4.5139;
329.1000;0.1058;4.5042;
329.4000;0.1099;4.5139;
329.7000;0.1083;4.5017;
330.0000;0.1091;4.4944;
330.3000;0.1083;4.4944;
330.6000;0.1058;4.4895;
330.9000;0.1074;4.4968;
331.2000;0.1066;4.4968;
331.5000;0.1115;4.5091;
331.8000;0.1026;4.4870;
332.1000;0.1115;4.5042;
332.4000;0.1180;4.5188;
332.7000;0.0961;4.4577;
333.0000;0.1107;4.4870;
333.3000;0.1123;4.4895;
333.6000;0.1156;4.5066;
333.9000;0.1066;4.4919;
334.2000;0.1042;4.4822;
334.5000;0.1074;4.4895;
334.8000;0.1099;4.5066;
335.1000;0.1074;4.5115;
335.4000;0.1066;4.5139;
335.7000;0.1083;4.5164;
336.0000;0.1001;4.5066;
336.3000;0.1083;4.5213;
336.6000;0.1058;4.5066;
336.9000;0.1123;4.5213;
337.2000;0.1123;4.5237;
337.5000;0.1083;4.5139;
337.8000;0.1115;4.5311;
338.1000;0.1091;4.5286;
338.4000;0.1042;4.5115;
338.7000;0.1034;4.5017;
339.0000;0.1066;4.5042;
339.3000;0.1083;4.5091;
339.6000;0.1058;4.5066;
339.9000;0.1058;4.5091;
340.2000;0.1050;4.5066;
340.5000;0.1164;4.5433;
340.8000;0.1018;4.4993;
341.1000;0.1001;4.4968;
341.4000;0.1115;4.5286;
341.7000;0.1083;4.5188;
342.0000;0.1131;4.5311;
342.3000;0.1074;4.5237;
342.6000;0.1148;4.5433;
342.9000;0.1074;4.5188;
343.2000;0.1083;4.5213;
343.5000;0.1107;4.5311;
343.8000;0.1091;4.5286;
344.1000;0.1099;4.5262;
344.4000;0.1083;4.5262;
344.7000;0.1066;4.5237;
345.0000;0.1058;4.5311;
345.3000;0.1083;4.5311;
345.6000;0.1066;4.5286;
345.9000;0.1091;4.5311;
346.2000;0.1074;4.5311;
346.5000;0.1083;4.5286;
346.8000;0.1074;4.5262;
347.1000;0.1083;4.5237;
347.4000;0.1091;4.5311;
347.7000;0.1083;4.5286;
348.0000;0.1074;4.5164;
348.3000;0.1066;4.5139;
348.6000;0.1237;4.5555;
348.9000;0.1180;4.5457;
349.2000;0.1074;4.5188;
349.5000;0.1083;4.5164;
349.8000;0.1058;4.5091;
350.1000;0.1107;4.5237;
350.4000;0.1050;4.5091;
350.7000;0.1074;4.5139;
351.0000;0.1066;4.5066;
351.3000;0.1091;4.5091;
351.6000;0.1066;4.5066;
351.9000;0.1099;4.5139;
352.2000;0.1083;4.5164;
352.5000;0.1058;4.5091;
352.8000;0.1164;4.5384;
353.1000;0.1099;4.5164;
353.4000;0.1083;4.5164;
353.7000;0.1034;4.4895;
354.0000;0.1099;4.5042;
354.3000;0.1066;4.5017;
354.6000;0.1148;4.5213;
354.9000;0.1099;4.5091;
355.2000;0.1074;4.5017;
355.5000;0.1123;4.5164;
355.8000;0.1058;4.5115;
356.1000;0.1115;4.5237;
356.4000;0.1099;4.5188;
356.7000;0.1042;4.4993;
357.0000;0.1091;4.5164;
357.3000;0.1083;4.5237;
357.6000;0.1083;4.5213;
357.9000;0.1115;4.5237;
358.2000;0.1123;4.5433;
358.5000;0.1115;4.5482;
358.8000;0.1034;4.5286;
359.1000;0.1034;4.5188;
359.4000;0.1083;4.5335;
359.7000;0.1058;4.5360;
360.0000;0.1107;4.5482;
360.3000;0.1074;4.5360;
360.6000;0.1083;4.5360;
360.9000;0.1066;4.5360;
361.2000;0.1058;4.5286;
361.5000;0.1091;4.5384;
361.8000;0.1156;4.5604;
362.1000;0.1099;4.5335;
362.4000;0.0952;4.5042;
362.7000;0.1042;4.5286;
363.0000;0.1091;4.5384;
363.3000;0.1074;4.5384;
363.6000;0.1066;4.5384;
363.9000;0.1083;4.5408;
364.2000;0.1083;4.5311;
364.5000;0.1050;4.5237;
364.8000;0.1026;4.5066;
365.1000;0.1074;4.5188;
365.4000;0.1140;4.5408;
365.7000;0.1074;4.5335;
366.0000;0.1074;4.5286;
366.3000;0.1099;4.5360;
366.6000;0.1058;4.5262;
366.9000;0.1050;4.5213;
367.2000;0.1099;4.5335;
367.5000;0.1148;4.5408;
367.8000;0.1009;4.4919;
368.1000;0.1074;4.5115;
368.4000;0.1099;4.5213;
368.7000;0.1066;4.5262;
369.0000;0.1107;4.5384;
369.3000;0.1074;4.5335;
369.6000;0.1074;4.5311;
369.9000;0.1099;4.5335;
370.2000;0.1042;4.5091;
370.5000;0.1074;4.5139;
370.8000;0.1074;4.5213;
371.1000;0.1001;4.5042;
371.4000;0.1058;4.5139;
371.7000;0.1066;4.5042;
372.0000;0.1074;4.5042;
372.3000;0.1091;4.5066;
372.6000;0.1074;4.5017;
372.9000;0.1074;4.4968;
373.2000;0.1083;4.4993;
373.5000;0.1074;4.5017;
373.8000;0.1099;4.5262;
374.1000;0.1091;4.5188;
374.4000;0.1074;4.5017;
374.7000;0.1074;4.4993;
375.0000;0.1083;4.5115;
375.3000;0.1074;4.5188;
375.6000;0.1074;4.5139;
375.9000;0.1099;4.5237;
376.2000;0.1058;4.5237;
376.5000;0.1009;4.4993;
376.8000;0.1115;4.5360;
377.1000;0.1099;4.5384;
377.4000;0.1066;4.5384;
377.7000;0.1083;4.5482;
378.0000;0.1066;4.5506;
378.3000;0.1172;4.5800;
378.6000;0.1083;4.5604;
378.9000;0.1107;4.5702;
379.2000;0.1083;4.5580;
379.5000;0.1091;4.5628;
379.8000;0.1083;4.5555;
380.1000;0.1091;4.5555;
380.4000;0.1018;4.5408;
380.7000;0.1091;4.5531;
381.0000;0.1107;4.5555;
381.3000;0.1074;4.5482;
381.6000;0.1083;4.5506;
381.9000;0.1074;4.5408;
382.2000;0.1107;4.5482;
382.5000;0.1107;4.5457;
382.8000;0.1083;4.5384;
383.1000;0.1074;4.5408;
383.4000;0.1050;4.5384;
383.7000;0.1140;4.5677;
384.0000;0.1066;4.5457;
384.3000;0.1083;4.5506;
384.6000;0.1050;4.5433;
384.9000;0.1172;4.5775;
385.2000;0.1091;4.5457;
385.5000;0.1083;4.5433;
385.8000;0.1066;4.5433;
386.1000;0.1083;4.5384;
386.4000;0.1074;4.5335;
386.7000;0.1074;4.5335;
387.0000;0.1074;4.5311;
387.3000;0.1229;4.5702;
387.6000;0.1091;4.5311;
387.9000;0.1099;4.5433;
388.2000;0.1107;4.5433;
388.5000;0.1058;4.5433;
388.8000;0.1074;4.5482;
389.1000;0.1091;4.5580;
389.4000;0.1131;4.5751;
389.7000;0.1091;4.5531;
390.0000;0.1083;4.5384;
390.3000;0.1172;4.5580;
390.6000;0.1074;4.5311;
390.9000;0.1083;4.5262;
391.2000;0.1074;4.5237;
391.5000;0.1066;4.5286;
391.8000;0.1066;4.5115;
392.1000;0.1115;4.5311;
392.4000;0.1099;4.5213;
392.7000;0.1091;4.5311;
393.0000;0.1083;4.5262;
393.3000;0.1099;4.5311;
393.6000;0.1083;4.5335;
393.9000;0.1083;4.5335;
394.2000;0.1009;4.5164;
394.5000;0.1083;4.5482;
394.8000;0.1091;4.5482;
395.1000;0.1083;4.5433;
395.4000;0.1083;4.5457;
395.7000;0.1058;4.5360;
396.0000;0.1083;4.5433;
396.3000;0.1074;4.5384;
396.6000;0.1074;4.5408;
396.9000;0.1148;4.5726;
397.2000;0.1066;4.5457;
397.5000;0.1074;4.5531;
397.8000;0.1083;4.5482;
398.1000;0.1083;4.5531;
398.4000;0.1066;4.5604;
398.7000;0.1058;4.5531;
399.0000;0.1148;4.5726;
399.3000;0.1083;4.5580;
399.6000;0.1050;4.5555;
399.9000;0.1058;4.5531;
400.2000;0.1091;4.5604;
400.5000;0.1083;4.5580;
400.8000;0.1091;4.5604;
401.1000;0.1066;4.5506;
401.4000;0.1074;4.5457;
401.7000;0.1058;4.5335;
402.0000;0.1107;4.5384;
402.3000;0.1066;4.5286;
402.6000;0.1107;4.5384;
402.9000;0.1099;4.5457;
403.2000;0.1099;4.5457;
403.5000;0.1083;4.5213;
403.8000;0.1099;4.5286;
404.1000;0.1107;4.5335;
404.4000;0.1066;4.5213;
404.7000;0.1042;4.5237;
405.0000;0.1131;4.5433;
405.3000;0.1066;4.5286;
405.6000;0.1091;4.5384;
405.9000;0.1050;4.5262;
406.2000;0.1083;4.5360;
406.5000;0.1083;4.5286;
406.8000;0.1074;4.5335;
407.1000;0.1107;4.5531;
407.4000;0.1042;4.5335;
407.7000;0.1066;4.5482;
408.0000;0.1091;4.5433;
408.3000;0.1074;4.5408;
408.6000;0.1066;4.5335;
408.9000;0.1107;4.5506;
409.2000;0.1066;4.5384;
409.5000;0.1074;4.5384;
409.8000;0.1001;4.5188;
410.1000;0.1091;4.5531;
410.4000;0.1099;4.5506;
410.7000;0.1123;4.5580;
411.0000;0.1115;4.5457;
411.3000;0.1099;4.5433;
411.6000;0.1123;4.5482;
411.9000;0.1083;4.5360;
412.2000;0.1066;4.5408;
412.5000;0.1042;4.5408;
412.8000;0.1091;4.5555;
413.1000;0.1074;4.5531;
413.4000;0.1115;4.5677;
413.7000;0.1074;4.5506;
414.0000;0.1074;4.5482;
414.3000;0.1115;4.5628;
414.6000;0.1091;4.5506;
414.9000;0.1050;4.5433;
415.2000;0.1066;4.5433;
415.5000;0.1099;4.5555;
415.8000;0.1074;4.5433;
416.1000;0.1074;4.5408;
416.4000;0.1131;4.5653;
416.7000;0.1066;4.5384;
417.0000;0.1099;4.5482;
417.3000;0.1058;4.5360;
417.6000;0.1001;4.5286;
417.9000;0.1091;4.5531;
418.2000;0.1074;4.5506;
418.5000;0.1074;4.5482;
418.8000;0.1091;4.5555;
419.1000;0.1066;4.5531;
419.4000;0.1131;4.5628;
419.7000;0.1091;4.5531;
420.0000;0.1083;4.5457;
420.3000;0.1074;4.5408;
420.6000;0.1083;4.5433;
420.9000;0.1058;4.5360;
421.2000;0.1058;4.5360;
421.5000;0.1058;4.5433;
421.8000;0.1074;4.5482;
422.1000;0.1099;4.5555;
422.4000;0.1083;4.5555;
422.7000;0.1083;4.5531;
423.0000;0.1164;4.5751;
423.3000;0.1099;4.5580;
423.6000;0.1034;4.5433;
423.9000;0.1091;4.5580;
424.2000;0.1083;4.5555;
424.5000;0.1042;4.5457;
424.8000;0.1123;4.5628;
425.1000;0.1058;4.5384;
425.4000;0.1083;4.5555;
425.7000;0.1099;4.5628;
426.0000;0.1099;4.5604;
426.3000;0.1066;4.5482;
426.6000;0.1074;4.5506;
426.9000;0.1156;4.5653;
427.2000;0.1091;4.5555;
427.5000;0.1026;4.5408;
427.8000;0.1099;4.5457;
428.1000;0.1083;4.5360;
428.4000;0.1066;4.5457;
428.7000;0.1083;4.5506;
429.0000;0.1099;4.5628;
429.3000;0.0985;4.5286;
429.6000;0.1091;4.5531;
429.9000;0.1066;4.5506;
430.2000;0.0985;4.5237;
430.5000;0.1099;4.5506;
430.8000;0.1205;4.5775;
431.1000;0.1066;4.5408;
431.4000;0.1074;4.5457;
431.7000;0.1074;4.5457;
432.0000;0.1091;4.5482;
432.3000;0.1066;4.5457;
432.6000;0.1172;4.5800;
432.9000;0.1131;4.5653;
433.2000;0.1180;4.5677;
433.5000;0.1091;4.5384;
433.8000;0.1172;4.5702;
434.1000;0.1074;4.5433;
434.4000;0.1050;4.5335;
434.7000;0.1042;4.5311;
435.0000;0.1099;4.5457;
435.3000;0.1074;4.5408;
435.6000;0.0993;4.5139;
435.9000;0.1066;4.5237;
436.2000;0.1066;4.5262;
436.5000;0.1083;4.5262;
436.8000;0.1107;4.5360;
437.1000;0.1050;4.5262;
437.4000;0.1140;4.5580;
437.7000;0.1091;4.5408;
438.0000;0.1058;4.5311;
438.3000;0.1140;4.5457;
438.6000;0.1091;4.5335;
438.9000;0.1058;4.5262;
439.2000;0.1058;4.5384;
439.5000;0.1091;4.5506;
439.8000;0.1083;4.5408;
440.1000;0.1074;4.5286;
440.4000;0.1074;4.5384;
440.7000;0.1066;4.5433;
441.0000;0.1091;4.5506;
441.3000;0.1066;4.5482;
441.6000;0.1074;4.5580;
441.9000;0.1074;4.5580;
442.2000;0.1034;4.5457;
442.5000;0.1083;4.5580;
442.8000;0.1058;4.5408;
443.1000;0.1074;4.5433;
443.4000;0.1066;4.5457;
443.7000;0.1066;4.5408;
444.0000;0.1083;4.5457;
444.3000;0.1066;4.5433;
444.6000;0.1074;4.5408;
444.9000;0.1091;4.5433;
445.2000;0.1074;4.5457;
445.5000;0.1058;4.5408;
445.8000;0.1066;4.5311;
446.1000;0.1026;4.5262;
446.4000;0.1074;4.5335;
446.7000;0.1058;4.5286;
447.0000;0.1066;4.5311;
447.3000;0.1091;4.5360;
447.6000;0.1066;4.5384;
447.9000;0.1066;4.5311;
448.2000;0.1140;4.5604;
448.5000;0.1140;4.5604;
448.8000;0.1066;4.5408;
449.1000;0.1058;4.5384;
449.4000;0.1148;4.5555;
449.7000;0.1034;4.5311;
450.0000;0.1074;4.5360;
450.3000;0.1205;4.5800;
450.6000;0.1131;4.5531;
450.9000;0.1091;4.5433;
451.2000;0.1034;4.5286;
451.5000;0.1115;4.5604;
451.8000;0.1083;4.5555;
452.1000;0.1050;4.5457;
452.4000;0.0985;4.5335;
452.7000;0.1058;4.5408;
453.0000;0.1083;4.5482;
453.3000;0.1115;4.5580;
453.6000;0.1058;4.5408;
453.9000;0.1091;4.5506;
454.2000;0.1066;4.5457;
454.5000;0.1091;4.5457;
454.8000;0.1074;4.5408;
455.1000;0.1131;4.5531;
455.4000;0.1091;4.5408;
455.7000;0.1050;4.5262;
456.0000;0.1058;4.5262;
456.3000;0.1156;4.5482;
456.6000;0.1083;4.5139;
456.9000;0.1131;4.5237;
457.2000;0.1148;4.5335;
457.5000;0.1123;4.5237;
457.8000;0.1058;4.5164;
458.1000;0.1074;4.5237;
458.4000;0.1074;4.5188;
458.7000;0.1115;4.5311;
459.0000;0.1172;4.5433;
459.3000;0.1066;4.5213;
459.6000;0.1074;4.5188;
459.9000;0.1131;4.5384;
460.2000;0.1074;4.5262;
460.5000;0.1091;4.5360;
460.8000;0.1083;4.5262;
461.1000;0.1066;4.5237;
461.4000;0.1074;4.5286;
461.7000;0.1066;4.5384;
462.0000;0.1083;4.5335;
462.3000;0.1083;4.5262;
462.6000;0.1050;4.5188;
462.9000;0.1074;4.5262;
463.2000;0.1083;4.5237;
463.5000;0.1083;4.5139;
463.8000;0.1205;4.5433;
464.1000;0.1083;4.5262;
464.4000;0.1074;4.5360;
464.7000;0.1123;4.5360;
465.0000;0.1091;4.5360;
465.3000;0.1083;4.5360;
465.6000;0.1050;4.5286;
465.9000;0.1058;4.5286;
466.2000;0.1083;4.5384;
466.5000;0.1058;4.5335;
466.8000;0.1083;4.5384;
467.1000;0.1066;4.5311;
467.4000;0.1018;4.5115;
467.7000;0.1034;4.5262;
468.0000;0.1066;4.5286;
468.3000;0.1091;4.5433;
468.6000;0.1074;4.5384;
468.9000;0.1115;4.5482;
469.2000;0.1131;4.5580;
469.5000;0.0993;4.5115;
469.8000;0.1050;4.5311;
470.1000;0.1099;4.5408;
470.4000;0.1091;4.5482;
470.7000;0.1180;4.5702;
471.0000;0.1074;4.5360;
471.3000;0.1074;4.5408;
471.6000;0.1083;4.5408;
471.9000;0.1066;4.5408;
472.2000;0.1131;4.5580;
472.5000;0.1066;4.5408;
472.8000;0.1099;4.5482;
473.1000;0.1115;4.5482;
473.4000;0.1091;4.5408;
473.7000;0.1091;4.5433;
474.0000;0.1083;4.5408;
474.3000;0.1074;4.5335;
474.6000;0.1058;4.5335;
474.9000;0.1074;4.5262;
475.2000;0.1083;4.5237;
475.5000;0.1074;4.5262;
475.8000;0.1058;4.5335;
476.1000;0.1066;4.5311;
476.4000;0.1091;4.5311;
476.7000;0.1091;4.5311;
477.0000;0.1074;4.5262;
477.3000;0.1050;4.5311;
477.6000;0.1050;4.5286;
477.9000;0.1074;4.5360;
478.2000;0.1058;4.5335;
478.5000;0.1066;4.5286;
478.8000;0.1066;4.5164;
479.1000;0.1083;4.5115;
479.4000;0.1083;4.5139;
479.7000;0.1091;4.5188;
480.0000;0.1083;4.5213;
480.3000;0.1099;4.5286;
480.6000;0.1099;4.5311;
480.9000;0.1091;4.5286;
481.2000;0.1074;4.5384;
481.5000;0.1091;4.5384;
481.8000;0.1066;4.5286;
482.1000;0.1009;4.5286;
482.4000;0.1066;4.5335;
482.7000;0.1099;4.5384;
483.0000;0.1099;4.5408;
483.3000;0.1066;4.5286;
483.6000;0.1058;4.5188;
483.9000;0.0977;4.4993;
484.2000;0.1083;4.5384;
484.5000;0.1058;4.5311;
484.8000;0.1083;4.5335;
485.1000;0.1099;4.5335;
485.4000;0.1058;4.5213;
485.7000;0.1050;4.5188;
486.0000;0.1066;4.5213;
486.3000;0.1172;4.5531;
486.6000;0.1050;4.5237;
486.9000;0.1123;4.5384;
487.2000;0.1099;4.5262;
487.5000;0.1066;4.5237;
487.8000;0.1083;4.5262;
488.1000;0.1066;4.5213;
488.4000;0.0977;4.4993;
488.7000;0.1083;4.5311;
489.0000;0.1074;4.5433;
489.3000;0.1058;4.5384;
489.6000;0.1058;4.5311;
489.9000;0.1074;4.5433;
490.2000;0.1091;4.5580;
490.5000;0.1107;4.5628;
490.8000;0.1091;4.5531;
491.1000;0.1066;4.5555;
491.4000;0.1148;4.5849;
491.7000;0.1074;4.5653;
492.0000;0.1026;4.5555;
492.3000;0.1099;4.5751;
492.6000;0.1074;4.5628;
492.9000;0.1074;4.5531;
493.2000;0.1123;4.5726;
493.5000;0.1123;4.5677;
493.8000;0.1050;4.5482;
494.1000;0.1083;4.5482;
494.4000;0.1091;4.5408;
494.7000;0.1074;4.5360;
495.0000;0.1058;4.5360;
495.3000;0.1083;4.5408;
495.6000;0.1083;4.5433;
495.9000;0.1148;4.5580;
496.2000;0.1083;4.5433;
496.5000;0.1050;4.5360;
496.8000;0.1058;4.5408;
497.1000;0.0993;4.5091;
497.4000;0.1058;4.5237;
497.7000;0.1066;4.5262;
498.0000;0.1083;4.5311;
498.3000;0.1107;4.5311;
498.6000;0.1083;4.5139;
498.9000;0.1091;4.5164;
499.2000;0.1091;4.5213;
499.5000;0.1164;4.5360;
499.8000;0.1099;4.5335;
500.1000;0.1074;4.5213;
500.4000;0.1091;4.5237;
500.7000;0.1074;4.5213;
501.0000;0.1050;4.5139;
501.3000;0.1058;4.5115;
501.6000;0.1066;4.5213;
501.9000;0.1083;4.5188;
502.2000;0.1074;4.5188;
502.5000;0.1066;4.5139;
502.8000;0.0977;4.4919;
503.1000;0.1074;4.5213;
503.4000;0.1074;4.5237;
503.7000;0.1091;4.5311;
504.0000;0.1074;4.5286;
504.3000;0.1050;4.5262;
504.6000;0.1083;4.5286;
504.9000;0.1164;4.5580;
505.2000;0.1074;4.5311;
505.5000;0.1066;4.5286;
505.8000;0.1091;4.5360;
506.1000;0.1083;4.5433;
506.4000;0.1091;4.5360;
506.7000;0.1083;4.5433;
507.0000;0.1099;4.5433;
507.3000;0.1099;4.5555;
507.6000;0.1074;4.5408;
507.9000;0.1083;4.5457;
508.2000;0.1091;4.5531;
508.5000;0.1091;4.5555;
508.8000;0.1074;4.5506;
509.1000;0.1074;4.5457;
509.4000;0.1197;4.5897;
509.7000;0.1091;4.5555;
510.0000;0.1066;4.5482;
510.3000;0.1074;4.5506;
510.6000;0.1099;4.5555;
510.9000;0.1180;4.5702;
511.2000;0.1066;4.5408;
511.5000;0.1066;4.5408;
511.8000;0.1083;4.5408;
512.1000;0.1091;4.5457;
512.4000;0.1074;4.5433;
512.7000;0.1083;4.5506;
513.0000;0.1074;4.5604;
513.3000;0.1091;4.5653;
513.6000;0.1066;4.5580;
513.9000;0.1083;4.5580;
514.2000;0.1091;4.5580;
514.5000;0.1066;4.5555;
514.8000;0.1058;4.5555;
515.1000;0.1091;4.5628;
515.4000;0.1123;4.5677;
515.7000;0.1042;4.5482;
516.0000;0.1058;4.5433;
516.3000;0.1058;4.5457;
516.6000;0.1074;4.5457;
516.9000;0.1058;4.5311;
517.2000;0.1026;4.5139;
517.5000;0.1107;4.5408;
517.8000;0.1066;4.5335;
518.1000;0.1091;4.5482;
518.4000;0.1091;4.5555;
518.7000;0.1034;4.5335;
519.0000;0.1066;4.5360;
519.3000;0.1099;4.5433;
519.6000;0.1115;4.5408;
519.9000;0.1107;4.5433;
520.2000;0.1140;4.5580;
520.5000;0.1107;4.5360;
520.8000;0.1074;4.5237;
521.1000;0.1066;4.5286;
521.4000;0.1074;4.5286;
521.7000;0.1091;4.5286;
522.0000;0.1074;4.5164;
522.3000;0.1083;4.5286;
522.6000;0.1034;4.5188;
522.9000;0.1083;4.5335;
523.2000;0.1058;4.5335;
523.5000;0.1091;4.5433;
523.8000;0.1107;4.5433;
524.1000;0.1091;4.5433;
524.4000;0.1066;4.5360;
524.7000;0.1034;4.5286;
525.0000;0.1066;4.5311;
525.3000;0.1074;4.5335;
525.6000;0.0985;4.5017;
525.9000;0.1074;4.5311;
526.2000;0.1066;4.5286;
526.5000;0.1091;4.5286;
526.8000;0.0993;4.5066;
527.1000;0.1026;4.5115;
527.4000;0.1074;4.5384;
527.7000;0.1083;4.5408;
528.0000;0.1066;4.5408;
528.3000;0.1083;4.5408;
528.6000;0.1074;4.5384;
528.9000;0.1083;4.5311;
529.2000;0.1131;4.5384;
529.5000;0.1140;4.5384;
529.8000;0.1099;4.5262;
530.1000;0.1058;4.5237;
530.4000;0.1107;4.5311;
530.7000;0.1107;4.5408;
531.0000;0.1018;4.5042;
531.3000;0.1083;4.5262;
531.6000;0.1083;4.5213;
531.9000;0.1050;4.5115;
532.2000;0.1099;4.5237;
532.5000;0.1083;4.5164;
532.8000;0.1018;4.5042;
533.1000;0.1074;4.5213;
533.4000;0.1034;4.5091;
533.7000;0.1066;4.5311;
534.0000;0.1091;4.5360;
534.3000;0.1091;4.5213;
534.6000;0.1091;4.5237;
534.9000;0.1083;4.5262;
535.2000;0.1091;4.5335;
535.5000;0.1091;4.5360;
535.8000;0.1066;4.5384;
536.1000;0.1107;4.5506;
536.4000;0.1083;4.5555;
536.7000;0.1091;4.5580;
537.0000;0.1050;4.5433;
537.3000;0.1123;4.5555;
537.6000;0.1066;4.5408;
537.9000;0.1107;4.5531;
538.2000;0.1083;4.5457;
538.5000;0.1074;4.5335;
538.8000;0.1099;4.5457;
539.1000;0.1107;4.5506;
539.4000;0.1115;4.5457;
539.7000;0.1091;4.5384;
540.0000;0.1042;4.5311;
540.3000;0.1091;4.5457;
540.6000;0.1074;4.5335;
540.9000;0.1058;4.5335;
541.2000;0.1074;4.5384;
541.5000;0.0985;4.5188;
541.8000;0.1091;4.5433;
542.1000;0.1091;4.5433;
542.4000;0.1074;4.5311;
542.7000;0.1091;4.5360;
543.0000;0.1074;4.5360;
543.3000;0.1091;4.5360;
543.6000;0.1083;4.5433;
543.9000;0.1074;4.5506;
544.2000;0.1091;4.5482;
544.5000;0.1074;4.5457;
544.8000;0.1050;4.5433;
545.1000;0.1050;4.5384;
545.4000;0.1058;4.5360;
545.7000;0.1050;4.5408;
546.0000;0.1058;4.5408;
546.3000;0.1074;4.5506;
546.6000;0.1058;4.5408;
546.9000;0.1099;4.5360;
547.2000;0.1074;4.5237;
547.5000;0.1107;4.5237;
547.8000;0.1091;4.5213;
548.1000;0.1050;4.5042;
548.4000;0.1091;4.5091;
548.7000;0.1099;4.5164;
549.0000;0.1026;4.4993;
549.3000;0.1099;4.5164;
549.6000;0.1050;4.5042;
549.9000;0.1058;4.5091;
550.2000;0.1058;4.5115;
550.5000;0.1091;4.5213;
550.8000;0.1050;4.5066;
551.1000;0.1107;4.5262;
551.4000;0.1083;4.5237;
551.7000;0.1091;4.5237;
552.0000;0.1074;4.5188;
552.3000;0.1066;4.5237;
552.6000;0.1083;4.5262;
552.9000;0.1074;4.5262;
553.2000;0.1091;4.5286;
553.5000;0.1074;4.5213;
553.8000;0.1091;4.5164;
554.1000;0.1074;4.5164;
554.4000;0.1058;4.5213;
554.7000;0.1066;4.5262;
555.0000;0.1066;4.5237;
555.3000;0.1083;4.5262;
555.6000;0.1083;4.5164;
555.9000;0.1099;4.5164;
556.2000;0.1050;4.5115;
556.5000;0.1050;4.5115;
556.8000;0.1099;4.5335;
557.1000;0.1099;4.5311;
557.4000;0.1099;4.5286;
557.7000;0.1099;4.5311;
558.0000;0.0993;4.4968;
558.3000;0.1066;4.5115;
558.6000;0.1083;4.5164;
558.9000;0.1083;4.5262;
559.2000;0.1058;4.5311;
559.5000;0.1156;4.5628;
559.8000;0.1066;4.5408;
560.1000;0.1050;4.5286;
560.4000;0.1066;4.5286;
560.7000;0.1083;4.5384;
561.0000;0.1074;4.5311;
561.3000;0.1123;4.5531;
561.6000;0.1107;4.5531;
561.9000;0.1091;4.5604;
562.2000;0.1034;4.5360;
562.5000;0.1107;4.5580;
562.8000;0.1066;4.5457;
563.1000;0.1091;4.5531;
563.4000;0.1099;4.5433;
563.7000;0.1066;4.5335;
564.0000;0.1074;4.5335;
564.3000;0.1083;4.5311;
564.6000;0.1042;4.5286;
564.9000;0.1066;4.5335;
565.2000;0.1058;4.5262;
565.5000;0.1074;4.5360;
565.8000;0.1172;4.5726;
566.1000;0.1058;4.5360;
566.4000;0.1050;4.5482;
566.7000;0.1026;4.5384;
567.0000;0.1083;4.5555;
567.3000;0.1091;4.5555;
567.6000;0.1009;4.5286;
567.9000;0.1074;4.5457;
568.2000;0.1083;4.5506;
568.5000;0.1099;4.5506;
568.8000;0.1034;4.5408;
569.1000;0.1074;4.5580;
569.4000;0.1091;4.5628;
569.7000;0.1099;4.5604;
570.0000;0.1083;4.5531;
570.3000;0.1074;4.5457;
570.6000;0.1091;4.5457;
570.9000;0.1083;4.5457;
571.2000;0.1083;4.5482;
571.5000;0.1074;4.5408;
571.8000;0.1058;4.5335;
572.1000;0.1123;4.5531;
572.4000;0.1099;4.5384;
572.7000;0.1083;4.5335;
573.0000;0.1107;4.5408;
573.3000;0.1083;4.5335;
573.6000;0.1066;4.5286;
573.9000;0.1083;4.5335;
574.2000;0.1091;4.5384;
574.5000;0.1083;4.5286;
574.8000;0.1115;4.5311;
575.1000;0.1074;4.5188;
575.4000;0.1115;4.5213;
575.7000;0.1083;4.4993;
576.0000;0.1074;4.5017;
576.3000;0.1066;4.5042;
576.6000;0.1091;4.5139;
576.9000;0.1091;4.5164;
577.2000;0.1091;4.5213;
577.5000;0.1107;4.5408;
577.8000;0.1042;4.5164;
578.1000;0.1083;4.5237;
578.4000;0.1115;4.5457;
578.7000;0.1058;4.5311;
579.0000;0.1091;4.5311;
579.3000;0.1018;4.5091;
579.6000;0.1099;4.5360;
579.9000;0.1066;4.5286;
580.2000;0.1099;4.5360;
580.5000;0.1066;4.5311;
580.8000;0.1050;4.5262;
581.1000;0.1074;4.5335;
581.4000;0.1123;4.5482;
581.7000;0.1099;4.5457;
582.0000;0.1083;4.5408;
582.3000;0.1091;4.5506;
582.6000;0.1083;4.5531;
582.9000;0.1099;4.5555;
583.2000;0.1091;4.5482;
583.5000;0.1083;4.5457;
583.8000;0.1172;4.5726;
584.1000;0.1066;4.5408;
584.4000;0.1066;4.5360;
584.7000;0.1115;4.5408;
585.0000;0.1074;4.5360;
585.3000;0.1034;4.5360;
585.6000;0.1058;4.5384;
585.9000;0.1123;4.5531;
586.2000;0.1050;4.5262;
586.5000;0.1140;4.5531;
586.8000;0.0985;4.5115;
587.1000;0.1140;4.5628;
587.4000;0.1074;4.5384;
587.7000;0.1058;4.5384;
588.0000;0.1050;4.5335;
588.3000;0.0961;4.5091;
588.6000;0.1074;4.5384;
588.9000;0.1026;4.5164;
589.2000;0.0952;4.4846;
589.5000;0.1034;4.4993;
589.8000;0.1115;4.5213;
590.1000;0.1034;4.4993;
590.4000;0.1066;4.5091;
590.7000;0.1018;4.4993;
591.0000;0.1042;4.5139;
591.3000;0.1091;4.5164;
591.6000;0.1091;4.5164;
591.9000;0.1091;4.5164;
592.2000;0.1091;4.5139;
592.5000;0.1099;4.5262;
592.8000;0.1091;4.5360;
593.1000;0.1099;4.5311;
593.4000;0.1083;4.5286;
593.7000;0.1066;4.5286;
594.0000;0.1083;4.5311;
594.3000;0.1066;4.5286;
594.6000;0.1066;4.5384;
594.9000;0.1083;4.5384;
595.2000;0.1091;4.5335;
595.5000;0.1066;4.5335;
595.8000;0.1074;4.5482;
596.1000;0.1091;4.5506;
596.4000;0.1091;4.5457;
596.7000;0.1058;4.5433;
597.0000;0.1148;4.5702;
597.3000;0.1050;4.5433;
597.6000;0.1074;4.5433;
597.9000;0.1091;4.5408;
598.2000;0.1050;4.5237;
598.5000;0.1058;4.5188;
598.8000;0.1034;4.5115;
599.1000;0.1099;4.5311;
599.4000;0.1156;4.5482;
599.7000;0.1074;4.5164;
600.0000;0.1074;4.5139;
600.3000;0.1009;4.4919;
600.6000;0.1058;4.4968;
600.9000;0.1050;4.4993;
601.2000;0.1066;4.4968;
601.5000;0.1042;4.4797;
601.8000;0.1026;4.4553;
602.1000;0.1034;4.4479;
602.4000;0.1058;4.4528;
602.7000;0.1083;4.4650;
603.0000;0.1066;4.4577;
603.3000;0.1034;4.4528;
603.6000;0.1050;4.4430;
603.9000;0.1018;4.4357;
604.2000;0.1018;4.4259;
604.5000;0.1131;4.4504;
604.8000;0.1018;4.4259;
605.1000;0.1034;4.4210;
605.4000;0.1018;4.4137;
605.7000;0.1018;4.4039;
606.0000;0.0993;4.3966;
606.3000;0.0993;4.3941;
606.6000;0.1001;4.3941;
606.9000;0.1001;4.3917;
607.2000;0.0993;4.3868;
607.5000;0.1083;4.4064;
607.8000;0.0985;4.3843;
608.1000;0.0993;4.3868;
608.4000;0.0993;4.3819;
608.7000;0.1050;4.3966;
609.0000;0.1091;4.4064;
609.3000;0.0961;4.3672;
609.6000;0.0952;4.3648;
609.9000;0.0887;4.3574;
610.2000;0.0969;4.3843;
610.5000;0.0993;4.3843;
610.8000;0.1001;4.3819;
611.1000;0.0985;4.3697;
611.4000;0.0985;4.3697;
611.7000;0.0969;4.3721;
612.0000;0.0985;4.3795;
612.3000;0.0969;4.3746;
612.6000;0.0879;4.3550;
612.9000;0.0977;4.3819;
613.2000;0.0928;4.3697;
613.5000;0.0961;4.3795;
613.8000;0.0969;4.3721;
614.1000;0.1107;4.4088;
614.4000;0.0936;4.3550;
614.7000;0.0936;4.3574;
615.0000;0.0961;4.3648;
615.3000;0.0952;4.3574;
615.6000;0.1050;4.3770;
615.9000;0.0952;4.3672;
616.2000;0.0985;4.3892;
616.5000;0.0969;4.3917;
616.8000;0.0977;4.3917;
617.1000;0.0952;4.3819;
617.4000;0.0936;4.3746;
617.7000;0.0977;4.3795;
618.0000;0.0928;4.3721;
618.3000;0.0961;4.3795;
618.6000;0.0961;4.3648;
618.9000;0.0961;4.3599;
619.2000;0.0952;4.3550;
619.5000;0.0952;4.3599;
619.8000;0.0952;4.3574;
620.1000;0.0961;4.3574;
620.4000;0.0952;4.3574;
620.7000;0.0936;4.3574;
621.0000;0.0944;4.3623;
621.3000;0.0977;4.3770;
621.6000;0.0936;4.3697;
621.9000;0.0912;4.3623;
622.2000;0.0904;4.3746;
622.5000;0.0961;4.3917;
622.8000;0.0952;4.3868;
623.1000;0.0985;4.3917;
623.4000;0.0936;4.3795;
623.7000;0.0961;4.3892;
624.0000;0.0961;4.3892;
624.3000;0.1018;4.4088;
624.6000;0.0863;4.3721;
624.9000;0.0920;4.3917;
625.2000;0.0904;4.3843;
625.5000;0.0928;4.3966;
625.8000;0.1018;4.4186;
626.1000;0.0887;4.3819;
626.4000;0.0928;4.3966;
626.7000;0.0912;4.3795;
627.0000;0.0936;4.3795;
627.3000;0.0928;4.3770;
627.6000;0.0904;4.3672;
627.9000;0.0969;4.3843;
628.2000;0.0912;4.3721;
628.5000;0.1009;4.4064;
628.8000;0.0952;4.3941;
629.1000;0.0936;4.3892;
629.4000;0.0920;4.3868;
629.7000;0.0928;4.3843;
630.0000;0.0904;4.3843;
630.3000;0.0920;4.3819;
630.6000;0.0912;4.3770;
630.9000;0.0944;4.3843;
631.2000;0.0928;4.3770;
631.5000;0.0944;4.3819;
631.8000;0.0912;4.3770;
632.1000;0.0928;4.3892;
632.4000;0.0871;4.3770;
632.7000;0.0912;4.3770;
633.0000;0.0936;4.3892;
633.3000;0.0944;4.3917;
633.6000;0.0920;4.3819;
633.9000;0.0863;4.3721;
634.2000;0.1026;4.4210;
634.5000;0.0887;4.3819;
634.8000;0.0904;4.3868;
635.1000;0.0920;4.3917;
635.4000;0.0952;4.4015;
635.7000;0.0920;4.4015;
636.0000;0.0887;4.3941;
636.3000;0.0887;4.3843;
636.6000;0.0781;4.3550;
636.9000;0.0920;4.3868;
637.2000;0.0920;4.3795;
637.5000;0.0928;4.3843;
637.8000;0.0928;4.3795;
638.1000;0.0920;4.3697;
638.4000;0.0912;4.3721;
638.7000;0.0912;4.3795;
639.0000;0.0920;4.3770;
639.3000;0.0936;4.3795;
639.6000;0.0936;4.3697;
639.9000;0.0871;4.3623;
640.2000;0.0904;4.3672;
640.5000;0.0904;4.3721;
640.8000;0.0904;4.3770;
641.1000;0.0936;4.3892;
641.4000;0.0895;4.3795;
641.7000;0.0920;4.3868;
642.0000;0.0912;4.3917;
642.3000;0.0920;4.3868;
642.6000;0.0928;4.3941;
642.9000;0.0887;4.3746;
643.2000;0.0871;4.3599;
643.5000;0.0912;4.3770;
643.8000;0.0920;4.3697;
644.1000;0.0904;4.3599;
644.4000;0.0879;4.3623;
644.7000;0.0936;4.3672;
645.0000;0.0920;4.3574;
645.3000;0.0977;4.3795;
645.6000;0.0895;4.3648;
645.9000;0.0887;4.3599;
646.2000;0.0904;4.3550;
646.5000;0.0847;4.3403;
646.8000;0.0920;4.3526;
647.1000;0.0863;4.3477;
647.4000;0.0912;4.3574;
647.7000;0.0895;4.3574;
648.0000;0.0944;4.3721;
648.3000;0.0912;4.3623;
648.6000;0.0912;4.3721;
648.9000;0.0895;4.3721;
649.2000;0.0928;4.3819;
649.5000;0.0912;4.3819;
649.8000;0.0895;4.3746;
650.1000;0.0912;4.3843;
650.4000;0.0912;4.3795;
650.7000;0.0904;4.3819;
651.0000;0.0822;4.3574;
651.3000;0.0904;4.3746;
651.6000;0.0838;4.3501;
651.9000;0.0912;4.3721;
652.2000;0.0879;4.3672;
652.5000;0.0904;4.3770;
652.8000;0.0895;4.3697;
653.1000;0.0904;4.3697;
653.4000;0.0912;4.3599;
653.7000;0.0895;4.3452;
654.0000;0.0879;4.3428;
654.3000;0.0912;4.3574;
654.6000;0.0904;4.3599;
654.9000;0.0871;4.3501;
655.2000;0.0887;4.3648;
655.5000;0.0920;4.3672;
655.8000;0.0952;4.3843;
656.1000;0.0920;4.3868;
656.4000;0.0871;4.3672;
656.7000;0.0871;4.3574;
657.0000;0.0912;4.3746;
657.3000;0.0895;4.3770;
657.6000;0.1026;4.4112;
657.9000;0.0822;4.3452;
658.2000;0.0887;4.3672;
658.5000;0.0944;4.3795;
658.8000;0.0806;4.3574;
659.1000;0.0879;4.3672;
659.4000;0.0863;4.3697;
659.7000;0.0814;4.3550;
660.0000;0.0855;4.3770;
660.3000;0.0847;4.3623;
660.6000;0.0879;4.3819;
660.9000;0.0904;4.3868;
661.2000;0.0887;4.3770;
661.5000;0.0904;4.3770;
661.8000;0.0887;4.3795;
662.1000;0.0887;4.3770;
662.4000;0.0879;4.3795;
662.7000;0.0895;4.3843;
663.0000;0.0904;4.3892;
663.3000;0.0912;4.3892;
663.6000;0.0847;4.3623;
663.9000;0.0887;4.3648;
664.2000;0.0879;4.3550;
664.5000;0.0895;4.3599;
664.8000;0.0928;4.3746;
665.1000;0.0904;4.3770;
665.4000;0.0904;4.3795;
665.7000;0.0887;4.3697;
666.0000;0.0904;4.3770;
666.3000;0.0904;4.3795;
666.6000;0.0887;4.3770;
666.9000;0.0904;4.3819;
667.2000;0.0944;4.3868;
667.5000;0.0887;4.3770;
667.8000;0.0887;4.3868;
668.1000;0.0806;4.3599;
668.4000;0.0928;4.3917;
668.7000;0.0887;4.3770;
669.0000;0.0879;4.3746;
669.3000;0.0879;4.3819;
669.6000;0.0895;4.3892;
669.9000;0.0879;4.3892;
670.2000;0.0895;4.3843;
670.5000;0.0895;4.3868;
670.8000;0.0895;4.3868;
671.1000;0.0887;4.3892;
671.4000;0.0887;4.3868;
671.7000;0.0887;4.3892;
672.0000;0.0912;4.3941;
672.3000;0.0871;4.3770;
672.6000;0.0928;4.3819;
672.9000;0.0855;4.3672;
673.2000;0.0887;4.3770;
673.5000;0.0904;4.3770;
673.8000;0.0863;4.3599;
674.1000;0.0904;4.3795;
674.4000;0.0741;4.3354;
674.7000;0.0895;4.3892;
675.0000;0.0879;4.3917;
675.3000;0.0879;4.3941;
675.6000;0.0912;4.3941;
675.9000;0.0904;4.3892;
676.2000;0.0895;4.3819;
676.5000;0.0863;4.3770;
676.8000;0.0887;4.3819;
677.1000;0.0887;4.3697;
677.4000;0.0879;4.3721;
677.7000;0.0920;4.3795;
678.0000;0.0904;4.3746;
678.3000;0.0871;4.3795;
678.6000;0.0904;4.3868;
678.9000;0.0855;4.3721;
679.2000;0.0887;4.3795;
679.5000;0.0887;4.3795;
679.8000;0.0830;4.3697;
680.1000;0.0895;4.3917;
680.4000;0.0863;4.3892;
680.7000;0.0879;4.3941;
681.0000;0.0871;4.3917;
681.3000;0.0912;4.4039;
681.6000;0.0944;4.4088;
681.9000;0.0895;4.3892;
682.2000;0.0993;4.4186;
682.5000;0.0863;4.3843;
682.8000;0.0863;4.3795;
683.1000;0.0855;4.3672;
683.4000;0.0912;4.3819;
683.7000;0.0887;4.3746;
684.0000;0.0879;4.3892;
684.3000;0.0895;4.4039;
684.6000;0.0887;4.4064;
684.9000;0.0895;4.4064;
685.2000;0.0879;4.4088;
685.5000;0.0879;4.4015;
685.8000;0.0855;4.3941;
686.1000;0.0895;4.4039;
686.4000;0.0895;4.3917;
686.7000;0.0887;4.3941;
687.0000;0.0863;4.3819;
687.3000;0.0887;4.3941;
687.6000;0.0895;4.3917;
687.9000;0.0879;4.3892;
688.2000;0.0871;4.3941;
688.5000;0.0904;4.4015;
688.8000;0.0912;4.4039;
689.1000;0.0879;4.3966;
689.4000;0.0871;4.4015;
689.7000;0.0895;4.4064;
690.0000;0.0895;4.4088;
690.3000;0.0863;4.3941;
690.6000;0.0904;4.4064;
690.9000;0.0936;4.4284;
691.2000;0.0904;4.4210;
691.5000;0.0904;4.4210;
691.8000;0.0879;4.4137;
692.1000;0.0887;4.4088;
692.4000;0.0887;4.4015;
692.7000;0.0879;4.3966;
693.0000;0.0871;4.3941;
693.3000;0.0895;4.4039;
693.6000;0.0895;4.4064;
693.9000;0.0887;4.4039;
694.2000;0.0887;4.3990;
694.5000;0.0871;4.3892;
694.8000;0.0912;4.3917;
695.1000;0.0895;4.3941;
695.4000;0.0895;4.3966;
695.7000;0.0920;4.4039;
696.0000;0.0895;4.3966;
696.3000;0.0895;4.3941;
696.6000;0.0936;4.3941;
696.9000;0.0879;4.3770;
697.2000;0.0879;4.3795;
697.5000;0.0814;4.3599;
697.8000;0.0879;4.3770;
698.1000;0.0895;4.3746;
698.4000;0.0806;4.3526;
698.7000;0.0863;4.3795;
699.0000;0.0895;4.3843;
699.3000;0.0912;4.3843;
699.6000;0.0969;4.3941;
699.9000;0.0912;4.3917;
700.2000;0.0920;4.3990;
700.5000;0.0855;4.3868;
700.8000;0.0887;4.3917;
701.1000;0.0879;4.3990;
701.4000;0.0904;4.3990;
701.7000;0.0928;4.4039;
702.0000;0.0879;4.3917;
702.3000;0.0863;4.3990;
702.6000;0.0895;4.4039;
702.9000;0.0904;4.3966;
703.2000;0.0887;4.3941;
703.5000;0.0887;4.3990;
703.8000;0.0887;4.3868;
704.1000;0.0879;4.3941;
704.4000;0.0879;4.3966;
704.7000;0.0879;4.3966;
705.0000;0.0887;4.3917;
705.3000;0.0895;4.3843;
705.6000;0.0879;4.3843;
705.9000;0.0879;4.3819;
706.2000;0.0944;4.3941;
706.5000;0.0895;4.3843;
706.8000;0.0895;4.3917;
707.1000;0.0879;4.3843;
707.4000;0.0879;4.3746;
707.7000;0.0757;4.3452;
708.0000;0.0895;4.3868;
708.3000;0.0871;4.3795;
708.6000;0.0904;4.3770;
708.9000;0.0904;4.3795;
709.2000;0.0887;4.3795;
709.5000;0.0895;4.3721;
709.8000;0.0879;4.3697;
710.1000;0.0887;4.3721;
710.4000;0.0887;4.3770;
710.7000;0.0855;4.3648;
711.0000;0.0895;4.3770;
711.3000;0.0887;4.3746;
711.6000;0.0871;4.3697;
711.9000;0.0895;4.3648;
712.2000;0.0871;4.3623;
712.5000;0.0863;4.3623;
712.8000;0.0871;4.3648;
713.1000;0.0879;4.3672;
713.4000;0.0912;4.3770;
713.7000;0.0847;4.3648;
714.0000;0.0887;4.3770;
714.3000;0.0871;4.3746;
714.6000;0.0830;4.3721;
714.9000;0.0887;4.3917;
715.2000;0.0895;4.3917;
715.5000;0.0879;4.3795;
715.8000;0.0879;4.3770;
716.1000;0.0887;4.3721;
716.4000;0.0855;4.3672;
716.7000;0.0871;4.3746;
717.0000;0.0895;4.3892;
717.3000;0.0895;4.3868;
717.6000;0.0904;4.3868;
717.9000;0.0912;4.3941;
718.2000;0.0879;4.3941;
718.5000;0.0741;4.3574;
718.8000;0.0952;4.4064;
719.1000;0.0887;4.3868;
719.4000;0.0952;4.3917;
719.7000;0.0928;4.3746;
720.0000;0.0855;4.3550;
720.3000;0.0920;4.3721;
720.6000;0.0822;4.3452;
720.9000;0.0838;4.3452;
721.2000;0.0855;4.3550;
721.5000;0.0871;4.3599;
721.8000;0.0855;4.3477;
722.1000;0.0879;4.3501;
722.4000;0.0912;4.3648;
722.7000;0.0879;4.3623;
723.0000;0.0863;4.3672;
723.3000;0.0887;4.3770;
723.6000;0.0920;4.3868;
723.9000;0.0830;4.3648;
724.2000;0.0895;4.3672;
724.5000;0.0895;4.3672;
724.8000;0.0847;4.3526;
725.1000;0.0871;4.3599;
725.4000;0.0895;4.3574;
725.7000;0.0879;4.3550;
726.0000;0.0879;4.3526;
726.3000;0.0887;4.3526;
726.6000;0.0887;4.3574;
726.9000;0.0855;4.3526;
727.2000;0.0871;4.3721;
727.5000;0.0879;4.3697;
727.8000;0.0863;4.3672;
728.1000;0.0912;4.3697;
728.4000;0.0895;4.3648;
728.7000;0.0887;4.3648;
729.0000;0.0920;4.3795;
729.3000;0.0838;4.3599;
729.6000;0.0879;4.3721;
729.9000;0.0879;4.3770;
730.2000;0.0887;4.3843;
730.5000;0.0863;4.3819;
730.8000;0.0871;4.3795;
731.1000;0.0887;4.3917;
731.4000;0.0855;4.3892;
731.7000;0.0871;4.3966;
732.0000;0.0887;4.4015;
732.3000;0.0904;4.4015;
732.6000;0.0879;4.4039;
732.9000;0.0904;4.4015;
733.2000;0.0879;4.3892;
733.5000;0.0912;4.3966;
733.8000;0.0871;4.3941;
734.1000;0.0879;4.3941;
734.4000;0.0871;4.3990;
734.7000;0.0895;4.4064;
735.0000;0.0895;4.4039;
735.3000;0.0887;4.4064;
735.6000;0.0887;4.3917;
735.9000;0.0879;4.3819;
736.2000;0.0838;4.3746;
736.5000;0.0822;4.3721;
736.8000;0.0879;4.3917;
737.1000;0.0887;4.3990;
737.4000;0.0871;4.3966;
737.7000;0.0871;4.3941;
738.0000;0.0904;4.3966;
738.3000;0.0904;4.3917;
738.6000;0.0871;4.3843;
738.9000;0.0765;4.3574;
739.2000;0.0879;4.3941;
739.5000;0.0830;4.3868;
739.8000;0.0879;4.4015;
740.1000;0.0781;4.3819;
740.4000;0.1026;4.4504;
740.7000;0.0912;4.4186;
741.0000;0.0887;4.4039;
741.3000;0.0871;4.3990;
741.6000;0.0871;4.3892;
741.9000;0.0847;4.3721;
742.2000;0.0871;4.3819;
742.5000;0.0887;4.3966;
742.8000;0.0895;4.4039;
743.1000;0.0879;4.3966;
743.4000;0.0895;4.4015;
743.7000;0.0895;4.4015;
744.0000;0.0879;4.3917;
744.3000;0.0904;4.4039;
744.6000;0.0895;4.3990;
744.9000;0.0838;4.3868;
745.2000;0.0879;4.3990;
745.5000;0.0879;4.3990;
745.8000;0.0855;4.3917;
746.1000;0.0879;4.3990;
746.4000;0.0863;4.3941;
746.7000;0.0879;4.4039;
747.0000;0.0863;4.4015;
747.3000;0.0912;4.4039;
747.6000;0.0887;4.3868;
747.9000;0.0879;4.3892;
748.2000;0.0855;4.3868;
748.5000;0.0887;4.3990;
748.8000;0.0879;4.4088;
749.1000;0.0871;4.4137;
749.4000;0.0887;4.4137;
749.7000;0.0863;4.4064;
750.0000;0.0887;4.4039;
750.3000;0.0871;4.3868;
750.6000;0.0855;4.3770;
750.9000;0.0936;4.4015;
751.2000;0.0879;4.3917;
751.5000;0.0879;4.3843;
751.8000;0.0895;4.3966;
752.1000;0.0887;4.3966;
752.4000;0.0920;4.3990;
752.7000;0.0879;4.3892;
753.0000;0.0879;4.3966;
753.3000;0.0895;4.3990;
753.6000;0.0863;4.3892;
753.9000;0.0887;4.3892;
754.2000;0.0961;4.4064;
754.5000;0.0879;4.3868;
754.8000;0.0830;4.3721;
755.1000;0.0887;4.3770;
755.4000;0.0879;4.3746;
755.7000;0.0838;4.3648;
756.0000;0.0895;4.3868;
756.3000;0.0887;4.3892;
756.6000;0.0863;4.3746;
756.9000;0.0871;4.3697;
757.2000;0.0895;4.3770;
757.5000;0.0879;4.3795;
757.8000;0.0830;4.3721;
758.1000;0.0871;4.3795;
758.4000;0.0855;4.3746;
758.7000;0.0887;4.3868;
759.0000;0.0879;4.3868;
759.3000;0.0863;4.3941;
759.6000;0.0887;4.3990;
759.9000;0.0895;4.4015;
760.2000;0.0904;4.4064;
760.5000;0.0879;4.3966;
760.8000;0.0855;4.3966;
761.1000;0.0871;4.3990;
761.4000;0.0920;4.4137;
761.7000;0.0895;4.4039;
762.0000;0.0912;4.4137;
762.3000;0.0847;4.3990;
762.6000;0.0871;4.3990;
762.9000;0.0879;4.4112;
763.2000;0.0863;4.4064;
763.5000;0.0855;4.4064;
763.8000;0.0887;4.4137;
764.1000;0.0847;4.3941;
764.4000;0.0814;4.3917;
764.7000;0.0863;4.4088;
765.0000;0.0847;4.4161;
765.3000;0.0855;4.4112;
765.6000;0.0765;4.3892;
765.9000;0.0879;4.4015;
766.2000;0.0871;4.3966;
766.5000;0.0855;4.3892;
766.8000;0.0879;4.3941;
767.1000;0.0838;4.3917;
767.4000;0.0847;4.3868;
767.7000;0.0863;4.3941;
768.0000;0.0879;4.3990;
768.3000;0.0871;4.3966;
768.6000;0.0936;4.4186;
768.9000;0.0871;4.3966;
769.2000;0.0879;4.3966;
769.5000;0.0863;4.4015;
769.8000;0.0895;4.4112;
770.1000;0.0855;4.4039;
770.4000;0.0855;4.4039;
770.7000;0.0863;4.3990;
771.0000;0.0944;4.4112;
771.3000;0.0855;4.3941;
771.6000;0.0814;4.3892;
771.9000;0.0855;4.3990;
772.2000;0.0887;4.4112;
772.5000;0.0904;4.4161;
772.8000;0.0887;4.4186;
773.1000;0.0895;4.4235;
773.4000;0.0879;4.4112;
773.7000;0.0847;4.3990;
774.0000;0.0847;4.4064;
774.3000;0.0855;4.4112;
774.6000;0.0798;4.3917;
774.9000;0.0871;4.4161;
775.2000;0.0904;4.4308;
775.5000;0.0879;4.4235;
775.8000;0.0887;4.4235;
776.1000;0.0871;4.4161;
776.4000;0.0822;4.4161;
776.7000;0.0904;4.4333;
777.0000;0.0830;4.4112;
777.3000;0.0765;4.3966;
777.6000;0.0977;4.4528;
777.9000;0.0855;4.4112;
778.2000;0.0969;4.4406;
778.5000;0.0879;4.4161;
778.8000;0.0895;4.4161;
779.1000;0.0871;4.4064;
779.4000;0.0912;4.4210;
779.7000;0.0887;4.4088;
780.0000;0.0887;4.4137;
780.3000;0.0871;4.4112;
780.6000;0.0887;4.4112;
780.9000;0.0863;4.4088;
781.2000;0.0879;4.4039;
781.5000;0.0871;4.3990;
781.8000;0.0847;4.3892;
782.1000;0.0879;4.3990;
782.4000;0.0895;4.4112;
782.7000;0.0904;4.4088;
783.0000;0.0871;4.3990;
783.3000;0.0879;4.3843;
783.6000;0.0920;4.3990;
783.9000;0.0871;4.3843;
784.2000;0.0920;4.3966;
784.5000;0.0863;4.3892;
784.8000;0.0871;4.4039;
785.1000;0.0879;4.4137;
785.4000;0.0871;4.4088;
785.7000;0.0863;4.4088;
786.0000;0.0920;4.4235;
786.3000;0.0871;4.4161;
786.6000;0.0863;4.4088;
786.9000;0.0847;4.4039;
787.2000;0.0879;4.4039;
787.5000;0.0847;4.3868;
787.8000;0.0871;4.3868;
788.1000;0.0944;4.4015;
788.4000;0.0879;4.3819;
788.7000;0.0871;4.3843;
789.0000;0.0855;4.3843;
789.3000;0.0961;4.4112;
789.6000;0.0863;4.3917;
789.9000;0.0855;4.3917;
790.2000;0.0855;4.3917;
790.5000;0.1018;4.4381;
790.8000;0.0928;4.4015;
791.1000;0.0855;4.3795;
791.4000;0.0912;4.3941;
791.7000;0.0838;4.3770;
792.0000;0.0879;4.4015;
792.3000;0.0871;4.4112;
792.6000;0.0920;4.4235;
792.9000;0.0895;4.4088;
793.2000;0.0904;4.4210;
793.5000;0.0871;4.4064;
793.8000;0.0887;4.4088;
794.1000;0.0871;4.4064;
794.4000;0.0895;4.4064;
794.7000;0.0871;4.3966;
795.0000;0.0749;4.3697;
795.3000;0.0879;4.3966;
795.6000;0.0871;4.3917;
795.9000;0.0887;4.4064;
796.2000;0.0855;4.3966;
796.5000;0.0920;4.4161;
796.8000;0.0871;4.4064;
797.1000;0.0863;4.3990;
797.4000;0.0863;4.3966;
797.7000;0.0879;4.4112;
798.0000;0.0871;4.4137;
798.3000;0.0847;4.4088;
798.6000;0.0879;4.4137;
798.9000;0.0863;4.4137;
799.2000;0.0847;4.4137;
799.5000;0.0863;4.4259;
799.8000;0.0855;4.4161;
800.1000;0.0855;4.4235;
800.4000;0.0863;4.4259;
800.7000;0.0863;4.4259;
801.0000;0.0871;4.4210;
801.3000;0.0879;4.4161;
801.6000;0.0847;4.4112;
801.9000;0.0871;4.4137;
802.2000;0.0904;4.4161;
802.5000;0.0904;4.4161;
802.8000;0.0895;4.4064;
803.1000;0.0879;4.4088;
803.4000;0.0790;4.3746;
803.7000;0.0871;4.4039;
804.0000;0.0936;4.4137;
804.3000;0.0887;4.4039;
804.6000;0.0879;4.4088;
804.9000;0.0871;4.4064;
805.2000;0.0863;4.4088;
805.5000;0.0904;4.4161;
805.8000;0.0855;4.4161;
806.1000;0.0871;4.4064;
806.4000;0.0838;4.3941;
806.7000;0.0871;4.3990;
807.0000;0.0879;4.4015;
807.3000;0.0936;4.4161;
807.6000;0.0863;4.3941;
807.9000;0.0879;4.3966;
808.2000;0.0879;4.4039;
808.5000;0.0895;4.4064;
808.8000;0.0879;4.3990;
809.1000;0.0871;4.3917;
809.4000;0.0871;4.3966;
809.7000;0.0871;4.3941;
810.0000;0.0863;4.3892;
810.3000;0.0871;4.3868;
810.6000;0.0887;4.3941;
810.9000;0.0879;4.3941;
811.2000;0.0871;4.4015;
811.5000;0.0855;4.4015;
811.8000;0.0863;4.4112;
812.1000;0.0879;4.4112;
812.4000;0.0847;4.3990;
812.7000;0.0863;4.3990;
813.0000;0.0855;4.3941;
813.3000;0.0887;4.3990;
813.6000;0.0871;4.3990;
813.9000;0.0871;4.3917;
814.2000;0.0904;4.3941;
814.5000;0.0879;4.3868;
814.8000;0.0977;4.4088;
815.1000;0.0855;4.3868;
815.4000;0.0863;4.3917;
815.7000;0.0912;4.4039;
816.0000;0.0871;4.3941;
816.3000;0.0887;4.4039;
816.6000;0.0806;4.3892;
816.9000;0.0904;4.4112;
817.2000;0.0871;4.4137;
817.5000;0.0806;4.3966;
817.8000;0.0904;4.4210;
818.1000;0.0879;4.4210;
818.4000;0.0887;4.4259;
818.7000;0.0887;4.4161;
819.0000;0.0879;4.4161;
819.3000;0.0863;4.4064;
819.6000;0.0871;4.4088;
819.9000;0.0879;4.4112;
820.2000;0.0855;4.4088;
820.5000;0.0863;4.4064;
820.8000;0.0879;4.4137;
821.1000;0.0863;4.4064;
821.4000;0.0863;4.4064;
821.7000;0.0863;4.4137;
822.0000;0.0855;4.4039;
822.3000;0.0863;4.4064;
822.6000;0.0895;4.4210;
822.9000;0.0879;4.4137;
823.2000;0.0871;4.4137;
823.5000;0.0895;4.4112;
823.8000;0.0928;4.4259;
824.1000;0.0863;4.4088;
824.4000;0.0855;4.3990;
824.7000;0.0838;4.3892;
825.0000;0.0879;4.3966;
825.3000;0.0887;4.4112;
825.6000;0.0887;4.4161;
825.9000;0.0830;4.4015;
826.2000;0.0855;4.4064;
826.5000;0.0879;4.4186;
826.8000;0.0838;4.4112;
827.1000;0.0895;4.4210;
827.4000;0.0928;4.4357;
827.7000;0.0871;4.4088;
828.0000;0.0863;4.4088;
828.3000;0.0879;4.4161;
828.6000;0.0879;4.4137;
828.9000;0.0855;4.4112;
829.2000;0.0879;4.4137;
829.5000;0.0887;4.4137;
829.8000;0.0895;4.4112;
830.1000;0.0871;4.4064;
830.4000;0.0879;4.4064;
830.7000;0.0871;4.4015;
831.0000;0.0879;4.4064;
831.3000;0.0863;4.3917;
831.6000;0.0887;4.3966;
831.9000;0.0847;4.3917;
832.2000;0.0855;4.3990;
832.5000;0.0887;4.4161;
832.8000;0.0887;4.4186;
833.1000;0.0871;4.4186;
833.4000;0.0830;4.4039;
833.7000;0.0879;4.4137;
834.0000;0.0855;4.4137;
834.3000;0.0879;4.4161;
834.6000;0.0863;4.4088;
834.9000;0.0847;4.3966;
835.2000;0.0863;4.4015;
835.5000;0.0855;4.3941;
835.8000;0.0838;4.3990;
836.1000;0.0879;4.4088;
836.4000;0.0920;4.4186;
836.7000;0.0879;4.4039;
837.0000;0.0838;4.4039;
837.3000;0.0863;4.4137;
837.6000;0.0838;4.4064;
837.9000;0.0879;4.4137;
838.2000;0.0863;4.3990;
838.5000;0.0822;4.3819;
838.8000;0.0879;4.3990;
839.1000;0.0871;4.3966;
839.4000;0.0920;4.4088;
839.7000;0.0838;4.3917;
840.0000;0.0904;4.4064;
840.3000;0.0895;4.4039;
840.6000;0.0879;4.3966;
840.9000;0.0871;4.4015;
841.2000;0.0871;4.3990;
841.5000;0.0904;4.4039;
841.8000;0.0879;4.3990;
842.1000;0.0879;4.4064;
842.4000;0.0879;4.4015;
842.7000;0.0855;4.3941;
843.0000;0.0985;4.4284;
843.3000;0.0847;4.3868;
843.6000;0.0879;4.3917;
843.9000;0.0879;4.3892;
844.2000;0.0879;4.3990;
844.5000;0.0863;4.4015;
844.8000;0.0879;4.3990;
845.1000;0.0871;4.4015;
845.4000;0.0822;4.3990;
845.7000;0.0855;4.4112;
846.0000;0.0887;4.4284;
846.3000;0.0863;4.4210;
846.6000;0.0887;4.4210;
846.9000;0.0871;4.4088;
847.2000;0.0871;4.4088;
847.5000;0.0838;4.4039;
847.8000;0.0871;4.3966;
848.1000;0.0871;4.3892;
848.4000;0.0765;4.3648;
848.7000;0.0879;4.4015;
849.0000;0.0822;4.3843;
849.3000;0.0863;4.3819;
849.6000;0.0863;4.3819;
849.9000;0.0879;4.3966;
850.2000;0.0863;4.3892;
850.5000;0.0887;4.3941;
850.8000;0.0847;4.3746;
851.1000;0.0790;4.3672;
851.4000;0.0904;4.3892;
851.7000;0.0830;4.3770;
852.0000;0.0887;4.4015;
852.3000;0.0879;4.4015;
852.6000;0.0887;4.4015;
852.9000;0.0879;4.3990;
853.2000;0.0863;4.3966;
853.5000;0.0887;4.4112;
853.8000;0.0895;4.4186;
854.1000;0.0855;4.4137;
854.4000;0.0871;4.4259;
854.7000;0.0724;4.3819;
855.0000;0.0879;4.4186;
855.3000;0.0855;4.4137;
855.6000;0.0895;4.4161;
855.9000;0.0855;4.4137;
856.2000;0.0724;4.3795;
856.5000;0.0879;4.4112;
856.8000;0.0838;4.3917;
857.1000;0.0855;4.3966;
857.4000;0.0879;4.4088;
857.7000;0.0871;4.4088;
858.0000;0.0887;4.4112;
858.3000;0.0879;4.4088;
858.6000;0.0847;4.4088;
858.9000;0.0863;4.4088;
859.2000;0.0887;4.4088;
859.5000;0.0871;4.4039;
859.8000;0.0847;4.4015;
860.1000;0.0879;4.4064;
860.4000;0.0879;4.4015;
860.7000;0.0863;4.4064;
861.0000;0.0863;4.4137;
861.3000;0.0871;4.4186;
861.6000;0.0822;4.4112;
861.9000;0.0879;4.4186;
862.2000;0.0871;4.4137;
862.5000;0.0887;4.4235;
862.8000;0.0895;4.4284;
863.1000;0.0871;4.4137;
863.4000;0.0879;4.4088;
863.7000;0.0879;4.4088;
864.0000;0.0895;4.4088;
864.3000;0.0871;4.4161;
864.6000;0.0863;4.4112;
864.9000;0.0863;4.4112;
865.2000;0.0904;4.4137;
865.5000;0.0847;4.4015;
865.8000;0.0847;4.3966;
866.1000;0.0855;4.3966;
866.4000;0.0879;4.3917;
866.7000;0.0798;4.3672;
867.0000;0.0863;4.3941;
867.3000;0.0887;4.4088;
867.6000;0.0871;4.4064;
867.9000;0.0879;4.4088;
868.2000;0.0961;4.4357;
868.5000;0.0781;4.3843;
868.8000;0.0895;4.4161;
869.1000;0.0847;4.3966;
869.4000;0.0830;4.3966;
869.7000;0.0716;4.3697;
870.0000;0.0887;4.4064;
870.3000;0.0871;4.4064;
870.6000;0.0928;4.4186;
870.9000;0.0871;4.4064;
871.2000;0.0847;4.4088;
871.5000;0.0773;4.3990;
871.8000;0.0928;4.4430;
872.1000;0.0887;4.4235;
872.4000;0.0912;4.4259;
872.7000;0.0887;4.4235;
873.0000;0.0895;4.4186;
873.3000;0.0904;4.4137;
873.6000;0.0879;4.4039;
873.9000;0.0879;4.4015;
874.2000;0.0871;4.4039;
874.5000;0.0871;4.4064;
874.8000;0.0863;4.4039;
875.1000;0.0806;4.3966;
875.4000;0.0863;4.4064;
875.7000;0.0887;4.4112;
876.0000;0.0895;4.4112;
876.3000;0.0863;4.4039;
876.6000;0.0863;4.4088;
876.9000;0.0871;4.3990;
877.2000;0.0928;4.4064;
877.5000;0.0879;4.3917;
877.8000;0.0879;4.3892;
878.1000;0.0863;4.4015;
878.4000;0.0871;4.3990;
878.7000;0.0871;4.4039;
879.0000;0.0895;4.4064;
879.3000;0.0814;4.3917;
879.6000;0.0879;4.4088;
879.9000;0.0879;4.4039;
880.2000;0.0806;4.3990;
880.5000;0.0879;4.4186;
880.8000;0.0871;4.4308;
881.1000;0.0904;4.4430;
881.4000;0.0887;4.4430;
881.7000;0.0855;4.4259;
882.0000;0.0838;4.4210;
882.3000;0.0871;4.4308;
882.6000;0.0871;4.4235;
882.9000;0.0863;4.4259;
883.2000;0.0879;4.4308;
883.5000;0.0855;4.4259;
883.8000;0.0847;4.4235;
884.1000;0.0879;4.4210;
884.4000;0.0798;4.4064;
884.7000;0.0847;4.4210;
885.0000;0.0863;4.4210;
885.3000;0.0871;4.4259;
885.6000;0.0961;4.4601;
885.9000;0.0855;4.4284;
886.2000;0.0887;4.4333;
886.5000;0.0847;4.4235;
886.8000;0.0806;4.4137;
887.1000;0.0879;4.4210;
887.4000;0.0847;4.4064;
887.7000;0.0944;4.4406;
888.0000;0.0855;4.4015;
888.3000;0.0879;4.4064;
888.6000;0.0879;4.4015;
888.9000;0.0871;4.4015;
889.2000;0.0879;4.4015;
889.5000;0.0871;4.4039;
889.8000;0.0871;4.3990;
890.1000;0.0871;4.4039;
890.4000;0.0879;4.4112;
890.7000;0.0920;4.4210;
891.0000;0.0863;4.4039;
891.3000;0.0871;4.3990;
891.6000;0.0863;4.3966;
891.9000;0.0895;4.4064;
892.2000;0.0895;4.4064;
892.5000;0.0993;4.4333;
892.8000;0.0863;4.3917;
893.1000;0.0895;4.3966;
893.4000;0.0871;4.3843;
893.7000;0.0985;4.4161;
894.0000;0.0895;4.3966;
894.3000;0.0887;4.3941;
894.6000;0.0904;4.3892;
894.9000;0.0863;4.3843;
895.2000;0.0798;4.3697;
895.5000;0.0887;4.3868;
895.8000;0.0887;4.3892;
896.1000;0.0871;4.3868;
896.4000;0.0879;4.3868;
896.7000;0.0895;4.3917;
897.0000;0.0887;4.3868;
897.3000;0.0879;4.3843;
897.6000;0.0879;4.3917;
897.9000;0.0871;4.3843;
898.2000;0.0879;4.3917;
898.5000;0.0887;4.3892;
898.8000;0.0838;4.3892;
899.1000;0.0871;4.3868;
899.4000;0.0895;4.3917;
899.7000;0.0847;4.3819;
900.0000;0.0879;4.3917;
900.3000;0.0863;4.3843;
900.6000;0.0871;4.3892;
900.9000;0.0847;4.3941;
901.2000;0.0871;4.4039;
901.5000;0.0871;4.4088;
901.8000;0.0871;4.4039;
902.1000;0.0871;4.4088;
902.4000;0.0871;4.4039;
902.7000;0.0863;4.3966;
903.0000;0.0879;4.4039;
903.3000;0.0887;4.4112;
903.6000;0.0879;4.4137;
903.9000;0.0871;4.4137;
904.2000;0.0871;4.4186;
904.5000;0.0887;4.4235;
904.8000;0.0879;4.4259;
905.1000;0.0790;4.4088;
905.4000;0.0912;4.4381;
905.7000;0.0871;4.4235;
906.0000;0.0863;4.4186;
906.3000;0.0749;4.3843;
906.6000;0.0887;4.4161;
906.9000;0.0879;4.4088;
907.2000;0.0887;4.4039;
907.5000;0.0887;4.4015;
907.8000;0.0863;4.3990;
908.1000;0.0847;4.3941;
908.4000;0.0798;4.3819;
908.7000;0.0895;4.4015;
909.0000;0.0855;4.3917;
909.3000;0.0863;4.4015;
909.6000;0.0871;4.3966;
909.9000;0.0863;4.3990;
910.2000;0.0871;4.3966;
910.5000;0.0863;4.3966;
910.8000;0.0855;4.3990;
911.1000;0.0879;4.4039;
911.4000;0.0847;4.4112;
911.7000;0.0855;4.4088;
912.0000;0.0855;4.4112;
912.3000;0.0863;4.4088;
912.6000;0.0871;4.4088;
912.9000;0.0895;4.4137;
913.2000;0.0887;4.4137;
913.5000;0.0863;4.4088;
913.8000;0.0879;4.4015;
914.1000;0.0871;4.3966;
914.4000;0.0871;4.3941;
914.7000;0.0871;4.3966;
915.0000;0.0847;4.3892;
915.3000;0.0871;4.3917;
915.6000;0.0847;4.3892;
915.9000;0.0879;4.3941;
916.2000;0.0887;4.4015;
916.5000;0.0871;4.4088;
916.8000;0.0879;4.4088;
917.1000;0.0895;4.4186;
917.4000;0.0879;4.4112;
917.7000;0.0814;4.3892;
918.0000;0.0887;4.4039;
918.3000;0.0871;4.4088;
918.6000;0.0863;4.4039;
918.9000;0.0871;4.4088;
919.2000;0.0887;4.4186;
919.5000;0.0838;4.4064;
919.8000;0.0879;4.4064;
920.1000;0.0871;4.3990;
920.4000;0.0863;4.3990;
920.7000;0.0871;4.3966;
921.0000;0.0912;4.4039;
921.3000;0.0863;4.3966;
921.6000;0.0879;4.4112;
921.9000;0.0879;4.4088;
922.2000;0.0863;4.4015;
922.5000;0.0895;4.4039;
922.8000;0.0879;4.4039;
923.1000;0.0847;4.3941;
923.4000;0.0847;4.4039;
923.7000;0.0879;4.4210;
924.0000;0.0887;4.4186;
924.3000;0.0855;4.4064;
924.6000;0.0904;4.4112;
924.9000;0.0847;4.3941;
925.2000;0.0871;4.4015;
925.5000;0.0887;4.4064;
925.8000;0.0887;4.4137;
926.1000;0.0871;4.4088;
926.4000;0.0806;4.3917;
926.7000;0.0871;4.4064;
927.0000;0.0847;4.3990;
927.3000;0.0895;4.4015;
927.6000;0.0871;4.3892;
927.9000;0.0838;4.3770;
928.2000;0.0871;4.3795;
928.5000;0.0847;4.3843;
928.8000;0.0904;4.4064;
929.1000;0.0895;4.4039;
929.4000;0.0798;4.3819;
929.7000;0.0855;4.3966;
930.0000;0.1042;4.4553;
930.3000;0.0879;4.4064;
930.6000;0.0985;4.4259;
930.9000;0.0871;4.4015;
931.2000;0.0871;4.3941;
931.5000;0.0863;4.3941;
931.8000;0.0863;4.3868;
932.1000;0.0863;4.3917;
932.4000;0.0847;4.3990;
932.7000;0.0879;4.4039;
933.0000;0.0822;4.3917;
933.3000;0.0863;4.3990;
933.6000;0.0887;4.4088;
933.9000;0.0977;4.4381;
934.2000;0.0855;4.4015;
934.5000;0.0863;4.4112;
934.8000;0.0855;4.4112;
935.1000;0.0863;4.4088;
935.4000;0.0855;4.4064;
935.7000;0.0855;4.4064;
936.0000;0.0847;4.4064;
936.3000;0.0822;4.4015;
936.6000;0.0871;4.4088;
936.9000;0.0855;4.3966;
937.2000;0.0887;4.4039;
937.5000;0.0863;4.3966;
937.8000;0.0871;4.3892;
938.1000;0.0871;4.3819;
938.4000;0.0847;4.3746;
938.7000;0.0879;4.3819;
939.0000;0.0855;4.3892;
939.3000;0.0879;4.4015;
939.6000;0.0863;4.3990;
939.9000;0.0871;4.3843;
940.2000;0.0961;4.4064;
940.5000;0.0855;4.3746;
940.8000;0.0855;4.3795;
941.1000;0.0895;4.3941;
941.4000;0.0863;4.3966;
941.7000;0.0879;4.4112;
942.0000;0.0847;4.4088;
942.3000;0.0871;4.4112;
942.6000;0.0871;4.4112;
942.9000;0.0847;4.3941;
943.2000;0.0847;4.3819;
943.5000;0.0879;4.3892;
943.8000;0.0838;4.3819;
944.1000;0.0863;4.3795;
944.4000;0.0863;4.3868;
944.7000;0.0871;4.3917;
945.0000;0.0847;4.3770;
945.3000;0.0871;4.3917;
945.6000;0.0879;4.3892;
945.9000;0.0855;4.3966;
946.2000;0.0879;4.4039;
946.5000;0.0879;4.3990;
946.8000;0.0847;4.3941;
947.1000;0.0847;4.3892;
947.4000;0.0944;4.4210;
947.7000;0.0887;4.4015;
948.0000;0.0879;4.3966;
948.3000;0.0912;4.4137;
948.6000;0.0879;4.4088;
948.9000;0.0871;4.4088;
949.2000;0.0871;4.4064;
949.5000;0.0961;4.4333;
949.8000;0.0855;4.4015;
950.1000;0.0871;4.4039;
950.4000;0.0773;4.3795;
950.7000;0.0879;4.4015;
951.0000;0.0855;4.3941;
951.3000;0.0879;4.4064;
951.6000;0.0879;4.4064;
951.9000;0.0879;4.4039;
952.2000;0.0863;4.3966;
952.5000;0.0871;4.3966;
952.8000;0.0863;4.3990;
953.1000;0.0871;4.4015;
953.4000;0.0904;4.4039;
953.7000;0.0863;4.3843;
954.0000;0.0871;4.3868;
954.3000;0.0871;4.3819;
954.6000;0.0847;4.3770;
954.9000;0.0692;4.3452;
955.2000;0.0887;4.4015;
955.5000;0.0790;4.3721;
955.8000;0.0855;4.3868;
956.1000;0.0871;4.3966;
956.4000;0.0887;4.4039;
956.7000;0.0879;4.4015;
957.0000;0.0895;4.4015;
957.3000;0.0895;4.3990;
957.6000;0.0863;4.3990;
957.9000;0.0895;4.4161;
958.2000;0.0879;4.4161;
958.5000;0.0912;4.4210;
958.8000;0.0887;4.4161;
959.1000;0.0830;4.4064;
959.4000;0.0855;4.4112;
959.7000;0.0741;4.3746;
960.0000;0.0879;4.4186;
960.3000;0.0863;4.4137;
960.6000;0.0871;4.4112;
960.9000;0.0822;4.3843;
961.2000;0.0887;4.4015;
961.5000;0.0887;4.4015;
961.8000;0.0879;4.3990;
962.1000;0.0879;4.3990;
962.4000;0.0838;4.3868;
962.7000;0.0879;4.3917;
963.0000;0.0895;4.4064;
963.3000;0.0879;4.4039;
963.6000;0.0871;4.4088;
963.9000;0.0863;4.4088;
964.2000;0.0863;4.4064;
964.5000;0.0879;4.4088;
964.8000;0.0887;4.4064;
965.1000;0.0879;4.4064;
965.4000;0.0936;4.4210;
965.7000;0.0879;4.4039;
966.0000;0.0928;4.4210;
966.3000;0.0855;4.4088;
966.6000;0.0806;4.3892;
966.9000;0.0790;4.3941;
967.2000;0.0863;4.4112;
967.5000;0.0912;4.4210;
967.8000;0.0879;4.4137;
968.1000;0.0855;4.4088;
968.4000;0.0871;4.4088;
968.7000;0.0879;4.4064;
969.0000;0.0904;4.4186;
969.3000;0.0887;4.4235;
969.6000;0.0936;4.4406;
969.9000;0.0863;4.4259;
970.2000;0.0895;4.4259;
970.5000;0.0887;4.4284;
970.8000;0.0879;4.4235;
971.1000;0.0847;4.4161;
971.4000;0.0879;4.4088;
971.7000;0.0871;4.4088;
972.0000;0.0879;4.4088;
972.3000;0.0863;4.3966;
972.6000;0.0863;4.4015;
972.9000;0.0895;4.4015;
973.2000;0.0887;4.3990;
973.5000;0.0871;4.3941;
973.8000;0.0887;4.3990;
974.1000;0.0838;4.3966;
974.4000;0.0863;4.3990;
974.7000;0.0814;4.3917;
975.0000;0.0895;4.4039;
975.3000;0.0838;4.3892;
975.6000;0.0863;4.3966;
975.9000;0.0879;4.4064;
976.2000;0.0863;4.4015;
976.5000;0.0863;4.4064;
976.8000;0.0936;4.4259;
977.1000;0.0871;4.4088;
977.4000;0.0871;4.3966;
977.7000;0.0798;4.3819;
978.0000;0.0830;4.3917;
978.3000;0.0887;4.4112;
978.6000;0.0700;4.3746;
978.9000;0.0863;4.4161;
979.2000;0.0863;4.4088;
979.5000;0.0879;4.4161;
979.8000;0.0855;4.4137;
980.1000;0.0863;4.4064;
980.4000;0.0879;4.4112;
980.7000;0.0871;4.4088;
981.0000;0.0838;4.3990;
981.3000;0.0863;4.4064;
981.6000;0.0863;4.4039;
981.9000;0.0879;4.4088;
982.2000;0.0871;4.4064;
982.5000;0.0871;4.4186;
982.8000;0.0863;4.4112;
983.1000;0.0855;4.4137;
983.4000;0.0871;4.4137;
983.7000;0.0887;4.4186;
984.0000;0.0863;4.4161;
984.3000;0.0863;4.4064;
984.6000;0.0871;4.3990;
984.9000;0.0895;4.4088;
985.2000;0.0928;4.4259;
985.5000;0.0855;4.4088;
985.8000;0.0814;4.3966;
986.1000;0.0871;4.4088;
986.4000;0.0724;4.3795;
986.7000;0.0863;4.4137;
987.0000;0.0887;4.4284;
987.3000;0.0879;4.4259;
987.6000;0.0822;4.4161;
987.9000;0.0871;4.4161;
988.2000;0.0904;4.4137;
988.5000;0.0871;4.4088;
988.8000;0.0887;4.4137;
989.1000;0.0879;4.4088;
989.4000;0.0879;4.4039;
989.7000;0.0871;4.4039;
990.0000;0.0871;4.4039;
990.3000;0.0855;4.4088;
990.6000;0.0863;4.3990;
990.9000;0.0871;4.3966;
991.2000;0.0944;4.4161;
991.5000;0.0879;4.4015;
991.8000;0.0863;4.4039;
992.1000;0.0830;4.3990;
992.4000;0.0838;4.4015;
992.7000;0.0879;4.4088;
993.0000;0.0871;4.4015;
993.3000;0.0887;4.4064;
993.6000;0.0952;4.4235;
993.9000;0.0895;4.4039;
994.2000;0.0847;4.4015;
994.5000;0.0790;4.3843;
994.8000;0.0879;4.3966;
995.1000;0.0847;4.3819;
995.4000;0.0798;4.3746;
995.7000;0.0879;4.3966;
996.0000;0.0928;4.4137;
996.3000;0.0887;4.4039;
996.6000;0.0879;4.4015;
996.9000;0.0855;4.4015;
997.2000;0.0847;4.4015;
997.5000;0.0887;4.4137;
997.8000;0.0855;4.4161;
998.1000;0.0871;4.4186;
998.4000;0.0871;4.4186;
998.7000;0.0798;4.3990;
999.0000;0.0928;4.4284;
999.3000;0.0863;4.4137;
999.6000;0.0863;4.4039;
999.9000;0.0887;4.4137;
1000.2000;0.0879;4.4137;
1000.5000;0.0879;4.4088;
1000.8000;0.0871;4.4186;
1001.1000;0.0814;4.3990;
1001.4000;0.0936;4.4235;
1001.7000;0.0822;4.3892;
1002.0000;0.0855;4.4064;
1002.3000;0.0887;4.4161;
1002.6000;0.0879;4.4137;
1002.9000;0.0952;4.4357;
1003.2000;0.0887;4.4112;
1003.5000;0.0863;4.4112;
1003.8000;0.0847;4.4088;
1004.1000;0.0871;4.4284;
1004.4000;0.0863;4.4259;
1004.7000;0.0904;4.4284;
1005.0000;0.0871;4.4186;
1005.3000;0.0855;4.4161;
1005.6000;0.0855;4.4039;
1005.9000;0.0863;4.3941;
1006.2000;0.0847;4.4015;
1006.5000;0.0879;4.4137;
1006.8000;0.0871;4.4210;
1007.1000;0.0871;4.4088;
1007.4000;0.0871;4.4112;
1007.7000;0.0863;4.4015;
1008.0000;0.0863;4.4015;
1008.3000;0.0863;4.4088;
1008.6000;0.0895;4.4259;
1008.9000;0.0855;4.4161;
1009.2000;0.0887;4.4186;
1009.5000;0.0838;4.4112;
1009.8000;0.0855;4.4161;
1010.1000;0.0871;4.4210;
1010.4000;0.0773;4.3868;
1010.7000;0.0830;4.4039;
1011.0000;0.0838;4.4088;
1011.3000;0.0887;4.4137;
1011.6000;0.0847;4.4039;
1011.9000;0.0863;4.3990;
1012.2000;0.0887;4.4015;
1012.5000;0.0879;4.3941;
1012.8000;0.0879;4.3990;
1013.1000;0.0871;4.3941;
1013.4000;0.0855;4.3843;
1013.7000;0.0879;4.3941;
1014.0000;0.0928;4.4112;
1014.3000;0.0871;4.3966;
1014.6000;0.0904;4.4015;
1014.9000;0.0871;4.3990;
1015.2000;0.0879;4.4015;
1015.5000;0.0781;4.3697;
1015.8000;0.0863;4.3892;
1016.1000;0.0822;4.3672;
1016.4000;0.0838;4.3721;
1016.7000;0.0936;4.4039;
1017.0000;0.0790;4.3672;
1017.3000;0.0863;4.3843;
1017.6000;0.0879;4.3843;
1017.9000;0.0855;4.3819;
1018.2000;0.0871;4.3941;
1018.5000;0.0928;4.4137;
1018.8000;0.0847;4.3941;
1019.1000;0.0871;4.3966;
1019.4000;0.0887;4.4064;
1019.7000;0.0871;4.4015;
1020.0000;0.0879;4.4064;
1020.3000;0.0887;4.4210;
1020.6000;0.0879;4.4161;
1020.9000;0.0879;4.4186;
1021.2000;0.0871;4.4161;
1021.5000;0.0863;4.4137;
1021.8000;0.0871;4.4137;
1022.1000;0.0895;4.4112;
1022.4000;0.0904;4.4161;
1022.7000;0.0879;4.4112;
1023.0000;0.0879;4.3990;
1023.3000;0.0887;4.4015;
1023.6000;0.0944;4.4284;
1023.9000;0.0952;4.4284;
1024.2000;0.0871;4.4112;
1024.5000;0.0912;4.4259;
1024.8000;0.0871;4.4235;
1025.1000;0.0944;4.4357;
1025.4000;0.0741;4.3843;
1025.7000;0.0863;4.4186;
1026.0000;0.0863;4.4161;
1026.3000;0.0879;4.4088;
1026.6000;0.0952;4.4357;
1026.9000;0.0814;4.4039;
1027.2000;0.0863;4.4088;
1027.5000;0.0863;4.4088;
1027.8000;0.0871;4.4064;
1028.1000;0.0863;4.4137;
1028.4000;0.0871;4.4112;
1028.7000;0.0895;4.4235;
1029.0000;0.0871;4.4137;
1029.3000;0.0879;4.4088;
1029.6000;0.0847;4.4064;
1029.9000;0.0887;4.4161;
1030.2000;0.0912;4.4112;
1030.5000;0.0847;4.3917;
1030.8000;0.0863;4.4064;
1031.1000;0.0871;4.4088;
1031.4000;0.0847;4.4015;
1031.7000;0.0863;4.3966;
1032.0000;0.0871;4.4015;
1032.3000;0.0863;4.4039;
1032.6000;0.0887;4.4112;
1032.9000;0.0895;4.4112;
1033.2000;0.0847;4.3966;
1033.5000;0.0838;4.3990;
1033.8000;0.0904;4.4088;
1034.1000;0.0879;4.4015;
1034.4000;0.0830;4.3819;
1034.7000;0.0830;4.3843;
1035.0000;0.0895;4.4015;
1035.3000;0.0781;4.3770;
1035.6000;0.0904;4.4064;
1035.9000;0.0855;4.3941;
1036.2000;0.0879;4.3990;
1036.5000;0.0814;4.3892;
1036.8000;0.0847;4.4015;
1037.1000;0.0871;4.4064;
1037.4000;0.0879;4.4186;
1037.7000;0.0895;4.4259;
1038.0000;0.0855;4.4039;
1038.3000;0.0879;4.4039;
1038.6000;0.0961;4.4186;
1038.9000;0.0855;4.4015;
1039.2000;0.0773;4.3746;
1039.5000;0.0781;4.3892;
1039.8000;0.0887;4.4137;
1040.1000;0.0871;4.4186;
1040.4000;0.0879;4.4381;
1040.7000;0.1001;4.4675;
1041.0000;0.0928;4.4430;
1041.3000;0.0847;4.4210;
1041.6000;0.0855;4.4210;
1041.9000;0.0887;4.4308;
1042.2000;0.0871;4.4161;
1042.5000;0.0920;4.4308;
1042.8000;0.0879;4.4112;
1043.1000;0.0871;4.4039;
1043.4000;0.0863;4.4064;
1043.7000;0.0863;4.4064;
1044.0000;0.0871;4.4015;
1044.3000;0.0724;4.3672;
1044.6000;0.0855;4.3990;
1044.9000;0.0879;4.4088;
1045.2000;0.0855;4.4039;
1045.5000;0.0993;4.4333;
1045.8000;0.0871;4.3941;
1046.1000;0.0928;4.4064;
1046.4000;0.0847;4.3843;
1046.7000;0.0863;4.3746;
1047.0000;0.0879;4.3843;
1047.3000;0.0871;4.3892;
1047.6000;0.0936;4.4112;
1047.9000;0.0855;4.3990;
1048.2000;0.0879;4.4112;
1048.5000;0.0838;4.3966;
1048.8000;0.0887;4.4064;
1049.1000;0.0838;4.3966;
1049.4000;0.0863;4.3990;
1049.7000;0.0887;4.4088;
1050.0000;0.0871;4.4088;
1050.3000;0.0847;4.3966;
1050.6000;0.0871;4.3941;
1050.9000;0.0863;4.3795;
1051.2000;0.0847;4.3770;
1051.5000;0.0879;4.3941;
1051.8000;0.0871;4.4015;
1052.1000;0.0879;4.4088;
1052.4000;0.0863;4.4039;
1052.7000;0.0887;4.4112;
1053.0000;0.0871;4.4015;
1053.3000;0.0895;4.3966;
1053.6000;0.0847;4.3892;
1053.9000;0.0863;4.3990;
1054.2000;0.0847;4.3868;
1054.5000;0.0838;4.3819;
1054.8000;0.0871;4.3966;
1055.1000;0.0855;4.3966;
1055.4000;0.0936;4.4112;
1055.7000;0.0871;4.3917;
1056.0000;0.0895;4.3941;
1056.3000;0.0871;4.3868;
1056.6000;0.0863;4.3868;
1056.9000;0.0879;4.3917;
1057.2000;0.0765;4.3623;
1057.5000;0.0855;4.3868;
1057.8000;0.0773;4.3746;
1058.1000;0.0871;4.4088;
1058.4000;0.0912;4.4235;
1058.7000;0.0863;4.4015;
1059.0000;0.0814;4.3892;
1059.3000;0.0863;4.4064;
1059.6000;0.0879;4.4088;
1059.9000;0.0781;4.3795;
1060.2000;0.0863;4.3941;
1060.5000;0.0871;4.3966;
1060.8000;0.0847;4.3868;
1061.1000;0.0863;4.3868;
1061.4000;0.0855;4.3868;
1061.7000;0.0871;4.3917;
1062.0000;0.0912;4.3966;
1062.3000;0.0887;4.4015;
1062.6000;0.0847;4.3966;
1062.9000;0.0871;4.4112;
1063.2000;0.0912;4.4137;
1063.5000;0.0887;4.4039;
1063.8000;0.0871;4.4039;
1064.1000;0.0863;4.4064;
1064.4000;0.0887;4.4161;
1064.7000;0.0798;4.3892;
1065.0000;0.0847;4.4039;
1065.3000;0.0912;4.4064;
1065.6000;0.0855;4.4015;
1065.9000;0.0863;4.3941;
1066.2000;0.0863;4.4015;
1066.5000;0.0838;4.4039;
1066.8000;0.0822;4.3990;
1067.1000;0.0887;4.4088;
1067.4000;0.0887;4.4064;
1067.7000;0.0887;4.4112;
1068.0000;0.0904;4.4137;
1068.3000;0.0847;4.3941;
1068.6000;0.0855;4.3917;
1068.9000;0.0871;4.3941;
1069.2000;0.0863;4.3819;
1069.5000;0.0855;4.3843;
1069.8000;0.0863;4.3819;
1070.1000;0.0863;4.3966;
1070.4000;0.0863;4.4039;
1070.7000;0.0855;4.3941;
1071.0000;0.0887;4.3990;
1071.3000;0.0871;4.4015;
1071.6000;0.0879;4.4137;
1071.9000;0.0798;4.3917;
1072.2000;0.0895;4.4137;
1072.5000;0.0863;4.4186;
1072.8000;0.0863;4.4137;
1073.1000;0.0879;4.4112;
1073.4000;0.0879;4.4088;
1073.7000;0.0838;4.4015;
1074.0000;0.0952;4.4259;
1074.3000;0.0855;4.3917;
1074.6000;0.0879;4.3966;
1074.9000;0.0879;4.4015;
1075.2000;0.0871;4.3990;
1075.5000;0.0879;4.4064;
1075.8000;0.0871;4.4039;
1076.1000;0.0871;4.4064;
1076.4000;0.0887;4.4064;
1076.7000;0.0904;4.3966;
1077.0000;0.0879;4.3941;
1077.3000;0.0936;4.4064;
1077.6000;0.0920;4.4064;
1077.9000;0.0847;4.3868;
1078.2000;0.0879;4.3941;
1078.5000;0.0879;4.3917;
1078.8000;0.0863;4.3917;
1079.1000;0.0847;4.3892;
1079.4000;0.0798;4.3770;
1079.7000;0.0887;4.4039;
1080.0000;0.0871;4.3990;
1080.3000;0.0879;4.3917;
1080.6000;0.0847;4.3795;
1080.9000;0.0887;4.3770;
1081.2000;0.0855;4.3721;
1081.5000;0.0847;4.3746;
1081.8000;0.0871;4.3843;
1082.1000;0.0871;4.3941;
1082.4000;0.0895;4.3966;
1082.7000;0.0879;4.3990;
1083.0000;0.0871;4.4039;
1083.3000;0.0879;4.3966;
1083.6000;0.0855;4.3868;
1083.9000;0.0895;4.4064;
1084.2000;0.0871;4.4015;
1084.5000;0.0871;4.3892;
1084.8000;0.0879;4.3917;
1085.1000;0.0993;4.4308;
1085.4000;0.0871;4.3941;
1085.7000;0.0863;4.3966;
1086.0000;0.0871;4.3917;
1086.3000;0.0871;4.3941;
1086.6000;0.0863;4.3990;
1086.9000;0.0847;4.3990;
1087.2000;0.0928;4.4161;
1087.5000;0.0847;4.3941;
1087.8000;0.0855;4.3941;
1088.1000;0.0863;4.3966;
1088.4000;0.0887;4.4039;
1088.7000;0.0863;4.4039;
1089.0000;0.0855;4.4015;
1089.3000;0.0879;4.4064;
1089.6000;0.0871;4.4015;
1089.9000;0.0904;4.4112;
1090.2000;0.0879;4.4088;
1090.5000;0.0855;4.4039;
1090.8000;0.0830;4.3966;
1091.1000;0.0871;4.4088;
1091.4000;0.0879;4.4064;
1091.7000;0.0855;4.4088;
1092.0000;0.0830;4.4015;
1092.3000;0.0863;4.4137;
1092.6000;0.0871;4.4235;
1092.9000;0.0944;4.4479;
1093.2000;0.0887;4.4210;
1093.5000;0.0871;4.4161;
1093.8000;0.0879;4.4186;
1094.1000;0.0838;4.4015;
1094.4000;0.0887;4.3990;
1094.7000;0.0879;4.4015;
1095.0000;0.0871;4.3941;
1095.3000;0.0879;4.4015;
1095.6000;0.0749;4.3697;
1095.9000;0.0757;4.3721;
1096.2000;0.0887;4.4088;
1096.5000;0.0887;4.4137;
1096.8000;0.0904;4.4186;
1097.1000;0.0871;4.4112;
1097.4000;0.0871;4.4064;
1097.7000;0.0871;4.4015;
1098.0000;0.0879;4.3990;
1098.3000;0.0895;4.4161;
1098.6000;0.0863;4.4015;
1098.9000;0.0887;4.4088;
1099.2000;0.0855;4.3990;
1099.5000;0.0863;4.4039;
1099.8000;0.0798;4.3868;
1100.1000;0.0855;4.4088;
1100.4000;0.0847;4.4088;
1100.7000;0.0830;4.4015;
1101.0000;0.0879;4.4039;
1101.3000;0.0814;4.3966;
1101.6000;0.0879;4.4112;
1101.9000;0.0863;4.4112;
1102.2000;0.0944;4.4284;
1102.5000;0.0887;4.4210;
1102.8000;0.0879;4.4137;
1103.1000;0.0871;4.4064;
1103.4000;0.0830;4.3966;
1103.7000;0.0871;4.4112;
1104.0000;0.0871;4.4137;
1104.3000;0.0879;4.4137;
1104.6000;0.0822;4.3917;
1104.9000;0.0855;4.4064;
1105.2000;0.0855;4.4064;
1105.5000;0.0855;4.4112;
1105.8000;0.0847;4.4186;
1106.1000;0.0855;4.4161;
1106.4000;0.0855;4.4112;
1106.7000;0.0863;4.4161;
1107.0000;0.0871;4.4186;
1107.3000;0.0863;4.4137;
1107.6000;0.0871;4.4161;
1107.9000;0.0879;4.4161;
1108.2000;0.0871;4.4137;
1108.5000;0.0855;4.4039;
1108.8000;0.0887;4.4112;
1109.1000;0.0814;4.3941;
1109.4000;0.0863;4.4186;
1109.7000;0.0855;4.4112;
1110.0000;0.0887;4.4235;
1110.3000;0.0863;4.4064;
1110.6000;0.0871;4.4088;
1110.9000;0.0879;4.4039;
1111.2000;0.0855;4.3843;
1111.5000;0.0863;4.3721;
1111.8000;0.0920;4.3892;
1112.1000;0.0716;4.3428;
1112.4000;0.0904;4.3868;
1112.7000;0.0887;4.3917;
1113.0000;0.0863;4.3917;
1113.3000;0.0838;4.3746;
1113.6000;0.0879;4.3843;
1113.9000;0.0871;4.3843;
1114.2000;0.0879;4.3843;
1114.5000;0.0887;4.3941;
1114.8000;0.0879;4.4039;
1115.1000;0.0822;4.3966;
1115.4000;0.0887;4.4112;
1115.7000;0.0838;4.3892;
1116.0000;0.0822;4.3770;
1116.3000;0.0863;4.3941;
1116.6000;0.0985;4.4333;
1116.9000;0.0863;4.3966;
1117.2000;0.0838;4.3892;
1117.5000;0.0830;4.3868;
1117.8000;0.0944;4.4186;
1118.1000;0.0895;4.4064;
1118.4000;0.0847;4.3917;
1118.7000;0.0863;4.3917;
1119.0000;0.0879;4.3966;
1119.3000;0.0863;4.4015;
1119.6000;0.0847;4.3966;
1119.9000;0.0830;4.3990;
1120.2000;0.0887;4.4137;
1120.5000;0.0847;4.4088;
1120.8000;0.0863;4.4039;
1121.1000;0.0871;4.4039;
1121.4000;0.0887;4.4088;
1121.7000;0.0847;4.4015;
1122.0000;0.0904;4.4064;
1122.3000;0.0871;4.4015;
1122.6000;0.0855;4.3941;
1122.9000;0.0871;4.3941;
1123.2000;0.0855;4.3892;
1123.5000;0.0855;4.3868;
1123.8000;0.0855;4.3917;
1124.1000;0.0863;4.3892;
1124.4000;0.0871;4.3892;
1124.7000;0.0871;4.4015;
1125.0000;0.0847;4.4015;
1125.3000;0.0798;4.3795;
1125.6000;0.0871;4.4015;
1125.9000;0.0855;4.3990;
1126.2000;0.0847;4.4015;
1126.5000;0.0871;4.4186;
1126.8000;0.0863;4.4186;
1127.1000;0.0879;4.4186;
1127.4000;0.0879;4.4137;
1127.7000;0.0733;4.3672;
1128.0000;0.0928;4.4235;
1128.3000;0.0855;4.4064;
1128.6000;0.0871;4.4112;
1128.9000;0.0855;4.4112;
1129.2000;0.0871;4.4039;
1129.5000;0.0871;4.4015;
1129.8000;0.0863;4.4015;
1130.1000;0.0838;4.3941;
1130.4000;0.0855;4.3868;
1130.7000;0.0847;4.3917;
1131.0000;0.0830;4.3795;
1131.3000;0.0887;4.3990;
1131.6000;0.0838;4.3868;
1131.9000;0.0904;4.3990;
1132.2000;0.0830;4.3672;
1132.5000;0.0855;4.3770;
1132.8000;0.0838;4.3721;
1133.1000;0.0928;4.3917;
1133.4000;0.0887;4.3892;
1133.7000;0.0961;4.4186;
1134.0000;0.0879;4.4064;
1134.3000;0.0863;4.4088;
1134.6000;0.0863;4.4161;
1134.9000;0.0895;4.4308;
1135.2000;0.0863;4.4210;
1135.5000;0.0855;4.4137;
1135.8000;0.0838;4.4088;
1136.1000;0.0879;4.4137;
1136.4000;0.0822;4.4088;
1136.7000;0.0887;4.4259;
1137.0000;0.0855;4.4186;
1137.3000;0.0871;4.4235;
1137.6000;0.0879;4.4284;
1137.9000;0.0863;4.4235;
1138.2000;0.0879;4.4210;
1138.5000;0.0838;4.4039;
1138.8000;0.0863;4.4161;
1139.1000;0.0879;4.4137;
1139.4000;0.0871;4.4088;
1139.7000;0.0855;4.4064;
1140.0000;0.0863;4.4039;
1140.3000;0.0855;4.4015;
1140.6000;0.0790;4.3819;
1140.9000;0.0912;4.4186;
1141.2000;0.0871;4.4137;
1141.5000;0.0879;4.4161;
1141.8000;0.0871;4.4161;
1142.1000;0.0961;4.4504;
1142.4000;0.0871;4.4259;
1142.7000;0.0871;4.4235;
1143.0000;0.0879;4.4137;
1143.3000;0.0863;4.3941;
1143.6000;0.0879;4.3917;
1143.9000;0.0863;4.3795;
1144.2000;0.0863;4.3770;
1144.5000;0.0895;4.3892;
1144.8000;0.0920;4.3966;
1145.1000;0.0863;4.3819;
1145.4000;0.0830;4.3770;
1145.7000;0.0847;4.3746;
1146.0000;0.0887;4.3770;
1146.3000;0.0887;4.3795;
1146.6000;0.0847;4.3843;
1146.9000;0.0879;4.3892;
1147.2000;0.0871;4.3941;
1147.5000;0.0863;4.3917;
1147.8000;0.0879;4.3990;
1148.1000;0.0879;4.3941;
1148.4000;0.0871;4.3917;
1148.7000;0.0871;4.3990;
1149.0000;0.0863;4.4088;
1149.3000;0.0879;4.4186;
1149.6000;0.0936;4.4479;
1149.9000;0.0863;4.4259;
1150.2000;0.0847;4.4210;
1150.5000;0.0879;4.4284;
1150.8000;0.0871;4.4210;
1151.1000;0.0895;4.4210;
1151.4000;0.0904;4.4235;
1151.7000;0.0830;4.3917;
1152.0000;0.0838;4.3868;
1152.3000;0.0871;4.4015;
1152.6000;0.0847;4.3990;
1152.9000;0.0871;4.4112;
1153.2000;0.0863;4.4088;
1153.5000;0.0895;4.4235;
1153.8000;0.0863;4.4088;
1154.1000;0.0838;4.4064;
1154.4000;0.0879;4.4210;
1154.7000;0.0879;4.4357;
1155.0000;0.0904;4.4430;
1155.3000;0.0887;4.4357;
1155.6000;0.0952;4.4455;
1155.9000;0.0847;4.4088;
1156.2000;0.0814;4.3966;
1156.5000;0.0790;4.3819;
1156.8000;0.0863;4.3941;
1157.1000;0.0871;4.4039;
1157.4000;0.0863;4.4088;
1157.7000;0.0863;4.4112;
1158.0000;0.0944;4.4333;
1158.3000;0.0871;4.4161;
1158.6000;0.0855;4.4161;
1158.9000;0.0830;4.4064;
1159.2000;0.0887;4.4186;
1159.5000;0.0871;4.4064;
1159.8000;0.0790;4.3868;
1160.1000;0.0871;4.4039;
1160.4000;0.0863;4.4039;
1160.7000;0.0871;4.4039;
1161.0000;0.0838;4.3990;
1161.3000;0.0871;4.4112;
1161.6000;0.0863;4.4064;
1161.9000;0.0887;4.4112;
1162.2000;0.0855;4.4064;
1162.5000;0.0879;4.4064;
1162.8000;0.0879;4.4064;
1163.1000;0.0863;4.3941;
1163.4000;0.0879;4.4039;
1163.7000;0.0871;4.4039;
1164.0000;0.0879;4.4112;
1164.3000;0.0847;4.3941;
1164.6000;0.0863;4.3941;
1164.9000;0.0855;4.3941;
1165.2000;0.0830;4.3892;
1165.5000;0.0887;4.4039;
1165.8000;0.1026;4.4479;
1166.1000;0.0863;4.4064;
1166.4000;0.0879;4.4088;
1166.7000;0.0879;4.4015;
1167.0000;0.0879;4.4112;
1167.3000;0.0887;4.4161;
1167.6000;0.0904;4.4112;
1167.9000;0.0838;4.3917;
1168.2000;0.0879;4.4015;
1168.5000;0.0887;4.4161;
1168.8000;0.0879;4.4064;
1169.1000;0.0871;4.4039;
1169.4000;0.0879;4.4112;
1169.7000;0.0847;4.4088;
1170.0000;0.0879;4.4137;
1170.3000;0.0887;4.4235;
1170.6000;0.0855;4.4161;
1170.9000;0.0904;4.4186;
1171.2000;0.0895;4.4284;
1171.5000;0.0871;4.4210;
1171.8000;0.0871;4.4064;
1172.1000;0.0863;4.4064;
1172.4000;0.0879;4.4064;
1172.7000;0.0895;4.4112;
1173.0000;0.0871;4.3990;
1173.3000;0.0936;4.4210;
1173.6000;0.0887;4.4088;
1173.9000;0.0895;4.4064;
1174.2000;0.0895;4.4064;
1174.5000;0.0895;4.4064;
1174.8000;0.0855;4.4137;
1175.1000;0.0863;4.4088;
1175.4000;0.0871;4.4186;
1175.7000;0.0822;4.4039;
1176.0000;0.0838;4.4186;
1176.3000;0.0879;4.4333;
1176.6000;0.0871;4.4259;
1176.9000;0.0879;4.4259;
1177.2000;0.0822;4.4064;
1177.5000;0.0912;4.4308;
1177.8000;0.0879;4.4137;
1178.1000;0.0879;4.4039;
1178.4000;0.0887;4.4039;
1178.7000;0.0879;4.4015;
1179.0000;0.0977;4.4161;
1179.3000;0.0863;4.3917;
1179.6000;0.0781;4.3746;
1179.9000;0.0879;4.4015;
1180.2000;0.0895;4.4015;
1180.5000;0.0814;4.3746;
1180.8000;0.0928;4.4088;
1181.1000;0.0871;4.3941;
1181.4000;0.0855;4.3990;
1181.7000;0.0887;4.4112;
1182.0000;0.0855;4.4015;
1182.3000;0.0879;4.4088;
1182.6000;0.0887;4.3990;
1182.9000;0.0904;4.3941;
1183.2000;0.0855;4.3917;
1183.5000;0.0871;4.4039;
1183.8000;0.0863;4.4039;
1184.1000;0.0895;4.4088;
1184.4000;0.0912;4.4137;
1184.7000;0.0806;4.3843;
1185.0000;0.0781;4.3892;
1185.3000;0.0871;4.4112;
1185.6000;0.0871;4.4137;
1185.9000;0.0863;4.4210;
1186.2000;0.0879;4.4357;
1186.5000;0.0855;4.4381;
1186.8000;0.0879;4.4333;
1187.1000;0.0887;4.4284;
1187.4000;0.0920;4.4333;
1187.7000;0.0830;4.3990;
1188.0000;0.0904;4.4210;
1188.3000;0.0838;4.3966;
1188.6000;0.0879;4.4064;
1188.9000;0.0855;4.4015;
1189.2000;0.0879;4.3990;
1189.5000;0.0871;4.4039;
1189.8000;0.0887;4.4039;
1190.1000;0.0863;4.3990;
1190.4000;0.0879;4.4088;
1190.7000;0.0855;4.4015;
1191.0000;0.0838;4.3990;
1191.3000;0.0863;4.4039;
1191.6000;0.0961;4.4284;
1191.9000;0.0855;4.3917;
1192.2000;0.0863;4.3941;
1192.5000;0.0847;4.3868;
1192.8000;0.0871;4.3892;
1193.1000;0.0871;4.3892;
1193.4000;0.0822;4.3672;
1193.7000;0.0871;4.3795;
1194.0000;0.0871;4.3868;
1194.3000;0.0806;4.3770;
1194.6000;0.0863;4.3843;
1194.9000;0.0830;4.3868;
1195.2000;0.0847;4.3941;
1195.5000;0.0863;4.3941;
1195.8000;0.0879;4.4039;
1196.1000;0.0863;4.3990;
1196.4000;0.0863;4.3941;
1196.7000;0.0912;4.4015;
1197.0000;0.0855;4.3843;
1197.3000;0.0879;4.3917;
1197.6000;0.0847;4.3966;
1197.9000;0.0887;4.4064;
1198.2000;0.0871;4.4015;
1198.5000;0.0871;4.4088;
1198.8000;0.0879;4.4039;
1199.1000;0.0871;4.4015;
1199.4000;0.0887;4.4015;
1199.7000;0.0871;4.4112;
1200.0000;0.0887;4.4210;
1200.3000;0.0847;4.4186;
1200.6000;0.0855;4.4210;
1200.9000;0.0871;4.4161;
1201.2000;0.0830;4.4088;
1201.5000;0.0855;4.4161;
1201.8000;0.0887;4.4210;
1202.1000;0.0920;4.4381;
1202.4000;0.0912;4.4308;
1202.7000;0.0838;4.4161;
1203.0000;0.0830;4.4112;
1203.3000;0.0871;4.4161;
1203.6000;0.0912;4.4284;
1203.9000;0.0822;4.3990;
1204.2000;0.0871;4.4039;
1204.5000;0.0855;4.3941;
1204.8000;0.0822;4.4015;
1205.1000;0.0863;4.4186;
1205.4000;0.0871;4.4161;
1205.7000;0.0879;4.4186;
1206.0000;0.0838;4.4088;
1206.3000;0.0757;4.3746;
1206.6000;0.0855;4.3941;
1206.9000;0.0855;4.3868;
1207.2000;0.0863;4.3843;
1207.5000;0.0895;4.3843;
1207.8000;0.0847;4.3795;
1208.1000;0.0895;4.3892;
1208.4000;0.1026;4.4210;
1208.7000;0.0871;4.3770;
1209.0000;0.0863;4.3721;
1209.3000;0.0838;4.3746;
1209.6000;0.0879;4.3990;
1209.9000;0.0871;4.4039;
1210.2000;0.0879;4.3966;
1210.5000;0.0814;4.3819;
1210.8000;0.0871;4.3917;
1211.1000;0.0944;4.4112;
1211.4000;0.0879;4.3966;
1211.7000;0.0879;4.3892;
1212.0000;0.0895;4.3941;
1212.3000;0.0879;4.4015;
1212.6000;0.0871;4.3966;
1212.9000;0.0871;4.4015;
1213.2000;0.0855;4.3892;
1213.5000;0.0887;4.3892;
1213.8000;0.0920;4.4015;
1214.1000;0.0871;4.3843;
1214.4000;0.0895;4.3868;
1214.7000;0.0895;4.3843;
1215.0000;0.0895;4.3868;
1215.3000;0.0847;4.3795;
1215.6000;0.0944;4.4112;
1215.9000;0.0871;4.4039;
1216.2000;0.0879;4.3966;
1216.5000;0.0847;4.3966;
1216.8000;0.0879;4.4064;
1217.1000;0.0863;4.3941;
1217.4000;0.0806;4.3941;
1217.7000;0.0838;4.3941;
1218.0000;0.0814;4.3892;
1218.3000;0.0879;4.4088;
1218.6000;0.0847;4.3990;
1218.9000;0.0855;4.3917;
1219.2000;0.1001;4.4210;
1219.5000;0.0871;4.3843;
1219.8000;0.0904;4.4015;
1220.1000;0.0830;4.3868;
1220.4000;0.0733;4.3672;
1220.7000;0.0871;4.3966;
1221.0000;0.0879;4.3941;
1221.3000;0.0790;4.3721;
1221.6000;0.0830;4.3868;
1221.9000;0.0863;4.3892;
1222.2000;0.0871;4.4039;
1222.5000;0.0887;4.4064;
1222.8000;0.0871;4.4039;
1223.1000;0.0855;4.3990;
1223.4000;0.0863;4.3990;
1223.7000;0.0936;4.4112;
1224.0000;0.0822;4.3892;
1224.3000;0.0879;4.4015;
1224.6000;0.0855;4.3917;
1224.9000;0.0847;4.3892;
1225.2000;0.0879;4.4039;
1225.5000;0.0912;4.4015;
1225.8000;0.0879;4.3819;
1226.1000;0.0895;4.3819;
1226.4000;0.0871;4.3819;
1226.7000;0.0952;4.4064;
1227.0000;0.0871;4.3868;
1227.3000;0.0855;4.3868;
1227.6000;0.0855;4.3868;
1227.9000;0.0855;4.3868;
1228.2000;0.0863;4.3892;
1228.5000;0.0806;4.3795;
1228.8000;0.0855;4.3941;
1229.1000;0.0863;4.4064;
1229.4000;0.0871;4.4015;
1229.7000;0.0814;4.3746;
1230.0000;0.0895;4.3941;
1230.3000;0.0879;4.3868;
1230.6000;0.0838;4.3795;
1230.9000;0.0871;4.3868;
1231.2000;0.0871;4.3868;
1231.5000;0.0855;4.3770;
1231.8000;0.0855;4.3795;
1232.1000;0.0871;4.3868;
1232.4000;0.0928;4.4112;
1232.7000;0.0855;4.3892;
1233.0000;0.1001;4.4430;
1233.3000;0.0830;4.4015;
1233.6000;0.0798;4.3990;
1233.9000;0.0863;4.4161;
1234.2000;0.0863;4.4161;
1234.5000;0.0920;4.4235;
1234.8000;0.0871;4.4039;
1235.1000;0.0904;4.4112;
1235.4000;0.0855;4.3966;
1235.7000;0.0855;4.3868;
1236.0000;0.0847;4.3892;
1236.3000;0.0871;4.4039;
1236.6000;0.0814;4.3843;
1236.9000;0.0871;4.4015;
1237.2000;0.0879;4.4161;
1237.5000;0.0847;4.4039;
1237.8000;0.0912;4.4210;
1238.1000;0.0863;4.4064;
1238.4000;0.0847;4.4039;
1238.7000;0.0863;4.4064;
1239.0000;0.0863;4.4015;
1239.3000;0.0822;4.3917;
1239.6000;0.0895;4.4112;
1239.9000;0.0863;4.4039;
1240.2000;0.0863;4.4039;
1240.5000;0.0855;4.3941;
1240.8000;0.0871;4.3990;
1241.1000;0.0855;4.3966;
1241.4000;0.0879;4.4015;
1241.7000;0.0847;4.4039;
1242.0000;0.0863;4.4039;
1242.3000;0.0871;4.4039;
1242.6000;0.0879;4.4015;
1242.9000;0.0887;4.4015;
1243.2000;0.0855;4.3843;
1243.5000;0.0847;4.3819;
1243.8000;0.0847;4.3868;
1244.1000;0.0830;4.3868;
1244.4000;0.0871;4.3990;
1244.7000;0.0879;4.4088;
1245.0000;0.0879;4.4137;
1245.3000;0.0879;4.4112;
1245.6000;0.0879;4.4088;
1245.9000;0.0855;4.4088;
1246.2000;0.0863;4.4137;
1246.5000;0.0863;4.4088;
1246.8000;0.0969;4.4235;
1247.1000;0.0895;4.4064;
1247.4000;0.0904;4.4112;
1247.7000;0.0855;4.4015;
1248.0000;0.0855;4.4064;
1248.3000;0.0863;4.4015;
1248.6000;0.0879;4.4064;
1248.9000;0.0879;4.4064;
1249.2000;0.0847;4.4112;
1249.5000;0.0985;4.4406;
1249.8000;0.0855;4.3941;
1250.1000;0.0887;4.4039;
1250.4000;0.0887;4.4088;
1250.7000;0.0716;4.3672;
1251.0000;0.0952;4.4210;
1251.3000;0.0895;4.4064;
1251.6000;0.0863;4.3990;
1251.9000;0.0855;4.4039;
1252.2000;0.0855;4.4088;
1252.5000;0.0822;4.3990;
1252.8000;0.0871;4.4137;
1253.1000;0.0879;4.4137;
1253.4000;0.0847;4.4015;
1253.7000;0.0847;4.4015;
1254.0000;0.0871;4.4112;
1254.3000;0.0847;4.4064;
1254.6000;0.0847;4.3966;
1254.9000;0.0863;4.4015;
1255.2000;0.0847;4.3917;
1255.5000;0.0863;4.3941;
1255.8000;0.0855;4.3966;
1256.1000;0.0879;4.4112;
1256.4000;0.0879;4.4161;
1256.7000;0.0879;4.4088;
1257.0000;0.0863;4.4064;
1257.3000;0.0847;4.3917;
1257.6000;0.0895;4.4039;
1257.9000;0.0830;4.3917;
1258.2000;0.0863;4.4064;
1258.5000;0.0871;4.3990;
1258.8000;0.0863;4.3941;
1259.1000;0.0855;4.3941;
1259.4000;0.0855;4.3990;
1259.7000;0.0830;4.3941;
1260.0000;0.0871;4.4039;
1260.3000;0.0879;4.4064;
1260.6000;0.0847;4.3917;
1260.9000;0.0806;4.3721;
1261.2000;0.0879;4.3892;
1261.5000;0.0879;4.3892;
1261.8000;0.0855;4.3843;
1262.1000;0.0855;4.3843;
1262.4000;0.0879;4.3892;
1262.7000;0.0895;4.3990;
1263.0000;0.0871;4.3941;
1263.3000;0.0838;4.3746;
1263.6000;0.0838;4.3721;
1263.9000;0.0855;4.3819;
1264.2000;0.0863;4.3795;
1264.5000;0.0871;4.3917;
1264.8000;0.0871;4.3892;
1265.1000;0.0855;4.3966;
1265.4000;0.0920;4.4235;
1265.7000;0.0847;4.3966;
1266.0000;0.0847;4.3990;
1266.3000;0.0879;4.4112;
1266.6000;0.0847;4.3990;
1266.9000;0.0879;4.4186;
1267.2000;0.0838;4.4015;
1267.5000;0.0855;4.4112;
1267.8000;0.0871;4.4259;
1268.1000;0.0887;4.4259;
1268.4000;0.0904;4.4333;
1268.7000;0.0879;4.4284;
1269.0000;0.0879;4.4235;
1269.3000;0.0847;4.4284;
1269.6000;0.0830;4.4235;
1269.9000;0.0879;4.4357;
1270.2000;0.0871;4.4381;
1270.5000;0.0855;4.4430;
1270.8000;0.0863;4.4357;
1271.1000;0.0822;4.4210;
1271.4000;0.0895;4.4406;
1271.7000;0.0863;4.4381;
1272.0000;0.0855;4.4308;
1272.3000;0.0847;4.4235;
1272.6000;0.0871;4.4210;
1272.9000;0.0871;4.4235;
1273.2000;0.0822;4.3990;
1273.5000;0.0838;4.4064;
1273.8000;0.0871;4.4112;
1274.1000;0.0855;4.4088;
1274.4000;0.0863;4.4137;
1274.7000;0.0847;4.4137;
1275.0000;0.0887;4.4210;
1275.3000;0.0879;4.4210;
1275.6000;0.0790;4.3966;
1275.9000;0.0871;4.4235;
1276.2000;0.0879;4.4284;
1276.5000;0.0871;4.4259;
1276.8000;0.0871;4.4210;
1277.1000;0.0871;4.4259;
1277.4000;0.0855;4.4210;
1277.7000;0.0895;4.4259;
1278.0000;0.0855;4.4161;
1278.3000;0.0863;4.4186;
1278.6000;0.0855;4.4137;
1278.9000;0.0863;4.4064;
1279.2000;0.0847;4.4064;
1279.5000;0.0838;4.4088;
1279.8000;0.0879;4.4161;
1280.1000;0.0863;4.4088;
1280.4000;0.0871;4.4112;
1280.7000;0.0944;4.4284;
1281.0000;0.0830;4.4039;
1281.3000;0.0855;4.4137;
1281.6000;0.0887;4.4308;
1281.9000;0.0838;4.4161;
1282.2000;0.0863;4.4186;
1282.5000;0.0904;4.4284;
1282.8000;0.0895;4.4259;
1283.1000;0.0863;4.4161;
1283.4000;0.0863;4.4088;
1283.7000;0.0895;4.4235;
1284.0000;0.0904;4.4284;
1284.3000;0.0871;4.4186;
1284.6000;0.0830;4.4039;
1284.9000;0.0944;4.4308;
1285.2000;0.0814;4.3990;
1285.5000;0.0855;4.4088;
1285.8000;0.0830;4.4015;
1286.1000;0.0863;4.4186;
1286.4000;0.0871;4.4235;
1286.7000;0.0879;4.4235;
1287.0000;0.0871;4.4308;
1287.3000;0.0806;4.4137;
1287.6000;0.0871;4.4235;
1287.9000;0.0863;4.4161;
1288.2000;0.1026;4.4577;
1288.5000;0.0871;4.4137;
1288.8000;0.0863;4.4161;
1289.1000;0.0879;4.4161;
1289.4000;0.0871;4.4088;
1289.7000;0.0847;4.4112;
1290.0000;0.0871;4.4161;
1290.3000;0.0961;4.4553;
1290.6000;0.0904;4.4430;
1290.9000;0.0798;4.4161;
1291.2000;0.0855;4.4430;
1291.5000;0.0863;4.4430;
1291.8000;0.0871;4.4308;
1292.1000;0.0847;4.4161;
1292.4000;0.0871;4.4210;
1292.7000;0.0855;4.4333;
1293.0000;0.0855;4.4235;
1293.3000;0.0887;4.4308;
1293.6000;0.0814;4.4161;
1293.9000;0.0798;4.4112;
1294.2000;0.0855;4.4186;
1294.5000;0.0814;4.4088;
1294.8000;0.0895;4.4235;
1295.1000;0.0863;4.4088;
1295.4000;0.0871;4.4137;
1295.7000;0.0952;4.4308;
1296.0000;0.0871;4.4088;
1296.3000;0.0847;4.4161;
1296.6000;0.0879;4.4308;
1296.9000;0.0887;4.4284;
1297.2000;0.0936;4.4381;
1297.5000;0.0871;4.4210;
1297.8000;0.0871;4.4259;
1298.1000;0.0863;4.4235;
1298.4000;0.0871;4.4186;
1298.7000;0.0879;4.4186;
1299.0000;0.0863;4.4088;
1299.3000;0.0855;4.4137;
1299.6000;0.0863;4.4186;
1299.9000;0.0863;4.4210;
1300.2000;0.0895;4.4259;
1300.5000;0.0904;4.4161;
1300.8000;0.0847;4.4161;
1301.1000;0.0863;4.4259;
1301.4000;0.0871;4.4333;
1301.7000;0.0863;4.4235;
1302.0000;0.0863;4.4259;
1302.3000;0.0871;4.4284;
1302.6000;0.0855;4.4259;
1302.9000;0.0912;4.4455;
1303.2000;0.0863;4.4308;
1303.5000;0.0879;4.4284;
1303.8000;0.0838;4.4210;
1304.1000;0.0871;4.4210;
1304.4000;0.0855;4.4186;
1304.7000;0.0871;4.4161;
1305.0000;0.0855;4.4186;
1305.3000;0.0863;4.4137;
1305.6000;0.0871;4.4137;
1305.9000;0.0904;4.4308;
1306.2000;0.0838;4.4161;
1306.5000;0.0871;4.4210;
1306.8000;0.0863;4.4088;
1307.1000;0.0895;4.4186;
1307.4000;0.0847;4.4039;
1307.7000;0.0855;4.4161;
1308.0000;0.0879;4.4259;
1308.3000;0.0887;4.4308;
1308.6000;0.0871;4.4333;
1308.9000;0.0871;4.4357;
1309.2000;0.0887;4.4308;
1309.5000;0.0855;4.4210;
1309.8000;0.0838;4.4161;
1310.1000;0.0863;4.4259;
1310.4000;0.0838;4.4161;
1310.7000;0.0855;4.4088;
1311.0000;0.0871;4.4235;
1311.3000;0.0790;4.3966;
1311.6000;0.0863;4.4259;
1311.9000;0.0871;4.4235;
1312.2000;0.0733;4.3941;
1312.5000;0.0863;4.4210;
1312.8000;0.0879;4.4259;
1313.1000;0.0855;4.4284;
1313.4000;0.0871;4.4284;
1313.7000;0.0855;4.4284;
1314.0000;0.0855;4.4333;
1314.3000;0.0863;4.4308;
1314.6000;0.0814;4.4186;
1314.9000;0.0863;4.4284;
1315.2000;0.0871;4.4308;
1315.5000;0.0871;4.4284;
1315.8000;0.0871;4.4259;
1316.1000;0.0871;4.4235;
1316.4000;0.0879;4.4308;
1316.7000;0.0855;4.4186;
1317.0000;0.0952;4.4430;
1317.3000;0.0887;4.4210;
1317.6000;0.0765;4.3917;
1317.9000;0.0822;4.3941;
1318.2000;0.0798;4.3746;
1318.5000;0.0871;4.3941;
1318.8000;0.0871;4.3941;
1319.1000;0.0855;4.4039;
1319.4000;0.0806;4.3892;
1319.7000;0.0879;4.4137;
1320.0000;0.0920;4.4308;
1320.3000;0.0855;4.4186;
1320.6000;0.0863;4.4210;
1320.9000;0.0855;4.4235;
1321.2000;0.0847;4.4259;
1321.5000;0.0855;4.4210;
1321.8000;0.0879;4.4333;
1322.1000;0.0887;4.4333;
1322.4000;0.0855;4.4235;
1322.7000;0.0863;4.4186;
1323.0000;0.0863;4.4137;
1323.3000;0.0952;4.4381;
1323.6000;0.0887;4.4235;
1323.9000;0.0781;4.3966;
1324.2000;0.0847;4.4186;
1324.5000;0.0969;4.4577;
1324.8000;0.0847;4.4137;
1325.1000;0.0871;4.4186;
1325.4000;0.0806;4.4015;
1325.7000;0.0895;4.4333;
1326.0000;0.0879;4.4284;
1326.3000;0.0871;4.4210;
1326.6000;0.0871;4.4284;
1326.9000;0.0895;4.4308;
1327.2000;0.0879;4.4333;
1327.5000;0.0749;4.4015;
1327.8000;0.0895;4.4333;
1328.1000;0.0863;4.4210;
1328.4000;0.0863;4.4235;
1328.7000;0.0863;4.4259;
1329.0000;0.0855;4.4259;
1329.3000;0.0879;4.4235;
1329.6000;0.0830;4.4064;
1329.9000;0.0879;4.4161;
1330.2000;0.0871;4.4039;
1330.5000;0.0912;4.4235;
1330.8000;0.0871;4.4186;
1331.1000;0.0855;4.4161;
1331.4000;0.0855;4.4112;
1331.7000;0.0830;4.3990;
1332.0000;0.0855;4.4137;
1332.3000;0.0887;4.4137;
1332.6000;0.0895;4.4137;
1332.9000;0.0838;4.3868;
1333.2000;0.0871;4.3941;
1333.5000;0.0887;4.4088;
1333.8000;0.0863;4.3990;
1334.1000;0.1018;4.4357;
1334.4000;0.0863;4.3966;
1334.7000;0.0863;4.4088;
1335.0000;0.0912;4.4210;
1335.3000;0.0773;4.3843;
1335.6000;0.0855;4.4186;
1335.9000;0.0871;4.4112;
1336.2000;0.0855;4.4064;
1336.5000;0.0871;4.4088;
1336.8000;0.0863;4.4088;
1337.1000;0.0863;4.4161;
1337.4000;0.0855;4.4112;
1337.7000;0.0887;4.4186;
1338.0000;0.0871;4.4088;
1338.3000;0.0871;4.4161;
1338.6000;0.0879;4.4161;
1338.9000;0.0879;4.4161;
1339.2000;0.0863;4.4137;
1339.5000;0.0936;4.4284;
1339.8000;0.0863;4.4064;
1340.1000;0.0741;4.3795;
1340.4000;0.0969;4.4479;
1340.7000;0.0733;4.3868;
1341.0000;0.0871;4.4112;
1341.3000;0.0863;4.4064;
1341.6000;0.0912;4.4186;
1341.9000;0.0912;4.4235;
1342.2000;0.0912;4.4284;
1342.5000;0.0871;4.4259;
1342.8000;0.0871;4.4137;
1343.1000;0.0790;4.4015;
1343.4000;0.0887;4.4333;
1343.7000;0.0920;4.4479;
1344.0000;0.0879;4.4308;
1344.3000;0.0871;4.4235;
1344.6000;0.0847;4.4210;
1344.9000;0.0936;4.4406;
1345.2000;0.0904;4.4284;
1345.5000;0.0871;4.4259;
1345.8000;0.0863;4.4186;
1346.1000;0.0855;4.4137;
1346.4000;0.0871;4.4161;
1346.7000;0.0887;4.4186;
1347.0000;0.0863;4.4064;
1347.3000;0.0879;4.4015;
1347.6000;0.0863;4.4064;
1347.9000;0.0716;4.3721;
1348.2000;0.0879;4.4112;
1348.5000;0.0855;4.4186;
1348.8000;0.0871;4.4284;
1349.1000;0.0879;4.4235;
1349.4000;0.0855;4.4112;
1349.7000;0.0855;4.4137;
1350.0000;0.0863;4.4137;
1350.3000;0.0863;4.4259;
1350.6000;0.0822;4.4137;
1350.9000;0.0855;4.4333;
1351.2000;0.0871;4.4308;
1351.5000;0.0847;4.4186;
1351.8000;0.0847;4.4210;
1352.1000;0.0847;4.4186;
1352.4000;0.0879;4.4235;
1352.7000;0.0847;4.4186;
1353.0000;0.0855;4.4210;
1353.3000;0.0879;4.4161;
1353.6000;0.0887;4.4235;
1353.9000;0.0879;4.4235;
1354.2000;0.0855;4.4137;
1354.5000;0.0847;4.4064;
1354.8000;0.0961;4.4357;
1355.1000;0.0847;4.4039;
1355.4000;0.0904;4.4235;
1355.7000;0.0904;4.4186;
1356.0000;0.0895;4.4161;
1356.3000;0.0863;4.4235;
1356.6000;0.0855;4.4235;
1356.9000;0.0806;4.4088;
1357.2000;0.0871;4.4210;
1357.5000;0.0871;4.4112;
1357.8000;0.0887;4.4088;
1358.1000;0.0928;4.4210;
1358.4000;0.0847;4.3868;
1358.7000;0.0904;4.4015;
1359.0000;0.0863;4.4039;
1359.3000;0.0871;4.4137;
1359.6000;0.0887;4.4112;
1359.9000;0.0879;4.4064;
1360.2000;0.0855;4.4039;
1360.5000;0.0887;4.4064;
1360.8000;0.0847;4.3868;
1361.1000;0.0847;4.3941;
1361.4000;0.0863;4.4015;
1361.7000;0.0904;4.4161;
1362.0000;0.0879;4.4064;
1362.3000;0.0904;4.4186;
1362.6000;0.0855;4.4039;
1362.9000;0.0863;4.4064;
1363.2000;0.0871;4.4112;
1363.5000;0.0879;4.4161;
1363.8000;0.0863;4.4186;
1364.1000;0.0838;4.4186;
1364.4000;0.0855;4.4161;
1364.7000;0.0822;4.4112;
1365.0000;0.0830;4.4112;
1365.3000;0.0855;4.4137;
1365.6000;0.0904;4.4284;
1365.9000;0.0822;4.4039;
1366.2000;0.0814;4.4064;
1366.5000;0.0871;4.4235;
1366.8000;0.0879;4.4308;
1367.1000;0.0863;4.4308;
1367.4000;0.0871;4.4186;
1367.7000;0.0904;4.4259;
1368.0000;0.0855;4.4137;
1368.3000;0.0887;4.4161;
1368.6000;0.0847;4.4088;
1368.9000;0.0920;4.4381;
1369.2000;0.0879;4.4259;
1369.5000;0.0871;4.4112;
1369.8000;0.0863;4.4039;
1370.1000;0.0879;4.4064;
1370.4000;0.0920;4.4210;
1370.7000;0.0887;4.4137;
1371.0000;0.0879;4.4112;
1371.3000;0.0847;4.4112;
1371.6000;0.0863;4.4186;
1371.9000;0.0944;4.4406;
1372.2000;0.0838;4.4088;
1372.5000;0.0863;4.4161;
1372.8000;0.0863;4.4112;
1373.1000;0.0904;4.4235;
1373.4000;0.0895;4.4308;
1373.7000;0.0879;4.4235;
1374.0000;0.0855;4.4308;
1374.3000;0.0871;4.4406;
1374.6000;0.0863;4.4406;
1374.9000;0.0863;4.4357;
1375.2000;0.0847;4.4357;
1375.5000;0.0863;4.4357;
1375.8000;0.0863;4.4381;
1376.1000;0.0871;4.4259;
1376.4000;0.0814;4.4039;
1376.7000;0.0855;4.4284;
1377.0000;0.0733;4.3868;
1377.3000;0.0920;4.4333;
1377.6000;0.0855;4.4112;
1377.9000;0.0871;4.4088;
1378.2000;0.0895;4.4161;
1378.5000;0.0895;4.4186;
1378.8000;0.0887;4.4137;
1379.1000;0.0895;4.4161;
1379.4000;0.0879;4.4210;
1379.7000;0.0912;4.4284;
1380.0000;0.0871;4.4161;
1380.3000;0.0855;4.4015;
1380.6000;0.0871;4.4088;
1380.9000;0.0781;4.3892;
1381.2000;0.0806;4.4039;
1381.5000;0.0871;4.4186;
1381.8000;0.0904;4.4308;
1382.1000;0.0822;4.4137;
1382.4000;0.0781;4.4015;
1382.7000;0.0855;4.4088;
1383.0000;0.0806;4.3966;
1383.3000;0.0887;4.4235;
1383.6000;0.0863;4.4137;
1383.9000;0.0863;4.4186;
1384.2000;0.0847;4.4112;
1384.5000;0.0904;4.4161;
1384.8000;0.0863;4.4064;
1385.1000;0.0871;4.4112;
1385.4000;0.0863;4.4161;
1385.7000;0.0871;4.4235;
1386.0000;0.0871;4.4235;
1386.3000;0.0863;4.4161;
1386.6000;0.0871;4.4137;
1386.9000;0.0904;4.4235;
1387.2000;0.0887;4.4259;
1387.5000;0.0871;4.4210;
1387.8000;0.0863;4.4186;
1388.1000;0.0855;4.4137;
1388.4000;0.0871;4.4210;
1388.7000;0.0847;4.4064;
1389.0000;0.0879;4.4088;
1389.3000;0.0838;4.4039;
1389.6000;0.0928;4.4284;
1389.9000;0.0871;4.4112;
1390.2000;0.0838;4.4039;
1390.5000;0.0798;4.3917;
1390.8000;0.0887;4.4112;
1391.1000;0.0822;4.3990;
1391.4000;0.0749;4.3843;
1391.7000;0.0838;4.4088;
1392.0000;0.0887;4.4161;
1392.3000;0.0871;4.4088;
1392.6000;0.0855;4.4064;
1392.9000;0.0855;4.4088;
1393.2000;0.0879;4.4137;
1393.5000;0.0855;4.4137;
1393.8000;0.0871;4.4235;
1394.1000;0.0887;4.4210;
1394.4000;0.0855;4.4088;
1394.7000;0.0879;4.4088;
1395.0000;0.0879;4.4137;
1395.3000;0.0871;4.3990;
1395.6000;0.0887;4.4112;
1395.9000;0.0838;4.3966;
1396.2000;0.0863;4.4039;
1396.5000;0.0855;4.4015;
1396.8000;0.0855;4.4015;
1397.1000;0.0847;4.4039;
1397.4000;0.0733;4.3917;
1397.7000;0.0871;4.4186;
1398.0000;0.0806;4.4015;
1398.3000;0.0855;4.4210;
1398.6000;0.0904;4.4210;
1398.9000;0.0871;4.4088;
1399.2000;0.0847;4.3966;
1399.5000;0.0838;4.4015;
1399.8000;0.0969;4.4333;
