time/ms;Fluo/V;P700 deltaI/I x10³;
-199.8000;0.0952;4.4259;
-199.5000;0.0879;4.4015;
-199.2000;0.0928;4.4112;
-198.9000;0.0936;4.4161;
-198.6000;0.0920;4.4015;
-198.3000;0.0944;4.4137;
-198.0000;0.0944;4.4137;
-197.7000;0.0985;4.4259;
-197.4000;0.0904;4.4039;
-197.1000;0.0985;4.4137;
-196.8000;0.0977;4.4039;
-196.5000;0.0961;4.3941;
-196.2000;0.0977;4.4015;
-195.9000;0.0928;4.3966;
-195.6000;0.0952;4.3941;
-195.3000;0.0961;4.4088;
-195.0000;0.0912;4.3941;
-194.7000;0.0961;4.4112;
-194.4000;0.0961;4.4210;
-194.1000;0.0961;4.4210;
-193.8000;0.0936;4.4088;
-193.5000;0.0944;4.4186;
-193.2000;0.0969;4.4137;
-192.9000;0.1009;4.4186;
-192.6000;0.0936;4.4039;
-192.3000;0.0977;4.4137;
-192.0000;0.0912;4.4039;
-191.7000;0.0944;4.4088;
-191.4000;0.0944;4.4112;
-191.1000;0.0920;4.4137;
-190.8000;0.0952;4.4284;
-190.5000;0.0904;4.4088;
-190.2000;0.0855;4.3868;
-189.9000;0.0969;4.4259;
-189.6000;0.0936;4.4112;
-189.3000;0.0969;4.4210;
-189.0000;0.0969;4.4210;
-188.7000;0.0985;4.4259;
-188.4000;0.0936;4.4161;
-188.1000;0.1009;4.4406;
-187.8000;0.0944;4.4259;
-187.5000;0.0977;4.4333;
-187.2000;0.0977;4.4357;
-186.9000;0.0961;4.4308;
-186.6000;0.0977;4.4284;
-186.3000;0.0961;4.4284;
-186.0000;0.0928;4.4259;
-185.7000;0.0961;4.4381;
-185.4000;0.0936;4.4333;
-185.1000;0.0961;4.4455;
-184.8000;0.0969;4.4357;
-184.5000;0.0961;4.4284;
-184.2000;0.1026;4.4381;
-183.9000;0.0944;4.4088;
-183.6000;0.0961;4.4112;
-183.3000;0.0952;4.4064;
-183.0000;0.0944;4.4015;
-182.7000;0.0952;4.4064;
-182.4000;0.0969;4.4064;
-182.1000;0.0912;4.3966;
-181.8000;0.0969;4.4161;
-181.5000;0.0961;4.4186;
-181.2000;0.0952;4.4186;
-180.9000;0.0944;4.4259;
-180.6000;0.0912;4.4186;
-180.3000;0.0920;4.4137;
-180.0000;0.0936;4.4137;
-179.7000;0.0969;4.4112;
-179.4000;0.0952;4.4039;
-179.1000;0.0969;4.4210;
-178.8000;0.0952;4.4235;
-178.5000;0.0977;4.4284;
-178.2000;0.0936;4.4235;
-177.9000;0.0977;4.4259;
-177.6000;0.0969;4.4210;
-177.3000;0.0969;4.4137;
-177.0000;0.0952;4.4186;
-176.7000;0.0961;4.4284;
-176.4000;0.0969;4.4235;
-176.1000;0.0936;4.4210;
-175.8000;0.0969;4.4357;
-175.5000;0.0977;4.4381;
-175.2000;0.0936;4.4284;
-174.9000;0.0969;4.4357;
-174.6000;0.1034;4.4553;
-174.3000;0.0944;4.4284;
-174.0000;0.0961;4.4284;
-173.7000;0.0944;4.4161;
-173.4000;0.0969;4.4137;
-173.1000;0.0920;4.4015;
-172.8000;0.0961;4.4039;
-172.5000;0.0993;4.4210;
-172.2000;0.0952;4.4161;
-171.9000;0.0961;4.4235;
-171.6000;0.0944;4.4210;
-171.3000;0.0944;4.4161;
-171.0000;0.0961;4.4235;
-170.7000;0.0969;4.4333;
-170.4000;0.0944;4.4259;
-170.1000;0.0936;4.4259;
-169.8000;0.0944;4.4284;
-169.5000;0.0985;4.4406;
-169.2000;0.0944;4.4333;
-168.9000;0.0952;4.4333;
-168.6000;0.0993;4.4430;
-168.3000;0.0961;4.4406;
-168.0000;0.0928;4.4381;
-167.7000;0.0969;4.4333;
-167.4000;0.1001;4.4381;
-167.1000;0.0944;4.4210;
-166.8000;0.0969;4.4357;
-166.5000;0.0944;4.4235;
-166.2000;0.0952;4.4235;
-165.9000;0.0928;4.4284;
-165.6000;0.0961;4.4308;
-165.3000;0.0952;4.4235;
-165.0000;0.0944;4.4161;
-164.7000;0.0961;4.4284;
-164.4000;0.0904;4.4137;
-164.1000;0.0936;4.4235;
-163.8000;0.0944;4.4284;
-163.5000;0.0928;4.4210;
-163.2000;0.0969;4.4259;
-162.9000;0.1066;4.4455;
-162.6000;0.1018;4.4284;
-162.3000;0.0952;4.4088;
-162.0000;0.0944;4.4064;
-161.7000;0.0952;4.4039;
-161.4000;0.0993;4.4210;
-161.1000;0.0936;4.4137;
-160.8000;0.0977;4.4210;
-160.5000;0.0961;4.4186;
-160.2000;0.0952;4.4259;
-159.9000;0.0969;4.4333;
-159.6000;0.0936;4.4235;
-159.3000;0.0969;4.4210;
-159.0000;0.0977;4.4161;
-158.7000;0.0944;4.4064;
-158.4000;0.0977;4.4112;
-158.1000;0.0952;4.4015;
-157.8000;0.0969;4.4039;
-157.5000;0.0985;4.4039;
-157.2000;0.0952;4.3966;
-156.9000;0.0969;4.4039;
-156.6000;0.0969;4.4039;
-156.3000;0.0969;4.4064;
-156.0000;0.0936;4.4112;
-155.7000;0.0936;4.4161;
-155.4000;0.0920;4.4137;
-155.1000;0.0895;4.3966;
-154.8000;0.0904;4.4015;
-154.5000;0.0936;4.4112;
-154.2000;0.0944;4.4112;
-153.9000;0.0961;4.4088;
-153.6000;0.0961;4.4112;
-153.3000;0.0952;4.4088;
-153.0000;0.0944;4.4112;
-152.7000;0.0969;4.4161;
-152.4000;0.0944;4.4161;
-152.1000;0.0961;4.4186;
-151.8000;0.0944;4.4088;
-151.5000;0.0961;4.4112;
-151.2000;0.0879;4.3892;
-150.9000;0.0952;4.4088;
-150.6000;0.0944;4.4064;
-150.3000;0.0969;4.4015;
-150.0000;0.0969;4.4088;
-149.7000;0.1026;4.4259;
-149.4000;0.0920;4.3941;
-149.1000;0.0952;4.4039;
-148.8000;0.0961;4.4161;
-148.5000;0.1026;4.4284;
-148.2000;0.0961;4.4039;
-147.9000;0.0944;4.3990;
-147.6000;0.0952;4.3966;
-147.3000;0.0961;4.4039;
-147.0000;0.0904;4.3917;
-146.7000;0.1009;4.4235;
-146.4000;0.0985;4.4186;
-146.1000;0.0969;4.4112;
-145.8000;0.0952;4.4088;
-145.5000;0.0961;4.4137;
-145.2000;0.0977;4.4137;
-144.9000;0.0977;4.4088;
-144.6000;0.0969;4.4039;
-144.3000;0.0961;4.4112;
-144.0000;0.0952;4.4112;
-143.7000;0.0985;4.4259;
-143.4000;0.0961;4.4235;
-143.1000;0.0879;4.3941;
-142.8000;0.0969;4.4137;
-142.5000;0.0952;4.4137;
-142.2000;0.0936;4.4088;
-141.9000;0.0961;4.4186;
-141.6000;0.0961;4.4235;
-141.3000;0.0961;4.4210;
-141.0000;0.1074;4.4626;
-140.7000;0.0944;4.4186;
-140.4000;0.0936;4.4284;
-140.1000;0.0969;4.4381;
-139.8000;0.1034;4.4455;
-139.5000;0.0952;4.4235;
-139.2000;0.0969;4.4333;
-138.9000;0.0961;4.4284;
-138.6000;0.0969;4.4284;
-138.3000;0.0936;4.4186;
-138.0000;0.0952;4.4333;
-137.7000;0.0969;4.4381;
-137.4000;0.0993;4.4504;
-137.1000;0.0952;4.4430;
-136.8000;0.0920;4.4381;
-136.5000;0.0944;4.4333;
-136.2000;0.0952;4.4430;
-135.9000;0.1009;4.4553;
-135.6000;0.0944;4.4357;
-135.3000;0.0952;4.4406;
-135.0000;0.0969;4.4455;
-134.7000;0.0985;4.4504;
-134.4000;0.0944;4.4406;
-134.1000;0.0920;4.4333;
-133.8000;0.0830;4.3966;
-133.5000;0.0961;4.4308;
-133.2000;0.0920;4.4186;
-132.9000;0.0944;4.4259;
-132.6000;0.1050;4.4528;
-132.3000;0.0952;4.4284;
-132.0000;0.0944;4.4235;
-131.7000;0.0920;4.4186;
-131.4000;0.0961;4.4333;
-131.1000;0.0895;4.4112;
-130.8000;0.0961;4.4333;
-130.5000;0.0952;4.4284;
-130.2000;0.0895;4.4284;
-129.9000;0.1001;4.4504;
-129.6000;0.0985;4.4381;
-129.3000;0.0936;4.4186;
-129.0000;0.0961;4.4284;
-128.7000;0.0920;4.4235;
-128.4000;0.0961;4.4357;
-128.1000;0.0977;4.4406;
-127.8000;0.0936;4.4357;
-127.5000;0.0944;4.4381;
-127.2000;0.0944;4.4406;
-126.9000;0.0993;4.4430;
-126.6000;0.0961;4.4381;
-126.3000;0.0961;4.4381;
-126.0000;0.0944;4.4259;
-125.7000;0.0961;4.4259;
-125.4000;0.0936;4.4259;
-125.1000;0.0969;4.4357;
-124.8000;0.0977;4.4357;
-124.5000;0.0977;4.4333;
-124.2000;0.0936;4.4259;
-123.9000;0.0912;4.4259;
-123.6000;0.0920;4.4357;
-123.3000;0.1009;4.4577;
-123.0000;0.0912;4.4308;
-122.7000;0.0928;4.4284;
-122.4000;0.0912;4.4112;
-122.1000;0.0944;4.4259;
-121.8000;0.0977;4.4357;
-121.5000;0.0928;4.4308;
-121.2000;0.1001;4.4479;
-120.9000;0.0952;4.4357;
-120.6000;0.0928;4.4284;
-120.3000;0.0961;4.4308;
-120.0000;0.0961;4.4235;
-119.7000;0.0985;4.4235;
-119.4000;0.0985;4.4186;
-119.1000;0.0928;4.4039;
-118.8000;0.0969;4.4235;
-118.5000;0.0961;4.4235;
-118.2000;0.0952;4.4259;
-117.9000;0.0977;4.4308;
-117.6000;0.0952;4.4259;
-117.3000;0.0944;4.4333;
-117.0000;0.0977;4.4553;
-116.7000;0.0936;4.4430;
-116.4000;0.0952;4.4406;
-116.1000;0.0961;4.4455;
-115.8000;0.0952;4.4333;
-115.5000;0.0944;4.4210;
-115.2000;0.0912;4.4039;
-114.9000;0.0952;4.4161;
-114.6000;0.0961;4.4210;
-114.3000;0.0993;4.4284;
-114.0000;0.0952;4.4186;
-113.7000;0.0961;4.4259;
-113.4000;0.0904;4.4112;
-113.1000;0.0936;4.4210;
-112.8000;0.0944;4.4210;
-112.5000;0.0944;4.4210;
-112.2000;0.0961;4.4235;
-111.9000;0.0961;4.4259;
-111.6000;0.0977;4.4284;
-111.3000;0.0952;4.4284;
-111.0000;0.0969;4.4259;
-110.7000;0.0977;4.4308;
-110.4000;0.0952;4.4210;
-110.1000;0.0961;4.4235;
-109.8000;0.0904;4.4064;
-109.5000;0.0920;4.4039;
-109.2000;0.0936;4.4088;
-108.9000;0.0936;4.4088;
-108.6000;0.0944;4.4161;
-108.3000;0.0912;4.3990;
-108.0000;0.0969;4.4112;
-107.7000;0.1018;4.4308;
-107.4000;0.0936;4.4112;
-107.1000;0.0952;4.4137;
-106.8000;0.0977;4.4161;
-106.5000;0.0969;4.4064;
-106.2000;0.0969;4.4088;
-105.9000;0.0936;4.3990;
-105.6000;0.0961;4.4088;
-105.3000;0.0961;4.4186;
-105.0000;0.0969;4.4186;
-104.7000;0.0977;4.4186;
-104.4000;0.0936;4.4112;
-104.1000;0.0952;4.4210;
-103.8000;0.0944;4.4161;
-103.5000;0.1001;4.4235;
-103.2000;0.0985;4.4259;
-102.9000;0.0969;4.4186;
-102.6000;0.0952;4.4186;
-102.3000;0.0936;4.4137;
-102.0000;0.1018;4.4430;
-101.7000;0.0952;4.4259;
-101.4000;0.0952;4.4284;
-101.1000;0.0944;4.4308;
-100.8000;0.0952;4.4308;
-100.5000;0.0952;4.4430;
-100.2000;0.0944;4.4406;
-99.9000;0.0936;4.4308;
-99.6000;0.0985;4.4406;
-99.3000;0.0961;4.4357;
-99.0000;0.0895;4.4259;
-98.7000;0.0887;4.4210;
-98.4000;0.0961;4.4381;
-98.1000;0.0952;4.4406;
-97.8000;0.0944;4.4381;
-97.5000;0.0879;4.4235;
-97.2000;0.0961;4.4479;
-96.9000;0.0952;4.4528;
-96.6000;0.0944;4.4406;
-96.3000;0.0944;4.4455;
-96.0000;0.0969;4.4553;
-95.7000;0.1066;4.4748;
-95.4000;0.1001;4.4479;
-95.1000;0.0961;4.4259;
-94.8000;0.0895;4.4064;
-94.5000;0.1001;4.4259;
-94.2000;0.0969;4.4210;
-93.9000;0.0944;4.4064;
-93.6000;0.0904;4.4039;
-93.3000;0.0944;4.4137;
-93.0000;0.0944;4.4112;
-92.7000;0.0944;4.4210;
-92.4000;0.0952;4.4308;
-92.1000;0.0952;4.4284;
-91.8000;0.0944;4.4112;
-91.5000;0.1018;4.4406;
-91.2000;0.0944;4.4210;
-90.9000;0.0912;4.4112;
-90.6000;0.0936;4.4186;
-90.3000;0.0936;4.4235;
-90.0000;0.0936;4.4235;
-89.7000;0.0952;4.4333;
-89.4000;0.0928;4.4308;
-89.1000;0.0993;4.4504;
-88.8000;0.0961;4.4406;
-88.5000;0.0944;4.4308;
-88.2000;0.0969;4.4357;
-87.9000;0.0961;4.4455;
-87.6000;0.0952;4.4357;
-87.3000;0.0936;4.4284;
-87.0000;0.0912;4.4308;
-86.7000;0.0944;4.4430;
-86.4000;0.0985;4.4479;
-86.1000;0.0977;4.4357;
-85.8000;0.0961;4.4284;
-85.5000;0.0936;4.4333;
-85.2000;0.0887;4.4333;
-84.9000;0.0944;4.4430;
-84.6000;0.0969;4.4357;
-84.3000;0.0920;4.4161;
-84.0000;0.0961;4.4284;
-83.7000;0.0944;4.4259;
-83.4000;0.0944;4.4161;
-83.1000;0.0977;4.4235;
-82.8000;0.0944;4.4210;
-82.5000;0.0952;4.4259;
-82.2000;0.0952;4.4186;
-81.9000;0.0952;4.4186;
-81.6000;0.0993;4.4284;
-81.3000;0.0961;4.4284;
-81.0000;0.0969;4.4186;
-80.7000;0.0969;4.4112;
-80.4000;0.0952;4.4112;
-80.1000;0.0936;4.4112;
-79.8000;0.0944;4.4137;
-79.5000;0.0944;4.4186;
-79.2000;0.0961;4.4210;
-78.9000;0.0977;4.4210;
-78.6000;0.0936;4.4137;
-78.3000;0.1042;4.4528;
-78.0000;0.0952;4.4235;
-77.7000;0.0969;4.4357;
-77.4000;0.0944;4.4210;
-77.1000;0.0961;4.4210;
-76.8000;0.0920;4.4112;
-76.5000;0.0928;4.4259;
-76.2000;0.0952;4.4235;
-75.9000;0.0936;4.4284;
-75.6000;0.0985;4.4455;
-75.3000;0.0936;4.4210;
-75.0000;0.0952;4.4284;
-74.7000;0.0977;4.4259;
-74.4000;0.0952;4.4259;
-74.1000;0.0969;4.4333;
-73.8000;0.0887;4.4112;
-73.5000;0.0944;4.4259;
-73.2000;0.0952;4.4333;
-72.9000;0.0969;4.4357;
-72.6000;0.0952;4.4259;
-72.3000;0.0952;4.4259;
-72.0000;0.0952;4.4186;
-71.7000;0.0887;4.4112;
-71.4000;0.0920;4.4259;
-71.1000;0.0985;4.4430;
-70.8000;0.0952;4.4308;
-70.5000;0.0904;4.4137;
-70.2000;0.0961;4.4235;
-69.9000;0.0895;4.3941;
-69.6000;0.0961;4.4161;
-69.3000;0.0961;4.4186;
-69.0000;0.0961;4.4259;
-68.7000;0.0952;4.4210;
-68.4000;0.0879;4.4064;
-68.1000;0.0952;4.4186;
-67.8000;0.0985;4.4357;
-67.5000;0.1009;4.4504;
-67.2000;0.0928;4.4186;
-66.9000;0.1018;4.4406;
-66.6000;0.0952;4.4235;
-66.3000;0.0944;4.4186;
-66.0000;0.0993;4.4308;
-65.7000;0.0969;4.4284;
-65.4000;0.0920;4.4161;
-65.1000;0.0977;4.4479;
-64.8000;0.0830;4.4015;
-64.5000;0.0961;4.4357;
-64.2000;0.0944;4.4357;
-63.9000;0.0928;4.4284;
-63.6000;0.0944;4.4381;
-63.3000;0.0920;4.4259;
-63.0000;0.0952;4.4235;
-62.7000;0.0944;4.4137;
-62.4000;0.0961;4.4088;
-62.1000;0.0944;4.4015;
-61.8000;0.0944;4.4039;
-61.5000;0.0936;4.4015;
-61.2000;0.0952;4.4064;
-60.9000;0.0936;4.4039;
-60.6000;0.0952;4.4088;
-60.3000;0.0977;4.4137;
-60.0000;0.0944;4.4039;
-59.7000;0.0952;4.4039;
-59.4000;0.0985;4.4137;
-59.1000;0.0952;4.4039;
-58.8000;0.0952;4.3990;
-58.5000;0.0912;4.3819;
-58.2000;0.1001;4.4112;
-57.9000;0.0944;4.4015;
-57.6000;0.0944;4.4088;
-57.3000;0.0969;4.4137;
-57.0000;0.0952;4.4088;
-56.7000;0.0928;4.4137;
-56.4000;0.0944;4.4161;
-56.1000;0.0944;4.4088;
-55.8000;0.0920;4.4015;
-55.5000;0.1009;4.4308;
-55.2000;0.0952;4.4137;
-54.9000;0.0936;4.4137;
-54.6000;0.0985;4.4308;
-54.3000;0.0895;4.4064;
-54.0000;0.0977;4.4210;
-53.7000;0.0969;4.4308;
-53.4000;0.0944;4.4259;
-53.1000;0.0952;4.4333;
-52.8000;0.0969;4.4308;
-52.5000;0.1083;4.4553;
-52.2000;0.0952;4.4186;
-51.9000;0.0936;4.4137;
-51.6000;0.0952;4.4112;
-51.3000;0.0912;4.4039;
-51.0000;0.0936;4.4112;
-50.7000;0.0895;4.3966;
-50.4000;0.0936;4.4186;
-50.1000;0.0993;4.4430;
-49.8000;0.0969;4.4406;
-49.5000;0.0879;4.4137;
-49.2000;0.0985;4.4430;
-48.9000;0.0920;4.4284;
-48.6000;0.0952;4.4381;
-48.3000;0.0985;4.4406;
-48.0000;0.0952;4.4308;
-47.7000;0.0928;4.4235;
-47.4000;0.0977;4.4357;
-47.1000;0.0887;4.4015;
-46.8000;0.0961;4.4235;
-46.5000;0.0977;4.4284;
-46.2000;0.0912;4.4137;
-45.9000;0.0952;4.4235;
-45.6000;0.0871;4.4088;
-45.3000;0.0969;4.4235;
-45.0000;0.0928;4.4161;
-44.7000;0.0952;4.4284;
-44.4000;0.0944;4.4259;
-44.1000;0.0936;4.4210;
-43.8000;0.0977;4.4357;
-43.5000;0.0985;4.4381;
-43.2000;0.0961;4.4235;
-42.9000;0.0895;4.3941;
-42.6000;0.0969;4.4137;
-42.3000;0.0985;4.4088;
-42.0000;0.0936;4.3917;
-41.7000;0.0936;4.3941;
-41.4000;0.0961;4.4088;
-41.1000;0.0969;4.4088;
-40.8000;0.0969;4.4137;
-40.5000;0.0936;4.4112;
-40.2000;0.0952;4.4088;
-39.9000;0.0944;4.4088;
-39.6000;0.1001;4.4308;
-39.3000;0.0944;4.4186;
-39.0000;0.0936;4.4259;
-38.7000;0.0985;4.4259;
-38.4000;0.0977;4.4259;
-38.1000;0.0944;4.4210;
-37.8000;0.1009;4.4357;
-37.5000;0.0952;4.4161;
-37.2000;0.0936;4.4064;
-36.9000;0.0969;4.4210;
-36.6000;0.0871;4.4015;
-36.3000;0.1058;4.4479;
-36.0000;0.0961;4.4308;
-35.7000;0.0936;4.4308;
-35.4000;0.0936;4.4259;
-35.1000;0.0961;4.4333;
-34.8000;0.0961;4.4357;
-34.5000;0.0952;4.4381;
-34.2000;0.0871;4.4235;
-33.9000;0.0977;4.4601;
-33.6000;0.0879;4.4357;
-33.3000;0.0928;4.4333;
-33.0000;0.0952;4.4455;
-32.7000;0.0920;4.4333;
-32.4000;0.0985;4.4479;
-32.1000;0.0952;4.4406;
-31.8000;0.1034;4.4675;
-31.5000;0.0920;4.4381;
-31.2000;0.0961;4.4504;
-30.9000;0.0887;4.4357;
-30.6000;0.0993;4.4553;
-30.3000;0.0944;4.4381;
-30.0000;0.1009;4.4455;
-29.7000;0.0944;4.4308;
-29.4000;0.0952;4.4308;
-29.1000;0.0961;4.4381;
-28.8000;0.0944;4.4381;
-28.5000;0.1107;4.4773;
-28.2000;0.0952;4.4357;
-27.9000;0.0993;4.4430;
-27.6000;0.0969;4.4284;
-27.3000;0.0944;4.4259;
-27.0000;0.0969;4.4284;
-26.7000;0.0928;4.4137;
-26.4000;0.0993;4.4284;
-26.1000;0.0969;4.4186;
-25.8000;0.0961;4.4210;
-25.5000;0.0944;4.4308;
-25.2000;0.0977;4.4333;
-24.9000;0.0944;4.4259;
-24.6000;0.0961;4.4284;
-24.3000;0.0969;4.4308;
-24.0000;0.0952;4.4259;
-23.7000;0.0863;4.4039;
-23.4000;0.0961;4.4259;
-23.1000;0.0952;4.4161;
-22.8000;0.1034;4.4259;
-22.5000;0.0952;4.4015;
-22.2000;0.0936;4.3941;
-21.9000;0.0977;4.4235;
-21.6000;0.0961;4.4235;
-21.3000;0.0928;4.4112;
-21.0000;0.0961;4.4308;
-20.7000;0.1018;4.4479;
-20.4000;0.0952;4.4235;
-20.1000;0.0936;4.4137;
-19.8000;0.0895;4.4064;
-19.5000;0.0961;4.4186;
-19.2000;0.0952;4.4210;
-18.9000;0.0944;4.4137;
-18.6000;0.0944;4.4064;
-18.3000;0.0944;4.4088;
-18.0000;0.0977;4.4210;
-17.7000;0.0936;4.4015;
-17.4000;0.0961;4.3966;
-17.1000;0.0944;4.3966;
-16.8000;0.0993;4.4088;
-16.5000;0.0969;4.4064;
-16.2000;0.0952;4.4064;
-15.9000;0.0944;4.4088;
-15.6000;0.0928;4.4015;
-15.3000;0.1009;4.4235;
-15.0000;0.0928;4.4088;
-14.7000;0.0895;4.3892;
-14.4000;0.0969;4.4259;
-14.1000;0.0961;4.4259;
-13.8000;0.0977;4.4259;
-13.5000;0.0944;4.4210;
-13.2000;0.0936;4.4259;
-12.9000;0.0944;4.4259;
-12.6000;0.0969;4.4308;
-12.3000;0.0879;4.4064;
-12.0000;0.1018;4.4406;
-11.7000;0.0944;4.4186;
-11.4000;0.0928;4.4137;
-11.1000;0.0928;4.3990;
-10.8000;0.0961;4.3966;
-10.5000;0.0977;4.3966;
-10.2000;0.0928;4.3892;
-9.9000;0.0961;4.4015;
-9.6000;0.0904;4.3843;
-9.3000;0.0928;4.3868;
-9.0000;0.0977;4.4039;
-8.7000;0.0977;4.4064;
-8.4000;0.1050;4.4284;
-8.1000;0.0912;4.3990;
-7.8000;0.0944;4.4064;
-7.5000;0.0895;4.3917;
-7.2000;0.0944;4.4112;
-6.9000;0.0936;4.4112;
-6.6000;0.0936;4.4259;
-6.3000;0.0952;4.4235;
-6.0000;0.0969;4.4333;
-5.7000;0.0977;4.4235;
-5.4000;0.0904;4.4015;
-5.1000;0.0944;4.4137;
-4.8000;0.0961;4.4161;
-4.5000;0.0969;4.3990;
-4.2000;0.0952;4.3990;
-3.9000;0.0936;4.3917;
-3.6000;0.0944;4.3917;
-3.3000;0.0969;4.3990;
-3.0000;0.1074;4.4284;
-2.7000;0.0912;4.3917;
-2.4000;0.0952;4.3892;
-2.1000;0.0969;4.3868;
-1.8000;0.0944;4.3770;
-1.5000;0.0977;4.3819;
-1.2000;0.0961;4.3892;
-0.9000;0.0961;4.3843;
-0.6000;0.0944;4.3843;
-0.3000;0.0977;4.3941;
0.0000;0.0977;4.3941;
0.3000;0.0961;4.3917;
0.6000;0.0961;4.4088;
0.9000;0.0904;4.3966;
1.2000;0.0993;4.4161;
1.5000;0.0993;4.4284;
1.8000;0.1001;4.4406;
2.1000;0.1001;4.4577;
2.4000;0.1042;4.4748;
2.7000;0.1018;4.4797;
3.0000;0.1034;4.4797;
3.3000;0.0969;4.4699;
3.6000;0.1026;4.4919;
3.9000;0.1001;4.5017;
4.2000;0.1034;4.5139;
4.5000;0.1034;4.5139;
4.8000;0.1034;4.5042;
5.1000;0.1156;4.5384;
5.4000;0.1058;4.5164;
5.7000;0.1042;4.5188;
6.0000;0.1050;4.5188;
6.3000;0.1034;4.5115;
6.6000;0.1050;4.5139;
6.9000;0.1026;4.5115;
7.2000;0.1066;4.5286;
7.5000;0.1034;4.5262;
7.8000;0.1050;4.5360;
8.1000;0.1009;4.5188;
8.4000;0.1034;4.5262;
8.7000;0.1115;4.5457;
9.0000;0.1026;4.5164;
9.3000;0.1042;4.5164;
9.6000;0.1074;4.5213;
9.9000;0.1074;4.5237;
10.2000;0.1058;4.5286;
10.5000;0.1026;4.5262;
10.8000;0.1050;4.5384;
11.1000;0.1058;4.5335;
11.4000;0.1066;4.5360;
11.7000;0.0993;4.5237;
12.0000;0.1066;4.5580;
12.3000;0.1131;4.5775;
12.6000;0.1050;4.5531;
12.9000;0.1001;4.5311;
13.2000;0.1058;4.5457;
13.5000;0.1050;4.5457;
13.8000;0.1050;4.5506;
14.1000;0.1148;4.5800;
14.4000;0.1001;4.5286;
14.7000;0.1034;4.5384;
15.0000;0.1026;4.5360;
15.3000;0.1034;4.5360;
15.6000;0.1123;4.5604;
15.9000;0.1058;4.5384;
16.2000;0.1042;4.5408;
16.5000;0.1066;4.5482;
16.8000;0.1066;4.5531;
17.1000;0.1066;4.5506;
17.4000;0.1066;4.5457;
17.7000;0.1042;4.5384;
18.0000;0.1058;4.5262;
18.3000;0.1140;4.5482;
18.6000;0.1066;4.5335;
18.9000;0.0928;4.4895;
19.2000;0.1034;4.5213;
19.5000;0.1066;4.5262;
19.8000;0.1074;4.5360;
20.1000;0.1066;4.5360;
20.4000;0.1058;4.5311;
20.7000;0.1074;4.5360;
21.0000;0.1099;4.5311;
21.3000;0.1074;4.5286;
21.6000;0.1050;4.5213;
21.9000;0.1050;4.5262;
22.2000;0.1123;4.5482;
22.5000;0.1074;4.5360;
22.8000;0.1083;4.5384;
23.1000;0.1050;4.5286;
23.4000;0.1050;4.5237;
23.7000;0.1058;4.5286;
24.0000;0.1099;4.5384;
24.3000;0.1018;4.5115;
24.6000;0.1001;4.4993;
24.9000;0.1026;4.5017;
25.2000;0.1074;4.5139;
25.5000;0.1140;4.5408;
25.8000;0.1058;4.5213;
26.1000;0.1066;4.5213;
26.4000;0.1091;4.5262;
26.7000;0.1050;4.5115;
27.0000;0.0993;4.4968;
27.3000;0.1091;4.5237;
27.6000;0.1058;4.5139;
27.9000;0.0985;4.4993;
28.2000;0.1083;4.5237;
28.5000;0.1066;4.5139;
28.8000;0.1058;4.5188;
29.1000;0.1140;4.5311;
29.4000;0.1058;4.5042;
29.7000;0.1058;4.4993;
30.0000;0.1099;4.5091;
30.3000;0.1074;4.5115;
30.6000;0.1083;4.5213;
30.9000;0.1058;4.5139;
31.2000;0.1066;4.5139;
31.5000;0.1074;4.5213;
31.8000;0.1074;4.5213;
32.1000;0.1058;4.5237;
32.4000;0.1066;4.5237;
32.7000;0.1074;4.5237;
33.0000;0.0928;4.4944;
33.3000;0.1058;4.5335;
33.6000;0.1083;4.5408;
33.9000;0.1115;4.5433;
34.2000;0.1026;4.5262;
34.5000;0.1066;4.5335;
34.8000;0.1074;4.5262;
35.1000;0.1091;4.5384;
35.4000;0.1091;4.5311;
35.7000;0.1074;4.5311;
36.0000;0.1074;4.5262;
36.3000;0.1083;4.5262;
36.6000;0.1058;4.5164;
36.9000;0.1042;4.5115;
37.2000;0.1066;4.5213;
37.5000;0.1058;4.5213;
37.8000;0.1083;4.5237;
38.1000;0.1066;4.5164;
38.4000;0.1091;4.5286;
38.7000;0.1180;4.5677;
39.0000;0.1058;4.5384;
39.3000;0.1164;4.5555;
39.6000;0.1083;4.5360;
39.9000;0.1058;4.5384;
40.2000;0.1074;4.5457;
40.5000;0.1018;4.5311;
40.8000;0.1050;4.5408;
41.1000;0.1180;4.5751;
41.4000;0.1074;4.5384;
41.7000;0.1074;4.5408;
42.0000;0.1042;4.5360;
42.3000;0.1083;4.5335;
42.6000;0.1001;4.5017;
42.9000;0.1026;4.5091;
43.2000;0.1074;4.5213;
43.5000;0.1066;4.5213;
43.8000;0.1050;4.5237;
44.1000;0.1018;4.5091;
44.4000;0.1066;4.5286;
44.7000;0.1091;4.5311;
45.0000;0.1091;4.5262;
45.3000;0.1115;4.5286;
45.6000;0.1091;4.5237;
45.9000;0.1123;4.5408;
46.2000;0.1058;4.5091;
46.5000;0.1099;4.5091;
46.8000;0.1099;4.5164;
47.1000;0.1205;4.5580;
47.4000;0.1107;4.5311;
47.7000;0.1083;4.5213;
48.0000;0.1058;4.5188;
48.3000;0.0952;4.4895;
48.6000;0.1034;4.5066;
48.9000;0.1058;4.5139;
49.2000;0.1099;4.5115;
49.5000;0.1115;4.5091;
49.8000;0.1058;4.4968;
50.1000;0.1083;4.5115;
50.4000;0.1074;4.5091;
50.7000;0.1058;4.5139;
51.0000;0.1058;4.5017;
51.3000;0.1042;4.4993;
51.6000;0.1091;4.5042;
51.9000;0.1091;4.5091;
52.2000;0.1066;4.4993;
52.5000;0.1066;4.5042;
52.8000;0.1058;4.5017;
53.1000;0.1074;4.4993;
53.4000;0.1164;4.5237;
53.7000;0.1083;4.5042;
54.0000;0.1066;4.4993;
54.3000;0.1066;4.4919;
54.6000;0.1050;4.4895;
54.9000;0.1083;4.4993;
55.2000;0.1074;4.4993;
55.5000;0.1066;4.4919;
55.8000;0.1083;4.4968;
56.1000;0.1058;4.4919;
56.4000;0.1123;4.5091;
56.7000;0.1091;4.4993;
57.0000;0.1058;4.4993;
57.3000;0.1083;4.5091;
57.6000;0.1091;4.5115;
57.9000;0.1099;4.5115;
58.2000;0.1074;4.5042;
58.5000;0.1083;4.5017;
58.8000;0.1066;4.5042;
59.1000;0.1074;4.5042;
59.4000;0.1091;4.5115;
59.7000;0.1091;4.5091;
60.0000;0.1066;4.5066;
60.3000;0.1058;4.4968;
60.6000;0.1083;4.5066;
60.9000;0.1074;4.5042;
61.2000;0.1091;4.5042;
61.5000;0.1034;4.4968;
61.8000;0.1066;4.5066;
62.1000;0.1066;4.5017;
62.4000;0.1066;4.4968;
62.7000;0.1066;4.4895;
63.0000;0.1074;4.4895;
63.3000;0.1074;4.4919;
63.6000;0.0977;4.4797;
63.9000;0.1066;4.5017;
64.2000;0.1172;4.5237;
64.5000;0.1083;4.4919;
64.8000;0.1091;4.5042;
65.1000;0.1083;4.5017;
65.4000;0.1074;4.4993;
65.7000;0.1018;4.4846;
66.0000;0.1091;4.5042;
66.3000;0.1066;4.4944;
66.6000;0.1083;4.5017;
66.9000;0.1091;4.4895;
67.2000;0.1074;4.4944;
67.5000;0.1058;4.4919;
67.8000;0.1091;4.5042;
68.1000;0.1131;4.5213;
68.4000;0.1083;4.5091;
68.7000;0.1074;4.5066;
69.0000;0.1066;4.4993;
69.3000;0.1083;4.5066;
69.6000;0.1083;4.5066;
69.9000;0.1107;4.5139;
70.2000;0.1083;4.5017;
70.5000;0.1099;4.5017;
70.8000;0.1091;4.4895;
71.1000;0.1074;4.4773;
71.4000;0.1074;4.4846;
71.7000;0.1066;4.4822;
72.0000;0.1074;4.4895;
72.3000;0.1083;4.4870;
72.6000;0.1050;4.4797;
72.9000;0.1091;4.4919;
73.2000;0.1099;4.5091;
73.5000;0.1091;4.5042;
73.8000;0.1058;4.4895;
74.1000;0.1131;4.4968;
74.4000;0.1083;4.4822;
74.7000;0.1074;4.4724;
75.0000;0.1050;4.4822;
75.3000;0.1123;4.5042;
75.6000;0.1099;4.4968;
75.9000;0.1066;4.4919;
76.2000;0.1074;4.5017;
76.5000;0.1083;4.5042;
76.8000;0.1074;4.5066;
77.1000;0.1083;4.4993;
77.4000;0.1091;4.5017;
77.7000;0.1050;4.4895;
78.0000;0.1099;4.5091;
78.3000;0.1058;4.5066;
78.6000;0.1066;4.5188;
78.9000;0.1018;4.4968;
79.2000;0.1099;4.5188;
79.5000;0.1074;4.5042;
79.8000;0.1026;4.4846;
80.1000;0.1074;4.4919;
80.4000;0.1074;4.4968;
80.7000;0.1099;4.4919;
81.0000;0.1074;4.4822;
81.3000;0.1099;4.4919;
81.6000;0.1074;4.4870;
81.9000;0.1083;4.4895;
82.2000;0.1009;4.4675;
82.5000;0.1066;4.4919;
82.8000;0.1091;4.4870;
83.1000;0.1074;4.4822;
83.4000;0.1107;4.4919;
83.7000;0.1074;4.4870;
84.0000;0.1050;4.4919;
84.3000;0.1091;4.4993;
84.6000;0.1091;4.4968;
84.9000;0.1099;4.5066;
85.2000;0.1058;4.5042;
85.5000;0.1034;4.5042;
85.8000;0.1074;4.5115;
86.1000;0.1091;4.5164;
86.4000;0.1091;4.5115;
86.7000;0.1074;4.5042;
87.0000;0.1074;4.5042;
87.3000;0.1009;4.4846;
87.6000;0.1091;4.5066;
87.9000;0.1083;4.5017;
88.2000;0.1091;4.4993;
88.5000;0.1099;4.4919;
88.8000;0.1107;4.4797;
89.1000;0.1058;4.4699;
89.4000;0.1083;4.4699;
89.7000;0.1074;4.4748;
90.0000;0.1083;4.4822;
90.3000;0.1083;4.4919;
90.6000;0.1083;4.4919;
90.9000;0.1091;4.4968;
91.2000;0.1107;4.4968;
91.5000;0.1083;4.4846;
91.8000;0.1131;4.4870;
92.1000;0.1083;4.4773;
92.4000;0.1074;4.4797;
92.7000;0.1074;4.4870;
93.0000;0.1083;4.4968;
93.3000;0.1074;4.4968;
93.6000;0.1074;4.4895;
93.9000;0.1099;4.4919;
94.2000;0.1083;4.4895;
94.5000;0.1083;4.4895;
94.8000;0.1058;4.4895;
95.1000;0.1107;4.5091;
95.4000;0.1066;4.4993;
95.7000;0.1099;4.4968;
96.0000;0.1107;4.4919;
96.3000;0.1107;4.4993;
96.6000;0.1091;4.5042;
96.9000;0.1091;4.4993;
97.2000;0.1066;4.4919;
97.5000;0.1058;4.4895;
97.8000;0.1058;4.4968;
98.1000;0.1156;4.5286;
98.4000;0.1091;4.5091;
98.7000;0.1074;4.4968;
99.0000;0.1083;4.5115;
99.3000;0.1074;4.5115;
99.6000;0.1083;4.5115;
99.9000;0.1074;4.5091;
100.2000;0.1123;4.5188;
100.5000;0.1074;4.4968;
100.8000;0.1050;4.4870;
101.1000;0.1074;4.4944;
101.4000;0.1107;4.4919;
101.7000;0.1074;4.4822;
102.0000;0.1107;4.4870;
102.3000;0.1156;4.4944;
102.6000;0.1083;4.4773;
102.9000;0.1074;4.4919;
103.2000;0.1164;4.5286;
103.5000;0.1083;4.4968;
103.8000;0.1083;4.4968;
104.1000;0.1042;4.4822;
104.4000;0.1066;4.4919;
104.7000;0.1123;4.5017;
105.0000;0.1074;4.4895;
105.3000;0.1058;4.4773;
105.6000;0.1066;4.4797;
105.9000;0.1091;4.4895;
106.2000;0.1131;4.5017;
106.5000;0.1083;4.4822;
106.8000;0.1091;4.4846;
107.1000;0.1074;4.4773;
107.4000;0.1099;4.4822;
107.7000;0.1066;4.4846;
108.0000;0.1058;4.4846;
108.3000;0.1066;4.4944;
108.6000;0.1074;4.5017;
108.9000;0.1042;4.4895;
109.2000;0.1058;4.4919;
109.5000;0.1034;4.4748;
109.8000;0.1083;4.4773;
110.1000;0.1091;4.4797;
110.4000;0.1066;4.4675;
110.7000;0.1107;4.4846;
111.0000;0.1197;4.5017;
111.3000;0.1074;4.4650;
111.6000;0.1091;4.4650;
111.9000;0.1074;4.4626;
112.2000;0.1091;4.4748;
112.5000;0.1050;4.4650;
112.8000;0.1066;4.4724;
113.1000;0.1083;4.4724;
113.4000;0.1050;4.4626;
113.7000;0.1074;4.4724;
114.0000;0.1083;4.4773;
114.3000;0.1074;4.4773;
114.6000;0.1083;4.4822;
114.9000;0.1083;4.4846;
115.2000;0.1107;4.4895;
115.5000;0.1083;4.4870;
115.8000;0.1091;4.4895;
116.1000;0.1058;4.4748;
116.4000;0.1091;4.4822;
116.7000;0.1066;4.4822;
117.0000;0.1091;4.4870;
117.3000;0.1018;4.4724;
117.6000;0.1083;4.4993;
117.9000;0.1074;4.5017;
118.2000;0.1050;4.4968;
118.5000;0.1107;4.5091;
118.8000;0.1066;4.4944;
119.1000;0.1074;4.4968;
119.4000;0.1083;4.4993;
119.7000;0.1083;4.4993;
120.0000;0.1091;4.5017;
120.3000;0.1026;4.4919;
120.6000;0.1066;4.4944;
120.9000;0.1074;4.4846;
121.2000;0.1091;4.4870;
121.5000;0.1099;4.4822;
121.8000;0.1091;4.4822;
122.1000;0.1099;4.4919;
122.4000;0.1074;4.4895;
122.7000;0.1115;4.4944;
123.0000;0.1083;4.4846;
123.3000;0.1123;4.4919;
123.6000;0.1058;4.4870;
123.9000;0.1066;4.4919;
124.2000;0.1083;4.5066;
124.5000;0.1164;4.5360;
124.8000;0.1042;4.5066;
125.1000;0.1099;4.5213;
125.4000;0.1115;4.5139;
125.7000;0.1091;4.5042;
126.0000;0.1058;4.4993;
126.3000;0.1099;4.5017;
126.6000;0.1083;4.4944;
126.9000;0.1074;4.4870;
127.2000;0.1107;4.4870;
127.5000;0.1091;4.4773;
127.8000;0.1074;4.4846;
128.1000;0.0993;4.4650;
128.4000;0.1091;4.4944;
128.7000;0.1074;4.4919;
129.0000;0.1091;4.4870;
129.3000;0.1050;4.4773;
129.6000;0.1099;4.4944;
129.9000;0.1050;4.4870;
130.2000;0.1083;4.4993;
130.5000;0.1205;4.5237;
130.8000;0.1074;4.4944;
131.1000;0.1099;4.5017;
131.4000;0.1066;4.4968;
131.7000;0.1074;4.5017;
132.0000;0.1083;4.4895;
132.3000;0.1083;4.4870;
132.6000;0.1066;4.4797;
132.9000;0.1074;4.4797;
133.2000;0.1099;4.4797;
133.5000;0.1026;4.4601;
133.8000;0.1026;4.4626;
134.1000;0.1074;4.4724;
134.4000;0.1083;4.4919;
134.7000;0.1107;4.4993;
135.0000;0.1058;4.4870;
135.3000;0.1074;4.4944;
135.6000;0.1083;4.4944;
135.9000;0.1074;4.4919;
136.2000;0.0985;4.4626;
136.5000;0.1107;4.4895;
136.8000;0.1091;4.4846;
137.1000;0.1107;4.4870;
137.4000;0.1050;4.4748;
137.7000;0.1066;4.4895;
138.0000;0.1026;4.4895;
138.3000;0.1074;4.4919;
138.6000;0.1074;4.4993;
138.9000;0.1074;4.5091;
139.2000;0.1099;4.5164;
139.5000;0.1074;4.5139;
139.8000;0.1042;4.5017;
140.1000;0.1066;4.5017;
140.4000;0.1091;4.5115;
140.7000;0.1099;4.5139;
141.0000;0.1099;4.5091;
141.3000;0.1091;4.5042;
141.6000;0.1074;4.4944;
141.9000;0.1131;4.5066;
142.2000;0.1172;4.5213;
142.5000;0.1099;4.5017;
142.8000;0.1058;4.5115;
143.1000;0.0944;4.4822;
143.4000;0.1066;4.5139;
143.7000;0.1058;4.5139;
144.0000;0.1083;4.5286;
144.3000;0.1099;4.5433;
144.6000;0.1083;4.5360;
144.9000;0.1074;4.5384;
145.2000;0.1083;4.5482;
145.5000;0.1091;4.5482;
145.8000;0.1099;4.5457;
146.1000;0.1066;4.5311;
146.4000;0.1083;4.5335;
146.7000;0.1091;4.5335;
147.0000;0.1107;4.5360;
147.3000;0.1058;4.5237;
147.6000;0.1066;4.5286;
147.9000;0.1066;4.5286;
148.2000;0.1107;4.5408;
148.5000;0.1074;4.5384;
148.8000;0.1074;4.5335;
149.1000;0.1099;4.5360;
149.4000;0.1091;4.5237;
149.7000;0.1066;4.5360;
150.0000;0.1091;4.5335;
150.3000;0.1115;4.5311;
150.6000;0.1099;4.5237;
150.9000;0.1074;4.5164;
151.2000;0.1083;4.5237;
151.5000;0.1083;4.5164;
151.8000;0.1091;4.5237;
152.1000;0.1074;4.5237;
152.4000;0.1050;4.5139;
152.7000;0.1091;4.5164;
153.0000;0.1066;4.5188;
153.3000;0.1074;4.5262;
153.6000;0.1066;4.5286;
153.9000;0.1066;4.5188;
154.2000;0.1050;4.5042;
154.5000;0.1066;4.5188;
154.8000;0.1099;4.5286;
155.1000;0.1099;4.5335;
155.4000;0.1074;4.5213;
155.7000;0.1091;4.5237;
156.0000;0.1107;4.5360;
156.3000;0.1083;4.5262;
156.6000;0.1091;4.5457;
156.9000;0.1074;4.5335;
157.2000;0.1066;4.5311;
157.5000;0.1123;4.5408;
157.8000;0.1074;4.5262;
158.1000;0.1026;4.5115;
158.4000;0.1091;4.5213;
158.7000;0.1083;4.5188;
159.0000;0.1074;4.5286;
159.3000;0.1099;4.5286;
159.6000;0.1123;4.5360;
159.9000;0.1091;4.5237;
160.2000;0.1074;4.5115;
160.5000;0.1091;4.5213;
160.8000;0.1099;4.5237;
161.1000;0.1066;4.5188;
161.4000;0.1066;4.5091;
161.7000;0.1066;4.5115;
162.0000;0.1066;4.5091;
162.3000;0.1050;4.5017;
162.6000;0.1074;4.5139;
162.9000;0.1066;4.5139;
163.2000;0.1042;4.5091;
163.5000;0.1091;4.5262;
163.8000;0.1018;4.5066;
164.1000;0.1091;4.5139;
164.4000;0.1083;4.5164;
164.7000;0.1074;4.5091;
165.0000;0.1107;4.5262;
165.3000;0.1115;4.5286;
165.6000;0.1083;4.5237;
165.9000;0.1091;4.5286;
166.2000;0.1026;4.5237;
166.5000;0.1074;4.5286;
166.8000;0.1083;4.5213;
167.1000;0.1091;4.5139;
167.4000;0.1083;4.5115;
167.7000;0.1066;4.4993;
168.0000;0.1066;4.4993;
168.3000;0.1099;4.5042;
168.6000;0.1066;4.4919;
168.9000;0.1099;4.4993;
169.2000;0.1050;4.4870;
169.5000;0.1091;4.4919;
169.8000;0.0985;4.4675;
170.1000;0.1083;4.5017;
170.4000;0.1058;4.5066;
170.7000;0.1074;4.5115;
171.0000;0.1107;4.5188;
171.3000;0.1050;4.5017;
171.6000;0.1083;4.5042;
171.9000;0.1074;4.5066;
172.2000;0.1066;4.5066;
172.5000;0.1083;4.5115;
172.8000;0.1074;4.5042;
173.1000;0.1066;4.5017;
173.4000;0.1083;4.5066;
173.7000;0.1083;4.5164;
174.0000;0.1074;4.5115;
174.3000;0.1164;4.5311;
174.6000;0.1083;4.5091;
174.9000;0.1099;4.5237;
175.2000;0.1034;4.5139;
175.5000;0.1083;4.5311;
175.8000;0.1074;4.5237;
176.1000;0.1123;4.5433;
176.4000;0.1083;4.5311;
176.7000;0.1050;4.5213;
177.0000;0.1058;4.5237;
177.3000;0.1099;4.5360;
177.6000;0.1131;4.5457;
177.9000;0.1074;4.5335;
178.2000;0.1083;4.5335;
178.5000;0.1123;4.5360;
178.8000;0.1066;4.5188;
179.1000;0.1083;4.5139;
179.4000;0.1164;4.5384;
179.7000;0.1050;4.5042;
180.0000;0.1099;4.5262;
180.3000;0.1091;4.5262;
180.6000;0.1131;4.5384;
180.9000;0.1074;4.5262;
181.2000;0.1083;4.5262;
181.5000;0.1099;4.5237;
181.8000;0.1083;4.5213;
182.1000;0.1074;4.5164;
182.4000;0.1099;4.5164;
182.7000;0.1091;4.5188;
183.0000;0.1066;4.5188;
183.3000;0.1066;4.5188;
183.6000;0.1083;4.5237;
183.9000;0.1066;4.5213;
184.2000;0.1107;4.5262;
184.5000;0.1074;4.5237;
184.8000;0.1099;4.5262;
185.1000;0.1074;4.5164;
185.4000;0.1074;4.5213;
185.7000;0.1083;4.5286;
186.0000;0.1115;4.5360;
186.3000;0.1083;4.5237;
186.6000;0.1050;4.5115;
186.9000;0.1091;4.5188;
187.2000;0.0985;4.4968;
187.5000;0.1083;4.5262;
187.8000;0.1074;4.5237;
188.1000;0.1066;4.5237;
188.4000;0.1083;4.5237;
188.7000;0.1083;4.5188;
189.0000;0.1074;4.5213;
189.3000;0.1074;4.5188;
189.6000;0.1083;4.5262;
189.9000;0.1066;4.5115;
190.2000;0.1034;4.4968;
190.5000;0.1083;4.5091;
190.8000;0.1074;4.5066;
191.1000;0.1074;4.5091;
191.4000;0.1083;4.5066;
191.7000;0.1066;4.5017;
192.0000;0.1009;4.4846;
192.3000;0.1083;4.5017;
192.6000;0.1050;4.5017;
192.9000;0.1099;4.5091;
193.2000;0.1099;4.5139;
193.5000;0.1066;4.5042;
193.8000;0.1099;4.5139;
194.1000;0.1058;4.5066;
194.4000;0.1074;4.5042;
194.7000;0.1066;4.5017;
195.0000;0.1083;4.5066;
195.3000;0.1131;4.5188;
195.6000;0.1099;4.5164;
195.9000;0.1083;4.5188;
196.2000;0.1066;4.5188;
196.5000;0.1115;4.5262;
196.8000;0.1050;4.5042;
197.1000;0.1074;4.5042;
197.4000;0.1091;4.5091;
197.7000;0.1083;4.5139;
198.0000;0.1083;4.5213;
198.3000;0.1115;4.5335;
198.6000;0.1091;4.5286;
198.9000;0.1091;4.5311;
199.2000;0.1066;4.5213;
199.5000;0.1083;4.5188;
199.8000;0.1074;4.5164;
200.1000;0.1099;4.5188;
200.4000;0.1099;4.5139;
200.7000;0.1083;4.5091;
201.0000;0.1018;4.4968;
201.3000;0.1099;4.5139;
201.6000;0.1009;4.4797;
201.9000;0.1058;4.4919;
202.2000;0.1058;4.4944;
202.5000;0.1074;4.5042;
202.8000;0.1074;4.5091;
203.1000;0.1107;4.5188;
203.4000;0.1042;4.5042;
203.7000;0.1099;4.5262;
204.0000;0.1074;4.5139;
204.3000;0.1018;4.5042;
204.6000;0.1148;4.5408;
204.9000;0.1074;4.5188;
205.2000;0.1042;4.5139;
205.5000;0.1115;4.5262;
205.8000;0.1083;4.5237;
206.1000;0.1123;4.5482;
206.4000;0.1066;4.5408;
206.7000;0.1058;4.5360;
207.0000;0.1058;4.5335;
207.3000;0.1058;4.5360;
207.6000;0.1058;4.5384;
207.9000;0.1066;4.5311;
208.2000;0.1115;4.5360;
208.5000;0.1083;4.5262;
208.8000;0.1083;4.5286;
209.1000;0.1164;4.5457;
209.4000;0.1074;4.5237;
209.7000;0.1074;4.5262;
210.0000;0.1066;4.5188;
210.3000;0.1091;4.5164;
210.6000;0.1083;4.5091;
210.9000;0.1115;4.5164;
211.2000;0.1074;4.5066;
211.5000;0.1091;4.5139;
211.8000;0.1099;4.5091;
212.1000;0.1091;4.5066;
212.4000;0.1074;4.4968;
212.7000;0.1107;4.5091;
213.0000;0.1058;4.5042;
213.3000;0.1099;4.5164;
213.6000;0.1066;4.5066;
213.9000;0.1074;4.5017;
214.2000;0.1107;4.5164;
214.5000;0.1074;4.5091;
214.8000;0.1091;4.5091;
215.1000;0.1091;4.5066;
215.4000;0.1083;4.5115;
215.7000;0.1074;4.5139;
216.0000;0.1074;4.5164;
216.3000;0.1140;4.5286;
216.6000;0.1058;4.5139;
216.9000;0.1066;4.5237;
217.2000;0.1140;4.5335;
217.5000;0.1237;4.5604;
217.8000;0.1058;4.5091;
218.1000;0.1058;4.5213;
218.4000;0.1042;4.5139;
218.7000;0.1058;4.5139;
219.0000;0.1066;4.5213;
219.3000;0.1083;4.5237;
219.6000;0.1050;4.5115;
219.9000;0.1123;4.5237;
220.2000;0.1066;4.5066;
220.5000;0.1074;4.5213;
220.8000;0.1083;4.5286;
221.1000;0.1042;4.5164;
221.4000;0.1018;4.5066;
221.7000;0.1074;4.5139;
222.0000;0.1074;4.5066;
222.3000;0.1131;4.5360;
222.6000;0.1026;4.5042;
222.9000;0.1091;4.5139;
223.2000;0.1074;4.5066;
223.5000;0.1066;4.5017;
223.8000;0.0952;4.4650;
224.1000;0.1058;4.4895;
224.4000;0.1083;4.4993;
224.7000;0.1074;4.4993;
225.0000;0.1091;4.5066;
225.3000;0.1050;4.4944;
225.6000;0.1148;4.5237;
225.9000;0.1099;4.5115;
226.2000;0.1074;4.5042;
226.5000;0.1091;4.5139;
226.8000;0.1099;4.5213;
227.1000;0.1091;4.5164;
227.4000;0.1050;4.5115;
227.7000;0.1091;4.5139;
228.0000;0.1074;4.5237;
228.3000;0.1058;4.5262;
228.6000;0.1066;4.5262;
228.9000;0.1050;4.5237;
229.2000;0.1099;4.5360;
229.5000;0.1099;4.5311;
229.8000;0.1083;4.5311;
230.1000;0.1083;4.5237;
230.4000;0.1091;4.5237;
230.7000;0.1074;4.5213;
231.0000;0.1066;4.5237;
231.3000;0.1083;4.5311;
231.6000;0.1083;4.5335;
231.9000;0.1213;4.5653;
232.2000;0.1091;4.5311;
232.5000;0.1083;4.5262;
232.8000;0.1099;4.5286;
233.1000;0.1001;4.5091;
233.4000;0.1058;4.5286;
233.7000;0.1099;4.5408;
234.0000;0.1058;4.5311;
234.3000;0.1058;4.5335;
234.6000;0.1074;4.5335;
234.9000;0.1115;4.5335;
235.2000;0.1074;4.5360;
235.5000;0.1083;4.5457;
235.8000;0.1066;4.5433;
236.1000;0.1058;4.5433;
236.4000;0.1107;4.5604;
236.7000;0.1091;4.5531;
237.0000;0.1115;4.5604;
237.3000;0.1058;4.5482;
237.6000;0.1091;4.5531;
237.9000;0.1058;4.5433;
238.2000;0.1083;4.5433;
238.5000;0.1115;4.5482;
238.8000;0.1083;4.5433;
239.1000;0.1050;4.5311;
239.4000;0.1091;4.5531;
239.7000;0.1091;4.5531;
240.0000;0.1066;4.5408;
240.3000;0.1107;4.5457;
240.6000;0.1107;4.5482;
240.9000;0.1074;4.5360;
241.2000;0.1091;4.5311;
241.5000;0.1099;4.5335;
241.8000;0.1066;4.5286;
242.1000;0.1091;4.5262;
242.4000;0.1083;4.5139;
242.7000;0.1042;4.5042;
243.0000;0.1018;4.5066;
243.3000;0.1034;4.5213;
243.6000;0.1058;4.5213;
243.9000;0.1083;4.5311;
244.2000;0.1099;4.5286;
244.5000;0.1091;4.5213;
244.8000;0.1099;4.5188;
245.1000;0.1050;4.5042;
245.4000;0.1066;4.5042;
245.7000;0.1099;4.5139;
246.0000;0.0961;4.4773;
246.3000;0.1066;4.5042;
246.6000;0.1066;4.5115;
246.9000;0.1099;4.5286;
247.2000;0.1091;4.5286;
247.5000;0.1074;4.5262;
247.8000;0.1074;4.5213;
248.1000;0.1066;4.5091;
248.4000;0.1074;4.5213;
248.7000;0.1042;4.5139;
249.0000;0.1058;4.5311;
249.3000;0.1188;4.5628;
249.6000;0.1042;4.5237;
249.9000;0.1099;4.5286;
250.2000;0.1083;4.5286;
250.5000;0.1074;4.5237;
250.8000;0.1001;4.5017;
251.1000;0.1115;4.5311;
251.4000;0.1083;4.5188;
251.7000;0.1050;4.5139;
252.0000;0.1074;4.5213;
252.3000;0.1083;4.5213;
252.6000;0.1091;4.5262;
252.9000;0.1107;4.5213;
253.2000;0.1018;4.5042;
253.5000;0.1107;4.5286;
253.8000;0.1074;4.5188;
254.1000;0.1091;4.5213;
254.4000;0.1140;4.5360;
254.7000;0.1140;4.5360;
255.0000;0.1099;4.5262;
255.3000;0.1042;4.5042;
255.6000;0.1074;4.5115;
255.9000;0.1115;4.5237;
256.2000;0.1083;4.5091;
256.5000;0.1066;4.5115;
256.8000;0.1083;4.5164;
257.1000;0.1115;4.5188;
257.4000;0.1091;4.5213;
257.7000;0.1091;4.5139;
258.0000;0.1099;4.5115;
258.3000;0.1066;4.5091;
258.6000;0.1074;4.5115;
258.9000;0.1083;4.5091;
259.2000;0.0993;4.4870;
259.5000;0.1083;4.5115;
259.8000;0.1074;4.5115;
260.1000;0.1205;4.5408;
260.4000;0.1074;4.5115;
260.7000;0.1099;4.5311;
261.0000;0.1074;4.5262;
261.3000;0.1074;4.5286;
261.6000;0.1091;4.5433;
261.9000;0.1066;4.5360;
262.2000;0.1156;4.5531;
262.5000;0.1058;4.5262;
262.8000;0.1066;4.5360;
263.1000;0.1058;4.5237;
263.4000;0.0985;4.5115;
263.7000;0.1091;4.5360;
264.0000;0.1148;4.5384;
264.3000;0.1099;4.5237;
264.6000;0.1091;4.5213;
264.9000;0.1083;4.5213;
265.2000;0.1083;4.5164;
265.5000;0.1083;4.5115;
265.8000;0.1034;4.5017;
266.1000;0.1083;4.5188;
266.4000;0.1058;4.5164;
266.7000;0.1107;4.5213;
267.0000;0.1042;4.5091;
267.3000;0.1099;4.5335;
267.6000;0.1074;4.5262;
267.9000;0.1083;4.5237;
268.2000;0.1083;4.5286;
268.5000;0.1050;4.5139;
268.8000;0.1066;4.5164;
269.1000;0.1107;4.5237;
269.4000;0.1074;4.5091;
269.7000;0.1074;4.5139;
270.0000;0.1091;4.5213;
270.3000;0.1058;4.5066;
270.6000;0.0969;4.4797;
270.9000;0.1034;4.4993;
271.2000;0.1107;4.5286;
271.5000;0.1083;4.5286;
271.8000;0.1091;4.5311;
272.1000;0.1083;4.5360;
272.4000;0.1066;4.5188;
272.7000;0.1074;4.5139;
273.0000;0.1140;4.5262;
273.3000;0.1083;4.5091;
273.6000;0.1091;4.4968;
273.9000;0.1058;4.4797;
274.2000;0.1066;4.4870;
274.5000;0.1042;4.4822;
274.8000;0.1074;4.4919;
275.1000;0.1074;4.5017;
275.4000;0.1131;4.5213;
275.7000;0.1074;4.5091;
276.0000;0.1066;4.5091;
276.3000;0.1083;4.5213;
276.6000;0.1099;4.5311;
276.9000;0.1091;4.5286;
277.2000;0.1042;4.5188;
277.5000;0.1066;4.5286;
277.8000;0.1083;4.5262;
278.1000;0.1066;4.5213;
278.4000;0.1107;4.5213;
278.7000;0.1074;4.5188;
279.0000;0.1099;4.5262;
279.3000;0.1066;4.5139;
279.6000;0.1074;4.5115;
279.9000;0.1074;4.5164;
280.2000;0.1091;4.5237;
280.5000;0.1131;4.5335;
280.8000;0.1083;4.5237;
281.1000;0.1091;4.5262;
281.4000;0.1083;4.5311;
281.7000;0.1083;4.5311;
282.0000;0.1066;4.5335;
282.3000;0.1091;4.5457;
282.6000;0.1099;4.5408;
282.9000;0.1099;4.5408;
283.2000;0.1050;4.5311;
283.5000;0.1083;4.5433;
283.8000;0.1123;4.5531;
284.1000;0.1074;4.5408;
284.4000;0.1066;4.5286;
284.7000;0.1091;4.5286;
285.0000;0.1091;4.5335;
285.3000;0.1083;4.5384;
285.6000;0.1099;4.5384;
285.9000;0.1018;4.5237;
286.2000;0.1074;4.5311;
286.5000;0.1066;4.5335;
286.8000;0.1115;4.5482;
287.1000;0.1083;4.5408;
287.4000;0.0985;4.5213;
287.7000;0.1099;4.5482;
288.0000;0.1099;4.5457;
288.3000;0.1026;4.5213;
288.6000;0.1091;4.5384;
288.9000;0.1083;4.5335;
289.2000;0.1009;4.5188;
289.5000;0.1091;4.5335;
289.8000;0.1018;4.4993;
290.1000;0.1099;4.5237;
290.4000;0.1034;4.5115;
290.7000;0.1123;4.5384;
291.0000;0.1074;4.5335;
291.3000;0.1091;4.5408;
291.6000;0.1091;4.5408;
291.9000;0.1099;4.5531;
292.2000;0.1115;4.5555;
292.5000;0.1074;4.5433;
292.8000;0.1074;4.5384;
293.1000;0.1099;4.5384;
293.4000;0.1083;4.5286;
293.7000;0.1083;4.5335;
294.0000;0.1083;4.5237;
294.3000;0.1083;4.5286;
294.6000;0.1172;4.5580;
294.9000;0.1074;4.5262;
295.2000;0.1058;4.5237;
295.5000;0.1009;4.5091;
295.8000;0.1099;4.5311;
296.1000;0.1058;4.5286;
296.4000;0.1083;4.5408;
296.7000;0.1066;4.5311;
297.0000;0.1066;4.5408;
297.3000;0.1034;4.5286;
297.6000;0.1058;4.5408;
297.9000;0.1058;4.5408;
298.2000;0.1083;4.5531;
298.5000;0.1074;4.5408;
298.8000;0.1050;4.5360;
299.1000;0.1083;4.5311;
299.4000;0.1074;4.5384;
299.7000;0.1091;4.5408;
300.0000;0.1074;4.5286;
300.3000;0.1099;4.5237;
300.6000;0.1026;4.5017;
300.9000;0.1091;4.5164;
301.2000;0.1083;4.5262;
301.5000;0.1066;4.5164;
301.8000;0.1066;4.5188;
302.1000;0.1066;4.5213;
302.4000;0.1156;4.5531;
302.7000;0.1050;4.5311;
303.0000;0.1083;4.5286;
303.3000;0.1083;4.5213;
303.6000;0.1083;4.5262;
303.9000;0.1058;4.5213;
304.2000;0.1050;4.5213;
304.5000;0.1074;4.5237;
304.8000;0.1083;4.5286;
305.1000;0.1018;4.5139;
305.4000;0.1091;4.5286;
305.7000;0.1091;4.5286;
306.0000;0.1074;4.5311;
306.3000;0.1026;4.5164;
306.6000;0.1099;4.5335;
306.9000;0.1083;4.5384;
307.2000;0.1091;4.5408;
307.5000;0.1058;4.5311;
307.8000;0.1107;4.5433;
308.1000;0.1107;4.5482;
308.4000;0.1058;4.5164;
308.7000;0.1083;4.5262;
309.0000;0.1091;4.5286;
309.3000;0.1066;4.5286;
309.6000;0.1066;4.5360;
309.9000;0.1058;4.5213;
310.2000;0.1050;4.5115;
310.5000;0.1083;4.5139;
310.8000;0.1099;4.5237;
311.1000;0.1066;4.5164;
311.4000;0.1148;4.5408;
311.7000;0.1074;4.5262;
312.0000;0.1099;4.5213;
312.3000;0.1091;4.5262;
312.6000;0.1058;4.5139;
312.9000;0.1140;4.5408;
313.2000;0.1107;4.5311;
313.5000;0.1074;4.5091;
313.8000;0.1107;4.5164;
314.1000;0.1074;4.5164;
314.4000;0.1026;4.4968;
314.7000;0.1009;4.5042;
315.0000;0.1066;4.5188;
315.3000;0.1018;4.5091;
315.6000;0.1058;4.5164;
315.9000;0.1034;4.5139;
316.2000;0.1083;4.5237;
316.5000;0.1099;4.5237;
316.8000;0.1074;4.5115;
317.1000;0.1099;4.5188;
317.4000;0.1066;4.5188;
317.7000;0.1050;4.5115;
318.0000;0.1066;4.5188;
318.3000;0.1099;4.5237;
318.6000;0.1066;4.5188;
318.9000;0.1058;4.5237;
319.2000;0.1099;4.5335;
319.5000;0.1180;4.5555;
319.8000;0.1091;4.5311;
320.1000;0.1099;4.5360;
320.4000;0.1058;4.5164;
320.7000;0.1107;4.5139;
321.0000;0.1066;4.5091;
321.3000;0.1074;4.5139;
321.6000;0.1074;4.5115;
321.9000;0.1074;4.5164;
322.2000;0.1074;4.5139;
322.5000;0.1074;4.5066;
322.8000;0.1058;4.4993;
323.1000;0.1091;4.5091;
323.4000;0.1074;4.5115;
323.7000;0.1066;4.5066;
324.0000;0.1034;4.4968;
324.3000;0.1091;4.5262;
324.6000;0.1042;4.5164;
324.9000;0.1115;4.5311;
325.2000;0.1034;4.5139;
325.5000;0.1074;4.5237;
325.8000;0.1091;4.5213;
326.1000;0.1083;4.5335;
326.4000;0.1074;4.5335;
326.7000;0.1074;4.5237;
327.0000;0.1074;4.5213;
327.3000;0.1066;4.5237;
327.6000;0.1066;4.5188;
327.9000;0.1066;4.5335;
328.2000;0.1164;4.5482;
328.5000;0.1042;4.5213;
328.8000;0.1074;4.5188;
329.1000;0.1050;4.5115;
329.4000;0.1083;4.5115;
329.7000;0.1099;4.5091;
330.0000;0.1099;4.5042;
330.3000;0.1099;4.4993;
330.6000;0.1074;4.4895;
330.9000;0.1042;4.4846;
331.2000;0.1066;4.4919;
331.5000;0.1066;4.4993;
331.8000;0.1074;4.5042;
332.1000;0.0887;4.4650;
332.4000;0.1083;4.5262;
332.7000;0.1074;4.5262;
333.0000;0.1083;4.5335;
333.3000;0.1115;4.5360;
333.6000;0.1074;4.5237;
333.9000;0.1066;4.5262;
334.2000;0.1074;4.5360;
334.5000;0.1058;4.5311;
334.8000;0.1042;4.5311;
335.1000;0.1172;4.5580;
335.4000;0.1083;4.5408;
335.7000;0.1026;4.5286;
336.0000;0.1107;4.5531;
336.3000;0.1066;4.5433;
336.6000;0.1083;4.5384;
336.9000;0.1058;4.5335;
337.2000;0.1074;4.5335;
337.5000;0.1066;4.5360;
337.8000;0.1066;4.5335;
338.1000;0.1074;4.5384;
338.4000;0.1083;4.5262;
338.7000;0.1164;4.5506;
339.0000;0.1164;4.5531;
339.3000;0.1009;4.5042;
339.6000;0.1099;4.5311;
339.9000;0.1083;4.5311;
340.2000;0.1083;4.5360;
340.5000;0.1107;4.5335;
340.8000;0.1156;4.5506;
341.1000;0.1099;4.5335;
341.4000;0.1074;4.5335;
341.7000;0.1083;4.5311;
342.0000;0.1099;4.5311;
342.3000;0.1091;4.5286;
342.6000;0.1083;4.5237;
342.9000;0.1099;4.5384;
343.2000;0.1099;4.5311;
343.5000;0.1099;4.5360;
343.8000;0.1083;4.5335;
344.1000;0.1115;4.5433;
344.4000;0.1083;4.5262;
344.7000;0.1009;4.5115;
345.0000;0.1058;4.5188;
345.3000;0.1091;4.5213;
345.6000;0.1074;4.5164;
345.9000;0.1148;4.5286;
346.2000;0.1123;4.5237;
346.5000;0.1034;4.4968;
346.8000;0.1091;4.5164;
347.1000;0.1107;4.5262;
347.4000;0.1107;4.5311;
347.7000;0.1074;4.5237;
348.0000;0.1074;4.5335;
348.3000;0.1091;4.5360;
348.6000;0.1066;4.5286;
348.9000;0.1107;4.5360;
349.2000;0.1058;4.5213;
349.5000;0.1034;4.5188;
349.8000;0.1091;4.5360;
350.1000;0.1083;4.5286;
350.4000;0.1115;4.5433;
350.7000;0.1083;4.5286;
351.0000;0.1066;4.5286;
351.3000;0.1091;4.5311;
351.6000;0.1074;4.5384;
351.9000;0.1083;4.5384;
352.2000;0.1074;4.5335;
352.5000;0.1091;4.5408;
352.8000;0.1066;4.5384;
353.1000;0.1074;4.5384;
353.4000;0.1058;4.5335;
353.7000;0.1099;4.5384;
354.0000;0.1083;4.5360;
354.3000;0.1091;4.5433;
354.6000;0.1091;4.5433;
354.9000;0.1091;4.5408;
355.2000;0.1091;4.5408;
355.5000;0.1091;4.5384;
355.8000;0.1074;4.5408;
356.1000;0.1115;4.5531;
356.4000;0.1099;4.5482;
356.7000;0.1099;4.5457;
357.0000;0.1074;4.5433;
357.3000;0.1083;4.5457;
357.6000;0.1107;4.5555;
357.9000;0.1066;4.5433;
358.2000;0.1074;4.5531;
358.5000;0.1091;4.5653;
358.8000;0.1083;4.5580;
359.1000;0.1066;4.5555;
359.4000;0.1131;4.5604;
359.7000;0.1083;4.5506;
360.0000;0.1099;4.5555;
360.3000;0.1074;4.5531;
360.6000;0.1066;4.5506;
360.9000;0.1083;4.5433;
361.2000;0.1164;4.5555;
361.5000;0.1009;4.5091;
361.8000;0.1034;4.5139;
362.1000;0.1050;4.5164;
362.4000;0.1066;4.5115;
362.7000;0.1099;4.5164;
363.0000;0.1140;4.5335;
363.3000;0.1083;4.5091;
363.6000;0.1099;4.5139;
363.9000;0.1074;4.5139;
364.2000;0.1083;4.5213;
364.5000;0.1050;4.5139;
364.8000;0.1074;4.5286;
365.1000;0.1058;4.5311;
365.4000;0.1164;4.5604;
365.7000;0.1074;4.5457;
366.0000;0.1074;4.5408;
366.3000;0.1091;4.5457;
366.6000;0.1074;4.5360;
366.9000;0.1083;4.5457;
367.2000;0.1042;4.5335;
367.5000;0.1197;4.5824;
367.8000;0.1074;4.5531;
368.1000;0.1074;4.5531;
368.4000;0.1083;4.5482;
368.7000;0.1074;4.5408;
369.0000;0.1066;4.5384;
369.3000;0.1058;4.5408;
369.6000;0.1058;4.5457;
369.9000;0.1074;4.5433;
370.2000;0.1058;4.5335;
370.5000;0.1156;4.5506;
370.8000;0.1066;4.5262;
371.1000;0.1001;4.5164;
371.4000;0.1074;4.5311;
371.7000;0.1083;4.5433;
372.0000;0.1066;4.5384;
372.3000;0.1058;4.5433;
372.6000;0.1091;4.5580;
372.9000;0.1074;4.5555;
373.2000;0.1058;4.5506;
373.5000;0.1074;4.5457;
373.8000;0.1074;4.5408;
374.1000;0.1074;4.5408;
374.4000;0.1091;4.5482;
374.7000;0.1074;4.5506;
375.0000;0.1099;4.5555;
375.3000;0.1123;4.5628;
375.6000;0.1099;4.5457;
375.9000;0.1091;4.5262;
376.2000;0.1074;4.5262;
376.5000;0.1107;4.5360;
376.8000;0.1115;4.5482;
377.1000;0.1099;4.5384;
377.4000;0.1083;4.5286;
377.7000;0.1074;4.5335;
378.0000;0.1091;4.5237;
378.3000;0.1066;4.5188;
378.6000;0.1074;4.5335;
378.9000;0.1066;4.5360;
379.2000;0.1115;4.5433;
379.5000;0.1107;4.5360;
379.8000;0.1074;4.5335;
380.1000;0.1058;4.5237;
380.4000;0.1066;4.5384;
380.7000;0.1099;4.5384;
381.0000;0.1074;4.5311;
381.3000;0.1018;4.5164;
381.6000;0.1074;4.5262;
381.9000;0.1083;4.5408;
382.2000;0.1172;4.5653;
382.5000;0.1074;4.5384;
382.8000;0.1074;4.5384;
383.1000;0.1107;4.5408;
383.4000;0.1074;4.5335;
383.7000;0.1083;4.5262;
384.0000;0.1099;4.5335;
384.3000;0.1083;4.5311;
384.6000;0.1083;4.5311;
384.9000;0.1066;4.5262;
385.2000;0.1074;4.5286;
385.5000;0.1083;4.5433;
385.8000;0.1042;4.5335;
386.1000;0.1091;4.5384;
386.4000;0.0830;4.4675;
386.7000;0.1074;4.5311;
387.0000;0.1083;4.5286;
387.3000;0.1131;4.5408;
387.6000;0.1026;4.5115;
387.9000;0.1074;4.5335;
388.2000;0.1107;4.5408;
388.5000;0.1042;4.5237;
388.8000;0.1066;4.5237;
389.1000;0.1066;4.5262;
389.4000;0.1066;4.5237;
389.7000;0.1083;4.5237;
390.0000;0.1042;4.5139;
390.3000;0.1091;4.5384;
390.6000;0.1091;4.5384;
390.9000;0.1083;4.5408;
391.2000;0.1058;4.5360;
391.5000;0.1083;4.5384;
391.8000;0.1083;4.5408;
392.1000;0.1083;4.5335;
392.4000;0.1074;4.5335;
392.7000;0.1066;4.5213;
393.0000;0.1099;4.5384;
393.3000;0.1091;4.5384;
393.6000;0.1066;4.5335;
393.9000;0.1074;4.5262;
394.2000;0.1091;4.5335;
394.5000;0.1083;4.5360;
394.8000;0.1099;4.5433;
395.1000;0.1058;4.5360;
395.4000;0.1058;4.5213;
395.7000;0.1099;4.5384;
396.0000;0.1066;4.5311;
396.3000;0.1099;4.5408;
396.6000;0.1074;4.5286;
396.9000;0.1107;4.5384;
397.2000;0.1099;4.5360;
397.5000;0.1083;4.5433;
397.8000;0.1074;4.5335;
398.1000;0.1074;4.5384;
398.4000;0.1091;4.5408;
398.7000;0.1066;4.5311;
399.0000;0.1058;4.5262;
399.3000;0.1091;4.5311;
399.6000;0.1066;4.5188;
399.9000;0.1050;4.5213;
400.2000;0.1083;4.5286;
400.5000;0.1058;4.5286;
400.8000;0.1099;4.5457;
401.1000;0.1099;4.5506;
401.4000;0.1091;4.5482;
401.7000;0.1083;4.5482;
402.0000;0.1091;4.5482;
402.3000;0.1050;4.5335;
402.6000;0.1091;4.5457;
402.9000;0.1083;4.5384;
403.2000;0.1050;4.5237;
403.5000;0.1099;4.5262;
403.8000;0.1074;4.5213;
404.1000;0.1074;4.5164;
404.4000;0.1042;4.5115;
404.7000;0.1123;4.5433;
405.0000;0.1074;4.5237;
405.3000;0.1066;4.5213;
405.6000;0.1131;4.5311;
405.9000;0.1115;4.5311;
406.2000;0.1091;4.5311;
406.5000;0.1107;4.5335;
406.8000;0.1083;4.5311;
407.1000;0.1123;4.5384;
407.4000;0.1042;4.5164;
407.7000;0.1018;4.5017;
408.0000;0.1091;4.5188;
408.3000;0.1074;4.5139;
408.6000;0.1091;4.5188;
408.9000;0.1091;4.5237;
409.2000;0.1091;4.5286;
409.5000;0.1074;4.5164;
409.8000;0.1083;4.5360;
410.1000;0.1099;4.5457;
410.4000;0.1066;4.5408;
410.7000;0.1042;4.5213;
411.0000;0.1066;4.5262;
411.3000;0.1066;4.5335;
411.6000;0.1091;4.5482;
411.9000;0.1099;4.5531;
412.2000;0.1066;4.5384;
412.5000;0.1099;4.5433;
412.8000;0.1066;4.5311;
413.1000;0.0985;4.5115;
413.4000;0.1074;4.5408;
413.7000;0.1074;4.5384;
414.0000;0.1066;4.5384;
414.3000;0.1066;4.5262;
414.6000;0.1262;4.5922;
414.9000;0.1074;4.5286;
415.2000;0.1115;4.5360;
415.5000;0.1156;4.5384;
415.8000;0.1107;4.5213;
416.1000;0.1066;4.5164;
416.4000;0.1066;4.5164;
416.7000;0.1066;4.5213;
417.0000;0.1091;4.5311;
417.3000;0.1115;4.5384;
417.6000;0.1099;4.5433;
417.9000;0.1074;4.5384;
418.2000;0.1107;4.5506;
418.5000;0.1066;4.5408;
418.8000;0.1091;4.5433;
419.1000;0.1058;4.5311;
419.4000;0.1050;4.5213;
419.7000;0.1058;4.5262;
420.0000;0.1099;4.5213;
420.3000;0.1099;4.5213;
420.6000;0.1091;4.5262;
420.9000;0.1058;4.5237;
421.2000;0.1099;4.5457;
421.5000;0.1066;4.5360;
421.8000;0.1066;4.5286;
422.1000;0.1026;4.5066;
422.4000;0.1058;4.5139;
422.7000;0.1156;4.5457;
423.0000;0.1074;4.5286;
423.3000;0.1026;4.5042;
423.6000;0.1099;4.5237;
423.9000;0.1091;4.5139;
424.2000;0.1083;4.5115;
424.5000;0.1066;4.5066;
424.8000;0.1074;4.5115;
425.1000;0.1099;4.5139;
425.4000;0.1115;4.5237;
425.7000;0.1115;4.5335;
426.0000;0.1091;4.5286;
426.3000;0.1091;4.5360;
426.6000;0.1058;4.5335;
426.9000;0.1091;4.5360;
427.2000;0.1164;4.5604;
427.5000;0.1066;4.5408;
427.8000;0.1091;4.5482;
428.1000;0.1050;4.5408;
428.4000;0.1083;4.5360;
428.7000;0.1091;4.5311;
429.0000;0.1099;4.5286;
429.3000;0.1083;4.5311;
429.6000;0.1050;4.5360;
429.9000;0.1091;4.5408;
430.2000;0.1083;4.5286;
430.5000;0.1123;4.5433;
430.8000;0.1091;4.5360;
431.1000;0.1050;4.5311;
431.4000;0.1074;4.5262;
431.7000;0.1140;4.5531;
432.0000;0.1058;4.5311;
432.3000;0.1099;4.5335;
432.6000;0.1058;4.5237;
432.9000;0.1115;4.5360;
433.2000;0.1107;4.5360;
433.5000;0.1074;4.5335;
433.8000;0.1099;4.5433;
434.1000;0.1115;4.5482;
434.4000;0.1091;4.5433;
434.7000;0.1140;4.5580;
435.0000;0.1091;4.5408;
435.3000;0.1083;4.5335;
435.6000;0.1074;4.5335;
435.9000;0.1074;4.5335;
436.2000;0.1083;4.5335;
436.5000;0.1083;4.5311;
436.8000;0.1091;4.5360;
437.1000;0.1050;4.5262;
437.4000;0.1083;4.5433;
437.7000;0.1099;4.5433;
438.0000;0.1083;4.5335;
438.3000;0.1074;4.5262;
438.6000;0.1099;4.5360;
438.9000;0.1083;4.5311;
439.2000;0.1074;4.5262;
439.5000;0.1066;4.5139;
439.8000;0.1083;4.5139;
440.1000;0.1074;4.5164;
440.4000;0.1107;4.5360;
440.7000;0.1066;4.5213;
441.0000;0.1083;4.5164;
441.3000;0.1083;4.5188;
441.6000;0.1091;4.5262;
441.9000;0.1091;4.5384;
442.2000;0.1083;4.5433;
442.5000;0.1091;4.5408;
442.8000;0.1066;4.5360;
443.1000;0.1034;4.5286;
443.4000;0.1074;4.5433;
443.7000;0.1083;4.5384;
444.0000;0.1099;4.5457;
444.3000;0.0985;4.5091;
444.6000;0.1058;4.5360;
444.9000;0.1107;4.5482;
445.2000;0.1083;4.5360;
445.5000;0.1074;4.5408;
445.8000;0.1074;4.5335;
446.1000;0.1099;4.5311;
446.4000;0.1099;4.5335;
446.7000;0.1066;4.5286;
447.0000;0.1083;4.5384;
447.3000;0.1058;4.5360;
447.6000;0.1074;4.5384;
447.9000;0.1066;4.5311;
448.2000;0.1083;4.5286;
448.5000;0.1083;4.5335;
448.8000;0.1066;4.5237;
449.1000;0.1066;4.5213;
449.4000;0.1050;4.5262;
449.7000;0.1066;4.5335;
450.0000;0.1083;4.5262;
450.3000;0.1091;4.5262;
450.6000;0.1091;4.5237;
450.9000;0.1058;4.5164;
451.2000;0.1074;4.5286;
451.5000;0.1074;4.5360;
451.8000;0.1083;4.5360;
452.1000;0.1091;4.5286;
452.4000;0.1074;4.5213;
452.7000;0.1091;4.5188;
453.0000;0.1074;4.5115;
453.3000;0.1050;4.5017;
453.6000;0.0993;4.4846;
453.9000;0.1074;4.5066;
454.2000;0.1074;4.5091;
454.5000;0.1042;4.5066;
454.8000;0.1074;4.5213;
455.1000;0.1074;4.5164;
455.4000;0.1083;4.5188;
455.7000;0.1083;4.5213;
456.0000;0.1066;4.5139;
456.3000;0.1066;4.5262;
456.6000;0.1115;4.5360;
456.9000;0.1083;4.5311;
457.2000;0.1058;4.5408;
457.5000;0.1083;4.5433;
457.8000;0.1074;4.5384;
458.1000;0.1083;4.5433;
458.4000;0.1058;4.5335;
458.7000;0.1058;4.5262;
459.0000;0.1083;4.5384;
459.3000;0.1050;4.5237;
459.6000;0.1156;4.5482;
459.9000;0.1099;4.5311;
460.2000;0.1091;4.5360;
460.5000;0.1074;4.5311;
460.8000;0.1091;4.5311;
461.1000;0.1107;4.5457;
461.4000;0.1074;4.5360;
461.7000;0.1026;4.5262;
462.0000;0.1074;4.5384;
462.3000;0.1099;4.5457;
462.6000;0.1091;4.5457;
462.9000;0.1091;4.5531;
463.2000;0.1066;4.5457;
463.5000;0.1083;4.5457;
463.8000;0.1042;4.5335;
464.1000;0.1066;4.5433;
464.4000;0.1091;4.5360;
464.7000;0.1050;4.5335;
465.0000;0.1066;4.5335;
465.3000;0.1099;4.5408;
465.6000;0.1018;4.5164;
465.9000;0.1099;4.5311;
466.2000;0.1058;4.5262;
466.5000;0.1091;4.5311;
466.8000;0.1074;4.5311;
467.1000;0.1001;4.5091;
467.4000;0.1058;4.5286;
467.7000;0.1083;4.5408;
468.0000;0.1018;4.5237;
468.3000;0.1058;4.5311;
468.6000;0.1050;4.5311;
468.9000;0.1066;4.5384;
469.2000;0.1213;4.5751;
469.5000;0.1074;4.5408;
469.8000;0.1083;4.5482;
470.1000;0.1091;4.5408;
470.4000;0.1099;4.5506;
470.7000;0.1123;4.5580;
471.0000;0.1091;4.5506;
471.3000;0.1074;4.5384;
471.6000;0.1083;4.5384;
471.9000;0.1091;4.5457;
472.2000;0.1123;4.5555;
472.5000;0.1066;4.5384;
472.8000;0.1066;4.5384;
473.1000;0.1083;4.5360;
473.4000;0.1083;4.5311;
473.7000;0.1074;4.5286;
474.0000;0.1050;4.5237;
474.3000;0.1050;4.5164;
474.6000;0.1050;4.5262;
474.9000;0.1074;4.5360;
475.2000;0.1091;4.5408;
475.5000;0.1091;4.5457;
475.8000;0.1083;4.5384;
476.1000;0.1083;4.5360;
476.4000;0.1026;4.5188;
476.7000;0.1066;4.5237;
477.0000;0.1156;4.5482;
477.3000;0.1066;4.5384;
477.6000;0.1026;4.5286;
477.9000;0.1099;4.5506;
478.2000;0.0977;4.5017;
478.5000;0.1099;4.5408;
478.8000;0.1066;4.5262;
479.1000;0.1107;4.5384;
479.4000;0.1066;4.5262;
479.7000;0.1050;4.5262;
480.0000;0.1066;4.5286;
480.3000;0.1083;4.5457;
480.6000;0.0928;4.5042;
480.9000;0.1091;4.5408;
481.2000;0.1123;4.5482;
481.5000;0.1107;4.5482;
481.8000;0.1018;4.5360;
482.1000;0.1083;4.5482;
482.4000;0.1091;4.5311;
482.7000;0.1058;4.5262;
483.0000;0.1123;4.5482;
483.3000;0.1074;4.5360;
483.6000;0.1107;4.5408;
483.9000;0.1074;4.5335;
484.2000;0.1083;4.5335;
484.5000;0.1066;4.5262;
484.8000;0.1091;4.5262;
485.1000;0.1091;4.5188;
485.4000;0.1074;4.5115;
485.7000;0.1074;4.5115;
486.0000;0.1058;4.5164;
486.3000;0.1115;4.5188;
486.6000;0.1058;4.5066;
486.9000;0.1091;4.5188;
487.2000;0.1091;4.5237;
487.5000;0.1083;4.5213;
487.8000;0.1050;4.5188;
488.1000;0.1083;4.5237;
488.4000;0.1074;4.5188;
488.7000;0.1172;4.5286;
489.0000;0.1058;4.4993;
489.3000;0.1050;4.5066;
489.6000;0.1083;4.5213;
489.9000;0.1066;4.5115;
490.2000;0.1066;4.5139;
490.5000;0.1083;4.5262;
490.8000;0.1091;4.5237;
491.1000;0.1091;4.5360;
491.4000;0.1083;4.5408;
491.7000;0.1099;4.5360;
492.0000;0.1091;4.5360;
492.3000;0.1058;4.5237;
492.6000;0.1099;4.5237;
492.9000;0.1091;4.5139;
493.2000;0.1083;4.5042;
493.5000;0.1066;4.5042;
493.8000;0.1074;4.5017;
494.1000;0.1156;4.5237;
494.4000;0.1058;4.5066;
494.7000;0.1074;4.5066;
495.0000;0.1074;4.5115;
495.3000;0.1099;4.5164;
495.6000;0.1091;4.5237;
495.9000;0.1026;4.5139;
496.2000;0.1107;4.5311;
496.5000;0.1050;4.5237;
496.8000;0.1083;4.5213;
497.1000;0.1083;4.5213;
497.4000;0.1050;4.5213;
497.7000;0.1099;4.5335;
498.0000;0.1099;4.5360;
498.3000;0.1083;4.5286;
498.6000;0.1083;4.5213;
498.9000;0.1083;4.5213;
499.2000;0.1058;4.5091;
499.5000;0.1083;4.5066;
499.8000;0.1074;4.5164;
500.1000;0.1091;4.5237;
500.4000;0.1156;4.5408;
500.7000;0.1074;4.5188;
501.0000;0.1083;4.5139;
501.3000;0.1107;4.5091;
501.6000;0.1066;4.4993;
501.9000;0.1034;4.5017;
502.2000;0.1140;4.5311;
502.5000;0.0969;4.4895;
502.8000;0.1026;4.5066;
503.1000;0.1050;4.5188;
503.4000;0.1066;4.5188;
503.7000;0.1319;4.5873;
504.0000;0.1180;4.5531;
504.3000;0.1091;4.5311;
504.6000;0.1066;4.5237;
504.9000;0.1083;4.5286;
505.2000;0.0985;4.5066;
505.5000;0.1074;4.5286;
505.8000;0.1083;4.5262;
506.1000;0.1091;4.5433;
506.4000;0.1107;4.5408;
506.7000;0.1099;4.5384;
507.0000;0.1074;4.5335;
507.3000;0.1066;4.5384;
507.6000;0.1091;4.5360;
507.9000;0.1099;4.5384;
508.2000;0.1083;4.5384;
508.5000;0.1074;4.5335;
508.8000;0.1099;4.5384;
509.1000;0.1099;4.5335;
509.4000;0.1107;4.5384;
509.7000;0.1123;4.5384;
510.0000;0.1123;4.5408;
510.3000;0.1091;4.5311;
510.6000;0.1066;4.5213;
510.9000;0.1140;4.5384;
511.2000;0.1058;4.5115;
511.5000;0.1091;4.5237;
511.8000;0.1099;4.5286;
512.1000;0.1074;4.5213;
512.4000;0.1074;4.5139;
512.7000;0.1083;4.5237;
513.0000;0.1091;4.5213;
513.3000;0.1083;4.5237;
513.6000;0.1074;4.5262;
513.9000;0.1099;4.5360;
514.2000;0.1099;4.5286;
514.5000;0.1074;4.5262;
514.8000;0.1058;4.5286;
515.1000;0.1083;4.5262;
515.4000;0.0993;4.5066;
515.7000;0.0920;4.4968;
516.0000;0.1091;4.5384;
516.3000;0.1140;4.5604;
516.6000;0.1107;4.5482;
516.9000;0.1074;4.5482;
517.2000;0.1050;4.5457;
517.5000;0.1099;4.5506;
517.8000;0.1058;4.5335;
518.1000;0.1009;4.5139;
518.4000;0.1050;4.5286;
518.7000;0.1066;4.5262;
519.0000;0.1091;4.5335;
519.3000;0.1091;4.5311;
519.6000;0.1074;4.5335;
519.9000;0.1058;4.5286;
520.2000;0.1050;4.5164;
520.5000;0.1058;4.5164;
520.8000;0.1074;4.5164;
521.1000;0.1066;4.5115;
521.4000;0.1009;4.4993;
521.7000;0.1066;4.5066;
522.0000;0.1083;4.5164;
522.3000;0.1066;4.5237;
522.6000;0.1074;4.5311;
522.9000;0.1091;4.5311;
523.2000;0.1066;4.5311;
523.5000;0.1050;4.5188;
523.8000;0.1066;4.5164;
524.1000;0.1083;4.5237;
524.4000;0.1083;4.5335;
524.7000;0.1074;4.5360;
525.0000;0.1083;4.5433;
525.3000;0.1058;4.5433;
525.6000;0.1131;4.5628;
525.9000;0.1074;4.5457;
526.2000;0.1074;4.5457;
526.5000;0.1083;4.5408;
526.8000;0.1107;4.5433;
527.1000;0.1074;4.5311;
527.4000;0.1083;4.5384;
527.7000;0.1115;4.5384;
528.0000;0.1083;4.5311;
528.3000;0.1074;4.5262;
528.6000;0.1058;4.5286;
528.9000;0.1042;4.5237;
529.2000;0.1074;4.5262;
529.5000;0.1074;4.5237;
529.8000;0.1083;4.5286;
530.1000;0.1074;4.5286;
530.4000;0.1099;4.5286;
530.7000;0.1140;4.5335;
531.0000;0.1058;4.5115;
531.3000;0.1099;4.5213;
531.6000;0.1018;4.5066;
531.9000;0.1091;4.5213;
532.2000;0.1058;4.5311;
532.5000;0.1091;4.5384;
532.8000;0.1123;4.5433;
533.1000;0.1083;4.5286;
533.4000;0.1058;4.5188;
533.7000;0.1083;4.5237;
534.0000;0.1091;4.5311;
534.3000;0.1074;4.5408;
534.6000;0.1066;4.5262;
534.9000;0.1107;4.5360;
535.2000;0.1074;4.5286;
535.5000;0.1123;4.5457;
535.8000;0.1074;4.5360;
536.1000;0.1099;4.5384;
536.4000;0.1083;4.5286;
536.7000;0.1099;4.5360;
537.0000;0.1107;4.5506;
537.3000;0.1083;4.5482;
537.6000;0.1066;4.5408;
537.9000;0.1066;4.5384;
538.2000;0.1066;4.5311;
538.5000;0.1099;4.5360;
538.8000;0.1066;4.5213;
539.1000;0.0993;4.5115;
539.4000;0.1034;4.5213;
539.7000;0.1083;4.5433;
540.0000;0.1066;4.5384;
540.3000;0.1188;4.5677;
540.6000;0.1083;4.5408;
540.9000;0.1091;4.5360;
541.2000;0.1083;4.5286;
541.5000;0.1091;4.5286;
541.8000;0.1099;4.5360;
542.1000;0.1115;4.5384;
542.4000;0.1058;4.5360;
542.7000;0.1115;4.5482;
543.0000;0.1099;4.5408;
543.3000;0.1083;4.5482;
543.6000;0.1018;4.5262;
543.9000;0.1091;4.5335;
544.2000;0.1066;4.5335;
544.5000;0.1083;4.5408;
544.8000;0.1050;4.5311;
545.1000;0.1091;4.5384;
545.4000;0.1083;4.5360;
545.7000;0.1083;4.5311;
546.0000;0.1091;4.5311;
546.3000;0.1083;4.5433;
546.6000;0.1058;4.5384;
546.9000;0.1058;4.5408;
547.2000;0.1042;4.5262;
547.5000;0.1107;4.5531;
547.8000;0.1074;4.5457;
548.1000;0.1083;4.5531;
548.4000;0.1074;4.5482;
548.7000;0.1066;4.5482;
549.0000;0.1050;4.5457;
549.3000;0.1099;4.5482;
549.6000;0.1066;4.5335;
549.9000;0.1066;4.5384;
550.2000;0.1074;4.5262;
550.5000;0.1107;4.5457;
550.8000;0.1058;4.5311;
551.1000;0.1058;4.5286;
551.4000;0.1058;4.5139;
551.7000;0.1066;4.5164;
552.0000;0.1066;4.5188;
552.3000;0.1074;4.5237;
552.6000;0.1066;4.5237;
552.9000;0.1083;4.5237;
553.2000;0.1221;4.5677;
553.5000;0.1074;4.5262;
553.8000;0.1083;4.5311;
554.1000;0.1099;4.5311;
554.4000;0.1099;4.5262;
554.7000;0.1034;4.5115;
555.0000;0.1123;4.5457;
555.3000;0.1083;4.5335;
555.6000;0.1066;4.5311;
555.9000;0.1099;4.5360;
556.2000;0.1066;4.5286;
556.5000;0.1074;4.5262;
556.8000;0.1099;4.5237;
557.1000;0.1074;4.5188;
557.4000;0.1074;4.5213;
557.7000;0.1091;4.5262;
558.0000;0.1123;4.5433;
558.3000;0.1083;4.5384;
558.6000;0.1107;4.5482;
558.9000;0.1099;4.5482;
559.2000;0.1083;4.5457;
559.5000;0.1091;4.5457;
559.8000;0.1131;4.5555;
560.1000;0.1074;4.5457;
560.4000;0.1074;4.5506;
560.7000;0.1058;4.5457;
561.0000;0.1042;4.5384;
561.3000;0.1083;4.5506;
561.6000;0.1074;4.5433;
561.9000;0.1026;4.5164;
562.2000;0.1131;4.5531;
562.5000;0.1091;4.5457;
562.8000;0.1115;4.5555;
563.1000;0.0969;4.5188;
563.4000;0.1091;4.5457;
563.7000;0.1042;4.5408;
564.0000;0.1083;4.5433;
564.3000;0.1083;4.5262;
564.6000;0.1058;4.5188;
564.9000;0.1074;4.5164;
565.2000;0.1066;4.5115;
565.5000;0.1066;4.5091;
565.8000;0.1091;4.5213;
566.1000;0.1058;4.5066;
566.4000;0.1083;4.5139;
566.7000;0.1083;4.5066;
567.0000;0.1091;4.5042;
567.3000;0.1099;4.5139;
567.6000;0.1091;4.5164;
567.9000;0.1034;4.5091;
568.2000;0.1050;4.5213;
568.5000;0.1050;4.5286;
568.8000;0.1083;4.5311;
569.1000;0.1066;4.5262;
569.4000;0.1066;4.5237;
569.7000;0.1083;4.5311;
570.0000;0.1009;4.4919;
570.3000;0.1107;4.5311;
570.6000;0.1107;4.5335;
570.9000;0.1074;4.5311;
571.2000;0.1091;4.5311;
571.5000;0.1099;4.5262;
571.8000;0.1083;4.5311;
572.1000;0.1074;4.5262;
572.4000;0.1099;4.5262;
572.7000;0.1083;4.5262;
573.0000;0.0969;4.4944;
573.3000;0.1099;4.5286;
573.6000;0.1099;4.5286;
573.9000;0.1074;4.5237;
574.2000;0.1001;4.5017;
574.5000;0.1058;4.5139;
574.8000;0.1074;4.5188;
575.1000;0.1083;4.5286;
575.4000;0.1058;4.5213;
575.7000;0.1042;4.5091;
576.0000;0.1123;4.5262;
576.3000;0.1099;4.5311;
576.6000;0.1074;4.5286;
576.9000;0.1099;4.5457;
577.2000;0.1058;4.5384;
577.5000;0.1099;4.5482;
577.8000;0.1050;4.5408;
578.1000;0.1058;4.5335;
578.4000;0.1074;4.5311;
578.7000;0.1050;4.5311;
579.0000;0.1091;4.5335;
579.3000;0.1074;4.5213;
579.6000;0.1066;4.5115;
579.9000;0.1099;4.5115;
580.2000;0.1091;4.5139;
580.5000;0.1058;4.5139;
580.8000;0.1083;4.5188;
581.1000;0.1107;4.5311;
581.4000;0.1058;4.5237;
581.7000;0.1066;4.5262;
582.0000;0.1156;4.5506;
582.3000;0.1083;4.5286;
582.6000;0.1083;4.5164;
582.9000;0.1148;4.5457;
583.2000;0.1091;4.5335;
583.5000;0.1074;4.5360;
583.8000;0.1058;4.5286;
584.1000;0.1066;4.5286;
584.4000;0.1058;4.5237;
584.7000;0.1074;4.5262;
585.0000;0.1083;4.5311;
585.3000;0.1026;4.5115;
585.6000;0.1083;4.5188;
585.9000;0.1074;4.5213;
586.2000;0.1074;4.5213;
586.5000;0.1091;4.5262;
586.8000;0.1083;4.5237;
587.1000;0.1066;4.5237;
587.4000;0.1099;4.5311;
587.7000;0.1074;4.5164;
588.0000;0.1050;4.5139;
588.3000;0.1074;4.5164;
588.6000;0.1066;4.5213;
588.9000;0.1074;4.5164;
589.2000;0.1091;4.5164;
589.5000;0.1050;4.4968;
589.8000;0.1107;4.5164;
590.1000;0.1001;4.4822;
590.4000;0.1066;4.5066;
590.7000;0.1066;4.5237;
591.0000;0.1156;4.5408;
591.3000;0.1091;4.5237;
591.6000;0.1091;4.5213;
591.9000;0.1058;4.5188;
592.2000;0.0944;4.4944;
592.5000;0.1066;4.5262;
592.8000;0.1026;4.5066;
593.1000;0.1042;4.5188;
593.4000;0.0961;4.4993;
593.7000;0.1074;4.5188;
594.0000;0.1074;4.5188;
594.3000;0.1172;4.5335;
594.6000;0.1074;4.5091;
594.9000;0.1074;4.5164;
595.2000;0.1066;4.5164;
595.5000;0.1074;4.5164;
595.8000;0.1091;4.5139;
596.1000;0.1107;4.5237;
596.4000;0.1083;4.5115;
596.7000;0.1091;4.5188;
597.0000;0.1123;4.5335;
597.3000;0.1074;4.5164;
597.6000;0.1074;4.5188;
597.9000;0.1148;4.5311;
598.2000;0.1099;4.5237;
598.5000;0.1091;4.5164;
598.8000;0.1066;4.5237;
599.1000;0.1058;4.5188;
599.4000;0.1074;4.5360;
599.7000;0.1074;4.5360;
600.0000;0.1058;4.5360;
600.3000;0.1074;4.5311;
600.6000;0.1074;4.5091;
600.9000;0.1042;4.4993;
601.2000;0.0904;4.4528;
601.5000;0.0985;4.4724;
601.8000;0.1066;4.4895;
602.1000;0.1050;4.4822;
602.4000;0.1026;4.4626;
602.7000;0.1050;4.4601;
603.0000;0.0961;4.4357;
603.3000;0.1026;4.4504;
603.6000;0.1034;4.4479;
603.9000;0.0977;4.4333;
604.2000;0.0985;4.4284;
604.5000;0.1018;4.4259;
604.8000;0.1034;4.4308;
605.1000;0.0993;4.4161;
605.4000;0.1050;4.4186;
605.7000;0.0993;4.4064;
606.0000;0.1001;4.4088;
606.3000;0.1026;4.4186;
606.6000;0.1018;4.4186;
606.9000;0.0993;4.4161;
607.2000;0.0977;4.4137;
607.5000;0.0912;4.3892;
607.8000;0.0993;4.4161;
608.1000;0.1123;4.4430;
608.4000;0.0977;4.4064;
608.7000;0.0985;4.4064;
609.0000;0.1009;4.3990;
609.3000;0.0969;4.3843;
609.6000;0.0961;4.3697;
609.9000;0.1091;4.4015;
610.2000;0.0969;4.3672;
610.5000;0.0871;4.3354;
610.8000;0.0961;4.3623;
611.1000;0.0977;4.3672;
611.4000;0.0952;4.3721;
611.7000;0.1034;4.3868;
612.0000;0.1001;4.3819;
612.3000;0.0952;4.3672;
612.6000;0.0961;4.3697;
612.9000;0.0969;4.3721;
613.2000;0.0961;4.3770;
613.5000;0.0952;4.3770;
613.8000;0.0969;4.3721;
614.1000;0.0961;4.3697;
614.4000;0.0961;4.3599;
614.7000;0.0993;4.3746;
615.0000;0.0904;4.3526;
615.3000;0.0879;4.3379;
615.6000;0.0952;4.3501;
615.9000;0.0993;4.3550;
616.2000;0.0887;4.3379;
616.5000;0.0928;4.3574;
616.8000;0.1083;4.3990;
617.1000;0.0944;4.3599;
617.4000;0.0977;4.3672;
617.7000;0.0944;4.3648;
618.0000;0.0944;4.3697;
618.3000;0.0928;4.3746;
618.6000;0.1001;4.4015;
618.9000;0.0969;4.3868;
619.2000;0.0912;4.3770;
619.5000;0.0952;4.3843;
619.8000;0.0961;4.3843;
620.1000;0.0920;4.3746;
620.4000;0.0952;4.3770;
620.7000;0.0961;4.3795;
621.0000;0.0920;4.3697;
621.3000;0.0961;4.3746;
621.6000;0.0993;4.3868;
621.9000;0.0928;4.3843;
622.2000;0.0944;4.3892;
622.5000;0.0920;4.3795;
622.8000;0.0977;4.3966;
623.1000;0.0985;4.4088;
623.4000;0.0928;4.3892;
623.7000;0.0944;4.3843;
624.0000;0.0904;4.3746;
624.3000;0.0936;4.3868;
624.6000;0.0961;4.3868;
624.9000;0.0936;4.3819;
625.2000;0.0952;4.3892;
625.5000;0.0798;4.3501;
625.8000;0.0920;4.3819;
626.1000;0.0952;4.3770;
626.4000;0.0928;4.3819;
626.7000;0.0944;4.3917;
627.0000;0.0961;4.3941;
627.3000;0.0928;4.3770;
627.6000;0.0920;4.3746;
627.9000;0.0887;4.3721;
628.2000;0.0944;4.3819;
628.5000;0.0944;4.3868;
628.8000;0.0920;4.3746;
629.1000;0.0895;4.3746;
629.4000;0.0928;4.3795;
629.7000;0.0928;4.3795;
630.0000;0.0895;4.3672;
630.3000;0.0920;4.3746;
630.6000;0.0936;4.3721;
630.9000;0.0952;4.3697;
631.2000;0.0928;4.3623;
631.5000;0.0928;4.3599;
631.8000;0.0936;4.3721;
632.1000;0.0928;4.3746;
632.4000;0.0920;4.3770;
632.7000;0.0928;4.3868;
633.0000;0.0895;4.3721;
633.3000;0.0798;4.3403;
633.6000;0.0895;4.3697;
633.9000;0.0920;4.3672;
634.2000;0.0895;4.3648;
634.5000;0.0830;4.3379;
634.8000;0.0912;4.3648;
635.1000;0.0920;4.3795;
635.4000;0.0863;4.3672;
635.7000;0.0944;4.3843;
636.0000;0.0928;4.3868;
636.3000;0.0936;4.3795;
636.6000;0.0969;4.3917;
636.9000;0.0847;4.3672;
637.2000;0.0887;4.3770;
637.5000;0.0904;4.3868;
637.8000;0.0904;4.3843;
638.1000;0.0904;4.3770;
638.4000;0.0895;4.3697;
638.7000;0.0985;4.3941;
639.0000;0.0920;4.3746;
639.3000;0.0952;4.3941;
639.6000;0.0952;4.3892;
639.9000;0.0912;4.3795;
640.2000;0.0904;4.3795;
640.5000;0.0887;4.3843;
640.8000;0.0912;4.3843;
641.1000;0.0912;4.3819;
641.4000;0.0798;4.3501;
641.7000;0.0904;4.3795;
642.0000;0.0936;4.3941;
642.3000;0.0944;4.3990;
642.6000;0.0814;4.3672;
642.9000;0.0895;4.3868;
643.2000;0.0879;4.3770;
643.5000;0.0920;4.3746;
643.8000;0.0904;4.3795;
644.1000;0.0895;4.3795;
644.4000;0.0895;4.3819;
644.7000;0.0895;4.3697;
645.0000;0.0904;4.3746;
645.3000;0.0928;4.3819;
645.6000;0.0895;4.3770;
645.9000;0.0928;4.3843;
646.2000;0.0912;4.3770;
646.5000;0.0920;4.3721;
646.8000;0.0912;4.3721;
647.1000;0.0952;4.3892;
647.4000;0.0961;4.3843;
647.7000;0.0871;4.3599;
648.0000;0.0838;4.3599;
648.3000;0.0936;4.3770;
648.6000;0.0928;4.3770;
648.9000;0.0879;4.3697;
649.2000;0.0765;4.3428;
649.5000;0.0920;4.3795;
649.8000;0.0895;4.3672;
650.1000;0.0944;4.3819;
650.4000;0.0855;4.3550;
650.7000;0.0887;4.3648;
651.0000;0.0895;4.3672;
651.3000;0.0871;4.3477;
651.6000;0.0895;4.3550;
651.9000;0.0887;4.3501;
652.2000;0.0928;4.3648;
652.5000;0.0863;4.3550;
652.8000;0.0871;4.3599;
653.1000;0.0855;4.3623;
653.4000;0.0871;4.3697;
653.7000;0.0895;4.3795;
654.0000;0.0895;4.3721;
654.3000;0.0887;4.3746;
654.6000;0.0912;4.3795;
654.9000;0.1050;4.4137;
655.2000;0.0895;4.3770;
655.5000;0.0855;4.3697;
655.8000;0.0887;4.3819;
656.1000;0.0904;4.3795;
656.4000;0.0920;4.3819;
656.7000;0.0887;4.3795;
657.0000;0.0887;4.3843;
657.3000;0.0871;4.3623;
657.6000;0.0920;4.3795;
657.9000;0.0879;4.3697;
658.2000;0.0822;4.3599;
658.5000;0.0879;4.3746;
658.8000;0.0912;4.3770;
659.1000;0.0920;4.3746;
659.4000;0.0912;4.3697;
659.7000;0.0928;4.3868;
660.0000;0.0904;4.3770;
660.3000;0.0863;4.3672;
660.6000;0.0936;4.3917;
660.9000;0.0887;4.3819;
661.2000;0.0912;4.3892;
661.5000;0.0912;4.3917;
661.8000;0.0895;4.3843;
662.1000;0.0895;4.3843;
662.4000;0.0920;4.4015;
662.7000;0.0895;4.3892;
663.0000;0.0912;4.3941;
663.3000;0.0895;4.3868;
663.6000;0.0887;4.3868;
663.9000;0.0895;4.3843;
664.2000;0.0879;4.3868;
664.5000;0.0912;4.3941;
664.8000;0.0855;4.3795;
665.1000;0.0904;4.3892;
665.4000;0.0912;4.3917;
665.7000;0.0904;4.3917;
666.0000;0.0879;4.3770;
666.3000;0.0895;4.3795;
666.6000;0.0887;4.3770;
666.9000;0.0838;4.3721;
667.2000;0.0887;4.3819;
667.5000;0.0912;4.3917;
667.8000;0.0863;4.3819;
668.1000;0.0798;4.3721;
668.4000;0.0871;4.3819;
668.7000;0.0904;4.3819;
669.0000;0.0904;4.3843;
669.3000;0.0879;4.3770;
669.6000;0.0830;4.3746;
669.9000;0.0887;4.3966;
670.2000;0.0895;4.4064;
670.5000;0.0879;4.3990;
670.8000;0.0887;4.3941;
671.1000;0.0928;4.3966;
671.4000;0.0863;4.3892;
671.7000;0.0871;4.3966;
672.0000;0.0847;4.3941;
672.3000;0.0871;4.3819;
672.6000;0.0936;4.4015;
672.9000;0.0887;4.3868;
673.2000;0.0855;4.3868;
673.5000;0.0952;4.4210;
673.8000;0.0895;4.4039;
674.1000;0.0904;4.4039;
674.4000;0.0879;4.3892;
674.7000;0.0895;4.3966;
675.0000;0.0871;4.3917;
675.3000;0.0822;4.3819;
675.6000;0.0895;4.3892;
675.9000;0.0912;4.3917;
676.2000;0.0855;4.3672;
676.5000;0.0847;4.3623;
676.8000;0.0773;4.3354;
677.1000;0.0944;4.3795;
677.4000;0.0912;4.3648;
677.7000;0.0879;4.3623;
678.0000;0.0871;4.3526;
678.3000;0.0887;4.3550;
678.6000;0.0879;4.3648;
678.9000;0.0887;4.3746;
679.2000;0.0912;4.3892;
679.5000;0.0806;4.3574;
679.8000;0.0969;4.4015;
680.1000;0.0920;4.3941;
680.4000;0.0879;4.3892;
680.7000;0.0879;4.3917;
681.0000;0.0887;4.3892;
681.3000;0.0879;4.3892;
681.6000;0.0847;4.3795;
681.9000;0.0887;4.3868;
682.2000;0.0887;4.3917;
682.5000;0.0855;4.3819;
682.8000;0.0895;4.3892;
683.1000;0.0871;4.3966;
683.4000;0.0871;4.3868;
683.7000;0.0838;4.3697;
684.0000;0.0895;4.3770;
684.3000;0.0863;4.3623;
684.6000;0.0895;4.3697;
684.9000;0.0912;4.3770;
685.2000;0.0871;4.3770;
685.5000;0.0822;4.3770;
685.8000;0.0757;4.3452;
686.1000;0.0895;4.3819;
686.4000;0.0887;4.3795;
686.7000;0.0895;4.3819;
687.0000;0.0814;4.3574;
687.3000;0.0863;4.3746;
687.6000;0.0871;4.3795;
687.9000;0.0895;4.3868;
688.2000;0.0879;4.3843;
688.5000;0.0887;4.3843;
688.8000;0.0749;4.3452;
689.1000;0.0887;4.3770;
689.4000;0.0895;4.3746;
689.7000;0.0879;4.3770;
690.0000;0.0863;4.3795;
690.3000;0.0952;4.4088;
690.6000;0.0855;4.3721;
690.9000;0.0871;4.3770;
691.2000;0.0895;4.3892;
691.5000;0.0855;4.3697;
691.8000;0.0969;4.4039;
692.1000;0.0855;4.3746;
692.4000;0.0879;4.3843;
692.7000;0.0879;4.3917;
693.0000;0.0879;4.3819;
693.3000;0.0895;4.3843;
693.6000;0.0944;4.3917;
693.9000;0.0879;4.3843;
694.2000;0.0895;4.3941;
694.5000;0.0887;4.3990;
694.8000;0.0904;4.4064;
695.1000;0.0798;4.3770;
695.4000;0.0887;4.4064;
695.7000;0.0977;4.4308;
696.0000;0.0977;4.4210;
696.3000;0.0863;4.3868;
696.6000;0.0912;4.3966;
696.9000;0.0904;4.3966;
697.2000;0.0887;4.3941;
697.5000;0.0871;4.3843;
697.8000;0.0895;4.3892;
698.1000;0.0879;4.3868;
698.4000;0.0904;4.3941;
698.7000;0.0838;4.3868;
699.0000;0.0871;4.4015;
699.3000;0.0879;4.4015;
699.6000;0.0798;4.3868;
699.9000;0.0879;4.4088;
700.2000;0.0887;4.4186;
700.5000;0.0871;4.4284;
700.8000;0.0879;4.4235;
701.1000;0.0855;4.4112;
701.4000;0.0879;4.4088;
701.7000;0.0879;4.4015;
702.0000;0.0863;4.3941;
702.3000;0.0863;4.3892;
702.6000;0.0871;4.3990;
702.9000;0.0863;4.3966;
703.2000;0.0855;4.3868;
703.5000;0.0904;4.3966;
703.8000;0.0887;4.3892;
704.1000;0.0855;4.3892;
704.4000;0.0895;4.3917;
704.7000;0.0863;4.3843;
705.0000;0.0855;4.3868;
705.3000;0.0863;4.3966;
705.6000;0.0871;4.4039;
705.9000;0.0920;4.4064;
706.2000;0.0847;4.3941;
706.5000;0.0716;4.3697;
706.8000;0.0961;4.4161;
707.1000;0.0887;4.3966;
707.4000;0.0920;4.4088;
707.7000;0.0895;4.3917;
708.0000;0.0895;4.4039;
708.3000;0.0847;4.3941;
708.6000;0.0895;4.4137;
708.9000;0.0879;4.4064;
709.2000;0.0790;4.3746;
709.5000;0.0928;4.4161;
709.8000;0.0895;4.4064;
710.1000;0.0863;4.3892;
710.4000;0.0895;4.3941;
710.7000;0.0936;4.4015;
711.0000;0.0887;4.3892;
711.3000;0.0879;4.3868;
711.6000;0.0847;4.3795;
711.9000;0.0847;4.3819;
712.2000;0.0895;4.3917;
712.5000;0.0936;4.4015;
712.8000;0.0952;4.4064;
713.1000;0.0871;4.3819;
713.4000;0.0879;4.3819;
713.7000;0.0781;4.3526;
714.0000;0.0855;4.3648;
714.3000;0.0798;4.3550;
714.6000;0.0879;4.3795;
714.9000;0.0806;4.3623;
715.2000;0.0904;4.3990;
715.5000;0.0847;4.3819;
715.8000;0.0920;4.4039;
716.1000;0.1042;4.4381;
716.4000;0.0920;4.4088;
716.7000;0.0887;4.3966;
717.0000;0.0830;4.3672;
717.3000;0.0871;4.3746;
717.6000;0.0814;4.3672;
717.9000;0.0879;4.3868;
718.2000;0.0920;4.3843;
718.5000;0.0895;4.3819;
718.8000;0.0855;4.3770;
719.1000;0.0879;4.3843;
719.4000;0.0871;4.3868;
719.7000;0.0822;4.3721;
720.0000;0.0895;4.3843;
720.3000;0.0879;4.3721;
720.6000;0.0887;4.3770;
720.9000;0.0887;4.3770;
721.2000;0.0887;4.3795;
721.5000;0.0879;4.3819;
721.8000;0.0879;4.3868;
722.1000;0.0895;4.3990;
722.4000;0.0887;4.3966;
722.7000;0.0879;4.3917;
723.0000;0.0871;4.3892;
723.3000;0.0798;4.3599;
723.6000;0.0904;4.3990;
723.9000;0.0863;4.3843;
724.2000;0.0863;4.3941;
724.5000;0.0887;4.3990;
724.8000;0.0887;4.3966;
725.1000;0.0879;4.4088;
725.4000;0.0895;4.4137;
725.7000;0.0863;4.4015;
726.0000;0.0895;4.4137;
726.3000;0.0855;4.4015;
726.6000;0.0879;4.4064;
726.9000;0.0912;4.4186;
727.2000;0.0944;4.4284;
727.5000;0.0895;4.4137;
727.8000;0.0871;4.4112;
728.1000;0.0822;4.4039;
728.4000;0.0985;4.4430;
728.7000;0.0952;4.4357;
729.0000;0.0887;4.4137;
729.3000;0.0847;4.4015;
729.6000;0.0871;4.4088;
729.9000;0.0904;4.4137;
730.2000;0.0887;4.4112;
730.5000;0.0895;4.4210;
730.8000;0.0895;4.4210;
731.1000;0.0895;4.4186;
731.4000;0.0887;4.4137;
731.7000;0.0879;4.4039;
732.0000;0.0895;4.4039;
732.3000;0.0871;4.3966;
732.6000;0.0904;4.4064;
732.9000;0.0879;4.3966;
733.2000;0.0944;4.4259;
733.5000;0.0847;4.4064;
733.8000;0.0830;4.4064;
734.1000;0.0871;4.4161;
734.4000;0.0871;4.4112;
734.7000;0.0838;4.4064;
735.0000;0.0879;4.4088;
735.3000;0.0969;4.4235;
735.6000;0.0887;4.4064;
735.9000;0.0871;4.3990;
736.2000;0.0895;4.4015;
736.5000;0.0871;4.3966;
736.8000;0.0887;4.4039;
737.1000;0.0936;4.4210;
737.4000;0.0912;4.4064;
737.7000;0.0895;4.3941;
738.0000;0.0871;4.3917;
738.3000;0.0871;4.3966;
738.6000;0.0904;4.4112;
738.9000;0.0920;4.4186;
739.2000;0.0871;4.3941;
739.5000;0.0887;4.4015;
739.8000;0.0879;4.3917;
740.1000;0.0879;4.3966;
740.4000;0.0879;4.4039;
740.7000;0.0895;4.4235;
741.0000;0.0871;4.4112;
741.3000;0.0904;4.4210;
741.6000;0.0944;4.4308;
741.9000;0.0871;4.4186;
742.2000;0.0879;4.4186;
742.5000;0.0887;4.4161;
742.8000;0.0871;4.4137;
743.1000;0.0871;4.4112;
743.4000;0.0871;4.4088;
743.7000;0.0871;4.4088;
744.0000;0.0871;4.4088;
744.3000;0.0847;4.4064;
744.6000;0.0871;4.4161;
744.9000;0.0895;4.4186;
745.2000;0.0879;4.4137;
745.5000;0.0895;4.4235;
745.8000;0.0830;4.4064;
746.1000;0.0871;4.4088;
746.4000;0.0904;4.4161;
746.7000;0.0912;4.4137;
747.0000;0.0863;4.4064;
747.3000;0.0716;4.3599;
747.6000;0.0879;4.4039;
747.9000;0.0871;4.4015;
748.2000;0.0904;4.4088;
748.5000;0.0920;4.4039;
748.8000;0.0863;4.3990;
749.1000;0.0887;4.3990;
749.4000;0.0847;4.3917;
749.7000;0.0904;4.4137;
750.0000;0.0863;4.3990;
750.3000;0.0798;4.3819;
750.6000;0.0830;4.3892;
750.9000;0.0879;4.3966;
751.2000;0.0879;4.4039;
751.5000;0.0887;4.4015;
751.8000;0.0887;4.3868;
752.1000;0.0887;4.3843;
752.4000;0.0847;4.3746;
752.7000;0.0830;4.3746;
753.0000;0.0879;4.3892;
753.3000;0.0904;4.3917;
753.6000;0.0895;4.3917;
753.9000;0.0879;4.3892;
754.2000;0.0961;4.4137;
754.5000;0.0871;4.3843;
754.8000;0.0936;4.4064;
755.1000;0.0887;4.3990;
755.4000;0.0904;4.4039;
755.7000;0.0871;4.3966;
756.0000;0.0879;4.3966;
756.3000;0.0895;4.4015;
756.6000;0.0895;4.4015;
756.9000;0.0871;4.3941;
757.2000;0.0912;4.3990;
757.5000;0.0912;4.3990;
757.8000;0.0871;4.4064;
758.1000;0.0863;4.3892;
758.4000;0.0863;4.3917;
758.7000;0.0855;4.3868;
759.0000;0.0887;4.3892;
759.3000;0.0863;4.3892;
759.6000;0.0879;4.4015;
759.9000;0.0855;4.3966;
760.2000;0.0912;4.4161;
760.5000;0.0879;4.4112;
760.8000;0.0879;4.4112;
761.1000;0.0887;4.4039;
761.4000;0.0895;4.4112;
761.7000;0.0871;4.3990;
762.0000;0.0871;4.4015;
762.3000;0.0863;4.3941;
762.6000;0.0887;4.4015;
762.9000;0.0887;4.4015;
763.2000;0.0871;4.3990;
763.5000;0.0871;4.4015;
763.8000;0.0863;4.3990;
764.1000;0.0879;4.3941;
764.4000;0.0912;4.4064;
764.7000;0.0879;4.3917;
765.0000;0.0895;4.3917;
765.3000;0.0904;4.4015;
765.6000;0.0879;4.3966;
765.9000;0.0879;4.3966;
766.2000;0.0904;4.4064;
766.5000;0.0904;4.4064;
766.8000;0.0895;4.4137;
767.1000;0.0920;4.4161;
767.4000;0.0887;4.4088;
767.7000;0.0879;4.4112;
768.0000;0.0879;4.4186;
768.3000;0.0895;4.4235;
768.6000;0.0887;4.4064;
768.9000;0.0887;4.3941;
769.2000;0.0847;4.3770;
769.5000;0.0895;4.3819;
769.8000;0.0871;4.3795;
770.1000;0.0912;4.3843;
770.4000;0.0871;4.3697;
770.7000;0.0944;4.3966;
771.0000;0.0887;4.3721;
771.3000;0.0855;4.3697;
771.6000;0.0863;4.3648;
771.9000;0.0806;4.3501;
772.2000;0.0936;4.3868;
772.5000;0.0863;4.3770;
772.8000;0.0871;4.3770;
773.1000;0.0904;4.3819;
773.4000;0.0855;4.3672;
773.7000;0.0847;4.3697;
774.0000;0.0871;4.3795;
774.3000;0.0822;4.3599;
774.6000;0.0887;4.3770;
774.9000;0.0855;4.3795;
775.2000;0.0912;4.4039;
775.5000;0.0863;4.3917;
775.8000;0.0871;4.3795;
776.1000;0.0863;4.3795;
776.4000;0.0895;4.3868;
776.7000;0.0887;4.3892;
777.0000;0.0879;4.3941;
777.3000;0.0855;4.3868;
777.6000;0.0920;4.4039;
777.9000;0.0871;4.3819;
778.2000;0.0847;4.3770;
778.5000;0.0895;4.3819;
778.8000;0.0838;4.3697;
779.1000;0.0879;4.3795;
779.4000;0.0863;4.3843;
779.7000;0.0847;4.3721;
780.0000;0.0871;4.3868;
780.3000;0.0863;4.3746;
780.6000;0.0790;4.3526;
780.9000;0.0895;4.3868;
781.2000;0.0855;4.3770;
781.5000;0.0855;4.3795;
781.8000;0.0895;4.3892;
782.1000;0.0806;4.3623;
782.4000;0.0871;4.3843;
782.7000;0.0863;4.3795;
783.0000;0.0879;4.3892;
783.3000;0.0871;4.3843;
783.6000;0.0895;4.3917;
783.9000;0.0887;4.3892;
784.2000;0.0871;4.4015;
784.5000;0.0855;4.3941;
784.8000;0.0871;4.3941;
785.1000;0.0879;4.3917;
785.4000;0.0871;4.3843;
785.7000;0.0838;4.3721;
786.0000;0.0928;4.3941;
786.3000;0.0863;4.3819;
786.6000;0.0814;4.3770;
786.9000;0.0895;4.4039;
787.2000;0.0822;4.3843;
787.5000;0.0863;4.3966;
787.8000;0.0887;4.4088;
788.1000;0.0887;4.3917;
788.4000;0.0855;4.3770;
788.7000;0.0838;4.3721;
789.0000;0.0790;4.3623;
789.3000;0.0871;4.3917;
789.6000;0.0879;4.3966;
789.9000;0.0920;4.4088;
790.2000;0.0830;4.3892;
790.5000;0.0871;4.3990;
790.8000;0.0887;4.4064;
791.1000;0.0871;4.4039;
791.4000;0.0871;4.4039;
791.7000;0.0847;4.4015;
792.0000;0.0904;4.4112;
792.3000;0.0838;4.3990;
792.6000;0.0887;4.4112;
792.9000;0.0863;4.4064;
793.2000;0.0879;4.4064;
793.5000;0.0879;4.4112;
793.8000;0.0879;4.4161;
794.1000;0.0855;4.4112;
794.4000;0.0887;4.4210;
794.7000;0.0863;4.4137;
795.0000;0.0855;4.4235;
795.3000;0.0961;4.4381;
795.6000;0.0871;4.4137;
795.9000;0.0871;4.4015;
796.2000;0.0887;4.4088;
796.5000;0.0879;4.4064;
796.8000;0.0863;4.4112;
797.1000;0.0879;4.4112;
797.4000;0.0847;4.4137;
797.7000;0.0871;4.4235;
798.0000;0.0863;4.4161;
798.3000;0.0952;4.4479;
798.6000;0.0749;4.3941;
798.9000;0.0863;4.4186;
799.2000;0.0863;4.4259;
799.5000;0.0855;4.4186;
799.8000;0.0928;4.4333;
800.1000;0.0855;4.4137;
800.4000;0.0879;4.4112;
800.7000;0.0781;4.3819;
801.0000;0.0895;4.4112;
801.3000;0.0855;4.3966;
801.6000;0.0863;4.4088;
801.9000;0.0855;4.4088;
802.2000;0.0887;4.4015;
802.5000;0.0887;4.4015;
802.8000;0.0879;4.4015;
803.1000;0.0863;4.3990;
803.4000;0.0912;4.4088;
803.7000;0.0895;4.3990;
804.0000;0.0879;4.3941;
804.3000;0.0887;4.3892;
804.6000;0.1009;4.4308;
804.9000;0.0822;4.3795;
805.2000;0.0855;4.3966;
805.5000;0.0895;4.4064;
805.8000;0.0863;4.3917;
806.1000;0.0895;4.4015;
806.4000;0.0838;4.3941;
806.7000;0.0895;4.4186;
807.0000;0.0904;4.4284;
807.3000;0.0912;4.4259;
807.6000;0.0863;4.4088;
807.9000;0.0887;4.4161;
808.2000;0.0887;4.4235;
808.5000;0.0977;4.4406;
808.8000;0.0822;4.4015;
809.1000;0.0855;4.4088;
809.4000;0.0765;4.3746;
809.7000;0.0838;4.3819;
810.0000;0.0855;4.3892;
810.3000;0.0830;4.3843;
810.6000;0.0814;4.3795;
810.9000;0.0879;4.3990;
811.2000;0.0871;4.4088;
811.5000;0.0847;4.3941;
811.8000;0.0855;4.3990;
812.1000;0.0847;4.3917;
812.4000;0.0879;4.3990;
812.7000;0.0871;4.3941;
813.0000;0.0847;4.3892;
813.3000;0.0879;4.4039;
813.6000;0.0871;4.3990;
813.9000;0.0863;4.3941;
814.2000;0.1001;4.4210;
814.5000;0.0863;4.3795;
814.8000;0.0806;4.3697;
815.1000;0.0879;4.3892;
815.4000;0.0863;4.3966;
815.7000;0.0871;4.3990;
816.0000;0.0879;4.4039;
816.3000;0.0887;4.4088;
816.6000;0.0863;4.3917;
816.9000;0.0863;4.3941;
817.2000;0.0879;4.3966;
817.5000;0.0887;4.3990;
817.8000;0.0798;4.3819;
818.1000;0.0847;4.3892;
818.4000;0.0830;4.3868;
818.7000;0.0814;4.3819;
819.0000;0.0887;4.4015;
819.3000;0.0855;4.3941;
819.6000;0.0830;4.3843;
819.9000;0.0887;4.3966;
820.2000;0.0879;4.3941;
820.5000;0.0879;4.3990;
820.8000;0.0749;4.3672;
821.1000;0.0879;4.3966;
821.4000;0.0879;4.3990;
821.7000;0.0912;4.4088;
822.0000;0.0895;4.4039;
822.3000;0.0879;4.3941;
822.6000;0.0822;4.3868;
822.9000;0.0863;4.3990;
823.2000;0.0863;4.3941;
823.5000;0.0904;4.3990;
823.8000;0.0822;4.3770;
824.1000;0.0855;4.3868;
824.4000;0.0847;4.3843;
824.7000;0.0863;4.4064;
825.0000;0.0879;4.4161;
825.3000;0.0904;4.4259;
825.6000;0.0863;4.3990;
825.9000;0.0847;4.3966;
826.2000;0.0838;4.3917;
826.5000;0.0855;4.4064;
826.8000;0.0871;4.4039;
827.1000;0.0879;4.4039;
827.4000;0.0871;4.3990;
827.7000;0.0863;4.3990;
828.0000;0.0781;4.3697;
828.3000;0.0855;4.3990;
828.6000;0.0952;4.4308;
828.9000;0.0830;4.4064;
829.2000;0.0895;4.4161;
829.5000;0.0871;4.4088;
829.8000;0.0871;4.4186;
830.1000;0.0790;4.3941;
830.4000;0.0863;4.4137;
830.7000;0.0871;4.4088;
831.0000;0.0871;4.4039;
831.3000;0.0879;4.4039;
831.6000;0.0887;4.4112;
831.9000;0.0855;4.3966;
832.2000;0.0952;4.4186;
832.5000;0.0879;4.3966;
832.8000;0.0879;4.3990;
833.1000;0.0879;4.3941;
833.4000;0.0912;4.3966;
833.7000;0.0863;4.3917;
834.0000;0.0830;4.3892;
834.3000;0.0895;4.4112;
834.6000;0.0879;4.4064;
834.9000;0.0871;4.4088;
835.2000;0.0993;4.4528;
835.5000;0.0879;4.4259;
835.8000;0.0855;4.4137;
836.1000;0.0887;4.4137;
836.4000;0.0879;4.4015;
836.7000;0.0887;4.4064;
837.0000;0.0838;4.3966;
837.3000;0.0847;4.3941;
837.6000;0.0855;4.3966;
837.9000;0.0863;4.4015;
838.2000;0.0749;4.3697;
838.5000;0.0863;4.4064;
838.8000;0.0871;4.4064;
839.1000;0.0847;4.4064;
839.4000;0.0920;4.4235;
839.7000;0.0855;4.3990;
840.0000;0.0847;4.3990;
840.3000;0.0855;4.4039;
840.6000;0.0904;4.4137;
840.9000;0.0855;4.3941;
841.2000;0.0895;4.4064;
841.5000;0.0887;4.4015;
841.8000;0.0895;4.4088;
842.1000;0.0879;4.4039;
842.4000;0.0879;4.3990;
842.7000;0.0871;4.4015;
843.0000;0.0855;4.3966;
843.3000;0.0863;4.4015;
843.6000;0.0879;4.3990;
843.9000;0.0920;4.4161;
844.2000;0.0855;4.4088;
844.5000;0.0863;4.4064;
844.8000;0.0855;4.3990;
845.1000;0.0855;4.4039;
845.4000;0.0863;4.4064;
845.7000;0.0904;4.4064;
846.0000;0.0879;4.4015;
846.3000;0.0684;4.3550;
846.6000;0.0887;4.4064;
846.9000;0.0887;4.3966;
847.2000;0.0863;4.3966;
847.5000;0.0912;4.4088;
847.8000;0.0855;4.3990;
848.1000;0.0879;4.4088;
848.4000;0.0806;4.3795;
848.7000;0.0863;4.3941;
849.0000;0.0855;4.3868;
849.3000;0.0855;4.3819;
849.6000;0.0863;4.3868;
849.9000;0.0904;4.3990;
850.2000;0.0863;4.3917;
850.5000;0.0838;4.3917;
850.8000;0.0879;4.4088;
851.1000;0.0871;4.4064;
851.4000;0.0944;4.4284;
851.7000;0.0895;4.4137;
852.0000;0.0871;4.4088;
852.3000;0.0871;4.4088;
852.6000;0.0798;4.3868;
852.9000;0.0887;4.4137;
853.2000;0.0871;4.4186;
853.5000;0.0871;4.4112;
853.8000;0.0871;4.4210;
854.1000;0.0912;4.4235;
854.4000;0.0806;4.3917;
854.7000;0.0871;4.4064;
855.0000;0.0952;4.4186;
855.3000;0.0871;4.3966;
855.6000;0.0952;4.4137;
855.9000;0.0879;4.3966;
856.2000;0.0887;4.4112;
856.5000;0.0904;4.4161;
856.8000;0.0871;4.4088;
857.1000;0.0863;4.4015;
857.4000;0.0952;4.4210;
857.7000;0.0814;4.3917;
858.0000;0.0855;4.3990;
858.3000;0.0904;4.4137;
858.6000;0.0879;4.4088;
858.9000;0.0871;4.4088;
859.2000;0.0806;4.3917;
859.5000;0.0961;4.4479;
859.8000;0.0863;4.4186;
860.1000;0.0879;4.4088;
860.4000;0.0847;4.4015;
860.7000;0.0838;4.4015;
861.0000;0.0863;4.3990;
861.3000;0.0895;4.4015;
861.6000;0.0871;4.4015;
861.9000;0.0871;4.3990;
862.2000;0.0969;4.4284;
862.5000;0.0863;4.3990;
862.8000;0.0887;4.4112;
863.1000;0.0830;4.4015;
863.4000;0.0895;4.4186;
863.7000;0.0871;4.4112;
864.0000;0.0879;4.4015;
864.3000;0.0822;4.3892;
864.6000;0.0887;4.4064;
864.9000;0.0912;4.4210;
865.2000;0.0969;4.4381;
865.5000;0.0879;4.4088;
865.8000;0.0838;4.4064;
866.1000;0.0855;4.4161;
866.4000;0.0830;4.4161;
866.7000;0.0887;4.4308;
867.0000;0.0879;4.4235;
867.3000;0.0879;4.4210;
867.6000;0.0871;4.4210;
867.9000;0.0871;4.4186;
868.2000;0.0887;4.4186;
868.5000;0.0879;4.4137;
868.8000;0.0863;4.4210;
869.1000;0.0838;4.4186;
869.4000;0.0879;4.4259;
869.7000;0.0887;4.4259;
870.0000;0.0871;4.4259;
870.3000;0.0887;4.4308;
870.6000;0.0887;4.4333;
870.9000;0.0871;4.4333;
871.2000;0.0879;4.4308;
871.5000;0.0790;4.4137;
871.8000;0.0904;4.4333;
872.1000;0.0871;4.4333;
872.4000;0.0936;4.4455;
872.7000;0.0887;4.4235;
873.0000;0.0879;4.4186;
873.3000;0.0887;4.4259;
873.6000;0.0879;4.4308;
873.9000;0.0838;4.4235;
874.2000;0.0855;4.4333;
874.5000;0.0895;4.4430;
874.8000;0.0863;4.4308;
875.1000;0.0887;4.4381;
875.4000;0.0798;4.4088;
875.7000;0.0814;4.4112;
876.0000;0.0871;4.4333;
876.3000;0.0863;4.4333;
876.6000;0.0879;4.4455;
876.9000;0.0879;4.4430;
877.2000;0.0830;4.4210;
877.5000;0.0863;4.4235;
877.8000;0.0855;4.4259;
878.1000;0.0895;4.4479;
878.4000;0.0895;4.4406;
878.7000;0.0855;4.4259;
879.0000;0.0879;4.4259;
879.3000;0.0798;4.3966;
879.6000;0.1001;4.4577;
879.9000;0.0855;4.4161;
880.2000;0.0887;4.4235;
880.5000;0.0871;4.4259;
880.8000;0.0887;4.4357;
881.1000;0.0830;4.4259;
881.4000;0.0863;4.4308;
881.7000;0.0855;4.4161;
882.0000;0.0757;4.3917;
882.3000;0.0855;4.4161;
882.6000;0.0749;4.3819;
882.9000;0.0863;4.4112;
883.2000;0.0879;4.4112;
883.5000;0.0912;4.4112;
883.8000;0.0887;4.4064;
884.1000;0.0871;4.4039;
884.4000;0.0830;4.3966;
884.7000;0.0879;4.4064;
885.0000;0.0887;4.4112;
885.3000;0.0863;4.3966;
885.6000;0.0879;4.3917;
885.9000;0.0863;4.3868;
886.2000;0.0887;4.4015;
886.5000;0.0871;4.4015;
886.8000;0.0985;4.4430;
887.1000;0.0920;4.4308;
887.4000;0.0895;4.4186;
887.7000;0.0855;4.4064;
888.0000;0.0863;4.4112;
888.3000;0.0879;4.4161;
888.6000;0.0887;4.4284;
888.9000;0.0904;4.4284;
889.2000;0.0879;4.4161;
889.5000;0.0904;4.4210;
889.8000;0.0887;4.4137;
890.1000;0.0879;4.4137;
890.4000;0.0871;4.4112;
890.7000;0.0871;4.4112;
891.0000;0.0879;4.4039;
891.3000;0.0904;4.4161;
891.6000;0.0879;4.4039;
891.9000;0.0887;4.4112;
892.2000;0.0863;4.4137;
892.5000;0.0879;4.4161;
892.8000;0.0879;4.4186;
893.1000;0.0879;4.4112;
893.4000;0.0838;4.3966;
893.7000;0.0855;4.4039;
894.0000;0.0863;4.4088;
894.3000;0.0855;4.4112;
894.6000;0.0855;4.4161;
894.9000;0.0806;4.4039;
895.2000;0.0871;4.4186;
895.5000;0.0895;4.4235;
895.8000;0.0855;4.4186;
896.1000;0.0895;4.4308;
896.4000;0.0749;4.3966;
896.7000;0.0863;4.4308;
897.0000;0.0871;4.4333;
897.3000;0.0847;4.4308;
897.6000;0.0790;4.4088;
897.9000;0.0887;4.4333;
898.2000;0.0895;4.4284;
898.5000;0.0887;4.4186;
898.8000;0.0904;4.4235;
899.1000;0.0855;4.4137;
899.4000;0.0863;4.4161;
899.7000;0.0887;4.4333;
900.0000;0.0838;4.4137;
900.3000;0.0863;4.4259;
900.6000;0.0863;4.4333;
900.9000;0.0952;4.4528;
901.2000;0.0847;4.4308;
901.5000;0.0904;4.4479;
901.8000;0.0879;4.4381;
902.1000;0.0879;4.4406;
902.4000;0.0879;4.4357;
902.7000;0.0806;4.4235;
903.0000;0.0733;4.3941;
903.3000;0.0887;4.4381;
903.6000;0.0814;4.4137;
903.9000;0.0838;4.4210;
904.2000;0.0871;4.4333;
904.5000;0.0781;4.4015;
904.8000;0.0855;4.4259;
905.1000;0.0863;4.4284;
905.4000;0.0904;4.4308;
905.7000;0.0912;4.4455;
906.0000;0.0879;4.4455;
906.3000;0.0895;4.4455;
906.6000;0.0887;4.4381;
906.9000;0.0895;4.4357;
907.2000;0.0895;4.4357;
907.5000;0.0887;4.4308;
907.8000;0.0912;4.4406;
908.1000;0.0855;4.4259;
908.4000;0.0904;4.4381;
908.7000;0.0863;4.4284;
909.0000;0.0871;4.4333;
909.3000;0.0871;4.4406;
909.6000;0.0871;4.4357;
909.9000;0.0863;4.4284;
910.2000;0.0847;4.4308;
910.5000;0.0855;4.4430;
910.8000;0.0871;4.4430;
911.1000;0.0887;4.4479;
911.4000;0.0895;4.4479;
911.7000;0.0871;4.4357;
912.0000;0.0855;4.4235;
912.3000;0.0887;4.4161;
912.6000;0.0895;4.4186;
912.9000;0.0936;4.4308;
913.2000;0.0904;4.4235;
913.5000;0.0879;4.4186;
913.8000;0.0887;4.4259;
914.1000;0.0871;4.4210;
914.4000;0.0871;4.4381;
914.7000;0.0928;4.4577;
915.0000;0.0895;4.4455;
915.3000;0.0855;4.4284;
915.6000;0.0838;4.4161;
915.9000;0.0871;4.4186;
916.2000;0.0879;4.4210;
916.5000;0.0863;4.4088;
916.8000;0.0879;4.4161;
917.1000;0.0895;4.4333;
917.4000;0.0879;4.4308;
917.7000;0.0838;4.4235;
918.0000;0.0895;4.4357;
918.3000;0.0863;4.4259;
918.6000;0.0879;4.4406;
918.9000;0.0838;4.4284;
919.2000;0.0847;4.4333;
919.5000;0.0871;4.4333;
919.8000;0.0871;4.4308;
920.1000;0.0838;4.4284;
920.4000;0.0879;4.4455;
920.7000;0.0879;4.4381;
921.0000;0.0863;4.4308;
921.3000;0.0895;4.4430;
921.6000;0.0863;4.4210;
921.9000;0.0895;4.4333;
922.2000;0.0871;4.4259;
922.5000;0.0904;4.4333;
922.8000;0.0904;4.4259;
923.1000;0.0879;4.4284;
923.4000;0.0838;4.4259;
923.7000;0.0912;4.4430;
924.0000;0.0952;4.4675;
924.3000;0.0904;4.4430;
924.6000;0.0847;4.4210;
924.9000;0.0912;4.4235;
925.2000;0.0952;4.4455;
925.5000;0.0871;4.4235;
925.8000;0.0879;4.4333;
926.1000;0.0863;4.4308;
926.4000;0.0879;4.4333;
926.7000;0.0847;4.4235;
927.0000;0.0904;4.4333;
927.3000;0.0822;4.4137;
927.6000;0.0895;4.4333;
927.9000;0.0871;4.4333;
928.2000;0.0879;4.4381;
928.5000;0.0879;4.4357;
928.8000;0.0944;4.4504;
929.1000;0.0887;4.4357;
929.4000;0.0855;4.4333;
929.7000;0.0887;4.4406;
930.0000;0.0855;4.4381;
930.3000;0.0871;4.4381;
930.6000;0.0887;4.4333;
930.9000;0.0879;4.4284;
931.2000;0.0863;4.4308;
931.5000;0.0879;4.4357;
931.8000;0.0871;4.4308;
932.1000;0.0904;4.4333;
932.4000;0.0855;4.4186;
932.7000;0.0879;4.4259;
933.0000;0.0871;4.4210;
933.3000;0.0822;4.4112;
933.6000;0.0806;4.4039;
933.9000;0.0871;4.4235;
934.2000;0.0887;4.4333;
934.5000;0.0879;4.4235;
934.8000;0.0847;4.4088;
935.1000;0.0904;4.4186;
935.4000;0.0952;4.4333;
935.7000;0.0855;4.4161;
936.0000;0.0863;4.4210;
936.3000;0.0912;4.4259;
936.6000;0.0887;4.4308;
936.9000;0.0879;4.4210;
937.2000;0.1042;4.4553;
937.5000;0.0887;4.4161;
937.8000;0.0912;4.4186;
938.1000;0.0830;4.3990;
938.4000;0.0871;4.4112;
938.7000;0.0847;4.4112;
939.0000;0.0895;4.4235;
939.3000;0.0887;4.4088;
939.6000;0.0814;4.4015;
939.9000;0.0863;4.4137;
940.2000;0.0855;4.4284;
940.5000;0.0871;4.4235;
940.8000;0.0879;4.4284;
941.1000;0.0887;4.4259;
941.4000;0.0871;4.4137;
941.7000;0.0895;4.4137;
942.0000;0.0871;4.4088;
942.3000;0.0847;4.4088;
942.6000;0.0871;4.4088;
942.9000;0.0871;4.4161;
943.2000;0.0887;4.4186;
943.5000;0.0847;4.4088;
943.8000;0.0855;4.4112;
944.1000;0.0879;4.4235;
944.4000;0.0895;4.4284;
944.7000;0.0879;4.4210;
945.0000;0.0887;4.4284;
945.3000;0.0879;4.4235;
945.6000;0.0798;4.3990;
945.9000;0.0863;4.4088;
946.2000;0.0879;4.4112;
946.5000;0.0830;4.4088;
946.8000;0.0887;4.4161;
947.1000;0.0887;4.4186;
947.4000;0.0895;4.4161;
947.7000;0.0863;4.4112;
948.0000;0.0887;4.4186;
948.3000;0.0944;4.4357;
948.6000;0.0871;4.4161;
948.9000;0.0887;4.4186;
949.2000;0.0920;4.4210;
949.5000;0.0887;4.4210;
949.8000;0.0863;4.4161;
950.1000;0.0847;4.4137;
950.4000;0.0863;4.4210;
950.7000;0.0741;4.3819;
951.0000;0.0879;4.4186;
951.3000;0.0879;4.4137;
951.6000;0.0871;4.4039;
951.9000;0.0871;4.4064;
952.2000;0.0757;4.3819;
952.5000;0.0887;4.4210;
952.8000;0.0830;4.4088;
953.1000;0.0863;4.4161;
953.4000;0.0887;4.4112;
953.7000;0.0863;4.4112;
954.0000;0.0952;4.4357;
954.3000;0.0847;4.4039;
954.6000;0.0863;4.4088;
954.9000;0.0847;4.3966;
955.2000;0.0855;4.3941;
955.5000;0.0863;4.3941;
955.8000;0.0928;4.4235;
956.1000;0.0904;4.4210;
956.4000;0.0887;4.4064;
956.7000;0.0879;4.4039;
957.0000;0.0855;4.3868;
957.3000;0.0847;4.3917;
957.6000;0.0814;4.3721;
957.9000;0.0879;4.3941;
958.2000;0.0887;4.4039;
958.5000;0.0879;4.3990;
958.8000;0.0838;4.3966;
959.1000;0.0961;4.4284;
959.4000;0.0887;4.4112;
959.7000;0.0887;4.4210;
960.0000;0.0838;4.4088;
960.3000;0.0879;4.4284;
960.6000;0.0887;4.4284;
960.9000;0.0879;4.4284;
961.2000;0.0879;4.4308;
961.5000;0.0871;4.4284;
961.8000;0.0879;4.4235;
962.1000;0.0887;4.4161;
962.4000;0.0871;4.4137;
962.7000;0.0822;4.4161;
963.0000;0.0741;4.3892;
963.3000;0.0871;4.4210;
963.6000;0.0847;4.4112;
963.9000;0.0871;4.4161;
964.2000;0.0838;4.4210;
964.5000;0.0871;4.4186;
964.8000;0.0920;4.4259;
965.1000;0.0895;4.4137;
965.4000;0.0904;4.4210;
965.7000;0.0895;4.4161;
966.0000;0.0895;4.4235;
966.3000;0.0912;4.4284;
966.6000;0.0806;4.4088;
966.9000;0.0871;4.4161;
967.2000;0.0863;4.4039;
967.5000;0.0895;4.4064;
967.8000;0.0871;4.4015;
968.1000;0.0863;4.4015;
968.4000;0.0871;4.3966;
968.7000;0.0855;4.3966;
969.0000;0.0830;4.3819;
969.3000;0.0863;4.3892;
969.6000;0.0879;4.3990;
969.9000;0.0871;4.4015;
970.2000;0.0887;4.4039;
970.5000;0.0855;4.4039;
970.8000;0.0895;4.4088;
971.1000;0.0887;4.3990;
971.4000;0.0863;4.3917;
971.7000;0.0838;4.3868;
972.0000;0.0944;4.4210;
972.3000;0.0879;4.3966;
972.6000;0.0830;4.3941;
972.9000;0.0879;4.4161;
973.2000;0.0944;4.4455;
973.5000;0.0887;4.4235;
973.8000;0.0822;4.4039;
974.1000;0.0879;4.4137;
974.4000;0.0863;4.4088;
974.7000;0.0879;4.4186;
975.0000;0.0879;4.4259;
975.3000;0.0952;4.4528;
975.6000;0.0904;4.4333;
975.9000;0.0863;4.4284;
976.2000;0.0920;4.4406;
976.5000;0.0863;4.4235;
976.8000;0.0871;4.4259;
977.1000;0.0863;4.4235;
977.4000;0.0871;4.4210;
977.7000;0.0871;4.4210;
978.0000;0.0863;4.4259;
978.3000;0.0863;4.4259;
978.6000;0.0895;4.4308;
978.9000;0.0871;4.4284;
979.2000;0.0838;4.4112;
979.5000;0.0838;4.4064;
979.8000;0.0871;4.4112;
980.1000;0.0879;4.4137;
980.4000;0.0895;4.4112;
980.7000;0.0855;4.3990;
981.0000;0.0855;4.4112;
981.3000;0.0879;4.4235;
981.6000;0.0895;4.4284;
981.9000;0.0838;4.4308;
982.2000;0.0871;4.4406;
982.5000;0.0781;4.4161;
982.8000;0.0847;4.4406;
983.1000;0.0855;4.4381;
983.4000;0.0887;4.4504;
983.7000;0.0847;4.4455;
984.0000;0.0879;4.4455;
984.3000;0.0871;4.4381;
984.6000;0.0863;4.4381;
984.9000;0.0863;4.4406;
985.2000;0.0855;4.4333;
985.5000;0.0887;4.4430;
985.8000;0.0904;4.4381;
986.1000;0.0895;4.4381;
986.4000;0.0879;4.4333;
986.7000;0.0879;4.4333;
987.0000;0.0887;4.4406;
987.3000;0.0863;4.4406;
987.6000;0.0838;4.4308;
987.9000;0.0871;4.4381;
988.2000;0.0855;4.4284;
988.5000;0.0879;4.4308;
988.8000;0.0871;4.4259;
989.1000;0.0887;4.4259;
989.4000;0.0838;4.4210;
989.7000;0.0887;4.4430;
990.0000;0.0871;4.4357;
990.3000;0.0879;4.4308;
990.6000;0.0847;4.4308;
990.9000;0.0895;4.4430;
991.2000;0.0895;4.4381;
991.5000;0.0920;4.4479;
991.8000;0.0879;4.4333;
992.1000;0.0912;4.4381;
992.4000;0.0724;4.3819;
992.7000;0.0855;4.4137;
993.0000;0.0863;4.4112;
993.3000;0.0855;4.4186;
993.6000;0.0863;4.4186;
993.9000;0.0952;4.4504;
994.2000;0.0904;4.4308;
994.5000;0.0822;4.4137;
994.8000;0.0879;4.4308;
995.1000;0.0822;4.4186;
995.4000;0.0961;4.4577;
995.7000;0.0904;4.4455;
996.0000;0.0847;4.4186;
996.3000;0.0912;4.4357;
996.6000;0.0790;4.4015;
996.9000;0.0879;4.4333;
997.2000;0.0830;4.4137;
997.5000;0.0895;4.4333;
997.8000;0.0871;4.4333;
998.1000;0.0879;4.4357;
998.4000;0.0830;4.4186;
998.7000;0.0855;4.4186;
999.0000;0.0814;4.4064;
999.3000;0.0855;4.4210;
999.6000;0.0920;4.4357;
999.9000;0.0838;4.4137;
1000.2000;0.0928;4.4308;
1000.5000;0.0887;4.4088;
1000.8000;0.0887;4.4112;
1001.1000;0.0879;4.4161;
1001.4000;0.0895;4.4161;
1001.7000;0.0936;4.4308;
1002.0000;0.0952;4.4357;
1002.3000;0.0863;4.4064;
1002.6000;0.0895;4.4161;
1002.9000;0.0887;4.4112;
1003.2000;0.0863;4.4015;
1003.5000;0.0871;4.4064;
1003.8000;0.0847;4.3990;
1004.1000;0.0838;4.4039;
1004.4000;0.0895;4.4186;
1004.7000;0.0871;4.4112;
1005.0000;0.0895;4.4235;
1005.3000;0.0904;4.4210;
1005.6000;0.0879;4.4210;
1005.9000;0.0887;4.4161;
1006.2000;0.0863;4.4112;
1006.5000;0.0879;4.4186;
1006.8000;0.1018;4.4455;
1007.1000;0.0879;4.4186;
1007.4000;0.0863;4.4137;
1007.7000;0.0863;4.4137;
1008.0000;0.0871;4.4088;
1008.3000;0.0855;4.4015;
1008.6000;0.0855;4.4112;
1008.9000;0.0871;4.4186;
1009.2000;0.0863;4.4137;
1009.5000;0.0887;4.4137;
1009.8000;0.0855;4.4039;
1010.1000;0.0863;4.4015;
1010.4000;0.0912;4.4064;
1010.7000;0.0863;4.4015;
1011.0000;0.0871;4.4112;
1011.3000;0.0879;4.4064;
1011.6000;0.0830;4.3917;
1011.9000;0.0863;4.4039;
1012.2000;0.0887;4.4088;
1012.5000;0.0912;4.4088;
1012.8000;0.0863;4.4064;
1013.1000;0.0838;4.3966;
1013.4000;0.0741;4.3697;
1013.7000;0.0879;4.3941;
1014.0000;0.0863;4.3941;
1014.3000;0.0847;4.3941;
1014.6000;0.0830;4.3941;
1014.9000;0.0928;4.4161;
1015.2000;0.0904;4.4210;
1015.5000;0.0879;4.4235;
1015.8000;0.0871;4.4161;
1016.1000;0.0871;4.4161;
1016.4000;0.0871;4.4235;
1016.7000;0.0887;4.4137;
1017.0000;0.0838;4.4015;
1017.3000;0.0830;4.3941;
1017.6000;0.0838;4.4039;
1017.9000;0.0879;4.4088;
1018.2000;0.0863;4.4039;
1018.5000;0.0863;4.3990;
1018.8000;0.0879;4.4039;
1019.1000;0.0838;4.3917;
1019.4000;0.0879;4.4039;
1019.7000;0.0790;4.3819;
1020.0000;0.0871;4.4064;
1020.3000;0.0708;4.3746;
1020.6000;0.0871;4.4112;
1020.9000;0.0838;4.3966;
1021.2000;0.0871;4.4112;
1021.5000;0.0855;4.4064;
1021.8000;0.0871;4.4064;
1022.1000;0.0863;4.3990;
1022.4000;0.0879;4.4015;
1022.7000;0.0855;4.3966;
1023.0000;0.0887;4.4088;
1023.3000;0.0871;4.4137;
1023.6000;0.0920;4.4235;
1023.9000;0.0847;4.4112;
1024.2000;0.0806;4.4088;
1024.5000;0.0887;4.4259;
1024.8000;0.0855;4.4161;
1025.1000;0.0887;4.4259;
1025.4000;0.0863;4.4210;
1025.7000;0.0879;4.4357;
1026.0000;0.1050;4.4822;
1026.3000;0.0855;4.4259;
1026.6000;0.0871;4.4235;
1026.9000;0.0879;4.4235;
1027.2000;0.0879;4.4259;
1027.5000;0.0879;4.4161;
1027.8000;0.0847;4.4235;
1028.1000;0.0871;4.4284;
1028.4000;0.0912;4.4479;
1028.7000;0.0863;4.4235;
1029.0000;0.0879;4.4235;
1029.3000;0.0871;4.4137;
1029.6000;0.0855;4.4137;
1029.9000;0.0863;4.4235;
1030.2000;0.0944;4.4406;
1030.5000;0.0741;4.3868;
1030.8000;0.0912;4.4284;
1031.1000;0.0879;4.4161;
1031.4000;0.0847;4.4112;
1031.7000;0.0871;4.4284;
1032.0000;0.0863;4.4235;
1032.3000;0.0838;4.4112;
1032.6000;0.0855;4.4112;
1032.9000;0.0855;4.4088;
1033.2000;0.0895;4.4186;
1033.5000;0.0830;4.4161;
1033.8000;0.0838;4.4137;
1034.1000;0.0871;4.4137;
1034.4000;0.0822;4.4064;
1034.7000;0.0757;4.3795;
1035.0000;0.0887;4.4137;
1035.3000;0.0887;4.4137;
1035.6000;0.0806;4.3917;
1035.9000;0.0895;4.4137;
1036.2000;0.0863;4.4064;
1036.5000;0.0944;4.4308;
1036.8000;0.0879;4.4064;
1037.1000;0.0887;4.4039;
1037.4000;0.1009;4.4357;
1037.7000;0.0871;4.3868;
1038.0000;0.0871;4.3868;
1038.3000;0.0887;4.3770;
1038.6000;0.0871;4.3697;
1038.9000;0.0985;4.4137;
1039.2000;0.0871;4.3966;
1039.5000;0.0838;4.3892;
1039.8000;0.0863;4.3941;
1040.1000;0.0928;4.4112;
1040.4000;0.0879;4.4015;
1040.7000;0.0847;4.3941;
1041.0000;0.0895;4.4161;
1041.3000;0.0871;4.4039;
1041.6000;0.0887;4.4039;
1041.9000;0.0871;4.4015;
1042.2000;0.0855;4.3966;
1042.5000;0.0855;4.4039;
1042.8000;0.0863;4.4064;
1043.1000;0.0863;4.4064;
1043.4000;0.0847;4.4088;
1043.7000;0.0863;4.4161;
1044.0000;0.0847;4.4161;
1044.3000;0.0855;4.4137;
1044.6000;0.0879;4.4137;
1044.9000;0.0863;4.4064;
1045.2000;0.0887;4.4112;
1045.5000;0.0847;4.3990;
1045.8000;0.0879;4.4015;
1046.1000;0.0814;4.3770;
1046.4000;0.0855;4.3819;
1046.7000;0.0863;4.3892;
1047.0000;0.0887;4.3990;
1047.3000;0.0887;4.4088;
1047.6000;0.0855;4.4064;
1047.9000;0.0871;4.4161;
1048.2000;0.0855;4.4186;
1048.5000;0.0855;4.4210;
1048.8000;0.0871;4.4259;
1049.1000;0.0863;4.4357;
1049.4000;0.0838;4.4406;
1049.7000;0.0871;4.4381;
1050.0000;0.0879;4.4357;
1050.3000;0.0887;4.4357;
1050.6000;0.0863;4.4186;
1050.9000;0.0847;4.4137;
1051.2000;0.0871;4.4210;
1051.5000;0.0887;4.4284;
1051.8000;0.0871;4.4210;
1052.1000;0.0822;4.4064;
1052.4000;0.0724;4.3770;
1052.7000;0.0912;4.4161;
1053.0000;0.0863;4.4039;
1053.3000;0.0952;4.4357;
1053.6000;0.0855;4.4064;
1053.9000;0.0871;4.4137;
1054.2000;0.0961;4.4504;
1054.5000;0.0847;4.4161;
1054.8000;0.0855;4.4186;
1055.1000;0.0879;4.4235;
1055.4000;0.0887;4.4235;
1055.7000;0.0904;4.4259;
1056.0000;0.0838;4.4137;
1056.3000;0.0855;4.4161;
1056.6000;0.0806;4.4039;
1056.9000;0.0855;4.4259;
1057.2000;0.0904;4.4455;
1057.5000;0.0895;4.4406;
1057.8000;0.0879;4.4308;
1058.1000;0.0838;4.4235;
1058.4000;0.0895;4.4381;
1058.7000;0.0871;4.4333;
1059.0000;0.0830;4.4308;
1059.3000;0.0847;4.4333;
1059.6000;0.0863;4.4430;
1059.9000;0.0879;4.4430;
1060.2000;0.0822;4.4381;
1060.5000;0.0895;4.4553;
1060.8000;0.0847;4.4357;
1061.1000;0.0871;4.4381;
1061.4000;0.1050;4.4870;
1061.7000;0.0879;4.4381;
1062.0000;0.0920;4.4626;
1062.3000;0.0895;4.4577;
1062.6000;0.0838;4.4357;
1062.9000;0.0887;4.4504;
1063.2000;0.0814;4.4381;
1063.5000;0.0871;4.4381;
1063.8000;0.0871;4.4333;
1064.1000;0.0871;4.4357;
1064.4000;0.1018;4.4748;
1064.7000;0.0855;4.4259;
1065.0000;0.0879;4.4259;
1065.3000;0.0871;4.4259;
1065.6000;0.0863;4.4308;
1065.9000;0.0871;4.4333;
1066.2000;0.0879;4.4357;
1066.5000;0.0993;4.4626;
1066.8000;0.0879;4.4357;
1067.1000;0.0879;4.4333;
1067.4000;0.0863;4.4406;
1067.7000;0.0855;4.4357;
1068.0000;0.0814;4.4259;
1068.3000;0.0847;4.4333;
1068.6000;0.0871;4.4381;
1068.9000;0.0879;4.4406;
1069.2000;0.0765;4.3990;
1069.5000;0.0855;4.4088;
1069.8000;0.0871;4.4137;
1070.1000;0.0871;4.4039;
1070.4000;0.0879;4.4064;
1070.7000;0.0895;4.3941;
1071.0000;0.0871;4.3941;
1071.3000;0.0822;4.3917;
1071.6000;0.0847;4.4039;
1071.9000;0.0855;4.4088;
1072.2000;0.0879;4.4137;
1072.5000;0.0912;4.4333;
1072.8000;0.0961;4.4528;
1073.1000;0.0822;4.4161;
1073.4000;0.0838;4.4137;
1073.7000;0.0879;4.4210;
1074.0000;0.0887;4.4308;
1074.3000;0.0895;4.4406;
1074.6000;0.0863;4.4186;
1074.9000;0.0855;4.4161;
1075.2000;0.0814;4.4039;
1075.5000;0.0798;4.3966;
1075.8000;0.0806;4.3966;
1076.1000;0.0879;4.4161;
1076.4000;0.0871;4.4186;
1076.7000;0.0879;4.4161;
1077.0000;0.0847;4.4161;
1077.3000;0.0904;4.4381;
1077.6000;0.0879;4.4235;
1077.9000;0.0879;4.4284;
1078.2000;0.0863;4.4259;
1078.5000;0.0822;4.4064;
1078.8000;0.0904;4.4333;
1079.1000;0.0855;4.4259;
1079.4000;0.0855;4.4259;
1079.7000;0.0871;4.4259;
1080.0000;0.0855;4.4161;
1080.3000;0.0863;4.4235;
1080.6000;0.0806;4.4137;
1080.9000;0.0863;4.4284;
1081.2000;0.0847;4.4235;
1081.5000;0.0781;4.3892;
1081.8000;0.0847;4.4088;
1082.1000;0.0879;4.4064;
1082.4000;0.0904;4.4112;
1082.7000;0.0895;4.4088;
1083.0000;0.0847;4.4015;
1083.3000;0.0847;4.4015;
1083.6000;0.0830;4.3990;
1083.9000;0.0863;4.4064;
1084.2000;0.0895;4.4235;
1084.5000;0.0855;4.4137;
1084.8000;0.0879;4.4259;
1085.1000;0.0855;4.4210;
1085.4000;0.0871;4.4259;
1085.7000;0.0879;4.4210;
1086.0000;0.0871;4.4308;
1086.3000;0.0879;4.4406;
1086.6000;0.0806;4.4112;
1086.9000;0.0863;4.4284;
1087.2000;0.0871;4.4308;
1087.5000;0.0863;4.4284;
1087.8000;0.0879;4.4235;
1088.1000;0.0871;4.4235;
1088.4000;0.0912;4.4381;
1088.7000;0.0855;4.4259;
1089.0000;0.0920;4.4430;
1089.3000;0.0871;4.4308;
1089.6000;0.0993;4.4650;
1089.9000;0.0879;4.4210;
1090.2000;0.0912;4.4333;
1090.5000;0.0863;4.4210;
1090.8000;0.0887;4.4381;
1091.1000;0.0928;4.4308;
1091.4000;0.0879;4.4161;
1091.7000;0.0944;4.4357;
1092.0000;0.0838;4.3990;
1092.3000;0.0871;4.4039;
1092.6000;0.0879;4.4064;
1092.9000;0.0895;4.4137;
1093.2000;0.0879;4.4088;
1093.5000;0.0855;4.4039;
1093.8000;0.0904;4.4161;
1094.1000;0.0904;4.4161;
1094.4000;0.0912;4.4235;
1094.7000;0.0838;4.4064;
1095.0000;0.0887;4.4186;
1095.3000;0.0855;4.4039;
1095.6000;0.0895;4.4186;
1095.9000;0.0977;4.4381;
1096.2000;0.0887;4.4112;
1096.5000;0.0879;4.4137;
1096.8000;0.0757;4.3917;
1097.1000;0.0871;4.4186;
1097.4000;0.0912;4.4259;
1097.7000;0.0863;4.4210;
1098.0000;0.0887;4.4235;
1098.3000;0.0863;4.4186;
1098.6000;0.0855;4.4088;
1098.9000;0.0863;4.4112;
1099.2000;0.0871;4.4112;
1099.5000;0.0847;4.4161;
1099.8000;0.0879;4.4284;
1100.1000;0.0904;4.4308;
1100.4000;0.0879;4.4210;
1100.7000;0.0912;4.4333;
1101.0000;0.0879;4.4308;
1101.3000;0.0912;4.4430;
1101.6000;0.0830;4.4235;
1101.9000;0.0952;4.4528;
1102.2000;0.0895;4.4308;
1102.5000;0.0871;4.4186;
1102.8000;0.0887;4.4210;
1103.1000;0.0855;4.4064;
1103.4000;0.0855;4.4015;
1103.7000;0.0847;4.4064;
1104.0000;0.0863;4.4137;
1104.3000;0.0855;4.4210;
1104.6000;0.0847;4.4186;
1104.9000;0.0847;4.4137;
1105.2000;0.0871;4.4161;
1105.5000;0.0855;4.4161;
1105.8000;0.0895;4.4284;
1106.1000;0.0912;4.4284;
1106.4000;0.0887;4.4235;
1106.7000;0.0895;4.4210;
1107.0000;0.0879;4.4235;
1107.3000;0.0863;4.4284;
1107.6000;0.0879;4.4381;
1107.9000;0.0887;4.4381;
1108.2000;0.0895;4.4455;
1108.5000;0.0871;4.4479;
1108.8000;0.0863;4.4357;
1109.1000;0.0920;4.4553;
1109.4000;0.0871;4.4406;
1109.7000;0.0871;4.4333;
1110.0000;0.0887;4.4357;
1110.3000;0.0871;4.4210;
1110.6000;0.0749;4.3917;
1110.9000;0.0830;4.4235;
1111.2000;0.0871;4.4210;
1111.5000;0.0863;4.4210;
1111.8000;0.0944;4.4406;
1112.1000;0.0773;4.3892;
1112.4000;0.0847;4.4039;
1112.7000;0.0879;4.4088;
1113.0000;0.0887;4.4088;
1113.3000;0.0887;4.4186;
1113.6000;0.0879;4.4161;
1113.9000;0.0855;4.4039;
1114.2000;0.0912;4.4186;
1114.5000;0.0871;4.4112;
1114.8000;0.0855;4.4137;
1115.1000;0.0879;4.4137;
1115.4000;0.0863;4.4112;
1115.7000;0.0936;4.4357;
1116.0000;0.0887;4.4235;
1116.3000;0.0879;4.4308;
1116.6000;0.0871;4.4259;
1116.9000;0.0879;4.4088;
1117.2000;0.0887;4.4161;
1117.5000;0.0847;4.4015;
1117.8000;0.0855;4.4112;
1118.1000;0.0838;4.4235;
1118.4000;0.0781;4.4088;
1118.7000;0.0863;4.4284;
1119.0000;0.0855;4.4259;
1119.3000;0.0855;4.4186;
1119.6000;0.0855;4.4112;
1119.9000;0.0871;4.4064;
1120.2000;0.0855;4.4015;
1120.5000;0.0871;4.4088;
1120.8000;0.0814;4.3966;
1121.1000;0.0871;4.4235;
1121.4000;0.0879;4.4381;
1121.7000;0.0855;4.4284;
1122.0000;0.0871;4.4308;
1122.3000;0.0822;4.4161;
1122.6000;0.0871;4.4284;
1122.9000;0.0895;4.4381;
1123.2000;0.0863;4.4259;
1123.5000;0.0863;4.4259;
1123.8000;0.0887;4.4308;
1124.1000;0.0863;4.4259;
1124.4000;0.0879;4.4186;
1124.7000;0.0855;4.4064;
1125.0000;0.0920;4.4186;
1125.3000;0.0879;4.4088;
1125.6000;0.0887;4.4137;
1125.9000;0.0895;4.4186;
1126.2000;0.0879;4.4088;
1126.5000;0.0838;4.4039;
1126.8000;0.0871;4.4161;
1127.1000;0.0863;4.4186;
1127.4000;0.0822;4.4186;
1127.7000;0.0887;4.4308;
1128.0000;0.0855;4.4137;
1128.3000;0.0879;4.4235;
1128.6000;0.0879;4.4161;
1128.9000;0.0871;4.4137;
1129.2000;0.0871;4.4235;
1129.5000;0.0863;4.4284;
1129.8000;0.0887;4.4308;
1130.1000;0.0879;4.4333;
1130.4000;0.0847;4.4308;
1130.7000;0.0912;4.4406;
1131.0000;0.0863;4.4210;
1131.3000;0.0879;4.4284;
1131.6000;0.0879;4.4308;
1131.9000;0.0879;4.4259;
1132.2000;0.0879;4.4235;
1132.5000;0.0863;4.4186;
1132.8000;0.0871;4.4186;
1133.1000;0.0863;4.4186;
1133.4000;0.0847;4.4088;
1133.7000;0.0871;4.4186;
1134.0000;0.0855;4.4186;
1134.3000;0.0855;4.4161;
1134.6000;0.0871;4.4088;
1134.9000;0.0814;4.3966;
1135.2000;0.0871;4.4210;
1135.5000;0.0847;4.4235;
1135.8000;0.0863;4.4381;
1136.1000;0.0863;4.4430;
1136.4000;0.0904;4.4528;
1136.7000;0.0871;4.4308;
1137.0000;0.0798;4.4112;
1137.3000;0.0887;4.4406;
1137.6000;0.0863;4.4333;
1137.9000;0.0879;4.4406;
1138.2000;0.0912;4.4406;
1138.5000;0.0928;4.4504;
1138.8000;0.0895;4.4357;
1139.1000;0.0855;4.4284;
1139.4000;0.0855;4.4235;
1139.7000;0.0879;4.4308;
1140.0000;0.0895;4.4235;
1140.3000;0.0863;4.4161;
1140.6000;0.0871;4.4259;
1140.9000;0.0871;4.4308;
1141.2000;0.0879;4.4333;
1141.5000;0.0871;4.4235;
1141.8000;0.0887;4.4381;
1142.1000;0.0847;4.4308;
1142.4000;0.0895;4.4406;
1142.7000;0.0847;4.4259;
1143.0000;0.0879;4.4333;
1143.3000;0.0879;4.4308;
1143.6000;0.0879;4.4308;
1143.9000;0.0904;4.4357;
1144.2000;0.0879;4.4333;
1144.5000;0.0879;4.4259;
1144.8000;0.0887;4.4284;
1145.1000;0.0879;4.4308;
1145.4000;0.0855;4.4235;
1145.7000;0.0879;4.4357;
1146.0000;0.0863;4.4259;
1146.3000;0.0887;4.4186;
1146.6000;0.0855;4.4112;
1146.9000;0.0847;4.4112;
1147.2000;0.0871;4.4112;
1147.5000;0.0855;4.3990;
1147.8000;0.0871;4.4039;
1148.1000;0.0863;4.4064;
1148.4000;0.0904;4.4284;
1148.7000;0.0855;4.4210;
1149.0000;0.0863;4.4235;
1149.3000;0.0871;4.4137;
1149.6000;0.0847;4.4064;
1149.9000;0.0830;4.4112;
1150.2000;0.0871;4.4186;
1150.5000;0.0944;4.4455;
1150.8000;0.0879;4.4235;
1151.1000;0.0855;4.4161;
1151.4000;0.0879;4.4210;
1151.7000;0.0871;4.4210;
1152.0000;0.0863;4.4088;
1152.3000;0.0749;4.3941;
1152.6000;0.0847;4.4137;
1152.9000;0.0871;4.4210;
1153.2000;0.0871;4.4186;
1153.5000;0.0928;4.4406;
1153.8000;0.0879;4.4284;
1154.1000;0.0993;4.4553;
1154.4000;0.0855;4.4210;
1154.7000;0.0855;4.4235;
1155.0000;0.0879;4.4308;
1155.3000;0.0847;4.4308;
1155.6000;0.0887;4.4284;
1155.9000;0.0871;4.4259;
1156.2000;0.0871;4.4308;
1156.5000;0.0887;4.4235;
1156.8000;0.0879;4.4284;
1157.1000;0.0879;4.4210;
1157.4000;0.0871;4.4210;
1157.7000;0.0871;4.4235;
1158.0000;0.0871;4.4161;
1158.3000;0.0879;4.4137;
1158.6000;0.0871;4.4137;
1158.9000;0.0879;4.4088;
1159.2000;0.0879;4.4088;
1159.5000;0.0871;4.4039;
1159.8000;0.0863;4.4039;
1160.1000;0.0830;4.3917;
1160.4000;0.0879;4.4186;
1160.7000;0.0904;4.4284;
1161.0000;0.0887;4.4235;
1161.3000;0.0879;4.4112;
1161.6000;0.0895;4.4186;
1161.9000;0.0879;4.4088;
1162.2000;0.0928;4.4284;
1162.5000;0.0895;4.4161;
1162.8000;0.0733;4.3819;
1163.1000;0.0855;4.4137;
1163.4000;0.0887;4.4259;
1163.7000;0.0863;4.4308;
1164.0000;0.0855;4.4308;
1164.3000;0.0871;4.4235;
1164.6000;0.0879;4.4210;
1164.9000;0.0863;4.4186;
1165.2000;0.0871;4.4186;
1165.5000;0.0887;4.4210;
1165.8000;0.0887;4.4210;
1166.1000;0.0814;4.4088;
1166.4000;0.0887;4.4235;
1166.7000;0.0879;4.4161;
1167.0000;0.0855;4.4064;
1167.3000;0.0814;4.3990;
1167.6000;0.0871;4.4210;
1167.9000;0.0871;4.4186;
1168.2000;0.0879;4.4235;
1168.5000;0.0904;4.4284;
1168.8000;0.0863;4.4210;
1169.1000;0.0879;4.4161;
1169.4000;0.0871;4.4039;
1169.7000;0.0863;4.3941;
1170.0000;0.0855;4.3966;
1170.3000;0.0879;4.4039;
1170.6000;0.0838;4.4064;
1170.9000;0.0871;4.4161;
1171.2000;0.0855;4.4186;
1171.5000;0.0904;4.4381;
1171.8000;0.0879;4.4357;
1172.1000;0.0879;4.4406;
1172.4000;0.0895;4.4430;
1172.7000;0.0871;4.4308;
1173.0000;0.0863;4.4284;
1173.3000;0.0830;4.4235;
1173.6000;0.0814;4.4235;
1173.9000;0.0871;4.4333;
1174.2000;0.0838;4.4259;
1174.5000;0.0871;4.4284;
1174.8000;0.0871;4.4235;
1175.1000;0.0936;4.4528;
1175.4000;0.0879;4.4381;
1175.7000;0.0887;4.4381;
1176.0000;0.0887;4.4406;
1176.3000;0.0798;4.4161;
1176.6000;0.0790;4.4112;
1176.9000;0.0887;4.4357;
1177.2000;0.0879;4.4284;
1177.5000;0.0944;4.4406;
1177.8000;0.0936;4.4381;
1178.1000;0.0904;4.4284;
1178.4000;0.0936;4.4381;
1178.7000;0.0871;4.4186;
1179.0000;0.0847;4.4064;
1179.3000;0.0855;4.4112;
1179.6000;0.0855;4.4064;
1179.9000;0.0790;4.3917;
1180.2000;0.0863;4.3990;
1180.5000;0.0871;4.3990;
1180.8000;0.0855;4.4039;
1181.1000;0.0895;4.4186;
1181.4000;0.0871;4.4112;
1181.7000;0.0887;4.4137;
1182.0000;0.0814;4.3990;
1182.3000;0.0830;4.4088;
1182.6000;0.0863;4.4161;
1182.9000;0.0863;4.4186;
1183.2000;0.0806;4.3990;
1183.5000;0.0855;4.4064;
1183.8000;0.0895;4.4308;
1184.1000;0.0879;4.4161;
1184.4000;0.0895;4.4235;
1184.7000;0.0847;4.4112;
1185.0000;0.0871;4.4137;
1185.3000;0.0920;4.4284;
1185.6000;0.0912;4.4235;
1185.9000;0.0887;4.4112;
1186.2000;0.0822;4.3941;
1186.5000;0.0879;4.4161;
1186.8000;0.0904;4.4161;
1187.1000;0.0879;4.4088;
1187.4000;0.0879;4.4015;
1187.7000;0.0847;4.3941;
1188.0000;0.0887;4.4039;
1188.3000;0.0871;4.4064;
1188.6000;0.0879;4.4161;
1188.9000;0.0855;4.4015;
1189.2000;0.0879;4.4088;
1189.5000;0.0863;4.4015;
1189.8000;0.0887;4.4112;
1190.1000;0.0871;4.4210;
1190.4000;0.0847;4.4210;
1190.7000;0.0936;4.4504;
1191.0000;0.0855;4.4235;
1191.3000;0.0790;4.4137;
1191.6000;0.0887;4.4455;
1191.9000;0.0887;4.4333;
1192.2000;0.0887;4.4357;
1192.5000;0.0879;4.4284;
1192.8000;0.0855;4.4210;
1193.1000;0.0879;4.4357;
1193.4000;0.0895;4.4357;
1193.7000;0.0879;4.4259;
1194.0000;0.0863;4.4235;
1194.3000;0.0871;4.4284;
1194.6000;0.0871;4.4284;
1194.9000;0.0847;4.4235;
1195.2000;0.0887;4.4333;
1195.5000;0.0871;4.4259;
1195.8000;0.0863;4.4235;
1196.1000;0.0871;4.4186;
1196.4000;0.0879;4.4308;
1196.7000;0.0879;4.4308;
1197.0000;0.0855;4.4186;
1197.3000;0.0920;4.4308;
1197.6000;0.0863;4.4186;
1197.9000;0.0733;4.3795;
1198.2000;0.0904;4.4308;
1198.5000;0.0887;4.4161;
1198.8000;0.0871;4.4161;
1199.1000;0.0895;4.4235;
1199.4000;0.0814;4.4015;
1199.7000;0.0879;4.4161;
1200.0000;0.0847;4.4015;
1200.3000;0.0879;4.4064;
1200.6000;0.0904;4.4039;
1200.9000;0.0879;4.3941;
1201.2000;0.0904;4.3990;
1201.5000;0.0855;4.3941;
1201.8000;0.0912;4.4137;
1202.1000;0.0847;4.4015;
1202.4000;0.0838;4.3941;
1202.7000;0.0863;4.3917;
1203.0000;0.0879;4.3990;
1203.3000;0.0863;4.4039;
1203.6000;0.0879;4.4064;
1203.9000;0.0887;4.4161;
1204.2000;0.0871;4.4088;
1204.5000;0.0879;4.4186;
1204.8000;0.0814;4.3990;
1205.1000;0.0806;4.3990;
1205.4000;0.0879;4.4186;
1205.7000;0.0879;4.4210;
1206.0000;0.0733;4.3770;
1206.3000;0.0863;4.4039;
1206.6000;0.0871;4.4064;
1206.9000;0.0871;4.4015;
1207.2000;0.0863;4.4015;
1207.5000;0.0863;4.3990;
1207.8000;0.0863;4.4039;
1208.1000;0.0838;4.3990;
1208.4000;0.0863;4.4015;
1208.7000;0.0863;4.4088;
1209.0000;0.0863;4.4186;
1209.3000;0.0855;4.4137;
1209.6000;0.0871;4.4112;
1209.9000;0.0871;4.4112;
1210.2000;0.0879;4.4137;
1210.5000;0.0855;4.3990;
1210.8000;0.0830;4.3892;
1211.1000;0.0895;4.4161;
1211.4000;0.0895;4.4112;
1211.7000;0.0887;4.4064;
1212.0000;0.0904;4.4137;
1212.3000;0.0904;4.4186;
1212.6000;0.0863;4.4064;
1212.9000;0.0871;4.4015;
1213.2000;0.0855;4.3966;
1213.5000;0.0977;4.4406;
1213.8000;0.0871;4.4210;
1214.1000;0.0822;4.4015;
1214.4000;0.0855;4.4039;
1214.7000;0.0871;4.4088;
1215.0000;0.0895;4.4161;
1215.3000;0.0863;4.4112;
1215.6000;0.0830;4.4039;
1215.9000;0.0863;4.4137;
1216.2000;0.0871;4.4161;
1216.5000;0.0830;4.4039;
1216.8000;0.0895;4.4064;
1217.1000;0.0863;4.3990;
1217.4000;0.0863;4.4015;
1217.7000;0.0871;4.4088;
1218.0000;0.0855;4.4064;
1218.3000;0.0806;4.3966;
1218.6000;0.0887;4.4137;
1218.9000;0.0895;4.4161;
1219.2000;0.0871;4.4015;
1219.5000;0.0912;4.4161;
1219.8000;0.0879;4.4088;
1220.1000;0.0887;4.4137;
1220.4000;0.0879;4.4210;
1220.7000;0.0871;4.4259;
1221.0000;0.0904;4.4357;
1221.3000;0.0879;4.4259;
1221.6000;0.0830;4.4112;
1221.9000;0.0879;4.4235;
1222.2000;0.0887;4.4186;
1222.5000;0.0879;4.4137;
1222.8000;0.0847;4.4137;
1223.1000;0.0838;4.4112;
1223.4000;0.0814;4.4186;
1223.7000;0.0863;4.4210;
1224.0000;0.0863;4.4259;
1224.3000;0.0798;4.3941;
1224.6000;0.0855;4.4137;
1224.9000;0.0895;4.4137;
1225.2000;0.0863;4.4064;
1225.5000;0.0855;4.4112;
1225.8000;0.0887;4.4161;
1226.1000;0.0936;4.4333;
1226.4000;0.0895;4.4186;
1226.7000;0.0944;4.4357;
1227.0000;0.0879;4.4088;
1227.3000;0.0895;4.4161;
1227.6000;0.0855;4.4039;
1227.9000;0.0871;4.4112;
1228.2000;0.0871;4.4137;
1228.5000;0.0838;4.3990;
1228.8000;0.0895;4.4161;
1229.1000;0.0838;4.4161;
1229.4000;0.0912;4.4333;
1229.7000;0.0887;4.4235;
1230.0000;0.0879;4.4235;
1230.3000;0.0847;4.4112;
1230.6000;0.0871;4.4064;
1230.9000;0.0855;4.3966;
1231.2000;0.0724;4.3623;
1231.5000;0.0895;4.4088;
1231.8000;0.0855;4.3966;
1232.1000;0.0814;4.3795;
1232.4000;0.0879;4.4064;
1232.7000;0.0871;4.4088;
1233.0000;0.0912;4.4161;
1233.3000;0.0871;4.4088;
1233.6000;0.0863;4.3917;
1233.9000;0.0863;4.3917;
1234.2000;0.0871;4.3966;
1234.5000;0.0871;4.3966;
1234.8000;0.0847;4.3868;
1235.1000;0.0847;4.3868;
1235.4000;0.0863;4.3868;
1235.7000;0.0887;4.3966;
1236.0000;0.0871;4.4039;
1236.3000;0.0895;4.4137;
1236.6000;0.0871;4.4137;
1236.9000;0.0904;4.4112;
1237.2000;0.0871;4.4088;
1237.5000;0.0806;4.3990;
1237.8000;0.0863;4.4161;
1238.1000;0.0855;4.3990;
1238.4000;0.0904;4.3990;
1238.7000;0.0871;4.3917;
1239.0000;0.0887;4.3966;
1239.3000;0.0936;4.4064;
1239.6000;0.0830;4.3795;
1239.9000;0.0847;4.3892;
1240.2000;0.0855;4.3966;
1240.5000;0.0838;4.3892;
1240.8000;0.0879;4.3917;
1241.1000;0.0863;4.3966;
1241.4000;0.0830;4.3966;
1241.7000;0.0790;4.3819;
1242.0000;0.0879;4.3966;
1242.3000;0.0879;4.4015;
1242.6000;0.0855;4.3917;
1242.9000;0.0863;4.3917;
1243.2000;0.0879;4.3917;
1243.5000;0.0838;4.3843;
1243.8000;0.0879;4.4015;
1244.1000;0.0928;4.4088;
1244.4000;0.0871;4.3990;
1244.7000;0.0863;4.3966;
1245.0000;0.0904;4.4112;
1245.3000;0.0830;4.3990;
1245.6000;0.0904;4.4137;
1245.9000;0.0847;4.4015;
1246.2000;0.0887;4.3990;
1246.5000;0.0879;4.4015;
1246.8000;0.0855;4.3868;
1247.1000;0.0871;4.4015;
1247.4000;0.0847;4.3892;
1247.7000;0.0847;4.3892;
1248.0000;0.0855;4.3868;
1248.3000;0.0822;4.3868;
1248.6000;0.0944;4.4186;
1248.9000;0.0847;4.3917;
1249.2000;0.0879;4.4015;
1249.5000;0.0871;4.4015;
1249.8000;0.0871;4.3966;
1250.1000;0.0904;4.4039;
1250.4000;0.0855;4.3941;
1250.7000;0.0887;4.4015;
1251.0000;0.0887;4.4064;
1251.3000;0.0887;4.4137;
1251.6000;0.0838;4.3941;
1251.9000;0.0863;4.3990;
1252.2000;0.0855;4.4015;
1252.5000;0.0863;4.3917;
1252.8000;0.0871;4.3990;
1253.1000;0.0879;4.3966;
1253.4000;0.0879;4.3941;
1253.7000;0.0847;4.3770;
1254.0000;0.0871;4.3843;
1254.3000;0.0871;4.3843;
1254.6000;0.0879;4.3892;
1254.9000;0.0871;4.3892;
1255.2000;0.0969;4.4210;
1255.5000;0.0904;4.4015;
1255.8000;0.0904;4.3917;
1256.1000;0.0838;4.3770;
1256.4000;0.0855;4.3868;
1256.7000;0.0863;4.3917;
1257.0000;0.0863;4.3892;
1257.3000;0.0806;4.3770;
1257.6000;0.0887;4.3966;
1257.9000;0.0863;4.3868;
1258.2000;0.0936;4.4112;
1258.5000;0.0871;4.3917;
1258.8000;0.0855;4.3917;
1259.1000;0.0871;4.3941;
1259.4000;0.0847;4.3868;
1259.7000;0.0863;4.3819;
1260.0000;0.0855;4.3721;
1260.3000;0.0838;4.3623;
1260.6000;0.0855;4.3623;
1260.9000;0.0895;4.3770;
1261.2000;0.0855;4.3550;
1261.5000;0.0895;4.3697;
1261.8000;0.0887;4.3672;
1262.1000;0.0855;4.3648;
1262.4000;0.0822;4.3623;
1262.7000;0.0855;4.3721;
1263.0000;0.0863;4.3721;
1263.3000;0.0871;4.3746;
1263.6000;0.0887;4.3697;
1263.9000;0.0855;4.3550;
1264.2000;0.0879;4.3648;
1264.5000;0.0871;4.3648;
1264.8000;0.0879;4.3672;
1265.1000;0.0855;4.3795;
1265.4000;0.0847;4.3795;
1265.7000;0.0969;4.4161;
1266.0000;0.0855;4.3941;
1266.3000;0.0871;4.3966;
1266.6000;0.0806;4.3868;
1266.9000;0.0887;4.4137;
1267.2000;0.0847;4.3966;
1267.5000;0.0912;4.4088;
1267.8000;0.0838;4.3966;
1268.1000;0.0855;4.3990;
1268.4000;0.0871;4.3966;
1268.7000;0.0863;4.3892;
1269.0000;0.0855;4.3917;
1269.3000;0.0863;4.4039;
1269.6000;0.0895;4.4137;
1269.9000;0.0822;4.3868;
1270.2000;0.0847;4.3917;
1270.5000;0.0879;4.4015;
1270.8000;0.0863;4.3966;
1271.1000;0.0838;4.3892;
1271.4000;0.0847;4.3941;
1271.7000;0.0879;4.4015;
1272.0000;0.0855;4.3990;
1272.3000;0.0855;4.3966;
1272.6000;0.0879;4.4015;
1272.9000;0.0871;4.3966;
1273.2000;0.0863;4.3990;
1273.5000;0.0871;4.4015;
1273.8000;0.0879;4.4015;
1274.1000;0.0912;4.4039;
1274.4000;0.0895;4.3892;
1274.7000;0.0887;4.3892;
1275.0000;0.0806;4.3868;
1275.3000;0.0879;4.4064;
1275.6000;0.0847;4.3917;
1275.9000;0.0871;4.3990;
1276.2000;0.0863;4.3990;
1276.5000;0.0871;4.3990;
1276.8000;0.0879;4.4064;
1277.1000;0.0863;4.4112;
1277.4000;0.0871;4.4088;
1277.7000;0.0749;4.3795;
1278.0000;0.0887;4.4186;
1278.3000;0.0887;4.4112;
1278.6000;0.0838;4.3966;
1278.9000;0.0863;4.4112;
1279.2000;0.0855;4.4161;
1279.5000;0.0871;4.4137;
1279.8000;0.0879;4.4210;
1280.1000;0.0863;4.4186;
1280.4000;0.0847;4.4161;
1280.7000;0.0830;4.4112;
1281.0000;0.0871;4.4259;
1281.3000;0.0871;4.4284;
1281.6000;0.0887;4.4284;
1281.9000;0.0863;4.4186;
1282.2000;0.0895;4.4235;
1282.5000;0.0814;4.4039;
1282.8000;0.0863;4.4235;
1283.1000;0.0838;4.4137;
1283.4000;0.0920;4.4333;
1283.7000;0.0887;4.4137;
1284.0000;0.0863;4.4088;
1284.3000;0.0847;4.4064;
1284.6000;0.0863;4.4137;
1284.9000;0.0863;4.4088;
1285.2000;0.0887;4.4161;
1285.5000;0.0928;4.4186;
1285.8000;0.0895;4.4064;
1286.1000;0.0912;4.4186;
1286.4000;0.0847;4.4015;
1286.7000;0.0887;4.4039;
1287.0000;0.0838;4.3966;
1287.3000;0.0920;4.4186;
1287.6000;0.0879;4.3990;
1287.9000;0.0871;4.3966;
1288.2000;0.0863;4.4015;
1288.5000;0.0871;4.4137;
1288.8000;0.0855;4.4064;
1289.1000;0.0838;4.3990;
1289.4000;0.0879;4.4112;
1289.7000;0.0871;4.4161;
1290.0000;0.0895;4.4210;
1290.3000;0.0838;4.4064;
1290.6000;0.0887;4.4235;
1290.9000;0.0871;4.4210;
1291.2000;0.0863;4.4088;
1291.5000;0.0863;4.4112;
1291.8000;0.0879;4.4064;
1292.1000;0.0773;4.3623;
1292.4000;0.0871;4.3941;
1292.7000;0.0879;4.4015;
1293.0000;0.0871;4.3941;
1293.3000;0.0855;4.3917;
1293.6000;0.0879;4.4039;
1293.9000;0.0928;4.4235;
1294.2000;0.0887;4.4112;
1294.5000;0.0879;4.4137;
1294.8000;0.0863;4.4088;
1295.1000;0.0871;4.4161;
1295.4000;0.0838;4.4088;
1295.7000;0.0855;4.4064;
1296.0000;0.0847;4.4088;
1296.3000;0.0855;4.4064;
1296.6000;0.0863;4.4112;
1296.9000;0.0871;4.4112;
1297.2000;0.0879;4.4064;
1297.5000;0.0871;4.4137;
1297.8000;0.0895;4.4161;
1298.1000;0.0855;4.3941;
1298.4000;0.0871;4.3990;
1298.7000;0.0879;4.4015;
1299.0000;0.0676;4.3574;
1299.3000;0.0765;4.3819;
1299.6000;0.0895;4.4137;
1299.9000;0.0879;4.4088;
1300.2000;0.0855;4.3990;
1300.5000;0.0863;4.3941;
1300.8000;0.0895;4.3966;
1301.1000;0.0952;4.4210;
1301.4000;0.0871;4.4015;
1301.7000;0.0871;4.4015;
1302.0000;0.0912;4.4186;
1302.3000;0.0822;4.3966;
1302.6000;0.0863;4.4015;
1302.9000;0.0863;4.3990;
1303.2000;0.0887;4.3990;
1303.5000;0.0879;4.4015;
1303.8000;0.0871;4.3892;
1304.1000;0.0847;4.3868;
1304.4000;0.0863;4.3941;
1304.7000;0.0871;4.4064;
1305.0000;0.0863;4.4015;
1305.3000;0.0863;4.4039;
1305.6000;0.0871;4.4015;
1305.9000;0.0855;4.3941;
1306.2000;0.0904;4.4039;
1306.5000;0.0887;4.3941;
1306.8000;0.0863;4.3917;
1307.1000;0.0855;4.3941;
1307.4000;0.0912;4.4039;
1307.7000;0.0879;4.3892;
1308.0000;0.0838;4.3819;
1308.3000;0.0879;4.3990;
1308.6000;0.0871;4.3990;
1308.9000;0.0871;4.3990;
1309.2000;0.0887;4.4015;
1309.5000;0.0830;4.3892;
1309.8000;0.0912;4.4210;
1310.1000;0.0847;4.4112;
1310.4000;0.0879;4.4186;
1310.7000;0.0863;4.4137;
1311.0000;0.0855;4.4064;
1311.3000;0.0871;4.4137;
1311.6000;0.0969;4.4381;
1311.9000;0.0871;4.4088;
1312.2000;0.0871;4.3990;
1312.5000;0.0847;4.3892;
1312.8000;0.0871;4.3868;
1313.1000;0.0887;4.4015;
1313.4000;0.0871;4.3990;
1313.7000;0.0879;4.4039;
1314.0000;0.0944;4.4186;
1314.3000;0.0871;4.4015;
1314.6000;0.0847;4.4088;
1314.9000;0.0871;4.4186;
1315.2000;0.0879;4.4210;
1315.5000;0.0838;4.4161;
1315.8000;0.0863;4.4308;
1316.1000;0.0790;4.4064;
1316.4000;0.0814;4.4137;
1316.7000;0.0855;4.4186;
1317.0000;0.0863;4.4137;
1317.3000;0.0863;4.4039;
1317.6000;0.0830;4.3941;
1317.9000;0.0871;4.4088;
1318.2000;0.0822;4.3941;
1318.5000;0.0814;4.3941;
1318.8000;0.0863;4.4112;
1319.1000;0.0871;4.4210;
1319.4000;0.0879;4.4210;
1319.7000;0.0838;4.4015;
1320.0000;0.0879;4.4088;
1320.3000;0.0855;4.4064;
1320.6000;0.0847;4.4015;
1320.9000;0.0798;4.3843;
1321.2000;0.0847;4.4137;
1321.5000;0.0863;4.4112;
1321.8000;0.0895;4.4137;
1322.1000;0.0855;4.3990;
1322.4000;0.0855;4.4015;
1322.7000;0.0847;4.3941;
1323.0000;0.0920;4.4112;
1323.3000;0.0871;4.3990;
1323.6000;0.0855;4.3892;
1323.9000;0.0871;4.4015;
1324.2000;0.0879;4.4064;
1324.5000;0.0952;4.4210;
1324.8000;0.0838;4.3868;
1325.1000;0.0847;4.3941;
1325.4000;0.0871;4.3966;
1325.7000;0.0879;4.3941;
1326.0000;0.0879;4.3917;
1326.3000;0.0822;4.3697;
1326.6000;0.0895;4.3843;
1326.9000;0.0855;4.3721;
1327.2000;0.0912;4.3868;
1327.5000;0.0879;4.3795;
1327.8000;0.0863;4.3795;
1328.1000;0.0847;4.3746;
1328.4000;0.0863;4.3819;
1328.7000;0.0838;4.3819;
1329.0000;0.0871;4.3917;
1329.3000;0.0838;4.3697;
1329.6000;0.0855;4.3721;
1329.9000;0.0879;4.3721;
1330.2000;0.0871;4.3721;
1330.5000;0.0855;4.3795;
1330.8000;0.0879;4.3892;
1331.1000;0.0838;4.3941;
1331.4000;0.0871;4.4039;
1331.7000;0.0871;4.4161;
1332.0000;0.0887;4.4284;
1332.3000;0.0887;4.4333;
1332.6000;0.0871;4.4161;
1332.9000;0.0871;4.4137;
1333.2000;0.0895;4.4210;
1333.5000;0.0944;4.4455;
1333.8000;0.0863;4.4186;
1334.1000;0.0847;4.4064;
1334.4000;0.0904;4.4284;
1334.7000;0.0855;4.4137;
1335.0000;0.0855;4.4137;
1335.3000;0.0895;4.4161;
1335.6000;0.0814;4.3843;
1335.9000;0.0887;4.4210;
1336.2000;0.0855;4.4039;
1336.5000;0.0887;4.4039;
1336.8000;0.0871;4.4064;
1337.1000;0.0887;4.4039;
1337.4000;0.0904;4.4137;
1337.7000;0.0871;4.4186;
1338.0000;0.0879;4.4235;
1338.3000;0.0879;4.4210;
1338.6000;0.0822;4.4015;
1338.9000;0.0887;4.4137;
1339.2000;0.0895;4.4186;
1339.5000;0.0814;4.3966;
1339.8000;0.0798;4.3892;
1340.1000;0.0871;4.4137;
1340.4000;0.0814;4.4064;
1340.7000;0.0871;4.4284;
1341.0000;0.0863;4.4235;
1341.3000;0.0879;4.4161;
1341.6000;0.0814;4.3892;
1341.9000;0.0871;4.4088;
1342.2000;0.0863;4.4039;
1342.5000;0.0798;4.3819;
1342.8000;0.0912;4.4161;
1343.1000;0.0895;4.4186;
1343.4000;0.0863;4.4039;
1343.7000;0.0871;4.4064;
1344.0000;0.0838;4.4015;
1344.3000;0.0830;4.4015;
1344.6000;0.0879;4.4210;
1344.9000;0.0781;4.3892;
1345.2000;0.0895;4.4161;
1345.5000;0.0855;4.4161;
1345.8000;0.0863;4.4137;
1346.1000;0.0879;4.4186;
1346.4000;0.0838;4.4112;
1346.7000;0.0871;4.4259;
1347.0000;0.0879;4.4210;
1347.3000;0.0847;4.4015;
1347.6000;0.0863;4.4015;
1347.9000;0.0855;4.4112;
1348.2000;0.0895;4.4186;
1348.5000;0.0855;4.4137;
1348.8000;0.0741;4.3868;
1349.1000;0.0879;4.4259;
1349.4000;0.0863;4.4161;
1349.7000;0.0952;4.4455;
1350.0000;0.0863;4.4235;
1350.3000;0.0830;4.4112;
1350.6000;0.0879;4.4235;
1350.9000;0.0879;4.4235;
1351.2000;0.0847;4.4137;
1351.5000;0.0871;4.4186;
1351.8000;0.0879;4.4161;
1352.1000;0.0879;4.4235;
1352.4000;0.0863;4.4161;
1352.7000;0.0863;4.4137;
1353.0000;0.0879;4.4161;
1353.3000;0.0969;4.4381;
1353.6000;0.0855;4.4039;
1353.9000;0.0863;4.4015;
1354.2000;0.0863;4.3966;
1354.5000;0.0855;4.3941;
1354.8000;0.0855;4.3941;
1355.1000;0.0863;4.3941;
1355.4000;0.0830;4.3868;
1355.7000;0.0895;4.4039;
1356.0000;0.0952;4.4186;
1356.3000;0.0912;4.4088;
1356.6000;0.0847;4.4039;
1356.9000;0.0912;4.4308;
1357.2000;0.0904;4.4259;
1357.5000;0.0879;4.4210;
1357.8000;0.0847;4.4161;
1358.1000;0.0863;4.4186;
1358.4000;0.0765;4.3843;
1358.7000;0.0879;4.4064;
1359.0000;0.0847;4.4039;
1359.3000;0.0830;4.3990;
1359.6000;0.0879;4.4259;
1359.9000;0.0855;4.4235;
1360.2000;0.0895;4.4284;
1360.5000;0.0863;4.4210;
1360.8000;0.0912;4.4284;
1361.1000;0.0879;4.4064;
1361.4000;0.0847;4.3966;
1361.7000;0.0838;4.3819;
1362.0000;0.0879;4.3868;
1362.3000;0.0855;4.3917;
1362.6000;0.0879;4.3892;
1362.9000;0.0887;4.3941;
1363.2000;0.0781;4.3648;
1363.5000;0.0838;4.3819;
1363.8000;0.0871;4.3917;
1364.1000;0.0822;4.3819;
1364.4000;0.0863;4.3966;
1364.7000;0.0871;4.4039;
1365.0000;0.0871;4.4088;
1365.3000;0.0871;4.4112;
1365.6000;0.0879;4.4112;
1365.9000;0.0863;4.3966;
1366.2000;0.0863;4.3990;
1366.5000;0.0879;4.4015;
1366.8000;0.0855;4.3941;
1367.1000;0.0814;4.3746;
1367.4000;0.0879;4.4015;
1367.7000;0.0806;4.3795;
1368.0000;0.0855;4.3892;
1368.3000;0.0871;4.4015;
1368.6000;0.0814;4.3843;
1368.9000;0.0855;4.3941;
1369.2000;0.0855;4.4015;
1369.5000;0.0912;4.4112;
1369.8000;0.0847;4.3990;
1370.1000;0.0879;4.4235;
1370.4000;0.0855;4.4161;
1370.7000;0.0879;4.4186;
1371.0000;0.0871;4.4161;
1371.3000;0.0887;4.4235;
1371.6000;0.0790;4.3843;
1371.9000;0.0855;4.4064;
1372.2000;0.0904;4.4259;
1372.5000;0.0895;4.4308;
1372.8000;0.0887;4.4210;
1373.1000;0.0855;4.4112;
1373.4000;0.0863;4.4088;
1373.7000;0.0928;4.4161;
1374.0000;0.0806;4.3892;
1374.3000;0.0871;4.4064;
1374.6000;0.0855;4.3990;
1374.9000;0.0855;4.3868;
1375.2000;0.0863;4.3892;
1375.5000;0.0855;4.3795;
1375.8000;0.0863;4.3721;
1376.1000;0.0879;4.3721;
1376.4000;0.0904;4.3843;
1376.7000;0.0838;4.3721;
1377.0000;0.0863;4.3868;
1377.3000;0.0863;4.3819;
1377.6000;0.0871;4.3868;
1377.9000;0.0855;4.3892;
1378.2000;0.0879;4.3941;
1378.5000;0.0887;4.3917;
1378.8000;0.0871;4.3917;
1379.1000;0.0863;4.3868;
1379.4000;0.0847;4.3868;
1379.7000;0.0863;4.4015;
1380.0000;0.0847;4.4064;
1380.3000;0.0871;4.4015;
1380.6000;0.0904;4.4186;
1380.9000;0.0895;4.4161;
1381.2000;0.0871;4.4112;
1381.5000;0.0863;4.4064;
1381.8000;0.0887;4.4112;
1382.1000;0.0871;4.4015;
1382.4000;0.0887;4.4015;
1382.7000;0.0879;4.4015;
1383.0000;0.0871;4.4064;
1383.3000;0.0855;4.4015;
1383.6000;0.0879;4.4088;
1383.9000;0.0879;4.4235;
1384.2000;0.0887;4.4210;
1384.5000;0.1009;4.4601;
1384.8000;0.0855;4.4186;
1385.1000;0.0977;4.4577;
1385.4000;0.0863;4.4161;
1385.7000;0.0887;4.4210;
1386.0000;0.0814;4.4112;
1386.3000;0.0887;4.4284;
1386.6000;0.0863;4.4235;
1386.9000;0.0879;4.4186;
1387.2000;0.0863;4.4235;
1387.5000;0.0847;4.4137;
1387.8000;0.0961;4.4430;
1388.1000;0.0830;4.4112;
1388.4000;0.0855;4.4210;
1388.7000;0.0847;4.4161;
1389.0000;0.0887;4.4186;
1389.3000;0.0855;4.4137;
1389.6000;0.0855;4.4137;
1389.9000;0.0847;4.4112;
1390.2000;0.0871;4.4186;
1390.5000;0.0847;4.4112;
1390.8000;0.0863;4.4112;
1391.1000;0.0912;4.4235;
1391.4000;0.0871;4.4161;
1391.7000;0.0879;4.4235;
1392.0000;0.0879;4.4235;
1392.3000;0.0904;4.4259;
1392.6000;0.0871;4.4284;
1392.9000;0.0814;4.4088;
1393.2000;0.0912;4.4381;
1393.5000;0.0855;4.4259;
1393.8000;0.0879;4.4284;
1394.1000;0.0847;4.4137;
1394.4000;0.0961;4.4504;
1394.7000;0.0855;4.4186;
1395.0000;0.0855;4.4137;
1395.3000;0.0904;4.4259;
1395.6000;0.0871;4.4235;
1395.9000;0.0863;4.4210;
1396.2000;0.0912;4.4284;
1396.5000;0.0969;4.4430;
1396.8000;0.0871;4.4112;
1397.1000;0.0863;4.4112;
1397.4000;0.0863;4.4039;
1397.7000;0.0879;4.4161;
1398.0000;0.0920;4.4259;
1398.3000;0.0838;4.4112;
1398.6000;0.0838;4.4137;
1398.9000;0.0806;4.4112;
1399.2000;0.0871;4.4137;
1399.5000;0.0887;4.4210;
1399.8000;0.0855;4.4112;
