time/ms;Fluo/V;P700 deltaI/I x10³;
-199.8000;0.0977;4.4895;
-199.5000;0.0961;4.4895;
-199.2000;0.0985;4.4895;
-198.9000;0.0977;4.4919;
-198.6000;0.0977;4.5017;
-198.3000;0.0969;4.5139;
-198.0000;0.0969;4.5091;
-197.7000;0.0993;4.5164;
-197.4000;0.0977;4.5091;
-197.1000;0.1001;4.5213;
-196.8000;0.0985;4.5091;
-196.5000;0.1001;4.5017;
-196.2000;0.0952;4.4822;
-195.9000;0.0985;4.5042;
-195.6000;0.0961;4.4968;
-195.3000;0.1009;4.5091;
-195.0000;0.0977;4.5066;
-194.7000;0.0985;4.5139;
-194.4000;0.0928;4.4993;
-194.1000;0.1083;4.5262;
-193.8000;0.0969;4.4870;
-193.5000;0.0961;4.4846;
-193.2000;0.1001;4.5115;
-192.9000;0.0977;4.5042;
-192.6000;0.0985;4.5066;
-192.3000;0.0985;4.5066;
-192.0000;0.0977;4.5066;
-191.7000;0.0920;4.4870;
-191.4000;0.0985;4.5066;
-191.1000;0.0985;4.5042;
-190.8000;0.0977;4.5017;
-190.5000;0.0993;4.4968;
-190.2000;0.0993;4.4993;
-189.9000;0.0961;4.4944;
-189.6000;0.1066;4.5286;
-189.3000;0.1009;4.5042;
-189.0000;0.0920;4.4748;
-188.7000;0.0969;4.4870;
-188.4000;0.0969;4.4822;
-188.1000;0.1115;4.5188;
-187.8000;0.0985;4.4993;
-187.5000;0.0985;4.4944;
-187.2000;0.0977;4.4919;
-186.9000;0.0904;4.4675;
-186.6000;0.0985;4.4919;
-186.3000;0.0977;4.4968;
-186.0000;0.0961;4.4944;
-185.7000;0.0969;4.4993;
-185.4000;0.0952;4.4919;
-185.1000;0.1001;4.5091;
-184.8000;0.0977;4.4944;
-184.5000;0.0952;4.4944;
-184.2000;0.1050;4.5188;
-183.9000;0.1107;4.5286;
-183.6000;0.0904;4.4822;
-183.3000;0.0912;4.4724;
-183.0000;0.0855;4.4504;
-182.7000;0.0912;4.4626;
-182.4000;0.0993;4.4773;
-182.1000;0.0993;4.4797;
-181.8000;0.0985;4.4822;
-181.5000;0.0969;4.4822;
-181.2000;0.1042;4.5066;
-180.9000;0.0977;4.4944;
-180.6000;0.1034;4.5139;
-180.3000;0.0993;4.4993;
-180.0000;0.1058;4.5213;
-179.7000;0.1058;4.5213;
-179.4000;0.1042;4.5139;
-179.1000;0.0952;4.4895;
-178.8000;0.0969;4.4944;
-178.5000;0.0895;4.4773;
-178.2000;0.0961;4.5017;
-177.9000;0.0985;4.5115;
-177.6000;0.0985;4.5066;
-177.3000;0.1026;4.5091;
-177.0000;0.0969;4.5066;
-176.7000;0.0993;4.5188;
-176.4000;0.1009;4.5237;
-176.1000;0.0969;4.5115;
-175.8000;0.0985;4.5066;
-175.5000;0.1001;4.5188;
-175.2000;0.0977;4.5115;
-174.9000;0.0969;4.5115;
-174.6000;0.0977;4.5115;
-174.3000;0.0969;4.5042;
-174.0000;0.0977;4.5017;
-173.7000;0.0969;4.5017;
-173.4000;0.0969;4.5042;
-173.1000;0.1009;4.5188;
-172.8000;0.0977;4.5091;
-172.5000;0.0969;4.5017;
-172.2000;0.0961;4.4968;
-171.9000;0.0977;4.5042;
-171.6000;0.0985;4.5164;
-171.3000;0.1018;4.5164;
-171.0000;0.0985;4.5115;
-170.7000;0.0977;4.5115;
-170.4000;0.1009;4.5188;
-170.1000;0.0985;4.5115;
-169.8000;0.0977;4.5188;
-169.5000;0.0969;4.5237;
-169.2000;0.0977;4.5237;
-168.9000;0.0985;4.5213;
-168.6000;0.0969;4.5139;
-168.3000;0.0985;4.5091;
-168.0000;0.0985;4.5042;
-167.7000;0.0993;4.5042;
-167.4000;0.0912;4.4822;
-167.1000;0.1034;4.5164;
-166.8000;0.0985;4.5091;
-166.5000;0.0952;4.4895;
-166.2000;0.0969;4.4895;
-165.9000;0.1001;4.4919;
-165.6000;0.0952;4.4919;
-165.3000;0.0977;4.5066;
-165.0000;0.0952;4.4895;
-164.7000;0.0977;4.4822;
-164.4000;0.0961;4.4895;
-164.1000;0.0977;4.4919;
-163.8000;0.0969;4.5017;
-163.5000;0.0944;4.4993;
-163.2000;0.0936;4.4968;
-162.9000;0.0961;4.5091;
-162.6000;0.1034;4.5237;
-162.3000;0.1009;4.5139;
-162.0000;0.0985;4.4993;
-161.7000;0.0977;4.4993;
-161.4000;0.0993;4.5139;
-161.1000;0.0936;4.5017;
-160.8000;0.0969;4.5164;
-160.5000;0.0977;4.5262;
-160.2000;0.0985;4.5188;
-159.9000;0.0969;4.5115;
-159.6000;0.0993;4.5091;
-159.3000;0.0977;4.5091;
-159.0000;0.1018;4.5213;
-158.7000;0.1001;4.5188;
-158.4000;0.0985;4.5091;
-158.1000;0.0961;4.4993;
-157.8000;0.1058;4.5237;
-157.5000;0.0985;4.4993;
-157.2000;0.0969;4.4895;
-156.9000;0.0977;4.4846;
-156.6000;0.0920;4.4699;
-156.3000;0.0961;4.4846;
-156.0000;0.1009;4.4993;
-155.7000;0.0985;4.4846;
-155.4000;0.0920;4.4748;
-155.1000;0.0977;4.4944;
-154.8000;0.1009;4.4993;
-154.5000;0.0928;4.4748;
-154.2000;0.1001;4.4993;
-153.9000;0.1034;4.5188;
-153.6000;0.0985;4.5066;
-153.3000;0.0977;4.5066;
-153.0000;0.0969;4.4993;
-152.7000;0.0977;4.4993;
-152.4000;0.0944;4.4846;
-152.1000;0.1018;4.4968;
-151.8000;0.0985;4.5017;
-151.5000;0.0985;4.5017;
-151.2000;0.1001;4.5042;
-150.9000;0.1058;4.5237;
-150.6000;0.0912;4.4944;
-150.3000;0.0977;4.5066;
-150.0000;0.0969;4.4919;
-149.7000;0.0838;4.4650;
-149.4000;0.0977;4.4944;
-149.1000;0.0944;4.4773;
-148.8000;0.0993;4.4919;
-148.5000;0.0993;4.4822;
-148.2000;0.0944;4.4626;
-147.9000;0.0969;4.4748;
-147.6000;0.0944;4.4724;
-147.3000;0.0985;4.4870;
-147.0000;0.0993;4.4846;
-146.7000;0.0952;4.4650;
-146.4000;0.0993;4.4846;
-146.1000;0.0969;4.4870;
-145.8000;0.0977;4.5042;
-145.5000;0.1001;4.5066;
-145.2000;0.0977;4.5066;
-144.9000;0.0993;4.5115;
-144.6000;0.0969;4.5042;
-144.3000;0.0961;4.5042;
-144.0000;0.0977;4.5017;
-143.7000;0.0977;4.5042;
-143.4000;0.0961;4.4944;
-143.1000;0.0969;4.4968;
-142.8000;0.1009;4.5042;
-142.5000;0.0985;4.4944;
-142.2000;0.1050;4.5115;
-141.9000;0.0985;4.4870;
-141.6000;0.1009;4.4895;
-141.3000;0.0985;4.4797;
-141.0000;0.0985;4.4724;
-140.7000;0.0969;4.4748;
-140.4000;0.0961;4.4797;
-140.1000;0.0961;4.4870;
-139.8000;0.0985;4.5017;
-139.5000;0.0952;4.5017;
-139.2000;0.0961;4.5091;
-138.9000;0.0969;4.5017;
-138.6000;0.0895;4.4822;
-138.3000;0.0961;4.5091;
-138.0000;0.0961;4.4968;
-137.7000;0.0985;4.4919;
-137.4000;0.0952;4.4822;
-137.1000;0.0977;4.4822;
-136.8000;0.0977;4.4822;
-136.5000;0.0961;4.4797;
-136.2000;0.0977;4.4822;
-135.9000;0.0977;4.4870;
-135.6000;0.0977;4.4870;
-135.3000;0.0977;4.4944;
-135.0000;0.0969;4.4919;
-134.7000;0.0961;4.4895;
-134.4000;0.0912;4.4797;
-134.1000;0.0977;4.4968;
-133.8000;0.0822;4.4504;
-133.5000;0.0977;4.4870;
-133.2000;0.0969;4.4944;
-132.9000;0.0993;4.4968;
-132.6000;0.0969;4.4919;
-132.3000;0.0977;4.4968;
-132.0000;0.0977;4.4944;
-131.7000;0.0985;4.4895;
-131.4000;0.0904;4.4675;
-131.1000;0.0887;4.4675;
-130.8000;0.0985;4.4944;
-130.5000;0.0952;4.4822;
-130.2000;0.0969;4.4822;
-129.9000;0.0985;4.4895;
-129.6000;0.1042;4.5017;
-129.3000;0.0993;4.4993;
-129.0000;0.0936;4.4822;
-128.7000;0.0961;4.4944;
-128.4000;0.0969;4.4944;
-128.1000;0.0969;4.4993;
-127.8000;0.0961;4.4919;
-127.5000;0.1001;4.4944;
-127.2000;0.1083;4.5164;
-126.9000;0.1018;4.4919;
-126.6000;0.0977;4.4919;
-126.3000;0.1034;4.5115;
-126.0000;0.1026;4.5115;
-125.7000;0.0977;4.4919;
-125.4000;0.1009;4.4944;
-125.1000;0.1009;4.4846;
-124.8000;0.0977;4.4822;
-124.5000;0.0952;4.4919;
-124.2000;0.1018;4.5042;
-123.9000;0.0977;4.4919;
-123.6000;0.1001;4.5017;
-123.3000;0.0993;4.4919;
-123.0000;0.0977;4.4870;
-122.7000;0.0969;4.4748;
-122.4000;0.1050;4.4870;
-122.1000;0.0928;4.4577;
-121.8000;0.0977;4.4699;
-121.5000;0.0969;4.4748;
-121.2000;0.0895;4.4626;
-120.9000;0.0985;4.4846;
-120.6000;0.0961;4.4822;
-120.3000;0.0969;4.4870;
-120.0000;0.0985;4.4919;
-119.7000;0.0961;4.4870;
-119.4000;0.0977;4.4797;
-119.1000;0.0969;4.4773;
-118.8000;0.0977;4.4870;
-118.5000;0.0961;4.4895;
-118.2000;0.0993;4.4993;
-117.9000;0.0985;4.4895;
-117.6000;0.0961;4.4870;
-117.3000;0.0993;4.4870;
-117.0000;0.0936;4.4822;
-116.7000;0.0985;4.4968;
-116.4000;0.0961;4.4895;
-116.1000;0.0912;4.4724;
-115.8000;0.0993;4.4968;
-115.5000;0.0952;4.4919;
-115.2000;0.1001;4.5042;
-114.9000;0.0977;4.5066;
-114.6000;0.0969;4.5066;
-114.3000;0.1001;4.5091;
-114.0000;0.0961;4.5115;
-113.7000;0.0985;4.5091;
-113.4000;0.0993;4.5091;
-113.1000;0.0985;4.4993;
-112.8000;0.1001;4.5042;
-112.5000;0.0969;4.4944;
-112.2000;0.0977;4.5017;
-111.9000;0.0993;4.5115;
-111.6000;0.0977;4.5017;
-111.3000;0.0904;4.4797;
-111.0000;0.0961;4.4846;
-110.7000;0.0977;4.4870;
-110.4000;0.1034;4.4968;
-110.1000;0.1018;4.4919;
-109.8000;0.0985;4.4797;
-109.5000;0.1018;4.4773;
-109.2000;0.0952;4.4675;
-108.9000;0.0977;4.4895;
-108.6000;0.0993;4.4993;
-108.3000;0.1026;4.5115;
-108.0000;0.1001;4.4968;
-107.7000;0.0969;4.4870;
-107.4000;0.0895;4.4650;
-107.1000;0.1001;4.4846;
-106.8000;0.0977;4.4797;
-106.5000;0.0944;4.4748;
-106.2000;0.0969;4.4822;
-105.9000;0.1066;4.5066;
-105.6000;0.0920;4.4699;
-105.3000;0.1001;4.4895;
-105.0000;0.0936;4.4748;
-104.7000;0.0961;4.4724;
-104.4000;0.0952;4.4650;
-104.1000;0.0969;4.4797;
-103.8000;0.0993;4.4797;
-103.5000;0.0952;4.4699;
-103.2000;0.1058;4.5017;
-102.9000;0.0928;4.4675;
-102.6000;0.0969;4.4797;
-102.3000;0.0985;4.4895;
-102.0000;0.0969;4.4822;
-101.7000;0.1026;4.4993;
-101.4000;0.1001;4.4968;
-101.1000;0.0985;4.4968;
-100.8000;0.0977;4.4968;
-100.5000;0.1009;4.4944;
-100.2000;0.0961;4.4773;
-99.9000;0.0952;4.4773;
-99.6000;0.0944;4.4650;
-99.3000;0.0961;4.4528;
-99.0000;0.0952;4.4577;
-98.7000;0.0928;4.4528;
-98.4000;0.0952;4.4601;
-98.1000;0.0969;4.4650;
-97.8000;0.0977;4.4748;
-97.5000;0.0969;4.4773;
-97.2000;0.0977;4.4773;
-96.9000;0.0993;4.4846;
-96.6000;0.1001;4.4822;
-96.3000;0.0977;4.4748;
-96.0000;0.0985;4.4773;
-95.7000;0.0985;4.4846;
-95.4000;0.0977;4.4797;
-95.1000;0.0993;4.4773;
-94.8000;0.0969;4.4724;
-94.5000;0.0961;4.4675;
-94.2000;0.1009;4.4748;
-93.9000;0.0952;4.4626;
-93.6000;0.0961;4.4626;
-93.3000;0.0904;4.4553;
-93.0000;0.0977;4.4797;
-92.7000;0.0928;4.4822;
-92.4000;0.0977;4.4968;
-92.1000;0.1058;4.5115;
-91.8000;0.0993;4.4870;
-91.5000;0.0985;4.4895;
-91.2000;0.0985;4.4919;
-90.9000;0.0977;4.4846;
-90.6000;0.0977;4.4919;
-90.3000;0.0977;4.4968;
-90.0000;0.1018;4.5115;
-89.7000;0.0961;4.4944;
-89.4000;0.0977;4.5042;
-89.1000;0.0961;4.5017;
-88.8000;0.0977;4.5017;
-88.5000;0.0969;4.4944;
-88.2000;0.0977;4.4846;
-87.9000;0.1009;4.4846;
-87.6000;0.0985;4.4773;
-87.3000;0.0928;4.4601;
-87.0000;0.0912;4.4553;
-86.7000;0.0985;4.4675;
-86.4000;0.0928;4.4479;
-86.1000;0.0895;4.4455;
-85.8000;0.0977;4.4675;
-85.5000;0.0969;4.4626;
-85.2000;0.0961;4.4577;
-84.9000;0.0904;4.4455;
-84.6000;0.0993;4.4699;
-84.3000;0.0944;4.4577;
-84.0000;0.0969;4.4797;
-83.7000;0.1001;4.4895;
-83.4000;0.0969;4.4797;
-83.1000;0.0969;4.4797;
-82.8000;0.0985;4.4870;
-82.5000;0.0985;4.4968;
-82.2000;0.0993;4.4919;
-81.9000;0.0969;4.4870;
-81.6000;0.0855;4.4601;
-81.3000;0.1042;4.5115;
-81.0000;0.1018;4.5115;
-80.7000;0.0961;4.4968;
-80.4000;0.0993;4.4993;
-80.1000;0.1009;4.4944;
-79.8000;0.1009;4.4993;
-79.5000;0.1042;4.5213;
-79.2000;0.0985;4.5139;
-78.9000;0.0985;4.5115;
-78.6000;0.0985;4.4993;
-78.3000;0.0969;4.4968;
-78.0000;0.0944;4.4895;
-77.7000;0.0961;4.5017;
-77.4000;0.0969;4.5042;
-77.1000;0.0969;4.5042;
-76.8000;0.0969;4.4944;
-76.5000;0.0961;4.4895;
-76.2000;0.0993;4.5042;
-75.9000;0.0985;4.5017;
-75.6000;0.1123;4.5408;
-75.3000;0.0985;4.4944;
-75.0000;0.1009;4.5017;
-74.7000;0.0985;4.5017;
-74.4000;0.0952;4.4968;
-74.1000;0.0969;4.5042;
-73.8000;0.0952;4.4944;
-73.5000;0.0961;4.4822;
-73.2000;0.0985;4.4895;
-72.9000;0.0969;4.4797;
-72.6000;0.0977;4.4822;
-72.3000;0.1001;4.4919;
-72.0000;0.0985;4.4919;
-71.7000;0.0985;4.4895;
-71.4000;0.0985;4.4919;
-71.1000;0.0993;4.5091;
-70.8000;0.0969;4.5066;
-70.5000;0.0944;4.4968;
-70.2000;0.0936;4.4895;
-69.9000;0.0952;4.4870;
-69.6000;0.0985;4.5017;
-69.3000;0.0961;4.4919;
-69.0000;0.0993;4.4993;
-68.7000;0.0928;4.4822;
-68.4000;0.0985;4.4968;
-68.1000;0.0977;4.4968;
-67.8000;0.0969;4.4919;
-67.5000;0.0977;4.4895;
-67.2000;0.1009;4.4944;
-66.9000;0.0977;4.4797;
-66.6000;0.0993;4.4846;
-66.3000;0.0993;4.4919;
-66.0000;0.1034;4.4944;
-65.7000;0.0977;4.4846;
-65.4000;0.1018;4.4870;
-65.1000;0.0993;4.4870;
-64.8000;0.0985;4.4846;
-64.5000;0.0969;4.4870;
-64.2000;0.0961;4.4724;
-63.9000;0.0969;4.4797;
-63.6000;0.0944;4.4699;
-63.3000;0.1009;4.4846;
-63.0000;0.0985;4.4748;
-62.7000;0.0961;4.4650;
-62.4000;0.0969;4.4650;
-62.1000;0.1009;4.4699;
-61.8000;0.0977;4.4601;
-61.5000;0.0936;4.4528;
-61.2000;0.0993;4.4748;
-60.9000;0.0985;4.4797;
-60.6000;0.0952;4.4650;
-60.3000;0.0977;4.4675;
-60.0000;0.0912;4.4406;
-59.7000;0.0977;4.4626;
-59.4000;0.0961;4.4577;
-59.1000;0.0969;4.4577;
-58.8000;0.0944;4.4528;
-58.5000;0.1001;4.4724;
-58.2000;0.0961;4.4601;
-57.9000;0.0985;4.4650;
-57.6000;0.0969;4.4626;
-57.3000;0.0904;4.4455;
-57.0000;0.0985;4.4773;
-56.7000;0.0985;4.4773;
-56.4000;0.1131;4.5262;
-56.1000;0.0985;4.4895;
-55.8000;0.1001;4.4895;
-55.5000;0.1050;4.5042;
-55.2000;0.0985;4.4944;
-54.9000;0.0985;4.4944;
-54.6000;0.1018;4.5066;
-54.3000;0.0912;4.4724;
-54.0000;0.0977;4.4993;
-53.7000;0.0977;4.4968;
-53.4000;0.0895;4.4773;
-53.1000;0.0952;4.4895;
-52.8000;0.0977;4.4993;
-52.5000;0.0993;4.4993;
-52.2000;0.1001;4.5017;
-51.9000;0.0977;4.4944;
-51.6000;0.0977;4.4895;
-51.3000;0.0985;4.4895;
-51.0000;0.0952;4.4870;
-50.7000;0.0985;4.4944;
-50.4000;0.0985;4.4895;
-50.1000;0.0985;4.4870;
-49.8000;0.0969;4.4797;
-49.5000;0.0977;4.4748;
-49.2000;0.0985;4.4724;
-48.9000;0.0993;4.4822;
-48.6000;0.0993;4.4870;
-48.3000;0.0993;4.4870;
-48.0000;0.0952;4.4748;
-47.7000;0.0944;4.4773;
-47.4000;0.0969;4.4822;
-47.1000;0.0985;4.4968;
-46.8000;0.0993;4.4944;
-46.5000;0.0952;4.4870;
-46.2000;0.0904;4.4699;
-45.9000;0.0977;4.4993;
-45.6000;0.0952;4.4968;
-45.3000;0.0993;4.4993;
-45.0000;0.0961;4.4944;
-44.7000;0.0961;4.4895;
-44.4000;0.0993;4.4870;
-44.1000;0.0952;4.4748;
-43.8000;0.0961;4.4675;
-43.5000;0.1009;4.4822;
-43.2000;0.0977;4.4626;
-42.9000;0.0993;4.4724;
-42.6000;0.0985;4.4748;
-42.3000;0.0993;4.4846;
-42.0000;0.0969;4.4822;
-41.7000;0.0977;4.4822;
-41.4000;0.0952;4.4797;
-41.1000;0.1001;4.4895;
-40.8000;0.0993;4.4895;
-40.5000;0.0977;4.4846;
-40.2000;0.0952;4.4797;
-39.9000;0.0993;4.4919;
-39.6000;0.0985;4.4944;
-39.3000;0.0887;4.4650;
-39.0000;0.0993;4.4797;
-38.7000;0.0928;4.4650;
-38.4000;0.0961;4.4699;
-38.1000;0.0985;4.4846;
-37.8000;0.0985;4.4797;
-37.5000;0.0944;4.4699;
-37.2000;0.0952;4.4846;
-36.9000;0.0985;4.4968;
-36.6000;0.0977;4.4968;
-36.3000;0.0952;4.4870;
-36.0000;0.0952;4.4822;
-35.7000;0.1115;4.5213;
-35.4000;0.0969;4.4822;
-35.1000;0.0993;4.4919;
-34.8000;0.0961;4.4846;
-34.5000;0.0961;4.4846;
-34.2000;0.0961;4.4919;
-33.9000;0.0993;4.4968;
-33.6000;0.0944;4.4944;
-33.3000;0.0904;4.4797;
-33.0000;0.0944;4.5042;
-32.7000;0.0952;4.4968;
-32.4000;0.0830;4.4430;
-32.1000;0.1050;4.5066;
-31.8000;0.0993;4.4773;
-31.5000;0.0985;4.4797;
-31.2000;0.1009;4.4968;
-30.9000;0.0969;4.4944;
-30.6000;0.1009;4.4993;
-30.3000;0.1009;4.5017;
-30.0000;0.0871;4.4553;
-29.7000;0.1018;4.4993;
-29.4000;0.1083;4.5237;
-29.1000;0.1066;4.5091;
-28.8000;0.0969;4.4773;
-28.5000;0.0993;4.4797;
-28.2000;0.0961;4.4748;
-27.9000;0.1001;4.4870;
-27.6000;0.0961;4.4846;
-27.3000;0.0985;4.4919;
-27.0000;0.1001;4.4895;
-26.7000;0.0969;4.4846;
-26.4000;0.0977;4.4895;
-26.1000;0.0977;4.4919;
-25.8000;0.0977;4.4846;
-25.5000;0.0985;4.4895;
-25.2000;0.0969;4.4846;
-24.9000;0.0961;4.4870;
-24.6000;0.0969;4.4895;
-24.3000;0.1058;4.5237;
-24.0000;0.0977;4.4993;
-23.7000;0.0993;4.5017;
-23.4000;0.0952;4.4919;
-23.1000;0.0961;4.4870;
-22.8000;0.0985;4.4968;
-22.5000;0.0961;4.4968;
-22.2000;0.0944;4.4944;
-21.9000;0.0977;4.5017;
-21.6000;0.0977;4.4993;
-21.3000;0.0936;4.4870;
-21.0000;0.0993;4.4919;
-20.7000;0.0969;4.4919;
-20.4000;0.0977;4.4919;
-20.1000;0.1001;4.5017;
-19.8000;0.1001;4.4968;
-19.5000;0.0969;4.4822;
-19.2000;0.0952;4.4797;
-18.9000;0.1001;4.4919;
-18.6000;0.0961;4.4822;
-18.3000;0.0961;4.4822;
-18.0000;0.0961;4.4773;
-17.7000;0.0969;4.4822;
-17.4000;0.0936;4.4626;
-17.1000;0.0961;4.4748;
-16.8000;0.0993;4.4773;
-16.5000;0.0993;4.4724;
-16.2000;0.0985;4.4650;
-15.9000;0.0977;4.4675;
-15.6000;0.0985;4.4748;
-15.3000;0.0985;4.4748;
-15.0000;0.0838;4.4333;
-14.7000;0.0977;4.4577;
-14.4000;0.1009;4.4650;
-14.1000;0.0920;4.4528;
-13.8000;0.0969;4.4699;
-13.5000;0.1034;4.4944;
-13.2000;0.1042;4.5042;
-12.9000;0.0969;4.4870;
-12.6000;0.1001;4.4944;
-12.3000;0.0977;4.5017;
-12.0000;0.0904;4.4822;
-11.7000;0.1034;4.5237;
-11.4000;0.0985;4.5042;
-11.1000;0.1001;4.5066;
-10.8000;0.0961;4.4944;
-10.5000;0.0969;4.4944;
-10.2000;0.0928;4.4870;
-9.9000;0.0944;4.4895;
-9.6000;0.0977;4.4919;
-9.3000;0.0936;4.4870;
-9.0000;0.0961;4.4919;
-8.7000;0.1066;4.5237;
-8.4000;0.0985;4.5066;
-8.1000;0.1001;4.5139;
-7.8000;0.0961;4.5091;
-7.5000;0.0969;4.5042;
-7.2000;0.0977;4.5091;
-6.9000;0.0920;4.4944;
-6.6000;0.0993;4.5066;
-6.3000;0.1009;4.5139;
-6.0000;0.1001;4.5066;
-5.7000;0.0977;4.4944;
-5.4000;0.0977;4.5017;
-5.1000;0.1001;4.5091;
-4.8000;0.0985;4.5017;
-4.5000;0.0969;4.4919;
-4.2000;0.1001;4.4968;
-3.9000;0.0969;4.4919;
-3.6000;0.1009;4.4944;
-3.3000;0.0969;4.4822;
-3.0000;0.1001;4.4968;
-2.7000;0.0993;4.4993;
-2.4000;0.0961;4.4870;
-2.1000;0.0985;4.4944;
-1.8000;0.0961;4.4870;
-1.5000;0.1026;4.5115;
-1.2000;0.0952;4.4919;
-0.9000;0.0977;4.5164;
-0.6000;0.0977;4.5164;
-0.3000;0.0952;4.5042;
0.0000;0.0952;4.5042;
0.3000;0.0985;4.4870;
0.6000;0.0993;4.4944;
0.9000;0.1018;4.5139;
1.2000;0.1001;4.5237;
1.5000;0.1018;4.5384;
1.8000;0.1107;4.5702;
2.1000;0.1018;4.5580;
2.4000;0.1018;4.5628;
2.7000;0.1042;4.5702;
3.0000;0.1001;4.5677;
3.3000;0.1034;4.5824;
3.6000;0.1009;4.5800;
3.9000;0.1042;4.5897;
4.2000;0.1050;4.5946;
4.5000;0.1042;4.5849;
4.8000;0.1042;4.5897;
5.1000;0.1026;4.5897;
5.4000;0.1050;4.5971;
5.7000;0.1083;4.6118;
6.0000;0.1099;4.6191;
6.3000;0.1058;4.6044;
6.6000;0.1091;4.6215;
6.9000;0.1034;4.6044;
7.2000;0.1066;4.6069;
7.5000;0.1058;4.6142;
7.8000;0.1131;4.6411;
8.1000;0.1083;4.6264;
8.4000;0.1042;4.6191;
8.7000;0.1083;4.6289;
9.0000;0.1115;4.6387;
9.3000;0.1058;4.6191;
9.6000;0.1050;4.6166;
9.9000;0.1074;4.6166;
10.2000;0.1034;4.6044;
10.5000;0.1099;4.6118;
10.8000;0.1058;4.6044;
11.1000;0.1083;4.6044;
11.4000;0.1140;4.6215;
11.7000;0.1074;4.6093;
12.0000;0.1074;4.6069;
12.3000;0.1034;4.5946;
12.6000;0.1050;4.6069;
12.9000;0.1050;4.6044;
13.2000;0.1066;4.6142;
13.5000;0.1074;4.6264;
13.8000;0.1115;4.6289;
14.1000;0.1050;4.6020;
14.4000;0.1058;4.6069;
14.7000;0.1050;4.6020;
15.0000;0.0993;4.5897;
15.3000;0.1066;4.6093;
15.6000;0.1066;4.6020;
15.9000;0.1034;4.5873;
16.2000;0.0993;4.5775;
16.5000;0.1026;4.5897;
16.8000;0.1131;4.6289;
17.1000;0.1058;4.6166;
17.4000;0.1050;4.6166;
17.7000;0.1074;4.6142;
18.0000;0.1066;4.6191;
18.3000;0.1066;4.6069;
18.6000;0.0977;4.5824;
18.9000;0.1083;4.6093;
19.2000;0.1042;4.6093;
19.5000;0.1042;4.5971;
19.8000;0.1034;4.5922;
20.1000;0.1091;4.5971;
20.4000;0.1074;4.5971;
20.7000;0.1058;4.5873;
21.0000;0.1042;4.5873;
21.3000;0.1058;4.5897;
21.6000;0.1066;4.5971;
21.9000;0.1058;4.5873;
22.2000;0.1066;4.5849;
22.5000;0.1066;4.5849;
22.8000;0.1091;4.5922;
23.1000;0.1066;4.5922;
23.4000;0.1034;4.5775;
23.7000;0.0936;4.5555;
24.0000;0.1042;4.5873;
24.3000;0.1050;4.5897;
24.6000;0.1099;4.5946;
24.9000;0.1050;4.5873;
25.2000;0.1066;4.5995;
25.5000;0.1074;4.6118;
25.8000;0.1083;4.6142;
26.1000;0.1066;4.6020;
26.4000;0.1083;4.6044;
26.7000;0.1050;4.6118;
27.0000;0.1066;4.6093;
27.3000;0.1050;4.6044;
27.6000;0.1091;4.6069;
27.9000;0.1058;4.6044;
28.2000;0.1131;4.6264;
28.5000;0.1066;4.6142;
28.8000;0.1042;4.6069;
29.1000;0.1091;4.6118;
29.4000;0.1034;4.5897;
29.7000;0.1066;4.6044;
30.0000;0.1058;4.6069;
30.3000;0.1058;4.6044;
30.6000;0.1001;4.5873;
30.9000;0.1034;4.6020;
31.2000;0.1050;4.6215;
31.5000;0.1058;4.6313;
31.8000;0.1083;4.6289;
32.1000;0.1066;4.6264;
32.4000;0.1042;4.6191;
32.7000;0.1001;4.5995;
33.0000;0.0993;4.6044;
33.3000;0.1058;4.6142;
33.6000;0.1066;4.6118;
33.9000;0.1042;4.6069;
34.2000;0.1115;4.6240;
34.5000;0.1066;4.6118;
34.8000;0.1050;4.6044;
35.1000;0.1050;4.5971;
35.4000;0.1034;4.5897;
35.7000;0.1026;4.5971;
36.0000;0.1058;4.5971;
36.3000;0.1066;4.5971;
36.6000;0.1009;4.5922;
36.9000;0.1066;4.5946;
37.2000;0.1148;4.6093;
37.5000;0.1058;4.5849;
37.8000;0.0977;4.5555;
38.1000;0.1074;4.5897;
38.4000;0.1083;4.5946;
38.7000;0.1066;4.5897;
39.0000;0.0977;4.5653;
39.3000;0.1042;4.5751;
39.6000;0.1074;4.5897;
39.9000;0.1058;4.5849;
40.2000;0.1091;4.5946;
40.5000;0.1066;4.5946;
40.8000;0.1050;4.5897;
41.1000;0.1066;4.5971;
41.4000;0.1066;4.6069;
41.7000;0.1074;4.6142;
42.0000;0.1074;4.6215;
42.3000;0.1074;4.6215;
42.6000;0.0993;4.5946;
42.9000;0.1074;4.6118;
43.2000;0.1066;4.6118;
43.5000;0.1083;4.6069;
43.8000;0.1050;4.5995;
44.1000;0.1058;4.5946;
44.4000;0.1018;4.5873;
44.7000;0.1172;4.6289;
45.0000;0.1074;4.6020;
45.3000;0.1074;4.5995;
45.6000;0.1050;4.5922;
45.9000;0.1026;4.5897;
46.2000;0.1091;4.6020;
46.5000;0.1058;4.5995;
46.8000;0.1034;4.5971;
47.1000;0.1066;4.6020;
47.4000;0.1091;4.6093;
47.7000;0.1197;4.6362;
48.0000;0.1074;4.5971;
48.3000;0.1018;4.5849;
48.6000;0.1091;4.6044;
48.9000;0.1058;4.6020;
49.2000;0.1066;4.6044;
49.5000;0.1083;4.6044;
49.8000;0.1066;4.5971;
50.1000;0.1066;4.5922;
50.4000;0.1050;4.5849;
50.7000;0.1018;4.5751;
51.0000;0.1050;4.5922;
51.3000;0.1066;4.5946;
51.6000;0.1083;4.5971;
51.9000;0.1058;4.5873;
52.2000;0.1074;4.5849;
52.5000;0.1034;4.5800;
52.8000;0.0977;4.5702;
53.1000;0.1058;4.5873;
53.4000;0.1083;4.5873;
53.7000;0.0993;4.5653;
54.0000;0.1058;4.5849;
54.3000;0.1058;4.5800;
54.6000;0.1074;4.5824;
54.9000;0.1074;4.5849;
55.2000;0.1083;4.5971;
55.5000;0.1091;4.6020;
55.8000;0.1091;4.5995;
56.1000;0.1066;4.5849;
56.4000;0.1066;4.5775;
56.7000;0.1026;4.5653;
57.0000;0.1188;4.6044;
57.3000;0.1026;4.5775;
57.6000;0.1083;4.5849;
57.9000;0.1058;4.5726;
58.2000;0.1091;4.5824;
58.5000;0.0977;4.5555;
58.8000;0.1050;4.5824;
59.1000;0.1066;4.5971;
59.4000;0.1050;4.5946;
59.7000;0.1058;4.5946;
60.0000;0.1099;4.5946;
60.3000;0.1074;4.5922;
60.6000;0.1213;4.6313;
60.9000;0.1156;4.6191;
61.2000;0.1074;4.5995;
61.5000;0.1213;4.6387;
61.8000;0.1066;4.6044;
62.1000;0.1066;4.6142;
62.4000;0.1001;4.5897;
62.7000;0.1091;4.6191;
63.0000;0.0977;4.5800;
63.3000;0.1074;4.6044;
63.6000;0.1123;4.6215;
63.9000;0.1188;4.6411;
64.2000;0.1066;4.5995;
64.5000;0.1058;4.5995;
64.8000;0.1026;4.5946;
65.1000;0.1074;4.5995;
65.4000;0.1042;4.5800;
65.7000;0.1066;4.5922;
66.0000;0.1066;4.5971;
66.3000;0.1074;4.5971;
66.6000;0.1034;4.5971;
66.9000;0.1074;4.6044;
67.2000;0.1066;4.6020;
67.5000;0.1074;4.5971;
67.8000;0.1066;4.5897;
68.1000;0.1058;4.5873;
68.4000;0.1083;4.5995;
68.7000;0.1066;4.5873;
69.0000;0.1058;4.5824;
69.3000;0.1066;4.5873;
69.6000;0.1083;4.5897;
69.9000;0.1058;4.5849;
70.2000;0.1074;4.5922;
70.5000;0.1107;4.5995;
70.8000;0.1083;4.5971;
71.1000;0.1083;4.5946;
71.4000;0.1083;4.5824;
71.7000;0.1074;4.5873;
72.0000;0.1058;4.5824;
72.3000;0.1058;4.5873;
72.6000;0.1066;4.5873;
72.9000;0.1066;4.5897;
73.2000;0.1115;4.6069;
73.5000;0.1074;4.6020;
73.8000;0.1107;4.6044;
74.1000;0.1066;4.5922;
74.4000;0.1050;4.5800;
74.7000;0.1066;4.5775;
75.0000;0.1091;4.5897;
75.3000;0.1050;4.5849;
75.6000;0.1066;4.5800;
75.9000;0.1066;4.5775;
76.2000;0.1066;4.5726;
76.5000;0.1050;4.5775;
76.8000;0.1131;4.5873;
77.1000;0.1066;4.5726;
77.4000;0.1091;4.5775;
77.7000;0.1164;4.5946;
78.0000;0.1074;4.5751;
78.3000;0.1083;4.5800;
78.6000;0.1066;4.5800;
78.9000;0.1058;4.5677;
79.2000;0.1058;4.5726;
79.5000;0.1099;4.5751;
79.8000;0.1042;4.5677;
80.1000;0.1066;4.5726;
80.4000;0.0985;4.5482;
80.7000;0.1050;4.5702;
81.0000;0.1058;4.5726;
81.3000;0.1066;4.5800;
81.6000;0.1083;4.5873;
81.9000;0.1083;4.5800;
82.2000;0.1083;4.5922;
82.5000;0.1083;4.5922;
82.8000;0.1034;4.5849;
83.1000;0.1066;4.5995;
83.4000;0.1123;4.6093;
83.7000;0.1091;4.6044;
84.0000;0.1034;4.5897;
84.3000;0.1066;4.5897;
84.6000;0.1172;4.6118;
84.9000;0.0993;4.5604;
85.2000;0.1099;4.5897;
85.5000;0.1050;4.5849;
85.8000;0.1042;4.5824;
86.1000;0.1123;4.6166;
86.4000;0.1066;4.6020;
86.7000;0.1058;4.5971;
87.0000;0.1050;4.5946;
87.3000;0.1066;4.5971;
87.6000;0.1140;4.6191;
87.9000;0.1042;4.5946;
88.2000;0.1050;4.6044;
88.5000;0.1018;4.6020;
88.8000;0.1066;4.6069;
89.1000;0.1083;4.6044;
89.4000;0.1172;4.6215;
89.7000;0.1066;4.5922;
90.0000;0.1058;4.5873;
90.3000;0.1099;4.5873;
90.6000;0.1050;4.5775;
90.9000;0.1042;4.5751;
91.2000;0.1058;4.5873;
91.5000;0.1083;4.5946;
91.8000;0.1074;4.5946;
92.1000;0.1074;4.5995;
92.4000;0.1099;4.6044;
92.7000;0.1099;4.5922;
93.0000;0.1091;4.5873;
93.3000;0.1042;4.5751;
93.6000;0.1042;4.5800;
93.9000;0.1131;4.6020;
94.2000;0.1091;4.5873;
94.5000;0.1034;4.5726;
94.8000;0.1066;4.5751;
95.1000;0.1083;4.5751;
95.4000;0.1074;4.5849;
95.7000;0.1074;4.5971;
96.0000;0.1083;4.6142;
96.3000;0.1074;4.6069;
96.6000;0.1058;4.5922;
96.9000;0.1091;4.5946;
97.2000;0.1083;4.5897;
97.5000;0.1074;4.5849;
97.8000;0.1099;4.5873;
98.1000;0.1107;4.5897;
98.4000;0.1034;4.5800;
98.7000;0.1083;4.5873;
99.0000;0.1083;4.5849;
99.3000;0.1091;4.5849;
99.6000;0.1066;4.5775;
99.9000;0.1083;4.5800;
100.2000;0.1066;4.5873;
100.5000;0.1074;4.5946;
100.8000;0.1050;4.5873;
101.1000;0.1050;4.5824;
101.4000;0.1107;4.5995;
101.7000;0.1083;4.5971;
102.0000;0.0936;4.5531;
102.3000;0.1091;4.5971;
102.6000;0.1099;4.5971;
102.9000;0.1172;4.6240;
103.2000;0.1074;4.6069;
103.5000;0.1042;4.5995;
103.8000;0.1091;4.6118;
104.1000;0.1058;4.6020;
104.4000;0.0985;4.5800;
104.7000;0.1115;4.6069;
105.0000;0.1074;4.5897;
105.3000;0.1050;4.5897;
105.6000;0.1058;4.5971;
105.9000;0.1099;4.6044;
106.2000;0.1074;4.6020;
106.5000;0.1123;4.6191;
106.8000;0.1066;4.6020;
107.1000;0.1058;4.6093;
107.4000;0.1050;4.6093;
107.7000;0.1074;4.6093;
108.0000;0.1066;4.6166;
108.3000;0.1066;4.6191;
108.6000;0.1066;4.6118;
108.9000;0.1066;4.6142;
109.2000;0.1091;4.6240;
109.5000;0.1066;4.6191;
109.8000;0.1066;4.6142;
110.1000;0.1050;4.6166;
110.4000;0.1058;4.6142;
110.7000;0.1066;4.6191;
111.0000;0.1058;4.6215;
111.3000;0.1066;4.6191;
111.6000;0.1083;4.6289;
111.9000;0.1074;4.6289;
112.2000;0.1083;4.6240;
112.5000;0.1074;4.6191;
112.8000;0.1083;4.6215;
113.1000;0.1074;4.6191;
113.4000;0.1099;4.6240;
113.7000;0.1042;4.6118;
114.0000;0.1042;4.6069;
114.3000;0.1042;4.6069;
114.6000;0.1058;4.6166;
114.9000;0.1074;4.6166;
115.2000;0.1058;4.6166;
115.5000;0.1091;4.6191;
115.8000;0.1099;4.6338;
116.1000;0.1066;4.6264;
116.4000;0.1042;4.6215;
116.7000;0.1042;4.6289;
117.0000;0.1050;4.6289;
117.3000;0.1058;4.6411;
117.6000;0.1026;4.6240;
117.9000;0.1050;4.6387;
118.2000;0.1066;4.6509;
118.5000;0.1083;4.6460;
118.8000;0.0961;4.6044;
119.1000;0.1026;4.6313;
119.4000;0.1050;4.6338;
119.7000;0.1074;4.6338;
120.0000;0.1091;4.6338;
120.3000;0.1050;4.6240;
120.6000;0.1083;4.6264;
120.9000;0.1074;4.6215;
121.2000;0.0952;4.5946;
121.5000;0.1066;4.6264;
121.8000;0.1083;4.6362;
122.1000;0.1050;4.6289;
122.4000;0.1050;4.6289;
122.7000;0.1018;4.6215;
123.0000;0.1066;4.6313;
123.3000;0.1066;4.6191;
123.6000;0.1058;4.6044;
123.9000;0.1050;4.5995;
124.2000;0.1074;4.6093;
124.5000;0.1099;4.6142;
124.8000;0.0952;4.5873;
125.1000;0.1066;4.6069;
125.4000;0.1074;4.6118;
125.7000;0.1099;4.6142;
126.0000;0.1148;4.6240;
126.3000;0.1058;4.5922;
126.6000;0.1074;4.5946;
126.9000;0.1091;4.5971;
127.2000;0.1083;4.5946;
127.5000;0.1083;4.5971;
127.8000;0.1083;4.6093;
128.1000;0.1083;4.6191;
128.4000;0.1058;4.6215;
128.7000;0.1107;4.6362;
129.0000;0.1074;4.6338;
129.3000;0.1050;4.6338;
129.6000;0.1058;4.6362;
129.9000;0.1050;4.6289;
130.2000;0.1091;4.6411;
130.5000;0.1074;4.6460;
130.8000;0.1066;4.6460;
131.1000;0.1066;4.6435;
131.4000;0.1083;4.6509;
131.7000;0.1091;4.6387;
132.0000;0.1074;4.6215;
132.3000;0.1099;4.6411;
132.6000;0.1074;4.6338;
132.9000;0.1058;4.6289;
133.2000;0.1083;4.6362;
133.5000;0.1066;4.6289;
133.8000;0.1050;4.6264;
134.1000;0.1066;4.6191;
134.4000;0.1009;4.6069;
134.7000;0.1083;4.6264;
135.0000;0.1074;4.6338;
135.3000;0.1148;4.6460;
135.6000;0.1066;4.6215;
135.9000;0.1083;4.6240;
136.2000;0.1066;4.6215;
136.5000;0.1083;4.6264;
136.8000;0.1058;4.6191;
137.1000;0.1074;4.6215;
137.4000;0.1066;4.6166;
137.7000;0.1058;4.6118;
138.0000;0.1050;4.6093;
138.3000;0.1091;4.6191;
138.6000;0.1074;4.6118;
138.9000;0.1074;4.6118;
139.2000;0.1050;4.6044;
139.5000;0.1091;4.6191;
139.8000;0.1026;4.5971;
140.1000;0.1066;4.6118;
140.4000;0.1058;4.6069;
140.7000;0.1083;4.6166;
141.0000;0.1074;4.6166;
141.3000;0.1001;4.5946;
141.6000;0.1050;4.6069;
141.9000;0.1172;4.6338;
142.2000;0.1050;4.6044;
142.5000;0.1074;4.6118;
142.8000;0.1074;4.6142;
143.1000;0.1074;4.6142;
143.4000;0.1018;4.6020;
143.7000;0.1050;4.6093;
144.0000;0.1074;4.6191;
144.3000;0.1058;4.6118;
144.6000;0.1107;4.6191;
144.9000;0.1066;4.6044;
145.2000;0.1074;4.6118;
145.5000;0.1026;4.5873;
145.8000;0.1074;4.6020;
146.1000;0.1050;4.5995;
146.4000;0.1066;4.6020;
146.7000;0.1050;4.6069;
147.0000;0.1074;4.6093;
147.3000;0.1066;4.6093;
147.6000;0.1074;4.6118;
147.9000;0.1074;4.6069;
148.2000;0.1058;4.6093;
148.5000;0.1066;4.6069;
148.8000;0.1107;4.6142;
149.1000;0.1050;4.6093;
149.4000;0.1058;4.6142;
149.7000;0.1099;4.6387;
150.0000;0.1074;4.6240;
150.3000;0.1058;4.6166;
150.6000;0.1018;4.6093;
150.9000;0.1066;4.6362;
151.2000;0.1058;4.6313;
151.5000;0.1083;4.6240;
151.8000;0.1107;4.6215;
152.1000;0.1066;4.6191;
152.4000;0.1066;4.6166;
152.7000;0.1026;4.5922;
153.0000;0.1074;4.6020;
153.3000;0.1066;4.5995;
153.6000;0.1074;4.5995;
153.9000;0.1066;4.5922;
154.2000;0.1083;4.5946;
154.5000;0.1091;4.6020;
154.8000;0.1083;4.6069;
155.1000;0.1058;4.5971;
155.4000;0.1050;4.6069;
155.7000;0.1042;4.6118;
156.0000;0.1066;4.6240;
156.3000;0.1083;4.6264;
156.6000;0.1099;4.6338;
156.9000;0.1058;4.6264;
157.2000;0.0985;4.6069;
157.5000;0.1074;4.6313;
157.8000;0.1074;4.6313;
158.1000;0.1050;4.6142;
158.4000;0.1066;4.6166;
158.7000;0.1066;4.6166;
159.0000;0.1066;4.6240;
159.3000;0.1066;4.6215;
159.6000;0.1058;4.6142;
159.9000;0.1050;4.6069;
160.2000;0.1066;4.6191;
160.5000;0.1066;4.6215;
160.8000;0.1058;4.6240;
161.1000;0.0952;4.5995;
161.4000;0.1058;4.6240;
161.7000;0.1091;4.6435;
162.0000;0.1074;4.6411;
162.3000;0.1058;4.6387;
162.6000;0.1058;4.6264;
162.9000;0.1058;4.6215;
163.2000;0.1066;4.6191;
163.5000;0.1066;4.6191;
163.8000;0.1083;4.6264;
164.1000;0.1083;4.6264;
164.4000;0.1083;4.6313;
164.7000;0.1074;4.6313;
165.0000;0.0961;4.5971;
165.3000;0.1034;4.6191;
165.6000;0.0961;4.5995;
165.9000;0.1074;4.6362;
166.2000;0.1091;4.6509;
166.5000;0.1091;4.6558;
166.8000;0.1066;4.6558;
167.1000;0.1058;4.6509;
167.4000;0.1058;4.6484;
167.7000;0.1034;4.6387;
168.0000;0.1066;4.6435;
168.3000;0.1050;4.6362;
168.6000;0.1083;4.6435;
168.9000;0.1083;4.6338;
169.2000;0.0985;4.6093;
169.5000;0.1172;4.6631;
169.8000;0.1156;4.6607;
170.1000;0.1058;4.6289;
170.4000;0.1050;4.6313;
170.7000;0.1066;4.6338;
171.0000;0.0952;4.6020;
171.3000;0.1091;4.6460;
171.6000;0.1107;4.6533;
171.9000;0.1066;4.6484;
172.2000;0.1058;4.6411;
172.5000;0.1091;4.6509;
172.8000;0.1050;4.6313;
173.1000;0.1058;4.6338;
173.4000;0.1066;4.6362;
173.7000;0.1091;4.6460;
174.0000;0.1074;4.6460;
174.3000;0.1140;4.6680;
174.6000;0.1042;4.6362;
174.9000;0.1099;4.6533;
175.2000;0.1058;4.6387;
175.5000;0.1058;4.6387;
175.8000;0.1074;4.6387;
176.1000;0.1058;4.6338;
176.4000;0.1156;4.6582;
176.7000;0.1083;4.6313;
177.0000;0.1083;4.6215;
177.3000;0.1180;4.6484;
177.6000;0.1058;4.6215;
177.9000;0.1074;4.6313;
178.2000;0.1091;4.6362;
178.5000;0.1050;4.6289;
178.8000;0.1074;4.6338;
179.1000;0.1099;4.6460;
179.4000;0.1083;4.6362;
179.7000;0.1066;4.6289;
180.0000;0.1058;4.6264;
180.3000;0.1058;4.6362;
180.6000;0.1058;4.6338;
180.9000;0.1074;4.6362;
181.2000;0.1083;4.6264;
181.5000;0.1066;4.6240;
181.8000;0.1091;4.6289;
182.1000;0.1083;4.6338;
182.4000;0.1058;4.6313;
182.7000;0.1074;4.6387;
183.0000;0.1058;4.6435;
183.3000;0.1099;4.6558;
183.6000;0.1066;4.6411;
183.9000;0.1050;4.6313;
184.2000;0.1148;4.6509;
184.5000;0.1058;4.6362;
184.8000;0.1099;4.6338;
185.1000;0.1050;4.6142;
185.4000;0.1091;4.6289;
185.7000;0.1099;4.6338;
186.0000;0.1050;4.6264;
186.3000;0.1074;4.6289;
186.6000;0.1083;4.6362;
186.9000;0.1107;4.6411;
187.2000;0.1042;4.6264;
187.5000;0.1083;4.6387;
187.8000;0.1058;4.6289;
188.1000;0.1066;4.6338;
188.4000;0.1123;4.6338;
188.7000;0.1074;4.6338;
189.0000;0.1066;4.6387;
189.3000;0.1099;4.6509;
189.6000;0.1058;4.6264;
189.9000;0.1058;4.6289;
190.2000;0.1066;4.6362;
190.5000;0.1074;4.6313;
190.8000;0.1050;4.6215;
191.1000;0.1058;4.6240;
191.4000;0.1074;4.6264;
191.7000;0.1050;4.6240;
192.0000;0.1026;4.6166;
192.3000;0.1066;4.6240;
192.6000;0.1009;4.6191;
192.9000;0.1066;4.6240;
193.2000;0.1091;4.6289;
193.5000;0.1066;4.6264;
193.8000;0.1107;4.6289;
194.1000;0.1074;4.6191;
194.4000;0.1083;4.6166;
194.7000;0.1091;4.6215;
195.0000;0.1058;4.6069;
195.3000;0.1058;4.6093;
195.6000;0.1050;4.6093;
195.9000;0.1083;4.6118;
196.2000;0.1074;4.6044;
196.5000;0.0977;4.5824;
196.8000;0.1009;4.5824;
197.1000;0.1058;4.6093;
197.4000;0.1074;4.6166;
197.7000;0.1058;4.6240;
198.0000;0.1058;4.6264;
198.3000;0.1074;4.6166;
198.6000;0.1066;4.6166;
198.9000;0.1042;4.6142;
199.2000;0.1066;4.6142;
199.5000;0.1131;4.6313;
199.8000;0.1066;4.6264;
200.1000;0.1058;4.6215;
200.4000;0.1066;4.6264;
200.7000;0.1156;4.6387;
201.0000;0.1083;4.6166;
201.3000;0.1074;4.6142;
201.6000;0.1058;4.6093;
201.9000;0.1066;4.6191;
202.2000;0.1083;4.6313;
202.5000;0.1074;4.6313;
202.8000;0.1066;4.6387;
203.1000;0.1066;4.6362;
203.4000;0.1058;4.6264;
203.7000;0.1156;4.6484;
204.0000;0.1074;4.6313;
204.3000;0.1091;4.6362;
204.6000;0.1074;4.6362;
204.9000;0.1066;4.6411;
205.2000;0.1066;4.6411;
205.5000;0.1050;4.6362;
205.8000;0.1074;4.6460;
206.1000;0.1050;4.6460;
206.4000;0.1091;4.6484;
206.7000;0.1099;4.6533;
207.0000;0.1099;4.6484;
207.3000;0.1074;4.6362;
207.6000;0.1058;4.6338;
207.9000;0.1066;4.6435;
208.2000;0.1050;4.6362;
208.5000;0.1074;4.6460;
208.8000;0.1099;4.6558;
209.1000;0.1066;4.6484;
209.4000;0.1042;4.6460;
209.7000;0.1042;4.6484;
210.0000;0.1066;4.6460;
210.3000;0.1074;4.6411;
210.6000;0.1066;4.6411;
210.9000;0.1026;4.6264;
211.2000;0.1050;4.6289;
211.5000;0.1066;4.6387;
211.8000;0.0961;4.6166;
212.1000;0.1074;4.6338;
212.4000;0.1254;4.6753;
212.7000;0.1066;4.6289;
213.0000;0.1058;4.6289;
213.3000;0.1156;4.6582;
213.6000;0.1091;4.6411;
213.9000;0.1042;4.6338;
214.2000;0.1066;4.6387;
214.5000;0.1099;4.6509;
214.8000;0.1058;4.6435;
215.1000;0.1018;4.6313;
215.4000;0.1131;4.6631;
215.7000;0.1123;4.6680;
216.0000;0.1148;4.6680;
216.3000;0.1066;4.6484;
216.6000;0.1099;4.6680;
216.9000;0.1091;4.6558;
217.2000;0.1074;4.6460;
217.5000;0.1009;4.6338;
217.8000;0.1050;4.6338;
218.1000;0.1066;4.6264;
218.4000;0.1074;4.6215;
218.7000;0.1074;4.6166;
219.0000;0.1074;4.6215;
219.3000;0.1066;4.6215;
219.6000;0.1083;4.6215;
219.9000;0.1083;4.6264;
220.2000;0.1074;4.6264;
220.5000;0.1172;4.6582;
220.8000;0.1058;4.6264;
221.1000;0.1083;4.6313;
221.4000;0.1115;4.6435;
221.7000;0.1058;4.6264;
222.0000;0.1066;4.6289;
222.3000;0.1066;4.6362;
222.6000;0.1091;4.6435;
222.9000;0.1066;4.6289;
223.2000;0.1083;4.6435;
223.5000;0.1099;4.6460;
223.8000;0.1083;4.6362;
224.1000;0.1083;4.6435;
224.4000;0.1156;4.6631;
224.7000;0.0993;4.6191;
225.0000;0.1099;4.6460;
225.3000;0.1066;4.6362;
225.6000;0.1058;4.6289;
225.9000;0.1066;4.6191;
226.2000;0.1083;4.6191;
226.5000;0.1074;4.6191;
226.8000;0.1058;4.6044;
227.1000;0.1066;4.6093;
227.4000;0.1074;4.6142;
227.7000;0.1066;4.6093;
228.0000;0.1066;4.6118;
228.3000;0.1091;4.6142;
228.6000;0.1074;4.6020;
228.9000;0.1074;4.6044;
229.2000;0.1066;4.6142;
229.5000;0.1083;4.6142;
229.8000;0.1099;4.6240;
230.1000;0.1066;4.6191;
230.4000;0.1074;4.6264;
230.7000;0.1074;4.6362;
231.0000;0.1058;4.6387;
231.3000;0.1091;4.6484;
231.6000;0.1066;4.6460;
231.9000;0.1058;4.6387;
232.2000;0.1050;4.6387;
232.5000;0.1066;4.6411;
232.8000;0.1131;4.6533;
233.1000;0.1058;4.6338;
233.4000;0.1066;4.6362;
233.7000;0.1131;4.6582;
234.0000;0.1066;4.6362;
234.3000;0.1074;4.6411;
234.6000;0.1009;4.6338;
234.9000;0.1026;4.6362;
235.2000;0.1042;4.6362;
235.5000;0.1026;4.6264;
235.8000;0.1034;4.6313;
236.1000;0.1091;4.6387;
236.4000;0.1140;4.6460;
236.7000;0.1066;4.6289;
237.0000;0.1066;4.6313;
237.3000;0.1074;4.6289;
237.6000;0.0961;4.5897;
237.9000;0.1083;4.6264;
238.2000;0.1074;4.6118;
238.5000;0.1099;4.6264;
238.8000;0.1140;4.6338;
239.1000;0.1058;4.6191;
239.4000;0.1050;4.6215;
239.7000;0.1066;4.6240;
240.0000;0.1074;4.6215;
240.3000;0.1066;4.6215;
240.6000;0.1066;4.6191;
240.9000;0.1058;4.6191;
241.2000;0.1042;4.6215;
241.5000;0.1018;4.6093;
241.8000;0.1050;4.6264;
242.1000;0.1058;4.6289;
242.4000;0.1148;4.6509;
242.7000;0.1018;4.6264;
243.0000;0.1091;4.6509;
243.3000;0.1074;4.6460;
243.6000;0.1034;4.6264;
243.9000;0.1066;4.6313;
244.2000;0.1066;4.6289;
244.5000;0.1066;4.6338;
244.8000;0.1083;4.6435;
245.1000;0.1091;4.6362;
245.4000;0.1074;4.6289;
245.7000;0.1050;4.6142;
246.0000;0.1074;4.6191;
246.3000;0.1058;4.6215;
246.6000;0.1083;4.6313;
246.9000;0.1066;4.6338;
247.2000;0.1083;4.6460;
247.5000;0.1058;4.6411;
247.8000;0.1074;4.6411;
248.1000;0.1058;4.6411;
248.4000;0.1074;4.6362;
248.7000;0.1123;4.6558;
249.0000;0.1131;4.6558;
249.3000;0.1066;4.6435;
249.6000;0.1026;4.6411;
249.9000;0.1066;4.6533;
250.2000;0.1066;4.6484;
250.5000;0.1083;4.6533;
250.8000;0.1018;4.6460;
251.1000;0.1083;4.6704;
251.4000;0.1074;4.6558;
251.7000;0.1083;4.6484;
252.0000;0.1066;4.6484;
252.3000;0.1074;4.6460;
252.6000;0.1083;4.6509;
252.9000;0.1083;4.6484;
253.2000;0.1050;4.6411;
253.5000;0.1058;4.6338;
253.8000;0.1058;4.6387;
254.1000;0.1074;4.6460;
254.4000;0.1058;4.6435;
254.7000;0.1042;4.6313;
255.0000;0.1083;4.6509;
255.3000;0.1066;4.6484;
255.6000;0.1107;4.6460;
255.9000;0.1009;4.6240;
256.2000;0.1034;4.6240;
256.5000;0.1066;4.6338;
256.8000;0.1066;4.6435;
257.1000;0.1083;4.6533;
257.4000;0.1066;4.6460;
257.7000;0.1083;4.6484;
258.0000;0.1058;4.6435;
258.3000;0.1058;4.6313;
258.6000;0.1050;4.6264;
258.9000;0.1156;4.6607;
259.2000;0.1058;4.6313;
259.5000;0.1042;4.6313;
259.8000;0.1058;4.6387;
260.1000;0.1050;4.6338;
260.4000;0.1107;4.6582;
260.7000;0.1083;4.6509;
261.0000;0.1058;4.6533;
261.3000;0.1066;4.6533;
261.6000;0.1042;4.6435;
261.9000;0.1074;4.6655;
262.2000;0.1066;4.6655;
262.5000;0.1058;4.6655;
262.8000;0.1115;4.6778;
263.1000;0.1050;4.6607;
263.4000;0.1042;4.6558;
263.7000;0.1058;4.6509;
264.0000;0.1058;4.6460;
264.3000;0.1066;4.6435;
264.6000;0.1058;4.6411;
264.9000;0.1074;4.6387;
265.2000;0.1058;4.6411;
265.5000;0.1066;4.6484;
265.8000;0.1074;4.6484;
266.1000;0.1066;4.6411;
266.4000;0.0985;4.6215;
266.7000;0.0944;4.6069;
267.0000;0.1140;4.6484;
267.3000;0.1148;4.6509;
267.6000;0.1050;4.6313;
267.9000;0.1042;4.6240;
268.2000;0.1074;4.6240;
268.5000;0.1074;4.6215;
268.8000;0.1083;4.6313;
269.1000;0.1074;4.6264;
269.4000;0.1083;4.6362;
269.7000;0.1091;4.6289;
270.0000;0.1091;4.6215;
270.3000;0.1083;4.6240;
270.6000;0.1074;4.6387;
270.9000;0.1009;4.6215;
271.2000;0.1066;4.6240;
271.5000;0.1156;4.6509;
271.8000;0.1123;4.6411;
272.1000;0.1066;4.6240;
272.4000;0.1107;4.6338;
272.7000;0.1066;4.6264;
273.0000;0.1058;4.6264;
273.3000;0.1083;4.6313;
273.6000;0.1074;4.6338;
273.9000;0.1083;4.6313;
274.2000;0.1083;4.6387;
274.5000;0.1091;4.6387;
274.8000;0.1058;4.6362;
275.1000;0.1066;4.6362;
275.4000;0.1091;4.6264;
275.7000;0.1034;4.6142;
276.0000;0.1066;4.6166;
276.3000;0.1083;4.6191;
276.6000;0.1083;4.6215;
276.9000;0.1083;4.6215;
277.2000;0.1066;4.6215;
277.5000;0.1066;4.6118;
277.8000;0.1050;4.5995;
278.1000;0.1091;4.6118;
278.4000;0.1107;4.6313;
278.7000;0.1018;4.6142;
279.0000;0.1074;4.6387;
279.3000;0.1066;4.6289;
279.6000;0.1074;4.6142;
279.9000;0.0936;4.5726;
280.2000;0.1058;4.6093;
280.5000;0.1058;4.6020;
280.8000;0.1074;4.6118;
281.1000;0.1058;4.6142;
281.4000;0.1091;4.6191;
281.7000;0.1050;4.6166;
282.0000;0.0961;4.5946;
282.3000;0.1066;4.6289;
282.6000;0.1066;4.6387;
282.9000;0.1009;4.6142;
283.2000;0.1042;4.6289;
283.5000;0.1009;4.6215;
283.8000;0.1034;4.6166;
284.1000;0.1074;4.6166;
284.4000;0.1107;4.6289;
284.7000;0.1074;4.6215;
285.0000;0.1058;4.6191;
285.3000;0.1066;4.6240;
285.6000;0.1001;4.5995;
285.9000;0.1099;4.6142;
286.2000;0.1066;4.5995;
286.5000;0.1058;4.5995;
286.8000;0.1050;4.6093;
287.1000;0.1058;4.5971;
287.4000;0.1074;4.5995;
287.7000;0.1042;4.5922;
288.0000;0.1115;4.6069;
288.3000;0.1066;4.5922;
288.6000;0.1050;4.5922;
288.9000;0.0977;4.5824;
289.2000;0.1083;4.6020;
289.5000;0.1099;4.6044;
289.8000;0.1091;4.5995;
290.1000;0.1058;4.5922;
290.4000;0.1107;4.6118;
290.7000;0.0993;4.5800;
291.0000;0.1050;4.6020;
291.3000;0.1205;4.6387;
291.6000;0.1050;4.5946;
291.9000;0.1066;4.5922;
292.2000;0.1058;4.5946;
292.5000;0.1009;4.5922;
292.8000;0.1074;4.6093;
293.1000;0.1091;4.6118;
293.4000;0.1066;4.5971;
293.7000;0.1140;4.6166;
294.0000;0.1074;4.6044;
294.3000;0.1050;4.5995;
294.6000;0.1091;4.6166;
294.9000;0.1066;4.6069;
295.2000;0.1042;4.5995;
295.5000;0.1115;4.6191;
295.8000;0.1058;4.6020;
296.1000;0.1034;4.6044;
296.4000;0.1066;4.6142;
296.7000;0.0993;4.5897;
297.0000;0.1058;4.6093;
297.3000;0.1091;4.6191;
297.6000;0.1058;4.6044;
297.9000;0.1042;4.6069;
298.2000;0.0985;4.5800;
298.5000;0.1058;4.6044;
298.8000;0.1058;4.6069;
299.1000;0.1074;4.6093;
299.4000;0.1018;4.5897;
299.7000;0.1091;4.6118;
300.0000;0.1074;4.6093;
300.3000;0.1058;4.6069;
300.6000;0.1066;4.6020;
300.9000;0.1131;4.6289;
301.2000;0.1066;4.6166;
301.5000;0.1066;4.6166;
301.8000;0.1018;4.6020;
302.1000;0.1066;4.6191;
302.4000;0.1066;4.6118;
302.7000;0.1042;4.6069;
303.0000;0.0993;4.6020;
303.3000;0.1074;4.6264;
303.6000;0.1050;4.6313;
303.9000;0.1140;4.6484;
304.2000;0.1058;4.6215;
304.5000;0.1042;4.6142;
304.8000;0.1074;4.6215;
305.1000;0.0952;4.5946;
305.4000;0.1050;4.6142;
305.7000;0.1042;4.6166;
306.0000;0.1131;4.6460;
306.3000;0.1042;4.6166;
306.6000;0.1034;4.6069;
306.9000;0.1058;4.6093;
307.2000;0.1074;4.6142;
307.5000;0.1164;4.6460;
307.8000;0.1050;4.6215;
308.1000;0.1066;4.6215;
308.4000;0.1066;4.6240;
308.7000;0.1066;4.6264;
309.0000;0.1091;4.6289;
309.3000;0.1074;4.6338;
309.6000;0.1188;4.6582;
309.9000;0.1148;4.6533;
310.2000;0.1026;4.6118;
310.5000;0.1058;4.6191;
310.8000;0.1131;4.6338;
311.1000;0.1034;4.6215;
311.4000;0.1107;4.6460;
311.7000;0.0985;4.6142;
312.0000;0.0920;4.5971;
312.3000;0.1026;4.6215;
312.6000;0.1091;4.6435;
312.9000;0.1009;4.6191;
313.2000;0.1091;4.6387;
313.5000;0.1091;4.6338;
313.8000;0.1148;4.6533;
314.1000;0.1058;4.6313;
314.4000;0.1107;4.6264;
314.7000;0.1083;4.6313;
315.0000;0.1131;4.6484;
315.3000;0.1091;4.6264;
315.6000;0.1034;4.6240;
315.9000;0.1058;4.6240;
316.2000;0.1050;4.6264;
316.5000;0.1050;4.6264;
316.8000;0.1050;4.6191;
317.1000;0.1074;4.6264;
317.4000;0.1148;4.6460;
317.7000;0.1066;4.6313;
318.0000;0.1083;4.6362;
318.3000;0.1050;4.6338;
318.6000;0.1099;4.6435;
318.9000;0.1074;4.6435;
319.2000;0.1091;4.6484;
319.5000;0.1083;4.6411;
319.8000;0.1091;4.6362;
320.1000;0.1091;4.6338;
320.4000;0.1066;4.6191;
320.7000;0.1018;4.5946;
321.0000;0.1099;4.6215;
321.3000;0.1066;4.6142;
321.6000;0.1083;4.6142;
321.9000;0.1091;4.6166;
322.2000;0.1066;4.6069;
322.5000;0.1091;4.6069;
322.8000;0.1066;4.5995;
323.1000;0.1066;4.5922;
323.4000;0.1083;4.5946;
323.7000;0.1042;4.5897;
324.0000;0.1083;4.6020;
324.3000;0.1058;4.5946;
324.6000;0.1066;4.5995;
324.9000;0.1009;4.5824;
325.2000;0.1115;4.5971;
325.5000;0.1083;4.5946;
325.8000;0.1205;4.6460;
326.1000;0.1058;4.6020;
326.4000;0.1074;4.5971;
326.7000;0.1091;4.5995;
327.0000;0.1083;4.5946;
327.3000;0.1107;4.6093;
327.6000;0.1050;4.5849;
327.9000;0.1009;4.5751;
328.2000;0.0993;4.5677;
328.5000;0.1050;4.5971;
328.8000;0.1018;4.5800;
329.1000;0.1066;4.5922;
329.4000;0.1042;4.5800;
329.7000;0.1026;4.5751;
330.0000;0.1066;4.5849;
330.3000;0.1066;4.5922;
330.6000;0.1074;4.6044;
330.9000;0.1091;4.6069;
331.2000;0.1058;4.5971;
331.5000;0.1099;4.6020;
331.8000;0.1115;4.6142;
332.1000;0.1050;4.5971;
332.4000;0.1148;4.6215;
332.7000;0.1066;4.6044;
333.0000;0.1123;4.6264;
333.3000;0.1083;4.6264;
333.6000;0.0952;4.5897;
333.9000;0.1066;4.6166;
334.2000;0.1066;4.6118;
334.5000;0.1042;4.6093;
334.8000;0.1099;4.6215;
335.1000;0.1058;4.6118;
335.4000;0.1099;4.6338;
335.7000;0.1123;4.6460;
336.0000;0.1188;4.6582;
336.3000;0.1083;4.6240;
336.6000;0.1042;4.6215;
336.9000;0.1009;4.6093;
337.2000;0.1050;4.6191;
337.5000;0.1042;4.6215;
337.8000;0.1083;4.6264;
338.1000;0.1083;4.6215;
338.4000;0.1058;4.6142;
338.7000;0.1140;4.6338;
339.0000;0.0977;4.5946;
339.3000;0.1074;4.6215;
339.6000;0.1107;4.6264;
339.9000;0.1083;4.6240;
340.2000;0.1042;4.6069;
340.5000;0.1074;4.6191;
340.8000;0.1042;4.6093;
341.1000;0.0961;4.5824;
341.4000;0.1099;4.6240;
341.7000;0.1066;4.6264;
342.0000;0.1074;4.6191;
342.3000;0.1066;4.6118;
342.6000;0.1050;4.6093;
342.9000;0.1042;4.6069;
343.2000;0.1050;4.6166;
343.5000;0.1083;4.6215;
343.8000;0.1083;4.6289;
344.1000;0.1083;4.6362;
344.4000;0.1074;4.6313;
344.7000;0.1083;4.6264;
345.0000;0.1058;4.6166;
345.3000;0.1050;4.6142;
345.6000;0.1099;4.6313;
345.9000;0.1083;4.6191;
346.2000;0.1066;4.6240;
346.5000;0.1026;4.6142;
346.8000;0.0977;4.5971;
347.1000;0.1058;4.6166;
347.4000;0.1074;4.6191;
347.7000;0.1042;4.6118;
348.0000;0.1091;4.6215;
348.3000;0.1066;4.6166;
348.6000;0.1058;4.6191;
348.9000;0.1034;4.6093;
349.2000;0.1099;4.6289;
349.5000;0.1091;4.6191;
349.8000;0.1058;4.6142;
350.1000;0.1074;4.6118;
350.4000;0.1091;4.6240;
350.7000;0.1074;4.6264;
351.0000;0.1050;4.6313;
351.3000;0.1074;4.6338;
351.6000;0.1050;4.6240;
351.9000;0.0969;4.5995;
352.2000;0.1197;4.6387;
352.5000;0.1074;4.6118;
352.8000;0.1066;4.6264;
353.1000;0.1066;4.6313;
353.4000;0.1123;4.6460;
353.7000;0.1074;4.6338;
354.0000;0.0952;4.5946;
354.3000;0.1083;4.6362;
354.6000;0.1099;4.6362;
354.9000;0.1074;4.6240;
355.2000;0.1066;4.6142;
355.5000;0.1083;4.6166;
355.8000;0.1091;4.6191;
356.1000;0.1066;4.6118;
356.4000;0.1091;4.6142;
356.7000;0.0961;4.5775;
357.0000;0.1066;4.6215;
357.3000;0.1074;4.6289;
357.6000;0.1066;4.6240;
357.9000;0.1066;4.6264;
358.2000;0.1074;4.6240;
358.5000;0.1034;4.5995;
358.8000;0.1066;4.6142;
359.1000;0.1042;4.5971;
359.4000;0.1066;4.6044;
359.7000;0.1058;4.6069;
360.0000;0.1018;4.5873;
360.3000;0.1083;4.6044;
360.6000;0.1074;4.6044;
360.9000;0.1066;4.6118;
361.2000;0.1083;4.6215;
361.5000;0.1074;4.6215;
361.8000;0.1050;4.6191;
362.1000;0.1050;4.6289;
362.4000;0.1066;4.6215;
362.7000;0.0952;4.5775;
363.0000;0.1018;4.5971;
363.3000;0.1074;4.6142;
363.6000;0.1001;4.5946;
363.9000;0.1058;4.6044;
364.2000;0.1058;4.6020;
364.5000;0.1091;4.6093;
364.8000;0.1074;4.6142;
365.1000;0.1074;4.6191;
365.4000;0.1058;4.6313;
365.7000;0.0985;4.6118;
366.0000;0.1197;4.6704;
366.3000;0.1148;4.6655;
366.6000;0.1074;4.6435;
366.9000;0.1050;4.6338;
367.2000;0.1066;4.6362;
367.5000;0.1074;4.6313;
367.8000;0.1066;4.6289;
368.1000;0.0936;4.5849;
368.4000;0.1058;4.6166;
368.7000;0.1074;4.6240;
369.0000;0.1083;4.6240;
369.3000;0.1083;4.6264;
369.6000;0.1058;4.6215;
369.9000;0.1091;4.6264;
370.2000;0.1058;4.6093;
370.5000;0.1042;4.6166;
370.8000;0.1156;4.6387;
371.1000;0.1213;4.6533;
371.4000;0.1074;4.6166;
371.7000;0.1058;4.6093;
372.0000;0.1050;4.6118;
372.3000;0.1074;4.6191;
372.6000;0.1058;4.6118;
372.9000;0.1066;4.6118;
373.2000;0.1026;4.6093;
373.5000;0.1058;4.6264;
373.8000;0.1131;4.6411;
374.1000;0.1058;4.6264;
374.4000;0.1131;4.6484;
374.7000;0.1066;4.6191;
375.0000;0.1074;4.6191;
375.3000;0.1123;4.6338;
375.6000;0.1066;4.6240;
375.9000;0.1066;4.6240;
376.2000;0.1074;4.6289;
376.5000;0.1123;4.6362;
376.8000;0.1050;4.6191;
377.1000;0.1058;4.6166;
377.4000;0.1099;4.6313;
377.7000;0.1066;4.6142;
378.0000;0.1066;4.6118;
378.3000;0.1058;4.6166;
378.6000;0.1099;4.6240;
378.9000;0.1091;4.6215;
379.2000;0.1034;4.6044;
379.5000;0.1107;4.6215;
379.8000;0.1066;4.6142;
380.1000;0.1066;4.6118;
380.4000;0.1172;4.6411;
380.7000;0.1066;4.6118;
381.0000;0.1050;4.6093;
381.3000;0.1074;4.6118;
381.6000;0.1099;4.6215;
381.9000;0.1074;4.6191;
382.2000;0.1074;4.6215;
382.5000;0.1058;4.6142;
382.8000;0.1083;4.6191;
383.1000;0.1066;4.6118;
383.4000;0.1058;4.6166;
383.7000;0.1091;4.6240;
384.0000;0.1074;4.6142;
384.3000;0.1001;4.6020;
384.6000;0.1066;4.6215;
384.9000;0.1042;4.6264;
385.2000;0.1034;4.6289;
385.5000;0.0985;4.6191;
385.8000;0.1066;4.6362;
386.1000;0.1050;4.6362;
386.4000;0.1026;4.6264;
386.7000;0.1058;4.6411;
387.0000;0.1180;4.6655;
387.3000;0.0977;4.5995;
387.6000;0.1018;4.6191;
387.9000;0.1074;4.6240;
388.2000;0.1115;4.6411;
388.5000;0.1066;4.6338;
388.8000;0.1074;4.6362;
389.1000;0.1074;4.6313;
389.4000;0.1074;4.6264;
389.7000;0.1156;4.6582;
390.0000;0.1083;4.6313;
390.3000;0.1058;4.6215;
390.6000;0.1074;4.6215;
390.9000;0.1058;4.6166;
391.2000;0.1066;4.6191;
391.5000;0.1058;4.6240;
391.8000;0.1058;4.6264;
392.1000;0.1042;4.6240;
392.4000;0.1066;4.6264;
392.7000;0.1066;4.6313;
393.0000;0.1083;4.6362;
393.3000;0.1074;4.6289;
393.6000;0.1050;4.6215;
393.9000;0.1091;4.6289;
394.2000;0.1074;4.6240;
394.5000;0.1042;4.6142;
394.8000;0.1074;4.6166;
395.1000;0.1083;4.6215;
395.4000;0.1083;4.6264;
395.7000;0.1107;4.6313;
396.0000;0.1091;4.6289;
396.3000;0.1058;4.6240;
396.6000;0.1066;4.6313;
396.9000;0.1066;4.6240;
397.2000;0.1050;4.6191;
397.5000;0.1050;4.6166;
397.8000;0.1050;4.6166;
398.1000;0.1099;4.6387;
398.4000;0.1034;4.6240;
398.7000;0.1091;4.6362;
399.0000;0.1058;4.6240;
399.3000;0.1066;4.6264;
399.6000;0.1058;4.6215;
399.9000;0.0993;4.5995;
400.2000;0.1066;4.6142;
400.5000;0.1083;4.6142;
400.8000;0.1058;4.6118;
401.1000;0.1074;4.6166;
401.4000;0.1018;4.6093;
401.7000;0.1058;4.6191;
402.0000;0.1042;4.6166;
402.3000;0.1091;4.6215;
402.6000;0.1074;4.6215;
402.9000;0.1050;4.6191;
403.2000;0.1074;4.6240;
403.5000;0.1058;4.6142;
403.8000;0.1026;4.5995;
404.1000;0.1034;4.6093;
404.4000;0.1066;4.6142;
404.7000;0.1050;4.6093;
405.0000;0.1107;4.6191;
405.3000;0.1066;4.6215;
405.6000;0.1197;4.6460;
405.9000;0.0993;4.5873;
406.2000;0.1091;4.6118;
406.5000;0.1058;4.5971;
406.8000;0.1099;4.6118;
407.1000;0.1083;4.6118;
407.4000;0.1018;4.6044;
407.7000;0.1074;4.6069;
408.0000;0.1074;4.6069;
408.3000;0.1140;4.6240;
408.6000;0.1042;4.6118;
408.9000;0.1026;4.6240;
409.2000;0.1066;4.6289;
409.5000;0.1058;4.6215;
409.8000;0.1066;4.6142;
410.1000;0.1034;4.5995;
410.4000;0.1099;4.6166;
410.7000;0.1042;4.6069;
411.0000;0.1156;4.6362;
411.3000;0.0961;4.5824;
411.6000;0.1001;4.5873;
411.9000;0.1066;4.6020;
412.2000;0.1074;4.5971;
412.5000;0.0993;4.5824;
412.8000;0.1058;4.6020;
413.1000;0.1083;4.6093;
413.4000;0.1066;4.6020;
413.7000;0.1099;4.5971;
414.0000;0.1066;4.5849;
414.3000;0.1091;4.5946;
414.6000;0.1107;4.5995;
414.9000;0.1083;4.5922;
415.2000;0.1042;4.5873;
415.5000;0.1091;4.5897;
415.8000;0.1074;4.5897;
416.1000;0.1180;4.6118;
416.4000;0.1050;4.5800;
416.7000;0.1050;4.5873;
417.0000;0.1058;4.5897;
417.3000;0.1066;4.5922;
417.6000;0.1058;4.5922;
417.9000;0.1091;4.6020;
418.2000;0.1042;4.5873;
418.5000;0.1050;4.5824;
418.8000;0.1115;4.6020;
419.1000;0.1099;4.5971;
419.4000;0.1074;4.5897;
419.7000;0.1066;4.5800;
420.0000;0.1050;4.5751;
420.3000;0.0985;4.5531;
420.6000;0.1083;4.5849;
420.9000;0.1058;4.5775;
421.2000;0.1131;4.6044;
421.5000;0.1083;4.6044;
421.8000;0.1099;4.6142;
422.1000;0.1066;4.6093;
422.4000;0.1083;4.6118;
422.7000;0.1148;4.6411;
423.0000;0.1042;4.6118;
423.3000;0.0969;4.5849;
423.6000;0.1050;4.6118;
423.9000;0.1083;4.6240;
424.2000;0.1058;4.6264;
424.5000;0.1009;4.6166;
424.8000;0.1058;4.6191;
425.1000;0.1083;4.6215;
425.4000;0.1074;4.6191;
425.7000;0.0977;4.5897;
426.0000;0.1148;4.6411;
426.3000;0.1058;4.6191;
426.6000;0.1066;4.6240;
426.9000;0.1066;4.6264;
427.2000;0.1066;4.6264;
427.5000;0.1148;4.6435;
427.8000;0.1042;4.6118;
428.1000;0.1083;4.6215;
428.4000;0.1083;4.6215;
428.7000;0.1009;4.5971;
429.0000;0.1066;4.6166;
429.3000;0.1083;4.6215;
429.6000;0.1140;4.6264;
429.9000;0.1107;4.6215;
430.2000;0.1050;4.6044;
430.5000;0.1042;4.6020;
430.8000;0.1107;4.6166;
431.1000;0.1107;4.6166;
431.4000;0.1050;4.6020;
431.7000;0.1058;4.6069;
432.0000;0.1058;4.6093;
432.3000;0.1066;4.6142;
432.6000;0.1034;4.6020;
432.9000;0.1107;4.6191;
433.2000;0.1091;4.6166;
433.5000;0.1083;4.6240;
433.8000;0.1034;4.6069;
434.1000;0.1074;4.6215;
434.4000;0.1058;4.6142;
434.7000;0.1058;4.6166;
435.0000;0.1042;4.6118;
435.3000;0.1042;4.6142;
435.6000;0.1034;4.6093;
435.9000;0.1009;4.6020;
436.2000;0.1058;4.6215;
436.5000;0.1083;4.6313;
436.8000;0.1042;4.6215;
437.1000;0.1140;4.6533;
437.4000;0.1042;4.6166;
437.7000;0.1050;4.6118;
438.0000;0.1091;4.6362;
438.3000;0.1083;4.6362;
438.6000;0.1099;4.6338;
438.9000;0.1050;4.6240;
439.2000;0.1058;4.6313;
439.5000;0.1083;4.6362;
439.8000;0.1050;4.6240;
440.1000;0.1074;4.6264;
440.4000;0.1083;4.6313;
440.7000;0.1091;4.6240;
441.0000;0.1058;4.6191;
441.3000;0.1083;4.6166;
441.6000;0.1074;4.6166;
441.9000;0.1042;4.6093;
442.2000;0.1058;4.6044;
442.5000;0.1050;4.6118;
442.8000;0.1074;4.6240;
443.1000;0.1066;4.6240;
443.4000;0.1099;4.6264;
443.7000;0.1074;4.6264;
444.0000;0.1074;4.6411;
444.3000;0.1156;4.6631;
444.6000;0.1066;4.6240;
444.9000;0.1107;4.6338;
445.2000;0.1091;4.6338;
445.5000;0.1083;4.6338;
445.8000;0.1034;4.6118;
446.1000;0.1058;4.6240;
446.4000;0.1066;4.6240;
446.7000;0.1042;4.6191;
447.0000;0.1050;4.6191;
447.3000;0.1066;4.6191;
447.6000;0.1140;4.6362;
447.9000;0.1050;4.6142;
448.2000;0.1074;4.6264;
448.5000;0.1050;4.6191;
448.8000;0.1034;4.6191;
449.1000;0.1058;4.6240;
449.4000;0.1034;4.6191;
449.7000;0.1009;4.6118;
450.0000;0.1050;4.6166;
450.3000;0.1034;4.6191;
450.6000;0.1058;4.6313;
450.9000;0.1058;4.6435;
451.2000;0.1034;4.6338;
451.5000;0.1058;4.6387;
451.8000;0.1050;4.6338;
452.1000;0.1074;4.6240;
452.4000;0.1034;4.6215;
452.7000;0.1050;4.6215;
453.0000;0.1083;4.6362;
453.3000;0.1091;4.6435;
453.6000;0.1058;4.6338;
453.9000;0.1074;4.6362;
454.2000;0.1148;4.6460;
454.5000;0.1050;4.6166;
454.8000;0.1066;4.6215;
455.1000;0.1066;4.6215;
455.4000;0.1058;4.6362;
455.7000;0.1058;4.6362;
456.0000;0.1091;4.6411;
456.3000;0.1042;4.6215;
456.6000;0.1083;4.6313;
456.9000;0.1074;4.6313;
457.2000;0.1099;4.6362;
457.5000;0.1058;4.6240;
457.8000;0.1042;4.6191;
458.1000;0.1050;4.6215;
458.4000;0.1066;4.6289;
458.7000;0.1034;4.6264;
459.0000;0.1050;4.6215;
459.3000;0.1074;4.6240;
459.6000;0.1099;4.6240;
459.9000;0.1099;4.6142;
460.2000;0.1050;4.5995;
460.5000;0.1042;4.6020;
460.8000;0.1042;4.6044;
461.1000;0.1123;4.6215;
461.4000;0.1074;4.6020;
461.7000;0.1042;4.5873;
462.0000;0.1083;4.5995;
462.3000;0.1066;4.5897;
462.6000;0.1083;4.5897;
462.9000;0.1058;4.5946;
463.2000;0.1074;4.6044;
463.5000;0.1050;4.5995;
463.8000;0.1058;4.6166;
464.1000;0.1066;4.6191;
464.4000;0.1099;4.6264;
464.7000;0.1091;4.6191;
465.0000;0.1083;4.6215;
465.3000;0.1058;4.6142;
465.6000;0.1034;4.6069;
465.9000;0.1018;4.6044;
466.2000;0.1066;4.6289;
466.5000;0.1066;4.6264;
466.8000;0.1074;4.6191;
467.1000;0.1058;4.6142;
467.4000;0.1083;4.6142;
467.7000;0.1058;4.6191;
468.0000;0.1074;4.6191;
468.3000;0.1074;4.6215;
468.6000;0.1074;4.6240;
468.9000;0.1042;4.6118;
469.2000;0.1074;4.6166;
469.5000;0.1026;4.6020;
469.8000;0.1042;4.6069;
470.1000;0.1066;4.6142;
470.4000;0.1156;4.6411;
470.7000;0.1058;4.6166;
471.0000;0.1074;4.6118;
471.3000;0.1050;4.6142;
471.6000;0.1123;4.6338;
471.9000;0.1066;4.6240;
472.2000;0.1058;4.6166;
472.5000;0.1066;4.6166;
472.8000;0.1066;4.6142;
473.1000;0.0952;4.5800;
473.4000;0.1099;4.6118;
473.7000;0.1074;4.6118;
474.0000;0.1083;4.6166;
474.3000;0.1066;4.6191;
474.6000;0.1099;4.6215;
474.9000;0.1099;4.6240;
475.2000;0.1083;4.6215;
475.5000;0.1123;4.6338;
475.8000;0.1058;4.6069;
476.1000;0.1009;4.5946;
476.4000;0.1050;4.6044;
476.7000;0.1058;4.6142;
477.0000;0.1058;4.6118;
477.3000;0.1050;4.6142;
477.6000;0.1074;4.6264;
477.9000;0.1042;4.6191;
478.2000;0.1058;4.6142;
478.5000;0.1026;4.5971;
478.8000;0.1083;4.6191;
479.1000;0.1066;4.6191;
479.4000;0.1083;4.6118;
479.7000;0.1026;4.5946;
480.0000;0.1050;4.6020;
480.3000;0.1066;4.6240;
480.6000;0.1066;4.6166;
480.9000;0.1058;4.6142;
481.2000;0.1050;4.6142;
481.5000;0.1050;4.6166;
481.8000;0.1099;4.6215;
482.1000;0.1115;4.6264;
482.4000;0.1074;4.6215;
482.7000;0.1058;4.6264;
483.0000;0.1074;4.6118;
483.3000;0.1074;4.6093;
483.6000;0.1066;4.6044;
483.9000;0.1042;4.5971;
484.2000;0.1083;4.6118;
484.5000;0.1066;4.5995;
484.8000;0.1058;4.6020;
485.1000;0.1156;4.6240;
485.4000;0.1091;4.6142;
485.7000;0.1050;4.6020;
486.0000;0.1058;4.6020;
486.3000;0.1050;4.6020;
486.6000;0.1091;4.6142;
486.9000;0.1050;4.5995;
487.2000;0.1058;4.6044;
487.5000;0.1058;4.5995;
487.8000;0.1066;4.6044;
488.1000;0.1034;4.6020;
488.4000;0.1058;4.6069;
488.7000;0.1074;4.6118;
489.0000;0.1091;4.6240;
489.3000;0.1042;4.6069;
489.6000;0.1083;4.6191;
489.9000;0.1066;4.6118;
490.2000;0.1140;4.6191;
490.5000;0.1026;4.5824;
490.8000;0.1074;4.6020;
491.1000;0.1058;4.6044;
491.4000;0.1066;4.6044;
491.7000;0.1058;4.6093;
492.0000;0.1050;4.6020;
492.3000;0.1099;4.6118;
492.6000;0.1050;4.6069;
492.9000;0.1074;4.6142;
493.2000;0.1058;4.6069;
493.5000;0.1066;4.6118;
493.8000;0.1074;4.6118;
494.1000;0.1066;4.6142;
494.4000;0.1131;4.6215;
494.7000;0.1066;4.6069;
495.0000;0.1042;4.5995;
495.3000;0.1066;4.6166;
495.6000;0.1083;4.6240;
495.9000;0.1026;4.6044;
496.2000;0.0928;4.5824;
496.5000;0.1123;4.6362;
496.8000;0.1074;4.6093;
497.1000;0.1050;4.6069;
497.4000;0.1123;4.6215;
497.7000;0.1091;4.6044;
498.0000;0.1066;4.5971;
498.3000;0.1066;4.5995;
498.6000;0.1074;4.5995;
498.9000;0.1074;4.5971;
499.2000;0.1083;4.5971;
499.5000;0.1066;4.5849;
499.8000;0.1042;4.5849;
500.1000;0.1066;4.6069;
500.4000;0.1074;4.6191;
500.7000;0.1009;4.6044;
501.0000;0.1074;4.6118;
501.3000;0.1058;4.6118;
501.6000;0.1074;4.6093;
501.9000;0.1066;4.6093;
502.2000;0.1058;4.6069;
502.5000;0.1107;4.6118;
502.8000;0.1050;4.5946;
503.1000;0.1058;4.5946;
503.4000;0.1042;4.5897;
503.7000;0.1042;4.6044;
504.0000;0.1058;4.5995;
504.3000;0.1083;4.6069;
504.6000;0.0993;4.5849;
504.9000;0.1091;4.5995;
505.2000;0.1074;4.5946;
505.5000;0.1066;4.5946;
505.8000;0.1115;4.6118;
506.1000;0.1074;4.5995;
506.4000;0.1058;4.5971;
506.7000;0.1026;4.5849;
507.0000;0.1074;4.5995;
507.3000;0.1058;4.6069;
507.6000;0.1083;4.6093;
507.9000;0.1074;4.6044;
508.2000;0.1058;4.6044;
508.5000;0.1066;4.6093;
508.8000;0.1001;4.5922;
509.1000;0.1074;4.6142;
509.4000;0.1074;4.6069;
509.7000;0.1058;4.6069;
510.0000;0.1050;4.6044;
510.3000;0.1066;4.6069;
510.6000;0.0936;4.5775;
510.9000;0.1066;4.6191;
511.2000;0.1058;4.6166;
511.5000;0.1050;4.6118;
511.8000;0.1009;4.6020;
512.1000;0.1074;4.6142;
512.4000;0.1066;4.6191;
512.7000;0.1083;4.6166;
513.0000;0.1074;4.6142;
513.3000;0.1074;4.6142;
513.6000;0.1074;4.6166;
513.9000;0.1050;4.6118;
514.2000;0.1034;4.6093;
514.5000;0.1066;4.6093;
514.8000;0.1066;4.6166;
515.1000;0.1034;4.6118;
515.4000;0.1034;4.6118;
515.7000;0.1091;4.6215;
516.0000;0.1042;4.6166;
516.3000;0.1058;4.6166;
516.6000;0.1034;4.6069;
516.9000;0.1083;4.6264;
517.2000;0.1115;4.6313;
517.5000;0.1058;4.6093;
517.8000;0.1058;4.5971;
518.1000;0.1050;4.5897;
518.4000;0.1034;4.5873;
518.7000;0.1091;4.6020;
519.0000;0.1074;4.5971;
519.3000;0.1066;4.5849;
519.6000;0.1148;4.6044;
519.9000;0.1074;4.5946;
520.2000;0.1099;4.6069;
520.5000;0.1131;4.6118;
520.8000;0.1091;4.6020;
521.1000;0.1091;4.6093;
521.4000;0.1058;4.6118;
521.7000;0.1018;4.5971;
522.0000;0.1074;4.6166;
522.3000;0.1197;4.6509;
522.6000;0.0952;4.5922;
522.9000;0.1058;4.6093;
523.2000;0.1066;4.6069;
523.5000;0.1058;4.6020;
523.8000;0.1074;4.6142;
524.1000;0.1066;4.6044;
524.4000;0.1058;4.6142;
524.7000;0.1042;4.6166;
525.0000;0.1083;4.6264;
525.3000;0.1058;4.6166;
525.6000;0.1058;4.6118;
525.9000;0.1083;4.6142;
526.2000;0.1009;4.5922;
526.5000;0.1042;4.6020;
526.8000;0.1091;4.6215;
527.1000;0.1042;4.6118;
527.4000;0.1074;4.6118;
527.7000;0.1058;4.6044;
528.0000;0.1123;4.6313;
528.3000;0.0985;4.5897;
528.6000;0.1140;4.6338;
528.9000;0.1066;4.6069;
529.2000;0.1083;4.6240;
529.5000;0.1066;4.6215;
529.8000;0.1066;4.6118;
530.1000;0.1058;4.6093;
530.4000;0.1058;4.6166;
530.7000;0.1099;4.6264;
531.0000;0.1050;4.6020;
531.3000;0.1034;4.5946;
531.6000;0.1058;4.5971;
531.9000;0.1074;4.6020;
532.2000;0.1091;4.6044;
532.5000;0.1091;4.6069;
532.8000;0.1066;4.6118;
533.1000;0.1018;4.6118;
533.4000;0.1009;4.6118;
533.7000;0.1058;4.6240;
534.0000;0.1050;4.6240;
534.3000;0.1042;4.6240;
534.6000;0.1066;4.6264;
534.9000;0.1074;4.6142;
535.2000;0.0993;4.5922;
535.5000;0.1050;4.6020;
535.8000;0.1018;4.5946;
536.1000;0.1066;4.6044;
536.4000;0.1156;4.6215;
536.7000;0.0993;4.5653;
537.0000;0.1066;4.5995;
537.3000;0.0952;4.5677;
537.6000;0.1058;4.6044;
537.9000;0.1042;4.6044;
538.2000;0.1066;4.6142;
538.5000;0.1042;4.6166;
538.8000;0.1066;4.6142;
539.1000;0.1091;4.6215;
539.4000;0.0936;4.5800;
539.7000;0.1074;4.6191;
540.0000;0.1091;4.6240;
540.3000;0.1058;4.6142;
540.6000;0.1099;4.6240;
540.9000;0.1058;4.6142;
541.2000;0.1066;4.6142;
541.5000;0.1050;4.6093;
541.8000;0.1066;4.6118;
542.1000;0.1058;4.6044;
542.4000;0.1026;4.5922;
542.7000;0.1123;4.6191;
543.0000;0.1042;4.6093;
543.3000;0.1164;4.6362;
543.6000;0.1115;4.6338;
543.9000;0.1066;4.6142;
544.2000;0.1066;4.6069;
544.5000;0.1115;4.6240;
544.8000;0.1042;4.6142;
545.1000;0.1034;4.6093;
545.4000;0.1074;4.6020;
545.7000;0.1172;4.6191;
546.0000;0.1042;4.5800;
546.3000;0.1058;4.5873;
546.6000;0.1058;4.5873;
546.9000;0.1050;4.5922;
547.2000;0.1050;4.5971;
547.5000;0.1083;4.6118;
547.8000;0.1066;4.6020;
548.1000;0.1050;4.6044;
548.4000;0.1066;4.6093;
548.7000;0.1066;4.6191;
549.0000;0.1172;4.6509;
549.3000;0.1099;4.6191;
549.6000;0.1066;4.6020;
549.9000;0.1058;4.6044;
550.2000;0.1074;4.6044;
550.5000;0.1074;4.6044;
550.8000;0.1050;4.5995;
551.1000;0.1074;4.6044;
551.4000;0.1050;4.5971;
551.7000;0.1058;4.5995;
552.0000;0.1042;4.5995;
552.3000;0.0969;4.5775;
552.6000;0.1066;4.6069;
552.9000;0.1131;4.6313;
553.2000;0.1058;4.6093;
553.5000;0.1140;4.6264;
553.8000;0.1009;4.5897;
554.1000;0.1074;4.5995;
554.4000;0.1083;4.6020;
554.7000;0.1058;4.5946;
555.0000;0.1074;4.6044;
555.3000;0.1066;4.6044;
555.6000;0.1066;4.6044;
555.9000;0.1058;4.6044;
556.2000;0.1066;4.6093;
556.5000;0.1123;4.6191;
556.8000;0.1058;4.5971;
557.1000;0.1034;4.5897;
557.4000;0.1042;4.5971;
557.7000;0.1099;4.6069;
558.0000;0.1001;4.5824;
558.3000;0.1074;4.5971;
558.6000;0.1018;4.5775;
558.9000;0.1066;4.5775;
559.2000;0.1066;4.5849;
559.5000;0.1066;4.5922;
559.8000;0.1058;4.5849;
560.1000;0.1074;4.5922;
560.4000;0.1115;4.6118;
560.7000;0.1050;4.6020;
561.0000;0.1083;4.6142;
561.3000;0.1148;4.6387;
561.6000;0.1074;4.6093;
561.9000;0.0977;4.5849;
562.2000;0.1050;4.5971;
562.5000;0.1066;4.5995;
562.8000;0.1001;4.5849;
563.1000;0.1091;4.6142;
563.4000;0.1107;4.6118;
563.7000;0.1074;4.5995;
564.0000;0.1115;4.6093;
564.3000;0.1009;4.5775;
564.6000;0.1091;4.5971;
564.9000;0.1074;4.5946;
565.2000;0.1018;4.5824;
565.5000;0.1074;4.5922;
565.8000;0.1058;4.5873;
566.1000;0.1050;4.5849;
566.4000;0.1026;4.5824;
566.7000;0.1058;4.5849;
567.0000;0.1034;4.5824;
567.3000;0.1066;4.5849;
567.6000;0.1050;4.5849;
567.9000;0.1042;4.5824;
568.2000;0.1074;4.6069;
568.5000;0.1034;4.5995;
568.8000;0.1066;4.6118;
569.1000;0.1091;4.6166;
569.4000;0.1083;4.6191;
569.7000;0.0993;4.5922;
570.0000;0.1074;4.6191;
570.3000;0.1074;4.6118;
570.6000;0.1050;4.6020;
570.9000;0.0985;4.5849;
571.2000;0.1058;4.6044;
571.5000;0.1083;4.6191;
571.8000;0.1066;4.6191;
572.1000;0.1066;4.6215;
572.4000;0.1066;4.6289;
572.7000;0.1066;4.6264;
573.0000;0.1099;4.6313;
573.3000;0.1058;4.6215;
573.6000;0.1083;4.6289;
573.9000;0.1050;4.6289;
574.2000;0.1042;4.6191;
574.5000;0.1050;4.6118;
574.8000;0.1074;4.6240;
575.1000;0.1074;4.6264;
575.4000;0.1066;4.6338;
575.7000;0.1091;4.6338;
576.0000;0.1050;4.6191;
576.3000;0.1034;4.6118;
576.6000;0.1099;4.6264;
576.9000;0.1180;4.6460;
577.2000;0.1083;4.6142;
577.5000;0.0920;4.5677;
577.8000;0.1001;4.5824;
578.1000;0.1115;4.6142;
578.4000;0.1018;4.5897;
578.7000;0.1172;4.6387;
579.0000;0.1034;4.6020;
579.3000;0.1083;4.6093;
579.6000;0.1050;4.5971;
579.9000;0.1058;4.5995;
580.2000;0.1083;4.6118;
580.5000;0.1083;4.6118;
580.8000;0.1042;4.6044;
581.1000;0.1050;4.6118;
581.4000;0.1058;4.6118;
581.7000;0.1058;4.6191;
582.0000;0.1074;4.6215;
582.3000;0.1074;4.6166;
582.6000;0.1091;4.6166;
582.9000;0.1058;4.6118;
583.2000;0.1066;4.6191;
583.5000;0.1074;4.6215;
583.8000;0.1066;4.6166;
584.1000;0.0969;4.5849;
584.4000;0.1066;4.6093;
584.7000;0.1074;4.6118;
585.0000;0.1066;4.6142;
585.3000;0.1042;4.6069;
585.6000;0.1074;4.6240;
585.9000;0.1066;4.6240;
586.2000;0.1042;4.6118;
586.5000;0.1066;4.6118;
586.8000;0.1074;4.6118;
587.1000;0.1083;4.6166;
587.4000;0.1156;4.6338;
587.7000;0.1074;4.6118;
588.0000;0.1050;4.5971;
588.3000;0.1074;4.5995;
588.6000;0.1074;4.5922;
588.9000;0.0944;4.5677;
589.2000;0.1009;4.5873;
589.5000;0.1018;4.6044;
589.8000;0.1066;4.6166;
590.1000;0.1123;4.6264;
590.4000;0.1058;4.6264;
590.7000;0.1058;4.6338;
591.0000;0.1091;4.6338;
591.3000;0.1083;4.6313;
591.6000;0.1074;4.6362;
591.9000;0.1050;4.6313;
592.2000;0.1066;4.6313;
592.5000;0.1058;4.6289;
592.8000;0.1050;4.6338;
593.1000;0.1123;4.6509;
593.4000;0.1083;4.6338;
593.7000;0.1050;4.6338;
594.0000;0.1205;4.6680;
594.3000;0.1099;4.6387;
594.6000;0.1066;4.6215;
594.9000;0.1050;4.6166;
595.2000;0.1066;4.6264;
595.5000;0.1091;4.6362;
595.8000;0.1099;4.6289;
596.1000;0.1172;4.6533;
596.4000;0.1050;4.6142;
596.7000;0.1050;4.6093;
597.0000;0.1058;4.6118;
597.3000;0.1083;4.6191;
597.6000;0.1018;4.6020;
597.9000;0.1018;4.6020;
598.2000;0.1001;4.6044;
598.5000;0.1091;4.6240;
598.8000;0.1058;4.6191;
599.1000;0.1066;4.6191;
599.4000;0.1042;4.6142;
599.7000;0.1091;4.6338;
600.0000;0.1058;4.6313;
600.3000;0.1001;4.6044;
600.6000;0.1066;4.6142;
600.9000;0.1066;4.6044;
601.2000;0.1042;4.5971;
601.5000;0.1042;4.5751;
601.8000;0.1042;4.5751;
602.1000;0.1058;4.5702;
602.4000;0.1026;4.5555;
602.7000;0.1009;4.5457;
603.0000;0.1042;4.5360;
603.3000;0.1034;4.5408;
603.6000;0.1026;4.5360;
603.9000;0.1009;4.5237;
604.2000;0.1050;4.5335;
604.5000;0.1018;4.5164;
604.8000;0.1001;4.5042;
605.1000;0.0977;4.4919;
605.4000;0.1001;4.4944;
605.7000;0.0993;4.4919;
606.0000;0.1001;4.4968;
606.3000;0.0985;4.4919;
606.6000;0.0969;4.4895;
606.9000;0.0904;4.4626;
607.2000;0.0993;4.4944;
607.5000;0.0969;4.4993;
607.8000;0.0977;4.4919;
608.1000;0.0961;4.4846;
608.4000;0.0977;4.4944;
608.7000;0.0977;4.4944;
609.0000;0.0961;4.4895;
609.3000;0.0993;4.4895;
609.6000;0.0977;4.4773;
609.9000;0.1009;4.4870;
610.2000;0.0944;4.4626;
610.5000;0.0961;4.4675;
610.8000;0.1034;4.4846;
611.1000;0.1001;4.4846;
611.4000;0.0944;4.4724;
611.7000;0.0961;4.4773;
612.0000;0.0952;4.4724;
612.3000;0.0936;4.4650;
612.6000;0.0993;4.4773;
612.9000;0.0969;4.4699;
613.2000;0.0944;4.4626;
613.5000;0.0977;4.4724;
613.8000;0.0944;4.4650;
614.1000;0.0920;4.4626;
614.4000;0.0912;4.4601;
614.7000;0.0912;4.4601;
615.0000;0.0904;4.4650;
615.3000;0.0920;4.4699;
615.6000;0.0790;4.4161;
615.9000;0.0936;4.4553;
616.2000;0.0944;4.4601;
616.5000;0.0920;4.4479;
616.8000;0.0920;4.4504;
617.1000;0.0944;4.4650;
617.4000;0.0928;4.4675;
617.7000;0.0969;4.4797;
618.0000;0.0912;4.4626;
618.3000;0.0912;4.4601;
618.6000;0.0944;4.4699;
618.9000;0.0928;4.4773;
619.2000;0.0904;4.4724;
619.5000;0.0944;4.4675;
619.8000;0.0920;4.4724;
620.1000;0.0904;4.4650;
620.4000;0.0928;4.4748;
620.7000;0.0920;4.4724;
621.0000;0.0936;4.4846;
621.3000;0.0928;4.4895;
621.6000;0.0912;4.4724;
621.9000;0.0912;4.4773;
622.2000;0.0936;4.4773;
622.5000;0.0895;4.4675;
622.8000;0.0912;4.4650;
623.1000;0.0952;4.4699;
623.4000;0.0920;4.4577;
623.7000;0.0936;4.4601;
624.0000;0.0928;4.4650;
624.3000;0.0863;4.4528;
624.6000;0.0944;4.4773;
624.9000;0.1034;4.5042;
625.2000;0.0944;4.4699;
625.5000;0.0920;4.4650;
625.8000;0.0912;4.4650;
626.1000;0.0912;4.4626;
626.4000;0.0920;4.4675;
626.7000;0.0904;4.4577;
627.0000;0.0952;4.4724;
627.3000;0.0912;4.4675;
627.6000;0.0895;4.4626;
627.9000;0.0920;4.4675;
628.2000;0.0904;4.4626;
628.5000;0.0928;4.4699;
628.8000;0.0912;4.4748;
629.1000;0.0912;4.4797;
629.4000;0.0904;4.4773;
629.7000;0.0879;4.4601;
630.0000;0.0895;4.4577;
630.3000;0.0912;4.4479;
630.6000;0.0871;4.4308;
630.9000;0.0871;4.4284;
631.2000;0.0879;4.4430;
631.5000;0.0904;4.4553;
631.8000;0.0985;4.4870;
632.1000;0.0855;4.4528;
632.4000;0.0920;4.4650;
632.7000;0.0912;4.4724;
633.0000;0.0977;4.4895;
633.3000;0.0871;4.4650;
633.6000;0.0806;4.4504;
633.9000;0.0920;4.4822;
634.2000;0.0855;4.4699;
634.5000;0.0855;4.4675;
634.8000;0.0855;4.4675;
635.1000;0.0904;4.4822;
635.4000;0.0912;4.4773;
635.7000;0.0944;4.4895;
636.0000;0.0912;4.4870;
636.3000;0.0879;4.4822;
636.6000;0.0977;4.5091;
636.9000;0.0847;4.4797;
637.2000;0.0895;4.4846;
637.5000;0.0887;4.4797;
637.8000;0.0879;4.4675;
638.1000;0.0895;4.4748;
638.4000;0.0904;4.4797;
638.7000;0.0912;4.4773;
639.0000;0.0830;4.4455;
639.3000;0.0920;4.4773;
639.6000;0.0887;4.4699;
639.9000;0.0887;4.4699;
640.2000;0.0904;4.4724;
640.5000;0.0879;4.4626;
640.8000;0.0904;4.4699;
641.1000;0.0928;4.4822;
641.4000;0.0895;4.4699;
641.7000;0.0887;4.4724;
642.0000;0.0912;4.4748;
642.3000;0.0887;4.4675;
642.6000;0.0920;4.4773;
642.9000;0.0749;4.4186;
643.2000;0.0944;4.4724;
643.5000;0.0887;4.4626;
643.8000;0.0895;4.4650;
644.1000;0.0879;4.4601;
644.4000;0.0904;4.4724;
644.7000;0.0895;4.4601;
645.0000;0.0895;4.4773;
645.3000;0.0920;4.4919;
645.6000;0.0887;4.4797;
645.9000;0.0879;4.4797;
646.2000;0.0879;4.4675;
646.5000;0.0904;4.4601;
646.8000;0.0879;4.4479;
647.1000;0.0790;4.4308;
647.4000;0.0895;4.4675;
647.7000;0.0904;4.4724;
648.0000;0.0887;4.4748;
648.3000;0.0887;4.4797;
648.6000;0.0887;4.4797;
648.9000;0.0879;4.4748;
649.2000;0.0895;4.4699;
649.5000;0.0904;4.4724;
649.8000;0.0871;4.4748;
650.1000;0.0863;4.4699;
650.4000;0.0985;4.5066;
650.7000;0.0871;4.4773;
651.0000;0.0912;4.4870;
651.3000;0.0887;4.4797;
651.6000;0.0871;4.4748;
651.9000;0.0855;4.4650;
652.2000;0.0830;4.4528;
652.5000;0.0879;4.4650;
652.8000;0.0773;4.4430;
653.1000;0.0855;4.4724;
653.4000;0.0822;4.4626;
653.7000;0.0977;4.5091;
654.0000;0.0871;4.4822;
654.3000;0.0863;4.4822;
654.6000;0.0863;4.4870;
654.9000;0.0863;4.4773;
655.2000;0.0871;4.4773;
655.5000;0.0887;4.4748;
655.8000;0.0863;4.4797;
656.1000;0.0871;4.4870;
656.4000;0.0936;4.4968;
656.7000;0.0822;4.4626;
657.0000;0.0895;4.4724;
657.3000;0.0781;4.4430;
657.6000;0.0863;4.4724;
657.9000;0.0887;4.4797;
658.2000;0.0871;4.4748;
658.5000;0.0920;4.4870;
658.8000;0.0822;4.4577;
659.1000;0.0887;4.4822;
659.4000;0.0920;4.4870;
659.7000;0.0871;4.4822;
660.0000;0.0863;4.4797;
660.3000;0.0879;4.4699;
660.6000;0.0855;4.4626;
660.9000;0.0863;4.4699;
661.2000;0.0895;4.4797;
661.5000;0.0806;4.4601;
661.8000;0.0871;4.4699;
662.1000;0.0871;4.4650;
662.4000;0.0879;4.4675;
662.7000;0.0904;4.4773;
663.0000;0.0887;4.4724;
663.3000;0.0879;4.4699;
663.6000;0.0871;4.4699;
663.9000;0.0912;4.4748;
664.2000;0.0879;4.4724;
664.5000;0.0871;4.4650;
664.8000;0.0887;4.4773;
665.1000;0.0855;4.4724;
665.4000;0.0912;4.4895;
665.7000;0.0912;4.4919;
666.0000;0.0887;4.4797;
666.3000;0.0895;4.4699;
666.6000;0.0847;4.4626;
666.9000;0.0847;4.4650;
667.2000;0.0879;4.4748;
667.5000;0.0879;4.4724;
667.8000;0.0928;4.4944;
668.1000;0.0904;4.4822;
668.4000;0.0871;4.4748;
668.7000;0.0871;4.4675;
669.0000;0.0895;4.4724;
669.3000;0.0961;4.4870;
669.6000;0.0855;4.4699;
669.9000;0.0879;4.4773;
670.2000;0.0912;4.4895;
670.5000;0.0895;4.4870;
670.8000;0.0863;4.4895;
671.1000;0.0741;4.4626;
671.4000;0.0847;4.4968;
671.7000;0.0838;4.4797;
672.0000;0.0879;4.4895;
672.3000;0.0855;4.4797;
672.6000;0.0855;4.4822;
672.9000;0.0879;4.4846;
673.2000;0.0887;4.4870;
673.5000;0.0952;4.5017;
673.8000;0.0871;4.4773;
674.1000;0.0871;4.4699;
674.4000;0.0928;4.4846;
674.7000;0.0879;4.4675;
675.0000;0.0847;4.4626;
675.3000;0.0936;4.4822;
675.6000;0.0879;4.4724;
675.9000;0.0798;4.4528;
676.2000;0.0838;4.4650;
676.5000;0.0838;4.4650;
676.8000;0.0904;4.4968;
677.1000;0.0871;4.4919;
677.4000;0.0863;4.4895;
677.7000;0.0871;4.4870;
678.0000;0.0863;4.4797;
678.3000;0.0887;4.4748;
678.6000;0.0895;4.4822;
678.9000;0.0855;4.4773;
679.2000;0.0806;4.4675;
679.5000;0.0879;4.4822;
679.8000;0.0871;4.4724;
680.1000;0.0871;4.4724;
680.4000;0.0863;4.4748;
680.7000;0.0871;4.4724;
681.0000;0.0887;4.4846;
681.3000;0.0879;4.4846;
681.6000;0.0863;4.4822;
681.9000;0.0847;4.4724;
682.2000;0.0863;4.4699;
682.5000;0.0871;4.4699;
682.8000;0.0724;4.4284;
683.1000;0.0879;4.4724;
683.4000;0.0879;4.4748;
683.7000;0.0871;4.4797;
684.0000;0.0863;4.4699;
684.3000;0.0822;4.4626;
684.6000;0.0895;4.4895;
684.9000;0.0855;4.4724;
685.2000;0.0904;4.4870;
685.5000;0.0708;4.4381;
685.8000;0.0871;4.4748;
686.1000;0.0887;4.4797;
686.4000;0.0879;4.4773;
686.7000;0.0847;4.4699;
687.0000;0.0863;4.4675;
687.3000;0.0871;4.4626;
687.6000;0.0863;4.4675;
687.9000;0.0871;4.4675;
688.2000;0.0863;4.4773;
688.5000;0.0855;4.4699;
688.8000;0.0814;4.4650;
689.1000;0.0830;4.4699;
689.4000;0.0879;4.4944;
689.7000;0.0871;4.4993;
690.0000;0.0871;4.4944;
690.3000;0.0798;4.4724;
690.6000;0.0863;4.4797;
690.9000;0.0879;4.4797;
691.2000;0.0895;4.4773;
691.5000;0.0871;4.4675;
691.8000;0.0855;4.4626;
692.1000;0.0871;4.4650;
692.4000;0.0936;4.4870;
692.7000;0.0814;4.4601;
693.0000;0.0879;4.4797;
693.3000;0.0912;4.4968;
693.6000;0.0863;4.4724;
693.9000;0.0871;4.4699;
694.2000;0.0871;4.4773;
694.5000;0.0863;4.4797;
694.8000;0.0879;4.4870;
695.1000;0.0879;4.4846;
695.4000;0.0879;4.4822;
695.7000;0.0847;4.4748;
696.0000;0.0863;4.4919;
696.3000;0.0855;4.4919;
696.6000;0.0830;4.4797;
696.9000;0.0887;4.4822;
697.2000;0.0871;4.4797;
697.5000;0.0871;4.4773;
697.8000;0.0879;4.4846;
698.1000;0.0863;4.4699;
698.4000;0.0879;4.4822;
698.7000;0.0887;4.4895;
699.0000;0.0920;4.4993;
699.3000;0.0879;4.4944;
699.6000;0.0887;4.4773;
699.9000;0.0855;4.4626;
700.2000;0.0871;4.4675;
700.5000;0.0855;4.4650;
700.8000;0.0863;4.4650;
701.1000;0.0895;4.4675;
701.4000;0.0887;4.4675;
701.7000;0.0855;4.4577;
702.0000;0.0863;4.4626;
702.3000;0.0855;4.4626;
702.6000;0.0912;4.4895;
702.9000;0.0887;4.4748;
703.2000;0.0855;4.4699;
703.5000;0.0871;4.4675;
703.8000;0.0847;4.4577;
704.1000;0.0904;4.4675;
704.4000;0.0928;4.4773;
704.7000;0.0847;4.4528;
705.0000;0.0887;4.4650;
705.3000;0.0871;4.4626;
705.6000;0.0887;4.4675;
705.9000;0.0855;4.4577;
706.2000;0.0887;4.4650;
706.5000;0.0879;4.4724;
706.8000;0.0871;4.4773;
707.1000;0.0847;4.4748;
707.4000;0.0838;4.4773;
707.7000;0.0895;4.4919;
708.0000;0.0871;4.4944;
708.3000;0.0887;4.4944;
708.6000;0.0871;4.4895;
708.9000;0.0871;4.4993;
709.2000;0.0895;4.5042;
709.5000;0.0920;4.5164;
709.8000;0.0912;4.5017;
710.1000;0.0895;4.5091;
710.4000;0.0847;4.4993;
710.7000;0.0830;4.4993;
711.0000;0.0977;4.5311;
711.3000;0.0879;4.5017;
711.6000;0.0863;4.4993;
711.9000;0.0838;4.4944;
712.2000;0.0863;4.4968;
712.5000;0.0871;4.4895;
712.8000;0.0887;4.4822;
713.1000;0.0814;4.4528;
713.4000;0.0879;4.4724;
713.7000;0.0871;4.4724;
714.0000;0.0871;4.4773;
714.3000;0.0895;4.4870;
714.6000;0.0887;4.4870;
714.9000;0.0863;4.4846;
715.2000;0.0863;4.4895;
715.5000;0.0838;4.4822;
715.8000;0.0871;4.4870;
716.1000;0.0904;4.4895;
716.4000;0.0871;4.4846;
716.7000;0.0863;4.4870;
717.0000;0.0814;4.4724;
717.3000;0.0879;4.4968;
717.6000;0.0879;4.4895;
717.9000;0.0879;4.4919;
718.2000;0.0855;4.4846;
718.5000;0.0879;4.4870;
718.8000;0.0895;4.4846;
719.1000;0.0871;4.4822;
719.4000;0.0871;4.4919;
719.7000;0.0887;4.5042;
720.0000;0.0895;4.5042;
720.3000;0.0879;4.4919;
720.6000;0.0822;4.4797;
720.9000;0.0871;4.4797;
721.2000;0.0879;4.4870;
721.5000;0.0895;4.4797;
721.8000;0.0879;4.4650;
722.1000;0.0830;4.4601;
722.4000;0.0904;4.4895;
722.7000;0.0871;4.4773;
723.0000;0.0863;4.4748;
723.3000;0.0838;4.4822;
723.6000;0.0863;4.4944;
723.9000;0.0879;4.4919;
724.2000;0.0887;4.4944;
724.5000;0.0879;4.4919;
724.8000;0.0855;4.4870;
725.1000;0.0871;4.4919;
725.4000;0.0887;4.4968;
725.7000;0.0814;4.4797;
726.0000;0.0879;4.4968;
726.3000;0.0855;4.4919;
726.6000;0.0855;4.4797;
726.9000;0.0871;4.4870;
727.2000;0.0871;4.4870;
727.5000;0.0879;4.4895;
727.8000;0.0871;4.4944;
728.1000;0.0863;4.4944;
728.4000;0.0855;4.4919;
728.7000;0.0863;4.4968;
729.0000;0.0806;4.4870;
729.3000;0.0806;4.4870;
729.6000;0.0863;4.4968;
729.9000;0.0879;4.5066;
730.2000;0.0855;4.4993;
730.5000;0.0879;4.5017;
730.8000;0.0847;4.4919;
731.1000;0.0838;4.4870;
731.4000;0.0879;4.4944;
731.7000;0.0936;4.5091;
732.0000;0.0830;4.4773;
732.3000;0.0871;4.4870;
732.6000;0.0863;4.4822;
732.9000;0.0863;4.4773;
733.2000;0.0879;4.4797;
733.5000;0.0961;4.5042;
733.8000;0.0871;4.4797;
734.1000;0.0887;4.4822;
734.4000;0.0879;4.4919;
734.7000;0.0871;4.4895;
735.0000;0.0871;4.4870;
735.3000;0.0871;4.4822;
735.6000;0.0895;4.4944;
735.9000;0.0855;4.4797;
736.2000;0.0871;4.4870;
736.5000;0.0838;4.4846;
736.8000;0.0863;4.4870;
737.1000;0.0798;4.4601;
737.4000;0.0871;4.4699;
737.7000;0.0887;4.4675;
738.0000;0.0871;4.4699;
738.3000;0.0920;4.4846;
738.6000;0.0765;4.4455;
738.9000;0.0871;4.4699;
739.2000;0.0879;4.4773;
739.5000;0.0871;4.4797;
739.8000;0.0904;4.4919;
740.1000;0.0871;4.4748;
740.4000;0.0895;4.4944;
740.7000;0.0757;4.4528;
741.0000;0.0863;4.4846;
741.3000;0.0855;4.4773;
741.6000;0.0855;4.4773;
741.9000;0.0798;4.4601;
742.2000;0.0985;4.5066;
742.5000;0.0871;4.4748;
742.8000;0.0863;4.4724;
743.1000;0.0847;4.4699;
743.4000;0.0863;4.4748;
743.7000;0.0863;4.4773;
744.0000;0.0871;4.4797;
744.3000;0.0871;4.4773;
744.6000;0.0838;4.4577;
744.9000;0.0806;4.4577;
745.2000;0.0879;4.4797;
745.5000;0.0871;4.4822;
745.8000;0.0830;4.4650;
746.1000;0.0879;4.4797;
746.4000;0.0863;4.4724;
746.7000;0.0879;4.4675;
747.0000;0.0847;4.4601;
747.3000;0.0871;4.4699;
747.6000;0.0806;4.4553;
747.9000;0.0855;4.4626;
748.2000;0.0790;4.4406;
748.5000;0.0863;4.4528;
748.8000;0.0765;4.4308;
749.1000;0.0781;4.4333;
749.4000;0.0879;4.4675;
749.7000;0.0879;4.4601;
750.0000;0.0871;4.4601;
750.3000;0.0855;4.4381;
750.6000;0.0814;4.4235;
750.9000;0.0928;4.4553;
751.2000;0.0904;4.4406;
751.5000;0.0944;4.4577;
751.8000;0.0887;4.4528;
752.1000;0.0887;4.4601;
752.4000;0.0781;4.4357;
752.7000;0.0879;4.4699;
753.0000;0.0855;4.4773;
753.3000;0.0863;4.4797;
753.6000;0.0855;4.4773;
753.9000;0.0855;4.4797;
754.2000;0.0871;4.4797;
754.5000;0.0871;4.4822;
754.8000;0.0887;4.4773;
755.1000;0.0871;4.4773;
755.4000;0.0838;4.4724;
755.7000;0.0806;4.4528;
756.0000;0.0985;4.5091;
756.3000;0.0830;4.4650;
756.6000;0.0863;4.4675;
756.9000;0.0855;4.4675;
757.2000;0.0830;4.4724;
757.5000;0.0838;4.4748;
757.8000;0.0871;4.4919;
758.1000;0.0871;4.4895;
758.4000;0.0871;4.4870;
758.7000;0.0847;4.4675;
759.0000;0.0879;4.4822;
759.3000;0.0855;4.4748;
759.6000;0.0847;4.4773;
759.9000;0.0879;4.4919;
760.2000;0.0830;4.4773;
760.5000;0.0765;4.4626;
760.8000;0.0863;4.4797;
761.1000;0.0855;4.4773;
761.4000;0.0871;4.4773;
761.7000;0.0806;4.4601;
762.0000;0.0871;4.4895;
762.3000;0.0977;4.5164;
762.6000;0.0855;4.4797;
762.9000;0.0806;4.4650;
763.2000;0.0855;4.4773;
763.5000;0.0847;4.4724;
763.8000;0.0879;4.4846;
764.1000;0.0871;4.4773;
764.4000;0.0887;4.4846;
764.7000;0.0838;4.4699;
765.0000;0.0879;4.4724;
765.3000;0.0855;4.4601;
765.6000;0.0855;4.4577;
765.9000;0.0855;4.4601;
766.2000;0.0879;4.4699;
766.5000;0.0830;4.4455;
766.8000;0.0814;4.4430;
767.1000;0.0871;4.4601;
767.4000;0.0847;4.4601;
767.7000;0.0871;4.4650;
768.0000;0.0847;4.4626;
768.3000;0.0879;4.4773;
768.6000;0.0814;4.4626;
768.9000;0.0814;4.4650;
769.2000;0.0838;4.4675;
769.5000;0.0863;4.4773;
769.8000;0.0928;4.4993;
770.1000;0.0855;4.4846;
770.4000;0.0822;4.4846;
770.7000;0.0838;4.4870;
771.0000;0.0838;4.4822;
771.3000;0.0838;4.4675;
771.6000;0.0855;4.4724;
771.9000;0.0887;4.4773;
772.2000;0.0871;4.4773;
772.5000;0.0855;4.4675;
772.8000;0.0830;4.4626;
773.1000;0.0879;4.4650;
773.4000;0.0871;4.4724;
773.7000;0.0855;4.4650;
774.0000;0.0879;4.4724;
774.3000;0.0847;4.4699;
774.6000;0.0879;4.4748;
774.9000;0.0847;4.4553;
775.2000;0.0798;4.4430;
775.5000;0.0830;4.4553;
775.8000;0.0887;4.4748;
776.1000;0.0838;4.4626;
776.4000;0.0830;4.4553;
776.7000;0.0871;4.4601;
777.0000;0.0855;4.4577;
777.3000;0.0879;4.4601;
777.6000;0.0871;4.4601;
777.9000;0.0847;4.4626;
778.2000;0.0879;4.4724;
778.5000;0.0879;4.4822;
778.8000;0.0879;4.4822;
779.1000;0.0838;4.4748;
779.4000;0.0879;4.4919;
779.7000;0.0887;4.4993;
780.0000;0.0871;4.4993;
780.3000;0.0879;4.4919;
780.6000;0.0879;4.4797;
780.9000;0.0855;4.4797;
781.2000;0.0847;4.4724;
781.5000;0.0863;4.4797;
781.8000;0.0871;4.4870;
782.1000;0.0798;4.4626;
782.4000;0.0863;4.4822;
782.7000;0.0806;4.4699;
783.0000;0.0855;4.4822;
783.3000;0.0904;4.4944;
783.6000;0.0855;4.4724;
783.9000;0.0830;4.4748;
784.2000;0.0863;4.4944;
784.5000;0.0830;4.4773;
784.8000;0.0855;4.4797;
785.1000;0.0822;4.4699;
785.4000;0.0847;4.4724;
785.7000;0.0757;4.4479;
786.0000;0.0855;4.4724;
786.3000;0.0871;4.4822;
786.6000;0.0895;4.4919;
786.9000;0.0830;4.4846;
787.2000;0.0838;4.4822;
787.5000;0.0879;4.4822;
787.8000;0.0855;4.4822;
788.1000;0.0863;4.4895;
788.4000;0.0830;4.4846;
788.7000;0.0871;4.4919;
789.0000;0.0838;4.4822;
789.3000;0.0806;4.4699;
789.6000;0.0879;4.4822;
789.9000;0.0887;4.4919;
790.2000;0.0863;4.4895;
790.5000;0.0838;4.4870;
790.8000;0.0847;4.4748;
791.1000;0.0912;4.4870;
791.4000;0.0863;4.4797;
791.7000;0.0863;4.4895;
792.0000;0.0838;4.4870;
792.3000;0.0928;4.4993;
792.6000;0.0887;4.4870;
792.9000;0.0871;4.4895;
793.2000;0.0887;4.4993;
793.5000;0.0855;4.4870;
793.8000;0.0879;4.4870;
794.1000;0.0863;4.4773;
794.4000;0.0871;4.4748;
794.7000;0.0855;4.4699;
795.0000;0.0936;4.4944;
795.3000;0.0879;4.4846;
795.6000;0.0863;4.4773;
795.9000;0.0871;4.4822;
796.2000;0.0944;4.4993;
796.5000;0.0847;4.4773;
796.8000;0.0863;4.4797;
797.1000;0.0838;4.4773;
797.4000;0.0863;4.4797;
797.7000;0.0822;4.4675;
798.0000;0.0855;4.4797;
798.3000;0.0863;4.4748;
798.6000;0.0855;4.4870;
798.9000;0.0765;4.4577;
799.2000;0.0855;4.4822;
799.5000;0.0847;4.4773;
799.8000;0.0871;4.4895;
800.1000;0.0871;4.4870;
800.4000;0.0847;4.4822;
800.7000;0.0871;4.4797;
801.0000;0.0790;4.4626;
801.3000;0.0838;4.4748;
801.6000;0.0920;4.4968;
801.9000;0.0855;4.4675;
802.2000;0.0838;4.4675;
802.5000;0.0887;4.4724;
802.8000;0.0855;4.4626;
803.1000;0.0871;4.4724;
803.4000;0.0863;4.4699;
803.7000;0.0871;4.4773;
804.0000;0.0847;4.4699;
804.3000;0.0847;4.4724;
804.6000;0.0855;4.4699;
804.9000;0.0855;4.4724;
805.2000;0.0912;4.4822;
805.5000;0.0863;4.4748;
805.8000;0.0895;4.4919;
806.1000;0.0871;4.4944;
806.4000;0.0863;4.4919;
806.7000;0.0879;4.4968;
807.0000;0.0814;4.4870;
807.3000;0.0879;4.4919;
807.6000;0.0879;4.4944;
807.9000;0.0871;4.4797;
808.2000;0.0814;4.4650;
808.5000;0.0944;4.4968;
808.8000;0.0895;4.4846;
809.1000;0.0871;4.4748;
809.4000;0.0928;4.4944;
809.7000;0.0855;4.4748;
810.0000;0.0871;4.4846;
810.3000;0.0871;4.4895;
810.6000;0.0871;4.4895;
810.9000;0.0855;4.4846;
811.2000;0.0920;4.4944;
811.5000;0.0879;4.4822;
811.8000;0.0765;4.4577;
812.1000;0.0863;4.4822;
812.4000;0.0700;4.4406;
812.7000;0.0855;4.4822;
813.0000;0.0798;4.4601;
813.3000;0.0863;4.4699;
813.6000;0.0822;4.4553;
813.9000;0.0855;4.4724;
814.2000;0.0871;4.4773;
814.5000;0.0904;4.5042;
814.8000;0.0863;4.4870;
815.1000;0.0855;4.4822;
815.4000;0.0879;4.4870;
815.7000;0.0863;4.4699;
816.0000;0.0863;4.4601;
816.3000;0.0847;4.4650;
816.6000;0.0847;4.4724;
816.9000;0.0863;4.4797;
817.2000;0.0855;4.4675;
817.5000;0.0863;4.4675;
817.8000;0.0855;4.4773;
818.1000;0.0887;4.4919;
818.4000;0.0887;4.4993;
818.7000;0.0847;4.4870;
819.0000;0.0855;4.4968;
819.3000;0.0863;4.5017;
819.6000;0.0838;4.4944;
819.9000;0.0952;4.5091;
820.2000;0.0871;4.4870;
820.5000;0.0847;4.4748;
820.8000;0.0895;4.4870;
821.1000;0.0790;4.4577;
821.4000;0.0863;4.4895;
821.7000;0.0855;4.4846;
822.0000;0.0855;4.4773;
822.3000;0.0814;4.4773;
822.6000;0.0879;4.4919;
822.9000;0.0871;4.4968;
823.2000;0.0871;4.4993;
823.5000;0.0855;4.4968;
823.8000;0.0855;4.4773;
824.1000;0.0806;4.4675;
824.4000;0.0863;4.4870;
824.7000;0.0920;4.4944;
825.0000;0.0855;4.4699;
825.3000;0.0863;4.4699;
825.6000;0.0847;4.4626;
825.9000;0.0838;4.4724;
826.2000;0.0855;4.4797;
826.5000;0.0879;4.4993;
826.8000;0.0879;4.4944;
827.1000;0.0871;4.4870;
827.4000;0.0863;4.4895;
827.7000;0.0863;4.4895;
828.0000;0.0871;4.4895;
828.3000;0.0871;4.4846;
828.6000;0.0871;4.4724;
828.9000;0.0871;4.4699;
829.2000;0.0863;4.4699;
829.5000;0.0830;4.4577;
829.8000;0.0871;4.4724;
830.1000;0.0961;4.4846;
830.4000;0.0871;4.4626;
830.7000;0.0944;4.4870;
831.0000;0.0863;4.4675;
831.3000;0.0822;4.4675;
831.6000;0.0855;4.4846;
831.9000;0.0879;4.4919;
832.2000;0.0871;4.4870;
832.5000;0.0912;4.5017;
832.8000;0.0773;4.4553;
833.1000;0.0830;4.4748;
833.4000;0.0822;4.4724;
833.7000;0.0863;4.4895;
834.0000;0.0855;4.4846;
834.3000;0.0847;4.4846;
834.6000;0.0863;4.4870;
834.9000;0.0969;4.5115;
835.2000;0.0871;4.4870;
835.5000;0.0871;4.4822;
835.8000;0.0879;4.4895;
836.1000;0.0855;4.4895;
836.4000;0.0838;4.4846;
836.7000;0.0855;4.4846;
837.0000;0.0855;4.4748;
837.3000;0.0855;4.4675;
837.6000;0.0838;4.4797;
837.9000;0.0847;4.4822;
838.2000;0.0871;4.4846;
838.5000;0.0855;4.4846;
838.8000;0.0838;4.4846;
839.1000;0.0879;4.4895;
839.4000;0.0879;4.4870;
839.7000;0.0863;4.4822;
840.0000;0.0952;4.5066;
840.3000;0.0879;4.4895;
840.6000;0.0855;4.4822;
840.9000;0.0871;4.4846;
841.2000;0.0830;4.4675;
841.5000;0.0855;4.4773;
841.8000;0.0871;4.4822;
842.1000;0.0773;4.4553;
842.4000;0.0798;4.4601;
842.7000;0.0855;4.4724;
843.0000;0.0838;4.4699;
843.3000;0.0855;4.4724;
843.6000;0.0904;4.4870;
843.9000;0.0855;4.4699;
844.2000;0.0822;4.4675;
844.5000;0.0977;4.5139;
844.8000;0.0871;4.4846;
845.1000;0.0855;4.4870;
845.4000;0.0806;4.4797;
845.7000;0.0871;4.4993;
846.0000;0.0847;4.4870;
846.3000;0.0871;4.4919;
846.6000;0.0871;4.4919;
846.9000;0.0855;4.4773;
847.2000;0.0830;4.4675;
847.5000;0.0863;4.4773;
847.8000;0.0855;4.4773;
848.1000;0.0863;4.4699;
848.4000;0.0863;4.4773;
848.7000;0.0912;4.4870;
849.0000;0.0830;4.4699;
849.3000;0.0863;4.4748;
849.6000;0.0863;4.4773;
849.9000;0.0855;4.4846;
850.2000;0.0863;4.4895;
850.5000;0.0847;4.4846;
850.8000;0.0863;4.4822;
851.1000;0.0863;4.4797;
851.4000;0.0847;4.4724;
851.7000;0.0847;4.4773;
852.0000;0.0863;4.4748;
852.3000;0.0830;4.4699;
852.6000;0.0847;4.4724;
852.9000;0.0855;4.4773;
853.2000;0.0912;4.4944;
853.5000;0.0879;4.4822;
853.8000;0.0847;4.4748;
854.1000;0.0863;4.4797;
854.4000;0.0879;4.4919;
854.7000;0.0871;4.4895;
855.0000;0.0847;4.4773;
855.3000;0.0838;4.4797;
855.6000;0.0847;4.4748;
855.9000;0.0855;4.4822;
856.2000;0.0863;4.4870;
856.5000;0.0790;4.4675;
856.8000;0.0863;4.4846;
857.1000;0.0904;4.5091;
857.4000;0.0871;4.5017;
857.7000;0.0879;4.5017;
858.0000;0.0847;4.4895;
858.3000;0.0855;4.4895;
858.6000;0.0847;4.4822;
858.9000;0.0863;4.4944;
859.2000;0.0871;4.5017;
859.5000;0.0920;4.5115;
859.8000;0.0879;4.4968;
860.1000;0.0863;4.4968;
860.4000;0.0847;4.4895;
860.7000;0.0838;4.4919;
861.0000;0.0920;4.5139;
861.3000;0.0863;4.5017;
861.6000;0.0822;4.4968;
861.9000;0.0814;4.4895;
862.2000;0.0830;4.4870;
862.5000;0.0879;4.5042;
862.8000;0.0871;4.4968;
863.1000;0.0928;4.5066;
863.4000;0.0879;4.4919;
863.7000;0.0863;4.4846;
864.0000;0.0863;4.4797;
864.3000;0.0814;4.4675;
864.6000;0.0847;4.4626;
864.9000;0.0863;4.4773;
865.2000;0.0838;4.4748;
865.5000;0.0847;4.4748;
865.8000;0.0855;4.4797;
866.1000;0.0855;4.4699;
866.4000;0.0838;4.4699;
866.7000;0.0871;4.4870;
867.0000;0.0838;4.4797;
867.3000;0.0798;4.4650;
867.6000;0.0855;4.4748;
867.9000;0.0871;4.4724;
868.2000;0.0781;4.4553;
868.5000;0.0944;4.4968;
868.8000;0.0855;4.4822;
869.1000;0.0855;4.4822;
869.4000;0.0855;4.4870;
869.7000;0.0855;4.4846;
870.0000;0.0830;4.4846;
870.3000;0.0847;4.4944;
870.6000;0.0863;4.5091;
870.9000;0.0822;4.4919;
871.2000;0.0847;4.4919;
871.5000;0.0855;4.5042;
871.8000;0.0855;4.5164;
872.1000;0.0757;4.4846;
872.4000;0.0830;4.5091;
872.7000;0.0871;4.5091;
873.0000;0.0741;4.4773;
873.3000;0.0863;4.5066;
873.6000;0.0822;4.4870;
873.9000;0.0879;4.4993;
874.2000;0.0822;4.4846;
874.5000;0.0863;4.4870;
874.8000;0.0920;4.5017;
875.1000;0.0993;4.5188;
875.4000;0.0838;4.4822;
875.7000;0.0847;4.4773;
876.0000;0.0871;4.4870;
876.3000;0.0855;4.4895;
876.6000;0.0863;4.4895;
876.9000;0.0863;4.4919;
877.2000;0.0847;4.5017;
877.5000;0.0847;4.4919;
877.8000;0.0806;4.4699;
878.1000;0.0871;4.4773;
878.4000;0.0847;4.4724;
878.7000;0.0895;4.4895;
879.0000;0.0830;4.4699;
879.3000;0.0749;4.4333;
879.6000;0.0961;4.4968;
879.9000;0.0895;4.4822;
880.2000;0.0863;4.4724;
880.5000;0.0847;4.4601;
880.8000;0.0863;4.4675;
881.1000;0.0879;4.4699;
881.4000;0.0855;4.4748;
881.7000;0.0887;4.4822;
882.0000;0.0830;4.4650;
882.3000;0.0855;4.4748;
882.6000;0.0847;4.4822;
882.9000;0.0895;4.4919;
883.2000;0.0863;4.4846;
883.5000;0.0887;4.4870;
883.8000;0.0863;4.4724;
884.1000;0.0847;4.4626;
884.4000;0.0838;4.4601;
884.7000;0.0879;4.4748;
885.0000;0.0838;4.4650;
885.3000;0.0863;4.4797;
885.6000;0.0863;4.4846;
885.9000;0.0724;4.4577;
886.2000;0.0879;4.5017;
886.5000;0.0887;4.4993;
886.8000;0.0847;4.4919;
887.1000;0.0830;4.4919;
887.4000;0.0863;4.4919;
887.7000;0.0838;4.4822;
888.0000;0.0847;4.4870;
888.3000;0.0838;4.4846;
888.6000;0.0863;4.4870;
888.9000;0.0887;4.4870;
889.2000;0.0863;4.4797;
889.5000;0.0855;4.4724;
889.8000;0.0871;4.4773;
890.1000;0.0847;4.4773;
890.4000;0.0822;4.4626;
890.7000;0.0879;4.4748;
891.0000;0.0871;4.4699;
891.3000;0.0961;4.4993;
891.6000;0.0879;4.4822;
891.9000;0.0863;4.4870;
892.2000;0.0936;4.5115;
892.5000;0.0830;4.4822;
892.8000;0.0855;4.4724;
893.1000;0.0855;4.4675;
893.4000;0.0757;4.4333;
893.7000;0.0871;4.4626;
894.0000;0.0912;4.4797;
894.3000;0.0887;4.4748;
894.6000;0.0847;4.4601;
894.9000;0.0871;4.4748;
895.2000;0.0822;4.4626;
895.5000;0.0871;4.4699;
895.8000;0.0863;4.4601;
896.1000;0.0863;4.4650;
896.4000;0.0871;4.4797;
896.7000;0.0871;4.4846;
897.0000;0.0814;4.4626;
897.3000;0.0863;4.4724;
897.6000;0.0847;4.4675;
897.9000;0.0871;4.4699;
898.2000;0.0855;4.4699;
898.5000;0.0863;4.4675;
898.8000;0.0847;4.4675;
899.1000;0.0838;4.4699;
899.4000;0.0871;4.4748;
899.7000;0.0944;4.4968;
900.0000;0.0887;4.4944;
900.3000;0.0871;4.4797;
900.6000;0.0847;4.4699;
900.9000;0.0871;4.4675;
901.2000;0.0879;4.4675;
901.5000;0.0952;4.4944;
901.8000;0.0765;4.4381;
902.1000;0.0863;4.4577;
902.4000;0.0847;4.4553;
902.7000;0.0887;4.4626;
903.0000;0.0920;4.4699;
903.3000;0.0887;4.4553;
903.6000;0.0879;4.4479;
903.9000;0.0855;4.4479;
904.2000;0.0912;4.4724;
904.5000;0.0879;4.4773;
904.8000;0.0920;4.4846;
905.1000;0.0863;4.4650;
905.4000;0.0904;4.4797;
905.7000;0.0904;4.4675;
906.0000;0.0847;4.4553;
906.3000;0.0879;4.4626;
906.6000;0.0814;4.4455;
906.9000;0.0936;4.4870;
907.2000;0.0887;4.4822;
907.5000;0.0855;4.4822;
907.8000;0.0855;4.4846;
908.1000;0.0855;4.4773;
908.4000;0.0863;4.4822;
908.7000;0.0855;4.4675;
909.0000;0.0847;4.4650;
909.3000;0.0879;4.4748;
909.6000;0.0863;4.4797;
909.9000;0.0879;4.4919;
910.2000;0.0871;4.4797;
910.5000;0.0855;4.4699;
910.8000;0.0847;4.4675;
911.1000;0.0838;4.4601;
911.4000;0.0863;4.4699;
911.7000;0.0822;4.4724;
912.0000;0.0798;4.4699;
912.3000;0.0863;4.4846;
912.6000;0.0847;4.4797;
912.9000;0.0781;4.4601;
913.2000;0.0855;4.4870;
913.5000;0.0855;4.4773;
913.8000;0.0912;4.4919;
914.1000;0.0781;4.4626;
914.4000;0.0912;4.5066;
914.7000;0.0904;4.5066;
915.0000;0.0847;4.4895;
915.3000;0.0863;4.4919;
915.6000;0.0895;4.4919;
915.9000;0.0879;4.4919;
916.2000;0.0871;4.4822;
916.5000;0.0928;4.4968;
916.8000;0.0871;4.4895;
917.1000;0.0790;4.4650;
917.4000;0.0838;4.4846;
917.7000;0.0887;4.4919;
918.0000;0.0847;4.4797;
918.3000;0.0838;4.4797;
918.6000;0.0871;4.4870;
918.9000;0.0790;4.4699;
919.2000;0.0928;4.5213;
919.5000;0.0863;4.5066;
919.8000;0.0814;4.4944;
920.1000;0.0855;4.4993;
920.4000;0.0863;4.5066;
920.7000;0.0879;4.5115;
921.0000;0.0855;4.5091;
921.3000;0.0855;4.5042;
921.6000;0.0871;4.5115;
921.9000;0.0871;4.5066;
922.2000;0.0871;4.5066;
922.5000;0.0830;4.4895;
922.8000;0.0855;4.4993;
923.1000;0.0855;4.4822;
923.4000;0.0879;4.4944;
923.7000;0.0887;4.5042;
924.0000;0.0871;4.5017;
924.3000;0.0904;4.5091;
924.6000;0.0879;4.4870;
924.9000;0.0920;4.4993;
925.2000;0.0838;4.4699;
925.5000;0.0855;4.4773;
925.8000;0.0838;4.4748;
926.1000;0.0838;4.4773;
926.4000;0.0855;4.4846;
926.7000;0.0863;4.4944;
927.0000;0.0847;4.4919;
927.3000;0.0961;4.5188;
927.6000;0.0904;4.5066;
927.9000;0.1018;4.5482;
928.2000;0.0887;4.5091;
928.5000;0.0790;4.4822;
928.8000;0.0863;4.5017;
929.1000;0.0863;4.5042;
929.4000;0.0863;4.5042;
929.7000;0.0879;4.5042;
930.0000;0.0895;4.5091;
930.3000;0.0871;4.5066;
930.6000;0.0871;4.5042;
930.9000;0.0879;4.5042;
931.2000;0.0871;4.4993;
931.5000;0.0863;4.4944;
931.8000;0.0855;4.4895;
932.1000;0.0863;4.4895;
932.4000;0.0855;4.4822;
932.7000;0.0822;4.4822;
933.0000;0.0887;4.5042;
933.3000;0.0863;4.5091;
933.6000;0.0863;4.4944;
933.9000;0.0871;4.5042;
934.2000;0.0814;4.4968;
934.5000;0.0855;4.5066;
934.8000;0.0871;4.5139;
935.1000;0.0847;4.5017;
935.4000;0.0855;4.4968;
935.7000;0.0887;4.5042;
936.0000;0.0887;4.4993;
936.3000;0.0863;4.4895;
936.6000;0.0798;4.4846;
936.9000;0.0863;4.5017;
937.2000;0.0871;4.5017;
937.5000;0.0855;4.4968;
937.8000;0.0830;4.5042;
938.1000;0.0855;4.5017;
938.4000;0.0871;4.5066;
938.7000;0.0838;4.4993;
939.0000;0.0838;4.4968;
939.3000;0.0871;4.5066;
939.6000;0.0692;4.4601;
939.9000;0.0887;4.5066;
940.2000;0.0887;4.5115;
940.5000;0.0871;4.5066;
940.8000;0.0871;4.5139;
941.1000;0.0765;4.4724;
941.4000;0.0863;4.4993;
941.7000;0.0773;4.4699;
942.0000;0.0904;4.5115;
942.3000;0.0838;4.4895;
942.6000;0.0871;4.5042;
942.9000;0.0863;4.5139;
943.2000;0.0838;4.5042;
943.5000;0.0855;4.5115;
943.8000;0.0952;4.5237;
944.1000;0.0871;4.5066;
944.4000;0.0871;4.5066;
944.7000;0.0847;4.5017;
945.0000;0.0871;4.5017;
945.3000;0.0855;4.4944;
945.6000;0.0863;4.4919;
945.9000;0.0798;4.4748;
946.2000;0.0855;4.4870;
946.5000;0.0879;4.4919;
946.8000;0.0871;4.4944;
947.1000;0.0863;4.4968;
947.4000;0.0863;4.4870;
947.7000;0.0879;4.4968;
948.0000;0.0855;4.4919;
948.3000;0.0863;4.4993;
948.6000;0.0879;4.4919;
948.9000;0.0904;4.5042;
949.2000;0.0855;4.4846;
949.5000;0.0838;4.4822;
949.8000;0.0863;4.4968;
950.1000;0.0879;4.4870;
950.4000;0.0838;4.4748;
950.7000;0.0838;4.4675;
951.0000;0.0863;4.4773;
951.3000;0.0781;4.4650;
951.6000;0.0838;4.4724;
951.9000;0.0879;4.4773;
952.2000;0.0847;4.4650;
952.5000;0.0904;4.4822;
952.8000;0.0863;4.4699;
953.1000;0.0855;4.4797;
953.4000;0.0879;4.4870;
953.7000;0.0895;4.4846;
954.0000;0.0855;4.4822;
954.3000;0.0830;4.4724;
954.6000;0.0863;4.4822;
954.9000;0.0912;4.4895;
955.2000;0.0879;4.4846;
955.5000;0.0879;4.4870;
955.8000;0.0863;4.4870;
956.1000;0.0863;4.4919;
956.4000;0.0855;4.4944;
956.7000;0.0855;4.4968;
957.0000;0.0855;4.4919;
957.3000;0.0863;4.4919;
957.6000;0.0871;4.4919;
957.9000;0.0863;4.4919;
958.2000;0.0871;4.4895;
958.5000;0.0895;4.4870;
958.8000;0.0863;4.4724;
959.1000;0.0887;4.4699;
959.4000;0.0887;4.4797;
959.7000;0.0855;4.4870;
960.0000;0.0830;4.4919;
960.3000;0.0855;4.4944;
960.6000;0.0871;4.4993;
960.9000;0.0863;4.4919;
961.2000;0.0855;4.4773;
961.5000;0.0847;4.4822;
961.8000;0.0855;4.4919;
962.1000;0.0822;4.4895;
962.4000;0.0871;4.5042;
962.7000;0.0936;4.5115;
963.0000;0.0855;4.4968;
963.3000;0.0863;4.4944;
963.6000;0.0855;4.4944;
963.9000;0.0871;4.5017;
964.2000;0.0863;4.5042;
964.5000;0.0814;4.5042;
964.8000;0.0863;4.5139;
965.1000;0.0855;4.5042;
965.4000;0.0855;4.4968;
965.7000;0.0863;4.4944;
966.0000;0.0879;4.5042;
966.3000;0.0863;4.5017;
966.6000;0.0790;4.4797;
966.9000;0.0847;4.4919;
967.2000;0.0830;4.4870;
967.5000;0.0863;4.4944;
967.8000;0.0871;4.5017;
968.1000;0.0863;4.4944;
968.4000;0.0879;4.5042;
968.7000;0.0871;4.5066;
969.0000;0.0887;4.5091;
969.3000;0.0838;4.4993;
969.6000;0.0863;4.5115;
969.9000;0.0855;4.5091;
970.2000;0.0887;4.5139;
970.5000;0.0863;4.4944;
970.8000;0.0879;4.4870;
971.1000;0.0871;4.4895;
971.4000;0.0838;4.4748;
971.7000;0.0855;4.4773;
972.0000;0.0863;4.4822;
972.3000;0.0855;4.4895;
972.6000;0.0879;4.5017;
972.9000;0.0863;4.4968;
973.2000;0.0879;4.4993;
973.5000;0.0847;4.4919;
973.8000;0.0855;4.4993;
974.1000;0.0879;4.4968;
974.4000;0.0952;4.5115;
974.7000;0.0912;4.4968;
975.0000;0.0879;4.4944;
975.3000;0.0944;4.5164;
975.6000;0.0871;4.4919;
975.9000;0.0920;4.4944;
976.2000;0.0822;4.4773;
976.5000;0.0855;4.4870;
976.8000;0.0855;4.4773;
977.1000;0.0855;4.4797;
977.4000;0.0871;4.4846;
977.7000;0.0863;4.4846;
978.0000;0.0863;4.4846;
978.3000;0.0847;4.4822;
978.6000;0.0838;4.4846;
978.9000;0.0822;4.4822;
979.2000;0.0830;4.4944;
979.5000;0.0863;4.4944;
979.8000;0.0904;4.5115;
980.1000;0.0904;4.5188;
980.4000;0.0863;4.5042;
980.7000;0.0822;4.5042;
981.0000;0.0806;4.5042;
981.3000;0.0863;4.5091;
981.6000;0.0838;4.4993;
981.9000;0.0887;4.5066;
982.2000;0.0790;4.4846;
982.5000;0.0871;4.5042;
982.8000;0.0985;4.5335;
983.1000;0.0790;4.4822;
983.4000;0.0887;4.4944;
983.7000;0.0855;4.4822;
984.0000;0.0716;4.4504;
984.3000;0.0879;4.4895;
984.6000;0.0855;4.4773;
984.9000;0.0855;4.4895;
985.2000;0.0904;4.5017;
985.5000;0.0871;4.4968;
985.8000;0.0855;4.4919;
986.1000;0.0781;4.4699;
986.4000;0.0830;4.4773;
986.7000;0.0855;4.4870;
987.0000;0.0814;4.4773;
987.3000;0.0847;4.4846;
987.6000;0.0773;4.4650;
987.9000;0.0847;4.4968;
988.2000;0.0895;4.5066;
988.5000;0.0887;4.4993;
988.8000;0.0855;4.4895;
989.1000;0.0724;4.4553;
989.4000;0.0855;4.4822;
989.7000;0.0871;4.4846;
990.0000;0.0855;4.4870;
990.3000;0.0847;4.4968;
990.6000;0.0847;4.4919;
990.9000;0.0847;4.4895;
991.2000;0.0773;4.4773;
991.5000;0.0855;4.4993;
991.8000;0.0847;4.4919;
992.1000;0.0855;4.4870;
992.4000;0.0863;4.4773;
992.7000;0.0871;4.4846;
993.0000;0.0838;4.4797;
993.3000;0.0871;4.4846;
993.6000;0.0863;4.4870;
993.9000;0.0822;4.4699;
994.2000;0.0855;4.4797;
994.5000;0.0904;4.4944;
994.8000;0.0871;4.4846;
995.1000;0.0855;4.4773;
995.4000;0.0855;4.4822;
995.7000;0.0814;4.4699;
996.0000;0.0847;4.4870;
996.3000;0.0855;4.4895;
996.6000;0.0904;4.5091;
996.9000;0.0830;4.4846;
997.2000;0.0879;4.4919;
997.5000;0.0904;4.4968;
997.8000;0.0773;4.4748;
998.1000;0.0871;4.5066;
998.4000;0.0879;4.4993;
998.7000;0.0847;4.4944;
999.0000;0.0887;4.4993;
999.3000;0.0871;4.4968;
999.6000;0.0855;4.4870;
999.9000;0.0863;4.4822;
1000.2000;0.0830;4.4675;
1000.5000;0.0904;4.4870;
1000.8000;0.0887;4.4846;
1001.1000;0.0871;4.4944;
1001.4000;0.0847;4.4895;
1001.7000;0.0847;4.4870;
1002.0000;0.0814;4.4748;
1002.3000;0.0863;4.4919;
1002.6000;0.0863;4.5042;
1002.9000;0.0871;4.5066;
1003.2000;0.0855;4.5017;
1003.5000;0.0871;4.4993;
1003.8000;0.0790;4.4846;
1004.1000;0.0863;4.4993;
1004.4000;0.0887;4.5017;
1004.7000;0.0847;4.4944;
1005.0000;0.0887;4.5042;
1005.3000;0.0879;4.5017;
1005.6000;0.0863;4.4919;
1005.9000;0.0847;4.4822;
1006.2000;0.0838;4.4797;
1006.5000;0.0871;4.4870;
1006.8000;0.0871;4.4797;
1007.1000;0.0879;4.4797;
1007.4000;0.0855;4.4773;
1007.7000;0.0871;4.4919;
1008.0000;0.0871;4.4895;
1008.3000;0.0847;4.4944;
1008.6000;0.0977;4.5237;
1008.9000;0.0879;4.5017;
1009.2000;0.0863;4.4919;
1009.5000;0.0887;4.5066;
1009.8000;0.0871;4.4993;
1010.1000;0.0855;4.4944;
1010.4000;0.0871;4.5066;
1010.7000;0.0887;4.5139;
1011.0000;0.0895;4.5188;
1011.3000;0.0838;4.4993;
1011.6000;0.0798;4.4895;
1011.9000;0.0879;4.5091;
1012.2000;0.0806;4.4846;
1012.5000;0.0944;4.5262;
1012.8000;0.0887;4.5066;
1013.1000;0.0904;4.5237;
1013.4000;0.0863;4.5115;
1013.7000;0.0838;4.5017;
1014.0000;0.0830;4.4919;
1014.3000;0.0863;4.4993;
1014.6000;0.0887;4.5066;
1014.9000;0.0871;4.5115;
1015.2000;0.0798;4.4870;
1015.5000;0.0863;4.5042;
1015.8000;0.0871;4.4993;
1016.1000;0.0871;4.4944;
1016.4000;0.0847;4.4822;
1016.7000;0.0879;4.4944;
1017.0000;0.0879;4.4870;
1017.3000;0.0895;4.4919;
1017.6000;0.0879;4.4944;
1017.9000;0.0863;4.4846;
1018.2000;0.0855;4.4944;
1018.5000;0.0855;4.4944;
1018.8000;0.0863;4.4895;
1019.1000;0.0847;4.4895;
1019.4000;0.0855;4.4993;
1019.7000;0.0855;4.5042;
1020.0000;0.0863;4.5017;
1020.3000;0.0904;4.5139;
1020.6000;0.0895;4.5066;
1020.9000;0.0847;4.4993;
1021.2000;0.0887;4.5091;
1021.5000;0.0847;4.5066;
1021.8000;0.0806;4.4895;
1022.1000;0.0838;4.4944;
1022.4000;0.0936;4.5262;
1022.7000;0.0863;4.4944;
1023.0000;0.0838;4.4919;
1023.3000;0.0879;4.4968;
1023.6000;0.0879;4.4919;
1023.9000;0.0855;4.4895;
1024.2000;0.0855;4.4773;
1024.5000;0.0871;4.4797;
1024.8000;0.0847;4.4675;
1025.1000;0.0871;4.4773;
1025.4000;0.0879;4.4773;
1025.7000;0.0830;4.4699;
1026.0000;0.0871;4.4846;
1026.3000;0.0863;4.4724;
1026.6000;0.0863;4.4650;
1026.9000;0.0928;4.4797;
1027.2000;0.0887;4.4748;
1027.5000;0.0847;4.4748;
1027.8000;0.0863;4.4846;
1028.1000;0.0838;4.4797;
1028.4000;0.0879;4.4944;
1028.7000;0.0733;4.4601;
1029.0000;0.0855;4.4870;
1029.3000;0.0871;4.4944;
1029.6000;0.0871;4.4944;
1029.9000;0.0928;4.4993;
1030.2000;0.0838;4.4895;
1030.5000;0.0838;4.4944;
1030.8000;0.0855;4.5017;
1031.1000;0.0847;4.5017;
1031.4000;0.0822;4.4968;
1031.7000;0.0871;4.4993;
1032.0000;0.0838;4.4919;
1032.3000;0.0895;4.5017;
1032.6000;0.0855;4.4846;
1032.9000;0.0806;4.4699;
1033.2000;0.0822;4.4724;
1033.5000;0.0871;4.4846;
1033.8000;0.0879;4.4895;
1034.1000;0.0920;4.4968;
1034.4000;0.0847;4.4797;
1034.7000;0.0879;4.4797;
1035.0000;0.0928;4.4919;
1035.3000;0.0855;4.4699;
1035.6000;0.0847;4.4699;
1035.9000;0.0863;4.4797;
1036.2000;0.0912;4.5017;
1036.5000;0.0993;4.5213;
1036.8000;0.0871;4.4822;
1037.1000;0.0871;4.4822;
1037.4000;0.0863;4.4797;
1037.7000;0.0830;4.4748;
1038.0000;0.0855;4.4773;
1038.3000;0.0830;4.4699;
1038.6000;0.0887;4.4822;
1038.9000;0.0863;4.4724;
1039.2000;0.0838;4.4626;
1039.5000;0.0863;4.4601;
1039.8000;0.0855;4.4675;
1040.1000;0.0814;4.4601;
1040.4000;0.0871;4.4724;
1040.7000;0.0879;4.4699;
1041.0000;0.0871;4.4675;
1041.3000;0.0871;4.4724;
1041.6000;0.0855;4.4601;
1041.9000;0.1066;4.5213;
1042.2000;0.0847;4.4601;
1042.5000;0.0871;4.4675;
1042.8000;0.0855;4.4724;
1043.1000;0.0838;4.4626;
1043.4000;0.0838;4.4601;
1043.7000;0.0863;4.4577;
1044.0000;0.0871;4.4504;
1044.3000;0.0790;4.4308;
1044.6000;0.0847;4.4577;
1044.9000;0.0855;4.4650;
1045.2000;0.0863;4.4650;
1045.5000;0.0847;4.4455;
1045.8000;0.0863;4.4528;
1046.1000;0.0879;4.4650;
1046.4000;0.0855;4.4553;
1046.7000;0.0863;4.4528;
1047.0000;0.0822;4.4357;
1047.3000;0.0855;4.4553;
1047.6000;0.0847;4.4455;
1047.9000;0.0830;4.4406;
1048.2000;0.0822;4.4406;
1048.5000;0.0879;4.4528;
1048.8000;0.0822;4.4504;
1049.1000;0.0887;4.4601;
1049.4000;0.0863;4.4577;
1049.7000;0.0871;4.4577;
1050.0000;0.0871;4.4626;
1050.3000;0.0863;4.4675;
1050.6000;0.0863;4.4675;
1050.9000;0.0855;4.4724;
1051.2000;0.0863;4.4650;
1051.5000;0.0855;4.4601;
1051.8000;0.0879;4.4699;
1052.1000;0.0871;4.4675;
1052.4000;0.0855;4.4650;
1052.7000;0.0855;4.4650;
1053.0000;0.0863;4.4650;
1053.3000;0.0863;4.4601;
1053.6000;0.0855;4.4577;
1053.9000;0.0724;4.4210;
1054.2000;0.0887;4.4626;
1054.5000;0.0879;4.4601;
1054.8000;0.0871;4.4601;
1055.1000;0.0838;4.4528;
1055.4000;0.0757;4.4235;
1055.7000;0.0838;4.4430;
1056.0000;0.0863;4.4528;
1056.3000;0.0838;4.4504;
1056.6000;0.0912;4.4601;
1056.9000;0.0863;4.4479;
1057.2000;0.0928;4.4724;
1057.5000;0.0847;4.4504;
1057.8000;0.0847;4.4479;
1058.1000;0.0879;4.4577;
1058.4000;0.0863;4.4626;
1058.7000;0.0855;4.4675;
1059.0000;0.0855;4.4724;
1059.3000;0.0887;4.4846;
1059.6000;0.0863;4.4699;
1059.9000;0.0863;4.4601;
1060.2000;0.0863;4.4528;
1060.5000;0.0806;4.4504;
1060.8000;0.0855;4.4577;
1061.1000;0.0838;4.4577;
1061.4000;0.0863;4.4699;
1061.7000;0.0879;4.4773;
1062.0000;0.0879;4.4724;
1062.3000;0.0863;4.4675;
1062.6000;0.0838;4.4626;
1062.9000;0.0887;4.4797;
1063.2000;0.0855;4.4748;
1063.5000;0.0855;4.4675;
1063.8000;0.0871;4.4626;
1064.1000;0.0871;4.4626;
1064.4000;0.0847;4.4504;
1064.7000;0.0871;4.4504;
1065.0000;0.0855;4.4577;
1065.3000;0.0863;4.4528;
1065.6000;0.0847;4.4504;
1065.9000;0.0879;4.4479;
1066.2000;0.0871;4.4479;
1066.5000;0.0936;4.4675;
1066.8000;0.1001;4.4895;
1067.1000;0.0855;4.4430;
1067.4000;0.0855;4.4455;
1067.7000;0.0822;4.4479;
1068.0000;0.0855;4.4528;
1068.3000;0.0863;4.4577;
1068.6000;0.0855;4.4626;
1068.9000;0.0879;4.4748;
1069.2000;0.0871;4.4724;
1069.5000;0.0863;4.4822;
1069.8000;0.0847;4.4699;
1070.1000;0.0871;4.4724;
1070.4000;0.0871;4.4846;
1070.7000;0.0871;4.4797;
1071.0000;0.0855;4.4724;
1071.3000;0.0830;4.4699;
1071.6000;0.0855;4.4797;
1071.9000;0.0863;4.4797;
1072.2000;0.0855;4.4724;
1072.5000;0.0822;4.4577;
1072.8000;0.0847;4.4553;
1073.1000;0.0871;4.4650;
1073.4000;0.0863;4.4504;
1073.7000;0.0879;4.4455;
1074.0000;0.0855;4.4455;
1074.3000;0.0871;4.4577;
1074.6000;0.0855;4.4577;
1074.9000;0.0863;4.4626;
1075.2000;0.0887;4.4748;
1075.5000;0.0879;4.4675;
1075.8000;0.0879;4.4699;
1076.1000;0.1018;4.5066;
1076.4000;0.0887;4.4699;
1076.7000;0.0855;4.4675;
1077.0000;0.0871;4.4626;
1077.3000;0.0863;4.4577;
1077.6000;0.0855;4.4650;
1077.9000;0.0904;4.4822;
1078.2000;0.0887;4.4846;
1078.5000;0.0871;4.4748;
1078.8000;0.0814;4.4626;
1079.1000;0.0985;4.4993;
1079.4000;0.0912;4.4773;
1079.7000;0.0871;4.4577;
1080.0000;0.0863;4.4430;
1080.3000;0.0847;4.4479;
1080.6000;0.0863;4.4479;
1080.9000;0.0879;4.4455;
1081.2000;0.0855;4.4406;
1081.5000;0.0871;4.4455;
1081.8000;0.0855;4.4528;
1082.1000;0.0871;4.4553;
1082.4000;0.0863;4.4528;
1082.7000;0.0863;4.4504;
1083.0000;0.0798;4.4357;
1083.3000;0.0847;4.4553;
1083.6000;0.0879;4.4650;
1083.9000;0.0855;4.4650;
1084.2000;0.0871;4.4699;
1084.5000;0.0871;4.4748;
1084.8000;0.0871;4.4724;
1085.1000;0.0863;4.4724;
1085.4000;0.0855;4.4748;
1085.7000;0.0879;4.4650;
1086.0000;0.0863;4.4650;
1086.3000;0.0855;4.4553;
1086.6000;0.0879;4.4626;
1086.9000;0.0830;4.4430;
1087.2000;0.0855;4.4528;
1087.5000;0.0838;4.4577;
1087.8000;0.0830;4.4601;
1088.1000;0.0871;4.4650;
1088.4000;0.0887;4.4675;
1088.7000;0.0773;4.4357;
1089.0000;0.0863;4.4601;
1089.3000;0.0838;4.4528;
1089.6000;0.0920;4.4748;
1089.9000;0.0871;4.4724;
1090.2000;0.0863;4.4748;
1090.5000;0.0838;4.4626;
1090.8000;0.0814;4.4528;
1091.1000;0.0863;4.4699;
1091.4000;0.0952;4.4919;
1091.7000;0.0969;4.4993;
1092.0000;0.0993;4.5042;
1092.3000;0.0822;4.4479;
1092.6000;0.0847;4.4577;
1092.9000;0.0814;4.4504;
1093.2000;0.0847;4.4675;
1093.5000;0.0863;4.4724;
1093.8000;0.0855;4.4773;
1094.1000;0.0895;4.4797;
1094.4000;0.0863;4.4699;
1094.7000;0.0863;4.4699;
1095.0000;0.0969;4.5042;
1095.3000;0.0830;4.4699;
1095.6000;0.0847;4.4699;
1095.9000;0.0855;4.4626;
1096.2000;0.0871;4.4699;
1096.5000;0.0847;4.4650;
1096.8000;0.0830;4.4577;
1097.1000;0.0879;4.4773;
1097.4000;0.0855;4.4797;
1097.7000;0.0863;4.4797;
1098.0000;0.0895;4.4870;
1098.3000;0.0871;4.4748;
1098.6000;0.0863;4.4773;
1098.9000;0.0855;4.4601;
1099.2000;0.0806;4.4504;
1099.5000;0.0871;4.4675;
1099.8000;0.0863;4.4650;
1100.1000;0.0855;4.4675;
1100.4000;0.0847;4.4577;
1100.7000;0.0863;4.4675;
1101.0000;0.0879;4.4773;
1101.3000;0.0733;4.4406;
1101.6000;0.0863;4.4626;
1101.9000;0.0847;4.4601;
1102.2000;0.0863;4.4675;
1102.5000;0.0871;4.4724;
1102.8000;0.0855;4.4601;
1103.1000;0.0871;4.4577;
1103.4000;0.0920;4.4699;
1103.7000;0.0773;4.4210;
1104.0000;0.0838;4.4479;
1104.3000;0.0830;4.4504;
1104.6000;0.0863;4.4601;
1104.9000;0.0912;4.4724;
1105.2000;0.0814;4.4430;
1105.5000;0.0838;4.4528;
1105.8000;0.0838;4.4675;
1106.1000;0.0847;4.4650;
1106.4000;0.0847;4.4797;
1106.7000;0.0855;4.4748;
1107.0000;0.0887;4.4919;
1107.3000;0.0871;4.4846;
1107.6000;0.0879;4.4822;
1107.9000;0.0887;4.4773;
1108.2000;0.0863;4.4773;
1108.5000;0.0871;4.4822;
1108.8000;0.0847;4.4846;
1109.1000;0.0871;4.4895;
1109.4000;0.0855;4.4895;
1109.7000;0.0879;4.4968;
1110.0000;0.0855;4.5017;
1110.3000;0.0871;4.4993;
1110.6000;0.0887;4.5017;
1110.9000;0.0863;4.4968;
1111.2000;0.0847;4.4993;
1111.5000;0.0855;4.5017;
1111.8000;0.0847;4.5066;
1112.1000;0.0879;4.5042;
1112.4000;0.0749;4.4650;
1112.7000;0.0798;4.4870;
1113.0000;0.0855;4.5115;
1113.3000;0.0855;4.5066;
1113.6000;0.0806;4.4895;
1113.9000;0.0977;4.5384;
1114.2000;0.0863;4.5237;
1114.5000;0.0749;4.4895;
1114.8000;0.0863;4.5188;
1115.1000;0.0887;4.5139;
1115.4000;0.0830;4.4944;
1115.7000;0.0936;4.5188;
1116.0000;0.0887;4.4919;
1116.3000;0.0822;4.4675;
1116.6000;0.0912;4.4919;
1116.9000;0.0855;4.4846;
1117.2000;0.0838;4.4822;
1117.5000;0.0847;4.4895;
1117.8000;0.0863;4.5091;
1118.1000;0.0871;4.5066;
1118.4000;0.0871;4.5042;
1118.7000;0.0879;4.5042;
1119.0000;0.0847;4.5017;
1119.3000;0.0887;4.5188;
1119.6000;0.0863;4.5139;
1119.9000;0.0863;4.5115;
1120.2000;0.0871;4.5091;
1120.5000;0.0855;4.5042;
1120.8000;0.0895;4.5237;
1121.1000;0.0838;4.5091;
1121.4000;0.0830;4.5066;
1121.7000;0.0871;4.5042;
1122.0000;0.0847;4.4993;
1122.3000;0.0847;4.4944;
1122.6000;0.0814;4.4748;
1122.9000;0.0847;4.4822;
1123.2000;0.0871;4.4944;
1123.5000;0.0855;4.5017;
1123.8000;0.0863;4.4944;
1124.1000;0.0871;4.4944;
1124.4000;0.0855;4.4870;
1124.7000;0.0847;4.4846;
1125.0000;0.0863;4.4773;
1125.3000;0.0847;4.4773;
1125.6000;0.0814;4.4724;
1125.9000;0.0871;4.4846;
1126.2000;0.0855;4.4748;
1126.5000;0.0838;4.4822;
1126.8000;0.0895;4.4919;
1127.1000;0.0863;4.4919;
1127.4000;0.0838;4.4919;
1127.7000;0.0928;4.5213;
1128.0000;0.0733;4.4577;
1128.3000;0.0871;4.4993;
1128.6000;0.0855;4.4993;
1128.9000;0.0871;4.4968;
1129.2000;0.0847;4.4895;
1129.5000;0.0879;4.4993;
1129.8000;0.0847;4.4822;
1130.1000;0.0733;4.4528;
1130.4000;0.0863;4.4822;
1130.7000;0.0847;4.4797;
1131.0000;0.0920;4.4944;
1131.3000;0.0855;4.4846;
1131.6000;0.0879;4.4846;
1131.9000;0.0838;4.4822;
1132.2000;0.0847;4.4870;
1132.5000;0.0863;4.4895;
1132.8000;0.0863;4.4870;
1133.1000;0.0855;4.4895;
1133.4000;0.0847;4.4919;
1133.7000;0.0838;4.4944;
1134.0000;0.0879;4.5091;
1134.3000;0.0863;4.5115;
1134.6000;0.0887;4.5139;
1134.9000;0.0863;4.5066;
1135.2000;0.0847;4.5017;
1135.5000;0.0895;4.5164;
1135.8000;0.0855;4.5115;
1136.1000;0.0887;4.5139;
1136.4000;0.0879;4.5139;
1136.7000;0.0863;4.5164;
1137.0000;0.0863;4.5188;
1137.3000;0.0863;4.5139;
1137.6000;0.0879;4.5115;
1137.9000;0.0830;4.4968;
1138.2000;0.0863;4.5042;
1138.5000;0.1018;4.5506;
1138.8000;0.0847;4.5017;
1139.1000;0.0863;4.5066;
1139.4000;0.0871;4.5066;
1139.7000;0.0871;4.4968;
1140.0000;0.0871;4.4919;
1140.3000;0.0863;4.4870;
1140.6000;0.0838;4.4846;
1140.9000;0.0790;4.4724;
1141.2000;0.0855;4.4919;
1141.5000;0.0863;4.5017;
1141.8000;0.0855;4.4968;
1142.1000;0.0830;4.4919;
1142.4000;0.0863;4.4993;
1142.7000;0.0847;4.4944;
1143.0000;0.0879;4.5066;
1143.3000;0.0863;4.5091;
1143.6000;0.0855;4.5115;
1143.9000;0.0863;4.4993;
1144.2000;0.0871;4.4870;
1144.5000;0.0863;4.4822;
1144.8000;0.0863;4.4822;
1145.1000;0.0863;4.4870;
1145.4000;0.0838;4.4968;
1145.7000;0.0855;4.5115;
1146.0000;0.0798;4.4968;
1146.3000;0.0855;4.4993;
1146.6000;0.0863;4.5042;
1146.9000;0.0847;4.4919;
1147.2000;0.0855;4.4919;
1147.5000;0.0944;4.5164;
1147.8000;0.0871;4.4919;
1148.1000;0.0871;4.4944;
1148.4000;0.0765;4.4626;
1148.7000;0.0863;4.4968;
1149.0000;0.0879;4.4993;
1149.3000;0.0855;4.4993;
1149.6000;0.0838;4.4993;
1149.9000;0.0863;4.5091;
1150.2000;0.0822;4.5042;
1150.5000;0.0855;4.4968;
1150.8000;0.0920;4.5042;
1151.1000;0.0847;4.4895;
1151.4000;0.0838;4.4822;
1151.7000;0.0838;4.4919;
1152.0000;0.0863;4.5017;
1152.3000;0.0863;4.5042;
1152.6000;0.0879;4.5115;
1152.9000;0.0838;4.5091;
1153.2000;0.0765;4.4822;
1153.5000;0.0855;4.5042;
1153.8000;0.0871;4.5042;
1154.1000;0.0855;4.5017;
1154.4000;0.0871;4.4993;
1154.7000;0.0879;4.5042;
1155.0000;0.0863;4.5042;
1155.3000;0.0855;4.5066;
1155.6000;0.0887;4.5091;
1155.9000;0.0887;4.5017;
1156.2000;0.0871;4.5042;
1156.5000;0.0830;4.4895;
1156.8000;0.0863;4.4993;
1157.1000;0.0871;4.5017;
1157.4000;0.0838;4.4944;
1157.7000;0.0863;4.5017;
1158.0000;0.0863;4.5042;
1158.3000;0.0871;4.5066;
1158.6000;0.0871;4.4944;
1158.9000;0.0879;4.4968;
1159.2000;0.0855;4.5017;
1159.5000;0.0879;4.4968;
1159.8000;0.0912;4.5042;
1160.1000;0.0855;4.4797;
1160.4000;0.0887;4.4870;
1160.7000;0.0847;4.4748;
1161.0000;0.0879;4.4822;
1161.3000;0.0863;4.4870;
1161.6000;0.0838;4.4919;
1161.9000;0.0806;4.4919;
1162.2000;0.0879;4.5066;
1162.5000;0.0871;4.5017;
1162.8000;0.0855;4.4944;
1163.1000;0.0838;4.4944;
1163.4000;0.0895;4.4993;
1163.7000;0.0863;4.4919;
1164.0000;0.0863;4.4895;
1164.3000;0.0863;4.4919;
1164.6000;0.0879;4.4846;
1164.9000;0.0863;4.4748;
1165.2000;0.0879;4.4724;
1165.5000;0.0887;4.4822;
1165.8000;0.0838;4.4699;
1166.1000;0.0871;4.4895;
1166.4000;0.0838;4.4870;
1166.7000;0.0814;4.4797;
1167.0000;0.0847;4.4968;
1167.3000;0.0863;4.4968;
1167.6000;0.0871;4.4870;
1167.9000;0.0863;4.4895;
1168.2000;0.0838;4.4797;
1168.5000;0.0879;4.4846;
1168.8000;0.0838;4.4822;
1169.1000;0.0863;4.4968;
1169.4000;0.0847;4.4993;
1169.7000;0.0863;4.4944;
1170.0000;0.0855;4.4944;
1170.3000;0.0855;4.4895;
1170.6000;0.0871;4.4822;
1170.9000;0.0855;4.4748;
1171.2000;0.0855;4.4797;
1171.5000;0.0863;4.4822;
1171.8000;0.0887;4.4944;
1172.1000;0.0871;4.4895;
1172.4000;0.0904;4.4944;
1172.7000;0.0822;4.4822;
1173.0000;0.0871;4.4993;
1173.3000;0.0887;4.5091;
1173.6000;0.0879;4.5042;
1173.9000;0.0838;4.5017;
1174.2000;0.0871;4.5066;
1174.5000;0.0830;4.4944;
1174.8000;0.0765;4.4724;
1175.1000;0.0863;4.4919;
1175.4000;0.0847;4.4895;
1175.7000;0.0847;4.4895;
1176.0000;0.0871;4.4968;
1176.3000;0.0855;4.4919;
1176.6000;0.0920;4.5066;
1176.9000;0.0838;4.4870;
1177.2000;0.0847;4.4944;
1177.5000;0.0847;4.4993;
1177.8000;0.0879;4.5042;
1178.1000;0.0863;4.4993;
1178.4000;0.0838;4.4846;
1178.7000;0.0863;4.5066;
1179.0000;0.0904;4.5188;
1179.3000;0.0855;4.5017;
1179.6000;0.0871;4.5017;
1179.9000;0.0871;4.4944;
1180.2000;0.0879;4.4944;
1180.5000;0.0871;4.4919;
1180.8000;0.0863;4.4895;
1181.1000;0.0855;4.4895;
1181.4000;0.0863;4.4895;
1181.7000;0.0838;4.4919;
1182.0000;0.0822;4.4944;
1182.3000;0.0863;4.5066;
1182.6000;0.0838;4.5042;
1182.9000;0.0855;4.5042;
1183.2000;0.0838;4.4870;
1183.5000;0.0855;4.4919;
1183.8000;0.0879;4.5017;
1184.1000;0.0847;4.4919;
1184.4000;0.0863;4.5017;
1184.7000;0.0887;4.5017;
1185.0000;0.0879;4.5042;
1185.3000;0.0863;4.4993;
1185.6000;0.0855;4.4968;
1185.9000;0.0855;4.4944;
1186.2000;0.0871;4.4993;
1186.5000;0.0863;4.4895;
1186.8000;0.0781;4.4577;
1187.1000;0.0855;4.4797;
1187.4000;0.0879;4.4846;
1187.7000;0.0863;4.4846;
1188.0000;0.0838;4.4822;
1188.3000;0.0847;4.4870;
1188.6000;0.0879;4.4846;
1188.9000;0.0855;4.4748;
1189.2000;0.0863;4.4748;
1189.5000;0.0895;4.4797;
1189.8000;0.0895;4.4797;
1190.1000;0.0936;4.4968;
1190.4000;0.0863;4.4699;
1190.7000;0.0863;4.4773;
1191.0000;0.0871;4.4870;
1191.3000;0.0879;4.4846;
1191.6000;0.0887;4.4870;
1191.9000;0.0936;4.5115;
1192.2000;0.0928;4.5017;
1192.5000;0.0871;4.4822;
1192.8000;0.0863;4.4797;
1193.1000;0.0928;4.5115;
1193.4000;0.0863;4.5066;
1193.7000;0.0830;4.4993;
1194.0000;0.0855;4.4968;
1194.3000;0.0863;4.4968;
1194.6000;0.0863;4.4993;
1194.9000;0.0855;4.5115;
1195.2000;0.0871;4.5286;
1195.5000;0.0838;4.5091;
1195.8000;0.0871;4.5066;
1196.1000;0.0863;4.4919;
1196.4000;0.0855;4.4895;
1196.7000;0.0830;4.4895;
1197.0000;0.0847;4.5017;
1197.3000;0.0855;4.5139;
1197.6000;0.0863;4.5237;
1197.9000;0.0879;4.5262;
1198.2000;0.0871;4.5164;
1198.5000;0.0855;4.5164;
1198.8000;0.0863;4.5115;
1199.1000;0.0855;4.5066;
1199.4000;0.0863;4.5091;
1199.7000;0.0871;4.4944;
1200.0000;0.0887;4.5017;
1200.3000;0.0855;4.4968;
1200.6000;0.0830;4.4870;
1200.9000;0.0838;4.4822;
1201.2000;0.0879;4.4968;
1201.5000;0.0871;4.5017;
1201.8000;0.0895;4.5213;
1202.1000;0.0855;4.5091;
1202.4000;0.0838;4.5066;
1202.7000;0.0887;4.5164;
1203.0000;0.0871;4.5164;
1203.3000;0.0855;4.4993;
1203.6000;0.0879;4.5042;
1203.9000;0.0887;4.5091;
1204.2000;0.0871;4.5091;
1204.5000;0.0855;4.5115;
1204.8000;0.0904;4.5237;
1205.1000;0.0887;4.5139;
1205.4000;0.0871;4.5188;
1205.7000;0.0863;4.5164;
1206.0000;0.0863;4.5213;
1206.3000;0.0855;4.5188;
1206.6000;0.0879;4.5237;
1206.9000;0.0855;4.5139;
1207.2000;0.0863;4.5188;
1207.5000;0.0838;4.5188;
1207.8000;0.0871;4.5286;
1208.1000;0.0830;4.5164;
1208.4000;0.0830;4.5115;
1208.7000;0.0887;4.5286;
1209.0000;0.0863;4.5213;
1209.3000;0.0855;4.5213;
1209.6000;0.0863;4.5188;
1209.9000;0.0871;4.5213;
1210.2000;0.0871;4.5262;
1210.5000;0.0871;4.5286;
1210.8000;0.0814;4.5139;
1211.1000;0.0830;4.5115;
1211.4000;0.0863;4.5164;
1211.7000;0.0904;4.5286;
1212.0000;0.0847;4.5115;
1212.3000;0.0847;4.5139;
1212.6000;0.0838;4.5091;
1212.9000;0.0822;4.5066;
1213.2000;0.0863;4.5139;
1213.5000;0.0863;4.5017;
1213.8000;0.0887;4.5066;
1214.1000;0.0863;4.5066;
1214.4000;0.0863;4.5042;
1214.7000;0.0871;4.5091;
1215.0000;0.0806;4.4846;
1215.3000;0.0847;4.4895;
1215.6000;0.0879;4.4919;
1215.9000;0.0855;4.4797;
1216.2000;0.0847;4.4846;
1216.5000;0.0855;4.4846;
1216.8000;0.0863;4.4846;
1217.1000;0.0863;4.4846;
1217.4000;0.0822;4.4724;
1217.7000;0.0847;4.4797;
1218.0000;0.0936;4.5042;
1218.3000;0.0887;4.4919;
1218.6000;0.0887;4.4846;
1218.9000;0.0871;4.4724;
1219.2000;0.0863;4.4797;
1219.5000;0.0855;4.4773;
1219.8000;0.0847;4.4797;
1220.1000;0.0895;4.4822;
1220.4000;0.0757;4.4455;
1220.7000;0.0895;4.4797;
1221.0000;0.0944;4.4968;
1221.3000;0.0822;4.4650;
1221.6000;0.0847;4.4724;
1221.9000;0.0838;4.4699;
1222.2000;0.0855;4.4748;
1222.5000;0.0863;4.4797;
1222.8000;0.0790;4.4601;
1223.1000;0.0757;4.4406;
1223.4000;0.0871;4.4626;
1223.7000;0.0863;4.4724;
1224.0000;0.0716;4.4357;
1224.3000;0.0855;4.4773;
1224.6000;0.0855;4.4846;
1224.9000;0.0936;4.5139;
1225.2000;0.0847;4.4919;
1225.5000;0.0863;4.4993;
1225.8000;0.0871;4.5017;
1226.1000;0.0855;4.4944;
1226.4000;0.0871;4.4993;
1226.7000;0.0904;4.5042;
1227.0000;0.0879;4.4968;
1227.3000;0.0830;4.4822;
1227.6000;0.0855;4.4870;
1227.9000;0.0855;4.4870;
1228.2000;0.0855;4.4944;
1228.5000;0.0838;4.4919;
1228.8000;0.0855;4.4993;
1229.1000;0.0879;4.4968;
1229.4000;0.0847;4.4895;
1229.7000;0.0855;4.4944;
1230.0000;0.0830;4.4870;
1230.3000;0.0895;4.5017;
1230.6000;0.0838;4.4773;
1230.9000;0.0879;4.4895;
1231.2000;0.0863;4.4895;
1231.5000;0.0830;4.4797;
1231.8000;0.0863;4.4870;
1232.1000;0.0863;4.4895;
1232.4000;0.0855;4.4797;
1232.7000;0.0863;4.4822;
1233.0000;0.0847;4.4846;
1233.3000;0.0863;4.4870;
1233.6000;0.0879;4.4822;
1233.9000;0.0838;4.4773;
1234.2000;0.0879;4.4968;
1234.5000;0.0952;4.5188;
1234.8000;0.0855;4.4895;
1235.1000;0.0863;4.4944;
1235.4000;0.0887;4.5017;
1235.7000;0.0863;4.4968;
1236.0000;0.0863;4.4968;
1236.3000;0.0838;4.4846;
1236.6000;0.0847;4.4870;
1236.9000;0.0863;4.4968;
1237.2000;0.0847;4.4944;
1237.5000;0.0847;4.4944;
1237.8000;0.0855;4.4895;
1238.1000;0.0790;4.4699;
1238.4000;0.0871;4.4993;
1238.7000;0.0863;4.4919;
1239.0000;0.0855;4.4895;
1239.3000;0.0855;4.4797;
1239.6000;0.0855;4.4919;
1239.9000;0.0847;4.4993;
1240.2000;0.0855;4.4822;
1240.5000;0.0814;4.4724;
1240.8000;0.0969;4.5115;
1241.1000;0.0838;4.4724;
1241.4000;0.0830;4.4724;
1241.7000;0.0855;4.4846;
1242.0000;0.0822;4.4846;
1242.3000;0.0847;4.4895;
1242.6000;0.0847;4.4846;
1242.9000;0.0871;4.4895;
1243.2000;0.0887;4.4993;
1243.5000;0.0765;4.4601;
1243.8000;0.0895;4.5017;
1244.1000;0.0765;4.4650;
1244.4000;0.0879;4.4993;
1244.7000;0.0790;4.4748;
1245.0000;0.0887;4.4993;
1245.3000;0.0847;4.4895;
1245.6000;0.0814;4.4846;
1245.9000;0.0879;4.5066;
1246.2000;0.0798;4.4968;
1246.5000;0.0814;4.4993;
1246.8000;0.0855;4.5017;
1247.1000;0.0912;4.5066;
1247.4000;0.0855;4.4895;
1247.7000;0.0928;4.5066;
1248.0000;0.0855;4.4846;
1248.3000;0.0847;4.4822;
1248.6000;0.0871;4.4993;
1248.9000;0.0863;4.5042;
1249.2000;0.0847;4.4968;
1249.5000;0.0863;4.5042;
1249.8000;0.0863;4.4944;
1250.1000;0.0838;4.4919;
1250.4000;0.0863;4.4993;
1250.7000;0.0855;4.4919;
1251.0000;0.0863;4.4944;
1251.3000;0.0847;4.4846;
1251.6000;0.0871;4.4870;
1251.9000;0.0871;4.4846;
1252.2000;0.0871;4.4870;
1252.5000;0.0936;4.5139;
1252.8000;0.0855;4.4797;
1253.1000;0.0887;4.4895;
1253.4000;0.0871;4.4895;
1253.7000;0.0871;4.4895;
1254.0000;0.0855;4.4822;
1254.3000;0.0716;4.4455;
1254.6000;0.0887;4.4822;
1254.9000;0.0863;4.4895;
1255.2000;0.0814;4.4895;
1255.5000;0.0830;4.4993;
1255.8000;0.0822;4.5066;
1256.1000;0.0830;4.5017;
1256.4000;0.0855;4.5115;
1256.7000;0.0904;4.5237;
1257.0000;0.0863;4.5115;
1257.3000;0.0863;4.5091;
1257.6000;0.0879;4.5066;
1257.9000;0.0871;4.5017;
1258.2000;0.0863;4.4944;
1258.5000;0.0879;4.5042;
1258.8000;0.0871;4.5066;
1259.1000;0.0879;4.5188;
1259.4000;0.0847;4.5091;
1259.7000;0.0863;4.5164;
1260.0000;0.0847;4.5042;
1260.3000;0.0847;4.5115;
1260.6000;0.0838;4.5091;
1260.9000;0.0781;4.5017;
1261.2000;0.0863;4.5286;
1261.5000;0.0847;4.5139;
1261.8000;0.0871;4.5164;
1262.1000;0.0904;4.5262;
1262.4000;0.0871;4.5091;
1262.7000;0.0879;4.4968;
1263.0000;0.0855;4.4919;
1263.3000;0.0814;4.4699;
1263.6000;0.0928;4.5042;
1263.9000;0.0863;4.4797;
1264.2000;0.0887;4.4870;
1264.5000;0.0814;4.4699;
1264.8000;0.0863;4.4846;
1265.1000;0.0838;4.4870;
1265.4000;0.0822;4.4822;
1265.7000;0.0904;4.5066;
1266.0000;0.0871;4.4968;
1266.3000;0.0847;4.4895;
1266.6000;0.0814;4.4870;
1266.9000;0.0936;4.5237;
1267.2000;0.0863;4.4944;
1267.5000;0.0822;4.4822;
1267.8000;0.0871;4.4944;
1268.1000;0.0863;4.4919;
1268.4000;0.0863;4.4944;
1268.7000;0.0716;4.4553;
1269.0000;0.0871;4.4968;
1269.3000;0.0863;4.4968;
1269.6000;0.0863;4.4968;
1269.9000;0.0871;4.4895;
1270.2000;0.0895;4.4944;
1270.5000;0.0838;4.4675;
1270.8000;0.0855;4.4675;
1271.1000;0.0863;4.4748;
1271.4000;0.0871;4.4870;
1271.7000;0.0855;4.4993;
1272.0000;0.0863;4.5017;
1272.3000;0.0887;4.5066;
1272.6000;0.0830;4.4944;
1272.9000;0.0871;4.5017;
1273.2000;0.0847;4.4919;
1273.5000;0.0871;4.4944;
1273.8000;0.0887;4.4993;
1274.1000;0.0887;4.4993;
1274.4000;0.0887;4.5091;
1274.7000;0.0879;4.4993;
1275.0000;0.0830;4.4870;
1275.3000;0.0855;4.4822;
1275.6000;0.0855;4.4870;
1275.9000;0.0863;4.4944;
1276.2000;0.0855;4.4944;
1276.5000;0.0749;4.4601;
1276.8000;0.0838;4.4895;
1277.1000;0.0863;4.4968;
1277.4000;0.0879;4.4968;
1277.7000;0.0847;4.4870;
1278.0000;0.0855;4.4895;
1278.3000;0.0871;4.4993;
1278.6000;0.0871;4.4919;
1278.9000;0.0879;4.5042;
1279.2000;0.0871;4.5017;
1279.5000;0.0863;4.5091;
1279.8000;0.0863;4.5017;
1280.1000;0.0847;4.5017;
1280.4000;0.0855;4.4968;
1280.7000;0.0855;4.4944;
1281.0000;0.0936;4.5237;
1281.3000;0.0871;4.5017;
1281.6000;0.0855;4.4919;
1281.9000;0.0879;4.4944;
1282.2000;0.0895;4.4870;
1282.5000;0.0895;4.4919;
1282.8000;0.0847;4.4797;
1283.1000;0.0879;4.4919;
1283.4000;0.0847;4.4846;
1283.7000;0.0863;4.4993;
1284.0000;0.0920;4.5091;
1284.3000;0.0863;4.4870;
1284.6000;0.0863;4.4846;
1284.9000;0.0838;4.4797;
1285.2000;0.0863;4.4773;
1285.5000;0.0863;4.4773;
1285.8000;0.0781;4.4455;
1286.1000;0.0838;4.4504;
1286.4000;0.0871;4.4650;
1286.7000;0.0838;4.4406;
1287.0000;0.0912;4.4822;
1287.3000;0.0847;4.4650;
1287.6000;0.0920;4.4870;
1287.9000;0.0863;4.4675;
1288.2000;0.0855;4.4675;
1288.5000;0.0847;4.4773;
1288.8000;0.0855;4.4846;
1289.1000;0.0847;4.4797;
1289.4000;0.0863;4.4944;
1289.7000;0.0814;4.4724;
1290.0000;0.0871;4.4993;
1290.3000;0.0887;4.4919;
1290.6000;0.0790;4.4650;
1290.9000;0.0814;4.4748;
1291.2000;0.0806;4.4724;
1291.5000;0.0855;4.4846;
1291.8000;0.0871;4.4846;
1292.1000;0.0855;4.4748;
1292.4000;0.0887;4.4846;
1292.7000;0.0863;4.4773;
1293.0000;0.0863;4.4724;
1293.3000;0.0847;4.4650;
1293.6000;0.0847;4.4675;
1293.9000;0.0863;4.4748;
1294.2000;0.0871;4.4822;
1294.5000;0.0952;4.5139;
1294.8000;0.0838;4.4919;
1295.1000;0.1001;4.5286;
1295.4000;0.0879;4.4895;
1295.7000;0.0871;4.4870;
1296.0000;0.0863;4.4870;
1296.3000;0.0863;4.4919;
1296.6000;0.0863;4.4895;
1296.9000;0.0822;4.4773;
1297.2000;0.0863;4.4822;
1297.5000;0.0855;4.4846;
1297.8000;0.0871;4.4944;
1298.1000;0.0887;4.5017;
1298.4000;0.0814;4.4748;
1298.7000;0.0863;4.4919;
1299.0000;0.0847;4.4822;
1299.3000;0.0798;4.4724;
1299.6000;0.0855;4.4797;
1299.9000;0.0863;4.4797;
1300.2000;0.0847;4.4797;
1300.5000;0.0895;4.4822;
1300.8000;0.0871;4.4748;
1301.1000;0.0838;4.4724;
1301.4000;0.0879;4.4797;
1301.7000;0.0871;4.4773;
1302.0000;0.0847;4.4773;
1302.3000;0.0879;4.4870;
1302.6000;0.0822;4.4773;
1302.9000;0.0871;4.5017;
1303.2000;0.0871;4.5091;
1303.5000;0.0904;4.5139;
1303.8000;0.0855;4.4919;
1304.1000;0.0871;4.4797;
1304.4000;0.0879;4.4822;
1304.7000;0.0847;4.4870;
1305.0000;0.0847;4.4773;
1305.3000;0.0830;4.4699;
1305.6000;0.0847;4.4650;
1305.9000;0.0895;4.4797;
1306.2000;0.0855;4.4748;
1306.5000;0.0855;4.4797;
1306.8000;0.0855;4.4773;
1307.1000;0.0847;4.4748;
1307.4000;0.0847;4.4870;
1307.7000;0.0871;4.4919;
1308.0000;0.0855;4.4797;
1308.3000;0.0847;4.4797;
1308.6000;0.0847;4.4822;
1308.9000;0.0838;4.4797;
1309.2000;0.0855;4.4846;
1309.5000;0.0830;4.4846;
1309.8000;0.0863;4.4944;
1310.1000;0.0855;4.4919;
1310.4000;0.0863;4.4919;
1310.7000;0.0863;4.4944;
1311.0000;0.0757;4.4626;
1311.3000;0.0830;4.4773;
1311.6000;0.0814;4.4846;
1311.9000;0.0847;4.4919;
1312.2000;0.0863;4.4895;
1312.5000;0.0855;4.4944;
1312.8000;0.0814;4.4870;
1313.1000;0.0855;4.4944;
1313.4000;0.0838;4.4895;
1313.7000;0.0879;4.4944;
1314.0000;0.0871;4.4919;
1314.3000;0.0863;4.4895;
1314.6000;0.0838;4.4822;
1314.9000;0.0847;4.4846;
1315.2000;0.0814;4.4822;
1315.5000;0.0863;4.4944;
1315.8000;0.0863;4.4968;
1316.1000;0.0814;4.4822;
1316.4000;0.0847;4.4919;
1316.7000;0.0838;4.4870;
1317.0000;0.0724;4.4528;
1317.3000;0.0855;4.4895;
1317.6000;0.0879;4.4944;
1317.9000;0.0871;4.4919;
1318.2000;0.0887;4.5017;
1318.5000;0.0806;4.4822;
1318.8000;0.0863;4.4895;
1319.1000;0.0928;4.5017;
1319.4000;0.0863;4.4773;
1319.7000;0.0879;4.4773;
1320.0000;0.0847;4.4748;
1320.3000;0.0863;4.4846;
1320.6000;0.0847;4.4870;
1320.9000;0.0822;4.4797;
1321.2000;0.0871;4.4944;
1321.5000;0.0863;4.4993;
1321.8000;0.0830;4.4919;
1322.1000;0.0871;4.5042;
1322.4000;0.0871;4.5042;
1322.7000;0.0879;4.4968;
1323.0000;0.0977;4.5262;
1323.3000;0.0961;4.5311;
1323.6000;0.0879;4.4968;
1323.9000;0.0855;4.4993;
1324.2000;0.0871;4.5091;
1324.5000;0.0879;4.5091;
1324.8000;0.0863;4.5042;
1325.1000;0.0855;4.4968;
1325.4000;0.0847;4.4846;
1325.7000;0.0830;4.4724;
1326.0000;0.0871;4.4724;
1326.3000;0.0879;4.4797;
1326.6000;0.0863;4.4797;
1326.9000;0.0855;4.4822;
1327.2000;0.0879;4.4968;
1327.5000;0.0863;4.4944;
1327.8000;0.0969;4.5188;
1328.1000;0.0863;4.4870;
1328.4000;0.0871;4.4944;
1328.7000;0.0855;4.4895;
1329.0000;0.0830;4.4699;
1329.3000;0.0830;4.4626;
1329.6000;0.0855;4.4773;
1329.9000;0.0847;4.4675;
1330.2000;0.0871;4.4797;
1330.5000;0.0806;4.4650;
1330.8000;0.0855;4.4773;
1331.1000;0.0871;4.4797;
1331.4000;0.0838;4.4724;
1331.7000;0.0847;4.4773;
1332.0000;0.0863;4.4822;
1332.3000;0.0879;4.4846;
1332.6000;0.0855;4.4773;
1332.9000;0.0879;4.4895;
1333.2000;0.0847;4.4846;
1333.5000;0.0838;4.4748;
1333.8000;0.0855;4.4846;
1334.1000;0.0871;4.4944;
1334.4000;0.0879;4.4993;
1334.7000;0.0904;4.5042;
1335.0000;0.0855;4.4919;
1335.3000;0.0863;4.4944;
1335.6000;0.0790;4.4675;
1335.9000;0.0863;4.4870;
1336.2000;0.0871;4.4870;
1336.5000;0.0847;4.4846;
1336.8000;0.0871;4.4968;
1337.1000;0.0863;4.5017;
1337.4000;0.0855;4.4968;
1337.7000;0.0952;4.5213;
1338.0000;0.0830;4.4773;
1338.3000;0.0863;4.4895;
1338.6000;0.0838;4.4797;
1338.9000;0.0952;4.5066;
1339.2000;0.0871;4.4870;
1339.5000;0.0863;4.4822;
1339.8000;0.0895;4.4870;
1340.1000;0.0781;4.4601;
1340.4000;0.0847;4.4773;
1340.7000;0.0716;4.4455;
1341.0000;0.0887;4.4944;
1341.3000;0.0863;4.4822;
1341.6000;0.0863;4.4724;
1341.9000;0.0863;4.4773;
1342.2000;0.0855;4.4846;
1342.5000;0.0847;4.4797;
1342.8000;0.0830;4.4773;
1343.1000;0.0847;4.4699;
1343.4000;0.0855;4.4748;
1343.7000;0.0855;4.4773;
1344.0000;0.0855;4.4724;
1344.3000;0.0863;4.4748;
1344.6000;0.0855;4.4748;
1344.9000;0.0798;4.4553;
1345.2000;0.0855;4.4822;
1345.5000;0.0822;4.4724;
1345.8000;0.0847;4.4773;
1346.1000;0.0863;4.4797;
1346.4000;0.0871;4.4846;
1346.7000;0.0838;4.4773;
1347.0000;0.0847;4.4797;
1347.3000;0.0847;4.4748;
1347.6000;0.0847;4.4724;
1347.9000;0.0871;4.4724;
1348.2000;0.0871;4.4748;
1348.5000;0.0863;4.4748;
1348.8000;0.0838;4.4699;
1349.1000;0.0830;4.4699;
1349.4000;0.0847;4.4797;
1349.7000;0.0863;4.4870;
1350.0000;0.0822;4.4773;
1350.3000;0.0871;4.4968;
1350.6000;0.0822;4.4895;
1350.9000;0.0871;4.5066;
1351.2000;0.0847;4.5017;
1351.5000;0.0838;4.5017;
1351.8000;0.0863;4.4968;
1352.1000;0.0895;4.5188;
1352.4000;0.0855;4.5139;
1352.7000;0.0855;4.5091;
1353.0000;0.0855;4.5017;
1353.3000;0.0838;4.5042;
1353.6000;0.0847;4.4993;
1353.9000;0.0855;4.4968;
1354.2000;0.0936;4.5066;
1354.5000;0.0855;4.4748;
1354.8000;0.0830;4.4699;
1355.1000;0.0847;4.4797;
1355.4000;0.0871;4.4870;
1355.7000;0.0855;4.4919;
1356.0000;0.0830;4.4944;
1356.3000;0.0904;4.5115;
1356.6000;0.0847;4.5091;
1356.9000;0.0838;4.4919;
1357.2000;0.0847;4.4968;
1357.5000;0.0969;4.5237;
1357.8000;0.0847;4.4895;
1358.1000;0.0822;4.4846;
1358.4000;0.0838;4.4895;
1358.7000;0.0912;4.5066;
1359.0000;0.0920;4.5164;
1359.3000;0.0863;4.4944;
1359.6000;0.0822;4.4822;
1359.9000;0.0863;4.4846;
1360.2000;0.0871;4.4748;
1360.5000;0.0871;4.4773;
1360.8000;0.0863;4.4724;
1361.1000;0.0904;4.4944;
1361.4000;0.0806;4.4650;
1361.7000;0.0798;4.4577;
1362.0000;0.0822;4.4650;
1362.3000;0.0895;4.4919;
1362.6000;0.0879;4.4846;
1362.9000;0.0863;4.4895;
1363.2000;0.0863;4.4870;
1363.5000;0.0863;4.4846;
1363.8000;0.0863;4.4846;
1364.1000;0.0895;4.4993;
1364.4000;0.0895;4.5066;
1364.7000;0.0863;4.5091;
1365.0000;0.0904;4.5139;
1365.3000;0.0855;4.4919;
1365.6000;0.0895;4.4944;
1365.9000;0.0879;4.5017;
1366.2000;0.0879;4.5066;
1366.5000;0.0895;4.5188;
1366.8000;0.0855;4.5042;
1367.1000;0.0871;4.4993;
1367.4000;0.0847;4.5017;
1367.7000;0.0871;4.5042;
1368.0000;0.0847;4.5017;
1368.3000;0.0871;4.5066;
1368.6000;0.0838;4.4993;
1368.9000;0.0863;4.5042;
1369.2000;0.0855;4.4993;
1369.5000;0.0871;4.4944;
1369.8000;0.0863;4.4919;
1370.1000;0.0871;4.4870;
1370.4000;0.0871;4.4919;
1370.7000;0.0830;4.4846;
1371.0000;0.0863;4.4846;
1371.3000;0.0863;4.4895;
1371.6000;0.0822;4.4748;
1371.9000;0.0895;4.4870;
1372.2000;0.0895;4.4870;
1372.5000;0.0855;4.4846;
1372.8000;0.0863;4.4870;
1373.1000;0.0855;4.4919;
1373.4000;0.0855;4.4968;
1373.7000;0.0871;4.4968;
1374.0000;0.0863;4.4968;
1374.3000;0.0887;4.4993;
1374.6000;0.0847;4.4919;
1374.9000;0.0838;4.4870;
1375.2000;0.0855;4.4944;
1375.5000;0.0830;4.4944;
1375.8000;0.0863;4.4993;
1376.1000;0.0838;4.4895;
1376.4000;0.0838;4.4968;
1376.7000;0.0863;4.4968;
1377.0000;0.0847;4.4944;
1377.3000;0.0781;4.4748;
1377.6000;0.0806;4.4944;
1377.9000;0.0790;4.4895;
1378.2000;0.0961;4.5311;
1378.5000;0.0855;4.4993;
1378.8000;0.0871;4.4968;
1379.1000;0.0912;4.4944;
1379.4000;0.0855;4.4895;
1379.7000;0.0871;4.4895;
1380.0000;0.0863;4.4748;
1380.3000;0.0863;4.4724;
1380.6000;0.0863;4.4773;
1380.9000;0.0863;4.4699;
1381.2000;0.0765;4.4308;
1381.5000;0.0855;4.4650;
1381.8000;0.0838;4.4626;
1382.1000;0.0871;4.4724;
1382.4000;0.0871;4.4773;
1382.7000;0.0969;4.5091;
1383.0000;0.0871;4.4895;
1383.3000;0.0887;4.5017;
1383.6000;0.0887;4.5115;
1383.9000;0.0822;4.4870;
1384.2000;0.0863;4.4870;
1384.5000;0.0928;4.5139;
1384.8000;0.0871;4.4968;
1385.1000;0.0855;4.4846;
1385.4000;0.0863;4.4822;
1385.7000;0.0847;4.4773;
1386.0000;0.0855;4.4870;
1386.3000;0.0863;4.4968;
1386.6000;0.0863;4.4993;
1386.9000;0.0863;4.4968;
1387.2000;0.0871;4.5017;
1387.5000;0.0855;4.4968;
1387.8000;0.0830;4.4870;
1388.1000;0.0887;4.4993;
1388.4000;0.0871;4.4944;
1388.7000;0.0863;4.4944;
1389.0000;0.0838;4.4919;
1389.3000;0.0863;4.5017;
1389.6000;0.0887;4.5042;
1389.9000;0.0790;4.4919;
1390.2000;0.0863;4.5017;
1390.5000;0.0871;4.5066;
1390.8000;0.0871;4.5017;
1391.1000;0.0895;4.4993;
1391.4000;0.0855;4.4919;
1391.7000;0.0855;4.4846;
1392.0000;0.0863;4.4919;
1392.3000;0.0863;4.4919;
1392.6000;0.0847;4.4895;
1392.9000;0.0863;4.4895;
1393.2000;0.0847;4.4870;
1393.5000;0.0871;4.4895;
1393.8000;0.0847;4.4846;
1394.1000;0.0855;4.4968;
1394.4000;0.0879;4.4993;
1394.7000;0.0887;4.4944;
1395.0000;0.0904;4.4993;
1395.3000;0.0871;4.4944;
1395.6000;0.0879;4.4944;
1395.9000;0.0798;4.4650;
1396.2000;0.0887;4.4846;
1396.5000;0.0863;4.4846;
1396.8000;0.0855;4.4870;
1397.1000;0.0838;4.4846;
1397.4000;0.0855;4.4919;
1397.7000;0.0830;4.4822;
1398.0000;0.0855;4.4919;
1398.3000;0.0912;4.5091;
1398.6000;0.0904;4.5091;
1398.9000;0.0741;4.4675;
1399.2000;0.0798;4.4846;
1399.5000;0.0863;4.5066;
1399.8000;0.0838;4.4968;
