time/ms;Fluo/V;P700 deltaI/I x10³;
-199.8000;0.0912;4.3917;
-199.5000;0.0920;4.3892;
-199.2000;0.0920;4.3868;
-198.9000;0.0985;4.4015;
-198.6000;0.0928;4.3892;
-198.3000;0.0920;4.3795;
-198.0000;0.0912;4.3819;
-197.7000;0.0928;4.3868;
-197.4000;0.0912;4.3917;
-197.1000;0.0928;4.3941;
-196.8000;0.0936;4.3990;
-196.5000;0.0895;4.3966;
-196.2000;0.0920;4.4064;
-195.9000;0.0936;4.4039;
-195.6000;0.0944;4.4112;
-195.3000;0.0928;4.4088;
-195.0000;0.1034;4.4381;
-194.7000;0.0928;4.3966;
-194.4000;0.0920;4.3966;
-194.1000;0.0912;4.3966;
-193.8000;0.0879;4.3868;
-193.5000;0.0920;4.4015;
-193.2000;0.0912;4.3966;
-192.9000;0.0749;4.3550;
-192.6000;0.0920;4.3966;
-192.3000;0.0920;4.3966;
-192.0000;0.0936;4.3990;
-191.7000;0.0904;4.3917;
-191.4000;0.0920;4.3990;
-191.1000;0.0912;4.3843;
-190.8000;0.0904;4.3819;
-190.5000;0.0887;4.3721;
-190.2000;0.0895;4.3697;
-189.9000;0.0952;4.3795;
-189.6000;0.0928;4.3746;
-189.3000;0.0952;4.3966;
-189.0000;0.0887;4.3672;
-188.7000;0.0928;4.3770;
-188.4000;0.0961;4.3966;
-188.1000;0.0928;4.3819;
-187.8000;0.0928;4.3819;
-187.5000;0.0830;4.3574;
-187.2000;0.0847;4.3648;
-186.9000;0.0895;4.3843;
-186.6000;0.0830;4.3672;
-186.3000;0.0936;4.3892;
-186.0000;0.0806;4.3623;
-185.7000;0.0920;4.3941;
-185.4000;0.0936;4.3892;
-185.1000;0.1026;4.4112;
-184.8000;0.0936;4.3868;
-184.5000;0.0920;4.3843;
-184.2000;0.0952;4.3990;
-183.9000;0.0928;4.3843;
-183.6000;0.0952;4.3990;
-183.3000;0.0912;4.3819;
-183.0000;0.0904;4.3795;
-182.7000;0.0920;4.3819;
-182.4000;0.0912;4.3819;
-182.1000;0.0912;4.3746;
-181.8000;0.0920;4.3795;
-181.5000;0.0904;4.3795;
-181.2000;0.1001;4.4039;
-180.9000;0.0952;4.3843;
-180.6000;0.0904;4.3746;
-180.3000;0.0969;4.3868;
-180.0000;0.0936;4.3892;
-179.7000;0.0928;4.3795;
-179.4000;0.0936;4.3746;
-179.1000;0.0912;4.3697;
-178.8000;0.0928;4.3795;
-178.5000;0.0952;4.3892;
-178.2000;0.0912;4.3819;
-177.9000;0.0928;4.3795;
-177.6000;0.0920;4.3917;
-177.3000;0.0952;4.3941;
-177.0000;0.0936;4.3917;
-176.7000;0.0904;4.3892;
-176.4000;0.0936;4.3892;
-176.1000;0.0912;4.3941;
-175.8000;0.0952;4.4015;
-175.5000;0.1018;4.4259;
-175.2000;0.0871;4.3868;
-174.9000;0.0928;4.3990;
-174.6000;0.0887;4.3892;
-174.3000;0.0904;4.3966;
-174.0000;0.0912;4.3990;
-173.7000;0.0871;4.3843;
-173.4000;0.0847;4.3746;
-173.1000;0.0928;4.3990;
-172.8000;0.0904;4.3917;
-172.5000;0.0781;4.3501;
-172.2000;0.0904;4.3795;
-171.9000;0.0904;4.3819;
-171.6000;0.0952;4.3892;
-171.3000;0.0952;4.4015;
-171.0000;0.0912;4.4015;
-170.7000;0.0936;4.4064;
-170.4000;0.0936;4.4039;
-170.1000;0.0912;4.4015;
-169.8000;0.0904;4.3941;
-169.5000;0.0920;4.3917;
-169.2000;0.0904;4.3917;
-168.9000;0.0912;4.3966;
-168.6000;0.0920;4.4015;
-168.3000;0.0920;4.4039;
-168.0000;0.0936;4.4039;
-167.7000;0.0920;4.3990;
-167.4000;0.0887;4.3843;
-167.1000;0.0936;4.3941;
-166.8000;0.0936;4.4015;
-166.5000;0.0895;4.4015;
-166.2000;0.0887;4.4015;
-165.9000;0.0920;4.4137;
-165.6000;0.0912;4.4039;
-165.3000;0.0920;4.4088;
-165.0000;0.0904;4.4088;
-164.7000;0.0928;4.4210;
-164.4000;0.0912;4.4186;
-164.1000;0.0871;4.4039;
-163.8000;0.0920;4.4039;
-163.5000;0.0904;4.4088;
-163.2000;0.0920;4.4137;
-162.9000;0.0936;4.4088;
-162.6000;0.0912;4.3990;
-162.3000;0.0895;4.3966;
-162.0000;0.0928;4.4039;
-161.7000;0.0920;4.4015;
-161.4000;0.0920;4.4039;
-161.1000;0.0920;4.4064;
-160.8000;0.0928;4.4039;
-160.5000;0.0920;4.4137;
-160.2000;0.1001;4.4504;
-159.9000;0.0936;4.4210;
-159.6000;0.0936;4.4161;
-159.3000;0.0936;4.4161;
-159.0000;0.0928;4.4137;
-158.7000;0.0920;4.4088;
-158.4000;0.0944;4.4186;
-158.1000;0.0904;4.4039;
-157.8000;0.0912;4.4064;
-157.5000;0.0912;4.4161;
-157.2000;0.0912;4.4186;
-156.9000;0.0904;4.4161;
-156.6000;0.0936;4.4186;
-156.3000;0.0871;4.3966;
-156.0000;0.0944;4.4088;
-155.7000;0.0904;4.4088;
-155.4000;0.0887;4.4064;
-155.1000;0.0952;4.4210;
-154.8000;0.0912;4.4112;
-154.5000;0.0920;4.4039;
-154.2000;0.0863;4.3843;
-153.9000;0.0895;4.3990;
-153.6000;0.0944;4.4112;
-153.3000;0.0928;4.4137;
-153.0000;0.0887;4.4039;
-152.7000;0.0944;4.4137;
-152.4000;0.0928;4.4039;
-152.1000;0.0944;4.4112;
-151.8000;0.0887;4.4015;
-151.5000;0.0830;4.3746;
-151.2000;0.0904;4.3966;
-150.9000;0.0928;4.3990;
-150.6000;0.0969;4.4064;
-150.3000;0.0895;4.3966;
-150.0000;0.0944;4.4112;
-149.7000;0.0936;4.4137;
-149.4000;0.0920;4.4186;
-149.1000;0.0944;4.4186;
-148.8000;0.0920;4.4161;
-148.5000;0.0928;4.4161;
-148.2000;0.0912;4.4039;
-147.9000;0.0936;4.4112;
-147.6000;0.0944;4.4112;
-147.3000;0.0936;4.4064;
-147.0000;0.0952;4.4186;
-146.7000;0.0920;4.4161;
-146.4000;0.0952;4.4259;
-146.1000;0.0928;4.4235;
-145.8000;0.0952;4.4308;
-145.5000;0.0928;4.4235;
-145.2000;0.0985;4.4235;
-144.9000;0.0928;4.4088;
-144.6000;0.0936;4.4088;
-144.3000;0.0912;4.4064;
-144.0000;0.0936;4.4186;
-143.7000;0.0895;4.4064;
-143.4000;0.0920;4.4210;
-143.1000;0.0936;4.4137;
-142.8000;0.0936;4.4088;
-142.5000;0.0952;4.4112;
-142.2000;0.0887;4.3917;
-141.9000;0.0904;4.4088;
-141.6000;0.0912;4.4088;
-141.3000;0.0887;4.3966;
-141.0000;0.0887;4.4039;
-140.7000;0.0936;4.4186;
-140.4000;0.0952;4.4039;
-140.1000;0.0920;4.3966;
-139.8000;0.0920;4.3941;
-139.5000;0.0952;4.4112;
-139.2000;0.0936;4.4137;
-138.9000;0.0895;4.4064;
-138.6000;0.0952;4.4235;
-138.3000;0.0912;4.4088;
-138.0000;0.0920;4.4039;
-137.7000;0.0944;4.4161;
-137.4000;0.0920;4.4064;
-137.1000;0.0920;4.4186;
-136.8000;0.0904;4.4137;
-136.5000;0.0904;4.4039;
-136.2000;0.0977;4.4284;
-135.9000;0.0928;4.4088;
-135.6000;0.0912;4.4039;
-135.3000;0.1018;4.4259;
-135.0000;0.0920;4.4039;
-134.7000;0.0920;4.4015;
-134.4000;0.0928;4.4161;
-134.1000;0.0928;4.4235;
-133.8000;0.0879;4.4039;
-133.5000;0.0887;4.3990;
-133.2000;0.0912;4.4039;
-132.9000;0.0912;4.4112;
-132.6000;0.0920;4.4064;
-132.3000;0.0928;4.4015;
-132.0000;0.0904;4.3917;
-131.7000;0.0765;4.3550;
-131.4000;0.0928;4.3990;
-131.1000;0.0920;4.3892;
-130.8000;0.0912;4.3892;
-130.5000;0.0936;4.3966;
-130.2000;0.0887;4.3892;
-129.9000;0.0904;4.3917;
-129.6000;0.0912;4.3966;
-129.3000;0.0936;4.4039;
-129.0000;0.0920;4.4039;
-128.7000;0.0936;4.4064;
-128.4000;0.0904;4.3941;
-128.1000;0.0912;4.3990;
-127.8000;0.0920;4.4137;
-127.5000;0.0863;4.4015;
-127.2000;0.0928;4.4186;
-126.9000;0.0912;4.4161;
-126.6000;0.0912;4.4210;
-126.3000;0.0944;4.4333;
-126.0000;0.0920;4.4284;
-125.7000;0.0798;4.3941;
-125.4000;0.0936;4.4259;
-125.1000;0.0944;4.4161;
-124.8000;0.0920;4.4064;
-124.5000;0.0928;4.4137;
-124.2000;0.0912;4.4039;
-123.9000;0.0912;4.3966;
-123.6000;0.0920;4.3966;
-123.3000;0.0928;4.4015;
-123.0000;0.0928;4.4015;
-122.7000;0.0928;4.4064;
-122.4000;0.0936;4.4137;
-122.1000;0.0928;4.4112;
-121.8000;0.0912;4.4064;
-121.5000;0.0961;4.4210;
-121.2000;0.0969;4.4235;
-120.9000;0.0912;4.4088;
-120.6000;0.0928;4.4137;
-120.3000;0.1091;4.4626;
-120.0000;0.0928;4.4088;
-119.7000;0.0855;4.3966;
-119.4000;0.0790;4.3843;
-119.1000;0.0920;4.4186;
-118.8000;0.0855;4.4112;
-118.5000;0.0887;4.4186;
-118.2000;0.1026;4.4528;
-117.9000;0.0969;4.4284;
-117.6000;0.1058;4.4455;
-117.3000;0.0904;4.3941;
-117.0000;0.0895;4.3917;
-116.7000;0.0928;4.4039;
-116.4000;0.0904;4.3990;
-116.1000;0.0961;4.4112;
-115.8000;0.0904;4.3941;
-115.5000;0.0928;4.4064;
-115.2000;0.0936;4.4088;
-114.9000;0.0904;4.3892;
-114.6000;0.0806;4.3477;
-114.3000;0.0912;4.3770;
-114.0000;0.0920;4.3819;
-113.7000;0.0920;4.3868;
-113.4000;0.0936;4.3892;
-113.1000;0.0920;4.3917;
-112.8000;0.0920;4.3941;
-112.5000;0.0912;4.3941;
-112.2000;0.0936;4.3941;
-111.9000;0.0944;4.3941;
-111.6000;0.0944;4.4015;
-111.3000;0.0781;4.3648;
-111.0000;0.0904;4.3990;
-110.7000;0.0912;4.3990;
-110.4000;0.0920;4.4112;
-110.1000;0.0944;4.4210;
-109.8000;0.0920;4.4112;
-109.5000;0.0952;4.4186;
-109.2000;0.0952;4.4259;
-108.9000;0.0944;4.4186;
-108.6000;0.0920;4.4015;
-108.3000;0.0936;4.4088;
-108.0000;0.0871;4.3917;
-107.7000;0.0904;4.4137;
-107.4000;0.0920;4.4088;
-107.1000;0.0936;4.4137;
-106.8000;0.0961;4.4210;
-106.5000;0.0952;4.4137;
-106.2000;0.0912;4.4015;
-105.9000;0.0920;4.3990;
-105.6000;0.0895;4.3892;
-105.3000;0.0928;4.3966;
-105.0000;0.0920;4.3941;
-104.7000;0.0928;4.3966;
-104.4000;0.0928;4.4015;
-104.1000;0.0904;4.3941;
-103.8000;0.0944;4.3990;
-103.5000;0.0912;4.3843;
-103.2000;0.0912;4.3892;
-102.9000;0.0928;4.3966;
-102.6000;0.0904;4.3966;
-102.3000;0.0822;4.3795;
-102.0000;0.0969;4.4186;
-101.7000;0.0912;4.4015;
-101.4000;0.0912;4.4064;
-101.1000;0.0920;4.4064;
-100.8000;0.0920;4.4064;
-100.5000;0.0904;4.4015;
-100.2000;0.0936;4.4137;
-99.9000;0.0936;4.4039;
-99.6000;0.0944;4.4015;
-99.3000;0.0944;4.3990;
-99.0000;0.0928;4.4064;
-98.7000;0.0912;4.3941;
-98.4000;0.0944;4.4015;
-98.1000;0.0928;4.4039;
-97.8000;0.0895;4.4088;
-97.5000;0.0952;4.4235;
-97.2000;0.0887;4.4039;
-96.9000;0.0895;4.3990;
-96.6000;0.0855;4.3819;
-96.3000;0.0920;4.3966;
-96.0000;0.0936;4.3917;
-95.7000;0.0920;4.3966;
-95.4000;0.0969;4.4137;
-95.1000;0.0879;4.3966;
-94.8000;0.0920;4.4088;
-94.5000;0.0928;4.4015;
-94.2000;0.0920;4.3941;
-93.9000;0.0920;4.3990;
-93.6000;0.0936;4.3941;
-93.3000;0.1018;4.4235;
-93.0000;0.0904;4.3990;
-92.7000;0.0765;4.3672;
-92.4000;0.0928;4.4039;
-92.1000;0.0977;4.4210;
-91.8000;0.0855;4.3843;
-91.5000;0.0928;4.3990;
-91.2000;0.0977;4.4137;
-90.9000;0.0863;4.3721;
-90.6000;0.0895;4.3892;
-90.3000;0.0904;4.3941;
-90.0000;0.0920;4.3990;
-89.7000;0.0936;4.3990;
-89.4000;0.0887;4.3819;
-89.1000;0.0895;4.3819;
-88.8000;0.0928;4.3843;
-88.5000;0.0928;4.3843;
-88.2000;0.0920;4.3892;
-87.9000;0.0847;4.3672;
-87.6000;0.0920;4.3941;
-87.3000;0.0920;4.3990;
-87.0000;0.0944;4.4064;
-86.7000;0.0895;4.4039;
-86.4000;0.0904;4.4064;
-86.1000;0.0887;4.3892;
-85.8000;0.0920;4.4039;
-85.5000;0.0944;4.4137;
-85.2000;0.0887;4.4064;
-84.9000;0.0928;4.4235;
-84.6000;0.0928;4.4186;
-84.3000;0.0936;4.4112;
-84.0000;0.0895;4.4039;
-83.7000;0.0936;4.4259;
-83.4000;0.0944;4.4259;
-83.1000;0.0904;4.4137;
-82.8000;0.0912;4.4186;
-82.5000;0.0936;4.4186;
-82.2000;0.0920;4.4112;
-81.9000;0.0895;4.4039;
-81.6000;0.0936;4.4137;
-81.3000;0.0993;4.4210;
-81.0000;0.0961;4.4112;
-80.7000;0.0928;4.4064;
-80.4000;0.0928;4.4112;
-80.1000;0.0944;4.4088;
-79.8000;0.0790;4.3746;
-79.5000;0.0912;4.3990;
-79.2000;0.0928;4.3990;
-78.9000;0.0895;4.3941;
-78.6000;0.0969;4.4186;
-78.3000;0.1083;4.4504;
-78.0000;0.0912;4.3966;
-77.7000;0.0887;4.3990;
-77.4000;0.0928;4.4112;
-77.1000;0.0920;4.4137;
-76.8000;0.0928;4.4186;
-76.5000;0.0887;4.4015;
-76.2000;0.0920;4.4039;
-75.9000;0.0895;4.3966;
-75.6000;0.0961;4.4210;
-75.3000;0.0952;4.4259;
-75.0000;0.0904;4.4161;
-74.7000;0.1001;4.4430;
-74.4000;0.0928;4.4235;
-74.1000;0.0912;4.4161;
-73.8000;0.0887;4.4015;
-73.5000;0.0928;4.4088;
-73.2000;0.0871;4.3917;
-72.9000;0.0928;4.3917;
-72.6000;0.0920;4.3795;
-72.3000;0.0936;4.3892;
-72.0000;0.0847;4.3843;
-71.7000;0.0928;4.3990;
-71.4000;0.0993;4.4039;
-71.1000;0.0969;4.4039;
-70.8000;0.1042;4.4259;
-70.5000;0.0920;4.3990;
-70.2000;0.0765;4.3574;
-69.9000;0.0912;4.3917;
-69.6000;0.0904;4.3917;
-69.3000;0.0887;4.3966;
-69.0000;0.0920;4.4088;
-68.7000;0.0936;4.4137;
-68.4000;0.0895;4.4088;
-68.1000;0.0855;4.3990;
-67.8000;0.0969;4.4333;
-67.5000;0.0904;4.4064;
-67.2000;0.0928;4.4064;
-66.9000;0.0936;4.4064;
-66.6000;0.0920;4.3966;
-66.3000;0.0895;4.3917;
-66.0000;0.0912;4.3966;
-65.7000;0.0912;4.3819;
-65.4000;0.0920;4.3868;
-65.1000;0.0936;4.4064;
-64.8000;0.0944;4.4088;
-64.5000;0.0944;4.4112;
-64.2000;0.0912;4.3966;
-63.9000;0.0879;4.3868;
-63.6000;0.0904;4.3941;
-63.3000;0.0928;4.4112;
-63.0000;0.0920;4.4088;
-62.7000;0.0944;4.4088;
-62.4000;0.0920;4.3941;
-62.1000;0.0977;4.4112;
-61.8000;0.0952;4.4039;
-61.5000;0.0952;4.4015;
-61.2000;0.0904;4.3966;
-60.9000;0.0920;4.3990;
-60.6000;0.0904;4.3990;
-60.3000;0.0887;4.4015;
-60.0000;0.0920;4.4088;
-59.7000;0.0928;4.4112;
-59.4000;0.0879;4.4064;
-59.1000;0.0944;4.4161;
-58.8000;0.0855;4.4112;
-58.5000;0.0928;4.4186;
-58.2000;0.0887;4.4015;
-57.9000;0.0944;4.4210;
-57.6000;0.0936;4.4235;
-57.3000;0.0912;4.4161;
-57.0000;0.0887;4.3990;
-56.7000;0.0920;4.4161;
-56.4000;0.0985;4.4333;
-56.1000;0.0928;4.4235;
-55.8000;0.0920;4.4186;
-55.5000;0.0790;4.3917;
-55.2000;0.0961;4.4333;
-54.9000;0.0863;4.4112;
-54.6000;0.0920;4.4284;
-54.3000;0.0928;4.4210;
-54.0000;0.0895;4.4064;
-53.7000;0.0920;4.4112;
-53.4000;0.0912;4.4137;
-53.1000;0.0928;4.4064;
-52.8000;0.0936;4.4064;
-52.5000;0.0904;4.4039;
-52.2000;0.0944;4.4235;
-51.9000;0.0814;4.3843;
-51.6000;0.0936;4.4112;
-51.3000;0.0920;4.4039;
-51.0000;0.0920;4.4088;
-50.7000;0.0920;4.4161;
-50.4000;0.0920;4.4112;
-50.1000;0.0887;4.4064;
-49.8000;0.0920;4.4235;
-49.5000;0.0895;4.4235;
-49.2000;0.0887;4.4186;
-48.9000;0.0904;4.4161;
-48.6000;0.0912;4.4161;
-48.3000;0.0879;4.4015;
-48.0000;0.0895;4.4015;
-47.7000;0.0904;4.3966;
-47.4000;0.0904;4.3917;
-47.1000;0.0928;4.3966;
-46.8000;0.0920;4.3941;
-46.5000;0.0920;4.3966;
-46.2000;0.0961;4.4015;
-45.9000;0.0944;4.3966;
-45.6000;0.0920;4.4039;
-45.3000;0.0928;4.4112;
-45.0000;0.0920;4.4088;
-44.7000;0.0944;4.4186;
-44.4000;0.0928;4.4186;
-44.1000;0.0936;4.4112;
-43.8000;0.0928;4.4088;
-43.5000;0.0928;4.4137;
-43.2000;0.0944;4.4137;
-42.9000;0.0936;4.4064;
-42.6000;0.0912;4.3917;
-42.3000;0.0928;4.4015;
-42.0000;0.0920;4.4039;
-41.7000;0.0928;4.4064;
-41.4000;0.0936;4.4137;
-41.1000;0.0969;4.4186;
-40.8000;0.0855;4.3892;
-40.5000;0.0920;4.4112;
-40.2000;0.0920;4.4137;
-39.9000;0.0855;4.3819;
-39.6000;0.0904;4.3917;
-39.3000;0.0944;4.3917;
-39.0000;0.0952;4.3941;
-38.7000;0.0920;4.3941;
-38.4000;0.0912;4.3941;
-38.1000;0.0944;4.4064;
-37.8000;0.0952;4.4112;
-37.5000;0.0871;4.3843;
-37.2000;0.0928;4.3990;
-36.9000;0.0920;4.3990;
-36.6000;0.0936;4.4039;
-36.3000;0.1001;4.4259;
-36.0000;0.0895;4.3990;
-35.7000;0.0985;4.4210;
-35.4000;0.0952;4.4015;
-35.1000;0.0928;4.3990;
-34.8000;0.0904;4.3868;
-34.5000;0.0920;4.3892;
-34.2000;0.0936;4.3941;
-33.9000;0.0879;4.3746;
-33.6000;0.0920;4.3868;
-33.3000;0.0912;4.3917;
-33.0000;0.0928;4.3941;
-32.7000;0.0912;4.3966;
-32.4000;0.0944;4.3990;
-32.1000;0.0912;4.3917;
-31.8000;0.0912;4.4015;
-31.5000;0.0928;4.4088;
-31.2000;0.0895;4.3917;
-30.9000;0.0928;4.3966;
-30.6000;0.0928;4.4039;
-30.3000;0.0944;4.4039;
-30.0000;0.0904;4.3941;
-29.7000;0.0936;4.4039;
-29.4000;0.0952;4.3966;
-29.1000;0.0928;4.3990;
-28.8000;0.0928;4.3941;
-28.5000;0.0936;4.3843;
-28.2000;0.0928;4.3819;
-27.9000;0.0895;4.3697;
-27.6000;0.0920;4.3770;
-27.3000;0.0928;4.3770;
-27.0000;0.0936;4.3966;
-26.7000;0.1050;4.4259;
-26.4000;0.0928;4.3892;
-26.1000;0.0920;4.3868;
-25.8000;0.0920;4.3746;
-25.5000;0.0936;4.3770;
-25.2000;0.0871;4.3550;
-24.9000;0.0904;4.3672;
-24.6000;0.0944;4.3795;
-24.3000;0.0912;4.3770;
-24.0000;0.0904;4.3819;
-23.7000;0.0936;4.3990;
-23.4000;0.0912;4.3868;
-23.1000;0.0912;4.3843;
-22.8000;0.0920;4.3941;
-22.5000;0.0944;4.4137;
-22.2000;0.1009;4.4259;
-21.9000;0.0928;4.4064;
-21.6000;0.0920;4.4112;
-21.3000;0.0944;4.4259;
-21.0000;0.1034;4.4479;
-20.7000;0.0912;4.4235;
-20.4000;0.0912;4.4186;
-20.1000;0.1009;4.4479;
-19.8000;0.0912;4.4186;
-19.5000;0.0904;4.4112;
-19.2000;0.0969;4.4259;
-18.9000;0.0952;4.4235;
-18.6000;0.0912;4.4186;
-18.3000;0.0936;4.4210;
-18.0000;0.0887;4.4210;
-17.7000;0.0904;4.4259;
-17.4000;0.0936;4.4308;
-17.1000;0.0920;4.4259;
-16.8000;0.0863;4.4064;
-16.5000;0.0928;4.4259;
-16.2000;0.0928;4.4235;
-15.9000;0.0920;4.4308;
-15.6000;0.0912;4.4333;
-15.3000;0.0895;4.4308;
-15.0000;0.0912;4.4210;
-14.7000;0.0920;4.4161;
-14.4000;0.0904;4.4210;
-14.1000;0.0912;4.4161;
-13.8000;0.0912;4.4235;
-13.5000;0.0920;4.4112;
-13.2000;0.0961;4.4235;
-12.9000;0.0920;4.4210;
-12.6000;0.0936;4.4333;
-12.3000;0.0928;4.4259;
-12.0000;0.0928;4.4161;
-11.7000;0.0912;4.4161;
-11.4000;0.0920;4.4259;
-11.1000;0.0912;4.4259;
-10.8000;0.0928;4.4333;
-10.5000;0.0920;4.4284;
-10.2000;0.0928;4.4284;
-9.9000;0.0920;4.4210;
-9.6000;0.0912;4.4186;
-9.3000;0.1001;4.4430;
-9.0000;0.0936;4.4235;
-8.7000;0.0944;4.4210;
-8.4000;0.0928;4.4112;
-8.1000;0.0920;4.4161;
-7.8000;0.0904;4.4161;
-7.5000;0.0928;4.4210;
-7.2000;0.0928;4.4210;
-6.9000;0.0936;4.4112;
-6.6000;0.0904;4.4064;
-6.3000;0.0928;4.4186;
-6.0000;0.0936;4.4210;
-5.7000;0.0912;4.4088;
-5.4000;0.0936;4.4186;
-5.1000;0.0936;4.4259;
-4.8000;0.0969;4.4308;
-4.5000;0.0928;4.4186;
-4.2000;0.0904;4.4112;
-3.9000;0.0920;4.4015;
-3.6000;0.0928;4.3868;
-3.3000;0.0985;4.3990;
-3.0000;0.0920;4.3721;
-2.7000;0.0920;4.3770;
-2.4000;0.0912;4.3648;
-2.1000;0.0936;4.3697;
-1.8000;0.0928;4.3697;
-1.5000;0.0928;4.3770;
-1.2000;0.0830;4.3550;
-0.9000;0.0952;4.3892;
-0.6000;0.1066;4.4308;
-0.3000;0.0928;4.3868;
0.0000;0.0928;4.3868;
0.3000;0.0928;4.3795;
0.6000;0.0936;4.3917;
0.9000;0.0904;4.3770;
1.2000;0.1018;4.4186;
1.5000;0.0985;4.4161;
1.8000;0.1026;4.4284;
2.1000;0.1026;4.4357;
2.4000;0.1001;4.4381;
2.7000;0.1001;4.4430;
3.0000;0.1009;4.4601;
3.3000;0.1042;4.4773;
3.6000;0.1018;4.4773;
3.9000;0.1034;4.4822;
4.2000;0.1026;4.4846;
4.5000;0.1018;4.4846;
4.8000;0.1026;4.4919;
5.1000;0.1099;4.5213;
5.4000;0.1009;4.5017;
5.7000;0.0928;4.4870;
6.0000;0.1034;4.5139;
6.3000;0.1018;4.5091;
6.6000;0.0969;4.4895;
6.9000;0.0993;4.4870;
7.2000;0.0993;4.4993;
7.5000;0.1034;4.5066;
7.8000;0.1026;4.5091;
8.1000;0.1058;4.5139;
8.4000;0.1042;4.5139;
8.7000;0.1001;4.5042;
9.0000;0.1205;4.5531;
9.3000;0.1074;4.5164;
9.6000;0.1050;4.5164;
9.9000;0.1058;4.5164;
10.2000;0.1042;4.5066;
10.5000;0.1099;4.5188;
10.8000;0.1034;4.4968;
11.1000;0.1018;4.4944;
11.4000;0.1074;4.5066;
11.7000;0.1009;4.4895;
12.0000;0.1042;4.4968;
12.3000;0.1018;4.5042;
12.6000;0.1026;4.5066;
12.9000;0.1066;4.5164;
13.2000;0.1058;4.5164;
13.5000;0.1042;4.5164;
13.8000;0.1083;4.5262;
14.1000;0.1042;4.5188;
14.4000;0.0920;4.4919;
14.7000;0.1034;4.5286;
15.0000;0.1058;4.5262;
15.3000;0.1066;4.5311;
15.6000;0.1066;4.5237;
15.9000;0.1091;4.5213;
16.2000;0.1034;4.5091;
16.5000;0.1074;4.5188;
16.8000;0.1050;4.5115;
17.1000;0.1050;4.5115;
17.4000;0.0952;4.4870;
17.7000;0.1083;4.5335;
18.0000;0.1058;4.5311;
18.3000;0.1050;4.5311;
18.6000;0.1066;4.5384;
18.9000;0.1050;4.5408;
19.2000;0.1115;4.5531;
19.5000;0.1058;4.5360;
19.8000;0.1050;4.5335;
20.1000;0.1042;4.5311;
20.4000;0.1083;4.5335;
20.7000;0.1058;4.5237;
21.0000;0.1042;4.5311;
21.3000;0.0969;4.5115;
21.6000;0.1058;4.5360;
21.9000;0.0985;4.5091;
22.2000;0.1058;4.5384;
22.5000;0.1001;4.5286;
22.8000;0.1066;4.5506;
23.1000;0.1050;4.5433;
23.4000;0.1066;4.5457;
23.7000;0.1050;4.5335;
24.0000;0.1018;4.5213;
24.3000;0.1058;4.5262;
24.6000;0.1042;4.5286;
24.9000;0.1058;4.5384;
25.2000;0.1026;4.5360;
25.5000;0.1074;4.5408;
25.8000;0.1074;4.5433;
26.1000;0.1050;4.5384;
26.4000;0.1034;4.5311;
26.7000;0.1058;4.5360;
27.0000;0.1131;4.5580;
27.3000;0.1026;4.5237;
27.6000;0.1099;4.5384;
27.9000;0.1042;4.5237;
28.2000;0.1083;4.5360;
28.5000;0.1074;4.5335;
28.8000;0.1066;4.5311;
29.1000;0.1074;4.5311;
29.4000;0.1091;4.5360;
29.7000;0.1042;4.5262;
30.0000;0.1050;4.5262;
30.3000;0.0944;4.4919;
30.6000;0.1042;4.5237;
30.9000;0.1050;4.5262;
31.2000;0.1066;4.5286;
31.5000;0.1099;4.5311;
31.8000;0.1042;4.5188;
32.1000;0.1074;4.5335;
32.4000;0.1050;4.5286;
32.7000;0.1026;4.5262;
33.0000;0.1042;4.5335;
33.3000;0.1066;4.5408;
33.6000;0.1083;4.5335;
33.9000;0.1058;4.5311;
34.2000;0.1034;4.5213;
34.5000;0.1148;4.5482;
34.8000;0.1042;4.5164;
35.1000;0.1058;4.5188;
35.4000;0.1091;4.5262;
35.7000;0.1091;4.5262;
36.0000;0.1034;4.5188;
36.3000;0.1018;4.5188;
36.6000;0.1034;4.5091;
36.9000;0.1050;4.5188;
37.2000;0.1066;4.5188;
37.5000;0.1058;4.5115;
37.8000;0.1050;4.5237;
38.1000;0.1058;4.5188;
38.4000;0.1050;4.5042;
38.7000;0.1074;4.5164;
39.0000;0.1074;4.5091;
39.3000;0.1058;4.5042;
39.6000;0.1034;4.4993;
39.9000;0.1099;4.5139;
40.2000;0.1058;4.5115;
40.5000;0.1058;4.5139;
40.8000;0.1058;4.5091;
41.1000;0.1066;4.5091;
41.4000;0.1026;4.4870;
41.7000;0.1034;4.5017;
42.0000;0.1050;4.5091;
42.3000;0.1123;4.5311;
42.6000;0.1034;4.5164;
42.9000;0.1050;4.5213;
43.2000;0.1091;4.5213;
43.5000;0.1091;4.5139;
43.8000;0.1042;4.5139;
44.1000;0.1042;4.5115;
44.4000;0.1050;4.5164;
44.7000;0.1115;4.5335;
45.0000;0.1083;4.5188;
45.3000;0.0969;4.4968;
45.6000;0.1066;4.5286;
45.9000;0.1058;4.5237;
46.2000;0.1066;4.5164;
46.5000;0.1058;4.5237;
46.8000;0.1050;4.5262;
47.1000;0.1058;4.5311;
47.4000;0.1026;4.5311;
47.7000;0.1074;4.5384;
48.0000;0.1066;4.5335;
48.3000;0.1042;4.5311;
48.6000;0.1066;4.5335;
48.9000;0.1042;4.5164;
49.2000;0.1091;4.5262;
49.5000;0.1091;4.5213;
49.8000;0.1058;4.5139;
50.1000;0.0985;4.4919;
50.4000;0.1245;4.5677;
50.7000;0.1123;4.5237;
51.0000;0.1042;4.5017;
51.3000;0.1074;4.5066;
51.6000;0.1156;4.5237;
51.9000;0.1131;4.5213;
52.2000;0.1026;4.4993;
52.5000;0.1058;4.5139;
52.8000;0.1197;4.5555;
53.1000;0.1083;4.5237;
53.4000;0.1066;4.5164;
53.7000;0.1123;4.5311;
54.0000;0.1074;4.5188;
54.3000;0.1107;4.5213;
54.6000;0.1042;4.5017;
54.9000;0.1099;4.5164;
55.2000;0.1074;4.5188;
55.5000;0.1066;4.5066;
55.8000;0.1083;4.5115;
56.1000;0.1107;4.5139;
56.4000;0.1066;4.5115;
56.7000;0.1066;4.5091;
57.0000;0.1042;4.5042;
57.3000;0.1074;4.5164;
57.6000;0.1074;4.5164;
57.9000;0.1066;4.5066;
58.2000;0.1050;4.4993;
58.5000;0.1001;4.4846;
58.8000;0.1091;4.5139;
59.1000;0.1083;4.5139;
59.4000;0.1083;4.5213;
59.7000;0.1042;4.5139;
60.0000;0.1066;4.5164;
60.3000;0.1083;4.5237;
60.6000;0.1074;4.5262;
60.9000;0.1074;4.5237;
61.2000;0.1074;4.5311;
61.5000;0.1074;4.5286;
61.8000;0.1066;4.5335;
62.1000;0.1058;4.5311;
62.4000;0.1074;4.5360;
62.7000;0.1066;4.5408;
63.0000;0.1058;4.5433;
63.3000;0.1074;4.5531;
63.6000;0.1058;4.5506;
63.9000;0.1083;4.5506;
64.2000;0.1074;4.5311;
64.5000;0.1042;4.5164;
64.8000;0.1058;4.5164;
65.1000;0.1066;4.5213;
65.4000;0.1099;4.5237;
65.7000;0.1099;4.5188;
66.0000;0.1091;4.5213;
66.3000;0.1050;4.5091;
66.6000;0.1205;4.5457;
66.9000;0.1083;4.5042;
67.2000;0.1034;4.4993;
67.5000;0.1074;4.5164;
67.8000;0.1066;4.5115;
68.1000;0.1058;4.5091;
68.4000;0.1050;4.5139;
68.7000;0.1066;4.5237;
69.0000;0.1074;4.5188;
69.3000;0.1074;4.5286;
69.6000;0.1074;4.5286;
69.9000;0.1066;4.5213;
70.2000;0.1083;4.5286;
70.5000;0.1083;4.5262;
70.8000;0.1066;4.5188;
71.1000;0.1123;4.5384;
71.4000;0.1123;4.5360;
71.7000;0.1074;4.5286;
72.0000;0.1083;4.5213;
72.3000;0.1042;4.5188;
72.6000;0.1107;4.5237;
72.9000;0.1107;4.5213;
73.2000;0.1107;4.5213;
73.5000;0.1066;4.5042;
73.8000;0.1018;4.5091;
74.1000;0.1066;4.5262;
74.4000;0.1099;4.5286;
74.7000;0.1074;4.5188;
75.0000;0.1083;4.5066;
75.3000;0.1099;4.5237;
75.6000;0.1001;4.4919;
75.9000;0.1066;4.5115;
76.2000;0.1066;4.5164;
76.5000;0.1066;4.5262;
76.8000;0.1074;4.5360;
77.1000;0.1066;4.5384;
77.4000;0.1123;4.5506;
77.7000;0.1107;4.5384;
78.0000;0.1083;4.5384;
78.3000;0.1042;4.5335;
78.6000;0.1083;4.5286;
78.9000;0.1083;4.5262;
79.2000;0.1074;4.5262;
79.5000;0.1058;4.5213;
79.8000;0.1091;4.5188;
80.1000;0.1074;4.5164;
80.4000;0.1091;4.5213;
80.7000;0.1083;4.5213;
81.0000;0.1074;4.5164;
81.3000;0.1074;4.5139;
81.6000;0.1074;4.5237;
81.9000;0.1074;4.5262;
82.2000;0.1083;4.5286;
82.5000;0.1115;4.5360;
82.8000;0.1058;4.5262;
83.1000;0.1083;4.5286;
83.4000;0.1091;4.5286;
83.7000;0.1091;4.5213;
84.0000;0.1066;4.5115;
84.3000;0.1066;4.5115;
84.6000;0.1197;4.5433;
84.9000;0.1083;4.5164;
85.2000;0.1074;4.5237;
85.5000;0.0993;4.5042;
85.8000;0.1050;4.5335;
86.1000;0.1074;4.5408;
86.4000;0.1099;4.5408;
86.7000;0.1074;4.5311;
87.0000;0.1074;4.5237;
87.3000;0.1066;4.5262;
87.6000;0.1058;4.5311;
87.9000;0.1083;4.5335;
88.2000;0.1083;4.5360;
88.5000;0.1091;4.5335;
88.8000;0.1107;4.5335;
89.1000;0.1099;4.5335;
89.4000;0.1050;4.5262;
89.7000;0.1148;4.5506;
90.0000;0.1074;4.5262;
90.3000;0.1074;4.5286;
90.6000;0.1107;4.5335;
90.9000;0.1074;4.5262;
91.2000;0.1107;4.5213;
91.5000;0.1074;4.5042;
91.8000;0.0838;4.4381;
92.1000;0.1066;4.5066;
92.4000;0.1083;4.5066;
92.7000;0.1058;4.4919;
93.0000;0.1099;4.4968;
93.3000;0.1083;4.4993;
93.6000;0.1164;4.5188;
93.9000;0.1074;4.4870;
94.2000;0.1026;4.4748;
94.5000;0.1107;4.5115;
94.8000;0.1099;4.5115;
95.1000;0.1026;4.5017;
95.4000;0.1099;4.5262;
95.7000;0.1074;4.5115;
96.0000;0.1221;4.5555;
96.3000;0.1148;4.5457;
96.6000;0.1066;4.5139;
96.9000;0.1131;4.5286;
97.2000;0.1066;4.5091;
97.5000;0.1083;4.5164;
97.8000;0.1074;4.5066;
98.1000;0.1099;4.5164;
98.4000;0.1009;4.5017;
98.7000;0.1066;4.5237;
99.0000;0.1091;4.5311;
99.3000;0.1066;4.5213;
99.6000;0.1074;4.5262;
99.9000;0.1091;4.5237;
100.2000;0.1074;4.5237;
100.5000;0.1188;4.5604;
100.8000;0.1091;4.5335;
101.1000;0.1083;4.5433;
101.4000;0.1074;4.5433;
101.7000;0.1083;4.5408;
102.0000;0.1074;4.5286;
102.3000;0.1083;4.5335;
102.6000;0.0993;4.5091;
102.9000;0.1074;4.5311;
103.2000;0.1140;4.5433;
103.5000;0.1107;4.5335;
103.8000;0.1074;4.5286;
104.1000;0.1091;4.5262;
104.4000;0.1066;4.5213;
104.7000;0.1034;4.5115;
105.0000;0.1099;4.5237;
105.3000;0.1123;4.5311;
105.6000;0.1083;4.5188;
105.9000;0.1099;4.5115;
106.2000;0.1099;4.5188;
106.5000;0.1091;4.5164;
106.8000;0.1042;4.5115;
107.1000;0.1107;4.5213;
107.4000;0.1074;4.5164;
107.7000;0.1099;4.5311;
108.0000;0.1091;4.5262;
108.3000;0.0969;4.4895;
108.6000;0.1074;4.5213;
108.9000;0.1099;4.5286;
109.2000;0.1074;4.5213;
109.5000;0.1066;4.5286;
109.8000;0.1123;4.5457;
110.1000;0.1091;4.5408;
110.4000;0.1066;4.5384;
110.7000;0.1050;4.5237;
111.0000;0.1066;4.5262;
111.3000;0.0985;4.4968;
111.6000;0.1074;4.5237;
111.9000;0.1050;4.5311;
112.2000;0.1091;4.5457;
112.5000;0.1074;4.5408;
112.8000;0.1123;4.5360;
113.1000;0.1099;4.5311;
113.4000;0.1099;4.5262;
113.7000;0.1091;4.5237;
114.0000;0.1083;4.5164;
114.3000;0.1074;4.5091;
114.6000;0.1091;4.5164;
114.9000;0.1018;4.5017;
115.2000;0.1066;4.5139;
115.5000;0.1074;4.5188;
115.8000;0.1140;4.5384;
116.1000;0.1091;4.5213;
116.4000;0.1066;4.5164;
116.7000;0.1050;4.5164;
117.0000;0.1221;4.5677;
117.3000;0.1074;4.5237;
117.6000;0.1066;4.5213;
117.9000;0.1050;4.5139;
118.2000;0.1066;4.5188;
118.5000;0.1099;4.5262;
118.8000;0.1099;4.5335;
119.1000;0.1083;4.5286;
119.4000;0.1058;4.5213;
119.7000;0.1099;4.5311;
120.0000;0.1091;4.5311;
120.3000;0.1180;4.5555;
120.6000;0.1018;4.5066;
120.9000;0.1074;4.5237;
121.2000;0.1066;4.5262;
121.5000;0.1091;4.5360;
121.8000;0.1148;4.5482;
122.1000;0.1042;4.5139;
122.4000;0.1107;4.5335;
122.7000;0.1074;4.5335;
123.0000;0.1042;4.5213;
123.3000;0.1074;4.5286;
123.6000;0.1066;4.5237;
123.9000;0.1099;4.5262;
124.2000;0.1066;4.5213;
124.5000;0.1074;4.5213;
124.8000;0.1164;4.5360;
125.1000;0.1034;4.5042;
125.4000;0.1099;4.5188;
125.7000;0.1074;4.5042;
126.0000;0.1050;4.4993;
126.3000;0.1099;4.5066;
126.6000;0.1099;4.5091;
126.9000;0.1066;4.5042;
127.2000;0.1058;4.5066;
127.5000;0.1083;4.5188;
127.8000;0.1058;4.5164;
128.1000;0.1018;4.5042;
128.4000;0.1042;4.5017;
128.7000;0.1091;4.5115;
129.0000;0.1091;4.5262;
129.3000;0.1050;4.5213;
129.6000;0.1058;4.5164;
129.9000;0.1099;4.5213;
130.2000;0.1083;4.5164;
130.5000;0.1083;4.5139;
130.8000;0.1074;4.5164;
131.1000;0.1066;4.5188;
131.4000;0.1066;4.5188;
131.7000;0.1042;4.5164;
132.0000;0.1042;4.5237;
132.3000;0.1042;4.5311;
132.6000;0.1099;4.5506;
132.9000;0.1074;4.5360;
133.2000;0.1066;4.5384;
133.5000;0.1050;4.5311;
133.8000;0.1091;4.5408;
134.1000;0.1107;4.5433;
134.4000;0.1066;4.5188;
134.7000;0.1083;4.5115;
135.0000;0.1074;4.5213;
135.3000;0.1107;4.5286;
135.6000;0.1074;4.5286;
135.9000;0.1083;4.5188;
136.2000;0.1123;4.5213;
136.5000;0.1091;4.5164;
136.8000;0.1026;4.4944;
137.1000;0.1058;4.5091;
137.4000;0.1107;4.5237;
137.7000;0.1083;4.5262;
138.0000;0.1091;4.5139;
138.3000;0.1066;4.5164;
138.6000;0.1058;4.5091;
138.9000;0.1115;4.5164;
139.2000;0.1123;4.5262;
139.5000;0.1083;4.5164;
139.8000;0.1083;4.5188;
140.1000;0.1091;4.5139;
140.4000;0.1066;4.5066;
140.7000;0.1058;4.5017;
141.0000;0.1091;4.5164;
141.3000;0.1074;4.5164;
141.6000;0.1083;4.5213;
141.9000;0.1066;4.5188;
142.2000;0.0993;4.5066;
142.5000;0.0985;4.4968;
142.8000;0.1140;4.5408;
143.1000;0.1091;4.5335;
143.4000;0.1042;4.5237;
143.7000;0.1091;4.5311;
144.0000;0.1074;4.5188;
144.3000;0.1074;4.5139;
144.6000;0.1018;4.5017;
144.9000;0.1009;4.5017;
145.2000;0.1107;4.5286;
145.5000;0.1066;4.5213;
145.8000;0.1042;4.5139;
146.1000;0.1066;4.5139;
146.4000;0.1074;4.5139;
146.7000;0.1091;4.5213;
147.0000;0.1074;4.5188;
147.3000;0.1091;4.5311;
147.6000;0.1066;4.5066;
147.9000;0.1066;4.5115;
148.2000;0.1050;4.5091;
148.5000;0.1083;4.5262;
148.8000;0.1083;4.5213;
149.1000;0.1074;4.5188;
149.4000;0.1091;4.5213;
149.7000;0.1066;4.5139;
150.0000;0.1058;4.5139;
150.3000;0.1074;4.5188;
150.6000;0.1099;4.5311;
150.9000;0.1083;4.5213;
151.2000;0.1083;4.5164;
151.5000;0.1074;4.5164;
151.8000;0.1066;4.5164;
152.1000;0.1083;4.5237;
152.4000;0.1107;4.5213;
152.7000;0.1131;4.5408;
153.0000;0.1091;4.5286;
153.3000;0.1083;4.5213;
153.6000;0.1050;4.5091;
153.9000;0.1091;4.5139;
154.2000;0.1099;4.5213;
154.5000;0.1018;4.5115;
154.8000;0.1074;4.5335;
155.1000;0.1058;4.5286;
155.4000;0.1115;4.5384;
155.7000;0.1180;4.5531;
156.0000;0.1058;4.5237;
156.3000;0.1083;4.5262;
156.6000;0.1107;4.5335;
156.9000;0.1066;4.5311;
157.2000;0.1074;4.5311;
157.5000;0.1140;4.5482;
157.8000;0.1091;4.5286;
158.1000;0.1123;4.5213;
158.4000;0.1091;4.5164;
158.7000;0.1083;4.5237;
159.0000;0.1091;4.5286;
159.3000;0.1074;4.5286;
159.6000;0.1034;4.5139;
159.9000;0.1091;4.5335;
160.2000;0.1115;4.5335;
160.5000;0.1083;4.5237;
160.8000;0.1107;4.5360;
161.1000;0.1083;4.5433;
161.4000;0.1058;4.5311;
161.7000;0.1074;4.5360;
162.0000;0.1083;4.5360;
162.3000;0.1074;4.5360;
162.6000;0.1074;4.5408;
162.9000;0.1066;4.5335;
163.2000;0.1083;4.5286;
163.5000;0.1091;4.5262;
163.8000;0.1074;4.5237;
164.1000;0.1091;4.5311;
164.4000;0.1091;4.5384;
164.7000;0.1091;4.5360;
165.0000;0.1083;4.5335;
165.3000;0.1115;4.5335;
165.6000;0.1050;4.5139;
165.9000;0.1074;4.5213;
166.2000;0.1066;4.5213;
166.5000;0.1042;4.5188;
166.8000;0.1083;4.5311;
167.1000;0.1091;4.5286;
167.4000;0.1091;4.5335;
167.7000;0.1083;4.5213;
168.0000;0.1074;4.5213;
168.3000;0.1123;4.5408;
168.6000;0.1091;4.5408;
168.9000;0.1034;4.5286;
169.2000;0.1099;4.5433;
169.5000;0.1091;4.5433;
169.8000;0.1074;4.5311;
170.1000;0.1091;4.5433;
170.4000;0.1091;4.5384;
170.7000;0.1050;4.5237;
171.0000;0.1083;4.5360;
171.3000;0.1042;4.5335;
171.6000;0.1074;4.5506;
171.9000;0.1107;4.5457;
172.2000;0.1058;4.5262;
172.5000;0.1074;4.5286;
172.8000;0.1050;4.5188;
173.1000;0.1074;4.5360;
173.4000;0.1099;4.5384;
173.7000;0.1066;4.5311;
174.0000;0.1050;4.5311;
174.3000;0.1091;4.5360;
174.6000;0.1074;4.5262;
174.9000;0.1050;4.5237;
175.2000;0.1050;4.5139;
175.5000;0.1083;4.5188;
175.8000;0.1091;4.5213;
176.1000;0.1074;4.5237;
176.4000;0.1066;4.5237;
176.7000;0.1066;4.5237;
177.0000;0.1066;4.5237;
177.3000;0.1074;4.5360;
177.6000;0.1083;4.5360;
177.9000;0.1058;4.5335;
178.2000;0.1074;4.5237;
178.5000;0.1083;4.5262;
178.8000;0.1083;4.5286;
179.1000;0.1099;4.5237;
179.4000;0.1099;4.5237;
179.7000;0.1083;4.5164;
180.0000;0.1083;4.5188;
180.3000;0.1083;4.5213;
180.6000;0.1083;4.5237;
180.9000;0.1074;4.5188;
181.2000;0.1083;4.5164;
181.5000;0.1083;4.5237;
181.8000;0.1083;4.5164;
182.1000;0.1074;4.5164;
182.4000;0.1066;4.5188;
182.7000;0.1050;4.5139;
183.0000;0.1083;4.5213;
183.3000;0.1066;4.5164;
183.6000;0.1018;4.5017;
183.9000;0.1066;4.5188;
184.2000;0.1058;4.5237;
184.5000;0.1083;4.5311;
184.8000;0.1148;4.5506;
185.1000;0.1099;4.5433;
185.4000;0.1083;4.5433;
185.7000;0.1083;4.5482;
186.0000;0.1074;4.5408;
186.3000;0.1083;4.5408;
186.6000;0.1099;4.5384;
186.9000;0.1066;4.5262;
187.2000;0.1074;4.5311;
187.5000;0.1091;4.5433;
187.8000;0.1058;4.5384;
188.1000;0.1066;4.5384;
188.4000;0.1123;4.5604;
188.7000;0.1083;4.5506;
189.0000;0.1066;4.5433;
189.3000;0.1066;4.5408;
189.6000;0.1123;4.5457;
189.9000;0.1099;4.5360;
190.2000;0.1099;4.5384;
190.5000;0.1123;4.5482;
190.8000;0.1050;4.5262;
191.1000;0.1074;4.5237;
191.4000;0.1083;4.5237;
191.7000;0.1058;4.5091;
192.0000;0.1066;4.5164;
192.3000;0.1131;4.5262;
192.6000;0.1188;4.5457;
192.9000;0.1074;4.5164;
193.2000;0.1083;4.5188;
193.5000;0.1131;4.5262;
193.8000;0.1083;4.5188;
194.1000;0.1091;4.5286;
194.4000;0.1083;4.5286;
194.7000;0.1107;4.5311;
195.0000;0.1091;4.5286;
195.3000;0.1074;4.5213;
195.6000;0.1115;4.5360;
195.9000;0.1074;4.5286;
196.2000;0.1074;4.5286;
196.5000;0.1066;4.5262;
196.8000;0.1066;4.5360;
197.1000;0.1074;4.5408;
197.4000;0.1099;4.5384;
197.7000;0.1099;4.5360;
198.0000;0.1083;4.5384;
198.3000;0.1058;4.5335;
198.6000;0.1148;4.5628;
198.9000;0.1083;4.5311;
199.2000;0.1074;4.5188;
199.5000;0.1213;4.5677;
199.8000;0.1058;4.5213;
200.1000;0.1083;4.5335;
200.4000;0.1066;4.5360;
200.7000;0.1066;4.5213;
201.0000;0.1083;4.5213;
201.3000;0.1148;4.5457;
201.6000;0.1042;4.5164;
201.9000;0.1050;4.5188;
202.2000;0.1099;4.5408;
202.5000;0.1066;4.5360;
202.8000;0.1074;4.5360;
203.1000;0.1066;4.5360;
203.4000;0.1066;4.5384;
203.7000;0.1115;4.5433;
204.0000;0.1083;4.5384;
204.3000;0.1074;4.5335;
204.6000;0.1074;4.5237;
204.9000;0.1099;4.5433;
205.2000;0.1066;4.5335;
205.5000;0.1074;4.5311;
205.8000;0.1091;4.5408;
206.1000;0.1058;4.5311;
206.4000;0.1083;4.5531;
206.7000;0.1009;4.5311;
207.0000;0.1091;4.5457;
207.3000;0.1091;4.5433;
207.6000;0.1042;4.5311;
207.9000;0.1042;4.5262;
208.2000;0.1074;4.5360;
208.5000;0.1083;4.5457;
208.8000;0.1091;4.5457;
209.1000;0.1091;4.5457;
209.4000;0.1074;4.5531;
209.7000;0.1091;4.5580;
210.0000;0.0977;4.5262;
210.3000;0.1074;4.5506;
210.6000;0.1074;4.5408;
210.9000;0.1018;4.5335;
211.2000;0.1074;4.5433;
211.5000;0.1074;4.5408;
211.8000;0.0969;4.5164;
212.1000;0.1091;4.5531;
212.4000;0.1066;4.5531;
212.7000;0.1083;4.5433;
213.0000;0.1074;4.5506;
213.3000;0.1091;4.5506;
213.6000;0.1099;4.5555;
213.9000;0.1074;4.5433;
214.2000;0.1099;4.5506;
214.5000;0.1074;4.5482;
214.8000;0.1066;4.5482;
215.1000;0.1066;4.5555;
215.4000;0.1074;4.5580;
215.7000;0.1066;4.5482;
216.0000;0.1074;4.5482;
216.3000;0.1115;4.5555;
216.6000;0.1083;4.5531;
216.9000;0.1091;4.5457;
217.2000;0.1083;4.5457;
217.5000;0.1099;4.5555;
217.8000;0.1083;4.5555;
218.1000;0.1083;4.5506;
218.4000;0.1083;4.5482;
218.7000;0.1066;4.5482;
219.0000;0.1091;4.5457;
219.3000;0.1091;4.5433;
219.6000;0.1066;4.5384;
219.9000;0.1107;4.5433;
220.2000;0.1050;4.5262;
220.5000;0.1083;4.5311;
220.8000;0.1074;4.5286;
221.1000;0.1066;4.5262;
221.4000;0.1074;4.5237;
221.7000;0.1107;4.5286;
222.0000;0.0969;4.4919;
222.3000;0.1083;4.5213;
222.6000;0.1074;4.5262;
222.9000;0.1091;4.5360;
223.2000;0.1074;4.5237;
223.5000;0.1018;4.5115;
223.8000;0.1099;4.5335;
224.1000;0.1083;4.5360;
224.4000;0.1164;4.5580;
224.7000;0.1148;4.5555;
225.0000;0.1083;4.5335;
225.3000;0.1107;4.5384;
225.6000;0.1042;4.5213;
225.9000;0.1066;4.5188;
226.2000;0.1091;4.5311;
226.5000;0.1091;4.5360;
226.8000;0.1091;4.5457;
227.1000;0.1115;4.5555;
227.4000;0.1066;4.5482;
227.7000;0.1050;4.5482;
228.0000;0.1058;4.5555;
228.3000;0.1091;4.5580;
228.6000;0.1066;4.5506;
228.9000;0.1091;4.5580;
229.2000;0.1115;4.5726;
229.5000;0.1074;4.5677;
229.8000;0.1099;4.5677;
230.1000;0.1107;4.5628;
230.4000;0.1091;4.5555;
230.7000;0.1066;4.5531;
231.0000;0.1066;4.5433;
231.3000;0.1074;4.5433;
231.6000;0.1091;4.5482;
231.9000;0.1050;4.5408;
232.2000;0.1099;4.5555;
232.5000;0.1066;4.5433;
232.8000;0.1083;4.5506;
233.1000;0.1083;4.5506;
233.4000;0.1066;4.5506;
233.7000;0.1083;4.5433;
234.0000;0.1001;4.5188;
234.3000;0.1083;4.5506;
234.6000;0.1066;4.5360;
234.9000;0.1099;4.5482;
235.2000;0.1083;4.5335;
235.5000;0.1091;4.5286;
235.8000;0.1009;4.5091;
236.1000;0.1164;4.5482;
236.4000;0.1074;4.5213;
236.7000;0.1042;4.5188;
237.0000;0.1050;4.5213;
237.3000;0.1042;4.5188;
237.6000;0.1107;4.5360;
237.9000;0.1156;4.5555;
238.2000;0.1156;4.5531;
238.5000;0.1254;4.5849;
238.8000;0.1009;4.5115;
239.1000;0.1099;4.5360;
239.4000;0.1074;4.5164;
239.7000;0.1091;4.5164;
240.0000;0.1074;4.5115;
240.3000;0.1091;4.5262;
240.6000;0.1140;4.5360;
240.9000;0.1074;4.5237;
241.2000;0.1058;4.5188;
241.5000;0.1148;4.5433;
241.8000;0.1131;4.5360;
242.1000;0.1026;4.5066;
242.4000;0.1074;4.5188;
242.7000;0.1083;4.5188;
243.0000;0.1083;4.5164;
243.3000;0.1099;4.5237;
243.6000;0.1083;4.5262;
243.9000;0.1091;4.5311;
244.2000;0.1001;4.5115;
244.5000;0.1066;4.5262;
244.8000;0.1042;4.5115;
245.1000;0.1074;4.5237;
245.4000;0.1074;4.5262;
245.7000;0.1115;4.5408;
246.0000;0.1026;4.5188;
246.3000;0.1131;4.5482;
246.6000;0.1083;4.5335;
246.9000;0.1066;4.5360;
247.2000;0.1050;4.5311;
247.5000;0.1026;4.5213;
247.8000;0.1042;4.5164;
248.1000;0.1083;4.5213;
248.4000;0.1123;4.5408;
248.7000;0.1074;4.5262;
249.0000;0.1058;4.5139;
249.3000;0.1083;4.5115;
249.6000;0.1074;4.5115;
249.9000;0.1107;4.5213;
250.2000;0.1091;4.5188;
250.5000;0.1083;4.5213;
250.8000;0.1050;4.5042;
251.1000;0.1074;4.5066;
251.4000;0.1074;4.5066;
251.7000;0.1066;4.5139;
252.0000;0.1107;4.5286;
252.3000;0.1074;4.5213;
252.6000;0.0969;4.5042;
252.9000;0.1066;4.5237;
253.2000;0.1058;4.5164;
253.5000;0.1107;4.5311;
253.8000;0.1058;4.5237;
254.1000;0.1115;4.5433;
254.4000;0.1099;4.5433;
254.7000;0.1099;4.5408;
255.0000;0.1009;4.5213;
255.3000;0.1091;4.5433;
255.6000;0.1091;4.5457;
255.9000;0.1099;4.5482;
256.2000;0.1018;4.5164;
256.5000;0.1131;4.5408;
256.8000;0.1066;4.5335;
257.1000;0.1099;4.5384;
257.4000;0.1066;4.5360;
257.7000;0.1074;4.5408;
258.0000;0.1066;4.5286;
258.3000;0.1074;4.5384;
258.6000;0.1074;4.5457;
258.9000;0.1091;4.5506;
259.2000;0.1091;4.5555;
259.5000;0.1050;4.5433;
259.8000;0.1099;4.5555;
260.1000;0.1034;4.5286;
260.4000;0.1091;4.5384;
260.7000;0.1058;4.5335;
261.0000;0.1091;4.5360;
261.3000;0.1042;4.5286;
261.6000;0.1115;4.5457;
261.9000;0.1180;4.5677;
262.2000;0.1156;4.5580;
262.5000;0.1083;4.5335;
262.8000;0.1066;4.5286;
263.1000;0.1091;4.5433;
263.4000;0.1140;4.5506;
263.7000;0.0985;4.5139;
264.0000;0.1091;4.5335;
264.3000;0.1083;4.5335;
264.6000;0.1099;4.5360;
264.9000;0.1172;4.5555;
265.2000;0.1083;4.5335;
265.5000;0.1091;4.5286;
265.8000;0.1156;4.5408;
266.1000;0.1066;4.5262;
266.4000;0.1107;4.5384;
266.7000;0.1083;4.5384;
267.0000;0.1091;4.5384;
267.3000;0.1083;4.5335;
267.6000;0.1083;4.5262;
267.9000;0.1074;4.5262;
268.2000;0.1066;4.5335;
268.5000;0.1083;4.5384;
268.8000;0.1074;4.5360;
269.1000;0.1066;4.5408;
269.4000;0.1107;4.5384;
269.7000;0.1058;4.5335;
270.0000;0.1091;4.5360;
270.3000;0.1050;4.5237;
270.6000;0.1009;4.5115;
270.9000;0.1091;4.5311;
271.2000;0.1083;4.5286;
271.5000;0.1083;4.5237;
271.8000;0.1074;4.5188;
272.1000;0.1074;4.5139;
272.4000;0.1091;4.5091;
272.7000;0.1058;4.5066;
273.0000;0.1107;4.5213;
273.3000;0.1091;4.5188;
273.6000;0.1083;4.5164;
273.9000;0.1083;4.5164;
274.2000;0.1074;4.5188;
274.5000;0.1058;4.5164;
274.8000;0.1066;4.5213;
275.1000;0.1083;4.5213;
275.4000;0.1058;4.5115;
275.7000;0.1026;4.5091;
276.0000;0.1074;4.5139;
276.3000;0.1066;4.5188;
276.6000;0.1058;4.5188;
276.9000;0.1042;4.5188;
277.2000;0.1083;4.5262;
277.5000;0.1123;4.5335;
277.8000;0.1091;4.5237;
278.1000;0.1131;4.5286;
278.4000;0.1066;4.5115;
278.7000;0.1083;4.5188;
279.0000;0.1099;4.5311;
279.3000;0.1042;4.5188;
279.6000;0.1091;4.5335;
279.9000;0.1091;4.5262;
280.2000;0.1115;4.5335;
280.5000;0.1091;4.5213;
280.8000;0.1066;4.5066;
281.1000;0.1083;4.5115;
281.4000;0.1066;4.5066;
281.7000;0.1001;4.4846;
282.0000;0.1074;4.5066;
282.3000;0.1091;4.5164;
282.6000;0.1009;4.5017;
282.9000;0.1058;4.5164;
283.2000;0.1091;4.5213;
283.5000;0.1058;4.5091;
283.8000;0.1042;4.5115;
284.1000;0.1001;4.4944;
284.4000;0.1058;4.5066;
284.7000;0.1123;4.5335;
285.0000;0.1074;4.5188;
285.3000;0.1050;4.5115;
285.6000;0.1091;4.5213;
285.9000;0.1148;4.5311;
286.2000;0.1083;4.5115;
286.5000;0.1083;4.5066;
286.8000;0.1091;4.5139;
287.1000;0.1042;4.5017;
287.4000;0.1066;4.5042;
287.7000;0.1034;4.4944;
288.0000;0.1099;4.5115;
288.3000;0.1091;4.5139;
288.6000;0.1083;4.5115;
288.9000;0.1091;4.5091;
289.2000;0.1107;4.5139;
289.5000;0.1074;4.5139;
289.8000;0.1099;4.5164;
290.1000;0.1115;4.5164;
290.4000;0.1083;4.5042;
290.7000;0.1034;4.4968;
291.0000;0.1083;4.5139;
291.3000;0.1083;4.5188;
291.6000;0.1074;4.5139;
291.9000;0.1074;4.5139;
292.2000;0.1091;4.5164;
292.5000;0.1083;4.5164;
292.8000;0.1058;4.5139;
293.1000;0.1066;4.5213;
293.4000;0.1083;4.5286;
293.7000;0.1083;4.5335;
294.0000;0.1074;4.5335;
294.3000;0.1099;4.5408;
294.6000;0.1099;4.5360;
294.9000;0.1066;4.5237;
295.2000;0.1083;4.5262;
295.5000;0.1083;4.5262;
295.8000;0.1074;4.5262;
296.1000;0.1074;4.5286;
296.4000;0.1074;4.5237;
296.7000;0.1074;4.5164;
297.0000;0.1066;4.5139;
297.3000;0.1083;4.5139;
297.6000;0.1107;4.5286;
297.9000;0.1083;4.5115;
298.2000;0.1058;4.5115;
298.5000;0.1083;4.5188;
298.8000;0.1050;4.5188;
299.1000;0.0993;4.5017;
299.4000;0.1042;4.5262;
299.7000;0.1009;4.5139;
300.0000;0.1074;4.5262;
300.3000;0.1050;4.5213;
300.6000;0.0985;4.4944;
300.9000;0.1074;4.5139;
301.2000;0.1034;4.5091;
301.5000;0.1074;4.5237;
301.8000;0.1091;4.5262;
302.1000;0.1074;4.5164;
302.4000;0.1074;4.5213;
302.7000;0.1148;4.5360;
303.0000;0.1091;4.5311;
303.3000;0.1099;4.5360;
303.6000;0.1074;4.5286;
303.9000;0.1074;4.5286;
304.2000;0.1083;4.5286;
304.5000;0.1074;4.5237;
304.8000;0.1091;4.5188;
305.1000;0.1058;4.5066;
305.4000;0.1066;4.5042;
305.7000;0.1042;4.4993;
306.0000;0.1058;4.5017;
306.3000;0.1074;4.5091;
306.6000;0.1009;4.4895;
306.9000;0.1115;4.5213;
307.2000;0.1083;4.5139;
307.5000;0.0977;4.4797;
307.8000;0.1083;4.5164;
308.1000;0.1074;4.5286;
308.4000;0.1083;4.5286;
308.7000;0.1066;4.5213;
309.0000;0.1083;4.5311;
309.3000;0.1058;4.5237;
309.6000;0.1074;4.5213;
309.9000;0.1083;4.5262;
310.2000;0.1074;4.5286;
310.5000;0.1058;4.5262;
310.8000;0.1074;4.5286;
311.1000;0.1123;4.5408;
311.4000;0.1099;4.5311;
311.7000;0.1074;4.5335;
312.0000;0.1074;4.5311;
312.3000;0.1066;4.5286;
312.6000;0.1066;4.5335;
312.9000;0.1099;4.5433;
313.2000;0.1091;4.5360;
313.5000;0.1074;4.5286;
313.8000;0.1074;4.5286;
314.1000;0.1083;4.5311;
314.4000;0.1091;4.5311;
314.7000;0.1066;4.5237;
315.0000;0.1066;4.5213;
315.3000;0.1074;4.5286;
315.6000;0.1074;4.5286;
315.9000;0.1074;4.5286;
316.2000;0.1083;4.5360;
316.5000;0.1050;4.5262;
316.8000;0.1034;4.5237;
317.1000;0.1083;4.5237;
317.4000;0.1083;4.5188;
317.7000;0.1156;4.5408;
318.0000;0.1083;4.5139;
318.3000;0.1099;4.5213;
318.6000;0.1083;4.5091;
318.9000;0.1066;4.5115;
319.2000;0.1099;4.5164;
319.5000;0.1099;4.5164;
319.8000;0.1066;4.5091;
320.1000;0.1091;4.5188;
320.4000;0.1091;4.5188;
320.7000;0.1050;4.5042;
321.0000;0.1050;4.5042;
321.3000;0.1050;4.4968;
321.6000;0.1074;4.5042;
321.9000;0.1083;4.5164;
322.2000;0.1026;4.5115;
322.5000;0.1066;4.5237;
322.8000;0.1042;4.5164;
323.1000;0.1074;4.5188;
323.4000;0.1083;4.5213;
323.7000;0.1050;4.5188;
324.0000;0.1066;4.5213;
324.3000;0.1026;4.5017;
324.6000;0.1058;4.5188;
324.9000;0.1066;4.5311;
325.2000;0.1066;4.5286;
325.5000;0.1074;4.5311;
325.8000;0.1083;4.5262;
326.1000;0.1074;4.5262;
326.4000;0.1066;4.5408;
326.7000;0.1066;4.5457;
327.0000;0.0944;4.4993;
327.3000;0.1074;4.5262;
327.6000;0.1058;4.5286;
327.9000;0.1066;4.5286;
328.2000;0.0961;4.4968;
328.5000;0.1066;4.5237;
328.8000;0.1091;4.5311;
329.1000;0.1074;4.5237;
329.4000;0.1099;4.5213;
329.7000;0.1083;4.5139;
330.0000;0.1083;4.5188;
330.3000;0.1066;4.5066;
330.6000;0.1140;4.5262;
330.9000;0.1140;4.5213;
331.2000;0.1180;4.5311;
331.5000;0.1091;4.5115;
331.8000;0.1091;4.5164;
332.1000;0.1123;4.5164;
332.4000;0.1066;4.5091;
332.7000;0.1058;4.4919;
333.0000;0.1083;4.4993;
333.3000;0.0993;4.4846;
333.6000;0.1058;4.5164;
333.9000;0.1083;4.5262;
334.2000;0.0993;4.5042;
334.5000;0.1083;4.5237;
334.8000;0.1018;4.5042;
335.1000;0.1050;4.5139;
335.4000;0.1066;4.5213;
335.7000;0.1066;4.5213;
336.0000;0.1091;4.5360;
336.3000;0.1083;4.5311;
336.6000;0.1083;4.5457;
336.9000;0.1066;4.5555;
337.2000;0.1091;4.5580;
337.5000;0.1083;4.5555;
337.8000;0.1099;4.5482;
338.1000;0.1074;4.5384;
338.4000;0.1091;4.5384;
338.7000;0.1074;4.5482;
339.0000;0.1066;4.5506;
339.3000;0.1074;4.5457;
339.6000;0.1140;4.5604;
339.9000;0.1074;4.5286;
340.2000;0.1140;4.5433;
340.5000;0.1066;4.5311;
340.8000;0.1107;4.5482;
341.1000;0.1083;4.5531;
341.4000;0.1074;4.5482;
341.7000;0.1140;4.5628;
342.0000;0.1083;4.5433;
342.3000;0.1066;4.5384;
342.6000;0.1058;4.5335;
342.9000;0.1083;4.5457;
343.2000;0.1058;4.5384;
343.5000;0.1074;4.5433;
343.8000;0.1091;4.5457;
344.1000;0.1083;4.5482;
344.4000;0.1074;4.5482;
344.7000;0.1050;4.5433;
345.0000;0.1066;4.5506;
345.3000;0.1074;4.5433;
345.6000;0.1074;4.5408;
345.9000;0.1083;4.5457;
346.2000;0.1197;4.5775;
346.5000;0.1091;4.5506;
346.8000;0.1009;4.5311;
347.1000;0.1083;4.5580;
347.4000;0.1042;4.5482;
347.7000;0.1066;4.5457;
348.0000;0.1009;4.5311;
348.3000;0.1074;4.5531;
348.6000;0.1083;4.5506;
348.9000;0.1164;4.5702;
349.2000;0.1066;4.5433;
349.5000;0.1026;4.5286;
349.8000;0.1091;4.5555;
350.1000;0.1091;4.5506;
350.4000;0.1058;4.5482;
350.7000;0.1058;4.5482;
351.0000;0.1026;4.5335;
351.3000;0.1001;4.5237;
351.6000;0.1050;4.5433;
351.9000;0.1074;4.5506;
352.2000;0.1091;4.5555;
352.5000;0.1083;4.5580;
352.8000;0.1091;4.5580;
353.1000;0.1050;4.5433;
353.4000;0.1066;4.5457;
353.7000;0.1074;4.5482;
354.0000;0.1058;4.5360;
354.3000;0.1074;4.5237;
354.6000;0.1091;4.5286;
354.9000;0.1172;4.5531;
355.2000;0.1050;4.5188;
355.5000;0.1083;4.5360;
355.8000;0.1099;4.5311;
356.1000;0.1066;4.5213;
356.4000;0.0977;4.4993;
356.7000;0.1115;4.5384;
357.0000;0.1091;4.5311;
357.3000;0.0969;4.4919;
357.6000;0.1018;4.5091;
357.9000;0.1091;4.5384;
358.2000;0.1099;4.5360;
358.5000;0.1091;4.5433;
358.8000;0.1099;4.5384;
359.1000;0.1099;4.5433;
359.4000;0.1066;4.5360;
359.7000;0.1074;4.5408;
360.0000;0.1091;4.5360;
360.3000;0.1091;4.5433;
360.6000;0.1042;4.5335;
360.9000;0.1074;4.5408;
361.2000;0.1074;4.5335;
361.5000;0.1074;4.5311;
361.8000;0.1074;4.5237;
362.1000;0.1083;4.5335;
362.4000;0.1074;4.5335;
362.7000;0.1083;4.5311;
363.0000;0.1018;4.5188;
363.3000;0.1074;4.5384;
363.6000;0.1009;4.5262;
363.9000;0.1058;4.5457;
364.2000;0.1074;4.5384;
364.5000;0.1058;4.5311;
364.8000;0.1050;4.5286;
365.1000;0.1083;4.5457;
365.4000;0.1074;4.5482;
365.7000;0.1099;4.5506;
366.0000;0.1083;4.5506;
366.3000;0.1058;4.5408;
366.6000;0.1083;4.5433;
366.9000;0.1050;4.5384;
367.2000;0.1074;4.5408;
367.5000;0.1123;4.5555;
367.8000;0.1083;4.5433;
368.1000;0.1074;4.5262;
368.4000;0.1050;4.5066;
368.7000;0.1066;4.5066;
369.0000;0.1083;4.5164;
369.3000;0.1091;4.5286;
369.6000;0.1066;4.5213;
369.9000;0.1123;4.5335;
370.2000;0.1074;4.5262;
370.5000;0.1140;4.5360;
370.8000;0.1140;4.5360;
371.1000;0.1074;4.5262;
371.4000;0.1050;4.5139;
371.7000;0.1115;4.5384;
372.0000;0.1042;4.5164;
372.3000;0.1074;4.5237;
372.6000;0.1091;4.5262;
372.9000;0.1066;4.5286;
373.2000;0.1131;4.5360;
373.5000;0.1083;4.5237;
373.8000;0.1026;4.5017;
374.1000;0.1050;4.5066;
374.4000;0.1058;4.4993;
374.7000;0.1083;4.5066;
375.0000;0.1066;4.5042;
375.3000;0.1099;4.5139;
375.6000;0.1074;4.5017;
375.9000;0.1066;4.4968;
376.2000;0.1066;4.5091;
376.5000;0.1058;4.5017;
376.8000;0.1042;4.5042;
377.1000;0.1066;4.5139;
377.4000;0.1083;4.5139;
377.7000;0.1099;4.5237;
378.0000;0.1066;4.5139;
378.3000;0.1074;4.5237;
378.6000;0.1107;4.5262;
378.9000;0.1164;4.5360;
379.2000;0.1066;4.5115;
379.5000;0.1034;4.5115;
379.8000;0.1091;4.5262;
380.1000;0.1091;4.5286;
380.4000;0.1262;4.5775;
380.7000;0.1074;4.5311;
381.0000;0.1074;4.5286;
381.3000;0.1074;4.5213;
381.6000;0.1140;4.5433;
381.9000;0.0993;4.5017;
382.2000;0.1091;4.5311;
382.5000;0.1099;4.5262;
382.8000;0.1115;4.5384;
383.1000;0.1083;4.5360;
383.4000;0.1066;4.5384;
383.7000;0.1099;4.5360;
384.0000;0.1083;4.5286;
384.3000;0.1042;4.5164;
384.6000;0.1107;4.5237;
384.9000;0.1074;4.5237;
385.2000;0.1066;4.5164;
385.5000;0.1074;4.5286;
385.8000;0.1074;4.5335;
386.1000;0.1050;4.5360;
386.4000;0.1083;4.5311;
386.7000;0.1074;4.5286;
387.0000;0.1091;4.5360;
387.3000;0.1148;4.5555;
387.6000;0.1074;4.5360;
387.9000;0.1042;4.5286;
388.2000;0.1074;4.5286;
388.5000;0.1074;4.5286;
388.8000;0.1050;4.5311;
389.1000;0.1074;4.5360;
389.4000;0.1083;4.5335;
389.7000;0.1083;4.5286;
390.0000;0.1066;4.5360;
390.3000;0.1058;4.5360;
390.6000;0.1066;4.5213;
390.9000;0.1050;4.5188;
391.2000;0.1066;4.5237;
391.5000;0.1066;4.5311;
391.8000;0.0977;4.5139;
392.1000;0.1050;4.5237;
392.4000;0.1083;4.5311;
392.7000;0.1083;4.5286;
393.0000;0.1140;4.5580;
393.3000;0.1074;4.5384;
393.6000;0.1091;4.5384;
393.9000;0.1107;4.5506;
394.2000;0.1091;4.5384;
394.5000;0.0993;4.5066;
394.8000;0.0985;4.4944;
395.1000;0.1083;4.5164;
395.4000;0.1091;4.5262;
395.7000;0.1099;4.5237;
396.0000;0.1058;4.5139;
396.3000;0.1066;4.5066;
396.6000;0.1009;4.4968;
396.9000;0.1083;4.5115;
397.2000;0.1107;4.5335;
397.5000;0.1058;4.5091;
397.8000;0.1131;4.5262;
398.1000;0.1066;4.5115;
398.4000;0.1083;4.5091;
398.7000;0.1074;4.5042;
399.0000;0.1058;4.5017;
399.3000;0.1058;4.4919;
399.6000;0.1091;4.4968;
399.9000;0.1074;4.4968;
400.2000;0.1148;4.5237;
400.5000;0.1197;4.5384;
400.8000;0.1083;4.5139;
401.1000;0.1058;4.5188;
401.4000;0.1074;4.5237;
401.7000;0.1074;4.5188;
402.0000;0.1083;4.5237;
402.3000;0.1140;4.5360;
402.6000;0.1058;4.5115;
402.9000;0.1034;4.5139;
403.2000;0.1066;4.5286;
403.5000;0.1018;4.5139;
403.8000;0.1091;4.5262;
404.1000;0.1083;4.5262;
404.4000;0.1083;4.5237;
404.7000;0.1066;4.5237;
405.0000;0.1066;4.5335;
405.3000;0.1066;4.5360;
405.6000;0.1018;4.5286;
405.9000;0.1066;4.5335;
406.2000;0.1058;4.5311;
406.5000;0.1074;4.5286;
406.8000;0.1074;4.5360;
407.1000;0.1083;4.5311;
407.4000;0.1091;4.5237;
407.7000;0.1058;4.5237;
408.0000;0.1083;4.5311;
408.3000;0.1164;4.5433;
408.6000;0.1083;4.5188;
408.9000;0.1083;4.5237;
409.2000;0.1066;4.5262;
409.5000;0.1058;4.5262;
409.8000;0.1058;4.5262;
410.1000;0.1074;4.5311;
410.4000;0.1066;4.5286;
410.7000;0.1083;4.5335;
411.0000;0.1042;4.5335;
411.3000;0.1091;4.5408;
411.6000;0.1140;4.5531;
411.9000;0.1099;4.5531;
412.2000;0.1091;4.5506;
412.5000;0.1074;4.5433;
412.8000;0.1107;4.5555;
413.1000;0.1107;4.5506;
413.4000;0.1091;4.5360;
413.7000;0.0928;4.5017;
414.0000;0.1074;4.5360;
414.3000;0.1091;4.5482;
414.6000;0.1066;4.5482;
414.9000;0.1066;4.5531;
415.2000;0.1066;4.5653;
415.5000;0.1083;4.5531;
415.8000;0.1083;4.5482;
416.1000;0.1074;4.5408;
416.4000;0.1083;4.5384;
416.7000;0.1074;4.5335;
417.0000;0.1099;4.5482;
417.3000;0.1083;4.5457;
417.6000;0.1050;4.5360;
417.9000;0.1083;4.5482;
418.2000;0.1058;4.5384;
418.5000;0.1083;4.5360;
418.8000;0.0928;4.4846;
419.1000;0.1074;4.5115;
419.4000;0.1050;4.5066;
419.7000;0.1099;4.5262;
420.0000;0.1026;4.4993;
420.3000;0.1140;4.5360;
420.6000;0.1058;4.5213;
420.9000;0.1074;4.5237;
421.2000;0.1074;4.5262;
421.5000;0.1034;4.5188;
421.8000;0.1058;4.5311;
422.1000;0.1083;4.5360;
422.4000;0.1099;4.5335;
422.7000;0.1066;4.5213;
423.0000;0.1050;4.5164;
423.3000;0.1074;4.5213;
423.6000;0.1058;4.5237;
423.9000;0.1099;4.5457;
424.2000;0.1074;4.5457;
424.5000;0.1148;4.5702;
424.8000;0.1083;4.5482;
425.1000;0.1074;4.5433;
425.4000;0.1074;4.5531;
425.7000;0.1009;4.5311;
426.0000;0.1083;4.5531;
426.3000;0.1066;4.5433;
426.6000;0.1074;4.5604;
426.9000;0.1074;4.5555;
427.2000;0.1180;4.5849;
427.5000;0.1107;4.5580;
427.8000;0.1042;4.5360;
428.1000;0.1058;4.5360;
428.4000;0.1074;4.5360;
428.7000;0.1083;4.5213;
429.0000;0.1066;4.5188;
429.3000;0.1083;4.5188;
429.6000;0.1083;4.5066;
429.9000;0.1091;4.4993;
430.2000;0.1026;4.4944;
430.5000;0.1074;4.5091;
430.8000;0.1083;4.5139;
431.1000;0.1058;4.5066;
431.4000;0.1050;4.5042;
431.7000;0.1099;4.5139;
432.0000;0.1091;4.5115;
432.3000;0.1074;4.5042;
432.6000;0.1091;4.5139;
432.9000;0.1058;4.5188;
433.2000;0.1050;4.5286;
433.5000;0.1091;4.5433;
433.8000;0.1099;4.5457;
434.1000;0.1066;4.5384;
434.4000;0.1083;4.5384;
434.7000;0.1172;4.5555;
435.0000;0.1074;4.5262;
435.3000;0.1083;4.5188;
435.6000;0.1083;4.5139;
435.9000;0.1099;4.5164;
436.2000;0.1099;4.5213;
436.5000;0.1164;4.5311;
436.8000;0.1091;4.5213;
437.1000;0.1083;4.5237;
437.4000;0.1066;4.5286;
437.7000;0.1066;4.5286;
438.0000;0.1083;4.5213;
438.3000;0.1091;4.5213;
438.6000;0.1001;4.5066;
438.9000;0.1083;4.5335;
439.2000;0.1099;4.5408;
439.5000;0.1066;4.5408;
439.8000;0.1074;4.5433;
440.1000;0.1074;4.5384;
440.4000;0.1099;4.5286;
440.7000;0.1148;4.5360;
441.0000;0.1066;4.5237;
441.3000;0.1083;4.5286;
441.6000;0.1066;4.5188;
441.9000;0.1058;4.5164;
442.2000;0.1042;4.5115;
442.5000;0.1074;4.5188;
442.8000;0.1074;4.5115;
443.1000;0.1074;4.5091;
443.4000;0.1058;4.5042;
443.7000;0.1083;4.5139;
444.0000;0.1083;4.5115;
444.3000;0.1099;4.5164;
444.6000;0.1066;4.5091;
444.9000;0.1066;4.5066;
445.2000;0.1107;4.5139;
445.5000;0.1099;4.5213;
445.8000;0.1091;4.5115;
446.1000;0.1107;4.5115;
446.4000;0.1001;4.4944;
446.7000;0.1091;4.5213;
447.0000;0.1058;4.5188;
447.3000;0.1115;4.5213;
447.6000;0.1083;4.5164;
447.9000;0.1237;4.5531;
448.2000;0.1074;4.5139;
448.5000;0.1042;4.4993;
448.8000;0.1050;4.5066;
449.1000;0.1050;4.5042;
449.4000;0.1107;4.5188;
449.7000;0.1091;4.5286;
450.0000;0.1083;4.5335;
450.3000;0.1058;4.5360;
450.6000;0.1107;4.5408;
450.9000;0.1074;4.5335;
451.2000;0.1099;4.5335;
451.5000;0.1050;4.5213;
451.8000;0.1050;4.5164;
452.1000;0.1074;4.5262;
452.4000;0.1074;4.5237;
452.7000;0.1050;4.5188;
453.0000;0.1066;4.5188;
453.3000;0.1083;4.5311;
453.6000;0.1091;4.5237;
453.9000;0.1140;4.5384;
454.2000;0.1099;4.5286;
454.5000;0.1148;4.5311;
454.8000;0.1074;4.5091;
455.1000;0.1083;4.5188;
455.4000;0.1050;4.5066;
455.7000;0.1083;4.5115;
456.0000;0.1058;4.5091;
456.3000;0.1050;4.5091;
456.6000;0.1099;4.5262;
456.9000;0.1066;4.5164;
457.2000;0.1066;4.5213;
457.5000;0.1050;4.5311;
457.8000;0.1099;4.5433;
458.1000;0.1066;4.5457;
458.4000;0.1066;4.5384;
458.7000;0.1066;4.5457;
459.0000;0.1091;4.5506;
459.3000;0.1083;4.5531;
459.6000;0.1066;4.5482;
459.9000;0.1074;4.5408;
460.2000;0.1050;4.5360;
460.5000;0.1074;4.5433;
460.8000;0.1058;4.5384;
461.1000;0.1066;4.5433;
461.4000;0.1050;4.5335;
461.7000;0.0944;4.5066;
462.0000;0.1066;4.5457;
462.3000;0.1099;4.5604;
462.6000;0.1066;4.5555;
462.9000;0.1083;4.5555;
463.2000;0.1107;4.5506;
463.5000;0.1018;4.5311;
463.8000;0.1083;4.5384;
464.1000;0.1058;4.5360;
464.4000;0.1066;4.5360;
464.7000;0.1042;4.5286;
465.0000;0.1058;4.5335;
465.3000;0.1074;4.5408;
465.6000;0.1074;4.5213;
465.9000;0.1050;4.5188;
466.2000;0.1083;4.5384;
466.5000;0.1034;4.5311;
466.8000;0.1058;4.5286;
467.1000;0.1034;4.5213;
467.4000;0.1066;4.5262;
467.7000;0.1083;4.5360;
468.0000;0.1066;4.5262;
468.3000;0.1083;4.5360;
468.6000;0.1074;4.5457;
468.9000;0.1091;4.5580;
469.2000;0.1026;4.5311;
469.5000;0.1066;4.5384;
469.8000;0.1115;4.5531;
470.1000;0.1164;4.5702;
470.4000;0.1156;4.5531;
470.7000;0.1099;4.5555;
471.0000;0.1034;4.5408;
471.3000;0.1050;4.5482;
471.6000;0.1050;4.5555;
471.9000;0.1042;4.5506;
472.2000;0.0993;4.5311;
472.5000;0.1042;4.5433;
472.8000;0.0928;4.5115;
473.1000;0.1066;4.5335;
473.4000;0.1083;4.5286;
473.7000;0.1140;4.5482;
474.0000;0.1074;4.5262;
474.3000;0.0969;4.5017;
474.6000;0.1074;4.5237;
474.9000;0.0993;4.4944;
475.2000;0.1026;4.5066;
475.5000;0.1091;4.5237;
475.8000;0.1066;4.5237;
476.1000;0.1074;4.5286;
476.4000;0.1091;4.5237;
476.7000;0.1074;4.5213;
477.0000;0.1058;4.5164;
477.3000;0.1131;4.5384;
477.6000;0.1066;4.5188;
477.9000;0.1091;4.5286;
478.2000;0.1066;4.5262;
478.5000;0.1083;4.5237;
478.8000;0.1058;4.5115;
479.1000;0.1066;4.5164;
479.4000;0.1058;4.5164;
479.7000;0.1074;4.5335;
480.0000;0.1083;4.5433;
480.3000;0.1066;4.5384;
480.6000;0.1099;4.5482;
480.9000;0.1066;4.5384;
481.2000;0.1091;4.5408;
481.5000;0.1042;4.5213;
481.8000;0.1083;4.5188;
482.1000;0.1074;4.5213;
482.4000;0.1066;4.5164;
482.7000;0.1058;4.5213;
483.0000;0.1074;4.5408;
483.3000;0.1091;4.5506;
483.6000;0.1074;4.5531;
483.9000;0.1058;4.5506;
484.2000;0.1091;4.5506;
484.5000;0.1083;4.5482;
484.8000;0.1091;4.5555;
485.1000;0.1066;4.5531;
485.4000;0.1074;4.5506;
485.7000;0.1107;4.5506;
486.0000;0.1066;4.5433;
486.3000;0.1213;4.5824;
486.6000;0.1058;4.5433;
486.9000;0.1066;4.5286;
487.2000;0.1066;4.5311;
487.5000;0.1083;4.5286;
487.8000;0.1115;4.5408;
488.1000;0.1074;4.5262;
488.4000;0.1074;4.5408;
488.7000;0.0985;4.5115;
489.0000;0.1083;4.5384;
489.3000;0.1148;4.5604;
489.6000;0.1083;4.5360;
489.9000;0.1066;4.5139;
490.2000;0.1140;4.5286;
490.5000;0.1188;4.5286;
490.8000;0.1164;4.5311;
491.1000;0.1131;4.5213;
491.4000;0.1083;4.5188;
491.7000;0.1074;4.5237;
492.0000;0.1066;4.5311;
492.3000;0.1066;4.5360;
492.6000;0.1099;4.5457;
492.9000;0.1083;4.5360;
493.2000;0.1099;4.5311;
493.5000;0.1083;4.5286;
493.8000;0.1091;4.5286;
494.1000;0.1123;4.5311;
494.4000;0.1034;4.5139;
494.7000;0.1083;4.5286;
495.0000;0.1083;4.5237;
495.3000;0.1034;4.5066;
495.6000;0.1091;4.5237;
495.9000;0.1083;4.5237;
496.2000;0.1091;4.5286;
496.5000;0.1066;4.5188;
496.8000;0.1229;4.5482;
497.1000;0.1107;4.5164;
497.4000;0.1091;4.5188;
497.7000;0.1058;4.5164;
498.0000;0.1066;4.5188;
498.3000;0.1083;4.5188;
498.6000;0.1083;4.5164;
498.9000;0.1066;4.5139;
499.2000;0.1083;4.5164;
499.5000;0.1099;4.5262;
499.8000;0.1107;4.5384;
500.1000;0.1066;4.5262;
500.4000;0.1083;4.5384;
500.7000;0.1083;4.5335;
501.0000;0.1066;4.5360;
501.3000;0.1107;4.5433;
501.6000;0.1083;4.5408;
501.9000;0.1074;4.5408;
502.2000;0.1083;4.5408;
502.5000;0.1058;4.5335;
502.8000;0.1066;4.5335;
503.1000;0.1058;4.5213;
503.4000;0.1074;4.5311;
503.7000;0.1058;4.5262;
504.0000;0.1074;4.5335;
504.3000;0.1083;4.5311;
504.6000;0.1050;4.5188;
504.9000;0.1050;4.5188;
505.2000;0.1042;4.5091;
505.5000;0.1091;4.5237;
505.8000;0.1034;4.5066;
506.1000;0.1083;4.5237;
506.4000;0.1074;4.5213;
506.7000;0.1026;4.5188;
507.0000;0.1074;4.5262;
507.3000;0.1066;4.5262;
507.6000;0.1091;4.5408;
507.9000;0.1074;4.5335;
508.2000;0.1066;4.5237;
508.5000;0.1107;4.5335;
508.8000;0.1099;4.5311;
509.1000;0.1099;4.5286;
509.4000;0.1066;4.5188;
509.7000;0.1180;4.5506;
510.0000;0.1099;4.5213;
510.3000;0.1099;4.5139;
510.6000;0.1091;4.5115;
510.9000;0.1083;4.5213;
511.2000;0.1074;4.5164;
511.5000;0.1107;4.5262;
511.8000;0.1018;4.5017;
512.1000;0.1058;4.5139;
512.4000;0.1074;4.5139;
512.7000;0.1009;4.4895;
513.0000;0.1050;4.5017;
513.3000;0.1083;4.5066;
513.6000;0.1115;4.5213;
513.9000;0.1058;4.5139;
514.2000;0.1091;4.5188;
514.5000;0.1050;4.5042;
514.8000;0.1034;4.5042;
515.1000;0.1083;4.5115;
515.4000;0.1083;4.5115;
515.7000;0.1083;4.5188;
516.0000;0.1083;4.5311;
516.3000;0.1074;4.5262;
516.6000;0.1091;4.5360;
516.9000;0.1058;4.5164;
517.2000;0.1074;4.5213;
517.5000;0.1058;4.5139;
517.8000;0.1042;4.5091;
518.1000;0.1066;4.5066;
518.4000;0.1066;4.5091;
518.7000;0.1058;4.5091;
519.0000;0.0961;4.4822;
519.3000;0.1026;4.4895;
519.6000;0.1115;4.5213;
519.9000;0.1099;4.5139;
520.2000;0.1074;4.5139;
520.5000;0.1058;4.5139;
520.8000;0.1026;4.5139;
521.1000;0.1074;4.5311;
521.4000;0.1091;4.5286;
521.7000;0.1058;4.5164;
522.0000;0.1066;4.5091;
522.3000;0.1083;4.5164;
522.6000;0.1107;4.5213;
522.9000;0.1074;4.5066;
523.2000;0.1066;4.5042;
523.5000;0.1066;4.5115;
523.8000;0.1074;4.5237;
524.1000;0.1099;4.5262;
524.4000;0.1083;4.5262;
524.7000;0.1148;4.5384;
525.0000;0.1107;4.5335;
525.3000;0.1066;4.5188;
525.6000;0.1099;4.5360;
525.9000;0.1066;4.5164;
526.2000;0.1083;4.5066;
526.5000;0.1074;4.5042;
526.8000;0.1050;4.4919;
527.1000;0.1066;4.4895;
527.4000;0.1083;4.5066;
527.7000;0.1099;4.5091;
528.0000;0.1091;4.5164;
528.3000;0.1050;4.5017;
528.6000;0.1009;4.4773;
528.9000;0.1107;4.5066;
529.2000;0.1058;4.4968;
529.5000;0.1083;4.4993;
529.8000;0.1091;4.4993;
530.1000;0.1099;4.5017;
530.4000;0.1050;4.4944;
530.7000;0.1058;4.4993;
531.0000;0.1074;4.5066;
531.3000;0.1115;4.5213;
531.6000;0.1074;4.5164;
531.9000;0.1066;4.5115;
532.2000;0.1066;4.5091;
532.5000;0.1083;4.5115;
532.8000;0.1034;4.4993;
533.1000;0.1058;4.5091;
533.4000;0.1074;4.5164;
533.7000;0.1066;4.5139;
534.0000;0.1066;4.5164;
534.3000;0.1099;4.5286;
534.6000;0.1058;4.5262;
534.9000;0.1091;4.5262;
535.2000;0.1091;4.5286;
535.5000;0.1115;4.5311;
535.8000;0.1058;4.5188;
536.1000;0.1083;4.5262;
536.4000;0.1091;4.5433;
536.7000;0.0985;4.5188;
537.0000;0.1074;4.5384;
537.3000;0.1066;4.5384;
537.6000;0.1058;4.5262;
537.9000;0.1018;4.5066;
538.2000;0.1083;4.5311;
538.5000;0.1009;4.5237;
538.8000;0.1074;4.5408;
539.1000;0.1123;4.5580;
539.4000;0.1083;4.5457;
539.7000;0.1066;4.5408;
540.0000;0.1066;4.5408;
540.3000;0.1091;4.5506;
540.6000;0.1083;4.5433;
540.9000;0.1074;4.5457;
541.2000;0.1107;4.5604;
541.5000;0.1074;4.5628;
541.8000;0.1026;4.5457;
542.1000;0.1058;4.5457;
542.4000;0.1066;4.5433;
542.7000;0.1099;4.5580;
543.0000;0.1074;4.5531;
543.3000;0.1083;4.5555;
543.6000;0.1083;4.5580;
543.9000;0.1083;4.5555;
544.2000;0.1083;4.5555;
544.5000;0.1058;4.5384;
544.8000;0.1058;4.5433;
545.1000;0.1083;4.5531;
545.4000;0.1099;4.5580;
545.7000;0.1083;4.5482;
546.0000;0.1074;4.5555;
546.3000;0.1074;4.5506;
546.6000;0.1083;4.5555;
546.9000;0.1066;4.5433;
547.2000;0.1074;4.5360;
547.5000;0.1074;4.5335;
547.8000;0.1066;4.5213;
548.1000;0.1083;4.5188;
548.4000;0.1091;4.5164;
548.7000;0.1066;4.5017;
549.0000;0.1058;4.4993;
549.3000;0.1091;4.5091;
549.6000;0.1074;4.4993;
549.9000;0.1074;4.5017;
550.2000;0.1083;4.5042;
550.5000;0.1001;4.4822;
550.8000;0.1074;4.4993;
551.1000;0.1066;4.4968;
551.4000;0.1074;4.4968;
551.7000;0.1140;4.5188;
552.0000;0.1066;4.4944;
552.3000;0.1066;4.5066;
552.6000;0.1009;4.5042;
552.9000;0.1091;4.5286;
553.2000;0.1074;4.5286;
553.5000;0.0985;4.5042;
553.8000;0.1074;4.5335;
554.1000;0.1066;4.5311;
554.4000;0.1083;4.5335;
554.7000;0.1083;4.5262;
555.0000;0.1074;4.5213;
555.3000;0.1042;4.5237;
555.6000;0.1058;4.5188;
555.9000;0.1074;4.5213;
556.2000;0.1058;4.5164;
556.5000;0.1066;4.5139;
556.8000;0.1123;4.5311;
557.1000;0.1083;4.5237;
557.4000;0.1058;4.5188;
557.7000;0.1091;4.5360;
558.0000;0.1074;4.5335;
558.3000;0.1074;4.5360;
558.6000;0.1026;4.5262;
558.9000;0.1066;4.5335;
559.2000;0.1091;4.5433;
559.5000;0.1058;4.5433;
559.8000;0.1074;4.5555;
560.1000;0.1066;4.5506;
560.4000;0.1074;4.5384;
560.7000;0.1091;4.5384;
561.0000;0.1074;4.5384;
561.3000;0.0920;4.4944;
561.6000;0.1107;4.5433;
561.9000;0.1083;4.5408;
562.2000;0.1058;4.5286;
562.5000;0.1066;4.5286;
562.8000;0.1050;4.5311;
563.1000;0.1074;4.5433;
563.4000;0.1099;4.5457;
563.7000;0.1115;4.5555;
564.0000;0.1026;4.5262;
564.3000;0.0969;4.5091;
564.6000;0.1066;4.5360;
564.9000;0.1164;4.5580;
565.2000;0.0977;4.5091;
565.5000;0.1074;4.5384;
565.8000;0.1091;4.5384;
566.1000;0.1066;4.5237;
566.4000;0.1083;4.5286;
566.7000;0.0985;4.5042;
567.0000;0.1074;4.5237;
567.3000;0.1034;4.5066;
567.6000;0.1099;4.5262;
567.9000;0.1074;4.5091;
568.2000;0.1083;4.5115;
568.5000;0.1091;4.5237;
568.8000;0.1074;4.5311;
569.1000;0.1074;4.5286;
569.4000;0.1205;4.5726;
569.7000;0.1001;4.4993;
570.0000;0.1074;4.5139;
570.3000;0.1091;4.5262;
570.6000;0.1074;4.5164;
570.9000;0.1074;4.5066;
571.2000;0.1058;4.4993;
571.5000;0.0977;4.4748;
571.8000;0.1050;4.5066;
572.1000;0.1074;4.5164;
572.4000;0.1066;4.5139;
572.7000;0.1107;4.5311;
573.0000;0.1058;4.5164;
573.3000;0.1083;4.5164;
573.6000;0.1148;4.5237;
573.9000;0.1083;4.5164;
574.2000;0.1091;4.5188;
574.5000;0.1083;4.5262;
574.8000;0.1091;4.5360;
575.1000;0.1066;4.5384;
575.4000;0.1083;4.5360;
575.7000;0.1083;4.5433;
576.0000;0.1066;4.5384;
576.3000;0.1058;4.5311;
576.6000;0.1066;4.5457;
576.9000;0.1050;4.5311;
577.2000;0.1034;4.5188;
577.5000;0.1066;4.5335;
577.8000;0.1050;4.5213;
578.1000;0.1083;4.5408;
578.4000;0.1107;4.5408;
578.7000;0.1058;4.5286;
579.0000;0.1058;4.5262;
579.3000;0.1107;4.5335;
579.6000;0.1180;4.5531;
579.9000;0.1091;4.5311;
580.2000;0.1050;4.5286;
580.5000;0.1074;4.5286;
580.8000;0.1099;4.5360;
581.1000;0.1148;4.5457;
581.4000;0.1140;4.5433;
581.7000;0.1115;4.5384;
582.0000;0.1074;4.5237;
582.3000;0.1074;4.5164;
582.6000;0.1091;4.5164;
582.9000;0.1018;4.4968;
583.2000;0.1050;4.5115;
583.5000;0.1091;4.5237;
583.8000;0.1018;4.4919;
584.1000;0.1148;4.5262;
584.4000;0.1026;4.5017;
584.7000;0.1074;4.5164;
585.0000;0.1083;4.5188;
585.3000;0.0912;4.4724;
585.6000;0.1042;4.5091;
585.9000;0.1091;4.5164;
586.2000;0.1091;4.5164;
586.5000;0.1034;4.5115;
586.8000;0.1050;4.5188;
587.1000;0.0944;4.4846;
587.4000;0.1083;4.5188;
587.7000;0.1107;4.5262;
588.0000;0.1058;4.5262;
588.3000;0.1050;4.5213;
588.6000;0.1074;4.5262;
588.9000;0.1018;4.5115;
589.2000;0.1083;4.5262;
589.5000;0.1074;4.5335;
589.8000;0.1091;4.5457;
590.1000;0.1018;4.5311;
590.4000;0.1083;4.5360;
590.7000;0.1123;4.5457;
591.0000;0.1083;4.5360;
591.3000;0.1091;4.5384;
591.6000;0.1091;4.5384;
591.9000;0.1074;4.5213;
592.2000;0.1066;4.5213;
592.5000;0.1066;4.5188;
592.8000;0.1074;4.5262;
593.1000;0.1050;4.5262;
593.4000;0.1091;4.5384;
593.7000;0.1074;4.5360;
594.0000;0.0969;4.5066;
594.3000;0.1074;4.5433;
594.6000;0.1066;4.5408;
594.9000;0.1066;4.5457;
595.2000;0.1083;4.5531;
595.5000;0.1123;4.5653;
595.8000;0.1074;4.5457;
596.1000;0.1091;4.5482;
596.4000;0.1058;4.5408;
596.7000;0.1083;4.5457;
597.0000;0.1050;4.5311;
597.3000;0.1115;4.5433;
597.6000;0.1066;4.5286;
597.9000;0.1074;4.5213;
598.2000;0.1066;4.5188;
598.5000;0.1099;4.5262;
598.8000;0.1074;4.5164;
599.1000;0.1074;4.5164;
599.4000;0.1099;4.5286;
599.7000;0.1074;4.5286;
600.0000;0.1083;4.5262;
600.3000;0.1058;4.5213;
600.6000;0.1083;4.5188;
600.9000;0.1042;4.4993;
601.2000;0.1066;4.4944;
601.5000;0.1131;4.5066;
601.8000;0.1026;4.4601;
602.1000;0.1050;4.4626;
602.4000;0.1066;4.4577;
602.7000;0.0993;4.4308;
603.0000;0.1001;4.4259;
603.3000;0.1156;4.4650;
603.6000;0.0993;4.4088;
603.9000;0.1026;4.4186;
604.2000;0.1018;4.4088;
604.5000;0.1009;4.4088;
604.8000;0.1042;4.4210;
605.1000;0.1026;4.4161;
605.4000;0.1026;4.4161;
605.7000;0.0993;4.3892;
606.0000;0.1001;4.3868;
606.3000;0.1018;4.3843;
606.6000;0.1001;4.3795;
606.9000;0.0993;4.3770;
607.2000;0.1009;4.3868;
607.5000;0.0985;4.3770;
607.8000;0.1001;4.3795;
608.1000;0.1074;4.4039;
608.4000;0.0969;4.3721;
608.7000;0.0961;4.3746;
609.0000;0.1009;4.3843;
609.3000;0.1066;4.3966;
609.6000;0.0993;4.3770;
609.9000;0.0961;4.3672;
610.2000;0.1083;4.3990;
610.5000;0.0961;4.3672;
610.8000;0.0920;4.3526;
611.1000;0.1042;4.3843;
611.4000;0.1026;4.3746;
611.7000;0.0952;4.3648;
612.0000;0.0952;4.3672;
612.3000;0.1034;4.3917;
612.6000;0.0920;4.3672;
612.9000;0.0969;4.3868;
613.2000;0.0977;4.3843;
613.5000;0.0879;4.3697;
613.8000;0.0887;4.3574;
614.1000;0.0985;4.3770;
614.4000;0.0895;4.3550;
614.7000;0.0944;4.3672;
615.0000;0.0887;4.3428;
615.3000;0.0961;4.3648;
615.6000;0.0969;4.3697;
615.9000;0.0952;4.3672;
616.2000;0.0969;4.3746;
616.5000;0.0895;4.3477;
616.8000;0.0969;4.3623;
617.1000;0.0961;4.3574;
617.4000;0.0944;4.3526;
617.7000;0.0944;4.3501;
618.0000;0.0961;4.3501;
618.3000;0.0912;4.3403;
618.6000;0.0928;4.3501;
618.9000;0.0969;4.3746;
619.2000;0.0952;4.3599;
619.5000;0.0961;4.3648;
619.8000;0.0936;4.3648;
620.1000;0.0969;4.3648;
620.4000;0.0969;4.3623;
620.7000;0.0961;4.3526;
621.0000;0.0944;4.3501;
621.3000;0.0928;4.3428;
621.6000;0.0969;4.3550;
621.9000;0.0928;4.3574;
622.2000;0.0912;4.3501;
622.5000;0.0912;4.3574;
622.8000;0.0904;4.3526;
623.1000;0.0936;4.3574;
623.4000;0.0952;4.3599;
623.7000;0.0961;4.3697;
624.0000;0.0952;4.3721;
624.3000;0.0961;4.3770;
624.6000;0.0944;4.3697;
624.9000;0.1009;4.3819;
625.2000;0.0936;4.3526;
625.5000;0.0928;4.3623;
625.8000;0.0912;4.3526;
626.1000;0.0920;4.3574;
626.4000;0.0904;4.3599;
626.7000;0.0952;4.3672;
627.0000;0.0920;4.3599;
627.3000;0.0944;4.3697;
627.6000;0.0863;4.3428;
627.9000;0.0969;4.3746;
628.2000;0.0952;4.3697;
628.5000;0.0928;4.3623;
628.8000;0.0944;4.3550;
629.1000;0.0952;4.3599;
629.4000;0.0912;4.3428;
629.7000;0.0928;4.3452;
630.0000;0.0920;4.3428;
630.3000;0.0904;4.3526;
630.6000;0.0961;4.3721;
630.9000;0.0944;4.3721;
631.2000;0.0928;4.3819;
631.5000;0.0936;4.3795;
631.8000;0.0936;4.3795;
632.1000;0.0920;4.3672;
632.4000;0.0887;4.3501;
632.7000;0.0895;4.3501;
633.0000;0.0928;4.3599;
633.3000;0.0912;4.3648;
633.6000;0.0936;4.3746;
633.9000;0.0944;4.3697;
634.2000;0.0920;4.3623;
634.5000;0.0928;4.3672;
634.8000;0.0920;4.3721;
635.1000;0.0904;4.3623;
635.4000;0.0912;4.3721;
635.7000;0.0920;4.3721;
636.0000;0.0895;4.3574;
636.3000;0.0879;4.3477;
636.6000;0.0928;4.3697;
636.9000;0.0904;4.3599;
637.2000;0.0895;4.3623;
637.5000;0.0920;4.3721;
637.8000;0.0904;4.3672;
638.1000;0.0920;4.3697;
638.4000;0.0920;4.3697;
638.7000;0.0928;4.3819;
639.0000;0.0920;4.3770;
639.3000;0.0904;4.3746;
639.6000;0.0863;4.3697;
639.9000;0.0920;4.3917;
640.2000;0.0904;4.3892;
640.5000;0.0928;4.3941;
640.8000;0.0904;4.3941;
641.1000;0.0912;4.3819;
641.4000;0.0969;4.3990;
641.7000;0.0871;4.3648;
642.0000;0.0944;4.3892;
642.3000;0.0920;4.3843;
642.6000;0.0944;4.4039;
642.9000;0.0920;4.3917;
643.2000;0.0920;4.3966;
643.5000;0.0863;4.3795;
643.8000;0.0944;4.4015;
644.1000;0.0895;4.3917;
644.4000;0.0904;4.3941;
644.7000;0.0904;4.3966;
645.0000;0.0895;4.3966;
645.3000;0.0879;4.3941;
645.6000;0.0912;4.3966;
645.9000;0.0912;4.3990;
646.2000;0.0887;4.3892;
646.5000;0.0879;4.3819;
646.8000;0.0904;4.3868;
647.1000;0.0912;4.3917;
647.4000;0.0879;4.3868;
647.7000;0.0887;4.3990;
648.0000;0.0895;4.3990;
648.3000;0.0920;4.4112;
648.6000;0.0895;4.4039;
648.9000;0.0895;4.4064;
649.2000;0.0887;4.4064;
649.5000;0.0895;4.4088;
649.8000;0.0928;4.4112;
650.1000;0.0977;4.4161;
650.4000;0.0879;4.3941;
650.7000;0.0928;4.3941;
651.0000;0.0895;4.3868;
651.3000;0.0904;4.3868;
651.6000;0.0847;4.3574;
651.9000;0.0895;4.3746;
652.2000;0.0904;4.3770;
652.5000;0.0904;4.3819;
652.8000;0.0912;4.3843;
653.1000;0.0822;4.3501;
653.4000;0.1001;4.4064;
653.7000;0.0855;4.3574;
654.0000;0.0904;4.3721;
654.3000;0.0871;4.3697;
654.6000;0.0887;4.3746;
654.9000;0.0912;4.3868;
655.2000;0.1009;4.4137;
655.5000;0.0920;4.3843;
655.8000;0.0904;4.3770;
656.1000;0.0895;4.3770;
656.4000;0.0895;4.3648;
656.7000;0.0871;4.3574;
657.0000;0.0895;4.3599;
657.3000;0.0944;4.3697;
657.6000;0.0863;4.3526;
657.9000;0.0904;4.3623;
658.2000;0.0895;4.3526;
658.5000;0.0912;4.3526;
658.8000;0.0887;4.3477;
659.1000;0.0855;4.3452;
659.4000;0.0895;4.3648;
659.7000;0.0904;4.3697;
660.0000;0.0904;4.3770;
660.3000;0.0887;4.3770;
660.6000;0.0879;4.3746;
660.9000;0.0904;4.3795;
661.2000;0.0912;4.3746;
661.5000;0.0952;4.3868;
661.8000;0.0855;4.3648;
662.1000;0.0871;4.3721;
662.4000;0.0895;4.3770;
662.7000;0.0887;4.3746;
663.0000;0.0879;4.3697;
663.3000;0.0887;4.3770;
663.6000;0.0879;4.3746;
663.9000;0.0887;4.3770;
664.2000;0.0904;4.3868;
664.5000;0.0871;4.3795;
664.8000;0.0904;4.3819;
665.1000;0.0895;4.3770;
665.4000;0.0879;4.3770;
665.7000;0.0912;4.3770;
666.0000;0.0912;4.3843;
666.3000;0.0895;4.3770;
666.6000;0.0830;4.3599;
666.9000;0.0969;4.3966;
667.2000;0.0904;4.3721;
667.5000;0.0895;4.3697;
667.8000;0.0895;4.3746;
668.1000;0.0863;4.3648;
668.4000;0.0912;4.3770;
668.7000;0.0904;4.3819;
669.0000;0.0904;4.3795;
669.3000;0.0879;4.3746;
669.6000;0.0912;4.3819;
669.9000;0.0879;4.3746;
670.2000;0.0863;4.3721;
670.5000;0.0855;4.3672;
670.8000;0.0863;4.3721;
671.1000;0.0879;4.3819;
671.4000;0.0912;4.3941;
671.7000;0.0887;4.3843;
672.0000;0.0895;4.3917;
672.3000;0.0887;4.3917;
672.6000;0.0887;4.3868;
672.9000;0.0887;4.3868;
673.2000;0.0871;4.3843;
673.5000;0.0879;4.3819;
673.8000;0.0879;4.3843;
674.1000;0.0879;4.3819;
674.4000;0.0855;4.3746;
674.7000;0.0871;4.3672;
675.0000;0.0863;4.3550;
675.3000;0.0830;4.3354;
675.6000;0.0879;4.3501;
675.9000;0.0904;4.3550;
676.2000;0.0879;4.3574;
676.5000;0.0912;4.3697;
676.8000;0.0961;4.3795;
677.1000;0.0879;4.3697;
677.4000;0.0855;4.3721;
677.7000;0.0920;4.3795;
678.0000;0.0887;4.3746;
678.3000;0.0871;4.3648;
678.6000;0.0912;4.3697;
678.9000;0.0895;4.3623;
679.2000;0.0969;4.3819;
679.5000;0.0887;4.3599;
679.8000;0.0904;4.3697;
680.1000;0.0830;4.3574;
680.4000;0.0855;4.3599;
680.7000;0.0879;4.3672;
681.0000;0.0904;4.3721;
681.3000;0.0895;4.3623;
681.6000;0.0879;4.3574;
681.9000;0.0855;4.3477;
682.2000;0.0879;4.3550;
682.5000;0.0879;4.3599;
682.8000;0.0863;4.3599;
683.1000;0.0871;4.3574;
683.4000;0.0855;4.3550;
683.7000;0.0887;4.3623;
684.0000;0.0887;4.3623;
684.3000;0.0871;4.3623;
684.6000;0.1001;4.4015;
684.9000;0.0895;4.3819;
685.2000;0.0855;4.3721;
685.5000;0.0879;4.3819;
685.8000;0.0904;4.3843;
686.1000;0.0822;4.3599;
686.4000;0.0863;4.3819;
686.7000;0.0855;4.3721;
687.0000;0.0879;4.3721;
687.3000;0.0879;4.3672;
687.6000;0.0904;4.3599;
687.9000;0.0871;4.3550;
688.2000;0.0863;4.3574;
688.5000;0.0895;4.3697;
688.8000;0.0895;4.3672;
689.1000;0.0887;4.3574;
689.4000;0.0904;4.3697;
689.7000;0.0879;4.3623;
690.0000;0.0879;4.3623;
690.3000;0.0871;4.3672;
690.6000;0.0879;4.3648;
690.9000;0.0879;4.3623;
691.2000;0.0887;4.3623;
691.5000;0.0887;4.3623;
691.8000;0.0887;4.3623;
692.1000;0.0879;4.3648;
692.4000;0.0895;4.3623;
692.7000;0.0871;4.3550;
693.0000;0.0887;4.3648;
693.3000;0.0871;4.3648;
693.6000;0.0863;4.3746;
693.9000;0.0895;4.3770;
694.2000;0.0871;4.3770;
694.5000;0.0895;4.3843;
694.8000;0.0879;4.3795;
695.1000;0.0871;4.3746;
695.4000;0.0912;4.3868;
695.7000;0.0863;4.3746;
696.0000;0.0879;4.3843;
696.3000;0.0887;4.3868;
696.6000;0.0879;4.3819;
696.9000;0.0879;4.3868;
697.2000;0.0895;4.3966;
697.5000;0.0879;4.3917;
697.8000;0.0871;4.3843;
698.1000;0.0887;4.3892;
698.4000;0.0871;4.3795;
698.7000;0.0830;4.3697;
699.0000;0.0847;4.3697;
699.3000;0.0928;4.3941;
699.6000;0.0814;4.3648;
699.9000;0.0879;4.3843;
700.2000;0.0952;4.3892;
700.5000;0.0847;4.3526;
700.8000;0.0887;4.3697;
701.1000;0.0790;4.3403;
701.4000;0.0904;4.3697;
701.7000;0.0855;4.3623;
702.0000;0.0895;4.3697;
702.3000;0.0961;4.3843;
702.6000;0.0879;4.3623;
702.9000;0.0904;4.3721;
703.2000;0.0904;4.3770;
703.5000;0.0904;4.3843;
703.8000;0.0855;4.3868;
704.1000;0.0912;4.4015;
704.4000;0.0928;4.4015;
704.7000;0.0838;4.3746;
705.0000;0.0928;4.3966;
705.3000;0.0879;4.3843;
705.6000;0.0871;4.3843;
705.9000;0.0830;4.3721;
706.2000;0.0855;4.3746;
706.5000;0.0904;4.3770;
706.8000;0.0887;4.3697;
707.1000;0.0838;4.3623;
707.4000;0.0895;4.3746;
707.7000;0.0863;4.3721;
708.0000;0.0838;4.3623;
708.3000;0.0871;4.3501;
708.6000;0.0887;4.3501;
708.9000;0.0871;4.3452;
709.2000;0.0912;4.3526;
709.5000;0.0863;4.3379;
709.8000;0.0830;4.3354;
710.1000;0.0871;4.3477;
710.4000;0.0895;4.3599;
710.7000;0.0871;4.3550;
711.0000;0.0895;4.3550;
711.3000;0.0871;4.3428;
711.6000;0.0871;4.3330;
711.9000;0.0871;4.3281;
712.2000;0.0855;4.3281;
712.5000;0.0838;4.3281;
712.8000;0.0895;4.3501;
713.1000;0.0904;4.3623;
713.4000;0.0863;4.3550;
713.7000;0.0855;4.3574;
714.0000;0.0879;4.3697;
714.3000;0.0887;4.3819;
714.6000;0.0863;4.3721;
714.9000;0.0936;4.3868;
715.2000;0.0863;4.3672;
715.5000;0.0912;4.3795;
715.8000;0.0887;4.3770;
716.1000;0.0887;4.3795;
716.4000;0.0814;4.3550;
716.7000;0.0887;4.3795;
717.0000;0.0855;4.3697;
717.3000;0.0838;4.3574;
717.6000;0.0871;4.3721;
717.9000;0.0798;4.3550;
718.2000;0.0895;4.3795;
718.5000;0.0904;4.3917;
718.8000;0.0871;4.3843;
719.1000;0.0887;4.3892;
719.4000;0.0912;4.3941;
719.7000;0.0904;4.3941;
720.0000;0.0871;4.3917;
720.3000;0.0822;4.3868;
720.6000;0.0912;4.4064;
720.9000;0.0887;4.3941;
721.2000;0.0895;4.3966;
721.5000;0.0871;4.3892;
721.8000;0.0871;4.3917;
722.1000;0.0871;4.3770;
722.4000;0.0863;4.3746;
722.7000;0.0993;4.4161;
723.0000;0.0855;4.3843;
723.3000;0.0944;4.4088;
723.6000;0.0944;4.4137;
723.9000;0.0847;4.3917;
724.2000;0.0871;4.3990;
724.5000;0.0887;4.4235;
724.8000;0.0904;4.4333;
725.1000;0.0895;4.4259;
725.4000;0.0855;4.4137;
725.7000;0.0863;4.4064;
726.0000;0.0879;4.4015;
726.3000;0.0830;4.3892;
726.6000;0.0887;4.4088;
726.9000;0.0879;4.3966;
727.2000;0.0847;4.3795;
727.5000;0.0879;4.3892;
727.8000;0.0887;4.3941;
728.1000;0.0879;4.3868;
728.4000;0.1018;4.4186;
728.7000;0.0871;4.3697;
729.0000;0.0871;4.3721;
729.3000;0.0855;4.3746;
729.6000;0.0887;4.3843;
729.9000;0.0855;4.3721;
730.2000;0.0863;4.3746;
730.5000;0.0879;4.3917;
730.8000;0.0838;4.3770;
731.1000;0.0871;4.3843;
731.4000;0.0863;4.3843;
731.7000;0.0838;4.3770;
732.0000;0.0871;4.3843;
732.3000;0.0887;4.3868;
732.6000;0.0879;4.3819;
732.9000;0.0855;4.3746;
733.2000;0.0863;4.3770;
733.5000;0.0879;4.3795;
733.8000;0.0871;4.3868;
734.1000;0.0871;4.3843;
734.4000;0.0887;4.3795;
734.7000;0.0838;4.3599;
735.0000;0.0871;4.3623;
735.3000;0.0863;4.3599;
735.6000;0.0895;4.3648;
735.9000;0.0912;4.3697;
736.2000;0.0887;4.3623;
736.5000;0.0871;4.3599;
736.8000;0.0871;4.3526;
737.1000;0.0879;4.3672;
737.4000;0.0855;4.3574;
737.7000;0.0822;4.3501;
738.0000;0.0871;4.3648;
738.3000;0.0838;4.3623;
738.6000;0.0733;4.3208;
738.9000;0.0830;4.3501;
739.2000;0.0920;4.3819;
739.5000;0.0936;4.3892;
739.8000;0.0855;4.3697;
740.1000;0.0863;4.3623;
740.4000;0.0871;4.3623;
740.7000;0.0855;4.3672;
741.0000;0.0871;4.3746;
741.3000;0.0879;4.3721;
741.6000;0.0936;4.3697;
741.9000;0.0887;4.3623;
742.2000;0.0944;4.3770;
742.5000;0.0912;4.3746;
742.8000;0.0863;4.3550;
743.1000;0.0977;4.3868;
743.4000;0.0806;4.3281;
743.7000;0.0871;4.3623;
744.0000;0.0895;4.3697;
744.3000;0.0871;4.3574;
744.6000;0.0887;4.3599;
744.9000;0.0904;4.3697;
745.2000;0.0847;4.3574;
745.5000;0.0814;4.3477;
745.8000;0.0904;4.3697;
746.1000;0.0879;4.3648;
746.4000;0.0847;4.3672;
746.7000;0.0887;4.3795;
747.0000;0.0879;4.3770;
747.3000;0.0847;4.3819;
747.6000;0.0863;4.3868;
747.9000;0.0847;4.3721;
748.2000;0.0871;4.3819;
748.5000;0.0887;4.3843;
748.8000;0.0887;4.3795;
749.1000;0.0871;4.3843;
749.4000;0.0904;4.3843;
749.7000;0.0887;4.3843;
750.0000;0.0879;4.3917;
750.3000;0.0887;4.3990;
750.6000;0.0879;4.3941;
750.9000;0.0871;4.3892;
751.2000;0.0871;4.3868;
751.5000;0.0887;4.3843;
751.8000;0.0871;4.3868;
752.1000;0.0871;4.3843;
752.4000;0.0806;4.3648;
752.7000;0.0863;4.3746;
753.0000;0.0871;4.3795;
753.3000;0.0904;4.3917;
753.6000;0.0928;4.3966;
753.9000;0.0855;4.3819;
754.2000;0.0863;4.3868;
754.5000;0.0961;4.4186;
754.8000;0.0879;4.3917;
755.1000;0.0879;4.3868;
755.4000;0.0879;4.3746;
755.7000;0.0863;4.3697;
756.0000;0.0879;4.3672;
756.3000;0.0912;4.3746;
756.6000;0.0895;4.3746;
756.9000;0.0830;4.3697;
757.2000;0.0871;4.3746;
757.5000;0.0912;4.3868;
757.8000;0.0871;4.3697;
758.1000;0.0855;4.3721;
758.4000;0.0863;4.3721;
758.7000;0.0928;4.3892;
759.0000;0.0879;4.3795;
759.3000;0.0830;4.3770;
759.6000;0.1001;4.4186;
759.9000;0.0920;4.3892;
760.2000;0.0847;4.3648;
760.5000;0.0830;4.3648;
760.8000;0.0879;4.3819;
761.1000;0.0855;4.3819;
761.4000;0.0838;4.3770;
761.7000;0.0822;4.3697;
762.0000;0.0863;4.3819;
762.3000;0.0887;4.3868;
762.6000;0.0855;4.3746;
762.9000;0.0871;4.3721;
763.2000;0.0928;4.3966;
763.5000;0.0822;4.3746;
763.8000;0.0887;4.3990;
764.1000;0.0887;4.3941;
764.4000;0.0847;4.3746;
764.7000;0.0871;4.3795;
765.0000;0.0871;4.3770;
765.3000;0.0879;4.3795;
765.6000;0.0863;4.3746;
765.9000;0.0879;4.3770;
766.2000;0.0936;4.3966;
766.5000;0.0895;4.3795;
766.8000;0.0855;4.3574;
767.1000;0.0879;4.3648;
767.4000;0.0822;4.3526;
767.7000;0.0879;4.3721;
768.0000;0.0887;4.3770;
768.3000;0.0879;4.3795;
768.6000;0.0879;4.3795;
768.9000;0.0855;4.3672;
769.2000;0.0969;4.3819;
769.5000;0.0887;4.3623;
769.8000;0.0855;4.3526;
770.1000;0.0887;4.3550;
770.4000;0.0871;4.3526;
770.7000;0.0855;4.3501;
771.0000;0.0920;4.3721;
771.3000;0.0871;4.3623;
771.6000;0.0879;4.3672;
771.9000;0.0879;4.3648;
772.2000;0.0855;4.3795;
772.5000;0.0887;4.3868;
772.8000;0.0871;4.3795;
773.1000;0.0904;4.3843;
773.4000;0.0871;4.3721;
773.7000;0.0806;4.3550;
774.0000;0.0879;4.3672;
774.3000;0.0749;4.3330;
774.6000;0.0904;4.3917;
774.9000;0.0879;4.3795;
775.2000;0.0887;4.3819;
775.5000;0.0895;4.3868;
775.8000;0.0887;4.3819;
776.1000;0.0863;4.3746;
776.4000;0.0944;4.3990;
776.7000;0.0863;4.3770;
777.0000;0.0871;4.3770;
777.3000;0.0871;4.3795;
777.6000;0.0944;4.4112;
777.9000;0.0887;4.3917;
778.2000;0.0863;4.3892;
778.5000;0.0895;4.4064;
778.8000;0.0895;4.3990;
779.1000;0.0879;4.3941;
779.4000;0.0879;4.3941;
779.7000;0.0879;4.3917;
780.0000;0.0879;4.3917;
780.3000;0.0887;4.3892;
780.6000;0.0806;4.3648;
780.9000;0.0879;4.3868;
781.2000;0.0887;4.3917;
781.5000;0.0847;4.3843;
781.8000;0.0773;4.3672;
782.1000;0.0855;4.3892;
782.4000;0.0879;4.3990;
782.7000;0.1009;4.4357;
783.0000;0.0855;4.3941;
783.3000;0.0887;4.4015;
783.6000;0.0863;4.3941;
783.9000;0.0879;4.3966;
784.2000;0.0879;4.3941;
784.5000;0.0806;4.3697;
784.8000;0.0895;4.3917;
785.1000;0.0879;4.3917;
785.4000;0.0887;4.4015;
785.7000;0.0887;4.4088;
786.0000;0.0887;4.4088;
786.3000;0.0895;4.4015;
786.6000;0.0871;4.4039;
786.9000;0.0895;4.4015;
787.2000;0.0952;4.4186;
787.5000;0.0863;4.4064;
787.8000;0.0887;4.4064;
788.1000;0.0887;4.4039;
788.4000;0.0798;4.3843;
788.7000;0.0863;4.4064;
789.0000;0.0887;4.4039;
789.3000;0.0871;4.3990;
789.6000;0.0895;4.4088;
789.9000;0.0871;4.4015;
790.2000;0.1034;4.4479;
790.5000;0.1018;4.4479;
790.8000;0.0871;4.3990;
791.1000;0.0895;4.4064;
791.4000;0.0912;4.4137;
791.7000;0.0920;4.4064;
792.0000;0.0879;4.3966;
792.3000;0.0863;4.3917;
792.6000;0.0847;4.3917;
792.9000;0.0871;4.3941;
793.2000;0.0936;4.4039;
793.5000;0.0798;4.3697;
793.8000;0.0863;4.3892;
794.1000;0.0912;4.4015;
794.4000;0.0879;4.3941;
794.7000;0.0863;4.3892;
795.0000;0.0879;4.4039;
795.3000;0.0936;4.4210;
795.6000;0.0887;4.3990;
795.9000;0.0847;4.3819;
796.2000;0.0798;4.3746;
796.5000;0.0733;4.3501;
796.8000;0.0863;4.3892;
797.1000;0.0904;4.4015;
797.4000;0.0920;4.4039;
797.7000;0.0863;4.4015;
798.0000;0.0863;4.3917;
798.3000;0.1009;4.4284;
798.6000;0.0863;4.3941;
798.9000;0.0871;4.3917;
799.2000;0.0855;4.3868;
799.5000;0.0895;4.3990;
799.8000;0.0863;4.3941;
800.1000;0.0887;4.4039;
800.4000;0.0887;4.4039;
800.7000;0.0887;4.4064;
801.0000;0.0879;4.3966;
801.3000;0.0895;4.4015;
801.6000;0.0879;4.3990;
801.9000;0.0887;4.3966;
802.2000;0.0944;4.4186;
802.5000;0.0863;4.4039;
802.8000;0.0806;4.3941;
803.1000;0.0806;4.3966;
803.4000;0.0847;4.4137;
803.7000;0.0879;4.4161;
804.0000;0.0912;4.4259;
804.3000;0.0871;4.4064;
804.6000;0.0887;4.4039;
804.9000;0.0863;4.4015;
805.2000;0.0838;4.3966;
805.5000;0.0879;4.3941;
805.8000;0.0895;4.3941;
806.1000;0.0871;4.3868;
806.4000;0.0879;4.3917;
806.7000;0.0879;4.3892;
807.0000;0.0879;4.3941;
807.3000;0.0855;4.3892;
807.6000;0.0863;4.3941;
807.9000;0.0855;4.3892;
808.2000;0.0887;4.3917;
808.5000;0.0887;4.3966;
808.8000;0.0936;4.4137;
809.1000;0.0879;4.3917;
809.4000;0.0904;4.4039;
809.7000;0.0806;4.3795;
810.0000;0.0879;4.4039;
810.3000;0.0814;4.3892;
810.6000;0.0871;4.4015;
810.9000;0.0871;4.4088;
811.2000;0.0749;4.3648;
811.5000;0.0887;4.3941;
811.8000;0.0855;4.3868;
812.1000;0.0871;4.3868;
812.4000;0.0863;4.3795;
812.7000;0.0838;4.3770;
813.0000;0.0863;4.3795;
813.3000;0.0879;4.3795;
813.6000;0.0895;4.3843;
813.9000;0.0871;4.3697;
814.2000;0.0871;4.3795;
814.5000;0.0904;4.3917;
814.8000;0.0920;4.4015;
815.1000;0.0871;4.3917;
815.4000;0.0847;4.3917;
815.7000;0.0887;4.3966;
816.0000;0.0887;4.3917;
816.3000;0.0855;4.3843;
816.6000;0.0977;4.4186;
816.9000;0.0863;4.3892;
817.2000;0.0887;4.3917;
817.5000;0.0855;4.3917;
817.8000;0.0863;4.3892;
818.1000;0.0847;4.3843;
818.4000;0.0855;4.3819;
818.7000;0.0871;4.3892;
819.0000;0.0863;4.3892;
819.3000;0.0944;4.4112;
819.6000;0.0871;4.3892;
819.9000;0.0855;4.3892;
820.2000;0.0863;4.4015;
820.5000;0.0895;4.3990;
820.8000;0.0871;4.3892;
821.1000;0.0871;4.3892;
821.4000;0.0863;4.3843;
821.7000;0.0863;4.3917;
822.0000;0.0879;4.3917;
822.3000;0.0887;4.3892;
822.6000;0.0798;4.3746;
822.9000;0.0855;4.3868;
823.2000;0.0879;4.3892;
823.5000;0.0838;4.3868;
823.8000;0.0887;4.3966;
824.1000;0.0863;4.3843;
824.4000;0.0879;4.3917;
824.7000;0.0895;4.4064;
825.0000;0.0863;4.4064;
825.3000;0.0863;4.4039;
825.6000;0.0871;4.4088;
825.9000;0.0855;4.3990;
826.2000;0.0887;4.4088;
826.5000;0.0871;4.4039;
826.8000;0.0838;4.4015;
827.1000;0.0887;4.4161;
827.4000;0.0887;4.4308;
827.7000;0.0879;4.4235;
828.0000;0.0863;4.4137;
828.3000;0.0895;4.4210;
828.6000;0.0895;4.4112;
828.9000;0.0855;4.3990;
829.2000;0.0879;4.4088;
829.5000;0.0879;4.4161;
829.8000;0.0904;4.4284;
830.1000;0.0863;4.4259;
830.4000;0.0855;4.4235;
830.7000;0.0798;4.4039;
831.0000;0.0871;4.4235;
831.3000;0.0847;4.4088;
831.6000;0.0822;4.3966;
831.9000;0.0895;4.4112;
832.2000;0.0871;4.3941;
832.5000;0.0798;4.3672;
832.8000;0.0863;4.3892;
833.1000;0.0863;4.3941;
833.4000;0.0871;4.3966;
833.7000;0.0847;4.3941;
834.0000;0.0847;4.3941;
834.3000;0.0847;4.3868;
834.6000;0.0871;4.3892;
834.9000;0.0871;4.3819;
835.2000;0.0855;4.3843;
835.5000;0.0912;4.4015;
835.8000;0.0863;4.3966;
836.1000;0.0904;4.4161;
836.4000;0.0863;4.3990;
836.7000;0.0904;4.4088;
837.0000;0.0863;4.3990;
837.3000;0.0879;4.4039;
837.6000;0.0879;4.3990;
837.9000;0.0863;4.3868;
838.2000;0.0847;4.3892;
838.5000;0.0847;4.4015;
838.8000;0.0879;4.4137;
839.1000;0.0871;4.4064;
839.4000;0.0879;4.4112;
839.7000;0.0961;4.4284;
840.0000;0.0871;4.4039;
840.3000;0.0830;4.3868;
840.6000;0.0952;4.4088;
840.9000;0.0855;4.3868;
841.2000;0.0879;4.3941;
841.5000;0.0887;4.3966;
841.8000;0.0879;4.3868;
842.1000;0.0863;4.3770;
842.4000;0.0863;4.3746;
842.7000;0.0871;4.3795;
843.0000;0.0863;4.3721;
843.3000;0.0814;4.3599;
843.6000;0.0887;4.3746;
843.9000;0.0904;4.3843;
844.2000;0.0847;4.3770;
844.5000;0.0871;4.3746;
844.8000;0.0912;4.3868;
845.1000;0.0879;4.3892;
845.4000;0.0855;4.3868;
845.7000;0.0944;4.4186;
846.0000;0.0871;4.4015;
846.3000;0.0961;4.4357;
846.6000;0.0847;4.3966;
846.9000;0.0863;4.4064;
847.2000;0.0863;4.4064;
847.5000;0.0790;4.3868;
847.8000;0.0847;4.3966;
848.1000;0.0871;4.3892;
848.4000;0.0920;4.3990;
848.7000;0.0879;4.3843;
849.0000;0.0879;4.3917;
849.3000;0.0895;4.3990;
849.6000;0.0863;4.3990;
849.9000;0.0895;4.4088;
850.2000;0.0879;4.4039;
850.5000;0.0895;4.4137;
850.8000;0.0855;4.4161;
851.1000;0.0847;4.4039;
851.4000;0.0847;4.3990;
851.7000;0.0920;4.4088;
852.0000;0.0847;4.3966;
852.3000;0.0912;4.4088;
852.6000;0.0765;4.3574;
852.9000;0.0863;4.3941;
853.2000;0.0871;4.3990;
853.5000;0.0871;4.3990;
853.8000;0.0838;4.3917;
854.1000;0.0879;4.4088;
854.4000;0.0855;4.4015;
854.7000;0.0985;4.4406;
855.0000;0.0879;4.4088;
855.3000;0.0879;4.4088;
855.6000;0.0830;4.3941;
855.9000;0.0863;4.4039;
856.2000;0.0847;4.4064;
856.5000;0.0871;4.4064;
856.8000;0.0879;4.4088;
857.1000;0.0871;4.4064;
857.4000;0.0863;4.4064;
857.7000;0.0838;4.4064;
858.0000;0.0863;4.4186;
858.3000;0.0887;4.4333;
858.6000;0.0855;4.4284;
858.9000;0.0855;4.4235;
859.2000;0.0871;4.4137;
859.5000;0.0887;4.4186;
859.8000;0.0871;4.4088;
860.1000;0.0879;4.4064;
860.4000;0.0969;4.4259;
860.7000;0.0863;4.3941;
861.0000;0.0871;4.3917;
861.3000;0.0863;4.3917;
861.6000;0.0830;4.3868;
861.9000;0.0887;4.4039;
862.2000;0.0879;4.3990;
862.5000;0.0887;4.4015;
862.8000;0.0871;4.3892;
863.1000;0.0863;4.3770;
863.4000;0.0879;4.3843;
863.7000;0.0928;4.3990;
864.0000;0.0871;4.3917;
864.3000;0.0887;4.4015;
864.6000;0.0871;4.3917;
864.9000;0.0863;4.3868;
865.2000;0.0749;4.3550;
865.5000;0.0871;4.3941;
865.8000;0.0863;4.3868;
866.1000;0.0879;4.3819;
866.4000;0.0871;4.3819;
866.7000;0.0887;4.3746;
867.0000;0.0871;4.3746;
867.3000;0.0879;4.3868;
867.6000;0.0847;4.3819;
867.9000;0.0879;4.4015;
868.2000;0.0863;4.3990;
868.5000;0.0871;4.3941;
868.8000;0.0895;4.3966;
869.1000;0.0871;4.3892;
869.4000;0.0879;4.4039;
869.7000;0.0871;4.3990;
870.0000;0.0863;4.3941;
870.3000;0.0871;4.3941;
870.6000;0.0871;4.3868;
870.9000;0.0847;4.3819;
871.2000;0.0879;4.3892;
871.5000;0.0904;4.3990;
871.8000;0.0912;4.4039;
872.1000;0.0871;4.4064;
872.4000;0.0871;4.3966;
872.7000;0.0871;4.3966;
873.0000;0.0879;4.4064;
873.3000;0.0879;4.4112;
873.6000;0.0847;4.4064;
873.9000;0.0879;4.4088;
874.2000;0.0871;4.4039;
874.5000;0.0847;4.3917;
874.8000;0.0879;4.4015;
875.1000;0.0855;4.3966;
875.4000;0.0904;4.3990;
875.7000;0.0855;4.4039;
876.0000;0.0871;4.4039;
876.3000;0.0871;4.4088;
876.6000;0.0838;4.4015;
876.9000;0.0847;4.3990;
877.2000;0.0847;4.3966;
877.5000;0.0855;4.4039;
877.8000;0.0871;4.4015;
878.1000;0.0855;4.3941;
878.4000;0.0871;4.4015;
878.7000;0.0969;4.4333;
879.0000;0.0879;4.4015;
879.3000;0.0830;4.3917;
879.6000;0.0895;4.3917;
879.9000;0.0871;4.3892;
880.2000;0.0871;4.3966;
880.5000;0.0871;4.4064;
880.8000;0.0871;4.4039;
881.1000;0.0879;4.4015;
881.4000;0.0798;4.3795;
881.7000;0.0863;4.4015;
882.0000;0.0863;4.4088;
882.3000;0.0904;4.4186;
882.6000;0.0855;4.4039;
882.9000;0.0863;4.4039;
883.2000;0.0847;4.3966;
883.5000;0.0863;4.4039;
883.8000;0.0863;4.4064;
884.1000;0.0871;4.4088;
884.4000;0.0863;4.4015;
884.7000;0.0879;4.4210;
885.0000;0.0838;4.4112;
885.3000;0.0887;4.4259;
885.6000;0.0863;4.4161;
885.9000;0.0871;4.4137;
886.2000;0.0855;4.3990;
886.5000;0.0847;4.3941;
886.8000;0.0830;4.3966;
887.1000;0.0822;4.3868;
887.4000;0.0944;4.4137;
887.7000;0.0863;4.3941;
888.0000;0.0871;4.4039;
888.3000;0.0936;4.4284;
888.6000;0.0847;4.4064;
888.9000;0.0855;4.4064;
889.2000;0.0855;4.4137;
889.5000;0.0879;4.4161;
889.8000;0.0920;4.4186;
890.1000;0.0904;4.4161;
890.4000;0.0863;4.4064;
890.7000;0.0879;4.4064;
891.0000;0.0895;4.4137;
891.3000;0.0871;4.4137;
891.6000;0.0879;4.4161;
891.9000;0.0879;4.4039;
892.2000;0.0863;4.3966;
892.5000;0.0879;4.3966;
892.8000;0.0838;4.3892;
893.1000;0.0855;4.3941;
893.4000;0.0871;4.3941;
893.7000;0.0879;4.3966;
894.0000;0.0863;4.3966;
894.3000;0.0871;4.4015;
894.6000;0.0895;4.4186;
894.9000;0.0936;4.4308;
895.2000;0.0863;4.4088;
895.5000;0.0936;4.4186;
895.8000;0.0944;4.4186;
896.1000;0.0895;4.3941;
896.4000;0.0887;4.3941;
896.7000;0.0863;4.3966;
897.0000;0.0863;4.3990;
897.3000;0.0879;4.4137;
897.6000;0.0879;4.4186;
897.9000;0.0863;4.4259;
898.2000;0.0879;4.4259;
898.5000;0.0879;4.4235;
898.8000;0.0895;4.4210;
899.1000;0.0855;4.4161;
899.4000;0.0887;4.4235;
899.7000;0.0871;4.4259;
900.0000;0.0863;4.4186;
900.3000;0.0855;4.4186;
900.6000;0.0871;4.4210;
900.9000;0.0863;4.4186;
901.2000;0.0879;4.4235;
901.5000;0.0863;4.4186;
901.8000;0.0871;4.4259;
902.1000;0.0863;4.4161;
902.4000;0.0887;4.4137;
902.7000;0.0920;4.4235;
903.0000;0.0871;4.4088;
903.3000;0.0830;4.3966;
903.6000;0.0871;4.4161;
903.9000;0.0887;4.4088;
904.2000;0.0961;4.4235;
904.5000;0.0847;4.3917;
904.8000;0.0887;4.4064;
905.1000;0.0879;4.4064;
905.4000;0.0790;4.3770;
905.7000;0.1001;4.4284;
906.0000;0.0806;4.3770;
906.3000;0.0904;4.4137;
906.6000;0.0798;4.3966;
906.9000;0.0928;4.4259;
907.2000;0.0928;4.4259;
907.5000;0.0944;4.4406;
907.8000;0.0798;4.3990;
908.1000;0.0863;4.4112;
908.4000;0.0920;4.4308;
908.7000;0.0928;4.4357;
909.0000;0.0855;4.4015;
909.3000;0.0847;4.3941;
909.6000;0.0879;4.4112;
909.9000;0.0895;4.4161;
910.2000;0.0847;4.4112;
910.5000;0.0952;4.4406;
910.8000;0.0838;4.3941;
911.1000;0.0912;4.4088;
911.4000;0.0871;4.3990;
911.7000;0.0871;4.4064;
912.0000;0.0863;4.4112;
912.3000;0.0928;4.4284;
912.6000;0.0863;4.4039;
912.9000;0.0855;4.4064;
913.2000;0.0847;4.4064;
913.5000;0.0887;4.4186;
913.8000;0.0871;4.4137;
914.1000;0.0879;4.4112;
914.4000;0.0871;4.4137;
914.7000;0.0863;4.4137;
915.0000;0.0895;4.4161;
915.3000;0.0806;4.4015;
915.6000;0.0863;4.4161;
915.9000;0.0879;4.4186;
916.2000;0.0806;4.4015;
916.5000;0.0887;4.4259;
916.8000;0.0863;4.4186;
917.1000;0.0871;4.4161;
917.4000;0.0887;4.4137;
917.7000;0.0879;4.4210;
918.0000;0.0879;4.4333;
918.3000;0.0863;4.4186;
918.6000;0.0863;4.4235;
918.9000;0.0871;4.4235;
919.2000;0.0830;4.4015;
919.5000;0.0887;4.4064;
919.8000;0.0879;4.4064;
920.1000;0.0830;4.4015;
920.4000;0.0879;4.4137;
920.7000;0.0895;4.4259;
921.0000;0.0847;4.4112;
921.3000;0.0863;4.4137;
921.6000;0.0871;4.4137;
921.9000;0.0887;4.4210;
922.2000;0.1001;4.4650;
922.5000;0.0871;4.4259;
922.8000;0.0798;4.4039;
923.1000;0.0863;4.4186;
923.4000;0.0830;4.4088;
923.7000;0.0773;4.3819;
924.0000;0.0855;4.4015;
924.3000;0.0855;4.4112;
924.6000;0.0879;4.4186;
924.9000;0.0847;4.4161;
925.2000;0.1050;4.4748;
925.5000;0.0895;4.4357;
925.8000;0.0863;4.4235;
926.1000;0.0879;4.4235;
926.4000;0.0944;4.4479;
926.7000;0.0855;4.4161;
927.0000;0.0847;4.4210;
927.3000;0.0936;4.4430;
927.6000;0.0863;4.4235;
927.9000;0.0952;4.4455;
928.2000;0.0822;4.4088;
928.5000;0.0847;4.4137;
928.8000;0.0895;4.4381;
929.1000;0.0879;4.4381;
929.4000;0.0830;4.4235;
929.7000;0.0863;4.4210;
930.0000;0.0863;4.4161;
930.3000;0.0944;4.4333;
930.6000;0.0961;4.4284;
930.9000;0.0798;4.3819;
931.2000;0.0871;4.4039;
931.5000;0.0855;4.3966;
931.8000;0.0798;4.3770;
932.1000;0.0887;4.3990;
932.4000;0.0855;4.4064;
932.7000;0.0830;4.4064;
933.0000;0.0863;4.4235;
933.3000;0.0863;4.4210;
933.6000;0.0887;4.4357;
933.9000;0.0773;4.4039;
934.2000;0.0879;4.4235;
934.5000;0.0830;4.4112;
934.8000;0.0871;4.4161;
935.1000;0.0863;4.4088;
935.4000;0.0863;4.4088;
935.7000;0.0847;4.4039;
936.0000;0.0895;4.4039;
936.3000;0.0855;4.3941;
936.6000;0.0895;4.4064;
936.9000;0.0838;4.3917;
937.2000;0.0887;4.4039;
937.5000;0.0871;4.4015;
937.8000;0.0822;4.3892;
938.1000;0.0855;4.4015;
938.4000;0.0830;4.3990;
938.7000;0.0863;4.4039;
939.0000;0.0830;4.3990;
939.3000;0.0887;4.4161;
939.6000;0.0847;4.4039;
939.9000;0.0879;4.4112;
940.2000;0.0863;4.4137;
940.5000;0.0887;4.4161;
940.8000;0.0895;4.4186;
941.1000;0.0855;4.4161;
941.4000;0.0895;4.4259;
941.7000;0.0879;4.4210;
942.0000;0.0830;4.4064;
942.3000;0.0904;4.4259;
942.6000;0.0887;4.4284;
942.9000;0.0855;4.4235;
943.2000;0.0944;4.4430;
943.5000;0.0879;4.4235;
943.8000;0.0838;4.4186;
944.1000;0.0895;4.4381;
944.4000;0.0871;4.4284;
944.7000;0.0871;4.4308;
945.0000;0.0855;4.4259;
945.3000;0.0904;4.4430;
945.6000;0.0863;4.4235;
945.9000;0.0871;4.4333;
946.2000;0.0863;4.4235;
946.5000;0.0871;4.4284;
946.8000;0.0944;4.4430;
947.1000;0.0863;4.4161;
947.4000;0.0855;4.4112;
947.7000;0.0798;4.4015;
948.0000;0.0847;4.3941;
948.3000;0.0904;4.4064;
948.6000;0.0838;4.3917;
948.9000;0.0847;4.3819;
949.2000;0.0871;4.3892;
949.5000;0.0944;4.4137;
949.8000;0.0863;4.3917;
950.1000;0.0838;4.3843;
950.4000;0.0871;4.4015;
950.7000;0.0871;4.4039;
951.0000;0.0936;4.4186;
951.3000;0.0822;4.3843;
951.6000;0.0838;4.3917;
951.9000;0.0871;4.4039;
952.2000;0.0863;4.4015;
952.5000;0.0855;4.4015;
952.8000;0.0871;4.4112;
953.1000;0.0863;4.4039;
953.4000;0.0887;4.4112;
953.7000;0.0863;4.4112;
954.0000;0.0904;4.4210;
954.3000;0.0855;4.4137;
954.6000;0.0871;4.4161;
954.9000;0.0871;4.4137;
955.2000;0.0847;4.4186;
955.5000;0.0822;4.4112;
955.8000;0.0855;4.4137;
956.1000;0.0887;4.4186;
956.4000;0.0871;4.4137;
956.7000;0.0863;4.4088;
957.0000;0.0863;4.4088;
957.3000;0.0871;4.4088;
957.6000;0.0863;4.4064;
957.9000;0.0781;4.3843;
958.2000;0.0847;4.4088;
958.5000;0.0879;4.4259;
958.8000;0.0944;4.4357;
959.1000;0.0863;4.4112;
959.4000;0.0895;4.4161;
959.7000;0.0855;4.4064;
960.0000;0.0879;4.4039;
960.3000;0.0912;4.4137;
960.6000;0.0822;4.3941;
960.9000;0.0871;4.3990;
961.2000;0.0863;4.3868;
961.5000;0.0773;4.3599;
961.8000;0.0879;4.3843;
962.1000;0.0879;4.3941;
962.4000;0.0879;4.3966;
962.7000;0.0847;4.3843;
963.0000;0.0871;4.3966;
963.3000;0.0895;4.3966;
963.6000;0.0773;4.3770;
963.9000;0.0863;4.3966;
964.2000;0.0871;4.4088;
964.5000;0.0847;4.4112;
964.8000;0.0847;4.4064;
965.1000;0.0863;4.4210;
965.4000;0.0944;4.4430;
965.7000;0.0879;4.4235;
966.0000;0.0895;4.4235;
966.3000;0.0855;4.4259;
966.6000;0.0855;4.4210;
966.9000;0.0887;4.4235;
967.2000;0.0887;4.4137;
967.5000;0.0904;4.4137;
967.8000;0.0904;4.4186;
968.1000;0.0863;4.4186;
968.4000;0.0871;4.4186;
968.7000;0.0855;4.4210;
969.0000;0.0798;4.4039;
969.3000;0.0887;4.4308;
969.6000;0.0863;4.4186;
969.9000;0.0887;4.4137;
970.2000;0.0871;4.4137;
970.5000;0.0855;4.4015;
970.8000;0.0822;4.3892;
971.1000;0.0830;4.3966;
971.4000;0.0871;4.4088;
971.7000;0.0741;4.3672;
972.0000;0.0806;4.3819;
972.3000;0.0887;4.4064;
972.6000;0.0871;4.4039;
972.9000;0.0863;4.4088;
973.2000;0.0838;4.3941;
973.5000;0.0887;4.3990;
973.8000;0.0879;4.3892;
974.1000;0.0855;4.3941;
974.4000;0.0879;4.3966;
974.7000;0.0855;4.3917;
975.0000;0.0863;4.3941;
975.3000;0.0952;4.4210;
975.6000;0.0871;4.4015;
975.9000;0.0822;4.3892;
976.2000;0.0847;4.3966;
976.5000;0.0830;4.3990;
976.8000;0.0855;4.4039;
977.1000;0.0855;4.4015;
977.4000;0.0879;4.4015;
977.7000;0.0855;4.3941;
978.0000;0.0855;4.3917;
978.3000;0.0993;4.4308;
978.6000;0.0871;4.4064;
978.9000;0.0879;4.4137;
979.2000;0.0863;4.4088;
979.5000;0.0855;4.4112;
979.8000;0.0887;4.4161;
980.1000;0.0871;4.4161;
980.4000;0.0871;4.4161;
980.7000;0.0855;4.4112;
981.0000;0.0871;4.4210;
981.3000;0.0863;4.4088;
981.6000;0.0855;4.4112;
981.9000;0.0895;4.4235;
982.2000;0.0895;4.4161;
982.5000;0.0887;4.4137;
982.8000;0.0855;4.4088;
983.1000;0.0871;4.4039;
983.4000;0.0879;4.4039;
983.7000;0.0879;4.4064;
984.0000;0.0863;4.4064;
984.3000;0.0838;4.3941;
984.6000;0.0855;4.3941;
984.9000;0.0871;4.3966;
985.2000;0.0879;4.3941;
985.5000;0.0814;4.3795;
985.8000;0.0887;4.4015;
986.1000;0.0895;4.3990;
986.4000;0.0879;4.3941;
986.7000;0.0871;4.3941;
987.0000;0.0871;4.3966;
987.3000;0.0871;4.4015;
987.6000;0.0904;4.4161;
987.9000;0.0855;4.3941;
988.2000;0.0847;4.3892;
988.5000;0.0847;4.3843;
988.8000;0.0887;4.3843;
989.1000;0.0879;4.3868;
989.4000;0.0838;4.3770;
989.7000;0.0871;4.3868;
990.0000;0.0847;4.3892;
990.3000;0.0879;4.4015;
990.6000;0.0879;4.4015;
990.9000;0.0871;4.4039;
991.2000;0.0855;4.3941;
991.5000;0.0855;4.3917;
991.8000;0.0806;4.3746;
992.1000;0.0887;4.4039;
992.4000;0.0879;4.4112;
992.7000;0.0871;4.4088;
993.0000;0.0855;4.3990;
993.3000;0.0871;4.4015;
993.6000;0.0879;4.4039;
993.9000;0.0863;4.3941;
994.2000;0.0879;4.3917;
994.5000;0.0887;4.3941;
994.8000;0.0887;4.3892;
995.1000;0.0879;4.3941;
995.4000;0.0895;4.4039;
995.7000;0.0936;4.4235;
996.0000;0.0887;4.3990;
996.3000;0.0912;4.4137;
996.6000;0.0847;4.4039;
996.9000;0.0863;4.4064;
997.2000;0.0928;4.4259;
997.5000;0.0863;4.4039;
997.8000;0.0871;4.4064;
998.1000;0.0863;4.4137;
998.4000;0.0879;4.4235;
998.7000;0.0871;4.4259;
999.0000;0.0871;4.4284;
999.3000;0.0904;4.4308;
999.6000;0.0879;4.4161;
999.9000;0.0879;4.4210;
1000.2000;0.0871;4.4112;
1000.5000;0.0814;4.3941;
1000.8000;0.0912;4.4064;
1001.1000;0.0724;4.3623;
1001.4000;0.0895;4.4064;
1001.7000;0.0863;4.3892;
1002.0000;0.0936;4.4112;
1002.3000;0.0871;4.3892;
1002.6000;0.0887;4.3966;
1002.9000;0.0879;4.3892;
1003.2000;0.0855;4.3941;
1003.5000;0.0904;4.4064;
1003.8000;0.0879;4.4064;
1004.1000;0.0871;4.4064;
1004.4000;0.0879;4.4064;
1004.7000;0.0871;4.4088;
1005.0000;0.0871;4.4112;
1005.3000;0.0887;4.4064;
1005.6000;0.0887;4.3990;
1005.9000;0.0879;4.3941;
1006.2000;0.0855;4.3795;
1006.5000;0.0838;4.3843;
1006.8000;0.0895;4.3941;
1007.1000;0.0847;4.3941;
1007.4000;0.0887;4.4112;
1007.7000;0.0871;4.4039;
1008.0000;0.0871;4.4064;
1008.3000;0.0847;4.4015;
1008.6000;0.0863;4.4039;
1008.9000;0.0838;4.3941;
1009.2000;0.0863;4.4039;
1009.5000;0.0895;4.4088;
1009.8000;0.0912;4.4186;
1010.1000;0.0757;4.3843;
1010.4000;0.0912;4.4284;
1010.7000;0.0879;4.4186;
1011.0000;0.0863;4.4186;
1011.3000;0.0855;4.4259;
1011.6000;0.0822;4.4161;
1011.9000;0.0847;4.4161;
1012.2000;0.0847;4.4064;
1012.5000;0.0895;4.4186;
1012.8000;0.0879;4.4210;
1013.1000;0.0863;4.4235;
1013.4000;0.0863;4.4235;
1013.7000;0.0887;4.4235;
1014.0000;0.0863;4.4210;
1014.3000;0.0879;4.4235;
1014.6000;0.0895;4.4235;
1014.9000;0.0887;4.4186;
1015.2000;0.0879;4.4161;
1015.5000;0.0798;4.3868;
1015.8000;0.0879;4.4064;
1016.1000;0.0887;4.4112;
1016.4000;0.0863;4.4015;
1016.7000;0.0895;4.4088;
1017.0000;0.0773;4.3721;
1017.3000;0.1009;4.4430;
1017.6000;0.0847;4.4015;
1017.9000;0.0855;4.4137;
1018.2000;0.0879;4.4235;
1018.5000;0.0904;4.4333;
1018.8000;0.0871;4.4259;
1019.1000;0.0879;4.4308;
1019.4000;0.0928;4.4357;
1019.7000;0.0879;4.4186;
1020.0000;0.0855;4.4235;
1020.3000;0.0969;4.4479;
1020.6000;0.0855;4.4235;
1020.9000;0.0822;4.4137;
1021.2000;0.0863;4.4284;
1021.5000;0.0855;4.4259;
1021.8000;0.0936;4.4479;
1022.1000;0.0863;4.4235;
1022.4000;0.0855;4.4210;
1022.7000;0.0863;4.4088;
1023.0000;0.0871;4.4161;
1023.3000;0.0863;4.4161;
1023.6000;0.0855;4.4186;
1023.9000;0.0879;4.4259;
1024.2000;0.0879;4.4235;
1024.5000;0.0863;4.4161;
1024.8000;0.0847;4.4039;
1025.1000;0.0855;4.3966;
1025.4000;0.0838;4.3966;
1025.7000;0.0871;4.4039;
1026.0000;0.0863;4.3990;
1026.3000;0.0847;4.3990;
1026.6000;0.0847;4.3941;
1026.9000;0.0871;4.4015;
1027.2000;0.0887;4.4064;
1027.5000;0.0871;4.4064;
1027.8000;0.0855;4.3990;
1028.1000;0.0863;4.4039;
1028.4000;0.0895;4.4112;
1028.7000;0.0887;4.4161;
1029.0000;0.0871;4.4186;
1029.3000;0.0871;4.4210;
1029.6000;0.0847;4.4186;
1029.9000;0.0863;4.4210;
1030.2000;0.0830;4.4137;
1030.5000;0.0847;4.4161;
1030.8000;0.0887;4.4284;
1031.1000;0.0863;4.4235;
1031.4000;0.0871;4.4210;
1031.7000;0.0855;4.4088;
1032.0000;0.0879;4.4015;
1032.3000;0.0871;4.3990;
1032.6000;0.0863;4.4015;
1032.9000;0.0887;4.4112;
1033.2000;0.0887;4.4039;
1033.5000;0.0871;4.4015;
1033.8000;0.0855;4.3941;
1034.1000;0.0855;4.3966;
1034.4000;0.0912;4.4161;
1034.7000;0.0871;4.4088;
1035.0000;0.0855;4.3990;
1035.3000;0.0749;4.3697;
1035.6000;0.0871;4.3990;
1035.9000;0.0830;4.3819;
1036.2000;0.0863;4.3843;
1036.5000;0.0871;4.3843;
1036.8000;0.0871;4.3819;
1037.1000;0.0855;4.3843;
1037.4000;0.0871;4.3941;
1037.7000;0.0863;4.3966;
1038.0000;0.0838;4.3966;
1038.3000;0.0879;4.3917;
1038.6000;0.0871;4.3746;
1038.9000;0.0855;4.3721;
1039.2000;0.0830;4.3770;
1039.5000;0.0822;4.3697;
1039.8000;0.0895;4.3892;
1040.1000;0.0944;4.3990;
1040.4000;0.0887;4.3819;
1040.7000;0.0887;4.3868;
1041.0000;0.0879;4.3819;
1041.3000;0.0781;4.3574;
1041.6000;0.0871;4.3843;
1041.9000;0.0855;4.3843;
1042.2000;0.0838;4.3795;
1042.5000;0.0977;4.4235;
1042.8000;0.0879;4.4064;
1043.1000;0.0912;4.4161;
1043.4000;0.0887;4.4039;
1043.7000;0.0855;4.3966;
1044.0000;0.0879;4.4088;
1044.3000;0.0895;4.4210;
1044.6000;0.0830;4.4064;
1044.9000;0.0895;4.4088;
1045.2000;0.0838;4.3843;
1045.5000;0.0871;4.3917;
1045.8000;0.0863;4.3770;
1046.1000;0.0855;4.3892;
1046.4000;0.0822;4.3795;
1046.7000;0.0895;4.3990;
1047.0000;0.0887;4.3892;
1047.3000;0.0863;4.3843;
1047.6000;0.0855;4.3843;
1047.9000;0.0871;4.3843;
1048.2000;0.0863;4.3819;
1048.5000;0.0855;4.3868;
1048.8000;0.0838;4.3795;
1049.1000;0.0871;4.3843;
1049.4000;0.0847;4.3672;
1049.7000;0.0830;4.3574;
1050.0000;0.0871;4.3672;
1050.3000;0.0838;4.3648;
1050.6000;0.0879;4.3770;
1050.9000;0.0895;4.3721;
1051.2000;0.0871;4.3672;
1051.5000;0.0847;4.3721;
1051.8000;0.0806;4.3697;
1052.1000;0.0855;4.3843;
1052.4000;0.0863;4.3917;
1052.7000;0.0879;4.3990;
1053.0000;0.0855;4.3941;
1053.3000;0.0895;4.4112;
1053.6000;0.0969;4.4308;
1053.9000;0.0863;4.4039;
1054.2000;0.0871;4.4064;
1054.5000;0.0855;4.3990;
1054.8000;0.0863;4.3892;
1055.1000;0.0863;4.3990;
1055.4000;0.0855;4.3892;
1055.7000;0.0790;4.3721;
1056.0000;0.0847;4.3868;
1056.3000;0.0887;4.3941;
1056.6000;0.0952;4.4112;
1056.9000;0.0855;4.3941;
1057.2000;0.0879;4.3892;
1057.5000;0.0847;4.3868;
1057.8000;0.0928;4.4088;
1058.1000;0.0895;4.4137;
1058.4000;0.0887;4.3990;
1058.7000;0.0879;4.3966;
1059.0000;0.0847;4.3941;
1059.3000;0.0838;4.3868;
1059.6000;0.0887;4.4064;
1059.9000;0.0887;4.4039;
1060.2000;0.0863;4.4088;
1060.5000;0.0879;4.4137;
1060.8000;0.0887;4.4259;
1061.1000;0.0936;4.4333;
1061.4000;0.0904;4.4284;
1061.7000;0.0855;4.4161;
1062.0000;0.0847;4.4161;
1062.3000;0.0855;4.4112;
1062.6000;0.0806;4.3966;
1062.9000;0.0863;4.3941;
1063.2000;0.0806;4.3843;
1063.5000;0.0814;4.3770;
1063.8000;0.0879;4.3990;
1064.1000;0.0814;4.3819;
1064.4000;0.0871;4.4064;
1064.7000;0.0822;4.3917;
1065.0000;0.0887;4.4064;
1065.3000;0.0871;4.4064;
1065.6000;0.0855;4.4088;
1065.9000;0.0904;4.4186;
1066.2000;0.0863;4.4039;
1066.5000;0.0855;4.3990;
1066.8000;0.0822;4.3966;
1067.1000;0.0887;4.4137;
1067.4000;0.0871;4.4064;
1067.7000;0.0863;4.4064;
1068.0000;0.0871;4.4064;
1068.3000;0.0928;4.4161;
1068.6000;0.0879;4.4064;
1068.9000;0.0879;4.4064;
1069.2000;0.0863;4.4088;
1069.5000;0.0863;4.4064;
1069.8000;0.0887;4.4137;
1070.1000;0.0887;4.4284;
1070.4000;0.0879;4.4308;
1070.7000;0.0871;4.4333;
1071.0000;0.0871;4.4381;
1071.3000;0.0863;4.4284;
1071.6000;0.0879;4.4210;
1071.9000;0.0863;4.4259;
1072.2000;0.0855;4.4235;
1072.5000;0.0871;4.4235;
1072.8000;0.0871;4.4137;
1073.1000;0.0879;4.4088;
1073.4000;0.0790;4.3819;
1073.7000;0.0847;4.3966;
1074.0000;0.0863;4.3917;
1074.3000;0.0871;4.3966;
1074.6000;0.0830;4.3892;
1074.9000;0.0855;4.3941;
1075.2000;0.0887;4.4015;
1075.5000;0.0863;4.3966;
1075.8000;0.0912;4.4137;
1076.1000;0.0838;4.3966;
1076.4000;0.0871;4.4015;
1076.7000;0.0895;4.4039;
1077.0000;0.0855;4.3941;
1077.3000;0.0879;4.4088;
1077.6000;0.0871;4.4112;
1077.9000;0.0871;4.4088;
1078.2000;0.0847;4.4064;
1078.5000;0.0830;4.3917;
1078.8000;0.0920;4.4210;
1079.1000;0.0879;4.4112;
1079.4000;0.0904;4.4161;
1079.7000;0.0871;4.4015;
1080.0000;0.0855;4.3868;
1080.3000;0.0879;4.4064;
1080.6000;0.0936;4.4186;
1080.9000;0.0887;4.4161;
1081.2000;0.0879;4.4064;
1081.5000;0.0863;4.4064;
1081.8000;0.0855;4.4112;
1082.1000;0.0822;4.4015;
1082.4000;0.0838;4.4088;
1082.7000;0.0863;4.4137;
1083.0000;0.0887;4.4137;
1083.3000;0.0879;4.4112;
1083.6000;0.0871;4.4088;
1083.9000;0.0928;4.4259;
1084.2000;0.0879;4.4015;
1084.5000;0.0871;4.3868;
1084.8000;0.0863;4.3966;
1085.1000;0.0871;4.3990;
1085.4000;0.0895;4.4088;
1085.7000;0.0847;4.3917;
1086.0000;0.0863;4.3868;
1086.3000;0.0879;4.3917;
1086.6000;0.0838;4.3770;
1086.9000;0.0912;4.4015;
1087.2000;0.0904;4.3966;
1087.5000;0.0879;4.3868;
1087.8000;0.0863;4.3770;
1088.1000;0.0879;4.3843;
1088.4000;0.0887;4.3892;
1088.7000;0.0895;4.3917;
1089.0000;0.0871;4.3868;
1089.3000;0.0879;4.3843;
1089.6000;0.0871;4.3819;
1089.9000;0.0895;4.3892;
1090.2000;0.0879;4.3843;
1090.5000;0.0879;4.3819;
1090.8000;0.0871;4.3917;
1091.1000;0.0847;4.3770;
1091.4000;0.0814;4.3672;
1091.7000;0.0855;4.3843;
1092.0000;0.0806;4.3795;
1092.3000;0.0952;4.4137;
1092.6000;0.0895;4.4039;
1092.9000;0.0887;4.3990;
1093.2000;0.0855;4.3990;
1093.5000;0.0847;4.4039;
1093.8000;0.0855;4.4039;
1094.1000;0.0855;4.3966;
1094.4000;0.0855;4.3990;
1094.7000;0.0863;4.4039;
1095.0000;0.0879;4.4112;
1095.3000;0.0871;4.4112;
1095.6000;0.0887;4.4112;
1095.9000;0.0871;4.3990;
1096.2000;0.0847;4.4064;
1096.5000;0.0855;4.4137;
1096.8000;0.0830;4.4015;
1097.1000;0.0863;4.4137;
1097.4000;0.0863;4.4112;
1097.7000;0.0855;4.4137;
1098.0000;0.0847;4.4015;
1098.3000;0.0863;4.4064;
1098.6000;0.0871;4.4137;
1098.9000;0.0863;4.4015;
1099.2000;0.0879;4.3966;
1099.5000;0.0904;4.3990;
1099.8000;0.0798;4.3843;
1100.1000;0.0863;4.3966;
1100.4000;0.0887;4.4064;
1100.7000;0.0952;4.4259;
1101.0000;0.0904;4.4039;
1101.3000;0.0871;4.3966;
1101.6000;0.0871;4.4039;
1101.9000;0.0863;4.4064;
1102.2000;0.0871;4.4137;
1102.5000;0.0798;4.3892;
1102.8000;0.0887;4.4112;
1103.1000;0.0773;4.3795;
1103.4000;0.0904;4.4064;
1103.7000;0.0798;4.3746;
1104.0000;0.0895;4.3941;
1104.3000;0.0741;4.3550;
1104.6000;0.0871;4.3941;
1104.9000;0.0855;4.3917;
1105.2000;0.0855;4.3917;
1105.5000;0.0863;4.3941;
1105.8000;0.1018;4.4479;
1106.1000;0.0961;4.4381;
1106.4000;0.0863;4.4039;
1106.7000;0.0847;4.3941;
1107.0000;0.0855;4.3990;
1107.3000;0.0879;4.4088;
1107.6000;0.0847;4.3966;
1107.9000;0.0871;4.4064;
1108.2000;0.0879;4.4064;
1108.5000;0.0855;4.3917;
1108.8000;0.0863;4.3917;
1109.1000;0.0798;4.3770;
1109.4000;0.0871;4.3966;
1109.7000;0.0871;4.4015;
1110.0000;0.0871;4.4039;
1110.3000;0.0838;4.4088;
1110.6000;0.0838;4.4088;
1110.9000;0.0879;4.4161;
1111.2000;0.0879;4.4161;
1111.5000;0.0871;4.4039;
1111.8000;0.0895;4.4137;
1112.1000;0.0895;4.4112;
1112.4000;0.0879;4.4064;
1112.7000;0.0887;4.4137;
1113.0000;0.0871;4.4088;
1113.3000;0.0944;4.4284;
1113.6000;0.0830;4.4088;
1113.9000;0.0887;4.4161;
1114.2000;0.0871;4.4161;
1114.5000;0.0871;4.4064;
1114.8000;0.0830;4.3917;
1115.1000;0.0863;4.3966;
1115.4000;0.0895;4.3966;
1115.7000;0.0847;4.3770;
1116.0000;0.0830;4.3819;
1116.3000;0.0773;4.3795;
1116.6000;0.0855;4.4039;
1116.9000;0.0904;4.4112;
1117.2000;0.0863;4.3990;
1117.5000;0.0838;4.3819;
1117.8000;0.0879;4.3990;
1118.1000;0.0887;4.4015;
1118.4000;0.0879;4.4064;
1118.7000;0.0879;4.4088;
1119.0000;0.0863;4.4015;
1119.3000;0.0879;4.3990;
1119.6000;0.0855;4.3868;
1119.9000;0.0895;4.3941;
1120.2000;0.0871;4.3966;
1120.5000;0.0838;4.3843;
1120.8000;0.0822;4.3770;
1121.1000;0.0863;4.3917;
1121.4000;0.0855;4.3966;
1121.7000;0.0863;4.3892;
1122.0000;0.0904;4.3941;
1122.3000;0.0879;4.3892;
1122.6000;0.0847;4.3843;
1122.9000;0.0863;4.3795;
1123.2000;0.0871;4.3843;
1123.5000;0.0871;4.3819;
1123.8000;0.0879;4.3868;
1124.1000;0.0871;4.3843;
1124.4000;0.0879;4.3892;
1124.7000;0.0871;4.3868;
1125.0000;0.0855;4.3795;
1125.3000;0.0855;4.3770;
1125.6000;0.0879;4.3795;
1125.9000;0.0798;4.3648;
1126.2000;0.0879;4.3770;
1126.5000;0.0920;4.3892;
1126.8000;0.0798;4.3501;
1127.1000;0.0871;4.3843;
1127.4000;0.0879;4.3868;
1127.7000;0.0871;4.3843;
1128.0000;0.0863;4.3819;
1128.3000;0.0895;4.3843;
1128.6000;0.0871;4.3795;
1128.9000;0.0855;4.3648;
1129.2000;0.0871;4.3746;
1129.5000;0.0863;4.3746;
1129.8000;0.0879;4.3892;
1130.1000;0.0806;4.3697;
1130.4000;0.0863;4.3868;
1130.7000;0.0879;4.3892;
1131.0000;0.0879;4.3917;
1131.3000;0.0855;4.3917;
1131.6000;0.0895;4.4039;
1131.9000;0.0863;4.4039;
1132.2000;0.0863;4.4015;
1132.5000;0.0887;4.4039;
1132.8000;0.0855;4.3892;
1133.1000;0.0895;4.3941;
1133.4000;0.0871;4.3917;
1133.7000;0.0879;4.3892;
1134.0000;0.0814;4.3868;
1134.3000;0.0863;4.3868;
1134.6000;0.0887;4.3990;
1134.9000;0.0887;4.3941;
1135.2000;0.0895;4.3892;
1135.5000;0.0798;4.3672;
1135.8000;0.0904;4.3941;
1136.1000;0.0879;4.3892;
1136.4000;0.0920;4.4039;
1136.7000;0.0814;4.3795;
1137.0000;0.0879;4.4015;
1137.3000;0.0887;4.3966;
1137.6000;0.0716;4.3550;
1137.9000;0.0847;4.3843;
1138.2000;0.0847;4.3917;
1138.5000;0.0879;4.4064;
1138.8000;0.0871;4.4039;
1139.1000;0.0863;4.3966;
1139.4000;0.0879;4.3966;
1139.7000;0.0847;4.3843;
1140.0000;0.0863;4.3868;
1140.3000;0.0847;4.3843;
1140.6000;0.0887;4.3941;
1140.9000;0.0895;4.3941;
1141.2000;0.0920;4.3990;
1141.5000;0.0855;4.3966;
1141.8000;0.0887;4.4015;
1142.1000;0.0871;4.3966;
1142.4000;0.0716;4.3452;
1142.7000;0.0855;4.3819;
1143.0000;0.0863;4.3843;
1143.3000;0.0847;4.3746;
1143.6000;0.0838;4.3721;
1143.9000;0.0847;4.3721;
1144.2000;0.0871;4.3868;
1144.5000;0.0871;4.3746;
1144.8000;0.0887;4.3819;
1145.1000;0.0887;4.3843;
1145.4000;0.0830;4.3721;
1145.7000;0.0830;4.3672;
1146.0000;0.0863;4.3795;
1146.3000;0.0847;4.3819;
1146.6000;0.0830;4.3843;
1146.9000;0.0822;4.3721;
1147.2000;0.0855;4.3697;
1147.5000;0.0863;4.3648;
1147.8000;0.0879;4.3672;
1148.1000;0.0863;4.3721;
1148.4000;0.0887;4.3770;
1148.7000;0.0830;4.3648;
1149.0000;0.0863;4.3746;
1149.3000;0.0879;4.3697;
1149.6000;0.0863;4.3819;
1149.9000;0.0904;4.3990;
1150.2000;0.0838;4.3795;
1150.5000;0.0863;4.3843;
1150.8000;0.0871;4.3843;
1151.1000;0.0871;4.3941;
1151.4000;0.0863;4.3917;
1151.7000;0.0855;4.3892;
1152.0000;0.0863;4.3941;
1152.3000;0.0855;4.3966;
1152.6000;0.0895;4.4015;
1152.9000;0.0904;4.4039;
1153.2000;0.0830;4.3868;
1153.5000;0.0863;4.3966;
1153.8000;0.0765;4.3648;
1154.1000;0.0912;4.4088;
1154.4000;0.0871;4.3868;
1154.7000;0.0895;4.3917;
1155.0000;0.0790;4.3574;
1155.3000;0.0879;4.3892;
1155.6000;0.0855;4.3819;
1155.9000;0.0863;4.3990;
1156.2000;0.0798;4.3843;
1156.5000;0.0936;4.4137;
1156.8000;0.0822;4.3697;
1157.1000;0.0863;4.3843;
1157.4000;0.0871;4.3843;
1157.7000;0.0806;4.3623;
1158.0000;0.0716;4.3330;
1158.3000;0.0879;4.3795;
1158.6000;0.0952;4.4088;
1158.9000;0.0871;4.3868;
1159.2000;0.0904;4.3966;
1159.5000;0.0855;4.3966;
1159.8000;0.0847;4.4064;
1160.1000;0.0855;4.3966;
1160.4000;0.0863;4.4039;
1160.7000;0.0830;4.4015;
1161.0000;0.0855;4.4064;
1161.3000;0.0806;4.3917;
1161.6000;0.0904;4.4186;
1161.9000;0.0830;4.3917;
1162.2000;0.0773;4.3770;
1162.5000;0.0887;4.3990;
1162.8000;0.0855;4.3941;
1163.1000;0.0871;4.3966;
1163.4000;0.0863;4.4015;
1163.7000;0.0855;4.4015;
1164.0000;0.0887;4.4112;
1164.3000;0.0936;4.4161;
1164.6000;0.0863;4.3941;
1164.9000;0.0879;4.4039;
1165.2000;0.0863;4.4039;
1165.5000;0.0838;4.3917;
1165.8000;0.0863;4.3966;
1166.1000;0.0871;4.3941;
1166.4000;0.0977;4.4235;
1166.7000;0.0887;4.3892;
1167.0000;0.0871;4.3917;
1167.3000;0.0847;4.3868;
1167.6000;0.0847;4.3819;
1167.9000;0.0863;4.3819;
1168.2000;0.0847;4.3843;
1168.5000;0.0855;4.3795;
1168.8000;0.0830;4.3770;
1169.1000;0.0838;4.3746;
1169.4000;0.0806;4.3721;
1169.7000;0.0855;4.3917;
1170.0000;0.0895;4.4039;
1170.3000;0.0871;4.3990;
1170.6000;0.0928;4.4137;
1170.9000;0.0847;4.4039;
1171.2000;0.0773;4.3746;
1171.5000;0.0879;4.4088;
1171.8000;0.0838;4.4064;
1172.1000;0.0847;4.4064;
1172.4000;0.0855;4.4064;
1172.7000;0.0904;4.4112;
1173.0000;0.0830;4.3941;
1173.3000;0.0871;4.3990;
1173.6000;0.0871;4.4064;
1173.9000;0.0863;4.4064;
1174.2000;0.0912;4.4088;
1174.5000;0.0879;4.4015;
1174.8000;0.0871;4.3990;
1175.1000;0.0838;4.3868;
1175.4000;0.0847;4.3843;
1175.7000;0.0871;4.3892;
1176.0000;0.0855;4.3795;
1176.3000;0.0879;4.3819;
1176.6000;0.0887;4.3868;
1176.9000;0.0871;4.3892;
1177.2000;0.0871;4.3917;
1177.5000;0.0798;4.3697;
1177.8000;0.0838;4.3795;
1178.1000;0.0781;4.3697;
1178.4000;0.0879;4.4064;
1178.7000;0.0847;4.3941;
1179.0000;0.0871;4.4015;
1179.3000;0.0855;4.4039;
1179.6000;0.0928;4.4235;
1179.9000;0.0863;4.4015;
1180.2000;0.0887;4.4088;
1180.5000;0.0847;4.3795;
1180.8000;0.0863;4.3843;
1181.1000;0.0887;4.3966;
1181.4000;0.0838;4.3917;
1181.7000;0.0863;4.4088;
1182.0000;0.0928;4.4161;
1182.3000;0.0863;4.3966;
1182.6000;0.0781;4.3770;
1182.9000;0.0863;4.4015;
1183.2000;0.0871;4.3990;
1183.5000;0.0871;4.3990;
1183.8000;0.0887;4.4112;
1184.1000;0.0879;4.4088;
1184.4000;0.0936;4.4235;
1184.7000;0.0887;4.4112;
1185.0000;0.0879;4.4039;
1185.3000;0.0879;4.3941;
1185.6000;0.0879;4.3966;
1185.9000;0.0871;4.3941;
1186.2000;0.0863;4.3941;
1186.5000;0.0887;4.3941;
1186.8000;0.0887;4.3966;
1187.1000;0.0879;4.3941;
1187.4000;0.0904;4.3990;
1187.7000;0.0879;4.4015;
1188.0000;0.0871;4.4039;
1188.3000;0.0847;4.4015;
1188.6000;0.0879;4.4039;
1188.9000;0.0879;4.3966;
1189.2000;0.0887;4.4015;
1189.5000;0.0855;4.3966;
1189.8000;0.0904;4.4039;
1190.1000;0.0887;4.4088;
1190.4000;0.0879;4.3966;
1190.7000;0.0912;4.3990;
1191.0000;0.0879;4.3990;
1191.3000;0.0863;4.3941;
1191.6000;0.0871;4.4015;
1191.9000;0.0863;4.4015;
1192.2000;0.0855;4.3990;
1192.5000;0.0879;4.4088;
1192.8000;0.0847;4.4015;
1193.1000;0.0887;4.4186;
1193.4000;0.0855;4.4210;
1193.7000;0.0863;4.4161;
1194.0000;0.0855;4.4161;
1194.3000;0.0895;4.4308;
1194.6000;0.0879;4.4210;
1194.9000;0.0871;4.4112;
1195.2000;0.0863;4.3941;
1195.5000;0.0855;4.3868;
1195.8000;0.0895;4.4088;
1196.1000;0.0863;4.3990;
1196.4000;0.0814;4.3819;
1196.7000;0.0887;4.3941;
1197.0000;0.0895;4.3892;
1197.3000;0.0863;4.3892;
1197.6000;0.0863;4.3917;
1197.9000;0.0855;4.3941;
1198.2000;0.0822;4.3868;
1198.5000;0.0871;4.4015;
1198.8000;0.0863;4.3990;
1199.1000;0.0904;4.4137;
1199.4000;0.0863;4.4064;
1199.7000;0.0887;4.4137;
1200.0000;0.0879;4.3990;
1200.3000;0.0879;4.3941;
1200.6000;0.0863;4.3941;
1200.9000;0.0912;4.4064;
1201.2000;0.0847;4.3941;
1201.5000;0.0863;4.3917;
1201.8000;0.0863;4.3990;
1202.1000;0.0863;4.3966;
1202.4000;0.0879;4.4015;
1202.7000;0.0863;4.3892;
1203.0000;0.0871;4.3868;
1203.3000;0.0855;4.3917;
1203.6000;0.0871;4.3917;
1203.9000;0.0863;4.3819;
1204.2000;0.0863;4.3843;
1204.5000;0.0847;4.3892;
1204.8000;0.0847;4.3941;
1205.1000;0.0887;4.4015;
1205.4000;0.0887;4.3990;
1205.7000;0.0879;4.4088;
1206.0000;0.0879;4.4112;
1206.3000;0.0863;4.4015;
1206.6000;0.0830;4.3917;
1206.9000;0.0871;4.3941;
1207.2000;0.0822;4.3819;
1207.5000;0.0855;4.3966;
1207.8000;0.0863;4.3941;
1208.1000;0.0830;4.3990;
1208.4000;0.0830;4.4088;
1208.7000;0.0952;4.4333;
1209.0000;0.0863;4.4137;
1209.3000;0.0855;4.4161;
1209.6000;0.0904;4.4259;
1209.9000;0.0879;4.4112;
1210.2000;0.0863;4.4112;
1210.5000;0.0871;4.4235;
1210.8000;0.0838;4.4186;
1211.1000;0.0863;4.4308;
1211.4000;0.0920;4.4504;
1211.7000;0.0863;4.4357;
1212.0000;0.0887;4.4430;
1212.3000;0.0863;4.4235;
1212.6000;0.0830;4.4137;
1212.9000;0.0863;4.4137;
1213.2000;0.0822;4.4064;
1213.5000;0.0871;4.4112;
1213.8000;0.0863;4.4161;
1214.1000;0.0879;4.4308;
1214.4000;0.0863;4.4259;
1214.7000;0.0895;4.4381;
1215.0000;0.0847;4.4186;
1215.3000;0.0879;4.4235;
1215.6000;0.0879;4.4284;
1215.9000;0.1034;4.4675;
1216.2000;0.0871;4.4235;
1216.5000;0.0912;4.4235;
1216.8000;0.0871;4.4088;
1217.1000;0.0863;4.4015;
1217.4000;0.0847;4.4015;
1217.7000;0.0871;4.4088;
1218.0000;0.0863;4.4112;
1218.3000;0.0838;4.4039;
1218.6000;0.0920;4.4235;
1218.9000;0.0871;4.4186;
1219.2000;0.0879;4.4112;
1219.5000;0.0871;4.4186;
1219.8000;0.0798;4.3917;
1220.1000;0.0871;4.4112;
1220.4000;0.1001;4.4504;
1220.7000;0.0879;4.4161;
1221.0000;0.0879;4.4235;
1221.3000;0.0830;4.4137;
1221.6000;0.0847;4.4161;
1221.9000;0.0814;4.4015;
1222.2000;0.0944;4.4406;
1222.5000;0.0863;4.4137;
1222.8000;0.0879;4.4161;
1223.1000;0.0847;4.4039;
1223.4000;0.0879;4.4064;
1223.7000;0.0863;4.3990;
1224.0000;0.0773;4.3623;
1224.3000;0.0855;4.3795;
1224.6000;0.0871;4.3746;
1224.9000;0.0887;4.3746;
1225.2000;0.0855;4.3697;
1225.5000;0.0863;4.3746;
1225.8000;0.0879;4.3892;
1226.1000;0.0871;4.3941;
1226.4000;0.0863;4.3966;
1226.7000;0.0838;4.3917;
1227.0000;0.0871;4.3990;
1227.3000;0.0855;4.3917;
1227.6000;0.0871;4.3990;
1227.9000;0.0847;4.3843;
1228.2000;0.0855;4.3843;
1228.5000;0.0887;4.3990;
1228.8000;0.0855;4.3941;
1229.1000;0.0863;4.3966;
1229.4000;0.0855;4.3966;
1229.7000;0.0871;4.4015;
1230.0000;0.0863;4.3990;
1230.3000;0.0855;4.4039;
1230.6000;0.0863;4.4064;
1230.9000;0.0830;4.4015;
1231.2000;0.0822;4.3990;
1231.5000;0.0847;4.4039;
1231.8000;0.0863;4.4064;
1232.1000;0.0863;4.4112;
1232.4000;0.0847;4.4088;
1232.7000;0.0863;4.4088;
1233.0000;0.0863;4.4137;
1233.3000;0.0904;4.4210;
1233.6000;0.0741;4.3721;
1233.9000;0.0871;4.4112;
1234.2000;0.0863;4.4015;
1234.5000;0.0798;4.3843;
1234.8000;0.0952;4.4308;
1235.1000;0.0871;4.4112;
1235.4000;0.0855;4.4088;
1235.7000;0.0855;4.4039;
1236.0000;0.0871;4.4112;
1236.3000;0.0847;4.4064;
1236.6000;0.0871;4.4161;
1236.9000;0.0904;4.4186;
1237.2000;0.0855;4.4088;
1237.5000;0.0879;4.4039;
1237.8000;0.0879;4.4064;
1238.1000;0.0855;4.4039;
1238.4000;0.0879;4.4064;
1238.7000;0.0879;4.4088;
1239.0000;0.0863;4.4064;
1239.3000;0.0855;4.3990;
1239.6000;0.0830;4.3917;
1239.9000;0.0887;4.3990;
1240.2000;0.0830;4.3892;
1240.5000;0.0863;4.4015;
1240.8000;0.0847;4.3917;
1241.1000;0.0855;4.3892;
1241.4000;0.0838;4.3917;
1241.7000;0.0863;4.4015;
1242.0000;0.0855;4.3990;
1242.3000;0.0822;4.3917;
1242.6000;0.0936;4.4235;
1242.9000;0.0773;4.3746;
1243.2000;0.0928;4.4064;
1243.5000;0.0847;4.3819;
1243.8000;0.0969;4.4284;
1244.1000;0.0847;4.3892;
1244.4000;0.0871;4.3892;
1244.7000;0.0847;4.3843;
1245.0000;0.0879;4.3966;
1245.3000;0.0871;4.3941;
1245.6000;0.0790;4.3746;
1245.9000;0.0920;4.4064;
1246.2000;0.0855;4.3990;
1246.5000;0.0855;4.3990;
1246.8000;0.0838;4.4015;
1247.1000;0.0920;4.4210;
1247.4000;0.0879;4.4088;
1247.7000;0.0871;4.3990;
1248.0000;0.0863;4.3917;
1248.3000;0.0887;4.3892;
1248.6000;0.0855;4.3819;
1248.9000;0.0830;4.3721;
1249.2000;0.0887;4.3819;
1249.5000;0.0887;4.3795;
1249.8000;0.0871;4.3721;
1250.1000;0.0879;4.3721;
1250.4000;0.0847;4.3623;
1250.7000;0.0912;4.3770;
1251.0000;0.0895;4.3697;
1251.3000;0.0863;4.3697;
1251.6000;0.0855;4.3672;
1251.9000;0.0838;4.3623;
1252.2000;0.0863;4.3746;
1252.5000;0.0977;4.4137;
1252.8000;0.0855;4.3941;
1253.1000;0.0847;4.3868;
1253.4000;0.0863;4.3990;
1253.7000;0.0879;4.3966;
1254.0000;0.0822;4.3868;
1254.3000;0.0855;4.3941;
1254.6000;0.0879;4.3990;
1254.9000;0.0936;4.4112;
1255.2000;0.0879;4.3917;
1255.5000;0.0863;4.3966;
1255.8000;0.0879;4.4064;
1256.1000;0.0871;4.3990;
1256.4000;0.0806;4.3795;
1256.7000;0.0871;4.4064;
1257.0000;0.0871;4.4064;
1257.3000;0.0871;4.4015;
1257.6000;0.0855;4.3941;
1257.9000;0.0871;4.3990;
1258.2000;0.0863;4.3892;
1258.5000;0.0863;4.3941;
1258.8000;0.0871;4.3966;
1259.1000;0.0871;4.4039;
1259.4000;0.0838;4.3892;
1259.7000;0.0895;4.3917;
1260.0000;0.0887;4.3941;
1260.3000;0.0863;4.3843;
1260.6000;0.0871;4.3819;
1260.9000;0.0887;4.3819;
1261.2000;0.0822;4.3648;
1261.5000;0.0879;4.3843;
1261.8000;0.0871;4.3941;
1262.1000;0.0855;4.3917;
1262.4000;0.0887;4.3990;
1262.7000;0.0847;4.3917;
1263.0000;0.0871;4.3966;
1263.3000;0.0879;4.3868;
1263.6000;0.0904;4.3892;
1263.9000;0.0847;4.3917;
1264.2000;0.0855;4.3843;
1264.5000;0.0830;4.3892;
1264.8000;0.0920;4.4210;
1265.1000;0.0879;4.4015;
1265.4000;0.0879;4.3966;
1265.7000;0.0855;4.3917;
1266.0000;0.0871;4.4015;
1266.3000;0.0887;4.4137;
1266.6000;0.0798;4.3819;
1266.9000;0.0814;4.3868;
1267.2000;0.0920;4.4088;
1267.5000;0.0830;4.3868;
1267.8000;0.0879;4.4039;
1268.1000;0.0879;4.3990;
1268.4000;0.0863;4.4015;
1268.7000;0.0863;4.4039;
1269.0000;0.0887;4.4064;
1269.3000;0.0887;4.4137;
1269.6000;0.0790;4.3819;
1269.9000;0.0855;4.4039;
1270.2000;0.0944;4.4186;
1270.5000;0.0887;4.4015;
1270.8000;0.0871;4.4015;
1271.1000;0.0847;4.3990;
1271.4000;0.0895;4.4235;
1271.7000;0.0879;4.4235;
1272.0000;0.0879;4.4161;
1272.3000;0.0879;4.4088;
1272.6000;0.0798;4.3843;
1272.9000;0.0879;4.4064;
1273.2000;0.0904;4.4088;
1273.5000;0.0806;4.3819;
1273.8000;0.0855;4.3892;
1274.1000;0.0895;4.4039;
1274.4000;0.0887;4.3966;
1274.7000;0.0887;4.3966;
1275.0000;0.0847;4.3843;
1275.3000;0.0871;4.3917;
1275.6000;0.0969;4.4137;
1275.9000;0.0879;4.3917;
1276.2000;0.0920;4.4088;
1276.5000;0.0887;4.4064;
1276.8000;0.0863;4.3990;
1277.1000;0.0871;4.4039;
1277.4000;0.0871;4.4088;
1277.7000;0.0863;4.3966;
1278.0000;0.0863;4.3941;
1278.3000;0.0879;4.3966;
1278.6000;0.0887;4.4064;
1278.9000;0.0895;4.4210;
1279.2000;0.0952;4.4284;
1279.5000;0.0855;4.3990;
1279.8000;0.0855;4.3966;
1280.1000;0.0855;4.3941;
1280.4000;0.0871;4.4039;
1280.7000;0.0879;4.4015;
1281.0000;0.0863;4.4088;
1281.3000;0.0838;4.4088;
1281.6000;0.0855;4.4088;
1281.9000;0.0871;4.4137;
1282.2000;0.0863;4.4064;
1282.5000;0.0863;4.4112;
1282.8000;0.0895;4.4137;
1283.1000;0.0871;4.4088;
1283.4000;0.0879;4.4112;
1283.7000;0.0895;4.4186;
1284.0000;0.0887;4.4064;
1284.3000;0.0871;4.4112;
1284.6000;0.0879;4.4112;
1284.9000;0.0871;4.4112;
1285.2000;0.0838;4.4064;
1285.5000;0.0741;4.3746;
1285.8000;0.0847;4.3892;
1286.1000;0.0879;4.3843;
1286.4000;0.0847;4.3819;
1286.7000;0.0895;4.3966;
1287.0000;0.0879;4.3941;
1287.3000;0.0838;4.3868;
1287.6000;0.0969;4.4235;
1287.9000;0.0879;4.4039;
1288.2000;0.0928;4.4137;
1288.5000;0.0895;4.4064;
1288.8000;0.0895;4.4064;
1289.1000;0.0838;4.3819;
1289.4000;0.0879;4.3966;
1289.7000;0.0928;4.4088;
1290.0000;0.0863;4.3868;
1290.3000;0.0969;4.4161;
1290.6000;0.0985;4.4259;
1290.9000;0.0863;4.3990;
1291.2000;0.0879;4.4039;
1291.5000;0.0871;4.4015;
1291.8000;0.0879;4.3990;
1292.1000;0.0847;4.3819;
1292.4000;0.0871;4.3941;
1292.7000;0.0855;4.3917;
1293.0000;0.0871;4.3941;
1293.3000;0.0822;4.3770;
1293.6000;0.0936;4.4039;
1293.9000;0.0847;4.3843;
1294.2000;0.0871;4.3966;
1294.5000;0.0879;4.3966;
1294.8000;0.0863;4.3868;
1295.1000;0.0855;4.3892;
1295.4000;0.0847;4.3770;
1295.7000;0.0863;4.3770;
1296.0000;0.0855;4.3795;
1296.3000;0.0879;4.3868;
1296.6000;0.0879;4.3795;
1296.9000;0.0847;4.3795;
1297.2000;0.0944;4.4015;
1297.5000;0.0879;4.3819;
1297.8000;0.0724;4.3354;
1298.1000;0.0863;4.3672;
1298.4000;0.0871;4.3770;
1298.7000;0.0887;4.3770;
1299.0000;0.0863;4.3746;
1299.3000;0.0790;4.3623;
1299.6000;0.0838;4.3721;
1299.9000;0.0838;4.3697;
1300.2000;0.0887;4.3746;
1300.5000;0.0847;4.3672;
1300.8000;0.0887;4.3770;
1301.1000;0.0838;4.3672;
1301.4000;0.0871;4.3770;
1301.7000;0.0871;4.3795;
1302.0000;0.0847;4.3770;
1302.3000;0.0855;4.3843;
1302.6000;0.0855;4.3868;
1302.9000;0.0830;4.3819;
1303.2000;0.0863;4.3868;
1303.5000;0.0887;4.3941;
1303.8000;0.0871;4.3966;
1304.1000;0.0855;4.3917;
1304.4000;0.0952;4.4161;
1304.7000;0.0895;4.3966;
1305.0000;0.0887;4.3966;
1305.3000;0.0879;4.3941;
1305.6000;0.0871;4.3868;
1305.9000;0.0847;4.3819;
1306.2000;0.0855;4.3843;
1306.5000;0.0895;4.3966;
1306.8000;0.0863;4.3795;
1307.1000;0.0871;4.3770;
1307.4000;0.0863;4.3770;
1307.7000;0.0830;4.3697;
1308.0000;0.0822;4.3648;
1308.3000;0.0863;4.3819;
1308.6000;0.0871;4.3868;
1308.9000;0.0961;4.4186;
1309.2000;0.0887;4.3941;
1309.5000;0.0904;4.4039;
1309.8000;0.0887;4.3990;
1310.1000;0.0879;4.3966;
1310.4000;0.0871;4.3917;
1310.7000;0.0871;4.3843;
1311.0000;0.0928;4.3917;
1311.3000;0.0847;4.3623;
1311.6000;0.0838;4.3526;
1311.9000;0.0863;4.3672;
1312.2000;0.0822;4.3697;
1312.5000;0.0838;4.3770;
1312.8000;0.0855;4.3795;
1313.1000;0.0920;4.4137;
1313.4000;0.0904;4.4088;
1313.7000;0.0847;4.3941;
1314.0000;0.0879;4.4112;
1314.3000;0.0863;4.3966;
1314.6000;0.0895;4.4088;
1314.9000;0.0863;4.3819;
1315.2000;0.0912;4.3966;
1315.5000;0.0863;4.3868;
1315.8000;0.0863;4.3917;
1316.1000;0.0879;4.3990;
1316.4000;0.0863;4.3941;
1316.7000;0.0814;4.3819;
1317.0000;0.0847;4.3868;
1317.3000;0.0895;4.3917;
1317.6000;0.0847;4.3819;
1317.9000;0.0863;4.3868;
1318.2000;0.0871;4.3892;
1318.5000;0.0855;4.3770;
1318.8000;0.0855;4.3795;
1319.1000;0.0879;4.3843;
1319.4000;0.0887;4.3941;
1319.7000;0.0871;4.3966;
1320.0000;0.0863;4.3990;
1320.3000;0.0871;4.4015;
1320.6000;0.0961;4.4259;
1320.9000;0.0863;4.3966;
1321.2000;0.0863;4.3966;
1321.5000;0.0871;4.3941;
1321.8000;0.0871;4.3868;
1322.1000;0.0863;4.3819;
1322.4000;0.0879;4.3819;
1322.7000;0.0838;4.3795;
1323.0000;0.0847;4.3868;
1323.3000;0.0765;4.3550;
1323.6000;0.0847;4.3770;
1323.9000;0.0863;4.3819;
1324.2000;0.0847;4.3770;
1324.5000;0.0830;4.3746;
1324.8000;0.0822;4.3770;
1325.1000;0.0838;4.3672;
1325.4000;0.0806;4.3599;
1325.7000;0.0863;4.3746;
1326.0000;0.0879;4.3770;
1326.3000;0.0887;4.3795;
1326.6000;0.0855;4.3648;
1326.9000;0.0838;4.3599;
1327.2000;0.0936;4.3819;
1327.5000;0.0847;4.3623;
1327.8000;0.0863;4.3746;
1328.1000;0.0847;4.3623;
1328.4000;0.0936;4.3892;
1328.7000;0.0806;4.3574;
1329.0000;0.0887;4.3819;
1329.3000;0.0879;4.3795;
1329.6000;0.0936;4.3990;
1329.9000;0.0676;4.3354;
1330.2000;0.0863;4.3843;
1330.5000;0.0944;4.3990;
1330.8000;0.0871;4.3819;
1331.1000;0.0855;4.3697;
1331.4000;0.0887;4.3599;
1331.7000;0.0855;4.3672;
1332.0000;0.0855;4.3721;
1332.3000;0.0855;4.3770;
1332.6000;0.0871;4.3770;
1332.9000;0.0806;4.3648;
1333.2000;0.0879;4.3795;
1333.5000;0.0855;4.3746;
1333.8000;0.0855;4.3746;
1334.1000;0.0895;4.3770;
1334.4000;0.0830;4.3574;
1334.7000;0.0871;4.3746;
1335.0000;0.0863;4.3697;
1335.3000;0.0830;4.3697;
1335.6000;0.0838;4.3746;
1335.9000;0.0871;4.3941;
1336.2000;0.0879;4.3966;
1336.5000;0.0879;4.3868;
1336.8000;0.0871;4.3868;
1337.1000;0.0838;4.3819;
1337.4000;0.0879;4.3819;
1337.7000;0.0871;4.3843;
1338.0000;0.0871;4.3941;
1338.3000;0.0887;4.4039;
1338.6000;0.0855;4.3990;
1338.9000;0.0879;4.4161;
1339.2000;0.0863;4.4064;
1339.5000;0.0887;4.4088;
1339.8000;0.0863;4.3966;
1340.1000;0.0879;4.3966;
1340.4000;0.0879;4.4015;
1340.7000;0.0855;4.3966;
1341.0000;0.0838;4.3917;
1341.3000;0.0863;4.4088;
1341.6000;0.0708;4.3746;
1341.9000;0.0863;4.4064;
1342.2000;0.0830;4.3917;
1342.5000;0.0830;4.3892;
1342.8000;0.0887;4.4064;
1343.1000;0.0863;4.4039;
1343.4000;0.0855;4.4015;
1343.7000;0.0879;4.4015;
1344.0000;0.0887;4.3941;
1344.3000;0.0855;4.3966;
1344.6000;0.0855;4.4039;
1344.9000;0.0863;4.3990;
1345.2000;0.0830;4.3917;
1345.5000;0.0879;4.3966;
1345.8000;0.0887;4.3941;
1346.1000;0.0765;4.3599;
1346.4000;0.0879;4.3843;
1346.7000;0.0895;4.3941;
1347.0000;0.0871;4.3892;
1347.3000;0.0724;4.3452;
1347.6000;0.0871;4.3795;
1347.9000;0.0855;4.3746;
1348.2000;0.0855;4.3795;
1348.5000;0.0871;4.3892;
1348.8000;0.0838;4.3843;
1349.1000;0.0863;4.3819;
1349.4000;0.0887;4.3892;
1349.7000;0.0863;4.3843;
1350.0000;0.0855;4.3843;
1350.3000;0.0904;4.3941;
1350.6000;0.0798;4.3672;
1350.9000;0.0855;4.3868;
1351.2000;0.0847;4.3917;
1351.5000;0.0936;4.4210;
1351.8000;0.0847;4.4015;
1352.1000;0.0879;4.4137;
1352.4000;0.0847;4.3966;
1352.7000;0.0855;4.3892;
1353.0000;0.0863;4.3990;
1353.3000;0.0863;4.3990;
1353.6000;0.0871;4.4015;
1353.9000;0.0879;4.4015;
1354.2000;0.0871;4.4015;
1354.5000;0.0887;4.4161;
1354.8000;0.0855;4.4064;
1355.1000;0.0863;4.4015;
1355.4000;0.0871;4.4088;
1355.7000;0.0879;4.4112;
1356.0000;0.0871;4.4039;
1356.3000;0.0895;4.4161;
1356.6000;0.0855;4.4064;
1356.9000;0.0863;4.4039;
1357.2000;0.0847;4.3966;
1357.5000;0.0871;4.3941;
1357.8000;0.0847;4.3843;
1358.1000;0.0863;4.3917;
1358.4000;0.0855;4.3892;
1358.7000;0.0863;4.3966;
1359.0000;0.0871;4.3892;
1359.3000;0.0847;4.3770;
1359.6000;0.0855;4.3795;
1359.9000;0.0863;4.3795;
1360.2000;0.0936;4.4088;
1360.5000;0.0863;4.3917;
1360.8000;0.0895;4.3990;
1361.1000;0.0871;4.4015;
1361.4000;0.0895;4.3990;
1361.7000;0.0847;4.3746;
1362.0000;0.0863;4.3843;
1362.3000;0.0855;4.3770;
1362.6000;0.0838;4.3623;
1362.9000;0.0871;4.3721;
1363.2000;0.0871;4.3770;
1363.5000;0.0879;4.3795;
1363.8000;0.0879;4.3843;
1364.1000;0.0847;4.3795;
1364.4000;0.0879;4.3868;
1364.7000;0.0969;4.4161;
1365.0000;0.0871;4.3917;
1365.3000;0.0871;4.3892;
1365.6000;0.0863;4.3917;
1365.9000;0.0847;4.3843;
1366.2000;0.0871;4.3868;
1366.5000;0.0847;4.3868;
1366.8000;0.0871;4.3990;
1367.1000;0.0879;4.4015;
1367.4000;0.0895;4.4088;
1367.7000;0.0904;4.4088;
1368.0000;0.0904;4.4064;
1368.3000;0.0895;4.4015;
1368.6000;0.0863;4.3990;
1368.9000;0.0871;4.3917;
1369.2000;0.0879;4.3819;
1369.5000;0.0847;4.3770;
1369.8000;0.0814;4.3721;
1370.1000;0.0895;4.3868;
1370.4000;0.0879;4.3721;
1370.7000;0.0863;4.3746;
1371.0000;0.0928;4.4015;
1371.3000;0.0904;4.3966;
1371.6000;0.0847;4.3746;
1371.9000;0.0871;4.3819;
1372.2000;0.0879;4.3868;
1372.5000;0.0838;4.3746;
1372.8000;0.0879;4.3819;
1373.1000;0.0855;4.3721;
1373.4000;0.0863;4.3721;
1373.7000;0.0855;4.3721;
1374.0000;0.0838;4.3574;
1374.3000;0.0871;4.3795;
1374.6000;0.0871;4.3843;
1374.9000;0.0879;4.3868;
1375.2000;0.0871;4.3795;
1375.5000;0.0871;4.3819;
1375.8000;0.0944;4.4112;
1376.1000;0.0871;4.3966;
1376.4000;0.0863;4.4015;
1376.7000;0.0871;4.4015;
1377.0000;0.0871;4.4015;
1377.3000;0.0830;4.3966;
1377.6000;0.0855;4.4112;
1377.9000;0.0879;4.4210;
1378.2000;0.0863;4.4186;
1378.5000;0.0863;4.4186;
1378.8000;0.0879;4.4161;
1379.1000;0.0838;4.4112;
1379.4000;0.0863;4.4210;
1379.7000;0.0879;4.4284;
1380.0000;0.0871;4.4186;
1380.3000;0.0863;4.4137;
1380.6000;0.0847;4.4137;
1380.9000;0.0855;4.4210;
1381.2000;0.0887;4.4259;
1381.5000;0.0822;4.4235;
1381.8000;0.0879;4.4308;
1382.1000;0.0879;4.4284;
1382.4000;0.0904;4.4430;
1382.7000;0.0863;4.4259;
1383.0000;0.0847;4.4186;
1383.3000;0.0863;4.4259;
1383.6000;0.0847;4.4308;
1383.9000;0.0814;4.4112;
1384.2000;0.0724;4.3819;
1384.5000;0.0871;4.4259;
1384.8000;0.0863;4.4186;
1385.1000;0.0871;4.4161;
1385.4000;0.0863;4.4137;
1385.7000;0.0863;4.4186;
1386.0000;0.0895;4.4235;
1386.3000;0.0879;4.4259;
1386.6000;0.0863;4.4210;
1386.9000;0.0838;4.4186;
1387.2000;0.0855;4.4259;
1387.5000;0.0895;4.4333;
1387.8000;0.0855;4.4235;
1388.1000;0.0863;4.4186;
1388.4000;0.0830;4.4064;
1388.7000;0.0863;4.4088;
1389.0000;0.0912;4.4186;
1389.3000;0.0838;4.4064;
1389.6000;0.0904;4.4284;
1389.9000;0.0879;4.4112;
1390.2000;0.0838;4.4039;
1390.5000;0.0879;4.4186;
1390.8000;0.0822;4.4088;
1391.1000;0.0912;4.4284;
1391.4000;0.0887;4.4161;
1391.7000;0.0822;4.4088;
1392.0000;0.0855;4.4284;
1392.3000;0.0871;4.4333;
1392.6000;0.0863;4.4333;
1392.9000;0.0790;4.4064;
1393.2000;0.0887;4.4333;
1393.5000;0.0871;4.4210;
1393.8000;0.0863;4.4186;
1394.1000;0.0863;4.4137;
1394.4000;0.0847;4.4137;
1394.7000;0.0847;4.4161;
1395.0000;0.0879;4.4112;
1395.3000;0.0855;4.4137;
1395.6000;0.0904;4.4284;
1395.9000;0.0863;4.4137;
1396.2000;0.0871;4.4259;
1396.5000;0.0863;4.4210;
1396.8000;0.0838;4.4137;
1397.1000;0.0855;4.4088;
1397.4000;0.0838;4.4064;
1397.7000;0.0863;4.4088;
1398.0000;0.0879;4.4064;
1398.3000;0.0855;4.4015;
1398.6000;0.0855;4.3990;
1398.9000;0.0863;4.4015;
1399.2000;0.0895;4.4112;
1399.5000;0.0879;4.3990;
1399.8000;0.0871;4.3966;
