time/ms;Fluo/V;P700 deltaI/I x10³;
-199.8000;0.4469;1.0163;
-199.5000;0.4461;1.0094;
-199.2000;0.4428;0.9977;
-198.9000;0.4493;1.0024;
-198.6000;0.4444;0.9954;
-198.3000;0.4453;1.0024;
-198.0000;0.4453;1.0000;
-197.7000;0.4469;1.0024;
-197.4000;0.4436;1.0117;
-197.1000;0.4453;1.0257;
-196.8000;0.4444;1.0257;
-196.5000;0.4453;1.0233;
-196.2000;0.4444;1.0280;
-195.9000;0.4542;1.0443;
-195.6000;0.4469;1.0257;
-195.3000;0.4469;1.0187;
-195.0000;0.4477;1.0303;
-194.7000;0.4461;1.0257;
-194.4000;0.4461;1.0257;
-194.1000;0.4477;1.0280;
-193.8000;0.4444;1.0280;
-193.5000;0.4453;1.0163;
-193.2000;0.4453;1.0187;
-192.9000;0.4493;1.0327;
-192.6000;0.4444;1.0233;
-192.3000;0.4501;1.0350;
-192.0000;0.4453;1.0280;
-191.7000;0.4469;1.0327;
-191.4000;0.4493;1.0397;
-191.1000;0.4469;1.0373;
-190.8000;0.4469;1.0350;
-190.5000;0.4461;1.0443;
-190.2000;0.4469;1.0327;
-189.9000;0.4444;1.0210;
-189.6000;0.4477;1.0163;
-189.3000;0.4477;1.0117;
-189.0000;0.4469;1.0094;
-188.7000;0.4469;1.0047;
-188.4000;0.4461;0.9977;
-188.1000;0.4461;0.9930;
-187.8000;0.4477;1.0024;
-187.5000;0.4461;1.0024;
-187.2000;0.4461;0.9977;
-186.9000;0.4469;1.0047;
-186.6000;0.4461;0.9977;
-186.3000;0.4396;0.9860;
-186.0000;0.4453;0.9954;
-185.7000;0.4469;1.0094;
-185.4000;0.4461;1.0187;
-185.1000;0.4477;1.0233;
-184.8000;0.4453;1.0140;
-184.5000;0.4477;1.0210;
-184.2000;0.4469;1.0303;
-183.9000;0.4453;1.0233;
-183.6000;0.4461;1.0210;
-183.3000;0.4469;1.0257;
-183.0000;0.4444;1.0140;
-182.7000;0.4469;1.0210;
-182.4000;0.4461;1.0140;
-182.1000;0.4436;1.0047;
-181.8000;0.4461;1.0140;
-181.5000;0.4469;1.0094;
-181.2000;0.4461;1.0163;
-180.9000;0.4469;1.0257;
-180.6000;0.4469;1.0140;
-180.3000;0.4469;1.0094;
-180.0000;0.4485;1.0070;
-179.7000;0.4461;1.0024;
-179.4000;0.4477;1.0094;
-179.1000;0.4477;1.0187;
-178.8000;0.4461;1.0303;
-178.5000;0.4453;1.0233;
-178.2000;0.4461;1.0187;
-177.9000;0.4469;1.0210;
-177.6000;0.4477;1.0210;
-177.3000;0.4444;1.0070;
-177.0000;0.4444;1.0024;
-176.7000;0.4477;1.0140;
-176.4000;0.4461;1.0163;
-176.1000;0.4453;1.0094;
-175.8000;0.4469;1.0280;
-175.5000;0.4469;1.0187;
-175.2000;0.4477;1.0233;
-174.9000;0.4477;1.0140;
-174.6000;0.4461;1.0117;
-174.3000;0.4477;1.0163;
-174.0000;0.4461;1.0187;
-173.7000;0.4461;1.0257;
-173.4000;0.4461;1.0163;
-173.1000;0.4453;1.0094;
-172.8000;0.4469;1.0163;
-172.5000;0.4469;1.0117;
-172.2000;0.4469;1.0140;
-171.9000;0.4453;1.0163;
-171.6000;0.4453;1.0140;
-171.3000;0.4469;1.0210;
-171.0000;0.4461;1.0163;
-170.7000;0.4469;1.0140;
-170.4000;0.4420;1.0163;
-170.1000;0.4501;1.0373;
-169.8000;0.4469;1.0303;
-169.5000;0.4461;1.0303;
-169.2000;0.4477;1.0280;
-168.9000;0.4501;1.0280;
-168.6000;0.4477;1.0257;
-168.3000;0.4453;1.0233;
-168.0000;0.4469;1.0257;
-167.7000;0.4453;1.0233;
-167.4000;0.4436;1.0210;
-167.1000;0.4461;1.0257;
-166.8000;0.4428;1.0187;
-166.5000;0.4461;1.0233;
-166.2000;0.4461;1.0210;
-165.9000;0.4428;1.0094;
-165.6000;0.4461;1.0163;
-165.3000;0.4461;1.0163;
-165.0000;0.4461;1.0117;
-164.7000;0.4461;1.0140;
-164.4000;0.4477;1.0233;
-164.1000;0.4453;1.0210;
-163.8000;0.4461;1.0280;
-163.5000;0.4469;1.0187;
-163.2000;0.4469;1.0163;
-162.9000;0.4469;1.0094;
-162.6000;0.4461;1.0070;
-162.3000;0.4493;1.0140;
-162.0000;0.4436;1.0000;
-161.7000;0.4461;1.0024;
-161.4000;0.4469;1.0047;
-161.1000;0.4453;1.0000;
-160.8000;0.4461;1.0047;
-160.5000;0.4461;1.0094;
-160.2000;0.4444;1.0000;
-159.9000;0.4485;1.0094;
-159.6000;0.4469;1.0047;
-159.3000;0.4477;1.0024;
-159.0000;0.4461;1.0047;
-158.7000;0.4477;1.0000;
-158.4000;0.4469;1.0000;
-158.1000;0.4485;1.0070;
-157.8000;0.4542;1.0257;
-157.5000;0.4428;1.0024;
-157.2000;0.4477;1.0094;
-156.9000;0.4461;1.0000;
-156.6000;0.4436;1.0047;
-156.3000;0.4469;1.0163;
-156.0000;0.4469;1.0163;
-155.7000;0.4461;1.0187;
-155.4000;0.4469;1.0280;
-155.1000;0.4436;1.0303;
-154.8000;0.4469;1.0466;
-154.5000;0.4461;1.0513;
-154.2000;0.4436;1.0420;
-153.9000;0.4485;1.0490;
-153.6000;0.4477;1.0397;
-153.3000;0.4469;1.0327;
-153.0000;0.4461;1.0257;
-152.7000;0.4469;1.0210;
-152.4000;0.4453;1.0210;
-152.1000;0.4461;1.0233;
-151.8000;0.4453;1.0233;
-151.5000;0.4469;1.0257;
-151.2000;0.4461;1.0233;
-150.9000;0.4477;1.0280;
-150.6000;0.4477;1.0373;
-150.3000;0.4485;1.0350;
-150.0000;0.4461;1.0327;
-149.7000;0.4477;1.0327;
-149.4000;0.4469;1.0303;
-149.1000;0.4477;1.0233;
-148.8000;0.4453;1.0163;
-148.5000;0.4469;1.0210;
-148.2000;0.4477;1.0233;
-147.9000;0.4444;1.0257;
-147.6000;0.4436;1.0187;
-147.3000;0.4453;1.0187;
-147.0000;0.4477;1.0303;
-146.7000;0.4436;1.0070;
-146.4000;0.4453;1.0187;
-146.1000;0.4469;1.0233;
-145.8000;0.4485;1.0257;
-145.5000;0.4461;1.0233;
-145.2000;0.4444;1.0210;
-144.9000;0.4493;1.0350;
-144.6000;0.4461;1.0303;
-144.3000;0.4485;1.0303;
-144.0000;0.4461;1.0187;
-143.7000;0.4453;1.0210;
-143.4000;0.4469;1.0280;
-143.1000;0.4453;1.0350;
-142.8000;0.4477;1.0466;
-142.5000;0.4453;1.0420;
-142.2000;0.4436;1.0350;
-141.9000;0.4469;1.0373;
-141.6000;0.4461;1.0303;
-141.3000;0.4436;1.0280;
-141.0000;0.4428;1.0280;
-140.7000;0.4477;1.0373;
-140.4000;0.4461;1.0257;
-140.1000;0.4469;1.0210;
-139.8000;0.4444;1.0094;
-139.5000;0.4461;1.0094;
-139.2000;0.4469;1.0070;
-138.9000;0.4477;1.0140;
-138.6000;0.4412;1.0000;
-138.3000;0.4485;1.0257;
-138.0000;0.4477;1.0350;
-137.7000;0.4461;1.0303;
-137.4000;0.4444;1.0210;
-137.1000;0.4469;1.0210;
-136.8000;0.4469;1.0187;
-136.5000;0.4469;1.0140;
-136.2000;0.4485;1.0117;
-135.9000;0.4510;1.0140;
-135.6000;0.4469;1.0047;
-135.3000;0.4485;1.0117;
-135.0000;0.4469;1.0070;
-134.7000;0.4453;0.9977;
-134.4000;0.4477;1.0094;
-134.1000;0.4477;1.0163;
-133.8000;0.4453;1.0094;
-133.5000;0.4444;1.0140;
-133.2000;0.4591;1.0466;
-132.9000;0.4453;1.0094;
-132.6000;0.4461;1.0233;
-132.3000;0.4444;1.0280;
-132.0000;0.4461;1.0280;
-131.7000;0.4453;1.0280;
-131.4000;0.4436;1.0257;
-131.1000;0.4436;1.0280;
-130.8000;0.4453;1.0280;
-130.5000;0.4453;1.0303;
-130.2000;0.4453;1.0257;
-129.9000;0.4461;1.0233;
-129.6000;0.4461;1.0187;
-129.3000;0.4469;1.0140;
-129.0000;0.4469;1.0117;
-128.7000;0.4461;1.0094;
-128.4000;0.4469;1.0140;
-128.1000;0.4453;1.0257;
-127.8000;0.4501;1.0280;
-127.5000;0.4477;1.0280;
-127.2000;0.4461;1.0233;
-126.9000;0.4461;1.0257;
-126.6000;0.4444;1.0233;
-126.3000;0.4444;1.0187;
-126.0000;0.4444;1.0140;
-125.7000;0.4444;1.0140;
-125.4000;0.4436;1.0163;
-125.1000;0.4436;1.0117;
-124.8000;0.4461;1.0163;
-124.5000;0.4453;1.0047;
-124.2000;0.4469;1.0070;
-123.9000;0.4436;1.0094;
-123.6000;0.4436;1.0210;
-123.3000;0.4477;1.0327;
-123.0000;0.4444;1.0233;
-122.7000;0.4461;1.0257;
-122.4000;0.4477;1.0257;
-122.1000;0.4469;1.0280;
-121.8000;0.4461;1.0233;
-121.5000;0.4461;1.0280;
-121.2000;0.4420;1.0233;
-120.9000;0.4444;1.0233;
-120.6000;0.4444;1.0280;
-120.3000;0.4436;1.0187;
-120.0000;0.4469;1.0187;
-119.7000;0.4436;1.0117;
-119.4000;0.4412;1.0070;
-119.1000;0.4371;1.0000;
-118.8000;0.4469;1.0280;
-118.5000;0.4453;1.0163;
-118.2000;0.4461;1.0210;
-117.9000;0.4469;1.0280;
-117.6000;0.4461;1.0210;
-117.3000;0.4461;1.0257;
-117.0000;0.4412;1.0140;
-116.7000;0.4485;1.0257;
-116.4000;0.4444;1.0280;
-116.1000;0.4477;1.0397;
-115.8000;0.4444;1.0443;
-115.5000;0.4461;1.0466;
-115.2000;0.4477;1.0536;
-114.9000;0.4477;1.0490;
-114.6000;0.4501;1.0560;
-114.3000;0.4461;1.0350;
-114.0000;0.4477;1.0397;
-113.7000;0.4461;1.0373;
-113.4000;0.4444;1.0303;
-113.1000;0.4453;1.0303;
-112.8000;0.4469;1.0327;
-112.5000;0.4477;1.0327;
-112.2000;0.4477;1.0327;
-111.9000;0.4461;1.0233;
-111.6000;0.4477;1.0187;
-111.3000;0.4518;1.0350;
-111.0000;0.4461;1.0233;
-110.7000;0.4453;1.0303;
-110.4000;0.4461;1.0280;
-110.1000;0.4461;1.0327;
-109.8000;0.4461;1.0397;
-109.5000;0.4436;1.0350;
-109.2000;0.4461;1.0397;
-108.9000;0.4469;1.0397;
-108.6000;0.4477;1.0373;
-108.3000;0.4461;1.0257;
-108.0000;0.4461;1.0303;
-107.7000;0.4526;1.0513;
-107.4000;0.4461;1.0327;
-107.1000;0.4444;1.0163;
-106.8000;0.4453;1.0094;
-106.5000;0.4469;1.0140;
-106.2000;0.4477;1.0163;
-105.9000;0.4477;1.0187;
-105.6000;0.4428;1.0210;
-105.3000;0.4469;1.0303;
-105.0000;0.4501;1.0443;
-104.7000;0.4461;1.0303;
-104.4000;0.4453;1.0303;
-104.1000;0.4477;1.0327;
-103.8000;0.4436;1.0210;
-103.5000;0.4453;1.0373;
-103.2000;0.4428;1.0233;
-102.9000;0.4469;1.0257;
-102.6000;0.4469;1.0257;
-102.3000;0.4469;1.0280;
-102.0000;0.4461;1.0210;
-101.7000;0.4469;1.0233;
-101.4000;0.4453;1.0257;
-101.1000;0.4469;1.0303;
-100.8000;0.4444;1.0303;
-100.5000;0.4444;1.0210;
-100.2000;0.4396;1.0070;
-99.9000;0.4469;1.0327;
-99.6000;0.4453;1.0350;
-99.3000;0.4461;1.0280;
-99.0000;0.4469;1.0280;
-98.7000;0.4461;1.0187;
-98.4000;0.4510;1.0327;
-98.1000;0.4371;1.0024;
-97.8000;0.4453;1.0187;
-97.5000;0.4469;1.0280;
-97.2000;0.4477;1.0280;
-96.9000;0.4469;1.0327;
-96.6000;0.4493;1.0350;
-96.3000;0.4461;1.0280;
-96.0000;0.4461;1.0210;
-95.7000;0.4469;1.0140;
-95.4000;0.4461;1.0163;
-95.1000;0.4444;1.0187;
-94.8000;0.4444;1.0280;
-94.5000;0.4461;1.0257;
-94.2000;0.4444;1.0210;
-93.9000;0.4477;1.0303;
-93.6000;0.4469;1.0350;
-93.3000;0.4469;1.0280;
-93.0000;0.4493;1.0257;
-92.7000;0.4453;1.0210;
-92.4000;0.4469;1.0187;
-92.1000;0.4477;1.0257;
-91.8000;0.4453;1.0210;
-91.5000;0.4412;1.0047;
-91.2000;0.4453;1.0140;
-90.9000;0.4461;1.0233;
-90.6000;0.4542;1.0513;
-90.3000;0.4461;1.0303;
-90.0000;0.4436;1.0280;
-89.7000;0.4453;1.0233;
-89.4000;0.4461;1.0280;
-89.1000;0.4469;1.0280;
-88.8000;0.4461;1.0303;
-88.5000;0.4461;1.0280;
-88.2000;0.4477;1.0303;
-87.9000;0.4461;1.0280;
-87.6000;0.4485;1.0303;
-87.3000;0.4461;1.0210;
-87.0000;0.4461;1.0140;
-86.7000;0.4469;1.0233;
-86.4000;0.4477;1.0303;
-86.1000;0.4469;1.0303;
-85.8000;0.4477;1.0303;
-85.5000;0.4493;1.0350;
-85.2000;0.4493;1.0373;
-84.9000;0.4453;1.0350;
-84.6000;0.4534;1.0397;
-84.3000;0.4469;1.0233;
-84.0000;0.4477;1.0163;
-83.7000;0.4485;1.0163;
-83.4000;0.4453;1.0187;
-83.1000;0.4477;1.0303;
-82.8000;0.4453;1.0327;
-82.5000;0.4387;1.0303;
-82.2000;0.4461;1.0443;
-81.9000;0.4469;1.0443;
-81.6000;0.4453;1.0397;
-81.3000;0.4428;1.0303;
-81.0000;0.4469;1.0303;
-80.7000;0.4469;1.0257;
-80.4000;0.4461;1.0187;
-80.1000;0.4461;1.0210;
-79.8000;0.4493;1.0233;
-79.5000;0.4461;1.0140;
-79.2000;0.4501;1.0233;
-78.9000;0.4469;1.0257;
-78.6000;0.4469;1.0350;
-78.3000;0.4453;1.0280;
-78.0000;0.4469;1.0350;
-77.7000;0.4436;1.0257;
-77.4000;0.4461;1.0303;
-77.1000;0.4444;1.0280;
-76.8000;0.4485;1.0490;
-76.5000;0.4453;1.0490;
-76.2000;0.4453;1.0490;
-75.9000;0.4453;1.0466;
-75.6000;0.4485;1.0420;
-75.3000;0.4518;1.0397;
-75.0000;0.4453;1.0233;
-74.7000;0.4444;1.0303;
-74.4000;0.4453;1.0303;
-74.1000;0.4469;1.0280;
-73.8000;0.4444;1.0210;
-73.5000;0.4469;1.0233;
-73.2000;0.4461;1.0233;
-72.9000;0.4461;1.0257;
-72.6000;0.4469;1.0303;
-72.3000;0.4461;1.0280;
-72.0000;0.4461;1.0327;
-71.7000;0.4477;1.0373;
-71.4000;0.4469;1.0373;
-71.1000;0.4444;1.0280;
-70.8000;0.4469;1.0233;
-70.5000;0.4461;1.0187;
-70.2000;0.4469;1.0233;
-69.9000;0.4469;1.0233;
-69.6000;0.4469;1.0257;
-69.3000;0.4453;1.0210;
-69.0000;0.4542;1.0443;
-68.7000;0.4461;1.0210;
-68.4000;0.4453;1.0163;
-68.1000;0.4396;0.9977;
-67.8000;0.4477;1.0163;
-67.5000;0.4453;1.0303;
-67.2000;0.4453;1.0350;
-66.9000;0.4453;1.0350;
-66.6000;0.4477;1.0397;
-66.3000;0.4461;1.0257;
-66.0000;0.4453;1.0257;
-65.7000;0.4444;1.0280;
-65.4000;0.4453;1.0280;
-65.1000;0.4436;1.0233;
-64.8000;0.4469;1.0257;
-64.5000;0.4444;1.0140;
-64.2000;0.4469;1.0210;
-63.9000;0.4485;1.0303;
-63.6000;0.4461;1.0350;
-63.3000;0.4469;1.0303;
-63.0000;0.4428;1.0233;
-62.7000;0.4493;1.0350;
-62.4000;0.4469;1.0280;
-62.1000;0.4404;1.0024;
-61.8000;0.4477;1.0280;
-61.5000;0.4453;1.0163;
-61.2000;0.4461;1.0187;
-60.9000;0.4461;1.0257;
-60.6000;0.4485;1.0303;
-60.3000;0.4477;1.0210;
-60.0000;0.4477;1.0233;
-59.7000;0.4469;1.0187;
-59.4000;0.4469;1.0187;
-59.1000;0.4469;1.0187;
-58.8000;0.4477;1.0303;
-58.5000;0.4477;1.0280;
-58.2000;0.4501;1.0233;
-57.9000;0.4461;1.0163;
-57.6000;0.4461;1.0210;
-57.3000;0.4453;1.0233;
-57.0000;0.4436;1.0233;
-56.7000;0.4477;1.0210;
-56.4000;0.4477;1.0257;
-56.1000;0.4453;1.0280;
-55.8000;0.4453;1.0303;
-55.5000;0.4453;1.0280;
-55.2000;0.4461;1.0303;
-54.9000;0.4469;1.0233;
-54.6000;0.4453;1.0210;
-54.3000;0.4477;1.0327;
-54.0000;0.4469;1.0280;
-53.7000;0.4469;1.0350;
-53.4000;0.4444;1.0257;
-53.1000;0.4477;1.0303;
-52.8000;0.4550;1.0513;
-52.5000;0.4477;1.0257;
-52.2000;0.4444;1.0210;
-51.9000;0.4444;1.0233;
-51.6000;0.4469;1.0210;
-51.3000;0.4469;1.0117;
-51.0000;0.4493;1.0187;
-50.7000;0.4485;1.0233;
-50.4000;0.4461;1.0094;
-50.1000;0.4469;1.0094;
-49.8000;0.4510;1.0187;
-49.5000;0.4469;1.0187;
-49.2000;0.4461;1.0187;
-48.9000;0.4461;1.0210;
-48.6000;0.4453;1.0233;
-48.3000;0.4469;1.0280;
-48.0000;0.4444;1.0257;
-47.7000;0.4453;1.0280;
-47.4000;0.4453;1.0257;
-47.1000;0.4412;1.0024;
-46.8000;0.4453;1.0140;
-46.5000;0.4461;1.0117;
-46.2000;0.4493;1.0163;
-45.9000;0.4461;1.0024;
-45.6000;0.4436;1.0047;
-45.3000;0.4469;1.0070;
-45.0000;0.4518;1.0094;
-44.7000;0.4518;1.0140;
-44.4000;0.4453;0.9954;
-44.1000;0.4453;1.0024;
-43.8000;0.4461;1.0117;
-43.5000;0.4469;1.0140;
-43.2000;0.4453;1.0117;
-42.9000;0.4485;1.0280;
-42.6000;0.4428;1.0140;
-42.3000;0.4453;1.0094;
-42.0000;0.4510;1.0140;
-41.7000;0.4501;1.0117;
-41.4000;0.4420;1.0000;
-41.1000;0.4420;0.9954;
-40.8000;0.4469;1.0070;
-40.5000;0.4461;1.0094;
-40.2000;0.4453;1.0047;
-39.9000;0.4461;1.0000;
-39.6000;0.4510;1.0047;
-39.3000;0.4444;0.9954;
-39.0000;0.4550;1.0210;
-38.7000;0.4493;1.0070;
-38.4000;0.4493;1.0094;
-38.1000;0.4469;1.0047;
-37.8000;0.4501;1.0163;
-37.5000;0.4453;1.0047;
-37.2000;0.4461;1.0140;
-36.9000;0.4461;1.0163;
-36.6000;0.4461;1.0117;
-36.3000;0.4461;1.0070;
-36.0000;0.4477;1.0140;
-35.7000;0.4428;1.0000;
-35.4000;0.4453;1.0047;
-35.1000;0.4469;1.0094;
-34.8000;0.4469;1.0117;
-34.5000;0.4469;1.0140;
-34.2000;0.4469;1.0140;
-33.9000;0.4477;1.0210;
-33.6000;0.4485;1.0070;
-33.3000;0.4501;1.0070;
-33.0000;0.4461;1.0000;
-32.7000;0.4461;1.0117;
-32.4000;0.4453;1.0117;
-32.1000;0.4428;1.0047;
-31.8000;0.4461;1.0047;
-31.5000;0.4444;1.0070;
-31.2000;0.4461;1.0117;
-30.9000;0.4387;1.0000;
-30.6000;0.4469;1.0350;
-30.3000;0.4453;1.0257;
-30.0000;0.4453;1.0280;
-29.7000;0.4469;1.0233;
-29.4000;0.4469;1.0257;
-29.1000;0.4485;1.0280;
-28.8000;0.4469;1.0210;
-28.5000;0.4461;1.0163;
-28.2000;0.4542;1.0350;
-27.9000;0.4461;1.0094;
-27.6000;0.4436;1.0024;
-27.3000;0.4436;1.0024;
-27.0000;0.4444;1.0070;
-26.7000;0.4469;1.0094;
-26.4000;0.4461;1.0094;
-26.1000;0.4428;1.0024;
-25.8000;0.4371;0.9930;
-25.5000;0.4469;1.0280;
-25.2000;0.4477;1.0303;
-24.9000;0.4444;1.0280;
-24.6000;0.4493;1.0397;
-24.3000;0.4518;1.0420;
-24.0000;0.4477;1.0350;
-23.7000;0.4453;1.0257;
-23.4000;0.4469;1.0233;
-23.1000;0.4461;1.0233;
-22.8000;0.4477;1.0327;
-22.5000;0.4461;1.0233;
-22.2000;0.4469;1.0233;
-21.9000;0.4469;1.0210;
-21.6000;0.4477;1.0187;
-21.3000;0.4477;1.0233;
-21.0000;0.4461;1.0303;
-20.7000;0.4444;1.0257;
-20.4000;0.4477;1.0350;
-20.1000;0.4477;1.0280;
-19.8000;0.4477;1.0257;
-19.5000;0.4469;1.0303;
-19.2000;0.4485;1.0350;
-18.9000;0.4461;1.0303;
-18.6000;0.4453;1.0163;
-18.3000;0.4477;1.0210;
-18.0000;0.4461;1.0187;
-17.7000;0.4469;1.0233;
-17.4000;0.4461;1.0233;
-17.1000;0.4453;1.0257;
-16.8000;0.4461;1.0397;
-16.5000;0.4453;1.0420;
-16.2000;0.4469;1.0443;
-15.9000;0.4436;1.0443;
-15.6000;0.4461;1.0443;
-15.3000;0.4477;1.0397;
-15.0000;0.4526;1.0606;
-14.7000;0.4453;1.0466;
-14.4000;0.4461;1.0420;
-14.1000;0.4453;1.0420;
-13.8000;0.4485;1.0560;
-13.5000;0.4453;1.0513;
-13.2000;0.4469;1.0560;
-12.9000;0.4428;1.0536;
-12.6000;0.4469;1.0630;
-12.3000;0.4477;1.0583;
-12.0000;0.4477;1.0536;
-11.7000;0.4485;1.0536;
-11.4000;0.4485;1.0583;
-11.1000;0.4526;1.0676;
-10.8000;0.4453;1.0490;
-10.5000;0.4453;1.0466;
-10.2000;0.4453;1.0397;
-9.9000;0.4461;1.0397;
-9.6000;0.4461;1.0350;
-9.3000;0.4493;1.0303;
-9.0000;0.4461;1.0233;
-8.7000;0.4477;1.0163;
-8.4000;0.4444;1.0094;
-8.1000;0.4453;1.0140;
-7.8000;0.4412;1.0047;
-7.5000;0.4453;1.0233;
-7.2000;0.4444;1.0303;
-6.9000;0.4444;1.0257;
-6.6000;0.4469;1.0420;
-6.3000;0.4453;1.0420;
-6.0000;0.4477;1.0466;
-5.7000;0.4444;1.0490;
-5.4000;0.4469;1.0583;
-5.1000;0.4469;1.0513;
-4.8000;0.4607;1.0909;
-4.5000;0.4477;1.0443;
-4.2000;0.4453;1.0327;
-3.9000;0.4428;1.0257;
-3.6000;0.4477;1.0350;
-3.3000;0.4461;1.0280;
-3.0000;0.4469;1.0350;
-2.7000;0.4477;1.0350;
-2.4000;0.4412;1.0257;
-2.1000;0.4453;1.0397;
-1.8000;0.4444;1.0327;
-1.5000;0.4453;1.0303;
-1.2000;0.4477;1.0350;
-0.9000;0.4453;1.0257;
-0.6000;0.4461;1.0233;
-0.3000;0.4469;1.0280;
0.0000;0.4469;1.0280;
0.3000;0.4689;1.0630;
0.6000;0.5096;1.1096;
0.9000;0.5454;1.1655;
1.2000;0.5649;1.1982;
1.5000;0.5934;1.2541;
1.8000;0.6097;1.2891;
2.1000;0.6235;1.3217;
2.4000;0.6365;1.3450;
2.7000;0.6422;1.3660;
3.0000;0.6447;1.3753;
3.3000;0.6536;1.3940;
3.6000;0.6545;1.3940;
3.9000;0.6650;1.4196;
4.2000;0.6577;1.4010;
4.5000;0.6707;1.4336;
4.8000;0.6764;1.4499;
5.1000;0.6789;1.4523;
5.4000;0.6805;1.4616;
5.7000;0.6838;1.4662;
6.0000;0.6895;1.4756;
6.3000;0.6838;1.4616;
6.6000;0.6911;1.4756;
6.9000;0.6927;1.4802;
7.2000;0.6960;1.4756;
7.5000;0.6952;1.4779;
7.8000;0.7000;1.4849;
8.1000;0.7009;1.4756;
8.4000;0.7017;1.4709;
8.7000;0.7057;1.4756;
9.0000;0.7066;1.4732;
9.3000;0.7098;1.4662;
9.6000;0.7123;1.4709;
9.9000;0.7139;1.4732;
10.2000;0.7179;1.4779;
10.5000;0.7196;1.4826;
10.8000;0.7196;1.4709;
11.1000;0.7220;1.4732;
11.4000;0.7293;1.4849;
11.7000;0.7285;1.4686;
12.0000;0.7245;1.4686;
12.3000;0.7293;1.4779;
12.6000;0.7310;1.4732;
12.9000;0.7326;1.4639;
13.2000;0.7310;1.4592;
13.5000;0.7350;1.4732;
13.8000;0.7359;1.4709;
14.1000;0.7383;1.4732;
14.4000;0.7407;1.4756;
14.7000;0.7407;1.4756;
15.0000;0.7424;1.4732;
15.3000;0.7489;1.4826;
15.6000;0.7464;1.4709;
15.9000;0.7497;1.4709;
16.2000;0.7505;1.4662;
16.5000;0.7530;1.4616;
16.8000;0.7513;1.4523;
17.1000;0.7562;1.4592;
17.4000;0.7546;1.4499;
17.7000;0.7595;1.4499;
18.0000;0.7578;1.4453;
18.3000;0.7578;1.4359;
18.6000;0.7595;1.4336;
18.9000;0.7643;1.4406;
19.2000;0.7643;1.4523;
19.5000;0.7619;1.4523;
19.8000;0.7627;1.4569;
20.1000;0.7741;1.4965;
20.4000;0.7660;1.4779;
20.7000;0.7766;1.4849;
21.0000;0.7733;1.4709;
21.3000;0.7733;1.4756;
21.6000;0.7823;1.4942;
21.9000;0.7733;1.4686;
22.2000;0.7709;1.4569;
22.5000;0.7757;1.4569;
22.8000;0.7709;1.4429;
23.1000;0.7806;1.4616;
23.4000;0.7790;1.4616;
23.7000;0.7782;1.4569;
24.0000;0.7798;1.4639;
24.3000;0.7798;1.4639;
24.6000;0.7814;1.4616;
24.9000;0.7806;1.4546;
25.2000;0.7847;1.4546;
25.5000;0.7847;1.4616;
25.8000;0.7863;1.4569;
26.1000;0.7863;1.4592;
26.4000;0.7855;1.4569;
26.7000;0.7888;1.4523;
27.0000;0.7839;1.4406;
27.3000;0.7928;1.4569;
27.6000;0.7896;1.4569;
27.9000;0.7888;1.4523;
28.2000;0.7920;1.4569;
28.5000;0.7912;1.4523;
28.8000;0.7912;1.4523;
29.1000;0.7912;1.4569;
29.4000;0.7945;1.4662;
29.7000;0.7937;1.4756;
30.0000;0.7961;1.4732;
30.3000;0.7953;1.4756;
30.6000;0.7961;1.4732;
30.9000;0.7961;1.4686;
31.2000;0.7977;1.4639;
31.5000;0.7969;1.4569;
31.8000;0.7993;1.4616;
32.1000;0.8002;1.4592;
32.4000;0.7993;1.4523;
32.7000;0.8010;1.4499;
33.0000;0.8002;1.4523;
33.3000;0.8050;1.4546;
33.6000;0.8107;1.4686;
33.9000;0.8018;1.4453;
34.2000;0.8026;1.4523;
34.5000;0.8026;1.4569;
34.8000;0.7969;1.4336;
35.1000;0.8034;1.4569;
35.4000;0.8116;1.4662;
35.7000;0.8050;1.4453;
36.0000;0.8059;1.4499;
36.3000;0.8059;1.4453;
36.6000;0.8067;1.4429;
36.9000;0.8059;1.4476;
37.2000;0.8083;1.4616;
37.5000;0.8091;1.4639;
37.8000;0.8083;1.4732;
38.1000;0.8091;1.4592;
38.4000;0.8099;1.4499;
38.7000;0.8148;1.4616;
39.0000;0.8099;1.4499;
39.3000;0.8116;1.4453;
39.6000;0.8132;1.4546;
39.9000;0.8116;1.4523;
40.2000;0.8116;1.4429;
40.5000;0.8132;1.4406;
40.8000;0.8132;1.4406;
41.1000;0.8140;1.4383;
41.4000;0.8132;1.4383;
41.7000;0.8148;1.4313;
42.0000;0.8173;1.4359;
42.3000;0.8132;1.4243;
42.6000;0.8148;1.4289;
42.9000;0.8107;1.4196;
43.2000;0.8164;1.4336;
43.5000;0.8173;1.4336;
43.8000;0.8164;1.4266;
44.1000;0.8173;1.4173;
44.4000;0.8140;1.4126;
44.7000;0.8164;1.4196;
45.0000;0.8173;1.4173;
45.3000;0.8173;1.4126;
45.6000;0.8181;1.4103;
45.9000;0.8197;1.4196;
46.2000;0.8197;1.4219;
46.5000;0.8181;1.4150;
46.8000;0.8197;1.4243;
47.1000;0.8262;1.4453;
47.4000;0.8197;1.4266;
47.7000;0.8197;1.4289;
48.0000;0.8205;1.4313;
48.3000;0.8254;1.4313;
48.6000;0.8230;1.4313;
48.9000;0.8238;1.4289;
49.2000;0.8254;1.4289;
49.5000;0.8181;1.4033;
49.8000;0.8246;1.4173;
50.1000;0.8262;1.4103;
50.4000;0.8230;1.3986;
50.7000;0.8246;1.4080;
51.0000;0.8262;1.4103;
51.3000;0.8254;1.4056;
51.6000;0.8287;1.4196;
51.9000;0.8254;1.4173;
52.2000;0.8262;1.4173;
52.5000;0.8254;1.4243;
52.8000;0.8311;1.4336;
53.1000;0.8270;1.4103;
53.4000;0.8311;1.4266;
53.7000;0.8287;1.4173;
54.0000;0.8270;1.4219;
54.3000;0.8278;1.4219;
54.6000;0.8270;1.4219;
54.9000;0.8295;1.4243;
55.2000;0.8303;1.4196;
55.5000;0.8303;1.4219;
55.8000;0.8287;1.4243;
56.1000;0.8278;1.4219;
56.4000;0.8344;1.4243;
56.7000;0.8311;1.4219;
57.0000;0.8295;1.4266;
57.3000;0.8327;1.4336;
57.6000;0.8319;1.4289;
57.9000;0.8311;1.4243;
58.2000;0.8319;1.4289;
58.5000;0.8319;1.4266;
58.8000;0.8352;1.4289;
59.1000;0.8376;1.4359;
59.4000;0.8344;1.4266;
59.7000;0.8335;1.4150;
60.0000;0.8335;1.4150;
60.3000;0.8319;1.4010;
60.6000;0.8327;1.3986;
60.9000;0.8335;1.4010;
61.2000;0.8335;1.4103;
61.5000;0.8344;1.4010;
61.8000;0.8344;1.3963;
62.1000;0.8344;1.3986;
62.4000;0.8344;1.3893;
62.7000;0.8368;1.3940;
63.0000;0.8360;1.3986;
63.3000;0.8344;1.3963;
63.6000;0.8352;1.3916;
63.9000;0.8392;1.3940;
64.2000;0.8319;1.3777;
64.5000;0.8344;1.3847;
64.8000;0.8352;1.3986;
65.1000;0.8376;1.4010;
65.4000;0.8376;1.4010;
65.7000;0.8344;1.3893;
66.0000;0.8352;1.3893;
66.3000;0.8360;1.3916;
66.6000;0.8376;1.3940;
66.9000;0.8392;1.4010;
67.2000;0.8352;1.3963;
67.5000;0.8400;1.4056;
67.8000;0.8409;1.4173;
68.1000;0.8384;1.4103;
68.4000;0.8409;1.4103;
68.7000;0.8392;1.4056;
69.0000;0.8400;1.3940;
69.3000;0.8425;1.3986;
69.6000;0.8392;1.3870;
69.9000;0.8368;1.3823;
70.2000;0.8392;1.3823;
70.5000;0.8392;1.3707;
70.8000;0.8392;1.3730;
71.1000;0.8400;1.3753;
71.4000;0.8409;1.3753;
71.7000;0.8409;1.3730;
72.0000;0.8417;1.3800;
72.3000;0.8344;1.3590;
72.6000;0.8409;1.3753;
72.9000;0.8409;1.3823;
73.2000;0.8409;1.3823;
73.5000;0.8425;1.3870;
73.8000;0.8417;1.3870;
74.1000;0.8417;1.3823;
74.4000;0.8425;1.3847;
74.7000;0.8425;1.3893;
75.0000;0.8425;1.3963;
75.3000;0.8441;1.3916;
75.6000;0.8425;1.3870;
75.9000;0.8425;1.3893;
76.2000;0.8409;1.3893;
76.5000;0.8425;1.3940;
76.8000;0.8433;1.3893;
77.1000;0.8449;1.3986;
77.4000;0.8425;1.3916;
77.7000;0.8449;1.3893;
78.0000;0.8449;1.3986;
78.3000;0.8441;1.3963;
78.6000;0.8449;1.4056;
78.9000;0.8466;1.4056;
79.2000;0.8466;1.4080;
79.5000;0.8457;1.4033;
79.8000;0.8466;1.3963;
80.1000;0.8474;1.3940;
80.4000;0.8457;1.3940;
80.7000;0.8466;1.3847;
81.0000;0.8514;1.3916;
81.3000;0.8457;1.3683;
81.6000;0.8474;1.3660;
81.9000;0.8457;1.3660;
82.2000;0.8441;1.3730;
82.5000;0.8466;1.3660;
82.8000;0.8474;1.3683;
83.1000;0.8474;1.3753;
83.4000;0.8474;1.3730;
83.7000;0.8466;1.3777;
84.0000;0.8466;1.3730;
84.3000;0.8490;1.3730;
84.6000;0.8514;1.3777;
84.9000;0.8466;1.3660;
85.2000;0.8474;1.3543;
85.5000;0.8514;1.3683;
85.8000;0.8474;1.3613;
86.1000;0.8466;1.3613;
86.4000;0.8498;1.3683;
86.7000;0.8474;1.3543;
87.0000;0.8498;1.3637;
87.3000;0.8474;1.3590;
87.6000;0.8490;1.3567;
87.9000;0.8498;1.3567;
88.2000;0.8555;1.3660;
88.5000;0.8490;1.3613;
88.8000;0.8506;1.3590;
89.1000;0.8531;1.3613;
89.4000;0.8514;1.3637;
89.7000;0.8506;1.3660;
90.0000;0.8506;1.3660;
90.3000;0.8506;1.3637;
90.6000;0.8555;1.3753;
90.9000;0.8514;1.3637;
91.2000;0.8514;1.3590;
91.5000;0.8474;1.3543;
91.8000;0.8539;1.3707;
92.1000;0.8498;1.3683;
92.4000;0.8482;1.3543;
92.7000;0.8498;1.3474;
93.0000;0.8498;1.3497;
93.3000;0.8523;1.3543;
93.6000;0.8547;1.3637;
93.9000;0.8531;1.3543;
94.2000;0.8474;1.3427;
94.5000;0.8531;1.3543;
94.8000;0.8588;1.3637;
95.1000;0.8531;1.3520;
95.4000;0.8539;1.3590;
95.7000;0.8539;1.3730;
96.0000;0.8547;1.3707;
96.3000;0.8531;1.3707;
96.6000;0.8555;1.3707;
96.9000;0.8539;1.3637;
97.2000;0.8637;1.3940;
97.5000;0.8531;1.3660;
97.8000;0.8539;1.3637;
98.1000;0.8539;1.3637;
98.4000;0.8547;1.3660;
98.7000;0.8547;1.3707;
99.0000;0.8547;1.3660;
99.3000;0.8531;1.3613;
99.6000;0.8547;1.3660;
99.9000;0.8555;1.3683;
100.2000;0.8547;1.3707;
100.5000;0.8539;1.3637;
100.8000;0.8490;1.3567;
101.1000;0.8547;1.3660;
101.4000;0.8547;1.3450;
101.7000;0.8523;1.3380;
102.0000;0.8547;1.3357;
102.3000;0.8531;1.3380;
102.6000;0.8547;1.3450;
102.9000;0.8547;1.3520;
103.2000;0.8547;1.3543;
103.5000;0.8555;1.3590;
103.8000;0.8547;1.3637;
104.1000;0.8547;1.3520;
104.4000;0.8539;1.3474;
104.7000;0.8547;1.3474;
105.0000;0.8555;1.3427;
105.3000;0.8563;1.3380;
105.6000;0.8547;1.3287;
105.9000;0.8580;1.3404;
106.2000;0.8563;1.3357;
106.5000;0.8571;1.3404;
106.8000;0.8555;1.3380;
107.1000;0.8580;1.3357;
107.4000;0.8571;1.3404;
107.7000;0.8571;1.3357;
108.0000;0.8563;1.3310;
108.3000;0.8555;1.3287;
108.6000;0.8604;1.3497;
108.9000;0.8588;1.3567;
109.2000;0.8580;1.3404;
109.5000;0.8571;1.3334;
109.8000;0.8580;1.3380;
110.1000;0.8571;1.3334;
110.4000;0.8588;1.3264;
110.7000;0.8571;1.3334;
111.0000;0.8571;1.3380;
111.3000;0.8539;1.3404;
111.6000;0.8571;1.3497;
111.9000;0.8563;1.3380;
112.2000;0.8588;1.3427;
112.5000;0.8596;1.3427;
112.8000;0.8547;1.3287;
113.1000;0.8596;1.3450;
113.4000;0.8596;1.3520;
113.7000;0.8588;1.3474;
114.0000;0.8563;1.3404;
114.3000;0.8637;1.3590;
114.6000;0.8571;1.3450;
114.9000;0.8588;1.3404;
115.2000;0.8580;1.3310;
115.5000;0.8571;1.3334;
115.8000;0.8612;1.3357;
116.1000;0.8588;1.3334;
116.4000;0.8588;1.3334;
116.7000;0.8588;1.3357;
117.0000;0.8563;1.3380;
117.3000;0.8571;1.3404;
117.6000;0.8588;1.3404;
117.9000;0.8612;1.3474;
118.2000;0.8596;1.3450;
118.5000;0.8580;1.3520;
118.8000;0.8612;1.3520;
119.1000;0.8588;1.3427;
119.4000;0.8588;1.3380;
119.7000;0.8604;1.3404;
120.0000;0.8563;1.3240;
120.3000;0.8596;1.3194;
120.6000;0.8604;1.3171;
120.9000;0.8604;1.3171;
121.2000;0.8604;1.3217;
121.5000;0.8604;1.3194;
121.8000;0.8604;1.3194;
122.1000;0.8604;1.3124;
122.4000;0.8596;1.3101;
122.7000;0.8612;1.3124;
123.0000;0.8588;1.3077;
123.3000;0.8604;1.3124;
123.6000;0.8596;1.3124;
123.9000;0.8620;1.3031;
124.2000;0.8620;1.3077;
124.5000;0.8580;1.3007;
124.8000;0.8612;1.3217;
125.1000;0.8612;1.3287;
125.4000;0.8612;1.3264;
125.7000;0.8604;1.3194;
126.0000;0.8620;1.3240;
126.3000;0.8653;1.3334;
126.6000;0.8612;1.3310;
126.9000;0.8661;1.3450;
127.2000;0.8596;1.3240;
127.5000;0.8645;1.3380;
127.8000;0.8604;1.3310;
128.1000;0.8580;1.3240;
128.4000;0.8523;1.3147;
128.7000;0.8604;1.3264;
129.0000;0.8612;1.3147;
129.3000;0.8645;1.3334;
129.6000;0.8612;1.3287;
129.9000;0.8596;1.3264;
130.2000;0.8653;1.3357;
130.5000;0.8702;1.3497;
130.8000;0.8620;1.3287;
131.1000;0.8620;1.3217;
131.4000;0.8628;1.3124;
131.7000;0.8612;1.3124;
132.0000;0.8596;1.2984;
132.3000;0.8588;1.2937;
132.6000;0.8596;1.2984;
132.9000;0.8628;1.2961;
133.2000;0.8645;1.2984;
133.5000;0.8620;1.2961;
133.8000;0.8620;1.2961;
134.1000;0.8637;1.3077;
134.4000;0.8637;1.3077;
134.7000;0.8628;1.3124;
135.0000;0.8620;1.3240;
135.3000;0.8612;1.3334;
135.6000;0.8620;1.3310;
135.9000;0.8637;1.3404;
136.2000;0.8637;1.3380;
136.5000;0.8620;1.3427;
136.8000;0.8596;1.3334;
137.1000;0.8637;1.3334;
137.4000;0.8628;1.3404;
137.7000;0.8596;1.3450;
138.0000;0.8596;1.3310;
138.3000;0.8620;1.3357;
138.6000;0.8612;1.3404;
138.9000;0.8620;1.3450;
139.2000;0.8612;1.3404;
139.5000;0.8645;1.3474;
139.8000;0.8596;1.3310;
140.1000;0.8645;1.3264;
140.4000;0.8637;1.3264;
140.7000;0.8637;1.3240;
141.0000;0.8628;1.3334;
141.3000;0.8677;1.3497;
141.6000;0.8628;1.3357;
141.9000;0.8637;1.3450;
142.2000;0.8628;1.3380;
142.5000;0.8620;1.3427;
142.8000;0.8637;1.3497;
143.1000;0.8604;1.3380;
143.4000;0.8563;1.3240;
143.7000;0.8620;1.3287;
144.0000;0.8661;1.3380;
144.3000;0.8653;1.3357;
144.6000;0.8645;1.3287;
144.9000;0.8637;1.3240;
145.2000;0.8645;1.3240;
145.5000;0.8628;1.3101;
145.8000;0.8710;1.3287;
146.1000;0.8637;1.3287;
146.4000;0.8571;1.3171;
146.7000;0.8596;1.3217;
147.0000;0.8702;1.3497;
147.3000;0.8637;1.3334;
147.6000;0.8637;1.3380;
147.9000;0.8620;1.3427;
148.2000;0.8628;1.3427;
148.5000;0.8612;1.3287;
148.8000;0.8677;1.3450;
149.1000;0.8677;1.3450;
149.4000;0.8669;1.3404;
149.7000;0.8637;1.3287;
150.0000;0.8628;1.3287;
150.3000;0.8637;1.3287;
150.6000;0.8661;1.3357;
150.9000;0.8653;1.3310;
151.2000;0.8547;1.3101;
151.5000;0.8620;1.3194;
151.8000;0.8637;1.3124;
152.1000;0.8718;1.3240;
152.4000;0.8596;1.2984;
152.7000;0.8628;1.3007;
153.0000;0.8645;1.3007;
153.3000;0.8596;1.2844;
153.6000;0.8645;1.2937;
153.9000;0.8645;1.3031;
154.2000;0.8628;1.3101;
154.5000;0.8653;1.3240;
154.8000;0.8661;1.3310;
155.1000;0.8596;1.3171;
155.4000;0.8645;1.3264;
155.7000;0.8628;1.3264;
156.0000;0.8645;1.3404;
156.3000;0.8628;1.3450;
156.6000;0.8637;1.3497;
156.9000;0.8637;1.3497;
157.2000;0.8645;1.3404;
157.5000;0.8637;1.3357;
157.8000;0.8612;1.3287;
158.1000;0.8645;1.3217;
158.4000;0.8645;1.3264;
158.7000;0.8653;1.3334;
159.0000;0.8653;1.3427;
159.3000;0.8653;1.3427;
159.6000;0.8645;1.3334;
159.9000;0.8645;1.3217;
160.2000;0.8653;1.3264;
160.5000;0.8637;1.3287;
160.8000;0.8637;1.3217;
161.1000;0.8653;1.3171;
161.4000;0.8645;1.3147;
161.7000;0.8571;1.2937;
162.0000;0.8637;1.3124;
162.3000;0.8694;1.3194;
162.6000;0.8645;1.3217;
162.9000;0.8620;1.3124;
163.2000;0.8620;1.3217;
163.5000;0.8677;1.3334;
163.8000;0.8661;1.3217;
164.1000;0.8645;1.3194;
164.4000;0.8596;1.3077;
164.7000;0.8669;1.3264;
165.0000;0.8653;1.3264;
165.3000;0.8677;1.3287;
165.6000;0.8628;1.3171;
165.9000;0.8645;1.3264;
166.2000;0.8612;1.3194;
166.5000;0.8702;1.3380;
166.8000;0.8653;1.3240;
167.1000;0.8661;1.3287;
167.4000;0.8604;1.3101;
167.7000;0.8653;1.3264;
168.0000;0.8702;1.3380;
168.3000;0.8669;1.3240;
168.6000;0.8669;1.3240;
168.9000;0.8653;1.3147;
169.2000;0.8661;1.3194;
169.5000;0.8653;1.3194;
169.8000;0.8669;1.3171;
170.1000;0.8661;1.3171;
170.4000;0.8596;1.3007;
170.7000;0.8661;1.3287;
171.0000;0.8710;1.3404;
171.3000;0.8653;1.3310;
171.6000;0.8661;1.3264;
171.9000;0.8661;1.3054;
172.2000;0.8661;1.3124;
172.5000;0.8661;1.3101;
172.8000;0.8702;1.3077;
173.1000;0.8661;1.3031;
173.4000;0.8661;1.2937;
173.7000;0.8661;1.3007;
174.0000;0.8661;1.3101;
174.3000;0.8653;1.3031;
174.6000;0.8645;1.2937;
174.9000;0.8661;1.2984;
175.2000;0.8669;1.3054;
175.5000;0.8637;1.3147;
175.8000;0.8628;1.3147;
176.1000;0.8612;1.3194;
176.4000;0.8645;1.3334;
176.7000;0.8661;1.3334;
177.0000;0.8677;1.3357;
177.3000;0.8661;1.3357;
177.6000;0.8677;1.3380;
177.9000;0.8669;1.3427;
178.2000;0.8669;1.3380;
178.5000;0.8661;1.3334;
178.8000;0.8653;1.3334;
179.1000;0.8580;1.3124;
179.4000;0.8645;1.3310;
179.7000;0.8653;1.3334;
180.0000;0.8669;1.3334;
180.3000;0.8628;1.3171;
180.6000;0.8677;1.3240;
180.9000;0.8628;1.3171;
181.2000;0.8702;1.3264;
181.5000;0.8661;1.3240;
181.8000;0.8661;1.3287;
182.1000;0.8653;1.3310;
182.4000;0.8661;1.3264;
182.7000;0.8645;1.3264;
183.0000;0.8677;1.3334;
183.3000;0.8742;1.3450;
183.6000;0.8645;1.3217;
183.9000;0.8661;1.3217;
184.2000;0.8661;1.3240;
184.5000;0.8653;1.3147;
184.8000;0.8669;1.3171;
185.1000;0.8637;1.3147;
185.4000;0.8669;1.3264;
185.7000;0.8653;1.3194;
186.0000;0.8645;1.3147;
186.3000;0.8661;1.3217;
186.6000;0.8653;1.3171;
186.9000;0.8677;1.3147;
187.2000;0.8661;1.3077;
187.5000;0.8645;1.3054;
187.8000;0.8694;1.3240;
188.1000;0.8694;1.3404;
188.4000;0.8702;1.3450;
188.7000;0.8645;1.3264;
189.0000;0.8653;1.3287;
189.3000;0.8653;1.3240;
189.6000;0.8653;1.3217;
189.9000;0.8637;1.3171;
190.2000;0.8620;1.3194;
190.5000;0.8653;1.3264;
190.8000;0.8612;1.3217;
191.1000;0.8645;1.3287;
191.4000;0.8637;1.3310;
191.7000;0.8718;1.3474;
192.0000;0.8645;1.3287;
192.3000;0.8645;1.3194;
192.6000;0.8653;1.3264;
192.9000;0.8661;1.3287;
193.2000;0.8653;1.3194;
193.5000;0.8661;1.3147;
193.8000;0.8653;1.3194;
194.1000;0.8677;1.3264;
194.4000;0.8645;1.3240;
194.7000;0.8653;1.3217;
195.0000;0.8661;1.3264;
195.3000;0.8653;1.3287;
195.6000;0.8653;1.3380;
195.9000;0.8653;1.3404;
196.2000;0.8628;1.3357;
196.5000;0.8677;1.3450;
196.8000;0.8653;1.3334;
197.1000;0.8645;1.3264;
197.4000;0.8645;1.3334;
197.7000;0.8653;1.3380;
198.0000;0.8661;1.3450;
198.3000;0.8645;1.3497;
198.6000;0.8637;1.3497;
198.9000;0.8637;1.3404;
199.2000;0.8669;1.3497;
199.5000;0.8661;1.3474;
199.8000;0.8653;1.3380;
200.1000;0.8661;1.3310;
200.4000;0.8645;1.3310;
200.7000;0.8653;1.3334;
201.0000;0.8653;1.3357;
201.3000;0.8645;1.3264;
201.6000;0.8653;1.3310;
201.9000;0.8669;1.3287;
202.2000;0.8661;1.3310;
202.5000;0.8661;1.3334;
202.8000;0.8653;1.3380;
203.1000;0.8661;1.3334;
203.4000;0.8677;1.3334;
203.7000;0.8645;1.3240;
204.0000;0.8669;1.3217;
204.3000;0.8710;1.3194;
204.6000;0.8661;1.3124;
204.9000;0.8661;1.3171;
205.2000;0.8702;1.3194;
205.5000;0.8645;1.3054;
205.8000;0.8653;1.3124;
206.1000;0.8620;1.3031;
206.4000;0.8653;1.3147;
206.7000;0.8637;1.3171;
207.0000;0.8653;1.3240;
207.3000;0.8653;1.3264;
207.6000;0.8669;1.3380;
207.9000;0.8661;1.3427;
208.2000;0.8669;1.3404;
208.5000;0.8661;1.3287;
208.8000;0.8645;1.3240;
209.1000;0.8637;1.3194;
209.4000;0.8661;1.3147;
209.7000;0.8694;1.3217;
210.0000;0.8637;1.3007;
210.3000;0.8637;1.2961;
210.6000;0.8628;1.2914;
210.9000;0.8677;1.3054;
211.2000;0.8669;1.3054;
211.5000;0.8653;1.3007;
211.8000;0.8653;1.3031;
212.1000;0.8661;1.3077;
212.4000;0.8718;1.3264;
212.7000;0.8661;1.3240;
213.0000;0.8653;1.3217;
213.3000;0.8661;1.3264;
213.6000;0.8685;1.3287;
213.9000;0.8653;1.3287;
214.2000;0.8645;1.3310;
214.5000;0.8653;1.3264;
214.8000;0.8669;1.3310;
215.1000;0.8661;1.3264;
215.4000;0.8661;1.3240;
215.7000;0.8645;1.3217;
216.0000;0.8669;1.3240;
216.3000;0.8637;1.3217;
216.6000;0.8637;1.3147;
216.9000;0.8645;1.3194;
217.2000;0.8661;1.3240;
217.5000;0.8661;1.3171;
217.8000;0.8637;1.3101;
218.1000;0.8661;1.3194;
218.4000;0.8669;1.3194;
218.7000;0.8669;1.3240;
219.0000;0.8653;1.3264;
219.3000;0.8653;1.3450;
219.6000;0.8661;1.3520;
219.9000;0.8669;1.3567;
220.2000;0.8677;1.3497;
220.5000;0.8645;1.3404;
220.8000;0.8637;1.3357;
221.1000;0.8637;1.3357;
221.4000;0.8637;1.3427;
221.7000;0.8628;1.3404;
222.0000;0.8637;1.3404;
222.3000;0.8645;1.3450;
222.6000;0.8637;1.3334;
222.9000;0.8637;1.3194;
223.2000;0.8726;1.3287;
223.5000;0.8645;1.3077;
223.8000;0.8685;1.3171;
224.1000;0.8653;1.3147;
224.4000;0.8645;1.3077;
224.7000;0.8661;1.3101;
225.0000;0.8653;1.3124;
225.3000;0.8661;1.3124;
225.6000;0.8645;1.3171;
225.9000;0.8628;1.3147;
226.2000;0.8645;1.3101;
226.5000;0.8685;1.3171;
226.8000;0.8653;1.3101;
227.1000;0.8751;1.3287;
227.4000;0.8653;1.3101;
227.7000;0.8685;1.3217;
228.0000;0.8661;1.3217;
228.3000;0.8637;1.3240;
228.6000;0.8685;1.3357;
228.9000;0.8710;1.3450;
229.2000;0.8661;1.3264;
229.5000;0.8653;1.3194;
229.8000;0.8718;1.3334;
230.1000;0.8653;1.3217;
230.4000;0.8653;1.3404;
230.7000;0.8661;1.3334;
231.0000;0.8653;1.3287;
231.3000;0.8637;1.3287;
231.6000;0.8645;1.3194;
231.9000;0.8661;1.3147;
232.2000;0.8661;1.3217;
232.5000;0.8628;1.3194;
232.8000;0.8588;1.3007;
233.1000;0.8653;1.3077;
233.4000;0.8653;1.3171;
233.7000;0.8612;1.3054;
234.0000;0.8669;1.3217;
234.3000;0.8645;1.3287;
234.6000;0.8637;1.3264;
234.9000;0.8661;1.3357;
235.2000;0.8661;1.3404;
235.5000;0.8612;1.3357;
235.8000;0.8637;1.3310;
236.1000;0.8645;1.3287;
236.4000;0.8637;1.3264;
236.7000;0.8637;1.3217;
237.0000;0.8645;1.3287;
237.3000;0.8628;1.3240;
237.6000;0.8669;1.3334;
237.9000;0.8710;1.3497;
238.2000;0.8637;1.3380;
238.5000;0.8628;1.3357;
238.8000;0.8661;1.3357;
239.1000;0.8637;1.3264;
239.4000;0.8661;1.3217;
239.7000;0.8645;1.3101;
240.0000;0.8661;1.3194;
240.3000;0.8645;1.3334;
240.6000;0.8645;1.3240;
240.9000;0.8669;1.3357;
241.2000;0.8628;1.3147;
241.5000;0.8645;1.3240;
241.8000;0.8628;1.3217;
242.1000;0.8669;1.3357;
242.4000;0.8645;1.3240;
242.7000;0.8645;1.3240;
243.0000;0.8620;1.3194;
243.3000;0.8628;1.3240;
243.6000;0.8637;1.3240;
243.9000;0.8645;1.3310;
244.2000;0.8645;1.3264;
244.5000;0.8620;1.3310;
244.8000;0.8637;1.3287;
245.1000;0.8612;1.3217;
245.4000;0.8653;1.3240;
245.7000;0.8588;1.3171;
246.0000;0.8620;1.3217;
246.3000;0.8628;1.3264;
246.6000;0.8645;1.3310;
246.9000;0.8653;1.3357;
247.2000;0.8645;1.3310;
247.5000;0.8637;1.3264;
247.8000;0.8645;1.3171;
248.1000;0.8661;1.3217;
248.4000;0.8645;1.3101;
248.7000;0.8637;1.3077;
249.0000;0.8645;1.3124;
249.3000;0.8580;1.3031;
249.6000;0.8637;1.3147;
249.9000;0.8645;1.3101;
250.2000;0.8645;1.3077;
250.5000;0.8661;1.3147;
250.8000;0.8677;1.3264;
251.1000;0.8645;1.3147;
251.4000;0.8571;1.3054;
251.7000;0.8620;1.3357;
252.0000;0.8628;1.3404;
252.3000;0.8596;1.3264;
252.6000;0.8645;1.3264;
252.9000;0.8645;1.3287;
253.2000;0.8637;1.3334;
253.5000;0.8645;1.3287;
253.8000;0.8677;1.3240;
254.1000;0.8661;1.3194;
254.4000;0.8637;1.3171;
254.7000;0.8661;1.3240;
255.0000;0.8653;1.3171;
255.3000;0.8685;1.3194;
255.6000;0.8661;1.3217;
255.9000;0.8677;1.3334;
256.2000;0.8628;1.3217;
256.5000;0.8645;1.3240;
256.8000;0.8645;1.3310;
257.1000;0.8637;1.3240;
257.4000;0.8637;1.3147;
257.7000;0.8628;1.3217;
258.0000;0.8653;1.3264;
258.3000;0.8637;1.3240;
258.6000;0.8669;1.3287;
258.9000;0.8653;1.3310;
259.2000;0.8653;1.3217;
259.5000;0.8661;1.3147;
259.8000;0.8645;1.3077;
260.1000;0.8645;1.3101;
260.4000;0.8694;1.3310;
260.7000;0.8661;1.3147;
261.0000;0.8645;1.3147;
261.3000;0.8604;1.3054;
261.6000;0.8620;1.3077;
261.9000;0.8653;1.3101;
262.2000;0.8685;1.3287;
262.5000;0.8637;1.3124;
262.8000;0.8645;1.3147;
263.1000;0.8653;1.3147;
263.4000;0.8637;1.3171;
263.7000;0.8628;1.3147;
264.0000;0.8653;1.3240;
264.3000;0.8628;1.3217;
264.6000;0.8653;1.3287;
264.9000;0.8628;1.3264;
265.2000;0.8628;1.3264;
265.5000;0.8637;1.3310;
265.8000;0.8669;1.3427;
266.1000;0.8645;1.3404;
266.4000;0.8620;1.3334;
266.7000;0.8628;1.3287;
267.0000;0.8620;1.3240;
267.3000;0.8637;1.3264;
267.6000;0.8620;1.3124;
267.9000;0.8661;1.3264;
268.2000;0.8637;1.3217;
268.5000;0.8637;1.3240;
268.8000;0.8604;1.3217;
269.1000;0.8620;1.3240;
269.4000;0.8645;1.3264;
269.7000;0.8612;1.3264;
270.0000;0.8628;1.3264;
270.3000;0.8612;1.3217;
270.6000;0.8628;1.3334;
270.9000;0.8653;1.3404;
271.2000;0.8645;1.3287;
271.5000;0.8661;1.3334;
271.8000;0.8637;1.3357;
272.1000;0.8628;1.3287;
272.4000;0.8710;1.3450;
272.7000;0.8645;1.3287;
273.0000;0.8637;1.3217;
273.3000;0.8645;1.3287;
273.6000;0.8612;1.3171;
273.9000;0.8628;1.3217;
274.2000;0.8653;1.3264;
274.5000;0.8637;1.3264;
274.8000;0.8677;1.3427;
275.1000;0.8637;1.3380;
275.4000;0.8628;1.3357;
275.7000;0.8637;1.3474;
276.0000;0.8628;1.3567;
276.3000;0.8563;1.3520;
276.6000;0.8612;1.3613;
276.9000;0.8653;1.3613;
277.2000;0.8645;1.3637;
277.5000;0.8645;1.3613;
277.8000;0.8571;1.3427;
278.1000;0.8653;1.3660;
278.4000;0.8661;1.3707;
278.7000;0.8637;1.3613;
279.0000;0.8620;1.3497;
279.3000;0.8604;1.3427;
279.6000;0.8620;1.3404;
279.9000;0.8620;1.3380;
280.2000;0.8612;1.3380;
280.5000;0.8726;1.3637;
280.8000;0.8620;1.3497;
281.1000;0.8612;1.3334;
281.4000;0.8555;1.3194;
281.7000;0.8604;1.3264;
282.0000;0.8620;1.3240;
282.3000;0.8620;1.3310;
282.6000;0.8628;1.3357;
282.9000;0.8637;1.3404;
283.2000;0.8620;1.3334;
283.5000;0.8628;1.3287;
283.8000;0.8612;1.3264;
284.1000;0.8612;1.3264;
284.4000;0.8620;1.3240;
284.7000;0.8637;1.3240;
285.0000;0.8685;1.3404;
285.3000;0.8637;1.3310;
285.6000;0.8783;1.3683;
285.9000;0.8637;1.3404;
286.2000;0.8637;1.3357;
286.5000;0.8628;1.3334;
286.8000;0.8620;1.3287;
287.1000;0.8645;1.3287;
287.4000;0.8628;1.3264;
287.7000;0.8637;1.3287;
288.0000;0.8620;1.3240;
288.3000;0.8612;1.3380;
288.6000;0.8620;1.3310;
288.9000;0.8620;1.3334;
289.2000;0.8637;1.3334;
289.5000;0.8628;1.3310;
289.8000;0.8620;1.3287;
290.1000;0.8702;1.3520;
290.4000;0.8620;1.3380;
290.7000;0.8604;1.3427;
291.0000;0.8580;1.3404;
291.3000;0.8620;1.3543;
291.6000;0.8637;1.3613;
291.9000;0.8531;1.3380;
292.2000;0.8612;1.3520;
292.5000;0.8620;1.3567;
292.8000;0.8620;1.3590;
293.1000;0.8628;1.3543;
293.4000;0.8604;1.3450;
293.7000;0.8628;1.3450;
294.0000;0.8628;1.3474;
294.3000;0.8612;1.3427;
294.6000;0.8612;1.3520;
294.9000;0.8604;1.3474;
295.2000;0.8628;1.3497;
295.5000;0.8661;1.3474;
295.8000;0.8628;1.3474;
296.1000;0.8637;1.3450;
296.4000;0.8645;1.3497;
296.7000;0.8637;1.3497;
297.0000;0.8637;1.3474;
297.3000;0.8645;1.3543;
297.6000;0.8620;1.3497;
297.9000;0.8588;1.3427;
298.2000;0.8612;1.3497;
298.5000;0.8604;1.3450;
298.8000;0.8628;1.3497;
299.1000;0.8710;1.3730;
299.4000;0.8628;1.3567;
299.7000;0.8637;1.3590;
300.0000;0.8677;1.3637;
300.3000;0.8645;1.3613;
300.6000;0.8628;1.3567;
300.9000;0.8596;1.3450;
301.2000;0.8628;1.3497;
301.5000;0.8612;1.3427;
301.8000;0.8628;1.3474;
302.1000;0.8628;1.3590;
302.4000;0.8620;1.3474;
302.7000;0.8628;1.3380;
303.0000;0.8612;1.3427;
303.3000;0.8620;1.3474;
303.6000;0.8620;1.3497;
303.9000;0.8661;1.3613;
304.2000;0.8628;1.3543;
304.5000;0.8580;1.3450;
304.8000;0.8612;1.3543;
305.1000;0.8628;1.3520;
305.4000;0.8620;1.3450;
305.7000;0.8620;1.3497;
306.0000;0.8620;1.3474;
306.3000;0.8612;1.3474;
306.6000;0.8555;1.3287;
306.9000;0.8620;1.3427;
307.2000;0.8555;1.3240;
307.5000;0.8628;1.3427;
307.8000;0.8588;1.3450;
308.1000;0.8596;1.3474;
308.4000;0.8596;1.3520;
308.7000;0.8620;1.3590;
309.0000;0.8653;1.3567;
309.3000;0.8596;1.3427;
309.6000;0.8604;1.3450;
309.9000;0.8661;1.3450;
310.2000;0.8612;1.3287;
310.5000;0.8628;1.3427;
310.8000;0.8628;1.3520;
311.1000;0.8612;1.3497;
311.4000;0.8612;1.3520;
311.7000;0.8620;1.3543;
312.0000;0.8612;1.3567;
312.3000;0.8628;1.3543;
312.6000;0.8612;1.3497;
312.9000;0.8620;1.3497;
313.2000;0.8612;1.3543;
313.5000;0.8612;1.3567;
313.8000;0.8612;1.3497;
314.1000;0.8612;1.3497;
314.4000;0.8620;1.3497;
314.7000;0.8637;1.3567;
315.0000;0.8604;1.3543;
315.3000;0.8628;1.3567;
315.6000;0.8506;1.3217;
315.9000;0.8620;1.3474;
316.2000;0.8620;1.3474;
316.5000;0.8612;1.3450;
316.8000;0.8628;1.3497;
317.1000;0.8620;1.3613;
317.4000;0.8620;1.3660;
317.7000;0.8620;1.3637;
318.0000;0.8604;1.3613;
318.3000;0.8620;1.3637;
318.6000;0.8677;1.3800;
318.9000;0.8604;1.3590;
319.2000;0.8612;1.3543;
319.5000;0.8612;1.3543;
319.8000;0.8620;1.3637;
320.1000;0.8563;1.3450;
320.4000;0.8612;1.3474;
320.7000;0.8620;1.3474;
321.0000;0.8628;1.3450;
321.3000;0.8669;1.3450;
321.6000;0.8620;1.3380;
321.9000;0.8637;1.3450;
322.2000;0.8637;1.3450;
322.5000;0.8563;1.3334;
322.8000;0.8612;1.3404;
323.1000;0.8604;1.3357;
323.4000;0.8685;1.3474;
323.7000;0.8523;1.3101;
324.0000;0.8604;1.3357;
324.3000;0.8620;1.3357;
324.6000;0.8620;1.3357;
324.9000;0.8620;1.3310;
325.2000;0.8604;1.3287;
325.5000;0.8604;1.3240;
325.8000;0.8612;1.3264;
326.1000;0.8620;1.3357;
326.4000;0.8612;1.3380;
326.7000;0.8612;1.3287;
327.0000;0.8628;1.3147;
327.3000;0.8604;1.3124;
327.6000;0.8620;1.3240;
327.9000;0.8702;1.3450;
328.2000;0.8612;1.3264;
328.5000;0.8620;1.3287;
328.8000;0.8604;1.3240;
329.1000;0.8612;1.3240;
329.4000;0.8571;1.3171;
329.7000;0.8620;1.3380;
330.0000;0.8620;1.3450;
330.3000;0.8604;1.3497;
330.6000;0.8620;1.3427;
330.9000;0.8637;1.3474;
331.2000;0.8620;1.3497;
331.5000;0.8596;1.3543;
331.8000;0.8612;1.3543;
332.1000;0.8612;1.3590;
332.4000;0.8596;1.3543;
332.7000;0.8612;1.3497;
333.0000;0.8612;1.3497;
333.3000;0.8620;1.3567;
333.6000;0.8620;1.3660;
333.9000;0.8620;1.3590;
334.2000;0.8596;1.3543;
334.5000;0.8620;1.3590;
334.8000;0.8612;1.3520;
335.1000;0.8588;1.3474;
335.4000;0.8612;1.3450;
335.7000;0.8612;1.3404;
336.0000;0.8653;1.3497;
336.3000;0.8604;1.3427;
336.6000;0.8645;1.3520;
336.9000;0.8612;1.3450;
337.2000;0.8653;1.3567;
337.5000;0.8604;1.3474;
337.8000;0.8571;1.3357;
338.1000;0.8563;1.3264;
338.4000;0.8596;1.3240;
338.7000;0.8637;1.3357;
339.0000;0.8645;1.3287;
339.3000;0.8596;1.3217;
339.6000;0.8620;1.3310;
339.9000;0.8645;1.3334;
340.2000;0.8620;1.3404;
340.5000;0.8604;1.3334;
340.8000;0.8628;1.3427;
341.1000;0.8612;1.3380;
341.4000;0.8612;1.3380;
341.7000;0.8612;1.3404;
342.0000;0.8539;1.3310;
342.3000;0.8612;1.3520;
342.6000;0.8596;1.3497;
342.9000;0.8563;1.3450;
343.2000;0.8604;1.3497;
343.5000;0.8620;1.3404;
343.8000;0.8604;1.3357;
344.1000;0.8653;1.3380;
344.4000;0.8604;1.3357;
344.7000;0.8604;1.3450;
345.0000;0.8588;1.3474;
345.3000;0.8580;1.3497;
345.6000;0.8596;1.3474;
345.9000;0.8620;1.3450;
346.2000;0.8661;1.3520;
346.5000;0.8604;1.3380;
346.8000;0.8604;1.3334;
347.1000;0.8596;1.3427;
347.4000;0.8645;1.3637;
347.7000;0.8612;1.3474;
348.0000;0.8620;1.3474;
348.3000;0.8628;1.3427;
348.6000;0.8588;1.3287;
348.9000;0.8596;1.3334;
349.2000;0.8604;1.3404;
349.5000;0.8571;1.3334;
349.8000;0.8645;1.3520;
350.1000;0.8580;1.3427;
350.4000;0.8604;1.3520;
350.7000;0.8588;1.3520;
351.0000;0.8580;1.3520;
351.3000;0.8628;1.3730;
351.6000;0.8596;1.3683;
351.9000;0.8588;1.3683;
352.2000;0.8596;1.3637;
352.5000;0.8637;1.3707;
352.8000;0.8645;1.3660;
353.1000;0.8596;1.3520;
353.4000;0.8612;1.3613;
353.7000;0.8604;1.3637;
354.0000;0.8596;1.3683;
354.3000;0.8596;1.3637;
354.6000;0.8555;1.3474;
354.9000;0.8604;1.3474;
355.2000;0.8547;1.3334;
355.5000;0.8596;1.3357;
355.8000;0.8685;1.3543;
356.1000;0.8612;1.3427;
356.4000;0.8596;1.3497;
356.7000;0.8588;1.3543;
357.0000;0.8612;1.3637;
357.3000;0.8588;1.3567;
357.6000;0.8612;1.3450;
357.9000;0.8580;1.3334;
358.2000;0.8596;1.3404;
358.5000;0.8612;1.3474;
358.8000;0.8596;1.3450;
359.1000;0.8580;1.3590;
359.4000;0.8588;1.3683;
359.7000;0.8596;1.3590;
360.0000;0.8523;1.3427;
360.3000;0.8580;1.3450;
360.6000;0.8563;1.3427;
360.9000;0.8596;1.3543;
361.2000;0.8580;1.3520;
361.5000;0.8580;1.3474;
361.8000;0.8571;1.3474;
362.1000;0.8596;1.3520;
362.4000;0.8588;1.3497;
362.7000;0.8547;1.3474;
363.0000;0.8596;1.3590;
363.3000;0.8604;1.3543;
363.6000;0.8580;1.3427;
363.9000;0.8604;1.3427;
364.2000;0.8604;1.3380;
364.5000;0.8580;1.3404;
364.8000;0.8531;1.3380;
365.1000;0.8596;1.3474;
365.4000;0.8596;1.3497;
365.7000;0.8604;1.3567;
366.0000;0.8588;1.3497;
366.3000;0.8596;1.3613;
366.6000;0.8571;1.3567;
366.9000;0.8571;1.3427;
367.2000;0.8710;1.3753;
367.5000;0.8563;1.3404;
367.8000;0.8620;1.3450;
368.1000;0.8604;1.3450;
368.4000;0.8580;1.3427;
368.7000;0.8604;1.3497;
369.0000;0.8588;1.3613;
369.3000;0.8604;1.3660;
369.6000;0.8612;1.3707;
369.9000;0.8620;1.3730;
370.2000;0.8588;1.3660;
370.5000;0.8588;1.3683;
370.8000;0.8571;1.3683;
371.1000;0.8580;1.3730;
371.4000;0.8563;1.3683;
371.7000;0.8571;1.3823;
372.0000;0.8588;1.3823;
372.3000;0.8588;1.3823;
372.6000;0.8580;1.3660;
372.9000;0.8580;1.3590;
373.2000;0.8571;1.3520;
373.5000;0.8604;1.3450;
373.8000;0.8620;1.3427;
374.1000;0.8596;1.3450;
374.4000;0.8604;1.3497;
374.7000;0.8547;1.3357;
375.0000;0.8580;1.3474;
375.3000;0.8645;1.3520;
375.6000;0.8588;1.3450;
375.9000;0.8596;1.3497;
376.2000;0.8596;1.3567;
376.5000;0.8588;1.3567;
376.8000;0.8588;1.3590;
377.1000;0.8604;1.3613;
377.4000;0.8563;1.3543;
377.7000;0.8596;1.3683;
378.0000;0.8612;1.3637;
378.3000;0.8555;1.3497;
378.6000;0.8596;1.3590;
378.9000;0.8637;1.3660;
379.2000;0.8620;1.3567;
379.5000;0.8604;1.3590;
379.8000;0.8612;1.3590;
380.1000;0.8612;1.3543;
380.4000;0.8580;1.3590;
380.7000;0.8588;1.3637;
381.0000;0.8604;1.3707;
381.3000;0.8580;1.3613;
381.6000;0.8571;1.3613;
381.9000;0.8580;1.3543;
382.2000;0.8588;1.3543;
382.5000;0.8571;1.3497;
382.8000;0.8596;1.3543;
383.1000;0.8604;1.3567;
383.4000;0.8596;1.3474;
383.7000;0.8547;1.3264;
384.0000;0.8555;1.3287;
384.3000;0.8588;1.3404;
384.6000;0.8588;1.3474;
384.9000;0.8563;1.3450;
385.2000;0.8588;1.3520;
385.5000;0.8571;1.3520;
385.8000;0.8612;1.3543;
386.1000;0.8571;1.3427;
386.4000;0.8596;1.3520;
386.7000;0.8580;1.3520;
387.0000;0.8596;1.3567;
387.3000;0.8580;1.3613;
387.6000;0.8580;1.3637;
387.9000;0.8580;1.3520;
388.2000;0.8588;1.3567;
388.5000;0.8596;1.3660;
388.8000;0.8596;1.3777;
389.1000;0.8580;1.3730;
389.4000;0.8580;1.3660;
389.7000;0.8588;1.3590;
390.0000;0.8612;1.3543;
390.3000;0.8596;1.3567;
390.6000;0.8580;1.3520;
390.9000;0.8588;1.3613;
391.2000;0.8604;1.3637;
391.5000;0.8580;1.3613;
391.8000;0.8563;1.3543;
392.1000;0.8563;1.3543;
392.4000;0.8555;1.3450;
392.7000;0.8588;1.3590;
393.0000;0.8588;1.3590;
393.3000;0.8604;1.3660;
393.6000;0.8588;1.3637;
393.9000;0.8588;1.3683;
394.2000;0.8580;1.3660;
394.5000;0.8612;1.3707;
394.8000;0.8580;1.3683;
395.1000;0.8588;1.3683;
395.4000;0.8588;1.3683;
395.7000;0.8571;1.3567;
396.0000;0.8596;1.3543;
396.3000;0.8563;1.3474;
396.6000;0.8596;1.3543;
396.9000;0.8498;1.3287;
397.2000;0.8506;1.3334;
397.5000;0.8588;1.3543;
397.8000;0.8571;1.3567;
398.1000;0.8588;1.3613;
398.4000;0.8571;1.3613;
398.7000;0.8596;1.3777;
399.0000;0.8563;1.3753;
399.3000;0.8580;1.3800;
399.6000;0.8628;1.3940;
399.9000;0.8571;1.3800;
400.2000;0.8596;1.3683;
400.5000;0.8547;1.3613;
400.8000;0.8653;1.3800;
401.1000;0.8555;1.3497;
401.4000;0.8580;1.3567;
401.7000;0.8563;1.3450;
402.0000;0.8563;1.3357;
402.3000;0.8620;1.3613;
402.6000;0.8563;1.3474;
402.9000;0.8612;1.3497;
403.2000;0.8588;1.3404;
403.5000;0.8580;1.3450;
403.8000;0.8604;1.3590;
404.1000;0.8596;1.3380;
404.4000;0.8588;1.3380;
404.7000;0.8604;1.3357;
405.0000;0.8580;1.3217;
405.3000;0.8612;1.3334;
405.6000;0.8596;1.3427;
405.9000;0.8555;1.3380;
406.2000;0.8588;1.3497;
406.5000;0.8547;1.3450;
406.8000;0.8563;1.3474;
407.1000;0.8563;1.3450;
407.4000;0.8563;1.3427;
407.7000;0.8580;1.3380;
408.0000;0.8588;1.3474;
408.3000;0.8580;1.3404;
408.6000;0.8580;1.3380;
408.9000;0.8645;1.3567;
409.2000;0.8645;1.3613;
409.5000;0.8604;1.3543;
409.8000;0.8580;1.3543;
410.1000;0.8571;1.3427;
410.4000;0.8588;1.3520;
410.7000;0.8571;1.3590;
411.0000;0.8547;1.3590;
411.3000;0.8563;1.3590;
411.6000;0.8571;1.3660;
411.9000;0.8563;1.3590;
412.2000;0.8571;1.3474;
412.5000;0.8571;1.3427;
412.8000;0.8547;1.3404;
413.1000;0.8571;1.3543;
413.4000;0.8571;1.3543;
413.7000;0.8571;1.3637;
414.0000;0.8571;1.3613;
414.3000;0.8563;1.3590;
414.6000;0.8555;1.3520;
414.9000;0.8571;1.3660;
415.2000;0.8580;1.3613;
415.5000;0.8637;1.3800;
415.8000;0.8588;1.3683;
416.1000;0.8474;1.3357;
416.4000;0.8637;1.3683;
416.7000;0.8571;1.3613;
417.0000;0.8571;1.3613;
417.3000;0.8596;1.3637;
417.6000;0.8588;1.3590;
417.9000;0.8596;1.3590;
418.2000;0.8604;1.3637;
418.5000;0.8563;1.3474;
418.8000;0.8555;1.3450;
419.1000;0.8571;1.3543;
419.4000;0.8588;1.3567;
419.7000;0.8571;1.3497;
420.0000;0.8555;1.3450;
420.3000;0.8571;1.3427;
420.6000;0.8563;1.3404;
420.9000;0.8571;1.3474;
421.2000;0.8563;1.3404;
421.5000;0.8563;1.3474;
421.8000;0.8580;1.3520;
422.1000;0.8563;1.3404;
422.4000;0.8563;1.3427;
422.7000;0.8555;1.3450;
423.0000;0.8555;1.3427;
423.3000;0.8588;1.3450;
423.6000;0.8620;1.3520;
423.9000;0.8571;1.3474;
424.2000;0.8580;1.3520;
424.5000;0.8588;1.3474;
424.8000;0.8571;1.3520;
425.1000;0.8539;1.3427;
425.4000;0.8555;1.3450;
425.7000;0.8580;1.3427;
426.0000;0.8563;1.3404;
426.3000;0.8580;1.3474;
426.6000;0.8661;1.3637;
426.9000;0.8571;1.3497;
427.2000;0.8563;1.3567;
427.5000;0.8547;1.3567;
427.8000;0.8531;1.3590;
428.1000;0.8580;1.3730;
428.4000;0.8571;1.3660;
428.7000;0.8571;1.3590;
429.0000;0.8620;1.3637;
429.3000;0.8588;1.3474;
429.6000;0.8612;1.3543;
429.9000;0.8580;1.3497;
430.2000;0.8588;1.3520;
430.5000;0.8580;1.3497;
430.8000;0.8571;1.3637;
431.1000;0.8555;1.3497;
431.4000;0.8612;1.3637;
431.7000;0.8571;1.3590;
432.0000;0.8620;1.3660;
432.3000;0.8563;1.3567;
432.6000;0.8563;1.3520;
432.9000;0.8563;1.3567;
433.2000;0.8571;1.3543;
433.5000;0.8571;1.3590;
433.8000;0.8555;1.3543;
434.1000;0.8571;1.3683;
434.4000;0.8547;1.3660;
434.7000;0.8563;1.3590;
435.0000;0.8547;1.3613;
435.3000;0.8563;1.3637;
435.6000;0.8563;1.3660;
435.9000;0.8571;1.3730;
436.2000;0.8571;1.3683;
436.5000;0.8555;1.3613;
436.8000;0.8555;1.3660;
437.1000;0.8555;1.3660;
437.4000;0.8588;1.3683;
437.7000;0.8571;1.3543;
438.0000;0.8563;1.3497;
438.3000;0.8571;1.3474;
438.6000;0.8571;1.3404;
438.9000;0.8571;1.3380;
439.2000;0.8571;1.3474;
439.5000;0.8514;1.3357;
439.8000;0.8596;1.3543;
440.1000;0.8571;1.3497;
440.4000;0.8571;1.3543;
440.7000;0.8539;1.3474;
441.0000;0.8580;1.3637;
441.3000;0.8580;1.3660;
441.6000;0.8612;1.3683;
441.9000;0.8571;1.3543;
442.2000;0.8571;1.3380;
442.5000;0.8571;1.3427;
442.8000;0.8571;1.3520;
443.1000;0.8571;1.3450;
443.4000;0.8580;1.3497;
443.7000;0.8637;1.3613;
444.0000;0.8555;1.3264;
444.3000;0.8571;1.3404;
444.6000;0.8563;1.3497;
444.9000;0.8563;1.3520;
445.2000;0.8563;1.3590;
445.5000;0.8523;1.3474;
445.8000;0.8563;1.3543;
446.1000;0.8547;1.3474;
446.4000;0.8620;1.3613;
446.7000;0.8555;1.3474;
447.0000;0.8531;1.3450;
447.3000;0.8588;1.3590;
447.6000;0.8620;1.3590;
447.9000;0.8571;1.3474;
448.2000;0.8571;1.3427;
448.5000;0.8555;1.3404;
448.8000;0.8580;1.3520;
449.1000;0.8547;1.3543;
449.4000;0.8563;1.3590;
449.7000;0.8563;1.3707;
450.0000;0.8563;1.3707;
450.3000;0.8490;1.3427;
450.6000;0.8555;1.3683;
450.9000;0.8555;1.3730;
451.2000;0.8571;1.3753;
451.5000;0.8571;1.3753;
451.8000;0.8555;1.3730;
452.1000;0.8539;1.3683;
452.4000;0.8580;1.3777;
452.7000;0.8563;1.3777;
453.0000;0.8563;1.3753;
453.3000;0.8555;1.3683;
453.6000;0.8547;1.3683;
453.9000;0.8555;1.3730;
454.2000;0.8547;1.3707;
454.5000;0.8555;1.3637;
454.8000;0.8563;1.3543;
455.1000;0.8571;1.3590;
455.4000;0.8563;1.3613;
455.7000;0.8555;1.3567;
456.0000;0.8604;1.3730;
456.3000;0.8563;1.3590;
456.6000;0.8555;1.3497;
456.9000;0.8555;1.3567;
457.2000;0.8539;1.3450;
457.5000;0.8555;1.3450;
457.8000;0.8539;1.3404;
458.1000;0.8531;1.3380;
458.4000;0.8555;1.3380;
458.7000;0.8514;1.3264;
459.0000;0.8531;1.3287;
459.3000;0.8547;1.3287;
459.6000;0.8555;1.3357;
459.9000;0.8555;1.3380;
460.2000;0.8571;1.3334;
460.5000;0.8645;1.3450;
460.8000;0.8555;1.3287;
461.1000;0.8555;1.3287;
461.4000;0.8571;1.3334;
461.7000;0.8555;1.3334;
462.0000;0.8563;1.3357;
462.3000;0.8547;1.3334;
462.6000;0.8580;1.3474;
462.9000;0.8563;1.3497;
463.2000;0.8563;1.3567;
463.5000;0.8514;1.3497;
463.8000;0.8563;1.3590;
464.1000;0.8498;1.3543;
464.4000;0.8555;1.3683;
464.7000;0.8604;1.3847;
465.0000;0.8571;1.3753;
465.3000;0.8580;1.3753;
465.6000;0.8539;1.3637;
465.9000;0.8563;1.3613;
466.2000;0.8571;1.3590;
466.5000;0.8506;1.3404;
466.8000;0.8571;1.3590;
467.1000;0.8563;1.3590;
467.4000;0.8555;1.3590;
467.7000;0.8571;1.3637;
468.0000;0.8523;1.3520;
468.3000;0.8506;1.3497;
468.6000;0.8482;1.3450;
468.9000;0.8563;1.3590;
469.2000;0.8580;1.3613;
469.5000;0.8539;1.3567;
469.8000;0.8539;1.3520;
470.1000;0.8474;1.3357;
470.4000;0.8531;1.3590;
470.7000;0.8555;1.3637;
471.0000;0.8604;1.3683;
471.3000;0.8653;1.3730;
471.6000;0.8555;1.3427;
471.9000;0.8563;1.3497;
472.2000;0.8547;1.3497;
472.5000;0.8563;1.3543;
472.8000;0.8612;1.3613;
473.1000;0.8547;1.3567;
473.4000;0.8555;1.3520;
473.7000;0.8571;1.3543;
474.0000;0.8531;1.3474;
474.3000;0.8514;1.3567;
474.6000;0.8588;1.3707;
474.9000;0.8547;1.3590;
475.2000;0.8539;1.3543;
475.5000;0.8547;1.3590;
475.8000;0.8563;1.3660;
476.1000;0.8604;1.3823;
476.4000;0.8547;1.3660;
476.7000;0.8523;1.3567;
477.0000;0.8547;1.3637;
477.3000;0.8555;1.3567;
477.6000;0.8539;1.3590;
477.9000;0.8539;1.3613;
478.2000;0.8539;1.3613;
478.5000;0.8555;1.3660;
478.8000;0.8620;1.3800;
479.1000;0.8547;1.3567;
479.4000;0.8539;1.3543;
479.7000;0.8555;1.3497;
480.0000;0.8539;1.3427;
480.3000;0.8539;1.3474;
480.6000;0.8531;1.3543;
480.9000;0.8539;1.3637;
481.2000;0.8563;1.3660;
481.5000;0.8555;1.3637;
481.8000;0.8547;1.3590;
482.1000;0.8563;1.3637;
482.4000;0.8555;1.3683;
482.7000;0.8539;1.3637;
483.0000;0.8555;1.3590;
483.3000;0.8523;1.3567;
483.6000;0.8531;1.3590;
483.9000;0.8555;1.3590;
484.2000;0.8531;1.3660;
484.5000;0.8580;1.3823;
484.8000;0.8555;1.3777;
485.1000;0.8523;1.3683;
485.4000;0.8523;1.3660;
485.7000;0.8539;1.3777;
486.0000;0.8539;1.3800;
486.3000;0.8563;1.3870;
486.6000;0.8555;1.3777;
486.9000;0.8547;1.3823;
487.2000;0.8547;1.3753;
487.5000;0.8531;1.3753;
487.8000;0.8563;1.3777;
488.1000;0.8563;1.3707;
488.4000;0.8531;1.3567;
488.7000;0.8571;1.3543;
489.0000;0.8547;1.3450;
489.3000;0.8571;1.3543;
489.6000;0.8547;1.3497;
489.9000;0.8531;1.3497;
490.2000;0.8588;1.3683;
490.5000;0.8539;1.3683;
490.8000;0.8547;1.3777;
491.1000;0.8596;1.3940;
491.4000;0.8547;1.3823;
491.7000;0.8531;1.3660;
492.0000;0.8596;1.3730;
492.3000;0.8604;1.3730;
492.6000;0.8555;1.3613;
492.9000;0.8474;1.3404;
493.2000;0.8571;1.3660;
493.5000;0.8539;1.3683;
493.8000;0.8449;1.3474;
494.1000;0.8539;1.3707;
494.4000;0.8531;1.3660;
494.7000;0.8555;1.3753;
495.0000;0.8547;1.3870;
495.3000;0.8596;1.3940;
495.6000;0.8563;1.3847;
495.9000;0.8506;1.3730;
496.2000;0.8531;1.3823;
496.5000;0.8563;1.3870;
496.8000;0.8506;1.3683;
497.1000;0.8531;1.3707;
497.4000;0.8547;1.3730;
497.7000;0.8539;1.3753;
498.0000;0.8531;1.3777;
498.3000;0.8531;1.3730;
498.6000;0.8571;1.3730;
498.9000;0.8531;1.3660;
499.2000;0.8547;1.3637;
499.5000;0.8539;1.3590;
499.8000;0.8571;1.3590;
500.1000;0.8563;1.3660;
500.4000;0.8514;1.3450;
500.7000;0.8547;1.3543;
501.0000;0.8539;1.3637;
501.3000;0.8539;1.3660;
501.6000;0.8555;1.3613;
501.9000;0.8539;1.3567;
502.2000;0.8514;1.3567;
502.5000;0.8555;1.3660;
502.8000;0.8563;1.3683;
503.1000;0.8547;1.3707;
503.4000;0.8531;1.3777;
503.7000;0.8539;1.3707;
504.0000;0.8539;1.3660;
504.3000;0.8531;1.3660;
504.6000;0.8482;1.3567;
504.9000;0.8547;1.3683;
505.2000;0.8531;1.3683;
505.5000;0.8523;1.3637;
505.8000;0.8523;1.3613;
506.1000;0.8523;1.3613;
506.4000;0.8539;1.3683;
506.7000;0.8539;1.3590;
507.0000;0.8539;1.3613;
507.3000;0.8498;1.3497;
507.6000;0.8539;1.3660;
507.9000;0.8523;1.3637;
508.2000;0.8571;1.3777;
508.5000;0.8498;1.3613;
508.8000;0.8539;1.3660;
509.1000;0.8555;1.3777;
509.4000;0.8547;1.3753;
509.7000;0.8531;1.3707;
510.0000;0.8514;1.3660;
510.3000;0.8563;1.3777;
510.6000;0.8531;1.3707;
510.9000;0.8523;1.3683;
511.2000;0.8555;1.3730;
511.5000;0.8547;1.3730;
511.8000;0.8523;1.3730;
512.1000;0.8539;1.3730;
512.4000;0.8531;1.3660;
512.7000;0.8555;1.3730;
513.0000;0.8539;1.3683;
513.3000;0.8506;1.3637;
513.6000;0.8531;1.3637;
513.9000;0.8531;1.3660;
514.2000;0.8539;1.3590;
514.5000;0.8571;1.3730;
514.8000;0.8523;1.3707;
515.1000;0.8531;1.3660;
515.4000;0.8547;1.3660;
515.7000;0.8531;1.3567;
516.0000;0.8539;1.3497;
516.3000;0.8539;1.3520;
516.6000;0.8474;1.3357;
516.9000;0.8628;1.3777;
517.2000;0.8523;1.3543;
517.5000;0.8539;1.3613;
517.8000;0.8539;1.3590;
518.1000;0.8531;1.3637;
518.4000;0.8531;1.3637;
518.7000;0.8563;1.3753;
519.0000;0.8531;1.3730;
519.3000;0.8539;1.3683;
519.6000;0.8514;1.3590;
519.9000;0.8539;1.3730;
520.2000;0.8563;1.3753;
520.5000;0.8547;1.3730;
520.8000;0.8547;1.3730;
521.1000;0.8539;1.3707;
521.4000;0.8547;1.3823;
521.7000;0.8547;1.3893;
522.0000;0.8514;1.3800;
522.3000;0.8547;1.3800;
522.6000;0.8523;1.3777;
522.9000;0.8555;1.3916;
523.2000;0.8498;1.3707;
523.5000;0.8555;1.3777;
523.8000;0.8539;1.3777;
524.1000;0.8555;1.3870;
524.4000;0.8539;1.3847;
524.7000;0.8531;1.3823;
525.0000;0.8539;1.3823;
525.3000;0.8531;1.3823;
525.6000;0.8580;1.3823;
525.9000;0.8547;1.3753;
526.2000;0.8580;1.3916;
526.5000;0.8571;1.3893;
526.8000;0.8555;1.3777;
527.1000;0.8539;1.3730;
527.4000;0.8539;1.3707;
527.7000;0.8531;1.3753;
528.0000;0.8539;1.3847;
528.3000;0.8539;1.3870;
528.6000;0.8523;1.3823;
528.9000;0.8547;1.3777;
529.2000;0.8514;1.3683;
529.5000;0.8506;1.3660;
529.8000;0.8523;1.3660;
530.1000;0.8523;1.3637;
530.4000;0.8531;1.3730;
530.7000;0.8531;1.3730;
531.0000;0.8514;1.3683;
531.3000;0.8523;1.3683;
531.6000;0.8523;1.3637;
531.9000;0.8531;1.3707;
532.2000;0.8547;1.3753;
532.5000;0.8547;1.3847;
532.8000;0.8539;1.3847;
533.1000;0.8547;1.3940;
533.4000;0.8539;1.3986;
533.7000;0.8571;1.4080;
534.0000;0.8531;1.4033;
534.3000;0.8580;1.4103;
534.6000;0.8539;1.4056;
534.9000;0.8539;1.4033;
535.2000;0.8539;1.4033;
535.5000;0.8490;1.3870;
535.8000;0.8531;1.3986;
536.1000;0.8539;1.3986;
536.4000;0.8514;1.3847;
536.7000;0.8539;1.3800;
537.0000;0.8514;1.3823;
537.3000;0.8531;1.3870;
537.6000;0.8523;1.3847;
537.9000;0.8555;1.3870;
538.2000;0.8523;1.3847;
538.5000;0.8555;1.3940;
538.8000;0.8539;1.3916;
539.1000;0.8539;1.3823;
539.4000;0.8523;1.3847;
539.7000;0.8531;1.3870;
540.0000;0.8523;1.3870;
540.3000;0.8498;1.3777;
540.6000;0.8539;1.3753;
540.9000;0.8580;1.3870;
541.2000;0.8523;1.3753;
541.5000;0.8523;1.3777;
541.8000;0.8539;1.3777;
542.1000;0.8539;1.3730;
542.4000;0.8523;1.3753;
542.7000;0.8531;1.3823;
543.0000;0.8539;1.3777;
543.3000;0.8523;1.3753;
543.6000;0.8539;1.3777;
543.9000;0.8539;1.3753;
544.2000;0.8531;1.3730;
544.5000;0.8547;1.3777;
544.8000;0.8523;1.3800;
545.1000;0.8555;1.3916;
545.4000;0.8531;1.3847;
545.7000;0.8539;1.3847;
546.0000;0.8514;1.3777;
546.3000;0.8531;1.3777;
546.6000;0.8531;1.3707;
546.9000;0.8539;1.3800;
547.2000;0.8449;1.3613;
547.5000;0.8514;1.3730;
547.8000;0.8563;1.3823;
548.1000;0.8523;1.3800;
548.4000;0.8539;1.3753;
548.7000;0.8514;1.3683;
549.0000;0.8514;1.3683;
549.3000;0.8514;1.3800;
549.6000;0.8523;1.3777;
549.9000;0.8523;1.3777;
550.2000;0.8547;1.3847;
550.5000;0.8531;1.3777;
550.8000;0.8514;1.3777;
551.1000;0.8514;1.3800;
551.4000;0.8506;1.3777;
551.7000;0.8523;1.3753;
552.0000;0.8514;1.3730;
552.3000;0.8506;1.3777;
552.6000;0.8523;1.3800;
552.9000;0.8506;1.3800;
553.2000;0.8506;1.3683;
553.5000;0.8514;1.3707;
553.8000;0.8498;1.3613;
554.1000;0.8531;1.3660;
554.4000;0.8531;1.3637;
554.7000;0.8523;1.3613;
555.0000;0.8523;1.3567;
555.3000;0.8539;1.3543;
555.6000;0.8531;1.3613;
555.9000;0.8531;1.3543;
556.2000;0.8604;1.3660;
556.5000;0.8523;1.3543;
556.8000;0.8523;1.3497;
557.1000;0.8514;1.3497;
557.4000;0.8523;1.3474;
557.7000;0.8547;1.3567;
558.0000;0.8531;1.3543;
558.3000;0.8506;1.3520;
558.6000;0.8523;1.3683;
558.9000;0.8523;1.3660;
559.2000;0.8531;1.3660;
559.5000;0.8523;1.3613;
559.8000;0.8506;1.3590;
560.1000;0.8523;1.3660;
560.4000;0.8523;1.3520;
560.7000;0.8514;1.3404;
561.0000;0.8514;1.3287;
561.3000;0.8523;1.3450;
561.6000;0.8457;1.3357;
561.9000;0.8547;1.3543;
562.2000;0.8514;1.3520;
562.5000;0.8506;1.3543;
562.8000;0.8531;1.3497;
563.1000;0.8539;1.3474;
563.4000;0.8539;1.3474;
563.7000;0.8506;1.3450;
564.0000;0.8409;1.3264;
564.3000;0.8531;1.3450;
564.6000;0.8523;1.3450;
564.9000;0.8531;1.3497;
565.2000;0.8531;1.3543;
565.5000;0.8571;1.3520;
565.8000;0.8539;1.3474;
566.1000;0.8523;1.3613;
566.4000;0.8547;1.3590;
566.7000;0.8539;1.3590;
567.0000;0.8474;1.3543;
567.3000;0.8514;1.3520;
567.6000;0.8506;1.3567;
567.9000;0.8547;1.3637;
568.2000;0.8506;1.3590;
568.5000;0.8523;1.3730;
568.8000;0.8523;1.3683;
569.1000;0.8604;1.3893;
569.4000;0.8466;1.3520;
569.7000;0.8523;1.3613;
570.0000;0.8531;1.3613;
570.3000;0.8547;1.3637;
570.6000;0.8531;1.3637;
570.9000;0.8523;1.3707;
571.2000;0.8498;1.3613;
571.5000;0.8514;1.3660;
571.8000;0.8514;1.3637;
572.1000;0.8523;1.3590;
572.4000;0.8531;1.3567;
572.7000;0.8506;1.3543;
573.0000;0.8514;1.3567;
573.3000;0.8498;1.3543;
573.6000;0.8523;1.3520;
573.9000;0.8523;1.3613;
574.2000;0.8506;1.3660;
574.5000;0.8523;1.3683;
574.8000;0.8506;1.3590;
575.1000;0.8555;1.3730;
575.4000;0.8523;1.3707;
575.7000;0.8539;1.3753;
576.0000;0.8531;1.3730;
576.3000;0.8514;1.3707;
576.6000;0.8514;1.3683;
576.9000;0.8547;1.3730;
577.2000;0.8523;1.3707;
577.5000;0.8539;1.3730;
577.8000;0.8506;1.3707;
578.1000;0.8498;1.3637;
578.4000;0.8539;1.3753;
578.7000;0.8531;1.3753;
579.0000;0.8506;1.3590;
579.3000;0.8531;1.3660;
579.6000;0.8523;1.3660;
579.9000;0.8514;1.3660;
580.2000;0.8580;1.3893;
580.5000;0.8539;1.3683;
580.8000;0.8523;1.3683;
581.1000;0.8531;1.3520;
581.4000;0.8506;1.3520;
581.7000;0.8514;1.3590;
582.0000;0.8547;1.3613;
582.3000;0.8514;1.3660;
582.6000;0.8514;1.3753;
582.9000;0.8531;1.3800;
583.2000;0.8506;1.3753;
583.5000;0.8523;1.3847;
583.8000;0.8506;1.3823;
584.1000;0.8514;1.3870;
584.4000;0.8514;1.3800;
584.7000;0.8514;1.3707;
585.0000;0.8620;1.3823;
585.3000;0.8514;1.3637;
585.6000;0.8555;1.3730;
585.9000;0.8506;1.3613;
586.2000;0.8514;1.3590;
586.5000;0.8514;1.3543;
586.8000;0.8498;1.3450;
587.1000;0.8490;1.3474;
587.4000;0.8596;1.3707;
587.7000;0.8514;1.3474;
588.0000;0.8523;1.3590;
588.3000;0.8506;1.3567;
588.6000;0.8498;1.3543;
588.9000;0.8498;1.3520;
589.2000;0.8506;1.3543;
589.5000;0.8547;1.3543;
589.8000;0.8531;1.3543;
590.1000;0.8514;1.3474;
590.4000;0.8514;1.3543;
590.7000;0.8523;1.3520;
591.0000;0.8523;1.3497;
591.3000;0.8474;1.3404;
591.6000;0.8514;1.3497;
591.9000;0.8547;1.3543;
592.2000;0.8523;1.3567;
592.5000;0.8523;1.3590;
592.8000;0.8490;1.3520;
593.1000;0.8523;1.3543;
593.4000;0.8531;1.3567;
593.7000;0.8531;1.3567;
594.0000;0.8466;1.3380;
594.3000;0.8523;1.3567;
594.6000;0.8523;1.3637;
594.9000;0.8514;1.3613;
595.2000;0.8563;1.3707;
595.5000;0.8523;1.3637;
595.8000;0.8523;1.3567;
596.1000;0.8514;1.3590;
596.4000;0.8531;1.3590;
596.7000;0.8514;1.3613;
597.0000;0.8547;1.3730;
597.3000;0.8514;1.3707;
597.6000;0.8506;1.3590;
597.9000;0.8482;1.3497;
598.2000;0.8523;1.3590;
598.5000;0.8514;1.3660;
598.8000;0.8547;1.3847;
599.1000;0.8506;1.3730;
599.4000;0.8498;1.3707;
599.7000;0.8514;1.3707;
600.0000;0.8539;1.3753;
600.3000;0.8514;1.3590;
600.6000;0.8457;1.3264;
600.9000;0.8360;1.3077;
601.2000;0.8270;1.2984;
601.5000;0.8050;1.2658;
601.8000;0.7985;1.2588;
602.1000;0.7880;1.2378;
602.4000;0.7741;1.2052;
602.7000;0.7660;1.1935;
603.0000;0.7554;1.1772;
603.3000;0.7456;1.1539;
603.6000;0.7375;1.1469;
603.9000;0.7293;1.1329;
604.2000;0.7220;1.1119;
604.5000;0.7326;1.1515;
604.8000;0.7082;1.1003;
605.1000;0.7033;1.0979;
605.4000;0.6935;1.0863;
605.7000;0.6911;1.0839;
606.0000;0.6854;1.0723;
606.3000;0.6732;1.0513;
606.6000;0.6772;1.0723;
606.9000;0.6683;1.0490;
607.2000;0.6683;1.0536;
607.5000;0.6618;1.0397;
607.8000;0.6585;1.0350;
608.1000;0.6553;1.0327;
608.4000;0.6536;1.0327;
608.7000;0.6463;1.0163;
609.0000;0.6398;0.9977;
609.3000;0.6406;0.9954;
609.6000;0.6357;0.9954;
609.9000;0.6284;0.9954;
610.2000;0.6300;1.0047;
610.5000;0.6243;0.9954;
610.8000;0.6252;1.0047;
611.1000;0.6227;1.0047;
611.4000;0.6203;1.0047;
611.7000;0.6081;0.9814;
612.0000;0.6097;0.9884;
612.3000;0.6121;0.9977;
612.6000;0.6146;1.0094;
612.9000;0.6081;0.9954;
613.2000;0.6024;0.9837;
613.5000;0.6040;0.9814;
613.8000;0.5991;0.9721;
614.1000;0.5999;0.9790;
614.4000;0.5983;0.9814;
614.7000;0.5942;0.9744;
615.0000;0.5902;0.9744;
615.3000;0.5918;0.9744;
615.6000;0.5853;0.9697;
615.9000;0.5869;0.9790;
616.2000;0.5869;0.9837;
616.5000;0.5861;0.9814;
616.8000;0.5820;0.9744;
617.1000;0.5739;0.9534;
617.4000;0.5788;0.9651;
617.7000;0.5771;0.9651;
618.0000;0.5747;0.9604;
618.3000;0.5722;0.9627;
618.6000;0.5739;0.9674;
618.9000;0.5828;1.0000;
619.2000;0.5722;0.9744;
619.5000;0.5690;0.9581;
619.8000;0.5633;0.9511;
620.1000;0.5657;0.9651;
620.4000;0.5657;0.9721;
620.7000;0.5625;0.9651;
621.0000;0.5625;0.9651;
621.3000;0.5608;0.9697;
621.6000;0.5625;0.9744;
621.9000;0.5617;0.9697;
622.2000;0.5592;0.9744;
622.5000;0.5592;0.9697;
622.8000;0.5576;0.9604;
623.1000;0.5511;0.9487;
623.4000;0.5551;0.9511;
623.7000;0.5551;0.9534;
624.0000;0.5535;0.9511;
624.3000;0.5519;0.9464;
624.6000;0.5527;0.9464;
624.9000;0.5503;0.9464;
625.2000;0.5511;0.9534;
625.5000;0.5478;0.9511;
625.8000;0.5486;0.9581;
626.1000;0.5486;0.9697;
626.4000;0.5478;0.9651;
626.7000;0.5462;0.9697;
627.0000;0.5438;0.9557;
627.3000;0.5454;0.9627;
627.6000;0.5421;0.9464;
627.9000;0.5438;0.9464;
628.2000;0.5454;0.9557;
628.5000;0.5421;0.9511;
628.8000;0.5405;0.9464;
629.1000;0.5405;0.9464;
629.4000;0.5389;0.9464;
629.7000;0.5381;0.9557;
630.0000;0.5413;0.9627;
630.3000;0.5381;0.9581;
630.6000;0.5381;0.9581;
630.9000;0.5364;0.9581;
631.2000;0.5348;0.9581;
631.5000;0.5364;0.9651;
631.8000;0.5348;0.9697;
632.1000;0.5364;0.9674;
632.4000;0.5340;0.9697;
632.7000;0.5332;0.9674;
633.0000;0.5340;0.9697;
633.3000;0.5315;0.9651;
633.6000;0.5315;0.9674;
633.9000;0.5315;0.9674;
634.2000;0.5299;0.9697;
634.5000;0.5291;0.9697;
634.8000;0.5299;0.9534;
635.1000;0.5291;0.9487;
635.4000;0.5275;0.9417;
635.7000;0.5283;0.9371;
636.0000;0.5275;0.9371;
636.3000;0.5250;0.9301;
636.6000;0.5242;0.9324;
636.9000;0.5283;0.9441;
637.2000;0.5267;0.9394;
637.5000;0.5258;0.9394;
637.8000;0.5250;0.9394;
638.1000;0.5267;0.9557;
638.4000;0.5242;0.9511;
638.7000;0.5210;0.9604;
639.0000;0.5250;0.9744;
639.3000;0.5250;0.9790;
639.6000;0.5258;0.9790;
639.9000;0.5226;0.9767;
640.2000;0.5193;0.9767;
640.5000;0.5218;0.9767;
640.8000;0.5201;0.9697;
641.1000;0.5120;0.9441;
641.4000;0.5193;0.9581;
641.7000;0.5250;0.9744;
642.0000;0.5169;0.9534;
642.3000;0.5177;0.9511;
642.6000;0.5185;0.9581;
642.9000;0.5169;0.9674;
643.2000;0.5193;0.9721;
643.5000;0.5144;0.9651;
643.8000;0.5161;0.9697;
644.1000;0.5169;0.9767;
644.4000;0.5136;0.9674;
644.7000;0.5144;0.9627;
645.0000;0.5153;0.9557;
645.3000;0.5144;0.9464;
645.6000;0.5136;0.9557;
645.9000;0.5055;0.9371;
646.2000;0.5120;0.9511;
646.5000;0.5088;0.9324;
646.8000;0.5144;0.9487;
647.1000;0.5128;0.9487;
647.4000;0.5153;0.9394;
647.7000;0.5112;0.9301;
648.0000;0.5144;0.9324;
648.3000;0.5112;0.9301;
648.6000;0.5112;0.9348;
648.9000;0.5104;0.9417;
649.2000;0.5104;0.9441;
649.5000;0.5071;0.9511;
649.8000;0.5104;0.9674;
650.1000;0.5104;0.9697;
650.4000;0.5136;0.9721;
650.7000;0.5079;0.9604;
651.0000;0.5096;0.9534;
651.3000;0.5079;0.9534;
651.6000;0.5079;0.9581;
651.9000;0.5120;0.9557;
652.2000;0.5088;0.9441;
652.5000;0.5063;0.9441;
652.8000;0.5071;0.9464;
653.1000;0.5088;0.9464;
653.4000;0.5071;0.9417;
653.7000;0.5088;0.9534;
654.0000;0.5055;0.9487;
654.3000;0.5063;0.9604;
654.6000;0.5055;0.9697;
654.9000;0.5071;0.9721;
655.2000;0.5047;0.9744;
655.5000;0.5063;0.9790;
655.8000;0.5039;0.9674;
656.1000;0.5047;0.9651;
656.4000;0.5063;0.9627;
656.7000;0.5014;0.9557;
657.0000;0.4998;0.9534;
657.3000;0.5022;0.9557;
657.6000;0.5039;0.9534;
657.9000;0.5039;0.9511;
658.2000;0.5031;0.9487;
658.5000;0.4974;0.9487;
658.8000;0.5006;0.9534;
659.1000;0.5006;0.9464;
659.4000;0.5006;0.9487;
659.7000;0.5006;0.9557;
660.0000;0.4990;0.9464;
660.3000;0.5014;0.9581;
660.6000;0.4982;0.9534;
660.9000;0.4965;0.9487;
661.2000;0.4982;0.9557;
661.5000;0.4990;0.9581;
661.8000;0.5031;0.9651;
662.1000;0.4990;0.9534;
662.4000;0.4998;0.9511;
662.7000;0.4990;0.9557;
663.0000;0.5014;0.9651;
663.3000;0.4990;0.9627;
663.6000;0.4990;0.9697;
663.9000;0.4974;0.9581;
664.2000;0.4998;0.9697;
664.5000;0.4957;0.9744;
664.8000;0.4974;0.9767;
665.1000;0.4957;0.9744;
665.4000;0.4974;0.9814;
665.7000;0.4949;0.9744;
666.0000;0.4982;0.9790;
666.3000;0.4965;0.9721;
666.6000;0.4965;0.9651;
666.9000;0.4949;0.9721;
667.2000;0.4957;0.9721;
667.5000;0.4900;0.9674;
667.8000;0.4925;0.9767;
668.1000;0.4933;0.9767;
668.4000;0.4941;0.9721;
668.7000;0.4949;0.9697;
669.0000;0.4925;0.9534;
669.3000;0.4925;0.9534;
669.6000;0.4917;0.9581;
669.9000;0.4982;0.9744;
670.2000;0.4900;0.9604;
670.5000;0.4917;0.9697;
670.8000;0.4917;0.9721;
671.1000;0.4917;0.9790;
671.4000;0.4900;0.9721;
671.7000;0.4933;0.9767;
672.0000;0.4925;0.9721;
672.3000;0.4917;0.9721;
672.6000;0.4933;0.9721;
672.9000;0.4900;0.9674;
673.2000;0.4908;0.9674;
673.5000;0.4917;0.9627;
673.8000;0.4933;0.9744;
674.1000;0.4925;0.9744;
674.4000;0.4900;0.9697;
674.7000;0.4908;0.9721;
675.0000;0.4876;0.9651;
675.3000;0.4925;0.9721;
675.6000;0.4908;0.9697;
675.9000;0.4908;0.9651;
676.2000;0.4900;0.9674;
676.5000;0.4884;0.9674;
676.8000;0.4892;0.9790;
677.1000;0.4884;0.9744;
677.4000;0.4917;0.9721;
677.7000;0.4908;0.9604;
678.0000;0.4892;0.9604;
678.3000;0.4860;0.9581;
678.6000;0.4933;0.9674;
678.9000;0.4990;0.9767;
679.2000;0.4884;0.9464;
679.5000;0.4843;0.9371;
679.8000;0.4851;0.9487;
680.1000;0.4876;0.9557;
680.4000;0.4803;0.9348;
680.7000;0.4868;0.9487;
681.0000;0.4811;0.9487;
681.3000;0.4868;0.9511;
681.6000;0.4876;0.9417;
681.9000;0.4851;0.9371;
682.2000;0.4876;0.9487;
682.5000;0.4860;0.9511;
682.8000;0.4868;0.9534;
683.1000;0.4884;0.9581;
683.4000;0.4851;0.9581;
683.7000;0.4868;0.9627;
684.0000;0.4835;0.9581;
684.3000;0.4819;0.9557;
684.6000;0.4876;0.9651;
684.9000;0.4843;0.9581;
685.2000;0.4868;0.9674;
685.5000;0.4860;0.9721;
685.8000;0.4843;0.9790;
686.1000;0.4827;0.9767;
686.4000;0.4843;0.9790;
686.7000;0.4851;0.9767;
687.0000;0.4835;0.9651;
687.3000;0.4811;0.9651;
687.6000;0.4843;0.9674;
687.9000;0.4835;0.9697;
688.2000;0.4770;0.9651;
688.5000;0.4819;0.9744;
688.8000;0.4827;0.9767;
689.1000;0.4827;0.9721;
689.4000;0.4835;0.9674;
689.7000;0.4876;0.9814;
690.0000;0.4803;0.9697;
690.3000;0.4827;0.9744;
690.6000;0.4835;0.9627;
690.9000;0.4811;0.9511;
691.2000;0.4827;0.9604;
691.5000;0.4811;0.9557;
691.8000;0.4803;0.9581;
692.1000;0.4794;0.9627;
692.4000;0.4819;0.9651;
692.7000;0.4803;0.9651;
693.0000;0.4811;0.9697;
693.3000;0.4811;0.9674;
693.6000;0.4786;0.9651;
693.9000;0.4811;0.9721;
694.2000;0.4819;0.9790;
694.5000;0.4835;0.9767;
694.8000;0.4786;0.9674;
695.1000;0.4754;0.9744;
695.4000;0.4794;0.9790;
695.7000;0.4835;0.9790;
696.0000;0.4803;0.9651;
696.3000;0.4778;0.9581;
696.6000;0.4811;0.9651;
696.9000;0.4803;0.9744;
697.2000;0.4794;0.9767;
697.5000;0.4697;0.9557;
697.8000;0.4778;0.9744;
698.1000;0.4770;0.9790;
698.4000;0.4770;0.9767;
698.7000;0.4786;0.9744;
699.0000;0.4835;0.9860;
699.3000;0.4803;0.9697;
699.6000;0.4794;0.9767;
699.9000;0.4672;0.9487;
700.2000;0.4770;0.9674;
700.5000;0.4786;0.9604;
700.8000;0.4770;0.9604;
701.1000;0.4778;0.9581;
701.4000;0.4762;0.9557;
701.7000;0.4762;0.9627;
702.0000;0.4762;0.9581;
702.3000;0.4754;0.9557;
702.6000;0.4778;0.9651;
702.9000;0.4746;0.9627;
703.2000;0.4754;0.9674;
703.5000;0.4754;0.9744;
703.8000;0.4746;0.9697;
704.1000;0.4819;0.9907;
704.4000;0.4705;0.9604;
704.7000;0.4746;0.9697;
705.0000;0.4746;0.9697;
705.3000;0.4746;0.9767;
705.6000;0.4762;0.9814;
705.9000;0.4754;0.9790;
706.2000;0.4737;0.9721;
706.5000;0.4737;0.9744;
706.8000;0.4746;0.9767;
707.1000;0.4746;0.9814;
707.4000;0.4746;0.9697;
707.7000;0.4746;0.9767;
708.0000;0.4746;0.9790;
708.3000;0.4746;0.9837;
708.6000;0.4746;0.9930;
708.9000;0.4754;0.9907;
709.2000;0.4737;0.9907;
709.5000;0.4721;0.9814;
709.8000;0.4737;0.9790;
710.1000;0.4746;0.9860;
710.4000;0.4737;0.9907;
710.7000;0.4737;1.0000;
711.0000;0.4729;0.9954;
711.3000;0.4729;0.9860;
711.6000;0.4729;0.9907;
711.9000;0.4721;1.0047;
712.2000;0.4729;1.0094;
712.5000;0.4737;1.0070;
712.8000;0.4713;1.0047;
713.1000;0.4729;1.0070;
713.4000;0.4705;1.0047;
713.7000;0.4721;1.0024;
714.0000;0.4705;0.9977;
714.3000;0.4689;0.9884;
714.6000;0.4713;0.9930;
714.9000;0.4713;0.9977;
715.2000;0.4729;1.0000;
715.5000;0.4713;1.0000;
715.8000;0.4770;1.0257;
716.1000;0.4689;1.0094;
716.4000;0.4697;1.0070;
716.7000;0.4689;1.0047;
717.0000;0.4729;1.0187;
717.3000;0.4762;1.0233;
717.6000;0.4705;1.0000;
717.9000;0.4705;0.9977;
718.2000;0.4729;1.0024;
718.5000;0.4689;0.9954;
718.8000;0.4689;1.0000;
719.1000;0.4672;1.0000;
719.4000;0.4697;1.0117;
719.7000;0.4770;1.0466;
720.0000;0.4721;1.0257;
720.3000;0.4681;1.0187;
720.6000;0.4705;1.0187;
720.9000;0.4729;1.0163;
721.2000;0.4778;1.0140;
721.5000;0.4697;0.9907;
721.8000;0.4689;0.9930;
722.1000;0.4624;0.9744;
722.4000;0.4705;0.9907;
722.7000;0.4697;0.9860;
723.0000;0.4656;0.9860;
723.3000;0.4681;0.9884;
723.6000;0.4672;0.9954;
723.9000;0.4681;0.9930;
724.2000;0.4697;1.0000;
724.5000;0.4664;0.9977;
724.8000;0.4672;0.9954;
725.1000;0.4697;1.0024;
725.4000;0.4681;0.9930;
725.7000;0.4746;1.0117;
726.0000;0.4672;1.0000;
726.3000;0.4697;1.0047;
726.6000;0.4729;1.0094;
726.9000;0.4672;0.9954;
727.2000;0.4689;0.9884;
727.5000;0.4681;0.9907;
727.8000;0.4689;0.9930;
728.1000;0.4681;0.9790;
728.4000;0.4681;0.9697;
728.7000;0.4746;0.9954;
729.0000;0.4681;0.9767;
729.3000;0.4672;0.9767;
729.6000;0.4689;0.9790;
729.9000;0.4681;0.9767;
730.2000;0.4681;0.9790;
730.5000;0.4713;0.9884;
730.8000;0.4681;0.9814;
731.1000;0.4664;0.9767;
731.4000;0.4672;0.9814;
731.7000;0.4689;0.9860;
732.0000;0.4664;0.9744;
732.3000;0.4656;0.9721;
732.6000;0.4656;0.9721;
732.9000;0.4648;0.9790;
733.2000;0.4558;0.9511;
733.5000;0.4664;0.9744;
733.8000;0.4672;0.9767;
734.1000;0.4672;0.9674;
734.4000;0.4664;0.9674;
734.7000;0.4632;0.9627;
735.0000;0.4664;0.9674;
735.3000;0.4599;0.9534;
735.6000;0.4664;0.9581;
735.9000;0.4648;0.9534;
736.2000;0.4656;0.9627;
736.5000;0.4656;0.9627;
736.8000;0.4664;0.9604;
737.1000;0.4656;0.9674;
737.4000;0.4664;0.9557;
737.7000;0.4656;0.9627;
738.0000;0.4550;0.9417;
738.3000;0.4640;0.9721;
738.6000;0.4705;0.9930;
738.9000;0.4681;0.9907;
739.2000;0.4656;0.9790;
739.5000;0.4632;0.9767;
739.8000;0.4681;0.9837;
740.1000;0.4664;0.9721;
740.4000;0.4681;0.9790;
740.7000;0.4640;0.9721;
741.0000;0.4664;0.9767;
741.3000;0.4705;0.9930;
741.6000;0.4656;0.9814;
741.9000;0.4664;0.9884;
742.2000;0.4648;0.9884;
742.5000;0.4648;0.9977;
742.8000;0.4648;0.9977;
743.1000;0.4664;0.9954;
743.4000;0.4664;1.0000;
743.7000;0.4632;0.9860;
744.0000;0.4648;0.9814;
744.3000;0.4640;0.9860;
744.6000;0.4632;0.9837;
744.9000;0.4648;0.9884;
745.2000;0.4640;0.9884;
745.5000;0.4648;0.9977;
745.8000;0.4640;0.9954;
746.1000;0.4632;0.9977;
746.4000;0.4689;1.0094;
746.7000;0.4656;0.9930;
747.0000;0.4542;0.9721;
747.3000;0.4648;1.0024;
747.6000;0.4632;1.0024;
747.9000;0.4697;1.0233;
748.2000;0.4640;1.0187;
748.5000;0.4624;1.0117;
748.8000;0.4607;1.0047;
749.1000;0.4713;1.0327;
749.4000;0.4632;1.0140;
749.7000;0.4624;1.0047;
750.0000;0.4591;0.9884;
750.3000;0.4624;0.9837;
750.6000;0.4615;0.9767;
750.9000;0.4632;0.9884;
751.2000;0.4624;0.9930;
751.5000;0.4583;0.9907;
751.8000;0.4664;1.0094;
752.1000;0.4615;0.9977;
752.4000;0.4615;0.9930;
752.7000;0.4607;0.9907;
753.0000;0.4640;1.0047;
753.3000;0.4607;1.0000;
753.6000;0.4615;1.0117;
753.9000;0.4624;1.0140;
754.2000;0.4615;1.0094;
754.5000;0.4615;1.0024;
754.8000;0.4607;1.0047;
755.1000;0.4607;1.0117;
755.4000;0.4607;1.0117;
755.7000;0.4632;1.0140;
756.0000;0.4672;1.0257;
756.3000;0.4591;1.0024;
756.6000;0.4615;1.0070;
756.9000;0.4632;1.0117;
757.2000;0.4640;1.0187;
757.5000;0.4591;0.9954;
757.8000;0.4599;0.9954;
758.1000;0.4599;0.9977;
758.4000;0.4607;0.9954;
758.7000;0.4615;1.0047;
759.0000;0.4624;1.0070;
759.3000;0.4583;0.9930;
759.6000;0.4615;0.9954;
759.9000;0.4607;0.9907;
760.2000;0.4607;1.0000;
760.5000;0.4615;0.9977;
760.8000;0.4624;0.9930;
761.1000;0.4591;0.9837;
761.4000;0.4615;0.9814;
761.7000;0.4607;0.9814;
762.0000;0.4672;1.0000;
762.3000;0.4599;0.9860;
762.6000;0.4599;0.9884;
762.9000;0.4583;0.9860;
763.2000;0.4599;0.9837;
763.5000;0.4607;0.9884;
763.8000;0.4607;0.9860;
764.1000;0.4583;0.9837;
764.4000;0.4591;0.9860;
764.7000;0.4583;0.9930;
765.0000;0.4583;0.9814;
765.3000;0.4567;0.9767;
765.6000;0.4591;0.9884;
765.9000;0.4599;0.9907;
766.2000;0.4599;0.9930;
766.5000;0.4575;0.9814;
766.8000;0.4599;0.9837;
767.1000;0.4591;0.9767;
767.4000;0.4591;0.9721;
767.7000;0.4575;0.9674;
768.0000;0.4599;0.9767;
768.3000;0.4599;0.9790;
768.6000;0.4567;0.9790;
768.9000;0.4591;0.9837;
769.2000;0.4583;0.9860;
769.5000;0.4607;0.9930;
769.8000;0.4583;0.9837;
770.1000;0.4599;0.9837;
770.4000;0.4599;0.9884;
770.7000;0.4567;0.9837;
771.0000;0.4567;0.9884;
771.3000;0.4591;0.9930;
771.6000;0.4542;0.9814;
771.9000;0.4591;0.9884;
772.2000;0.4599;0.9860;
772.5000;0.4591;0.9860;
772.8000;0.4607;1.0000;
773.1000;0.4575;1.0047;
773.4000;0.4477;0.9790;
773.7000;0.4583;1.0070;
774.0000;0.4583;1.0000;
774.3000;0.4558;0.9884;
774.6000;0.4558;0.9884;
774.9000;0.4534;0.9790;
775.2000;0.4550;0.9837;
775.5000;0.4567;0.9907;
775.8000;0.4558;0.9907;
776.1000;0.4575;0.9884;
776.4000;0.4550;0.9837;
776.7000;0.4567;0.9907;
777.0000;0.4599;0.9977;
777.3000;0.4534;0.9837;
777.6000;0.4542;0.9954;
777.9000;0.4550;0.9930;
778.2000;0.4567;0.9860;
778.5000;0.4542;0.9814;
778.8000;0.4575;0.9907;
779.1000;0.4558;0.9860;
779.4000;0.4607;0.9930;
779.7000;0.4567;0.9860;
780.0000;0.4599;0.9837;
780.3000;0.4591;0.9907;
780.6000;0.4558;0.9744;
780.9000;0.4542;0.9721;
781.2000;0.4567;0.9697;
781.5000;0.4567;0.9767;
781.8000;0.4558;0.9790;
782.1000;0.4567;0.9814;
782.4000;0.4558;0.9860;
782.7000;0.4542;0.9860;
783.0000;0.4567;0.9907;
783.3000;0.4575;0.9884;
783.6000;0.4550;0.9930;
783.9000;0.4567;0.9930;
784.2000;0.4542;0.9884;
784.5000;0.4542;0.9790;
784.8000;0.4567;0.9814;
785.1000;0.4558;0.9860;
785.4000;0.4526;0.9837;
785.7000;0.4599;1.0047;
786.0000;0.4550;0.9930;
786.3000;0.4526;0.9930;
786.6000;0.4558;1.0024;
786.9000;0.4567;1.0117;
787.2000;0.4542;1.0094;
787.5000;0.4550;1.0140;
787.8000;0.4510;1.0024;
788.1000;0.4558;1.0117;
788.4000;0.4526;1.0117;
788.7000;0.4518;1.0047;
789.0000;0.4558;1.0117;
789.3000;0.4542;1.0094;
789.6000;0.4534;1.0070;
789.9000;0.4501;1.0000;
790.2000;0.4575;1.0163;
790.5000;0.4550;1.0094;
790.8000;0.4550;0.9954;
791.1000;0.4534;0.9814;
791.4000;0.4550;0.9837;
791.7000;0.4558;0.9860;
792.0000;0.4534;0.9860;
792.3000;0.4534;0.9837;
792.6000;0.4542;0.9954;
792.9000;0.4567;1.0070;
793.2000;0.4550;1.0024;
793.5000;0.4526;0.9837;
793.8000;0.4542;0.9837;
794.1000;0.4534;0.9884;
794.4000;0.4518;0.9744;
794.7000;0.4518;0.9744;
795.0000;0.4542;0.9884;
795.3000;0.4550;0.9977;
795.6000;0.4477;0.9930;
795.9000;0.4591;1.0163;
796.2000;0.4526;1.0140;
796.5000;0.4542;1.0094;
796.8000;0.4526;1.0000;
797.1000;0.4542;1.0000;
797.4000;0.4453;0.9814;
797.7000;0.4526;1.0024;
798.0000;0.4542;1.0024;
798.3000;0.4518;0.9977;
798.6000;0.4558;1.0070;
798.9000;0.4583;1.0047;
799.2000;0.4526;0.9954;
799.5000;0.4542;1.0000;
799.8000;0.4534;0.9930;
800.1000;0.4542;0.9907;
800.4000;0.4526;1.0000;
800.7000;0.4526;1.0000;
801.0000;0.4550;0.9954;
801.3000;0.4526;0.9884;
801.6000;0.4534;0.9837;
801.9000;0.4542;0.9860;
802.2000;0.4526;0.9744;
802.5000;0.4534;0.9790;
802.8000;0.4534;0.9884;
803.1000;0.4526;0.9884;
803.4000;0.4526;0.9767;
803.7000;0.4567;0.9767;
804.0000;0.4526;0.9674;
804.3000;0.4526;0.9674;
804.6000;0.4526;0.9721;
804.9000;0.4526;0.9790;
805.2000;0.4558;0.9930;
805.5000;0.4542;0.9907;
805.8000;0.4534;0.9907;
806.1000;0.4510;0.9814;
806.4000;0.4534;0.9860;
806.7000;0.4510;0.9744;
807.0000;0.4510;0.9744;
807.3000;0.4526;0.9790;
807.6000;0.4510;0.9860;
807.9000;0.4518;1.0000;
808.2000;0.4534;1.0094;
808.5000;0.4575;1.0303;
808.8000;0.4469;1.0047;
809.1000;0.4558;1.0280;
809.4000;0.4526;1.0140;
809.7000;0.4493;1.0070;
810.0000;0.4542;1.0070;
810.3000;0.4493;0.9954;
810.6000;0.4599;1.0187;
810.9000;0.4485;0.9907;
811.2000;0.4591;1.0140;
811.5000;0.4485;0.9837;
811.8000;0.4485;0.9790;
812.1000;0.4567;0.9977;
812.4000;0.4501;0.9837;
812.7000;0.4510;0.9884;
813.0000;0.4510;1.0000;
813.3000;0.4436;0.9721;
813.6000;0.4550;0.9930;
813.9000;0.4526;0.9884;
814.2000;0.4453;0.9674;
814.5000;0.4518;0.9907;
814.8000;0.4493;0.9837;
815.1000;0.4534;0.9907;
815.4000;0.4518;0.9930;
815.7000;0.4526;0.9977;
816.0000;0.4493;0.9930;
816.3000;0.4501;1.0024;
816.6000;0.4518;1.0047;
816.9000;0.4469;0.9954;
817.2000;0.4518;1.0070;
817.5000;0.4469;0.9977;
817.8000;0.4493;1.0117;
818.1000;0.4510;1.0094;
818.4000;0.4510;1.0047;
818.7000;0.4510;1.0000;
819.0000;0.4558;1.0163;
819.3000;0.4518;1.0117;
819.6000;0.4469;1.0024;
819.9000;0.4501;1.0024;
820.2000;0.4485;1.0024;
820.5000;0.4501;1.0024;
820.8000;0.4485;1.0024;
821.1000;0.4493;1.0094;
821.4000;0.4510;1.0094;
821.7000;0.4477;0.9954;
822.0000;0.4510;1.0024;
822.3000;0.4510;1.0047;
822.6000;0.4550;1.0140;
822.9000;0.4493;0.9977;
823.2000;0.4501;0.9954;
823.5000;0.4493;0.9930;
823.8000;0.4493;0.9884;
824.1000;0.4501;0.9930;
824.4000;0.4485;0.9977;
824.7000;0.4510;1.0000;
825.0000;0.4493;1.0047;
825.3000;0.4477;1.0024;
825.6000;0.4493;1.0000;
825.9000;0.4501;1.0047;
826.2000;0.4501;1.0070;
826.5000;0.4526;1.0187;
826.8000;0.4453;0.9954;
827.1000;0.4477;1.0070;
827.4000;0.4485;1.0094;
827.7000;0.4493;1.0117;
828.0000;0.4485;1.0024;
828.3000;0.4469;1.0070;
828.6000;0.4510;1.0140;
828.9000;0.4444;1.0000;
829.2000;0.4501;1.0140;
829.5000;0.4461;0.9977;
829.8000;0.4493;1.0094;
830.1000;0.4469;1.0070;
830.4000;0.4501;1.0140;
830.7000;0.4485;1.0163;
831.0000;0.4493;1.0210;
831.3000;0.4501;1.0280;
831.6000;0.4485;1.0280;
831.9000;0.4493;1.0327;
832.2000;0.4461;1.0257;
832.5000;0.4436;1.0210;
832.8000;0.4493;1.0303;
833.1000;0.4453;1.0094;
833.4000;0.4428;1.0047;
833.7000;0.4501;1.0257;
834.0000;0.4485;1.0187;
834.3000;0.4461;1.0094;
834.6000;0.4501;1.0257;
834.9000;0.4485;1.0187;
835.2000;0.4469;1.0024;
835.5000;0.4453;0.9977;
835.8000;0.4461;1.0000;
836.1000;0.4444;0.9930;
836.4000;0.4493;1.0000;
836.7000;0.4477;0.9907;
837.0000;0.4485;0.9884;
837.3000;0.4477;1.0000;
837.6000;0.4485;1.0000;
837.9000;0.4501;1.0047;
838.2000;0.4477;1.0000;
838.5000;0.4510;1.0140;
838.8000;0.4485;1.0047;
839.1000;0.4485;0.9930;
839.4000;0.4477;0.9884;
839.7000;0.4477;0.9907;
840.0000;0.4477;0.9954;
840.3000;0.4501;0.9884;
840.6000;0.4420;0.9721;
840.9000;0.4477;0.9884;
841.2000;0.4461;1.0000;
841.5000;0.4477;1.0094;
841.8000;0.4469;1.0000;
842.1000;0.4469;0.9977;
842.4000;0.4518;1.0140;
842.7000;0.4493;1.0140;
843.0000;0.4477;1.0210;
843.3000;0.4444;1.0140;
843.6000;0.4469;1.0187;
843.9000;0.4550;1.0420;
844.2000;0.4477;1.0280;
844.5000;0.4477;1.0327;
844.8000;0.4485;1.0397;
845.1000;0.4501;1.0536;
845.4000;0.4477;1.0443;
845.7000;0.4469;1.0350;
846.0000;0.4396;1.0187;
846.3000;0.4485;1.0420;
846.6000;0.4477;1.0280;
846.9000;0.4461;1.0140;
847.2000;0.4469;1.0047;
847.5000;0.4526;1.0140;
847.8000;0.4428;0.9930;
848.1000;0.4469;1.0047;
848.4000;0.4469;0.9930;
848.7000;0.4485;0.9884;
849.0000;0.4461;0.9907;
849.3000;0.4436;0.9884;
849.6000;0.4469;0.9930;
849.9000;0.4469;0.9907;
850.2000;0.4469;0.9954;
850.5000;0.4461;0.9977;
850.8000;0.4461;0.9930;
851.1000;0.4371;0.9744;
851.4000;0.4420;0.9860;
851.7000;0.4461;0.9884;
852.0000;0.4396;0.9697;
852.3000;0.4363;0.9604;
852.6000;0.4453;0.9767;
852.9000;0.4461;0.9790;
853.2000;0.4493;0.9930;
853.5000;0.4469;0.9884;
853.8000;0.4461;0.9907;
854.1000;0.4477;0.9930;
854.4000;0.4436;0.9977;
854.7000;0.4469;1.0094;
855.0000;0.4477;1.0163;
855.3000;0.4444;1.0163;
855.6000;0.4469;1.0210;
855.9000;0.4453;1.0094;
856.2000;0.4461;1.0094;
856.5000;0.4469;1.0117;
856.8000;0.4461;1.0117;
857.1000;0.4461;1.0117;
857.4000;0.4453;1.0024;
857.7000;0.4461;1.0070;
858.0000;0.4428;1.0094;
858.3000;0.4436;1.0070;
858.6000;0.4444;0.9977;
858.9000;0.4436;1.0047;
859.2000;0.4444;1.0140;
859.5000;0.4428;1.0140;
859.8000;0.4453;1.0163;
860.1000;0.4453;1.0187;
860.4000;0.4453;1.0163;
860.7000;0.4550;1.0397;
861.0000;0.4444;1.0094;
861.3000;0.4461;1.0140;
861.6000;0.4444;1.0140;
861.9000;0.4436;1.0233;
862.2000;0.4436;1.0257;
862.5000;0.4444;1.0350;
862.8000;0.4493;1.0536;
863.1000;0.4493;1.0583;
863.4000;0.4436;1.0420;
863.7000;0.4469;1.0397;
864.0000;0.4412;1.0257;
864.3000;0.4444;1.0327;
864.6000;0.4461;1.0350;
864.9000;0.4477;1.0443;
865.2000;0.4461;1.0373;
865.5000;0.4469;1.0373;
865.8000;0.4436;1.0327;
866.1000;0.4444;1.0303;
866.4000;0.4485;1.0350;
866.7000;0.4444;1.0233;
867.0000;0.4404;1.0163;
867.3000;0.4444;1.0350;
867.6000;0.4420;1.0257;
867.9000;0.4420;1.0233;
868.2000;0.4436;1.0280;
868.5000;0.4436;1.0303;
868.8000;0.4420;1.0257;
869.1000;0.4485;1.0373;
869.4000;0.4453;1.0280;
869.7000;0.4469;1.0303;
870.0000;0.4477;1.0233;
870.3000;0.4436;1.0210;
870.6000;0.4469;1.0303;
870.9000;0.4453;1.0280;
871.2000;0.4420;1.0210;
871.5000;0.4444;1.0233;
871.8000;0.4404;1.0140;
872.1000;0.4444;1.0233;
872.4000;0.4436;1.0140;
872.7000;0.4485;1.0187;
873.0000;0.4444;1.0117;
873.3000;0.4477;1.0117;
873.6000;0.4477;1.0094;
873.9000;0.4444;1.0094;
874.2000;0.4453;1.0047;
874.5000;0.4436;0.9977;
874.8000;0.4404;0.9930;
875.1000;0.4412;0.9977;
875.4000;0.4453;1.0140;
875.7000;0.4461;1.0163;
876.0000;0.4461;1.0257;
876.3000;0.4444;1.0140;
876.6000;0.4428;1.0163;
876.9000;0.4436;1.0210;
877.2000;0.4444;1.0257;
877.5000;0.4444;1.0187;
877.8000;0.4436;1.0163;
878.1000;0.4436;1.0140;
878.4000;0.4436;1.0163;
878.7000;0.4453;1.0187;
879.0000;0.4444;1.0210;
879.3000;0.4444;1.0303;
879.6000;0.4461;1.0327;
879.9000;0.4436;1.0257;
880.2000;0.4444;1.0187;
880.5000;0.4453;1.0117;
880.8000;0.4453;1.0117;
881.1000;0.4461;1.0210;
881.4000;0.4420;1.0257;
881.7000;0.4428;1.0257;
882.0000;0.4412;1.0117;
882.3000;0.4420;1.0070;
882.6000;0.4428;1.0140;
882.9000;0.4428;1.0187;
883.2000;0.4453;1.0187;
883.5000;0.4412;1.0047;
883.8000;0.4428;1.0117;
884.1000;0.4436;1.0210;
884.4000;0.4436;1.0163;
884.7000;0.4436;1.0257;
885.0000;0.4436;1.0350;
885.3000;0.4436;1.0397;
885.6000;0.4412;1.0163;
885.9000;0.4428;1.0210;
886.2000;0.4444;1.0257;
886.5000;0.4404;1.0140;
886.8000;0.4428;1.0070;
887.1000;0.4436;1.0094;
887.4000;0.4469;1.0257;
887.7000;0.4387;1.0117;
888.0000;0.4444;1.0210;
888.3000;0.4412;1.0210;
888.6000;0.4428;1.0257;
888.9000;0.4330;1.0024;
889.2000;0.4436;1.0303;
889.5000;0.4444;1.0466;
889.8000;0.4436;1.0466;
890.1000;0.4420;1.0397;
890.4000;0.4428;1.0397;
890.7000;0.4404;1.0373;
891.0000;0.4420;1.0327;
891.3000;0.4420;1.0327;
891.6000;0.4436;1.0280;
891.9000;0.4428;1.0210;
892.2000;0.4404;1.0140;
892.5000;0.4428;1.0094;
892.8000;0.4412;1.0163;
893.1000;0.4428;1.0210;
893.4000;0.4396;1.0163;
893.7000;0.4428;1.0210;
894.0000;0.4420;1.0210;
894.3000;0.4412;1.0210;
894.6000;0.4404;1.0210;
894.9000;0.4436;1.0257;
895.2000;0.4428;1.0187;
895.5000;0.4412;1.0280;
895.8000;0.4436;1.0210;
896.1000;0.4428;1.0140;
896.4000;0.4436;1.0257;
896.7000;0.4436;1.0187;
897.0000;0.4428;1.0140;
897.3000;0.4469;1.0187;
897.6000;0.4444;1.0024;
897.9000;0.4420;0.9954;
898.2000;0.4436;0.9954;
898.5000;0.4404;0.9977;
898.8000;0.4412;1.0047;
899.1000;0.4420;1.0187;
899.4000;0.4436;1.0187;
899.7000;0.4404;1.0163;
900.0000;0.4428;1.0163;
900.3000;0.4396;1.0047;
900.6000;0.4355;0.9907;
900.9000;0.4420;0.9954;
901.2000;0.4428;0.9884;
901.5000;0.4444;1.0000;
901.8000;0.4436;1.0140;
902.1000;0.4420;1.0163;
902.4000;0.4428;1.0187;
902.7000;0.4420;1.0233;
903.0000;0.4420;1.0187;
903.3000;0.4396;1.0140;
903.6000;0.4412;1.0280;
903.9000;0.4420;1.0280;
904.2000;0.4436;1.0303;
904.5000;0.4453;1.0373;
904.8000;0.4428;1.0373;
905.1000;0.4420;1.0327;
905.4000;0.4412;1.0280;
905.7000;0.4371;1.0140;
906.0000;0.4404;1.0257;
906.3000;0.4444;1.0373;
906.6000;0.4420;1.0327;
906.9000;0.4428;1.0257;
907.2000;0.4420;1.0233;
907.5000;0.4420;1.0257;
907.8000;0.4453;1.0327;
908.1000;0.4420;1.0257;
908.4000;0.4412;1.0280;
908.7000;0.4404;1.0257;
909.0000;0.4404;1.0280;
909.3000;0.4396;1.0327;
909.6000;0.4412;1.0443;
909.9000;0.4412;1.0466;
910.2000;0.4428;1.0466;
910.5000;0.4412;1.0350;
910.8000;0.4420;1.0280;
911.1000;0.4347;1.0024;
911.4000;0.4322;1.0000;
911.7000;0.4412;1.0233;
912.0000;0.4420;1.0210;
912.3000;0.4428;1.0280;
912.6000;0.4379;1.0163;
912.9000;0.4379;1.0187;
913.2000;0.4436;1.0350;
913.5000;0.4363;1.0210;
913.8000;0.4420;1.0210;
914.1000;0.4477;1.0350;
914.4000;0.4420;1.0117;
914.7000;0.4396;1.0233;
915.0000;0.4420;1.0303;
915.3000;0.4404;1.0257;
915.6000;0.4420;1.0327;
915.9000;0.4412;1.0303;
916.2000;0.4428;1.0280;
916.5000;0.4404;1.0210;
916.8000;0.4387;1.0140;
917.1000;0.4428;1.0233;
917.4000;0.4396;1.0140;
917.7000;0.4396;1.0187;
918.0000;0.4428;1.0163;
918.3000;0.4387;1.0140;
918.6000;0.4420;1.0140;
918.9000;0.4412;1.0094;
919.2000;0.4412;1.0187;
919.5000;0.4420;1.0187;
919.8000;0.4412;1.0187;
920.1000;0.4347;1.0024;
920.4000;0.4469;1.0350;
920.7000;0.4404;1.0257;
921.0000;0.4404;1.0233;
921.3000;0.4420;1.0280;
921.6000;0.4396;1.0280;
921.9000;0.4436;1.0257;
922.2000;0.4428;1.0257;
922.5000;0.4412;1.0257;
922.8000;0.4412;1.0210;
923.1000;0.4420;1.0210;
923.4000;0.4412;1.0233;
923.7000;0.4420;1.0233;
924.0000;0.4412;1.0233;
924.3000;0.4428;1.0350;
924.6000;0.4412;1.0350;
924.9000;0.4396;1.0187;
925.2000;0.4428;1.0233;
925.5000;0.4412;1.0233;
925.8000;0.4420;1.0163;
926.1000;0.4428;1.0070;
926.4000;0.4428;1.0047;
926.7000;0.4412;1.0000;
927.0000;0.4412;1.0070;
927.3000;0.4387;0.9954;
927.6000;0.4412;1.0070;
927.9000;0.4420;1.0070;
928.2000;0.4420;1.0047;
928.5000;0.4420;1.0163;
928.8000;0.4420;1.0187;
929.1000;0.4412;1.0187;
929.4000;0.4371;1.0140;
929.7000;0.4428;1.0280;
930.0000;0.4412;1.0187;
930.3000;0.4404;1.0117;
930.6000;0.4355;0.9954;
930.9000;0.4404;1.0094;
931.2000;0.4412;1.0070;
931.5000;0.4412;1.0140;
931.8000;0.4453;1.0257;
932.1000;0.4396;1.0117;
932.4000;0.4387;1.0163;
932.7000;0.4412;1.0047;
933.0000;0.4420;1.0163;
933.3000;0.4428;1.0163;
933.6000;0.4404;1.0047;
933.9000;0.4412;1.0117;
934.2000;0.4396;1.0094;
934.5000;0.4412;1.0140;
934.8000;0.4420;1.0187;
935.1000;0.4444;1.0233;
935.4000;0.4379;1.0024;
935.7000;0.4379;0.9977;
936.0000;0.4387;0.9977;
936.3000;0.4420;1.0000;
936.6000;0.4396;0.9884;
936.9000;0.4387;0.9907;
937.2000;0.4379;0.9907;
937.5000;0.4404;0.9930;
937.8000;0.4396;0.9954;
938.1000;0.4330;0.9860;
938.4000;0.4404;1.0024;
938.7000;0.4420;1.0070;
939.0000;0.4387;0.9977;
939.3000;0.4387;0.9977;
939.6000;0.4396;0.9954;
939.9000;0.4420;0.9977;
940.2000;0.4428;1.0000;
940.5000;0.4412;1.0000;
940.8000;0.4387;0.9930;
941.1000;0.4379;0.9860;
941.4000;0.4404;0.9954;
941.7000;0.4387;0.9954;
942.0000;0.4339;0.9907;
942.3000;0.4387;1.0070;
942.6000;0.4396;1.0117;
942.9000;0.4396;1.0094;
943.2000;0.4379;1.0117;
943.5000;0.4387;1.0210;
943.8000;0.4387;1.0140;
944.1000;0.4396;1.0117;
944.4000;0.4379;1.0117;
944.7000;0.4371;1.0187;
945.0000;0.4404;1.0280;
945.3000;0.4387;1.0210;
945.6000;0.4461;1.0420;
945.9000;0.4412;1.0233;
946.2000;0.4444;1.0303;
946.5000;0.4371;1.0210;
946.8000;0.4412;1.0210;
947.1000;0.4461;1.0397;
947.4000;0.4396;1.0280;
947.7000;0.4404;1.0327;
948.0000;0.4396;1.0280;
948.3000;0.4387;1.0373;
948.6000;0.4404;1.0420;
948.9000;0.4396;1.0350;
949.2000;0.4404;1.0303;
949.5000;0.4404;1.0187;
949.8000;0.4404;1.0163;
950.1000;0.4404;1.0233;
950.4000;0.4396;1.0257;
950.7000;0.4379;1.0280;
951.0000;0.4404;1.0280;
951.3000;0.4412;1.0257;
951.6000;0.4396;1.0210;
951.9000;0.4396;1.0163;
952.2000;0.4387;1.0187;
952.5000;0.4379;1.0140;
952.8000;0.4387;1.0163;
953.1000;0.4379;1.0094;
953.4000;0.4387;1.0140;
953.7000;0.4412;1.0140;
954.0000;0.4387;1.0047;
954.3000;0.4379;0.9977;
954.6000;0.4387;0.9954;
954.9000;0.4420;1.0000;
955.2000;0.4396;0.9837;
955.5000;0.4412;0.9907;
955.8000;0.4371;0.9884;
956.1000;0.4379;0.9837;
956.4000;0.4428;0.9907;
956.7000;0.4412;0.9884;
957.0000;0.4387;0.9884;
957.3000;0.4396;0.9860;
957.6000;0.4396;0.9884;
957.9000;0.4420;1.0024;
958.2000;0.4420;1.0024;
958.5000;0.4379;0.9954;
958.8000;0.4436;1.0070;
959.1000;0.4396;1.0024;
959.4000;0.4396;1.0047;
959.7000;0.4412;1.0163;
960.0000;0.4387;1.0140;
960.3000;0.4404;1.0094;
960.6000;0.4428;1.0117;
960.9000;0.4396;0.9954;
961.2000;0.4404;0.9977;
961.5000;0.4404;1.0047;
961.8000;0.4404;1.0047;
962.1000;0.4412;1.0094;
962.4000;0.4363;1.0024;
962.7000;0.4404;0.9954;
963.0000;0.4387;0.9954;
963.3000;0.4379;1.0024;
963.6000;0.4396;1.0094;
963.9000;0.4387;1.0094;
964.2000;0.4371;1.0187;
964.5000;0.4387;1.0327;
964.8000;0.4387;1.0257;
965.1000;0.4355;1.0094;
965.4000;0.4379;1.0094;
965.7000;0.4387;1.0117;
966.0000;0.4363;1.0070;
966.3000;0.4371;1.0140;
966.6000;0.4396;1.0094;
966.9000;0.4363;1.0047;
967.2000;0.4363;0.9977;
967.5000;0.4379;1.0024;
967.8000;0.4371;1.0070;
968.1000;0.4290;0.9954;
968.4000;0.4330;1.0117;
968.7000;0.4330;1.0094;
969.0000;0.4412;1.0233;
969.3000;0.4387;1.0117;
969.6000;0.4379;1.0047;
969.9000;0.4396;1.0140;
970.2000;0.4428;1.0210;
970.5000;0.4412;1.0117;
970.8000;0.4371;1.0070;
971.1000;0.4371;1.0047;
971.4000;0.4371;1.0047;
971.7000;0.4404;1.0210;
972.0000;0.4396;1.0257;
972.3000;0.4371;1.0303;
972.6000;0.4379;1.0280;
972.9000;0.4404;1.0280;
973.2000;0.4396;1.0303;
973.5000;0.4404;1.0280;
973.8000;0.4379;1.0233;
974.1000;0.4396;1.0257;
974.4000;0.4379;1.0163;
974.7000;0.4355;1.0094;
975.0000;0.4371;1.0117;
975.3000;0.4379;1.0140;
975.6000;0.4396;1.0094;
975.9000;0.4420;1.0257;
976.2000;0.4363;1.0187;
976.5000;0.4363;1.0163;
976.8000;0.4371;1.0117;
977.1000;0.4371;1.0210;
977.4000;0.4379;1.0117;
977.7000;0.4371;1.0117;
978.0000;0.4371;1.0024;
978.3000;0.4396;1.0024;
978.6000;0.4387;0.9954;
978.9000;0.4379;0.9977;
979.2000;0.4379;1.0000;
979.5000;0.4387;1.0047;
979.8000;0.4412;1.0094;
980.1000;0.4396;1.0024;
980.4000;0.4387;1.0024;
980.7000;0.4387;1.0094;
981.0000;0.4379;1.0117;
981.3000;0.4371;1.0140;
981.6000;0.4387;1.0163;
981.9000;0.4387;1.0187;
982.2000;0.4404;1.0210;
982.5000;0.4453;1.0280;
982.8000;0.4371;1.0163;
983.1000;0.4379;1.0257;
983.4000;0.4412;1.0373;
983.7000;0.4347;1.0257;
984.0000;0.4379;1.0303;
984.3000;0.4363;1.0210;
984.6000;0.4379;1.0210;
984.9000;0.4404;1.0280;
985.2000;0.4396;1.0257;
985.5000;0.4371;1.0187;
985.8000;0.4396;1.0280;
986.1000;0.4396;1.0280;
986.4000;0.4396;1.0280;
986.7000;0.4363;1.0140;
987.0000;0.4387;1.0117;
987.3000;0.4379;1.0117;
987.6000;0.4396;1.0094;
987.9000;0.4379;1.0094;
988.2000;0.4371;1.0094;
988.5000;0.4379;1.0024;
988.8000;0.4379;1.0000;
989.1000;0.4363;1.0070;
989.4000;0.4371;1.0047;
989.7000;0.4396;1.0094;
990.0000;0.4404;1.0210;
990.3000;0.4396;1.0233;
990.6000;0.4396;1.0163;
990.9000;0.4363;1.0187;
991.2000;0.4404;1.0187;
991.5000;0.4363;1.0210;
991.8000;0.4396;1.0303;
992.1000;0.4339;1.0233;
992.4000;0.4371;1.0303;
992.7000;0.4355;1.0280;
993.0000;0.4363;1.0350;
993.3000;0.4363;1.0350;
993.6000;0.4371;1.0397;
993.9000;0.4347;1.0280;
994.2000;0.4355;1.0280;
994.5000;0.4363;1.0257;
994.8000;0.4371;1.0233;
995.1000;0.4404;1.0303;
995.4000;0.4379;1.0233;
995.7000;0.4387;1.0280;
996.0000;0.4371;1.0140;
996.3000;0.4371;1.0117;
996.6000;0.4355;1.0024;
996.9000;0.4355;1.0047;
997.2000;0.4371;1.0070;
997.5000;0.4379;1.0094;
997.8000;0.4371;1.0094;
998.1000;0.4363;1.0047;
998.4000;0.4355;1.0094;
998.7000;0.4355;1.0163;
999.0000;0.4379;1.0233;
999.3000;0.4339;1.0070;
999.6000;0.4396;1.0187;
999.9000;0.4404;1.0280;
1000.2000;0.4371;1.0257;
1000.5000;0.4396;1.0163;
1000.8000;0.4379;1.0070;
1001.1000;0.4379;1.0070;
1001.4000;0.4379;1.0070;
1001.7000;0.4355;1.0140;
1002.0000;0.4371;1.0257;
1002.3000;0.4371;1.0303;
1002.6000;0.4371;1.0280;
1002.9000;0.4404;1.0350;
1003.2000;0.4379;1.0257;
1003.5000;0.4387;1.0280;
1003.8000;0.4371;1.0257;
1004.1000;0.4339;1.0070;
1004.4000;0.4387;1.0187;
1004.7000;0.4371;1.0233;
1005.0000;0.4518;1.0560;
1005.3000;0.4371;1.0233;
1005.6000;0.4371;1.0350;
1005.9000;0.4347;1.0210;
1006.2000;0.4371;1.0210;
1006.5000;0.4371;1.0233;
1006.8000;0.4347;1.0094;
1007.1000;0.4396;1.0117;
1007.4000;0.4355;1.0024;
1007.7000;0.4453;1.0140;
1008.0000;0.4371;0.9930;
1008.3000;0.4371;0.9884;
1008.6000;0.4363;0.9860;
1008.9000;0.4371;0.9884;
1009.2000;0.4420;1.0047;
1009.5000;0.4371;0.9977;
1009.8000;0.4371;1.0047;
1010.1000;0.4322;0.9930;
1010.4000;0.4379;1.0047;
1010.7000;0.4371;1.0070;
1011.0000;0.4387;1.0094;
1011.3000;0.4347;1.0070;
1011.6000;0.4379;1.0047;
1011.9000;0.4379;1.0000;
1012.2000;0.4347;1.0024;
1012.5000;0.4339;1.0070;
1012.8000;0.4379;1.0187;
1013.1000;0.4355;1.0233;
1013.4000;0.4396;1.0257;
1013.7000;0.4330;1.0140;
1014.0000;0.4379;1.0187;
1014.3000;0.4371;1.0233;
1014.6000;0.4339;1.0187;
1014.9000;0.4387;1.0303;
1015.2000;0.4363;1.0280;
1015.5000;0.4379;1.0280;
1015.8000;0.4371;1.0233;
1016.1000;0.4363;1.0257;
1016.4000;0.4387;1.0257;
1016.7000;0.4379;1.0163;
1017.0000;0.4387;1.0233;
1017.3000;0.4363;1.0257;
1017.6000;0.4355;1.0140;
1017.9000;0.4379;1.0280;
1018.2000;0.4355;1.0210;
1018.5000;0.4355;1.0233;
1018.8000;0.4363;1.0280;
1019.1000;0.4363;1.0257;
1019.4000;0.4339;1.0117;
1019.7000;0.4371;1.0280;
1020.0000;0.4347;1.0280;
1020.3000;0.4363;1.0373;
1020.6000;0.4387;1.0420;
1020.9000;0.4363;1.0303;
1021.2000;0.4363;1.0233;
1021.5000;0.4274;0.9954;
1021.8000;0.4379;1.0303;
1022.1000;0.4339;1.0233;
1022.4000;0.4330;1.0094;
1022.7000;0.4355;1.0163;
1023.0000;0.4404;1.0257;
1023.3000;0.4379;1.0233;
1023.6000;0.4379;1.0187;
1023.9000;0.4363;1.0140;
1024.2000;0.4379;1.0094;
1024.5000;0.4371;1.0163;
1024.8000;0.4371;1.0210;
1025.1000;0.4387;1.0397;
1025.4000;0.4387;1.0443;
1025.7000;0.4387;1.0420;
1026.0000;0.4339;1.0327;
1026.3000;0.4371;1.0466;
1026.6000;0.4387;1.0443;
1026.9000;0.4347;1.0327;
1027.2000;0.4355;1.0350;
1027.5000;0.4347;1.0303;
1027.8000;0.4363;1.0280;
1028.1000;0.4453;1.0466;
1028.4000;0.4347;1.0257;
1028.7000;0.4355;1.0280;
1029.0000;0.4379;1.0257;
1029.3000;0.4330;1.0070;
1029.6000;0.4461;1.0350;
1029.9000;0.4355;1.0140;
1030.2000;0.4404;1.0233;
1030.5000;0.4355;1.0163;
1030.8000;0.4355;1.0140;
1031.1000;0.4363;1.0187;
1031.4000;0.4363;1.0233;
1031.7000;0.4355;1.0233;
1032.0000;0.4347;1.0094;
1032.3000;0.4339;1.0117;
1032.6000;0.4347;1.0163;
1032.9000;0.4363;1.0117;
1033.2000;0.4355;1.0094;
1033.5000;0.4339;0.9977;
1033.8000;0.4371;1.0094;
1034.1000;0.4355;1.0163;
1034.4000;0.4363;1.0210;
1034.7000;0.4347;1.0210;
1035.0000;0.4339;1.0117;
1035.3000;0.4363;1.0187;
1035.6000;0.4355;1.0163;
1035.9000;0.4363;1.0187;
1036.2000;0.4257;0.9930;
1036.5000;0.4355;1.0233;
1036.8000;0.4379;1.0187;
1037.1000;0.4355;1.0140;
1037.4000;0.4347;1.0070;
1037.7000;0.4379;1.0233;
1038.0000;0.4371;1.0117;
1038.3000;0.4355;1.0140;
1038.6000;0.4387;1.0280;
1038.9000;0.4363;1.0187;
1039.2000;0.4290;0.9977;
1039.5000;0.4363;1.0117;
1039.8000;0.4363;1.0163;
1040.1000;0.4347;1.0047;
1040.4000;0.4355;1.0070;
1040.7000;0.4363;1.0094;
1041.0000;0.4404;1.0187;
1041.3000;0.4396;1.0117;
1041.6000;0.4387;1.0117;
1041.9000;0.4379;1.0163;
1042.2000;0.4379;1.0187;
1042.5000;0.4379;1.0187;
1042.8000;0.4363;1.0117;
1043.1000;0.4371;1.0140;
1043.4000;0.4322;1.0024;
1043.7000;0.4363;1.0070;
1044.0000;0.4339;1.0024;
1044.3000;0.4355;1.0047;
1044.6000;0.4363;1.0117;
1044.9000;0.4404;1.0187;
1045.2000;0.4387;1.0163;
1045.5000;0.4274;1.0000;
1045.8000;0.4396;1.0233;
1046.1000;0.4355;1.0140;
1046.4000;0.4396;1.0210;
1046.7000;0.4436;1.0303;
1047.0000;0.4363;1.0094;
1047.3000;0.4371;1.0070;
1047.6000;0.4371;0.9977;
1047.9000;0.4363;0.9954;
1048.2000;0.4363;1.0000;
1048.5000;0.4387;1.0070;
1048.8000;0.4363;1.0024;
1049.1000;0.4355;1.0047;
1049.4000;0.4355;0.9977;
1049.7000;0.4347;0.9954;
1050.0000;0.4379;1.0047;
1050.3000;0.4363;0.9930;
1050.6000;0.4363;0.9930;
1050.9000;0.4363;0.9977;
1051.2000;0.4355;0.9837;
1051.5000;0.4355;0.9907;
1051.8000;0.4355;0.9954;
1052.1000;0.4371;1.0000;
1052.4000;0.4371;1.0024;
1052.7000;0.4363;1.0070;
1053.0000;0.4363;1.0047;
1053.3000;0.4412;1.0094;
1053.6000;0.4412;1.0117;
1053.9000;0.4371;1.0094;
1054.2000;0.4347;1.0094;
1054.5000;0.4355;1.0094;
1054.8000;0.4371;1.0163;
1055.1000;0.4428;1.0303;
1055.4000;0.4347;1.0163;
1055.7000;0.4363;1.0210;
1056.0000;0.4371;1.0187;
1056.3000;0.4363;1.0140;
1056.6000;0.4355;1.0163;
1056.9000;0.4363;1.0187;
1057.2000;0.4379;1.0280;
1057.5000;0.4371;1.0350;
1057.8000;0.4371;1.0327;
1058.1000;0.4363;1.0233;
1058.4000;0.4363;1.0117;
1058.7000;0.4387;1.0233;
1059.0000;0.4306;0.9930;
1059.3000;0.4347;1.0070;
1059.6000;0.4339;1.0070;
1059.9000;0.4355;1.0140;
1060.2000;0.4347;1.0280;
1060.5000;0.4347;1.0350;
1060.8000;0.4339;1.0327;
1061.1000;0.4322;1.0210;
1061.4000;0.4363;1.0280;
1061.7000;0.4363;1.0210;
1062.0000;0.4363;1.0163;
1062.3000;0.4387;1.0094;
1062.6000;0.4363;1.0070;
1062.9000;0.4355;1.0094;
1063.2000;0.4355;1.0094;
1063.5000;0.4363;1.0047;
1063.8000;0.4363;1.0000;
1064.1000;0.4355;1.0070;
1064.4000;0.4396;1.0163;
1064.7000;0.4363;1.0163;
1065.0000;0.4371;1.0163;
1065.3000;0.4363;1.0140;
1065.6000;0.4355;1.0210;
1065.9000;0.4347;1.0140;
1066.2000;0.4404;1.0163;
1066.5000;0.4371;1.0094;
1066.8000;0.4363;1.0000;
1067.1000;0.4379;1.0070;
1067.4000;0.4298;0.9977;
1067.7000;0.4347;1.0117;
1068.0000;0.4371;1.0140;
1068.3000;0.4363;1.0117;
1068.6000;0.4363;1.0047;
1068.9000;0.4355;1.0070;
1069.2000;0.4355;1.0000;
1069.5000;0.4347;0.9977;
1069.8000;0.4347;1.0024;
1070.1000;0.4371;1.0117;
1070.4000;0.4355;1.0163;
1070.7000;0.4363;1.0163;
1071.0000;0.4339;1.0117;
1071.3000;0.4355;1.0163;
1071.6000;0.4371;1.0163;
1071.9000;0.4444;1.0327;
1072.2000;0.4363;1.0094;
1072.5000;0.4363;1.0140;
1072.8000;0.4355;1.0070;
1073.1000;0.4339;1.0140;
1073.4000;0.4330;1.0047;
1073.7000;0.4314;1.0000;
1074.0000;0.4306;0.9977;
1074.3000;0.4363;1.0140;
1074.6000;0.4339;1.0094;
1074.9000;0.4420;1.0397;
1075.2000;0.4347;1.0280;
1075.5000;0.4339;1.0280;
1075.8000;0.4347;1.0327;
1076.1000;0.4314;1.0187;
1076.4000;0.4355;1.0257;
1076.7000;0.4371;1.0187;
1077.0000;0.4355;1.0094;
1077.3000;0.4371;1.0163;
1077.6000;0.4387;1.0233;
1077.9000;0.4355;1.0140;
1078.2000;0.4322;1.0163;
1078.5000;0.4347;1.0187;
1078.8000;0.4363;1.0233;
1079.1000;0.4339;1.0047;
1079.4000;0.4339;1.0070;
1079.7000;0.4355;1.0140;
1080.0000;0.4322;1.0140;
1080.3000;0.4339;1.0140;
1080.6000;0.4347;1.0163;
1080.9000;0.4330;1.0163;
1081.2000;0.4339;1.0257;
1081.5000;0.4339;1.0187;
1081.8000;0.4347;1.0163;
1082.1000;0.4339;1.0163;
1082.4000;0.4347;1.0070;
1082.7000;0.4363;1.0094;
1083.0000;0.4363;1.0070;
1083.3000;0.4347;1.0047;
1083.6000;0.4347;0.9977;
1083.9000;0.4347;1.0024;
1084.2000;0.4347;1.0070;
1084.5000;0.4339;1.0094;
1084.8000;0.4339;1.0117;
1085.1000;0.4339;1.0163;
1085.4000;0.4306;1.0047;
1085.7000;0.4363;1.0140;
1086.0000;0.4371;1.0094;
1086.3000;0.4347;1.0094;
1086.6000;0.4347;1.0140;
1086.9000;0.4347;1.0117;
1087.2000;0.4347;1.0070;
1087.5000;0.4339;1.0047;
1087.8000;0.4330;1.0047;
1088.1000;0.4339;1.0117;
1088.4000;0.4379;1.0163;
1088.7000;0.4371;1.0257;
1089.0000;0.4339;1.0117;
1089.3000;0.4363;1.0094;
1089.6000;0.4347;1.0024;
1089.9000;0.4347;0.9977;
1090.2000;0.4330;0.9907;
1090.5000;0.4330;0.9860;
1090.8000;0.4363;0.9907;
1091.1000;0.4355;0.9907;
1091.4000;0.4339;0.9930;
1091.7000;0.4355;0.9977;
1092.0000;0.4330;0.9860;
1092.3000;0.4339;0.9790;
1092.6000;0.4355;0.9907;
1092.9000;0.4290;0.9814;
1093.2000;0.4355;0.9977;
1093.5000;0.4290;0.9884;
1093.8000;0.4314;0.9977;
1094.1000;0.4322;1.0047;
1094.4000;0.4379;1.0047;
1094.7000;0.4347;1.0000;
1095.0000;0.4298;1.0000;
1095.3000;0.4363;1.0094;
1095.6000;0.4330;1.0000;
1095.9000;0.4355;1.0047;
1096.2000;0.4371;1.0140;
1096.5000;0.4339;1.0070;
1096.8000;0.4347;1.0117;
1097.1000;0.4371;1.0140;
1097.4000;0.4347;1.0163;
1097.7000;0.4355;1.0117;
1098.0000;0.4347;1.0187;
1098.3000;0.4355;1.0280;
1098.6000;0.4404;1.0303;
1098.9000;0.4330;1.0117;
1099.2000;0.4330;1.0140;
1099.5000;0.4355;1.0070;
1099.8000;0.4363;1.0117;
1100.1000;0.4339;1.0140;
1100.4000;0.4339;1.0163;
1100.7000;0.4339;1.0140;
1101.0000;0.4428;1.0350;
1101.3000;0.4355;1.0210;
1101.6000;0.4347;1.0280;
1101.9000;0.4355;1.0327;
1102.2000;0.4363;1.0373;
1102.5000;0.4306;1.0233;
1102.8000;0.4363;1.0350;
1103.1000;0.4379;1.0397;
1103.4000;0.4371;1.0420;
1103.7000;0.4371;1.0420;
1104.0000;0.4347;1.0373;
1104.3000;0.4371;1.0350;
1104.6000;0.4363;1.0397;
1104.9000;0.4339;1.0303;
1105.2000;0.4363;1.0280;
1105.5000;0.4322;1.0117;
1105.8000;0.4330;1.0187;
1106.1000;0.4355;1.0257;
1106.4000;0.4347;1.0140;
1106.7000;0.4347;1.0163;
1107.0000;0.4347;1.0210;
1107.3000;0.4339;1.0280;
1107.6000;0.4363;1.0187;
1107.9000;0.4363;1.0257;
1108.2000;0.4347;1.0163;
1108.5000;0.4363;1.0187;
1108.8000;0.4347;1.0187;
1109.1000;0.4363;1.0187;
1109.4000;0.4355;1.0163;
1109.7000;0.4371;1.0257;
1110.0000;0.4363;1.0233;
1110.3000;0.4355;1.0117;
1110.6000;0.4339;1.0024;
1110.9000;0.4330;1.0024;
1111.2000;0.4347;1.0140;
1111.5000;0.4363;1.0280;
1111.8000;0.4355;1.0210;
1112.1000;0.4379;1.0140;
1112.4000;0.4355;1.0094;
1112.7000;0.4371;1.0047;
1113.0000;0.4347;0.9954;
1113.3000;0.4355;1.0047;
1113.6000;0.4355;1.0094;
1113.9000;0.4355;1.0140;
1114.2000;0.4347;1.0163;
1114.5000;0.4322;1.0233;
1114.8000;0.4363;1.0303;
1115.1000;0.4347;1.0117;
1115.4000;0.4355;1.0117;
1115.7000;0.4387;1.0163;
1116.0000;0.4339;1.0000;
1116.3000;0.4347;1.0024;
1116.6000;0.4330;0.9977;
1116.9000;0.4371;0.9977;
1117.2000;0.4371;1.0024;
1117.5000;0.4355;0.9954;
1117.8000;0.4355;0.9884;
1118.1000;0.4355;0.9930;
1118.4000;0.4347;0.9907;
1118.7000;0.4355;0.9930;
1119.0000;0.4371;0.9907;
1119.3000;0.4371;0.9954;
1119.6000;0.4339;0.9930;
1119.9000;0.4339;1.0000;
1120.2000;0.4347;0.9977;
1120.5000;0.4355;1.0000;
1120.8000;0.4453;1.0280;
1121.1000;0.4330;1.0047;
1121.4000;0.4347;1.0070;
1121.7000;0.4330;1.0163;
1122.0000;0.4347;1.0187;
1122.3000;0.4322;1.0070;
1122.6000;0.4355;1.0140;
1122.9000;0.4371;1.0163;
1123.2000;0.4363;1.0187;
1123.5000;0.4339;1.0163;
1123.8000;0.4363;1.0210;
1124.1000;0.4355;1.0117;
1124.4000;0.4355;1.0163;
1124.7000;0.4347;1.0187;
1125.0000;0.4363;1.0327;
1125.3000;0.4363;1.0303;
1125.6000;0.4339;1.0210;
1125.9000;0.4355;1.0233;
1126.2000;0.4314;1.0163;
1126.5000;0.4355;1.0233;
1126.8000;0.4347;1.0257;
1127.1000;0.4347;1.0257;
1127.4000;0.4396;1.0420;
1127.7000;0.4339;1.0257;
1128.0000;0.4371;1.0257;
1128.3000;0.4330;1.0163;
1128.6000;0.4379;1.0257;
1128.9000;0.4347;1.0117;
1129.2000;0.4347;1.0070;
1129.5000;0.4339;0.9977;
1129.8000;0.4404;1.0140;
1130.1000;0.4347;1.0094;
1130.4000;0.4363;1.0140;
1130.7000;0.4330;1.0117;
1131.0000;0.4347;1.0117;
1131.3000;0.4330;1.0024;
1131.6000;0.4347;1.0117;
1131.9000;0.4355;1.0233;
1132.2000;0.4339;1.0257;
1132.5000;0.4322;1.0257;
1132.8000;0.4339;1.0303;
1133.1000;0.4347;1.0327;
1133.4000;0.4347;1.0373;
1133.7000;0.4339;1.0373;
1134.0000;0.4387;1.0420;
1134.3000;0.4453;1.0490;
1134.6000;0.4396;1.0280;
1134.9000;0.4355;1.0163;
1135.2000;0.4330;1.0163;
1135.5000;0.4363;1.0163;
1135.8000;0.4379;1.0163;
1136.1000;0.4330;1.0094;
1136.4000;0.4347;1.0117;
1136.7000;0.4347;1.0117;
1137.0000;0.4339;1.0094;
1137.3000;0.4371;1.0187;
1137.6000;0.4363;1.0140;
1137.9000;0.4363;1.0187;
1138.2000;0.4355;1.0094;
1138.5000;0.4363;1.0117;
1138.8000;0.4339;1.0163;
1139.1000;0.4347;1.0233;
1139.4000;0.4363;1.0210;
1139.7000;0.4339;1.0140;
1140.0000;0.4363;1.0210;
1140.3000;0.4347;1.0233;
1140.6000;0.4339;1.0187;
1140.9000;0.4396;1.0327;
1141.2000;0.4379;1.0257;
1141.5000;0.4347;1.0163;
1141.8000;0.4322;1.0094;
1142.1000;0.4355;1.0094;
1142.4000;0.4355;1.0070;
1142.7000;0.4314;1.0094;
1143.0000;0.4363;1.0117;
1143.3000;0.4330;1.0140;
1143.6000;0.4347;1.0117;
1143.9000;0.4363;1.0094;
1144.2000;0.4339;1.0000;
1144.5000;0.4347;1.0000;
1144.8000;0.4355;0.9977;
1145.1000;0.4347;0.9930;
1145.4000;0.4339;0.9837;
1145.7000;0.4339;0.9860;
1146.0000;0.4355;0.9884;
1146.3000;0.4330;0.9884;
1146.6000;0.4347;0.9954;
1146.9000;0.4355;1.0070;
1147.2000;0.4322;0.9977;
1147.5000;0.4371;1.0117;
1147.8000;0.4330;0.9954;
1148.1000;0.4339;1.0000;
1148.4000;0.4330;0.9977;
1148.7000;0.4355;1.0117;
1149.0000;0.4355;1.0140;
1149.3000;0.4339;1.0233;
1149.6000;0.4355;1.0327;
1149.9000;0.4347;1.0373;
1150.2000;0.4330;1.0350;
1150.5000;0.4339;1.0280;
1150.8000;0.4363;1.0280;
1151.1000;0.4347;1.0280;
1151.4000;0.4339;1.0280;
1151.7000;0.4330;1.0280;
1152.0000;0.4339;1.0233;
1152.3000;0.4314;1.0163;
1152.6000;0.4339;1.0280;
1152.9000;0.4339;1.0257;
1153.2000;0.4322;1.0187;
1153.5000;0.4339;1.0163;
1153.8000;0.4355;1.0233;
1154.1000;0.4314;1.0187;
1154.4000;0.4314;1.0187;
1154.7000;0.4347;1.0210;
1155.0000;0.4314;1.0024;
1155.3000;0.4387;1.0210;
1155.6000;0.4290;1.0070;
1155.9000;0.4339;1.0257;
1156.2000;0.4339;1.0117;
1156.5000;0.4306;0.9977;
1156.8000;0.4339;1.0094;
1157.1000;0.4322;1.0163;
1157.4000;0.4330;1.0280;
1157.7000;0.4339;1.0257;
1158.0000;0.4274;1.0070;
1158.3000;0.4347;1.0280;
1158.6000;0.4347;1.0210;
1158.9000;0.4322;1.0140;
1159.2000;0.4363;1.0280;
1159.5000;0.4290;1.0187;
1159.8000;0.4355;1.0350;
1160.1000;0.4355;1.0303;
1160.4000;0.4339;1.0210;
1160.7000;0.4339;1.0187;
1161.0000;0.4347;1.0187;
1161.3000;0.4339;1.0163;
1161.6000;0.4363;1.0233;
1161.9000;0.4347;1.0257;
1162.2000;0.4347;1.0210;
1162.5000;0.4347;1.0163;
1162.8000;0.4330;1.0094;
1163.1000;0.4339;1.0187;
1163.4000;0.4339;1.0140;
1163.7000;0.4330;1.0117;
1164.0000;0.4355;1.0210;
1164.3000;0.4330;1.0163;
1164.6000;0.4396;1.0303;
1164.9000;0.4379;1.0210;
1165.2000;0.4330;1.0117;
1165.5000;0.4347;1.0187;
1165.8000;0.4355;1.0233;
1166.1000;0.4330;1.0210;
1166.4000;0.4330;1.0280;
1166.7000;0.4339;1.0233;
1167.0000;0.4265;1.0047;
1167.3000;0.4322;1.0280;
1167.6000;0.4330;1.0187;
1167.9000;0.4339;1.0187;
1168.2000;0.4355;1.0373;
1168.5000;0.4355;1.0397;
1168.8000;0.4347;1.0327;
1169.1000;0.4314;1.0280;
1169.4000;0.4339;1.0280;
1169.7000;0.4330;1.0210;
1170.0000;0.4330;1.0140;
1170.3000;0.4379;1.0117;
1170.6000;0.4339;0.9954;
1170.9000;0.4257;0.9744;
1171.2000;0.4396;1.0070;
1171.5000;0.4363;0.9977;
1171.8000;0.4322;0.9930;
1172.1000;0.4339;1.0000;
1172.4000;0.4322;1.0000;
1172.7000;0.4347;1.0047;
1173.0000;0.4371;1.0070;
1173.3000;0.4330;0.9977;
1173.6000;0.4355;0.9954;
1173.9000;0.4347;0.9977;
1174.2000;0.4347;0.9977;
1174.5000;0.4330;0.9954;
1174.8000;0.4339;1.0000;
1175.1000;0.4347;1.0070;
1175.4000;0.4347;1.0140;
1175.7000;0.4322;1.0140;
1176.0000;0.4347;1.0140;
1176.3000;0.4371;1.0233;
1176.6000;0.4347;1.0163;
1176.9000;0.4347;1.0117;
1177.2000;0.4322;0.9954;
1177.5000;0.4330;1.0117;
1177.8000;0.4322;1.0070;
1178.1000;0.4339;1.0140;
1178.4000;0.4298;0.9954;
1178.7000;0.4347;1.0047;
1179.0000;0.4339;1.0047;
1179.3000;0.4347;1.0140;
1179.6000;0.4339;1.0000;
1179.9000;0.4322;1.0000;
1180.2000;0.4339;1.0117;
1180.5000;0.4347;1.0117;
1180.8000;0.4322;1.0047;
1181.1000;0.4339;1.0094;
1181.4000;0.4363;1.0187;
1181.7000;0.4396;1.0373;
1182.0000;0.4322;1.0163;
1182.3000;0.4282;1.0070;
1182.6000;0.4347;1.0210;
1182.9000;0.4339;1.0187;
1183.2000;0.4322;1.0163;
1183.5000;0.4347;1.0117;
1183.8000;0.4339;1.0094;
1184.1000;0.4379;1.0163;
1184.4000;0.4355;1.0163;
1184.7000;0.4330;1.0094;
1185.0000;0.4347;1.0117;
1185.3000;0.4387;1.0163;
1185.6000;0.4339;1.0070;
1185.9000;0.4314;1.0000;
1186.2000;0.4330;1.0070;
1186.5000;0.4363;1.0094;
1186.8000;0.4363;1.0094;
1187.1000;0.4363;1.0070;
1187.4000;0.4355;1.0070;
1187.7000;0.4339;1.0024;
1188.0000;0.4306;1.0024;
1188.3000;0.4298;1.0024;
1188.6000;0.4330;1.0117;
1188.9000;0.4322;1.0000;
1189.2000;0.4314;0.9954;
1189.5000;0.4322;1.0047;
1189.8000;0.4420;1.0280;
1190.1000;0.4330;1.0117;
1190.4000;0.4347;1.0163;
1190.7000;0.4347;1.0140;
1191.0000;0.4322;1.0047;
1191.3000;0.4404;1.0233;
1191.6000;0.4371;1.0140;
1191.9000;0.4436;1.0327;
1192.2000;0.4282;0.9954;
1192.5000;0.4347;1.0140;
1192.8000;0.4330;1.0117;
1193.1000;0.4330;1.0140;
1193.4000;0.4355;1.0233;
1193.7000;0.4339;1.0187;
1194.0000;0.4314;1.0140;
1194.3000;0.4379;1.0163;
1194.6000;0.4347;1.0117;
1194.9000;0.4322;1.0070;
1195.2000;0.4355;1.0140;
1195.5000;0.4347;1.0140;
1195.8000;0.4347;1.0140;
1196.1000;0.4339;1.0163;
1196.4000;0.4339;1.0117;
1196.7000;0.4322;1.0117;
1197.0000;0.4330;1.0233;
1197.3000;0.4355;1.0280;
1197.6000;0.4339;1.0210;
1197.9000;0.4339;1.0233;
1198.2000;0.4412;1.0373;
1198.5000;0.4249;0.9977;
1198.8000;0.4339;1.0210;
1199.1000;0.4322;1.0280;
1199.4000;0.4339;1.0303;
1199.7000;0.4339;1.0187;
1200.0000;0.4322;1.0140;
1200.3000;0.4330;1.0117;
1200.6000;0.4347;1.0163;
1200.9000;0.4306;1.0117;
1201.2000;0.4322;1.0280;
1201.5000;0.4330;1.0327;
1201.8000;0.4396;1.0560;
1202.1000;0.4322;1.0373;
1202.4000;0.4330;1.0373;
1202.7000;0.4347;1.0373;
1203.0000;0.4339;1.0350;
1203.3000;0.4306;1.0350;
1203.6000;0.4314;1.0327;
1203.9000;0.4298;1.0280;
1204.2000;0.4330;1.0350;
1204.5000;0.4330;1.0210;
1204.8000;0.4314;1.0094;
1205.1000;0.4347;1.0210;
1205.4000;0.4355;1.0327;
1205.7000;0.4339;1.0373;
1206.0000;0.4330;1.0420;
1206.3000;0.4274;1.0210;
1206.6000;0.4347;1.0280;
1206.9000;0.4355;1.0257;
1207.2000;0.4347;1.0257;
1207.5000;0.4379;1.0280;
1207.8000;0.4330;1.0280;
1208.1000;0.4339;1.0303;
1208.4000;0.4339;1.0303;
1208.7000;0.4330;1.0257;
1209.0000;0.4371;1.0350;
1209.3000;0.4274;1.0094;
1209.6000;0.4339;1.0280;
1209.9000;0.4322;1.0233;
1210.2000;0.4322;1.0257;
1210.5000;0.4330;1.0210;
1210.8000;0.4363;1.0280;
1211.1000;0.4322;1.0163;
1211.4000;0.4306;1.0163;
1211.7000;0.4347;1.0327;
1212.0000;0.4355;1.0350;
1212.3000;0.4347;1.0327;
1212.6000;0.4347;1.0233;
1212.9000;0.4379;1.0373;
1213.2000;0.4347;1.0280;
1213.5000;0.4339;1.0233;
1213.8000;0.4404;1.0303;
1214.1000;0.4339;1.0047;
1214.4000;0.4330;1.0047;
1214.7000;0.4330;1.0094;
1215.0000;0.4314;1.0024;
1215.3000;0.4355;1.0047;
1215.6000;0.4306;1.0000;
1215.9000;0.4371;1.0210;
1216.2000;0.4282;1.0024;
1216.5000;0.4355;1.0117;
1216.8000;0.4330;1.0117;
1217.1000;0.4314;1.0117;
1217.4000;0.4371;1.0280;
1217.7000;0.4347;1.0280;
1218.0000;0.4347;1.0280;
1218.3000;0.4355;1.0233;
1218.6000;0.4322;1.0094;
1218.9000;0.4339;1.0117;
1219.2000;0.4355;1.0094;
1219.5000;0.4330;1.0094;
1219.8000;0.4363;1.0140;
1220.1000;0.4339;1.0117;
1220.4000;0.4347;1.0163;
1220.7000;0.4355;1.0187;
1221.0000;0.4330;1.0140;
1221.3000;0.4330;1.0163;
1221.6000;0.4330;1.0163;
1221.9000;0.4339;1.0140;
1222.2000;0.4322;1.0117;
1222.5000;0.4339;1.0140;
1222.8000;0.4339;1.0163;
1223.1000;0.4339;1.0094;
1223.4000;0.4347;1.0210;
1223.7000;0.4347;1.0303;
1224.0000;0.4330;1.0327;
1224.3000;0.4339;1.0327;
1224.6000;0.4339;1.0303;
1224.9000;0.4298;1.0233;
1225.2000;0.4347;1.0397;
1225.5000;0.4347;1.0350;
1225.8000;0.4379;1.0373;
1226.1000;0.4347;1.0350;
1226.4000;0.4339;1.0373;
1226.7000;0.4339;1.0373;
1227.0000;0.4330;1.0397;
1227.3000;0.4363;1.0373;
1227.6000;0.4330;1.0303;
1227.9000;0.4347;1.0280;
1228.2000;0.4339;1.0303;
1228.5000;0.4322;1.0257;
1228.8000;0.4322;1.0303;
1229.1000;0.4363;1.0350;
1229.4000;0.4306;1.0187;
1229.7000;0.4339;1.0233;
1230.0000;0.4363;1.0280;
1230.3000;0.4339;1.0303;
1230.6000;0.4347;1.0327;
1230.9000;0.4355;1.0303;
1231.2000;0.4347;1.0233;
1231.5000;0.4347;1.0233;
1231.8000;0.4347;1.0163;
1232.1000;0.4347;1.0210;
1232.4000;0.4330;1.0233;
1232.7000;0.4355;1.0187;
1233.0000;0.4339;1.0140;
1233.3000;0.4330;1.0140;
1233.6000;0.4339;1.0187;
1233.9000;0.4339;1.0210;
1234.2000;0.4347;1.0140;
1234.5000;0.4282;0.9977;
1234.8000;0.4330;1.0000;
1235.1000;0.4322;1.0024;
1235.4000;0.4330;0.9977;
1235.7000;0.4330;0.9977;
1236.0000;0.4314;0.9907;
1236.3000;0.4339;0.9977;
1236.6000;0.4355;0.9977;
1236.9000;0.4330;0.9930;
1237.2000;0.4330;0.9907;
1237.5000;0.4363;1.0000;
1237.8000;0.4339;1.0000;
1238.1000;0.4339;1.0024;
1238.4000;0.4330;1.0000;
1238.7000;0.4347;1.0024;
1239.0000;0.4330;0.9930;
1239.3000;0.4355;0.9954;
1239.6000;0.4339;0.9954;
1239.9000;0.4330;0.9884;
1240.2000;0.4347;0.9930;
1240.5000;0.4363;0.9930;
1240.8000;0.4322;0.9907;
1241.1000;0.4347;1.0000;
1241.4000;0.4355;1.0000;
1241.7000;0.4347;1.0047;
1242.0000;0.4330;0.9977;
1242.3000;0.4339;1.0000;
1242.6000;0.4306;0.9814;
1242.9000;0.4363;0.9930;
1243.2000;0.4339;0.9930;
1243.5000;0.4347;0.9977;
1243.8000;0.4355;0.9884;
1244.1000;0.4339;0.9930;
1244.4000;0.4347;0.9930;
1244.7000;0.4347;0.9930;
1245.0000;0.4339;0.9930;
1245.3000;0.4347;0.9907;
1245.6000;0.4347;0.9837;
1245.9000;0.4330;0.9814;
1246.2000;0.4339;0.9954;
1246.5000;0.4355;1.0024;
1246.8000;0.4347;1.0024;
1247.1000;0.4330;1.0024;
1247.4000;0.4233;0.9744;
1247.7000;0.4347;0.9930;
1248.0000;0.4314;0.9907;
1248.3000;0.4363;1.0000;
1248.6000;0.4339;0.9954;
1248.9000;0.4339;1.0000;
1249.2000;0.4339;1.0070;
1249.5000;0.4314;1.0047;
1249.8000;0.4339;1.0140;
1250.1000;0.4314;1.0117;
1250.4000;0.4355;1.0140;
1250.7000;0.4339;1.0024;
1251.0000;0.4355;1.0024;
1251.3000;0.4371;1.0047;
1251.6000;0.4330;0.9907;
1251.9000;0.4347;0.9954;
1252.2000;0.4339;1.0000;
1252.5000;0.4339;1.0070;
1252.8000;0.4339;1.0047;
1253.1000;0.4339;1.0024;
1253.4000;0.4298;0.9860;
1253.7000;0.4355;1.0140;
1254.0000;0.4322;1.0163;
1254.3000;0.4355;1.0327;
1254.6000;0.4347;1.0350;
1254.9000;0.4347;1.0373;
1255.2000;0.4330;1.0443;
1255.5000;0.4347;1.0490;
1255.8000;0.4339;1.0397;
1256.1000;0.4330;1.0303;
1256.4000;0.4314;1.0163;
1256.7000;0.4330;1.0210;
1257.0000;0.4363;1.0327;
1257.3000;0.4347;1.0280;
1257.6000;0.4330;1.0303;
1257.9000;0.4298;1.0280;
1258.2000;0.4371;1.0397;
1258.5000;0.4330;1.0350;
1258.8000;0.4339;1.0350;
1259.1000;0.4339;1.0187;
1259.4000;0.4339;1.0187;
1259.7000;0.4339;1.0233;
1260.0000;0.4322;1.0210;
1260.3000;0.4322;1.0210;
1260.6000;0.4339;1.0163;
1260.9000;0.4347;1.0187;
1261.2000;0.4339;1.0257;
1261.5000;0.4330;1.0210;
1261.8000;0.4355;1.0280;
1262.1000;0.4339;1.0303;
1262.4000;0.4298;1.0187;
1262.7000;0.4322;1.0233;
1263.0000;0.4314;1.0233;
1263.3000;0.4314;1.0280;
1263.6000;0.4339;1.0350;
1263.9000;0.4347;1.0350;
1264.2000;0.4339;1.0280;
1264.5000;0.4355;1.0466;
1264.8000;0.4363;1.0466;
1265.1000;0.4339;1.0443;
1265.4000;0.4371;1.0583;
1265.7000;0.4347;1.0536;
1266.0000;0.4379;1.0630;
1266.3000;0.4347;1.0490;
1266.6000;0.4322;1.0397;
1266.9000;0.4306;1.0466;
1267.2000;0.4347;1.0513;
1267.5000;0.4330;1.0397;
1267.8000;0.4339;1.0443;
1268.1000;0.4347;1.0397;
1268.4000;0.4339;1.0233;
1268.7000;0.4339;1.0163;
1269.0000;0.4355;1.0280;
1269.3000;0.4330;1.0303;
1269.6000;0.4322;1.0350;
1269.9000;0.4330;1.0373;
1270.2000;0.4347;1.0397;
1270.5000;0.4379;1.0490;
1270.8000;0.4363;1.0466;
1271.1000;0.4330;1.0397;
1271.4000;0.4396;1.0536;
1271.7000;0.4322;1.0350;
1272.0000;0.4322;1.0327;
1272.3000;0.4314;1.0327;
1272.6000;0.4314;1.0373;
1272.9000;0.4306;1.0303;
1273.2000;0.4347;1.0373;
1273.5000;0.4282;1.0140;
1273.8000;0.4330;1.0163;
1274.1000;0.4330;1.0210;
1274.4000;0.4249;1.0094;
1274.7000;0.4347;1.0280;
1275.0000;0.4363;1.0280;
1275.3000;0.4355;1.0373;
1275.6000;0.4347;1.0350;
1275.9000;0.4347;1.0373;
1276.2000;0.4322;1.0397;
1276.5000;0.4347;1.0397;
1276.8000;0.4347;1.0466;
1277.1000;0.4387;1.0536;
1277.4000;0.4339;1.0420;
1277.7000;0.4339;1.0397;
1278.0000;0.4330;1.0443;
1278.3000;0.4330;1.0466;
1278.6000;0.4339;1.0443;
1278.9000;0.4347;1.0420;
1279.2000;0.4339;1.0350;
1279.5000;0.4330;1.0327;
1279.8000;0.4379;1.0443;
1280.1000;0.4363;1.0466;
1280.4000;0.4339;1.0490;
1280.7000;0.4347;1.0490;
1281.0000;0.4330;1.0443;
1281.3000;0.4339;1.0420;
1281.6000;0.4330;1.0397;
1281.9000;0.4330;1.0327;
1282.2000;0.4274;1.0117;
1282.5000;0.4339;1.0303;
1282.8000;0.4339;1.0303;
1283.1000;0.4347;1.0257;
1283.4000;0.4347;1.0210;
1283.7000;0.4355;1.0280;
1284.0000;0.4363;1.0373;
1284.3000;0.4339;1.0373;
1284.6000;0.4363;1.0443;
1284.9000;0.4355;1.0420;
1285.2000;0.4371;1.0536;
1285.5000;0.4314;1.0420;
1285.8000;0.4322;1.0443;
1286.1000;0.4371;1.0513;
1286.4000;0.4330;1.0420;
1286.7000;0.4306;1.0373;
1287.0000;0.4314;1.0420;
1287.3000;0.4347;1.0490;
1287.6000;0.4339;1.0443;
1287.9000;0.4339;1.0420;
1288.2000;0.4355;1.0327;
1288.5000;0.4330;1.0280;
1288.8000;0.4355;1.0210;
1289.1000;0.4330;1.0140;
1289.4000;0.4363;1.0187;
1289.7000;0.4339;1.0187;
1290.0000;0.4339;1.0094;
1290.3000;0.4306;1.0070;
1290.6000;0.4322;1.0140;
1290.9000;0.4322;1.0024;
1291.2000;0.4322;1.0047;
1291.5000;0.4330;1.0000;
1291.8000;0.4290;0.9907;
1292.1000;0.4339;1.0024;
1292.4000;0.4371;1.0024;
1292.7000;0.4404;1.0070;
1293.0000;0.4339;1.0024;
1293.3000;0.4330;0.9930;
1293.6000;0.4257;0.9814;
1293.9000;0.4330;0.9954;
1294.2000;0.4339;1.0024;
1294.5000;0.4339;1.0094;
1294.8000;0.4330;1.0047;
1295.1000;0.4322;0.9977;
1295.4000;0.4355;1.0094;
1295.7000;0.4306;1.0047;
1296.0000;0.4339;1.0117;
1296.3000;0.4387;1.0280;
1296.6000;0.4330;1.0233;
1296.9000;0.4314;1.0210;
1297.2000;0.4314;1.0210;
1297.5000;0.4330;1.0280;
1297.8000;0.4330;1.0327;
1298.1000;0.4339;1.0397;
1298.4000;0.4339;1.0327;
1298.7000;0.4306;1.0303;
1299.0000;0.4314;1.0373;
1299.3000;0.4355;1.0420;
1299.6000;0.4339;1.0397;
1299.9000;0.4330;1.0420;
1300.2000;0.4339;1.0303;
1300.5000;0.4355;1.0187;
1300.8000;0.4355;1.0117;
1301.1000;0.4339;1.0047;
1301.4000;0.4347;1.0094;
1301.7000;0.4420;1.0303;
1302.0000;0.4322;1.0047;
1302.3000;0.4355;1.0163;
1302.6000;0.4339;1.0117;
1302.9000;0.4339;1.0163;
1303.2000;0.4347;1.0140;
1303.5000;0.4290;1.0000;
1303.8000;0.4347;1.0163;
1304.1000;0.4347;1.0210;
1304.4000;0.4355;1.0233;
1304.7000;0.4347;1.0210;
1305.0000;0.4339;1.0303;
1305.3000;0.4314;1.0257;
1305.6000;0.4339;1.0420;
1305.9000;0.4347;1.0420;
1306.2000;0.4330;1.0443;
1306.5000;0.4339;1.0443;
1306.8000;0.4355;1.0490;
1307.1000;0.4298;1.0350;
1307.4000;0.4306;1.0420;
1307.7000;0.4322;1.0513;
1308.0000;0.4444;1.0676;
1308.3000;0.4379;1.0466;
1308.6000;0.4330;1.0397;
1308.9000;0.4322;1.0350;
1309.2000;0.4339;1.0466;
1309.5000;0.4347;1.0443;
1309.8000;0.4322;1.0397;
1310.1000;0.4249;1.0163;
1310.4000;0.4339;1.0350;
1310.7000;0.4339;1.0350;
1311.0000;0.4355;1.0303;
1311.3000;0.4412;1.0397;
1311.6000;0.4347;1.0210;
1311.9000;0.4387;1.0257;
1312.2000;0.4347;1.0163;
1312.5000;0.4339;1.0094;
1312.8000;0.4339;1.0140;
1313.1000;0.4355;1.0210;
1313.4000;0.4339;1.0117;
1313.7000;0.4322;1.0140;
1314.0000;0.4363;1.0350;
1314.3000;0.4371;1.0373;
1314.6000;0.4347;1.0327;
1314.9000;0.4355;1.0373;
1315.2000;0.4379;1.0443;
1315.5000;0.4330;1.0327;
1315.8000;0.4355;1.0420;
1316.1000;0.4322;1.0373;
1316.4000;0.4355;1.0397;
1316.7000;0.4330;1.0257;
1317.0000;0.4347;1.0280;
1317.3000;0.4330;1.0327;
1317.6000;0.4274;1.0117;
1317.9000;0.4339;1.0233;
1318.2000;0.4339;1.0187;
1318.5000;0.4330;1.0163;
1318.8000;0.4257;0.9954;
1319.1000;0.4322;1.0117;
1319.4000;0.4330;1.0163;
1319.7000;0.4347;1.0210;
1320.0000;0.4322;1.0187;
1320.3000;0.4306;1.0070;
1320.6000;0.4330;1.0024;
1320.9000;0.4355;1.0163;
1321.2000;0.4347;1.0117;
1321.5000;0.4339;1.0140;
1321.8000;0.4314;1.0094;
1322.1000;0.4339;1.0163;
1322.4000;0.4330;1.0163;
1322.7000;0.4347;1.0210;
1323.0000;0.4339;1.0210;
1323.3000;0.4322;1.0233;
1323.6000;0.4355;1.0257;
1323.9000;0.4339;1.0257;
1324.2000;0.4339;1.0233;
1324.5000;0.4314;1.0210;
1324.8000;0.4330;1.0233;
1325.1000;0.4355;1.0280;
1325.4000;0.4347;1.0187;
1325.7000;0.4339;1.0187;
1326.0000;0.4339;1.0070;
1326.3000;0.4314;1.0094;
1326.6000;0.4355;1.0163;
1326.9000;0.4355;1.0257;
1327.2000;0.4347;1.0233;
1327.5000;0.4339;1.0257;
1327.8000;0.4298;1.0187;
1328.1000;0.4363;1.0397;
1328.4000;0.4322;1.0350;
1328.7000;0.4330;1.0373;
1329.0000;0.4379;1.0536;
1329.3000;0.4339;1.0513;
1329.6000;0.4330;1.0420;
1329.9000;0.4347;1.0490;
1330.2000;0.4322;1.0397;
1330.5000;0.4314;1.0420;
1330.8000;0.4282;1.0397;
1331.1000;0.4282;1.0280;
1331.4000;0.4371;1.0397;
1331.7000;0.4355;1.0280;
1332.0000;0.4339;1.0280;
1332.3000;0.4379;1.0373;
1332.6000;0.4306;1.0117;
1332.9000;0.4339;1.0163;
1333.2000;0.4339;1.0117;
1333.5000;0.4347;1.0140;
1333.8000;0.4355;1.0094;
1334.1000;0.4339;1.0163;
1334.4000;0.4330;1.0187;
1334.7000;0.4355;1.0233;
1335.0000;0.4330;1.0187;
1335.3000;0.4339;1.0187;
1335.6000;0.4339;1.0187;
1335.9000;0.4339;1.0140;
1336.2000;0.4355;1.0140;
1336.5000;0.4339;1.0163;
1336.8000;0.4347;1.0187;
1337.1000;0.4355;1.0140;
1337.4000;0.4379;1.0233;
1337.7000;0.4339;1.0070;
1338.0000;0.4322;1.0117;
1338.3000;0.4330;1.0210;
1338.6000;0.4322;1.0233;
1338.9000;0.4347;1.0187;
1339.2000;0.4330;1.0140;
1339.5000;0.4347;1.0257;
1339.8000;0.4322;1.0163;
1340.1000;0.4330;1.0140;
1340.4000;0.4330;1.0163;
1340.7000;0.4404;1.0350;
1341.0000;0.4314;1.0070;
1341.3000;0.4339;1.0163;
1341.6000;0.4355;1.0140;
1341.9000;0.4322;1.0094;
1342.2000;0.4347;1.0163;
1342.5000;0.4339;1.0187;
1342.8000;0.4339;1.0140;
1343.1000;0.4330;1.0094;
1343.4000;0.4322;1.0117;
1343.7000;0.4355;1.0187;
1344.0000;0.4347;1.0257;
1344.3000;0.4339;1.0187;
1344.6000;0.4339;1.0187;
1344.9000;0.4322;1.0233;
1345.2000;0.4371;1.0233;
1345.5000;0.4322;1.0094;
1345.8000;0.4322;1.0094;
1346.1000;0.4330;1.0070;
1346.4000;0.4363;1.0117;
1346.7000;0.4347;1.0024;
1347.0000;0.4347;1.0024;
1347.3000;0.4330;1.0000;
1347.6000;0.4339;1.0094;
1347.9000;0.4339;1.0140;
1348.2000;0.4306;1.0094;
1348.5000;0.4379;1.0280;
1348.8000;0.4339;1.0187;
1349.1000;0.4339;1.0094;
1349.4000;0.4420;1.0327;
1349.7000;0.4314;1.0117;
1350.0000;0.4339;1.0094;
1350.3000;0.4339;1.0070;
1350.6000;0.4339;1.0094;
1350.9000;0.4322;1.0047;
1351.2000;0.4347;1.0070;
1351.5000;0.4355;0.9954;
1351.8000;0.4322;0.9930;
1352.1000;0.4330;1.0000;
1352.4000;0.4330;1.0024;
1352.7000;0.4330;1.0070;
1353.0000;0.4347;1.0094;
1353.3000;0.4347;1.0187;
1353.6000;0.4339;1.0163;
1353.9000;0.4322;1.0070;
1354.2000;0.4347;1.0163;
1354.5000;0.4330;0.9977;
1354.8000;0.4322;0.9954;
1355.1000;0.4330;1.0024;
1355.4000;0.4330;1.0000;
1355.7000;0.4314;1.0024;
1356.0000;0.4306;1.0187;
1356.3000;0.4314;1.0257;
1356.6000;0.4330;1.0187;
1356.9000;0.4347;1.0280;
1357.2000;0.4330;1.0327;
1357.5000;0.4355;1.0303;
1357.8000;0.4363;1.0397;
1358.1000;0.4241;1.0117;
1358.4000;0.4330;1.0303;
1358.7000;0.4330;1.0303;
1359.0000;0.4298;1.0210;
1359.3000;0.4347;1.0350;
1359.6000;0.4330;1.0350;
1359.9000;0.4339;1.0280;
1360.2000;0.4339;1.0257;
1360.5000;0.4355;1.0210;
1360.8000;0.4347;1.0187;
1361.1000;0.4347;1.0140;
1361.4000;0.4347;1.0094;
1361.7000;0.4347;1.0094;
1362.0000;0.4355;1.0047;
1362.3000;0.4322;0.9977;
1362.6000;0.4379;1.0117;
1362.9000;0.4371;1.0163;
1363.2000;0.4387;1.0163;
1363.5000;0.4322;1.0094;
1363.8000;0.4339;1.0163;
1364.1000;0.4347;1.0163;
1364.4000;0.4330;1.0094;
1364.7000;0.4371;1.0187;
1365.0000;0.4339;1.0163;
1365.3000;0.4339;1.0210;
1365.6000;0.4330;1.0163;
1365.9000;0.4322;1.0187;
1366.2000;0.4371;1.0303;
1366.5000;0.4355;1.0233;
1366.8000;0.4339;1.0163;
1367.1000;0.4347;1.0163;
1367.4000;0.4355;1.0210;
1367.7000;0.4355;1.0280;
1368.0000;0.4355;1.0303;
1368.3000;0.4322;1.0257;
1368.6000;0.4339;1.0303;
1368.9000;0.4322;1.0163;
1369.2000;0.4282;1.0024;
1369.5000;0.4322;1.0187;
1369.8000;0.4322;1.0140;
1370.1000;0.4339;1.0210;
1370.4000;0.4330;1.0163;
1370.7000;0.4330;1.0163;
1371.0000;0.4330;1.0140;
1371.3000;0.4339;1.0094;
1371.6000;0.4330;1.0047;
1371.9000;0.4322;1.0000;
1372.2000;0.4339;0.9977;
1372.5000;0.4322;0.9930;
1372.8000;0.4330;0.9977;
1373.1000;0.4257;0.9837;
1373.4000;0.4355;1.0094;
1373.7000;0.4347;1.0163;
1374.0000;0.4339;1.0210;
1374.3000;0.4330;1.0163;
1374.6000;0.4371;1.0280;
1374.9000;0.4330;1.0233;
1375.2000;0.4314;1.0233;
1375.5000;0.4290;1.0163;
1375.8000;0.4339;1.0233;
1376.1000;0.4322;1.0210;
1376.4000;0.4330;1.0163;
1376.7000;0.4339;1.0140;
1377.0000;0.4347;1.0140;
1377.3000;0.4355;1.0117;
1377.6000;0.4347;1.0047;
1377.9000;0.4387;1.0117;
1378.2000;0.4347;1.0070;
1378.5000;0.4363;1.0094;
1378.8000;0.4322;1.0024;
1379.1000;0.4290;0.9907;
1379.4000;0.4347;1.0000;
1379.7000;0.4347;0.9954;
1380.0000;0.4330;0.9907;
1380.3000;0.4355;1.0000;
1380.6000;0.4298;0.9837;
1380.9000;0.4355;1.0070;
1381.2000;0.4404;1.0187;
1381.5000;0.4355;1.0070;
1381.8000;0.4339;1.0000;
1382.1000;0.4355;1.0047;
1382.4000;0.4412;1.0187;
1382.7000;0.4322;0.9954;
1383.0000;0.4322;1.0000;
1383.3000;0.4355;0.9954;
1383.6000;0.4355;1.0000;
1383.9000;0.4330;0.9954;
1384.2000;0.4355;1.0000;
1384.5000;0.4330;0.9907;
1384.8000;0.4355;1.0000;
1385.1000;0.4330;1.0070;
1385.4000;0.4330;1.0163;
1385.7000;0.4339;1.0163;
1386.0000;0.4379;1.0210;
1386.3000;0.4339;1.0140;
1386.6000;0.4396;1.0257;
1386.9000;0.4347;1.0117;
1387.2000;0.4355;1.0024;
1387.5000;0.4347;1.0000;
1387.8000;0.4347;1.0094;
1388.1000;0.4363;1.0047;
1388.4000;0.4355;1.0047;
1388.7000;0.4347;0.9954;
1389.0000;0.4298;0.9814;
1389.3000;0.4355;0.9907;
1389.6000;0.4339;0.9977;
1389.9000;0.4347;1.0047;
1390.2000;0.4330;0.9954;
1390.5000;0.4330;0.9954;
1390.8000;0.4314;0.9930;
1391.1000;0.4330;1.0047;
1391.4000;0.4314;1.0117;
1391.7000;0.4347;1.0257;
1392.0000;0.4298;1.0117;
1392.3000;0.4330;1.0140;
1392.6000;0.4306;0.9954;
1392.9000;0.4330;0.9954;
1393.2000;0.4314;0.9790;
1393.5000;0.4347;0.9907;
1393.8000;0.4371;1.0000;
1394.1000;0.4347;0.9930;
1394.4000;0.4330;0.9930;
1394.7000;0.4363;1.0070;
1395.0000;0.4412;1.0187;
1395.3000;0.4339;1.0024;
1395.6000;0.4339;1.0070;
1395.9000;0.4298;1.0070;
1396.2000;0.4355;1.0210;
1396.5000;0.4347;1.0140;
1396.8000;0.4396;1.0257;
1397.1000;0.4322;1.0117;
1397.4000;0.4355;1.0233;
1397.7000;0.4339;1.0210;
1398.0000;0.4330;1.0140;
1398.3000;0.4330;1.0210;
1398.6000;0.4322;1.0187;
1398.9000;0.4339;1.0187;
1399.2000;0.4314;1.0117;
1399.5000;0.4322;1.0140;
1399.8000;0.4322;1.0117;
