time/ms;Fluo/V;P700 deltaI/I x10³;
-199.8000;0.4794;0.8625;
-199.5000;0.4892;0.8788;
-199.2000;0.4900;0.8765;
-198.9000;0.4827;0.8532;
-198.6000;0.4908;0.8788;
-198.3000;0.4908;0.8765;
-198.0000;0.4908;0.8741;
-197.7000;0.4900;0.8741;
-197.4000;0.4941;0.8811;
-197.1000;0.4908;0.8788;
-196.8000;0.4925;0.8811;
-196.5000;0.4982;0.8951;
-196.2000;0.4933;0.8811;
-195.9000;0.4908;0.8718;
-195.6000;0.4941;0.8718;
-195.3000;0.4892;0.8625;
-195.0000;0.5006;0.8858;
-194.7000;0.4982;0.8695;
-194.4000;0.4957;0.8648;
-194.1000;0.4933;0.8602;
-193.8000;0.5014;0.8811;
-193.5000;0.4876;0.8485;
-193.2000;0.4908;0.8532;
-192.9000;0.4949;0.8555;
-192.6000;0.4949;0.8695;
-192.3000;0.4941;0.8672;
-192.0000;0.4933;0.8578;
-191.7000;0.4868;0.8485;
-191.4000;0.4925;0.8648;
-191.1000;0.4949;0.8648;
-190.8000;0.4925;0.8578;
-190.5000;0.4925;0.8625;
-190.2000;0.4941;0.8625;
-189.9000;0.4949;0.8695;
-189.6000;0.4965;0.8695;
-189.3000;0.4900;0.8578;
-189.0000;0.4941;0.8578;
-188.7000;0.4941;0.8532;
-188.4000;0.4941;0.8602;
-188.1000;0.4949;0.8578;
-187.8000;0.4957;0.8555;
-187.5000;0.4957;0.8508;
-187.2000;0.4957;0.8602;
-186.9000;0.4998;0.8835;
-186.6000;0.4949;0.8718;
-186.3000;0.4974;0.8788;
-186.0000;0.4917;0.8602;
-185.7000;0.4982;0.8788;
-185.4000;0.4974;0.8788;
-185.1000;0.4933;0.8695;
-184.8000;0.4884;0.8508;
-184.5000;0.5022;0.8905;
-184.2000;0.4957;0.8765;
-183.9000;0.4974;0.8788;
-183.6000;0.4965;0.8765;
-183.3000;0.4974;0.8695;
-183.0000;0.4982;0.8741;
-182.7000;0.4990;0.8718;
-182.4000;0.4982;0.8718;
-182.1000;0.4900;0.8532;
-181.8000;0.4982;0.8741;
-181.5000;0.4974;0.8672;
-181.2000;0.4974;0.8672;
-180.9000;0.4957;0.8672;
-180.6000;0.4982;0.8741;
-180.3000;0.4998;0.8835;
-180.0000;0.4990;0.8765;
-179.7000;0.4990;0.8741;
-179.4000;0.4990;0.8718;
-179.1000;0.4974;0.8672;
-178.8000;0.4998;0.8672;
-178.5000;0.4998;0.8555;
-178.2000;0.4982;0.8508;
-177.9000;0.4990;0.8578;
-177.6000;0.4990;0.8602;
-177.3000;0.4974;0.8578;
-177.0000;0.5022;0.8741;
-176.7000;0.5079;0.8975;
-176.4000;0.4974;0.8788;
-176.1000;0.4941;0.8695;
-175.8000;0.5022;0.8858;
-175.5000;0.5014;0.8765;
-175.2000;0.4933;0.8625;
-174.9000;0.4982;0.8811;
-174.6000;0.4982;0.8718;
-174.3000;0.4957;0.8625;
-174.0000;0.4998;0.8695;
-173.7000;0.4998;0.8602;
-173.4000;0.5006;0.8718;
-173.1000;0.4998;0.8648;
-172.8000;0.5006;0.8672;
-172.5000;0.5006;0.8602;
-172.2000;0.5014;0.8672;
-171.9000;0.4982;0.8602;
-171.6000;0.5014;0.8648;
-171.3000;0.4990;0.8695;
-171.0000;0.4957;0.8555;
-170.7000;0.4974;0.8578;
-170.4000;0.5055;0.8765;
-170.1000;0.5014;0.8672;
-169.8000;0.5055;0.8741;
-169.5000;0.5014;0.8672;
-169.2000;0.4990;0.8625;
-168.9000;0.5031;0.8765;
-168.6000;0.5006;0.8811;
-168.3000;0.5055;0.8905;
-168.0000;0.5039;0.8811;
-167.7000;0.5071;0.8788;
-167.4000;0.5047;0.8765;
-167.1000;0.5022;0.8765;
-166.8000;0.5022;0.8881;
-166.5000;0.5014;0.8835;
-166.2000;0.5071;0.8881;
-165.9000;0.5039;0.8811;
-165.6000;0.5063;0.8835;
-165.3000;0.5039;0.8741;
-165.0000;0.5022;0.8648;
-164.7000;0.5055;0.8625;
-164.4000;0.5063;0.8625;
-164.1000;0.5031;0.8555;
-163.8000;0.5047;0.8555;
-163.5000;0.5055;0.8532;
-163.2000;0.5047;0.8485;
-162.9000;0.5039;0.8532;
-162.6000;0.5071;0.8602;
-162.3000;0.5088;0.8578;
-162.0000;0.5039;0.8485;
-161.7000;0.5096;0.8625;
-161.4000;0.5071;0.8532;
-161.1000;0.5088;0.8532;
-160.8000;0.5055;0.8485;
-160.5000;0.5055;0.8392;
-160.2000;0.5063;0.8508;
-159.9000;0.5079;0.8532;
-159.6000;0.5063;0.8462;
-159.3000;0.5104;0.8602;
-159.0000;0.5088;0.8462;
-158.7000;0.5079;0.8462;
-158.4000;0.5128;0.8578;
-158.1000;0.5088;0.8415;
-157.8000;0.5088;0.8485;
-157.5000;0.5096;0.8508;
-157.2000;0.5120;0.8485;
-156.9000;0.5079;0.8438;
-156.6000;0.5096;0.8508;
-156.3000;0.5104;0.8485;
-156.0000;0.5096;0.8555;
-155.7000;0.5096;0.8508;
-155.4000;0.5096;0.8602;
-155.1000;0.5096;0.8578;
-154.8000;0.5071;0.8485;
-154.5000;0.5096;0.8555;
-154.2000;0.5079;0.8578;
-153.9000;0.5112;0.8555;
-153.6000;0.5120;0.8485;
-153.3000;0.5022;0.8275;
-153.0000;0.5096;0.8345;
-152.7000;0.5096;0.8322;
-152.4000;0.5128;0.8462;
-152.1000;0.5104;0.8415;
-151.8000;0.5112;0.8485;
-151.5000;0.5112;0.8532;
-151.2000;0.5128;0.8602;
-150.9000;0.5112;0.8602;
-150.6000;0.5120;0.8648;
-150.3000;0.5128;0.8788;
-150.0000;0.5193;0.8998;
-149.7000;0.5128;0.8835;
-149.4000;0.5120;0.8858;
-149.1000;0.5128;0.8765;
-148.8000;0.5144;0.8718;
-148.5000;0.5144;0.8672;
-148.2000;0.5104;0.8625;
-147.9000;0.5128;0.8741;
-147.6000;0.5144;0.8788;
-147.3000;0.5144;0.8741;
-147.0000;0.5128;0.8672;
-146.7000;0.5104;0.8555;
-146.4000;0.5136;0.8508;
-146.1000;0.5063;0.8438;
-145.8000;0.5112;0.8532;
-145.5000;0.5112;0.8462;
-145.2000;0.5128;0.8438;
-144.9000;0.5128;0.8462;
-144.6000;0.5153;0.8485;
-144.3000;0.5144;0.8485;
-144.0000;0.5193;0.8648;
-143.7000;0.5242;0.8765;
-143.4000;0.5161;0.8625;
-143.1000;0.5136;0.8555;
-142.8000;0.5161;0.8602;
-142.5000;0.5088;0.8415;
-142.2000;0.5193;0.8718;
-141.9000;0.5234;0.8741;
-141.6000;0.5153;0.8485;
-141.3000;0.5161;0.8555;
-141.0000;0.5161;0.8555;
-140.7000;0.5047;0.8182;
-140.4000;0.5185;0.8438;
-140.1000;0.5226;0.8602;
-139.8000;0.5136;0.8369;
-139.5000;0.5177;0.8485;
-139.2000;0.5177;0.8578;
-138.9000;0.5177;0.8625;
-138.6000;0.5185;0.8602;
-138.3000;0.5177;0.8555;
-138.0000;0.5185;0.8555;
-137.7000;0.5177;0.8485;
-137.4000;0.5161;0.8438;
-137.1000;0.5201;0.8438;
-136.8000;0.5177;0.8345;
-136.5000;0.5185;0.8345;
-136.2000;0.5185;0.8438;
-135.9000;0.5201;0.8508;
-135.6000;0.5185;0.8508;
-135.3000;0.5193;0.8485;
-135.0000;0.5201;0.8392;
-134.7000;0.5201;0.8415;
-134.4000;0.5258;0.8508;
-134.1000;0.5201;0.8415;
-133.8000;0.5193;0.8462;
-133.5000;0.5193;0.8415;
-133.2000;0.5242;0.8578;
-132.9000;0.5161;0.8322;
-132.6000;0.5177;0.8322;
-132.3000;0.5210;0.8182;
-132.0000;0.5201;0.8089;
-131.7000;0.5201;0.8112;
-131.4000;0.5185;0.8112;
-131.1000;0.5226;0.8205;
-130.8000;0.5161;0.8019;
-130.5000;0.5218;0.8112;
-130.2000;0.5210;0.8135;
-129.9000;0.5218;0.8252;
-129.6000;0.5267;0.8369;
-129.3000;0.5234;0.8275;
-129.0000;0.5226;0.8205;
-128.7000;0.5201;0.8159;
-128.4000;0.5234;0.8252;
-128.1000;0.5258;0.8345;
-127.8000;0.5234;0.8369;
-127.5000;0.5242;0.8392;
-127.2000;0.5201;0.8275;
-126.9000;0.5267;0.8415;
-126.6000;0.5258;0.8508;
-126.3000;0.5242;0.8438;
-126.0000;0.5267;0.8462;
-125.7000;0.5242;0.8438;
-125.4000;0.5234;0.8392;
-125.1000;0.5258;0.8485;
-124.8000;0.5242;0.8555;
-124.5000;0.5218;0.8532;
-124.2000;0.5258;0.8555;
-123.9000;0.5226;0.8508;
-123.6000;0.5169;0.8392;
-123.3000;0.5250;0.8555;
-123.0000;0.5250;0.8485;
-122.7000;0.5299;0.8602;
-122.4000;0.5242;0.8462;
-122.1000;0.5267;0.8485;
-121.8000;0.5275;0.8485;
-121.5000;0.5250;0.8485;
-121.2000;0.5242;0.8438;
-120.9000;0.5136;0.8159;
-120.6000;0.5291;0.8578;
-120.3000;0.5267;0.8508;
-120.0000;0.5258;0.8508;
-119.7000;0.5315;0.8555;
-119.4000;0.5283;0.8438;
-119.1000;0.5275;0.8462;
-118.8000;0.5258;0.8485;
-118.5000;0.5299;0.8555;
-118.2000;0.5348;0.8625;
-117.9000;0.5299;0.8555;
-117.6000;0.5291;0.8578;
-117.3000;0.5275;0.8508;
-117.0000;0.5307;0.8578;
-116.7000;0.5356;0.8695;
-116.4000;0.5299;0.8532;
-116.1000;0.5307;0.8578;
-115.8000;0.5315;0.8438;
-115.5000;0.5291;0.8369;
-115.2000;0.5283;0.8415;
-114.9000;0.5315;0.8462;
-114.6000;0.5307;0.8392;
-114.3000;0.5364;0.8485;
-114.0000;0.5324;0.8415;
-113.7000;0.5332;0.8438;
-113.4000;0.5324;0.8415;
-113.1000;0.5315;0.8392;
-112.8000;0.5307;0.8415;
-112.5000;0.5324;0.8508;
-112.2000;0.5315;0.8462;
-111.9000;0.5307;0.8438;
-111.6000;0.5315;0.8462;
-111.3000;0.5332;0.8555;
-111.0000;0.5315;0.8532;
-110.7000;0.5307;0.8625;
-110.4000;0.5315;0.8695;
-110.1000;0.5315;0.8648;
-109.8000;0.5332;0.8602;
-109.5000;0.5307;0.8602;
-109.2000;0.5324;0.8602;
-108.9000;0.5324;0.8625;
-108.6000;0.5348;0.8625;
-108.3000;0.5340;0.8741;
-108.0000;0.5381;0.8858;
-107.7000;0.5340;0.8741;
-107.4000;0.5348;0.8741;
-107.1000;0.5348;0.8695;
-106.8000;0.5348;0.8672;
-106.5000;0.5356;0.8602;
-106.2000;0.5364;0.8602;
-105.9000;0.5324;0.8532;
-105.6000;0.5340;0.8438;
-105.3000;0.5364;0.8508;
-105.0000;0.5348;0.8462;
-104.7000;0.5356;0.8532;
-104.4000;0.5324;0.8369;
-104.1000;0.5324;0.8322;
-103.8000;0.5389;0.8438;
-103.5000;0.5348;0.8392;
-103.2000;0.5299;0.8369;
-102.9000;0.5364;0.8648;
-102.6000;0.5364;0.8578;
-102.3000;0.5372;0.8578;
-102.0000;0.5356;0.8625;
-101.7000;0.5364;0.8625;
-101.4000;0.5372;0.8578;
-101.1000;0.5364;0.8508;
-100.8000;0.5372;0.8602;
-100.5000;0.5446;0.8788;
-100.2000;0.5381;0.8532;
-99.9000;0.5348;0.8369;
-99.6000;0.5307;0.8415;
-99.3000;0.5389;0.8625;
-99.0000;0.5397;0.8695;
-98.7000;0.5389;0.8695;
-98.4000;0.5389;0.8695;
-98.1000;0.5405;0.8602;
-97.8000;0.5381;0.8462;
-97.5000;0.5397;0.8485;
-97.2000;0.5381;0.8462;
-96.9000;0.5397;0.8508;
-96.6000;0.5405;0.8485;
-96.3000;0.5397;0.8485;
-96.0000;0.5381;0.8462;
-95.7000;0.5389;0.8532;
-95.4000;0.5397;0.8578;
-95.1000;0.5405;0.8555;
-94.8000;0.5405;0.8625;
-94.5000;0.5397;0.8625;
-94.2000;0.5413;0.8625;
-93.9000;0.5397;0.8625;
-93.6000;0.5438;0.8648;
-93.3000;0.5405;0.8625;
-93.0000;0.5413;0.8625;
-92.7000;0.5405;0.8672;
-92.4000;0.5413;0.8648;
-92.1000;0.5405;0.8695;
-91.8000;0.5413;0.8695;
-91.5000;0.5429;0.8672;
-91.2000;0.5438;0.8695;
-90.9000;0.5413;0.8625;
-90.6000;0.5405;0.8578;
-90.3000;0.5348;0.8438;
-90.0000;0.5372;0.8485;
-89.7000;0.5429;0.8602;
-89.4000;0.5429;0.8625;
-89.1000;0.5421;0.8555;
-88.8000;0.5429;0.8625;
-88.5000;0.5421;0.8602;
-88.2000;0.5438;0.8625;
-87.9000;0.5438;0.8602;
-87.6000;0.5438;0.8602;
-87.3000;0.5421;0.8532;
-87.0000;0.5446;0.8508;
-86.7000;0.5438;0.8438;
-86.4000;0.5348;0.8299;
-86.1000;0.5446;0.8532;
-85.8000;0.5429;0.8462;
-85.5000;0.5438;0.8438;
-85.2000;0.5486;0.8532;
-84.9000;0.5462;0.8578;
-84.6000;0.5470;0.8625;
-84.3000;0.5454;0.8625;
-84.0000;0.5495;0.8788;
-83.7000;0.5478;0.8718;
-83.4000;0.5478;0.8672;
-83.1000;0.5478;0.8625;
-82.8000;0.5470;0.8578;
-82.5000;0.5478;0.8625;
-82.2000;0.5486;0.8672;
-81.9000;0.5478;0.8765;
-81.6000;0.5454;0.8741;
-81.3000;0.5462;0.8695;
-81.0000;0.5503;0.8811;
-80.7000;0.5478;0.8811;
-80.4000;0.5462;0.8672;
-80.1000;0.5470;0.8672;
-79.8000;0.5413;0.8532;
-79.5000;0.5478;0.8648;
-79.2000;0.5478;0.8578;
-78.9000;0.5495;0.8555;
-78.6000;0.5503;0.8602;
-78.3000;0.5462;0.8508;
-78.0000;0.5446;0.8625;
-77.7000;0.5486;0.8765;
-77.4000;0.5486;0.8718;
-77.1000;0.5543;0.8765;
-76.8000;0.5478;0.8578;
-76.5000;0.5486;0.8508;
-76.2000;0.5486;0.8485;
-75.9000;0.5584;0.8811;
-75.6000;0.5478;0.8578;
-75.3000;0.5478;0.8578;
-75.0000;0.5486;0.8392;
-74.7000;0.5503;0.8438;
-74.4000;0.5503;0.8415;
-74.1000;0.5503;0.8532;
-73.8000;0.5495;0.8648;
-73.5000;0.5454;0.8532;
-73.2000;0.5503;0.8648;
-72.9000;0.5495;0.8788;
-72.6000;0.5503;0.8858;
-72.3000;0.5519;0.8858;
-72.0000;0.5519;0.8881;
-71.7000;0.5519;0.8788;
-71.4000;0.5495;0.8718;
-71.1000;0.5503;0.8788;
-70.8000;0.5527;0.8835;
-70.5000;0.5535;0.8905;
-70.2000;0.5543;0.8951;
-69.9000;0.5543;0.8905;
-69.6000;0.5527;0.8788;
-69.3000;0.5535;0.8811;
-69.0000;0.5535;0.8765;
-68.7000;0.5527;0.8718;
-68.4000;0.5543;0.8811;
-68.1000;0.5543;0.8788;
-67.8000;0.5527;0.8811;
-67.5000;0.5576;0.8975;
-67.2000;0.5560;0.8928;
-66.9000;0.5568;0.8998;
-66.6000;0.5527;0.8881;
-66.3000;0.5519;0.8835;
-66.0000;0.5551;0.8858;
-65.7000;0.5625;0.9068;
-65.4000;0.5543;0.8881;
-65.1000;0.5576;0.8905;
-64.8000;0.5527;0.8718;
-64.5000;0.5560;0.8765;
-64.2000;0.5584;0.8788;
-63.9000;0.5543;0.8741;
-63.6000;0.5543;0.8672;
-63.3000;0.5486;0.8532;
-63.0000;0.5560;0.8695;
-62.7000;0.5568;0.8718;
-62.4000;0.5551;0.8695;
-62.1000;0.5551;0.8695;
-61.8000;0.5584;0.8788;
-61.5000;0.5584;0.8811;
-61.2000;0.5576;0.8672;
-60.9000;0.5568;0.8718;
-60.6000;0.5584;0.8811;
-60.3000;0.5568;0.8835;
-60.0000;0.5576;0.8881;
-59.7000;0.5641;0.8998;
-59.4000;0.5560;0.8788;
-59.1000;0.5576;0.8811;
-58.8000;0.5608;0.8975;
-58.5000;0.5560;0.8951;
-58.2000;0.5600;0.9021;
-57.9000;0.5608;0.9068;
-57.6000;0.5600;0.8928;
-57.3000;0.5576;0.8905;
-57.0000;0.5600;0.9045;
-56.7000;0.5617;0.9045;
-56.4000;0.5584;0.8951;
-56.1000;0.5600;0.9045;
-55.8000;0.5584;0.9045;
-55.5000;0.5560;0.8905;
-55.2000;0.5592;0.8928;
-54.9000;0.5576;0.8905;
-54.6000;0.5551;0.8811;
-54.3000;0.5576;0.8788;
-54.0000;0.5608;0.8835;
-53.7000;0.5600;0.8765;
-53.4000;0.5617;0.8811;
-53.1000;0.5617;0.8765;
-52.8000;0.5600;0.8788;
-52.5000;0.5633;0.8811;
-52.2000;0.5600;0.8835;
-51.9000;0.5600;0.8788;
-51.6000;0.5633;0.8788;
-51.3000;0.5608;0.8718;
-51.0000;0.5592;0.8741;
-50.7000;0.5584;0.8625;
-50.4000;0.5584;0.8695;
-50.1000;0.5584;0.8672;
-49.8000;0.5657;0.8788;
-49.5000;0.5625;0.8765;
-49.2000;0.5600;0.8741;
-48.9000;0.5657;0.8881;
-48.6000;0.5617;0.8718;
-48.3000;0.5608;0.8741;
-48.0000;0.5600;0.8695;
-47.7000;0.5560;0.8625;
-47.4000;0.5592;0.8672;
-47.1000;0.5625;0.8718;
-46.8000;0.5625;0.8741;
-46.5000;0.5682;0.8835;
-46.2000;0.5641;0.8648;
-45.9000;0.5625;0.8695;
-45.6000;0.5633;0.8695;
-45.3000;0.5633;0.8672;
-45.0000;0.5633;0.8672;
-44.7000;0.5584;0.8648;
-44.4000;0.5649;0.8788;
-44.1000;0.5641;0.8741;
-43.8000;0.5576;0.8672;
-43.5000;0.5625;0.8718;
-43.2000;0.5617;0.8648;
-42.9000;0.5649;0.8695;
-42.6000;0.5633;0.8765;
-42.3000;0.5698;0.8905;
-42.0000;0.5641;0.8672;
-41.7000;0.5641;0.8695;
-41.4000;0.5657;0.8695;
-41.1000;0.5617;0.8648;
-40.8000;0.5649;0.8672;
-40.5000;0.5649;0.8718;
-40.2000;0.5649;0.8718;
-39.9000;0.5657;0.8788;
-39.6000;0.5657;0.8695;
-39.3000;0.5600;0.8648;
-39.0000;0.5657;0.8788;
-38.7000;0.5665;0.8765;
-38.4000;0.5633;0.8765;
-38.1000;0.5682;0.8858;
-37.8000;0.5665;0.8858;
-37.5000;0.5682;0.8998;
-37.2000;0.5665;0.8881;
-36.9000;0.5665;0.8975;
-36.6000;0.5682;0.8975;
-36.3000;0.5690;0.8998;
-36.0000;0.5690;0.8928;
-35.7000;0.5682;0.8835;
-35.4000;0.5682;0.8858;
-35.1000;0.5698;0.8811;
-34.8000;0.5690;0.8765;
-34.5000;0.5665;0.8788;
-34.2000;0.5649;0.8765;
-33.9000;0.5657;0.8858;
-33.6000;0.5665;0.8741;
-33.3000;0.5657;0.8648;
-33.0000;0.5674;0.8695;
-32.7000;0.5682;0.8695;
-32.4000;0.5649;0.8578;
-32.1000;0.5674;0.8648;
-31.8000;0.5674;0.8695;
-31.5000;0.5690;0.8695;
-31.2000;0.5690;0.8741;
-30.9000;0.5706;0.8765;
-30.6000;0.5674;0.8695;
-30.3000;0.5682;0.8718;
-30.0000;0.5698;0.8765;
-29.7000;0.5682;0.8788;
-29.4000;0.5706;0.8881;
-29.1000;0.5690;0.8835;
-28.8000;0.5674;0.8788;
-28.5000;0.5771;0.9021;
-28.2000;0.5690;0.8718;
-27.9000;0.5682;0.8625;
-27.6000;0.5690;0.8555;
-27.3000;0.5674;0.8555;
-27.0000;0.5674;0.8625;
-26.7000;0.5665;0.8602;
-26.4000;0.5698;0.8672;
-26.1000;0.5747;0.8718;
-25.8000;0.5665;0.8462;
-25.5000;0.5698;0.8462;
-25.2000;0.5706;0.8578;
-24.9000;0.5706;0.8625;
-24.6000;0.5714;0.8648;
-24.3000;0.5714;0.8625;
-24.0000;0.5674;0.8625;
-23.7000;0.5674;0.8672;
-23.4000;0.5698;0.8765;
-23.1000;0.5633;0.8602;
-22.8000;0.5731;0.8811;
-22.5000;0.5722;0.8765;
-22.2000;0.5690;0.8648;
-21.9000;0.5706;0.8765;
-21.6000;0.5641;0.8555;
-21.3000;0.5714;0.8788;
-21.0000;0.5722;0.8811;
-20.7000;0.5698;0.8672;
-20.4000;0.5763;0.8881;
-20.1000;0.5714;0.8718;
-19.8000;0.5739;0.8718;
-19.5000;0.5771;0.8765;
-19.2000;0.5747;0.8555;
-18.9000;0.5665;0.8415;
-18.6000;0.5747;0.8508;
-18.3000;0.5731;0.8508;
-18.0000;0.5731;0.8555;
-17.7000;0.5739;0.8602;
-17.4000;0.5739;0.8555;
-17.1000;0.5731;0.8555;
-16.8000;0.5682;0.8508;
-16.5000;0.5739;0.8555;
-16.2000;0.5739;0.8625;
-15.9000;0.5739;0.8532;
-15.6000;0.5747;0.8578;
-15.3000;0.5739;0.8555;
-15.0000;0.5714;0.8532;
-14.7000;0.5861;0.8835;
-14.4000;0.5755;0.8648;
-14.1000;0.5739;0.8625;
-13.8000;0.5747;0.8672;
-13.5000;0.5731;0.8672;
-13.2000;0.5755;0.8741;
-12.9000;0.5747;0.8741;
-12.6000;0.5731;0.8718;
-12.3000;0.5731;0.8672;
-12.0000;0.5747;0.8672;
-11.7000;0.5763;0.8672;
-11.4000;0.5755;0.8625;
-11.1000;0.5804;0.8811;
-10.8000;0.5731;0.8672;
-10.5000;0.5771;0.8765;
-10.2000;0.5755;0.8741;
-9.9000;0.5820;0.8905;
-9.6000;0.5763;0.8741;
-9.3000;0.5788;0.8765;
-9.0000;0.5771;0.8695;
-8.7000;0.5747;0.8578;
-8.4000;0.5788;0.8625;
-8.1000;0.5657;0.8345;
-7.8000;0.5771;0.8625;
-7.5000;0.5788;0.8578;
-7.2000;0.5796;0.8648;
-6.9000;0.5771;0.8672;
-6.6000;0.5755;0.8578;
-6.3000;0.5755;0.8648;
-6.0000;0.5739;0.8602;
-5.7000;0.5779;0.8695;
-5.4000;0.5763;0.8718;
-5.1000;0.5828;0.8788;
-4.8000;0.5771;0.8578;
-4.5000;0.5788;0.8555;
-4.2000;0.5771;0.8602;
-3.9000;0.5828;0.8672;
-3.6000;0.5771;0.8485;
-3.3000;0.5788;0.8578;
-3.0000;0.5771;0.8532;
-2.7000;0.5779;0.8532;
-2.4000;0.5771;0.8555;
-2.1000;0.5788;0.8648;
-1.8000;0.5812;0.8648;
-1.5000;0.5771;0.8578;
-1.2000;0.5828;0.8695;
-0.9000;0.5779;0.8578;
-0.6000;0.5788;0.8695;
-0.3000;0.5812;0.8811;
0.0000;0.5812;0.8811;
0.3000;0.5983;0.8532;
0.6000;0.6406;0.8975;
0.9000;0.6772;0.9348;
1.2000;0.7106;0.9954;
1.5000;0.7293;1.0140;
1.8000;0.7440;1.0373;
2.1000;0.7603;1.0583;
2.4000;0.7749;1.0770;
2.7000;0.7676;1.0583;
3.0000;0.7888;1.1073;
3.3000;0.7945;1.1282;
3.6000;0.7993;1.1469;
3.9000;0.8026;1.1562;
4.2000;0.8059;1.1702;
4.5000;0.8116;1.1865;
4.8000;0.8156;1.1865;
5.1000;0.8148;1.1795;
5.4000;0.8189;1.1679;
5.7000;0.8205;1.1725;
6.0000;0.8156;1.1515;
6.3000;0.8221;1.1585;
6.6000;0.8254;1.1679;
6.9000;0.8278;1.1725;
7.2000;0.8262;1.1702;
7.5000;0.8335;1.1865;
7.8000;0.8287;1.1679;
8.1000;0.8400;1.1725;
8.4000;0.8352;1.1562;
8.7000;0.8360;1.1469;
9.0000;0.8392;1.1515;
9.3000;0.8392;1.1446;
9.6000;0.8425;1.1515;
9.9000;0.8344;1.1352;
10.2000;0.8425;1.1609;
10.5000;0.8449;1.1632;
10.8000;0.8449;1.1655;
11.1000;0.8457;1.1632;
11.4000;0.8474;1.1632;
11.7000;0.8490;1.1609;
12.0000;0.8449;1.1446;
12.3000;0.8482;1.1679;
12.6000;0.8514;1.1702;
12.9000;0.8563;1.1632;
13.2000;0.8547;1.1539;
13.5000;0.8555;1.1562;
13.8000;0.8555;1.1469;
14.1000;0.8563;1.1446;
14.4000;0.8555;1.1352;
14.7000;0.8580;1.1539;
15.0000;0.8620;1.1655;
15.3000;0.8547;1.1492;
15.6000;0.8596;1.1632;
15.9000;0.8718;1.1865;
16.2000;0.8661;1.1818;
16.5000;0.8645;1.1749;
16.8000;0.8637;1.1725;
17.1000;0.8645;1.1725;
17.4000;0.8677;1.1702;
17.7000;0.8677;1.1562;
18.0000;0.8653;1.1492;
18.3000;0.8669;1.1515;
18.6000;0.8694;1.1585;
18.9000;0.8718;1.1585;
19.2000;0.8726;1.1562;
19.5000;0.8718;1.1585;
19.8000;0.8734;1.1655;
20.1000;0.8751;1.1702;
20.4000;0.8759;1.1655;
20.7000;0.8759;1.1655;
21.0000;0.8791;1.1609;
21.3000;0.8767;1.1609;
21.6000;0.8775;1.1469;
21.9000;0.8791;1.1422;
22.2000;0.8767;1.1329;
22.5000;0.8799;1.1376;
22.8000;0.8807;1.1492;
23.1000;0.8824;1.1492;
23.4000;0.8791;1.1446;
23.7000;0.8824;1.1539;
24.0000;0.8816;1.1446;
24.3000;0.8840;1.1469;
24.6000;0.8775;1.1212;
24.9000;0.8832;1.1352;
25.2000;0.8905;1.1562;
25.5000;0.8856;1.1469;
25.8000;0.8889;1.1469;
26.1000;0.8889;1.1469;
26.4000;0.8873;1.1422;
26.7000;0.8889;1.1376;
27.0000;0.8856;1.1306;
27.3000;0.8873;1.1329;
27.6000;0.8962;1.1515;
27.9000;0.8913;1.1259;
28.2000;0.8897;1.1259;
28.5000;0.8938;1.1352;
28.8000;0.8848;1.1073;
29.1000;0.8921;1.1212;
29.4000;0.8913;1.1142;
29.7000;0.8962;1.1189;
30.0000;0.8946;1.1282;
30.3000;0.8970;1.1236;
30.6000;0.8938;1.1073;
30.9000;0.8946;1.1142;
31.2000;0.8954;1.1142;
31.5000;0.8970;1.1096;
31.8000;0.8978;1.1049;
32.1000;0.8978;1.1049;
32.4000;0.8987;1.1049;
32.7000;0.9003;1.1026;
33.0000;0.8970;1.1003;
33.3000;0.8987;1.1119;
33.6000;0.8995;1.1236;
33.9000;0.9052;1.1306;
34.2000;0.9125;1.1399;
34.5000;0.9027;1.1119;
34.8000;0.9027;1.1119;
35.1000;0.9117;1.1399;
35.4000;0.9052;1.1189;
35.7000;0.9076;1.1189;
36.0000;0.8970;1.0886;
36.3000;0.9011;1.0933;
36.6000;0.9068;1.1003;
36.9000;0.9060;1.0956;
37.2000;0.9027;1.0886;
37.5000;0.9068;1.0956;
37.8000;0.8995;1.0816;
38.1000;0.9092;1.1026;
38.4000;0.9060;1.1003;
38.7000;0.9101;1.1049;
39.0000;0.9092;1.1026;
39.3000;0.9092;1.0933;
39.6000;0.9092;1.0979;
39.9000;0.9101;1.1049;
40.2000;0.9101;1.0979;
40.5000;0.9092;1.0933;
40.8000;0.9141;1.1003;
41.1000;0.9052;1.0839;
41.4000;0.9068;1.0886;
41.7000;0.9117;1.0886;
42.0000;0.9158;1.1026;
42.3000;0.9125;1.0909;
42.6000;0.9125;1.0909;
42.9000;0.9141;1.0956;
43.2000;0.9141;1.0839;
43.5000;0.9206;1.0933;
43.8000;0.9133;1.0863;
44.1000;0.9149;1.0979;
44.4000;0.9166;1.1003;
44.7000;0.9158;1.0979;
45.0000;0.9166;1.0956;
45.3000;0.9158;1.0886;
45.6000;0.9182;1.0886;
45.9000;0.9166;1.0886;
46.2000;0.9149;1.0886;
46.5000;0.9158;1.0863;
46.8000;0.9190;1.1003;
47.1000;0.9190;1.1026;
47.4000;0.9231;1.1142;
47.7000;0.9198;1.1049;
48.0000;0.9190;1.1026;
48.3000;0.9206;1.1026;
48.6000;0.9206;1.0933;
48.9000;0.9190;1.0886;
49.2000;0.9198;1.0863;
49.5000;0.9239;1.1026;
49.8000;0.9190;1.0933;
50.1000;0.9190;1.0909;
50.4000;0.9206;1.1003;
50.7000;0.9206;1.0956;
51.0000;0.9198;1.0956;
51.3000;0.9223;1.1003;
51.6000;0.9263;1.1119;
51.9000;0.9214;1.1026;
52.2000;0.9263;1.1142;
52.5000;0.9206;1.0956;
52.8000;0.9214;1.0956;
53.1000;0.9239;1.0886;
53.4000;0.9239;1.0933;
53.7000;0.9190;1.0839;
54.0000;0.9206;1.0816;
54.3000;0.9190;1.0793;
54.6000;0.9190;1.0770;
54.9000;0.9223;1.0956;
55.2000;0.9206;1.0909;
55.5000;0.9247;1.0933;
55.8000;0.9231;1.0886;
56.1000;0.9385;1.1119;
56.4000;0.9255;1.0770;
56.7000;0.9255;1.0770;
57.0000;0.9255;1.0700;
57.3000;0.9263;1.0746;
57.6000;0.9280;1.0793;
57.9000;0.9296;1.0723;
58.2000;0.9288;1.0723;
58.5000;0.9255;1.0746;
58.8000;0.9247;1.0723;
59.1000;0.9288;1.0746;
59.4000;0.9296;1.0723;
59.7000;0.9304;1.0676;
60.0000;0.9296;1.0700;
60.3000;0.9280;1.0700;
60.6000;0.9263;1.0630;
60.9000;0.9288;1.0676;
61.2000;0.9296;1.0746;
61.5000;0.9288;1.0700;
61.8000;0.9304;1.0770;
62.1000;0.9296;1.0793;
62.4000;0.9312;1.0723;
62.7000;0.9255;1.0606;
63.0000;0.9288;1.0700;
63.3000;0.9312;1.0723;
63.6000;0.9288;1.0606;
63.9000;0.9312;1.0653;
64.2000;0.9288;1.0606;
64.5000;0.9402;1.0933;
64.8000;0.9304;1.0630;
65.1000;0.9320;1.0676;
65.4000;0.9312;1.0676;
65.7000;0.9320;1.0700;
66.0000;0.9312;1.0676;
66.3000;0.9328;1.0676;
66.6000;0.9328;1.0606;
66.9000;0.9328;1.0653;
67.2000;0.9312;1.0700;
67.5000;0.9320;1.0676;
67.8000;0.9312;1.0583;
68.1000;0.9312;1.0536;
68.4000;0.9353;1.0583;
68.7000;0.9337;1.0466;
69.0000;0.9337;1.0513;
69.3000;0.9320;1.0490;
69.6000;0.9353;1.0583;
69.9000;0.9345;1.0630;
70.2000;0.9337;1.0583;
70.5000;0.9337;1.0630;
70.8000;0.9353;1.0700;
71.1000;0.9377;1.0816;
71.4000;0.9377;1.0816;
71.7000;0.9426;1.0979;
72.0000;0.9361;1.0770;
72.3000;0.9369;1.0770;
72.6000;0.9361;1.0700;
72.9000;0.9418;1.0793;
73.2000;0.9361;1.0653;
73.5000;0.9288;1.0466;
73.8000;0.9402;1.0700;
74.1000;0.9353;1.0653;
74.4000;0.9410;1.0839;
74.7000;0.9361;1.0746;
75.0000;0.9361;1.0676;
75.3000;0.9361;1.0700;
75.6000;0.9459;1.0863;
75.9000;0.9345;1.0606;
76.2000;0.9296;1.0560;
76.5000;0.9345;1.0746;
76.8000;0.9361;1.0746;
77.1000;0.9369;1.0746;
77.4000;0.9361;1.0746;
77.7000;0.9288;1.0583;
78.0000;0.9385;1.0746;
78.3000;0.9377;1.0793;
78.6000;0.9369;1.0746;
78.9000;0.9402;1.0723;
79.2000;0.9385;1.0560;
79.5000;0.9402;1.0606;
79.8000;0.9345;1.0397;
80.1000;0.9361;1.0420;
80.4000;0.9361;1.0350;
80.7000;0.9394;1.0443;
81.0000;0.9385;1.0443;
81.3000;0.9402;1.0420;
81.6000;0.9410;1.0420;
81.9000;0.9385;1.0373;
82.2000;0.9410;1.0443;
82.5000;0.9410;1.0443;
82.8000;0.9353;1.0443;
83.1000;0.9394;1.0536;
83.4000;0.9377;1.0560;
83.7000;0.9345;1.0443;
84.0000;0.9426;1.0653;
84.3000;0.9418;1.0676;
84.6000;0.9402;1.0746;
84.9000;0.9418;1.0886;
85.2000;0.9410;1.0816;
85.5000;0.9385;1.0700;
85.8000;0.9304;1.0397;
86.1000;0.9418;1.0583;
86.4000;0.9426;1.0630;
86.7000;0.9369;1.0513;
87.0000;0.9418;1.0630;
87.3000;0.9418;1.0583;
87.6000;0.9426;1.0560;
87.9000;0.9426;1.0513;
88.2000;0.9434;1.0560;
88.5000;0.9418;1.0536;
88.8000;0.9434;1.0606;
89.1000;0.9418;1.0606;
89.4000;0.9369;1.0536;
89.7000;0.9418;1.0630;
90.0000;0.9426;1.0723;
90.3000;0.9426;1.0700;
90.6000;0.9459;1.0793;
90.9000;0.9483;1.0886;
91.2000;0.9434;1.0700;
91.5000;0.9418;1.0583;
91.8000;0.9442;1.0653;
92.1000;0.9410;1.0560;
92.4000;0.9434;1.0513;
92.7000;0.9434;1.0583;
93.0000;0.9434;1.0630;
93.3000;0.9491;1.0770;
93.6000;0.9426;1.0676;
93.9000;0.9418;1.0863;
94.2000;0.9410;1.0863;
94.5000;0.9418;1.0863;
94.8000;0.9442;1.0816;
95.1000;0.9434;1.0816;
95.4000;0.9410;1.0770;
95.7000;0.9418;1.0816;
96.0000;0.9451;1.0863;
96.3000;0.9426;1.0723;
96.6000;0.9402;1.0560;
96.9000;0.9442;1.0583;
97.2000;0.9442;1.0653;
97.5000;0.9451;1.0723;
97.8000;0.9434;1.0746;
98.1000;0.9442;1.0653;
98.4000;0.9442;1.0583;
98.7000;0.9418;1.0490;
99.0000;0.9451;1.0466;
99.3000;0.9467;1.0373;
99.6000;0.9442;1.0280;
99.9000;0.9418;1.0303;
100.2000;0.9426;1.0327;
100.5000;0.9451;1.0327;
100.8000;0.9442;1.0373;
101.1000;0.9426;1.0233;
101.4000;0.9410;1.0233;
101.7000;0.9442;1.0397;
102.0000;0.9451;1.0397;
102.3000;0.9442;1.0373;
102.6000;0.9434;1.0327;
102.9000;0.9467;1.0350;
103.2000;0.9483;1.0397;
103.5000;0.9459;1.0327;
103.8000;0.9475;1.0443;
104.1000;0.9475;1.0420;
104.4000;0.9434;1.0466;
104.7000;0.9467;1.0536;
105.0000;0.9475;1.0536;
105.3000;0.9459;1.0513;
105.6000;0.9491;1.0583;
105.9000;0.9434;1.0466;
106.2000;0.9434;1.0490;
106.5000;0.9451;1.0536;
106.8000;0.9483;1.0630;
107.1000;0.9451;1.0443;
107.4000;0.9483;1.0536;
107.7000;0.9483;1.0536;
108.0000;0.9483;1.0513;
108.3000;0.9475;1.0490;
108.6000;0.9475;1.0583;
108.9000;0.9345;1.0303;
109.2000;0.9459;1.0513;
109.5000;0.9369;1.0373;
109.8000;0.9516;1.0676;
110.1000;0.9491;1.0606;
110.4000;0.9418;1.0420;
110.7000;0.9459;1.0466;
111.0000;0.9475;1.0560;
111.3000;0.9459;1.0490;
111.6000;0.9459;1.0490;
111.9000;0.9483;1.0583;
112.2000;0.9442;1.0513;
112.5000;0.9475;1.0560;
112.8000;0.9483;1.0606;
113.1000;0.9475;1.0630;
113.4000;0.9475;1.0653;
113.7000;0.9467;1.0630;
114.0000;0.9451;1.0560;
114.3000;0.9475;1.0560;
114.6000;0.9499;1.0653;
114.9000;0.9434;1.0443;
115.2000;0.9491;1.0490;
115.5000;0.9459;1.0420;
115.8000;0.9475;1.0536;
116.1000;0.9483;1.0606;
116.4000;0.9451;1.0606;
116.7000;0.9483;1.0583;
117.0000;0.9475;1.0513;
117.3000;0.9467;1.0466;
117.6000;0.9516;1.0513;
117.9000;0.9491;1.0443;
118.2000;0.9483;1.0443;
118.5000;0.9491;1.0443;
118.8000;0.9475;1.0466;
119.1000;0.9345;1.0210;
119.4000;0.9483;1.0466;
119.7000;0.9581;1.0700;
120.0000;0.9516;1.0536;
120.3000;0.9532;1.0583;
120.6000;0.9491;1.0397;
120.9000;0.9483;1.0280;
121.2000;0.9459;1.0210;
121.5000;0.9483;1.0187;
121.8000;0.9467;1.0117;
122.1000;0.9605;1.0420;
122.4000;0.9491;1.0210;
122.7000;0.9491;1.0140;
123.0000;0.9491;1.0210;
123.3000;0.9524;1.0233;
123.6000;0.9499;1.0257;
123.9000;0.9499;1.0233;
124.2000;0.9418;1.0024;
124.5000;0.9475;1.0280;
124.8000;0.9605;1.0583;
125.1000;0.9483;1.0327;
125.4000;0.9483;1.0280;
125.7000;0.9467;1.0350;
126.0000;0.9491;1.0373;
126.3000;0.9508;1.0397;
126.6000;0.9540;1.0443;
126.9000;0.9532;1.0466;
127.2000;0.9475;1.0280;
127.5000;0.9483;1.0257;
127.8000;0.9508;1.0187;
128.1000;0.9491;1.0117;
128.4000;0.9491;1.0094;
128.7000;0.9516;1.0163;
129.0000;0.9508;1.0210;
129.3000;0.9491;1.0187;
129.6000;0.9491;1.0210;
129.9000;0.9524;1.0257;
130.2000;0.9402;0.9977;
130.5000;0.9499;1.0140;
130.8000;0.9491;1.0094;
131.1000;0.9508;1.0070;
131.4000;0.9491;1.0047;
131.7000;0.9491;0.9930;
132.0000;0.9540;1.0117;
132.3000;0.9491;1.0070;
132.6000;0.9516;1.0117;
132.9000;0.9499;1.0210;
133.2000;0.9508;1.0280;
133.5000;0.9548;1.0443;
133.8000;0.9491;1.0420;
134.1000;0.9491;1.0373;
134.4000;0.9491;1.0373;
134.7000;0.9508;1.0350;
135.0000;0.9491;1.0257;
135.3000;0.9508;1.0303;
135.6000;0.9491;1.0233;
135.9000;0.9516;1.0233;
136.2000;0.9499;1.0257;
136.5000;0.9499;1.0163;
136.8000;0.9499;1.0140;
137.1000;0.9451;1.0070;
137.4000;0.9499;1.0094;
137.7000;0.9516;1.0094;
138.0000;0.9491;1.0024;
138.3000;0.9524;1.0233;
138.6000;0.9483;1.0163;
138.9000;0.9499;1.0233;
139.2000;0.9491;1.0233;
139.5000;0.9491;1.0257;
139.8000;0.9491;1.0350;
140.1000;0.9516;1.0373;
140.4000;0.9508;1.0350;
140.7000;0.9467;1.0140;
141.0000;0.9532;1.0233;
141.3000;0.9483;1.0070;
141.6000;0.9410;0.9977;
141.9000;0.9499;1.0210;
142.2000;0.9483;1.0233;
142.5000;0.9467;1.0187;
142.8000;0.9499;1.0257;
143.1000;0.9475;1.0187;
143.4000;0.9491;1.0233;
143.7000;0.9491;1.0187;
144.0000;0.9475;1.0094;
144.3000;0.9491;1.0163;
144.6000;0.9442;1.0140;
144.9000;0.9508;1.0303;
145.2000;0.9491;1.0257;
145.5000;0.9483;1.0187;
145.8000;0.9508;1.0163;
146.1000;0.9491;1.0187;
146.4000;0.9491;1.0210;
146.7000;0.9573;1.0397;
147.0000;0.9508;1.0140;
147.3000;0.9483;1.0140;
147.6000;0.9508;1.0233;
147.9000;0.9508;1.0233;
148.2000;0.9508;1.0187;
148.5000;0.9483;1.0187;
148.8000;0.9499;1.0303;
149.1000;0.9491;1.0280;
149.4000;0.9499;1.0350;
149.7000;0.9491;1.0350;
150.0000;0.9491;1.0373;
150.3000;0.9516;1.0443;
150.6000;0.9508;1.0420;
150.9000;0.9499;1.0327;
151.2000;0.9499;1.0303;
151.5000;0.9499;1.0233;
151.8000;0.9499;1.0210;
152.1000;0.9508;1.0163;
152.4000;0.9508;1.0117;
152.7000;0.9516;1.0210;
153.0000;0.9532;1.0280;
153.3000;0.9508;1.0233;
153.6000;0.9556;1.0233;
153.9000;0.9524;1.0210;
154.2000;0.9524;1.0233;
154.5000;0.9491;1.0187;
154.8000;0.9516;1.0187;
155.1000;0.9499;1.0233;
155.4000;0.9483;1.0210;
155.7000;0.9516;1.0303;
156.0000;0.9499;1.0280;
156.3000;0.9516;1.0257;
156.6000;0.9524;1.0210;
156.9000;0.9508;1.0163;
157.2000;0.9483;1.0140;
157.5000;0.9491;1.0024;
157.8000;0.9491;1.0094;
158.1000;0.9499;1.0094;
158.4000;0.9499;1.0117;
158.7000;0.9483;1.0094;
159.0000;0.9491;1.0210;
159.3000;0.9516;1.0303;
159.6000;0.9499;1.0233;
159.9000;0.9516;1.0257;
160.2000;0.9499;1.0163;
160.5000;0.9508;1.0210;
160.8000;0.9475;1.0163;
161.1000;0.9508;1.0327;
161.4000;0.9499;1.0257;
161.7000;0.9508;1.0187;
162.0000;0.9516;1.0257;
162.3000;0.9516;1.0303;
162.6000;0.9516;1.0327;
162.9000;0.9499;1.0303;
163.2000;0.9532;1.0350;
163.5000;0.9508;1.0233;
163.8000;0.9499;1.0303;
164.1000;0.9516;1.0280;
164.4000;0.9516;1.0327;
164.7000;0.9524;1.0280;
165.0000;0.9524;1.0280;
165.3000;0.9499;1.0257;
165.6000;0.9442;1.0024;
165.9000;0.9516;1.0140;
166.2000;0.9524;1.0280;
166.5000;0.9524;1.0303;
166.8000;0.9516;1.0303;
167.1000;0.9524;1.0280;
167.4000;0.9516;1.0373;
167.7000;0.9467;1.0373;
168.0000;0.9499;1.0397;
168.3000;0.9499;1.0443;
168.6000;0.9508;1.0420;
168.9000;0.9499;1.0443;
169.2000;0.9491;1.0443;
169.5000;0.9491;1.0466;
169.8000;0.9491;1.0513;
170.1000;0.9532;1.0560;
170.4000;0.9491;1.0420;
170.7000;0.9508;1.0350;
171.0000;0.9524;1.0373;
171.3000;0.9499;1.0280;
171.6000;0.9475;1.0140;
171.9000;0.9442;1.0140;
172.2000;0.9499;1.0257;
172.5000;0.9499;1.0327;
172.8000;0.9483;1.0373;
173.1000;0.9459;1.0233;
173.4000;0.9475;1.0163;
173.7000;0.9499;1.0257;
174.0000;0.9491;1.0257;
174.3000;0.9499;1.0210;
174.6000;0.9516;1.0350;
174.9000;0.9524;1.0420;
175.2000;0.9491;1.0420;
175.5000;0.9483;1.0466;
175.8000;0.9516;1.0513;
176.1000;0.9491;1.0397;
176.4000;0.9491;1.0397;
176.7000;0.9491;1.0373;
177.0000;0.9434;1.0163;
177.3000;0.9516;1.0210;
177.6000;0.9508;1.0187;
177.9000;0.9516;1.0210;
178.2000;0.9491;1.0233;
178.5000;0.9459;1.0257;
178.8000;0.9499;1.0280;
179.1000;0.9483;1.0187;
179.4000;0.9499;1.0163;
179.7000;0.9532;1.0210;
180.0000;0.9516;1.0210;
180.3000;0.9548;1.0397;
180.6000;0.9491;1.0303;
180.9000;0.9532;1.0420;
181.2000;0.9499;1.0280;
181.5000;0.9508;1.0280;
181.8000;0.9524;1.0350;
182.1000;0.9491;1.0280;
182.4000;0.9508;1.0280;
182.7000;0.9491;1.0257;
183.0000;0.9491;1.0257;
183.3000;0.9491;1.0280;
183.6000;0.9499;1.0350;
183.9000;0.9491;1.0303;
184.2000;0.9516;1.0280;
184.5000;0.9491;1.0210;
184.8000;0.9491;1.0303;
185.1000;0.9483;1.0397;
185.4000;0.9483;1.0397;
185.7000;0.9524;1.0513;
186.0000;0.9499;1.0490;
186.3000;0.9491;1.0466;
186.6000;0.9491;1.0536;
186.9000;0.9491;1.0466;
187.2000;0.9508;1.0513;
187.5000;0.9467;1.0350;
187.8000;0.9499;1.0373;
188.1000;0.9524;1.0303;
188.4000;0.9540;1.0350;
188.7000;0.9499;1.0303;
189.0000;0.9483;1.0373;
189.3000;0.9426;1.0210;
189.6000;0.9491;1.0280;
189.9000;0.9508;1.0257;
190.2000;0.9516;1.0303;
190.5000;0.9516;1.0280;
190.8000;0.9499;1.0187;
191.1000;0.9499;1.0280;
191.4000;0.9516;1.0327;
191.7000;0.9516;1.0373;
192.0000;0.9491;1.0187;
192.3000;0.9499;1.0117;
192.6000;0.9499;1.0210;
192.9000;0.9491;1.0233;
193.2000;0.9483;1.0163;
193.5000;0.9467;1.0117;
193.8000;0.9491;1.0094;
194.1000;0.9467;1.0070;
194.4000;0.9491;1.0094;
194.7000;0.9475;1.0187;
195.0000;0.9467;1.0303;
195.3000;0.9385;1.0187;
195.6000;0.9491;1.0443;
195.9000;0.9467;1.0397;
196.2000;0.9442;1.0280;
196.5000;0.9508;1.0443;
196.8000;0.9508;1.0513;
197.1000;0.9508;1.0397;
197.4000;0.9508;1.0350;
197.7000;0.9508;1.0397;
198.0000;0.9508;1.0466;
198.3000;0.9508;1.0513;
198.6000;0.9491;1.0443;
198.9000;0.9491;1.0583;
199.2000;0.9451;1.0397;
199.5000;0.9499;1.0373;
199.8000;0.9524;1.0490;
200.1000;0.9491;1.0397;
200.4000;0.9491;1.0420;
200.7000;0.9508;1.0327;
201.0000;0.9475;1.0233;
201.3000;0.9508;1.0303;
201.6000;0.9532;1.0490;
201.9000;0.9499;1.0373;
202.2000;0.9499;1.0280;
202.5000;0.9491;1.0187;
202.8000;0.9459;1.0187;
203.1000;0.9483;1.0140;
203.4000;0.9467;1.0187;
203.7000;0.9467;1.0163;
204.0000;0.9483;1.0163;
204.3000;0.9491;1.0233;
204.6000;0.9483;1.0280;
204.9000;0.9475;1.0187;
205.2000;0.9475;1.0094;
205.5000;0.9475;1.0163;
205.8000;0.9499;1.0210;
206.1000;0.9491;1.0280;
206.4000;0.9516;1.0420;
206.7000;0.9573;1.0560;
207.0000;0.9508;1.0397;
207.3000;0.9508;1.0397;
207.6000;0.9491;1.0303;
207.9000;0.9516;1.0397;
208.2000;0.9499;1.0443;
208.5000;0.9508;1.0490;
208.8000;0.9499;1.0443;
209.1000;0.9516;1.0490;
209.4000;0.9524;1.0560;
209.7000;0.9483;1.0443;
210.0000;0.9499;1.0490;
210.3000;0.9499;1.0466;
210.6000;0.9499;1.0397;
210.9000;0.9459;1.0280;
211.2000;0.9532;1.0466;
211.5000;0.9483;1.0327;
211.8000;0.9499;1.0397;
212.1000;0.9499;1.0466;
212.4000;0.9459;1.0420;
212.7000;0.9508;1.0513;
213.0000;0.9508;1.0513;
213.3000;0.9491;1.0443;
213.6000;0.9459;1.0397;
213.9000;0.9483;1.0397;
214.2000;0.9483;1.0350;
214.5000;0.9491;1.0420;
214.8000;0.9508;1.0536;
215.1000;0.9475;1.0466;
215.4000;0.9475;1.0606;
215.7000;0.9491;1.0653;
216.0000;0.9483;1.0746;
216.3000;0.9418;1.0560;
216.6000;0.9491;1.0770;
216.9000;0.9499;1.0746;
217.2000;0.9459;1.0630;
217.5000;0.9491;1.0630;
217.8000;0.9467;1.0536;
218.1000;0.9548;1.0700;
218.4000;0.9491;1.0583;
218.7000;0.9516;1.0606;
219.0000;0.9467;1.0536;
219.3000;0.9475;1.0583;
219.6000;0.9508;1.0653;
219.9000;0.9483;1.0630;
220.2000;0.9483;1.0653;
220.5000;0.9516;1.0630;
220.8000;0.9483;1.0466;
221.1000;0.9475;1.0443;
221.4000;0.9491;1.0513;
221.7000;0.9516;1.0513;
222.0000;0.9491;1.0490;
222.3000;0.9491;1.0466;
222.6000;0.9475;1.0466;
222.9000;0.9565;1.0630;
223.2000;0.9483;1.0513;
223.5000;0.9556;1.0653;
223.8000;0.9491;1.0443;
224.1000;0.9508;1.0443;
224.4000;0.9524;1.0443;
224.7000;0.9508;1.0373;
225.0000;0.9483;1.0350;
225.3000;0.9475;1.0420;
225.6000;0.9451;1.0443;
225.9000;0.9483;1.0583;
226.2000;0.9508;1.0630;
226.5000;0.9491;1.0630;
226.8000;0.9491;1.0700;
227.1000;0.9491;1.0723;
227.4000;0.9499;1.0700;
227.7000;0.9483;1.0700;
228.0000;0.9483;1.0700;
228.3000;0.9483;1.0606;
228.6000;0.9483;1.0606;
228.9000;0.9483;1.0583;
229.2000;0.9451;1.0466;
229.5000;0.9483;1.0420;
229.8000;0.9581;1.0770;
230.1000;0.9475;1.0560;
230.4000;0.9451;1.0350;
230.7000;0.9475;1.0327;
231.0000;0.9475;1.0303;
231.3000;0.9483;1.0373;
231.6000;0.9451;1.0327;
231.9000;0.9475;1.0350;
232.2000;0.9483;1.0350;
232.5000;0.9475;1.0280;
232.8000;0.9483;1.0350;
233.1000;0.9491;1.0327;
233.4000;0.9475;1.0350;
233.7000;0.9499;1.0373;
234.0000;0.9491;1.0303;
234.3000;0.9467;1.0303;
234.6000;0.9483;1.0443;
234.9000;0.9475;1.0490;
235.2000;0.9467;1.0443;
235.5000;0.9467;1.0420;
235.8000;0.9499;1.0466;
236.1000;0.9491;1.0466;
236.4000;0.9467;1.0373;
236.7000;0.9499;1.0560;
237.0000;0.9442;1.0443;
237.3000;0.9475;1.0513;
237.6000;0.9491;1.0676;
237.9000;0.9459;1.0583;
238.2000;0.9451;1.0583;
238.5000;0.9475;1.0630;
238.8000;0.9483;1.0653;
239.1000;0.9483;1.0630;
239.4000;0.9499;1.0630;
239.7000;0.9475;1.0630;
240.0000;0.9475;1.0653;
240.3000;0.9467;1.0583;
240.6000;0.9532;1.0723;
240.9000;0.9410;1.0466;
241.2000;0.9377;1.0303;
241.5000;0.9467;1.0513;
241.8000;0.9410;1.0420;
242.1000;0.9483;1.0560;
242.4000;0.9483;1.0560;
242.7000;0.9508;1.0676;
243.0000;0.9475;1.0606;
243.3000;0.9467;1.0560;
243.6000;0.9491;1.0513;
243.9000;0.9467;1.0443;
244.2000;0.9467;1.0536;
244.5000;0.9491;1.0583;
244.8000;0.9491;1.0490;
245.1000;0.9491;1.0606;
245.4000;0.9499;1.0560;
245.7000;0.9451;1.0420;
246.0000;0.9451;1.0466;
246.3000;0.9475;1.0536;
246.6000;0.9467;1.0513;
246.9000;0.9467;1.0490;
247.2000;0.9475;1.0420;
247.5000;0.9475;1.0373;
247.8000;0.9499;1.0490;
248.1000;0.9483;1.0560;
248.4000;0.9483;1.0583;
248.7000;0.9467;1.0513;
249.0000;0.9491;1.0490;
249.3000;0.9467;1.0513;
249.6000;0.9491;1.0606;
249.9000;0.9467;1.0606;
250.2000;0.9491;1.0490;
250.5000;0.9475;1.0466;
250.8000;0.9467;1.0443;
251.1000;0.9459;1.0466;
251.4000;0.9483;1.0653;
251.7000;0.9475;1.0676;
252.0000;0.9491;1.0583;
252.3000;0.9467;1.0466;
252.6000;0.9483;1.0513;
252.9000;0.9475;1.0443;
253.2000;0.9451;1.0350;
253.5000;0.9451;1.0350;
253.8000;0.9467;1.0327;
254.1000;0.9491;1.0397;
254.4000;0.9451;1.0350;
254.7000;0.9451;1.0327;
255.0000;0.9483;1.0327;
255.3000;0.9499;1.0350;
255.6000;0.9483;1.0350;
255.9000;0.9459;1.0397;
256.2000;0.9475;1.0490;
256.5000;0.9459;1.0420;
256.8000;0.9451;1.0490;
257.1000;0.9459;1.0513;
257.4000;0.9459;1.0536;
257.7000;0.9451;1.0560;
258.0000;0.9459;1.0536;
258.3000;0.9491;1.0583;
258.6000;0.9491;1.0513;
258.9000;0.9491;1.0513;
259.2000;0.9410;1.0397;
259.5000;0.9459;1.0560;
259.8000;0.9483;1.0606;
260.1000;0.9467;1.0583;
260.4000;0.9475;1.0583;
260.7000;0.9475;1.0536;
261.0000;0.9475;1.0490;
261.3000;0.9451;1.0373;
261.6000;0.9581;1.0746;
261.9000;0.9475;1.0443;
262.2000;0.9483;1.0443;
262.5000;0.9467;1.0420;
262.8000;0.9483;1.0560;
263.1000;0.9573;1.0816;
263.4000;0.9467;1.0490;
263.7000;0.9483;1.0513;
264.0000;0.9508;1.0560;
264.3000;0.9483;1.0443;
264.6000;0.9475;1.0350;
264.9000;0.9451;1.0303;
265.2000;0.9516;1.0397;
265.5000;0.9475;1.0327;
265.8000;0.9451;1.0327;
266.1000;0.9434;1.0327;
266.4000;0.9483;1.0397;
266.7000;0.9467;1.0303;
267.0000;0.9442;1.0280;
267.3000;0.9451;1.0327;
267.6000;0.9442;1.0280;
267.9000;0.9508;1.0560;
268.2000;0.9451;1.0490;
268.5000;0.9467;1.0466;
268.8000;0.9475;1.0373;
269.1000;0.9475;1.0443;
269.4000;0.9467;1.0443;
269.7000;0.9491;1.0513;
270.0000;0.9499;1.0536;
270.3000;0.9475;1.0490;
270.6000;0.9516;1.0583;
270.9000;0.9475;1.0490;
271.2000;0.9451;1.0443;
271.5000;0.9516;1.0560;
271.8000;0.9442;1.0350;
272.1000;0.9467;1.0397;
272.4000;0.9467;1.0466;
272.7000;0.9442;1.0443;
273.0000;0.9459;1.0490;
273.3000;0.9467;1.0466;
273.6000;0.9451;1.0350;
273.9000;0.9410;1.0210;
274.2000;0.9434;1.0350;
274.5000;0.9426;1.0280;
274.8000;0.9451;1.0397;
275.1000;0.9467;1.0327;
275.4000;0.9459;1.0327;
275.7000;0.9475;1.0397;
276.0000;0.9451;1.0327;
276.3000;0.9451;1.0327;
276.6000;0.9434;1.0257;
276.9000;0.9459;1.0233;
277.2000;0.9385;1.0000;
277.5000;0.9459;1.0163;
277.8000;0.9459;1.0233;
278.1000;0.9385;1.0047;
278.4000;0.9459;1.0187;
278.7000;0.9442;1.0163;
279.0000;0.9451;1.0140;
279.3000;0.9442;1.0210;
279.6000;0.9459;1.0257;
279.9000;0.9475;1.0303;
280.2000;0.9320;1.0024;
280.5000;0.9483;1.0373;
280.8000;0.9459;1.0443;
281.1000;0.9442;1.0373;
281.4000;0.9385;1.0303;
281.7000;0.9467;1.0536;
282.0000;0.9459;1.0536;
282.3000;0.9475;1.0536;
282.6000;0.9467;1.0443;
282.9000;0.9442;1.0397;
283.2000;0.9540;1.0653;
283.5000;0.9385;1.0257;
283.8000;0.9442;1.0350;
284.1000;0.9442;1.0350;
284.4000;0.9467;1.0420;
284.7000;0.9475;1.0443;
285.0000;0.9508;1.0536;
285.3000;0.9451;1.0350;
285.6000;0.9451;1.0280;
285.9000;0.9451;1.0303;
286.2000;0.9377;1.0140;
286.5000;0.9556;1.0606;
286.8000;0.9451;1.0303;
287.1000;0.9467;1.0280;
287.4000;0.9459;1.0303;
287.7000;0.9548;1.0536;
288.0000;0.9459;1.0420;
288.3000;0.9442;1.0327;
288.6000;0.9475;1.0443;
288.9000;0.9451;1.0466;
289.2000;0.9459;1.0490;
289.5000;0.9442;1.0490;
289.8000;0.9451;1.0560;
290.1000;0.9442;1.0630;
290.4000;0.9451;1.0700;
290.7000;0.9369;1.0513;
291.0000;0.9491;1.0700;
291.3000;0.9434;1.0513;
291.6000;0.9459;1.0490;
291.9000;0.9451;1.0466;
292.2000;0.9426;1.0327;
292.5000;0.9467;1.0397;
292.8000;0.9418;1.0280;
293.1000;0.9451;1.0443;
293.4000;0.9459;1.0466;
293.7000;0.9467;1.0373;
294.0000;0.9508;1.0466;
294.3000;0.9459;1.0257;
294.6000;0.9459;1.0233;
294.9000;0.9459;1.0187;
295.2000;0.9459;1.0187;
295.5000;0.9442;1.0233;
295.8000;0.9459;1.0303;
296.1000;0.9434;1.0303;
296.4000;0.9402;1.0163;
296.7000;0.9442;1.0280;
297.0000;0.9418;1.0280;
297.3000;0.9451;1.0303;
297.6000;0.9459;1.0373;
297.9000;0.9459;1.0350;
298.2000;0.9434;1.0280;
298.5000;0.9459;1.0233;
298.8000;0.9451;1.0187;
299.1000;0.9467;1.0187;
299.4000;0.9459;1.0117;
299.7000;0.9524;1.0303;
300.0000;0.9402;1.0210;
300.3000;0.9467;1.0350;
300.6000;0.9451;1.0280;
300.9000;0.9451;1.0187;
301.2000;0.9467;1.0163;
301.5000;0.9451;1.0117;
301.8000;0.9442;1.0094;
302.1000;0.9434;1.0187;
302.4000;0.9442;1.0303;
302.7000;0.9459;1.0350;
303.0000;0.9418;1.0233;
303.3000;0.9451;1.0350;
303.6000;0.9451;1.0233;
303.9000;0.9426;1.0117;
304.2000;0.9483;1.0210;
304.5000;0.9442;1.0140;
304.8000;0.9475;1.0233;
305.1000;0.9442;1.0233;
305.4000;0.9418;1.0257;
305.7000;0.9442;1.0187;
306.0000;0.9467;1.0094;
306.3000;0.9451;1.0047;
306.6000;0.9410;0.9954;
306.9000;0.9418;0.9954;
307.2000;0.9524;1.0257;
307.5000;0.9426;1.0117;
307.8000;0.9426;1.0024;
308.1000;0.9394;0.9954;
308.4000;0.9418;1.0070;
308.7000;0.9426;1.0140;
309.0000;0.9410;1.0163;
309.3000;0.9434;1.0233;
309.6000;0.9418;1.0257;
309.9000;0.9434;1.0327;
310.2000;0.9418;1.0280;
310.5000;0.9442;1.0280;
310.8000;0.9442;1.0140;
311.1000;0.9475;1.0140;
311.4000;0.9426;1.0117;
311.7000;0.9418;1.0024;
312.0000;0.9426;1.0094;
312.3000;0.9426;1.0140;
312.6000;0.9451;1.0163;
312.9000;0.9434;1.0187;
313.2000;0.9442;1.0233;
313.5000;0.9434;1.0210;
313.8000;0.9426;1.0187;
314.1000;0.9361;1.0047;
314.4000;0.9442;1.0210;
314.7000;0.9442;1.0163;
315.0000;0.9459;1.0233;
315.3000;0.9418;1.0117;
315.6000;0.9442;1.0280;
315.9000;0.9418;1.0280;
316.2000;0.9426;1.0257;
316.5000;0.9451;1.0210;
316.8000;0.9516;1.0350;
317.1000;0.9459;1.0210;
317.4000;0.9442;1.0140;
317.7000;0.9459;1.0257;
318.0000;0.9434;1.0187;
318.3000;0.9451;1.0233;
318.6000;0.9442;1.0187;
318.9000;0.9426;1.0117;
319.2000;0.9410;1.0140;
319.5000;0.9442;1.0163;
319.8000;0.9434;1.0187;
320.1000;0.9426;1.0233;
320.4000;0.9459;1.0327;
320.7000;0.9426;1.0420;
321.0000;0.9434;1.0397;
321.3000;0.9434;1.0210;
321.6000;0.9451;1.0233;
321.9000;0.9426;1.0257;
322.2000;0.9418;1.0140;
322.5000;0.9369;1.0047;
322.8000;0.9451;1.0257;
323.1000;0.9426;1.0280;
323.4000;0.9442;1.0327;
323.7000;0.9426;1.0303;
324.0000;0.9426;1.0303;
324.3000;0.9402;1.0280;
324.6000;0.9410;1.0280;
324.9000;0.9418;1.0327;
325.2000;0.9418;1.0327;
325.5000;0.9418;1.0303;
325.8000;0.9426;1.0280;
326.1000;0.9451;1.0373;
326.4000;0.9426;1.0233;
326.7000;0.9442;1.0233;
327.0000;0.9442;1.0303;
327.3000;0.9442;1.0233;
327.6000;0.9418;1.0070;
327.9000;0.9426;1.0094;
328.2000;0.9426;1.0070;
328.5000;0.9385;0.9930;
328.8000;0.9402;0.9977;
329.1000;0.9426;1.0000;
329.4000;0.9410;1.0024;
329.7000;0.9410;1.0047;
330.0000;0.9369;1.0024;
330.3000;0.9410;1.0094;
330.6000;0.9483;1.0187;
330.9000;0.9426;0.9977;
331.2000;0.9426;1.0047;
331.5000;0.9418;1.0047;
331.8000;0.9385;1.0000;
332.1000;0.9434;1.0117;
332.4000;0.9410;1.0117;
332.7000;0.9475;1.0397;
333.0000;0.9410;1.0163;
333.3000;0.9467;1.0257;
333.6000;0.9434;1.0280;
333.9000;0.9402;1.0280;
334.2000;0.9442;1.0397;
334.5000;0.9385;1.0350;
334.8000;0.9426;1.0490;
335.1000;0.9369;1.0466;
335.4000;0.9418;1.0466;
335.7000;0.9434;1.0490;
336.0000;0.9434;1.0443;
336.3000;0.9418;1.0327;
336.6000;0.9418;1.0257;
336.9000;0.9418;1.0280;
337.2000;0.9426;1.0233;
337.5000;0.9410;1.0280;
337.8000;0.9451;1.0420;
338.1000;0.9418;1.0303;
338.4000;0.9418;1.0303;
338.7000;0.9426;1.0303;
339.0000;0.9353;1.0163;
339.3000;0.9385;1.0303;
339.6000;0.9402;1.0327;
339.9000;0.9337;1.0140;
340.2000;0.9434;1.0303;
340.5000;0.9410;1.0210;
340.8000;0.9418;1.0163;
341.1000;0.9532;1.0420;
341.4000;0.9361;1.0047;
341.7000;0.9410;1.0257;
342.0000;0.9418;1.0210;
342.3000;0.9434;1.0163;
342.6000;0.9426;1.0163;
342.9000;0.9426;1.0210;
343.2000;0.9442;1.0233;
343.5000;0.9426;1.0210;
343.8000;0.9402;1.0140;
344.1000;0.9410;1.0117;
344.4000;0.9402;1.0117;
344.7000;0.9410;1.0140;
345.0000;0.9418;1.0140;
345.3000;0.9402;1.0140;
345.6000;0.9426;1.0233;
345.9000;0.9426;1.0327;
346.2000;0.9418;1.0373;
346.5000;0.9434;1.0350;
346.8000;0.9402;1.0327;
347.1000;0.9402;1.0327;
347.4000;0.9426;1.0327;
347.7000;0.9434;1.0373;
348.0000;0.9451;1.0466;
348.3000;0.9394;1.0397;
348.6000;0.9410;1.0397;
348.9000;0.9402;1.0490;
349.2000;0.9361;1.0443;
349.5000;0.9410;1.0606;
349.8000;0.9394;1.0653;
350.1000;0.9418;1.0583;
350.4000;0.9402;1.0513;
350.7000;0.9426;1.0513;
351.0000;0.9402;1.0466;
351.3000;0.9426;1.0513;
351.6000;0.9418;1.0466;
351.9000;0.9410;1.0466;
352.2000;0.9418;1.0443;
352.5000;0.9451;1.0373;
352.8000;0.9418;1.0327;
353.1000;0.9410;1.0303;
353.4000;0.9418;1.0350;
353.7000;0.9442;1.0350;
354.0000;0.9418;1.0350;
354.3000;0.9434;1.0397;
354.6000;0.9410;1.0373;
354.9000;0.9402;1.0327;
355.2000;0.9377;1.0233;
355.5000;0.9402;1.0280;
355.8000;0.9377;1.0280;
356.1000;0.9361;1.0280;
356.4000;0.9426;1.0350;
356.7000;0.9385;1.0210;
357.0000;0.9434;1.0327;
357.3000;0.9345;1.0187;
357.6000;0.9385;1.0350;
357.9000;0.9426;1.0443;
358.2000;0.9402;1.0327;
358.5000;0.9434;1.0327;
358.8000;0.9402;1.0233;
359.1000;0.9410;1.0257;
359.4000;0.9385;1.0163;
359.7000;0.9377;1.0070;
360.0000;0.9410;1.0047;
360.3000;0.9426;1.0047;
360.6000;0.9394;1.0024;
360.9000;0.9377;1.0070;
361.2000;0.9410;1.0187;
361.5000;0.9418;1.0233;
361.8000;0.9426;1.0257;
362.1000;0.9402;1.0163;
362.4000;0.9410;1.0257;
362.7000;0.9426;1.0350;
363.0000;0.9410;1.0397;
363.3000;0.9394;1.0490;
363.6000;0.9426;1.0560;
363.9000;0.9418;1.0583;
364.2000;0.9410;1.0630;
364.5000;0.9451;1.0793;
364.8000;0.9410;1.0630;
365.1000;0.9418;1.0630;
365.4000;0.9426;1.0583;
365.7000;0.9418;1.0466;
366.0000;0.9377;1.0397;
366.3000;0.9402;1.0513;
366.6000;0.9451;1.0653;
366.9000;0.9402;1.0583;
367.2000;0.9410;1.0560;
367.5000;0.9402;1.0513;
367.8000;0.9418;1.0560;
368.1000;0.9418;1.0536;
368.4000;0.9394;1.0536;
368.7000;0.9377;1.0443;
369.0000;0.9402;1.0513;
369.3000;0.9385;1.0490;
369.6000;0.9394;1.0420;
369.9000;0.9394;1.0443;
370.2000;0.9320;1.0327;
370.5000;0.9394;1.0490;
370.8000;0.9369;1.0397;
371.1000;0.9410;1.0466;
371.4000;0.9402;1.0560;
371.7000;0.9418;1.0536;
372.0000;0.9361;1.0373;
372.3000;0.9418;1.0490;
372.6000;0.9377;1.0420;
372.9000;0.9377;1.0373;
373.2000;0.9410;1.0443;
373.5000;0.9377;1.0327;
373.8000;0.9402;1.0420;
374.1000;0.9369;1.0350;
374.4000;0.9377;1.0373;
374.7000;0.9377;1.0420;
375.0000;0.9385;1.0397;
375.3000;0.9385;1.0397;
375.6000;0.9385;1.0397;
375.9000;0.9377;1.0397;
376.2000;0.9402;1.0490;
376.5000;0.9385;1.0466;
376.8000;0.9410;1.0583;
377.1000;0.9410;1.0560;
377.4000;0.9402;1.0513;
377.7000;0.9394;1.0420;
378.0000;0.9402;1.0373;
378.3000;0.9394;1.0373;
378.6000;0.9410;1.0373;
378.9000;0.9402;1.0397;
379.2000;0.9402;1.0490;
379.5000;0.9402;1.0490;
379.8000;0.9320;1.0327;
380.1000;0.9385;1.0490;
380.4000;0.9369;1.0560;
380.7000;0.9402;1.0653;
381.0000;0.9385;1.0653;
381.3000;0.9369;1.0630;
381.6000;0.9394;1.0700;
381.9000;0.9353;1.0560;
382.2000;0.9402;1.0536;
382.5000;0.9394;1.0443;
382.8000;0.9385;1.0373;
383.1000;0.9434;1.0420;
383.4000;0.9410;1.0373;
383.7000;0.9369;1.0397;
384.0000;0.9345;1.0373;
384.3000;0.9402;1.0373;
384.6000;0.9377;1.0420;
384.9000;0.9377;1.0513;
385.2000;0.9385;1.0443;
385.5000;0.9361;1.0443;
385.8000;0.9385;1.0536;
386.1000;0.9377;1.0513;
386.4000;0.9402;1.0606;
386.7000;0.9394;1.0513;
387.0000;0.9385;1.0513;
387.3000;0.9377;1.0560;
387.6000;0.9434;1.0700;
387.9000;0.9394;1.0560;
388.2000;0.9385;1.0560;
388.5000;0.9304;1.0373;
388.8000;0.9353;1.0420;
389.1000;0.9377;1.0443;
389.4000;0.9394;1.0490;
389.7000;0.9377;1.0466;
390.0000;0.9361;1.0397;
390.3000;0.9410;1.0560;
390.6000;0.9369;1.0490;
390.9000;0.9353;1.0513;
391.2000;0.9377;1.0536;
391.5000;0.9361;1.0490;
391.8000;0.9394;1.0536;
392.1000;0.9377;1.0466;
392.4000;0.9377;1.0513;
392.7000;0.9402;1.0606;
393.0000;0.9361;1.0560;
393.3000;0.9377;1.0536;
393.6000;0.9377;1.0606;
393.9000;0.9394;1.0560;
394.2000;0.9394;1.0583;
394.5000;0.9377;1.0513;
394.8000;0.9394;1.0490;
395.1000;0.9394;1.0443;
395.4000;0.9385;1.0350;
395.7000;0.9361;1.0303;
396.0000;0.9377;1.0443;
396.3000;0.9385;1.0536;
396.6000;0.9377;1.0606;
396.9000;0.9361;1.0536;
397.2000;0.9442;1.0630;
397.5000;0.9385;1.0560;
397.8000;0.9385;1.0536;
398.1000;0.9369;1.0513;
398.4000;0.9402;1.0560;
398.7000;0.9394;1.0513;
399.0000;0.9377;1.0466;
399.3000;0.9385;1.0466;
399.6000;0.9377;1.0420;
399.9000;0.9385;1.0466;
400.2000;0.9394;1.0466;
400.5000;0.9369;1.0420;
400.8000;0.9377;1.0420;
401.1000;0.9394;1.0420;
401.4000;0.9394;1.0397;
401.7000;0.9353;1.0327;
402.0000;0.9361;1.0350;
402.3000;0.9377;1.0350;
402.6000;0.9369;1.0420;
402.9000;0.9377;1.0420;
403.2000;0.9361;1.0397;
403.5000;0.9361;1.0350;
403.8000;0.9377;1.0420;
404.1000;0.9434;1.0466;
404.4000;0.9377;1.0350;
404.7000;0.9385;1.0420;
405.0000;0.9402;1.0466;
405.3000;0.9369;1.0490;
405.6000;0.9385;1.0560;
405.9000;0.9369;1.0606;
406.2000;0.9385;1.0606;
406.5000;0.9377;1.0536;
406.8000;0.9361;1.0490;
407.1000;0.9369;1.0490;
407.4000;0.9377;1.0560;
407.7000;0.9385;1.0536;
408.0000;0.9385;1.0653;
408.3000;0.9377;1.0653;
408.6000;0.9385;1.0676;
408.9000;0.9385;1.0723;
409.2000;0.9377;1.0676;
409.5000;0.9337;1.0536;
409.8000;0.9369;1.0630;
410.1000;0.9377;1.0583;
410.4000;0.9394;1.0606;
410.7000;0.9361;1.0536;
411.0000;0.9320;1.0513;
411.3000;0.9385;1.0676;
411.6000;0.9361;1.0606;
411.9000;0.9369;1.0466;
412.2000;0.9394;1.0443;
412.5000;0.9377;1.0420;
412.8000;0.9353;1.0397;
413.1000;0.9353;1.0420;
413.4000;0.9353;1.0397;
413.7000;0.9394;1.0443;
414.0000;0.9410;1.0420;
414.3000;0.9394;1.0350;
414.6000;0.9377;1.0280;
414.9000;0.9361;1.0350;
415.2000;0.9377;1.0420;
415.5000;0.9394;1.0420;
415.8000;0.9345;1.0420;
416.1000;0.9337;1.0397;
416.4000;0.9377;1.0443;
416.7000;0.9353;1.0443;
417.0000;0.9328;1.0303;
417.3000;0.9369;1.0327;
417.6000;0.9377;1.0373;
417.9000;0.9369;1.0373;
418.2000;0.9369;1.0420;
418.5000;0.9345;1.0443;
418.8000;0.9377;1.0443;
419.1000;0.9369;1.0443;
419.4000;0.9337;1.0420;
419.7000;0.9377;1.0443;
420.0000;0.9369;1.0536;
420.3000;0.9385;1.0560;
420.6000;0.9369;1.0466;
420.9000;0.9320;1.0327;
421.2000;0.9345;1.0397;
421.5000;0.9353;1.0420;
421.8000;0.9361;1.0397;
422.1000;0.9337;1.0303;
422.4000;0.9353;1.0327;
422.7000;0.9394;1.0303;
423.0000;0.9280;1.0117;
423.3000;0.9369;1.0466;
423.6000;0.9361;1.0443;
423.9000;0.9361;1.0397;
424.2000;0.9394;1.0513;
424.5000;0.9377;1.0466;
424.8000;0.9345;1.0303;
425.1000;0.9377;1.0420;
425.4000;0.9377;1.0327;
425.7000;0.9475;1.0536;
426.0000;0.9369;1.0303;
426.3000;0.9288;1.0094;
426.6000;0.9361;1.0303;
426.9000;0.9410;1.0303;
427.2000;0.9394;1.0187;
427.5000;0.9353;1.0047;
427.8000;0.9288;0.9954;
428.1000;0.9377;1.0140;
428.4000;0.9361;1.0210;
428.7000;0.9345;1.0163;
429.0000;0.9361;1.0327;
429.3000;0.9361;1.0373;
429.6000;0.9369;1.0350;
429.9000;0.9337;1.0373;
430.2000;0.9353;1.0397;
430.5000;0.9377;1.0397;
430.8000;0.9369;1.0280;
431.1000;0.9369;1.0397;
431.4000;0.9394;1.0513;
431.7000;0.9337;1.0420;
432.0000;0.9369;1.0513;
432.3000;0.9353;1.0513;
432.6000;0.9345;1.0490;
432.9000;0.9369;1.0466;
433.2000;0.9385;1.0466;
433.5000;0.9369;1.0420;
433.8000;0.9353;1.0443;
434.1000;0.9353;1.0560;
434.4000;0.9361;1.0536;
434.7000;0.9361;1.0583;
435.0000;0.9361;1.0653;
435.3000;0.9353;1.0746;
435.6000;0.9353;1.0700;
435.9000;0.9361;1.0653;
436.2000;0.9361;1.0746;
436.5000;0.9361;1.0723;
436.8000;0.9361;1.0746;
437.1000;0.9369;1.0746;
437.4000;0.9337;1.0560;
437.7000;0.9312;1.0443;
438.0000;0.9361;1.0583;
438.3000;0.9369;1.0560;
438.6000;0.9361;1.0583;
438.9000;0.9361;1.0536;
439.2000;0.9361;1.0560;
439.5000;0.9369;1.0560;
439.8000;0.9361;1.0513;
440.1000;0.9377;1.0583;
440.4000;0.9402;1.0700;
440.7000;0.9353;1.0630;
441.0000;0.9353;1.0676;
441.3000;0.9345;1.0606;
441.6000;0.9345;1.0630;
441.9000;0.9353;1.0630;
442.2000;0.9385;1.0700;
442.5000;0.9337;1.0676;
442.8000;0.9353;1.0700;
443.1000;0.9337;1.0630;
443.4000;0.9345;1.0653;
443.7000;0.9361;1.0676;
444.0000;0.9361;1.0746;
444.3000;0.9353;1.0700;
444.6000;0.9361;1.0700;
444.9000;0.9369;1.0700;
445.2000;0.9361;1.0676;
445.5000;0.9328;1.0746;
445.8000;0.9361;1.0746;
446.1000;0.9361;1.0746;
446.4000;0.9345;1.0653;
446.7000;0.9345;1.0630;
447.0000;0.9353;1.0676;
447.3000;0.9337;1.0816;
447.6000;0.9345;1.0793;
447.9000;0.9337;1.0723;
448.2000;0.9288;1.0560;
448.5000;0.9353;1.0653;
448.8000;0.9361;1.0700;
449.1000;0.9353;1.0630;
449.4000;0.9345;1.0536;
449.7000;0.9361;1.0583;
450.0000;0.9337;1.0490;
450.3000;0.9345;1.0490;
450.6000;0.9353;1.0536;
450.9000;0.9353;1.0536;
451.2000;0.9369;1.0630;
451.5000;0.9345;1.0606;
451.8000;0.9328;1.0536;
452.1000;0.9385;1.0653;
452.4000;0.9337;1.0676;
452.7000;0.9337;1.0653;
453.0000;0.9320;1.0606;
453.3000;0.9353;1.0583;
453.6000;0.9345;1.0490;
453.9000;0.9345;1.0536;
454.2000;0.9345;1.0606;
454.5000;0.9353;1.0606;
454.8000;0.9304;1.0583;
455.1000;0.9353;1.0653;
455.4000;0.9353;1.0700;
455.7000;0.9345;1.0676;
456.0000;0.9418;1.0770;
456.3000;0.9361;1.0676;
456.6000;0.9337;1.0583;
456.9000;0.9337;1.0606;
457.2000;0.9345;1.0536;
457.5000;0.9337;1.0536;
457.8000;0.9328;1.0536;
458.1000;0.9337;1.0583;
458.4000;0.9337;1.0606;
458.7000;0.9353;1.0653;
459.0000;0.9337;1.0653;
459.3000;0.9328;1.0653;
459.6000;0.9320;1.0583;
459.9000;0.9345;1.0606;
460.2000;0.9361;1.0770;
460.5000;0.9353;1.0839;
460.8000;0.9353;1.0816;
461.1000;0.9361;1.0839;
461.4000;0.9353;1.0746;
461.7000;0.9312;1.0653;
462.0000;0.9369;1.0793;
462.3000;0.9402;1.0886;
462.6000;0.9353;1.0746;
462.9000;0.9345;1.0770;
463.2000;0.9345;1.0793;
463.5000;0.9361;1.0909;
463.8000;0.9345;1.0886;
464.1000;0.9353;1.0863;
464.4000;0.9328;1.0816;
464.7000;0.9353;1.0746;
465.0000;0.9304;1.0583;
465.3000;0.9345;1.0560;
465.6000;0.9402;1.0630;
465.9000;0.9328;1.0560;
466.2000;0.9328;1.0606;
466.5000;0.9345;1.0653;
466.8000;0.9345;1.0653;
467.1000;0.9402;1.0816;
467.4000;0.9231;1.0443;
467.7000;0.9320;1.0583;
468.0000;0.9353;1.0653;
468.3000;0.9345;1.0653;
468.6000;0.9353;1.0653;
468.9000;0.9304;1.0560;
469.2000;0.9345;1.0676;
469.5000;0.9345;1.0746;
469.8000;0.9328;1.0746;
470.1000;0.9337;1.0770;
470.4000;0.9353;1.0793;
470.7000;0.9296;1.0723;
471.0000;0.9353;1.0886;
471.3000;0.9345;1.0863;
471.6000;0.9459;1.1026;
471.9000;0.9337;1.0700;
472.2000;0.9345;1.0700;
472.5000;0.9337;1.0770;
472.8000;0.9337;1.0770;
473.1000;0.9377;1.0770;
473.4000;0.9328;1.0653;
473.7000;0.9337;1.0606;
474.0000;0.9345;1.0583;
474.3000;0.9312;1.0560;
474.6000;0.9288;1.0560;
474.9000;0.9337;1.0653;
475.2000;0.9337;1.0630;
475.5000;0.9353;1.0700;
475.8000;0.9337;1.0723;
476.1000;0.9312;1.0606;
476.4000;0.9337;1.0653;
476.7000;0.9353;1.0653;
477.0000;0.9377;1.0746;
477.3000;0.9328;1.0700;
477.6000;0.9361;1.0770;
477.9000;0.9345;1.0700;
478.2000;0.9337;1.0653;
478.5000;0.9328;1.0653;
478.8000;0.9353;1.0770;
479.1000;0.9345;1.0700;
479.4000;0.9377;1.0723;
479.7000;0.9304;1.0606;
480.0000;0.9377;1.0770;
480.3000;0.9345;1.0723;
480.6000;0.9361;1.0839;
480.9000;0.9361;1.0723;
481.2000;0.9304;1.0536;
481.5000;0.9337;1.0700;
481.8000;0.9345;1.0653;
482.1000;0.9328;1.0630;
482.4000;0.9345;1.0583;
482.7000;0.9337;1.0513;
483.0000;0.9353;1.0560;
483.3000;0.9361;1.0560;
483.6000;0.9353;1.0583;
483.9000;0.9328;1.0560;
484.2000;0.9328;1.0630;
484.5000;0.9353;1.0653;
484.8000;0.9296;1.0490;
485.1000;0.9320;1.0606;
485.4000;0.9385;1.0886;
485.7000;0.9337;1.0676;
486.0000;0.9328;1.0653;
486.3000;0.9345;1.0676;
486.6000;0.9345;1.0746;
486.9000;0.9385;1.0839;
487.2000;0.9353;1.0746;
487.5000;0.9312;1.0723;
487.8000;0.9312;1.0700;
488.1000;0.9337;1.0746;
488.4000;0.9337;1.0770;
488.7000;0.9304;1.0653;
489.0000;0.9304;1.0653;
489.3000;0.9337;1.0746;
489.6000;0.9337;1.0793;
489.9000;0.9345;1.0816;
490.2000;0.9296;1.0700;
490.5000;0.9320;1.0863;
490.8000;0.9337;1.0886;
491.1000;0.9369;1.0886;
491.4000;0.9320;1.0816;
491.7000;0.9337;1.0909;
492.0000;0.9337;1.0793;
492.3000;0.9320;1.0793;
492.6000;0.9353;1.0793;
492.9000;0.9304;1.0700;
493.2000;0.9328;1.0770;
493.5000;0.9337;1.0793;
493.8000;0.9328;1.0770;
494.1000;0.9328;1.0700;
494.4000;0.9320;1.0723;
494.7000;0.9328;1.0816;
495.0000;0.9361;1.0909;
495.3000;0.9312;1.0863;
495.6000;0.9320;1.0816;
495.9000;0.9320;1.0816;
496.2000;0.9328;1.0816;
496.5000;0.9337;1.0863;
496.8000;0.9337;1.0886;
497.1000;0.9320;1.0770;
497.4000;0.9304;1.0770;
497.7000;0.9328;1.0886;
498.0000;0.9328;1.0956;
498.3000;0.9312;1.0909;
498.6000;0.9337;1.0956;
498.9000;0.9312;1.0839;
499.2000;0.9328;1.0770;
499.5000;0.9345;1.0816;
499.8000;0.9337;1.0746;
500.1000;0.9337;1.0770;
500.4000;0.9337;1.0839;
500.7000;0.9320;1.0839;
501.0000;0.9337;1.0793;
501.3000;0.9328;1.0816;
501.6000;0.9312;1.0839;
501.9000;0.9288;1.0653;
502.2000;0.9345;1.0793;
502.5000;0.9320;1.0723;
502.8000;0.9328;1.0746;
503.1000;0.9337;1.0886;
503.4000;0.9312;1.0839;
503.7000;0.9320;1.0886;
504.0000;0.9280;1.0746;
504.3000;0.9312;1.0770;
504.6000;0.9312;1.0746;
504.9000;0.9288;1.0700;
505.2000;0.9328;1.0723;
505.5000;0.9320;1.0700;
505.8000;0.9304;1.0653;
506.1000;0.9328;1.0770;
506.4000;0.9320;1.0700;
506.7000;0.9320;1.0793;
507.0000;0.9304;1.0770;
507.3000;0.9337;1.0909;
507.6000;0.9345;1.0979;
507.9000;0.9320;1.0863;
508.2000;0.9328;1.0793;
508.5000;0.9328;1.0770;
508.8000;0.9328;1.0793;
509.1000;0.9320;1.0793;
509.4000;0.9320;1.0770;
509.7000;0.9320;1.0816;
510.0000;0.9328;1.0770;
510.3000;0.9312;1.0723;
510.6000;0.9320;1.0676;
510.9000;0.9337;1.0700;
511.2000;0.9320;1.0723;
511.5000;0.9320;1.0676;
511.8000;0.9312;1.0700;
512.1000;0.9320;1.0676;
512.4000;0.9353;1.0630;
512.7000;0.9296;1.0513;
513.0000;0.9418;1.0863;
513.3000;0.9320;1.0700;
513.6000;0.9304;1.0630;
513.9000;0.9345;1.0793;
514.2000;0.9320;1.0653;
514.5000;0.9312;1.0583;
514.8000;0.9304;1.0583;
515.1000;0.9312;1.0536;
515.4000;0.9312;1.0583;
515.7000;0.9320;1.0700;
516.0000;0.9320;1.0839;
516.3000;0.9312;1.0793;
516.6000;0.9385;1.1049;
516.9000;0.9320;1.0863;
517.2000;0.9296;1.0839;
517.5000;0.9337;1.0886;
517.8000;0.9320;1.0909;
518.1000;0.9353;1.1096;
518.4000;0.9337;1.0979;
518.7000;0.9328;1.0886;
519.0000;0.9328;1.0863;
519.3000;0.9320;1.0839;
519.6000;0.9312;1.0886;
519.9000;0.9296;1.0863;
520.2000;0.9312;1.0933;
520.5000;0.9320;1.1003;
520.8000;0.9328;1.1026;
521.1000;0.9312;1.1073;
521.4000;0.9312;1.1003;
521.7000;0.9304;1.0839;
522.0000;0.9296;1.0723;
522.3000;0.9304;1.0816;
522.6000;0.9320;1.0816;
522.9000;0.9255;1.0746;
523.2000;0.9312;1.0793;
523.5000;0.9320;1.0816;
523.8000;0.9320;1.0839;
524.1000;0.9337;1.0816;
524.4000;0.9328;1.0793;
524.7000;0.9320;1.0839;
525.0000;0.9312;1.0793;
525.3000;0.9328;1.0770;
525.6000;0.9337;1.0839;
525.9000;0.9304;1.0676;
526.2000;0.9320;1.0560;
526.5000;0.9337;1.0560;
526.8000;0.9312;1.0513;
527.1000;0.9337;1.0676;
527.4000;0.9320;1.0653;
527.7000;0.9337;1.0746;
528.0000;0.9312;1.0746;
528.3000;0.9312;1.0770;
528.6000;0.9337;1.0816;
528.9000;0.9328;1.0863;
529.2000;0.9328;1.0839;
529.5000;0.9410;1.1026;
529.8000;0.9255;1.0723;
530.1000;0.9328;1.0909;
530.4000;0.9312;1.0909;
530.7000;0.9280;1.0863;
531.0000;0.9296;1.0933;
531.3000;0.9280;1.0886;
531.6000;0.9312;1.1003;
531.9000;0.9255;1.0863;
532.2000;0.9288;1.0839;
532.5000;0.9312;1.0909;
532.8000;0.9312;1.0839;
533.1000;0.9320;1.0770;
533.4000;0.9304;1.0746;
533.7000;0.9320;1.0793;
534.0000;0.9328;1.0816;
534.3000;0.9328;1.0886;
534.6000;0.9320;1.0816;
534.9000;0.9320;1.0979;
535.2000;0.9328;1.0933;
535.5000;0.9320;1.0933;
535.8000;0.9320;1.0886;
536.1000;0.9296;1.0839;
536.4000;0.9288;1.0770;
536.7000;0.9312;1.0816;
537.0000;0.9320;1.0863;
537.3000;0.9304;1.0793;
537.6000;0.9304;1.0770;
537.9000;0.9337;1.0723;
538.2000;0.9304;1.0676;
538.5000;0.9304;1.0723;
538.8000;0.9271;1.0653;
539.1000;0.9304;1.0700;
539.4000;0.9312;1.0723;
539.7000;0.9345;1.0793;
540.0000;0.9296;1.0676;
540.3000;0.9337;1.0746;
540.6000;0.9296;1.0700;
540.9000;0.9288;1.0630;
541.2000;0.9345;1.0746;
541.5000;0.9263;1.0630;
541.8000;0.9320;1.0816;
542.1000;0.9337;1.0886;
542.4000;0.9312;1.0793;
542.7000;0.9312;1.0886;
543.0000;0.9304;1.0863;
543.3000;0.9385;1.1073;
543.6000;0.9328;1.0979;
543.9000;0.9304;1.0886;
544.2000;0.9288;1.0909;
544.5000;0.9312;1.0933;
544.8000;0.9320;1.0909;
545.1000;0.9369;1.1073;
545.4000;0.9296;1.0979;
545.7000;0.9304;1.1003;
546.0000;0.9312;1.1049;
546.3000;0.9312;1.1003;
546.6000;0.9312;1.0979;
546.9000;0.9312;1.1049;
547.2000;0.9288;1.1003;
547.5000;0.9304;1.1049;
547.8000;0.9255;1.0863;
548.1000;0.9337;1.1026;
548.4000;0.9320;1.1003;
548.7000;0.9328;1.1003;
549.0000;0.9296;1.0956;
549.3000;0.9296;1.1026;
549.6000;0.9320;1.1049;
549.9000;0.9296;1.1003;
550.2000;0.9288;1.0886;
550.5000;0.9304;1.0933;
550.8000;0.9296;1.0886;
551.1000;0.9304;1.0839;
551.4000;0.9288;1.0839;
551.7000;0.9304;1.1026;
552.0000;0.9328;1.1096;
552.3000;0.9320;1.1026;
552.6000;0.9214;1.0816;
552.9000;0.9328;1.1026;
553.2000;0.9312;1.0979;
553.5000;0.9296;1.0979;
553.8000;0.9263;1.0909;
554.1000;0.9288;1.0933;
554.4000;0.9369;1.1119;
554.7000;0.9312;1.0933;
555.0000;0.9304;1.0886;
555.3000;0.9280;1.0816;
555.6000;0.9304;1.0909;
555.9000;0.9353;1.1003;
556.2000;0.9312;1.0979;
556.5000;0.9320;1.1003;
556.8000;0.9296;1.1096;
557.1000;0.9312;1.1212;
557.4000;0.9304;1.1096;
557.7000;0.9288;1.1026;
558.0000;0.9304;1.1073;
558.3000;0.9296;1.1026;
558.6000;0.9312;1.1026;
558.9000;0.9304;1.1026;
559.2000;0.9206;1.0700;
559.5000;0.9328;1.0863;
559.8000;0.9320;1.0816;
560.1000;0.9239;1.0630;
560.4000;0.9304;1.0770;
560.7000;0.9288;1.0770;
561.0000;0.9312;1.0793;
561.3000;0.9263;1.0653;
561.6000;0.9255;1.0630;
561.9000;0.9320;1.0770;
562.2000;0.9328;1.0746;
562.5000;0.9288;1.0700;
562.8000;0.9296;1.0770;
563.1000;0.9353;1.0886;
563.4000;0.9312;1.0839;
563.7000;0.9304;1.0956;
564.0000;0.9320;1.1003;
564.3000;0.9280;1.1026;
564.6000;0.9271;1.0979;
564.9000;0.9304;1.1049;
565.2000;0.9280;1.0956;
565.5000;0.9288;1.0909;
565.8000;0.9288;1.0863;
566.1000;0.9296;1.0839;
566.4000;0.9304;1.0839;
566.7000;0.9296;1.0700;
567.0000;0.9296;1.0700;
567.3000;0.9312;1.0746;
567.6000;0.9296;1.0653;
567.9000;0.9304;1.0676;
568.2000;0.9271;1.0700;
568.5000;0.9296;1.0746;
568.8000;0.9296;1.0700;
569.1000;0.9296;1.0653;
569.4000;0.9304;1.0676;
569.7000;0.9296;1.0560;
570.0000;0.9296;1.0606;
570.3000;0.9296;1.0653;
570.6000;0.9304;1.0653;
570.9000;0.9296;1.0583;
571.2000;0.9288;1.0606;
571.5000;0.9296;1.0676;
571.8000;0.9296;1.0793;
572.1000;0.9271;1.0746;
572.4000;0.9304;1.0839;
572.7000;0.9271;1.0700;
573.0000;0.9320;1.0793;
573.3000;0.9280;1.0746;
573.6000;0.9271;1.0816;
573.9000;0.9345;1.0979;
574.2000;0.9312;1.0933;
574.5000;0.9296;1.0886;
574.8000;0.9304;1.0886;
575.1000;0.9280;1.0839;
575.4000;0.9288;1.0816;
575.7000;0.9296;1.0816;
576.0000;0.9312;1.0933;
576.3000;0.9320;1.0909;
576.6000;0.9304;1.0863;
576.9000;0.9206;1.0653;
577.2000;0.9296;1.0746;
577.5000;0.9320;1.0746;
577.8000;0.9271;1.0606;
578.1000;0.9288;1.0653;
578.4000;0.9312;1.0909;
578.7000;0.9304;1.0886;
579.0000;0.9288;1.0886;
579.3000;0.9328;1.1003;
579.6000;0.9280;1.0863;
579.9000;0.9271;1.0863;
580.2000;0.9288;1.0816;
580.5000;0.9271;1.0933;
580.8000;0.9271;1.0886;
581.1000;0.9296;1.0863;
581.4000;0.9239;1.0723;
581.7000;0.9280;1.0816;
582.0000;0.9263;1.0770;
582.3000;0.9190;1.0676;
582.6000;0.9280;1.0933;
582.9000;0.9296;1.0956;
583.2000;0.9288;1.0956;
583.5000;0.9288;1.1049;
583.8000;0.9304;1.1073;
584.1000;0.9296;1.1003;
584.4000;0.9304;1.1003;
584.7000;0.9304;1.0979;
585.0000;0.9296;1.0886;
585.3000;0.9304;1.0933;
585.6000;0.9280;1.0979;
585.9000;0.9296;1.1073;
586.2000;0.9304;1.1189;
586.5000;0.9312;1.1236;
586.8000;0.9312;1.1212;
587.1000;0.9312;1.1236;
587.4000;0.9288;1.1189;
587.7000;0.9296;1.1119;
588.0000;0.9304;1.1026;
588.3000;0.9271;1.0956;
588.6000;0.9263;1.0886;
588.9000;0.9280;1.0933;
589.2000;0.9296;1.0956;
589.5000;0.9247;1.0909;
589.8000;0.9296;1.1026;
590.1000;0.9288;1.0979;
590.4000;0.9320;1.0979;
590.7000;0.9296;1.0909;
591.0000;0.9312;1.0979;
591.3000;0.9288;1.0863;
591.6000;0.9304;1.0886;
591.9000;0.9312;1.0816;
592.2000;0.9296;1.0723;
592.5000;0.9271;1.0653;
592.8000;0.9288;1.0700;
593.1000;0.9280;1.0746;
593.4000;0.9280;1.0839;
593.7000;0.9271;1.0863;
594.0000;0.9304;1.0886;
594.3000;0.9288;1.0886;
594.6000;0.9296;1.0979;
594.9000;0.9288;1.0933;
595.2000;0.9296;1.0956;
595.5000;0.9296;1.0933;
595.8000;0.9280;1.0909;
596.1000;0.9280;1.0909;
596.4000;0.9271;1.0863;
596.7000;0.9288;1.0956;
597.0000;0.9304;1.0933;
597.3000;0.9288;1.0816;
597.6000;0.9280;1.0700;
597.9000;0.9361;1.0886;
598.2000;0.9304;1.0839;
598.5000;0.9288;1.0816;
598.8000;0.9271;1.0700;
599.1000;0.9263;1.0746;
599.4000;0.9214;1.0560;
599.7000;0.9247;1.0653;
600.0000;0.9255;1.0700;
600.3000;0.9296;1.0583;
600.6000;0.9271;1.0420;
600.9000;0.9182;1.0257;
601.2000;0.9084;1.0210;
601.5000;0.9011;1.0070;
601.8000;0.8930;1.0024;
602.1000;0.8816;0.9814;
602.4000;0.8759;0.9744;
602.7000;0.8661;0.9651;
603.0000;0.8588;0.9557;
603.3000;0.8466;0.9348;
603.6000;0.8474;0.9464;
603.9000;0.8409;0.9394;
604.2000;0.8376;0.9511;
604.5000;0.8295;0.9441;
604.8000;0.8246;0.9348;
605.1000;0.8213;0.9254;
605.4000;0.8164;0.9161;
605.7000;0.8132;0.9138;
606.0000;0.8059;0.9021;
606.3000;0.8050;0.9021;
606.6000;0.7993;0.8928;
606.9000;0.7985;0.8928;
607.2000;0.7961;0.8928;
607.5000;0.7912;0.8881;
607.8000;0.7880;0.8835;
608.1000;0.7855;0.8835;
608.4000;0.7847;0.8718;
608.7000;0.7839;0.8648;
609.0000;0.7798;0.8602;
609.3000;0.7774;0.8602;
609.6000;0.7855;0.8881;
609.9000;0.7749;0.8788;
610.2000;0.7700;0.8788;
610.5000;0.7709;0.8811;
610.8000;0.7684;0.8858;
611.1000;0.7652;0.8765;
611.4000;0.7619;0.8788;
611.7000;0.7627;0.8835;
612.0000;0.7619;0.8998;
612.3000;0.7603;0.8928;
612.6000;0.7554;0.8811;
612.9000;0.7546;0.8741;
613.2000;0.7546;0.8741;
613.5000;0.7546;0.8788;
613.8000;0.7473;0.8625;
614.1000;0.7497;0.8695;
614.4000;0.7489;0.8788;
614.7000;0.7481;0.8741;
615.0000;0.7464;0.8741;
615.3000;0.7481;0.8788;
615.6000;0.7432;0.8741;
615.9000;0.7416;0.8788;
616.2000;0.7416;0.8788;
616.5000;0.7416;0.8788;
616.8000;0.7432;0.8765;
617.1000;0.7432;0.8858;
617.4000;0.7407;0.8811;
617.7000;0.7375;0.8765;
618.0000;0.7350;0.8718;
618.3000;0.7367;0.8672;
618.6000;0.7375;0.8695;
618.9000;0.7342;0.8741;
619.2000;0.7318;0.8811;
619.5000;0.7367;0.9021;
619.8000;0.7334;0.8881;
620.1000;0.7399;0.9045;
620.4000;0.7318;0.8858;
620.7000;0.7302;0.8905;
621.0000;0.7318;0.8951;
621.3000;0.7310;0.9021;
621.6000;0.7277;0.8905;
621.9000;0.7277;0.8765;
622.2000;0.7285;0.8858;
622.5000;0.7277;0.8858;
622.8000;0.7253;0.8835;
623.1000;0.7236;0.8835;
623.4000;0.7171;0.8672;
623.7000;0.7220;0.8695;
624.0000;0.7188;0.8648;
624.3000;0.7212;0.8695;
624.6000;0.7253;0.8835;
624.9000;0.7196;0.8765;
625.2000;0.7179;0.8695;
625.5000;0.7179;0.8672;
625.8000;0.7131;0.8625;
626.1000;0.7188;0.8788;
626.4000;0.7171;0.8741;
626.7000;0.7163;0.8672;
627.0000;0.7139;0.8648;
627.3000;0.7123;0.8672;
627.6000;0.7131;0.8741;
627.9000;0.7131;0.8648;
628.2000;0.7123;0.8625;
628.5000;0.7123;0.8602;
628.8000;0.7114;0.8602;
629.1000;0.7066;0.8485;
629.4000;0.7098;0.8462;
629.7000;0.7106;0.8508;
630.0000;0.7098;0.8578;
630.3000;0.7090;0.8602;
630.6000;0.7098;0.8602;
630.9000;0.7082;0.8485;
631.2000;0.7098;0.8602;
631.5000;0.7049;0.8438;
631.8000;0.7025;0.8392;
632.1000;0.7049;0.8415;
632.4000;0.7041;0.8415;
632.7000;0.7009;0.8322;
633.0000;0.7025;0.8462;
633.3000;0.7009;0.8438;
633.6000;0.7000;0.8415;
633.9000;0.7025;0.8532;
634.2000;0.7041;0.8602;
634.5000;0.6992;0.8555;
634.8000;0.6992;0.8532;
635.1000;0.6968;0.8462;
635.4000;0.6984;0.8555;
635.7000;0.7066;0.8788;
636.0000;0.6976;0.8462;
636.3000;0.6968;0.8485;
636.6000;0.6976;0.8602;
636.9000;0.6943;0.8695;
637.2000;0.6862;0.8438;
637.5000;0.6952;0.8602;
637.8000;0.6984;0.8672;
638.1000;0.6919;0.8555;
638.4000;0.6927;0.8625;
638.7000;0.6927;0.8648;
639.0000;0.6895;0.8532;
639.3000;0.7000;0.8811;
639.6000;0.6846;0.8462;
639.9000;0.6919;0.8648;
640.2000;0.6886;0.8625;
640.5000;0.6895;0.8602;
640.8000;0.6886;0.8625;
641.1000;0.6919;0.8718;
641.4000;0.6878;0.8672;
641.7000;0.6862;0.8648;
642.0000;0.6862;0.8532;
642.3000;0.6854;0.8532;
642.6000;0.6862;0.8648;
642.9000;0.6903;0.8835;
643.2000;0.6846;0.8695;
643.5000;0.6838;0.8695;
643.8000;0.6829;0.8648;
644.1000;0.6846;0.8695;
644.4000;0.6854;0.8672;
644.7000;0.6805;0.8578;
645.0000;0.6813;0.8625;
645.3000;0.6797;0.8648;
645.6000;0.6797;0.8625;
645.9000;0.6683;0.8299;
646.2000;0.6805;0.8602;
646.5000;0.6748;0.8532;
646.8000;0.6789;0.8602;
647.1000;0.6781;0.8625;
647.4000;0.6756;0.8555;
647.7000;0.6764;0.8625;
648.0000;0.6748;0.8578;
648.3000;0.6772;0.8578;
648.6000;0.6764;0.8602;
648.9000;0.6764;0.8602;
649.2000;0.6748;0.8602;
649.5000;0.6724;0.8578;
649.8000;0.6716;0.8625;
650.1000;0.6699;0.8648;
650.4000;0.6740;0.8811;
650.7000;0.6716;0.8858;
651.0000;0.6716;0.8835;
651.3000;0.6699;0.8765;
651.6000;0.6699;0.8741;
651.9000;0.6699;0.8788;
652.2000;0.6707;0.8765;
652.5000;0.6683;0.8765;
652.8000;0.6797;0.8975;
653.1000;0.6667;0.8648;
653.4000;0.6675;0.8672;
653.7000;0.6642;0.8625;
654.0000;0.6667;0.8648;
654.3000;0.6675;0.8648;
654.6000;0.6642;0.8555;
654.9000;0.6659;0.8648;
655.2000;0.6667;0.8695;
655.5000;0.6593;0.8532;
655.8000;0.6642;0.8672;
656.1000;0.6667;0.8718;
656.4000;0.6626;0.8672;
656.7000;0.6626;0.8718;
657.0000;0.6618;0.8718;
657.3000;0.6585;0.8672;
657.6000;0.6610;0.8602;
657.9000;0.6602;0.8625;
658.2000;0.6618;0.8672;
658.5000;0.6585;0.8578;
658.8000;0.6569;0.8555;
659.1000;0.6593;0.8648;
659.4000;0.6585;0.8672;
659.7000;0.6634;0.8695;
660.0000;0.6561;0.8555;
660.3000;0.6545;0.8532;
660.6000;0.6569;0.8578;
660.9000;0.6545;0.8578;
661.2000;0.6504;0.8438;
661.5000;0.6536;0.8485;
661.8000;0.6553;0.8508;
662.1000;0.6536;0.8485;
662.4000;0.6545;0.8532;
662.7000;0.6528;0.8438;
663.0000;0.6536;0.8392;
663.3000;0.6528;0.8462;
663.6000;0.6528;0.8508;
663.9000;0.6512;0.8625;
664.2000;0.6496;0.8578;
664.5000;0.6553;0.8718;
664.8000;0.6504;0.8625;
665.1000;0.6512;0.8555;
665.4000;0.6479;0.8392;
665.7000;0.6479;0.8415;
666.0000;0.6471;0.8345;
666.3000;0.6496;0.8299;
666.6000;0.6479;0.8252;
666.9000;0.6447;0.8229;
667.2000;0.6455;0.8322;
667.5000;0.6471;0.8392;
667.8000;0.6512;0.8462;
668.1000;0.6422;0.8369;
668.4000;0.6479;0.8485;
668.7000;0.6455;0.8392;
669.0000;0.6455;0.8369;
669.3000;0.6455;0.8415;
669.6000;0.6447;0.8369;
669.9000;0.6431;0.8322;
670.2000;0.6422;0.8299;
670.5000;0.6463;0.8438;
670.8000;0.6431;0.8392;
671.1000;0.6422;0.8555;
671.4000;0.6431;0.8718;
671.7000;0.6439;0.8672;
672.0000;0.6431;0.8695;
672.3000;0.6431;0.8718;
672.6000;0.6390;0.8718;
672.9000;0.6398;0.8672;
673.2000;0.6488;0.8905;
673.5000;0.6414;0.8695;
673.8000;0.6390;0.8741;
674.1000;0.6357;0.8555;
674.4000;0.6357;0.8532;
674.7000;0.6382;0.8648;
675.0000;0.6365;0.8625;
675.3000;0.6390;0.8602;
675.6000;0.6374;0.8578;
675.9000;0.6365;0.8532;
676.2000;0.6439;0.8835;
676.5000;0.6398;0.8695;
676.8000;0.6333;0.8532;
677.1000;0.6341;0.8578;
677.4000;0.6260;0.8392;
677.7000;0.6365;0.8695;
678.0000;0.6357;0.8602;
678.3000;0.6365;0.8718;
678.6000;0.6341;0.8648;
678.9000;0.6357;0.8648;
679.2000;0.6333;0.8672;
679.5000;0.6333;0.8672;
679.8000;0.6325;0.8765;
680.1000;0.6309;0.8718;
680.4000;0.6309;0.8695;
680.7000;0.6260;0.8578;
681.0000;0.6300;0.8648;
681.3000;0.6284;0.8625;
681.6000;0.6276;0.8625;
681.9000;0.6268;0.8532;
682.2000;0.6276;0.8695;
682.5000;0.6300;0.8788;
682.8000;0.6317;0.8811;
683.1000;0.6252;0.8788;
683.4000;0.6276;0.8741;
683.7000;0.6276;0.8765;
684.0000;0.6260;0.8695;
684.3000;0.6276;0.8765;
684.6000;0.6276;0.8695;
684.9000;0.6284;0.8718;
685.2000;0.6252;0.8672;
685.5000;0.6243;0.8718;
685.8000;0.6235;0.8672;
686.1000;0.6252;0.8765;
686.4000;0.6235;0.8672;
686.7000;0.6227;0.8602;
687.0000;0.6211;0.8555;
687.3000;0.6235;0.8602;
687.6000;0.6235;0.8741;
687.9000;0.6276;0.8811;
688.2000;0.6235;0.8811;
688.5000;0.6195;0.8765;
688.8000;0.6268;0.8788;
689.1000;0.6219;0.8741;
689.4000;0.6203;0.8741;
689.7000;0.6186;0.8788;
690.0000;0.6195;0.8741;
690.3000;0.6227;0.8765;
690.6000;0.6203;0.8695;
690.9000;0.6203;0.8695;
691.2000;0.6203;0.8811;
691.5000;0.6146;0.8648;
691.8000;0.6186;0.8741;
692.1000;0.6227;0.8788;
692.4000;0.6195;0.8741;
692.7000;0.6195;0.8788;
693.0000;0.6203;0.8858;
693.3000;0.6203;0.8928;
693.6000;0.6170;0.8975;
693.9000;0.6178;0.8975;
694.2000;0.6178;0.8951;
694.5000;0.6186;0.9021;
694.8000;0.6170;0.8951;
695.1000;0.6154;0.8928;
695.4000;0.6138;0.8951;
695.7000;0.6146;0.8881;
696.0000;0.6138;0.8928;
696.3000;0.6154;0.8975;
696.6000;0.6146;0.8975;
696.9000;0.6129;0.8905;
697.2000;0.6146;0.8858;
697.5000;0.6121;0.8718;
697.8000;0.6170;0.8858;
698.1000;0.6178;0.8835;
698.4000;0.6146;0.8811;
698.7000;0.6138;0.8858;
699.0000;0.6129;0.8835;
699.3000;0.6154;0.8998;
699.6000;0.6146;0.8951;
699.9000;0.6113;0.8858;
700.2000;0.6113;0.8858;
700.5000;0.6113;0.8858;
700.8000;0.6146;0.8928;
701.1000;0.6178;0.8951;
701.4000;0.6089;0.8765;
701.7000;0.6121;0.8788;
702.0000;0.6081;0.8741;
702.3000;0.6105;0.8765;
702.6000;0.6072;0.8741;
702.9000;0.6097;0.8811;
703.2000;0.6105;0.8905;
703.5000;0.6105;0.8928;
703.8000;0.6105;0.8951;
704.1000;0.6097;0.8928;
704.4000;0.6081;0.8881;
704.7000;0.6089;0.8811;
705.0000;0.6081;0.8718;
705.3000;0.6072;0.8741;
705.6000;0.6064;0.8881;
705.9000;0.6064;0.8928;
706.2000;0.6056;0.8858;
706.5000;0.6056;0.8811;
706.8000;0.6056;0.8741;
707.1000;0.6048;0.8672;
707.4000;0.6064;0.8625;
707.7000;0.6032;0.8438;
708.0000;0.6064;0.8578;
708.3000;0.6064;0.8532;
708.6000;0.6048;0.8392;
708.9000;0.6089;0.8555;
709.2000;0.6056;0.8578;
709.5000;0.6032;0.8578;
709.8000;0.6048;0.8672;
710.1000;0.6056;0.8672;
710.4000;0.6032;0.8741;
710.7000;0.6048;0.8765;
711.0000;0.6024;0.8695;
711.3000;0.6032;0.8695;
711.6000;0.6040;0.8765;
711.9000;0.6015;0.8741;
712.2000;0.6007;0.8718;
712.5000;0.6015;0.8672;
712.8000;0.6032;0.8672;
713.1000;0.6105;0.8881;
713.4000;0.6015;0.8695;
713.7000;0.5991;0.8578;
714.0000;0.5975;0.8672;
714.3000;0.6007;0.8718;
714.6000;0.6015;0.8811;
714.9000;0.5999;0.8695;
715.2000;0.5999;0.8741;
715.5000;0.5926;0.8602;
715.8000;0.5991;0.8788;
716.1000;0.5991;0.8835;
716.4000;0.5991;0.8765;
716.7000;0.5991;0.8765;
717.0000;0.5967;0.8765;
717.3000;0.5991;0.8718;
717.6000;0.5983;0.8672;
717.9000;0.5983;0.8648;
718.2000;0.5991;0.8695;
718.5000;0.5983;0.8765;
718.8000;0.5983;0.8695;
719.1000;0.5983;0.8741;
719.4000;0.5918;0.8695;
719.7000;0.5950;0.8741;
720.0000;0.5975;0.8835;
720.3000;0.5967;0.8858;
720.6000;0.5958;0.8951;
720.9000;0.5975;0.8881;
721.2000;0.6048;0.8905;
721.5000;0.5950;0.8625;
721.8000;0.5975;0.8695;
722.1000;0.5975;0.8765;
722.4000;0.5950;0.8695;
722.7000;0.5950;0.8788;
723.0000;0.5958;0.8788;
723.3000;0.5910;0.8718;
723.6000;0.5950;0.8741;
723.9000;0.5942;0.8765;
724.2000;0.5942;0.8765;
724.5000;0.5958;0.8811;
724.8000;0.5958;0.8905;
725.1000;0.5950;0.8928;
725.4000;0.5934;0.8881;
725.7000;0.5934;0.8811;
726.0000;0.5918;0.8741;
726.3000;0.5942;0.8741;
726.6000;0.5926;0.8741;
726.9000;0.5869;0.8648;
727.2000;0.5918;0.8788;
727.5000;0.5918;0.8858;
727.8000;0.5910;0.8811;
728.1000;0.5902;0.8811;
728.4000;0.5902;0.8811;
728.7000;0.5918;0.8858;
729.0000;0.5910;0.8881;
729.3000;0.5902;0.8905;
729.6000;0.5926;0.8858;
729.9000;0.5918;0.8811;
730.2000;0.5902;0.8881;
730.5000;0.5893;0.8858;
730.8000;0.5885;0.8835;
731.1000;0.5910;0.8881;
731.4000;0.5885;0.8765;
731.7000;0.5853;0.8695;
732.0000;0.5877;0.8811;
732.3000;0.5910;0.8858;
732.6000;0.5910;0.8811;
732.9000;0.5885;0.8741;
733.2000;0.5885;0.8811;
733.5000;0.5853;0.8672;
733.8000;0.5885;0.8648;
734.1000;0.5877;0.8578;
734.4000;0.5877;0.8625;
734.7000;0.5877;0.8602;
735.0000;0.5918;0.8741;
735.3000;0.5877;0.8672;
735.6000;0.5845;0.8648;
735.9000;0.5828;0.8672;
736.2000;0.5893;0.8811;
736.5000;0.5877;0.8788;
736.8000;0.5845;0.8811;
737.1000;0.5877;0.8881;
737.4000;0.5869;0.8765;
737.7000;0.5853;0.8718;
738.0000;0.5853;0.8788;
738.3000;0.5853;0.8695;
738.6000;0.5861;0.8695;
738.9000;0.5869;0.8811;
739.2000;0.5845;0.8835;
739.5000;0.5788;0.8695;
739.8000;0.5853;0.8951;
740.1000;0.5853;0.8928;
740.4000;0.5836;0.8835;
740.7000;0.5845;0.8811;
741.0000;0.5869;0.8905;
741.3000;0.5828;0.8835;
741.6000;0.5845;0.8811;
741.9000;0.5828;0.8835;
742.2000;0.5836;0.8835;
742.5000;0.5828;0.8811;
742.8000;0.5836;0.8835;
743.1000;0.5828;0.8905;
743.4000;0.5820;0.8905;
743.7000;0.5828;0.8928;
744.0000;0.5812;0.8858;
744.3000;0.5747;0.8648;
744.6000;0.5812;0.8765;
744.9000;0.5820;0.8881;
745.2000;0.5812;0.8905;
745.5000;0.5828;0.8951;
745.8000;0.5820;0.8951;
746.1000;0.5828;0.8975;
746.4000;0.5853;0.9021;
746.7000;0.5812;0.8905;
747.0000;0.5788;0.8811;
747.3000;0.5853;0.8905;
747.6000;0.5812;0.8718;
747.9000;0.5788;0.8718;
748.2000;0.5796;0.8765;
748.5000;0.5788;0.8835;
748.8000;0.5804;0.8835;
749.1000;0.5812;0.8858;
749.4000;0.5788;0.8905;
749.7000;0.5828;0.8928;
750.0000;0.5812;0.8858;
750.3000;0.5796;0.8835;
750.6000;0.5788;0.8811;
750.9000;0.5796;0.8765;
751.2000;0.5788;0.8765;
751.5000;0.5804;0.8835;
751.8000;0.5788;0.8835;
752.1000;0.5788;0.8858;
752.4000;0.5779;0.8858;
752.7000;0.5731;0.8741;
753.0000;0.5796;0.8951;
753.3000;0.5771;0.8951;
753.6000;0.5779;0.8835;
753.9000;0.5747;0.8765;
754.2000;0.5771;0.8905;
754.5000;0.5739;0.8881;
754.8000;0.5779;0.9045;
755.1000;0.5779;0.8975;
755.4000;0.5779;0.8928;
755.7000;0.5779;0.8928;
756.0000;0.5804;0.9045;
756.3000;0.5747;0.8881;
756.6000;0.5779;0.8811;
756.9000;0.5755;0.8811;
757.2000;0.5779;0.8788;
757.5000;0.5763;0.8788;
757.8000;0.5779;0.8835;
758.1000;0.5747;0.8788;
758.4000;0.5739;0.8881;
758.7000;0.5739;0.8905;
759.0000;0.5796;0.8998;
759.3000;0.5755;0.8975;
759.6000;0.5796;0.9138;
759.9000;0.5739;0.8975;
760.2000;0.5739;0.8975;
760.5000;0.5747;0.8951;
760.8000;0.5779;0.8975;
761.1000;0.5714;0.8835;
761.4000;0.5747;0.8905;
761.7000;0.5755;0.8858;
762.0000;0.5763;0.8835;
762.3000;0.5731;0.8858;
762.6000;0.5625;0.8625;
762.9000;0.5722;0.8835;
763.2000;0.5739;0.8881;
763.5000;0.5739;0.8788;
763.8000;0.5731;0.8741;
764.1000;0.5731;0.8718;
764.4000;0.5747;0.8672;
764.7000;0.5722;0.8532;
765.0000;0.5722;0.8555;
765.3000;0.5747;0.8578;
765.6000;0.5739;0.8625;
765.9000;0.5698;0.8578;
766.2000;0.5714;0.8555;
766.5000;0.5714;0.8648;
766.8000;0.5763;0.8718;
767.1000;0.5739;0.8672;
767.4000;0.5714;0.8625;
767.7000;0.5731;0.8718;
768.0000;0.5731;0.8765;
768.3000;0.5706;0.8765;
768.6000;0.5755;0.8811;
768.9000;0.5698;0.8718;
769.2000;0.5755;0.8858;
769.5000;0.5731;0.8788;
769.8000;0.5674;0.8718;
770.1000;0.5641;0.8672;
770.4000;0.5690;0.8788;
770.7000;0.5706;0.8835;
771.0000;0.5690;0.8881;
771.3000;0.5690;0.8905;
771.6000;0.5592;0.8695;
771.9000;0.5698;0.8905;
772.2000;0.5706;0.8951;
772.5000;0.5682;0.8858;
772.8000;0.5698;0.8951;
773.1000;0.5690;0.8835;
773.4000;0.5690;0.8928;
773.7000;0.5682;0.8975;
774.0000;0.5674;0.8928;
774.3000;0.5665;0.8951;
774.6000;0.5698;0.8998;
774.9000;0.5706;0.8928;
775.2000;0.5682;0.8881;
775.5000;0.5674;0.8811;
775.8000;0.5690;0.8905;
776.1000;0.5698;0.8905;
776.4000;0.5682;0.8881;
776.7000;0.5674;0.8835;
777.0000;0.5706;0.8858;
777.3000;0.5690;0.8811;
777.6000;0.5674;0.8765;
777.9000;0.5714;0.8905;
778.2000;0.5722;0.8881;
778.5000;0.5674;0.8881;
778.8000;0.5690;0.8998;
779.1000;0.5665;0.8835;
779.4000;0.5674;0.8788;
779.7000;0.5698;0.8835;
780.0000;0.5682;0.8718;
780.3000;0.5674;0.8718;
780.6000;0.5674;0.8765;
780.9000;0.5682;0.8811;
781.2000;0.5682;0.8858;
781.5000;0.5690;0.8835;
781.8000;0.5674;0.8788;
782.1000;0.5682;0.8811;
782.4000;0.5674;0.8881;
782.7000;0.5690;0.8928;
783.0000;0.5674;0.8975;
783.3000;0.5665;0.8951;
783.6000;0.5665;0.8928;
783.9000;0.5641;0.8835;
784.2000;0.5649;0.8835;
784.5000;0.5674;0.8881;
784.8000;0.5665;0.8835;
785.1000;0.5665;0.8765;
785.4000;0.5657;0.8765;
785.7000;0.5625;0.8672;
786.0000;0.5657;0.8718;
786.3000;0.5665;0.8811;
786.6000;0.5722;0.8998;
786.9000;0.5682;0.8835;
787.2000;0.5665;0.8835;
787.5000;0.5657;0.8788;
787.8000;0.5649;0.8858;
788.1000;0.5633;0.8858;
788.4000;0.5641;0.8905;
788.7000;0.5617;0.8881;
789.0000;0.5584;0.8881;
789.3000;0.5649;0.9021;
789.6000;0.5617;0.8881;
789.9000;0.5649;0.8975;
790.2000;0.5674;0.9021;
790.5000;0.5665;0.8951;
790.8000;0.5625;0.8881;
791.1000;0.5657;0.9045;
791.4000;0.5576;0.8788;
791.7000;0.5633;0.8951;
792.0000;0.5617;0.8905;
792.3000;0.5633;0.8881;
792.6000;0.5633;0.8765;
792.9000;0.5625;0.8788;
793.2000;0.5551;0.8695;
793.5000;0.5617;0.8835;
793.8000;0.5608;0.8788;
794.1000;0.5600;0.8718;
794.4000;0.5608;0.8788;
794.7000;0.5625;0.8811;
795.0000;0.5617;0.8858;
795.3000;0.5625;0.8788;
795.6000;0.5568;0.8602;
795.9000;0.5608;0.8695;
796.2000;0.5617;0.8648;
796.5000;0.5600;0.8602;
796.8000;0.5617;0.8695;
797.1000;0.5608;0.8672;
797.4000;0.5617;0.8648;
797.7000;0.5617;0.8555;
798.0000;0.5592;0.8555;
798.3000;0.5600;0.8578;
798.6000;0.5600;0.8602;
798.9000;0.5649;0.8648;
799.2000;0.5600;0.8602;
799.5000;0.5600;0.8578;
799.8000;0.5560;0.8438;
800.1000;0.5592;0.8555;
800.4000;0.5592;0.8485;
800.7000;0.5584;0.8508;
801.0000;0.5600;0.8578;
801.3000;0.5600;0.8625;
801.6000;0.5608;0.8741;
801.9000;0.5584;0.8765;
802.2000;0.5617;0.8928;
802.5000;0.5592;0.8905;
802.8000;0.5592;0.8951;
803.1000;0.5576;0.8905;
803.4000;0.5592;0.8928;
803.7000;0.5592;0.9045;
804.0000;0.5576;0.8998;
804.3000;0.5576;0.8975;
804.6000;0.5576;0.8951;
804.9000;0.5495;0.8695;
805.2000;0.5592;0.8858;
805.5000;0.5600;0.8881;
805.8000;0.5584;0.8975;
806.1000;0.5560;0.8951;
806.4000;0.5584;0.8858;
806.7000;0.5584;0.8835;
807.0000;0.5617;0.9021;
807.3000;0.5592;0.8975;
807.6000;0.5641;0.9091;
807.9000;0.5576;0.8975;
808.2000;0.5560;0.8975;
808.5000;0.5568;0.8951;
808.8000;0.5576;0.8975;
809.1000;0.5511;0.8741;
809.4000;0.5576;0.8881;
809.7000;0.5584;0.8905;
810.0000;0.5543;0.8788;
810.3000;0.5551;0.8835;
810.6000;0.5568;0.8811;
810.9000;0.5560;0.8765;
811.2000;0.5551;0.8741;
811.5000;0.5551;0.8765;
811.8000;0.5600;0.8858;
812.1000;0.5584;0.8811;
812.4000;0.5551;0.8718;
812.7000;0.5584;0.8881;
813.0000;0.5584;0.8811;
813.3000;0.5568;0.8765;
813.6000;0.5551;0.8835;
813.9000;0.5568;0.8835;
814.2000;0.5617;0.9045;
814.5000;0.5551;0.8905;
814.8000;0.5543;0.8788;
815.1000;0.5527;0.8788;
815.4000;0.5519;0.8811;
815.7000;0.5543;0.8881;
816.0000;0.5543;0.8811;
816.3000;0.5543;0.8741;
816.6000;0.5568;0.8695;
816.9000;0.5560;0.8741;
817.2000;0.5560;0.8741;
817.5000;0.5584;0.8811;
817.8000;0.5543;0.8741;
818.1000;0.5568;0.8835;
818.4000;0.5543;0.8765;
818.7000;0.5551;0.8788;
819.0000;0.5543;0.8881;
819.3000;0.5543;0.8811;
819.6000;0.5543;0.8788;
819.9000;0.5560;0.8835;
820.2000;0.5543;0.8718;
820.5000;0.5551;0.8741;
820.8000;0.5527;0.8648;
821.1000;0.5495;0.8672;
821.4000;0.5535;0.8765;
821.7000;0.5568;0.8858;
822.0000;0.5543;0.8858;
822.3000;0.5535;0.8858;
822.6000;0.5535;0.8881;
822.9000;0.5543;0.8905;
823.2000;0.5527;0.8905;
823.5000;0.5543;0.8811;
823.8000;0.5519;0.8741;
824.1000;0.5511;0.8672;
824.4000;0.5527;0.8741;
824.7000;0.5519;0.8811;
825.0000;0.5535;0.8835;
825.3000;0.5527;0.8788;
825.6000;0.5551;0.8928;
825.9000;0.5503;0.8811;
826.2000;0.5503;0.8835;
826.5000;0.5527;0.8928;
826.8000;0.5560;0.9045;
827.1000;0.5535;0.8975;
827.4000;0.5527;0.9021;
827.7000;0.5527;0.8975;
828.0000;0.5511;0.9068;
828.3000;0.5519;0.9138;
828.6000;0.5527;0.9091;
828.9000;0.5511;0.9021;
829.2000;0.5527;0.9138;
829.5000;0.5527;0.9091;
829.8000;0.5511;0.9045;
830.1000;0.5454;0.8858;
830.4000;0.5511;0.9021;
830.7000;0.5495;0.8928;
831.0000;0.5527;0.8951;
831.3000;0.5486;0.8881;
831.6000;0.5454;0.8741;
831.9000;0.5519;0.8835;
832.2000;0.5527;0.8858;
832.5000;0.5486;0.8788;
832.8000;0.5511;0.8788;
833.1000;0.5519;0.8811;
833.4000;0.5511;0.8811;
833.7000;0.5503;0.8811;
834.0000;0.5503;0.8881;
834.3000;0.5503;0.8998;
834.6000;0.5519;0.9021;
834.9000;0.5527;0.9091;
835.2000;0.5478;0.9068;
835.5000;0.5511;0.9068;
835.8000;0.5503;0.9114;
836.1000;0.5495;0.9208;
836.4000;0.5511;0.9231;
836.7000;0.5495;0.9091;
837.0000;0.5486;0.9045;
837.3000;0.5486;0.9068;
837.6000;0.5495;0.9161;
837.9000;0.5503;0.9161;
838.2000;0.5551;0.9231;
838.5000;0.5486;0.9068;
838.8000;0.5478;0.9021;
839.1000;0.5495;0.9045;
839.4000;0.5543;0.9114;
839.7000;0.5503;0.8998;
840.0000;0.5495;0.8975;
840.3000;0.5519;0.9021;
840.6000;0.5495;0.9114;
840.9000;0.5527;0.9208;
841.2000;0.5486;0.9161;
841.5000;0.5486;0.9208;
841.8000;0.5486;0.9278;
842.1000;0.5486;0.9231;
842.4000;0.5478;0.9231;
842.7000;0.5470;0.9161;
843.0000;0.5495;0.9184;
843.3000;0.5478;0.9045;
843.6000;0.5495;0.9091;
843.9000;0.5495;0.9021;
844.2000;0.5486;0.8951;
844.5000;0.5495;0.8881;
844.8000;0.5478;0.8811;
845.1000;0.5478;0.8811;
845.4000;0.5503;0.8975;
845.7000;0.5478;0.8975;
846.0000;0.5511;0.9091;
846.3000;0.5486;0.9114;
846.6000;0.5454;0.8998;
846.9000;0.5462;0.9045;
847.2000;0.5462;0.9114;
847.5000;0.5438;0.8951;
847.8000;0.5478;0.8951;
848.1000;0.5454;0.8975;
848.4000;0.5478;0.9045;
848.7000;0.5527;0.9161;
849.0000;0.5478;0.8928;
849.3000;0.5462;0.8811;
849.6000;0.5470;0.8811;
849.9000;0.5462;0.8858;
850.2000;0.5478;0.8951;
850.5000;0.5454;0.8951;
850.8000;0.5381;0.8765;
851.1000;0.5470;0.9091;
851.4000;0.5454;0.9114;
851.7000;0.5486;0.9091;
852.0000;0.5462;0.9068;
852.3000;0.5551;0.9254;
852.6000;0.5389;0.8811;
852.9000;0.5454;0.8951;
853.2000;0.5503;0.9068;
853.5000;0.5454;0.8998;
853.8000;0.5462;0.8998;
854.1000;0.5462;0.8998;
854.4000;0.5503;0.9138;
854.7000;0.5470;0.8998;
855.0000;0.5454;0.9021;
855.3000;0.5462;0.9114;
855.6000;0.5438;0.9161;
855.9000;0.5438;0.9114;
856.2000;0.5446;0.9161;
856.5000;0.5470;0.9161;
856.8000;0.5446;0.9114;
857.1000;0.5438;0.8835;
857.4000;0.5413;0.8835;
857.7000;0.5462;0.8998;
858.0000;0.5454;0.8975;
858.3000;0.5421;0.8858;
858.6000;0.5470;0.8998;
858.9000;0.5462;0.8975;
859.2000;0.5495;0.9091;
859.5000;0.5421;0.8928;
859.8000;0.5478;0.9068;
860.1000;0.5438;0.9021;
860.4000;0.5454;0.9138;
860.7000;0.5438;0.9091;
861.0000;0.5462;0.9161;
861.3000;0.5462;0.9254;
861.6000;0.5446;0.9278;
861.9000;0.5429;0.9231;
862.2000;0.5421;0.9184;
862.5000;0.5446;0.9208;
862.8000;0.5438;0.9231;
863.1000;0.5421;0.9138;
863.4000;0.5364;0.8905;
863.7000;0.5438;0.9068;
864.0000;0.5551;0.9394;
864.3000;0.5446;0.9114;
864.6000;0.5438;0.9091;
864.9000;0.5446;0.9208;
865.2000;0.5446;0.9138;
865.5000;0.5429;0.9114;
865.8000;0.5462;0.9114;
866.1000;0.5421;0.9091;
866.4000;0.5413;0.9091;
866.7000;0.5438;0.9301;
867.0000;0.5348;0.9068;
867.3000;0.5438;0.9301;
867.6000;0.5454;0.9324;
867.9000;0.5511;0.9487;
868.2000;0.5446;0.9254;
868.5000;0.5429;0.9161;
868.8000;0.5454;0.9231;
869.1000;0.5462;0.9208;
869.4000;0.5446;0.9068;
869.7000;0.5486;0.9184;
870.0000;0.5413;0.9021;
870.3000;0.5446;0.9208;
870.6000;0.5413;0.9114;
870.9000;0.5421;0.9091;
871.2000;0.5421;0.9114;
871.5000;0.5413;0.9045;
871.8000;0.5454;0.9184;
872.1000;0.5429;0.9114;
872.4000;0.5413;0.9068;
872.7000;0.5438;0.9021;
873.0000;0.5429;0.8905;
873.3000;0.5421;0.8858;
873.6000;0.5413;0.8928;
873.9000;0.5421;0.8905;
874.2000;0.5397;0.8881;
874.5000;0.5438;0.8998;
874.8000;0.5478;0.9045;
875.1000;0.5405;0.8951;
875.4000;0.5413;0.8928;
875.7000;0.5438;0.8975;
876.0000;0.5429;0.8928;
876.3000;0.5405;0.8881;
876.6000;0.5421;0.8881;
876.9000;0.5348;0.8765;
877.2000;0.5438;0.8951;
877.5000;0.5446;0.9161;
877.8000;0.5397;0.9091;
878.1000;0.5421;0.9161;
878.4000;0.5405;0.9068;
878.7000;0.5413;0.9091;
879.0000;0.5462;0.9161;
879.3000;0.5421;0.9114;
879.6000;0.5397;0.9068;
879.9000;0.5397;0.9021;
880.2000;0.5413;0.8928;
880.5000;0.5405;0.9021;
880.8000;0.5405;0.8975;
881.1000;0.5405;0.8975;
881.4000;0.5397;0.8975;
881.7000;0.5413;0.8928;
882.0000;0.5421;0.8905;
882.3000;0.5421;0.8905;
882.6000;0.5381;0.8835;
882.9000;0.5372;0.8835;
883.2000;0.5405;0.8951;
883.5000;0.5389;0.8928;
883.8000;0.5381;0.8951;
884.1000;0.5372;0.8905;
884.4000;0.5372;0.8998;
884.7000;0.5413;0.9021;
885.0000;0.5413;0.9068;
885.3000;0.5397;0.8975;
885.6000;0.5356;0.8905;
885.9000;0.5397;0.9068;
886.2000;0.5364;0.9068;
886.5000;0.5405;0.9138;
886.8000;0.5405;0.9138;
887.1000;0.5381;0.9184;
887.4000;0.5389;0.9231;
887.7000;0.5372;0.9138;
888.0000;0.5421;0.9278;
888.3000;0.5397;0.9184;
888.6000;0.5405;0.9091;
888.9000;0.5381;0.9021;
889.2000;0.5389;0.9208;
889.5000;0.5405;0.9324;
889.8000;0.5397;0.9208;
890.1000;0.5397;0.9254;
890.4000;0.5397;0.9231;
890.7000;0.5413;0.9184;
891.0000;0.5462;0.9324;
891.3000;0.5389;0.9161;
891.6000;0.5438;0.9301;
891.9000;0.5446;0.9301;
892.2000;0.5397;0.9161;
892.5000;0.5389;0.9091;
892.8000;0.5389;0.9091;
893.1000;0.5389;0.9068;
893.4000;0.5381;0.9138;
893.7000;0.5372;0.9091;
894.0000;0.5381;0.9045;
894.3000;0.5372;0.9091;
894.6000;0.5389;0.9091;
894.9000;0.5389;0.9138;
895.2000;0.5389;0.9045;
895.5000;0.5372;0.8998;
895.8000;0.5372;0.9114;
896.1000;0.5372;0.9184;
896.4000;0.5389;0.9231;
896.7000;0.5364;0.9254;
897.0000;0.5389;0.9348;
897.3000;0.5381;0.9348;
897.6000;0.5429;0.9371;
897.9000;0.5315;0.9114;
898.2000;0.5364;0.9091;
898.5000;0.5372;0.9138;
898.8000;0.5372;0.9068;
899.1000;0.5356;0.9068;
899.4000;0.5348;0.8951;
899.7000;0.5429;0.9068;
900.0000;0.5389;0.8975;
900.3000;0.5356;0.8905;
900.6000;0.5446;0.9021;
900.9000;0.5356;0.8858;
901.2000;0.5389;0.8975;
901.5000;0.5356;0.8905;
901.8000;0.5348;0.8951;
902.1000;0.5299;0.8835;
902.4000;0.5364;0.9021;
902.7000;0.5364;0.9045;
903.0000;0.5324;0.8858;
903.3000;0.5397;0.9091;
903.6000;0.5421;0.9208;
903.9000;0.5356;0.9138;
904.2000;0.5348;0.9045;
904.5000;0.5413;0.9068;
904.8000;0.5299;0.8835;
905.1000;0.5381;0.9021;
905.4000;0.5364;0.8975;
905.7000;0.5364;0.8998;
906.0000;0.5372;0.9068;
906.3000;0.5372;0.8928;
906.6000;0.5364;0.8905;
906.9000;0.5364;0.8811;
907.2000;0.5364;0.8835;
907.5000;0.5381;0.8881;
907.8000;0.5372;0.8811;
908.1000;0.5397;0.8835;
908.4000;0.5356;0.8672;
908.7000;0.5372;0.8788;
909.0000;0.5324;0.8811;
909.3000;0.5340;0.8835;
909.6000;0.5372;0.8951;
909.9000;0.5381;0.9045;
910.2000;0.5332;0.8998;
910.5000;0.5340;0.9068;
910.8000;0.5356;0.9231;
911.1000;0.5348;0.9161;
911.4000;0.5364;0.9278;
911.7000;0.5348;0.9208;
912.0000;0.5348;0.9114;
912.3000;0.5348;0.9184;
912.6000;0.5348;0.9208;
912.9000;0.5364;0.9231;
913.2000;0.5356;0.9161;
913.5000;0.5364;0.9231;
913.8000;0.5348;0.9208;
914.1000;0.5364;0.9208;
914.4000;0.5364;0.9184;
914.7000;0.5397;0.9231;
915.0000;0.5348;0.9138;
915.3000;0.5348;0.9184;
915.6000;0.5340;0.9138;
915.9000;0.5348;0.9068;
916.2000;0.5356;0.9068;
916.5000;0.5356;0.9068;
916.8000;0.5397;0.9231;
917.1000;0.5356;0.9068;
917.4000;0.5332;0.8998;
917.7000;0.5332;0.9021;
918.0000;0.5348;0.9091;
918.3000;0.5364;0.9161;
918.6000;0.5348;0.9114;
918.9000;0.5348;0.9114;
919.2000;0.5348;0.9184;
919.5000;0.5356;0.9161;
919.8000;0.5324;0.9138;
920.1000;0.5348;0.9184;
920.4000;0.5348;0.9254;
920.7000;0.5324;0.9161;
921.0000;0.5332;0.9231;
921.3000;0.5332;0.9231;
921.6000;0.5348;0.9161;
921.9000;0.5389;0.9138;
922.2000;0.5307;0.8975;
922.5000;0.5340;0.8998;
922.8000;0.5340;0.9021;
923.1000;0.5356;0.9068;
923.4000;0.5291;0.8811;
923.7000;0.5315;0.8835;
924.0000;0.5315;0.8811;
924.3000;0.5324;0.8835;
924.6000;0.5389;0.9068;
924.9000;0.5356;0.8951;
925.2000;0.5307;0.8928;
925.5000;0.5340;0.8998;
925.8000;0.5332;0.9021;
926.1000;0.5315;0.9114;
926.4000;0.5340;0.9045;
926.7000;0.5364;0.9138;
927.0000;0.5389;0.9184;
927.3000;0.5348;0.9068;
927.6000;0.5315;0.8951;
927.9000;0.5324;0.8975;
928.2000;0.5315;0.8998;
928.5000;0.5267;0.8835;
928.8000;0.5324;0.9068;
929.1000;0.5332;0.9114;
929.4000;0.5340;0.9161;
929.7000;0.5332;0.9138;
930.0000;0.5332;0.9114;
930.3000;0.5340;0.9091;
930.6000;0.5324;0.8975;
930.9000;0.5315;0.9021;
931.2000;0.5291;0.8975;
931.5000;0.5324;0.9045;
931.8000;0.5340;0.9138;
932.1000;0.5324;0.9114;
932.4000;0.5307;0.9021;
932.7000;0.5315;0.9091;
933.0000;0.5315;0.9114;
933.3000;0.5324;0.8951;
933.6000;0.5307;0.8881;
933.9000;0.5340;0.9091;
934.2000;0.5348;0.9068;
934.5000;0.5332;0.9091;
934.8000;0.5299;0.9045;
935.1000;0.5332;0.9045;
935.4000;0.5324;0.9114;
935.7000;0.5332;0.9161;
936.0000;0.5324;0.9231;
936.3000;0.5332;0.9278;
936.6000;0.5307;0.9301;
936.9000;0.5299;0.9301;
937.2000;0.5332;0.9278;
937.5000;0.5324;0.9278;
937.8000;0.5324;0.9348;
938.1000;0.5324;0.9348;
938.4000;0.5315;0.9278;
938.7000;0.5324;0.9301;
939.0000;0.5324;0.9371;
939.3000;0.5315;0.9417;
939.6000;0.5315;0.9417;
939.9000;0.5315;0.9371;
940.2000;0.5299;0.9324;
940.5000;0.5307;0.9371;
940.8000;0.5299;0.9254;
941.1000;0.5299;0.9208;
941.4000;0.5332;0.9278;
941.7000;0.5315;0.9208;
942.0000;0.5348;0.9324;
942.3000;0.5315;0.9114;
942.6000;0.5348;0.9161;
942.9000;0.5299;0.9021;
943.2000;0.5291;0.9021;
943.5000;0.5315;0.9161;
943.8000;0.5299;0.9161;
944.1000;0.5283;0.9091;
944.4000;0.5332;0.9208;
944.7000;0.5324;0.9208;
945.0000;0.5324;0.9184;
945.3000;0.5299;0.9231;
945.6000;0.5299;0.9138;
945.9000;0.5299;0.9138;
946.2000;0.5307;0.9161;
946.5000;0.5315;0.9161;
946.8000;0.5340;0.9184;
947.1000;0.5307;0.9114;
947.4000;0.5348;0.9231;
947.7000;0.5291;0.9091;
948.0000;0.5291;0.9091;
948.3000;0.5315;0.9231;
948.6000;0.5299;0.9138;
948.9000;0.5299;0.9184;
949.2000;0.5324;0.9208;
949.5000;0.5250;0.8998;
949.8000;0.5299;0.9068;
950.1000;0.5291;0.9091;
950.4000;0.5372;0.9208;
950.7000;0.5291;0.9021;
951.0000;0.5299;0.9114;
951.3000;0.5299;0.9114;
951.6000;0.5299;0.9138;
951.9000;0.5299;0.9045;
952.2000;0.5315;0.9091;
952.5000;0.5299;0.8998;
952.8000;0.5299;0.8951;
953.1000;0.5291;0.8905;
953.4000;0.5291;0.9021;
953.7000;0.5307;0.9068;
954.0000;0.5315;0.9138;
954.3000;0.5283;0.9114;
954.6000;0.5307;0.9208;
954.9000;0.5299;0.9208;
955.2000;0.5234;0.8905;
955.5000;0.5283;0.9068;
955.8000;0.5283;0.9021;
956.1000;0.5275;0.9045;
956.4000;0.5291;0.9138;
956.7000;0.5234;0.8998;
957.0000;0.5307;0.9161;
957.3000;0.5299;0.9068;
957.6000;0.5299;0.8975;
957.9000;0.5275;0.8881;
958.2000;0.5275;0.8905;
958.5000;0.5291;0.8998;
958.8000;0.5291;0.9068;
959.1000;0.5299;0.9184;
959.4000;0.5283;0.9045;
959.7000;0.5291;0.9114;
960.0000;0.5283;0.9114;
960.3000;0.5275;0.9091;
960.6000;0.5291;0.9045;
960.9000;0.5250;0.8951;
961.2000;0.5291;0.9021;
961.5000;0.5299;0.9045;
961.8000;0.5291;0.8951;
962.1000;0.5299;0.8928;
962.4000;0.5307;0.9045;
962.7000;0.5299;0.9045;
963.0000;0.5283;0.9045;
963.3000;0.5291;0.9114;
963.6000;0.5291;0.9184;
963.9000;0.5299;0.9231;
964.2000;0.5275;0.9278;
964.5000;0.5250;0.9254;
964.8000;0.5307;0.9371;
965.1000;0.5242;0.9208;
965.4000;0.5258;0.9161;
965.7000;0.5258;0.9138;
966.0000;0.5283;0.9278;
966.3000;0.5291;0.9371;
966.6000;0.5283;0.9348;
966.9000;0.5275;0.9208;
967.2000;0.5267;0.9231;
967.5000;0.5283;0.9348;
967.8000;0.5258;0.9487;
968.1000;0.5299;0.9511;
968.4000;0.5299;0.9464;
968.7000;0.5315;0.9487;
969.0000;0.5299;0.9464;
969.3000;0.5291;0.9441;
969.6000;0.5275;0.9394;
969.9000;0.5275;0.9348;
970.2000;0.5267;0.9301;
970.5000;0.5283;0.9348;
970.8000;0.5267;0.9394;
971.1000;0.5267;0.9348;
971.4000;0.5299;0.9464;
971.7000;0.5291;0.9394;
972.0000;0.5275;0.9324;
972.3000;0.5291;0.9394;
972.6000;0.5275;0.9348;
972.9000;0.5258;0.9278;
973.2000;0.5275;0.9301;
973.5000;0.5267;0.9348;
973.8000;0.5267;0.9371;
974.1000;0.5307;0.9417;
974.4000;0.5267;0.9464;
974.7000;0.5226;0.9417;
975.0000;0.5242;0.9487;
975.3000;0.5283;0.9557;
975.6000;0.5258;0.9511;
975.9000;0.5275;0.9487;
976.2000;0.5275;0.9557;
976.5000;0.5267;0.9511;
976.8000;0.5258;0.9511;
977.1000;0.5275;0.9534;
977.4000;0.5267;0.9557;
977.7000;0.5275;0.9557;
978.0000;0.5267;0.9511;
978.3000;0.5275;0.9394;
978.6000;0.5315;0.9487;
978.9000;0.5283;0.9464;
979.2000;0.5299;0.9557;
979.5000;0.5218;0.9394;
979.8000;0.5291;0.9627;
980.1000;0.5210;0.9348;
980.4000;0.5332;0.9674;
980.7000;0.5299;0.9511;
981.0000;0.5283;0.9394;
981.3000;0.5291;0.9371;
981.6000;0.5315;0.9371;
981.9000;0.5299;0.9324;
982.2000;0.5291;0.9231;
982.5000;0.5258;0.9114;
982.8000;0.5242;0.9021;
983.1000;0.5275;0.9068;
983.4000;0.5267;0.9045;
983.7000;0.5242;0.9045;
984.0000;0.5242;0.9184;
984.3000;0.5258;0.9231;
984.6000;0.5267;0.9254;
984.9000;0.5267;0.9231;
985.2000;0.5275;0.9161;
985.5000;0.5291;0.9161;
985.8000;0.5250;0.9138;
986.1000;0.5267;0.9184;
986.4000;0.5250;0.9208;
986.7000;0.5267;0.9254;
987.0000;0.5250;0.9254;
987.3000;0.5258;0.9348;
987.6000;0.5234;0.9324;
987.9000;0.5185;0.9208;
988.2000;0.5291;0.9534;
988.5000;0.5275;0.9371;
988.8000;0.5258;0.9278;
989.1000;0.5242;0.9231;
989.4000;0.5275;0.9208;
989.7000;0.5250;0.9231;
990.0000;0.5267;0.9348;
990.3000;0.5250;0.9324;
990.6000;0.5275;0.9394;
990.9000;0.5267;0.9394;
991.2000;0.5250;0.9348;
991.5000;0.5258;0.9441;
991.8000;0.5275;0.9487;
992.1000;0.5275;0.9487;
992.4000;0.5250;0.9441;
992.7000;0.5267;0.9394;
993.0000;0.5348;0.9557;
993.3000;0.5250;0.9394;
993.6000;0.5258;0.9348;
993.9000;0.5242;0.9371;
994.2000;0.5250;0.9417;
994.5000;0.5258;0.9487;
994.8000;0.5218;0.9348;
995.1000;0.5250;0.9511;
995.4000;0.5258;0.9487;
995.7000;0.5267;0.9464;
996.0000;0.5275;0.9441;
996.3000;0.5307;0.9581;
996.6000;0.5234;0.9394;
996.9000;0.5250;0.9348;
997.2000;0.5210;0.9278;
997.5000;0.5242;0.9324;
997.8000;0.5258;0.9348;
998.1000;0.5258;0.9371;
998.4000;0.5267;0.9324;
998.7000;0.5267;0.9348;
999.0000;0.5226;0.9324;
999.3000;0.5258;0.9371;
999.6000;0.5242;0.9371;
999.9000;0.5258;0.9394;
1000.2000;0.5258;0.9417;
1000.5000;0.5242;0.9348;
1000.8000;0.5250;0.9371;
1001.1000;0.5267;0.9348;
1001.4000;0.5226;0.9231;
1001.7000;0.5185;0.9068;
1002.0000;0.5226;0.9068;
1002.3000;0.5242;0.9045;
1002.6000;0.5242;0.9161;
1002.9000;0.5210;0.9208;
1003.2000;0.5234;0.9348;
1003.5000;0.5242;0.9394;
1003.8000;0.5242;0.9417;
1004.1000;0.5226;0.9371;
1004.4000;0.5242;0.9464;
1004.7000;0.5210;0.9371;
1005.0000;0.5234;0.9348;
1005.3000;0.5234;0.9324;
1005.6000;0.5234;0.9278;
1005.9000;0.5250;0.9394;
1006.2000;0.5242;0.9348;
1006.5000;0.5226;0.9301;
1006.8000;0.5234;0.9348;
1007.1000;0.5234;0.9278;
1007.4000;0.5250;0.9348;
1007.7000;0.5242;0.9371;
1008.0000;0.5242;0.9394;
1008.3000;0.5258;0.9348;
1008.6000;0.5218;0.9254;
1008.9000;0.5258;0.9324;
1009.2000;0.5250;0.9254;
1009.5000;0.5226;0.9208;
1009.8000;0.5242;0.9278;
1010.1000;0.5218;0.9254;
1010.4000;0.5226;0.9417;
1010.7000;0.5234;0.9394;
1011.0000;0.5307;0.9627;
1011.3000;0.5226;0.9464;
1011.6000;0.5299;0.9721;
1011.9000;0.5242;0.9511;
1012.2000;0.5234;0.9371;
1012.5000;0.5234;0.9324;
1012.8000;0.5250;0.9301;
1013.1000;0.5234;0.9231;
1013.4000;0.5242;0.9231;
1013.7000;0.5242;0.9278;
1014.0000;0.5226;0.9184;
1014.3000;0.5210;0.9208;
1014.6000;0.5234;0.9278;
1014.9000;0.5234;0.9231;
1015.2000;0.5250;0.9371;
1015.5000;0.5226;0.9394;
1015.8000;0.5250;0.9324;
1016.1000;0.5234;0.9417;
1016.4000;0.5258;0.9511;
1016.7000;0.5226;0.9394;
1017.0000;0.5218;0.9441;
1017.3000;0.5242;0.9511;
1017.6000;0.5234;0.9511;
1017.9000;0.5258;0.9581;
1018.2000;0.5193;0.9371;
1018.5000;0.5185;0.9324;
1018.8000;0.5234;0.9557;
1019.1000;0.5283;0.9697;
1019.4000;0.5161;0.9417;
1019.7000;0.5234;0.9534;
1020.0000;0.5234;0.9557;
1020.3000;0.5283;0.9604;
1020.6000;0.5267;0.9581;
1020.9000;0.5210;0.9278;
1021.2000;0.5234;0.9278;
1021.5000;0.5112;0.8998;
1021.8000;0.5218;0.9184;
1022.1000;0.5242;0.9231;
1022.4000;0.5234;0.9278;
1022.7000;0.5234;0.9324;
1023.0000;0.5291;0.9534;
1023.3000;0.5218;0.9371;
1023.6000;0.5226;0.9487;
1023.9000;0.5226;0.9534;
1024.2000;0.5218;0.9487;
1024.5000;0.5210;0.9511;
1024.8000;0.5226;0.9534;
1025.1000;0.5226;0.9487;
1025.4000;0.5234;0.9511;
1025.7000;0.5226;0.9394;
1026.0000;0.5218;0.9348;
1026.3000;0.5144;0.9208;
1026.6000;0.5226;0.9464;
1026.9000;0.5218;0.9394;
1027.2000;0.5210;0.9417;
1027.5000;0.5242;0.9417;
1027.8000;0.5218;0.9278;
1028.1000;0.5210;0.9184;
1028.4000;0.5218;0.9091;
1028.7000;0.5226;0.9161;
1029.0000;0.5234;0.9161;
1029.3000;0.5226;0.9184;
1029.6000;0.5234;0.9184;
1029.9000;0.5210;0.9138;
1030.2000;0.5258;0.9208;
1030.5000;0.5234;0.9254;
1030.8000;0.5226;0.9208;
1031.1000;0.5210;0.9208;
1031.4000;0.5234;0.9161;
1031.7000;0.5218;0.9184;
1032.0000;0.5210;0.9231;
1032.3000;0.5210;0.9254;
1032.6000;0.5218;0.9301;
1032.9000;0.5210;0.9324;
1033.2000;0.5201;0.9231;
1033.5000;0.5218;0.9231;
1033.8000;0.5201;0.9208;
1034.1000;0.5210;0.9138;
1034.4000;0.5201;0.9138;
1034.7000;0.5185;0.9161;
1035.0000;0.5226;0.9184;
1035.3000;0.5226;0.9161;
1035.6000;0.5218;0.9184;
1035.9000;0.5267;0.9231;
1036.2000;0.5201;0.9161;
1036.5000;0.5226;0.9278;
1036.8000;0.5226;0.9371;
1037.1000;0.5193;0.9231;
1037.4000;0.5218;0.9301;
1037.7000;0.5201;0.9278;
1038.0000;0.5250;0.9371;
1038.3000;0.5218;0.9278;
1038.6000;0.5201;0.9184;
1038.9000;0.5242;0.9184;
1039.2000;0.5210;0.9114;
1039.5000;0.5226;0.9208;
1039.8000;0.5242;0.9254;
1040.1000;0.5283;0.9441;
1040.4000;0.5201;0.9138;
1040.7000;0.5210;0.9254;
1041.0000;0.5177;0.9278;
1041.3000;0.5153;0.9254;
1041.6000;0.5177;0.9278;
1041.9000;0.5185;0.9184;
1042.2000;0.5169;0.9138;
1042.5000;0.5218;0.9278;
1042.8000;0.5226;0.9278;
1043.1000;0.5218;0.9254;
1043.4000;0.5210;0.9161;
1043.7000;0.5210;0.9138;
1044.0000;0.5234;0.9161;
1044.3000;0.5169;0.8975;
1044.6000;0.5201;0.9021;
1044.9000;0.5226;0.9114;
1045.2000;0.5218;0.9091;
1045.5000;0.5218;0.9091;
1045.8000;0.5218;0.9091;
1046.1000;0.5210;0.9091;
1046.4000;0.5218;0.9138;
1046.7000;0.5210;0.9138;
1047.0000;0.5218;0.9138;
1047.3000;0.5201;0.9208;
1047.6000;0.5210;0.9138;
1047.9000;0.5218;0.9161;
1048.2000;0.5210;0.9138;
1048.5000;0.5234;0.9278;
1048.8000;0.5201;0.9184;
1049.1000;0.5201;0.9231;
1049.4000;0.5218;0.9138;
1049.7000;0.5201;0.9231;
1050.0000;0.5210;0.9324;
1050.3000;0.5201;0.9324;
1050.6000;0.5201;0.9301;
1050.9000;0.5201;0.9254;
1051.2000;0.5210;0.9208;
1051.5000;0.5185;0.9184;
1051.8000;0.5218;0.9301;
1052.1000;0.5201;0.9254;
1052.4000;0.5201;0.9231;
1052.7000;0.5193;0.9231;
1053.0000;0.5210;0.9231;
1053.3000;0.5210;0.9348;
1053.6000;0.5210;0.9441;
1053.9000;0.5185;0.9441;
1054.2000;0.5201;0.9464;
1054.5000;0.5161;0.9324;
1054.8000;0.5210;0.9394;
1055.1000;0.5193;0.9394;
1055.4000;0.5177;0.9348;
1055.7000;0.5201;0.9324;
1056.0000;0.5201;0.9394;
1056.3000;0.5201;0.9371;
1056.6000;0.5201;0.9441;
1056.9000;0.5234;0.9441;
1057.2000;0.5218;0.9254;
1057.5000;0.5193;0.9184;
1057.8000;0.5177;0.9161;
1058.1000;0.5201;0.9208;
1058.4000;0.5193;0.9068;
1058.7000;0.5193;0.9138;
1059.0000;0.5153;0.9045;
1059.3000;0.5193;0.9161;
1059.6000;0.5210;0.9208;
1059.9000;0.5201;0.9091;
1060.2000;0.5201;0.9161;
1060.5000;0.5201;0.9184;
1060.8000;0.5226;0.9231;
1061.1000;0.5218;0.9161;
1061.4000;0.5185;0.9161;
1061.7000;0.5201;0.9184;
1062.0000;0.5161;0.9161;
1062.3000;0.5210;0.9254;
1062.6000;0.5193;0.9231;
1062.9000;0.5193;0.9184;
1063.2000;0.5193;0.9254;
1063.5000;0.5193;0.9278;
1063.8000;0.5201;0.9231;
1064.1000;0.5193;0.9278;
1064.4000;0.5201;0.9208;
1064.7000;0.5185;0.9184;
1065.0000;0.5185;0.9324;
1065.3000;0.5193;0.9324;
1065.6000;0.5201;0.9278;
1065.9000;0.5210;0.9208;
1066.2000;0.5218;0.9301;
1066.5000;0.5120;0.9091;
1066.8000;0.5177;0.9161;
1067.1000;0.5185;0.9114;
1067.4000;0.5153;0.9021;
1067.7000;0.5177;0.9021;
1068.0000;0.5201;0.9021;
1068.3000;0.5193;0.9045;
1068.6000;0.5193;0.9091;
1068.9000;0.5201;0.9161;
1069.2000;0.5185;0.9184;
1069.5000;0.5193;0.9208;
1069.8000;0.5283;0.9511;
1070.1000;0.5177;0.9324;
1070.4000;0.5201;0.9441;
1070.7000;0.5201;0.9417;
1071.0000;0.5193;0.9348;
1071.3000;0.5185;0.9254;
1071.6000;0.5169;0.9161;
1071.9000;0.5039;0.8905;
1072.2000;0.5185;0.9161;
1072.5000;0.5210;0.9208;
1072.8000;0.5193;0.9254;
1073.1000;0.5169;0.9278;
1073.4000;0.5185;0.9254;
1073.7000;0.5193;0.9301;
1074.0000;0.5193;0.9301;
1074.3000;0.5177;0.9208;
1074.6000;0.5177;0.9254;
1074.9000;0.5193;0.9301;
1075.2000;0.5161;0.9278;
1075.5000;0.5169;0.9208;
1075.8000;0.5177;0.9184;
1076.1000;0.5201;0.9278;
1076.4000;0.5161;0.9184;
1076.7000;0.5185;0.9231;
1077.0000;0.5177;0.9254;
1077.3000;0.5185;0.9231;
1077.6000;0.5193;0.9231;
1077.9000;0.5177;0.9138;
1078.2000;0.5177;0.9161;
1078.5000;0.5177;0.9161;
1078.8000;0.5258;0.9371;
1079.1000;0.5201;0.9254;
1079.4000;0.5193;0.9254;
1079.7000;0.5177;0.9231;
1080.0000;0.5193;0.9231;
1080.3000;0.5177;0.9278;
1080.6000;0.5177;0.9278;
1080.9000;0.5185;0.9301;
1081.2000;0.5185;0.9324;
1081.5000;0.5185;0.9441;
1081.8000;0.5169;0.9441;
1082.1000;0.5169;0.9511;
1082.4000;0.5193;0.9534;
1082.7000;0.5193;0.9581;
1083.0000;0.5177;0.9534;
1083.3000;0.5161;0.9487;
1083.6000;0.5169;0.9417;
1083.9000;0.5144;0.9417;
1084.2000;0.5169;0.9441;
1084.5000;0.5153;0.9487;
1084.8000;0.5234;0.9721;
1085.1000;0.5153;0.9511;
1085.4000;0.5234;0.9557;
1085.7000;0.5185;0.9417;
1086.0000;0.5177;0.9371;
1086.3000;0.5128;0.9184;
1086.6000;0.5210;0.9394;
1086.9000;0.5169;0.9254;
1087.2000;0.5177;0.9324;
1087.5000;0.5201;0.9394;
1087.8000;0.5185;0.9371;
1088.1000;0.5185;0.9348;
1088.4000;0.5226;0.9557;
1088.7000;0.5185;0.9441;
1089.0000;0.5258;0.9604;
1089.3000;0.5193;0.9371;
1089.6000;0.5185;0.9324;
1089.9000;0.5201;0.9394;
1090.2000;0.5185;0.9417;
1090.5000;0.5177;0.9417;
1090.8000;0.5161;0.9324;
1091.1000;0.5177;0.9324;
1091.4000;0.5144;0.9278;
1091.7000;0.5193;0.9348;
1092.0000;0.5177;0.9348;
1092.3000;0.5153;0.9348;
1092.6000;0.5193;0.9511;
1092.9000;0.5218;0.9487;
1093.2000;0.5177;0.9324;
1093.5000;0.5169;0.9371;
1093.8000;0.5185;0.9417;
1094.1000;0.5210;0.9581;
1094.4000;0.5185;0.9487;
1094.7000;0.5169;0.9464;
1095.0000;0.5169;0.9394;
1095.3000;0.5185;0.9371;
1095.6000;0.5153;0.9278;
1095.9000;0.5177;0.9394;
1096.2000;0.5153;0.9394;
1096.5000;0.5169;0.9464;
1096.8000;0.5193;0.9581;
1097.1000;0.5177;0.9511;
1097.4000;0.5177;0.9511;
1097.7000;0.5177;0.9534;
1098.0000;0.5185;0.9511;
1098.3000;0.5169;0.9487;
1098.6000;0.5161;0.9417;
1098.9000;0.5161;0.9394;
1099.2000;0.5161;0.9417;
1099.5000;0.5153;0.9348;
1099.8000;0.5177;0.9278;
1100.1000;0.5161;0.9231;
1100.4000;0.5201;0.9278;
1100.7000;0.5177;0.9231;
1101.0000;0.5136;0.9208;
1101.3000;0.5161;0.9394;
1101.6000;0.5161;0.9441;
1101.9000;0.5226;0.9581;
1102.2000;0.5185;0.9464;
1102.5000;0.5201;0.9487;
1102.8000;0.5161;0.9441;
1103.1000;0.5169;0.9417;
1103.4000;0.5169;0.9464;
1103.7000;0.5161;0.9441;
1104.0000;0.5161;0.9417;
1104.3000;0.5177;0.9417;
1104.6000;0.5161;0.9394;
1104.9000;0.5153;0.9417;
1105.2000;0.5153;0.9394;
1105.5000;0.5161;0.9348;
1105.8000;0.5153;0.9324;
1106.1000;0.5185;0.9487;
1106.4000;0.5169;0.9511;
1106.7000;0.5161;0.9511;
1107.0000;0.5218;0.9557;
1107.3000;0.5144;0.9324;
1107.6000;0.5169;0.9371;
1107.9000;0.5201;0.9627;
1108.2000;0.5177;0.9464;
1108.5000;0.5128;0.9348;
1108.8000;0.5161;0.9348;
1109.1000;0.5185;0.9417;
1109.4000;0.5169;0.9511;
1109.7000;0.5169;0.9487;
1110.0000;0.5088;0.9324;
1110.3000;0.5161;0.9441;
1110.6000;0.5258;0.9744;
1110.9000;0.5136;0.9534;
1111.2000;0.5153;0.9441;
1111.5000;0.5153;0.9487;
1111.8000;0.5161;0.9511;
1112.1000;0.5177;0.9534;
1112.4000;0.5153;0.9534;
1112.7000;0.5144;0.9534;
1113.0000;0.5185;0.9534;
1113.3000;0.5153;0.9464;
1113.6000;0.5169;0.9557;
1113.9000;0.5169;0.9581;
1114.2000;0.5177;0.9581;
1114.5000;0.5153;0.9511;
1114.8000;0.5177;0.9627;
1115.1000;0.5096;0.9417;
1115.4000;0.5153;0.9534;
1115.7000;0.5169;0.9627;
1116.0000;0.5169;0.9557;
1116.3000;0.5169;0.9581;
1116.6000;0.5161;0.9511;
1116.9000;0.5161;0.9511;
1117.2000;0.5177;0.9557;
1117.5000;0.5185;0.9581;
1117.8000;0.5153;0.9534;
1118.1000;0.5169;0.9604;
1118.4000;0.5169;0.9627;
1118.7000;0.5161;0.9534;
1119.0000;0.5120;0.9301;
1119.3000;0.5234;0.9627;
1119.6000;0.5153;0.9487;
1119.9000;0.5153;0.9464;
1120.2000;0.5136;0.9301;
1120.5000;0.5136;0.9278;
1120.8000;0.5136;0.9301;
1121.1000;0.5161;0.9417;
1121.4000;0.5112;0.9301;
1121.7000;0.5144;0.9348;
1122.0000;0.5169;0.9371;
1122.3000;0.5144;0.9324;
1122.6000;0.5161;0.9324;
1122.9000;0.5128;0.9184;
1123.2000;0.5169;0.9324;
1123.5000;0.5144;0.9254;
1123.8000;0.5153;0.9231;
1124.1000;0.5153;0.9184;
1124.4000;0.5169;0.9208;
1124.7000;0.5161;0.9161;
1125.0000;0.5177;0.9231;
1125.3000;0.5169;0.9184;
1125.6000;0.5153;0.9324;
1125.9000;0.5210;0.9417;
1126.2000;0.5169;0.9417;
1126.5000;0.5136;0.9441;
1126.8000;0.5161;0.9534;
1127.1000;0.5128;0.9394;
1127.4000;0.5144;0.9464;
1127.7000;0.5153;0.9487;
1128.0000;0.5234;0.9697;
1128.3000;0.5136;0.9534;
1128.6000;0.5161;0.9557;
1128.9000;0.5169;0.9581;
1129.2000;0.5210;0.9651;
1129.5000;0.5128;0.9441;
1129.8000;0.5128;0.9441;
1130.1000;0.5144;0.9464;
1130.4000;0.5153;0.9394;
1130.7000;0.5120;0.9278;
1131.0000;0.5136;0.9348;
1131.3000;0.5153;0.9441;
1131.6000;0.5153;0.9417;
1131.9000;0.5079;0.9184;
1132.2000;0.5201;0.9511;
1132.5000;0.5153;0.9394;
1132.8000;0.5153;0.9417;
1133.1000;0.5136;0.9278;
1133.4000;0.5136;0.9231;
1133.7000;0.5047;0.9021;
1134.0000;0.5210;0.9348;
1134.3000;0.5144;0.9324;
1134.6000;0.5169;0.9417;
1134.9000;0.5144;0.9371;
1135.2000;0.5112;0.9324;
1135.5000;0.5258;0.9581;
1135.8000;0.5136;0.9231;
1136.1000;0.5161;0.9254;
1136.4000;0.5112;0.9138;
1136.7000;0.5136;0.9208;
1137.0000;0.5153;0.9324;
1137.3000;0.5169;0.9348;
1137.6000;0.5153;0.9441;
1137.9000;0.5136;0.9487;
1138.2000;0.5144;0.9487;
1138.5000;0.5153;0.9534;
1138.8000;0.5161;0.9604;
1139.1000;0.5161;0.9627;
1139.4000;0.5144;0.9557;
1139.7000;0.5128;0.9441;
1140.0000;0.5128;0.9487;
1140.3000;0.5161;0.9557;
1140.6000;0.5153;0.9511;
1140.9000;0.5144;0.9417;
1141.2000;0.5153;0.9417;
1141.5000;0.5144;0.9394;
1141.8000;0.5079;0.9231;
1142.1000;0.5153;0.9324;
1142.4000;0.5144;0.9208;
1142.7000;0.5136;0.9254;
1143.0000;0.5120;0.9254;
1143.3000;0.5128;0.9254;
1143.6000;0.5193;0.9371;
1143.9000;0.5250;0.9511;
1144.2000;0.5144;0.9254;
1144.5000;0.5153;0.9301;
1144.8000;0.5136;0.9371;
1145.1000;0.5136;0.9417;
1145.4000;0.5144;0.9371;
1145.7000;0.5136;0.9254;
1146.0000;0.5128;0.9231;
1146.3000;0.5144;0.9324;
1146.6000;0.5153;0.9278;
1146.9000;0.5136;0.9301;
1147.2000;0.5161;0.9324;
1147.5000;0.5144;0.9301;
1147.8000;0.5144;0.9324;
1148.1000;0.5144;0.9278;
1148.4000;0.5210;0.9441;
1148.7000;0.5120;0.9278;
1149.0000;0.5193;0.9417;
1149.3000;0.5153;0.9464;
1149.6000;0.5120;0.9417;
1149.9000;0.5104;0.9348;
1150.2000;0.5161;0.9487;
1150.5000;0.5063;0.9278;
1150.8000;0.5136;0.9441;
1151.1000;0.5218;0.9721;
1151.4000;0.5136;0.9441;
1151.7000;0.5153;0.9534;
1152.0000;0.5144;0.9511;
1152.3000;0.5136;0.9441;
1152.6000;0.5104;0.9371;
1152.9000;0.5153;0.9417;
1153.2000;0.5161;0.9394;
1153.5000;0.5153;0.9371;
1153.8000;0.5169;0.9394;
1154.1000;0.5136;0.9371;
1154.4000;0.5144;0.9417;
1154.7000;0.5136;0.9324;
1155.0000;0.5144;0.9301;
1155.3000;0.5128;0.9348;
1155.6000;0.5144;0.9394;
1155.9000;0.5136;0.9348;
1156.2000;0.5120;0.9301;
1156.5000;0.5153;0.9254;
1156.8000;0.5144;0.9184;
1157.1000;0.5153;0.9184;
1157.4000;0.5096;0.9045;
1157.7000;0.5136;0.9161;
1158.0000;0.5088;0.9161;
1158.3000;0.5136;0.9324;
1158.6000;0.5136;0.9348;
1158.9000;0.5136;0.9394;
1159.2000;0.5153;0.9394;
1159.5000;0.5136;0.9301;
1159.8000;0.5193;0.9417;
1160.1000;0.5136;0.9324;
1160.4000;0.5128;0.9254;
1160.7000;0.5144;0.9254;
1161.0000;0.5112;0.9208;
1161.3000;0.5047;0.8998;
1161.6000;0.5120;0.9138;
1161.9000;0.5153;0.9138;
1162.2000;0.5128;0.8998;
1162.5000;0.5120;0.9045;
1162.8000;0.5153;0.9278;
1163.1000;0.5169;0.9348;
1163.4000;0.5144;0.9301;
1163.7000;0.5128;0.9278;
1164.0000;0.5144;0.9348;
1164.3000;0.5136;0.9278;
1164.6000;0.5128;0.9301;
1164.9000;0.5161;0.9394;
1165.2000;0.5104;0.9278;
1165.5000;0.5112;0.9324;
1165.8000;0.5136;0.9371;
1166.1000;0.5136;0.9324;
1166.4000;0.5104;0.9231;
1166.7000;0.5104;0.9348;
1167.0000;0.5120;0.9417;
1167.3000;0.5104;0.9417;
1167.6000;0.5112;0.9394;
1167.9000;0.5136;0.9348;
1168.2000;0.5128;0.9278;
1168.5000;0.5144;0.9324;
1168.8000;0.5120;0.9348;
1169.1000;0.5112;0.9278;
1169.4000;0.5120;0.9348;
1169.7000;0.5120;0.9371;
1170.0000;0.5096;0.9301;
1170.3000;0.5096;0.9324;
1170.6000;0.5120;0.9441;
1170.9000;0.5120;0.9464;
1171.2000;0.5112;0.9464;
1171.5000;0.5112;0.9348;
1171.8000;0.5153;0.9441;
1172.1000;0.5120;0.9441;
1172.4000;0.5136;0.9441;
1172.7000;0.5161;0.9534;
1173.0000;0.5112;0.9371;
1173.3000;0.5120;0.9394;
1173.6000;0.5144;0.9371;
1173.9000;0.5144;0.9371;
1174.2000;0.5136;0.9417;
1174.5000;0.5144;0.9487;
1174.8000;0.5128;0.9417;
1175.1000;0.5112;0.9301;
1175.4000;0.5104;0.9208;
1175.7000;0.5112;0.9208;
1176.0000;0.5128;0.9161;
1176.3000;0.5112;0.9138;
1176.6000;0.5120;0.9161;
1176.9000;0.5120;0.9161;
1177.2000;0.5120;0.9138;
1177.5000;0.5120;0.9114;
1177.8000;0.5153;0.9184;
1178.1000;0.5112;0.9231;
1178.4000;0.5128;0.9348;
1178.7000;0.5136;0.9441;
1179.0000;0.5120;0.9487;
1179.3000;0.5120;0.9464;
1179.6000;0.5128;0.9487;
1179.9000;0.5128;0.9371;
1180.2000;0.5128;0.9348;
1180.5000;0.5112;0.9348;
1180.8000;0.5120;0.9441;
1181.1000;0.5136;0.9487;
1181.4000;0.5128;0.9487;
1181.7000;0.5120;0.9371;
1182.0000;0.5136;0.9394;
1182.3000;0.5104;0.9371;
1182.6000;0.5104;0.9348;
1182.9000;0.5112;0.9348;
1183.2000;0.5120;0.9348;
1183.5000;0.5136;0.9464;
1183.8000;0.5128;0.9441;
1184.1000;0.5120;0.9441;
1184.4000;0.5144;0.9487;
1184.7000;0.5120;0.9394;
1185.0000;0.5128;0.9441;
1185.3000;0.5112;0.9417;
1185.6000;0.5112;0.9371;
1185.9000;0.5112;0.9371;
1186.2000;0.5136;0.9394;
1186.5000;0.5144;0.9371;
1186.8000;0.5104;0.9371;
1187.1000;0.5104;0.9394;
1187.4000;0.5120;0.9487;
1187.7000;0.5063;0.9348;
1188.0000;0.5104;0.9441;
1188.3000;0.5112;0.9464;
1188.6000;0.5088;0.9417;
1188.9000;0.5104;0.9487;
1189.2000;0.5120;0.9464;
1189.5000;0.5128;0.9394;
1189.8000;0.5096;0.9278;
1190.1000;0.5112;0.9278;
1190.4000;0.5112;0.9278;
1190.7000;0.5128;0.9278;
1191.0000;0.5128;0.9231;
1191.3000;0.5128;0.9324;
1191.6000;0.5185;0.9487;
1191.9000;0.5120;0.9417;
1192.2000;0.5096;0.9417;
1192.5000;0.5079;0.9348;
1192.8000;0.5112;0.9301;
1193.1000;0.5128;0.9301;
1193.4000;0.5104;0.9278;
1193.7000;0.5104;0.9254;
1194.0000;0.5063;0.9184;
1194.3000;0.5120;0.9231;
1194.6000;0.5079;0.9114;
1194.9000;0.5104;0.9091;
1195.2000;0.5104;0.9161;
1195.5000;0.5112;0.9161;
1195.8000;0.5120;0.9208;
1196.1000;0.5104;0.9184;
1196.4000;0.5104;0.9254;
1196.7000;0.5185;0.9557;
1197.0000;0.5088;0.9324;
1197.3000;0.5079;0.9231;
1197.6000;0.5088;0.9068;
1197.9000;0.5112;0.9138;
1198.2000;0.5177;0.9254;
1198.5000;0.5104;0.9045;
1198.8000;0.5104;0.9045;
1199.1000;0.5063;0.8928;
1199.4000;0.5096;0.8975;
1199.7000;0.5039;0.8835;
1200.0000;0.5088;0.9114;
1200.3000;0.5063;0.9114;
1200.6000;0.5079;0.9161;
1200.9000;0.5104;0.9231;
1201.2000;0.5104;0.9324;
1201.5000;0.5112;0.9348;
1201.8000;0.5104;0.9417;
1202.1000;0.5096;0.9441;
1202.4000;0.5104;0.9394;
1202.7000;0.5096;0.9417;
1203.0000;0.5120;0.9534;
1203.3000;0.5128;0.9464;
1203.6000;0.5104;0.9394;
1203.9000;0.5104;0.9371;
1204.2000;0.5112;0.9348;
1204.5000;0.5128;0.9324;
1204.8000;0.5088;0.9254;
1205.1000;0.5169;0.9394;
1205.4000;0.5096;0.9161;
1205.7000;0.5096;0.9114;
1206.0000;0.5120;0.9254;
1206.3000;0.5055;0.9231;
1206.6000;0.5104;0.9324;
1206.9000;0.5128;0.9348;
1207.2000;0.5039;0.9068;
1207.5000;0.5112;0.9371;
1207.8000;0.5088;0.9394;
1208.1000;0.5104;0.9511;
1208.4000;0.5079;0.9511;
1208.7000;0.5088;0.9581;
1209.0000;0.5104;0.9581;
1209.3000;0.5104;0.9441;
1209.6000;0.5104;0.9417;
1209.9000;0.5039;0.9324;
1210.2000;0.5088;0.9394;
1210.5000;0.5128;0.9417;
1210.8000;0.5144;0.9417;
1211.1000;0.5096;0.9348;
1211.4000;0.5096;0.9371;
1211.7000;0.5120;0.9394;
1212.0000;0.5104;0.9348;
1212.3000;0.5104;0.9348;
1212.6000;0.5088;0.9394;
1212.9000;0.5055;0.9417;
1213.2000;0.5096;0.9511;
1213.5000;0.5096;0.9464;
1213.8000;0.5104;0.9417;
1214.1000;0.5096;0.9417;
1214.4000;0.5088;0.9278;
1214.7000;0.5063;0.9208;
1215.0000;0.5120;0.9324;
1215.3000;0.5112;0.9394;
1215.6000;0.5112;0.9417;
1215.9000;0.5104;0.9441;
1216.2000;0.5063;0.9278;
1216.5000;0.5104;0.9441;
1216.8000;0.5120;0.9417;
1217.1000;0.5128;0.9464;
1217.4000;0.5136;0.9487;
1217.7000;0.5096;0.9417;
1218.0000;0.5104;0.9464;
1218.3000;0.5112;0.9557;
1218.6000;0.5128;0.9627;
1218.9000;0.5104;0.9557;
1219.2000;0.5104;0.9487;
1219.5000;0.5079;0.9487;
1219.8000;0.5112;0.9464;
1220.1000;0.5039;0.9301;
1220.4000;0.5096;0.9371;
1220.7000;0.5128;0.9464;
1221.0000;0.5128;0.9487;
1221.3000;0.5120;0.9534;
1221.6000;0.5128;0.9511;
1221.9000;0.5112;0.9487;
1222.2000;0.5112;0.9464;
1222.5000;0.5120;0.9464;
1222.8000;0.5144;0.9557;
1223.1000;0.5120;0.9441;
1223.4000;0.5088;0.9534;
1223.7000;0.5104;0.9581;
1224.0000;0.5079;0.9557;
1224.3000;0.5120;0.9697;
1224.6000;0.5088;0.9627;
1224.9000;0.5063;0.9417;
1225.2000;0.5104;0.9417;
1225.5000;0.5136;0.9534;
1225.8000;0.5112;0.9464;
1226.1000;0.5144;0.9487;
1226.4000;0.5169;0.9441;
1226.7000;0.5088;0.9231;
1227.0000;0.5079;0.9138;
1227.3000;0.5088;0.9231;
1227.6000;0.5128;0.9348;
1227.9000;0.5055;0.9138;
1228.2000;0.5104;0.9161;
1228.5000;0.5096;0.9161;
1228.8000;0.5088;0.9091;
1229.1000;0.5144;0.9254;
1229.4000;0.5088;0.9091;
1229.7000;0.5112;0.9161;
1230.0000;0.5088;0.9184;
1230.3000;0.5088;0.9114;
1230.6000;0.5079;0.9068;
1230.9000;0.5071;0.9114;
1231.2000;0.5047;0.9091;
1231.5000;0.5088;0.9231;
1231.8000;0.5096;0.9161;
1232.1000;0.5079;0.9045;
1232.4000;0.5071;0.9045;
1232.7000;0.5079;0.9045;
1233.0000;0.5096;0.9091;
1233.3000;0.5079;0.9184;
1233.6000;0.5096;0.9301;
1233.9000;0.5063;0.9254;
1234.2000;0.5104;0.9394;
1234.5000;0.5079;0.9417;
1234.8000;0.5079;0.9348;
1235.1000;0.5096;0.9348;
1235.4000;0.5071;0.9254;
1235.7000;0.5112;0.9394;
1236.0000;0.5096;0.9324;
1236.3000;0.5096;0.9184;
1236.6000;0.5088;0.9184;
1236.9000;0.5079;0.9184;
1237.2000;0.5088;0.9161;
1237.5000;0.5088;0.9231;
1237.8000;0.5104;0.9371;
1238.1000;0.5079;0.9301;
1238.4000;0.5088;0.9278;
1238.7000;0.5079;0.9231;
1239.0000;0.5079;0.9231;
1239.3000;0.5047;0.9301;
1239.6000;0.5063;0.9324;
1239.9000;0.5079;0.9371;
1240.2000;0.5071;0.9371;
1240.5000;0.5104;0.9394;
1240.8000;0.5079;0.9348;
1241.1000;0.5096;0.9278;
1241.4000;0.5104;0.9324;
1241.7000;0.5079;0.9324;
1242.0000;0.5104;0.9464;
1242.3000;0.5112;0.9487;
1242.6000;0.5096;0.9371;
1242.9000;0.5112;0.9371;
1243.2000;0.5096;0.9324;
1243.5000;0.5096;0.9231;
1243.8000;0.5088;0.9254;
1244.1000;0.5088;0.9208;
1244.4000;0.5104;0.9254;
1244.7000;0.5079;0.9161;
1245.0000;0.5096;0.9161;
1245.3000;0.5096;0.9184;
1245.6000;0.5063;0.9161;
1245.9000;0.5079;0.9301;
1246.2000;0.5079;0.9371;
1246.5000;0.5031;0.9231;
1246.8000;0.5071;0.9371;
1247.1000;0.5039;0.9348;
1247.4000;0.5088;0.9348;
1247.7000;0.5088;0.9394;
1248.0000;0.5063;0.9348;
1248.3000;0.5096;0.9394;
1248.6000;0.5144;0.9534;
1248.9000;0.5071;0.9441;
1249.2000;0.5088;0.9394;
1249.5000;0.5104;0.9417;
1249.8000;0.5079;0.9301;
1250.1000;0.5112;0.9371;
1250.4000;0.5088;0.9371;
1250.7000;0.5088;0.9417;
1251.0000;0.5112;0.9464;
1251.3000;0.5071;0.9324;
1251.6000;0.5071;0.9254;
1251.9000;0.5022;0.9161;
1252.2000;0.5079;0.9208;
1252.5000;0.5096;0.9324;
1252.8000;0.5088;0.9348;
1253.1000;0.5088;0.9464;
1253.4000;0.5096;0.9581;
1253.7000;0.5096;0.9581;
1254.0000;0.5063;0.9557;
1254.3000;0.5071;0.9557;
1254.6000;0.5088;0.9534;
1254.9000;0.5055;0.9441;
1255.2000;0.5079;0.9511;
1255.5000;0.5063;0.9487;
1255.8000;0.5071;0.9487;
1256.1000;0.5063;0.9511;
1256.4000;0.5063;0.9511;
1256.7000;0.5088;0.9651;
1257.0000;0.5079;0.9627;
1257.3000;0.5071;0.9651;
1257.6000;0.5096;0.9674;
1257.9000;0.5104;0.9697;
1258.2000;0.5088;0.9627;
1258.5000;0.5104;0.9651;
1258.8000;0.5039;0.9511;
1259.1000;0.5088;0.9581;
1259.4000;0.5088;0.9464;
1259.7000;0.5128;0.9557;
1260.0000;0.5112;0.9441;
1260.3000;0.5112;0.9464;
1260.6000;0.5104;0.9557;
1260.9000;0.5096;0.9604;
1261.2000;0.5088;0.9581;
1261.5000;0.5088;0.9651;
1261.8000;0.5096;0.9697;
1262.1000;0.5088;0.9651;
1262.4000;0.5088;0.9651;
1262.7000;0.5088;0.9651;
1263.0000;0.5112;0.9674;
1263.3000;0.5104;0.9651;
1263.6000;0.5079;0.9534;
1263.9000;0.5063;0.9511;
1264.2000;0.5079;0.9534;
1264.5000;0.5071;0.9511;
1264.8000;0.5039;0.9464;
1265.1000;0.5006;0.9394;
1265.4000;0.5088;0.9581;
1265.7000;0.5088;0.9557;
1266.0000;0.5112;0.9604;
1266.3000;0.5063;0.9581;
1266.6000;0.5079;0.9581;
1266.9000;0.5079;0.9464;
1267.2000;0.5079;0.9487;
1267.5000;0.5079;0.9441;
1267.8000;0.5055;0.9348;
1268.1000;0.5079;0.9324;
1268.4000;0.5071;0.9371;
1268.7000;0.5079;0.9348;
1269.0000;0.5088;0.9348;
1269.3000;0.5088;0.9324;
1269.6000;0.5063;0.9278;
1269.9000;0.5055;0.9278;
1270.2000;0.5071;0.9348;
1270.5000;0.5079;0.9254;
1270.8000;0.5071;0.9278;
1271.1000;0.5071;0.9184;
1271.4000;0.5071;0.9254;
1271.7000;0.5079;0.9278;
1272.0000;0.5079;0.9278;
1272.3000;0.5063;0.9231;
1272.6000;0.5055;0.9348;
1272.9000;0.5096;0.9464;
1273.2000;0.5088;0.9511;
1273.5000;0.5079;0.9557;
1273.8000;0.5071;0.9534;
1274.1000;0.5063;0.9604;
1274.4000;0.5088;0.9651;
1274.7000;0.5063;0.9674;
1275.0000;0.5088;0.9744;
1275.3000;0.5055;0.9557;
1275.6000;0.5055;0.9581;
1275.9000;0.5104;0.9627;
1276.2000;0.5063;0.9534;
1276.5000;0.5079;0.9464;
1276.8000;0.5063;0.9417;
1277.1000;0.5063;0.9417;
1277.4000;0.5039;0.9417;
1277.7000;0.5079;0.9487;
1278.0000;0.5071;0.9534;
1278.3000;0.5079;0.9534;
1278.6000;0.5071;0.9557;
1278.9000;0.5071;0.9487;
1279.2000;0.5071;0.9534;
1279.5000;0.5088;0.9534;
1279.8000;0.5079;0.9511;
1280.1000;0.5071;0.9604;
1280.4000;0.5055;0.9511;
1280.7000;0.5112;0.9604;
1281.0000;0.5079;0.9511;
1281.3000;0.5014;0.9324;
1281.6000;0.5071;0.9511;
1281.9000;0.5128;0.9651;
1282.2000;0.5063;0.9581;
1282.5000;0.5079;0.9581;
1282.8000;0.5055;0.9627;
1283.1000;0.5104;0.9721;
1283.4000;0.5014;0.9487;
1283.7000;0.5088;0.9604;
1284.0000;0.5039;0.9464;
1284.3000;0.5055;0.9441;
1284.6000;0.5071;0.9441;
1284.9000;0.5088;0.9464;
1285.2000;0.5055;0.9371;
1285.5000;0.5055;0.9371;
1285.8000;0.5096;0.9557;
1286.1000;0.5055;0.9487;
1286.4000;0.5079;0.9557;
1286.7000;0.5063;0.9511;
1287.0000;0.5079;0.9557;
1287.3000;0.5055;0.9464;
1287.6000;0.5112;0.9511;
1287.9000;0.5039;0.9371;
1288.2000;0.5079;0.9604;
1288.5000;0.5112;0.9604;
1288.8000;0.5071;0.9557;
1289.1000;0.5088;0.9534;
1289.4000;0.5079;0.9581;
1289.7000;0.5047;0.9511;
1290.0000;0.5047;0.9557;
1290.3000;0.5047;0.9581;
1290.6000;0.5047;0.9487;
1290.9000;0.5055;0.9394;
1291.2000;0.5112;0.9534;
1291.5000;0.5071;0.9417;
1291.8000;0.5112;0.9511;
1292.1000;0.5063;0.9441;
1292.4000;0.5063;0.9417;
1292.7000;0.5063;0.9464;
1293.0000;0.5088;0.9464;
1293.3000;0.5079;0.9371;
1293.6000;0.5096;0.9417;
1293.9000;0.5104;0.9417;
1294.2000;0.5096;0.9394;
1294.5000;0.5088;0.9441;
1294.8000;0.5071;0.9464;
1295.1000;0.5063;0.9441;
1295.4000;0.5071;0.9487;
1295.7000;0.5104;0.9581;
1296.0000;0.5071;0.9511;
1296.3000;0.5169;0.9837;
1296.6000;0.5063;0.9627;
1296.9000;0.5071;0.9674;
1297.2000;0.5063;0.9604;
1297.5000;0.5104;0.9721;
1297.8000;0.5063;0.9627;
1298.1000;0.4974;0.9324;
1298.4000;0.5047;0.9511;
1298.7000;0.5071;0.9581;
1299.0000;0.5096;0.9627;
1299.3000;0.5063;0.9557;
1299.6000;0.5039;0.9581;
1299.9000;0.5088;0.9721;
1300.2000;0.5063;0.9651;
1300.5000;0.5063;0.9674;
1300.8000;0.5079;0.9790;
1301.1000;0.5079;0.9814;
1301.4000;0.5063;0.9860;
1301.7000;0.5088;0.9744;
1302.0000;0.5071;0.9604;
1302.3000;0.5055;0.9581;
1302.6000;0.5071;0.9627;
1302.9000;0.5079;0.9697;
1303.2000;0.5079;0.9651;
1303.5000;0.5055;0.9604;
1303.8000;0.5088;0.9744;
1304.1000;0.5088;0.9767;
1304.4000;0.5096;0.9884;
1304.7000;0.5128;0.9930;
1305.0000;0.5063;0.9767;
1305.3000;0.5071;0.9674;
1305.6000;0.5120;0.9767;
1305.9000;0.5112;0.9767;
1306.2000;0.5047;0.9581;
1306.5000;0.5079;0.9627;
1306.8000;0.5079;0.9604;
1307.1000;0.5063;0.9534;
1307.4000;0.5055;0.9604;
1307.7000;0.5063;0.9581;
1308.0000;0.5071;0.9557;
1308.3000;0.5071;0.9604;
1308.6000;0.5063;0.9557;
1308.9000;0.5071;0.9581;
1309.2000;0.5079;0.9557;
1309.5000;0.5071;0.9627;
1309.8000;0.5079;0.9627;
1310.1000;0.5079;0.9674;
1310.4000;0.5063;0.9651;
1310.7000;0.5071;0.9534;
1311.0000;0.5063;0.9511;
1311.3000;0.5055;0.9511;
1311.6000;0.5096;0.9651;
1311.9000;0.5104;0.9604;
1312.2000;0.5047;0.9417;
1312.5000;0.5063;0.9441;
1312.8000;0.5071;0.9394;
1313.1000;0.5063;0.9511;
1313.4000;0.5144;0.9721;
1313.7000;0.4982;0.9348;
1314.0000;0.5071;0.9487;
1314.3000;0.5055;0.9441;
1314.6000;0.5071;0.9394;
1314.9000;0.5063;0.9371;
1315.2000;0.5071;0.9394;
1315.5000;0.5071;0.9557;
1315.8000;0.5063;0.9441;
1316.1000;0.5071;0.9348;
1316.4000;0.5088;0.9324;
1316.7000;0.5096;0.9441;
1317.0000;0.5088;0.9487;
1317.3000;0.5096;0.9627;
1317.6000;0.5047;0.9511;
1317.9000;0.5071;0.9581;
1318.2000;0.5128;0.9651;
1318.5000;0.5071;0.9511;
1318.8000;0.5071;0.9604;
1319.1000;0.5047;0.9534;
1319.4000;0.5112;0.9674;
1319.7000;0.5071;0.9674;
1320.0000;0.5088;0.9814;
1320.3000;0.5047;0.9674;
1320.6000;0.5039;0.9721;
1320.9000;0.5047;0.9721;
1321.2000;0.5063;0.9767;
1321.5000;0.5047;0.9697;
1321.8000;0.5088;0.9627;
1322.1000;0.5055;0.9581;
1322.4000;0.5055;0.9557;
1322.7000;0.5006;0.9417;
1323.0000;0.5088;0.9627;
1323.3000;0.5079;0.9697;
1323.6000;0.5063;0.9697;
1323.9000;0.5047;0.9651;
1324.2000;0.5055;0.9627;
1324.5000;0.5055;0.9697;
1324.8000;0.5039;0.9627;
1325.1000;0.5047;0.9721;
1325.4000;0.5153;0.9930;
1325.7000;0.5071;0.9814;
1326.0000;0.5047;0.9744;
1326.3000;0.5055;0.9674;
1326.6000;0.5063;0.9721;
1326.9000;0.5055;0.9674;
1327.2000;0.5079;0.9627;
1327.5000;0.5047;0.9511;
1327.8000;0.4998;0.9464;
1328.1000;0.5071;0.9557;
1328.4000;0.5120;0.9790;
1328.7000;0.5071;0.9581;
1329.0000;0.5047;0.9581;
1329.3000;0.5096;0.9697;
1329.6000;0.5063;0.9604;
1329.9000;0.5079;0.9674;
1330.2000;0.5055;0.9674;
1330.5000;0.5071;0.9651;
1330.8000;0.5177;0.9837;
1331.1000;0.5063;0.9627;
1331.4000;0.5071;0.9697;
1331.7000;0.5055;0.9697;
1332.0000;0.5031;0.9651;
1332.3000;0.5022;0.9581;
1332.6000;0.5055;0.9697;
1332.9000;0.5063;0.9604;
1333.2000;0.5047;0.9651;
1333.5000;0.5055;0.9651;
1333.8000;0.5047;0.9627;
1334.1000;0.5039;0.9627;
1334.4000;0.5055;0.9674;
1334.7000;0.5071;0.9651;
1335.0000;0.5047;0.9674;
1335.3000;0.5055;0.9697;
1335.6000;0.5031;0.9674;
1335.9000;0.5047;0.9744;
1336.2000;0.4998;0.9627;
1336.5000;0.5055;0.9814;
1336.8000;0.5039;0.9627;
1337.1000;0.5071;0.9627;
1337.4000;0.5047;0.9604;
1337.7000;0.5055;0.9627;
1338.0000;0.5153;0.9837;
1338.3000;0.5039;0.9557;
1338.6000;0.5031;0.9464;
1338.9000;0.5063;0.9651;
1339.2000;0.5047;0.9534;
1339.5000;0.5055;0.9511;
1339.8000;0.5055;0.9511;
1340.1000;0.5039;0.9441;
1340.4000;0.5063;0.9464;
1340.7000;0.5063;0.9557;
1341.0000;0.5031;0.9511;
1341.3000;0.5031;0.9511;
1341.6000;0.5055;0.9627;
1341.9000;0.5047;0.9627;
1342.2000;0.5031;0.9534;
1342.5000;0.5063;0.9581;
1342.8000;0.5063;0.9487;
1343.1000;0.5047;0.9417;
1343.4000;0.5071;0.9511;
1343.7000;0.5047;0.9511;
1344.0000;0.5039;0.9441;
1344.3000;0.5079;0.9604;
1344.6000;0.5071;0.9581;
1344.9000;0.5039;0.9441;
1345.2000;0.5063;0.9557;
1345.5000;0.5055;0.9487;
1345.8000;0.5039;0.9581;
1346.1000;0.5096;0.9674;
1346.4000;0.5079;0.9651;
1346.7000;0.5071;0.9557;
1347.0000;0.5063;0.9557;
1347.3000;0.5063;0.9487;
1347.6000;0.5112;0.9651;
1347.9000;0.5055;0.9557;
1348.2000;0.5071;0.9604;
1348.5000;0.5055;0.9581;
1348.8000;0.5006;0.9464;
1349.1000;0.5039;0.9604;
1349.4000;0.5047;0.9534;
1349.7000;0.5022;0.9441;
1350.0000;0.5047;0.9511;
1350.3000;0.5022;0.9417;
1350.6000;0.5047;0.9464;
1350.9000;0.5079;0.9464;
1351.2000;0.5055;0.9417;
1351.5000;0.5079;0.9441;
1351.8000;0.5039;0.9348;
1352.1000;0.5031;0.9301;
1352.4000;0.5039;0.9278;
1352.7000;0.4990;0.9208;
1353.0000;0.5047;0.9254;
1353.3000;0.5047;0.9324;
1353.6000;0.5055;0.9394;
1353.9000;0.5047;0.9441;
1354.2000;0.5039;0.9487;
1354.5000;0.5047;0.9511;
1354.8000;0.5047;0.9534;
1355.1000;0.5047;0.9534;
1355.4000;0.5063;0.9557;
1355.7000;0.5063;0.9487;
1356.0000;0.5039;0.9441;
1356.3000;0.5071;0.9464;
1356.6000;0.5055;0.9441;
1356.9000;0.5055;0.9487;
1357.2000;0.5055;0.9464;
1357.5000;0.5063;0.9534;
1357.8000;0.5063;0.9534;
1358.1000;0.4982;0.9348;
1358.4000;0.5063;0.9581;
1358.7000;0.5055;0.9534;
1359.0000;0.5079;0.9627;
1359.3000;0.5031;0.9581;
1359.6000;0.5031;0.9441;
1359.9000;0.4998;0.9324;
1360.2000;0.4990;0.9324;
1360.5000;0.5055;0.9487;
1360.8000;0.5031;0.9394;
1361.1000;0.5031;0.9324;
1361.4000;0.5063;0.9441;
1361.7000;0.5063;0.9417;
1362.0000;0.5055;0.9487;
1362.3000;0.5063;0.9511;
1362.6000;0.5031;0.9487;
1362.9000;0.5079;0.9511;
1363.2000;0.5039;0.9371;
1363.5000;0.5039;0.9348;
1363.8000;0.5047;0.9348;
1364.1000;0.5112;0.9534;
1364.4000;0.5063;0.9441;
1364.7000;0.5031;0.9441;
1365.0000;0.5055;0.9581;
1365.3000;0.5022;0.9464;
1365.6000;0.5031;0.9511;
1365.9000;0.5022;0.9557;
1366.2000;0.5112;0.9837;
1366.5000;0.5055;0.9697;
1366.8000;0.5055;0.9721;
1367.1000;0.5047;0.9697;
1367.4000;0.5031;0.9721;
1367.7000;0.5047;0.9790;
1368.0000;0.5039;0.9790;
1368.3000;0.5031;0.9767;
1368.6000;0.5031;0.9767;
1368.9000;0.5047;0.9767;
1369.2000;0.5071;0.9721;
1369.5000;0.5014;0.9534;
1369.8000;0.5014;0.9557;
1370.1000;0.5031;0.9511;
1370.4000;0.5039;0.9534;
1370.7000;0.5039;0.9534;
1371.0000;0.5039;0.9511;
1371.3000;0.5055;0.9604;
1371.6000;0.5047;0.9697;
1371.9000;0.5022;0.9674;
1372.2000;0.5063;0.9674;
1372.5000;0.5047;0.9721;
1372.8000;0.5055;0.9674;
1373.1000;0.5047;0.9744;
1373.4000;0.5014;0.9604;
1373.7000;0.5031;0.9651;
1374.0000;0.5039;0.9721;
1374.3000;0.5022;0.9627;
1374.6000;0.5039;0.9627;
1374.9000;0.5022;0.9651;
1375.2000;0.4974;0.9487;
1375.5000;0.5047;0.9651;
1375.8000;0.5039;0.9697;
1376.1000;0.5039;0.9651;
1376.4000;0.5014;0.9581;
1376.7000;0.5055;0.9651;
1377.0000;0.5055;0.9674;
1377.3000;0.5096;0.9767;
1377.6000;0.5022;0.9651;
1377.9000;0.5014;0.9534;
1378.2000;0.5071;0.9627;
1378.5000;0.5071;0.9721;
1378.8000;0.5039;0.9651;
1379.1000;0.5047;0.9604;
1379.4000;0.5071;0.9627;
1379.7000;0.5031;0.9627;
1380.0000;0.5031;0.9674;
1380.3000;0.5039;0.9604;
1380.6000;0.4990;0.9371;
1380.9000;0.5039;0.9394;
1381.2000;0.4982;0.9324;
1381.5000;0.5079;0.9511;
1381.8000;0.5047;0.9534;
1382.1000;0.5055;0.9534;
1382.4000;0.5022;0.9487;
1382.7000;0.5039;0.9604;
1383.0000;0.5055;0.9604;
1383.3000;0.5063;0.9511;
1383.6000;0.5006;0.9301;
1383.9000;0.5039;0.9348;
1384.2000;0.5047;0.9394;
1384.5000;0.5031;0.9464;
1384.8000;0.5039;0.9464;
1385.1000;0.5047;0.9511;
1385.4000;0.5022;0.9557;
1385.7000;0.4941;0.9371;
1386.0000;0.5104;0.9744;
1386.3000;0.5039;0.9651;
1386.6000;0.5031;0.9674;
1386.9000;0.5055;0.9744;
1387.2000;0.5031;0.9674;
1387.5000;0.5039;0.9627;
1387.8000;0.5039;0.9651;
1388.1000;0.5022;0.9581;
1388.4000;0.5047;0.9627;
1388.7000;0.5039;0.9581;
1389.0000;0.5031;0.9511;
1389.3000;0.5039;0.9557;
1389.6000;0.5071;0.9697;
1389.9000;0.5047;0.9651;
1390.2000;0.5031;0.9581;
1390.5000;0.5055;0.9581;
1390.8000;0.5144;0.9744;
1391.1000;0.5055;0.9604;
1391.4000;0.5031;0.9511;
1391.7000;0.5039;0.9464;
1392.0000;0.5047;0.9534;
1392.3000;0.4990;0.9464;
1392.6000;0.5039;0.9557;
1392.9000;0.5039;0.9464;
1393.2000;0.5071;0.9511;
1393.5000;0.5055;0.9394;
1393.8000;0.5031;0.9231;
1394.1000;0.5039;0.9301;
1394.4000;0.5031;0.9278;
1394.7000;0.5014;0.9324;
1395.0000;0.4998;0.9441;
1395.3000;0.5088;0.9651;
1395.6000;0.5047;0.9627;
1395.9000;0.5031;0.9534;
1396.2000;0.5039;0.9534;
1396.5000;0.5006;0.9511;
1396.8000;0.5022;0.9534;
1397.1000;0.5047;0.9697;
1397.4000;0.5031;0.9674;
1397.7000;0.5047;0.9651;
1398.0000;0.5031;0.9627;
1398.3000;0.5022;0.9581;
1398.6000;0.5039;0.9651;
1398.9000;0.5031;0.9674;
1399.2000;0.4974;0.9557;
1399.5000;0.5031;0.9767;
1399.8000;0.5047;0.9744;
