time/ms;Fluo/V;P700 deltaI/I x10³;
-199.8000;0.6667;1.4756;
-199.5000;0.6650;1.4732;
-199.2000;0.6667;1.4756;
-198.9000;0.6683;1.4732;
-198.6000;0.6659;1.4732;
-198.3000;0.6659;1.4709;
-198.0000;0.6667;1.4732;
-197.7000;0.6642;1.4662;
-197.4000;0.6650;1.4709;
-197.1000;0.6659;1.4686;
-196.8000;0.6650;1.4616;
-196.5000;0.6642;1.4616;
-196.2000;0.6650;1.4732;
-195.9000;0.6675;1.4849;
-195.6000;0.6659;1.4826;
-195.3000;0.6650;1.4895;
-195.0000;0.6650;1.4895;
-194.7000;0.6667;1.5012;
-194.4000;0.6675;1.5105;
-194.1000;0.6642;1.4965;
-193.8000;0.6659;1.4919;
-193.5000;0.6650;1.4942;
-193.2000;0.6659;1.5129;
-192.9000;0.6659;1.5152;
-192.6000;0.6650;1.5035;
-192.3000;0.6683;1.5105;
-192.0000;0.6675;1.5105;
-191.7000;0.6659;1.5059;
-191.4000;0.6667;1.5035;
-191.1000;0.6650;1.5035;
-190.8000;0.6650;1.4989;
-190.5000;0.6650;1.5059;
-190.2000;0.6650;1.5129;
-189.9000;0.6650;1.5059;
-189.6000;0.6659;1.5082;
-189.3000;0.6650;1.5105;
-189.0000;0.6659;1.5012;
-188.7000;0.6659;1.4849;
-188.4000;0.6650;1.4919;
-188.1000;0.6667;1.4989;
-187.8000;0.6667;1.4989;
-187.5000;0.6659;1.4895;
-187.2000;0.6642;1.4872;
-186.9000;0.6683;1.4989;
-186.6000;0.6659;1.4942;
-186.3000;0.6650;1.4872;
-186.0000;0.6659;1.4989;
-185.7000;0.6650;1.5059;
-185.4000;0.6650;1.5152;
-185.1000;0.6650;1.5175;
-184.8000;0.6650;1.5059;
-184.5000;0.6659;1.5035;
-184.2000;0.6667;1.5105;
-183.9000;0.6650;1.5035;
-183.6000;0.6667;1.5035;
-183.3000;0.6650;1.4942;
-183.0000;0.6659;1.4989;
-182.7000;0.6618;1.4872;
-182.4000;0.6659;1.4895;
-182.1000;0.6650;1.4919;
-181.8000;0.6650;1.4942;
-181.5000;0.6659;1.4965;
-181.2000;0.6659;1.4942;
-180.9000;0.6642;1.4965;
-180.6000;0.6659;1.5012;
-180.3000;0.6659;1.5082;
-180.0000;0.6642;1.5082;
-179.7000;0.6667;1.5129;
-179.4000;0.6642;1.5035;
-179.1000;0.6667;1.4989;
-178.8000;0.6667;1.4989;
-178.5000;0.6667;1.4965;
-178.2000;0.6659;1.4942;
-177.9000;0.6675;1.4965;
-177.6000;0.6667;1.5035;
-177.3000;0.6659;1.5035;
-177.0000;0.6675;1.5059;
-176.7000;0.6707;1.5152;
-176.4000;0.6650;1.5035;
-176.1000;0.6650;1.4965;
-175.8000;0.6667;1.4989;
-175.5000;0.6667;1.5035;
-175.2000;0.6650;1.4942;
-174.9000;0.6642;1.4919;
-174.6000;0.6642;1.4919;
-174.3000;0.6659;1.5035;
-174.0000;0.6650;1.5059;
-173.7000;0.6667;1.5152;
-173.4000;0.6683;1.5199;
-173.1000;0.6659;1.5035;
-172.8000;0.6667;1.5012;
-172.5000;0.6667;1.5012;
-172.2000;0.6667;1.4942;
-171.9000;0.6602;1.4849;
-171.6000;0.6659;1.5012;
-171.3000;0.6650;1.4989;
-171.0000;0.6650;1.4989;
-170.7000;0.6659;1.4942;
-170.4000;0.6650;1.5012;
-170.1000;0.6650;1.4989;
-169.8000;0.6659;1.5059;
-169.5000;0.6659;1.5105;
-169.2000;0.6675;1.5082;
-168.9000;0.6626;1.4989;
-168.6000;0.6650;1.4942;
-168.3000;0.6659;1.4895;
-168.0000;0.6675;1.4919;
-167.7000;0.6667;1.4989;
-167.4000;0.6659;1.4895;
-167.1000;0.6602;1.4756;
-166.8000;0.6626;1.4849;
-166.5000;0.6626;1.4872;
-166.2000;0.6659;1.4872;
-165.9000;0.6650;1.4919;
-165.6000;0.6650;1.4895;
-165.3000;0.6667;1.5012;
-165.0000;0.6659;1.5035;
-164.7000;0.6642;1.5012;
-164.4000;0.6618;1.5082;
-164.1000;0.6667;1.5152;
-163.8000;0.6667;1.5175;
-163.5000;0.6659;1.5175;
-163.2000;0.6675;1.5035;
-162.9000;0.6602;1.4872;
-162.6000;0.6667;1.4965;
-162.3000;0.6650;1.4849;
-162.0000;0.6667;1.4895;
-161.7000;0.6642;1.4942;
-161.4000;0.6667;1.4942;
-161.1000;0.6561;1.4686;
-160.8000;0.6667;1.4919;
-160.5000;0.6642;1.4919;
-160.2000;0.6650;1.4849;
-159.9000;0.6667;1.4895;
-159.6000;0.6659;1.4895;
-159.3000;0.6683;1.4989;
-159.0000;0.6659;1.4919;
-158.7000;0.6650;1.4849;
-158.4000;0.6650;1.4895;
-158.1000;0.6667;1.4965;
-157.8000;0.6642;1.4942;
-157.5000;0.6659;1.5012;
-157.2000;0.6691;1.5035;
-156.9000;0.6691;1.5012;
-156.6000;0.6699;1.5059;
-156.3000;0.6650;1.4989;
-156.0000;0.6707;1.5129;
-155.7000;0.6577;1.4756;
-155.4000;0.6642;1.4989;
-155.1000;0.6634;1.4989;
-154.8000;0.6724;1.5152;
-154.5000;0.6642;1.4965;
-154.2000;0.6659;1.5012;
-153.9000;0.6667;1.5012;
-153.6000;0.6593;1.4849;
-153.3000;0.6659;1.5059;
-153.0000;0.6642;1.5059;
-152.7000;0.6618;1.4965;
-152.4000;0.6659;1.5082;
-152.1000;0.6634;1.4942;
-151.8000;0.6650;1.4919;
-151.5000;0.6634;1.4989;
-151.2000;0.6667;1.4965;
-150.9000;0.6667;1.4965;
-150.6000;0.6650;1.4965;
-150.3000;0.6659;1.4849;
-150.0000;0.6626;1.4756;
-149.7000;0.6650;1.4849;
-149.4000;0.6691;1.5035;
-149.1000;0.6634;1.4872;
-148.8000;0.6650;1.4849;
-148.5000;0.6659;1.4919;
-148.2000;0.6642;1.4942;
-147.9000;0.6659;1.4965;
-147.6000;0.6667;1.5012;
-147.3000;0.6691;1.5129;
-147.0000;0.6691;1.5129;
-146.7000;0.6642;1.5035;
-146.4000;0.6675;1.5012;
-146.1000;0.6659;1.5035;
-145.8000;0.6675;1.5152;
-145.5000;0.6691;1.5199;
-145.2000;0.6667;1.5152;
-144.9000;0.6650;1.5035;
-144.6000;0.6634;1.4919;
-144.3000;0.6618;1.4849;
-144.0000;0.6650;1.4919;
-143.7000;0.6642;1.4942;
-143.4000;0.6626;1.4826;
-143.1000;0.6675;1.4942;
-142.8000;0.6667;1.4895;
-142.5000;0.6675;1.4942;
-142.2000;0.6642;1.4965;
-141.9000;0.6650;1.5059;
-141.6000;0.6716;1.5292;
-141.3000;0.6642;1.5152;
-141.0000;0.6659;1.5199;
-140.7000;0.6553;1.4849;
-140.4000;0.6642;1.4895;
-140.1000;0.6650;1.4872;
-139.8000;0.6683;1.4942;
-139.5000;0.6740;1.5129;
-139.2000;0.6642;1.4895;
-138.9000;0.6610;1.4919;
-138.6000;0.6667;1.5082;
-138.3000;0.6667;1.5082;
-138.0000;0.6650;1.5082;
-137.7000;0.6602;1.4942;
-137.4000;0.6634;1.5129;
-137.1000;0.6659;1.5129;
-136.8000;0.6756;1.5362;
-136.5000;0.6650;1.5012;
-136.2000;0.6675;1.5129;
-135.9000;0.6667;1.5082;
-135.6000;0.6642;1.4989;
-135.3000;0.6659;1.5059;
-135.0000;0.6650;1.5082;
-134.7000;0.6650;1.5129;
-134.4000;0.6732;1.5315;
-134.1000;0.6659;1.5035;
-133.8000;0.6650;1.4965;
-133.5000;0.6667;1.4965;
-133.2000;0.6675;1.5059;
-132.9000;0.6650;1.5105;
-132.6000;0.6699;1.5199;
-132.3000;0.6667;1.5129;
-132.0000;0.6634;1.5035;
-131.7000;0.6577;1.4919;
-131.4000;0.6667;1.5082;
-131.1000;0.6659;1.5059;
-130.8000;0.6650;1.5012;
-130.5000;0.6650;1.4989;
-130.2000;0.6642;1.5059;
-129.9000;0.6642;1.5035;
-129.6000;0.6675;1.5082;
-129.3000;0.6675;1.5035;
-129.0000;0.6659;1.5035;
-128.7000;0.6650;1.5105;
-128.4000;0.6683;1.5152;
-128.1000;0.6683;1.5129;
-127.8000;0.6683;1.5082;
-127.5000;0.6667;1.5059;
-127.2000;0.6667;1.5035;
-126.9000;0.6667;1.5059;
-126.6000;0.6675;1.5035;
-126.3000;0.6667;1.4989;
-126.0000;0.6659;1.4942;
-125.7000;0.6675;1.4849;
-125.4000;0.6683;1.4849;
-125.1000;0.6667;1.4919;
-124.8000;0.6642;1.4872;
-124.5000;0.6659;1.4965;
-124.2000;0.6732;1.5175;
-123.9000;0.6659;1.4989;
-123.6000;0.6659;1.4965;
-123.3000;0.6626;1.4965;
-123.0000;0.6675;1.5105;
-122.7000;0.6691;1.5082;
-122.4000;0.6659;1.5059;
-122.1000;0.6659;1.5105;
-121.8000;0.6650;1.5035;
-121.5000;0.6650;1.4989;
-121.2000;0.6650;1.4965;
-120.9000;0.6659;1.4919;
-120.6000;0.6593;1.4872;
-120.3000;0.6634;1.4989;
-120.0000;0.6642;1.4965;
-119.7000;0.6642;1.4965;
-119.4000;0.6650;1.5035;
-119.1000;0.6650;1.5059;
-118.8000;0.6610;1.4849;
-118.5000;0.6650;1.4826;
-118.2000;0.6650;1.4942;
-117.9000;0.6667;1.5012;
-117.6000;0.6667;1.5012;
-117.3000;0.6724;1.5245;
-117.0000;0.6650;1.5059;
-116.7000;0.6707;1.5129;
-116.4000;0.6659;1.4989;
-116.1000;0.6659;1.4989;
-115.8000;0.6740;1.5292;
-115.5000;0.6683;1.5199;
-115.2000;0.6650;1.5175;
-114.9000;0.6650;1.5129;
-114.6000;0.6642;1.5035;
-114.3000;0.6642;1.4965;
-114.0000;0.6650;1.4989;
-113.7000;0.6667;1.4989;
-113.4000;0.6675;1.5035;
-113.1000;0.6716;1.5175;
-112.8000;0.6650;1.4989;
-112.5000;0.6650;1.4895;
-112.2000;0.6659;1.4965;
-111.9000;0.6642;1.4965;
-111.6000;0.6650;1.5082;
-111.3000;0.6667;1.5175;
-111.0000;0.6626;1.5105;
-110.7000;0.6659;1.5129;
-110.4000;0.6732;1.5268;
-110.1000;0.6691;1.5082;
-109.8000;0.6691;1.5059;
-109.5000;0.6659;1.4849;
-109.2000;0.6675;1.4872;
-108.9000;0.6675;1.4965;
-108.6000;0.6667;1.4942;
-108.3000;0.6650;1.4895;
-108.0000;0.6659;1.4989;
-107.7000;0.6691;1.4942;
-107.4000;0.6683;1.4919;
-107.1000;0.6667;1.4872;
-106.8000;0.6675;1.4849;
-106.5000;0.6675;1.4802;
-106.2000;0.6659;1.4802;
-105.9000;0.6650;1.4732;
-105.6000;0.6642;1.4779;
-105.3000;0.6650;1.4895;
-105.0000;0.6675;1.4965;
-104.7000;0.6675;1.4872;
-104.4000;0.6650;1.4732;
-104.1000;0.6659;1.4802;
-103.8000;0.6650;1.4779;
-103.5000;0.6667;1.4802;
-103.2000;0.6659;1.4709;
-102.9000;0.6650;1.4779;
-102.6000;0.6716;1.4989;
-102.3000;0.6667;1.4965;
-102.0000;0.6650;1.4919;
-101.7000;0.6650;1.4895;
-101.4000;0.6667;1.4942;
-101.1000;0.6602;1.4826;
-100.8000;0.6667;1.4965;
-100.5000;0.6675;1.5035;
-100.2000;0.6642;1.5035;
-99.9000;0.6659;1.5035;
-99.6000;0.6650;1.4989;
-99.3000;0.6642;1.4942;
-99.0000;0.6667;1.5012;
-98.7000;0.6634;1.4965;
-98.4000;0.6675;1.5035;
-98.1000;0.6667;1.5082;
-97.8000;0.6691;1.5152;
-97.5000;0.6667;1.5082;
-97.2000;0.6691;1.4989;
-96.9000;0.6659;1.4895;
-96.6000;0.6667;1.4872;
-96.3000;0.6650;1.4872;
-96.0000;0.6659;1.4895;
-95.7000;0.6659;1.4942;
-95.4000;0.6650;1.4989;
-95.1000;0.6667;1.5012;
-94.8000;0.6707;1.5152;
-94.5000;0.6650;1.4989;
-94.2000;0.6659;1.4942;
-93.9000;0.6667;1.5012;
-93.6000;0.6667;1.4942;
-93.3000;0.6667;1.4942;
-93.0000;0.6634;1.4826;
-92.7000;0.6667;1.4919;
-92.4000;0.6683;1.4965;
-92.1000;0.6602;1.4849;
-91.8000;0.6691;1.5035;
-91.5000;0.6650;1.4942;
-91.2000;0.6642;1.4942;
-90.9000;0.6667;1.4965;
-90.6000;0.6659;1.4965;
-90.3000;0.6650;1.4942;
-90.0000;0.6650;1.4965;
-89.7000;0.6650;1.4919;
-89.4000;0.6650;1.4895;
-89.1000;0.6650;1.4965;
-88.8000;0.6642;1.4895;
-88.5000;0.6659;1.4989;
-88.2000;0.6659;1.4942;
-87.9000;0.6699;1.5035;
-87.6000;0.6650;1.4895;
-87.3000;0.6659;1.4895;
-87.0000;0.6577;1.4732;
-86.7000;0.6667;1.5105;
-86.4000;0.6634;1.4942;
-86.1000;0.6650;1.4942;
-85.8000;0.6593;1.4756;
-85.5000;0.6675;1.4942;
-85.2000;0.6642;1.4849;
-84.9000;0.6626;1.4872;
-84.6000;0.6659;1.4942;
-84.3000;0.6659;1.4919;
-84.0000;0.6699;1.5082;
-83.7000;0.6675;1.5035;
-83.4000;0.6675;1.5035;
-83.1000;0.6650;1.5059;
-82.8000;0.6659;1.5268;
-82.5000;0.6675;1.5362;
-82.2000;0.6675;1.5315;
-81.9000;0.6659;1.5245;
-81.6000;0.6659;1.5222;
-81.3000;0.6691;1.5222;
-81.0000;0.6675;1.5175;
-80.7000;0.6667;1.5315;
-80.4000;0.6610;1.5268;
-80.1000;0.6634;1.5315;
-79.8000;0.6650;1.5268;
-79.5000;0.6667;1.5245;
-79.2000;0.6642;1.5152;
-78.9000;0.6650;1.5152;
-78.6000;0.6691;1.5222;
-78.3000;0.6634;1.5105;
-78.0000;0.6602;1.5012;
-77.7000;0.6699;1.5222;
-77.4000;0.6634;1.5082;
-77.1000;0.6716;1.5199;
-76.8000;0.6675;1.5175;
-76.5000;0.6634;1.5129;
-76.2000;0.6650;1.5222;
-75.9000;0.6650;1.5199;
-75.6000;0.6732;1.5268;
-75.3000;0.6650;1.5152;
-75.0000;0.6650;1.5175;
-74.7000;0.6659;1.5175;
-74.4000;0.6675;1.5082;
-74.1000;0.6650;1.4919;
-73.8000;0.6683;1.4965;
-73.5000;0.6577;1.4686;
-73.2000;0.6602;1.4895;
-72.9000;0.6634;1.5105;
-72.6000;0.6642;1.5082;
-72.3000;0.6650;1.5082;
-72.0000;0.6642;1.5082;
-71.7000;0.6667;1.5035;
-71.4000;0.6659;1.4942;
-71.1000;0.6650;1.4849;
-70.8000;0.6683;1.4965;
-70.5000;0.6667;1.5035;
-70.2000;0.6659;1.4919;
-69.9000;0.6634;1.4895;
-69.6000;0.6642;1.4895;
-69.3000;0.6667;1.4965;
-69.0000;0.6659;1.4942;
-68.7000;0.6724;1.5152;
-68.4000;0.6634;1.4965;
-68.1000;0.6683;1.5129;
-67.8000;0.6675;1.5082;
-67.5000;0.6626;1.4989;
-67.2000;0.6650;1.4965;
-66.9000;0.6642;1.4989;
-66.6000;0.6675;1.5059;
-66.3000;0.6667;1.5012;
-66.0000;0.6659;1.4989;
-65.7000;0.6618;1.4942;
-65.4000;0.6667;1.5152;
-65.1000;0.6602;1.5035;
-64.8000;0.6634;1.5222;
-64.5000;0.6650;1.5245;
-64.2000;0.6667;1.5199;
-63.9000;0.6659;1.5245;
-63.6000;0.6659;1.5222;
-63.3000;0.6667;1.5199;
-63.0000;0.6642;1.5222;
-62.7000;0.6683;1.5268;
-62.4000;0.6659;1.5222;
-62.1000;0.6602;1.5082;
-61.8000;0.6650;1.5175;
-61.5000;0.6650;1.5175;
-61.2000;0.6618;1.5129;
-60.9000;0.6634;1.5082;
-60.6000;0.6659;1.5129;
-60.3000;0.6748;1.5315;
-60.0000;0.6650;1.5082;
-59.7000;0.6707;1.5129;
-59.4000;0.6659;1.5059;
-59.1000;0.6659;1.5059;
-58.8000;0.6667;1.5105;
-58.5000;0.6675;1.5152;
-58.2000;0.6667;1.5105;
-57.9000;0.6642;1.5105;
-57.6000;0.6764;1.5385;
-57.3000;0.6634;1.5105;
-57.0000;0.6659;1.5012;
-56.7000;0.6675;1.5105;
-56.4000;0.6675;1.5082;
-56.1000;0.6650;1.5129;
-55.8000;0.6659;1.5152;
-55.5000;0.6691;1.5129;
-55.2000;0.6602;1.4895;
-54.9000;0.6667;1.4989;
-54.6000;0.6642;1.4895;
-54.3000;0.6610;1.4826;
-54.0000;0.6659;1.4989;
-53.7000;0.6691;1.4965;
-53.4000;0.6650;1.4872;
-53.1000;0.6667;1.4872;
-52.8000;0.6659;1.4826;
-52.5000;0.6667;1.4826;
-52.2000;0.6642;1.4826;
-51.9000;0.6650;1.4872;
-51.6000;0.6659;1.4965;
-51.3000;0.6659;1.5082;
-51.0000;0.6659;1.5082;
-50.7000;0.6650;1.5012;
-50.4000;0.6642;1.4919;
-50.1000;0.6659;1.4872;
-49.8000;0.6650;1.4826;
-49.5000;0.6659;1.4919;
-49.2000;0.6634;1.4965;
-48.9000;0.6634;1.4942;
-48.6000;0.6634;1.4919;
-48.3000;0.6667;1.4919;
-48.0000;0.6602;1.4895;
-47.7000;0.6642;1.4989;
-47.4000;0.6659;1.4989;
-47.1000;0.6602;1.4802;
-46.8000;0.6650;1.4919;
-46.5000;0.6667;1.4965;
-46.2000;0.6659;1.5012;
-45.9000;0.6667;1.4989;
-45.6000;0.6659;1.4989;
-45.3000;0.6610;1.4942;
-45.0000;0.6683;1.5129;
-44.7000;0.6650;1.5059;
-44.4000;0.6659;1.5105;
-44.1000;0.6732;1.5268;
-43.8000;0.6667;1.5082;
-43.5000;0.6650;1.5105;
-43.2000;0.6659;1.5152;
-42.9000;0.6659;1.5199;
-42.6000;0.6683;1.5199;
-42.3000;0.6659;1.5129;
-42.0000;0.6659;1.5082;
-41.7000;0.6650;1.5059;
-41.4000;0.6675;1.5035;
-41.1000;0.6675;1.5082;
-40.8000;0.6675;1.5035;
-40.5000;0.6764;1.5222;
-40.2000;0.6659;1.4942;
-39.9000;0.6691;1.5082;
-39.6000;0.6618;1.4919;
-39.3000;0.6659;1.5059;
-39.0000;0.6650;1.5105;
-38.7000;0.6618;1.5082;
-38.4000;0.6675;1.5152;
-38.1000;0.6626;1.5059;
-37.8000;0.6634;1.5082;
-37.5000;0.6650;1.5175;
-37.2000;0.6659;1.5199;
-36.9000;0.6650;1.5199;
-36.6000;0.6650;1.5152;
-36.3000;0.6650;1.5175;
-36.0000;0.6650;1.5175;
-35.7000;0.6642;1.5175;
-35.4000;0.6650;1.5199;
-35.1000;0.6642;1.5152;
-34.8000;0.6667;1.5222;
-34.5000;0.6675;1.5199;
-34.2000;0.6650;1.5199;
-33.9000;0.6602;1.5105;
-33.6000;0.6683;1.5315;
-33.3000;0.6659;1.5222;
-33.0000;0.6683;1.5338;
-32.7000;0.6659;1.5222;
-32.4000;0.6659;1.5362;
-32.1000;0.6667;1.5362;
-31.8000;0.6634;1.5129;
-31.5000;0.6659;1.5199;
-31.2000;0.6724;1.5245;
-30.9000;0.6667;1.5152;
-30.6000;0.6650;1.5152;
-30.3000;0.6634;1.5105;
-30.0000;0.6650;1.5199;
-29.7000;0.6732;1.5385;
-29.4000;0.6626;1.5082;
-29.1000;0.6659;1.5245;
-28.8000;0.6675;1.5245;
-28.5000;0.6667;1.5199;
-28.2000;0.6675;1.5268;
-27.9000;0.6699;1.5338;
-27.6000;0.6659;1.5152;
-27.3000;0.6634;1.5152;
-27.0000;0.6667;1.5129;
-26.7000;0.6667;1.5059;
-26.4000;0.6642;1.5035;
-26.1000;0.6634;1.5059;
-25.8000;0.6667;1.5105;
-25.5000;0.6675;1.5082;
-25.2000;0.6699;1.5129;
-24.9000;0.6659;1.5059;
-24.6000;0.6634;1.5012;
-24.3000;0.6748;1.5268;
-24.0000;0.6602;1.4989;
-23.7000;0.6683;1.5152;
-23.4000;0.6683;1.5222;
-23.1000;0.6659;1.5152;
-22.8000;0.6650;1.5105;
-22.5000;0.6659;1.4989;
-22.2000;0.6626;1.4919;
-21.9000;0.6659;1.4989;
-21.6000;0.6667;1.4989;
-21.3000;0.6626;1.4895;
-21.0000;0.6650;1.5059;
-20.7000;0.6699;1.5152;
-20.4000;0.6683;1.5129;
-20.1000;0.6667;1.5082;
-19.8000;0.6675;1.5129;
-19.5000;0.6642;1.5059;
-19.2000;0.6667;1.5059;
-18.9000;0.6642;1.5059;
-18.6000;0.6667;1.5152;
-18.3000;0.6659;1.5059;
-18.0000;0.6659;1.5012;
-17.7000;0.6667;1.4989;
-17.4000;0.6667;1.4965;
-17.1000;0.6642;1.4942;
-16.8000;0.6675;1.5012;
-16.5000;0.6659;1.5035;
-16.2000;0.6650;1.5035;
-15.9000;0.6650;1.5059;
-15.6000;0.6667;1.5152;
-15.3000;0.6610;1.5012;
-15.0000;0.6724;1.5222;
-14.7000;0.6610;1.4989;
-14.4000;0.6667;1.5129;
-14.1000;0.6716;1.5292;
-13.8000;0.6642;1.5152;
-13.5000;0.6634;1.5059;
-13.2000;0.6675;1.5152;
-12.9000;0.6675;1.5152;
-12.6000;0.6650;1.5012;
-12.3000;0.6642;1.4989;
-12.0000;0.6659;1.5059;
-11.7000;0.6659;1.5059;
-11.4000;0.6675;1.5059;
-11.1000;0.6659;1.5035;
-10.8000;0.6659;1.5012;
-10.5000;0.6650;1.5035;
-10.2000;0.6642;1.4942;
-9.9000;0.6634;1.4872;
-9.6000;0.6634;1.4756;
-9.3000;0.6667;1.4826;
-9.0000;0.6667;1.4895;
-8.7000;0.6659;1.4895;
-8.4000;0.6650;1.5012;
-8.1000;0.6659;1.5152;
-7.8000;0.6626;1.5035;
-7.5000;0.6650;1.5012;
-7.2000;0.6618;1.4919;
-6.9000;0.6659;1.5059;
-6.6000;0.6650;1.5059;
-6.3000;0.6659;1.5059;
-6.0000;0.6659;1.5082;
-5.7000;0.6650;1.5105;
-5.4000;0.6691;1.5222;
-5.1000;0.6659;1.5222;
-4.8000;0.6748;1.5455;
-4.5000;0.6667;1.5222;
-4.2000;0.6650;1.5175;
-3.9000;0.6659;1.5175;
-3.6000;0.6659;1.5152;
-3.3000;0.6691;1.5222;
-3.0000;0.6561;1.4965;
-2.7000;0.6618;1.5082;
-2.4000;0.6650;1.5152;
-2.1000;0.6650;1.5129;
-1.8000;0.6650;1.5129;
-1.5000;0.6659;1.5152;
-1.2000;0.6675;1.5175;
-0.9000;0.6618;1.5012;
-0.6000;0.6699;1.5129;
-0.3000;0.6667;1.5035;
0.0000;0.6667;1.5035;
0.3000;0.6716;1.4686;
0.6000;0.6805;1.4965;
0.9000;0.6903;1.5268;
1.2000;0.6984;1.5595;
1.5000;0.7017;1.5781;
1.8000;0.7131;1.6131;
2.1000;0.7098;1.6224;
2.4000;0.7123;1.6457;
2.7000;0.7139;1.6574;
3.0000;0.7139;1.6667;
3.3000;0.7171;1.6760;
3.6000;0.7188;1.6830;
3.9000;0.7212;1.6924;
4.2000;0.7196;1.6993;
4.5000;0.7228;1.7017;
4.8000;0.7245;1.7087;
5.1000;0.7220;1.7110;
5.4000;0.7220;1.7063;
5.7000;0.7220;1.7040;
6.0000;0.7236;1.7110;
6.3000;0.7277;1.7157;
6.6000;0.7253;1.7180;
6.9000;0.7277;1.7320;
7.2000;0.7293;1.7460;
7.5000;0.7253;1.7390;
7.8000;0.7285;1.7483;
8.1000;0.7302;1.7436;
8.4000;0.7302;1.7390;
8.7000;0.7318;1.7366;
9.0000;0.7326;1.7273;
9.3000;0.7342;1.7250;
9.6000;0.7334;1.7180;
9.9000;0.7342;1.7203;
10.2000;0.7334;1.7273;
10.5000;0.7342;1.7366;
10.8000;0.7359;1.7366;
11.1000;0.7342;1.7273;
11.4000;0.7367;1.7390;
11.7000;0.7391;1.7436;
12.0000;0.7359;1.7273;
12.3000;0.7391;1.7390;
12.6000;0.7399;1.7296;
12.9000;0.7456;1.7413;
13.2000;0.7383;1.7203;
13.5000;0.7383;1.7250;
13.8000;0.7391;1.7296;
14.1000;0.7424;1.7320;
14.4000;0.7432;1.7250;
14.7000;0.7391;1.7203;
15.0000;0.7456;1.7390;
15.3000;0.7440;1.7413;
15.6000;0.7416;1.7413;
15.9000;0.7481;1.7553;
16.2000;0.7448;1.7413;
16.5000;0.7489;1.7366;
16.8000;0.7367;1.7040;
17.1000;0.7424;1.7203;
17.4000;0.7375;1.7110;
17.7000;0.7424;1.7227;
18.0000;0.7424;1.7180;
18.3000;0.7424;1.7087;
18.6000;0.7448;1.7133;
18.9000;0.7473;1.7250;
19.2000;0.7448;1.7320;
19.5000;0.7432;1.7320;
19.8000;0.7432;1.7343;
20.1000;0.7448;1.7390;
20.4000;0.7456;1.7296;
20.7000;0.7456;1.7320;
21.0000;0.7448;1.7250;
21.3000;0.7489;1.7390;
21.6000;0.7448;1.7390;
21.9000;0.7456;1.7390;
22.2000;0.7464;1.7390;
22.5000;0.7481;1.7343;
22.8000;0.7473;1.7343;
23.1000;0.7473;1.7343;
23.4000;0.7440;1.7320;
23.7000;0.7489;1.7506;
24.0000;0.7489;1.7506;
24.3000;0.7481;1.7413;
24.6000;0.7505;1.7413;
24.9000;0.7473;1.7320;
25.2000;0.7505;1.7343;
25.5000;0.7481;1.7273;
25.8000;0.7505;1.7273;
26.1000;0.7473;1.7227;
26.4000;0.7489;1.7250;
26.7000;0.7513;1.7250;
27.0000;0.7562;1.7436;
27.3000;0.7473;1.7203;
27.6000;0.7530;1.7366;
27.9000;0.7505;1.7273;
28.2000;0.7513;1.7273;
28.5000;0.7538;1.7273;
28.8000;0.7530;1.7203;
29.1000;0.7521;1.7087;
29.4000;0.7505;1.7063;
29.7000;0.7513;1.7040;
30.0000;0.7538;1.7250;
30.3000;0.7546;1.7343;
30.6000;0.7473;1.7250;
30.9000;0.7521;1.7366;
31.2000;0.7521;1.7296;
31.5000;0.7464;1.7180;
31.8000;0.7530;1.7343;
32.1000;0.7497;1.7273;
32.4000;0.7538;1.7390;
32.7000;0.7538;1.7390;
33.0000;0.7546;1.7413;
33.3000;0.7530;1.7320;
33.6000;0.7538;1.7250;
33.9000;0.7521;1.7273;
34.2000;0.7546;1.7320;
34.5000;0.7554;1.7390;
34.8000;0.7546;1.7390;
35.1000;0.7521;1.7343;
35.4000;0.7538;1.7366;
35.7000;0.7530;1.7413;
36.0000;0.7562;1.7530;
36.3000;0.7530;1.7366;
36.6000;0.7456;1.7227;
36.9000;0.7554;1.7413;
37.2000;0.7546;1.7343;
37.5000;0.7538;1.7273;
37.8000;0.7562;1.7250;
38.1000;0.7530;1.7203;
38.4000;0.7562;1.7180;
38.7000;0.7562;1.7157;
39.0000;0.7570;1.7227;
39.3000;0.7546;1.7203;
39.6000;0.7521;1.7203;
39.9000;0.7530;1.7227;
40.2000;0.7538;1.7250;
40.5000;0.7505;1.7227;
40.8000;0.7546;1.7343;
41.1000;0.7521;1.7296;
41.4000;0.7546;1.7227;
41.7000;0.7546;1.7157;
42.0000;0.7538;1.7157;
42.3000;0.7554;1.7227;
42.6000;0.7554;1.7227;
42.9000;0.7595;1.7296;
43.2000;0.7562;1.7203;
43.5000;0.7570;1.7273;
43.8000;0.7595;1.7296;
44.1000;0.7595;1.7366;
44.4000;0.7546;1.7320;
44.7000;0.7578;1.7366;
45.0000;0.7578;1.7343;
45.3000;0.7554;1.7320;
45.6000;0.7578;1.7366;
45.9000;0.7505;1.7133;
46.2000;0.7538;1.7273;
46.5000;0.7562;1.7273;
46.8000;0.7570;1.7296;
47.1000;0.7562;1.7273;
47.4000;0.7546;1.7203;
47.7000;0.7513;1.6970;
48.0000;0.7530;1.7087;
48.3000;0.7570;1.7227;
48.6000;0.7570;1.7296;
48.9000;0.7570;1.7250;
49.2000;0.7562;1.7157;
49.5000;0.7562;1.7133;
49.8000;0.7562;1.7296;
50.1000;0.7578;1.7296;
50.4000;0.7586;1.7273;
50.7000;0.7586;1.7273;
51.0000;0.7586;1.7250;
51.3000;0.7570;1.7133;
51.6000;0.7578;1.7133;
51.9000;0.7570;1.7203;
52.2000;0.7570;1.7157;
52.5000;0.7578;1.7063;
52.8000;0.7554;1.6970;
53.1000;0.7611;1.7040;
53.4000;0.7570;1.7017;
53.7000;0.7586;1.7017;
54.0000;0.7595;1.7063;
54.3000;0.7562;1.7133;
54.6000;0.7652;1.7273;
54.9000;0.7578;1.7087;
55.2000;0.7586;1.7133;
55.5000;0.7489;1.6854;
55.8000;0.7578;1.7017;
56.1000;0.7578;1.6993;
56.4000;0.7586;1.7063;
56.7000;0.7562;1.6970;
57.0000;0.7570;1.6993;
57.3000;0.7595;1.6993;
57.6000;0.7586;1.6970;
57.9000;0.7578;1.7040;
58.2000;0.7586;1.7087;
58.5000;0.7578;1.7017;
58.8000;0.7578;1.7017;
59.1000;0.7595;1.7040;
59.4000;0.7595;1.7087;
59.7000;0.7611;1.7110;
60.0000;0.7611;1.7133;
60.3000;0.7578;1.7087;
60.6000;0.7570;1.7157;
60.9000;0.7603;1.7133;
61.2000;0.7578;1.6993;
61.5000;0.7595;1.7110;
61.8000;0.7562;1.7063;
62.1000;0.7586;1.7133;
62.4000;0.7595;1.7227;
62.7000;0.7603;1.7273;
63.0000;0.7562;1.7180;
63.3000;0.7595;1.7227;
63.6000;0.7586;1.7250;
63.9000;0.7611;1.7343;
64.2000;0.7570;1.7227;
64.5000;0.7595;1.7227;
64.8000;0.7595;1.7203;
65.1000;0.7635;1.7343;
65.4000;0.7578;1.7203;
65.7000;0.7570;1.7133;
66.0000;0.7595;1.7180;
66.3000;0.7578;1.7110;
66.6000;0.7586;1.7040;
66.9000;0.7595;1.7110;
67.2000;0.7611;1.7157;
67.5000;0.7611;1.7180;
67.8000;0.7684;1.7413;
68.1000;0.7578;1.7227;
68.4000;0.7595;1.7296;
68.7000;0.7660;1.7413;
69.0000;0.7595;1.7273;
69.3000;0.7700;1.7530;
69.6000;0.7603;1.7343;
69.9000;0.7562;1.7273;
70.2000;0.7603;1.7366;
70.5000;0.7595;1.7227;
70.8000;0.7595;1.7203;
71.1000;0.7595;1.7227;
71.4000;0.7570;1.7133;
71.7000;0.7562;1.7087;
72.0000;0.7586;1.7157;
72.3000;0.7603;1.7110;
72.6000;0.7611;1.7203;
72.9000;0.7578;1.7157;
73.2000;0.7595;1.7250;
73.5000;0.7586;1.7180;
73.8000;0.7611;1.7227;
74.1000;0.7586;1.7273;
74.4000;0.7603;1.7203;
74.7000;0.7586;1.7087;
75.0000;0.7603;1.7110;
75.3000;0.7603;1.7040;
75.6000;0.7578;1.7040;
75.9000;0.7578;1.7087;
76.2000;0.7595;1.7203;
76.5000;0.7595;1.7203;
76.8000;0.7578;1.7203;
77.1000;0.7595;1.7157;
77.4000;0.7554;1.7087;
77.7000;0.7578;1.7227;
78.0000;0.7611;1.7180;
78.3000;0.7586;1.7157;
78.6000;0.7603;1.7203;
78.9000;0.7627;1.7227;
79.2000;0.7603;1.7227;
79.5000;0.7595;1.7320;
79.8000;0.7603;1.7436;
80.1000;0.7603;1.7436;
80.4000;0.7611;1.7413;
80.7000;0.7611;1.7436;
81.0000;0.7603;1.7460;
81.3000;0.7611;1.7460;
81.6000;0.7619;1.7390;
81.9000;0.7619;1.7343;
82.2000;0.7595;1.7273;
82.5000;0.7603;1.7227;
82.8000;0.7611;1.7133;
83.1000;0.7570;1.7017;
83.4000;0.7611;1.7133;
83.7000;0.7611;1.7180;
84.0000;0.7660;1.7366;
84.3000;0.7611;1.7157;
84.6000;0.7611;1.7110;
84.9000;0.7603;1.7087;
85.2000;0.7586;1.7063;
85.5000;0.7611;1.7110;
85.8000;0.7627;1.7133;
86.1000;0.7611;1.7063;
86.4000;0.7603;1.6947;
86.7000;0.7595;1.6900;
87.0000;0.7643;1.7063;
87.3000;0.7570;1.6947;
87.6000;0.7578;1.7040;
87.9000;0.7595;1.7017;
88.2000;0.7603;1.7040;
88.5000;0.7611;1.7110;
88.8000;0.7595;1.7040;
89.1000;0.7586;1.7017;
89.4000;0.7603;1.7063;
89.7000;0.7611;1.7087;
90.0000;0.7595;1.7017;
90.3000;0.7530;1.6970;
90.6000;0.7652;1.7250;
90.9000;0.7562;1.6993;
91.2000;0.7586;1.7157;
91.5000;0.7578;1.7063;
91.8000;0.7603;1.7133;
92.1000;0.7595;1.7157;
92.4000;0.7570;1.7063;
92.7000;0.7603;1.7110;
93.0000;0.7619;1.7203;
93.3000;0.7578;1.7157;
93.6000;0.7578;1.7157;
93.9000;0.7627;1.7320;
94.2000;0.7619;1.7343;
94.5000;0.7635;1.7343;
94.8000;0.7660;1.7296;
95.1000;0.7595;1.7133;
95.4000;0.7603;1.7203;
95.7000;0.7586;1.7250;
96.0000;0.7603;1.7250;
96.3000;0.7611;1.7203;
96.6000;0.7603;1.7203;
96.9000;0.7611;1.7296;
97.2000;0.7611;1.7157;
97.5000;0.7611;1.7157;
97.8000;0.7586;1.7133;
98.1000;0.7586;1.7157;
98.4000;0.7570;1.7110;
98.7000;0.7603;1.7110;
99.0000;0.7603;1.7110;
99.3000;0.7660;1.7227;
99.6000;0.7570;1.6947;
99.9000;0.7619;1.7203;
100.2000;0.7652;1.7203;
100.5000;0.7733;1.7390;
100.8000;0.7570;1.7017;
101.1000;0.7611;1.7110;
101.4000;0.7627;1.7203;
101.7000;0.7578;1.7157;
102.0000;0.7570;1.7203;
102.3000;0.7611;1.7227;
102.6000;0.7643;1.7343;
102.9000;0.7619;1.7227;
103.2000;0.7611;1.7227;
103.5000;0.7603;1.7296;
103.8000;0.7611;1.7390;
104.1000;0.7611;1.7366;
104.4000;0.7627;1.7413;
104.7000;0.7627;1.7460;
105.0000;0.7627;1.7506;
105.3000;0.7603;1.7343;
105.6000;0.7619;1.7390;
105.9000;0.7619;1.7296;
106.2000;0.7627;1.7296;
106.5000;0.7611;1.7180;
106.8000;0.7586;1.7250;
107.1000;0.7635;1.7390;
107.4000;0.7554;1.7203;
107.7000;0.7619;1.7366;
108.0000;0.7619;1.7413;
108.3000;0.7619;1.7366;
108.6000;0.7578;1.7227;
108.9000;0.7595;1.7227;
109.2000;0.7643;1.7413;
109.5000;0.7635;1.7413;
109.8000;0.7554;1.7250;
110.1000;0.7660;1.7390;
110.4000;0.7611;1.7250;
110.7000;0.7619;1.7296;
111.0000;0.7660;1.7296;
111.3000;0.7619;1.7110;
111.6000;0.7627;1.7180;
111.9000;0.7627;1.7157;
112.2000;0.7595;1.7063;
112.5000;0.7627;1.7273;
112.8000;0.7611;1.7296;
113.1000;0.7603;1.7296;
113.4000;0.7603;1.7273;
113.7000;0.7611;1.7296;
114.0000;0.7586;1.7250;
114.3000;0.7635;1.7436;
114.6000;0.7668;1.7506;
114.9000;0.7603;1.7296;
115.2000;0.7660;1.7436;
115.5000;0.7619;1.7320;
115.8000;0.7652;1.7436;
116.1000;0.7635;1.7343;
116.4000;0.7603;1.7296;
116.7000;0.7627;1.7343;
117.0000;0.7635;1.7413;
117.3000;0.7611;1.7366;
117.6000;0.7611;1.7273;
117.9000;0.7603;1.7296;
118.2000;0.7611;1.7273;
118.5000;0.7619;1.7133;
118.8000;0.7611;1.7133;
119.1000;0.7611;1.7157;
119.4000;0.7611;1.7133;
119.7000;0.7635;1.7133;
120.0000;0.7619;1.7110;
120.3000;0.7643;1.7133;
120.6000;0.7611;1.7040;
120.9000;0.7619;1.7133;
121.2000;0.7627;1.7133;
121.5000;0.7635;1.7087;
121.8000;0.7603;1.6970;
122.1000;0.7619;1.7017;
122.4000;0.7668;1.7180;
122.7000;0.7619;1.7203;
123.0000;0.7643;1.7227;
123.3000;0.7627;1.7203;
123.6000;0.7643;1.7273;
123.9000;0.7627;1.7250;
124.2000;0.7611;1.7180;
124.5000;0.7619;1.7273;
124.8000;0.7619;1.7273;
125.1000;0.7643;1.7366;
125.4000;0.7627;1.7320;
125.7000;0.7652;1.7343;
126.0000;0.7611;1.7227;
126.3000;0.7692;1.7296;
126.6000;0.7619;1.7180;
126.9000;0.7603;1.7180;
127.2000;0.7603;1.7180;
127.5000;0.7595;1.7110;
127.8000;0.7611;1.7087;
128.1000;0.7627;1.7110;
128.4000;0.7643;1.7203;
128.7000;0.7603;1.7133;
129.0000;0.7619;1.7157;
129.3000;0.7595;1.7157;
129.6000;0.7586;1.7133;
129.9000;0.7603;1.7180;
130.2000;0.7627;1.7203;
130.5000;0.7627;1.7203;
130.8000;0.7611;1.7227;
131.1000;0.7627;1.7273;
131.4000;0.7635;1.7110;
131.7000;0.7668;1.7180;
132.0000;0.7619;1.7110;
132.3000;0.7611;1.7227;
132.6000;0.7603;1.7157;
132.9000;0.7603;1.7133;
133.2000;0.7595;1.7227;
133.5000;0.7538;1.7157;
133.8000;0.7586;1.7296;
134.1000;0.7570;1.7203;
134.4000;0.7611;1.7250;
134.7000;0.7627;1.7203;
135.0000;0.7627;1.7296;
135.3000;0.7627;1.7273;
135.6000;0.7586;1.7203;
135.9000;0.7627;1.7203;
136.2000;0.7627;1.7203;
136.5000;0.7635;1.7157;
136.8000;0.7643;1.7203;
137.1000;0.7627;1.7203;
137.4000;0.7619;1.7157;
137.7000;0.7627;1.7087;
138.0000;0.7627;1.7157;
138.3000;0.7619;1.7110;
138.6000;0.7619;1.7087;
138.9000;0.7554;1.6947;
139.2000;0.7619;1.7087;
139.5000;0.7619;1.7157;
139.8000;0.7611;1.7110;
140.1000;0.7627;1.7133;
140.4000;0.7627;1.7110;
140.7000;0.7586;1.7063;
141.0000;0.7611;1.7110;
141.3000;0.7611;1.7087;
141.6000;0.7619;1.7040;
141.9000;0.7619;1.7087;
142.2000;0.7619;1.7180;
142.5000;0.7627;1.7180;
142.8000;0.7619;1.7180;
143.1000;0.7595;1.7157;
143.4000;0.7595;1.7227;
143.7000;0.7619;1.7250;
144.0000;0.7611;1.7250;
144.3000;0.7595;1.7227;
144.6000;0.7595;1.7227;
144.9000;0.7619;1.7273;
145.2000;0.7619;1.7296;
145.5000;0.7627;1.7413;
145.8000;0.7586;1.7320;
146.1000;0.7619;1.7320;
146.4000;0.7586;1.7250;
146.7000;0.7619;1.7203;
147.0000;0.7635;1.7203;
147.3000;0.7611;1.7133;
147.6000;0.7619;1.7180;
147.9000;0.7619;1.7250;
148.2000;0.7603;1.7227;
148.5000;0.7619;1.7157;
148.8000;0.7603;1.7133;
149.1000;0.7611;1.7087;
149.4000;0.7603;1.7087;
149.7000;0.7530;1.6830;
150.0000;0.7603;1.7063;
150.3000;0.7627;1.7133;
150.6000;0.7611;1.7133;
150.9000;0.7611;1.7203;
151.2000;0.7619;1.7203;
151.5000;0.7619;1.7180;
151.8000;0.7627;1.7227;
152.1000;0.7578;1.7110;
152.4000;0.7595;1.7180;
152.7000;0.7619;1.7203;
153.0000;0.7619;1.7133;
153.3000;0.7619;1.7203;
153.6000;0.7603;1.7133;
153.9000;0.7603;1.7063;
154.2000;0.7603;1.7063;
154.5000;0.7611;1.7133;
154.8000;0.7619;1.7087;
155.1000;0.7595;1.7017;
155.4000;0.7611;1.7087;
155.7000;0.7578;1.7063;
156.0000;0.7603;1.7227;
156.3000;0.7595;1.7180;
156.6000;0.7603;1.7180;
156.9000;0.7611;1.7180;
157.2000;0.7595;1.7203;
157.5000;0.7603;1.7203;
157.8000;0.7595;1.7157;
158.1000;0.7595;1.7157;
158.4000;0.7603;1.7087;
158.7000;0.7578;1.6993;
159.0000;0.7595;1.6993;
159.3000;0.7611;1.7063;
159.6000;0.7611;1.7110;
159.9000;0.7619;1.7250;
160.2000;0.7578;1.7110;
160.5000;0.7611;1.7157;
160.8000;0.7603;1.7203;
161.1000;0.7611;1.7133;
161.4000;0.7603;1.7157;
161.7000;0.7562;1.7017;
162.0000;0.7619;1.7203;
162.3000;0.7611;1.7180;
162.6000;0.7619;1.7063;
162.9000;0.7611;1.7017;
163.2000;0.7570;1.6947;
163.5000;0.7627;1.7110;
163.8000;0.7619;1.7087;
164.1000;0.7619;1.7087;
164.4000;0.7586;1.7133;
164.7000;0.7603;1.7087;
165.0000;0.7619;1.7110;
165.3000;0.7611;1.7133;
165.6000;0.7603;1.7017;
165.9000;0.7611;1.7063;
166.2000;0.7652;1.7157;
166.5000;0.7611;1.7063;
166.8000;0.7578;1.7017;
167.1000;0.7611;1.7203;
167.4000;0.7627;1.7203;
167.7000;0.7619;1.7273;
168.0000;0.7595;1.7180;
168.3000;0.7652;1.7273;
168.6000;0.7619;1.7203;
168.9000;0.7554;1.7157;
169.2000;0.7595;1.7180;
169.5000;0.7603;1.7133;
169.8000;0.7603;1.7203;
170.1000;0.7627;1.7250;
170.4000;0.7595;1.7227;
170.7000;0.7554;1.7203;
171.0000;0.7627;1.7390;
171.3000;0.7611;1.7296;
171.6000;0.7619;1.7320;
171.9000;0.7586;1.7273;
172.2000;0.7635;1.7366;
172.5000;0.7562;1.7203;
172.8000;0.7603;1.7343;
173.1000;0.7619;1.7390;
173.4000;0.7627;1.7366;
173.7000;0.7619;1.7343;
174.0000;0.7603;1.7320;
174.3000;0.7603;1.7227;
174.6000;0.7603;1.7250;
174.9000;0.7611;1.7250;
175.2000;0.7619;1.7203;
175.5000;0.7603;1.7180;
175.8000;0.7627;1.7250;
176.1000;0.7627;1.7203;
176.4000;0.7619;1.7203;
176.7000;0.7595;1.7180;
177.0000;0.7611;1.7227;
177.3000;0.7643;1.7273;
177.6000;0.7595;1.7203;
177.9000;0.7619;1.7296;
178.2000;0.7611;1.7227;
178.5000;0.7627;1.7203;
178.8000;0.7619;1.7250;
179.1000;0.7627;1.7273;
179.4000;0.7611;1.7343;
179.7000;0.7611;1.7390;
180.0000;0.7627;1.7390;
180.3000;0.7603;1.7320;
180.6000;0.7619;1.7343;
180.9000;0.7627;1.7343;
181.2000;0.7578;1.7203;
181.5000;0.7635;1.7250;
181.8000;0.7603;1.7227;
182.1000;0.7595;1.7250;
182.4000;0.7619;1.7320;
182.7000;0.7521;1.7063;
183.0000;0.7595;1.7157;
183.3000;0.7619;1.7203;
183.6000;0.7627;1.7110;
183.9000;0.7619;1.7133;
184.2000;0.7595;1.7110;
184.5000;0.7635;1.7180;
184.8000;0.7619;1.7203;
185.1000;0.7562;1.7110;
185.4000;0.7668;1.7343;
185.7000;0.7611;1.7250;
186.0000;0.7627;1.7296;
186.3000;0.7611;1.7203;
186.6000;0.7611;1.7273;
186.9000;0.7635;1.7320;
187.2000;0.7611;1.7180;
187.5000;0.7619;1.7180;
187.8000;0.7619;1.7227;
188.1000;0.7619;1.7273;
188.4000;0.7619;1.7296;
188.7000;0.7635;1.7273;
189.0000;0.7578;1.7157;
189.3000;0.7619;1.7320;
189.6000;0.7619;1.7273;
189.9000;0.7619;1.7227;
190.2000;0.7635;1.7227;
190.5000;0.7611;1.7157;
190.8000;0.7611;1.7017;
191.1000;0.7627;1.7133;
191.4000;0.7611;1.7133;
191.7000;0.7627;1.7180;
192.0000;0.7635;1.7203;
192.3000;0.7619;1.7273;
192.6000;0.7619;1.7273;
192.9000;0.7635;1.7366;
193.2000;0.7627;1.7296;
193.5000;0.7668;1.7390;
193.8000;0.7635;1.7273;
194.1000;0.7619;1.7227;
194.4000;0.7619;1.7227;
194.7000;0.7627;1.7250;
195.0000;0.7627;1.7320;
195.3000;0.7586;1.7157;
195.6000;0.7619;1.7203;
195.9000;0.7611;1.7180;
196.2000;0.7619;1.7157;
196.5000;0.7619;1.7133;
196.8000;0.7660;1.7250;
197.1000;0.7627;1.7063;
197.4000;0.7619;1.7017;
197.7000;0.7619;1.6970;
198.0000;0.7619;1.6970;
198.3000;0.7611;1.6993;
198.6000;0.7546;1.7017;
198.9000;0.7619;1.7180;
199.2000;0.7635;1.7273;
199.5000;0.7611;1.7203;
199.8000;0.7603;1.7203;
200.1000;0.7595;1.7273;
200.4000;0.7619;1.7320;
200.7000;0.7611;1.7250;
201.0000;0.7611;1.7203;
201.3000;0.7603;1.7343;
201.6000;0.7611;1.7320;
201.9000;0.7619;1.7390;
202.2000;0.7611;1.7366;
202.5000;0.7619;1.7366;
202.8000;0.7611;1.7296;
203.1000;0.7660;1.7366;
203.4000;0.7627;1.7180;
203.7000;0.7611;1.7203;
204.0000;0.7619;1.7203;
204.3000;0.7619;1.7203;
204.6000;0.7595;1.7157;
204.9000;0.7611;1.7203;
205.2000;0.7611;1.7227;
205.5000;0.7627;1.7110;
205.8000;0.7643;1.7063;
206.1000;0.7611;1.7017;
206.4000;0.7603;1.7040;
206.7000;0.7611;1.7063;
207.0000;0.7660;1.7180;
207.3000;0.7619;1.7203;
207.6000;0.7595;1.7180;
207.9000;0.7619;1.7296;
208.2000;0.7595;1.7203;
208.5000;0.7619;1.7203;
208.8000;0.7635;1.7203;
209.1000;0.7668;1.7203;
209.4000;0.7660;1.7227;
209.7000;0.7627;1.7110;
210.0000;0.7595;1.7017;
210.3000;0.7619;1.7087;
210.6000;0.7611;1.7087;
210.9000;0.7619;1.7180;
211.2000;0.7611;1.7133;
211.5000;0.7603;1.7157;
211.8000;0.7619;1.7180;
212.1000;0.7611;1.7063;
212.4000;0.7611;1.7040;
212.7000;0.7627;1.7087;
213.0000;0.7603;1.7063;
213.3000;0.7643;1.7110;
213.6000;0.7619;1.7110;
213.9000;0.7603;1.6970;
214.2000;0.7570;1.6877;
214.5000;0.7643;1.6970;
214.8000;0.7530;1.6760;
215.1000;0.7611;1.6993;
215.4000;0.7627;1.7063;
215.7000;0.7668;1.7180;
216.0000;0.7611;1.7040;
216.3000;0.7619;1.7063;
216.6000;0.7611;1.7087;
216.9000;0.7660;1.7180;
217.2000;0.7619;1.7110;
217.5000;0.7611;1.7017;
217.8000;0.7603;1.6970;
218.1000;0.7611;1.7063;
218.4000;0.7643;1.7180;
218.7000;0.7611;1.7040;
219.0000;0.7611;1.7040;
219.3000;0.7546;1.6924;
219.6000;0.7611;1.7180;
219.9000;0.7603;1.7227;
220.2000;0.7603;1.7133;
220.5000;0.7595;1.7040;
220.8000;0.7611;1.7087;
221.1000;0.7619;1.7133;
221.4000;0.7603;1.7040;
221.7000;0.7627;1.7017;
222.0000;0.7684;1.7157;
222.3000;0.7505;1.6784;
222.6000;0.7578;1.7017;
222.9000;0.7619;1.7063;
223.2000;0.7627;1.7110;
223.5000;0.7619;1.7180;
223.8000;0.7627;1.7203;
224.1000;0.7611;1.7133;
224.4000;0.7635;1.7133;
224.7000;0.7635;1.7157;
225.0000;0.7619;1.7110;
225.3000;0.7627;1.7133;
225.6000;0.7603;1.7087;
225.9000;0.7603;1.7133;
226.2000;0.7595;1.7157;
226.5000;0.7611;1.7157;
226.8000;0.7652;1.7203;
227.1000;0.7652;1.7203;
227.4000;0.7611;1.7063;
227.7000;0.7603;1.7063;
228.0000;0.7595;1.7040;
228.3000;0.7619;1.7110;
228.6000;0.7635;1.7180;
228.9000;0.7611;1.7133;
229.2000;0.7627;1.7203;
229.5000;0.7619;1.7203;
229.8000;0.7611;1.7227;
230.1000;0.7619;1.7273;
230.4000;0.7603;1.7180;
230.7000;0.7619;1.7203;
231.0000;0.7611;1.7273;
231.3000;0.7611;1.7273;
231.6000;0.7635;1.7343;
231.9000;0.7643;1.7436;
232.2000;0.7627;1.7343;
232.5000;0.7586;1.7296;
232.8000;0.7619;1.7343;
233.1000;0.7619;1.7343;
233.4000;0.7619;1.7296;
233.7000;0.7619;1.7250;
234.0000;0.7603;1.7133;
234.3000;0.7619;1.7157;
234.6000;0.7668;1.7203;
234.9000;0.7627;1.7157;
235.2000;0.7611;1.7133;
235.5000;0.7635;1.7063;
235.8000;0.7611;1.7017;
236.1000;0.7611;1.7017;
236.4000;0.7619;1.7087;
236.7000;0.7603;1.7040;
237.0000;0.7611;1.7110;
237.3000;0.7619;1.7110;
237.6000;0.7635;1.7133;
237.9000;0.7611;1.7017;
238.2000;0.7668;1.7110;
238.5000;0.7603;1.6993;
238.8000;0.7635;1.7087;
239.1000;0.7611;1.7040;
239.4000;0.7660;1.7180;
239.7000;0.7652;1.7203;
240.0000;0.7627;1.7203;
240.3000;0.7652;1.7250;
240.6000;0.7627;1.7296;
240.9000;0.7611;1.7250;
241.2000;0.7627;1.7227;
241.5000;0.7643;1.7413;
241.8000;0.7668;1.7343;
242.1000;0.7586;1.7157;
242.4000;0.7660;1.7296;
242.7000;0.7635;1.7250;
243.0000;0.7619;1.7227;
243.3000;0.7586;1.7203;
243.6000;0.7627;1.7133;
243.9000;0.7611;1.7017;
244.2000;0.7611;1.7017;
244.5000;0.7627;1.6993;
244.8000;0.7619;1.6993;
245.1000;0.7635;1.7087;
245.4000;0.7619;1.7110;
245.7000;0.7619;1.7133;
246.0000;0.7603;1.7110;
246.3000;0.7635;1.7227;
246.6000;0.7611;1.7157;
246.9000;0.7611;1.7227;
247.2000;0.7603;1.7250;
247.5000;0.7611;1.7273;
247.8000;0.7627;1.7390;
248.1000;0.7619;1.7413;
248.4000;0.7603;1.7460;
248.7000;0.7643;1.7483;
249.0000;0.7692;1.7506;
249.3000;0.7603;1.7343;
249.6000;0.7611;1.7390;
249.9000;0.7611;1.7343;
250.2000;0.7627;1.7273;
250.5000;0.7595;1.7296;
250.8000;0.7627;1.7366;
251.1000;0.7603;1.7343;
251.4000;0.7611;1.7390;
251.7000;0.7619;1.7320;
252.0000;0.7562;1.7180;
252.3000;0.7603;1.7227;
252.6000;0.7611;1.7203;
252.9000;0.7595;1.7157;
253.2000;0.7619;1.7227;
253.5000;0.7619;1.7157;
253.8000;0.7619;1.7203;
254.1000;0.7611;1.7203;
254.4000;0.7611;1.7157;
254.7000;0.7635;1.7180;
255.0000;0.7578;1.7110;
255.3000;0.7611;1.7250;
255.6000;0.7611;1.7320;
255.9000;0.7700;1.7506;
256.2000;0.7643;1.7390;
256.5000;0.7643;1.7390;
256.8000;0.7611;1.7296;
257.1000;0.7603;1.7250;
257.4000;0.7627;1.7296;
257.7000;0.7619;1.7320;
258.0000;0.7603;1.7203;
258.3000;0.7643;1.7320;
258.6000;0.7578;1.7250;
258.9000;0.7627;1.7320;
259.2000;0.7619;1.7273;
259.5000;0.7643;1.7273;
259.8000;0.7619;1.7273;
260.1000;0.7611;1.7203;
260.4000;0.7619;1.7203;
260.7000;0.7578;1.7203;
261.0000;0.7619;1.7203;
261.3000;0.7603;1.7087;
261.6000;0.7595;1.7087;
261.9000;0.7603;1.7063;
262.2000;0.7709;1.7343;
262.5000;0.7595;1.7087;
262.8000;0.7578;1.6993;
263.1000;0.7603;1.6993;
263.4000;0.7643;1.7040;
263.7000;0.7635;1.6970;
264.0000;0.7611;1.6877;
264.3000;0.7603;1.6924;
264.6000;0.7627;1.7087;
264.9000;0.7627;1.7227;
265.2000;0.7627;1.7227;
265.5000;0.7668;1.7390;
265.8000;0.7603;1.7227;
266.1000;0.7603;1.7180;
266.4000;0.7611;1.7203;
266.7000;0.7619;1.7227;
267.0000;0.7619;1.7203;
267.3000;0.7595;1.7087;
267.6000;0.7627;1.7133;
267.9000;0.7619;1.7087;
268.2000;0.7635;1.7040;
268.5000;0.7595;1.6970;
268.8000;0.7611;1.6970;
269.1000;0.7586;1.7017;
269.4000;0.7611;1.7133;
269.7000;0.7619;1.7110;
270.0000;0.7619;1.7040;
270.3000;0.7546;1.6877;
270.6000;0.7619;1.6993;
270.9000;0.7627;1.6993;
271.2000;0.7611;1.6993;
271.5000;0.7603;1.7017;
271.8000;0.7619;1.7133;
272.1000;0.7619;1.7110;
272.4000;0.7619;1.7157;
272.7000;0.7635;1.7250;
273.0000;0.7619;1.7180;
273.3000;0.7578;1.7180;
273.6000;0.7595;1.7203;
273.9000;0.7603;1.7203;
274.2000;0.7554;1.7063;
274.5000;0.7611;1.7273;
274.8000;0.7603;1.7273;
275.1000;0.7603;1.7227;
275.4000;0.7627;1.7227;
275.7000;0.7619;1.7157;
276.0000;0.7603;1.7180;
276.3000;0.7603;1.7250;
276.6000;0.7635;1.7343;
276.9000;0.7611;1.7250;
277.2000;0.7570;1.7203;
277.5000;0.7643;1.7366;
277.8000;0.7603;1.7250;
278.1000;0.7603;1.7227;
278.4000;0.7586;1.7110;
278.7000;0.7603;1.7133;
279.0000;0.7595;1.7180;
279.3000;0.7595;1.7180;
279.6000;0.7660;1.7273;
279.9000;0.7611;1.7133;
280.2000;0.7603;1.7087;
280.5000;0.7578;1.7040;
280.8000;0.7619;1.7157;
281.1000;0.7619;1.7133;
281.4000;0.7603;1.7063;
281.7000;0.7578;1.7017;
282.0000;0.7603;1.7040;
282.3000;0.7603;1.7110;
282.6000;0.7660;1.7343;
282.9000;0.7603;1.7296;
283.2000;0.7619;1.7320;
283.5000;0.7619;1.7390;
283.8000;0.7611;1.7413;
284.1000;0.7603;1.7366;
284.4000;0.7627;1.7390;
284.7000;0.7611;1.7343;
285.0000;0.7684;1.7460;
285.3000;0.7595;1.7227;
285.6000;0.7611;1.7203;
285.9000;0.7619;1.7227;
286.2000;0.7611;1.7157;
286.5000;0.7619;1.7180;
286.8000;0.7627;1.7110;
287.1000;0.7619;1.7110;
287.4000;0.7627;1.7203;
287.7000;0.7619;1.7157;
288.0000;0.7595;1.7040;
288.3000;0.7627;1.7063;
288.6000;0.7619;1.6993;
288.9000;0.7595;1.6993;
289.2000;0.7611;1.7017;
289.5000;0.7603;1.7087;
289.8000;0.7595;1.7110;
290.1000;0.7619;1.7180;
290.4000;0.7595;1.7110;
290.7000;0.7570;1.7040;
291.0000;0.7603;1.7133;
291.3000;0.7611;1.7110;
291.6000;0.7611;1.7110;
291.9000;0.7668;1.7180;
292.2000;0.7603;1.6993;
292.5000;0.7603;1.7063;
292.8000;0.7611;1.7087;
293.1000;0.7570;1.7087;
293.4000;0.7611;1.7157;
293.7000;0.7611;1.7087;
294.0000;0.7627;1.7273;
294.3000;0.7586;1.7180;
294.6000;0.7595;1.7227;
294.9000;0.7611;1.7110;
295.2000;0.7627;1.7203;
295.5000;0.7611;1.7203;
295.8000;0.7595;1.7133;
296.1000;0.7603;1.7180;
296.4000;0.7611;1.7273;
296.7000;0.7619;1.7227;
297.0000;0.7595;1.7087;
297.3000;0.7586;1.7133;
297.6000;0.7684;1.7460;
297.9000;0.7611;1.7250;
298.2000;0.7595;1.7250;
298.5000;0.7619;1.7320;
298.8000;0.7586;1.7296;
299.1000;0.7619;1.7296;
299.4000;0.7603;1.7180;
299.7000;0.7611;1.7273;
300.0000;0.7619;1.7413;
300.3000;0.7619;1.7366;
300.6000;0.7611;1.7483;
300.9000;0.7603;1.7483;
301.2000;0.7660;1.7693;
301.5000;0.7611;1.7623;
301.8000;0.7611;1.7646;
302.1000;0.7595;1.7576;
302.4000;0.7595;1.7530;
302.7000;0.7595;1.7390;
303.0000;0.7595;1.7413;
303.3000;0.7595;1.7343;
303.6000;0.7643;1.7460;
303.9000;0.7611;1.7343;
304.2000;0.7595;1.7273;
304.5000;0.7595;1.7227;
304.8000;0.7603;1.7250;
305.1000;0.7619;1.7343;
305.4000;0.7530;1.7133;
305.7000;0.7595;1.7227;
306.0000;0.7586;1.7227;
306.3000;0.7578;1.7110;
306.6000;0.7603;1.7157;
306.9000;0.7619;1.7296;
307.2000;0.7627;1.7273;
307.5000;0.7603;1.7227;
307.8000;0.7619;1.7180;
308.1000;0.7562;1.7040;
308.4000;0.7586;1.7087;
308.7000;0.7595;1.7133;
309.0000;0.7595;1.7063;
309.3000;0.7603;1.7087;
309.6000;0.7586;1.7063;
309.9000;0.7660;1.7180;
310.2000;0.7603;1.7063;
310.5000;0.7611;1.7063;
310.8000;0.7595;1.7133;
311.1000;0.7635;1.7180;
311.4000;0.7611;1.7227;
311.7000;0.7586;1.7227;
312.0000;0.7595;1.7273;
312.3000;0.7603;1.7320;
312.6000;0.7635;1.7320;
312.9000;0.7619;1.7110;
313.2000;0.7603;1.7063;
313.5000;0.7586;1.6993;
313.8000;0.7586;1.6993;
314.1000;0.7611;1.7087;
314.4000;0.7538;1.6947;
314.7000;0.7603;1.7040;
315.0000;0.7586;1.7110;
315.3000;0.7603;1.7087;
315.6000;0.7611;1.7110;
315.9000;0.7619;1.7180;
316.2000;0.7611;1.7180;
316.5000;0.7619;1.7203;
316.8000;0.7578;1.7040;
317.1000;0.7611;1.7063;
317.4000;0.7595;1.7063;
317.7000;0.7611;1.7087;
318.0000;0.7603;1.7157;
318.3000;0.7619;1.7157;
318.6000;0.7578;1.7133;
318.9000;0.7570;1.7133;
319.2000;0.7595;1.7203;
319.5000;0.7603;1.7227;
319.8000;0.7611;1.7203;
320.1000;0.7611;1.7227;
320.4000;0.7578;1.7110;
320.7000;0.7562;1.7063;
321.0000;0.7603;1.7157;
321.3000;0.7578;1.7157;
321.6000;0.7611;1.7203;
321.9000;0.7619;1.7203;
322.2000;0.7562;1.7063;
322.5000;0.7611;1.7133;
322.8000;0.7562;1.7063;
323.1000;0.7611;1.7203;
323.4000;0.7603;1.7180;
323.7000;0.7595;1.7157;
324.0000;0.7595;1.7133;
324.3000;0.7603;1.7180;
324.6000;0.7603;1.7227;
324.9000;0.7595;1.7227;
325.2000;0.7578;1.7087;
325.5000;0.7570;1.7040;
325.8000;0.7595;1.7133;
326.1000;0.7603;1.7133;
326.4000;0.7595;1.7133;
326.7000;0.7635;1.7157;
327.0000;0.7619;1.7017;
327.3000;0.7595;1.7017;
327.6000;0.7578;1.6993;
327.9000;0.7586;1.7087;
328.2000;0.7586;1.7087;
328.5000;0.7676;1.7296;
328.8000;0.7513;1.6924;
329.1000;0.7603;1.7157;
329.4000;0.7586;1.7110;
329.7000;0.7603;1.7110;
330.0000;0.7603;1.6993;
330.3000;0.7595;1.6993;
330.6000;0.7611;1.6970;
330.9000;0.7603;1.7017;
331.2000;0.7611;1.7040;
331.5000;0.7603;1.7110;
331.8000;0.7611;1.7063;
332.1000;0.7603;1.6993;
332.4000;0.7578;1.6900;
332.7000;0.7643;1.7087;
333.0000;0.7521;1.6830;
333.3000;0.7643;1.7087;
333.6000;0.7578;1.6924;
333.9000;0.7611;1.7110;
334.2000;0.7595;1.7133;
334.5000;0.7586;1.7180;
334.8000;0.7586;1.7157;
335.1000;0.7603;1.7203;
335.4000;0.7521;1.6970;
335.7000;0.7603;1.7227;
336.0000;0.7611;1.7273;
336.3000;0.7538;1.7133;
336.6000;0.7676;1.7436;
336.9000;0.7619;1.7320;
337.2000;0.7611;1.7343;
337.5000;0.7611;1.7320;
337.8000;0.7595;1.7250;
338.1000;0.7595;1.7227;
338.4000;0.7570;1.7133;
338.7000;0.7684;1.7366;
339.0000;0.7578;1.7133;
339.3000;0.7595;1.7133;
339.6000;0.7595;1.7040;
339.9000;0.7595;1.6993;
340.2000;0.7570;1.6970;
340.5000;0.7586;1.6924;
340.8000;0.7578;1.6947;
341.1000;0.7611;1.7040;
341.4000;0.7603;1.6993;
341.7000;0.7627;1.7087;
342.0000;0.7619;1.7133;
342.3000;0.7611;1.7133;
342.6000;0.7603;1.7203;
342.9000;0.7578;1.7110;
343.2000;0.7603;1.7250;
343.5000;0.7611;1.7296;
343.8000;0.7603;1.7203;
344.1000;0.7603;1.7133;
344.4000;0.7586;1.7110;
344.7000;0.7595;1.7273;
345.0000;0.7586;1.7296;
345.3000;0.7684;1.7553;
345.6000;0.7619;1.7320;
345.9000;0.7586;1.7320;
346.2000;0.7611;1.7250;
346.5000;0.7603;1.7203;
346.8000;0.7603;1.7180;
347.1000;0.7611;1.7250;
347.4000;0.7627;1.7250;
347.7000;0.7611;1.7273;
348.0000;0.7603;1.7180;
348.3000;0.7570;1.7110;
348.6000;0.7611;1.7273;
348.9000;0.7611;1.7227;
349.2000;0.7595;1.7203;
349.5000;0.7603;1.7227;
349.8000;0.7603;1.7250;
350.1000;0.7586;1.7250;
350.4000;0.7562;1.7087;
350.7000;0.7603;1.7203;
351.0000;0.7586;1.7180;
351.3000;0.7586;1.7180;
351.6000;0.7586;1.7087;
351.9000;0.7595;1.7133;
352.2000;0.7586;1.7180;
352.5000;0.7611;1.7320;
352.8000;0.7586;1.7296;
353.1000;0.7595;1.7273;
353.4000;0.7595;1.7227;
353.7000;0.7635;1.7343;
354.0000;0.7619;1.7273;
354.3000;0.7562;1.7203;
354.6000;0.7578;1.7273;
354.9000;0.7595;1.7250;
355.2000;0.7603;1.7296;
355.5000;0.7603;1.7273;
355.8000;0.7595;1.7273;
356.1000;0.7595;1.7227;
356.4000;0.7643;1.7413;
356.7000;0.7627;1.7296;
357.0000;0.7603;1.7157;
357.3000;0.7652;1.7273;
357.6000;0.7611;1.7180;
357.9000;0.7603;1.7110;
358.2000;0.7611;1.7227;
358.5000;0.7619;1.7273;
358.8000;0.7603;1.7227;
359.1000;0.7595;1.7157;
359.4000;0.7586;1.7203;
359.7000;0.7578;1.7320;
360.0000;0.7595;1.7460;
360.3000;0.7570;1.7460;
360.6000;0.7562;1.7483;
360.9000;0.7578;1.7460;
361.2000;0.7578;1.7483;
361.5000;0.7603;1.7506;
361.8000;0.7603;1.7436;
362.1000;0.7586;1.7366;
362.4000;0.7546;1.7366;
362.7000;0.7603;1.7483;
363.0000;0.7660;1.7553;
363.3000;0.7586;1.7530;
363.6000;0.7595;1.7460;
363.9000;0.7586;1.7460;
364.2000;0.7595;1.7436;
364.5000;0.7586;1.7413;
364.8000;0.7603;1.7343;
365.1000;0.7603;1.7390;
365.4000;0.7603;1.7413;
365.7000;0.7603;1.7413;
366.0000;0.7611;1.7413;
366.3000;0.7578;1.7320;
366.6000;0.7603;1.7366;
366.9000;0.7611;1.7436;
367.2000;0.7595;1.7366;
367.5000;0.7586;1.7413;
367.8000;0.7643;1.7576;
368.1000;0.7611;1.7390;
368.4000;0.7627;1.7390;
368.7000;0.7619;1.7343;
369.0000;0.7660;1.7366;
369.3000;0.7603;1.7203;
369.6000;0.7619;1.7203;
369.9000;0.7603;1.7157;
370.2000;0.7619;1.7157;
370.5000;0.7611;1.7087;
370.8000;0.7603;1.7110;
371.1000;0.7619;1.7133;
371.4000;0.7586;1.7063;
371.7000;0.7611;1.7157;
372.0000;0.7668;1.7436;
372.3000;0.7578;1.7413;
372.6000;0.7595;1.7436;
372.9000;0.7603;1.7413;
373.2000;0.7570;1.7343;
373.5000;0.7595;1.7413;
373.8000;0.7570;1.7320;
374.1000;0.7603;1.7366;
374.4000;0.7546;1.7227;
374.7000;0.7586;1.7296;
375.0000;0.7611;1.7273;
375.3000;0.7570;1.7250;
375.6000;0.7586;1.7343;
375.9000;0.7578;1.7296;
376.2000;0.7603;1.7343;
376.5000;0.7586;1.7390;
376.8000;0.7627;1.7436;
377.1000;0.7595;1.7320;
377.4000;0.7627;1.7366;
377.7000;0.7586;1.7227;
378.0000;0.7538;1.7203;
378.3000;0.7586;1.7343;
378.6000;0.7554;1.7320;
378.9000;0.7595;1.7436;
379.2000;0.7619;1.7436;
379.5000;0.7611;1.7460;
379.8000;0.7635;1.7506;
380.1000;0.7586;1.7273;
380.4000;0.7595;1.7296;
380.7000;0.7595;1.7366;
381.0000;0.7619;1.7436;
381.3000;0.7619;1.7343;
381.6000;0.7538;1.7320;
381.9000;0.7603;1.7530;
382.2000;0.7603;1.7623;
382.5000;0.7595;1.7623;
382.8000;0.7611;1.7646;
383.1000;0.7603;1.7623;
383.4000;0.7586;1.7576;
383.7000;0.7603;1.7530;
384.0000;0.7611;1.7436;
384.3000;0.7595;1.7390;
384.6000;0.7595;1.7436;
384.9000;0.7603;1.7436;
385.2000;0.7570;1.7273;
385.5000;0.7595;1.7203;
385.8000;0.7570;1.7133;
386.1000;0.7603;1.7227;
386.4000;0.7586;1.7157;
386.7000;0.7570;1.7133;
387.0000;0.7611;1.7227;
387.3000;0.7586;1.7296;
387.6000;0.7611;1.7343;
387.9000;0.7595;1.7273;
388.2000;0.7603;1.7320;
388.5000;0.7611;1.7343;
388.8000;0.7586;1.7250;
389.1000;0.7562;1.7227;
389.4000;0.7578;1.7343;
389.7000;0.7611;1.7390;
390.0000;0.7611;1.7343;
390.3000;0.7578;1.7180;
390.6000;0.7586;1.7296;
390.9000;0.7611;1.7296;
391.2000;0.7586;1.7227;
391.5000;0.7619;1.7250;
391.8000;0.7603;1.7157;
392.1000;0.7611;1.7250;
392.4000;0.7611;1.7250;
392.7000;0.7611;1.7320;
393.0000;0.7619;1.7413;
393.3000;0.7586;1.7343;
393.6000;0.7619;1.7413;
393.9000;0.7603;1.7390;
394.2000;0.7603;1.7343;
394.5000;0.7643;1.7366;
394.8000;0.7668;1.7460;
395.1000;0.7611;1.7343;
395.4000;0.7578;1.7296;
395.7000;0.7611;1.7343;
396.0000;0.7611;1.7250;
396.3000;0.7619;1.7343;
396.6000;0.7513;1.7110;
396.9000;0.7570;1.7250;
397.2000;0.7570;1.7343;
397.5000;0.7586;1.7366;
397.8000;0.7595;1.7343;
398.1000;0.7595;1.7296;
398.4000;0.7595;1.7366;
398.7000;0.7619;1.7460;
399.0000;0.7603;1.7366;
399.3000;0.7586;1.7320;
399.6000;0.7619;1.7343;
399.9000;0.7595;1.7320;
400.2000;0.7521;1.7180;
400.5000;0.7619;1.7483;
400.8000;0.7595;1.7390;
401.1000;0.7619;1.7390;
401.4000;0.7603;1.7320;
401.7000;0.7619;1.7366;
402.0000;0.7595;1.7390;
402.3000;0.7652;1.7530;
402.6000;0.7586;1.7366;
402.9000;0.7578;1.7250;
403.2000;0.7586;1.7250;
403.5000;0.7603;1.7413;
403.8000;0.7619;1.7460;
404.1000;0.7595;1.7483;
404.4000;0.7603;1.7530;
404.7000;0.7578;1.7436;
405.0000;0.7603;1.7530;
405.3000;0.7595;1.7553;
405.6000;0.7578;1.7436;
405.9000;0.7595;1.7436;
406.2000;0.7603;1.7413;
406.5000;0.7562;1.7273;
406.8000;0.7586;1.7250;
407.1000;0.7578;1.7203;
407.4000;0.7611;1.7273;
407.7000;0.7595;1.7203;
408.0000;0.7603;1.7203;
408.3000;0.7570;1.7203;
408.6000;0.7595;1.7250;
408.9000;0.7586;1.7273;
409.2000;0.7603;1.7273;
409.5000;0.7578;1.7227;
409.8000;0.7570;1.7180;
410.1000;0.7627;1.7296;
410.4000;0.7586;1.7250;
410.7000;0.7595;1.7320;
411.0000;0.7586;1.7227;
411.3000;0.7578;1.7203;
411.6000;0.7652;1.7413;
411.9000;0.7603;1.7250;
412.2000;0.7586;1.7273;
412.5000;0.7595;1.7296;
412.8000;0.7643;1.7506;
413.1000;0.7603;1.7460;
413.4000;0.7603;1.7366;
413.7000;0.7578;1.7296;
414.0000;0.7603;1.7366;
414.3000;0.7595;1.7296;
414.6000;0.7586;1.7390;
414.9000;0.7595;1.7343;
415.2000;0.7603;1.7343;
415.5000;0.7611;1.7296;
415.8000;0.7586;1.7296;
416.1000;0.7676;1.7553;
416.4000;0.7619;1.7413;
416.7000;0.7603;1.7320;
417.0000;0.7586;1.7296;
417.3000;0.7562;1.7366;
417.6000;0.7578;1.7483;
417.9000;0.7595;1.7553;
418.2000;0.7586;1.7413;
418.5000;0.7595;1.7343;
418.8000;0.7595;1.7366;
419.1000;0.7627;1.7320;
419.4000;0.7611;1.7273;
419.7000;0.7611;1.7320;
420.0000;0.7595;1.7227;
420.3000;0.7619;1.7390;
420.6000;0.7570;1.7413;
420.9000;0.7586;1.7413;
421.2000;0.7676;1.7693;
421.5000;0.7595;1.7553;
421.8000;0.7603;1.7460;
422.1000;0.7668;1.7716;
422.4000;0.7578;1.7483;
422.7000;0.7643;1.7530;
423.0000;0.7586;1.7390;
423.3000;0.7578;1.7390;
423.6000;0.7595;1.7390;
423.9000;0.7595;1.7343;
424.2000;0.7595;1.7320;
424.5000;0.7595;1.7320;
424.8000;0.7595;1.7343;
425.1000;0.7595;1.7320;
425.4000;0.7611;1.7273;
425.7000;0.7611;1.7227;
426.0000;0.7586;1.7203;
426.3000;0.7595;1.7273;
426.6000;0.7603;1.7296;
426.9000;0.7586;1.7296;
427.2000;0.7578;1.7250;
427.5000;0.7586;1.7180;
427.8000;0.7570;1.7203;
428.1000;0.7530;1.7087;
428.4000;0.7578;1.7203;
428.7000;0.7570;1.7180;
429.0000;0.7578;1.7110;
429.3000;0.7578;1.7180;
429.6000;0.7570;1.7203;
429.9000;0.7586;1.7250;
430.2000;0.7562;1.7296;
430.5000;0.7635;1.7483;
430.8000;0.7611;1.7576;
431.1000;0.7578;1.7530;
431.4000;0.7570;1.7483;
431.7000;0.7586;1.7506;
432.0000;0.7595;1.7483;
432.3000;0.7595;1.7436;
432.6000;0.7611;1.7390;
432.9000;0.7586;1.7227;
433.2000;0.7627;1.7273;
433.5000;0.7586;1.7250;
433.8000;0.7554;1.7273;
434.1000;0.7595;1.7320;
434.4000;0.7611;1.7273;
434.7000;0.7586;1.7110;
435.0000;0.7578;1.7110;
435.3000;0.7546;1.7063;
435.6000;0.7586;1.7110;
435.9000;0.7603;1.7203;
436.2000;0.7611;1.7273;
436.5000;0.7611;1.7250;
436.8000;0.7595;1.7273;
437.1000;0.7586;1.7227;
437.4000;0.7586;1.7250;
437.7000;0.7538;1.7157;
438.0000;0.7595;1.7203;
438.3000;0.7603;1.7250;
438.6000;0.7595;1.7296;
438.9000;0.7603;1.7390;
439.2000;0.7586;1.7390;
439.5000;0.7595;1.7320;
439.8000;0.7603;1.7343;
440.1000;0.7595;1.7296;
440.4000;0.7603;1.7366;
440.7000;0.7619;1.7366;
441.0000;0.7562;1.7250;
441.3000;0.7603;1.7273;
441.6000;0.7562;1.7180;
441.9000;0.7595;1.7203;
442.2000;0.7603;1.7250;
442.5000;0.7586;1.7273;
442.8000;0.7586;1.7273;
443.1000;0.7595;1.7343;
443.4000;0.7570;1.7390;
443.7000;0.7578;1.7413;
444.0000;0.7578;1.7390;
444.3000;0.7595;1.7483;
444.6000;0.7684;1.7693;
444.9000;0.7578;1.7483;
445.2000;0.7603;1.7483;
445.5000;0.7603;1.7553;
445.8000;0.7595;1.7506;
446.1000;0.7611;1.7413;
446.4000;0.7733;1.7623;
446.7000;0.7586;1.7320;
447.0000;0.7603;1.7296;
447.3000;0.7603;1.7273;
447.6000;0.7595;1.7273;
447.9000;0.7627;1.7320;
448.2000;0.7595;1.7203;
448.5000;0.7595;1.7180;
448.8000;0.7603;1.7087;
449.1000;0.7595;1.6970;
449.4000;0.7619;1.6970;
449.7000;0.7668;1.7203;
450.0000;0.7538;1.6830;
450.3000;0.7586;1.6924;
450.6000;0.7578;1.6947;
450.9000;0.7603;1.7087;
451.2000;0.7603;1.7087;
451.5000;0.7578;1.7040;
451.8000;0.7611;1.7133;
452.1000;0.7586;1.7203;
452.4000;0.7578;1.7203;
452.7000;0.7554;1.7133;
453.0000;0.7570;1.7203;
453.3000;0.7554;1.7227;
453.6000;0.7570;1.7227;
453.9000;0.7578;1.7227;
454.2000;0.7570;1.7203;
454.5000;0.7619;1.7366;
454.8000;0.7586;1.7296;
455.1000;0.7603;1.7390;
455.4000;0.7586;1.7343;
455.7000;0.7586;1.7320;
456.0000;0.7603;1.7366;
456.3000;0.7586;1.7366;
456.6000;0.7586;1.7343;
456.9000;0.7586;1.7273;
457.2000;0.7603;1.7320;
457.5000;0.7570;1.7296;
457.8000;0.7578;1.7250;
458.1000;0.7595;1.7273;
458.4000;0.7578;1.7250;
458.7000;0.7595;1.7133;
459.0000;0.7619;1.7180;
459.3000;0.7611;1.7227;
459.6000;0.7586;1.7203;
459.9000;0.7595;1.7157;
460.2000;0.7578;1.7087;
460.5000;0.7595;1.7157;
460.8000;0.7570;1.7063;
461.1000;0.7595;1.7110;
461.4000;0.7619;1.7110;
461.7000;0.7619;1.7157;
462.0000;0.7603;1.7180;
462.3000;0.7619;1.7180;
462.6000;0.7586;1.7180;
462.9000;0.7578;1.7157;
463.2000;0.7643;1.7227;
463.5000;0.7578;1.7040;
463.8000;0.7578;1.7063;
464.1000;0.7570;1.6993;
464.4000;0.7570;1.7017;
464.7000;0.7586;1.7110;
465.0000;0.7578;1.7087;
465.3000;0.7586;1.7087;
465.6000;0.7586;1.7157;
465.9000;0.7586;1.7157;
466.2000;0.7635;1.7320;
466.5000;0.7578;1.7227;
466.8000;0.7562;1.7157;
467.1000;0.7595;1.7180;
467.4000;0.7570;1.7227;
467.7000;0.7586;1.7227;
468.0000;0.7595;1.7227;
468.3000;0.7595;1.7180;
468.6000;0.7603;1.7110;
468.9000;0.7603;1.7180;
469.2000;0.7676;1.7413;
469.5000;0.7586;1.7273;
469.8000;0.7578;1.7203;
470.1000;0.7595;1.7157;
470.4000;0.7586;1.7180;
470.7000;0.7562;1.7133;
471.0000;0.7595;1.7296;
471.3000;0.7627;1.7273;
471.6000;0.7635;1.7343;
471.9000;0.7586;1.7133;
472.2000;0.7570;1.7063;
472.5000;0.7586;1.6993;
472.8000;0.7586;1.7017;
473.1000;0.7562;1.7040;
473.4000;0.7578;1.7133;
473.7000;0.7513;1.6970;
474.0000;0.7595;1.7203;
474.3000;0.7586;1.7133;
474.6000;0.7603;1.7133;
474.9000;0.7586;1.7087;
475.2000;0.7595;1.7133;
475.5000;0.7627;1.7227;
475.8000;0.7578;1.7087;
476.1000;0.7611;1.7343;
476.4000;0.7546;1.7227;
476.7000;0.7578;1.7180;
477.0000;0.7586;1.7227;
477.3000;0.7595;1.7366;
477.6000;0.7595;1.7296;
477.9000;0.7578;1.7250;
478.2000;0.7554;1.7273;
478.5000;0.7570;1.7343;
478.8000;0.7570;1.7413;
479.1000;0.7578;1.7296;
479.4000;0.7586;1.7250;
479.7000;0.7586;1.7227;
480.0000;0.7570;1.7273;
480.3000;0.7586;1.7320;
480.6000;0.7570;1.7273;
480.9000;0.7586;1.7203;
481.2000;0.7570;1.7180;
481.5000;0.7570;1.7250;
481.8000;0.7554;1.7180;
482.1000;0.7570;1.7227;
482.4000;0.7578;1.7320;
482.7000;0.7676;1.7460;
483.0000;0.7603;1.7250;
483.3000;0.7578;1.7157;
483.6000;0.7578;1.7157;
483.9000;0.7586;1.7133;
484.2000;0.7570;1.7063;
484.5000;0.7595;1.7133;
484.8000;0.7562;1.7157;
485.1000;0.7595;1.7157;
485.4000;0.7562;1.7157;
485.7000;0.7595;1.7227;
486.0000;0.7538;1.7087;
486.3000;0.7578;1.7180;
486.6000;0.7603;1.7296;
486.9000;0.7603;1.7343;
487.2000;0.7546;1.7250;
487.5000;0.7586;1.7343;
487.8000;0.7578;1.7366;
488.1000;0.7603;1.7390;
488.4000;0.7603;1.7250;
488.7000;0.7570;1.7087;
489.0000;0.7562;1.7087;
489.3000;0.7595;1.7157;
489.6000;0.7603;1.7157;
489.9000;0.7562;1.7110;
490.2000;0.7578;1.7110;
490.5000;0.7611;1.7110;
490.8000;0.7586;1.7087;
491.1000;0.7603;1.7203;
491.4000;0.7586;1.7203;
491.7000;0.7603;1.7273;
492.0000;0.7611;1.7366;
492.3000;0.7595;1.7320;
492.6000;0.7595;1.7343;
492.9000;0.7586;1.7250;
493.2000;0.7611;1.7320;
493.5000;0.7619;1.7343;
493.8000;0.7578;1.7343;
494.1000;0.7538;1.7296;
494.4000;0.7538;1.7320;
494.7000;0.7595;1.7436;
495.0000;0.7578;1.7296;
495.3000;0.7578;1.7273;
495.6000;0.7570;1.7250;
495.9000;0.7578;1.7227;
496.2000;0.7586;1.7296;
496.5000;0.7578;1.7227;
496.8000;0.7578;1.7227;
497.1000;0.7595;1.7227;
497.4000;0.7586;1.7227;
497.7000;0.7627;1.7320;
498.0000;0.7595;1.7273;
498.3000;0.7619;1.7296;
498.6000;0.7619;1.7343;
498.9000;0.7586;1.7296;
499.2000;0.7595;1.7273;
499.5000;0.7603;1.7343;
499.8000;0.7570;1.7227;
500.1000;0.7578;1.7203;
500.4000;0.7578;1.7320;
500.7000;0.7578;1.7390;
501.0000;0.7578;1.7390;
501.3000;0.7562;1.7413;
501.6000;0.7562;1.7366;
501.9000;0.7570;1.7366;
502.2000;0.7570;1.7320;
502.5000;0.7586;1.7343;
502.8000;0.7578;1.7273;
503.1000;0.7586;1.7320;
503.4000;0.7562;1.7296;
503.7000;0.7554;1.7227;
504.0000;0.7578;1.7250;
504.3000;0.7570;1.7227;
504.6000;0.7578;1.7320;
504.9000;0.7586;1.7250;
505.2000;0.7570;1.7273;
505.5000;0.7562;1.7320;
505.8000;0.7530;1.7296;
506.1000;0.7611;1.7483;
506.4000;0.7603;1.7506;
506.7000;0.7538;1.7436;
507.0000;0.7578;1.7483;
507.3000;0.7595;1.7460;
507.6000;0.7546;1.7320;
507.9000;0.7578;1.7390;
508.2000;0.7586;1.7366;
508.5000;0.7603;1.7460;
508.8000;0.7603;1.7436;
509.1000;0.7595;1.7390;
509.4000;0.7603;1.7390;
509.7000;0.7578;1.7366;
510.0000;0.7586;1.7227;
510.3000;0.7578;1.7133;
510.6000;0.7505;1.6947;
510.9000;0.7586;1.7203;
511.2000;0.7586;1.7180;
511.5000;0.7586;1.7180;
511.8000;0.7578;1.7133;
512.1000;0.7570;1.7227;
512.4000;0.7521;1.7180;
512.7000;0.7570;1.7366;
513.0000;0.7578;1.7273;
513.3000;0.7546;1.7320;
513.6000;0.7586;1.7390;
513.9000;0.7595;1.7343;
514.2000;0.7578;1.7366;
514.5000;0.7570;1.7343;
514.8000;0.7595;1.7413;
515.1000;0.7570;1.7343;
515.4000;0.7521;1.7250;
515.7000;0.7570;1.7320;
516.0000;0.7570;1.7343;
516.3000;0.7578;1.7343;
516.6000;0.7570;1.7366;
516.9000;0.7578;1.7343;
517.2000;0.7578;1.7273;
517.5000;0.7586;1.7250;
517.8000;0.7586;1.7157;
518.1000;0.7570;1.7203;
518.4000;0.7578;1.7180;
518.7000;0.7619;1.7320;
519.0000;0.7586;1.7320;
519.3000;0.7586;1.7366;
519.6000;0.7578;1.7366;
519.9000;0.7578;1.7343;
520.2000;0.7586;1.7390;
520.5000;0.7627;1.7366;
520.8000;0.7562;1.7180;
521.1000;0.7595;1.7320;
521.4000;0.7586;1.7273;
521.7000;0.7586;1.7227;
522.0000;0.7570;1.7203;
522.3000;0.7578;1.7273;
522.6000;0.7578;1.7320;
522.9000;0.7578;1.7320;
523.2000;0.7586;1.7227;
523.5000;0.7578;1.7180;
523.8000;0.7586;1.7203;
524.1000;0.7586;1.7250;
524.4000;0.7562;1.7227;
524.7000;0.7554;1.7203;
525.0000;0.7570;1.7203;
525.3000;0.7546;1.7203;
525.6000;0.7586;1.7157;
525.9000;0.7578;1.7157;
526.2000;0.7578;1.7180;
526.5000;0.7578;1.7157;
526.8000;0.7586;1.7110;
527.1000;0.7578;1.6970;
527.4000;0.7570;1.6924;
527.7000;0.7562;1.6877;
528.0000;0.7595;1.6877;
528.3000;0.7562;1.6784;
528.6000;0.7595;1.6900;
528.9000;0.7603;1.6947;
529.2000;0.7595;1.6970;
529.5000;0.7586;1.6993;
529.8000;0.7432;1.6690;
530.1000;0.7570;1.7110;
530.4000;0.7595;1.7203;
530.7000;0.7603;1.7203;
531.0000;0.7562;1.7203;
531.3000;0.7586;1.7320;
531.6000;0.7562;1.7320;
531.9000;0.7562;1.7320;
532.2000;0.7578;1.7460;
532.5000;0.7554;1.7366;
532.8000;0.7578;1.7366;
533.1000;0.7586;1.7320;
533.4000;0.7578;1.7343;
533.7000;0.7586;1.7366;
534.0000;0.7595;1.7343;
534.3000;0.7603;1.7343;
534.6000;0.7570;1.7273;
534.9000;0.7578;1.7343;
535.2000;0.7578;1.7436;
535.5000;0.7586;1.7483;
535.8000;0.7562;1.7413;
536.1000;0.7562;1.7436;
536.4000;0.7513;1.7296;
536.7000;0.7562;1.7436;
537.0000;0.7578;1.7530;
537.3000;0.7562;1.7576;
537.6000;0.7546;1.7413;
537.9000;0.7562;1.7366;
538.2000;0.7570;1.7413;
538.5000;0.7570;1.7460;
538.8000;0.7562;1.7460;
539.1000;0.7595;1.7436;
539.4000;0.7570;1.7366;
539.7000;0.7554;1.7366;
540.0000;0.7578;1.7483;
540.3000;0.7586;1.7530;
540.6000;0.7562;1.7530;
540.9000;0.7570;1.7483;
541.2000;0.7554;1.7413;
541.5000;0.7586;1.7343;
541.8000;0.7578;1.7366;
542.1000;0.7578;1.7366;
542.4000;0.7684;1.7600;
542.7000;0.7562;1.7366;
543.0000;0.7586;1.7436;
543.3000;0.7586;1.7506;
543.6000;0.7586;1.7483;
543.9000;0.7578;1.7460;
544.2000;0.7603;1.7436;
544.5000;0.7635;1.7483;
544.8000;0.7586;1.7483;
545.1000;0.7643;1.7576;
545.4000;0.7578;1.7436;
545.7000;0.7611;1.7460;
546.0000;0.7586;1.7320;
546.3000;0.7570;1.7273;
546.6000;0.7635;1.7506;
546.9000;0.7578;1.7390;
547.2000;0.7489;1.7203;
547.5000;0.7562;1.7320;
547.8000;0.7562;1.7366;
548.1000;0.7570;1.7413;
548.4000;0.7578;1.7413;
548.7000;0.7578;1.7390;
549.0000;0.7570;1.7390;
549.3000;0.7595;1.7366;
549.6000;0.7570;1.7227;
549.9000;0.7586;1.7227;
550.2000;0.7603;1.7250;
550.5000;0.7570;1.7227;
550.8000;0.7595;1.7250;
551.1000;0.7578;1.7250;
551.4000;0.7578;1.7273;
551.7000;0.7546;1.7203;
552.0000;0.7586;1.7296;
552.3000;0.7578;1.7320;
552.6000;0.7643;1.7436;
552.9000;0.7570;1.7273;
553.2000;0.7586;1.7320;
553.5000;0.7603;1.7343;
553.8000;0.7570;1.7296;
554.1000;0.7530;1.7110;
554.4000;0.7595;1.7320;
554.7000;0.7570;1.7273;
555.0000;0.7586;1.7366;
555.3000;0.7562;1.7296;
555.6000;0.7562;1.7273;
555.9000;0.7603;1.7413;
556.2000;0.7570;1.7320;
556.5000;0.7578;1.7343;
556.8000;0.7611;1.7460;
557.1000;0.7586;1.7343;
557.4000;0.7578;1.7343;
557.7000;0.7643;1.7506;
558.0000;0.7578;1.7296;
558.3000;0.7570;1.7180;
558.6000;0.7619;1.7366;
558.9000;0.7643;1.7413;
559.2000;0.7538;1.7133;
559.5000;0.7570;1.7180;
559.8000;0.7570;1.7180;
560.1000;0.7578;1.7227;
560.4000;0.7586;1.7203;
560.7000;0.7570;1.7227;
561.0000;0.7578;1.7227;
561.3000;0.7578;1.7273;
561.6000;0.7578;1.7320;
561.9000;0.7586;1.7343;
562.2000;0.7586;1.7413;
562.5000;0.7554;1.7320;
562.8000;0.7578;1.7343;
563.1000;0.7562;1.7320;
563.4000;0.7570;1.7343;
563.7000;0.7570;1.7366;
564.0000;0.7570;1.7343;
564.3000;0.7562;1.7413;
564.6000;0.7562;1.7413;
564.9000;0.7586;1.7483;
565.2000;0.7570;1.7436;
565.5000;0.7538;1.7413;
565.8000;0.7595;1.7600;
566.1000;0.7570;1.7460;
566.4000;0.7570;1.7390;
566.7000;0.7562;1.7320;
567.0000;0.7570;1.7273;
567.3000;0.7562;1.7203;
567.6000;0.7570;1.7273;
567.9000;0.7554;1.7296;
568.2000;0.7570;1.7390;
568.5000;0.7570;1.7366;
568.8000;0.7578;1.7390;
569.1000;0.7578;1.7436;
569.4000;0.7562;1.7343;
569.7000;0.7521;1.7273;
570.0000;0.7554;1.7296;
570.3000;0.7546;1.7413;
570.6000;0.7578;1.7553;
570.9000;0.7554;1.7530;
571.2000;0.7546;1.7600;
571.5000;0.7578;1.7623;
571.8000;0.7578;1.7576;
572.1000;0.7586;1.7623;
572.4000;0.7578;1.7530;
572.7000;0.7578;1.7530;
573.0000;0.7578;1.7390;
573.3000;0.7586;1.7390;
573.6000;0.7578;1.7436;
573.9000;0.7586;1.7460;
574.2000;0.7554;1.7366;
574.5000;0.7546;1.7436;
574.8000;0.7595;1.7483;
575.1000;0.7570;1.7460;
575.4000;0.7538;1.7413;
575.7000;0.7521;1.7250;
576.0000;0.7578;1.7390;
576.3000;0.7627;1.7530;
576.6000;0.7562;1.7390;
576.9000;0.7570;1.7390;
577.2000;0.7603;1.7553;
577.5000;0.7586;1.7530;
577.8000;0.7635;1.7693;
578.1000;0.7530;1.7390;
578.4000;0.7489;1.7343;
578.7000;0.7570;1.7506;
579.0000;0.7570;1.7506;
579.3000;0.7538;1.7483;
579.6000;0.7570;1.7576;
579.9000;0.7570;1.7623;
580.2000;0.7578;1.7693;
580.5000;0.7554;1.7646;
580.8000;0.7570;1.7669;
581.1000;0.7578;1.7669;
581.4000;0.7562;1.7553;
581.7000;0.7570;1.7553;
582.0000;0.7578;1.7506;
582.3000;0.7570;1.7600;
582.6000;0.7578;1.7576;
582.9000;0.7554;1.7506;
583.2000;0.7578;1.7530;
583.5000;0.7562;1.7436;
583.8000;0.7578;1.7413;
584.1000;0.7570;1.7483;
584.4000;0.7578;1.7483;
584.7000;0.7595;1.7460;
585.0000;0.7586;1.7413;
585.3000;0.7578;1.7366;
585.6000;0.7554;1.7343;
585.9000;0.7578;1.7460;
586.2000;0.7586;1.7413;
586.5000;0.7586;1.7413;
586.8000;0.7611;1.7460;
587.1000;0.7578;1.7436;
587.4000;0.7570;1.7390;
587.7000;0.7578;1.7460;
588.0000;0.7570;1.7460;
588.3000;0.7570;1.7483;
588.6000;0.7546;1.7460;
588.9000;0.7578;1.7576;
589.2000;0.7562;1.7506;
589.5000;0.7578;1.7413;
589.8000;0.7538;1.7320;
590.1000;0.7570;1.7436;
590.4000;0.7578;1.7390;
590.7000;0.7586;1.7296;
591.0000;0.7578;1.7250;
591.3000;0.7603;1.7343;
591.6000;0.7578;1.7296;
591.9000;0.7570;1.7273;
592.2000;0.7570;1.7296;
592.5000;0.7554;1.7250;
592.8000;0.7570;1.7366;
593.1000;0.7562;1.7320;
593.4000;0.7546;1.7273;
593.7000;0.7562;1.7296;
594.0000;0.7619;1.7483;
594.3000;0.7578;1.7413;
594.6000;0.7595;1.7413;
594.9000;0.7570;1.7390;
595.2000;0.7546;1.7296;
595.5000;0.7538;1.7203;
595.8000;0.7570;1.7296;
596.1000;0.7570;1.7343;
596.4000;0.7586;1.7296;
596.7000;0.7586;1.7366;
597.0000;0.7586;1.7413;
597.3000;0.7562;1.7343;
597.6000;0.7586;1.7413;
597.9000;0.7546;1.7320;
598.2000;0.7586;1.7366;
598.5000;0.7562;1.7296;
598.8000;0.7578;1.7343;
599.1000;0.7578;1.7343;
599.4000;0.7530;1.7063;
599.7000;0.7570;1.7157;
600.0000;0.7562;1.7087;
600.3000;0.7603;1.7157;
600.6000;0.7546;1.7087;
600.9000;0.7424;1.6900;
601.2000;0.7350;1.6737;
601.5000;0.7212;1.6457;
601.8000;0.7082;1.6248;
602.1000;0.6976;1.6108;
602.4000;0.6895;1.6108;
602.7000;0.6748;1.5851;
603.0000;0.6659;1.5618;
603.3000;0.6577;1.5385;
603.6000;0.6504;1.5129;
603.9000;0.6414;1.4895;
604.2000;0.6406;1.4919;
604.5000;0.6349;1.4779;
604.8000;0.6260;1.4569;
605.1000;0.6203;1.4476;
605.4000;0.6154;1.4336;
605.7000;0.6113;1.4243;
606.0000;0.6081;1.4150;
606.3000;0.6040;1.4010;
606.6000;0.5991;1.3940;
606.9000;0.5975;1.3893;
607.2000;0.5991;1.3940;
607.5000;0.5893;1.3683;
607.8000;0.5861;1.3683;
608.1000;0.5845;1.3660;
608.4000;0.5796;1.3543;
608.7000;0.5796;1.3520;
609.0000;0.5820;1.3613;
609.3000;0.5820;1.3613;
609.6000;0.5722;1.3334;
609.9000;0.5690;1.3194;
610.2000;0.5665;1.3194;
610.5000;0.5625;1.3264;
610.8000;0.5674;1.3264;
611.1000;0.5625;1.3194;
611.4000;0.5584;1.3147;
611.7000;0.5592;1.3101;
612.0000;0.5584;1.3124;
612.3000;0.5551;1.3031;
612.6000;0.5543;1.3054;
612.9000;0.5527;1.3007;
613.2000;0.5438;1.2867;
613.5000;0.5454;1.2914;
613.8000;0.5462;1.2937;
614.1000;0.5454;1.2961;
614.4000;0.5446;1.3054;
614.7000;0.5429;1.3054;
615.0000;0.5421;1.3054;
615.3000;0.5397;1.3031;
615.6000;0.5381;1.3007;
615.9000;0.5397;1.2984;
616.2000;0.5372;1.2961;
616.5000;0.5340;1.2937;
616.8000;0.5348;1.2961;
617.1000;0.5250;1.2728;
617.4000;0.5332;1.2937;
617.7000;0.5307;1.2914;
618.0000;0.5381;1.2984;
618.3000;0.5299;1.2728;
618.6000;0.5299;1.2798;
618.9000;0.5283;1.2891;
619.2000;0.5283;1.2821;
619.5000;0.5283;1.2774;
619.8000;0.5291;1.2774;
620.1000;0.5267;1.2751;
620.4000;0.5250;1.2728;
620.7000;0.5234;1.2774;
621.0000;0.5218;1.2774;
621.3000;0.5242;1.2821;
621.6000;0.5193;1.2844;
621.9000;0.5210;1.2891;
622.2000;0.5128;1.2728;
622.5000;0.5193;1.2844;
622.8000;0.5177;1.2798;
623.1000;0.5161;1.2681;
623.4000;0.5185;1.2728;
623.7000;0.5079;1.2541;
624.0000;0.5153;1.2704;
624.3000;0.5136;1.2611;
624.6000;0.5120;1.2541;
624.9000;0.5136;1.2611;
625.2000;0.5128;1.2728;
625.5000;0.5120;1.2751;
625.8000;0.5144;1.2798;
626.1000;0.5096;1.2704;
626.4000;0.5128;1.2704;
626.7000;0.5096;1.2588;
627.0000;0.5079;1.2634;
627.3000;0.5128;1.2798;
627.6000;0.5104;1.2681;
627.9000;0.5096;1.2681;
628.2000;0.5071;1.2634;
628.5000;0.5079;1.2611;
628.8000;0.5088;1.2634;
629.1000;0.5079;1.2588;
629.4000;0.4998;1.2401;
629.7000;0.5063;1.2518;
630.0000;0.5071;1.2541;
630.3000;0.5063;1.2541;
630.6000;0.5047;1.2471;
630.9000;0.5055;1.2588;
631.2000;0.5022;1.2541;
631.5000;0.5039;1.2658;
631.8000;0.5039;1.2634;
632.1000;0.5022;1.2611;
632.4000;0.5104;1.2821;
632.7000;0.5039;1.2658;
633.0000;0.5031;1.2588;
633.3000;0.4998;1.2541;
633.6000;0.5022;1.2611;
633.9000;0.5022;1.2611;
634.2000;0.5006;1.2658;
634.5000;0.5014;1.2704;
634.8000;0.4998;1.2728;
635.1000;0.4982;1.2681;
635.4000;0.4998;1.2728;
635.7000;0.4982;1.2798;
636.0000;0.4998;1.2798;
636.3000;0.4998;1.2844;
636.6000;0.5039;1.3007;
636.9000;0.4998;1.2821;
637.2000;0.4982;1.2728;
637.5000;0.4998;1.2704;
637.8000;0.4925;1.2471;
638.1000;0.4974;1.2634;
638.4000;0.4965;1.2658;
638.7000;0.4974;1.2751;
639.0000;0.4974;1.2798;
639.3000;0.4949;1.2774;
639.6000;0.5031;1.2867;
639.9000;0.4957;1.2681;
640.2000;0.4974;1.2751;
640.5000;0.4941;1.2728;
640.8000;0.4917;1.2658;
641.1000;0.4933;1.2774;
641.4000;0.4933;1.2798;
641.7000;0.4908;1.2728;
642.0000;0.4925;1.2751;
642.3000;0.4933;1.2844;
642.6000;0.4949;1.2821;
642.9000;0.4957;1.2751;
643.2000;0.4908;1.2681;
643.5000;0.4925;1.2728;
643.8000;0.4917;1.2611;
644.1000;0.4917;1.2588;
644.4000;0.4892;1.2541;
644.7000;0.4900;1.2564;
645.0000;0.4900;1.2564;
645.3000;0.4860;1.2471;
645.6000;0.4860;1.2401;
645.9000;0.4892;1.2471;
646.2000;0.4860;1.2471;
646.5000;0.4884;1.2588;
646.8000;0.4884;1.2634;
647.1000;0.4917;1.2751;
647.4000;0.4876;1.2564;
647.7000;0.4900;1.2658;
648.0000;0.4892;1.2588;
648.3000;0.4876;1.2541;
648.6000;0.4868;1.2541;
648.9000;0.4900;1.2634;
649.2000;0.4884;1.2658;
649.5000;0.4876;1.2658;
649.8000;0.4892;1.2634;
650.1000;0.4884;1.2588;
650.4000;0.4925;1.2611;
650.7000;0.4868;1.2564;
651.0000;0.4884;1.2658;
651.3000;0.4860;1.2658;
651.6000;0.4876;1.2751;
651.9000;0.4884;1.2774;
652.2000;0.4851;1.2728;
652.5000;0.4868;1.2681;
652.8000;0.4860;1.2728;
653.1000;0.4884;1.2751;
653.4000;0.4811;1.2704;
653.7000;0.4900;1.2774;
654.0000;0.4860;1.2728;
654.3000;0.4843;1.2634;
654.6000;0.4860;1.2728;
654.9000;0.4835;1.2728;
655.2000;0.4835;1.2821;
655.5000;0.4876;1.2891;
655.8000;0.4835;1.2658;
656.1000;0.4827;1.2634;
656.4000;0.4835;1.2704;
656.7000;0.4860;1.2821;
657.0000;0.4835;1.2728;
657.3000;0.4827;1.2751;
657.6000;0.4843;1.2728;
657.9000;0.4819;1.2634;
658.2000;0.4851;1.2634;
658.5000;0.4819;1.2564;
658.8000;0.4803;1.2611;
659.1000;0.4819;1.2611;
659.4000;0.4819;1.2564;
659.7000;0.4851;1.2518;
660.0000;0.4803;1.2471;
660.3000;0.4803;1.2425;
660.6000;0.4811;1.2495;
660.9000;0.4794;1.2471;
661.2000;0.4794;1.2518;
661.5000;0.4811;1.2518;
661.8000;0.4803;1.2564;
662.1000;0.4786;1.2541;
662.4000;0.4803;1.2564;
662.7000;0.4746;1.2495;
663.0000;0.4827;1.2681;
663.3000;0.4803;1.2564;
663.6000;0.4811;1.2564;
663.9000;0.4786;1.2564;
664.2000;0.4746;1.2448;
664.5000;0.4803;1.2518;
664.8000;0.4754;1.2425;
665.1000;0.4843;1.2658;
665.4000;0.4770;1.2448;
665.7000;0.4794;1.2518;
666.0000;0.4794;1.2495;
666.3000;0.4762;1.2378;
666.6000;0.4770;1.2355;
666.9000;0.4803;1.2425;
667.2000;0.4770;1.2448;
667.5000;0.4754;1.2425;
667.8000;0.4762;1.2448;
668.1000;0.4778;1.2495;
668.4000;0.4778;1.2518;
668.7000;0.4762;1.2564;
669.0000;0.4754;1.2728;
669.3000;0.4770;1.2867;
669.6000;0.4786;1.2844;
669.9000;0.4762;1.2751;
670.2000;0.4754;1.2751;
670.5000;0.4754;1.2704;
670.8000;0.4737;1.2611;
671.1000;0.4762;1.2704;
671.4000;0.4762;1.2751;
671.7000;0.4770;1.2774;
672.0000;0.4778;1.2821;
672.3000;0.4754;1.2728;
672.6000;0.4721;1.2658;
672.9000;0.4746;1.2728;
673.2000;0.4770;1.2751;
673.5000;0.4737;1.2681;
673.8000;0.4754;1.2704;
674.1000;0.4860;1.2937;
674.4000;0.4762;1.2658;
674.7000;0.4754;1.2634;
675.0000;0.4746;1.2681;
675.3000;0.4762;1.2704;
675.6000;0.4737;1.2611;
675.9000;0.4746;1.2681;
676.2000;0.4737;1.2681;
676.5000;0.4729;1.2704;
676.8000;0.4713;1.2751;
677.1000;0.4729;1.2774;
677.4000;0.4729;1.2751;
677.7000;0.4697;1.2704;
678.0000;0.4713;1.2774;
678.3000;0.4705;1.2681;
678.6000;0.4737;1.2728;
678.9000;0.4737;1.2728;
679.2000;0.4705;1.2658;
679.5000;0.4729;1.2681;
679.8000;0.4746;1.2681;
680.1000;0.4721;1.2681;
680.4000;0.4713;1.2634;
680.7000;0.4705;1.2634;
681.0000;0.4721;1.2751;
681.3000;0.4737;1.2798;
681.6000;0.4697;1.2681;
681.9000;0.4746;1.2798;
682.2000;0.4786;1.2867;
682.5000;0.4689;1.2564;
682.8000;0.4737;1.2681;
683.1000;0.4721;1.2611;
683.4000;0.4705;1.2541;
683.7000;0.4689;1.2518;
684.0000;0.4713;1.2588;
684.3000;0.4713;1.2495;
684.6000;0.4705;1.2611;
684.9000;0.4721;1.2681;
685.2000;0.4705;1.2588;
685.5000;0.4697;1.2634;
685.8000;0.4705;1.2634;
686.1000;0.4713;1.2634;
686.4000;0.4689;1.2611;
686.7000;0.4697;1.2541;
687.0000;0.4689;1.2425;
687.3000;0.4689;1.2471;
687.6000;0.4697;1.2401;
687.9000;0.4721;1.2495;
688.2000;0.4689;1.2401;
688.5000;0.4681;1.2471;
688.8000;0.4689;1.2495;
689.1000;0.4689;1.2425;
689.4000;0.4697;1.2495;
689.7000;0.4681;1.2448;
690.0000;0.4689;1.2495;
690.3000;0.4689;1.2471;
690.6000;0.4705;1.2588;
690.9000;0.4591;1.2308;
691.2000;0.4681;1.2541;
691.5000;0.4713;1.2681;
691.8000;0.4681;1.2541;
692.1000;0.4656;1.2471;
692.4000;0.4689;1.2564;
692.7000;0.4689;1.2681;
693.0000;0.4681;1.2681;
693.3000;0.4697;1.2704;
693.6000;0.4689;1.2588;
693.9000;0.4689;1.2588;
694.2000;0.4762;1.2798;
694.5000;0.4713;1.2704;
694.8000;0.4607;1.2541;
695.1000;0.4656;1.2728;
695.4000;0.4656;1.2751;
695.7000;0.4689;1.2821;
696.0000;0.4664;1.2704;
696.3000;0.4681;1.2681;
696.6000;0.4672;1.2704;
696.9000;0.4664;1.2704;
697.2000;0.4656;1.2611;
697.5000;0.4681;1.2728;
697.8000;0.4681;1.2634;
698.1000;0.4672;1.2681;
698.4000;0.4656;1.2681;
698.7000;0.4672;1.2704;
699.0000;0.4697;1.2774;
699.3000;0.4664;1.2681;
699.6000;0.4656;1.2611;
699.9000;0.4672;1.2588;
700.2000;0.4737;1.2937;
700.5000;0.4664;1.2867;
700.8000;0.4713;1.2937;
701.1000;0.4705;1.2937;
701.4000;0.4713;1.2937;
701.7000;0.4656;1.2844;
702.0000;0.4648;1.2774;
702.3000;0.4664;1.2728;
702.6000;0.4656;1.2704;
702.9000;0.4656;1.2728;
703.2000;0.4664;1.2728;
703.5000;0.4656;1.2681;
703.8000;0.4656;1.2681;
704.1000;0.4656;1.2704;
704.4000;0.4656;1.2658;
704.7000;0.4648;1.2658;
705.0000;0.4656;1.2611;
705.3000;0.4640;1.2681;
705.6000;0.4672;1.2634;
705.9000;0.4746;1.2774;
706.2000;0.4640;1.2541;
706.5000;0.4648;1.2564;
706.8000;0.4640;1.2611;
707.1000;0.4640;1.2658;
707.4000;0.4656;1.2704;
707.7000;0.4672;1.2751;
708.0000;0.4656;1.2704;
708.3000;0.4672;1.2751;
708.6000;0.4664;1.2704;
708.9000;0.4648;1.2774;
709.2000;0.4640;1.2774;
709.5000;0.4664;1.2844;
709.8000;0.4632;1.2658;
710.1000;0.4632;1.2681;
710.4000;0.4648;1.2634;
710.7000;0.4648;1.2681;
711.0000;0.4656;1.2728;
711.3000;0.4640;1.2681;
711.6000;0.4624;1.2704;
711.9000;0.4624;1.2728;
712.2000;0.4615;1.2681;
712.5000;0.4624;1.2611;
712.8000;0.4632;1.2658;
713.1000;0.4624;1.2611;
713.4000;0.4583;1.2588;
713.7000;0.4632;1.2681;
714.0000;0.4624;1.2634;
714.3000;0.4615;1.2564;
714.6000;0.4632;1.2564;
714.9000;0.4624;1.2541;
715.2000;0.4607;1.2448;
715.5000;0.4656;1.2564;
715.8000;0.4632;1.2518;
716.1000;0.4632;1.2518;
716.4000;0.4615;1.2518;
716.7000;0.4640;1.2588;
717.0000;0.4607;1.2471;
717.3000;0.4632;1.2425;
717.6000;0.4615;1.2331;
717.9000;0.4607;1.2285;
718.2000;0.4624;1.2355;
718.5000;0.4534;1.2215;
718.8000;0.4624;1.2471;
719.1000;0.4624;1.2448;
719.4000;0.4640;1.2518;
719.7000;0.4615;1.2564;
720.0000;0.4624;1.2588;
720.3000;0.4672;1.2774;
720.6000;0.4624;1.2611;
720.9000;0.4624;1.2611;
721.2000;0.4624;1.2658;
721.5000;0.4632;1.2681;
721.8000;0.4599;1.2541;
722.1000;0.4632;1.2588;
722.4000;0.4656;1.2611;
722.7000;0.4607;1.2401;
723.0000;0.4624;1.2448;
723.3000;0.4664;1.2611;
723.6000;0.4624;1.2495;
723.9000;0.4607;1.2425;
724.2000;0.4615;1.2541;
724.5000;0.4591;1.2611;
724.8000;0.4624;1.2704;
725.1000;0.4599;1.2704;
725.4000;0.4510;1.2448;
725.7000;0.4599;1.2704;
726.0000;0.4599;1.2564;
726.3000;0.4607;1.2611;
726.6000;0.4583;1.2541;
726.9000;0.4656;1.2751;
727.2000;0.4599;1.2704;
727.5000;0.4575;1.2588;
727.8000;0.4583;1.2611;
728.1000;0.4591;1.2681;
728.4000;0.4615;1.2634;
728.7000;0.4591;1.2588;
729.0000;0.4575;1.2634;
729.3000;0.4599;1.2774;
729.6000;0.4607;1.2728;
729.9000;0.4599;1.2704;
730.2000;0.4583;1.2634;
730.5000;0.4607;1.2774;
730.8000;0.4591;1.2728;
731.1000;0.4607;1.2821;
731.4000;0.4615;1.2821;
731.7000;0.4583;1.2751;
732.0000;0.4583;1.2821;
732.3000;0.4567;1.2867;
732.6000;0.4591;1.2844;
732.9000;0.4575;1.2914;
733.2000;0.4591;1.2937;
733.5000;0.4624;1.3031;
733.8000;0.4599;1.2914;
734.1000;0.4583;1.2961;
734.4000;0.4599;1.2937;
734.7000;0.4640;1.3077;
735.0000;0.4591;1.2937;
735.3000;0.4575;1.2961;
735.6000;0.4607;1.3031;
735.9000;0.4583;1.3007;
736.2000;0.4567;1.3054;
736.5000;0.4575;1.3101;
736.8000;0.4575;1.3101;
737.1000;0.4583;1.3077;
737.4000;0.4591;1.3124;
737.7000;0.4558;1.3054;
738.0000;0.4583;1.2937;
738.3000;0.4583;1.2891;
738.6000;0.4583;1.2961;
738.9000;0.4558;1.2891;
739.2000;0.4583;1.2937;
739.5000;0.4534;1.2844;
739.8000;0.4583;1.2867;
740.1000;0.4591;1.2961;
740.4000;0.4591;1.2891;
740.7000;0.4575;1.2867;
741.0000;0.4591;1.2891;
741.3000;0.4583;1.2961;
741.6000;0.4583;1.2891;
741.9000;0.4550;1.2751;
742.2000;0.4575;1.2821;
742.5000;0.4526;1.2728;
742.8000;0.4591;1.2844;
743.1000;0.4558;1.2821;
743.4000;0.4583;1.2914;
743.7000;0.4591;1.2867;
744.0000;0.4575;1.2844;
744.3000;0.4575;1.2821;
744.6000;0.4567;1.2867;
744.9000;0.4575;1.3007;
745.2000;0.4583;1.3031;
745.5000;0.4583;1.3077;
745.8000;0.4567;1.3077;
746.1000;0.4583;1.3171;
746.4000;0.4583;1.3101;
746.7000;0.4607;1.3194;
747.0000;0.4567;1.3054;
747.3000;0.4558;1.3007;
747.6000;0.4575;1.2984;
747.9000;0.4550;1.2937;
748.2000;0.4542;1.2891;
748.5000;0.4567;1.2798;
748.8000;0.4558;1.2774;
749.1000;0.4558;1.2821;
749.4000;0.4575;1.2867;
749.7000;0.4583;1.2798;
750.0000;0.4534;1.2704;
750.3000;0.4575;1.2774;
750.6000;0.4542;1.2751;
750.9000;0.4550;1.2774;
751.2000;0.4558;1.2798;
751.5000;0.4575;1.2751;
751.8000;0.4550;1.2774;
752.1000;0.4583;1.2867;
752.4000;0.4558;1.2844;
752.7000;0.4558;1.2844;
753.0000;0.4558;1.2867;
753.3000;0.4550;1.2891;
753.6000;0.4526;1.2751;
753.9000;0.4550;1.2867;
754.2000;0.4534;1.2798;
754.5000;0.4550;1.2891;
754.8000;0.4550;1.2984;
755.1000;0.4591;1.3124;
755.4000;0.4575;1.3031;
755.7000;0.4518;1.2867;
756.0000;0.4534;1.2821;
756.3000;0.4526;1.2821;
756.6000;0.4567;1.2798;
756.9000;0.4550;1.2914;
757.2000;0.4444;1.2658;
757.5000;0.4542;1.2844;
757.8000;0.4542;1.2914;
758.1000;0.4550;1.2867;
758.4000;0.4558;1.2798;
758.7000;0.4550;1.2774;
759.0000;0.4534;1.2821;
759.3000;0.4542;1.2798;
759.6000;0.4550;1.2798;
759.9000;0.4558;1.2867;
760.2000;0.4550;1.2891;
760.5000;0.4550;1.2867;
760.8000;0.4526;1.2798;
761.1000;0.4526;1.2681;
761.4000;0.4558;1.2728;
761.7000;0.4542;1.2798;
762.0000;0.4518;1.2774;
762.3000;0.4542;1.2867;
762.6000;0.4542;1.2891;
762.9000;0.4518;1.2844;
763.2000;0.4558;1.2891;
763.5000;0.4518;1.2844;
763.8000;0.4485;1.2774;
764.1000;0.4550;1.2821;
764.4000;0.4444;1.2518;
764.7000;0.4534;1.2774;
765.0000;0.4526;1.2751;
765.3000;0.4542;1.2844;
765.6000;0.4550;1.2798;
765.9000;0.4534;1.2751;
766.2000;0.4542;1.2798;
766.5000;0.4550;1.2867;
766.8000;0.4542;1.2844;
767.1000;0.4501;1.2728;
767.4000;0.4542;1.2867;
767.7000;0.4542;1.2914;
768.0000;0.4542;1.2914;
768.3000;0.4534;1.2891;
768.6000;0.4518;1.2844;
768.9000;0.4518;1.2844;
769.2000;0.4510;1.2867;
769.5000;0.4542;1.2891;
769.8000;0.4526;1.2891;
770.1000;0.4518;1.2914;
770.4000;0.4542;1.2867;
770.7000;0.4558;1.2891;
771.0000;0.4550;1.2751;
771.3000;0.4526;1.2658;
771.6000;0.4534;1.2704;
771.9000;0.4534;1.2751;
772.2000;0.4518;1.2728;
772.5000;0.4526;1.2728;
772.8000;0.4567;1.2751;
773.1000;0.4526;1.2728;
773.4000;0.4518;1.2681;
773.7000;0.4591;1.2891;
774.0000;0.4510;1.2728;
774.3000;0.4485;1.2658;
774.6000;0.4558;1.2681;
774.9000;0.4518;1.2634;
775.2000;0.4501;1.2611;
775.5000;0.4534;1.2704;
775.8000;0.4534;1.2704;
776.1000;0.4526;1.2704;
776.4000;0.4518;1.2704;
776.7000;0.4518;1.2751;
777.0000;0.4477;1.2704;
777.3000;0.4510;1.2774;
777.6000;0.4510;1.2658;
777.9000;0.4518;1.2634;
778.2000;0.4510;1.2681;
778.5000;0.4493;1.2704;
778.8000;0.4518;1.2774;
779.1000;0.4501;1.2821;
779.4000;0.4518;1.2798;
779.7000;0.4510;1.2798;
780.0000;0.4477;1.2634;
780.3000;0.4477;1.2588;
780.6000;0.4518;1.2658;
780.9000;0.4501;1.2611;
781.2000;0.4493;1.2611;
781.5000;0.4493;1.2541;
781.8000;0.4526;1.2541;
782.1000;0.4501;1.2495;
782.4000;0.4501;1.2518;
782.7000;0.4501;1.2518;
783.0000;0.4510;1.2518;
783.3000;0.4501;1.2611;
783.6000;0.4501;1.2658;
783.9000;0.4493;1.2634;
784.2000;0.4493;1.2634;
784.5000;0.4493;1.2611;
784.8000;0.4501;1.2728;
785.1000;0.4510;1.2844;
785.4000;0.4510;1.2728;
785.7000;0.4518;1.2681;
786.0000;0.4526;1.2728;
786.3000;0.4493;1.2681;
786.6000;0.4518;1.2704;
786.9000;0.4436;1.2425;
787.2000;0.4469;1.2495;
787.5000;0.4526;1.2681;
787.8000;0.4485;1.2541;
788.1000;0.4501;1.2634;
788.4000;0.4485;1.2611;
788.7000;0.4485;1.2611;
789.0000;0.4485;1.2634;
789.3000;0.4493;1.2681;
789.6000;0.4501;1.2774;
789.9000;0.4501;1.2728;
790.2000;0.4477;1.2728;
790.5000;0.4493;1.2774;
790.8000;0.4501;1.2751;
791.1000;0.4510;1.2751;
791.4000;0.4542;1.2821;
791.7000;0.4501;1.2751;
792.0000;0.4485;1.2844;
792.3000;0.4493;1.2914;
792.6000;0.4534;1.3031;
792.9000;0.4485;1.2914;
793.2000;0.4624;1.3240;
793.5000;0.4510;1.2984;
793.8000;0.4526;1.3077;
794.1000;0.4493;1.3007;
794.4000;0.4477;1.3077;
794.7000;0.4485;1.3077;
795.0000;0.4493;1.2984;
795.3000;0.4550;1.3077;
795.6000;0.4558;1.3101;
795.9000;0.4420;1.2774;
796.2000;0.4485;1.2914;
796.5000;0.4477;1.2844;
796.8000;0.4501;1.2891;
797.1000;0.4501;1.2821;
797.4000;0.4485;1.2728;
797.7000;0.4493;1.2728;
798.0000;0.4493;1.2774;
798.3000;0.4461;1.2774;
798.6000;0.4501;1.2891;
798.9000;0.4518;1.2891;
799.2000;0.4485;1.2821;
799.5000;0.4501;1.2891;
799.8000;0.4485;1.2798;
800.1000;0.4485;1.2867;
800.4000;0.4501;1.2914;
800.7000;0.4485;1.2891;
801.0000;0.4493;1.2937;
801.3000;0.4501;1.2867;
801.6000;0.4518;1.2844;
801.9000;0.4477;1.2751;
802.2000;0.4477;1.2704;
802.5000;0.4469;1.2774;
802.8000;0.4477;1.2774;
803.1000;0.4493;1.2891;
803.4000;0.4501;1.2891;
803.7000;0.4477;1.2844;
804.0000;0.4493;1.2821;
804.3000;0.4501;1.2867;
804.6000;0.4469;1.2751;
804.9000;0.4493;1.2914;
805.2000;0.4485;1.2867;
805.5000;0.4485;1.2937;
805.8000;0.4469;1.2891;
806.1000;0.4510;1.2961;
806.4000;0.4510;1.2937;
806.7000;0.4493;1.2844;
807.0000;0.4485;1.2774;
807.3000;0.4485;1.2751;
807.6000;0.4493;1.2821;
807.9000;0.4510;1.2774;
808.2000;0.4469;1.2658;
808.5000;0.4526;1.2728;
808.8000;0.4485;1.2658;
809.1000;0.4469;1.2658;
809.4000;0.4477;1.2681;
809.7000;0.4453;1.2681;
810.0000;0.4469;1.2681;
810.3000;0.4477;1.2728;
810.6000;0.4477;1.2774;
810.9000;0.4477;1.2821;
811.2000;0.4485;1.2844;
811.5000;0.4501;1.2867;
811.8000;0.4534;1.2984;
812.1000;0.4477;1.2728;
812.4000;0.4461;1.2588;
812.7000;0.4444;1.2611;
813.0000;0.4501;1.2751;
813.3000;0.4469;1.2704;
813.6000;0.4469;1.2634;
813.9000;0.4510;1.2751;
814.2000;0.4469;1.2774;
814.5000;0.4396;1.2611;
814.8000;0.4453;1.2751;
815.1000;0.4493;1.2728;
815.4000;0.4453;1.2634;
815.7000;0.4461;1.2681;
816.0000;0.4461;1.2798;
816.3000;0.4510;1.2891;
816.6000;0.4526;1.2937;
816.9000;0.4493;1.2937;
817.2000;0.4420;1.2704;
817.5000;0.4453;1.2774;
817.8000;0.4485;1.2914;
818.1000;0.4477;1.2844;
818.4000;0.4469;1.2914;
818.7000;0.4444;1.2937;
819.0000;0.4477;1.2961;
819.3000;0.4444;1.2891;
819.6000;0.4469;1.2914;
819.9000;0.4461;1.2867;
820.2000;0.4461;1.2914;
820.5000;0.4453;1.2891;
820.8000;0.4461;1.2914;
821.1000;0.4477;1.2891;
821.4000;0.4469;1.3031;
821.7000;0.4485;1.3077;
822.0000;0.4469;1.3054;
822.3000;0.4469;1.3031;
822.6000;0.4469;1.3007;
822.9000;0.4461;1.3007;
823.2000;0.4461;1.2937;
823.5000;0.4469;1.2961;
823.8000;0.4461;1.2914;
824.1000;0.4436;1.2821;
824.4000;0.4477;1.2937;
824.7000;0.4404;1.2798;
825.0000;0.4444;1.2914;
825.3000;0.4444;1.2867;
825.6000;0.4453;1.2937;
825.9000;0.4453;1.2914;
826.2000;0.4444;1.2751;
826.5000;0.4461;1.2774;
826.8000;0.4469;1.2821;
827.1000;0.4469;1.2867;
827.4000;0.4485;1.2891;
827.7000;0.4453;1.2867;
828.0000;0.4550;1.3031;
828.3000;0.4461;1.2751;
828.6000;0.4469;1.2751;
828.9000;0.4436;1.2704;
829.2000;0.4461;1.2681;
829.5000;0.4453;1.2704;
829.8000;0.4436;1.2798;
830.1000;0.4420;1.2798;
830.4000;0.4461;1.2821;
830.7000;0.4436;1.2821;
831.0000;0.4453;1.2681;
831.3000;0.4453;1.2728;
831.6000;0.4453;1.2658;
831.9000;0.4461;1.2681;
832.2000;0.4461;1.2751;
832.5000;0.4461;1.2728;
832.8000;0.4444;1.2704;
833.1000;0.4485;1.2774;
833.4000;0.4510;1.2891;
833.7000;0.4469;1.2937;
834.0000;0.4461;1.2914;
834.3000;0.4420;1.2867;
834.6000;0.4453;1.2914;
834.9000;0.4453;1.2961;
835.2000;0.4453;1.3077;
835.5000;0.4461;1.3054;
835.8000;0.4461;1.3007;
836.1000;0.4420;1.2821;
836.4000;0.4469;1.2937;
836.7000;0.4436;1.2914;
837.0000;0.4477;1.3124;
837.3000;0.4444;1.3124;
837.6000;0.4461;1.3147;
837.9000;0.4477;1.3007;
838.2000;0.4485;1.3077;
838.5000;0.4428;1.2891;
838.8000;0.4477;1.2961;
839.1000;0.4444;1.2891;
839.4000;0.4412;1.2844;
839.7000;0.4428;1.2937;
840.0000;0.4444;1.3007;
840.3000;0.4412;1.3007;
840.6000;0.4420;1.3101;
840.9000;0.4444;1.3194;
841.2000;0.4420;1.3194;
841.5000;0.4444;1.3171;
841.8000;0.4453;1.3147;
842.1000;0.4453;1.3147;
842.4000;0.4453;1.3124;
842.7000;0.4436;1.3124;
843.0000;0.4461;1.3147;
843.3000;0.4461;1.3217;
843.6000;0.4453;1.3124;
843.9000;0.4453;1.3124;
844.2000;0.4453;1.3264;
844.5000;0.4461;1.3334;
844.8000;0.4469;1.3287;
845.1000;0.4436;1.3264;
845.4000;0.4436;1.3171;
845.7000;0.4444;1.3171;
846.0000;0.4428;1.3194;
846.3000;0.4453;1.3101;
846.6000;0.4469;1.3101;
846.9000;0.4477;1.3101;
847.2000;0.4444;1.3054;
847.5000;0.4469;1.3101;
847.8000;0.4436;1.3031;
848.1000;0.4461;1.3147;
848.4000;0.4453;1.3124;
848.7000;0.4461;1.3077;
849.0000;0.4436;1.3054;
849.3000;0.4444;1.3054;
849.6000;0.4453;1.3101;
849.9000;0.4453;1.3007;
850.2000;0.4469;1.3031;
850.5000;0.4501;1.3124;
850.8000;0.4428;1.2867;
851.1000;0.4493;1.3054;
851.4000;0.4444;1.2844;
851.7000;0.4436;1.2774;
852.0000;0.4436;1.2728;
852.3000;0.4428;1.2751;
852.6000;0.4428;1.2844;
852.9000;0.4428;1.2867;
853.2000;0.4461;1.2867;
853.5000;0.4461;1.2844;
853.8000;0.4461;1.2891;
854.1000;0.4436;1.2844;
854.4000;0.4428;1.2728;
854.7000;0.4485;1.2891;
855.0000;0.4436;1.2798;
855.3000;0.4428;1.2681;
855.6000;0.4436;1.2751;
855.9000;0.4453;1.2798;
856.2000;0.4461;1.2891;
856.5000;0.4453;1.2821;
856.8000;0.4444;1.2821;
857.1000;0.4444;1.2844;
857.4000;0.4420;1.2821;
857.7000;0.4444;1.2844;
858.0000;0.4436;1.2821;
858.3000;0.4420;1.2844;
858.6000;0.4518;1.3147;
858.9000;0.4420;1.2961;
859.2000;0.4444;1.2961;
859.5000;0.4436;1.2937;
859.8000;0.4436;1.2961;
860.1000;0.4485;1.3171;
860.4000;0.4420;1.2961;
860.7000;0.4436;1.2937;
861.0000;0.4444;1.2984;
861.3000;0.4444;1.3007;
861.6000;0.4444;1.3101;
861.9000;0.4444;1.3031;
862.2000;0.4420;1.2961;
862.5000;0.4428;1.2984;
862.8000;0.4453;1.3054;
863.1000;0.4436;1.3101;
863.4000;0.4453;1.3007;
863.7000;0.4444;1.3054;
864.0000;0.4444;1.2984;
864.3000;0.4436;1.2937;
864.6000;0.4477;1.3147;
864.9000;0.4404;1.3031;
865.2000;0.4428;1.3054;
865.5000;0.4436;1.3077;
865.8000;0.4420;1.2984;
866.1000;0.4428;1.3031;
866.4000;0.4428;1.3124;
866.7000;0.4428;1.3101;
867.0000;0.4420;1.3124;
867.3000;0.4428;1.3031;
867.6000;0.4436;1.3054;
867.9000;0.4436;1.2984;
868.2000;0.4436;1.3031;
868.5000;0.4444;1.3101;
868.8000;0.4412;1.3007;
869.1000;0.4444;1.3124;
869.4000;0.4436;1.3124;
869.7000;0.4436;1.3054;
870.0000;0.4428;1.2984;
870.3000;0.4420;1.2937;
870.6000;0.4436;1.3007;
870.9000;0.4444;1.3007;
871.2000;0.4420;1.2961;
871.5000;0.4412;1.2961;
871.8000;0.4428;1.3007;
872.1000;0.4396;1.3007;
872.4000;0.4404;1.3031;
872.7000;0.4420;1.3124;
873.0000;0.4428;1.3124;
873.3000;0.4396;1.2984;
873.6000;0.4428;1.2961;
873.9000;0.4428;1.2961;
874.2000;0.4420;1.2984;
874.5000;0.4387;1.2891;
874.8000;0.4371;1.2844;
875.1000;0.4412;1.2961;
875.4000;0.4428;1.3031;
875.7000;0.4420;1.2937;
876.0000;0.4404;1.2844;
876.3000;0.4420;1.2961;
876.6000;0.4428;1.3007;
876.9000;0.4420;1.2984;
877.2000;0.4404;1.2867;
877.5000;0.4306;1.2564;
877.8000;0.4444;1.2914;
878.1000;0.4404;1.2867;
878.4000;0.4428;1.2844;
878.7000;0.4404;1.2798;
879.0000;0.4436;1.2867;
879.3000;0.4428;1.2891;
879.6000;0.4420;1.2844;
879.9000;0.4420;1.2844;
880.2000;0.4428;1.2891;
880.5000;0.4412;1.2774;
880.8000;0.4428;1.2844;
881.1000;0.4412;1.2914;
881.4000;0.4371;1.2821;
881.7000;0.4330;1.2728;
882.0000;0.4379;1.2937;
882.3000;0.4412;1.2937;
882.6000;0.4404;1.2844;
882.9000;0.4420;1.2844;
883.2000;0.4436;1.2891;
883.5000;0.4510;1.3101;
883.8000;0.4412;1.2867;
884.1000;0.4420;1.2891;
884.4000;0.4436;1.2891;
884.7000;0.4412;1.2798;
885.0000;0.4485;1.2937;
885.3000;0.4420;1.2821;
885.6000;0.4420;1.2844;
885.9000;0.4428;1.2821;
886.2000;0.4420;1.2751;
886.5000;0.4428;1.2798;
886.8000;0.4347;1.2564;
887.1000;0.4412;1.2728;
887.4000;0.4420;1.2751;
887.7000;0.4330;1.2564;
888.0000;0.4461;1.2844;
888.3000;0.4444;1.2821;
888.6000;0.4469;1.2867;
888.9000;0.4428;1.2704;
889.2000;0.4436;1.2728;
889.5000;0.4477;1.2867;
889.8000;0.4412;1.2704;
890.1000;0.4436;1.2774;
890.4000;0.4387;1.2704;
890.7000;0.4412;1.2751;
891.0000;0.4412;1.2821;
891.3000;0.4404;1.2774;
891.6000;0.4444;1.2844;
891.9000;0.4412;1.2704;
892.2000;0.4420;1.2844;
892.5000;0.4404;1.2844;
892.8000;0.4371;1.2704;
893.1000;0.4412;1.2751;
893.4000;0.4420;1.2728;
893.7000;0.4396;1.2704;
894.0000;0.4412;1.2774;
894.3000;0.4412;1.2728;
894.6000;0.4396;1.2798;
894.9000;0.4404;1.2891;
895.2000;0.4404;1.2844;
895.5000;0.4420;1.2821;
895.8000;0.4412;1.2798;
896.1000;0.4436;1.2844;
896.4000;0.4412;1.2774;
896.7000;0.4428;1.2751;
897.0000;0.4420;1.2728;
897.3000;0.4371;1.2564;
897.6000;0.4387;1.2564;
897.9000;0.4396;1.2704;
898.2000;0.4420;1.2774;
898.5000;0.4404;1.2844;
898.8000;0.4420;1.2844;
899.1000;0.4453;1.2937;
899.4000;0.4387;1.2891;
899.7000;0.4420;1.3007;
900.0000;0.4420;1.2961;
900.3000;0.4404;1.2914;
900.6000;0.4404;1.2867;
900.9000;0.4412;1.2844;
901.2000;0.4412;1.2891;
901.5000;0.4379;1.2844;
901.8000;0.4412;1.2937;
902.1000;0.4347;1.2867;
902.4000;0.4396;1.2961;
902.7000;0.4387;1.2984;
903.0000;0.4404;1.3101;
903.3000;0.4379;1.3054;
903.6000;0.4387;1.3171;
903.9000;0.4404;1.3194;
904.2000;0.4387;1.3217;
904.5000;0.4387;1.3171;
904.8000;0.4436;1.3124;
905.1000;0.4330;1.2867;
905.4000;0.4420;1.3124;
905.7000;0.4379;1.3171;
906.0000;0.4404;1.3287;
906.3000;0.4420;1.3380;
906.6000;0.4363;1.3240;
906.9000;0.4404;1.3334;
907.2000;0.4420;1.3310;
907.5000;0.4420;1.3217;
907.8000;0.4412;1.3194;
908.1000;0.4404;1.3194;
908.4000;0.4420;1.3264;
908.7000;0.4412;1.3147;
909.0000;0.4428;1.3194;
909.3000;0.4420;1.3217;
909.6000;0.4420;1.3171;
909.9000;0.4420;1.3171;
910.2000;0.4428;1.3217;
910.5000;0.4387;1.3171;
910.8000;0.4420;1.3124;
911.1000;0.4412;1.3147;
911.4000;0.4412;1.3124;
911.7000;0.4412;1.3054;
912.0000;0.4404;1.2984;
912.3000;0.4412;1.3007;
912.6000;0.4420;1.3007;
912.9000;0.4387;1.2891;
913.2000;0.4396;1.2961;
913.5000;0.4404;1.3007;
913.8000;0.4387;1.2914;
914.1000;0.4379;1.2961;
914.4000;0.4379;1.2961;
914.7000;0.4396;1.3007;
915.0000;0.4355;1.2867;
915.3000;0.4412;1.3054;
915.6000;0.4396;1.2984;
915.9000;0.4404;1.2961;
916.2000;0.4461;1.3217;
916.5000;0.4396;1.3054;
916.8000;0.4387;1.3007;
917.1000;0.4339;1.2867;
917.4000;0.4396;1.2984;
917.7000;0.4444;1.3101;
918.0000;0.4396;1.3007;
918.3000;0.4396;1.2914;
918.6000;0.4387;1.2914;
918.9000;0.4396;1.2891;
919.2000;0.4404;1.2867;
919.5000;0.4412;1.2914;
919.8000;0.4330;1.2844;
920.1000;0.4453;1.3077;
920.4000;0.4404;1.2914;
920.7000;0.4371;1.2867;
921.0000;0.4387;1.2984;
921.3000;0.4420;1.3124;
921.6000;0.4379;1.3031;
921.9000;0.4387;1.3054;
922.2000;0.4396;1.3031;
922.5000;0.4404;1.3077;
922.8000;0.4404;1.3054;
923.1000;0.4436;1.3124;
923.4000;0.4371;1.3007;
923.7000;0.4371;1.3007;
924.0000;0.4396;1.3054;
924.3000;0.4396;1.3031;
924.6000;0.4396;1.2961;
924.9000;0.4387;1.2984;
925.2000;0.4379;1.2984;
925.5000;0.4404;1.3007;
925.8000;0.4404;1.3007;
926.1000;0.4371;1.2937;
926.4000;0.4396;1.3007;
926.7000;0.4379;1.3031;
927.0000;0.4387;1.3077;
927.3000;0.4404;1.3101;
927.6000;0.4379;1.2984;
927.9000;0.4396;1.2961;
928.2000;0.4396;1.2961;
928.5000;0.4396;1.2914;
928.8000;0.4363;1.2891;
929.1000;0.4387;1.2937;
929.4000;0.4371;1.2867;
929.7000;0.4387;1.2937;
930.0000;0.4412;1.2961;
930.3000;0.4436;1.2914;
930.6000;0.4404;1.2844;
930.9000;0.4396;1.2867;
931.2000;0.4412;1.2914;
931.5000;0.4412;1.2937;
931.8000;0.4387;1.2937;
932.1000;0.4420;1.3054;
932.4000;0.4363;1.2867;
932.7000;0.4387;1.2961;
933.0000;0.4404;1.3054;
933.3000;0.4387;1.3077;
933.6000;0.4355;1.2961;
933.9000;0.4371;1.3101;
934.2000;0.4396;1.3194;
934.5000;0.4379;1.3124;
934.8000;0.4379;1.3101;
935.1000;0.4379;1.3101;
935.4000;0.4396;1.3054;
935.7000;0.4404;1.2937;
936.0000;0.4379;1.2891;
936.3000;0.4371;1.2891;
936.6000;0.4404;1.3007;
936.9000;0.4379;1.2937;
937.2000;0.4379;1.2891;
937.5000;0.4387;1.2961;
937.8000;0.4412;1.3031;
938.1000;0.4412;1.3077;
938.4000;0.4387;1.3077;
938.7000;0.4387;1.3101;
939.0000;0.4396;1.3054;
939.3000;0.4404;1.3054;
939.6000;0.4396;1.3031;
939.9000;0.4379;1.2961;
940.2000;0.4396;1.3054;
940.5000;0.4396;1.3031;
940.8000;0.4355;1.2937;
941.1000;0.4404;1.3054;
941.4000;0.4379;1.3124;
941.7000;0.4404;1.3147;
942.0000;0.4404;1.3217;
942.3000;0.4436;1.3264;
942.6000;0.4371;1.3171;
942.9000;0.4387;1.3171;
943.2000;0.4379;1.3171;
943.5000;0.4379;1.3124;
943.8000;0.4371;1.3124;
944.1000;0.4347;1.3054;
944.4000;0.4379;1.3101;
944.7000;0.4371;1.3007;
945.0000;0.4396;1.3101;
945.3000;0.4371;1.3101;
945.6000;0.4396;1.3124;
945.9000;0.4379;1.2984;
946.2000;0.4387;1.3054;
946.5000;0.4379;1.3007;
946.8000;0.4412;1.3124;
947.1000;0.4379;1.3077;
947.4000;0.4396;1.3054;
947.7000;0.4404;1.3007;
948.0000;0.4396;1.2961;
948.3000;0.4396;1.2961;
948.6000;0.4355;1.2891;
948.9000;0.4371;1.2937;
949.2000;0.4379;1.2867;
949.5000;0.4387;1.2821;
949.8000;0.4387;1.2867;
950.1000;0.4371;1.2891;
950.4000;0.4371;1.2844;
950.7000;0.4379;1.2867;
951.0000;0.4379;1.2891;
951.3000;0.4371;1.2891;
951.6000;0.4387;1.3007;
951.9000;0.4379;1.2984;
952.2000;0.4371;1.2891;
952.5000;0.4371;1.2961;
952.8000;0.4379;1.3031;
953.1000;0.4396;1.3101;
953.4000;0.4387;1.2961;
953.7000;0.4371;1.2891;
954.0000;0.4379;1.2984;
954.3000;0.4347;1.2961;
954.6000;0.4379;1.3031;
954.9000;0.4387;1.3031;
955.2000;0.4404;1.3054;
955.5000;0.4387;1.2984;
955.8000;0.4387;1.2961;
956.1000;0.4379;1.3031;
956.4000;0.4387;1.2984;
956.7000;0.4363;1.2984;
957.0000;0.4379;1.2984;
957.3000;0.4371;1.2961;
957.6000;0.4371;1.2937;
957.9000;0.4371;1.2914;
958.2000;0.4347;1.2867;
958.5000;0.4379;1.2937;
958.8000;0.4379;1.2961;
959.1000;0.4396;1.3054;
959.4000;0.4477;1.3217;
959.7000;0.4387;1.3007;
960.0000;0.4379;1.3054;
960.3000;0.4379;1.3007;
960.6000;0.4428;1.3194;
960.9000;0.4371;1.3031;
961.2000;0.4379;1.3031;
961.5000;0.4371;1.3031;
961.8000;0.4379;1.3054;
962.1000;0.4363;1.3031;
962.4000;0.4396;1.3054;
962.7000;0.4387;1.2984;
963.0000;0.4379;1.2961;
963.3000;0.4404;1.2914;
963.6000;0.4387;1.2867;
963.9000;0.4387;1.2867;
964.2000;0.4387;1.2821;
964.5000;0.4387;1.2914;
964.8000;0.4379;1.2867;
965.1000;0.4396;1.2867;
965.4000;0.4387;1.2937;
965.7000;0.4363;1.3031;
966.0000;0.4371;1.3054;
966.3000;0.4306;1.2891;
966.6000;0.4371;1.3007;
966.9000;0.4379;1.3054;
967.2000;0.4371;1.3101;
967.5000;0.4404;1.3171;
967.8000;0.4339;1.3007;
968.1000;0.4371;1.3054;
968.4000;0.4387;1.3054;
968.7000;0.4379;1.3054;
969.0000;0.4387;1.3007;
969.3000;0.4363;1.2891;
969.6000;0.4306;1.2821;
969.9000;0.4387;1.2937;
970.2000;0.4379;1.2984;
970.5000;0.4347;1.3054;
970.8000;0.4387;1.3217;
971.1000;0.4387;1.3147;
971.4000;0.4396;1.3147;
971.7000;0.4379;1.3101;
972.0000;0.4363;1.3054;
972.3000;0.4420;1.3124;
972.6000;0.4387;1.3054;
972.9000;0.4379;1.2961;
973.2000;0.4396;1.3007;
973.5000;0.4371;1.2867;
973.8000;0.4461;1.3124;
974.1000;0.4298;1.2728;
974.4000;0.4339;1.2937;
974.7000;0.4371;1.3031;
975.0000;0.4379;1.3007;
975.3000;0.4371;1.2984;
975.6000;0.4363;1.2961;
975.9000;0.4371;1.2984;
976.2000;0.4379;1.2937;
976.5000;0.4371;1.2867;
976.8000;0.4355;1.2821;
977.1000;0.4363;1.2891;
977.4000;0.4347;1.2867;
977.7000;0.4387;1.3007;
978.0000;0.4404;1.3031;
978.3000;0.4355;1.2937;
978.6000;0.4379;1.2914;
978.9000;0.4330;1.2774;
979.2000;0.4379;1.2844;
979.5000;0.4347;1.2891;
979.8000;0.4298;1.2774;
980.1000;0.4371;1.2937;
980.4000;0.4396;1.2867;
980.7000;0.4371;1.2821;
981.0000;0.4379;1.2891;
981.3000;0.4379;1.3077;
981.6000;0.4371;1.2961;
981.9000;0.4379;1.2984;
982.2000;0.4363;1.2914;
982.5000;0.4396;1.2984;
982.8000;0.4379;1.2984;
983.1000;0.4363;1.3101;
983.4000;0.4396;1.3171;
983.7000;0.4436;1.3217;
984.0000;0.4396;1.3147;
984.3000;0.4371;1.3054;
984.6000;0.4371;1.3054;
984.9000;0.4404;1.3171;
985.2000;0.4347;1.3031;
985.5000;0.4363;1.2984;
985.8000;0.4444;1.3217;
986.1000;0.4339;1.2937;
986.4000;0.4387;1.3007;
986.7000;0.4404;1.2891;
987.0000;0.4355;1.2821;
987.3000;0.4339;1.2821;
987.6000;0.4363;1.2914;
987.9000;0.4379;1.2984;
988.2000;0.4396;1.3007;
988.5000;0.4330;1.2821;
988.8000;0.4379;1.3054;
989.1000;0.4371;1.2984;
989.4000;0.4469;1.3310;
989.7000;0.4371;1.3007;
990.0000;0.4371;1.2914;
990.3000;0.4339;1.2844;
990.6000;0.4363;1.2914;
990.9000;0.4290;1.2798;
991.2000;0.4371;1.3054;
991.5000;0.4371;1.3007;
991.8000;0.4347;1.2984;
992.1000;0.4339;1.3077;
992.4000;0.4379;1.3171;
992.7000;0.4387;1.3147;
993.0000;0.4387;1.3194;
993.3000;0.4355;1.3124;
993.6000;0.4339;1.2961;
993.9000;0.4339;1.3007;
994.2000;0.4396;1.3147;
994.5000;0.4436;1.3194;
994.8000;0.4371;1.3054;
995.1000;0.4379;1.3101;
995.4000;0.4355;1.3077;
995.7000;0.4363;1.3171;
996.0000;0.4379;1.3147;
996.3000;0.4347;1.3031;
996.6000;0.4363;1.3031;
996.9000;0.4363;1.3054;
997.2000;0.4363;1.3054;
997.5000;0.4347;1.3171;
997.8000;0.4347;1.3171;
998.1000;0.4420;1.3357;
998.4000;0.4347;1.3194;
998.7000;0.4404;1.3240;
999.0000;0.4404;1.3171;
999.3000;0.4379;1.3101;
999.6000;0.4371;1.3124;
999.9000;0.4371;1.3171;
1000.2000;0.4339;1.3031;
1000.5000;0.4355;1.3007;
1000.8000;0.4314;1.2961;
1001.1000;0.4355;1.3124;
1001.4000;0.4420;1.3194;
1001.7000;0.4355;1.3101;
1002.0000;0.4355;1.3077;
1002.3000;0.4412;1.3147;
1002.6000;0.4379;1.3077;
1002.9000;0.4371;1.3077;
1003.2000;0.4371;1.3031;
1003.5000;0.4330;1.3007;
1003.8000;0.4387;1.3217;
1004.1000;0.4371;1.3031;
1004.4000;0.4379;1.3101;
1004.7000;0.4265;1.2798;
1005.0000;0.4363;1.2961;
1005.3000;0.4347;1.2867;
1005.6000;0.4371;1.2914;
1005.9000;0.4379;1.2937;
1006.2000;0.4355;1.2937;
1006.5000;0.4363;1.3007;
1006.8000;0.4371;1.2961;
1007.1000;0.4371;1.2961;
1007.4000;0.4371;1.2891;
1007.7000;0.4339;1.2751;
1008.0000;0.4347;1.2844;
1008.3000;0.4339;1.2867;
1008.6000;0.4355;1.2914;
1008.9000;0.4355;1.2914;
1009.2000;0.4355;1.2891;
1009.5000;0.4371;1.2867;
1009.8000;0.4330;1.2658;
1010.1000;0.4363;1.2867;
1010.4000;0.4363;1.2961;
1010.7000;0.4420;1.3054;
1011.0000;0.4387;1.2984;
1011.3000;0.4371;1.2961;
1011.6000;0.4355;1.2984;
1011.9000;0.4355;1.3101;
1012.2000;0.4379;1.3147;
1012.5000;0.4379;1.3171;
1012.8000;0.4347;1.3101;
1013.1000;0.4363;1.3077;
1013.4000;0.4371;1.3240;
1013.7000;0.4428;1.3310;
1014.0000;0.4355;1.3101;
1014.3000;0.4355;1.3101;
1014.6000;0.4355;1.3101;
1014.9000;0.4371;1.3101;
1015.2000;0.4363;1.3077;
1015.5000;0.4355;1.3054;
1015.8000;0.4371;1.3077;
1016.1000;0.4428;1.3171;
1016.4000;0.4404;1.3101;
1016.7000;0.4363;1.3054;
1017.0000;0.4371;1.3007;
1017.3000;0.4363;1.3031;
1017.6000;0.4355;1.3007;
1017.9000;0.4371;1.3054;
1018.2000;0.4347;1.2961;
1018.5000;0.4396;1.3054;
1018.8000;0.4371;1.3077;
1019.1000;0.4330;1.2961;
1019.4000;0.4355;1.3031;
1019.7000;0.4379;1.3054;
1020.0000;0.4355;1.2914;
1020.3000;0.4363;1.2914;
1020.6000;0.4339;1.2937;
1020.9000;0.4371;1.3007;
1021.2000;0.4355;1.2914;
1021.5000;0.4355;1.2867;
1021.8000;0.4371;1.2914;
1022.1000;0.4363;1.2891;
1022.4000;0.4363;1.2937;
1022.7000;0.4379;1.3007;
1023.0000;0.4355;1.2984;
1023.3000;0.4379;1.3054;
1023.6000;0.4363;1.2961;
1023.9000;0.4355;1.2937;
1024.2000;0.4355;1.3007;
1024.5000;0.4347;1.2937;
1024.8000;0.4379;1.2961;
1025.1000;0.4355;1.2984;
1025.4000;0.4371;1.3007;
1025.7000;0.4379;1.3077;
1026.0000;0.4379;1.3147;
1026.3000;0.4371;1.3101;
1026.6000;0.4363;1.3124;
1026.9000;0.4347;1.3124;
1027.2000;0.4371;1.3194;
1027.5000;0.4355;1.3124;
1027.8000;0.4379;1.3194;
1028.1000;0.4330;1.3007;
1028.4000;0.4355;1.3031;
1028.7000;0.4347;1.3031;
1029.0000;0.4371;1.3054;
1029.3000;0.4363;1.3031;
1029.6000;0.4387;1.3031;
1029.9000;0.4371;1.2961;
1030.2000;0.4371;1.2937;
1030.5000;0.4363;1.2961;
1030.8000;0.4355;1.3054;
1031.1000;0.4371;1.3124;
1031.4000;0.4363;1.3031;
1031.7000;0.4339;1.2844;
1032.0000;0.4355;1.2891;
1032.3000;0.4339;1.2867;
1032.6000;0.4330;1.2821;
1032.9000;0.4339;1.2891;
1033.2000;0.4355;1.2937;
1033.5000;0.4347;1.2914;
1033.8000;0.4339;1.2891;
1034.1000;0.4347;1.2961;
1034.4000;0.4363;1.3054;
1034.7000;0.4347;1.3054;
1035.0000;0.4371;1.3077;
1035.3000;0.4355;1.3124;
1035.6000;0.4396;1.3171;
1035.9000;0.4347;1.3077;
1036.2000;0.4412;1.3357;
1036.5000;0.4371;1.3217;
1036.8000;0.4330;1.3007;
1037.1000;0.4322;1.3031;
1037.4000;0.4363;1.3217;
1037.7000;0.4347;1.3194;
1038.0000;0.4355;1.3194;
1038.3000;0.4339;1.3240;
1038.6000;0.4355;1.3287;
1038.9000;0.4363;1.3334;
1039.2000;0.4371;1.3380;
1039.5000;0.4363;1.3287;
1039.8000;0.4396;1.3264;
1040.1000;0.4371;1.3287;
1040.4000;0.4363;1.3217;
1040.7000;0.4363;1.3240;
1041.0000;0.4363;1.3171;
1041.3000;0.4355;1.3077;
1041.6000;0.4355;1.3077;
1041.9000;0.4339;1.3031;
1042.2000;0.4355;1.3171;
1042.5000;0.4371;1.3194;
1042.8000;0.4363;1.3147;
1043.1000;0.4387;1.3147;
1043.4000;0.4339;1.3077;
1043.7000;0.4347;1.3101;
1044.0000;0.4371;1.3264;
1044.3000;0.4355;1.3264;
1044.6000;0.4330;1.3217;
1044.9000;0.4387;1.3287;
1045.2000;0.4347;1.3147;
1045.5000;0.4347;1.3124;
1045.8000;0.4355;1.3077;
1046.1000;0.4347;1.3031;
1046.4000;0.4339;1.3007;
1046.7000;0.4371;1.3031;
1047.0000;0.4355;1.3007;
1047.3000;0.4355;1.2937;
1047.6000;0.4347;1.2937;
1047.9000;0.4371;1.2984;
1048.2000;0.4347;1.3007;
1048.5000;0.4355;1.3007;
1048.8000;0.4355;1.2914;
1049.1000;0.4379;1.2937;
1049.4000;0.4363;1.2891;
1049.7000;0.4355;1.3007;
1050.0000;0.4355;1.3077;
1050.3000;0.4444;1.3334;
1050.6000;0.4363;1.3147;
1050.9000;0.4355;1.3124;
1051.2000;0.4330;1.3077;
1051.5000;0.4347;1.3171;
1051.8000;0.4371;1.3171;
1052.1000;0.4371;1.3147;
1052.4000;0.4355;1.3077;
1052.7000;0.4363;1.3124;
1053.0000;0.4355;1.3217;
1053.3000;0.4355;1.3171;
1053.6000;0.4330;1.3007;
1053.9000;0.4347;1.3031;
1054.2000;0.4347;1.3054;
1054.5000;0.4363;1.3171;
1054.8000;0.4347;1.3147;
1055.1000;0.4355;1.3147;
1055.4000;0.4363;1.3217;
1055.7000;0.4330;1.3147;
1056.0000;0.4379;1.3194;
1056.3000;0.4339;1.3194;
1056.6000;0.4371;1.3217;
1056.9000;0.4355;1.3147;
1057.2000;0.4330;1.3077;
1057.5000;0.4330;1.3077;
1057.8000;0.4363;1.3147;
1058.1000;0.4355;1.3194;
1058.4000;0.4387;1.3264;
1058.7000;0.4363;1.3171;
1059.0000;0.4371;1.3124;
1059.3000;0.4363;1.3101;
1059.6000;0.4339;1.2937;
1059.9000;0.4355;1.2914;
1060.2000;0.4363;1.2937;
1060.5000;0.4347;1.2984;
1060.8000;0.4371;1.3124;
1061.1000;0.4355;1.2984;
1061.4000;0.4347;1.2867;
1061.7000;0.4339;1.3007;
1062.0000;0.4339;1.3007;
1062.3000;0.4371;1.3077;
1062.6000;0.4347;1.2984;
1062.9000;0.4339;1.2937;
1063.2000;0.4339;1.2891;
1063.5000;0.4355;1.2914;
1063.8000;0.4330;1.2867;
1064.1000;0.4339;1.2867;
1064.4000;0.4347;1.2774;
1064.7000;0.4339;1.2774;
1065.0000;0.4347;1.2751;
1065.3000;0.4347;1.2774;
1065.6000;0.4363;1.2844;
1065.9000;0.4355;1.2937;
1066.2000;0.4347;1.2867;
1066.5000;0.4363;1.3007;
1066.8000;0.4355;1.3124;
1067.1000;0.4371;1.3147;
1067.4000;0.4355;1.3171;
1067.7000;0.4339;1.3194;
1068.0000;0.4347;1.3287;
1068.3000;0.4363;1.3217;
1068.6000;0.4347;1.3194;
1068.9000;0.4363;1.3147;
1069.2000;0.4347;1.3101;
1069.5000;0.4379;1.3147;
1069.8000;0.4355;1.3054;
1070.1000;0.4347;1.3101;
1070.4000;0.4347;1.3147;
1070.7000;0.4363;1.3217;
1071.0000;0.4355;1.3124;
1071.3000;0.4363;1.3171;
1071.6000;0.4371;1.3147;
1071.9000;0.4363;1.3240;
1072.2000;0.4363;1.3217;
1072.5000;0.4355;1.3101;
1072.8000;0.4339;1.3077;
1073.1000;0.4355;1.3147;
1073.4000;0.4347;1.3031;
1073.7000;0.4355;1.2984;
1074.0000;0.4347;1.2937;
1074.3000;0.4314;1.2798;
1074.6000;0.4347;1.2867;
1074.9000;0.4339;1.2914;
1075.2000;0.4322;1.2891;
1075.5000;0.4404;1.3171;
1075.8000;0.4371;1.3147;
1076.1000;0.4363;1.3171;
1076.4000;0.4330;1.3031;
1076.7000;0.4363;1.3124;
1077.0000;0.4330;1.3101;
1077.3000;0.4298;1.3077;
1077.6000;0.4330;1.3217;
1077.9000;0.4330;1.3171;
1078.2000;0.4355;1.3171;
1078.5000;0.4347;1.3147;
1078.8000;0.4371;1.3171;
1079.1000;0.4339;1.3124;
1079.4000;0.4314;1.3077;
1079.7000;0.4355;1.3147;
1080.0000;0.4347;1.3171;
1080.3000;0.4355;1.3147;
1080.6000;0.4355;1.3124;
1080.9000;0.4371;1.3124;
1081.2000;0.4355;1.3101;
1081.5000;0.4371;1.3077;
1081.8000;0.4339;1.2961;
1082.1000;0.4347;1.3054;
1082.4000;0.4387;1.3147;
1082.7000;0.4298;1.2937;
1083.0000;0.4314;1.2984;
1083.3000;0.4314;1.3031;
1083.6000;0.4347;1.3007;
1083.9000;0.4314;1.2914;
1084.2000;0.4355;1.3031;
1084.5000;0.4339;1.2937;
1084.8000;0.4371;1.3031;
1085.1000;0.4363;1.3124;
1085.4000;0.4363;1.3101;
1085.7000;0.4347;1.3077;
1086.0000;0.4355;1.3054;
1086.3000;0.4339;1.3054;
1086.6000;0.4347;1.3147;
1086.9000;0.4330;1.3077;
1087.2000;0.4396;1.3171;
1087.5000;0.4347;1.3124;
1087.8000;0.4330;1.3124;
1088.1000;0.4330;1.3147;
1088.4000;0.4314;1.3007;
1088.7000;0.4371;1.3124;
1089.0000;0.4339;1.3101;
1089.3000;0.4339;1.3101;
1089.6000;0.4330;1.3101;
1089.9000;0.4322;1.3077;
1090.2000;0.4355;1.3101;
1090.5000;0.4355;1.3031;
1090.8000;0.4371;1.3054;
1091.1000;0.4363;1.3101;
1091.4000;0.4314;1.2984;
1091.7000;0.4347;1.3077;
1092.0000;0.4339;1.3101;
1092.3000;0.4347;1.3171;
1092.6000;0.4371;1.3101;
1092.9000;0.4330;1.3031;
1093.2000;0.4347;1.3007;
1093.5000;0.4339;1.2914;
1093.8000;0.4347;1.2891;
1094.1000;0.4339;1.2937;
1094.4000;0.4339;1.2961;
1094.7000;0.4339;1.2937;
1095.0000;0.4298;1.2891;
1095.3000;0.4363;1.3124;
1095.6000;0.4355;1.3147;
1095.9000;0.4363;1.3171;
1096.2000;0.4387;1.3310;
1096.5000;0.4371;1.3240;
1096.8000;0.4339;1.3217;
1097.1000;0.4363;1.3264;
1097.4000;0.4322;1.3171;
1097.7000;0.4355;1.3217;
1098.0000;0.4363;1.3101;
1098.3000;0.4355;1.3077;
1098.6000;0.4314;1.3031;
1098.9000;0.4453;1.3287;
1099.2000;0.4347;1.3077;
1099.5000;0.4347;1.3077;
1099.8000;0.4363;1.3101;
1100.1000;0.4371;1.3147;
1100.4000;0.4306;1.3054;
1100.7000;0.4347;1.3147;
1101.0000;0.4355;1.3171;
1101.3000;0.4330;1.3031;
1101.6000;0.4363;1.3171;
1101.9000;0.4355;1.3194;
1102.2000;0.4330;1.3101;
1102.5000;0.4396;1.3264;
1102.8000;0.4330;1.3147;
1103.1000;0.4339;1.3147;
1103.4000;0.4330;1.3147;
1103.7000;0.4339;1.3124;
1104.0000;0.4347;1.3007;
1104.3000;0.4347;1.3054;
1104.6000;0.4355;1.3007;
1104.9000;0.4347;1.3031;
1105.2000;0.4355;1.3077;
1105.5000;0.4355;1.3031;
1105.8000;0.4306;1.2891;
1106.1000;0.4290;1.2844;
1106.4000;0.4339;1.2961;
1106.7000;0.4371;1.3124;
1107.0000;0.4371;1.3101;
1107.3000;0.4322;1.2961;
1107.6000;0.4355;1.3147;
1107.9000;0.4355;1.3147;
1108.2000;0.4355;1.3194;
1108.5000;0.4347;1.3077;
1108.8000;0.4339;1.3007;
1109.1000;0.4322;1.3031;
1109.4000;0.4396;1.3147;
1109.7000;0.4322;1.3101;
1110.0000;0.4306;1.3101;
1110.3000;0.4322;1.3054;
1110.6000;0.4298;1.2961;
1110.9000;0.4355;1.3007;
1111.2000;0.4339;1.3007;
1111.5000;0.4306;1.3031;
1111.8000;0.4387;1.3217;
1112.1000;0.4306;1.3007;
1112.4000;0.4379;1.3171;
1112.7000;0.4330;1.3101;
1113.0000;0.4355;1.3124;
1113.3000;0.4241;1.2914;
1113.6000;0.4339;1.3194;
1113.9000;0.4330;1.3217;
1114.2000;0.4363;1.3240;
1114.5000;0.4339;1.3240;
1114.8000;0.4274;1.3007;
1115.1000;0.4371;1.3171;
1115.4000;0.4314;1.3124;
1115.7000;0.4322;1.3217;
1116.0000;0.4306;1.3217;
1116.3000;0.4330;1.3264;
1116.6000;0.4298;1.3194;
1116.9000;0.4371;1.3240;
1117.2000;0.4339;1.3194;
1117.5000;0.4347;1.3264;
1117.8000;0.4314;1.3171;
1118.1000;0.4339;1.3194;
1118.4000;0.4387;1.3334;
1118.7000;0.4314;1.3124;
1119.0000;0.4371;1.3264;
1119.3000;0.4339;1.3240;
1119.6000;0.4420;1.3520;
1119.9000;0.4363;1.3380;
1120.2000;0.4330;1.3240;
1120.5000;0.4355;1.3287;
1120.8000;0.4306;1.3171;
1121.1000;0.4298;1.3124;
1121.4000;0.4339;1.3240;
1121.7000;0.4322;1.3171;
1122.0000;0.4371;1.3310;
1122.3000;0.4355;1.3264;
1122.6000;0.4314;1.3101;
1122.9000;0.4330;1.3124;
1123.2000;0.4363;1.3287;
1123.5000;0.4379;1.3334;
1123.8000;0.4363;1.3310;
1124.1000;0.4330;1.3287;
1124.4000;0.4355;1.3427;
1124.7000;0.4347;1.3357;
1125.0000;0.4339;1.3217;
1125.3000;0.4347;1.3147;
1125.6000;0.4339;1.3194;
1125.9000;0.4330;1.3101;
1126.2000;0.4322;1.3031;
1126.5000;0.4363;1.3171;
1126.8000;0.4355;1.3171;
1127.1000;0.4282;1.3007;
1127.4000;0.4355;1.3077;
1127.7000;0.4314;1.3101;
1128.0000;0.4274;1.3077;
1128.3000;0.4355;1.3334;
1128.6000;0.4379;1.3334;
1128.9000;0.4339;1.3310;
1129.2000;0.4347;1.3264;
1129.5000;0.4355;1.3240;
1129.8000;0.4274;1.3101;
1130.1000;0.4363;1.3287;
1130.4000;0.4339;1.3264;
1130.7000;0.4339;1.3194;
1131.0000;0.4339;1.3194;
1131.3000;0.4298;1.3124;
1131.6000;0.4387;1.3310;
1131.9000;0.4322;1.3171;
1132.2000;0.4298;1.3077;
1132.5000;0.4379;1.3171;
1132.8000;0.4355;1.3077;
1133.1000;0.4404;1.3217;
1133.4000;0.4347;1.3101;
1133.7000;0.4355;1.3101;
1134.0000;0.4233;1.2821;
1134.3000;0.4347;1.3054;
1134.6000;0.4371;1.3101;
1134.9000;0.4355;1.3054;
1135.2000;0.4330;1.3077;
1135.5000;0.4322;1.3124;
1135.8000;0.4347;1.3171;
1136.1000;0.4330;1.3077;
1136.4000;0.4347;1.3077;
1136.7000;0.4322;1.3007;
1137.0000;0.4330;1.3077;
1137.3000;0.4314;1.3031;
1137.6000;0.4347;1.3124;
1137.9000;0.4355;1.3147;
1138.2000;0.4355;1.3171;
1138.5000;0.4347;1.3171;
1138.8000;0.4371;1.3287;
1139.1000;0.4330;1.3171;
1139.4000;0.4339;1.3240;
1139.7000;0.4355;1.3287;
1140.0000;0.4339;1.3357;
1140.3000;0.4339;1.3404;
1140.6000;0.4371;1.3450;
1140.9000;0.4363;1.3474;
1141.2000;0.4355;1.3450;
1141.5000;0.4355;1.3497;
1141.8000;0.4347;1.3520;
1142.1000;0.4314;1.3404;
1142.4000;0.4347;1.3427;
1142.7000;0.4306;1.3310;
1143.0000;0.4339;1.3380;
1143.3000;0.4330;1.3357;
1143.6000;0.4339;1.3380;
1143.9000;0.4339;1.3357;
1144.2000;0.4371;1.3310;
1144.5000;0.4306;1.3101;
1144.8000;0.4355;1.3194;
1145.1000;0.4347;1.3101;
1145.4000;0.4339;1.2984;
1145.7000;0.4339;1.3077;
1146.0000;0.4339;1.3171;
1146.3000;0.4347;1.3217;
1146.6000;0.4347;1.3147;
1146.9000;0.4322;1.3077;
1147.2000;0.4339;1.3101;
1147.5000;0.4355;1.3171;
1147.8000;0.4355;1.3217;
1148.1000;0.4371;1.3171;
1148.4000;0.4347;1.3217;
1148.7000;0.4363;1.3240;
1149.0000;0.4330;1.3147;
1149.3000;0.4322;1.3101;
1149.6000;0.4330;1.3147;
1149.9000;0.4322;1.3147;
1150.2000;0.4314;1.3124;
1150.5000;0.4322;1.3217;
1150.8000;0.4330;1.3264;
1151.1000;0.4347;1.3240;
1151.4000;0.4355;1.3240;
1151.7000;0.4290;1.3124;
1152.0000;0.4339;1.3310;
1152.3000;0.4347;1.3357;
1152.6000;0.4322;1.3287;
1152.9000;0.4347;1.3380;
1153.2000;0.4339;1.3357;
1153.5000;0.4330;1.3287;
1153.8000;0.4379;1.3310;
1154.1000;0.4330;1.3240;
1154.4000;0.4339;1.3264;
1154.7000;0.4322;1.3287;
1155.0000;0.4339;1.3264;
1155.3000;0.4322;1.3194;
1155.6000;0.4306;1.3147;
1155.9000;0.4290;1.3124;
1156.2000;0.4330;1.3240;
1156.5000;0.4330;1.3264;
1156.8000;0.4322;1.3147;
1157.1000;0.4314;1.3124;
1157.4000;0.4274;1.3101;
1157.7000;0.4339;1.3310;
1158.0000;0.4339;1.3334;
1158.3000;0.4347;1.3310;
1158.6000;0.4314;1.3194;
1158.9000;0.4355;1.3287;
1159.2000;0.4347;1.3217;
1159.5000;0.4330;1.3171;
1159.8000;0.4322;1.3194;
1160.1000;0.4347;1.3310;
1160.4000;0.4339;1.3194;
1160.7000;0.4339;1.3240;
1161.0000;0.4363;1.3310;
1161.3000;0.4322;1.3124;
1161.6000;0.4347;1.3077;
1161.9000;0.4339;1.3101;
1162.2000;0.4322;1.3054;
1162.5000;0.4347;1.3077;
1162.8000;0.4347;1.3101;
1163.1000;0.4330;1.3124;
1163.4000;0.4363;1.3194;
1163.7000;0.4330;1.3171;
1164.0000;0.4396;1.3264;
1164.3000;0.4339;1.3101;
1164.6000;0.4339;1.3171;
1164.9000;0.4330;1.3147;
1165.2000;0.4314;1.3077;
1165.5000;0.4339;1.3124;
1165.8000;0.4330;1.3124;
1166.1000;0.4322;1.3147;
1166.4000;0.4322;1.3077;
1166.7000;0.4330;1.3124;
1167.0000;0.4314;1.3077;
1167.3000;0.4306;1.3171;
1167.6000;0.4306;1.3147;
1167.9000;0.4330;1.3264;
1168.2000;0.4363;1.3380;
1168.5000;0.4314;1.3264;
1168.8000;0.4355;1.3310;
1169.1000;0.4322;1.3240;
1169.4000;0.4322;1.3240;
1169.7000;0.4330;1.3287;
1170.0000;0.4330;1.3287;
1170.3000;0.4339;1.3240;
1170.6000;0.4339;1.3171;
1170.9000;0.4339;1.3147;
1171.2000;0.4355;1.3171;
1171.5000;0.4322;1.3194;
1171.8000;0.4339;1.3287;
1172.1000;0.4355;1.3264;
1172.4000;0.4322;1.3171;
1172.7000;0.4330;1.3147;
1173.0000;0.4347;1.3217;
1173.3000;0.4355;1.3171;
1173.6000;0.4347;1.3124;
1173.9000;0.4347;1.3147;
1174.2000;0.4355;1.3124;
1174.5000;0.4339;1.3101;
1174.8000;0.4339;1.3171;
1175.1000;0.4339;1.3264;
1175.4000;0.4379;1.3287;
1175.7000;0.4330;1.3171;
1176.0000;0.4330;1.3101;
1176.3000;0.4314;1.3031;
1176.6000;0.4330;1.3077;
1176.9000;0.4322;1.3077;
1177.2000;0.4322;1.3054;
1177.5000;0.4339;1.3031;
1177.8000;0.4347;1.3077;
1178.1000;0.4330;1.3077;
1178.4000;0.4330;1.3007;
1178.7000;0.4330;1.3007;
1179.0000;0.4322;1.2961;
1179.3000;0.4330;1.3031;
1179.6000;0.4355;1.3124;
1179.9000;0.4322;1.3077;
1180.2000;0.4322;1.3054;
1180.5000;0.4330;1.3077;
1180.8000;0.4347;1.3077;
1181.1000;0.4330;1.2984;
1181.4000;0.4322;1.2891;
1181.7000;0.4306;1.2937;
1182.0000;0.4330;1.2961;
1182.3000;0.4322;1.2984;
1182.6000;0.4322;1.2937;
1182.9000;0.4339;1.2961;
1183.2000;0.4339;1.2937;
1183.5000;0.4339;1.2914;
1183.8000;0.4347;1.2914;
1184.1000;0.4339;1.2937;
1184.4000;0.4322;1.3031;
1184.7000;0.4355;1.3217;
1185.0000;0.4322;1.3101;
1185.3000;0.4314;1.3194;
1185.6000;0.4314;1.3217;
1185.9000;0.4339;1.3264;
1186.2000;0.4314;1.3194;
1186.5000;0.4314;1.3194;
1186.8000;0.4330;1.3194;
1187.1000;0.4347;1.3194;
1187.4000;0.4347;1.3194;
1187.7000;0.4339;1.3217;
1188.0000;0.4330;1.3147;
1188.3000;0.4339;1.3124;
1188.6000;0.4347;1.3054;
1188.9000;0.4339;1.3007;
1189.2000;0.4306;1.2914;
1189.5000;0.4339;1.3007;
1189.8000;0.4339;1.3054;
1190.1000;0.4339;1.3077;
1190.4000;0.4330;1.3077;
1190.7000;0.4330;1.3101;
1191.0000;0.4330;1.3101;
1191.3000;0.4347;1.3171;
1191.6000;0.4339;1.3101;
1191.9000;0.4322;1.3054;
1192.2000;0.4306;1.3007;
1192.5000;0.4339;1.3054;
1192.8000;0.4322;1.3101;
1193.1000;0.4330;1.3124;
1193.4000;0.4322;1.3147;
1193.7000;0.4330;1.3194;
1194.0000;0.4339;1.3217;
1194.3000;0.4339;1.3194;
1194.6000;0.4339;1.3124;
1194.9000;0.4306;1.3101;
1195.2000;0.4330;1.3194;
1195.5000;0.4330;1.3217;
1195.8000;0.4322;1.3240;
1196.1000;0.4330;1.3217;
1196.4000;0.4339;1.3171;
1196.7000;0.4322;1.3077;
1197.0000;0.4330;1.3124;
1197.3000;0.4347;1.3194;
1197.6000;0.4339;1.3217;
1197.9000;0.4322;1.3147;
1198.2000;0.4330;1.3147;
1198.5000;0.4330;1.3171;
1198.8000;0.4347;1.3124;
1199.1000;0.4330;1.3031;
1199.4000;0.4322;1.3101;
1199.7000;0.4322;1.3054;
1200.0000;0.4355;1.3147;
1200.3000;0.4322;1.3147;
1200.6000;0.4314;1.3171;
1200.9000;0.4339;1.3194;
1201.2000;0.4347;1.3194;
1201.5000;0.4330;1.3171;
1201.8000;0.4330;1.3101;
1202.1000;0.4347;1.3194;
1202.4000;0.4339;1.3194;
1202.7000;0.4355;1.3171;
1203.0000;0.4314;1.3124;
1203.3000;0.4339;1.3147;
1203.6000;0.4339;1.3124;
1203.9000;0.4314;1.2961;
1204.2000;0.4330;1.2984;
1204.5000;0.4322;1.3054;
1204.8000;0.4306;1.2984;
1205.1000;0.4371;1.3054;
1205.4000;0.4330;1.3031;
1205.7000;0.4330;1.3054;
1206.0000;0.4314;1.3054;
1206.3000;0.4314;1.3077;
1206.6000;0.4322;1.3147;
1206.9000;0.4322;1.3054;
1207.2000;0.4322;1.3077;
1207.5000;0.4330;1.3171;
1207.8000;0.4314;1.3147;
1208.1000;0.4314;1.3171;
1208.4000;0.4322;1.3171;
1208.7000;0.4330;1.3147;
1209.0000;0.4339;1.3101;
1209.3000;0.4339;1.3007;
1209.6000;0.4339;1.2984;
1209.9000;0.4420;1.3194;
1210.2000;0.4355;1.3031;
1210.5000;0.4355;1.2984;
1210.8000;0.4387;1.3007;
1211.1000;0.4314;1.2914;
1211.4000;0.4347;1.3054;
1211.7000;0.4290;1.2937;
1212.0000;0.4306;1.2867;
1212.3000;0.4314;1.2867;
1212.6000;0.4347;1.2914;
1212.9000;0.4322;1.2891;
1213.2000;0.4322;1.2937;
1213.5000;0.4330;1.2937;
1213.8000;0.4330;1.2937;
1214.1000;0.4339;1.2984;
1214.4000;0.4314;1.2937;
1214.7000;0.4347;1.2984;
1215.0000;0.4282;1.2891;
1215.3000;0.4306;1.2937;
1215.6000;0.4290;1.2891;
1215.9000;0.4265;1.2774;
1216.2000;0.4330;1.2984;
1216.5000;0.4306;1.2867;
1216.8000;0.4322;1.2961;
1217.1000;0.4322;1.2937;
1217.4000;0.4339;1.2937;
1217.7000;0.4347;1.2984;
1218.0000;0.4339;1.2984;
1218.3000;0.4339;1.2937;
1218.6000;0.4330;1.2984;
1218.9000;0.4290;1.3007;
1219.2000;0.4339;1.3124;
1219.5000;0.4347;1.3054;
1219.8000;0.4306;1.3007;
1220.1000;0.4330;1.2961;
1220.4000;0.4339;1.2984;
1220.7000;0.4314;1.2961;
1221.0000;0.4322;1.2961;
1221.3000;0.4322;1.2937;
1221.6000;0.4306;1.2891;
1221.9000;0.4339;1.3054;
1222.2000;0.4330;1.3054;
1222.5000;0.4274;1.2891;
1222.8000;0.4330;1.3007;
1223.1000;0.4339;1.3101;
1223.4000;0.4355;1.3240;
1223.7000;0.4347;1.3264;
1224.0000;0.4339;1.3264;
1224.3000;0.4339;1.3264;
1224.6000;0.4330;1.3217;
1224.9000;0.4355;1.3171;
1225.2000;0.4347;1.3124;
1225.5000;0.4241;1.2937;
1225.8000;0.4314;1.3054;
1226.1000;0.4347;1.3101;
1226.4000;0.4322;1.3077;
1226.7000;0.4444;1.3450;
1227.0000;0.4339;1.3101;
1227.3000;0.4330;1.3054;
1227.6000;0.4322;1.3031;
1227.9000;0.4314;1.2984;
1228.2000;0.4322;1.3007;
1228.5000;0.4412;1.3194;
1228.8000;0.4306;1.3031;
1229.1000;0.4339;1.3101;
1229.4000;0.4355;1.3171;
1229.7000;0.4306;1.3077;
1230.0000;0.4322;1.3124;
1230.3000;0.4322;1.3124;
1230.6000;0.4330;1.3171;
1230.9000;0.4314;1.3101;
1231.2000;0.4339;1.3147;
1231.5000;0.4379;1.3171;
1231.8000;0.4339;1.3031;
1232.1000;0.4363;1.3147;
1232.4000;0.4330;1.3054;
1232.7000;0.4322;1.3054;
1233.0000;0.4330;1.3147;
1233.3000;0.4314;1.3007;
1233.6000;0.4330;1.3007;
1233.9000;0.4330;1.3101;
1234.2000;0.4339;1.3054;
1234.5000;0.4387;1.3171;
1234.8000;0.4387;1.3240;
1235.1000;0.4290;1.3054;
1235.4000;0.4314;1.3124;
1235.7000;0.4314;1.3054;
1236.0000;0.4363;1.3264;
1236.3000;0.4290;1.3124;
1236.6000;0.4347;1.3240;
1236.9000;0.4290;1.3217;
1237.2000;0.4322;1.3194;
1237.5000;0.4241;1.3007;
1237.8000;0.4314;1.3171;
1238.1000;0.4330;1.3194;
1238.4000;0.4265;1.3147;
1238.7000;0.4306;1.3357;
1239.0000;0.4330;1.3474;
1239.3000;0.4355;1.3450;
1239.6000;0.4282;1.3334;
1239.9000;0.4298;1.3310;
1240.2000;0.4322;1.3264;
1240.5000;0.4314;1.3124;
1240.8000;0.4322;1.3101;
1241.1000;0.4314;1.3101;
1241.4000;0.4314;1.2961;
1241.7000;0.4379;1.3124;
1242.0000;0.4314;1.2961;
1242.3000;0.4314;1.3031;
1242.6000;0.4322;1.3147;
1242.9000;0.4290;1.3101;
1243.2000;0.4322;1.3240;
1243.5000;0.4274;1.3147;
1243.8000;0.4314;1.3264;
1244.1000;0.4306;1.3240;
1244.4000;0.4379;1.3427;
1244.7000;0.4339;1.3264;
1245.0000;0.4322;1.3240;
1245.3000;0.4274;1.3054;
1245.6000;0.4306;1.3147;
1245.9000;0.4330;1.3171;
1246.2000;0.4330;1.3147;
1246.5000;0.4330;1.3124;
1246.8000;0.4339;1.3171;
1247.1000;0.4322;1.3171;
1247.4000;0.4306;1.3147;
1247.7000;0.4339;1.3287;
1248.0000;0.4330;1.3217;
1248.3000;0.4322;1.3194;
1248.6000;0.4339;1.3171;
1248.9000;0.4306;1.3077;
1249.2000;0.4322;1.3101;
1249.5000;0.4306;1.3101;
1249.8000;0.4322;1.3054;
1250.1000;0.4363;1.3031;
1250.4000;0.4322;1.2937;
1250.7000;0.4322;1.2844;
1251.0000;0.4330;1.2914;
1251.3000;0.4314;1.2891;
1251.6000;0.4322;1.2937;
1251.9000;0.4314;1.3007;
1252.2000;0.4330;1.3054;
1252.5000;0.4314;1.3054;
1252.8000;0.4314;1.3101;
1253.1000;0.4322;1.3171;
1253.4000;0.4314;1.3264;
1253.7000;0.4314;1.3171;
1254.0000;0.4306;1.3171;
1254.3000;0.4339;1.3217;
1254.6000;0.4396;1.3310;
1254.9000;0.4314;1.3194;
1255.2000;0.4347;1.3310;
1255.5000;0.4322;1.3334;
1255.8000;0.4322;1.3380;
1256.1000;0.4339;1.3427;
1256.4000;0.4330;1.3474;
1256.7000;0.4339;1.3427;
1257.0000;0.4339;1.3427;
1257.3000;0.4314;1.3357;
1257.6000;0.4330;1.3380;
1257.9000;0.4322;1.3357;
1258.2000;0.4314;1.3427;
1258.5000;0.4314;1.3357;
1258.8000;0.4339;1.3404;
1259.1000;0.4322;1.3380;
1259.4000;0.4314;1.3310;
1259.7000;0.4363;1.3357;
1260.0000;0.4330;1.3310;
1260.3000;0.4322;1.3264;
1260.6000;0.4257;1.3077;
1260.9000;0.4322;1.3147;
1261.2000;0.4330;1.3171;
1261.5000;0.4314;1.3147;
1261.8000;0.4330;1.3124;
1262.1000;0.4339;1.3194;
1262.4000;0.4330;1.3310;
1262.7000;0.4314;1.3357;
1263.0000;0.4322;1.3357;
1263.3000;0.4314;1.3310;
1263.6000;0.4347;1.3310;
1263.9000;0.4298;1.3147;
1264.2000;0.4298;1.3124;
1264.5000;0.4330;1.3147;
1264.8000;0.4314;1.3077;
1265.1000;0.4322;1.3077;
1265.4000;0.4330;1.3124;
1265.7000;0.4339;1.3171;
1266.0000;0.4322;1.3194;
1266.3000;0.4322;1.3147;
1266.6000;0.4330;1.3147;
1266.9000;0.4314;1.3124;
1267.2000;0.4355;1.3240;
1267.5000;0.4339;1.3171;
1267.8000;0.4322;1.3334;
1268.1000;0.4322;1.3404;
1268.4000;0.4314;1.3357;
1268.7000;0.4339;1.3334;
1269.0000;0.4387;1.3427;
1269.3000;0.4322;1.3287;
1269.6000;0.4314;1.3240;
1269.9000;0.4363;1.3264;
1270.2000;0.4330;1.3194;
1270.5000;0.4339;1.3217;
1270.8000;0.4322;1.3264;
1271.1000;0.4322;1.3287;
1271.4000;0.4314;1.3310;
1271.7000;0.4330;1.3334;
1272.0000;0.4322;1.3310;
1272.3000;0.4314;1.3264;
1272.6000;0.4355;1.3310;
1272.9000;0.4330;1.3334;
1273.2000;0.4314;1.3217;
1273.5000;0.4322;1.3194;
1273.8000;0.4322;1.3287;
1274.1000;0.4330;1.3264;
1274.4000;0.4298;1.3171;
1274.7000;0.4347;1.3194;
1275.0000;0.4322;1.3171;
1275.3000;0.4339;1.3147;
1275.6000;0.4330;1.3124;
1275.9000;0.4322;1.3147;
1276.2000;0.4330;1.3240;
1276.5000;0.4330;1.3240;
1276.8000;0.4322;1.3287;
1277.1000;0.4322;1.3310;
1277.4000;0.4314;1.3310;
1277.7000;0.4330;1.3357;
1278.0000;0.4322;1.3334;
1278.3000;0.4314;1.3357;
1278.6000;0.4298;1.3334;
1278.9000;0.4298;1.3357;
1279.2000;0.4330;1.3427;
1279.5000;0.4314;1.3404;
1279.8000;0.4322;1.3404;
1280.1000;0.4339;1.3450;
1280.4000;0.4322;1.3380;
1280.7000;0.4330;1.3380;
1281.0000;0.4330;1.3380;
1281.3000;0.4330;1.3357;
1281.6000;0.4322;1.3357;
1281.9000;0.4339;1.3380;
1282.2000;0.4330;1.3380;
1282.5000;0.4339;1.3287;
1282.8000;0.4322;1.3217;
1283.1000;0.4339;1.3240;
1283.4000;0.4322;1.3217;
1283.7000;0.4306;1.3147;
1284.0000;0.4339;1.3217;
1284.3000;0.4322;1.3171;
1284.6000;0.4306;1.3217;
1284.9000;0.4306;1.3287;
1285.2000;0.4314;1.3334;
1285.5000;0.4330;1.3287;
1285.8000;0.4322;1.3310;
1286.1000;0.4347;1.3334;
1286.4000;0.4322;1.3287;
1286.7000;0.4363;1.3287;
1287.0000;0.4330;1.3240;
1287.3000;0.4322;1.3171;
1287.6000;0.4330;1.3217;
1287.9000;0.4371;1.3334;
1288.2000;0.4330;1.3240;
1288.5000;0.4330;1.3240;
1288.8000;0.4330;1.3287;
1289.1000;0.4339;1.3264;
1289.4000;0.4330;1.3240;
1289.7000;0.4314;1.3194;
1290.0000;0.4314;1.3240;
1290.3000;0.4298;1.3217;
1290.6000;0.4322;1.3310;
1290.9000;0.4322;1.3310;
1291.2000;0.4363;1.3380;
1291.5000;0.4314;1.3287;
1291.8000;0.4330;1.3217;
1292.1000;0.4355;1.3287;
1292.4000;0.4298;1.3171;
1292.7000;0.4306;1.3194;
1293.0000;0.4322;1.3264;
1293.3000;0.4330;1.3287;
1293.6000;0.4330;1.3287;
1293.9000;0.4330;1.3287;
1294.2000;0.4355;1.3310;
1294.5000;0.4339;1.3287;
1294.8000;0.4330;1.3264;
1295.1000;0.4347;1.3240;
1295.4000;0.4339;1.3287;
1295.7000;0.4306;1.3264;
1296.0000;0.4330;1.3240;
1296.3000;0.4330;1.3240;
1296.6000;0.4322;1.3194;
1296.9000;0.4330;1.3194;
1297.2000;0.4322;1.3147;
1297.5000;0.4330;1.3240;
1297.8000;0.4330;1.3264;
1298.1000;0.4330;1.3310;
1298.4000;0.4322;1.3380;
1298.7000;0.4265;1.3194;
1299.0000;0.4314;1.3427;
1299.3000;0.4355;1.3497;
1299.6000;0.4322;1.3380;
1299.9000;0.4330;1.3380;
1300.2000;0.4379;1.3543;
1300.5000;0.4322;1.3380;
1300.8000;0.4322;1.3427;
1301.1000;0.4314;1.3404;
1301.4000;0.4363;1.3357;
1301.7000;0.4322;1.3217;
1302.0000;0.4339;1.3287;
1302.3000;0.4330;1.3287;
1302.6000;0.4306;1.3240;
1302.9000;0.4314;1.3171;
1303.2000;0.4322;1.3147;
1303.5000;0.4322;1.3124;
1303.8000;0.4314;1.3194;
1304.1000;0.4298;1.3194;
1304.4000;0.4314;1.3147;
1304.7000;0.4322;1.3194;
1305.0000;0.4306;1.3171;
1305.3000;0.4330;1.3101;
1305.6000;0.4330;1.3124;
1305.9000;0.4330;1.3240;
1306.2000;0.4339;1.3240;
1306.5000;0.4339;1.3287;
1306.8000;0.4322;1.3287;
1307.1000;0.4322;1.3240;
1307.4000;0.4322;1.3240;
1307.7000;0.4314;1.3240;
1308.0000;0.4322;1.3357;
1308.3000;0.4363;1.3450;
1308.6000;0.4322;1.3334;
1308.9000;0.4322;1.3287;
1309.2000;0.4306;1.3217;
1309.5000;0.4330;1.3194;
1309.8000;0.4330;1.3217;
1310.1000;0.4322;1.3264;
1310.4000;0.4298;1.3240;
1310.7000;0.4355;1.3450;
1311.0000;0.4339;1.3287;
1311.3000;0.4330;1.3310;
1311.6000;0.4339;1.3357;
1311.9000;0.4347;1.3310;
1312.2000;0.4322;1.3217;
1312.5000;0.4339;1.3310;
1312.8000;0.4330;1.3404;
1313.1000;0.4330;1.3427;
1313.4000;0.4322;1.3404;
1313.7000;0.4347;1.3427;
1314.0000;0.4322;1.3404;
1314.3000;0.4306;1.3310;
1314.6000;0.4306;1.3310;
1314.9000;0.4306;1.3310;
1315.2000;0.4322;1.3357;
1315.5000;0.4306;1.3264;
1315.8000;0.4298;1.3287;
1316.1000;0.4314;1.3264;
1316.4000;0.4306;1.3310;
1316.7000;0.4306;1.3310;
1317.0000;0.4306;1.3264;
1317.3000;0.4306;1.3240;
1317.6000;0.4379;1.3404;
1317.9000;0.4298;1.3217;
1318.2000;0.4314;1.3287;
1318.5000;0.4330;1.3310;
1318.8000;0.4444;1.3637;
1319.1000;0.4355;1.3450;
1319.4000;0.4314;1.3497;
1319.7000;0.4257;1.3287;
1320.0000;0.4339;1.3520;
1320.3000;0.4330;1.3404;
1320.6000;0.4330;1.3264;
1320.9000;0.4314;1.3287;
1321.2000;0.4314;1.3357;
1321.5000;0.4314;1.3310;
1321.8000;0.4322;1.3287;
1322.1000;0.4314;1.3264;
1322.4000;0.4330;1.3357;
1322.7000;0.4363;1.3404;
1323.0000;0.4339;1.3404;
1323.3000;0.4298;1.3310;
1323.6000;0.4339;1.3474;
1323.9000;0.4322;1.3427;
1324.2000;0.4404;1.3520;
1324.5000;0.4322;1.3310;
1324.8000;0.4387;1.3497;
1325.1000;0.4387;1.3474;
1325.4000;0.4298;1.3217;
1325.7000;0.4314;1.3310;
1326.0000;0.4330;1.3310;
1326.3000;0.4330;1.3334;
1326.6000;0.4347;1.3404;
1326.9000;0.4298;1.3310;
1327.2000;0.4306;1.3357;
1327.5000;0.4322;1.3357;
1327.8000;0.4355;1.3334;
1328.1000;0.4371;1.3264;
1328.4000;0.4322;1.3171;
1328.7000;0.4355;1.3287;
1329.0000;0.4322;1.3147;
1329.3000;0.4282;1.3031;
1329.6000;0.4322;1.3171;
1329.9000;0.4330;1.3240;
1330.2000;0.4322;1.3217;
1330.5000;0.4396;1.3380;
1330.8000;0.4330;1.3334;
1331.1000;0.4355;1.3310;
1331.4000;0.4404;1.3427;
1331.7000;0.4339;1.3334;
1332.0000;0.4330;1.3357;
1332.3000;0.4322;1.3427;
1332.6000;0.4322;1.3380;
1332.9000;0.4217;1.3077;
1333.2000;0.4363;1.3287;
1333.5000;0.4330;1.3101;
1333.8000;0.4322;1.3194;
1334.1000;0.4339;1.3240;
1334.4000;0.4322;1.3240;
1334.7000;0.4330;1.3287;
1335.0000;0.4306;1.3334;
1335.3000;0.4322;1.3240;
1335.6000;0.4322;1.3217;
1335.9000;0.4249;1.3031;
1336.2000;0.4241;1.3101;
1336.5000;0.4412;1.3474;
1336.8000;0.4298;1.3101;
1337.1000;0.4274;1.2984;
1337.4000;0.4363;1.3240;
1337.7000;0.4322;1.3194;
1338.0000;0.4306;1.3217;
1338.3000;0.4371;1.3380;
1338.6000;0.4233;1.3054;
1338.9000;0.4314;1.3240;
1339.2000;0.4322;1.3171;
1339.5000;0.4306;1.3264;
1339.8000;0.4306;1.3334;
1340.1000;0.4330;1.3380;
1340.4000;0.4322;1.3380;
1340.7000;0.4306;1.3380;
1341.0000;0.4314;1.3474;
1341.3000;0.4314;1.3404;
1341.6000;0.4347;1.3380;
1341.9000;0.4306;1.3287;
1342.2000;0.4322;1.3310;
1342.5000;0.4225;1.3124;
1342.8000;0.4363;1.3427;
1343.1000;0.4290;1.3194;
1343.4000;0.4306;1.3194;
1343.7000;0.4363;1.3357;
1344.0000;0.4298;1.3077;
1344.3000;0.4314;1.3147;
1344.6000;0.4314;1.3101;
1344.9000;0.4314;1.3077;
1345.2000;0.4379;1.3194;
1345.5000;0.4265;1.2867;
1345.8000;0.4265;1.2984;
1346.1000;0.4290;1.3031;
1346.4000;0.4265;1.3054;
1346.7000;0.4241;1.3007;
1347.0000;0.4233;1.3054;
1347.3000;0.4298;1.3194;
1347.6000;0.4330;1.3217;
1347.9000;0.4347;1.3287;
1348.2000;0.4404;1.3357;
1348.5000;0.4322;1.3240;
1348.8000;0.4249;1.3054;
1349.1000;0.4322;1.3240;
1349.4000;0.4322;1.3264;
1349.7000;0.4339;1.3240;
1350.0000;0.4314;1.3101;
1350.3000;0.4314;1.2937;
1350.6000;0.4322;1.3007;
1350.9000;0.4330;1.3077;
1351.2000;0.4322;1.3124;
1351.5000;0.4387;1.3264;
1351.8000;0.4363;1.3171;
1352.1000;0.4322;1.3054;
1352.4000;0.4322;1.3077;
1352.7000;0.4347;1.3171;
1353.0000;0.4330;1.3264;
1353.3000;0.4314;1.3287;
1353.6000;0.4257;1.3124;
1353.9000;0.4330;1.3310;
1354.2000;0.4339;1.3357;
1354.5000;0.4347;1.3334;
1354.8000;0.4322;1.3240;
1355.1000;0.4347;1.3334;
1355.4000;0.4330;1.3310;
1355.7000;0.4314;1.3287;
1356.0000;0.4330;1.3334;
1356.3000;0.4306;1.3240;
1356.6000;0.4290;1.3217;
1356.9000;0.4298;1.3031;
1357.2000;0.4322;1.3031;
1357.5000;0.4330;1.3124;
1357.8000;0.4322;1.3077;
1358.1000;0.4330;1.3101;
1358.4000;0.4387;1.3264;
1358.7000;0.4314;1.3124;
1359.0000;0.4306;1.3031;
1359.3000;0.4298;1.3031;
1359.6000;0.4282;1.3007;
1359.9000;0.4314;1.3007;
1360.2000;0.4306;1.3031;
1360.5000;0.4314;1.3171;
1360.8000;0.4322;1.3194;
1361.1000;0.4306;1.3171;
1361.4000;0.4314;1.3147;
1361.7000;0.4306;1.3217;
1362.0000;0.4322;1.3194;
1362.3000;0.4330;1.3194;
1362.6000;0.4306;1.3147;
1362.9000;0.4322;1.3147;
1363.2000;0.4306;1.3077;
1363.5000;0.4339;1.3240;
1363.8000;0.4322;1.3194;
1364.1000;0.4330;1.3194;
1364.4000;0.4298;1.3101;
1364.7000;0.4347;1.3287;
1365.0000;0.4347;1.3264;
1365.3000;0.4339;1.3171;
1365.6000;0.4314;1.3031;
1365.9000;0.4330;1.3007;
1366.2000;0.4314;1.3007;
1366.5000;0.4339;1.3007;
1366.8000;0.4322;1.3077;
1367.1000;0.4322;1.3147;
1367.4000;0.4355;1.3124;
1367.7000;0.4339;1.3147;
1368.0000;0.4322;1.3124;
1368.3000;0.4322;1.3054;
1368.6000;0.4298;1.2984;
1368.9000;0.4339;1.3101;
1369.2000;0.4322;1.3124;
1369.5000;0.4371;1.3147;
1369.8000;0.4330;1.3124;
1370.1000;0.4322;1.3194;
1370.4000;0.4363;1.3287;
1370.7000;0.4274;1.3101;
1371.0000;0.4330;1.3101;
1371.3000;0.4330;1.3077;
1371.6000;0.4274;1.3031;
1371.9000;0.4330;1.3147;
1372.2000;0.4322;1.3147;
1372.5000;0.4339;1.3147;
1372.8000;0.4330;1.3194;
1373.1000;0.4322;1.3147;
1373.4000;0.4347;1.3194;
1373.7000;0.4290;1.3031;
1374.0000;0.4339;1.3101;
1374.3000;0.4322;1.2984;
1374.6000;0.4339;1.2984;
1374.9000;0.4322;1.3007;
1375.2000;0.4330;1.3077;
1375.5000;0.4298;1.3054;
1375.8000;0.4322;1.3031;
1376.1000;0.4330;1.3054;
1376.4000;0.4322;1.2984;
1376.7000;0.4314;1.2984;
1377.0000;0.4330;1.3031;
1377.3000;0.4314;1.2984;
1377.6000;0.4322;1.3054;
1377.9000;0.4322;1.3031;
1378.2000;0.4298;1.3007;
1378.5000;0.4306;1.3054;
1378.8000;0.4330;1.3124;
1379.1000;0.4339;1.3147;
1379.4000;0.4322;1.3194;
1379.7000;0.4274;1.3077;
1380.0000;0.4330;1.3171;
1380.3000;0.4322;1.3194;
1380.6000;0.4330;1.3147;
1380.9000;0.4314;1.3077;
1381.2000;0.4322;1.3147;
1381.5000;0.4322;1.3077;
1381.8000;0.4306;1.3124;
1382.1000;0.4314;1.3194;
1382.4000;0.4330;1.3171;
1382.7000;0.4322;1.3171;
1383.0000;0.4322;1.3147;
1383.3000;0.4314;1.3101;
1383.6000;0.4314;1.3101;
1383.9000;0.4330;1.3147;
1384.2000;0.4314;1.3101;
1384.5000;0.4314;1.3147;
1384.8000;0.4347;1.3124;
1385.1000;0.4347;1.3124;
1385.4000;0.4314;1.3031;
1385.7000;0.4306;1.3054;
1386.0000;0.4322;1.3077;
1386.3000;0.4322;1.3171;
1386.6000;0.4322;1.3217;
1386.9000;0.4314;1.3287;
1387.2000;0.4314;1.3264;
1387.5000;0.4322;1.3194;
1387.8000;0.4339;1.3240;
1388.1000;0.4363;1.3287;
1388.4000;0.4330;1.3194;
1388.7000;0.4330;1.3287;
1389.0000;0.4322;1.3240;
1389.3000;0.4314;1.3240;
1389.6000;0.4347;1.3310;
1389.9000;0.4306;1.3171;
1390.2000;0.4330;1.3194;
1390.5000;0.4339;1.3217;
1390.8000;0.4314;1.3171;
1391.1000;0.4330;1.3310;
1391.4000;0.4314;1.3264;
1391.7000;0.4330;1.3264;
1392.0000;0.4339;1.3357;
1392.3000;0.4290;1.3217;
1392.6000;0.4306;1.3217;
1392.9000;0.4322;1.3287;
1393.2000;0.4322;1.3240;
1393.5000;0.4322;1.3147;
1393.8000;0.4330;1.3077;
1394.1000;0.4314;1.3124;
1394.4000;0.4298;1.3054;
1394.7000;0.4306;1.3077;
1395.0000;0.4306;1.3171;
1395.3000;0.4330;1.3217;
1395.6000;0.4233;1.3054;
1395.9000;0.4322;1.3287;
1396.2000;0.4314;1.3264;
1396.5000;0.4330;1.3287;
1396.8000;0.4339;1.3380;
1397.1000;0.4330;1.3287;
1397.4000;0.4322;1.3264;
1397.7000;0.4322;1.3217;
1398.0000;0.4330;1.3194;
1398.3000;0.4330;1.3171;
1398.6000;0.4322;1.3147;
1398.9000;0.4322;1.3264;
1399.2000;0.4314;1.3287;
1399.5000;0.4314;1.3217;
1399.8000;0.4306;1.3217;
