time/ms;Fluo/V;P700 deltaI/I x10³;
-199.8000;0.6431;1.3847;
-199.5000;0.6414;1.3847;
-199.2000;0.6447;1.3940;
-198.9000;0.6390;1.3800;
-198.6000;0.6471;1.3940;
-198.3000;0.6431;1.3916;
-198.0000;0.6439;1.3963;
-197.7000;0.6455;1.3986;
-197.4000;0.6447;1.3963;
-197.1000;0.6390;1.3777;
-196.8000;0.6398;1.3847;
-196.5000;0.6463;1.3916;
-196.2000;0.6447;1.3847;
-195.9000;0.6512;1.3963;
-195.6000;0.6431;1.3823;
-195.3000;0.6447;1.3986;
-195.0000;0.6447;1.4010;
-194.7000;0.6439;1.4080;
-194.4000;0.6447;1.4056;
-194.1000;0.6455;1.4150;
-193.8000;0.6431;1.4103;
-193.5000;0.6447;1.4150;
-193.2000;0.6455;1.4056;
-192.9000;0.6439;1.3986;
-192.6000;0.6447;1.4010;
-192.3000;0.6455;1.3940;
-192.0000;0.6520;1.4080;
-191.7000;0.6431;1.3940;
-191.4000;0.6455;1.3870;
-191.1000;0.6447;1.3916;
-190.8000;0.6447;1.3986;
-190.5000;0.6447;1.4033;
-190.2000;0.6447;1.4056;
-189.9000;0.6463;1.4103;
-189.6000;0.6455;1.4103;
-189.3000;0.6447;1.4126;
-189.0000;0.6463;1.4196;
-188.7000;0.6471;1.4289;
-188.4000;0.6439;1.4243;
-188.1000;0.6431;1.4266;
-187.8000;0.6447;1.4289;
-187.5000;0.6447;1.4313;
-187.2000;0.6439;1.4313;
-186.9000;0.6447;1.4383;
-186.6000;0.6447;1.4383;
-186.3000;0.6447;1.4336;
-186.0000;0.6447;1.4196;
-185.7000;0.6447;1.4150;
-185.4000;0.6422;1.4173;
-185.1000;0.6431;1.4243;
-184.8000;0.6398;1.4103;
-184.5000;0.6447;1.4196;
-184.2000;0.6439;1.4196;
-183.9000;0.6439;1.4126;
-183.6000;0.6439;1.4150;
-183.3000;0.6439;1.4219;
-183.0000;0.6447;1.4243;
-182.7000;0.6447;1.4196;
-182.4000;0.6463;1.4173;
-182.1000;0.6455;1.4126;
-181.8000;0.6439;1.4056;
-181.5000;0.6447;1.4126;
-181.2000;0.6431;1.4103;
-180.9000;0.6422;1.4080;
-180.6000;0.6439;1.4173;
-180.3000;0.6447;1.4173;
-180.0000;0.6455;1.4196;
-179.7000;0.6439;1.4080;
-179.4000;0.6463;1.4103;
-179.1000;0.6439;1.4080;
-178.8000;0.6471;1.4103;
-178.5000;0.6471;1.4196;
-178.2000;0.6455;1.4313;
-177.9000;0.6463;1.4313;
-177.6000;0.6447;1.4266;
-177.3000;0.6455;1.4383;
-177.0000;0.6455;1.4429;
-176.7000;0.6439;1.4359;
-176.4000;0.6439;1.4359;
-176.1000;0.6447;1.4359;
-175.8000;0.6439;1.4266;
-175.5000;0.6431;1.4196;
-175.2000;0.6431;1.4150;
-174.9000;0.6447;1.4243;
-174.6000;0.6463;1.4266;
-174.3000;0.6463;1.4266;
-174.0000;0.6439;1.4266;
-173.7000;0.6463;1.4313;
-173.4000;0.6455;1.4313;
-173.1000;0.6439;1.4243;
-172.8000;0.6447;1.4289;
-172.5000;0.6447;1.4150;
-172.2000;0.6447;1.4126;
-171.9000;0.6439;1.4033;
-171.6000;0.6439;1.4080;
-171.3000;0.6431;1.4103;
-171.0000;0.6431;1.4150;
-170.7000;0.6431;1.4266;
-170.4000;0.6447;1.4266;
-170.1000;0.6357;1.3940;
-169.8000;0.6455;1.4266;
-169.5000;0.6439;1.4173;
-169.2000;0.6439;1.4126;
-168.9000;0.6431;1.4196;
-168.6000;0.6455;1.4196;
-168.3000;0.6463;1.4196;
-168.0000;0.6455;1.4196;
-167.7000;0.6455;1.4219;
-167.4000;0.6431;1.4266;
-167.1000;0.6439;1.4266;
-166.8000;0.6447;1.4266;
-166.5000;0.6455;1.4289;
-166.2000;0.6439;1.4313;
-165.9000;0.6447;1.4243;
-165.6000;0.6447;1.4243;
-165.3000;0.6447;1.4196;
-165.0000;0.6447;1.4196;
-164.7000;0.6439;1.4196;
-164.4000;0.6447;1.4196;
-164.1000;0.6463;1.4243;
-163.8000;0.6455;1.4173;
-163.5000;0.6463;1.4266;
-163.2000;0.6471;1.4289;
-162.9000;0.6455;1.4289;
-162.6000;0.6447;1.4289;
-162.3000;0.6447;1.4289;
-162.0000;0.6463;1.4383;
-161.7000;0.6561;1.4686;
-161.4000;0.6447;1.4406;
-161.1000;0.6431;1.4406;
-160.8000;0.6439;1.4313;
-160.5000;0.6439;1.4219;
-160.2000;0.6447;1.4219;
-159.9000;0.6447;1.4219;
-159.6000;0.6447;1.4196;
-159.3000;0.6447;1.4266;
-159.0000;0.6431;1.4103;
-158.7000;0.6439;1.4219;
-158.4000;0.6455;1.4266;
-158.1000;0.6455;1.4266;
-157.8000;0.6447;1.4266;
-157.5000;0.6431;1.4266;
-157.2000;0.6447;1.4196;
-156.9000;0.6455;1.4150;
-156.6000;0.6463;1.4150;
-156.3000;0.6447;1.4150;
-156.0000;0.6439;1.4196;
-155.7000;0.6536;1.4406;
-155.4000;0.6447;1.4126;
-155.1000;0.6439;1.4056;
-154.8000;0.6439;1.4080;
-154.5000;0.6447;1.4033;
-154.2000;0.6463;1.4033;
-153.9000;0.6447;1.4010;
-153.6000;0.6292;1.3683;
-153.3000;0.6447;1.4056;
-153.0000;0.6447;1.4080;
-152.7000;0.6463;1.4173;
-152.4000;0.6455;1.4010;
-152.1000;0.6439;1.4103;
-151.8000;0.6447;1.4150;
-151.5000;0.6455;1.4103;
-151.2000;0.6439;1.4010;
-150.9000;0.6447;1.4010;
-150.6000;0.6455;1.4080;
-150.3000;0.6463;1.4056;
-150.0000;0.6447;1.4010;
-149.7000;0.6439;1.3963;
-149.4000;0.6447;1.4056;
-149.1000;0.6463;1.4103;
-148.8000;0.6463;1.4150;
-148.5000;0.6447;1.4173;
-148.2000;0.6455;1.4243;
-147.9000;0.6463;1.4243;
-147.6000;0.6414;1.4103;
-147.3000;0.6455;1.4243;
-147.0000;0.6447;1.4150;
-146.7000;0.6488;1.4289;
-146.4000;0.6439;1.4103;
-146.1000;0.6431;1.4033;
-145.8000;0.6414;1.3940;
-145.5000;0.6463;1.4173;
-145.2000;0.6455;1.4103;
-144.9000;0.6439;1.4033;
-144.6000;0.6447;1.4080;
-144.3000;0.6455;1.4080;
-144.0000;0.6455;1.4126;
-143.7000;0.6447;1.4126;
-143.4000;0.6447;1.4056;
-143.1000;0.6439;1.3986;
-142.8000;0.6455;1.4080;
-142.5000;0.6455;1.4103;
-142.2000;0.6447;1.4103;
-141.9000;0.6439;1.4080;
-141.6000;0.6455;1.4150;
-141.3000;0.6431;1.4033;
-141.0000;0.6422;1.3986;
-140.7000;0.6439;1.4103;
-140.4000;0.6422;1.4080;
-140.1000;0.6439;1.4056;
-139.8000;0.6439;1.4103;
-139.5000;0.6406;1.3893;
-139.2000;0.6439;1.4056;
-138.9000;0.6447;1.4103;
-138.6000;0.6439;1.4056;
-138.3000;0.6390;1.3893;
-138.0000;0.6422;1.4010;
-137.7000;0.6422;1.3986;
-137.4000;0.6447;1.3986;
-137.1000;0.6447;1.3986;
-136.8000;0.6463;1.3870;
-136.5000;0.6414;1.3800;
-136.2000;0.6439;1.3893;
-135.9000;0.6325;1.3683;
-135.6000;0.6422;1.3893;
-135.3000;0.6447;1.3940;
-135.0000;0.6447;1.3870;
-134.7000;0.6431;1.4010;
-134.4000;0.6439;1.3986;
-134.1000;0.6431;1.4080;
-133.8000;0.6455;1.4150;
-133.5000;0.6431;1.4080;
-133.2000;0.6455;1.4196;
-132.9000;0.6447;1.4196;
-132.6000;0.6455;1.4103;
-132.3000;0.6447;1.4126;
-132.0000;0.6398;1.4010;
-131.7000;0.6422;1.4010;
-131.4000;0.6447;1.4103;
-131.1000;0.6463;1.4196;
-130.8000;0.6463;1.4173;
-130.5000;0.6439;1.4080;
-130.2000;0.6447;1.4173;
-129.9000;0.6439;1.4219;
-129.6000;0.6479;1.4243;
-129.3000;0.6447;1.4103;
-129.0000;0.6431;1.4126;
-128.7000;0.6455;1.4103;
-128.4000;0.6447;1.4126;
-128.1000;0.6439;1.4010;
-127.8000;0.6447;1.4126;
-127.5000;0.6439;1.4150;
-127.2000;0.6431;1.4173;
-126.9000;0.6455;1.4103;
-126.6000;0.6439;1.4080;
-126.3000;0.6422;1.3986;
-126.0000;0.6455;1.4150;
-125.7000;0.6447;1.4173;
-125.4000;0.6439;1.4080;
-125.1000;0.6447;1.4056;
-124.8000;0.6447;1.4103;
-124.5000;0.6447;1.4056;
-124.2000;0.6447;1.4103;
-123.9000;0.6447;1.4150;
-123.6000;0.6447;1.4150;
-123.3000;0.6447;1.4126;
-123.0000;0.6447;1.4056;
-122.7000;0.6455;1.4080;
-122.4000;0.6447;1.3986;
-122.1000;0.6447;1.3986;
-121.8000;0.6447;1.3940;
-121.5000;0.6398;1.3893;
-121.2000;0.6447;1.4010;
-120.9000;0.6447;1.4033;
-120.6000;0.6439;1.3986;
-120.3000;0.6447;1.4033;
-120.0000;0.6431;1.4033;
-119.7000;0.6406;1.3940;
-119.4000;0.6447;1.4080;
-119.1000;0.6422;1.3986;
-118.8000;0.6488;1.4173;
-118.5000;0.6439;1.4080;
-118.2000;0.6447;1.4173;
-117.9000;0.6422;1.4033;
-117.6000;0.6447;1.4056;
-117.3000;0.6439;1.4103;
-117.0000;0.6455;1.4173;
-116.7000;0.6431;1.4150;
-116.4000;0.6447;1.4126;
-116.1000;0.6455;1.4243;
-115.8000;0.6455;1.4266;
-115.5000;0.6431;1.4196;
-115.2000;0.6390;1.3986;
-114.9000;0.6414;1.4126;
-114.6000;0.6431;1.4150;
-114.3000;0.6447;1.4103;
-114.0000;0.6439;1.4056;
-113.7000;0.6431;1.4103;
-113.4000;0.6414;1.4173;
-113.1000;0.6496;1.4289;
-112.8000;0.6463;1.4219;
-112.5000;0.6439;1.4173;
-112.2000;0.6439;1.4196;
-111.9000;0.6439;1.4126;
-111.6000;0.6447;1.4126;
-111.3000;0.6463;1.4126;
-111.0000;0.6439;1.4056;
-110.7000;0.6447;1.4150;
-110.4000;0.6431;1.4033;
-110.1000;0.6439;1.4056;
-109.8000;0.6463;1.4173;
-109.5000;0.6398;1.4056;
-109.2000;0.6447;1.4243;
-108.9000;0.6496;1.4289;
-108.6000;0.6455;1.4243;
-108.3000;0.6447;1.4103;
-108.0000;0.6463;1.4126;
-107.7000;0.6439;1.4033;
-107.4000;0.6439;1.4033;
-107.1000;0.6455;1.4103;
-106.8000;0.6471;1.4103;
-106.5000;0.6447;1.4010;
-106.2000;0.6447;1.4126;
-105.9000;0.6447;1.4126;
-105.6000;0.6463;1.4196;
-105.3000;0.6479;1.4173;
-105.0000;0.6422;1.4103;
-104.7000;0.6422;1.4103;
-104.4000;0.6471;1.4289;
-104.1000;0.6447;1.4173;
-103.8000;0.6414;1.4056;
-103.5000;0.6439;1.4080;
-103.2000;0.6431;1.4150;
-102.9000;0.6422;1.4080;
-102.6000;0.6455;1.4126;
-102.3000;0.6447;1.4010;
-102.0000;0.6439;1.4080;
-101.7000;0.6455;1.4103;
-101.4000;0.6431;1.4056;
-101.1000;0.6439;1.4010;
-100.8000;0.6414;1.3916;
-100.5000;0.6439;1.3916;
-100.2000;0.6439;1.3847;
-99.9000;0.6431;1.3753;
-99.6000;0.6455;1.3823;
-99.3000;0.6447;1.3940;
-99.0000;0.6422;1.3940;
-98.7000;0.6479;1.4103;
-98.4000;0.6463;1.4173;
-98.1000;0.6439;1.4103;
-97.8000;0.6455;1.4150;
-97.5000;0.6447;1.4103;
-97.2000;0.6455;1.4010;
-96.9000;0.6390;1.3916;
-96.6000;0.6431;1.4056;
-96.3000;0.6439;1.4056;
-96.0000;0.6447;1.4056;
-95.7000;0.6447;1.3963;
-95.4000;0.6447;1.3893;
-95.1000;0.6447;1.3800;
-94.8000;0.6471;1.3916;
-94.5000;0.6455;1.3963;
-94.2000;0.6447;1.3940;
-93.9000;0.6439;1.3916;
-93.6000;0.6447;1.3893;
-93.3000;0.6431;1.3800;
-93.0000;0.6447;1.3893;
-92.7000;0.6390;1.3800;
-92.4000;0.6439;1.3893;
-92.1000;0.6447;1.3940;
-91.8000;0.6447;1.3916;
-91.5000;0.6439;1.3870;
-91.2000;0.6455;1.3940;
-90.9000;0.6455;1.4010;
-90.6000;0.6390;1.3893;
-90.3000;0.6325;1.3893;
-90.0000;0.6447;1.4219;
-89.7000;0.6431;1.4150;
-89.4000;0.6455;1.4196;
-89.1000;0.6357;1.4010;
-88.8000;0.6488;1.4243;
-88.5000;0.6431;1.4196;
-88.2000;0.6422;1.4196;
-87.9000;0.6447;1.4266;
-87.6000;0.6447;1.4289;
-87.3000;0.6439;1.4219;
-87.0000;0.6439;1.4289;
-86.7000;0.6431;1.4243;
-86.4000;0.6455;1.4243;
-86.1000;0.6431;1.4126;
-85.8000;0.6439;1.4103;
-85.5000;0.6455;1.4150;
-85.2000;0.6422;1.4126;
-84.9000;0.6447;1.4173;
-84.6000;0.6455;1.4173;
-84.3000;0.6447;1.4266;
-84.0000;0.6447;1.4289;
-83.7000;0.6439;1.4289;
-83.4000;0.6439;1.4266;
-83.1000;0.6439;1.4150;
-82.8000;0.6431;1.4080;
-82.5000;0.6447;1.4126;
-82.2000;0.6398;1.4033;
-81.9000;0.6439;1.4126;
-81.6000;0.6390;1.4103;
-81.3000;0.6431;1.4126;
-81.0000;0.6463;1.4196;
-80.7000;0.6455;1.4173;
-80.4000;0.6447;1.4173;
-80.1000;0.6447;1.4243;
-79.8000;0.6431;1.4150;
-79.5000;0.6439;1.4080;
-79.2000;0.6439;1.4080;
-78.9000;0.6479;1.4033;
-78.6000;0.6431;1.3893;
-78.3000;0.6439;1.4010;
-78.0000;0.6431;1.4010;
-77.7000;0.6431;1.4126;
-77.4000;0.6463;1.4219;
-77.1000;0.6414;1.4150;
-76.8000;0.6439;1.4150;
-76.5000;0.6471;1.4173;
-76.2000;0.6447;1.4056;
-75.9000;0.6447;1.3986;
-75.6000;0.6447;1.4056;
-75.3000;0.6455;1.4126;
-75.0000;0.6439;1.4056;
-74.7000;0.6455;1.4219;
-74.4000;0.6406;1.4219;
-74.1000;0.6447;1.4289;
-73.8000;0.6463;1.4266;
-73.5000;0.6398;1.4150;
-73.2000;0.6439;1.4266;
-72.9000;0.6422;1.4219;
-72.6000;0.6439;1.4150;
-72.3000;0.6447;1.4126;
-72.0000;0.6439;1.4126;
-71.7000;0.6447;1.4080;
-71.4000;0.6455;1.4080;
-71.1000;0.6439;1.4103;
-70.8000;0.6447;1.4056;
-70.5000;0.6447;1.4103;
-70.2000;0.6439;1.4103;
-69.9000;0.6455;1.4150;
-69.6000;0.6479;1.4196;
-69.3000;0.6463;1.4103;
-69.0000;0.6455;1.4103;
-68.7000;0.6496;1.4219;
-68.4000;0.6447;1.4103;
-68.1000;0.6439;1.4173;
-67.8000;0.6431;1.4103;
-67.5000;0.6447;1.4150;
-67.2000;0.6463;1.4266;
-66.9000;0.6447;1.4150;
-66.6000;0.6439;1.4080;
-66.3000;0.6406;1.4080;
-66.0000;0.6471;1.4289;
-65.7000;0.6439;1.4313;
-65.4000;0.6431;1.4313;
-65.1000;0.6455;1.4289;
-64.8000;0.6414;1.4243;
-64.5000;0.6455;1.4219;
-64.2000;0.6431;1.4243;
-63.9000;0.6479;1.4266;
-63.6000;0.6496;1.4359;
-63.3000;0.6463;1.4313;
-63.0000;0.6439;1.4266;
-62.7000;0.6447;1.4313;
-62.4000;0.6471;1.4406;
-62.1000;0.6431;1.4313;
-61.8000;0.6300;1.3963;
-61.5000;0.6447;1.4313;
-61.2000;0.6463;1.4336;
-60.9000;0.6479;1.4336;
-60.6000;0.6455;1.4196;
-60.3000;0.6390;1.4033;
-60.0000;0.6455;1.4266;
-59.7000;0.6471;1.4336;
-59.4000;0.6463;1.4266;
-59.1000;0.6439;1.4196;
-58.8000;0.6365;1.3963;
-58.5000;0.6488;1.4219;
-58.2000;0.6406;1.4033;
-57.9000;0.6455;1.4219;
-57.6000;0.6439;1.4103;
-57.3000;0.6463;1.4173;
-57.0000;0.6447;1.4219;
-56.7000;0.6414;1.4150;
-56.4000;0.6455;1.4150;
-56.1000;0.6447;1.4126;
-55.8000;0.6471;1.4196;
-55.5000;0.6447;1.4173;
-55.2000;0.6455;1.4150;
-54.9000;0.6455;1.4126;
-54.6000;0.6471;1.4196;
-54.3000;0.6463;1.4219;
-54.0000;0.6447;1.4150;
-53.7000;0.6439;1.4150;
-53.4000;0.6447;1.4126;
-53.1000;0.6463;1.4080;
-52.8000;0.6447;1.4010;
-52.5000;0.6447;1.3986;
-52.2000;0.6455;1.4010;
-51.9000;0.6455;1.4103;
-51.6000;0.6455;1.4103;
-51.3000;0.6431;1.4056;
-51.0000;0.6422;1.4173;
-50.7000;0.6382;1.4103;
-50.4000;0.6447;1.4289;
-50.1000;0.6439;1.4336;
-49.8000;0.6431;1.4243;
-49.5000;0.6422;1.4126;
-49.2000;0.6463;1.4150;
-48.9000;0.6431;1.4033;
-48.6000;0.6447;1.4080;
-48.3000;0.6463;1.4103;
-48.0000;0.6455;1.4080;
-47.7000;0.6488;1.4173;
-47.4000;0.6431;1.3963;
-47.1000;0.6406;1.3963;
-46.8000;0.6447;1.4173;
-46.5000;0.6422;1.4103;
-46.2000;0.6439;1.4126;
-45.9000;0.6431;1.4103;
-45.6000;0.6439;1.4126;
-45.3000;0.6479;1.4243;
-45.0000;0.6447;1.4056;
-44.7000;0.6455;1.4033;
-44.4000;0.6439;1.3963;
-44.1000;0.6455;1.4010;
-43.8000;0.6439;1.3963;
-43.5000;0.6471;1.3963;
-43.2000;0.6455;1.3870;
-42.9000;0.6455;1.3940;
-42.6000;0.6455;1.4010;
-42.3000;0.6447;1.4103;
-42.0000;0.6455;1.4103;
-41.7000;0.6463;1.4219;
-41.4000;0.6479;1.4266;
-41.1000;0.6455;1.4196;
-40.8000;0.6455;1.4219;
-40.5000;0.6455;1.4196;
-40.2000;0.6439;1.4219;
-39.9000;0.6455;1.4196;
-39.6000;0.6479;1.4313;
-39.3000;0.6447;1.4383;
-39.0000;0.6455;1.4406;
-38.7000;0.6455;1.4359;
-38.4000;0.6439;1.4289;
-38.1000;0.6447;1.4289;
-37.8000;0.6455;1.4429;
-37.5000;0.6447;1.4383;
-37.2000;0.6488;1.4453;
-36.9000;0.6447;1.4243;
-36.6000;0.6455;1.4243;
-36.3000;0.6447;1.4336;
-36.0000;0.6439;1.4266;
-35.7000;0.6447;1.4266;
-35.4000;0.6447;1.4266;
-35.1000;0.6463;1.4289;
-34.8000;0.6447;1.4196;
-34.5000;0.6463;1.4243;
-34.2000;0.6455;1.4219;
-33.9000;0.6471;1.4313;
-33.6000;0.6447;1.4150;
-33.3000;0.6447;1.4056;
-33.0000;0.6431;1.4010;
-32.7000;0.6455;1.4173;
-32.4000;0.6439;1.4196;
-32.1000;0.6463;1.4336;
-31.8000;0.6422;1.4313;
-31.5000;0.6488;1.4383;
-31.2000;0.6439;1.4196;
-30.9000;0.6463;1.4150;
-30.6000;0.6439;1.4056;
-30.3000;0.6447;1.4010;
-30.0000;0.6455;1.4173;
-29.7000;0.6447;1.4126;
-29.4000;0.6422;1.4033;
-29.1000;0.6455;1.3986;
-28.8000;0.6431;1.3893;
-28.5000;0.6447;1.3916;
-28.2000;0.6447;1.3893;
-27.9000;0.6455;1.3963;
-27.6000;0.6431;1.4010;
-27.3000;0.6463;1.4103;
-27.0000;0.6447;1.4080;
-26.7000;0.6471;1.4266;
-26.4000;0.6447;1.4126;
-26.1000;0.6431;1.4033;
-25.8000;0.6431;1.4033;
-25.5000;0.6447;1.4196;
-25.2000;0.6455;1.4196;
-24.9000;0.6455;1.4196;
-24.6000;0.6447;1.4219;
-24.3000;0.6488;1.4313;
-24.0000;0.6365;1.4010;
-23.7000;0.6463;1.4289;
-23.4000;0.6455;1.4313;
-23.1000;0.6447;1.4289;
-22.8000;0.6447;1.4359;
-22.5000;0.6414;1.4336;
-22.2000;0.6479;1.4476;
-21.9000;0.6390;1.4266;
-21.6000;0.6422;1.4476;
-21.3000;0.6447;1.4453;
-21.0000;0.6447;1.4476;
-20.7000;0.6447;1.4359;
-20.4000;0.6414;1.4266;
-20.1000;0.6414;1.4313;
-19.8000;0.6455;1.4313;
-19.5000;0.6406;1.4243;
-19.2000;0.6447;1.4406;
-18.9000;0.6471;1.4476;
-18.6000;0.6439;1.4359;
-18.3000;0.6455;1.4313;
-18.0000;0.6431;1.4243;
-17.7000;0.6447;1.4150;
-17.4000;0.6455;1.4126;
-17.1000;0.6422;1.4080;
-16.8000;0.6439;1.4010;
-16.5000;0.6431;1.4033;
-16.2000;0.6447;1.4126;
-15.9000;0.6439;1.4196;
-15.6000;0.6431;1.4196;
-15.3000;0.6447;1.4196;
-15.0000;0.6455;1.4173;
-14.7000;0.6455;1.4150;
-14.4000;0.6455;1.4080;
-14.1000;0.6439;1.3986;
-13.8000;0.6455;1.4033;
-13.5000;0.6463;1.4126;
-13.2000;0.6447;1.4033;
-12.9000;0.6455;1.4056;
-12.6000;0.6471;1.4150;
-12.3000;0.6439;1.4080;
-12.0000;0.6455;1.4103;
-11.7000;0.6439;1.4033;
-11.4000;0.6431;1.3963;
-11.1000;0.6431;1.3963;
-10.8000;0.6447;1.3963;
-10.5000;0.6455;1.3986;
-10.2000;0.6447;1.3986;
-9.9000;0.6439;1.4010;
-9.6000;0.6455;1.4080;
-9.3000;0.6439;1.4150;
-9.0000;0.6406;1.4056;
-8.7000;0.6439;1.4126;
-8.4000;0.6463;1.4150;
-8.1000;0.6439;1.4103;
-7.8000;0.6439;1.4173;
-7.5000;0.6398;1.4080;
-7.2000;0.6447;1.4219;
-6.9000;0.6447;1.4243;
-6.6000;0.6406;1.4173;
-6.3000;0.6422;1.4196;
-6.0000;0.6439;1.4219;
-5.7000;0.6439;1.4219;
-5.4000;0.6439;1.4336;
-5.1000;0.6512;1.4429;
-4.8000;0.6455;1.4313;
-4.5000;0.6488;1.4406;
-4.2000;0.6431;1.4429;
-3.9000;0.6463;1.4453;
-3.6000;0.6463;1.4383;
-3.3000;0.6463;1.4289;
-3.0000;0.6447;1.4266;
-2.7000;0.6439;1.4266;
-2.4000;0.6447;1.4196;
-2.1000;0.6447;1.4173;
-1.8000;0.6447;1.4173;
-1.5000;0.6365;1.3940;
-1.2000;0.6455;1.4103;
-0.9000;0.6455;1.4173;
-0.6000;0.6439;1.4103;
-0.3000;0.6422;1.4056;
0.0000;0.6422;1.4056;
0.3000;0.6553;1.4010;
0.6000;0.6675;1.4336;
0.9000;0.6797;1.4662;
1.2000;0.6886;1.4919;
1.5000;0.6968;1.5129;
1.8000;0.7025;1.5338;
2.1000;0.7049;1.5572;
2.4000;0.7114;1.5805;
2.7000;0.7147;1.5898;
3.0000;0.7163;1.5944;
3.3000;0.7179;1.6108;
3.6000;0.7179;1.6154;
3.9000;0.7196;1.6201;
4.2000;0.7220;1.6224;
4.5000;0.7228;1.6201;
4.8000;0.7228;1.6201;
5.1000;0.7253;1.6224;
5.4000;0.7253;1.6201;
5.7000;0.7302;1.6294;
6.0000;0.7302;1.6317;
6.3000;0.7277;1.6201;
6.6000;0.7310;1.6294;
6.9000;0.7334;1.6411;
7.2000;0.7318;1.6434;
7.5000;0.7334;1.6457;
7.8000;0.7342;1.6504;
8.1000;0.7334;1.6481;
8.4000;0.7359;1.6481;
8.7000;0.7367;1.6504;
9.0000;0.7375;1.6504;
9.3000;0.7359;1.6387;
9.6000;0.7391;1.6457;
9.9000;0.7375;1.6411;
10.2000;0.7391;1.6504;
10.5000;0.7391;1.6597;
10.8000;0.7456;1.6737;
11.1000;0.7416;1.6574;
11.4000;0.7424;1.6551;
11.7000;0.7424;1.6481;
12.0000;0.7440;1.6481;
12.3000;0.7424;1.6527;
12.6000;0.7432;1.6527;
12.9000;0.7440;1.6551;
13.2000;0.7448;1.6504;
13.5000;0.7464;1.6597;
13.8000;0.7456;1.6551;
14.1000;0.7456;1.6504;
14.4000;0.7448;1.6364;
14.7000;0.7448;1.6457;
15.0000;0.7473;1.6457;
15.3000;0.7481;1.6481;
15.6000;0.7464;1.6457;
15.9000;0.7521;1.6644;
16.2000;0.7481;1.6504;
16.5000;0.7497;1.6457;
16.8000;0.7513;1.6481;
17.1000;0.7513;1.6481;
17.4000;0.7546;1.6574;
17.7000;0.7530;1.6551;
18.0000;0.7521;1.6527;
18.3000;0.7538;1.6644;
18.6000;0.7513;1.6667;
18.9000;0.7538;1.6667;
19.2000;0.7586;1.6714;
19.5000;0.7554;1.6574;
19.8000;0.7570;1.6504;
20.1000;0.7513;1.6294;
20.4000;0.7554;1.6341;
20.7000;0.7562;1.6364;
21.0000;0.7570;1.6434;
21.3000;0.7578;1.6434;
21.6000;0.7554;1.6481;
21.9000;0.7570;1.6504;
22.2000;0.7521;1.6387;
22.5000;0.7595;1.6551;
22.8000;0.7586;1.6551;
23.1000;0.7611;1.6551;
23.4000;0.7619;1.6597;
23.7000;0.7595;1.6551;
24.0000;0.7603;1.6434;
24.3000;0.7586;1.6364;
24.6000;0.7586;1.6457;
24.9000;0.7603;1.6434;
25.2000;0.7603;1.6457;
25.5000;0.7586;1.6434;
25.8000;0.7595;1.6457;
26.1000;0.7595;1.6411;
26.4000;0.7603;1.6317;
26.7000;0.7611;1.6271;
27.0000;0.7635;1.6248;
27.3000;0.7619;1.6248;
27.6000;0.7627;1.6248;
27.9000;0.7611;1.6201;
28.2000;0.7643;1.6294;
28.5000;0.7635;1.6248;
28.8000;0.7643;1.6224;
29.1000;0.7652;1.6178;
29.4000;0.7635;1.6201;
29.7000;0.7652;1.6271;
30.0000;0.7635;1.6248;
30.3000;0.7603;1.6294;
30.6000;0.7538;1.6061;
30.9000;0.7627;1.6248;
31.2000;0.7586;1.6108;
31.5000;0.7627;1.6201;
31.8000;0.7611;1.6108;
32.1000;0.7692;1.6248;
32.4000;0.7660;1.6108;
32.7000;0.7668;1.6154;
33.0000;0.7635;1.6108;
33.3000;0.7668;1.6224;
33.6000;0.7668;1.6294;
33.9000;0.7684;1.6248;
34.2000;0.7668;1.6294;
34.5000;0.7676;1.6201;
34.8000;0.7668;1.6201;
35.1000;0.7676;1.6201;
35.4000;0.7660;1.6271;
35.7000;0.7660;1.6271;
36.0000;0.7676;1.6364;
36.3000;0.7717;1.6504;
36.6000;0.7643;1.6341;
36.9000;0.7660;1.6364;
37.2000;0.7652;1.6294;
37.5000;0.7692;1.6411;
37.8000;0.7668;1.6434;
38.1000;0.7660;1.6434;
38.4000;0.7692;1.6457;
38.7000;0.7676;1.6434;
39.0000;0.7668;1.6411;
39.3000;0.7660;1.6387;
39.6000;0.7676;1.6411;
39.9000;0.7676;1.6341;
40.2000;0.7733;1.6504;
40.5000;0.7700;1.6411;
40.8000;0.7676;1.6387;
41.1000;0.7668;1.6341;
41.4000;0.7676;1.6317;
41.7000;0.7684;1.6341;
42.0000;0.7700;1.6317;
42.3000;0.7692;1.6294;
42.6000;0.7684;1.6411;
42.9000;0.7684;1.6294;
43.2000;0.7684;1.6364;
43.5000;0.7709;1.6481;
43.8000;0.7684;1.6387;
44.1000;0.7717;1.6411;
44.4000;0.7692;1.6341;
44.7000;0.7692;1.6271;
45.0000;0.7684;1.6317;
45.3000;0.7700;1.6387;
45.6000;0.7692;1.6387;
45.9000;0.7700;1.6411;
46.2000;0.7717;1.6457;
46.5000;0.7700;1.6481;
46.8000;0.7725;1.6457;
47.1000;0.7733;1.6504;
47.4000;0.7692;1.6434;
47.7000;0.7692;1.6574;
48.0000;0.7709;1.6481;
48.3000;0.7709;1.6504;
48.6000;0.7692;1.6481;
48.9000;0.7725;1.6551;
49.2000;0.7725;1.6481;
49.5000;0.7749;1.6527;
49.8000;0.7733;1.6527;
50.1000;0.7709;1.6481;
50.4000;0.7725;1.6457;
50.7000;0.7757;1.6527;
51.0000;0.7717;1.6504;
51.3000;0.7749;1.6597;
51.6000;0.7725;1.6574;
51.9000;0.7725;1.6504;
52.2000;0.7717;1.6481;
52.5000;0.7733;1.6527;
52.8000;0.7749;1.6620;
53.1000;0.7733;1.6574;
53.4000;0.7725;1.6551;
53.7000;0.7717;1.6527;
54.0000;0.7741;1.6644;
54.3000;0.7717;1.6620;
54.6000;0.7749;1.6597;
54.9000;0.7733;1.6574;
55.2000;0.7733;1.6597;
55.5000;0.7717;1.6597;
55.8000;0.7717;1.6551;
56.1000;0.7717;1.6551;
56.4000;0.7774;1.6690;
56.7000;0.7774;1.6620;
57.0000;0.7725;1.6551;
57.3000;0.7717;1.6551;
57.6000;0.7725;1.6551;
57.9000;0.7741;1.6597;
58.2000;0.7749;1.6597;
58.5000;0.7733;1.6457;
58.8000;0.7733;1.6457;
59.1000;0.7725;1.6504;
59.4000;0.7692;1.6411;
59.7000;0.7798;1.6690;
60.0000;0.7733;1.6504;
60.3000;0.7749;1.6504;
60.6000;0.7741;1.6504;
60.9000;0.7733;1.6504;
61.2000;0.7733;1.6597;
61.5000;0.7749;1.6574;
61.8000;0.7741;1.6504;
62.1000;0.7741;1.6504;
62.4000;0.7733;1.6457;
62.7000;0.7733;1.6434;
63.0000;0.7749;1.6457;
63.3000;0.7725;1.6411;
63.6000;0.7741;1.6457;
63.9000;0.7790;1.6620;
64.2000;0.7717;1.6387;
64.5000;0.7749;1.6504;
64.8000;0.7733;1.6504;
65.1000;0.7709;1.6341;
65.4000;0.7741;1.6294;
65.7000;0.7749;1.6364;
66.0000;0.7749;1.6387;
66.3000;0.7717;1.6387;
66.6000;0.7741;1.6387;
66.9000;0.7741;1.6317;
67.2000;0.7741;1.6271;
67.5000;0.7725;1.6387;
67.8000;0.7733;1.6504;
68.1000;0.7741;1.6434;
68.4000;0.7749;1.6481;
68.7000;0.7709;1.6504;
69.0000;0.7733;1.6527;
69.3000;0.7700;1.6457;
69.6000;0.7790;1.6667;
69.9000;0.7733;1.6457;
70.2000;0.7757;1.6527;
70.5000;0.7709;1.6457;
70.8000;0.7757;1.6551;
71.1000;0.7733;1.6481;
71.4000;0.7725;1.6527;
71.7000;0.7806;1.6714;
72.0000;0.7741;1.6551;
72.3000;0.7741;1.6504;
72.6000;0.7741;1.6574;
72.9000;0.7717;1.6551;
73.2000;0.7749;1.6644;
73.5000;0.7725;1.6504;
73.8000;0.7652;1.6294;
74.1000;0.7757;1.6551;
74.4000;0.7757;1.6481;
74.7000;0.7709;1.6387;
75.0000;0.7733;1.6527;
75.3000;0.7700;1.6341;
75.6000;0.7823;1.6667;
75.9000;0.7766;1.6597;
76.2000;0.7766;1.6620;
76.5000;0.7749;1.6597;
76.8000;0.7733;1.6551;
77.1000;0.7749;1.6574;
77.4000;0.7757;1.6551;
77.7000;0.7749;1.6504;
78.0000;0.7741;1.6434;
78.3000;0.7741;1.6411;
78.6000;0.7749;1.6411;
78.9000;0.7733;1.6271;
79.2000;0.7823;1.6481;
79.5000;0.7757;1.6434;
79.8000;0.7774;1.6411;
80.1000;0.7757;1.6317;
80.4000;0.7733;1.6294;
80.7000;0.7757;1.6317;
81.0000;0.7749;1.6317;
81.3000;0.7741;1.6457;
81.6000;0.7733;1.6387;
81.9000;0.7757;1.6504;
82.2000;0.7757;1.6481;
82.5000;0.7782;1.6644;
82.8000;0.7757;1.6504;
83.1000;0.7749;1.6457;
83.4000;0.7757;1.6504;
83.7000;0.7749;1.6504;
84.0000;0.7774;1.6457;
84.3000;0.7766;1.6411;
84.6000;0.7766;1.6341;
84.9000;0.7741;1.6317;
85.2000;0.7757;1.6341;
85.5000;0.7766;1.6364;
85.8000;0.7749;1.6341;
86.1000;0.7741;1.6271;
86.4000;0.7741;1.6248;
86.7000;0.7741;1.6224;
87.0000;0.7692;1.6154;
87.3000;0.7757;1.6341;
87.6000;0.7766;1.6364;
87.9000;0.7798;1.6434;
88.2000;0.7749;1.6434;
88.5000;0.7757;1.6481;
88.8000;0.7782;1.6481;
89.1000;0.7709;1.6248;
89.4000;0.7733;1.6248;
89.7000;0.7766;1.6341;
90.0000;0.7766;1.6364;
90.3000;0.7757;1.6387;
90.6000;0.7757;1.6434;
90.9000;0.7782;1.6481;
91.2000;0.7757;1.6481;
91.5000;0.7774;1.6527;
91.8000;0.7766;1.6504;
92.1000;0.7749;1.6364;
92.4000;0.7774;1.6364;
92.7000;0.7741;1.6294;
93.0000;0.7757;1.6271;
93.3000;0.7733;1.6248;
93.6000;0.7757;1.6317;
93.9000;0.7774;1.6387;
94.2000;0.7709;1.6154;
94.5000;0.7766;1.6364;
94.8000;0.7774;1.6387;
95.1000;0.7757;1.6481;
95.4000;0.7766;1.6434;
95.7000;0.7757;1.6527;
96.0000;0.7749;1.6597;
96.3000;0.7749;1.6620;
96.6000;0.7757;1.6551;
96.9000;0.7717;1.6364;
97.2000;0.7757;1.6434;
97.5000;0.7757;1.6481;
97.8000;0.7757;1.6504;
98.1000;0.7741;1.6620;
98.4000;0.7774;1.6597;
98.7000;0.7790;1.6667;
99.0000;0.7757;1.6574;
99.3000;0.7749;1.6457;
99.6000;0.7757;1.6387;
99.9000;0.7757;1.6457;
100.2000;0.7782;1.6551;
100.5000;0.7766;1.6620;
100.8000;0.7749;1.6481;
101.1000;0.7757;1.6527;
101.4000;0.7749;1.6551;
101.7000;0.7757;1.6597;
102.0000;0.7749;1.6504;
102.3000;0.7749;1.6434;
102.6000;0.7741;1.6411;
102.9000;0.7741;1.6457;
103.2000;0.7741;1.6387;
103.5000;0.7733;1.6317;
103.8000;0.7749;1.6341;
104.1000;0.7928;1.6760;
104.4000;0.7749;1.6387;
104.7000;0.7749;1.6411;
105.0000;0.7782;1.6457;
105.3000;0.7766;1.6341;
105.6000;0.7782;1.6364;
105.9000;0.7814;1.6411;
106.2000;0.7774;1.6364;
106.5000;0.7766;1.6411;
106.8000;0.7766;1.6387;
107.1000;0.7741;1.6248;
107.4000;0.7774;1.6317;
107.7000;0.7757;1.6364;
108.0000;0.7766;1.6364;
108.3000;0.7782;1.6364;
108.6000;0.7774;1.6364;
108.9000;0.7749;1.6224;
109.2000;0.7757;1.6224;
109.5000;0.7749;1.6154;
109.8000;0.7766;1.6201;
110.1000;0.7757;1.6131;
110.4000;0.7749;1.6224;
110.7000;0.7766;1.6271;
111.0000;0.7757;1.6178;
111.3000;0.7766;1.6294;
111.6000;0.7766;1.6364;
111.9000;0.7749;1.6341;
112.2000;0.7766;1.6364;
112.5000;0.7733;1.6364;
112.8000;0.7757;1.6457;
113.1000;0.7676;1.6248;
113.4000;0.7741;1.6364;
113.7000;0.7741;1.6317;
114.0000;0.7717;1.6341;
114.3000;0.7741;1.6434;
114.6000;0.7774;1.6481;
114.9000;0.7823;1.6527;
115.2000;0.7766;1.6457;
115.5000;0.7782;1.6481;
115.8000;0.7766;1.6387;
116.1000;0.7741;1.6271;
116.4000;0.7766;1.6364;
116.7000;0.7782;1.6341;
117.0000;0.7774;1.6317;
117.3000;0.7766;1.6294;
117.6000;0.7757;1.6224;
117.9000;0.7774;1.6317;
118.2000;0.7774;1.6317;
118.5000;0.7725;1.6341;
118.8000;0.7757;1.6317;
119.1000;0.7766;1.6271;
119.4000;0.7766;1.6224;
119.7000;0.7749;1.6131;
120.0000;0.7766;1.6131;
120.3000;0.7871;1.6364;
120.6000;0.7766;1.6108;
120.9000;0.7757;1.6131;
121.2000;0.7749;1.6154;
121.5000;0.7749;1.6154;
121.8000;0.7814;1.6387;
122.1000;0.7766;1.6248;
122.4000;0.7766;1.6154;
122.7000;0.7741;1.6154;
123.0000;0.7774;1.6271;
123.3000;0.7782;1.6317;
123.6000;0.7790;1.6341;
123.9000;0.7766;1.6294;
124.2000;0.7757;1.6341;
124.5000;0.7774;1.6364;
124.8000;0.7782;1.6341;
125.1000;0.7766;1.6341;
125.4000;0.7782;1.6551;
125.7000;0.7782;1.6574;
126.0000;0.7774;1.6504;
126.3000;0.7782;1.6527;
126.6000;0.7806;1.6574;
126.9000;0.7798;1.6667;
127.2000;0.7766;1.6644;
127.5000;0.7782;1.6574;
127.8000;0.7782;1.6434;
128.1000;0.7757;1.6317;
128.4000;0.7757;1.6411;
128.7000;0.7749;1.6481;
129.0000;0.7741;1.6434;
129.3000;0.7684;1.6131;
129.6000;0.7782;1.6317;
129.9000;0.7782;1.6411;
130.2000;0.7741;1.6387;
130.5000;0.7757;1.6364;
130.8000;0.7831;1.6504;
131.1000;0.7782;1.6481;
131.4000;0.7774;1.6504;
131.7000;0.7757;1.6434;
132.0000;0.7757;1.6411;
132.3000;0.7741;1.6411;
132.6000;0.7806;1.6504;
132.9000;0.7766;1.6364;
133.2000;0.7749;1.6341;
133.5000;0.7766;1.6294;
133.8000;0.7774;1.6317;
134.1000;0.7798;1.6364;
134.4000;0.7790;1.6341;
134.7000;0.7774;1.6271;
135.0000;0.7782;1.6271;
135.3000;0.7766;1.6271;
135.6000;0.7733;1.6178;
135.9000;0.7782;1.6248;
136.2000;0.7790;1.6248;
136.5000;0.7798;1.6224;
136.8000;0.7782;1.6201;
137.1000;0.7766;1.6201;
137.4000;0.7766;1.6271;
137.7000;0.7766;1.6271;
138.0000;0.7871;1.6504;
138.3000;0.7782;1.6248;
138.6000;0.7757;1.6201;
138.9000;0.7749;1.6154;
139.2000;0.7774;1.6224;
139.5000;0.7757;1.6271;
139.8000;0.7782;1.6387;
140.1000;0.7749;1.6317;
140.4000;0.7757;1.6178;
140.7000;0.7774;1.6271;
141.0000;0.7766;1.6131;
141.3000;0.7806;1.6224;
141.6000;0.7798;1.6131;
141.9000;0.7766;1.6154;
142.2000;0.7774;1.6271;
142.5000;0.7782;1.6271;
142.8000;0.7757;1.6201;
143.1000;0.7774;1.6224;
143.4000;0.7766;1.6224;
143.7000;0.7790;1.6224;
144.0000;0.7766;1.6224;
144.3000;0.7814;1.6364;
144.6000;0.7790;1.6364;
144.9000;0.7839;1.6434;
145.2000;0.7757;1.6224;
145.5000;0.7766;1.6224;
145.8000;0.7757;1.6178;
146.1000;0.7774;1.6248;
146.4000;0.7766;1.6178;
146.7000;0.7790;1.6178;
147.0000;0.7782;1.6108;
147.3000;0.7831;1.6224;
147.6000;0.7757;1.6061;
147.9000;0.7766;1.6178;
148.2000;0.7757;1.6271;
148.5000;0.7725;1.6178;
148.8000;0.7741;1.6201;
149.1000;0.7749;1.6131;
149.4000;0.7700;1.5991;
149.7000;0.7806;1.6224;
150.0000;0.7757;1.6084;
150.3000;0.7790;1.6178;
150.6000;0.7790;1.6271;
150.9000;0.7766;1.6201;
151.2000;0.7782;1.6224;
151.5000;0.7725;1.6108;
151.8000;0.7733;1.6108;
152.1000;0.7766;1.6201;
152.4000;0.7766;1.6201;
152.7000;0.7766;1.6131;
153.0000;0.7757;1.6084;
153.3000;0.7749;1.6038;
153.6000;0.7757;1.6131;
153.9000;0.7766;1.6248;
154.2000;0.7741;1.6224;
154.5000;0.7798;1.6364;
154.8000;0.7757;1.6201;
155.1000;0.7757;1.6154;
155.4000;0.7782;1.6154;
155.7000;0.7782;1.6108;
156.0000;0.7782;1.6084;
156.3000;0.7774;1.6131;
156.6000;0.7766;1.6108;
156.9000;0.7782;1.6178;
157.2000;0.7847;1.6178;
157.5000;0.7766;1.6014;
157.8000;0.7798;1.6061;
158.1000;0.7798;1.6178;
158.4000;0.7790;1.6154;
158.7000;0.7798;1.6154;
159.0000;0.7782;1.6154;
159.3000;0.7798;1.6271;
159.6000;0.7774;1.6201;
159.9000;0.7766;1.6341;
160.2000;0.7782;1.6364;
160.5000;0.7766;1.6341;
160.8000;0.7741;1.6248;
161.1000;0.7749;1.6294;
161.4000;0.7782;1.6434;
161.7000;0.7749;1.6248;
162.0000;0.7757;1.6224;
162.3000;0.7733;1.6201;
162.6000;0.7831;1.6387;
162.9000;0.7774;1.6224;
163.2000;0.7725;1.6108;
163.5000;0.7749;1.6178;
163.8000;0.7782;1.6154;
164.1000;0.7774;1.6131;
164.4000;0.7766;1.6038;
164.7000;0.7790;1.6061;
165.0000;0.7766;1.5991;
165.3000;0.7782;1.6108;
165.6000;0.7806;1.6178;
165.9000;0.7749;1.6154;
166.2000;0.7782;1.6201;
166.5000;0.7814;1.6248;
166.8000;0.7774;1.6224;
167.1000;0.7766;1.6248;
167.4000;0.7806;1.6364;
167.7000;0.7766;1.6317;
168.0000;0.7790;1.6364;
168.3000;0.7782;1.6271;
168.6000;0.7847;1.6387;
168.9000;0.7896;1.6597;
169.2000;0.7814;1.6387;
169.5000;0.7782;1.6341;
169.8000;0.7774;1.6294;
170.1000;0.7766;1.6224;
170.4000;0.7774;1.6248;
170.7000;0.7774;1.6224;
171.0000;0.7766;1.6224;
171.3000;0.7766;1.6131;
171.6000;0.7774;1.6154;
171.9000;0.7782;1.6108;
172.2000;0.7725;1.6084;
172.5000;0.7790;1.6154;
172.8000;0.7774;1.6061;
173.1000;0.7782;1.6014;
173.4000;0.7757;1.5991;
173.7000;0.7782;1.6038;
174.0000;0.7749;1.5944;
174.3000;0.7774;1.6038;
174.6000;0.7774;1.6061;
174.9000;0.7757;1.6131;
175.2000;0.7774;1.6108;
175.5000;0.7782;1.6108;
175.8000;0.7774;1.6084;
176.1000;0.7766;1.6108;
176.4000;0.7766;1.6131;
176.7000;0.7749;1.6038;
177.0000;0.7814;1.6131;
177.3000;0.7831;1.6201;
177.6000;0.7766;1.6084;
177.9000;0.7774;1.6131;
178.2000;0.7782;1.6154;
178.5000;0.7790;1.6131;
178.8000;0.7782;1.6178;
179.1000;0.7766;1.6248;
179.4000;0.7774;1.6294;
179.7000;0.7766;1.6317;
180.0000;0.7774;1.6317;
180.3000;0.7717;1.6154;
180.6000;0.7766;1.6341;
180.9000;0.7774;1.6364;
181.2000;0.7741;1.6271;
181.5000;0.7749;1.6224;
181.8000;0.7814;1.6317;
182.1000;0.7782;1.6317;
182.4000;0.7766;1.6317;
182.7000;0.7774;1.6364;
183.0000;0.7774;1.6387;
183.3000;0.7757;1.6364;
183.6000;0.7823;1.6411;
183.9000;0.7766;1.6317;
184.2000;0.7774;1.6317;
184.5000;0.7749;1.6224;
184.8000;0.7766;1.6248;
185.1000;0.7774;1.6224;
185.4000;0.7790;1.6248;
185.7000;0.7806;1.6317;
186.0000;0.7798;1.6294;
186.3000;0.7782;1.6294;
186.6000;0.7749;1.6294;
186.9000;0.7782;1.6317;
187.2000;0.7806;1.6341;
187.5000;0.7782;1.6387;
187.8000;0.7774;1.6411;
188.1000;0.7766;1.6434;
188.4000;0.7782;1.6504;
188.7000;0.7880;1.6737;
189.0000;0.7766;1.6527;
189.3000;0.7774;1.6551;
189.6000;0.7766;1.6644;
189.9000;0.7757;1.6620;
190.2000;0.7741;1.6574;
190.5000;0.7757;1.6551;
190.8000;0.7766;1.6481;
191.1000;0.7774;1.6434;
191.4000;0.7749;1.6364;
191.7000;0.7782;1.6387;
192.0000;0.7774;1.6481;
192.3000;0.7766;1.6481;
192.6000;0.7774;1.6551;
192.9000;0.7766;1.6551;
193.2000;0.7774;1.6597;
193.5000;0.7774;1.6551;
193.8000;0.7757;1.6341;
194.1000;0.7766;1.6317;
194.4000;0.7847;1.6434;
194.7000;0.7766;1.6154;
195.0000;0.7774;1.6178;
195.3000;0.7790;1.6248;
195.6000;0.7749;1.6248;
195.9000;0.7766;1.6271;
196.2000;0.7733;1.6248;
196.5000;0.7741;1.6364;
196.8000;0.7757;1.6248;
197.1000;0.7766;1.6317;
197.4000;0.7766;1.6434;
197.7000;0.7774;1.6457;
198.0000;0.7774;1.6434;
198.3000;0.7757;1.6364;
198.6000;0.7806;1.6411;
198.9000;0.7782;1.6271;
199.2000;0.7774;1.6271;
199.5000;0.7790;1.6271;
199.8000;0.7782;1.6224;
200.1000;0.7782;1.6201;
200.4000;0.7790;1.6224;
200.7000;0.7757;1.6061;
201.0000;0.7766;1.6131;
201.3000;0.7790;1.6201;
201.6000;0.7790;1.6131;
201.9000;0.7766;1.5991;
202.2000;0.7766;1.6038;
202.5000;0.7782;1.6108;
202.8000;0.7798;1.6061;
203.1000;0.7766;1.6108;
203.4000;0.7766;1.6131;
203.7000;0.7782;1.6201;
204.0000;0.7766;1.6154;
204.3000;0.7733;1.6038;
204.6000;0.7766;1.6108;
204.9000;0.7798;1.6154;
205.2000;0.7757;1.6178;
205.5000;0.7700;1.5968;
205.8000;0.7766;1.6178;
206.1000;0.7774;1.6224;
206.4000;0.7725;1.6061;
206.7000;0.7774;1.6131;
207.0000;0.7766;1.6131;
207.3000;0.7782;1.6154;
207.6000;0.7757;1.6108;
207.9000;0.7798;1.6154;
208.2000;0.7766;1.6131;
208.5000;0.7782;1.6178;
208.8000;0.7774;1.6178;
209.1000;0.7774;1.6108;
209.4000;0.7782;1.6224;
209.7000;0.7774;1.6271;
210.0000;0.7790;1.6341;
210.3000;0.7774;1.6294;
210.6000;0.7766;1.6294;
210.9000;0.7766;1.6201;
211.2000;0.7774;1.6131;
211.5000;0.7790;1.6131;
211.8000;0.7766;1.6178;
212.1000;0.7823;1.6457;
212.4000;0.7774;1.6294;
212.7000;0.7766;1.6224;
213.0000;0.7774;1.6294;
213.3000;0.7774;1.6294;
213.6000;0.7774;1.6294;
213.9000;0.7774;1.6364;
214.2000;0.7774;1.6387;
214.5000;0.7790;1.6434;
214.8000;0.7766;1.6341;
215.1000;0.7782;1.6387;
215.4000;0.7774;1.6457;
215.7000;0.7766;1.6411;
216.0000;0.7757;1.6481;
216.3000;0.7766;1.6481;
216.6000;0.7757;1.6481;
216.9000;0.7757;1.6434;
217.2000;0.7749;1.6411;
217.5000;0.7749;1.6341;
217.8000;0.7774;1.6387;
218.1000;0.7782;1.6317;
218.4000;0.7814;1.6504;
218.7000;0.7766;1.6411;
219.0000;0.7782;1.6364;
219.3000;0.7823;1.6434;
219.6000;0.7790;1.6364;
219.9000;0.7766;1.6317;
220.2000;0.7766;1.6387;
220.5000;0.7774;1.6457;
220.8000;0.7757;1.6341;
221.1000;0.7749;1.6271;
221.4000;0.7774;1.6341;
221.7000;0.7774;1.6364;
222.0000;0.7766;1.6364;
222.3000;0.7855;1.6574;
222.6000;0.7766;1.6434;
222.9000;0.7782;1.6481;
223.2000;0.7749;1.6504;
223.5000;0.7798;1.6574;
223.8000;0.7782;1.6574;
224.1000;0.7782;1.6504;
224.4000;0.7798;1.6551;
224.7000;0.7749;1.6457;
225.0000;0.7774;1.6364;
225.3000;0.7766;1.6364;
225.6000;0.7749;1.6341;
225.9000;0.7757;1.6481;
226.2000;0.7766;1.6574;
226.5000;0.7774;1.6551;
226.8000;0.7757;1.6481;
227.1000;0.7757;1.6481;
227.4000;0.7749;1.6434;
227.7000;0.7774;1.6341;
228.0000;0.7823;1.6341;
228.3000;0.7766;1.6224;
228.6000;0.7798;1.6364;
228.9000;0.7774;1.6294;
229.2000;0.7798;1.6387;
229.5000;0.7717;1.6201;
229.8000;0.7766;1.6317;
230.1000;0.7757;1.6317;
230.4000;0.7757;1.6317;
230.7000;0.7741;1.6294;
231.0000;0.7749;1.6224;
231.3000;0.7766;1.6248;
231.6000;0.7757;1.6224;
231.9000;0.7774;1.6294;
232.2000;0.7823;1.6411;
232.5000;0.7774;1.6317;
232.8000;0.7766;1.6248;
233.1000;0.7782;1.6341;
233.4000;0.7798;1.6317;
233.7000;0.7766;1.6271;
234.0000;0.7798;1.6364;
234.3000;0.7790;1.6341;
234.6000;0.7782;1.6294;
234.9000;0.7749;1.6201;
235.2000;0.7774;1.6224;
235.5000;0.7757;1.6108;
235.8000;0.7757;1.6108;
236.1000;0.7774;1.6131;
236.4000;0.7757;1.6131;
236.7000;0.7766;1.6154;
237.0000;0.7757;1.6131;
237.3000;0.7774;1.6201;
237.6000;0.7766;1.6178;
237.9000;0.7749;1.6271;
238.2000;0.7774;1.6411;
238.5000;0.7774;1.6481;
238.8000;0.7749;1.6457;
239.1000;0.7774;1.6457;
239.4000;0.7774;1.6527;
239.7000;0.7782;1.6644;
240.0000;0.7766;1.6667;
240.3000;0.7790;1.6784;
240.6000;0.7766;1.6667;
240.9000;0.7782;1.6574;
241.2000;0.7790;1.6504;
241.5000;0.7757;1.6387;
241.8000;0.7757;1.6294;
242.1000;0.7749;1.6224;
242.4000;0.7749;1.6224;
242.7000;0.7766;1.6248;
243.0000;0.7766;1.6248;
243.3000;0.7700;1.6108;
243.6000;0.7782;1.6317;
243.9000;0.7774;1.6317;
244.2000;0.7766;1.6387;
244.5000;0.7774;1.6434;
244.8000;0.7774;1.6411;
245.1000;0.7757;1.6271;
245.4000;0.7766;1.6294;
245.7000;0.7766;1.6341;
246.0000;0.7774;1.6481;
246.3000;0.7733;1.6341;
246.6000;0.7774;1.6457;
246.9000;0.7782;1.6504;
247.2000;0.7749;1.6411;
247.5000;0.7766;1.6457;
247.8000;0.7782;1.6504;
248.1000;0.7766;1.6434;
248.4000;0.7757;1.6387;
248.7000;0.7749;1.6434;
249.0000;0.7757;1.6527;
249.3000;0.7774;1.6574;
249.6000;0.7757;1.6574;
249.9000;0.7766;1.6551;
250.2000;0.7766;1.6457;
250.5000;0.7725;1.6248;
250.8000;0.7774;1.6341;
251.1000;0.7774;1.6411;
251.4000;0.7774;1.6481;
251.7000;0.7733;1.6411;
252.0000;0.7757;1.6434;
252.3000;0.7790;1.6527;
252.6000;0.7741;1.6434;
252.9000;0.7717;1.6411;
253.2000;0.7766;1.6504;
253.5000;0.7741;1.6527;
253.8000;0.7774;1.6714;
254.1000;0.7782;1.6667;
254.4000;0.7757;1.6690;
254.7000;0.7766;1.6714;
255.0000;0.7766;1.6667;
255.3000;0.7741;1.6551;
255.6000;0.7757;1.6644;
255.9000;0.7766;1.6644;
256.2000;0.7790;1.6620;
256.5000;0.7774;1.6551;
256.8000;0.7741;1.6457;
257.1000;0.7725;1.6341;
257.4000;0.7774;1.6457;
257.7000;0.7814;1.6457;
258.0000;0.7757;1.6317;
258.3000;0.7790;1.6387;
258.6000;0.7749;1.6271;
258.9000;0.7774;1.6341;
259.2000;0.7733;1.6248;
259.5000;0.7831;1.6457;
259.8000;0.7717;1.6224;
260.1000;0.7766;1.6387;
260.4000;0.7766;1.6317;
260.7000;0.7823;1.6481;
261.0000;0.7790;1.6434;
261.3000;0.7766;1.6434;
261.6000;0.7871;1.6667;
261.9000;0.7749;1.6434;
262.2000;0.7757;1.6504;
262.5000;0.7766;1.6434;
262.8000;0.7749;1.6434;
263.1000;0.7774;1.6504;
263.4000;0.7749;1.6457;
263.7000;0.7757;1.6434;
264.0000;0.7725;1.6387;
264.3000;0.7749;1.6411;
264.6000;0.7741;1.6434;
264.9000;0.7757;1.6434;
265.2000;0.7766;1.6411;
265.5000;0.7749;1.6387;
265.8000;0.7749;1.6387;
266.1000;0.7741;1.6364;
266.4000;0.7717;1.6294;
266.7000;0.7757;1.6411;
267.0000;0.7757;1.6481;
267.3000;0.7733;1.6434;
267.6000;0.7774;1.6551;
267.9000;0.7774;1.6551;
268.2000;0.7749;1.6434;
268.5000;0.7790;1.6411;
268.8000;0.7774;1.6387;
269.1000;0.7782;1.6387;
269.4000;0.7766;1.6434;
269.7000;0.7774;1.6481;
270.0000;0.7782;1.6504;
270.3000;0.7782;1.6434;
270.6000;0.7774;1.6364;
270.9000;0.7766;1.6341;
271.2000;0.7766;1.6248;
271.5000;0.7782;1.6178;
271.8000;0.7749;1.6108;
272.1000;0.7757;1.6154;
272.4000;0.7766;1.6317;
272.7000;0.7757;1.6317;
273.0000;0.7774;1.6411;
273.3000;0.7709;1.6294;
273.6000;0.7766;1.6387;
273.9000;0.7757;1.6411;
274.2000;0.7749;1.6481;
274.5000;0.7757;1.6504;
274.8000;0.7757;1.6457;
275.1000;0.7757;1.6341;
275.4000;0.7749;1.6317;
275.7000;0.7766;1.6317;
276.0000;0.7757;1.6341;
276.3000;0.7757;1.6271;
276.6000;0.7774;1.6271;
276.9000;0.7766;1.6248;
277.2000;0.7757;1.6201;
277.5000;0.7766;1.6201;
277.8000;0.7823;1.6294;
278.1000;0.7741;1.6108;
278.4000;0.7757;1.6178;
278.7000;0.7806;1.6341;
279.0000;0.7757;1.6248;
279.3000;0.7782;1.6271;
279.6000;0.7757;1.6317;
279.9000;0.7766;1.6341;
280.2000;0.7790;1.6457;
280.5000;0.7766;1.6387;
280.8000;0.7700;1.6131;
281.1000;0.7766;1.6224;
281.4000;0.7757;1.6317;
281.7000;0.7798;1.6387;
282.0000;0.7839;1.6527;
282.3000;0.7766;1.6317;
282.6000;0.7782;1.6364;
282.9000;0.7774;1.6364;
283.2000;0.7709;1.6201;
283.5000;0.7766;1.6224;
283.8000;0.7847;1.6457;
284.1000;0.7757;1.6271;
284.4000;0.7766;1.6294;
284.7000;0.7871;1.6597;
285.0000;0.7757;1.6387;
285.3000;0.7774;1.6387;
285.6000;0.7766;1.6411;
285.9000;0.7766;1.6317;
286.2000;0.7782;1.6434;
286.5000;0.7741;1.6411;
286.8000;0.7782;1.6481;
287.1000;0.7774;1.6387;
287.4000;0.7766;1.6294;
287.7000;0.7766;1.6271;
288.0000;0.7782;1.6294;
288.3000;0.7757;1.6201;
288.6000;0.7749;1.6201;
288.9000;0.7741;1.6201;
289.2000;0.7766;1.6248;
289.5000;0.7749;1.6271;
289.8000;0.7749;1.6294;
290.1000;0.7741;1.6294;
290.4000;0.7774;1.6317;
290.7000;0.7766;1.6294;
291.0000;0.7757;1.6224;
291.3000;0.7798;1.6317;
291.6000;0.7774;1.6248;
291.9000;0.7766;1.6271;
292.2000;0.7774;1.6224;
292.5000;0.7766;1.6317;
292.8000;0.7757;1.6387;
293.1000;0.7717;1.6341;
293.4000;0.7766;1.6411;
293.7000;0.7709;1.6317;
294.0000;0.7757;1.6457;
294.3000;0.7725;1.6481;
294.6000;0.7757;1.6574;
294.9000;0.7749;1.6527;
295.2000;0.7757;1.6504;
295.5000;0.7749;1.6527;
295.8000;0.7766;1.6527;
296.1000;0.7766;1.6504;
296.4000;0.7798;1.6690;
296.7000;0.7790;1.6690;
297.0000;0.7757;1.6574;
297.3000;0.7782;1.6504;
297.6000;0.7774;1.6434;
297.9000;0.7774;1.6434;
298.2000;0.7725;1.6248;
298.5000;0.7774;1.6434;
298.8000;0.7749;1.6411;
299.1000;0.7757;1.6387;
299.4000;0.7725;1.6271;
299.7000;0.7782;1.6387;
300.0000;0.7757;1.6387;
300.3000;0.7749;1.6434;
300.6000;0.7709;1.6248;
300.9000;0.7757;1.6411;
301.2000;0.7741;1.6411;
301.5000;0.7749;1.6481;
301.8000;0.7749;1.6457;
302.1000;0.7806;1.6504;
302.4000;0.7741;1.6294;
302.7000;0.7766;1.6364;
303.0000;0.7749;1.6248;
303.3000;0.7774;1.6248;
303.6000;0.7774;1.6294;
303.9000;0.7790;1.6294;
304.2000;0.7749;1.6154;
304.5000;0.7741;1.6224;
304.8000;0.7741;1.6201;
305.1000;0.7749;1.6201;
305.4000;0.7749;1.6178;
305.7000;0.7798;1.6248;
306.0000;0.7774;1.6248;
306.3000;0.7757;1.6224;
306.6000;0.7757;1.6271;
306.9000;0.7733;1.6224;
307.2000;0.7782;1.6364;
307.5000;0.7709;1.6178;
307.8000;0.7774;1.6341;
308.1000;0.7766;1.6341;
308.4000;0.7782;1.6387;
308.7000;0.7766;1.6364;
309.0000;0.7749;1.6341;
309.3000;0.7766;1.6387;
309.6000;0.7790;1.6457;
309.9000;0.7766;1.6387;
310.2000;0.7757;1.6411;
310.5000;0.7749;1.6481;
310.8000;0.7774;1.6527;
311.1000;0.7766;1.6504;
311.4000;0.7757;1.6551;
311.7000;0.7757;1.6574;
312.0000;0.7774;1.6481;
312.3000;0.7774;1.6481;
312.6000;0.7749;1.6434;
312.9000;0.7766;1.6434;
313.2000;0.7749;1.6341;
313.5000;0.7806;1.6504;
313.8000;0.7774;1.6481;
314.1000;0.7741;1.6411;
314.4000;0.7700;1.6294;
314.7000;0.7766;1.6434;
315.0000;0.7733;1.6271;
315.3000;0.7660;1.6061;
315.6000;0.7766;1.6294;
315.9000;0.7749;1.6178;
316.2000;0.7774;1.6294;
316.5000;0.7749;1.6224;
316.8000;0.7725;1.6201;
317.1000;0.7766;1.6224;
317.4000;0.7741;1.6178;
317.7000;0.7774;1.6271;
318.0000;0.7757;1.6294;
318.3000;0.7757;1.6364;
318.6000;0.7766;1.6411;
318.9000;0.7757;1.6387;
319.2000;0.7782;1.6457;
319.5000;0.7774;1.6434;
319.8000;0.7749;1.6294;
320.1000;0.7660;1.6131;
320.4000;0.7741;1.6341;
320.7000;0.7757;1.6341;
321.0000;0.7757;1.6317;
321.3000;0.7733;1.6317;
321.6000;0.7692;1.6201;
321.9000;0.7749;1.6364;
322.2000;0.7733;1.6317;
322.5000;0.7717;1.6248;
322.8000;0.7757;1.6341;
323.1000;0.7749;1.6294;
323.4000;0.7766;1.6364;
323.7000;0.7733;1.6341;
324.0000;0.7757;1.6481;
324.3000;0.7733;1.6364;
324.6000;0.7806;1.6457;
324.9000;0.7757;1.6434;
325.2000;0.7749;1.6434;
325.5000;0.7782;1.6387;
325.8000;0.7749;1.6248;
326.1000;0.7766;1.6154;
326.4000;0.7766;1.6131;
326.7000;0.7839;1.6271;
327.0000;0.7749;1.6178;
327.3000;0.7757;1.6224;
327.6000;0.7766;1.6178;
327.9000;0.7749;1.6178;
328.2000;0.7766;1.6201;
328.5000;0.7757;1.6154;
328.8000;0.7766;1.6178;
329.1000;0.7766;1.6317;
329.4000;0.7766;1.6248;
329.7000;0.7749;1.6248;
330.0000;0.7757;1.6317;
330.3000;0.7766;1.6271;
330.6000;0.7766;1.6201;
330.9000;0.7847;1.6434;
331.2000;0.7749;1.6248;
331.5000;0.7766;1.6317;
331.8000;0.7774;1.6341;
332.1000;0.7766;1.6364;
332.4000;0.7757;1.6341;
332.7000;0.7741;1.6294;
333.0000;0.7766;1.6411;
333.3000;0.7733;1.6317;
333.6000;0.7749;1.6317;
333.9000;0.7757;1.6294;
334.2000;0.7782;1.6317;
334.5000;0.7790;1.6364;
334.8000;0.7757;1.6248;
335.1000;0.7766;1.6294;
335.4000;0.7725;1.6201;
335.7000;0.7749;1.6178;
336.0000;0.7782;1.6294;
336.3000;0.7692;1.6178;
336.6000;0.7766;1.6364;
336.9000;0.7766;1.6294;
337.2000;0.7790;1.6341;
337.5000;0.7749;1.6224;
337.8000;0.7774;1.6224;
338.1000;0.7766;1.6248;
338.4000;0.7790;1.6294;
338.7000;0.7766;1.6294;
339.0000;0.7766;1.6317;
339.3000;0.7749;1.6271;
339.6000;0.7757;1.6271;
339.9000;0.7749;1.6294;
340.2000;0.7733;1.6317;
340.5000;0.7757;1.6271;
340.8000;0.7749;1.6271;
341.1000;0.7749;1.6248;
341.4000;0.7749;1.6317;
341.7000;0.7774;1.6341;
342.0000;0.7741;1.6271;
342.3000;0.7709;1.6108;
342.6000;0.7749;1.6131;
342.9000;0.7741;1.6178;
343.2000;0.7749;1.6154;
343.5000;0.7749;1.6248;
343.8000;0.7766;1.6201;
344.1000;0.7757;1.6248;
344.4000;0.7757;1.6271;
344.7000;0.7774;1.6317;
345.0000;0.7749;1.6271;
345.3000;0.7774;1.6364;
345.6000;0.7717;1.6294;
345.9000;0.7766;1.6434;
346.2000;0.7717;1.6411;
346.5000;0.7790;1.6597;
346.8000;0.7749;1.6551;
347.1000;0.7766;1.6551;
347.4000;0.7733;1.6504;
347.7000;0.7749;1.6597;
348.0000;0.7717;1.6504;
348.3000;0.7700;1.6434;
348.6000;0.7741;1.6481;
348.9000;0.7749;1.6411;
349.2000;0.7749;1.6411;
349.5000;0.7749;1.6364;
349.8000;0.7766;1.6387;
350.1000;0.7749;1.6317;
350.4000;0.7806;1.6481;
350.7000;0.7733;1.6317;
351.0000;0.7757;1.6364;
351.3000;0.7741;1.6317;
351.6000;0.7749;1.6224;
351.9000;0.7823;1.6317;
352.2000;0.7757;1.6131;
352.5000;0.7757;1.6178;
352.8000;0.7757;1.6154;
353.1000;0.7774;1.6294;
353.4000;0.7749;1.6224;
353.7000;0.7741;1.6248;
354.0000;0.7741;1.6294;
354.3000;0.7757;1.6271;
354.6000;0.7700;1.6201;
354.9000;0.7741;1.6271;
355.2000;0.7741;1.6178;
355.5000;0.7749;1.6271;
355.8000;0.7766;1.6341;
356.1000;0.7757;1.6271;
356.4000;0.7700;1.6178;
356.7000;0.7749;1.6317;
357.0000;0.7757;1.6224;
357.3000;0.7790;1.6201;
357.6000;0.7766;1.6154;
357.9000;0.7749;1.6201;
358.2000;0.7757;1.6224;
358.5000;0.7831;1.6481;
358.8000;0.7766;1.6271;
359.1000;0.7741;1.6131;
359.4000;0.7692;1.5968;
359.7000;0.7749;1.6108;
360.0000;0.7733;1.6061;
360.3000;0.7709;1.5968;
360.6000;0.7733;1.5968;
360.9000;0.7749;1.6131;
361.2000;0.7790;1.6271;
361.5000;0.7766;1.6084;
361.8000;0.7757;1.6038;
362.1000;0.7766;1.6014;
362.4000;0.7774;1.6061;
362.7000;0.7749;1.5944;
363.0000;0.7757;1.5991;
363.3000;0.7757;1.6014;
363.6000;0.7757;1.6061;
363.9000;0.7766;1.6131;
364.2000;0.7766;1.6201;
364.5000;0.7774;1.6201;
364.8000;0.7774;1.6201;
365.1000;0.7749;1.6178;
365.4000;0.7733;1.6108;
365.7000;0.7741;1.6178;
366.0000;0.7741;1.6224;
366.3000;0.7749;1.6248;
366.6000;0.7757;1.6248;
366.9000;0.7733;1.6224;
367.2000;0.7757;1.6224;
367.5000;0.7733;1.6131;
367.8000;0.7741;1.6248;
368.1000;0.7749;1.6364;
368.4000;0.7749;1.6411;
368.7000;0.7749;1.6481;
369.0000;0.7757;1.6504;
369.3000;0.7741;1.6364;
369.6000;0.7766;1.6341;
369.9000;0.7790;1.6317;
370.2000;0.7741;1.6224;
370.5000;0.7676;1.6084;
370.8000;0.7725;1.6224;
371.1000;0.7749;1.6294;
371.4000;0.7749;1.6317;
371.7000;0.7749;1.6341;
372.0000;0.7733;1.6317;
372.3000;0.7725;1.6294;
372.6000;0.7814;1.6481;
372.9000;0.7766;1.6341;
373.2000;0.7766;1.6411;
373.5000;0.7733;1.6294;
373.8000;0.7749;1.6341;
374.1000;0.7749;1.6364;
374.4000;0.7749;1.6434;
374.7000;0.7700;1.6271;
375.0000;0.7757;1.6411;
375.3000;0.7749;1.6411;
375.6000;0.7725;1.6364;
375.9000;0.7725;1.6411;
376.2000;0.7782;1.6504;
376.5000;0.7757;1.6457;
376.8000;0.7717;1.6364;
377.1000;0.7741;1.6457;
377.4000;0.7733;1.6364;
377.7000;0.7749;1.6364;
378.0000;0.7766;1.6411;
378.3000;0.7692;1.6154;
378.6000;0.7725;1.6248;
378.9000;0.7643;1.6014;
379.2000;0.7757;1.6341;
379.5000;0.7766;1.6224;
379.8000;0.7733;1.6224;
380.1000;0.7757;1.6317;
380.4000;0.7741;1.6248;
380.7000;0.7733;1.6294;
381.0000;0.7741;1.6248;
381.3000;0.7749;1.6341;
381.6000;0.7749;1.6411;
381.9000;0.7733;1.6411;
382.2000;0.7733;1.6387;
382.5000;0.7749;1.6364;
382.8000;0.7757;1.6364;
383.1000;0.7733;1.6294;
383.4000;0.7692;1.6271;
383.7000;0.7749;1.6457;
384.0000;0.7749;1.6387;
384.3000;0.7749;1.6411;
384.6000;0.7733;1.6364;
384.9000;0.7741;1.6387;
385.2000;0.7700;1.6387;
385.5000;0.7749;1.6411;
385.8000;0.7757;1.6387;
386.1000;0.7749;1.6411;
386.4000;0.7676;1.6248;
386.7000;0.7749;1.6481;
387.0000;0.7741;1.6457;
387.3000;0.7733;1.6457;
387.6000;0.7749;1.6434;
387.9000;0.7741;1.6457;
388.2000;0.7717;1.6341;
388.5000;0.7741;1.6341;
388.8000;0.7790;1.6504;
389.1000;0.7749;1.6457;
389.4000;0.7725;1.6457;
389.7000;0.7757;1.6481;
390.0000;0.7741;1.6434;
390.3000;0.7766;1.6527;
390.6000;0.7709;1.6411;
390.9000;0.7749;1.6457;
391.2000;0.7757;1.6481;
391.5000;0.7741;1.6457;
391.8000;0.7741;1.6481;
392.1000;0.7757;1.6411;
392.4000;0.7749;1.6434;
392.7000;0.7733;1.6271;
393.0000;0.7709;1.6294;
393.3000;0.7766;1.6411;
393.6000;0.7692;1.6178;
393.9000;0.7766;1.6294;
394.2000;0.7766;1.6411;
394.5000;0.7790;1.6597;
394.8000;0.7749;1.6457;
395.1000;0.7741;1.6387;
395.4000;0.7725;1.6248;
395.7000;0.7733;1.6271;
396.0000;0.7749;1.6248;
396.3000;0.7741;1.6178;
396.6000;0.7725;1.6131;
396.9000;0.7733;1.6224;
397.2000;0.7741;1.6294;
397.5000;0.7733;1.6178;
397.8000;0.7749;1.6201;
398.1000;0.7741;1.6201;
398.4000;0.7749;1.6178;
398.7000;0.7814;1.6364;
399.0000;0.7725;1.6248;
399.3000;0.7749;1.6271;
399.6000;0.7749;1.6294;
399.9000;0.7766;1.6248;
400.2000;0.7806;1.6434;
400.5000;0.7717;1.6341;
400.8000;0.7757;1.6411;
401.1000;0.7741;1.6294;
401.4000;0.7757;1.6411;
401.7000;0.7749;1.6364;
402.0000;0.7749;1.6411;
402.3000;0.7733;1.6411;
402.6000;0.7741;1.6387;
402.9000;0.7741;1.6387;
403.2000;0.7766;1.6411;
403.5000;0.7733;1.6341;
403.8000;0.7741;1.6364;
404.1000;0.7741;1.6294;
404.4000;0.7717;1.6248;
404.7000;0.7757;1.6294;
405.0000;0.7741;1.6271;
405.3000;0.7749;1.6317;
405.6000;0.7749;1.6364;
405.9000;0.7782;1.6527;
406.2000;0.7733;1.6341;
406.5000;0.7725;1.6411;
406.8000;0.7749;1.6387;
407.1000;0.7741;1.6341;
407.4000;0.7766;1.6411;
407.7000;0.7725;1.6294;
408.0000;0.7725;1.6294;
408.3000;0.7684;1.6201;
408.6000;0.7741;1.6224;
408.9000;0.7741;1.6201;
409.2000;0.7741;1.6201;
409.5000;0.7757;1.6271;
409.8000;0.7757;1.6294;
410.1000;0.7757;1.6178;
410.4000;0.7741;1.6178;
410.7000;0.7733;1.6178;
411.0000;0.7757;1.6131;
411.3000;0.7733;1.6084;
411.6000;0.7766;1.6178;
411.9000;0.7749;1.6224;
412.2000;0.7700;1.6084;
412.5000;0.7717;1.6178;
412.8000;0.7725;1.6248;
413.1000;0.7749;1.6271;
413.4000;0.7725;1.6201;
413.7000;0.7806;1.6364;
414.0000;0.7774;1.6271;
414.3000;0.7749;1.6201;
414.6000;0.7782;1.6341;
414.9000;0.7757;1.6294;
415.2000;0.7774;1.6364;
415.5000;0.7700;1.6294;
415.8000;0.7733;1.6481;
416.1000;0.7717;1.6341;
416.4000;0.7757;1.6294;
416.7000;0.7863;1.6597;
417.0000;0.7749;1.6364;
417.3000;0.7757;1.6294;
417.6000;0.7733;1.6294;
417.9000;0.7741;1.6317;
418.2000;0.7741;1.6201;
418.5000;0.7725;1.6038;
418.8000;0.7774;1.6178;
419.1000;0.7717;1.5991;
419.4000;0.7717;1.5968;
419.7000;0.7757;1.6061;
420.0000;0.7839;1.6317;
420.3000;0.7749;1.6131;
420.6000;0.7733;1.6084;
420.9000;0.7749;1.6201;
421.2000;0.7741;1.6224;
421.5000;0.7725;1.6201;
421.8000;0.7733;1.6248;
422.1000;0.7757;1.6317;
422.4000;0.7725;1.6201;
422.7000;0.7700;1.6131;
423.0000;0.7733;1.6271;
423.3000;0.7749;1.6248;
423.6000;0.7749;1.6201;
423.9000;0.7749;1.6178;
424.2000;0.7766;1.6248;
424.5000;0.7733;1.6201;
424.8000;0.7766;1.6271;
425.1000;0.7814;1.6317;
425.4000;0.7749;1.6178;
425.7000;0.7741;1.6084;
426.0000;0.7741;1.6038;
426.3000;0.7757;1.6131;
426.6000;0.7725;1.6084;
426.9000;0.7733;1.6084;
427.2000;0.7725;1.6108;
427.5000;0.7733;1.6178;
427.8000;0.7749;1.6248;
428.1000;0.7725;1.6224;
428.4000;0.7733;1.6201;
428.7000;0.7733;1.6108;
429.0000;0.7741;1.5991;
429.3000;0.7725;1.6038;
429.6000;0.7741;1.5968;
429.9000;0.7741;1.6061;
430.2000;0.7741;1.6014;
430.5000;0.7782;1.6084;
430.8000;0.7749;1.5991;
431.1000;0.7757;1.6038;
431.4000;0.7766;1.6014;
431.7000;0.7741;1.5921;
432.0000;0.7741;1.5851;
432.3000;0.7652;1.5525;
432.6000;0.7749;1.5758;
432.9000;0.7749;1.5828;
433.2000;0.7717;1.5805;
433.5000;0.7709;1.5735;
433.8000;0.7774;1.5805;
434.1000;0.7749;1.5735;
434.4000;0.7741;1.5781;
434.7000;0.7725;1.5665;
435.0000;0.7749;1.5735;
435.3000;0.7741;1.5618;
435.6000;0.7749;1.5665;
435.9000;0.7733;1.5758;
436.2000;0.7749;1.5805;
436.5000;0.7766;1.5805;
436.8000;0.7733;1.5711;
437.1000;0.7749;1.5735;
437.4000;0.7823;1.5898;
437.7000;0.7749;1.5758;
438.0000;0.7741;1.5735;
438.3000;0.7725;1.5735;
438.6000;0.7709;1.5711;
438.9000;0.7749;1.5944;
439.2000;0.7741;1.5898;
439.5000;0.7733;1.5921;
439.8000;0.7725;1.5944;
440.1000;0.7741;1.5875;
440.4000;0.7847;1.6084;
440.7000;0.7733;1.5921;
441.0000;0.7741;1.5944;
441.3000;0.7749;1.6014;
441.6000;0.7757;1.6108;
441.9000;0.7757;1.6131;
442.2000;0.7733;1.6084;
442.5000;0.7725;1.5968;
442.8000;0.7766;1.6061;
443.1000;0.7733;1.5944;
443.4000;0.7741;1.6014;
443.7000;0.7733;1.6061;
444.0000;0.7741;1.6131;
444.3000;0.7733;1.6131;
444.6000;0.7733;1.6108;
444.9000;0.7749;1.6271;
445.2000;0.7806;1.6504;
445.5000;0.7741;1.6341;
445.8000;0.7741;1.6294;
446.1000;0.7757;1.6387;
446.4000;0.7717;1.6271;
446.7000;0.7725;1.6271;
447.0000;0.7741;1.6224;
447.3000;0.7790;1.6341;
447.6000;0.7757;1.6317;
447.9000;0.7733;1.6224;
448.2000;0.7749;1.6178;
448.5000;0.7733;1.6108;
448.8000;0.7782;1.6271;
449.1000;0.7741;1.6224;
449.4000;0.7814;1.6341;
449.7000;0.7725;1.6014;
450.0000;0.7700;1.5944;
450.3000;0.7749;1.6131;
450.6000;0.7766;1.6178;
450.9000;0.7733;1.6178;
451.2000;0.7741;1.6201;
451.5000;0.7749;1.6224;
451.8000;0.7757;1.6294;
452.1000;0.7733;1.6224;
452.4000;0.7668;1.6084;
452.7000;0.7741;1.6224;
453.0000;0.7733;1.6154;
453.3000;0.7725;1.6084;
453.6000;0.7725;1.6178;
453.9000;0.7717;1.5991;
454.2000;0.7749;1.6014;
454.5000;0.7733;1.5968;
454.8000;0.7741;1.5805;
455.1000;0.7741;1.5758;
455.4000;0.7733;1.5898;
455.7000;0.7733;1.6014;
456.0000;0.7749;1.6038;
456.3000;0.7798;1.6178;
456.6000;0.7749;1.6038;
456.9000;0.7741;1.6014;
457.2000;0.7757;1.6038;
457.5000;0.7749;1.5968;
457.8000;0.7733;1.5921;
458.1000;0.7741;1.5968;
458.4000;0.7692;1.5805;
458.7000;0.7741;1.5944;
459.0000;0.7733;1.5991;
459.3000;0.7749;1.5991;
459.6000;0.7741;1.5944;
459.9000;0.7741;1.5968;
460.2000;0.7725;1.6014;
460.5000;0.7733;1.6014;
460.8000;0.7749;1.6038;
461.1000;0.7757;1.6108;
461.4000;0.7717;1.6014;
461.7000;0.7725;1.6084;
462.0000;0.7757;1.6178;
462.3000;0.7749;1.6201;
462.6000;0.7749;1.6294;
462.9000;0.7749;1.6317;
463.2000;0.7757;1.6341;
463.5000;0.7733;1.6317;
463.8000;0.7733;1.6317;
464.1000;0.7766;1.6387;
464.4000;0.7717;1.6364;
464.7000;0.7733;1.6411;
465.0000;0.7741;1.6364;
465.3000;0.7757;1.6387;
465.6000;0.7757;1.6341;
465.9000;0.7757;1.6294;
466.2000;0.7749;1.6154;
466.5000;0.7741;1.6248;
466.8000;0.7782;1.6481;
467.1000;0.7790;1.6457;
467.4000;0.7725;1.6411;
467.7000;0.7717;1.6294;
468.0000;0.7717;1.6248;
468.3000;0.7660;1.6178;
468.6000;0.7741;1.6341;
468.9000;0.7733;1.6154;
469.2000;0.7692;1.6108;
469.5000;0.7692;1.6061;
469.8000;0.7709;1.6061;
470.1000;0.7741;1.6131;
470.4000;0.7749;1.6131;
470.7000;0.7725;1.6038;
471.0000;0.7709;1.6038;
471.3000;0.7741;1.6108;
471.6000;0.7733;1.6038;
471.9000;0.7798;1.6154;
472.2000;0.7757;1.6108;
472.5000;0.7741;1.6038;
472.8000;0.7766;1.6108;
473.1000;0.7782;1.6084;
473.4000;0.7741;1.5968;
473.7000;0.7749;1.6108;
474.0000;0.7741;1.6038;
474.3000;0.7717;1.6084;
474.6000;0.7757;1.6178;
474.9000;0.7733;1.6108;
475.2000;0.7733;1.6084;
475.5000;0.7733;1.6061;
475.8000;0.7741;1.6084;
476.1000;0.7660;1.5875;
476.4000;0.7749;1.6178;
476.7000;0.7741;1.6294;
477.0000;0.7741;1.6341;
477.3000;0.7741;1.6364;
477.6000;0.7741;1.6341;
477.9000;0.7741;1.6341;
478.2000;0.7733;1.6271;
478.5000;0.7725;1.6271;
478.8000;0.7741;1.6248;
479.1000;0.7741;1.6224;
479.4000;0.7757;1.6248;
479.7000;0.7733;1.6201;
480.0000;0.7733;1.6201;
480.3000;0.7741;1.6248;
480.6000;0.7709;1.6178;
480.9000;0.7717;1.6317;
481.2000;0.7733;1.6411;
481.5000;0.7733;1.6317;
481.8000;0.7741;1.6341;
482.1000;0.7741;1.6294;
482.4000;0.7733;1.6248;
482.7000;0.7749;1.6271;
483.0000;0.7741;1.6201;
483.3000;0.7749;1.6201;
483.6000;0.7757;1.6317;
483.9000;0.7741;1.6271;
484.2000;0.7741;1.6248;
484.5000;0.7741;1.6248;
484.8000;0.7733;1.6248;
485.1000;0.7823;1.6457;
485.4000;0.7782;1.6434;
485.7000;0.7717;1.6434;
486.0000;0.7733;1.6481;
486.3000;0.7733;1.6411;
486.6000;0.7774;1.6411;
486.9000;0.7725;1.6224;
487.2000;0.7733;1.6248;
487.5000;0.7733;1.6108;
487.8000;0.7749;1.6084;
488.1000;0.7709;1.5944;
488.4000;0.7733;1.5991;
488.7000;0.7725;1.6038;
489.0000;0.7741;1.6108;
489.3000;0.7725;1.6224;
489.6000;0.7749;1.6341;
489.9000;0.7700;1.6201;
490.2000;0.7782;1.6364;
490.5000;0.7814;1.6481;
490.8000;0.7717;1.6341;
491.1000;0.7709;1.6271;
491.4000;0.7668;1.6061;
491.7000;0.7766;1.6224;
492.0000;0.7717;1.6131;
492.3000;0.7782;1.6248;
492.6000;0.7839;1.6481;
492.9000;0.7733;1.6224;
493.2000;0.7725;1.6178;
493.5000;0.7757;1.6224;
493.8000;0.7700;1.6201;
494.1000;0.7782;1.6387;
494.4000;0.7741;1.6317;
494.7000;0.7757;1.6387;
495.0000;0.7700;1.6317;
495.3000;0.7741;1.6411;
495.6000;0.7709;1.6387;
495.9000;0.7733;1.6387;
496.2000;0.7709;1.6294;
496.5000;0.7757;1.6387;
496.8000;0.7741;1.6317;
497.1000;0.7741;1.6294;
497.4000;0.7733;1.6271;
497.7000;0.7749;1.6294;
498.0000;0.7741;1.6294;
498.3000;0.7741;1.6248;
498.6000;0.7709;1.6154;
498.9000;0.7741;1.6178;
499.2000;0.7749;1.6201;
499.5000;0.7733;1.6131;
499.8000;0.7741;1.6131;
500.1000;0.7741;1.6061;
500.4000;0.7749;1.6131;
500.7000;0.7725;1.6178;
501.0000;0.7741;1.6084;
501.3000;0.7741;1.6108;
501.6000;0.7733;1.6178;
501.9000;0.7725;1.6248;
502.2000;0.7741;1.6271;
502.5000;0.7725;1.6224;
502.8000;0.7741;1.6224;
503.1000;0.7684;1.6108;
503.4000;0.7643;1.6061;
503.7000;0.7741;1.6294;
504.0000;0.7757;1.6317;
504.3000;0.7757;1.6294;
504.6000;0.7782;1.6341;
504.9000;0.7733;1.6178;
505.2000;0.7741;1.6294;
505.5000;0.7733;1.6317;
505.8000;0.7709;1.6294;
506.1000;0.7717;1.6271;
506.4000;0.7733;1.6294;
506.7000;0.7749;1.6271;
507.0000;0.7749;1.6341;
507.3000;0.7700;1.6294;
507.6000;0.7733;1.6341;
507.9000;0.7741;1.6364;
508.2000;0.7709;1.6224;
508.5000;0.7700;1.6131;
508.8000;0.7717;1.6271;
509.1000;0.7741;1.6271;
509.4000;0.7700;1.6154;
509.7000;0.7733;1.6341;
510.0000;0.7717;1.6364;
510.3000;0.7709;1.6387;
510.6000;0.7741;1.6504;
510.9000;0.7700;1.6341;
511.2000;0.7725;1.6341;
511.5000;0.7725;1.6271;
511.8000;0.7741;1.6317;
512.1000;0.7766;1.6271;
512.4000;0.7717;1.6131;
512.7000;0.7733;1.6178;
513.0000;0.7709;1.6201;
513.3000;0.7741;1.6294;
513.6000;0.7733;1.6364;
513.9000;0.7749;1.6364;
514.2000;0.7725;1.6317;
514.5000;0.7725;1.6364;
514.8000;0.7757;1.6457;
515.1000;0.7774;1.6481;
515.4000;0.7692;1.6317;
515.7000;0.7733;1.6364;
516.0000;0.7643;1.6061;
516.3000;0.7725;1.6271;
516.6000;0.7741;1.6364;
516.9000;0.7741;1.6341;
517.2000;0.7684;1.6154;
517.5000;0.7741;1.6271;
517.8000;0.7709;1.6294;
518.1000;0.7749;1.6434;
518.4000;0.7741;1.6411;
518.7000;0.7741;1.6294;
519.0000;0.7733;1.6271;
519.3000;0.7684;1.6108;
519.6000;0.7741;1.6201;
519.9000;0.7733;1.6201;
520.2000;0.7733;1.6178;
520.5000;0.7766;1.6294;
520.8000;0.7741;1.6294;
521.1000;0.7733;1.6317;
521.4000;0.7700;1.6224;
521.7000;0.7733;1.6341;
522.0000;0.7741;1.6364;
522.3000;0.7725;1.6317;
522.6000;0.7725;1.6294;
522.9000;0.7725;1.6224;
523.2000;0.7757;1.6248;
523.5000;0.7741;1.6201;
523.8000;0.7700;1.6131;
524.1000;0.7741;1.6317;
524.4000;0.7749;1.6341;
524.7000;0.7725;1.6294;
525.0000;0.7725;1.6271;
525.3000;0.7700;1.6271;
525.6000;0.7717;1.6248;
525.9000;0.7733;1.6317;
526.2000;0.7733;1.6224;
526.5000;0.7700;1.6154;
526.8000;0.7717;1.6248;
527.1000;0.7725;1.6294;
527.4000;0.7700;1.6178;
527.7000;0.7709;1.6271;
528.0000;0.7741;1.6341;
528.3000;0.7782;1.6364;
528.6000;0.7733;1.6317;
528.9000;0.7717;1.6248;
529.2000;0.7692;1.6248;
529.5000;0.7692;1.6317;
529.8000;0.7733;1.6481;
530.1000;0.7725;1.6457;
530.4000;0.7692;1.6317;
530.7000;0.7749;1.6457;
531.0000;0.7733;1.6411;
531.3000;0.7733;1.6411;
531.6000;0.7717;1.6434;
531.9000;0.7733;1.6457;
532.2000;0.7709;1.6481;
532.5000;0.7749;1.6527;
532.8000;0.7741;1.6504;
533.1000;0.7733;1.6481;
533.4000;0.7627;1.6341;
533.7000;0.7733;1.6597;
534.0000;0.7709;1.6527;
534.3000;0.7741;1.6551;
534.6000;0.7733;1.6457;
534.9000;0.7733;1.6620;
535.2000;0.7741;1.6667;
535.5000;0.7717;1.6597;
535.8000;0.7725;1.6527;
536.1000;0.7749;1.6574;
536.4000;0.7733;1.6551;
536.7000;0.7717;1.6551;
537.0000;0.7733;1.6527;
537.3000;0.7749;1.6527;
537.6000;0.7725;1.6527;
537.9000;0.7725;1.6504;
538.2000;0.7757;1.6504;
538.5000;0.7741;1.6481;
538.8000;0.7749;1.6411;
539.1000;0.7741;1.6341;
539.4000;0.7733;1.6317;
539.7000;0.7733;1.6317;
540.0000;0.7749;1.6457;
540.3000;0.7733;1.6387;
540.6000;0.7709;1.6271;
540.9000;0.7725;1.6294;
541.2000;0.7725;1.6294;
541.5000;0.7749;1.6271;
541.8000;0.7741;1.6224;
542.1000;0.7733;1.6224;
542.4000;0.7790;1.6411;
542.7000;0.7725;1.6248;
543.0000;0.7725;1.6271;
543.3000;0.7725;1.6248;
543.6000;0.7733;1.6271;
543.9000;0.7700;1.6154;
544.2000;0.7749;1.6224;
544.5000;0.7733;1.6224;
544.8000;0.7749;1.6248;
545.1000;0.7749;1.6248;
545.4000;0.7709;1.6201;
545.7000;0.7725;1.6108;
546.0000;0.7733;1.6178;
546.3000;0.7790;1.6341;
546.6000;0.7741;1.6224;
546.9000;0.7725;1.6154;
547.2000;0.7733;1.6201;
547.5000;0.7749;1.6224;
547.8000;0.7717;1.6084;
548.1000;0.7733;1.6061;
548.4000;0.7741;1.6131;
548.7000;0.7709;1.6154;
549.0000;0.7733;1.6178;
549.3000;0.7700;1.6154;
549.6000;0.7700;1.6131;
549.9000;0.7700;1.6061;
550.2000;0.7749;1.6201;
550.5000;0.7774;1.6178;
550.8000;0.7676;1.5898;
551.1000;0.7782;1.6154;
551.4000;0.7749;1.6061;
551.7000;0.7741;1.6038;
552.0000;0.7717;1.6061;
552.3000;0.7676;1.6108;
552.6000;0.7725;1.6294;
552.9000;0.7725;1.6248;
553.2000;0.7725;1.6224;
553.5000;0.7733;1.6224;
553.8000;0.7725;1.6154;
554.1000;0.7700;1.6038;
554.4000;0.7757;1.6084;
554.7000;0.7725;1.6084;
555.0000;0.7757;1.6108;
555.3000;0.7733;1.6061;
555.6000;0.7717;1.5991;
555.9000;0.7725;1.6108;
556.2000;0.7725;1.6131;
556.5000;0.7741;1.6084;
556.8000;0.7733;1.6061;
557.1000;0.7733;1.6014;
557.4000;0.7733;1.6014;
557.7000;0.7741;1.6038;
558.0000;0.7741;1.6108;
558.3000;0.7717;1.6084;
558.6000;0.7660;1.6014;
558.9000;0.7725;1.6201;
559.2000;0.7749;1.6178;
559.5000;0.7741;1.6201;
559.8000;0.7749;1.6178;
560.1000;0.7709;1.6038;
560.4000;0.7725;1.6131;
560.7000;0.7741;1.6154;
561.0000;0.7725;1.6131;
561.3000;0.7733;1.6248;
561.6000;0.7733;1.6294;
561.9000;0.7741;1.6294;
562.2000;0.7741;1.6341;
562.5000;0.7741;1.6364;
562.8000;0.7725;1.6341;
563.1000;0.7749;1.6481;
563.4000;0.7717;1.6457;
563.7000;0.7733;1.6341;
564.0000;0.7725;1.6294;
564.3000;0.7725;1.6271;
564.6000;0.7725;1.6341;
564.9000;0.7725;1.6317;
565.2000;0.7814;1.6620;
565.5000;0.7733;1.6387;
565.8000;0.7733;1.6387;
566.1000;0.7749;1.6457;
566.4000;0.7709;1.6434;
566.7000;0.7717;1.6504;
567.0000;0.7733;1.6434;
567.3000;0.7725;1.6341;
567.6000;0.7717;1.6201;
567.9000;0.7717;1.6248;
568.2000;0.7717;1.6317;
568.5000;0.7709;1.6317;
568.8000;0.7717;1.6224;
569.1000;0.7709;1.6201;
569.4000;0.7717;1.6224;
569.7000;0.7709;1.6271;
570.0000;0.7733;1.6271;
570.3000;0.7700;1.6224;
570.6000;0.7757;1.6317;
570.9000;0.7741;1.6248;
571.2000;0.7725;1.6271;
571.5000;0.7741;1.6317;
571.8000;0.7741;1.6364;
572.1000;0.7725;1.6364;
572.4000;0.7741;1.6341;
572.7000;0.7717;1.6387;
573.0000;0.7733;1.6317;
573.3000;0.7717;1.6248;
573.6000;0.7717;1.6224;
573.9000;0.7733;1.6271;
574.2000;0.7717;1.6224;
574.5000;0.7741;1.6224;
574.8000;0.7741;1.6224;
575.1000;0.7749;1.6224;
575.4000;0.7725;1.6201;
575.7000;0.7757;1.6201;
576.0000;0.7725;1.6154;
576.3000;0.7725;1.6154;
576.6000;0.7733;1.6178;
576.9000;0.7757;1.6271;
577.2000;0.7741;1.6154;
577.5000;0.7782;1.6271;
577.8000;0.7790;1.6271;
578.1000;0.7676;1.5944;
578.4000;0.7757;1.6271;
578.7000;0.7725;1.6271;
579.0000;0.7733;1.6178;
579.3000;0.7709;1.6178;
579.6000;0.7733;1.6178;
579.9000;0.7757;1.6201;
580.2000;0.7717;1.6108;
580.5000;0.7700;1.6201;
580.8000;0.7725;1.6271;
581.1000;0.7733;1.6411;
581.4000;0.7725;1.6364;
581.7000;0.7725;1.6294;
582.0000;0.7766;1.6387;
582.3000;0.7741;1.6317;
582.6000;0.7709;1.6341;
582.9000;0.7733;1.6411;
583.2000;0.7749;1.6317;
583.5000;0.7717;1.6248;
583.8000;0.7741;1.6364;
584.1000;0.7717;1.6248;
584.4000;0.7709;1.6294;
584.7000;0.7733;1.6294;
585.0000;0.7717;1.6224;
585.3000;0.7823;1.6504;
585.6000;0.7717;1.6224;
585.9000;0.7806;1.6317;
586.2000;0.7757;1.6317;
586.5000;0.7725;1.6201;
586.8000;0.7733;1.6131;
587.1000;0.7725;1.6108;
587.4000;0.7725;1.6061;
587.7000;0.7717;1.6014;
588.0000;0.7733;1.6038;
588.3000;0.7676;1.5921;
588.6000;0.7700;1.5968;
588.9000;0.7717;1.5968;
589.2000;0.7717;1.6038;
589.5000;0.7757;1.6248;
589.8000;0.7774;1.6294;
590.1000;0.7717;1.6271;
590.4000;0.7733;1.6341;
590.7000;0.7725;1.6271;
591.0000;0.7700;1.6294;
591.3000;0.7709;1.6434;
591.6000;0.7782;1.6597;
591.9000;0.7733;1.6434;
592.2000;0.7733;1.6481;
592.5000;0.7717;1.6457;
592.8000;0.7717;1.6434;
593.1000;0.7798;1.6667;
593.4000;0.7660;1.6224;
593.7000;0.7709;1.6294;
594.0000;0.7725;1.6294;
594.3000;0.7709;1.6201;
594.6000;0.7741;1.6224;
594.9000;0.7757;1.6341;
595.2000;0.7725;1.6387;
595.5000;0.7798;1.6597;
595.8000;0.7717;1.6434;
596.1000;0.7709;1.6387;
596.4000;0.7717;1.6411;
596.7000;0.7782;1.6527;
597.0000;0.7668;1.6178;
597.3000;0.7733;1.6457;
597.6000;0.7733;1.6434;
597.9000;0.7717;1.6341;
598.2000;0.7725;1.6317;
598.5000;0.7725;1.6271;
598.8000;0.7725;1.6271;
599.1000;0.7774;1.6411;
599.4000;0.7709;1.6224;
599.7000;0.7749;1.6294;
600.0000;0.7717;1.6224;
600.3000;0.7700;1.5898;
600.6000;0.7652;1.5828;
600.9000;0.7578;1.5828;
601.2000;0.7456;1.5735;
601.5000;0.7375;1.5525;
601.8000;0.7220;1.5222;
602.1000;0.7041;1.4826;
602.4000;0.6992;1.4686;
602.7000;0.6878;1.4546;
603.0000;0.6789;1.4383;
603.3000;0.6683;1.4266;
603.6000;0.6618;1.4103;
603.9000;0.6561;1.3916;
604.2000;0.6463;1.3730;
604.5000;0.6406;1.3637;
604.8000;0.6333;1.3474;
605.1000;0.6292;1.3450;
605.4000;0.6276;1.3427;
605.7000;0.6219;1.3217;
606.0000;0.6195;1.3194;
606.3000;0.6113;1.3077;
606.6000;0.6089;1.3054;
606.9000;0.6015;1.2891;
607.2000;0.6007;1.2937;
607.5000;0.5975;1.2844;
607.8000;0.5991;1.2774;
608.1000;0.5893;1.2564;
608.4000;0.5845;1.2495;
608.7000;0.5877;1.2495;
609.0000;0.5869;1.2518;
609.3000;0.5796;1.2401;
609.6000;0.5771;1.2355;
609.9000;0.5763;1.2308;
610.2000;0.5731;1.2331;
610.5000;0.5722;1.2308;
610.8000;0.5674;1.2122;
611.1000;0.5665;1.2168;
611.4000;0.5649;1.2215;
611.7000;0.5649;1.2378;
612.0000;0.5600;1.2308;
612.3000;0.5576;1.2285;
612.6000;0.5560;1.2168;
612.9000;0.5560;1.2215;
613.2000;0.5535;1.2098;
613.5000;0.5478;1.2005;
613.8000;0.5495;1.2098;
614.1000;0.5486;1.2052;
614.4000;0.5535;1.2168;
614.7000;0.5462;1.2075;
615.0000;0.5446;1.2075;
615.3000;0.5421;1.2005;
615.6000;0.5381;1.1865;
615.9000;0.5397;1.1865;
616.2000;0.5397;1.1865;
616.5000;0.5421;1.1935;
616.8000;0.5381;1.1865;
617.1000;0.5332;1.1865;
617.4000;0.5348;1.1912;
617.7000;0.5307;1.1818;
618.0000;0.5332;1.1865;
618.3000;0.5299;1.1725;
618.6000;0.5299;1.1679;
618.9000;0.5283;1.1679;
619.2000;0.5299;1.1702;
619.5000;0.5258;1.1655;
619.8000;0.5283;1.1725;
620.1000;0.5275;1.1749;
620.4000;0.5275;1.1725;
620.7000;0.5267;1.1725;
621.0000;0.5210;1.1679;
621.3000;0.5226;1.1725;
621.6000;0.5218;1.1865;
621.9000;0.5218;1.1818;
622.2000;0.5218;1.1795;
622.5000;0.5153;1.1655;
622.8000;0.5193;1.1772;
623.1000;0.5201;1.1749;
623.4000;0.5226;1.1818;
623.7000;0.5169;1.1749;
624.0000;0.5169;1.1679;
624.3000;0.5177;1.1655;
624.6000;0.5250;1.1818;
624.9000;0.5128;1.1562;
625.2000;0.5136;1.1609;
625.5000;0.5088;1.1609;
625.8000;0.5128;1.1725;
626.1000;0.5104;1.1655;
626.4000;0.5136;1.1702;
626.7000;0.5112;1.1679;
627.0000;0.5120;1.1725;
627.3000;0.5112;1.1725;
627.6000;0.5096;1.1795;
627.9000;0.5112;1.1818;
628.2000;0.5088;1.1818;
628.5000;0.5088;1.1795;
628.8000;0.5120;1.1842;
629.1000;0.5071;1.1609;
629.4000;0.5079;1.1702;
629.7000;0.5047;1.1609;
630.0000;0.5063;1.1655;
630.3000;0.5071;1.1632;
630.6000;0.5039;1.1655;
630.9000;0.5047;1.1795;
631.2000;0.5071;1.1912;
631.5000;0.5022;1.1795;
631.8000;0.5022;1.1749;
632.1000;0.5022;1.1749;
632.4000;0.4965;1.1585;
632.7000;0.4998;1.1632;
633.0000;0.5022;1.1702;
633.3000;0.5022;1.1749;
633.6000;0.4990;1.1702;
633.9000;0.5006;1.1655;
634.2000;0.5014;1.1655;
634.5000;0.4990;1.1562;
634.8000;0.4941;1.1539;
635.1000;0.4998;1.1679;
635.4000;0.5128;1.2052;
635.7000;0.4998;1.1795;
636.0000;0.5014;1.1772;
636.3000;0.4974;1.1702;
636.6000;0.4957;1.1655;
636.9000;0.4933;1.1539;
637.2000;0.4998;1.1562;
637.5000;0.4965;1.1376;
637.8000;0.4982;1.1376;
638.1000;0.4965;1.1376;
638.4000;0.4982;1.1469;
638.7000;0.4941;1.1399;
639.0000;0.4941;1.1352;
639.3000;0.4917;1.1376;
639.6000;0.4933;1.1352;
639.9000;0.4933;1.1376;
640.2000;0.4908;1.1306;
640.5000;0.4965;1.1469;
640.8000;0.4949;1.1352;
641.1000;0.4949;1.1282;
641.4000;0.4900;1.1189;
641.7000;0.4908;1.1096;
642.0000;0.4908;1.1096;
642.3000;0.4925;1.1166;
642.6000;0.4892;1.1189;
642.9000;0.4900;1.1259;
643.2000;0.4933;1.1329;
643.5000;0.4835;1.1212;
643.8000;0.4917;1.1329;
644.1000;0.4892;1.1282;
644.4000;0.4884;1.1189;
644.7000;0.4941;1.1306;
645.0000;0.4892;1.1166;
645.3000;0.4892;1.1096;
645.6000;0.4900;1.1189;
645.9000;0.4884;1.1166;
646.2000;0.4884;1.1329;
646.5000;0.4884;1.1399;
646.8000;0.4892;1.1329;
647.1000;0.4884;1.1446;
647.4000;0.4925;1.1515;
647.7000;0.4827;1.1236;
648.0000;0.4884;1.1422;
648.3000;0.4900;1.1376;
648.6000;0.4876;1.1306;
648.9000;0.4876;1.1306;
649.2000;0.4843;1.1259;
649.5000;0.4851;1.1329;
649.8000;0.4974;1.1609;
650.1000;0.4868;1.1446;
650.4000;0.4860;1.1446;
650.7000;0.4843;1.1492;
651.0000;0.4827;1.1422;
651.3000;0.4843;1.1376;
651.6000;0.4811;1.1306;
651.9000;0.4835;1.1352;
652.2000;0.4843;1.1352;
652.5000;0.4827;1.1306;
652.8000;0.4860;1.1399;
653.1000;0.4827;1.1329;
653.4000;0.4843;1.1422;
653.7000;0.4843;1.1539;
654.0000;0.4843;1.1585;
654.3000;0.4835;1.1609;
654.6000;0.4819;1.1655;
654.9000;0.4851;1.1655;
655.2000;0.4819;1.1562;
655.5000;0.4827;1.1562;
655.8000;0.4746;1.1352;
656.1000;0.4819;1.1585;
656.4000;0.4835;1.1585;
656.7000;0.4811;1.1539;
657.0000;0.4819;1.1515;
657.3000;0.4827;1.1539;
657.6000;0.4811;1.1515;
657.9000;0.4819;1.1469;
658.2000;0.4819;1.1539;
658.5000;0.4819;1.1562;
658.8000;0.4868;1.1725;
659.1000;0.4819;1.1585;
659.4000;0.4811;1.1609;
659.7000;0.4811;1.1609;
660.0000;0.4794;1.1609;
660.3000;0.4786;1.1609;
660.6000;0.4770;1.1539;
660.9000;0.4803;1.1585;
661.2000;0.4803;1.1585;
661.5000;0.4843;1.1702;
661.8000;0.4778;1.1515;
662.1000;0.4737;1.1422;
662.4000;0.4803;1.1562;
662.7000;0.4803;1.1515;
663.0000;0.4794;1.1539;
663.3000;0.4778;1.1539;
663.6000;0.4737;1.1539;
663.9000;0.4778;1.1632;
664.2000;0.4778;1.1585;
664.5000;0.4786;1.1585;
664.8000;0.4786;1.1585;
665.1000;0.4786;1.1679;
665.4000;0.4770;1.1702;
665.7000;0.4721;1.1585;
666.0000;0.4762;1.1632;
666.3000;0.4786;1.1679;
666.6000;0.4762;1.1492;
666.9000;0.4705;1.1376;
667.2000;0.4754;1.1492;
667.5000;0.4819;1.1655;
667.8000;0.4754;1.1446;
668.1000;0.4754;1.1446;
668.4000;0.4754;1.1446;
668.7000;0.4762;1.1492;
669.0000;0.4754;1.1492;
669.3000;0.4746;1.1469;
669.6000;0.4754;1.1492;
669.9000;0.4754;1.1515;
670.2000;0.4746;1.1492;
670.5000;0.4737;1.1422;
670.8000;0.4746;1.1399;
671.1000;0.4729;1.1329;
671.4000;0.4729;1.1282;
671.7000;0.4754;1.1236;
672.0000;0.4762;1.1329;
672.3000;0.4721;1.1329;
672.6000;0.4729;1.1329;
672.9000;0.4713;1.1329;
673.2000;0.4754;1.1446;
673.5000;0.4713;1.1329;
673.8000;0.4737;1.1399;
674.1000;0.4681;1.1329;
674.4000;0.4721;1.1469;
674.7000;0.4786;1.1492;
675.0000;0.4729;1.1399;
675.3000;0.4746;1.1539;
675.6000;0.4713;1.1609;
675.9000;0.4697;1.1585;
676.2000;0.4778;1.1725;
676.5000;0.4713;1.1609;
676.8000;0.4705;1.1539;
677.1000;0.4770;1.1679;
677.4000;0.4721;1.1585;
677.7000;0.4689;1.1422;
678.0000;0.4713;1.1539;
678.3000;0.4713;1.1562;
678.6000;0.4697;1.1539;
678.9000;0.4681;1.1562;
679.2000;0.4640;1.1492;
679.5000;0.4721;1.1679;
679.8000;0.4713;1.1655;
680.1000;0.4697;1.1679;
680.4000;0.4705;1.1772;
680.7000;0.4664;1.1702;
681.0000;0.4697;1.1818;
681.3000;0.4697;1.1725;
681.6000;0.4697;1.1655;
681.9000;0.4689;1.1772;
682.2000;0.4689;1.1655;
682.5000;0.4681;1.1585;
682.8000;0.4689;1.1585;
683.1000;0.4672;1.1539;
683.4000;0.4689;1.1725;
683.7000;0.4681;1.1749;
684.0000;0.4746;1.1912;
684.3000;0.4697;1.1702;
684.6000;0.4721;1.1702;
684.9000;0.4689;1.1609;
685.2000;0.4689;1.1562;
685.5000;0.4656;1.1492;
685.8000;0.4656;1.1446;
686.1000;0.4681;1.1492;
686.4000;0.4656;1.1469;
686.7000;0.4689;1.1539;
687.0000;0.4672;1.1515;
687.3000;0.4697;1.1585;
687.6000;0.4689;1.1585;
687.9000;0.4689;1.1679;
688.2000;0.4672;1.1655;
688.5000;0.4672;1.1749;
688.8000;0.4689;1.1795;
689.1000;0.4664;1.1772;
689.4000;0.4672;1.1772;
689.7000;0.4672;1.1702;
690.0000;0.4672;1.1679;
690.3000;0.4689;1.1772;
690.6000;0.4689;1.1702;
690.9000;0.4689;1.1632;
691.2000;0.4648;1.1585;
691.5000;0.4681;1.1679;
691.8000;0.4672;1.1585;
692.1000;0.4664;1.1562;
692.4000;0.4672;1.1655;
692.7000;0.4672;1.1632;
693.0000;0.4672;1.1655;
693.3000;0.4672;1.1609;
693.6000;0.4681;1.1515;
693.9000;0.4664;1.1585;
694.2000;0.4672;1.1539;
694.5000;0.4664;1.1492;
694.8000;0.4656;1.1539;
695.1000;0.4656;1.1562;
695.4000;0.4615;1.1539;
695.7000;0.4632;1.1539;
696.0000;0.4656;1.1609;
696.3000;0.4664;1.1609;
696.6000;0.4599;1.1469;
696.9000;0.4640;1.1562;
697.2000;0.4640;1.1562;
697.5000;0.4567;1.1422;
697.8000;0.4607;1.1515;
698.1000;0.4640;1.1585;
698.4000;0.4705;1.1632;
698.7000;0.4648;1.1562;
699.0000;0.4640;1.1609;
699.3000;0.4607;1.1515;
699.6000;0.4664;1.1585;
699.9000;0.4640;1.1539;
700.2000;0.4697;1.1702;
700.5000;0.4632;1.1585;
700.8000;0.4640;1.1562;
701.1000;0.4599;1.1469;
701.4000;0.4632;1.1562;
701.7000;0.4632;1.1539;
702.0000;0.4648;1.1539;
702.3000;0.4632;1.1632;
702.6000;0.4648;1.1609;
702.9000;0.4583;1.1539;
703.2000;0.4607;1.1679;
703.5000;0.4648;1.1702;
703.8000;0.4648;1.1749;
704.1000;0.4640;1.1772;
704.4000;0.4615;1.1725;
704.7000;0.4632;1.1772;
705.0000;0.4640;1.1679;
705.3000;0.4648;1.1679;
705.6000;0.4648;1.1725;
705.9000;0.4632;1.1679;
706.2000;0.4615;1.1609;
706.5000;0.4632;1.1679;
706.8000;0.4672;1.1679;
707.1000;0.4624;1.1562;
707.4000;0.4632;1.1679;
707.7000;0.4632;1.1655;
708.0000;0.4599;1.1679;
708.3000;0.4632;1.1702;
708.6000;0.4624;1.1679;
708.9000;0.4607;1.1609;
709.2000;0.4624;1.1609;
709.5000;0.4615;1.1469;
709.8000;0.4632;1.1515;
710.1000;0.4640;1.1609;
710.4000;0.4624;1.1632;
710.7000;0.4615;1.1585;
711.0000;0.4624;1.1609;
711.3000;0.4624;1.1702;
711.6000;0.4599;1.1585;
711.9000;0.4640;1.1609;
712.2000;0.4526;1.1259;
712.5000;0.4632;1.1515;
712.8000;0.4624;1.1515;
713.1000;0.4632;1.1655;
713.4000;0.4624;1.1679;
713.7000;0.4599;1.1702;
714.0000;0.4624;1.1725;
714.3000;0.4591;1.1795;
714.6000;0.4648;1.2075;
714.9000;0.4615;1.2005;
715.2000;0.4624;1.1912;
715.5000;0.4615;1.1888;
715.8000;0.4632;1.1935;
716.1000;0.4575;1.1749;
716.4000;0.4599;1.1749;
716.7000;0.4615;1.1679;
717.0000;0.4534;1.1469;
717.3000;0.4583;1.1679;
717.6000;0.4607;1.1749;
717.9000;0.4583;1.1795;
718.2000;0.4583;1.1795;
718.5000;0.4599;1.1818;
718.8000;0.4599;1.1725;
719.1000;0.4558;1.1492;
719.4000;0.4607;1.1702;
719.7000;0.4558;1.1585;
720.0000;0.4591;1.1655;
720.3000;0.4599;1.1585;
720.6000;0.4518;1.1376;
720.9000;0.4583;1.1585;
721.2000;0.4567;1.1655;
721.5000;0.4591;1.1865;
721.8000;0.4583;1.1865;
722.1000;0.4567;1.1888;
722.4000;0.4558;1.1958;
722.7000;0.4599;1.2075;
723.0000;0.4567;1.2028;
723.3000;0.4599;1.2005;
723.6000;0.4583;1.1912;
723.9000;0.4583;1.1935;
724.2000;0.4583;1.1982;
724.5000;0.4567;1.1982;
724.8000;0.4567;1.1982;
725.1000;0.4575;1.1982;
725.4000;0.4583;1.1935;
725.7000;0.4607;1.1935;
726.0000;0.4567;1.1912;
726.3000;0.4558;1.1958;
726.6000;0.4567;1.2005;
726.9000;0.4558;1.2005;
727.2000;0.4534;1.1888;
727.5000;0.4550;1.1865;
727.8000;0.4558;1.1935;
728.1000;0.4526;1.1912;
728.4000;0.4550;1.1958;
728.7000;0.4534;1.1912;
729.0000;0.4575;1.1935;
729.3000;0.4567;1.1865;
729.6000;0.4550;1.1795;
729.9000;0.4558;1.1795;
730.2000;0.4550;1.1888;
730.5000;0.4583;1.1795;
730.8000;0.4550;1.1749;
731.1000;0.4583;1.1865;
731.4000;0.4550;1.1818;
731.7000;0.4567;1.1912;
732.0000;0.4542;1.1842;
732.3000;0.4550;1.1772;
732.6000;0.4542;1.1655;
732.9000;0.4575;1.1725;
733.2000;0.4534;1.1679;
733.5000;0.4583;1.1865;
733.8000;0.4550;1.1935;
734.1000;0.4550;1.1958;
734.4000;0.4599;1.1958;
734.7000;0.4550;1.1842;
735.0000;0.4575;1.1842;
735.3000;0.4583;1.1818;
735.6000;0.4550;1.1679;
735.9000;0.4501;1.1585;
736.2000;0.4558;1.1702;
736.5000;0.4567;1.1725;
736.8000;0.4550;1.1749;
737.1000;0.4550;1.1842;
737.4000;0.4518;1.1795;
737.7000;0.4542;1.1912;
738.0000;0.4558;1.1912;
738.3000;0.4526;1.1935;
738.6000;0.4591;1.2122;
738.9000;0.4518;1.1888;
739.2000;0.4534;1.1888;
739.5000;0.4534;1.1865;
739.8000;0.4567;1.1842;
740.1000;0.4575;1.1982;
740.4000;0.4567;1.1865;
740.7000;0.4542;1.1772;
741.0000;0.4583;1.1749;
741.3000;0.4558;1.1818;
741.6000;0.4607;1.2005;
741.9000;0.4599;1.1935;
742.2000;0.4510;1.1772;
742.5000;0.4542;1.1818;
742.8000;0.4550;1.1865;
743.1000;0.4526;1.1795;
743.4000;0.4501;1.1702;
743.7000;0.4477;1.1609;
744.0000;0.4485;1.1725;
744.3000;0.4542;1.1772;
744.6000;0.4526;1.1725;
744.9000;0.4510;1.1679;
745.2000;0.4526;1.1772;
745.5000;0.4542;1.1772;
745.8000;0.4575;1.1842;
746.1000;0.4526;1.1818;
746.4000;0.4518;1.1888;
746.7000;0.4534;1.1958;
747.0000;0.4550;1.1958;
747.3000;0.4493;1.1888;
747.6000;0.4534;1.2075;
747.9000;0.4518;1.2028;
748.2000;0.4534;1.2028;
748.5000;0.4526;1.2028;
748.8000;0.4526;1.1958;
749.1000;0.4534;1.1982;
749.4000;0.4518;1.1982;
749.7000;0.4534;1.1982;
750.0000;0.4518;1.1912;
750.3000;0.4518;1.1912;
750.6000;0.4567;1.1935;
750.9000;0.4558;1.1842;
751.2000;0.4542;1.1842;
751.5000;0.4518;1.1818;
751.8000;0.4436;1.1585;
752.1000;0.4518;1.1865;
752.4000;0.4542;1.1842;
752.7000;0.4518;1.1749;
753.0000;0.4510;1.1772;
753.3000;0.4518;1.1795;
753.6000;0.4493;1.1749;
753.9000;0.4518;1.1795;
754.2000;0.4510;1.1795;
754.5000;0.4510;1.1772;
754.8000;0.4550;1.1818;
755.1000;0.4526;1.1679;
755.4000;0.4534;1.1609;
755.7000;0.4510;1.1632;
756.0000;0.4534;1.1609;
756.3000;0.4534;1.1772;
756.6000;0.4477;1.1725;
756.9000;0.4510;1.1842;
757.2000;0.4542;1.1912;
757.5000;0.4436;1.1749;
757.8000;0.4510;1.1912;
758.1000;0.4493;1.1865;
758.4000;0.4510;1.1935;
758.7000;0.4518;1.1982;
759.0000;0.4510;1.2075;
759.3000;0.4550;1.2145;
759.6000;0.4501;1.1958;
759.9000;0.4485;1.1958;
760.2000;0.4485;1.2028;
760.5000;0.4518;1.2052;
760.8000;0.4501;1.1912;
761.1000;0.4501;1.1888;
761.4000;0.4526;1.1912;
761.7000;0.4501;1.1935;
762.0000;0.4518;1.1935;
762.3000;0.4461;1.1795;
762.6000;0.4493;1.1935;
762.9000;0.4493;1.1912;
763.2000;0.4501;1.1888;
763.5000;0.4493;1.1865;
763.8000;0.4493;1.1865;
764.1000;0.4485;1.1865;
764.4000;0.4493;1.1912;
764.7000;0.4493;1.1958;
765.0000;0.4518;1.2028;
765.3000;0.4501;1.1982;
765.6000;0.4477;1.1912;
765.9000;0.4518;1.1958;
766.2000;0.4526;1.1982;
766.5000;0.4477;1.1818;
766.8000;0.4510;1.1842;
767.1000;0.4485;1.1818;
767.4000;0.4485;1.1912;
767.7000;0.4485;1.1935;
768.0000;0.4485;1.1935;
768.3000;0.4469;1.1842;
768.6000;0.4493;1.1749;
768.9000;0.4477;1.1818;
769.2000;0.4469;1.1888;
769.5000;0.4477;1.1912;
769.8000;0.4485;1.1888;
770.1000;0.4477;1.1795;
770.4000;0.4477;1.1725;
770.7000;0.4493;1.1749;
771.0000;0.4436;1.1609;
771.3000;0.4493;1.1679;
771.6000;0.4493;1.1679;
771.9000;0.4493;1.1562;
772.2000;0.4510;1.1585;
772.5000;0.4526;1.1795;
772.8000;0.4493;1.1679;
773.1000;0.4477;1.1725;
773.4000;0.4469;1.1842;
773.7000;0.4453;1.1935;
774.0000;0.4485;1.2075;
774.3000;0.4461;1.2052;
774.6000;0.4461;1.2028;
774.9000;0.4510;1.2122;
775.2000;0.4493;1.2005;
775.5000;0.4501;1.2028;
775.8000;0.4461;1.1935;
776.1000;0.4485;1.1888;
776.4000;0.4485;1.1958;
776.7000;0.4510;1.2005;
777.0000;0.4485;1.1958;
777.3000;0.4493;1.2075;
777.6000;0.4501;1.2122;
777.9000;0.4477;1.2052;
778.2000;0.4493;1.2075;
778.5000;0.4485;1.2122;
778.8000;0.4477;1.2098;
779.1000;0.4469;1.2122;
779.4000;0.4461;1.2075;
779.7000;0.4477;1.2075;
780.0000;0.4477;1.2122;
780.3000;0.4518;1.2145;
780.6000;0.4412;1.1772;
780.9000;0.4477;1.1842;
781.2000;0.4469;1.1888;
781.5000;0.4501;1.1982;
781.8000;0.4485;1.1912;
782.1000;0.4461;1.1865;
782.4000;0.4477;1.1865;
782.7000;0.4485;1.1865;
783.0000;0.4428;1.1725;
783.3000;0.4469;1.1725;
783.6000;0.4469;1.1679;
783.9000;0.4469;1.1632;
784.2000;0.4469;1.1585;
784.5000;0.4469;1.1702;
784.8000;0.4469;1.1795;
785.1000;0.4477;1.1865;
785.4000;0.4461;1.1749;
785.7000;0.4453;1.1655;
786.0000;0.4461;1.1655;
786.3000;0.4526;1.1818;
786.6000;0.4461;1.1679;
786.9000;0.4485;1.1725;
787.2000;0.4510;1.1888;
787.5000;0.4461;1.1795;
787.8000;0.4404;1.1725;
788.1000;0.4469;1.1958;
788.4000;0.4461;1.2005;
788.7000;0.4444;1.1982;
789.0000;0.4477;1.2052;
789.3000;0.4461;1.2052;
789.6000;0.4428;1.1982;
789.9000;0.4461;1.2075;
790.2000;0.4469;1.2168;
790.5000;0.4477;1.2191;
790.8000;0.4461;1.2098;
791.1000;0.4567;1.2378;
791.4000;0.4469;1.2028;
791.7000;0.4436;1.1912;
792.0000;0.4461;1.2052;
792.3000;0.4444;1.2005;
792.6000;0.4510;1.2075;
792.9000;0.4469;1.1888;
793.2000;0.4428;1.1749;
793.5000;0.4469;1.1888;
793.8000;0.4469;1.1912;
794.1000;0.4453;1.1888;
794.4000;0.4461;1.1818;
794.7000;0.4412;1.1679;
795.0000;0.4444;1.1818;
795.3000;0.4518;1.1982;
795.6000;0.4469;1.1935;
795.9000;0.4477;1.2028;
796.2000;0.4444;1.1935;
796.5000;0.4469;1.1982;
796.8000;0.4420;1.1912;
797.1000;0.4453;1.2122;
797.4000;0.4404;1.2075;
797.7000;0.4444;1.2168;
798.0000;0.4477;1.2261;
798.3000;0.4493;1.2261;
798.6000;0.4444;1.2075;
798.9000;0.4453;1.2122;
799.2000;0.4396;1.2028;
799.5000;0.4436;1.2098;
799.8000;0.4444;1.2168;
800.1000;0.4444;1.2145;
800.4000;0.4453;1.2238;
800.7000;0.4436;1.2122;
801.0000;0.4444;1.2122;
801.3000;0.4428;1.2052;
801.6000;0.4428;1.2005;
801.9000;0.4453;1.1958;
802.2000;0.4420;1.1935;
802.5000;0.4453;1.2028;
802.8000;0.4412;1.2098;
803.1000;0.4436;1.2238;
803.4000;0.4444;1.2238;
803.7000;0.4444;1.2191;
804.0000;0.4444;1.2215;
804.3000;0.4436;1.2145;
804.6000;0.4453;1.2145;
804.9000;0.4436;1.2075;
805.2000;0.4444;1.2075;
805.5000;0.4485;1.2122;
805.8000;0.4469;1.2075;
806.1000;0.4453;1.2168;
806.4000;0.4436;1.2122;
806.7000;0.4510;1.2331;
807.0000;0.4444;1.2215;
807.3000;0.4436;1.2145;
807.6000;0.4404;1.2052;
807.9000;0.4436;1.2122;
808.2000;0.4461;1.2122;
808.5000;0.4453;1.2122;
808.8000;0.4461;1.2075;
809.1000;0.4436;1.2122;
809.4000;0.4436;1.2122;
809.7000;0.4453;1.2238;
810.0000;0.4412;1.2122;
810.3000;0.4444;1.2285;
810.6000;0.4387;1.2098;
810.9000;0.4453;1.2285;
811.2000;0.4469;1.2308;
811.5000;0.4387;1.2098;
811.8000;0.4412;1.2238;
812.1000;0.4396;1.2191;
812.4000;0.4477;1.2401;
812.7000;0.4428;1.2401;
813.0000;0.4469;1.2425;
813.3000;0.4428;1.2495;
813.6000;0.4485;1.2681;
813.9000;0.4412;1.2471;
814.2000;0.4477;1.2495;
814.5000;0.4501;1.2471;
814.8000;0.4428;1.2261;
815.1000;0.4412;1.2191;
815.4000;0.4428;1.2285;
815.7000;0.4461;1.2425;
816.0000;0.4510;1.2564;
816.3000;0.4493;1.2401;
816.6000;0.4444;1.2308;
816.9000;0.4420;1.2215;
817.2000;0.4404;1.2238;
817.5000;0.4436;1.2331;
817.8000;0.4436;1.2191;
818.1000;0.4420;1.2145;
818.4000;0.4412;1.2168;
818.7000;0.4404;1.2191;
819.0000;0.4444;1.2261;
819.3000;0.4420;1.2308;
819.6000;0.4453;1.2355;
819.9000;0.4428;1.2285;
820.2000;0.4404;1.2168;
820.5000;0.4444;1.2355;
820.8000;0.4420;1.2331;
821.1000;0.4428;1.2355;
821.4000;0.4420;1.2308;
821.7000;0.4420;1.2191;
822.0000;0.4412;1.2168;
822.3000;0.4420;1.2215;
822.6000;0.4412;1.2308;
822.9000;0.4387;1.2215;
823.2000;0.4412;1.2261;
823.5000;0.4444;1.2331;
823.8000;0.4444;1.2331;
824.1000;0.4436;1.2261;
824.4000;0.4444;1.2285;
824.7000;0.4404;1.2215;
825.0000;0.4428;1.2238;
825.3000;0.4428;1.2191;
825.6000;0.4404;1.2098;
825.9000;0.4412;1.2098;
826.2000;0.4444;1.2145;
826.5000;0.4420;1.2075;
826.8000;0.4428;1.2098;
827.1000;0.4420;1.2052;
827.4000;0.4510;1.2378;
827.7000;0.4371;1.2052;
828.0000;0.4420;1.2261;
828.3000;0.4461;1.2355;
828.6000;0.4412;1.2145;
828.9000;0.4436;1.2261;
829.2000;0.4420;1.2145;
829.5000;0.4412;1.2145;
829.8000;0.4461;1.2285;
830.1000;0.4420;1.2308;
830.4000;0.4469;1.2425;
830.7000;0.4420;1.2308;
831.0000;0.4444;1.2331;
831.3000;0.4436;1.2261;
831.6000;0.4412;1.2191;
831.9000;0.4404;1.2122;
832.2000;0.4371;1.2098;
832.5000;0.4444;1.2425;
832.8000;0.4420;1.2471;
833.1000;0.4412;1.2564;
833.4000;0.4396;1.2518;
833.7000;0.4420;1.2541;
834.0000;0.4428;1.2471;
834.3000;0.4477;1.2541;
834.6000;0.4412;1.2355;
834.9000;0.4396;1.2285;
835.2000;0.4420;1.2308;
835.5000;0.4436;1.2261;
835.8000;0.4485;1.2425;
836.1000;0.4339;1.2122;
836.4000;0.4420;1.2308;
836.7000;0.4412;1.2285;
837.0000;0.4379;1.2215;
837.3000;0.4396;1.2355;
837.6000;0.4363;1.2168;
837.9000;0.4420;1.2331;
838.2000;0.4420;1.2378;
838.5000;0.4444;1.2471;
838.8000;0.4453;1.2518;
839.1000;0.4412;1.2378;
839.4000;0.4396;1.2308;
839.7000;0.4436;1.2285;
840.0000;0.4404;1.2168;
840.3000;0.4404;1.2191;
840.6000;0.4420;1.2238;
840.9000;0.4461;1.2355;
841.2000;0.4420;1.2238;
841.5000;0.4420;1.2331;
841.8000;0.4404;1.2285;
842.1000;0.4379;1.2355;
842.4000;0.4420;1.2425;
842.7000;0.4420;1.2495;
843.0000;0.4420;1.2518;
843.3000;0.4412;1.2495;
843.6000;0.4412;1.2495;
843.9000;0.4412;1.2495;
844.2000;0.4412;1.2495;
844.5000;0.4412;1.2425;
844.8000;0.4477;1.2588;
845.1000;0.4396;1.2378;
845.4000;0.4420;1.2448;
845.7000;0.4428;1.2378;
846.0000;0.4412;1.2425;
846.3000;0.4453;1.2448;
846.6000;0.4404;1.2308;
846.9000;0.4347;1.2215;
847.2000;0.4420;1.2401;
847.5000;0.4396;1.2401;
847.8000;0.4396;1.2261;
848.1000;0.4436;1.2448;
848.4000;0.4396;1.2378;
848.7000;0.4396;1.2355;
849.0000;0.4404;1.2401;
849.3000;0.4428;1.2378;
849.6000;0.4396;1.2308;
849.9000;0.4396;1.2331;
850.2000;0.4396;1.2378;
850.5000;0.4396;1.2471;
850.8000;0.4404;1.2448;
851.1000;0.4339;1.2331;
851.4000;0.4412;1.2541;
851.7000;0.4396;1.2518;
852.0000;0.4404;1.2495;
852.3000;0.4453;1.2588;
852.6000;0.4322;1.2238;
852.9000;0.4412;1.2378;
853.2000;0.4436;1.2425;
853.5000;0.4420;1.2425;
853.8000;0.4428;1.2401;
854.1000;0.4444;1.2471;
854.4000;0.4436;1.2471;
854.7000;0.4420;1.2495;
855.0000;0.4420;1.2518;
855.3000;0.4371;1.2448;
855.6000;0.4379;1.2448;
855.9000;0.4404;1.2518;
856.2000;0.4396;1.2448;
856.5000;0.4420;1.2378;
856.8000;0.4387;1.2308;
857.1000;0.4404;1.2331;
857.4000;0.4396;1.2215;
857.7000;0.4396;1.2238;
858.0000;0.4396;1.2168;
858.3000;0.4420;1.2261;
858.6000;0.4404;1.2261;
858.9000;0.4371;1.2285;
859.2000;0.4420;1.2378;
859.5000;0.4404;1.2425;
859.8000;0.4396;1.2401;
860.1000;0.4404;1.2425;
860.4000;0.4371;1.2285;
860.7000;0.4387;1.2261;
861.0000;0.4387;1.2308;
861.3000;0.4379;1.2308;
861.6000;0.4379;1.2285;
861.9000;0.4387;1.2215;
862.2000;0.4363;1.2168;
862.5000;0.4412;1.2285;
862.8000;0.4428;1.2285;
863.1000;0.4404;1.2238;
863.4000;0.4396;1.2145;
863.7000;0.4363;1.2052;
864.0000;0.4396;1.2098;
864.3000;0.4347;1.2122;
864.6000;0.4379;1.2191;
864.9000;0.4387;1.2215;
865.2000;0.4453;1.2308;
865.5000;0.4404;1.2215;
865.8000;0.4404;1.2191;
866.1000;0.4404;1.2168;
866.4000;0.4379;1.2238;
866.7000;0.4396;1.2308;
867.0000;0.4387;1.2238;
867.3000;0.4379;1.2378;
867.6000;0.4363;1.2285;
867.9000;0.4363;1.2215;
868.2000;0.4322;1.2145;
868.5000;0.4404;1.2308;
868.8000;0.4379;1.2285;
869.1000;0.4404;1.2238;
869.4000;0.4379;1.2075;
869.7000;0.4379;1.2122;
870.0000;0.4371;1.2215;
870.3000;0.4347;1.2238;
870.6000;0.4379;1.2308;
870.9000;0.4379;1.2285;
871.2000;0.4404;1.2308;
871.5000;0.4347;1.2191;
871.8000;0.4371;1.2261;
872.1000;0.4371;1.2238;
872.4000;0.4379;1.2261;
872.7000;0.4404;1.2285;
873.0000;0.4396;1.2168;
873.3000;0.4363;1.2168;
873.6000;0.4412;1.2401;
873.9000;0.4379;1.2331;
874.2000;0.4379;1.2331;
874.5000;0.4379;1.2425;
874.8000;0.4412;1.2541;
875.1000;0.4387;1.2541;
875.4000;0.4347;1.2378;
875.7000;0.4420;1.2425;
876.0000;0.4339;1.2145;
876.3000;0.4379;1.2261;
876.6000;0.4371;1.2308;
876.9000;0.4371;1.2261;
877.2000;0.4387;1.2401;
877.5000;0.4387;1.2401;
877.8000;0.4355;1.2355;
878.1000;0.4347;1.2191;
878.4000;0.4379;1.2261;
878.7000;0.4387;1.2401;
879.0000;0.4371;1.2378;
879.3000;0.4396;1.2425;
879.6000;0.4371;1.2448;
879.9000;0.4379;1.2448;
880.2000;0.4396;1.2541;
880.5000;0.4379;1.2564;
880.8000;0.4347;1.2448;
881.1000;0.4387;1.2541;
881.4000;0.4379;1.2425;
881.7000;0.4379;1.2448;
882.0000;0.4379;1.2448;
882.3000;0.4379;1.2378;
882.6000;0.4387;1.2378;
882.9000;0.4396;1.2378;
883.2000;0.4347;1.2308;
883.5000;0.4379;1.2331;
883.8000;0.4436;1.2518;
884.1000;0.4355;1.2425;
884.4000;0.4387;1.2471;
884.7000;0.4379;1.2471;
885.0000;0.4396;1.2495;
885.3000;0.4363;1.2355;
885.6000;0.4371;1.2425;
885.9000;0.4371;1.2401;
886.2000;0.4371;1.2261;
886.5000;0.4379;1.2215;
886.8000;0.4371;1.2215;
887.1000;0.4404;1.2308;
887.4000;0.4371;1.2261;
887.7000;0.4387;1.2168;
888.0000;0.4387;1.2238;
888.3000;0.4379;1.2355;
888.6000;0.4379;1.2378;
888.9000;0.4371;1.2378;
889.2000;0.4412;1.2471;
889.5000;0.4379;1.2355;
889.8000;0.4387;1.2401;
890.1000;0.4387;1.2378;
890.4000;0.4379;1.2355;
890.7000;0.4371;1.2378;
891.0000;0.4371;1.2378;
891.3000;0.4387;1.2425;
891.6000;0.4371;1.2448;
891.9000;0.4306;1.2378;
892.2000;0.4363;1.2518;
892.5000;0.4363;1.2518;
892.8000;0.4355;1.2564;
893.1000;0.4363;1.2495;
893.4000;0.4363;1.2471;
893.7000;0.4339;1.2425;
894.0000;0.4363;1.2471;
894.3000;0.4371;1.2471;
894.6000;0.4347;1.2448;
894.9000;0.4363;1.2448;
895.2000;0.4363;1.2425;
895.5000;0.4363;1.2448;
895.8000;0.4355;1.2355;
896.1000;0.4379;1.2448;
896.4000;0.4371;1.2401;
896.7000;0.4404;1.2448;
897.0000;0.4371;1.2355;
897.3000;0.4379;1.2308;
897.6000;0.4330;1.2168;
897.9000;0.4330;1.2122;
898.2000;0.4371;1.2308;
898.5000;0.4371;1.2425;
898.8000;0.4363;1.2401;
899.1000;0.4355;1.2425;
899.4000;0.4379;1.2425;
899.7000;0.4290;1.2261;
900.0000;0.4371;1.2401;
900.3000;0.4379;1.2378;
900.6000;0.4412;1.2471;
900.9000;0.4363;1.2331;
901.2000;0.4363;1.2355;
901.5000;0.4379;1.2331;
901.8000;0.4379;1.2331;
902.1000;0.4347;1.2215;
902.4000;0.4339;1.2145;
902.7000;0.4387;1.2168;
903.0000;0.4355;1.2098;
903.3000;0.4371;1.2052;
903.6000;0.4347;1.2005;
903.9000;0.4339;1.2052;
904.2000;0.4330;1.2145;
904.5000;0.4379;1.2261;
904.8000;0.4396;1.2355;
905.1000;0.4371;1.2308;
905.4000;0.4363;1.2378;
905.7000;0.4420;1.2588;
906.0000;0.4330;1.2331;
906.3000;0.4363;1.2331;
906.6000;0.4387;1.2401;
906.9000;0.4371;1.2425;
907.2000;0.4330;1.2401;
907.5000;0.4355;1.2448;
907.8000;0.4420;1.2588;
908.1000;0.4396;1.2518;
908.4000;0.4339;1.2401;
908.7000;0.4420;1.2471;
909.0000;0.4355;1.2261;
909.3000;0.4339;1.2098;
909.6000;0.4379;1.2285;
909.9000;0.4387;1.2261;
910.2000;0.4379;1.2285;
910.5000;0.4363;1.2308;
910.8000;0.4461;1.2495;
911.1000;0.4371;1.2331;
911.4000;0.4339;1.2215;
911.7000;0.4363;1.2285;
912.0000;0.4347;1.2215;
912.3000;0.4347;1.2145;
912.6000;0.4322;1.2145;
912.9000;0.4355;1.2308;
913.2000;0.4396;1.2355;
913.5000;0.4371;1.2261;
913.8000;0.4371;1.2308;
914.1000;0.4379;1.2331;
914.4000;0.4379;1.2331;
914.7000;0.4379;1.2285;
915.0000;0.4363;1.2238;
915.3000;0.4379;1.2308;
915.6000;0.4379;1.2331;
915.9000;0.4363;1.2285;
916.2000;0.4339;1.2215;
916.5000;0.4339;1.2215;
916.8000;0.4330;1.2261;
917.1000;0.4371;1.2378;
917.4000;0.4339;1.2308;
917.7000;0.4379;1.2378;
918.0000;0.4396;1.2425;
918.3000;0.4347;1.2331;
918.6000;0.4347;1.2285;
918.9000;0.4347;1.2308;
919.2000;0.4347;1.2308;
919.5000;0.4363;1.2355;
919.8000;0.4339;1.2308;
920.1000;0.4339;1.2308;
920.4000;0.4404;1.2308;
920.7000;0.4371;1.2238;
921.0000;0.4355;1.2285;
921.3000;0.4363;1.2331;
921.6000;0.4363;1.2331;
921.9000;0.4355;1.2238;
922.2000;0.4314;1.2075;
922.5000;0.4347;1.2122;
922.8000;0.4347;1.2075;
923.1000;0.4363;1.2168;
923.4000;0.4371;1.2122;
923.7000;0.4371;1.2168;
924.0000;0.4347;1.2122;
924.3000;0.4330;1.2145;
924.6000;0.4355;1.2168;
924.9000;0.4363;1.2122;
925.2000;0.4339;1.2075;
925.5000;0.4355;1.2052;
925.8000;0.4379;1.2098;
926.1000;0.4330;1.1958;
926.4000;0.4412;1.2168;
926.7000;0.4387;1.2145;
927.0000;0.4355;1.2168;
927.3000;0.4371;1.2191;
927.6000;0.4355;1.2098;
927.9000;0.4347;1.2145;
928.2000;0.4322;1.2168;
928.5000;0.4347;1.2238;
928.8000;0.4355;1.2261;
929.1000;0.4371;1.2215;
929.4000;0.4339;1.2191;
929.7000;0.4339;1.2191;
930.0000;0.4347;1.2215;
930.3000;0.4355;1.2261;
930.6000;0.4339;1.2308;
930.9000;0.4347;1.2261;
931.2000;0.4322;1.2215;
931.5000;0.4347;1.2261;
931.8000;0.4347;1.2285;
932.1000;0.4469;1.2541;
932.4000;0.4363;1.2285;
932.7000;0.4355;1.2285;
933.0000;0.4363;1.2238;
933.3000;0.4339;1.2261;
933.6000;0.4339;1.2215;
933.9000;0.4355;1.2215;
934.2000;0.4379;1.2238;
934.5000;0.4355;1.2238;
934.8000;0.4347;1.2075;
935.1000;0.4371;1.2075;
935.4000;0.4347;1.2005;
935.7000;0.4363;1.2122;
936.0000;0.4347;1.2215;
936.3000;0.4404;1.2378;
936.6000;0.4379;1.2331;
936.9000;0.4347;1.2285;
937.2000;0.4355;1.2308;
937.5000;0.4363;1.2238;
937.8000;0.4347;1.2191;
938.1000;0.4379;1.2215;
938.4000;0.4355;1.2191;
938.7000;0.4355;1.2168;
939.0000;0.4355;1.2191;
939.3000;0.4347;1.2238;
939.6000;0.4330;1.2238;
939.9000;0.4339;1.2285;
940.2000;0.4339;1.2331;
940.5000;0.4339;1.2331;
940.8000;0.4339;1.2261;
941.1000;0.4363;1.2238;
941.4000;0.4379;1.2238;
941.7000;0.4363;1.2191;
942.0000;0.4355;1.2122;
942.3000;0.4379;1.2261;
942.6000;0.4404;1.2355;
942.9000;0.4371;1.2285;
943.2000;0.4339;1.2261;
943.5000;0.4339;1.2238;
943.8000;0.4347;1.2215;
944.1000;0.4330;1.2168;
944.4000;0.4322;1.2075;
944.7000;0.4387;1.2191;
945.0000;0.4347;1.2122;
945.3000;0.4355;1.2075;
945.6000;0.4363;1.2005;
945.9000;0.4371;1.1982;
946.2000;0.4339;1.1865;
946.5000;0.4428;1.2191;
946.8000;0.4371;1.2052;
947.1000;0.4347;1.2005;
947.4000;0.4355;1.1982;
947.7000;0.4355;1.2028;
948.0000;0.4355;1.2028;
948.3000;0.4347;1.2122;
948.6000;0.4371;1.2285;
948.9000;0.4355;1.2285;
949.2000;0.4363;1.2378;
949.5000;0.4330;1.2401;
949.8000;0.4379;1.2495;
950.1000;0.4339;1.2425;
950.4000;0.4355;1.2425;
950.7000;0.4339;1.2378;
951.0000;0.4404;1.2518;
951.3000;0.4363;1.2285;
951.6000;0.4363;1.2261;
951.9000;0.4330;1.2191;
952.2000;0.4339;1.2238;
952.5000;0.4339;1.2308;
952.8000;0.4347;1.2331;
953.1000;0.4347;1.2355;
953.4000;0.4339;1.2355;
953.7000;0.4322;1.2378;
954.0000;0.4347;1.2331;
954.3000;0.4339;1.2308;
954.6000;0.4330;1.2168;
954.9000;0.4330;1.2145;
955.2000;0.4339;1.2191;
955.5000;0.4339;1.2215;
955.8000;0.4314;1.2238;
956.1000;0.4330;1.2331;
956.4000;0.4347;1.2285;
956.7000;0.4355;1.2285;
957.0000;0.4347;1.2355;
957.3000;0.4363;1.2425;
957.6000;0.4330;1.2355;
957.9000;0.4347;1.2401;
958.2000;0.4347;1.2401;
958.5000;0.4314;1.2355;
958.8000;0.4347;1.2331;
959.1000;0.4363;1.2331;
959.4000;0.4339;1.2285;
959.7000;0.4347;1.2168;
960.0000;0.4330;1.2238;
960.3000;0.4322;1.2098;
960.6000;0.4355;1.2168;
960.9000;0.4339;1.2098;
961.2000;0.4355;1.2122;
961.5000;0.4347;1.2191;
961.8000;0.4282;1.1982;
962.1000;0.4355;1.2191;
962.4000;0.4339;1.2052;
962.7000;0.4339;1.2122;
963.0000;0.4355;1.2215;
963.3000;0.4355;1.2191;
963.6000;0.4330;1.2145;
963.9000;0.4339;1.2238;
964.2000;0.4355;1.2401;
964.5000;0.4363;1.2331;
964.8000;0.4347;1.2285;
965.1000;0.4314;1.2238;
965.4000;0.4355;1.2261;
965.7000;0.4322;1.2168;
966.0000;0.4314;1.1982;
966.3000;0.4371;1.1982;
966.6000;0.4339;1.1982;
966.9000;0.4314;1.1935;
967.2000;0.4347;1.2075;
967.5000;0.4379;1.2261;
967.8000;0.4339;1.2238;
968.1000;0.4355;1.2355;
968.4000;0.4314;1.2261;
968.7000;0.4379;1.2401;
969.0000;0.4322;1.2331;
969.3000;0.4282;1.2215;
969.6000;0.4290;1.2331;
969.9000;0.4322;1.2448;
970.2000;0.4330;1.2448;
970.5000;0.4387;1.2564;
970.8000;0.4355;1.2471;
971.1000;0.4363;1.2471;
971.4000;0.4330;1.2355;
971.7000;0.4322;1.2401;
972.0000;0.4339;1.2378;
972.3000;0.4339;1.2261;
972.6000;0.4314;1.2215;
972.9000;0.4306;1.2378;
973.2000;0.4347;1.2425;
973.5000;0.4347;1.2611;
973.8000;0.4330;1.2541;
974.1000;0.4241;1.2285;
974.4000;0.4339;1.2518;
974.7000;0.4314;1.2448;
975.0000;0.4347;1.2495;
975.3000;0.4339;1.2495;
975.6000;0.4355;1.2471;
975.9000;0.4306;1.2448;
976.2000;0.4355;1.2541;
976.5000;0.4339;1.2518;
976.8000;0.4339;1.2611;
977.1000;0.4330;1.2611;
977.4000;0.4347;1.2541;
977.7000;0.4355;1.2564;
978.0000;0.4330;1.2495;
978.3000;0.4363;1.2541;
978.6000;0.4363;1.2495;
978.9000;0.4330;1.2401;
979.2000;0.4274;1.2308;
979.5000;0.4363;1.2448;
979.8000;0.4330;1.2378;
980.1000;0.4387;1.2588;
980.4000;0.4330;1.2425;
980.7000;0.4322;1.2308;
981.0000;0.4339;1.2331;
981.3000;0.4298;1.2308;
981.6000;0.4339;1.2518;
981.9000;0.4339;1.2518;
982.2000;0.4347;1.2518;
982.5000;0.4330;1.2378;
982.8000;0.4322;1.2378;
983.1000;0.4330;1.2448;
983.4000;0.4322;1.2495;
983.7000;0.4371;1.2564;
984.0000;0.4339;1.2495;
984.3000;0.4371;1.2518;
984.6000;0.4330;1.2541;
984.9000;0.4322;1.2495;
985.2000;0.4330;1.2425;
985.5000;0.4339;1.2448;
985.8000;0.4314;1.2448;
986.1000;0.4330;1.2471;
986.4000;0.4355;1.2355;
986.7000;0.4306;1.2308;
987.0000;0.4379;1.2541;
987.3000;0.4355;1.2518;
987.6000;0.4363;1.2588;
987.9000;0.4339;1.2495;
988.2000;0.4339;1.2518;
988.5000;0.4322;1.2564;
988.8000;0.4314;1.2495;
989.1000;0.4314;1.2518;
989.4000;0.4314;1.2588;
989.7000;0.4347;1.2658;
990.0000;0.4306;1.2541;
990.3000;0.4330;1.2448;
990.6000;0.4306;1.2331;
990.9000;0.4322;1.2378;
991.2000;0.4404;1.2541;
991.5000;0.4339;1.2401;
991.8000;0.4330;1.2401;
992.1000;0.4330;1.2471;
992.4000;0.4322;1.2564;
992.7000;0.4387;1.2658;
993.0000;0.4347;1.2564;
993.3000;0.4330;1.2448;
993.6000;0.4330;1.2425;
993.9000;0.4347;1.2448;
994.2000;0.4339;1.2495;
994.5000;0.4339;1.2518;
994.8000;0.4347;1.2425;
995.1000;0.4347;1.2378;
995.4000;0.4322;1.2285;
995.7000;0.4322;1.2285;
996.0000;0.4330;1.2285;
996.3000;0.4339;1.2331;
996.6000;0.4298;1.2238;
996.9000;0.4330;1.2378;
997.2000;0.4330;1.2471;
997.5000;0.4347;1.2588;
997.8000;0.4355;1.2611;
998.1000;0.4306;1.2541;
998.4000;0.4330;1.2564;
998.7000;0.4347;1.2541;
999.0000;0.4339;1.2541;
999.3000;0.4322;1.2611;
999.6000;0.4314;1.2611;
999.9000;0.4330;1.2588;
1000.2000;0.4322;1.2541;
1000.5000;0.4330;1.2495;
1000.8000;0.4330;1.2448;
1001.1000;0.4306;1.2448;
1001.4000;0.4347;1.2471;
1001.7000;0.4314;1.2378;
1002.0000;0.4322;1.2355;
1002.3000;0.4322;1.2355;
1002.6000;0.4330;1.2448;
1002.9000;0.4339;1.2331;
1003.2000;0.4379;1.2448;
1003.5000;0.4314;1.2331;
1003.8000;0.4314;1.2331;
1004.1000;0.4298;1.2308;
1004.4000;0.4322;1.2378;
1004.7000;0.4306;1.2355;
1005.0000;0.4339;1.2495;
1005.3000;0.4314;1.2425;
1005.6000;0.4330;1.2425;
1005.9000;0.4330;1.2308;
1006.2000;0.4363;1.2331;
1006.5000;0.4347;1.2331;
1006.8000;0.4314;1.2261;
1007.1000;0.4330;1.2261;
1007.4000;0.4355;1.2308;
1007.7000;0.4314;1.2331;
1008.0000;0.4306;1.2425;
1008.3000;0.4298;1.2495;
1008.6000;0.4314;1.2448;
1008.9000;0.4314;1.2518;
1009.2000;0.4322;1.2448;
1009.5000;0.4314;1.2401;
1009.8000;0.4314;1.2448;
1010.1000;0.4322;1.2425;
1010.4000;0.4330;1.2471;
1010.7000;0.4322;1.2495;
1011.0000;0.4314;1.2448;
1011.3000;0.4322;1.2378;
1011.6000;0.4330;1.2425;
1011.9000;0.4322;1.2331;
1012.2000;0.4306;1.2331;
1012.5000;0.4347;1.2401;
1012.8000;0.4306;1.2355;
1013.1000;0.4330;1.2425;
1013.4000;0.4339;1.2401;
1013.7000;0.4339;1.2378;
1014.0000;0.4330;1.2285;
1014.3000;0.4330;1.2215;
1014.6000;0.4314;1.2238;
1014.9000;0.4355;1.2425;
1015.2000;0.4314;1.2331;
1015.5000;0.4396;1.2471;
1015.8000;0.4322;1.2308;
1016.1000;0.4330;1.2215;
1016.4000;0.4314;1.2168;
1016.7000;0.4355;1.2168;
1017.0000;0.4322;1.2122;
1017.3000;0.4314;1.2028;
1017.6000;0.4322;1.2098;
1017.9000;0.4314;1.2005;
1018.2000;0.4330;1.2145;
1018.5000;0.4241;1.1842;
1018.8000;0.4412;1.2261;
1019.1000;0.4347;1.2005;
1019.4000;0.4339;1.2028;
1019.7000;0.4314;1.2005;
1020.0000;0.4339;1.2075;
1020.3000;0.4306;1.2052;
1020.6000;0.4339;1.2075;
1020.9000;0.4322;1.1982;
1021.2000;0.4314;1.1958;
1021.5000;0.4306;1.1982;
1021.8000;0.4257;1.1818;
1022.1000;0.4322;1.2098;
1022.4000;0.4322;1.2191;
1022.7000;0.4314;1.2145;
1023.0000;0.4330;1.2145;
1023.3000;0.4322;1.2145;
1023.6000;0.4379;1.2285;
1023.9000;0.4322;1.2215;
1024.2000;0.4314;1.2238;
1024.5000;0.4322;1.2191;
1024.8000;0.4330;1.2261;
1025.1000;0.4330;1.2355;
1025.4000;0.4339;1.2355;
1025.7000;0.4355;1.2378;
1026.0000;0.4330;1.2285;
1026.3000;0.4314;1.2285;
1026.6000;0.4314;1.2355;
1026.9000;0.4363;1.2425;
1027.2000;0.4322;1.2285;
1027.5000;0.4330;1.2261;
1027.8000;0.4339;1.2168;
1028.1000;0.4330;1.2191;
1028.4000;0.4314;1.2168;
1028.7000;0.4314;1.2261;
1029.0000;0.4306;1.2191;
1029.3000;0.4420;1.2448;
1029.6000;0.4379;1.2425;
1029.9000;0.4322;1.2168;
1030.2000;0.4339;1.2238;
1030.5000;0.4322;1.2285;
1030.8000;0.4322;1.2308;
1031.1000;0.4330;1.2308;
1031.4000;0.4298;1.2215;
1031.7000;0.4306;1.2285;
1032.0000;0.4322;1.2331;
1032.3000;0.4314;1.2401;
1032.6000;0.4330;1.2448;
1032.9000;0.4314;1.2401;
1033.2000;0.4290;1.2401;
1033.5000;0.4306;1.2401;
1033.8000;0.4290;1.2308;
1034.1000;0.4306;1.2355;
1034.4000;0.4314;1.2285;
1034.7000;0.4306;1.2215;
1035.0000;0.4330;1.2285;
1035.3000;0.4330;1.2308;
1035.6000;0.4306;1.2285;
1035.9000;0.4330;1.2331;
1036.2000;0.4314;1.2261;
1036.5000;0.4306;1.2355;
1036.8000;0.4290;1.2355;
1037.1000;0.4322;1.2518;
1037.4000;0.4412;1.2751;
1037.7000;0.4257;1.2331;
1038.0000;0.4298;1.2471;
1038.3000;0.4306;1.2518;
1038.6000;0.4298;1.2448;
1038.9000;0.4306;1.2518;
1039.2000;0.4322;1.2518;
1039.5000;0.4306;1.2471;
1039.8000;0.4290;1.2355;
1040.1000;0.4347;1.2495;
1040.4000;0.4306;1.2425;
1040.7000;0.4314;1.2448;
1041.0000;0.4330;1.2401;
1041.3000;0.4330;1.2564;
1041.6000;0.4322;1.2541;
1041.9000;0.4306;1.2541;
1042.2000;0.4314;1.2634;
1042.5000;0.4314;1.2611;
1042.8000;0.4298;1.2541;
1043.1000;0.4290;1.2471;
1043.4000;0.4298;1.2495;
1043.7000;0.4339;1.2541;
1044.0000;0.4314;1.2495;
1044.3000;0.4298;1.2541;
1044.6000;0.4298;1.2541;
1044.9000;0.4330;1.2541;
1045.2000;0.4306;1.2518;
1045.5000;0.4314;1.2471;
1045.8000;0.4314;1.2425;
1046.1000;0.4314;1.2355;
1046.4000;0.4314;1.2355;
1046.7000;0.4306;1.2355;
1047.0000;0.4322;1.2261;
1047.3000;0.4306;1.2401;
1047.6000;0.4330;1.2285;
1047.9000;0.4290;1.2075;
1048.2000;0.4298;1.2168;
1048.5000;0.4339;1.2285;
1048.8000;0.4314;1.2215;
1049.1000;0.4314;1.2285;
1049.4000;0.4282;1.2215;
1049.7000;0.4322;1.2355;
1050.0000;0.4306;1.2355;
1050.3000;0.4306;1.2448;
1050.6000;0.4330;1.2588;
1050.9000;0.4306;1.2564;
1051.2000;0.4314;1.2425;
1051.5000;0.4314;1.2448;
1051.8000;0.4322;1.2425;
1052.1000;0.4314;1.2401;
1052.4000;0.4330;1.2378;
1052.7000;0.4306;1.2308;
1053.0000;0.4322;1.2308;
1053.3000;0.4322;1.2285;
1053.6000;0.4249;1.2168;
1053.9000;0.4306;1.2238;
1054.2000;0.4314;1.2285;
1054.5000;0.4314;1.2308;
1054.8000;0.4306;1.2308;
1055.1000;0.4330;1.2448;
1055.4000;0.4387;1.2728;
1055.7000;0.4298;1.2658;
1056.0000;0.4322;1.2634;
1056.3000;0.4314;1.2588;
1056.6000;0.4322;1.2588;
1056.9000;0.4314;1.2495;
1057.2000;0.4322;1.2401;
1057.5000;0.4322;1.2471;
1057.8000;0.4314;1.2495;
1058.1000;0.4330;1.2471;
1058.4000;0.4314;1.2518;
1058.7000;0.4290;1.2471;
1059.0000;0.4314;1.2471;
1059.3000;0.4298;1.2401;
1059.6000;0.4322;1.2448;
1059.9000;0.4322;1.2448;
1060.2000;0.4347;1.2518;
1060.5000;0.4306;1.2425;
1060.8000;0.4314;1.2471;
1061.1000;0.4322;1.2471;
1061.4000;0.4371;1.2541;
1061.7000;0.4330;1.2355;
1062.0000;0.4322;1.2401;
1062.3000;0.4322;1.2401;
1062.6000;0.4314;1.2495;
1062.9000;0.4339;1.2588;
1063.2000;0.4298;1.2495;
1063.5000;0.4249;1.2285;
1063.8000;0.4306;1.2471;
1064.1000;0.4322;1.2448;
1064.4000;0.4282;1.2448;
1064.7000;0.4330;1.2611;
1065.0000;0.4314;1.2634;
1065.3000;0.4298;1.2658;
1065.6000;0.4314;1.2681;
1065.9000;0.4298;1.2588;
1066.2000;0.4314;1.2634;
1066.5000;0.4241;1.2448;
1066.8000;0.4290;1.2681;
1067.1000;0.4306;1.2728;
1067.4000;0.4314;1.2611;
1067.7000;0.4306;1.2541;
1068.0000;0.4330;1.2681;
1068.3000;0.4290;1.2588;
1068.6000;0.4298;1.2611;
1068.9000;0.4306;1.2658;
1069.2000;0.4298;1.2658;
1069.5000;0.4314;1.2611;
1069.8000;0.4233;1.2401;
1070.1000;0.4363;1.2681;
1070.4000;0.4306;1.2588;
1070.7000;0.4298;1.2518;
1071.0000;0.4339;1.2541;
1071.3000;0.4314;1.2471;
1071.6000;0.4282;1.2471;
1071.9000;0.4322;1.2495;
1072.2000;0.4282;1.2425;
1072.5000;0.4298;1.2518;
1072.8000;0.4314;1.2495;
1073.1000;0.4306;1.2471;
1073.4000;0.4306;1.2355;
1073.7000;0.4290;1.2308;
1074.0000;0.4322;1.2378;
1074.3000;0.4314;1.2401;
1074.6000;0.4306;1.2518;
1074.9000;0.4314;1.2541;
1075.2000;0.4241;1.2401;
1075.5000;0.4330;1.2681;
1075.8000;0.4322;1.2658;
1076.1000;0.4404;1.2914;
1076.4000;0.4322;1.2681;
1076.7000;0.4322;1.2611;
1077.0000;0.4396;1.2751;
1077.3000;0.4274;1.2564;
1077.6000;0.4282;1.2634;
1077.9000;0.4282;1.2564;
1078.2000;0.4249;1.2471;
1078.5000;0.4274;1.2518;
1078.8000;0.4371;1.2704;
1079.1000;0.4314;1.2611;
1079.4000;0.4314;1.2611;
1079.7000;0.4298;1.2588;
1080.0000;0.4249;1.2425;
1080.3000;0.4298;1.2518;
1080.6000;0.4322;1.2541;
1080.9000;0.4314;1.2518;
1081.2000;0.4298;1.2471;
1081.5000;0.4265;1.2378;
1081.8000;0.4306;1.2425;
1082.1000;0.4298;1.2378;
1082.4000;0.4282;1.2355;
1082.7000;0.4306;1.2425;
1083.0000;0.4314;1.2471;
1083.3000;0.4314;1.2471;
1083.6000;0.4322;1.2448;
1083.9000;0.4306;1.2401;
1084.2000;0.4322;1.2425;
1084.5000;0.4339;1.2378;
1084.8000;0.4314;1.2331;
1085.1000;0.4322;1.2401;
1085.4000;0.4314;1.2425;
1085.7000;0.4347;1.2518;
1086.0000;0.4330;1.2448;
1086.3000;0.4314;1.2425;
1086.6000;0.4306;1.2471;
1086.9000;0.4314;1.2518;
1087.2000;0.4314;1.2401;
1087.5000;0.4322;1.2355;
1087.8000;0.4282;1.2355;
1088.1000;0.4314;1.2425;
1088.4000;0.4306;1.2331;
1088.7000;0.4274;1.2191;
1089.0000;0.4298;1.2331;
1089.3000;0.4322;1.2401;
1089.6000;0.4322;1.2378;
1089.9000;0.4306;1.2308;
1090.2000;0.4265;1.2215;
1090.5000;0.4290;1.2425;
1090.8000;0.4298;1.2564;
1091.1000;0.4322;1.2611;
1091.4000;0.4290;1.2518;
1091.7000;0.4257;1.2331;
1092.0000;0.4298;1.2401;
1092.3000;0.4322;1.2471;
1092.6000;0.4322;1.2518;
1092.9000;0.4314;1.2448;
1093.2000;0.4306;1.2448;
1093.5000;0.4314;1.2425;
1093.8000;0.4217;1.2168;
1094.1000;0.4314;1.2425;
1094.4000;0.4306;1.2448;
1094.7000;0.4355;1.2588;
1095.0000;0.4306;1.2634;
1095.3000;0.4363;1.2681;
1095.6000;0.4306;1.2564;
1095.9000;0.4306;1.2564;
1096.2000;0.4322;1.2588;
1096.5000;0.4330;1.2564;
1096.8000;0.4290;1.2401;
1097.1000;0.4322;1.2401;
1097.4000;0.4314;1.2331;
1097.7000;0.4290;1.2331;
1098.0000;0.4298;1.2401;
1098.3000;0.4314;1.2448;
1098.6000;0.4298;1.2448;
1098.9000;0.4306;1.2425;
1099.2000;0.4339;1.2588;
1099.5000;0.4265;1.2401;
1099.8000;0.4306;1.2564;
1100.1000;0.4314;1.2564;
1100.4000;0.4249;1.2401;
1100.7000;0.4298;1.2564;
1101.0000;0.4322;1.2564;
1101.3000;0.4355;1.2564;
1101.6000;0.4322;1.2448;
1101.9000;0.4298;1.2471;
1102.2000;0.4298;1.2401;
1102.5000;0.4298;1.2495;
1102.8000;0.4322;1.2471;
1103.1000;0.4306;1.2448;
1103.4000;0.4314;1.2564;
1103.7000;0.4371;1.2681;
1104.0000;0.4339;1.2588;
1104.3000;0.4322;1.2564;
1104.6000;0.4306;1.2611;
1104.9000;0.4339;1.2681;
1105.2000;0.4290;1.2611;
1105.5000;0.4298;1.2728;
1105.8000;0.4330;1.2681;
1106.1000;0.4330;1.2681;
1106.4000;0.4290;1.2541;
1106.7000;0.4298;1.2518;
1107.0000;0.4306;1.2518;
1107.3000;0.4306;1.2541;
1107.6000;0.4322;1.2564;
1107.9000;0.4322;1.2564;
1108.2000;0.4314;1.2495;
1108.5000;0.4298;1.2518;
1108.8000;0.4322;1.2588;
1109.1000;0.4314;1.2564;
1109.4000;0.4322;1.2634;
1109.7000;0.4306;1.2634;
1110.0000;0.4322;1.2588;
1110.3000;0.4322;1.2541;
1110.6000;0.4306;1.2471;
1110.9000;0.4290;1.2401;
1111.2000;0.4290;1.2495;
1111.5000;0.4314;1.2541;
1111.8000;0.4290;1.2425;
1112.1000;0.4298;1.2425;
1112.4000;0.4322;1.2541;
1112.7000;0.4314;1.2588;
1113.0000;0.4306;1.2448;
1113.3000;0.4314;1.2518;
1113.6000;0.4306;1.2448;
1113.9000;0.4314;1.2448;
1114.2000;0.4298;1.2401;
1114.5000;0.4298;1.2518;
1114.8000;0.4290;1.2425;
1115.1000;0.4306;1.2564;
1115.4000;0.4314;1.2611;
1115.7000;0.4233;1.2495;
1116.0000;0.4306;1.2634;
1116.3000;0.4314;1.2634;
1116.6000;0.4290;1.2564;
1116.9000;0.4298;1.2564;
1117.2000;0.4282;1.2564;
1117.5000;0.4339;1.2681;
1117.8000;0.4322;1.2588;
1118.1000;0.4306;1.2611;
1118.4000;0.4306;1.2541;
1118.7000;0.4306;1.2611;
1119.0000;0.4298;1.2658;
1119.3000;0.4282;1.2681;
1119.6000;0.4314;1.2751;
1119.9000;0.4306;1.2774;
1120.2000;0.4290;1.2658;
1120.5000;0.4314;1.2681;
1120.8000;0.4290;1.2588;
1121.1000;0.4282;1.2564;
1121.4000;0.4298;1.2634;
1121.7000;0.4314;1.2704;
1122.0000;0.4298;1.2681;
1122.3000;0.4298;1.2588;
1122.6000;0.4298;1.2611;
1122.9000;0.4306;1.2658;
1123.2000;0.4314;1.2704;
1123.5000;0.4314;1.2658;
1123.8000;0.4298;1.2658;
1124.1000;0.4298;1.2658;
1124.4000;0.4265;1.2518;
1124.7000;0.4306;1.2588;
1125.0000;0.4379;1.2891;
1125.3000;0.4298;1.2681;
1125.6000;0.4298;1.2634;
1125.9000;0.4298;1.2588;
1126.2000;0.4265;1.2495;
1126.5000;0.4306;1.2588;
1126.8000;0.4290;1.2588;
1127.1000;0.4298;1.2564;
1127.4000;0.4306;1.2658;
1127.7000;0.4314;1.2658;
1128.0000;0.4322;1.2728;
1128.3000;0.4298;1.2681;
1128.6000;0.4306;1.2681;
1128.9000;0.4306;1.2611;
1129.2000;0.4298;1.2518;
1129.5000;0.4314;1.2588;
1129.8000;0.4314;1.2611;
1130.1000;0.4306;1.2564;
1130.4000;0.4314;1.2611;
1130.7000;0.4298;1.2588;
1131.0000;0.4298;1.2658;
1131.3000;0.4306;1.2658;
1131.6000;0.4339;1.2611;
1131.9000;0.4306;1.2588;
1132.2000;0.4290;1.2495;
1132.5000;0.4298;1.2355;
1132.8000;0.4298;1.2285;
1133.1000;0.4314;1.2285;
1133.4000;0.4306;1.2261;
1133.7000;0.4330;1.2425;
1134.0000;0.4306;1.2471;
1134.3000;0.4265;1.2308;
1134.6000;0.4298;1.2495;
1134.9000;0.4306;1.2495;
1135.2000;0.4298;1.2541;
1135.5000;0.4298;1.2588;
1135.8000;0.4330;1.2564;
1136.1000;0.4298;1.2448;
1136.4000;0.4298;1.2401;
1136.7000;0.4290;1.2308;
1137.0000;0.4298;1.2285;
1137.3000;0.4306;1.2238;
1137.6000;0.4314;1.2261;
1137.9000;0.4306;1.2285;
1138.2000;0.4298;1.2285;
1138.5000;0.4306;1.2308;
1138.8000;0.4306;1.2308;
1139.1000;0.4282;1.2238;
1139.4000;0.4290;1.2355;
1139.7000;0.4298;1.2331;
1140.0000;0.4290;1.2215;
1140.3000;0.4306;1.2355;
1140.6000;0.4306;1.2448;
1140.9000;0.4265;1.2331;
1141.2000;0.4290;1.2425;
1141.5000;0.4274;1.2378;
1141.8000;0.4265;1.2285;
1142.1000;0.4306;1.2378;
1142.4000;0.4306;1.2355;
1142.7000;0.4306;1.2331;
1143.0000;0.4298;1.2238;
1143.3000;0.4363;1.2401;
1143.6000;0.4290;1.2261;
1143.9000;0.4306;1.2378;
1144.2000;0.4265;1.2308;
1144.5000;0.4355;1.2564;
1144.8000;0.4306;1.2425;
1145.1000;0.4298;1.2425;
1145.4000;0.4298;1.2495;
1145.7000;0.4298;1.2518;
1146.0000;0.4298;1.2495;
1146.3000;0.4306;1.2471;
1146.6000;0.4322;1.2448;
1146.9000;0.4314;1.2378;
1147.2000;0.4298;1.2285;
1147.5000;0.4298;1.2285;
1147.8000;0.4290;1.2261;
1148.1000;0.4298;1.2261;
1148.4000;0.4241;1.2075;
1148.7000;0.4306;1.2215;
1149.0000;0.4282;1.2122;
1149.3000;0.4298;1.2191;
1149.6000;0.4290;1.2331;
1149.9000;0.4306;1.2378;
1150.2000;0.4282;1.2215;
1150.5000;0.4290;1.2191;
1150.8000;0.4306;1.2215;
1151.1000;0.4298;1.2168;
1151.4000;0.4298;1.2168;
1151.7000;0.4282;1.2052;
1152.0000;0.4306;1.2075;
1152.3000;0.4314;1.2168;
1152.6000;0.4257;1.2098;
1152.9000;0.4298;1.2168;
1153.2000;0.4290;1.2238;
1153.5000;0.4298;1.2261;
1153.8000;0.4306;1.2331;
1154.1000;0.4306;1.2378;
1154.4000;0.4306;1.2331;
1154.7000;0.4265;1.2308;
1155.0000;0.4265;1.2355;
1155.3000;0.4249;1.2401;
1155.6000;0.4298;1.2471;
1155.9000;0.4274;1.2331;
1156.2000;0.4298;1.2238;
1156.5000;0.4184;1.1958;
1156.8000;0.4290;1.2261;
1157.1000;0.4298;1.2355;
1157.4000;0.4298;1.2308;
1157.7000;0.4330;1.2308;
1158.0000;0.4298;1.2191;
1158.3000;0.4282;1.2285;
1158.6000;0.4241;1.2168;
1158.9000;0.4314;1.2331;
1159.2000;0.4290;1.2261;
1159.5000;0.4298;1.2308;
1159.8000;0.4282;1.2308;
1160.1000;0.4298;1.2355;
1160.4000;0.4306;1.2401;
1160.7000;0.4298;1.2355;
1161.0000;0.4274;1.2261;
1161.3000;0.4298;1.2261;
1161.6000;0.4314;1.2215;
1161.9000;0.4282;1.2215;
1162.2000;0.4298;1.2261;
1162.5000;0.4298;1.2285;
1162.8000;0.4290;1.2285;
1163.1000;0.4290;1.2308;
1163.4000;0.4298;1.2355;
1163.7000;0.4282;1.2355;
1164.0000;0.4298;1.2285;
1164.3000;0.4314;1.2355;
1164.6000;0.4298;1.2308;
1164.9000;0.4249;1.2168;
1165.2000;0.4298;1.2238;
1165.5000;0.4298;1.2168;
1165.8000;0.4298;1.2168;
1166.1000;0.4241;1.2075;
1166.4000;0.4282;1.2145;
1166.7000;0.4298;1.2145;
1167.0000;0.4290;1.2168;
1167.3000;0.4412;1.2448;
1167.6000;0.4314;1.2168;
1167.9000;0.4290;1.2145;
1168.2000;0.4225;1.1958;
1168.5000;0.4274;1.2075;
1168.8000;0.4306;1.2098;
1169.1000;0.4298;1.2122;
1169.4000;0.4355;1.2355;
1169.7000;0.4290;1.2331;
1170.0000;0.4314;1.2355;
1170.3000;0.4306;1.2401;
1170.6000;0.4298;1.2331;
1170.9000;0.4265;1.2331;
1171.2000;0.4298;1.2425;
1171.5000;0.4290;1.2401;
1171.8000;0.4290;1.2401;
1172.1000;0.4298;1.2401;
1172.4000;0.4355;1.2448;
1172.7000;0.4298;1.2331;
1173.0000;0.4298;1.2401;
1173.3000;0.4274;1.2378;
1173.6000;0.4257;1.2331;
1173.9000;0.4282;1.2378;
1174.2000;0.4217;1.2238;
1174.5000;0.4298;1.2425;
1174.8000;0.4347;1.2495;
1175.1000;0.4282;1.2355;
1175.4000;0.4290;1.2378;
1175.7000;0.4274;1.2355;
1176.0000;0.4298;1.2355;
1176.3000;0.4249;1.2331;
1176.6000;0.4306;1.2401;
1176.9000;0.4306;1.2425;
1177.2000;0.4314;1.2425;
1177.5000;0.4290;1.2378;
1177.8000;0.4290;1.2355;
1178.1000;0.4282;1.2378;
1178.4000;0.4290;1.2401;
1178.7000;0.4290;1.2331;
1179.0000;0.4298;1.2261;
1179.3000;0.4249;1.2168;
1179.6000;0.4379;1.2425;
1179.9000;0.4290;1.2191;
1180.2000;0.4314;1.2285;
1180.5000;0.4339;1.2425;
1180.8000;0.4306;1.2355;
1181.1000;0.4298;1.2238;
1181.4000;0.4290;1.2215;
1181.7000;0.4322;1.2215;
1182.0000;0.4290;1.2145;
1182.3000;0.4282;1.2168;
1182.6000;0.4298;1.2285;
1182.9000;0.4290;1.2308;
1183.2000;0.4274;1.2308;
1183.5000;0.4282;1.2145;
1183.8000;0.4290;1.2285;
1184.1000;0.4298;1.2355;
1184.4000;0.4274;1.2355;
1184.7000;0.4257;1.2378;
1185.0000;0.4282;1.2518;
1185.3000;0.4314;1.2564;
1185.6000;0.4257;1.2425;
1185.9000;0.4282;1.2518;
1186.2000;0.4217;1.2261;
1186.5000;0.4274;1.2401;
1186.8000;0.4396;1.2681;
1187.1000;0.4282;1.2308;
1187.4000;0.4298;1.2308;
1187.7000;0.4298;1.2355;
1188.0000;0.4298;1.2471;
1188.3000;0.4322;1.2541;
1188.6000;0.4282;1.2401;
1188.9000;0.4298;1.2564;
1189.2000;0.4298;1.2471;
1189.5000;0.4298;1.2425;
1189.8000;0.4298;1.2425;
1190.1000;0.4282;1.2471;
1190.4000;0.4298;1.2495;
1190.7000;0.4265;1.2401;
1191.0000;0.4322;1.2541;
1191.3000;0.4241;1.2355;
1191.6000;0.4306;1.2425;
1191.9000;0.4306;1.2401;
1192.2000;0.4306;1.2331;
1192.5000;0.4371;1.2495;
1192.8000;0.4282;1.2238;
1193.1000;0.4298;1.2261;
1193.4000;0.4396;1.2541;
1193.7000;0.4290;1.2331;
1194.0000;0.4282;1.2331;
1194.3000;0.4290;1.2378;
1194.6000;0.4306;1.2401;
1194.9000;0.4306;1.2564;
1195.2000;0.4200;1.2261;
1195.5000;0.4298;1.2448;
1195.8000;0.4314;1.2471;
1196.1000;0.4298;1.2448;
1196.4000;0.4298;1.2495;
1196.7000;0.4330;1.2495;
1197.0000;0.4298;1.2495;
1197.3000;0.4298;1.2448;
1197.6000;0.4290;1.2401;
1197.9000;0.4290;1.2448;
1198.2000;0.4306;1.2495;
1198.5000;0.4298;1.2448;
1198.8000;0.4290;1.2448;
1199.1000;0.4290;1.2471;
1199.4000;0.4298;1.2495;
1199.7000;0.4282;1.2401;
1200.0000;0.4298;1.2401;
1200.3000;0.4282;1.2355;
1200.6000;0.4330;1.2378;
1200.9000;0.4265;1.2308;
1201.2000;0.4290;1.2261;
1201.5000;0.4290;1.2191;
1201.8000;0.4290;1.2238;
1202.1000;0.4290;1.2285;
1202.4000;0.4282;1.2285;
1202.7000;0.4282;1.2261;
1203.0000;0.4274;1.2285;
1203.3000;0.4298;1.2238;
1203.6000;0.4298;1.2261;
1203.9000;0.4298;1.2355;
1204.2000;0.4290;1.2355;
1204.5000;0.4298;1.2355;
1204.8000;0.4298;1.2378;
1205.1000;0.4298;1.2378;
1205.4000;0.4298;1.2238;
1205.7000;0.4290;1.2168;
1206.0000;0.4298;1.2261;
1206.3000;0.4290;1.2308;
1206.6000;0.4290;1.2355;
1206.9000;0.4314;1.2401;
1207.2000;0.4306;1.2355;
1207.5000;0.4282;1.2331;
1207.8000;0.4290;1.2401;
1208.1000;0.4306;1.2471;
1208.4000;0.4306;1.2518;
1208.7000;0.4298;1.2518;
1209.0000;0.4290;1.2518;
1209.3000;0.4290;1.2611;
1209.6000;0.4290;1.2611;
1209.9000;0.4290;1.2588;
1210.2000;0.4306;1.2611;
1210.5000;0.4282;1.2471;
1210.8000;0.4249;1.2378;
1211.1000;0.4282;1.2401;
1211.4000;0.4298;1.2331;
1211.7000;0.4282;1.2285;
1212.0000;0.4298;1.2401;
1212.3000;0.4257;1.2355;
1212.6000;0.4298;1.2425;
1212.9000;0.4314;1.2448;
1213.2000;0.4363;1.2564;
1213.5000;0.4298;1.2378;
1213.8000;0.4290;1.2425;
1214.1000;0.4290;1.2425;
1214.4000;0.4257;1.2331;
1214.7000;0.4274;1.2471;
1215.0000;0.4298;1.2495;
1215.3000;0.4363;1.2658;
1215.6000;0.4314;1.2495;
1215.9000;0.4314;1.2495;
1216.2000;0.4347;1.2564;
1216.5000;0.4298;1.2471;
1216.8000;0.4298;1.2564;
1217.1000;0.4306;1.2518;
1217.4000;0.4233;1.2355;
1217.7000;0.4290;1.2518;
1218.0000;0.4298;1.2541;
1218.3000;0.4290;1.2495;
1218.6000;0.4282;1.2355;
1218.9000;0.4290;1.2331;
1219.2000;0.4274;1.2191;
1219.5000;0.4265;1.2145;
1219.8000;0.4314;1.2308;
1220.1000;0.4298;1.2378;
1220.4000;0.4265;1.2378;
1220.7000;0.4282;1.2355;
1221.0000;0.4290;1.2378;
1221.3000;0.4298;1.2355;
1221.6000;0.4314;1.2308;
1221.9000;0.4298;1.2261;
1222.2000;0.4306;1.2261;
1222.5000;0.4306;1.2261;
1222.8000;0.4282;1.2261;
1223.1000;0.4298;1.2285;
1223.4000;0.4290;1.2191;
1223.7000;0.4290;1.2215;
1224.0000;0.4290;1.2191;
1224.3000;0.4290;1.2191;
1224.6000;0.4290;1.2215;
1224.9000;0.4298;1.2238;
1225.2000;0.4290;1.2168;
1225.5000;0.4298;1.2145;
1225.8000;0.4306;1.2191;
1226.1000;0.4322;1.2401;
1226.4000;0.4290;1.2378;
1226.7000;0.4282;1.2355;
1227.0000;0.4249;1.2331;
1227.3000;0.4298;1.2378;
1227.6000;0.4290;1.2355;
1227.9000;0.4298;1.2378;
1228.2000;0.4274;1.2331;
1228.5000;0.4274;1.2308;
1228.8000;0.4265;1.2331;
1229.1000;0.4306;1.2331;
1229.4000;0.4298;1.2378;
1229.7000;0.4257;1.2355;
1230.0000;0.4290;1.2425;
1230.3000;0.4298;1.2401;
1230.6000;0.4265;1.2425;
1230.9000;0.4282;1.2401;
1231.2000;0.4314;1.2378;
1231.5000;0.4282;1.2261;
1231.8000;0.4330;1.2285;
1232.1000;0.4282;1.2285;
1232.4000;0.4306;1.2425;
1232.7000;0.4290;1.2425;
1233.0000;0.4282;1.2448;
1233.3000;0.4322;1.2495;
1233.6000;0.4274;1.2308;
1233.9000;0.4290;1.2401;
1234.2000;0.4355;1.2658;
1234.5000;0.4298;1.2471;
1234.8000;0.4265;1.2425;
1235.1000;0.4298;1.2518;
1235.4000;0.4314;1.2564;
1235.7000;0.4306;1.2564;
1236.0000;0.4282;1.2495;
1236.3000;0.4363;1.2658;
1236.6000;0.4274;1.2425;
1236.9000;0.4290;1.2401;
1237.2000;0.4371;1.2588;
1237.5000;0.4282;1.2495;
1237.8000;0.4322;1.2541;
1238.1000;0.4298;1.2495;
1238.4000;0.4290;1.2541;
1238.7000;0.4298;1.2518;
1239.0000;0.4298;1.2471;
1239.3000;0.4282;1.2425;
1239.6000;0.4322;1.2448;
1239.9000;0.4257;1.2238;
1240.2000;0.4282;1.2355;
1240.5000;0.4282;1.2448;
1240.8000;0.4282;1.2495;
1241.1000;0.4290;1.2518;
1241.4000;0.4290;1.2518;
1241.7000;0.4355;1.2588;
1242.0000;0.4298;1.2471;
1242.3000;0.4290;1.2448;
1242.6000;0.4314;1.2448;
1242.9000;0.4298;1.2448;
1243.2000;0.4290;1.2401;
1243.5000;0.4290;1.2378;
1243.8000;0.4290;1.2331;
1244.1000;0.4298;1.2238;
1244.4000;0.4290;1.2261;
1244.7000;0.4298;1.2238;
1245.0000;0.4282;1.2285;
1245.3000;0.4290;1.2215;
1245.6000;0.4282;1.2191;
1245.9000;0.4241;1.2122;
1246.2000;0.4282;1.2331;
1246.5000;0.4290;1.2425;
1246.8000;0.4290;1.2471;
1247.1000;0.4298;1.2448;
1247.4000;0.4298;1.2331;
1247.7000;0.4282;1.2191;
1248.0000;0.4339;1.2238;
1248.3000;0.4290;1.2168;
1248.6000;0.4298;1.2331;
1248.9000;0.4298;1.2331;
1249.2000;0.4274;1.2285;
1249.5000;0.4298;1.2261;
1249.8000;0.4298;1.2191;
1250.1000;0.4274;1.2168;
1250.4000;0.4290;1.2238;
1250.7000;0.4241;1.2098;
1251.0000;0.4298;1.2261;
1251.3000;0.4298;1.2168;
1251.6000;0.4298;1.2215;
1251.9000;0.4274;1.2191;
1252.2000;0.4290;1.2261;
1252.5000;0.4298;1.2331;
1252.8000;0.4298;1.2378;
1253.1000;0.4274;1.2285;
1253.4000;0.4290;1.2308;
1253.7000;0.4298;1.2238;
1254.0000;0.4290;1.2191;
1254.3000;0.4282;1.2285;
1254.6000;0.4274;1.2355;
1254.9000;0.4306;1.2518;
1255.2000;0.4282;1.2448;
1255.5000;0.4274;1.2331;
1255.8000;0.4290;1.2355;
1256.1000;0.4290;1.2355;
1256.4000;0.4290;1.2308;
1256.7000;0.4298;1.2425;
1257.0000;0.4298;1.2425;
1257.3000;0.4290;1.2401;
1257.6000;0.4282;1.2355;
1257.9000;0.4290;1.2308;
1258.2000;0.4298;1.2308;
1258.5000;0.4339;1.2355;
1258.8000;0.4290;1.2261;
1259.1000;0.4322;1.2355;
1259.4000;0.4298;1.2378;
1259.7000;0.4290;1.2355;
1260.0000;0.4306;1.2331;
1260.3000;0.4306;1.2331;
1260.6000;0.4322;1.2425;
1260.9000;0.4298;1.2425;
1261.2000;0.4306;1.2448;
1261.5000;0.4306;1.2495;
1261.8000;0.4298;1.2541;
1262.1000;0.4306;1.2611;
1262.4000;0.4290;1.2495;
1262.7000;0.4298;1.2541;
1263.0000;0.4298;1.2378;
1263.3000;0.4298;1.2425;
1263.6000;0.4233;1.2191;
1263.9000;0.4298;1.2401;
1264.2000;0.4265;1.2331;
1264.5000;0.4290;1.2401;
1264.8000;0.4339;1.2448;
1265.1000;0.4298;1.2331;
1265.4000;0.4404;1.2681;
1265.7000;0.4396;1.2634;
1266.0000;0.4290;1.2471;
1266.3000;0.4290;1.2448;
1266.6000;0.4306;1.2425;
1266.9000;0.4306;1.2355;
1267.2000;0.4306;1.2355;
1267.5000;0.4282;1.2308;
1267.8000;0.4290;1.2285;
1268.1000;0.4290;1.2308;
1268.4000;0.4298;1.2238;
1268.7000;0.4379;1.2425;
1269.0000;0.4298;1.2238;
1269.3000;0.4282;1.2168;
1269.6000;0.4322;1.2331;
1269.9000;0.4274;1.2285;
1270.2000;0.4274;1.2238;
1270.5000;0.4274;1.2215;
1270.8000;0.4282;1.2261;
1271.1000;0.4298;1.2308;
1271.4000;0.4290;1.2331;
1271.7000;0.4265;1.2238;
1272.0000;0.4339;1.2448;
1272.3000;0.4298;1.2331;
1272.6000;0.4298;1.2261;
1272.9000;0.4257;1.2168;
1273.2000;0.4257;1.2191;
1273.5000;0.4290;1.2261;
1273.8000;0.4290;1.2285;
1274.1000;0.4314;1.2378;
1274.4000;0.4274;1.2355;
1274.7000;0.4257;1.2285;
1275.0000;0.4306;1.2331;
1275.3000;0.4306;1.2331;
1275.6000;0.4274;1.2168;
1275.9000;0.4306;1.2355;
1276.2000;0.4282;1.2378;
1276.5000;0.4290;1.2215;
1276.8000;0.4290;1.2238;
1277.1000;0.4298;1.2331;
1277.4000;0.4282;1.2308;
1277.7000;0.4282;1.2308;
1278.0000;0.4274;1.2331;
1278.3000;0.4298;1.2331;
1278.6000;0.4298;1.2238;
1278.9000;0.4290;1.2191;
1279.2000;0.4290;1.2261;
1279.5000;0.4298;1.2331;
1279.8000;0.4274;1.2261;
1280.1000;0.4282;1.2378;
1280.4000;0.4217;1.2145;
1280.7000;0.4282;1.2261;
1281.0000;0.4290;1.2238;
1281.3000;0.4290;1.2168;
1281.6000;0.4298;1.2145;
1281.9000;0.4290;1.2098;
1282.2000;0.4249;1.2075;
1282.5000;0.4282;1.2261;
1282.8000;0.4274;1.2331;
1283.1000;0.4265;1.2261;
1283.4000;0.4298;1.2355;
1283.7000;0.4298;1.2308;
1284.0000;0.4274;1.2285;
1284.3000;0.4257;1.2308;
1284.6000;0.4322;1.2378;
1284.9000;0.4282;1.2238;
1285.2000;0.4225;1.2122;
1285.5000;0.4274;1.2355;
1285.8000;0.4282;1.2378;
1286.1000;0.4274;1.2378;
1286.4000;0.4322;1.2495;
1286.7000;0.4290;1.2378;
1287.0000;0.4298;1.2401;
1287.3000;0.4249;1.2261;
1287.6000;0.4241;1.2285;
1287.9000;0.4290;1.2355;
1288.2000;0.4265;1.2238;
1288.5000;0.4257;1.2145;
1288.8000;0.4314;1.2238;
1289.1000;0.4290;1.2191;
1289.4000;0.4290;1.2215;
1289.7000;0.4274;1.2215;
1290.0000;0.4274;1.2285;
1290.3000;0.4290;1.2308;
1290.6000;0.4290;1.2471;
1290.9000;0.4330;1.2495;
1291.2000;0.4282;1.2471;
1291.5000;0.4257;1.2471;
1291.8000;0.4274;1.2588;
1292.1000;0.4274;1.2564;
1292.4000;0.4265;1.2425;
1292.7000;0.4355;1.2588;
1293.0000;0.4314;1.2378;
1293.3000;0.4290;1.2355;
1293.6000;0.4314;1.2495;
1293.9000;0.4298;1.2448;
1294.2000;0.4298;1.2495;
1294.5000;0.4330;1.2634;
1294.8000;0.4290;1.2564;
1295.1000;0.4265;1.2471;
1295.4000;0.4290;1.2564;
1295.7000;0.4298;1.2564;
1296.0000;0.4274;1.2518;
1296.3000;0.4290;1.2495;
1296.6000;0.4298;1.2495;
1296.9000;0.4290;1.2448;
1297.2000;0.4200;1.2308;
1297.5000;0.4290;1.2448;
1297.8000;0.4290;1.2471;
1298.1000;0.4339;1.2541;
1298.4000;0.4290;1.2448;
1298.7000;0.4274;1.2401;
1299.0000;0.4290;1.2495;
1299.3000;0.4298;1.2471;
1299.6000;0.4306;1.2541;
1299.9000;0.4290;1.2495;
1300.2000;0.4282;1.2541;
1300.5000;0.4282;1.2495;
1300.8000;0.4265;1.2448;
1301.1000;0.4290;1.2471;
1301.4000;0.4298;1.2425;
1301.7000;0.4290;1.2401;
1302.0000;0.4298;1.2355;
1302.3000;0.4274;1.2378;
1302.6000;0.4314;1.2471;
1302.9000;0.4306;1.2448;
1303.2000;0.4314;1.2495;
1303.5000;0.4282;1.2401;
1303.8000;0.4298;1.2378;
1304.1000;0.4290;1.2378;
1304.4000;0.4290;1.2261;
1304.7000;0.4290;1.2238;
1305.0000;0.4274;1.2191;
1305.3000;0.4274;1.2145;
1305.6000;0.4298;1.2145;
1305.9000;0.4290;1.2098;
1306.2000;0.4249;1.2028;
1306.5000;0.4379;1.2355;
1306.8000;0.4282;1.2191;
1307.1000;0.4249;1.2052;
1307.4000;0.4257;1.2028;
1307.7000;0.4282;1.2145;
1308.0000;0.4363;1.2331;
1308.3000;0.4306;1.2261;
1308.6000;0.4233;1.2028;
1308.9000;0.4282;1.2098;
1309.2000;0.4257;1.2005;
1309.5000;0.4306;1.2122;
1309.8000;0.4274;1.2028;
1310.1000;0.4298;1.1982;
1310.4000;0.4298;1.1982;
1310.7000;0.4298;1.2098;
1311.0000;0.4290;1.2122;
1311.3000;0.4241;1.2168;
1311.6000;0.4282;1.2215;
1311.9000;0.4290;1.2191;
1312.2000;0.4282;1.2168;
1312.5000;0.4298;1.2168;
1312.8000;0.4274;1.2191;
1313.1000;0.4282;1.2215;
1313.4000;0.4249;1.2238;
1313.7000;0.4217;1.2261;
1314.0000;0.4265;1.2331;
1314.3000;0.4274;1.2331;
1314.6000;0.4282;1.2331;
1314.9000;0.4282;1.2355;
1315.2000;0.4330;1.2471;
1315.5000;0.4282;1.2401;
1315.8000;0.4371;1.2588;
1316.1000;0.4265;1.2285;
1316.4000;0.4282;1.2331;
1316.7000;0.4265;1.2285;
1317.0000;0.4298;1.2355;
1317.3000;0.4290;1.2355;
1317.6000;0.4282;1.2378;
1317.9000;0.4282;1.2425;
1318.2000;0.4290;1.2448;
1318.5000;0.4306;1.2495;
1318.8000;0.4298;1.2611;
1319.1000;0.4298;1.2564;
1319.4000;0.4274;1.2471;
1319.7000;0.4282;1.2471;
1320.0000;0.4298;1.2471;
1320.3000;0.4274;1.2471;
1320.6000;0.4290;1.2541;
1320.9000;0.4363;1.2728;
1321.2000;0.4200;1.2308;
1321.5000;0.4290;1.2518;
1321.8000;0.4290;1.2611;
1322.1000;0.4322;1.2658;
1322.4000;0.4298;1.2611;
1322.7000;0.4290;1.2611;
1323.0000;0.4290;1.2541;
1323.3000;0.4233;1.2471;
1323.6000;0.4265;1.2681;
1323.9000;0.4282;1.2728;
1324.2000;0.4290;1.2681;
1324.5000;0.4274;1.2588;
1324.8000;0.4257;1.2588;
1325.1000;0.4298;1.2681;
1325.4000;0.4298;1.2658;
1325.7000;0.4298;1.2588;
1326.0000;0.4298;1.2611;
1326.3000;0.4290;1.2611;
1326.6000;0.4265;1.2611;
1326.9000;0.4282;1.2588;
1327.2000;0.4306;1.2634;
1327.5000;0.4290;1.2425;
1327.8000;0.4274;1.2331;
1328.1000;0.4265;1.2285;
1328.4000;0.4298;1.2401;
1328.7000;0.4282;1.2308;
1329.0000;0.4265;1.2168;
1329.3000;0.4265;1.2145;
1329.6000;0.4322;1.2378;
1329.9000;0.4282;1.2285;
1330.2000;0.4298;1.2401;
1330.5000;0.4249;1.2355;
1330.8000;0.4290;1.2378;
1331.1000;0.4274;1.2308;
1331.4000;0.4306;1.2308;
1331.7000;0.4274;1.2191;
1332.0000;0.4265;1.2331;
1332.3000;0.4290;1.2518;
1332.6000;0.4314;1.2518;
1332.9000;0.4282;1.2448;
1333.2000;0.4290;1.2425;
1333.5000;0.4274;1.2425;
1333.8000;0.4306;1.2495;
1334.1000;0.4306;1.2448;
1334.4000;0.4322;1.2564;
1334.7000;0.4298;1.2564;
1335.0000;0.4306;1.2634;
1335.3000;0.4298;1.2588;
1335.6000;0.4290;1.2658;
1335.9000;0.4290;1.2611;
1336.2000;0.4298;1.2588;
1336.5000;0.4298;1.2518;
1336.8000;0.4306;1.2495;
1337.1000;0.4290;1.2588;
1337.4000;0.4298;1.2564;
1337.7000;0.4290;1.2541;
1338.0000;0.4306;1.2541;
1338.3000;0.4274;1.2518;
1338.6000;0.4274;1.2518;
1338.9000;0.4322;1.2564;
1339.2000;0.4290;1.2518;
1339.5000;0.4282;1.2564;
1339.8000;0.4298;1.2564;
1340.1000;0.4298;1.2728;
1340.4000;0.4298;1.2658;
1340.7000;0.4274;1.2564;
1341.0000;0.4274;1.2564;
1341.3000;0.4290;1.2588;
1341.6000;0.4290;1.2541;
1341.9000;0.4306;1.2518;
1342.2000;0.4290;1.2471;
1342.5000;0.4249;1.2285;
1342.8000;0.4274;1.2285;
1343.1000;0.4282;1.2355;
1343.4000;0.4298;1.2378;
1343.7000;0.4290;1.2308;
1344.0000;0.4347;1.2495;
1344.3000;0.4290;1.2378;
1344.6000;0.4274;1.2355;
1344.9000;0.4290;1.2401;
1345.2000;0.4322;1.2588;
1345.5000;0.4298;1.2541;
1345.8000;0.4290;1.2448;
1346.1000;0.4298;1.2471;
1346.4000;0.4306;1.2471;
1346.7000;0.4314;1.2541;
1347.0000;0.4282;1.2541;
1347.3000;0.4265;1.2658;
1347.6000;0.4306;1.2681;
1347.9000;0.4298;1.2681;
1348.2000;0.4282;1.2704;
1348.5000;0.4257;1.2681;
1348.8000;0.4274;1.2774;
1349.1000;0.4298;1.2728;
1349.4000;0.4257;1.2658;
1349.7000;0.4265;1.2658;
1350.0000;0.4298;1.2704;
1350.3000;0.4322;1.2751;
1350.6000;0.4274;1.2704;
1350.9000;0.4298;1.2681;
1351.2000;0.4282;1.2588;
1351.5000;0.4265;1.2495;
1351.8000;0.4274;1.2471;
1352.1000;0.4274;1.2471;
1352.4000;0.4290;1.2588;
1352.7000;0.4282;1.2518;
1353.0000;0.4265;1.2471;
1353.3000;0.4274;1.2541;
1353.6000;0.4290;1.2611;
1353.9000;0.4257;1.2495;
1354.2000;0.4298;1.2518;
1354.5000;0.4298;1.2495;
1354.8000;0.4282;1.2541;
1355.1000;0.4298;1.2471;
1355.4000;0.4290;1.2518;
1355.7000;0.4184;1.2238;
1356.0000;0.4282;1.2681;
1356.3000;0.4347;1.2821;
1356.6000;0.4363;1.2821;
1356.9000;0.4290;1.2634;
1357.2000;0.4265;1.2564;
1357.5000;0.4257;1.2541;
1357.8000;0.4290;1.2588;
1358.1000;0.4298;1.2564;
1358.4000;0.4282;1.2518;
1358.7000;0.4274;1.2564;
1359.0000;0.4274;1.2611;
1359.3000;0.4290;1.2658;
1359.6000;0.4298;1.2681;
1359.9000;0.4306;1.2611;
1360.2000;0.4290;1.2564;
1360.5000;0.4290;1.2564;
1360.8000;0.4290;1.2611;
1361.1000;0.4306;1.2588;
1361.4000;0.4274;1.2564;
1361.7000;0.4314;1.2728;
1362.0000;0.4314;1.2634;
1362.3000;0.4298;1.2541;
1362.6000;0.4298;1.2471;
1362.9000;0.4257;1.2448;
1363.2000;0.4282;1.2518;
1363.5000;0.4355;1.2728;
1363.8000;0.4314;1.2611;
1364.1000;0.4282;1.2471;
1364.4000;0.4290;1.2495;
1364.7000;0.4290;1.2564;
1365.0000;0.4298;1.2495;
1365.3000;0.4290;1.2634;
1365.6000;0.4225;1.2378;
1365.9000;0.4282;1.2448;
1366.2000;0.4290;1.2448;
1366.5000;0.4282;1.2401;
1366.8000;0.4298;1.2378;
1367.1000;0.4265;1.2378;
1367.4000;0.4298;1.2401;
1367.7000;0.4282;1.2285;
1368.0000;0.4290;1.2331;
1368.3000;0.4282;1.2331;
1368.6000;0.4290;1.2401;
1368.9000;0.4290;1.2378;
1369.2000;0.4282;1.2378;
1369.5000;0.4282;1.2378;
1369.8000;0.4265;1.2261;
1370.1000;0.4282;1.2285;
1370.4000;0.4274;1.2285;
1370.7000;0.4282;1.2378;
1371.0000;0.4306;1.2401;
1371.3000;0.4298;1.2448;
1371.6000;0.4290;1.2518;
1371.9000;0.4290;1.2541;
1372.2000;0.4274;1.2588;
1372.5000;0.4184;1.2331;
1372.8000;0.4274;1.2518;
1373.1000;0.4282;1.2471;
1373.4000;0.4282;1.2518;
1373.7000;0.4257;1.2448;
1374.0000;0.4274;1.2355;
1374.3000;0.4257;1.2285;
1374.6000;0.4314;1.2471;
1374.9000;0.4290;1.2495;
1375.2000;0.4306;1.2541;
1375.5000;0.4265;1.2471;
1375.8000;0.4298;1.2634;
1376.1000;0.4298;1.2658;
1376.4000;0.4274;1.2588;
1376.7000;0.4306;1.2634;
1377.0000;0.4274;1.2518;
1377.3000;0.4306;1.2518;
1377.6000;0.4322;1.2471;
1377.9000;0.4298;1.2355;
1378.2000;0.4282;1.2401;
1378.5000;0.4298;1.2471;
1378.8000;0.4306;1.2471;
1379.1000;0.4290;1.2564;
1379.4000;0.4290;1.2541;
1379.7000;0.4298;1.2541;
1380.0000;0.4306;1.2588;
1380.3000;0.4265;1.2518;
1380.6000;0.4249;1.2471;
1380.9000;0.4290;1.2541;
1381.2000;0.4298;1.2495;
1381.5000;0.4265;1.2355;
1381.8000;0.4290;1.2471;
1382.1000;0.4298;1.2471;
1382.4000;0.4379;1.2658;
1382.7000;0.4298;1.2425;
1383.0000;0.4274;1.2401;
1383.3000;0.4274;1.2448;
1383.6000;0.4290;1.2471;
1383.9000;0.4298;1.2448;
1384.2000;0.4265;1.2355;
1384.5000;0.4274;1.2355;
1384.8000;0.4257;1.2308;
1385.1000;0.4298;1.2471;
1385.4000;0.4274;1.2425;
1385.7000;0.4298;1.2495;
1386.0000;0.4290;1.2448;
1386.3000;0.4282;1.2425;
1386.6000;0.4298;1.2448;
1386.9000;0.4282;1.2401;
1387.2000;0.4298;1.2471;
1387.5000;0.4274;1.2378;
1387.8000;0.4314;1.2425;
1388.1000;0.4290;1.2378;
1388.4000;0.4298;1.2401;
1388.7000;0.4306;1.2471;
1389.0000;0.4290;1.2425;
1389.3000;0.4290;1.2378;
1389.6000;0.4257;1.2285;
1389.9000;0.4290;1.2285;
1390.2000;0.4274;1.2238;
1390.5000;0.4282;1.2215;
1390.8000;0.4290;1.2215;
1391.1000;0.4274;1.2238;
1391.4000;0.4265;1.2238;
1391.7000;0.4274;1.2215;
1392.0000;0.4290;1.2261;
1392.3000;0.4298;1.2331;
1392.6000;0.4298;1.2401;
1392.9000;0.4298;1.2355;
1393.2000;0.4265;1.2191;
1393.5000;0.4306;1.2191;
1393.8000;0.4290;1.2075;
1394.1000;0.4282;1.2145;
1394.4000;0.4274;1.2238;
1394.7000;0.4282;1.2191;
1395.0000;0.4282;1.2238;
1395.3000;0.4290;1.2191;
1395.6000;0.4298;1.2238;
1395.9000;0.4257;1.2261;
1396.2000;0.4282;1.2378;
1396.5000;0.4282;1.2378;
1396.8000;0.4274;1.2331;
1397.1000;0.4274;1.2261;
1397.4000;0.4265;1.2215;
1397.7000;0.4322;1.2401;
1398.0000;0.4290;1.2378;
1398.3000;0.4290;1.2378;
1398.6000;0.4282;1.2378;
1398.9000;0.4290;1.2471;
1399.2000;0.4298;1.2448;
1399.5000;0.4274;1.2401;
1399.8000;0.4339;1.2564;
