time/ms;Fluo/V;P700 deltaI/I x10³;
-199.8000;0.4542;1.0933;
-199.5000;0.4510;1.0746;
-199.2000;0.4534;1.0793;
-198.9000;0.4567;1.0746;
-198.6000;0.4558;1.0700;
-198.3000;0.4567;1.0793;
-198.0000;0.4542;1.0816;
-197.7000;0.4567;1.0979;
-197.4000;0.4583;1.1003;
-197.1000;0.4558;1.0886;
-196.8000;0.4542;1.0700;
-196.5000;0.4550;1.0676;
-196.2000;0.4558;1.0723;
-195.9000;0.4542;1.0746;
-195.6000;0.4542;1.0816;
-195.3000;0.4558;1.0770;
-195.0000;0.4558;1.0816;
-194.7000;0.4510;1.0700;
-194.4000;0.4567;1.0863;
-194.1000;0.4550;1.0770;
-193.8000;0.4518;1.0746;
-193.5000;0.4550;1.0863;
-193.2000;0.4558;1.0909;
-192.9000;0.4550;1.1003;
-192.6000;0.4567;1.1049;
-192.3000;0.4591;1.0979;
-192.0000;0.4558;1.0863;
-191.7000;0.4567;1.0909;
-191.4000;0.4534;1.0793;
-191.1000;0.4567;1.0839;
-190.8000;0.4575;1.0909;
-190.5000;0.4550;1.0816;
-190.2000;0.4526;1.0746;
-189.9000;0.4575;1.0839;
-189.6000;0.4558;1.0816;
-189.3000;0.4558;1.0839;
-189.0000;0.4558;1.0979;
-188.7000;0.4583;1.0956;
-188.4000;0.4591;1.0956;
-188.1000;0.4558;1.0956;
-187.8000;0.4591;1.0956;
-187.5000;0.4567;1.0979;
-187.2000;0.4558;1.1003;
-186.9000;0.4640;1.1236;
-186.6000;0.4550;1.1003;
-186.3000;0.4583;1.1096;
-186.0000;0.4624;1.1212;
-185.7000;0.4550;1.1026;
-185.4000;0.4518;1.0933;
-185.1000;0.4575;1.1073;
-184.8000;0.4558;1.1073;
-184.5000;0.4518;1.0956;
-184.2000;0.4526;1.0956;
-183.9000;0.4607;1.1073;
-183.6000;0.4567;1.0956;
-183.3000;0.4640;1.1259;
-183.0000;0.4624;1.1142;
-182.7000;0.4591;1.1026;
-182.4000;0.4558;1.0886;
-182.1000;0.4575;1.0839;
-181.8000;0.4542;1.0653;
-181.5000;0.4558;1.0630;
-181.2000;0.4640;1.0816;
-180.9000;0.4526;1.0420;
-180.6000;0.4583;1.0653;
-180.3000;0.4583;1.0630;
-180.0000;0.4567;1.0700;
-179.7000;0.4526;1.0630;
-179.4000;0.4583;1.0700;
-179.1000;0.4558;1.0606;
-178.8000;0.4591;1.0770;
-178.5000;0.4567;1.0676;
-178.2000;0.4558;1.0630;
-177.9000;0.4567;1.0676;
-177.6000;0.4583;1.0700;
-177.3000;0.4542;1.0723;
-177.0000;0.4558;1.0676;
-176.7000;0.4518;1.0536;
-176.4000;0.4599;1.0700;
-176.1000;0.4575;1.0723;
-175.8000;0.4558;1.0816;
-175.5000;0.4550;1.0746;
-175.2000;0.4583;1.0839;
-174.9000;0.4583;1.0863;
-174.6000;0.4575;1.0816;
-174.3000;0.4526;1.0700;
-174.0000;0.4542;1.0793;
-173.7000;0.4558;1.0816;
-173.4000;0.4542;1.0816;
-173.1000;0.4542;1.0723;
-172.8000;0.4534;1.0653;
-172.5000;0.4558;1.0839;
-172.2000;0.4583;1.0933;
-171.9000;0.4583;1.0839;
-171.6000;0.4542;1.0746;
-171.3000;0.4534;1.0700;
-171.0000;0.4534;1.0723;
-170.7000;0.4510;1.0700;
-170.4000;0.4583;1.0816;
-170.1000;0.4550;1.0700;
-169.8000;0.4558;1.0746;
-169.5000;0.4550;1.0676;
-169.2000;0.4510;1.0630;
-168.9000;0.4567;1.0816;
-168.6000;0.4558;1.0863;
-168.3000;0.4575;1.0933;
-168.0000;0.4567;1.0933;
-167.7000;0.4575;1.1026;
-167.4000;0.4550;1.1003;
-167.1000;0.4542;1.0933;
-166.8000;0.4534;1.0956;
-166.5000;0.4550;1.0956;
-166.2000;0.4567;1.0956;
-165.9000;0.4534;1.0886;
-165.6000;0.4550;1.1003;
-165.3000;0.4567;1.1073;
-165.0000;0.4558;1.1073;
-164.7000;0.4526;1.0933;
-164.4000;0.4575;1.1073;
-164.1000;0.4599;1.1096;
-163.8000;0.4591;1.1096;
-163.5000;0.4648;1.1329;
-163.2000;0.4583;1.1212;
-162.9000;0.4558;1.1166;
-162.6000;0.4558;1.1073;
-162.3000;0.4575;1.1049;
-162.0000;0.4558;1.1073;
-161.7000;0.4485;1.0909;
-161.4000;0.4632;1.1282;
-161.1000;0.4607;1.1189;
-160.8000;0.4575;1.1096;
-160.5000;0.4550;1.0979;
-160.2000;0.4501;1.0770;
-159.9000;0.4550;1.0956;
-159.6000;0.4575;1.0956;
-159.3000;0.4534;1.0886;
-159.0000;0.4583;1.0886;
-158.7000;0.4550;1.0793;
-158.4000;0.4575;1.0816;
-158.1000;0.4575;1.0909;
-157.8000;0.4697;1.1189;
-157.5000;0.4607;1.0956;
-157.2000;0.4567;1.0956;
-156.9000;0.4534;1.0816;
-156.6000;0.4542;1.0793;
-156.3000;0.4607;1.0839;
-156.0000;0.4558;1.0700;
-155.7000;0.4558;1.0653;
-155.4000;0.4567;1.0630;
-155.1000;0.4558;1.0653;
-154.8000;0.4558;1.0770;
-154.5000;0.4583;1.0839;
-154.2000;0.4558;1.0816;
-153.9000;0.4550;1.0816;
-153.6000;0.4550;1.0793;
-153.3000;0.4575;1.0839;
-153.0000;0.4575;1.0816;
-152.7000;0.4599;1.0839;
-152.4000;0.4567;1.0793;
-152.1000;0.4567;1.0839;
-151.8000;0.4550;1.0839;
-151.5000;0.4591;1.0933;
-151.2000;0.4558;1.0886;
-150.9000;0.4575;1.0886;
-150.6000;0.4599;1.0956;
-150.3000;0.4558;1.0793;
-150.0000;0.4567;1.0909;
-149.7000;0.4510;1.0770;
-149.4000;0.4558;1.0839;
-149.1000;0.4558;1.0863;
-148.8000;0.4558;1.0956;
-148.5000;0.4526;1.0839;
-148.2000;0.4558;1.0933;
-147.9000;0.4567;1.0863;
-147.6000;0.4510;1.0723;
-147.3000;0.4558;1.0746;
-147.0000;0.4550;1.0770;
-146.7000;0.4518;1.0816;
-146.4000;0.4575;1.0933;
-146.1000;0.4550;1.0909;
-145.8000;0.4550;1.0909;
-145.5000;0.4575;1.0956;
-145.2000;0.4558;1.0909;
-144.9000;0.4558;1.0816;
-144.6000;0.4567;1.0793;
-144.3000;0.4567;1.0816;
-144.0000;0.4567;1.0886;
-143.7000;0.4575;1.0863;
-143.4000;0.4558;1.0839;
-143.1000;0.4607;1.1003;
-142.8000;0.4510;1.0700;
-142.5000;0.4591;1.0909;
-142.2000;0.4558;1.0770;
-141.9000;0.4558;1.0770;
-141.6000;0.4567;1.0793;
-141.3000;0.4575;1.0886;
-141.0000;0.4542;1.0770;
-140.7000;0.4550;1.0746;
-140.4000;0.4558;1.0723;
-140.1000;0.4558;1.0700;
-139.8000;0.4558;1.0653;
-139.5000;0.4558;1.0606;
-139.2000;0.4493;1.0397;
-138.9000;0.4558;1.0606;
-138.6000;0.4526;1.0443;
-138.3000;0.4567;1.0630;
-138.0000;0.4558;1.0606;
-137.7000;0.4542;1.0466;
-137.4000;0.4542;1.0420;
-137.1000;0.4558;1.0397;
-136.8000;0.4558;1.0420;
-136.5000;0.4550;1.0420;
-136.2000;0.4550;1.0490;
-135.9000;0.4534;1.0443;
-135.6000;0.4567;1.0560;
-135.3000;0.4567;1.0630;
-135.0000;0.4558;1.0700;
-134.7000;0.4558;1.0676;
-134.4000;0.4567;1.0723;
-134.1000;0.4534;1.0700;
-133.8000;0.4575;1.0839;
-133.5000;0.4615;1.0956;
-133.2000;0.4567;1.0886;
-132.9000;0.4550;1.0839;
-132.6000;0.4591;1.0816;
-132.3000;0.4493;1.0536;
-132.0000;0.4550;1.0676;
-131.7000;0.4575;1.0746;
-131.4000;0.4550;1.0630;
-131.1000;0.4567;1.0583;
-130.8000;0.4558;1.0536;
-130.5000;0.4542;1.0583;
-130.2000;0.4558;1.0676;
-129.9000;0.4583;1.0746;
-129.6000;0.4599;1.0793;
-129.3000;0.4599;1.0746;
-129.0000;0.4558;1.0630;
-128.7000;0.4583;1.0676;
-128.4000;0.4567;1.0653;
-128.1000;0.4558;1.0606;
-127.8000;0.4567;1.0630;
-127.5000;0.4567;1.0653;
-127.2000;0.4550;1.0653;
-126.9000;0.4534;1.0630;
-126.6000;0.4550;1.0583;
-126.3000;0.4567;1.0583;
-126.0000;0.4558;1.0560;
-125.7000;0.4558;1.0560;
-125.4000;0.4550;1.0420;
-125.1000;0.4567;1.0350;
-124.8000;0.4558;1.0350;
-124.5000;0.4567;1.0466;
-124.2000;0.4583;1.0443;
-123.9000;0.4607;1.0583;
-123.6000;0.4558;1.0490;
-123.3000;0.4624;1.0630;
-123.0000;0.4567;1.0606;
-122.7000;0.4550;1.0630;
-122.4000;0.4567;1.0583;
-122.1000;0.4656;1.0746;
-121.8000;0.4567;1.0490;
-121.5000;0.4567;1.0466;
-121.2000;0.4575;1.0560;
-120.9000;0.4607;1.0700;
-120.6000;0.4558;1.0676;
-120.3000;0.4575;1.0676;
-120.0000;0.4567;1.0723;
-119.7000;0.4558;1.0700;
-119.4000;0.4550;1.0630;
-119.1000;0.4534;1.0443;
-118.8000;0.4599;1.0490;
-118.5000;0.4550;1.0397;
-118.2000;0.4575;1.0490;
-117.9000;0.4567;1.0583;
-117.6000;0.4567;1.0560;
-117.3000;0.4567;1.0630;
-117.0000;0.4583;1.0676;
-116.7000;0.4558;1.0583;
-116.4000;0.4558;1.0466;
-116.1000;0.4542;1.0420;
-115.8000;0.4558;1.0536;
-115.5000;0.4624;1.0770;
-115.2000;0.4558;1.0653;
-114.9000;0.4469;1.0490;
-114.6000;0.4624;1.0770;
-114.3000;0.4575;1.0630;
-114.0000;0.4575;1.0630;
-113.7000;0.4542;1.0676;
-113.4000;0.4534;1.0676;
-113.1000;0.4493;1.0536;
-112.8000;0.4518;1.0630;
-112.5000;0.4558;1.0676;
-112.2000;0.4575;1.0653;
-111.9000;0.4550;1.0676;
-111.6000;0.4558;1.0723;
-111.3000;0.4542;1.0676;
-111.0000;0.4534;1.0653;
-110.7000;0.4575;1.0676;
-110.4000;0.4567;1.0653;
-110.1000;0.4542;1.0653;
-109.8000;0.4567;1.0723;
-109.5000;0.4534;1.0723;
-109.2000;0.4550;1.0770;
-108.9000;0.4550;1.0746;
-108.6000;0.4558;1.0770;
-108.3000;0.4599;1.0839;
-108.0000;0.4526;1.0583;
-107.7000;0.4550;1.0606;
-107.4000;0.4550;1.0630;
-107.1000;0.4542;1.0490;
-106.8000;0.4550;1.0466;
-106.5000;0.4558;1.0420;
-106.2000;0.4558;1.0420;
-105.9000;0.4534;1.0350;
-105.6000;0.4550;1.0397;
-105.3000;0.4607;1.0676;
-105.0000;0.4583;1.0653;
-104.7000;0.4558;1.0653;
-104.4000;0.4558;1.0700;
-104.1000;0.4567;1.0700;
-103.8000;0.4567;1.0630;
-103.5000;0.4526;1.0583;
-103.2000;0.4558;1.0676;
-102.9000;0.4534;1.0536;
-102.6000;0.4526;1.0490;
-102.3000;0.4550;1.0466;
-102.0000;0.4550;1.0466;
-101.7000;0.4550;1.0466;
-101.4000;0.4526;1.0466;
-101.1000;0.4575;1.0630;
-100.8000;0.4550;1.0630;
-100.5000;0.4567;1.0630;
-100.2000;0.4591;1.0676;
-99.9000;0.4575;1.0606;
-99.6000;0.4599;1.0653;
-99.3000;0.4583;1.0630;
-99.0000;0.4526;1.0583;
-98.7000;0.4567;1.0676;
-98.4000;0.4526;1.0583;
-98.1000;0.4567;1.0653;
-97.8000;0.4542;1.0513;
-97.5000;0.4526;1.0490;
-97.2000;0.4558;1.0560;
-96.9000;0.4567;1.0560;
-96.6000;0.4518;1.0327;
-96.3000;0.4558;1.0397;
-96.0000;0.4615;1.0466;
-95.7000;0.4583;1.0350;
-95.4000;0.4558;1.0327;
-95.1000;0.4567;1.0420;
-94.8000;0.4542;1.0466;
-94.5000;0.4558;1.0466;
-94.2000;0.4558;1.0490;
-93.9000;0.4550;1.0490;
-93.6000;0.4534;1.0443;
-93.3000;0.4558;1.0583;
-93.0000;0.4558;1.0676;
-92.7000;0.4534;1.0630;
-92.4000;0.4510;1.0606;
-92.1000;0.4558;1.0793;
-91.8000;0.4558;1.0770;
-91.5000;0.4558;1.0770;
-91.2000;0.4558;1.0770;
-90.9000;0.4558;1.0770;
-90.6000;0.4477;1.0583;
-90.3000;0.4567;1.0886;
-90.0000;0.4567;1.0956;
-89.7000;0.4558;1.0886;
-89.4000;0.4558;1.0886;
-89.1000;0.4558;1.0886;
-88.8000;0.4575;1.0933;
-88.5000;0.4567;1.0863;
-88.2000;0.4558;1.0816;
-87.9000;0.4567;1.0839;
-87.6000;0.4558;1.0863;
-87.3000;0.4558;1.0839;
-87.0000;0.4542;1.0839;
-86.7000;0.4599;1.1003;
-86.4000;0.4567;1.0933;
-86.1000;0.4567;1.0839;
-85.8000;0.4558;1.0909;
-85.5000;0.4542;1.0863;
-85.2000;0.4567;1.0909;
-84.9000;0.4542;1.0816;
-84.6000;0.4558;1.0816;
-84.3000;0.4550;1.0839;
-84.0000;0.4575;1.0909;
-83.7000;0.4575;1.0863;
-83.4000;0.4567;1.0816;
-83.1000;0.4558;1.0793;
-82.8000;0.4567;1.0723;
-82.5000;0.4591;1.0770;
-82.2000;0.4501;1.0630;
-81.9000;0.4550;1.0770;
-81.6000;0.4575;1.0653;
-81.3000;0.4534;1.0560;
-81.0000;0.4526;1.0606;
-80.7000;0.4558;1.0723;
-80.4000;0.4550;1.0816;
-80.1000;0.4615;1.0909;
-79.8000;0.4534;1.0630;
-79.5000;0.4550;1.0816;
-79.2000;0.4607;1.0816;
-78.9000;0.4575;1.0700;
-78.6000;0.4567;1.0676;
-78.3000;0.4567;1.0723;
-78.0000;0.4575;1.0723;
-77.7000;0.4567;1.0583;
-77.4000;0.4558;1.0560;
-77.1000;0.4567;1.0606;
-76.8000;0.4591;1.0700;
-76.5000;0.4567;1.0606;
-76.2000;0.4591;1.0630;
-75.9000;0.4550;1.0676;
-75.6000;0.4583;1.0746;
-75.3000;0.4567;1.0770;
-75.0000;0.4558;1.0863;
-74.7000;0.4567;1.0886;
-74.4000;0.4558;1.0863;
-74.1000;0.4558;1.0839;
-73.8000;0.4550;1.0816;
-73.5000;0.4583;1.0909;
-73.2000;0.4534;1.0863;
-72.9000;0.4550;1.0909;
-72.6000;0.4526;1.0909;
-72.3000;0.4542;1.0956;
-72.0000;0.4550;1.0933;
-71.7000;0.4526;1.0793;
-71.4000;0.4583;1.0816;
-71.1000;0.4542;1.0653;
-70.8000;0.4558;1.0630;
-70.5000;0.4550;1.0536;
-70.2000;0.4567;1.0536;
-69.9000;0.4656;1.0770;
-69.6000;0.4534;1.0560;
-69.3000;0.4558;1.0653;
-69.0000;0.4567;1.0723;
-68.7000;0.4583;1.0723;
-68.4000;0.4510;1.0560;
-68.1000;0.4558;1.0676;
-67.8000;0.4558;1.0676;
-67.5000;0.4558;1.0606;
-67.2000;0.4542;1.0513;
-66.9000;0.4567;1.0606;
-66.6000;0.4501;1.0536;
-66.3000;0.4583;1.0723;
-66.0000;0.4558;1.0723;
-65.7000;0.4575;1.0816;
-65.4000;0.4575;1.0886;
-65.1000;0.4542;1.0839;
-64.8000;0.4575;1.0909;
-64.5000;0.4558;1.0793;
-64.2000;0.4567;1.0816;
-63.9000;0.4534;1.0700;
-63.6000;0.4558;1.0793;
-63.3000;0.4534;1.0770;
-63.0000;0.4550;1.0770;
-62.7000;0.4550;1.0723;
-62.4000;0.4567;1.0746;
-62.1000;0.4583;1.0816;
-61.8000;0.4558;1.0770;
-61.5000;0.4534;1.0560;
-61.2000;0.4558;1.0676;
-60.9000;0.4567;1.0676;
-60.6000;0.4567;1.0676;
-60.3000;0.4664;1.0909;
-60.0000;0.4558;1.0606;
-59.7000;0.4575;1.0560;
-59.4000;0.4567;1.0490;
-59.1000;0.4550;1.0606;
-58.8000;0.4542;1.0536;
-58.5000;0.4501;1.0373;
-58.2000;0.4583;1.0560;
-57.9000;0.4550;1.0536;
-57.6000;0.4542;1.0630;
-57.3000;0.4558;1.0700;
-57.0000;0.4558;1.0606;
-56.7000;0.4542;1.0583;
-56.4000;0.4550;1.0606;
-56.1000;0.4558;1.0630;
-55.8000;0.4558;1.0653;
-55.5000;0.4558;1.0676;
-55.2000;0.4575;1.0676;
-54.9000;0.4567;1.0606;
-54.6000;0.4550;1.0583;
-54.3000;0.4632;1.0723;
-54.0000;0.4550;1.0606;
-53.7000;0.4510;1.0513;
-53.4000;0.4583;1.0560;
-53.1000;0.4567;1.0536;
-52.8000;0.4558;1.0560;
-52.5000;0.4558;1.0606;
-52.2000;0.4550;1.0630;
-51.9000;0.4558;1.0723;
-51.6000;0.4550;1.0676;
-51.3000;0.4567;1.0653;
-51.0000;0.4558;1.0770;
-50.7000;0.4550;1.0839;
-50.4000;0.4558;1.0746;
-50.1000;0.4575;1.0770;
-49.8000;0.4526;1.0723;
-49.5000;0.4542;1.0746;
-49.2000;0.4558;1.0839;
-48.9000;0.4534;1.0770;
-48.6000;0.4567;1.0839;
-48.3000;0.4558;1.0770;
-48.0000;0.4542;1.0816;
-47.7000;0.4558;1.0839;
-47.4000;0.4591;1.0933;
-47.1000;0.4575;1.0933;
-46.8000;0.4567;1.0933;
-46.5000;0.4550;1.0979;
-46.2000;0.4550;1.1096;
-45.9000;0.4583;1.1166;
-45.6000;0.4534;1.1026;
-45.3000;0.4575;1.1119;
-45.0000;0.4567;1.1119;
-44.7000;0.4558;1.0956;
-44.4000;0.4542;1.0979;
-44.1000;0.4567;1.1026;
-43.8000;0.4558;1.0839;
-43.5000;0.4558;1.0746;
-43.2000;0.4558;1.0630;
-42.9000;0.4575;1.0653;
-42.6000;0.4567;1.0583;
-42.3000;0.4558;1.0583;
-42.0000;0.4558;1.0583;
-41.7000;0.4567;1.0630;
-41.4000;0.4558;1.0536;
-41.1000;0.4542;1.0513;
-40.8000;0.4550;1.0536;
-40.5000;0.4526;1.0443;
-40.2000;0.4583;1.0700;
-39.9000;0.4567;1.0653;
-39.6000;0.4501;1.0490;
-39.3000;0.4558;1.0793;
-39.0000;0.4575;1.0793;
-38.7000;0.4558;1.0770;
-38.4000;0.4599;1.0816;
-38.1000;0.4583;1.0839;
-37.8000;0.4575;1.0816;
-37.5000;0.4697;1.1189;
-37.2000;0.4591;1.0886;
-36.9000;0.4575;1.0863;
-36.6000;0.4575;1.0886;
-36.3000;0.4558;1.0816;
-36.0000;0.4567;1.0770;
-35.7000;0.4567;1.0770;
-35.4000;0.4542;1.0676;
-35.1000;0.4550;1.0723;
-34.8000;0.4550;1.0700;
-34.5000;0.4526;1.0653;
-34.2000;0.4632;1.0956;
-33.9000;0.4567;1.0839;
-33.6000;0.4558;1.0863;
-33.3000;0.4550;1.0839;
-33.0000;0.4558;1.0886;
-32.7000;0.4567;1.0956;
-32.4000;0.4615;1.0979;
-32.1000;0.4558;1.0816;
-31.8000;0.4575;1.0886;
-31.5000;0.4599;1.0863;
-31.2000;0.4591;1.0863;
-30.9000;0.4567;1.0863;
-30.6000;0.4567;1.0909;
-30.3000;0.4558;1.0909;
-30.0000;0.4575;1.0933;
-29.7000;0.4558;1.0839;
-29.4000;0.4558;1.0770;
-29.1000;0.4567;1.0816;
-28.8000;0.4575;1.0956;
-28.5000;0.4567;1.1026;
-28.2000;0.4542;1.0979;
-27.9000;0.4567;1.0933;
-27.6000;0.4583;1.0933;
-27.3000;0.4558;1.0863;
-27.0000;0.4558;1.0863;
-26.7000;0.4567;1.0770;
-26.4000;0.4607;1.0793;
-26.1000;0.4567;1.0816;
-25.8000;0.4493;1.0630;
-25.5000;0.4534;1.0700;
-25.2000;0.4567;1.0816;
-24.9000;0.4575;1.0770;
-24.6000;0.4575;1.0770;
-24.3000;0.4583;1.0909;
-24.0000;0.4575;1.0909;
-23.7000;0.4575;1.0886;
-23.4000;0.4542;1.0816;
-23.1000;0.4550;1.0863;
-22.8000;0.4575;1.0746;
-22.5000;0.4518;1.0653;
-22.2000;0.4575;1.0700;
-21.9000;0.4518;1.0630;
-21.6000;0.4575;1.0770;
-21.3000;0.4567;1.0863;
-21.0000;0.4550;1.0863;
-20.7000;0.4607;1.0979;
-20.4000;0.4550;1.0839;
-20.1000;0.4558;1.0816;
-19.8000;0.4567;1.0816;
-19.5000;0.4583;1.0909;
-19.2000;0.4591;1.0770;
-18.9000;0.4583;1.0793;
-18.6000;0.4534;1.0630;
-18.3000;0.4542;1.0606;
-18.0000;0.4591;1.0583;
-17.7000;0.4526;1.0466;
-17.4000;0.4550;1.0583;
-17.1000;0.4558;1.0513;
-16.8000;0.4575;1.0490;
-16.5000;0.4567;1.0443;
-16.2000;0.4599;1.0466;
-15.9000;0.4558;1.0420;
-15.6000;0.4534;1.0350;
-15.3000;0.4599;1.0560;
-15.0000;0.4567;1.0536;
-14.7000;0.4518;1.0466;
-14.4000;0.4534;1.0606;
-14.1000;0.4501;1.0490;
-13.8000;0.4558;1.0583;
-13.5000;0.4558;1.0606;
-13.2000;0.4526;1.0560;
-12.9000;0.4558;1.0676;
-12.6000;0.4558;1.0630;
-12.3000;0.4575;1.0700;
-12.0000;0.4567;1.0723;
-11.7000;0.4567;1.0770;
-11.4000;0.4558;1.0746;
-11.1000;0.4550;1.0816;
-10.8000;0.4591;1.0886;
-10.5000;0.4567;1.0863;
-10.2000;0.4640;1.1026;
-9.9000;0.4599;1.0979;
-9.6000;0.4575;1.0886;
-9.3000;0.4575;1.0909;
-9.0000;0.4558;1.0863;
-8.7000;0.4575;1.0863;
-8.4000;0.4567;1.0839;
-8.1000;0.4575;1.0839;
-7.8000;0.4567;1.0770;
-7.5000;0.4567;1.0700;
-7.2000;0.4501;1.0513;
-6.9000;0.4575;1.0746;
-6.6000;0.4550;1.0723;
-6.3000;0.4542;1.0770;
-6.0000;0.4567;1.0793;
-5.7000;0.4567;1.0700;
-5.4000;0.4550;1.0676;
-5.1000;0.4542;1.0676;
-4.8000;0.4575;1.0653;
-4.5000;0.4567;1.0653;
-4.2000;0.4567;1.0560;
-3.9000;0.4558;1.0700;
-3.6000;0.4567;1.0676;
-3.3000;0.4591;1.0700;
-3.0000;0.4575;1.0606;
-2.7000;0.4575;1.0676;
-2.4000;0.4558;1.0630;
-2.1000;0.4567;1.0700;
-1.8000;0.4583;1.0676;
-1.5000;0.4542;1.0560;
-1.2000;0.4575;1.0770;
-0.9000;0.4567;1.0746;
-0.6000;0.4583;1.0793;
-0.3000;0.4493;1.0700;
0.0000;0.4493;1.0700;
0.3000;0.4697;1.0956;
0.6000;0.5169;1.1515;
0.9000;0.5600;1.2145;
1.2000;0.5747;1.2331;
1.5000;0.5999;1.2867;
1.8000;0.6129;1.3217;
2.1000;0.6309;1.3637;
2.4000;0.6422;1.3916;
2.7000;0.6398;1.3823;
3.0000;0.6520;1.4033;
3.3000;0.6553;1.4080;
3.6000;0.6602;1.4219;
3.9000;0.6642;1.4313;
4.2000;0.6764;1.4592;
4.5000;0.6724;1.4453;
4.8000;0.6740;1.4383;
5.1000;0.6813;1.4569;
5.4000;0.6813;1.4592;
5.7000;0.6838;1.4569;
6.0000;0.6870;1.4569;
6.3000;0.6878;1.4546;
6.6000;0.7009;1.4872;
6.9000;0.6960;1.4709;
7.2000;0.6968;1.4779;
7.5000;0.6984;1.4779;
7.8000;0.6960;1.4756;
8.1000;0.7041;1.4895;
8.4000;0.7066;1.4895;
8.7000;0.7041;1.4965;
9.0000;0.7082;1.4942;
9.3000;0.7090;1.4802;
9.6000;0.7090;1.4756;
9.9000;0.7131;1.4732;
10.2000;0.7163;1.4849;
10.5000;0.7155;1.4779;
10.8000;0.7163;1.4919;
11.1000;0.7204;1.4989;
11.4000;0.7220;1.4942;
11.7000;0.7188;1.4826;
12.0000;0.7236;1.4989;
12.3000;0.7293;1.4989;
12.6000;0.7293;1.4895;
12.9000;0.7334;1.4942;
13.2000;0.7350;1.4942;
13.5000;0.7359;1.4849;
13.8000;0.7375;1.4942;
14.1000;0.7383;1.4872;
14.4000;0.7399;1.4826;
14.7000;0.7342;1.4639;
15.0000;0.7407;1.4756;
15.3000;0.7432;1.4709;
15.6000;0.7481;1.4826;
15.9000;0.7489;1.4826;
16.2000;0.7481;1.4732;
16.5000;0.7489;1.4709;
16.8000;0.7513;1.4826;
17.1000;0.7530;1.4826;
17.4000;0.7546;1.4779;
17.7000;0.7562;1.4709;
18.0000;0.7546;1.4779;
18.3000;0.7586;1.4849;
18.6000;0.7603;1.4872;
18.9000;0.7603;1.4919;
19.2000;0.7660;1.4965;
19.5000;0.7635;1.4965;
19.8000;0.7676;1.5035;
20.1000;0.7660;1.5012;
20.4000;0.7635;1.5035;
20.7000;0.7684;1.5105;
21.0000;0.7643;1.4942;
21.3000;0.7709;1.5105;
21.6000;0.7709;1.5035;
21.9000;0.7709;1.4942;
22.2000;0.7782;1.5035;
22.5000;0.7782;1.4895;
22.8000;0.7790;1.4872;
23.1000;0.7782;1.4756;
23.4000;0.7766;1.4662;
23.7000;0.7782;1.4523;
24.0000;0.7749;1.4476;
24.3000;0.7741;1.4523;
24.6000;0.7700;1.4523;
24.9000;0.7798;1.4732;
25.2000;0.7855;1.4872;
25.5000;0.7896;1.4942;
25.8000;0.7831;1.4826;
26.1000;0.7855;1.4872;
26.4000;0.7823;1.4732;
26.7000;0.7839;1.4756;
27.0000;0.7880;1.4802;
27.3000;0.7871;1.4779;
27.6000;0.7896;1.4709;
27.9000;0.7912;1.4732;
28.2000;0.7920;1.4732;
28.5000;0.7920;1.4826;
28.8000;0.7937;1.4942;
29.1000;0.7953;1.5082;
29.4000;0.7928;1.4989;
29.7000;0.7945;1.4989;
30.0000;0.7928;1.4849;
30.3000;0.7953;1.4826;
30.6000;0.7953;1.4686;
30.9000;0.7969;1.4732;
31.2000;0.7961;1.4732;
31.5000;0.7920;1.4546;
31.8000;0.8002;1.4686;
32.1000;0.7985;1.4709;
32.4000;0.7993;1.4709;
32.7000;0.8010;1.4756;
33.0000;0.8002;1.4779;
33.3000;0.7993;1.4686;
33.6000;0.7928;1.4523;
33.9000;0.8026;1.4592;
34.2000;0.8010;1.4523;
34.5000;0.8026;1.4592;
34.8000;0.8034;1.4616;
35.1000;0.8026;1.4662;
35.4000;0.8026;1.4616;
35.7000;0.8010;1.4569;
36.0000;0.8042;1.4639;
36.3000;0.8042;1.4709;
36.6000;0.8042;1.4709;
36.9000;0.8059;1.4662;
37.2000;0.8083;1.4686;
37.5000;0.8075;1.4732;
37.8000;0.8067;1.4756;
38.1000;0.8083;1.4826;
38.4000;0.8067;1.4709;
38.7000;0.8099;1.4756;
39.0000;0.8099;1.4732;
39.3000;0.8099;1.4802;
39.6000;0.8018;1.4499;
39.9000;0.8107;1.4686;
40.2000;0.8107;1.4686;
40.5000;0.8099;1.4686;
40.8000;0.8107;1.4686;
41.1000;0.8124;1.4639;
41.4000;0.8132;1.4616;
41.7000;0.8181;1.4709;
42.0000;0.8124;1.4592;
42.3000;0.8124;1.4592;
42.6000;0.8148;1.4662;
42.9000;0.8107;1.4616;
43.2000;0.8083;1.4499;
43.5000;0.8099;1.4523;
43.8000;0.8116;1.4616;
44.1000;0.8148;1.4616;
44.4000;0.8132;1.4569;
44.7000;0.8156;1.4592;
45.0000;0.8164;1.4592;
45.3000;0.8181;1.4546;
45.6000;0.8156;1.4406;
45.9000;0.8164;1.4476;
46.2000;0.8205;1.4546;
46.5000;0.8148;1.4499;
46.8000;0.8164;1.4546;
47.1000;0.8164;1.4546;
47.4000;0.8132;1.4499;
47.7000;0.8197;1.4592;
48.0000;0.8189;1.4523;
48.3000;0.8189;1.4499;
48.6000;0.8189;1.4523;
48.9000;0.8197;1.4639;
49.2000;0.8205;1.4616;
49.5000;0.8124;1.4429;
49.8000;0.8213;1.4686;
50.1000;0.8205;1.4569;
50.4000;0.8221;1.4616;
50.7000;0.8221;1.4616;
51.0000;0.8197;1.4546;
51.3000;0.8230;1.4546;
51.6000;0.8230;1.4453;
51.9000;0.8230;1.4476;
52.2000;0.8230;1.4406;
52.5000;0.8213;1.4406;
52.8000;0.8230;1.4406;
53.1000;0.8238;1.4336;
53.4000;0.8230;1.4313;
53.7000;0.8213;1.4196;
54.0000;0.8262;1.4289;
54.3000;0.8319;1.4523;
54.6000;0.8295;1.4406;
54.9000;0.8238;1.4266;
55.2000;0.8246;1.4243;
55.5000;0.8246;1.4266;
55.8000;0.8262;1.4313;
56.1000;0.8262;1.4289;
56.4000;0.8254;1.4289;
56.7000;0.8238;1.4266;
57.0000;0.8270;1.4289;
57.3000;0.8262;1.4336;
57.6000;0.8246;1.4266;
57.9000;0.8319;1.4499;
58.2000;0.8230;1.4196;
58.5000;0.8287;1.4313;
58.8000;0.8287;1.4313;
59.1000;0.8295;1.4336;
59.4000;0.8287;1.4383;
59.7000;0.8270;1.4476;
60.0000;0.8287;1.4523;
60.3000;0.8295;1.4476;
60.6000;0.8230;1.4219;
60.9000;0.8287;1.4219;
61.2000;0.8335;1.4219;
61.5000;0.8327;1.4196;
61.8000;0.8311;1.4219;
62.1000;0.8262;1.4266;
62.4000;0.8303;1.4313;
62.7000;0.8295;1.4336;
63.0000;0.8319;1.4359;
63.3000;0.8352;1.4499;
63.6000;0.8392;1.4592;
63.9000;0.8392;1.4569;
64.2000;0.8335;1.4359;
64.5000;0.8319;1.4289;
64.8000;0.8327;1.4266;
65.1000;0.8327;1.4243;
65.4000;0.8335;1.4289;
65.7000;0.8368;1.4406;
66.0000;0.8344;1.4243;
66.3000;0.8335;1.4126;
66.6000;0.8278;1.4010;
66.9000;0.8327;1.4103;
67.2000;0.8319;1.4080;
67.5000;0.8327;1.4173;
67.8000;0.8319;1.4126;
68.1000;0.8335;1.4126;
68.4000;0.8344;1.4313;
68.7000;0.8344;1.4289;
69.0000;0.8352;1.4383;
69.3000;0.8352;1.4476;
69.6000;0.8335;1.4476;
69.9000;0.8344;1.4406;
70.2000;0.8352;1.4429;
70.5000;0.8303;1.4313;
70.8000;0.8352;1.4359;
71.1000;0.8344;1.4243;
71.4000;0.8344;1.4289;
71.7000;0.8360;1.4289;
72.0000;0.8344;1.4289;
72.3000;0.8360;1.4266;
72.6000;0.8352;1.4219;
72.9000;0.8360;1.4243;
73.2000;0.8360;1.4173;
73.5000;0.8368;1.4196;
73.8000;0.8368;1.4196;
74.1000;0.8384;1.4219;
74.4000;0.8384;1.4289;
74.7000;0.8376;1.4266;
75.0000;0.8384;1.4173;
75.3000;0.8392;1.4243;
75.6000;0.8384;1.4243;
75.9000;0.8384;1.4219;
76.2000;0.8400;1.4243;
76.5000;0.8368;1.4103;
76.8000;0.8400;1.4126;
77.1000;0.8400;1.4150;
77.4000;0.8400;1.4243;
77.7000;0.8417;1.4313;
78.0000;0.8392;1.4196;
78.3000;0.8392;1.4126;
78.6000;0.8360;1.4080;
78.9000;0.8392;1.4150;
79.2000;0.8400;1.4173;
79.5000;0.8400;1.4173;
79.8000;0.8417;1.4173;
80.1000;0.8417;1.4196;
80.4000;0.8400;1.4173;
80.7000;0.8400;1.4126;
81.0000;0.8425;1.4173;
81.3000;0.8417;1.4173;
81.6000;0.8400;1.4033;
81.9000;0.8425;1.4173;
82.2000;0.8417;1.4150;
82.5000;0.8409;1.4173;
82.8000;0.8384;1.4173;
83.1000;0.8368;1.4103;
83.4000;0.8409;1.4196;
83.7000;0.8425;1.4150;
84.0000;0.8417;1.4126;
84.3000;0.8360;1.4080;
84.6000;0.8417;1.4219;
84.9000;0.8425;1.4243;
85.2000;0.8417;1.4243;
85.5000;0.8425;1.4313;
85.8000;0.8417;1.4243;
86.1000;0.8449;1.4313;
86.4000;0.8466;1.4313;
86.7000;0.8441;1.4126;
87.0000;0.8441;1.4103;
87.3000;0.8490;1.4173;
87.6000;0.8457;1.4126;
87.9000;0.8449;1.4080;
88.2000;0.8457;1.4103;
88.5000;0.8425;1.4010;
88.8000;0.8441;1.4056;
89.1000;0.8441;1.3986;
89.4000;0.8425;1.3940;
89.7000;0.8433;1.3963;
90.0000;0.8433;1.3847;
90.3000;0.8449;1.4010;
90.6000;0.8457;1.4056;
90.9000;0.8457;1.3963;
91.2000;0.8474;1.3986;
91.5000;0.8523;1.4056;
91.8000;0.8474;1.3870;
92.1000;0.8466;1.3800;
92.4000;0.8466;1.3823;
92.7000;0.8466;1.3893;
93.0000;0.8449;1.3893;
93.3000;0.8482;1.3940;
93.6000;0.8449;1.4010;
93.9000;0.8474;1.4103;
94.2000;0.8368;1.3847;
94.5000;0.8490;1.4196;
94.8000;0.8449;1.4080;
95.1000;0.8441;1.3963;
95.4000;0.8466;1.3963;
95.7000;0.8466;1.3916;
96.0000;0.8466;1.3870;
96.3000;0.8457;1.3963;
96.6000;0.8466;1.3963;
96.9000;0.8441;1.3893;
97.2000;0.8474;1.4010;
97.5000;0.8474;1.4033;
97.8000;0.8498;1.4126;
98.1000;0.8539;1.4289;
98.4000;0.8457;1.4080;
98.7000;0.8482;1.4150;
99.0000;0.8514;1.4103;
99.3000;0.8482;1.3986;
99.6000;0.8482;1.3963;
99.9000;0.8474;1.3893;
100.2000;0.8514;1.3893;
100.5000;0.8490;1.3847;
100.8000;0.8498;1.3916;
101.1000;0.8498;1.3893;
101.4000;0.8482;1.3847;
101.7000;0.8449;1.3777;
102.0000;0.8531;1.3986;
102.3000;0.8466;1.3823;
102.6000;0.8474;1.3777;
102.9000;0.8474;1.3847;
103.2000;0.8490;1.3893;
103.5000;0.8457;1.3940;
103.8000;0.8466;1.3893;
104.1000;0.8506;1.3986;
104.4000;0.8482;1.3916;
104.7000;0.8490;1.3963;
105.0000;0.8474;1.3963;
105.3000;0.8490;1.3986;
105.6000;0.8490;1.3916;
105.9000;0.8498;1.3916;
106.2000;0.8457;1.3777;
106.5000;0.8514;1.3847;
106.8000;0.8506;1.3777;
107.1000;0.8506;1.3777;
107.4000;0.8482;1.3707;
107.7000;0.8490;1.3870;
108.0000;0.8490;1.3823;
108.3000;0.8555;1.3916;
108.6000;0.8482;1.3753;
108.9000;0.8482;1.3707;
109.2000;0.8490;1.3683;
109.5000;0.8482;1.3637;
109.8000;0.8514;1.3660;
110.1000;0.8531;1.3660;
110.4000;0.8523;1.3637;
110.7000;0.8506;1.3613;
111.0000;0.8506;1.3637;
111.3000;0.8482;1.3543;
111.6000;0.8523;1.3590;
111.9000;0.8506;1.3613;
112.2000;0.8506;1.3660;
112.5000;0.8490;1.3753;
112.8000;0.8506;1.3823;
113.1000;0.8482;1.3683;
113.4000;0.8506;1.3613;
113.7000;0.8506;1.3613;
114.0000;0.8531;1.3660;
114.3000;0.8514;1.3660;
114.6000;0.8490;1.3613;
114.9000;0.8506;1.3660;
115.2000;0.8523;1.3637;
115.5000;0.8523;1.3567;
115.8000;0.8531;1.3613;
116.1000;0.8523;1.3543;
116.4000;0.8523;1.3660;
116.7000;0.8514;1.3590;
117.0000;0.8523;1.3613;
117.3000;0.8514;1.3567;
117.6000;0.8547;1.3613;
117.9000;0.8523;1.3497;
118.2000;0.8498;1.3497;
118.5000;0.8506;1.3380;
118.8000;0.8531;1.3380;
119.1000;0.8539;1.3357;
119.4000;0.8457;1.3194;
119.7000;0.8514;1.3450;
120.0000;0.8482;1.3404;
120.3000;0.8523;1.3497;
120.6000;0.8523;1.3520;
120.9000;0.8506;1.3450;
121.2000;0.8531;1.3497;
121.5000;0.8514;1.3450;
121.8000;0.8498;1.3404;
122.1000;0.8523;1.3520;
122.4000;0.8514;1.3450;
122.7000;0.8498;1.3404;
123.0000;0.8523;1.3450;
123.3000;0.8547;1.3520;
123.6000;0.8547;1.3590;
123.9000;0.8531;1.3543;
124.2000;0.8539;1.3683;
124.5000;0.8539;1.3707;
124.8000;0.8539;1.3683;
125.1000;0.8539;1.3730;
125.4000;0.8539;1.3637;
125.7000;0.8547;1.3660;
126.0000;0.8563;1.3660;
126.3000;0.8596;1.3730;
126.6000;0.8669;1.3870;
126.9000;0.8555;1.3590;
127.2000;0.8555;1.3660;
127.5000;0.8555;1.3730;
127.8000;0.8531;1.3707;
128.1000;0.8547;1.3800;
128.4000;0.8514;1.3800;
128.7000;0.8523;1.3823;
129.0000;0.8490;1.3683;
129.3000;0.8547;1.3753;
129.6000;0.8620;1.3940;
129.9000;0.8547;1.3730;
130.2000;0.8571;1.3777;
130.5000;0.8555;1.3683;
130.8000;0.8596;1.3823;
131.1000;0.8588;1.3777;
131.4000;0.8588;1.3777;
131.7000;0.8563;1.3730;
132.0000;0.8547;1.3753;
132.3000;0.8596;1.3777;
132.6000;0.8490;1.3450;
132.9000;0.8539;1.3613;
133.2000;0.8563;1.3660;
133.5000;0.8547;1.3660;
133.8000;0.8506;1.3474;
134.1000;0.8645;1.3823;
134.4000;0.8588;1.3753;
134.7000;0.8555;1.3567;
135.0000;0.8547;1.3543;
135.3000;0.8555;1.3543;
135.6000;0.8547;1.3520;
135.9000;0.8547;1.3520;
136.2000;0.8555;1.3520;
136.5000;0.8531;1.3474;
136.8000;0.8547;1.3474;
137.1000;0.8628;1.3660;
137.4000;0.8506;1.3450;
137.7000;0.8563;1.3567;
138.0000;0.8539;1.3427;
138.3000;0.8547;1.3450;
138.6000;0.8588;1.3520;
138.9000;0.8539;1.3380;
139.2000;0.8588;1.3474;
139.5000;0.8547;1.3357;
139.8000;0.8563;1.3427;
140.1000;0.8571;1.3380;
140.4000;0.8457;1.3077;
140.7000;0.8547;1.3357;
141.0000;0.8563;1.3427;
141.3000;0.8555;1.3427;
141.6000;0.8596;1.3497;
141.9000;0.8563;1.3427;
142.2000;0.8555;1.3357;
142.5000;0.8596;1.3450;
142.8000;0.8547;1.3334;
143.1000;0.8531;1.3217;
143.4000;0.8563;1.3287;
143.7000;0.8498;1.3264;
144.0000;0.8547;1.3427;
144.3000;0.8539;1.3474;
144.6000;0.8555;1.3520;
144.9000;0.8547;1.3520;
145.2000;0.8555;1.3520;
145.5000;0.8547;1.3404;
145.8000;0.8547;1.3450;
146.1000;0.8563;1.3427;
146.4000;0.8555;1.3450;
146.7000;0.8506;1.3287;
147.0000;0.8555;1.3497;
147.3000;0.8580;1.3520;
147.6000;0.8563;1.3613;
147.9000;0.8547;1.3590;
148.2000;0.8547;1.3497;
148.5000;0.8596;1.3613;
148.8000;0.8563;1.3590;
149.1000;0.8563;1.3590;
149.4000;0.8563;1.3590;
149.7000;0.8563;1.3520;
150.0000;0.8555;1.3520;
150.3000;0.8563;1.3520;
150.6000;0.8571;1.3520;
150.9000;0.8563;1.3497;
151.2000;0.8571;1.3637;
151.5000;0.8580;1.3637;
151.8000;0.8563;1.3637;
152.1000;0.8571;1.3613;
152.4000;0.8555;1.3543;
152.7000;0.8588;1.3590;
153.0000;0.8571;1.3520;
153.3000;0.8580;1.3520;
153.6000;0.8531;1.3380;
153.9000;0.8555;1.3427;
154.2000;0.8588;1.3497;
154.5000;0.8563;1.3497;
154.8000;0.8588;1.3520;
155.1000;0.8563;1.3310;
155.4000;0.8571;1.3427;
155.7000;0.8523;1.3380;
156.0000;0.8539;1.3497;
156.3000;0.8539;1.3450;
156.6000;0.8555;1.3450;
156.9000;0.8571;1.3450;
157.2000;0.8555;1.3380;
157.5000;0.8571;1.3427;
157.8000;0.8563;1.3404;
158.1000;0.8563;1.3334;
158.4000;0.8555;1.3357;
158.7000;0.8555;1.3380;
159.0000;0.8588;1.3520;
159.3000;0.8555;1.3427;
159.6000;0.8563;1.3404;
159.9000;0.8563;1.3450;
160.2000;0.8580;1.3474;
160.5000;0.8580;1.3613;
160.8000;0.8588;1.3567;
161.1000;0.8580;1.3543;
161.4000;0.8563;1.3497;
161.7000;0.8588;1.3567;
162.0000;0.8596;1.3567;
162.3000;0.8571;1.3613;
162.6000;0.8563;1.3567;
162.9000;0.8596;1.3613;
163.2000;0.8571;1.3567;
163.5000;0.8523;1.3497;
163.8000;0.8571;1.3660;
164.1000;0.8580;1.3800;
164.4000;0.8563;1.3730;
164.7000;0.8580;1.3753;
165.0000;0.8571;1.3753;
165.3000;0.8571;1.3707;
165.6000;0.8580;1.3730;
165.9000;0.8563;1.3613;
166.2000;0.8580;1.3497;
166.5000;0.8580;1.3520;
166.8000;0.8588;1.3613;
167.1000;0.8580;1.3683;
167.4000;0.8563;1.3683;
167.7000;0.8580;1.3683;
168.0000;0.8523;1.3543;
168.3000;0.8596;1.3707;
168.6000;0.8588;1.3683;
168.9000;0.8580;1.3637;
169.2000;0.8563;1.3683;
169.5000;0.8580;1.3637;
169.8000;0.8555;1.3590;
170.1000;0.8571;1.3637;
170.4000;0.8571;1.3637;
170.7000;0.8588;1.3637;
171.0000;0.8588;1.3590;
171.3000;0.8555;1.3520;
171.6000;0.8580;1.3590;
171.9000;0.8580;1.3520;
172.2000;0.8571;1.3450;
172.5000;0.8531;1.3380;
172.8000;0.8596;1.3520;
173.1000;0.8604;1.3520;
173.4000;0.8588;1.3497;
173.7000;0.8580;1.3474;
174.0000;0.8571;1.3497;
174.3000;0.8588;1.3543;
174.6000;0.8571;1.3450;
174.9000;0.8580;1.3520;
175.2000;0.8580;1.3543;
175.5000;0.8580;1.3474;
175.8000;0.8563;1.3520;
176.1000;0.8555;1.3543;
176.4000;0.8563;1.3590;
176.7000;0.8547;1.3567;
177.0000;0.8580;1.3637;
177.3000;0.8571;1.3707;
177.6000;0.8547;1.3567;
177.9000;0.8555;1.3590;
178.2000;0.8588;1.3637;
178.5000;0.8563;1.3613;
178.8000;0.8571;1.3683;
179.1000;0.8571;1.3660;
179.4000;0.8604;1.3660;
179.7000;0.8588;1.3707;
180.0000;0.8580;1.3660;
180.3000;0.8555;1.3567;
180.6000;0.8580;1.3520;
180.9000;0.8571;1.3590;
181.2000;0.8596;1.3660;
181.5000;0.8563;1.3567;
181.8000;0.8588;1.3567;
182.1000;0.8571;1.3497;
182.4000;0.8563;1.3497;
182.7000;0.8563;1.3334;
183.0000;0.8571;1.3310;
183.3000;0.8580;1.3357;
183.6000;0.8588;1.3380;
183.9000;0.8580;1.3427;
184.2000;0.8571;1.3450;
184.5000;0.8588;1.3543;
184.8000;0.8596;1.3590;
185.1000;0.8588;1.3613;
185.4000;0.8539;1.3543;
185.7000;0.8563;1.3660;
186.0000;0.8604;1.3707;
186.3000;0.8571;1.3613;
186.6000;0.8596;1.3660;
186.9000;0.8596;1.3660;
187.2000;0.8580;1.3613;
187.5000;0.8571;1.3613;
187.8000;0.8580;1.3520;
188.1000;0.8588;1.3543;
188.4000;0.8466;1.3334;
188.7000;0.8588;1.3427;
189.0000;0.8596;1.3427;
189.3000;0.8588;1.3380;
189.6000;0.8604;1.3380;
189.9000;0.8588;1.3380;
190.2000;0.8571;1.3287;
190.5000;0.8563;1.3357;
190.8000;0.8580;1.3474;
191.1000;0.8628;1.3497;
191.4000;0.8571;1.3497;
191.7000;0.8588;1.3450;
192.0000;0.8588;1.3474;
192.3000;0.8563;1.3497;
192.6000;0.8563;1.3497;
192.9000;0.8563;1.3474;
193.2000;0.8571;1.3497;
193.5000;0.8588;1.3520;
193.8000;0.8571;1.3427;
194.1000;0.8539;1.3334;
194.4000;0.8588;1.3520;
194.7000;0.8580;1.3497;
195.0000;0.8628;1.3730;
195.3000;0.8571;1.3660;
195.6000;0.8580;1.3683;
195.9000;0.8563;1.3683;
196.2000;0.8580;1.3753;
196.5000;0.8645;1.3916;
196.8000;0.8571;1.3777;
197.1000;0.8596;1.3753;
197.4000;0.8563;1.3637;
197.7000;0.8571;1.3613;
198.0000;0.8580;1.3707;
198.3000;0.8580;1.3683;
198.6000;0.8571;1.3683;
198.9000;0.8596;1.3777;
199.2000;0.8580;1.3707;
199.5000;0.8571;1.3683;
199.8000;0.8588;1.3777;
200.1000;0.8580;1.3753;
200.4000;0.8571;1.3730;
200.7000;0.8588;1.3777;
201.0000;0.8588;1.3637;
201.3000;0.8604;1.3660;
201.6000;0.8661;1.3823;
201.9000;0.8571;1.3567;
202.2000;0.8580;1.3637;
202.5000;0.8539;1.3590;
202.8000;0.8555;1.3637;
203.1000;0.8555;1.3683;
203.4000;0.8588;1.3613;
203.7000;0.8588;1.3613;
204.0000;0.8571;1.3590;
204.3000;0.8596;1.3683;
204.6000;0.8588;1.3567;
204.9000;0.8580;1.3567;
205.2000;0.8580;1.3590;
205.5000;0.8563;1.3543;
205.8000;0.8571;1.3637;
206.1000;0.8571;1.3543;
206.4000;0.8580;1.3683;
206.7000;0.8604;1.3660;
207.0000;0.8555;1.3520;
207.3000;0.8596;1.3590;
207.6000;0.8571;1.3590;
207.9000;0.8555;1.3474;
208.2000;0.8588;1.3660;
208.5000;0.8580;1.3660;
208.8000;0.8588;1.3800;
209.1000;0.8669;1.3893;
209.4000;0.8612;1.3753;
209.7000;0.8571;1.3683;
210.0000;0.8571;1.3730;
210.3000;0.8580;1.3823;
210.6000;0.8531;1.3683;
210.9000;0.8571;1.3800;
211.2000;0.8645;1.3870;
211.5000;0.8555;1.3637;
211.8000;0.8580;1.3707;
212.1000;0.8547;1.3590;
212.4000;0.8637;1.3707;
212.7000;0.8580;1.3590;
213.0000;0.8563;1.3497;
213.3000;0.8563;1.3520;
213.6000;0.8498;1.3404;
213.9000;0.8580;1.3637;
214.2000;0.8580;1.3613;
214.5000;0.8555;1.3660;
214.8000;0.8563;1.3613;
215.1000;0.8596;1.3683;
215.4000;0.8563;1.3707;
215.7000;0.8563;1.3660;
216.0000;0.8628;1.3753;
216.3000;0.8571;1.3543;
216.6000;0.8571;1.3450;
216.9000;0.8555;1.3404;
217.2000;0.8555;1.3404;
217.5000;0.8571;1.3520;
217.8000;0.8563;1.3497;
218.1000;0.8571;1.3543;
218.4000;0.8555;1.3567;
218.7000;0.8563;1.3613;
219.0000;0.8588;1.3753;
219.3000;0.8571;1.3847;
219.6000;0.8555;1.3847;
219.9000;0.8563;1.3800;
220.2000;0.8563;1.3753;
220.5000;0.8612;1.3847;
220.8000;0.8628;1.3870;
221.1000;0.8555;1.3753;
221.4000;0.8563;1.3800;
221.7000;0.8563;1.3870;
222.0000;0.8580;1.3870;
222.3000;0.8588;1.3916;
222.6000;0.8571;1.3800;
222.9000;0.8555;1.3847;
223.2000;0.8571;1.3870;
223.5000;0.8563;1.3800;
223.8000;0.8588;1.3800;
224.1000;0.8531;1.3660;
224.4000;0.8588;1.3753;
224.7000;0.8580;1.3637;
225.0000;0.8547;1.3567;
225.3000;0.8571;1.3683;
225.6000;0.8596;1.3800;
225.9000;0.8547;1.3660;
226.2000;0.8539;1.3590;
226.5000;0.8612;1.3800;
226.8000;0.8612;1.3847;
227.1000;0.8555;1.3707;
227.4000;0.8580;1.3730;
227.7000;0.8563;1.3753;
228.0000;0.8580;1.3777;
228.3000;0.8645;1.3986;
228.6000;0.8555;1.3730;
228.9000;0.8580;1.3777;
229.2000;0.8588;1.3777;
229.5000;0.8555;1.3730;
229.8000;0.8604;1.3893;
230.1000;0.8563;1.3847;
230.4000;0.8580;1.3800;
230.7000;0.8588;1.3847;
231.0000;0.8563;1.3870;
231.3000;0.8571;1.3847;
231.6000;0.8563;1.3777;
231.9000;0.8588;1.3777;
232.2000;0.8563;1.3683;
232.5000;0.8555;1.3660;
232.8000;0.8563;1.3707;
233.1000;0.8563;1.3683;
233.4000;0.8563;1.3637;
233.7000;0.8588;1.3613;
234.0000;0.8571;1.3683;
234.3000;0.8539;1.3590;
234.6000;0.8571;1.3590;
234.9000;0.8531;1.3543;
235.2000;0.8539;1.3567;
235.5000;0.8555;1.3590;
235.8000;0.8604;1.3753;
236.1000;0.8563;1.3683;
236.4000;0.8580;1.3730;
236.7000;0.8563;1.3683;
237.0000;0.8563;1.3660;
237.3000;0.8563;1.3637;
237.6000;0.8612;1.3730;
237.9000;0.8661;1.3963;
238.2000;0.8580;1.3777;
238.5000;0.8539;1.3637;
238.8000;0.8580;1.3683;
239.1000;0.8555;1.3590;
239.4000;0.8563;1.3660;
239.7000;0.8555;1.3707;
240.0000;0.8571;1.3847;
240.3000;0.8596;1.3870;
240.6000;0.8531;1.3800;
240.9000;0.8563;1.3940;
241.2000;0.8588;1.3940;
241.5000;0.8563;1.3847;
241.8000;0.8563;1.3823;
242.1000;0.8612;1.3800;
242.4000;0.8571;1.3730;
242.7000;0.8571;1.3707;
243.0000;0.8571;1.3660;
243.3000;0.8580;1.3730;
243.6000;0.8580;1.3707;
243.9000;0.8563;1.3683;
244.2000;0.8555;1.3730;
244.5000;0.8539;1.3730;
244.8000;0.8588;1.3823;
245.1000;0.8620;1.3847;
245.4000;0.8563;1.3823;
245.7000;0.8555;1.3753;
246.0000;0.8588;1.3870;
246.3000;0.8555;1.3777;
246.6000;0.8531;1.3637;
246.9000;0.8531;1.3707;
247.2000;0.8547;1.3753;
247.5000;0.8555;1.3823;
247.8000;0.8604;1.4010;
248.1000;0.8547;1.3847;
248.4000;0.8571;1.3893;
248.7000;0.8571;1.3986;
249.0000;0.8571;1.3963;
249.3000;0.8547;1.3800;
249.6000;0.8498;1.3660;
249.9000;0.8588;1.3823;
250.2000;0.8563;1.3683;
250.5000;0.8547;1.3753;
250.8000;0.8661;1.4056;
251.1000;0.8580;1.3870;
251.4000;0.8571;1.3777;
251.7000;0.8571;1.3730;
252.0000;0.8563;1.3683;
252.3000;0.8580;1.3777;
252.6000;0.8571;1.3707;
252.9000;0.8571;1.3567;
253.2000;0.8563;1.3543;
253.5000;0.8531;1.3474;
253.8000;0.8563;1.3637;
254.1000;0.8555;1.3567;
254.4000;0.8555;1.3497;
254.7000;0.8580;1.3590;
255.0000;0.8580;1.3637;
255.3000;0.8563;1.3613;
255.6000;0.8514;1.3543;
255.9000;0.8555;1.3683;
256.2000;0.8580;1.3753;
256.5000;0.8571;1.3730;
256.8000;0.8571;1.3800;
257.1000;0.8547;1.3777;
257.4000;0.8563;1.3823;
257.7000;0.8580;1.3870;
258.0000;0.8555;1.3823;
258.3000;0.8555;1.3800;
258.6000;0.8588;1.3940;
258.9000;0.8555;1.3986;
259.2000;0.8580;1.4033;
259.5000;0.8547;1.3986;
259.8000;0.8531;1.4033;
260.1000;0.8563;1.4080;
260.4000;0.8563;1.4056;
260.7000;0.8539;1.3963;
261.0000;0.8571;1.3940;
261.3000;0.8555;1.3823;
261.6000;0.8555;1.3823;
261.9000;0.8571;1.3823;
262.2000;0.8580;1.3800;
262.5000;0.8571;1.3777;
262.8000;0.8580;1.3823;
263.1000;0.8563;1.3893;
263.4000;0.8547;1.3916;
263.7000;0.8669;1.4126;
264.0000;0.8555;1.3870;
264.3000;0.8571;1.3940;
264.6000;0.8539;1.3893;
264.9000;0.8547;1.3870;
265.2000;0.8563;1.3847;
265.5000;0.8547;1.3777;
265.8000;0.8563;1.3777;
266.1000;0.8555;1.3823;
266.4000;0.8531;1.3730;
266.7000;0.8514;1.3613;
267.0000;0.8563;1.3823;
267.3000;0.8571;1.3823;
267.6000;0.8571;1.3800;
267.9000;0.8571;1.3847;
268.2000;0.8571;1.3870;
268.5000;0.8547;1.3870;
268.8000;0.8588;1.4010;
269.1000;0.8563;1.3940;
269.4000;0.8563;1.3963;
269.7000;0.8547;1.3847;
270.0000;0.8523;1.3777;
270.3000;0.8563;1.3847;
270.6000;0.8547;1.3823;
270.9000;0.8555;1.3940;
271.2000;0.8685;1.4289;
271.5000;0.8498;1.3847;
271.8000;0.8563;1.3963;
272.1000;0.8563;1.3916;
272.4000;0.8563;1.3940;
272.7000;0.8547;1.3916;
273.0000;0.8563;1.3940;
273.3000;0.8498;1.3847;
273.6000;0.8555;1.3963;
273.9000;0.8547;1.4010;
274.2000;0.8555;1.4080;
274.5000;0.8555;1.4103;
274.8000;0.8531;1.4010;
275.1000;0.8506;1.3986;
275.4000;0.8555;1.4126;
275.7000;0.8555;1.4056;
276.0000;0.8539;1.3986;
276.3000;0.8547;1.3986;
276.6000;0.8563;1.4010;
276.9000;0.8580;1.3963;
277.2000;0.8555;1.3940;
277.5000;0.8563;1.3870;
277.8000;0.8580;1.3870;
278.1000;0.8547;1.3823;
278.4000;0.8539;1.3870;
278.7000;0.8555;1.3870;
279.0000;0.8547;1.3893;
279.3000;0.8539;1.3963;
279.6000;0.8547;1.3916;
279.9000;0.8571;1.3847;
280.2000;0.8555;1.3847;
280.5000;0.8563;1.3870;
280.8000;0.8563;1.3916;
281.1000;0.8539;1.3823;
281.4000;0.8580;1.3753;
281.7000;0.8563;1.3707;
282.0000;0.8563;1.3777;
282.3000;0.8571;1.3800;
282.6000;0.8563;1.3800;
282.9000;0.8514;1.3707;
283.2000;0.8563;1.3847;
283.5000;0.8555;1.3800;
283.8000;0.8547;1.3730;
284.1000;0.8563;1.3800;
284.4000;0.8571;1.3800;
284.7000;0.8547;1.3683;
285.0000;0.8563;1.3753;
285.3000;0.8588;1.3753;
285.6000;0.8531;1.3637;
285.9000;0.8555;1.3730;
286.2000;0.8539;1.3730;
286.5000;0.8547;1.3777;
286.8000;0.8571;1.3777;
287.1000;0.8547;1.3753;
287.4000;0.8555;1.3753;
287.7000;0.8539;1.3683;
288.0000;0.8563;1.3753;
288.3000;0.8547;1.3683;
288.6000;0.8490;1.3543;
288.9000;0.8555;1.3800;
289.2000;0.8539;1.3753;
289.5000;0.8563;1.3823;
289.8000;0.8563;1.3823;
290.1000;0.8482;1.3543;
290.4000;0.8555;1.3707;
290.7000;0.8571;1.3823;
291.0000;0.8547;1.3800;
291.3000;0.8555;1.3823;
291.6000;0.8588;1.3916;
291.9000;0.8514;1.3753;
292.2000;0.8620;1.4010;
292.5000;0.8580;1.3940;
292.8000;0.8555;1.3893;
293.1000;0.8547;1.3963;
293.4000;0.8571;1.4010;
293.7000;0.8531;1.3963;
294.0000;0.8539;1.4033;
294.3000;0.8466;1.3893;
294.6000;0.8547;1.3986;
294.9000;0.8539;1.3870;
295.2000;0.8571;1.3963;
295.5000;0.8498;1.3800;
295.8000;0.8514;1.3800;
296.1000;0.8580;1.3986;
296.4000;0.8547;1.3916;
296.7000;0.8555;1.3847;
297.0000;0.8547;1.3800;
297.3000;0.8563;1.3986;
297.6000;0.8563;1.3986;
297.9000;0.8531;1.3940;
298.2000;0.8539;1.3916;
298.5000;0.8506;1.3823;
298.8000;0.8531;1.3893;
299.1000;0.8523;1.3870;
299.4000;0.8555;1.3986;
299.7000;0.8555;1.3940;
300.0000;0.8531;1.3916;
300.3000;0.8539;1.3893;
300.6000;0.8539;1.3916;
300.9000;0.8547;1.3963;
301.2000;0.8539;1.3963;
301.5000;0.8523;1.3916;
301.8000;0.8555;1.3963;
302.1000;0.8555;1.4010;
302.4000;0.8669;1.4289;
302.7000;0.8563;1.4010;
303.0000;0.8563;1.4056;
303.3000;0.8490;1.3870;
303.6000;0.8539;1.4033;
303.9000;0.8547;1.4056;
304.2000;0.8457;1.3800;
304.5000;0.8547;1.3986;
304.8000;0.8539;1.3986;
305.1000;0.8555;1.4010;
305.4000;0.8490;1.3800;
305.7000;0.8531;1.3940;
306.0000;0.8531;1.3986;
306.3000;0.8547;1.3940;
306.6000;0.8531;1.3963;
306.9000;0.8531;1.3916;
307.2000;0.8531;1.3963;
307.5000;0.8539;1.3916;
307.8000;0.8539;1.3940;
308.1000;0.8539;1.3916;
308.4000;0.8547;1.3940;
308.7000;0.8523;1.3893;
309.0000;0.8531;1.3916;
309.3000;0.8571;1.4010;
309.6000;0.8523;1.4010;
309.9000;0.8547;1.4010;
310.2000;0.8547;1.3940;
310.5000;0.8531;1.3870;
310.8000;0.8547;1.3870;
311.1000;0.8539;1.3870;
311.4000;0.8539;1.3870;
311.7000;0.8547;1.3916;
312.0000;0.8547;1.3893;
312.3000;0.8539;1.3870;
312.6000;0.8531;1.3963;
312.9000;0.8539;1.4033;
313.2000;0.8563;1.4033;
313.5000;0.8547;1.4010;
313.8000;0.8571;1.4056;
314.1000;0.8604;1.4033;
314.4000;0.8555;1.3940;
314.7000;0.8563;1.3940;
315.0000;0.8539;1.3870;
315.3000;0.8547;1.3893;
315.6000;0.8523;1.3893;
315.9000;0.8547;1.3893;
316.2000;0.8539;1.3916;
316.5000;0.8506;1.3823;
316.8000;0.8539;1.3963;
317.1000;0.8514;1.3847;
317.4000;0.8506;1.3870;
317.7000;0.8555;1.3916;
318.0000;0.8620;1.4033;
318.3000;0.8661;1.4080;
318.6000;0.8547;1.3847;
318.9000;0.8547;1.3847;
319.2000;0.8555;1.3916;
319.5000;0.8555;1.3963;
319.8000;0.8563;1.3940;
320.1000;0.8498;1.3777;
320.4000;0.8571;1.3916;
320.7000;0.8449;1.3683;
321.0000;0.8523;1.3893;
321.3000;0.8490;1.3777;
321.6000;0.8612;1.4126;
321.9000;0.8523;1.3940;
322.2000;0.8506;1.4033;
322.5000;0.8571;1.4266;
322.8000;0.8531;1.4126;
323.1000;0.8514;1.4033;
323.4000;0.8588;1.4126;
323.7000;0.8539;1.3916;
324.0000;0.8539;1.3870;
324.3000;0.8514;1.3823;
324.6000;0.8539;1.3870;
324.9000;0.8523;1.3870;
325.2000;0.8539;1.3916;
325.5000;0.8547;1.4010;
325.8000;0.8539;1.4080;
326.1000;0.8457;1.3823;
326.4000;0.8571;1.4103;
326.7000;0.8539;1.3986;
327.0000;0.8531;1.3916;
327.3000;0.8514;1.3870;
327.6000;0.8547;1.4010;
327.9000;0.8539;1.3986;
328.2000;0.8498;1.3940;
328.5000;0.8523;1.3986;
328.8000;0.8539;1.4010;
329.1000;0.8547;1.4126;
329.4000;0.8596;1.4243;
329.7000;0.8531;1.4103;
330.0000;0.8531;1.4056;
330.3000;0.8506;1.4056;
330.6000;0.8531;1.4080;
330.9000;0.8523;1.4056;
331.2000;0.8514;1.3986;
331.5000;0.8514;1.3916;
331.8000;0.8539;1.3963;
332.1000;0.8523;1.3893;
332.4000;0.8523;1.3870;
332.7000;0.8539;1.3893;
333.0000;0.8539;1.3893;
333.3000;0.8506;1.3823;
333.6000;0.8523;1.3777;
333.9000;0.8539;1.3823;
334.2000;0.8506;1.3777;
334.5000;0.8514;1.3800;
334.8000;0.8523;1.3707;
335.1000;0.8531;1.3777;
335.4000;0.8523;1.3730;
335.7000;0.8555;1.3823;
336.0000;0.8514;1.3707;
336.3000;0.8539;1.3800;
336.6000;0.8523;1.3730;
336.9000;0.8531;1.3753;
337.2000;0.8547;1.3870;
337.5000;0.8531;1.3777;
337.8000;0.8498;1.3730;
338.1000;0.8523;1.3753;
338.4000;0.8563;1.3893;
338.7000;0.8482;1.3707;
339.0000;0.8523;1.3777;
339.3000;0.8547;1.3777;
339.6000;0.8555;1.3753;
339.9000;0.8506;1.3613;
340.2000;0.8498;1.3637;
340.5000;0.8474;1.3520;
340.8000;0.8523;1.3660;
341.1000;0.8506;1.3707;
341.4000;0.8498;1.3683;
341.7000;0.8490;1.3753;
342.0000;0.8547;1.3940;
342.3000;0.8523;1.3916;
342.6000;0.8563;1.4010;
342.9000;0.8514;1.3870;
343.2000;0.8588;1.4056;
343.5000;0.8498;1.3823;
343.8000;0.8474;1.3730;
344.1000;0.8506;1.3777;
344.4000;0.8531;1.3823;
344.7000;0.8531;1.3800;
345.0000;0.8547;1.3847;
345.3000;0.8547;1.3963;
345.6000;0.8531;1.4010;
345.9000;0.8506;1.3963;
346.2000;0.8523;1.3870;
346.5000;0.8523;1.3777;
346.8000;0.8531;1.3847;
347.1000;0.8514;1.3753;
347.4000;0.8523;1.3823;
347.7000;0.8523;1.3823;
348.0000;0.8490;1.3777;
348.3000;0.8539;1.3823;
348.6000;0.8571;1.3916;
348.9000;0.8523;1.3963;
349.2000;0.8523;1.3940;
349.5000;0.8547;1.3870;
349.8000;0.8531;1.3870;
350.1000;0.8531;1.3777;
350.4000;0.8523;1.3707;
350.7000;0.8514;1.3707;
351.0000;0.8531;1.3753;
351.3000;0.8506;1.3707;
351.6000;0.8409;1.3613;
351.9000;0.8523;1.3870;
352.2000;0.8539;1.3940;
352.5000;0.8596;1.4080;
352.8000;0.8514;1.3893;
353.1000;0.8506;1.3870;
353.4000;0.8514;1.3847;
353.7000;0.8523;1.3847;
354.0000;0.8523;1.3847;
354.3000;0.8523;1.3777;
354.6000;0.8531;1.3823;
354.9000;0.8498;1.3777;
355.2000;0.8539;1.3870;
355.5000;0.8547;1.3940;
355.8000;0.8539;1.3916;
356.1000;0.8523;1.3916;
356.4000;0.8523;1.3940;
356.7000;0.8514;1.4056;
357.0000;0.8531;1.4150;
357.3000;0.8523;1.4056;
357.6000;0.8506;1.3940;
357.9000;0.8514;1.3847;
358.2000;0.8531;1.3893;
358.5000;0.8539;1.4033;
358.8000;0.8523;1.4056;
359.1000;0.8514;1.4080;
359.4000;0.8547;1.4173;
359.7000;0.8547;1.4126;
360.0000;0.8539;1.4103;
360.3000;0.8531;1.3986;
360.6000;0.8482;1.3916;
360.9000;0.8523;1.3963;
361.2000;0.8531;1.4056;
361.5000;0.8596;1.4150;
361.8000;0.8523;1.3916;
362.1000;0.8490;1.3870;
362.4000;0.8523;1.3893;
362.7000;0.8506;1.3847;
363.0000;0.8514;1.3847;
363.3000;0.8555;1.3963;
363.6000;0.8482;1.3753;
363.9000;0.8514;1.3800;
364.2000;0.8482;1.3823;
364.5000;0.8514;1.3916;
364.8000;0.8514;1.3870;
365.1000;0.8539;1.3940;
365.4000;0.8482;1.3800;
365.7000;0.8555;1.4010;
366.0000;0.8498;1.3823;
366.3000;0.8482;1.3730;
366.6000;0.8490;1.3753;
366.9000;0.8482;1.3800;
367.2000;0.8490;1.3800;
367.5000;0.8506;1.3823;
367.8000;0.8498;1.3870;
368.1000;0.8506;1.3963;
368.4000;0.8490;1.3916;
368.7000;0.8498;1.3940;
369.0000;0.8482;1.4033;
369.3000;0.8474;1.3893;
369.6000;0.8490;1.3916;
369.9000;0.8514;1.4033;
370.2000;0.8506;1.4010;
370.5000;0.8498;1.3916;
370.8000;0.8514;1.3986;
371.1000;0.8506;1.4010;
371.4000;0.8514;1.4033;
371.7000;0.8498;1.4056;
372.0000;0.8498;1.4033;
372.3000;0.8523;1.4103;
372.6000;0.8482;1.4056;
372.9000;0.8514;1.4103;
373.2000;0.8490;1.4010;
373.5000;0.8514;1.4056;
373.8000;0.8531;1.4126;
374.1000;0.8506;1.4126;
374.4000;0.8514;1.4126;
374.7000;0.8523;1.4173;
375.0000;0.8514;1.4266;
375.3000;0.8523;1.4313;
375.6000;0.8531;1.4406;
375.9000;0.8531;1.4313;
376.2000;0.8506;1.4219;
376.5000;0.8506;1.4219;
376.8000;0.8523;1.4150;
377.1000;0.8523;1.4126;
377.4000;0.8506;1.4080;
377.7000;0.8531;1.4126;
378.0000;0.8523;1.4150;
378.3000;0.8490;1.4033;
378.6000;0.8514;1.4103;
378.9000;0.8531;1.4010;
379.2000;0.8531;1.3963;
379.5000;0.8514;1.3963;
379.8000;0.8514;1.3986;
380.1000;0.8514;1.3916;
380.4000;0.8498;1.3916;
380.7000;0.8555;1.4126;
381.0000;0.8498;1.4010;
381.3000;0.8531;1.4056;
381.6000;0.8506;1.4033;
381.9000;0.8506;1.4103;
382.2000;0.8547;1.4150;
382.5000;0.8498;1.4033;
382.8000;0.8506;1.4056;
383.1000;0.8523;1.4056;
383.4000;0.8498;1.3870;
383.7000;0.8523;1.3940;
384.0000;0.8514;1.3916;
384.3000;0.8514;1.3870;
384.6000;0.8531;1.3847;
384.9000;0.8539;1.3893;
385.2000;0.8523;1.3963;
385.5000;0.8539;1.3986;
385.8000;0.8531;1.4010;
386.1000;0.8523;1.4033;
386.4000;0.8523;1.3986;
386.7000;0.8514;1.3963;
387.0000;0.8514;1.4033;
387.3000;0.8498;1.3963;
387.6000;0.8498;1.3963;
387.9000;0.8498;1.4010;
388.2000;0.8498;1.3986;
388.5000;0.8498;1.3916;
388.8000;0.8490;1.3963;
389.1000;0.8523;1.4056;
389.4000;0.8457;1.4033;
389.7000;0.8433;1.3870;
390.0000;0.8498;1.4056;
390.3000;0.8506;1.4056;
390.6000;0.8531;1.4150;
390.9000;0.8514;1.4126;
391.2000;0.8498;1.4080;
391.5000;0.8490;1.4080;
391.8000;0.8498;1.4150;
392.1000;0.8506;1.4173;
392.4000;0.8506;1.4150;
392.7000;0.8506;1.4126;
393.0000;0.8523;1.4056;
393.3000;0.8506;1.4010;
393.6000;0.8514;1.4033;
393.9000;0.8506;1.4010;
394.2000;0.8514;1.4033;
394.5000;0.8498;1.3940;
394.8000;0.8490;1.3893;
395.1000;0.8506;1.3847;
395.4000;0.8555;1.3916;
395.7000;0.8490;1.3753;
396.0000;0.8514;1.3823;
396.3000;0.8514;1.3800;
396.6000;0.8457;1.3730;
396.9000;0.8490;1.3800;
397.2000;0.8498;1.3753;
397.5000;0.8506;1.3753;
397.8000;0.8498;1.3753;
398.1000;0.8506;1.3777;
398.4000;0.8563;1.3940;
398.7000;0.8490;1.3777;
399.0000;0.8506;1.3847;
399.3000;0.8498;1.3800;
399.6000;0.8514;1.3870;
399.9000;0.8514;1.3893;
400.2000;0.8506;1.3893;
400.5000;0.8514;1.3916;
400.8000;0.8523;1.3847;
401.1000;0.8523;1.3683;
401.4000;0.8514;1.3707;
401.7000;0.8514;1.3683;
402.0000;0.8523;1.3753;
402.3000;0.8514;1.3847;
402.6000;0.8514;1.3893;
402.9000;0.8498;1.3777;
403.2000;0.8506;1.3730;
403.5000;0.8580;1.3963;
403.8000;0.8490;1.3707;
404.1000;0.8482;1.3613;
404.4000;0.8498;1.3637;
404.7000;0.8498;1.3707;
405.0000;0.8498;1.3800;
405.3000;0.8498;1.3823;
405.6000;0.8474;1.3847;
405.9000;0.8506;1.3940;
406.2000;0.8482;1.3870;
406.5000;0.8498;1.3940;
406.8000;0.8506;1.4010;
407.1000;0.8506;1.4010;
407.4000;0.8514;1.3986;
407.7000;0.8490;1.3916;
408.0000;0.8466;1.3916;
408.3000;0.8506;1.3940;
408.6000;0.8490;1.3963;
408.9000;0.8490;1.3940;
409.2000;0.8490;1.3963;
409.5000;0.8506;1.4033;
409.8000;0.8506;1.4080;
410.1000;0.8498;1.4080;
410.4000;0.8498;1.3986;
410.7000;0.8498;1.3963;
411.0000;0.8514;1.3963;
411.3000;0.8506;1.3963;
411.6000;0.8490;1.4010;
411.9000;0.8498;1.3986;
412.2000;0.8506;1.4033;
412.5000;0.8417;1.3777;
412.8000;0.8482;1.3963;
413.1000;0.8506;1.4056;
413.4000;0.8482;1.3940;
413.7000;0.8466;1.3916;
414.0000;0.8490;1.3963;
414.3000;0.8498;1.3940;
414.6000;0.8490;1.3940;
414.9000;0.8490;1.3940;
415.2000;0.8498;1.3916;
415.5000;0.8498;1.3893;
415.8000;0.8482;1.3870;
416.1000;0.8498;1.3870;
416.4000;0.8466;1.3870;
416.7000;0.8482;1.3986;
417.0000;0.8482;1.4010;
417.3000;0.8588;1.4219;
417.6000;0.8482;1.3916;
417.9000;0.8482;1.3916;
418.2000;0.8482;1.3870;
418.5000;0.8498;1.3940;
418.8000;0.8506;1.3893;
419.1000;0.8474;1.3800;
419.4000;0.8474;1.3800;
419.7000;0.8506;1.3870;
420.0000;0.8506;1.3986;
420.3000;0.8482;1.4010;
420.6000;0.8490;1.3986;
420.9000;0.8490;1.3986;
421.2000;0.8514;1.3940;
421.5000;0.8498;1.3870;
421.8000;0.8498;1.3847;
422.1000;0.8506;1.3847;
422.4000;0.8490;1.3870;
422.7000;0.8498;1.3870;
423.0000;0.8498;1.3893;
423.3000;0.8498;1.3916;
423.6000;0.8482;1.3893;
423.9000;0.8498;1.4010;
424.2000;0.8523;1.4150;
424.5000;0.8490;1.4056;
424.8000;0.8498;1.4033;
425.1000;0.8490;1.3963;
425.4000;0.8490;1.3916;
425.7000;0.8433;1.3777;
426.0000;0.8490;1.3893;
426.3000;0.8506;1.3893;
426.6000;0.8490;1.3940;
426.9000;0.8482;1.3940;
427.2000;0.8514;1.4033;
427.5000;0.8490;1.3963;
427.8000;0.8498;1.3940;
428.1000;0.8474;1.3940;
428.4000;0.8474;1.3893;
428.7000;0.8490;1.3940;
429.0000;0.8466;1.3893;
429.3000;0.8531;1.3986;
429.6000;0.8474;1.3870;
429.9000;0.8457;1.3753;
430.2000;0.8457;1.3707;
430.5000;0.8482;1.3753;
430.8000;0.8474;1.3823;
431.1000;0.8457;1.3800;
431.4000;0.8490;1.3823;
431.7000;0.8490;1.3730;
432.0000;0.8523;1.3800;
432.3000;0.8506;1.3823;
432.6000;0.8474;1.3730;
432.9000;0.8506;1.3777;
433.2000;0.8490;1.3660;
433.5000;0.8498;1.3753;
433.8000;0.8498;1.3870;
434.1000;0.8449;1.3613;
434.4000;0.8482;1.3590;
434.7000;0.8506;1.3660;
435.0000;0.8474;1.3520;
435.3000;0.8539;1.3660;
435.6000;0.8474;1.3567;
435.9000;0.8482;1.3590;
436.2000;0.8490;1.3637;
436.5000;0.8498;1.3637;
436.8000;0.8490;1.3637;
437.1000;0.8425;1.3497;
437.4000;0.8588;1.3870;
437.7000;0.8514;1.3730;
438.0000;0.8490;1.3683;
438.3000;0.8498;1.3613;
438.6000;0.8547;1.3753;
438.9000;0.8482;1.3613;
439.2000;0.8482;1.3590;
439.5000;0.8466;1.3637;
439.8000;0.8474;1.3637;
440.1000;0.8498;1.3683;
440.4000;0.8482;1.3753;
440.7000;0.8523;1.3823;
441.0000;0.8482;1.3730;
441.3000;0.8531;1.3660;
441.6000;0.8498;1.3637;
441.9000;0.8474;1.3543;
442.2000;0.8482;1.3520;
442.5000;0.8482;1.3567;
442.8000;0.8490;1.3590;
443.1000;0.8498;1.3613;
443.4000;0.8506;1.3730;
443.7000;0.8498;1.3707;
444.0000;0.8514;1.3637;
444.3000;0.8498;1.3590;
444.6000;0.8490;1.3520;
444.9000;0.8506;1.3567;
445.2000;0.8482;1.3474;
445.5000;0.8506;1.3404;
445.8000;0.8490;1.3334;
446.1000;0.8482;1.3380;
446.4000;0.8474;1.3450;
446.7000;0.8523;1.3520;
447.0000;0.8490;1.3474;
447.3000;0.8482;1.3427;
447.6000;0.8490;1.3450;
447.9000;0.8514;1.3590;
448.2000;0.8482;1.3543;
448.5000;0.8457;1.3543;
448.8000;0.8474;1.3613;
449.1000;0.8563;1.3823;
449.4000;0.8482;1.3707;
449.7000;0.8474;1.3660;
450.0000;0.8490;1.3730;
450.3000;0.8466;1.3683;
450.6000;0.8612;1.4080;
450.9000;0.8466;1.3847;
451.2000;0.8457;1.3916;
451.5000;0.8466;1.3963;
451.8000;0.8466;1.3986;
452.1000;0.8474;1.4033;
452.4000;0.8417;1.3870;
452.7000;0.8474;1.3963;
453.0000;0.8474;1.4080;
453.3000;0.8514;1.4126;
453.6000;0.8417;1.3916;
453.9000;0.8466;1.4010;
454.2000;0.8523;1.4126;
454.5000;0.8498;1.3986;
454.8000;0.8457;1.3916;
455.1000;0.8474;1.4010;
455.4000;0.8490;1.3963;
455.7000;0.8482;1.3893;
456.0000;0.8433;1.3870;
456.3000;0.8466;1.3963;
456.6000;0.8441;1.4010;
456.9000;0.8490;1.4056;
457.2000;0.8506;1.4080;
457.5000;0.8490;1.4010;
457.8000;0.8474;1.3940;
458.1000;0.8596;1.4243;
458.4000;0.8498;1.4033;
458.7000;0.8539;1.4103;
459.0000;0.8474;1.3963;
459.3000;0.8514;1.4056;
459.6000;0.8498;1.4056;
459.9000;0.8514;1.4080;
460.2000;0.8466;1.3870;
460.5000;0.8490;1.3870;
460.8000;0.8482;1.3893;
461.1000;0.8482;1.3916;
461.4000;0.8474;1.3986;
461.7000;0.8474;1.3963;
462.0000;0.8482;1.4010;
462.3000;0.8482;1.4010;
462.6000;0.8474;1.3963;
462.9000;0.8482;1.4010;
463.2000;0.8482;1.3940;
463.5000;0.8498;1.3940;
463.8000;0.8482;1.3916;
464.1000;0.8474;1.3916;
464.4000;0.8482;1.3940;
464.7000;0.8482;1.4010;
465.0000;0.8474;1.3986;
465.3000;0.8457;1.3940;
465.6000;0.8457;1.4010;
465.9000;0.8466;1.3986;
466.2000;0.8482;1.4033;
466.5000;0.8490;1.4080;
466.8000;0.8474;1.4010;
467.1000;0.8466;1.3963;
467.4000;0.8482;1.4056;
467.7000;0.8466;1.4056;
468.0000;0.8466;1.4103;
468.3000;0.8498;1.4243;
468.6000;0.8498;1.4313;
468.9000;0.8482;1.4173;
469.2000;0.8482;1.4080;
469.5000;0.8466;1.4056;
469.8000;0.8466;1.3963;
470.1000;0.8490;1.3986;
470.4000;0.8498;1.4033;
470.7000;0.8490;1.4103;
471.0000;0.8474;1.4010;
471.3000;0.8457;1.3940;
471.6000;0.8474;1.3963;
471.9000;0.8482;1.4010;
472.2000;0.8457;1.3940;
472.5000;0.8433;1.3963;
472.8000;0.8449;1.3986;
473.1000;0.8457;1.3963;
473.4000;0.8474;1.4010;
473.7000;0.8490;1.4010;
474.0000;0.8466;1.4056;
474.3000;0.8474;1.4080;
474.6000;0.8523;1.4126;
474.9000;0.8490;1.4080;
475.2000;0.8531;1.4173;
475.5000;0.8539;1.4173;
475.8000;0.8474;1.4056;
476.1000;0.8490;1.4150;
476.4000;0.8441;1.4080;
476.7000;0.8441;1.4056;
477.0000;0.8441;1.4010;
477.3000;0.8498;1.4080;
477.6000;0.8482;1.4010;
477.9000;0.8457;1.3916;
478.2000;0.8457;1.3986;
478.5000;0.8490;1.4010;
478.8000;0.8490;1.4010;
479.1000;0.8498;1.4080;
479.4000;0.8474;1.4126;
479.7000;0.8441;1.4033;
480.0000;0.8449;1.4010;
480.3000;0.8417;1.3916;
480.6000;0.8466;1.4080;
480.9000;0.8466;1.4033;
481.2000;0.8466;1.3893;
481.5000;0.8490;1.3823;
481.8000;0.8466;1.3730;
482.1000;0.8441;1.3683;
482.4000;0.8474;1.3753;
482.7000;0.8474;1.3777;
483.0000;0.8474;1.3870;
483.3000;0.8482;1.3870;
483.6000;0.8466;1.3823;
483.9000;0.8547;1.4103;
484.2000;0.8547;1.4056;
484.5000;0.8482;1.3963;
484.8000;0.8498;1.4080;
485.1000;0.8482;1.4010;
485.4000;0.8482;1.3940;
485.7000;0.8474;1.3963;
486.0000;0.8490;1.3986;
486.3000;0.8457;1.3940;
486.6000;0.8474;1.4056;
486.9000;0.8474;1.4033;
487.2000;0.8457;1.3916;
487.5000;0.8474;1.4033;
487.8000;0.8482;1.4173;
488.1000;0.8466;1.4196;
488.4000;0.8433;1.4126;
488.7000;0.8474;1.4219;
489.0000;0.8482;1.4173;
489.3000;0.8474;1.4173;
489.6000;0.8498;1.4336;
489.9000;0.8474;1.4266;
490.2000;0.8490;1.4266;
490.5000;0.8433;1.4103;
490.8000;0.8457;1.4243;
491.1000;0.8474;1.4266;
491.4000;0.8433;1.4126;
491.7000;0.8466;1.4219;
492.0000;0.8457;1.4219;
492.3000;0.8482;1.4219;
492.6000;0.8474;1.4150;
492.9000;0.8490;1.4173;
493.2000;0.8417;1.4056;
493.5000;0.8466;1.4173;
493.8000;0.8482;1.4289;
494.1000;0.8466;1.4313;
494.4000;0.8482;1.4359;
494.7000;0.8506;1.4336;
495.0000;0.8474;1.4196;
495.3000;0.8466;1.4196;
495.6000;0.8466;1.4173;
495.9000;0.8457;1.4126;
496.2000;0.8449;1.4010;
496.5000;0.8474;1.4103;
496.8000;0.8457;1.4080;
497.1000;0.8457;1.3940;
497.4000;0.8466;1.3893;
497.7000;0.8490;1.3963;
498.0000;0.8474;1.3986;
498.3000;0.8474;1.4103;
498.6000;0.8531;1.4243;
498.9000;0.8490;1.4173;
499.2000;0.8474;1.4103;
499.5000;0.8409;1.3940;
499.8000;0.8449;1.3986;
500.1000;0.8466;1.3986;
500.4000;0.8506;1.4219;
500.7000;0.8449;1.4150;
501.0000;0.8466;1.4359;
501.3000;0.8466;1.4383;
501.6000;0.8441;1.4196;
501.9000;0.8474;1.4196;
502.2000;0.8449;1.4173;
502.5000;0.8474;1.4196;
502.8000;0.8466;1.4173;
503.1000;0.8474;1.4150;
503.4000;0.8433;1.4080;
503.7000;0.8384;1.3986;
504.0000;0.8466;1.4080;
504.3000;0.8490;1.4103;
504.6000;0.8474;1.4126;
504.9000;0.8474;1.4103;
505.2000;0.8457;1.4033;
505.5000;0.8466;1.4103;
505.8000;0.8409;1.3916;
506.1000;0.8466;1.4150;
506.4000;0.8498;1.4313;
506.7000;0.8466;1.4173;
507.0000;0.8466;1.4243;
507.3000;0.8531;1.4406;
507.6000;0.8441;1.4173;
507.9000;0.8474;1.4173;
508.2000;0.8449;1.4080;
508.5000;0.8433;1.4056;
508.8000;0.8449;1.4126;
509.1000;0.8392;1.3986;
509.4000;0.8449;1.4126;
509.7000;0.8457;1.4103;
510.0000;0.8457;1.4150;
510.3000;0.8466;1.4196;
510.6000;0.8457;1.4196;
510.9000;0.8417;1.4056;
511.2000;0.8466;1.4313;
511.5000;0.8417;1.4150;
511.8000;0.8457;1.4196;
512.1000;0.8457;1.4126;
512.4000;0.8498;1.4219;
512.7000;0.8433;1.4080;
513.0000;0.8490;1.4173;
513.3000;0.8449;1.4150;
513.6000;0.8466;1.4173;
513.9000;0.8449;1.4056;
514.2000;0.8449;1.4126;
514.5000;0.8457;1.4126;
514.8000;0.8466;1.4150;
515.1000;0.8457;1.4266;
515.4000;0.8523;1.4406;
515.7000;0.8466;1.4266;
516.0000;0.8466;1.4243;
516.3000;0.8457;1.4056;
516.6000;0.8441;1.4056;
516.9000;0.8457;1.4150;
517.2000;0.8457;1.4196;
517.5000;0.8433;1.4103;
517.8000;0.8433;1.4126;
518.1000;0.8466;1.4196;
518.4000;0.8457;1.4243;
518.7000;0.8449;1.4266;
519.0000;0.8433;1.4196;
519.3000;0.8384;1.4126;
519.6000;0.8449;1.4313;
519.9000;0.8425;1.4150;
520.2000;0.8498;1.4313;
520.5000;0.8449;1.4266;
520.8000;0.8474;1.4266;
521.1000;0.8449;1.4219;
521.4000;0.8457;1.4243;
521.7000;0.8474;1.4313;
522.0000;0.8466;1.4359;
522.3000;0.8466;1.4406;
522.6000;0.8409;1.4243;
522.9000;0.8441;1.4289;
523.2000;0.8441;1.4289;
523.5000;0.8449;1.4289;
523.8000;0.8449;1.4243;
524.1000;0.8449;1.4219;
524.4000;0.8457;1.4219;
524.7000;0.8466;1.4313;
525.0000;0.8433;1.4219;
525.3000;0.8376;1.4103;
525.6000;0.8441;1.4196;
525.9000;0.8474;1.4313;
526.2000;0.8563;1.4569;
526.5000;0.8457;1.4359;
526.8000;0.8555;1.4616;
527.1000;0.8457;1.4406;
527.4000;0.8474;1.4406;
527.7000;0.8449;1.4359;
528.0000;0.8449;1.4383;
528.3000;0.8433;1.4266;
528.6000;0.8400;1.4196;
528.9000;0.8457;1.4313;
529.2000;0.8441;1.4266;
529.5000;0.8466;1.4336;
529.8000;0.8523;1.4406;
530.1000;0.8482;1.4336;
530.4000;0.8571;1.4569;
530.7000;0.8449;1.4266;
531.0000;0.8457;1.4336;
531.3000;0.8474;1.4289;
531.6000;0.8498;1.4453;
531.9000;0.8449;1.4313;
532.2000;0.8466;1.4289;
532.5000;0.8441;1.4289;
532.8000;0.8457;1.4336;
533.1000;0.8449;1.4313;
533.4000;0.8466;1.4383;
533.7000;0.8490;1.4383;
534.0000;0.8466;1.4289;
534.3000;0.8457;1.4266;
534.6000;0.8457;1.4289;
534.9000;0.8523;1.4429;
535.2000;0.8466;1.4336;
535.5000;0.8449;1.4359;
535.8000;0.8457;1.4313;
536.1000;0.8457;1.4243;
536.4000;0.8506;1.4336;
536.7000;0.8474;1.4219;
537.0000;0.8457;1.4219;
537.3000;0.8449;1.4243;
537.6000;0.8466;1.4313;
537.9000;0.8449;1.4313;
538.2000;0.8457;1.4406;
538.5000;0.8457;1.4383;
538.8000;0.8474;1.4336;
539.1000;0.8466;1.4243;
539.4000;0.8433;1.4150;
539.7000;0.8433;1.4196;
540.0000;0.8466;1.4289;
540.3000;0.8490;1.4266;
540.6000;0.8449;1.4103;
540.9000;0.8441;1.4056;
541.2000;0.8441;1.4010;
541.5000;0.8466;1.4056;
541.8000;0.8449;1.4056;
542.1000;0.8449;1.4033;
542.4000;0.8514;1.4126;
542.7000;0.8441;1.3893;
543.0000;0.8449;1.3893;
543.3000;0.8490;1.3940;
543.6000;0.8490;1.3963;
543.9000;0.8457;1.3986;
544.2000;0.8441;1.3870;
544.5000;0.8449;1.3963;
544.8000;0.8457;1.3986;
545.1000;0.8474;1.4010;
545.4000;0.8466;1.3940;
545.7000;0.8425;1.3986;
546.0000;0.8441;1.4033;
546.3000;0.8482;1.4126;
546.6000;0.8498;1.4219;
546.9000;0.8449;1.4080;
547.2000;0.8457;1.4103;
547.5000;0.8449;1.4126;
547.8000;0.8457;1.4103;
548.1000;0.8563;1.4429;
548.4000;0.8482;1.4266;
548.7000;0.8466;1.4266;
549.0000;0.8409;1.4033;
549.3000;0.8474;1.4173;
549.6000;0.8449;1.4056;
549.9000;0.8449;1.4080;
550.2000;0.8474;1.4080;
550.5000;0.8466;1.3870;
550.8000;0.8498;1.4056;
551.1000;0.8417;1.3940;
551.4000;0.8474;1.4080;
551.7000;0.8466;1.4033;
552.0000;0.8457;1.4080;
552.3000;0.8449;1.4056;
552.6000;0.8466;1.4056;
552.9000;0.8449;1.3916;
553.2000;0.8417;1.3916;
553.5000;0.8457;1.4033;
553.8000;0.8433;1.3963;
554.1000;0.8506;1.4080;
554.4000;0.8555;1.4150;
554.7000;0.8449;1.3916;
555.0000;0.8441;1.3940;
555.3000;0.8514;1.4126;
555.6000;0.8474;1.3986;
555.9000;0.8457;1.3940;
556.2000;0.8457;1.4056;
556.5000;0.8474;1.4150;
556.8000;0.8457;1.4173;
557.1000;0.8417;1.4010;
557.4000;0.8457;1.4103;
557.7000;0.8457;1.4243;
558.0000;0.8457;1.4173;
558.3000;0.8441;1.4033;
558.6000;0.8498;1.4196;
558.9000;0.8441;1.4056;
559.2000;0.8449;1.4080;
559.5000;0.8449;1.4033;
559.8000;0.8466;1.4056;
560.1000;0.8449;1.4103;
560.4000;0.8441;1.4196;
560.7000;0.8400;1.4056;
561.0000;0.8441;1.4126;
561.3000;0.8466;1.4173;
561.6000;0.8449;1.4103;
561.9000;0.8466;1.4033;
562.2000;0.8441;1.3870;
562.5000;0.8433;1.3893;
562.8000;0.8563;1.4173;
563.1000;0.8474;1.3940;
563.4000;0.8417;1.3893;
563.7000;0.8449;1.4010;
564.0000;0.8449;1.4010;
564.3000;0.8433;1.3986;
564.6000;0.8449;1.4010;
564.9000;0.8425;1.4010;
565.2000;0.8425;1.4103;
565.5000;0.8417;1.4056;
565.8000;0.8449;1.4150;
566.1000;0.8433;1.4103;
566.4000;0.8506;1.4289;
566.7000;0.8433;1.4126;
567.0000;0.8457;1.4289;
567.3000;0.8490;1.4406;
567.6000;0.8425;1.4266;
567.9000;0.8433;1.4173;
568.2000;0.8433;1.4080;
568.5000;0.8490;1.4219;
568.8000;0.8433;1.4126;
569.1000;0.8417;1.4126;
569.4000;0.8457;1.4196;
569.7000;0.8433;1.4173;
570.0000;0.8417;1.4080;
570.3000;0.8433;1.4080;
570.6000;0.8441;1.4056;
570.9000;0.8457;1.4056;
571.2000;0.8457;1.4173;
571.5000;0.8449;1.4126;
571.8000;0.8457;1.4126;
572.1000;0.8474;1.4126;
572.4000;0.8466;1.4173;
572.7000;0.8457;1.4056;
573.0000;0.8466;1.4103;
573.3000;0.8425;1.4080;
573.6000;0.8457;1.4196;
573.9000;0.8466;1.4266;
574.2000;0.8409;1.4173;
574.5000;0.8441;1.4266;
574.8000;0.8514;1.4336;
575.1000;0.8482;1.4243;
575.4000;0.8441;1.4103;
575.7000;0.8514;1.4289;
576.0000;0.8449;1.4150;
576.3000;0.8449;1.4289;
576.6000;0.8457;1.4359;
576.9000;0.8449;1.4313;
577.2000;0.8457;1.4336;
577.5000;0.8482;1.4429;
577.8000;0.8392;1.4126;
578.1000;0.8425;1.4150;
578.4000;0.8441;1.4196;
578.7000;0.8425;1.4173;
579.0000;0.8425;1.4219;
579.3000;0.8425;1.4196;
579.6000;0.8441;1.4219;
579.9000;0.8417;1.4150;
580.2000;0.8433;1.4196;
580.5000;0.8433;1.4196;
580.8000;0.8441;1.4266;
581.1000;0.8441;1.4196;
581.4000;0.8441;1.4150;
581.7000;0.8441;1.4103;
582.0000;0.8457;1.4103;
582.3000;0.8441;1.4033;
582.6000;0.8449;1.4010;
582.9000;0.8449;1.3963;
583.2000;0.8441;1.3940;
583.5000;0.8441;1.4010;
583.8000;0.8433;1.4010;
584.1000;0.8433;1.3986;
584.4000;0.8433;1.3940;
584.7000;0.8433;1.4010;
585.0000;0.8449;1.4056;
585.3000;0.8449;1.4056;
585.6000;0.8425;1.3940;
585.9000;0.8441;1.4010;
586.2000;0.8441;1.4056;
586.5000;0.8449;1.4173;
586.8000;0.8433;1.4126;
587.1000;0.8441;1.4126;
587.4000;0.8457;1.4219;
587.7000;0.8433;1.4173;
588.0000;0.8441;1.4243;
588.3000;0.8457;1.4219;
588.6000;0.8433;1.4080;
588.9000;0.8441;1.4126;
589.2000;0.8441;1.4080;
589.5000;0.8425;1.4033;
589.8000;0.8425;1.4080;
590.1000;0.8441;1.4173;
590.4000;0.8368;1.4080;
590.7000;0.8417;1.4150;
591.0000;0.8417;1.4150;
591.3000;0.8441;1.4103;
591.6000;0.8417;1.4103;
591.9000;0.8441;1.4080;
592.2000;0.8466;1.4126;
592.5000;0.8441;1.4150;
592.8000;0.8441;1.4033;
593.1000;0.8433;1.4056;
593.4000;0.8433;1.4056;
593.7000;0.8449;1.4080;
594.0000;0.8498;1.4243;
594.3000;0.8449;1.4126;
594.6000;0.8441;1.4126;
594.9000;0.8425;1.4033;
595.2000;0.8449;1.4103;
595.5000;0.8441;1.4056;
595.8000;0.8425;1.4033;
596.1000;0.8531;1.4289;
596.4000;0.8433;1.4103;
596.7000;0.8482;1.4289;
597.0000;0.8449;1.4103;
597.3000;0.8441;1.4033;
597.6000;0.8449;1.4103;
597.9000;0.8441;1.4080;
598.2000;0.8441;1.4173;
598.5000;0.8433;1.4219;
598.8000;0.8457;1.4173;
599.1000;0.8449;1.4173;
599.4000;0.8449;1.4056;
599.7000;0.8425;1.4056;
600.0000;0.8449;1.4126;
600.3000;0.8433;1.4056;
600.6000;0.8360;1.3847;
600.9000;0.8270;1.3730;
601.2000;0.8164;1.3613;
601.5000;0.8026;1.3380;
601.8000;0.7904;1.3334;
602.1000;0.7790;1.3147;
602.4000;0.7676;1.2891;
602.7000;0.7562;1.2751;
603.0000;0.7481;1.2518;
603.3000;0.7375;1.2425;
603.6000;0.7293;1.2215;
603.9000;0.7196;1.2122;
604.2000;0.7123;1.1912;
604.5000;0.7033;1.1702;
604.8000;0.6984;1.1562;
605.1000;0.6952;1.1422;
605.4000;0.6870;1.1376;
605.7000;0.6813;1.1236;
606.0000;0.6748;1.1073;
606.3000;0.6716;1.1049;
606.6000;0.6683;1.1026;
606.9000;0.6650;1.1073;
607.2000;0.6585;1.0956;
607.5000;0.6536;1.0839;
607.8000;0.6520;1.0863;
608.1000;0.6479;1.0863;
608.4000;0.6471;1.0909;
608.7000;0.6406;1.0793;
609.0000;0.6325;1.0606;
609.3000;0.6333;1.0746;
609.6000;0.6341;1.0863;
609.9000;0.6243;1.0700;
610.2000;0.6195;1.0746;
610.5000;0.6178;1.0863;
610.8000;0.6162;1.0816;
611.1000;0.6121;1.0653;
611.4000;0.6129;1.0676;
611.7000;0.6072;1.0560;
612.0000;0.6024;1.0373;
612.3000;0.6024;1.0397;
612.6000;0.5967;1.0350;
612.9000;0.5983;1.0466;
613.2000;0.5975;1.0466;
613.5000;0.5926;1.0373;
613.8000;0.5910;1.0420;
614.1000;0.5902;1.0420;
614.4000;0.5861;1.0373;
614.7000;0.5853;1.0303;
615.0000;0.5836;1.0280;
615.3000;0.5804;1.0257;
615.6000;0.5804;1.0280;
615.9000;0.5788;1.0233;
616.2000;0.5755;1.0163;
616.5000;0.5771;1.0280;
616.8000;0.5739;1.0350;
617.1000;0.5739;1.0397;
617.4000;0.5706;1.0327;
617.7000;0.5633;1.0233;
618.0000;0.5665;1.0373;
618.3000;0.5682;1.0443;
618.6000;0.5665;1.0373;
618.9000;0.5649;1.0303;
619.2000;0.5649;1.0280;
619.5000;0.5641;1.0280;
619.8000;0.5608;1.0140;
620.1000;0.5608;1.0140;
620.4000;0.5576;1.0210;
620.7000;0.5584;1.0327;
621.0000;0.5560;1.0163;
621.3000;0.5560;1.0163;
621.6000;0.5527;1.0117;
621.9000;0.5543;1.0070;
622.2000;0.5527;1.0000;
622.5000;0.5519;1.0117;
622.8000;0.5503;1.0047;
623.1000;0.5503;1.0070;
623.4000;0.5486;0.9954;
623.7000;0.5462;0.9884;
624.0000;0.5438;0.9930;
624.3000;0.5470;1.0094;
624.6000;0.5462;1.0140;
624.9000;0.5421;1.0094;
625.2000;0.5429;1.0187;
625.5000;0.5381;1.0163;
625.8000;0.5438;1.0210;
626.1000;0.5438;1.0257;
626.4000;0.5381;1.0233;
626.7000;0.5389;1.0327;
627.0000;0.5381;1.0373;
627.3000;0.5381;1.0490;
627.6000;0.5356;1.0443;
627.9000;0.5324;1.0327;
628.2000;0.5348;1.0397;
628.5000;0.5332;1.0210;
628.8000;0.5332;1.0233;
629.1000;0.5340;1.0257;
629.4000;0.5332;1.0257;
629.7000;0.5307;1.0187;
630.0000;0.5324;1.0094;
630.3000;0.5291;0.9977;
630.6000;0.5299;1.0024;
630.9000;0.5348;1.0163;
631.2000;0.5291;1.0094;
631.5000;0.5315;1.0140;
631.8000;0.5283;1.0163;
632.1000;0.5275;1.0094;
632.4000;0.5340;1.0233;
632.7000;0.5226;1.0094;
633.0000;0.5169;0.9954;
633.3000;0.5258;1.0140;
633.6000;0.5242;1.0140;
633.9000;0.5210;1.0047;
634.2000;0.5234;1.0117;
634.5000;0.5226;1.0094;
634.8000;0.5226;1.0047;
635.1000;0.5210;1.0000;
635.4000;0.5210;0.9954;
635.7000;0.5193;1.0000;
636.0000;0.5201;0.9954;
636.3000;0.5169;0.9814;
636.6000;0.5177;0.9767;
636.9000;0.5120;0.9627;
637.2000;0.5161;0.9767;
637.5000;0.5177;0.9860;
637.8000;0.5161;0.9790;
638.1000;0.5161;0.9837;
638.4000;0.5161;0.9884;
638.7000;0.5185;0.9930;
639.0000;0.5153;0.9814;
639.3000;0.5144;0.9814;
639.6000;0.5153;0.9814;
639.9000;0.5177;0.9907;
640.2000;0.5144;0.9884;
640.5000;0.5136;0.9884;
640.8000;0.5120;0.9954;
641.1000;0.5144;1.0000;
641.4000;0.5096;0.9954;
641.7000;0.5088;0.9907;
642.0000;0.5136;1.0047;
642.3000;0.5144;1.0117;
642.6000;0.5112;1.0047;
642.9000;0.5104;1.0047;
643.2000;0.5079;0.9954;
643.5000;0.5079;1.0047;
643.8000;0.5112;1.0070;
644.1000;0.5096;0.9977;
644.4000;0.5136;1.0117;
644.7000;0.5136;1.0094;
645.0000;0.5096;1.0000;
645.3000;0.5120;1.0024;
645.6000;0.5079;1.0000;
645.9000;0.5079;1.0070;
646.2000;0.5120;1.0117;
646.5000;0.5063;0.9954;
646.8000;0.5071;1.0000;
647.1000;0.5055;0.9907;
647.4000;0.5055;0.9954;
647.7000;0.4917;0.9651;
648.0000;0.5047;0.9884;
648.3000;0.5112;1.0000;
648.6000;0.5039;0.9837;
648.9000;0.5006;0.9837;
649.2000;0.5014;0.9930;
649.5000;0.5088;1.0094;
649.8000;0.5088;1.0163;
650.1000;0.5055;1.0140;
650.4000;0.5014;1.0047;
650.7000;0.5071;1.0163;
651.0000;0.5006;1.0047;
651.3000;0.5022;1.0117;
651.6000;0.5006;1.0094;
651.9000;0.5022;1.0070;
652.2000;0.5022;1.0233;
652.5000;0.5014;1.0140;
652.8000;0.4965;1.0000;
653.1000;0.4982;1.0000;
653.4000;0.4974;0.9930;
653.7000;0.5014;1.0047;
654.0000;0.5039;1.0140;
654.3000;0.4998;1.0047;
654.6000;0.5006;1.0070;
654.9000;0.5006;1.0094;
655.2000;0.5006;1.0094;
655.5000;0.5031;1.0163;
655.8000;0.4990;1.0047;
656.1000;0.4974;1.0047;
656.4000;0.4974;1.0024;
656.7000;0.4990;1.0047;
657.0000;0.4949;1.0024;
657.3000;0.4957;1.0000;
657.6000;0.4974;1.0024;
657.9000;0.4965;1.0000;
658.2000;0.4957;1.0047;
658.5000;0.4957;0.9977;
658.8000;0.4933;0.9977;
659.1000;0.4933;1.0000;
659.4000;0.4949;1.0000;
659.7000;0.4949;1.0047;
660.0000;0.4957;1.0163;
660.3000;0.4900;1.0000;
660.6000;0.4990;1.0280;
660.9000;0.4925;1.0117;
661.2000;0.4908;1.0000;
661.5000;0.4957;1.0094;
661.8000;0.4949;1.0163;
662.1000;0.4925;1.0024;
662.4000;0.4965;0.9977;
662.7000;0.4917;0.9790;
663.0000;0.4957;0.9954;
663.3000;0.4933;1.0024;
663.6000;0.4900;0.9930;
663.9000;0.4876;0.9860;
664.2000;0.4998;1.0140;
664.5000;0.4917;0.9977;
664.8000;0.4892;0.9884;
665.1000;0.4998;1.0210;
665.4000;0.4908;1.0000;
665.7000;0.4908;1.0024;
666.0000;0.4949;1.0047;
666.3000;0.4892;0.9977;
666.6000;0.4876;0.9954;
666.9000;0.4908;1.0094;
667.2000;0.4811;0.9837;
667.5000;0.4892;1.0047;
667.8000;0.4892;1.0070;
668.1000;0.4860;1.0070;
668.4000;0.4941;1.0210;
668.7000;0.4933;1.0070;
669.0000;0.4892;1.0094;
669.3000;0.4900;1.0070;
669.6000;0.4892;1.0000;
669.9000;0.4851;0.9930;
670.2000;0.4827;0.9907;
670.5000;0.4892;0.9930;
670.8000;0.4827;0.9907;
671.1000;0.4884;1.0047;
671.4000;0.4933;1.0140;
671.7000;0.4860;1.0047;
672.0000;0.4868;1.0000;
672.3000;0.4868;0.9977;
672.6000;0.4868;0.9954;
672.9000;0.4868;1.0117;
673.2000;0.4843;1.0000;
673.5000;0.4851;1.0024;
673.8000;0.4868;1.0000;
674.1000;0.4876;1.0024;
674.4000;0.4868;1.0047;
674.7000;0.4876;1.0070;
675.0000;0.4868;1.0094;
675.3000;0.4884;1.0140;
675.6000;0.4876;1.0024;
675.9000;0.4843;0.9954;
676.2000;0.4876;1.0024;
676.5000;0.4851;1.0024;
676.8000;0.4860;1.0047;
677.1000;0.4892;1.0163;
677.4000;0.4843;1.0117;
677.7000;0.4811;1.0070;
678.0000;0.4835;1.0117;
678.3000;0.4827;1.0047;
678.6000;0.4843;1.0187;
678.9000;0.4835;1.0350;
679.2000;0.4835;1.0257;
679.5000;0.4835;1.0350;
679.8000;0.4811;1.0373;
680.1000;0.4843;1.0327;
680.4000;0.4811;1.0163;
680.7000;0.4811;1.0094;
681.0000;0.4835;1.0070;
681.3000;0.4803;1.0000;
681.6000;0.4803;0.9954;
681.9000;0.4819;1.0024;
682.2000;0.4803;1.0047;
682.5000;0.4794;0.9954;
682.8000;0.4868;1.0047;
683.1000;0.4803;0.9930;
683.4000;0.4819;1.0024;
683.7000;0.4819;1.0117;
684.0000;0.4770;1.0000;
684.3000;0.4803;1.0117;
684.6000;0.4794;1.0024;
684.9000;0.4803;0.9954;
685.2000;0.4803;0.9977;
685.5000;0.4794;0.9954;
685.8000;0.4803;1.0024;
686.1000;0.4827;1.0000;
686.4000;0.4794;0.9930;
686.7000;0.4892;1.0233;
687.0000;0.4770;0.9860;
687.3000;0.4794;0.9954;
687.6000;0.4851;1.0070;
687.9000;0.4794;0.9907;
688.2000;0.4778;0.9860;
688.5000;0.4794;0.9930;
688.8000;0.4786;0.9837;
689.1000;0.4770;0.9744;
689.4000;0.4770;0.9814;
689.7000;0.4770;0.9860;
690.0000;0.4762;0.9860;
690.3000;0.4770;1.0000;
690.6000;0.4786;0.9977;
690.9000;0.4778;1.0070;
691.2000;0.4762;1.0047;
691.5000;0.4794;1.0070;
691.8000;0.4762;1.0000;
692.1000;0.4754;0.9907;
692.4000;0.4762;0.9907;
692.7000;0.4778;0.9907;
693.0000;0.4754;0.9884;
693.3000;0.4754;0.9860;
693.6000;0.4754;0.9837;
693.9000;0.4754;0.9744;
694.2000;0.4746;0.9697;
694.5000;0.4721;0.9697;
694.8000;0.4754;0.9744;
695.1000;0.4754;0.9837;
695.4000;0.4746;0.9954;
695.7000;0.4754;0.9977;
696.0000;0.4746;1.0000;
696.3000;0.4737;0.9954;
696.6000;0.4746;0.9837;
696.9000;0.4746;0.9790;
697.2000;0.4762;0.9790;
697.5000;0.4762;0.9790;
697.8000;0.4746;0.9790;
698.1000;0.4737;0.9860;
698.4000;0.4721;0.9884;
698.7000;0.4721;0.9884;
699.0000;0.4746;0.9977;
699.3000;0.4737;0.9977;
699.6000;0.4762;1.0047;
699.9000;0.4721;0.9907;
700.2000;0.4746;1.0024;
700.5000;0.4713;0.9907;
700.8000;0.4713;0.9884;
701.1000;0.4713;0.9930;
701.4000;0.4746;1.0047;
701.7000;0.4713;1.0000;
702.0000;0.4705;1.0000;
702.3000;0.4713;1.0047;
702.6000;0.4737;1.0094;
702.9000;0.4697;0.9954;
703.2000;0.4705;1.0000;
703.5000;0.4705;1.0070;
703.8000;0.4697;1.0094;
704.1000;0.4713;1.0094;
704.4000;0.4737;1.0163;
704.7000;0.4737;1.0233;
705.0000;0.4681;1.0117;
705.3000;0.4721;1.0117;
705.6000;0.4721;1.0163;
705.9000;0.4713;1.0094;
706.2000;0.4705;1.0024;
706.5000;0.4689;0.9860;
706.8000;0.4697;0.9814;
707.1000;0.4697;0.9907;
707.4000;0.4672;0.9860;
707.7000;0.4713;0.9954;
708.0000;0.4697;1.0047;
708.3000;0.4697;1.0024;
708.6000;0.4681;1.0047;
708.9000;0.4689;1.0163;
709.2000;0.4689;1.0070;
709.5000;0.4689;1.0070;
709.8000;0.4689;1.0070;
710.1000;0.4697;1.0094;
710.4000;0.4721;1.0047;
710.7000;0.4689;1.0024;
711.0000;0.4681;0.9954;
711.3000;0.4705;1.0000;
711.6000;0.4705;0.9977;
711.9000;0.4713;1.0000;
712.2000;0.4737;1.0117;
712.5000;0.4729;1.0070;
712.8000;0.4705;1.0024;
713.1000;0.4681;0.9930;
713.4000;0.4705;1.0094;
713.7000;0.4681;1.0047;
714.0000;0.4656;0.9954;
714.3000;0.4640;1.0024;
714.6000;0.4697;1.0070;
714.9000;0.4689;1.0000;
715.2000;0.4689;1.0024;
715.5000;0.4713;1.0070;
715.8000;0.4681;1.0024;
716.1000;0.4689;1.0024;
716.4000;0.4697;1.0047;
716.7000;0.4664;1.0000;
717.0000;0.4689;1.0070;
717.3000;0.4681;1.0070;
717.6000;0.4697;1.0000;
717.9000;0.4689;1.0047;
718.2000;0.4664;1.0094;
718.5000;0.4672;1.0047;
718.8000;0.4664;1.0070;
719.1000;0.4681;1.0117;
719.4000;0.4697;1.0187;
719.7000;0.4681;1.0163;
720.0000;0.4681;1.0210;
720.3000;0.4672;1.0303;
720.6000;0.4672;1.0257;
720.9000;0.4640;1.0233;
721.2000;0.4681;1.0303;
721.5000;0.4640;1.0280;
721.8000;0.4672;1.0327;
722.1000;0.4689;1.0466;
722.4000;0.4681;1.0397;
722.7000;0.4681;1.0280;
723.0000;0.4689;1.0257;
723.3000;0.4664;1.0327;
723.6000;0.4689;1.0420;
723.9000;0.4681;1.0373;
724.2000;0.4664;1.0350;
724.5000;0.4664;1.0397;
724.8000;0.4664;1.0327;
725.1000;0.4656;1.0280;
725.4000;0.4664;1.0233;
725.7000;0.4664;1.0233;
726.0000;0.4656;1.0210;
726.3000;0.4664;1.0233;
726.6000;0.4672;1.0210;
726.9000;0.4656;1.0210;
727.2000;0.4648;1.0210;
727.5000;0.4656;1.0210;
727.8000;0.4640;1.0140;
728.1000;0.4664;1.0140;
728.4000;0.4648;1.0187;
728.7000;0.4632;1.0094;
729.0000;0.4640;1.0163;
729.3000;0.4640;1.0280;
729.6000;0.4624;1.0303;
729.9000;0.4624;1.0303;
730.2000;0.4664;1.0373;
730.5000;0.4656;1.0350;
730.8000;0.4624;1.0233;
731.1000;0.4632;1.0257;
731.4000;0.4640;1.0210;
731.7000;0.4648;1.0350;
732.0000;0.4656;1.0303;
732.3000;0.4632;1.0280;
732.6000;0.4664;1.0397;
732.9000;0.4656;1.0350;
733.2000;0.4648;1.0280;
733.5000;0.4648;1.0233;
733.8000;0.4640;1.0327;
734.1000;0.4648;1.0350;
734.4000;0.4648;1.0397;
734.7000;0.4632;1.0350;
735.0000;0.4640;1.0257;
735.3000;0.4607;1.0210;
735.6000;0.4615;1.0233;
735.9000;0.4640;1.0303;
736.2000;0.4648;1.0280;
736.5000;0.4615;1.0210;
736.8000;0.4640;1.0397;
737.1000;0.4648;1.0327;
737.4000;0.4640;1.0303;
737.7000;0.4607;1.0210;
738.0000;0.4640;1.0257;
738.3000;0.4615;1.0187;
738.6000;0.4632;1.0187;
738.9000;0.4624;1.0117;
739.2000;0.4624;1.0187;
739.5000;0.4550;1.0024;
739.8000;0.4624;1.0187;
740.1000;0.4615;1.0117;
740.4000;0.4640;1.0210;
740.7000;0.4624;1.0117;
741.0000;0.4624;1.0210;
741.3000;0.4615;1.0140;
741.6000;0.4615;1.0117;
741.9000;0.4640;1.0163;
742.2000;0.4624;1.0140;
742.5000;0.4648;1.0047;
742.8000;0.4615;1.0047;
743.1000;0.4607;1.0070;
743.4000;0.4656;1.0210;
743.7000;0.4607;1.0233;
744.0000;0.4624;1.0257;
744.3000;0.4607;1.0094;
744.6000;0.4615;1.0000;
744.9000;0.4607;1.0000;
745.2000;0.4607;0.9954;
745.5000;0.4624;0.9977;
745.8000;0.4632;0.9930;
746.1000;0.4624;0.9954;
746.4000;0.4599;0.9930;
746.7000;0.4615;0.9954;
747.0000;0.4607;0.9930;
747.3000;0.4615;1.0000;
747.6000;0.4624;1.0047;
747.9000;0.4615;1.0094;
748.2000;0.4615;1.0140;
748.5000;0.4567;1.0140;
748.8000;0.4615;1.0373;
749.1000;0.4591;1.0443;
749.4000;0.4607;1.0536;
749.7000;0.4583;1.0443;
750.0000;0.4615;1.0513;
750.3000;0.4575;1.0420;
750.6000;0.4575;1.0490;
750.9000;0.4624;1.0490;
751.2000;0.4607;1.0490;
751.5000;0.4575;1.0490;
751.8000;0.4607;1.0513;
752.1000;0.4607;1.0443;
752.4000;0.4575;1.0327;
752.7000;0.4518;1.0210;
753.0000;0.4583;1.0420;
753.3000;0.4534;1.0303;
753.6000;0.4558;1.0327;
753.9000;0.4648;1.0466;
754.2000;0.4558;1.0327;
754.5000;0.4575;1.0397;
754.8000;0.4607;1.0397;
755.1000;0.4575;1.0303;
755.4000;0.4583;1.0327;
755.7000;0.4591;1.0327;
756.0000;0.4583;1.0233;
756.3000;0.4591;1.0257;
756.6000;0.4583;1.0187;
756.9000;0.4591;1.0163;
757.2000;0.4583;1.0117;
757.5000;0.4591;1.0117;
757.8000;0.4624;1.0094;
758.1000;0.4526;0.9860;
758.4000;0.4607;1.0163;
758.7000;0.4583;1.0094;
759.0000;0.4550;1.0000;
759.3000;0.4607;1.0070;
759.6000;0.4583;1.0000;
759.9000;0.4583;1.0024;
760.2000;0.4567;0.9930;
760.5000;0.4591;0.9977;
760.8000;0.4558;0.9977;
761.1000;0.4624;1.0163;
761.4000;0.4575;1.0094;
761.7000;0.4534;0.9954;
762.0000;0.4567;1.0024;
762.3000;0.4615;1.0140;
762.6000;0.4558;1.0047;
762.9000;0.4518;1.0000;
763.2000;0.4575;1.0094;
763.5000;0.4599;1.0163;
763.8000;0.4583;1.0117;
764.1000;0.4599;1.0117;
764.4000;0.4575;1.0047;
764.7000;0.4567;1.0000;
765.0000;0.4591;1.0094;
765.3000;0.4567;0.9954;
765.6000;0.4607;1.0047;
765.9000;0.4599;1.0047;
766.2000;0.4542;1.0024;
766.5000;0.4567;1.0094;
766.8000;0.4534;1.0024;
767.1000;0.4575;1.0163;
767.4000;0.4575;1.0140;
767.7000;0.4591;1.0257;
768.0000;0.4558;1.0257;
768.3000;0.4575;1.0280;
768.6000;0.4567;1.0257;
768.9000;0.4558;1.0233;
769.2000;0.4575;1.0210;
769.5000;0.4558;1.0233;
769.8000;0.4550;1.0280;
770.1000;0.4583;1.0303;
770.4000;0.4558;1.0233;
770.7000;0.4567;1.0140;
771.0000;0.4558;1.0163;
771.3000;0.4558;1.0163;
771.6000;0.4567;1.0233;
771.9000;0.4567;1.0280;
772.2000;0.4550;1.0350;
772.5000;0.4567;1.0350;
772.8000;0.4567;1.0303;
773.1000;0.4558;1.0303;
773.4000;0.4534;1.0140;
773.7000;0.4615;1.0187;
774.0000;0.4558;1.0094;
774.3000;0.4640;1.0257;
774.6000;0.4526;0.9977;
774.9000;0.4542;1.0024;
775.2000;0.4542;1.0047;
775.5000;0.4599;1.0094;
775.8000;0.4542;0.9954;
776.1000;0.4656;1.0233;
776.4000;0.4526;0.9954;
776.7000;0.4542;1.0000;
777.0000;0.4542;1.0047;
777.3000;0.4558;1.0094;
777.6000;0.4542;1.0117;
777.9000;0.4550;1.0257;
778.2000;0.4501;1.0210;
778.5000;0.4534;1.0233;
778.8000;0.4526;1.0210;
779.1000;0.4550;1.0187;
779.4000;0.4534;1.0140;
779.7000;0.4526;1.0163;
780.0000;0.4550;1.0257;
780.3000;0.4526;1.0163;
780.6000;0.4510;1.0163;
780.9000;0.4518;1.0233;
781.2000;0.4534;1.0187;
781.5000;0.4444;0.9907;
781.8000;0.4534;1.0047;
782.1000;0.4510;0.9930;
782.4000;0.4542;1.0024;
782.7000;0.4534;1.0047;
783.0000;0.4550;1.0024;
783.3000;0.4542;1.0094;
783.6000;0.4550;1.0140;
783.9000;0.4510;1.0070;
784.2000;0.4550;1.0233;
784.5000;0.4469;1.0000;
784.8000;0.4526;1.0233;
785.1000;0.4526;1.0187;
785.4000;0.4526;1.0140;
785.7000;0.4526;1.0233;
786.0000;0.4510;1.0187;
786.3000;0.4501;1.0140;
786.6000;0.4550;1.0257;
786.9000;0.4518;1.0187;
787.2000;0.4534;1.0280;
787.5000;0.4526;1.0327;
787.8000;0.4542;1.0350;
788.1000;0.4583;1.0490;
788.4000;0.4534;1.0397;
788.7000;0.4518;1.0303;
789.0000;0.4518;1.0257;
789.3000;0.4510;1.0140;
789.6000;0.4534;1.0163;
789.9000;0.4485;1.0070;
790.2000;0.4542;1.0280;
790.5000;0.4542;1.0303;
790.8000;0.4550;1.0350;
791.1000;0.4518;1.0303;
791.4000;0.4534;1.0350;
791.7000;0.4607;1.0700;
792.0000;0.4534;1.0443;
792.3000;0.4501;1.0397;
792.6000;0.4493;1.0303;
792.9000;0.4518;1.0350;
793.2000;0.4518;1.0280;
793.5000;0.4558;1.0327;
793.8000;0.4510;1.0233;
794.1000;0.4518;1.0257;
794.4000;0.4518;1.0327;
794.7000;0.4534;1.0257;
795.0000;0.4518;1.0280;
795.3000;0.4501;1.0303;
795.6000;0.4591;1.0536;
795.9000;0.4485;1.0303;
796.2000;0.4526;1.0350;
796.5000;0.4526;1.0327;
796.8000;0.4526;1.0257;
797.1000;0.4526;1.0210;
797.4000;0.4518;1.0187;
797.7000;0.4518;1.0257;
798.0000;0.4510;1.0257;
798.3000;0.4510;1.0350;
798.6000;0.4542;1.0397;
798.9000;0.4583;1.0420;
799.2000;0.4379;0.9907;
799.5000;0.4567;1.0420;
799.8000;0.4526;1.0350;
800.1000;0.4518;1.0397;
800.4000;0.4501;1.0420;
800.7000;0.4493;1.0373;
801.0000;0.4518;1.0466;
801.3000;0.4526;1.0397;
801.6000;0.4501;1.0350;
801.9000;0.4518;1.0350;
802.2000;0.4510;1.0373;
802.5000;0.4518;1.0397;
802.8000;0.4477;1.0303;
803.1000;0.4493;1.0303;
803.4000;0.4493;1.0373;
803.7000;0.4518;1.0420;
804.0000;0.4501;1.0466;
804.3000;0.4501;1.0560;
804.6000;0.4550;1.0630;
804.9000;0.4518;1.0560;
805.2000;0.4469;1.0420;
805.5000;0.4469;1.0490;
805.8000;0.4501;1.0536;
806.1000;0.4550;1.0560;
806.4000;0.4453;1.0303;
806.7000;0.4518;1.0373;
807.0000;0.4485;1.0280;
807.3000;0.4493;1.0233;
807.6000;0.4493;1.0257;
807.9000;0.4493;1.0280;
808.2000;0.4469;1.0233;
808.5000;0.4510;1.0257;
808.8000;0.4501;1.0210;
809.1000;0.4510;1.0117;
809.4000;0.4477;1.0070;
809.7000;0.4485;1.0163;
810.0000;0.4510;1.0187;
810.3000;0.4485;1.0210;
810.6000;0.4493;1.0303;
810.9000;0.4485;1.0280;
811.2000;0.4493;1.0327;
811.5000;0.4493;1.0303;
811.8000;0.4501;1.0163;
812.1000;0.4485;1.0210;
812.4000;0.4550;1.0397;
812.7000;0.4518;1.0280;
813.0000;0.4461;1.0094;
813.3000;0.4542;1.0233;
813.6000;0.4510;1.0280;
813.9000;0.4493;1.0257;
814.2000;0.4485;1.0257;
814.5000;0.4501;1.0397;
814.8000;0.4493;1.0466;
815.1000;0.4493;1.0490;
815.4000;0.4477;1.0350;
815.7000;0.4501;1.0397;
816.0000;0.4485;1.0280;
816.3000;0.4501;1.0233;
816.6000;0.4542;1.0280;
816.9000;0.4485;1.0257;
817.2000;0.4510;1.0280;
817.5000;0.4485;1.0280;
817.8000;0.4493;1.0280;
818.1000;0.4493;1.0233;
818.4000;0.4428;1.0047;
818.7000;0.4493;1.0163;
819.0000;0.4412;0.9977;
819.3000;0.4412;0.9977;
819.6000;0.4477;1.0070;
819.9000;0.4493;1.0117;
820.2000;0.4501;1.0233;
820.5000;0.4477;1.0233;
820.8000;0.4469;1.0210;
821.1000;0.4453;1.0257;
821.4000;0.4453;1.0117;
821.7000;0.4469;1.0210;
822.0000;0.4477;1.0187;
822.3000;0.4412;1.0047;
822.6000;0.4444;1.0187;
822.9000;0.4485;1.0280;
823.2000;0.4444;1.0233;
823.5000;0.4469;1.0257;
823.8000;0.4477;1.0280;
824.1000;0.4428;1.0140;
824.4000;0.4477;1.0187;
824.7000;0.4428;1.0070;
825.0000;0.4485;1.0187;
825.3000;0.4469;1.0303;
825.6000;0.4501;1.0303;
825.9000;0.4453;1.0163;
826.2000;0.4485;1.0303;
826.5000;0.4526;1.0490;
826.8000;0.4469;1.0280;
827.1000;0.4461;1.0303;
827.4000;0.4510;1.0443;
827.7000;0.4469;1.0280;
828.0000;0.4461;1.0327;
828.3000;0.4469;1.0350;
828.6000;0.4453;1.0373;
828.9000;0.4477;1.0420;
829.2000;0.4469;1.0443;
829.5000;0.4461;1.0327;
829.8000;0.4461;1.0303;
830.1000;0.4469;1.0187;
830.4000;0.4501;1.0233;
830.7000;0.4461;1.0117;
831.0000;0.4461;1.0187;
831.3000;0.4526;1.0350;
831.6000;0.4485;1.0257;
831.9000;0.4477;1.0257;
832.2000;0.4477;1.0233;
832.5000;0.4453;1.0094;
832.8000;0.4453;1.0000;
833.1000;0.4461;1.0117;
833.4000;0.4453;1.0094;
833.7000;0.4444;1.0070;
834.0000;0.4453;1.0117;
834.3000;0.4453;1.0117;
834.6000;0.4453;1.0163;
834.9000;0.4453;1.0140;
835.2000;0.4444;1.0117;
835.5000;0.4436;1.0140;
835.8000;0.4444;1.0070;
836.1000;0.4453;1.0070;
836.4000;0.4477;1.0187;
836.7000;0.4477;1.0280;
837.0000;0.4461;1.0257;
837.3000;0.4501;1.0327;
837.6000;0.4461;1.0233;
837.9000;0.4510;1.0350;
838.2000;0.4469;1.0233;
838.5000;0.4404;1.0117;
838.8000;0.4485;1.0257;
839.1000;0.4485;1.0280;
839.4000;0.4461;1.0210;
839.7000;0.4428;1.0140;
840.0000;0.4485;1.0163;
840.3000;0.4453;1.0117;
840.6000;0.4404;1.0024;
840.9000;0.4461;1.0257;
841.2000;0.4444;1.0303;
841.5000;0.4461;1.0280;
841.8000;0.4469;1.0303;
842.1000;0.4412;1.0303;
842.4000;0.4420;1.0303;
842.7000;0.4436;1.0350;
843.0000;0.4420;1.0257;
843.3000;0.4469;1.0420;
843.6000;0.4469;1.0327;
843.9000;0.4412;1.0303;
844.2000;0.4453;1.0373;
844.5000;0.4453;1.0350;
844.8000;0.4453;1.0280;
845.1000;0.4485;1.0373;
845.4000;0.4461;1.0257;
845.7000;0.4444;1.0327;
846.0000;0.4461;1.0257;
846.3000;0.4469;1.0233;
846.6000;0.4444;1.0233;
846.9000;0.4444;1.0257;
847.2000;0.4453;1.0233;
847.5000;0.4461;1.0303;
847.8000;0.4461;1.0373;
848.1000;0.4469;1.0420;
848.4000;0.4420;1.0233;
848.7000;0.4453;1.0280;
849.0000;0.4453;1.0303;
849.3000;0.4444;1.0327;
849.6000;0.4469;1.0373;
849.9000;0.4453;1.0443;
850.2000;0.4404;1.0257;
850.5000;0.4461;1.0373;
850.8000;0.4444;1.0397;
851.1000;0.4510;1.0513;
851.4000;0.4453;1.0397;
851.7000;0.4461;1.0303;
852.0000;0.4461;1.0327;
852.3000;0.4444;1.0257;
852.6000;0.4420;1.0233;
852.9000;0.4436;1.0257;
853.2000;0.4436;1.0303;
853.5000;0.4444;1.0257;
853.8000;0.4436;1.0280;
854.1000;0.4355;1.0117;
854.4000;0.4444;1.0350;
854.7000;0.4436;1.0257;
855.0000;0.4436;1.0187;
855.3000;0.4485;1.0140;
855.6000;0.4469;1.0187;
855.9000;0.4461;1.0210;
856.2000;0.4436;1.0163;
856.5000;0.4412;1.0094;
856.8000;0.4436;1.0233;
857.1000;0.4420;1.0187;
857.4000;0.4453;1.0117;
857.7000;0.4444;1.0070;
858.0000;0.4436;1.0140;
858.3000;0.4436;1.0140;
858.6000;0.4444;1.0163;
858.9000;0.4436;1.0070;
859.2000;0.4453;1.0094;
859.5000;0.4444;1.0094;
859.8000;0.4453;1.0070;
860.1000;0.4444;1.0094;
860.4000;0.4444;1.0117;
860.7000;0.4436;1.0163;
861.0000;0.4453;1.0233;
861.3000;0.4420;1.0047;
861.6000;0.4436;1.0070;
861.9000;0.4444;1.0117;
862.2000;0.4436;1.0117;
862.5000;0.4428;1.0117;
862.8000;0.4461;1.0210;
863.1000;0.4477;1.0257;
863.4000;0.4469;1.0187;
863.7000;0.4453;1.0187;
864.0000;0.4436;1.0187;
864.3000;0.4453;1.0117;
864.6000;0.4436;1.0047;
864.9000;0.4453;1.0117;
865.2000;0.4469;1.0187;
865.5000;0.4436;1.0047;
865.8000;0.4436;1.0047;
866.1000;0.4461;1.0163;
866.4000;0.4428;1.0187;
866.7000;0.4420;1.0163;
867.0000;0.4444;1.0257;
867.3000;0.4436;1.0210;
867.6000;0.4444;1.0140;
867.9000;0.4428;1.0094;
868.2000;0.4436;1.0210;
868.5000;0.4436;1.0187;
868.8000;0.4436;1.0303;
869.1000;0.4404;1.0257;
869.4000;0.4436;1.0327;
869.7000;0.4420;1.0163;
870.0000;0.4436;1.0210;
870.3000;0.4420;1.0140;
870.6000;0.4387;1.0024;
870.9000;0.4420;1.0117;
871.2000;0.4526;1.0303;
871.5000;0.4469;1.0187;
871.8000;0.4428;1.0094;
872.1000;0.4428;1.0000;
872.4000;0.4436;1.0047;
872.7000;0.4436;1.0024;
873.0000;0.4436;1.0024;
873.3000;0.4412;0.9977;
873.6000;0.4461;1.0233;
873.9000;0.4428;1.0210;
874.2000;0.4420;1.0163;
874.5000;0.4444;1.0280;
874.8000;0.4428;1.0210;
875.1000;0.4371;1.0024;
875.4000;0.4420;1.0094;
875.7000;0.4428;1.0024;
876.0000;0.4387;0.9954;
876.3000;0.4436;1.0000;
876.6000;0.4420;0.9954;
876.9000;0.4428;0.9930;
877.2000;0.4436;0.9860;
877.5000;0.4404;0.9814;
877.8000;0.4444;0.9860;
878.1000;0.4428;0.9860;
878.4000;0.4428;0.9884;
878.7000;0.4420;0.9907;
879.0000;0.4444;0.9884;
879.3000;0.4396;0.9744;
879.6000;0.4412;0.9767;
879.9000;0.4428;0.9884;
880.2000;0.4436;0.9837;
880.5000;0.4485;1.0000;
880.8000;0.4420;0.9790;
881.1000;0.4396;0.9790;
881.4000;0.4436;0.9884;
881.7000;0.4420;0.9930;
882.0000;0.4420;0.9930;
882.3000;0.4396;0.9930;
882.6000;0.4420;0.9907;
882.9000;0.4420;0.9907;
883.2000;0.4428;0.9977;
883.5000;0.4428;0.9907;
883.8000;0.4404;0.9930;
884.1000;0.4396;0.9954;
884.4000;0.4420;0.9977;
884.7000;0.4396;0.9930;
885.0000;0.4396;1.0000;
885.3000;0.4404;1.0000;
885.6000;0.4412;0.9930;
885.9000;0.4412;1.0000;
886.2000;0.4444;1.0000;
886.5000;0.4428;0.9954;
886.8000;0.4420;0.9930;
887.1000;0.4396;0.9884;
887.4000;0.4387;0.9860;
887.7000;0.4387;0.9954;
888.0000;0.4420;1.0070;
888.3000;0.4420;1.0094;
888.6000;0.4444;1.0094;
888.9000;0.4404;0.9907;
889.2000;0.4444;0.9977;
889.5000;0.4420;0.9977;
889.8000;0.4420;0.9907;
890.1000;0.4412;0.9907;
890.4000;0.4428;1.0070;
890.7000;0.4436;1.0094;
891.0000;0.4428;1.0047;
891.3000;0.4387;1.0024;
891.6000;0.4404;1.0024;
891.9000;0.4420;1.0047;
892.2000;0.4404;0.9954;
892.5000;0.4379;0.9930;
892.8000;0.4428;1.0047;
893.1000;0.4428;1.0094;
893.4000;0.4412;0.9977;
893.7000;0.4420;1.0024;
894.0000;0.4404;1.0024;
894.3000;0.4387;0.9977;
894.6000;0.4453;1.0117;
894.9000;0.4412;1.0024;
895.2000;0.4396;0.9954;
895.5000;0.4379;1.0024;
895.8000;0.4420;1.0163;
896.1000;0.4436;1.0210;
896.4000;0.4412;1.0140;
896.7000;0.4493;1.0303;
897.0000;0.4420;1.0140;
897.3000;0.4387;1.0000;
897.6000;0.4387;0.9977;
897.9000;0.4420;1.0047;
898.2000;0.4396;0.9977;
898.5000;0.4404;0.9907;
898.8000;0.4428;0.9860;
899.1000;0.4396;0.9860;
899.4000;0.4404;0.9884;
899.7000;0.4428;0.9954;
900.0000;0.4404;0.9837;
900.3000;0.4396;0.9790;
900.6000;0.4404;0.9860;
900.9000;0.4396;0.9837;
901.2000;0.4396;0.9814;
901.5000;0.4404;0.9837;
901.8000;0.4396;0.9907;
902.1000;0.4420;0.9907;
902.4000;0.4412;0.9860;
902.7000;0.4404;0.9860;
903.0000;0.4412;0.9814;
903.3000;0.4436;0.9907;
903.6000;0.4404;0.9744;
903.9000;0.4412;0.9767;
904.2000;0.4412;0.9814;
904.5000;0.4420;0.9814;
904.8000;0.4428;0.9721;
905.1000;0.4412;0.9744;
905.4000;0.4404;0.9767;
905.7000;0.4412;0.9767;
906.0000;0.4412;0.9860;
906.3000;0.4428;0.9977;
906.6000;0.4404;0.9954;
906.9000;0.4428;1.0047;
907.2000;0.4436;1.0070;
907.5000;0.4428;1.0047;
907.8000;0.4420;1.0024;
908.1000;0.4420;0.9907;
908.4000;0.4396;0.9884;
908.7000;0.4396;0.9884;
909.0000;0.4404;0.9907;
909.3000;0.4412;0.9930;
909.6000;0.4420;0.9954;
909.9000;0.4379;0.9907;
910.2000;0.4379;0.9954;
910.5000;0.4485;1.0373;
910.8000;0.4404;1.0163;
911.1000;0.4469;1.0303;
911.4000;0.4444;1.0210;
911.7000;0.4404;1.0094;
912.0000;0.4379;0.9977;
912.3000;0.4396;1.0000;
912.6000;0.4412;1.0000;
912.9000;0.4404;1.0000;
913.2000;0.4412;1.0070;
913.5000;0.4436;1.0047;
913.8000;0.4412;1.0047;
914.1000;0.4396;1.0070;
914.4000;0.4420;1.0070;
914.7000;0.4404;1.0024;
915.0000;0.4420;1.0117;
915.3000;0.4436;1.0233;
915.6000;0.4412;1.0024;
915.9000;0.4396;0.9977;
916.2000;0.4290;0.9697;
916.5000;0.4404;0.9954;
916.8000;0.4387;0.9954;
917.1000;0.4404;1.0000;
917.4000;0.4396;0.9954;
917.7000;0.4404;0.9907;
918.0000;0.4404;0.9930;
918.3000;0.4420;0.9977;
918.6000;0.4412;0.9977;
918.9000;0.4404;0.9930;
919.2000;0.4396;0.9954;
919.5000;0.4387;1.0047;
919.8000;0.4396;1.0117;
920.1000;0.4387;1.0140;
920.4000;0.4363;1.0047;
920.7000;0.4420;1.0210;
921.0000;0.4404;1.0117;
921.3000;0.4387;1.0070;
921.6000;0.4371;1.0117;
921.9000;0.4387;1.0117;
922.2000;0.4412;1.0163;
922.5000;0.4420;1.0233;
922.8000;0.4412;1.0233;
923.1000;0.4404;1.0210;
923.4000;0.4404;1.0117;
923.7000;0.4387;1.0163;
924.0000;0.4396;1.0233;
924.3000;0.4371;1.0303;
924.6000;0.4379;1.0280;
924.9000;0.4404;1.0303;
925.2000;0.4412;1.0420;
925.5000;0.4396;1.0280;
925.8000;0.4396;1.0280;
926.1000;0.4379;1.0210;
926.4000;0.4363;1.0187;
926.7000;0.4363;1.0140;
927.0000;0.4363;1.0117;
927.3000;0.4510;1.0443;
927.6000;0.4396;1.0140;
927.9000;0.4404;1.0117;
928.2000;0.4371;1.0094;
928.5000;0.4404;1.0140;
928.8000;0.4404;1.0140;
929.1000;0.4396;1.0094;
929.4000;0.4371;1.0000;
929.7000;0.4379;1.0000;
930.0000;0.4387;1.0094;
930.3000;0.4396;1.0187;
930.6000;0.4387;1.0233;
930.9000;0.4371;1.0280;
931.2000;0.4387;1.0443;
931.5000;0.4396;1.0397;
931.8000;0.4379;1.0280;
932.1000;0.4387;1.0233;
932.4000;0.4428;1.0350;
932.7000;0.4420;1.0350;
933.0000;0.4404;1.0233;
933.3000;0.4371;1.0163;
933.6000;0.4379;1.0303;
933.9000;0.4387;1.0373;
934.2000;0.4379;1.0420;
934.5000;0.4379;1.0513;
934.8000;0.4355;1.0513;
935.1000;0.4436;1.0630;
935.4000;0.4412;1.0560;
935.7000;0.4387;1.0606;
936.0000;0.4371;1.0490;
936.3000;0.4379;1.0490;
936.6000;0.4371;1.0373;
936.9000;0.4404;1.0420;
937.2000;0.4396;1.0420;
937.5000;0.4347;1.0257;
937.8000;0.4436;1.0466;
938.1000;0.4396;1.0280;
938.4000;0.4363;1.0280;
938.7000;0.4379;1.0303;
939.0000;0.4404;1.0373;
939.3000;0.4469;1.0583;
939.6000;0.4396;1.0443;
939.9000;0.4379;1.0490;
940.2000;0.4534;1.0793;
940.5000;0.4396;1.0420;
940.8000;0.4379;1.0327;
941.1000;0.4347;1.0233;
941.4000;0.4396;1.0327;
941.7000;0.4404;1.0280;
942.0000;0.4396;1.0280;
942.3000;0.4404;1.0397;
942.6000;0.4387;1.0397;
942.9000;0.4396;1.0443;
943.2000;0.4396;1.0373;
943.5000;0.4396;1.0327;
943.8000;0.4404;1.0397;
944.1000;0.4420;1.0490;
944.4000;0.4412;1.0443;
944.7000;0.4420;1.0443;
945.0000;0.4428;1.0443;
945.3000;0.4396;1.0233;
945.6000;0.4404;1.0257;
945.9000;0.4436;1.0466;
946.2000;0.4387;1.0303;
946.5000;0.4387;1.0210;
946.8000;0.4379;1.0163;
947.1000;0.4387;1.0163;
947.4000;0.4412;1.0257;
947.7000;0.4379;1.0187;
948.0000;0.4396;1.0210;
948.3000;0.4387;1.0303;
948.6000;0.4396;1.0327;
948.9000;0.4396;1.0280;
949.2000;0.4404;1.0257;
949.5000;0.4404;1.0327;
949.8000;0.4379;1.0233;
950.1000;0.4396;1.0303;
950.4000;0.4371;1.0280;
950.7000;0.4379;1.0350;
951.0000;0.4371;1.0303;
951.3000;0.4371;1.0233;
951.6000;0.4371;1.0257;
951.9000;0.4396;1.0303;
952.2000;0.4355;1.0187;
952.5000;0.4371;1.0257;
952.8000;0.4371;1.0280;
953.1000;0.4379;1.0257;
953.4000;0.4387;1.0210;
953.7000;0.4379;1.0163;
954.0000;0.4387;1.0163;
954.3000;0.4387;1.0233;
954.6000;0.4330;1.0094;
954.9000;0.4290;1.0024;
955.2000;0.4379;1.0163;
955.5000;0.4404;1.0094;
955.8000;0.4412;1.0163;
956.1000;0.4387;1.0257;
956.4000;0.4371;1.0187;
956.7000;0.4379;1.0210;
957.0000;0.4379;1.0187;
957.3000;0.4371;1.0210;
957.6000;0.4379;1.0350;
957.9000;0.4396;1.0490;
958.2000;0.4396;1.0466;
958.5000;0.4371;1.0397;
958.8000;0.4371;1.0327;
959.1000;0.4371;1.0233;
959.4000;0.4387;1.0140;
959.7000;0.4363;1.0070;
960.0000;0.4363;1.0094;
960.3000;0.4371;1.0257;
960.6000;0.4371;1.0327;
960.9000;0.4436;1.0513;
961.2000;0.4379;1.0327;
961.5000;0.4379;1.0303;
961.8000;0.4371;1.0397;
962.1000;0.4371;1.0327;
962.4000;0.4363;1.0327;
962.7000;0.4355;1.0327;
963.0000;0.4314;1.0327;
963.3000;0.4396;1.0560;
963.6000;0.4363;1.0466;
963.9000;0.4355;1.0373;
964.2000;0.4355;1.0397;
964.5000;0.4363;1.0420;
964.8000;0.4387;1.0443;
965.1000;0.4355;1.0420;
965.4000;0.4371;1.0373;
965.7000;0.4355;1.0303;
966.0000;0.4379;1.0373;
966.3000;0.4371;1.0397;
966.6000;0.4379;1.0327;
966.9000;0.4298;1.0117;
967.2000;0.4396;1.0257;
967.5000;0.4396;1.0327;
967.8000;0.4387;1.0350;
968.1000;0.4371;1.0373;
968.4000;0.4420;1.0513;
968.7000;0.4379;1.0397;
969.0000;0.4330;1.0303;
969.3000;0.4404;1.0373;
969.6000;0.4387;1.0397;
969.9000;0.4404;1.0420;
970.2000;0.4404;1.0513;
970.5000;0.4387;1.0466;
970.8000;0.4387;1.0443;
971.1000;0.4355;1.0350;
971.4000;0.4396;1.0466;
971.7000;0.4371;1.0466;
972.0000;0.4339;1.0420;
972.3000;0.4363;1.0350;
972.6000;0.4379;1.0397;
972.9000;0.4363;1.0327;
973.2000;0.4379;1.0327;
973.5000;0.4396;1.0490;
973.8000;0.4363;1.0443;
974.1000;0.4404;1.0490;
974.4000;0.4387;1.0560;
974.7000;0.4396;1.0676;
975.0000;0.4379;1.0630;
975.3000;0.4396;1.0630;
975.6000;0.4371;1.0536;
975.9000;0.4371;1.0466;
976.2000;0.4371;1.0420;
976.5000;0.4379;1.0350;
976.8000;0.4363;1.0350;
977.1000;0.4387;1.0443;
977.4000;0.4371;1.0420;
977.7000;0.4347;1.0373;
978.0000;0.4379;1.0466;
978.3000;0.4363;1.0490;
978.6000;0.4363;1.0420;
978.9000;0.4290;1.0233;
979.2000;0.4387;1.0397;
979.5000;0.4371;1.0327;
979.8000;0.4363;1.0280;
980.1000;0.4371;1.0397;
980.4000;0.4453;1.0466;
980.7000;0.4363;1.0280;
981.0000;0.4330;1.0163;
981.3000;0.4428;1.0397;
981.6000;0.4387;1.0280;
981.9000;0.4347;1.0163;
982.2000;0.4371;1.0257;
982.5000;0.4282;1.0024;
982.8000;0.4420;1.0373;
983.1000;0.4339;1.0187;
983.4000;0.4330;1.0257;
983.7000;0.4387;1.0466;
984.0000;0.4379;1.0490;
984.3000;0.4371;1.0443;
984.6000;0.4363;1.0350;
984.9000;0.4355;1.0303;
985.2000;0.4355;1.0397;
985.5000;0.4355;1.0443;
985.8000;0.4363;1.0536;
986.1000;0.4387;1.0443;
986.4000;0.4347;1.0280;
986.7000;0.4428;1.0327;
987.0000;0.4387;1.0257;
987.3000;0.4379;1.0257;
987.6000;0.4347;1.0140;
987.9000;0.4396;1.0233;
988.2000;0.4396;1.0280;
988.5000;0.4339;1.0094;
988.8000;0.4355;1.0257;
989.1000;0.4363;1.0257;
989.4000;0.4306;1.0187;
989.7000;0.4314;1.0163;
990.0000;0.4347;1.0210;
990.3000;0.4371;1.0210;
990.6000;0.4355;1.0163;
990.9000;0.4355;1.0233;
991.2000;0.4322;1.0210;
991.5000;0.4379;1.0373;
991.8000;0.4379;1.0397;
992.1000;0.4387;1.0466;
992.4000;0.4347;1.0303;
992.7000;0.4379;1.0303;
993.0000;0.4355;1.0350;
993.3000;0.4347;1.0373;
993.6000;0.4330;1.0350;
993.9000;0.4355;1.0420;
994.2000;0.4355;1.0420;
994.5000;0.4330;1.0420;
994.8000;0.4396;1.0490;
995.1000;0.4355;1.0373;
995.4000;0.4396;1.0513;
995.7000;0.4371;1.0490;
996.0000;0.4355;1.0373;
996.3000;0.4347;1.0350;
996.6000;0.4379;1.0420;
996.9000;0.4371;1.0443;
997.2000;0.4379;1.0606;
997.5000;0.4347;1.0653;
997.8000;0.4387;1.0630;
998.1000;0.4355;1.0466;
998.4000;0.4363;1.0513;
998.7000;0.4355;1.0466;
999.0000;0.4347;1.0303;
999.3000;0.4363;1.0303;
999.6000;0.4339;1.0257;
999.9000;0.4347;1.0257;
1000.2000;0.4363;1.0280;
1000.5000;0.4412;1.0350;
1000.8000;0.4387;1.0303;
1001.1000;0.4404;1.0257;
1001.4000;0.4379;1.0233;
1001.7000;0.4379;1.0280;
1002.0000;0.4339;1.0210;
1002.3000;0.4371;1.0327;
1002.6000;0.4379;1.0397;
1002.9000;0.4355;1.0303;
1003.2000;0.4363;1.0327;
1003.5000;0.4355;1.0490;
1003.8000;0.4298;1.0350;
1004.1000;0.4355;1.0536;
1004.4000;0.4347;1.0466;
1004.7000;0.4387;1.0490;
1005.0000;0.4355;1.0373;
1005.3000;0.4404;1.0443;
1005.6000;0.4371;1.0303;
1005.9000;0.4379;1.0327;
1006.2000;0.4371;1.0280;
1006.5000;0.4314;1.0117;
1006.8000;0.4355;1.0187;
1007.1000;0.4493;1.0536;
1007.4000;0.4444;1.0443;
1007.7000;0.4387;1.0397;
1008.0000;0.4371;1.0350;
1008.3000;0.4274;1.0094;
1008.6000;0.4330;1.0210;
1008.9000;0.4347;1.0210;
1009.2000;0.4371;1.0163;
1009.5000;0.4355;1.0117;
1009.8000;0.4371;1.0117;
1010.1000;0.4355;1.0140;
1010.4000;0.4379;1.0187;
1010.7000;0.4404;1.0280;
1011.0000;0.4363;1.0210;
1011.3000;0.4363;1.0210;
1011.6000;0.4379;1.0350;
1011.9000;0.4396;1.0420;
1012.2000;0.4379;1.0443;
1012.5000;0.4330;1.0350;
1012.8000;0.4322;1.0350;
1013.1000;0.4355;1.0420;
1013.4000;0.4322;1.0350;
1013.7000;0.4339;1.0350;
1014.0000;0.4339;1.0303;
1014.3000;0.4396;1.0420;
1014.6000;0.4363;1.0397;
1014.9000;0.4347;1.0466;
1015.2000;0.4347;1.0513;
1015.5000;0.4379;1.0513;
1015.8000;0.4379;1.0490;
1016.1000;0.4371;1.0466;
1016.4000;0.4363;1.0490;
1016.7000;0.4371;1.0513;
1017.0000;0.4371;1.0490;
1017.3000;0.4379;1.0373;
1017.6000;0.4379;1.0373;
1017.9000;0.4347;1.0350;
1018.2000;0.4355;1.0350;
1018.5000;0.4420;1.0443;
1018.8000;0.4371;1.0233;
1019.1000;0.4339;1.0117;
1019.4000;0.4355;1.0140;
1019.7000;0.4355;1.0140;
1020.0000;0.4355;1.0257;
1020.3000;0.4363;1.0280;
1020.6000;0.4379;1.0233;
1020.9000;0.4355;1.0163;
1021.2000;0.4363;1.0303;
1021.5000;0.4355;1.0327;
1021.8000;0.4347;1.0373;
1022.1000;0.4396;1.0466;
1022.4000;0.4339;1.0327;
1022.7000;0.4339;1.0420;
1023.0000;0.4290;1.0327;
1023.3000;0.4371;1.0536;
1023.6000;0.4363;1.0420;
1023.9000;0.4355;1.0397;
1024.2000;0.4347;1.0373;
1024.5000;0.4379;1.0397;
1024.8000;0.4371;1.0397;
1025.1000;0.4339;1.0443;
1025.4000;0.4347;1.0466;
1025.7000;0.4371;1.0583;
1026.0000;0.4371;1.0583;
1026.3000;0.4379;1.0536;
1026.6000;0.4355;1.0490;
1026.9000;0.4306;1.0257;
1027.2000;0.4355;1.0397;
1027.5000;0.4355;1.0350;
1027.8000;0.4355;1.0397;
1028.1000;0.4387;1.0490;
1028.4000;0.4412;1.0560;
1028.7000;0.4355;1.0327;
1029.0000;0.4371;1.0303;
1029.3000;0.4363;1.0257;
1029.6000;0.4363;1.0210;
1029.9000;0.4290;1.0000;
1030.2000;0.4387;1.0233;
1030.5000;0.4363;1.0140;
1030.8000;0.4379;1.0163;
1031.1000;0.4371;1.0187;
1031.4000;0.4371;1.0280;
1031.7000;0.4363;1.0350;
1032.0000;0.4347;1.0257;
1032.3000;0.4265;1.0047;
1032.6000;0.4371;1.0303;
1032.9000;0.4363;1.0257;
1033.2000;0.4371;1.0257;
1033.5000;0.4322;1.0117;
1033.8000;0.4339;1.0140;
1034.1000;0.4363;1.0257;
1034.4000;0.4339;1.0233;
1034.7000;0.4355;1.0257;
1035.0000;0.4363;1.0327;
1035.3000;0.4339;1.0210;
1035.6000;0.4339;1.0280;
1035.9000;0.4347;1.0303;
1036.2000;0.4363;1.0373;
1036.5000;0.4339;1.0373;
1036.8000;0.4371;1.0420;
1037.1000;0.4355;1.0327;
1037.4000;0.4355;1.0490;
1037.7000;0.4363;1.0490;
1038.0000;0.4355;1.0443;
1038.3000;0.4339;1.0420;
1038.6000;0.4339;1.0373;
1038.9000;0.4339;1.0350;
1039.2000;0.4339;1.0373;
1039.5000;0.4322;1.0350;
1039.8000;0.4330;1.0327;
1040.1000;0.4363;1.0397;
1040.4000;0.4282;1.0117;
1040.7000;0.4330;1.0280;
1041.0000;0.4330;1.0280;
1041.3000;0.4347;1.0443;
1041.6000;0.4355;1.0466;
1041.9000;0.4314;1.0350;
1042.2000;0.4347;1.0420;
1042.5000;0.4371;1.0536;
1042.8000;0.4347;1.0466;
1043.1000;0.4339;1.0397;
1043.4000;0.4330;1.0466;
1043.7000;0.4347;1.0513;
1044.0000;0.4347;1.0560;
1044.3000;0.4436;1.0723;
1044.6000;0.4339;1.0443;
1044.9000;0.4339;1.0466;
1045.2000;0.4363;1.0490;
1045.5000;0.4396;1.0606;
1045.8000;0.4355;1.0490;
1046.1000;0.4371;1.0513;
1046.4000;0.4363;1.0443;
1046.7000;0.4355;1.0373;
1047.0000;0.4363;1.0466;
1047.3000;0.4363;1.0420;
1047.6000;0.4404;1.0583;
1047.9000;0.4387;1.0536;
1048.2000;0.4347;1.0397;
1048.5000;0.4298;1.0187;
1048.8000;0.4339;1.0303;
1049.1000;0.4339;1.0280;
1049.4000;0.4363;1.0303;
1049.7000;0.4330;1.0280;
1050.0000;0.4330;1.0257;
1050.3000;0.4363;1.0350;
1050.6000;0.4339;1.0257;
1050.9000;0.4330;1.0303;
1051.2000;0.4355;1.0327;
1051.5000;0.4347;1.0280;
1051.8000;0.4355;1.0280;
1052.1000;0.4347;1.0280;
1052.4000;0.4330;1.0257;
1052.7000;0.4347;1.0257;
1053.0000;0.4339;1.0280;
1053.3000;0.4314;1.0280;
1053.6000;0.4339;1.0397;
1053.9000;0.4371;1.0443;
1054.2000;0.4363;1.0373;
1054.5000;0.4355;1.0327;
1054.8000;0.4339;1.0233;
1055.1000;0.4339;1.0210;
1055.4000;0.4355;1.0257;
1055.7000;0.4339;1.0327;
1056.0000;0.4371;1.0350;
1056.3000;0.4322;1.0280;
1056.6000;0.4363;1.0303;
1056.9000;0.4347;1.0420;
1057.2000;0.4355;1.0373;
1057.5000;0.4355;1.0327;
1057.8000;0.4355;1.0327;
1058.1000;0.4347;1.0303;
1058.4000;0.4355;1.0397;
1058.7000;0.4339;1.0397;
1059.0000;0.4355;1.0490;
1059.3000;0.4339;1.0490;
1059.6000;0.4347;1.0466;
1059.9000;0.4314;1.0397;
1060.2000;0.4339;1.0443;
1060.5000;0.4371;1.0536;
1060.8000;0.4371;1.0513;
1061.1000;0.4339;1.0466;
1061.4000;0.4371;1.0536;
1061.7000;0.4363;1.0560;
1062.0000;0.4363;1.0560;
1062.3000;0.4363;1.0466;
1062.6000;0.4387;1.0513;
1062.9000;0.4347;1.0420;
1063.2000;0.4371;1.0420;
1063.5000;0.4339;1.0280;
1063.8000;0.4363;1.0280;
1064.1000;0.4363;1.0280;
1064.4000;0.4290;1.0163;
1064.7000;0.4363;1.0490;
1065.0000;0.4363;1.0513;
1065.3000;0.4412;1.0676;
1065.6000;0.4371;1.0630;
1065.9000;0.4347;1.0583;
1066.2000;0.4339;1.0513;
1066.5000;0.4347;1.0536;
1066.8000;0.4330;1.0490;
1067.1000;0.4339;1.0490;
1067.4000;0.4347;1.0490;
1067.7000;0.4339;1.0373;
1068.0000;0.4347;1.0420;
1068.3000;0.4379;1.0513;
1068.6000;0.4355;1.0536;
1068.9000;0.4339;1.0560;
1069.2000;0.4355;1.0560;
1069.5000;0.4330;1.0560;
1069.8000;0.4355;1.0560;
1070.1000;0.4355;1.0700;
1070.4000;0.4355;1.0746;
1070.7000;0.4363;1.0746;
1071.0000;0.4330;1.0700;
1071.3000;0.4347;1.0839;
1071.6000;0.4347;1.0816;
1071.9000;0.4330;1.0700;
1072.2000;0.4355;1.0700;
1072.5000;0.4339;1.0560;
1072.8000;0.4339;1.0536;
1073.1000;0.4306;1.0536;
1073.4000;0.4330;1.0676;
1073.7000;0.4347;1.0653;
1074.0000;0.4355;1.0583;
1074.3000;0.4347;1.0490;
1074.6000;0.4387;1.0583;
1074.9000;0.4347;1.0513;
1075.2000;0.4330;1.0466;
1075.5000;0.4339;1.0490;
1075.8000;0.4298;1.0513;
1076.1000;0.4347;1.0653;
1076.4000;0.4339;1.0583;
1076.7000;0.4322;1.0490;
1077.0000;0.4330;1.0490;
1077.3000;0.4330;1.0443;
1077.6000;0.4347;1.0513;
1077.9000;0.4339;1.0560;
1078.2000;0.4363;1.0560;
1078.5000;0.4355;1.0466;
1078.8000;0.4274;1.0280;
1079.1000;0.4306;1.0443;
1079.4000;0.4339;1.0490;
1079.7000;0.4347;1.0420;
1080.0000;0.4347;1.0327;
1080.3000;0.4355;1.0350;
1080.6000;0.4339;1.0303;
1080.9000;0.4330;1.0303;
1081.2000;0.4330;1.0280;
1081.5000;0.4339;1.0373;
1081.8000;0.4387;1.0420;
1082.1000;0.4347;1.0280;
1082.4000;0.4282;1.0163;
1082.7000;0.4355;1.0397;
1083.0000;0.4330;1.0327;
1083.3000;0.4355;1.0373;
1083.6000;0.4363;1.0420;
1083.9000;0.4306;1.0373;
1084.2000;0.4347;1.0490;
1084.5000;0.4347;1.0443;
1084.8000;0.4355;1.0490;
1085.1000;0.4330;1.0397;
1085.4000;0.4330;1.0327;
1085.7000;0.4322;1.0327;
1086.0000;0.4379;1.0397;
1086.3000;0.4330;1.0327;
1086.6000;0.4322;1.0373;
1086.9000;0.4339;1.0466;
1087.2000;0.4330;1.0466;
1087.5000;0.4347;1.0466;
1087.8000;0.4322;1.0420;
1088.1000;0.4339;1.0536;
1088.4000;0.4339;1.0583;
1088.7000;0.4347;1.0676;
1089.0000;0.4339;1.0606;
1089.3000;0.4363;1.0606;
1089.6000;0.4371;1.0630;
1089.9000;0.4339;1.0536;
1090.2000;0.4363;1.0513;
1090.5000;0.4330;1.0490;
1090.8000;0.4314;1.0397;
1091.1000;0.4355;1.0583;
1091.4000;0.4355;1.0653;
1091.7000;0.4355;1.0536;
1092.0000;0.4339;1.0583;
1092.3000;0.4330;1.0630;
1092.6000;0.4314;1.0630;
1092.9000;0.4330;1.0536;
1093.2000;0.4355;1.0583;
1093.5000;0.4330;1.0676;
1093.8000;0.4314;1.0536;
1094.1000;0.4355;1.0630;
1094.4000;0.4314;1.0466;
1094.7000;0.4363;1.0513;
1095.0000;0.4355;1.0466;
1095.3000;0.4355;1.0373;
1095.6000;0.4355;1.0443;
1095.9000;0.4363;1.0513;
1096.2000;0.4339;1.0513;
1096.5000;0.4339;1.0397;
1096.8000;0.4339;1.0373;
1097.1000;0.4339;1.0350;
1097.4000;0.4330;1.0350;
1097.7000;0.4371;1.0443;
1098.0000;0.4339;1.0466;
1098.3000;0.4322;1.0303;
1098.6000;0.4330;1.0257;
1098.9000;0.4355;1.0303;
1099.2000;0.4330;1.0280;
1099.5000;0.4330;1.0420;
1099.8000;0.4355;1.0560;
1100.1000;0.4371;1.0583;
1100.4000;0.4355;1.0560;
1100.7000;0.4330;1.0536;
1101.0000;0.4314;1.0466;
1101.3000;0.4339;1.0490;
1101.6000;0.4339;1.0536;
1101.9000;0.4330;1.0443;
1102.2000;0.4330;1.0443;
1102.5000;0.4347;1.0536;
1102.8000;0.4347;1.0443;
1103.1000;0.4363;1.0443;
1103.4000;0.4363;1.0443;
1103.7000;0.4363;1.0397;
1104.0000;0.4371;1.0420;
1104.3000;0.4330;1.0350;
1104.6000;0.4355;1.0466;
1104.9000;0.4347;1.0466;
1105.2000;0.4347;1.0420;
1105.5000;0.4330;1.0350;
1105.8000;0.4371;1.0466;
1106.1000;0.4347;1.0466;
1106.4000;0.4371;1.0583;
1106.7000;0.4347;1.0490;
1107.0000;0.4290;1.0373;
1107.3000;0.4339;1.0443;
1107.6000;0.4339;1.0420;
1107.9000;0.4330;1.0397;
1108.2000;0.4339;1.0536;
1108.5000;0.4339;1.0583;
1108.8000;0.4363;1.0560;
1109.1000;0.4347;1.0513;
1109.4000;0.4355;1.0490;
1109.7000;0.4355;1.0536;
1110.0000;0.4355;1.0560;
1110.3000;0.4347;1.0513;
1110.6000;0.4355;1.0513;
1110.9000;0.4330;1.0350;
1111.2000;0.4339;1.0397;
1111.5000;0.4322;1.0373;
1111.8000;0.4330;1.0466;
1112.1000;0.4339;1.0490;
1112.4000;0.4347;1.0606;
1112.7000;0.4339;1.0676;
1113.0000;0.4347;1.0700;
1113.3000;0.4339;1.0606;
1113.6000;0.4339;1.0536;
1113.9000;0.4379;1.0700;
1114.2000;0.4363;1.0653;
1114.5000;0.4330;1.0490;
1114.8000;0.4339;1.0443;
1115.1000;0.4379;1.0490;
1115.4000;0.4379;1.0443;
1115.7000;0.4347;1.0397;
1116.0000;0.4330;1.0397;
1116.3000;0.4330;1.0490;
1116.6000;0.4322;1.0560;
1116.9000;0.4330;1.0653;
1117.2000;0.4379;1.0746;
1117.5000;0.4314;1.0606;
1117.8000;0.4330;1.0606;
1118.1000;0.4339;1.0536;
1118.4000;0.4355;1.0606;
1118.7000;0.4347;1.0490;
1119.0000;0.4330;1.0466;
1119.3000;0.4355;1.0513;
1119.6000;0.4379;1.0630;
1119.9000;0.4347;1.0676;
1120.2000;0.4371;1.0723;
1120.5000;0.4396;1.0816;
1120.8000;0.4339;1.0653;
1121.1000;0.4355;1.0653;
1121.4000;0.4363;1.0723;
1121.7000;0.4355;1.0676;
1122.0000;0.4274;1.0583;
1122.3000;0.4355;1.0746;
1122.6000;0.4330;1.0606;
1122.9000;0.4396;1.0700;
1123.2000;0.4347;1.0536;
1123.5000;0.4347;1.0536;
1123.8000;0.4379;1.0653;
1124.1000;0.4355;1.0583;
1124.4000;0.4347;1.0583;
1124.7000;0.4355;1.0513;
1125.0000;0.4330;1.0466;
1125.3000;0.4339;1.0490;
1125.6000;0.4322;1.0397;
1125.9000;0.4347;1.0536;
1126.2000;0.4322;1.0443;
1126.5000;0.4330;1.0490;
1126.8000;0.4330;1.0513;
1127.1000;0.4339;1.0606;
1127.4000;0.4322;1.0560;
1127.7000;0.4330;1.0536;
1128.0000;0.4347;1.0466;
1128.3000;0.4322;1.0397;
1128.6000;0.4339;1.0373;
1128.9000;0.4339;1.0350;
1129.2000;0.4355;1.0350;
1129.5000;0.4290;1.0117;
1129.8000;0.4339;1.0210;
1130.1000;0.4347;1.0280;
1130.4000;0.4330;1.0303;
1130.7000;0.4347;1.0327;
1131.0000;0.4347;1.0303;
1131.3000;0.4371;1.0303;
1131.6000;0.4330;1.0280;
1131.9000;0.4306;1.0280;
1132.2000;0.4347;1.0373;
1132.5000;0.4347;1.0443;
1132.8000;0.4347;1.0397;
1133.1000;0.4355;1.0420;
1133.4000;0.4379;1.0513;
1133.7000;0.4339;1.0373;
1134.0000;0.4379;1.0420;
1134.3000;0.4347;1.0443;
1134.6000;0.4371;1.0490;
1134.9000;0.4339;1.0420;
1135.2000;0.4404;1.0490;
1135.5000;0.4363;1.0373;
1135.8000;0.4355;1.0327;
1136.1000;0.4379;1.0327;
1136.4000;0.4225;1.0047;
1136.7000;0.4339;1.0233;
1137.0000;0.4363;1.0327;
1137.3000;0.4314;1.0233;
1137.6000;0.4298;1.0163;
1137.9000;0.4347;1.0257;
1138.2000;0.4322;1.0303;
1138.5000;0.4330;1.0350;
1138.8000;0.4322;1.0303;
1139.1000;0.4330;1.0303;
1139.4000;0.4330;1.0373;
1139.7000;0.4347;1.0420;
1140.0000;0.4330;1.0513;
1140.3000;0.4330;1.0490;
1140.6000;0.4322;1.0466;
1140.9000;0.4339;1.0466;
1141.2000;0.4339;1.0536;
1141.5000;0.4355;1.0560;
1141.8000;0.4347;1.0560;
1142.1000;0.4314;1.0490;
1142.4000;0.4363;1.0630;
1142.7000;0.4330;1.0560;
1143.0000;0.4265;1.0373;
1143.3000;0.4363;1.0583;
1143.6000;0.4330;1.0560;
1143.9000;0.4371;1.0606;
1144.2000;0.4355;1.0560;
1144.5000;0.4282;1.0466;
1144.8000;0.4387;1.0606;
1145.1000;0.4298;1.0373;
1145.4000;0.4379;1.0536;
1145.7000;0.4322;1.0397;
1146.0000;0.4363;1.0466;
1146.3000;0.4363;1.0466;
1146.6000;0.4347;1.0350;
1146.9000;0.4396;1.0513;
1147.2000;0.4387;1.0606;
1147.5000;0.4347;1.0490;
1147.8000;0.4265;1.0280;
1148.1000;0.4477;1.0839;
1148.4000;0.4355;1.0513;
1148.7000;0.4330;1.0490;
1149.0000;0.4322;1.0443;
1149.3000;0.4339;1.0466;
1149.6000;0.4314;1.0466;
1149.9000;0.4355;1.0606;
1150.2000;0.4347;1.0606;
1150.5000;0.4339;1.0513;
1150.8000;0.4322;1.0420;
1151.1000;0.4330;1.0466;
1151.4000;0.4330;1.0560;
1151.7000;0.4330;1.0560;
1152.0000;0.4339;1.0560;
1152.3000;0.4330;1.0536;
1152.6000;0.4339;1.0513;
1152.9000;0.4322;1.0420;
1153.2000;0.4306;1.0373;
1153.5000;0.4314;1.0373;
1153.8000;0.4298;1.0280;
1154.1000;0.4322;1.0257;
1154.4000;0.4314;1.0257;
1154.7000;0.4339;1.0373;
1155.0000;0.4339;1.0397;
1155.3000;0.4339;1.0420;
1155.6000;0.4355;1.0560;
1155.9000;0.4330;1.0490;
1156.2000;0.4339;1.0513;
1156.5000;0.4314;1.0560;
1156.8000;0.4314;1.0466;
1157.1000;0.4330;1.0466;
1157.4000;0.4339;1.0327;
1157.7000;0.4355;1.0373;
1158.0000;0.4379;1.0466;
1158.3000;0.4347;1.0350;
1158.6000;0.4322;1.0303;
1158.9000;0.4322;1.0373;
1159.2000;0.4339;1.0513;
1159.5000;0.4371;1.0606;
1159.8000;0.4306;1.0443;
1160.1000;0.4249;1.0233;
1160.4000;0.4379;1.0536;
1160.7000;0.4322;1.0350;
1161.0000;0.4241;1.0070;
1161.3000;0.4330;1.0350;
1161.6000;0.4355;1.0397;
1161.9000;0.4330;1.0280;
1162.2000;0.4339;1.0280;
1162.5000;0.4339;1.0350;
1162.8000;0.4355;1.0443;
1163.1000;0.4363;1.0420;
1163.4000;0.4314;1.0303;
1163.7000;0.4330;1.0350;
1164.0000;0.4363;1.0490;
1164.3000;0.4314;1.0420;
1164.6000;0.4355;1.0536;
1164.9000;0.4298;1.0350;
1165.2000;0.4371;1.0466;
1165.5000;0.4330;1.0327;
1165.8000;0.4322;1.0327;
1166.1000;0.4339;1.0350;
1166.4000;0.4314;1.0397;
1166.7000;0.4330;1.0466;
1167.0000;0.4322;1.0466;
1167.3000;0.4322;1.0350;
1167.6000;0.4347;1.0443;
1167.9000;0.4477;1.0770;
1168.2000;0.4330;1.0373;
1168.5000;0.4298;1.0350;
1168.8000;0.4347;1.0513;
1169.1000;0.4339;1.0443;
1169.4000;0.4322;1.0466;
1169.7000;0.4322;1.0420;
1170.0000;0.4314;1.0350;
1170.3000;0.4330;1.0443;
1170.6000;0.4387;1.0490;
1170.9000;0.4330;1.0373;
1171.2000;0.4363;1.0443;
1171.5000;0.4363;1.0443;
1171.8000;0.4322;1.0327;
1172.1000;0.4347;1.0397;
1172.4000;0.4322;1.0373;
1172.7000;0.4339;1.0420;
1173.0000;0.4339;1.0420;
1173.3000;0.4290;1.0350;
1173.6000;0.4330;1.0397;
1173.9000;0.4330;1.0397;
1174.2000;0.4339;1.0466;
1174.5000;0.4347;1.0443;
1174.8000;0.4339;1.0397;
1175.1000;0.4347;1.0420;
1175.4000;0.4347;1.0490;
1175.7000;0.4298;1.0420;
1176.0000;0.4330;1.0466;
1176.3000;0.4290;1.0373;
1176.6000;0.4347;1.0513;
1176.9000;0.4387;1.0606;
1177.2000;0.4330;1.0466;
1177.5000;0.4339;1.0420;
1177.8000;0.4355;1.0466;
1178.1000;0.4363;1.0490;
1178.4000;0.4330;1.0443;
1178.7000;0.4322;1.0490;
1179.0000;0.4298;1.0420;
1179.3000;0.4322;1.0560;
1179.6000;0.4339;1.0606;
1179.9000;0.4339;1.0630;
1180.2000;0.4306;1.0583;
1180.5000;0.4322;1.0630;
1180.8000;0.4306;1.0583;
1181.1000;0.4322;1.0606;
1181.4000;0.4314;1.0606;
1181.7000;0.4330;1.0676;
1182.0000;0.4290;1.0466;
1182.3000;0.4306;1.0490;
1182.6000;0.4330;1.0630;
1182.9000;0.4330;1.0560;
1183.2000;0.4322;1.0606;
1183.5000;0.4274;1.0466;
1183.8000;0.4322;1.0583;
1184.1000;0.4339;1.0606;
1184.4000;0.4355;1.0630;
1184.7000;0.4330;1.0630;
1185.0000;0.4290;1.0443;
1185.3000;0.4347;1.0583;
1185.6000;0.4330;1.0606;
1185.9000;0.4347;1.0770;
1186.2000;0.4339;1.0770;
1186.5000;0.4330;1.0723;
1186.8000;0.4347;1.0653;
1187.1000;0.4363;1.0583;
1187.4000;0.4355;1.0513;
1187.7000;0.4363;1.0536;
1188.0000;0.4347;1.0490;
1188.3000;0.4330;1.0536;
1188.6000;0.4444;1.0793;
1188.9000;0.4339;1.0466;
1189.2000;0.4241;1.0303;
1189.5000;0.4330;1.0536;
1189.8000;0.4322;1.0536;
1190.1000;0.4330;1.0536;
1190.4000;0.4330;1.0583;
1190.7000;0.4339;1.0536;
1191.0000;0.4347;1.0606;
1191.3000;0.4330;1.0513;
1191.6000;0.4330;1.0536;
1191.9000;0.4339;1.0653;
1192.2000;0.4387;1.0793;
1192.5000;0.4290;1.0583;
1192.8000;0.4339;1.0770;
1193.1000;0.4282;1.0583;
1193.4000;0.4322;1.0630;
1193.7000;0.4387;1.0746;
1194.0000;0.4339;1.0536;
1194.3000;0.4282;1.0397;
1194.6000;0.4339;1.0606;
1194.9000;0.4322;1.0560;
1195.2000;0.4322;1.0606;
1195.5000;0.4322;1.0490;
1195.8000;0.4322;1.0443;
1196.1000;0.4330;1.0513;
1196.4000;0.4363;1.0443;
1196.7000;0.4347;1.0350;
1197.0000;0.4339;1.0443;
1197.3000;0.4355;1.0420;
1197.6000;0.4330;1.0490;
1197.9000;0.4371;1.0536;
1198.2000;0.4339;1.0536;
1198.5000;0.4339;1.0583;
1198.8000;0.4339;1.0630;
1199.1000;0.4330;1.0606;
1199.4000;0.4330;1.0466;
1199.7000;0.4347;1.0466;
1200.0000;0.4339;1.0490;
1200.3000;0.4347;1.0466;
1200.6000;0.4330;1.0466;
1200.9000;0.4339;1.0490;
1201.2000;0.4314;1.0513;
1201.5000;0.4339;1.0606;
1201.8000;0.4290;1.0513;
1202.1000;0.4363;1.0676;
1202.4000;0.4347;1.0746;
1202.7000;0.4355;1.0746;
1203.0000;0.4347;1.0723;
1203.3000;0.4339;1.0746;
1203.6000;0.4330;1.0700;
1203.9000;0.4306;1.0630;
1204.2000;0.4314;1.0583;
1204.5000;0.4322;1.0560;
1204.8000;0.4330;1.0583;
1205.1000;0.4347;1.0560;
1205.4000;0.4306;1.0350;
1205.7000;0.4322;1.0350;
1206.0000;0.4306;1.0350;
1206.3000;0.4330;1.0373;
1206.6000;0.4314;1.0327;
1206.9000;0.4314;1.0327;
1207.2000;0.4330;1.0350;
1207.5000;0.4339;1.0373;
1207.8000;0.4339;1.0280;
1208.1000;0.4322;1.0350;
1208.4000;0.4330;1.0420;
1208.7000;0.4298;1.0350;
1209.0000;0.4322;1.0466;
1209.3000;0.4298;1.0490;
1209.6000;0.4314;1.0536;
1209.9000;0.4306;1.0560;
1210.2000;0.4306;1.0420;
1210.5000;0.4314;1.0420;
1210.8000;0.4330;1.0536;
1211.1000;0.4339;1.0560;
1211.4000;0.4330;1.0536;
1211.7000;0.4314;1.0536;
1212.0000;0.4339;1.0513;
1212.3000;0.4330;1.0466;
1212.6000;0.4420;1.0653;
1212.9000;0.4347;1.0513;
1213.2000;0.4355;1.0606;
1213.5000;0.4355;1.0793;
1213.8000;0.4347;1.0863;
1214.1000;0.4339;1.0793;
1214.4000;0.4330;1.0746;
1214.7000;0.4347;1.0746;
1215.0000;0.4322;1.0676;
1215.3000;0.4339;1.0676;
1215.6000;0.4396;1.0723;
1215.9000;0.4339;1.0560;
1216.2000;0.4355;1.0583;
1216.5000;0.4396;1.0676;
1216.8000;0.4322;1.0466;
1217.1000;0.4298;1.0373;
1217.4000;0.4339;1.0536;
1217.7000;0.4265;1.0350;
1218.0000;0.4330;1.0560;
1218.3000;0.4249;1.0327;
1218.6000;0.4314;1.0490;
1218.9000;0.4420;1.0770;
1219.2000;0.4306;1.0513;
1219.5000;0.4322;1.0583;
1219.8000;0.4339;1.0653;
1220.1000;0.4233;1.0373;
1220.4000;0.4290;1.0513;
1220.7000;0.4330;1.0630;
1221.0000;0.4339;1.0770;
1221.3000;0.4314;1.0676;
1221.6000;0.4314;1.0676;
1221.9000;0.4314;1.0723;
1222.2000;0.4314;1.0583;
1222.5000;0.4330;1.0606;
1222.8000;0.4330;1.0606;
1223.1000;0.4339;1.0536;
1223.4000;0.4330;1.0583;
1223.7000;0.4322;1.0606;
1224.0000;0.4355;1.0513;
1224.3000;0.4330;1.0490;
1224.6000;0.4347;1.0630;
1224.9000;0.4339;1.0583;
1225.2000;0.4314;1.0443;
1225.5000;0.4265;1.0257;
1225.8000;0.4282;1.0397;
1226.1000;0.4330;1.0536;
1226.4000;0.4355;1.0700;
1226.7000;0.4306;1.0513;
1227.0000;0.4330;1.0583;
1227.3000;0.4339;1.0536;
1227.6000;0.4330;1.0583;
1227.9000;0.4314;1.0583;
1228.2000;0.4282;1.0466;
1228.5000;0.4347;1.0676;
1228.8000;0.4322;1.0606;
1229.1000;0.4355;1.0653;
1229.4000;0.4339;1.0583;
1229.7000;0.4322;1.0536;
1230.0000;0.4322;1.0466;
1230.3000;0.4347;1.0536;
1230.6000;0.4347;1.0490;
1230.9000;0.4314;1.0513;
1231.2000;0.4306;1.0536;
1231.5000;0.4322;1.0583;
1231.8000;0.4314;1.0606;
1232.1000;0.4314;1.0630;
1232.4000;0.4322;1.0676;
1232.7000;0.4339;1.0746;
1233.0000;0.4330;1.0816;
1233.3000;0.4298;1.0770;
1233.6000;0.4314;1.0816;
1233.9000;0.4339;1.0863;
1234.2000;0.4330;1.0839;
1234.5000;0.4314;1.0793;
1234.8000;0.4330;1.0793;
1235.1000;0.4274;1.0700;
1235.4000;0.4396;1.1003;
1235.7000;0.4339;1.0816;
1236.0000;0.4363;1.0746;
1236.3000;0.4330;1.0560;
1236.6000;0.4330;1.0630;
1236.9000;0.4379;1.0676;
1237.2000;0.4347;1.0536;
1237.5000;0.4314;1.0443;
1237.8000;0.4330;1.0443;
1238.1000;0.4330;1.0490;
1238.4000;0.4290;1.0420;
1238.7000;0.4347;1.0560;
1239.0000;0.4371;1.0653;
1239.3000;0.4339;1.0630;
1239.6000;0.4355;1.0560;
1239.9000;0.4387;1.0630;
1240.2000;0.4387;1.0653;
1240.5000;0.4339;1.0560;
1240.8000;0.4330;1.0630;
1241.1000;0.4322;1.0583;
1241.4000;0.4322;1.0653;
1241.7000;0.4330;1.0723;
1242.0000;0.4347;1.0700;
1242.3000;0.4363;1.0606;
1242.6000;0.4339;1.0513;
1242.9000;0.4314;1.0350;
1243.2000;0.4355;1.0443;
1243.5000;0.4347;1.0420;
1243.8000;0.4330;1.0303;
1244.1000;0.4396;1.0536;
1244.4000;0.4347;1.0490;
1244.7000;0.4298;1.0490;
1245.0000;0.4339;1.0560;
1245.3000;0.4322;1.0630;
1245.6000;0.4330;1.0630;
1245.9000;0.4290;1.0560;
1246.2000;0.4322;1.0560;
1246.5000;0.4371;1.0723;
1246.8000;0.4314;1.0630;
1247.1000;0.4322;1.0700;
1247.4000;0.4322;1.0700;
1247.7000;0.4314;1.0700;
1248.0000;0.4330;1.0746;
1248.3000;0.4330;1.0793;
1248.6000;0.4322;1.0653;
1248.9000;0.4330;1.0653;
1249.2000;0.4314;1.0676;
1249.5000;0.4322;1.0700;
1249.8000;0.4330;1.0700;
1250.1000;0.4330;1.0723;
1250.4000;0.4306;1.0653;
1250.7000;0.4339;1.0653;
1251.0000;0.4330;1.0606;
1251.3000;0.4396;1.0676;
1251.6000;0.4330;1.0536;
1251.9000;0.4339;1.0606;
1252.2000;0.4330;1.0583;
1252.5000;0.4233;1.0350;
1252.8000;0.4306;1.0536;
1253.1000;0.4314;1.0583;
1253.4000;0.4347;1.0583;
1253.7000;0.4339;1.0513;
1254.0000;0.4306;1.0466;
1254.3000;0.4379;1.0606;
1254.6000;0.4347;1.0397;
1254.9000;0.4314;1.0350;
1255.2000;0.4322;1.0466;
1255.5000;0.4330;1.0536;
1255.8000;0.4339;1.0653;
1256.1000;0.4347;1.0653;
1256.4000;0.4347;1.0630;
1256.7000;0.4339;1.0630;
1257.0000;0.4436;1.0793;
1257.3000;0.4339;1.0536;
1257.6000;0.4339;1.0583;
1257.9000;0.4298;1.0536;
1258.2000;0.4322;1.0490;
1258.5000;0.4314;1.0420;
1258.8000;0.4322;1.0513;
1259.1000;0.4257;1.0397;
1259.4000;0.4322;1.0630;
1259.7000;0.4330;1.0723;
1260.0000;0.4322;1.0700;
1260.3000;0.4330;1.0723;
1260.6000;0.4330;1.0700;
1260.9000;0.4330;1.0606;
1261.2000;0.4355;1.0653;
1261.5000;0.4330;1.0536;
1261.8000;0.4387;1.0746;
1262.1000;0.4290;1.0560;
1262.4000;0.4347;1.0653;
1262.7000;0.4322;1.0653;
1263.0000;0.4322;1.0630;
1263.3000;0.4339;1.0676;
1263.6000;0.4330;1.0630;
1263.9000;0.4306;1.0536;
1264.2000;0.4355;1.0723;
1264.5000;0.4330;1.0793;
1264.8000;0.4298;1.0676;
1265.1000;0.4355;1.0816;
1265.4000;0.4339;1.0723;
1265.7000;0.4314;1.0583;
1266.0000;0.4339;1.0630;
1266.3000;0.4322;1.0676;
1266.6000;0.4330;1.0676;
1266.9000;0.4322;1.0560;
1267.2000;0.4306;1.0513;
1267.5000;0.4330;1.0490;
1267.8000;0.4322;1.0513;
1268.1000;0.4322;1.0420;
1268.4000;0.4314;1.0490;
1268.7000;0.4314;1.0490;
1269.0000;0.4298;1.0490;
1269.3000;0.4290;1.0536;
1269.6000;0.4306;1.0513;
1269.9000;0.4330;1.0606;
1270.2000;0.4339;1.0653;
1270.5000;0.4339;1.0700;
1270.8000;0.4322;1.0700;
1271.1000;0.4306;1.0770;
1271.4000;0.4314;1.0816;
1271.7000;0.4339;1.0793;
1272.0000;0.4330;1.0746;
1272.3000;0.4330;1.0676;
1272.6000;0.4355;1.0746;
1272.9000;0.4339;1.0676;
1273.2000;0.4306;1.0560;
1273.5000;0.4330;1.0583;
1273.8000;0.4314;1.0630;
1274.1000;0.4298;1.0606;
1274.4000;0.4339;1.0583;
1274.7000;0.4339;1.0536;
1275.0000;0.4347;1.0583;
1275.3000;0.4387;1.0723;
1275.6000;0.4330;1.0630;
1275.9000;0.4322;1.0653;
1276.2000;0.4347;1.0676;
1276.5000;0.4339;1.0653;
1276.8000;0.4330;1.0653;
1277.1000;0.4330;1.0676;
1277.4000;0.4322;1.0676;
1277.7000;0.4322;1.0630;
1278.0000;0.4347;1.0630;
1278.3000;0.4314;1.0583;
1278.6000;0.4330;1.0560;
1278.9000;0.4339;1.0630;
1279.2000;0.4347;1.0606;
1279.5000;0.4314;1.0560;
1279.8000;0.4306;1.0630;
1280.1000;0.4330;1.0606;
1280.4000;0.4339;1.0536;
1280.7000;0.4355;1.0630;
1281.0000;0.4274;1.0583;
1281.3000;0.4330;1.0653;
1281.6000;0.4298;1.0583;
1281.9000;0.4363;1.0700;
1282.2000;0.4347;1.0723;
1282.5000;0.4322;1.0630;
1282.8000;0.4347;1.0653;
1283.1000;0.4339;1.0653;
1283.4000;0.4339;1.0700;
1283.7000;0.4314;1.0630;
1284.0000;0.4298;1.0560;
1284.3000;0.4355;1.0583;
1284.6000;0.4290;1.0490;
1284.9000;0.4339;1.0536;
1285.2000;0.4330;1.0536;
1285.5000;0.4322;1.0583;
1285.8000;0.4363;1.0676;
1286.1000;0.4371;1.0723;
1286.4000;0.4322;1.0700;
1286.7000;0.4322;1.0676;
1287.0000;0.4339;1.0700;
1287.3000;0.4330;1.0700;
1287.6000;0.4314;1.0583;
1287.9000;0.4322;1.0653;
1288.2000;0.4322;1.0630;
1288.5000;0.4339;1.0676;
1288.8000;0.4306;1.0676;
1289.1000;0.4404;1.0909;
1289.4000;0.4306;1.0653;
1289.7000;0.4330;1.0793;
1290.0000;0.4347;1.0863;
1290.3000;0.4347;1.0793;
1290.6000;0.4355;1.0816;
1290.9000;0.4330;1.0653;
1291.2000;0.4339;1.0630;
1291.5000;0.4347;1.0583;
1291.8000;0.4322;1.0490;
1292.1000;0.4330;1.0466;
1292.4000;0.4330;1.0490;
1292.7000;0.4339;1.0513;
1293.0000;0.4339;1.0466;
1293.3000;0.4339;1.0466;
1293.6000;0.4322;1.0466;
1293.9000;0.4322;1.0536;
1294.2000;0.4363;1.0653;
1294.5000;0.4339;1.0560;
1294.8000;0.4363;1.0630;
1295.1000;0.4355;1.0583;
1295.4000;0.4330;1.0513;
1295.7000;0.4436;1.0816;
1296.0000;0.4347;1.0583;
1296.3000;0.4371;1.0676;
1296.6000;0.4339;1.0606;
1296.9000;0.4322;1.0583;
1297.2000;0.4347;1.0700;
1297.5000;0.4339;1.0630;
1297.8000;0.4322;1.0630;
1298.1000;0.4314;1.0630;
1298.4000;0.4371;1.0630;
1298.7000;0.4355;1.0606;
1299.0000;0.4314;1.0490;
1299.3000;0.4339;1.0583;
1299.6000;0.4330;1.0583;
1299.9000;0.4322;1.0630;
1300.2000;0.4339;1.0700;
1300.5000;0.4339;1.0700;
1300.8000;0.4339;1.0676;
1301.1000;0.4322;1.0536;
1301.4000;0.4322;1.0560;
1301.7000;0.4379;1.0676;
1302.0000;0.4241;1.0257;
1302.3000;0.4347;1.0513;
1302.6000;0.4330;1.0560;
1302.9000;0.4298;1.0513;
1303.2000;0.4330;1.0606;
1303.5000;0.4339;1.0630;
1303.8000;0.4306;1.0583;
1304.1000;0.4322;1.0583;
1304.4000;0.4339;1.0676;
1304.7000;0.4306;1.0606;
1305.0000;0.4322;1.0560;
1305.3000;0.4282;1.0490;
1305.6000;0.4363;1.0583;
1305.9000;0.4347;1.0630;
1306.2000;0.4322;1.0536;
1306.5000;0.4274;1.0327;
1306.8000;0.4330;1.0466;
1307.1000;0.4355;1.0560;
1307.4000;0.4314;1.0513;
1307.7000;0.4298;1.0443;
1308.0000;0.4314;1.0490;
1308.3000;0.4314;1.0490;
1308.6000;0.4330;1.0513;
1308.9000;0.4347;1.0513;
1309.2000;0.4330;1.0443;
1309.5000;0.4298;1.0373;
1309.8000;0.4330;1.0443;
1310.1000;0.4339;1.0536;
1310.4000;0.4322;1.0513;
1310.7000;0.4322;1.0560;
1311.0000;0.4347;1.0653;
1311.3000;0.4371;1.0676;
1311.6000;0.4347;1.0653;
1311.9000;0.4322;1.0630;
1312.2000;0.4339;1.0606;
1312.5000;0.4322;1.0443;
1312.8000;0.4347;1.0513;
1313.1000;0.4339;1.0583;
1313.4000;0.4330;1.0513;
1313.7000;0.4322;1.0443;
1314.0000;0.4330;1.0443;
1314.3000;0.4290;1.0397;
1314.6000;0.4363;1.0513;
1314.9000;0.4339;1.0443;
1315.2000;0.4249;1.0303;
1315.5000;0.4339;1.0536;
1315.8000;0.4306;1.0420;
1316.1000;0.4306;1.0420;
1316.4000;0.4306;1.0443;
1316.7000;0.4347;1.0513;
1317.0000;0.4314;1.0490;
1317.3000;0.4225;1.0233;
1317.6000;0.4330;1.0490;
1317.9000;0.4355;1.0466;
1318.2000;0.4330;1.0397;
1318.5000;0.4322;1.0327;
1318.8000;0.4347;1.0420;
1319.1000;0.4306;1.0303;
1319.4000;0.4322;1.0373;
1319.7000;0.4314;1.0373;
1320.0000;0.4330;1.0397;
1320.3000;0.4339;1.0397;
1320.6000;0.4330;1.0373;
1320.9000;0.4339;1.0420;
1321.2000;0.4347;1.0350;
1321.5000;0.4436;1.0536;
1321.8000;0.4355;1.0490;
1322.1000;0.4314;1.0443;
1322.4000;0.4339;1.0466;
1322.7000;0.4290;1.0350;
1323.0000;0.4347;1.0420;
1323.3000;0.4314;1.0420;
1323.6000;0.4339;1.0397;
1323.9000;0.4371;1.0443;
1324.2000;0.4339;1.0233;
1324.5000;0.4314;1.0140;
1324.8000;0.4330;1.0094;
1325.1000;0.4322;1.0000;
1325.4000;0.4322;1.0024;
1325.7000;0.4347;1.0117;
1326.0000;0.4339;1.0187;
1326.3000;0.4322;1.0303;
1326.6000;0.4330;1.0373;
1326.9000;0.4330;1.0327;
1327.2000;0.4322;1.0303;
1327.5000;0.4330;1.0373;
1327.8000;0.4510;1.0793;
1328.1000;0.4363;1.0373;
1328.4000;0.4347;1.0327;
1328.7000;0.4347;1.0420;
1329.0000;0.4363;1.0350;
1329.3000;0.4347;1.0420;
1329.6000;0.4355;1.0303;
1329.9000;0.4322;1.0257;
1330.2000;0.4306;1.0210;
1330.5000;0.4379;1.0443;
1330.8000;0.4322;1.0373;
1331.1000;0.4339;1.0443;
1331.4000;0.4379;1.0560;
1331.7000;0.4371;1.0443;
1332.0000;0.4444;1.0583;
1332.3000;0.4355;1.0327;
1332.6000;0.4330;1.0373;
1332.9000;0.4306;1.0327;
1333.2000;0.4330;1.0327;
1333.5000;0.4298;1.0233;
1333.8000;0.4396;1.0490;
1334.1000;0.4274;1.0233;
1334.4000;0.4355;1.0490;
1334.7000;0.4314;1.0443;
1335.0000;0.4477;1.0793;
1335.3000;0.4282;1.0327;
1335.6000;0.4339;1.0443;
1335.9000;0.4322;1.0443;
1336.2000;0.4265;1.0257;
1336.5000;0.4314;1.0397;
1336.8000;0.4330;1.0443;
1337.1000;0.4298;1.0350;
1337.4000;0.4314;1.0280;
1337.7000;0.4339;1.0303;
1338.0000;0.4314;1.0257;
1338.3000;0.4290;1.0210;
1338.6000;0.4306;1.0327;
1338.9000;0.4314;1.0420;
1339.2000;0.4322;1.0397;
1339.5000;0.4298;1.0350;
1339.8000;0.4330;1.0490;
1340.1000;0.4306;1.0466;
1340.4000;0.4363;1.0606;
1340.7000;0.4322;1.0536;
1341.0000;0.4322;1.0583;
1341.3000;0.4363;1.0630;
1341.6000;0.4298;1.0536;
1341.9000;0.4306;1.0490;
1342.2000;0.4330;1.0536;
1342.5000;0.4322;1.0536;
1342.8000;0.4355;1.0583;
1343.1000;0.4339;1.0513;
1343.4000;0.4314;1.0490;
1343.7000;0.4347;1.0490;
1344.0000;0.4314;1.0397;
1344.3000;0.4339;1.0443;
1344.6000;0.4322;1.0373;
1344.9000;0.4322;1.0350;
1345.2000;0.4322;1.0327;
1345.5000;0.4347;1.0327;
1345.8000;0.4330;1.0420;
1346.1000;0.4355;1.0466;
1346.4000;0.4306;1.0397;
1346.7000;0.4363;1.0583;
1347.0000;0.4363;1.0700;
1347.3000;0.4330;1.0513;
1347.6000;0.4363;1.0490;
1347.9000;0.4347;1.0466;
1348.2000;0.4339;1.0513;
1348.5000;0.4363;1.0583;
1348.8000;0.4314;1.0420;
1349.1000;0.4314;1.0420;
1349.4000;0.4339;1.0350;
1349.7000;0.4330;1.0257;
1350.0000;0.4306;1.0303;
1350.3000;0.4322;1.0350;
1350.6000;0.4371;1.0490;
1350.9000;0.4330;1.0420;
1351.2000;0.4330;1.0420;
1351.5000;0.4290;1.0303;
1351.8000;0.4347;1.0373;
1352.1000;0.4330;1.0373;
1352.4000;0.4363;1.0397;
1352.7000;0.4330;1.0280;
1353.0000;0.4314;1.0303;
1353.3000;0.4339;1.0350;
1353.6000;0.4339;1.0280;
1353.9000;0.4339;1.0373;
1354.2000;0.4339;1.0350;
1354.5000;0.4306;1.0350;
1354.8000;0.4347;1.0420;
1355.1000;0.4306;1.0350;
1355.4000;0.4330;1.0443;
1355.7000;0.4339;1.0490;
1356.0000;0.4290;1.0420;
1356.3000;0.4265;1.0350;
1356.6000;0.4371;1.0560;
1356.9000;0.4339;1.0513;
1357.2000;0.4404;1.0746;
1357.5000;0.4330;1.0583;
1357.8000;0.4355;1.0606;
1358.1000;0.4322;1.0606;
1358.4000;0.4322;1.0536;
1358.7000;0.4347;1.0560;
1359.0000;0.4314;1.0490;
1359.3000;0.4330;1.0443;
1359.6000;0.4339;1.0466;
1359.9000;0.4322;1.0536;
1360.2000;0.4330;1.0536;
1360.5000;0.4330;1.0513;
1360.8000;0.4322;1.0490;
1361.1000;0.4330;1.0397;
1361.4000;0.4339;1.0443;
1361.7000;0.4306;1.0466;
1362.0000;0.4330;1.0490;
1362.3000;0.4330;1.0490;
1362.6000;0.4322;1.0513;
1362.9000;0.4330;1.0490;
1363.2000;0.4330;1.0490;
1363.5000;0.4363;1.0536;
1363.8000;0.4355;1.0513;
1364.1000;0.4347;1.0490;
1364.4000;0.4330;1.0397;
1364.7000;0.4330;1.0397;
1365.0000;0.4387;1.0536;
1365.3000;0.4322;1.0350;
1365.6000;0.4314;1.0303;
1365.9000;0.4363;1.0443;
1366.2000;0.4322;1.0350;
1366.5000;0.4371;1.0466;
1366.8000;0.4322;1.0420;
1367.1000;0.4347;1.0466;
1367.4000;0.4379;1.0443;
1367.7000;0.4322;1.0280;
1368.0000;0.4339;1.0420;
1368.3000;0.4330;1.0397;
1368.6000;0.4339;1.0443;
1368.9000;0.4355;1.0420;
1369.2000;0.4330;1.0466;
1369.5000;0.4347;1.0536;
1369.8000;0.4355;1.0490;
1370.1000;0.4347;1.0583;
1370.4000;0.4298;1.0513;
1370.7000;0.4347;1.0676;
1371.0000;0.4298;1.0606;
1371.3000;0.4363;1.0653;
1371.6000;0.4322;1.0536;
1371.9000;0.4322;1.0583;
1372.2000;0.4322;1.0536;
1372.5000;0.4379;1.0723;
1372.8000;0.4363;1.0723;
1373.1000;0.4347;1.0606;
1373.4000;0.4241;1.0303;
1373.7000;0.4314;1.0490;
1374.0000;0.4314;1.0466;
1374.3000;0.4330;1.0513;
1374.6000;0.4339;1.0443;
1374.9000;0.4314;1.0373;
1375.2000;0.4339;1.0420;
1375.5000;0.4314;1.0373;
1375.8000;0.4306;1.0397;
1376.1000;0.4330;1.0443;
1376.4000;0.4339;1.0443;
1376.7000;0.4371;1.0513;
1377.0000;0.4339;1.0466;
1377.3000;0.4363;1.0583;
1377.6000;0.4314;1.0466;
1377.9000;0.4379;1.0630;
1378.2000;0.4355;1.0513;
1378.5000;0.4322;1.0513;
1378.8000;0.4339;1.0583;
1379.1000;0.4322;1.0653;
1379.4000;0.4322;1.0606;
1379.7000;0.4322;1.0630;
1380.0000;0.4322;1.0536;
1380.3000;0.4347;1.0653;
1380.6000;0.4330;1.0606;
1380.9000;0.4322;1.0583;
1381.2000;0.4249;1.0327;
1381.5000;0.4379;1.0630;
1381.8000;0.4330;1.0490;
1382.1000;0.4306;1.0420;
1382.4000;0.4347;1.0536;
1382.7000;0.4322;1.0466;
1383.0000;0.4347;1.0490;
1383.3000;0.4339;1.0466;
1383.6000;0.4330;1.0536;
1383.9000;0.4330;1.0560;
1384.2000;0.4322;1.0490;
1384.5000;0.4355;1.0630;
1384.8000;0.4306;1.0513;
1385.1000;0.4298;1.0513;
1385.4000;0.4339;1.0583;
1385.7000;0.4330;1.0490;
1386.0000;0.4330;1.0466;
1386.3000;0.4314;1.0420;
1386.6000;0.4330;1.0490;
1386.9000;0.4314;1.0420;
1387.2000;0.4339;1.0490;
1387.5000;0.4322;1.0466;
1387.8000;0.4339;1.0466;
1388.1000;0.4322;1.0560;
1388.4000;0.4339;1.0536;
1388.7000;0.4347;1.0490;
1389.0000;0.4355;1.0513;
1389.3000;0.4339;1.0443;
1389.6000;0.4330;1.0397;
1389.9000;0.4322;1.0350;
1390.2000;0.4330;1.0443;
1390.5000;0.4322;1.0397;
1390.8000;0.4330;1.0420;
1391.1000;0.4347;1.0373;
1391.4000;0.4330;1.0373;
1391.7000;0.4339;1.0536;
1392.0000;0.4314;1.0443;
1392.3000;0.4330;1.0490;
1392.6000;0.4322;1.0490;
1392.9000;0.4330;1.0490;
1393.2000;0.4363;1.0560;
1393.5000;0.4420;1.0676;
1393.8000;0.4363;1.0606;
1394.1000;0.4330;1.0490;
1394.4000;0.4347;1.0583;
1394.7000;0.4330;1.0490;
1395.0000;0.4339;1.0536;
1395.3000;0.4330;1.0490;
1395.6000;0.4387;1.0583;
1395.9000;0.4322;1.0443;
1396.2000;0.4314;1.0443;
1396.5000;0.4339;1.0490;
1396.8000;0.4330;1.0513;
1397.1000;0.4314;1.0490;
1397.4000;0.4339;1.0513;
1397.7000;0.4322;1.0397;
1398.0000;0.4339;1.0466;
1398.3000;0.4306;1.0443;
1398.6000;0.4322;1.0513;
1398.9000;0.4339;1.0536;
1399.2000;0.4339;1.0536;
1399.5000;0.4282;1.0420;
1399.8000;0.4339;1.0560;
