time/ms;Fluo/V;P700 deltaI/I x10³;
-199.8000;0.4396;1.0210;
-199.5000;0.4396;1.0163;
-199.2000;0.4444;1.0280;
-198.9000;0.4387;1.0140;
-198.6000;0.4396;1.0094;
-198.3000;0.4363;1.0094;
-198.0000;0.4396;1.0187;
-197.7000;0.4396;1.0187;
-197.4000;0.4347;1.0000;
-197.1000;0.4396;1.0163;
-196.8000;0.4387;1.0140;
-196.5000;0.4404;1.0210;
-196.2000;0.4412;1.0210;
-195.9000;0.4436;1.0303;
-195.6000;0.4412;1.0187;
-195.3000;0.4396;1.0280;
-195.0000;0.4371;1.0233;
-194.7000;0.4396;1.0257;
-194.4000;0.4387;1.0163;
-194.1000;0.4347;1.0117;
-193.8000;0.4469;1.0350;
-193.5000;0.4387;1.0140;
-193.2000;0.4371;1.0094;
-192.9000;0.4371;1.0117;
-192.6000;0.4396;1.0163;
-192.3000;0.4404;1.0163;
-192.0000;0.4387;1.0210;
-191.7000;0.4379;1.0210;
-191.4000;0.4412;1.0257;
-191.1000;0.4396;1.0257;
-190.8000;0.4396;1.0210;
-190.5000;0.4379;1.0140;
-190.2000;0.4404;1.0140;
-189.9000;0.4387;1.0070;
-189.6000;0.4387;0.9977;
-189.3000;0.4396;0.9930;
-189.0000;0.4396;0.9907;
-188.7000;0.4404;0.9954;
-188.4000;0.4387;0.9884;
-188.1000;0.4387;1.0024;
-187.8000;0.4379;1.0047;
-187.5000;0.4387;1.0117;
-187.2000;0.4404;1.0163;
-186.9000;0.4379;1.0140;
-186.6000;0.4404;1.0280;
-186.3000;0.4396;1.0280;
-186.0000;0.4412;1.0303;
-185.7000;0.4396;1.0233;
-185.4000;0.4355;1.0163;
-185.1000;0.4363;1.0117;
-184.8000;0.4387;1.0210;
-184.5000;0.4404;1.0233;
-184.2000;0.4404;1.0210;
-183.9000;0.4404;1.0210;
-183.6000;0.4404;1.0233;
-183.3000;0.4379;1.0233;
-183.0000;0.4404;1.0257;
-182.7000;0.4387;1.0140;
-182.4000;0.4404;1.0140;
-182.1000;0.4396;1.0140;
-181.8000;0.4396;1.0163;
-181.5000;0.4363;1.0117;
-181.2000;0.4404;1.0210;
-180.9000;0.4396;1.0257;
-180.6000;0.4404;1.0257;
-180.3000;0.4387;1.0163;
-180.0000;0.4371;1.0140;
-179.7000;0.4404;1.0210;
-179.4000;0.4387;1.0210;
-179.1000;0.4355;1.0187;
-178.8000;0.4387;1.0210;
-178.5000;0.4371;1.0140;
-178.2000;0.4371;1.0094;
-177.9000;0.4371;1.0094;
-177.6000;0.4379;1.0117;
-177.3000;0.4404;1.0210;
-177.0000;0.4412;1.0187;
-176.7000;0.4387;1.0117;
-176.4000;0.4387;1.0210;
-176.1000;0.4396;1.0327;
-175.8000;0.4404;1.0420;
-175.5000;0.4387;1.0443;
-175.2000;0.4379;1.0443;
-174.9000;0.4404;1.0443;
-174.6000;0.4404;1.0397;
-174.3000;0.4371;1.0303;
-174.0000;0.4387;1.0303;
-173.7000;0.4371;1.0233;
-173.4000;0.4404;1.0350;
-173.1000;0.4396;1.0350;
-172.8000;0.4371;1.0210;
-172.5000;0.4387;1.0140;
-172.2000;0.4387;1.0117;
-171.9000;0.4371;1.0094;
-171.6000;0.4379;1.0163;
-171.3000;0.4387;1.0257;
-171.0000;0.4396;1.0233;
-170.7000;0.4396;1.0257;
-170.4000;0.4396;1.0210;
-170.1000;0.4379;1.0187;
-169.8000;0.4379;1.0233;
-169.5000;0.4379;1.0257;
-169.2000;0.4420;1.0397;
-168.9000;0.4379;1.0303;
-168.6000;0.4387;1.0350;
-168.3000;0.4387;1.0303;
-168.0000;0.4371;1.0280;
-167.7000;0.4379;1.0303;
-167.4000;0.4363;1.0233;
-167.1000;0.4396;1.0257;
-166.8000;0.4396;1.0327;
-166.5000;0.4363;1.0280;
-166.2000;0.4387;1.0327;
-165.9000;0.4404;1.0373;
-165.6000;0.4404;1.0257;
-165.3000;0.4436;1.0327;
-165.0000;0.4396;1.0117;
-164.7000;0.4387;1.0070;
-164.4000;0.4387;1.0117;
-164.1000;0.4396;1.0094;
-163.8000;0.4387;1.0047;
-163.5000;0.4387;1.0070;
-163.2000;0.4387;1.0117;
-162.9000;0.4387;1.0094;
-162.6000;0.4396;1.0140;
-162.3000;0.4371;1.0117;
-162.0000;0.4396;1.0070;
-161.7000;0.4396;1.0117;
-161.4000;0.4396;1.0187;
-161.1000;0.4404;1.0163;
-160.8000;0.4396;1.0163;
-160.5000;0.4404;1.0210;
-160.2000;0.4379;1.0233;
-159.9000;0.4396;1.0397;
-159.6000;0.4396;1.0397;
-159.3000;0.4387;1.0350;
-159.0000;0.4396;1.0350;
-158.7000;0.4387;1.0327;
-158.4000;0.4387;1.0233;
-158.1000;0.4379;1.0187;
-157.8000;0.4371;1.0140;
-157.5000;0.4379;1.0070;
-157.2000;0.4371;1.0047;
-156.9000;0.4387;1.0070;
-156.6000;0.4412;1.0140;
-156.3000;0.4396;1.0163;
-156.0000;0.4387;1.0140;
-155.7000;0.4396;1.0233;
-155.4000;0.4387;1.0233;
-155.1000;0.4412;1.0280;
-154.8000;0.4387;1.0233;
-154.5000;0.4379;1.0210;
-154.2000;0.4396;1.0233;
-153.9000;0.4428;1.0303;
-153.6000;0.4387;1.0047;
-153.3000;0.4379;1.0047;
-153.0000;0.4396;1.0140;
-152.7000;0.4387;1.0070;
-152.4000;0.4396;1.0024;
-152.1000;0.4379;1.0000;
-151.8000;0.4379;0.9977;
-151.5000;0.4396;1.0000;
-151.2000;0.4339;0.9767;
-150.9000;0.4396;0.9977;
-150.6000;0.4379;1.0070;
-150.3000;0.4339;0.9930;
-150.0000;0.4396;1.0094;
-149.7000;0.4396;1.0094;
-149.4000;0.4371;1.0070;
-149.1000;0.4387;1.0047;
-148.8000;0.4396;1.0070;
-148.5000;0.4387;1.0024;
-148.2000;0.4387;1.0047;
-147.9000;0.4412;1.0070;
-147.6000;0.4396;1.0070;
-147.3000;0.4396;1.0094;
-147.0000;0.4387;1.0187;
-146.7000;0.4379;1.0140;
-146.4000;0.4404;1.0140;
-146.1000;0.4396;1.0233;
-145.8000;0.4330;1.0047;
-145.5000;0.4412;1.0187;
-145.2000;0.4371;0.9954;
-144.9000;0.4404;1.0000;
-144.6000;0.4387;0.9954;
-144.3000;0.4396;0.9907;
-144.0000;0.4412;0.9954;
-143.7000;0.4428;1.0047;
-143.4000;0.4396;0.9977;
-143.1000;0.4379;0.9884;
-142.8000;0.4387;0.9907;
-142.5000;0.4387;0.9884;
-142.2000;0.4396;0.9930;
-141.9000;0.4379;0.9860;
-141.6000;0.4396;0.9884;
-141.3000;0.4396;0.9837;
-141.0000;0.4461;1.0000;
-140.7000;0.4371;0.9721;
-140.4000;0.4404;0.9814;
-140.1000;0.4396;0.9860;
-139.8000;0.4363;0.9814;
-139.5000;0.4387;0.9790;
-139.2000;0.4379;0.9744;
-138.9000;0.4322;0.9651;
-138.6000;0.4387;0.9837;
-138.3000;0.4387;0.9907;
-138.0000;0.4387;0.9907;
-137.7000;0.4396;0.9884;
-137.4000;0.4404;0.9884;
-137.1000;0.4371;0.9884;
-136.8000;0.4379;0.9860;
-136.5000;0.4379;0.9860;
-136.2000;0.4379;0.9814;
-135.9000;0.4379;0.9767;
-135.6000;0.4485;1.0024;
-135.3000;0.4387;0.9860;
-135.0000;0.4412;0.9884;
-134.7000;0.4347;0.9744;
-134.4000;0.4379;0.9767;
-134.1000;0.4387;0.9837;
-133.8000;0.4371;0.9837;
-133.5000;0.4379;0.9790;
-133.2000;0.4396;0.9860;
-132.9000;0.4396;0.9837;
-132.6000;0.4420;0.9884;
-132.3000;0.4379;0.9790;
-132.0000;0.4379;0.9790;
-131.7000;0.4396;0.9860;
-131.4000;0.4387;0.9837;
-131.1000;0.4387;0.9837;
-130.8000;0.4363;0.9860;
-130.5000;0.4396;0.9837;
-130.2000;0.4387;0.9814;
-129.9000;0.4412;0.9860;
-129.6000;0.4379;0.9837;
-129.3000;0.4396;0.9814;
-129.0000;0.4379;0.9721;
-128.7000;0.4396;0.9884;
-128.4000;0.4371;0.9884;
-128.1000;0.4314;0.9721;
-127.8000;0.4371;0.9814;
-127.5000;0.4387;0.9884;
-127.2000;0.4404;0.9837;
-126.9000;0.4420;0.9884;
-126.6000;0.4371;0.9837;
-126.3000;0.4404;0.9884;
-126.0000;0.4387;0.9884;
-125.7000;0.4387;0.9930;
-125.4000;0.4436;1.0140;
-125.1000;0.4363;0.9954;
-124.8000;0.4387;0.9907;
-124.5000;0.4469;1.0117;
-124.2000;0.4379;0.9884;
-123.9000;0.4387;0.9930;
-123.6000;0.4363;0.9744;
-123.3000;0.4387;0.9814;
-123.0000;0.4314;0.9744;
-122.7000;0.4396;0.9977;
-122.4000;0.4412;0.9930;
-122.1000;0.4396;0.9977;
-121.8000;0.4363;0.9977;
-121.5000;0.4404;1.0000;
-121.2000;0.4371;0.9954;
-120.9000;0.4396;0.9954;
-120.6000;0.4404;1.0000;
-120.3000;0.4363;0.9930;
-120.0000;0.4412;1.0047;
-119.7000;0.4412;1.0094;
-119.4000;0.4412;1.0024;
-119.1000;0.4363;0.9954;
-118.8000;0.4404;1.0210;
-118.5000;0.4396;1.0187;
-118.2000;0.4379;1.0117;
-117.9000;0.4379;1.0117;
-117.6000;0.4387;1.0070;
-117.3000;0.4371;1.0094;
-117.0000;0.4444;1.0257;
-116.7000;0.4404;1.0094;
-116.4000;0.4371;1.0070;
-116.1000;0.4306;0.9930;
-115.8000;0.4396;1.0140;
-115.5000;0.4387;1.0140;
-115.2000;0.4436;1.0303;
-114.9000;0.4387;1.0210;
-114.6000;0.4387;1.0210;
-114.3000;0.4371;1.0280;
-114.0000;0.4387;1.0327;
-113.7000;0.4347;1.0140;
-113.4000;0.4387;1.0140;
-113.1000;0.4371;1.0163;
-112.8000;0.4363;1.0233;
-112.5000;0.4379;1.0233;
-112.2000;0.4379;1.0094;
-111.9000;0.4404;1.0140;
-111.6000;0.4387;1.0140;
-111.3000;0.4387;1.0070;
-111.0000;0.4379;1.0047;
-110.7000;0.4412;1.0140;
-110.4000;0.4379;1.0140;
-110.1000;0.4387;1.0047;
-109.8000;0.4387;1.0140;
-109.5000;0.4387;1.0140;
-109.2000;0.4404;1.0257;
-108.9000;0.4404;1.0140;
-108.6000;0.4387;1.0117;
-108.3000;0.4387;1.0117;
-108.0000;0.4339;0.9907;
-107.7000;0.4420;1.0210;
-107.4000;0.4379;1.0233;
-107.1000;0.4379;1.0094;
-106.8000;0.4412;1.0117;
-106.5000;0.4371;0.9977;
-106.2000;0.4396;1.0047;
-105.9000;0.4379;1.0047;
-105.6000;0.4379;1.0094;
-105.3000;0.4396;1.0163;
-105.0000;0.4387;1.0140;
-104.7000;0.4347;1.0024;
-104.4000;0.4404;1.0047;
-104.1000;0.4404;0.9977;
-103.8000;0.4387;0.9930;
-103.5000;0.4363;0.9884;
-103.2000;0.4371;1.0000;
-102.9000;0.4404;1.0094;
-102.6000;0.4379;0.9930;
-102.3000;0.4404;0.9884;
-102.0000;0.4387;0.9954;
-101.7000;0.4387;0.9907;
-101.4000;0.4379;0.9907;
-101.1000;0.4355;0.9930;
-100.8000;0.4387;1.0000;
-100.5000;0.4404;1.0047;
-100.2000;0.4396;1.0047;
-99.9000;0.4387;1.0070;
-99.6000;0.4387;1.0024;
-99.3000;0.4396;1.0024;
-99.0000;0.4436;1.0117;
-98.7000;0.4387;0.9930;
-98.4000;0.4412;0.9907;
-98.1000;0.4396;0.9977;
-97.8000;0.4396;1.0024;
-97.5000;0.4379;1.0024;
-97.2000;0.4363;1.0000;
-96.9000;0.4436;1.0094;
-96.6000;0.4387;0.9954;
-96.3000;0.4379;0.9930;
-96.0000;0.4444;1.0094;
-95.7000;0.4379;1.0000;
-95.4000;0.4404;1.0070;
-95.1000;0.4461;1.0187;
-94.8000;0.4396;1.0094;
-94.5000;0.4412;1.0140;
-94.2000;0.4396;1.0187;
-93.9000;0.4412;1.0140;
-93.6000;0.4387;1.0210;
-93.3000;0.4396;1.0210;
-93.0000;0.4420;1.0303;
-92.7000;0.4444;1.0373;
-92.4000;0.4404;1.0327;
-92.1000;0.4371;1.0163;
-91.8000;0.4387;1.0187;
-91.5000;0.4396;1.0233;
-91.2000;0.4387;1.0233;
-90.9000;0.4387;1.0233;
-90.6000;0.4355;1.0140;
-90.3000;0.4387;1.0257;
-90.0000;0.4379;1.0373;
-89.7000;0.4379;1.0303;
-89.4000;0.4387;1.0233;
-89.1000;0.4387;1.0163;
-88.8000;0.4387;1.0117;
-88.5000;0.4387;1.0047;
-88.2000;0.4396;1.0094;
-87.9000;0.4387;1.0140;
-87.6000;0.4412;1.0210;
-87.3000;0.4387;1.0140;
-87.0000;0.4387;1.0117;
-86.7000;0.4355;1.0047;
-86.4000;0.4387;1.0187;
-86.1000;0.4387;1.0187;
-85.8000;0.4379;1.0094;
-85.5000;0.4461;1.0257;
-85.2000;0.4396;1.0117;
-84.9000;0.4412;1.0094;
-84.6000;0.4306;0.9814;
-84.3000;0.4355;1.0000;
-84.0000;0.4387;1.0047;
-83.7000;0.4387;1.0047;
-83.4000;0.4339;1.0070;
-83.1000;0.4379;1.0140;
-82.8000;0.4379;1.0117;
-82.5000;0.4453;1.0187;
-82.2000;0.4396;1.0070;
-81.9000;0.4396;1.0024;
-81.6000;0.4396;0.9930;
-81.3000;0.4396;0.9977;
-81.0000;0.4379;1.0070;
-80.7000;0.4387;1.0117;
-80.4000;0.4379;1.0047;
-80.1000;0.4436;1.0187;
-79.8000;0.4274;0.9860;
-79.5000;0.4387;1.0117;
-79.2000;0.4379;1.0047;
-78.9000;0.4371;1.0024;
-78.6000;0.4379;1.0047;
-78.3000;0.4371;1.0024;
-78.0000;0.4396;0.9977;
-77.7000;0.4412;0.9954;
-77.4000;0.4396;1.0024;
-77.1000;0.4387;1.0140;
-76.8000;0.4339;1.0070;
-76.5000;0.4436;1.0233;
-76.2000;0.4387;1.0117;
-75.9000;0.4404;1.0187;
-75.6000;0.4387;1.0210;
-75.3000;0.4396;1.0280;
-75.0000;0.4355;1.0233;
-74.7000;0.4404;1.0257;
-74.4000;0.4371;1.0187;
-74.1000;0.4387;1.0163;
-73.8000;0.4387;1.0303;
-73.5000;0.4363;1.0140;
-73.2000;0.4396;1.0233;
-72.9000;0.4396;1.0303;
-72.6000;0.4379;1.0257;
-72.3000;0.4412;1.0327;
-72.0000;0.4412;1.0466;
-71.7000;0.4387;1.0397;
-71.4000;0.4396;1.0466;
-71.1000;0.4396;1.0466;
-70.8000;0.4355;1.0466;
-70.5000;0.4387;1.0420;
-70.2000;0.4387;1.0373;
-69.9000;0.4469;1.0630;
-69.6000;0.4387;1.0327;
-69.3000;0.4379;1.0327;
-69.0000;0.4371;1.0350;
-68.7000;0.4404;1.0466;
-68.4000;0.4371;1.0327;
-68.1000;0.4387;1.0303;
-67.8000;0.4363;1.0187;
-67.5000;0.4363;1.0094;
-67.2000;0.4396;1.0070;
-66.9000;0.4387;1.0000;
-66.6000;0.4347;0.9814;
-66.3000;0.4387;0.9884;
-66.0000;0.4387;0.9907;
-65.7000;0.4379;0.9930;
-65.4000;0.4379;0.9907;
-65.1000;0.4379;0.9907;
-64.8000;0.4379;0.9837;
-64.5000;0.4339;0.9744;
-64.2000;0.4428;0.9860;
-63.9000;0.4379;0.9790;
-63.6000;0.4363;0.9884;
-63.3000;0.4404;1.0000;
-63.0000;0.4420;1.0117;
-62.7000;0.4436;1.0210;
-62.4000;0.4387;1.0117;
-62.1000;0.4404;1.0163;
-61.8000;0.4412;1.0140;
-61.5000;0.4371;1.0047;
-61.2000;0.4396;1.0117;
-60.9000;0.4404;1.0094;
-60.6000;0.4396;1.0140;
-60.3000;0.4396;1.0210;
-60.0000;0.4404;1.0303;
-59.7000;0.4387;1.0327;
-59.4000;0.4379;1.0257;
-59.1000;0.4379;1.0233;
-58.8000;0.4371;1.0233;
-58.5000;0.4387;1.0233;
-58.2000;0.4404;1.0303;
-57.9000;0.4453;1.0420;
-57.6000;0.4339;1.0187;
-57.3000;0.4404;1.0303;
-57.0000;0.4387;1.0280;
-56.7000;0.4396;1.0350;
-56.4000;0.4379;1.0397;
-56.1000;0.4371;1.0327;
-55.8000;0.4387;1.0350;
-55.5000;0.4347;1.0257;
-55.2000;0.4379;1.0327;
-54.9000;0.4339;1.0163;
-54.6000;0.4444;1.0303;
-54.3000;0.4396;1.0000;
-54.0000;0.4363;0.9954;
-53.7000;0.4371;0.9954;
-53.4000;0.4379;0.9954;
-53.1000;0.4404;1.0024;
-52.8000;0.4355;0.9930;
-52.5000;0.4371;1.0047;
-52.2000;0.4330;0.9860;
-51.9000;0.4396;1.0024;
-51.6000;0.4412;1.0163;
-51.3000;0.4396;1.0070;
-51.0000;0.4387;1.0047;
-50.7000;0.4396;1.0070;
-50.4000;0.4404;1.0024;
-50.1000;0.4404;1.0024;
-49.8000;0.4387;0.9977;
-49.5000;0.4404;1.0024;
-49.2000;0.4330;0.9814;
-48.9000;0.4387;1.0047;
-48.6000;0.4396;1.0094;
-48.3000;0.4387;1.0117;
-48.0000;0.4412;1.0024;
-47.7000;0.4371;0.9907;
-47.4000;0.4387;0.9930;
-47.1000;0.4396;1.0000;
-46.8000;0.4355;1.0000;
-46.5000;0.4387;1.0094;
-46.2000;0.4396;1.0070;
-45.9000;0.4461;1.0257;
-45.6000;0.4396;1.0117;
-45.3000;0.4387;1.0094;
-45.0000;0.4363;1.0024;
-44.7000;0.4387;1.0210;
-44.4000;0.4371;1.0280;
-44.1000;0.4420;1.0350;
-43.8000;0.4379;1.0350;
-43.5000;0.4387;1.0373;
-43.2000;0.4387;1.0280;
-42.9000;0.4371;1.0233;
-42.6000;0.4371;1.0210;
-42.3000;0.4396;1.0117;
-42.0000;0.4371;1.0070;
-41.7000;0.4387;1.0094;
-41.4000;0.4404;1.0163;
-41.1000;0.4371;1.0117;
-40.8000;0.4355;1.0140;
-40.5000;0.4363;1.0187;
-40.2000;0.4387;1.0303;
-39.9000;0.4371;1.0373;
-39.6000;0.4355;1.0327;
-39.3000;0.4355;1.0280;
-39.0000;0.4404;1.0443;
-38.7000;0.4379;1.0350;
-38.4000;0.4396;1.0373;
-38.1000;0.4379;1.0327;
-37.8000;0.4412;1.0350;
-37.5000;0.4396;1.0303;
-37.2000;0.4387;1.0233;
-36.9000;0.4379;1.0233;
-36.6000;0.4396;1.0233;
-36.3000;0.4396;1.0257;
-36.0000;0.4396;1.0303;
-35.7000;0.4396;1.0257;
-35.4000;0.4420;1.0327;
-35.1000;0.4379;1.0303;
-34.8000;0.4436;1.0420;
-34.5000;0.4420;1.0350;
-34.2000;0.4412;1.0350;
-33.9000;0.4404;1.0350;
-33.6000;0.4387;1.0280;
-33.3000;0.4387;1.0187;
-33.0000;0.4379;1.0163;
-32.7000;0.4387;1.0117;
-32.4000;0.4420;1.0163;
-32.1000;0.4404;1.0140;
-31.8000;0.4396;1.0140;
-31.5000;0.4396;1.0210;
-31.2000;0.4412;1.0233;
-30.9000;0.4379;1.0210;
-30.6000;0.4412;1.0233;
-30.3000;0.4387;1.0163;
-30.0000;0.4404;1.0163;
-29.7000;0.4396;1.0070;
-29.4000;0.4371;1.0117;
-29.1000;0.4379;1.0210;
-28.8000;0.4387;1.0210;
-28.5000;0.4371;1.0280;
-28.2000;0.4347;1.0233;
-27.9000;0.4396;1.0233;
-27.6000;0.4396;1.0163;
-27.3000;0.4379;1.0117;
-27.0000;0.4387;1.0210;
-26.7000;0.4371;1.0257;
-26.4000;0.4379;1.0233;
-26.1000;0.4404;1.0373;
-25.8000;0.4396;1.0303;
-25.5000;0.4379;1.0210;
-25.2000;0.4396;1.0210;
-24.9000;0.4396;1.0233;
-24.6000;0.4404;1.0303;
-24.3000;0.4379;1.0303;
-24.0000;0.4428;1.0373;
-23.7000;0.4396;1.0327;
-23.4000;0.4404;1.0303;
-23.1000;0.4355;1.0233;
-22.8000;0.4379;1.0350;
-22.5000;0.4396;1.0303;
-22.2000;0.4387;1.0280;
-21.9000;0.4371;1.0303;
-21.6000;0.4371;1.0257;
-21.3000;0.4396;1.0233;
-21.0000;0.4387;1.0163;
-20.7000;0.4469;1.0443;
-20.4000;0.4379;1.0280;
-20.1000;0.4396;1.0350;
-19.8000;0.4387;1.0443;
-19.5000;0.4379;1.0443;
-19.2000;0.4363;1.0280;
-18.9000;0.4379;1.0373;
-18.6000;0.4387;1.0490;
-18.3000;0.4379;1.0490;
-18.0000;0.4387;1.0536;
-17.7000;0.4387;1.0513;
-17.4000;0.4396;1.0466;
-17.1000;0.4387;1.0373;
-16.8000;0.4371;1.0350;
-16.5000;0.4379;1.0280;
-16.2000;0.4396;1.0280;
-15.9000;0.4379;1.0280;
-15.6000;0.4404;1.0303;
-15.3000;0.4387;1.0280;
-15.0000;0.4387;1.0280;
-14.7000;0.4412;1.0303;
-14.4000;0.4379;1.0233;
-14.1000;0.4379;1.0117;
-13.8000;0.4396;1.0140;
-13.5000;0.4412;1.0233;
-13.2000;0.4371;1.0163;
-12.9000;0.4355;1.0140;
-12.6000;0.4396;1.0280;
-12.3000;0.4412;1.0187;
-12.0000;0.4379;1.0094;
-11.7000;0.4387;1.0280;
-11.4000;0.4387;1.0280;
-11.1000;0.4412;1.0257;
-10.8000;0.4347;1.0094;
-10.5000;0.4396;1.0163;
-10.2000;0.4387;1.0233;
-9.9000;0.4412;1.0327;
-9.6000;0.4387;1.0303;
-9.3000;0.4379;1.0280;
-9.0000;0.4387;1.0257;
-8.7000;0.4387;1.0210;
-8.4000;0.4396;1.0280;
-8.1000;0.4387;1.0233;
-7.8000;0.4404;1.0233;
-7.5000;0.4469;1.0420;
-7.2000;0.4379;1.0303;
-6.9000;0.4387;1.0257;
-6.6000;0.4404;1.0350;
-6.3000;0.4387;1.0303;
-6.0000;0.4396;1.0303;
-5.7000;0.4371;1.0187;
-5.4000;0.4371;1.0233;
-5.1000;0.4379;1.0280;
-4.8000;0.4396;1.0303;
-4.5000;0.4387;1.0350;
-4.2000;0.4371;1.0257;
-3.9000;0.4404;1.0257;
-3.6000;0.4396;1.0257;
-3.3000;0.4396;1.0163;
-3.0000;0.4387;1.0187;
-2.7000;0.4347;1.0117;
-2.4000;0.4371;1.0257;
-2.1000;0.4371;1.0163;
-1.8000;0.4371;1.0140;
-1.5000;0.4371;1.0117;
-1.2000;0.4371;1.0094;
-0.9000;0.4396;1.0117;
-0.6000;0.4387;1.0117;
-0.3000;0.4420;1.0210;
0.0000;0.4420;1.0210;
0.3000;0.4575;1.0233;
0.6000;0.5047;1.0863;
0.9000;0.5405;1.1422;
1.2000;0.5682;1.1865;
1.5000;0.5918;1.2378;
1.8000;0.6089;1.2704;
2.1000;0.6235;1.3054;
2.4000;0.6349;1.3310;
2.7000;0.6431;1.3567;
3.0000;0.6528;1.3893;
3.3000;0.6528;1.3870;
3.6000;0.6626;1.4056;
3.9000;0.6764;1.4313;
4.2000;0.6716;1.4126;
4.5000;0.6748;1.4219;
4.8000;0.6764;1.4313;
5.1000;0.6789;1.4336;
5.4000;0.6805;1.4359;
5.7000;0.6846;1.4499;
6.0000;0.6895;1.4592;
6.3000;0.6919;1.4709;
6.6000;0.6927;1.4732;
6.9000;0.6960;1.4662;
7.2000;0.6992;1.4662;
7.5000;0.7098;1.4802;
7.8000;0.6984;1.4546;
8.1000;0.7049;1.4592;
8.4000;0.7066;1.4546;
8.7000;0.7131;1.4662;
9.0000;0.7155;1.4662;
9.3000;0.7106;1.4523;
9.6000;0.7212;1.4756;
9.9000;0.7163;1.4662;
10.2000;0.7179;1.4569;
10.5000;0.7204;1.4662;
10.8000;0.7220;1.4662;
11.1000;0.7236;1.4639;
11.4000;0.7253;1.4639;
11.7000;0.7285;1.4686;
12.0000;0.7318;1.4826;
12.3000;0.7285;1.4732;
12.6000;0.7302;1.4756;
12.9000;0.7310;1.4802;
13.2000;0.7359;1.4802;
13.5000;0.7350;1.4732;
13.8000;0.7391;1.4662;
14.1000;0.7367;1.4523;
14.4000;0.7440;1.4756;
14.7000;0.7481;1.4872;
15.0000;0.7440;1.4616;
15.3000;0.7464;1.4616;
15.6000;0.7538;1.4686;
15.9000;0.7546;1.4709;
16.2000;0.7538;1.4592;
16.5000;0.7546;1.4592;
16.8000;0.7530;1.4429;
17.1000;0.7595;1.4546;
17.4000;0.7562;1.4523;
17.7000;0.7578;1.4499;
18.0000;0.7595;1.4453;
18.3000;0.7627;1.4453;
18.6000;0.7627;1.4383;
18.9000;0.7603;1.4266;
19.2000;0.7635;1.4336;
19.5000;0.7668;1.4429;
19.8000;0.7782;1.4662;
20.1000;0.7652;1.4289;
20.4000;0.7741;1.4546;
20.7000;0.7700;1.4546;
21.0000;0.7749;1.4592;
21.3000;0.7798;1.4686;
21.6000;0.7749;1.4476;
21.9000;0.7774;1.4499;
22.2000;0.7692;1.4243;
22.5000;0.7782;1.4406;
22.8000;0.7774;1.4383;
23.1000;0.7790;1.4383;
23.4000;0.7814;1.4406;
23.7000;0.7814;1.4336;
24.0000;0.7798;1.4289;
24.3000;0.7912;1.4476;
24.6000;0.7823;1.4219;
24.9000;0.7863;1.4266;
25.2000;0.7880;1.4266;
25.5000;0.7863;1.4150;
25.8000;0.7863;1.4080;
26.1000;0.7904;1.4103;
26.4000;0.7888;1.4219;
26.7000;0.7896;1.4243;
27.0000;0.7896;1.4219;
27.3000;0.7912;1.4196;
27.6000;0.7920;1.4150;
27.9000;0.7969;1.4266;
28.2000;0.7920;1.4173;
28.5000;0.7977;1.4219;
28.8000;0.7953;1.4103;
29.1000;0.7953;1.4080;
29.4000;0.7912;1.4080;
29.7000;0.7953;1.4219;
30.0000;0.7993;1.4289;
30.3000;0.7993;1.4313;
30.6000;0.7993;1.4336;
30.9000;0.8002;1.4453;
31.2000;0.8010;1.4406;
31.5000;0.8059;1.4569;
31.8000;0.8018;1.4336;
32.1000;0.8034;1.4383;
32.4000;0.8018;1.4313;
32.7000;0.8026;1.4359;
33.0000;0.8026;1.4266;
33.3000;0.8026;1.4196;
33.6000;0.8059;1.4406;
33.9000;0.8067;1.4453;
34.2000;0.8059;1.4476;
34.5000;0.8075;1.4429;
34.8000;0.8067;1.4383;
35.1000;0.8075;1.4336;
35.4000;0.8059;1.4336;
35.7000;0.8083;1.4383;
36.0000;0.8107;1.4406;
36.3000;0.8099;1.4406;
36.6000;0.8083;1.4429;
36.9000;0.8075;1.4383;
37.2000;0.8124;1.4429;
37.5000;0.8107;1.4383;
37.8000;0.8148;1.4453;
38.1000;0.8148;1.4476;
38.4000;0.8132;1.4476;
38.7000;0.8140;1.4453;
39.0000;0.8132;1.4429;
39.3000;0.8140;1.4383;
39.6000;0.8140;1.4313;
39.9000;0.8156;1.4336;
40.2000;0.8140;1.4196;
40.5000;0.8148;1.4266;
40.8000;0.8164;1.4289;
41.1000;0.8189;1.4336;
41.4000;0.8189;1.4289;
41.7000;0.8164;1.4289;
42.0000;0.8173;1.4173;
42.3000;0.8156;1.4126;
42.6000;0.8197;1.4243;
42.9000;0.8335;1.4523;
43.2000;0.8181;1.4196;
43.5000;0.8205;1.4336;
43.8000;0.8205;1.4383;
44.1000;0.8246;1.4499;
44.4000;0.8205;1.4383;
44.7000;0.8205;1.4453;
45.0000;0.8205;1.4406;
45.3000;0.8213;1.4383;
45.6000;0.8230;1.4336;
45.9000;0.8189;1.4219;
46.2000;0.8213;1.4219;
46.5000;0.8221;1.4243;
46.8000;0.8238;1.4313;
47.1000;0.8254;1.4336;
47.4000;0.8246;1.4313;
47.7000;0.8270;1.4313;
48.0000;0.8254;1.4243;
48.3000;0.8246;1.4080;
48.6000;0.8262;1.4080;
48.9000;0.8246;1.4033;
49.2000;0.8262;1.4056;
49.5000;0.8278;1.4080;
49.8000;0.8270;1.4056;
50.1000;0.8270;1.4080;
50.4000;0.8303;1.4033;
50.7000;0.8270;1.3963;
51.0000;0.8278;1.3800;
51.3000;0.8311;1.3777;
51.6000;0.8303;1.3730;
51.9000;0.8295;1.3753;
52.2000;0.8295;1.3777;
52.5000;0.8319;1.3823;
52.8000;0.8311;1.3823;
53.1000;0.8311;1.3823;
53.4000;0.8270;1.3753;
53.7000;0.8303;1.3870;
54.0000;0.8327;1.3940;
54.3000;0.8360;1.3940;
54.6000;0.8311;1.3893;
54.9000;0.8327;1.3916;
55.2000;0.8335;1.3893;
55.5000;0.8344;1.4033;
55.8000;0.8352;1.4010;
56.1000;0.8311;1.3893;
56.4000;0.8360;1.4010;
56.7000;0.8368;1.4080;
57.0000;0.8360;1.4010;
57.3000;0.8352;1.3940;
57.6000;0.8360;1.3963;
57.9000;0.8319;1.3916;
58.2000;0.8327;1.3986;
58.5000;0.8425;1.4103;
58.8000;0.8368;1.3940;
59.1000;0.8400;1.3963;
59.4000;0.8360;1.3870;
59.7000;0.8360;1.4010;
60.0000;0.8360;1.4056;
60.3000;0.8352;1.4033;
60.6000;0.8392;1.3986;
60.9000;0.8368;1.3870;
61.2000;0.8384;1.3777;
61.5000;0.8376;1.3777;
61.8000;0.8400;1.3777;
62.1000;0.8392;1.3730;
62.4000;0.8392;1.3800;
62.7000;0.8384;1.3823;
63.0000;0.8400;1.3940;
63.3000;0.8376;1.3823;
63.6000;0.8384;1.3823;
63.9000;0.8392;1.3870;
64.2000;0.8425;1.3940;
64.5000;0.8425;1.3893;
64.8000;0.8400;1.3823;
65.1000;0.8400;1.4010;
65.4000;0.8417;1.4056;
65.7000;0.8417;1.4103;
66.0000;0.8433;1.4126;
66.3000;0.8417;1.4056;
66.6000;0.8417;1.4103;
66.9000;0.8425;1.4126;
67.2000;0.8425;1.4103;
67.5000;0.8425;1.4010;
67.8000;0.8400;1.3893;
68.1000;0.8425;1.3986;
68.4000;0.8441;1.4056;
68.7000;0.8433;1.4056;
69.0000;0.8433;1.4010;
69.3000;0.8417;1.4010;
69.6000;0.8433;1.3940;
69.9000;0.8449;1.3986;
70.2000;0.8433;1.3893;
70.5000;0.8449;1.3823;
70.8000;0.8457;1.3777;
71.1000;0.8474;1.3870;
71.4000;0.8449;1.3753;
71.7000;0.8457;1.3823;
72.0000;0.8457;1.3847;
72.3000;0.8457;1.3753;
72.6000;0.8466;1.3730;
72.9000;0.8441;1.3637;
73.2000;0.8474;1.3660;
73.5000;0.8466;1.3590;
73.8000;0.8482;1.3660;
74.1000;0.8482;1.3567;
74.4000;0.8571;1.3847;
74.7000;0.8400;1.3427;
75.0000;0.8466;1.3660;
75.3000;0.8506;1.3730;
75.6000;0.8474;1.3683;
75.9000;0.8482;1.3753;
76.2000;0.8474;1.3777;
76.5000;0.8498;1.3893;
76.8000;0.8506;1.3870;
77.1000;0.8490;1.3753;
77.4000;0.8506;1.3730;
77.7000;0.8514;1.3800;
78.0000;0.8506;1.3847;
78.3000;0.8482;1.3777;
78.6000;0.8506;1.3730;
78.9000;0.8498;1.3683;
79.2000;0.8498;1.3707;
79.5000;0.8482;1.3777;
79.8000;0.8506;1.3777;
80.1000;0.8514;1.3753;
80.4000;0.8506;1.3730;
80.7000;0.8498;1.3637;
81.0000;0.8523;1.3613;
81.3000;0.8514;1.3567;
81.6000;0.8523;1.3567;
81.9000;0.8539;1.3590;
82.2000;0.8620;1.3777;
82.5000;0.8466;1.3404;
82.8000;0.8523;1.3543;
83.1000;0.8523;1.3590;
83.4000;0.8563;1.3707;
83.7000;0.8539;1.3683;
84.0000;0.8547;1.3707;
84.3000;0.8514;1.3660;
84.6000;0.8539;1.3777;
84.9000;0.8547;1.3800;
85.2000;0.8547;1.3730;
85.5000;0.8555;1.3707;
85.8000;0.8531;1.3637;
86.1000;0.8555;1.3683;
86.4000;0.8571;1.3660;
86.7000;0.8555;1.3637;
87.0000;0.8555;1.3567;
87.3000;0.8563;1.3613;
87.6000;0.8571;1.3590;
87.9000;0.8555;1.3590;
88.2000;0.8563;1.3613;
88.5000;0.8571;1.3637;
88.8000;0.8571;1.3590;
89.1000;0.8571;1.3450;
89.4000;0.8563;1.3380;
89.7000;0.8563;1.3450;
90.0000;0.8563;1.3497;
90.3000;0.8555;1.3567;
90.6000;0.8571;1.3590;
90.9000;0.8555;1.3497;
91.2000;0.8563;1.3543;
91.5000;0.8580;1.3474;
91.8000;0.8555;1.3450;
92.1000;0.8563;1.3520;
92.4000;0.8563;1.3520;
92.7000;0.8580;1.3474;
93.0000;0.8580;1.3474;
93.3000;0.8685;1.3660;
93.6000;0.8588;1.3404;
93.9000;0.8596;1.3357;
94.2000;0.8571;1.3287;
94.5000;0.8580;1.3287;
94.8000;0.8604;1.3404;
95.1000;0.8604;1.3427;
95.4000;0.8514;1.3240;
95.7000;0.8588;1.3427;
96.0000;0.8628;1.3543;
96.3000;0.8571;1.3520;
96.6000;0.8604;1.3543;
96.9000;0.8539;1.3310;
97.2000;0.8588;1.3567;
97.5000;0.8596;1.3520;
97.8000;0.8596;1.3334;
98.1000;0.8612;1.3357;
98.4000;0.8604;1.3357;
98.7000;0.8604;1.3404;
99.0000;0.8612;1.3520;
99.3000;0.8604;1.3567;
99.6000;0.8596;1.3613;
99.9000;0.8604;1.3613;
100.2000;0.8596;1.3543;
100.5000;0.8596;1.3497;
100.8000;0.8612;1.3543;
101.1000;0.8612;1.3497;
101.4000;0.8702;1.3637;
101.7000;0.8637;1.3380;
102.0000;0.8612;1.3287;
102.3000;0.8628;1.3310;
102.6000;0.8637;1.3334;
102.9000;0.8637;1.3357;
103.2000;0.8620;1.3240;
103.5000;0.8604;1.3217;
103.8000;0.8620;1.3240;
104.1000;0.8628;1.3217;
104.4000;0.8637;1.3194;
104.7000;0.8628;1.3240;
105.0000;0.8637;1.3264;
105.3000;0.8645;1.3264;
105.6000;0.8620;1.3287;
105.9000;0.8628;1.3310;
106.2000;0.8628;1.3194;
106.5000;0.8637;1.3124;
106.8000;0.8653;1.3264;
107.1000;0.8580;1.3031;
107.4000;0.8645;1.3101;
107.7000;0.8645;1.3101;
108.0000;0.8645;1.3147;
108.3000;0.8661;1.3124;
108.6000;0.8653;1.3054;
108.9000;0.8645;1.3101;
109.2000;0.8653;1.2984;
109.5000;0.8661;1.2984;
109.8000;0.8677;1.3031;
110.1000;0.8653;1.3007;
110.4000;0.8661;1.3101;
110.7000;0.8645;1.3147;
111.0000;0.8628;1.3194;
111.3000;0.8661;1.3240;
111.6000;0.8637;1.3240;
111.9000;0.8645;1.3264;
112.2000;0.8669;1.3240;
112.5000;0.8653;1.3124;
112.8000;0.8677;1.3124;
113.1000;0.8677;1.3217;
113.4000;0.8669;1.3124;
113.7000;0.8661;1.3007;
114.0000;0.8661;1.3077;
114.3000;0.8669;1.3194;
114.6000;0.8661;1.3240;
114.9000;0.8653;1.3217;
115.2000;0.8596;1.3007;
115.5000;0.8661;1.3101;
115.8000;0.8637;1.3077;
116.1000;0.8661;1.3194;
116.4000;0.8645;1.3171;
116.7000;0.8653;1.3240;
117.0000;0.8669;1.3240;
117.3000;0.8653;1.3147;
117.6000;0.8677;1.3240;
117.9000;0.8775;1.3520;
118.2000;0.8661;1.3310;
118.5000;0.8685;1.3310;
118.8000;0.8669;1.3287;
119.1000;0.8685;1.3240;
119.4000;0.8677;1.3334;
119.7000;0.8685;1.3357;
120.0000;0.8685;1.3380;
120.3000;0.8685;1.3334;
120.6000;0.8694;1.3357;
120.9000;0.8702;1.3427;
121.2000;0.8677;1.3357;
121.5000;0.8726;1.3357;
121.8000;0.8694;1.3264;
122.1000;0.8710;1.3334;
122.4000;0.8694;1.3357;
122.7000;0.8677;1.3310;
123.0000;0.8694;1.3217;
123.3000;0.8669;1.3240;
123.6000;0.8694;1.3264;
123.9000;0.8694;1.3287;
124.2000;0.8685;1.3287;
124.5000;0.8702;1.3310;
124.8000;0.8694;1.3380;
125.1000;0.8694;1.3310;
125.4000;0.8702;1.3310;
125.7000;0.8685;1.3334;
126.0000;0.8718;1.3404;
126.3000;0.8677;1.3310;
126.6000;0.8669;1.3310;
126.9000;0.8694;1.3357;
127.2000;0.8702;1.3474;
127.5000;0.8685;1.3450;
127.8000;0.8685;1.3380;
128.1000;0.8677;1.3357;
128.4000;0.8710;1.3404;
128.7000;0.8702;1.3287;
129.0000;0.8726;1.3310;
129.3000;0.8694;1.3287;
129.6000;0.8710;1.3264;
129.9000;0.8718;1.3171;
130.2000;0.8710;1.3101;
130.5000;0.8710;1.3124;
130.8000;0.8710;1.3101;
131.1000;0.8710;1.3124;
131.4000;0.8620;1.3007;
131.7000;0.8702;1.3287;
132.0000;0.8726;1.3334;
132.3000;0.8710;1.3217;
132.6000;0.8710;1.3217;
132.9000;0.8669;1.3264;
133.2000;0.8702;1.3474;
133.5000;0.8718;1.3567;
133.8000;0.8685;1.3450;
134.1000;0.8718;1.3450;
134.4000;0.8694;1.3334;
134.7000;0.8718;1.3357;
135.0000;0.8734;1.3357;
135.3000;0.8718;1.3357;
135.6000;0.8718;1.3310;
135.9000;0.8702;1.3264;
136.2000;0.8694;1.3264;
136.5000;0.8702;1.3240;
136.8000;0.8710;1.3217;
137.1000;0.8718;1.3217;
137.4000;0.8742;1.3380;
137.7000;0.8734;1.3264;
138.0000;0.8694;1.3124;
138.3000;0.8677;1.3310;
138.6000;0.8718;1.3450;
138.9000;0.8710;1.3404;
139.2000;0.8685;1.3287;
139.5000;0.8726;1.3380;
139.8000;0.8694;1.3357;
140.1000;0.8726;1.3427;
140.4000;0.8710;1.3380;
140.7000;0.8718;1.3334;
141.0000;0.8710;1.3334;
141.3000;0.8718;1.3380;
141.6000;0.8710;1.3380;
141.9000;0.8718;1.3497;
142.2000;0.8718;1.3427;
142.5000;0.8669;1.3240;
142.8000;0.8718;1.3380;
143.1000;0.8726;1.3310;
143.4000;0.8791;1.3474;
143.7000;0.8742;1.3310;
144.0000;0.8856;1.3613;
144.3000;0.8751;1.3380;
144.6000;0.8702;1.3240;
144.9000;0.8734;1.3310;
145.2000;0.8783;1.3357;
145.5000;0.8669;1.3101;
145.8000;0.8710;1.3194;
146.1000;0.8726;1.3194;
146.4000;0.8726;1.3264;
146.7000;0.8734;1.3404;
147.0000;0.8718;1.3334;
147.3000;0.8718;1.3240;
147.6000;0.8726;1.3287;
147.9000;0.8742;1.3380;
148.2000;0.8742;1.3357;
148.5000;0.8734;1.3404;
148.8000;0.8685;1.3310;
149.1000;0.8702;1.3264;
149.4000;0.8718;1.3217;
149.7000;0.8726;1.3124;
150.0000;0.8718;1.3124;
150.3000;0.8710;1.3054;
150.6000;0.8702;1.3054;
150.9000;0.8742;1.3194;
151.2000;0.8799;1.3357;
151.5000;0.8710;1.3124;
151.8000;0.8718;1.3124;
152.1000;0.8726;1.3077;
152.4000;0.8718;1.3077;
152.7000;0.8726;1.3101;
153.0000;0.8694;1.3077;
153.3000;0.8783;1.3240;
153.6000;0.8742;1.3171;
153.9000;0.8669;1.3077;
154.2000;0.8767;1.3217;
154.5000;0.8767;1.3194;
154.8000;0.8734;1.2984;
155.1000;0.8734;1.3077;
155.4000;0.8718;1.3054;
155.7000;0.8726;1.3124;
156.0000;0.8742;1.3240;
156.3000;0.8759;1.3264;
156.6000;0.8742;1.3217;
156.9000;0.8742;1.3334;
157.2000;0.8718;1.3287;
157.5000;0.8726;1.3217;
157.8000;0.8718;1.3240;
158.1000;0.8726;1.3264;
158.4000;0.8677;1.3147;
158.7000;0.8734;1.3217;
159.0000;0.8718;1.3217;
159.3000;0.8734;1.3194;
159.6000;0.8734;1.3101;
159.9000;0.8751;1.3054;
160.2000;0.8742;1.3031;
160.5000;0.8742;1.2984;
160.8000;0.8734;1.2984;
161.1000;0.8734;1.3101;
161.4000;0.8742;1.3194;
161.7000;0.8742;1.3054;
162.0000;0.8734;1.3101;
162.3000;0.8694;1.2984;
162.6000;0.8751;1.3101;
162.9000;0.8734;1.3101;
163.2000;0.8742;1.3054;
163.5000;0.8734;1.2937;
163.8000;0.8751;1.2891;
164.1000;0.8742;1.2961;
164.4000;0.8751;1.3077;
164.7000;0.8759;1.3054;
165.0000;0.8734;1.3007;
165.3000;0.8751;1.2961;
165.6000;0.8751;1.2961;
165.9000;0.8742;1.2961;
166.2000;0.8734;1.2914;
166.5000;0.8710;1.2798;
166.8000;0.8751;1.2844;
167.1000;0.8759;1.2891;
167.4000;0.8718;1.2821;
167.7000;0.8734;1.2984;
168.0000;0.8718;1.3054;
168.3000;0.8759;1.3124;
168.6000;0.8734;1.3077;
168.9000;0.8751;1.3054;
169.2000;0.8751;1.3147;
169.5000;0.8734;1.3171;
169.8000;0.8734;1.3171;
170.1000;0.8840;1.3287;
170.4000;0.8726;1.2961;
170.7000;0.8759;1.2984;
171.0000;0.8718;1.2937;
171.3000;0.8734;1.3031;
171.6000;0.8734;1.3031;
171.9000;0.8742;1.3007;
172.2000;0.8759;1.2984;
172.5000;0.8751;1.2891;
172.8000;0.8734;1.2844;
173.1000;0.8742;1.2821;
173.4000;0.8751;1.2867;
173.7000;0.8759;1.2867;
174.0000;0.8799;1.2914;
174.3000;0.8742;1.2774;
174.6000;0.8710;1.2704;
174.9000;0.8759;1.2681;
175.2000;0.8742;1.2681;
175.5000;0.8816;1.2798;
175.8000;0.8767;1.2634;
176.1000;0.8775;1.2728;
176.4000;0.8775;1.2704;
176.7000;0.8742;1.2751;
177.0000;0.8799;1.2891;
177.3000;0.8751;1.2798;
177.6000;0.8677;1.2634;
177.9000;0.8702;1.2728;
178.2000;0.8759;1.2937;
178.5000;0.8824;1.3101;
178.8000;0.8742;1.2961;
179.1000;0.8759;1.2961;
179.4000;0.8759;1.2937;
179.7000;0.8767;1.2984;
180.0000;0.8718;1.2891;
180.3000;0.8767;1.3007;
180.6000;0.8742;1.2937;
180.9000;0.8759;1.3054;
181.2000;0.8718;1.2937;
181.5000;0.8759;1.3054;
181.8000;0.8742;1.3031;
182.1000;0.8751;1.3007;
182.4000;0.8742;1.3054;
182.7000;0.8694;1.2914;
183.0000;0.8759;1.3147;
183.3000;0.8734;1.3101;
183.6000;0.8751;1.3171;
183.9000;0.8718;1.3147;
184.2000;0.8726;1.3147;
184.5000;0.8751;1.3077;
184.8000;0.8759;1.3031;
185.1000;0.8742;1.3007;
185.4000;0.8710;1.2821;
185.7000;0.8767;1.3007;
186.0000;0.8767;1.3031;
186.3000;0.8824;1.3124;
186.6000;0.8751;1.2984;
186.9000;0.8767;1.2937;
187.2000;0.8742;1.2821;
187.5000;0.8759;1.2844;
187.8000;0.8767;1.2867;
188.1000;0.8767;1.2798;
188.4000;0.8767;1.2798;
188.7000;0.8759;1.2681;
189.0000;0.8759;1.2774;
189.3000;0.8751;1.2774;
189.6000;0.8759;1.2844;
189.9000;0.8759;1.2774;
190.2000;0.8759;1.2774;
190.5000;0.8807;1.2821;
190.8000;0.8767;1.2774;
191.1000;0.8783;1.2774;
191.4000;0.8742;1.2774;
191.7000;0.8759;1.2891;
192.0000;0.8767;1.2914;
192.3000;0.8783;1.2914;
192.6000;0.8767;1.2961;
192.9000;0.8742;1.2961;
193.2000;0.8710;1.2937;
193.5000;0.8824;1.3194;
193.8000;0.8767;1.3031;
194.1000;0.8726;1.2937;
194.4000;0.8751;1.3031;
194.7000;0.8742;1.2937;
195.0000;0.8751;1.2961;
195.3000;0.8807;1.3031;
195.6000;0.8767;1.2891;
195.9000;0.8775;1.2867;
196.2000;0.8775;1.2937;
196.5000;0.8783;1.3054;
196.8000;0.8759;1.2984;
197.1000;0.8759;1.2914;
197.4000;0.8767;1.3101;
197.7000;0.8759;1.2984;
198.0000;0.8742;1.2937;
198.3000;0.8742;1.2937;
198.6000;0.8759;1.2961;
198.9000;0.8742;1.2937;
199.2000;0.8775;1.3077;
199.5000;0.8726;1.3077;
199.8000;0.8783;1.3240;
200.1000;0.8767;1.3240;
200.4000;0.8742;1.3171;
200.7000;0.8775;1.3240;
201.0000;0.8751;1.3194;
201.3000;0.8767;1.3264;
201.6000;0.8775;1.3264;
201.9000;0.8767;1.3147;
202.2000;0.8807;1.3194;
202.5000;0.8791;1.3077;
202.8000;0.8751;1.2961;
203.1000;0.8783;1.3124;
203.4000;0.8742;1.2984;
203.7000;0.8759;1.3007;
204.0000;0.8759;1.2984;
204.3000;0.8751;1.2867;
204.6000;0.8742;1.2798;
204.9000;0.8759;1.2914;
205.2000;0.8759;1.2891;
205.5000;0.8734;1.2774;
205.8000;0.8751;1.2844;
206.1000;0.8751;1.2891;
206.4000;0.8751;1.2891;
206.7000;0.8751;1.2774;
207.0000;0.8742;1.2798;
207.3000;0.8759;1.2891;
207.6000;0.8759;1.2891;
207.9000;0.8751;1.2774;
208.2000;0.8783;1.2867;
208.5000;0.8751;1.2821;
208.8000;0.8759;1.2914;
209.1000;0.8759;1.2891;
209.4000;0.8848;1.3077;
209.7000;0.8767;1.2961;
210.0000;0.8759;1.3007;
210.3000;0.8799;1.3007;
210.6000;0.8799;1.3007;
210.9000;0.8767;1.2984;
211.2000;0.8791;1.3007;
211.5000;0.8791;1.2984;
211.8000;0.8775;1.2914;
212.1000;0.8775;1.2844;
212.4000;0.8767;1.2844;
212.7000;0.8767;1.2821;
213.0000;0.8767;1.2774;
213.3000;0.8775;1.2867;
213.6000;0.8751;1.2774;
213.9000;0.8767;1.2867;
214.2000;0.8759;1.2774;
214.5000;0.8783;1.2798;
214.8000;0.8759;1.2658;
215.1000;0.8767;1.2634;
215.4000;0.8767;1.2588;
215.7000;0.8775;1.2658;
216.0000;0.8807;1.2774;
216.3000;0.8751;1.2634;
216.6000;0.8759;1.2681;
216.9000;0.8775;1.2751;
217.2000;0.8759;1.2728;
217.5000;0.8751;1.2704;
217.8000;0.8759;1.2704;
218.1000;0.8767;1.2704;
218.4000;0.8807;1.2774;
218.7000;0.8759;1.2611;
219.0000;0.8653;1.2471;
219.3000;0.8751;1.2751;
219.6000;0.8759;1.2821;
219.9000;0.8767;1.2774;
220.2000;0.8767;1.2774;
220.5000;0.8742;1.2751;
220.8000;0.8775;1.2821;
221.1000;0.8759;1.2798;
221.4000;0.8759;1.2821;
221.7000;0.8775;1.2914;
222.0000;0.8751;1.2844;
222.3000;0.8759;1.2937;
222.6000;0.8759;1.2891;
222.9000;0.8767;1.2798;
223.2000;0.8783;1.2751;
223.5000;0.8767;1.2704;
223.8000;0.8742;1.2728;
224.1000;0.8751;1.2704;
224.4000;0.8751;1.2751;
224.7000;0.8742;1.2728;
225.0000;0.8775;1.2821;
225.3000;0.8742;1.2774;
225.6000;0.8767;1.2798;
225.9000;0.8759;1.2728;
226.2000;0.8751;1.2774;
226.5000;0.8759;1.2728;
226.8000;0.8767;1.2821;
227.1000;0.8710;1.2704;
227.4000;0.8742;1.2728;
227.7000;0.8759;1.2728;
228.0000;0.8759;1.2681;
228.3000;0.8775;1.2704;
228.6000;0.8759;1.2728;
228.9000;0.8742;1.2658;
229.2000;0.8742;1.2611;
229.5000;0.8751;1.2564;
229.8000;0.8751;1.2704;
230.1000;0.8751;1.2751;
230.4000;0.8775;1.2774;
230.7000;0.8742;1.2704;
231.0000;0.8759;1.2774;
231.3000;0.8726;1.2611;
231.6000;0.8751;1.2588;
231.9000;0.8759;1.2611;
232.2000;0.8775;1.2634;
232.5000;0.8767;1.2658;
232.8000;0.8767;1.2658;
233.1000;0.8759;1.2658;
233.4000;0.8767;1.2634;
233.7000;0.8742;1.2588;
234.0000;0.8751;1.2588;
234.3000;0.8751;1.2658;
234.6000;0.8767;1.2798;
234.9000;0.8751;1.2751;
235.2000;0.8751;1.2681;
235.5000;0.8751;1.2658;
235.8000;0.8759;1.2728;
236.1000;0.8759;1.2728;
236.4000;0.8767;1.2728;
236.7000;0.8759;1.2658;
237.0000;0.8734;1.2611;
237.3000;0.8759;1.2588;
237.6000;0.8694;1.2518;
237.9000;0.8751;1.2704;
238.2000;0.8775;1.2774;
238.5000;0.8807;1.2891;
238.8000;0.8742;1.2798;
239.1000;0.8783;1.2914;
239.4000;0.8791;1.2961;
239.7000;0.8759;1.2867;
240.0000;0.8759;1.2728;
240.3000;0.8742;1.2704;
240.6000;0.8751;1.2728;
240.9000;0.8742;1.2774;
241.2000;0.8799;1.2867;
241.5000;0.8759;1.2821;
241.8000;0.8751;1.2914;
242.1000;0.8734;1.2961;
242.4000;0.8775;1.3077;
242.7000;0.8751;1.3054;
243.0000;0.8751;1.2937;
243.3000;0.8718;1.2867;
243.6000;0.8783;1.2937;
243.9000;0.8653;1.2564;
244.2000;0.8767;1.2751;
244.5000;0.8759;1.2564;
244.8000;0.8734;1.2588;
245.1000;0.8775;1.2704;
245.4000;0.8767;1.2704;
245.7000;0.8734;1.2541;
246.0000;0.8767;1.2681;
246.3000;0.8791;1.2774;
246.6000;0.8759;1.2798;
246.9000;0.8767;1.2844;
247.2000;0.8742;1.2751;
247.5000;0.8751;1.2774;
247.8000;0.8767;1.2867;
248.1000;0.8759;1.2751;
248.4000;0.8661;1.2448;
248.7000;0.8759;1.2704;
249.0000;0.8718;1.2564;
249.3000;0.8807;1.2751;
249.6000;0.8759;1.2728;
249.9000;0.8775;1.2774;
250.2000;0.8759;1.2891;
250.5000;0.8751;1.2937;
250.8000;0.8759;1.2914;
251.1000;0.8751;1.2891;
251.4000;0.8751;1.2867;
251.7000;0.8734;1.2821;
252.0000;0.8751;1.2891;
252.3000;0.8742;1.2891;
252.6000;0.8775;1.2937;
252.9000;0.8751;1.2891;
253.2000;0.8685;1.2611;
253.5000;0.8742;1.2704;
253.8000;0.8718;1.2611;
254.1000;0.8742;1.2728;
254.4000;0.8710;1.2704;
254.7000;0.8751;1.2798;
255.0000;0.8759;1.2844;
255.3000;0.8702;1.2798;
255.6000;0.8742;1.2844;
255.9000;0.8775;1.2867;
256.2000;0.8864;1.3054;
256.5000;0.8751;1.2798;
256.8000;0.8775;1.2774;
257.1000;0.8783;1.2728;
257.4000;0.8759;1.2728;
257.7000;0.8767;1.2728;
258.0000;0.8759;1.2774;
258.3000;0.8751;1.2774;
258.6000;0.8775;1.2821;
258.9000;0.8759;1.2844;
259.2000;0.8742;1.2821;
259.5000;0.8726;1.2798;
259.8000;0.8759;1.2937;
260.1000;0.8791;1.3007;
260.4000;0.8742;1.2961;
260.7000;0.8726;1.2891;
261.0000;0.8799;1.3007;
261.3000;0.8759;1.2914;
261.6000;0.8767;1.2937;
261.9000;0.8751;1.2867;
262.2000;0.8751;1.2914;
262.5000;0.8694;1.2774;
262.8000;0.8767;1.2867;
263.1000;0.8710;1.2844;
263.4000;0.8734;1.2844;
263.7000;0.8742;1.2798;
264.0000;0.8767;1.2867;
264.3000;0.8775;1.2867;
264.6000;0.8742;1.2681;
264.9000;0.8726;1.2611;
265.2000;0.8759;1.2704;
265.5000;0.8742;1.2704;
265.8000;0.8751;1.2821;
266.1000;0.8751;1.2798;
266.4000;0.8767;1.2728;
266.7000;0.8767;1.2774;
267.0000;0.8734;1.2704;
267.3000;0.8783;1.2891;
267.6000;0.8767;1.2821;
267.9000;0.8734;1.2774;
268.2000;0.8742;1.2821;
268.5000;0.8718;1.2821;
268.8000;0.8759;1.2867;
269.1000;0.8799;1.3031;
269.4000;0.8783;1.3077;
269.7000;0.8767;1.3031;
270.0000;0.8718;1.2914;
270.3000;0.8783;1.3101;
270.6000;0.8775;1.3124;
270.9000;0.8718;1.3007;
271.2000;0.8751;1.3031;
271.5000;0.8726;1.2961;
271.8000;0.8734;1.3007;
272.1000;0.8677;1.2774;
272.4000;0.8645;1.2634;
272.7000;0.8751;1.2867;
273.0000;0.8751;1.2867;
273.3000;0.8759;1.2774;
273.6000;0.8775;1.2867;
273.9000;0.8767;1.2867;
274.2000;0.8759;1.2728;
274.5000;0.8734;1.2704;
274.8000;0.8742;1.2844;
275.1000;0.8742;1.2891;
275.4000;0.8734;1.2821;
275.7000;0.8742;1.2751;
276.0000;0.8734;1.2658;
276.3000;0.8751;1.2658;
276.6000;0.8751;1.2704;
276.9000;0.8742;1.2821;
277.2000;0.8742;1.2821;
277.5000;0.8759;1.2774;
277.8000;0.8767;1.2844;
278.1000;0.8775;1.3054;
278.4000;0.8751;1.2961;
278.7000;0.8734;1.2937;
279.0000;0.8775;1.2937;
279.3000;0.8742;1.2937;
279.6000;0.8742;1.3031;
279.9000;0.8751;1.3031;
280.2000;0.8718;1.3054;
280.5000;0.8742;1.3147;
280.8000;0.8742;1.3171;
281.1000;0.8718;1.3171;
281.4000;0.8710;1.3147;
281.7000;0.8799;1.3357;
282.0000;0.8759;1.3334;
282.3000;0.8751;1.3240;
282.6000;0.8751;1.3171;
282.9000;0.8742;1.3194;
283.2000;0.8653;1.3101;
283.5000;0.8759;1.3380;
283.8000;0.8751;1.3334;
284.1000;0.8742;1.3287;
284.4000;0.8751;1.3147;
284.7000;0.8677;1.2891;
285.0000;0.8718;1.3031;
285.3000;0.8734;1.3171;
285.6000;0.8767;1.3217;
285.9000;0.8734;1.3007;
286.2000;0.8726;1.2937;
286.5000;0.8767;1.3101;
286.8000;0.8710;1.3077;
287.1000;0.8645;1.2961;
287.4000;0.8751;1.3147;
287.7000;0.8685;1.2961;
288.0000;0.8742;1.3054;
288.3000;0.8816;1.3264;
288.6000;0.8751;1.3101;
288.9000;0.8742;1.3077;
289.2000;0.8751;1.3054;
289.5000;0.8751;1.3077;
289.8000;0.8742;1.3077;
290.1000;0.8726;1.3077;
290.4000;0.8767;1.3147;
290.7000;0.8742;1.3147;
291.0000;0.8742;1.3147;
291.3000;0.8710;1.3007;
291.6000;0.8726;1.3077;
291.9000;0.8742;1.3147;
292.2000;0.8726;1.3217;
292.5000;0.8734;1.3124;
292.8000;0.8742;1.3171;
293.1000;0.8783;1.3264;
293.4000;0.8775;1.3240;
293.7000;0.8751;1.3194;
294.0000;0.8742;1.3217;
294.3000;0.8710;1.3101;
294.6000;0.8742;1.3147;
294.9000;0.8751;1.3147;
295.2000;0.8742;1.3194;
295.5000;0.8726;1.3217;
295.8000;0.8742;1.3171;
296.1000;0.8881;1.3380;
296.4000;0.8742;1.3101;
296.7000;0.8742;1.3054;
297.0000;0.8734;1.2984;
297.3000;0.8742;1.3007;
297.6000;0.8734;1.3007;
297.9000;0.8742;1.3054;
298.2000;0.8767;1.3101;
298.5000;0.8726;1.3054;
298.8000;0.8742;1.3007;
299.1000;0.8742;1.3031;
299.4000;0.8816;1.3310;
299.7000;0.8767;1.3240;
300.0000;0.8734;1.3240;
300.3000;0.8751;1.3310;
300.6000;0.8734;1.3334;
300.9000;0.8726;1.3287;
301.2000;0.8742;1.3310;
301.5000;0.8751;1.3264;
301.8000;0.8734;1.3171;
302.1000;0.8726;1.3194;
302.4000;0.8726;1.3171;
302.7000;0.8742;1.3194;
303.0000;0.8759;1.3171;
303.3000;0.8791;1.3171;
303.6000;0.8734;1.3077;
303.9000;0.8751;1.3031;
304.2000;0.8718;1.3007;
304.5000;0.8734;1.3171;
304.8000;0.8734;1.3054;
305.1000;0.8742;1.3054;
305.4000;0.8734;1.3054;
305.7000;0.8742;1.3101;
306.0000;0.8726;1.3124;
306.3000;0.8718;1.3031;
306.6000;0.8702;1.3031;
306.9000;0.8718;1.3077;
307.2000;0.8726;1.3147;
307.5000;0.8742;1.3171;
307.8000;0.8718;1.3264;
308.1000;0.8710;1.3357;
308.4000;0.8726;1.3474;
308.7000;0.8726;1.3497;
309.0000;0.8718;1.3497;
309.3000;0.8718;1.3520;
309.6000;0.8718;1.3520;
309.9000;0.8726;1.3497;
310.2000;0.8718;1.3497;
310.5000;0.8767;1.3613;
310.8000;0.8702;1.3474;
311.1000;0.8751;1.3613;
311.4000;0.8710;1.3520;
311.7000;0.8710;1.3450;
312.0000;0.8710;1.3357;
312.3000;0.8710;1.3357;
312.6000;0.8726;1.3334;
312.9000;0.8710;1.3240;
313.2000;0.8751;1.3287;
313.5000;0.8710;1.3101;
313.8000;0.8734;1.3171;
314.1000;0.8718;1.3310;
314.4000;0.8742;1.3334;
314.7000;0.8742;1.3380;
315.0000;0.8734;1.3404;
315.3000;0.8734;1.3450;
315.6000;0.8726;1.3427;
315.9000;0.8734;1.3450;
316.2000;0.8751;1.3520;
316.5000;0.8726;1.3450;
316.8000;0.8734;1.3380;
317.1000;0.8726;1.3287;
317.4000;0.8726;1.3194;
317.7000;0.8734;1.3077;
318.0000;0.8742;1.3054;
318.3000;0.8718;1.3101;
318.6000;0.8718;1.3194;
318.9000;0.8718;1.3171;
319.2000;0.8726;1.3194;
319.5000;0.8710;1.3240;
319.8000;0.8742;1.3310;
320.1000;0.8734;1.3264;
320.4000;0.8726;1.3147;
320.7000;0.8718;1.3171;
321.0000;0.8718;1.3124;
321.3000;0.8742;1.3171;
321.6000;0.8718;1.3147;
321.9000;0.8718;1.3217;
322.2000;0.8726;1.3194;
322.5000;0.8751;1.3264;
322.8000;0.8726;1.3264;
323.1000;0.8718;1.3310;
323.4000;0.8742;1.3357;
323.7000;0.8702;1.3240;
324.0000;0.8726;1.3334;
324.3000;0.8832;1.3520;
324.6000;0.8718;1.3194;
324.9000;0.8734;1.3171;
325.2000;0.8734;1.3240;
325.5000;0.8734;1.3240;
325.8000;0.8718;1.3240;
326.1000;0.8702;1.3194;
326.4000;0.8759;1.3334;
326.7000;0.8734;1.3310;
327.0000;0.8726;1.3194;
327.3000;0.8726;1.3194;
327.6000;0.8710;1.3171;
327.9000;0.8718;1.3194;
328.2000;0.8718;1.3171;
328.5000;0.8742;1.3124;
328.8000;0.8807;1.3264;
329.1000;0.8742;1.3101;
329.4000;0.8718;1.3124;
329.7000;0.8718;1.3147;
330.0000;0.8718;1.3171;
330.3000;0.8734;1.3287;
330.6000;0.8726;1.3240;
330.9000;0.8759;1.3264;
331.2000;0.8791;1.3217;
331.5000;0.8734;1.3124;
331.8000;0.8726;1.3217;
332.1000;0.8751;1.3334;
332.4000;0.8702;1.3194;
332.7000;0.8710;1.3240;
333.0000;0.8742;1.3240;
333.3000;0.8718;1.3171;
333.6000;0.8726;1.3217;
333.9000;0.8734;1.3147;
334.2000;0.8726;1.3101;
334.5000;0.8685;1.2937;
334.8000;0.8710;1.3054;
335.1000;0.8653;1.3077;
335.4000;0.8718;1.3217;
335.7000;0.8726;1.3194;
336.0000;0.8726;1.3171;
336.3000;0.8718;1.3101;
336.6000;0.8742;1.3147;
336.9000;0.8726;1.3194;
337.2000;0.8726;1.3217;
337.5000;0.8710;1.3101;
337.8000;0.8694;1.2961;
338.1000;0.8726;1.3031;
338.4000;0.8718;1.3171;
338.7000;0.8718;1.3240;
339.0000;0.8718;1.3194;
339.3000;0.8726;1.3194;
339.6000;0.8734;1.3240;
339.9000;0.8702;1.3101;
340.2000;0.8710;1.3147;
340.5000;0.8718;1.3147;
340.8000;0.8710;1.3124;
341.1000;0.8718;1.3101;
341.4000;0.8742;1.3077;
341.7000;0.8718;1.3031;
342.0000;0.8718;1.3077;
342.3000;0.8718;1.3007;
342.6000;0.8702;1.3077;
342.9000;0.8718;1.3171;
343.2000;0.8751;1.3240;
343.5000;0.8726;1.3217;
343.8000;0.8718;1.3171;
344.1000;0.8726;1.3194;
344.4000;0.8702;1.3217;
344.7000;0.8718;1.3240;
345.0000;0.8702;1.3194;
345.3000;0.8677;1.3147;
345.6000;0.8710;1.3264;
345.9000;0.8718;1.3357;
346.2000;0.8734;1.3357;
346.5000;0.8710;1.3310;
346.8000;0.8718;1.3264;
347.1000;0.8718;1.3264;
347.4000;0.8726;1.3310;
347.7000;0.8718;1.3287;
348.0000;0.8694;1.3264;
348.3000;0.8661;1.3240;
348.6000;0.8710;1.3264;
348.9000;0.8710;1.3264;
349.2000;0.8677;1.3217;
349.5000;0.8718;1.3217;
349.8000;0.8710;1.3147;
350.1000;0.8710;1.3171;
350.4000;0.8742;1.3334;
350.7000;0.8718;1.3264;
351.0000;0.8710;1.3194;
351.3000;0.8702;1.3194;
351.6000;0.8718;1.3217;
351.9000;0.8710;1.3147;
352.2000;0.8718;1.3147;
352.5000;0.8702;1.3171;
352.8000;0.8702;1.3171;
353.1000;0.8702;1.3171;
353.4000;0.8710;1.3217;
353.7000;0.8710;1.3240;
354.0000;0.8710;1.3240;
354.3000;0.8685;1.3240;
354.6000;0.8669;1.3194;
354.9000;0.8726;1.3147;
355.2000;0.8718;1.3101;
355.5000;0.8669;1.3007;
355.8000;0.8710;1.3101;
356.1000;0.8718;1.3147;
356.4000;0.8710;1.3194;
356.7000;0.8702;1.3124;
357.0000;0.8710;1.3101;
357.3000;0.8767;1.3264;
357.6000;0.8702;1.3077;
357.9000;0.8685;1.3077;
358.2000;0.8718;1.3287;
358.5000;0.8718;1.3194;
358.8000;0.8710;1.3124;
359.1000;0.8694;1.3147;
359.4000;0.8677;1.3217;
359.7000;0.8726;1.3287;
360.0000;0.8734;1.3310;
360.3000;0.8694;1.3147;
360.6000;0.8685;1.3194;
360.9000;0.8726;1.3264;
361.2000;0.8702;1.3264;
361.5000;0.8734;1.3287;
361.8000;0.8710;1.3171;
362.1000;0.8718;1.3147;
362.4000;0.8783;1.3404;
362.7000;0.8710;1.3240;
363.0000;0.8734;1.3310;
363.3000;0.8702;1.3264;
363.6000;0.8702;1.3310;
363.9000;0.8751;1.3427;
364.2000;0.8726;1.3497;
364.5000;0.8612;1.3101;
364.8000;0.8710;1.3264;
365.1000;0.8677;1.3124;
365.4000;0.8816;1.3404;
365.7000;0.8710;1.3194;
366.0000;0.8702;1.3240;
366.3000;0.8694;1.3194;
366.6000;0.8718;1.3240;
366.9000;0.8661;1.3147;
367.2000;0.8718;1.3194;
367.5000;0.8726;1.3310;
367.8000;0.8710;1.3240;
368.1000;0.8694;1.3147;
368.4000;0.8685;1.3147;
368.7000;0.8702;1.3194;
369.0000;0.8710;1.3240;
369.3000;0.8685;1.3264;
369.6000;0.8694;1.3264;
369.9000;0.8694;1.3217;
370.2000;0.8661;1.3124;
370.5000;0.8710;1.3194;
370.8000;0.8685;1.3171;
371.1000;0.8702;1.3124;
371.4000;0.8718;1.3077;
371.7000;0.8710;1.3077;
372.0000;0.8726;1.3171;
372.3000;0.8669;1.3007;
372.6000;0.8702;1.3171;
372.9000;0.8710;1.3240;
373.2000;0.8783;1.3404;
373.5000;0.8710;1.3240;
373.8000;0.8718;1.3264;
374.1000;0.8726;1.3264;
374.4000;0.8677;1.3147;
374.7000;0.8661;1.3031;
375.0000;0.8718;1.3101;
375.3000;0.8694;1.3101;
375.6000;0.8685;1.3124;
375.9000;0.8718;1.3264;
376.2000;0.8710;1.3287;
376.5000;0.8669;1.3217;
376.8000;0.8710;1.3310;
377.1000;0.8685;1.3287;
377.4000;0.8685;1.3334;
377.7000;0.8694;1.3334;
378.0000;0.8726;1.3404;
378.3000;0.8702;1.3357;
378.6000;0.8726;1.3427;
378.9000;0.8677;1.3264;
379.2000;0.8694;1.3264;
379.5000;0.8677;1.3194;
379.8000;0.8718;1.3357;
380.1000;0.8653;1.3264;
380.4000;0.8718;1.3357;
380.7000;0.8653;1.3334;
381.0000;0.8694;1.3427;
381.3000;0.8710;1.3474;
381.6000;0.8710;1.3497;
381.9000;0.8702;1.3474;
382.2000;0.8694;1.3474;
382.5000;0.8718;1.3497;
382.8000;0.8612;1.3287;
383.1000;0.8694;1.3450;
383.4000;0.8734;1.3543;
383.7000;0.8710;1.3380;
384.0000;0.8694;1.3357;
384.3000;0.8710;1.3380;
384.6000;0.8661;1.3357;
384.9000;0.8677;1.3404;
385.2000;0.8653;1.3240;
385.5000;0.8718;1.3334;
385.8000;0.8710;1.3357;
386.1000;0.8702;1.3427;
386.4000;0.8742;1.3520;
386.7000;0.8710;1.3474;
387.0000;0.8718;1.3474;
387.3000;0.8710;1.3427;
387.6000;0.8702;1.3380;
387.9000;0.8694;1.3357;
388.2000;0.8661;1.3357;
388.5000;0.8645;1.3404;
388.8000;0.8702;1.3543;
389.1000;0.8710;1.3567;
389.4000;0.8759;1.3543;
389.7000;0.8637;1.3101;
390.0000;0.8677;1.3124;
390.3000;0.8694;1.3217;
390.6000;0.8694;1.3194;
390.9000;0.8710;1.3217;
391.2000;0.8783;1.3404;
391.5000;0.8702;1.3240;
391.8000;0.8702;1.3217;
392.1000;0.8694;1.3147;
392.4000;0.8694;1.3101;
392.7000;0.8710;1.3124;
393.0000;0.8702;1.3054;
393.3000;0.8710;1.3124;
393.6000;0.8718;1.3287;
393.9000;0.8694;1.3240;
394.2000;0.8685;1.3171;
394.5000;0.8685;1.3194;
394.8000;0.8702;1.3194;
395.1000;0.8677;1.3147;
395.4000;0.8718;1.3404;
395.7000;0.8694;1.3404;
396.0000;0.8685;1.3334;
396.3000;0.8694;1.3310;
396.6000;0.8710;1.3404;
396.9000;0.8694;1.3404;
397.2000;0.8694;1.3427;
397.5000;0.8710;1.3380;
397.8000;0.8694;1.3404;
398.1000;0.8694;1.3404;
398.4000;0.8710;1.3497;
398.7000;0.8669;1.3497;
399.0000;0.8694;1.3543;
399.3000;0.8620;1.3427;
399.6000;0.8685;1.3497;
399.9000;0.8694;1.3474;
400.2000;0.8710;1.3380;
400.5000;0.8677;1.3310;
400.8000;0.8694;1.3334;
401.1000;0.8620;1.3124;
401.4000;0.8791;1.3590;
401.7000;0.8694;1.3380;
402.0000;0.8669;1.3357;
402.3000;0.8694;1.3357;
402.6000;0.8694;1.3380;
402.9000;0.8628;1.3310;
403.2000;0.8694;1.3520;
403.5000;0.8677;1.3427;
403.8000;0.8677;1.3404;
404.1000;0.8685;1.3357;
404.4000;0.8710;1.3450;
404.7000;0.8734;1.3497;
405.0000;0.8677;1.3310;
405.3000;0.8669;1.3264;
405.6000;0.8702;1.3334;
405.9000;0.8669;1.3287;
406.2000;0.8653;1.3287;
406.5000;0.8694;1.3357;
406.8000;0.8767;1.3497;
407.1000;0.8710;1.3380;
407.4000;0.8588;1.3171;
407.7000;0.8767;1.3590;
408.0000;0.8669;1.3380;
408.3000;0.8677;1.3404;
408.6000;0.8677;1.3404;
408.9000;0.8702;1.3427;
409.2000;0.8628;1.3264;
409.5000;0.8710;1.3427;
409.8000;0.8685;1.3357;
410.1000;0.8694;1.3380;
410.4000;0.8694;1.3310;
410.7000;0.8702;1.3334;
411.0000;0.8702;1.3310;
411.3000;0.8677;1.3194;
411.6000;0.8677;1.3240;
411.9000;0.8661;1.3194;
412.2000;0.8694;1.3194;
412.5000;0.8653;1.3054;
412.8000;0.8677;1.3147;
413.1000;0.8661;1.3101;
413.4000;0.8702;1.3171;
413.7000;0.8669;1.3101;
414.0000;0.8669;1.3101;
414.3000;0.8685;1.3101;
414.6000;0.8694;1.3147;
414.9000;0.8685;1.3194;
415.2000;0.8685;1.3240;
415.5000;0.8677;1.3217;
415.8000;0.8669;1.3264;
416.1000;0.8685;1.3357;
416.4000;0.8677;1.3334;
416.7000;0.8685;1.3427;
417.0000;0.8685;1.3380;
417.3000;0.8685;1.3404;
417.6000;0.8694;1.3380;
417.9000;0.8685;1.3450;
418.2000;0.8702;1.3474;
418.5000;0.8694;1.3474;
418.8000;0.8694;1.3497;
419.1000;0.8685;1.3497;
419.4000;0.8669;1.3497;
419.7000;0.8702;1.3474;
420.0000;0.8694;1.3543;
420.3000;0.8604;1.3310;
420.6000;0.8694;1.3404;
420.9000;0.8669;1.3404;
421.2000;0.8685;1.3310;
421.5000;0.8694;1.3194;
421.8000;0.8694;1.3147;
422.1000;0.8669;1.3147;
422.4000;0.8661;1.3171;
422.7000;0.8694;1.3217;
423.0000;0.8677;1.3217;
423.3000;0.8661;1.3194;
423.6000;0.8718;1.3287;
423.9000;0.8661;1.3194;
424.2000;0.8677;1.3240;
424.5000;0.8669;1.3147;
424.8000;0.8702;1.3171;
425.1000;0.8710;1.3171;
425.4000;0.8661;1.3077;
425.7000;0.8669;1.3171;
426.0000;0.8669;1.3171;
426.3000;0.8661;1.3171;
426.6000;0.8677;1.3217;
426.9000;0.8669;1.3217;
427.2000;0.8742;1.3357;
427.5000;0.8677;1.3217;
427.8000;0.8677;1.3264;
428.1000;0.8685;1.3264;
428.4000;0.8685;1.3287;
428.7000;0.8702;1.3310;
429.0000;0.8694;1.3357;
429.3000;0.8694;1.3380;
429.6000;0.8702;1.3310;
429.9000;0.8661;1.3287;
430.2000;0.8685;1.3264;
430.5000;0.8677;1.3171;
430.8000;0.8661;1.3147;
431.1000;0.8669;1.3194;
431.4000;0.8685;1.3310;
431.7000;0.8694;1.3357;
432.0000;0.8677;1.3357;
432.3000;0.8677;1.3404;
432.6000;0.8685;1.3474;
432.9000;0.8685;1.3543;
433.2000;0.8685;1.3590;
433.5000;0.8677;1.3520;
433.8000;0.8702;1.3474;
434.1000;0.8685;1.3427;
434.4000;0.8677;1.3334;
434.7000;0.8669;1.3264;
435.0000;0.8685;1.3240;
435.3000;0.8677;1.3240;
435.6000;0.8669;1.3310;
435.9000;0.8653;1.3310;
436.2000;0.8661;1.3334;
436.5000;0.8669;1.3404;
436.8000;0.8637;1.3334;
437.1000;0.8661;1.3450;
437.4000;0.8669;1.3427;
437.7000;0.8677;1.3357;
438.0000;0.8645;1.3287;
438.3000;0.8669;1.3357;
438.6000;0.8669;1.3380;
438.9000;0.8685;1.3427;
439.2000;0.8694;1.3474;
439.5000;0.8669;1.3450;
439.8000;0.8669;1.3404;
440.1000;0.8669;1.3404;
440.4000;0.8685;1.3404;
440.7000;0.8685;1.3380;
441.0000;0.8661;1.3357;
441.3000;0.8710;1.3450;
441.6000;0.8661;1.3287;
441.9000;0.8685;1.3240;
442.2000;0.8661;1.3194;
442.5000;0.8669;1.3287;
442.8000;0.8677;1.3357;
443.1000;0.8685;1.3404;
443.4000;0.8661;1.3287;
443.7000;0.8637;1.3264;
444.0000;0.8685;1.3380;
444.3000;0.8669;1.3404;
444.6000;0.8661;1.3427;
444.9000;0.8677;1.3404;
445.2000;0.8669;1.3310;
445.5000;0.8677;1.3287;
445.8000;0.8677;1.3380;
446.1000;0.8685;1.3427;
446.4000;0.8661;1.3404;
446.7000;0.8685;1.3450;
447.0000;0.8694;1.3497;
447.3000;0.8645;1.3380;
447.6000;0.8661;1.3357;
447.9000;0.8645;1.3240;
448.2000;0.8669;1.3264;
448.5000;0.8669;1.3287;
448.8000;0.8685;1.3240;
449.1000;0.8653;1.3264;
449.4000;0.8677;1.3310;
449.7000;0.8685;1.3287;
450.0000;0.8645;1.3171;
450.3000;0.8669;1.3334;
450.6000;0.8685;1.3310;
450.9000;0.8653;1.3171;
451.2000;0.8653;1.3101;
451.5000;0.8669;1.3054;
451.8000;0.8677;1.3077;
452.1000;0.8677;1.3101;
452.4000;0.8669;1.3147;
452.7000;0.8669;1.3240;
453.0000;0.8653;1.3171;
453.3000;0.8677;1.3171;
453.6000;0.8661;1.3217;
453.9000;0.8653;1.3171;
454.2000;0.8669;1.3194;
454.5000;0.8726;1.3380;
454.8000;0.8669;1.3310;
455.1000;0.8702;1.3474;
455.4000;0.8669;1.3380;
455.7000;0.8694;1.3380;
456.0000;0.8669;1.3357;
456.3000;0.8685;1.3357;
456.6000;0.8661;1.3357;
456.9000;0.8661;1.3427;
457.2000;0.8702;1.3543;
457.5000;0.8661;1.3474;
457.8000;0.8653;1.3450;
458.1000;0.8677;1.3427;
458.4000;0.8669;1.3427;
458.7000;0.8661;1.3427;
459.0000;0.8677;1.3474;
459.3000;0.8628;1.3450;
459.6000;0.8677;1.3567;
459.9000;0.8661;1.3543;
460.2000;0.8677;1.3427;
460.5000;0.8669;1.3450;
460.8000;0.8702;1.3520;
461.1000;0.8677;1.3450;
461.4000;0.8661;1.3474;
461.7000;0.8685;1.3543;
462.0000;0.8661;1.3450;
462.3000;0.8661;1.3450;
462.6000;0.8661;1.3404;
462.9000;0.8669;1.3450;
463.2000;0.8677;1.3404;
463.5000;0.8661;1.3404;
463.8000;0.8661;1.3380;
464.1000;0.8677;1.3404;
464.4000;0.8685;1.3357;
464.7000;0.8677;1.3427;
465.0000;0.8677;1.3404;
465.3000;0.8628;1.3287;
465.6000;0.8669;1.3357;
465.9000;0.8637;1.3357;
466.2000;0.8653;1.3427;
466.5000;0.8661;1.3520;
466.8000;0.8661;1.3474;
467.1000;0.8718;1.3613;
467.4000;0.8669;1.3450;
467.7000;0.8653;1.3427;
468.0000;0.8710;1.3520;
468.3000;0.8661;1.3334;
468.6000;0.8669;1.3264;
468.9000;0.8677;1.3310;
469.2000;0.8669;1.3287;
469.5000;0.8669;1.3310;
469.8000;0.8669;1.3287;
470.1000;0.8669;1.3264;
470.4000;0.8677;1.3240;
470.7000;0.8637;1.3194;
471.0000;0.8661;1.3264;
471.3000;0.8669;1.3217;
471.6000;0.8653;1.3240;
471.9000;0.8637;1.3217;
472.2000;0.8669;1.3310;
472.5000;0.8677;1.3287;
472.8000;0.8677;1.3404;
473.1000;0.8653;1.3427;
473.4000;0.8645;1.3404;
473.7000;0.8653;1.3427;
474.0000;0.8661;1.3427;
474.3000;0.8645;1.3474;
474.6000;0.8637;1.3450;
474.9000;0.8751;1.3660;
475.2000;0.8653;1.3520;
475.5000;0.8653;1.3543;
475.8000;0.8661;1.3590;
476.1000;0.8645;1.3520;
476.4000;0.8645;1.3427;
476.7000;0.8645;1.3404;
477.0000;0.8661;1.3404;
477.3000;0.8628;1.3450;
477.6000;0.8661;1.3497;
477.9000;0.8677;1.3450;
478.2000;0.8653;1.3427;
478.5000;0.8661;1.3357;
478.8000;0.8645;1.3264;
479.1000;0.8645;1.3310;
479.4000;0.8653;1.3334;
479.7000;0.8718;1.3497;
480.0000;0.8653;1.3450;
480.3000;0.8685;1.3543;
480.6000;0.8653;1.3543;
480.9000;0.8653;1.3474;
481.2000;0.8661;1.3590;
481.5000;0.8661;1.3520;
481.8000;0.8775;1.3707;
482.1000;0.8637;1.3427;
482.4000;0.8645;1.3497;
482.7000;0.8653;1.3450;
483.0000;0.8628;1.3404;
483.3000;0.8653;1.3404;
483.6000;0.8612;1.3310;
483.9000;0.8661;1.3450;
484.2000;0.8653;1.3450;
484.5000;0.8637;1.3404;
484.8000;0.8653;1.3404;
485.1000;0.8653;1.3520;
485.4000;0.8677;1.3497;
485.7000;0.8628;1.3357;
486.0000;0.8653;1.3404;
486.3000;0.8661;1.3404;
486.6000;0.8685;1.3334;
486.9000;0.8661;1.3287;
487.2000;0.8677;1.3310;
487.5000;0.8653;1.3264;
487.8000;0.8677;1.3287;
488.1000;0.8661;1.3380;
488.4000;0.8653;1.3427;
488.7000;0.8661;1.3474;
489.0000;0.8653;1.3497;
489.3000;0.8653;1.3497;
489.6000;0.8661;1.3567;
489.9000;0.8653;1.3590;
490.2000;0.8677;1.3637;
490.5000;0.8669;1.3497;
490.8000;0.8661;1.3520;
491.1000;0.8669;1.3590;
491.4000;0.8653;1.3497;
491.7000;0.8645;1.3520;
492.0000;0.8661;1.3450;
492.3000;0.8645;1.3310;
492.6000;0.8661;1.3334;
492.9000;0.8661;1.3310;
493.2000;0.8653;1.3240;
493.5000;0.8653;1.3287;
493.8000;0.8661;1.3357;
494.1000;0.8661;1.3404;
494.4000;0.8669;1.3404;
494.7000;0.8669;1.3310;
495.0000;0.8645;1.3310;
495.3000;0.8669;1.3380;
495.6000;0.8669;1.3427;
495.9000;0.8653;1.3404;
496.2000;0.8661;1.3497;
496.5000;0.8685;1.3543;
496.8000;0.8653;1.3474;
497.1000;0.8710;1.3543;
497.4000;0.8580;1.3287;
497.7000;0.8653;1.3404;
498.0000;0.8620;1.3404;
498.3000;0.8628;1.3357;
498.6000;0.8637;1.3357;
498.9000;0.8628;1.3334;
499.2000;0.8604;1.3357;
499.5000;0.8661;1.3520;
499.8000;0.8694;1.3613;
500.1000;0.8653;1.3590;
500.4000;0.8669;1.3613;
500.7000;0.8661;1.3613;
501.0000;0.8645;1.3497;
501.3000;0.8653;1.3474;
501.6000;0.8653;1.3474;
501.9000;0.8653;1.3404;
502.2000;0.8645;1.3334;
502.5000;0.8653;1.3404;
502.8000;0.8637;1.3427;
503.1000;0.8669;1.3567;
503.4000;0.8645;1.3497;
503.7000;0.8620;1.3404;
504.0000;0.8612;1.3427;
504.3000;0.8653;1.3567;
504.6000;0.8645;1.3637;
504.9000;0.8628;1.3520;
505.2000;0.8653;1.3543;
505.5000;0.8669;1.3520;
505.8000;0.8628;1.3404;
506.1000;0.8637;1.3380;
506.4000;0.8628;1.3380;
506.7000;0.8661;1.3450;
507.0000;0.8661;1.3404;
507.3000;0.8653;1.3357;
507.6000;0.8653;1.3474;
507.9000;0.8669;1.3567;
508.2000;0.8653;1.3613;
508.5000;0.8620;1.3497;
508.8000;0.8637;1.3543;
509.1000;0.8628;1.3497;
509.4000;0.8645;1.3520;
509.7000;0.8645;1.3520;
510.0000;0.8612;1.3404;
510.3000;0.8645;1.3567;
510.6000;0.8677;1.3707;
510.9000;0.8685;1.3567;
511.2000;0.8645;1.3450;
511.5000;0.8620;1.3380;
511.8000;0.8653;1.3474;
512.1000;0.8669;1.3567;
512.4000;0.8645;1.3520;
512.7000;0.8645;1.3497;
513.0000;0.8653;1.3474;
513.3000;0.8637;1.3427;
513.6000;0.8751;1.3730;
513.9000;0.8637;1.3474;
514.2000;0.8645;1.3474;
514.5000;0.8669;1.3474;
514.8000;0.8645;1.3404;
515.1000;0.8580;1.3264;
515.4000;0.8628;1.3357;
515.7000;0.8637;1.3380;
516.0000;0.8653;1.3450;
516.3000;0.8661;1.3427;
516.6000;0.8645;1.3380;
516.9000;0.8751;1.3590;
517.2000;0.8620;1.3310;
517.5000;0.8645;1.3427;
517.8000;0.8637;1.3450;
518.1000;0.8645;1.3427;
518.4000;0.8685;1.3543;
518.7000;0.8653;1.3404;
519.0000;0.8645;1.3404;
519.3000;0.8653;1.3474;
519.6000;0.8628;1.3380;
519.9000;0.8669;1.3450;
520.2000;0.8637;1.3427;
520.5000;0.8710;1.3520;
520.8000;0.8637;1.3310;
521.1000;0.8645;1.3357;
521.4000;0.8669;1.3474;
521.7000;0.8637;1.3287;
522.0000;0.8661;1.3474;
522.3000;0.8645;1.3357;
522.6000;0.8645;1.3380;
522.9000;0.8637;1.3404;
523.2000;0.8661;1.3567;
523.5000;0.8653;1.3590;
523.8000;0.8653;1.3497;
524.1000;0.8653;1.3334;
524.4000;0.8653;1.3194;
524.7000;0.8661;1.3194;
525.0000;0.8612;1.3240;
525.3000;0.8620;1.3287;
525.6000;0.8620;1.3334;
525.9000;0.8653;1.3427;
526.2000;0.8645;1.3427;
526.5000;0.8628;1.3287;
526.8000;0.8637;1.3287;
527.1000;0.8653;1.3357;
527.4000;0.8653;1.3357;
527.7000;0.8628;1.3310;
528.0000;0.8645;1.3334;
528.3000;0.8637;1.3334;
528.6000;0.8653;1.3287;
528.9000;0.8645;1.3380;
529.2000;0.8645;1.3334;
529.5000;0.8653;1.3334;
529.8000;0.8653;1.3334;
530.1000;0.8620;1.3380;
530.4000;0.8628;1.3404;
530.7000;0.8637;1.3334;
531.0000;0.8653;1.3334;
531.3000;0.8628;1.3217;
531.6000;0.8669;1.3264;
531.9000;0.8637;1.3217;
532.2000;0.8645;1.3264;
532.5000;0.8661;1.3217;
532.8000;0.8653;1.3264;
533.1000;0.8653;1.3357;
533.4000;0.8571;1.3240;
533.7000;0.8645;1.3427;
534.0000;0.8645;1.3404;
534.3000;0.8677;1.3520;
534.6000;0.8628;1.3427;
534.9000;0.8637;1.3450;
535.2000;0.8628;1.3450;
535.5000;0.8645;1.3404;
535.8000;0.8645;1.3310;
536.1000;0.8637;1.3357;
536.4000;0.8653;1.3497;
536.7000;0.8628;1.3497;
537.0000;0.8620;1.3497;
537.3000;0.8653;1.3520;
537.6000;0.8653;1.3497;
537.9000;0.8637;1.3427;
538.2000;0.8637;1.3450;
538.5000;0.8645;1.3450;
538.8000;0.8645;1.3474;
539.1000;0.8677;1.3520;
539.4000;0.8628;1.3404;
539.7000;0.8628;1.3380;
540.0000;0.8588;1.3380;
540.3000;0.8637;1.3520;
540.6000;0.8637;1.3543;
540.9000;0.8645;1.3567;
541.2000;0.8620;1.3450;
541.5000;0.8694;1.3567;
541.8000;0.8628;1.3497;
542.1000;0.8628;1.3450;
542.4000;0.8669;1.3497;
542.7000;0.8653;1.3380;
543.0000;0.8669;1.3264;
543.3000;0.8669;1.3264;
543.6000;0.8677;1.3334;
543.9000;0.8653;1.3287;
544.2000;0.8677;1.3334;
544.5000;0.8653;1.3380;
544.8000;0.8653;1.3334;
545.1000;0.8661;1.3380;
545.4000;0.8628;1.3334;
545.7000;0.8645;1.3334;
546.0000;0.8645;1.3287;
546.3000;0.8628;1.3334;
546.6000;0.8645;1.3404;
546.9000;0.8645;1.3497;
547.2000;0.8555;1.3380;
547.5000;0.8653;1.3683;
547.8000;0.8637;1.3590;
548.1000;0.8653;1.3613;
548.4000;0.8637;1.3613;
548.7000;0.8702;1.3800;
549.0000;0.8628;1.3520;
549.3000;0.8661;1.3567;
549.6000;0.8637;1.3590;
549.9000;0.8612;1.3474;
550.2000;0.8645;1.3567;
550.5000;0.8628;1.3474;
550.8000;0.8645;1.3450;
551.1000;0.8628;1.3450;
551.4000;0.8645;1.3520;
551.7000;0.8653;1.3520;
552.0000;0.8645;1.3520;
552.3000;0.8645;1.3474;
552.6000;0.8645;1.3427;
552.9000;0.8645;1.3450;
553.2000;0.8612;1.3427;
553.5000;0.8628;1.3427;
553.8000;0.8637;1.3497;
554.1000;0.8637;1.3427;
554.4000;0.8677;1.3590;
554.7000;0.8628;1.3474;
555.0000;0.8637;1.3450;
555.3000;0.8645;1.3450;
555.6000;0.8628;1.3427;
555.9000;0.8661;1.3497;
556.2000;0.8596;1.3357;
556.5000;0.8637;1.3357;
556.8000;0.8645;1.3380;
557.1000;0.8669;1.3497;
557.4000;0.8637;1.3474;
557.7000;0.8645;1.3450;
558.0000;0.8628;1.3334;
558.3000;0.8653;1.3357;
558.6000;0.8620;1.3240;
558.9000;0.8669;1.3427;
559.2000;0.8628;1.3450;
559.5000;0.8612;1.3357;
559.8000;0.8677;1.3427;
560.1000;0.8653;1.3334;
560.4000;0.8628;1.3357;
560.7000;0.8637;1.3334;
561.0000;0.8669;1.3380;
561.3000;0.8645;1.3334;
561.6000;0.8628;1.3474;
561.9000;0.8645;1.3543;
562.2000;0.8637;1.3474;
562.5000;0.8612;1.3380;
562.8000;0.8637;1.3474;
563.1000;0.8637;1.3497;
563.4000;0.8645;1.3497;
563.7000;0.8628;1.3404;
564.0000;0.8694;1.3567;
564.3000;0.8628;1.3427;
564.6000;0.8645;1.3450;
564.9000;0.8620;1.3404;
565.2000;0.8628;1.3427;
565.5000;0.8620;1.3474;
565.8000;0.8637;1.3474;
566.1000;0.8645;1.3543;
566.4000;0.8620;1.3427;
566.7000;0.8628;1.3474;
567.0000;0.8661;1.3497;
567.3000;0.8628;1.3404;
567.6000;0.8637;1.3357;
567.9000;0.8677;1.3380;
568.2000;0.8645;1.3357;
568.5000;0.8653;1.3450;
568.8000;0.8645;1.3450;
569.1000;0.8637;1.3450;
569.4000;0.8637;1.3450;
569.7000;0.8653;1.3590;
570.0000;0.8628;1.3637;
570.3000;0.8645;1.3613;
570.6000;0.8637;1.3497;
570.9000;0.8653;1.3474;
571.2000;0.8653;1.3380;
571.5000;0.8620;1.3404;
571.8000;0.8539;1.3240;
572.1000;0.8596;1.3450;
572.4000;0.8645;1.3543;
572.7000;0.8620;1.3474;
573.0000;0.8637;1.3404;
573.3000;0.8694;1.3520;
573.6000;0.8637;1.3357;
573.9000;0.8702;1.3450;
574.2000;0.8580;1.3194;
574.5000;0.8620;1.3357;
574.8000;0.8628;1.3427;
575.1000;0.8637;1.3497;
575.4000;0.8645;1.3567;
575.7000;0.8628;1.3520;
576.0000;0.8604;1.3497;
576.3000;0.8620;1.3450;
576.6000;0.8620;1.3310;
576.9000;0.8612;1.3240;
577.2000;0.8628;1.3194;
577.5000;0.8661;1.3310;
577.8000;0.8645;1.3310;
578.1000;0.8645;1.3310;
578.4000;0.8637;1.3217;
578.7000;0.8637;1.3240;
579.0000;0.8628;1.3240;
579.3000;0.8645;1.3310;
579.6000;0.8685;1.3334;
579.9000;0.8637;1.3287;
580.2000;0.8637;1.3287;
580.5000;0.8661;1.3310;
580.8000;0.8637;1.3264;
581.1000;0.8637;1.3357;
581.4000;0.8661;1.3357;
581.7000;0.8653;1.3264;
582.0000;0.8628;1.3217;
582.3000;0.8563;1.3147;
582.6000;0.8612;1.3264;
582.9000;0.8612;1.3264;
583.2000;0.8612;1.3217;
583.5000;0.8628;1.3217;
583.8000;0.8620;1.3101;
584.1000;0.8620;1.3217;
584.4000;0.8604;1.3287;
584.7000;0.8628;1.3357;
585.0000;0.8547;1.3264;
585.3000;0.8612;1.3404;
585.6000;0.8612;1.3334;
585.9000;0.8628;1.3310;
586.2000;0.8628;1.3334;
586.5000;0.8628;1.3357;
586.8000;0.8637;1.3357;
587.1000;0.8628;1.3310;
587.4000;0.8628;1.3310;
587.7000;0.8637;1.3217;
588.0000;0.8604;1.3194;
588.3000;0.8604;1.3171;
588.6000;0.8645;1.3217;
588.9000;0.8637;1.3217;
589.2000;0.8628;1.3240;
589.5000;0.8620;1.3240;
589.8000;0.8645;1.3380;
590.1000;0.8645;1.3450;
590.4000;0.8620;1.3450;
590.7000;0.8620;1.3450;
591.0000;0.8694;1.3567;
591.3000;0.8645;1.3474;
591.6000;0.8702;1.3660;
591.9000;0.8628;1.3474;
592.2000;0.8645;1.3520;
592.5000;0.8628;1.3450;
592.8000;0.8734;1.3683;
593.1000;0.8637;1.3380;
593.4000;0.8637;1.3380;
593.7000;0.8628;1.3380;
594.0000;0.8677;1.3404;
594.3000;0.8620;1.3217;
594.6000;0.8628;1.3240;
594.9000;0.8628;1.3310;
595.2000;0.8628;1.3287;
595.5000;0.8620;1.3217;
595.8000;0.8596;1.3147;
596.1000;0.8653;1.3217;
596.4000;0.8628;1.3194;
596.7000;0.8628;1.3217;
597.0000;0.8596;1.3240;
597.3000;0.8571;1.3171;
597.6000;0.8628;1.3264;
597.9000;0.8645;1.3264;
598.2000;0.8637;1.3310;
598.5000;0.8620;1.3404;
598.8000;0.8628;1.3427;
599.1000;0.8677;1.3474;
599.4000;0.8628;1.3310;
599.7000;0.8620;1.3404;
600.0000;0.8612;1.3287;
600.3000;0.8596;1.3240;
600.6000;0.8563;1.3054;
600.9000;0.8457;1.2798;
601.2000;0.8352;1.2634;
601.5000;0.8254;1.2495;
601.8000;0.8124;1.2308;
602.1000;0.8010;1.2005;
602.4000;0.7888;1.1958;
602.7000;0.7855;1.1958;
603.0000;0.7700;1.1655;
603.3000;0.7603;1.1469;
603.6000;0.7513;1.1306;
603.9000;0.7456;1.1306;
604.2000;0.7383;1.1119;
604.5000;0.7310;1.1026;
604.8000;0.7220;1.0863;
605.1000;0.7188;1.0839;
605.4000;0.7139;1.0746;
605.7000;0.7066;1.0700;
606.0000;0.6992;1.0630;
606.3000;0.7000;1.0746;
606.6000;0.6886;1.0466;
606.9000;0.6870;1.0466;
607.2000;0.6846;1.0560;
607.5000;0.6748;1.0466;
607.8000;0.6699;1.0420;
608.1000;0.6667;1.0350;
608.4000;0.6626;1.0327;
608.7000;0.6602;1.0373;
609.0000;0.6561;1.0373;
609.3000;0.6593;1.0373;
609.6000;0.6488;1.0233;
609.9000;0.6463;1.0257;
610.2000;0.6447;1.0117;
610.5000;0.6447;1.0070;
610.8000;0.6398;0.9954;
611.1000;0.6333;0.9860;
611.4000;0.6357;0.9930;
611.7000;0.6325;1.0000;
612.0000;0.6268;0.9907;
612.3000;0.6219;0.9814;
612.6000;0.6243;0.9884;
612.9000;0.6219;0.9907;
613.2000;0.6268;1.0047;
613.5000;0.6252;1.0024;
613.8000;0.6178;0.9860;
614.1000;0.6113;0.9744;
614.4000;0.6097;0.9767;
614.7000;0.6097;0.9767;
615.0000;0.6089;0.9814;
615.3000;0.6064;0.9767;
615.6000;0.6048;0.9790;
615.9000;0.6032;0.9721;
616.2000;0.5991;0.9721;
616.5000;0.5991;0.9697;
616.8000;0.5975;0.9674;
617.1000;0.5942;0.9697;
617.4000;0.5950;0.9697;
617.7000;0.5918;0.9604;
618.0000;0.5885;0.9557;
618.3000;0.5910;0.9674;
618.6000;0.5885;0.9511;
618.9000;0.5877;0.9511;
619.2000;0.5861;0.9557;
619.5000;0.5853;0.9651;
619.8000;0.5836;0.9604;
620.1000;0.5828;0.9464;
620.4000;0.5804;0.9441;
620.7000;0.5812;0.9557;
621.0000;0.5796;0.9534;
621.3000;0.5779;0.9534;
621.6000;0.5771;0.9464;
621.9000;0.5755;0.9441;
622.2000;0.5771;0.9511;
622.5000;0.5747;0.9581;
622.8000;0.5731;0.9534;
623.1000;0.5682;0.9487;
623.4000;0.5722;0.9604;
623.7000;0.5690;0.9581;
624.0000;0.5665;0.9581;
624.3000;0.5665;0.9627;
624.6000;0.5665;0.9627;
624.9000;0.5657;0.9721;
625.2000;0.5633;0.9744;
625.5000;0.5665;0.9814;
625.8000;0.5657;0.9767;
626.1000;0.5625;0.9721;
626.4000;0.5625;0.9697;
626.7000;0.5625;0.9627;
627.0000;0.5600;0.9604;
627.3000;0.5600;0.9557;
627.6000;0.5592;0.9604;
627.9000;0.5560;0.9557;
628.2000;0.5576;0.9697;
628.5000;0.5551;0.9674;
628.8000;0.5551;0.9744;
629.1000;0.5551;0.9651;
629.4000;0.5568;0.9674;
629.7000;0.5527;0.9604;
630.0000;0.5527;0.9581;
630.3000;0.5576;0.9744;
630.6000;0.5413;0.9394;
630.9000;0.5519;0.9651;
631.2000;0.5495;0.9604;
631.5000;0.5568;0.9767;
631.8000;0.5503;0.9627;
632.1000;0.5511;0.9674;
632.4000;0.5511;0.9767;
632.7000;0.5462;0.9604;
633.0000;0.5478;0.9604;
633.3000;0.5470;0.9557;
633.6000;0.5454;0.9534;
633.9000;0.5446;0.9534;
634.2000;0.5438;0.9487;
634.5000;0.5421;0.9511;
634.8000;0.5438;0.9534;
635.1000;0.5421;0.9511;
635.4000;0.5429;0.9581;
635.7000;0.5413;0.9557;
636.0000;0.5421;0.9557;
636.3000;0.5364;0.9487;
636.6000;0.5405;0.9581;
636.9000;0.5397;0.9557;
637.2000;0.5356;0.9651;
637.5000;0.5340;0.9674;
637.8000;0.5372;0.9744;
638.1000;0.5348;0.9604;
638.4000;0.5364;0.9627;
638.7000;0.5372;0.9697;
639.0000;0.5364;0.9744;
639.3000;0.5356;0.9721;
639.6000;0.5356;0.9744;
639.9000;0.5348;0.9767;
640.2000;0.5356;0.9860;
640.5000;0.5340;0.9767;
640.8000;0.5332;0.9674;
641.1000;0.5307;0.9487;
641.4000;0.5348;0.9651;
641.7000;0.5315;0.9651;
642.0000;0.5315;0.9697;
642.3000;0.5250;0.9627;
642.6000;0.5307;0.9674;
642.9000;0.5291;0.9627;
643.2000;0.5275;0.9511;
643.5000;0.5267;0.9534;
643.8000;0.5275;0.9557;
644.1000;0.5275;0.9511;
644.4000;0.5258;0.9534;
644.7000;0.5275;0.9464;
645.0000;0.5275;0.9464;
645.3000;0.5291;0.9557;
645.6000;0.5275;0.9581;
645.9000;0.5283;0.9604;
646.2000;0.5258;0.9557;
646.5000;0.5267;0.9581;
646.8000;0.5250;0.9604;
647.1000;0.5242;0.9627;
647.4000;0.5250;0.9627;
647.7000;0.5234;0.9534;
648.0000;0.5234;0.9604;
648.3000;0.5218;0.9697;
648.6000;0.5226;0.9697;
648.9000;0.5234;0.9627;
649.2000;0.5185;0.9511;
649.5000;0.5210;0.9557;
649.8000;0.5218;0.9557;
650.1000;0.5218;0.9627;
650.4000;0.5226;0.9627;
650.7000;0.5218;0.9627;
651.0000;0.5218;0.9627;
651.3000;0.5185;0.9627;
651.6000;0.5210;0.9581;
651.9000;0.5226;0.9627;
652.2000;0.5258;0.9721;
652.5000;0.5201;0.9651;
652.8000;0.5201;0.9697;
653.1000;0.5193;0.9674;
653.4000;0.5250;0.9860;
653.7000;0.5136;0.9674;
654.0000;0.5161;0.9744;
654.3000;0.5161;0.9721;
654.6000;0.5226;0.9837;
654.9000;0.5161;0.9627;
655.2000;0.5144;0.9604;
655.5000;0.5161;0.9581;
655.8000;0.5153;0.9534;
656.1000;0.5153;0.9441;
656.4000;0.5153;0.9417;
656.7000;0.5177;0.9534;
657.0000;0.5136;0.9534;
657.3000;0.5153;0.9557;
657.6000;0.5128;0.9557;
657.9000;0.5136;0.9557;
658.2000;0.5120;0.9487;
658.5000;0.5120;0.9371;
658.8000;0.5169;0.9487;
659.1000;0.5144;0.9464;
659.4000;0.5112;0.9324;
659.7000;0.5128;0.9417;
660.0000;0.5128;0.9464;
660.3000;0.5120;0.9464;
660.6000;0.5120;0.9464;
660.9000;0.5112;0.9441;
661.2000;0.5112;0.9394;
661.5000;0.5112;0.9487;
661.8000;0.5128;0.9557;
662.1000;0.5120;0.9604;
662.4000;0.5112;0.9511;
662.7000;0.5031;0.9301;
663.0000;0.5079;0.9511;
663.3000;0.5096;0.9604;
663.6000;0.5088;0.9674;
663.9000;0.5096;0.9674;
664.2000;0.5088;0.9604;
664.5000;0.5096;0.9674;
664.8000;0.5079;0.9604;
665.1000;0.5063;0.9604;
665.4000;0.5071;0.9651;
665.7000;0.5079;0.9721;
666.0000;0.5071;0.9697;
666.3000;0.5006;0.9511;
666.6000;0.5071;0.9697;
666.9000;0.5055;0.9651;
667.2000;0.5022;0.9651;
667.5000;0.5055;0.9581;
667.8000;0.5047;0.9557;
668.1000;0.5063;0.9511;
668.4000;0.5039;0.9487;
668.7000;0.5039;0.9511;
669.0000;0.5014;0.9511;
669.3000;0.5039;0.9534;
669.6000;0.5039;0.9487;
669.9000;0.5014;0.9417;
670.2000;0.5047;0.9511;
670.5000;0.5014;0.9487;
670.8000;0.4998;0.9487;
671.1000;0.5071;0.9697;
671.4000;0.5014;0.9487;
671.7000;0.5022;0.9557;
672.0000;0.5014;0.9581;
672.3000;0.5031;0.9604;
672.6000;0.4990;0.9627;
672.9000;0.5031;0.9767;
673.2000;0.5039;0.9767;
673.5000;0.5014;0.9767;
673.8000;0.5014;0.9790;
674.1000;0.5031;0.9837;
674.4000;0.5039;0.9860;
674.7000;0.5022;0.9744;
675.0000;0.5022;0.9721;
675.3000;0.5006;0.9674;
675.6000;0.4998;0.9651;
675.9000;0.5006;0.9697;
676.2000;0.4998;0.9697;
676.5000;0.5006;0.9721;
676.8000;0.4990;0.9627;
677.1000;0.5014;0.9604;
677.4000;0.4990;0.9511;
677.7000;0.4982;0.9417;
678.0000;0.4917;0.9324;
678.3000;0.4982;0.9487;
678.6000;0.4974;0.9464;
678.9000;0.4949;0.9464;
679.2000;0.4957;0.9487;
679.5000;0.4941;0.9371;
679.8000;0.4957;0.9441;
680.1000;0.4974;0.9511;
680.4000;0.4949;0.9581;
680.7000;0.4941;0.9581;
681.0000;0.4900;0.9487;
681.3000;0.4949;0.9674;
681.6000;0.4965;0.9744;
681.9000;0.4957;0.9697;
682.2000;0.4949;0.9697;
682.5000;0.4949;0.9697;
682.8000;0.4965;0.9767;
683.1000;0.4982;0.9767;
683.4000;0.4933;0.9581;
683.7000;0.4949;0.9674;
684.0000;0.5022;0.9814;
684.3000;0.4941;0.9557;
684.6000;0.4933;0.9604;
684.9000;0.4908;0.9581;
685.2000;0.5022;0.9884;
685.5000;0.4933;0.9604;
685.8000;0.4884;0.9534;
686.1000;0.4949;0.9627;
686.4000;0.4917;0.9557;
686.7000;0.4917;0.9604;
687.0000;0.4892;0.9534;
687.3000;0.4941;0.9651;
687.6000;0.4925;0.9651;
687.9000;0.4860;0.9534;
688.2000;0.4908;0.9744;
688.5000;0.4933;0.9790;
688.8000;0.4892;0.9721;
689.1000;0.4908;0.9744;
689.4000;0.4917;0.9814;
689.7000;0.4908;0.9767;
690.0000;0.4917;0.9744;
690.3000;0.4908;0.9744;
690.6000;0.4884;0.9557;
690.9000;0.4892;0.9604;
691.2000;0.4860;0.9511;
691.5000;0.4884;0.9557;
691.8000;0.4908;0.9581;
692.1000;0.4892;0.9627;
692.4000;0.4900;0.9651;
692.7000;0.4884;0.9651;
693.0000;0.4843;0.9604;
693.3000;0.4884;0.9627;
693.6000;0.4876;0.9604;
693.9000;0.4892;0.9557;
694.2000;0.4876;0.9511;
694.5000;0.4884;0.9487;
694.8000;0.4908;0.9534;
695.1000;0.4900;0.9627;
695.4000;0.4884;0.9581;
695.7000;0.4835;0.9511;
696.0000;0.4892;0.9744;
696.3000;0.4876;0.9721;
696.6000;0.4876;0.9744;
696.9000;0.4908;0.9884;
697.2000;0.4868;0.9814;
697.5000;0.4876;0.9814;
697.8000;0.4876;0.9790;
698.1000;0.4860;0.9767;
698.4000;0.4860;0.9721;
698.7000;0.4876;0.9697;
699.0000;0.4868;0.9721;
699.3000;0.4843;0.9651;
699.6000;0.4843;0.9651;
699.9000;0.4851;0.9581;
700.2000;0.4868;0.9604;
700.5000;0.4843;0.9464;
700.8000;0.4835;0.9464;
701.1000;0.4851;0.9557;
701.4000;0.4851;0.9557;
701.7000;0.4851;0.9581;
702.0000;0.4892;0.9674;
702.3000;0.4835;0.9534;
702.6000;0.4827;0.9604;
702.9000;0.4851;0.9604;
703.2000;0.4843;0.9604;
703.5000;0.4803;0.9534;
703.8000;0.4860;0.9627;
704.1000;0.4835;0.9627;
704.4000;0.4860;0.9721;
704.7000;0.4827;0.9697;
705.0000;0.4876;0.9837;
705.3000;0.4819;0.9697;
705.6000;0.4819;0.9744;
705.9000;0.4819;0.9697;
706.2000;0.4835;0.9790;
706.5000;0.4884;0.9907;
706.8000;0.4835;0.9721;
707.1000;0.4827;0.9721;
707.4000;0.4786;0.9604;
707.7000;0.4819;0.9674;
708.0000;0.4851;0.9627;
708.3000;0.4803;0.9487;
708.6000;0.4835;0.9557;
708.9000;0.4786;0.9511;
709.2000;0.4819;0.9534;
709.5000;0.4803;0.9464;
709.8000;0.4868;0.9534;
710.1000;0.4803;0.9487;
710.4000;0.4811;0.9557;
710.7000;0.4786;0.9557;
711.0000;0.4803;0.9651;
711.3000;0.4803;0.9557;
711.6000;0.4819;0.9557;
711.9000;0.4770;0.9441;
712.2000;0.4811;0.9627;
712.5000;0.4827;0.9721;
712.8000;0.4900;1.0000;
713.1000;0.4811;0.9721;
713.4000;0.4811;0.9697;
713.7000;0.4835;0.9767;
714.0000;0.4803;0.9651;
714.3000;0.4811;0.9627;
714.6000;0.4721;0.9534;
714.9000;0.4786;0.9651;
715.2000;0.4811;0.9790;
715.5000;0.4803;0.9814;
715.8000;0.4762;0.9627;
716.1000;0.4803;0.9604;
716.4000;0.4770;0.9581;
716.7000;0.4794;0.9697;
717.0000;0.4786;0.9790;
717.3000;0.4778;0.9767;
717.6000;0.4811;0.9930;
717.9000;0.4778;0.9837;
718.2000;0.4794;0.9697;
718.5000;0.4794;0.9604;
718.8000;0.4794;0.9534;
719.1000;0.4786;0.9511;
719.4000;0.4770;0.9464;
719.7000;0.4770;0.9511;
720.0000;0.4754;0.9464;
720.3000;0.4786;0.9604;
720.6000;0.4762;0.9604;
720.9000;0.4754;0.9627;
721.2000;0.4770;0.9627;
721.5000;0.4737;0.9557;
721.8000;0.4827;0.9790;
722.1000;0.4746;0.9604;
722.4000;0.4672;0.9487;
722.7000;0.4762;0.9767;
723.0000;0.4762;0.9837;
723.3000;0.4746;0.9884;
723.6000;0.4737;0.9860;
723.9000;0.4746;0.9884;
724.2000;0.4721;0.9767;
724.5000;0.4729;0.9790;
724.8000;0.4770;0.9790;
725.1000;0.4721;0.9744;
725.4000;0.4770;0.9907;
725.7000;0.4737;0.9860;
726.0000;0.4729;0.9814;
726.3000;0.4770;0.9837;
726.6000;0.4746;0.9697;
726.9000;0.4754;0.9674;
727.2000;0.4737;0.9697;
727.5000;0.4729;0.9581;
727.8000;0.4729;0.9581;
728.1000;0.4746;0.9674;
728.4000;0.4746;0.9744;
728.7000;0.4803;0.9837;
729.0000;0.4737;0.9627;
729.3000;0.4713;0.9697;
729.6000;0.4754;0.9814;
729.9000;0.4737;0.9744;
730.2000;0.4762;0.9721;
730.5000;0.4705;0.9604;
730.8000;0.4746;0.9674;
731.1000;0.4729;0.9604;
731.4000;0.4721;0.9651;
731.7000;0.4754;0.9721;
732.0000;0.4737;0.9697;
732.3000;0.4721;0.9697;
732.6000;0.4737;0.9767;
732.9000;0.4721;0.9697;
733.2000;0.4762;0.9767;
733.5000;0.4746;0.9721;
733.8000;0.4721;0.9651;
734.1000;0.4729;0.9627;
734.4000;0.4729;0.9581;
734.7000;0.4746;0.9581;
735.0000;0.4737;0.9604;
735.3000;0.4713;0.9417;
735.6000;0.4729;0.9464;
735.9000;0.4729;0.9511;
736.2000;0.4778;0.9604;
736.5000;0.4705;0.9394;
736.8000;0.4729;0.9417;
737.1000;0.4689;0.9348;
737.4000;0.4721;0.9394;
737.7000;0.4697;0.9394;
738.0000;0.4705;0.9557;
738.3000;0.4705;0.9557;
738.6000;0.4713;0.9581;
738.9000;0.4697;0.9627;
739.2000;0.4697;0.9627;
739.5000;0.4705;0.9627;
739.8000;0.4713;0.9697;
740.1000;0.4689;0.9581;
740.4000;0.4705;0.9627;
740.7000;0.4737;0.9721;
741.0000;0.4713;0.9627;
741.3000;0.4713;0.9697;
741.6000;0.4689;0.9674;
741.9000;0.4672;0.9604;
742.2000;0.4681;0.9604;
742.5000;0.4656;0.9581;
742.8000;0.4672;0.9721;
743.1000;0.4681;0.9744;
743.4000;0.4697;0.9837;
743.7000;0.4713;0.9860;
744.0000;0.4697;0.9790;
744.3000;0.4697;0.9814;
744.6000;0.4681;0.9744;
744.9000;0.4697;0.9744;
745.2000;0.4713;0.9744;
745.5000;0.4689;0.9651;
745.8000;0.4640;0.9464;
746.1000;0.4689;0.9651;
746.4000;0.4811;0.9907;
746.7000;0.4664;0.9651;
747.0000;0.4672;0.9674;
747.3000;0.4729;0.9930;
747.6000;0.4713;0.9930;
747.9000;0.4697;0.9907;
748.2000;0.4672;0.9767;
748.5000;0.4697;0.9790;
748.8000;0.4689;0.9790;
749.1000;0.4697;0.9837;
749.4000;0.4689;0.9884;
749.7000;0.4681;0.9860;
750.0000;0.4664;0.9721;
750.3000;0.4681;0.9790;
750.6000;0.4681;0.9814;
750.9000;0.4672;0.9860;
751.2000;0.4689;0.9884;
751.5000;0.4672;0.9814;
751.8000;0.4672;0.9837;
752.1000;0.4689;0.9930;
752.4000;0.4672;0.9884;
752.7000;0.4681;1.0000;
753.0000;0.4672;0.9954;
753.3000;0.4656;0.9977;
753.6000;0.4648;0.9930;
753.9000;0.4697;1.0024;
754.2000;0.4672;0.9977;
754.5000;0.4656;0.9884;
754.8000;0.4672;0.9930;
755.1000;0.4681;0.9930;
755.4000;0.4672;0.9907;
755.7000;0.4721;0.9930;
756.0000;0.4664;0.9884;
756.3000;0.4672;0.9837;
756.6000;0.4664;0.9651;
756.9000;0.4656;0.9534;
757.2000;0.4689;0.9651;
757.5000;0.4681;0.9581;
757.8000;0.4656;0.9581;
758.1000;0.4640;0.9557;
758.4000;0.4664;0.9674;
758.7000;0.4672;0.9744;
759.0000;0.4681;0.9837;
759.3000;0.4681;0.9860;
759.6000;0.4656;0.9767;
759.9000;0.4656;0.9744;
760.2000;0.4664;0.9697;
760.5000;0.4664;0.9674;
760.8000;0.4656;0.9604;
761.1000;0.4567;0.9371;
761.4000;0.4664;0.9581;
761.7000;0.4664;0.9464;
762.0000;0.4656;0.9394;
762.3000;0.4672;0.9441;
762.6000;0.4664;0.9417;
762.9000;0.4648;0.9371;
763.2000;0.4648;0.9441;
763.5000;0.4632;0.9417;
763.8000;0.4648;0.9511;
764.1000;0.4656;0.9511;
764.4000;0.4672;0.9627;
764.7000;0.4656;0.9534;
765.0000;0.4640;0.9487;
765.3000;0.4664;0.9581;
765.6000;0.4640;0.9557;
765.9000;0.4648;0.9581;
766.2000;0.4664;0.9697;
766.5000;0.4689;0.9860;
766.8000;0.4624;0.9581;
767.1000;0.4624;0.9674;
767.4000;0.4648;0.9674;
767.7000;0.4615;0.9674;
768.0000;0.4632;0.9721;
768.3000;0.4624;0.9557;
768.6000;0.4575;0.9441;
768.9000;0.4624;0.9557;
769.2000;0.4648;0.9627;
769.5000;0.4640;0.9604;
769.8000;0.4648;0.9721;
770.1000;0.4648;0.9767;
770.4000;0.4640;0.9744;
770.7000;0.4648;0.9790;
771.0000;0.4632;0.9651;
771.3000;0.4640;0.9697;
771.6000;0.4640;0.9697;
771.9000;0.4640;0.9674;
772.2000;0.4632;0.9697;
772.5000;0.4624;0.9697;
772.8000;0.4632;0.9651;
773.1000;0.4615;0.9581;
773.4000;0.4632;0.9604;
773.7000;0.4624;0.9534;
774.0000;0.4632;0.9581;
774.3000;0.4648;0.9581;
774.6000;0.4648;0.9534;
774.9000;0.4632;0.9511;
775.2000;0.4624;0.9557;
775.5000;0.4624;0.9674;
775.8000;0.4640;0.9767;
776.1000;0.4632;0.9767;
776.4000;0.4607;0.9767;
776.7000;0.4640;0.9790;
777.0000;0.4656;0.9837;
777.3000;0.4615;0.9744;
777.6000;0.4567;0.9744;
777.9000;0.4624;0.9930;
778.2000;0.4624;0.9907;
778.5000;0.4607;0.9837;
778.8000;0.4615;0.9837;
779.1000;0.4607;0.9697;
779.4000;0.4607;0.9604;
779.7000;0.4607;0.9627;
780.0000;0.4607;0.9697;
780.3000;0.4640;0.9837;
780.6000;0.4624;0.9744;
780.9000;0.4615;0.9721;
781.2000;0.4607;0.9767;
781.5000;0.4632;0.9884;
781.8000;0.4624;0.9814;
782.1000;0.4575;0.9744;
782.4000;0.4599;0.9884;
782.7000;0.4615;0.9930;
783.0000;0.4615;0.9930;
783.3000;0.4632;0.9954;
783.6000;0.4607;0.9907;
783.9000;0.4607;0.9954;
784.2000;0.4510;0.9674;
784.5000;0.4583;0.9837;
784.8000;0.4599;0.9814;
785.1000;0.4689;1.0094;
785.4000;0.4615;1.0000;
785.7000;0.4599;0.9884;
786.0000;0.4599;0.9907;
786.3000;0.4615;0.9907;
786.6000;0.4615;0.9977;
786.9000;0.4599;0.9930;
787.2000;0.4591;0.9884;
787.5000;0.4607;1.0000;
787.8000;0.4591;0.9930;
788.1000;0.4591;0.9837;
788.4000;0.4615;0.9767;
788.7000;0.4583;0.9814;
789.0000;0.4575;0.9860;
789.3000;0.4599;0.9814;
789.6000;0.4558;0.9790;
789.9000;0.4591;0.9837;
790.2000;0.4599;0.9837;
790.5000;0.4648;0.9907;
790.8000;0.4615;0.9767;
791.1000;0.4591;0.9744;
791.4000;0.4599;0.9744;
791.7000;0.4615;0.9790;
792.0000;0.4583;0.9837;
792.3000;0.4599;0.9814;
792.6000;0.4583;0.9744;
792.9000;0.4607;0.9790;
793.2000;0.4599;0.9744;
793.5000;0.4599;0.9837;
793.8000;0.4567;0.9907;
794.1000;0.4542;0.9837;
794.4000;0.4599;0.9954;
794.7000;0.4648;1.0024;
795.0000;0.4599;0.9814;
795.3000;0.4583;0.9790;
795.6000;0.4575;0.9907;
795.9000;0.4599;0.9954;
796.2000;0.4591;0.9954;
796.5000;0.4575;0.9767;
796.8000;0.4567;0.9697;
797.1000;0.4567;0.9627;
797.4000;0.4558;0.9697;
797.7000;0.4558;0.9721;
798.0000;0.4583;0.9767;
798.3000;0.4575;0.9790;
798.6000;0.4550;0.9744;
798.9000;0.4575;0.9837;
799.2000;0.4558;0.9837;
799.5000;0.4583;0.9814;
799.8000;0.4575;0.9790;
800.1000;0.4640;1.0024;
800.4000;0.4575;0.9884;
800.7000;0.4583;0.9767;
801.0000;0.4583;0.9814;
801.3000;0.4583;0.9790;
801.6000;0.4640;0.9977;
801.9000;0.4583;0.9884;
802.2000;0.4591;0.9884;
802.5000;0.4591;0.9837;
802.8000;0.4583;0.9814;
803.1000;0.4615;0.9930;
803.4000;0.4583;0.9930;
803.7000;0.4583;0.9884;
804.0000;0.4575;0.9884;
804.3000;0.4567;0.9907;
804.6000;0.4526;0.9930;
804.9000;0.4558;0.9977;
805.2000;0.4583;1.0000;
805.5000;0.4550;0.9930;
805.8000;0.4575;0.9954;
806.1000;0.4640;1.0024;
806.4000;0.4542;0.9884;
806.7000;0.4567;0.9907;
807.0000;0.4558;0.9930;
807.3000;0.4534;0.9860;
807.6000;0.4518;0.9837;
807.9000;0.4583;0.9977;
808.2000;0.4567;0.9930;
808.5000;0.4567;0.9977;
808.8000;0.4575;1.0047;
809.1000;0.4583;1.0000;
809.4000;0.4550;1.0047;
809.7000;0.4493;0.9954;
810.0000;0.4558;1.0163;
810.3000;0.4558;1.0163;
810.6000;0.4550;1.0210;
810.9000;0.4558;1.0187;
811.2000;0.4567;1.0210;
811.5000;0.4567;1.0094;
811.8000;0.4550;0.9977;
812.1000;0.4567;0.9977;
812.4000;0.4575;0.9930;
812.7000;0.4575;0.9977;
813.0000;0.4550;0.9884;
813.3000;0.4542;0.9860;
813.6000;0.4534;0.9954;
813.9000;0.4567;1.0070;
814.2000;0.4534;0.9977;
814.5000;0.4567;1.0163;
814.8000;0.4542;1.0140;
815.1000;0.4542;1.0047;
815.4000;0.4542;1.0094;
815.7000;0.4542;1.0117;
816.0000;0.4558;1.0163;
816.3000;0.4558;1.0117;
816.6000;0.4664;1.0303;
816.9000;0.4542;1.0094;
817.2000;0.4550;1.0094;
817.5000;0.4558;1.0140;
817.8000;0.4534;1.0163;
818.1000;0.4526;1.0140;
818.4000;0.4534;1.0140;
818.7000;0.4534;1.0163;
819.0000;0.4550;1.0140;
819.3000;0.4534;1.0117;
819.6000;0.4518;1.0070;
819.9000;0.4550;1.0047;
820.2000;0.4558;1.0094;
820.5000;0.4567;1.0047;
820.8000;0.4558;1.0070;
821.1000;0.4510;0.9977;
821.4000;0.4558;0.9954;
821.7000;0.4542;0.9954;
822.0000;0.4469;0.9790;
822.3000;0.4558;0.9907;
822.6000;0.4534;0.9954;
822.9000;0.4550;1.0117;
823.2000;0.4534;1.0047;
823.5000;0.4542;0.9977;
823.8000;0.4501;0.9977;
824.1000;0.4567;1.0117;
824.4000;0.4550;1.0047;
824.7000;0.4550;0.9977;
825.0000;0.4550;0.9954;
825.3000;0.4542;0.9907;
825.6000;0.4542;0.9837;
825.9000;0.4550;0.9790;
826.2000;0.4550;0.9884;
826.5000;0.4550;0.9860;
826.8000;0.4567;0.9930;
827.1000;0.4534;0.9860;
827.4000;0.4526;0.9767;
827.7000;0.4550;0.9814;
828.0000;0.4510;0.9814;
828.3000;0.4558;0.9884;
828.6000;0.4534;0.9930;
828.9000;0.4534;0.9977;
829.2000;0.4534;0.9907;
829.5000;0.4493;0.9814;
829.8000;0.4510;0.9860;
830.1000;0.4526;0.9860;
830.4000;0.4526;0.9907;
830.7000;0.4526;0.9860;
831.0000;0.4518;0.9837;
831.3000;0.4477;0.9767;
831.6000;0.4550;0.9884;
831.9000;0.4550;0.9907;
832.2000;0.4534;0.9884;
832.5000;0.4558;1.0000;
832.8000;0.4526;0.9860;
833.1000;0.4542;0.9837;
833.4000;0.4501;0.9790;
833.7000;0.4501;0.9790;
834.0000;0.4534;0.9744;
834.3000;0.4550;0.9767;
834.6000;0.4526;0.9837;
834.9000;0.4526;0.9790;
835.2000;0.4518;0.9721;
835.5000;0.4534;0.9837;
835.8000;0.4453;0.9697;
836.1000;0.4518;0.9930;
836.4000;0.4542;1.0000;
836.7000;0.4542;0.9954;
837.0000;0.4518;0.9930;
837.3000;0.4550;0.9954;
837.6000;0.4583;1.0047;
837.9000;0.4542;0.9930;
838.2000;0.4510;0.9907;
838.5000;0.4534;0.9977;
838.8000;0.4542;1.0047;
839.1000;0.4526;1.0094;
839.4000;0.4526;1.0024;
839.7000;0.4542;1.0024;
840.0000;0.4510;0.9907;
840.3000;0.4518;0.9907;
840.6000;0.4567;0.9977;
840.9000;0.4558;0.9884;
841.2000;0.4542;0.9837;
841.5000;0.4518;0.9790;
841.8000;0.4534;0.9907;
842.1000;0.4501;0.9767;
842.4000;0.4534;0.9860;
842.7000;0.4518;0.9884;
843.0000;0.4518;0.9930;
843.3000;0.4493;0.9790;
843.6000;0.4542;0.9814;
843.9000;0.4526;0.9837;
844.2000;0.4558;0.9930;
844.5000;0.4518;0.9954;
844.8000;0.4518;0.9884;
845.1000;0.4526;0.9884;
845.4000;0.4526;0.9930;
845.7000;0.4526;0.9907;
846.0000;0.4526;0.9907;
846.3000;0.4526;0.9930;
846.6000;0.4518;0.9954;
846.9000;0.4526;1.0163;
847.2000;0.4510;1.0094;
847.5000;0.4518;1.0070;
847.8000;0.4526;1.0070;
848.1000;0.4518;1.0070;
848.4000;0.4534;1.0117;
848.7000;0.4542;1.0070;
849.0000;0.4501;1.0000;
849.3000;0.4518;1.0000;
849.6000;0.4518;1.0024;
849.9000;0.4518;0.9954;
850.2000;0.4493;0.9907;
850.5000;0.4510;1.0000;
850.8000;0.4510;0.9954;
851.1000;0.4510;0.9907;
851.4000;0.4526;0.9954;
851.7000;0.4510;0.9907;
852.0000;0.4510;0.9907;
852.3000;0.4461;0.9767;
852.6000;0.4510;1.0024;
852.9000;0.4510;1.0024;
853.2000;0.4518;1.0024;
853.5000;0.4469;1.0000;
853.8000;0.4501;1.0140;
854.1000;0.4501;1.0094;
854.4000;0.4477;0.9907;
854.7000;0.4501;0.9930;
855.0000;0.4510;1.0000;
855.3000;0.4542;1.0187;
855.6000;0.4501;1.0047;
855.9000;0.4477;1.0070;
856.2000;0.4444;1.0070;
856.5000;0.4477;1.0140;
856.8000;0.4485;1.0210;
857.1000;0.4510;1.0210;
857.4000;0.4501;1.0094;
857.7000;0.4542;1.0117;
858.0000;0.4485;1.0024;
858.3000;0.4518;0.9977;
858.6000;0.4534;1.0000;
858.9000;0.4501;0.9837;
859.2000;0.4461;0.9721;
859.5000;0.4510;0.9884;
859.8000;0.4485;0.9837;
860.1000;0.4469;0.9744;
860.4000;0.4526;0.9814;
860.7000;0.4469;0.9721;
861.0000;0.4526;0.9930;
861.3000;0.4510;0.9790;
861.6000;0.4428;0.9581;
861.9000;0.4485;0.9651;
862.2000;0.4518;0.9814;
862.5000;0.4510;0.9767;
862.8000;0.4510;0.9744;
863.1000;0.4453;0.9557;
863.4000;0.4510;0.9721;
863.7000;0.4485;0.9674;
864.0000;0.4477;0.9744;
864.3000;0.4518;0.9767;
864.6000;0.4493;0.9697;
864.9000;0.4493;0.9674;
865.2000;0.4477;0.9721;
865.5000;0.4510;0.9697;
865.8000;0.4461;0.9627;
866.1000;0.4575;0.9860;
866.4000;0.4493;0.9721;
866.7000;0.4501;0.9837;
867.0000;0.4477;0.9837;
867.3000;0.4501;0.9744;
867.6000;0.4485;0.9767;
867.9000;0.4485;0.9790;
868.2000;0.4501;0.9837;
868.5000;0.4493;0.9814;
868.8000;0.4493;0.9744;
869.1000;0.4485;0.9767;
869.4000;0.4493;0.9767;
869.7000;0.4485;0.9767;
870.0000;0.4493;0.9814;
870.3000;0.4485;0.9744;
870.6000;0.4501;0.9744;
870.9000;0.4493;0.9767;
871.2000;0.4485;0.9814;
871.5000;0.4501;0.9977;
871.8000;0.4477;0.9930;
872.1000;0.4453;1.0000;
872.4000;0.4485;1.0094;
872.7000;0.4444;1.0024;
873.0000;0.4444;0.9977;
873.3000;0.4501;1.0000;
873.6000;0.4477;0.9860;
873.9000;0.4485;0.9930;
874.2000;0.4477;0.9860;
874.5000;0.4510;0.9930;
874.8000;0.4477;0.9884;
875.1000;0.4493;0.9977;
875.4000;0.4469;0.9977;
875.7000;0.4501;1.0070;
876.0000;0.4493;0.9977;
876.3000;0.4485;1.0024;
876.6000;0.4485;1.0000;
876.9000;0.4485;0.9977;
877.2000;0.4493;0.9977;
877.5000;0.4485;0.9837;
877.8000;0.4477;0.9767;
878.1000;0.4461;0.9744;
878.4000;0.4485;0.9837;
878.7000;0.4493;0.9837;
879.0000;0.4493;0.9814;
879.3000;0.4420;0.9651;
879.6000;0.4501;0.9907;
879.9000;0.4493;0.9884;
880.2000;0.4469;0.9907;
880.5000;0.4477;0.9977;
880.8000;0.4477;0.9954;
881.1000;0.4477;1.0047;
881.4000;0.4469;1.0000;
881.7000;0.4485;1.0070;
882.0000;0.4461;1.0047;
882.3000;0.4436;1.0070;
882.6000;0.4485;1.0187;
882.9000;0.4485;1.0187;
883.2000;0.4485;1.0210;
883.5000;0.4461;1.0210;
883.8000;0.4485;1.0257;
884.1000;0.4493;1.0233;
884.4000;0.4477;1.0233;
884.7000;0.4461;1.0187;
885.0000;0.4461;1.0187;
885.3000;0.4477;1.0280;
885.6000;0.4575;1.0443;
885.9000;0.4453;1.0187;
886.2000;0.4469;1.0140;
886.5000;0.4493;1.0210;
886.8000;0.4485;1.0233;
887.1000;0.4461;1.0163;
887.4000;0.4469;1.0047;
887.7000;0.4526;1.0094;
888.0000;0.4485;1.0047;
888.3000;0.4469;1.0070;
888.6000;0.4485;1.0117;
888.9000;0.4444;1.0047;
889.2000;0.4485;1.0094;
889.5000;0.4493;1.0117;
889.8000;0.4461;1.0094;
890.1000;0.4420;0.9977;
890.4000;0.4477;1.0094;
890.7000;0.4485;1.0140;
891.0000;0.4469;1.0117;
891.3000;0.4477;1.0047;
891.6000;0.4469;1.0000;
891.9000;0.4567;1.0257;
892.2000;0.4469;0.9954;
892.5000;0.4501;1.0000;
892.8000;0.4469;0.9977;
893.1000;0.4518;1.0070;
893.4000;0.4493;0.9954;
893.7000;0.4493;0.9977;
894.0000;0.4575;1.0187;
894.3000;0.4510;1.0024;
894.6000;0.4485;0.9954;
894.9000;0.4428;0.9767;
895.2000;0.4469;0.9907;
895.5000;0.4436;0.9837;
895.8000;0.4461;0.9767;
896.1000;0.4453;0.9767;
896.4000;0.4461;0.9744;
896.7000;0.4469;0.9767;
897.0000;0.4461;0.9697;
897.3000;0.4461;0.9651;
897.6000;0.4534;0.9744;
897.9000;0.4469;0.9674;
898.2000;0.4477;0.9721;
898.5000;0.4485;0.9767;
898.8000;0.4461;0.9860;
899.1000;0.4493;0.9977;
899.4000;0.4461;0.9907;
899.7000;0.4453;0.9930;
900.0000;0.4453;0.9860;
900.3000;0.4477;0.9907;
900.6000;0.4477;0.9860;
900.9000;0.4453;0.9767;
901.2000;0.4469;0.9860;
901.5000;0.4453;0.9860;
901.8000;0.4510;0.9977;
902.1000;0.4477;0.9884;
902.4000;0.4461;0.9884;
902.7000;0.4436;0.9767;
903.0000;0.4453;0.9790;
903.3000;0.4575;1.0094;
903.6000;0.4534;1.0000;
903.9000;0.4461;0.9954;
904.2000;0.4469;0.9930;
904.5000;0.4461;0.9884;
904.8000;0.4461;0.9860;
905.1000;0.4469;0.9954;
905.4000;0.4453;0.9977;
905.7000;0.4461;0.9954;
906.0000;0.4461;1.0000;
906.3000;0.4453;0.9977;
906.6000;0.4461;0.9954;
906.9000;0.4493;1.0117;
907.2000;0.4461;1.0117;
907.5000;0.4477;1.0117;
907.8000;0.4461;1.0024;
908.1000;0.4461;1.0000;
908.4000;0.4387;0.9860;
908.7000;0.4469;1.0094;
909.0000;0.4461;1.0070;
909.3000;0.4461;1.0047;
909.6000;0.4461;1.0047;
909.9000;0.4453;1.0117;
910.2000;0.4444;1.0140;
910.5000;0.4534;1.0327;
910.8000;0.4444;1.0070;
911.1000;0.4444;1.0047;
911.4000;0.4420;1.0000;
911.7000;0.4461;1.0140;
912.0000;0.4477;1.0187;
912.3000;0.4477;1.0187;
912.6000;0.4469;1.0163;
912.9000;0.4404;0.9954;
913.2000;0.4453;1.0117;
913.5000;0.4436;1.0117;
913.8000;0.4453;1.0117;
914.1000;0.4420;1.0000;
914.4000;0.4461;1.0070;
914.7000;0.4461;1.0000;
915.0000;0.4461;0.9954;
915.3000;0.4436;0.9907;
915.6000;0.4453;0.9884;
915.9000;0.4469;0.9930;
916.2000;0.4461;0.9977;
916.5000;0.4477;1.0024;
916.8000;0.4436;0.9884;
917.1000;0.4453;1.0000;
917.4000;0.4469;1.0047;
917.7000;0.4461;1.0024;
918.0000;0.4461;1.0047;
918.3000;0.4420;1.0094;
918.6000;0.4412;1.0094;
918.9000;0.4453;1.0187;
919.2000;0.4453;1.0070;
919.5000;0.4436;1.0117;
919.8000;0.4461;1.0070;
920.1000;0.4453;1.0094;
920.4000;0.4387;0.9954;
920.7000;0.4444;1.0094;
921.0000;0.4461;1.0187;
921.3000;0.4412;1.0140;
921.6000;0.4469;1.0280;
921.9000;0.4477;1.0257;
922.2000;0.4510;1.0210;
922.5000;0.4453;1.0094;
922.8000;0.4444;1.0070;
923.1000;0.4453;0.9954;
923.4000;0.4444;0.9884;
923.7000;0.4469;0.9884;
924.0000;0.4428;0.9814;
924.3000;0.4453;0.9930;
924.6000;0.4428;0.9977;
924.9000;0.4444;1.0000;
925.2000;0.4453;1.0047;
925.5000;0.4436;1.0024;
925.8000;0.4436;1.0047;
926.1000;0.4436;0.9977;
926.4000;0.4428;1.0024;
926.7000;0.4379;0.9907;
927.0000;0.4428;1.0000;
927.3000;0.4428;1.0070;
927.6000;0.4469;1.0094;
927.9000;0.4453;0.9977;
928.2000;0.4436;0.9930;
928.5000;0.4420;0.9860;
928.8000;0.4436;0.9954;
929.1000;0.4453;0.9954;
929.4000;0.4420;1.0000;
929.7000;0.4453;1.0000;
930.0000;0.4469;1.0024;
930.3000;0.4453;1.0070;
930.6000;0.4453;1.0070;
930.9000;0.4453;1.0000;
931.2000;0.4428;0.9977;
931.5000;0.4428;0.9884;
931.8000;0.4444;0.9814;
932.1000;0.4436;0.9837;
932.4000;0.4436;0.9744;
932.7000;0.4461;0.9814;
933.0000;0.4420;0.9814;
933.3000;0.4510;1.0117;
933.6000;0.4444;1.0024;
933.9000;0.4420;1.0024;
934.2000;0.4461;1.0070;
934.5000;0.4477;1.0117;
934.8000;0.4453;1.0024;
935.1000;0.4461;1.0140;
935.4000;0.4444;1.0117;
935.7000;0.4444;1.0070;
936.0000;0.4469;1.0210;
936.3000;0.4453;1.0210;
936.6000;0.4444;1.0233;
936.9000;0.4444;1.0280;
937.2000;0.4485;1.0373;
937.5000;0.4436;1.0327;
937.8000;0.4436;1.0280;
938.1000;0.4444;1.0257;
938.4000;0.4412;1.0094;
938.7000;0.4436;1.0117;
939.0000;0.4436;1.0187;
939.3000;0.4444;1.0210;
939.6000;0.4453;1.0280;
939.9000;0.4436;1.0187;
940.2000;0.4379;1.0000;
940.5000;0.4453;1.0187;
940.8000;0.4420;1.0187;
941.1000;0.4436;1.0257;
941.4000;0.4428;1.0257;
941.7000;0.4436;1.0210;
942.0000;0.4436;1.0140;
942.3000;0.4436;1.0140;
942.6000;0.4428;1.0210;
942.9000;0.4428;1.0187;
943.2000;0.4444;1.0163;
943.5000;0.4444;1.0140;
943.8000;0.4420;1.0117;
944.1000;0.4412;1.0163;
944.4000;0.4453;1.0233;
944.7000;0.4436;1.0140;
945.0000;0.4436;1.0163;
945.3000;0.4420;1.0094;
945.6000;0.4444;1.0257;
945.9000;0.4444;1.0257;
946.2000;0.4387;1.0024;
946.5000;0.4428;1.0140;
946.8000;0.4453;1.0210;
947.1000;0.4436;1.0187;
947.4000;0.4469;1.0117;
947.7000;0.4444;1.0163;
948.0000;0.4444;1.0117;
948.3000;0.4461;1.0117;
948.6000;0.4428;0.9930;
948.9000;0.4453;1.0000;
949.2000;0.4453;1.0070;
949.5000;0.4371;0.9860;
949.8000;0.4404;0.9907;
950.1000;0.4420;1.0047;
950.4000;0.4444;1.0140;
950.7000;0.4469;1.0303;
951.0000;0.4436;1.0233;
951.3000;0.4420;1.0163;
951.6000;0.4428;1.0187;
951.9000;0.4477;1.0350;
952.2000;0.4428;1.0187;
952.5000;0.4420;1.0187;
952.8000;0.4453;1.0257;
953.1000;0.4428;1.0303;
953.4000;0.4396;1.0257;
953.7000;0.4493;1.0513;
954.0000;0.4444;1.0280;
954.3000;0.4371;1.0117;
954.6000;0.4444;1.0350;
954.9000;0.4412;1.0187;
955.2000;0.4420;1.0233;
955.5000;0.4436;1.0303;
955.8000;0.4436;1.0280;
956.1000;0.4453;1.0210;
956.4000;0.4363;1.0047;
956.7000;0.4444;1.0327;
957.0000;0.4444;1.0280;
957.3000;0.4436;1.0257;
957.6000;0.4444;1.0280;
957.9000;0.4444;1.0257;
958.2000;0.4477;1.0210;
958.5000;0.4428;1.0117;
958.8000;0.4428;1.0140;
959.1000;0.4428;1.0163;
959.4000;0.4420;1.0187;
959.7000;0.4477;1.0373;
960.0000;0.4428;1.0233;
960.3000;0.4428;1.0163;
960.6000;0.4412;1.0210;
960.9000;0.4436;1.0327;
961.2000;0.4436;1.0397;
961.5000;0.4420;1.0373;
961.8000;0.4444;1.0466;
962.1000;0.4428;1.0373;
962.4000;0.4428;1.0280;
962.7000;0.4404;1.0257;
963.0000;0.4428;1.0280;
963.3000;0.4436;1.0280;
963.6000;0.4412;1.0233;
963.9000;0.4379;1.0210;
964.2000;0.4396;1.0280;
964.5000;0.4412;1.0257;
964.8000;0.4436;1.0280;
965.1000;0.4428;1.0210;
965.4000;0.4412;1.0187;
965.7000;0.4469;1.0210;
966.0000;0.4428;1.0094;
966.3000;0.4420;1.0094;
966.6000;0.4420;1.0117;
966.9000;0.4493;1.0280;
967.2000;0.4428;1.0233;
967.5000;0.4428;1.0070;
967.8000;0.4420;1.0117;
968.1000;0.4404;1.0094;
968.4000;0.4428;1.0187;
968.7000;0.4404;1.0210;
969.0000;0.4412;1.0257;
969.3000;0.4404;1.0327;
969.6000;0.4396;1.0373;
969.9000;0.4404;1.0303;
970.2000;0.4404;1.0187;
970.5000;0.4420;1.0233;
970.8000;0.4428;1.0280;
971.1000;0.4404;1.0187;
971.4000;0.4428;1.0210;
971.7000;0.4387;1.0187;
972.0000;0.4428;1.0373;
972.3000;0.4607;1.0746;
972.6000;0.4469;1.0443;
972.9000;0.4453;1.0397;
973.2000;0.4444;1.0280;
973.5000;0.4428;1.0280;
973.8000;0.4404;1.0257;
974.1000;0.4420;1.0350;
974.4000;0.4420;1.0303;
974.7000;0.4428;1.0350;
975.0000;0.4469;1.0513;
975.3000;0.4420;1.0350;
975.6000;0.4420;1.0373;
975.9000;0.4363;1.0210;
976.2000;0.4436;1.0303;
976.5000;0.4412;1.0303;
976.8000;0.4461;1.0303;
977.1000;0.4412;1.0280;
977.4000;0.4420;1.0327;
977.7000;0.4355;1.0163;
978.0000;0.4444;1.0443;
978.3000;0.4420;1.0373;
978.6000;0.4412;1.0303;
978.9000;0.4404;1.0257;
979.2000;0.4396;1.0233;
979.5000;0.4420;1.0210;
979.8000;0.4412;1.0257;
980.1000;0.4420;1.0257;
980.4000;0.4461;1.0327;
980.7000;0.4412;1.0280;
981.0000;0.4420;1.0327;
981.3000;0.4428;1.0350;
981.6000;0.4428;1.0327;
981.9000;0.4420;1.0373;
982.2000;0.4412;1.0397;
982.5000;0.4444;1.0443;
982.8000;0.4428;1.0373;
983.1000;0.4428;1.0373;
983.4000;0.4428;1.0373;
983.7000;0.4453;1.0443;
984.0000;0.4396;1.0210;
984.3000;0.4420;1.0187;
984.6000;0.4420;1.0257;
984.9000;0.4404;1.0233;
985.2000;0.4436;1.0233;
985.5000;0.4420;1.0257;
985.8000;0.4420;1.0303;
986.1000;0.4412;1.0303;
986.4000;0.4412;1.0210;
986.7000;0.4428;1.0210;
987.0000;0.4428;1.0140;
987.3000;0.4420;1.0094;
987.6000;0.4404;1.0024;
987.9000;0.4420;1.0094;
988.2000;0.4436;1.0140;
988.5000;0.4420;1.0070;
988.8000;0.4412;1.0000;
989.1000;0.4387;0.9977;
989.4000;0.4396;0.9977;
989.7000;0.4428;1.0000;
990.0000;0.4412;1.0070;
990.3000;0.4461;1.0163;
990.6000;0.4396;1.0047;
990.9000;0.4379;1.0047;
991.2000;0.4412;1.0024;
991.5000;0.4412;1.0094;
991.8000;0.4412;1.0140;
992.1000;0.4404;1.0094;
992.4000;0.4396;1.0047;
992.7000;0.4428;1.0070;
993.0000;0.4461;1.0117;
993.3000;0.4396;0.9930;
993.6000;0.4404;1.0024;
993.9000;0.4420;1.0024;
994.2000;0.4347;0.9860;
994.5000;0.4282;0.9790;
994.8000;0.4379;1.0094;
995.1000;0.4412;1.0233;
995.4000;0.4420;1.0257;
995.7000;0.4412;1.0280;
996.0000;0.4404;1.0257;
996.3000;0.4420;1.0257;
996.6000;0.4428;1.0303;
996.9000;0.4412;1.0303;
997.2000;0.4404;1.0373;
997.5000;0.4404;1.0373;
997.8000;0.4396;1.0327;
998.1000;0.4420;1.0397;
998.4000;0.4412;1.0466;
998.7000;0.4412;1.0397;
999.0000;0.4371;1.0210;
999.3000;0.4420;1.0397;
999.6000;0.4412;1.0443;
999.9000;0.4379;1.0373;
1000.2000;0.4461;1.0560;
1000.5000;0.4453;1.0630;
1000.8000;0.4404;1.0420;
1001.1000;0.4387;1.0280;
1001.4000;0.4404;1.0327;
1001.7000;0.4412;1.0257;
1002.0000;0.4363;1.0094;
1002.3000;0.4396;1.0140;
1002.6000;0.4330;1.0000;
1002.9000;0.4387;1.0094;
1003.2000;0.4412;1.0140;
1003.5000;0.4396;1.0117;
1003.8000;0.4404;1.0140;
1004.1000;0.4404;1.0210;
1004.4000;0.4412;1.0327;
1004.7000;0.4412;1.0327;
1005.0000;0.4404;1.0350;
1005.3000;0.4420;1.0397;
1005.6000;0.4404;1.0397;
1005.9000;0.4371;1.0303;
1006.2000;0.4371;1.0257;
1006.5000;0.4379;1.0257;
1006.8000;0.4387;1.0280;
1007.1000;0.4379;1.0280;
1007.4000;0.4444;1.0350;
1007.7000;0.4396;1.0140;
1008.0000;0.4420;1.0140;
1008.3000;0.4396;1.0117;
1008.6000;0.4387;1.0070;
1008.9000;0.4387;0.9977;
1009.2000;0.4371;1.0000;
1009.5000;0.4396;1.0210;
1009.8000;0.4404;1.0163;
1010.1000;0.4387;1.0070;
1010.4000;0.4387;1.0117;
1010.7000;0.4412;1.0163;
1011.0000;0.4387;1.0140;
1011.3000;0.4379;1.0094;
1011.6000;0.4379;1.0117;
1011.9000;0.4412;1.0140;
1012.2000;0.4387;1.0117;
1012.5000;0.4379;1.0024;
1012.8000;0.4396;1.0094;
1013.1000;0.4404;1.0303;
1013.4000;0.4453;1.0373;
1013.7000;0.4404;1.0280;
1014.0000;0.4412;1.0233;
1014.3000;0.4404;1.0327;
1014.6000;0.4404;1.0327;
1014.9000;0.4396;1.0303;
1015.2000;0.4404;1.0280;
1015.5000;0.4387;1.0233;
1015.8000;0.4444;1.0350;
1016.1000;0.4363;1.0233;
1016.4000;0.4404;1.0327;
1016.7000;0.4428;1.0280;
1017.0000;0.4404;1.0257;
1017.3000;0.4396;1.0210;
1017.6000;0.4404;1.0303;
1017.9000;0.4404;1.0303;
1018.2000;0.4404;1.0350;
1018.5000;0.4412;1.0397;
1018.8000;0.4371;1.0373;
1019.1000;0.4404;1.0373;
1019.4000;0.4420;1.0280;
1019.7000;0.4404;1.0187;
1020.0000;0.4493;1.0373;
1020.3000;0.4404;1.0163;
1020.6000;0.4379;1.0140;
1020.9000;0.4404;1.0257;
1021.2000;0.4387;1.0257;
1021.5000;0.4404;1.0233;
1021.8000;0.4396;1.0257;
1022.1000;0.4396;1.0210;
1022.4000;0.4404;1.0187;
1022.7000;0.4404;1.0233;
1023.0000;0.4396;1.0210;
1023.3000;0.4371;1.0257;
1023.6000;0.4404;1.0350;
1023.9000;0.4412;1.0327;
1024.2000;0.4420;1.0280;
1024.5000;0.4453;1.0373;
1024.8000;0.4412;1.0327;
1025.1000;0.4428;1.0420;
1025.4000;0.4412;1.0397;
1025.7000;0.4420;1.0397;
1026.0000;0.4412;1.0303;
1026.3000;0.4396;1.0187;
1026.6000;0.4420;1.0257;
1026.9000;0.4396;1.0233;
1027.2000;0.4363;1.0187;
1027.5000;0.4387;1.0233;
1027.8000;0.4404;1.0210;
1028.1000;0.4379;1.0140;
1028.4000;0.4412;1.0280;
1028.7000;0.4371;1.0280;
1029.0000;0.4412;1.0350;
1029.3000;0.4387;1.0303;
1029.6000;0.4379;1.0280;
1029.9000;0.4371;1.0303;
1030.2000;0.4387;1.0303;
1030.5000;0.4379;1.0233;
1030.8000;0.4379;1.0233;
1031.1000;0.4404;1.0233;
1031.4000;0.4404;1.0187;
1031.7000;0.4387;1.0233;
1032.0000;0.4404;1.0257;
1032.3000;0.4371;1.0187;
1032.6000;0.4412;1.0140;
1032.9000;0.4379;1.0024;
1033.2000;0.4371;1.0094;
1033.5000;0.4396;1.0163;
1033.8000;0.4387;1.0163;
1034.1000;0.4387;1.0233;
1034.4000;0.4363;1.0187;
1034.7000;0.4396;1.0187;
1035.0000;0.4371;1.0117;
1035.3000;0.4387;1.0117;
1035.6000;0.4404;1.0094;
1035.9000;0.4404;1.0163;
1036.2000;0.4428;1.0257;
1036.5000;0.4404;1.0210;
1036.8000;0.4420;1.0257;
1037.1000;0.4379;1.0257;
1037.4000;0.4379;1.0233;
1037.7000;0.4428;1.0303;
1038.0000;0.4404;1.0163;
1038.3000;0.4404;1.0163;
1038.6000;0.4404;1.0210;
1038.9000;0.4404;1.0280;
1039.2000;0.4412;1.0280;
1039.5000;0.4371;1.0187;
1039.8000;0.4396;1.0257;
1040.1000;0.4404;1.0280;
1040.4000;0.4379;1.0327;
1040.7000;0.4379;1.0373;
1041.0000;0.4436;1.0466;
1041.3000;0.4387;1.0373;
1041.6000;0.4387;1.0397;
1041.9000;0.4404;1.0513;
1042.2000;0.4379;1.0397;
1042.5000;0.4404;1.0350;
1042.8000;0.4379;1.0327;
1043.1000;0.4379;1.0327;
1043.4000;0.4371;1.0210;
1043.7000;0.4330;1.0070;
1044.0000;0.4387;1.0257;
1044.3000;0.4387;1.0233;
1044.6000;0.4444;1.0373;
1044.9000;0.4371;1.0257;
1045.2000;0.4387;1.0257;
1045.5000;0.4379;1.0280;
1045.8000;0.4363;1.0233;
1046.1000;0.4379;1.0233;
1046.4000;0.4444;1.0373;
1046.7000;0.4396;1.0257;
1047.0000;0.4428;1.0350;
1047.3000;0.4387;1.0257;
1047.6000;0.4420;1.0373;
1047.9000;0.4379;1.0350;
1048.2000;0.4428;1.0420;
1048.5000;0.4379;1.0397;
1048.8000;0.4396;1.0443;
1049.1000;0.4444;1.0560;
1049.4000;0.4518;1.0700;
1049.7000;0.4387;1.0373;
1050.0000;0.4387;1.0420;
1050.3000;0.4379;1.0397;
1050.6000;0.4404;1.0420;
1050.9000;0.4412;1.0490;
1051.2000;0.4396;1.0490;
1051.5000;0.4387;1.0420;
1051.8000;0.4339;1.0327;
1052.1000;0.4339;1.0373;
1052.4000;0.4379;1.0420;
1052.7000;0.4461;1.0443;
1053.0000;0.4404;1.0280;
1053.3000;0.4379;1.0257;
1053.6000;0.4396;1.0350;
1053.9000;0.4396;1.0350;
1054.2000;0.4404;1.0350;
1054.5000;0.4396;1.0257;
1054.8000;0.4322;1.0070;
1055.1000;0.4387;1.0303;
1055.4000;0.4387;1.0233;
1055.7000;0.4379;1.0210;
1056.0000;0.4347;1.0047;
1056.3000;0.4371;1.0187;
1056.6000;0.4387;1.0257;
1056.9000;0.4396;1.0303;
1057.2000;0.4420;1.0327;
1057.5000;0.4379;1.0117;
1057.8000;0.4379;1.0117;
1058.1000;0.4396;1.0187;
1058.4000;0.4404;1.0233;
1058.7000;0.4387;1.0303;
1059.0000;0.4363;1.0327;
1059.3000;0.4371;1.0327;
1059.6000;0.4396;1.0397;
1059.9000;0.4387;1.0257;
1060.2000;0.4379;1.0303;
1060.5000;0.4396;1.0373;
1060.8000;0.4420;1.0443;
1061.1000;0.4396;1.0443;
1061.4000;0.4379;1.0466;
1061.7000;0.4412;1.0513;
1062.0000;0.4404;1.0490;
1062.3000;0.4363;1.0443;
1062.6000;0.4363;1.0490;
1062.9000;0.4379;1.0466;
1063.2000;0.4387;1.0560;
1063.5000;0.4371;1.0513;
1063.8000;0.4371;1.0513;
1064.1000;0.4298;1.0233;
1064.4000;0.4322;1.0257;
1064.7000;0.4387;1.0327;
1065.0000;0.4396;1.0327;
1065.3000;0.4420;1.0280;
1065.6000;0.4387;1.0303;
1065.9000;0.4396;1.0327;
1066.2000;0.4355;1.0233;
1066.5000;0.4412;1.0303;
1066.8000;0.4387;1.0233;
1067.1000;0.4387;1.0257;
1067.4000;0.4371;1.0163;
1067.7000;0.4379;1.0233;
1068.0000;0.4412;1.0350;
1068.3000;0.4363;1.0210;
1068.6000;0.4387;1.0257;
1068.9000;0.4396;1.0280;
1069.2000;0.4396;1.0233;
1069.5000;0.4404;1.0233;
1069.8000;0.4371;1.0117;
1070.1000;0.4396;1.0163;
1070.4000;0.4379;1.0163;
1070.7000;0.4428;1.0327;
1071.0000;0.4396;1.0327;
1071.3000;0.4404;1.0327;
1071.6000;0.4412;1.0303;
1071.9000;0.4387;1.0280;
1072.2000;0.4379;1.0280;
1072.5000;0.4387;1.0187;
1072.8000;0.4387;1.0094;
1073.1000;0.4371;1.0117;
1073.4000;0.4420;1.0117;
1073.7000;0.4387;1.0000;
1074.0000;0.4412;1.0024;
1074.3000;0.4387;0.9954;
1074.6000;0.4290;0.9790;
1074.9000;0.4387;0.9977;
1075.2000;0.4404;1.0024;
1075.5000;0.4379;1.0024;
1075.8000;0.4379;1.0047;
1076.1000;0.4387;1.0094;
1076.4000;0.4396;1.0094;
1076.7000;0.4387;1.0070;
1077.0000;0.4469;1.0233;
1077.3000;0.4396;1.0163;
1077.6000;0.4363;1.0094;
1077.9000;0.4363;1.0117;
1078.2000;0.4420;1.0373;
1078.5000;0.4396;1.0280;
1078.8000;0.4371;1.0117;
1079.1000;0.4371;1.0094;
1079.4000;0.4396;1.0117;
1079.7000;0.4396;1.0140;
1080.0000;0.4379;1.0140;
1080.3000;0.4396;1.0140;
1080.6000;0.4404;1.0187;
1080.9000;0.4412;1.0163;
1081.2000;0.4396;1.0117;
1081.5000;0.4387;1.0024;
1081.8000;0.4379;0.9977;
1082.1000;0.4371;0.9954;
1082.4000;0.4396;1.0094;
1082.7000;0.4396;1.0117;
1083.0000;0.4363;1.0047;
1083.3000;0.4396;1.0094;
1083.6000;0.4371;1.0070;
1083.9000;0.4379;1.0047;
1084.2000;0.4404;1.0047;
1084.5000;0.4339;0.9884;
1084.8000;0.4404;0.9977;
1085.1000;0.4379;0.9907;
1085.4000;0.4412;1.0000;
1085.7000;0.4404;1.0070;
1086.0000;0.4355;0.9977;
1086.3000;0.4420;1.0070;
1086.6000;0.4396;1.0000;
1086.9000;0.4355;0.9860;
1087.2000;0.4379;0.9884;
1087.5000;0.4387;1.0047;
1087.8000;0.4387;1.0094;
1088.1000;0.4339;1.0070;
1088.4000;0.4387;1.0233;
1088.7000;0.4387;1.0140;
1089.0000;0.4379;1.0117;
1089.3000;0.4371;1.0047;
1089.6000;0.4396;1.0140;
1089.9000;0.4387;1.0140;
1090.2000;0.4412;1.0187;
1090.5000;0.4379;1.0047;
1090.8000;0.4371;1.0024;
1091.1000;0.4322;0.9954;
1091.4000;0.4339;1.0140;
1091.7000;0.4355;1.0233;
1092.0000;0.4379;1.0210;
1092.3000;0.4379;1.0210;
1092.6000;0.4379;1.0257;
1092.9000;0.4379;1.0280;
1093.2000;0.4387;1.0233;
1093.5000;0.4379;1.0094;
1093.8000;0.4379;1.0140;
1094.1000;0.4396;1.0187;
1094.4000;0.4387;1.0233;
1094.7000;0.4396;1.0187;
1095.0000;0.4387;1.0303;
1095.3000;0.4379;1.0280;
1095.6000;0.4387;1.0303;
1095.9000;0.4387;1.0397;
1096.2000;0.4363;1.0327;
1096.5000;0.4404;1.0420;
1096.8000;0.4387;1.0350;
1097.1000;0.4396;1.0280;
1097.4000;0.4387;1.0280;
1097.7000;0.4396;1.0327;
1098.0000;0.4387;1.0303;
1098.3000;0.4387;1.0350;
1098.6000;0.4347;1.0210;
1098.9000;0.4387;1.0303;
1099.2000;0.4371;1.0257;
1099.5000;0.4379;1.0210;
1099.8000;0.4387;1.0187;
1100.1000;0.4387;1.0257;
1100.4000;0.4379;1.0280;
1100.7000;0.4387;1.0350;
1101.0000;0.4339;1.0140;
1101.3000;0.4396;1.0490;
1101.6000;0.4379;1.0536;
1101.9000;0.4387;1.0443;
1102.2000;0.4436;1.0443;
1102.5000;0.4379;1.0327;
1102.8000;0.4396;1.0303;
1103.1000;0.4371;1.0233;
1103.4000;0.4363;1.0187;
1103.7000;0.4347;0.9977;
1104.0000;0.4306;0.9790;
1104.3000;0.4371;1.0000;
1104.6000;0.4363;1.0000;
1104.9000;0.4379;1.0000;
1105.2000;0.4420;1.0140;
1105.5000;0.4371;1.0140;
1105.8000;0.4412;1.0163;
1106.1000;0.4379;1.0163;
1106.4000;0.4379;1.0140;
1106.7000;0.4347;0.9977;
1107.0000;0.4387;1.0117;
1107.3000;0.4404;1.0117;
1107.6000;0.4387;1.0117;
1107.9000;0.4428;1.0163;
1108.2000;0.4404;1.0094;
1108.5000;0.4412;1.0070;
1108.8000;0.4420;1.0094;
1109.1000;0.4420;1.0094;
1109.4000;0.4379;0.9977;
1109.7000;0.4371;0.9930;
1110.0000;0.4322;0.9814;
1110.3000;0.4428;1.0163;
1110.6000;0.4330;1.0024;
1110.9000;0.4379;1.0117;
1111.2000;0.4363;1.0047;
1111.5000;0.4404;1.0140;
1111.8000;0.4379;1.0117;
1112.1000;0.4436;1.0303;
1112.4000;0.4379;1.0140;
1112.7000;0.4363;1.0210;
1113.0000;0.4379;1.0280;
1113.3000;0.4363;1.0210;
1113.6000;0.4379;1.0233;
1113.9000;0.4363;1.0210;
1114.2000;0.4363;1.0257;
1114.5000;0.4363;1.0280;
1114.8000;0.4322;1.0210;
1115.1000;0.4436;1.0443;
1115.4000;0.4428;1.0373;
1115.7000;0.4379;1.0280;
1116.0000;0.4355;1.0280;
1116.3000;0.4363;1.0280;
1116.6000;0.4347;1.0303;
1116.9000;0.4371;1.0420;
1117.2000;0.4371;1.0466;
1117.5000;0.4477;1.0770;
1117.8000;0.4379;1.0490;
1118.1000;0.4379;1.0513;
1118.4000;0.4355;1.0536;
1118.7000;0.4363;1.0513;
1119.0000;0.4290;1.0373;
1119.3000;0.4363;1.0560;
1119.6000;0.4371;1.0513;
1119.9000;0.4387;1.0536;
1120.2000;0.4379;1.0513;
1120.5000;0.4396;1.0536;
1120.8000;0.4363;1.0350;
1121.1000;0.4355;1.0303;
1121.4000;0.4347;1.0327;
1121.7000;0.4371;1.0397;
1122.0000;0.4379;1.0443;
1122.3000;0.4379;1.0233;
1122.6000;0.4379;1.0210;
1122.9000;0.4387;1.0187;
1123.2000;0.4371;1.0233;
1123.5000;0.4371;1.0233;
1123.8000;0.4363;1.0117;
1124.1000;0.4412;1.0257;
1124.4000;0.4371;1.0233;
1124.7000;0.4363;1.0233;
1125.0000;0.4412;1.0350;
1125.3000;0.4363;1.0280;
1125.6000;0.4363;1.0397;
1125.9000;0.4371;1.0443;
1126.2000;0.4355;1.0373;
1126.5000;0.4355;1.0373;
1126.8000;0.4387;1.0443;
1127.1000;0.4387;1.0443;
1127.4000;0.4355;1.0373;
1127.7000;0.4371;1.0350;
1128.0000;0.4363;1.0373;
1128.3000;0.4396;1.0513;
1128.6000;0.4379;1.0466;
1128.9000;0.4363;1.0327;
1129.2000;0.4355;1.0303;
1129.5000;0.4371;1.0350;
1129.8000;0.4363;1.0373;
1130.1000;0.4363;1.0303;
1130.4000;0.4404;1.0443;
1130.7000;0.4371;1.0350;
1131.0000;0.4387;1.0420;
1131.3000;0.4371;1.0350;
1131.6000;0.4363;1.0280;
1131.9000;0.4379;1.0327;
1132.2000;0.4363;1.0327;
1132.5000;0.4306;1.0210;
1132.8000;0.4379;1.0233;
1133.1000;0.4371;1.0257;
1133.4000;0.4379;1.0327;
1133.7000;0.4363;1.0280;
1134.0000;0.4379;1.0397;
1134.3000;0.4387;1.0443;
1134.6000;0.4387;1.0397;
1134.9000;0.4379;1.0443;
1135.2000;0.4387;1.0466;
1135.5000;0.4355;1.0350;
1135.8000;0.4420;1.0490;
1136.1000;0.4404;1.0397;
1136.4000;0.4404;1.0350;
1136.7000;0.4314;1.0140;
1137.0000;0.4396;1.0303;
1137.3000;0.4396;1.0303;
1137.6000;0.4290;1.0047;
1137.9000;0.4371;1.0233;
1138.2000;0.4363;1.0280;
1138.5000;0.4371;1.0140;
1138.8000;0.4436;1.0420;
1139.1000;0.4379;1.0257;
1139.4000;0.4371;1.0140;
1139.7000;0.4379;1.0187;
1140.0000;0.4379;1.0257;
1140.3000;0.4347;1.0210;
1140.6000;0.4322;1.0163;
1140.9000;0.4396;1.0350;
1141.2000;0.4363;1.0327;
1141.5000;0.4347;1.0280;
1141.8000;0.4371;1.0327;
1142.1000;0.4355;1.0397;
1142.4000;0.4396;1.0583;
1142.7000;0.4387;1.0630;
1143.0000;0.4322;1.0536;
1143.3000;0.4371;1.0630;
1143.6000;0.4379;1.0560;
1143.9000;0.4387;1.0443;
1144.2000;0.4363;1.0327;
1144.5000;0.4371;1.0350;
1144.8000;0.4379;1.0397;
1145.1000;0.4412;1.0397;
1145.4000;0.4371;1.0210;
1145.7000;0.4404;1.0210;
1146.0000;0.4428;1.0280;
1146.3000;0.4371;1.0187;
1146.6000;0.4379;1.0327;
1146.9000;0.4339;1.0280;
1147.2000;0.4371;1.0397;
1147.5000;0.4371;1.0443;
1147.8000;0.4371;1.0397;
1148.1000;0.4436;1.0443;
1148.4000;0.4371;1.0303;
1148.7000;0.4363;1.0327;
1149.0000;0.4330;1.0397;
1149.3000;0.4363;1.0490;
1149.6000;0.4363;1.0373;
1149.9000;0.4363;1.0397;
1150.2000;0.4379;1.0490;
1150.5000;0.4339;1.0443;
1150.8000;0.4363;1.0560;
1151.1000;0.4355;1.0560;
1151.4000;0.4322;1.0373;
1151.7000;0.4355;1.0397;
1152.0000;0.4371;1.0397;
1152.3000;0.4371;1.0443;
1152.6000;0.4387;1.0490;
1152.9000;0.4371;1.0443;
1153.2000;0.4379;1.0350;
1153.5000;0.4371;1.0397;
1153.8000;0.4347;1.0490;
1154.1000;0.4371;1.0536;
1154.4000;0.4306;1.0373;
1154.7000;0.4363;1.0466;
1155.0000;0.4355;1.0466;
1155.3000;0.4387;1.0490;
1155.6000;0.4339;1.0466;
1155.9000;0.4404;1.0583;
1156.2000;0.4322;1.0443;
1156.5000;0.4469;1.0770;
1156.8000;0.4379;1.0513;
1157.1000;0.4371;1.0443;
1157.4000;0.4379;1.0466;
1157.7000;0.4347;1.0350;
1158.0000;0.4396;1.0350;
1158.3000;0.4371;1.0280;
1158.6000;0.4363;1.0233;
1158.9000;0.4371;1.0280;
1159.2000;0.4322;1.0187;
1159.5000;0.4339;1.0280;
1159.8000;0.4436;1.0560;
1160.1000;0.4363;1.0373;
1160.4000;0.4371;1.0350;
1160.7000;0.4396;1.0420;
1161.0000;0.4347;1.0303;
1161.3000;0.4363;1.0303;
1161.6000;0.4404;1.0490;
1161.9000;0.4371;1.0350;
1162.2000;0.4379;1.0420;
1162.5000;0.4363;1.0420;
1162.8000;0.4347;1.0373;
1163.1000;0.4363;1.0350;
1163.4000;0.4371;1.0420;
1163.7000;0.4387;1.0490;
1164.0000;0.4379;1.0443;
1164.3000;0.4363;1.0420;
1164.6000;0.4371;1.0420;
1164.9000;0.4355;1.0373;
1165.2000;0.4347;1.0373;
1165.5000;0.4371;1.0373;
1165.8000;0.4363;1.0303;
1166.1000;0.4371;1.0350;
1166.4000;0.4371;1.0373;
1166.7000;0.4379;1.0420;
1167.0000;0.4355;1.0397;
1167.3000;0.4379;1.0350;
1167.6000;0.4371;1.0187;
1167.9000;0.4379;1.0257;
1168.2000;0.4363;1.0140;
1168.5000;0.4371;1.0163;
1168.8000;0.4371;1.0140;
1169.1000;0.4412;1.0257;
1169.4000;0.4371;1.0280;
1169.7000;0.4371;1.0233;
1170.0000;0.4355;1.0210;
1170.3000;0.4347;1.0257;
1170.6000;0.4306;1.0117;
1170.9000;0.4355;1.0210;
1171.2000;0.4379;1.0257;
1171.5000;0.4379;1.0303;
1171.8000;0.4387;1.0350;
1172.1000;0.4355;1.0257;
1172.4000;0.4379;1.0163;
1172.7000;0.4347;1.0094;
1173.0000;0.4363;1.0163;
1173.3000;0.4420;1.0443;
1173.6000;0.4363;1.0327;
1173.9000;0.4363;1.0257;
1174.2000;0.4379;1.0327;
1174.5000;0.4347;1.0350;
1174.8000;0.4355;1.0373;
1175.1000;0.4355;1.0327;
1175.4000;0.4420;1.0536;
1175.7000;0.4371;1.0443;
1176.0000;0.4371;1.0466;
1176.3000;0.4371;1.0536;
1176.6000;0.4363;1.0513;
1176.9000;0.4371;1.0536;
1177.2000;0.4355;1.0443;
1177.5000;0.4379;1.0397;
1177.8000;0.4363;1.0210;
1178.1000;0.4387;1.0303;
1178.4000;0.4396;1.0327;
1178.7000;0.4371;1.0327;
1179.0000;0.4371;1.0373;
1179.3000;0.4387;1.0397;
1179.6000;0.4371;1.0420;
1179.9000;0.4387;1.0397;
1180.2000;0.4371;1.0443;
1180.5000;0.4371;1.0466;
1180.8000;0.4330;1.0303;
1181.1000;0.4274;1.0163;
1181.4000;0.4339;1.0257;
1181.7000;0.4355;1.0350;
1182.0000;0.4371;1.0327;
1182.3000;0.4371;1.0373;
1182.6000;0.4371;1.0327;
1182.9000;0.4363;1.0303;
1183.2000;0.4420;1.0397;
1183.5000;0.4387;1.0350;
1183.8000;0.4363;1.0210;
1184.1000;0.4379;1.0187;
1184.4000;0.4363;1.0117;
1184.7000;0.4355;1.0210;
1185.0000;0.4371;1.0163;
1185.3000;0.4355;1.0187;
1185.6000;0.4347;1.0163;
1185.9000;0.4363;1.0280;
1186.2000;0.4355;1.0233;
1186.5000;0.4363;1.0210;
1186.8000;0.4330;1.0117;
1187.1000;0.4355;1.0117;
1187.4000;0.4363;1.0117;
1187.7000;0.4347;1.0163;
1188.0000;0.4387;1.0233;
1188.3000;0.4347;1.0257;
1188.6000;0.4379;1.0303;
1188.9000;0.4371;1.0117;
1189.2000;0.4379;1.0070;
1189.5000;0.4363;1.0070;
1189.8000;0.4355;1.0187;
1190.1000;0.4379;1.0257;
1190.4000;0.4371;1.0350;
1190.7000;0.4387;1.0490;
1191.0000;0.4387;1.0420;
1191.3000;0.4355;1.0373;
1191.6000;0.4347;1.0420;
1191.9000;0.4355;1.0420;
1192.2000;0.4371;1.0350;
1192.5000;0.4355;1.0373;
1192.8000;0.4363;1.0373;
1193.1000;0.4379;1.0420;
1193.4000;0.4379;1.0466;
1193.7000;0.4379;1.0490;
1194.0000;0.4436;1.0630;
1194.3000;0.4404;1.0606;
1194.6000;0.4420;1.0583;
1194.9000;0.4371;1.0420;
1195.2000;0.4379;1.0397;
1195.5000;0.4347;1.0420;
1195.8000;0.4363;1.0420;
1196.1000;0.4347;1.0420;
1196.4000;0.4355;1.0420;
1196.7000;0.4339;1.0490;
1197.0000;0.4347;1.0466;
1197.3000;0.4339;1.0466;
1197.6000;0.4363;1.0513;
1197.9000;0.4363;1.0536;
1198.2000;0.4453;1.0746;
1198.5000;0.4355;1.0583;
1198.8000;0.4355;1.0536;
1199.1000;0.4347;1.0490;
1199.4000;0.4330;1.0373;
1199.7000;0.4363;1.0350;
1200.0000;0.4371;1.0327;
1200.3000;0.4330;1.0327;
1200.6000;0.4371;1.0443;
1200.9000;0.4339;1.0420;
1201.2000;0.4347;1.0466;
1201.5000;0.4330;1.0350;
1201.8000;0.4371;1.0420;
1202.1000;0.4379;1.0420;
1202.4000;0.4363;1.0466;
1202.7000;0.4379;1.0397;
1203.0000;0.4363;1.0373;
1203.3000;0.4339;1.0350;
1203.6000;0.4355;1.0280;
1203.9000;0.4387;1.0350;
1204.2000;0.4355;1.0257;
1204.5000;0.4355;1.0257;
1204.8000;0.4363;1.0303;
1205.1000;0.4379;1.0280;
1205.4000;0.4363;1.0257;
1205.7000;0.4363;1.0257;
1206.0000;0.4363;1.0233;
1206.3000;0.4436;1.0420;
1206.6000;0.4371;1.0280;
1206.9000;0.4330;1.0210;
1207.2000;0.4339;1.0233;
1207.5000;0.4371;1.0350;
1207.8000;0.4371;1.0350;
1208.1000;0.4371;1.0420;
1208.4000;0.4347;1.0443;
1208.7000;0.4371;1.0490;
1209.0000;0.4371;1.0397;
1209.3000;0.4363;1.0303;
1209.6000;0.4371;1.0303;
1209.9000;0.4387;1.0303;
1210.2000;0.4371;1.0163;
1210.5000;0.4355;1.0140;
1210.8000;0.4371;1.0094;
1211.1000;0.4347;1.0024;
1211.4000;0.4371;0.9977;
1211.7000;0.4363;1.0117;
1212.0000;0.4355;1.0024;
1212.3000;0.4355;1.0047;
1212.6000;0.4355;1.0000;
1212.9000;0.4363;1.0024;
1213.2000;0.4347;1.0000;
1213.5000;0.4363;0.9977;
1213.8000;0.4371;1.0070;
1214.1000;0.4355;1.0047;
1214.4000;0.4379;1.0070;
1214.7000;0.4363;0.9930;
1215.0000;0.4371;0.9954;
1215.3000;0.4371;0.9930;
1215.6000;0.4379;1.0047;
1215.9000;0.4379;1.0094;
1216.2000;0.4387;1.0140;
1216.5000;0.4387;1.0117;
1216.8000;0.4363;1.0117;
1217.1000;0.4428;1.0303;
1217.4000;0.4322;0.9977;
1217.7000;0.4363;1.0094;
1218.0000;0.4306;1.0024;
1218.3000;0.4298;1.0140;
1218.6000;0.4347;1.0257;
1218.9000;0.4355;1.0210;
1219.2000;0.4363;1.0187;
1219.5000;0.4347;1.0187;
1219.8000;0.4347;1.0210;
1220.1000;0.4298;1.0163;
1220.4000;0.4371;1.0373;
1220.7000;0.4371;1.0397;
1221.0000;0.4355;1.0420;
1221.3000;0.4363;1.0397;
1221.6000;0.4355;1.0327;
1221.9000;0.4371;1.0303;
1222.2000;0.4355;1.0163;
1222.5000;0.4347;1.0117;
1222.8000;0.4363;1.0163;
1223.1000;0.4282;0.9930;
1223.4000;0.4371;1.0163;
1223.7000;0.4347;1.0117;
1224.0000;0.4363;1.0140;
1224.3000;0.4379;1.0280;
1224.6000;0.4379;1.0303;
1224.9000;0.4355;1.0210;
1225.2000;0.4371;1.0210;
1225.5000;0.4339;1.0140;
1225.8000;0.4428;1.0257;
1226.1000;0.4379;1.0094;
1226.4000;0.4322;0.9954;
1226.7000;0.4387;1.0047;
1227.0000;0.4387;1.0047;
1227.3000;0.4322;1.0024;
1227.6000;0.4371;1.0163;
1227.9000;0.4371;1.0117;
1228.2000;0.4363;1.0117;
1228.5000;0.4355;1.0117;
1228.8000;0.4355;1.0140;
1229.1000;0.4404;1.0280;
1229.4000;0.4339;1.0117;
1229.7000;0.4363;1.0140;
1230.0000;0.4347;1.0117;
1230.3000;0.4355;1.0117;
1230.6000;0.4363;1.0140;
1230.9000;0.4371;1.0140;
1231.2000;0.4363;1.0163;
1231.5000;0.4363;1.0163;
1231.8000;0.4371;1.0117;
1232.1000;0.4371;1.0163;
1232.4000;0.4339;1.0163;
1232.7000;0.4355;1.0257;
1233.0000;0.4355;1.0397;
1233.3000;0.4330;1.0373;
1233.6000;0.4347;1.0350;
1233.9000;0.4339;1.0327;
1234.2000;0.4363;1.0327;
1234.5000;0.4404;1.0397;
1234.8000;0.4355;1.0187;
1235.1000;0.4355;1.0187;
1235.4000;0.4363;1.0233;
1235.7000;0.4355;1.0187;
1236.0000;0.4379;1.0187;
1236.3000;0.4355;1.0210;
1236.6000;0.4347;1.0163;
1236.9000;0.4371;1.0140;
1237.2000;0.4379;1.0187;
1237.5000;0.4363;1.0094;
1237.8000;0.4371;1.0094;
1238.1000;0.4387;1.0187;
1238.4000;0.4363;1.0094;
1238.7000;0.4339;1.0094;
1239.0000;0.4355;1.0187;
1239.3000;0.4371;1.0327;
1239.6000;0.4387;1.0350;
1239.9000;0.4330;1.0257;
1240.2000;0.4355;1.0327;
1240.5000;0.4371;1.0280;
1240.8000;0.4371;1.0327;
1241.1000;0.4306;1.0117;
1241.4000;0.4420;1.0327;
1241.7000;0.4363;1.0163;
1242.0000;0.4428;1.0303;
1242.3000;0.4347;1.0117;
1242.6000;0.4379;1.0210;
1242.9000;0.4371;1.0210;
1243.2000;0.4363;1.0187;
1243.5000;0.4371;1.0233;
1243.8000;0.4355;1.0233;
1244.1000;0.4339;1.0233;
1244.4000;0.4363;1.0257;
1244.7000;0.4371;1.0280;
1245.0000;0.4339;1.0187;
1245.3000;0.4330;1.0233;
1245.6000;0.4371;1.0257;
1245.9000;0.4347;1.0233;
1246.2000;0.4371;1.0280;
1246.5000;0.4420;1.0280;
1246.8000;0.4347;1.0117;
1247.1000;0.4363;1.0210;
1247.4000;0.4436;1.0420;
1247.7000;0.4355;1.0210;
1248.0000;0.4396;1.0280;
1248.3000;0.4379;1.0257;
1248.6000;0.4420;1.0373;
1248.9000;0.4355;1.0257;
1249.2000;0.4339;1.0233;
1249.5000;0.4355;1.0187;
1249.8000;0.4371;1.0187;
1250.1000;0.4363;1.0163;
1250.4000;0.4314;1.0000;
1250.7000;0.4355;1.0047;
1251.0000;0.4355;1.0117;
1251.3000;0.4371;1.0163;
1251.6000;0.4379;1.0163;
1251.9000;0.4355;1.0233;
1252.2000;0.4363;1.0210;
1252.5000;0.4363;1.0280;
1252.8000;0.4355;1.0210;
1253.1000;0.4330;1.0117;
1253.4000;0.4339;1.0024;
1253.7000;0.4355;1.0117;
1254.0000;0.4363;1.0163;
1254.3000;0.4339;1.0163;
1254.6000;0.4330;1.0140;
1254.9000;0.4412;1.0350;
1255.2000;0.4371;1.0210;
1255.5000;0.4379;1.0327;
1255.8000;0.4371;1.0280;
1256.1000;0.4363;1.0187;
1256.4000;0.4355;1.0187;
1256.7000;0.4363;1.0233;
1257.0000;0.4306;1.0117;
1257.3000;0.4363;1.0187;
1257.6000;0.4363;1.0303;
1257.9000;0.4379;1.0257;
1258.2000;0.4355;1.0140;
1258.5000;0.4404;1.0233;
1258.8000;0.4363;1.0163;
1259.1000;0.4347;1.0210;
1259.4000;0.4339;1.0233;
1259.7000;0.4355;1.0210;
1260.0000;0.4396;1.0257;
1260.3000;0.4379;1.0280;
1260.6000;0.4387;1.0233;
1260.9000;0.4461;1.0583;
1261.2000;0.4371;1.0350;
1261.5000;0.4347;1.0280;
1261.8000;0.4355;1.0210;
1262.1000;0.4387;1.0233;
1262.4000;0.4404;1.0303;
1262.7000;0.4379;1.0280;
1263.0000;0.4371;1.0210;
1263.3000;0.4379;1.0070;
1263.6000;0.4363;1.0070;
1263.9000;0.4355;1.0094;
1264.2000;0.4355;1.0210;
1264.5000;0.4347;1.0233;
1264.8000;0.4330;1.0094;
1265.1000;0.4420;1.0420;
1265.4000;0.4371;1.0490;
1265.7000;0.4339;1.0373;
1266.0000;0.4363;1.0397;
1266.3000;0.4396;1.0560;
1266.6000;0.4347;1.0490;
1266.9000;0.4347;1.0397;
1267.2000;0.4322;1.0443;
1267.5000;0.4371;1.0490;
1267.8000;0.4363;1.0327;
1268.1000;0.4347;1.0280;
1268.4000;0.4347;1.0233;
1268.7000;0.4347;1.0187;
1269.0000;0.4371;1.0210;
1269.3000;0.4355;1.0163;
1269.6000;0.4347;1.0187;
1269.9000;0.4371;1.0210;
1270.2000;0.4339;1.0187;
1270.5000;0.4355;1.0163;
1270.8000;0.4387;1.0257;
1271.1000;0.4363;1.0117;
1271.4000;0.4363;1.0117;
1271.7000;0.4347;1.0070;
1272.0000;0.4355;1.0070;
1272.3000;0.4363;1.0070;
1272.6000;0.4363;1.0047;
1272.9000;0.4339;1.0024;
1273.2000;0.4363;1.0117;
1273.5000;0.4428;1.0257;
1273.8000;0.4387;1.0163;
1274.1000;0.4387;1.0140;
1274.4000;0.4274;0.9837;
1274.7000;0.4355;1.0094;
1275.0000;0.4379;1.0257;
1275.3000;0.4330;1.0140;
1275.6000;0.4387;1.0327;
1275.9000;0.4265;1.0070;
1276.2000;0.4396;1.0443;
1276.5000;0.4396;1.0466;
1276.8000;0.4363;1.0373;
1277.1000;0.4371;1.0397;
1277.4000;0.4371;1.0373;
1277.7000;0.4379;1.0397;
1278.0000;0.4371;1.0350;
1278.3000;0.4371;1.0257;
1278.6000;0.4339;1.0163;
1278.9000;0.4339;1.0140;
1279.2000;0.4355;1.0210;
1279.5000;0.4363;1.0210;
1279.8000;0.4371;1.0187;
1280.1000;0.4371;1.0210;
1280.4000;0.4371;1.0117;
1280.7000;0.4404;1.0070;
1281.0000;0.4379;0.9954;
1281.3000;0.4379;0.9977;
1281.6000;0.4379;0.9930;
1281.9000;0.4355;0.9930;
1282.2000;0.4363;0.9907;
1282.5000;0.4363;0.9977;
1282.8000;0.4363;1.0024;
1283.1000;0.4387;1.0000;
1283.4000;0.4371;0.9860;
1283.7000;0.4339;0.9814;
1284.0000;0.4363;0.9884;
1284.3000;0.4347;0.9930;
1284.6000;0.4428;1.0024;
1284.9000;0.4363;0.9907;
1285.2000;0.4355;0.9954;
1285.5000;0.4371;1.0024;
1285.8000;0.4371;0.9907;
1286.1000;0.4387;0.9884;
1286.4000;0.4347;0.9907;
1286.7000;0.4379;0.9977;
1287.0000;0.4396;1.0047;
1287.3000;0.4363;0.9977;
1287.6000;0.4363;0.9930;
1287.9000;0.4371;0.9930;
1288.2000;0.4339;0.9884;
1288.5000;0.4347;0.9884;
1288.8000;0.4363;1.0000;
1289.1000;0.4355;1.0000;
1289.4000;0.4371;1.0094;
1289.7000;0.4339;1.0094;
1290.0000;0.4363;1.0117;
1290.3000;0.4355;1.0070;
1290.6000;0.4347;1.0070;
1290.9000;0.4355;1.0047;
1291.2000;0.4330;0.9884;
1291.5000;0.4371;0.9977;
1291.8000;0.4355;1.0047;
1292.1000;0.4355;1.0024;
1292.4000;0.4387;1.0070;
1292.7000;0.4355;1.0000;
1293.0000;0.4379;1.0070;
1293.3000;0.4379;1.0163;
1293.6000;0.4363;1.0163;
1293.9000;0.4355;1.0187;
1294.2000;0.4363;1.0233;
1294.5000;0.4379;1.0163;
1294.8000;0.4274;0.9930;
1295.1000;0.4371;1.0163;
1295.4000;0.4363;1.0280;
1295.7000;0.4371;1.0327;
1296.0000;0.4387;1.0303;
1296.3000;0.4453;1.0443;
1296.6000;0.4371;1.0257;
1296.9000;0.4379;1.0327;
1297.2000;0.4339;1.0257;
1297.5000;0.4355;1.0327;
1297.8000;0.4290;1.0070;
1298.1000;0.4298;1.0163;
1298.4000;0.4387;1.0280;
1298.7000;0.4379;1.0187;
1299.0000;0.4379;1.0163;
1299.3000;0.4396;1.0117;
1299.6000;0.4363;1.0070;
1299.9000;0.4355;1.0000;
1300.2000;0.4355;1.0047;
1300.5000;0.4371;1.0117;
1300.8000;0.4387;1.0187;
1301.1000;0.4363;1.0094;
1301.4000;0.4347;1.0024;
1301.7000;0.4363;1.0140;
1302.0000;0.4355;1.0303;
1302.3000;0.4379;1.0420;
1302.6000;0.4363;1.0373;
1302.9000;0.4412;1.0466;
1303.2000;0.4363;1.0233;
1303.5000;0.4371;1.0163;
1303.8000;0.4371;1.0140;
1304.1000;0.4379;1.0140;
1304.4000;0.4363;1.0140;
1304.7000;0.4363;1.0117;
1305.0000;0.4371;1.0117;
1305.3000;0.4355;1.0094;
1305.6000;0.4363;1.0140;
1305.9000;0.4355;1.0117;
1306.2000;0.4387;1.0163;
1306.5000;0.4371;1.0140;
1306.8000;0.4371;1.0257;
1307.1000;0.4330;1.0187;
1307.4000;0.4363;1.0373;
1307.7000;0.4363;1.0490;
1308.0000;0.4363;1.0536;
1308.3000;0.4363;1.0420;
1308.6000;0.4379;1.0373;
1308.9000;0.4387;1.0373;
1309.2000;0.4347;1.0257;
1309.5000;0.4363;1.0233;
1309.8000;0.4339;1.0187;
1310.1000;0.4363;1.0140;
1310.4000;0.4339;1.0070;
1310.7000;0.4322;1.0070;
1311.0000;0.4363;1.0140;
1311.3000;0.4347;1.0094;
1311.6000;0.4347;1.0070;
1311.9000;0.4363;1.0140;
1312.2000;0.4371;1.0210;
1312.5000;0.4355;1.0163;
1312.8000;0.4379;1.0163;
1313.1000;0.4339;1.0140;
1313.4000;0.4322;1.0094;
1313.7000;0.4363;1.0187;
1314.0000;0.4355;1.0257;
1314.3000;0.4363;1.0257;
1314.6000;0.4396;1.0350;
1314.9000;0.4355;1.0257;
1315.2000;0.4396;1.0373;
1315.5000;0.4379;1.0327;
1315.8000;0.4347;1.0327;
1316.1000;0.4379;1.0350;
1316.4000;0.4387;1.0187;
1316.7000;0.4355;1.0117;
1317.0000;0.4355;1.0187;
1317.3000;0.4355;1.0117;
1317.6000;0.4371;1.0210;
1317.9000;0.4347;1.0094;
1318.2000;0.4387;1.0117;
1318.5000;0.4387;1.0163;
1318.8000;0.4339;1.0233;
1319.1000;0.4339;1.0210;
1319.4000;0.4355;1.0187;
1319.7000;0.4363;1.0210;
1320.0000;0.4339;1.0303;
1320.3000;0.4347;1.0397;
1320.6000;0.4339;1.0397;
1320.9000;0.4387;1.0466;
1321.2000;0.4355;1.0350;
1321.5000;0.4371;1.0303;
1321.8000;0.4363;1.0280;
1322.1000;0.4355;1.0163;
1322.4000;0.4363;1.0280;
1322.7000;0.4379;1.0140;
1323.0000;0.4290;0.9907;
1323.3000;0.4371;1.0140;
1323.6000;0.4347;1.0094;
1323.9000;0.4387;1.0163;
1324.2000;0.4363;1.0094;
1324.5000;0.4347;1.0070;
1324.8000;0.4347;1.0117;
1325.1000;0.4355;1.0187;
1325.4000;0.4355;1.0257;
1325.7000;0.4347;1.0280;
1326.0000;0.4363;1.0350;
1326.3000;0.4396;1.0513;
1326.6000;0.4355;1.0490;
1326.9000;0.4371;1.0420;
1327.2000;0.4347;1.0373;
1327.5000;0.4330;1.0327;
1327.8000;0.4371;1.0327;
1328.1000;0.4371;1.0233;
1328.4000;0.4371;1.0163;
1328.7000;0.4371;1.0257;
1329.0000;0.4396;1.0257;
1329.3000;0.4371;1.0187;
1329.6000;0.4363;1.0210;
1329.9000;0.4371;1.0280;
1330.2000;0.4371;1.0257;
1330.5000;0.4453;1.0420;
1330.8000;0.4371;1.0303;
1331.1000;0.4404;1.0443;
1331.4000;0.4363;1.0233;
1331.7000;0.4371;1.0233;
1332.0000;0.4379;1.0187;
1332.3000;0.4379;1.0163;
1332.6000;0.4371;1.0210;
1332.9000;0.4379;1.0303;
1333.2000;0.4339;1.0210;
1333.5000;0.4371;1.0280;
1333.8000;0.4339;1.0233;
1334.1000;0.4306;1.0070;
1334.4000;0.4371;1.0187;
1334.7000;0.4347;1.0163;
1335.0000;0.4347;1.0140;
1335.3000;0.4371;1.0187;
1335.6000;0.4387;1.0187;
1335.9000;0.4339;1.0163;
1336.2000;0.4314;1.0140;
1336.5000;0.4347;1.0117;
1336.8000;0.4363;1.0140;
1337.1000;0.4355;1.0140;
1337.4000;0.4330;1.0024;
1337.7000;0.4355;1.0024;
1338.0000;0.4387;1.0140;
1338.3000;0.4363;1.0187;
1338.6000;0.4371;1.0303;
1338.9000;0.4363;1.0280;
1339.2000;0.4322;1.0233;
1339.5000;0.4371;1.0303;
1339.8000;0.4371;1.0257;
1340.1000;0.4355;1.0210;
1340.4000;0.4379;1.0233;
1340.7000;0.4363;1.0233;
1341.0000;0.4371;1.0233;
1341.3000;0.4371;1.0303;
1341.6000;0.4363;1.0303;
1341.9000;0.4355;1.0210;
1342.2000;0.4363;1.0210;
1342.5000;0.4387;1.0303;
1342.8000;0.4363;1.0210;
1343.1000;0.4355;1.0140;
1343.4000;0.4355;1.0117;
1343.7000;0.4355;1.0140;
1344.0000;0.4363;1.0187;
1344.3000;0.4371;1.0327;
1344.6000;0.4371;1.0233;
1344.9000;0.4371;1.0257;
1345.2000;0.4363;1.0257;
1345.5000;0.4371;1.0094;
1345.8000;0.4274;0.9884;
1346.1000;0.4355;1.0117;
1346.4000;0.4298;0.9907;
1346.7000;0.4363;1.0094;
1347.0000;0.4363;1.0117;
1347.3000;0.4347;1.0094;
1347.6000;0.4363;1.0187;
1347.9000;0.4363;1.0280;
1348.2000;0.4355;1.0303;
1348.5000;0.4339;1.0303;
1348.8000;0.4355;1.0350;
1349.1000;0.4347;1.0327;
1349.4000;0.4347;1.0350;
1349.7000;0.4363;1.0350;
1350.0000;0.4371;1.0280;
1350.3000;0.4371;1.0257;
1350.6000;0.4387;1.0420;
1350.9000;0.4363;1.0373;
1351.2000;0.4404;1.0490;
1351.5000;0.4355;1.0373;
1351.8000;0.4363;1.0257;
1352.1000;0.4330;1.0210;
1352.4000;0.4330;1.0094;
1352.7000;0.4355;1.0024;
1353.0000;0.4330;0.9977;
1353.3000;0.4363;1.0117;
1353.6000;0.4371;1.0070;
1353.9000;0.4379;1.0047;
1354.2000;0.4347;0.9930;
1354.5000;0.4363;1.0070;
1354.8000;0.4387;1.0094;
1355.1000;0.4290;0.9907;
1355.4000;0.4355;1.0047;
1355.7000;0.4363;1.0163;
1356.0000;0.4330;1.0094;
1356.3000;0.4371;1.0210;
1356.6000;0.4387;1.0257;
1356.9000;0.4290;1.0047;
1357.2000;0.4298;1.0070;
1357.5000;0.4347;1.0117;
1357.8000;0.4347;1.0094;
1358.1000;0.4363;1.0163;
1358.4000;0.4355;1.0094;
1358.7000;0.4371;1.0210;
1359.0000;0.4322;1.0163;
1359.3000;0.4339;1.0210;
1359.6000;0.4363;1.0210;
1359.9000;0.4355;1.0163;
1360.2000;0.4420;1.0257;
1360.5000;0.4404;1.0280;
1360.8000;0.4371;1.0187;
1361.1000;0.4355;1.0233;
1361.4000;0.4355;1.0280;
1361.7000;0.4347;1.0140;
1362.0000;0.4339;1.0070;
1362.3000;0.4363;1.0140;
1362.6000;0.4330;1.0070;
1362.9000;0.4355;1.0094;
1363.2000;0.4355;1.0140;
1363.5000;0.4347;1.0070;
1363.8000;0.4355;1.0070;
1364.1000;0.4363;1.0140;
1364.4000;0.4355;1.0140;
1364.7000;0.4396;1.0280;
1365.0000;0.4404;1.0280;
1365.3000;0.4363;1.0280;
1365.6000;0.4387;1.0163;
1365.9000;0.4371;1.0140;
1366.2000;0.4379;1.0187;
1366.5000;0.4355;1.0047;
1366.8000;0.4355;1.0047;
1367.1000;0.4347;1.0117;
1367.4000;0.4363;1.0210;
1367.7000;0.4477;1.0490;
1368.0000;0.4330;1.0140;
1368.3000;0.4330;1.0163;
1368.6000;0.4371;1.0257;
1368.9000;0.4322;1.0094;
1369.2000;0.4355;1.0094;
1369.5000;0.4363;1.0163;
1369.8000;0.4371;1.0163;
1370.1000;0.4379;1.0280;
1370.4000;0.4363;1.0233;
1370.7000;0.4404;1.0303;
1371.0000;0.4355;1.0210;
1371.3000;0.4387;1.0373;
1371.6000;0.4371;1.0327;
1371.9000;0.4363;1.0350;
1372.2000;0.4339;1.0210;
1372.5000;0.4387;1.0350;
1372.8000;0.4371;1.0327;
1373.1000;0.4363;1.0303;
1373.4000;0.4363;1.0257;
1373.7000;0.4298;1.0047;
1374.0000;0.4363;1.0280;
1374.3000;0.4355;1.0187;
1374.6000;0.4396;1.0280;
1374.9000;0.4371;1.0140;
1375.2000;0.4371;1.0117;
1375.5000;0.4355;1.0094;
1375.8000;0.4355;1.0140;
1376.1000;0.4355;1.0094;
1376.4000;0.4371;1.0187;
1376.7000;0.4322;1.0000;
1377.0000;0.4363;1.0070;
1377.3000;0.4363;1.0047;
1377.6000;0.4339;1.0000;
1377.9000;0.4363;1.0024;
1378.2000;0.4339;1.0000;
1378.5000;0.4347;1.0163;
1378.8000;0.4355;1.0303;
1379.1000;0.4347;1.0350;
1379.4000;0.4339;1.0257;
1379.7000;0.4363;1.0187;
1380.0000;0.4363;1.0257;
1380.3000;0.4379;1.0280;
1380.6000;0.4379;1.0350;
1380.9000;0.4371;1.0233;
1381.2000;0.4379;1.0257;
1381.5000;0.4363;1.0210;
1381.8000;0.4355;1.0257;
1382.1000;0.4347;1.0280;
1382.4000;0.4355;1.0280;
1382.7000;0.4355;1.0373;
1383.0000;0.4363;1.0443;
1383.3000;0.4339;1.0350;
1383.6000;0.4355;1.0373;
1383.9000;0.4371;1.0350;
1384.2000;0.4355;1.0233;
1384.5000;0.4355;1.0187;
1384.8000;0.4363;1.0257;
1385.1000;0.4371;1.0327;
1385.4000;0.4379;1.0303;
1385.7000;0.4371;1.0187;
1386.0000;0.4355;1.0233;
1386.3000;0.4379;1.0327;
1386.6000;0.4371;1.0280;
1386.9000;0.4363;1.0210;
1387.2000;0.4355;1.0140;
1387.5000;0.4363;1.0210;
1387.8000;0.4396;1.0327;
1388.1000;0.4371;1.0280;
1388.4000;0.4339;1.0257;
1388.7000;0.4339;1.0210;
1389.0000;0.4363;1.0187;
1389.3000;0.4363;1.0094;
1389.6000;0.4339;0.9977;
1389.9000;0.4355;1.0094;
1390.2000;0.4371;1.0187;
1390.5000;0.4306;1.0094;
1390.8000;0.4371;1.0280;
1391.1000;0.4355;1.0280;
1391.4000;0.4371;1.0303;
1391.7000;0.4355;1.0210;
1392.0000;0.4387;1.0163;
1392.3000;0.4363;1.0094;
1392.6000;0.4306;1.0047;
1392.9000;0.4420;1.0303;
1393.2000;0.4363;1.0163;
1393.5000;0.4355;1.0094;
1393.8000;0.4371;1.0094;
1394.1000;0.4379;1.0117;
1394.4000;0.4363;1.0187;
1394.7000;0.4347;1.0187;
1395.0000;0.4363;1.0210;
1395.3000;0.4387;1.0233;
1395.6000;0.4339;1.0094;
1395.9000;0.4363;1.0117;
1396.2000;0.4363;1.0187;
1396.5000;0.4347;1.0187;
1396.8000;0.4363;1.0187;
1397.1000;0.4371;1.0210;
1397.4000;0.4363;1.0187;
1397.7000;0.4314;1.0000;
1398.0000;0.4371;1.0094;
1398.3000;0.4363;1.0094;
1398.6000;0.4355;1.0047;
1398.9000;0.4355;1.0117;
1399.2000;0.4339;1.0140;
1399.5000;0.4371;1.0187;
1399.8000;0.4404;1.0257;
