time/ms;Fluo/V;P700 deltaI/I x10³;
-199.8000;0.6829;1.5711;
-199.5000;0.6854;1.5759;
-199.2000;0.6821;1.5687;
-198.9000;0.6805;1.5566;
-198.6000;0.6829;1.5638;
-198.3000;0.6781;1.5566;
-198.0000;0.6813;1.5638;
-197.7000;0.6838;1.5687;
-197.4000;0.6829;1.5662;
-197.1000;0.6829;1.5735;
-196.8000;0.6829;1.5711;
-196.5000;0.6854;1.5735;
-196.2000;0.6813;1.5662;
-195.9000;0.6829;1.5735;
-195.6000;0.6821;1.5662;
-195.3000;0.6854;1.5735;
-195.0000;0.6838;1.5759;
-194.7000;0.6846;1.5759;
-194.4000;0.6838;1.5807;
-194.1000;0.6846;1.5880;
-193.8000;0.6838;1.5856;
-193.5000;0.6829;1.5880;
-193.2000;0.6829;1.5856;
-192.9000;0.6854;1.5832;
-192.6000;0.6829;1.5759;
-192.3000;0.6846;1.5807;
-192.0000;0.6829;1.5880;
-191.7000;0.6838;1.5880;
-191.4000;0.6846;1.5856;
-191.1000;0.6846;1.5856;
-190.8000;0.6838;1.5807;
-190.5000;0.6829;1.5783;
-190.2000;0.6821;1.5735;
-189.9000;0.6846;1.5735;
-189.6000;0.6870;1.5759;
-189.3000;0.6829;1.5662;
-189.0000;0.6838;1.5711;
-188.7000;0.6838;1.5759;
-188.4000;0.6846;1.5807;
-188.1000;0.6838;1.5687;
-187.8000;0.6838;1.5614;
-187.5000;0.6838;1.5711;
-187.2000;0.6838;1.5614;
-186.9000;0.6821;1.5614;
-186.6000;0.6829;1.5662;
-186.3000;0.6862;1.5807;
-186.0000;0.6829;1.5687;
-185.7000;0.6821;1.5638;
-185.4000;0.6821;1.5542;
-185.1000;0.6829;1.5566;
-184.8000;0.6838;1.5687;
-184.5000;0.6829;1.5735;
-184.2000;0.6829;1.5687;
-183.9000;0.6829;1.5759;
-183.6000;0.6838;1.5711;
-183.3000;0.6829;1.5711;
-183.0000;0.6821;1.5687;
-182.7000;0.6838;1.5711;
-182.4000;0.6821;1.5711;
-182.1000;0.6821;1.5735;
-181.8000;0.6838;1.5807;
-181.5000;0.6829;1.5832;
-181.2000;0.6813;1.5662;
-180.9000;0.6829;1.5687;
-180.6000;0.6805;1.5614;
-180.3000;0.6821;1.5735;
-180.0000;0.6829;1.5735;
-179.7000;0.6829;1.5759;
-179.4000;0.6821;1.5638;
-179.1000;0.6821;1.5590;
-178.8000;0.6821;1.5517;
-178.5000;0.6829;1.5517;
-178.2000;0.6870;1.5638;
-177.9000;0.6838;1.5517;
-177.6000;0.6821;1.5469;
-177.3000;0.6838;1.5542;
-177.0000;0.6821;1.5517;
-176.7000;0.6813;1.5469;
-176.4000;0.6813;1.5517;
-176.1000;0.6797;1.5396;
-175.8000;0.6829;1.5469;
-175.5000;0.6838;1.5469;
-175.2000;0.6821;1.5493;
-174.9000;0.6829;1.5590;
-174.6000;0.6781;1.5517;
-174.3000;0.6838;1.5662;
-174.0000;0.6829;1.5687;
-173.7000;0.6821;1.5687;
-173.4000;0.6838;1.5856;
-173.1000;0.6829;1.5807;
-172.8000;0.6821;1.5783;
-172.5000;0.6829;1.5783;
-172.2000;0.6846;1.5832;
-171.9000;0.6821;1.5687;
-171.6000;0.6862;1.5783;
-171.3000;0.6862;1.5759;
-171.0000;0.6838;1.5662;
-170.7000;0.6870;1.5735;
-170.4000;0.6821;1.5614;
-170.1000;0.6838;1.5735;
-169.8000;0.6829;1.5735;
-169.5000;0.6821;1.5735;
-169.2000;0.6854;1.5880;
-168.9000;0.6829;1.5807;
-168.6000;0.6789;1.5735;
-168.3000;0.6854;1.5952;
-168.0000;0.6805;1.5807;
-167.7000;0.6805;1.5880;
-167.4000;0.6829;1.5880;
-167.1000;0.6862;1.5880;
-166.8000;0.6829;1.5711;
-166.5000;0.6813;1.5687;
-166.2000;0.6838;1.5783;
-165.9000;0.6854;1.5807;
-165.6000;0.6821;1.5783;
-165.3000;0.6829;1.5880;
-165.0000;0.6846;1.5904;
-164.7000;0.6805;1.5904;
-164.4000;0.6797;1.5856;
-164.1000;0.6829;1.5977;
-163.8000;0.6813;1.6025;
-163.5000;0.6838;1.5952;
-163.2000;0.6829;1.5977;
-162.9000;0.6854;1.6001;
-162.6000;0.6838;1.5952;
-162.3000;0.6838;1.6073;
-162.0000;0.6838;1.6025;
-161.7000;0.6829;1.6025;
-161.4000;0.6838;1.6001;
-161.1000;0.6821;1.5928;
-160.8000;0.6838;1.5977;
-160.5000;0.6821;1.5904;
-160.2000;0.6854;1.5928;
-159.9000;0.6821;1.5904;
-159.6000;0.6846;1.5856;
-159.3000;0.6838;1.5952;
-159.0000;0.6846;1.5952;
-158.7000;0.6781;1.5856;
-158.4000;0.6838;1.5904;
-158.1000;0.6838;1.5928;
-157.8000;0.6829;1.5880;
-157.5000;0.6813;1.5856;
-157.2000;0.6846;1.5952;
-156.9000;0.6829;1.5904;
-156.6000;0.6838;1.5952;
-156.3000;0.6854;1.6073;
-156.0000;0.6797;1.5904;
-155.7000;0.6829;1.5977;
-155.4000;0.6829;1.5928;
-155.1000;0.6829;1.5952;
-154.8000;0.6838;1.5952;
-154.5000;0.6797;1.5880;
-154.2000;0.6829;1.6001;
-153.9000;0.6821;1.6001;
-153.6000;0.6797;1.5928;
-153.3000;0.6838;1.5977;
-153.0000;0.6821;1.6001;
-152.7000;0.6821;1.6001;
-152.4000;0.6854;1.6170;
-152.1000;0.6838;1.6049;
-151.8000;0.6854;1.6049;
-151.5000;0.6829;1.5952;
-151.2000;0.6821;1.5928;
-150.9000;0.6838;1.6001;
-150.6000;0.6821;1.6049;
-150.3000;0.6829;1.6073;
-150.0000;0.6829;1.5977;
-149.7000;0.6797;1.5856;
-149.4000;0.6813;1.5952;
-149.1000;0.6846;1.5977;
-148.8000;0.6821;1.5856;
-148.5000;0.6829;1.5977;
-148.2000;0.6829;1.6049;
-147.9000;0.6846;1.6122;
-147.6000;0.6838;1.6146;
-147.3000;0.6829;1.6122;
-147.0000;0.6781;1.6049;
-146.7000;0.6838;1.6097;
-146.4000;0.6829;1.6097;
-146.1000;0.6829;1.6097;
-145.8000;0.6821;1.6122;
-145.5000;0.6838;1.6170;
-145.2000;0.6821;1.6242;
-144.9000;0.6829;1.6194;
-144.6000;0.6829;1.6194;
-144.3000;0.6846;1.6146;
-144.0000;0.6838;1.6097;
-143.7000;0.6805;1.6001;
-143.4000;0.6829;1.6049;
-143.1000;0.6829;1.6073;
-142.8000;0.6838;1.6025;
-142.5000;0.6821;1.5928;
-142.2000;0.6886;1.6122;
-141.9000;0.6854;1.6146;
-141.6000;0.6829;1.6122;
-141.3000;0.6838;1.6170;
-141.0000;0.6813;1.6170;
-140.7000;0.6829;1.6097;
-140.4000;0.6846;1.6170;
-140.1000;0.6838;1.6146;
-139.8000;0.6870;1.6218;
-139.5000;0.6813;1.6097;
-139.2000;0.6829;1.6194;
-138.9000;0.6846;1.6218;
-138.6000;0.6829;1.6122;
-138.3000;0.6862;1.6170;
-138.0000;0.6838;1.6194;
-137.7000;0.6838;1.6218;
-137.4000;0.6838;1.6242;
-137.1000;0.6846;1.6242;
-136.8000;0.6821;1.6218;
-136.5000;0.6821;1.6122;
-136.2000;0.6862;1.6146;
-135.9000;0.6813;1.5952;
-135.6000;0.6829;1.5952;
-135.3000;0.6846;1.5928;
-135.0000;0.6829;1.5807;
-134.7000;0.6813;1.5735;
-134.4000;0.6764;1.5566;
-134.1000;0.6789;1.5662;
-133.8000;0.6821;1.5783;
-133.5000;0.6862;1.5928;
-133.2000;0.6805;1.5832;
-132.9000;0.6838;1.5880;
-132.6000;0.6829;1.5880;
-132.3000;0.6813;1.5832;
-132.0000;0.6813;1.5832;
-131.7000;0.6846;1.5807;
-131.4000;0.6829;1.5783;
-131.1000;0.6821;1.5783;
-130.8000;0.6781;1.5687;
-130.5000;0.6838;1.5807;
-130.2000;0.6829;1.5832;
-129.9000;0.6829;1.5880;
-129.6000;0.6821;1.5807;
-129.3000;0.6805;1.5783;
-129.0000;0.6838;1.5880;
-128.7000;0.6829;1.5904;
-128.4000;0.6829;1.5856;
-128.1000;0.6821;1.5904;
-127.8000;0.6838;1.6001;
-127.5000;0.6846;1.6073;
-127.2000;0.6846;1.6049;
-126.9000;0.6838;1.5977;
-126.6000;0.6846;1.5904;
-126.3000;0.6821;1.5856;
-126.0000;0.6813;1.5807;
-125.7000;0.6862;1.5832;
-125.4000;0.6813;1.5711;
-125.1000;0.6829;1.5807;
-124.8000;0.6829;1.5904;
-124.5000;0.6813;1.5904;
-124.2000;0.6829;1.5904;
-123.9000;0.6862;1.6001;
-123.6000;0.6846;1.5952;
-123.3000;0.6846;1.5952;
-123.0000;0.6821;1.5880;
-122.7000;0.6821;1.5952;
-122.4000;0.6838;1.5952;
-122.1000;0.6821;1.5904;
-121.8000;0.6846;1.5952;
-121.5000;0.6829;1.5952;
-121.2000;0.6903;1.6122;
-120.9000;0.6854;1.6049;
-120.6000;0.6829;1.6025;
-120.3000;0.6829;1.6049;
-120.0000;0.6846;1.6025;
-119.7000;0.6838;1.6001;
-119.4000;0.6878;1.6122;
-119.1000;0.6805;1.5952;
-118.8000;0.6838;1.6073;
-118.5000;0.6829;1.6146;
-118.2000;0.6838;1.6291;
-117.9000;0.6821;1.6315;
-117.6000;0.6829;1.6412;
-117.3000;0.6846;1.6412;
-117.0000;0.6838;1.6291;
-116.7000;0.6838;1.6291;
-116.4000;0.6821;1.6170;
-116.1000;0.6854;1.6194;
-115.8000;0.6838;1.6146;
-115.5000;0.6829;1.6025;
-115.2000;0.6846;1.6146;
-114.9000;0.6838;1.6122;
-114.6000;0.6846;1.6122;
-114.3000;0.6797;1.6122;
-114.0000;0.6821;1.6170;
-113.7000;0.6829;1.6097;
-113.4000;0.6838;1.6073;
-113.1000;0.6829;1.6073;
-112.8000;0.6821;1.6025;
-112.5000;0.6813;1.6025;
-112.2000;0.6797;1.5928;
-111.9000;0.6838;1.6170;
-111.6000;0.6821;1.6073;
-111.3000;0.6821;1.6001;
-111.0000;0.6846;1.6049;
-110.7000;0.6829;1.6049;
-110.4000;0.6829;1.6001;
-110.1000;0.6829;1.5952;
-109.8000;0.6846;1.5928;
-109.5000;0.6821;1.5904;
-109.2000;0.6829;1.5880;
-108.9000;0.6821;1.5856;
-108.6000;0.6821;1.5856;
-108.3000;0.6821;1.5952;
-108.0000;0.6821;1.6001;
-107.7000;0.6821;1.5977;
-107.4000;0.6797;1.5928;
-107.1000;0.6838;1.6025;
-106.8000;0.6829;1.5928;
-106.5000;0.6838;1.6049;
-106.2000;0.6838;1.5977;
-105.9000;0.6829;1.6001;
-105.6000;0.6764;1.5856;
-105.3000;0.6829;1.6001;
-105.0000;0.6829;1.6073;
-104.7000;0.6789;1.5977;
-104.4000;0.6821;1.6025;
-104.1000;0.6813;1.5928;
-103.8000;0.6821;1.5880;
-103.5000;0.6829;1.5880;
-103.2000;0.6838;1.5928;
-102.9000;0.6854;1.5952;
-102.6000;0.6821;1.5928;
-102.3000;0.6846;1.6049;
-102.0000;0.6805;1.5952;
-101.7000;0.6886;1.6122;
-101.4000;0.6797;1.5904;
-101.1000;0.6838;1.6025;
-100.8000;0.6838;1.6073;
-100.5000;0.6821;1.6025;
-100.2000;0.6829;1.6073;
-99.9000;0.6813;1.6049;
-99.6000;0.6838;1.6073;
-99.3000;0.6829;1.6025;
-99.0000;0.6813;1.5977;
-98.7000;0.6813;1.6001;
-98.4000;0.6846;1.5977;
-98.1000;0.6805;1.5928;
-97.8000;0.6821;1.5904;
-97.5000;0.6813;1.5856;
-97.2000;0.6813;1.5856;
-96.9000;0.6829;1.5904;
-96.6000;0.6821;1.5832;
-96.3000;0.6838;1.5928;
-96.0000;0.6821;1.5880;
-95.7000;0.6846;1.5952;
-95.4000;0.6829;1.5880;
-95.1000;0.6829;1.5832;
-94.8000;0.6838;1.5735;
-94.5000;0.6829;1.5807;
-94.2000;0.6846;1.5904;
-93.9000;0.6838;1.5904;
-93.6000;0.6781;1.5832;
-93.3000;0.6838;1.6049;
-93.0000;0.6862;1.6025;
-92.7000;0.6846;1.6049;
-92.4000;0.6846;1.6097;
-92.1000;0.6846;1.6049;
-91.8000;0.6838;1.5952;
-91.5000;0.6821;1.5977;
-91.2000;0.6821;1.5977;
-90.9000;0.6821;1.5928;
-90.6000;0.6838;1.5928;
-90.3000;0.6846;1.6025;
-90.0000;0.6829;1.6025;
-89.7000;0.6838;1.6049;
-89.4000;0.6838;1.6025;
-89.1000;0.6838;1.6049;
-88.8000;0.6821;1.6025;
-88.5000;0.6805;1.6025;
-88.2000;0.6821;1.6001;
-87.9000;0.6829;1.6073;
-87.6000;0.6821;1.6049;
-87.3000;0.6829;1.6025;
-87.0000;0.6829;1.6049;
-86.7000;0.6829;1.6049;
-86.4000;0.6838;1.5977;
-86.1000;0.6805;1.5952;
-85.8000;0.6813;1.5904;
-85.5000;0.6870;1.6049;
-85.2000;0.6813;1.5928;
-84.9000;0.6805;1.5952;
-84.6000;0.6813;1.6001;
-84.3000;0.6813;1.6001;
-84.0000;0.6878;1.6146;
-83.7000;0.6756;1.5832;
-83.4000;0.6821;1.5904;
-83.1000;0.6821;1.5928;
-82.8000;0.6829;1.5952;
-82.5000;0.6821;1.5928;
-82.2000;0.6821;1.5977;
-81.9000;0.6821;1.6001;
-81.6000;0.6813;1.5952;
-81.3000;0.6838;1.6049;
-81.0000;0.6846;1.6073;
-80.7000;0.6829;1.5952;
-80.4000;0.6829;1.5977;
-80.1000;0.6829;1.5880;
-79.8000;0.6797;1.5832;
-79.5000;0.6862;1.5952;
-79.2000;0.6805;1.5759;
-78.9000;0.6838;1.5759;
-78.6000;0.6813;1.5783;
-78.3000;0.6829;1.5856;
-78.0000;0.6878;1.5977;
-77.7000;0.6829;1.5880;
-77.4000;0.6854;1.5783;
-77.1000;0.6805;1.5759;
-76.8000;0.6829;1.5807;
-76.5000;0.6838;1.5832;
-76.2000;0.6821;1.5880;
-75.9000;0.6821;1.5832;
-75.6000;0.6821;1.5880;
-75.3000;0.6829;1.5952;
-75.0000;0.6821;1.6025;
-74.7000;0.6821;1.6001;
-74.4000;0.6821;1.6049;
-74.1000;0.6846;1.6194;
-73.8000;0.6813;1.6049;
-73.5000;0.6821;1.6049;
-73.2000;0.6813;1.6170;
-72.9000;0.6821;1.6242;
-72.6000;0.6829;1.6170;
-72.3000;0.6829;1.6146;
-72.0000;0.6838;1.6146;
-71.7000;0.6838;1.6218;
-71.4000;0.6829;1.6122;
-71.1000;0.6829;1.6170;
-70.8000;0.6813;1.6122;
-70.5000;0.6805;1.6146;
-70.2000;0.6838;1.6097;
-69.9000;0.6862;1.6097;
-69.6000;0.6838;1.6097;
-69.3000;0.6813;1.6025;
-69.0000;0.6838;1.6049;
-68.7000;0.6829;1.6073;
-68.4000;0.6838;1.6049;
-68.1000;0.6813;1.6001;
-67.8000;0.6846;1.6025;
-67.5000;0.6846;1.6025;
-67.2000;0.6838;1.5928;
-66.9000;0.6838;1.5977;
-66.6000;0.6870;1.6025;
-66.3000;0.6805;1.5832;
-66.0000;0.6829;1.5856;
-65.7000;0.6846;1.5856;
-65.4000;0.6829;1.5856;
-65.1000;0.6846;1.5856;
-64.8000;0.6829;1.5880;
-64.5000;0.6838;1.5952;
-64.2000;0.6813;1.5952;
-63.9000;0.6821;1.5856;
-63.6000;0.6838;1.5928;
-63.3000;0.6878;1.6049;
-63.0000;0.6829;1.5807;
-62.7000;0.6854;1.5832;
-62.4000;0.6821;1.5807;
-62.1000;0.6813;1.5832;
-61.8000;0.6813;1.5880;
-61.5000;0.6813;1.5928;
-61.2000;0.6829;1.5904;
-60.9000;0.6813;1.5880;
-60.6000;0.6699;1.5566;
-60.3000;0.6829;1.5928;
-60.0000;0.6789;1.5977;
-59.7000;0.6797;1.6049;
-59.4000;0.6829;1.6025;
-59.1000;0.6813;1.5952;
-58.8000;0.6821;1.5952;
-58.5000;0.6813;1.5952;
-58.2000;0.6838;1.6001;
-57.9000;0.6797;1.6001;
-57.6000;0.6838;1.6073;
-57.3000;0.6821;1.6001;
-57.0000;0.6829;1.5952;
-56.7000;0.6821;1.5856;
-56.4000;0.6838;1.5904;
-56.1000;0.6846;1.5928;
-55.8000;0.6895;1.6049;
-55.5000;0.6821;1.5832;
-55.2000;0.6838;1.5880;
-54.9000;0.6838;1.5904;
-54.6000;0.6829;1.5856;
-54.3000;0.6829;1.5807;
-54.0000;0.6838;1.5856;
-53.7000;0.6829;1.5783;
-53.4000;0.6838;1.5880;
-53.1000;0.6805;1.5856;
-52.8000;0.6821;1.5880;
-52.5000;0.6829;1.5904;
-52.2000;0.6846;1.5952;
-51.9000;0.6838;1.5952;
-51.6000;0.6821;1.5928;
-51.3000;0.6821;1.5977;
-51.0000;0.6829;1.5977;
-50.7000;0.6870;1.6025;
-50.4000;0.6789;1.5880;
-50.1000;0.6821;1.6001;
-49.8000;0.6805;1.6001;
-49.5000;0.6821;1.6146;
-49.2000;0.6838;1.6146;
-48.9000;0.6821;1.6049;
-48.6000;0.6821;1.6073;
-48.3000;0.6813;1.6073;
-48.0000;0.6821;1.6073;
-47.7000;0.6805;1.6097;
-47.4000;0.6813;1.6073;
-47.1000;0.6838;1.6170;
-46.8000;0.6821;1.6097;
-46.5000;0.6829;1.6097;
-46.2000;0.6846;1.6001;
-45.9000;0.6829;1.5952;
-45.6000;0.6821;1.5904;
-45.3000;0.6846;1.6001;
-45.0000;0.6846;1.5952;
-44.7000;0.6829;1.5928;
-44.4000;0.6854;1.6025;
-44.1000;0.6829;1.5952;
-43.8000;0.6829;1.5928;
-43.5000;0.6838;1.5977;
-43.2000;0.6862;1.6049;
-42.9000;0.6838;1.6049;
-42.6000;0.6821;1.5928;
-42.3000;0.6838;1.5904;
-42.0000;0.6838;1.5880;
-41.7000;0.6846;1.5928;
-41.4000;0.6813;1.5880;
-41.1000;0.6821;1.5904;
-40.8000;0.6829;1.5856;
-40.5000;0.6821;1.5832;
-40.2000;0.6919;1.6097;
-39.9000;0.6813;1.5904;
-39.6000;0.6838;1.6001;
-39.3000;0.6854;1.6001;
-39.0000;0.6829;1.5952;
-38.7000;0.6772;1.5832;
-38.4000;0.6829;1.5977;
-38.1000;0.6829;1.5928;
-37.8000;0.6846;1.5904;
-37.5000;0.6829;1.5928;
-37.2000;0.6821;1.5856;
-36.9000;0.6838;1.5880;
-36.6000;0.6821;1.5904;
-36.3000;0.6813;1.5904;
-36.0000;0.6821;1.5856;
-35.7000;0.6829;1.5928;
-35.4000;0.6821;1.5977;
-35.1000;0.6829;1.6001;
-34.8000;0.6789;1.5856;
-34.5000;0.6821;1.5977;
-34.2000;0.6838;1.6073;
-33.9000;0.6829;1.6049;
-33.6000;0.6829;1.6025;
-33.3000;0.6829;1.6001;
-33.0000;0.6838;1.5928;
-32.7000;0.6772;1.5783;
-32.4000;0.6829;1.5928;
-32.1000;0.6838;1.5904;
-31.8000;0.6829;1.5928;
-31.5000;0.6829;1.5952;
-31.2000;0.6821;1.5928;
-30.9000;0.6838;1.5856;
-30.6000;0.6846;1.5856;
-30.3000;0.6829;1.5880;
-30.0000;0.6838;1.5880;
-29.7000;0.6813;1.5904;
-29.4000;0.6870;1.5977;
-29.1000;0.6829;1.5952;
-28.8000;0.6813;1.5928;
-28.5000;0.6838;1.5928;
-28.2000;0.6862;1.5952;
-27.9000;0.6829;1.5904;
-27.6000;0.6813;1.5904;
-27.3000;0.6838;1.5952;
-27.0000;0.6813;1.5928;
-26.7000;0.6829;1.5904;
-26.4000;0.6895;1.6218;
-26.1000;0.6829;1.6001;
-25.8000;0.6829;1.6146;
-25.5000;0.6838;1.6097;
-25.2000;0.6829;1.6049;
-24.9000;0.6829;1.6049;
-24.6000;0.6870;1.6146;
-24.3000;0.6846;1.6049;
-24.0000;0.6846;1.6122;
-23.7000;0.6838;1.6146;
-23.4000;0.6821;1.6073;
-23.1000;0.6821;1.6001;
-22.8000;0.6838;1.6025;
-22.5000;0.6838;1.6001;
-22.2000;0.6821;1.6049;
-21.9000;0.6829;1.5977;
-21.6000;0.6878;1.6073;
-21.3000;0.6829;1.5977;
-21.0000;0.6829;1.5977;
-20.7000;0.6813;1.6001;
-20.4000;0.6862;1.6122;
-20.1000;0.6821;1.6049;
-19.8000;0.6870;1.6097;
-19.5000;0.6764;1.5783;
-19.2000;0.6821;1.5952;
-18.9000;0.6838;1.6073;
-18.6000;0.6838;1.6122;
-18.3000;0.6838;1.6122;
-18.0000;0.6821;1.6097;
-17.7000;0.6838;1.6073;
-17.4000;0.6838;1.6146;
-17.1000;0.6805;1.6146;
-16.8000;0.6829;1.6146;
-16.5000;0.6821;1.6001;
-16.2000;0.6854;1.6001;
-15.9000;0.6813;1.5904;
-15.6000;0.6813;1.6025;
-15.3000;0.6829;1.6073;
-15.0000;0.6813;1.5952;
-14.7000;0.6886;1.6097;
-14.4000;0.6821;1.6025;
-14.1000;0.6821;1.6001;
-13.8000;0.6846;1.6097;
-13.5000;0.6838;1.6122;
-13.2000;0.6821;1.6073;
-12.9000;0.6838;1.6122;
-12.6000;0.6838;1.6073;
-12.3000;0.6838;1.5977;
-12.0000;0.6821;1.5904;
-11.7000;0.6821;1.5880;
-11.4000;0.6821;1.5856;
-11.1000;0.6821;1.5928;
-10.8000;0.6821;1.5928;
-10.5000;0.6829;1.5904;
-10.2000;0.6821;1.5904;
-9.9000;0.6838;1.5880;
-9.6000;0.6829;1.5880;
-9.3000;0.6829;1.5904;
-9.0000;0.6829;1.5904;
-8.7000;0.6846;1.5928;
-8.4000;0.6838;1.5832;
-8.1000;0.6838;1.5783;
-7.8000;0.6829;1.5856;
-7.5000;0.6821;1.5880;
-7.2000;0.6821;1.5928;
-6.9000;0.6805;1.6001;
-6.6000;0.6821;1.6001;
-6.3000;0.6813;1.5977;
-6.0000;0.6821;1.5928;
-5.7000;0.6821;1.5952;
-5.4000;0.6829;1.6025;
-5.1000;0.6862;1.6097;
-4.8000;0.6838;1.6049;
-4.5000;0.6846;1.6025;
-4.2000;0.6813;1.6001;
-3.9000;0.6838;1.6097;
-3.6000;0.6821;1.6097;
-3.3000;0.6838;1.6146;
-3.0000;0.6821;1.6025;
-2.7000;0.6846;1.6049;
-2.4000;0.6838;1.5977;
-2.1000;0.6829;1.5952;
-1.8000;0.6829;1.5952;
-1.5000;0.6821;1.5832;
-1.2000;0.6829;1.5832;
-0.9000;0.6829;1.5856;
-0.6000;0.6821;1.5880;
-0.3000;0.6838;1.5880;
0.0000;0.6838;1.5880;
0.3000;0.7171;1.5977;
0.6000;0.7806;1.6629;
0.9000;0.8303;1.7233;
1.2000;0.8710;1.7814;
1.5000;0.8978;1.8200;
1.8000;0.9231;1.8635;
2.1000;0.9418;1.8925;
2.4000;0.9605;1.9215;
2.7000;0.9719;1.9457;
3.0000;0.9833;1.9602;
3.3000;0.9906;1.9650;
3.6000;1.0028;1.9892;
3.9000;1.0069;1.9916;
4.2000;1.0142;2.0061;
4.5000;1.0199;1.9989;
4.8000;1.0265;2.0061;
5.1000;1.0281;1.9941;
5.4000;1.0411;2.0182;
5.7000;1.0452;2.0255;
6.0000;1.0492;2.0231;
6.3000;1.0566;2.0279;
6.6000;1.0615;2.0351;
6.9000;1.0663;2.0400;
7.2000;1.0688;2.0400;
7.5000;1.0753;2.0424;
7.8000;1.0810;2.0472;
8.1000;1.0826;2.0376;
8.4000;1.0867;2.0448;
8.7000;1.0916;2.0545;
9.0000;1.0965;2.0521;
9.3000;1.0989;2.0472;
9.6000;1.1054;2.0521;
9.9000;1.1087;2.0448;
10.2000;1.1144;2.0448;
10.5000;1.1111;2.0182;
10.8000;1.1225;2.0400;
11.1000;1.1225;2.0279;
11.4000;1.1282;2.0303;
11.7000;1.1355;2.0303;
12.0000;1.1388;2.0351;
12.3000;1.1396;2.0279;
12.6000;1.1453;2.0351;
12.9000;1.1510;2.0400;
13.2000;1.1543;2.0351;
13.5000;1.1559;2.0255;
13.8000;1.1575;2.0255;
14.1000;1.1608;2.0303;
14.4000;1.1640;2.0351;
14.7000;1.1656;2.0182;
15.0000;1.1738;2.0303;
15.3000;1.1730;2.0231;
15.6000;1.1754;2.0231;
15.9000;1.1770;2.0182;
16.2000;1.1803;2.0182;
16.5000;1.1836;2.0351;
16.8000;1.1893;2.0424;
17.1000;1.1876;2.0400;
17.4000;1.1884;2.0448;
17.7000;1.1868;2.0327;
18.0000;1.1917;2.0448;
18.3000;1.1958;2.0496;
18.6000;1.1974;2.0496;
18.9000;1.1998;2.0521;
19.2000;1.2015;2.0496;
19.5000;1.2047;2.0424;
19.8000;1.2047;2.0351;
20.1000;1.2063;2.0231;
20.4000;1.2080;2.0231;
20.7000;1.2104;2.0279;
21.0000;1.2137;2.0327;
21.3000;1.2129;2.0327;
21.6000;1.2137;2.0279;
21.9000;1.2186;2.0424;
22.2000;1.2202;2.0351;
22.5000;1.2210;2.0351;
22.8000;1.2226;2.0327;
23.1000;1.2243;2.0303;
23.4000;1.2251;2.0303;
23.7000;1.2259;2.0279;
24.0000;1.2283;2.0255;
24.3000;1.2308;2.0327;
24.6000;1.2324;2.0327;
24.9000;1.2332;2.0231;
25.2000;1.2348;2.0206;
25.5000;1.2348;2.0231;
25.8000;1.2430;2.0376;
26.1000;1.2462;2.0400;
26.4000;1.2397;2.0231;
26.7000;1.2430;2.0303;
27.0000;1.2438;2.0303;
27.3000;1.2438;2.0279;
27.6000;1.2438;2.0231;
27.9000;1.2405;2.0134;
28.2000;1.2454;2.0206;
28.5000;1.2446;2.0134;
28.8000;1.2397;2.0013;
29.1000;1.2470;2.0206;
29.4000;1.2503;2.0279;
29.7000;1.2479;2.0182;
30.0000;1.2503;2.0182;
30.3000;1.2511;2.0134;
30.6000;1.2527;2.0182;
30.9000;1.2552;2.0279;
31.2000;1.2479;2.0110;
31.5000;1.2568;2.0255;
31.8000;1.2544;2.0158;
32.1000;1.2519;2.0061;
32.4000;1.2568;2.0110;
32.7000;1.2568;2.0134;
33.0000;1.2601;2.0231;
33.3000;1.2576;2.0182;
33.6000;1.2576;2.0110;
33.9000;1.2584;2.0037;
34.2000;1.2601;2.0013;
34.5000;1.2584;2.0086;
34.8000;1.2601;2.0158;
35.1000;1.2609;2.0206;
35.4000;1.2609;2.0206;
35.7000;1.2633;2.0182;
36.0000;1.2666;2.0182;
36.3000;1.2650;2.0158;
36.6000;1.2650;2.0206;
36.9000;1.2658;2.0255;
37.2000;1.2674;2.0182;
37.5000;1.2674;2.0158;
37.8000;1.2674;2.0110;
38.1000;1.2682;2.0134;
38.4000;1.2666;2.0158;
38.7000;1.2690;2.0158;
39.0000;1.2682;2.0134;
39.3000;1.2658;2.0158;
39.6000;1.2682;2.0303;
39.9000;1.2707;2.0424;
40.2000;1.2682;2.0376;
40.5000;1.2707;2.0496;
40.8000;1.2698;2.0400;
41.1000;1.2764;2.0496;
41.4000;1.2698;2.0255;
41.7000;1.2633;2.0110;
42.0000;1.2739;2.0351;
42.3000;1.2731;2.0231;
42.6000;1.2723;2.0303;
42.9000;1.2715;2.0376;
43.2000;1.2715;2.0351;
43.5000;1.2739;2.0376;
43.8000;1.2723;2.0351;
44.1000;1.2723;2.0255;
44.4000;1.2731;2.0279;
44.7000;1.2731;2.0231;
45.0000;1.2739;2.0231;
45.3000;1.2747;2.0231;
45.6000;1.2739;2.0231;
45.9000;1.2747;2.0231;
46.2000;1.2764;2.0255;
46.5000;1.2755;2.0255;
46.8000;1.2764;2.0255;
47.1000;1.2755;2.0255;
47.4000;1.2780;2.0255;
47.7000;1.2772;2.0255;
48.0000;1.2796;2.0206;
48.3000;1.2780;2.0110;
48.6000;1.2788;2.0110;
48.9000;1.2772;2.0061;
49.2000;1.2780;2.0134;
49.5000;1.2788;2.0158;
49.8000;1.2788;2.0158;
50.1000;1.2772;2.0134;
50.4000;1.2772;2.0206;
50.7000;1.2780;2.0206;
51.0000;1.2804;2.0255;
51.3000;1.2821;2.0206;
51.6000;1.2796;2.0158;
51.9000;1.2747;2.0061;
52.2000;1.2796;2.0231;
52.5000;1.2837;2.0303;
52.8000;1.2796;2.0206;
53.1000;1.2821;2.0158;
53.4000;1.2804;2.0134;
53.7000;1.2812;2.0158;
54.0000;1.2918;2.0303;
54.3000;1.2796;2.0061;
54.6000;1.2812;2.0110;
54.9000;1.2796;2.0061;
55.2000;1.2812;2.0110;
55.5000;1.2869;2.0206;
55.8000;1.2821;2.0061;
56.1000;1.2812;2.0013;
56.4000;1.2837;2.0061;
56.7000;1.2829;2.0061;
57.0000;1.2788;1.9989;
57.3000;1.2796;1.9941;
57.6000;1.2837;2.0037;
57.9000;1.2853;2.0110;
58.2000;1.2837;2.0110;
58.5000;1.2837;2.0061;
58.8000;1.2837;2.0013;
59.1000;1.2853;2.0013;
59.4000;1.2845;1.9965;
59.7000;1.2837;1.9941;
60.0000;1.2853;1.9989;
60.3000;1.2869;2.0061;
60.6000;1.2829;1.9965;
60.9000;1.2861;2.0013;
61.2000;1.2861;2.0037;
61.5000;1.2861;2.0061;
61.8000;1.2861;2.0086;
62.1000;1.2861;2.0086;
62.4000;1.2869;2.0134;
62.7000;1.2967;2.0376;
63.0000;1.2877;2.0182;
63.3000;1.2861;2.0134;
63.6000;1.2869;2.0086;
63.9000;1.2877;2.0110;
64.2000;1.2877;2.0110;
64.5000;1.2861;2.0086;
64.8000;1.2877;2.0086;
65.1000;1.2877;2.0037;
65.4000;1.2869;1.9989;
65.7000;1.2886;2.0037;
66.0000;1.2861;1.9941;
66.3000;1.2886;1.9941;
66.6000;1.2877;1.9820;
66.9000;1.2886;1.9820;
67.2000;1.2861;1.9675;
67.5000;1.2869;1.9675;
67.8000;1.2886;1.9675;
68.1000;1.2877;1.9626;
68.4000;1.2869;1.9602;
68.7000;1.2869;1.9578;
69.0000;1.2886;1.9699;
69.3000;1.2926;1.9699;
69.6000;1.2910;1.9699;
69.9000;1.2910;1.9650;
70.2000;1.2926;1.9820;
70.5000;1.2877;1.9747;
70.8000;1.2902;1.9699;
71.1000;1.2902;1.9771;
71.4000;1.2886;1.9771;
71.7000;1.2902;1.9771;
72.0000;1.2894;1.9844;
72.3000;1.2894;1.9844;
72.6000;1.2869;1.9820;
72.9000;1.2894;1.9892;
73.2000;1.2918;1.9941;
73.5000;1.2902;1.9892;
73.8000;1.2902;1.9795;
74.1000;1.2910;1.9723;
74.4000;1.2943;1.9844;
74.7000;1.2902;1.9795;
75.0000;1.2910;1.9747;
75.3000;1.2910;1.9747;
75.6000;1.2967;1.9941;
75.9000;1.2877;1.9675;
76.2000;1.2910;1.9820;
76.5000;1.2910;1.9820;
76.8000;1.2918;1.9844;
77.1000;1.2910;1.9795;
77.4000;1.2861;1.9723;
77.7000;1.2918;1.9820;
78.0000;1.2902;1.9892;
78.3000;1.2943;2.0013;
78.6000;1.2926;1.9989;
78.9000;1.2902;2.0013;
79.2000;1.2918;2.0013;
79.5000;1.2918;1.9916;
79.8000;1.2837;1.9699;
80.1000;1.2910;1.9795;
80.4000;1.2918;1.9844;
80.7000;1.2918;1.9892;
81.0000;1.2926;1.9892;
81.3000;1.2902;1.9820;
81.6000;1.2926;1.9844;
81.9000;1.2886;1.9626;
82.2000;1.2894;1.9650;
82.5000;1.2926;1.9771;
82.8000;1.2926;1.9723;
83.1000;1.2943;1.9723;
83.4000;1.2934;1.9747;
83.7000;1.2943;1.9820;
84.0000;1.2926;1.9747;
84.3000;1.2934;1.9771;
84.6000;1.2951;1.9795;
84.9000;1.2943;1.9820;
85.2000;1.2934;1.9747;
85.5000;1.2934;1.9771;
85.8000;1.2959;1.9795;
86.1000;1.2951;1.9795;
86.4000;1.2934;1.9675;
86.7000;1.2910;1.9650;
87.0000;1.2943;1.9602;
87.3000;1.2951;1.9650;
87.6000;1.2902;1.9505;
87.9000;1.2926;1.9554;
88.2000;1.2910;1.9481;
88.5000;1.2951;1.9602;
88.8000;1.2886;1.9481;
89.1000;1.2918;1.9578;
89.4000;1.2934;1.9650;
89.7000;1.2934;1.9699;
90.0000;1.2943;1.9723;
90.3000;1.2934;1.9675;
90.6000;1.2934;1.9578;
90.9000;1.2943;1.9554;
91.2000;1.2943;1.9530;
91.5000;1.2926;1.9481;
91.8000;1.2943;1.9578;
92.1000;1.2951;1.9626;
92.4000;1.2967;1.9675;
92.7000;1.2951;1.9626;
93.0000;1.2959;1.9650;
93.3000;1.2959;1.9820;
93.6000;1.2959;1.9795;
93.9000;1.2951;1.9868;
94.2000;1.2959;1.9868;
94.5000;1.3000;1.9916;
94.8000;1.2959;1.9795;
95.1000;1.2967;1.9795;
95.4000;1.3000;1.9868;
95.7000;1.2951;1.9820;
96.0000;1.2926;1.9723;
96.3000;1.2967;1.9795;
96.6000;1.2959;1.9844;
96.9000;1.2951;1.9771;
97.2000;1.2975;1.9820;
97.5000;1.2967;1.9892;
97.8000;1.2991;1.9965;
98.1000;1.2943;1.9916;
98.4000;1.2991;1.9941;
98.7000;1.2877;1.9602;
99.0000;1.2967;1.9699;
99.3000;1.2967;1.9650;
99.6000;1.2975;1.9650;
99.9000;1.2975;1.9699;
100.2000;1.2943;1.9626;
100.5000;1.2959;1.9675;
100.8000;1.2967;1.9844;
101.1000;1.2967;1.9771;
101.4000;1.2975;1.9699;
101.7000;1.2959;1.9578;
102.0000;1.2951;1.9602;
102.3000;1.2943;1.9505;
102.6000;1.2967;1.9650;
102.9000;1.2975;1.9650;
103.2000;1.2975;1.9747;
103.5000;1.2967;1.9699;
103.8000;1.2975;1.9723;
104.1000;1.2959;1.9602;
104.4000;1.2951;1.9505;
104.7000;1.2967;1.9626;
105.0000;1.2959;1.9578;
105.3000;1.2967;1.9650;
105.6000;1.2959;1.9626;
105.9000;1.2975;1.9602;
106.2000;1.2967;1.9626;
106.5000;1.2959;1.9699;
106.8000;1.2959;1.9650;
107.1000;1.2975;1.9602;
107.4000;1.2967;1.9578;
107.7000;1.2951;1.9505;
108.0000;1.2975;1.9554;
108.3000;1.2959;1.9530;
108.6000;1.2975;1.9481;
108.9000;1.2975;1.9505;
109.2000;1.2983;1.9481;
109.5000;1.2983;1.9409;
109.8000;1.2991;1.9409;
110.1000;1.3032;1.9530;
110.4000;1.2959;1.9385;
110.7000;1.2975;1.9385;
111.0000;1.2983;1.9433;
111.3000;1.3000;1.9481;
111.6000;1.2967;1.9433;
111.9000;1.2959;1.9360;
112.2000;1.2975;1.9409;
112.5000;1.2967;1.9457;
112.8000;1.2975;1.9457;
113.1000;1.2959;1.9481;
113.4000;1.2983;1.9554;
113.7000;1.2983;1.9626;
114.0000;1.2975;1.9626;
114.3000;1.2991;1.9554;
114.6000;1.2967;1.9554;
114.9000;1.2967;1.9578;
115.2000;1.2975;1.9554;
115.5000;1.2975;1.9481;
115.8000;1.2967;1.9457;
116.1000;1.2959;1.9481;
116.4000;1.2991;1.9554;
116.7000;1.2967;1.9409;
117.0000;1.2975;1.9433;
117.3000;1.2934;1.9360;
117.6000;1.2991;1.9457;
117.9000;1.2991;1.9481;
118.2000;1.2975;1.9457;
118.5000;1.2943;1.9457;
118.8000;1.2983;1.9505;
119.1000;1.3000;1.9505;
119.4000;1.3016;1.9457;
119.7000;1.2975;1.9360;
120.0000;1.3008;1.9385;
120.3000;1.2991;1.9360;
120.6000;1.2959;1.9336;
120.9000;1.2991;1.9433;
121.2000;1.2967;1.9385;
121.5000;1.2975;1.9433;
121.8000;1.2991;1.9360;
122.1000;1.2983;1.9360;
122.4000;1.2991;1.9409;
122.7000;1.2943;1.9336;
123.0000;1.2983;1.9385;
123.3000;1.2967;1.9385;
123.6000;1.2967;1.9409;
123.9000;1.3008;1.9433;
124.2000;1.2991;1.9264;
124.5000;1.2983;1.9264;
124.8000;1.2983;1.9312;
125.1000;1.2967;1.9240;
125.4000;1.2991;1.9240;
125.7000;1.2983;1.9360;
126.0000;1.3000;1.9288;
126.3000;1.3032;1.9336;
126.6000;1.2991;1.9288;
126.9000;1.2991;1.9288;
127.2000;1.2959;1.9167;
127.5000;1.2975;1.9288;
127.8000;1.2975;1.9240;
128.1000;1.2975;1.9264;
128.4000;1.2983;1.9215;
128.7000;1.2975;1.9191;
129.0000;1.2991;1.9240;
129.3000;1.2991;1.9264;
129.6000;1.2991;1.9215;
129.9000;1.3000;1.9288;
130.2000;1.3000;1.9433;
130.5000;1.3016;1.9433;
130.8000;1.3008;1.9505;
131.1000;1.3000;1.9457;
131.4000;1.3000;1.9457;
131.7000;1.2991;1.9505;
132.0000;1.2991;1.9457;
132.3000;1.2983;1.9505;
132.6000;1.2991;1.9505;
132.9000;1.2991;1.9554;
133.2000;1.2983;1.9505;
133.5000;1.2975;1.9409;
133.8000;1.2975;1.9385;
134.1000;1.2991;1.9457;
134.4000;1.2975;1.9433;
134.7000;1.2951;1.9312;
135.0000;1.2951;1.9215;
135.3000;1.3000;1.9312;
135.6000;1.2967;1.9167;
135.9000;1.3040;1.9240;
136.2000;1.3000;1.9119;
136.5000;1.2991;1.9095;
136.8000;1.3000;1.9095;
137.1000;1.2959;1.9046;
137.4000;1.3000;1.9046;
137.7000;1.2967;1.8950;
138.0000;1.3048;1.9167;
138.3000;1.2975;1.8998;
138.6000;1.2991;1.9070;
138.9000;1.2983;1.9070;
139.2000;1.2983;1.9119;
139.5000;1.2991;1.9167;
139.8000;1.2991;1.9288;
140.1000;1.2967;1.9336;
140.4000;1.2983;1.9385;
140.7000;1.2975;1.9409;
141.0000;1.2991;1.9433;
141.3000;1.2991;1.9385;
141.6000;1.3000;1.9288;
141.9000;1.3000;1.9385;
142.2000;1.2959;1.9240;
142.5000;1.2975;1.9240;
142.8000;1.2975;1.9312;
143.1000;1.3008;1.9409;
143.4000;1.2991;1.9360;
143.7000;1.2991;1.9385;
144.0000;1.2967;1.9312;
144.3000;1.2975;1.9288;
144.6000;1.2991;1.9457;
144.9000;1.3008;1.9530;
145.2000;1.3000;1.9505;
145.5000;1.2983;1.9360;
145.8000;1.2991;1.9409;
146.1000;1.2983;1.9433;
146.4000;1.3065;1.9650;
146.7000;1.2983;1.9433;
147.0000;1.2991;1.9409;
147.3000;1.2951;1.9336;
147.6000;1.2983;1.9481;
147.9000;1.2926;1.9360;
148.2000;1.2983;1.9457;
148.5000;1.2975;1.9481;
148.8000;1.2959;1.9530;
149.1000;1.2983;1.9650;
149.4000;1.2967;1.9554;
149.7000;1.3000;1.9650;
150.0000;1.2975;1.9650;
150.3000;1.3057;1.9820;
150.6000;1.3016;1.9650;
150.9000;1.3000;1.9650;
151.2000;1.2991;1.9578;
151.5000;1.2991;1.9457;
151.8000;1.2991;1.9409;
152.1000;1.3000;1.9385;
152.4000;1.3024;1.9457;
152.7000;1.3016;1.9433;
153.0000;1.3008;1.9457;
153.3000;1.3016;1.9530;
153.6000;1.3000;1.9530;
153.9000;1.3008;1.9530;
154.2000;1.2983;1.9481;
154.5000;1.2991;1.9505;
154.8000;1.3024;1.9578;
155.1000;1.3008;1.9602;
155.4000;1.3000;1.9578;
155.7000;1.3016;1.9578;
156.0000;1.3000;1.9554;
156.3000;1.3000;1.9481;
156.6000;1.3000;1.9409;
156.9000;1.2991;1.9360;
157.2000;1.2991;1.9240;
157.5000;1.3000;1.9312;
157.8000;1.2991;1.9215;
158.1000;1.2975;1.9215;
158.4000;1.2991;1.9336;
158.7000;1.3073;1.9578;
159.0000;1.2991;1.9457;
159.3000;1.2975;1.9385;
159.6000;1.2991;1.9409;
159.9000;1.3000;1.9554;
160.2000;1.2983;1.9505;
160.5000;1.2991;1.9433;
160.8000;1.3008;1.9457;
161.1000;1.2991;1.9457;
161.4000;1.3008;1.9409;
161.7000;1.3000;1.9433;
162.0000;1.2991;1.9433;
162.3000;1.2991;1.9505;
162.6000;1.3016;1.9530;
162.9000;1.3000;1.9554;
163.2000;1.2951;1.9505;
163.5000;1.3000;1.9602;
163.8000;1.2991;1.9530;
164.1000;1.2959;1.9457;
164.4000;1.2983;1.9505;
164.7000;1.2991;1.9481;
165.0000;1.3008;1.9602;
165.3000;1.2951;1.9457;
165.6000;1.2991;1.9530;
165.9000;1.3048;1.9650;
166.2000;1.3008;1.9433;
166.5000;1.3016;1.9433;
166.8000;1.2991;1.9385;
167.1000;1.2991;1.9433;
167.4000;1.3016;1.9530;
167.7000;1.3008;1.9530;
168.0000;1.3008;1.9530;
168.3000;1.3008;1.9457;
168.6000;1.3008;1.9457;
168.9000;1.3016;1.9481;
169.2000;1.3024;1.9602;
169.5000;1.2991;1.9602;
169.8000;1.3000;1.9554;
170.1000;1.3016;1.9530;
170.4000;1.3000;1.9481;
170.7000;1.2975;1.9433;
171.0000;1.3008;1.9530;
171.3000;1.2991;1.9554;
171.6000;1.2991;1.9505;
171.9000;1.2951;1.9457;
172.2000;1.3000;1.9554;
172.5000;1.2975;1.9554;
172.8000;1.3000;1.9650;
173.1000;1.2983;1.9699;
173.4000;1.2983;1.9747;
173.7000;1.2991;1.9844;
174.0000;1.2983;1.9771;
174.3000;1.3000;1.9795;
174.6000;1.2991;1.9747;
174.9000;1.3000;1.9723;
175.2000;1.3000;1.9675;
175.5000;1.3000;1.9699;
175.8000;1.2983;1.9650;
176.1000;1.2991;1.9578;
176.4000;1.3016;1.9578;
176.7000;1.3000;1.9578;
177.0000;1.3008;1.9554;
177.3000;1.3016;1.9505;
177.6000;1.3024;1.9530;
177.9000;1.3016;1.9530;
178.2000;1.2975;1.9457;
178.5000;1.2991;1.9554;
178.8000;1.3008;1.9602;
179.1000;1.2959;1.9578;
179.4000;1.3000;1.9578;
179.7000;1.2983;1.9530;
180.0000;1.3008;1.9554;
180.3000;1.3008;1.9602;
180.6000;1.3008;1.9650;
180.9000;1.3008;1.9626;
181.2000;1.3032;1.9626;
181.5000;1.3016;1.9675;
181.8000;1.3016;1.9771;
182.1000;1.2991;1.9771;
182.4000;1.3008;1.9747;
182.7000;1.3000;1.9747;
183.0000;1.3000;1.9650;
183.3000;1.3008;1.9602;
183.6000;1.2991;1.9602;
183.9000;1.3024;1.9675;
184.2000;1.3016;1.9578;
184.5000;1.2991;1.9530;
184.8000;1.2991;1.9505;
185.1000;1.2951;1.9385;
185.4000;1.3008;1.9530;
185.7000;1.3016;1.9602;
186.0000;1.3008;1.9602;
186.3000;1.3016;1.9626;
186.6000;1.3032;1.9602;
186.9000;1.3032;1.9578;
187.2000;1.3032;1.9578;
187.5000;1.3000;1.9530;
187.8000;1.3008;1.9554;
188.1000;1.3016;1.9554;
188.4000;1.3000;1.9505;
188.7000;1.2991;1.9481;
189.0000;1.2991;1.9409;
189.3000;1.3008;1.9409;
189.6000;1.3000;1.9433;
189.9000;1.2983;1.9505;
190.2000;1.2943;1.9433;
190.5000;1.2991;1.9554;
190.8000;1.3016;1.9578;
191.1000;1.3008;1.9530;
191.4000;1.2926;1.9312;
191.7000;1.3016;1.9530;
192.0000;1.3008;1.9530;
192.3000;1.3008;1.9457;
192.6000;1.3008;1.9481;
192.9000;1.2991;1.9385;
193.2000;1.3008;1.9433;
193.5000;1.3000;1.9409;
193.8000;1.2991;1.9385;
194.1000;1.3016;1.9433;
194.4000;1.2983;1.9505;
194.7000;1.3000;1.9578;
195.0000;1.3008;1.9675;
195.3000;1.3000;1.9602;
195.6000;1.2991;1.9554;
195.9000;1.3016;1.9530;
196.2000;1.3008;1.9578;
196.5000;1.3016;1.9602;
196.8000;1.3008;1.9554;
197.1000;1.3024;1.9457;
197.4000;1.3008;1.9481;
197.7000;1.3008;1.9602;
198.0000;1.3016;1.9602;
198.3000;1.3000;1.9505;
198.6000;1.3008;1.9433;
198.9000;1.3000;1.9433;
199.2000;1.3000;1.9481;
199.5000;1.3000;1.9505;
199.8000;1.2991;1.9481;
200.1000;1.3000;1.9554;
200.4000;1.3008;1.9530;
200.7000;1.3008;1.9530;
201.0000;1.3008;1.9505;
201.3000;1.3016;1.9481;
201.6000;1.3032;1.9530;
201.9000;1.3032;1.9433;
202.2000;1.3032;1.9457;
202.5000;1.3016;1.9385;
202.8000;1.3000;1.9312;
203.1000;1.3016;1.9481;
203.4000;1.3000;1.9385;
203.7000;1.3008;1.9385;
204.0000;1.2991;1.9433;
204.3000;1.3032;1.9530;
204.6000;1.3000;1.9554;
204.9000;1.3008;1.9554;
205.2000;1.3000;1.9578;
205.5000;1.3000;1.9578;
205.8000;1.3008;1.9650;
206.1000;1.3008;1.9602;
206.4000;1.3000;1.9602;
206.7000;1.3032;1.9675;
207.0000;1.3016;1.9602;
207.3000;1.3000;1.9505;
207.6000;1.3008;1.9530;
207.9000;1.2983;1.9505;
208.2000;1.2967;1.9578;
208.5000;1.3000;1.9675;
208.8000;1.2983;1.9578;
209.1000;1.2983;1.9481;
209.4000;1.3008;1.9602;
209.7000;1.3008;1.9578;
210.0000;1.2991;1.9530;
210.3000;1.2991;1.9554;
210.6000;1.3008;1.9578;
210.9000;1.3000;1.9602;
211.2000;1.3008;1.9675;
211.5000;1.2967;1.9626;
211.8000;1.3016;1.9650;
212.1000;1.3008;1.9723;
212.4000;1.3008;1.9675;
212.7000;1.3000;1.9626;
213.0000;1.3016;1.9626;
213.3000;1.3016;1.9554;
213.6000;1.3024;1.9530;
213.9000;1.3024;1.9675;
214.2000;1.3016;1.9650;
214.5000;1.2967;1.9530;
214.8000;1.2991;1.9626;
215.1000;1.3000;1.9578;
215.4000;1.3008;1.9602;
215.7000;1.2975;1.9554;
216.0000;1.3008;1.9699;
216.3000;1.3008;1.9723;
216.6000;1.3000;1.9747;
216.9000;1.3008;1.9795;
217.2000;1.3016;1.9723;
217.5000;1.3040;1.9747;
217.8000;1.3008;1.9699;
218.1000;1.3008;1.9650;
218.4000;1.3024;1.9723;
218.7000;1.3016;1.9675;
219.0000;1.3000;1.9602;
219.3000;1.3032;1.9675;
219.6000;1.3000;1.9578;
219.9000;1.3008;1.9650;
220.2000;1.3024;1.9699;
220.5000;1.3008;1.9699;
220.8000;1.3016;1.9699;
221.1000;1.2951;1.9650;
221.4000;1.2983;1.9699;
221.7000;1.3016;1.9578;
222.0000;1.3016;1.9505;
222.3000;1.3040;1.9481;
222.6000;1.3016;1.9433;
222.9000;1.3016;1.9409;
223.2000;1.3016;1.9312;
223.5000;1.3024;1.9360;
223.8000;1.3000;1.9336;
224.1000;1.3024;1.9360;
224.4000;1.3008;1.9360;
224.7000;1.3008;1.9360;
225.0000;1.3032;1.9385;
225.3000;1.3008;1.9360;
225.6000;1.3008;1.9336;
225.9000;1.3016;1.9385;
226.2000;1.3024;1.9481;
226.5000;1.3024;1.9530;
226.8000;1.3024;1.9505;
227.1000;1.2975;1.9457;
227.4000;1.3016;1.9530;
227.7000;1.3024;1.9602;
228.0000;1.3008;1.9650;
228.3000;1.3032;1.9699;
228.6000;1.3000;1.9554;
228.9000;1.3016;1.9626;
229.2000;1.3008;1.9675;
229.5000;1.3008;1.9578;
229.8000;1.3008;1.9602;
230.1000;1.3016;1.9723;
230.4000;1.2983;1.9650;
230.7000;1.2991;1.9650;
231.0000;1.2991;1.9650;
231.3000;1.2991;1.9699;
231.6000;1.3000;1.9650;
231.9000;1.3000;1.9626;
232.2000;1.2991;1.9554;
232.5000;1.2991;1.9481;
232.8000;1.3008;1.9554;
233.1000;1.3000;1.9554;
233.4000;1.3000;1.9602;
233.7000;1.3008;1.9602;
234.0000;1.3008;1.9578;
234.3000;1.3016;1.9530;
234.6000;1.3024;1.9554;
234.9000;1.3008;1.9481;
235.2000;1.3016;1.9457;
235.5000;1.3016;1.9481;
235.8000;1.3008;1.9457;
236.1000;1.3000;1.9481;
236.4000;1.3032;1.9602;
236.7000;1.3016;1.9530;
237.0000;1.3008;1.9530;
237.3000;1.3000;1.9433;
237.6000;1.3024;1.9457;
237.9000;1.2991;1.9409;
238.2000;1.3032;1.9481;
238.5000;1.3016;1.9457;
238.8000;1.3008;1.9530;
239.1000;1.2991;1.9336;
239.4000;1.3000;1.9264;
239.7000;1.3073;1.9457;
240.0000;1.3016;1.9481;
240.3000;1.3024;1.9626;
240.6000;1.3008;1.9650;
240.9000;1.3032;1.9723;
241.2000;1.3000;1.9602;
241.5000;1.3008;1.9675;
241.8000;1.3000;1.9675;
242.1000;1.3016;1.9747;
242.4000;1.3040;1.9844;
242.7000;1.3008;1.9747;
243.0000;1.2967;1.9675;
243.3000;1.3000;1.9626;
243.6000;1.2991;1.9626;
243.9000;1.2983;1.9554;
244.2000;1.3008;1.9626;
244.5000;1.3024;1.9602;
244.8000;1.3000;1.9481;
245.1000;1.3000;1.9457;
245.4000;1.3016;1.9530;
245.7000;1.3000;1.9433;
246.0000;1.2983;1.9385;
246.3000;1.3008;1.9360;
246.6000;1.3008;1.9360;
246.9000;1.3016;1.9385;
247.2000;1.3008;1.9385;
247.5000;1.3000;1.9312;
247.8000;1.3016;1.9385;
248.1000;1.2967;1.9288;
248.4000;1.3008;1.9433;
248.7000;1.3024;1.9530;
249.0000;1.3016;1.9433;
249.3000;1.3008;1.9385;
249.6000;1.3016;1.9433;
249.9000;1.3008;1.9530;
250.2000;1.3008;1.9578;
250.5000;1.3008;1.9675;
250.8000;1.2975;1.9505;
251.1000;1.3073;1.9723;
251.4000;1.2983;1.9530;
251.7000;1.3000;1.9481;
252.0000;1.3024;1.9530;
252.3000;1.3000;1.9409;
252.6000;1.2934;1.9143;
252.9000;1.3008;1.9288;
253.2000;1.2991;1.9264;
253.5000;1.3008;1.9312;
253.8000;1.3024;1.9385;
254.1000;1.3008;1.9457;
254.4000;1.2991;1.9481;
254.7000;1.3008;1.9554;
255.0000;1.3000;1.9530;
255.3000;1.3008;1.9602;
255.6000;1.3000;1.9578;
255.9000;1.3008;1.9554;
256.2000;1.2991;1.9530;
256.5000;1.3008;1.9530;
256.8000;1.3024;1.9554;
257.1000;1.3008;1.9530;
257.4000;1.3000;1.9457;
257.7000;1.3000;1.9530;
258.0000;1.3008;1.9530;
258.3000;1.3024;1.9554;
258.6000;1.3008;1.9505;
258.9000;1.3008;1.9554;
259.2000;1.2959;1.9457;
259.5000;1.3024;1.9578;
259.8000;1.3016;1.9578;
260.1000;1.3000;1.9505;
260.4000;1.2975;1.9505;
260.7000;1.2967;1.9481;
261.0000;1.3000;1.9578;
261.3000;1.2991;1.9626;
261.6000;1.3000;1.9650;
261.9000;1.2991;1.9626;
262.2000;1.2967;1.9554;
262.5000;1.2983;1.9626;
262.8000;1.2991;1.9650;
263.1000;1.3016;1.9626;
263.4000;1.3032;1.9723;
263.7000;1.3000;1.9602;
264.0000;1.2975;1.9578;
264.3000;1.3016;1.9723;
264.6000;1.3024;1.9699;
264.9000;1.3065;1.9820;
265.2000;1.3089;1.9820;
265.5000;1.3008;1.9650;
265.8000;1.3024;1.9699;
266.1000;1.3000;1.9626;
266.4000;1.3000;1.9626;
266.7000;1.3000;1.9626;
267.0000;1.3000;1.9675;
267.3000;1.3016;1.9747;
267.6000;1.3000;1.9626;
267.9000;1.3008;1.9626;
268.2000;1.3008;1.9626;
268.5000;1.3008;1.9650;
268.8000;1.3024;1.9675;
269.1000;1.3024;1.9699;
269.4000;1.3016;1.9650;
269.7000;1.3016;1.9626;
270.0000;1.3089;1.9747;
270.3000;1.3008;1.9602;
270.6000;1.3000;1.9554;
270.9000;1.3000;1.9481;
271.2000;1.3048;1.9626;
271.5000;1.3008;1.9602;
271.8000;1.3016;1.9505;
272.1000;1.2967;1.9336;
272.4000;1.3016;1.9433;
272.7000;1.3008;1.9433;
273.0000;1.3000;1.9505;
273.3000;1.2991;1.9578;
273.6000;1.3008;1.9602;
273.9000;1.3008;1.9481;
274.2000;1.3000;1.9554;
274.5000;1.3008;1.9675;
274.8000;1.2951;1.9602;
275.1000;1.3016;1.9747;
275.4000;1.3016;1.9675;
275.7000;1.3016;1.9602;
276.0000;1.3008;1.9554;
276.3000;1.3016;1.9481;
276.6000;1.3008;1.9481;
276.9000;1.2983;1.9433;
277.2000;1.3000;1.9457;
277.5000;1.3000;1.9433;
277.8000;1.3000;1.9409;
278.1000;1.3000;1.9385;
278.4000;1.3000;1.9385;
278.7000;1.3024;1.9360;
279.0000;1.2991;1.9336;
279.3000;1.3008;1.9457;
279.6000;1.3008;1.9457;
279.9000;1.3016;1.9554;
280.2000;1.2983;1.9457;
280.5000;1.3008;1.9505;
280.8000;1.3000;1.9457;
281.1000;1.2943;1.9288;
281.4000;1.2983;1.9409;
281.7000;1.3000;1.9433;
282.0000;1.3008;1.9409;
282.3000;1.2991;1.9336;
282.6000;1.2991;1.9360;
282.9000;1.3008;1.9385;
283.2000;1.2983;1.9360;
283.5000;1.3000;1.9481;
283.8000;1.3016;1.9505;
284.1000;1.3000;1.9481;
284.4000;1.3000;1.9481;
284.7000;1.3024;1.9530;
285.0000;1.3057;1.9554;
285.3000;1.3000;1.9481;
285.6000;1.3000;1.9505;
285.9000;1.3000;1.9481;
286.2000;1.3032;1.9578;
286.5000;1.3000;1.9505;
286.8000;1.3000;1.9530;
287.1000;1.2991;1.9481;
287.4000;1.2991;1.9409;
287.7000;1.3000;1.9385;
288.0000;1.3008;1.9481;
288.3000;1.3000;1.9433;
288.6000;1.3000;1.9360;
288.9000;1.3008;1.9360;
289.2000;1.3000;1.9336;
289.5000;1.3000;1.9360;
289.8000;1.3016;1.9481;
290.1000;1.3024;1.9481;
290.4000;1.3016;1.9505;
290.7000;1.3000;1.9457;
291.0000;1.3000;1.9433;
291.3000;1.3016;1.9505;
291.6000;1.3024;1.9554;
291.9000;1.3000;1.9457;
292.2000;1.2991;1.9409;
292.5000;1.3000;1.9457;
292.8000;1.3016;1.9530;
293.1000;1.3008;1.9481;
293.4000;1.3008;1.9530;
293.7000;1.2983;1.9602;
294.0000;1.3008;1.9650;
294.3000;1.3024;1.9602;
294.6000;1.2967;1.9602;
294.9000;1.3000;1.9626;
295.2000;1.2983;1.9578;
295.5000;1.3008;1.9626;
295.8000;1.2983;1.9602;
296.1000;1.2991;1.9602;
296.4000;1.3008;1.9578;
296.7000;1.3016;1.9530;
297.0000;1.3008;1.9433;
297.3000;1.3000;1.9336;
297.6000;1.3000;1.9288;
297.9000;1.2991;1.9240;
298.2000;1.3008;1.9264;
298.5000;1.2991;1.9288;
298.8000;1.3008;1.9264;
299.1000;1.2991;1.9215;
299.4000;1.3000;1.9215;
299.7000;1.3000;1.9312;
300.0000;1.2991;1.9385;
300.3000;1.2983;1.9433;
300.6000;1.3008;1.9530;
300.9000;1.2983;1.9481;
301.2000;1.2991;1.9505;
301.5000;1.3008;1.9505;
301.8000;1.3008;1.9530;
302.1000;1.2983;1.9481;
302.4000;1.2991;1.9505;
302.7000;1.2983;1.9505;
303.0000;1.2991;1.9530;
303.3000;1.3000;1.9505;
303.6000;1.2991;1.9457;
303.9000;1.3008;1.9481;
304.2000;1.3008;1.9554;
304.5000;1.3016;1.9481;
304.8000;1.3000;1.9530;
305.1000;1.3000;1.9457;
305.4000;1.3081;1.9650;
305.7000;1.3016;1.9433;
306.0000;1.3008;1.9505;
306.3000;1.2991;1.9481;
306.6000;1.2991;1.9409;
306.9000;1.2975;1.9336;
307.2000;1.2983;1.9360;
307.5000;1.2983;1.9433;
307.8000;1.2975;1.9409;
308.1000;1.2991;1.9409;
308.4000;1.2991;1.9409;
308.7000;1.2983;1.9336;
309.0000;1.3000;1.9409;
309.3000;1.3000;1.9457;
309.6000;1.3008;1.9481;
309.9000;1.3008;1.9385;
310.2000;1.3048;1.9530;
310.5000;1.3016;1.9457;
310.8000;1.3032;1.9554;
311.1000;1.3000;1.9481;
311.4000;1.2991;1.9481;
311.7000;1.3008;1.9409;
312.0000;1.3000;1.9409;
312.3000;1.3008;1.9409;
312.6000;1.3000;1.9433;
312.9000;1.2975;1.9505;
313.2000;1.2991;1.9554;
313.5000;1.2991;1.9554;
313.8000;1.2983;1.9554;
314.1000;1.3008;1.9578;
314.4000;1.3024;1.9602;
314.7000;1.3008;1.9602;
315.0000;1.3000;1.9554;
315.3000;1.2975;1.9578;
315.6000;1.2991;1.9650;
315.9000;1.2967;1.9602;
316.2000;1.3000;1.9578;
316.5000;1.2991;1.9554;
316.8000;1.3008;1.9650;
317.1000;1.2959;1.9457;
317.4000;1.3000;1.9505;
317.7000;1.2991;1.9505;
318.0000;1.2967;1.9578;
318.3000;1.3000;1.9530;
318.6000;1.2991;1.9578;
318.9000;1.3016;1.9675;
319.2000;1.3008;1.9602;
319.5000;1.2991;1.9602;
319.8000;1.3000;1.9626;
320.1000;1.3008;1.9675;
320.4000;1.3008;1.9747;
320.7000;1.3016;1.9723;
321.0000;1.3008;1.9771;
321.3000;1.3016;1.9892;
321.6000;1.3032;1.9941;
321.9000;1.3008;1.9868;
322.2000;1.3016;1.9916;
322.5000;1.3000;1.9916;
322.8000;1.2951;1.9820;
323.1000;1.2991;1.9892;
323.4000;1.2983;1.9916;
323.7000;1.2991;1.9868;
324.0000;1.3000;1.9771;
324.3000;1.2991;1.9602;
324.6000;1.2975;1.9554;
324.9000;1.3000;1.9675;
325.2000;1.3000;1.9675;
325.5000;1.3000;1.9578;
325.8000;1.3000;1.9578;
326.1000;1.2959;1.9481;
326.4000;1.3000;1.9554;
326.7000;1.2975;1.9602;
327.0000;1.2975;1.9554;
327.3000;1.3008;1.9578;
327.6000;1.3000;1.9675;
327.9000;1.3008;1.9626;
328.2000;1.3000;1.9626;
328.5000;1.3008;1.9578;
328.8000;1.3016;1.9626;
329.1000;1.3000;1.9650;
329.4000;1.2991;1.9602;
329.7000;1.3000;1.9699;
330.0000;1.2991;1.9771;
330.3000;1.3000;1.9771;
330.6000;1.3008;1.9844;
330.9000;1.3032;1.9820;
331.2000;1.3032;1.9820;
331.5000;1.3000;1.9795;
331.8000;1.3040;1.9820;
332.1000;1.2991;1.9578;
332.4000;1.3008;1.9626;
332.7000;1.2991;1.9554;
333.0000;1.2983;1.9457;
333.3000;1.2975;1.9457;
333.6000;1.2991;1.9626;
333.9000;1.3016;1.9747;
334.2000;1.3016;1.9747;
334.5000;1.3000;1.9747;
334.8000;1.3008;1.9626;
335.1000;1.2991;1.9530;
335.4000;1.3000;1.9505;
335.7000;1.3000;1.9457;
336.0000;1.3000;1.9578;
336.3000;1.3008;1.9505;
336.6000;1.3000;1.9481;
336.9000;1.2926;1.9360;
337.2000;1.3008;1.9530;
337.5000;1.3000;1.9626;
337.8000;1.2959;1.9578;
338.1000;1.3008;1.9747;
338.4000;1.3032;1.9844;
338.7000;1.2983;1.9699;
339.0000;1.3008;1.9771;
339.3000;1.2991;1.9723;
339.6000;1.3000;1.9699;
339.9000;1.3008;1.9650;
340.2000;1.3008;1.9747;
340.5000;1.3016;1.9747;
340.8000;1.3000;1.9820;
341.1000;1.2983;1.9771;
341.4000;1.3016;1.9820;
341.7000;1.3016;1.9771;
342.0000;1.2991;1.9699;
342.3000;1.3000;1.9771;
342.6000;1.3016;1.9747;
342.9000;1.3016;1.9795;
343.2000;1.3000;1.9844;
343.5000;1.2991;1.9820;
343.8000;1.2975;1.9723;
344.1000;1.3008;1.9795;
344.4000;1.2991;1.9771;
344.7000;1.2967;1.9747;
345.0000;1.3008;1.9771;
345.3000;1.3000;1.9626;
345.6000;1.3000;1.9650;
345.9000;1.2991;1.9675;
346.2000;1.2991;1.9650;
346.5000;1.3000;1.9626;
346.8000;1.3000;1.9626;
347.1000;1.3000;1.9650;
347.4000;1.2983;1.9602;
347.7000;1.3016;1.9626;
348.0000;1.3000;1.9699;
348.3000;1.2983;1.9723;
348.6000;1.2983;1.9771;
348.9000;1.3000;1.9795;
349.2000;1.3032;1.9868;
349.5000;1.2991;1.9723;
349.8000;1.2975;1.9723;
350.1000;1.3000;1.9675;
350.4000;1.3008;1.9675;
350.7000;1.2991;1.9675;
351.0000;1.2991;1.9699;
351.3000;1.2951;1.9530;
351.6000;1.2967;1.9578;
351.9000;1.2991;1.9626;
352.2000;1.2926;1.9409;
352.5000;1.2991;1.9578;
352.8000;1.3008;1.9675;
353.1000;1.2991;1.9602;
353.4000;1.2983;1.9505;
353.7000;1.2991;1.9505;
354.0000;1.3000;1.9481;
354.3000;1.3040;1.9554;
354.6000;1.3000;1.9457;
354.9000;1.3024;1.9554;
355.2000;1.3016;1.9433;
355.5000;1.3016;1.9409;
355.8000;1.3024;1.9433;
356.1000;1.3008;1.9433;
356.4000;1.3032;1.9481;
356.7000;1.2983;1.9433;
357.0000;1.2975;1.9530;
357.3000;1.2991;1.9530;
357.6000;1.2991;1.9481;
357.9000;1.3016;1.9530;
358.2000;1.2991;1.9457;
358.5000;1.3008;1.9409;
358.8000;1.2983;1.9385;
359.1000;1.3008;1.9457;
359.4000;1.2983;1.9433;
359.7000;1.3008;1.9505;
360.0000;1.2975;1.9433;
360.3000;1.2975;1.9505;
360.6000;1.3008;1.9578;
360.9000;1.2975;1.9505;
361.2000;1.3000;1.9457;
361.5000;1.2975;1.9457;
361.8000;1.2983;1.9457;
362.1000;1.2943;1.9385;
362.4000;1.2983;1.9457;
362.7000;1.2991;1.9481;
363.0000;1.3000;1.9409;
363.3000;1.3016;1.9385;
363.6000;1.3016;1.9385;
363.9000;1.2983;1.9312;
364.2000;1.2991;1.9385;
364.5000;1.3008;1.9385;
364.8000;1.2975;1.9312;
365.1000;1.3057;1.9457;
365.4000;1.3008;1.9409;
365.7000;1.2991;1.9433;
366.0000;1.2991;1.9433;
366.3000;1.3000;1.9385;
366.6000;1.3000;1.9385;
366.9000;1.3016;1.9481;
367.2000;1.3008;1.9433;
367.5000;1.2991;1.9433;
367.8000;1.3008;1.9554;
368.1000;1.3032;1.9602;
368.4000;1.3032;1.9626;
368.7000;1.3008;1.9699;
369.0000;1.2959;1.9554;
369.3000;1.3008;1.9650;
369.6000;1.2991;1.9699;
369.9000;1.3008;1.9699;
370.2000;1.3016;1.9675;
370.5000;1.3016;1.9626;
370.8000;1.3024;1.9675;
371.1000;1.2991;1.9699;
371.4000;1.2967;1.9699;
371.7000;1.3000;1.9771;
372.0000;1.3016;1.9795;
372.3000;1.3000;1.9723;
372.6000;1.3000;1.9675;
372.9000;1.3000;1.9650;
373.2000;1.2943;1.9602;
373.5000;1.3008;1.9747;
373.8000;1.3000;1.9723;
374.1000;1.2983;1.9675;
374.4000;1.2991;1.9650;
374.7000;1.2983;1.9675;
375.0000;1.2991;1.9747;
375.3000;1.3016;1.9699;
375.6000;1.2983;1.9626;
375.9000;1.3008;1.9626;
376.2000;1.2991;1.9602;
376.5000;1.3008;1.9650;
376.8000;1.2991;1.9554;
377.1000;1.3032;1.9650;
377.4000;1.3016;1.9650;
377.7000;1.2983;1.9505;
378.0000;1.3032;1.9650;
378.3000;1.3016;1.9650;
378.6000;1.3024;1.9554;
378.9000;1.3008;1.9602;
379.2000;1.2983;1.9650;
379.5000;1.2991;1.9699;
379.8000;1.3000;1.9626;
380.1000;1.2926;1.9554;
380.4000;1.3000;1.9795;
380.7000;1.2975;1.9650;
381.0000;1.2991;1.9602;
381.3000;1.3048;1.9747;
381.6000;1.3008;1.9626;
381.9000;1.3008;1.9578;
382.2000;1.2967;1.9530;
382.5000;1.3008;1.9771;
382.8000;1.2991;1.9820;
383.1000;1.2983;1.9820;
383.4000;1.2991;1.9868;
383.7000;1.3008;1.9868;
384.0000;1.2991;1.9820;
384.3000;1.2991;1.9771;
384.6000;1.2991;1.9747;
384.9000;1.3008;1.9795;
385.2000;1.3000;1.9820;
385.5000;1.2975;1.9820;
385.8000;1.2991;1.9795;
386.1000;1.2983;1.9771;
386.4000;1.2991;1.9723;
386.7000;1.2991;1.9747;
387.0000;1.3016;1.9771;
387.3000;1.3000;1.9844;
387.6000;1.2991;1.9892;
387.9000;1.3000;1.9965;
388.2000;1.2983;1.9965;
388.5000;1.3008;1.9868;
388.8000;1.3008;1.9916;
389.1000;1.3000;1.9916;
389.4000;1.2991;1.9844;
389.7000;1.3000;1.9868;
390.0000;1.2991;1.9868;
390.3000;1.3008;1.9844;
390.6000;1.2991;1.9868;
390.9000;1.2951;1.9844;
391.2000;1.2991;1.9892;
391.5000;1.3000;1.9892;
391.8000;1.3032;1.9916;
392.1000;1.3008;1.9771;
392.4000;1.2991;1.9747;
392.7000;1.2991;1.9675;
393.0000;1.2943;1.9650;
393.3000;1.2991;1.9747;
393.6000;1.3008;1.9868;
393.9000;1.3008;1.9941;
394.2000;1.3000;1.9989;
394.5000;1.2983;1.9916;
394.8000;1.3000;1.9941;
395.1000;1.3024;1.9916;
395.4000;1.3008;1.9941;
395.7000;1.3000;1.9941;
396.0000;1.3000;1.9892;
396.3000;1.2967;1.9844;
396.6000;1.3008;1.9844;
396.9000;1.3000;1.9844;
397.2000;1.2967;1.9699;
397.5000;1.2975;1.9675;
397.8000;1.3008;1.9723;
398.1000;1.3016;1.9747;
398.4000;1.3000;1.9747;
398.7000;1.3024;1.9820;
399.0000;1.3000;1.9723;
399.3000;1.2991;1.9747;
399.6000;1.2975;1.9626;
399.9000;1.2991;1.9795;
400.2000;1.3000;1.9747;
400.5000;1.3057;1.9916;
400.8000;1.2983;1.9771;
401.1000;1.2983;1.9699;
401.4000;1.3008;1.9675;
401.7000;1.2983;1.9650;
402.0000;1.2975;1.9626;
402.3000;1.2975;1.9578;
402.6000;1.2983;1.9578;
402.9000;1.2991;1.9602;
403.2000;1.2983;1.9602;
403.5000;1.2983;1.9578;
403.8000;1.2959;1.9505;
404.1000;1.3008;1.9578;
404.4000;1.3008;1.9578;
404.7000;1.2983;1.9554;
405.0000;1.2983;1.9650;
405.3000;1.2991;1.9675;
405.6000;1.2991;1.9626;
405.9000;1.2983;1.9578;
406.2000;1.2975;1.9554;
406.5000;1.2959;1.9481;
406.8000;1.2991;1.9578;
407.1000;1.2991;1.9675;
407.4000;1.2983;1.9699;
407.7000;1.3000;1.9747;
408.0000;1.2991;1.9747;
408.3000;1.2983;1.9675;
408.6000;1.2991;1.9747;
408.9000;1.2991;1.9675;
409.2000;1.3048;1.9795;
409.5000;1.3000;1.9626;
409.8000;1.2991;1.9747;
410.1000;1.3008;1.9820;
410.4000;1.3024;1.9820;
410.7000;1.3000;1.9820;
411.0000;1.3000;1.9795;
411.3000;1.3032;1.9795;
411.6000;1.3000;1.9795;
411.9000;1.3024;1.9820;
412.2000;1.3016;1.9795;
412.5000;1.3000;1.9795;
412.8000;1.3032;1.9820;
413.1000;1.3008;1.9723;
413.4000;1.2991;1.9723;
413.7000;1.3000;1.9747;
414.0000;1.3016;1.9820;
414.3000;1.3008;1.9771;
414.6000;1.3000;1.9723;
414.9000;1.2991;1.9675;
415.2000;1.2967;1.9650;
415.5000;1.3008;1.9771;
415.8000;1.2983;1.9795;
416.1000;1.2991;1.9795;
416.4000;1.2991;1.9699;
416.7000;1.3000;1.9723;
417.0000;1.3000;1.9771;
417.3000;1.2975;1.9747;
417.6000;1.2983;1.9699;
417.9000;1.3016;1.9771;
418.2000;1.2983;1.9747;
418.5000;1.2983;1.9699;
418.8000;1.2991;1.9675;
419.1000;1.3000;1.9699;
419.4000;1.2951;1.9602;
419.7000;1.3000;1.9771;
420.0000;1.3008;1.9820;
420.3000;1.3008;1.9795;
420.6000;1.3000;1.9675;
420.9000;1.3000;1.9675;
421.2000;1.2983;1.9747;
421.5000;1.2959;1.9747;
421.8000;1.2975;1.9771;
422.1000;1.2967;1.9699;
422.4000;1.3008;1.9795;
422.7000;1.2991;1.9747;
423.0000;1.2991;1.9747;
423.3000;1.3000;1.9771;
423.6000;1.2991;1.9650;
423.9000;1.2975;1.9554;
424.2000;1.2967;1.9505;
424.5000;1.3000;1.9650;
424.8000;1.2991;1.9675;
425.1000;1.2959;1.9578;
425.4000;1.2991;1.9626;
425.7000;1.2943;1.9433;
426.0000;1.2983;1.9578;
426.3000;1.2975;1.9602;
426.6000;1.2983;1.9650;
426.9000;1.2991;1.9602;
427.2000;1.2983;1.9578;
427.5000;1.2991;1.9578;
427.8000;1.3057;1.9771;
428.1000;1.2991;1.9626;
428.4000;1.3000;1.9675;
428.7000;1.2991;1.9650;
429.0000;1.2991;1.9578;
429.3000;1.2991;1.9626;
429.6000;1.2991;1.9626;
429.9000;1.2991;1.9650;
430.2000;1.2991;1.9699;
430.5000;1.2951;1.9626;
430.8000;1.2991;1.9626;
431.1000;1.3024;1.9723;
431.4000;1.2991;1.9675;
431.7000;1.2991;1.9650;
432.0000;1.2991;1.9578;
432.3000;1.2983;1.9481;
432.6000;1.2983;1.9457;
432.9000;1.2983;1.9481;
433.2000;1.2991;1.9530;
433.5000;1.2983;1.9554;
433.8000;1.3000;1.9554;
434.1000;1.2983;1.9578;
434.4000;1.3016;1.9650;
434.7000;1.2983;1.9626;
435.0000;1.2975;1.9650;
435.3000;1.2983;1.9699;
435.6000;1.2975;1.9699;
435.9000;1.2975;1.9723;
436.2000;1.2991;1.9844;
436.5000;1.2991;1.9844;
436.8000;1.2983;1.9795;
437.1000;1.2991;1.9795;
437.4000;1.2991;1.9795;
437.7000;1.2983;1.9820;
438.0000;1.2959;1.9747;
438.3000;1.2983;1.9844;
438.6000;1.2975;1.9747;
438.9000;1.3000;1.9771;
439.2000;1.2991;1.9699;
439.5000;1.3016;1.9675;
439.8000;1.3000;1.9675;
440.1000;1.3000;1.9699;
440.4000;1.2991;1.9650;
440.7000;1.3000;1.9578;
441.0000;1.3008;1.9626;
441.3000;1.3008;1.9771;
441.6000;1.2975;1.9675;
441.9000;1.3000;1.9650;
442.2000;1.2983;1.9626;
442.5000;1.3000;1.9699;
442.8000;1.2991;1.9723;
443.1000;1.2991;1.9795;
443.4000;1.2983;1.9795;
443.7000;1.2983;1.9844;
444.0000;1.2983;1.9844;
444.3000;1.2991;1.9820;
444.6000;1.2983;1.9892;
444.9000;1.2991;1.9941;
445.2000;1.2991;1.9941;
445.5000;1.2991;1.9892;
445.8000;1.3008;1.9868;
446.1000;1.3040;1.9965;
446.4000;1.2983;1.9844;
446.7000;1.2967;1.9747;
447.0000;1.2975;1.9747;
447.3000;1.3000;1.9747;
447.6000;1.3000;1.9723;
447.9000;1.2991;1.9747;
448.2000;1.2983;1.9723;
448.5000;1.2975;1.9675;
448.8000;1.3000;1.9650;
449.1000;1.2983;1.9675;
449.4000;1.2983;1.9650;
449.7000;1.3065;1.9820;
450.0000;1.2991;1.9650;
450.3000;1.2991;1.9626;
450.6000;1.3000;1.9578;
450.9000;1.3016;1.9578;
451.2000;1.2991;1.9578;
451.5000;1.3040;1.9675;
451.8000;1.3016;1.9675;
452.1000;1.3000;1.9626;
452.4000;1.2983;1.9650;
452.7000;1.2991;1.9699;
453.0000;1.2983;1.9578;
453.3000;1.2959;1.9481;
453.6000;1.3000;1.9505;
453.9000;1.3008;1.9505;
454.2000;1.3000;1.9554;
454.5000;1.2951;1.9505;
454.8000;1.2991;1.9578;
455.1000;1.3000;1.9602;
455.4000;1.3040;1.9650;
455.7000;1.2983;1.9457;
456.0000;1.2991;1.9481;
456.3000;1.2983;1.9457;
456.6000;1.2975;1.9505;
456.9000;1.2967;1.9505;
457.2000;1.2991;1.9578;
457.5000;1.2983;1.9699;
457.8000;1.2983;1.9820;
458.1000;1.2991;1.9820;
458.4000;1.2983;1.9868;
458.7000;1.2991;1.9844;
459.0000;1.3000;1.9941;
459.3000;1.2983;1.9916;
459.6000;1.2975;1.9795;
459.9000;1.2991;1.9844;
460.2000;1.3032;1.9965;
460.5000;1.3000;1.9844;
460.8000;1.2983;1.9771;
461.1000;1.2991;1.9795;
461.4000;1.2991;1.9771;
461.7000;1.3000;1.9844;
462.0000;1.3000;1.9771;
462.3000;1.2983;1.9747;
462.6000;1.3000;1.9723;
462.9000;1.2991;1.9675;
463.2000;1.2975;1.9699;
463.5000;1.2967;1.9650;
463.8000;1.2959;1.9602;
464.1000;1.2983;1.9675;
464.4000;1.2991;1.9771;
464.7000;1.3000;1.9747;
465.0000;1.3008;1.9699;
465.3000;1.2991;1.9626;
465.6000;1.3000;1.9602;
465.9000;1.3000;1.9626;
466.2000;1.3032;1.9675;
466.5000;1.3000;1.9554;
466.8000;1.3000;1.9530;
467.1000;1.2975;1.9481;
467.4000;1.2991;1.9505;
467.7000;1.2991;1.9481;
468.0000;1.3000;1.9578;
468.3000;1.2951;1.9505;
468.6000;1.2983;1.9554;
468.9000;1.3000;1.9723;
469.2000;1.3008;1.9771;
469.5000;1.3000;1.9892;
469.8000;1.2991;1.9916;
470.1000;1.2991;1.9892;
470.4000;1.2959;1.9795;
470.7000;1.2991;1.9820;
471.0000;1.3000;1.9868;
471.3000;1.3000;1.9795;
471.6000;1.3008;1.9771;
471.9000;1.3024;1.9820;
472.2000;1.3008;1.9795;
472.5000;1.2983;1.9723;
472.8000;1.3008;1.9723;
473.1000;1.3000;1.9747;
473.4000;1.3000;1.9699;
473.7000;1.2991;1.9795;
474.0000;1.2991;1.9820;
474.3000;1.2991;1.9844;
474.6000;1.3000;1.9771;
474.9000;1.2967;1.9602;
475.2000;1.3016;1.9675;
475.5000;1.3008;1.9699;
475.8000;1.2983;1.9602;
476.1000;1.2991;1.9626;
476.4000;1.2975;1.9626;
476.7000;1.2983;1.9675;
477.0000;1.2983;1.9747;
477.3000;1.2959;1.9747;
477.6000;1.2975;1.9747;
477.9000;1.2975;1.9723;
478.2000;1.3000;1.9650;
478.5000;1.2991;1.9602;
478.8000;1.2983;1.9650;
479.1000;1.2983;1.9795;
479.4000;1.2991;1.9820;
479.7000;1.3000;1.9723;
480.0000;1.2991;1.9626;
480.3000;1.3000;1.9602;
480.6000;1.3008;1.9650;
480.9000;1.3000;1.9699;
481.2000;1.3008;1.9650;
481.5000;1.2991;1.9723;
481.8000;1.2983;1.9650;
482.1000;1.2991;1.9699;
482.4000;1.2983;1.9554;
482.7000;1.2991;1.9554;
483.0000;1.3000;1.9578;
483.3000;1.3024;1.9699;
483.6000;1.3000;1.9699;
483.9000;1.2991;1.9699;
484.2000;1.2951;1.9626;
484.5000;1.3000;1.9699;
484.8000;1.2975;1.9699;
485.1000;1.3032;1.9771;
485.4000;1.2983;1.9602;
485.7000;1.3016;1.9650;
486.0000;1.2991;1.9602;
486.3000;1.2975;1.9554;
486.6000;1.2975;1.9626;
486.9000;1.2975;1.9578;
487.2000;1.3008;1.9602;
487.5000;1.2967;1.9457;
487.8000;1.2975;1.9481;
488.1000;1.2991;1.9481;
488.4000;1.3000;1.9530;
488.7000;1.3008;1.9578;
489.0000;1.2975;1.9530;
489.3000;1.2983;1.9505;
489.6000;1.2991;1.9433;
489.9000;1.3008;1.9433;
490.2000;1.2959;1.9360;
490.5000;1.3000;1.9457;
490.8000;1.2983;1.9385;
491.1000;1.2983;1.9433;
491.4000;1.3008;1.9578;
491.7000;1.2967;1.9578;
492.0000;1.2983;1.9626;
492.3000;1.2975;1.9626;
492.6000;1.2975;1.9626;
492.9000;1.2967;1.9650;
493.2000;1.2926;1.9626;
493.5000;1.2983;1.9795;
493.8000;1.2991;1.9795;
494.1000;1.2983;1.9675;
494.4000;1.3016;1.9723;
494.7000;1.3008;1.9771;
495.0000;1.2983;1.9699;
495.3000;1.2975;1.9530;
495.6000;1.2983;1.9554;
495.9000;1.2983;1.9554;
496.2000;1.2983;1.9650;
496.5000;1.2991;1.9747;
496.8000;1.2959;1.9675;
497.1000;1.3000;1.9723;
497.4000;1.3008;1.9650;
497.7000;1.2983;1.9578;
498.0000;1.2975;1.9675;
498.3000;1.2991;1.9675;
498.6000;1.2991;1.9699;
498.9000;1.2975;1.9578;
499.2000;1.2975;1.9530;
499.5000;1.2983;1.9530;
499.8000;1.3008;1.9675;
500.1000;1.2975;1.9626;
500.4000;1.2975;1.9530;
500.7000;1.2991;1.9505;
501.0000;1.2959;1.9530;
501.3000;1.3000;1.9699;
501.6000;1.2991;1.9723;
501.9000;1.2991;1.9626;
502.2000;1.3000;1.9650;
502.5000;1.2991;1.9675;
502.8000;1.2983;1.9650;
503.1000;1.2975;1.9650;
503.4000;1.2975;1.9699;
503.7000;1.2983;1.9602;
504.0000;1.2991;1.9626;
504.3000;1.2991;1.9675;
504.6000;1.2975;1.9650;
504.9000;1.2983;1.9699;
505.2000;1.2991;1.9650;
505.5000;1.2991;1.9650;
505.8000;1.2983;1.9675;
506.1000;1.3024;1.9747;
506.4000;1.3008;1.9747;
506.7000;1.3065;1.9844;
507.0000;1.3000;1.9626;
507.3000;1.2959;1.9554;
507.6000;1.3000;1.9602;
507.9000;1.2991;1.9481;
508.2000;1.2975;1.9433;
508.5000;1.2983;1.9457;
508.8000;1.3016;1.9530;
509.1000;1.2967;1.9433;
509.4000;1.2991;1.9530;
509.7000;1.2975;1.9578;
510.0000;1.2983;1.9626;
510.3000;1.2975;1.9554;
510.6000;1.2975;1.9530;
510.9000;1.3000;1.9530;
511.2000;1.2983;1.9578;
511.5000;1.2983;1.9602;
511.8000;1.2967;1.9602;
512.1000;1.2983;1.9747;
512.4000;1.2975;1.9820;
512.7000;1.2975;1.9795;
513.0000;1.2983;1.9771;
513.3000;1.2975;1.9747;
513.6000;1.2991;1.9675;
513.9000;1.2983;1.9675;
514.2000;1.2983;1.9626;
514.5000;1.2967;1.9578;
514.8000;1.2975;1.9650;
515.1000;1.3000;1.9723;
515.4000;1.2975;1.9675;
515.7000;1.2983;1.9554;
516.0000;1.2975;1.9530;
516.3000;1.3000;1.9554;
516.6000;1.2991;1.9530;
516.9000;1.2983;1.9505;
517.2000;1.2975;1.9530;
517.5000;1.2991;1.9578;
517.8000;1.2991;1.9626;
518.1000;1.2975;1.9626;
518.4000;1.2951;1.9505;
518.7000;1.2983;1.9481;
519.0000;1.2983;1.9457;
519.3000;1.2991;1.9505;
519.6000;1.3000;1.9505;
519.9000;1.2975;1.9530;
520.2000;1.3000;1.9675;
520.5000;1.2991;1.9795;
520.8000;1.3000;1.9844;
521.1000;1.2959;1.9795;
521.4000;1.2991;1.9795;
521.7000;1.3008;1.9820;
522.0000;1.2991;1.9747;
522.3000;1.3000;1.9771;
522.6000;1.2991;1.9795;
522.9000;1.2991;1.9844;
523.2000;1.2975;1.9747;
523.5000;1.2975;1.9747;
523.8000;1.2983;1.9723;
524.1000;1.2967;1.9747;
524.4000;1.3008;1.9723;
524.7000;1.3000;1.9699;
525.0000;1.2991;1.9650;
525.3000;1.2991;1.9626;
525.6000;1.2983;1.9675;
525.9000;1.2983;1.9699;
526.2000;1.2983;1.9795;
526.5000;1.2975;1.9602;
526.8000;1.3040;1.9675;
527.1000;1.2983;1.9578;
527.4000;1.2983;1.9554;
527.7000;1.2983;1.9530;
528.0000;1.2983;1.9481;
528.3000;1.2967;1.9457;
528.6000;1.2943;1.9360;
528.9000;1.2975;1.9457;
529.2000;1.2926;1.9385;
529.5000;1.2983;1.9505;
529.8000;1.2967;1.9505;
530.1000;1.3000;1.9530;
530.4000;1.3000;1.9530;
530.7000;1.2991;1.9554;
531.0000;1.2975;1.9554;
531.3000;1.2975;1.9723;
531.6000;1.2983;1.9723;
531.9000;1.2991;1.9699;
532.2000;1.2934;1.9530;
532.5000;1.2983;1.9602;
532.8000;1.2983;1.9650;
533.1000;1.2991;1.9723;
533.4000;1.2983;1.9675;
533.7000;1.2975;1.9626;
534.0000;1.2959;1.9554;
534.3000;1.2991;1.9554;
534.6000;1.2975;1.9505;
534.9000;1.2983;1.9530;
535.2000;1.2983;1.9602;
535.5000;1.2975;1.9675;
535.8000;1.2983;1.9723;
536.1000;1.2975;1.9747;
536.4000;1.2983;1.9820;
536.7000;1.3000;1.9795;
537.0000;1.2991;1.9747;
537.3000;1.2975;1.9723;
537.6000;1.2991;1.9699;
537.9000;1.2991;1.9699;
538.2000;1.2991;1.9723;
538.5000;1.2975;1.9844;
538.8000;1.2975;1.9820;
539.1000;1.2983;1.9916;
539.4000;1.2983;1.9795;
539.7000;1.2983;1.9747;
540.0000;1.2959;1.9602;
540.3000;1.2975;1.9602;
540.6000;1.2983;1.9675;
540.9000;1.2991;1.9699;
541.2000;1.2991;1.9650;
541.5000;1.2983;1.9602;
541.8000;1.2951;1.9481;
542.1000;1.2975;1.9578;
542.4000;1.2959;1.9578;
542.7000;1.2967;1.9578;
543.0000;1.2975;1.9602;
543.3000;1.2975;1.9626;
543.6000;1.2983;1.9626;
543.9000;1.2975;1.9650;
544.2000;1.2975;1.9699;
544.5000;1.3024;1.9747;
544.8000;1.2983;1.9650;
545.1000;1.3016;1.9699;
545.4000;1.2926;1.9554;
545.7000;1.2975;1.9650;
546.0000;1.2991;1.9747;
546.3000;1.2983;1.9820;
546.6000;1.2975;1.9747;
546.9000;1.3008;1.9868;
547.2000;1.2983;1.9771;
547.5000;1.2975;1.9747;
547.8000;1.3000;1.9868;
548.1000;1.2975;1.9747;
548.4000;1.3073;2.0013;
548.7000;1.2991;1.9892;
549.0000;1.2951;1.9795;
549.3000;1.2991;1.9868;
549.6000;1.2967;1.9844;
549.9000;1.2983;1.9795;
550.2000;1.2967;1.9723;
550.5000;1.3000;1.9723;
550.8000;1.2975;1.9675;
551.1000;1.2975;1.9771;
551.4000;1.2983;1.9795;
551.7000;1.2991;1.9868;
552.0000;1.2983;1.9916;
552.3000;1.2983;1.9941;
552.6000;1.2983;1.9989;
552.9000;1.2983;1.9916;
553.2000;1.2975;1.9820;
553.5000;1.3000;1.9820;
553.8000;1.2975;1.9723;
554.1000;1.2967;1.9675;
554.4000;1.2983;1.9747;
554.7000;1.2983;1.9723;
555.0000;1.2983;1.9747;
555.3000;1.2934;1.9699;
555.6000;1.2975;1.9795;
555.9000;1.2983;1.9795;
556.2000;1.2983;1.9771;
556.5000;1.2983;1.9795;
556.8000;1.2943;1.9820;
557.1000;1.2975;1.9916;
557.4000;1.2983;1.9916;
557.7000;1.2967;1.9892;
558.0000;1.2983;1.9916;
558.3000;1.2983;1.9844;
558.6000;1.2967;1.9771;
558.9000;1.2967;1.9795;
559.2000;1.2959;1.9747;
559.5000;1.2975;1.9626;
559.8000;1.2991;1.9675;
560.1000;1.2967;1.9675;
560.4000;1.2918;1.9481;
560.7000;1.2975;1.9675;
561.0000;1.3000;1.9723;
561.3000;1.2959;1.9723;
561.6000;1.2975;1.9771;
561.9000;1.2975;1.9747;
562.2000;1.2991;1.9771;
562.5000;1.3008;1.9868;
562.8000;1.2983;1.9844;
563.1000;1.2934;1.9699;
563.4000;1.3024;1.9965;
563.7000;1.2983;1.9916;
564.0000;1.2967;1.9820;
564.3000;1.2991;1.9795;
564.6000;1.2983;1.9820;
564.9000;1.2967;1.9892;
565.2000;1.2983;1.9941;
565.5000;1.2975;1.9844;
565.8000;1.2983;1.9795;
566.1000;1.2991;1.9868;
566.4000;1.2975;1.9795;
566.7000;1.2934;1.9699;
567.0000;1.2991;1.9795;
567.3000;1.3000;1.9795;
567.6000;1.2991;1.9916;
567.9000;1.2910;1.9747;
568.2000;1.3008;1.9965;
568.5000;1.3000;1.9965;
568.8000;1.2991;1.9941;
569.1000;1.2991;1.9892;
569.4000;1.3000;1.9892;
569.7000;1.3000;1.9892;
570.0000;1.3008;1.9989;
570.3000;1.2983;1.9868;
570.6000;1.2983;1.9820;
570.9000;1.2983;1.9795;
571.2000;1.2983;1.9747;
571.5000;1.2983;1.9747;
571.8000;1.2975;1.9771;
572.1000;1.2926;1.9602;
572.4000;1.3024;1.9820;
572.7000;1.2975;1.9626;
573.0000;1.2943;1.9602;
573.3000;1.2975;1.9650;
573.6000;1.2983;1.9675;
573.9000;1.2983;1.9675;
574.2000;1.2991;1.9650;
574.5000;1.2967;1.9699;
574.8000;1.2983;1.9747;
575.1000;1.2991;1.9723;
575.4000;1.2983;1.9675;
575.7000;1.2967;1.9602;
576.0000;1.2959;1.9602;
576.3000;1.2983;1.9723;
576.6000;1.2991;1.9795;
576.9000;1.2991;1.9771;
577.2000;1.2991;1.9868;
577.5000;1.2975;1.9723;
577.8000;1.2991;1.9795;
578.1000;1.2975;1.9699;
578.4000;1.2991;1.9699;
578.7000;1.2983;1.9675;
579.0000;1.2975;1.9675;
579.3000;1.3000;1.9771;
579.6000;1.2975;1.9650;
579.9000;1.2975;1.9626;
580.2000;1.3048;1.9844;
580.5000;1.2983;1.9699;
580.8000;1.2983;1.9771;
581.1000;1.2967;1.9723;
581.4000;1.2983;1.9795;
581.7000;1.2983;1.9892;
582.0000;1.2967;1.9747;
582.3000;1.2959;1.9771;
582.6000;1.2975;1.9795;
582.9000;1.2951;1.9747;
583.2000;1.2959;1.9795;
583.5000;1.2975;1.9892;
583.8000;1.3000;1.9892;
584.1000;1.2991;1.9868;
584.4000;1.2983;1.9892;
584.7000;1.2951;1.9723;
585.0000;1.2975;1.9820;
585.3000;1.2983;1.9916;
585.6000;1.2991;1.9892;
585.9000;1.2983;1.9795;
586.2000;1.2983;1.9795;
586.5000;1.2943;1.9650;
586.8000;1.2991;1.9771;
587.1000;1.3016;1.9820;
587.4000;1.2967;1.9747;
587.7000;1.2991;1.9795;
588.0000;1.2983;1.9892;
588.3000;1.2983;1.9844;
588.6000;1.2975;1.9795;
588.9000;1.3024;1.9844;
589.2000;1.2959;1.9771;
589.5000;1.2991;1.9844;
589.8000;1.2975;1.9795;
590.1000;1.2926;1.9626;
590.4000;1.2934;1.9554;
590.7000;1.2991;1.9699;
591.0000;1.2959;1.9554;
591.3000;1.2951;1.9457;
591.6000;1.2967;1.9481;
591.9000;1.2959;1.9481;
592.2000;1.2967;1.9578;
592.5000;1.2967;1.9602;
592.8000;1.2975;1.9650;
593.1000;1.2991;1.9747;
593.4000;1.2967;1.9723;
593.7000;1.2959;1.9626;
594.0000;1.2967;1.9675;
594.3000;1.2991;1.9675;
594.6000;1.2967;1.9650;
594.9000;1.2975;1.9747;
595.2000;1.3000;1.9844;
595.5000;1.2983;1.9892;
595.8000;1.2967;1.9795;
596.1000;1.2934;1.9771;
596.4000;1.2975;1.9795;
596.7000;1.2959;1.9844;
597.0000;1.2975;1.9771;
597.3000;1.2967;1.9699;
597.6000;1.2967;1.9747;
597.9000;1.2967;1.9747;
598.2000;1.2983;1.9795;
598.5000;1.2983;1.9747;
598.8000;1.2975;1.9699;
599.1000;1.2975;1.9675;
599.4000;1.2983;1.9747;
599.7000;1.2991;1.9795;
600.0000;1.2975;1.9820;
600.3000;1.3000;1.9626;
600.6000;1.3008;1.9481;
600.9000;1.2951;1.9264;
601.2000;1.2812;1.8829;
601.5000;1.2707;1.8611;
601.8000;1.2576;1.8297;
602.1000;1.2462;1.8176;
602.4000;1.2340;1.7983;
602.7000;1.2226;1.7814;
603.0000;1.2112;1.7669;
603.3000;1.2031;1.7523;
603.6000;1.1950;1.7427;
603.9000;1.1844;1.7306;
604.2000;1.1746;1.7258;
604.5000;1.1673;1.7258;
604.8000;1.1600;1.7161;
605.1000;1.1510;1.7016;
605.4000;1.1437;1.6847;
605.7000;1.1363;1.6823;
606.0000;1.1306;1.6702;
606.3000;1.1282;1.6702;
606.6000;1.1176;1.6581;
606.9000;1.1119;1.6557;
607.2000;1.1054;1.6484;
607.5000;1.0973;1.6315;
607.8000;1.0916;1.6363;
608.1000;1.0867;1.6267;
608.4000;1.0834;1.6339;
608.7000;1.0753;1.6339;
609.0000;1.0704;1.6218;
609.3000;1.0647;1.6170;
609.6000;1.0615;1.6242;
609.9000;1.0558;1.6025;
610.2000;1.0509;1.5952;
610.5000;1.0460;1.5832;
610.8000;1.0419;1.5856;
611.1000;1.0370;1.5904;
611.4000;1.0346;1.5952;
611.7000;1.0273;1.5856;
612.0000;1.0191;1.5807;
612.3000;1.0199;1.5928;
612.6000;1.0151;1.5952;
612.9000;1.0094;1.5928;
613.2000;1.0085;1.5977;
613.5000;1.0061;1.6001;
613.8000;1.0004;1.5977;
614.1000;0.9972;1.6073;
614.4000;0.9980;1.6122;
614.7000;0.9890;1.5977;
615.0000;0.9849;1.5952;
615.3000;0.9809;1.5856;
615.6000;0.9801;1.5880;
615.9000;0.9784;1.5928;
616.2000;0.9719;1.5856;
616.5000;0.9678;1.5856;
616.8000;0.9654;1.5856;
617.1000;0.9621;1.5856;
617.4000;0.9581;1.5880;
617.7000;0.9573;1.5856;
618.0000;0.9524;1.5832;
618.3000;0.9516;1.5783;
618.6000;0.9483;1.5759;
618.9000;0.9426;1.5662;
619.2000;0.9410;1.5614;
619.5000;0.9402;1.5638;
619.8000;0.9385;1.5638;
620.1000;0.9361;1.5687;
620.4000;0.9304;1.5590;
620.7000;0.9280;1.5590;
621.0000;0.9239;1.5517;
621.3000;0.9255;1.5517;
621.6000;0.9206;1.5445;
621.9000;0.9182;1.5421;
622.2000;0.9182;1.5421;
622.5000;0.9133;1.5445;
622.8000;0.9125;1.5372;
623.1000;0.9141;1.5493;
623.4000;0.9084;1.5493;
623.7000;0.9044;1.5542;
624.0000;0.9027;1.5662;
624.3000;0.9011;1.5711;
624.6000;0.8978;1.5687;
624.9000;0.8987;1.5735;
625.2000;0.8962;1.5590;
625.5000;0.8930;1.5517;
625.8000;0.8897;1.5421;
626.1000;0.8897;1.5517;
626.4000;0.8881;1.5469;
626.7000;0.8921;1.5542;
627.0000;0.8848;1.5372;
627.3000;0.8816;1.5300;
627.6000;0.8799;1.5276;
627.9000;0.8767;1.5203;
628.2000;0.8742;1.5300;
628.5000;0.8751;1.5348;
628.8000;0.8726;1.5324;
629.1000;0.8694;1.5300;
629.4000;0.8702;1.5348;
629.7000;0.8677;1.5324;
630.0000;0.8669;1.5348;
630.3000;0.8653;1.5348;
630.6000;0.8612;1.5227;
630.9000;0.8620;1.5300;
631.2000;0.8645;1.5469;
631.5000;0.8604;1.5324;
631.8000;0.8588;1.5300;
632.1000;0.8555;1.5276;
632.4000;0.8539;1.5300;
632.7000;0.8531;1.5324;
633.0000;0.8523;1.5372;
633.3000;0.8498;1.5348;
633.6000;0.8490;1.5300;
633.9000;0.8474;1.5348;
634.2000;0.8457;1.5372;
634.5000;0.8425;1.5372;
634.8000;0.8425;1.5324;
635.1000;0.8425;1.5396;
635.4000;0.8425;1.5372;
635.7000;0.8409;1.5372;
636.0000;0.8392;1.5421;
636.3000;0.8352;1.5421;
636.6000;0.8376;1.5445;
636.9000;0.8344;1.5324;
637.2000;0.8335;1.5372;
637.5000;0.8319;1.5372;
637.8000;0.8319;1.5300;
638.1000;0.8303;1.5227;
638.4000;0.8295;1.5227;
638.7000;0.8270;1.5131;
639.0000;0.8287;1.5227;
639.3000;0.8262;1.5227;
639.6000;0.8246;1.5203;
639.9000;0.8221;1.5251;
640.2000;0.8238;1.5348;
640.5000;0.8205;1.5300;
640.8000;0.8181;1.5227;
641.1000;0.8173;1.5227;
641.4000;0.8181;1.5300;
641.7000;0.8173;1.5276;
642.0000;0.8164;1.5227;
642.3000;0.8148;1.5227;
642.6000;0.8132;1.5276;
642.9000;0.8124;1.5155;
643.2000;0.8124;1.5155;
643.5000;0.8091;1.5155;
643.8000;0.8107;1.5179;
644.1000;0.8099;1.5300;
644.4000;0.8099;1.5300;
644.7000;0.8067;1.5155;
645.0000;0.8067;1.5227;
645.3000;0.8034;1.5082;
645.6000;0.8042;1.5251;
645.9000;0.8026;1.5227;
646.2000;0.8034;1.5300;
646.5000;0.8018;1.5348;
646.8000;0.8018;1.5324;
647.1000;0.7993;1.5276;
647.4000;0.7993;1.5348;
647.7000;0.7977;1.5324;
648.0000;0.7985;1.5348;
648.3000;0.7969;1.5324;
648.6000;0.7953;1.5300;
648.9000;0.7953;1.5300;
649.2000;0.7937;1.5276;
649.5000;0.7945;1.5276;
649.8000;0.7912;1.5227;
650.1000;0.7912;1.5300;
650.4000;0.7912;1.5348;
650.7000;0.7904;1.5324;
651.0000;0.7896;1.5276;
651.3000;0.7871;1.5324;
651.6000;0.7863;1.5300;
651.9000;0.7871;1.5300;
652.2000;0.7863;1.5348;
652.5000;0.7855;1.5372;
652.8000;0.7855;1.5396;
653.1000;0.7855;1.5493;
653.4000;0.7814;1.5372;
653.7000;0.7814;1.5372;
654.0000;0.7823;1.5396;
654.3000;0.7798;1.5324;
654.6000;0.7814;1.5421;
654.9000;0.7782;1.5372;
655.2000;0.7774;1.5348;
655.5000;0.7733;1.5324;
655.8000;0.7766;1.5445;
656.1000;0.7774;1.5372;
656.4000;0.7798;1.5348;
656.7000;0.7766;1.5203;
657.0000;0.7757;1.5203;
657.3000;0.7749;1.5155;
657.6000;0.7725;1.5058;
657.9000;0.7692;1.4913;
658.2000;0.7676;1.4913;
658.5000;0.7725;1.5058;
658.8000;0.7717;1.5106;
659.1000;0.7717;1.5131;
659.4000;0.7692;1.5203;
659.7000;0.7700;1.5324;
660.0000;0.7684;1.5276;
660.3000;0.7676;1.5227;
660.6000;0.7676;1.5227;
660.9000;0.7692;1.5300;
661.2000;0.7660;1.5300;
661.5000;0.7652;1.5300;
661.8000;0.7652;1.5324;
662.1000;0.7652;1.5203;
662.4000;0.7643;1.5227;
662.7000;0.7595;1.5155;
663.0000;0.7635;1.5276;
663.3000;0.7635;1.5300;
663.6000;0.7627;1.5300;
663.9000;0.7611;1.5276;
664.2000;0.7595;1.5251;
664.5000;0.7611;1.5372;
664.8000;0.7611;1.5348;
665.1000;0.7611;1.5348;
665.4000;0.7603;1.5348;
665.7000;0.7595;1.5348;
666.0000;0.7521;1.5203;
666.3000;0.7578;1.5372;
666.6000;0.7562;1.5300;
666.9000;0.7578;1.5324;
667.2000;0.7546;1.5227;
667.5000;0.7546;1.5276;
667.8000;0.7546;1.5276;
668.1000;0.7538;1.5251;
668.4000;0.7538;1.5203;
668.7000;0.7521;1.5131;
669.0000;0.7505;1.5106;
669.3000;0.7513;1.5131;
669.6000;0.7513;1.5155;
669.9000;0.7505;1.5203;
670.2000;0.7513;1.5251;
670.5000;0.7497;1.5203;
670.8000;0.7497;1.5276;
671.1000;0.7489;1.5227;
671.4000;0.7497;1.5203;
671.7000;0.7505;1.5251;
672.0000;0.7473;1.5203;
672.3000;0.7464;1.5131;
672.6000;0.7464;1.5082;
672.9000;0.7481;1.5179;
673.2000;0.7505;1.5324;
673.5000;0.7448;1.5179;
673.8000;0.7424;1.5034;
674.1000;0.7424;1.5034;
674.4000;0.7424;1.5010;
674.7000;0.7440;1.5106;
675.0000;0.7391;1.4865;
675.3000;0.7424;1.4937;
675.6000;0.7424;1.4986;
675.9000;0.7432;1.5058;
676.2000;0.7432;1.5106;
676.5000;0.7416;1.5058;
676.8000;0.7407;1.4986;
677.1000;0.7424;1.5034;
677.4000;0.7383;1.4961;
677.7000;0.7407;1.4986;
678.0000;0.7399;1.5034;
678.3000;0.7399;1.5010;
678.6000;0.7424;1.5034;
678.9000;0.7407;1.4961;
679.2000;0.7375;1.4913;
679.5000;0.7375;1.5058;
679.8000;0.7391;1.5058;
680.1000;0.7375;1.4961;
680.4000;0.7416;1.5082;
680.7000;0.7350;1.4961;
681.0000;0.7342;1.4913;
681.3000;0.7350;1.5010;
681.6000;0.7326;1.4913;
681.9000;0.7342;1.4986;
682.2000;0.7342;1.5082;
682.5000;0.7350;1.5034;
682.8000;0.7334;1.4961;
683.1000;0.7359;1.5010;
683.4000;0.7318;1.4841;
683.7000;0.7350;1.4986;
684.0000;0.7318;1.4865;
684.3000;0.7302;1.4816;
684.6000;0.7293;1.4816;
684.9000;0.7302;1.4792;
685.2000;0.7302;1.4792;
685.5000;0.7277;1.4792;
685.8000;0.7285;1.4841;
686.1000;0.7302;1.4961;
686.4000;0.7277;1.4986;
686.7000;0.7293;1.4986;
687.0000;0.7285;1.5034;
687.3000;0.7269;1.5155;
687.6000;0.7269;1.5131;
687.9000;0.7269;1.5106;
688.2000;0.7269;1.5082;
688.5000;0.7253;1.5034;
688.8000;0.7253;1.5155;
689.1000;0.7269;1.5251;
689.4000;0.7245;1.5251;
689.7000;0.7228;1.5179;
690.0000;0.7261;1.5227;
690.3000;0.7253;1.5203;
690.6000;0.7236;1.5227;
690.9000;0.7261;1.5300;
691.2000;0.7245;1.5276;
691.5000;0.7245;1.5300;
691.8000;0.7236;1.5324;
692.1000;0.7236;1.5348;
692.4000;0.7261;1.5469;
692.7000;0.7212;1.5324;
693.0000;0.7204;1.5276;
693.3000;0.7204;1.5227;
693.6000;0.7188;1.5227;
693.9000;0.7204;1.5203;
694.2000;0.7212;1.5179;
694.5000;0.7188;1.5179;
694.8000;0.7188;1.5155;
695.1000;0.7204;1.5203;
695.4000;0.7204;1.5179;
695.7000;0.7204;1.5179;
696.0000;0.7188;1.5227;
696.3000;0.7196;1.5348;
696.6000;0.7196;1.5300;
696.9000;0.7196;1.5203;
697.2000;0.7163;1.5131;
697.5000;0.7171;1.5203;
697.8000;0.7171;1.5179;
698.1000;0.7171;1.5155;
698.4000;0.7147;1.5131;
698.7000;0.7147;1.4986;
699.0000;0.7163;1.5034;
699.3000;0.7171;1.5082;
699.6000;0.7163;1.5131;
699.9000;0.7139;1.5082;
700.2000;0.7131;1.5058;
700.5000;0.7163;1.5010;
700.8000;0.7155;1.5082;
701.1000;0.7171;1.5034;
701.4000;0.7179;1.5106;
701.7000;0.7171;1.5131;
702.0000;0.7147;1.5155;
702.3000;0.7147;1.5106;
702.6000;0.7155;1.5106;
702.9000;0.7163;1.5034;
703.2000;0.7147;1.4937;
703.5000;0.7123;1.4913;
703.8000;0.7123;1.4913;
704.1000;0.7123;1.4865;
704.4000;0.7114;1.4865;
704.7000;0.7090;1.4889;
705.0000;0.7098;1.4937;
705.3000;0.7106;1.5058;
705.6000;0.7098;1.5058;
705.9000;0.7106;1.5106;
706.2000;0.7082;1.5058;
706.5000;0.7106;1.5106;
706.8000;0.7090;1.5155;
707.1000;0.7123;1.5155;
707.4000;0.7098;1.5034;
707.7000;0.7098;1.5034;
708.0000;0.7106;1.5010;
708.3000;0.7082;1.4961;
708.6000;0.7090;1.4937;
708.9000;0.7074;1.4937;
709.2000;0.7066;1.4913;
709.5000;0.7074;1.5058;
709.8000;0.7074;1.5106;
710.1000;0.7057;1.5034;
710.4000;0.7066;1.5034;
710.7000;0.7082;1.5131;
711.0000;0.7057;1.5203;
711.3000;0.7041;1.5251;
711.6000;0.7074;1.5227;
711.9000;0.7098;1.5203;
712.2000;0.7066;1.5227;
712.5000;0.7066;1.5155;
712.8000;0.7057;1.5155;
713.1000;0.7066;1.5179;
713.4000;0.7057;1.5082;
713.7000;0.7049;1.5010;
714.0000;0.7017;1.5010;
714.3000;0.7041;1.5179;
714.6000;0.7057;1.5203;
714.9000;0.7049;1.5227;
715.2000;0.7025;1.5276;
715.5000;0.7025;1.5251;
715.8000;0.7025;1.5131;
716.1000;0.7033;1.5131;
716.4000;0.7025;1.5131;
716.7000;0.7017;1.5131;
717.0000;0.7057;1.5227;
717.3000;0.7000;1.5106;
717.6000;0.7009;1.5179;
717.9000;0.7025;1.5276;
718.2000;0.6992;1.5276;
718.5000;0.7025;1.5179;
718.8000;0.6992;1.5179;
719.1000;0.7017;1.5300;
719.4000;0.7025;1.5348;
719.7000;0.6935;1.5155;
720.0000;0.6984;1.5276;
720.3000;0.7009;1.5251;
720.6000;0.7009;1.5251;
720.9000;0.7041;1.5348;
721.2000;0.6984;1.5276;
721.5000;0.6992;1.5348;
721.8000;0.6992;1.5421;
722.1000;0.7017;1.5421;
722.4000;0.6960;1.5324;
722.7000;0.6976;1.5227;
723.0000;0.6984;1.5276;
723.3000;0.6952;1.5106;
723.6000;0.7000;1.5179;
723.9000;0.6976;1.5106;
724.2000;0.6976;1.5106;
724.5000;0.6976;1.5058;
724.8000;0.6968;1.5034;
725.1000;0.6968;1.5082;
725.4000;0.6976;1.5058;
725.7000;0.6968;1.5082;
726.0000;0.6960;1.5131;
726.3000;0.6968;1.5155;
726.6000;0.6992;1.5179;
726.9000;0.6952;1.5106;
727.2000;0.6952;1.5106;
727.5000;0.6960;1.5179;
727.8000;0.6927;1.5179;
728.1000;0.6935;1.5227;
728.4000;0.6952;1.5227;
728.7000;0.6943;1.5300;
729.0000;0.6952;1.5324;
729.3000;0.6935;1.5276;
729.6000;0.6927;1.5203;
729.9000;0.6943;1.5300;
730.2000;0.6935;1.5276;
730.5000;0.6927;1.5155;
730.8000;0.6935;1.5155;
731.1000;0.6935;1.5203;
731.4000;0.6927;1.5227;
731.7000;0.6927;1.5276;
732.0000;0.7000;1.5517;
732.3000;0.6935;1.5348;
732.6000;0.6919;1.5300;
732.9000;0.6935;1.5372;
733.2000;0.6919;1.5324;
733.5000;0.6935;1.5396;
733.8000;0.6927;1.5348;
734.1000;0.6919;1.5276;
734.4000;0.6927;1.5276;
734.7000;0.6919;1.5227;
735.0000;0.6919;1.5131;
735.3000;0.6919;1.5131;
735.6000;0.6927;1.5058;
735.9000;0.6935;1.5034;
736.2000;0.6927;1.5058;
736.5000;0.6911;1.5034;
736.8000;0.6911;1.5106;
737.1000;0.6911;1.5179;
737.4000;0.6903;1.5155;
737.7000;0.6919;1.5155;
738.0000;0.6903;1.5203;
738.3000;0.6911;1.5203;
738.6000;0.6911;1.5203;
738.9000;0.6903;1.5179;
739.2000;0.6903;1.5203;
739.5000;0.6903;1.5179;
739.8000;0.6903;1.5227;
740.1000;0.6895;1.5276;
740.4000;0.6886;1.5203;
740.7000;0.6870;1.5106;
741.0000;0.6903;1.5227;
741.3000;0.6862;1.5131;
741.6000;0.6886;1.5155;
741.9000;0.6886;1.5155;
742.2000;0.6878;1.5179;
742.5000;0.6895;1.5276;
742.8000;0.6862;1.5227;
743.1000;0.6829;1.5179;
743.4000;0.6878;1.5348;
743.7000;0.6886;1.5396;
744.0000;0.6862;1.5300;
744.3000;0.6862;1.5276;
744.6000;0.6862;1.5106;
744.9000;0.6854;1.5203;
745.2000;0.6854;1.5179;
745.5000;0.6862;1.5082;
745.8000;0.6846;1.5034;
746.1000;0.6862;1.5106;
746.4000;0.6870;1.5276;
746.7000;0.6870;1.5348;
747.0000;0.6838;1.5300;
747.3000;0.6862;1.5348;
747.6000;0.6870;1.5276;
747.9000;0.6862;1.5227;
748.2000;0.6846;1.5179;
748.5000;0.6870;1.5276;
748.8000;0.6870;1.5348;
749.1000;0.6846;1.5324;
749.4000;0.6854;1.5348;
749.7000;0.6846;1.5276;
750.0000;0.6838;1.5155;
750.3000;0.6846;1.5203;
750.6000;0.6805;1.5082;
750.9000;0.6846;1.5348;
751.2000;0.6854;1.5445;
751.5000;0.6838;1.5421;
751.8000;0.6846;1.5348;
752.1000;0.6846;1.5348;
752.4000;0.6838;1.5251;
752.7000;0.6846;1.5227;
753.0000;0.6854;1.5300;
753.3000;0.6846;1.5276;
753.6000;0.6829;1.5179;
753.9000;0.6829;1.5203;
754.2000;0.6821;1.5227;
754.5000;0.6829;1.5324;
754.8000;0.6838;1.5348;
755.1000;0.6797;1.5251;
755.4000;0.6838;1.5396;
755.7000;0.6805;1.5300;
756.0000;0.6764;1.5203;
756.3000;0.6789;1.5276;
756.6000;0.6821;1.5251;
756.9000;0.6805;1.5276;
757.2000;0.6821;1.5300;
757.5000;0.6829;1.5348;
757.8000;0.6805;1.5300;
758.1000;0.6805;1.5276;
758.4000;0.6813;1.5179;
758.7000;0.6813;1.5155;
759.0000;0.6813;1.5276;
759.3000;0.6781;1.5203;
759.6000;0.6813;1.5276;
759.9000;0.6789;1.5227;
760.2000;0.6838;1.5372;
760.5000;0.6805;1.5227;
760.8000;0.6805;1.5227;
761.1000;0.6789;1.5276;
761.4000;0.6772;1.5227;
761.7000;0.6805;1.5251;
762.0000;0.6813;1.5179;
762.3000;0.6797;1.5227;
762.6000;0.6797;1.5300;
762.9000;0.6821;1.5396;
763.2000;0.6789;1.5348;
763.5000;0.6781;1.5227;
763.8000;0.6781;1.5227;
764.1000;0.6781;1.5300;
764.4000;0.6797;1.5348;
764.7000;0.6789;1.5372;
765.0000;0.6797;1.5396;
765.3000;0.6846;1.5590;
765.6000;0.6781;1.5421;
765.9000;0.6764;1.5348;
766.2000;0.6772;1.5348;
766.5000;0.6805;1.5324;
766.8000;0.6797;1.5300;
767.1000;0.6797;1.5203;
767.4000;0.6821;1.5348;
767.7000;0.6781;1.5396;
768.0000;0.6764;1.5421;
768.3000;0.6772;1.5421;
768.6000;0.6772;1.5421;
768.9000;0.6772;1.5493;
769.2000;0.6772;1.5542;
769.5000;0.6789;1.5469;
769.8000;0.6764;1.5396;
770.1000;0.6764;1.5348;
770.4000;0.6748;1.5348;
770.7000;0.6764;1.5396;
771.0000;0.6764;1.5445;
771.3000;0.6829;1.5566;
771.6000;0.6756;1.5396;
771.9000;0.6740;1.5396;
772.2000;0.6781;1.5517;
772.5000;0.6789;1.5493;
772.8000;0.6740;1.5396;
773.1000;0.6748;1.5396;
773.4000;0.6772;1.5517;
773.7000;0.6764;1.5469;
774.0000;0.6724;1.5445;
774.3000;0.6805;1.5517;
774.6000;0.6740;1.5324;
774.9000;0.6764;1.5348;
775.2000;0.6756;1.5421;
775.5000;0.6748;1.5469;
775.8000;0.6748;1.5493;
776.1000;0.6756;1.5493;
776.4000;0.6740;1.5517;
776.7000;0.6764;1.5493;
777.0000;0.6764;1.5396;
777.3000;0.6740;1.5372;
777.6000;0.6748;1.5421;
777.9000;0.6748;1.5445;
778.2000;0.6748;1.5517;
778.5000;0.6732;1.5469;
778.8000;0.6748;1.5396;
779.1000;0.6732;1.5324;
779.4000;0.6740;1.5372;
779.7000;0.6740;1.5348;
780.0000;0.6756;1.5445;
780.3000;0.6748;1.5396;
780.6000;0.6740;1.5421;
780.9000;0.6732;1.5396;
781.2000;0.6716;1.5348;
781.5000;0.6740;1.5421;
781.8000;0.6724;1.5396;
782.1000;0.6732;1.5421;
782.4000;0.6732;1.5421;
782.7000;0.6716;1.5372;
783.0000;0.6683;1.5348;
783.3000;0.6740;1.5445;
783.6000;0.6748;1.5445;
783.9000;0.6732;1.5445;
784.2000;0.6740;1.5469;
784.5000;0.6732;1.5493;
784.8000;0.6724;1.5445;
785.1000;0.6748;1.5493;
785.4000;0.6740;1.5445;
785.7000;0.6707;1.5372;
786.0000;0.6732;1.5421;
786.3000;0.6716;1.5372;
786.6000;0.6716;1.5324;
786.9000;0.6748;1.5372;
787.2000;0.6724;1.5348;
787.5000;0.6707;1.5300;
787.8000;0.6707;1.5348;
788.1000;0.6683;1.5276;
788.4000;0.6699;1.5372;
788.7000;0.6797;1.5662;
789.0000;0.6699;1.5421;
789.3000;0.6699;1.5445;
789.6000;0.6724;1.5566;
789.9000;0.6724;1.5542;
790.2000;0.6716;1.5421;
790.5000;0.6707;1.5445;
790.8000;0.6659;1.5348;
791.1000;0.6699;1.5469;
791.4000;0.6675;1.5493;
791.7000;0.6699;1.5542;
792.0000;0.6699;1.5469;
792.3000;0.6716;1.5396;
792.6000;0.6724;1.5421;
792.9000;0.6707;1.5421;
793.2000;0.6707;1.5324;
793.5000;0.6724;1.5421;
793.8000;0.6724;1.5396;
794.1000;0.6716;1.5300;
794.4000;0.6716;1.5300;
794.7000;0.6699;1.5300;
795.0000;0.6724;1.5372;
795.3000;0.6724;1.5445;
795.6000;0.6707;1.5421;
795.9000;0.6699;1.5372;
796.2000;0.6716;1.5396;
796.5000;0.6699;1.5348;
796.8000;0.6699;1.5396;
797.1000;0.6691;1.5421;
797.4000;0.6659;1.5276;
797.7000;0.6675;1.5300;
798.0000;0.6699;1.5251;
798.3000;0.6699;1.5251;
798.6000;0.6683;1.5348;
798.9000;0.6699;1.5445;
799.2000;0.6691;1.5348;
799.5000;0.6683;1.5348;
799.8000;0.6667;1.5372;
800.1000;0.6707;1.5396;
800.4000;0.6683;1.5396;
800.7000;0.6699;1.5445;
801.0000;0.6691;1.5396;
801.3000;0.6675;1.5493;
801.6000;0.6683;1.5493;
801.9000;0.6691;1.5517;
802.2000;0.6683;1.5493;
802.5000;0.6691;1.5566;
802.8000;0.6699;1.5590;
803.1000;0.6667;1.5517;
803.4000;0.6683;1.5517;
803.7000;0.6683;1.5493;
804.0000;0.6675;1.5517;
804.3000;0.6650;1.5517;
804.6000;0.6683;1.5469;
804.9000;0.6683;1.5421;
805.2000;0.6659;1.5372;
805.5000;0.6667;1.5469;
805.8000;0.6683;1.5421;
806.1000;0.6675;1.5445;
806.4000;0.6683;1.5542;
806.7000;0.6675;1.5493;
807.0000;0.6667;1.5372;
807.3000;0.6650;1.5324;
807.6000;0.6675;1.5372;
807.9000;0.6667;1.5421;
808.2000;0.6675;1.5396;
808.5000;0.6675;1.5396;
808.8000;0.6667;1.5372;
809.1000;0.6667;1.5421;
809.4000;0.6642;1.5372;
809.7000;0.6659;1.5372;
810.0000;0.6659;1.5348;
810.3000;0.6659;1.5300;
810.6000;0.6683;1.5300;
810.9000;0.6650;1.5276;
811.2000;0.6642;1.5203;
811.5000;0.6650;1.5155;
811.8000;0.6610;1.5010;
812.1000;0.6699;1.5203;
812.4000;0.6691;1.5227;
812.7000;0.6650;1.5106;
813.0000;0.6667;1.5131;
813.3000;0.6642;1.5155;
813.6000;0.6650;1.5203;
813.9000;0.6659;1.5300;
814.2000;0.6659;1.5396;
814.5000;0.6626;1.5276;
814.8000;0.6650;1.5324;
815.1000;0.6659;1.5396;
815.4000;0.6659;1.5421;
815.7000;0.6659;1.5517;
816.0000;0.6659;1.5566;
816.3000;0.6659;1.5517;
816.6000;0.6659;1.5493;
816.9000;0.6659;1.5517;
817.2000;0.6642;1.5396;
817.5000;0.6659;1.5421;
817.8000;0.6667;1.5445;
818.1000;0.6626;1.5396;
818.4000;0.6642;1.5445;
818.7000;0.6626;1.5493;
819.0000;0.6659;1.5493;
819.3000;0.6618;1.5445;
819.6000;0.6659;1.5469;
819.9000;0.6642;1.5372;
820.2000;0.6634;1.5396;
820.5000;0.6626;1.5396;
820.8000;0.6642;1.5517;
821.1000;0.6626;1.5469;
821.4000;0.6626;1.5566;
821.7000;0.6642;1.5638;
822.0000;0.6585;1.5493;
822.3000;0.6626;1.5614;
822.6000;0.6618;1.5614;
822.9000;0.6650;1.5590;
823.2000;0.6650;1.5566;
823.5000;0.6626;1.5469;
823.8000;0.6634;1.5493;
824.1000;0.6650;1.5445;
824.4000;0.6642;1.5372;
824.7000;0.6634;1.5372;
825.0000;0.6618;1.5421;
825.3000;0.6650;1.5445;
825.6000;0.6642;1.5396;
825.9000;0.6618;1.5493;
826.2000;0.6634;1.5517;
826.5000;0.6626;1.5566;
826.8000;0.6626;1.5590;
827.1000;0.6618;1.5517;
827.4000;0.6626;1.5469;
827.7000;0.6626;1.5445;
828.0000;0.6593;1.5421;
828.3000;0.6634;1.5493;
828.6000;0.6626;1.5517;
828.9000;0.6626;1.5493;
829.2000;0.6634;1.5542;
829.5000;0.6610;1.5445;
829.8000;0.6610;1.5469;
830.1000;0.6545;1.5348;
830.4000;0.6634;1.5566;
830.7000;0.6626;1.5566;
831.0000;0.6626;1.5590;
831.3000;0.6634;1.5542;
831.6000;0.6618;1.5517;
831.9000;0.6626;1.5542;
832.2000;0.6618;1.5542;
832.5000;0.6634;1.5517;
832.8000;0.6650;1.5469;
833.1000;0.6618;1.5372;
833.4000;0.6610;1.5348;
833.7000;0.6618;1.5396;
834.0000;0.6602;1.5469;
834.3000;0.6602;1.5469;
834.6000;0.6618;1.5566;
834.9000;0.6618;1.5614;
835.2000;0.6610;1.5542;
835.5000;0.6561;1.5469;
835.8000;0.6618;1.5614;
836.1000;0.6577;1.5493;
836.4000;0.6667;1.5662;
836.7000;0.6610;1.5517;
837.0000;0.6642;1.5590;
837.3000;0.6602;1.5542;
837.6000;0.6610;1.5638;
837.9000;0.6593;1.5614;
838.2000;0.6536;1.5421;
838.5000;0.6602;1.5542;
838.8000;0.6577;1.5493;
839.1000;0.6593;1.5590;
839.4000;0.6610;1.5662;
839.7000;0.6618;1.5662;
840.0000;0.6610;1.5687;
840.3000;0.6610;1.5687;
840.6000;0.6675;1.5880;
840.9000;0.6602;1.5590;
841.2000;0.6610;1.5590;
841.5000;0.6602;1.5566;
841.8000;0.6634;1.5614;
842.1000;0.6602;1.5542;
842.4000;0.6593;1.5566;
842.7000;0.6602;1.5614;
843.0000;0.6593;1.5638;
843.3000;0.6602;1.5590;
843.6000;0.6577;1.5542;
843.9000;0.6593;1.5517;
844.2000;0.6585;1.5542;
844.5000;0.6585;1.5517;
844.8000;0.6618;1.5590;
845.1000;0.6577;1.5517;
845.4000;0.6585;1.5590;
845.7000;0.6577;1.5493;
846.0000;0.6610;1.5566;
846.3000;0.6585;1.5590;
846.6000;0.6593;1.5614;
846.9000;0.6577;1.5517;
847.2000;0.6569;1.5469;
847.5000;0.6585;1.5542;
847.8000;0.6569;1.5469;
848.1000;0.6618;1.5517;
848.4000;0.6577;1.5517;
848.7000;0.6577;1.5469;
849.0000;0.6553;1.5372;
849.3000;0.6577;1.5469;
849.6000;0.6593;1.5396;
849.9000;0.6577;1.5493;
850.2000;0.6610;1.5469;
850.5000;0.6577;1.5445;
850.8000;0.6577;1.5396;
851.1000;0.6593;1.5372;
851.4000;0.6585;1.5445;
851.7000;0.6585;1.5517;
852.0000;0.6650;1.5662;
852.3000;0.6593;1.5517;
852.6000;0.6593;1.5590;
852.9000;0.6577;1.5493;
853.2000;0.6569;1.5469;
853.5000;0.6569;1.5493;
853.8000;0.6577;1.5517;
854.1000;0.6650;1.5687;
854.4000;0.6569;1.5517;
854.7000;0.6569;1.5590;
855.0000;0.6577;1.5542;
855.3000;0.6585;1.5517;
855.6000;0.6577;1.5542;
855.9000;0.6593;1.5590;
856.2000;0.6602;1.5614;
856.5000;0.6585;1.5614;
856.8000;0.6585;1.5662;
857.1000;0.6602;1.5759;
857.4000;0.6593;1.5687;
857.7000;0.6593;1.5711;
858.0000;0.6577;1.5662;
858.3000;0.6569;1.5614;
858.6000;0.6553;1.5590;
858.9000;0.6561;1.5542;
859.2000;0.6577;1.5638;
859.5000;0.6569;1.5662;
859.8000;0.6569;1.5590;
860.1000;0.6569;1.5566;
860.4000;0.6585;1.5590;
860.7000;0.6528;1.5421;
861.0000;0.6577;1.5566;
861.3000;0.6569;1.5566;
861.6000;0.6569;1.5517;
861.9000;0.6569;1.5517;
862.2000;0.6561;1.5493;
862.5000;0.6561;1.5493;
862.8000;0.6577;1.5517;
863.1000;0.6610;1.5590;
863.4000;0.6569;1.5493;
863.7000;0.6488;1.5324;
864.0000;0.6577;1.5542;
864.3000;0.6545;1.5517;
864.6000;0.6561;1.5542;
864.9000;0.6545;1.5493;
865.2000;0.6553;1.5542;
865.5000;0.6561;1.5493;
865.8000;0.6553;1.5469;
866.1000;0.6561;1.5493;
866.4000;0.6585;1.5590;
866.7000;0.6569;1.5517;
867.0000;0.6569;1.5517;
867.3000;0.6561;1.5445;
867.6000;0.6569;1.5445;
867.9000;0.6577;1.5493;
868.2000;0.6585;1.5590;
868.5000;0.6561;1.5590;
868.8000;0.6561;1.5566;
869.1000;0.6569;1.5687;
869.4000;0.6553;1.5638;
869.7000;0.6545;1.5687;
870.0000;0.6536;1.5687;
870.3000;0.6618;1.5783;
870.6000;0.6545;1.5542;
870.9000;0.6561;1.5590;
871.2000;0.6577;1.5614;
871.5000;0.6569;1.5638;
871.8000;0.6561;1.5517;
872.1000;0.6585;1.5566;
872.4000;0.6561;1.5590;
872.7000;0.6553;1.5542;
873.0000;0.6650;1.5880;
873.3000;0.6545;1.5687;
873.6000;0.6545;1.5711;
873.9000;0.6553;1.5759;
874.2000;0.6536;1.5711;
874.5000;0.6553;1.5638;
874.8000;0.6545;1.5421;
875.1000;0.6618;1.5662;
875.4000;0.6553;1.5517;
875.7000;0.6553;1.5590;
876.0000;0.6569;1.5566;
876.3000;0.6545;1.5517;
876.6000;0.6545;1.5614;
876.9000;0.6569;1.5638;
877.2000;0.6545;1.5590;
877.5000;0.6528;1.5445;
877.8000;0.6545;1.5469;
878.1000;0.6569;1.5614;
878.4000;0.6545;1.5590;
878.7000;0.6528;1.5638;
879.0000;0.6536;1.5687;
879.3000;0.6520;1.5614;
879.6000;0.6536;1.5662;
879.9000;0.6536;1.5687;
880.2000;0.6536;1.5687;
880.5000;0.6520;1.5614;
880.8000;0.6545;1.5614;
881.1000;0.6545;1.5614;
881.4000;0.6528;1.5590;
881.7000;0.6577;1.5687;
882.0000;0.6553;1.5687;
882.3000;0.6561;1.5759;
882.6000;0.6561;1.5735;
882.9000;0.6528;1.5614;
883.2000;0.6545;1.5590;
883.5000;0.6536;1.5542;
883.8000;0.6536;1.5493;
884.1000;0.6545;1.5542;
884.4000;0.6512;1.5445;
884.7000;0.6528;1.5445;
885.0000;0.6520;1.5445;
885.3000;0.6528;1.5590;
885.6000;0.6545;1.5590;
885.9000;0.6528;1.5638;
886.2000;0.6536;1.5638;
886.5000;0.6602;1.5735;
886.8000;0.6496;1.5469;
887.1000;0.6545;1.5542;
887.4000;0.6536;1.5517;
887.7000;0.6528;1.5542;
888.0000;0.6528;1.5566;
888.3000;0.6536;1.5566;
888.6000;0.6528;1.5638;
888.9000;0.6536;1.5687;
889.2000;0.6553;1.5759;
889.5000;0.6528;1.5807;
889.8000;0.6512;1.5735;
890.1000;0.6553;1.5735;
890.4000;0.6528;1.5638;
890.7000;0.6536;1.5687;
891.0000;0.6536;1.5638;
891.3000;0.6561;1.5638;
891.6000;0.6536;1.5590;
891.9000;0.6536;1.5590;
892.2000;0.6545;1.5638;
892.5000;0.6536;1.5711;
892.8000;0.6528;1.5759;
893.1000;0.6545;1.5832;
893.4000;0.6569;1.5856;
893.7000;0.6553;1.5783;
894.0000;0.6520;1.5759;
894.3000;0.6520;1.5832;
894.6000;0.6536;1.5783;
894.9000;0.6520;1.5711;
895.2000;0.6528;1.5735;
895.5000;0.6536;1.5687;
895.8000;0.6528;1.5638;
896.1000;0.6520;1.5517;
896.4000;0.6545;1.5493;
896.7000;0.6528;1.5517;
897.0000;0.6536;1.5542;
897.3000;0.6536;1.5542;
897.6000;0.6536;1.5517;
897.9000;0.6520;1.5469;
898.2000;0.6536;1.5469;
898.5000;0.6512;1.5493;
898.8000;0.6553;1.5590;
899.1000;0.6520;1.5493;
899.4000;0.6512;1.5517;
899.7000;0.6512;1.5566;
900.0000;0.6569;1.5735;
900.3000;0.6504;1.5590;
900.6000;0.6504;1.5614;
900.9000;0.6520;1.5614;
901.2000;0.6528;1.5662;
901.5000;0.6504;1.5662;
901.8000;0.6520;1.5662;
902.1000;0.6512;1.5638;
902.4000;0.6536;1.5711;
902.7000;0.6512;1.5759;
903.0000;0.6512;1.5807;
903.3000;0.6504;1.5711;
903.6000;0.6520;1.5735;
903.9000;0.6520;1.5687;
904.2000;0.6520;1.5614;
904.5000;0.6496;1.5687;
904.8000;0.6496;1.5711;
905.1000;0.6504;1.5687;
905.4000;0.6496;1.5687;
905.7000;0.6496;1.5832;
906.0000;0.6512;1.5759;
906.3000;0.6471;1.5614;
906.6000;0.6553;1.5832;
906.9000;0.6504;1.5614;
907.2000;0.6496;1.5590;
907.5000;0.6536;1.5687;
907.8000;0.6471;1.5493;
908.1000;0.6504;1.5590;
908.4000;0.6504;1.5590;
908.7000;0.6520;1.5590;
909.0000;0.6488;1.5517;
909.3000;0.6504;1.5517;
909.6000;0.6479;1.5421;
909.9000;0.6520;1.5542;
910.2000;0.6520;1.5566;
910.5000;0.6520;1.5590;
910.8000;0.6504;1.5590;
911.1000;0.6512;1.5638;
911.4000;0.6447;1.5493;
911.7000;0.6504;1.5517;
912.0000;0.6496;1.5469;
912.3000;0.6536;1.5590;
912.6000;0.6512;1.5517;
912.9000;0.6488;1.5493;
913.2000;0.6504;1.5493;
913.5000;0.6455;1.5396;
913.8000;0.6504;1.5493;
914.1000;0.6496;1.5421;
914.4000;0.6471;1.5396;
914.7000;0.6512;1.5542;
915.0000;0.6479;1.5493;
915.3000;0.6528;1.5638;
915.6000;0.6496;1.5542;
915.9000;0.6471;1.5517;
916.2000;0.6496;1.5614;
916.5000;0.6504;1.5590;
916.8000;0.6496;1.5542;
917.1000;0.6496;1.5517;
917.4000;0.6520;1.5590;
917.7000;0.6504;1.5662;
918.0000;0.6504;1.5687;
918.3000;0.6512;1.5735;
918.6000;0.6496;1.5807;
918.9000;0.6488;1.5832;
919.2000;0.6504;1.5832;
919.5000;0.6488;1.5687;
919.8000;0.6488;1.5614;
920.1000;0.6536;1.5711;
920.4000;0.6479;1.5566;
920.7000;0.6520;1.5711;
921.0000;0.6463;1.5638;
921.3000;0.6479;1.5662;
921.6000;0.6504;1.5687;
921.9000;0.6479;1.5590;
922.2000;0.6488;1.5638;
922.5000;0.6520;1.5759;
922.8000;0.6496;1.5711;
923.1000;0.6496;1.5687;
923.4000;0.6488;1.5662;
923.7000;0.6496;1.5662;
924.0000;0.6496;1.5638;
924.3000;0.6479;1.5566;
924.6000;0.6496;1.5638;
924.9000;0.6520;1.5687;
925.2000;0.6496;1.5687;
925.5000;0.6488;1.5614;
925.8000;0.6488;1.5566;
926.1000;0.6463;1.5566;
926.4000;0.6479;1.5590;
926.7000;0.6463;1.5566;
927.0000;0.6488;1.5566;
927.3000;0.6536;1.5711;
927.6000;0.6479;1.5638;
927.9000;0.6504;1.5687;
928.2000;0.6512;1.5614;
928.5000;0.6512;1.5517;
928.8000;0.6488;1.5469;
929.1000;0.6479;1.5517;
929.4000;0.6431;1.5372;
929.7000;0.6463;1.5421;
930.0000;0.6488;1.5445;
930.3000;0.6504;1.5445;
930.6000;0.6439;1.5300;
930.9000;0.6471;1.5348;
931.2000;0.6536;1.5469;
931.5000;0.6504;1.5445;
931.8000;0.6504;1.5421;
932.1000;0.6471;1.5396;
932.4000;0.6455;1.5372;
932.7000;0.6488;1.5421;
933.0000;0.6496;1.5421;
933.3000;0.6504;1.5445;
933.6000;0.6479;1.5493;
933.9000;0.6488;1.5566;
934.2000;0.6471;1.5614;
934.5000;0.6488;1.5517;
934.8000;0.6471;1.5493;
935.1000;0.6504;1.5590;
935.4000;0.6488;1.5493;
935.7000;0.6471;1.5493;
936.0000;0.6471;1.5493;
936.3000;0.6463;1.5542;
936.6000;0.6471;1.5517;
936.9000;0.6479;1.5542;
937.2000;0.6455;1.5517;
937.5000;0.6520;1.5687;
937.8000;0.6488;1.5614;
938.1000;0.6455;1.5566;
938.4000;0.6463;1.5590;
938.7000;0.6488;1.5638;
939.0000;0.6496;1.5687;
939.3000;0.6488;1.5735;
939.6000;0.6479;1.5687;
939.9000;0.6471;1.5614;
940.2000;0.6488;1.5662;
940.5000;0.6488;1.5638;
940.8000;0.6463;1.5542;
941.1000;0.6455;1.5614;
941.4000;0.6488;1.5687;
941.7000;0.6479;1.5662;
942.0000;0.6479;1.5590;
942.3000;0.6463;1.5542;
942.6000;0.6471;1.5493;
942.9000;0.6463;1.5590;
943.2000;0.6520;1.5759;
943.5000;0.6463;1.5638;
943.8000;0.6479;1.5638;
944.1000;0.6463;1.5542;
944.4000;0.6471;1.5662;
944.7000;0.6479;1.5662;
945.0000;0.6463;1.5638;
945.3000;0.6479;1.5614;
945.6000;0.6479;1.5638;
945.9000;0.6471;1.5614;
946.2000;0.6496;1.5662;
946.5000;0.6463;1.5566;
946.8000;0.6455;1.5566;
947.1000;0.6463;1.5614;
947.4000;0.6439;1.5638;
947.7000;0.6479;1.5614;
948.0000;0.6471;1.5662;
948.3000;0.6496;1.5711;
948.6000;0.6463;1.5590;
948.9000;0.6463;1.5614;
949.2000;0.6455;1.5566;
949.5000;0.6488;1.5638;
949.8000;0.6463;1.5638;
950.1000;0.6455;1.5590;
950.4000;0.6463;1.5614;
950.7000;0.6479;1.5687;
951.0000;0.6463;1.5662;
951.3000;0.6504;1.5783;
951.6000;0.6471;1.5614;
951.9000;0.6455;1.5566;
952.2000;0.6439;1.5590;
952.5000;0.6447;1.5566;
952.8000;0.6455;1.5566;
953.1000;0.6471;1.5638;
953.4000;0.6479;1.5687;
953.7000;0.6471;1.5687;
954.0000;0.6455;1.5614;
954.3000;0.6406;1.5542;
954.6000;0.6479;1.5687;
954.9000;0.6471;1.5662;
955.2000;0.6463;1.5687;
955.5000;0.6439;1.5735;
955.8000;0.6463;1.5783;
956.1000;0.6463;1.5807;
956.4000;0.6455;1.5759;
956.7000;0.6455;1.5735;
957.0000;0.6455;1.5807;
957.3000;0.6455;1.5735;
957.6000;0.6479;1.5759;
957.9000;0.6463;1.5711;
958.2000;0.6455;1.5590;
958.5000;0.6463;1.5566;
958.8000;0.6479;1.5590;
959.1000;0.6463;1.5566;
959.4000;0.6398;1.5542;
959.7000;0.6463;1.5638;
960.0000;0.6463;1.5687;
960.3000;0.6471;1.5711;
960.6000;0.6455;1.5735;
960.9000;0.6471;1.5759;
961.2000;0.6479;1.5807;
961.5000;0.6455;1.5687;
961.8000;0.6463;1.5759;
962.1000;0.6447;1.5807;
962.4000;0.6455;1.5807;
962.7000;0.6463;1.5759;
963.0000;0.6455;1.5735;
963.3000;0.6447;1.5735;
963.6000;0.6471;1.5735;
963.9000;0.6463;1.5614;
964.2000;0.6463;1.5735;
964.5000;0.6463;1.5759;
964.8000;0.6479;1.5711;
965.1000;0.6431;1.5566;
965.4000;0.6447;1.5614;
965.7000;0.6455;1.5638;
966.0000;0.6463;1.5735;
966.3000;0.6455;1.5662;
966.6000;0.6471;1.5783;
966.9000;0.6479;1.5807;
967.2000;0.6439;1.5662;
967.5000;0.6455;1.5662;
967.8000;0.6479;1.5662;
968.1000;0.6447;1.5638;
968.4000;0.6455;1.5687;
968.7000;0.6471;1.5687;
969.0000;0.6455;1.5614;
969.3000;0.6439;1.5542;
969.6000;0.6455;1.5517;
969.9000;0.6455;1.5566;
970.2000;0.6463;1.5614;
970.5000;0.6455;1.5662;
970.8000;0.6447;1.5662;
971.1000;0.6447;1.5662;
971.4000;0.6455;1.5711;
971.7000;0.6447;1.5783;
972.0000;0.6439;1.5783;
972.3000;0.6447;1.5735;
972.6000;0.6431;1.5566;
972.9000;0.6422;1.5590;
973.2000;0.6439;1.5662;
973.5000;0.6447;1.5687;
973.8000;0.6471;1.5662;
974.1000;0.6463;1.5614;
974.4000;0.6439;1.5614;
974.7000;0.6447;1.5662;
975.0000;0.6463;1.5735;
975.3000;0.6471;1.5687;
975.6000;0.6431;1.5566;
975.9000;0.6431;1.5493;
976.2000;0.6447;1.5590;
976.5000;0.6479;1.5711;
976.8000;0.6431;1.5662;
977.1000;0.6431;1.5590;
977.4000;0.6439;1.5638;
977.7000;0.6455;1.5590;
978.0000;0.6422;1.5542;
978.3000;0.6390;1.5421;
978.6000;0.6504;1.5783;
978.9000;0.6455;1.5687;
979.2000;0.6447;1.5783;
979.5000;0.6439;1.5856;
979.8000;0.6447;1.5880;
980.1000;0.6455;1.5880;
980.4000;0.6439;1.5928;
980.7000;0.6455;1.5856;
981.0000;0.6431;1.5832;
981.3000;0.6439;1.5856;
981.6000;0.6439;1.5832;
981.9000;0.6422;1.5759;
982.2000;0.6431;1.5759;
982.5000;0.6431;1.5783;
982.8000;0.6439;1.5928;
983.1000;0.6447;1.5880;
983.4000;0.6422;1.5856;
983.7000;0.6455;1.5880;
984.0000;0.6439;1.5904;
984.3000;0.6455;1.5807;
984.6000;0.6520;1.6049;
984.9000;0.6455;1.5904;
985.2000;0.6455;1.5880;
985.5000;0.6439;1.5807;
985.8000;0.6439;1.5783;
986.1000;0.6439;1.5735;
986.4000;0.6431;1.5687;
986.7000;0.6431;1.5662;
987.0000;0.6439;1.5662;
987.3000;0.6455;1.5687;
987.6000;0.6447;1.5662;
987.9000;0.6447;1.5590;
988.2000;0.6447;1.5566;
988.5000;0.6463;1.5566;
988.8000;0.6447;1.5542;
989.1000;0.6512;1.5735;
989.4000;0.6447;1.5566;
989.7000;0.6398;1.5372;
990.0000;0.6447;1.5517;
990.3000;0.6447;1.5517;
990.6000;0.6447;1.5542;
990.9000;0.6431;1.5517;
991.2000;0.6488;1.5638;
991.5000;0.6439;1.5493;
991.8000;0.6447;1.5469;
992.1000;0.6406;1.5396;
992.4000;0.6414;1.5445;
992.7000;0.6439;1.5445;
993.0000;0.6463;1.5445;
993.3000;0.6431;1.5348;
993.6000;0.6414;1.5324;
993.9000;0.6463;1.5396;
994.2000;0.6455;1.5396;
994.5000;0.6439;1.5421;
994.8000;0.6447;1.5421;
995.1000;0.6431;1.5517;
995.4000;0.6463;1.5542;
995.7000;0.6447;1.5493;
996.0000;0.6504;1.5614;
996.3000;0.6431;1.5445;
996.6000;0.6447;1.5493;
996.9000;0.6422;1.5469;
997.2000;0.6398;1.5300;
997.5000;0.6439;1.5469;
997.8000;0.6439;1.5372;
998.1000;0.6439;1.5348;
998.4000;0.6431;1.5348;
998.7000;0.6431;1.5348;
999.0000;0.6439;1.5372;
999.3000;0.6422;1.5421;
999.6000;0.6431;1.5566;
999.9000;0.6431;1.5493;
1000.2000;0.6431;1.5566;
1000.5000;0.6431;1.5542;
1000.8000;0.6431;1.5517;
1001.1000;0.6422;1.5469;
1001.4000;0.6431;1.5469;
1001.7000;0.6431;1.5517;
1002.0000;0.6431;1.5542;
1002.3000;0.6398;1.5469;
1002.6000;0.6422;1.5517;
1002.9000;0.6422;1.5542;
1003.2000;0.6414;1.5517;
1003.5000;0.6414;1.5493;
1003.8000;0.6406;1.5517;
1004.1000;0.6431;1.5493;
1004.4000;0.6382;1.5396;
1004.7000;0.6414;1.5469;
1005.0000;0.6390;1.5396;
1005.3000;0.6406;1.5517;
1005.6000;0.6463;1.5662;
1005.9000;0.6439;1.5638;
1006.2000;0.6439;1.5590;
1006.5000;0.6439;1.5687;
1006.8000;0.6439;1.5735;
1007.1000;0.6439;1.5735;
1007.4000;0.6422;1.5662;
1007.7000;0.6431;1.5590;
1008.0000;0.6422;1.5590;
1008.3000;0.6447;1.5638;
1008.6000;0.6431;1.5566;
1008.9000;0.6414;1.5517;
1009.2000;0.6447;1.5614;
1009.5000;0.6439;1.5566;
1009.8000;0.6414;1.5493;
1010.1000;0.6414;1.5445;
1010.4000;0.6406;1.5372;
1010.7000;0.6447;1.5445;
1011.0000;0.6439;1.5421;
1011.3000;0.6422;1.5348;
1011.6000;0.6414;1.5203;
1011.9000;0.6431;1.5227;
1012.2000;0.6414;1.5276;
1012.5000;0.6422;1.5324;
1012.8000;0.6422;1.5276;
1013.1000;0.6406;1.5227;
1013.4000;0.6374;1.5179;
1013.7000;0.6414;1.5276;
1014.0000;0.6406;1.5372;
1014.3000;0.6422;1.5396;
1014.6000;0.6414;1.5445;
1014.9000;0.6382;1.5348;
1015.2000;0.6398;1.5421;
1015.5000;0.6431;1.5590;
1015.8000;0.6447;1.5590;
1016.1000;0.6447;1.5566;
1016.4000;0.6431;1.5517;
1016.7000;0.6406;1.5566;
1017.0000;0.6447;1.5614;
1017.3000;0.6422;1.5590;
1017.6000;0.6398;1.5542;
1017.9000;0.6414;1.5566;
1018.2000;0.6406;1.5614;
1018.5000;0.6414;1.5614;
1018.8000;0.6439;1.5590;
1019.1000;0.6390;1.5517;
1019.4000;0.6422;1.5590;
1019.7000;0.6406;1.5662;
1020.0000;0.6431;1.5711;
1020.3000;0.6422;1.5687;
1020.6000;0.6422;1.5711;
1020.9000;0.6414;1.5590;
1021.2000;0.6422;1.5662;
1021.5000;0.6431;1.5711;
1021.8000;0.6406;1.5711;
1022.1000;0.6398;1.5711;
1022.4000;0.6422;1.5759;
1022.7000;0.6406;1.5807;
1023.0000;0.6398;1.5759;
1023.3000;0.6414;1.5735;
1023.6000;0.6414;1.5759;
1023.9000;0.6406;1.5735;
1024.2000;0.6406;1.5711;
1024.5000;0.6406;1.5638;
1024.8000;0.6406;1.5614;
1025.1000;0.6406;1.5662;
1025.4000;0.6431;1.5687;
1025.7000;0.6439;1.5638;
1026.0000;0.6431;1.5662;
1026.3000;0.6447;1.5759;
1026.6000;0.6406;1.5590;
1026.9000;0.6455;1.5711;
1027.2000;0.6398;1.5638;
1027.5000;0.6422;1.5687;
1027.8000;0.6398;1.5638;
1028.1000;0.6414;1.5662;
1028.4000;0.6398;1.5662;
1028.7000;0.6414;1.5662;
1029.0000;0.6431;1.5711;
1029.3000;0.6414;1.5711;
1029.6000;0.6414;1.5687;
1029.9000;0.6406;1.5638;
1030.2000;0.6414;1.5638;
1030.5000;0.6398;1.5662;
1030.8000;0.6406;1.5638;
1031.1000;0.6406;1.5614;
1031.4000;0.6414;1.5638;
1031.7000;0.6414;1.5735;
1032.0000;0.6414;1.5735;
1032.3000;0.6431;1.5759;
1032.6000;0.6414;1.5783;
1032.9000;0.6447;1.5832;
1033.2000;0.6398;1.5735;
1033.5000;0.6431;1.5807;
1033.8000;0.6447;1.5880;
1034.1000;0.6422;1.5928;
1034.4000;0.6390;1.5759;
1034.7000;0.6422;1.5856;
1035.0000;0.6406;1.5783;
1035.3000;0.6414;1.5783;
1035.6000;0.6398;1.5735;
1035.9000;0.6398;1.5711;
1036.2000;0.6422;1.5711;
1036.5000;0.6422;1.5759;
1036.8000;0.6414;1.5735;
1037.1000;0.6414;1.5783;
1037.4000;0.6431;1.5759;
1037.7000;0.6431;1.5759;
1038.0000;0.6414;1.5832;
1038.3000;0.6422;1.5856;
1038.6000;0.6406;1.5856;
1038.9000;0.6406;1.5880;
1039.2000;0.6422;1.5904;
1039.5000;0.6406;1.5832;
1039.8000;0.6390;1.5759;
1040.1000;0.6406;1.5832;
1040.4000;0.6398;1.5856;
1040.7000;0.6414;1.5783;
1041.0000;0.6406;1.5783;
1041.3000;0.6414;1.5856;
1041.6000;0.6414;1.5783;
1041.9000;0.6414;1.5783;
1042.2000;0.6406;1.5735;
1042.5000;0.6406;1.5735;
1042.8000;0.6414;1.5807;
1043.1000;0.6406;1.5832;
1043.4000;0.6414;1.5759;
1043.7000;0.6390;1.5759;
1044.0000;0.6390;1.5807;
1044.3000;0.6390;1.5711;
1044.6000;0.6414;1.5614;
1044.9000;0.6439;1.5687;
1045.2000;0.6406;1.5662;
1045.5000;0.6414;1.5687;
1045.8000;0.6390;1.5687;
1046.1000;0.6398;1.5687;
1046.4000;0.6406;1.5662;
1046.7000;0.6422;1.5735;
1047.0000;0.6431;1.5759;
1047.3000;0.6414;1.5711;
1047.6000;0.6406;1.5687;
1047.9000;0.6496;1.5880;
1048.2000;0.6406;1.5711;
1048.5000;0.6382;1.5614;
1048.8000;0.6414;1.5687;
1049.1000;0.6406;1.5711;
1049.4000;0.6406;1.5687;
1049.7000;0.6398;1.5590;
1050.0000;0.6406;1.5590;
1050.3000;0.6406;1.5638;
1050.6000;0.6414;1.5687;
1050.9000;0.6390;1.5638;
1051.2000;0.6390;1.5590;
1051.5000;0.6406;1.5590;
1051.8000;0.6398;1.5638;
1052.1000;0.6414;1.5687;
1052.4000;0.6406;1.5687;
1052.7000;0.6390;1.5662;
1053.0000;0.6398;1.5711;
1053.3000;0.6398;1.5711;
1053.6000;0.6382;1.5662;
1053.9000;0.6406;1.5662;
1054.2000;0.6398;1.5566;
1054.5000;0.6398;1.5638;
1054.8000;0.6398;1.5662;
1055.1000;0.6374;1.5711;
1055.4000;0.6398;1.5735;
1055.7000;0.6398;1.5759;
1056.0000;0.6390;1.5711;
1056.3000;0.6406;1.5735;
1056.6000;0.6414;1.5687;
1056.9000;0.6422;1.5687;
1057.2000;0.6406;1.5783;
1057.5000;0.6390;1.5735;
1057.8000;0.6414;1.5759;
1058.1000;0.6398;1.5735;
1058.4000;0.6398;1.5807;
1058.7000;0.6414;1.5735;
1059.0000;0.6390;1.5711;
1059.3000;0.6390;1.5687;
1059.6000;0.6382;1.5711;
1059.9000;0.6390;1.5711;
1060.2000;0.6447;1.5904;
1060.5000;0.6374;1.5687;
1060.8000;0.6398;1.5638;
1061.1000;0.6374;1.5566;
1061.4000;0.6365;1.5638;
1061.7000;0.6390;1.5735;
1062.0000;0.6447;1.5807;
1062.3000;0.6398;1.5735;
1062.6000;0.6406;1.5759;
1062.9000;0.6398;1.5759;
1063.2000;0.6382;1.5783;
1063.5000;0.6382;1.5856;
1063.8000;0.6382;1.5880;
1064.1000;0.6406;1.5880;
1064.4000;0.6390;1.5735;
1064.7000;0.6390;1.5711;
1065.0000;0.6390;1.5711;
1065.3000;0.6374;1.5687;
1065.6000;0.6398;1.5687;
1065.9000;0.6390;1.5687;
1066.2000;0.6414;1.5638;
1066.5000;0.6398;1.5687;
1066.8000;0.6398;1.5590;
1067.1000;0.6406;1.5590;
1067.4000;0.6398;1.5542;
1067.7000;0.6414;1.5638;
1068.0000;0.6398;1.5590;
1068.3000;0.6398;1.5662;
1068.6000;0.6398;1.5662;
1068.9000;0.6398;1.5687;
1069.2000;0.6374;1.5687;
1069.5000;0.6390;1.5783;
1069.8000;0.6398;1.5735;
1070.1000;0.6390;1.5662;
1070.4000;0.6390;1.5590;
1070.7000;0.6406;1.5566;
1071.0000;0.6398;1.5469;
1071.3000;0.6382;1.5517;
1071.6000;0.6398;1.5590;
1071.9000;0.6398;1.5590;
1072.2000;0.6398;1.5614;
1072.5000;0.6463;1.5807;
1072.8000;0.6431;1.5687;
1073.1000;0.6390;1.5638;
1073.4000;0.6406;1.5687;
1073.7000;0.6422;1.5856;
1074.0000;0.6406;1.5904;
1074.3000;0.6398;1.5952;
1074.6000;0.6382;1.5832;
1074.9000;0.6382;1.5880;
1075.2000;0.6406;1.5783;
1075.5000;0.6398;1.5735;
1075.8000;0.6390;1.5759;
1076.1000;0.6390;1.5711;
1076.4000;0.6390;1.5638;
1076.7000;0.6439;1.5735;
1077.0000;0.6390;1.5662;
1077.3000;0.6414;1.5662;
1077.6000;0.6455;1.5735;
1077.9000;0.6414;1.5638;
1078.2000;0.6414;1.5662;
1078.5000;0.6398;1.5662;
1078.8000;0.6398;1.5735;
1079.1000;0.6406;1.5759;
1079.4000;0.6398;1.5807;
1079.7000;0.6382;1.5759;
1080.0000;0.6390;1.5807;
1080.3000;0.6382;1.5735;
1080.6000;0.6382;1.5687;
1080.9000;0.6382;1.5662;
1081.2000;0.6398;1.5735;
1081.5000;0.6390;1.5638;
1081.8000;0.6422;1.5711;
1082.1000;0.6398;1.5687;
1082.4000;0.6406;1.5662;
1082.7000;0.6398;1.5614;
1083.0000;0.6390;1.5614;
1083.3000;0.6398;1.5662;
1083.6000;0.6406;1.5638;
1083.9000;0.6390;1.5590;
1084.2000;0.6333;1.5421;
1084.5000;0.6398;1.5687;
1084.8000;0.6382;1.5687;
1085.1000;0.6333;1.5614;
1085.4000;0.6382;1.5638;
1085.7000;0.6382;1.5614;
1086.0000;0.6398;1.5638;
1086.3000;0.6374;1.5493;
1086.6000;0.6398;1.5493;
1086.9000;0.6365;1.5396;
1087.2000;0.6398;1.5421;
1087.5000;0.6390;1.5372;
1087.8000;0.6390;1.5324;
1088.1000;0.6463;1.5566;
1088.4000;0.6406;1.5396;
1088.7000;0.6390;1.5445;
1089.0000;0.6398;1.5517;
1089.3000;0.6390;1.5517;
1089.6000;0.6422;1.5590;
1089.9000;0.6398;1.5469;
1090.2000;0.6414;1.5566;
1090.5000;0.6390;1.5493;
1090.8000;0.6390;1.5517;
1091.1000;0.6406;1.5542;
1091.4000;0.6398;1.5542;
1091.7000;0.6382;1.5493;
1092.0000;0.6390;1.5542;
1092.3000;0.6398;1.5542;
1092.6000;0.6390;1.5566;
1092.9000;0.6382;1.5590;
1093.2000;0.6382;1.5687;
1093.5000;0.6374;1.5759;
1093.8000;0.6398;1.5735;
1094.1000;0.6382;1.5662;
1094.4000;0.6455;1.5807;
1094.7000;0.6390;1.5687;
1095.0000;0.6390;1.5638;
1095.3000;0.6382;1.5590;
1095.6000;0.6365;1.5542;
1095.9000;0.6382;1.5566;
1096.2000;0.6382;1.5638;
1096.5000;0.6398;1.5662;
1096.8000;0.6349;1.5662;
1097.1000;0.6365;1.5711;
1097.4000;0.6406;1.5638;
1097.7000;0.6398;1.5662;
1098.0000;0.6374;1.5638;
1098.3000;0.6439;1.5856;
1098.6000;0.6317;1.5614;
1098.9000;0.6374;1.5783;
1099.2000;0.6382;1.5832;
1099.5000;0.6349;1.5759;
1099.8000;0.6374;1.5783;
1100.1000;0.6390;1.5783;
1100.4000;0.6309;1.5493;
1100.7000;0.6325;1.5493;
1101.0000;0.6365;1.5590;
1101.3000;0.6382;1.5590;
1101.6000;0.6390;1.5662;
1101.9000;0.6463;1.5856;
1102.2000;0.6390;1.5735;
1102.5000;0.6382;1.5759;
1102.8000;0.6390;1.5759;
1103.1000;0.6374;1.5759;
1103.4000;0.6390;1.5711;
1103.7000;0.6382;1.5662;
1104.0000;0.6398;1.5687;
1104.3000;0.6406;1.5735;
1104.6000;0.6406;1.5735;
1104.9000;0.6390;1.5711;
1105.2000;0.6374;1.5687;
1105.5000;0.6382;1.5614;
1105.8000;0.6374;1.5566;
1106.1000;0.6365;1.5590;
1106.4000;0.6365;1.5566;
1106.7000;0.6390;1.5614;
1107.0000;0.6374;1.5590;
1107.3000;0.6365;1.5566;
1107.6000;0.6374;1.5590;
1107.9000;0.6390;1.5662;
1108.2000;0.6333;1.5469;
1108.5000;0.6374;1.5542;
1108.8000;0.6382;1.5590;
1109.1000;0.6374;1.5662;
1109.4000;0.6382;1.5711;
1109.7000;0.6374;1.5735;
1110.0000;0.6374;1.5783;
1110.3000;0.6382;1.5807;
1110.6000;0.6374;1.5832;
1110.9000;0.6374;1.5807;
1111.2000;0.6374;1.5807;
1111.5000;0.6382;1.5856;
1111.8000;0.6390;1.5856;
1112.1000;0.6365;1.5735;
1112.4000;0.6382;1.5759;
1112.7000;0.6382;1.5662;
1113.0000;0.6382;1.5711;
1113.3000;0.6333;1.5493;
1113.6000;0.6349;1.5469;
1113.9000;0.6390;1.5590;
1114.2000;0.6390;1.5614;
1114.5000;0.6390;1.5614;
1114.8000;0.6382;1.5638;
1115.1000;0.6349;1.5517;
1115.4000;0.6390;1.5517;
1115.7000;0.6365;1.5396;
1116.0000;0.6365;1.5276;
1116.3000;0.6374;1.5421;
1116.6000;0.6374;1.5493;
1116.9000;0.6390;1.5542;
1117.2000;0.6439;1.5662;
1117.5000;0.6333;1.5445;
1117.8000;0.6365;1.5566;
1118.1000;0.6309;1.5372;
1118.4000;0.6349;1.5493;
1118.7000;0.6357;1.5493;
1119.0000;0.6382;1.5638;
1119.3000;0.6382;1.5542;
1119.6000;0.6357;1.5517;
1119.9000;0.6365;1.5493;
1120.2000;0.6365;1.5421;
1120.5000;0.6374;1.5396;
1120.8000;0.6382;1.5517;
1121.1000;0.6374;1.5566;
1121.4000;0.6349;1.5542;
1121.7000;0.6357;1.5590;
1122.0000;0.6365;1.5590;
1122.3000;0.6357;1.5662;
1122.6000;0.6374;1.5662;
1122.9000;0.6365;1.5662;
1123.2000;0.6382;1.5687;
1123.5000;0.6431;1.5832;
1123.8000;0.6365;1.5614;
1124.1000;0.6357;1.5566;
1124.4000;0.6374;1.5614;
1124.7000;0.6382;1.5662;
1125.0000;0.6365;1.5638;
1125.3000;0.6365;1.5614;
1125.6000;0.6374;1.5662;
1125.9000;0.6341;1.5662;
1126.2000;0.6365;1.5711;
1126.5000;0.6374;1.5687;
1126.8000;0.6382;1.5759;
1127.1000;0.6374;1.5783;
1127.4000;0.6374;1.5832;
1127.7000;0.6357;1.5807;
1128.0000;0.6374;1.5856;
1128.3000;0.6390;1.5880;
1128.6000;0.6382;1.5807;
1128.9000;0.6382;1.5735;
1129.2000;0.6374;1.5807;
1129.5000;0.6365;1.5735;
1129.8000;0.6365;1.5687;
1130.1000;0.6374;1.5735;
1130.4000;0.6349;1.5687;
1130.7000;0.6365;1.5735;
1131.0000;0.6357;1.5735;
1131.3000;0.6333;1.5638;
1131.6000;0.6349;1.5687;
1131.9000;0.6357;1.5662;
1132.2000;0.6398;1.5735;
1132.5000;0.6365;1.5662;
1132.8000;0.6365;1.5711;
1133.1000;0.6357;1.5687;
1133.4000;0.6357;1.5735;
1133.7000;0.6374;1.5783;
1134.0000;0.6374;1.5807;
1134.3000;0.6382;1.5952;
1134.6000;0.6365;1.5783;
1134.9000;0.6382;1.5807;
1135.2000;0.6357;1.5735;
1135.5000;0.6365;1.5807;
1135.8000;0.6431;1.6001;
1136.1000;0.6365;1.5904;
1136.4000;0.6341;1.5807;
1136.7000;0.6398;1.5952;
1137.0000;0.6349;1.5928;
1137.3000;0.6357;1.5952;
1137.6000;0.6357;1.5952;
1137.9000;0.6374;1.5977;
1138.2000;0.6365;1.5928;
1138.5000;0.6398;1.6001;
1138.8000;0.6398;1.5952;
1139.1000;0.6317;1.5759;
1139.4000;0.6309;1.5807;
1139.7000;0.6398;1.5856;
1140.0000;0.6382;1.5832;
1140.3000;0.6374;1.5832;
1140.6000;0.6414;1.5928;
1140.9000;0.6357;1.5687;
1141.2000;0.6422;1.5856;
1141.5000;0.6365;1.5638;
1141.8000;0.6357;1.5711;
1142.1000;0.6382;1.5807;
1142.4000;0.6398;1.5904;
1142.7000;0.6357;1.5783;
1143.0000;0.6349;1.5759;
1143.3000;0.6349;1.5735;
1143.6000;0.6406;1.5880;
1143.9000;0.6365;1.5783;
1144.2000;0.6357;1.5807;
1144.5000;0.6349;1.5807;
1144.8000;0.6382;1.5928;
1145.1000;0.6374;1.5928;
1145.4000;0.6341;1.5832;
1145.7000;0.6374;1.5880;
1146.0000;0.6382;1.5856;
1146.3000;0.6365;1.5807;
1146.6000;0.6390;1.5759;
1146.9000;0.6317;1.5517;
1147.2000;0.6357;1.5590;
1147.5000;0.6374;1.5614;
1147.8000;0.6374;1.5590;
1148.1000;0.6374;1.5662;
1148.4000;0.6365;1.5638;
1148.7000;0.6349;1.5614;
1149.0000;0.6357;1.5735;
1149.3000;0.6357;1.5735;
1149.6000;0.6349;1.5759;
1149.9000;0.6357;1.5807;
1150.2000;0.6357;1.5783;
1150.5000;0.6382;1.5880;
1150.8000;0.6374;1.5856;
1151.1000;0.6365;1.5856;
1151.4000;0.6357;1.5880;
1151.7000;0.6357;1.5783;
1152.0000;0.6333;1.5735;
1152.3000;0.6382;1.5759;
1152.6000;0.6357;1.5759;
1152.9000;0.6341;1.5711;
1153.2000;0.6382;1.5807;
1153.5000;0.6341;1.5735;
1153.8000;0.6365;1.5735;
1154.1000;0.6374;1.5783;
1154.4000;0.6365;1.5783;
1154.7000;0.6341;1.5783;
1155.0000;0.6333;1.5759;
1155.3000;0.6374;1.5807;
1155.6000;0.6341;1.5759;
1155.9000;0.6357;1.5759;
1156.2000;0.6365;1.5662;
1156.5000;0.6365;1.5590;
1156.8000;0.6357;1.5566;
1157.1000;0.6349;1.5566;
1157.4000;0.6374;1.5662;
1157.7000;0.6365;1.5711;
1158.0000;0.6374;1.5711;
1158.3000;0.6341;1.5783;
1158.6000;0.6357;1.5807;
1158.9000;0.6365;1.5807;
1159.2000;0.6365;1.5759;
1159.5000;0.6365;1.5735;
1159.8000;0.6398;1.5807;
1160.1000;0.6349;1.5711;
1160.4000;0.6357;1.5759;
1160.7000;0.6382;1.5759;
1161.0000;0.6365;1.5783;
1161.3000;0.6365;1.5783;
1161.6000;0.6398;1.5880;
1161.9000;0.6365;1.5783;
1162.2000;0.6357;1.5687;
1162.5000;0.6300;1.5542;
1162.8000;0.6365;1.5638;
1163.1000;0.6357;1.5711;
1163.4000;0.6374;1.5783;
1163.7000;0.6374;1.5783;
1164.0000;0.6349;1.5687;
1164.3000;0.6349;1.5711;
1164.6000;0.6382;1.5832;
1164.9000;0.6333;1.5735;
1165.2000;0.6365;1.5807;
1165.5000;0.6357;1.5807;
1165.8000;0.6365;1.5832;
1166.1000;0.6325;1.5783;
1166.4000;0.6382;1.5807;
1166.7000;0.6349;1.5759;
1167.0000;0.6374;1.5807;
1167.3000;0.6349;1.5687;
1167.6000;0.6365;1.5614;
1167.9000;0.6406;1.5711;
1168.2000;0.6341;1.5590;
1168.5000;0.6357;1.5662;
1168.8000;0.6349;1.5566;
1169.1000;0.6406;1.5759;
1169.4000;0.6357;1.5638;
1169.7000;0.6349;1.5638;
1170.0000;0.6365;1.5687;
1170.3000;0.6365;1.5662;
1170.6000;0.6365;1.5711;
1170.9000;0.6341;1.5614;
1171.2000;0.6365;1.5590;
1171.5000;0.6357;1.5614;
1171.8000;0.6374;1.5662;
1172.1000;0.6365;1.5590;
1172.4000;0.6357;1.5566;
1172.7000;0.6357;1.5517;
1173.0000;0.6374;1.5638;
1173.3000;0.6374;1.5590;
1173.6000;0.6341;1.5614;
1173.9000;0.6341;1.5590;
1174.2000;0.6374;1.5711;
1174.5000;0.6382;1.5687;
1174.8000;0.6357;1.5711;
1175.1000;0.6382;1.5759;
1175.4000;0.6357;1.5711;
1175.7000;0.6357;1.5687;
1176.0000;0.6382;1.5711;
1176.3000;0.6357;1.5638;
1176.6000;0.6365;1.5662;
1176.9000;0.6357;1.5711;
1177.2000;0.6406;1.5832;
1177.5000;0.6357;1.5759;
1177.8000;0.6357;1.5759;
1178.1000;0.6382;1.5807;
1178.4000;0.6349;1.5662;
1178.7000;0.6357;1.5735;
1179.0000;0.6292;1.5614;
1179.3000;0.6382;1.5735;
1179.6000;0.6382;1.5735;
1179.9000;0.6341;1.5662;
1180.2000;0.6365;1.5687;
1180.5000;0.6365;1.5662;
1180.8000;0.6349;1.5638;
1181.1000;0.6357;1.5687;
1181.4000;0.6349;1.5638;
1181.7000;0.6341;1.5566;
1182.0000;0.6357;1.5687;
1182.3000;0.6349;1.5662;
1182.6000;0.6341;1.5735;
1182.9000;0.6365;1.5735;
1183.2000;0.6341;1.5638;
1183.5000;0.6341;1.5687;
1183.8000;0.6349;1.5783;
1184.1000;0.6333;1.5880;
1184.4000;0.6390;1.5952;
1184.7000;0.6349;1.5856;
1185.0000;0.6341;1.5783;
1185.3000;0.6333;1.5783;
1185.6000;0.6382;1.5856;
1185.9000;0.6349;1.5807;
1186.2000;0.6341;1.5832;
1186.5000;0.6341;1.5977;
1186.8000;0.6333;1.5928;
1187.1000;0.6349;1.5928;
1187.4000;0.6292;1.5783;
1187.7000;0.6357;1.6001;
1188.0000;0.6325;1.6001;
1188.3000;0.6349;1.5928;
1188.6000;0.6317;1.5880;
1188.9000;0.6357;1.5928;
1189.2000;0.6325;1.5880;
1189.5000;0.6341;1.5928;
1189.8000;0.6357;1.6001;
1190.1000;0.6349;1.6049;
1190.4000;0.6349;1.6025;
1190.7000;0.6357;1.6025;
1191.0000;0.6382;1.6122;
1191.3000;0.6365;1.6001;
1191.6000;0.6357;1.5952;
1191.9000;0.6365;1.5952;
1192.2000;0.6374;1.6025;
1192.5000;0.6357;1.5977;
1192.8000;0.6357;1.5880;
1193.1000;0.6349;1.5904;
1193.4000;0.6357;1.5928;
1193.7000;0.6349;1.5832;
1194.0000;0.6357;1.5832;
1194.3000;0.6349;1.5856;
1194.6000;0.6365;1.5856;
1194.9000;0.6357;1.5880;
1195.2000;0.6365;1.5783;
1195.5000;0.6333;1.5662;
1195.8000;0.6365;1.5711;
1196.1000;0.6365;1.5638;
1196.4000;0.6365;1.5590;
1196.7000;0.6357;1.5542;
1197.0000;0.6300;1.5445;
1197.3000;0.6382;1.5759;
1197.6000;0.6357;1.5759;
1197.9000;0.6406;1.5856;
1198.2000;0.6357;1.5662;
1198.5000;0.6349;1.5614;
1198.8000;0.6357;1.5662;
1199.1000;0.6349;1.5638;
1199.4000;0.6374;1.5687;
1199.7000;0.6341;1.5687;
1200.0000;0.6341;1.5687;
1200.3000;0.6333;1.5711;
1200.6000;0.6349;1.5662;
1200.9000;0.6341;1.5614;
1201.2000;0.6317;1.5517;
1201.5000;0.6341;1.5493;
1201.8000;0.6349;1.5517;
1202.1000;0.6341;1.5469;
1202.4000;0.6357;1.5614;
1202.7000;0.6349;1.5614;
1203.0000;0.6357;1.5687;
1203.3000;0.6341;1.5614;
1203.6000;0.6341;1.5711;
1203.9000;0.6333;1.5711;
1204.2000;0.6349;1.5711;
1204.5000;0.6341;1.5735;
1204.8000;0.6341;1.5807;
1205.1000;0.6365;1.5880;
1205.4000;0.6357;1.5856;
1205.7000;0.6349;1.5880;
1206.0000;0.6349;1.5832;
1206.3000;0.6349;1.5735;
1206.6000;0.6349;1.5807;
1206.9000;0.6406;1.6001;
1207.2000;0.6341;1.5735;
1207.5000;0.6333;1.5735;
1207.8000;0.6357;1.5856;
1208.1000;0.6341;1.5832;
1208.4000;0.6341;1.5880;
1208.7000;0.6333;1.5735;
1209.0000;0.6357;1.5711;
1209.3000;0.6309;1.5662;
1209.6000;0.6349;1.5735;
1209.9000;0.6341;1.5638;
1210.2000;0.6357;1.5759;
1210.5000;0.6349;1.5711;
1210.8000;0.6341;1.5590;
1211.1000;0.6365;1.5687;
1211.4000;0.6357;1.5687;
1211.7000;0.6357;1.5735;
1212.0000;0.6341;1.5662;
1212.3000;0.6341;1.5711;
1212.6000;0.6349;1.5759;
1212.9000;0.6349;1.5759;
1213.2000;0.6349;1.5759;
1213.5000;0.6325;1.5614;
1213.8000;0.6333;1.5662;
1214.1000;0.6333;1.5711;
1214.4000;0.6341;1.5662;
1214.7000;0.6325;1.5735;
1215.0000;0.6317;1.5711;
1215.3000;0.6357;1.5783;
1215.6000;0.6341;1.5807;
1215.9000;0.6365;1.5807;
1216.2000;0.6349;1.5735;
1216.5000;0.6349;1.5783;
1216.8000;0.6300;1.5614;
1217.1000;0.6349;1.5735;
1217.4000;0.6349;1.5807;
1217.7000;0.6349;1.5807;
1218.0000;0.6357;1.5832;
1218.3000;0.6349;1.5856;
1218.6000;0.6333;1.5880;
1218.9000;0.6349;1.5856;
1219.2000;0.6349;1.5832;
1219.5000;0.6357;1.5735;
1219.8000;0.6349;1.5687;
1220.1000;0.6349;1.5735;
1220.4000;0.6349;1.5783;
1220.7000;0.6349;1.5783;
1221.0000;0.6341;1.5880;
1221.3000;0.6357;1.5904;
1221.6000;0.6357;1.5928;
1221.9000;0.6341;1.5832;
1222.2000;0.6325;1.5832;
1222.5000;0.6341;1.5880;
1222.8000;0.6341;1.5856;
1223.1000;0.6365;1.5880;
1223.4000;0.6341;1.5711;
1223.7000;0.6333;1.5638;
1224.0000;0.6349;1.5614;
1224.3000;0.6317;1.5493;
1224.6000;0.6341;1.5638;
1224.9000;0.6357;1.5662;
1225.2000;0.6357;1.5687;
1225.5000;0.6341;1.5711;
1225.8000;0.6341;1.5687;
1226.1000;0.6365;1.5832;
1226.4000;0.6333;1.5807;
1226.7000;0.6357;1.5832;
1227.0000;0.6341;1.5735;
1227.3000;0.6349;1.5783;
1227.6000;0.6349;1.5711;
1227.9000;0.6374;1.5759;
1228.2000;0.6357;1.5735;
1228.5000;0.6349;1.5687;
1228.8000;0.6333;1.5662;
1229.1000;0.6349;1.5687;
1229.4000;0.6365;1.5662;
1229.7000;0.6341;1.5687;
1230.0000;0.6341;1.5783;
1230.3000;0.6349;1.5807;
1230.6000;0.6365;1.5904;
1230.9000;0.6365;1.5904;
1231.2000;0.6390;1.6025;
1231.5000;0.6374;1.6001;
1231.8000;0.6341;1.6001;
1232.1000;0.6341;1.5977;
1232.4000;0.6349;1.5832;
1232.7000;0.6382;1.5807;
1233.0000;0.6333;1.5687;
1233.3000;0.6309;1.5614;
1233.6000;0.6431;1.5832;
1233.9000;0.6374;1.5614;
1234.2000;0.6374;1.5566;
1234.5000;0.6333;1.5493;
1234.8000;0.6309;1.5445;
1235.1000;0.6349;1.5566;
1235.4000;0.6357;1.5735;
1235.7000;0.6341;1.5687;
1236.0000;0.6341;1.5711;
1236.3000;0.6341;1.5590;
1236.6000;0.6341;1.5662;
1236.9000;0.6357;1.5711;
1237.2000;0.6357;1.5735;
1237.5000;0.6357;1.5687;
1237.8000;0.6341;1.5614;
1238.1000;0.6341;1.5542;
1238.4000;0.6349;1.5469;
1238.7000;0.6341;1.5469;
1239.0000;0.6325;1.5396;
1239.3000;0.6349;1.5469;
1239.6000;0.6341;1.5469;
1239.9000;0.6349;1.5566;
1240.2000;0.6341;1.5566;
1240.5000;0.6349;1.5517;
1240.8000;0.6341;1.5590;
1241.1000;0.6341;1.5590;
1241.4000;0.6341;1.5687;
1241.7000;0.6333;1.5711;
1242.0000;0.6357;1.5687;
1242.3000;0.6341;1.5638;
1242.6000;0.6349;1.5590;
1242.9000;0.6333;1.5517;
1243.2000;0.6333;1.5517;
1243.5000;0.6341;1.5590;
1243.8000;0.6292;1.5493;
1244.1000;0.6341;1.5590;
1244.4000;0.6333;1.5662;
1244.7000;0.6341;1.5614;
1245.0000;0.6333;1.5687;
1245.3000;0.6349;1.5638;
1245.6000;0.6357;1.5687;
1245.9000;0.6333;1.5711;
1246.2000;0.6325;1.5590;
1246.5000;0.6357;1.5638;
1246.8000;0.6333;1.5566;
1247.1000;0.6341;1.5566;
1247.4000;0.6325;1.5517;
1247.7000;0.6341;1.5542;
1248.0000;0.6341;1.5542;
1248.3000;0.6341;1.5566;
1248.6000;0.6349;1.5638;
1248.9000;0.6333;1.5687;
1249.2000;0.6398;1.5807;
1249.5000;0.6333;1.5687;
1249.8000;0.6300;1.5614;
1250.1000;0.6341;1.5735;
1250.4000;0.6349;1.5735;
1250.7000;0.6349;1.5783;
1251.0000;0.6365;1.5759;
1251.3000;0.6333;1.5711;
1251.6000;0.6333;1.5783;
1251.9000;0.6349;1.5856;
1252.2000;0.6349;1.5807;
1252.5000;0.6349;1.5856;
1252.8000;0.6333;1.5759;
1253.1000;0.6317;1.5711;
1253.4000;0.6341;1.5735;
1253.7000;0.6349;1.5783;
1254.0000;0.6325;1.5783;
1254.3000;0.6341;1.5856;
1254.6000;0.6325;1.5856;
1254.9000;0.6325;1.5807;
1255.2000;0.6349;1.5807;
1255.5000;0.6325;1.5711;
1255.8000;0.6333;1.5759;
1256.1000;0.6317;1.5711;
1256.4000;0.6325;1.5711;
1256.7000;0.6325;1.5711;
1257.0000;0.6333;1.5759;
1257.3000;0.6357;1.5856;
1257.6000;0.6349;1.5807;
1257.9000;0.6333;1.5687;
1258.2000;0.6325;1.5662;
1258.5000;0.6349;1.5735;
1258.8000;0.6341;1.5759;
1259.1000;0.6341;1.5687;
1259.4000;0.6333;1.5566;
1259.7000;0.6341;1.5566;
1260.0000;0.6374;1.5735;
1260.3000;0.6341;1.5614;
1260.6000;0.6333;1.5590;
1260.9000;0.6317;1.5542;
1261.2000;0.6349;1.5687;
1261.5000;0.6276;1.5517;
1261.8000;0.6325;1.5614;
1262.1000;0.6333;1.5542;
1262.4000;0.6357;1.5711;
1262.7000;0.6341;1.5783;
1263.0000;0.6349;1.5832;
1263.3000;0.6341;1.5759;
1263.6000;0.6349;1.5783;
1263.9000;0.6349;1.5735;
1264.2000;0.6341;1.5783;
1264.5000;0.6349;1.5880;
1264.8000;0.6341;1.5904;
1265.1000;0.6333;1.5856;
1265.4000;0.6349;1.5928;
1265.7000;0.6333;1.5880;
1266.0000;0.6317;1.5807;
1266.3000;0.6341;1.5856;
1266.6000;0.6398;1.6001;
1266.9000;0.6284;1.5687;
1267.2000;0.6300;1.5759;
1267.5000;0.6341;1.5928;
1267.8000;0.6333;1.5952;
1268.1000;0.6357;1.5952;
1268.4000;0.6309;1.5880;
1268.7000;0.6341;1.5928;
1269.0000;0.6357;1.6001;
1269.3000;0.6325;1.5928;
1269.6000;0.6333;1.5904;
1269.9000;0.6333;1.5928;
1270.2000;0.6333;1.5952;
1270.5000;0.6333;1.5977;
1270.8000;0.6325;1.5928;
1271.1000;0.6284;1.5759;
1271.4000;0.6341;1.5759;
1271.7000;0.6333;1.5759;
1272.0000;0.6309;1.5735;
1272.3000;0.6309;1.5735;
1272.6000;0.6349;1.5807;
1272.9000;0.6325;1.5735;
1273.2000;0.6341;1.5783;
1273.5000;0.6325;1.5735;
1273.8000;0.6333;1.5783;
1274.1000;0.6349;1.5880;
1274.4000;0.6333;1.5880;
1274.7000;0.6349;1.5928;
1275.0000;0.6341;1.5952;
1275.3000;0.6341;1.5952;
1275.6000;0.6349;1.6097;
1275.9000;0.6333;1.6073;
1276.2000;0.6341;1.6073;
1276.5000;0.6357;1.6122;
1276.8000;0.6333;1.5977;
1277.1000;0.6333;1.6025;
1277.4000;0.6325;1.6049;
1277.7000;0.6341;1.6170;
1278.0000;0.6341;1.6025;
1278.3000;0.6341;1.6025;
1278.6000;0.6349;1.6025;
1278.9000;0.6341;1.6001;
1279.2000;0.6357;1.5952;
1279.5000;0.6341;1.5977;
1279.8000;0.6333;1.5928;
1280.1000;0.6325;1.5880;
1280.4000;0.6374;1.6073;
1280.7000;0.6325;1.5952;
1281.0000;0.6309;1.5904;
1281.3000;0.6317;1.5880;
1281.6000;0.6341;1.5952;
1281.9000;0.6325;1.5759;
1282.2000;0.6325;1.5807;
1282.5000;0.6341;1.5856;
1282.8000;0.6333;1.5759;
1283.1000;0.6333;1.5711;
1283.4000;0.6349;1.5832;
1283.7000;0.6333;1.5904;
1284.0000;0.6349;1.5880;
1284.3000;0.6333;1.5832;
1284.6000;0.6317;1.5832;
1284.9000;0.6325;1.5880;
1285.2000;0.6333;1.5952;
1285.5000;0.6333;1.6073;
1285.8000;0.6333;1.5977;
1286.1000;0.6341;1.6001;
1286.4000;0.6333;1.6097;
1286.7000;0.6333;1.6097;
1287.0000;0.6357;1.6146;
1287.3000;0.6333;1.6049;
1287.6000;0.6317;1.5977;
1287.9000;0.6390;1.6097;
1288.2000;0.6341;1.5928;
1288.5000;0.6309;1.5856;
1288.8000;0.6333;1.5928;
1289.1000;0.6333;1.5977;
1289.4000;0.6333;1.6001;
1289.7000;0.6333;1.6025;
1290.0000;0.6325;1.5952;
1290.3000;0.6325;1.6001;
1290.6000;0.6341;1.6073;
1290.9000;0.6333;1.6001;
1291.2000;0.6341;1.5977;
1291.5000;0.6333;1.5880;
1291.8000;0.6317;1.5952;
1292.1000;0.6333;1.5952;
1292.4000;0.6325;1.5832;
1292.7000;0.6325;1.5783;
1293.0000;0.6341;1.5807;
1293.3000;0.6333;1.5807;
1293.6000;0.6374;1.5856;
1293.9000;0.6341;1.5783;
1294.2000;0.6349;1.5880;
1294.5000;0.6357;1.5977;
1294.8000;0.6300;1.5832;
1295.1000;0.6333;1.5904;
1295.4000;0.6292;1.5783;
1295.7000;0.6300;1.5832;
1296.0000;0.6406;1.6073;
1296.3000;0.6325;1.5928;
1296.6000;0.6325;1.5904;
1296.9000;0.6333;1.5880;
1297.2000;0.6341;1.6025;
1297.5000;0.6341;1.6025;
1297.8000;0.6333;1.6025;
1298.1000;0.6309;1.5952;
1298.4000;0.6341;1.5977;
1298.7000;0.6341;1.5977;
1299.0000;0.6349;1.5952;
1299.3000;0.6325;1.5928;
1299.6000;0.6349;1.5904;
1299.9000;0.6341;1.5856;
1300.2000;0.6341;1.5856;
1300.5000;0.6333;1.5880;
1300.8000;0.6341;1.5952;
1301.1000;0.6341;1.6001;
1301.4000;0.6341;1.6049;
1301.7000;0.6317;1.5952;
1302.0000;0.6341;1.5928;
1302.3000;0.6317;1.5928;
1302.6000;0.6333;1.5880;
1302.9000;0.6317;1.5904;
1303.2000;0.6325;1.5952;
1303.5000;0.6357;1.6001;
1303.8000;0.6357;1.5952;
1304.1000;0.6333;1.5880;
1304.4000;0.6325;1.5856;
1304.7000;0.6333;1.5832;
1305.0000;0.6333;1.5928;
1305.3000;0.6333;1.5977;
1305.6000;0.6325;1.5952;
1305.9000;0.6333;1.6001;
1306.2000;0.6325;1.6001;
1306.5000;0.6325;1.5952;
1306.8000;0.6341;1.6001;
1307.1000;0.6333;1.5977;
1307.4000;0.6333;1.6025;
1307.7000;0.6325;1.6001;
1308.0000;0.6309;1.5856;
1308.3000;0.6333;1.5880;
1308.6000;0.6374;1.5977;
1308.9000;0.6325;1.5952;
1309.2000;0.6349;1.5952;
1309.5000;0.6357;1.6025;
1309.8000;0.6341;1.5977;
1310.1000;0.6333;1.6001;
1310.4000;0.6325;1.6001;
1310.7000;0.6333;1.5952;
1311.0000;0.6309;1.5977;
1311.3000;0.6333;1.5977;
1311.6000;0.6276;1.5759;
1311.9000;0.6333;1.5904;
1312.2000;0.6333;1.5904;
1312.5000;0.6333;1.5807;
1312.8000;0.6325;1.5783;
1313.1000;0.6333;1.5904;
1313.4000;0.6325;1.5856;
1313.7000;0.6325;1.5832;
1314.0000;0.6333;1.5856;
1314.3000;0.6333;1.5904;
1314.6000;0.6365;1.5977;
1314.9000;0.6341;1.5977;
1315.2000;0.6325;1.5952;
1315.5000;0.6333;1.5977;
1315.8000;0.6317;1.6025;
1316.1000;0.6349;1.6122;
1316.4000;0.6382;1.6291;
1316.7000;0.6317;1.6049;
1317.0000;0.6325;1.6073;
1317.3000;0.6349;1.6025;
1317.6000;0.6317;1.6025;
1317.9000;0.6325;1.6025;
1318.2000;0.6317;1.6025;
1318.5000;0.6333;1.6097;
1318.8000;0.6325;1.6097;
1319.1000;0.6333;1.6170;
1319.4000;0.6317;1.6194;
1319.7000;0.6325;1.6242;
1320.0000;0.6325;1.6146;
1320.3000;0.6325;1.6073;
1320.6000;0.6325;1.6025;
1320.9000;0.6276;1.5904;
1321.2000;0.6317;1.6001;
1321.5000;0.6317;1.5928;
1321.8000;0.6309;1.5880;
1322.1000;0.6317;1.5807;
1322.4000;0.6325;1.5856;
1322.7000;0.6341;1.5928;
1323.0000;0.6317;1.5880;
1323.3000;0.6317;1.5783;
1323.6000;0.6325;1.5807;
1323.9000;0.6333;1.5880;
1324.2000;0.6333;1.5880;
1324.5000;0.6333;1.5880;
1324.8000;0.6333;1.5952;
1325.1000;0.6341;1.6025;
1325.4000;0.6357;1.6025;
1325.7000;0.6333;1.5952;
1326.0000;0.6317;1.5977;
1326.3000;0.6333;1.6073;
1326.6000;0.6341;1.6097;
1326.9000;0.6325;1.6073;
1327.2000;0.6333;1.6049;
1327.5000;0.6284;1.5880;
1327.8000;0.6341;1.6001;
1328.1000;0.6333;1.5977;
1328.4000;0.6349;1.5952;
1328.7000;0.6341;1.5952;
1329.0000;0.6349;1.5928;
1329.3000;0.6317;1.5952;
1329.6000;0.6349;1.6097;
1329.9000;0.6357;1.6218;
1330.2000;0.6357;1.6218;
1330.5000;0.6317;1.6073;
1330.8000;0.6276;1.5880;
1331.1000;0.6333;1.6001;
1331.4000;0.6325;1.6001;
1331.7000;0.6325;1.5952;
1332.0000;0.6333;1.5904;
1332.3000;0.6317;1.5856;
1332.6000;0.6317;1.5880;
1332.9000;0.6349;1.5904;
1333.2000;0.6341;1.5880;
1333.5000;0.6317;1.5832;
1333.8000;0.6309;1.5783;
1334.1000;0.6325;1.5807;
1334.4000;0.6325;1.5880;
1334.7000;0.6300;1.5856;
1335.0000;0.6365;1.6049;
1335.3000;0.6325;1.6049;
1335.6000;0.6349;1.6146;
1335.9000;0.6317;1.6025;
1336.2000;0.6325;1.6049;
1336.5000;0.6317;1.6001;
1336.8000;0.6333;1.5952;
1337.1000;0.6333;1.5977;
1337.4000;0.6333;1.6001;
1337.7000;0.6333;1.5928;
1338.0000;0.6341;1.5977;
1338.3000;0.6333;1.5928;
1338.6000;0.6374;1.5977;
1338.9000;0.6325;1.5856;
1339.2000;0.6341;1.5977;
1339.5000;0.6325;1.5856;
1339.8000;0.6341;1.5904;
1340.1000;0.6349;1.5880;
1340.4000;0.6398;1.6073;
1340.7000;0.6333;1.6001;
1341.0000;0.6341;1.6001;
1341.3000;0.6317;1.5880;
1341.6000;0.6341;1.5904;
1341.9000;0.6333;1.5832;
1342.2000;0.6317;1.5856;
1342.5000;0.6325;1.5904;
1342.8000;0.6317;1.5952;
1343.1000;0.6284;1.5952;
1343.4000;0.6276;1.5832;
1343.7000;0.6325;1.6001;
1344.0000;0.6309;1.5928;
1344.3000;0.6317;1.5832;
1344.6000;0.6325;1.5880;
1344.9000;0.6325;1.5856;
1345.2000;0.6317;1.5832;
1345.5000;0.6349;1.5856;
1345.8000;0.6333;1.5904;
1346.1000;0.6333;1.5856;
1346.4000;0.6309;1.5759;
1346.7000;0.6333;1.5807;
1347.0000;0.6333;1.5880;
1347.3000;0.6292;1.5832;
1347.6000;0.6333;1.5928;
1347.9000;0.6325;1.6001;
1348.2000;0.6317;1.6122;
1348.5000;0.6333;1.6122;
1348.8000;0.6300;1.6049;
1349.1000;0.6309;1.6122;
1349.4000;0.6317;1.6049;
1349.7000;0.6309;1.6025;
1350.0000;0.6292;1.5952;
1350.3000;0.6374;1.6073;
1350.6000;0.6333;1.5904;
1350.9000;0.6341;1.5928;
1351.2000;0.6341;1.5928;
1351.5000;0.6300;1.5832;
1351.8000;0.6341;1.5904;
1352.1000;0.6333;1.5880;
1352.4000;0.6333;1.5904;
1352.7000;0.6325;1.5952;
1353.0000;0.6357;1.6073;
1353.3000;0.6341;1.6025;
1353.6000;0.6341;1.5928;
1353.9000;0.6325;1.6025;
1354.2000;0.6349;1.6049;
1354.5000;0.6341;1.5928;
1354.8000;0.6341;1.6025;
1355.1000;0.6365;1.6049;
1355.4000;0.6333;1.5928;
1355.7000;0.6341;1.6001;
1356.0000;0.6325;1.6001;
1356.3000;0.6325;1.5928;
1356.6000;0.6325;1.5928;
1356.9000;0.6317;1.5977;
1357.2000;0.6333;1.6001;
1357.5000;0.6292;1.5904;
1357.8000;0.6317;1.5904;
1358.1000;0.6276;1.5687;
1358.4000;0.6325;1.5928;
1358.7000;0.6317;1.5904;
1359.0000;0.6300;1.5880;
1359.3000;0.6300;1.5904;
1359.6000;0.6317;1.5856;
1359.9000;0.6333;1.5856;
1360.2000;0.6333;1.5880;
1360.5000;0.6333;1.5904;
1360.8000;0.6341;1.5880;
1361.1000;0.6349;1.5977;
1361.4000;0.6333;1.5977;
1361.7000;0.6325;1.5952;
1362.0000;0.6333;1.6025;
1362.3000;0.6317;1.5977;
1362.6000;0.6317;1.6001;
1362.9000;0.6333;1.5977;
1363.2000;0.6333;1.6025;
1363.5000;0.6349;1.6097;
1363.8000;0.6325;1.6001;
1364.1000;0.6300;1.5977;
1364.4000;0.6325;1.6025;
1364.7000;0.6325;1.6025;
1365.0000;0.6341;1.6049;
1365.3000;0.6357;1.6146;
1365.6000;0.6333;1.6073;
1365.9000;0.6333;1.6146;
1366.2000;0.6365;1.6194;
1366.5000;0.6325;1.6073;
1366.8000;0.6341;1.6097;
1367.1000;0.6333;1.6025;
1367.4000;0.6300;1.5928;
1367.7000;0.6333;1.5928;
1368.0000;0.6317;1.5928;
1368.3000;0.6341;1.5904;
1368.6000;0.6309;1.5880;
1368.9000;0.6317;1.5880;
1369.2000;0.6309;1.5928;
1369.5000;0.6325;1.6001;
1369.8000;0.6333;1.6001;
1370.1000;0.6357;1.6146;
1370.4000;0.6317;1.6001;
1370.7000;0.6317;1.6001;
1371.0000;0.6317;1.6001;
1371.3000;0.6357;1.6097;
1371.6000;0.6325;1.6025;
1371.9000;0.6325;1.6025;
1372.2000;0.6333;1.6073;
1372.5000;0.6325;1.6049;
1372.8000;0.6333;1.6073;
1373.1000;0.6300;1.6025;
1373.4000;0.6390;1.6267;
1373.7000;0.6325;1.6194;
1374.0000;0.6341;1.6194;
1374.3000;0.6325;1.5977;
1374.6000;0.6317;1.5952;
1374.9000;0.6325;1.5952;
1375.2000;0.6309;1.5904;
1375.5000;0.6325;1.5904;
1375.8000;0.6325;1.5977;
1376.1000;0.6317;1.5952;
1376.4000;0.6341;1.5977;
1376.7000;0.6333;1.5952;
1377.0000;0.6333;1.6049;
1377.3000;0.6333;1.6025;
1377.6000;0.6333;1.6025;
1377.9000;0.6333;1.6001;
1378.2000;0.6325;1.5928;
1378.5000;0.6349;1.5977;
1378.8000;0.6390;1.6097;
1379.1000;0.6357;1.5977;
1379.4000;0.6341;1.5928;
1379.7000;0.6309;1.5880;
1380.0000;0.6333;1.5928;
1380.3000;0.6317;1.5952;
1380.6000;0.6317;1.5880;
1380.9000;0.6325;1.5928;
1381.2000;0.6317;1.5977;
1381.5000;0.6349;1.6049;
1381.8000;0.6333;1.6025;
1382.1000;0.6325;1.5928;
1382.4000;0.6325;1.5880;
1382.7000;0.6333;1.5880;
1383.0000;0.6333;1.5856;
1383.3000;0.6317;1.5856;
1383.6000;0.6317;1.5807;
1383.9000;0.6325;1.5880;
1384.2000;0.6333;1.5928;
1384.5000;0.6317;1.5952;
1384.8000;0.6325;1.6001;
1385.1000;0.6309;1.5904;
1385.4000;0.6325;1.6049;
1385.7000;0.6309;1.6025;
1386.0000;0.6333;1.6049;
1386.3000;0.6317;1.5952;
1386.6000;0.6325;1.5952;
1386.9000;0.6317;1.5904;
1387.2000;0.6325;1.5952;
1387.5000;0.6325;1.6001;
1387.8000;0.6333;1.6001;
1388.1000;0.6325;1.5977;
1388.4000;0.6333;1.5952;
1388.7000;0.6325;1.6025;
1389.0000;0.6333;1.6025;
1389.3000;0.6325;1.6025;
1389.6000;0.6325;1.5952;
1389.9000;0.6309;1.5952;
1390.2000;0.6325;1.6122;
1390.5000;0.6317;1.6049;
1390.8000;0.6325;1.6049;
1391.1000;0.6325;1.5952;
1391.4000;0.6317;1.5977;
1391.7000;0.6333;1.5952;
1392.0000;0.6333;1.5977;
1392.3000;0.6325;1.5977;
1392.6000;0.6317;1.6001;
1392.9000;0.6317;1.6049;
1393.2000;0.6325;1.6001;
1393.5000;0.6309;1.6001;
1393.8000;0.6325;1.6049;
1394.1000;0.6333;1.6001;
1394.4000;0.6317;1.6025;
1394.7000;0.6300;1.6049;
1395.0000;0.6309;1.6122;
1395.3000;0.6349;1.6194;
1395.6000;0.6300;1.6170;
1395.9000;0.6300;1.6170;
1396.2000;0.6325;1.6170;
1396.5000;0.6333;1.6218;
1396.8000;0.6317;1.6170;
1397.1000;0.6333;1.6122;
1397.4000;0.6325;1.6097;
1397.7000;0.6325;1.6170;
1398.0000;0.6325;1.6025;
1398.3000;0.6333;1.6025;
1398.6000;0.6325;1.6025;
1398.9000;0.6325;1.5977;
1399.2000;0.6317;1.6049;
1399.5000;0.6317;1.6073;
1399.8000;0.6317;1.6073;
