time/ms;Fluo/V;P700 deltaI/I x10³;
-199.8000;0.5885;1.4381;
-199.5000;0.5885;1.4212;
-199.2000;0.5877;1.4140;
-198.9000;0.5877;1.4091;
-198.6000;0.5885;1.3970;
-198.3000;0.5893;1.3970;
-198.0000;0.5885;1.3898;
-197.7000;0.5885;1.3874;
-197.4000;0.5902;1.3922;
-197.1000;0.5902;1.3898;
-196.8000;0.5910;1.3970;
-196.5000;0.5893;1.3922;
-196.2000;0.5918;1.3874;
-195.9000;0.5958;1.4043;
-195.6000;0.5926;1.3995;
-195.3000;0.5934;1.3946;
-195.0000;0.5934;1.3970;
-194.7000;0.5934;1.4019;
-194.4000;0.5926;1.3995;
-194.1000;0.5926;1.3922;
-193.8000;0.5934;1.3874;
-193.5000;0.5934;1.3801;
-193.2000;0.5975;1.3946;
-192.9000;0.5934;1.3946;
-192.6000;0.5934;1.3995;
-192.3000;0.5934;1.4043;
-192.0000;0.5877;1.3874;
-191.7000;0.5918;1.3922;
-191.4000;0.5934;1.3922;
-191.1000;0.5942;1.3898;
-190.8000;0.5942;1.3898;
-190.5000;0.5950;1.3850;
-190.2000;0.5934;1.3898;
-189.9000;0.5934;1.3995;
-189.6000;0.5950;1.4019;
-189.3000;0.5958;1.4115;
-189.0000;0.5958;1.4115;
-188.7000;0.5950;1.4067;
-188.4000;0.5999;1.4164;
-188.1000;0.5934;1.4043;
-187.8000;0.5975;1.4115;
-187.5000;0.5975;1.4188;
-187.2000;0.5975;1.4067;
-186.9000;0.5991;1.4043;
-186.6000;0.5983;1.4067;
-186.3000;0.5983;1.3970;
-186.0000;0.5983;1.4067;
-185.7000;0.6015;1.4091;
-185.4000;0.5991;1.3995;
-185.1000;0.5991;1.3970;
-184.8000;0.6007;1.3995;
-184.5000;0.6007;1.3946;
-184.2000;0.6007;1.3898;
-183.9000;0.6007;1.3874;
-183.6000;0.6024;1.3946;
-183.3000;0.6024;1.3995;
-183.0000;0.6040;1.4019;
-182.7000;0.6032;1.3995;
-182.4000;0.6015;1.3970;
-182.1000;0.6007;1.4043;
-181.8000;0.6040;1.4067;
-181.5000;0.6024;1.3970;
-181.2000;0.6007;1.3874;
-180.9000;0.6007;1.3801;
-180.6000;0.6048;1.3801;
-180.3000;0.6040;1.3753;
-180.0000;0.6040;1.3777;
-179.7000;0.6024;1.3850;
-179.4000;0.6040;1.3874;
-179.1000;0.6040;1.3850;
-178.8000;0.6081;1.3946;
-178.5000;0.6056;1.3874;
-178.2000;0.6007;1.3801;
-177.9000;0.6064;1.3874;
-177.6000;0.6056;1.3850;
-177.3000;0.5967;1.3608;
-177.0000;0.6040;1.3825;
-176.7000;0.6056;1.3898;
-176.4000;0.6056;1.3874;
-176.1000;0.6081;1.3825;
-175.8000;0.6081;1.3801;
-175.5000;0.6089;1.3825;
-175.2000;0.6064;1.3777;
-174.9000;0.6089;1.3801;
-174.6000;0.6129;1.3898;
-174.3000;0.6089;1.3801;
-174.0000;0.6081;1.3801;
-173.7000;0.6081;1.3825;
-173.4000;0.6154;1.4043;
-173.1000;0.6097;1.3922;
-172.8000;0.6113;1.3922;
-172.5000;0.6097;1.3850;
-172.2000;0.6089;1.3801;
-171.9000;0.6089;1.3777;
-171.6000;0.6113;1.3825;
-171.3000;0.6097;1.3801;
-171.0000;0.6113;1.3898;
-170.7000;0.6121;1.3874;
-170.4000;0.6121;1.3898;
-170.1000;0.6113;1.3970;
-169.8000;0.6129;1.3946;
-169.5000;0.6129;1.3970;
-169.2000;0.6154;1.3995;
-168.9000;0.6154;1.3995;
-168.6000;0.6129;1.3946;
-168.3000;0.6138;1.4067;
-168.0000;0.6162;1.4043;
-167.7000;0.6138;1.3946;
-167.4000;0.6129;1.3898;
-167.1000;0.6146;1.3850;
-166.8000;0.6170;1.3946;
-166.5000;0.6170;1.3825;
-166.2000;0.6154;1.3801;
-165.9000;0.6154;1.3850;
-165.6000;0.6146;1.3801;
-165.3000;0.6170;1.3850;
-165.0000;0.6170;1.3898;
-164.7000;0.6186;1.3825;
-164.4000;0.6178;1.3777;
-164.1000;0.6195;1.3825;
-163.8000;0.6170;1.3825;
-163.5000;0.6195;1.3874;
-163.2000;0.6186;1.3801;
-162.9000;0.6203;1.3729;
-162.6000;0.6195;1.3705;
-162.3000;0.6195;1.3632;
-162.0000;0.6154;1.3511;
-161.7000;0.6195;1.3584;
-161.4000;0.6195;1.3560;
-161.1000;0.6211;1.3680;
-160.8000;0.6211;1.3729;
-160.5000;0.6211;1.3729;
-160.2000;0.6219;1.3777;
-159.9000;0.6227;1.3850;
-159.6000;0.6195;1.3753;
-159.3000;0.6219;1.3777;
-159.0000;0.6235;1.3729;
-158.7000;0.6243;1.3729;
-158.4000;0.6227;1.3680;
-158.1000;0.6227;1.3705;
-157.8000;0.6227;1.3608;
-157.5000;0.6252;1.3680;
-157.2000;0.6243;1.3680;
-156.9000;0.6211;1.3680;
-156.6000;0.6292;1.3874;
-156.3000;0.6260;1.3753;
-156.0000;0.6252;1.3729;
-155.7000;0.6252;1.3753;
-155.4000;0.6268;1.3777;
-155.1000;0.6276;1.3729;
-154.8000;0.6276;1.3753;
-154.5000;0.6292;1.3753;
-154.2000;0.6235;1.3632;
-153.9000;0.6276;1.3705;
-153.6000;0.6284;1.3656;
-153.3000;0.6292;1.3729;
-153.0000;0.6317;1.3825;
-152.7000;0.6317;1.3801;
-152.4000;0.6292;1.3753;
-152.1000;0.6325;1.3729;
-151.8000;0.6292;1.3729;
-151.5000;0.6317;1.3729;
-151.2000;0.6333;1.3825;
-150.9000;0.6300;1.3729;
-150.6000;0.6333;1.3729;
-150.3000;0.6317;1.3680;
-150.0000;0.6341;1.3729;
-149.7000;0.6317;1.3729;
-149.4000;0.6325;1.3777;
-149.1000;0.6341;1.3874;
-148.8000;0.6341;1.3874;
-148.5000;0.6357;1.3777;
-148.2000;0.6357;1.3874;
-147.9000;0.6406;1.3874;
-147.6000;0.6357;1.3753;
-147.3000;0.6357;1.3729;
-147.0000;0.6398;1.3850;
-146.7000;0.6357;1.3777;
-146.4000;0.6374;1.3874;
-146.1000;0.6365;1.3825;
-145.8000;0.6382;1.3801;
-145.5000;0.6357;1.3705;
-145.2000;0.6374;1.3801;
-144.9000;0.6398;1.3850;
-144.6000;0.6398;1.3801;
-144.3000;0.6390;1.3801;
-144.0000;0.6390;1.3825;
-143.7000;0.6398;1.3898;
-143.4000;0.6422;1.3922;
-143.1000;0.6414;1.3850;
-142.8000;0.6406;1.3753;
-142.5000;0.6398;1.3801;
-142.2000;0.6439;1.3874;
-141.9000;0.6357;1.3729;
-141.6000;0.6406;1.3825;
-141.3000;0.6431;1.3850;
-141.0000;0.6398;1.3898;
-140.7000;0.6414;1.3850;
-140.4000;0.6422;1.3825;
-140.1000;0.6414;1.3850;
-139.8000;0.6439;1.3874;
-139.5000;0.6414;1.3825;
-139.2000;0.6422;1.3753;
-138.9000;0.6479;1.3825;
-138.6000;0.6463;1.3801;
-138.3000;0.6471;1.3825;
-138.0000;0.6455;1.3777;
-137.7000;0.6447;1.3753;
-137.4000;0.6479;1.3825;
-137.1000;0.6479;1.3825;
-136.8000;0.6463;1.3777;
-136.5000;0.6471;1.3801;
-136.2000;0.6479;1.3874;
-135.9000;0.6471;1.3850;
-135.6000;0.6488;1.3850;
-135.3000;0.6496;1.3825;
-135.0000;0.6512;1.3874;
-134.7000;0.6504;1.3777;
-134.4000;0.6504;1.3729;
-134.1000;0.6496;1.3729;
-133.8000;0.6504;1.3753;
-133.5000;0.6520;1.3801;
-133.2000;0.6512;1.3801;
-132.9000;0.6528;1.3850;
-132.6000;0.6488;1.3777;
-132.3000;0.6528;1.3922;
-132.0000;0.6553;1.3874;
-131.7000;0.6545;1.3850;
-131.4000;0.6528;1.3777;
-131.1000;0.6545;1.3825;
-130.8000;0.6561;1.3825;
-130.5000;0.6561;1.3850;
-130.2000;0.6553;1.3753;
-129.9000;0.6536;1.3632;
-129.6000;0.6577;1.3705;
-129.3000;0.6569;1.3680;
-129.0000;0.6561;1.3680;
-128.7000;0.6561;1.3753;
-128.4000;0.6585;1.3705;
-128.1000;0.6577;1.3656;
-127.8000;0.6569;1.3656;
-127.5000;0.6585;1.3705;
-127.2000;0.6602;1.3680;
-126.9000;0.6593;1.3680;
-126.6000;0.6585;1.3656;
-126.3000;0.6577;1.3608;
-126.0000;0.6593;1.3632;
-125.7000;0.6602;1.3656;
-125.4000;0.6593;1.3753;
-125.1000;0.6618;1.3801;
-124.8000;0.6618;1.3801;
-124.5000;0.6577;1.3632;
-124.2000;0.6610;1.3680;
-123.9000;0.6610;1.3656;
-123.6000;0.6618;1.3656;
-123.3000;0.6618;1.3608;
-123.0000;0.6642;1.3656;
-122.7000;0.6707;1.3850;
-122.4000;0.6626;1.3705;
-122.1000;0.6667;1.3729;
-121.8000;0.6667;1.3729;
-121.5000;0.6659;1.3801;
-121.2000;0.6650;1.3753;
-120.9000;0.6667;1.3729;
-120.6000;0.6650;1.3729;
-120.3000;0.6683;1.3753;
-120.0000;0.6667;1.3729;
-119.7000;0.6675;1.3753;
-119.4000;0.6675;1.3825;
-119.1000;0.6691;1.3825;
-118.8000;0.6659;1.3753;
-118.5000;0.6675;1.3705;
-118.2000;0.6699;1.3825;
-117.9000;0.6683;1.3825;
-117.6000;0.6699;1.3801;
-117.3000;0.6707;1.3850;
-117.0000;0.6707;1.3801;
-116.7000;0.6716;1.3753;
-116.4000;0.6683;1.3680;
-116.1000;0.6707;1.3801;
-115.8000;0.6724;1.3850;
-115.5000;0.6748;1.3922;
-115.2000;0.6724;1.3753;
-114.9000;0.6716;1.3801;
-114.6000;0.6716;1.3898;
-114.3000;0.6732;1.3922;
-114.0000;0.6732;1.3922;
-113.7000;0.6724;1.3946;
-113.4000;0.6740;1.3898;
-113.1000;0.6756;1.3922;
-112.8000;0.6732;1.3825;
-112.5000;0.6756;1.3801;
-112.2000;0.6748;1.3705;
-111.9000;0.6756;1.3801;
-111.6000;0.6772;1.3801;
-111.3000;0.6781;1.3753;
-111.0000;0.6764;1.3729;
-110.7000;0.6756;1.3608;
-110.4000;0.6764;1.3608;
-110.1000;0.6797;1.3729;
-109.8000;0.6764;1.3729;
-109.5000;0.6789;1.3753;
-109.2000;0.6797;1.3729;
-108.9000;0.6805;1.3656;
-108.6000;0.6797;1.3656;
-108.3000;0.6813;1.3729;
-108.0000;0.6829;1.3729;
-107.7000;0.6821;1.3608;
-107.4000;0.6821;1.3632;
-107.1000;0.6797;1.3584;
-106.8000;0.6854;1.3777;
-106.5000;0.6829;1.3729;
-106.2000;0.6821;1.3608;
-105.9000;0.6846;1.3560;
-105.6000;0.6829;1.3560;
-105.3000;0.6862;1.3608;
-105.0000;0.6846;1.3560;
-104.7000;0.6862;1.3560;
-104.4000;0.6838;1.3463;
-104.1000;0.6854;1.3463;
-103.8000;0.6854;1.3560;
-103.5000;0.6870;1.3560;
-103.2000;0.6862;1.3560;
-102.9000;0.6862;1.3632;
-102.6000;0.6862;1.3705;
-102.3000;0.6854;1.3705;
-102.0000;0.6895;1.3825;
-101.7000;0.6878;1.3656;
-101.4000;0.6886;1.3608;
-101.1000;0.6870;1.3656;
-100.8000;0.6878;1.3656;
-100.5000;0.6878;1.3584;
-100.2000;0.6903;1.3656;
-99.9000;0.6895;1.3656;
-99.6000;0.6878;1.3535;
-99.3000;0.6903;1.3535;
-99.0000;0.6911;1.3535;
-98.7000;0.6919;1.3511;
-98.4000;0.6911;1.3560;
-98.1000;0.6927;1.3656;
-97.8000;0.6943;1.3705;
-97.5000;0.6919;1.3632;
-97.2000;0.6935;1.3705;
-96.9000;0.6935;1.3729;
-96.6000;0.6935;1.3801;
-96.3000;0.6952;1.3850;
-96.0000;0.6935;1.3753;
-95.7000;0.6984;1.3777;
-95.4000;0.6952;1.3777;
-95.1000;0.6976;1.3850;
-94.8000;0.6976;1.3753;
-94.5000;0.6952;1.3680;
-94.2000;0.6943;1.3656;
-93.9000;0.6960;1.3680;
-93.6000;0.6968;1.3680;
-93.3000;0.6960;1.3632;
-93.0000;0.6968;1.3656;
-92.7000;0.6976;1.3729;
-92.4000;0.6984;1.3753;
-92.1000;0.6984;1.3753;
-91.8000;0.7033;1.3922;
-91.5000;0.6992;1.3825;
-91.2000;0.6992;1.3729;
-90.9000;0.7017;1.3825;
-90.6000;0.6976;1.3777;
-90.3000;0.6984;1.3777;
-90.0000;0.7009;1.3801;
-89.7000;0.7000;1.3656;
-89.4000;0.7000;1.3656;
-89.1000;0.7009;1.3608;
-88.8000;0.7041;1.3656;
-88.5000;0.7033;1.3705;
-88.2000;0.7009;1.3632;
-87.9000;0.7017;1.3656;
-87.6000;0.7025;1.3632;
-87.3000;0.7049;1.3705;
-87.0000;0.7147;1.3922;
-86.7000;0.7049;1.3705;
-86.4000;0.7049;1.3729;
-86.1000;0.7066;1.3777;
-85.8000;0.7066;1.3825;
-85.5000;0.7066;1.3753;
-85.2000;0.7066;1.3777;
-84.9000;0.7082;1.3874;
-84.6000;0.7066;1.3922;
-84.3000;0.7049;1.3753;
-84.0000;0.7090;1.3801;
-83.7000;0.7057;1.3705;
-83.4000;0.7082;1.3753;
-83.1000;0.7090;1.3753;
-82.8000;0.7131;1.3825;
-82.5000;0.7106;1.3705;
-82.2000;0.7114;1.3825;
-81.9000;0.7106;1.3777;
-81.6000;0.7106;1.3850;
-81.3000;0.7114;1.3753;
-81.0000;0.7114;1.3705;
-80.7000;0.7131;1.3753;
-80.4000;0.7114;1.3680;
-80.1000;0.7123;1.3656;
-79.8000;0.7123;1.3680;
-79.5000;0.7106;1.3656;
-79.2000;0.7131;1.3729;
-78.9000;0.7188;1.3874;
-78.6000;0.7139;1.3729;
-78.3000;0.7131;1.3632;
-78.0000;0.7147;1.3584;
-77.7000;0.7147;1.3535;
-77.4000;0.7155;1.3584;
-77.1000;0.7155;1.3632;
-76.8000;0.7155;1.3584;
-76.5000;0.7147;1.3584;
-76.2000;0.7098;1.3463;
-75.9000;0.7179;1.3680;
-75.6000;0.7179;1.3656;
-75.3000;0.7171;1.3632;
-75.0000;0.7179;1.3656;
-74.7000;0.7188;1.3560;
-74.4000;0.7196;1.3560;
-74.1000;0.7204;1.3608;
-73.8000;0.7212;1.3560;
-73.5000;0.7196;1.3535;
-73.2000;0.7212;1.3584;
-72.9000;0.7204;1.3560;
-72.6000;0.7188;1.3511;
-72.3000;0.7212;1.3632;
-72.0000;0.7204;1.3632;
-71.7000;0.7179;1.3463;
-71.4000;0.7228;1.3487;
-71.1000;0.7212;1.3415;
-70.8000;0.7245;1.3463;
-70.5000;0.7228;1.3584;
-70.2000;0.7236;1.3705;
-69.9000;0.7204;1.3729;
-69.6000;0.7228;1.3801;
-69.3000;0.7228;1.3777;
-69.0000;0.7228;1.3729;
-68.7000;0.7245;1.3825;
-68.4000;0.7236;1.3850;
-68.1000;0.7253;1.3777;
-67.8000;0.7261;1.3777;
-67.5000;0.7253;1.3777;
-67.2000;0.7269;1.3777;
-66.9000;0.7342;1.3946;
-66.6000;0.7285;1.3825;
-66.3000;0.7277;1.3753;
-66.0000;0.7269;1.3729;
-65.7000;0.7277;1.3705;
-65.4000;0.7293;1.3680;
-65.1000;0.7277;1.3680;
-64.8000;0.7310;1.3729;
-64.5000;0.7302;1.3608;
-64.2000;0.7293;1.3608;
-63.9000;0.7277;1.3535;
-63.6000;0.7302;1.3608;
-63.3000;0.7310;1.3632;
-63.0000;0.7318;1.3632;
-62.7000;0.7310;1.3632;
-62.4000;0.7326;1.3608;
-62.1000;0.7318;1.3487;
-61.8000;0.7326;1.3511;
-61.5000;0.7342;1.3608;
-61.2000;0.7350;1.3560;
-60.9000;0.7326;1.3535;
-60.6000;0.7342;1.3608;
-60.3000;0.7342;1.3535;
-60.0000;0.7342;1.3560;
-59.7000;0.7367;1.3487;
-59.4000;0.7334;1.3487;
-59.1000;0.7334;1.3463;
-58.8000;0.7318;1.3439;
-58.5000;0.7334;1.3439;
-58.2000;0.7326;1.3463;
-57.9000;0.7359;1.3584;
-57.6000;0.7367;1.3584;
-57.3000;0.7342;1.3463;
-57.0000;0.7359;1.3584;
-56.7000;0.7367;1.3584;
-56.4000;0.7375;1.3584;
-56.1000;0.7375;1.3511;
-55.8000;0.7375;1.3439;
-55.5000;0.7407;1.3584;
-55.2000;0.7391;1.3560;
-54.9000;0.7383;1.3608;
-54.6000;0.7416;1.3656;
-54.3000;0.7399;1.3729;
-54.0000;0.7399;1.3801;
-53.7000;0.7416;1.3705;
-53.4000;0.7318;1.3390;
-53.1000;0.7416;1.3656;
-52.8000;0.7391;1.3584;
-52.5000;0.7416;1.3680;
-52.2000;0.7416;1.3680;
-51.9000;0.7416;1.3705;
-51.6000;0.7448;1.3705;
-51.3000;0.7432;1.3632;
-51.0000;0.7440;1.3632;
-50.7000;0.7448;1.3632;
-50.4000;0.7432;1.3560;
-50.1000;0.7448;1.3680;
-49.8000;0.7473;1.3656;
-49.5000;0.7473;1.3632;
-49.2000;0.7481;1.3608;
-48.9000;0.7432;1.3560;
-48.6000;0.7432;1.3511;
-48.3000;0.7464;1.3584;
-48.0000;0.7473;1.3584;
-47.7000;0.7473;1.3560;
-47.4000;0.7489;1.3560;
-47.1000;0.7464;1.3511;
-46.8000;0.7440;1.3560;
-46.5000;0.7489;1.3705;
-46.2000;0.7473;1.3656;
-45.9000;0.7432;1.3560;
-45.6000;0.7448;1.3535;
-45.3000;0.7505;1.3705;
-45.0000;0.7505;1.3705;
-44.7000;0.7562;1.3753;
-44.4000;0.7505;1.3584;
-44.1000;0.7505;1.3656;
-43.8000;0.7554;1.3777;
-43.5000;0.7513;1.3680;
-43.2000;0.7497;1.3680;
-42.9000;0.7473;1.3632;
-42.6000;0.7530;1.3729;
-42.3000;0.7505;1.3632;
-42.0000;0.7521;1.3632;
-41.7000;0.7530;1.3705;
-41.4000;0.7538;1.3777;
-41.1000;0.7530;1.3680;
-40.8000;0.7538;1.3705;
-40.5000;0.7546;1.3753;
-40.2000;0.7562;1.3729;
-39.9000;0.7554;1.3705;
-39.6000;0.7562;1.3656;
-39.3000;0.7546;1.3511;
-39.0000;0.7586;1.3608;
-38.7000;0.7562;1.3584;
-38.4000;0.7554;1.3584;
-38.1000;0.7562;1.3584;
-37.8000;0.7586;1.3608;
-37.5000;0.7570;1.3560;
-37.2000;0.7578;1.3656;
-36.9000;0.7554;1.3584;
-36.6000;0.7595;1.3608;
-36.3000;0.7578;1.3560;
-36.0000;0.7586;1.3535;
-35.7000;0.7595;1.3463;
-35.4000;0.7603;1.3535;
-35.1000;0.7546;1.3390;
-34.8000;0.7538;1.3415;
-34.5000;0.7595;1.3560;
-34.2000;0.7619;1.3680;
-33.9000;0.7627;1.3608;
-33.6000;0.7586;1.3560;
-33.3000;0.7611;1.3608;
-33.0000;0.7595;1.3511;
-32.7000;0.7611;1.3560;
-32.4000;0.7627;1.3511;
-32.1000;0.7619;1.3511;
-31.8000;0.7627;1.3487;
-31.5000;0.7635;1.3560;
-31.2000;0.7643;1.3632;
-30.9000;0.7635;1.3632;
-30.6000;0.7635;1.3560;
-30.3000;0.7643;1.3487;
-30.0000;0.7652;1.3535;
-29.7000;0.7660;1.3656;
-29.4000;0.7652;1.3608;
-29.1000;0.7668;1.3560;
-28.8000;0.7700;1.3584;
-28.5000;0.7652;1.3439;
-28.2000;0.7652;1.3439;
-27.9000;0.7627;1.3415;
-27.6000;0.7676;1.3415;
-27.3000;0.7684;1.3390;
-27.0000;0.7668;1.3390;
-26.7000;0.7627;1.3270;
-26.4000;0.7676;1.3439;
-26.1000;0.7652;1.3463;
-25.8000;0.7766;1.3680;
-25.5000;0.7668;1.3415;
-25.2000;0.7676;1.3342;
-24.9000;0.7717;1.3390;
-24.6000;0.7725;1.3415;
-24.3000;0.7709;1.3366;
-24.0000;0.7725;1.3535;
-23.7000;0.7709;1.3560;
-23.4000;0.7709;1.3535;
-23.1000;0.7709;1.3560;
-22.8000;0.7798;1.3874;
-22.5000;0.7709;1.3705;
-22.2000;0.7725;1.3729;
-21.9000;0.7692;1.3656;
-21.6000;0.7684;1.3705;
-21.3000;0.7717;1.3656;
-21.0000;0.7725;1.3632;
-20.7000;0.7725;1.3656;
-20.4000;0.7725;1.3656;
-20.1000;0.7733;1.3584;
-19.8000;0.7733;1.3632;
-19.5000;0.7725;1.3560;
-19.2000;0.7733;1.3487;
-18.9000;0.7741;1.3439;
-18.6000;0.7733;1.3463;
-18.3000;0.7733;1.3390;
-18.0000;0.7741;1.3390;
-17.7000;0.7741;1.3439;
-17.4000;0.7749;1.3439;
-17.1000;0.7757;1.3487;
-16.8000;0.7766;1.3390;
-16.5000;0.7774;1.3390;
-16.2000;0.7766;1.3342;
-15.9000;0.7757;1.3366;
-15.6000;0.7782;1.3511;
-15.3000;0.7774;1.3560;
-15.0000;0.7725;1.3415;
-14.7000;0.7782;1.3560;
-14.4000;0.7790;1.3560;
-14.1000;0.7774;1.3535;
-13.8000;0.7774;1.3511;
-13.5000;0.7798;1.3584;
-13.2000;0.7798;1.3535;
-12.9000;0.7790;1.3463;
-12.6000;0.7798;1.3439;
-12.3000;0.7806;1.3439;
-12.0000;0.7798;1.3415;
-11.7000;0.7790;1.3390;
-11.4000;0.7806;1.3439;
-11.1000;0.7774;1.3390;
-10.8000;0.7766;1.3342;
-10.5000;0.7823;1.3366;
-10.2000;0.7814;1.3318;
-9.9000;0.7831;1.3366;
-9.6000;0.7831;1.3415;
-9.3000;0.7814;1.3535;
-9.0000;0.7814;1.3511;
-8.7000;0.7814;1.3535;
-8.4000;0.7831;1.3608;
-8.1000;0.7814;1.3584;
-7.8000;0.7823;1.3608;
-7.5000;0.7782;1.3535;
-7.2000;0.7839;1.3632;
-6.9000;0.7888;1.3825;
-6.6000;0.7847;1.3705;
-6.3000;0.7814;1.3632;
-6.0000;0.7831;1.3632;
-5.7000;0.7888;1.3632;
-5.4000;0.7847;1.3463;
-5.1000;0.7839;1.3390;
-4.8000;0.7855;1.3415;
-4.5000;0.7880;1.3415;
-4.2000;0.7863;1.3390;
-3.9000;0.7855;1.3366;
-3.6000;0.7855;1.3294;
-3.3000;0.7880;1.3342;
-3.0000;0.7888;1.3342;
-2.7000;0.7880;1.3366;
-2.4000;0.7863;1.3342;
-2.1000;0.7880;1.3342;
-1.8000;0.7880;1.3366;
-1.5000;0.7888;1.3390;
-1.2000;0.7888;1.3390;
-0.9000;0.7896;1.3415;
-0.6000;0.7904;1.3390;
-0.3000;0.7912;1.3415;
0.0000;0.7912;1.3415;
0.3000;0.8197;1.3487;
0.6000;0.8824;1.4212;
0.9000;0.9288;1.4696;
1.2000;0.9711;1.5106;
1.5000;1.0012;1.5372;
1.8000;1.0281;1.5687;
2.1000;1.0476;1.6001;
2.4000;1.0639;1.6291;
2.7000;1.0761;1.6387;
3.0000;1.0867;1.6557;
3.3000;1.0981;1.6702;
3.6000;1.1070;1.6774;
3.9000;1.1127;1.6847;
4.2000;1.1193;1.6919;
4.5000;1.1258;1.6895;
4.8000;1.1298;1.6919;
5.1000;1.1363;1.6968;
5.4000;1.1404;1.6992;
5.7000;1.1461;1.7064;
6.0000;1.1494;1.7064;
6.3000;1.1510;1.7064;
6.6000;1.1559;1.7113;
6.9000;1.1608;1.7161;
7.2000;1.1567;1.6992;
7.5000;1.1665;1.7185;
7.8000;1.1673;1.7185;
8.1000;1.1730;1.7185;
8.4000;1.1787;1.7185;
8.7000;1.1795;1.7113;
9.0000;1.1803;1.7161;
9.3000;1.1819;1.7064;
9.6000;1.1868;1.7113;
9.9000;1.1909;1.7137;
10.2000;1.1909;1.7088;
10.5000;1.1941;1.7088;
10.8000;1.1990;1.7064;
11.1000;1.1998;1.7088;
11.4000;1.2023;1.7088;
11.7000;1.2031;1.7137;
12.0000;1.2063;1.7064;
12.3000;1.2104;1.6992;
12.6000;1.2120;1.6943;
12.9000;1.2153;1.6919;
13.2000;1.2161;1.6968;
13.5000;1.2177;1.6895;
13.8000;1.2194;1.6871;
14.1000;1.2234;1.6847;
14.4000;1.2283;1.6992;
14.7000;1.2275;1.6895;
15.0000;1.2283;1.6895;
15.3000;1.2300;1.6919;
15.6000;1.2316;1.6919;
15.9000;1.2348;1.6992;
16.2000;1.2365;1.6992;
16.5000;1.2381;1.6847;
16.8000;1.2405;1.6895;
17.1000;1.2430;1.6943;
17.4000;1.2438;1.6943;
17.7000;1.2454;1.6943;
18.0000;1.2470;1.6871;
18.3000;1.2487;1.6823;
18.6000;1.2503;1.6871;
18.9000;1.2519;1.6919;
19.2000;1.2527;1.6919;
19.5000;1.2552;1.6847;
19.8000;1.2576;1.6919;
20.1000;1.2576;1.6919;
20.4000;1.2609;1.6968;
20.7000;1.2641;1.7064;
21.0000;1.2633;1.6968;
21.3000;1.2658;1.6992;
21.6000;1.2650;1.6871;
21.9000;1.2658;1.6823;
22.2000;1.2715;1.6823;
22.5000;1.2690;1.6653;
22.8000;1.2698;1.6605;
23.1000;1.2707;1.6532;
23.4000;1.2723;1.6460;
23.7000;1.2755;1.6557;
24.0000;1.2690;1.6387;
24.3000;1.2755;1.6532;
24.6000;1.2764;1.6581;
24.9000;1.2780;1.6557;
25.2000;1.2796;1.6557;
25.5000;1.2821;1.6484;
25.8000;1.2804;1.6460;
26.1000;1.2812;1.6557;
26.4000;1.2812;1.6605;
26.7000;1.2837;1.6605;
27.0000;1.2812;1.6581;
27.3000;1.2853;1.6653;
27.6000;1.2861;1.6581;
27.9000;1.2869;1.6653;
28.2000;1.2894;1.6678;
28.5000;1.2894;1.6653;
28.8000;1.2910;1.6629;
29.1000;1.2845;1.6460;
29.4000;1.2918;1.6629;
29.7000;1.2918;1.6605;
30.0000;1.2934;1.6653;
30.3000;1.2951;1.6653;
30.6000;1.2943;1.6581;
30.9000;1.2959;1.6508;
31.2000;1.2967;1.6508;
31.5000;1.2983;1.6484;
31.8000;1.3024;1.6484;
32.1000;1.2991;1.6460;
32.4000;1.2975;1.6484;
32.7000;1.3008;1.6460;
33.0000;1.2943;1.6122;
33.3000;1.2967;1.6122;
33.6000;1.3024;1.6267;
33.9000;1.3057;1.6267;
34.2000;1.3040;1.6242;
34.5000;1.3040;1.6242;
34.8000;1.3032;1.6242;
35.1000;1.3048;1.6363;
35.4000;1.3057;1.6412;
35.7000;1.3057;1.6412;
36.0000;1.3057;1.6291;
36.3000;1.3073;1.6267;
36.6000;1.3081;1.6412;
36.9000;1.3081;1.6460;
37.2000;1.3065;1.6291;
37.5000;1.3097;1.6315;
37.8000;1.3105;1.6339;
38.1000;1.3097;1.6170;
38.4000;1.3065;1.6097;
38.7000;1.3105;1.6218;
39.0000;1.3138;1.6242;
39.3000;1.3154;1.6267;
39.6000;1.3122;1.6218;
39.9000;1.3114;1.6291;
40.2000;1.3146;1.6363;
40.5000;1.3154;1.6436;
40.8000;1.3162;1.6484;
41.1000;1.3179;1.6532;
41.4000;1.3211;1.6678;
41.7000;1.3179;1.6605;
42.0000;1.3187;1.6532;
42.3000;1.3171;1.6436;
42.6000;1.3187;1.6412;
42.9000;1.3203;1.6363;
43.2000;1.3187;1.6412;
43.5000;1.3203;1.6387;
43.8000;1.3195;1.6315;
44.1000;1.3211;1.6363;
44.4000;1.3236;1.6460;
44.7000;1.3203;1.6436;
45.0000;1.3203;1.6412;
45.3000;1.3211;1.6412;
45.6000;1.3187;1.6315;
45.9000;1.3236;1.6363;
46.2000;1.3244;1.6291;
46.5000;1.3236;1.6291;
46.8000;1.3244;1.6242;
47.1000;1.3268;1.6387;
47.4000;1.3276;1.6363;
47.7000;1.3252;1.6339;
48.0000;1.3236;1.6315;
48.3000;1.3252;1.6387;
48.6000;1.3333;1.6557;
48.9000;1.3252;1.6363;
49.2000;1.3260;1.6387;
49.5000;1.3276;1.6387;
49.8000;1.3268;1.6291;
50.1000;1.3252;1.6218;
50.4000;1.3276;1.6242;
50.7000;1.3284;1.6242;
51.0000;1.3276;1.6242;
51.3000;1.3284;1.6170;
51.6000;1.3276;1.6146;
51.9000;1.3293;1.6146;
52.2000;1.3309;1.6194;
52.5000;1.3293;1.6049;
52.8000;1.3309;1.6146;
53.1000;1.3268;1.6049;
53.4000;1.3293;1.6170;
53.7000;1.3301;1.6097;
54.0000;1.3309;1.6049;
54.3000;1.3317;1.6001;
54.6000;1.3317;1.6073;
54.9000;1.3317;1.6073;
55.2000;1.3317;1.6025;
55.5000;1.3325;1.6097;
55.8000;1.3325;1.6218;
56.1000;1.3333;1.6315;
56.4000;1.3325;1.6315;
56.7000;1.3309;1.6194;
57.0000;1.3341;1.6194;
57.3000;1.3317;1.6122;
57.6000;1.3358;1.6267;
57.9000;1.3374;1.6218;
58.2000;1.3366;1.6242;
58.5000;1.3366;1.6267;
58.8000;1.3358;1.6170;
59.1000;1.3366;1.6097;
59.4000;1.3341;1.5977;
59.7000;1.3358;1.5952;
60.0000;1.3374;1.6001;
60.3000;1.3350;1.6001;
60.6000;1.3366;1.5977;
60.9000;1.3358;1.6025;
61.2000;1.3366;1.6025;
61.5000;1.3423;1.6170;
61.8000;1.3374;1.6049;
62.1000;1.3366;1.6049;
62.4000;1.3350;1.6122;
62.7000;1.3390;1.6122;
63.0000;1.3407;1.6194;
63.3000;1.3390;1.6073;
63.6000;1.3398;1.6073;
63.9000;1.3382;1.5977;
64.2000;1.3390;1.5952;
64.5000;1.3431;1.5977;
64.8000;1.3390;1.5904;
65.1000;1.3382;1.5880;
65.4000;1.3455;1.6049;
65.7000;1.3374;1.5832;
66.0000;1.3398;1.5856;
66.3000;1.3398;1.5928;
66.6000;1.3415;1.5977;
66.9000;1.3407;1.6049;
67.2000;1.3431;1.6122;
67.5000;1.3407;1.5977;
67.8000;1.3423;1.6025;
68.1000;1.3431;1.5952;
68.4000;1.3447;1.5928;
68.7000;1.3423;1.5952;
69.0000;1.3423;1.5904;
69.3000;1.3447;1.5977;
69.6000;1.3431;1.6025;
69.9000;1.3423;1.6025;
70.2000;1.3398;1.5856;
70.5000;1.3398;1.5880;
70.8000;1.3455;1.5977;
71.1000;1.3423;1.5783;
71.4000;1.3398;1.5735;
71.7000;1.3431;1.5807;
72.0000;1.3512;1.6001;
72.3000;1.3447;1.5832;
72.6000;1.3447;1.5783;
72.9000;1.3423;1.5687;
73.2000;1.3488;1.5928;
73.5000;1.3447;1.5856;
73.8000;1.3455;1.5856;
74.1000;1.3464;1.5832;
74.4000;1.3447;1.5880;
74.7000;1.3447;1.5880;
75.0000;1.3447;1.5856;
75.3000;1.3431;1.5783;
75.6000;1.3455;1.5711;
75.9000;1.3439;1.5590;
76.2000;1.3464;1.5638;
76.5000;1.3447;1.5638;
76.8000;1.3455;1.5638;
77.1000;1.3455;1.5590;
77.4000;1.3472;1.5638;
77.7000;1.3464;1.5614;
78.0000;1.3488;1.5735;
78.3000;1.3464;1.5662;
78.6000;1.3472;1.5687;
78.9000;1.3455;1.5662;
79.2000;1.3472;1.5687;
79.5000;1.3480;1.5711;
79.8000;1.3488;1.5638;
80.1000;1.3480;1.5566;
80.4000;1.3472;1.5566;
80.7000;1.3488;1.5638;
81.0000;1.3488;1.5590;
81.3000;1.3455;1.5517;
81.6000;1.3472;1.5638;
81.9000;1.3480;1.5662;
82.2000;1.3488;1.5638;
82.5000;1.3455;1.5614;
82.8000;1.3496;1.5783;
83.1000;1.3496;1.5735;
83.4000;1.3488;1.5638;
83.7000;1.3504;1.5638;
84.0000;1.3529;1.5638;
84.3000;1.3439;1.5421;
84.6000;1.3447;1.5421;
84.9000;1.3488;1.5614;
85.2000;1.3553;1.5711;
85.5000;1.3521;1.5638;
85.8000;1.3504;1.5542;
86.1000;1.3496;1.5517;
86.4000;1.3537;1.5590;
86.7000;1.3496;1.5493;
87.0000;1.3488;1.5421;
87.3000;1.3569;1.5566;
87.6000;1.3529;1.5517;
87.9000;1.3512;1.5493;
88.2000;1.3504;1.5493;
88.5000;1.3553;1.5566;
88.8000;1.3504;1.5469;
89.1000;1.3521;1.5493;
89.4000;1.3496;1.5445;
89.7000;1.3512;1.5445;
90.0000;1.3521;1.5469;
90.3000;1.3504;1.5469;
90.6000;1.3504;1.5469;
90.9000;1.3504;1.5396;
91.2000;1.3512;1.5396;
91.5000;1.3504;1.5348;
91.8000;1.3504;1.5372;
92.1000;1.3464;1.5348;
92.4000;1.3512;1.5445;
92.7000;1.3529;1.5517;
93.0000;1.3529;1.5445;
93.3000;1.3504;1.5348;
93.6000;1.3521;1.5396;
93.9000;1.3496;1.5372;
94.2000;1.3488;1.5300;
94.5000;1.3521;1.5372;
94.8000;1.3512;1.5396;
95.1000;1.3545;1.5493;
95.4000;1.3537;1.5493;
95.7000;1.3521;1.5469;
96.0000;1.3529;1.5517;
96.3000;1.3504;1.5348;
96.6000;1.3537;1.5517;
96.9000;1.3529;1.5566;
97.2000;1.3553;1.5590;
97.5000;1.3537;1.5493;
97.8000;1.3553;1.5493;
98.1000;1.3545;1.5517;
98.4000;1.3569;1.5590;
98.7000;1.3529;1.5517;
99.0000;1.3545;1.5566;
99.3000;1.3561;1.5566;
99.6000;1.3545;1.5566;
99.9000;1.3545;1.5614;
100.2000;1.3635;1.5904;
100.5000;1.3545;1.5614;
100.8000;1.3521;1.5517;
101.1000;1.3537;1.5421;
101.4000;1.3578;1.5372;
101.7000;1.3561;1.5348;
102.0000;1.3569;1.5300;
102.3000;1.3553;1.5203;
102.6000;1.3553;1.5082;
102.9000;1.3545;1.5082;
103.2000;1.3635;1.5227;
103.5000;1.3569;1.5082;
103.8000;1.3561;1.5131;
104.1000;1.3569;1.5179;
104.4000;1.3561;1.5227;
104.7000;1.3545;1.5300;
105.0000;1.3553;1.5324;
105.3000;1.3521;1.5348;
105.6000;1.3569;1.5445;
105.9000;1.3569;1.5445;
106.2000;1.3537;1.5396;
106.5000;1.3578;1.5445;
106.8000;1.3561;1.5421;
107.1000;1.3561;1.5469;
107.4000;1.3569;1.5445;
107.7000;1.3561;1.5421;
108.0000;1.3561;1.5493;
108.3000;1.3578;1.5445;
108.6000;1.3569;1.5421;
108.9000;1.3553;1.5396;
109.2000;1.3578;1.5493;
109.5000;1.3569;1.5469;
109.8000;1.3578;1.5517;
110.1000;1.3569;1.5493;
110.4000;1.3578;1.5493;
110.7000;1.3586;1.5469;
111.0000;1.3578;1.5445;
111.3000;1.3610;1.5517;
111.6000;1.3569;1.5445;
111.9000;1.3578;1.5542;
112.2000;1.3586;1.5542;
112.5000;1.3578;1.5469;
112.8000;1.3561;1.5445;
113.1000;1.3561;1.5590;
113.4000;1.3569;1.5566;
113.7000;1.3561;1.5517;
114.0000;1.3561;1.5542;
114.3000;1.3586;1.5638;
114.6000;1.3586;1.5566;
114.9000;1.3578;1.5445;
115.2000;1.3586;1.5324;
115.5000;1.3578;1.5276;
115.8000;1.3578;1.5324;
116.1000;1.3512;1.5131;
116.4000;1.3569;1.5324;
116.7000;1.3561;1.5348;
117.0000;1.3578;1.5372;
117.3000;1.3569;1.5445;
117.6000;1.3578;1.5469;
117.9000;1.3578;1.5421;
118.2000;1.3553;1.5324;
118.5000;1.3586;1.5445;
118.8000;1.3578;1.5469;
119.1000;1.3578;1.5469;
119.4000;1.3602;1.5493;
119.7000;1.3594;1.5445;
120.0000;1.3578;1.5421;
120.3000;1.3586;1.5445;
120.6000;1.3594;1.5445;
120.9000;1.3602;1.5421;
121.2000;1.3586;1.5324;
121.5000;1.3594;1.5372;
121.8000;1.3594;1.5348;
122.1000;1.3578;1.5300;
122.4000;1.3618;1.5421;
122.7000;1.3578;1.5203;
123.0000;1.3578;1.5179;
123.3000;1.3659;1.5421;
123.6000;1.3602;1.5300;
123.9000;1.3578;1.5251;
124.2000;1.3618;1.5300;
124.5000;1.3578;1.5227;
124.8000;1.3610;1.5324;
125.1000;1.3594;1.5372;
125.4000;1.3594;1.5324;
125.7000;1.3602;1.5372;
126.0000;1.3594;1.5396;
126.3000;1.3594;1.5469;
126.6000;1.3594;1.5517;
126.9000;1.3602;1.5517;
127.2000;1.3594;1.5542;
127.5000;1.3569;1.5493;
127.8000;1.3578;1.5517;
128.1000;1.3561;1.5396;
128.4000;1.3610;1.5469;
128.7000;1.3586;1.5372;
129.0000;1.3586;1.5421;
129.3000;1.3586;1.5348;
129.6000;1.3626;1.5372;
129.9000;1.3602;1.5324;
130.2000;1.3586;1.5276;
130.5000;1.3618;1.5348;
130.8000;1.3594;1.5203;
131.1000;1.3602;1.5251;
131.4000;1.3602;1.5276;
131.7000;1.3586;1.5227;
132.0000;1.3586;1.5324;
132.3000;1.3586;1.5372;
132.6000;1.3651;1.5517;
132.9000;1.3594;1.5372;
133.2000;1.3586;1.5445;
133.5000;1.3635;1.5493;
133.8000;1.3610;1.5469;
134.1000;1.3602;1.5421;
134.4000;1.3602;1.5469;
134.7000;1.3561;1.5421;
135.0000;1.3594;1.5493;
135.3000;1.3602;1.5372;
135.6000;1.3602;1.5396;
135.9000;1.3610;1.5421;
136.2000;1.3602;1.5324;
136.5000;1.3594;1.5251;
136.8000;1.3594;1.5227;
137.1000;1.3594;1.5155;
137.4000;1.3586;1.5179;
137.7000;1.3602;1.5203;
138.0000;1.3545;1.5106;
138.3000;1.3618;1.5276;
138.6000;1.3610;1.5203;
138.9000;1.3610;1.5227;
139.2000;1.3610;1.5348;
139.5000;1.3602;1.5348;
139.8000;1.3618;1.5372;
140.1000;1.3610;1.5396;
140.4000;1.3618;1.5396;
140.7000;1.3610;1.5396;
141.0000;1.3610;1.5300;
141.3000;1.3618;1.5251;
141.6000;1.3610;1.5203;
141.9000;1.3594;1.5203;
142.2000;1.3594;1.5203;
142.5000;1.3586;1.5155;
142.8000;1.3610;1.5155;
143.1000;1.3610;1.5203;
143.4000;1.3610;1.5251;
143.7000;1.3594;1.5203;
144.0000;1.3586;1.5227;
144.3000;1.3626;1.5324;
144.6000;1.3602;1.5300;
144.9000;1.3602;1.5348;
145.2000;1.3586;1.5348;
145.5000;1.3594;1.5372;
145.8000;1.3602;1.5372;
146.1000;1.3610;1.5324;
146.4000;1.3618;1.5251;
146.7000;1.3626;1.5300;
147.0000;1.3675;1.5469;
147.3000;1.3643;1.5396;
147.6000;1.3561;1.5203;
147.9000;1.3618;1.5348;
148.2000;1.3610;1.5324;
148.5000;1.3610;1.5324;
148.8000;1.3610;1.5300;
149.1000;1.3618;1.5276;
149.4000;1.3618;1.5324;
149.7000;1.3610;1.5300;
150.0000;1.3626;1.5396;
150.3000;1.3626;1.5372;
150.6000;1.3635;1.5324;
150.9000;1.3659;1.5493;
151.2000;1.3618;1.5348;
151.5000;1.3618;1.5421;
151.8000;1.3618;1.5396;
152.1000;1.3569;1.5324;
152.4000;1.3610;1.5348;
152.7000;1.3578;1.5179;
153.0000;1.3626;1.5276;
153.3000;1.3618;1.5251;
153.6000;1.3626;1.5203;
153.9000;1.3586;1.5203;
154.2000;1.3618;1.5276;
154.5000;1.3610;1.5324;
154.8000;1.3626;1.5372;
155.1000;1.3537;1.5203;
155.4000;1.3635;1.5517;
155.7000;1.3732;1.5783;
156.0000;1.3610;1.5469;
156.3000;1.3618;1.5469;
156.6000;1.3586;1.5396;
156.9000;1.3643;1.5517;
157.2000;1.3626;1.5469;
157.5000;1.3610;1.5372;
157.8000;1.3635;1.5493;
158.1000;1.3618;1.5517;
158.4000;1.3602;1.5493;
158.7000;1.3610;1.5517;
159.0000;1.3618;1.5542;
159.3000;1.3610;1.5469;
159.6000;1.3618;1.5469;
159.9000;1.3602;1.5421;
160.2000;1.3602;1.5396;
160.5000;1.3618;1.5445;
160.8000;1.3618;1.5469;
161.1000;1.3618;1.5469;
161.4000;1.3618;1.5493;
161.7000;1.3610;1.5445;
162.0000;1.3594;1.5493;
162.3000;1.3610;1.5493;
162.6000;1.3602;1.5566;
162.9000;1.3610;1.5590;
163.2000;1.3594;1.5566;
163.5000;1.3618;1.5638;
163.8000;1.3618;1.5614;
164.1000;1.3610;1.5542;
164.4000;1.3626;1.5614;
164.7000;1.3618;1.5638;
165.0000;1.3594;1.5566;
165.3000;1.3610;1.5566;
165.6000;1.3610;1.5590;
165.9000;1.3610;1.5566;
166.2000;1.3635;1.5638;
166.5000;1.3618;1.5566;
166.8000;1.3618;1.5517;
167.1000;1.3618;1.5542;
167.4000;1.3618;1.5517;
167.7000;1.3610;1.5421;
168.0000;1.3610;1.5469;
168.3000;1.3618;1.5493;
168.6000;1.3602;1.5493;
168.9000;1.3618;1.5542;
169.2000;1.3618;1.5566;
169.5000;1.3626;1.5517;
169.8000;1.3602;1.5493;
170.1000;1.3578;1.5348;
170.4000;1.3618;1.5372;
170.7000;1.3626;1.5469;
171.0000;1.3618;1.5445;
171.3000;1.3618;1.5421;
171.6000;1.3626;1.5421;
171.9000;1.3626;1.5445;
172.2000;1.3578;1.5348;
172.5000;1.3626;1.5517;
172.8000;1.3635;1.5493;
173.1000;1.3626;1.5469;
173.4000;1.3626;1.5469;
173.7000;1.3610;1.5493;
174.0000;1.3643;1.5638;
174.3000;1.3610;1.5566;
174.6000;1.3675;1.5735;
174.9000;1.3618;1.5662;
175.2000;1.3586;1.5542;
175.5000;1.3610;1.5614;
175.8000;1.3618;1.5614;
176.1000;1.3635;1.5638;
176.4000;1.3626;1.5687;
176.7000;1.3618;1.5687;
177.0000;1.3643;1.5662;
177.3000;1.3626;1.5590;
177.6000;1.3626;1.5566;
177.9000;1.3618;1.5469;
178.2000;1.3626;1.5396;
178.5000;1.3626;1.5493;
178.8000;1.3618;1.5493;
179.1000;1.3602;1.5517;
179.4000;1.3569;1.5396;
179.7000;1.3635;1.5493;
180.0000;1.3618;1.5517;
180.3000;1.3586;1.5469;
180.6000;1.3643;1.5614;
180.9000;1.3626;1.5566;
181.2000;1.3610;1.5517;
181.5000;1.3610;1.5445;
181.8000;1.3610;1.5493;
182.1000;1.3683;1.5662;
182.4000;1.3610;1.5445;
182.7000;1.3602;1.5421;
183.0000;1.3610;1.5396;
183.3000;1.3610;1.5493;
183.6000;1.3610;1.5493;
183.9000;1.3618;1.5517;
184.2000;1.3618;1.5372;
184.5000;1.3635;1.5372;
184.8000;1.3626;1.5324;
185.1000;1.3651;1.5421;
185.4000;1.3667;1.5493;
185.7000;1.3626;1.5469;
186.0000;1.3626;1.5542;
186.3000;1.3618;1.5517;
186.6000;1.3635;1.5493;
186.9000;1.3626;1.5493;
187.2000;1.3618;1.5469;
187.5000;1.3626;1.5469;
187.8000;1.3618;1.5324;
188.1000;1.3594;1.5251;
188.4000;1.3618;1.5396;
188.7000;1.3618;1.5445;
189.0000;1.3635;1.5517;
189.3000;1.3618;1.5493;
189.6000;1.3626;1.5566;
189.9000;1.3667;1.5638;
190.2000;1.3602;1.5517;
190.5000;1.3635;1.5493;
190.8000;1.3618;1.5445;
191.1000;1.3610;1.5517;
191.4000;1.3618;1.5614;
191.7000;1.3626;1.5687;
192.0000;1.3610;1.5735;
192.3000;1.3618;1.5735;
192.6000;1.3618;1.5832;
192.9000;1.3683;1.5952;
193.2000;1.3618;1.5711;
193.5000;1.3635;1.5759;
193.8000;1.3635;1.5783;
194.1000;1.3626;1.5735;
194.4000;1.3561;1.5469;
194.7000;1.3594;1.5542;
195.0000;1.3667;1.5662;
195.3000;1.3635;1.5493;
195.6000;1.3602;1.5396;
195.9000;1.3618;1.5372;
196.2000;1.3724;1.5542;
196.5000;1.3618;1.5300;
196.8000;1.3626;1.5324;
197.1000;1.3618;1.5300;
197.4000;1.3626;1.5421;
197.7000;1.3626;1.5469;
198.0000;1.3618;1.5372;
198.3000;1.3618;1.5469;
198.6000;1.3618;1.5396;
198.9000;1.3643;1.5493;
199.2000;1.3602;1.5493;
199.5000;1.3594;1.5421;
199.8000;1.3618;1.5493;
200.1000;1.3626;1.5566;
200.4000;1.3618;1.5542;
200.7000;1.3618;1.5542;
201.0000;1.3626;1.5445;
201.3000;1.3635;1.5421;
201.6000;1.3635;1.5445;
201.9000;1.3610;1.5396;
202.2000;1.3586;1.5372;
202.5000;1.3618;1.5372;
202.8000;1.3618;1.5372;
203.1000;1.3618;1.5421;
203.4000;1.3626;1.5445;
203.7000;1.3537;1.5348;
204.0000;1.3635;1.5566;
204.3000;1.3586;1.5276;
204.6000;1.3643;1.5372;
204.9000;1.3610;1.5324;
205.2000;1.3610;1.5396;
205.5000;1.3594;1.5348;
205.8000;1.3610;1.5348;
206.1000;1.3610;1.5372;
206.4000;1.3618;1.5372;
206.7000;1.3610;1.5396;
207.0000;1.3659;1.5493;
207.3000;1.3610;1.5421;
207.6000;1.3602;1.5445;
207.9000;1.3626;1.5517;
208.2000;1.3659;1.5590;
208.5000;1.3618;1.5445;
208.8000;1.3602;1.5421;
209.1000;1.3602;1.5372;
209.4000;1.3610;1.5396;
209.7000;1.3594;1.5396;
210.0000;1.3586;1.5348;
210.3000;1.3618;1.5324;
210.6000;1.3626;1.5324;
210.9000;1.3610;1.5348;
211.2000;1.3602;1.5372;
211.5000;1.3626;1.5469;
211.8000;1.3635;1.5517;
212.1000;1.3594;1.5421;
212.4000;1.3618;1.5517;
212.7000;1.3635;1.5493;
213.0000;1.3618;1.5493;
213.3000;1.3586;1.5493;
213.6000;1.3602;1.5542;
213.9000;1.3610;1.5517;
214.2000;1.3659;1.5614;
214.5000;1.3602;1.5372;
214.8000;1.3610;1.5324;
215.1000;1.3602;1.5421;
215.4000;1.3610;1.5421;
215.7000;1.3618;1.5421;
216.0000;1.3569;1.5300;
216.3000;1.3586;1.5300;
216.6000;1.3626;1.5445;
216.9000;1.3618;1.5396;
217.2000;1.3626;1.5469;
217.5000;1.3602;1.5396;
217.8000;1.3610;1.5421;
218.1000;1.3626;1.5445;
218.4000;1.3594;1.5300;
218.7000;1.3618;1.5396;
219.0000;1.3618;1.5396;
219.3000;1.3618;1.5372;
219.6000;1.3635;1.5421;
219.9000;1.3602;1.5348;
220.2000;1.3618;1.5324;
220.5000;1.3610;1.5348;
220.8000;1.3602;1.5348;
221.1000;1.3594;1.5324;
221.4000;1.3569;1.5421;
221.7000;1.3610;1.5493;
222.0000;1.3602;1.5421;
222.3000;1.3610;1.5517;
222.6000;1.3594;1.5469;
222.9000;1.3635;1.5735;
223.2000;1.3618;1.5735;
223.5000;1.3602;1.5711;
223.8000;1.3618;1.5711;
224.1000;1.3594;1.5638;
224.4000;1.3626;1.5711;
224.7000;1.3626;1.5638;
225.0000;1.3610;1.5566;
225.3000;1.3610;1.5517;
225.6000;1.3626;1.5590;
225.9000;1.3602;1.5590;
226.2000;1.3618;1.5542;
226.5000;1.3659;1.5566;
226.8000;1.3626;1.5493;
227.1000;1.3561;1.5324;
227.4000;1.3610;1.5469;
227.7000;1.3610;1.5493;
228.0000;1.3618;1.5590;
228.3000;1.3610;1.5469;
228.6000;1.3602;1.5421;
228.9000;1.3618;1.5493;
229.2000;1.3594;1.5542;
229.5000;1.3618;1.5614;
229.8000;1.3602;1.5590;
230.1000;1.3618;1.5662;
230.4000;1.3618;1.5662;
230.7000;1.3602;1.5638;
231.0000;1.3618;1.5687;
231.3000;1.3610;1.5711;
231.6000;1.3602;1.5759;
231.9000;1.3626;1.5807;
232.2000;1.3610;1.5711;
232.5000;1.3610;1.5735;
232.8000;1.3602;1.5711;
233.1000;1.3618;1.5687;
233.4000;1.3618;1.5759;
233.7000;1.3610;1.5662;
234.0000;1.3618;1.5590;
234.3000;1.3602;1.5542;
234.6000;1.3626;1.5542;
234.9000;1.3626;1.5493;
235.2000;1.3529;1.5348;
235.5000;1.3610;1.5542;
235.8000;1.3635;1.5566;
236.1000;1.3626;1.5493;
236.4000;1.3586;1.5517;
236.7000;1.3610;1.5566;
237.0000;1.3618;1.5590;
237.3000;1.3610;1.5614;
237.6000;1.3618;1.5638;
237.9000;1.3610;1.5614;
238.2000;1.3626;1.5638;
238.5000;1.3602;1.5687;
238.8000;1.3586;1.5662;
239.1000;1.3586;1.5542;
239.4000;1.3610;1.5566;
239.7000;1.3610;1.5566;
240.0000;1.3618;1.5542;
240.3000;1.3635;1.5542;
240.6000;1.3602;1.5517;
240.9000;1.3618;1.5517;
241.2000;1.3618;1.5590;
241.5000;1.3602;1.5469;
241.8000;1.3594;1.5445;
242.1000;1.3594;1.5421;
242.4000;1.3561;1.5348;
242.7000;1.3635;1.5542;
243.0000;1.3667;1.5590;
243.3000;1.3602;1.5421;
243.6000;1.3635;1.5469;
243.9000;1.3618;1.5469;
244.2000;1.3578;1.5396;
244.5000;1.3635;1.5469;
244.8000;1.3626;1.5421;
245.1000;1.3618;1.5469;
245.4000;1.3602;1.5493;
245.7000;1.3602;1.5469;
246.0000;1.3610;1.5324;
246.3000;1.3610;1.5300;
246.6000;1.3618;1.5324;
246.9000;1.3602;1.5300;
247.2000;1.3602;1.5324;
247.5000;1.3618;1.5396;
247.8000;1.3610;1.5421;
248.1000;1.3569;1.5372;
248.4000;1.3610;1.5493;
248.7000;1.3635;1.5493;
249.0000;1.3618;1.5493;
249.3000;1.3610;1.5445;
249.6000;1.3561;1.5372;
249.9000;1.3586;1.5469;
250.2000;1.3602;1.5493;
250.5000;1.3594;1.5396;
250.8000;1.3569;1.5324;
251.1000;1.3602;1.5421;
251.4000;1.3610;1.5445;
251.7000;1.3610;1.5396;
252.0000;1.3602;1.5421;
252.3000;1.3610;1.5493;
252.6000;1.3578;1.5421;
252.9000;1.3602;1.5421;
253.2000;1.3602;1.5396;
253.5000;1.3578;1.5300;
253.8000;1.3618;1.5372;
254.1000;1.3561;1.5227;
254.4000;1.3594;1.5348;
254.7000;1.3610;1.5469;
255.0000;1.3626;1.5493;
255.3000;1.3569;1.5372;
255.6000;1.3610;1.5421;
255.9000;1.3602;1.5324;
256.2000;1.3635;1.5469;
256.5000;1.3626;1.5396;
256.8000;1.3626;1.5445;
257.1000;1.3586;1.5372;
257.4000;1.3626;1.5566;
257.7000;1.3618;1.5542;
258.0000;1.3618;1.5542;
258.3000;1.3610;1.5469;
258.6000;1.3618;1.5614;
258.9000;1.3618;1.5687;
259.2000;1.3643;1.5711;
259.5000;1.3610;1.5614;
259.8000;1.3610;1.5590;
260.1000;1.3626;1.5590;
260.4000;1.3594;1.5517;
260.7000;1.3602;1.5542;
261.0000;1.3602;1.5542;
261.3000;1.3594;1.5421;
261.6000;1.3602;1.5445;
261.9000;1.3602;1.5421;
262.2000;1.3610;1.5421;
262.5000;1.3594;1.5445;
262.8000;1.3578;1.5396;
263.1000;1.3602;1.5421;
263.4000;1.3594;1.5493;
263.7000;1.3594;1.5517;
264.0000;1.3602;1.5542;
264.3000;1.3610;1.5493;
264.6000;1.3602;1.5396;
264.9000;1.3602;1.5421;
265.2000;1.3610;1.5493;
265.5000;1.3610;1.5542;
265.8000;1.3618;1.5517;
266.1000;1.3586;1.5517;
266.4000;1.3610;1.5542;
266.7000;1.3602;1.5590;
267.0000;1.3602;1.5542;
267.3000;1.3602;1.5493;
267.6000;1.3610;1.5469;
267.9000;1.3602;1.5469;
268.2000;1.3594;1.5445;
268.5000;1.3602;1.5445;
268.8000;1.3618;1.5469;
269.1000;1.3626;1.5517;
269.4000;1.3610;1.5542;
269.7000;1.3610;1.5542;
270.0000;1.3594;1.5469;
270.3000;1.3602;1.5445;
270.6000;1.3635;1.5469;
270.9000;1.3602;1.5421;
271.2000;1.3594;1.5445;
271.5000;1.3578;1.5421;
271.8000;1.3578;1.5421;
272.1000;1.3635;1.5469;
272.4000;1.3635;1.5493;
272.7000;1.3602;1.5396;
273.0000;1.3602;1.5445;
273.3000;1.3578;1.5396;
273.6000;1.3553;1.5372;
273.9000;1.3602;1.5445;
274.2000;1.3610;1.5421;
274.5000;1.3594;1.5324;
274.8000;1.3594;1.5421;
275.1000;1.3602;1.5445;
275.4000;1.3602;1.5372;
275.7000;1.3610;1.5324;
276.0000;1.3602;1.5396;
276.3000;1.3610;1.5372;
276.6000;1.3586;1.5348;
276.9000;1.3618;1.5493;
277.2000;1.3594;1.5445;
277.5000;1.3464;1.5179;
277.8000;1.3594;1.5517;
278.1000;1.3602;1.5590;
278.4000;1.3594;1.5638;
278.7000;1.3610;1.5590;
279.0000;1.3602;1.5542;
279.3000;1.3635;1.5638;
279.6000;1.3610;1.5542;
279.9000;1.3626;1.5590;
280.2000;1.3586;1.5566;
280.5000;1.3610;1.5614;
280.8000;1.3626;1.5590;
281.1000;1.3594;1.5638;
281.4000;1.3602;1.5759;
281.7000;1.3594;1.5856;
282.0000;1.3602;1.5856;
282.3000;1.3594;1.5832;
282.6000;1.3594;1.5880;
282.9000;1.3602;1.5928;
283.2000;1.3586;1.5807;
283.5000;1.3594;1.5687;
283.8000;1.3610;1.5735;
284.1000;1.3594;1.5711;
284.4000;1.3602;1.5783;
284.7000;1.3602;1.5832;
285.0000;1.3586;1.5759;
285.3000;1.3602;1.5832;
285.6000;1.3610;1.5783;
285.9000;1.3594;1.5687;
286.2000;1.3586;1.5783;
286.5000;1.3569;1.5711;
286.8000;1.3602;1.5687;
287.1000;1.3594;1.5735;
287.4000;1.3529;1.5687;
287.7000;1.3610;1.5880;
288.0000;1.3586;1.5783;
288.3000;1.3553;1.5687;
288.6000;1.3602;1.5711;
288.9000;1.3594;1.5687;
289.2000;1.3586;1.5687;
289.5000;1.3618;1.5807;
289.8000;1.3594;1.5807;
290.1000;1.3602;1.5783;
290.4000;1.3610;1.5783;
290.7000;1.3618;1.5735;
291.0000;1.3610;1.5687;
291.3000;1.3578;1.5662;
291.6000;1.3586;1.5711;
291.9000;1.3651;1.5832;
292.2000;1.3594;1.5711;
292.5000;1.3602;1.5735;
292.8000;1.3594;1.5687;
293.1000;1.3594;1.5735;
293.4000;1.3635;1.5735;
293.7000;1.3602;1.5759;
294.0000;1.3610;1.5687;
294.3000;1.3594;1.5711;
294.6000;1.3578;1.5614;
294.9000;1.3626;1.5735;
295.2000;1.3610;1.5711;
295.5000;1.3553;1.5590;
295.8000;1.3610;1.5711;
296.1000;1.3626;1.5735;
296.4000;1.3545;1.5469;
296.7000;1.3545;1.5517;
297.0000;1.3610;1.5662;
297.3000;1.3602;1.5735;
297.6000;1.3602;1.5687;
297.9000;1.3586;1.5590;
298.2000;1.3602;1.5590;
298.5000;1.3561;1.5517;
298.8000;1.3602;1.5590;
299.1000;1.3602;1.5566;
299.4000;1.3578;1.5445;
299.7000;1.3594;1.5493;
300.0000;1.3610;1.5590;
300.3000;1.3586;1.5687;
300.6000;1.3602;1.5711;
300.9000;1.3594;1.5638;
301.2000;1.3610;1.5542;
301.5000;1.3626;1.5566;
301.8000;1.3586;1.5590;
302.1000;1.3594;1.5566;
302.4000;1.3602;1.5614;
302.7000;1.3594;1.5662;
303.0000;1.3553;1.5638;
303.3000;1.3578;1.5614;
303.6000;1.3602;1.5566;
303.9000;1.3586;1.5493;
304.2000;1.3586;1.5493;
304.5000;1.3602;1.5445;
304.8000;1.3586;1.5542;
305.1000;1.3610;1.5662;
305.4000;1.3594;1.5590;
305.7000;1.3610;1.5638;
306.0000;1.3586;1.5614;
306.3000;1.3586;1.5735;
306.6000;1.3586;1.5687;
306.9000;1.3569;1.5687;
307.2000;1.3561;1.5711;
307.5000;1.3586;1.5687;
307.8000;1.3578;1.5614;
308.1000;1.3586;1.5590;
308.4000;1.3569;1.5542;
308.7000;1.3602;1.5614;
309.0000;1.3594;1.5638;
309.3000;1.3594;1.5662;
309.6000;1.3586;1.5566;
309.9000;1.3618;1.5638;
310.2000;1.3626;1.5687;
310.5000;1.3594;1.5638;
310.8000;1.3578;1.5614;
311.1000;1.3594;1.5566;
311.4000;1.3610;1.5662;
311.7000;1.3578;1.5566;
312.0000;1.3561;1.5493;
312.3000;1.3578;1.5542;
312.6000;1.3618;1.5687;
312.9000;1.3578;1.5566;
313.2000;1.3578;1.5662;
313.5000;1.3561;1.5735;
313.8000;1.3561;1.5662;
314.1000;1.3602;1.5735;
314.4000;1.3561;1.5687;
314.7000;1.3594;1.5783;
315.0000;1.3602;1.5832;
315.3000;1.3586;1.5807;
315.6000;1.3594;1.5735;
315.9000;1.3578;1.5662;
316.2000;1.3586;1.5638;
316.5000;1.3594;1.5687;
316.8000;1.3594;1.5783;
317.1000;1.3586;1.5759;
317.4000;1.3610;1.5807;
317.7000;1.3594;1.5807;
318.0000;1.3586;1.5832;
318.3000;1.3610;1.5832;
318.6000;1.3602;1.5759;
318.9000;1.3594;1.5735;
319.2000;1.3578;1.5614;
319.5000;1.3545;1.5638;
319.8000;1.3602;1.5832;
320.1000;1.3569;1.5735;
320.4000;1.3594;1.5687;
320.7000;1.3569;1.5638;
321.0000;1.3578;1.5614;
321.3000;1.3594;1.5711;
321.6000;1.3537;1.5614;
321.9000;1.3586;1.5735;
322.2000;1.3569;1.5711;
322.5000;1.3578;1.5735;
322.8000;1.3594;1.5711;
323.1000;1.3578;1.5662;
323.4000;1.3578;1.5687;
323.7000;1.3569;1.5662;
324.0000;1.3578;1.5493;
324.3000;1.3602;1.5517;
324.6000;1.3578;1.5396;
324.9000;1.3586;1.5493;
325.2000;1.3594;1.5542;
325.5000;1.3610;1.5590;
325.8000;1.3602;1.5542;
326.1000;1.3594;1.5517;
326.4000;1.3602;1.5566;
326.7000;1.3586;1.5566;
327.0000;1.3594;1.5638;
327.3000;1.3586;1.5590;
327.6000;1.3594;1.5687;
327.9000;1.3594;1.5662;
328.2000;1.3594;1.5687;
328.5000;1.3602;1.5662;
328.8000;1.3569;1.5493;
329.1000;1.3602;1.5566;
329.4000;1.3586;1.5517;
329.7000;1.3586;1.5517;
330.0000;1.3586;1.5590;
330.3000;1.3578;1.5566;
330.6000;1.3578;1.5590;
330.9000;1.3578;1.5542;
331.2000;1.3594;1.5566;
331.5000;1.3569;1.5542;
331.8000;1.3569;1.5590;
332.1000;1.3569;1.5590;
332.4000;1.3569;1.5614;
332.7000;1.3578;1.5566;
333.0000;1.3578;1.5711;
333.3000;1.3578;1.5807;
333.6000;1.3569;1.5735;
333.9000;1.3602;1.5856;
334.2000;1.3578;1.5807;
334.5000;1.3602;1.5904;
334.8000;1.3569;1.5856;
335.1000;1.3578;1.5807;
335.4000;1.3602;1.5904;
335.7000;1.3594;1.5856;
336.0000;1.3586;1.5711;
336.3000;1.3553;1.5711;
336.6000;1.3521;1.5662;
336.9000;1.3578;1.5807;
337.2000;1.3586;1.5856;
337.5000;1.3586;1.5880;
337.8000;1.3578;1.5832;
338.1000;1.3594;1.5807;
338.4000;1.3594;1.5832;
338.7000;1.3586;1.5856;
339.0000;1.3586;1.5807;
339.3000;1.3578;1.5856;
339.6000;1.3594;1.5783;
339.9000;1.3569;1.5807;
340.2000;1.3561;1.5807;
340.5000;1.3586;1.5856;
340.8000;1.3586;1.5832;
341.1000;1.3586;1.5807;
341.4000;1.3586;1.5832;
341.7000;1.3626;1.6049;
342.0000;1.3602;1.6025;
342.3000;1.3594;1.5928;
342.6000;1.3569;1.5904;
342.9000;1.3586;1.5977;
343.2000;1.3578;1.5928;
343.5000;1.3561;1.5759;
343.8000;1.3569;1.5735;
344.1000;1.3529;1.5687;
344.4000;1.3594;1.5880;
344.7000;1.3569;1.5904;
345.0000;1.3480;1.5662;
345.3000;1.3569;1.5880;
345.6000;1.3594;1.5904;
345.9000;1.3594;1.5880;
346.2000;1.3594;1.5904;
346.5000;1.3586;1.5928;
346.8000;1.3586;1.5904;
347.1000;1.3602;1.5880;
347.4000;1.3586;1.5807;
347.7000;1.3586;1.5807;
348.0000;1.3586;1.5783;
348.3000;1.3569;1.5783;
348.6000;1.3561;1.5904;
348.9000;1.3569;1.5759;
349.2000;1.3578;1.5832;
349.5000;1.3578;1.5832;
349.8000;1.3578;1.5856;
350.1000;1.3561;1.5807;
350.4000;1.3578;1.5832;
350.7000;1.3569;1.5832;
351.0000;1.3569;1.5783;
351.3000;1.3569;1.5783;
351.6000;1.3578;1.5687;
351.9000;1.3586;1.5662;
352.2000;1.3529;1.5614;
352.5000;1.3578;1.5880;
352.8000;1.3569;1.5856;
353.1000;1.3578;1.5856;
353.4000;1.3578;1.5832;
353.7000;1.3659;1.6049;
354.0000;1.3569;1.5832;
354.3000;1.3545;1.5783;
354.6000;1.3569;1.5832;
354.9000;1.3569;1.5783;
355.2000;1.3561;1.5735;
355.5000;1.3561;1.5711;
355.8000;1.3578;1.5735;
356.1000;1.3529;1.5662;
356.4000;1.3561;1.5735;
356.7000;1.3561;1.5735;
357.0000;1.3569;1.5807;
357.3000;1.3569;1.5832;
357.6000;1.3578;1.5832;
357.9000;1.3578;1.5807;
358.2000;1.3594;1.5735;
358.5000;1.3586;1.5687;
358.8000;1.3578;1.5759;
359.1000;1.3569;1.5735;
359.4000;1.3578;1.5735;
359.7000;1.3569;1.5735;
360.0000;1.3529;1.5638;
360.3000;1.3553;1.5783;
360.6000;1.3561;1.5856;
360.9000;1.3569;1.5856;
361.2000;1.3578;1.5856;
361.5000;1.3578;1.5807;
361.8000;1.3602;1.5783;
362.1000;1.3578;1.5662;
362.4000;1.3602;1.5759;
362.7000;1.3586;1.5759;
363.0000;1.3569;1.5783;
363.3000;1.3586;1.5711;
363.6000;1.3578;1.5687;
363.9000;1.3578;1.5735;
364.2000;1.3578;1.5735;
364.5000;1.3569;1.5759;
364.8000;1.3586;1.5856;
365.1000;1.3578;1.5832;
365.4000;1.3586;1.5832;
365.7000;1.3667;1.5904;
366.0000;1.3586;1.5759;
366.3000;1.3586;1.5783;
366.6000;1.3586;1.5735;
366.9000;1.3586;1.5759;
367.2000;1.3553;1.5783;
367.5000;1.3553;1.5735;
367.8000;1.3586;1.5952;
368.1000;1.3643;1.6170;
368.4000;1.3569;1.6049;
368.7000;1.3569;1.6049;
369.0000;1.3594;1.6049;
369.3000;1.3561;1.5880;
369.6000;1.3561;1.5952;
369.9000;1.3569;1.5952;
370.2000;1.3561;1.5952;
370.5000;1.3569;1.5928;
370.8000;1.3569;1.5928;
371.1000;1.3545;1.5832;
371.4000;1.3610;1.5880;
371.7000;1.3561;1.5759;
372.0000;1.3569;1.5832;
372.3000;1.3578;1.5880;
372.6000;1.3561;1.5832;
372.9000;1.3569;1.5952;
373.2000;1.3586;1.5977;
373.5000;1.3561;1.6049;
373.8000;1.3561;1.6073;
374.1000;1.3594;1.6146;
374.4000;1.3553;1.6049;
374.7000;1.3561;1.6073;
375.0000;1.3569;1.6122;
375.3000;1.3569;1.6025;
375.6000;1.3561;1.6073;
375.9000;1.3569;1.6025;
376.2000;1.3561;1.6001;
376.5000;1.3569;1.5952;
376.8000;1.3553;1.6001;
377.1000;1.3521;1.5880;
377.4000;1.3569;1.5952;
377.7000;1.3569;1.5952;
378.0000;1.3561;1.6001;
378.3000;1.3561;1.6073;
378.6000;1.3561;1.6073;
378.9000;1.3578;1.6097;
379.2000;1.3578;1.6073;
379.5000;1.3561;1.6001;
379.8000;1.3561;1.6001;
380.1000;1.3553;1.6073;
380.4000;1.3602;1.6170;
380.7000;1.3521;1.6025;
381.0000;1.3561;1.6073;
381.3000;1.3537;1.5977;
381.6000;1.3553;1.6146;
381.9000;1.3553;1.6073;
382.2000;1.3512;1.6025;
382.5000;1.3561;1.6170;
382.8000;1.3561;1.6097;
383.1000;1.3569;1.6097;
383.4000;1.3569;1.6049;
383.7000;1.3561;1.6001;
384.0000;1.3578;1.6025;
384.3000;1.3561;1.6001;
384.6000;1.3521;1.5904;
384.9000;1.3529;1.5856;
385.2000;1.3512;1.5807;
385.5000;1.3553;1.5856;
385.8000;1.3569;1.6001;
386.1000;1.3553;1.5928;
386.4000;1.3561;1.5952;
386.7000;1.3578;1.6001;
387.0000;1.3594;1.6146;
387.3000;1.3569;1.6073;
387.6000;1.3561;1.5977;
387.9000;1.3545;1.5904;
388.2000;1.3578;1.6073;
388.5000;1.3594;1.6218;
388.8000;1.3561;1.6146;
389.1000;1.3553;1.6146;
389.4000;1.3586;1.6291;
389.7000;1.3545;1.6242;
390.0000;1.3553;1.6218;
390.3000;1.3521;1.6146;
390.6000;1.3537;1.6242;
390.9000;1.3561;1.6315;
391.2000;1.3561;1.6315;
391.5000;1.3610;1.6363;
391.8000;1.3569;1.6242;
392.1000;1.3594;1.6291;
392.4000;1.3561;1.6146;
392.7000;1.3569;1.6122;
393.0000;1.3569;1.6073;
393.3000;1.3537;1.5952;
393.6000;1.3578;1.6001;
393.9000;1.3569;1.6025;
394.2000;1.3561;1.6097;
394.5000;1.3578;1.6242;
394.8000;1.3529;1.6097;
395.1000;1.3553;1.6122;
395.4000;1.3553;1.6097;
395.7000;1.3553;1.6097;
396.0000;1.3545;1.6097;
396.3000;1.3561;1.5977;
396.6000;1.3561;1.5904;
396.9000;1.3561;1.5977;
397.2000;1.3569;1.6025;
397.5000;1.3586;1.6122;
397.8000;1.3586;1.6146;
398.1000;1.3626;1.6242;
398.4000;1.3561;1.5977;
398.7000;1.3545;1.5928;
399.0000;1.3561;1.6001;
399.3000;1.3529;1.5880;
399.6000;1.3561;1.5928;
399.9000;1.3569;1.5928;
400.2000;1.3553;1.5904;
400.5000;1.3537;1.5928;
400.8000;1.3545;1.5904;
401.1000;1.3545;1.5952;
401.4000;1.3553;1.5952;
401.7000;1.3545;1.5952;
402.0000;1.3545;1.6025;
402.3000;1.3569;1.6097;
402.6000;1.3569;1.6097;
402.9000;1.3553;1.6025;
403.2000;1.3569;1.6097;
403.5000;1.3512;1.5977;
403.8000;1.3545;1.6073;
404.1000;1.3561;1.6025;
404.4000;1.3610;1.6218;
404.7000;1.3553;1.6218;
405.0000;1.3553;1.6122;
405.3000;1.3545;1.6170;
405.6000;1.3569;1.6194;
405.9000;1.3569;1.6146;
406.2000;1.3537;1.6025;
406.5000;1.3561;1.6194;
406.8000;1.3553;1.6073;
407.1000;1.3569;1.6122;
407.4000;1.3626;1.6291;
407.7000;1.3561;1.6097;
408.0000;1.3553;1.6170;
408.3000;1.3553;1.6122;
408.6000;1.3545;1.6001;
408.9000;1.3553;1.6097;
409.2000;1.3553;1.6073;
409.5000;1.3537;1.6122;
409.8000;1.3553;1.6242;
410.1000;1.3545;1.6194;
410.4000;1.3521;1.6073;
410.7000;1.3521;1.6025;
411.0000;1.3545;1.6049;
411.3000;1.3529;1.5977;
411.6000;1.3578;1.6097;
411.9000;1.3545;1.5952;
412.2000;1.3561;1.5977;
412.5000;1.3578;1.6146;
412.8000;1.3545;1.6073;
413.1000;1.3553;1.6049;
413.4000;1.3578;1.6146;
413.7000;1.3480;1.5904;
414.0000;1.3537;1.6025;
414.3000;1.3512;1.6073;
414.6000;1.3561;1.6267;
414.9000;1.3561;1.6218;
415.2000;1.3553;1.6146;
415.5000;1.3586;1.6194;
415.8000;1.3610;1.6267;
416.1000;1.3561;1.6170;
416.4000;1.3553;1.6146;
416.7000;1.3553;1.6097;
417.0000;1.3537;1.6073;
417.3000;1.3561;1.6194;
417.6000;1.3545;1.6097;
417.9000;1.3569;1.6170;
418.2000;1.3545;1.6146;
418.5000;1.3545;1.6073;
418.8000;1.3537;1.6049;
419.1000;1.3553;1.6097;
419.4000;1.3553;1.6073;
419.7000;1.3561;1.6170;
420.0000;1.3553;1.6170;
420.3000;1.3537;1.6097;
420.6000;1.3537;1.6049;
420.9000;1.3553;1.6001;
421.2000;1.3529;1.5952;
421.5000;1.3553;1.6025;
421.8000;1.3553;1.6146;
422.1000;1.3561;1.6194;
422.4000;1.3545;1.6146;
422.7000;1.3553;1.6122;
423.0000;1.3569;1.6170;
423.3000;1.3545;1.6122;
423.6000;1.3569;1.6122;
423.9000;1.3578;1.6122;
424.2000;1.3561;1.6073;
424.5000;1.3569;1.6049;
424.8000;1.3553;1.6049;
425.1000;1.3569;1.6097;
425.4000;1.3553;1.6073;
425.7000;1.3537;1.6025;
426.0000;1.3553;1.6049;
426.3000;1.3578;1.6073;
426.6000;1.3561;1.6073;
426.9000;1.3553;1.5928;
427.2000;1.3569;1.6073;
427.5000;1.3578;1.6170;
427.8000;1.3561;1.6267;
428.1000;1.3537;1.6097;
428.4000;1.3529;1.6097;
428.7000;1.3553;1.6097;
429.0000;1.3553;1.5977;
429.3000;1.3545;1.5904;
429.6000;1.3537;1.5880;
429.9000;1.3545;1.5856;
430.2000;1.3521;1.5711;
430.5000;1.3553;1.5856;
430.8000;1.3496;1.5783;
431.1000;1.3553;1.5928;
431.4000;1.3610;1.6049;
431.7000;1.3553;1.5928;
432.0000;1.3553;1.5952;
432.3000;1.3561;1.6001;
432.6000;1.3569;1.6025;
432.9000;1.3553;1.6001;
433.2000;1.3545;1.6025;
433.5000;1.3618;1.6194;
433.8000;1.3545;1.6001;
434.1000;1.3610;1.6097;
434.4000;1.3545;1.5928;
434.7000;1.3545;1.5880;
435.0000;1.3553;1.5880;
435.3000;1.3553;1.5952;
435.6000;1.3578;1.6049;
435.9000;1.3578;1.6049;
436.2000;1.3545;1.6001;
436.5000;1.3545;1.6025;
436.8000;1.3545;1.6049;
437.1000;1.3480;1.6001;
437.4000;1.3537;1.6194;
437.7000;1.3504;1.6025;
438.0000;1.3545;1.6194;
438.3000;1.3537;1.6097;
438.6000;1.3553;1.6097;
438.9000;1.3561;1.6073;
439.2000;1.3553;1.6097;
439.5000;1.3545;1.6025;
439.8000;1.3529;1.5952;
440.1000;1.3537;1.5977;
440.4000;1.3561;1.6049;
440.7000;1.3561;1.6097;
441.0000;1.3529;1.6073;
441.3000;1.3545;1.6194;
441.6000;1.3537;1.6194;
441.9000;1.3578;1.6267;
442.2000;1.3545;1.6170;
442.5000;1.3537;1.6122;
442.8000;1.3545;1.6242;
443.1000;1.3545;1.6315;
443.4000;1.3553;1.6291;
443.7000;1.3553;1.6315;
444.0000;1.3545;1.6291;
444.3000;1.3545;1.6291;
444.6000;1.3537;1.6218;
444.9000;1.3545;1.6194;
445.2000;1.3545;1.6170;
445.5000;1.3561;1.6267;
445.8000;1.3545;1.6170;
446.1000;1.3561;1.6146;
446.4000;1.3561;1.6122;
446.7000;1.3537;1.6097;
447.0000;1.3561;1.6097;
447.3000;1.3553;1.6097;
447.6000;1.3529;1.6073;
447.9000;1.3545;1.6146;
448.2000;1.3545;1.6122;
448.5000;1.3529;1.6097;
448.8000;1.3602;1.6339;
449.1000;1.3545;1.6291;
449.4000;1.3529;1.6267;
449.7000;1.3529;1.6267;
450.0000;1.3537;1.6218;
450.3000;1.3537;1.6122;
450.6000;1.3553;1.6146;
450.9000;1.3537;1.6122;
451.2000;1.3659;1.6508;
451.5000;1.3553;1.6315;
451.8000;1.3537;1.6339;
452.1000;1.3537;1.6315;
452.4000;1.3504;1.6146;
452.7000;1.3529;1.6242;
453.0000;1.3545;1.6267;
453.3000;1.3545;1.6267;
453.6000;1.3545;1.6242;
453.9000;1.3529;1.6339;
454.2000;1.3537;1.6412;
454.5000;1.3545;1.6460;
454.8000;1.3545;1.6436;
455.1000;1.3545;1.6315;
455.4000;1.3529;1.6291;
455.7000;1.3537;1.6291;
456.0000;1.3545;1.6339;
456.3000;1.3537;1.6339;
456.6000;1.3545;1.6387;
456.9000;1.3545;1.6436;
457.2000;1.3545;1.6484;
457.5000;1.3537;1.6436;
457.8000;1.3529;1.6436;
458.1000;1.3545;1.6387;
458.4000;1.3537;1.6460;
458.7000;1.3561;1.6508;
459.0000;1.3553;1.6460;
459.3000;1.3537;1.6436;
459.6000;1.3553;1.6267;
459.9000;1.3521;1.6291;
460.2000;1.3504;1.6218;
460.5000;1.3537;1.6267;
460.8000;1.3545;1.6315;
461.1000;1.3521;1.6339;
461.4000;1.3521;1.6315;
461.7000;1.3553;1.6267;
462.0000;1.3537;1.6146;
462.3000;1.3529;1.6097;
462.6000;1.3618;1.6339;
462.9000;1.3529;1.6194;
463.2000;1.3529;1.6194;
463.5000;1.3545;1.6170;
463.8000;1.3545;1.6122;
464.1000;1.3512;1.6122;
464.4000;1.3553;1.6146;
464.7000;1.3545;1.6122;
465.0000;1.3553;1.6097;
465.3000;1.3521;1.6025;
465.6000;1.3529;1.6146;
465.9000;1.3545;1.6194;
466.2000;1.3618;1.6363;
466.5000;1.3545;1.6097;
466.8000;1.3537;1.6146;
467.1000;1.3553;1.6267;
467.4000;1.3521;1.6242;
467.7000;1.3537;1.6267;
468.0000;1.3537;1.6218;
468.3000;1.3529;1.6242;
468.6000;1.3545;1.6170;
468.9000;1.3553;1.6146;
469.2000;1.3561;1.6315;
469.5000;1.3537;1.6242;
469.8000;1.3553;1.6291;
470.1000;1.3545;1.6218;
470.4000;1.3545;1.6170;
470.7000;1.3545;1.6170;
471.0000;1.3545;1.6291;
471.3000;1.3553;1.6194;
471.6000;1.3521;1.6146;
471.9000;1.3545;1.6267;
472.2000;1.3553;1.6315;
472.5000;1.3529;1.6291;
472.8000;1.3512;1.6291;
473.1000;1.3504;1.6242;
473.4000;1.3529;1.6363;
473.7000;1.3537;1.6363;
474.0000;1.3537;1.6218;
474.3000;1.3521;1.6194;
474.6000;1.3512;1.6146;
474.9000;1.3545;1.6097;
475.2000;1.3545;1.6218;
475.5000;1.3553;1.6218;
475.8000;1.3545;1.6242;
476.1000;1.3561;1.6339;
476.4000;1.3545;1.6291;
476.7000;1.3521;1.6218;
477.0000;1.3488;1.6073;
477.3000;1.3545;1.6267;
477.6000;1.3537;1.6291;
477.9000;1.3521;1.6291;
478.2000;1.3512;1.6267;
478.5000;1.3537;1.6363;
478.8000;1.3521;1.6387;
479.1000;1.3529;1.6412;
479.4000;1.3521;1.6267;
479.7000;1.3561;1.6339;
480.0000;1.3569;1.6484;
480.3000;1.3553;1.6508;
480.6000;1.3529;1.6508;
480.9000;1.3537;1.6412;
481.2000;1.3545;1.6412;
481.5000;1.3545;1.6460;
481.8000;1.3545;1.6460;
482.1000;1.3537;1.6460;
482.4000;1.3545;1.6412;
482.7000;1.3569;1.6436;
483.0000;1.3488;1.6242;
483.3000;1.3521;1.6339;
483.6000;1.3504;1.6291;
483.9000;1.3545;1.6412;
484.2000;1.3521;1.6339;
484.5000;1.3529;1.6363;
484.8000;1.3529;1.6339;
485.1000;1.3512;1.6291;
485.4000;1.3529;1.6436;
485.7000;1.3529;1.6460;
486.0000;1.3529;1.6387;
486.3000;1.3521;1.6339;
486.6000;1.3529;1.6363;
486.9000;1.3504;1.6363;
487.2000;1.3529;1.6339;
487.5000;1.3561;1.6412;
487.8000;1.3537;1.6339;
488.1000;1.3529;1.6412;
488.4000;1.3561;1.6484;
488.7000;1.3521;1.6387;
489.0000;1.3529;1.6339;
489.3000;1.3545;1.6315;
489.6000;1.3529;1.6387;
489.9000;1.3529;1.6484;
490.2000;1.3488;1.6363;
490.5000;1.3545;1.6412;
490.8000;1.3545;1.6339;
491.1000;1.3618;1.6484;
491.4000;1.3569;1.6460;
491.7000;1.3521;1.6363;
492.0000;1.3521;1.6363;
492.3000;1.3521;1.6315;
492.6000;1.3537;1.6267;
492.9000;1.3496;1.6122;
493.2000;1.3512;1.6218;
493.5000;1.3496;1.6242;
493.8000;1.3521;1.6267;
494.1000;1.3512;1.6242;
494.4000;1.3512;1.6291;
494.7000;1.3529;1.6218;
495.0000;1.3537;1.6291;
495.3000;1.3512;1.6267;
495.6000;1.3521;1.6412;
495.9000;1.3496;1.6315;
496.2000;1.3521;1.6339;
496.5000;1.3529;1.6387;
496.8000;1.3537;1.6363;
497.1000;1.3537;1.6339;
497.4000;1.3529;1.6436;
497.7000;1.3529;1.6315;
498.0000;1.3529;1.6291;
498.3000;1.3480;1.6194;
498.6000;1.3512;1.6218;
498.9000;1.3537;1.6242;
499.2000;1.3529;1.6218;
499.5000;1.3529;1.6194;
499.8000;1.3512;1.6170;
500.1000;1.3521;1.6291;
500.4000;1.3537;1.6315;
500.7000;1.3512;1.6218;
501.0000;1.3545;1.6315;
501.3000;1.3521;1.6315;
501.6000;1.3553;1.6412;
501.9000;1.3537;1.6315;
502.2000;1.3529;1.6291;
502.5000;1.3553;1.6291;
502.8000;1.3512;1.6218;
503.1000;1.3521;1.6194;
503.4000;1.3529;1.6194;
503.7000;1.3512;1.6194;
504.0000;1.3561;1.6363;
504.3000;1.3521;1.6267;
504.6000;1.3504;1.6194;
504.9000;1.3504;1.6267;
505.2000;1.3521;1.6315;
505.5000;1.3529;1.6267;
505.8000;1.3537;1.6218;
506.1000;1.3610;1.6412;
506.4000;1.3521;1.6267;
506.7000;1.3521;1.6291;
507.0000;1.3537;1.6436;
507.3000;1.3512;1.6460;
507.6000;1.3545;1.6460;
507.9000;1.3512;1.6412;
508.2000;1.3545;1.6508;
508.5000;1.3521;1.6412;
508.8000;1.3521;1.6387;
509.1000;1.3504;1.6291;
509.4000;1.3521;1.6387;
509.7000;1.3512;1.6412;
510.0000;1.3512;1.6412;
510.3000;1.3529;1.6412;
510.6000;1.3504;1.6363;
510.9000;1.3521;1.6291;
511.2000;1.3521;1.6218;
511.5000;1.3529;1.6267;
511.8000;1.3537;1.6267;
512.1000;1.3521;1.6146;
512.4000;1.3529;1.6218;
512.7000;1.3488;1.6170;
513.0000;1.3504;1.6218;
513.3000;1.3521;1.6339;
513.6000;1.3529;1.6339;
513.9000;1.3504;1.6412;
514.2000;1.3488;1.6412;
514.5000;1.3496;1.6508;
514.8000;1.3512;1.6557;
515.1000;1.3512;1.6532;
515.4000;1.3496;1.6460;
515.7000;1.3488;1.6387;
516.0000;1.3521;1.6387;
516.3000;1.3578;1.6460;
516.6000;1.3521;1.6315;
516.9000;1.3529;1.6315;
517.2000;1.3561;1.6412;
517.5000;1.3496;1.6291;
517.8000;1.3512;1.6291;
518.1000;1.3521;1.6218;
518.4000;1.3529;1.6242;
518.7000;1.3521;1.6242;
519.0000;1.3521;1.6291;
519.3000;1.3512;1.6363;
519.6000;1.3537;1.6436;
519.9000;1.3496;1.6412;
520.2000;1.3512;1.6460;
520.5000;1.3512;1.6436;
520.8000;1.3512;1.6484;
521.1000;1.3537;1.6581;
521.4000;1.3504;1.6605;
521.7000;1.3472;1.6532;
522.0000;1.3529;1.6678;
522.3000;1.3545;1.6726;
522.6000;1.3504;1.6581;
522.9000;1.3512;1.6605;
523.2000;1.3545;1.6605;
523.5000;1.3521;1.6532;
523.8000;1.3512;1.6484;
524.1000;1.3529;1.6653;
524.4000;1.3537;1.6702;
524.7000;1.3512;1.6750;
525.0000;1.3537;1.6774;
525.3000;1.3504;1.6532;
525.6000;1.3537;1.6557;
525.9000;1.3521;1.6605;
526.2000;1.3512;1.6557;
526.5000;1.3504;1.6484;
526.8000;1.3480;1.6363;
527.1000;1.3464;1.6291;
527.4000;1.3504;1.6460;
527.7000;1.3504;1.6508;
528.0000;1.3480;1.6484;
528.3000;1.3504;1.6508;
528.6000;1.3512;1.6484;
528.9000;1.3496;1.6460;
529.2000;1.3521;1.6460;
529.5000;1.3504;1.6508;
529.8000;1.3521;1.6581;
530.1000;1.3537;1.6702;
530.4000;1.3512;1.6653;
530.7000;1.3521;1.6629;
531.0000;1.3521;1.6726;
531.3000;1.3529;1.6653;
531.6000;1.3512;1.6605;
531.9000;1.3512;1.6605;
532.2000;1.3512;1.6629;
532.5000;1.3504;1.6629;
532.8000;1.3504;1.6653;
533.1000;1.3512;1.6629;
533.4000;1.3537;1.6678;
533.7000;1.3521;1.6726;
534.0000;1.3521;1.6750;
534.3000;1.3512;1.6653;
534.6000;1.3504;1.6605;
534.9000;1.3512;1.6581;
535.2000;1.3504;1.6581;
535.5000;1.3504;1.6557;
535.8000;1.3496;1.6581;
536.1000;1.3504;1.6605;
536.4000;1.3504;1.6678;
536.7000;1.3496;1.6653;
537.0000;1.3512;1.6653;
537.3000;1.3512;1.6678;
537.6000;1.3521;1.6653;
537.9000;1.3496;1.6557;
538.2000;1.3504;1.6653;
538.5000;1.3504;1.6750;
538.8000;1.3537;1.6726;
539.1000;1.3521;1.6653;
539.4000;1.3512;1.6629;
539.7000;1.3537;1.6702;
540.0000;1.3521;1.6702;
540.3000;1.3504;1.6726;
540.6000;1.3496;1.6774;
540.9000;1.3512;1.6943;
541.2000;1.3545;1.7113;
541.5000;1.3553;1.6992;
541.8000;1.3496;1.6774;
542.1000;1.3496;1.6678;
542.4000;1.3472;1.6581;
542.7000;1.3545;1.6678;
543.0000;1.3504;1.6557;
543.3000;1.3488;1.6508;
543.6000;1.3512;1.6557;
543.9000;1.3512;1.6557;
544.2000;1.3496;1.6581;
544.5000;1.3512;1.6532;
544.8000;1.3504;1.6581;
545.1000;1.3521;1.6678;
545.4000;1.3488;1.6629;
545.7000;1.3472;1.6532;
546.0000;1.3512;1.6629;
546.3000;1.3496;1.6557;
546.6000;1.3512;1.6605;
546.9000;1.3512;1.6508;
547.2000;1.3496;1.6484;
547.5000;1.3529;1.6605;
547.8000;1.3472;1.6484;
548.1000;1.3512;1.6557;
548.4000;1.3521;1.6557;
548.7000;1.3512;1.6605;
549.0000;1.3472;1.6557;
549.3000;1.3504;1.6653;
549.6000;1.3504;1.6581;
549.9000;1.3521;1.6605;
550.2000;1.3537;1.6653;
550.5000;1.3504;1.6653;
550.8000;1.3504;1.6629;
551.1000;1.3504;1.6557;
551.4000;1.3504;1.6557;
551.7000;1.3545;1.6678;
552.0000;1.3439;1.6436;
552.3000;1.3537;1.6653;
552.6000;1.3504;1.6678;
552.9000;1.3529;1.6750;
553.2000;1.3521;1.6774;
553.5000;1.3569;1.6943;
553.8000;1.3529;1.6750;
554.1000;1.3521;1.6750;
554.4000;1.3529;1.6798;
554.7000;1.3512;1.6702;
555.0000;1.3504;1.6605;
555.3000;1.3504;1.6678;
555.6000;1.3512;1.6750;
555.9000;1.3496;1.6774;
556.2000;1.3512;1.6774;
556.5000;1.3488;1.6823;
556.8000;1.3496;1.6823;
557.1000;1.3521;1.6798;
557.4000;1.3496;1.6726;
557.7000;1.3521;1.6726;
558.0000;1.3561;1.6798;
558.3000;1.3521;1.6605;
558.6000;1.3504;1.6581;
558.9000;1.3521;1.6605;
559.2000;1.3504;1.6629;
559.5000;1.3529;1.6678;
559.8000;1.3521;1.6629;
560.1000;1.3496;1.6629;
560.4000;1.3455;1.6532;
560.7000;1.3512;1.6702;
561.0000;1.3504;1.6629;
561.3000;1.3480;1.6605;
561.6000;1.3488;1.6653;
561.9000;1.3529;1.6629;
562.2000;1.3545;1.6678;
562.5000;1.3447;1.6460;
562.8000;1.3504;1.6629;
563.1000;1.3529;1.6678;
563.4000;1.3561;1.6750;
563.7000;1.3529;1.6678;
564.0000;1.3496;1.6605;
564.3000;1.3521;1.6605;
564.6000;1.3464;1.6412;
564.9000;1.3504;1.6508;
565.2000;1.3423;1.6315;
565.5000;1.3496;1.6460;
565.8000;1.3464;1.6412;
566.1000;1.3488;1.6484;
566.4000;1.3496;1.6557;
566.7000;1.3480;1.6532;
567.0000;1.3488;1.6605;
567.3000;1.3504;1.6629;
567.6000;1.3496;1.6532;
567.9000;1.3537;1.6629;
568.2000;1.3504;1.6557;
568.5000;1.3504;1.6557;
568.8000;1.3504;1.6557;
569.1000;1.3521;1.6605;
569.4000;1.3504;1.6629;
569.7000;1.3512;1.6653;
570.0000;1.3496;1.6678;
570.3000;1.3480;1.6702;
570.6000;1.3496;1.6702;
570.9000;1.3512;1.6678;
571.2000;1.3488;1.6653;
571.5000;1.3496;1.6678;
571.8000;1.3496;1.6653;
572.1000;1.3504;1.6653;
572.4000;1.3496;1.6629;
572.7000;1.3512;1.6629;
573.0000;1.3504;1.6605;
573.3000;1.3504;1.6653;
573.6000;1.3504;1.6653;
573.9000;1.3545;1.6774;
574.2000;1.3512;1.6653;
574.5000;1.3553;1.6726;
574.8000;1.3521;1.6750;
575.1000;1.3496;1.6726;
575.4000;1.3504;1.6774;
575.7000;1.3480;1.6678;
576.0000;1.3472;1.6702;
576.3000;1.3504;1.6871;
576.6000;1.3480;1.6847;
576.9000;1.3504;1.6847;
577.2000;1.3488;1.6750;
577.5000;1.3504;1.6847;
577.8000;1.3504;1.6798;
578.1000;1.3496;1.6750;
578.4000;1.3521;1.6702;
578.7000;1.3521;1.6678;
579.0000;1.3586;1.6847;
579.3000;1.3512;1.6702;
579.6000;1.3521;1.6726;
579.9000;1.3504;1.6702;
580.2000;1.3512;1.6653;
580.5000;1.3512;1.6629;
580.8000;1.3529;1.6653;
581.1000;1.3504;1.6702;
581.4000;1.3480;1.6653;
581.7000;1.3512;1.6653;
582.0000;1.3496;1.6678;
582.3000;1.3504;1.6774;
582.6000;1.3447;1.6629;
582.9000;1.3504;1.6847;
583.2000;1.3472;1.6653;
583.5000;1.3537;1.6750;
583.8000;1.3504;1.6653;
584.1000;1.3496;1.6678;
584.4000;1.3504;1.6653;
584.7000;1.3529;1.6702;
585.0000;1.3504;1.6605;
585.3000;1.3496;1.6605;
585.6000;1.3512;1.6581;
585.9000;1.3496;1.6581;
586.2000;1.3472;1.6436;
586.5000;1.3488;1.6436;
586.8000;1.3447;1.6363;
587.1000;1.3529;1.6678;
587.4000;1.3512;1.6581;
587.7000;1.3504;1.6557;
588.0000;1.3496;1.6557;
588.3000;1.3521;1.6557;
588.6000;1.3512;1.6557;
588.9000;1.3521;1.6629;
589.2000;1.3496;1.6557;
589.5000;1.3504;1.6629;
589.8000;1.3488;1.6629;
590.1000;1.3504;1.6629;
590.4000;1.3496;1.6653;
590.7000;1.3496;1.6678;
591.0000;1.3496;1.6726;
591.3000;1.3504;1.6750;
591.6000;1.3488;1.6702;
591.9000;1.3488;1.6678;
592.2000;1.3504;1.6750;
592.5000;1.3504;1.6726;
592.8000;1.3464;1.6605;
593.1000;1.3488;1.6629;
593.4000;1.3504;1.6774;
593.7000;1.3496;1.6750;
594.0000;1.3512;1.6823;
594.3000;1.3496;1.6823;
594.6000;1.3496;1.6871;
594.9000;1.3512;1.6943;
595.2000;1.3496;1.6992;
595.5000;1.3488;1.6943;
595.8000;1.3521;1.6968;
596.1000;1.3504;1.6968;
596.4000;1.3496;1.6992;
596.7000;1.3496;1.7016;
597.0000;1.3472;1.7064;
597.3000;1.3512;1.6992;
597.6000;1.3488;1.6798;
597.9000;1.3447;1.6557;
598.2000;1.3488;1.6629;
598.5000;1.3464;1.6629;
598.8000;1.3504;1.6798;
599.1000;1.3521;1.6774;
599.4000;1.3512;1.6774;
599.7000;1.3496;1.6702;
600.0000;1.3504;1.6653;
600.3000;1.3504;1.6581;
600.6000;1.3488;1.6412;
600.9000;1.3407;1.6242;
601.2000;1.3398;1.6242;
601.5000;1.3236;1.5977;
601.8000;1.3105;1.5759;
602.1000;1.3000;1.5566;
602.4000;1.2886;1.5372;
602.7000;1.2788;1.5203;
603.0000;1.2682;1.5106;
603.3000;1.2576;1.5010;
603.6000;1.2487;1.4913;
603.9000;1.2397;1.4768;
604.2000;1.2332;1.4720;
604.5000;1.2234;1.4647;
604.8000;1.2153;1.4575;
605.1000;1.2088;1.4551;
605.4000;1.2007;1.4381;
605.7000;1.1966;1.4406;
606.0000;1.1893;1.4309;
606.3000;1.1827;1.4212;
606.6000;1.1770;1.4091;
606.9000;1.1713;1.4043;
607.2000;1.1689;1.4140;
607.5000;1.1640;1.4164;
607.8000;1.1567;1.4188;
608.1000;1.1510;1.4091;
608.4000;1.1469;1.3995;
608.7000;1.1429;1.3995;
609.0000;1.1363;1.3970;
609.3000;1.1290;1.3874;
609.6000;1.1282;1.3970;
609.9000;1.1258;1.3995;
610.2000;1.1233;1.4043;
610.5000;1.1201;1.3946;
610.8000;1.1119;1.3777;
611.1000;1.1111;1.3801;
611.4000;1.1079;1.3850;
611.7000;1.1062;1.3970;
612.0000;1.1030;1.3922;
612.3000;1.0989;1.3922;
612.6000;1.0981;1.4043;
612.9000;1.0908;1.3970;
613.2000;1.0908;1.3995;
613.5000;1.0867;1.3970;
613.8000;1.0834;1.3922;
614.1000;1.0810;1.3970;
614.4000;1.0753;1.3946;
614.7000;1.0745;1.3995;
615.0000;1.0737;1.4067;
615.3000;1.0720;1.4115;
615.6000;1.0712;1.4140;
615.9000;1.0663;1.4140;
616.2000;1.0590;1.3970;
616.5000;1.0606;1.4019;
616.8000;1.0639;1.4091;
617.1000;1.0631;1.4164;
617.4000;1.0517;1.3874;
617.7000;1.0533;1.3946;
618.0000;1.0509;1.4043;
618.3000;1.0501;1.4043;
618.6000;1.0444;1.4043;
618.9000;1.0460;1.4115;
619.2000;1.0435;1.4164;
619.5000;1.0411;1.4115;
619.8000;1.0387;1.4115;
620.1000;1.0387;1.4212;
620.4000;1.0338;1.4091;
620.7000;1.0322;1.4140;
621.0000;1.0322;1.4164;
621.3000;1.0297;1.4091;
621.6000;1.0265;1.4043;
621.9000;1.0191;1.3898;
622.2000;1.0240;1.4019;
622.5000;1.0224;1.4067;
622.8000;1.0208;1.3970;
623.1000;1.0199;1.3995;
623.4000;1.0175;1.3898;
623.7000;1.0159;1.3898;
624.0000;1.0134;1.3995;
624.3000;1.0142;1.4091;
624.6000;1.0118;1.4043;
624.9000;1.0094;1.4043;
625.2000;1.0085;1.3970;
625.5000;1.0077;1.3970;
625.8000;1.0037;1.3922;
626.1000;1.0053;1.3995;
626.4000;1.0012;1.3922;
626.7000;0.9996;1.3898;
627.0000;0.9963;1.3801;
627.3000;0.9972;1.3825;
627.6000;0.9955;1.3753;
627.9000;0.9947;1.3777;
628.2000;0.9931;1.3874;
628.5000;0.9906;1.3874;
628.8000;0.9898;1.3850;
629.1000;0.9898;1.3850;
629.4000;0.9906;1.3898;
629.7000;0.9866;1.3825;
630.0000;0.9874;1.3801;
630.3000;0.9841;1.3729;
630.6000;0.9858;1.3801;
630.9000;0.9849;1.3801;
631.2000;0.9768;1.3632;
631.5000;0.9792;1.3753;
631.8000;0.9784;1.3777;
632.1000;0.9801;1.3898;
632.4000;0.9735;1.3729;
632.7000;0.9735;1.3705;
633.0000;0.9744;1.3777;
633.3000;0.9735;1.3753;
633.6000;0.9719;1.3801;
633.9000;0.9719;1.3777;
634.2000;0.9703;1.3777;
634.5000;0.9784;1.4043;
634.8000;0.9695;1.3825;
635.1000;0.9662;1.3850;
635.4000;0.9670;1.3898;
635.7000;0.9654;1.3850;
636.0000;0.9646;1.3898;
636.3000;0.9638;1.3946;
636.6000;0.9597;1.3850;
636.9000;0.9605;1.3825;
637.2000;0.9589;1.3729;
637.5000;0.9581;1.3825;
637.8000;0.9508;1.3753;
638.1000;0.9565;1.3898;
638.4000;0.9638;1.4115;
638.7000;0.9532;1.3898;
639.0000;0.9516;1.3777;
639.3000;0.9556;1.3874;
639.6000;0.9516;1.3801;
639.9000;0.9467;1.3656;
640.2000;0.9491;1.3680;
640.5000;0.9499;1.3680;
640.8000;0.9483;1.3729;
641.1000;0.9483;1.3801;
641.4000;0.9459;1.3729;
641.7000;0.9459;1.3729;
642.0000;0.9442;1.3753;
642.3000;0.9426;1.3777;
642.6000;0.9418;1.3777;
642.9000;0.9442;1.3850;
643.2000;0.9394;1.3801;
643.5000;0.9402;1.3898;
643.8000;0.9377;1.3825;
644.1000;0.9369;1.3777;
644.4000;0.9353;1.3777;
644.7000;0.9345;1.3801;
645.0000;0.9345;1.3801;
645.3000;0.9312;1.3777;
645.6000;0.9312;1.3801;
645.9000;0.9328;1.3874;
646.2000;0.9312;1.3898;
646.5000;0.9312;1.3970;
646.8000;0.9288;1.3970;
647.1000;0.9288;1.3946;
647.4000;0.9271;1.3922;
647.7000;0.9255;1.3825;
648.0000;0.9231;1.3850;
648.3000;0.9255;1.3922;
648.6000;0.9255;1.3874;
648.9000;0.9231;1.3777;
649.2000;0.9231;1.3801;
649.5000;0.9231;1.3729;
649.8000;0.9206;1.3705;
650.1000;0.9214;1.3680;
650.4000;0.9206;1.3801;
650.7000;0.9198;1.3874;
651.0000;0.9182;1.3898;
651.3000;0.9174;1.3970;
651.6000;0.9149;1.3874;
651.9000;0.9141;1.3825;
652.2000;0.9149;1.3825;
652.5000;0.9133;1.3801;
652.8000;0.9133;1.3850;
653.1000;0.9117;1.3898;
653.4000;0.9117;1.3874;
653.7000;0.9117;1.3898;
654.0000;0.9109;1.3970;
654.3000;0.9092;1.4019;
654.6000;0.9076;1.3995;
654.9000;0.9068;1.3970;
655.2000;0.9052;1.3825;
655.5000;0.9035;1.3801;
655.8000;0.9044;1.3777;
656.1000;0.9101;1.3922;
656.4000;0.9019;1.3680;
656.7000;0.9060;1.3825;
657.0000;0.9011;1.3705;
657.3000;0.8978;1.3632;
657.6000;0.9011;1.3705;
657.9000;0.9027;1.3753;
658.2000;0.8995;1.3753;
658.5000;0.8978;1.3753;
658.8000;0.8978;1.3680;
659.1000;0.8962;1.3608;
659.4000;0.8995;1.3680;
659.7000;0.8978;1.3705;
660.0000;0.9011;1.3825;
660.3000;0.8938;1.3680;
660.6000;0.8930;1.3680;
660.9000;0.8946;1.3753;
661.2000;0.8946;1.3753;
661.5000;0.8930;1.3729;
661.8000;0.8930;1.3729;
662.1000;0.8921;1.3729;
662.4000;0.8930;1.3729;
662.7000;0.8921;1.3753;
663.0000;0.8897;1.3801;
663.3000;0.8905;1.3729;
663.6000;0.8913;1.3801;
663.9000;0.8824;1.3584;
664.2000;0.8889;1.3753;
664.5000;0.8864;1.3729;
664.8000;0.8807;1.3705;
665.1000;0.8856;1.3898;
665.4000;0.8856;1.3946;
665.7000;0.8840;1.3922;
666.0000;0.8840;1.3922;
666.3000;0.8840;1.3922;
666.6000;0.8840;1.3946;
666.9000;0.8791;1.3898;
667.2000;0.8824;1.3995;
667.5000;0.8816;1.3970;
667.8000;0.8848;1.3995;
668.1000;0.8816;1.3825;
668.4000;0.8783;1.3777;
668.7000;0.8783;1.3777;
669.0000;0.8759;1.3850;
669.3000;0.8767;1.3922;
669.6000;0.8767;1.3946;
669.9000;0.8726;1.3825;
670.2000;0.8759;1.3922;
670.5000;0.8759;1.3970;
670.8000;0.8751;1.3970;
671.1000;0.8742;1.3995;
671.4000;0.8742;1.3874;
671.7000;0.8775;1.3850;
672.0000;0.8734;1.3705;
672.3000;0.8718;1.3608;
672.6000;0.8734;1.3729;
672.9000;0.8710;1.3753;
673.2000;0.8702;1.3777;
673.5000;0.8685;1.3753;
673.8000;0.8685;1.3753;
674.1000;0.8685;1.3777;
674.4000;0.8685;1.3705;
674.7000;0.8694;1.3729;
675.0000;0.8661;1.3777;
675.3000;0.8694;1.3850;
675.6000;0.8677;1.3801;
675.9000;0.8669;1.3825;
676.2000;0.8628;1.3777;
676.5000;0.8653;1.3850;
676.8000;0.8645;1.3801;
677.1000;0.8645;1.3801;
677.4000;0.8637;1.3801;
677.7000;0.8645;1.3753;
678.0000;0.8628;1.3753;
678.3000;0.8685;1.3946;
678.6000;0.8604;1.3874;
678.9000;0.8604;1.3898;
679.2000;0.8588;1.3874;
679.5000;0.8596;1.3874;
679.8000;0.8588;1.3777;
680.1000;0.8580;1.3801;
680.4000;0.8596;1.3801;
680.7000;0.8645;1.3970;
681.0000;0.8580;1.3825;
681.3000;0.8580;1.3825;
681.6000;0.8588;1.3825;
681.9000;0.8555;1.3825;
682.2000;0.8555;1.3801;
682.5000;0.8539;1.3777;
682.8000;0.8490;1.3560;
683.1000;0.8563;1.3753;
683.4000;0.8523;1.3705;
683.7000;0.8523;1.3680;
684.0000;0.8523;1.3608;
684.3000;0.8514;1.3560;
684.6000;0.8523;1.3584;
684.9000;0.8514;1.3584;
685.2000;0.8498;1.3632;
685.5000;0.8514;1.3705;
685.8000;0.8498;1.3680;
686.1000;0.8490;1.3753;
686.4000;0.8482;1.3729;
686.7000;0.8498;1.3825;
687.0000;0.8490;1.3825;
687.3000;0.8490;1.3753;
687.6000;0.8474;1.3656;
687.9000;0.8457;1.3608;
688.2000;0.8490;1.3753;
688.5000;0.8457;1.3656;
688.8000;0.8498;1.3729;
689.1000;0.8449;1.3608;
689.4000;0.8466;1.3656;
689.7000;0.8466;1.3608;
690.0000;0.8433;1.3584;
690.3000;0.8449;1.3656;
690.6000;0.8441;1.3680;
690.9000;0.8449;1.3753;
691.2000;0.8466;1.3680;
691.5000;0.8425;1.3632;
691.8000;0.8433;1.3705;
692.1000;0.8425;1.3729;
692.4000;0.8425;1.3608;
692.7000;0.8425;1.3608;
693.0000;0.8400;1.3584;
693.3000;0.8417;1.3584;
693.6000;0.8400;1.3608;
693.9000;0.8400;1.3680;
694.2000;0.8409;1.3729;
694.5000;0.8400;1.3680;
694.8000;0.8384;1.3753;
695.1000;0.8368;1.3874;
695.4000;0.8368;1.3850;
695.7000;0.8457;1.4019;
696.0000;0.8409;1.4019;
696.3000;0.8384;1.3946;
696.6000;0.8368;1.3970;
696.9000;0.8360;1.3946;
697.2000;0.8368;1.3970;
697.5000;0.8360;1.3970;
697.8000;0.8360;1.4019;
698.1000;0.8344;1.3922;
698.4000;0.8360;1.3946;
698.7000;0.8344;1.3922;
699.0000;0.8352;1.3922;
699.3000;0.8319;1.3825;
699.6000;0.8319;1.3801;
699.9000;0.8327;1.3825;
700.2000;0.8368;1.3874;
700.5000;0.8303;1.3753;
700.8000;0.8311;1.3729;
701.1000;0.8327;1.3729;
701.4000;0.8311;1.3777;
701.7000;0.8311;1.3753;
702.0000;0.8295;1.3753;
702.3000;0.8303;1.3705;
702.6000;0.8295;1.3656;
702.9000;0.8295;1.3632;
703.2000;0.8295;1.3705;
703.5000;0.8311;1.3753;
703.8000;0.8295;1.3801;
704.1000;0.8270;1.3729;
704.4000;0.8278;1.3801;
704.7000;0.8270;1.3801;
705.0000;0.8262;1.3753;
705.3000;0.8270;1.3801;
705.6000;0.8246;1.3850;
705.9000;0.8254;1.3850;
706.2000;0.8246;1.3922;
706.5000;0.8254;1.3946;
706.8000;0.8238;1.3922;
707.1000;0.8230;1.3970;
707.4000;0.8246;1.4043;
707.7000;0.8246;1.4043;
708.0000;0.8238;1.3995;
708.3000;0.8213;1.4043;
708.6000;0.8230;1.4067;
708.9000;0.8230;1.3995;
709.2000;0.8213;1.3922;
709.5000;0.8213;1.3946;
709.8000;0.8213;1.4019;
710.1000;0.8197;1.3995;
710.4000;0.8132;1.3777;
710.7000;0.8205;1.3970;
711.0000;0.8205;1.4019;
711.3000;0.8205;1.4019;
711.6000;0.8197;1.3922;
711.9000;0.8197;1.3946;
712.2000;0.8205;1.3922;
712.5000;0.8197;1.3898;
712.8000;0.8197;1.3922;
713.1000;0.8124;1.3850;
713.4000;0.8164;1.3850;
713.7000;0.8164;1.3874;
714.0000;0.8181;1.3970;
714.3000;0.8156;1.3970;
714.6000;0.8164;1.3995;
714.9000;0.8148;1.3898;
715.2000;0.8148;1.3850;
715.5000;0.8156;1.3825;
715.8000;0.8148;1.3850;
716.1000;0.8164;1.3801;
716.4000;0.8132;1.3680;
716.7000;0.8132;1.3656;
717.0000;0.8124;1.3632;
717.3000;0.8132;1.3777;
717.6000;0.8124;1.3801;
717.9000;0.8148;1.3898;
718.2000;0.8132;1.3825;
718.5000;0.8099;1.3705;
718.8000;0.8124;1.3801;
719.1000;0.8091;1.3705;
719.4000;0.8116;1.3729;
719.7000;0.8156;1.3753;
720.0000;0.8132;1.3608;
720.3000;0.8116;1.3535;
720.6000;0.8173;1.3680;
720.9000;0.8099;1.3560;
721.2000;0.8107;1.3632;
721.5000;0.8116;1.3656;
721.8000;0.8099;1.3753;
722.1000;0.8107;1.3801;
722.4000;0.8099;1.3850;
722.7000;0.8091;1.3874;
723.0000;0.8083;1.3922;
723.3000;0.8091;1.3995;
723.6000;0.8099;1.3995;
723.9000;0.8091;1.4019;
724.2000;0.8083;1.3995;
724.5000;0.8067;1.3922;
724.8000;0.8099;1.3970;
725.1000;0.8083;1.3922;
725.4000;0.8124;1.3946;
725.7000;0.8067;1.3801;
726.0000;0.8059;1.3801;
726.3000;0.8034;1.3801;
726.6000;0.8067;1.3753;
726.9000;0.8059;1.3705;
727.2000;0.8034;1.3705;
727.5000;0.8132;1.3970;
727.8000;0.8050;1.3922;
728.1000;0.8050;1.3898;
728.4000;0.8042;1.3874;
728.7000;0.8050;1.3898;
729.0000;0.8050;1.3995;
729.3000;0.8042;1.3970;
729.6000;0.8034;1.3995;
729.9000;0.8026;1.3946;
730.2000;0.8026;1.3874;
730.5000;0.8075;1.4019;
730.8000;0.8050;1.4043;
731.1000;0.8026;1.3970;
731.4000;0.8075;1.4164;
731.7000;0.8010;1.4091;
732.0000;0.8002;1.3970;
732.3000;0.7977;1.3825;
732.6000;0.8018;1.3898;
732.9000;0.8018;1.3898;
733.2000;0.7985;1.3753;
733.5000;0.8010;1.3801;
733.8000;0.8042;1.3946;
734.1000;0.8010;1.3801;
734.4000;0.8059;1.3898;
734.7000;0.7969;1.3753;
735.0000;0.7977;1.3705;
735.3000;0.8002;1.3729;
735.6000;0.8002;1.3777;
735.9000;0.8010;1.3729;
736.2000;0.7985;1.3632;
736.5000;0.7977;1.3632;
736.8000;0.7977;1.3632;
737.1000;0.7977;1.3608;
737.4000;0.7993;1.3729;
737.7000;0.7977;1.3753;
738.0000;0.7993;1.3825;
738.3000;0.7985;1.3753;
738.6000;0.7985;1.3825;
738.9000;0.7985;1.3922;
739.2000;0.7977;1.3922;
739.5000;0.7977;1.3970;
739.8000;0.7969;1.3898;
740.1000;0.7953;1.3946;
740.4000;0.7961;1.3970;
740.7000;0.7969;1.3922;
741.0000;0.7937;1.3825;
741.3000;0.7945;1.3777;
741.6000;0.7945;1.3850;
741.9000;0.7953;1.3898;
742.2000;0.7937;1.3850;
742.5000;0.7937;1.3922;
742.8000;0.7945;1.3922;
743.1000;0.7937;1.3922;
743.4000;0.7945;1.3946;
743.7000;0.7961;1.3946;
744.0000;0.7945;1.3946;
744.3000;0.7937;1.3946;
744.6000;0.7985;1.4067;
744.9000;0.7928;1.3922;
745.2000;0.7920;1.3825;
745.5000;0.7863;1.3777;
745.8000;0.7912;1.3922;
746.1000;0.7904;1.3946;
746.4000;0.7912;1.3970;
746.7000;0.7912;1.3970;
747.0000;0.7920;1.3995;
747.3000;0.7985;1.4115;
747.6000;0.7912;1.3970;
747.9000;0.7888;1.3970;
748.2000;0.7969;1.4091;
748.5000;0.7912;1.3922;
748.8000;0.7896;1.3801;
749.1000;0.7896;1.3801;
749.4000;0.7896;1.3777;
749.7000;0.7912;1.3850;
750.0000;0.7896;1.3850;
750.3000;0.7871;1.3874;
750.6000;0.7880;1.3850;
750.9000;0.7888;1.3825;
751.2000;0.7871;1.3801;
751.5000;0.7871;1.3801;
751.8000;0.7880;1.3801;
752.1000;0.7888;1.3850;
752.4000;0.7912;1.4043;
752.7000;0.7863;1.3995;
753.0000;0.7880;1.3995;
753.3000;0.7871;1.3946;
753.6000;0.7863;1.3995;
753.9000;0.7888;1.4043;
754.2000;0.7823;1.3898;
754.5000;0.7888;1.3995;
754.8000;0.7880;1.4043;
755.1000;0.7847;1.3995;
755.4000;0.7888;1.4115;
755.7000;0.7863;1.4091;
756.0000;0.7871;1.4091;
756.3000;0.7847;1.4043;
756.6000;0.7847;1.4115;
756.9000;0.7839;1.4115;
757.2000;0.7839;1.4140;
757.5000;0.7855;1.4091;
757.8000;0.7855;1.4043;
758.1000;0.7855;1.4091;
758.4000;0.7839;1.4115;
758.7000;0.7847;1.4091;
759.0000;0.7839;1.4091;
759.3000;0.7831;1.3995;
759.6000;0.7839;1.3946;
759.9000;0.7831;1.3970;
760.2000;0.7806;1.3970;
760.5000;0.7806;1.4019;
760.8000;0.7831;1.4067;
761.1000;0.7831;1.4115;
761.4000;0.7839;1.4140;
761.7000;0.7814;1.4140;
762.0000;0.7823;1.4140;
762.3000;0.7798;1.4091;
762.6000;0.7823;1.4212;
762.9000;0.7806;1.4140;
763.2000;0.7823;1.4140;
763.5000;0.7814;1.4091;
763.8000;0.7806;1.4067;
764.1000;0.7782;1.3946;
764.4000;0.7806;1.3970;
764.7000;0.7823;1.3995;
765.0000;0.7814;1.3995;
765.3000;0.7798;1.4019;
765.6000;0.7798;1.4043;
765.9000;0.7798;1.4067;
766.2000;0.7823;1.4043;
766.5000;0.7823;1.4091;
766.8000;0.7782;1.4019;
767.1000;0.7782;1.4115;
767.4000;0.7798;1.4091;
767.7000;0.7839;1.4188;
768.0000;0.7782;1.3995;
768.3000;0.7766;1.3970;
768.6000;0.7798;1.3995;
768.9000;0.7782;1.4019;
769.2000;0.7782;1.4019;
769.5000;0.7806;1.4091;
769.8000;0.7774;1.3995;
770.1000;0.7782;1.4043;
770.4000;0.7774;1.3922;
770.7000;0.7782;1.4043;
771.0000;0.7782;1.3995;
771.3000;0.7814;1.4115;
771.6000;0.7774;1.4019;
771.9000;0.7766;1.4043;
772.2000;0.7749;1.3970;
772.5000;0.7749;1.4043;
772.8000;0.7766;1.4067;
773.1000;0.7749;1.4043;
773.4000;0.7798;1.4043;
773.7000;0.7757;1.3922;
774.0000;0.7766;1.3946;
774.3000;0.7774;1.3946;
774.6000;0.7757;1.3922;
774.9000;0.7766;1.3922;
775.2000;0.7790;1.3970;
775.5000;0.7757;1.3922;
775.8000;0.7749;1.3874;
776.1000;0.7766;1.3898;
776.4000;0.7757;1.3922;
776.7000;0.7749;1.3922;
777.0000;0.7741;1.3995;
777.3000;0.7733;1.3995;
777.6000;0.7757;1.4115;
777.9000;0.7757;1.4115;
778.2000;0.7749;1.4019;
778.5000;0.7766;1.3922;
778.8000;0.7741;1.3922;
779.1000;0.7741;1.3946;
779.4000;0.7700;1.3801;
779.7000;0.7749;1.3946;
780.0000;0.7741;1.3898;
780.3000;0.7741;1.3946;
780.6000;0.7733;1.3898;
780.9000;0.7725;1.3874;
781.2000;0.7741;1.3825;
781.5000;0.7749;1.3777;
781.8000;0.7725;1.3729;
782.1000;0.7725;1.3729;
782.4000;0.7725;1.3801;
782.7000;0.7725;1.3874;
783.0000;0.7717;1.3850;
783.3000;0.7709;1.3801;
783.6000;0.7725;1.3922;
783.9000;0.7717;1.3898;
784.2000;0.7709;1.3946;
784.5000;0.7700;1.3922;
784.8000;0.7717;1.4019;
785.1000;0.7709;1.4019;
785.4000;0.7725;1.4043;
785.7000;0.7692;1.3995;
786.0000;0.7725;1.4164;
786.3000;0.7700;1.4140;
786.6000;0.7700;1.4285;
786.9000;0.7700;1.4212;
787.2000;0.7676;1.4188;
787.5000;0.7684;1.4164;
787.8000;0.7717;1.4140;
788.1000;0.7700;1.4067;
788.4000;0.7684;1.3970;
788.7000;0.7700;1.3995;
789.0000;0.7709;1.4115;
789.3000;0.7692;1.4091;
789.6000;0.7684;1.4091;
789.9000;0.7725;1.4164;
790.2000;0.7692;1.4115;
790.5000;0.7676;1.4091;
790.8000;0.7668;1.4164;
791.1000;0.7660;1.4140;
791.4000;0.7684;1.4164;
791.7000;0.7709;1.4164;
792.0000;0.7652;1.4019;
792.3000;0.7643;1.3995;
792.6000;0.7643;1.3995;
792.9000;0.7692;1.4091;
793.2000;0.7684;1.4067;
793.5000;0.7643;1.3995;
793.8000;0.7652;1.3995;
794.1000;0.7676;1.4140;
794.4000;0.7684;1.4164;
794.7000;0.7684;1.4164;
795.0000;0.7660;1.4043;
795.3000;0.7652;1.4067;
795.6000;0.7684;1.4091;
795.9000;0.7635;1.3970;
796.2000;0.7611;1.3898;
796.5000;0.7668;1.4043;
796.8000;0.7676;1.4164;
797.1000;0.7652;1.4067;
797.4000;0.7643;1.4043;
797.7000;0.7725;1.4285;
798.0000;0.7668;1.4115;
798.3000;0.7643;1.4043;
798.6000;0.7652;1.3922;
798.9000;0.7652;1.3946;
799.2000;0.7660;1.3995;
799.5000;0.7660;1.3970;
799.8000;0.7668;1.4019;
800.1000;0.7643;1.3970;
800.4000;0.7652;1.3946;
800.7000;0.7668;1.4067;
801.0000;0.7643;1.4091;
801.3000;0.7635;1.4043;
801.6000;0.7635;1.4091;
801.9000;0.7643;1.4115;
802.2000;0.7643;1.4140;
802.5000;0.7619;1.4115;
802.8000;0.7619;1.3995;
803.1000;0.7627;1.3898;
803.4000;0.7627;1.3995;
803.7000;0.7619;1.3946;
804.0000;0.7603;1.3850;
804.3000;0.7660;1.3946;
804.6000;0.7627;1.3922;
804.9000;0.7635;1.3995;
805.2000;0.7627;1.4091;
805.5000;0.7619;1.4140;
805.8000;0.7643;1.4188;
806.1000;0.7635;1.4164;
806.4000;0.7611;1.4067;
806.7000;0.7611;1.3946;
807.0000;0.7611;1.3995;
807.3000;0.7627;1.4115;
807.6000;0.7652;1.4212;
807.9000;0.7611;1.4140;
808.2000;0.7578;1.4115;
808.5000;0.7611;1.4188;
808.8000;0.7619;1.4188;
809.1000;0.7611;1.4212;
809.4000;0.7611;1.4260;
809.7000;0.7668;1.4309;
810.0000;0.7619;1.4188;
810.3000;0.7611;1.4188;
810.6000;0.7595;1.4164;
810.9000;0.7611;1.4188;
811.2000;0.7595;1.4115;
811.5000;0.7595;1.4043;
811.8000;0.7595;1.4091;
812.1000;0.7635;1.4140;
812.4000;0.7603;1.4140;
812.7000;0.7595;1.4164;
813.0000;0.7595;1.4164;
813.3000;0.7603;1.4115;
813.6000;0.7595;1.4043;
813.9000;0.7611;1.4067;
814.2000;0.7586;1.4067;
814.5000;0.7595;1.4115;
814.8000;0.7595;1.4140;
815.1000;0.7603;1.4091;
815.4000;0.7586;1.3970;
815.7000;0.7635;1.4115;
816.0000;0.7586;1.3995;
816.3000;0.7595;1.3995;
816.6000;0.7570;1.3970;
816.9000;0.7578;1.3970;
817.2000;0.7578;1.3946;
817.5000;0.7578;1.3922;
817.8000;0.7595;1.3946;
818.1000;0.7570;1.3970;
818.4000;0.7570;1.3995;
818.7000;0.7595;1.4115;
819.0000;0.7578;1.4043;
819.3000;0.7570;1.3946;
819.6000;0.7562;1.3995;
819.9000;0.7562;1.4019;
820.2000;0.7562;1.4140;
820.5000;0.7578;1.4260;
820.8000;0.7570;1.4236;
821.1000;0.7586;1.4260;
821.4000;0.7619;1.4236;
821.7000;0.7562;1.4164;
822.0000;0.7562;1.4164;
822.3000;0.7570;1.4115;
822.6000;0.7562;1.4019;
822.9000;0.7562;1.4019;
823.2000;0.7546;1.3995;
823.5000;0.7570;1.4043;
823.8000;0.7578;1.4067;
824.1000;0.7554;1.3898;
824.4000;0.7562;1.3946;
824.7000;0.7586;1.4043;
825.0000;0.7611;1.4091;
825.3000;0.7570;1.3995;
825.6000;0.7578;1.3970;
825.9000;0.7570;1.4067;
826.2000;0.7578;1.4067;
826.5000;0.7530;1.3995;
826.8000;0.7562;1.4091;
827.1000;0.7554;1.3995;
827.4000;0.7562;1.3995;
827.7000;0.7562;1.3946;
828.0000;0.7546;1.3995;
828.3000;0.7546;1.4067;
828.6000;0.7530;1.4043;
828.9000;0.7554;1.4067;
829.2000;0.7546;1.4019;
829.5000;0.7513;1.3922;
829.8000;0.7530;1.3970;
830.1000;0.7554;1.4043;
830.4000;0.7538;1.3970;
830.7000;0.7578;1.4019;
831.0000;0.7538;1.3995;
831.3000;0.7546;1.3970;
831.6000;0.7546;1.3946;
831.9000;0.7538;1.3970;
832.2000;0.7538;1.3995;
832.5000;0.7554;1.4019;
832.8000;0.7538;1.4019;
833.1000;0.7521;1.4019;
833.4000;0.7505;1.3995;
833.7000;0.7521;1.4115;
834.0000;0.7456;1.3970;
834.3000;0.7513;1.4188;
834.6000;0.7513;1.4140;
834.9000;0.7530;1.4115;
835.2000;0.7521;1.4164;
835.5000;0.7530;1.4212;
835.8000;0.7530;1.4164;
836.1000;0.7546;1.4236;
836.4000;0.7530;1.4212;
836.7000;0.7538;1.4188;
837.0000;0.7464;1.4019;
837.3000;0.7530;1.4212;
837.6000;0.7538;1.4260;
837.9000;0.7521;1.4260;
838.2000;0.7521;1.4309;
838.5000;0.7513;1.4357;
838.8000;0.7497;1.4309;
839.1000;0.7513;1.4260;
839.4000;0.7513;1.4188;
839.7000;0.7497;1.4164;
840.0000;0.7521;1.4212;
840.3000;0.7530;1.4212;
840.6000;0.7513;1.4188;
840.9000;0.7505;1.4236;
841.2000;0.7513;1.4236;
841.5000;0.7521;1.4212;
841.8000;0.7530;1.4212;
842.1000;0.7505;1.4164;
842.4000;0.7489;1.4188;
842.7000;0.7505;1.4236;
843.0000;0.7505;1.4285;
843.3000;0.7497;1.4236;
843.6000;0.7481;1.4164;
843.9000;0.7497;1.4140;
844.2000;0.7505;1.4140;
844.5000;0.7489;1.4091;
844.8000;0.7505;1.4140;
845.1000;0.7489;1.4164;
845.4000;0.7505;1.4188;
845.7000;0.7497;1.4140;
846.0000;0.7513;1.4140;
846.3000;0.7497;1.4091;
846.6000;0.7497;1.4115;
846.9000;0.7497;1.4115;
847.2000;0.7473;1.4115;
847.5000;0.7505;1.4164;
847.8000;0.7505;1.4212;
848.1000;0.7505;1.4236;
848.4000;0.7489;1.4236;
848.7000;0.7497;1.4212;
849.0000;0.7505;1.4236;
849.3000;0.7473;1.4188;
849.6000;0.7489;1.4140;
849.9000;0.7464;1.4019;
850.2000;0.7473;1.4067;
850.5000;0.7464;1.3995;
850.8000;0.7481;1.3995;
851.1000;0.7497;1.4091;
851.4000;0.7481;1.4115;
851.7000;0.7489;1.4164;
852.0000;0.7505;1.4212;
852.3000;0.7481;1.4188;
852.6000;0.7448;1.4115;
852.9000;0.7497;1.4260;
853.2000;0.7481;1.4236;
853.5000;0.7473;1.4285;
853.8000;0.7489;1.4164;
854.1000;0.7481;1.4115;
854.4000;0.7473;1.4188;
854.7000;0.7464;1.4188;
855.0000;0.7448;1.4067;
855.3000;0.7464;1.4043;
855.6000;0.7473;1.4019;
855.9000;0.7473;1.4067;
856.2000;0.7489;1.4091;
856.5000;0.7456;1.4091;
856.8000;0.7473;1.4140;
857.1000;0.7473;1.4260;
857.4000;0.7456;1.4236;
857.7000;0.7448;1.4285;
858.0000;0.7473;1.4285;
858.3000;0.7464;1.4212;
858.6000;0.7473;1.4140;
858.9000;0.7448;1.4067;
859.2000;0.7456;1.4091;
859.5000;0.7464;1.4140;
859.8000;0.7464;1.4091;
860.1000;0.7448;1.4067;
860.4000;0.7481;1.4140;
860.7000;0.7456;1.4115;
861.0000;0.7464;1.4140;
861.3000;0.7464;1.4091;
861.6000;0.7456;1.4067;
861.9000;0.7464;1.4091;
862.2000;0.7473;1.4019;
862.5000;0.7440;1.3970;
862.8000;0.7448;1.3995;
863.1000;0.7448;1.4043;
863.4000;0.7464;1.4188;
863.7000;0.7456;1.4236;
864.0000;0.7448;1.4115;
864.3000;0.7448;1.4115;
864.6000;0.7440;1.4188;
864.9000;0.7440;1.4164;
865.2000;0.7448;1.4309;
865.5000;0.7456;1.4260;
865.8000;0.7424;1.4285;
866.1000;0.7448;1.4357;
866.4000;0.7464;1.4333;
866.7000;0.7440;1.4212;
867.0000;0.7440;1.4188;
867.3000;0.7424;1.4067;
867.6000;0.7432;1.4115;
867.9000;0.7440;1.4115;
868.2000;0.7448;1.4140;
868.5000;0.7456;1.4236;
868.8000;0.7440;1.4115;
869.1000;0.7440;1.4164;
869.4000;0.7481;1.4164;
869.7000;0.7432;1.4091;
870.0000;0.7464;1.4164;
870.3000;0.7416;1.4043;
870.6000;0.7424;1.4067;
870.9000;0.7440;1.4115;
871.2000;0.7489;1.4236;
871.5000;0.7432;1.4091;
871.8000;0.7432;1.4043;
872.1000;0.7424;1.4091;
872.4000;0.7432;1.4164;
872.7000;0.7424;1.4236;
873.0000;0.7432;1.4236;
873.3000;0.7440;1.4236;
873.6000;0.7432;1.4212;
873.9000;0.7432;1.4115;
874.2000;0.7424;1.4140;
874.5000;0.7432;1.4164;
874.8000;0.7416;1.4115;
875.1000;0.7448;1.4212;
875.4000;0.7416;1.4140;
875.7000;0.7432;1.4164;
876.0000;0.7424;1.4164;
876.3000;0.7416;1.4236;
876.6000;0.7424;1.4188;
876.9000;0.7416;1.4164;
877.2000;0.7424;1.4140;
877.5000;0.7416;1.4115;
877.8000;0.7416;1.4115;
878.1000;0.7432;1.4260;
878.4000;0.7416;1.4260;
878.7000;0.7383;1.4236;
879.0000;0.7326;1.4091;
879.3000;0.7399;1.4212;
879.6000;0.7424;1.4333;
879.9000;0.7399;1.4357;
880.2000;0.7416;1.4285;
880.5000;0.7407;1.4212;
880.8000;0.7407;1.4236;
881.1000;0.7375;1.4212;
881.4000;0.7407;1.4236;
881.7000;0.7407;1.4285;
882.0000;0.7383;1.4140;
882.3000;0.7342;1.4067;
882.6000;0.7489;1.4478;
882.9000;0.7407;1.4333;
883.2000;0.7424;1.4309;
883.5000;0.7440;1.4285;
883.8000;0.7407;1.4260;
884.1000;0.7424;1.4309;
884.4000;0.7407;1.4309;
884.7000;0.7407;1.4309;
885.0000;0.7416;1.4381;
885.3000;0.7456;1.4478;
885.6000;0.7399;1.4285;
885.9000;0.7399;1.4285;
886.2000;0.7391;1.4212;
886.5000;0.7399;1.4164;
886.8000;0.7391;1.4140;
887.1000;0.7359;1.4091;
887.4000;0.7350;1.4067;
887.7000;0.7407;1.4260;
888.0000;0.7407;1.4260;
888.3000;0.7407;1.4285;
888.6000;0.7367;1.4164;
888.9000;0.7375;1.4260;
889.2000;0.7383;1.4333;
889.5000;0.7424;1.4406;
889.8000;0.7383;1.4357;
890.1000;0.7375;1.4285;
890.4000;0.7399;1.4285;
890.7000;0.7407;1.4260;
891.0000;0.7383;1.4115;
891.3000;0.7407;1.4260;
891.6000;0.7375;1.4236;
891.9000;0.7367;1.4309;
892.2000;0.7359;1.4212;
892.5000;0.7383;1.4212;
892.8000;0.7407;1.4212;
893.1000;0.7391;1.4212;
893.4000;0.7399;1.4236;
893.7000;0.7375;1.4212;
894.0000;0.7375;1.4212;
894.3000;0.7383;1.4115;
894.6000;0.7383;1.4091;
894.9000;0.7367;1.4043;
895.2000;0.7383;1.4115;
895.5000;0.7383;1.4091;
895.8000;0.7383;1.3970;
896.1000;0.7375;1.3946;
896.4000;0.7375;1.3946;
896.7000;0.7391;1.3995;
897.0000;0.7383;1.4019;
897.3000;0.7367;1.4115;
897.6000;0.7375;1.4140;
897.9000;0.7391;1.4140;
898.2000;0.7383;1.4164;
898.5000;0.7293;1.3995;
898.8000;0.7383;1.4260;
899.1000;0.7375;1.4285;
899.4000;0.7375;1.4236;
899.7000;0.7375;1.4164;
900.0000;0.7367;1.4140;
900.3000;0.7350;1.4164;
900.6000;0.7367;1.4212;
900.9000;0.7383;1.4212;
901.2000;0.7359;1.4164;
901.5000;0.7432;1.4357;
901.8000;0.7318;1.4019;
902.1000;0.7342;1.4091;
902.4000;0.7326;1.4067;
902.7000;0.7359;1.4019;
903.0000;0.7367;1.4043;
903.3000;0.7391;1.4043;
903.6000;0.7375;1.3995;
903.9000;0.7375;1.3970;
904.2000;0.7391;1.3898;
904.5000;0.7383;1.3850;
904.8000;0.7359;1.3874;
905.1000;0.7367;1.3922;
905.4000;0.7342;1.3898;
905.7000;0.7326;1.3825;
906.0000;0.7342;1.3850;
906.3000;0.7367;1.3922;
906.6000;0.7350;1.3970;
906.9000;0.7334;1.3922;
907.2000;0.7350;1.3922;
907.5000;0.7342;1.3946;
907.8000;0.7350;1.3995;
908.1000;0.7342;1.4043;
908.4000;0.7359;1.3995;
908.7000;0.7350;1.3946;
909.0000;0.7350;1.4043;
909.3000;0.7367;1.4140;
909.6000;0.7350;1.4115;
909.9000;0.7367;1.4115;
910.2000;0.7367;1.4140;
910.5000;0.7367;1.4091;
910.8000;0.7342;1.4019;
911.1000;0.7359;1.4019;
911.4000;0.7359;1.4115;
911.7000;0.7350;1.4115;
912.0000;0.7350;1.4164;
912.3000;0.7416;1.4381;
912.6000;0.7350;1.4212;
912.9000;0.7367;1.4212;
913.2000;0.7350;1.4236;
913.5000;0.7367;1.4188;
913.8000;0.7342;1.4115;
914.1000;0.7359;1.4164;
914.4000;0.7350;1.4188;
914.7000;0.7350;1.4140;
915.0000;0.7342;1.4140;
915.3000;0.7326;1.4140;
915.6000;0.7334;1.4188;
915.9000;0.7342;1.4188;
916.2000;0.7342;1.4260;
916.5000;0.7342;1.4236;
916.8000;0.7383;1.4309;
917.1000;0.7334;1.4188;
917.4000;0.7318;1.4115;
917.7000;0.7342;1.4115;
918.0000;0.7318;1.4091;
918.3000;0.7350;1.4115;
918.6000;0.7334;1.4043;
918.9000;0.7342;1.4019;
919.2000;0.7359;1.4115;
919.5000;0.7342;1.4091;
919.8000;0.7350;1.4091;
920.1000;0.7342;1.4115;
920.4000;0.7334;1.4164;
920.7000;0.7359;1.4140;
921.0000;0.7318;1.4067;
921.3000;0.7326;1.4091;
921.6000;0.7334;1.4091;
921.9000;0.7359;1.4091;
922.2000;0.7367;1.4091;
922.5000;0.7342;1.4067;
922.8000;0.7342;1.4188;
923.1000;0.7326;1.4188;
923.4000;0.7334;1.4212;
923.7000;0.7342;1.4285;
924.0000;0.7432;1.4406;
924.3000;0.7326;1.4140;
924.6000;0.7367;1.4212;
924.9000;0.7334;1.4115;
925.2000;0.7326;1.4067;
925.5000;0.7326;1.4091;
925.8000;0.7310;1.4091;
926.1000;0.7342;1.4236;
926.4000;0.7326;1.4164;
926.7000;0.7310;1.4164;
927.0000;0.7318;1.4212;
927.3000;0.7326;1.4236;
927.6000;0.7334;1.4188;
927.9000;0.7334;1.4285;
928.2000;0.7277;1.4091;
928.5000;0.7326;1.4140;
928.8000;0.7318;1.4019;
929.1000;0.7318;1.3995;
929.4000;0.7261;1.3922;
929.7000;0.7350;1.3995;
930.0000;0.7334;1.3946;
930.3000;0.7310;1.3946;
930.6000;0.7310;1.3898;
930.9000;0.7302;1.3970;
931.2000;0.7302;1.4019;
931.5000;0.7310;1.4019;
931.8000;0.7302;1.3946;
932.1000;0.7310;1.3970;
932.4000;0.7318;1.3970;
932.7000;0.7302;1.3922;
933.0000;0.7285;1.3825;
933.3000;0.7310;1.3874;
933.6000;0.7334;1.3874;
933.9000;0.7318;1.3825;
934.2000;0.7318;1.3850;
934.5000;0.7326;1.3850;
934.8000;0.7318;1.3898;
935.1000;0.7326;1.3946;
935.4000;0.7310;1.3946;
935.7000;0.7326;1.3922;
936.0000;0.7310;1.3825;
936.3000;0.7334;1.3801;
936.6000;0.7334;1.3874;
936.9000;0.7302;1.3898;
937.2000;0.7318;1.3946;
937.5000;0.7334;1.4043;
937.8000;0.7326;1.4019;
938.1000;0.7302;1.3995;
938.4000;0.7302;1.4091;
938.7000;0.7277;1.4019;
939.0000;0.7302;1.4091;
939.3000;0.7310;1.4043;
939.6000;0.7285;1.4067;
939.9000;0.7310;1.4043;
940.2000;0.7318;1.4019;
940.5000;0.7293;1.3946;
940.8000;0.7342;1.3970;
941.1000;0.7310;1.3874;
941.4000;0.7293;1.3874;
941.7000;0.7302;1.3801;
942.0000;0.7293;1.3801;
942.3000;0.7310;1.3898;
942.6000;0.7293;1.3946;
942.9000;0.7310;1.3995;
943.2000;0.7302;1.4043;
943.5000;0.7302;1.3995;
943.8000;0.7318;1.3970;
944.1000;0.7310;1.3946;
944.4000;0.7253;1.3946;
944.7000;0.7302;1.4091;
945.0000;0.7302;1.4164;
945.3000;0.7302;1.4115;
945.6000;0.7285;1.4188;
945.9000;0.7293;1.4164;
946.2000;0.7318;1.4140;
946.5000;0.7310;1.4115;
946.8000;0.7293;1.4091;
947.1000;0.7285;1.4043;
947.4000;0.7302;1.4091;
947.7000;0.7269;1.4019;
948.0000;0.7253;1.3874;
948.3000;0.7285;1.3946;
948.6000;0.7293;1.4043;
948.9000;0.7285;1.4067;
949.2000;0.7285;1.4019;
949.5000;0.7285;1.3995;
949.8000;0.7277;1.3898;
950.1000;0.7277;1.3898;
950.4000;0.7285;1.3898;
950.7000;0.7277;1.3825;
951.0000;0.7269;1.3777;
951.3000;0.7269;1.3729;
951.6000;0.7277;1.3729;
951.9000;0.7277;1.3680;
952.2000;0.7269;1.3705;
952.5000;0.7302;1.3801;
952.8000;0.7269;1.3825;
953.1000;0.7277;1.3850;
953.4000;0.7277;1.3825;
953.7000;0.7269;1.3850;
954.0000;0.7285;1.3898;
954.3000;0.7293;1.3898;
954.6000;0.7285;1.3922;
954.9000;0.7285;1.3970;
955.2000;0.7302;1.4091;
955.5000;0.7302;1.4140;
955.8000;0.7293;1.4115;
956.1000;0.7285;1.4091;
956.4000;0.7285;1.4091;
956.7000;0.7350;1.4236;
957.0000;0.7285;1.4067;
957.3000;0.7261;1.3922;
957.6000;0.7269;1.3995;
957.9000;0.7293;1.4019;
958.2000;0.7285;1.4043;
958.5000;0.7269;1.3995;
958.8000;0.7277;1.3995;
959.1000;0.7228;1.3753;
959.4000;0.7285;1.3825;
959.7000;0.7261;1.3850;
960.0000;0.7212;1.3705;
960.3000;0.7277;1.3946;
960.6000;0.7261;1.4043;
960.9000;0.7269;1.4067;
961.2000;0.7245;1.3970;
961.5000;0.7261;1.4091;
961.8000;0.7277;1.4115;
962.1000;0.7269;1.4091;
962.4000;0.7269;1.4115;
962.7000;0.7277;1.4212;
963.0000;0.7253;1.4164;
963.3000;0.7261;1.4140;
963.6000;0.7253;1.3995;
963.9000;0.7261;1.4091;
964.2000;0.7261;1.4115;
964.5000;0.7228;1.4043;
964.8000;0.7245;1.4091;
965.1000;0.7253;1.3995;
965.4000;0.7269;1.4043;
965.7000;0.7253;1.4019;
966.0000;0.7269;1.3946;
966.3000;0.7269;1.3995;
966.6000;0.7253;1.3946;
966.9000;0.7293;1.4067;
967.2000;0.7285;1.4067;
967.5000;0.7253;1.4043;
967.8000;0.7261;1.4067;
968.1000;0.7277;1.4019;
968.4000;0.7253;1.3946;
968.7000;0.7277;1.4019;
969.0000;0.7269;1.3970;
969.3000;0.7269;1.4019;
969.6000;0.7269;1.4091;
969.9000;0.7261;1.4115;
970.2000;0.7245;1.4115;
970.5000;0.7245;1.4067;
970.8000;0.7245;1.4140;
971.1000;0.7285;1.4212;
971.4000;0.7261;1.4067;
971.7000;0.7253;1.3995;
972.0000;0.7253;1.4019;
972.3000;0.7236;1.4043;
972.6000;0.7253;1.4091;
972.9000;0.7236;1.4115;
973.2000;0.7253;1.4140;
973.5000;0.7253;1.4140;
973.8000;0.7253;1.4091;
974.1000;0.7245;1.4164;
974.4000;0.7228;1.4115;
974.7000;0.7253;1.4212;
975.0000;0.7236;1.4236;
975.3000;0.7253;1.4212;
975.6000;0.7212;1.4091;
975.9000;0.7236;1.4164;
976.2000;0.7228;1.4067;
976.5000;0.7220;1.4067;
976.8000;0.7245;1.4188;
977.1000;0.7245;1.4188;
977.4000;0.7269;1.4236;
977.7000;0.7245;1.4164;
978.0000;0.7245;1.4140;
978.3000;0.7253;1.4188;
978.6000;0.7253;1.4164;
978.9000;0.7253;1.4140;
979.2000;0.7253;1.4140;
979.5000;0.7269;1.4164;
979.8000;0.7269;1.4140;
980.1000;0.7261;1.4019;
980.4000;0.7269;1.4043;
980.7000;0.7269;1.4067;
981.0000;0.7277;1.4067;
981.3000;0.7277;1.4091;
981.6000;0.7253;1.4091;
981.9000;0.7277;1.4164;
982.2000;0.7236;1.4164;
982.5000;0.7245;1.4140;
982.8000;0.7245;1.4067;
983.1000;0.7212;1.4043;
983.4000;0.7285;1.4236;
983.7000;0.7236;1.4043;
984.0000;0.7236;1.4115;
984.3000;0.7253;1.4115;
984.6000;0.7228;1.4043;
984.9000;0.7228;1.3995;
985.2000;0.7204;1.4043;
985.5000;0.7204;1.4019;
985.8000;0.7236;1.3995;
986.1000;0.7253;1.4043;
986.4000;0.7228;1.3970;
986.7000;0.7253;1.4043;
987.0000;0.7228;1.4019;
987.3000;0.7236;1.4043;
987.6000;0.7212;1.4019;
987.9000;0.7236;1.4019;
988.2000;0.7236;1.4043;
988.5000;0.7236;1.4019;
988.8000;0.7245;1.4019;
989.1000;0.7220;1.4019;
989.4000;0.7245;1.3995;
989.7000;0.7220;1.4019;
990.0000;0.7228;1.3995;
990.3000;0.7212;1.3922;
990.6000;0.7179;1.3874;
990.9000;0.7245;1.3946;
991.2000;0.7228;1.4043;
991.5000;0.7236;1.4091;
991.8000;0.7245;1.4115;
992.1000;0.7245;1.4067;
992.4000;0.7310;1.4164;
992.7000;0.7261;1.3995;
993.0000;0.7220;1.3850;
993.3000;0.7245;1.3946;
993.6000;0.7326;1.4164;
993.9000;0.7220;1.3898;
994.2000;0.7253;1.3946;
994.5000;0.7236;1.3970;
994.8000;0.7236;1.3874;
995.1000;0.7228;1.3874;
995.4000;0.7236;1.3825;
995.7000;0.7236;1.3850;
996.0000;0.7196;1.3777;
996.3000;0.7236;1.3922;
996.6000;0.7245;1.3970;
996.9000;0.7228;1.3850;
997.2000;0.7236;1.3850;
997.5000;0.7236;1.3922;
997.8000;0.7220;1.3970;
998.1000;0.7253;1.4091;
998.4000;0.7228;1.4091;
998.7000;0.7228;1.4091;
999.0000;0.7212;1.3995;
999.3000;0.7236;1.4043;
999.6000;0.7220;1.3946;
999.9000;0.7212;1.3850;
1000.2000;0.7220;1.3946;
1000.5000;0.7212;1.3995;
1000.8000;0.7228;1.4067;
1001.1000;0.7228;1.4164;
1001.4000;0.7228;1.4188;
1001.7000;0.7220;1.4236;
1002.0000;0.7228;1.4333;
1002.3000;0.7236;1.4309;
1002.6000;0.7212;1.4285;
1002.9000;0.7253;1.4309;
1003.2000;0.7228;1.4309;
1003.5000;0.7204;1.4309;
1003.8000;0.7220;1.4430;
1004.1000;0.7253;1.4454;
1004.4000;0.7228;1.4333;
1004.7000;0.7228;1.4260;
1005.0000;0.7220;1.4188;
1005.3000;0.7236;1.4188;
1005.6000;0.7228;1.4091;
1005.9000;0.7261;1.4115;
1006.2000;0.7212;1.4019;
1006.5000;0.7188;1.3970;
1006.8000;0.7220;1.3995;
1007.1000;0.7204;1.4043;
1007.4000;0.7204;1.4188;
1007.7000;0.7220;1.4140;
1008.0000;0.7220;1.4140;
1008.3000;0.7196;1.4115;
1008.6000;0.7196;1.4067;
1008.9000;0.7212;1.4164;
1009.2000;0.7212;1.4212;
1009.5000;0.7204;1.4115;
1009.8000;0.7204;1.4091;
1010.1000;0.7204;1.4115;
1010.4000;0.7212;1.4188;
1010.7000;0.7212;1.4212;
1011.0000;0.7204;1.4236;
1011.3000;0.7204;1.4285;
1011.6000;0.7212;1.4381;
1011.9000;0.7212;1.4357;
1012.2000;0.7228;1.4406;
1012.5000;0.7228;1.4381;
1012.8000;0.7220;1.4236;
1013.1000;0.7261;1.4309;
1013.4000;0.7204;1.4115;
1013.7000;0.7204;1.4188;
1014.0000;0.7220;1.4236;
1014.3000;0.7228;1.4285;
1014.6000;0.7212;1.4285;
1014.9000;0.7196;1.4188;
1015.2000;0.7228;1.4309;
1015.5000;0.7204;1.4285;
1015.8000;0.7220;1.4236;
1016.1000;0.7204;1.4260;
1016.4000;0.7196;1.4285;
1016.7000;0.7212;1.4357;
1017.0000;0.7188;1.4285;
1017.3000;0.7212;1.4333;
1017.6000;0.7139;1.4115;
1017.9000;0.7228;1.4333;
1018.2000;0.7188;1.4285;
1018.5000;0.7228;1.4357;
1018.8000;0.7204;1.4285;
1019.1000;0.7188;1.4333;
1019.4000;0.7204;1.4236;
1019.7000;0.7212;1.4285;
1020.0000;0.7196;1.4285;
1020.3000;0.7212;1.4333;
1020.6000;0.7228;1.4430;
1020.9000;0.7196;1.4381;
1021.2000;0.7179;1.4285;
1021.5000;0.7196;1.4333;
1021.8000;0.7212;1.4333;
1022.1000;0.7204;1.4357;
1022.4000;0.7163;1.4285;
1022.7000;0.7212;1.4381;
1023.0000;0.7228;1.4381;
1023.3000;0.7188;1.4333;
1023.6000;0.7196;1.4309;
1023.9000;0.7212;1.4430;
1024.2000;0.7220;1.4406;
1024.5000;0.7204;1.4406;
1024.8000;0.7212;1.4430;
1025.1000;0.7188;1.4260;
1025.4000;0.7196;1.4357;
1025.7000;0.7204;1.4406;
1026.0000;0.7212;1.4430;
1026.3000;0.7196;1.4381;
1026.6000;0.7188;1.4406;
1026.9000;0.7188;1.4381;
1027.2000;0.7179;1.4333;
1027.5000;0.7196;1.4406;
1027.8000;0.7179;1.4333;
1028.1000;0.7204;1.4309;
1028.4000;0.7171;1.4212;
1028.7000;0.7171;1.4212;
1029.0000;0.7171;1.4260;
1029.3000;0.7179;1.4357;
1029.6000;0.7188;1.4357;
1029.9000;0.7123;1.4260;
1030.2000;0.7188;1.4309;
1030.5000;0.7188;1.4309;
1030.8000;0.7204;1.4236;
1031.1000;0.7204;1.4212;
1031.4000;0.7188;1.4236;
1031.7000;0.7188;1.4260;
1032.0000;0.7196;1.4357;
1032.3000;0.7188;1.4357;
1032.6000;0.7196;1.4430;
1032.9000;0.7196;1.4478;
1033.2000;0.7188;1.4406;
1033.5000;0.7196;1.4357;
1033.8000;0.7188;1.4260;
1034.1000;0.7179;1.4188;
1034.4000;0.7188;1.4333;
1034.7000;0.7179;1.4381;
1035.0000;0.7196;1.4406;
1035.3000;0.7179;1.4333;
1035.6000;0.7188;1.4333;
1035.9000;0.7196;1.4260;
1036.2000;0.7196;1.4236;
1036.5000;0.7179;1.4260;
1036.8000;0.7204;1.4309;
1037.1000;0.7228;1.4333;
1037.4000;0.7204;1.4309;
1037.7000;0.7204;1.4333;
1038.0000;0.7188;1.4333;
1038.3000;0.7196;1.4430;
1038.6000;0.7155;1.4309;
1038.9000;0.7188;1.4357;
1039.2000;0.7196;1.4381;
1039.5000;0.7196;1.4454;
1039.8000;0.7179;1.4454;
1040.1000;0.7220;1.4551;
1040.4000;0.7171;1.4502;
1040.7000;0.7188;1.4406;
1041.0000;0.7188;1.4381;
1041.3000;0.7188;1.4333;
1041.6000;0.7106;1.4043;
1041.9000;0.7163;1.4285;
1042.2000;0.7236;1.4357;
1042.5000;0.7188;1.4164;
1042.8000;0.7179;1.4067;
1043.1000;0.7204;1.4067;
1043.4000;0.7188;1.4019;
1043.7000;0.7188;1.4115;
1044.0000;0.7188;1.4091;
1044.3000;0.7196;1.4164;
1044.6000;0.7188;1.4164;
1044.9000;0.7179;1.4115;
1045.2000;0.7188;1.4164;
1045.5000;0.7179;1.4188;
1045.8000;0.7188;1.4188;
1046.1000;0.7171;1.4236;
1046.4000;0.7163;1.4188;
1046.7000;0.7179;1.4236;
1047.0000;0.7171;1.4164;
1047.3000;0.7188;1.4188;
1047.6000;0.7171;1.4212;
1047.9000;0.7188;1.4285;
1048.2000;0.7179;1.4285;
1048.5000;0.7188;1.4333;
1048.8000;0.7196;1.4309;
1049.1000;0.7204;1.4236;
1049.4000;0.7188;1.4236;
1049.7000;0.7196;1.4260;
1050.0000;0.7179;1.4285;
1050.3000;0.7188;1.4357;
1050.6000;0.7188;1.4357;
1050.9000;0.7188;1.4357;
1051.2000;0.7188;1.4333;
1051.5000;0.7171;1.4309;
1051.8000;0.7171;1.4236;
1052.1000;0.7188;1.4236;
1052.4000;0.7179;1.4333;
1052.7000;0.7179;1.4454;
1053.0000;0.7188;1.4454;
1053.3000;0.7212;1.4454;
1053.6000;0.7204;1.4357;
1053.9000;0.7131;1.4236;
1054.2000;0.7179;1.4333;
1054.5000;0.7171;1.4309;
1054.8000;0.7171;1.4406;
1055.1000;0.7163;1.4430;
1055.4000;0.7171;1.4454;
1055.7000;0.7188;1.4575;
1056.0000;0.7188;1.4551;
1056.3000;0.7179;1.4478;
1056.6000;0.7188;1.4551;
1056.9000;0.7131;1.4502;
1057.2000;0.7147;1.4575;
1057.5000;0.7163;1.4575;
1057.8000;0.7163;1.4599;
1058.1000;0.7163;1.4575;
1058.4000;0.7188;1.4623;
1058.7000;0.7188;1.4647;
1059.0000;0.7163;1.4623;
1059.3000;0.7171;1.4551;
1059.6000;0.7147;1.4575;
1059.9000;0.7171;1.4599;
1060.2000;0.7171;1.4647;
1060.5000;0.7155;1.4671;
1060.8000;0.7171;1.4671;
1061.1000;0.7155;1.4575;
1061.4000;0.7171;1.4671;
1061.7000;0.7163;1.4671;
1062.0000;0.7171;1.4671;
1062.3000;0.7171;1.4575;
1062.6000;0.7179;1.4623;
1062.9000;0.7179;1.4599;
1063.2000;0.7163;1.4551;
1063.5000;0.7163;1.4478;
1063.8000;0.7204;1.4575;
1064.1000;0.7179;1.4551;
1064.4000;0.7123;1.4454;
1064.7000;0.7163;1.4526;
1065.0000;0.7155;1.4526;
1065.3000;0.7163;1.4526;
1065.6000;0.7171;1.4502;
1065.9000;0.7155;1.4454;
1066.2000;0.7147;1.4357;
1066.5000;0.7171;1.4406;
1066.8000;0.7163;1.4406;
1067.1000;0.7139;1.4381;
1067.4000;0.7155;1.4502;
1067.7000;0.7139;1.4454;
1068.0000;0.7131;1.4430;
1068.3000;0.7147;1.4526;
1068.6000;0.7171;1.4647;
1068.9000;0.7163;1.4647;
1069.2000;0.7155;1.4744;
1069.5000;0.7139;1.4744;
1069.8000;0.7147;1.4720;
1070.1000;0.7147;1.4792;
1070.4000;0.7147;1.4720;
1070.7000;0.7155;1.4696;
1071.0000;0.7147;1.4575;
1071.3000;0.7163;1.4623;
1071.6000;0.7163;1.4647;
1071.9000;0.7179;1.4720;
1072.2000;0.7171;1.4647;
1072.5000;0.7163;1.4696;
1072.8000;0.7171;1.4647;
1073.1000;0.7139;1.4647;
1073.4000;0.7163;1.4671;
1073.7000;0.7171;1.4696;
1074.0000;0.7147;1.4647;
1074.3000;0.7090;1.4454;
1074.6000;0.7163;1.4623;
1074.9000;0.7147;1.4647;
1075.2000;0.7155;1.4744;
1075.5000;0.7163;1.4720;
1075.8000;0.7163;1.4599;
1076.1000;0.7098;1.4478;
1076.4000;0.7098;1.4478;
1076.7000;0.7163;1.4599;
1077.0000;0.7155;1.4599;
1077.3000;0.7188;1.4671;
1077.6000;0.7171;1.4599;
1077.9000;0.7163;1.4623;
1078.2000;0.7171;1.4599;
1078.5000;0.7155;1.4647;
1078.8000;0.7123;1.4575;
1079.1000;0.7155;1.4599;
1079.4000;0.7155;1.4551;
1079.7000;0.7163;1.4526;
1080.0000;0.7139;1.4502;
1080.3000;0.7155;1.4599;
1080.6000;0.7163;1.4502;
1080.9000;0.7163;1.4671;
1081.2000;0.7139;1.4671;
1081.5000;0.7139;1.4671;
1081.8000;0.7106;1.4599;
1082.1000;0.7139;1.4647;
1082.4000;0.7139;1.4623;
1082.7000;0.7163;1.4696;
1083.0000;0.7163;1.4744;
1083.3000;0.7155;1.4647;
1083.6000;0.7147;1.4526;
1083.9000;0.7155;1.4526;
1084.2000;0.7155;1.4599;
1084.5000;0.7163;1.4575;
1084.8000;0.7147;1.4526;
1085.1000;0.7188;1.4647;
1085.4000;0.7147;1.4551;
1085.7000;0.7147;1.4551;
1086.0000;0.7155;1.4526;
1086.3000;0.7139;1.4381;
1086.6000;0.7139;1.4406;
1086.9000;0.7155;1.4454;
1087.2000;0.7139;1.4478;
1087.5000;0.7139;1.4502;
1087.8000;0.7139;1.4551;
1088.1000;0.7163;1.4575;
1088.4000;0.7155;1.4551;
1088.7000;0.7139;1.4575;
1089.0000;0.7114;1.4454;
1089.3000;0.7147;1.4526;
1089.6000;0.7163;1.4502;
1089.9000;0.7082;1.4285;
1090.2000;0.7123;1.4454;
1090.5000;0.7131;1.4478;
1090.8000;0.7147;1.4551;
1091.1000;0.7139;1.4551;
1091.4000;0.7123;1.4502;
1091.7000;0.7147;1.4575;
1092.0000;0.7139;1.4647;
1092.3000;0.7139;1.4696;
1092.6000;0.7123;1.4623;
1092.9000;0.7147;1.4696;
1093.2000;0.7179;1.4744;
1093.5000;0.7123;1.4575;
1093.8000;0.7131;1.4526;
1094.1000;0.7106;1.4502;
1094.4000;0.7131;1.4526;
1094.7000;0.7155;1.4575;
1095.0000;0.7139;1.4575;
1095.3000;0.7139;1.4526;
1095.6000;0.7155;1.4623;
1095.9000;0.7131;1.4599;
1096.2000;0.7139;1.4526;
1096.5000;0.7147;1.4502;
1096.8000;0.7155;1.4551;
1097.1000;0.7155;1.4575;
1097.4000;0.7147;1.4454;
1097.7000;0.7147;1.4430;
1098.0000;0.7204;1.4599;
1098.3000;0.7179;1.4551;
1098.6000;0.7155;1.4478;
1098.9000;0.7179;1.4575;
1099.2000;0.7131;1.4478;
1099.5000;0.7139;1.4551;
1099.8000;0.7139;1.4478;
1100.1000;0.7090;1.4454;
1100.4000;0.7139;1.4551;
1100.7000;0.7131;1.4551;
1101.0000;0.7139;1.4551;
1101.3000;0.7139;1.4551;
1101.6000;0.7131;1.4599;
1101.9000;0.7147;1.4623;
1102.2000;0.7123;1.4623;
1102.5000;0.7123;1.4575;
1102.8000;0.7114;1.4526;
1103.1000;0.7123;1.4575;
1103.4000;0.7139;1.4551;
1103.7000;0.7131;1.4623;
1104.0000;0.7123;1.4551;
1104.3000;0.7131;1.4599;
1104.6000;0.7131;1.4599;
1104.9000;0.7139;1.4647;
1105.2000;0.7131;1.4575;
1105.5000;0.7131;1.4526;
1105.8000;0.7131;1.4478;
1106.1000;0.7139;1.4381;
1106.4000;0.7131;1.4430;
1106.7000;0.7139;1.4406;
1107.0000;0.7114;1.4430;
1107.3000;0.7147;1.4454;
1107.6000;0.7131;1.4406;
1107.9000;0.7139;1.4357;
1108.2000;0.7147;1.4381;
1108.5000;0.7147;1.4406;
1108.8000;0.7139;1.4260;
1109.1000;0.7147;1.4357;
1109.4000;0.7163;1.4381;
1109.7000;0.7123;1.4406;
1110.0000;0.7163;1.4502;
1110.3000;0.7131;1.4430;
1110.6000;0.7139;1.4430;
1110.9000;0.7139;1.4309;
1111.2000;0.7139;1.4406;
1111.5000;0.7147;1.4406;
1111.8000;0.7123;1.4357;
1112.1000;0.7106;1.4309;
1112.4000;0.7114;1.4333;
1112.7000;0.7131;1.4381;
1113.0000;0.7131;1.4406;
1113.3000;0.7114;1.4357;
1113.6000;0.7131;1.4454;
1113.9000;0.7131;1.4478;
1114.2000;0.7114;1.4406;
1114.5000;0.7123;1.4406;
1114.8000;0.7114;1.4381;
1115.1000;0.7171;1.4478;
1115.4000;0.7106;1.4357;
1115.7000;0.7139;1.4454;
1116.0000;0.7074;1.4406;
1116.3000;0.7082;1.4381;
1116.6000;0.7139;1.4454;
1116.9000;0.7147;1.4526;
1117.2000;0.7106;1.4454;
1117.5000;0.7106;1.4502;
1117.8000;0.7123;1.4526;
1118.1000;0.7114;1.4381;
1118.4000;0.7114;1.4454;
1118.7000;0.7123;1.4526;
1119.0000;0.7147;1.4623;
1119.3000;0.7098;1.4478;
1119.6000;0.7131;1.4575;
1119.9000;0.7131;1.4551;
1120.2000;0.7139;1.4623;
1120.5000;0.7139;1.4526;
1120.8000;0.7131;1.4526;
1121.1000;0.7147;1.4526;
1121.4000;0.7155;1.4575;
1121.7000;0.7131;1.4575;
1122.0000;0.7131;1.4551;
1122.3000;0.7147;1.4526;
1122.6000;0.7171;1.4551;
1122.9000;0.7114;1.4406;
1123.2000;0.7123;1.4309;
1123.5000;0.7114;1.4333;
1123.8000;0.7106;1.4406;
1124.1000;0.7114;1.4406;
1124.4000;0.7131;1.4526;
1124.7000;0.7123;1.4575;
1125.0000;0.7131;1.4623;
1125.3000;0.7123;1.4599;
1125.6000;0.7123;1.4526;
1125.9000;0.7131;1.4551;
1126.2000;0.7123;1.4551;
1126.5000;0.7114;1.4575;
1126.8000;0.7114;1.4671;
1127.1000;0.7114;1.4671;
1127.4000;0.7106;1.4647;
1127.7000;0.7123;1.4502;
1128.0000;0.7123;1.4454;
1128.3000;0.7123;1.4502;
1128.6000;0.7114;1.4526;
1128.9000;0.7123;1.4454;
1129.2000;0.7139;1.4478;
1129.5000;0.7106;1.4381;
1129.8000;0.7123;1.4454;
1130.1000;0.7114;1.4406;
1130.4000;0.7139;1.4430;
1130.7000;0.7123;1.4502;
1131.0000;0.7123;1.4551;
1131.3000;0.7114;1.4502;
1131.6000;0.7123;1.4478;
1131.9000;0.7139;1.4526;
1132.2000;0.7123;1.4502;
1132.5000;0.7123;1.4430;
1132.8000;0.7131;1.4526;
1133.1000;0.7114;1.4551;
1133.4000;0.7123;1.4551;
1133.7000;0.7131;1.4623;
1134.0000;0.7155;1.4720;
1134.3000;0.7131;1.4647;
1134.6000;0.7123;1.4647;
1134.9000;0.7123;1.4647;
1135.2000;0.7147;1.4720;
1135.5000;0.7114;1.4575;
1135.8000;0.7123;1.4599;
1136.1000;0.7074;1.4502;
1136.4000;0.7123;1.4623;
1136.7000;0.7131;1.4575;
1137.0000;0.7106;1.4478;
1137.3000;0.7123;1.4575;
1137.6000;0.7123;1.4502;
1137.9000;0.7106;1.4478;
1138.2000;0.7090;1.4430;
1138.5000;0.7114;1.4551;
1138.8000;0.7090;1.4502;
1139.1000;0.7098;1.4478;
1139.4000;0.7123;1.4599;
1139.7000;0.7106;1.4526;
1140.0000;0.7171;1.4720;
1140.3000;0.7123;1.4599;
1140.6000;0.7123;1.4599;
1140.9000;0.7106;1.4526;
1141.2000;0.7049;1.4381;
1141.5000;0.7114;1.4623;
1141.8000;0.7123;1.4575;
1142.1000;0.7114;1.4551;
1142.4000;0.7114;1.4599;
1142.7000;0.7114;1.4623;
1143.0000;0.7114;1.4696;
1143.3000;0.7123;1.4647;
1143.6000;0.7114;1.4575;
1143.9000;0.7123;1.4623;
1144.2000;0.7131;1.4599;
1144.5000;0.7123;1.4575;
1144.8000;0.7123;1.4599;
1145.1000;0.7131;1.4575;
1145.4000;0.7123;1.4551;
1145.7000;0.7139;1.4599;
1146.0000;0.7106;1.4526;
1146.3000;0.7082;1.4454;
1146.6000;0.7131;1.4599;
1146.9000;0.7106;1.4671;
1147.2000;0.7114;1.4599;
1147.5000;0.7106;1.4599;
1147.8000;0.7098;1.4623;
1148.1000;0.7106;1.4599;
1148.4000;0.7123;1.4551;
1148.7000;0.7106;1.4502;
1149.0000;0.7074;1.4502;
1149.3000;0.7131;1.4478;
1149.6000;0.7131;1.4551;
1149.9000;0.7131;1.4551;
1150.2000;0.7114;1.4526;
1150.5000;0.7106;1.4478;
1150.8000;0.7114;1.4526;
1151.1000;0.7123;1.4599;
1151.4000;0.7106;1.4599;
1151.7000;0.7123;1.4671;
1152.0000;0.7114;1.4671;
1152.3000;0.7139;1.4744;
1152.6000;0.7114;1.4647;
1152.9000;0.7090;1.4671;
1153.2000;0.7114;1.4696;
1153.5000;0.7098;1.4720;
1153.8000;0.7106;1.4599;
1154.1000;0.7098;1.4696;
1154.4000;0.7106;1.4744;
1154.7000;0.7106;1.4768;
1155.0000;0.7114;1.4792;
1155.3000;0.7123;1.4744;
1155.6000;0.7106;1.4720;
1155.9000;0.7123;1.4744;
1156.2000;0.7123;1.4720;
1156.5000;0.7114;1.4720;
1156.8000;0.7114;1.4768;
1157.1000;0.7098;1.4720;
1157.4000;0.7106;1.4720;
1157.7000;0.7106;1.4720;
1158.0000;0.7131;1.4744;
1158.3000;0.7098;1.4744;
1158.6000;0.7114;1.4841;
1158.9000;0.7057;1.4623;
1159.2000;0.7090;1.4720;
1159.5000;0.7098;1.4768;
1159.8000;0.7098;1.4768;
1160.1000;0.7082;1.4647;
1160.4000;0.7098;1.4744;
1160.7000;0.7106;1.4744;
1161.0000;0.7106;1.4816;
1161.3000;0.7114;1.4792;
1161.6000;0.7090;1.4865;
1161.9000;0.7106;1.4889;
1162.2000;0.7090;1.4792;
1162.5000;0.7131;1.4889;
1162.8000;0.7098;1.4792;
1163.1000;0.7106;1.4841;
1163.4000;0.7074;1.4720;
1163.7000;0.7098;1.4841;
1164.0000;0.7098;1.4841;
1164.3000;0.7098;1.4792;
1164.6000;0.7131;1.4768;
1164.9000;0.7106;1.4671;
1165.2000;0.7147;1.4841;
1165.5000;0.7098;1.4768;
1165.8000;0.7098;1.4792;
1166.1000;0.7106;1.4768;
1166.4000;0.7090;1.4671;
1166.7000;0.7106;1.4768;
1167.0000;0.7098;1.4768;
1167.3000;0.7114;1.4865;
1167.6000;0.7123;1.4913;
1167.9000;0.7106;1.4913;
1168.2000;0.7106;1.4865;
1168.5000;0.7098;1.4841;
1168.8000;0.7114;1.4937;
1169.1000;0.7106;1.4889;
1169.4000;0.7123;1.4865;
1169.7000;0.7114;1.4937;
1170.0000;0.7131;1.4961;
1170.3000;0.7106;1.4889;
1170.6000;0.7106;1.4937;
1170.9000;0.7106;1.4913;
1171.2000;0.7114;1.4937;
1171.5000;0.7106;1.4913;
1171.8000;0.7131;1.4889;
1172.1000;0.7098;1.4816;
1172.4000;0.7098;1.4792;
1172.7000;0.7106;1.4792;
1173.0000;0.7106;1.4744;
1173.3000;0.7106;1.4599;
1173.6000;0.7123;1.4696;
1173.9000;0.7114;1.4623;
1174.2000;0.7106;1.4575;
1174.5000;0.7098;1.4575;
1174.8000;0.7106;1.4551;
1175.1000;0.7114;1.4502;
1175.4000;0.7106;1.4478;
1175.7000;0.7098;1.4478;
1176.0000;0.7098;1.4502;
1176.3000;0.7106;1.4454;
1176.6000;0.7106;1.4381;
1176.9000;0.7098;1.4381;
1177.2000;0.7106;1.4333;
1177.5000;0.7139;1.4333;
1177.8000;0.7106;1.4188;
1178.1000;0.7106;1.4188;
1178.4000;0.7098;1.4260;
1178.7000;0.7114;1.4309;
1179.0000;0.7106;1.4430;
1179.3000;0.7098;1.4454;
1179.6000;0.7082;1.4406;
1179.9000;0.7098;1.4333;
1180.2000;0.7106;1.4357;
1180.5000;0.7090;1.4285;
1180.8000;0.7106;1.4285;
1181.1000;0.7074;1.4357;
1181.4000;0.7114;1.4454;
1181.7000;0.7090;1.4381;
1182.0000;0.7090;1.4381;
1182.3000;0.7098;1.4285;
1182.6000;0.7106;1.4285;
1182.9000;0.7098;1.4309;
1183.2000;0.7082;1.4357;
1183.5000;0.7066;1.4381;
1183.8000;0.7098;1.4430;
1184.1000;0.7106;1.4551;
1184.4000;0.7066;1.4454;
1184.7000;0.7090;1.4502;
1185.0000;0.7066;1.4406;
1185.3000;0.7098;1.4478;
1185.6000;0.7106;1.4526;
1185.9000;0.7098;1.4575;
1186.2000;0.7123;1.4599;
1186.5000;0.7106;1.4551;
1186.8000;0.7114;1.4502;
1187.1000;0.7114;1.4502;
1187.4000;0.7106;1.4599;
1187.7000;0.7106;1.4623;
1188.0000;0.7114;1.4575;
1188.3000;0.7106;1.4575;
1188.6000;0.7098;1.4478;
1188.9000;0.7114;1.4454;
1189.2000;0.7106;1.4502;
1189.5000;0.7114;1.4502;
1189.8000;0.7131;1.4575;
1190.1000;0.7098;1.4430;
1190.4000;0.7114;1.4551;
1190.7000;0.7090;1.4454;
1191.0000;0.7106;1.4454;
1191.3000;0.7106;1.4309;
1191.6000;0.7098;1.4285;
1191.9000;0.7123;1.4357;
1192.2000;0.7082;1.4381;
1192.5000;0.7082;1.4430;
1192.8000;0.7106;1.4454;
1193.1000;0.7090;1.4454;
1193.4000;0.7074;1.4333;
1193.7000;0.7074;1.4309;
1194.0000;0.7090;1.4333;
1194.3000;0.7098;1.4381;
1194.6000;0.7098;1.4406;
1194.9000;0.7082;1.4430;
1195.2000;0.7082;1.4430;
1195.5000;0.7090;1.4478;
1195.8000;0.7090;1.4551;
1196.1000;0.7082;1.4575;
1196.4000;0.7082;1.4526;
1196.7000;0.7082;1.4502;
1197.0000;0.7114;1.4575;
1197.3000;0.7082;1.4551;
1197.6000;0.7082;1.4478;
1197.9000;0.7082;1.4430;
1198.2000;0.7082;1.4502;
1198.5000;0.7123;1.4599;
1198.8000;0.7090;1.4551;
1199.1000;0.7114;1.4623;
1199.4000;0.7106;1.4526;
1199.7000;0.7082;1.4430;
1200.0000;0.7098;1.4381;
1200.3000;0.7098;1.4357;
1200.6000;0.7106;1.4406;
1200.9000;0.7106;1.4357;
1201.2000;0.7082;1.4333;
1201.5000;0.7049;1.4309;
1201.8000;0.7106;1.4430;
1202.1000;0.7098;1.4502;
1202.4000;0.7090;1.4551;
1202.7000;0.7131;1.4599;
1203.0000;0.7123;1.4526;
1203.3000;0.7098;1.4502;
1203.6000;0.7090;1.4454;
1203.9000;0.7098;1.4502;
1204.2000;0.7114;1.4575;
1204.5000;0.7090;1.4551;
1204.8000;0.7098;1.4502;
1205.1000;0.7049;1.4381;
1205.4000;0.7090;1.4454;
1205.7000;0.7098;1.4502;
1206.0000;0.7106;1.4526;
1206.3000;0.7106;1.4478;
1206.6000;0.7098;1.4551;
1206.9000;0.7106;1.4551;
1207.2000;0.7009;1.4333;
1207.5000;0.7074;1.4526;
1207.8000;0.7082;1.4551;
1208.1000;0.7131;1.4599;
1208.4000;0.7090;1.4502;
1208.7000;0.7082;1.4526;
1209.0000;0.7090;1.4575;
1209.3000;0.7123;1.4623;
1209.6000;0.7114;1.4647;
1209.9000;0.7098;1.4599;
1210.2000;0.7082;1.4454;
1210.5000;0.7090;1.4526;
1210.8000;0.7098;1.4526;
1211.1000;0.7090;1.4454;
1211.4000;0.7098;1.4430;
1211.7000;0.7090;1.4430;
1212.0000;0.7098;1.4502;
1212.3000;0.7106;1.4551;
1212.6000;0.7074;1.4502;
1212.9000;0.7090;1.4502;
1213.2000;0.7139;1.4623;
1213.5000;0.7098;1.4454;
1213.8000;0.7090;1.4357;
1214.1000;0.7074;1.4381;
1214.4000;0.7049;1.4333;
1214.7000;0.7082;1.4478;
1215.0000;0.7090;1.4551;
1215.3000;0.7074;1.4502;
1215.6000;0.7082;1.4647;
1215.9000;0.7106;1.4744;
1216.2000;0.7074;1.4744;
1216.5000;0.7049;1.4623;
1216.8000;0.7090;1.4744;
1217.1000;0.7090;1.4720;
1217.4000;0.7090;1.4647;
1217.7000;0.7082;1.4575;
1218.0000;0.7074;1.4551;
1218.3000;0.7082;1.4599;
1218.6000;0.7082;1.4575;
1218.9000;0.7098;1.4599;
1219.2000;0.7090;1.4551;
1219.5000;0.7066;1.4478;
1219.8000;0.7082;1.4551;
1220.1000;0.7098;1.4671;
1220.4000;0.7082;1.4671;
1220.7000;0.7066;1.4720;
1221.0000;0.7017;1.4623;
1221.3000;0.7066;1.4696;
1221.6000;0.7074;1.4768;
1221.9000;0.7074;1.4720;
1222.2000;0.7098;1.4720;
1222.5000;0.7098;1.4575;
1222.8000;0.7074;1.4502;
1223.1000;0.7082;1.4502;
1223.4000;0.7090;1.4575;
1223.7000;0.7082;1.4575;
1224.0000;0.7066;1.4599;
1224.3000;0.7066;1.4526;
1224.6000;0.7066;1.4478;
1224.9000;0.7033;1.4454;
1225.2000;0.7066;1.4575;
1225.5000;0.7066;1.4502;
1225.8000;0.7082;1.4526;
1226.1000;0.7057;1.4478;
1226.4000;0.7066;1.4502;
1226.7000;0.7082;1.4575;
1227.0000;0.7049;1.4454;
1227.3000;0.7074;1.4430;
1227.6000;0.7082;1.4478;
1227.9000;0.7082;1.4381;
1228.2000;0.7066;1.4357;
1228.5000;0.7090;1.4430;
1228.8000;0.7082;1.4526;
1229.1000;0.7066;1.4551;
1229.4000;0.7074;1.4551;
1229.7000;0.7082;1.4526;
1230.0000;0.7074;1.4575;
1230.3000;0.7074;1.4551;
1230.6000;0.7074;1.4478;
1230.9000;0.7066;1.4357;
1231.2000;0.7090;1.4406;
1231.5000;0.7082;1.4406;
1231.8000;0.7074;1.4381;
1232.1000;0.7106;1.4478;
1232.4000;0.7041;1.4406;
1232.7000;0.7041;1.4430;
1233.0000;0.7098;1.4623;
1233.3000;0.7106;1.4599;
1233.6000;0.7098;1.4454;
1233.9000;0.7090;1.4406;
1234.2000;0.7131;1.4575;
1234.5000;0.7074;1.4430;
1234.8000;0.7074;1.4551;
1235.1000;0.7082;1.4647;
1235.4000;0.7090;1.4647;
1235.7000;0.7082;1.4744;
1236.0000;0.7049;1.4744;
1236.3000;0.7074;1.4792;
1236.6000;0.7098;1.4841;
1236.9000;0.7090;1.4889;
1237.2000;0.7074;1.4841;
1237.5000;0.7082;1.4768;
1237.8000;0.7082;1.4792;
1238.1000;0.7098;1.4768;
1238.4000;0.7074;1.4792;
1238.7000;0.7106;1.4768;
1239.0000;0.7082;1.4671;
1239.3000;0.7066;1.4696;
1239.6000;0.7090;1.4696;
1239.9000;0.7082;1.4623;
1240.2000;0.7090;1.4551;
1240.5000;0.7106;1.4526;
1240.8000;0.7074;1.4478;
1241.1000;0.7082;1.4599;
1241.4000;0.7049;1.4478;
1241.7000;0.7123;1.4575;
1242.0000;0.7066;1.4526;
1242.3000;0.7090;1.4575;
1242.6000;0.7082;1.4647;
1242.9000;0.7082;1.4696;
1243.2000;0.7082;1.4551;
1243.5000;0.7082;1.4478;
1243.8000;0.7057;1.4502;
1244.1000;0.7090;1.4406;
1244.4000;0.7074;1.4430;
1244.7000;0.7074;1.4406;
1245.0000;0.7057;1.4406;
1245.3000;0.7098;1.4599;
1245.6000;0.7090;1.4647;
1245.9000;0.7074;1.4623;
1246.2000;0.7106;1.4647;
1246.5000;0.7074;1.4623;
1246.8000;0.7082;1.4744;
1247.1000;0.7074;1.4744;
1247.4000;0.7066;1.4696;
1247.7000;0.7082;1.4623;
1248.0000;0.7106;1.4696;
1248.3000;0.7090;1.4551;
1248.6000;0.7082;1.4502;
1248.9000;0.7106;1.4575;
1249.2000;0.7082;1.4502;
1249.5000;0.7082;1.4551;
1249.8000;0.7090;1.4623;
1250.1000;0.7074;1.4696;
1250.4000;0.7074;1.4720;
1250.7000;0.7098;1.4792;
1251.0000;0.7082;1.4792;
1251.3000;0.7066;1.4792;
1251.6000;0.7082;1.4792;
1251.9000;0.7057;1.4671;
1252.2000;0.7090;1.4696;
1252.5000;0.7066;1.4696;
1252.8000;0.7074;1.4865;
1253.1000;0.7074;1.4841;
1253.4000;0.7098;1.4768;
1253.7000;0.7025;1.4623;
1254.0000;0.7090;1.4768;
1254.3000;0.7025;1.4623;
1254.6000;0.7082;1.4816;
1254.9000;0.7074;1.4841;
1255.2000;0.7139;1.4913;
1255.5000;0.7057;1.4792;
1255.8000;0.7090;1.4792;
1256.1000;0.7033;1.4647;
1256.4000;0.7049;1.4623;
1256.7000;0.7057;1.4647;
1257.0000;0.7074;1.4720;
1257.3000;0.7066;1.4720;
1257.6000;0.7074;1.4696;
1257.9000;0.7082;1.4720;
1258.2000;0.7082;1.4647;
1258.5000;0.7074;1.4671;
1258.8000;0.7074;1.4599;
1259.1000;0.7066;1.4575;
1259.4000;0.7098;1.4720;
1259.7000;0.7057;1.4599;
1260.0000;0.7074;1.4671;
1260.3000;0.7057;1.4671;
1260.6000;0.7098;1.4720;
1260.9000;0.7057;1.4599;
1261.2000;0.7066;1.4599;
1261.5000;0.7066;1.4575;
1261.8000;0.7090;1.4599;
1262.1000;0.7074;1.4430;
1262.4000;0.7139;1.4551;
1262.7000;0.7066;1.4381;
1263.0000;0.7057;1.4454;
1263.3000;0.7090;1.4502;
1263.6000;0.7090;1.4551;
1263.9000;0.7082;1.4575;
1264.2000;0.7066;1.4502;
1264.5000;0.7074;1.4502;
1264.8000;0.7066;1.4551;
1265.1000;0.7049;1.4478;
1265.4000;0.7049;1.4406;
1265.7000;0.7074;1.4430;
1266.0000;0.7074;1.4478;
1266.3000;0.7057;1.4381;
1266.6000;0.7025;1.4260;
1266.9000;0.7074;1.4381;
1267.2000;0.7082;1.4478;
1267.5000;0.7057;1.4430;
1267.8000;0.7057;1.4309;
1268.1000;0.7074;1.4309;
1268.4000;0.7074;1.4333;
1268.7000;0.7074;1.4406;
1269.0000;0.7090;1.4478;
1269.3000;0.7082;1.4454;
1269.6000;0.7057;1.4454;
1269.9000;0.7082;1.4551;
1270.2000;0.7106;1.4575;
1270.5000;0.7066;1.4454;
1270.8000;0.7082;1.4526;
1271.1000;0.7082;1.4454;
1271.4000;0.7074;1.4381;
1271.7000;0.7066;1.4430;
1272.0000;0.7074;1.4430;
1272.3000;0.7066;1.4357;
1272.6000;0.7074;1.4454;
1272.9000;0.7074;1.4502;
1273.2000;0.7082;1.4551;
1273.5000;0.7090;1.4623;
1273.8000;0.7074;1.4551;
1274.1000;0.7057;1.4551;
1274.4000;0.7098;1.4526;
1274.7000;0.7082;1.4454;
1275.0000;0.7082;1.4357;
1275.3000;0.7074;1.4406;
1275.6000;0.7074;1.4357;
1275.9000;0.7106;1.4406;
1276.2000;0.7066;1.4478;
1276.5000;0.7066;1.4454;
1276.8000;0.7057;1.4575;
1277.1000;0.7074;1.4647;
1277.4000;0.7082;1.4623;
1277.7000;0.7082;1.4575;
1278.0000;0.7066;1.4575;
1278.3000;0.7066;1.4575;
1278.6000;0.7049;1.4526;
1278.9000;0.7074;1.4575;
1279.2000;0.7074;1.4599;
1279.5000;0.7098;1.4696;
1279.8000;0.7074;1.4696;
1280.1000;0.7066;1.4647;
1280.4000;0.7066;1.4575;
1280.7000;0.7074;1.4478;
1281.0000;0.7074;1.4430;
1281.3000;0.7074;1.4430;
1281.6000;0.7074;1.4357;
1281.9000;0.7049;1.4357;
1282.2000;0.7074;1.4454;
1282.5000;0.7106;1.4478;
1282.8000;0.7066;1.4333;
1283.1000;0.7066;1.4357;
1283.4000;0.7114;1.4502;
1283.7000;0.7090;1.4575;
1284.0000;0.7057;1.4430;
1284.3000;0.7098;1.4526;
1284.6000;0.7066;1.4454;
1284.9000;0.7082;1.4454;
1285.2000;0.7082;1.4526;
1285.5000;0.7082;1.4526;
1285.8000;0.7066;1.4430;
1286.1000;0.7066;1.4454;
1286.4000;0.7082;1.4502;
1286.7000;0.7074;1.4478;
1287.0000;0.7041;1.4406;
1287.3000;0.7041;1.4381;
1287.6000;0.7066;1.4478;
1287.9000;0.7074;1.4478;
1288.2000;0.7074;1.4478;
1288.5000;0.7057;1.4381;
1288.8000;0.7049;1.4381;
1289.1000;0.7066;1.4454;
1289.4000;0.7066;1.4430;
1289.7000;0.7066;1.4454;
1290.0000;0.7090;1.4575;
1290.3000;0.7074;1.4647;
1290.6000;0.7082;1.4647;
1290.9000;0.7074;1.4599;
1291.2000;0.7074;1.4647;
1291.5000;0.7090;1.4647;
1291.8000;0.7090;1.4671;
1292.1000;0.7066;1.4599;
1292.4000;0.7066;1.4526;
1292.7000;0.7066;1.4454;
1293.0000;0.7049;1.4502;
1293.3000;0.7057;1.4551;
1293.6000;0.7057;1.4502;
1293.9000;0.7066;1.4551;
1294.2000;0.7057;1.4526;
1294.5000;0.7074;1.4478;
1294.8000;0.7057;1.4526;
1295.1000;0.7066;1.4575;
1295.4000;0.7082;1.4599;
1295.7000;0.7074;1.4575;
1296.0000;0.7057;1.4502;
1296.3000;0.7066;1.4575;
1296.6000;0.7074;1.4623;
1296.9000;0.7041;1.4671;
1297.2000;0.7066;1.4647;
1297.5000;0.7057;1.4526;
1297.8000;0.7082;1.4526;
1298.1000;0.7066;1.4551;
1298.4000;0.7074;1.4551;
1298.7000;0.7066;1.4430;
1299.0000;0.7082;1.4454;
1299.3000;0.7082;1.4526;
1299.6000;0.7049;1.4551;
1299.9000;0.7025;1.4502;
1300.2000;0.7098;1.4744;
1300.5000;0.7074;1.4744;
1300.8000;0.7066;1.4696;
1301.1000;0.7066;1.4720;
1301.4000;0.7106;1.4841;
1301.7000;0.7074;1.4792;
1302.0000;0.7066;1.4768;
1302.3000;0.7057;1.4768;
1302.6000;0.7074;1.4720;
1302.9000;0.7074;1.4720;
1303.2000;0.7090;1.4720;
1303.5000;0.7066;1.4696;
1303.8000;0.7066;1.4647;
1304.1000;0.7066;1.4623;
1304.4000;0.7082;1.4647;
1304.7000;0.7066;1.4623;
1305.0000;0.7041;1.4454;
1305.3000;0.7066;1.4430;
1305.6000;0.7074;1.4478;
1305.9000;0.7057;1.4430;
1306.2000;0.7049;1.4478;
1306.5000;0.7057;1.4551;
1306.8000;0.7057;1.4526;
1307.1000;0.7074;1.4526;
1307.4000;0.7057;1.4526;
1307.7000;0.7074;1.4575;
1308.0000;0.7066;1.4575;
1308.3000;0.7082;1.4502;
1308.6000;0.7057;1.4478;
1308.9000;0.7074;1.4430;
1309.2000;0.7074;1.4406;
1309.5000;0.7057;1.4478;
1309.8000;0.7082;1.4526;
1310.1000;0.7049;1.4551;
1310.4000;0.7082;1.4599;
1310.7000;0.7057;1.4575;
1311.0000;0.7066;1.4623;
1311.3000;0.7041;1.4526;
1311.6000;0.7049;1.4526;
1311.9000;0.7049;1.4502;
1312.2000;0.7057;1.4551;
1312.5000;0.7057;1.4599;
1312.8000;0.7114;1.4671;
1313.1000;0.7074;1.4575;
1313.4000;0.7074;1.4623;
1313.7000;0.7066;1.4647;
1314.0000;0.7057;1.4551;
1314.3000;0.7057;1.4430;
1314.6000;0.7057;1.4502;
1314.9000;0.7066;1.4454;
1315.2000;0.7057;1.4454;
1315.5000;0.7066;1.4454;
1315.8000;0.7082;1.4381;
1316.1000;0.7057;1.4406;
1316.4000;0.7057;1.4333;
1316.7000;0.7066;1.4357;
1317.0000;0.7066;1.4381;
1317.3000;0.7057;1.4454;
1317.6000;0.7049;1.4478;
1317.9000;0.7074;1.4526;
1318.2000;0.7139;1.4744;
1318.5000;0.7066;1.4599;
1318.8000;0.7049;1.4478;
1319.1000;0.7057;1.4502;
1319.4000;0.7082;1.4551;
1319.7000;0.7082;1.4551;
1320.0000;0.7057;1.4551;
1320.3000;0.7057;1.4575;
1320.6000;0.7090;1.4502;
1320.9000;0.7131;1.4623;
1321.2000;0.7074;1.4502;
1321.5000;0.7066;1.4526;
1321.8000;0.7066;1.4526;
1322.1000;0.7090;1.4599;
1322.4000;0.7066;1.4454;
1322.7000;0.7057;1.4406;
1323.0000;0.7049;1.4309;
1323.3000;0.7066;1.4357;
1323.6000;0.7082;1.4381;
1323.9000;0.7066;1.4333;
1324.2000;0.7106;1.4357;
1324.5000;0.7057;1.4333;
1324.8000;0.7082;1.4333;
1325.1000;0.7041;1.4236;
1325.4000;0.7057;1.4309;
1325.7000;0.7074;1.4333;
1326.0000;0.7025;1.4260;
1326.3000;0.7123;1.4526;
1326.6000;0.7057;1.4309;
1326.9000;0.7066;1.4309;
1327.2000;0.7074;1.4357;
1327.5000;0.7057;1.4333;
1327.8000;0.7049;1.4333;
1328.1000;0.7057;1.4333;
1328.4000;0.7041;1.4260;
1328.7000;0.7057;1.4309;
1329.0000;0.7049;1.4285;
1329.3000;0.7066;1.4357;
1329.6000;0.7057;1.4406;
1329.9000;0.7057;1.4381;
1330.2000;0.7066;1.4357;
1330.5000;0.7066;1.4333;
1330.8000;0.7082;1.4333;
1331.1000;0.7066;1.4285;
1331.4000;0.7074;1.4212;
1331.7000;0.7074;1.4260;
1332.0000;0.7057;1.4236;
1332.3000;0.7074;1.4212;
1332.6000;0.7057;1.4188;
1332.9000;0.7066;1.4212;
1333.2000;0.7049;1.4212;
1333.5000;0.7049;1.4236;
1333.8000;0.7049;1.4212;
1334.1000;0.7057;1.4188;
1334.4000;0.7033;1.4164;
1334.7000;0.7074;1.4285;
1335.0000;0.7066;1.4381;
1335.3000;0.7057;1.4357;
1335.6000;0.7074;1.4357;
1335.9000;0.7139;1.4526;
1336.2000;0.7090;1.4430;
1336.5000;0.7049;1.4381;
1336.8000;0.7082;1.4454;
1337.1000;0.7082;1.4381;
1337.4000;0.7066;1.4309;
1337.7000;0.7082;1.4381;
1338.0000;0.7066;1.4333;
1338.3000;0.7066;1.4333;
1338.6000;0.7074;1.4357;
1338.9000;0.7074;1.4357;
1339.2000;0.7098;1.4430;
1339.5000;0.7057;1.4430;
1339.8000;0.7066;1.4430;
1340.1000;0.7074;1.4430;
1340.4000;0.7049;1.4454;
1340.7000;0.7049;1.4478;
1341.0000;0.7033;1.4406;
1341.3000;0.7074;1.4551;
1341.6000;0.7041;1.4478;
1341.9000;0.7066;1.4551;
1342.2000;0.7163;1.4841;
1342.5000;0.7090;1.4623;
1342.8000;0.7114;1.4623;
1343.1000;0.7090;1.4575;
1343.4000;0.7066;1.4406;
1343.7000;0.7057;1.4430;
1344.0000;0.7057;1.4502;
1344.3000;0.7041;1.4575;
1344.6000;0.7066;1.4599;
1344.9000;0.7090;1.4671;
1345.2000;0.7074;1.4647;
1345.5000;0.7066;1.4623;
1345.8000;0.7057;1.4575;
1346.1000;0.7066;1.4599;
1346.4000;0.7025;1.4478;
1346.7000;0.7057;1.4599;
1347.0000;0.7041;1.4599;
1347.3000;0.7082;1.4744;
1347.6000;0.7066;1.4744;
1347.9000;0.7074;1.4599;
1348.2000;0.7098;1.4647;
1348.5000;0.7049;1.4575;
1348.8000;0.7074;1.4647;
1349.1000;0.7074;1.4696;
1349.4000;0.7049;1.4647;
1349.7000;0.7049;1.4696;
1350.0000;0.7090;1.4841;
1350.3000;0.7090;1.4792;
1350.6000;0.7082;1.4816;
1350.9000;0.7049;1.4647;
1351.2000;0.7066;1.4744;
1351.5000;0.7066;1.4720;
1351.8000;0.7066;1.4720;
1352.1000;0.7057;1.4671;
1352.4000;0.7090;1.4696;
1352.7000;0.7082;1.4720;
1353.0000;0.7082;1.4575;
1353.3000;0.7066;1.4623;
1353.6000;0.7082;1.4599;
1353.9000;0.7066;1.4696;
1354.2000;0.7066;1.4720;
1354.5000;0.7057;1.4720;
1354.8000;0.7049;1.4768;
1355.1000;0.7057;1.4768;
1355.4000;0.7082;1.4841;
1355.7000;0.7066;1.4841;
1356.0000;0.7009;1.4720;
1356.3000;0.7074;1.4889;
1356.6000;0.7074;1.4816;
1356.9000;0.7057;1.4720;
1357.2000;0.7074;1.4768;
1357.5000;0.7066;1.4720;
1357.8000;0.7074;1.4696;
1358.1000;0.7090;1.4720;
1358.4000;0.7057;1.4696;
1358.7000;0.7057;1.4671;
1359.0000;0.7000;1.4430;
1359.3000;0.7049;1.4647;
1359.6000;0.7066;1.4744;
1359.9000;0.7082;1.4768;
1360.2000;0.7057;1.4623;
1360.5000;0.7066;1.4599;
1360.8000;0.7049;1.4502;
1361.1000;0.7057;1.4575;
1361.4000;0.7082;1.4720;
1361.7000;0.7082;1.4744;
1362.0000;0.7074;1.4768;
1362.3000;0.7106;1.4816;
1362.6000;0.7057;1.4671;
1362.9000;0.7066;1.4599;
1363.2000;0.7074;1.4551;
1363.5000;0.7066;1.4575;
1363.8000;0.7057;1.4526;
1364.1000;0.7066;1.4599;
1364.4000;0.7057;1.4696;
1364.7000;0.7066;1.4696;
1365.0000;0.7057;1.4720;
1365.3000;0.7082;1.4744;
1365.6000;0.7057;1.4671;
1365.9000;0.7082;1.4623;
1366.2000;0.7057;1.4575;
1366.5000;0.7066;1.4647;
1366.8000;0.7082;1.4599;
1367.1000;0.7074;1.4623;
1367.4000;0.7049;1.4599;
1367.7000;0.7090;1.4744;
1368.0000;0.7082;1.4696;
1368.3000;0.7082;1.4744;
1368.6000;0.7090;1.4744;
1368.9000;0.7074;1.4696;
1369.2000;0.7074;1.4599;
1369.5000;0.7074;1.4575;
1369.8000;0.7057;1.4454;
1370.1000;0.7057;1.4502;
1370.4000;0.7017;1.4430;
1370.7000;0.7057;1.4551;
1371.0000;0.7049;1.4430;
1371.3000;0.7057;1.4430;
1371.6000;0.7074;1.4454;
1371.9000;0.7066;1.4502;
1372.2000;0.7066;1.4526;
1372.5000;0.7106;1.4551;
1372.8000;0.7066;1.4406;
1373.1000;0.7066;1.4381;
1373.4000;0.7074;1.4430;
1373.7000;0.7066;1.4430;
1374.0000;0.7074;1.4406;
1374.3000;0.7057;1.4454;
1374.6000;0.7074;1.4430;
1374.9000;0.7074;1.4551;
1375.2000;0.7057;1.4623;
1375.5000;0.7057;1.4599;
1375.8000;0.7074;1.4671;
1376.1000;0.7057;1.4696;
1376.4000;0.7074;1.4647;
1376.7000;0.7082;1.4720;
1377.0000;0.7082;1.4720;
1377.3000;0.7082;1.4696;
1377.6000;0.7066;1.4744;
1377.9000;0.7082;1.4768;
1378.2000;0.7074;1.4647;
1378.5000;0.7082;1.4575;
1378.8000;0.7114;1.4575;
1379.1000;0.7074;1.4526;
1379.4000;0.7066;1.4623;
1379.7000;0.7057;1.4623;
1380.0000;0.7057;1.4696;
1380.3000;0.7066;1.4671;
1380.6000;0.7025;1.4599;
1380.9000;0.7049;1.4696;
1381.2000;0.7066;1.4696;
1381.5000;0.7057;1.4575;
1381.8000;0.7057;1.4599;
1382.1000;0.7066;1.4720;
1382.4000;0.7066;1.4744;
1382.7000;0.7057;1.4768;
1383.0000;0.7066;1.4768;
1383.3000;0.7057;1.4696;
1383.6000;0.7041;1.4623;
1383.9000;0.7041;1.4575;
1384.2000;0.7049;1.4575;
1384.5000;0.7057;1.4696;
1384.8000;0.7066;1.4768;
1385.1000;0.7074;1.4816;
1385.4000;0.7049;1.4744;
1385.7000;0.7049;1.4768;
1386.0000;0.7049;1.4744;
1386.3000;0.7098;1.4841;
1386.6000;0.7057;1.4720;
1386.9000;0.7082;1.4744;
1387.2000;0.7066;1.4696;
1387.5000;0.7057;1.4623;
1387.8000;0.7057;1.4575;
1388.1000;0.7082;1.4647;
1388.4000;0.7082;1.4696;
1388.7000;0.7066;1.4720;
1389.0000;0.7017;1.4623;
1389.3000;0.7017;1.4720;
1389.6000;0.7049;1.4792;
1389.9000;0.7066;1.4792;
1390.2000;0.7074;1.4792;
1390.5000;0.7049;1.4792;
1390.8000;0.7066;1.4792;
1391.1000;0.7057;1.4647;
1391.4000;0.7082;1.4671;
1391.7000;0.7057;1.4551;
1392.0000;0.7082;1.4526;
1392.3000;0.7082;1.4478;
1392.6000;0.7131;1.4575;
1392.9000;0.7066;1.4526;
1393.2000;0.7066;1.4551;
1393.5000;0.7114;1.4744;
1393.8000;0.7066;1.4623;
1394.1000;0.7066;1.4623;
1394.4000;0.7066;1.4647;
1394.7000;0.7090;1.4647;
1395.0000;0.7066;1.4551;
1395.3000;0.7025;1.4478;
1395.6000;0.7082;1.4551;
1395.9000;0.7074;1.4623;
1396.2000;0.7074;1.4599;
1396.5000;0.7074;1.4647;
1396.8000;0.7049;1.4551;
1397.1000;0.7033;1.4430;
1397.4000;0.7074;1.4599;
1397.7000;0.7049;1.4551;
1398.0000;0.7041;1.4551;
1398.3000;0.7074;1.4599;
1398.6000;0.7082;1.4744;
1398.9000;0.7057;1.4696;
1399.2000;0.7049;1.4696;
1399.5000;0.7049;1.4502;
1399.8000;0.7057;1.4478;
