time/ms;Fluo/V;P700 deltaI/I x10³;
-199.8000;0.7236;1.6484;
-199.5000;0.7228;1.6460;
-199.2000;0.7228;1.6460;
-198.9000;0.7220;1.6436;
-198.6000;0.7228;1.6484;
-198.3000;0.7236;1.6557;
-198.0000;0.7188;1.6387;
-197.7000;0.7236;1.6460;
-197.4000;0.7220;1.6412;
-197.1000;0.7253;1.6412;
-196.8000;0.7212;1.6339;
-196.5000;0.7220;1.6363;
-196.2000;0.7245;1.6460;
-195.9000;0.7220;1.6387;
-195.6000;0.7236;1.6315;
-195.3000;0.7253;1.6412;
-195.0000;0.7220;1.6436;
-194.7000;0.7196;1.6387;
-194.4000;0.7228;1.6484;
-194.1000;0.7212;1.6557;
-193.8000;0.7220;1.6605;
-193.5000;0.7212;1.6605;
-193.2000;0.7228;1.6629;
-192.9000;0.7228;1.6629;
-192.6000;0.7220;1.6629;
-192.3000;0.7196;1.6532;
-192.0000;0.7236;1.6678;
-191.7000;0.7245;1.6629;
-191.4000;0.7212;1.6484;
-191.1000;0.7220;1.6557;
-190.8000;0.7228;1.6532;
-190.5000;0.7228;1.6508;
-190.2000;0.7228;1.6532;
-189.9000;0.7212;1.6581;
-189.6000;0.7245;1.6605;
-189.3000;0.7204;1.6532;
-189.0000;0.7236;1.6508;
-188.7000;0.7204;1.6460;
-188.4000;0.7220;1.6581;
-188.1000;0.7220;1.6532;
-187.8000;0.7220;1.6629;
-187.5000;0.7196;1.6581;
-187.2000;0.7220;1.6605;
-186.9000;0.7204;1.6581;
-186.6000;0.7163;1.6436;
-186.3000;0.7212;1.6678;
-186.0000;0.7212;1.6702;
-185.7000;0.7196;1.6605;
-185.4000;0.7253;1.6653;
-185.1000;0.7236;1.6653;
-184.8000;0.7212;1.6653;
-184.5000;0.7228;1.6678;
-184.2000;0.7228;1.6557;
-183.9000;0.7212;1.6557;
-183.6000;0.7228;1.6605;
-183.3000;0.7196;1.6532;
-183.0000;0.7236;1.6678;
-182.7000;0.7220;1.6702;
-182.4000;0.7196;1.6629;
-182.1000;0.7212;1.6678;
-181.8000;0.7212;1.6653;
-181.5000;0.7204;1.6581;
-181.2000;0.7212;1.6581;
-180.9000;0.7228;1.6581;
-180.6000;0.7220;1.6532;
-180.3000;0.7220;1.6629;
-180.0000;0.7220;1.6678;
-179.7000;0.7228;1.6702;
-179.4000;0.7228;1.6702;
-179.1000;0.7228;1.6702;
-178.8000;0.7236;1.6798;
-178.5000;0.7245;1.6823;
-178.2000;0.7220;1.6750;
-177.9000;0.7220;1.6726;
-177.6000;0.7228;1.6726;
-177.3000;0.7236;1.6678;
-177.0000;0.7228;1.6605;
-176.7000;0.7253;1.6702;
-176.4000;0.7228;1.6702;
-176.1000;0.7228;1.6726;
-175.8000;0.7220;1.6726;
-175.5000;0.7220;1.6750;
-175.2000;0.7236;1.6750;
-174.9000;0.7204;1.6678;
-174.6000;0.7220;1.6605;
-174.3000;0.7196;1.6629;
-174.0000;0.7212;1.6605;
-173.7000;0.7220;1.6653;
-173.4000;0.7220;1.6726;
-173.1000;0.7220;1.6726;
-172.8000;0.7228;1.6750;
-172.5000;0.7220;1.6653;
-172.2000;0.7196;1.6605;
-171.9000;0.7228;1.6653;
-171.6000;0.7220;1.6629;
-171.3000;0.7228;1.6726;
-171.0000;0.7204;1.6678;
-170.7000;0.7220;1.6653;
-170.4000;0.7220;1.6629;
-170.1000;0.7228;1.6702;
-169.8000;0.7220;1.6726;
-169.5000;0.7220;1.6605;
-169.2000;0.7171;1.6581;
-168.9000;0.7196;1.6581;
-168.6000;0.7212;1.6653;
-168.3000;0.7212;1.6678;
-168.0000;0.7188;1.6629;
-167.7000;0.7212;1.6629;
-167.4000;0.7220;1.6678;
-167.1000;0.7236;1.6678;
-166.8000;0.7204;1.6581;
-166.5000;0.7228;1.6653;
-166.2000;0.7212;1.6678;
-165.9000;0.7245;1.6774;
-165.6000;0.7204;1.6750;
-165.3000;0.7196;1.6774;
-165.0000;0.7204;1.6823;
-164.7000;0.7212;1.6823;
-164.4000;0.7204;1.6798;
-164.1000;0.7236;1.6823;
-163.8000;0.7220;1.6702;
-163.5000;0.7220;1.6678;
-163.2000;0.7228;1.6653;
-162.9000;0.7212;1.6653;
-162.6000;0.7220;1.6726;
-162.3000;0.7236;1.6726;
-162.0000;0.7212;1.6678;
-161.7000;0.7212;1.6653;
-161.4000;0.7220;1.6774;
-161.1000;0.7220;1.6871;
-160.8000;0.7220;1.6847;
-160.5000;0.7253;1.6847;
-160.2000;0.7228;1.6847;
-159.9000;0.7236;1.6871;
-159.6000;0.7228;1.6871;
-159.3000;0.7220;1.6798;
-159.0000;0.7228;1.6726;
-158.7000;0.7220;1.6629;
-158.4000;0.7196;1.6532;
-158.1000;0.7245;1.6653;
-157.8000;0.7220;1.6629;
-157.5000;0.7236;1.6678;
-157.2000;0.7228;1.6726;
-156.9000;0.7228;1.6774;
-156.6000;0.7220;1.6774;
-156.3000;0.7253;1.6871;
-156.0000;0.7236;1.6774;
-155.7000;0.7220;1.6798;
-155.4000;0.7220;1.6798;
-155.1000;0.7220;1.6798;
-154.8000;0.7204;1.6774;
-154.5000;0.7139;1.6605;
-154.2000;0.7212;1.6750;
-153.9000;0.7204;1.6798;
-153.6000;0.7245;1.6871;
-153.3000;0.7236;1.6798;
-153.0000;0.7220;1.6726;
-152.7000;0.7212;1.6702;
-152.4000;0.7220;1.6653;
-152.1000;0.7155;1.6508;
-151.8000;0.7253;1.6750;
-151.5000;0.7236;1.6750;
-151.2000;0.7228;1.6823;
-150.9000;0.7220;1.6774;
-150.6000;0.7204;1.6750;
-150.3000;0.7228;1.6798;
-150.0000;0.7220;1.6774;
-149.7000;0.7220;1.6750;
-149.4000;0.7212;1.6726;
-149.1000;0.7204;1.6678;
-148.8000;0.7220;1.6774;
-148.5000;0.7228;1.6798;
-148.2000;0.7220;1.6774;
-147.9000;0.7236;1.6702;
-147.6000;0.7245;1.6678;
-147.3000;0.7220;1.6557;
-147.0000;0.7236;1.6629;
-146.7000;0.7245;1.6653;
-146.4000;0.7212;1.6726;
-146.1000;0.7228;1.6750;
-145.8000;0.7269;1.6774;
-145.5000;0.7261;1.6750;
-145.2000;0.7236;1.6653;
-144.9000;0.7236;1.6629;
-144.6000;0.7228;1.6557;
-144.3000;0.7220;1.6581;
-144.0000;0.7245;1.6653;
-143.7000;0.7228;1.6629;
-143.4000;0.7228;1.6557;
-143.1000;0.7236;1.6581;
-142.8000;0.7245;1.6581;
-142.5000;0.7204;1.6460;
-142.2000;0.7228;1.6532;
-141.9000;0.7220;1.6629;
-141.6000;0.7253;1.6798;
-141.3000;0.7196;1.6726;
-141.0000;0.7188;1.6653;
-140.7000;0.7228;1.6702;
-140.4000;0.7204;1.6581;
-140.1000;0.7212;1.6653;
-139.8000;0.7228;1.6726;
-139.5000;0.7212;1.6629;
-139.2000;0.7212;1.6605;
-138.9000;0.7212;1.6726;
-138.6000;0.7188;1.6702;
-138.3000;0.7228;1.6774;
-138.0000;0.7204;1.6726;
-137.7000;0.7204;1.6629;
-137.4000;0.7212;1.6629;
-137.1000;0.7228;1.6629;
-136.8000;0.7188;1.6581;
-136.5000;0.7204;1.6702;
-136.2000;0.7204;1.6702;
-135.9000;0.7196;1.6653;
-135.6000;0.7220;1.6653;
-135.3000;0.7236;1.6653;
-135.0000;0.7212;1.6581;
-134.7000;0.7212;1.6581;
-134.4000;0.7212;1.6605;
-134.1000;0.7220;1.6653;
-133.8000;0.7220;1.6629;
-133.5000;0.7253;1.6702;
-133.2000;0.7245;1.6629;
-132.9000;0.7220;1.6581;
-132.6000;0.7236;1.6581;
-132.3000;0.7228;1.6484;
-132.0000;0.7261;1.6484;
-131.7000;0.7245;1.6484;
-131.4000;0.7253;1.6508;
-131.1000;0.7204;1.6412;
-130.8000;0.7220;1.6484;
-130.5000;0.7212;1.6436;
-130.2000;0.7245;1.6508;
-129.9000;0.7212;1.6412;
-129.6000;0.7171;1.6315;
-129.3000;0.7220;1.6460;
-129.0000;0.7171;1.6363;
-128.7000;0.7204;1.6532;
-128.4000;0.7228;1.6557;
-128.1000;0.7285;1.6702;
-127.8000;0.7220;1.6508;
-127.5000;0.7204;1.6557;
-127.2000;0.7220;1.6678;
-126.9000;0.7220;1.6653;
-126.6000;0.7228;1.6653;
-126.3000;0.7212;1.6532;
-126.0000;0.7212;1.6629;
-125.7000;0.7236;1.6557;
-125.4000;0.7228;1.6557;
-125.1000;0.7212;1.6605;
-124.8000;0.7212;1.6532;
-124.5000;0.7204;1.6629;
-124.2000;0.7188;1.6532;
-123.9000;0.7236;1.6581;
-123.6000;0.7220;1.6484;
-123.3000;0.7131;1.6267;
-123.0000;0.7228;1.6557;
-122.7000;0.7236;1.6508;
-122.4000;0.7253;1.6653;
-122.1000;0.7220;1.6484;
-121.8000;0.7220;1.6484;
-121.5000;0.7228;1.6532;
-121.2000;0.7236;1.6557;
-120.9000;0.7212;1.6532;
-120.6000;0.7179;1.6484;
-120.3000;0.7220;1.6629;
-120.0000;0.7212;1.6629;
-119.7000;0.7196;1.6605;
-119.4000;0.7212;1.6605;
-119.1000;0.7228;1.6702;
-118.8000;0.7220;1.6581;
-118.5000;0.7220;1.6532;
-118.2000;0.7220;1.6532;
-117.9000;0.7212;1.6484;
-117.6000;0.7220;1.6436;
-117.3000;0.7220;1.6387;
-117.0000;0.7220;1.6460;
-116.7000;0.7212;1.6557;
-116.4000;0.7228;1.6629;
-116.1000;0.7212;1.6653;
-115.8000;0.7220;1.6653;
-115.5000;0.7212;1.6532;
-115.2000;0.7220;1.6581;
-114.9000;0.7236;1.6605;
-114.6000;0.7204;1.6508;
-114.3000;0.7204;1.6508;
-114.0000;0.7196;1.6532;
-113.7000;0.7228;1.6557;
-113.4000;0.7204;1.6532;
-113.1000;0.7204;1.6508;
-112.8000;0.7228;1.6605;
-112.5000;0.7220;1.6605;
-112.2000;0.7236;1.6532;
-111.9000;0.7228;1.6508;
-111.6000;0.7253;1.6653;
-111.3000;0.7220;1.6581;
-111.0000;0.7212;1.6605;
-110.7000;0.7212;1.6557;
-110.4000;0.7155;1.6508;
-110.1000;0.7228;1.6750;
-109.8000;0.7220;1.6702;
-109.5000;0.7212;1.6774;
-109.2000;0.7245;1.6798;
-108.9000;0.7228;1.6726;
-108.6000;0.7253;1.6702;
-108.3000;0.7236;1.6605;
-108.0000;0.7212;1.6508;
-107.7000;0.7196;1.6484;
-107.4000;0.7212;1.6532;
-107.1000;0.7212;1.6532;
-106.8000;0.7212;1.6532;
-106.5000;0.7179;1.6412;
-106.2000;0.7220;1.6460;
-105.9000;0.7236;1.6484;
-105.6000;0.7204;1.6484;
-105.3000;0.7236;1.6508;
-105.0000;0.7212;1.6508;
-104.7000;0.7212;1.6532;
-104.4000;0.7228;1.6436;
-104.1000;0.7188;1.6363;
-103.8000;0.7212;1.6412;
-103.5000;0.7228;1.6436;
-103.2000;0.7228;1.6412;
-102.9000;0.7212;1.6412;
-102.6000;0.7212;1.6484;
-102.3000;0.7220;1.6484;
-102.0000;0.7236;1.6484;
-101.7000;0.7179;1.6363;
-101.4000;0.7212;1.6508;
-101.1000;0.7220;1.6508;
-100.8000;0.7220;1.6508;
-100.5000;0.7228;1.6484;
-100.2000;0.7228;1.6484;
-99.9000;0.7220;1.6605;
-99.6000;0.7204;1.6557;
-99.3000;0.7188;1.6508;
-99.0000;0.7220;1.6532;
-98.7000;0.7236;1.6557;
-98.4000;0.7212;1.6557;
-98.1000;0.7228;1.6532;
-97.8000;0.7212;1.6508;
-97.5000;0.7236;1.6557;
-97.2000;0.7204;1.6484;
-96.9000;0.7228;1.6508;
-96.6000;0.7212;1.6460;
-96.3000;0.7212;1.6460;
-96.0000;0.7204;1.6484;
-95.7000;0.7204;1.6508;
-95.4000;0.7212;1.6436;
-95.1000;0.7236;1.6436;
-94.8000;0.7220;1.6363;
-94.5000;0.7236;1.6484;
-94.2000;0.7228;1.6557;
-93.9000;0.7196;1.6581;
-93.6000;0.7204;1.6653;
-93.3000;0.7228;1.6653;
-93.0000;0.7220;1.6557;
-92.7000;0.7220;1.6581;
-92.4000;0.7212;1.6629;
-92.1000;0.7228;1.6702;
-91.8000;0.7245;1.6798;
-91.5000;0.7220;1.6750;
-91.2000;0.7236;1.6750;
-90.9000;0.7228;1.6750;
-90.6000;0.7228;1.6750;
-90.3000;0.7220;1.6774;
-90.0000;0.7220;1.6702;
-89.7000;0.7188;1.6629;
-89.4000;0.7212;1.6726;
-89.1000;0.7220;1.6653;
-88.8000;0.7212;1.6581;
-88.5000;0.7253;1.6629;
-88.2000;0.7236;1.6653;
-87.9000;0.7228;1.6629;
-87.6000;0.7220;1.6629;
-87.3000;0.7228;1.6653;
-87.0000;0.7220;1.6605;
-86.7000;0.7220;1.6605;
-86.4000;0.7188;1.6436;
-86.1000;0.7196;1.6532;
-85.8000;0.7204;1.6653;
-85.5000;0.7204;1.6581;
-85.2000;0.7204;1.6653;
-84.9000;0.7196;1.6605;
-84.6000;0.7220;1.6557;
-84.3000;0.7236;1.6581;
-84.0000;0.7212;1.6581;
-83.7000;0.7188;1.6532;
-83.4000;0.7212;1.6750;
-83.1000;0.7204;1.6798;
-82.8000;0.7212;1.6750;
-82.5000;0.7204;1.6726;
-82.2000;0.7163;1.6678;
-81.9000;0.7220;1.6726;
-81.6000;0.7212;1.6605;
-81.3000;0.7212;1.6557;
-81.0000;0.7220;1.6532;
-80.7000;0.7220;1.6557;
-80.4000;0.7212;1.6678;
-80.1000;0.7212;1.6702;
-79.8000;0.7228;1.6774;
-79.5000;0.7228;1.6726;
-79.2000;0.7196;1.6678;
-78.9000;0.7228;1.6750;
-78.6000;0.7220;1.6726;
-78.3000;0.7228;1.6774;
-78.0000;0.7220;1.6726;
-77.7000;0.7204;1.6653;
-77.4000;0.7212;1.6605;
-77.1000;0.7236;1.6605;
-76.8000;0.7245;1.6653;
-76.5000;0.7236;1.6581;
-76.2000;0.7277;1.6653;
-75.9000;0.7228;1.6532;
-75.6000;0.7212;1.6508;
-75.3000;0.7228;1.6557;
-75.0000;0.7212;1.6605;
-74.7000;0.7228;1.6605;
-74.4000;0.7220;1.6629;
-74.1000;0.7220;1.6532;
-73.8000;0.7236;1.6508;
-73.5000;0.7228;1.6460;
-73.2000;0.7220;1.6460;
-72.9000;0.7220;1.6484;
-72.6000;0.7220;1.6557;
-72.3000;0.7204;1.6508;
-72.0000;0.7236;1.6581;
-71.7000;0.7212;1.6557;
-71.4000;0.7196;1.6508;
-71.1000;0.7204;1.6484;
-70.8000;0.7188;1.6460;
-70.5000;0.7220;1.6484;
-70.2000;0.7220;1.6557;
-69.9000;0.7220;1.6484;
-69.6000;0.7212;1.6484;
-69.3000;0.7188;1.6484;
-69.0000;0.7204;1.6436;
-68.7000;0.7212;1.6387;
-68.4000;0.7228;1.6412;
-68.1000;0.7220;1.6363;
-67.8000;0.7220;1.6291;
-67.5000;0.7220;1.6267;
-67.2000;0.7236;1.6267;
-66.9000;0.7236;1.6315;
-66.6000;0.7236;1.6315;
-66.3000;0.7212;1.6291;
-66.0000;0.7212;1.6339;
-65.7000;0.7220;1.6315;
-65.4000;0.7204;1.6363;
-65.1000;0.7204;1.6315;
-64.8000;0.7204;1.6339;
-64.5000;0.7212;1.6412;
-64.2000;0.7220;1.6508;
-63.9000;0.7212;1.6436;
-63.6000;0.7204;1.6339;
-63.3000;0.7212;1.6339;
-63.0000;0.7220;1.6387;
-62.7000;0.7179;1.6267;
-62.4000;0.7228;1.6412;
-62.1000;0.7220;1.6484;
-61.8000;0.7179;1.6363;
-61.5000;0.7212;1.6484;
-61.2000;0.7220;1.6508;
-60.9000;0.7212;1.6412;
-60.6000;0.7245;1.6557;
-60.3000;0.7212;1.6412;
-60.0000;0.7212;1.6436;
-59.7000;0.7220;1.6460;
-59.4000;0.7228;1.6460;
-59.1000;0.7236;1.6508;
-58.8000;0.7220;1.6508;
-58.5000;0.7228;1.6508;
-58.2000;0.7220;1.6532;
-57.9000;0.7212;1.6508;
-57.6000;0.7204;1.6484;
-57.3000;0.7212;1.6508;
-57.0000;0.7228;1.6532;
-56.7000;0.7228;1.6557;
-56.4000;0.7188;1.6460;
-56.1000;0.7204;1.6460;
-55.8000;0.7228;1.6557;
-55.5000;0.7220;1.6508;
-55.2000;0.7269;1.6629;
-54.9000;0.7236;1.6557;
-54.6000;0.7220;1.6460;
-54.3000;0.7188;1.6412;
-54.0000;0.7228;1.6557;
-53.7000;0.7228;1.6532;
-53.4000;0.7228;1.6581;
-53.1000;0.7236;1.6678;
-52.8000;0.7220;1.6508;
-52.5000;0.7204;1.6508;
-52.2000;0.7236;1.6532;
-51.9000;0.7220;1.6460;
-51.6000;0.7236;1.6436;
-51.3000;0.7212;1.6387;
-51.0000;0.7236;1.6508;
-50.7000;0.7220;1.6460;
-50.4000;0.7220;1.6484;
-50.1000;0.7228;1.6460;
-49.8000;0.7212;1.6460;
-49.5000;0.7212;1.6387;
-49.2000;0.7228;1.6436;
-48.9000;0.7236;1.6484;
-48.6000;0.7253;1.6581;
-48.3000;0.7228;1.6557;
-48.0000;0.7212;1.6532;
-47.7000;0.7228;1.6581;
-47.4000;0.7228;1.6581;
-47.1000;0.7220;1.6436;
-46.8000;0.7212;1.6508;
-46.5000;0.7204;1.6557;
-46.2000;0.7212;1.6605;
-45.9000;0.7212;1.6653;
-45.6000;0.7204;1.6678;
-45.3000;0.7204;1.6605;
-45.0000;0.7204;1.6557;
-44.7000;0.7188;1.6484;
-44.4000;0.7131;1.6242;
-44.1000;0.7277;1.6653;
-43.8000;0.7220;1.6557;
-43.5000;0.7204;1.6581;
-43.2000;0.7204;1.6605;
-42.9000;0.7204;1.6508;
-42.6000;0.7220;1.6532;
-42.3000;0.7220;1.6508;
-42.0000;0.7220;1.6508;
-41.7000;0.7212;1.6436;
-41.4000;0.7220;1.6460;
-41.1000;0.7228;1.6557;
-40.8000;0.7212;1.6508;
-40.5000;0.7204;1.6412;
-40.2000;0.7236;1.6460;
-39.9000;0.7245;1.6436;
-39.6000;0.7236;1.6484;
-39.3000;0.7220;1.6484;
-39.0000;0.7212;1.6460;
-38.7000;0.7220;1.6460;
-38.4000;0.7196;1.6315;
-38.1000;0.7212;1.6363;
-37.8000;0.7196;1.6387;
-37.5000;0.7196;1.6412;
-37.2000;0.7228;1.6508;
-36.9000;0.7236;1.6436;
-36.6000;0.7212;1.6412;
-36.3000;0.7302;1.6605;
-36.0000;0.7310;1.6557;
-35.7000;0.7228;1.6508;
-35.4000;0.7212;1.6508;
-35.1000;0.7204;1.6484;
-34.8000;0.7261;1.6532;
-34.5000;0.7204;1.6484;
-34.2000;0.7212;1.6436;
-33.9000;0.7188;1.6387;
-33.6000;0.7236;1.6484;
-33.3000;0.7228;1.6532;
-33.0000;0.7196;1.6484;
-32.7000;0.7212;1.6508;
-32.4000;0.7228;1.6605;
-32.1000;0.7228;1.6629;
-31.8000;0.7220;1.6629;
-31.5000;0.7228;1.6678;
-31.2000;0.7236;1.6798;
-30.9000;0.7245;1.6823;
-30.6000;0.7236;1.6871;
-30.3000;0.7204;1.6726;
-30.0000;0.7236;1.6798;
-29.7000;0.7228;1.6726;
-29.4000;0.7236;1.6653;
-29.1000;0.7188;1.6532;
-28.8000;0.7228;1.6653;
-28.5000;0.7228;1.6581;
-28.2000;0.7236;1.6557;
-27.9000;0.7220;1.6557;
-27.6000;0.7220;1.6557;
-27.3000;0.7220;1.6678;
-27.0000;0.7212;1.6726;
-26.7000;0.7220;1.6726;
-26.4000;0.7212;1.6726;
-26.1000;0.7220;1.6726;
-25.8000;0.7228;1.6653;
-25.5000;0.7204;1.6508;
-25.2000;0.7220;1.6532;
-24.9000;0.7212;1.6532;
-24.6000;0.7228;1.6532;
-24.3000;0.7228;1.6532;
-24.0000;0.7236;1.6629;
-23.7000;0.7245;1.6605;
-23.4000;0.7228;1.6629;
-23.1000;0.7245;1.6678;
-22.8000;0.7196;1.6557;
-22.5000;0.7204;1.6629;
-22.2000;0.7204;1.6629;
-21.9000;0.7220;1.6629;
-21.6000;0.7212;1.6726;
-21.3000;0.7204;1.6726;
-21.0000;0.7163;1.6508;
-20.7000;0.7220;1.6629;
-20.4000;0.7220;1.6605;
-20.1000;0.7228;1.6653;
-19.8000;0.7220;1.6629;
-19.5000;0.7236;1.6653;
-19.2000;0.7228;1.6678;
-18.9000;0.7204;1.6605;
-18.6000;0.7212;1.6629;
-18.3000;0.7212;1.6508;
-18.0000;0.7212;1.6532;
-17.7000;0.7204;1.6557;
-17.4000;0.7269;1.6726;
-17.1000;0.7236;1.6532;
-16.8000;0.7228;1.6532;
-16.5000;0.7204;1.6436;
-16.2000;0.7220;1.6484;
-15.9000;0.7228;1.6484;
-15.6000;0.7171;1.6412;
-15.3000;0.7269;1.6678;
-15.0000;0.7253;1.6653;
-14.7000;0.7253;1.6629;
-14.4000;0.7228;1.6581;
-14.1000;0.7204;1.6557;
-13.8000;0.7220;1.6581;
-13.5000;0.7220;1.6532;
-13.2000;0.7220;1.6532;
-12.9000;0.7204;1.6532;
-12.6000;0.7204;1.6557;
-12.3000;0.7236;1.6726;
-12.0000;0.7228;1.6605;
-11.7000;0.7228;1.6557;
-11.4000;0.7212;1.6508;
-11.1000;0.7163;1.6412;
-10.8000;0.7220;1.6653;
-10.5000;0.7220;1.6702;
-10.2000;0.7220;1.6581;
-9.9000;0.7204;1.6557;
-9.6000;0.7236;1.6508;
-9.3000;0.7196;1.6412;
-9.0000;0.7253;1.6605;
-8.7000;0.7196;1.6484;
-8.4000;0.7212;1.6629;
-8.1000;0.7220;1.6653;
-7.8000;0.7228;1.6678;
-7.5000;0.7228;1.6605;
-7.2000;0.7220;1.6581;
-6.9000;0.7228;1.6557;
-6.6000;0.7220;1.6581;
-6.3000;0.7220;1.6629;
-6.0000;0.7228;1.6557;
-5.7000;0.7212;1.6581;
-5.4000;0.7228;1.6605;
-5.1000;0.7228;1.6605;
-4.8000;0.7236;1.6605;
-4.5000;0.7212;1.6581;
-4.2000;0.7236;1.6581;
-3.9000;0.7228;1.6605;
-3.6000;0.7236;1.6484;
-3.3000;0.7228;1.6508;
-3.0000;0.7220;1.6460;
-2.7000;0.7179;1.6291;
-2.4000;0.7212;1.6508;
-2.1000;0.7196;1.6387;
-1.8000;0.7171;1.6339;
-1.5000;0.7228;1.6484;
-1.2000;0.7220;1.6412;
-0.9000;0.7220;1.6412;
-0.6000;0.7245;1.6508;
-0.3000;0.7302;1.6678;
0.0000;0.7302;1.6678;
0.3000;0.7538;1.6508;
0.6000;0.8148;1.7161;
0.9000;0.8620;1.7789;
1.2000;0.9027;1.8418;
1.5000;0.9280;1.8756;
1.8000;0.9467;1.8998;
2.1000;0.9670;1.9360;
2.4000;0.9833;1.9747;
2.7000;0.9931;1.9941;
3.0000;0.9963;1.9965;
3.3000;1.0126;2.0303;
3.6000;1.0216;2.0376;
3.9000;1.0297;2.0496;
4.2000;1.0354;2.0545;
4.5000;1.0427;2.0545;
4.8000;1.0476;2.0569;
5.1000;1.0525;2.0593;
5.4000;1.0582;2.0641;
5.7000;1.0606;2.0617;
6.0000;1.0688;2.0762;
6.3000;1.0712;2.0690;
6.6000;1.0777;2.0811;
6.9000;1.0883;2.0980;
7.2000;1.0883;2.0931;
7.5000;1.0956;2.0956;
7.8000;1.0965;2.0883;
8.1000;1.1013;2.0907;
8.4000;1.1038;2.0859;
8.7000;1.1079;2.0835;
9.0000;1.1111;2.0907;
9.3000;1.1095;2.0714;
9.6000;1.1201;2.0907;
9.9000;1.1241;2.0907;
10.2000;1.1266;2.0859;
10.5000;1.1315;2.0883;
10.8000;1.1347;2.0956;
11.1000;1.1372;2.0907;
11.4000;1.1469;2.1052;
11.7000;1.1412;2.0859;
12.0000;1.1453;2.0931;
12.3000;1.1461;2.0956;
12.6000;1.1502;2.1004;
12.9000;1.1502;2.0835;
13.2000;1.1575;2.0931;
13.5000;1.1608;2.0931;
13.8000;1.1738;2.1125;
14.1000;1.1673;2.0931;
14.4000;1.1713;2.0907;
14.7000;1.1746;2.0956;
15.0000;1.1762;2.0956;
15.3000;1.1779;2.0931;
15.6000;1.1803;2.0883;
15.9000;1.1827;2.0859;
16.2000;1.1868;2.0883;
16.5000;1.1893;2.0811;
16.8000;1.1860;2.0666;
17.1000;1.1933;2.0811;
17.4000;1.1950;2.0835;
17.7000;1.1966;2.0859;
18.0000;1.1982;2.0835;
18.3000;1.1990;2.0883;
18.6000;1.1982;2.0738;
18.9000;1.2039;2.0762;
19.2000;1.2047;2.0714;
19.5000;1.2072;2.0738;
19.8000;1.2096;2.0690;
20.1000;1.2112;2.0617;
20.4000;1.2112;2.0545;
20.7000;1.2120;2.0521;
21.0000;1.2153;2.0545;
21.3000;1.2177;2.0521;
21.6000;1.2202;2.0617;
21.9000;1.2177;2.0593;
22.2000;1.2210;2.0617;
22.5000;1.2234;2.0690;
22.8000;1.2234;2.0641;
23.1000;1.2234;2.0690;
23.4000;1.2226;2.0666;
23.7000;1.2259;2.0786;
24.0000;1.2259;2.0811;
24.3000;1.2291;2.0811;
24.6000;1.2300;2.0835;
24.9000;1.2316;2.0859;
25.2000;1.2454;2.1125;
25.5000;1.2283;2.0641;
25.8000;1.2324;2.0666;
26.1000;1.2365;2.0786;
26.4000;1.2365;2.0786;
26.7000;1.2373;2.0835;
27.0000;1.2381;2.0786;
27.3000;1.2397;2.0762;
27.6000;1.2414;2.0714;
27.9000;1.2430;2.0690;
28.2000;1.2430;2.0690;
28.5000;1.2446;2.0641;
28.8000;1.2438;2.0569;
29.1000;1.2462;2.0617;
29.4000;1.2454;2.0738;
29.7000;1.2470;2.0666;
30.0000;1.2405;2.0521;
30.3000;1.2487;2.0617;
30.6000;1.2470;2.0617;
30.9000;1.2544;2.0835;
31.2000;1.2487;2.0666;
31.5000;1.2519;2.0738;
31.8000;1.2503;2.0666;
32.1000;1.2527;2.0617;
32.4000;1.2487;2.0521;
32.7000;1.2527;2.0593;
33.0000;1.2487;2.0521;
33.3000;1.2527;2.0666;
33.6000;1.2527;2.0714;
33.9000;1.2544;2.0714;
34.2000;1.2544;2.0690;
34.5000;1.2560;2.0617;
34.8000;1.2568;2.0714;
35.1000;1.2487;2.0496;
35.4000;1.2593;2.0641;
35.7000;1.2584;2.0666;
36.0000;1.2593;2.0714;
36.3000;1.2593;2.0690;
36.6000;1.2601;2.0690;
36.9000;1.2601;2.0714;
37.2000;1.2609;2.0762;
37.5000;1.2609;2.0762;
37.8000;1.2593;2.0641;
38.1000;1.2633;2.0690;
38.4000;1.2609;2.0666;
38.7000;1.2633;2.0666;
39.0000;1.2625;2.0617;
39.3000;1.2650;2.0641;
39.6000;1.2617;2.0545;
39.9000;1.2641;2.0666;
40.2000;1.2658;2.0738;
40.5000;1.2650;2.0714;
40.8000;1.2650;2.0641;
41.1000;1.2658;2.0714;
41.4000;1.2658;2.0666;
41.7000;1.2633;2.0641;
42.0000;1.2674;2.0738;
42.3000;1.2641;2.0666;
42.6000;1.2666;2.0666;
42.9000;1.2674;2.0690;
43.2000;1.2682;2.0738;
43.5000;1.2650;2.0666;
43.8000;1.2666;2.0738;
44.1000;1.2658;2.0738;
44.4000;1.2666;2.0859;
44.7000;1.2674;2.0786;
45.0000;1.2682;2.0786;
45.3000;1.2682;2.0811;
45.6000;1.2698;2.0811;
45.9000;1.2658;2.0641;
46.2000;1.2780;2.0907;
46.5000;1.2698;2.0641;
46.8000;1.2715;2.0690;
47.1000;1.2715;2.0666;
47.4000;1.2633;2.0448;
47.7000;1.2698;2.0617;
48.0000;1.2707;2.0617;
48.3000;1.2707;2.0641;
48.6000;1.2764;2.0738;
48.9000;1.2723;2.0641;
49.2000;1.2788;2.0786;
49.5000;1.2731;2.0690;
49.8000;1.2747;2.0641;
50.1000;1.2764;2.0714;
50.4000;1.2723;2.0762;
50.7000;1.2739;2.0762;
51.0000;1.2707;2.0641;
51.3000;1.2731;2.0666;
51.6000;1.2796;2.0786;
51.9000;1.2764;2.0617;
52.2000;1.2747;2.0593;
52.5000;1.2739;2.0496;
52.8000;1.2739;2.0521;
53.1000;1.2723;2.0569;
53.4000;1.2747;2.0666;
53.7000;1.2747;2.0617;
54.0000;1.2747;2.0617;
54.3000;1.2747;2.0690;
54.6000;1.2739;2.0641;
54.9000;1.2755;2.0738;
55.2000;1.2755;2.0690;
55.5000;1.2772;2.0738;
55.8000;1.2772;2.0714;
56.1000;1.2772;2.0738;
56.4000;1.2780;2.0738;
56.7000;1.2698;2.0641;
57.0000;1.2764;2.0714;
57.3000;1.2829;2.0835;
57.6000;1.2764;2.0666;
57.9000;1.2755;2.0593;
58.2000;1.2772;2.0666;
58.5000;1.2739;2.0617;
58.8000;1.2755;2.0738;
59.1000;1.2764;2.0666;
59.4000;1.2780;2.0666;
59.7000;1.2764;2.0617;
60.0000;1.2869;2.0762;
60.3000;1.2780;2.0521;
60.6000;1.2772;2.0424;
60.9000;1.2780;2.0327;
61.2000;1.2796;2.0327;
61.5000;1.2788;2.0327;
61.8000;1.2796;2.0351;
62.1000;1.2812;2.0521;
62.4000;1.2812;2.0521;
62.7000;1.2780;2.0424;
63.0000;1.2780;2.0376;
63.3000;1.2788;2.0376;
63.6000;1.2764;2.0351;
63.9000;1.2804;2.0496;
64.2000;1.2796;2.0569;
64.5000;1.2796;2.0617;
64.8000;1.2812;2.0666;
65.1000;1.2812;2.0641;
65.4000;1.2812;2.0593;
65.7000;1.2812;2.0569;
66.0000;1.2821;2.0641;
66.3000;1.2812;2.0593;
66.6000;1.2829;2.0617;
66.9000;1.2821;2.0593;
67.2000;1.2821;2.0593;
67.5000;1.2829;2.0641;
67.8000;1.2829;2.0641;
68.1000;1.2812;2.0617;
68.4000;1.2788;2.0569;
68.7000;1.2796;2.0666;
69.0000;1.2812;2.0666;
69.3000;1.2772;2.0545;
69.6000;1.2837;2.0690;
69.9000;1.2821;2.0617;
70.2000;1.2821;2.0569;
70.5000;1.2821;2.0521;
70.8000;1.2821;2.0472;
71.1000;1.2821;2.0496;
71.4000;1.2845;2.0521;
71.7000;1.2829;2.0521;
72.0000;1.2853;2.0545;
72.3000;1.2845;2.0569;
72.6000;1.2829;2.0593;
72.9000;1.2829;2.0593;
73.2000;1.2837;2.0521;
73.5000;1.2829;2.0521;
73.8000;1.2837;2.0521;
74.1000;1.2837;2.0569;
74.4000;1.2837;2.0400;
74.7000;1.2837;2.0448;
75.0000;1.2829;2.0400;
75.3000;1.2837;2.0376;
75.6000;1.2853;2.0327;
75.9000;1.2796;2.0182;
76.2000;1.2837;2.0255;
76.5000;1.2845;2.0255;
76.8000;1.2804;2.0134;
77.1000;1.2845;2.0327;
77.4000;1.2886;2.0351;
77.7000;1.2845;2.0231;
78.0000;1.2837;2.0206;
78.3000;1.2837;2.0206;
78.6000;1.2837;2.0182;
78.9000;1.2845;2.0206;
79.2000;1.2845;2.0231;
79.5000;1.2821;2.0206;
79.8000;1.2877;2.0351;
80.1000;1.2837;2.0231;
80.4000;1.2780;2.0037;
80.7000;1.2861;2.0182;
81.0000;1.2837;2.0086;
81.3000;1.2829;2.0061;
81.6000;1.2845;2.0158;
81.9000;1.2788;1.9989;
82.2000;1.2829;2.0110;
82.5000;1.2747;1.9868;
82.8000;1.2845;2.0158;
83.1000;1.2845;2.0134;
83.4000;1.2845;2.0134;
83.7000;1.2845;2.0158;
84.0000;1.2845;2.0158;
84.3000;1.2853;2.0231;
84.6000;1.2877;2.0279;
84.9000;1.2845;2.0158;
85.2000;1.2910;2.0206;
85.5000;1.2853;2.0110;
85.8000;1.2821;2.0061;
86.1000;1.2845;2.0158;
86.4000;1.2877;2.0255;
86.7000;1.2853;2.0255;
87.0000;1.2869;2.0303;
87.3000;1.2853;2.0279;
87.6000;1.2853;2.0279;
87.9000;1.2861;2.0255;
88.2000;1.2886;2.0279;
88.5000;1.2861;2.0376;
88.8000;1.2869;2.0400;
89.1000;1.2853;2.0303;
89.4000;1.2861;2.0376;
89.7000;1.2853;2.0376;
90.0000;1.2853;2.0400;
90.3000;1.2853;2.0448;
90.6000;1.2853;2.0448;
90.9000;1.2837;2.0400;
91.2000;1.2845;2.0448;
91.5000;1.2845;2.0327;
91.8000;1.2861;2.0400;
92.1000;1.2853;2.0376;
92.4000;1.2926;2.0521;
92.7000;1.2861;2.0424;
93.0000;1.2886;2.0521;
93.3000;1.2877;2.0521;
93.6000;1.2845;2.0400;
93.9000;1.2853;2.0472;
94.2000;1.2845;2.0400;
94.5000;1.2829;2.0327;
94.8000;1.2845;2.0351;
95.1000;1.2845;2.0400;
95.4000;1.2837;2.0303;
95.7000;1.2853;2.0303;
96.0000;1.2853;2.0255;
96.3000;1.2845;2.0303;
96.6000;1.2861;2.0303;
96.9000;1.2886;2.0255;
97.2000;1.2869;2.0110;
97.5000;1.2894;2.0158;
97.8000;1.2894;2.0206;
98.1000;1.2886;2.0279;
98.4000;1.2869;2.0231;
98.7000;1.2861;2.0158;
99.0000;1.2853;2.0158;
99.3000;1.2877;2.0255;
99.6000;1.2812;2.0110;
99.9000;1.2877;2.0255;
100.2000;1.2869;2.0231;
100.5000;1.2861;2.0255;
100.8000;1.2877;2.0376;
101.1000;1.2869;2.0400;
101.4000;1.2886;2.0472;
101.7000;1.2845;2.0303;
102.0000;1.2894;2.0424;
102.3000;1.2886;2.0448;
102.6000;1.2877;2.0376;
102.9000;1.2894;2.0400;
103.2000;1.2886;2.0327;
103.5000;1.2886;2.0400;
103.8000;1.2853;2.0400;
104.1000;1.2877;2.0424;
104.4000;1.2877;2.0376;
104.7000;1.2861;2.0376;
105.0000;1.2869;2.0376;
105.3000;1.2853;2.0351;
105.6000;1.2869;2.0351;
105.9000;1.2869;2.0351;
106.2000;1.2869;2.0376;
106.5000;1.2861;2.0351;
106.8000;1.2910;2.0496;
107.1000;1.2853;2.0303;
107.4000;1.2877;2.0376;
107.7000;1.2869;2.0351;
108.0000;1.2869;2.0279;
108.3000;1.2861;2.0279;
108.6000;1.2869;2.0279;
108.9000;1.2877;2.0400;
109.2000;1.2829;2.0327;
109.5000;1.2886;2.0448;
109.8000;1.2869;2.0424;
110.1000;1.2894;2.0472;
110.4000;1.2886;2.0472;
110.7000;1.2877;2.0424;
111.0000;1.2894;2.0376;
111.3000;1.2886;2.0303;
111.6000;1.2796;2.0110;
111.9000;1.2886;2.0303;
112.2000;1.2886;2.0351;
112.5000;1.2877;2.0400;
112.8000;1.2918;2.0472;
113.1000;1.2894;2.0472;
113.4000;1.2902;2.0400;
113.7000;1.2886;2.0376;
114.0000;1.2877;2.0448;
114.3000;1.2886;2.0448;
114.6000;1.2877;2.0472;
114.9000;1.2886;2.0448;
115.2000;1.2877;2.0376;
115.5000;1.2869;2.0303;
115.8000;1.2861;2.0206;
116.1000;1.2788;2.0037;
116.4000;1.2869;2.0279;
116.7000;1.2894;2.0400;
117.0000;1.2886;2.0424;
117.3000;1.2886;2.0400;
117.6000;1.2869;2.0279;
117.9000;1.2877;2.0303;
118.2000;1.2821;2.0206;
118.5000;1.2886;2.0327;
118.8000;1.2869;2.0303;
119.1000;1.2853;2.0351;
119.4000;1.2877;2.0400;
119.7000;1.2877;2.0351;
120.0000;1.2886;2.0424;
120.3000;1.2877;2.0279;
120.6000;1.2853;2.0110;
120.9000;1.2886;2.0110;
121.2000;1.2877;2.0158;
121.5000;1.2886;2.0158;
121.8000;1.2877;2.0158;
122.1000;1.2886;2.0279;
122.4000;1.2869;2.0303;
122.7000;1.2861;2.0303;
123.0000;1.2869;2.0327;
123.3000;1.2894;2.0376;
123.6000;1.2926;2.0448;
123.9000;1.2886;2.0376;
124.2000;1.2804;2.0182;
124.5000;1.2894;2.0327;
124.8000;1.2886;2.0376;
125.1000;1.2877;2.0376;
125.4000;1.2877;2.0351;
125.7000;1.2877;2.0327;
126.0000;1.2886;2.0327;
126.3000;1.2894;2.0376;
126.6000;1.2894;2.0400;
126.9000;1.2877;2.0448;
127.2000;1.2894;2.0448;
127.5000;1.2886;2.0521;
127.8000;1.2894;2.0521;
128.1000;1.2886;2.0448;
128.4000;1.2886;2.0376;
128.7000;1.2894;2.0351;
129.0000;1.2894;2.0376;
129.3000;1.2877;2.0327;
129.6000;1.2894;2.0279;
129.9000;1.2894;2.0303;
130.2000;1.2894;2.0279;
130.5000;1.2886;2.0279;
130.8000;1.2886;2.0279;
131.1000;1.2886;2.0351;
131.4000;1.2886;2.0376;
131.7000;1.2894;2.0351;
132.0000;1.2886;2.0327;
132.3000;1.2861;2.0327;
132.6000;1.2959;2.0521;
132.9000;1.2886;2.0327;
133.2000;1.2877;2.0327;
133.5000;1.2869;2.0231;
133.8000;1.2902;2.0327;
134.1000;1.2886;2.0351;
134.4000;1.2886;2.0279;
134.7000;1.2886;2.0255;
135.0000;1.2894;2.0327;
135.3000;1.2877;2.0279;
135.6000;1.2877;2.0279;
135.9000;1.2902;2.0206;
136.2000;1.2894;2.0231;
136.5000;1.2894;2.0182;
136.8000;1.2894;2.0061;
137.1000;1.2894;2.0086;
137.4000;1.2886;2.0134;
137.7000;1.2910;2.0206;
138.0000;1.2894;2.0182;
138.3000;1.2845;2.0134;
138.6000;1.2894;2.0303;
138.9000;1.2894;2.0351;
139.2000;1.2910;2.0351;
139.5000;1.2853;2.0231;
139.8000;1.2894;2.0351;
140.1000;1.2894;2.0327;
140.4000;1.2902;2.0351;
140.7000;1.2894;2.0351;
141.0000;1.2894;2.0400;
141.3000;1.2894;2.0424;
141.6000;1.2894;2.0400;
141.9000;1.2869;2.0279;
142.2000;1.2894;2.0376;
142.5000;1.2902;2.0400;
142.8000;1.2894;2.0279;
143.1000;1.2894;2.0303;
143.4000;1.2877;2.0255;
143.7000;1.2886;2.0279;
144.0000;1.2902;2.0303;
144.3000;1.2861;2.0206;
144.6000;1.2886;2.0279;
144.9000;1.2894;2.0303;
145.2000;1.2861;2.0182;
145.5000;1.2902;2.0303;
145.8000;1.2894;2.0255;
146.1000;1.2886;2.0182;
146.4000;1.2902;2.0182;
146.7000;1.2902;2.0086;
147.0000;1.2877;2.0037;
147.3000;1.2877;2.0086;
147.6000;1.2894;2.0158;
147.9000;1.2902;2.0110;
148.2000;1.2902;1.9989;
148.5000;1.2894;1.9941;
148.8000;1.2894;1.9941;
149.1000;1.2910;1.9989;
149.4000;1.2918;2.0061;
149.7000;1.2894;2.0061;
150.0000;1.2886;2.0086;
150.3000;1.2845;1.9941;
150.6000;1.2902;2.0086;
150.9000;1.2886;2.0013;
151.2000;1.2902;2.0158;
151.5000;1.2886;2.0134;
151.8000;1.2902;2.0182;
152.1000;1.2894;2.0206;
152.4000;1.2894;2.0182;
152.7000;1.2886;2.0182;
153.0000;1.2894;2.0182;
153.3000;1.2894;2.0182;
153.6000;1.2861;2.0158;
153.9000;1.2894;2.0182;
154.2000;1.2894;2.0134;
154.5000;1.2886;2.0110;
154.8000;1.2877;2.0086;
155.1000;1.2886;2.0061;
155.4000;1.2886;2.0061;
155.7000;1.2926;2.0134;
156.0000;1.2877;1.9941;
156.3000;1.2861;1.9916;
156.6000;1.2894;1.9892;
156.9000;1.2902;1.9820;
157.2000;1.2869;1.9771;
157.5000;1.2894;1.9820;
157.8000;1.2869;1.9868;
158.1000;1.2894;1.9941;
158.4000;1.2886;2.0061;
158.7000;1.2877;2.0061;
159.0000;1.2894;2.0158;
159.3000;1.2902;2.0158;
159.6000;1.2886;2.0206;
159.9000;1.2886;2.0182;
160.2000;1.2886;2.0206;
160.5000;1.2902;2.0158;
160.8000;1.2902;2.0110;
161.1000;1.2894;2.0158;
161.4000;1.2894;2.0134;
161.7000;1.2894;2.0182;
162.0000;1.2812;2.0037;
162.3000;1.2894;2.0231;
162.6000;1.2894;2.0255;
162.9000;1.2910;2.0206;
163.2000;1.2902;2.0279;
163.5000;1.2894;2.0231;
163.8000;1.2910;2.0158;
164.1000;1.2910;2.0158;
164.4000;1.2902;2.0231;
164.7000;1.2902;2.0158;
165.0000;1.2869;2.0110;
165.3000;1.2886;2.0255;
165.6000;1.2894;2.0231;
165.9000;1.2894;2.0206;
166.2000;1.2902;2.0303;
166.5000;1.2894;2.0255;
166.8000;1.2902;2.0206;
167.1000;1.2902;2.0182;
167.4000;1.2902;2.0182;
167.7000;1.2894;2.0158;
168.0000;1.2910;2.0255;
168.3000;1.2926;2.0279;
168.6000;1.2918;2.0279;
168.9000;1.2910;2.0206;
169.2000;1.2894;2.0134;
169.5000;1.2886;2.0182;
169.8000;1.2910;2.0158;
170.1000;1.2943;2.0231;
170.4000;1.2886;2.0134;
170.7000;1.2902;2.0182;
171.0000;1.2886;2.0110;
171.3000;1.2975;2.0255;
171.6000;1.2918;2.0037;
171.9000;1.2877;2.0013;
172.2000;1.2902;2.0134;
172.5000;1.2910;2.0110;
172.8000;1.2894;2.0086;
173.1000;1.2918;2.0134;
173.4000;1.2829;1.9989;
173.7000;1.2943;2.0279;
174.0000;1.2877;2.0279;
174.3000;1.2894;2.0303;
174.6000;1.2918;2.0327;
174.9000;1.2877;2.0158;
175.2000;1.2902;2.0158;
175.5000;1.2894;2.0206;
175.8000;1.2934;2.0303;
176.1000;1.2902;2.0303;
176.4000;1.2902;2.0231;
176.7000;1.2886;2.0182;
177.0000;1.2926;2.0255;
177.3000;1.2886;2.0182;
177.6000;1.2886;2.0158;
177.9000;1.2877;2.0110;
178.2000;1.2902;2.0158;
178.5000;1.2886;2.0037;
178.8000;1.2902;2.0110;
179.1000;1.2894;2.0110;
179.4000;1.2902;2.0037;
179.7000;1.2902;2.0013;
180.0000;1.2910;2.0158;
180.3000;1.2902;2.0061;
180.6000;1.2877;1.9941;
180.9000;1.2902;2.0086;
181.2000;1.2910;2.0158;
181.5000;1.2910;2.0134;
181.8000;1.2902;2.0110;
182.1000;1.2869;2.0013;
182.4000;1.2910;2.0110;
182.7000;1.2886;2.0110;
183.0000;1.2902;2.0061;
183.3000;1.2804;1.9892;
183.6000;1.2902;2.0086;
183.9000;1.2910;2.0037;
184.2000;1.2902;1.9989;
184.5000;1.2902;2.0086;
184.8000;1.2886;2.0206;
185.1000;1.2894;2.0231;
185.4000;1.2845;2.0086;
185.7000;1.2886;2.0061;
186.0000;1.2869;2.0061;
186.3000;1.2853;2.0013;
186.6000;1.2877;2.0086;
186.9000;1.2877;2.0134;
187.2000;1.2926;2.0255;
187.5000;1.2894;2.0255;
187.8000;1.2886;2.0255;
188.1000;1.2829;2.0134;
188.4000;1.2845;2.0110;
188.7000;1.2886;2.0134;
189.0000;1.2894;2.0061;
189.3000;1.2861;1.9989;
189.6000;1.2886;2.0037;
189.9000;1.2902;2.0037;
190.2000;1.2943;2.0158;
190.5000;1.2877;1.9989;
190.8000;1.2894;1.9965;
191.1000;1.2886;1.9989;
191.4000;1.2902;2.0013;
191.7000;1.2877;1.9965;
192.0000;1.2894;1.9965;
192.3000;1.2918;2.0061;
192.6000;1.2894;2.0013;
192.9000;1.2877;1.9892;
193.2000;1.2902;1.9868;
193.5000;1.2886;1.9892;
193.8000;1.2894;1.9892;
194.1000;1.2886;1.9820;
194.4000;1.2902;1.9820;
194.7000;1.2918;1.9989;
195.0000;1.2894;1.9892;
195.3000;1.2934;1.9892;
195.6000;1.2869;1.9723;
195.9000;1.2894;1.9844;
196.2000;1.2894;1.9941;
196.5000;1.2894;1.9916;
196.8000;1.2886;1.9892;
197.1000;1.2902;1.9820;
197.4000;1.2886;1.9795;
197.7000;1.2943;1.9892;
198.0000;1.2910;1.9771;
198.3000;1.2877;1.9699;
198.6000;1.2886;1.9747;
198.9000;1.2894;1.9868;
199.2000;1.2894;1.9868;
199.5000;1.2886;1.9795;
199.8000;1.2902;1.9820;
200.1000;1.2918;1.9795;
200.4000;1.2918;1.9892;
200.7000;1.2934;1.9892;
201.0000;1.2886;1.9747;
201.3000;1.2886;1.9723;
201.6000;1.2902;1.9771;
201.9000;1.2894;1.9795;
202.2000;1.2926;1.9868;
202.5000;1.2894;1.9916;
202.8000;1.2910;1.9965;
203.1000;1.2886;1.9916;
203.4000;1.2910;1.9941;
203.7000;1.2894;1.9941;
204.0000;1.2910;2.0013;
204.3000;1.2902;2.0013;
204.6000;1.2894;2.0110;
204.9000;1.2902;2.0182;
205.2000;1.2910;2.0061;
205.5000;1.2918;2.0134;
205.8000;1.2910;2.0110;
206.1000;1.2894;2.0061;
206.4000;1.2910;2.0037;
206.7000;1.2910;1.9965;
207.0000;1.2886;1.9892;
207.3000;1.2902;1.9941;
207.6000;1.2894;1.9965;
207.9000;1.2918;2.0013;
208.2000;1.2877;1.9965;
208.5000;1.2894;2.0013;
208.8000;1.2869;1.9941;
209.1000;1.2894;2.0061;
209.4000;1.2877;1.9941;
209.7000;1.2902;1.9844;
210.0000;1.2894;1.9868;
210.3000;1.2902;1.9916;
210.6000;1.2918;1.9989;
210.9000;1.2894;1.9941;
211.2000;1.2894;1.9941;
211.5000;1.2894;1.9965;
211.8000;1.2894;1.9965;
212.1000;1.2894;1.9989;
212.4000;1.2796;1.9747;
212.7000;1.2894;1.9941;
213.0000;1.2902;1.9989;
213.3000;1.2943;2.0158;
213.6000;1.2894;2.0061;
213.9000;1.2894;2.0013;
214.2000;1.2894;1.9989;
214.5000;1.2894;1.9868;
214.8000;1.2886;1.9868;
215.1000;1.2886;1.9820;
215.4000;1.2886;1.9892;
215.7000;1.2902;1.9941;
216.0000;1.2886;1.9892;
216.3000;1.2894;1.9820;
216.6000;1.2943;1.9989;
216.9000;1.2902;1.9989;
217.2000;1.2894;1.9916;
217.5000;1.2894;1.9892;
217.8000;1.2910;1.9892;
218.1000;1.2918;1.9916;
218.4000;1.2894;1.9965;
218.7000;1.2943;2.0037;
219.0000;1.2902;1.9989;
219.3000;1.2910;2.0013;
219.6000;1.2894;1.9989;
219.9000;1.2918;2.0037;
220.2000;1.2902;1.9989;
220.5000;1.2894;2.0061;
220.8000;1.2926;2.0158;
221.1000;1.2894;2.0037;
221.4000;1.2894;2.0061;
221.7000;1.2894;2.0110;
222.0000;1.2886;2.0158;
222.3000;1.2894;2.0110;
222.6000;1.2886;1.9989;
222.9000;1.2886;1.9941;
223.2000;1.2910;1.9989;
223.5000;1.2877;1.9941;
223.8000;1.2886;1.9965;
224.1000;1.2821;1.9892;
224.4000;1.2894;2.0110;
224.7000;1.2894;2.0086;
225.0000;1.2886;2.0013;
225.3000;1.2877;2.0037;
225.6000;1.2877;2.0013;
225.9000;1.2886;2.0013;
226.2000;1.2894;2.0013;
226.5000;1.2894;2.0061;
226.8000;1.2910;2.0182;
227.1000;1.2894;2.0158;
227.4000;1.2894;2.0134;
227.7000;1.2910;2.0134;
228.0000;1.2894;2.0206;
228.3000;1.2894;2.0231;
228.6000;1.2902;2.0255;
228.9000;1.2869;2.0134;
229.2000;1.2886;2.0206;
229.5000;1.2902;2.0206;
229.8000;1.2894;2.0086;
230.1000;1.2902;2.0110;
230.4000;1.2902;2.0037;
230.7000;1.2902;2.0086;
231.0000;1.2918;2.0206;
231.3000;1.2918;2.0158;
231.6000;1.2910;2.0086;
231.9000;1.2886;2.0134;
232.2000;1.2943;2.0255;
232.5000;1.2902;2.0158;
232.8000;1.2910;2.0037;
233.1000;1.2894;2.0037;
233.4000;1.2918;2.0110;
233.7000;1.2886;2.0037;
234.0000;1.2918;1.9989;
234.3000;1.2886;1.9965;
234.6000;1.2886;2.0061;
234.9000;1.2853;1.9989;
235.2000;1.2926;2.0231;
235.5000;1.2869;2.0134;
235.8000;1.2861;2.0086;
236.1000;1.2918;2.0206;
236.4000;1.2894;2.0134;
236.7000;1.2886;2.0110;
237.0000;1.2910;2.0182;
237.3000;1.2902;2.0182;
237.6000;1.2861;2.0061;
237.9000;1.2886;2.0110;
238.2000;1.2886;2.0231;
238.5000;1.2902;2.0158;
238.8000;1.2894;2.0134;
239.1000;1.2902;2.0061;
239.4000;1.2886;1.9965;
239.7000;1.2902;1.9941;
240.0000;1.2894;1.9941;
240.3000;1.2886;1.9892;
240.6000;1.2902;1.9844;
240.9000;1.2902;1.9941;
241.2000;1.2926;2.0037;
241.5000;1.2894;1.9989;
241.8000;1.2902;1.9989;
242.1000;1.2918;2.0037;
242.4000;1.2902;2.0037;
242.7000;1.2877;1.9892;
243.0000;1.2869;1.9892;
243.3000;1.2894;1.9892;
243.6000;1.2943;1.9941;
243.9000;1.2910;1.9892;
244.2000;1.2902;1.9820;
244.5000;1.2902;1.9820;
244.8000;1.2902;1.9892;
245.1000;1.2894;1.9892;
245.4000;1.2894;2.0037;
245.7000;1.2853;1.9868;
246.0000;1.2902;1.9941;
246.3000;1.2910;1.9844;
246.6000;1.2894;1.9723;
246.9000;1.2934;1.9868;
247.2000;1.2910;1.9820;
247.5000;1.2910;1.9747;
247.8000;1.2902;1.9771;
248.1000;1.2894;1.9892;
248.4000;1.2877;1.9892;
248.7000;1.2886;2.0037;
249.0000;1.2902;2.0086;
249.3000;1.2902;2.0061;
249.6000;1.2910;1.9989;
249.9000;1.2894;2.0110;
250.2000;1.2902;2.0134;
250.5000;1.2894;2.0086;
250.8000;1.2877;2.0061;
251.1000;1.2910;2.0134;
251.4000;1.2910;2.0158;
251.7000;1.2902;2.0037;
252.0000;1.2894;2.0037;
252.3000;1.2894;2.0013;
252.6000;1.2902;1.9989;
252.9000;1.2910;2.0110;
253.2000;1.2926;2.0134;
253.5000;1.2877;1.9965;
253.8000;1.2910;2.0061;
254.1000;1.2910;2.0110;
254.4000;1.2886;2.0110;
254.7000;1.2894;2.0110;
255.0000;1.2934;2.0158;
255.3000;1.2902;2.0158;
255.6000;1.2902;2.0182;
255.9000;1.2894;2.0182;
256.2000;1.2910;2.0206;
256.5000;1.2934;2.0255;
256.8000;1.2910;2.0182;
257.1000;1.2902;2.0158;
257.4000;1.2934;2.0279;
257.7000;1.2918;2.0351;
258.0000;1.2902;2.0327;
258.3000;1.2918;2.0255;
258.6000;1.2894;2.0182;
258.9000;1.2886;2.0061;
259.2000;1.2877;2.0158;
259.5000;1.2853;2.0037;
259.8000;1.2886;2.0037;
260.1000;1.2877;1.9941;
260.4000;1.2894;1.9916;
260.7000;1.2894;1.9989;
261.0000;1.2869;1.9989;
261.3000;1.2894;2.0086;
261.6000;1.2910;2.0134;
261.9000;1.2894;2.0061;
262.2000;1.2902;2.0134;
262.5000;1.2918;2.0182;
262.8000;1.2902;2.0206;
263.1000;1.2894;2.0134;
263.4000;1.2877;2.0134;
263.7000;1.2894;2.0110;
264.0000;1.2886;2.0086;
264.3000;1.2886;2.0134;
264.6000;1.2886;2.0182;
264.9000;1.2886;2.0110;
265.2000;1.2902;2.0061;
265.5000;1.2918;2.0182;
265.8000;1.2902;2.0255;
266.1000;1.2918;2.0255;
266.4000;1.2910;2.0134;
266.7000;1.2910;2.0182;
267.0000;1.2902;2.0134;
267.3000;1.2894;2.0134;
267.6000;1.2910;2.0255;
267.9000;1.2918;2.0231;
268.2000;1.2910;2.0279;
268.5000;1.2959;2.0351;
268.8000;1.2894;2.0206;
269.1000;1.2902;2.0206;
269.4000;1.2902;2.0255;
269.7000;1.2894;2.0231;
270.0000;1.2894;2.0206;
270.3000;1.2910;2.0206;
270.6000;1.2902;2.0255;
270.9000;1.2902;2.0279;
271.2000;1.2877;2.0158;
271.5000;1.2886;2.0061;
271.8000;1.2983;2.0255;
272.1000;1.2877;2.0134;
272.4000;1.2902;2.0134;
272.7000;1.2902;2.0158;
273.0000;1.2918;2.0206;
273.3000;1.2910;2.0255;
273.6000;1.2902;2.0182;
273.9000;1.2910;2.0182;
274.2000;1.2926;2.0158;
274.5000;1.2894;2.0086;
274.8000;1.2886;1.9989;
275.1000;1.2894;1.9965;
275.4000;1.2894;1.9965;
275.7000;1.2902;2.0037;
276.0000;1.2886;2.0110;
276.3000;1.2894;2.0110;
276.6000;1.2886;2.0037;
276.9000;1.2902;2.0110;
277.2000;1.2894;2.0206;
277.5000;1.2918;2.0182;
277.8000;1.2910;2.0158;
278.1000;1.2918;2.0086;
278.4000;1.2902;2.0061;
278.7000;1.2894;2.0013;
279.0000;1.2918;2.0037;
279.3000;1.2910;1.9965;
279.6000;1.2894;1.9916;
279.9000;1.2886;1.9941;
280.2000;1.2894;2.0037;
280.5000;1.2886;2.0110;
280.8000;1.2902;2.0134;
281.1000;1.2886;2.0158;
281.4000;1.2902;2.0182;
281.7000;1.2894;2.0134;
282.0000;1.2951;2.0158;
282.3000;1.2894;1.9989;
282.6000;1.2877;1.9965;
282.9000;1.2894;2.0013;
283.2000;1.2877;2.0037;
283.5000;1.2869;2.0037;
283.8000;1.2894;2.0013;
284.1000;1.2877;1.9965;
284.4000;1.2886;1.9989;
284.7000;1.2877;1.9965;
285.0000;1.2861;1.9892;
285.3000;1.2869;1.9916;
285.6000;1.2861;1.9965;
285.9000;1.2877;2.0086;
286.2000;1.2853;2.0013;
286.5000;1.2902;2.0110;
286.8000;1.2886;2.0134;
287.1000;1.2894;2.0182;
287.4000;1.2902;2.0255;
287.7000;1.2902;2.0182;
288.0000;1.2910;2.0182;
288.3000;1.2902;2.0255;
288.6000;1.2894;2.0255;
288.9000;1.2894;2.0303;
289.2000;1.2902;2.0231;
289.5000;1.2869;2.0110;
289.8000;1.2894;2.0158;
290.1000;1.2886;2.0182;
290.4000;1.2886;2.0182;
290.7000;1.2910;2.0231;
291.0000;1.2910;2.0134;
291.3000;1.2894;2.0061;
291.6000;1.2910;1.9916;
291.9000;1.2853;1.9820;
292.2000;1.2902;1.9892;
292.5000;1.2894;1.9844;
292.8000;1.2918;1.9868;
293.1000;1.2877;1.9892;
293.4000;1.2902;2.0037;
293.7000;1.2894;2.0037;
294.0000;1.2886;2.0013;
294.3000;1.2910;2.0086;
294.6000;1.2886;2.0037;
294.9000;1.2951;2.0255;
295.2000;1.2877;2.0061;
295.5000;1.2902;2.0061;
295.8000;1.2894;2.0013;
296.1000;1.2877;2.0037;
296.4000;1.2902;2.0061;
296.7000;1.2877;1.9989;
297.0000;1.2821;1.9892;
297.3000;1.2894;2.0037;
297.6000;1.2886;2.0110;
297.9000;1.2869;1.9941;
298.2000;1.2886;1.9965;
298.5000;1.2877;1.9916;
298.8000;1.2886;1.9916;
299.1000;1.2829;1.9747;
299.4000;1.2877;1.9868;
299.7000;1.2894;1.9868;
300.0000;1.2861;1.9820;
300.3000;1.2894;1.9916;
300.6000;1.2877;1.9965;
300.9000;1.2886;2.0110;
301.2000;1.2910;2.0061;
301.5000;1.2886;1.9965;
301.8000;1.2877;1.9941;
302.1000;1.2910;1.9965;
302.4000;1.2910;1.9916;
302.7000;1.2894;1.9941;
303.0000;1.2902;1.9916;
303.3000;1.2902;1.9892;
303.6000;1.2910;2.0013;
303.9000;1.2910;2.0013;
304.2000;1.2869;1.9989;
304.5000;1.2869;1.9989;
304.8000;1.2902;1.9989;
305.1000;1.2902;1.9989;
305.4000;1.2894;1.9965;
305.7000;1.2886;1.9941;
306.0000;1.2902;1.9941;
306.3000;1.2902;1.9941;
306.6000;1.2918;1.9941;
306.9000;1.2886;1.9965;
307.2000;1.2894;2.0061;
307.5000;1.2902;2.0110;
307.8000;1.2877;2.0013;
308.1000;1.2894;2.0013;
308.4000;1.2902;1.9989;
308.7000;1.2894;1.9989;
309.0000;1.2894;1.9965;
309.3000;1.2877;1.9941;
309.6000;1.2886;2.0037;
309.9000;1.2902;2.0037;
310.2000;1.2869;2.0086;
310.5000;1.2886;2.0158;
310.8000;1.2886;2.0134;
311.1000;1.2877;2.0061;
311.4000;1.2902;2.0086;
311.7000;1.2894;2.0037;
312.0000;1.2902;2.0037;
312.3000;1.2910;2.0086;
312.6000;1.2886;2.0061;
312.9000;1.2902;2.0182;
313.2000;1.2894;2.0158;
313.5000;1.2902;2.0182;
313.8000;1.2934;2.0182;
314.1000;1.2902;2.0158;
314.4000;1.2894;2.0037;
314.7000;1.2886;1.9989;
315.0000;1.2886;1.9989;
315.3000;1.2894;2.0013;
315.6000;1.2886;2.0013;
315.9000;1.2845;1.9868;
316.2000;1.2877;1.9892;
316.5000;1.2869;1.9916;
316.8000;1.2894;1.9989;
317.1000;1.2894;1.9989;
317.4000;1.2918;2.0013;
317.7000;1.2869;1.9892;
318.0000;1.2918;1.9916;
318.3000;1.2886;1.9844;
318.6000;1.2902;1.9989;
318.9000;1.2902;2.0013;
319.2000;1.2926;2.0061;
319.5000;1.2902;2.0061;
319.8000;1.2886;2.0061;
320.1000;1.2910;2.0086;
320.4000;1.2902;2.0086;
320.7000;1.2886;2.0086;
321.0000;1.2877;2.0037;
321.3000;1.2886;1.9989;
321.6000;1.2886;1.9965;
321.9000;1.2886;2.0013;
322.2000;1.2877;1.9989;
322.5000;1.2894;2.0086;
322.8000;1.2861;1.9989;
323.1000;1.2886;2.0086;
323.4000;1.2845;2.0013;
323.7000;1.2877;2.0037;
324.0000;1.2894;2.0086;
324.3000;1.2877;2.0134;
324.6000;1.2869;2.0110;
324.9000;1.2886;2.0086;
325.2000;1.2877;2.0061;
325.5000;1.2894;2.0158;
325.8000;1.2910;2.0182;
326.1000;1.2894;2.0182;
326.4000;1.2910;2.0182;
326.7000;1.2910;2.0110;
327.0000;1.2894;2.0110;
327.3000;1.2934;2.0206;
327.6000;1.2910;2.0013;
327.9000;1.2886;2.0013;
328.2000;1.2934;2.0134;
328.5000;1.2926;2.0182;
328.8000;1.2902;2.0158;
329.1000;1.2918;2.0110;
329.4000;1.2886;1.9989;
329.7000;1.2910;1.9965;
330.0000;1.2894;1.9916;
330.3000;1.2877;1.9844;
330.6000;1.2894;1.9892;
330.9000;1.2886;1.9892;
331.2000;1.2902;1.9989;
331.5000;1.2894;2.0061;
331.8000;1.2886;2.0086;
332.1000;1.2886;2.0061;
332.4000;1.2886;2.0061;
332.7000;1.2886;2.0061;
333.0000;1.2894;2.0086;
333.3000;1.2877;1.9965;
333.6000;1.2886;1.9989;
333.9000;1.2877;2.0037;
334.2000;1.2902;2.0086;
334.5000;1.2894;2.0086;
334.8000;1.2886;2.0110;
335.1000;1.2894;2.0037;
335.4000;1.2910;2.0037;
335.7000;1.2894;1.9989;
336.0000;1.2910;2.0013;
336.3000;1.2886;1.9941;
336.6000;1.2902;1.9941;
336.9000;1.2902;2.0037;
337.2000;1.2902;1.9965;
337.5000;1.2877;1.9892;
337.8000;1.2853;1.9916;
338.1000;1.2877;1.9941;
338.4000;1.2877;1.9916;
338.7000;1.2877;1.9820;
339.0000;1.2886;1.9844;
339.3000;1.2886;1.9820;
339.6000;1.2910;1.9795;
339.9000;1.2894;1.9723;
340.2000;1.2886;1.9795;
340.5000;1.2910;1.9868;
340.8000;1.2886;1.9844;
341.1000;1.2877;1.9844;
341.4000;1.2869;1.9795;
341.7000;1.2869;1.9868;
342.0000;1.2861;1.9844;
342.3000;1.2837;1.9892;
342.6000;1.2877;2.0013;
342.9000;1.2877;1.9989;
343.2000;1.2886;1.9989;
343.5000;1.2902;2.0037;
343.8000;1.2877;1.9965;
344.1000;1.2886;2.0013;
344.4000;1.2886;2.0037;
344.7000;1.2902;2.0061;
345.0000;1.2894;2.0061;
345.3000;1.2910;2.0110;
345.6000;1.2877;1.9965;
345.9000;1.2894;1.9989;
346.2000;1.2910;2.0013;
346.5000;1.2902;2.0013;
346.8000;1.2886;1.9916;
347.1000;1.2943;1.9989;
347.4000;1.2894;1.9795;
347.7000;1.2886;1.9868;
348.0000;1.2894;1.9868;
348.3000;1.2894;1.9965;
348.6000;1.2910;2.0037;
348.9000;1.2886;2.0061;
349.2000;1.2853;2.0086;
349.5000;1.2918;2.0231;
349.8000;1.2902;2.0134;
350.1000;1.2877;2.0037;
350.4000;1.2894;2.0086;
350.7000;1.2894;2.0061;
351.0000;1.2902;2.0061;
351.3000;1.2853;1.9844;
351.6000;1.2886;1.9868;
351.9000;1.2886;1.9941;
352.2000;1.2886;1.9916;
352.5000;1.2861;1.9965;
352.8000;1.2886;2.0037;
353.1000;1.2877;2.0013;
353.4000;1.2877;1.9965;
353.7000;1.2877;2.0037;
354.0000;1.2886;2.0158;
354.3000;1.2877;2.0158;
354.6000;1.2894;2.0206;
354.9000;1.2894;2.0279;
355.2000;1.2886;2.0255;
355.5000;1.2902;2.0158;
355.8000;1.2902;2.0134;
356.1000;1.2886;2.0110;
356.4000;1.2894;2.0110;
356.7000;1.2902;2.0110;
357.0000;1.2894;2.0110;
357.3000;1.2894;2.0110;
357.6000;1.2902;2.0110;
357.9000;1.2877;2.0061;
358.2000;1.2886;2.0037;
358.5000;1.2886;2.0061;
358.8000;1.2902;2.0134;
359.1000;1.2894;2.0013;
359.4000;1.2886;2.0013;
359.7000;1.2869;2.0013;
360.0000;1.2926;2.0110;
360.3000;1.2902;2.0086;
360.6000;1.2959;2.0231;
360.9000;1.2894;2.0086;
361.2000;1.2910;2.0110;
361.5000;1.2886;2.0037;
361.8000;1.2869;2.0061;
362.1000;1.2869;2.0110;
362.4000;1.2877;2.0158;
362.7000;1.2886;2.0182;
363.0000;1.2886;2.0134;
363.3000;1.2861;1.9989;
363.6000;1.2877;2.0037;
363.9000;1.2886;2.0061;
364.2000;1.2902;1.9941;
364.5000;1.2886;1.9916;
364.8000;1.2877;2.0013;
365.1000;1.2886;1.9989;
365.4000;1.2894;1.9989;
365.7000;1.2886;1.9989;
366.0000;1.2902;2.0110;
366.3000;1.2902;2.0037;
366.6000;1.2861;2.0013;
366.9000;1.2886;2.0158;
367.2000;1.2894;2.0255;
367.5000;1.2926;2.0376;
367.8000;1.2861;2.0110;
368.1000;1.2886;2.0134;
368.4000;1.2926;2.0061;
368.7000;1.2877;1.9965;
369.0000;1.2902;2.0134;
369.3000;1.2943;2.0279;
369.6000;1.2902;2.0086;
369.9000;1.2902;2.0013;
370.2000;1.2894;2.0013;
370.5000;1.2894;2.0013;
370.8000;1.2894;1.9989;
371.1000;1.2877;2.0013;
371.4000;1.2902;2.0134;
371.7000;1.2886;2.0086;
372.0000;1.2877;2.0013;
372.3000;1.2894;2.0037;
372.6000;1.2910;2.0110;
372.9000;1.2877;2.0182;
373.2000;1.2853;2.0061;
373.5000;1.2886;2.0086;
373.8000;1.2869;2.0086;
374.1000;1.2877;2.0110;
374.4000;1.2886;2.0158;
374.7000;1.2902;2.0158;
375.0000;1.2918;2.0255;
375.3000;1.2877;2.0206;
375.6000;1.2877;2.0134;
375.9000;1.2886;2.0182;
376.2000;1.2877;2.0158;
376.5000;1.2877;2.0206;
376.8000;1.2894;2.0158;
377.1000;1.2886;2.0134;
377.4000;1.2869;2.0086;
377.7000;1.2886;2.0158;
378.0000;1.2869;2.0110;
378.3000;1.2869;2.0061;
378.6000;1.2886;2.0086;
378.9000;1.2877;1.9965;
379.2000;1.2869;2.0037;
379.5000;1.2861;2.0110;
379.8000;1.2869;2.0086;
380.1000;1.2861;2.0037;
380.4000;1.2902;2.0037;
380.7000;1.2869;2.0013;
381.0000;1.2894;2.0037;
381.3000;1.2894;2.0013;
381.6000;1.2869;2.0013;
381.9000;1.2877;2.0086;
382.2000;1.2877;2.0086;
382.5000;1.2877;2.0134;
382.8000;1.2886;2.0086;
383.1000;1.2845;1.9892;
383.4000;1.2877;1.9989;
383.7000;1.2869;2.0061;
384.0000;1.2877;1.9941;
384.3000;1.2902;1.9892;
384.6000;1.2861;1.9747;
384.9000;1.2886;1.9795;
385.2000;1.2910;1.9844;
385.5000;1.2902;1.9795;
385.8000;1.2910;1.9820;
386.1000;1.2894;1.9820;
386.4000;1.2886;1.9795;
386.7000;1.2894;1.9820;
387.0000;1.2853;1.9747;
387.3000;1.2910;1.9844;
387.6000;1.2861;1.9892;
387.9000;1.2869;1.9892;
388.2000;1.2869;2.0037;
388.5000;1.2869;2.0037;
388.8000;1.2861;1.9989;
389.1000;1.2877;2.0037;
389.4000;1.2886;2.0037;
389.7000;1.2910;2.0086;
390.0000;1.2877;2.0061;
390.3000;1.2886;2.0037;
390.6000;1.2910;2.0061;
390.9000;1.2902;2.0013;
391.2000;1.2894;1.9941;
391.5000;1.2902;1.9989;
391.8000;1.2894;2.0013;
392.1000;1.2886;1.9989;
392.4000;1.2926;2.0134;
392.7000;1.2902;2.0061;
393.0000;1.2902;2.0061;
393.3000;1.2886;2.0134;
393.6000;1.2869;2.0086;
393.9000;1.2861;2.0086;
394.2000;1.2861;2.0086;
394.5000;1.2894;2.0061;
394.8000;1.2886;1.9989;
395.1000;1.2910;1.9989;
395.4000;1.2861;1.9868;
395.7000;1.2886;1.9916;
396.0000;1.2926;2.0037;
396.3000;1.2886;1.9989;
396.6000;1.2869;2.0061;
396.9000;1.2869;2.0037;
397.2000;1.2877;2.0086;
397.5000;1.2877;1.9989;
397.8000;1.2877;1.9989;
398.1000;1.2902;2.0134;
398.4000;1.2910;2.0110;
398.7000;1.2877;2.0086;
399.0000;1.2877;2.0134;
399.3000;1.2812;2.0061;
399.6000;1.2853;2.0158;
399.9000;1.2886;2.0158;
400.2000;1.2861;2.0231;
400.5000;1.2886;2.0279;
400.8000;1.2886;2.0279;
401.1000;1.2877;2.0158;
401.4000;1.2894;2.0206;
401.7000;1.2886;2.0158;
402.0000;1.2894;2.0158;
402.3000;1.2812;1.9965;
402.6000;1.2869;2.0158;
402.9000;1.2877;2.0158;
403.2000;1.2877;2.0110;
403.5000;1.2869;2.0061;
403.8000;1.2853;2.0086;
404.1000;1.2877;2.0134;
404.4000;1.2869;2.0134;
404.7000;1.2869;2.0134;
405.0000;1.2902;2.0206;
405.3000;1.2861;2.0110;
405.6000;1.2886;2.0110;
405.9000;1.2877;2.0110;
406.2000;1.2894;2.0061;
406.5000;1.2877;2.0158;
406.8000;1.2845;2.0086;
407.1000;1.2902;2.0182;
407.4000;1.2886;2.0158;
407.7000;1.2869;2.0110;
408.0000;1.2886;2.0086;
408.3000;1.2886;2.0061;
408.6000;1.2886;1.9941;
408.9000;1.2886;2.0013;
409.2000;1.2861;1.9916;
409.5000;1.2869;2.0037;
409.8000;1.2877;2.0086;
410.1000;1.2837;2.0086;
410.4000;1.2853;2.0206;
410.7000;1.2869;2.0376;
411.0000;1.2886;2.0327;
411.3000;1.2934;2.0448;
411.6000;1.2877;2.0351;
411.9000;1.2853;2.0255;
412.2000;1.2861;2.0255;
412.5000;1.2886;2.0376;
412.8000;1.2853;2.0279;
413.1000;1.2894;2.0327;
413.4000;1.2853;2.0158;
413.7000;1.2812;1.9989;
414.0000;1.2877;2.0086;
414.3000;1.2861;2.0158;
414.6000;1.2894;2.0206;
414.9000;1.2869;2.0110;
415.2000;1.2877;2.0134;
415.5000;1.2861;2.0134;
415.8000;1.2869;2.0255;
416.1000;1.2902;2.0279;
416.4000;1.2894;2.0327;
416.7000;1.2894;2.0327;
417.0000;1.2869;2.0327;
417.3000;1.2869;2.0327;
417.6000;1.2894;2.0376;
417.9000;1.2886;2.0279;
418.2000;1.2886;2.0231;
418.5000;1.2926;2.0279;
418.8000;1.2877;2.0182;
419.1000;1.2934;2.0327;
419.4000;1.2853;2.0110;
419.7000;1.2869;2.0110;
420.0000;1.2894;2.0158;
420.3000;1.3000;2.0472;
420.6000;1.2886;2.0231;
420.9000;1.2877;2.0327;
421.2000;1.2926;2.0521;
421.5000;1.2877;2.0472;
421.8000;1.2877;2.0521;
422.1000;1.2869;2.0424;
422.4000;1.2951;2.0569;
422.7000;1.2886;2.0376;
423.0000;1.2869;2.0376;
423.3000;1.2959;2.0569;
423.6000;1.2829;2.0303;
423.9000;1.2877;2.0303;
424.2000;1.2886;2.0303;
424.5000;1.2894;2.0303;
424.8000;1.2877;2.0279;
425.1000;1.2853;2.0182;
425.4000;1.2877;2.0255;
425.7000;1.2853;2.0182;
426.0000;1.2869;2.0255;
426.3000;1.2886;2.0279;
426.6000;1.2894;2.0351;
426.9000;1.2886;2.0351;
427.2000;1.2910;2.0496;
427.5000;1.2869;2.0424;
427.8000;1.2902;2.0448;
428.1000;1.2877;2.0255;
428.4000;1.2877;2.0327;
428.7000;1.2877;2.0327;
429.0000;1.2894;2.0327;
429.3000;1.2886;2.0231;
429.6000;1.2886;2.0182;
429.9000;1.2886;2.0182;
430.2000;1.2877;2.0182;
430.5000;1.2877;2.0158;
430.8000;1.2886;2.0158;
431.1000;1.2877;2.0255;
431.4000;1.2902;2.0255;
431.7000;1.2894;2.0231;
432.0000;1.2886;2.0182;
432.3000;1.2902;2.0206;
432.6000;1.2894;2.0110;
432.9000;1.2853;2.0013;
433.2000;1.2894;2.0086;
433.5000;1.2869;1.9965;
433.8000;1.2869;1.9941;
434.1000;1.2894;1.9989;
434.4000;1.2877;1.9941;
434.7000;1.2869;2.0013;
435.0000;1.2869;2.0110;
435.3000;1.2886;2.0037;
435.6000;1.2877;1.9989;
435.9000;1.2861;2.0013;
436.2000;1.2886;2.0061;
436.5000;1.2877;2.0086;
436.8000;1.2894;2.0134;
437.1000;1.2902;2.0037;
437.4000;1.2877;1.9989;
437.7000;1.2918;2.0061;
438.0000;1.2886;2.0061;
438.3000;1.2869;2.0061;
438.6000;1.2951;2.0279;
438.9000;1.2886;2.0134;
439.2000;1.2877;2.0182;
439.5000;1.2861;2.0206;
439.8000;1.2861;2.0134;
440.1000;1.2861;2.0158;
440.4000;1.2861;2.0231;
440.7000;1.2877;2.0327;
441.0000;1.2853;2.0255;
441.3000;1.2886;2.0376;
441.6000;1.2902;2.0400;
441.9000;1.2886;2.0376;
442.2000;1.2926;2.0496;
442.5000;1.2894;2.0351;
442.8000;1.2886;2.0279;
443.1000;1.2894;2.0182;
443.4000;1.2910;2.0231;
443.7000;1.2869;2.0182;
444.0000;1.2877;2.0158;
444.3000;1.2902;2.0182;
444.6000;1.2894;2.0182;
444.9000;1.2894;2.0134;
445.2000;1.2845;2.0086;
445.5000;1.2869;2.0255;
445.8000;1.2869;2.0206;
446.1000;1.2861;2.0158;
446.4000;1.2869;2.0158;
446.7000;1.2869;2.0182;
447.0000;1.2829;2.0061;
447.3000;1.2877;2.0231;
447.6000;1.2845;2.0158;
447.9000;1.2886;2.0206;
448.2000;1.2886;2.0182;
448.5000;1.2861;2.0110;
448.8000;1.2869;2.0206;
449.1000;1.2894;2.0255;
449.4000;1.2861;2.0206;
449.7000;1.2869;2.0110;
450.0000;1.2861;2.0134;
450.3000;1.2861;2.0110;
450.6000;1.2869;2.0134;
450.9000;1.2877;2.0110;
451.2000;1.2894;2.0206;
451.5000;1.2853;2.0134;
451.8000;1.2877;2.0255;
452.1000;1.2886;2.0231;
452.4000;1.2886;2.0279;
452.7000;1.2829;2.0182;
453.0000;1.2894;2.0376;
453.3000;1.2869;2.0303;
453.6000;1.2877;2.0327;
453.9000;1.2877;2.0303;
454.2000;1.2869;2.0351;
454.5000;1.2886;2.0400;
454.8000;1.2877;2.0351;
455.1000;1.2869;2.0351;
455.4000;1.2853;2.0231;
455.7000;1.2902;2.0255;
456.0000;1.2894;2.0303;
456.3000;1.2869;2.0231;
456.6000;1.2877;2.0351;
456.9000;1.2877;2.0279;
457.2000;1.2886;2.0303;
457.5000;1.2861;2.0255;
457.8000;1.2861;2.0255;
458.1000;1.2869;2.0231;
458.4000;1.2886;2.0255;
458.7000;1.2951;2.0400;
459.0000;1.2861;2.0231;
459.3000;1.2886;2.0231;
459.6000;1.2910;2.0327;
459.9000;1.2886;2.0255;
460.2000;1.2829;2.0134;
460.5000;1.2845;2.0158;
460.8000;1.2877;2.0206;
461.1000;1.2861;2.0134;
461.4000;1.2869;2.0182;
461.7000;1.2853;2.0061;
462.0000;1.2861;2.0037;
462.3000;1.2877;2.0061;
462.6000;1.2869;2.0037;
462.9000;1.2861;2.0110;
463.2000;1.2918;2.0206;
463.5000;1.2894;2.0110;
463.8000;1.2877;2.0013;
464.1000;1.2869;2.0061;
464.4000;1.2869;2.0037;
464.7000;1.2877;2.0037;
465.0000;1.2861;2.0013;
465.3000;1.2853;1.9965;
465.6000;1.2886;2.0061;
465.9000;1.2902;2.0158;
466.2000;1.2869;2.0086;
466.5000;1.2869;2.0158;
466.8000;1.2869;2.0110;
467.1000;1.2894;2.0110;
467.4000;1.2886;2.0061;
467.7000;1.2869;1.9989;
468.0000;1.2861;2.0013;
468.3000;1.2861;1.9989;
468.6000;1.2886;1.9965;
468.9000;1.2877;1.9916;
469.2000;1.2861;2.0013;
469.5000;1.2877;2.0013;
469.8000;1.2877;2.0013;
470.1000;1.2877;2.0013;
470.4000;1.2869;2.0013;
470.7000;1.2894;2.0013;
471.0000;1.2894;1.9989;
471.3000;1.2902;2.0013;
471.6000;1.2894;2.0013;
471.9000;1.2877;1.9989;
472.2000;1.2886;1.9965;
472.5000;1.2886;1.9989;
472.8000;1.2877;1.9965;
473.1000;1.2877;2.0037;
473.4000;1.2869;2.0013;
473.7000;1.2886;1.9989;
474.0000;1.2877;2.0037;
474.3000;1.2861;2.0037;
474.6000;1.2869;2.0013;
474.9000;1.2877;2.0061;
475.2000;1.2886;2.0061;
475.5000;1.2886;2.0061;
475.8000;1.2869;2.0013;
476.1000;1.2853;2.0037;
476.4000;1.2877;2.0086;
476.7000;1.2877;2.0013;
477.0000;1.2861;2.0061;
477.3000;1.2877;2.0110;
477.6000;1.2902;2.0182;
477.9000;1.2869;2.0086;
478.2000;1.2869;2.0061;
478.5000;1.2877;2.0110;
478.8000;1.2894;2.0086;
479.1000;1.2886;2.0037;
479.4000;1.2877;1.9989;
479.7000;1.2869;2.0013;
480.0000;1.2861;1.9916;
480.3000;1.2902;1.9989;
480.6000;1.2877;1.9965;
480.9000;1.2869;2.0037;
481.2000;1.2934;2.0279;
481.5000;1.2869;2.0182;
481.8000;1.2861;2.0182;
482.1000;1.2877;2.0206;
482.4000;1.2877;2.0061;
482.7000;1.2910;2.0158;
483.0000;1.2869;2.0134;
483.3000;1.2910;2.0231;
483.6000;1.2877;2.0110;
483.9000;1.2886;2.0134;
484.2000;1.2910;2.0231;
484.5000;1.2869;2.0134;
484.8000;1.2877;2.0182;
485.1000;1.2804;2.0013;
485.4000;1.2886;2.0231;
485.7000;1.2869;2.0182;
486.0000;1.2886;2.0158;
486.3000;1.2845;2.0013;
486.6000;1.2853;2.0037;
486.9000;1.2861;2.0037;
487.2000;1.2910;2.0061;
487.5000;1.2877;1.9989;
487.8000;1.2886;1.9965;
488.1000;1.2877;1.9989;
488.4000;1.2886;2.0037;
488.7000;1.2886;2.0086;
489.0000;1.2894;2.0110;
489.3000;1.2869;2.0134;
489.6000;1.2861;2.0013;
489.9000;1.2869;2.0061;
490.2000;1.2877;2.0086;
490.5000;1.2877;2.0061;
490.8000;1.2886;2.0037;
491.1000;1.2877;2.0134;
491.4000;1.2894;2.0279;
491.7000;1.2894;2.0255;
492.0000;1.2869;2.0182;
492.3000;1.2861;2.0158;
492.6000;1.2861;2.0158;
492.9000;1.2869;2.0231;
493.2000;1.2869;2.0255;
493.5000;1.2943;2.0424;
493.8000;1.2869;2.0279;
494.1000;1.2877;2.0303;
494.4000;1.2869;2.0303;
494.7000;1.2853;2.0182;
495.0000;1.2869;2.0158;
495.3000;1.2869;2.0061;
495.6000;1.2869;2.0037;
495.9000;1.2861;1.9941;
496.2000;1.2869;1.9892;
496.5000;1.2877;1.9844;
496.8000;1.2877;1.9795;
497.1000;1.2861;1.9771;
497.4000;1.2845;1.9820;
497.7000;1.2869;1.9844;
498.0000;1.2886;1.9965;
498.3000;1.2869;2.0061;
498.6000;1.2861;1.9965;
498.9000;1.2877;1.9989;
499.2000;1.2886;2.0110;
499.5000;1.2845;1.9989;
499.8000;1.2894;2.0086;
500.1000;1.2886;2.0061;
500.4000;1.2869;2.0061;
500.7000;1.2845;2.0013;
501.0000;1.2861;2.0134;
501.3000;1.2869;2.0110;
501.6000;1.2951;2.0351;
501.9000;1.2877;2.0255;
502.2000;1.2861;2.0206;
502.5000;1.2886;2.0182;
502.8000;1.2910;2.0182;
503.1000;1.2877;2.0158;
503.4000;1.2894;2.0182;
503.7000;1.2877;2.0158;
504.0000;1.2861;2.0037;
504.3000;1.2877;2.0013;
504.6000;1.2869;2.0061;
504.9000;1.2861;2.0037;
505.2000;1.2853;2.0061;
505.5000;1.2902;2.0110;
505.8000;1.2845;1.9989;
506.1000;1.2861;1.9941;
506.4000;1.2877;1.9989;
506.7000;1.2861;2.0013;
507.0000;1.2886;2.0037;
507.3000;1.2829;1.9820;
507.6000;1.2853;1.9941;
507.9000;1.2869;1.9989;
508.2000;1.2853;2.0037;
508.5000;1.2861;2.0086;
508.8000;1.2861;2.0037;
509.1000;1.2861;2.0013;
509.4000;1.2886;2.0013;
509.7000;1.2869;1.9989;
510.0000;1.2869;1.9916;
510.3000;1.2853;1.9916;
510.6000;1.2853;1.9965;
510.9000;1.2861;1.9989;
511.2000;1.2869;2.0061;
511.5000;1.2869;2.0086;
511.8000;1.2869;2.0110;
512.1000;1.2886;2.0206;
512.4000;1.2845;2.0086;
512.7000;1.2853;2.0086;
513.0000;1.2886;2.0134;
513.3000;1.2877;2.0086;
513.6000;1.2886;2.0061;
513.9000;1.2861;1.9989;
514.2000;1.2877;2.0037;
514.5000;1.2853;2.0013;
514.8000;1.2869;2.0037;
515.1000;1.2861;2.0013;
515.4000;1.2877;2.0110;
515.7000;1.2861;2.0013;
516.0000;1.2853;1.9965;
516.3000;1.2877;1.9892;
516.6000;1.2853;1.9771;
516.9000;1.2869;1.9844;
517.2000;1.2918;1.9989;
517.5000;1.2829;1.9844;
517.8000;1.2845;1.9892;
518.1000;1.2845;1.9965;
518.4000;1.2821;1.9820;
518.7000;1.2861;1.9916;
519.0000;1.2853;1.9941;
519.3000;1.2869;1.9892;
519.6000;1.2869;1.9868;
519.9000;1.2869;1.9941;
520.2000;1.2877;1.9965;
520.5000;1.2861;1.9916;
520.8000;1.2853;1.9868;
521.1000;1.2845;1.9820;
521.4000;1.2869;1.9892;
521.7000;1.2877;1.9868;
522.0000;1.2877;1.9868;
522.3000;1.2877;1.9916;
522.6000;1.2861;1.9844;
522.9000;1.2877;1.9941;
523.2000;1.2853;1.9916;
523.5000;1.2869;1.9916;
523.8000;1.2853;1.9868;
524.1000;1.2788;1.9699;
524.4000;1.2877;1.9868;
524.7000;1.2894;1.9965;
525.0000;1.2918;2.0013;
525.3000;1.2877;1.9868;
525.6000;1.2886;1.9844;
525.9000;1.2877;1.9892;
526.2000;1.2869;1.9820;
526.5000;1.2845;1.9795;
526.8000;1.2869;1.9868;
527.1000;1.2853;1.9892;
527.4000;1.2877;2.0086;
527.7000;1.2877;2.0013;
528.0000;1.2829;1.9892;
528.3000;1.2845;1.9892;
528.6000;1.2869;1.9916;
528.9000;1.2910;2.0037;
529.2000;1.2837;1.9892;
529.5000;1.2902;2.0086;
529.8000;1.2869;2.0134;
530.1000;1.2869;2.0086;
530.4000;1.2886;2.0110;
530.7000;1.2951;2.0206;
531.0000;1.2845;1.9989;
531.3000;1.2877;2.0061;
531.6000;1.2837;1.9941;
531.9000;1.2877;1.9965;
532.2000;1.2894;1.9965;
532.5000;1.2869;1.9916;
532.8000;1.2877;1.9844;
533.1000;1.2959;1.9989;
533.4000;1.2853;1.9795;
533.7000;1.2869;1.9844;
534.0000;1.2869;1.9916;
534.3000;1.2829;1.9747;
534.6000;1.2869;1.9892;
534.9000;1.2894;2.0013;
535.2000;1.2886;2.0061;
535.5000;1.2877;2.0037;
535.8000;1.2894;2.0013;
536.1000;1.2877;1.9941;
536.4000;1.2894;1.9868;
536.7000;1.2877;1.9820;
537.0000;1.2861;1.9771;
537.3000;1.2894;1.9892;
537.6000;1.2902;1.9941;
537.9000;1.2877;1.9844;
538.2000;1.2861;1.9892;
538.5000;1.2869;1.9892;
538.8000;1.2861;1.9965;
539.1000;1.2869;1.9989;
539.4000;1.2837;1.9965;
539.7000;1.2861;2.0061;
540.0000;1.2861;2.0110;
540.3000;1.2821;2.0013;
540.6000;1.2853;2.0086;
540.9000;1.2861;2.0013;
541.2000;1.2910;2.0086;
541.5000;1.2861;1.9965;
541.8000;1.2861;1.9941;
542.1000;1.2853;1.9989;
542.4000;1.2853;2.0037;
542.7000;1.2861;2.0086;
543.0000;1.2861;2.0110;
543.3000;1.2861;2.0134;
543.6000;1.2886;2.0231;
543.9000;1.2877;2.0206;
544.2000;1.2869;2.0158;
544.5000;1.2877;2.0231;
544.8000;1.2853;2.0182;
545.1000;1.2886;2.0303;
545.4000;1.2877;2.0255;
545.7000;1.2853;2.0279;
546.0000;1.2869;2.0327;
546.3000;1.2861;2.0255;
546.6000;1.2845;2.0255;
546.9000;1.2861;2.0279;
547.2000;1.2853;2.0231;
547.5000;1.2869;2.0158;
547.8000;1.2861;2.0158;
548.1000;1.2861;2.0134;
548.4000;1.2861;2.0182;
548.7000;1.2886;2.0158;
549.0000;1.2869;2.0158;
549.3000;1.2853;2.0231;
549.6000;1.2861;2.0351;
549.9000;1.2877;2.0376;
550.2000;1.2861;2.0279;
550.5000;1.2869;2.0376;
550.8000;1.2829;2.0255;
551.1000;1.2886;2.0376;
551.4000;1.2869;2.0279;
551.7000;1.2861;2.0255;
552.0000;1.2869;2.0231;
552.3000;1.2845;2.0206;
552.6000;1.2853;2.0303;
552.9000;1.2837;2.0206;
553.2000;1.2845;2.0206;
553.5000;1.2886;2.0303;
553.8000;1.2853;2.0182;
554.1000;1.2861;2.0231;
554.4000;1.2804;2.0158;
554.7000;1.2869;2.0424;
555.0000;1.2861;2.0376;
555.3000;1.2918;2.0521;
555.6000;1.2796;2.0110;
555.9000;1.2861;2.0158;
556.2000;1.2877;2.0086;
556.5000;1.2886;2.0061;
556.8000;1.2902;2.0086;
557.1000;1.2894;2.0061;
557.4000;1.2877;2.0037;
557.7000;1.2861;2.0110;
558.0000;1.2877;2.0255;
558.3000;1.2869;2.0303;
558.6000;1.2853;2.0351;
558.9000;1.2869;2.0376;
559.2000;1.2861;2.0424;
559.5000;1.2861;2.0400;
559.8000;1.2853;2.0376;
560.1000;1.2853;2.0424;
560.4000;1.2869;2.0496;
560.7000;1.2861;2.0400;
561.0000;1.2845;2.0303;
561.3000;1.2845;2.0303;
561.6000;1.2853;2.0279;
561.9000;1.2877;2.0231;
562.2000;1.2861;2.0351;
562.5000;1.2869;2.0376;
562.8000;1.2853;2.0279;
563.1000;1.2853;2.0327;
563.4000;1.2869;2.0376;
563.7000;1.2845;2.0303;
564.0000;1.2853;2.0255;
564.3000;1.2861;2.0255;
564.6000;1.2861;2.0158;
564.9000;1.2853;2.0158;
565.2000;1.2861;2.0134;
565.5000;1.2869;2.0182;
565.8000;1.2853;2.0158;
566.1000;1.2845;2.0110;
566.4000;1.2788;1.9989;
566.7000;1.2861;2.0206;
567.0000;1.2877;2.0255;
567.3000;1.2869;2.0134;
567.6000;1.2853;2.0182;
567.9000;1.2869;2.0134;
568.2000;1.2853;2.0086;
568.5000;1.2886;2.0158;
568.8000;1.2869;2.0158;
569.1000;1.2869;2.0231;
569.4000;1.2869;2.0303;
569.7000;1.2869;2.0303;
570.0000;1.2861;2.0255;
570.3000;1.2861;2.0303;
570.6000;1.2853;2.0206;
570.9000;1.2869;2.0279;
571.2000;1.2845;2.0206;
571.5000;1.2829;2.0134;
571.8000;1.2869;2.0206;
572.1000;1.2861;2.0327;
572.4000;1.2877;2.0206;
572.7000;1.2837;2.0110;
573.0000;1.2853;2.0182;
573.3000;1.2845;2.0110;
573.6000;1.2869;2.0182;
573.9000;1.2845;2.0158;
574.2000;1.2788;1.9965;
574.5000;1.2853;2.0086;
574.8000;1.2861;2.0134;
575.1000;1.2959;2.0351;
575.4000;1.2829;2.0158;
575.7000;1.2853;2.0134;
576.0000;1.2829;2.0134;
576.3000;1.2796;2.0013;
576.6000;1.2861;2.0182;
576.9000;1.2861;2.0279;
577.2000;1.2869;2.0279;
577.5000;1.2853;2.0255;
577.8000;1.2845;2.0206;
578.1000;1.2861;2.0255;
578.4000;1.2869;2.0327;
578.7000;1.2853;2.0279;
579.0000;1.2853;2.0231;
579.3000;1.2877;2.0376;
579.6000;1.2853;2.0351;
579.9000;1.2861;2.0279;
580.2000;1.2845;2.0255;
580.5000;1.2853;2.0231;
580.8000;1.2861;2.0303;
581.1000;1.2853;2.0182;
581.4000;1.2869;2.0158;
581.7000;1.2845;2.0110;
582.0000;1.2869;2.0134;
582.3000;1.2869;2.0182;
582.6000;1.2877;2.0255;
582.9000;1.2869;2.0303;
583.2000;1.2869;2.0231;
583.5000;1.2869;2.0231;
583.8000;1.2861;2.0231;
584.1000;1.2861;2.0182;
584.4000;1.2853;2.0158;
584.7000;1.2869;2.0086;
585.0000;1.2853;1.9989;
585.3000;1.2877;1.9965;
585.6000;1.2853;1.9941;
585.9000;1.2861;1.9965;
586.2000;1.2853;2.0061;
586.5000;1.2853;2.0086;
586.8000;1.2845;2.0134;
587.1000;1.2877;2.0158;
587.4000;1.2869;2.0134;
587.7000;1.2869;2.0086;
588.0000;1.2845;1.9989;
588.3000;1.2861;1.9916;
588.6000;1.2861;1.9941;
588.9000;1.2853;1.9916;
589.2000;1.2821;1.9868;
589.5000;1.2837;1.9892;
589.8000;1.2853;1.9965;
590.1000;1.2853;2.0061;
590.4000;1.2837;2.0037;
590.7000;1.2853;2.0134;
591.0000;1.2853;2.0206;
591.3000;1.2845;2.0182;
591.6000;1.2821;2.0134;
591.9000;1.2861;2.0182;
592.2000;1.2869;2.0182;
592.5000;1.2821;2.0086;
592.8000;1.2853;2.0158;
593.1000;1.2853;2.0134;
593.4000;1.2853;2.0110;
593.7000;1.2837;2.0037;
594.0000;1.2829;2.0061;
594.3000;1.2861;2.0182;
594.6000;1.2861;2.0182;
594.9000;1.2861;2.0158;
595.2000;1.2869;2.0086;
595.5000;1.2845;2.0110;
595.8000;1.2861;2.0134;
596.1000;1.2861;2.0158;
596.4000;1.2877;2.0206;
596.7000;1.2869;2.0134;
597.0000;1.2869;2.0110;
597.3000;1.2877;2.0158;
597.6000;1.2861;2.0158;
597.9000;1.2861;2.0110;
598.2000;1.2853;2.0110;
598.5000;1.2861;2.0110;
598.8000;1.2894;2.0158;
599.1000;1.2845;2.0013;
599.4000;1.2853;1.9989;
599.7000;1.2853;1.9941;
600.0000;1.2845;1.9916;
600.3000;1.2845;1.9820;
600.6000;1.2853;1.9747;
600.9000;1.2780;1.9505;
601.2000;1.2690;1.9385;
601.5000;1.2552;1.9022;
601.8000;1.2462;1.8853;
602.1000;1.2348;1.8635;
602.4000;1.2218;1.8490;
602.7000;1.2120;1.8321;
603.0000;1.2015;1.8104;
603.3000;1.1966;1.8079;
603.6000;1.1868;1.7910;
603.9000;1.1738;1.7620;
604.2000;1.1640;1.7620;
604.5000;1.1543;1.7475;
604.8000;1.1445;1.7354;
605.1000;1.1388;1.7282;
605.4000;1.1315;1.7113;
605.7000;1.1249;1.6968;
606.0000;1.1176;1.6943;
606.3000;1.1103;1.6895;
606.6000;1.1054;1.6992;
606.9000;1.0989;1.6992;
607.2000;1.0924;1.6919;
607.5000;1.0932;1.7016;
607.8000;1.0810;1.6798;
608.1000;1.0745;1.6726;
608.4000;1.0704;1.6605;
608.7000;1.0647;1.6581;
609.0000;1.0590;1.6532;
609.3000;1.0541;1.6484;
609.6000;1.0484;1.6460;
609.9000;1.0435;1.6436;
610.2000;1.0387;1.6532;
610.5000;1.0362;1.6629;
610.8000;1.0281;1.6605;
611.1000;1.0256;1.6605;
611.4000;1.0199;1.6581;
611.7000;1.0175;1.6557;
612.0000;1.0134;1.6484;
612.3000;1.0085;1.6460;
612.6000;1.0028;1.6412;
612.9000;1.0020;1.6387;
613.2000;0.9972;1.6339;
613.5000;0.9906;1.6267;
613.8000;0.9882;1.6242;
614.1000;0.9841;1.6267;
614.4000;0.9825;1.6339;
614.7000;0.9760;1.6242;
615.0000;0.9719;1.6194;
615.3000;0.9711;1.6170;
615.6000;0.9695;1.6146;
615.9000;0.9630;1.5928;
616.2000;0.9597;1.5928;
616.5000;0.9581;1.5952;
616.8000;0.9556;1.6001;
617.1000;0.9516;1.6001;
617.4000;0.9475;1.5952;
617.7000;0.9467;1.5928;
618.0000;0.9442;1.5904;
618.3000;0.9402;1.5880;
618.6000;0.9353;1.5880;
618.9000;0.9328;1.5856;
619.2000;0.9304;1.5904;
619.5000;0.9280;1.5977;
619.8000;0.9263;1.5928;
620.1000;0.9223;1.5880;
620.4000;0.9206;1.5880;
620.7000;0.9174;1.5807;
621.0000;0.9158;1.5856;
621.3000;0.9109;1.5807;
621.6000;0.9109;1.5856;
621.9000;0.9084;1.5928;
622.2000;0.9052;1.5856;
622.5000;0.9019;1.5856;
622.8000;0.9003;1.5952;
623.1000;0.8938;1.5832;
623.4000;0.8962;1.5928;
623.7000;0.8930;1.5904;
624.0000;0.8930;1.5952;
624.3000;0.8962;1.6097;
624.6000;0.8889;1.5952;
624.9000;0.8816;1.5735;
625.2000;0.8816;1.5783;
625.5000;0.8791;1.5735;
625.8000;0.8799;1.5807;
626.1000;0.8783;1.5880;
626.4000;0.8759;1.5783;
626.7000;0.8726;1.5687;
627.0000;0.8694;1.5662;
627.3000;0.8710;1.5711;
627.6000;0.8726;1.5832;
627.9000;0.8661;1.5687;
628.2000;0.8661;1.5662;
628.5000;0.8653;1.5735;
628.8000;0.8620;1.5735;
629.1000;0.8596;1.5735;
629.4000;0.8571;1.5638;
629.7000;0.8588;1.5687;
630.0000;0.8555;1.5687;
630.3000;0.8531;1.5711;
630.6000;0.8523;1.5735;
630.9000;0.8498;1.5759;
631.2000;0.8482;1.5856;
631.5000;0.8498;1.5832;
631.8000;0.8449;1.5759;
632.1000;0.8449;1.5759;
632.4000;0.8441;1.5783;
632.7000;0.8409;1.5711;
633.0000;0.8425;1.5832;
633.3000;0.8360;1.5783;
633.6000;0.8376;1.5856;
633.9000;0.8360;1.5807;
634.2000;0.8360;1.5832;
634.5000;0.8335;1.5783;
634.8000;0.8319;1.5711;
635.1000;0.8303;1.5638;
635.4000;0.8303;1.5638;
635.7000;0.8270;1.5469;
636.0000;0.8230;1.5421;
636.3000;0.8238;1.5566;
636.6000;0.8238;1.5566;
636.9000;0.8238;1.5662;
637.2000;0.8221;1.5687;
637.5000;0.8205;1.5687;
637.8000;0.8181;1.5590;
638.1000;0.8189;1.5566;
638.4000;0.8189;1.5542;
638.7000;0.8156;1.5517;
639.0000;0.8148;1.5493;
639.3000;0.8140;1.5566;
639.6000;0.8132;1.5614;
639.9000;0.8132;1.5566;
640.2000;0.8099;1.5493;
640.5000;0.8091;1.5493;
640.8000;0.8067;1.5493;
641.1000;0.8091;1.5590;
641.4000;0.8091;1.5662;
641.7000;0.8059;1.5687;
642.0000;0.8042;1.5759;
642.3000;0.8050;1.5904;
642.6000;0.8042;1.5856;
642.9000;0.8010;1.5832;
643.2000;0.7985;1.5735;
643.5000;0.8002;1.5856;
643.8000;0.7985;1.5856;
644.1000;0.7977;1.5735;
644.4000;0.7969;1.5662;
644.7000;0.7953;1.5711;
645.0000;0.7961;1.5759;
645.3000;0.7953;1.5783;
645.6000;0.7937;1.5759;
645.9000;0.7928;1.5711;
646.2000;0.7920;1.5638;
646.5000;0.7945;1.5687;
646.8000;0.7880;1.5614;
647.1000;0.7831;1.5445;
647.4000;0.7888;1.5662;
647.7000;0.7847;1.5493;
648.0000;0.7880;1.5614;
648.3000;0.7888;1.5687;
648.6000;0.7863;1.5662;
648.9000;0.7855;1.5711;
649.2000;0.7888;1.5832;
649.5000;0.7823;1.5832;
649.8000;0.7831;1.5807;
650.1000;0.7766;1.5687;
650.4000;0.7823;1.5856;
650.7000;0.7766;1.5735;
651.0000;0.7790;1.5759;
651.3000;0.7782;1.5711;
651.6000;0.7774;1.5735;
651.9000;0.7741;1.5638;
652.2000;0.7757;1.5687;
652.5000;0.7749;1.5590;
652.8000;0.7749;1.5614;
653.1000;0.7733;1.5687;
653.4000;0.7733;1.5711;
653.7000;0.7725;1.5735;
654.0000;0.7709;1.5614;
654.3000;0.7700;1.5542;
654.6000;0.7725;1.5566;
654.9000;0.7709;1.5517;
655.2000;0.7692;1.5517;
655.5000;0.7611;1.5421;
655.8000;0.7676;1.5590;
656.1000;0.7676;1.5638;
656.4000;0.7660;1.5662;
656.7000;0.7652;1.5638;
657.0000;0.7635;1.5711;
657.3000;0.7635;1.5807;
657.6000;0.7635;1.5735;
657.9000;0.7627;1.5662;
658.2000;0.7619;1.5687;
658.5000;0.7619;1.5711;
658.8000;0.7619;1.5735;
659.1000;0.7603;1.5759;
659.4000;0.7603;1.5759;
659.7000;0.7570;1.5711;
660.0000;0.7595;1.5783;
660.3000;0.7586;1.5759;
660.6000;0.7586;1.5735;
660.9000;0.7554;1.5711;
661.2000;0.7546;1.5735;
661.5000;0.7546;1.5759;
661.8000;0.7530;1.5662;
662.1000;0.7554;1.5687;
662.4000;0.7546;1.5638;
662.7000;0.7530;1.5614;
663.0000;0.7546;1.5614;
663.3000;0.7505;1.5614;
663.6000;0.7497;1.5614;
663.9000;0.7521;1.5638;
664.2000;0.7440;1.5469;
664.5000;0.7497;1.5638;
664.8000;0.7513;1.5614;
665.1000;0.7497;1.5517;
665.4000;0.7489;1.5542;
665.7000;0.7513;1.5542;
666.0000;0.7473;1.5445;
666.3000;0.7473;1.5517;
666.6000;0.7464;1.5493;
666.9000;0.7464;1.5469;
667.2000;0.7521;1.5638;
667.5000;0.7456;1.5638;
667.8000;0.7448;1.5662;
668.1000;0.7481;1.5711;
668.4000;0.7448;1.5614;
668.7000;0.7440;1.5517;
669.0000;0.7416;1.5421;
669.3000;0.7456;1.5662;
669.6000;0.7448;1.5590;
669.9000;0.7424;1.5566;
670.2000;0.7416;1.5662;
670.5000;0.7391;1.5687;
670.8000;0.7407;1.5687;
671.1000;0.7375;1.5759;
671.4000;0.7383;1.5807;
671.7000;0.7318;1.5590;
672.0000;0.7359;1.5662;
672.3000;0.7342;1.5590;
672.6000;0.7334;1.5614;
672.9000;0.7359;1.5687;
673.2000;0.7359;1.5614;
673.5000;0.7375;1.5542;
673.8000;0.7367;1.5542;
674.1000;0.7334;1.5542;
674.4000;0.7342;1.5662;
674.7000;0.7334;1.5711;
675.0000;0.7334;1.5735;
675.3000;0.7334;1.5735;
675.6000;0.7334;1.5711;
675.9000;0.7326;1.5711;
676.2000;0.7318;1.5711;
676.5000;0.7318;1.5638;
676.8000;0.7310;1.5662;
677.1000;0.7302;1.5662;
677.4000;0.7302;1.5638;
677.7000;0.7285;1.5614;
678.0000;0.7310;1.5711;
678.3000;0.7302;1.5711;
678.6000;0.7293;1.5687;
678.9000;0.7293;1.5735;
679.2000;0.7310;1.5759;
679.5000;0.7285;1.5687;
679.8000;0.7277;1.5687;
680.1000;0.7253;1.5687;
680.4000;0.7285;1.5590;
680.7000;0.7269;1.5590;
681.0000;0.7253;1.5566;
681.3000;0.7253;1.5542;
681.6000;0.7245;1.5517;
681.9000;0.7253;1.5590;
682.2000;0.7236;1.5542;
682.5000;0.7285;1.5662;
682.8000;0.7228;1.5517;
683.1000;0.7236;1.5614;
683.4000;0.7236;1.5517;
683.7000;0.7220;1.5493;
684.0000;0.7212;1.5517;
684.3000;0.7220;1.5687;
684.6000;0.7220;1.5662;
684.9000;0.7220;1.5711;
685.2000;0.7220;1.5759;
685.5000;0.7212;1.5735;
685.8000;0.7212;1.5638;
686.1000;0.7220;1.5590;
686.4000;0.7179;1.5445;
686.7000;0.7179;1.5590;
687.0000;0.7188;1.5542;
687.3000;0.7155;1.5469;
687.6000;0.7163;1.5469;
687.9000;0.7163;1.5517;
688.2000;0.7131;1.5469;
688.5000;0.7228;1.5638;
688.8000;0.7171;1.5493;
689.1000;0.7163;1.5421;
689.4000;0.7196;1.5445;
689.7000;0.7163;1.5372;
690.0000;0.7171;1.5445;
690.3000;0.7171;1.5517;
690.6000;0.7171;1.5590;
690.9000;0.7155;1.5566;
691.2000;0.7139;1.5542;
691.5000;0.7139;1.5566;
691.8000;0.7139;1.5517;
692.1000;0.7147;1.5542;
692.4000;0.7123;1.5445;
692.7000;0.7131;1.5421;
693.0000;0.7131;1.5372;
693.3000;0.7155;1.5493;
693.6000;0.7123;1.5372;
693.9000;0.7106;1.5372;
694.2000;0.7114;1.5348;
694.5000;0.7131;1.5469;
694.8000;0.7114;1.5517;
695.1000;0.7106;1.5493;
695.4000;0.7098;1.5469;
695.7000;0.7090;1.5517;
696.0000;0.7041;1.5421;
696.3000;0.7090;1.5469;
696.6000;0.7082;1.5421;
696.9000;0.7090;1.5396;
697.2000;0.7090;1.5372;
697.5000;0.7082;1.5372;
697.8000;0.7090;1.5372;
698.1000;0.7074;1.5372;
698.4000;0.7082;1.5421;
698.7000;0.7098;1.5421;
699.0000;0.7057;1.5396;
699.3000;0.7057;1.5493;
699.6000;0.7066;1.5421;
699.9000;0.7066;1.5517;
700.2000;0.7057;1.5542;
700.5000;0.7090;1.5566;
700.8000;0.7057;1.5469;
701.1000;0.7057;1.5493;
701.4000;0.7057;1.5517;
701.7000;0.7057;1.5542;
702.0000;0.7025;1.5469;
702.3000;0.7057;1.5542;
702.6000;0.7049;1.5590;
702.9000;0.7041;1.5590;
703.2000;0.7025;1.5493;
703.5000;0.7041;1.5566;
703.8000;0.7049;1.5638;
704.1000;0.7033;1.5614;
704.4000;0.7033;1.5590;
704.7000;0.7025;1.5590;
705.0000;0.7025;1.5566;
705.3000;0.7017;1.5614;
705.6000;0.7025;1.5711;
705.9000;0.6992;1.5735;
706.2000;0.7017;1.5735;
706.5000;0.7000;1.5735;
706.8000;0.6992;1.5687;
707.1000;0.7000;1.5687;
707.4000;0.7000;1.5687;
707.7000;0.6976;1.5542;
708.0000;0.6992;1.5542;
708.3000;0.7009;1.5517;
708.6000;0.6968;1.5517;
708.9000;0.6984;1.5662;
709.2000;0.6984;1.5711;
709.5000;0.7009;1.5662;
709.8000;0.6992;1.5542;
710.1000;0.6976;1.5469;
710.4000;0.6976;1.5445;
710.7000;0.7000;1.5566;
711.0000;0.6984;1.5614;
711.3000;0.6976;1.5614;
711.6000;0.6919;1.5445;
711.9000;0.6968;1.5566;
712.2000;0.6968;1.5590;
712.5000;0.6984;1.5614;
712.8000;0.6976;1.5614;
713.1000;0.6960;1.5638;
713.4000;0.6943;1.5614;
713.7000;0.6952;1.5735;
714.0000;0.6952;1.5807;
714.3000;0.6943;1.5711;
714.6000;0.6943;1.5638;
714.9000;0.6960;1.5614;
715.2000;0.6952;1.5517;
715.5000;0.6960;1.5542;
715.8000;0.6952;1.5517;
716.1000;0.6952;1.5542;
716.4000;0.6943;1.5566;
716.7000;0.6935;1.5614;
717.0000;0.6935;1.5638;
717.3000;0.6927;1.5687;
717.6000;0.6919;1.5687;
717.9000;0.6927;1.5638;
718.2000;0.6919;1.5783;
718.5000;0.6927;1.5783;
718.8000;0.6878;1.5662;
719.1000;0.6927;1.5783;
719.4000;0.6895;1.5638;
719.7000;0.6919;1.5662;
720.0000;0.6911;1.5662;
720.3000;0.6935;1.5662;
720.6000;0.6911;1.5687;
720.9000;0.6895;1.5687;
721.2000;0.6911;1.5807;
721.5000;0.6911;1.5759;
721.8000;0.6903;1.5711;
722.1000;0.6895;1.5711;
722.4000;0.6911;1.5807;
722.7000;0.6943;1.5928;
723.0000;0.6886;1.5783;
723.3000;0.6886;1.5735;
723.6000;0.6854;1.5590;
723.9000;0.6919;1.5638;
724.2000;0.6895;1.5638;
724.5000;0.6903;1.5687;
724.8000;0.6886;1.5614;
725.1000;0.6878;1.5566;
725.4000;0.6919;1.5735;
725.7000;0.6878;1.5662;
726.0000;0.6878;1.5614;
726.3000;0.6878;1.5614;
726.6000;0.6886;1.5711;
726.9000;0.6878;1.5783;
727.2000;0.6895;1.5783;
727.5000;0.6878;1.5807;
727.8000;0.6846;1.5735;
728.1000;0.6862;1.5735;
728.4000;0.6862;1.5735;
728.7000;0.6846;1.5614;
729.0000;0.6862;1.5638;
729.3000;0.6862;1.5517;
729.6000;0.6854;1.5469;
729.9000;0.6846;1.5542;
730.2000;0.6870;1.5638;
730.5000;0.6838;1.5566;
730.8000;0.6862;1.5590;
731.1000;0.6862;1.5542;
731.4000;0.6838;1.5566;
731.7000;0.6870;1.5614;
732.0000;0.6838;1.5638;
732.3000;0.6838;1.5687;
732.6000;0.6854;1.5711;
732.9000;0.6838;1.5735;
733.2000;0.6829;1.5711;
733.5000;0.6821;1.5638;
733.8000;0.6838;1.5711;
734.1000;0.6838;1.5638;
734.4000;0.6846;1.5614;
734.7000;0.6813;1.5469;
735.0000;0.6805;1.5445;
735.3000;0.6813;1.5469;
735.6000;0.6838;1.5445;
735.9000;0.6829;1.5493;
736.2000;0.6821;1.5493;
736.5000;0.6829;1.5469;
736.8000;0.6838;1.5493;
737.1000;0.6707;1.5082;
737.4000;0.6829;1.5421;
737.7000;0.6813;1.5396;
738.0000;0.6813;1.5396;
738.3000;0.6821;1.5445;
738.6000;0.6821;1.5493;
738.9000;0.6805;1.5517;
739.2000;0.6805;1.5542;
739.5000;0.6829;1.5517;
739.8000;0.6813;1.5542;
740.1000;0.6805;1.5517;
740.4000;0.6838;1.5542;
740.7000;0.6821;1.5469;
741.0000;0.6797;1.5372;
741.3000;0.6797;1.5396;
741.6000;0.6789;1.5348;
741.9000;0.6805;1.5324;
742.2000;0.6821;1.5348;
742.5000;0.6740;1.5179;
742.8000;0.6821;1.5517;
743.1000;0.6789;1.5445;
743.4000;0.6781;1.5469;
743.7000;0.6797;1.5493;
744.0000;0.6716;1.5276;
744.3000;0.6772;1.5372;
744.6000;0.6764;1.5348;
744.9000;0.6772;1.5372;
745.2000;0.6764;1.5372;
745.5000;0.6821;1.5445;
745.8000;0.6772;1.5445;
746.1000;0.6789;1.5542;
746.4000;0.6772;1.5566;
746.7000;0.6772;1.5542;
747.0000;0.6772;1.5566;
747.3000;0.6772;1.5638;
747.6000;0.6756;1.5687;
747.9000;0.6756;1.5638;
748.2000;0.6781;1.5590;
748.5000;0.6764;1.5469;
748.8000;0.6789;1.5517;
749.1000;0.6764;1.5517;
749.4000;0.6748;1.5517;
749.7000;0.6756;1.5590;
750.0000;0.6748;1.5687;
750.3000;0.6740;1.5735;
750.6000;0.6724;1.5662;
750.9000;0.6772;1.5711;
751.2000;0.6764;1.5783;
751.5000;0.6764;1.5783;
751.8000;0.6756;1.5735;
752.1000;0.6756;1.5711;
752.4000;0.6740;1.5662;
752.7000;0.6716;1.5662;
753.0000;0.6748;1.5759;
753.3000;0.6756;1.5807;
753.6000;0.6732;1.5735;
753.9000;0.6748;1.5687;
754.2000;0.6724;1.5638;
754.5000;0.6732;1.5662;
754.8000;0.6756;1.5759;
755.1000;0.6724;1.5590;
755.4000;0.6716;1.5493;
755.7000;0.6724;1.5590;
756.0000;0.6740;1.5614;
756.3000;0.6732;1.5687;
756.6000;0.6659;1.5542;
756.9000;0.6724;1.5687;
757.2000;0.6740;1.5735;
757.5000;0.6732;1.5711;
757.8000;0.6732;1.5735;
758.1000;0.6707;1.5638;
758.4000;0.6732;1.5783;
758.7000;0.6716;1.5759;
759.0000;0.6764;1.5856;
759.3000;0.6716;1.5759;
759.6000;0.6732;1.5880;
759.9000;0.6781;1.6049;
760.2000;0.6748;1.5952;
760.5000;0.6732;1.5832;
760.8000;0.6724;1.5807;
761.1000;0.6756;1.5807;
761.4000;0.6724;1.5687;
761.7000;0.6740;1.5735;
762.0000;0.6748;1.5783;
762.3000;0.6732;1.5662;
762.6000;0.6748;1.5711;
762.9000;0.6716;1.5566;
763.2000;0.6740;1.5662;
763.5000;0.6756;1.5687;
763.8000;0.6764;1.5687;
764.1000;0.6724;1.5638;
764.4000;0.6716;1.5662;
764.7000;0.6724;1.5759;
765.0000;0.6716;1.5711;
765.3000;0.6618;1.5542;
765.6000;0.6691;1.5783;
765.9000;0.6675;1.5711;
766.2000;0.6716;1.5807;
766.5000;0.6699;1.5735;
766.8000;0.6691;1.5759;
767.1000;0.6691;1.5759;
767.4000;0.6683;1.5735;
767.7000;0.6675;1.5807;
768.0000;0.6667;1.5783;
768.3000;0.6699;1.5856;
768.6000;0.6675;1.5832;
768.9000;0.6642;1.5662;
769.2000;0.6699;1.5832;
769.5000;0.6675;1.5735;
769.8000;0.6683;1.5711;
770.1000;0.6683;1.5638;
770.4000;0.6675;1.5590;
770.7000;0.6691;1.5542;
771.0000;0.6667;1.5566;
771.3000;0.6675;1.5590;
771.6000;0.6707;1.5662;
771.9000;0.6691;1.5614;
772.2000;0.6675;1.5711;
772.5000;0.6683;1.5687;
772.8000;0.6683;1.5590;
773.1000;0.6675;1.5517;
773.4000;0.6691;1.5493;
773.7000;0.6675;1.5542;
774.0000;0.6699;1.5566;
774.3000;0.6691;1.5638;
774.6000;0.6675;1.5638;
774.9000;0.6667;1.5662;
775.2000;0.6667;1.5662;
775.5000;0.6675;1.5662;
775.8000;0.6642;1.5638;
776.1000;0.6659;1.5783;
776.4000;0.6659;1.5856;
776.7000;0.6667;1.5928;
777.0000;0.6642;1.5856;
777.3000;0.6650;1.5783;
777.6000;0.6667;1.5856;
777.9000;0.6667;1.5904;
778.2000;0.6675;1.6001;
778.5000;0.6667;1.5977;
778.8000;0.6667;1.5928;
779.1000;0.6659;1.5856;
779.4000;0.6642;1.5832;
779.7000;0.6675;1.5977;
780.0000;0.6659;1.5928;
780.3000;0.6585;1.5783;
780.6000;0.6634;1.5880;
780.9000;0.6634;1.5832;
781.2000;0.6618;1.5735;
781.5000;0.6699;1.5952;
781.8000;0.6659;1.5856;
782.1000;0.6659;1.5856;
782.4000;0.6667;1.5880;
782.7000;0.6650;1.5807;
783.0000;0.6659;1.5759;
783.3000;0.6642;1.5735;
783.6000;0.6650;1.5783;
783.9000;0.6642;1.5711;
784.2000;0.6642;1.5735;
784.5000;0.6642;1.5807;
784.8000;0.6650;1.5856;
785.1000;0.6659;1.5856;
785.4000;0.6642;1.5807;
785.7000;0.6642;1.5832;
786.0000;0.6634;1.5711;
786.3000;0.6634;1.5638;
786.6000;0.6659;1.5687;
786.9000;0.6634;1.5662;
787.2000;0.6602;1.5590;
787.5000;0.6618;1.5735;
787.8000;0.6634;1.5856;
788.1000;0.6642;1.5832;
788.4000;0.6634;1.5807;
788.7000;0.6618;1.5880;
789.0000;0.6626;1.5832;
789.3000;0.6593;1.5759;
789.6000;0.6618;1.5832;
789.9000;0.6602;1.5832;
790.2000;0.6650;1.5904;
790.5000;0.6626;1.5783;
790.8000;0.6553;1.5638;
791.1000;0.6618;1.5735;
791.4000;0.6593;1.5735;
791.7000;0.6667;1.5928;
792.0000;0.6618;1.5856;
792.3000;0.6610;1.5832;
792.6000;0.6650;1.5928;
792.9000;0.6634;1.5832;
793.2000;0.6634;1.5687;
793.5000;0.6610;1.5638;
793.8000;0.6610;1.5638;
794.1000;0.6642;1.5687;
794.4000;0.6593;1.5687;
794.7000;0.6593;1.5662;
795.0000;0.6610;1.5687;
795.3000;0.6610;1.5735;
795.6000;0.6626;1.5783;
795.9000;0.6602;1.5783;
796.2000;0.6577;1.5807;
796.5000;0.6602;1.5807;
796.8000;0.6618;1.5735;
797.1000;0.6618;1.5783;
797.4000;0.6675;1.5928;
797.7000;0.6618;1.5807;
798.0000;0.6626;1.5783;
798.3000;0.6618;1.5880;
798.6000;0.6602;1.5904;
798.9000;0.6610;1.5977;
799.2000;0.6602;1.6049;
799.5000;0.6610;1.6025;
799.8000;0.6593;1.6097;
800.1000;0.6602;1.6097;
800.4000;0.6577;1.6097;
800.7000;0.6528;1.6073;
801.0000;0.6577;1.6073;
801.3000;0.6545;1.5904;
801.6000;0.6602;1.5977;
801.9000;0.6610;1.5977;
802.2000;0.6602;1.5928;
802.5000;0.6585;1.5928;
802.8000;0.6577;1.5880;
803.1000;0.6593;1.5928;
803.4000;0.6585;1.5904;
803.7000;0.6545;1.5783;
804.0000;0.6577;1.5832;
804.3000;0.6593;1.5928;
804.6000;0.6528;1.5904;
804.9000;0.6577;1.6049;
805.2000;0.6561;1.6001;
805.5000;0.6585;1.5977;
805.8000;0.6569;1.6025;
806.1000;0.6593;1.6001;
806.4000;0.6569;1.5880;
806.7000;0.6593;1.5832;
807.0000;0.6585;1.5880;
807.3000;0.6585;1.5904;
807.6000;0.6577;1.5928;
807.9000;0.6569;1.5904;
808.2000;0.6593;1.6001;
808.5000;0.6593;1.5977;
808.8000;0.6585;1.5952;
809.1000;0.6577;1.5880;
809.4000;0.6593;1.5952;
809.7000;0.6577;1.5904;
810.0000;0.6577;1.5928;
810.3000;0.6585;1.5880;
810.6000;0.6585;1.5928;
810.9000;0.6577;1.5880;
811.2000;0.6585;1.5832;
811.5000;0.6569;1.5880;
811.8000;0.6569;1.5904;
812.1000;0.6561;1.5928;
812.4000;0.6561;1.6025;
812.7000;0.6561;1.5977;
813.0000;0.6569;1.6097;
813.3000;0.6577;1.6097;
813.6000;0.6561;1.6097;
813.9000;0.6545;1.5977;
814.2000;0.6569;1.5977;
814.5000;0.6553;1.5928;
814.8000;0.6561;1.5952;
815.1000;0.6569;1.5977;
815.4000;0.6569;1.6001;
815.7000;0.6553;1.6049;
816.0000;0.6569;1.6025;
816.3000;0.6545;1.5928;
816.6000;0.6577;1.5977;
816.9000;0.6577;1.5904;
817.2000;0.6577;1.5856;
817.5000;0.6561;1.5735;
817.8000;0.6561;1.5759;
818.1000;0.6561;1.5735;
818.4000;0.6561;1.5807;
818.7000;0.6569;1.5880;
819.0000;0.6553;1.5977;
819.3000;0.6545;1.5977;
819.6000;0.6553;1.6025;
819.9000;0.6553;1.6049;
820.2000;0.6553;1.6025;
820.5000;0.6536;1.6073;
820.8000;0.6553;1.6146;
821.1000;0.6561;1.6170;
821.4000;0.6545;1.6073;
821.7000;0.6545;1.6001;
822.0000;0.6553;1.6025;
822.3000;0.6545;1.5952;
822.6000;0.6520;1.5856;
822.9000;0.6561;1.5928;
823.2000;0.6545;1.5807;
823.5000;0.6545;1.5807;
823.8000;0.6553;1.5832;
824.1000;0.6520;1.5880;
824.4000;0.6536;1.5904;
824.7000;0.6528;1.5952;
825.0000;0.6545;1.5928;
825.3000;0.6536;1.5928;
825.6000;0.6536;1.5952;
825.9000;0.6528;1.5952;
826.2000;0.6545;1.5928;
826.5000;0.6553;1.5952;
826.8000;0.6520;1.5928;
827.1000;0.6520;1.6001;
827.4000;0.6528;1.6001;
827.7000;0.6545;1.6025;
828.0000;0.6536;1.6001;
828.3000;0.6553;1.5952;
828.6000;0.6545;1.5977;
828.9000;0.6545;1.5952;
829.2000;0.6545;1.5952;
829.5000;0.6528;1.5880;
829.8000;0.6536;1.5952;
830.1000;0.6545;1.6025;
830.4000;0.6545;1.6073;
830.7000;0.6536;1.6122;
831.0000;0.6528;1.6097;
831.3000;0.6536;1.6170;
831.6000;0.6528;1.6218;
831.9000;0.6553;1.6146;
832.2000;0.6504;1.6001;
832.5000;0.6561;1.6146;
832.8000;0.6536;1.6097;
833.1000;0.6528;1.6097;
833.4000;0.6520;1.6001;
833.7000;0.6536;1.6001;
834.0000;0.6536;1.6025;
834.3000;0.6528;1.6001;
834.6000;0.6528;1.6001;
834.9000;0.6520;1.6001;
835.2000;0.6512;1.5977;
835.5000;0.6528;1.6001;
835.8000;0.6528;1.5952;
836.1000;0.6520;1.5928;
836.4000;0.6536;1.6001;
836.7000;0.6520;1.5952;
837.0000;0.6512;1.6001;
837.3000;0.6528;1.6001;
837.6000;0.6520;1.6025;
837.9000;0.6528;1.6001;
838.2000;0.6561;1.6146;
838.5000;0.6520;1.6025;
838.8000;0.6528;1.6001;
839.1000;0.6536;1.6049;
839.4000;0.6512;1.5977;
839.7000;0.6528;1.6001;
840.0000;0.6512;1.5977;
840.3000;0.6528;1.6001;
840.6000;0.6512;1.6001;
840.9000;0.6512;1.5952;
841.2000;0.6512;1.5952;
841.5000;0.6520;1.5880;
841.8000;0.6512;1.5880;
842.1000;0.6496;1.5832;
842.4000;0.6512;1.5856;
842.7000;0.6504;1.5783;
843.0000;0.6520;1.5880;
843.3000;0.6496;1.5856;
843.6000;0.6488;1.5904;
843.9000;0.6512;1.5952;
844.2000;0.6512;1.5880;
844.5000;0.6512;1.5880;
844.8000;0.6504;1.5856;
845.1000;0.6504;1.5880;
845.4000;0.6512;1.5856;
845.7000;0.6512;1.5904;
846.0000;0.6504;1.5952;
846.3000;0.6504;1.6049;
846.6000;0.6471;1.5952;
846.9000;0.6528;1.6122;
847.2000;0.6496;1.6146;
847.5000;0.6504;1.6146;
847.8000;0.6504;1.6194;
848.1000;0.6504;1.6170;
848.4000;0.6504;1.6073;
848.7000;0.6479;1.6025;
849.0000;0.6496;1.6049;
849.3000;0.6496;1.6073;
849.6000;0.6496;1.6049;
849.9000;0.6496;1.6001;
850.2000;0.6496;1.5928;
850.5000;0.6504;1.5928;
850.8000;0.6512;1.5977;
851.1000;0.6496;1.6025;
851.4000;0.6488;1.6001;
851.7000;0.6488;1.6073;
852.0000;0.6496;1.5977;
852.3000;0.6504;1.5928;
852.6000;0.6553;1.6097;
852.9000;0.6488;1.5928;
853.2000;0.6496;1.5928;
853.5000;0.6496;1.5928;
853.8000;0.6479;1.5928;
854.1000;0.6479;1.5952;
854.4000;0.6504;1.6049;
854.7000;0.6496;1.6049;
855.0000;0.6439;1.5856;
855.3000;0.6512;1.6073;
855.6000;0.6512;1.6025;
855.9000;0.6520;1.6001;
856.2000;0.6512;1.5952;
856.5000;0.6512;1.5977;
856.8000;0.6496;1.5904;
857.1000;0.6374;1.5493;
857.4000;0.6479;1.5880;
857.7000;0.6431;1.5807;
858.0000;0.6496;1.6001;
858.3000;0.6488;1.6049;
858.6000;0.6504;1.6001;
858.9000;0.6479;1.5880;
859.2000;0.6553;1.6001;
859.5000;0.6496;1.5807;
859.8000;0.6545;1.5904;
860.1000;0.6585;1.5977;
860.4000;0.6504;1.5807;
860.7000;0.6488;1.5832;
861.0000;0.6479;1.5783;
861.3000;0.6496;1.5759;
861.6000;0.6471;1.5807;
861.9000;0.6471;1.5880;
862.2000;0.6422;1.5759;
862.5000;0.6463;1.5880;
862.8000;0.6471;1.5952;
863.1000;0.6455;1.5904;
863.4000;0.6455;1.5904;
863.7000;0.6471;1.6097;
864.0000;0.6463;1.6146;
864.3000;0.6471;1.6025;
864.6000;0.6471;1.6001;
864.9000;0.6471;1.5928;
865.2000;0.6471;1.5904;
865.5000;0.6479;1.5904;
865.8000;0.6496;1.5928;
866.1000;0.6463;1.5856;
866.4000;0.6422;1.5807;
866.7000;0.6463;1.5880;
867.0000;0.6471;1.6025;
867.3000;0.6463;1.6025;
867.6000;0.6471;1.6025;
867.9000;0.6455;1.6025;
868.2000;0.6463;1.6001;
868.5000;0.6455;1.6025;
868.8000;0.6479;1.6073;
869.1000;0.6463;1.6001;
869.4000;0.6471;1.6122;
869.7000;0.6455;1.6025;
870.0000;0.6471;1.6025;
870.3000;0.6471;1.6001;
870.6000;0.6479;1.6049;
870.9000;0.6471;1.6001;
871.2000;0.6463;1.6025;
871.5000;0.6455;1.6025;
871.8000;0.6447;1.6001;
872.1000;0.6431;1.6049;
872.4000;0.6455;1.6049;
872.7000;0.6422;1.6001;
873.0000;0.6455;1.6170;
873.3000;0.6431;1.6073;
873.6000;0.6471;1.6073;
873.9000;0.6463;1.6073;
874.2000;0.6471;1.6097;
874.5000;0.6463;1.5977;
874.8000;0.6463;1.5977;
875.1000;0.6479;1.5977;
875.4000;0.6488;1.6025;
875.7000;0.6471;1.6001;
876.0000;0.6471;1.6049;
876.3000;0.6447;1.6001;
876.6000;0.6455;1.5928;
876.9000;0.6447;1.5904;
877.2000;0.6439;1.5880;
877.5000;0.6447;1.5952;
877.8000;0.6455;1.6001;
878.1000;0.6439;1.5928;
878.4000;0.6463;1.6001;
878.7000;0.6463;1.6073;
879.0000;0.6406;1.6049;
879.3000;0.6447;1.6146;
879.6000;0.6431;1.6025;
879.9000;0.6414;1.6049;
880.2000;0.6512;1.6315;
880.5000;0.6455;1.6218;
880.8000;0.6455;1.6218;
881.1000;0.6479;1.6194;
881.4000;0.6463;1.6146;
881.7000;0.6439;1.6073;
882.0000;0.6455;1.6049;
882.3000;0.6471;1.6122;
882.6000;0.6455;1.6001;
882.9000;0.6455;1.5977;
883.2000;0.6414;1.5952;
883.5000;0.6504;1.6267;
883.8000;0.6447;1.6049;
884.1000;0.6520;1.6242;
884.4000;0.6463;1.6097;
884.7000;0.6431;1.5977;
885.0000;0.6463;1.6049;
885.3000;0.6439;1.6001;
885.6000;0.6455;1.6025;
885.9000;0.6455;1.5952;
886.2000;0.6447;1.5904;
886.5000;0.6463;1.6073;
886.8000;0.6447;1.6001;
887.1000;0.6439;1.5952;
887.4000;0.6455;1.6001;
887.7000;0.6447;1.5977;
888.0000;0.6414;1.5928;
888.3000;0.6431;1.5928;
888.6000;0.6463;1.6025;
888.9000;0.6455;1.6025;
889.2000;0.6463;1.5977;
889.5000;0.6439;1.5928;
889.8000;0.6455;1.5928;
890.1000;0.6447;1.5928;
890.4000;0.6463;1.6073;
890.7000;0.6447;1.6049;
891.0000;0.6447;1.6073;
891.3000;0.6463;1.6122;
891.6000;0.6471;1.6097;
891.9000;0.6463;1.6170;
892.2000;0.6463;1.6194;
892.5000;0.6447;1.6097;
892.8000;0.6431;1.6049;
893.1000;0.6439;1.6025;
893.4000;0.6431;1.6073;
893.7000;0.6439;1.6146;
894.0000;0.6463;1.6267;
894.3000;0.6422;1.6097;
894.6000;0.6439;1.6049;
894.9000;0.6431;1.5928;
895.2000;0.6431;1.6001;
895.5000;0.6431;1.5977;
895.8000;0.6414;1.5977;
896.1000;0.6431;1.5977;
896.4000;0.6471;1.6001;
896.7000;0.6414;1.5952;
897.0000;0.6422;1.5952;
897.3000;0.6422;1.5856;
897.6000;0.6439;1.5977;
897.9000;0.6496;1.6170;
898.2000;0.6439;1.6073;
898.5000;0.6439;1.6097;
898.8000;0.6414;1.6025;
899.1000;0.6414;1.6073;
899.4000;0.6406;1.6122;
899.7000;0.6422;1.6097;
900.0000;0.6422;1.5977;
900.3000;0.6406;1.6001;
900.6000;0.6439;1.6025;
900.9000;0.6431;1.5952;
901.2000;0.6422;1.5977;
901.5000;0.6422;1.6001;
901.8000;0.6431;1.5928;
902.1000;0.6431;1.6001;
902.4000;0.6422;1.6025;
902.7000;0.6431;1.6097;
903.0000;0.6406;1.6001;
903.3000;0.6431;1.6073;
903.6000;0.6431;1.6122;
903.9000;0.6406;1.6073;
904.2000;0.6422;1.6097;
904.5000;0.6422;1.6049;
904.8000;0.6414;1.6049;
905.1000;0.6431;1.6073;
905.4000;0.6439;1.6097;
905.7000;0.6447;1.6170;
906.0000;0.6422;1.6097;
906.3000;0.6431;1.6097;
906.6000;0.6422;1.6073;
906.9000;0.6439;1.6170;
907.2000;0.6439;1.6218;
907.5000;0.6431;1.6291;
907.8000;0.6414;1.6339;
908.1000;0.6398;1.6194;
908.4000;0.6414;1.6194;
908.7000;0.6406;1.6194;
909.0000;0.6422;1.6267;
909.3000;0.6422;1.6291;
909.6000;0.6422;1.6315;
909.9000;0.6406;1.6291;
910.2000;0.6406;1.6267;
910.5000;0.6439;1.6315;
910.8000;0.6406;1.6170;
911.1000;0.6422;1.6267;
911.4000;0.6447;1.6267;
911.7000;0.6422;1.6218;
912.0000;0.6439;1.6267;
912.3000;0.6414;1.6267;
912.6000;0.6414;1.6267;
912.9000;0.6422;1.6315;
913.2000;0.6422;1.6339;
913.5000;0.6414;1.6267;
913.8000;0.6406;1.6242;
914.1000;0.6398;1.6170;
914.4000;0.6406;1.6170;
914.7000;0.6422;1.6194;
915.0000;0.6431;1.6194;
915.3000;0.6414;1.6194;
915.6000;0.6439;1.6218;
915.9000;0.6414;1.6097;
916.2000;0.6398;1.6073;
916.5000;0.6422;1.6170;
916.8000;0.6422;1.6146;
917.1000;0.6406;1.6122;
917.4000;0.6406;1.6025;
917.7000;0.6414;1.6025;
918.0000;0.6414;1.6025;
918.3000;0.6422;1.6073;
918.6000;0.6414;1.5952;
918.9000;0.6447;1.6049;
919.2000;0.6414;1.5952;
919.5000;0.6406;1.5952;
919.8000;0.6406;1.5904;
920.1000;0.6398;1.5904;
920.4000;0.6431;1.5977;
920.7000;0.6439;1.5952;
921.0000;0.6422;1.5832;
921.3000;0.6357;1.5735;
921.6000;0.6365;1.5662;
921.9000;0.6414;1.5807;
922.2000;0.6414;1.5856;
922.5000;0.6414;1.5904;
922.8000;0.6406;1.5928;
923.1000;0.6365;1.5880;
923.4000;0.6422;1.5977;
923.7000;0.6414;1.5928;
924.0000;0.6398;1.5952;
924.3000;0.6398;1.5904;
924.6000;0.6414;1.5928;
924.9000;0.6414;1.6001;
925.2000;0.6406;1.6097;
925.5000;0.6406;1.6122;
925.8000;0.6406;1.6146;
926.1000;0.6406;1.6097;
926.4000;0.6398;1.6073;
926.7000;0.6406;1.6097;
927.0000;0.6431;1.6025;
927.3000;0.6422;1.5977;
927.6000;0.6414;1.6025;
927.9000;0.6406;1.6001;
928.2000;0.6406;1.5928;
928.5000;0.6382;1.5880;
928.8000;0.6398;1.5856;
929.1000;0.6374;1.5856;
929.4000;0.6390;1.5928;
929.7000;0.6390;1.5928;
930.0000;0.6390;1.5928;
930.3000;0.6422;1.6025;
930.6000;0.6390;1.6001;
930.9000;0.6398;1.6097;
931.2000;0.6398;1.6122;
931.5000;0.6382;1.6122;
931.8000;0.6398;1.6146;
932.1000;0.6406;1.6194;
932.4000;0.6398;1.6218;
932.7000;0.6414;1.6291;
933.0000;0.6398;1.6315;
933.3000;0.6390;1.6291;
933.6000;0.6431;1.6315;
933.9000;0.6414;1.6146;
934.2000;0.6406;1.6122;
934.5000;0.6406;1.6194;
934.8000;0.6406;1.6242;
935.1000;0.6398;1.6170;
935.4000;0.6422;1.6218;
935.7000;0.6398;1.6122;
936.0000;0.6398;1.6170;
936.3000;0.6406;1.6146;
936.6000;0.6422;1.6194;
936.9000;0.6390;1.6122;
937.2000;0.6414;1.6218;
937.5000;0.6390;1.6267;
937.8000;0.6390;1.6194;
938.1000;0.6390;1.6073;
938.4000;0.6357;1.6049;
938.7000;0.6390;1.6146;
939.0000;0.6382;1.6170;
939.3000;0.6382;1.6194;
939.6000;0.6390;1.6194;
939.9000;0.6390;1.6194;
940.2000;0.6422;1.6122;
940.5000;0.6406;1.6025;
940.8000;0.6390;1.6097;
941.1000;0.6398;1.6291;
941.4000;0.6406;1.6436;
941.7000;0.6374;1.6315;
942.0000;0.6382;1.6291;
942.3000;0.6390;1.6267;
942.6000;0.6398;1.6194;
942.9000;0.6382;1.6122;
943.2000;0.6463;1.6267;
943.5000;0.6390;1.6049;
943.8000;0.6390;1.6049;
944.1000;0.6382;1.5977;
944.4000;0.6357;1.5880;
944.7000;0.6382;1.6001;
945.0000;0.6382;1.6001;
945.3000;0.6374;1.6049;
945.6000;0.6390;1.6122;
945.9000;0.6374;1.6218;
946.2000;0.6439;1.6291;
946.5000;0.6390;1.6218;
946.8000;0.6390;1.6097;
947.1000;0.6390;1.6073;
947.4000;0.6406;1.6049;
947.7000;0.6406;1.6049;
948.0000;0.6398;1.6025;
948.3000;0.6390;1.5977;
948.6000;0.6390;1.5904;
948.9000;0.6390;1.5904;
949.2000;0.6382;1.5928;
949.5000;0.6382;1.5928;
949.8000;0.6374;1.6001;
950.1000;0.6390;1.6025;
950.4000;0.6390;1.6049;
950.7000;0.6382;1.6146;
951.0000;0.6390;1.6242;
951.3000;0.6398;1.6218;
951.6000;0.6398;1.6194;
951.9000;0.6374;1.6170;
952.2000;0.6382;1.6218;
952.5000;0.6317;1.6073;
952.8000;0.6382;1.6291;
953.1000;0.6374;1.6291;
953.4000;0.6357;1.6170;
953.7000;0.6325;1.6122;
954.0000;0.6374;1.6315;
954.3000;0.6382;1.6315;
954.6000;0.6374;1.6242;
954.9000;0.6382;1.6267;
955.2000;0.6398;1.6242;
955.5000;0.6382;1.6267;
955.8000;0.6382;1.6194;
956.1000;0.6382;1.6122;
956.4000;0.6374;1.6097;
956.7000;0.6398;1.6170;
957.0000;0.6374;1.6097;
957.3000;0.6382;1.6122;
957.6000;0.6390;1.6146;
957.9000;0.6382;1.6122;
958.2000;0.6382;1.6170;
958.5000;0.6382;1.6073;
958.8000;0.6374;1.5977;
959.1000;0.6382;1.5928;
959.4000;0.6374;1.5928;
959.7000;0.6374;1.5928;
960.0000;0.6382;1.6001;
960.3000;0.6382;1.6073;
960.6000;0.6365;1.5977;
960.9000;0.6374;1.5928;
961.2000;0.6382;1.5952;
961.5000;0.6365;1.5977;
961.8000;0.6365;1.6001;
962.1000;0.6398;1.6194;
962.4000;0.6374;1.6194;
962.7000;0.6398;1.6291;
963.0000;0.6390;1.6242;
963.3000;0.6398;1.6194;
963.6000;0.6357;1.6073;
963.9000;0.6382;1.6146;
964.2000;0.6390;1.6146;
964.5000;0.6365;1.6097;
964.8000;0.6357;1.6097;
965.1000;0.6365;1.6097;
965.4000;0.6357;1.6073;
965.7000;0.6357;1.6049;
966.0000;0.6357;1.6025;
966.3000;0.6357;1.6001;
966.6000;0.6349;1.5952;
966.9000;0.6398;1.6073;
967.2000;0.6357;1.6073;
967.5000;0.6357;1.6049;
967.8000;0.6382;1.6049;
968.1000;0.6390;1.6073;
968.4000;0.6374;1.6073;
968.7000;0.6357;1.6025;
969.0000;0.6382;1.6073;
969.3000;0.6382;1.6049;
969.6000;0.6374;1.6194;
969.9000;0.6374;1.6146;
970.2000;0.6349;1.6122;
970.5000;0.6357;1.6242;
970.8000;0.6365;1.6267;
971.1000;0.6341;1.6170;
971.4000;0.6374;1.6170;
971.7000;0.6365;1.6146;
972.0000;0.6398;1.6218;
972.3000;0.6365;1.6122;
972.6000;0.6374;1.6170;
972.9000;0.6365;1.6097;
973.2000;0.6357;1.6001;
973.5000;0.6382;1.6049;
973.8000;0.6349;1.5977;
974.1000;0.6349;1.5952;
974.4000;0.6365;1.6049;
974.7000;0.6357;1.6001;
975.0000;0.6365;1.6073;
975.3000;0.6390;1.6146;
975.6000;0.6357;1.6025;
975.9000;0.6374;1.6073;
976.2000;0.6357;1.6001;
976.5000;0.6341;1.5977;
976.8000;0.6365;1.6025;
977.1000;0.6398;1.6291;
977.4000;0.6374;1.6291;
977.7000;0.6357;1.6242;
978.0000;0.6365;1.6146;
978.3000;0.6390;1.6194;
978.6000;0.6374;1.6097;
978.9000;0.6365;1.5977;
979.2000;0.6374;1.6001;
979.5000;0.6382;1.6025;
979.8000;0.6374;1.6025;
980.1000;0.6325;1.5952;
980.4000;0.6365;1.6122;
980.7000;0.6365;1.6049;
981.0000;0.6357;1.6097;
981.3000;0.6357;1.6122;
981.6000;0.6374;1.6267;
981.9000;0.6357;1.6194;
982.2000;0.6357;1.6194;
982.5000;0.6357;1.6291;
982.8000;0.6357;1.6315;
983.1000;0.6349;1.6315;
983.4000;0.6349;1.6218;
983.7000;0.6349;1.6218;
984.0000;0.6374;1.6291;
984.3000;0.6365;1.6339;
984.6000;0.6349;1.6291;
984.9000;0.6365;1.6291;
985.2000;0.6374;1.6267;
985.5000;0.6357;1.6242;
985.8000;0.6357;1.6242;
986.1000;0.6365;1.6194;
986.4000;0.6333;1.6146;
986.7000;0.6357;1.6291;
987.0000;0.6349;1.6242;
987.3000;0.6349;1.6146;
987.6000;0.6341;1.6097;
987.9000;0.6349;1.6049;
988.2000;0.6357;1.6097;
988.5000;0.6382;1.6146;
988.8000;0.6357;1.6122;
989.1000;0.6349;1.6073;
989.4000;0.6349;1.6146;
989.7000;0.6325;1.6073;
990.0000;0.6341;1.6097;
990.3000;0.6357;1.6242;
990.6000;0.6325;1.6025;
990.9000;0.6341;1.6049;
991.2000;0.6406;1.6267;
991.5000;0.6341;1.6170;
991.8000;0.6341;1.6170;
992.1000;0.6431;1.6363;
992.4000;0.6300;1.6097;
992.7000;0.6357;1.6194;
993.0000;0.6365;1.6194;
993.3000;0.6357;1.6218;
993.6000;0.6349;1.6242;
993.9000;0.6406;1.6339;
994.2000;0.6357;1.6242;
994.5000;0.6349;1.6242;
994.8000;0.6349;1.6242;
995.1000;0.6382;1.6315;
995.4000;0.6325;1.6146;
995.7000;0.6357;1.6170;
996.0000;0.6317;1.6097;
996.3000;0.6341;1.6170;
996.6000;0.6357;1.6194;
996.9000;0.6341;1.6097;
997.2000;0.6406;1.6267;
997.5000;0.6357;1.6049;
997.8000;0.6365;1.6001;
998.1000;0.6349;1.6049;
998.4000;0.6349;1.6097;
998.7000;0.6357;1.6194;
999.0000;0.6357;1.6170;
999.3000;0.6349;1.6218;
999.6000;0.6341;1.6146;
999.9000;0.6357;1.6170;
1000.2000;0.6357;1.6218;
1000.5000;0.6333;1.6073;
1000.8000;0.6333;1.6097;
1001.1000;0.6325;1.6049;
1001.4000;0.6333;1.6073;
1001.7000;0.6341;1.6097;
1002.0000;0.6341;1.6097;
1002.3000;0.6341;1.6049;
1002.6000;0.6349;1.6097;
1002.9000;0.6349;1.6218;
1003.2000;0.6325;1.6073;
1003.5000;0.6357;1.6146;
1003.8000;0.6349;1.6097;
1004.1000;0.6349;1.6073;
1004.4000;0.6357;1.6170;
1004.7000;0.6309;1.6170;
1005.0000;0.6341;1.6315;
1005.3000;0.6341;1.6339;
1005.6000;0.6357;1.6387;
1005.9000;0.6333;1.6267;
1006.2000;0.6349;1.6267;
1006.5000;0.6333;1.6267;
1006.8000;0.6325;1.6218;
1007.1000;0.6349;1.6291;
1007.4000;0.6341;1.6315;
1007.7000;0.6341;1.6315;
1008.0000;0.6341;1.6315;
1008.3000;0.6349;1.6363;
1008.6000;0.6349;1.6339;
1008.9000;0.6349;1.6387;
1009.2000;0.6341;1.6387;
1009.5000;0.6317;1.6267;
1009.8000;0.6341;1.6194;
1010.1000;0.6341;1.6242;
1010.4000;0.6349;1.6122;
1010.7000;0.6325;1.5977;
1011.0000;0.6333;1.6073;
1011.3000;0.6357;1.6194;
1011.6000;0.6309;1.6122;
1011.9000;0.6333;1.6097;
1012.2000;0.6317;1.6122;
1012.5000;0.6300;1.6097;
1012.8000;0.6341;1.6242;
1013.1000;0.6325;1.6218;
1013.4000;0.6357;1.6315;
1013.7000;0.6349;1.6339;
1014.0000;0.6349;1.6339;
1014.3000;0.6333;1.6315;
1014.6000;0.6333;1.6242;
1014.9000;0.6333;1.6194;
1015.2000;0.6349;1.6194;
1015.5000;0.6341;1.6242;
1015.8000;0.6333;1.6194;
1016.1000;0.6341;1.6194;
1016.4000;0.6333;1.6194;
1016.7000;0.6325;1.6194;
1017.0000;0.6333;1.6170;
1017.3000;0.6325;1.6218;
1017.6000;0.6317;1.6218;
1017.9000;0.6341;1.6218;
1018.2000;0.6341;1.6194;
1018.5000;0.6349;1.6073;
1018.8000;0.6268;1.6001;
1019.1000;0.6357;1.6315;
1019.4000;0.6333;1.6412;
1019.7000;0.6349;1.6436;
1020.0000;0.6317;1.6412;
1020.3000;0.6341;1.6363;
1020.6000;0.6341;1.6339;
1020.9000;0.6325;1.6242;
1021.2000;0.6382;1.6363;
1021.5000;0.6341;1.6267;
1021.8000;0.6333;1.6267;
1022.1000;0.6309;1.6267;
1022.4000;0.6292;1.6194;
1022.7000;0.6341;1.6242;
1023.0000;0.6325;1.6170;
1023.3000;0.6325;1.6170;
1023.6000;0.6325;1.6194;
1023.9000;0.6341;1.6242;
1024.2000;0.6333;1.6218;
1024.5000;0.6333;1.6146;
1024.8000;0.6300;1.6097;
1025.1000;0.6325;1.6170;
1025.4000;0.6325;1.6097;
1025.7000;0.6325;1.6025;
1026.0000;0.6325;1.5928;
1026.3000;0.6333;1.5904;
1026.6000;0.6333;1.5977;
1026.9000;0.6341;1.6025;
1027.2000;0.6333;1.6097;
1027.5000;0.6333;1.6073;
1027.8000;0.6325;1.5977;
1028.1000;0.6325;1.5977;
1028.4000;0.6357;1.6049;
1028.7000;0.6341;1.5952;
1029.0000;0.6333;1.5977;
1029.3000;0.6333;1.6049;
1029.6000;0.6219;1.5856;
1029.9000;0.6325;1.6170;
1030.2000;0.6333;1.6194;
1030.5000;0.6325;1.6025;
1030.8000;0.6325;1.5977;
1031.1000;0.6341;1.6073;
1031.4000;0.6333;1.6170;
1031.7000;0.6268;1.6097;
1032.0000;0.6333;1.6267;
1032.3000;0.6349;1.6291;
1032.6000;0.6325;1.6242;
1032.9000;0.6309;1.6194;
1033.2000;0.6333;1.6267;
1033.5000;0.6333;1.6387;
1033.8000;0.6325;1.6218;
1034.1000;0.6317;1.6073;
1034.4000;0.6333;1.6025;
1034.7000;0.6317;1.5977;
1035.0000;0.6325;1.5977;
1035.3000;0.6284;1.5856;
1035.6000;0.6333;1.5952;
1035.9000;0.6333;1.5952;
1036.2000;0.6309;1.6049;
1036.5000;0.6317;1.6146;
1036.8000;0.6325;1.6194;
1037.1000;0.6325;1.6194;
1037.4000;0.6325;1.6170;
1037.7000;0.6333;1.6170;
1038.0000;0.6325;1.6194;
1038.3000;0.6333;1.6146;
1038.6000;0.6333;1.6194;
1038.9000;0.6325;1.6122;
1039.2000;0.6325;1.6122;
1039.5000;0.6390;1.6218;
1039.8000;0.6325;1.6049;
1040.1000;0.6333;1.6049;
1040.4000;0.6309;1.6001;
1040.7000;0.6333;1.6001;
1041.0000;0.6325;1.6025;
1041.3000;0.6325;1.6073;
1041.6000;0.6292;1.6049;
1041.9000;0.6309;1.6073;
1042.2000;0.6252;1.5904;
1042.5000;0.6325;1.6194;
1042.8000;0.6317;1.6122;
1043.1000;0.6325;1.6218;
1043.4000;0.6349;1.6291;
1043.7000;0.6317;1.6194;
1044.0000;0.6317;1.6097;
1044.3000;0.6325;1.6170;
1044.6000;0.6325;1.6242;
1044.9000;0.6309;1.6242;
1045.2000;0.6309;1.6194;
1045.5000;0.6292;1.6242;
1045.8000;0.6317;1.6242;
1046.1000;0.6325;1.6170;
1046.4000;0.6333;1.6146;
1046.7000;0.6317;1.6122;
1047.0000;0.6325;1.6146;
1047.3000;0.6300;1.6073;
1047.6000;0.6333;1.6049;
1047.9000;0.6325;1.6049;
1048.2000;0.6300;1.6097;
1048.5000;0.6333;1.6218;
1048.8000;0.6325;1.6218;
1049.1000;0.6317;1.6170;
1049.4000;0.6325;1.6170;
1049.7000;0.6317;1.6097;
1050.0000;0.6317;1.6073;
1050.3000;0.6317;1.5977;
1050.6000;0.6300;1.5977;
1050.9000;0.6309;1.6001;
1051.2000;0.6300;1.6073;
1051.5000;0.6292;1.6073;
1051.8000;0.6317;1.6194;
1052.1000;0.6317;1.6242;
1052.4000;0.6325;1.6291;
1052.7000;0.6325;1.6267;
1053.0000;0.6309;1.6242;
1053.3000;0.6325;1.6412;
1053.6000;0.6309;1.6363;
1053.9000;0.6309;1.6291;
1054.2000;0.6300;1.6315;
1054.5000;0.6325;1.6315;
1054.8000;0.6317;1.6363;
1055.1000;0.6309;1.6267;
1055.4000;0.6341;1.6291;
1055.7000;0.6317;1.6194;
1056.0000;0.6333;1.6170;
1056.3000;0.6317;1.6170;
1056.6000;0.6325;1.6194;
1056.9000;0.6309;1.6218;
1057.2000;0.6349;1.6339;
1057.5000;0.6317;1.6315;
1057.8000;0.6309;1.6315;
1058.1000;0.6349;1.6363;
1058.4000;0.6300;1.6218;
1058.7000;0.6365;1.6315;
1059.0000;0.6309;1.6291;
1059.3000;0.6309;1.6315;
1059.6000;0.6300;1.6291;
1059.9000;0.6300;1.6339;
1060.2000;0.6300;1.6267;
1060.5000;0.6292;1.6291;
1060.8000;0.6292;1.6363;
1061.1000;0.6325;1.6484;
1061.4000;0.6300;1.6363;
1061.7000;0.6300;1.6339;
1062.0000;0.6333;1.6387;
1062.3000;0.6309;1.6339;
1062.6000;0.6317;1.6291;
1062.9000;0.6317;1.6315;
1063.2000;0.6317;1.6363;
1063.5000;0.6333;1.6363;
1063.8000;0.6309;1.6315;
1064.1000;0.6292;1.6267;
1064.4000;0.6284;1.6218;
1064.7000;0.6292;1.6315;
1065.0000;0.6309;1.6315;
1065.3000;0.6317;1.6339;
1065.6000;0.6317;1.6363;
1065.9000;0.6317;1.6412;
1066.2000;0.6333;1.6484;
1066.5000;0.6317;1.6412;
1066.8000;0.6300;1.6412;
1067.1000;0.6317;1.6387;
1067.4000;0.6268;1.6339;
1067.7000;0.6309;1.6508;
1068.0000;0.6325;1.6508;
1068.3000;0.6317;1.6508;
1068.6000;0.6292;1.6436;
1068.9000;0.6317;1.6436;
1069.2000;0.6317;1.6436;
1069.5000;0.6284;1.6412;
1069.8000;0.6284;1.6460;
1070.1000;0.6317;1.6557;
1070.4000;0.6333;1.6605;
1070.7000;0.6309;1.6557;
1071.0000;0.6317;1.6581;
1071.3000;0.6325;1.6581;
1071.6000;0.6300;1.6532;
1071.9000;0.6292;1.6508;
1072.2000;0.6317;1.6532;
1072.5000;0.6292;1.6532;
1072.8000;0.6309;1.6605;
1073.1000;0.6292;1.6581;
1073.4000;0.6309;1.6532;
1073.7000;0.6325;1.6484;
1074.0000;0.6300;1.6508;
1074.3000;0.6300;1.6460;
1074.6000;0.6300;1.6532;
1074.9000;0.6300;1.6436;
1075.2000;0.6309;1.6508;
1075.5000;0.6341;1.6508;
1075.8000;0.6317;1.6484;
1076.1000;0.6300;1.6508;
1076.4000;0.6317;1.6460;
1076.7000;0.6309;1.6412;
1077.0000;0.6317;1.6315;
1077.3000;0.6292;1.6339;
1077.6000;0.6276;1.6339;
1077.9000;0.6300;1.6460;
1078.2000;0.6309;1.6508;
1078.5000;0.6300;1.6387;
1078.8000;0.6292;1.6339;
1079.1000;0.6309;1.6291;
1079.4000;0.6317;1.6242;
1079.7000;0.6300;1.6218;
1080.0000;0.6300;1.6194;
1080.3000;0.6325;1.6291;
1080.6000;0.6317;1.6291;
1080.9000;0.6317;1.6291;
1081.2000;0.6292;1.6267;
1081.5000;0.6325;1.6291;
1081.8000;0.6325;1.6291;
1082.1000;0.6317;1.6291;
1082.4000;0.6292;1.6194;
1082.7000;0.6284;1.6146;
1083.0000;0.6300;1.6291;
1083.3000;0.6333;1.6412;
1083.6000;0.6276;1.6363;
1083.9000;0.6284;1.6436;
1084.2000;0.6309;1.6460;
1084.5000;0.6325;1.6460;
1084.8000;0.6268;1.6267;
1085.1000;0.6292;1.6267;
1085.4000;0.6309;1.6291;
1085.7000;0.6300;1.6242;
1086.0000;0.6300;1.6291;
1086.3000;0.6309;1.6339;
1086.6000;0.6333;1.6412;
1086.9000;0.6325;1.6387;
1087.2000;0.6292;1.6291;
1087.5000;0.6284;1.6315;
1087.8000;0.6309;1.6315;
1088.1000;0.6357;1.6436;
1088.4000;0.6276;1.6218;
1088.7000;0.6284;1.6218;
1089.0000;0.6292;1.6267;
1089.3000;0.6284;1.6315;
1089.6000;0.6292;1.6363;
1089.9000;0.6292;1.6339;
1090.2000;0.6284;1.6315;
1090.5000;0.6349;1.6484;
1090.8000;0.6276;1.6412;
1091.1000;0.6357;1.6605;
1091.4000;0.6292;1.6484;
1091.7000;0.6292;1.6508;
1092.0000;0.6325;1.6532;
1092.3000;0.6268;1.6339;
1092.6000;0.6292;1.6412;
1092.9000;0.6276;1.6460;
1093.2000;0.6292;1.6412;
1093.5000;0.6284;1.6436;
1093.8000;0.6284;1.6460;
1094.1000;0.6276;1.6460;
1094.4000;0.6300;1.6508;
1094.7000;0.6260;1.6412;
1095.0000;0.6284;1.6387;
1095.3000;0.6300;1.6436;
1095.6000;0.6292;1.6436;
1095.9000;0.6292;1.6460;
1096.2000;0.6276;1.6436;
1096.5000;0.6292;1.6315;
1096.8000;0.6317;1.6339;
1097.1000;0.6309;1.6436;
1097.4000;0.6309;1.6387;
1097.7000;0.6268;1.6267;
1098.0000;0.6309;1.6242;
1098.3000;0.6300;1.6387;
1098.6000;0.6268;1.6387;
1098.9000;0.6268;1.6412;
1099.2000;0.6300;1.6508;
1099.5000;0.6276;1.6412;
1099.8000;0.6292;1.6484;
1100.1000;0.6268;1.6436;
1100.4000;0.6276;1.6460;
1100.7000;0.6284;1.6508;
1101.0000;0.6317;1.6532;
1101.3000;0.6325;1.6436;
1101.6000;0.6300;1.6436;
1101.9000;0.6309;1.6412;
1102.2000;0.6309;1.6412;
1102.5000;0.6284;1.6387;
1102.8000;0.6292;1.6412;
1103.1000;0.6284;1.6387;
1103.4000;0.6284;1.6363;
1103.7000;0.6284;1.6387;
1104.0000;0.6284;1.6315;
1104.3000;0.6292;1.6339;
1104.6000;0.6268;1.6291;
1104.9000;0.6292;1.6363;
1105.2000;0.6252;1.6242;
1105.5000;0.6260;1.6194;
1105.8000;0.6276;1.6412;
1106.1000;0.6292;1.6412;
1106.4000;0.6309;1.6460;
1106.7000;0.6341;1.6508;
1107.0000;0.6292;1.6363;
1107.3000;0.6309;1.6412;
1107.6000;0.6325;1.6460;
1107.9000;0.6300;1.6460;
1108.2000;0.6333;1.6460;
1108.5000;0.6227;1.6291;
1108.8000;0.6292;1.6436;
1109.1000;0.6317;1.6557;
1109.4000;0.6309;1.6484;
1109.7000;0.6276;1.6508;
1110.0000;0.6284;1.6484;
1110.3000;0.6300;1.6557;
1110.6000;0.6243;1.6436;
1110.9000;0.6276;1.6605;
1111.2000;0.6300;1.6678;
1111.5000;0.6284;1.6605;
1111.8000;0.6284;1.6532;
1112.1000;0.6292;1.6557;
1112.4000;0.6268;1.6508;
1112.7000;0.6268;1.6484;
1113.0000;0.6252;1.6484;
1113.3000;0.6284;1.6581;
1113.6000;0.6276;1.6605;
1113.9000;0.6276;1.6532;
1114.2000;0.6276;1.6436;
1114.5000;0.6252;1.6315;
1114.8000;0.6284;1.6412;
1115.1000;0.6260;1.6315;
1115.4000;0.6268;1.6436;
1115.7000;0.6252;1.6363;
1116.0000;0.6276;1.6460;
1116.3000;0.6284;1.6484;
1116.6000;0.6268;1.6508;
1116.9000;0.6284;1.6460;
1117.2000;0.6268;1.6436;
1117.5000;0.6284;1.6484;
1117.8000;0.6268;1.6557;
1118.1000;0.6276;1.6581;
1118.4000;0.6325;1.6629;
1118.7000;0.6309;1.6605;
1119.0000;0.6292;1.6653;
1119.3000;0.6292;1.6605;
1119.6000;0.6309;1.6653;
1119.9000;0.6292;1.6532;
1120.2000;0.6284;1.6436;
1120.5000;0.6341;1.6605;
1120.8000;0.6268;1.6363;
1121.1000;0.6276;1.6508;
1121.4000;0.6300;1.6508;
1121.7000;0.6300;1.6436;
1122.0000;0.6284;1.6436;
1122.3000;0.6276;1.6339;
1122.6000;0.6292;1.6460;
1122.9000;0.6276;1.6387;
1123.2000;0.6268;1.6412;
1123.5000;0.6235;1.6363;
1123.8000;0.6309;1.6460;
1124.1000;0.6276;1.6460;
1124.4000;0.6276;1.6412;
1124.7000;0.6203;1.6170;
1125.0000;0.6276;1.6339;
1125.3000;0.6284;1.6339;
1125.6000;0.6276;1.6242;
1125.9000;0.6276;1.6291;
1126.2000;0.6260;1.6267;
1126.5000;0.6252;1.6242;
1126.8000;0.6276;1.6267;
1127.1000;0.6252;1.6242;
1127.4000;0.6252;1.6339;
1127.7000;0.6292;1.6363;
1128.0000;0.6292;1.6315;
1128.3000;0.6211;1.6170;
1128.6000;0.6284;1.6363;
1128.9000;0.6276;1.6460;
1129.2000;0.6154;1.6097;
1129.5000;0.6268;1.6436;
1129.8000;0.6268;1.6412;
1130.1000;0.6292;1.6484;
1130.4000;0.6276;1.6363;
1130.7000;0.6260;1.6363;
1131.0000;0.6268;1.6363;
1131.3000;0.6276;1.6315;
1131.6000;0.6268;1.6315;
1131.9000;0.6276;1.6436;
1132.2000;0.6268;1.6484;
1132.5000;0.6276;1.6508;
1132.8000;0.6284;1.6629;
1133.1000;0.6284;1.6678;
1133.4000;0.6317;1.6702;
1133.7000;0.6276;1.6605;
1134.0000;0.6276;1.6532;
1134.3000;0.6268;1.6508;
1134.6000;0.6268;1.6532;
1134.9000;0.6268;1.6532;
1135.2000;0.6268;1.6460;
1135.5000;0.6292;1.6460;
1135.8000;0.6284;1.6460;
1136.1000;0.6276;1.6412;
1136.4000;0.6276;1.6460;
1136.7000;0.6276;1.6436;
1137.0000;0.6260;1.6436;
1137.3000;0.6300;1.6629;
1137.6000;0.6268;1.6557;
1137.9000;0.6284;1.6460;
1138.2000;0.6284;1.6532;
1138.5000;0.6276;1.6508;
1138.8000;0.6276;1.6412;
1139.1000;0.6276;1.6460;
1139.4000;0.6260;1.6436;
1139.7000;0.6268;1.6436;
1140.0000;0.6260;1.6412;
1140.3000;0.6268;1.6339;
1140.6000;0.6284;1.6315;
1140.9000;0.6284;1.6267;
1141.2000;0.6276;1.6218;
1141.5000;0.6203;1.6122;
1141.8000;0.6284;1.6315;
1142.1000;0.6276;1.6315;
1142.4000;0.6219;1.6122;
1142.7000;0.6260;1.6218;
1143.0000;0.6284;1.6363;
1143.3000;0.6276;1.6242;
1143.6000;0.6317;1.6291;
1143.9000;0.6292;1.6291;
1144.2000;0.6260;1.6218;
1144.5000;0.6268;1.6218;
1144.8000;0.6260;1.6242;
1145.1000;0.6268;1.6363;
1145.4000;0.6260;1.6363;
1145.7000;0.6284;1.6412;
1146.0000;0.6276;1.6412;
1146.3000;0.6284;1.6436;
1146.6000;0.6268;1.6363;
1146.9000;0.6292;1.6460;
1147.2000;0.6284;1.6460;
1147.5000;0.6260;1.6436;
1147.8000;0.6260;1.6339;
1148.1000;0.6309;1.6484;
1148.4000;0.6276;1.6387;
1148.7000;0.6292;1.6339;
1149.0000;0.6284;1.6315;
1149.3000;0.6211;1.6170;
1149.6000;0.6268;1.6170;
1149.9000;0.6268;1.6194;
1150.2000;0.6292;1.6315;
1150.5000;0.6268;1.6291;
1150.8000;0.6252;1.6267;
1151.1000;0.6276;1.6291;
1151.4000;0.6268;1.6315;
1151.7000;0.6284;1.6339;
1152.0000;0.6284;1.6267;
1152.3000;0.6276;1.6122;
1152.6000;0.6276;1.6097;
1152.9000;0.6268;1.6049;
1153.2000;0.6292;1.6146;
1153.5000;0.6260;1.6170;
1153.8000;0.6284;1.6267;
1154.1000;0.6268;1.6218;
1154.4000;0.6292;1.6242;
1154.7000;0.6276;1.6242;
1155.0000;0.6243;1.6001;
1155.3000;0.6276;1.6049;
1155.6000;0.6243;1.6049;
1155.9000;0.6268;1.6122;
1156.2000;0.6260;1.6073;
1156.5000;0.6276;1.6049;
1156.8000;0.6268;1.6146;
1157.1000;0.6276;1.6170;
1157.4000;0.6260;1.6218;
1157.7000;0.6211;1.6073;
1158.0000;0.6211;1.6122;
1158.3000;0.6317;1.6460;
1158.6000;0.6284;1.6436;
1158.9000;0.6276;1.6363;
1159.2000;0.6252;1.6315;
1159.5000;0.6260;1.6315;
1159.8000;0.6268;1.6363;
1160.1000;0.6260;1.6412;
1160.4000;0.6268;1.6484;
1160.7000;0.6292;1.6508;
1161.0000;0.6276;1.6460;
1161.3000;0.6268;1.6532;
1161.6000;0.6276;1.6557;
1161.9000;0.6252;1.6484;
1162.2000;0.6268;1.6484;
1162.5000;0.6284;1.6532;
1162.8000;0.6268;1.6508;
1163.1000;0.6260;1.6532;
1163.4000;0.6276;1.6484;
1163.7000;0.6260;1.6339;
1164.0000;0.6268;1.6339;
1164.3000;0.6300;1.6484;
1164.6000;0.6276;1.6484;
1164.9000;0.6276;1.6532;
1165.2000;0.6276;1.6412;
1165.5000;0.6268;1.6508;
1165.8000;0.6260;1.6629;
1166.1000;0.6268;1.6605;
1166.4000;0.6276;1.6629;
1166.7000;0.6268;1.6605;
1167.0000;0.6268;1.6532;
1167.3000;0.6268;1.6605;
1167.6000;0.6235;1.6557;
1167.9000;0.6227;1.6508;
1168.2000;0.6268;1.6532;
1168.5000;0.6260;1.6508;
1168.8000;0.6284;1.6653;
1169.1000;0.6260;1.6532;
1169.4000;0.6268;1.6581;
1169.7000;0.6268;1.6557;
1170.0000;0.6260;1.6605;
1170.3000;0.6252;1.6678;
1170.6000;0.6252;1.6653;
1170.9000;0.6252;1.6678;
1171.2000;0.6268;1.6774;
1171.5000;0.6243;1.6653;
1171.8000;0.6203;1.6460;
1172.1000;0.6252;1.6605;
1172.4000;0.6260;1.6702;
1172.7000;0.6260;1.6702;
1173.0000;0.6284;1.6726;
1173.3000;0.6252;1.6678;
1173.6000;0.6268;1.6702;
1173.9000;0.6260;1.6581;
1174.2000;0.6211;1.6508;
1174.5000;0.6300;1.6702;
1174.8000;0.6252;1.6629;
1175.1000;0.6260;1.6605;
1175.4000;0.6260;1.6557;
1175.7000;0.6243;1.6412;
1176.0000;0.6260;1.6460;
1176.3000;0.6260;1.6532;
1176.6000;0.6243;1.6532;
1176.9000;0.6243;1.6557;
1177.2000;0.6211;1.6484;
1177.5000;0.6268;1.6605;
1177.8000;0.6252;1.6508;
1178.1000;0.6235;1.6412;
1178.4000;0.6243;1.6460;
1178.7000;0.6252;1.6532;
1179.0000;0.6252;1.6508;
1179.3000;0.6260;1.6460;
1179.6000;0.6260;1.6484;
1179.9000;0.6243;1.6484;
1180.2000;0.6300;1.6605;
1180.5000;0.6268;1.6653;
1180.8000;0.6284;1.6532;
1181.1000;0.6300;1.6678;
1181.4000;0.6268;1.6653;
1181.7000;0.6260;1.6581;
1182.0000;0.6203;1.6484;
1182.3000;0.6243;1.6508;
1182.6000;0.6284;1.6532;
1182.9000;0.6276;1.6484;
1183.2000;0.6284;1.6557;
1183.5000;0.6268;1.6532;
1183.8000;0.6252;1.6532;
1184.1000;0.6203;1.6412;
1184.4000;0.6268;1.6532;
1184.7000;0.6276;1.6508;
1185.0000;0.6284;1.6508;
1185.3000;0.6260;1.6484;
1185.6000;0.6260;1.6436;
1185.9000;0.6252;1.6436;
1186.2000;0.6260;1.6581;
1186.5000;0.6243;1.6557;
1186.8000;0.6276;1.6557;
1187.1000;0.6252;1.6557;
1187.4000;0.6260;1.6653;
1187.7000;0.6260;1.6702;
1188.0000;0.6268;1.6774;
1188.3000;0.6252;1.6678;
1188.6000;0.6260;1.6653;
1188.9000;0.6276;1.6726;
1189.2000;0.6235;1.6653;
1189.5000;0.6317;1.6750;
1189.8000;0.6260;1.6702;
1190.1000;0.6292;1.6798;
1190.4000;0.6252;1.6726;
1190.7000;0.6252;1.6726;
1191.0000;0.6252;1.6678;
1191.3000;0.6252;1.6605;
1191.6000;0.6252;1.6581;
1191.9000;0.6260;1.6484;
1192.2000;0.6252;1.6557;
1192.5000;0.6276;1.6581;
1192.8000;0.6252;1.6532;
1193.1000;0.6268;1.6629;
1193.4000;0.6252;1.6629;
1193.7000;0.6252;1.6605;
1194.0000;0.6268;1.6532;
1194.3000;0.6276;1.6508;
1194.6000;0.6211;1.6436;
1194.9000;0.6260;1.6581;
1195.2000;0.6268;1.6557;
1195.5000;0.6252;1.6484;
1195.8000;0.6219;1.6387;
1196.1000;0.6235;1.6460;
1196.4000;0.6227;1.6460;
1196.7000;0.6268;1.6508;
1197.0000;0.6252;1.6557;
1197.3000;0.6284;1.6653;
1197.6000;0.6268;1.6581;
1197.9000;0.6252;1.6532;
1198.2000;0.6252;1.6508;
1198.5000;0.6268;1.6460;
1198.8000;0.6252;1.6484;
1199.1000;0.6309;1.6581;
1199.4000;0.6195;1.6339;
1199.7000;0.6260;1.6508;
1200.0000;0.6341;1.6750;
1200.3000;0.6300;1.6702;
1200.6000;0.6252;1.6653;
1200.9000;0.6260;1.6629;
1201.2000;0.6252;1.6629;
1201.5000;0.6260;1.6702;
1201.8000;0.6260;1.6750;
1202.1000;0.6235;1.6702;
1202.4000;0.6284;1.6750;
1202.7000;0.6227;1.6653;
1203.0000;0.6268;1.6750;
1203.3000;0.6243;1.6678;
1203.6000;0.6260;1.6605;
1203.9000;0.6260;1.6532;
1204.2000;0.6284;1.6508;
1204.5000;0.6276;1.6532;
1204.8000;0.6276;1.6653;
1205.1000;0.6276;1.6678;
1205.4000;0.6243;1.6653;
1205.7000;0.6268;1.6629;
1206.0000;0.6309;1.6702;
1206.3000;0.6300;1.6653;
1206.6000;0.6252;1.6557;
1206.9000;0.6260;1.6629;
1207.2000;0.6203;1.6532;
1207.5000;0.6235;1.6653;
1207.8000;0.6252;1.6629;
1208.1000;0.6243;1.6557;
1208.4000;0.6227;1.6532;
1208.7000;0.6243;1.6605;
1209.0000;0.6252;1.6605;
1209.3000;0.6309;1.6823;
1209.6000;0.6268;1.6678;
1209.9000;0.6252;1.6605;
1210.2000;0.6243;1.6581;
1210.5000;0.6292;1.6629;
1210.8000;0.6252;1.6581;
1211.1000;0.6268;1.6605;
1211.4000;0.6284;1.6678;
1211.7000;0.6243;1.6581;
1212.0000;0.6252;1.6605;
1212.3000;0.6268;1.6605;
1212.6000;0.6227;1.6484;
1212.9000;0.6252;1.6581;
1213.2000;0.6268;1.6581;
1213.5000;0.6268;1.6629;
1213.8000;0.6252;1.6629;
1214.1000;0.6268;1.6629;
1214.4000;0.6260;1.6629;
1214.7000;0.6252;1.6653;
1215.0000;0.6268;1.6702;
1215.3000;0.6268;1.6581;
1215.6000;0.6268;1.6629;
1215.9000;0.6309;1.6798;
1216.2000;0.6260;1.6605;
1216.5000;0.6211;1.6484;
1216.8000;0.6252;1.6605;
1217.1000;0.6260;1.6629;
1217.4000;0.6309;1.6823;
1217.7000;0.6252;1.6653;
1218.0000;0.6260;1.6653;
1218.3000;0.6260;1.6726;
1218.6000;0.6300;1.6774;
1218.9000;0.6268;1.6581;
1219.2000;0.6243;1.6532;
1219.5000;0.6243;1.6581;
1219.8000;0.6300;1.6726;
1220.1000;0.6252;1.6605;
1220.4000;0.6243;1.6653;
1220.7000;0.6260;1.6726;
1221.0000;0.6252;1.6726;
1221.3000;0.6235;1.6750;
1221.6000;0.6260;1.6798;
1221.9000;0.6243;1.6726;
1222.2000;0.6243;1.6653;
1222.5000;0.6317;1.6798;
1222.8000;0.6252;1.6605;
1223.1000;0.6235;1.6605;
1223.4000;0.6252;1.6726;
1223.7000;0.6292;1.6726;
1224.0000;0.6243;1.6605;
1224.3000;0.6243;1.6581;
1224.6000;0.6243;1.6508;
1224.9000;0.6243;1.6508;
1225.2000;0.6309;1.6629;
1225.5000;0.6243;1.6460;
1225.8000;0.6252;1.6484;
1226.1000;0.6243;1.6460;
1226.4000;0.6219;1.6315;
1226.7000;0.6276;1.6412;
1227.0000;0.6243;1.6412;
1227.3000;0.6260;1.6484;
1227.6000;0.6227;1.6412;
1227.9000;0.6243;1.6436;
1228.2000;0.6235;1.6460;
1228.5000;0.6243;1.6484;
1228.8000;0.6243;1.6508;
1229.1000;0.6252;1.6557;
1229.4000;0.6235;1.6581;
1229.7000;0.6243;1.6581;
1230.0000;0.6268;1.6702;
1230.3000;0.6260;1.6726;
1230.6000;0.6235;1.6702;
1230.9000;0.6260;1.6750;
1231.2000;0.6235;1.6653;
1231.5000;0.6235;1.6629;
1231.8000;0.6243;1.6678;
1232.1000;0.6243;1.6653;
1232.4000;0.6227;1.6605;
1232.7000;0.6243;1.6581;
1233.0000;0.6243;1.6629;
1233.3000;0.6227;1.6653;
1233.6000;0.6243;1.6532;
1233.9000;0.6252;1.6581;
1234.2000;0.6252;1.6605;
1234.5000;0.6284;1.6702;
1234.8000;0.6243;1.6629;
1235.1000;0.6252;1.6653;
1235.4000;0.6252;1.6653;
1235.7000;0.6243;1.6605;
1236.0000;0.6260;1.6653;
1236.3000;0.6260;1.6678;
1236.6000;0.6260;1.6678;
1236.9000;0.6243;1.6605;
1237.2000;0.6260;1.6678;
1237.5000;0.6243;1.6726;
1237.8000;0.6252;1.6678;
1238.1000;0.6243;1.6774;
1238.4000;0.6260;1.6798;
1238.7000;0.6252;1.6774;
1239.0000;0.6268;1.6823;
1239.3000;0.6268;1.6847;
1239.6000;0.6292;1.6919;
1239.9000;0.6252;1.6871;
1240.2000;0.6276;1.6919;
1240.5000;0.6243;1.6871;
1240.8000;0.6252;1.6919;
1241.1000;0.6243;1.6823;
1241.4000;0.6333;1.7040;
1241.7000;0.6252;1.6798;
1242.0000;0.6252;1.6750;
1242.3000;0.6252;1.6774;
1242.6000;0.6268;1.6750;
1242.9000;0.6252;1.6605;
1243.2000;0.6227;1.6508;
1243.5000;0.6227;1.6484;
1243.8000;0.6243;1.6557;
1244.1000;0.6252;1.6605;
1244.4000;0.6243;1.6557;
1244.7000;0.6243;1.6557;
1245.0000;0.6300;1.6678;
1245.3000;0.6268;1.6653;
1245.6000;0.6260;1.6605;
1245.9000;0.6243;1.6508;
1246.2000;0.6252;1.6532;
1246.5000;0.6268;1.6532;
1246.8000;0.6243;1.6436;
1247.1000;0.6243;1.6460;
1247.4000;0.6252;1.6508;
1247.7000;0.6243;1.6508;
1248.0000;0.6243;1.6460;
1248.3000;0.6243;1.6484;
1248.6000;0.6243;1.6581;
1248.9000;0.6252;1.6653;
1249.2000;0.6252;1.6702;
1249.5000;0.6235;1.6750;
1249.8000;0.6195;1.6678;
1250.1000;0.6252;1.6774;
1250.4000;0.6243;1.6847;
1250.7000;0.6252;1.6726;
1251.0000;0.6260;1.6702;
1251.3000;0.6260;1.6653;
1251.6000;0.6252;1.6605;
1251.9000;0.6235;1.6581;
1252.2000;0.6243;1.6557;
1252.5000;0.6243;1.6532;
1252.8000;0.6235;1.6508;
1253.1000;0.6243;1.6508;
1253.4000;0.6235;1.6460;
1253.7000;0.6235;1.6557;
1254.0000;0.6252;1.6508;
1254.3000;0.6227;1.6436;
1254.6000;0.6227;1.6484;
1254.9000;0.6219;1.6484;
1255.2000;0.6243;1.6557;
1255.5000;0.6300;1.6653;
1255.8000;0.6235;1.6532;
1256.1000;0.6252;1.6557;
1256.4000;0.6195;1.6387;
1256.7000;0.6243;1.6508;
1257.0000;0.6243;1.6436;
1257.3000;0.6252;1.6508;
1257.6000;0.6219;1.6460;
1257.9000;0.6235;1.6532;
1258.2000;0.6227;1.6581;
1258.5000;0.6219;1.6532;
1258.8000;0.6227;1.6508;
1259.1000;0.6276;1.6702;
1259.4000;0.6243;1.6653;
1259.7000;0.6252;1.6653;
1260.0000;0.6235;1.6605;
1260.3000;0.6243;1.6629;
1260.6000;0.6252;1.6678;
1260.9000;0.6252;1.6629;
1261.2000;0.6235;1.6508;
1261.5000;0.6260;1.6508;
1261.8000;0.6276;1.6484;
1262.1000;0.6292;1.6581;
1262.4000;0.6243;1.6436;
1262.7000;0.6235;1.6363;
1263.0000;0.6260;1.6436;
1263.3000;0.6243;1.6363;
1263.6000;0.6260;1.6387;
1263.9000;0.6276;1.6387;
1264.2000;0.6252;1.6363;
1264.5000;0.6252;1.6412;
1264.8000;0.6162;1.6194;
1265.1000;0.6235;1.6436;
1265.4000;0.6292;1.6605;
1265.7000;0.6243;1.6508;
1266.0000;0.6268;1.6702;
1266.3000;0.6243;1.6629;
1266.6000;0.6252;1.6508;
1266.9000;0.6260;1.6460;
1267.2000;0.6260;1.6508;
1267.5000;0.6243;1.6484;
1267.8000;0.6227;1.6387;
1268.1000;0.6252;1.6460;
1268.4000;0.6268;1.6484;
1268.7000;0.6219;1.6436;
1269.0000;0.6227;1.6484;
1269.3000;0.6243;1.6653;
1269.6000;0.6235;1.6678;
1269.9000;0.6243;1.6726;
1270.2000;0.6252;1.6774;
1270.5000;0.6243;1.6774;
1270.8000;0.6235;1.6653;
1271.1000;0.6227;1.6629;
1271.4000;0.6284;1.6702;
1271.7000;0.6243;1.6653;
1272.0000;0.6243;1.6678;
1272.3000;0.6235;1.6605;
1272.6000;0.6227;1.6605;
1272.9000;0.6243;1.6605;
1273.2000;0.6243;1.6605;
1273.5000;0.6252;1.6581;
1273.8000;0.6219;1.6532;
1274.1000;0.6235;1.6557;
1274.4000;0.6211;1.6508;
1274.7000;0.6252;1.6508;
1275.0000;0.6243;1.6557;
1275.3000;0.6235;1.6532;
1275.6000;0.6235;1.6484;
1275.9000;0.6243;1.6484;
1276.2000;0.6252;1.6484;
1276.5000;0.6252;1.6412;
1276.8000;0.6235;1.6436;
1277.1000;0.6252;1.6460;
1277.4000;0.6252;1.6484;
1277.7000;0.6243;1.6484;
1278.0000;0.6235;1.6581;
1278.3000;0.6235;1.6629;
1278.6000;0.6252;1.6774;
1278.9000;0.6235;1.6678;
1279.2000;0.6235;1.6702;
1279.5000;0.6211;1.6702;
1279.8000;0.6186;1.6557;
1280.1000;0.6243;1.6605;
1280.4000;0.6300;1.6774;
1280.7000;0.6211;1.6557;
1281.0000;0.6243;1.6605;
1281.3000;0.6227;1.6508;
1281.6000;0.6235;1.6484;
1281.9000;0.6243;1.6508;
1282.2000;0.6227;1.6508;
1282.5000;0.6235;1.6484;
1282.8000;0.6243;1.6484;
1283.1000;0.6243;1.6484;
1283.4000;0.6252;1.6460;
1283.7000;0.6235;1.6508;
1284.0000;0.6219;1.6460;
1284.3000;0.6227;1.6484;
1284.6000;0.6235;1.6508;
1284.9000;0.6203;1.6460;
1285.2000;0.6243;1.6605;
1285.5000;0.6227;1.6605;
1285.8000;0.6260;1.6629;
1286.1000;0.6243;1.6581;
1286.4000;0.6252;1.6605;
1286.7000;0.6252;1.6605;
1287.0000;0.6235;1.6581;
1287.3000;0.6260;1.6629;
1287.6000;0.6235;1.6532;
1287.9000;0.6317;1.6798;
1288.2000;0.6219;1.6532;
1288.5000;0.6252;1.6678;
1288.8000;0.6309;1.6871;
1289.1000;0.6219;1.6726;
1289.4000;0.6219;1.6726;
1289.7000;0.6178;1.6605;
1290.0000;0.6243;1.6750;
1290.3000;0.6219;1.6629;
1290.6000;0.6219;1.6557;
1290.9000;0.6227;1.6557;
1291.2000;0.6243;1.6629;
1291.5000;0.6243;1.6653;
1291.8000;0.6219;1.6605;
1292.1000;0.6219;1.6678;
1292.4000;0.6219;1.6678;
1292.7000;0.6227;1.6774;
1293.0000;0.6235;1.6726;
1293.3000;0.6203;1.6702;
1293.6000;0.6235;1.6774;
1293.9000;0.6219;1.6798;
1294.2000;0.6227;1.6750;
1294.5000;0.6227;1.6605;
1294.8000;0.6235;1.6605;
1295.1000;0.6252;1.6629;
1295.4000;0.6235;1.6484;
1295.7000;0.6195;1.6339;
1296.0000;0.6252;1.6460;
1296.3000;0.6243;1.6460;
1296.6000;0.6260;1.6508;
1296.9000;0.6235;1.6412;
1297.2000;0.6252;1.6484;
1297.5000;0.6260;1.6557;
1297.8000;0.6243;1.6605;
1298.1000;0.6243;1.6508;
1298.4000;0.6235;1.6436;
1298.7000;0.6235;1.6484;
1299.0000;0.6235;1.6557;
1299.3000;0.6235;1.6581;
1299.6000;0.6227;1.6605;
1299.9000;0.6235;1.6653;
1300.2000;0.6219;1.6557;
1300.5000;0.6243;1.6629;
1300.8000;0.6243;1.6605;
1301.1000;0.6235;1.6581;
1301.4000;0.6235;1.6581;
1301.7000;0.6243;1.6605;
1302.0000;0.6235;1.6557;
1302.3000;0.6235;1.6581;
1302.6000;0.6243;1.6629;
1302.9000;0.6227;1.6653;
1303.2000;0.6227;1.6726;
1303.5000;0.6219;1.6726;
1303.8000;0.6219;1.6726;
1304.1000;0.6227;1.6774;
1304.4000;0.6211;1.6726;
1304.7000;0.6219;1.6702;
1305.0000;0.6227;1.6774;
1305.3000;0.6235;1.6750;
1305.6000;0.6235;1.6750;
1305.9000;0.6243;1.6798;
1306.2000;0.6235;1.6726;
1306.5000;0.6235;1.6726;
1306.8000;0.6252;1.6798;
1307.1000;0.6219;1.6653;
1307.4000;0.6235;1.6678;
1307.7000;0.6235;1.6581;
1308.0000;0.6227;1.6629;
1308.3000;0.6235;1.6678;
1308.6000;0.6243;1.6774;
1308.9000;0.6235;1.6750;
1309.2000;0.6243;1.6774;
1309.5000;0.6243;1.6798;
1309.8000;0.6235;1.6702;
1310.1000;0.6227;1.6557;
1310.4000;0.6235;1.6532;
1310.7000;0.6211;1.6557;
1311.0000;0.6211;1.6605;
1311.3000;0.6227;1.6629;
1311.6000;0.6219;1.6581;
1311.9000;0.6227;1.6581;
1312.2000;0.6235;1.6629;
1312.5000;0.6243;1.6678;
1312.8000;0.6235;1.6726;
1313.1000;0.6235;1.6702;
1313.4000;0.6235;1.6702;
1313.7000;0.6235;1.6750;
1314.0000;0.6243;1.6750;
1314.3000;0.6284;1.6847;
1314.6000;0.6219;1.6605;
1314.9000;0.6235;1.6678;
1315.2000;0.6317;1.6823;
1315.5000;0.6243;1.6605;
1315.8000;0.6227;1.6629;
1316.1000;0.6170;1.6532;
1316.4000;0.6203;1.6629;
1316.7000;0.6243;1.6653;
1317.0000;0.6235;1.6605;
1317.3000;0.6186;1.6412;
1317.6000;0.6227;1.6508;
1317.9000;0.6235;1.6484;
1318.2000;0.6227;1.6605;
1318.5000;0.6227;1.6581;
1318.8000;0.6227;1.6605;
1319.1000;0.6235;1.6653;
1319.4000;0.6203;1.6557;
1319.7000;0.6243;1.6605;
1320.0000;0.6227;1.6605;
1320.3000;0.6186;1.6605;
1320.6000;0.6235;1.6653;
1320.9000;0.6211;1.6629;
1321.2000;0.6227;1.6629;
1321.5000;0.6211;1.6557;
1321.8000;0.6227;1.6581;
1322.1000;0.6219;1.6532;
1322.4000;0.6235;1.6508;
1322.7000;0.6211;1.6484;
1323.0000;0.6227;1.6557;
1323.3000;0.6219;1.6653;
1323.6000;0.6219;1.6678;
1323.9000;0.6219;1.6653;
1324.2000;0.6227;1.6581;
1324.5000;0.6235;1.6581;
1324.8000;0.6219;1.6557;
1325.1000;0.6219;1.6532;
1325.4000;0.6195;1.6484;
1325.7000;0.6203;1.6532;
1326.0000;0.6219;1.6581;
1326.3000;0.6235;1.6629;
1326.6000;0.6203;1.6581;
1326.9000;0.6235;1.6678;
1327.2000;0.6227;1.6702;
1327.5000;0.6219;1.6653;
1327.8000;0.6243;1.6847;
1328.1000;0.6276;1.6895;
1328.4000;0.6211;1.6726;
1328.7000;0.6154;1.6581;
1329.0000;0.6284;1.6871;
1329.3000;0.6219;1.6823;
1329.6000;0.6243;1.6774;
1329.9000;0.6227;1.6702;
1330.2000;0.6203;1.6629;
1330.5000;0.6227;1.6678;
1330.8000;0.6195;1.6605;
1331.1000;0.6211;1.6629;
1331.4000;0.6252;1.6702;
1331.7000;0.6235;1.6605;
1332.0000;0.6260;1.6678;
1332.3000;0.6243;1.6774;
1332.6000;0.6243;1.6750;
1332.9000;0.6243;1.6726;
1333.2000;0.6252;1.6678;
1333.5000;0.6243;1.6605;
1333.8000;0.6243;1.6508;
1334.1000;0.6235;1.6412;
1334.4000;0.6243;1.6412;
1334.7000;0.6243;1.6412;
1335.0000;0.6219;1.6436;
1335.3000;0.6260;1.6484;
1335.6000;0.6260;1.6412;
1335.9000;0.6219;1.6267;
1336.2000;0.6252;1.6436;
1336.5000;0.6235;1.6460;
1336.8000;0.6235;1.6508;
1337.1000;0.6235;1.6484;
1337.4000;0.6260;1.6508;
1337.7000;0.6235;1.6460;
1338.0000;0.6235;1.6387;
1338.3000;0.6243;1.6363;
1338.6000;0.6219;1.6339;
1338.9000;0.6227;1.6363;
1339.2000;0.6235;1.6363;
1339.5000;0.6219;1.6436;
1339.8000;0.6243;1.6532;
1340.1000;0.6227;1.6532;
1340.4000;0.6211;1.6484;
1340.7000;0.6227;1.6532;
1341.0000;0.6243;1.6653;
1341.3000;0.6235;1.6532;
1341.6000;0.6227;1.6436;
1341.9000;0.6227;1.6339;
1342.2000;0.6260;1.6460;
1342.5000;0.6235;1.6436;
1342.8000;0.6243;1.6387;
1343.1000;0.6219;1.6339;
1343.4000;0.6235;1.6412;
1343.7000;0.6235;1.6412;
1344.0000;0.6243;1.6508;
1344.3000;0.6227;1.6532;
1344.6000;0.6235;1.6581;
1344.9000;0.6219;1.6460;
1345.2000;0.6219;1.6436;
1345.5000;0.6252;1.6484;
1345.8000;0.6227;1.6484;
1346.1000;0.6227;1.6484;
1346.4000;0.6219;1.6484;
1346.7000;0.6235;1.6484;
1347.0000;0.6227;1.6557;
1347.3000;0.6227;1.6581;
1347.6000;0.6243;1.6581;
1347.9000;0.6227;1.6605;
1348.2000;0.6219;1.6629;
1348.5000;0.6227;1.6605;
1348.8000;0.6243;1.6653;
1349.1000;0.6268;1.6702;
1349.4000;0.6227;1.6581;
1349.7000;0.6235;1.6532;
1350.0000;0.6243;1.6436;
1350.3000;0.6203;1.6363;
1350.6000;0.6211;1.6387;
1350.9000;0.6219;1.6412;
1351.2000;0.6195;1.6291;
1351.5000;0.6203;1.6315;
1351.8000;0.6219;1.6387;
1352.1000;0.6235;1.6412;
1352.4000;0.6219;1.6436;
1352.7000;0.6252;1.6532;
1353.0000;0.6195;1.6436;
1353.3000;0.6227;1.6581;
1353.6000;0.6219;1.6460;
1353.9000;0.6227;1.6460;
1354.2000;0.6219;1.6460;
1354.5000;0.6203;1.6436;
1354.8000;0.6227;1.6508;
1355.1000;0.6219;1.6532;
1355.4000;0.6227;1.6557;
1355.7000;0.6227;1.6532;
1356.0000;0.6227;1.6557;
1356.3000;0.6227;1.6532;
1356.6000;0.6252;1.6532;
1356.9000;0.6243;1.6532;
1357.2000;0.6219;1.6484;
1357.5000;0.6243;1.6484;
1357.8000;0.6243;1.6363;
1358.1000;0.6203;1.6291;
1358.4000;0.6227;1.6436;
1358.7000;0.6243;1.6508;
1359.0000;0.6252;1.6557;
1359.3000;0.6211;1.6484;
1359.6000;0.6243;1.6508;
1359.9000;0.6227;1.6508;
1360.2000;0.6243;1.6412;
1360.5000;0.6219;1.6412;
1360.8000;0.6243;1.6412;
1361.1000;0.6235;1.6460;
1361.4000;0.6235;1.6484;
1361.7000;0.6227;1.6508;
1362.0000;0.6219;1.6460;
1362.3000;0.6227;1.6436;
1362.6000;0.6227;1.6460;
1362.9000;0.6235;1.6629;
1363.2000;0.6317;1.6750;
1363.5000;0.6235;1.6484;
1363.8000;0.6235;1.6581;
1364.1000;0.6227;1.6508;
1364.4000;0.6243;1.6484;
1364.7000;0.6219;1.6436;
1365.0000;0.6219;1.6412;
1365.3000;0.6195;1.6315;
1365.6000;0.6227;1.6387;
1365.9000;0.6268;1.6484;
1366.2000;0.6227;1.6460;
1366.5000;0.6227;1.6412;
1366.8000;0.6203;1.6339;
1367.1000;0.6219;1.6387;
1367.4000;0.6211;1.6508;
1367.7000;0.6227;1.6484;
1368.0000;0.6227;1.6557;
1368.3000;0.6235;1.6532;
1368.6000;0.6235;1.6460;
1368.9000;0.6227;1.6581;
1369.2000;0.6243;1.6629;
1369.5000;0.6219;1.6605;
1369.8000;0.6235;1.6605;
1370.1000;0.6243;1.6581;
1370.4000;0.6243;1.6532;
1370.7000;0.6227;1.6484;
1371.0000;0.6186;1.6436;
1371.3000;0.6219;1.6557;
1371.6000;0.6195;1.6557;
1371.9000;0.6219;1.6605;
1372.2000;0.6252;1.6726;
1372.5000;0.6219;1.6532;
1372.8000;0.6219;1.6557;
1373.1000;0.6260;1.6678;
1373.4000;0.6260;1.6629;
1373.7000;0.6154;1.6387;
1374.0000;0.6227;1.6581;
1374.3000;0.6243;1.6460;
1374.6000;0.6284;1.6581;
1374.9000;0.6227;1.6557;
1375.2000;0.6154;1.6412;
1375.5000;0.6227;1.6557;
1375.8000;0.6235;1.6532;
1376.1000;0.6227;1.6460;
1376.4000;0.6252;1.6557;
1376.7000;0.6243;1.6508;
1377.0000;0.6219;1.6460;
1377.3000;0.6227;1.6484;
1377.6000;0.6227;1.6532;
1377.9000;0.6235;1.6557;
1378.2000;0.6219;1.6508;
1378.5000;0.6227;1.6484;
1378.8000;0.6227;1.6532;
1379.1000;0.6219;1.6557;
1379.4000;0.6219;1.6484;
1379.7000;0.6243;1.6460;
1380.0000;0.6219;1.6557;
1380.3000;0.6235;1.6581;
1380.6000;0.6227;1.6484;
1380.9000;0.6252;1.6436;
1381.2000;0.6219;1.6363;
1381.5000;0.6219;1.6363;
1381.8000;0.6211;1.6436;
1382.1000;0.6219;1.6484;
1382.4000;0.6227;1.6460;
1382.7000;0.6211;1.6484;
1383.0000;0.6227;1.6363;
1383.3000;0.6219;1.6436;
1383.6000;0.6219;1.6412;
1383.9000;0.6219;1.6436;
1384.2000;0.6227;1.6387;
1384.5000;0.6195;1.6363;
1384.8000;0.6235;1.6412;
1385.1000;0.6219;1.6339;
1385.4000;0.6219;1.6387;
1385.7000;0.6203;1.6291;
1386.0000;0.6211;1.6315;
1386.3000;0.6211;1.6363;
1386.6000;0.6227;1.6363;
1386.9000;0.6227;1.6436;
1387.2000;0.6227;1.6339;
1387.5000;0.6227;1.6363;
1387.8000;0.6219;1.6339;
1388.1000;0.6203;1.6242;
1388.4000;0.6227;1.6194;
1388.7000;0.6211;1.6194;
1389.0000;0.6235;1.6315;
1389.3000;0.6219;1.6339;
1389.6000;0.6227;1.6412;
1389.9000;0.6154;1.6242;
1390.2000;0.6195;1.6363;
1390.5000;0.6219;1.6436;
1390.8000;0.6195;1.6387;
1391.1000;0.6227;1.6436;
1391.4000;0.6211;1.6387;
1391.7000;0.6203;1.6412;
1392.0000;0.6276;1.6629;
1392.3000;0.6227;1.6532;
1392.6000;0.6227;1.6484;
1392.9000;0.6235;1.6460;
1393.2000;0.6235;1.6460;
1393.5000;0.6235;1.6532;
1393.8000;0.6211;1.6460;
1394.1000;0.6227;1.6484;
1394.4000;0.6219;1.6436;
1394.7000;0.6235;1.6532;
1395.0000;0.6235;1.6508;
1395.3000;0.6235;1.6532;
1395.6000;0.6235;1.6484;
1395.9000;0.6243;1.6508;
1396.2000;0.6219;1.6508;
1396.5000;0.6227;1.6460;
1396.8000;0.6243;1.6484;
1397.1000;0.6260;1.6508;
1397.4000;0.6243;1.6412;
1397.7000;0.6317;1.6605;
1398.0000;0.6235;1.6387;
1398.3000;0.6211;1.6363;
1398.6000;0.6243;1.6436;
1398.9000;0.6235;1.6436;
1399.2000;0.6227;1.6363;
1399.5000;0.6227;1.6339;
1399.8000;0.6235;1.6291;
