time/ms;Fluo/V;P700 deltaI/I x10³;
-199.8000;0.7570;1.7064;
-199.5000;0.7570;1.7088;
-199.2000;0.7570;1.7137;
-198.9000;0.7562;1.7088;
-198.6000;0.7570;1.7088;
-198.3000;0.7570;1.7040;
-198.0000;0.7570;1.7016;
-197.7000;0.7578;1.7040;
-197.4000;0.7578;1.7016;
-197.1000;0.7578;1.7016;
-196.8000;0.7586;1.6943;
-196.5000;0.7570;1.6919;
-196.2000;0.7570;1.6871;
-195.9000;0.7554;1.6895;
-195.6000;0.7562;1.6895;
-195.3000;0.7643;1.7113;
-195.0000;0.7562;1.6919;
-194.7000;0.7570;1.6871;
-194.4000;0.7570;1.6919;
-194.1000;0.7586;1.6895;
-193.8000;0.7570;1.6895;
-193.5000;0.7570;1.6847;
-193.2000;0.7570;1.6871;
-192.9000;0.7586;1.6895;
-192.6000;0.7578;1.6968;
-192.3000;0.7586;1.6943;
-192.0000;0.7578;1.6943;
-191.7000;0.7611;1.7016;
-191.4000;0.7578;1.6992;
-191.1000;0.7578;1.7040;
-190.8000;0.7554;1.7064;
-190.5000;0.7570;1.7064;
-190.2000;0.7578;1.7161;
-189.9000;0.7562;1.7113;
-189.6000;0.7562;1.7064;
-189.3000;0.7570;1.7088;
-189.0000;0.7586;1.7016;
-188.7000;0.7586;1.6943;
-188.4000;0.7578;1.6943;
-188.1000;0.7586;1.6895;
-187.8000;0.7578;1.6895;
-187.5000;0.7586;1.6823;
-187.2000;0.7570;1.6847;
-186.9000;0.7570;1.6919;
-186.6000;0.7570;1.6968;
-186.3000;0.7538;1.6798;
-186.0000;0.7562;1.6871;
-185.7000;0.7562;1.6871;
-185.4000;0.7570;1.6919;
-185.1000;0.7578;1.6968;
-184.8000;0.7570;1.6823;
-184.5000;0.7521;1.6774;
-184.2000;0.7578;1.6919;
-183.9000;0.7570;1.6895;
-183.6000;0.7611;1.6919;
-183.3000;0.7554;1.6750;
-183.0000;0.7570;1.6750;
-182.7000;0.7586;1.6774;
-182.4000;0.7562;1.6726;
-182.1000;0.7562;1.6750;
-181.8000;0.7570;1.6823;
-181.5000;0.7554;1.6750;
-181.2000;0.7578;1.6823;
-180.9000;0.7570;1.6774;
-180.6000;0.7578;1.6774;
-180.3000;0.7546;1.6678;
-180.0000;0.7595;1.6774;
-179.7000;0.7578;1.6798;
-179.4000;0.7570;1.6847;
-179.1000;0.7554;1.6798;
-178.8000;0.7586;1.6847;
-178.5000;0.7586;1.6871;
-178.2000;0.7586;1.6895;
-177.9000;0.7562;1.6895;
-177.6000;0.7570;1.6895;
-177.3000;0.7570;1.6774;
-177.0000;0.7554;1.6774;
-176.7000;0.7578;1.6895;
-176.4000;0.7586;1.6847;
-176.1000;0.7570;1.6847;
-175.8000;0.7570;1.6919;
-175.5000;0.7595;1.6943;
-175.2000;0.7619;1.7064;
-174.9000;0.7578;1.6943;
-174.6000;0.7562;1.6823;
-174.3000;0.7489;1.6702;
-174.0000;0.7554;1.6895;
-173.7000;0.7570;1.6895;
-173.4000;0.7570;1.6823;
-173.1000;0.7586;1.6750;
-172.8000;0.7562;1.6678;
-172.5000;0.7578;1.6823;
-172.2000;0.7562;1.6750;
-171.9000;0.7586;1.6847;
-171.6000;0.7578;1.6798;
-171.3000;0.7595;1.6823;
-171.0000;0.7562;1.6750;
-170.7000;0.7578;1.6726;
-170.4000;0.7595;1.6823;
-170.1000;0.7578;1.6798;
-169.8000;0.7603;1.6726;
-169.5000;0.7586;1.6653;
-169.2000;0.7578;1.6629;
-168.9000;0.7578;1.6702;
-168.6000;0.7570;1.6702;
-168.3000;0.7578;1.6798;
-168.0000;0.7586;1.6895;
-167.7000;0.7586;1.6871;
-167.4000;0.7570;1.6943;
-167.1000;0.7562;1.6847;
-166.8000;0.7578;1.6895;
-166.5000;0.7578;1.6919;
-166.2000;0.7538;1.6774;
-165.9000;0.7586;1.7016;
-165.6000;0.7562;1.6943;
-165.3000;0.7578;1.6992;
-165.0000;0.7570;1.6992;
-164.7000;0.7562;1.7040;
-164.4000;0.7562;1.7016;
-164.1000;0.7570;1.7113;
-163.8000;0.7570;1.7064;
-163.5000;0.7595;1.6992;
-163.2000;0.7570;1.6871;
-162.9000;0.7578;1.6847;
-162.6000;0.7578;1.6847;
-162.3000;0.7595;1.6919;
-162.0000;0.7578;1.6798;
-161.7000;0.7570;1.6750;
-161.4000;0.7586;1.6774;
-161.1000;0.7586;1.6774;
-160.8000;0.7578;1.6702;
-160.5000;0.7570;1.6678;
-160.2000;0.7521;1.6532;
-159.9000;0.7578;1.6774;
-159.6000;0.7586;1.6750;
-159.3000;0.7578;1.6678;
-159.0000;0.7586;1.6823;
-158.7000;0.7578;1.6798;
-158.4000;0.7578;1.6798;
-158.1000;0.7578;1.6774;
-157.8000;0.7578;1.6823;
-157.5000;0.7578;1.6943;
-157.2000;0.7578;1.6943;
-156.9000;0.7570;1.6968;
-156.6000;0.7570;1.6992;
-156.3000;0.7554;1.7088;
-156.0000;0.7578;1.7088;
-155.7000;0.7570;1.6968;
-155.4000;0.7554;1.6895;
-155.1000;0.7578;1.6943;
-154.8000;0.7578;1.6847;
-154.5000;0.7603;1.6895;
-154.2000;0.7643;1.6895;
-153.9000;0.7578;1.6750;
-153.6000;0.7578;1.6895;
-153.3000;0.7562;1.6968;
-153.0000;0.7554;1.6919;
-152.7000;0.7562;1.6992;
-152.4000;0.7570;1.6968;
-152.1000;0.7578;1.7064;
-151.8000;0.7578;1.7064;
-151.5000;0.7643;1.7185;
-151.2000;0.7578;1.6968;
-150.9000;0.7619;1.7064;
-150.6000;0.7570;1.6992;
-150.3000;0.7586;1.7064;
-150.0000;0.7578;1.7016;
-149.7000;0.7570;1.6943;
-149.4000;0.7578;1.6871;
-149.1000;0.7554;1.6702;
-148.8000;0.7554;1.6653;
-148.5000;0.7538;1.6629;
-148.2000;0.7603;1.6798;
-147.9000;0.7578;1.6702;
-147.6000;0.7554;1.6702;
-147.3000;0.7562;1.6750;
-147.0000;0.7595;1.6871;
-146.7000;0.7562;1.6823;
-146.4000;0.7603;1.6871;
-146.1000;0.7538;1.6726;
-145.8000;0.7578;1.6823;
-145.5000;0.7562;1.6871;
-145.2000;0.7562;1.6895;
-144.9000;0.7570;1.6919;
-144.6000;0.7627;1.7064;
-144.3000;0.7530;1.6895;
-144.0000;0.7530;1.6895;
-143.7000;0.7554;1.6968;
-143.4000;0.7603;1.7016;
-143.1000;0.7586;1.6992;
-142.8000;0.7586;1.7016;
-142.5000;0.7578;1.6992;
-142.2000;0.7570;1.7016;
-141.9000;0.7586;1.7040;
-141.6000;0.7562;1.7040;
-141.3000;0.7578;1.7064;
-141.0000;0.7578;1.6992;
-140.7000;0.7562;1.6968;
-140.4000;0.7586;1.7064;
-140.1000;0.7586;1.7016;
-139.8000;0.7595;1.7040;
-139.5000;0.7570;1.7064;
-139.2000;0.7578;1.7088;
-138.9000;0.7570;1.7040;
-138.6000;0.7570;1.6992;
-138.3000;0.7578;1.6968;
-138.0000;0.7595;1.6871;
-137.7000;0.7586;1.6847;
-137.4000;0.7586;1.6847;
-137.1000;0.7562;1.6750;
-136.8000;0.7586;1.6750;
-136.5000;0.7603;1.6847;
-136.2000;0.7578;1.6919;
-135.9000;0.7570;1.6847;
-135.6000;0.7586;1.6871;
-135.3000;0.7627;1.6847;
-135.0000;0.7586;1.6653;
-134.7000;0.7570;1.6629;
-134.4000;0.7586;1.6726;
-134.1000;0.7562;1.6702;
-133.8000;0.7595;1.6750;
-133.5000;0.7586;1.6726;
-133.2000;0.7595;1.6678;
-132.9000;0.7595;1.6774;
-132.6000;0.7570;1.6702;
-132.3000;0.7578;1.6750;
-132.0000;0.7554;1.6774;
-131.7000;0.7652;1.6992;
-131.4000;0.7595;1.6823;
-131.1000;0.7570;1.6774;
-130.8000;0.7578;1.6798;
-130.5000;0.7595;1.6847;
-130.2000;0.7578;1.6774;
-129.9000;0.7570;1.6823;
-129.6000;0.7603;1.6943;
-129.3000;0.7570;1.6943;
-129.0000;0.7578;1.7016;
-128.7000;0.7627;1.7088;
-128.4000;0.7570;1.6871;
-128.1000;0.7578;1.6847;
-127.8000;0.7586;1.6992;
-127.5000;0.7530;1.6943;
-127.2000;0.7570;1.6968;
-126.9000;0.7562;1.6992;
-126.6000;0.7595;1.7064;
-126.3000;0.7562;1.7088;
-126.0000;0.7570;1.7113;
-125.7000;0.7546;1.7113;
-125.4000;0.7562;1.7113;
-125.1000;0.7554;1.6992;
-124.8000;0.7546;1.6943;
-124.5000;0.7562;1.7016;
-124.2000;0.7578;1.7161;
-123.9000;0.7570;1.7185;
-123.6000;0.7570;1.7209;
-123.3000;0.7578;1.7113;
-123.0000;0.7570;1.6992;
-122.7000;0.7586;1.7040;
-122.4000;0.7586;1.7016;
-122.1000;0.7554;1.6943;
-121.8000;0.7554;1.6992;
-121.5000;0.7546;1.6943;
-121.2000;0.7546;1.6968;
-120.9000;0.7521;1.6847;
-120.6000;0.7578;1.6919;
-120.3000;0.7578;1.6823;
-120.0000;0.7603;1.6919;
-119.7000;0.7570;1.6847;
-119.4000;0.7611;1.6943;
-119.1000;0.7562;1.6871;
-118.8000;0.7562;1.6919;
-118.5000;0.7578;1.6895;
-118.2000;0.7578;1.6798;
-117.9000;0.7578;1.6774;
-117.6000;0.7603;1.6871;
-117.3000;0.7570;1.6871;
-117.0000;0.7570;1.6895;
-116.7000;0.7562;1.6798;
-116.4000;0.7570;1.6750;
-116.1000;0.7562;1.6702;
-115.8000;0.7595;1.6750;
-115.5000;0.7578;1.6702;
-115.2000;0.7578;1.6726;
-114.9000;0.7562;1.6750;
-114.6000;0.7578;1.6798;
-114.3000;0.7578;1.6823;
-114.0000;0.7570;1.6726;
-113.7000;0.7586;1.6774;
-113.4000;0.7603;1.6774;
-113.1000;0.7586;1.6653;
-112.8000;0.7578;1.6605;
-112.5000;0.7595;1.6678;
-112.2000;0.7570;1.6750;
-111.9000;0.7578;1.6798;
-111.6000;0.7570;1.6847;
-111.3000;0.7570;1.6871;
-111.0000;0.7578;1.6919;
-110.7000;0.7570;1.6919;
-110.4000;0.7586;1.6968;
-110.1000;0.7570;1.6871;
-109.8000;0.7586;1.6895;
-109.5000;0.7554;1.6774;
-109.2000;0.7570;1.6871;
-108.9000;0.7586;1.6871;
-108.6000;0.7570;1.6823;
-108.3000;0.7562;1.6750;
-108.0000;0.7570;1.6919;
-107.7000;0.7603;1.7040;
-107.4000;0.7578;1.7016;
-107.1000;0.7562;1.6968;
-106.8000;0.7554;1.6823;
-106.5000;0.7562;1.6798;
-106.2000;0.7521;1.6678;
-105.9000;0.7570;1.6774;
-105.6000;0.7578;1.6798;
-105.3000;0.7497;1.6581;
-105.0000;0.7578;1.6798;
-104.7000;0.7570;1.6798;
-104.4000;0.7652;1.7016;
-104.1000;0.7578;1.6774;
-103.8000;0.7586;1.6702;
-103.5000;0.7668;1.6871;
-103.2000;0.7570;1.6702;
-102.9000;0.7562;1.6750;
-102.6000;0.7530;1.6750;
-102.3000;0.7603;1.6895;
-102.0000;0.7570;1.6847;
-101.7000;0.7578;1.6847;
-101.4000;0.7570;1.6798;
-101.1000;0.7570;1.6774;
-100.8000;0.7570;1.6774;
-100.5000;0.7513;1.6726;
-100.2000;0.7578;1.6943;
-99.9000;0.7554;1.6895;
-99.6000;0.7570;1.7113;
-99.3000;0.7578;1.7064;
-99.0000;0.7595;1.7185;
-98.7000;0.7578;1.7113;
-98.4000;0.7586;1.7088;
-98.1000;0.7570;1.7040;
-97.8000;0.7578;1.7137;
-97.5000;0.7554;1.7161;
-97.2000;0.7570;1.7088;
-96.9000;0.7562;1.7088;
-96.6000;0.7562;1.7088;
-96.3000;0.7570;1.7088;
-96.0000;0.7570;1.7088;
-95.7000;0.7562;1.7040;
-95.4000;0.7538;1.7016;
-95.1000;0.7554;1.7016;
-94.8000;0.7570;1.7064;
-94.5000;0.7595;1.7064;
-94.2000;0.7586;1.7016;
-93.9000;0.7570;1.6968;
-93.6000;0.7546;1.6968;
-93.3000;0.7586;1.7113;
-93.0000;0.7570;1.7113;
-92.7000;0.7595;1.7088;
-92.4000;0.7586;1.7064;
-92.1000;0.7603;1.7137;
-91.8000;0.7570;1.7137;
-91.5000;0.7570;1.7233;
-91.2000;0.7586;1.7306;
-90.9000;0.7578;1.7258;
-90.6000;0.7562;1.7185;
-90.3000;0.7578;1.7185;
-90.0000;0.7570;1.7185;
-89.7000;0.7603;1.7258;
-89.4000;0.7595;1.7258;
-89.1000;0.7586;1.7209;
-88.8000;0.7578;1.7258;
-88.5000;0.7570;1.7233;
-88.2000;0.7586;1.7233;
-87.9000;0.7530;1.7040;
-87.6000;0.7562;1.7040;
-87.3000;0.7578;1.7113;
-87.0000;0.7586;1.7088;
-86.7000;0.7578;1.7064;
-86.4000;0.7578;1.7064;
-86.1000;0.7570;1.7040;
-85.8000;0.7562;1.7040;
-85.5000;0.7562;1.6919;
-85.2000;0.7578;1.6968;
-84.9000;0.7562;1.6847;
-84.6000;0.7562;1.6847;
-84.3000;0.7570;1.6774;
-84.0000;0.7586;1.6847;
-83.7000;0.7586;1.6847;
-83.4000;0.7578;1.6871;
-83.1000;0.7586;1.6968;
-82.8000;0.7562;1.6919;
-82.5000;0.7570;1.6871;
-82.2000;0.7570;1.6895;
-81.9000;0.7578;1.6919;
-81.6000;0.7546;1.6895;
-81.3000;0.7562;1.6968;
-81.0000;0.7562;1.6992;
-80.7000;0.7586;1.7040;
-80.4000;0.7595;1.7064;
-80.1000;0.7586;1.7137;
-79.8000;0.7570;1.7161;
-79.5000;0.7595;1.7137;
-79.2000;0.7578;1.7088;
-78.9000;0.7570;1.7088;
-78.6000;0.7562;1.7113;
-78.3000;0.7570;1.7064;
-78.0000;0.7578;1.7137;
-77.7000;0.7554;1.7040;
-77.4000;0.7578;1.7040;
-77.1000;0.7570;1.7137;
-76.8000;0.7570;1.7233;
-76.5000;0.7570;1.7161;
-76.2000;0.7578;1.7088;
-75.9000;0.7570;1.7088;
-75.6000;0.7562;1.7088;
-75.3000;0.7578;1.7137;
-75.0000;0.7578;1.7064;
-74.7000;0.7570;1.7064;
-74.4000;0.7578;1.7113;
-74.1000;0.7586;1.7040;
-73.8000;0.7586;1.6992;
-73.5000;0.7570;1.6968;
-73.2000;0.7586;1.6992;
-72.9000;0.7586;1.7016;
-72.6000;0.7586;1.7113;
-72.3000;0.7578;1.7209;
-72.0000;0.7562;1.7233;
-71.7000;0.7578;1.7258;
-71.4000;0.7497;1.7088;
-71.1000;0.7562;1.7185;
-70.8000;0.7554;1.7088;
-70.5000;0.7570;1.7137;
-70.2000;0.7570;1.7040;
-69.9000;0.7562;1.6943;
-69.6000;0.7562;1.6847;
-69.3000;0.7562;1.6823;
-69.0000;0.7595;1.6919;
-68.7000;0.7578;1.7016;
-68.4000;0.7570;1.6992;
-68.1000;0.7538;1.6968;
-67.8000;0.7570;1.7137;
-67.5000;0.7578;1.7161;
-67.2000;0.7554;1.7088;
-66.9000;0.7570;1.7064;
-66.6000;0.7578;1.7064;
-66.3000;0.7586;1.7113;
-66.0000;0.7578;1.7040;
-65.7000;0.7538;1.6968;
-65.4000;0.7570;1.7161;
-65.1000;0.7586;1.7209;
-64.8000;0.7578;1.7233;
-64.5000;0.7570;1.7282;
-64.2000;0.7562;1.7209;
-63.9000;0.7586;1.7185;
-63.6000;0.7570;1.7137;
-63.3000;0.7603;1.7161;
-63.0000;0.7578;1.7016;
-62.7000;0.7578;1.6992;
-62.4000;0.7595;1.7016;
-62.1000;0.7578;1.7040;
-61.8000;0.7570;1.6943;
-61.5000;0.7570;1.7016;
-61.2000;0.7578;1.6968;
-60.9000;0.7562;1.6919;
-60.6000;0.7586;1.7016;
-60.3000;0.7570;1.6992;
-60.0000;0.7578;1.6992;
-59.7000;0.7562;1.6968;
-59.4000;0.7570;1.7064;
-59.1000;0.7562;1.7088;
-58.8000;0.7578;1.7161;
-58.5000;0.7538;1.7064;
-58.2000;0.7570;1.7161;
-57.9000;0.7570;1.7137;
-57.6000;0.7586;1.7088;
-57.3000;0.7570;1.7113;
-57.0000;0.7578;1.7113;
-56.7000;0.7578;1.7040;
-56.4000;0.7570;1.7016;
-56.1000;0.7570;1.7040;
-55.8000;0.7578;1.7064;
-55.5000;0.7521;1.6919;
-55.2000;0.7570;1.7040;
-54.9000;0.7578;1.7040;
-54.6000;0.7603;1.7088;
-54.3000;0.7562;1.6992;
-54.0000;0.7570;1.6992;
-53.7000;0.7578;1.6943;
-53.4000;0.7570;1.6919;
-53.1000;0.7570;1.6943;
-52.8000;0.7562;1.6798;
-52.5000;0.7578;1.6871;
-52.2000;0.7562;1.6895;
-51.9000;0.7562;1.6992;
-51.6000;0.7570;1.6968;
-51.3000;0.7586;1.6968;
-51.0000;0.7570;1.6943;
-50.7000;0.7562;1.6919;
-50.4000;0.7570;1.6895;
-50.1000;0.7586;1.6968;
-49.8000;0.7595;1.7040;
-49.5000;0.7586;1.6919;
-49.2000;0.7570;1.6895;
-48.9000;0.7595;1.6943;
-48.6000;0.7578;1.6943;
-48.3000;0.7578;1.6992;
-48.0000;0.7611;1.7113;
-47.7000;0.7586;1.7064;
-47.4000;0.7652;1.7282;
-47.1000;0.7586;1.7113;
-46.8000;0.7595;1.7113;
-46.5000;0.7586;1.7113;
-46.2000;0.7570;1.6968;
-45.9000;0.7603;1.7088;
-45.6000;0.7578;1.7040;
-45.3000;0.7570;1.6943;
-45.0000;0.7578;1.6943;
-44.7000;0.7595;1.6895;
-44.4000;0.7586;1.6871;
-44.1000;0.7611;1.6992;
-43.8000;0.7570;1.6847;
-43.5000;0.7570;1.6847;
-43.2000;0.7578;1.6919;
-42.9000;0.7562;1.6895;
-42.6000;0.7570;1.6919;
-42.3000;0.7562;1.6895;
-42.0000;0.7586;1.6943;
-41.7000;0.7562;1.6871;
-41.4000;0.7586;1.6847;
-41.1000;0.7578;1.6798;
-40.8000;0.7578;1.6847;
-40.5000;0.7562;1.6847;
-40.2000;0.7562;1.6847;
-39.9000;0.7546;1.6823;
-39.6000;0.7570;1.6968;
-39.3000;0.7570;1.6992;
-39.0000;0.7562;1.6943;
-38.7000;0.7586;1.6943;
-38.4000;0.7570;1.6943;
-38.1000;0.7586;1.6968;
-37.8000;0.7570;1.6919;
-37.5000;0.7562;1.6871;
-37.2000;0.7586;1.6895;
-36.9000;0.7578;1.6919;
-36.6000;0.7578;1.6919;
-36.3000;0.7562;1.6919;
-36.0000;0.7578;1.6968;
-35.7000;0.7603;1.7064;
-35.4000;0.7578;1.7040;
-35.1000;0.7578;1.6968;
-34.8000;0.7603;1.7064;
-34.5000;0.7570;1.6992;
-34.2000;0.7578;1.7016;
-33.9000;0.7570;1.6943;
-33.6000;0.7586;1.6992;
-33.3000;0.7603;1.6968;
-33.0000;0.7595;1.7040;
-32.7000;0.7578;1.7040;
-32.4000;0.7578;1.6992;
-32.1000;0.7578;1.6968;
-31.8000;0.7578;1.6919;
-31.5000;0.7578;1.6847;
-31.2000;0.7586;1.6871;
-30.9000;0.7578;1.6919;
-30.6000;0.7570;1.6943;
-30.3000;0.7611;1.7016;
-30.0000;0.7570;1.6871;
-29.7000;0.7578;1.6968;
-29.4000;0.7595;1.7088;
-29.1000;0.7570;1.7016;
-28.8000;0.7570;1.7016;
-28.5000;0.7570;1.7040;
-28.2000;0.7554;1.7064;
-27.9000;0.7578;1.7161;
-27.6000;0.7562;1.7137;
-27.3000;0.7570;1.7161;
-27.0000;0.7513;1.7064;
-26.7000;0.7578;1.7209;
-26.4000;0.7570;1.7209;
-26.1000;0.7570;1.7233;
-25.8000;0.7570;1.7233;
-25.5000;0.7578;1.7185;
-25.2000;0.7570;1.7113;
-24.9000;0.7554;1.7088;
-24.6000;0.7578;1.7064;
-24.3000;0.7586;1.7113;
-24.0000;0.7586;1.7113;
-23.7000;0.7586;1.7185;
-23.4000;0.7578;1.7209;
-23.1000;0.7595;1.7185;
-22.8000;0.7586;1.7113;
-22.5000;0.7586;1.7064;
-22.2000;0.7570;1.7040;
-21.9000;0.7586;1.7137;
-21.6000;0.7595;1.7137;
-21.3000;0.7570;1.7064;
-21.0000;0.7578;1.7064;
-20.7000;0.7570;1.7113;
-20.4000;0.7578;1.7161;
-20.1000;0.7578;1.7185;
-19.8000;0.7586;1.7233;
-19.5000;0.7586;1.7282;
-19.2000;0.7603;1.7258;
-18.9000;0.7586;1.7161;
-18.6000;0.7578;1.7137;
-18.3000;0.7603;1.7161;
-18.0000;0.7562;1.7137;
-17.7000;0.7570;1.7137;
-17.4000;0.7586;1.7113;
-17.1000;0.7570;1.7088;
-16.8000;0.7570;1.7113;
-16.5000;0.7562;1.7040;
-16.2000;0.7570;1.7040;
-15.9000;0.7554;1.6943;
-15.6000;0.7578;1.7064;
-15.3000;0.7578;1.7064;
-15.0000;0.7578;1.7064;
-14.7000;0.7562;1.6992;
-14.4000;0.7611;1.7161;
-14.1000;0.7538;1.6992;
-13.8000;0.7578;1.7040;
-13.5000;0.7562;1.6992;
-13.2000;0.7578;1.7040;
-12.9000;0.7578;1.7040;
-12.6000;0.7570;1.6968;
-12.3000;0.7570;1.6992;
-12.0000;0.7586;1.7016;
-11.7000;0.7562;1.6968;
-11.4000;0.7595;1.7016;
-11.1000;0.7603;1.7040;
-10.8000;0.7554;1.6968;
-10.5000;0.7578;1.6968;
-10.2000;0.7554;1.6943;
-9.9000;0.7578;1.7040;
-9.6000;0.7619;1.7137;
-9.3000;0.7578;1.7040;
-9.0000;0.7570;1.7064;
-8.7000;0.7562;1.6943;
-8.4000;0.7570;1.6992;
-8.1000;0.7570;1.7040;
-7.8000;0.7562;1.7040;
-7.5000;0.7570;1.7113;
-7.2000;0.7603;1.7209;
-6.9000;0.7578;1.7185;
-6.6000;0.7652;1.7282;
-6.3000;0.7570;1.7040;
-6.0000;0.7570;1.6992;
-5.7000;0.7546;1.6968;
-5.4000;0.7562;1.6895;
-5.1000;0.7570;1.6895;
-4.8000;0.7578;1.6992;
-4.5000;0.7570;1.6943;
-4.2000;0.7530;1.6823;
-3.9000;0.7554;1.6895;
-3.6000;0.7578;1.6895;
-3.3000;0.7586;1.6847;
-3.0000;0.7570;1.6871;
-2.7000;0.7546;1.6823;
-2.4000;0.7562;1.6968;
-2.1000;0.7578;1.6968;
-1.8000;0.7562;1.6871;
-1.5000;0.7578;1.7016;
-1.2000;0.7570;1.7064;
-0.9000;0.7586;1.7185;
-0.6000;0.7554;1.7064;
-0.3000;0.7546;1.7040;
0.0000;0.7546;1.7040;
0.3000;0.7912;1.7548;
0.6000;0.8457;1.8007;
0.9000;0.8897;1.8539;
1.2000;0.9223;1.8877;
1.5000;0.9499;1.9288;
1.8000;0.9678;1.9457;
2.1000;0.9858;1.9675;
2.4000;0.9996;1.9892;
2.7000;1.0085;2.0061;
3.0000;1.0240;2.0472;
3.3000;1.0289;2.0593;
3.6000;1.0387;2.0690;
3.9000;1.0460;2.0883;
4.2000;1.0517;2.0956;
4.5000;1.0558;2.0956;
4.8000;1.0623;2.1052;
5.1000;1.0672;2.1077;
5.4000;1.0720;2.1149;
5.7000;1.0753;2.1173;
6.0000;1.0802;2.1125;
6.3000;1.0867;2.1173;
6.6000;1.0875;2.1101;
6.9000;1.0932;2.1101;
7.2000;1.0956;2.1077;
7.5000;1.1005;2.1197;
7.8000;1.1038;2.1197;
8.1000;1.1095;2.1246;
8.4000;1.1136;2.1246;
8.7000;1.1184;2.1270;
9.0000;1.1225;2.1270;
9.3000;1.1217;2.1173;
9.6000;1.1298;2.1197;
9.9000;1.1290;2.1125;
10.2000;1.1323;2.1125;
10.5000;1.1355;2.1125;
10.8000;1.1380;2.1101;
11.1000;1.1412;2.1125;
11.4000;1.1453;2.1125;
11.7000;1.1412;2.0980;
12.0000;1.1510;2.1149;
12.3000;1.1526;2.1222;
12.6000;1.1559;2.1222;
12.9000;1.1616;2.1270;
13.2000;1.1616;2.1197;
13.5000;1.1640;2.1173;
13.8000;1.1665;2.1222;
14.1000;1.1697;2.1222;
14.4000;1.1705;2.1077;
14.7000;1.1738;2.1028;
15.0000;1.1770;2.1077;
15.3000;1.1787;2.0980;
15.6000;1.1803;2.1004;
15.9000;1.1819;2.1004;
16.2000;1.1836;2.0980;
16.5000;1.1876;2.1028;
16.8000;1.1893;2.1004;
17.1000;1.1893;2.1004;
17.4000;1.1917;2.1052;
17.7000;1.1941;2.1173;
18.0000;1.1966;2.1101;
18.3000;1.1966;2.1004;
18.6000;1.1998;2.0980;
18.9000;1.2015;2.1077;
19.2000;1.2047;2.1149;
19.5000;1.2039;2.1101;
19.8000;1.2047;2.0980;
20.1000;1.2088;2.1004;
20.4000;1.2080;2.1052;
20.7000;1.2112;2.1028;
21.0000;1.2120;2.1052;
21.3000;1.2120;2.1052;
21.6000;1.2177;2.1077;
21.9000;1.2177;2.1052;
22.2000;1.2161;2.1101;
22.5000;1.2177;2.1052;
22.8000;1.2218;2.1149;
23.1000;1.2234;2.1125;
23.4000;1.2210;2.1028;
23.7000;1.2194;2.0980;
24.0000;1.2202;2.1052;
24.3000;1.2267;2.1149;
24.6000;1.2243;2.1101;
24.9000;1.2251;2.1101;
25.2000;1.2275;2.1125;
25.5000;1.2283;2.1101;
25.8000;1.2316;2.1173;
26.1000;1.2283;2.1125;
26.4000;1.2316;2.1125;
26.7000;1.2381;2.1294;
27.0000;1.2332;2.1052;
27.3000;1.2340;2.1052;
27.6000;1.2348;2.1004;
27.9000;1.2414;2.1149;
28.2000;1.2348;2.0956;
28.5000;1.2348;2.0956;
28.8000;1.2405;2.1028;
29.1000;1.2365;2.1052;
29.4000;1.2365;2.1077;
29.7000;1.2357;2.1004;
30.0000;1.2405;2.1125;
30.3000;1.2405;2.1173;
30.6000;1.2422;2.1197;
30.9000;1.2389;2.1101;
31.2000;1.2405;2.1149;
31.5000;1.2422;2.1173;
31.8000;1.2422;2.1246;
32.1000;1.2430;2.1173;
32.4000;1.2438;2.1101;
32.7000;1.2438;2.1077;
33.0000;1.2454;2.1222;
33.3000;1.2470;2.1149;
33.6000;1.2454;2.1052;
33.9000;1.2462;2.1149;
34.2000;1.2470;2.1149;
34.5000;1.2503;2.1125;
34.8000;1.2454;2.1004;
35.1000;1.2487;2.1028;
35.4000;1.2487;2.1052;
35.7000;1.2503;2.1077;
36.0000;1.2503;2.1101;
36.3000;1.2438;2.1052;
36.6000;1.2454;2.1101;
36.9000;1.2503;2.1222;
37.2000;1.2503;2.1149;
37.5000;1.2487;2.0956;
37.8000;1.2511;2.1004;
38.1000;1.2536;2.1028;
38.4000;1.2511;2.1052;
38.7000;1.2552;2.1149;
39.0000;1.2536;2.1101;
39.3000;1.2536;2.1125;
39.6000;1.2560;2.1197;
39.9000;1.2552;2.1149;
40.2000;1.2544;2.1101;
40.5000;1.2576;2.1125;
40.8000;1.2544;2.1149;
41.1000;1.2552;2.1173;
41.4000;1.2560;2.1222;
41.7000;1.2511;2.1028;
42.0000;1.2552;2.1125;
42.3000;1.2576;2.1173;
42.6000;1.2536;2.1125;
42.9000;1.2584;2.1173;
43.2000;1.2568;2.1125;
43.5000;1.2568;2.1125;
43.8000;1.2568;2.1197;
44.1000;1.2544;2.1101;
44.4000;1.2601;2.1173;
44.7000;1.2593;2.1125;
45.0000;1.2584;2.1125;
45.3000;1.2601;2.1197;
45.6000;1.2601;2.1173;
45.9000;1.2641;2.1222;
46.2000;1.2560;2.1004;
46.5000;1.2609;2.1077;
46.8000;1.2593;2.1101;
47.1000;1.2609;2.1246;
47.4000;1.2593;2.1197;
47.7000;1.2601;2.1222;
48.0000;1.2527;2.1028;
48.3000;1.2601;2.1197;
48.6000;1.2609;2.1125;
48.9000;1.2609;2.1125;
49.2000;1.2609;2.1173;
49.5000;1.2625;2.1125;
49.8000;1.2633;2.1173;
50.1000;1.2609;2.1101;
50.4000;1.2625;2.1101;
50.7000;1.2617;2.1173;
51.0000;1.2625;2.1149;
51.3000;1.2625;2.1149;
51.6000;1.2609;2.1004;
51.9000;1.2682;2.1149;
52.2000;1.2633;2.0956;
52.5000;1.2633;2.1028;
52.8000;1.2593;2.0859;
53.1000;1.2641;2.0980;
53.4000;1.2633;2.1004;
53.7000;1.2650;2.1125;
54.0000;1.2633;2.1149;
54.3000;1.2641;2.1149;
54.6000;1.2633;2.1125;
54.9000;1.2641;2.1125;
55.2000;1.2666;2.1197;
55.5000;1.2650;2.1149;
55.8000;1.2658;2.1149;
56.1000;1.2658;2.1197;
56.4000;1.2666;2.1173;
56.7000;1.2650;2.1197;
57.0000;1.2658;2.1318;
57.3000;1.2666;2.1318;
57.6000;1.2674;2.1246;
57.9000;1.2650;2.1101;
58.2000;1.2650;2.1077;
58.5000;1.2584;2.0883;
58.8000;1.2666;2.1149;
59.1000;1.2658;2.1101;
59.4000;1.2658;2.1052;
59.7000;1.2658;2.1052;
60.0000;1.2690;2.1077;
60.3000;1.2731;2.1173;
60.6000;1.2715;2.1101;
60.9000;1.2617;2.0883;
61.2000;1.2682;2.1028;
61.5000;1.2682;2.1077;
61.8000;1.2674;2.0980;
62.1000;1.2674;2.1028;
62.4000;1.2698;2.1028;
62.7000;1.2682;2.0931;
63.0000;1.2666;2.0907;
63.3000;1.2658;2.0883;
63.6000;1.2698;2.1004;
63.9000;1.2682;2.0956;
64.2000;1.2666;2.0907;
64.5000;1.2658;2.0859;
64.8000;1.2666;2.0811;
65.1000;1.2698;2.0835;
65.4000;1.2690;2.0811;
65.7000;1.2674;2.0762;
66.0000;1.2690;2.0811;
66.3000;1.2698;2.0786;
66.6000;1.2682;2.0762;
66.9000;1.2715;2.0835;
67.2000;1.2682;2.0738;
67.5000;1.2690;2.0786;
67.8000;1.2690;2.0835;
68.1000;1.2698;2.0786;
68.4000;1.2690;2.0786;
68.7000;1.2698;2.0714;
69.0000;1.2715;2.0714;
69.3000;1.2682;2.0714;
69.6000;1.2707;2.0762;
69.9000;1.2690;2.0738;
70.2000;1.2707;2.0786;
70.5000;1.2715;2.0762;
70.8000;1.2698;2.0786;
71.1000;1.2723;2.0907;
71.4000;1.2723;2.0931;
71.7000;1.2715;2.0883;
72.0000;1.2715;2.0907;
72.3000;1.2723;2.0956;
72.6000;1.2698;2.0931;
72.9000;1.2707;2.0931;
73.2000;1.2715;2.0859;
73.5000;1.2707;2.0859;
73.8000;1.2731;2.0883;
74.1000;1.2723;2.0883;
74.4000;1.2715;2.0931;
74.7000;1.2715;2.0931;
75.0000;1.2698;2.0956;
75.3000;1.2715;2.0956;
75.6000;1.2698;2.0907;
75.9000;1.2739;2.0931;
76.2000;1.2723;2.0859;
76.5000;1.2690;2.0859;
76.8000;1.2723;2.0907;
77.1000;1.2707;2.0883;
77.4000;1.2715;2.0883;
77.7000;1.2723;2.0956;
78.0000;1.2723;2.1028;
78.3000;1.2715;2.1052;
78.6000;1.2698;2.1052;
78.9000;1.2715;2.1077;
79.2000;1.2723;2.1101;
79.5000;1.2707;2.1052;
79.8000;1.2747;2.1125;
80.1000;1.2715;2.1028;
80.4000;1.2723;2.1028;
80.7000;1.2715;2.0980;
81.0000;1.2723;2.1004;
81.3000;1.2715;2.1052;
81.6000;1.2755;2.1149;
81.9000;1.2641;2.0980;
82.2000;1.2731;2.1222;
82.5000;1.2698;2.1222;
82.8000;1.2723;2.1246;
83.1000;1.2715;2.1125;
83.4000;1.2747;2.1173;
83.7000;1.2715;2.1101;
84.0000;1.2715;2.1101;
84.3000;1.2723;2.1101;
84.6000;1.2698;2.0980;
84.9000;1.2780;2.1125;
85.2000;1.2715;2.0956;
85.5000;1.2747;2.1077;
85.8000;1.2690;2.1004;
86.1000;1.2707;2.1004;
86.4000;1.2755;2.1149;
86.7000;1.2747;2.1149;
87.0000;1.2731;2.1149;
87.3000;1.2731;2.1101;
87.6000;1.2723;2.1101;
87.9000;1.2723;2.1052;
88.2000;1.2755;2.1052;
88.5000;1.2755;2.0931;
88.8000;1.2682;2.0714;
89.1000;1.2739;2.0762;
89.4000;1.2723;2.0738;
89.7000;1.2698;2.0738;
90.0000;1.2723;2.0859;
90.3000;1.2731;2.0883;
90.6000;1.2747;2.0859;
90.9000;1.2739;2.0811;
91.2000;1.2747;2.0811;
91.5000;1.2747;2.0859;
91.8000;1.2739;2.0811;
92.1000;1.2739;2.0762;
92.4000;1.2755;2.0786;
92.7000;1.2723;2.0738;
93.0000;1.2739;2.0762;
93.3000;1.2739;2.0786;
93.6000;1.2739;2.0714;
93.9000;1.2731;2.0690;
94.2000;1.2739;2.0714;
94.5000;1.2739;2.0786;
94.8000;1.2764;2.0956;
95.1000;1.2731;2.0907;
95.4000;1.2723;2.0835;
95.7000;1.2747;2.0835;
96.0000;1.2747;2.0907;
96.3000;1.2739;2.0883;
96.6000;1.2707;2.0738;
96.9000;1.2747;2.0859;
97.2000;1.2739;2.0907;
97.5000;1.2731;2.0956;
97.8000;1.2739;2.1077;
98.1000;1.2731;2.0980;
98.4000;1.2739;2.1077;
98.7000;1.2739;2.1052;
99.0000;1.2747;2.0931;
99.3000;1.2731;2.0811;
99.6000;1.2772;2.0907;
99.9000;1.2755;2.0883;
100.2000;1.2723;2.0859;
100.5000;1.2747;2.0835;
100.8000;1.2739;2.0738;
101.1000;1.2764;2.0714;
101.4000;1.2739;2.0690;
101.7000;1.2755;2.0641;
102.0000;1.2788;2.0835;
102.3000;1.2780;2.0762;
102.6000;1.2698;2.0641;
102.9000;1.2698;2.0641;
103.2000;1.2755;2.0762;
103.5000;1.2780;2.0883;
103.8000;1.2772;2.0907;
104.1000;1.2747;2.0811;
104.4000;1.2739;2.0811;
104.7000;1.2755;2.0835;
105.0000;1.2731;2.0714;
105.3000;1.2731;2.0762;
105.6000;1.2731;2.0835;
105.9000;1.2723;2.0811;
106.2000;1.2747;2.0907;
106.5000;1.2739;2.0931;
106.8000;1.2731;2.0883;
107.1000;1.2747;2.0956;
107.4000;1.2780;2.1028;
107.7000;1.2731;2.0956;
108.0000;1.2731;2.0956;
108.3000;1.2731;2.0980;
108.6000;1.2755;2.1028;
108.9000;1.2821;2.1173;
109.2000;1.2731;2.0859;
109.5000;1.2747;2.0883;
109.8000;1.2747;2.0907;
110.1000;1.2764;2.0907;
110.4000;1.2764;2.0835;
110.7000;1.2747;2.0666;
111.0000;1.2747;2.0641;
111.3000;1.2772;2.0641;
111.6000;1.2755;2.0666;
111.9000;1.2731;2.0641;
112.2000;1.2747;2.0690;
112.5000;1.2755;2.0786;
112.8000;1.2764;2.0883;
113.1000;1.2731;2.0786;
113.4000;1.2755;2.0762;
113.7000;1.2772;2.0738;
114.0000;1.2739;2.0714;
114.3000;1.2796;2.0859;
114.6000;1.2739;2.0786;
114.9000;1.2739;2.0738;
115.2000;1.2755;2.0738;
115.5000;1.2739;2.0714;
115.8000;1.2755;2.0738;
116.1000;1.2747;2.0666;
116.4000;1.2772;2.0738;
116.7000;1.2739;2.0690;
117.0000;1.2747;2.0714;
117.3000;1.2772;2.0762;
117.6000;1.2772;2.0714;
117.9000;1.2755;2.0835;
118.2000;1.2747;2.0859;
118.5000;1.2755;2.0907;
118.8000;1.2796;2.0980;
119.1000;1.2755;2.0786;
119.4000;1.2731;2.0786;
119.7000;1.2715;2.0714;
120.0000;1.2747;2.0811;
120.3000;1.2739;2.0811;
120.6000;1.2739;2.0931;
120.9000;1.2788;2.0907;
121.2000;1.2715;2.0641;
121.5000;1.2739;2.0641;
121.8000;1.2764;2.0738;
122.1000;1.2796;2.0883;
122.4000;1.2755;2.0762;
122.7000;1.2755;2.0714;
123.0000;1.2780;2.0738;
123.3000;1.2772;2.0641;
123.6000;1.2772;2.0714;
123.9000;1.2772;2.0738;
124.2000;1.2755;2.0738;
124.5000;1.2739;2.0762;
124.8000;1.2747;2.0666;
125.1000;1.2772;2.0666;
125.4000;1.2780;2.0738;
125.7000;1.2764;2.0690;
126.0000;1.2772;2.0762;
126.3000;1.2755;2.0666;
126.6000;1.2739;2.0617;
126.9000;1.2747;2.0714;
127.2000;1.2764;2.0811;
127.5000;1.2764;2.0811;
127.8000;1.2764;2.0811;
128.1000;1.2772;2.0859;
128.4000;1.2764;2.0811;
128.7000;1.2772;2.0738;
129.0000;1.2788;2.0786;
129.3000;1.2755;2.0666;
129.6000;1.2764;2.0666;
129.9000;1.2764;2.0714;
130.2000;1.2747;2.0641;
130.5000;1.2755;2.0641;
130.8000;1.2755;2.0593;
131.1000;1.2764;2.0593;
131.4000;1.2772;2.0617;
131.7000;1.2796;2.0714;
132.0000;1.2747;2.0666;
132.3000;1.2764;2.0714;
132.6000;1.2755;2.0714;
132.9000;1.2755;2.0738;
133.2000;1.2764;2.0738;
133.5000;1.2747;2.0666;
133.8000;1.2772;2.0714;
134.1000;1.2764;2.0666;
134.4000;1.2764;2.0617;
134.7000;1.2739;2.0617;
135.0000;1.2739;2.0690;
135.3000;1.2755;2.0738;
135.6000;1.2731;2.0762;
135.9000;1.2755;2.0714;
136.2000;1.2812;2.0883;
136.5000;1.2772;2.0883;
136.8000;1.2788;2.0859;
137.1000;1.2772;2.0811;
137.4000;1.2780;2.0786;
137.7000;1.2772;2.0811;
138.0000;1.2780;2.0811;
138.3000;1.2772;2.0811;
138.6000;1.2780;2.0883;
138.9000;1.2755;2.0883;
139.2000;1.2780;2.0931;
139.5000;1.2772;2.0786;
139.8000;1.2747;2.0738;
140.1000;1.2755;2.0714;
140.4000;1.2747;2.0641;
140.7000;1.2747;2.0593;
141.0000;1.2764;2.0593;
141.3000;1.2755;2.0472;
141.6000;1.2764;2.0521;
141.9000;1.2780;2.0593;
142.2000;1.2715;2.0327;
142.5000;1.2764;2.0400;
142.8000;1.2780;2.0448;
143.1000;1.2772;2.0472;
143.4000;1.2788;2.0521;
143.7000;1.2698;2.0279;
144.0000;1.2764;2.0448;
144.3000;1.2772;2.0472;
144.6000;1.2747;2.0448;
144.9000;1.2739;2.0521;
145.2000;1.2755;2.0617;
145.5000;1.2747;2.0521;
145.8000;1.2772;2.0593;
146.1000;1.2755;2.0496;
146.4000;1.2747;2.0400;
146.7000;1.2772;2.0448;
147.0000;1.2755;2.0327;
147.3000;1.2747;2.0351;
147.6000;1.2731;2.0424;
147.9000;1.2764;2.0496;
148.2000;1.2764;2.0521;
148.5000;1.2837;2.0641;
148.8000;1.2731;2.0351;
149.1000;1.2772;2.0424;
149.4000;1.2747;2.0496;
149.7000;1.2723;2.0472;
150.0000;1.2755;2.0521;
150.3000;1.2764;2.0569;
150.6000;1.2772;2.0569;
150.9000;1.2812;2.0762;
151.2000;1.2764;2.0666;
151.5000;1.2755;2.0738;
151.8000;1.2755;2.0690;
152.1000;1.2764;2.0641;
152.4000;1.2780;2.0690;
152.7000;1.2780;2.0690;
153.0000;1.2764;2.0666;
153.3000;1.2764;2.0690;
153.6000;1.2755;2.0617;
153.9000;1.2772;2.0593;
154.2000;1.2739;2.0569;
154.5000;1.2772;2.0641;
154.8000;1.2780;2.0593;
155.1000;1.2755;2.0521;
155.4000;1.2772;2.0641;
155.7000;1.2764;2.0641;
156.0000;1.2755;2.0641;
156.3000;1.2772;2.0666;
156.6000;1.2772;2.0690;
156.9000;1.2755;2.0762;
157.2000;1.2772;2.0859;
157.5000;1.2764;2.0811;
157.8000;1.2755;2.0714;
158.1000;1.2780;2.0714;
158.4000;1.2780;2.0666;
158.7000;1.2747;2.0641;
159.0000;1.2755;2.0666;
159.3000;1.2755;2.0714;
159.6000;1.2747;2.0641;
159.9000;1.2772;2.0666;
160.2000;1.2755;2.0714;
160.5000;1.2772;2.0762;
160.8000;1.2780;2.0762;
161.1000;1.2788;2.0714;
161.4000;1.2764;2.0666;
161.7000;1.2764;2.0617;
162.0000;1.2747;2.0569;
162.3000;1.2764;2.0521;
162.6000;1.2764;2.0496;
162.9000;1.2772;2.0521;
163.2000;1.2715;2.0448;
163.5000;1.2764;2.0448;
163.8000;1.2755;2.0400;
164.1000;1.2764;2.0400;
164.4000;1.2747;2.0376;
164.7000;1.2747;2.0424;
165.0000;1.2764;2.0521;
165.3000;1.2747;2.0472;
165.6000;1.2747;2.0448;
165.9000;1.2755;2.0424;
166.2000;1.2772;2.0424;
166.5000;1.2747;2.0376;
166.8000;1.2764;2.0376;
167.1000;1.2764;2.0327;
167.4000;1.2755;2.0351;
167.7000;1.2772;2.0448;
168.0000;1.2747;2.0496;
168.3000;1.2764;2.0617;
168.6000;1.2788;2.0666;
168.9000;1.2772;2.0641;
169.2000;1.2772;2.0738;
169.5000;1.2755;2.0738;
169.8000;1.2772;2.0762;
170.1000;1.2772;2.0762;
170.4000;1.2772;2.0786;
170.7000;1.2755;2.0738;
171.0000;1.2764;2.0666;
171.3000;1.2764;2.0641;
171.6000;1.2780;2.0690;
171.9000;1.2747;2.0738;
172.2000;1.2747;2.0690;
172.5000;1.2772;2.0738;
172.8000;1.2739;2.0641;
173.1000;1.2764;2.0738;
173.4000;1.2747;2.0714;
173.7000;1.2755;2.0641;
174.0000;1.2731;2.0545;
174.3000;1.2772;2.0641;
174.6000;1.2764;2.0690;
174.9000;1.2804;2.0714;
175.2000;1.2764;2.0593;
175.5000;1.2821;2.0666;
175.8000;1.2764;2.0521;
176.1000;1.2772;2.0521;
176.4000;1.2796;2.0593;
176.7000;1.2772;2.0593;
177.0000;1.2755;2.0617;
177.3000;1.2764;2.0593;
177.6000;1.2755;2.0569;
177.9000;1.2764;2.0569;
178.2000;1.2764;2.0448;
178.5000;1.2764;2.0376;
178.8000;1.2772;2.0521;
179.1000;1.2755;2.0472;
179.4000;1.2723;2.0448;
179.7000;1.2747;2.0569;
180.0000;1.2739;2.0593;
180.3000;1.2764;2.0593;
180.6000;1.2764;2.0496;
180.9000;1.2772;2.0545;
181.2000;1.2861;2.0738;
181.5000;1.2764;2.0496;
181.8000;1.2764;2.0496;
182.1000;1.2764;2.0472;
182.4000;1.2764;2.0424;
182.7000;1.2739;2.0351;
183.0000;1.2747;2.0376;
183.3000;1.2731;2.0400;
183.6000;1.2755;2.0376;
183.9000;1.2772;2.0303;
184.2000;1.2772;2.0327;
184.5000;1.2772;2.0351;
184.8000;1.2764;2.0376;
185.1000;1.2764;2.0376;
185.4000;1.2772;2.0351;
185.7000;1.2747;2.0303;
186.0000;1.2772;2.0351;
186.3000;1.2772;2.0400;
186.6000;1.2780;2.0448;
186.9000;1.2764;2.0376;
187.2000;1.2764;2.0400;
187.5000;1.2739;2.0376;
187.8000;1.2772;2.0448;
188.1000;1.2772;2.0448;
188.4000;1.2755;2.0400;
188.7000;1.2764;2.0327;
189.0000;1.2764;2.0303;
189.3000;1.2764;2.0327;
189.6000;1.2764;2.0351;
189.9000;1.2764;2.0303;
190.2000;1.2796;2.0424;
190.5000;1.2772;2.0279;
190.8000;1.2755;2.0231;
191.1000;1.2772;2.0351;
191.4000;1.2764;2.0303;
191.7000;1.2739;2.0351;
192.0000;1.2755;2.0400;
192.3000;1.2812;2.0593;
192.6000;1.2723;2.0424;
192.9000;1.2755;2.0521;
193.2000;1.2780;2.0496;
193.5000;1.2772;2.0593;
193.8000;1.2755;2.0617;
194.1000;1.2772;2.0641;
194.4000;1.2755;2.0690;
194.7000;1.2764;2.0641;
195.0000;1.2764;2.0569;
195.3000;1.2772;2.0617;
195.6000;1.2780;2.0569;
195.9000;1.2796;2.0545;
196.2000;1.2739;2.0496;
196.5000;1.2747;2.0545;
196.8000;1.2780;2.0641;
197.1000;1.2755;2.0545;
197.4000;1.2755;2.0521;
197.7000;1.2731;2.0400;
198.0000;1.2731;2.0424;
198.3000;1.2796;2.0521;
198.6000;1.2755;2.0400;
198.9000;1.2796;2.0521;
199.2000;1.2772;2.0545;
199.5000;1.2731;2.0496;
199.8000;1.2755;2.0545;
200.1000;1.2755;2.0714;
200.4000;1.2772;2.0714;
200.7000;1.2707;2.0569;
201.0000;1.2755;2.0593;
201.3000;1.2788;2.0666;
201.6000;1.2780;2.0617;
201.9000;1.2764;2.0569;
202.2000;1.2755;2.0593;
202.5000;1.2723;2.0496;
202.8000;1.2772;2.0569;
203.1000;1.2755;2.0472;
203.4000;1.2747;2.0472;
203.7000;1.2780;2.0545;
204.0000;1.2755;2.0496;
204.3000;1.2747;2.0545;
204.6000;1.2755;2.0617;
204.9000;1.2764;2.0617;
205.2000;1.2755;2.0593;
205.5000;1.2764;2.0569;
205.8000;1.2772;2.0617;
206.1000;1.2739;2.0617;
206.4000;1.2772;2.0641;
206.7000;1.2772;2.0762;
207.0000;1.2747;2.0666;
207.3000;1.2739;2.0569;
207.6000;1.2739;2.0593;
207.9000;1.2731;2.0593;
208.2000;1.2747;2.0666;
208.5000;1.2755;2.0641;
208.8000;1.2715;2.0545;
209.1000;1.2755;2.0690;
209.4000;1.2764;2.0690;
209.7000;1.2764;2.0545;
210.0000;1.2747;2.0496;
210.3000;1.2764;2.0521;
210.6000;1.2764;2.0545;
210.9000;1.2788;2.0545;
211.2000;1.2739;2.0400;
211.5000;1.2764;2.0496;
211.8000;1.2772;2.0521;
212.1000;1.2764;2.0545;
212.4000;1.2755;2.0569;
212.7000;1.2764;2.0593;
213.0000;1.2772;2.0617;
213.3000;1.2764;2.0666;
213.6000;1.2747;2.0617;
213.9000;1.2764;2.0666;
214.2000;1.2772;2.0690;
214.5000;1.2772;2.0666;
214.8000;1.2812;2.0786;
215.1000;1.2755;2.0690;
215.4000;1.2755;2.0641;
215.7000;1.2780;2.0666;
216.0000;1.2755;2.0569;
216.3000;1.2755;2.0593;
216.6000;1.2755;2.0593;
216.9000;1.2812;2.0666;
217.2000;1.2788;2.0617;
217.5000;1.2739;2.0496;
217.8000;1.2764;2.0569;
218.1000;1.2747;2.0641;
218.4000;1.2755;2.0666;
218.7000;1.2772;2.0690;
219.0000;1.2723;2.0593;
219.3000;1.2739;2.0617;
219.6000;1.2772;2.0666;
219.9000;1.2796;2.0714;
220.2000;1.2747;2.0641;
220.5000;1.2723;2.0593;
220.8000;1.2747;2.0617;
221.1000;1.2764;2.0617;
221.4000;1.2747;2.0593;
221.7000;1.2747;2.0593;
222.0000;1.2739;2.0666;
222.3000;1.2755;2.0714;
222.6000;1.2755;2.0714;
222.9000;1.2804;2.0786;
223.2000;1.2764;2.0617;
223.5000;1.2755;2.0569;
223.8000;1.2764;2.0569;
224.1000;1.2707;2.0424;
224.4000;1.2747;2.0569;
224.7000;1.2772;2.0545;
225.0000;1.2755;2.0521;
225.3000;1.2788;2.0617;
225.6000;1.2772;2.0545;
225.9000;1.2780;2.0521;
226.2000;1.2764;2.0545;
226.5000;1.2755;2.0569;
226.8000;1.2755;2.0448;
227.1000;1.2764;2.0521;
227.4000;1.2747;2.0569;
227.7000;1.2731;2.0641;
228.0000;1.2747;2.0714;
228.3000;1.2755;2.0762;
228.6000;1.2764;2.0786;
228.9000;1.2755;2.0738;
229.2000;1.2747;2.0738;
229.5000;1.2747;2.0762;
229.8000;1.2707;2.0593;
230.1000;1.2731;2.0641;
230.4000;1.2747;2.0666;
230.7000;1.2747;2.0617;
231.0000;1.2755;2.0569;
231.3000;1.2772;2.0641;
231.6000;1.2764;2.0617;
231.9000;1.2747;2.0545;
232.2000;1.2764;2.0496;
232.5000;1.2772;2.0521;
232.8000;1.2772;2.0593;
233.1000;1.2764;2.0617;
233.4000;1.2788;2.0545;
233.7000;1.2747;2.0472;
234.0000;1.2772;2.0521;
234.3000;1.2731;2.0400;
234.6000;1.2739;2.0376;
234.9000;1.2755;2.0400;
235.2000;1.2788;2.0472;
235.5000;1.2780;2.0376;
235.8000;1.2772;2.0376;
236.1000;1.2723;2.0279;
236.4000;1.2772;2.0472;
236.7000;1.2723;2.0279;
237.0000;1.2747;2.0376;
237.3000;1.2755;2.0400;
237.6000;1.2772;2.0400;
237.9000;1.2821;2.0521;
238.2000;1.2755;2.0279;
238.5000;1.2772;2.0351;
238.8000;1.2755;2.0231;
239.1000;1.2772;2.0255;
239.4000;1.2772;2.0327;
239.7000;1.2764;2.0376;
240.0000;1.2772;2.0351;
240.3000;1.2764;2.0351;
240.6000;1.2764;2.0255;
240.9000;1.2755;2.0206;
241.2000;1.2755;2.0279;
241.5000;1.2731;2.0279;
241.8000;1.2764;2.0400;
242.1000;1.2755;2.0376;
242.4000;1.2764;2.0376;
242.7000;1.2747;2.0231;
243.0000;1.2755;2.0255;
243.3000;1.2739;2.0255;
243.6000;1.2755;2.0255;
243.9000;1.2747;2.0231;
244.2000;1.2731;2.0255;
244.5000;1.2731;2.0182;
244.8000;1.2723;2.0134;
245.1000;1.2698;2.0013;
245.4000;1.2764;2.0037;
245.7000;1.2772;2.0158;
246.0000;1.2731;2.0086;
246.3000;1.2755;2.0206;
246.6000;1.2764;2.0351;
246.9000;1.2755;2.0424;
247.2000;1.2772;2.0521;
247.5000;1.2755;2.0472;
247.8000;1.2764;2.0424;
248.1000;1.2755;2.0424;
248.4000;1.2755;2.0472;
248.7000;1.2755;2.0472;
249.0000;1.2755;2.0472;
249.3000;1.2764;2.0448;
249.6000;1.2755;2.0448;
249.9000;1.2755;2.0424;
250.2000;1.2772;2.0472;
250.5000;1.2755;2.0448;
250.8000;1.2755;2.0472;
251.1000;1.2723;2.0351;
251.4000;1.2747;2.0351;
251.7000;1.2764;2.0472;
252.0000;1.2772;2.0593;
252.3000;1.2755;2.0545;
252.6000;1.2772;2.0666;
252.9000;1.2764;2.0593;
253.2000;1.2780;2.0666;
253.5000;1.2772;2.0569;
253.8000;1.2755;2.0472;
254.1000;1.2780;2.0545;
254.4000;1.2764;2.0496;
254.7000;1.2764;2.0545;
255.0000;1.2764;2.0569;
255.3000;1.2739;2.0545;
255.6000;1.2764;2.0569;
255.9000;1.2747;2.0641;
256.2000;1.2788;2.0690;
256.5000;1.2764;2.0641;
256.8000;1.2772;2.0593;
257.1000;1.2755;2.0545;
257.4000;1.2739;2.0641;
257.7000;1.2739;2.0690;
258.0000;1.2747;2.0714;
258.3000;1.2755;2.0714;
258.6000;1.2747;2.0521;
258.9000;1.2780;2.0569;
259.2000;1.2755;2.0569;
259.5000;1.2739;2.0496;
259.8000;1.2755;2.0472;
260.1000;1.2764;2.0496;
260.4000;1.2788;2.0593;
260.7000;1.2747;2.0521;
261.0000;1.2772;2.0521;
261.3000;1.2755;2.0545;
261.6000;1.2739;2.0472;
261.9000;1.2747;2.0448;
262.2000;1.2698;2.0472;
262.5000;1.2739;2.0545;
262.8000;1.2764;2.0641;
263.1000;1.2788;2.0762;
263.4000;1.2715;2.0690;
263.7000;1.2739;2.0617;
264.0000;1.2739;2.0690;
264.3000;1.2755;2.0714;
264.6000;1.2747;2.0666;
264.9000;1.2739;2.0641;
265.2000;1.2755;2.0593;
265.5000;1.2764;2.0569;
265.8000;1.2755;2.0569;
266.1000;1.2707;2.0496;
266.4000;1.2747;2.0521;
266.7000;1.2747;2.0569;
267.0000;1.2731;2.0521;
267.3000;1.2739;2.0545;
267.6000;1.2764;2.0545;
267.9000;1.2764;2.0472;
268.2000;1.2747;2.0496;
268.5000;1.2747;2.0496;
268.8000;1.2747;2.0545;
269.1000;1.2739;2.0569;
269.4000;1.2755;2.0521;
269.7000;1.2747;2.0545;
270.0000;1.2747;2.0593;
270.3000;1.2755;2.0666;
270.6000;1.2739;2.0641;
270.9000;1.2747;2.0521;
271.2000;1.2739;2.0521;
271.5000;1.2755;2.0545;
271.8000;1.2747;2.0496;
272.1000;1.2772;2.0496;
272.4000;1.2747;2.0400;
272.7000;1.2731;2.0327;
273.0000;1.2731;2.0327;
273.3000;1.2755;2.0351;
273.6000;1.2707;2.0206;
273.9000;1.2739;2.0255;
274.2000;1.2739;2.0279;
274.5000;1.2764;2.0351;
274.8000;1.2747;2.0376;
275.1000;1.2715;2.0400;
275.4000;1.2764;2.0545;
275.7000;1.2747;2.0545;
276.0000;1.2747;2.0617;
276.3000;1.2755;2.0593;
276.6000;1.2755;2.0617;
276.9000;1.2780;2.0617;
277.2000;1.2772;2.0569;
277.5000;1.2764;2.0569;
277.8000;1.2755;2.0521;
278.1000;1.2715;2.0400;
278.4000;1.2772;2.0545;
278.7000;1.2764;2.0593;
279.0000;1.2764;2.0666;
279.3000;1.2747;2.0666;
279.6000;1.2755;2.0690;
279.9000;1.2755;2.0738;
280.2000;1.2764;2.0666;
280.5000;1.2747;2.0617;
280.8000;1.2755;2.0641;
281.1000;1.2764;2.0617;
281.4000;1.2764;2.0617;
281.7000;1.2772;2.0641;
282.0000;1.2755;2.0641;
282.3000;1.2764;2.0617;
282.6000;1.2755;2.0472;
282.9000;1.2764;2.0376;
283.2000;1.2755;2.0400;
283.5000;1.2739;2.0376;
283.8000;1.2764;2.0472;
284.1000;1.2772;2.0545;
284.4000;1.2747;2.0545;
284.7000;1.2755;2.0641;
285.0000;1.2731;2.0472;
285.3000;1.2731;2.0448;
285.6000;1.2747;2.0472;
285.9000;1.2747;2.0496;
286.2000;1.2772;2.0496;
286.5000;1.2755;2.0472;
286.8000;1.2755;2.0448;
287.1000;1.2764;2.0448;
287.4000;1.2764;2.0424;
287.7000;1.2731;2.0279;
288.0000;1.2788;2.0424;
288.3000;1.2715;2.0327;
288.6000;1.2804;2.0521;
288.9000;1.2755;2.0472;
289.2000;1.2739;2.0496;
289.5000;1.2829;2.0786;
289.8000;1.2755;2.0617;
290.1000;1.2764;2.0617;
290.4000;1.2731;2.0545;
290.7000;1.2747;2.0521;
291.0000;1.2739;2.0448;
291.3000;1.2780;2.0545;
291.6000;1.2764;2.0545;
291.9000;1.2772;2.0472;
292.2000;1.2755;2.0376;
292.5000;1.2780;2.0424;
292.8000;1.2772;2.0376;
293.1000;1.2747;2.0400;
293.4000;1.2747;2.0327;
293.7000;1.2764;2.0376;
294.0000;1.2764;2.0303;
294.3000;1.2755;2.0351;
294.6000;1.2731;2.0351;
294.9000;1.2731;2.0303;
295.2000;1.2747;2.0400;
295.5000;1.2723;2.0424;
295.8000;1.2723;2.0545;
296.1000;1.2755;2.0593;
296.4000;1.2755;2.0641;
296.7000;1.2747;2.0641;
297.0000;1.2755;2.0593;
297.3000;1.2739;2.0496;
297.6000;1.2796;2.0738;
297.9000;1.2772;2.0666;
298.2000;1.2747;2.0617;
298.5000;1.2755;2.0569;
298.8000;1.2715;2.0545;
299.1000;1.2747;2.0641;
299.4000;1.2747;2.0666;
299.7000;1.2666;2.0472;
300.0000;1.2747;2.0641;
300.3000;1.2755;2.0666;
300.6000;1.2747;2.0666;
300.9000;1.2747;2.0762;
301.2000;1.2772;2.0811;
301.5000;1.2755;2.0738;
301.8000;1.2739;2.0666;
302.1000;1.2772;2.0641;
302.4000;1.2764;2.0641;
302.7000;1.2755;2.0714;
303.0000;1.2739;2.0714;
303.3000;1.2755;2.0690;
303.6000;1.2747;2.0569;
303.9000;1.2764;2.0617;
304.2000;1.2764;2.0690;
304.5000;1.2764;2.0641;
304.8000;1.2747;2.0690;
305.1000;1.2723;2.0593;
305.4000;1.2772;2.0714;
305.7000;1.2731;2.0617;
306.0000;1.2715;2.0521;
306.3000;1.2747;2.0617;
306.6000;1.2731;2.0617;
306.9000;1.2755;2.0569;
307.2000;1.2747;2.0521;
307.5000;1.2755;2.0569;
307.8000;1.2772;2.0593;
308.1000;1.2755;2.0521;
308.4000;1.2723;2.0496;
308.7000;1.2747;2.0521;
309.0000;1.2764;2.0521;
309.3000;1.2764;2.0545;
309.6000;1.2739;2.0545;
309.9000;1.2739;2.0593;
310.2000;1.2764;2.0617;
310.5000;1.2723;2.0472;
310.8000;1.2747;2.0521;
311.1000;1.2731;2.0545;
311.4000;1.2723;2.0666;
311.7000;1.2739;2.0666;
312.0000;1.2747;2.0666;
312.3000;1.2755;2.0593;
312.6000;1.2731;2.0569;
312.9000;1.2747;2.0641;
313.2000;1.2764;2.0714;
313.5000;1.2731;2.0714;
313.8000;1.2739;2.0811;
314.1000;1.2755;2.0859;
314.4000;1.2747;2.0786;
314.7000;1.2723;2.0641;
315.0000;1.2739;2.0641;
315.3000;1.2723;2.0569;
315.6000;1.2723;2.0569;
315.9000;1.2739;2.0641;
316.2000;1.2739;2.0666;
316.5000;1.2755;2.0545;
316.8000;1.2747;2.0593;
317.1000;1.2788;2.0690;
317.4000;1.2747;2.0593;
317.7000;1.2780;2.0690;
318.0000;1.2772;2.0666;
318.3000;1.2772;2.0666;
318.6000;1.2764;2.0666;
318.9000;1.2780;2.0762;
319.2000;1.2755;2.0690;
319.5000;1.2755;2.0690;
319.8000;1.2707;2.0641;
320.1000;1.2731;2.0617;
320.4000;1.2747;2.0617;
320.7000;1.2764;2.0545;
321.0000;1.2739;2.0496;
321.3000;1.2764;2.0666;
321.6000;1.2739;2.0593;
321.9000;1.2755;2.0617;
322.2000;1.2739;2.0690;
322.5000;1.2682;2.0521;
322.8000;1.2698;2.0545;
323.1000;1.2747;2.0690;
323.4000;1.2739;2.0617;
323.7000;1.2731;2.0521;
324.0000;1.2715;2.0448;
324.3000;1.2764;2.0545;
324.6000;1.2755;2.0593;
324.9000;1.2747;2.0521;
325.2000;1.2755;2.0545;
325.5000;1.2731;2.0521;
325.8000;1.2747;2.0617;
326.1000;1.2690;2.0448;
326.4000;1.2739;2.0472;
326.7000;1.2739;2.0472;
327.0000;1.2764;2.0472;
327.3000;1.2764;2.0521;
327.6000;1.2755;2.0569;
327.9000;1.2747;2.0521;
328.2000;1.2747;2.0641;
328.5000;1.2764;2.0666;
328.8000;1.2764;2.0641;
329.1000;1.2747;2.0593;
329.4000;1.2715;2.0448;
329.7000;1.2747;2.0569;
330.0000;1.2755;2.0617;
330.3000;1.2682;2.0521;
330.6000;1.2747;2.0641;
330.9000;1.2755;2.0666;
331.2000;1.2764;2.0617;
331.5000;1.2747;2.0569;
331.8000;1.2804;2.0690;
332.1000;1.2764;2.0641;
332.4000;1.2723;2.0593;
332.7000;1.2747;2.0714;
333.0000;1.2747;2.0714;
333.3000;1.2780;2.0690;
333.6000;1.2747;2.0545;
333.9000;1.2747;2.0496;
334.2000;1.2747;2.0521;
334.5000;1.2772;2.0593;
334.8000;1.2772;2.0593;
335.1000;1.2747;2.0617;
335.4000;1.2666;2.0400;
335.7000;1.2755;2.0641;
336.0000;1.2747;2.0593;
336.3000;1.2755;2.0666;
336.6000;1.2739;2.0569;
336.9000;1.2755;2.0641;
337.2000;1.2723;2.0593;
337.5000;1.2747;2.0690;
337.8000;1.2739;2.0617;
338.1000;1.2747;2.0593;
338.4000;1.2755;2.0496;
338.7000;1.2764;2.0472;
339.0000;1.2739;2.0448;
339.3000;1.2739;2.0448;
339.6000;1.2764;2.0569;
339.9000;1.2764;2.0641;
340.2000;1.2747;2.0569;
340.5000;1.2755;2.0569;
340.8000;1.2755;2.0545;
341.1000;1.2747;2.0569;
341.4000;1.2755;2.0593;
341.7000;1.2747;2.0569;
342.0000;1.2707;2.0521;
342.3000;1.2755;2.0593;
342.6000;1.2739;2.0617;
342.9000;1.2731;2.0593;
343.2000;1.2747;2.0593;
343.5000;1.2755;2.0617;
343.8000;1.2772;2.0569;
344.1000;1.2731;2.0521;
344.4000;1.2747;2.0617;
344.7000;1.2755;2.0593;
345.0000;1.2764;2.0521;
345.3000;1.2772;2.0521;
345.6000;1.2755;2.0545;
345.9000;1.2731;2.0448;
346.2000;1.2755;2.0569;
346.5000;1.2821;2.0738;
346.8000;1.2780;2.0496;
347.1000;1.2739;2.0424;
347.4000;1.2739;2.0496;
347.7000;1.2747;2.0569;
348.0000;1.2731;2.0569;
348.3000;1.2747;2.0666;
348.6000;1.2780;2.0786;
348.9000;1.2747;2.0738;
349.2000;1.2739;2.0666;
349.5000;1.2715;2.0545;
349.8000;1.2772;2.0666;
350.1000;1.2764;2.0641;
350.4000;1.2772;2.0617;
350.7000;1.2747;2.0593;
351.0000;1.2731;2.0593;
351.3000;1.2739;2.0690;
351.6000;1.2747;2.0690;
351.9000;1.2723;2.0690;
352.2000;1.2747;2.0762;
352.5000;1.2772;2.0859;
352.8000;1.2739;2.0762;
353.1000;1.2731;2.0762;
353.4000;1.2780;2.0762;
353.7000;1.2723;2.0617;
354.0000;1.2755;2.0738;
354.3000;1.2780;2.0762;
354.6000;1.2764;2.0666;
354.9000;1.2755;2.0690;
355.2000;1.2715;2.0617;
355.5000;1.2739;2.0714;
355.8000;1.2731;2.0666;
356.1000;1.2731;2.0714;
356.4000;1.2788;2.0835;
356.7000;1.2755;2.0714;
357.0000;1.2723;2.0569;
357.3000;1.2764;2.0714;
357.6000;1.2715;2.0714;
357.9000;1.2715;2.0738;
358.2000;1.2772;2.0762;
358.5000;1.2723;2.0714;
358.8000;1.2747;2.0714;
359.1000;1.2723;2.0666;
359.4000;1.2731;2.0666;
359.7000;1.2739;2.0666;
360.0000;1.2764;2.0569;
360.3000;1.2755;2.0593;
360.6000;1.2772;2.0714;
360.9000;1.2764;2.0690;
361.2000;1.2739;2.0666;
361.5000;1.2698;2.0521;
361.8000;1.2755;2.0617;
362.1000;1.2723;2.0593;
362.4000;1.2739;2.0666;
362.7000;1.2739;2.0738;
363.0000;1.2747;2.0786;
363.3000;1.2747;2.0762;
363.6000;1.2731;2.0666;
363.9000;1.2739;2.0641;
364.2000;1.2755;2.0690;
364.5000;1.2755;2.0666;
364.8000;1.2747;2.0569;
365.1000;1.2739;2.0641;
365.4000;1.2764;2.0714;
365.7000;1.2764;2.0666;
366.0000;1.2739;2.0641;
366.3000;1.2755;2.0690;
366.6000;1.2764;2.0714;
366.9000;1.2780;2.0690;
367.2000;1.2747;2.0569;
367.5000;1.2764;2.0641;
367.8000;1.2731;2.0593;
368.1000;1.2755;2.0617;
368.4000;1.2747;2.0617;
368.7000;1.2747;2.0617;
369.0000;1.2715;2.0569;
369.3000;1.2707;2.0569;
369.6000;1.2690;2.0448;
369.9000;1.2707;2.0448;
370.2000;1.2690;2.0424;
370.5000;1.2764;2.0521;
370.8000;1.2747;2.0521;
371.1000;1.2739;2.0617;
371.4000;1.2707;2.0496;
371.7000;1.2755;2.0593;
372.0000;1.2723;2.0521;
372.3000;1.2707;2.0521;
372.6000;1.2747;2.0714;
372.9000;1.2747;2.0690;
373.2000;1.2747;2.0641;
373.5000;1.2731;2.0666;
373.8000;1.2707;2.0569;
374.1000;1.2739;2.0569;
374.4000;1.2747;2.0569;
374.7000;1.2747;2.0569;
375.0000;1.2755;2.0521;
375.3000;1.2747;2.0521;
375.6000;1.2747;2.0521;
375.9000;1.2739;2.0545;
376.2000;1.2755;2.0545;
376.5000;1.2739;2.0545;
376.8000;1.2747;2.0641;
377.1000;1.2747;2.0690;
377.4000;1.2723;2.0666;
377.7000;1.2723;2.0714;
378.0000;1.2747;2.0690;
378.3000;1.2755;2.0786;
378.6000;1.2764;2.0786;
378.9000;1.2731;2.0690;
379.2000;1.2739;2.0714;
379.5000;1.2739;2.0666;
379.8000;1.2723;2.0641;
380.1000;1.2723;2.0762;
380.4000;1.2747;2.0811;
380.7000;1.2747;2.0811;
381.0000;1.2755;2.0811;
381.3000;1.2747;2.0835;
381.6000;1.2739;2.0835;
381.9000;1.2747;2.0883;
382.2000;1.2723;2.0907;
382.5000;1.2747;2.1004;
382.8000;1.2739;2.0907;
383.1000;1.2772;2.0931;
383.4000;1.2796;2.0931;
383.7000;1.2739;2.0811;
384.0000;1.2715;2.0738;
384.3000;1.2731;2.0786;
384.6000;1.2723;2.0835;
384.9000;1.2731;2.0738;
385.2000;1.2739;2.0762;
385.5000;1.2682;2.0617;
385.8000;1.2731;2.0738;
386.1000;1.2755;2.0859;
386.4000;1.2739;2.0835;
386.7000;1.2739;2.0883;
387.0000;1.2747;2.0811;
387.3000;1.2739;2.0811;
387.6000;1.2731;2.0762;
387.9000;1.2731;2.0762;
388.2000;1.2747;2.0835;
388.5000;1.2731;2.0714;
388.8000;1.2747;2.0738;
389.1000;1.2739;2.0714;
389.4000;1.2747;2.0738;
389.7000;1.2747;2.0738;
390.0000;1.2764;2.0762;
390.3000;1.2764;2.0714;
390.6000;1.2715;2.0617;
390.9000;1.2755;2.0714;
391.2000;1.2747;2.0786;
391.5000;1.2764;2.0859;
391.8000;1.2690;2.0714;
392.1000;1.2739;2.0835;
392.4000;1.2788;2.1004;
392.7000;1.2731;2.0859;
393.0000;1.2731;2.0859;
393.3000;1.2747;2.0786;
393.6000;1.2723;2.0762;
393.9000;1.2747;2.0811;
394.2000;1.2739;2.0762;
394.5000;1.2747;2.0738;
394.8000;1.2747;2.0738;
395.1000;1.2747;2.0666;
395.4000;1.2731;2.0569;
395.7000;1.2731;2.0593;
396.0000;1.2755;2.0617;
396.3000;1.2764;2.0617;
396.6000;1.2731;2.0521;
396.9000;1.2739;2.0545;
397.2000;1.2731;2.0545;
397.5000;1.2731;2.0545;
397.8000;1.2739;2.0569;
398.1000;1.2739;2.0569;
398.4000;1.2755;2.0617;
398.7000;1.2731;2.0641;
399.0000;1.2739;2.0617;
399.3000;1.2747;2.0690;
399.6000;1.2764;2.0714;
399.9000;1.2747;2.0738;
400.2000;1.2731;2.0690;
400.5000;1.2731;2.0641;
400.8000;1.2755;2.0641;
401.1000;1.2764;2.0690;
401.4000;1.2755;2.0593;
401.7000;1.2755;2.0617;
402.0000;1.2707;2.0424;
402.3000;1.2739;2.0448;
402.6000;1.2764;2.0521;
402.9000;1.2723;2.0400;
403.2000;1.2723;2.0376;
403.5000;1.2747;2.0448;
403.8000;1.2723;2.0424;
404.1000;1.2731;2.0496;
404.4000;1.2707;2.0521;
404.7000;1.2731;2.0545;
405.0000;1.2723;2.0521;
405.3000;1.2731;2.0521;
405.6000;1.2707;2.0521;
405.9000;1.2723;2.0617;
406.2000;1.2715;2.0569;
406.5000;1.2674;2.0545;
406.8000;1.2739;2.0714;
407.1000;1.2731;2.0666;
407.4000;1.2723;2.0690;
407.7000;1.2723;2.0714;
408.0000;1.2723;2.0641;
408.3000;1.2723;2.0641;
408.6000;1.2707;2.0617;
408.9000;1.2747;2.0641;
409.2000;1.2731;2.0593;
409.5000;1.2747;2.0569;
409.8000;1.2747;2.0593;
410.1000;1.2747;2.0593;
410.4000;1.2747;2.0641;
410.7000;1.2747;2.0593;
411.0000;1.2707;2.0472;
411.3000;1.2764;2.0593;
411.6000;1.2755;2.0545;
411.9000;1.2755;2.0521;
412.2000;1.2755;2.0521;
412.5000;1.2755;2.0593;
412.8000;1.2764;2.0593;
413.1000;1.2731;2.0545;
413.4000;1.2739;2.0472;
413.7000;1.2747;2.0545;
414.0000;1.2707;2.0496;
414.3000;1.2739;2.0569;
414.6000;1.2731;2.0545;
414.9000;1.2739;2.0521;
415.2000;1.2755;2.0593;
415.5000;1.2747;2.0617;
415.8000;1.2731;2.0569;
416.1000;1.2739;2.0569;
416.4000;1.2747;2.0617;
416.7000;1.2723;2.0521;
417.0000;1.2796;2.0714;
417.3000;1.2739;2.0617;
417.6000;1.2747;2.0666;
417.9000;1.2747;2.0641;
418.2000;1.2747;2.0690;
418.5000;1.2723;2.0641;
418.8000;1.2715;2.0569;
419.1000;1.2739;2.0569;
419.4000;1.2698;2.0448;
419.7000;1.2723;2.0545;
420.0000;1.2698;2.0545;
420.3000;1.2723;2.0617;
420.6000;1.2707;2.0545;
420.9000;1.2739;2.0641;
421.2000;1.2747;2.0641;
421.5000;1.2747;2.0617;
421.8000;1.2739;2.0569;
422.1000;1.2739;2.0545;
422.4000;1.2723;2.0496;
422.7000;1.2812;2.0666;
423.0000;1.2731;2.0521;
423.3000;1.2723;2.0472;
423.6000;1.2707;2.0545;
423.9000;1.2731;2.0569;
424.2000;1.2674;2.0545;
424.5000;1.2723;2.0714;
424.8000;1.2739;2.0738;
425.1000;1.2731;2.0690;
425.4000;1.2707;2.0666;
425.7000;1.2739;2.0738;
426.0000;1.2747;2.0666;
426.3000;1.2739;2.0641;
426.6000;1.2747;2.0714;
426.9000;1.2723;2.0714;
427.2000;1.2731;2.0690;
427.5000;1.2723;2.0617;
427.8000;1.2739;2.0641;
428.1000;1.2698;2.0521;
428.4000;1.2690;2.0448;
428.7000;1.2723;2.0424;
429.0000;1.2739;2.0400;
429.3000;1.2731;2.0424;
429.6000;1.2780;2.0593;
429.9000;1.2747;2.0496;
430.2000;1.2747;2.0545;
430.5000;1.2739;2.0496;
430.8000;1.2731;2.0400;
431.1000;1.2747;2.0376;
431.4000;1.2764;2.0424;
431.7000;1.2747;2.0327;
432.0000;1.2739;2.0400;
432.3000;1.2723;2.0448;
432.6000;1.2755;2.0521;
432.9000;1.2747;2.0617;
433.2000;1.2739;2.0617;
433.5000;1.2780;2.0762;
433.8000;1.2739;2.0617;
434.1000;1.2739;2.0569;
434.4000;1.2755;2.0617;
434.7000;1.2739;2.0641;
435.0000;1.2707;2.0521;
435.3000;1.2731;2.0641;
435.6000;1.2747;2.0690;
435.9000;1.2747;2.0714;
436.2000;1.2747;2.0738;
436.5000;1.2755;2.0714;
436.8000;1.2755;2.0690;
437.1000;1.2747;2.0690;
437.4000;1.2764;2.0714;
437.7000;1.2755;2.0714;
438.0000;1.2747;2.0690;
438.3000;1.2829;2.0907;
438.6000;1.2804;2.0907;
438.9000;1.2723;2.0714;
439.2000;1.2731;2.0690;
439.5000;1.2707;2.0641;
439.8000;1.2723;2.0738;
440.1000;1.2739;2.0811;
440.4000;1.2731;2.0786;
440.7000;1.2707;2.0690;
441.0000;1.2731;2.0811;
441.3000;1.2739;2.0859;
441.6000;1.2739;2.0859;
441.9000;1.2747;2.0835;
442.2000;1.2747;2.0666;
442.5000;1.2747;2.0617;
442.8000;1.2739;2.0569;
443.1000;1.2698;2.0521;
443.4000;1.2731;2.0569;
443.7000;1.2739;2.0569;
444.0000;1.2739;2.0569;
444.3000;1.2723;2.0641;
444.6000;1.2731;2.0762;
444.9000;1.2739;2.0714;
445.2000;1.2772;2.0811;
445.5000;1.2731;2.0690;
445.8000;1.2739;2.0714;
446.1000;1.2731;2.0666;
446.4000;1.2674;2.0545;
446.7000;1.2747;2.0738;
447.0000;1.2747;2.0738;
447.3000;1.2707;2.0690;
447.6000;1.2731;2.0714;
447.9000;1.2707;2.0569;
448.2000;1.2723;2.0593;
448.5000;1.2739;2.0617;
448.8000;1.2739;2.0569;
449.1000;1.2755;2.0617;
449.4000;1.2723;2.0593;
449.7000;1.2739;2.0617;
450.0000;1.2715;2.0472;
450.3000;1.2739;2.0545;
450.6000;1.2723;2.0521;
450.9000;1.2739;2.0569;
451.2000;1.2755;2.0666;
451.5000;1.2739;2.0593;
451.8000;1.2739;2.0738;
452.1000;1.2723;2.0835;
452.4000;1.2731;2.0835;
452.7000;1.2731;2.0738;
453.0000;1.2723;2.0786;
453.3000;1.2715;2.0786;
453.6000;1.2772;2.0907;
453.9000;1.2731;2.0714;
454.2000;1.2723;2.0690;
454.5000;1.2739;2.0690;
454.8000;1.2731;2.0714;
455.1000;1.2788;2.0883;
455.4000;1.2731;2.0811;
455.7000;1.2723;2.0786;
456.0000;1.2731;2.0835;
456.3000;1.2731;2.0859;
456.6000;1.2731;2.0859;
456.9000;1.2747;2.0811;
457.2000;1.2723;2.0714;
457.5000;1.2739;2.0666;
457.8000;1.2723;2.0666;
458.1000;1.2731;2.0690;
458.4000;1.2739;2.0714;
458.7000;1.2755;2.0738;
459.0000;1.2755;2.0714;
459.3000;1.2723;2.0593;
459.6000;1.2731;2.0617;
459.9000;1.2731;2.0617;
460.2000;1.2764;2.0714;
460.5000;1.2723;2.0690;
460.8000;1.2715;2.0714;
461.1000;1.2715;2.0786;
461.4000;1.2731;2.0786;
461.7000;1.2739;2.0762;
462.0000;1.2755;2.0738;
462.3000;1.2731;2.0690;
462.6000;1.2772;2.0762;
462.9000;1.2755;2.0690;
463.2000;1.2739;2.0641;
463.5000;1.2731;2.0714;
463.8000;1.2731;2.0690;
464.1000;1.2731;2.0641;
464.4000;1.2796;2.0811;
464.7000;1.2707;2.0617;
465.0000;1.2723;2.0617;
465.3000;1.2715;2.0545;
465.6000;1.2723;2.0641;
465.9000;1.2698;2.0714;
466.2000;1.2698;2.0714;
466.5000;1.2739;2.0786;
466.8000;1.2715;2.0738;
467.1000;1.2723;2.0859;
467.4000;1.2731;2.1004;
467.7000;1.2739;2.1077;
468.0000;1.2747;2.1028;
468.3000;1.2755;2.1101;
468.6000;1.2739;2.0980;
468.9000;1.2764;2.0980;
469.2000;1.2755;2.0956;
469.5000;1.2715;2.0859;
469.8000;1.2747;2.0980;
470.1000;1.2755;2.0980;
470.4000;1.2707;2.0762;
470.7000;1.2723;2.0786;
471.0000;1.2715;2.0690;
471.3000;1.2715;2.0714;
471.6000;1.2723;2.0762;
471.9000;1.2723;2.0738;
472.2000;1.2707;2.0738;
472.5000;1.2723;2.0786;
472.8000;1.2739;2.0811;
473.1000;1.2764;2.0835;
473.4000;1.2739;2.0690;
473.7000;1.2723;2.0641;
474.0000;1.2715;2.0714;
474.3000;1.2780;2.0907;
474.6000;1.2723;2.0714;
474.9000;1.2715;2.0666;
475.2000;1.2772;2.0762;
475.5000;1.2731;2.0738;
475.8000;1.2715;2.0786;
476.1000;1.2731;2.0811;
476.4000;1.2747;2.0786;
476.7000;1.2723;2.0738;
477.0000;1.2731;2.0641;
477.3000;1.2731;2.0593;
477.6000;1.2731;2.0641;
477.9000;1.2723;2.0593;
478.2000;1.2739;2.0666;
478.5000;1.2739;2.0641;
478.8000;1.2723;2.0641;
479.1000;1.2747;2.0714;
479.4000;1.2739;2.0666;
479.7000;1.2739;2.0617;
480.0000;1.2747;2.0666;
480.3000;1.2723;2.0690;
480.6000;1.2731;2.0666;
480.9000;1.2731;2.0762;
481.2000;1.2739;2.0714;
481.5000;1.2739;2.0738;
481.8000;1.2715;2.0714;
482.1000;1.2739;2.0811;
482.4000;1.2739;2.0811;
482.7000;1.2780;2.0811;
483.0000;1.2747;2.0811;
483.3000;1.2731;2.0811;
483.6000;1.2723;2.0714;
483.9000;1.2747;2.0811;
484.2000;1.2764;2.0859;
484.5000;1.2739;2.0859;
484.8000;1.2739;2.0786;
485.1000;1.2731;2.0738;
485.4000;1.2723;2.0714;
485.7000;1.2747;2.0738;
486.0000;1.2707;2.0641;
486.3000;1.2690;2.0617;
486.6000;1.2698;2.0690;
486.9000;1.2723;2.0811;
487.2000;1.2715;2.0786;
487.5000;1.2723;2.0786;
487.8000;1.2723;2.0883;
488.1000;1.2731;2.0907;
488.4000;1.2747;2.0859;
488.7000;1.2690;2.0714;
489.0000;1.2723;2.0786;
489.3000;1.2723;2.0690;
489.6000;1.2731;2.0835;
489.9000;1.2739;2.0907;
490.2000;1.2723;2.1004;
490.5000;1.2739;2.0980;
490.8000;1.2731;2.1004;
491.1000;1.2723;2.0980;
491.4000;1.2731;2.1004;
491.7000;1.2723;2.1004;
492.0000;1.2739;2.0956;
492.3000;1.2739;2.0931;
492.6000;1.2707;2.0835;
492.9000;1.2731;2.0835;
493.2000;1.2698;2.0738;
493.5000;1.2731;2.0811;
493.8000;1.2731;2.0786;
494.1000;1.2755;2.0883;
494.4000;1.2723;2.0835;
494.7000;1.2731;2.0859;
495.0000;1.2731;2.0907;
495.3000;1.2755;2.1004;
495.6000;1.2739;2.0980;
495.9000;1.2707;2.1004;
496.2000;1.2739;2.1125;
496.5000;1.2755;2.1125;
496.8000;1.2715;2.0956;
497.1000;1.2658;2.0738;
497.4000;1.2747;2.0956;
497.7000;1.2715;2.0931;
498.0000;1.2723;2.0980;
498.3000;1.2723;2.0980;
498.6000;1.2723;2.0980;
498.9000;1.2723;2.0956;
499.2000;1.2723;2.0907;
499.5000;1.2747;2.1004;
499.8000;1.2739;2.1004;
500.1000;1.2715;2.0835;
500.4000;1.2731;2.0786;
500.7000;1.2731;2.0738;
501.0000;1.2723;2.0690;
501.3000;1.2723;2.0738;
501.6000;1.2723;2.0762;
501.9000;1.2723;2.0690;
502.2000;1.2723;2.0666;
502.5000;1.2707;2.0714;
502.8000;1.2715;2.0738;
503.1000;1.2707;2.0738;
503.4000;1.2723;2.0811;
503.7000;1.2723;2.0835;
504.0000;1.2731;2.0859;
504.3000;1.2739;2.0907;
504.6000;1.2698;2.0786;
504.9000;1.2715;2.0907;
505.2000;1.2723;2.0956;
505.5000;1.2731;2.1101;
505.8000;1.2731;2.1004;
506.1000;1.2731;2.0931;
506.4000;1.2731;2.0883;
506.7000;1.2715;2.0738;
507.0000;1.2723;2.0666;
507.3000;1.2715;2.0714;
507.6000;1.2747;2.0738;
507.9000;1.2715;2.0617;
508.2000;1.2731;2.0641;
508.5000;1.2715;2.0666;
508.8000;1.2747;2.0714;
509.1000;1.2723;2.0593;
509.4000;1.2731;2.0545;
509.7000;1.2723;2.0593;
510.0000;1.2723;2.0545;
510.3000;1.2682;2.0424;
510.6000;1.2690;2.0472;
510.9000;1.2715;2.0569;
511.2000;1.2723;2.0569;
511.5000;1.2715;2.0569;
511.8000;1.2707;2.0545;
512.1000;1.2707;2.0593;
512.4000;1.2747;2.0714;
512.7000;1.2723;2.0738;
513.0000;1.2747;2.0811;
513.3000;1.2715;2.0690;
513.6000;1.2731;2.0714;
513.9000;1.2739;2.0786;
514.2000;1.2723;2.0738;
514.5000;1.2723;2.0714;
514.8000;1.2747;2.0762;
515.1000;1.2731;2.0786;
515.4000;1.2731;2.0835;
515.7000;1.2731;2.0907;
516.0000;1.2723;2.0907;
516.3000;1.2747;2.1028;
516.6000;1.2715;2.0835;
516.9000;1.2723;2.0859;
517.2000;1.2739;2.0980;
517.5000;1.2731;2.0980;
517.8000;1.2731;2.0786;
518.1000;1.2723;2.0738;
518.4000;1.2723;2.0786;
518.7000;1.2731;2.0859;
519.0000;1.2723;2.0907;
519.3000;1.2723;2.0931;
519.6000;1.2723;2.0907;
519.9000;1.2739;2.1004;
520.2000;1.2739;2.0980;
520.5000;1.2690;2.0859;
520.8000;1.2747;2.1028;
521.1000;1.2731;2.0956;
521.4000;1.2690;2.0811;
521.7000;1.2698;2.0835;
522.0000;1.2739;2.0859;
522.3000;1.2707;2.0859;
522.6000;1.2698;2.0762;
522.9000;1.2731;2.0835;
523.2000;1.2715;2.0811;
523.5000;1.2707;2.0786;
523.8000;1.2723;2.0811;
524.1000;1.2707;2.0762;
524.4000;1.2731;2.0786;
524.7000;1.2723;2.0786;
525.0000;1.2723;2.0907;
525.3000;1.2731;2.0883;
525.6000;1.2707;2.0786;
525.9000;1.2698;2.0762;
526.2000;1.2731;2.0714;
526.5000;1.2715;2.0786;
526.8000;1.2715;2.0811;
527.1000;1.2707;2.0786;
527.4000;1.2707;2.0786;
527.7000;1.2723;2.0835;
528.0000;1.2707;2.0835;
528.3000;1.2707;2.0859;
528.6000;1.2715;2.1004;
528.9000;1.2707;2.0931;
529.2000;1.2707;2.0883;
529.5000;1.2707;2.0883;
529.8000;1.2715;2.0835;
530.1000;1.2715;2.0859;
530.4000;1.2723;2.0956;
530.7000;1.2715;2.0907;
531.0000;1.2707;2.0835;
531.3000;1.2723;2.0859;
531.6000;1.2715;2.0883;
531.9000;1.2715;2.0907;
532.2000;1.2715;2.0835;
532.5000;1.2715;2.0859;
532.8000;1.2723;2.0859;
533.1000;1.2715;2.0859;
533.4000;1.2715;2.0811;
533.7000;1.2715;2.0859;
534.0000;1.2723;2.0907;
534.3000;1.2731;2.0859;
534.6000;1.2723;2.0811;
534.9000;1.2731;2.0811;
535.2000;1.2747;2.0786;
535.5000;1.2723;2.0641;
535.8000;1.2731;2.0593;
536.1000;1.2755;2.0593;
536.4000;1.2723;2.0545;
536.7000;1.2747;2.0521;
537.0000;1.2731;2.0521;
537.3000;1.2731;2.0545;
537.6000;1.2723;2.0545;
537.9000;1.2731;2.0593;
538.2000;1.2731;2.0641;
538.5000;1.2731;2.0641;
538.8000;1.2747;2.0714;
539.1000;1.2739;2.0690;
539.4000;1.2739;2.0738;
539.7000;1.2788;2.0835;
540.0000;1.2715;2.0738;
540.3000;1.2723;2.0714;
540.6000;1.2731;2.0762;
540.9000;1.2715;2.0690;
541.2000;1.2739;2.0786;
541.5000;1.2739;2.0762;
541.8000;1.2715;2.0762;
542.1000;1.2715;2.0762;
542.4000;1.2755;2.0859;
542.7000;1.2698;2.0786;
543.0000;1.2731;2.0883;
543.3000;1.2682;2.0786;
543.6000;1.2731;2.0786;
543.9000;1.2731;2.0835;
544.2000;1.2698;2.0738;
544.5000;1.2723;2.0738;
544.8000;1.2682;2.0714;
545.1000;1.2690;2.0738;
545.4000;1.2698;2.0786;
545.7000;1.2715;2.0786;
546.0000;1.2707;2.0714;
546.3000;1.2707;2.0666;
546.6000;1.2764;2.0786;
546.9000;1.2731;2.0738;
547.2000;1.2715;2.0762;
547.5000;1.2739;2.0811;
547.8000;1.2715;2.0714;
548.1000;1.2739;2.0786;
548.4000;1.2731;2.0835;
548.7000;1.2723;2.0811;
549.0000;1.2731;2.0786;
549.3000;1.2747;2.0907;
549.6000;1.2772;2.1004;
549.9000;1.2723;2.0956;
550.2000;1.2723;2.0883;
550.5000;1.2707;2.0883;
550.8000;1.2731;2.0931;
551.1000;1.2715;2.0980;
551.4000;1.2715;2.0883;
551.7000;1.2715;2.0835;
552.0000;1.2747;2.0811;
552.3000;1.2731;2.0738;
552.6000;1.2723;2.0762;
552.9000;1.2723;2.0762;
553.2000;1.2723;2.0617;
553.5000;1.2731;2.0593;
553.8000;1.2715;2.0617;
554.1000;1.2731;2.0690;
554.4000;1.2731;2.0786;
554.7000;1.2707;2.0786;
555.0000;1.2698;2.0714;
555.3000;1.2739;2.0859;
555.6000;1.2674;2.0786;
555.9000;1.2690;2.0738;
556.2000;1.2731;2.0786;
556.5000;1.2698;2.0666;
556.8000;1.2723;2.0641;
557.1000;1.2723;2.0569;
557.4000;1.2715;2.0593;
557.7000;1.2707;2.0641;
558.0000;1.2723;2.0641;
558.3000;1.2674;2.0641;
558.6000;1.2715;2.0786;
558.9000;1.2707;2.0835;
559.2000;1.2739;2.0883;
559.5000;1.2723;2.0859;
559.8000;1.2715;2.0859;
560.1000;1.2723;2.0811;
560.4000;1.2723;2.0835;
560.7000;1.2723;2.0883;
561.0000;1.2715;2.0786;
561.3000;1.2723;2.0786;
561.6000;1.2715;2.0786;
561.9000;1.2707;2.0738;
562.2000;1.2731;2.0811;
562.5000;1.2715;2.0714;
562.8000;1.2707;2.0714;
563.1000;1.2723;2.0714;
563.4000;1.2731;2.0666;
563.7000;1.2739;2.0641;
564.0000;1.2698;2.0521;
564.3000;1.2698;2.0545;
564.6000;1.2698;2.0593;
564.9000;1.2707;2.0617;
565.2000;1.2739;2.0666;
565.5000;1.2715;2.0593;
565.8000;1.2698;2.0545;
566.1000;1.2715;2.0593;
566.4000;1.2715;2.0593;
566.7000;1.2747;2.0690;
567.0000;1.2715;2.0738;
567.3000;1.2707;2.0666;
567.6000;1.2690;2.0690;
567.9000;1.2715;2.0641;
568.2000;1.2707;2.0545;
568.5000;1.2723;2.0521;
568.8000;1.2715;2.0496;
569.1000;1.2698;2.0424;
569.4000;1.2707;2.0521;
569.7000;1.2715;2.0641;
570.0000;1.2715;2.0617;
570.3000;1.2707;2.0666;
570.6000;1.2723;2.0666;
570.9000;1.2698;2.0617;
571.2000;1.2723;2.0593;
571.5000;1.2788;2.0859;
571.8000;1.2707;2.0690;
572.1000;1.2707;2.0714;
572.4000;1.2715;2.0786;
572.7000;1.2715;2.0786;
573.0000;1.2715;2.0835;
573.3000;1.2715;2.0811;
573.6000;1.2715;2.0811;
573.9000;1.2723;2.0811;
574.2000;1.2698;2.0714;
574.5000;1.2698;2.0714;
574.8000;1.2715;2.0762;
575.1000;1.2715;2.0811;
575.4000;1.2707;2.0762;
575.7000;1.2723;2.0883;
576.0000;1.2723;2.0931;
576.3000;1.2723;2.0931;
576.6000;1.2731;2.0835;
576.9000;1.2723;2.0738;
577.2000;1.2731;2.0690;
577.5000;1.2723;2.0666;
577.8000;1.2690;2.0738;
578.1000;1.2755;2.0835;
578.4000;1.2698;2.0690;
578.7000;1.2739;2.0738;
579.0000;1.2690;2.0666;
579.3000;1.2666;2.0569;
579.6000;1.2715;2.0786;
579.9000;1.2731;2.0883;
580.2000;1.2715;2.0811;
580.5000;1.2731;2.0907;
580.8000;1.2707;2.0786;
581.1000;1.2731;2.0738;
581.4000;1.2739;2.0762;
581.7000;1.2723;2.0762;
582.0000;1.2731;2.0738;
582.3000;1.2731;2.0835;
582.6000;1.2715;2.0907;
582.9000;1.2723;2.0956;
583.2000;1.2731;2.0980;
583.5000;1.2739;2.0931;
583.8000;1.2715;2.0859;
584.1000;1.2715;2.0786;
584.4000;1.2715;2.0762;
584.7000;1.2715;2.0859;
585.0000;1.2723;2.0883;
585.3000;1.2715;2.0931;
585.6000;1.2715;2.0980;
585.9000;1.2707;2.0931;
586.2000;1.2715;2.0956;
586.5000;1.2707;2.0956;
586.8000;1.2723;2.0883;
587.1000;1.2698;2.0762;
587.4000;1.2731;2.0786;
587.7000;1.2723;2.0811;
588.0000;1.2731;2.0859;
588.3000;1.2715;2.0786;
588.6000;1.2715;2.0762;
588.9000;1.2715;2.0738;
589.2000;1.2796;2.0883;
589.5000;1.2715;2.0738;
589.8000;1.2707;2.0690;
590.1000;1.2698;2.0666;
590.4000;1.2715;2.0762;
590.7000;1.2707;2.0714;
591.0000;1.2698;2.0714;
591.3000;1.2723;2.0786;
591.6000;1.2723;2.0738;
591.9000;1.2707;2.0666;
592.2000;1.2707;2.0593;
592.5000;1.2707;2.0690;
592.8000;1.2723;2.0641;
593.1000;1.2715;2.0738;
593.4000;1.2723;2.0738;
593.7000;1.2707;2.0714;
594.0000;1.2731;2.0859;
594.3000;1.2707;2.0786;
594.6000;1.2715;2.0859;
594.9000;1.2698;2.0835;
595.2000;1.2698;2.0811;
595.5000;1.2707;2.0811;
595.8000;1.2698;2.0835;
596.1000;1.2715;2.0786;
596.4000;1.2698;2.0762;
596.7000;1.2715;2.0835;
597.0000;1.2707;2.0811;
597.3000;1.2723;2.0859;
597.6000;1.2698;2.0811;
597.9000;1.2731;2.0859;
598.2000;1.2715;2.0786;
598.5000;1.2707;2.0786;
598.8000;1.2690;2.0762;
599.1000;1.2723;2.0811;
599.4000;1.2715;2.0859;
599.7000;1.2707;2.0883;
600.0000;1.2707;2.0883;
600.3000;1.2723;2.0738;
600.6000;1.2707;2.0545;
600.9000;1.2633;2.0255;
601.2000;1.2536;2.0086;
601.5000;1.2438;1.9916;
601.8000;1.2405;1.9916;
602.1000;1.2177;1.9554;
602.4000;1.2153;1.9530;
602.7000;1.1982;1.9167;
603.0000;1.1884;1.9070;
603.3000;1.1770;1.8853;
603.6000;1.1673;1.8756;
603.9000;1.1600;1.8684;
604.2000;1.1469;1.8394;
604.5000;1.1396;1.8345;
604.8000;1.1339;1.8297;
605.1000;1.1249;1.8249;
605.4000;1.1201;1.8224;
605.7000;1.1119;1.8055;
606.0000;1.1062;1.7959;
606.3000;1.0989;1.7886;
606.6000;1.0916;1.7838;
606.9000;1.0867;1.7814;
607.2000;1.0802;1.7717;
607.5000;1.0737;1.7644;
607.8000;1.0688;1.7596;
608.1000;1.0606;1.7499;
608.4000;1.0566;1.7475;
608.7000;1.0517;1.7427;
609.0000;1.0452;1.7403;
609.3000;1.0403;1.7306;
609.6000;1.0354;1.7233;
609.9000;1.0305;1.7258;
610.2000;1.0273;1.7233;
610.5000;1.0224;1.7258;
610.8000;1.0167;1.7161;
611.1000;1.0126;1.7040;
611.4000;1.0085;1.6992;
611.7000;1.0045;1.6992;
612.0000;1.0004;1.6992;
612.3000;0.9972;1.6968;
612.6000;0.9906;1.6919;
612.9000;0.9882;1.6968;
613.2000;0.9849;1.6968;
613.5000;0.9801;1.6943;
613.8000;0.9752;1.6943;
614.1000;0.9719;1.6823;
614.4000;0.9678;1.6774;
614.7000;0.9670;1.6774;
615.0000;0.9605;1.6581;
615.3000;0.9548;1.6557;
615.6000;0.9508;1.6629;
615.9000;0.9508;1.6653;
616.2000;0.9467;1.6581;
616.5000;0.9459;1.6629;
616.8000;0.9410;1.6605;
617.1000;0.9394;1.6653;
617.4000;0.9369;1.6557;
617.7000;0.9394;1.6702;
618.0000;0.9296;1.6581;
618.3000;0.9263;1.6508;
618.6000;0.9263;1.6653;
618.9000;0.9182;1.6605;
619.2000;0.9190;1.6581;
619.5000;0.9101;1.6460;
619.8000;0.9125;1.6484;
620.1000;0.9084;1.6460;
620.4000;0.9060;1.6363;
620.7000;0.9060;1.6363;
621.0000;0.9044;1.6363;
621.3000;0.9003;1.6315;
621.6000;0.8970;1.6339;
621.9000;0.8987;1.6267;
622.2000;0.8954;1.6242;
622.5000;0.8921;1.6194;
622.8000;0.8889;1.6291;
623.1000;0.8864;1.6315;
623.4000;0.8848;1.6387;
623.7000;0.8832;1.6484;
624.0000;0.8799;1.6532;
624.3000;0.8767;1.6484;
624.6000;0.8734;1.6387;
624.9000;0.8726;1.6339;
625.2000;0.8685;1.6363;
625.5000;0.8685;1.6363;
625.8000;0.8677;1.6315;
626.1000;0.8628;1.6194;
626.4000;0.8628;1.6315;
626.7000;0.8612;1.6242;
627.0000;0.8596;1.6146;
627.3000;0.8571;1.6097;
627.6000;0.8555;1.6122;
627.9000;0.8539;1.6097;
628.2000;0.8523;1.6146;
628.5000;0.8523;1.6025;
628.8000;0.8506;1.5952;
629.1000;0.8490;1.6025;
629.4000;0.8482;1.6097;
629.7000;0.8466;1.6122;
630.0000;0.8441;1.6170;
630.3000;0.8400;1.6146;
630.6000;0.8384;1.6073;
630.9000;0.8352;1.6001;
631.2000;0.8360;1.6146;
631.5000;0.8344;1.6122;
631.8000;0.8344;1.6170;
632.1000;0.8319;1.6073;
632.4000;0.8368;1.6218;
632.7000;0.8303;1.6170;
633.0000;0.8278;1.6122;
633.3000;0.8270;1.6146;
633.6000;0.8278;1.6146;
633.9000;0.8254;1.6122;
634.2000;0.8270;1.6122;
634.5000;0.8221;1.6146;
634.8000;0.8221;1.6073;
635.1000;0.8230;1.6146;
635.4000;0.8205;1.6170;
635.7000;0.8173;1.6073;
636.0000;0.8156;1.5977;
636.3000;0.8189;1.6025;
636.6000;0.8164;1.6001;
636.9000;0.8107;1.5880;
637.2000;0.8107;1.5904;
637.5000;0.8116;1.6001;
637.8000;0.8124;1.5977;
638.1000;0.8083;1.5928;
638.4000;0.8091;1.6001;
638.7000;0.8075;1.5977;
639.0000;0.8059;1.6001;
639.3000;0.8042;1.6025;
639.6000;0.8067;1.6194;
639.9000;0.8010;1.6049;
640.2000;0.8002;1.6073;
640.5000;0.7977;1.6146;
640.8000;0.7977;1.6194;
641.1000;0.7969;1.6122;
641.4000;0.7977;1.6025;
641.7000;0.7961;1.5904;
642.0000;0.7937;1.5904;
642.3000;0.7920;1.5880;
642.6000;0.7985;1.6122;
642.9000;0.7920;1.5952;
643.2000;0.7912;1.5904;
643.5000;0.7888;1.5807;
643.8000;0.7896;1.5832;
644.1000;0.7880;1.5904;
644.4000;0.7871;1.5880;
644.7000;0.7839;1.5856;
645.0000;0.7888;1.6097;
645.3000;0.7839;1.6073;
645.6000;0.7831;1.6097;
645.9000;0.7814;1.6073;
646.2000;0.7814;1.6218;
646.5000;0.7814;1.6291;
646.8000;0.7806;1.6194;
647.1000;0.7782;1.6170;
647.4000;0.7790;1.6073;
647.7000;0.7782;1.6001;
648.0000;0.7725;1.5856;
648.3000;0.7757;1.5952;
648.6000;0.7741;1.5928;
648.9000;0.7749;1.5952;
649.2000;0.7741;1.6001;
649.5000;0.7717;1.6001;
649.8000;0.7717;1.6025;
650.1000;0.7709;1.6049;
650.4000;0.7700;1.6049;
650.7000;0.7684;1.6049;
651.0000;0.7709;1.6073;
651.3000;0.7668;1.5952;
651.6000;0.7684;1.6001;
651.9000;0.7668;1.5952;
652.2000;0.7643;1.5952;
652.5000;0.7652;1.5952;
652.8000;0.7643;1.5952;
653.1000;0.7652;1.5952;
653.4000;0.7643;1.6025;
653.7000;0.7611;1.5952;
654.0000;0.7627;1.5928;
654.3000;0.7595;1.6001;
654.6000;0.7611;1.6025;
654.9000;0.7595;1.6025;
655.2000;0.7603;1.6073;
655.5000;0.7595;1.6025;
655.8000;0.7586;1.6025;
656.1000;0.7562;1.5952;
656.4000;0.7554;1.5952;
656.7000;0.7546;1.6049;
657.0000;0.7554;1.6122;
657.3000;0.7562;1.6146;
657.6000;0.7521;1.5977;
657.9000;0.7554;1.5977;
658.2000;0.7538;1.6001;
658.5000;0.7530;1.6025;
658.8000;0.7513;1.5977;
659.1000;0.7513;1.6025;
659.4000;0.7481;1.6001;
659.7000;0.7489;1.5977;
660.0000;0.7481;1.6049;
660.3000;0.7489;1.6097;
660.6000;0.7497;1.6146;
660.9000;0.7489;1.6194;
661.2000;0.7391;1.5952;
661.5000;0.7440;1.6049;
661.8000;0.7440;1.6001;
662.1000;0.7505;1.6194;
662.4000;0.7399;1.5904;
662.7000;0.7432;1.5952;
663.0000;0.7440;1.6001;
663.3000;0.7416;1.5977;
663.6000;0.7375;1.5880;
663.9000;0.7399;1.5952;
664.2000;0.7424;1.5904;
664.5000;0.7399;1.5904;
664.8000;0.7342;1.5711;
665.1000;0.7383;1.5856;
665.4000;0.7383;1.5832;
665.7000;0.7383;1.5880;
666.0000;0.7367;1.5807;
666.3000;0.7359;1.5904;
666.6000;0.7359;1.5807;
666.9000;0.7424;1.5977;
667.2000;0.7375;1.5856;
667.5000;0.7375;1.5783;
667.8000;0.7334;1.5662;
668.1000;0.7350;1.5735;
668.4000;0.7350;1.5783;
668.7000;0.7318;1.5807;
669.0000;0.7342;1.5952;
669.3000;0.7334;1.6049;
669.6000;0.7326;1.5977;
669.9000;0.7318;1.6025;
670.2000;0.7293;1.6049;
670.5000;0.7326;1.6170;
670.8000;0.7318;1.6170;
671.1000;0.7293;1.6122;
671.4000;0.7302;1.6122;
671.7000;0.7310;1.6097;
672.0000;0.7285;1.6049;
672.3000;0.7269;1.6001;
672.6000;0.7261;1.5977;
672.9000;0.7261;1.6049;
673.2000;0.7269;1.6073;
673.5000;0.7302;1.6170;
673.8000;0.7285;1.6267;
674.1000;0.7253;1.6170;
674.4000;0.7277;1.6242;
674.7000;0.7245;1.6170;
675.0000;0.7236;1.6122;
675.3000;0.7245;1.6194;
675.6000;0.7228;1.6170;
675.9000;0.7253;1.6146;
676.2000;0.7277;1.6218;
676.5000;0.7212;1.6170;
676.8000;0.7212;1.6194;
677.1000;0.7236;1.6218;
677.4000;0.7236;1.6001;
677.7000;0.7220;1.5928;
678.0000;0.7204;1.5928;
678.3000;0.7196;1.5977;
678.6000;0.7188;1.6073;
678.9000;0.7179;1.6025;
679.2000;0.7188;1.6025;
679.5000;0.7196;1.6049;
679.8000;0.7179;1.5952;
680.1000;0.7171;1.5904;
680.4000;0.7171;1.5880;
680.7000;0.7163;1.5856;
681.0000;0.7171;1.5928;
681.3000;0.7163;1.5952;
681.6000;0.7155;1.5977;
681.9000;0.7155;1.6049;
682.2000;0.7163;1.6049;
682.5000;0.7163;1.6049;
682.8000;0.7155;1.6122;
683.1000;0.7147;1.6146;
683.4000;0.7147;1.6218;
683.7000;0.7114;1.6146;
684.0000;0.7131;1.6242;
684.3000;0.7131;1.6146;
684.6000;0.7123;1.6122;
684.9000;0.7131;1.6122;
685.2000;0.7106;1.6025;
685.5000;0.7123;1.6001;
685.8000;0.7114;1.5952;
686.1000;0.7131;1.6025;
686.4000;0.7098;1.5952;
686.7000;0.7074;1.5832;
687.0000;0.7098;1.5928;
687.3000;0.7098;1.5952;
687.6000;0.7098;1.5952;
687.9000;0.7057;1.5904;
688.2000;0.7066;1.5928;
688.5000;0.7074;1.6001;
688.8000;0.7082;1.6001;
689.1000;0.7074;1.6025;
689.4000;0.7082;1.6218;
689.7000;0.7017;1.6001;
690.0000;0.7074;1.6097;
690.3000;0.7049;1.6073;
690.6000;0.7057;1.6049;
690.9000;0.7066;1.6049;
691.2000;0.7066;1.6122;
691.5000;0.7041;1.6170;
691.8000;0.7066;1.6218;
692.1000;0.7049;1.6073;
692.4000;0.7041;1.6049;
692.7000;0.7033;1.5880;
693.0000;0.7049;1.5928;
693.3000;0.7025;1.5928;
693.6000;0.7033;1.5832;
693.9000;0.7041;1.5807;
694.2000;0.7033;1.5856;
694.5000;0.7033;1.5880;
694.8000;0.7041;1.5977;
695.1000;0.7041;1.5928;
695.4000;0.7017;1.5904;
695.7000;0.7009;1.5977;
696.0000;0.7009;1.5977;
696.3000;0.7009;1.5977;
696.6000;0.7017;1.6001;
696.9000;0.7009;1.5952;
697.2000;0.6984;1.5977;
697.5000;0.6992;1.5952;
697.8000;0.7009;1.5952;
698.1000;0.7000;1.5952;
698.4000;0.6984;1.5856;
698.7000;0.7000;1.5904;
699.0000;0.6992;1.5880;
699.3000;0.7025;1.6001;
699.6000;0.6992;1.5977;
699.9000;0.6984;1.5928;
700.2000;0.6968;1.6001;
700.5000;0.7000;1.6025;
700.8000;0.6943;1.5952;
701.1000;0.6968;1.6025;
701.4000;0.6968;1.6025;
701.7000;0.6943;1.5977;
702.0000;0.6935;1.5904;
702.3000;0.6943;1.5904;
702.6000;0.6952;1.5952;
702.9000;0.6903;1.5880;
703.2000;0.6960;1.5977;
703.5000;0.6935;1.6025;
703.8000;0.6960;1.6097;
704.1000;0.6960;1.6073;
704.4000;0.6952;1.5928;
704.7000;0.6935;1.5880;
705.0000;0.6943;1.5952;
705.3000;0.6943;1.5977;
705.6000;0.6960;1.5952;
705.9000;0.6927;1.5856;
706.2000;0.6935;1.5856;
706.5000;0.6927;1.5783;
706.8000;0.6943;1.5807;
707.1000;0.6927;1.5807;
707.4000;0.6919;1.5856;
707.7000;0.6919;1.5952;
708.0000;0.6919;1.5928;
708.3000;0.6903;1.5880;
708.6000;0.6911;1.5928;
708.9000;0.6911;1.5952;
709.2000;0.6903;1.5904;
709.5000;0.6911;1.6001;
709.8000;0.6935;1.6073;
710.1000;0.6903;1.5952;
710.4000;0.6895;1.5952;
710.7000;0.6854;1.5832;
711.0000;0.6878;1.5977;
711.3000;0.6903;1.6025;
711.6000;0.6895;1.6025;
711.9000;0.6895;1.6025;
712.2000;0.6870;1.6001;
712.5000;0.6886;1.6049;
712.8000;0.6895;1.6025;
713.1000;0.6878;1.5928;
713.4000;0.6870;1.6001;
713.7000;0.6829;1.5832;
714.0000;0.6862;1.5977;
714.3000;0.6870;1.6025;
714.6000;0.6911;1.6146;
714.9000;0.6854;1.5952;
715.2000;0.6878;1.6073;
715.5000;0.6870;1.6025;
715.8000;0.6903;1.6146;
716.1000;0.6846;1.6025;
716.4000;0.6846;1.6001;
716.7000;0.6846;1.6001;
717.0000;0.6846;1.6073;
717.3000;0.6846;1.6170;
717.6000;0.6846;1.6218;
717.9000;0.6854;1.6267;
718.2000;0.6821;1.6049;
718.5000;0.6846;1.6146;
718.8000;0.6813;1.6146;
719.1000;0.6813;1.6097;
719.4000;0.6838;1.6122;
719.7000;0.6829;1.6097;
720.0000;0.6821;1.6146;
720.3000;0.6821;1.6170;
720.6000;0.6829;1.6194;
720.9000;0.6838;1.6146;
721.2000;0.6829;1.6122;
721.5000;0.6821;1.6097;
721.8000;0.6813;1.6001;
722.1000;0.6805;1.5904;
722.4000;0.6813;1.5928;
722.7000;0.6805;1.5807;
723.0000;0.6813;1.5880;
723.3000;0.6789;1.5711;
723.6000;0.6781;1.5662;
723.9000;0.6821;1.5807;
724.2000;0.6813;1.5880;
724.5000;0.6821;1.5880;
724.8000;0.6789;1.5904;
725.1000;0.6789;1.6049;
725.4000;0.6813;1.6097;
725.7000;0.6805;1.6049;
726.0000;0.6732;1.5904;
726.3000;0.6789;1.5977;
726.6000;0.6805;1.6049;
726.9000;0.6797;1.6025;
727.2000;0.6797;1.6001;
727.5000;0.6781;1.5904;
727.8000;0.6797;1.5783;
728.1000;0.6797;1.5783;
728.4000;0.6789;1.5880;
728.7000;0.6772;1.5832;
729.0000;0.6789;1.5856;
729.3000;0.6789;1.5832;
729.6000;0.6797;1.5880;
729.9000;0.6781;1.5880;
730.2000;0.6789;1.5880;
730.5000;0.6716;1.5807;
730.8000;0.6756;1.5880;
731.1000;0.6756;1.5928;
731.4000;0.6772;1.5977;
731.7000;0.6756;1.5928;
732.0000;0.6813;1.6049;
732.3000;0.6748;1.5928;
732.6000;0.6740;1.5928;
732.9000;0.6748;1.5880;
733.2000;0.6740;1.5904;
733.5000;0.6667;1.5735;
733.8000;0.6740;1.5880;
734.1000;0.6732;1.5807;
734.4000;0.6740;1.5856;
734.7000;0.6740;1.5832;
735.0000;0.6740;1.5832;
735.3000;0.6732;1.5856;
735.6000;0.6740;1.5904;
735.9000;0.6740;1.5832;
736.2000;0.6724;1.5735;
736.5000;0.6732;1.5687;
736.8000;0.6748;1.5759;
737.1000;0.6740;1.5832;
737.4000;0.6740;1.5759;
737.7000;0.6740;1.5783;
738.0000;0.6772;1.5928;
738.3000;0.6748;1.5832;
738.6000;0.6724;1.5783;
738.9000;0.6740;1.5759;
739.2000;0.6707;1.5783;
739.5000;0.6732;1.5807;
739.8000;0.6724;1.5856;
740.1000;0.6724;1.5856;
740.4000;0.6716;1.5904;
740.7000;0.6748;1.6001;
741.0000;0.6724;1.5783;
741.3000;0.6740;1.5856;
741.6000;0.6716;1.5783;
741.9000;0.6707;1.5832;
742.2000;0.6724;1.5687;
742.5000;0.6732;1.5662;
742.8000;0.6716;1.5662;
743.1000;0.6707;1.5687;
743.4000;0.6707;1.5711;
743.7000;0.6724;1.5783;
744.0000;0.6699;1.5638;
744.3000;0.6683;1.5590;
744.6000;0.6732;1.5662;
744.9000;0.6748;1.5783;
745.2000;0.6675;1.5662;
745.5000;0.6675;1.5687;
745.8000;0.6691;1.5783;
746.1000;0.6699;1.5807;
746.4000;0.6683;1.5832;
746.7000;0.6675;1.5928;
747.0000;0.6691;1.5952;
747.3000;0.6699;1.6025;
747.6000;0.6683;1.6025;
747.9000;0.6683;1.5977;
748.2000;0.6675;1.5904;
748.5000;0.6618;1.5687;
748.8000;0.6691;1.5904;
749.1000;0.6683;1.5880;
749.4000;0.6659;1.5880;
749.7000;0.6683;1.5928;
750.0000;0.6667;1.6025;
750.3000;0.6675;1.5977;
750.6000;0.6691;1.6025;
750.9000;0.6691;1.6073;
751.2000;0.6724;1.6267;
751.5000;0.6707;1.6242;
751.8000;0.6691;1.6242;
752.1000;0.6683;1.6242;
752.4000;0.6683;1.6291;
752.7000;0.6683;1.6363;
753.0000;0.6634;1.6218;
753.3000;0.6642;1.6291;
753.6000;0.6699;1.6412;
753.9000;0.6659;1.6339;
754.2000;0.6634;1.6387;
754.5000;0.6650;1.6412;
754.8000;0.6650;1.6460;
755.1000;0.6618;1.6218;
755.4000;0.6626;1.6291;
755.7000;0.6642;1.6315;
756.0000;0.6634;1.6339;
756.3000;0.6642;1.6436;
756.6000;0.6626;1.6339;
756.9000;0.6667;1.6363;
757.2000;0.6642;1.6315;
757.5000;0.6691;1.6387;
757.8000;0.6650;1.6267;
758.1000;0.6642;1.6315;
758.4000;0.6634;1.6242;
758.7000;0.6650;1.6267;
759.0000;0.6634;1.6267;
759.3000;0.6634;1.6194;
759.6000;0.6626;1.6242;
759.9000;0.6626;1.6267;
760.2000;0.6634;1.6291;
760.5000;0.6626;1.6242;
760.8000;0.6634;1.6194;
761.1000;0.6634;1.6170;
761.4000;0.6642;1.6170;
761.7000;0.6650;1.6194;
762.0000;0.6626;1.6122;
762.3000;0.6634;1.6218;
762.6000;0.6634;1.6194;
762.9000;0.6634;1.6194;
763.2000;0.6642;1.6097;
763.5000;0.6634;1.6146;
763.8000;0.6626;1.6194;
764.1000;0.6626;1.6242;
764.4000;0.6626;1.6242;
764.7000;0.6602;1.6146;
765.0000;0.6634;1.6218;
765.3000;0.6650;1.6242;
765.6000;0.6618;1.6242;
765.9000;0.6602;1.6218;
766.2000;0.6618;1.6291;
766.5000;0.6650;1.6315;
766.8000;0.6626;1.6242;
767.1000;0.6602;1.6170;
767.4000;0.6602;1.6194;
767.7000;0.6618;1.6170;
768.0000;0.6610;1.6146;
768.3000;0.6593;1.6122;
768.6000;0.6675;1.6267;
768.9000;0.6610;1.6049;
769.2000;0.6610;1.6049;
769.5000;0.6577;1.5952;
769.8000;0.6585;1.6049;
770.1000;0.6585;1.6001;
770.4000;0.6593;1.6073;
770.7000;0.6593;1.6122;
771.0000;0.6577;1.6049;
771.3000;0.6602;1.6122;
771.6000;0.6593;1.6242;
771.9000;0.6602;1.6194;
772.2000;0.6602;1.6146;
772.5000;0.6561;1.6001;
772.8000;0.6602;1.6097;
773.1000;0.6577;1.6122;
773.4000;0.6593;1.6146;
773.7000;0.6593;1.6170;
774.0000;0.6602;1.6170;
774.3000;0.6593;1.6073;
774.6000;0.6585;1.6025;
774.9000;0.6602;1.6049;
775.2000;0.6577;1.6025;
775.5000;0.6634;1.6073;
775.8000;0.6593;1.6025;
776.1000;0.6610;1.6025;
776.4000;0.6561;1.5904;
776.7000;0.6577;1.5928;
777.0000;0.6585;1.5904;
777.3000;0.6561;1.5928;
777.6000;0.6569;1.5904;
777.9000;0.6577;1.5952;
778.2000;0.6610;1.6122;
778.5000;0.6634;1.6194;
778.8000;0.6585;1.6097;
779.1000;0.6561;1.6001;
779.4000;0.6577;1.6049;
779.7000;0.6585;1.6097;
780.0000;0.6585;1.6170;
780.3000;0.6626;1.6315;
780.6000;0.6569;1.6218;
780.9000;0.6569;1.6097;
781.2000;0.6577;1.6146;
781.5000;0.6577;1.6194;
781.8000;0.6577;1.6291;
782.1000;0.6577;1.6267;
782.4000;0.6569;1.6170;
782.7000;0.6553;1.6218;
783.0000;0.6577;1.6242;
783.3000;0.6561;1.6218;
783.6000;0.6569;1.6146;
783.9000;0.6561;1.6097;
784.2000;0.6520;1.6049;
784.5000;0.6569;1.6242;
784.8000;0.6569;1.6218;
785.1000;0.6536;1.6146;
785.4000;0.6577;1.6267;
785.7000;0.6577;1.6267;
786.0000;0.6561;1.6194;
786.3000;0.6553;1.6194;
786.6000;0.6585;1.6387;
786.9000;0.6545;1.6339;
787.2000;0.6561;1.6412;
787.5000;0.6577;1.6460;
787.8000;0.6536;1.6291;
788.1000;0.6545;1.6363;
788.4000;0.6561;1.6339;
788.7000;0.6545;1.6315;
789.0000;0.6561;1.6387;
789.3000;0.6585;1.6387;
789.6000;0.6561;1.6363;
789.9000;0.6569;1.6291;
790.2000;0.6536;1.6194;
790.5000;0.6545;1.6170;
790.8000;0.6520;1.6170;
791.1000;0.6528;1.6194;
791.4000;0.6553;1.6315;
791.7000;0.6488;1.6170;
792.0000;0.6553;1.6291;
792.3000;0.6536;1.6267;
792.6000;0.6536;1.6315;
792.9000;0.6528;1.6339;
793.2000;0.6536;1.6387;
793.5000;0.6536;1.6363;
793.8000;0.6528;1.6363;
794.1000;0.6536;1.6387;
794.4000;0.6545;1.6339;
794.7000;0.6545;1.6267;
795.0000;0.6528;1.6146;
795.3000;0.6536;1.6073;
795.6000;0.6536;1.6073;
795.9000;0.6520;1.6146;
796.2000;0.6528;1.6218;
796.5000;0.6504;1.6097;
796.8000;0.6536;1.6025;
797.1000;0.6545;1.6025;
797.4000;0.6528;1.6025;
797.7000;0.6528;1.6073;
798.0000;0.6536;1.6146;
798.3000;0.6528;1.6146;
798.6000;0.6528;1.6097;
798.9000;0.6512;1.6073;
799.2000;0.6520;1.6170;
799.5000;0.6528;1.6291;
799.8000;0.6471;1.6146;
800.1000;0.6512;1.6267;
800.4000;0.6512;1.6315;
800.7000;0.6520;1.6339;
801.0000;0.6520;1.6315;
801.3000;0.6528;1.6363;
801.6000;0.6504;1.6363;
801.9000;0.6520;1.6436;
802.2000;0.6504;1.6339;
802.5000;0.6520;1.6387;
802.8000;0.6520;1.6436;
803.1000;0.6520;1.6412;
803.4000;0.6561;1.6581;
803.7000;0.6528;1.6412;
804.0000;0.6528;1.6387;
804.3000;0.6504;1.6315;
804.6000;0.6479;1.6291;
804.9000;0.6520;1.6315;
805.2000;0.6561;1.6508;
805.5000;0.6431;1.6218;
805.8000;0.6504;1.6242;
806.1000;0.6528;1.6315;
806.4000;0.6504;1.6315;
806.7000;0.6528;1.6436;
807.0000;0.6512;1.6363;
807.3000;0.6496;1.6315;
807.6000;0.6512;1.6242;
807.9000;0.6512;1.6315;
808.2000;0.6512;1.6291;
808.5000;0.6488;1.6291;
808.8000;0.6512;1.6339;
809.1000;0.6479;1.6194;
809.4000;0.6504;1.6267;
809.7000;0.6504;1.6242;
810.0000;0.6512;1.6315;
810.3000;0.6488;1.6315;
810.6000;0.6479;1.6267;
810.9000;0.6488;1.6267;
811.2000;0.6504;1.6315;
811.5000;0.6479;1.6291;
811.8000;0.6488;1.6291;
812.1000;0.6488;1.6315;
812.4000;0.6488;1.6315;
812.7000;0.6488;1.6291;
813.0000;0.6496;1.6267;
813.3000;0.6439;1.6218;
813.6000;0.6463;1.6170;
813.9000;0.6479;1.6242;
814.2000;0.6471;1.6122;
814.5000;0.6422;1.6073;
814.8000;0.6479;1.6315;
815.1000;0.6488;1.6387;
815.4000;0.6488;1.6387;
815.7000;0.6536;1.6508;
816.0000;0.6488;1.6315;
816.3000;0.6488;1.6363;
816.6000;0.6479;1.6339;
816.9000;0.6479;1.6315;
817.2000;0.6488;1.6363;
817.5000;0.6479;1.6436;
817.8000;0.6471;1.6460;
818.1000;0.6471;1.6387;
818.4000;0.6463;1.6387;
818.7000;0.6496;1.6436;
819.0000;0.6488;1.6363;
819.3000;0.6471;1.6363;
819.6000;0.6471;1.6363;
819.9000;0.6488;1.6363;
820.2000;0.6496;1.6315;
820.5000;0.6479;1.6315;
820.8000;0.6471;1.6170;
821.1000;0.6496;1.6194;
821.4000;0.6479;1.6170;
821.7000;0.6479;1.6194;
822.0000;0.6488;1.6267;
822.3000;0.6479;1.6339;
822.6000;0.6479;1.6315;
822.9000;0.6488;1.6315;
823.2000;0.6479;1.6315;
823.5000;0.6488;1.6267;
823.8000;0.6447;1.6146;
824.1000;0.6479;1.6267;
824.4000;0.6463;1.6267;
824.7000;0.6414;1.6242;
825.0000;0.6471;1.6484;
825.3000;0.6455;1.6436;
825.6000;0.6479;1.6484;
825.9000;0.6455;1.6412;
826.2000;0.6455;1.6267;
826.5000;0.6439;1.6194;
826.8000;0.6447;1.6242;
827.1000;0.6463;1.6267;
827.4000;0.6455;1.6170;
827.7000;0.6447;1.6122;
828.0000;0.6479;1.6242;
828.3000;0.6447;1.6073;
828.6000;0.6431;1.6025;
828.9000;0.6447;1.6073;
829.2000;0.6479;1.6242;
829.5000;0.6455;1.6242;
829.8000;0.6455;1.6242;
830.1000;0.6431;1.6170;
830.4000;0.6455;1.6218;
830.7000;0.6422;1.6049;
831.0000;0.6406;1.6025;
831.3000;0.6455;1.6122;
831.6000;0.6463;1.6049;
831.9000;0.6414;1.5832;
832.2000;0.6439;1.5928;
832.5000;0.6439;1.6001;
832.8000;0.6447;1.6049;
833.1000;0.6447;1.6170;
833.4000;0.6447;1.6146;
833.7000;0.6447;1.6073;
834.0000;0.6479;1.6097;
834.3000;0.6455;1.6073;
834.6000;0.6447;1.6073;
834.9000;0.6439;1.6122;
835.2000;0.6439;1.6097;
835.5000;0.6447;1.6097;
835.8000;0.6439;1.5977;
836.1000;0.6431;1.6025;
836.4000;0.6447;1.6097;
836.7000;0.6431;1.6122;
837.0000;0.6455;1.6315;
837.3000;0.6431;1.6291;
837.6000;0.6439;1.6170;
837.9000;0.6398;1.6001;
838.2000;0.6463;1.6122;
838.5000;0.6447;1.6073;
838.8000;0.6431;1.6001;
839.1000;0.6439;1.6049;
839.4000;0.6463;1.6218;
839.7000;0.6431;1.6218;
840.0000;0.6471;1.6218;
840.3000;0.6414;1.6073;
840.6000;0.6431;1.6025;
840.9000;0.6374;1.5928;
841.2000;0.6414;1.6146;
841.5000;0.6422;1.6218;
841.8000;0.6439;1.6194;
842.1000;0.6422;1.6146;
842.4000;0.6422;1.6073;
842.7000;0.6431;1.6122;
843.0000;0.6422;1.6097;
843.3000;0.6439;1.6073;
843.6000;0.6422;1.6025;
843.9000;0.6447;1.6146;
844.2000;0.6447;1.6122;
844.5000;0.6439;1.6122;
844.8000;0.6455;1.6097;
845.1000;0.6431;1.6025;
845.4000;0.6439;1.6049;
845.7000;0.6431;1.6122;
846.0000;0.6414;1.6097;
846.3000;0.6414;1.6146;
846.6000;0.6431;1.6097;
846.9000;0.6414;1.6049;
847.2000;0.6422;1.6049;
847.5000;0.6422;1.6025;
847.8000;0.6431;1.6025;
848.1000;0.6431;1.6001;
848.4000;0.6455;1.6001;
848.7000;0.6439;1.6073;
849.0000;0.6414;1.6073;
849.3000;0.6414;1.6146;
849.6000;0.6447;1.6218;
849.9000;0.6382;1.6146;
850.2000;0.6390;1.6146;
850.5000;0.6374;1.6073;
850.8000;0.6422;1.6122;
851.1000;0.6398;1.6097;
851.4000;0.6414;1.6122;
851.7000;0.6431;1.6146;
852.0000;0.6406;1.6097;
852.3000;0.6414;1.6122;
852.6000;0.6422;1.6146;
852.9000;0.6406;1.6122;
853.2000;0.6422;1.6267;
853.5000;0.6414;1.6267;
853.8000;0.6406;1.6242;
854.1000;0.6414;1.6122;
854.4000;0.6414;1.6122;
854.7000;0.6422;1.6146;
855.0000;0.6414;1.6146;
855.3000;0.6406;1.6122;
855.6000;0.6422;1.6194;
855.9000;0.6431;1.6146;
856.2000;0.6422;1.6097;
856.5000;0.6431;1.6146;
856.8000;0.6439;1.6218;
857.1000;0.6406;1.6218;
857.4000;0.6406;1.6170;
857.7000;0.6398;1.6170;
858.0000;0.6431;1.6194;
858.3000;0.6406;1.6218;
858.6000;0.6390;1.6170;
858.9000;0.6447;1.6291;
859.2000;0.6406;1.6122;
859.5000;0.6414;1.6218;
859.8000;0.6398;1.6122;
860.1000;0.6447;1.6194;
860.4000;0.6398;1.6122;
860.7000;0.6398;1.6122;
861.0000;0.6422;1.6122;
861.3000;0.6398;1.6001;
861.6000;0.6398;1.5952;
861.9000;0.6390;1.5977;
862.2000;0.6406;1.5977;
862.5000;0.6398;1.5952;
862.8000;0.6390;1.6001;
863.1000;0.6390;1.6049;
863.4000;0.6422;1.6025;
863.7000;0.6390;1.5952;
864.0000;0.6406;1.6001;
864.3000;0.6431;1.6170;
864.6000;0.6390;1.6073;
864.9000;0.6390;1.6073;
865.2000;0.6390;1.6122;
865.5000;0.6374;1.6001;
865.8000;0.6406;1.6097;
866.1000;0.6398;1.6073;
866.4000;0.6406;1.6049;
866.7000;0.6390;1.6001;
867.0000;0.6414;1.6073;
867.3000;0.6406;1.6025;
867.6000;0.6398;1.5952;
867.9000;0.6414;1.5952;
868.2000;0.6382;1.5977;
868.5000;0.6406;1.6122;
868.8000;0.6398;1.6146;
869.1000;0.6398;1.6170;
869.4000;0.6390;1.6194;
869.7000;0.6390;1.6242;
870.0000;0.6357;1.6170;
870.3000;0.6365;1.6170;
870.6000;0.6365;1.6170;
870.9000;0.6382;1.6218;
871.2000;0.6357;1.6242;
871.5000;0.6365;1.6218;
871.8000;0.6390;1.6242;
872.1000;0.6349;1.6122;
872.4000;0.6374;1.6097;
872.7000;0.6382;1.6049;
873.0000;0.6365;1.6073;
873.3000;0.6357;1.6049;
873.6000;0.6382;1.6097;
873.9000;0.6374;1.6146;
874.2000;0.6382;1.6146;
874.5000;0.6382;1.6097;
874.8000;0.6390;1.6097;
875.1000;0.6382;1.6097;
875.4000;0.6390;1.6170;
875.7000;0.6382;1.6194;
876.0000;0.6374;1.6218;
876.3000;0.6390;1.6146;
876.6000;0.6398;1.6170;
876.9000;0.6365;1.6122;
877.2000;0.6390;1.6170;
877.5000;0.6390;1.6122;
877.8000;0.6398;1.6170;
878.1000;0.6382;1.6073;
878.4000;0.6374;1.6049;
878.7000;0.6398;1.6001;
879.0000;0.6390;1.6049;
879.3000;0.6374;1.6025;
879.6000;0.6390;1.6073;
879.9000;0.6357;1.6001;
880.2000;0.6398;1.6073;
880.5000;0.6382;1.6049;
880.8000;0.6357;1.5904;
881.1000;0.6365;1.5928;
881.4000;0.6349;1.5928;
881.7000;0.6390;1.5952;
882.0000;0.6374;1.5977;
882.3000;0.6382;1.6025;
882.6000;0.6365;1.6025;
882.9000;0.6365;1.6097;
883.2000;0.6374;1.6146;
883.5000;0.6349;1.6073;
883.8000;0.6325;1.6001;
884.1000;0.6365;1.6025;
884.4000;0.6365;1.5977;
884.7000;0.6349;1.5904;
885.0000;0.6365;1.5952;
885.3000;0.6382;1.5952;
885.6000;0.6349;1.5904;
885.9000;0.6333;1.5807;
886.2000;0.6374;1.5856;
886.5000;0.6349;1.5783;
886.8000;0.6349;1.5807;
887.1000;0.6349;1.5807;
887.4000;0.6349;1.5832;
887.7000;0.6365;1.5928;
888.0000;0.6382;1.5904;
888.3000;0.6349;1.5832;
888.6000;0.6365;1.5880;
888.9000;0.6365;1.5952;
889.2000;0.6357;1.5977;
889.5000;0.6374;1.5977;
889.8000;0.6365;1.6001;
890.1000;0.6406;1.6218;
890.4000;0.6382;1.6170;
890.7000;0.6382;1.6146;
891.0000;0.6374;1.6194;
891.3000;0.6349;1.6122;
891.6000;0.6374;1.6073;
891.9000;0.6357;1.5977;
892.2000;0.6357;1.6025;
892.5000;0.6365;1.6049;
892.8000;0.6365;1.6025;
893.1000;0.6365;1.6073;
893.4000;0.6374;1.6049;
893.7000;0.6374;1.6097;
894.0000;0.6357;1.6194;
894.3000;0.6365;1.6122;
894.6000;0.6357;1.6001;
894.9000;0.6349;1.6073;
895.2000;0.6333;1.6146;
895.5000;0.6365;1.6194;
895.8000;0.6349;1.6194;
896.1000;0.6341;1.6097;
896.4000;0.6357;1.6170;
896.7000;0.6349;1.6194;
897.0000;0.6341;1.6170;
897.3000;0.6357;1.6073;
897.6000;0.6341;1.6122;
897.9000;0.6341;1.6146;
898.2000;0.6390;1.6291;
898.5000;0.6325;1.6146;
898.8000;0.6349;1.6025;
899.1000;0.6341;1.6001;
899.4000;0.6365;1.6001;
899.7000;0.6357;1.6001;
900.0000;0.6374;1.6097;
900.3000;0.6365;1.6073;
900.6000;0.6357;1.6122;
900.9000;0.6365;1.6170;
901.2000;0.6365;1.6218;
901.5000;0.6357;1.6170;
901.8000;0.6374;1.6146;
902.1000;0.6365;1.6170;
902.4000;0.6365;1.6170;
902.7000;0.6349;1.6170;
903.0000;0.6349;1.6146;
903.3000;0.6349;1.6097;
903.6000;0.6374;1.6170;
903.9000;0.6349;1.6122;
904.2000;0.6349;1.6146;
904.5000;0.6349;1.6194;
904.8000;0.6357;1.6194;
905.1000;0.6365;1.6242;
905.4000;0.6390;1.6436;
905.7000;0.6390;1.6508;
906.0000;0.6341;1.6242;
906.3000;0.6357;1.6363;
906.6000;0.6374;1.6436;
906.9000;0.6309;1.6339;
907.2000;0.6341;1.6315;
907.5000;0.6333;1.6242;
907.8000;0.6325;1.6170;
908.1000;0.6341;1.6194;
908.4000;0.6341;1.6218;
908.7000;0.6341;1.6097;
909.0000;0.6333;1.6146;
909.3000;0.6357;1.6267;
909.6000;0.6398;1.6436;
909.9000;0.6341;1.6291;
910.2000;0.6341;1.6291;
910.5000;0.6341;1.6291;
910.8000;0.6341;1.6242;
911.1000;0.6333;1.6315;
911.4000;0.6333;1.6460;
911.7000;0.6333;1.6508;
912.0000;0.6341;1.6484;
912.3000;0.6341;1.6412;
912.6000;0.6333;1.6315;
912.9000;0.6333;1.6339;
913.2000;0.6333;1.6339;
913.5000;0.6341;1.6267;
913.8000;0.6333;1.6267;
914.1000;0.6349;1.6339;
914.4000;0.6341;1.6339;
914.7000;0.6349;1.6363;
915.0000;0.6333;1.6387;
915.3000;0.6341;1.6436;
915.6000;0.6333;1.6291;
915.9000;0.6374;1.6315;
916.2000;0.6349;1.6291;
916.5000;0.6333;1.6242;
916.8000;0.6341;1.6315;
917.1000;0.6349;1.6315;
917.4000;0.6341;1.6315;
917.7000;0.6341;1.6339;
918.0000;0.6333;1.6363;
918.3000;0.6341;1.6387;
918.6000;0.6276;1.6267;
918.9000;0.6276;1.6339;
919.2000;0.6317;1.6315;
919.5000;0.6333;1.6339;
919.8000;0.6309;1.6194;
920.1000;0.6317;1.6267;
920.4000;0.6325;1.6315;
920.7000;0.6317;1.6363;
921.0000;0.6292;1.6363;
921.3000;0.6325;1.6436;
921.6000;0.6382;1.6581;
921.9000;0.6309;1.6387;
922.2000;0.6349;1.6460;
922.5000;0.6325;1.6387;
922.8000;0.6333;1.6339;
923.1000;0.6309;1.6291;
923.4000;0.6333;1.6387;
923.7000;0.6300;1.6242;
924.0000;0.6284;1.6194;
924.3000;0.6309;1.6363;
924.6000;0.6325;1.6339;
924.9000;0.6333;1.6387;
925.2000;0.6325;1.6387;
925.5000;0.6309;1.6363;
925.8000;0.6317;1.6315;
926.1000;0.6309;1.6242;
926.4000;0.6333;1.6339;
926.7000;0.6292;1.6436;
927.0000;0.6325;1.6557;
927.3000;0.6325;1.6605;
927.6000;0.6325;1.6532;
927.9000;0.6325;1.6508;
928.2000;0.6325;1.6508;
928.5000;0.6357;1.6581;
928.8000;0.6325;1.6484;
929.1000;0.6317;1.6460;
929.4000;0.6309;1.6339;
929.7000;0.6325;1.6460;
930.0000;0.6325;1.6460;
930.3000;0.6309;1.6218;
930.6000;0.6309;1.6267;
930.9000;0.6309;1.6267;
931.2000;0.6309;1.6267;
931.5000;0.6317;1.6315;
931.8000;0.6325;1.6363;
932.1000;0.6317;1.6460;
932.4000;0.6349;1.6581;
932.7000;0.6325;1.6484;
933.0000;0.6309;1.6412;
933.3000;0.6309;1.6436;
933.6000;0.6300;1.6460;
933.9000;0.6325;1.6508;
934.2000;0.6300;1.6460;
934.5000;0.6309;1.6460;
934.8000;0.6309;1.6532;
935.1000;0.6333;1.6581;
935.4000;0.6333;1.6605;
935.7000;0.6333;1.6508;
936.0000;0.6309;1.6460;
936.3000;0.6317;1.6484;
936.6000;0.6325;1.6508;
936.9000;0.6317;1.6532;
937.2000;0.6325;1.6581;
937.5000;0.6325;1.6581;
937.8000;0.6309;1.6557;
938.1000;0.6300;1.6436;
938.4000;0.6300;1.6363;
938.7000;0.6292;1.6291;
939.0000;0.6300;1.6484;
939.3000;0.6284;1.6484;
939.6000;0.6284;1.6484;
939.9000;0.6309;1.6605;
940.2000;0.6317;1.6629;
940.5000;0.6325;1.6629;
940.8000;0.6317;1.6678;
941.1000;0.6309;1.6653;
941.4000;0.6333;1.6726;
941.7000;0.6309;1.6629;
942.0000;0.6325;1.6653;
942.3000;0.6300;1.6726;
942.6000;0.6309;1.6702;
942.9000;0.6317;1.6653;
943.2000;0.6300;1.6605;
943.5000;0.6252;1.6412;
943.8000;0.6300;1.6484;
944.1000;0.6300;1.6508;
944.4000;0.6309;1.6484;
944.7000;0.6284;1.6363;
945.0000;0.6284;1.6436;
945.3000;0.6300;1.6436;
945.6000;0.6309;1.6508;
945.9000;0.6276;1.6460;
946.2000;0.6300;1.6484;
946.5000;0.6284;1.6508;
946.8000;0.6317;1.6605;
947.1000;0.6276;1.6678;
947.4000;0.6309;1.6629;
947.7000;0.6309;1.6581;
948.0000;0.6284;1.6532;
948.3000;0.6300;1.6605;
948.6000;0.6292;1.6581;
948.9000;0.6309;1.6557;
949.2000;0.6292;1.6508;
949.5000;0.6292;1.6460;
949.8000;0.6309;1.6508;
950.1000;0.6309;1.6581;
950.4000;0.6300;1.6581;
950.7000;0.6317;1.6629;
951.0000;0.6309;1.6581;
951.3000;0.6309;1.6557;
951.6000;0.6317;1.6581;
951.9000;0.6317;1.6629;
952.2000;0.6300;1.6653;
952.5000;0.6309;1.6629;
952.8000;0.6300;1.6653;
953.1000;0.6300;1.6605;
953.4000;0.6260;1.6532;
953.7000;0.6292;1.6653;
954.0000;0.6300;1.6702;
954.3000;0.6292;1.6702;
954.6000;0.6300;1.6653;
954.9000;0.6284;1.6629;
955.2000;0.6292;1.6678;
955.5000;0.6309;1.6678;
955.8000;0.6284;1.6678;
956.1000;0.6300;1.6726;
956.4000;0.6227;1.6460;
956.7000;0.6292;1.6629;
957.0000;0.6317;1.6629;
957.3000;0.6276;1.6532;
957.6000;0.6276;1.6605;
957.9000;0.6300;1.6629;
958.2000;0.6284;1.6653;
958.5000;0.6300;1.6653;
958.8000;0.6284;1.6629;
959.1000;0.6268;1.6702;
959.4000;0.6276;1.6605;
959.7000;0.6309;1.6629;
960.0000;0.6300;1.6484;
960.3000;0.6300;1.6436;
960.6000;0.6309;1.6387;
960.9000;0.6349;1.6484;
961.2000;0.6292;1.6363;
961.5000;0.6292;1.6315;
961.8000;0.6276;1.6291;
962.1000;0.6325;1.6484;
962.4000;0.6284;1.6363;
962.7000;0.6284;1.6315;
963.0000;0.6276;1.6267;
963.3000;0.6284;1.6242;
963.6000;0.6309;1.6436;
963.9000;0.6292;1.6484;
964.2000;0.6260;1.6532;
964.5000;0.6284;1.6557;
964.8000;0.6276;1.6605;
965.1000;0.6276;1.6653;
965.4000;0.6276;1.6678;
965.7000;0.6276;1.6629;
966.0000;0.6268;1.6629;
966.3000;0.6276;1.6678;
966.6000;0.6276;1.6678;
966.9000;0.6268;1.6605;
967.2000;0.6284;1.6581;
967.5000;0.6276;1.6557;
967.8000;0.6276;1.6557;
968.1000;0.6292;1.6605;
968.4000;0.6276;1.6605;
968.7000;0.6276;1.6484;
969.0000;0.6284;1.6484;
969.3000;0.6284;1.6484;
969.6000;0.6276;1.6484;
969.9000;0.6300;1.6557;
970.2000;0.6252;1.6460;
970.5000;0.6252;1.6508;
970.8000;0.6260;1.6412;
971.1000;0.6300;1.6508;
971.4000;0.6284;1.6387;
971.7000;0.6268;1.6339;
972.0000;0.6300;1.6436;
972.3000;0.6292;1.6436;
972.6000;0.6276;1.6412;
972.9000;0.6268;1.6315;
973.2000;0.6284;1.6315;
973.5000;0.6309;1.6436;
973.8000;0.6268;1.6412;
974.1000;0.6276;1.6460;
974.4000;0.6284;1.6508;
974.7000;0.6268;1.6460;
975.0000;0.6268;1.6605;
975.3000;0.6268;1.6653;
975.6000;0.6284;1.6629;
975.9000;0.6317;1.6653;
976.2000;0.6268;1.6581;
976.5000;0.6284;1.6581;
976.8000;0.6268;1.6484;
977.1000;0.6276;1.6460;
977.4000;0.6300;1.6484;
977.7000;0.6284;1.6460;
978.0000;0.6268;1.6412;
978.3000;0.6211;1.6242;
978.6000;0.6284;1.6484;
978.9000;0.6300;1.6508;
979.2000;0.6260;1.6484;
979.5000;0.6268;1.6460;
979.8000;0.6276;1.6508;
980.1000;0.6260;1.6460;
980.4000;0.6276;1.6412;
980.7000;0.6276;1.6460;
981.0000;0.6268;1.6532;
981.3000;0.6276;1.6557;
981.6000;0.6292;1.6581;
981.9000;0.6268;1.6629;
982.2000;0.6276;1.6629;
982.5000;0.6284;1.6653;
982.8000;0.6309;1.6678;
983.1000;0.6284;1.6532;
983.4000;0.6276;1.6557;
983.7000;0.6268;1.6605;
984.0000;0.6317;1.6702;
984.3000;0.6260;1.6605;
984.6000;0.6268;1.6678;
984.9000;0.6284;1.6581;
985.2000;0.6252;1.6436;
985.5000;0.6276;1.6581;
985.8000;0.6284;1.6678;
986.1000;0.6284;1.6581;
986.4000;0.6276;1.6605;
986.7000;0.6268;1.6605;
987.0000;0.6260;1.6460;
987.3000;0.6268;1.6484;
987.6000;0.6284;1.6581;
987.9000;0.6268;1.6484;
988.2000;0.6276;1.6605;
988.5000;0.6284;1.6557;
988.8000;0.6268;1.6508;
989.1000;0.6292;1.6605;
989.4000;0.6252;1.6484;
989.7000;0.6252;1.6557;
990.0000;0.6268;1.6557;
990.3000;0.6276;1.6532;
990.6000;0.6268;1.6460;
990.9000;0.6243;1.6557;
991.2000;0.6260;1.6605;
991.5000;0.6268;1.6557;
991.8000;0.6260;1.6436;
992.1000;0.6203;1.6267;
992.4000;0.6268;1.6436;
992.7000;0.6260;1.6339;
993.0000;0.6292;1.6387;
993.3000;0.6268;1.6291;
993.6000;0.6276;1.6315;
993.9000;0.6268;1.6315;
994.2000;0.6300;1.6460;
994.5000;0.6276;1.6387;
994.8000;0.6292;1.6436;
995.1000;0.6276;1.6387;
995.4000;0.6268;1.6460;
995.7000;0.6235;1.6339;
996.0000;0.6260;1.6363;
996.3000;0.6268;1.6412;
996.6000;0.6292;1.6387;
996.9000;0.6227;1.6242;
997.2000;0.6260;1.6339;
997.5000;0.6276;1.6387;
997.8000;0.6268;1.6412;
998.1000;0.6276;1.6315;
998.4000;0.6260;1.6339;
998.7000;0.6252;1.6387;
999.0000;0.6268;1.6436;
999.3000;0.6260;1.6532;
999.6000;0.6252;1.6557;
999.9000;0.6268;1.6508;
1000.2000;0.6260;1.6484;
1000.5000;0.6260;1.6532;
1000.8000;0.6243;1.6436;
1001.1000;0.6268;1.6436;
1001.4000;0.6203;1.6363;
1001.7000;0.6243;1.6508;
1002.0000;0.6243;1.6484;
1002.3000;0.6195;1.6436;
1002.6000;0.6252;1.6678;
1002.9000;0.6260;1.6629;
1003.2000;0.6243;1.6508;
1003.5000;0.6252;1.6581;
1003.8000;0.6252;1.6460;
1004.1000;0.6252;1.6484;
1004.4000;0.6268;1.6484;
1004.7000;0.6235;1.6412;
1005.0000;0.6227;1.6484;
1005.3000;0.6235;1.6508;
1005.6000;0.6252;1.6581;
1005.9000;0.6243;1.6508;
1006.2000;0.6235;1.6532;
1006.5000;0.6260;1.6581;
1006.8000;0.6260;1.6581;
1007.1000;0.6260;1.6532;
1007.4000;0.6260;1.6508;
1007.7000;0.6260;1.6581;
1008.0000;0.6195;1.6436;
1008.3000;0.6227;1.6581;
1008.6000;0.6268;1.6605;
1008.9000;0.6284;1.6678;
1009.2000;0.6268;1.6532;
1009.5000;0.6243;1.6412;
1009.8000;0.6260;1.6412;
1010.1000;0.6227;1.6412;
1010.4000;0.6252;1.6532;
1010.7000;0.6252;1.6557;
1011.0000;0.6252;1.6484;
1011.3000;0.6243;1.6363;
1011.6000;0.6260;1.6412;
1011.9000;0.6219;1.6218;
1012.2000;0.6227;1.6218;
1012.5000;0.6219;1.6194;
1012.8000;0.6268;1.6412;
1013.1000;0.6252;1.6387;
1013.4000;0.6260;1.6412;
1013.7000;0.6243;1.6387;
1014.0000;0.6252;1.6412;
1014.3000;0.6227;1.6315;
1014.6000;0.6260;1.6412;
1014.9000;0.6252;1.6460;
1015.2000;0.6219;1.6387;
1015.5000;0.6243;1.6363;
1015.8000;0.6252;1.6387;
1016.1000;0.6268;1.6436;
1016.4000;0.6252;1.6339;
1016.7000;0.6284;1.6412;
1017.0000;0.6292;1.6436;
1017.3000;0.6252;1.6315;
1017.6000;0.6243;1.6315;
1017.9000;0.6252;1.6218;
1018.2000;0.6268;1.6242;
1018.5000;0.6284;1.6267;
1018.8000;0.6260;1.6242;
1019.1000;0.6260;1.6267;
1019.4000;0.6252;1.6387;
1019.7000;0.6260;1.6412;
1020.0000;0.6252;1.6387;
1020.3000;0.6243;1.6412;
1020.6000;0.6235;1.6339;
1020.9000;0.6252;1.6315;
1021.2000;0.6252;1.6436;
1021.5000;0.6260;1.6412;
1021.8000;0.6235;1.6315;
1022.1000;0.6243;1.6242;
1022.4000;0.6211;1.6194;
1022.7000;0.6252;1.6146;
1023.0000;0.6260;1.6194;
1023.3000;0.6268;1.6339;
1023.6000;0.6243;1.6315;
1023.9000;0.6252;1.6436;
1024.2000;0.6252;1.6508;
1024.5000;0.6276;1.6581;
1024.8000;0.6252;1.6581;
1025.1000;0.6243;1.6581;
1025.4000;0.6195;1.6484;
1025.7000;0.6235;1.6605;
1026.0000;0.6260;1.6581;
1026.3000;0.6235;1.6484;
1026.6000;0.6227;1.6460;
1026.9000;0.6252;1.6532;
1027.2000;0.6260;1.6629;
1027.5000;0.6235;1.6605;
1027.8000;0.6243;1.6508;
1028.1000;0.6235;1.6387;
1028.4000;0.6292;1.6581;
1028.7000;0.6243;1.6460;
1029.0000;0.6243;1.6508;
1029.3000;0.6243;1.6532;
1029.6000;0.6243;1.6508;
1029.9000;0.6252;1.6581;
1030.2000;0.6235;1.6532;
1030.5000;0.6235;1.6605;
1030.8000;0.6235;1.6581;
1031.1000;0.6235;1.6532;
1031.4000;0.6227;1.6557;
1031.7000;0.6260;1.6726;
1032.0000;0.6276;1.6702;
1032.3000;0.6243;1.6557;
1032.6000;0.6227;1.6484;
1032.9000;0.6292;1.6581;
1033.2000;0.6235;1.6460;
1033.5000;0.6243;1.6484;
1033.8000;0.6211;1.6436;
1034.1000;0.6219;1.6532;
1034.4000;0.6268;1.6653;
1034.7000;0.6260;1.6678;
1035.0000;0.6276;1.6678;
1035.3000;0.6252;1.6653;
1035.6000;0.6227;1.6653;
1035.9000;0.6243;1.6605;
1036.2000;0.6243;1.6581;
1036.5000;0.6211;1.6460;
1036.8000;0.6235;1.6581;
1037.1000;0.6227;1.6653;
1037.4000;0.6268;1.6726;
1037.7000;0.6243;1.6774;
1038.0000;0.6243;1.6726;
1038.3000;0.6227;1.6653;
1038.6000;0.6276;1.6726;
1038.9000;0.6227;1.6678;
1039.2000;0.6276;1.6702;
1039.5000;0.6227;1.6605;
1039.8000;0.6219;1.6581;
1040.1000;0.6211;1.6557;
1040.4000;0.6235;1.6460;
1040.7000;0.6227;1.6460;
1041.0000;0.6219;1.6460;
1041.3000;0.6235;1.6484;
1041.6000;0.6243;1.6557;
1041.9000;0.6211;1.6532;
1042.2000;0.6227;1.6557;
1042.5000;0.6243;1.6702;
1042.8000;0.6252;1.6678;
1043.1000;0.6227;1.6653;
1043.4000;0.6243;1.6605;
1043.7000;0.6260;1.6726;
1044.0000;0.6235;1.6702;
1044.3000;0.6243;1.6750;
1044.6000;0.6235;1.6653;
1044.9000;0.6235;1.6629;
1045.2000;0.6243;1.6653;
1045.5000;0.6252;1.6653;
1045.8000;0.6235;1.6581;
1046.1000;0.6219;1.6532;
1046.4000;0.6252;1.6557;
1046.7000;0.6227;1.6508;
1047.0000;0.6195;1.6484;
1047.3000;0.6235;1.6581;
1047.6000;0.6227;1.6581;
1047.9000;0.6170;1.6532;
1048.2000;0.6235;1.6653;
1048.5000;0.6203;1.6532;
1048.8000;0.6235;1.6605;
1049.1000;0.6219;1.6605;
1049.4000;0.6227;1.6557;
1049.7000;0.6227;1.6557;
1050.0000;0.6219;1.6508;
1050.3000;0.6227;1.6557;
1050.6000;0.6219;1.6436;
1050.9000;0.6227;1.6508;
1051.2000;0.6227;1.6484;
1051.5000;0.6243;1.6508;
1051.8000;0.6203;1.6484;
1052.1000;0.6252;1.6557;
1052.4000;0.6219;1.6484;
1052.7000;0.6235;1.6484;
1053.0000;0.6227;1.6484;
1053.3000;0.6203;1.6363;
1053.6000;0.6219;1.6436;
1053.9000;0.6260;1.6532;
1054.2000;0.6211;1.6484;
1054.5000;0.6227;1.6436;
1054.8000;0.6243;1.6436;
1055.1000;0.6276;1.6532;
1055.4000;0.6227;1.6436;
1055.7000;0.6211;1.6532;
1056.0000;0.6243;1.6605;
1056.3000;0.6227;1.6508;
1056.6000;0.6211;1.6460;
1056.9000;0.6219;1.6508;
1057.2000;0.6227;1.6508;
1057.5000;0.6211;1.6460;
1057.8000;0.6219;1.6532;
1058.1000;0.6300;1.6702;
1058.4000;0.6186;1.6460;
1058.7000;0.6235;1.6581;
1059.0000;0.6260;1.6678;
1059.3000;0.6227;1.6653;
1059.6000;0.6252;1.6605;
1059.9000;0.6211;1.6508;
1060.2000;0.6243;1.6629;
1060.5000;0.6227;1.6557;
1060.8000;0.6211;1.6412;
1061.1000;0.6219;1.6412;
1061.4000;0.6227;1.6412;
1061.7000;0.6178;1.6242;
1062.0000;0.6219;1.6339;
1062.3000;0.6211;1.6242;
1062.6000;0.6211;1.6242;
1062.9000;0.6235;1.6315;
1063.2000;0.6219;1.6315;
1063.5000;0.6211;1.6363;
1063.8000;0.6186;1.6339;
1064.1000;0.6219;1.6412;
1064.4000;0.6219;1.6460;
1064.7000;0.6203;1.6460;
1065.0000;0.6211;1.6460;
1065.3000;0.6219;1.6436;
1065.6000;0.6211;1.6436;
1065.9000;0.6227;1.6460;
1066.2000;0.6203;1.6460;
1066.5000;0.6211;1.6460;
1066.8000;0.6211;1.6363;
1067.1000;0.6219;1.6436;
1067.4000;0.6195;1.6460;
1067.7000;0.6219;1.6532;
1068.0000;0.6195;1.6605;
1068.3000;0.6211;1.6653;
1068.6000;0.6235;1.6653;
1068.9000;0.6235;1.6629;
1069.2000;0.6219;1.6605;
1069.5000;0.6235;1.6629;
1069.8000;0.6284;1.6774;
1070.1000;0.6219;1.6460;
1070.4000;0.6235;1.6436;
1070.7000;0.6219;1.6291;
1071.0000;0.6211;1.6315;
1071.3000;0.6195;1.6387;
1071.6000;0.6211;1.6460;
1071.9000;0.6211;1.6484;
1072.2000;0.6219;1.6484;
1072.5000;0.6170;1.6436;
1072.8000;0.6219;1.6605;
1073.1000;0.6211;1.6653;
1073.4000;0.6211;1.6653;
1073.7000;0.6227;1.6629;
1074.0000;0.6211;1.6557;
1074.3000;0.6211;1.6605;
1074.6000;0.6211;1.6629;
1074.9000;0.6203;1.6678;
1075.2000;0.6219;1.6653;
1075.5000;0.6235;1.6629;
1075.8000;0.6211;1.6702;
1076.1000;0.6178;1.6605;
1076.4000;0.6203;1.6532;
1076.7000;0.6203;1.6532;
1077.0000;0.6203;1.6605;
1077.3000;0.6211;1.6557;
1077.6000;0.6211;1.6557;
1077.9000;0.6243;1.6557;
1078.2000;0.6235;1.6532;
1078.5000;0.6219;1.6508;
1078.8000;0.6203;1.6412;
1079.1000;0.6186;1.6315;
1079.4000;0.6235;1.6412;
1079.7000;0.6211;1.6387;
1080.0000;0.6129;1.6267;
1080.3000;0.6203;1.6532;
1080.6000;0.6211;1.6532;
1080.9000;0.6219;1.6532;
1081.2000;0.6227;1.6532;
1081.5000;0.6186;1.6460;
1081.8000;0.6211;1.6605;
1082.1000;0.6227;1.6702;
1082.4000;0.6219;1.6678;
1082.7000;0.6211;1.6605;
1083.0000;0.6178;1.6532;
1083.3000;0.6219;1.6557;
1083.6000;0.6219;1.6412;
1083.9000;0.6227;1.6436;
1084.2000;0.6195;1.6508;
1084.5000;0.6195;1.6557;
1084.8000;0.6235;1.6629;
1085.1000;0.6211;1.6605;
1085.4000;0.6211;1.6605;
1085.7000;0.6235;1.6653;
1086.0000;0.6235;1.6678;
1086.3000;0.6219;1.6678;
1086.6000;0.6211;1.6702;
1086.9000;0.6211;1.6653;
1087.2000;0.6219;1.6581;
1087.5000;0.6211;1.6484;
1087.8000;0.6268;1.6629;
1088.1000;0.6195;1.6532;
1088.4000;0.6211;1.6605;
1088.7000;0.6219;1.6653;
1089.0000;0.6284;1.6798;
1089.3000;0.6211;1.6653;
1089.6000;0.6219;1.6653;
1089.9000;0.6195;1.6605;
1090.2000;0.6211;1.6629;
1090.5000;0.6211;1.6678;
1090.8000;0.6162;1.6508;
1091.1000;0.6243;1.6726;
1091.4000;0.6211;1.6726;
1091.7000;0.6219;1.6750;
1092.0000;0.6227;1.6726;
1092.3000;0.6219;1.6726;
1092.6000;0.6211;1.6726;
1092.9000;0.6195;1.6774;
1093.2000;0.6211;1.6774;
1093.5000;0.6195;1.6726;
1093.8000;0.6203;1.6774;
1094.1000;0.6203;1.6774;
1094.4000;0.6178;1.6629;
1094.7000;0.6195;1.6629;
1095.0000;0.6203;1.6678;
1095.3000;0.6260;1.6823;
1095.6000;0.6219;1.6750;
1095.9000;0.6219;1.6750;
1096.2000;0.6219;1.6798;
1096.5000;0.6219;1.6726;
1096.8000;0.6227;1.6726;
1097.1000;0.6219;1.6750;
1097.4000;0.6227;1.6702;
1097.7000;0.6235;1.6702;
1098.0000;0.6235;1.6702;
1098.3000;0.6195;1.6726;
1098.6000;0.6219;1.6726;
1098.9000;0.6195;1.6678;
1099.2000;0.6268;1.6823;
1099.5000;0.6195;1.6629;
1099.8000;0.6203;1.6678;
1100.1000;0.6178;1.6557;
1100.4000;0.6195;1.6605;
1100.7000;0.6195;1.6581;
1101.0000;0.6195;1.6557;
1101.3000;0.6211;1.6532;
1101.6000;0.6154;1.6436;
1101.9000;0.6121;1.6412;
1102.2000;0.6186;1.6581;
1102.5000;0.6211;1.6678;
1102.8000;0.6203;1.6629;
1103.1000;0.6195;1.6605;
1103.4000;0.6195;1.6557;
1103.7000;0.6211;1.6557;
1104.0000;0.6203;1.6484;
1104.3000;0.6195;1.6460;
1104.6000;0.6170;1.6363;
1104.9000;0.6243;1.6653;
1105.2000;0.6211;1.6629;
1105.5000;0.6195;1.6629;
1105.8000;0.6203;1.6678;
1106.1000;0.6195;1.6653;
1106.4000;0.6195;1.6605;
1106.7000;0.6178;1.6581;
1107.0000;0.6211;1.6702;
1107.3000;0.6211;1.6750;
1107.6000;0.6219;1.6702;
1107.9000;0.6195;1.6581;
1108.2000;0.6195;1.6605;
1108.5000;0.6211;1.6629;
1108.8000;0.6195;1.6581;
1109.1000;0.6219;1.6678;
1109.4000;0.6211;1.6653;
1109.7000;0.6186;1.6581;
1110.0000;0.6211;1.6557;
1110.3000;0.6203;1.6508;
1110.6000;0.6211;1.6605;
1110.9000;0.6203;1.6557;
1111.2000;0.6162;1.6484;
1111.5000;0.6146;1.6436;
1111.8000;0.6235;1.6629;
1112.1000;0.6292;1.6798;
1112.4000;0.6211;1.6629;
1112.7000;0.6268;1.6702;
1113.0000;0.6260;1.6750;
1113.3000;0.6211;1.6653;
1113.6000;0.6211;1.6678;
1113.9000;0.6203;1.6629;
1114.2000;0.6211;1.6581;
1114.5000;0.6186;1.6581;
1114.8000;0.6203;1.6605;
1115.1000;0.6203;1.6678;
1115.4000;0.6211;1.6774;
1115.7000;0.6203;1.6726;
1116.0000;0.6203;1.6798;
1116.3000;0.6219;1.6895;
1116.6000;0.6170;1.6847;
1116.9000;0.6252;1.6919;
1117.2000;0.6211;1.6919;
1117.5000;0.6186;1.6774;
1117.8000;0.6219;1.6871;
1118.1000;0.6211;1.6798;
1118.4000;0.6195;1.6678;
1118.7000;0.6195;1.6702;
1119.0000;0.6203;1.6581;
1119.3000;0.6203;1.6605;
1119.6000;0.6203;1.6629;
1119.9000;0.6186;1.6605;
1120.2000;0.6186;1.6653;
1120.5000;0.6211;1.6702;
1120.8000;0.6195;1.6653;
1121.1000;0.6186;1.6629;
1121.4000;0.6211;1.6726;
1121.7000;0.6170;1.6629;
1122.0000;0.6203;1.6774;
1122.3000;0.6195;1.6798;
1122.6000;0.6211;1.6750;
1122.9000;0.6227;1.6774;
1123.2000;0.6162;1.6653;
1123.5000;0.6203;1.6702;
1123.8000;0.6268;1.6871;
1124.1000;0.6203;1.6726;
1124.4000;0.6195;1.6702;
1124.7000;0.6211;1.6726;
1125.0000;0.6186;1.6605;
1125.3000;0.6203;1.6605;
1125.6000;0.6203;1.6653;
1125.9000;0.6195;1.6605;
1126.2000;0.6195;1.6678;
1126.5000;0.6186;1.6605;
1126.8000;0.6195;1.6653;
1127.1000;0.6227;1.6847;
1127.4000;0.6195;1.6774;
1127.7000;0.6235;1.6823;
1128.0000;0.6211;1.6726;
1128.3000;0.6178;1.6629;
1128.6000;0.6138;1.6484;
1128.9000;0.6227;1.6581;
1129.2000;0.6203;1.6532;
1129.5000;0.6235;1.6581;
1129.8000;0.6203;1.6508;
1130.1000;0.6186;1.6508;
1130.4000;0.6252;1.6581;
1130.7000;0.6211;1.6557;
1131.0000;0.6203;1.6557;
1131.3000;0.6186;1.6532;
1131.6000;0.6138;1.6387;
1131.9000;0.6195;1.6581;
1132.2000;0.6276;1.6774;
1132.5000;0.6162;1.6605;
1132.8000;0.6195;1.6750;
1133.1000;0.6235;1.6823;
1133.4000;0.6203;1.6750;
1133.7000;0.6227;1.6750;
1134.0000;0.6186;1.6678;
1134.3000;0.6186;1.6678;
1134.6000;0.6227;1.6798;
1134.9000;0.6154;1.6678;
1135.2000;0.6186;1.6726;
1135.5000;0.6195;1.6726;
1135.8000;0.6195;1.6774;
1136.1000;0.6195;1.6750;
1136.4000;0.6178;1.6702;
1136.7000;0.6186;1.6823;
1137.0000;0.6195;1.6774;
1137.3000;0.6203;1.6726;
1137.6000;0.6195;1.6702;
1137.9000;0.6195;1.6774;
1138.2000;0.6203;1.6798;
1138.5000;0.6195;1.6702;
1138.8000;0.6203;1.6653;
1139.1000;0.6178;1.6702;
1139.4000;0.6211;1.6774;
1139.7000;0.6178;1.6653;
1140.0000;0.6203;1.6678;
1140.3000;0.6211;1.6702;
1140.6000;0.6203;1.6702;
1140.9000;0.6146;1.6557;
1141.2000;0.6211;1.6702;
1141.5000;0.6178;1.6629;
1141.8000;0.6203;1.6678;
1142.1000;0.6211;1.6750;
1142.4000;0.6195;1.6726;
1142.7000;0.6203;1.6847;
1143.0000;0.6203;1.6871;
1143.3000;0.6195;1.6774;
1143.6000;0.6195;1.6798;
1143.9000;0.6186;1.6847;
1144.2000;0.6178;1.6823;
1144.5000;0.6186;1.6847;
1144.8000;0.6178;1.6798;
1145.1000;0.6195;1.6798;
1145.4000;0.6170;1.6774;
1145.7000;0.6195;1.6798;
1146.0000;0.6203;1.6798;
1146.3000;0.6186;1.6847;
1146.6000;0.6178;1.6847;
1146.9000;0.6219;1.6847;
1147.2000;0.6186;1.6774;
1147.5000;0.6178;1.6726;
1147.8000;0.6195;1.6798;
1148.1000;0.6154;1.6629;
1148.4000;0.6186;1.6774;
1148.7000;0.6195;1.6798;
1149.0000;0.6170;1.6726;
1149.3000;0.6186;1.6774;
1149.6000;0.6203;1.6774;
1149.9000;0.6154;1.6750;
1150.2000;0.6203;1.6895;
1150.5000;0.6186;1.6871;
1150.8000;0.6211;1.6847;
1151.1000;0.6178;1.6750;
1151.4000;0.6186;1.6678;
1151.7000;0.6211;1.6557;
1152.0000;0.6211;1.6557;
1152.3000;0.6195;1.6605;
1152.6000;0.6186;1.6557;
1152.9000;0.6178;1.6605;
1153.2000;0.6203;1.6678;
1153.5000;0.6186;1.6726;
1153.8000;0.6203;1.6702;
1154.1000;0.6162;1.6653;
1154.4000;0.6178;1.6774;
1154.7000;0.6138;1.6653;
1155.0000;0.6203;1.6774;
1155.3000;0.6178;1.6702;
1155.6000;0.6186;1.6726;
1155.9000;0.6195;1.6750;
1156.2000;0.6211;1.6823;
1156.5000;0.6203;1.6774;
1156.8000;0.6186;1.6726;
1157.1000;0.6195;1.6750;
1157.4000;0.6195;1.6653;
1157.7000;0.6129;1.6436;
1158.0000;0.6195;1.6653;
1158.3000;0.6170;1.6508;
1158.6000;0.6186;1.6605;
1158.9000;0.6227;1.6750;
1159.2000;0.6162;1.6581;
1159.5000;0.6178;1.6557;
1159.8000;0.6211;1.6605;
1160.1000;0.6170;1.6508;
1160.4000;0.6162;1.6436;
1160.7000;0.6178;1.6412;
1161.0000;0.6178;1.6363;
1161.3000;0.6178;1.6339;
1161.6000;0.6162;1.6363;
1161.9000;0.6186;1.6460;
1162.2000;0.6186;1.6460;
1162.5000;0.6195;1.6412;
1162.8000;0.6203;1.6315;
1163.1000;0.6203;1.6363;
1163.4000;0.6195;1.6436;
1163.7000;0.6203;1.6484;
1164.0000;0.6235;1.6557;
1164.3000;0.6170;1.6508;
1164.6000;0.6195;1.6532;
1164.9000;0.6195;1.6629;
1165.2000;0.6195;1.6678;
1165.5000;0.6211;1.6678;
1165.8000;0.6195;1.6557;
1166.1000;0.6170;1.6508;
1166.4000;0.6178;1.6484;
1166.7000;0.6195;1.6532;
1167.0000;0.6186;1.6484;
1167.3000;0.6203;1.6484;
1167.6000;0.6203;1.6557;
1167.9000;0.6186;1.6508;
1168.2000;0.6195;1.6508;
1168.5000;0.6195;1.6484;
1168.8000;0.6146;1.6436;
1169.1000;0.6178;1.6508;
1169.4000;0.6186;1.6605;
1169.7000;0.6186;1.6484;
1170.0000;0.6211;1.6460;
1170.3000;0.6211;1.6436;
1170.6000;0.6170;1.6315;
1170.9000;0.6186;1.6363;
1171.2000;0.6178;1.6412;
1171.5000;0.6186;1.6339;
1171.8000;0.6235;1.6484;
1172.1000;0.6178;1.6436;
1172.4000;0.6186;1.6436;
1172.7000;0.6178;1.6460;
1173.0000;0.6203;1.6508;
1173.3000;0.6170;1.6484;
1173.6000;0.6195;1.6460;
1173.9000;0.6203;1.6532;
1174.2000;0.6203;1.6532;
1174.5000;0.6195;1.6605;
1174.8000;0.6195;1.6629;
1175.1000;0.6203;1.6629;
1175.4000;0.6186;1.6532;
1175.7000;0.6195;1.6484;
1176.0000;0.6203;1.6532;
1176.3000;0.6195;1.6532;
1176.6000;0.6203;1.6436;
1176.9000;0.6195;1.6484;
1177.2000;0.6195;1.6436;
1177.5000;0.6178;1.6436;
1177.8000;0.6186;1.6508;
1178.1000;0.6186;1.6532;
1178.4000;0.6186;1.6653;
1178.7000;0.6178;1.6653;
1179.0000;0.6186;1.6629;
1179.3000;0.6178;1.6653;
1179.6000;0.6170;1.6605;
1179.9000;0.6162;1.6557;
1180.2000;0.6186;1.6508;
1180.5000;0.6186;1.6484;
1180.8000;0.6186;1.6436;
1181.1000;0.6170;1.6436;
1181.4000;0.6170;1.6315;
1181.7000;0.6170;1.6315;
1182.0000;0.6170;1.6315;
1182.3000;0.6178;1.6291;
1182.6000;0.6186;1.6387;
1182.9000;0.6170;1.6436;
1183.2000;0.6178;1.6460;
1183.5000;0.6178;1.6412;
1183.8000;0.6186;1.6436;
1184.1000;0.6195;1.6532;
1184.4000;0.6186;1.6557;
1184.7000;0.6113;1.6436;
1185.0000;0.6186;1.6653;
1185.3000;0.6186;1.6678;
1185.6000;0.6178;1.6653;
1185.9000;0.6203;1.6653;
1186.2000;0.6178;1.6629;
1186.5000;0.6219;1.6702;
1186.8000;0.6195;1.6702;
1187.1000;0.6195;1.6726;
1187.4000;0.6178;1.6750;
1187.7000;0.6178;1.6750;
1188.0000;0.6178;1.6750;
1188.3000;0.6195;1.6750;
1188.6000;0.6113;1.6557;
1188.9000;0.6170;1.6702;
1189.2000;0.6178;1.6702;
1189.5000;0.6227;1.6823;
1189.8000;0.6178;1.6653;
1190.1000;0.6178;1.6605;
1190.4000;0.6186;1.6605;
1190.7000;0.6186;1.6581;
1191.0000;0.6170;1.6629;
1191.3000;0.6170;1.6653;
1191.6000;0.6195;1.6726;
1191.9000;0.6195;1.6750;
1192.2000;0.6154;1.6629;
1192.5000;0.6178;1.6678;
1192.8000;0.6186;1.6678;
1193.1000;0.6170;1.6629;
1193.4000;0.6186;1.6629;
1193.7000;0.6178;1.6678;
1194.0000;0.6170;1.6702;
1194.3000;0.6170;1.6653;
1194.6000;0.6186;1.6605;
1194.9000;0.6170;1.6532;
1195.2000;0.6138;1.6460;
1195.5000;0.6178;1.6581;
1195.8000;0.6170;1.6532;
1196.1000;0.6178;1.6532;
1196.4000;0.6195;1.6557;
1196.7000;0.6186;1.6508;
1197.0000;0.6186;1.6508;
1197.3000;0.6186;1.6581;
1197.6000;0.6170;1.6605;
1197.9000;0.6211;1.6702;
1198.2000;0.6178;1.6678;
1198.5000;0.6178;1.6653;
1198.8000;0.6211;1.6605;
1199.1000;0.6186;1.6557;
1199.4000;0.6178;1.6484;
1199.7000;0.6170;1.6581;
1200.0000;0.6178;1.6653;
1200.3000;0.6186;1.6678;
1200.6000;0.6178;1.6726;
1200.9000;0.6211;1.6726;
1201.2000;0.6178;1.6532;
1201.5000;0.6170;1.6508;
1201.8000;0.6170;1.6508;
1202.1000;0.6195;1.6605;
1202.4000;0.6162;1.6605;
1202.7000;0.6154;1.6532;
1203.0000;0.6178;1.6484;
1203.3000;0.6178;1.6460;
1203.6000;0.6178;1.6508;
1203.9000;0.6178;1.6557;
1204.2000;0.6170;1.6581;
1204.5000;0.6211;1.6629;
1204.8000;0.6195;1.6629;
1205.1000;0.6170;1.6557;
1205.4000;0.6170;1.6508;
1205.7000;0.6178;1.6484;
1206.0000;0.6178;1.6436;
1206.3000;0.6162;1.6412;
1206.6000;0.6146;1.6339;
1206.9000;0.6178;1.6532;
1207.2000;0.6178;1.6557;
1207.5000;0.6178;1.6581;
1207.8000;0.6154;1.6508;
1208.1000;0.6154;1.6484;
1208.4000;0.6178;1.6605;
1208.7000;0.6170;1.6581;
1209.0000;0.6170;1.6557;
1209.3000;0.6195;1.6557;
1209.6000;0.6186;1.6605;
1209.9000;0.6170;1.6557;
1210.2000;0.6170;1.6532;
1210.5000;0.6138;1.6508;
1210.8000;0.6170;1.6653;
1211.1000;0.6170;1.6605;
1211.4000;0.6195;1.6605;
1211.7000;0.6178;1.6678;
1212.0000;0.6162;1.6653;
1212.3000;0.6186;1.6629;
1212.6000;0.6178;1.6581;
1212.9000;0.6162;1.6629;
1213.2000;0.6170;1.6653;
1213.5000;0.6203;1.6678;
1213.8000;0.6170;1.6702;
1214.1000;0.6178;1.6702;
1214.4000;0.6178;1.6678;
1214.7000;0.6146;1.6581;
1215.0000;0.6178;1.6605;
1215.3000;0.6178;1.6678;
1215.6000;0.6154;1.6678;
1215.9000;0.6162;1.6653;
1216.2000;0.6186;1.6678;
1216.5000;0.6170;1.6581;
1216.8000;0.6138;1.6557;
1217.1000;0.6178;1.6678;
1217.4000;0.6170;1.6629;
1217.7000;0.6105;1.6387;
1218.0000;0.6121;1.6412;
1218.3000;0.6170;1.6581;
1218.6000;0.6178;1.6581;
1218.9000;0.6178;1.6653;
1219.2000;0.6129;1.6508;
1219.5000;0.6186;1.6629;
1219.8000;0.6170;1.6557;
1220.1000;0.6170;1.6460;
1220.4000;0.6178;1.6460;
1220.7000;0.6146;1.6387;
1221.0000;0.6162;1.6412;
1221.3000;0.6227;1.6581;
1221.6000;0.6178;1.6460;
1221.9000;0.6186;1.6484;
1222.2000;0.6162;1.6436;
1222.5000;0.6186;1.6484;
1222.8000;0.6178;1.6387;
1223.1000;0.6154;1.6387;
1223.4000;0.6178;1.6460;
1223.7000;0.6178;1.6460;
1224.0000;0.6186;1.6532;
1224.3000;0.6178;1.6557;
1224.6000;0.6170;1.6653;
1224.9000;0.6178;1.6678;
1225.2000;0.6178;1.6653;
1225.5000;0.6170;1.6629;
1225.8000;0.6227;1.6774;
1226.1000;0.6121;1.6460;
1226.4000;0.6162;1.6605;
1226.7000;0.6170;1.6653;
1227.0000;0.6105;1.6532;
1227.3000;0.6170;1.6653;
1227.6000;0.6195;1.6581;
1227.9000;0.6195;1.6581;
1228.2000;0.6235;1.6726;
1228.5000;0.6154;1.6532;
1228.8000;0.6170;1.6629;
1229.1000;0.6186;1.6702;
1229.4000;0.6170;1.6557;
1229.7000;0.6170;1.6436;
1230.0000;0.6186;1.6532;
1230.3000;0.6178;1.6532;
1230.6000;0.6178;1.6532;
1230.9000;0.6178;1.6532;
1231.2000;0.6170;1.6436;
1231.5000;0.6178;1.6412;
1231.8000;0.6178;1.6387;
1232.1000;0.6170;1.6339;
1232.4000;0.6162;1.6387;
1232.7000;0.6162;1.6412;
1233.0000;0.6186;1.6484;
1233.3000;0.6121;1.6387;
1233.6000;0.6178;1.6484;
1233.9000;0.6186;1.6581;
1234.2000;0.6178;1.6629;
1234.5000;0.6162;1.6581;
1234.8000;0.6154;1.6678;
1235.1000;0.6170;1.6798;
1235.4000;0.6170;1.6774;
1235.7000;0.6178;1.6750;
1236.0000;0.6186;1.6702;
1236.3000;0.6178;1.6750;
1236.6000;0.6170;1.6702;
1236.9000;0.6154;1.6629;
1237.2000;0.6186;1.6678;
1237.5000;0.6178;1.6702;
1237.8000;0.6195;1.6750;
1238.1000;0.6162;1.6678;
1238.4000;0.6178;1.6653;
1238.7000;0.6186;1.6629;
1239.0000;0.6186;1.6726;
1239.3000;0.6154;1.6653;
1239.6000;0.6178;1.6702;
1239.9000;0.6154;1.6702;
1240.2000;0.6170;1.6702;
1240.5000;0.6186;1.6702;
1240.8000;0.6138;1.6557;
1241.1000;0.6146;1.6508;
1241.4000;0.6170;1.6484;
1241.7000;0.6162;1.6532;
1242.0000;0.6195;1.6581;
1242.3000;0.6154;1.6532;
1242.6000;0.6162;1.6581;
1242.9000;0.6178;1.6750;
1243.2000;0.6170;1.6726;
1243.5000;0.6154;1.6629;
1243.8000;0.6170;1.6581;
1244.1000;0.6162;1.6678;
1244.4000;0.6170;1.6678;
1244.7000;0.6162;1.6629;
1245.0000;0.6121;1.6484;
1245.3000;0.6178;1.6678;
1245.6000;0.6186;1.6702;
1245.9000;0.6162;1.6508;
1246.2000;0.6186;1.6581;
1246.5000;0.6178;1.6557;
1246.8000;0.6178;1.6532;
1247.1000;0.6170;1.6484;
1247.4000;0.6186;1.6581;
1247.7000;0.6203;1.6678;
1248.0000;0.6162;1.6557;
1248.3000;0.6178;1.6629;
1248.6000;0.6170;1.6581;
1248.9000;0.6170;1.6532;
1249.2000;0.6178;1.6581;
1249.5000;0.6195;1.6557;
1249.8000;0.6170;1.6532;
1250.1000;0.6170;1.6557;
1250.4000;0.6162;1.6508;
1250.7000;0.6170;1.6557;
1251.0000;0.6154;1.6508;
1251.3000;0.6170;1.6532;
1251.6000;0.6170;1.6557;
1251.9000;0.6170;1.6629;
1252.2000;0.6211;1.6726;
1252.5000;0.6178;1.6653;
1252.8000;0.6170;1.6581;
1253.1000;0.6170;1.6557;
1253.4000;0.6170;1.6557;
1253.7000;0.6154;1.6605;
1254.0000;0.6170;1.6629;
1254.3000;0.6170;1.6605;
1254.6000;0.6170;1.6605;
1254.9000;0.6170;1.6508;
1255.2000;0.6170;1.6436;
1255.5000;0.6186;1.6484;
1255.8000;0.6186;1.6460;
1256.1000;0.6178;1.6508;
1256.4000;0.6170;1.6508;
1256.7000;0.6154;1.6484;
1257.0000;0.6146;1.6508;
1257.3000;0.6113;1.6387;
1257.6000;0.6154;1.6436;
1257.9000;0.6170;1.6436;
1258.2000;0.6162;1.6460;
1258.5000;0.6170;1.6460;
1258.8000;0.6162;1.6412;
1259.1000;0.6178;1.6339;
1259.4000;0.6162;1.6291;
1259.7000;0.6178;1.6363;
1260.0000;0.6170;1.6315;
1260.3000;0.6186;1.6412;
1260.6000;0.6162;1.6412;
1260.9000;0.6170;1.6508;
1261.2000;0.6154;1.6557;
1261.5000;0.6186;1.6629;
1261.8000;0.6162;1.6581;
1262.1000;0.6154;1.6581;
1262.4000;0.6162;1.6581;
1262.7000;0.6186;1.6702;
1263.0000;0.6178;1.6581;
1263.3000;0.6146;1.6581;
1263.6000;0.6170;1.6629;
1263.9000;0.6195;1.6532;
1264.2000;0.6146;1.6436;
1264.5000;0.6178;1.6508;
1264.8000;0.6178;1.6605;
1265.1000;0.6178;1.6605;
1265.4000;0.6186;1.6557;
1265.7000;0.6178;1.6484;
1266.0000;0.6154;1.6412;
1266.3000;0.6219;1.6532;
1266.6000;0.6170;1.6508;
1266.9000;0.6162;1.6532;
1267.2000;0.6170;1.6581;
1267.5000;0.6162;1.6605;
1267.8000;0.6154;1.6508;
1268.1000;0.6162;1.6508;
1268.4000;0.6162;1.6484;
1268.7000;0.6195;1.6532;
1269.0000;0.6154;1.6412;
1269.3000;0.6170;1.6387;
1269.6000;0.6203;1.6460;
1269.9000;0.6178;1.6412;
1270.2000;0.6162;1.6363;
1270.5000;0.6146;1.6291;
1270.8000;0.6178;1.6315;
1271.1000;0.6170;1.6339;
1271.4000;0.6154;1.6363;
1271.7000;0.6162;1.6508;
1272.0000;0.6162;1.6605;
1272.3000;0.6170;1.6605;
1272.6000;0.6162;1.6653;
1272.9000;0.6170;1.6629;
1273.2000;0.6162;1.6532;
1273.5000;0.6178;1.6508;
1273.8000;0.6162;1.6412;
1274.1000;0.6154;1.6484;
1274.4000;0.6170;1.6581;
1274.7000;0.6162;1.6605;
1275.0000;0.6170;1.6508;
1275.3000;0.6146;1.6484;
1275.6000;0.6170;1.6508;
1275.9000;0.6154;1.6436;
1276.2000;0.6170;1.6460;
1276.5000;0.6162;1.6484;
1276.8000;0.6146;1.6484;
1277.1000;0.6162;1.6557;
1277.4000;0.6170;1.6653;
1277.7000;0.6162;1.6605;
1278.0000;0.6162;1.6678;
1278.3000;0.6170;1.6678;
1278.6000;0.6162;1.6629;
1278.9000;0.6154;1.6605;
1279.2000;0.6146;1.6532;
1279.5000;0.6146;1.6484;
1279.8000;0.6178;1.6532;
1280.1000;0.6162;1.6508;
1280.4000;0.6170;1.6532;
1280.7000;0.6162;1.6581;
1281.0000;0.6162;1.6557;
1281.3000;0.6186;1.6629;
1281.6000;0.6162;1.6532;
1281.9000;0.6138;1.6532;
1282.2000;0.6146;1.6508;
1282.5000;0.6162;1.6532;
1282.8000;0.6178;1.6532;
1283.1000;0.6178;1.6557;
1283.4000;0.6178;1.6605;
1283.7000;0.6089;1.6339;
1284.0000;0.6146;1.6436;
1284.3000;0.6162;1.6339;
1284.6000;0.6162;1.6315;
1284.9000;0.6138;1.6267;
1285.2000;0.6170;1.6291;
1285.5000;0.6162;1.6339;
1285.8000;0.6162;1.6436;
1286.1000;0.6186;1.6484;
1286.4000;0.6170;1.6387;
1286.7000;0.6170;1.6387;
1287.0000;0.6154;1.6363;
1287.3000;0.6162;1.6436;
1287.6000;0.6154;1.6436;
1287.9000;0.6154;1.6436;
1288.2000;0.6129;1.6412;
1288.5000;0.6162;1.6532;
1288.8000;0.6162;1.6605;
1289.1000;0.6113;1.6532;
1289.4000;0.6146;1.6557;
1289.7000;0.6146;1.6532;
1290.0000;0.6089;1.6436;
1290.3000;0.6154;1.6508;
1290.6000;0.6154;1.6484;
1290.9000;0.6195;1.6557;
1291.2000;0.6162;1.6460;
1291.5000;0.6138;1.6387;
1291.8000;0.6105;1.6291;
1292.1000;0.6154;1.6436;
1292.4000;0.6178;1.6484;
1292.7000;0.6146;1.6532;
1293.0000;0.6170;1.6629;
1293.3000;0.6154;1.6581;
1293.6000;0.6154;1.6557;
1293.9000;0.6146;1.6605;
1294.2000;0.6162;1.6702;
1294.5000;0.6146;1.6678;
1294.8000;0.6146;1.6823;
1295.1000;0.6154;1.6823;
1295.4000;0.6170;1.6847;
1295.7000;0.6162;1.6823;
1296.0000;0.6170;1.6798;
1296.3000;0.6170;1.6823;
1296.6000;0.6170;1.6774;
1296.9000;0.6162;1.6653;
1297.2000;0.6170;1.6678;
1297.5000;0.6146;1.6605;
1297.8000;0.6162;1.6629;
1298.1000;0.6146;1.6581;
1298.4000;0.6162;1.6605;
1298.7000;0.6138;1.6557;
1299.0000;0.6162;1.6702;
1299.3000;0.6178;1.6726;
1299.6000;0.6154;1.6653;
1299.9000;0.6146;1.6557;
1300.2000;0.6162;1.6436;
1300.5000;0.6162;1.6436;
1300.8000;0.6162;1.6460;
1301.1000;0.6162;1.6412;
1301.4000;0.6170;1.6412;
1301.7000;0.6162;1.6460;
1302.0000;0.6170;1.6508;
1302.3000;0.6154;1.6508;
1302.6000;0.6178;1.6484;
1302.9000;0.6170;1.6508;
1303.2000;0.6170;1.6581;
1303.5000;0.6178;1.6557;
1303.8000;0.6138;1.6557;
1304.1000;0.6154;1.6581;
1304.4000;0.6195;1.6581;
1304.7000;0.6154;1.6557;
1305.0000;0.6129;1.6484;
1305.3000;0.6170;1.6484;
1305.6000;0.6162;1.6436;
1305.9000;0.6178;1.6460;
1306.2000;0.6146;1.6436;
1306.5000;0.6162;1.6508;
1306.8000;0.6170;1.6484;
1307.1000;0.6170;1.6460;
1307.4000;0.6154;1.6484;
1307.7000;0.6162;1.6581;
1308.0000;0.6154;1.6557;
1308.3000;0.6170;1.6605;
1308.6000;0.6162;1.6629;
1308.9000;0.6162;1.6605;
1309.2000;0.6162;1.6678;
1309.5000;0.6170;1.6605;
1309.8000;0.6162;1.6532;
1310.1000;0.6146;1.6460;
1310.4000;0.6154;1.6460;
1310.7000;0.6154;1.6484;
1311.0000;0.6154;1.6460;
1311.3000;0.6170;1.6460;
1311.6000;0.6170;1.6508;
1311.9000;0.6186;1.6605;
1312.2000;0.6154;1.6460;
1312.5000;0.6178;1.6460;
1312.8000;0.6121;1.6291;
1313.1000;0.6105;1.6315;
1313.4000;0.6162;1.6412;
1313.7000;0.6178;1.6508;
1314.0000;0.6162;1.6629;
1314.3000;0.6162;1.6750;
1314.6000;0.6170;1.6750;
1314.9000;0.6162;1.6702;
1315.2000;0.6138;1.6653;
1315.5000;0.6138;1.6629;
1315.8000;0.6203;1.6774;
1316.1000;0.6154;1.6678;
1316.4000;0.6154;1.6678;
1316.7000;0.6154;1.6678;
1317.0000;0.6154;1.6726;
1317.3000;0.6146;1.6726;
1317.6000;0.6154;1.6774;
1317.9000;0.6129;1.6774;
1318.2000;0.6146;1.6774;
1318.5000;0.6146;1.6798;
1318.8000;0.6146;1.6823;
1319.1000;0.6154;1.6774;
1319.4000;0.6162;1.6678;
1319.7000;0.6146;1.6678;
1320.0000;0.6146;1.6702;
1320.3000;0.6170;1.6750;
1320.6000;0.6146;1.6750;
1320.9000;0.6162;1.6726;
1321.2000;0.6162;1.6750;
1321.5000;0.6170;1.6798;
1321.8000;0.6162;1.6750;
1322.1000;0.6178;1.6702;
1322.4000;0.6162;1.6581;
1322.7000;0.6154;1.6557;
1323.0000;0.6146;1.6581;
1323.3000;0.6162;1.6726;
1323.6000;0.6154;1.6629;
1323.9000;0.6146;1.6532;
1324.2000;0.6146;1.6436;
1324.5000;0.6154;1.6387;
1324.8000;0.6146;1.6412;
1325.1000;0.6154;1.6460;
1325.4000;0.6146;1.6508;
1325.7000;0.6129;1.6436;
1326.0000;0.6170;1.6557;
1326.3000;0.6162;1.6557;
1326.6000;0.6154;1.6581;
1326.9000;0.6162;1.6629;
1327.2000;0.6162;1.6557;
1327.5000;0.6170;1.6557;
1327.8000;0.6162;1.6557;
1328.1000;0.6154;1.6629;
1328.4000;0.6154;1.6605;
1328.7000;0.6162;1.6653;
1329.0000;0.6170;1.6678;
1329.3000;0.6129;1.6605;
1329.6000;0.6154;1.6653;
1329.9000;0.6154;1.6605;
1330.2000;0.6170;1.6629;
1330.5000;0.6129;1.6557;
1330.8000;0.6146;1.6605;
1331.1000;0.6162;1.6605;
1331.4000;0.6154;1.6726;
1331.7000;0.6138;1.6750;
1332.0000;0.6154;1.6823;
1332.3000;0.6146;1.6847;
1332.6000;0.6170;1.6798;
1332.9000;0.6203;1.6847;
1333.2000;0.6154;1.6678;
1333.5000;0.6162;1.6678;
1333.8000;0.6170;1.6726;
1334.1000;0.6138;1.6605;
1334.4000;0.6154;1.6702;
1334.7000;0.6154;1.6581;
1335.0000;0.6154;1.6678;
1335.3000;0.6146;1.6678;
1335.6000;0.6162;1.6678;
1335.9000;0.6154;1.6678;
1336.2000;0.6162;1.6678;
1336.5000;0.6113;1.6605;
1336.8000;0.6162;1.6605;
1337.1000;0.6089;1.6436;
1337.4000;0.6170;1.6557;
1337.7000;0.6170;1.6605;
1338.0000;0.6162;1.6629;
1338.3000;0.6211;1.6823;
1338.6000;0.6154;1.6678;
1338.9000;0.6162;1.6653;
1339.2000;0.6146;1.6629;
1339.5000;0.6170;1.6702;
1339.8000;0.6154;1.6581;
1340.1000;0.6170;1.6557;
1340.4000;0.6129;1.6508;
1340.7000;0.6146;1.6532;
1341.0000;0.6170;1.6557;
1341.3000;0.6154;1.6557;
1341.6000;0.6162;1.6653;
1341.9000;0.6146;1.6605;
1342.2000;0.6162;1.6702;
1342.5000;0.6154;1.6702;
1342.8000;0.6154;1.6823;
1343.1000;0.6138;1.6823;
1343.4000;0.6138;1.6798;
1343.7000;0.6162;1.6823;
1344.0000;0.6154;1.6871;
1344.3000;0.6154;1.6895;
1344.6000;0.6146;1.6798;
1344.9000;0.6146;1.6871;
1345.2000;0.6146;1.6847;
1345.5000;0.6154;1.6823;
1345.8000;0.6146;1.6823;
1346.1000;0.6154;1.6847;
1346.4000;0.6146;1.6823;
1346.7000;0.6154;1.6823;
1347.0000;0.6162;1.6798;
1347.3000;0.6146;1.6726;
1347.6000;0.6129;1.6678;
1347.9000;0.6146;1.6678;
1348.2000;0.6146;1.6678;
1348.5000;0.6154;1.6653;
1348.8000;0.6170;1.6726;
1349.1000;0.6154;1.6702;
1349.4000;0.6146;1.6702;
1349.7000;0.6154;1.6726;
1350.0000;0.6138;1.6629;
1350.3000;0.6146;1.6653;
1350.6000;0.6154;1.6629;
1350.9000;0.6162;1.6678;
1351.2000;0.6154;1.6605;
1351.5000;0.6154;1.6605;
1351.8000;0.6129;1.6508;
1352.1000;0.6146;1.6557;
1352.4000;0.6154;1.6653;
1352.7000;0.6129;1.6605;
1353.0000;0.6211;1.6823;
1353.3000;0.6146;1.6678;
1353.6000;0.6138;1.6774;
1353.9000;0.6129;1.6798;
1354.2000;0.6146;1.6823;
1354.5000;0.6154;1.6774;
1354.8000;0.6146;1.6726;
1355.1000;0.6154;1.6653;
1355.4000;0.6162;1.6750;
1355.7000;0.6138;1.6726;
1356.0000;0.6129;1.6702;
1356.3000;0.6154;1.6726;
1356.6000;0.6146;1.6774;
1356.9000;0.6170;1.6798;
1357.2000;0.6235;1.7016;
1357.5000;0.6146;1.6750;
1357.8000;0.6154;1.6774;
1358.1000;0.6186;1.6774;
1358.4000;0.6146;1.6702;
1358.7000;0.6146;1.6702;
1359.0000;0.6195;1.6823;
1359.3000;0.6146;1.6774;
1359.6000;0.6154;1.6823;
1359.9000;0.6162;1.6895;
1360.2000;0.6195;1.6919;
1360.5000;0.6178;1.6798;
1360.8000;0.6146;1.6750;
1361.1000;0.6129;1.6750;
1361.4000;0.6138;1.6871;
1361.7000;0.6146;1.6823;
1362.0000;0.6178;1.6871;
1362.3000;0.6146;1.6750;
1362.6000;0.6195;1.6798;
1362.9000;0.6186;1.6774;
1363.2000;0.6146;1.6557;
1363.5000;0.6162;1.6605;
1363.8000;0.6138;1.6678;
1364.1000;0.6154;1.6750;
1364.4000;0.6170;1.6702;
1364.7000;0.6162;1.6726;
1365.0000;0.6154;1.6798;
1365.3000;0.6138;1.6847;
1365.6000;0.6162;1.6871;
1365.9000;0.6154;1.6847;
1366.2000;0.6146;1.6823;
1366.5000;0.6162;1.6895;
1366.8000;0.6162;1.6871;
1367.1000;0.6146;1.6895;
1367.4000;0.6154;1.6823;
1367.7000;0.6162;1.6871;
1368.0000;0.6146;1.6823;
1368.3000;0.6154;1.6871;
1368.6000;0.6146;1.6895;
1368.9000;0.6138;1.6750;
1369.2000;0.6154;1.6798;
1369.5000;0.6146;1.6774;
1369.8000;0.6162;1.6774;
1370.1000;0.6154;1.6823;
1370.4000;0.6162;1.6847;
1370.7000;0.6154;1.6823;
1371.0000;0.6162;1.6798;
1371.3000;0.6162;1.6823;
1371.6000;0.6154;1.6750;
1371.9000;0.6146;1.6726;
1372.2000;0.6154;1.6823;
1372.5000;0.6138;1.6847;
1372.8000;0.6146;1.6871;
1373.1000;0.6178;1.6919;
1373.4000;0.6154;1.6823;
1373.7000;0.6170;1.6919;
1374.0000;0.6154;1.6798;
1374.3000;0.6227;1.6968;
1374.6000;0.6162;1.6798;
1374.9000;0.6138;1.6750;
1375.2000;0.6146;1.6726;
1375.5000;0.6138;1.6726;
1375.8000;0.6154;1.6774;
1376.1000;0.6154;1.6774;
1376.4000;0.6146;1.6726;
1376.7000;0.6138;1.6750;
1377.0000;0.6129;1.6798;
1377.3000;0.6146;1.6798;
1377.6000;0.6129;1.6798;
1377.9000;0.6186;1.6871;
1378.2000;0.6178;1.6798;
1378.5000;0.6154;1.6726;
1378.8000;0.6146;1.6702;
1379.1000;0.6170;1.6750;
1379.4000;0.6138;1.6702;
1379.7000;0.6146;1.6750;
1380.0000;0.6138;1.6823;
1380.3000;0.6154;1.6798;
1380.6000;0.6162;1.6750;
1380.9000;0.6162;1.6750;
1381.2000;0.6154;1.6678;
1381.5000;0.6146;1.6726;
1381.8000;0.6138;1.6774;
1382.1000;0.6154;1.6847;
1382.4000;0.6162;1.6847;
1382.7000;0.6162;1.6847;
1383.0000;0.6146;1.6798;
1383.3000;0.6154;1.6798;
1383.6000;0.6162;1.6798;
1383.9000;0.6146;1.6726;
1384.2000;0.6154;1.6750;
1384.5000;0.6154;1.6653;
1384.8000;0.6146;1.6653;
1385.1000;0.6146;1.6629;
1385.4000;0.6138;1.6557;
1385.7000;0.6146;1.6557;
1386.0000;0.6154;1.6605;
1386.3000;0.6146;1.6629;
1386.6000;0.6146;1.6557;
1386.9000;0.6146;1.6581;
1387.2000;0.6162;1.6678;
1387.5000;0.6154;1.6702;
1387.8000;0.6154;1.6678;
1388.1000;0.6146;1.6653;
1388.4000;0.6146;1.6678;
1388.7000;0.6162;1.6750;
1389.0000;0.6154;1.6798;
1389.3000;0.6154;1.6726;
1389.6000;0.6154;1.6702;
1389.9000;0.6162;1.6823;
1390.2000;0.6162;1.6823;
1390.5000;0.6129;1.6702;
1390.8000;0.6146;1.6726;
1391.1000;0.6154;1.6774;
1391.4000;0.6162;1.6798;
1391.7000;0.6138;1.6726;
1392.0000;0.6146;1.6726;
1392.3000;0.6178;1.6823;
1392.6000;0.6146;1.6653;
1392.9000;0.6138;1.6678;
1393.2000;0.6105;1.6557;
1393.5000;0.6138;1.6653;
1393.8000;0.6138;1.6702;
1394.1000;0.6138;1.6702;
1394.4000;0.6138;1.6678;
1394.7000;0.6138;1.6678;
1395.0000;0.6146;1.6774;
1395.3000;0.6146;1.6823;
1395.6000;0.6170;1.6895;
1395.9000;0.6146;1.6847;
1396.2000;0.6162;1.6895;
1396.5000;0.6154;1.6847;
1396.8000;0.6162;1.6871;
1397.1000;0.6129;1.6750;
1397.4000;0.6146;1.6847;
1397.7000;0.6146;1.6823;
1398.0000;0.6138;1.6774;
1398.3000;0.6129;1.6750;
1398.6000;0.6129;1.6726;
1398.9000;0.6146;1.6750;
1399.2000;0.6138;1.6774;
1399.5000;0.6146;1.6823;
1399.8000;0.6154;1.6774;
