time/ms;Fluo/V;P700 deltaI/I x10³;
-199.8000;0.1302;0.8460;
-199.5000;0.1197;0.8223;
-199.2000;0.1213;0.8365;
-198.9000;0.1213;0.8389;
-198.6000;0.1213;0.8365;
-198.3000;0.1205;0.8365;
-198.0000;0.1205;0.8342;
-197.7000;0.1205;0.8318;
-197.4000;0.1188;0.8342;
-197.1000;0.1148;0.8199;
-196.8000;0.1213;0.8389;
-196.5000;0.1237;0.8507;
-196.2000;0.1197;0.8436;
-195.9000;0.1213;0.8507;
-195.6000;0.1197;0.8413;
-195.3000;0.1221;0.8413;
-195.0000;0.1229;0.8365;
-194.7000;0.1221;0.8436;
-194.4000;0.1205;0.8484;
-194.1000;0.1205;0.8555;
-193.8000;0.1254;0.8697;
-193.5000;0.1156;0.8484;
-193.2000;0.1205;0.8626;
-192.9000;0.1213;0.8531;
-192.6000;0.1213;0.8555;
-192.3000;0.1221;0.8555;
-192.0000;0.1213;0.8602;
-191.7000;0.1205;0.8579;
-191.4000;0.1188;0.8531;
-191.1000;0.1237;0.8744;
-190.8000;0.1213;0.8768;
-190.5000;0.1172;0.8579;
-190.2000;0.1229;0.8721;
-189.9000;0.1237;0.8744;
-189.6000;0.1245;0.8697;
-189.3000;0.1237;0.8697;
-189.0000;0.1221;0.8744;
-188.7000;0.1229;0.8697;
-188.4000;0.1197;0.8579;
-188.1000;0.1221;0.8626;
-187.8000;0.1205;0.8531;
-187.5000;0.1245;0.8650;
-187.2000;0.1213;0.8602;
-186.9000;0.1213;0.8673;
-186.6000;0.1229;0.8602;
-186.3000;0.1221;0.8555;
-186.0000;0.1245;0.8650;
-185.7000;0.1221;0.8602;
-185.4000;0.1197;0.8460;
-185.1000;0.1213;0.8555;
-184.8000;0.1237;0.8579;
-184.5000;0.1213;0.8555;
-184.2000;0.1164;0.8318;
-183.9000;0.1221;0.8389;
-183.6000;0.1221;0.8389;
-183.3000;0.1205;0.8294;
-183.0000;0.1213;0.8389;
-182.7000;0.1213;0.8555;
-182.4000;0.1213;0.8531;
-182.1000;0.1205;0.8413;
-181.8000;0.1213;0.8389;
-181.5000;0.1221;0.8413;
-181.2000;0.1221;0.8413;
-180.9000;0.1245;0.8484;
-180.6000;0.1205;0.8460;
-180.3000;0.1213;0.8507;
-180.0000;0.1221;0.8531;
-179.7000;0.1229;0.8531;
-179.4000;0.1213;0.8460;
-179.1000;0.1229;0.8507;
-178.8000;0.1205;0.8436;
-178.5000;0.1172;0.8389;
-178.2000;0.1229;0.8484;
-177.9000;0.1229;0.8531;
-177.6000;0.1205;0.8507;
-177.3000;0.1213;0.8507;
-177.0000;0.1205;0.8531;
-176.7000;0.1254;0.8579;
-176.4000;0.1205;0.8460;
-176.1000;0.1213;0.8436;
-175.8000;0.1221;0.8507;
-175.5000;0.1229;0.8579;
-175.2000;0.1237;0.8650;
-174.9000;0.1221;0.8602;
-174.6000;0.1229;0.8555;
-174.3000;0.1229;0.8484;
-174.0000;0.1205;0.8436;
-173.7000;0.1197;0.8365;
-173.4000;0.1221;0.8413;
-173.1000;0.1205;0.8484;
-172.8000;0.1213;0.8507;
-172.5000;0.1197;0.8555;
-172.2000;0.1205;0.8579;
-171.9000;0.1205;0.8555;
-171.6000;0.1213;0.8460;
-171.3000;0.1156;0.8270;
-171.0000;0.1197;0.8389;
-170.7000;0.1245;0.8413;
-170.4000;0.1213;0.8365;
-170.1000;0.1205;0.8389;
-169.8000;0.1213;0.8365;
-169.5000;0.1180;0.8294;
-169.2000;0.1237;0.8460;
-168.9000;0.1221;0.8507;
-168.6000;0.1221;0.8460;
-168.3000;0.1221;0.8342;
-168.0000;0.1213;0.8413;
-167.7000;0.1237;0.8460;
-167.4000;0.1213;0.8389;
-167.1000;0.1221;0.8436;
-166.8000;0.1221;0.8460;
-166.5000;0.1229;0.8555;
-166.2000;0.1205;0.8531;
-165.9000;0.1229;0.8531;
-165.6000;0.1229;0.8413;
-165.3000;0.1221;0.8436;
-165.0000;0.1213;0.8436;
-164.7000;0.1213;0.8413;
-164.4000;0.1221;0.8460;
-164.1000;0.1221;0.8389;
-163.8000;0.1221;0.8460;
-163.5000;0.1245;0.8460;
-163.2000;0.1221;0.8389;
-162.9000;0.1213;0.8365;
-162.6000;0.1221;0.8342;
-162.3000;0.1164;0.8294;
-162.0000;0.1205;0.8413;
-161.7000;0.1213;0.8436;
-161.4000;0.1221;0.8365;
-161.1000;0.1213;0.8318;
-160.8000;0.1213;0.8342;
-160.5000;0.1205;0.8389;
-160.2000;0.1188;0.8389;
-159.9000;0.1197;0.8318;
-159.6000;0.1197;0.8318;
-159.3000;0.1213;0.8365;
-159.0000;0.1205;0.8389;
-158.7000;0.1205;0.8389;
-158.4000;0.1205;0.8507;
-158.1000;0.1213;0.8484;
-157.8000;0.1213;0.8531;
-157.5000;0.1205;0.8579;
-157.2000;0.1221;0.8626;
-156.9000;0.1213;0.8602;
-156.6000;0.1213;0.8602;
-156.3000;0.1229;0.8650;
-156.0000;0.1229;0.8602;
-155.7000;0.1221;0.8602;
-155.4000;0.1229;0.8507;
-155.1000;0.1213;0.8389;
-154.8000;0.1229;0.8389;
-154.5000;0.1221;0.8389;
-154.2000;0.1221;0.8365;
-153.9000;0.1213;0.8413;
-153.6000;0.1213;0.8342;
-153.3000;0.1213;0.8413;
-153.0000;0.1213;0.8460;
-152.7000;0.1221;0.8507;
-152.4000;0.1205;0.8484;
-152.1000;0.1213;0.8531;
-151.8000;0.1229;0.8484;
-151.5000;0.1213;0.8484;
-151.2000;0.1221;0.8555;
-150.9000;0.1221;0.8555;
-150.6000;0.1286;0.8721;
-150.3000;0.1213;0.8436;
-150.0000;0.1205;0.8531;
-149.7000;0.1213;0.8602;
-149.4000;0.1205;0.8602;
-149.1000;0.1213;0.8531;
-148.8000;0.1213;0.8555;
-148.5000;0.1197;0.8555;
-148.2000;0.1213;0.8626;
-147.9000;0.1205;0.8555;
-147.6000;0.1205;0.8555;
-147.3000;0.1221;0.8579;
-147.0000;0.1221;0.8555;
-146.7000;0.1213;0.8507;
-146.4000;0.1213;0.8531;
-146.1000;0.1221;0.8531;
-145.8000;0.1229;0.8531;
-145.5000;0.1205;0.8484;
-145.2000;0.1221;0.8484;
-144.9000;0.1213;0.8460;
-144.6000;0.1205;0.8413;
-144.3000;0.1213;0.8460;
-144.0000;0.1213;0.8507;
-143.7000;0.1205;0.8507;
-143.4000;0.1221;0.8579;
-143.1000;0.1221;0.8579;
-142.8000;0.1213;0.8436;
-142.5000;0.1221;0.8436;
-142.2000;0.1221;0.8342;
-141.9000;0.1229;0.8365;
-141.6000;0.1237;0.8365;
-141.3000;0.1221;0.8389;
-141.0000;0.1221;0.8389;
-140.7000;0.1221;0.8294;
-140.4000;0.1213;0.8342;
-140.1000;0.1164;0.8223;
-139.8000;0.1205;0.8436;
-139.5000;0.1197;0.8389;
-139.2000;0.1188;0.8342;
-138.9000;0.1205;0.8460;
-138.6000;0.1180;0.8342;
-138.3000;0.1205;0.8342;
-138.0000;0.1205;0.8270;
-137.7000;0.1213;0.8223;
-137.4000;0.1197;0.8199;
-137.1000;0.1213;0.8270;
-136.8000;0.1213;0.8342;
-136.5000;0.1213;0.8389;
-136.2000;0.1205;0.8389;
-135.9000;0.1213;0.8484;
-135.6000;0.1221;0.8507;
-135.3000;0.1213;0.8460;
-135.0000;0.1221;0.8484;
-134.7000;0.1205;0.8460;
-134.4000;0.1221;0.8436;
-134.1000;0.1213;0.8389;
-133.8000;0.1221;0.8365;
-133.5000;0.1221;0.8342;
-133.2000;0.1213;0.8318;
-132.9000;0.1229;0.8365;
-132.6000;0.1213;0.8342;
-132.3000;0.1205;0.8342;
-132.0000;0.1221;0.8342;
-131.7000;0.1221;0.8389;
-131.4000;0.1221;0.8460;
-131.1000;0.1197;0.8531;
-130.8000;0.1188;0.8555;
-130.5000;0.1221;0.8579;
-130.2000;0.1221;0.8460;
-129.9000;0.1221;0.8460;
-129.6000;0.1221;0.8507;
-129.3000;0.1213;0.8531;
-129.0000;0.1229;0.8602;
-128.7000;0.1213;0.8579;
-128.4000;0.1172;0.8531;
-128.1000;0.1197;0.8602;
-127.8000;0.1205;0.8626;
-127.5000;0.1197;0.8650;
-127.2000;0.1221;0.8555;
-126.9000;0.1213;0.8531;
-126.6000;0.1213;0.8507;
-126.3000;0.1237;0.8626;
-126.0000;0.1213;0.8650;
-125.7000;0.1213;0.8650;
-125.4000;0.1213;0.8744;
-125.1000;0.1221;0.8792;
-124.8000;0.1197;0.8721;
-124.5000;0.1213;0.8744;
-124.2000;0.1180;0.8697;
-123.9000;0.1221;0.8744;
-123.6000;0.1180;0.8697;
-123.3000;0.1213;0.8792;
-123.0000;0.1197;0.8815;
-122.7000;0.1254;0.8863;
-122.4000;0.1221;0.8697;
-122.1000;0.1213;0.8579;
-121.8000;0.1229;0.8721;
-121.5000;0.1213;0.8697;
-121.2000;0.1205;0.8768;
-120.9000;0.1221;0.8673;
-120.6000;0.1205;0.8673;
-120.3000;0.1221;0.8673;
-120.0000;0.1213;0.8697;
-119.7000;0.1205;0.8744;
-119.4000;0.1221;0.8721;
-119.1000;0.1311;0.8958;
-118.8000;0.1221;0.8697;
-118.5000;0.1229;0.8697;
-118.2000;0.1245;0.8650;
-117.9000;0.1221;0.8531;
-117.6000;0.1229;0.8436;
-117.3000;0.1205;0.8294;
-117.0000;0.1205;0.8223;
-116.7000;0.1148;0.8105;
-116.4000;0.1213;0.8199;
-116.1000;0.1197;0.8152;
-115.8000;0.1221;0.8294;
-115.5000;0.1213;0.8365;
-115.2000;0.1188;0.8365;
-114.9000;0.1221;0.8413;
-114.6000;0.1221;0.8460;
-114.3000;0.1245;0.8531;
-114.0000;0.1197;0.8365;
-113.7000;0.1221;0.8460;
-113.4000;0.1221;0.8484;
-113.1000;0.1221;0.8460;
-112.8000;0.1221;0.8436;
-112.5000;0.1229;0.8389;
-112.2000;0.1205;0.8342;
-111.9000;0.1229;0.8318;
-111.6000;0.1229;0.8342;
-111.3000;0.1221;0.8413;
-111.0000;0.1213;0.8413;
-110.7000;0.1205;0.8413;
-110.4000;0.1213;0.8484;
-110.1000;0.1221;0.8460;
-109.8000;0.1197;0.8389;
-109.5000;0.1229;0.8484;
-109.2000;0.1213;0.8436;
-108.9000;0.1262;0.8531;
-108.6000;0.1237;0.8484;
-108.3000;0.1221;0.8531;
-108.0000;0.1245;0.8579;
-107.7000;0.1302;0.8673;
-107.4000;0.1221;0.8507;
-107.1000;0.1221;0.8507;
-106.8000;0.1245;0.8555;
-106.5000;0.1213;0.8484;
-106.2000;0.1229;0.8531;
-105.9000;0.1221;0.8507;
-105.6000;0.1221;0.8507;
-105.3000;0.1294;0.8602;
-105.0000;0.1245;0.8555;
-104.7000;0.1221;0.8484;
-104.4000;0.1229;0.8531;
-104.1000;0.1254;0.8531;
-103.8000;0.1302;0.8531;
-103.5000;0.1262;0.8555;
-103.2000;0.1229;0.8531;
-102.9000;0.1237;0.8626;
-102.6000;0.1229;0.8507;
-102.3000;0.1197;0.8436;
-102.0000;0.1229;0.8484;
-101.7000;0.1221;0.8531;
-101.4000;0.1213;0.8365;
-101.1000;0.1229;0.8436;
-100.8000;0.1164;0.8247;
-100.5000;0.1221;0.8389;
-100.2000;0.1229;0.8342;
-99.9000;0.1205;0.8389;
-99.6000;0.1221;0.8294;
-99.3000;0.1205;0.8342;
-99.0000;0.1237;0.8365;
-98.7000;0.1221;0.8318;
-98.4000;0.1245;0.8318;
-98.1000;0.1197;0.8247;
-97.8000;0.1197;0.8342;
-97.5000;0.1237;0.8413;
-97.2000;0.1237;0.8413;
-96.9000;0.1221;0.8365;
-96.6000;0.1262;0.8436;
-96.3000;0.1254;0.8413;
-96.0000;0.1213;0.8389;
-95.7000;0.1278;0.8626;
-95.4000;0.1188;0.8365;
-95.1000;0.1221;0.8436;
-94.8000;0.1213;0.8413;
-94.5000;0.1229;0.8389;
-94.2000;0.1278;0.8460;
-93.9000;0.1229;0.8436;
-93.6000;0.1270;0.8531;
-93.3000;0.1221;0.8507;
-93.0000;0.1213;0.8436;
-92.7000;0.1213;0.8460;
-92.4000;0.1229;0.8531;
-92.1000;0.1286;0.8721;
-91.8000;0.1205;0.8460;
-91.5000;0.1229;0.8531;
-91.2000;0.1221;0.8484;
-90.9000;0.1221;0.8531;
-90.6000;0.1205;0.8484;
-90.3000;0.1205;0.8507;
-90.0000;0.1188;0.8365;
-89.7000;0.1229;0.8507;
-89.4000;0.1221;0.8484;
-89.1000;0.1205;0.8484;
-88.8000;0.1237;0.8484;
-88.5000;0.1205;0.8484;
-88.2000;0.1205;0.8436;
-87.9000;0.1213;0.8436;
-87.6000;0.1213;0.8436;
-87.3000;0.1205;0.8365;
-87.0000;0.1221;0.8389;
-86.7000;0.1237;0.8413;
-86.4000;0.1237;0.8460;
-86.1000;0.1229;0.8436;
-85.8000;0.1245;0.8460;
-85.5000;0.1205;0.8365;
-85.2000;0.1221;0.8413;
-84.9000;0.1237;0.8507;
-84.6000;0.1229;0.8484;
-84.3000;0.1278;0.8602;
-84.0000;0.1229;0.8389;
-83.7000;0.1229;0.8413;
-83.4000;0.1205;0.8460;
-83.1000;0.1213;0.8555;
-82.8000;0.1213;0.8579;
-82.5000;0.1254;0.8626;
-82.2000;0.1229;0.8626;
-81.9000;0.1213;0.8579;
-81.6000;0.1205;0.8579;
-81.3000;0.1229;0.8626;
-81.0000;0.1205;0.8555;
-80.7000;0.1205;0.8484;
-80.4000;0.1221;0.8555;
-80.1000;0.1221;0.8602;
-79.8000;0.1221;0.8626;
-79.5000;0.1229;0.8650;
-79.2000;0.1221;0.8650;
-78.9000;0.1188;0.8484;
-78.6000;0.1205;0.8507;
-78.3000;0.1254;0.8602;
-78.0000;0.1205;0.8460;
-77.7000;0.1221;0.8389;
-77.4000;0.1221;0.8342;
-77.1000;0.1270;0.8413;
-76.8000;0.1188;0.8223;
-76.5000;0.1221;0.8294;
-76.2000;0.1197;0.8294;
-75.9000;0.1221;0.8342;
-75.6000;0.1197;0.8199;
-75.3000;0.1213;0.8223;
-75.0000;0.1254;0.8365;
-74.7000;0.1221;0.8318;
-74.4000;0.1229;0.8342;
-74.1000;0.1221;0.8318;
-73.8000;0.1237;0.8413;
-73.5000;0.1213;0.8460;
-73.2000;0.1229;0.8484;
-72.9000;0.1229;0.8436;
-72.6000;0.1213;0.8413;
-72.3000;0.1213;0.8484;
-72.0000;0.1229;0.8673;
-71.7000;0.1213;0.8650;
-71.4000;0.1213;0.8555;
-71.1000;0.1221;0.8484;
-70.8000;0.1213;0.8507;
-70.5000;0.1221;0.8507;
-70.2000;0.1197;0.8507;
-69.9000;0.1197;0.8507;
-69.6000;0.1164;0.8413;
-69.3000;0.1229;0.8579;
-69.0000;0.1148;0.8413;
-68.7000;0.1213;0.8579;
-68.4000;0.1213;0.8460;
-68.1000;0.1245;0.8507;
-67.8000;0.1205;0.8436;
-67.5000;0.1213;0.8365;
-67.2000;0.1229;0.8342;
-66.9000;0.1221;0.8365;
-66.6000;0.1205;0.8389;
-66.3000;0.1205;0.8484;
-66.0000;0.1213;0.8507;
-65.7000;0.1213;0.8460;
-65.4000;0.1197;0.8436;
-65.1000;0.1213;0.8484;
-64.8000;0.1229;0.8436;
-64.5000;0.1221;0.8365;
-64.2000;0.1237;0.8389;
-63.9000;0.1221;0.8389;
-63.6000;0.1213;0.8436;
-63.3000;0.1172;0.8342;
-63.0000;0.1221;0.8484;
-62.7000;0.1205;0.8531;
-62.4000;0.1221;0.8555;
-62.1000;0.1205;0.8484;
-61.8000;0.1237;0.8484;
-61.5000;0.1245;0.8389;
-61.2000;0.1221;0.8365;
-60.9000;0.1213;0.8318;
-60.6000;0.1213;0.8318;
-60.3000;0.1205;0.8318;
-60.0000;0.1221;0.8294;
-59.7000;0.1213;0.8199;
-59.4000;0.1180;0.8128;
-59.1000;0.1197;0.8223;
-58.8000;0.1229;0.8270;
-58.5000;0.1221;0.8294;
-58.2000;0.1221;0.8294;
-57.9000;0.1221;0.8342;
-57.6000;0.1229;0.8413;
-57.3000;0.1221;0.8460;
-57.0000;0.1278;0.8697;
-56.7000;0.1197;0.8460;
-56.4000;0.1205;0.8507;
-56.1000;0.1245;0.8507;
-55.8000;0.1205;0.8389;
-55.5000;0.1221;0.8436;
-55.2000;0.1213;0.8460;
-54.9000;0.1213;0.8436;
-54.6000;0.1188;0.8436;
-54.3000;0.1221;0.8507;
-54.0000;0.1197;0.8365;
-53.7000;0.1229;0.8460;
-53.4000;0.1229;0.8484;
-53.1000;0.1148;0.8223;
-52.8000;0.1229;0.8436;
-52.5000;0.1221;0.8342;
-52.2000;0.1213;0.8318;
-51.9000;0.1229;0.8270;
-51.6000;0.1254;0.8365;
-51.3000;0.1221;0.8223;
-51.0000;0.1221;0.8128;
-50.7000;0.1294;0.8365;
-50.4000;0.1197;0.8199;
-50.1000;0.1180;0.8199;
-49.8000;0.1205;0.8342;
-49.5000;0.1221;0.8365;
-49.2000;0.1164;0.8176;
-48.9000;0.1221;0.8294;
-48.6000;0.1245;0.8436;
-48.3000;0.1237;0.8460;
-48.0000;0.1254;0.8555;
-47.7000;0.1221;0.8389;
-47.4000;0.1205;0.8389;
-47.1000;0.1229;0.8507;
-46.8000;0.1205;0.8531;
-46.5000;0.1213;0.8555;
-46.2000;0.1221;0.8579;
-45.9000;0.1221;0.8602;
-45.6000;0.1221;0.8626;
-45.3000;0.1197;0.8507;
-45.0000;0.1213;0.8507;
-44.7000;0.1254;0.8579;
-44.4000;0.1156;0.8365;
-44.1000;0.1205;0.8555;
-43.8000;0.1197;0.8555;
-43.5000;0.1221;0.8602;
-43.2000;0.1213;0.8602;
-42.9000;0.1213;0.8531;
-42.6000;0.1213;0.8579;
-42.3000;0.1229;0.8673;
-42.0000;0.1213;0.8721;
-41.7000;0.1205;0.8673;
-41.4000;0.1221;0.8602;
-41.1000;0.1213;0.8626;
-40.8000;0.1237;0.8673;
-40.5000;0.1229;0.8531;
-40.2000;0.1213;0.8460;
-39.9000;0.1229;0.8484;
-39.6000;0.1221;0.8436;
-39.3000;0.1205;0.8365;
-39.0000;0.1197;0.8389;
-38.7000;0.1213;0.8389;
-38.4000;0.1229;0.8436;
-38.1000;0.1213;0.8389;
-37.8000;0.1221;0.8413;
-37.5000;0.1205;0.8318;
-37.2000;0.1213;0.8413;
-36.9000;0.1302;0.8650;
-36.6000;0.1229;0.8507;
-36.3000;0.1229;0.8484;
-36.0000;0.1229;0.8531;
-35.7000;0.1221;0.8579;
-35.4000;0.1245;0.8673;
-35.1000;0.1205;0.8673;
-34.8000;0.1213;0.8673;
-34.5000;0.1205;0.8579;
-34.2000;0.1221;0.8673;
-33.9000;0.1221;0.8744;
-33.6000;0.1197;0.8697;
-33.3000;0.1262;0.8839;
-33.0000;0.1229;0.8792;
-32.7000;0.1221;0.8744;
-32.4000;0.1213;0.8673;
-32.1000;0.1245;0.8744;
-31.8000;0.1213;0.8650;
-31.5000;0.1221;0.8650;
-31.2000;0.1221;0.8650;
-30.9000;0.1197;0.8531;
-30.6000;0.1221;0.8650;
-30.3000;0.1278;0.8744;
-30.0000;0.1213;0.8650;
-29.7000;0.1205;0.8602;
-29.4000;0.1229;0.8555;
-29.1000;0.1245;0.8555;
-28.8000;0.1164;0.8342;
-28.5000;0.1237;0.8650;
-28.2000;0.1245;0.8626;
-27.9000;0.1213;0.8602;
-27.6000;0.1156;0.8342;
-27.3000;0.1221;0.8531;
-27.0000;0.1213;0.8507;
-26.7000;0.1213;0.8507;
-26.4000;0.1213;0.8531;
-26.1000;0.1245;0.8460;
-25.8000;0.1237;0.8413;
-25.5000;0.1188;0.8389;
-25.2000;0.1221;0.8507;
-24.9000;0.1205;0.8413;
-24.6000;0.1213;0.8365;
-24.3000;0.1221;0.8247;
-24.0000;0.1237;0.8342;
-23.7000;0.1221;0.8342;
-23.4000;0.1278;0.8389;
-23.1000;0.1188;0.8223;
-22.8000;0.1213;0.8342;
-22.5000;0.1221;0.8365;
-22.2000;0.1213;0.8270;
-21.9000;0.1197;0.8270;
-21.6000;0.1197;0.8247;
-21.3000;0.1197;0.8270;
-21.0000;0.1164;0.8152;
-20.7000;0.1205;0.8199;
-20.4000;0.1221;0.8270;
-20.1000;0.1213;0.8223;
-19.8000;0.1221;0.8270;
-19.5000;0.1197;0.8199;
-19.2000;0.1213;0.8247;
-18.9000;0.1221;0.8294;
-18.6000;0.1213;0.8342;
-18.3000;0.1221;0.8413;
-18.0000;0.1221;0.8413;
-17.7000;0.1213;0.8389;
-17.4000;0.1197;0.8389;
-17.1000;0.1197;0.8342;
-16.8000;0.1229;0.8413;
-16.5000;0.1197;0.8294;
-16.2000;0.1221;0.8365;
-15.9000;0.1180;0.8342;
-15.6000;0.1213;0.8413;
-15.3000;0.1164;0.8270;
-15.0000;0.1205;0.8270;
-14.7000;0.1205;0.8247;
-14.4000;0.1213;0.8270;
-14.1000;0.1213;0.8365;
-13.8000;0.1270;0.8531;
-13.5000;0.1221;0.8436;
-13.2000;0.1229;0.8460;
-12.9000;0.1197;0.8389;
-12.6000;0.1213;0.8507;
-12.3000;0.1197;0.8579;
-12.0000;0.1229;0.8650;
-11.7000;0.1221;0.8579;
-11.4000;0.1213;0.8650;
-11.1000;0.1221;0.8626;
-10.8000;0.1237;0.8673;
-10.5000;0.1221;0.8673;
-10.2000;0.1213;0.8697;
-9.9000;0.1229;0.8602;
-9.6000;0.1221;0.8531;
-9.3000;0.1245;0.8602;
-9.0000;0.1197;0.8602;
-8.7000;0.1205;0.8602;
-8.4000;0.1229;0.8579;
-8.1000;0.1205;0.8436;
-7.8000;0.1221;0.8484;
-7.5000;0.1221;0.8507;
-7.2000;0.1237;0.8673;
-6.9000;0.1213;0.8626;
-6.6000;0.1229;0.8721;
-6.3000;0.1237;0.8697;
-6.0000;0.1237;0.8697;
-5.7000;0.1188;0.8484;
-5.4000;0.1213;0.8484;
-5.1000;0.1213;0.8507;
-4.8000;0.1213;0.8484;
-4.5000;0.1197;0.8484;
-4.2000;0.1221;0.8460;
-3.9000;0.1205;0.8436;
-3.6000;0.1188;0.8460;
-3.3000;0.1229;0.8579;
-3.0000;0.1229;0.8579;
-2.7000;0.1229;0.8531;
-2.4000;0.1188;0.8484;
-2.1000;0.1213;0.8531;
-1.8000;0.1229;0.8555;
-1.5000;0.1221;0.8555;
-1.2000;0.1213;0.8555;
-0.9000;0.1205;0.8650;
-0.6000;0.1213;0.8626;
-0.3000;0.1221;0.8602;
0.0000;0.1221;0.8602;
0.3000;0.1245;0.8365;
0.6000;0.1270;0.8460;
0.9000;0.1327;0.8673;
1.2000;0.1359;0.8815;
1.5000;0.1392;0.8934;
1.8000;0.1408;0.9195;
2.1000;0.1433;0.9337;
2.4000;0.1441;0.9574;
2.7000;0.1457;0.9669;
3.0000;0.1441;0.9669;
3.3000;0.1457;0.9763;
3.6000;0.1465;0.9787;
3.9000;0.1449;0.9787;
4.2000;0.1473;0.9929;
4.5000;0.1473;0.9906;
4.8000;0.1465;0.9977;
5.1000;0.1465;0.9906;
5.4000;0.1473;0.9858;
5.7000;0.1473;0.9858;
6.0000;0.1473;0.9882;
6.3000;0.1506;0.9882;
6.6000;0.1490;0.9811;
6.9000;0.1490;0.9834;
7.2000;0.1433;0.9597;
7.5000;0.1481;0.9692;
7.8000;0.1490;0.9692;
8.1000;0.1498;0.9763;
8.4000;0.1441;0.9669;
8.7000;0.1506;0.9834;
9.0000;0.1514;0.9858;
9.3000;0.1538;0.9977;
9.6000;0.1498;0.9858;
9.9000;0.1506;0.9811;
10.2000;0.1490;0.9740;
10.5000;0.1481;0.9740;
10.8000;0.1481;0.9716;
11.1000;0.1473;0.9669;
11.4000;0.1514;0.9763;
11.7000;0.1506;0.9763;
12.0000;0.1506;0.9811;
12.3000;0.1514;0.9858;
12.6000;0.1490;0.9811;
12.9000;0.1481;0.9787;
13.2000;0.1506;0.9834;
13.5000;0.1498;0.9811;
13.8000;0.1530;0.9858;
14.1000;0.1522;0.9834;
14.4000;0.1506;0.9811;
14.7000;0.1522;0.9906;
15.0000;0.1490;0.9763;
15.3000;0.1522;0.9834;
15.6000;0.1514;0.9763;
15.9000;0.1506;0.9834;
16.2000;0.1498;0.9882;
16.5000;0.1514;0.9906;
16.8000;0.1514;0.9811;
17.1000;0.1514;0.9811;
17.4000;0.1506;0.9834;
17.7000;0.1555;0.9977;
18.0000;0.1530;0.9811;
18.3000;0.1514;0.9787;
18.6000;0.1530;0.9763;
18.9000;0.1530;0.9740;
19.2000;0.1514;0.9740;
19.5000;0.1498;0.9763;
19.8000;0.1530;0.9929;
20.1000;0.1538;1.0000;
20.4000;0.1530;1.0024;
20.7000;0.1547;1.0024;
21.0000;0.1538;0.9977;
21.3000;0.1547;1.0024;
21.6000;0.1538;1.0024;
21.9000;0.1555;1.0024;
22.2000;0.1547;1.0095;
22.5000;0.1538;1.0071;
22.8000;0.1595;1.0214;
23.1000;0.1555;1.0024;
23.4000;0.1530;0.9906;
23.7000;0.1538;0.9906;
24.0000;0.1490;0.9882;
24.3000;0.1538;1.0048;
24.6000;0.1530;1.0119;
24.9000;0.1547;1.0119;
25.2000;0.1555;1.0119;
25.5000;0.1490;0.9906;
25.8000;0.1595;1.0190;
26.1000;0.1571;1.0048;
26.4000;0.1547;1.0048;
26.7000;0.1579;1.0048;
27.0000;0.1563;1.0000;
27.3000;0.1522;0.9953;
27.6000;0.1555;1.0000;
27.9000;0.1563;0.9953;
28.2000;0.1538;0.9787;
28.5000;0.1530;0.9787;
28.8000;0.1547;0.9834;
29.1000;0.1547;0.9858;
29.4000;0.1563;0.9882;
29.7000;0.1547;0.9834;
30.0000;0.1538;0.9834;
30.3000;0.1555;0.9929;
30.6000;0.1587;0.9882;
30.9000;0.1555;0.9906;
31.2000;0.1563;0.9882;
31.5000;0.1571;0.9858;
31.8000;0.1579;0.9882;
32.1000;0.1587;0.9977;
32.4000;0.1571;0.9858;
32.7000;0.1563;0.9882;
33.0000;0.1595;0.9977;
33.3000;0.1490;0.9716;
33.6000;0.1547;0.9834;
33.9000;0.1547;0.9669;
34.2000;0.1571;0.9645;
34.5000;0.1571;0.9716;
34.8000;0.1547;0.9692;
35.1000;0.1604;0.9882;
35.4000;0.1677;1.0190;
35.7000;0.1595;0.9977;
36.0000;0.1571;0.9953;
36.3000;0.1571;0.9882;
36.6000;0.1571;0.9929;
36.9000;0.1514;0.9834;
37.2000;0.1506;0.9763;
37.5000;0.1571;1.0024;
37.8000;0.1571;1.0095;
38.1000;0.1579;1.0166;
38.4000;0.1571;1.0095;
38.7000;0.1579;1.0119;
39.0000;0.1571;1.0143;
39.3000;0.1587;1.0119;
39.6000;0.1571;1.0048;
39.9000;0.1587;1.0095;
40.2000;0.1563;1.0048;
40.5000;0.1595;1.0143;
40.8000;0.1595;1.0143;
41.1000;0.1595;1.0095;
41.4000;0.1604;1.0071;
41.7000;0.1595;1.0143;
42.0000;0.1579;1.0095;
42.3000;0.1604;1.0190;
42.6000;0.1571;1.0024;
42.9000;0.1595;1.0119;
43.2000;0.1522;0.9882;
43.5000;0.1587;0.9906;
43.8000;0.1579;0.9882;
44.1000;0.1587;0.9906;
44.4000;0.1579;0.9858;
44.7000;0.1579;0.9858;
45.0000;0.1612;0.9906;
45.3000;0.1587;0.9929;
45.6000;0.1579;0.9882;
45.9000;0.1579;0.9929;
46.2000;0.1595;1.0000;
46.5000;0.1555;0.9929;
46.8000;0.1538;0.9929;
47.1000;0.1595;1.0024;
47.4000;0.1612;1.0119;
47.7000;0.1595;1.0119;
48.0000;0.1604;1.0237;
48.3000;0.1579;1.0237;
48.6000;0.1604;1.0285;
48.9000;0.1555;1.0143;
49.2000;0.1612;1.0332;
49.5000;0.1538;1.0237;
49.8000;0.1587;1.0332;
50.1000;0.1595;1.0356;
50.4000;0.1587;1.0308;
50.7000;0.1579;1.0308;
51.0000;0.1587;1.0332;
51.3000;0.1604;1.0380;
51.6000;0.1604;1.0308;
51.9000;0.1595;1.0237;
52.2000;0.1587;1.0237;
52.5000;0.1595;1.0214;
52.8000;0.1612;1.0214;
53.1000;0.1620;1.0143;
53.4000;0.1612;1.0166;
53.7000;0.1644;1.0308;
54.0000;0.1595;1.0214;
54.3000;0.1604;1.0237;
54.6000;0.1587;1.0214;
54.9000;0.1612;1.0285;
55.2000;0.1604;1.0190;
55.5000;0.1652;1.0261;
55.8000;0.1571;1.0071;
56.1000;0.1701;1.0403;
56.4000;0.1620;1.0190;
56.7000;0.1530;1.0024;
57.0000;0.1612;1.0190;
57.3000;0.1620;1.0190;
57.6000;0.1620;1.0095;
57.9000;0.1604;0.9977;
58.2000;0.1604;0.9929;
58.5000;0.1587;0.9953;
58.8000;0.1620;1.0048;
59.1000;0.1595;1.0095;
59.4000;0.1612;1.0095;
59.7000;0.1612;1.0190;
60.0000;0.1563;1.0119;
60.3000;0.1628;1.0214;
60.6000;0.1620;1.0214;
60.9000;0.1620;1.0166;
61.2000;0.1604;1.0071;
61.5000;0.1628;1.0071;
61.8000;0.1636;1.0048;
62.1000;0.1604;1.0000;
62.4000;0.1587;0.9929;
62.7000;0.1636;1.0024;
63.0000;0.1685;1.0119;
63.3000;0.1604;0.9906;
63.6000;0.1604;0.9953;
63.9000;0.1628;1.0000;
64.2000;0.1595;1.0024;
64.5000;0.1612;0.9953;
64.8000;0.1644;1.0048;
65.1000;0.1612;0.9953;
65.4000;0.1620;1.0000;
65.7000;0.1604;0.9882;
66.0000;0.1604;0.9977;
66.3000;0.1628;0.9953;
66.6000;0.1620;0.9977;
66.9000;0.1612;0.9906;
67.2000;0.1636;0.9977;
67.5000;0.1571;0.9882;
67.8000;0.1595;0.9882;
68.1000;0.1620;0.9882;
68.4000;0.1661;0.9977;
68.7000;0.1604;0.9906;
69.0000;0.1652;1.0024;
69.3000;0.1571;0.9858;
69.6000;0.1595;0.9953;
69.9000;0.1604;0.9929;
70.2000;0.1612;0.9858;
70.5000;0.1612;0.9882;
70.8000;0.1620;0.9882;
71.1000;0.1612;0.9929;
71.4000;0.1612;0.9929;
71.7000;0.1604;0.9858;
72.0000;0.1604;0.9882;
72.3000;0.1620;0.9929;
72.6000;0.1612;0.9929;
72.9000;0.1628;0.9929;
73.2000;0.1595;0.9882;
73.5000;0.1612;1.0000;
73.8000;0.1652;1.0048;
74.1000;0.1620;0.9929;
74.4000;0.1636;0.9929;
74.7000;0.1636;0.9953;
75.0000;0.1620;0.9929;
75.3000;0.1620;0.9834;
75.6000;0.1612;0.9882;
75.9000;0.1620;1.0024;
76.2000;0.1636;0.9977;
76.5000;0.1620;1.0000;
76.8000;0.1620;0.9977;
77.1000;0.1636;1.0048;
77.4000;0.1587;0.9929;
77.7000;0.1620;1.0048;
78.0000;0.1595;0.9977;
78.3000;0.1604;0.9953;
78.6000;0.1693;1.0071;
78.9000;0.1604;0.9882;
79.2000;0.1620;0.9834;
79.5000;0.1628;0.9858;
79.8000;0.1644;1.0000;
80.1000;0.1628;0.9906;
80.4000;0.1636;0.9953;
80.7000;0.1620;0.9929;
81.0000;0.1644;0.9953;
81.3000;0.1636;0.9906;
81.6000;0.1563;0.9740;
81.9000;0.1612;0.9811;
82.2000;0.1628;0.9811;
82.5000;0.1644;0.9929;
82.8000;0.1669;1.0024;
83.1000;0.1612;0.9929;
83.4000;0.1620;1.0048;
83.7000;0.1579;0.9906;
84.0000;0.1628;1.0024;
84.3000;0.1620;1.0166;
84.6000;0.1620;1.0095;
84.9000;0.1620;1.0095;
85.2000;0.1571;1.0024;
85.5000;0.1620;1.0143;
85.8000;0.1644;1.0166;
86.1000;0.1628;1.0048;
86.4000;0.1636;1.0048;
86.7000;0.1661;1.0095;
87.0000;0.1620;1.0095;
87.3000;0.1620;1.0071;
87.6000;0.1628;1.0024;
87.9000;0.1701;1.0214;
88.2000;0.1612;0.9953;
88.5000;0.1636;0.9882;
88.8000;0.1636;0.9882;
89.1000;0.1636;0.9858;
89.4000;0.1661;1.0000;
89.7000;0.1636;0.9977;
90.0000;0.1620;0.9858;
90.3000;0.1644;0.9929;
90.6000;0.1620;0.9953;
90.9000;0.1636;0.9882;
91.2000;0.1636;0.9787;
91.5000;0.1620;0.9787;
91.8000;0.1620;0.9858;
92.1000;0.1636;0.9906;
92.4000;0.1620;0.9929;
92.7000;0.1652;1.0048;
93.0000;0.1628;1.0000;
93.3000;0.1628;1.0000;
93.6000;0.1701;1.0143;
93.9000;0.1612;0.9953;
94.2000;0.1636;0.9977;
94.5000;0.1604;0.9977;
94.8000;0.1612;0.9906;
95.1000;0.1604;0.9882;
95.4000;0.1628;1.0000;
95.7000;0.1628;1.0071;
96.0000;0.1636;1.0071;
96.3000;0.1636;1.0000;
96.6000;0.1669;1.0095;
96.9000;0.1628;0.9953;
97.2000;0.1628;0.9953;
97.5000;0.1620;1.0000;
97.8000;0.1636;0.9977;
98.1000;0.1620;1.0024;
98.4000;0.1628;0.9977;
98.7000;0.1636;0.9977;
99.0000;0.1636;1.0024;
99.3000;0.1628;1.0048;
99.6000;0.1652;1.0119;
99.9000;0.1612;1.0166;
100.2000;0.1636;1.0119;
100.5000;0.1644;1.0095;
100.8000;0.1636;1.0119;
101.1000;0.1620;1.0071;
101.4000;0.1636;1.0119;
101.7000;0.1620;1.0166;
102.0000;0.1644;1.0237;
102.3000;0.1587;0.9977;
102.6000;0.1628;1.0024;
102.9000;0.1652;1.0024;
103.2000;0.1661;1.0071;
103.5000;0.1587;1.0000;
103.8000;0.1628;1.0143;
104.1000;0.1628;1.0166;
104.4000;0.1636;1.0166;
104.7000;0.1685;1.0380;
105.0000;0.1636;1.0237;
105.3000;0.1628;1.0214;
105.6000;0.1620;1.0190;
105.9000;0.1628;1.0261;
106.2000;0.1620;1.0190;
106.5000;0.1652;1.0237;
106.8000;0.1644;1.0214;
107.1000;0.1661;1.0214;
107.4000;0.1628;1.0214;
107.7000;0.1669;1.0356;
108.0000;0.1677;1.0380;
108.3000;0.1661;1.0356;
108.6000;0.1644;1.0261;
108.9000;0.1661;1.0332;
109.2000;0.1677;1.0308;
109.5000;0.1652;1.0237;
109.8000;0.1661;1.0119;
110.1000;0.1587;0.9882;
110.4000;0.1644;0.9977;
110.7000;0.1620;0.9953;
111.0000;0.1701;1.0166;
111.3000;0.1636;1.0119;
111.6000;0.1628;1.0048;
111.9000;0.1685;1.0190;
112.2000;0.1636;1.0119;
112.5000;0.1636;1.0071;
112.8000;0.1628;0.9953;
113.1000;0.1652;0.9906;
113.4000;0.1644;0.9882;
113.7000;0.1628;0.9929;
114.0000;0.1636;1.0071;
114.3000;0.1636;1.0048;
114.6000;0.1644;1.0024;
114.9000;0.1636;1.0000;
115.2000;0.1644;1.0000;
115.5000;0.1620;0.9929;
115.8000;0.1652;0.9953;
116.1000;0.1644;0.9882;
116.4000;0.1636;0.9858;
116.7000;0.1628;0.9858;
117.0000;0.1644;0.9953;
117.3000;0.1652;0.9953;
117.6000;0.1644;0.9953;
117.9000;0.1693;1.0095;
118.2000;0.1620;0.9929;
118.5000;0.1644;0.9929;
118.8000;0.1652;0.9834;
119.1000;0.1644;0.9787;
119.4000;0.1636;0.9834;
119.7000;0.1628;0.9882;
120.0000;0.1652;0.9882;
120.3000;0.1644;0.9882;
120.6000;0.1636;0.9929;
120.9000;0.1612;0.9858;
121.2000;0.1636;0.9953;
121.5000;0.1628;0.9929;
121.8000;0.1636;0.9929;
122.1000;0.1604;0.9882;
122.4000;0.1604;0.9858;
122.7000;0.1628;0.9953;
123.0000;0.1644;1.0024;
123.3000;0.1628;1.0000;
123.6000;0.1628;0.9929;
123.9000;0.1644;1.0000;
124.2000;0.1636;0.9977;
124.5000;0.1652;1.0048;
124.8000;0.1652;1.0095;
125.1000;0.1652;1.0024;
125.4000;0.1677;1.0071;
125.7000;0.1685;1.0071;
126.0000;0.1636;0.9882;
126.3000;0.1644;0.9977;
126.6000;0.1644;1.0000;
126.9000;0.1644;1.0024;
127.2000;0.1701;1.0095;
127.5000;0.1636;0.9929;
127.8000;0.1636;0.9977;
128.1000;0.1693;1.0095;
128.4000;0.1644;1.0024;
128.7000;0.1636;1.0071;
129.0000;0.1661;1.0166;
129.3000;0.1620;1.0048;
129.6000;0.1620;1.0048;
129.9000;0.1628;1.0119;
130.2000;0.1628;1.0071;
130.5000;0.1612;1.0024;
130.8000;0.1628;1.0048;
131.1000;0.1628;1.0071;
131.4000;0.1644;1.0095;
131.7000;0.1644;1.0048;
132.0000;0.1636;0.9977;
132.3000;0.1652;1.0119;
132.6000;0.1612;1.0024;
132.9000;0.1636;1.0119;
133.2000;0.1620;1.0119;
133.5000;0.1628;1.0166;
133.8000;0.1604;1.0190;
134.1000;0.1579;1.0071;
134.4000;0.1628;1.0190;
134.7000;0.1644;1.0237;
135.0000;0.1595;1.0095;
135.3000;0.1628;1.0285;
135.6000;0.1669;1.0308;
135.9000;0.1644;1.0237;
136.2000;0.1636;1.0095;
136.5000;0.1644;1.0024;
136.8000;0.1628;1.0071;
137.1000;0.1628;1.0095;
137.4000;0.1628;1.0095;
137.7000;0.1628;1.0166;
138.0000;0.1661;1.0214;
138.3000;0.1604;1.0119;
138.6000;0.1636;1.0143;
138.9000;0.1644;1.0071;
139.2000;0.1628;1.0071;
139.5000;0.1644;1.0119;
139.8000;0.1612;1.0071;
140.1000;0.1644;1.0166;
140.4000;0.1595;1.0143;
140.7000;0.1636;1.0332;
141.0000;0.1571;1.0119;
141.3000;0.1636;1.0285;
141.6000;0.1644;1.0356;
141.9000;0.1669;1.0403;
142.2000;0.1636;1.0285;
142.5000;0.1644;1.0237;
142.8000;0.1709;1.0403;
143.1000;0.1628;1.0214;
143.4000;0.1652;1.0214;
143.7000;0.1628;1.0119;
144.0000;0.1628;1.0166;
144.3000;0.1652;1.0024;
144.6000;0.1652;1.0071;
144.9000;0.1652;1.0071;
145.2000;0.1652;1.0048;
145.5000;0.1636;1.0000;
145.8000;0.1636;1.0048;
146.1000;0.1644;1.0024;
146.4000;0.1620;1.0000;
146.7000;0.1620;0.9929;
147.0000;0.1628;1.0024;
147.3000;0.1604;1.0024;
147.6000;0.1555;0.9858;
147.9000;0.1628;1.0000;
148.2000;0.1636;1.0071;
148.5000;0.1644;1.0166;
148.8000;0.1636;1.0190;
149.1000;0.1628;1.0119;
149.4000;0.1636;1.0214;
149.7000;0.1644;1.0214;
150.0000;0.1636;1.0261;
150.3000;0.1644;1.0285;
150.6000;0.1652;1.0332;
150.9000;0.1636;1.0285;
151.2000;0.1652;1.0308;
151.5000;0.1628;1.0261;
151.8000;0.1620;1.0332;
152.1000;0.1612;1.0261;
152.4000;0.1636;1.0285;
152.7000;0.1628;1.0261;
153.0000;0.1628;1.0237;
153.3000;0.1628;1.0261;
153.6000;0.1709;1.0380;
153.9000;0.1644;1.0119;
154.2000;0.1628;1.0071;
154.5000;0.1636;1.0119;
154.8000;0.1669;1.0285;
155.1000;0.1604;1.0190;
155.4000;0.1636;1.0332;
155.7000;0.1628;1.0308;
156.0000;0.1636;1.0261;
156.3000;0.1636;1.0332;
156.6000;0.1620;1.0332;
156.9000;0.1612;1.0237;
157.2000;0.1693;1.0308;
157.5000;0.1644;1.0166;
157.8000;0.1620;1.0095;
158.1000;0.1604;1.0071;
158.4000;0.1636;1.0143;
158.7000;0.1628;1.0143;
159.0000;0.1644;1.0071;
159.3000;0.1644;1.0048;
159.6000;0.1734;1.0071;
159.9000;0.1636;0.9953;
160.2000;0.1604;0.9858;
160.5000;0.1636;0.9977;
160.8000;0.1661;1.0048;
161.1000;0.1636;1.0024;
161.4000;0.1644;1.0048;
161.7000;0.1652;1.0095;
162.0000;0.1636;1.0048;
162.3000;0.1628;1.0143;
162.6000;0.1644;1.0143;
162.9000;0.1620;1.0071;
163.2000;0.1628;1.0166;
163.5000;0.1636;1.0190;
163.8000;0.1669;1.0308;
164.1000;0.1636;1.0261;
164.4000;0.1652;1.0261;
164.7000;0.1628;1.0214;
165.0000;0.1628;1.0237;
165.3000;0.1636;1.0143;
165.6000;0.1661;1.0190;
165.9000;0.1636;1.0071;
166.2000;0.1636;1.0048;
166.5000;0.1579;0.9977;
166.8000;0.1612;1.0095;
167.1000;0.1636;1.0166;
167.4000;0.1644;1.0119;
167.7000;0.1652;1.0143;
168.0000;0.1652;1.0048;
168.3000;0.1644;1.0000;
168.6000;0.1644;1.0000;
168.9000;0.1636;0.9953;
169.2000;0.1652;0.9953;
169.5000;0.1661;1.0000;
169.8000;0.1661;1.0000;
170.1000;0.1644;0.9953;
170.4000;0.1661;0.9977;
170.7000;0.1644;0.9929;
171.0000;0.1652;0.9882;
171.3000;0.1636;0.9882;
171.6000;0.1644;0.9858;
171.9000;0.1652;0.9858;
172.2000;0.1612;0.9787;
172.5000;0.1628;0.9763;
172.8000;0.1669;0.9811;
173.1000;0.1636;0.9740;
173.4000;0.1628;0.9763;
173.7000;0.1628;0.9834;
174.0000;0.1628;0.9811;
174.3000;0.1644;0.9906;
174.6000;0.1685;0.9953;
174.9000;0.1620;0.9834;
175.2000;0.1628;0.9858;
175.5000;0.1652;0.9929;
175.8000;0.1644;0.9977;
176.1000;0.1636;0.9906;
176.4000;0.1636;0.9882;
176.7000;0.1620;0.9906;
177.0000;0.1669;0.9929;
177.3000;0.1644;0.9834;
177.6000;0.1644;0.9929;
177.9000;0.1628;0.9929;
178.2000;0.1644;0.9882;
178.5000;0.1644;0.9977;
178.8000;0.1628;1.0024;
179.1000;0.1628;1.0048;
179.4000;0.1669;1.0119;
179.7000;0.1669;1.0214;
180.0000;0.1644;1.0095;
180.3000;0.1628;1.0024;
180.6000;0.1604;0.9977;
180.9000;0.1669;1.0071;
181.2000;0.1604;0.9953;
181.5000;0.1644;0.9977;
181.8000;0.1628;1.0024;
182.1000;0.1636;0.9977;
182.4000;0.1652;0.9977;
182.7000;0.1628;0.9929;
183.0000;0.1644;0.9977;
183.3000;0.1652;1.0024;
183.6000;0.1636;1.0000;
183.9000;0.1636;1.0000;
184.2000;0.1628;1.0071;
184.5000;0.1620;1.0024;
184.8000;0.1636;1.0143;
185.1000;0.1636;1.0048;
185.4000;0.1612;0.9882;
185.7000;0.1628;0.9906;
186.0000;0.1628;1.0000;
186.3000;0.1612;0.9906;
186.6000;0.1628;0.9953;
186.9000;0.1620;0.9906;
187.2000;0.1636;0.9929;
187.5000;0.1620;1.0024;
187.8000;0.1628;1.0071;
188.1000;0.1628;1.0024;
188.4000;0.1652;1.0095;
188.7000;0.1620;1.0095;
189.0000;0.1636;1.0071;
189.3000;0.1644;1.0024;
189.6000;0.1620;0.9953;
189.9000;0.1636;0.9858;
190.2000;0.1652;0.9834;
190.5000;0.1628;0.9929;
190.8000;0.1644;0.9929;
191.1000;0.1636;0.9953;
191.4000;0.1661;0.9977;
191.7000;0.1620;0.9977;
192.0000;0.1620;0.9906;
192.3000;0.1628;0.9882;
192.6000;0.1636;0.9929;
192.9000;0.1644;0.9882;
193.2000;0.1636;1.0000;
193.5000;0.1644;1.0048;
193.8000;0.1636;0.9953;
194.1000;0.1620;0.9882;
194.4000;0.1636;0.9882;
194.7000;0.1636;0.9882;
195.0000;0.1636;0.9882;
195.3000;0.1620;0.9740;
195.6000;0.1677;0.9811;
195.9000;0.1628;0.9740;
196.2000;0.1620;0.9716;
196.5000;0.1620;0.9669;
196.8000;0.1644;0.9740;
197.1000;0.1636;0.9716;
197.4000;0.1579;0.9621;
197.7000;0.1644;0.9811;
198.0000;0.1636;0.9858;
198.3000;0.1595;0.9763;
198.6000;0.1636;0.9906;
198.9000;0.1628;0.9953;
199.2000;0.1644;1.0000;
199.5000;0.1620;0.9906;
199.8000;0.1628;0.9858;
200.1000;0.1620;0.9787;
200.4000;0.1563;0.9669;
200.7000;0.1612;0.9787;
201.0000;0.1620;0.9763;
201.3000;0.1620;0.9763;
201.6000;0.1652;0.9906;
201.9000;0.1661;0.9906;
202.2000;0.1628;0.9811;
202.5000;0.1628;0.9787;
202.8000;0.1677;0.9929;
203.1000;0.1644;0.9811;
203.4000;0.1628;0.9811;
203.7000;0.1652;0.9929;
204.0000;0.1571;0.9692;
204.3000;0.1644;0.9858;
204.6000;0.1644;0.9882;
204.9000;0.1669;0.9977;
205.2000;0.1636;0.9834;
205.5000;0.1636;0.9834;
205.8000;0.1628;0.9882;
206.1000;0.1636;0.9906;
206.4000;0.1620;0.9811;
206.7000;0.1636;0.9858;
207.0000;0.1628;0.9834;
207.3000;0.1628;0.9882;
207.6000;0.1620;0.9882;
207.9000;0.1636;0.9858;
208.2000;0.1652;0.9882;
208.5000;0.1628;0.9906;
208.8000;0.1620;1.0000;
209.1000;0.1644;1.0024;
209.4000;0.1644;1.0000;
209.7000;0.1604;0.9882;
210.0000;0.1636;0.9906;
210.3000;0.1677;1.0071;
210.6000;0.1636;1.0071;
210.9000;0.1652;1.0095;
211.2000;0.1620;1.0048;
211.5000;0.1652;1.0143;
211.8000;0.1628;1.0048;
212.1000;0.1628;1.0024;
212.4000;0.1628;0.9977;
212.7000;0.1620;0.9953;
213.0000;0.1628;1.0024;
213.3000;0.1644;1.0048;
213.6000;0.1644;1.0214;
213.9000;0.1636;1.0237;
214.2000;0.1636;1.0190;
214.5000;0.1701;1.0261;
214.8000;0.1661;1.0143;
215.1000;0.1636;1.0119;
215.4000;0.1644;1.0190;
215.7000;0.1636;1.0143;
216.0000;0.1652;1.0095;
216.3000;0.1628;1.0166;
216.6000;0.1636;1.0166;
216.9000;0.1644;1.0166;
217.2000;0.1628;1.0000;
217.5000;0.1644;0.9977;
217.8000;0.1636;0.9906;
218.1000;0.1644;0.9882;
218.4000;0.1644;0.9906;
218.7000;0.1652;0.9882;
219.0000;0.1620;0.9763;
219.3000;0.1661;0.9929;
219.6000;0.1587;0.9858;
219.9000;0.1636;1.0024;
220.2000;0.1620;1.0024;
220.5000;0.1628;0.9953;
220.8000;0.1652;0.9953;
221.1000;0.1636;0.9882;
221.4000;0.1636;0.9858;
221.7000;0.1628;0.9716;
222.0000;0.1628;0.9716;
222.3000;0.1718;0.9906;
222.6000;0.1636;0.9811;
222.9000;0.1636;0.9811;
223.2000;0.1644;0.9834;
223.5000;0.1661;0.9811;
223.8000;0.1636;0.9787;
224.1000;0.1636;0.9740;
224.4000;0.1628;0.9858;
224.7000;0.1628;0.9953;
225.0000;0.1652;0.9882;
225.3000;0.1644;0.9882;
225.6000;0.1636;0.9929;
225.9000;0.1652;0.9977;
226.2000;0.1628;1.0000;
226.5000;0.1628;0.9977;
226.8000;0.1628;1.0024;
227.1000;0.1652;1.0000;
227.4000;0.1620;0.9953;
227.7000;0.1644;0.9929;
228.0000;0.1595;0.9834;
228.3000;0.1628;0.9977;
228.6000;0.1636;0.9929;
228.9000;0.1620;1.0024;
229.2000;0.1644;1.0048;
229.5000;0.1652;1.0024;
229.8000;0.1628;0.9811;
230.1000;0.1628;0.9811;
230.4000;0.1644;0.9811;
230.7000;0.1652;0.9858;
231.0000;0.1636;0.9953;
231.3000;0.1644;1.0000;
231.6000;0.1644;1.0024;
231.9000;0.1628;0.9906;
232.2000;0.1628;0.9858;
232.5000;0.1636;0.9858;
232.8000;0.1644;0.9929;
233.1000;0.1628;0.9882;
233.4000;0.1620;0.9882;
233.7000;0.1636;0.9882;
234.0000;0.1628;0.9811;
234.3000;0.1693;0.9953;
234.6000;0.1612;0.9811;
234.9000;0.1612;0.9858;
235.2000;0.1636;0.9882;
235.5000;0.1628;0.9834;
235.8000;0.1644;0.9906;
236.1000;0.1636;0.9834;
236.4000;0.1636;0.9763;
236.7000;0.1628;0.9834;
237.0000;0.1644;0.9906;
237.3000;0.1644;0.9929;
237.6000;0.1709;1.0166;
237.9000;0.1644;1.0071;
238.2000;0.1652;1.0143;
238.5000;0.1636;1.0095;
238.8000;0.1636;0.9953;
239.1000;0.1628;0.9929;
239.4000;0.1644;0.9953;
239.7000;0.1652;0.9929;
240.0000;0.1628;0.9882;
240.3000;0.1669;0.9953;
240.6000;0.1652;0.9787;
240.9000;0.1595;0.9740;
241.2000;0.1636;0.9811;
241.5000;0.1636;0.9787;
241.8000;0.1652;0.9906;
242.1000;0.1644;0.9953;
242.4000;0.1595;0.9858;
242.7000;0.1628;0.9953;
243.0000;0.1571;0.9811;
243.3000;0.1628;0.9929;
243.6000;0.1652;1.0048;
243.9000;0.1628;0.9929;
244.2000;0.1628;0.9882;
244.5000;0.1628;0.9882;
244.8000;0.1620;0.9929;
245.1000;0.1636;0.9882;
245.4000;0.1628;0.9929;
245.7000;0.1636;0.9953;
246.0000;0.1652;0.9977;
246.3000;0.1677;1.0024;
246.6000;0.1628;0.9929;
246.9000;0.1612;0.9906;
247.2000;0.1628;0.9953;
247.5000;0.1604;0.9811;
247.8000;0.1628;0.9953;
248.1000;0.1628;1.0000;
248.4000;0.1636;1.0048;
248.7000;0.1644;1.0071;
249.0000;0.1652;1.0119;
249.3000;0.1636;1.0024;
249.6000;0.1620;0.9929;
249.9000;0.1652;1.0000;
250.2000;0.1620;0.9882;
250.5000;0.1644;0.9882;
250.8000;0.1628;0.9834;
251.1000;0.1644;0.9787;
251.4000;0.1644;0.9763;
251.7000;0.1587;0.9692;
252.0000;0.1620;0.9763;
252.3000;0.1652;0.9858;
252.6000;0.1636;0.9858;
252.9000;0.1644;0.9906;
253.2000;0.1644;0.9929;
253.5000;0.1652;1.0000;
253.8000;0.1652;1.0048;
254.1000;0.1628;0.9953;
254.4000;0.1644;0.9977;
254.7000;0.1644;1.0071;
255.0000;0.1652;0.9977;
255.3000;0.1579;0.9740;
255.6000;0.1636;0.9763;
255.9000;0.1628;0.9763;
256.2000;0.1644;0.9787;
256.5000;0.1636;0.9787;
256.8000;0.1636;0.9740;
257.1000;0.1636;0.9669;
257.4000;0.1669;0.9692;
257.7000;0.1636;0.9716;
258.0000;0.1636;0.9716;
258.3000;0.1620;0.9692;
258.6000;0.1636;0.9692;
258.9000;0.1636;0.9692;
259.2000;0.1644;0.9692;
259.5000;0.1644;0.9692;
259.8000;0.1661;0.9692;
260.1000;0.1652;0.9692;
260.4000;0.1636;0.9692;
260.7000;0.1620;0.9645;
261.0000;0.1652;0.9716;
261.3000;0.1652;0.9692;
261.6000;0.1636;0.9692;
261.9000;0.1579;0.9597;
262.2000;0.1636;0.9763;
262.5000;0.1636;0.9811;
262.8000;0.1628;0.9787;
263.1000;0.1644;0.9740;
263.4000;0.1628;0.9763;
263.7000;0.1636;0.9858;
264.0000;0.1620;0.9882;
264.3000;0.1652;0.9858;
264.6000;0.1677;0.9858;
264.9000;0.1636;0.9669;
265.2000;0.1636;0.9597;
265.5000;0.1661;0.9716;
265.8000;0.1644;0.9740;
266.1000;0.1636;0.9811;
266.4000;0.1644;0.9787;
266.7000;0.1636;0.9787;
267.0000;0.1636;0.9716;
267.3000;0.1636;0.9692;
267.6000;0.1636;0.9669;
267.9000;0.1628;0.9669;
268.2000;0.1644;0.9716;
268.5000;0.1571;0.9597;
268.8000;0.1555;0.9645;
269.1000;0.1636;0.9906;
269.4000;0.1636;0.9929;
269.7000;0.1636;0.9906;
270.0000;0.1636;0.9953;
270.3000;0.1644;0.9906;
270.6000;0.1636;0.9858;
270.9000;0.1636;0.9858;
271.2000;0.1620;0.9906;
271.5000;0.1652;0.9977;
271.8000;0.1636;0.9882;
272.1000;0.1612;0.9787;
272.4000;0.1628;0.9763;
272.7000;0.1677;0.9858;
273.0000;0.1669;0.9858;
273.3000;0.1636;0.9858;
273.6000;0.1604;0.9834;
273.9000;0.1628;0.9858;
274.2000;0.1636;0.9906;
274.5000;0.1644;0.9858;
274.8000;0.1620;0.9811;
275.1000;0.1644;0.9882;
275.4000;0.1661;0.9882;
275.7000;0.1693;1.0048;
276.0000;0.1644;1.0024;
276.3000;0.1628;0.9953;
276.6000;0.1644;0.9953;
276.9000;0.1661;0.9929;
277.2000;0.1644;0.9906;
277.5000;0.1652;0.9929;
277.8000;0.1587;0.9858;
278.1000;0.1726;1.0143;
278.4000;0.1644;0.9906;
278.7000;0.1604;0.9858;
279.0000;0.1636;0.9882;
279.3000;0.1620;0.9858;
279.6000;0.1636;0.9906;
279.9000;0.1628;0.9858;
280.2000;0.1628;0.9811;
280.5000;0.1644;0.9858;
280.8000;0.1644;0.9834;
281.1000;0.1636;0.9740;
281.4000;0.1644;0.9763;
281.7000;0.1652;0.9740;
282.0000;0.1628;0.9716;
282.3000;0.1644;0.9763;
282.6000;0.1685;0.9858;
282.9000;0.1636;0.9834;
283.2000;0.1628;0.9858;
283.5000;0.1644;0.9929;
283.8000;0.1661;1.0000;
284.1000;0.1628;0.9953;
284.4000;0.1636;1.0000;
284.7000;0.1628;1.0024;
285.0000;0.1636;1.0095;
285.3000;0.1620;1.0024;
285.6000;0.1669;1.0190;
285.9000;0.1661;1.0237;
286.2000;0.1644;1.0308;
286.5000;0.1595;1.0071;
286.8000;0.1636;1.0237;
287.1000;0.1661;1.0261;
287.4000;0.1644;1.0237;
287.7000;0.1644;1.0237;
288.0000;0.1685;1.0308;
288.3000;0.1644;1.0095;
288.6000;0.1726;1.0214;
288.9000;0.1669;1.0143;
289.2000;0.1628;1.0024;
289.5000;0.1652;1.0095;
289.8000;0.1636;1.0143;
290.1000;0.1595;1.0048;
290.4000;0.1628;1.0143;
290.7000;0.1636;1.0119;
291.0000;0.1644;1.0095;
291.3000;0.1636;1.0071;
291.6000;0.1628;1.0024;
291.9000;0.1636;1.0143;
292.2000;0.1587;1.0119;
292.5000;0.1644;1.0190;
292.8000;0.1636;1.0166;
293.1000;0.1628;1.0071;
293.4000;0.1628;1.0024;
293.7000;0.1620;1.0048;
294.0000;0.1595;1.0024;
294.3000;0.1612;1.0071;
294.6000;0.1620;1.0095;
294.9000;0.1612;1.0119;
295.2000;0.1628;1.0119;
295.5000;0.1636;1.0095;
295.8000;0.1620;1.0071;
296.1000;0.1644;1.0095;
296.4000;0.1644;1.0048;
296.7000;0.1636;0.9977;
297.0000;0.1612;0.9977;
297.3000;0.1644;1.0048;
297.6000;0.1661;0.9977;
297.9000;0.1644;0.9929;
298.2000;0.1628;0.9858;
298.5000;0.1620;0.9858;
298.8000;0.1636;0.9906;
299.1000;0.1604;0.9811;
299.4000;0.1636;0.9858;
299.7000;0.1579;0.9858;
300.0000;0.1628;1.0095;
300.3000;0.1628;1.0119;
300.6000;0.1636;1.0119;
300.9000;0.1628;1.0143;
301.2000;0.1620;1.0048;
301.5000;0.1652;1.0166;
301.8000;0.1628;1.0214;
302.1000;0.1644;1.0119;
302.4000;0.1661;1.0214;
302.7000;0.1628;1.0119;
303.0000;0.1652;1.0190;
303.3000;0.1644;1.0285;
303.6000;0.1652;1.0285;
303.9000;0.1644;1.0214;
304.2000;0.1636;1.0237;
304.5000;0.1636;1.0166;
304.8000;0.1628;1.0095;
305.1000;0.1644;1.0143;
305.4000;0.1636;1.0166;
305.7000;0.1636;1.0190;
306.0000;0.1636;1.0214;
306.3000;0.1628;1.0190;
306.6000;0.1620;1.0261;
306.9000;0.1644;1.0261;
307.2000;0.1644;1.0166;
307.5000;0.1652;1.0166;
307.8000;0.1636;1.0214;
308.1000;0.1669;1.0285;
308.4000;0.1636;1.0095;
308.7000;0.1652;1.0143;
309.0000;0.1652;1.0143;
309.3000;0.1644;1.0071;
309.6000;0.1636;1.0024;
309.9000;0.1620;0.9929;
310.2000;0.1644;0.9929;
310.5000;0.1636;0.9929;
310.8000;0.1636;0.9953;
311.1000;0.1636;1.0024;
311.4000;0.1587;0.9858;
311.7000;0.1636;0.9858;
312.0000;0.1644;0.9882;
312.3000;0.1612;0.9953;
312.6000;0.1620;0.9953;
312.9000;0.1636;1.0024;
313.2000;0.1661;1.0048;
313.5000;0.1644;0.9977;
313.8000;0.1636;0.9858;
314.1000;0.1677;1.0000;
314.4000;0.1644;1.0024;
314.7000;0.1636;1.0048;
315.0000;0.1579;0.9929;
315.3000;0.1644;1.0071;
315.6000;0.1652;1.0000;
315.9000;0.1652;0.9929;
316.2000;0.1636;0.9906;
316.5000;0.1628;0.9953;
316.8000;0.1636;0.9953;
317.1000;0.1652;1.0024;
317.4000;0.1644;1.0071;
317.7000;0.1595;0.9977;
318.0000;0.1644;1.0071;
318.3000;0.1652;1.0119;
318.6000;0.1636;1.0071;
318.9000;0.1652;1.0071;
319.2000;0.1652;1.0071;
319.5000;0.1661;1.0143;
319.8000;0.1677;1.0214;
320.1000;0.1636;1.0143;
320.4000;0.1636;1.0166;
320.7000;0.1644;1.0119;
321.0000;0.1644;1.0095;
321.3000;0.1628;1.0000;
321.6000;0.1628;1.0024;
321.9000;0.1636;0.9977;
322.2000;0.1644;1.0071;
322.5000;0.1636;1.0048;
322.8000;0.1636;1.0071;
323.1000;0.1628;1.0048;
323.4000;0.1644;1.0071;
323.7000;0.1677;1.0166;
324.0000;0.1636;1.0095;
324.3000;0.1612;1.0071;
324.6000;0.1677;1.0190;
324.9000;0.1636;1.0024;
325.2000;0.1628;1.0048;
325.5000;0.1612;1.0000;
325.8000;0.1636;1.0071;
326.1000;0.1644;1.0143;
326.4000;0.1612;1.0024;
326.7000;0.1636;1.0071;
327.0000;0.1644;1.0095;
327.3000;0.1652;1.0071;
327.6000;0.1628;1.0119;
327.9000;0.1628;1.0048;
328.2000;0.1636;1.0071;
328.5000;0.1636;1.0000;
328.8000;0.1644;1.0024;
329.1000;0.1636;1.0024;
329.4000;0.1636;1.0119;
329.7000;0.1652;1.0143;
330.0000;0.1644;1.0261;
330.3000;0.1636;1.0166;
330.6000;0.1620;1.0048;
330.9000;0.1636;1.0048;
331.2000;0.1661;1.0095;
331.5000;0.1644;0.9977;
331.8000;0.1644;0.9906;
332.1000;0.1652;0.9906;
332.4000;0.1636;0.9906;
332.7000;0.1628;0.9906;
333.0000;0.1661;0.9977;
333.3000;0.1620;0.9858;
333.6000;0.1652;0.9953;
333.9000;0.1644;0.9882;
334.2000;0.1636;0.9929;
334.5000;0.1636;1.0000;
334.8000;0.1636;1.0000;
335.1000;0.1652;1.0024;
335.4000;0.1652;1.0024;
335.7000;0.1636;0.9858;
336.0000;0.1628;0.9692;
336.3000;0.1644;0.9740;
336.6000;0.1652;0.9787;
336.9000;0.1652;0.9763;
337.2000;0.1636;0.9692;
337.5000;0.1644;0.9692;
337.8000;0.1644;0.9716;
338.1000;0.1612;0.9645;
338.4000;0.1612;0.9692;
338.7000;0.1620;0.9763;
339.0000;0.1669;0.9906;
339.3000;0.1595;0.9740;
339.6000;0.1693;1.0071;
339.9000;0.1620;1.0000;
340.2000;0.1620;1.0024;
340.5000;0.1636;1.0000;
340.8000;0.1628;0.9953;
341.1000;0.1628;0.9929;
341.4000;0.1644;0.9929;
341.7000;0.1636;0.9929;
342.0000;0.1636;0.9929;
342.3000;0.1636;0.9906;
342.6000;0.1628;0.9906;
342.9000;0.1669;1.0000;
343.2000;0.1652;0.9953;
343.5000;0.1677;1.0024;
343.8000;0.1636;0.9929;
344.1000;0.1677;0.9929;
344.4000;0.1652;0.9906;
344.7000;0.1644;0.9929;
345.0000;0.1620;0.9929;
345.3000;0.1628;0.9882;
345.6000;0.1628;0.9929;
345.9000;0.1652;0.9906;
346.2000;0.1644;0.9906;
346.5000;0.1636;0.9834;
346.8000;0.1644;0.9882;
347.1000;0.1644;1.0000;
347.4000;0.1652;0.9977;
347.7000;0.1644;0.9977;
348.0000;0.1644;0.9977;
348.3000;0.1652;1.0119;
348.6000;0.1636;1.0166;
348.9000;0.1644;1.0143;
349.2000;0.1628;1.0143;
349.5000;0.1644;1.0119;
349.8000;0.1628;1.0071;
350.1000;0.1644;1.0071;
350.4000;0.1628;1.0119;
350.7000;0.1636;1.0071;
351.0000;0.1636;1.0071;
351.3000;0.1628;1.0024;
351.6000;0.1612;0.9953;
351.9000;0.1628;0.9953;
352.2000;0.1620;0.9977;
352.5000;0.1604;1.0024;
352.8000;0.1636;1.0166;
353.1000;0.1644;1.0237;
353.4000;0.1661;1.0261;
353.7000;0.1636;1.0143;
354.0000;0.1644;1.0143;
354.3000;0.1636;1.0143;
354.6000;0.1661;1.0261;
354.9000;0.1644;1.0190;
355.2000;0.1652;1.0166;
355.5000;0.1644;1.0095;
355.8000;0.1669;1.0166;
356.1000;0.1644;1.0119;
356.4000;0.1644;1.0143;
356.7000;0.1636;1.0119;
357.0000;0.1652;1.0190;
357.3000;0.1661;1.0237;
357.6000;0.1644;1.0190;
357.9000;0.1636;1.0214;
358.2000;0.1644;1.0143;
358.5000;0.1644;1.0166;
358.8000;0.1652;1.0190;
359.1000;0.1644;1.0214;
359.4000;0.1644;1.0190;
359.7000;0.1644;1.0166;
360.0000;0.1628;1.0143;
360.3000;0.1628;1.0166;
360.6000;0.1636;1.0214;
360.9000;0.1595;1.0095;
361.2000;0.1644;1.0095;
361.5000;0.1644;1.0166;
361.8000;0.1636;1.0143;
362.1000;0.1620;1.0095;
362.4000;0.1636;1.0000;
362.7000;0.1677;1.0048;
363.0000;0.1628;0.9906;
363.3000;0.1636;0.9929;
363.6000;0.1644;0.9977;
363.9000;0.1628;0.9929;
364.2000;0.1628;0.9906;
364.5000;0.1620;0.9929;
364.8000;0.1620;0.9977;
365.1000;0.1636;0.9977;
365.4000;0.1620;0.9953;
365.7000;0.1620;1.0000;
366.0000;0.1595;0.9882;
366.3000;0.1652;1.0024;
366.6000;0.1636;1.0000;
366.9000;0.1628;1.0000;
367.2000;0.1636;0.9977;
367.5000;0.1652;1.0000;
367.8000;0.1652;0.9929;
368.1000;0.1628;0.9906;
368.4000;0.1595;0.9811;
368.7000;0.1587;0.9763;
369.0000;0.1644;0.9929;
369.3000;0.1652;0.9882;
369.6000;0.1636;0.9929;
369.9000;0.1620;0.9906;
370.2000;0.1652;0.9977;
370.5000;0.1661;1.0024;
370.8000;0.1677;1.0048;
371.1000;0.1644;0.9906;
371.4000;0.1636;0.9953;
371.7000;0.1636;0.9953;
372.0000;0.1628;0.9906;
372.3000;0.1620;0.9929;
372.6000;0.1628;0.9953;
372.9000;0.1636;0.9882;
373.2000;0.1620;0.9906;
373.5000;0.1620;0.9858;
373.8000;0.1595;0.9834;
374.1000;0.1628;0.9953;
374.4000;0.1628;0.9953;
374.7000;0.1628;0.9929;
375.0000;0.1620;0.9906;
375.3000;0.1644;0.9977;
375.6000;0.1628;0.9953;
375.9000;0.1628;0.9953;
376.2000;0.1636;0.9953;
376.5000;0.1669;1.0048;
376.8000;0.1628;1.0024;
377.1000;0.1636;1.0024;
377.4000;0.1604;1.0000;
377.7000;0.1620;1.0071;
378.0000;0.1628;1.0000;
378.3000;0.1628;0.9977;
378.6000;0.1628;0.9977;
378.9000;0.1628;1.0024;
379.2000;0.1669;1.0071;
379.5000;0.1636;1.0095;
379.8000;0.1604;1.0024;
380.1000;0.1636;1.0024;
380.4000;0.1636;1.0071;
380.7000;0.1636;1.0095;
381.0000;0.1604;1.0048;
381.3000;0.1644;1.0048;
381.6000;0.1669;1.0237;
381.9000;0.1652;1.0143;
382.2000;0.1636;1.0024;
382.5000;0.1661;1.0071;
382.8000;0.1628;0.9977;
383.1000;0.1628;1.0071;
383.4000;0.1636;1.0071;
383.7000;0.1612;0.9977;
384.0000;0.1612;1.0000;
384.3000;0.1628;1.0071;
384.6000;0.1587;0.9977;
384.9000;0.1612;1.0024;
385.2000;0.1620;1.0048;
385.5000;0.1636;1.0071;
385.8000;0.1636;1.0024;
386.1000;0.1636;1.0071;
386.4000;0.1644;1.0237;
386.7000;0.1644;1.0190;
387.0000;0.1628;1.0214;
387.3000;0.1644;1.0190;
387.6000;0.1636;1.0166;
387.9000;0.1644;1.0119;
388.2000;0.1636;1.0071;
388.5000;0.1628;1.0000;
388.8000;0.1628;0.9977;
389.1000;0.1628;1.0024;
389.4000;0.1644;1.0071;
389.7000;0.1636;1.0071;
390.0000;0.1644;1.0095;
390.3000;0.1620;1.0071;
390.6000;0.1636;1.0071;
390.9000;0.1661;1.0048;
391.2000;0.1644;1.0048;
391.5000;0.1636;1.0071;
391.8000;0.1644;1.0024;
392.1000;0.1604;0.9787;
392.4000;0.1612;0.9858;
392.7000;0.1587;0.9858;
393.0000;0.1604;0.9858;
393.3000;0.1628;0.9929;
393.6000;0.1636;0.9906;
393.9000;0.1620;0.9858;
394.2000;0.1636;0.9811;
394.5000;0.1636;0.9882;
394.8000;0.1644;0.9787;
395.1000;0.1636;0.9740;
395.4000;0.1644;0.9834;
395.7000;0.1612;0.9763;
396.0000;0.1628;0.9882;
396.3000;0.1636;0.9834;
396.6000;0.1644;0.9977;
396.9000;0.1644;1.0000;
397.2000;0.1636;1.0024;
397.5000;0.1677;1.0143;
397.8000;0.1669;1.0048;
398.1000;0.1628;0.9929;
398.4000;0.1644;0.9953;
398.7000;0.1636;0.9929;
399.0000;0.1620;0.9953;
399.3000;0.1612;0.9953;
399.6000;0.1571;0.9882;
399.9000;0.1636;1.0071;
400.2000;0.1636;1.0071;
400.5000;0.1620;0.9977;
400.8000;0.1628;1.0024;
401.1000;0.1628;1.0048;
401.4000;0.1604;1.0000;
401.7000;0.1677;1.0143;
402.0000;0.1620;1.0024;
402.3000;0.1636;1.0024;
402.6000;0.1652;1.0143;
402.9000;0.1612;1.0048;
403.2000;0.1636;1.0119;
403.5000;0.1636;1.0071;
403.8000;0.1620;1.0071;
404.1000;0.1652;1.0119;
404.4000;0.1644;1.0166;
404.7000;0.1628;1.0119;
405.0000;0.1587;1.0024;
405.3000;0.1661;1.0143;
405.6000;0.1669;1.0119;
405.9000;0.1644;1.0000;
406.2000;0.1628;0.9977;
406.5000;0.1644;1.0071;
406.8000;0.1644;1.0071;
407.1000;0.1628;1.0048;
407.4000;0.1636;1.0143;
407.7000;0.1661;1.0261;
408.0000;0.1644;1.0261;
408.3000;0.1571;1.0095;
408.6000;0.1709;1.0403;
408.9000;0.1652;1.0285;
409.2000;0.1652;1.0190;
409.5000;0.1652;1.0190;
409.8000;0.1636;1.0143;
410.1000;0.1620;1.0190;
410.4000;0.1644;1.0261;
410.7000;0.1612;1.0143;
411.0000;0.1636;1.0095;
411.3000;0.1636;1.0119;
411.6000;0.1644;1.0190;
411.9000;0.1644;1.0143;
412.2000;0.1628;1.0024;
412.5000;0.1620;1.0000;
412.8000;0.1620;0.9977;
413.1000;0.1628;0.9977;
413.4000;0.1652;1.0024;
413.7000;0.1636;0.9977;
414.0000;0.1628;1.0000;
414.3000;0.1636;1.0119;
414.6000;0.1628;1.0143;
414.9000;0.1652;1.0143;
415.2000;0.1628;1.0071;
415.5000;0.1677;1.0214;
415.8000;0.1644;1.0071;
416.1000;0.1628;1.0071;
416.4000;0.1644;1.0095;
416.7000;0.1636;1.0190;
417.0000;0.1652;1.0166;
417.3000;0.1636;1.0071;
417.6000;0.1636;1.0143;
417.9000;0.1636;1.0095;
418.2000;0.1628;1.0119;
418.5000;0.1620;1.0071;
418.8000;0.1628;0.9953;
419.1000;0.1620;1.0071;
419.4000;0.1595;1.0024;
419.7000;0.1644;1.0214;
420.0000;0.1628;1.0119;
420.3000;0.1636;1.0048;
420.6000;0.1652;1.0024;
420.9000;0.1636;1.0071;
421.2000;0.1628;1.0071;
421.5000;0.1628;1.0119;
421.8000;0.1636;1.0119;
422.1000;0.1620;1.0071;
422.4000;0.1636;1.0048;
422.7000;0.1628;0.9977;
423.0000;0.1644;0.9977;
423.3000;0.1628;0.9977;
423.6000;0.1636;0.9953;
423.9000;0.1636;0.9977;
424.2000;0.1628;0.9953;
424.5000;0.1628;1.0000;
424.8000;0.1628;1.0000;
425.1000;0.1628;0.9953;
425.4000;0.1644;0.9977;
425.7000;0.1628;1.0000;
426.0000;0.1652;1.0143;
426.3000;0.1644;1.0143;
426.6000;0.1636;1.0214;
426.9000;0.1652;1.0214;
427.2000;0.1628;1.0095;
427.5000;0.1661;1.0119;
427.8000;0.1628;1.0048;
428.1000;0.1652;1.0048;
428.4000;0.1644;1.0048;
428.7000;0.1644;1.0143;
429.0000;0.1644;1.0119;
429.3000;0.1628;0.9977;
429.6000;0.1652;0.9953;
429.9000;0.1628;0.9882;
430.2000;0.1628;0.9858;
430.5000;0.1669;0.9834;
430.8000;0.1636;0.9858;
431.1000;0.1652;0.9953;
431.4000;0.1636;0.9834;
431.7000;0.1595;0.9740;
432.0000;0.1620;0.9882;
432.3000;0.1612;0.9834;
432.6000;0.1644;0.9834;
432.9000;0.1644;0.9811;
433.2000;0.1563;0.9621;
433.5000;0.1628;0.9787;
433.8000;0.1587;0.9716;
434.1000;0.1726;1.0095;
434.4000;0.1595;0.9811;
434.7000;0.1636;0.9929;
435.0000;0.1644;0.9882;
435.3000;0.1636;0.9858;
435.6000;0.1628;0.9858;
435.9000;0.1636;0.9858;
436.2000;0.1709;0.9953;
436.5000;0.1636;0.9763;
436.8000;0.1620;0.9763;
437.1000;0.1636;0.9811;
437.4000;0.1628;0.9787;
437.7000;0.1636;0.9811;
438.0000;0.1669;0.9882;
438.3000;0.1636;0.9882;
438.6000;0.1628;0.9787;
438.9000;0.1628;0.9811;
439.2000;0.1628;0.9906;
439.5000;0.1612;0.9882;
439.8000;0.1628;0.9858;
440.1000;0.1652;0.9929;
440.4000;0.1644;0.9953;
440.7000;0.1644;1.0048;
441.0000;0.1644;0.9977;
441.3000;0.1636;0.9977;
441.6000;0.1636;0.9977;
441.9000;0.1644;0.9906;
442.2000;0.1636;0.9858;
442.5000;0.1644;0.9953;
442.8000;0.1652;0.9882;
443.1000;0.1636;0.9834;
443.4000;0.1628;0.9811;
443.7000;0.1612;0.9929;
444.0000;0.1644;0.9953;
444.3000;0.1644;0.9929;
444.6000;0.1644;0.9858;
444.9000;0.1636;0.9763;
445.2000;0.1644;0.9834;
445.5000;0.1644;0.9929;
445.8000;0.1636;1.0000;
446.1000;0.1628;1.0000;
446.4000;0.1661;1.0048;
446.7000;0.1644;1.0000;
447.0000;0.1636;0.9977;
447.3000;0.1628;1.0000;
447.6000;0.1669;1.0095;
447.9000;0.1644;1.0071;
448.2000;0.1644;1.0095;
448.5000;0.1628;1.0024;
448.8000;0.1628;1.0024;
449.1000;0.1652;1.0000;
449.4000;0.1644;1.0000;
449.7000;0.1652;0.9953;
450.0000;0.1636;0.9906;
450.3000;0.1628;1.0000;
450.6000;0.1636;0.9977;
450.9000;0.1628;1.0000;
451.2000;0.1620;0.9929;
451.5000;0.1612;0.9906;
451.8000;0.1612;0.9953;
452.1000;0.1644;1.0048;
452.4000;0.1661;1.0048;
452.7000;0.1636;1.0024;
453.0000;0.1628;0.9929;
453.3000;0.1644;0.9906;
453.6000;0.1644;0.9858;
453.9000;0.1636;1.0000;
454.2000;0.1636;1.0048;
454.5000;0.1644;1.0095;
454.8000;0.1652;1.0024;
455.1000;0.1636;1.0048;
455.4000;0.1709;1.0143;
455.7000;0.1644;1.0000;
456.0000;0.1644;0.9929;
456.3000;0.1628;0.9834;
456.6000;0.1661;0.9811;
456.9000;0.1628;0.9763;
457.2000;0.1652;0.9834;
457.5000;0.1636;0.9834;
457.8000;0.1628;0.9787;
458.1000;0.1636;0.9740;
458.4000;0.1652;0.9763;
458.7000;0.1636;0.9834;
459.0000;0.1628;0.9716;
459.3000;0.1636;0.9763;
459.6000;0.1595;0.9716;
459.9000;0.1636;0.9834;
460.2000;0.1628;0.9787;
460.5000;0.1636;0.9740;
460.8000;0.1628;0.9787;
461.1000;0.1644;0.9858;
461.4000;0.1644;0.9787;
461.7000;0.1644;0.9763;
462.0000;0.1620;0.9692;
462.3000;0.1677;0.9811;
462.6000;0.1620;0.9692;
462.9000;0.1636;0.9740;
463.2000;0.1636;0.9716;
463.5000;0.1636;0.9669;
463.8000;0.1644;0.9692;
464.1000;0.1644;0.9645;
464.4000;0.1620;0.9669;
464.7000;0.1644;0.9763;
465.0000;0.1636;0.9834;
465.3000;0.1636;0.9811;
465.6000;0.1628;0.9858;
465.9000;0.1709;1.0143;
466.2000;0.1636;1.0000;
466.5000;0.1661;1.0095;
466.8000;0.1628;1.0000;
467.1000;0.1620;1.0024;
467.4000;0.1636;1.0024;
467.7000;0.1652;1.0048;
468.0000;0.1636;0.9953;
468.3000;0.1677;0.9953;
468.6000;0.1636;0.9834;
468.9000;0.1628;0.9787;
469.2000;0.1644;0.9811;
469.5000;0.1571;0.9716;
469.8000;0.1652;0.9953;
470.1000;0.1669;1.0000;
470.4000;0.1652;1.0024;
470.7000;0.1620;0.9882;
471.0000;0.1652;0.9929;
471.3000;0.1636;0.9929;
471.6000;0.1628;0.9882;
471.9000;0.1636;0.9906;
472.2000;0.1636;0.9858;
472.5000;0.1612;0.9906;
472.8000;0.1652;1.0024;
473.1000;0.1636;1.0000;
473.4000;0.1620;0.9953;
473.7000;0.1628;0.9929;
474.0000;0.1644;0.9929;
474.3000;0.1636;0.9787;
474.6000;0.1620;0.9834;
474.9000;0.1628;0.9929;
475.2000;0.1644;0.9906;
475.5000;0.1652;0.9882;
475.8000;0.1644;0.9882;
476.1000;0.1636;0.9882;
476.4000;0.1628;0.9906;
476.7000;0.1636;0.9929;
477.0000;0.1595;0.9882;
477.3000;0.1628;0.9929;
477.6000;0.1620;0.9953;
477.9000;0.1628;1.0000;
478.2000;0.1620;0.9929;
478.5000;0.1612;1.0000;
478.8000;0.1636;1.0000;
479.1000;0.1620;0.9906;
479.4000;0.1636;1.0048;
479.7000;0.1652;1.0190;
480.0000;0.1644;1.0048;
480.3000;0.1579;0.9953;
480.6000;0.1636;1.0048;
480.9000;0.1636;1.0024;
481.2000;0.1644;1.0048;
481.5000;0.1636;1.0048;
481.8000;0.1587;0.9906;
482.1000;0.1701;1.0190;
482.4000;0.1628;1.0000;
482.7000;0.1612;0.9953;
483.0000;0.1595;0.9882;
483.3000;0.1612;0.9858;
483.6000;0.1628;0.9929;
483.9000;0.1685;1.0024;
484.2000;0.1661;1.0024;
484.5000;0.1620;0.9906;
484.8000;0.1669;1.0000;
485.1000;0.1563;0.9669;
485.4000;0.1612;0.9834;
485.7000;0.1644;0.9906;
486.0000;0.1709;1.0143;
486.3000;0.1636;0.9977;
486.6000;0.1628;1.0095;
486.9000;0.1726;1.0356;
487.2000;0.1620;1.0166;
487.5000;0.1620;1.0119;
487.8000;0.1669;1.0190;
488.1000;0.1636;1.0166;
488.4000;0.1652;1.0071;
488.7000;0.1644;1.0000;
489.0000;0.1636;0.9906;
489.3000;0.1652;0.9906;
489.6000;0.1644;0.9906;
489.9000;0.1644;0.9906;
490.2000;0.1636;0.9763;
490.5000;0.1628;0.9787;
490.8000;0.1644;0.9929;
491.1000;0.1652;0.9953;
491.4000;0.1628;0.9929;
491.7000;0.1644;0.9977;
492.0000;0.1636;0.9953;
492.3000;0.1644;0.9906;
492.6000;0.1628;0.9834;
492.9000;0.1644;0.9929;
493.2000;0.1628;0.9906;
493.5000;0.1644;0.9858;
493.8000;0.1636;0.9811;
494.1000;0.1644;0.9906;
494.4000;0.1636;0.9834;
494.7000;0.1636;0.9858;
495.0000;0.1652;0.9858;
495.3000;0.1644;0.9953;
495.6000;0.1612;0.9929;
495.9000;0.1644;1.0024;
496.2000;0.1636;1.0071;
496.5000;0.1636;1.0095;
496.8000;0.1628;1.0048;
497.1000;0.1636;0.9977;
497.4000;0.1636;1.0024;
497.7000;0.1652;1.0119;
498.0000;0.1636;1.0095;
498.3000;0.1636;1.0143;
498.6000;0.1661;1.0166;
498.9000;0.1636;1.0048;
499.2000;0.1652;1.0048;
499.5000;0.1652;1.0071;
499.8000;0.1644;1.0024;
500.1000;0.1636;0.9906;
500.4000;0.1636;0.9906;
500.7000;0.1636;0.9929;
501.0000;0.1701;1.0095;
501.3000;0.1652;0.9858;
501.6000;0.1620;0.9858;
501.9000;0.1636;0.9882;
502.2000;0.1628;0.9953;
502.5000;0.1636;1.0000;
502.8000;0.1636;1.0000;
503.1000;0.1669;1.0048;
503.4000;0.1644;1.0071;
503.7000;0.1652;1.0119;
504.0000;0.1595;1.0095;
504.3000;0.1620;1.0237;
504.6000;0.1628;1.0237;
504.9000;0.1571;0.9977;
505.2000;0.1644;1.0119;
505.5000;0.1628;1.0119;
505.8000;0.1612;1.0048;
506.1000;0.1579;0.9929;
506.4000;0.1718;1.0261;
506.7000;0.1652;1.0071;
507.0000;0.1620;1.0071;
507.3000;0.1620;1.0166;
507.6000;0.1628;1.0214;
507.9000;0.1636;1.0143;
508.2000;0.1620;0.9929;
508.5000;0.1620;0.9929;
508.8000;0.1628;1.0000;
509.1000;0.1661;1.0143;
509.4000;0.1636;1.0071;
509.7000;0.1628;1.0071;
510.0000;0.1669;1.0214;
510.3000;0.1636;1.0166;
510.6000;0.1636;1.0143;
510.9000;0.1628;1.0143;
511.2000;0.1636;1.0143;
511.5000;0.1628;1.0166;
511.8000;0.1652;1.0237;
512.1000;0.1620;1.0166;
512.4000;0.1612;1.0095;
512.7000;0.1669;1.0190;
513.0000;0.1636;1.0119;
513.3000;0.1628;1.0095;
513.6000;0.1628;1.0166;
513.9000;0.1628;1.0237;
514.2000;0.1636;1.0308;
514.5000;0.1644;1.0356;
514.8000;0.1644;1.0261;
515.1000;0.1652;1.0261;
515.4000;0.1644;1.0214;
515.7000;0.1628;1.0119;
516.0000;0.1644;1.0071;
516.3000;0.1628;1.0048;
516.6000;0.1636;1.0071;
516.9000;0.1644;1.0143;
517.2000;0.1652;1.0166;
517.5000;0.1620;1.0024;
517.8000;0.1636;1.0048;
518.1000;0.1636;1.0048;
518.4000;0.1604;1.0000;
518.7000;0.1669;1.0143;
519.0000;0.1652;1.0095;
519.3000;0.1636;1.0095;
519.6000;0.1644;1.0000;
519.9000;0.1628;0.9906;
520.2000;0.1636;0.9953;
520.5000;0.1644;1.0000;
520.8000;0.1628;1.0024;
521.1000;0.1636;1.0071;
521.4000;0.1636;0.9977;
521.7000;0.1579;0.9811;
522.0000;0.1652;1.0024;
522.3000;0.1652;1.0000;
522.6000;0.1669;1.0000;
522.9000;0.1652;1.0024;
523.2000;0.1661;1.0000;
523.5000;0.1636;0.9977;
523.8000;0.1701;1.0214;
524.1000;0.1636;1.0095;
524.4000;0.1652;1.0048;
524.7000;0.1693;1.0190;
525.0000;0.1644;0.9977;
525.3000;0.1652;1.0048;
525.6000;0.1620;1.0048;
525.9000;0.1636;1.0119;
526.2000;0.1628;1.0024;
526.5000;0.1644;1.0119;
526.8000;0.1661;1.0214;
527.1000;0.1644;1.0095;
527.4000;0.1644;0.9977;
527.7000;0.1636;0.9953;
528.0000;0.1628;0.9858;
528.3000;0.1628;0.9906;
528.6000;0.1620;0.9834;
528.9000;0.1628;0.9834;
529.2000;0.1612;0.9763;
529.5000;0.1693;0.9858;
529.8000;0.1628;0.9834;
530.1000;0.1636;0.9787;
530.4000;0.1636;0.9834;
530.7000;0.1636;0.9953;
531.0000;0.1612;0.9929;
531.3000;0.1636;0.9929;
531.6000;0.1628;0.9953;
531.9000;0.1644;1.0048;
532.2000;0.1644;1.0000;
532.5000;0.1661;1.0024;
532.8000;0.1628;0.9906;
533.1000;0.1693;1.0024;
533.4000;0.1620;0.9834;
533.7000;0.1644;1.0024;
534.0000;0.1612;1.0048;
534.3000;0.1628;1.0024;
534.6000;0.1644;1.0024;
534.9000;0.1644;1.0000;
535.2000;0.1628;0.9977;
535.5000;0.1612;0.9977;
535.8000;0.1636;1.0071;
536.1000;0.1628;1.0048;
536.4000;0.1628;1.0048;
536.7000;0.1652;1.0095;
537.0000;0.1636;1.0119;
537.3000;0.1644;1.0071;
537.6000;0.1661;1.0119;
537.9000;0.1628;1.0048;
538.2000;0.1612;1.0071;
538.5000;0.1628;1.0119;
538.8000;0.1644;1.0285;
539.1000;0.1628;1.0190;
539.4000;0.1628;1.0190;
539.7000;0.1669;1.0308;
540.0000;0.1628;1.0190;
540.3000;0.1604;1.0000;
540.6000;0.1636;1.0071;
540.9000;0.1620;1.0024;
541.2000;0.1652;1.0166;
541.5000;0.1644;1.0119;
541.8000;0.1644;1.0119;
542.1000;0.1644;1.0095;
542.4000;0.1652;1.0095;
542.7000;0.1644;1.0095;
543.0000;0.1652;1.0095;
543.3000;0.1636;1.0071;
543.6000;0.1693;1.0261;
543.9000;0.1661;1.0024;
544.2000;0.1652;0.9953;
544.5000;0.1644;0.9929;
544.8000;0.1620;0.9977;
545.1000;0.1652;1.0000;
545.4000;0.1636;1.0071;
545.7000;0.1652;1.0024;
546.0000;0.1628;0.9929;
546.3000;0.1628;0.9977;
546.6000;0.1628;0.9929;
546.9000;0.1669;1.0000;
547.2000;0.1644;0.9977;
547.5000;0.1636;1.0024;
547.8000;0.1726;1.0237;
548.1000;0.1669;1.0119;
548.4000;0.1636;1.0024;
548.7000;0.1661;1.0143;
549.0000;0.1652;1.0119;
549.3000;0.1652;1.0024;
549.6000;0.1652;1.0024;
549.9000;0.1661;1.0000;
550.2000;0.1652;0.9977;
550.5000;0.1652;1.0000;
550.8000;0.1661;1.0024;
551.1000;0.1669;0.9929;
551.4000;0.1628;0.9882;
551.7000;0.1669;0.9953;
552.0000;0.1652;0.9953;
552.3000;0.1628;0.9953;
552.6000;0.1636;0.9929;
552.9000;0.1644;1.0024;
553.2000;0.1636;1.0000;
553.5000;0.1636;0.9977;
553.8000;0.1644;0.9882;
554.1000;0.1612;0.9811;
554.4000;0.1636;1.0000;
554.7000;0.1636;1.0048;
555.0000;0.1612;1.0000;
555.3000;0.1652;1.0000;
555.6000;0.1636;1.0000;
555.9000;0.1636;1.0048;
556.2000;0.1628;0.9977;
556.5000;0.1636;0.9929;
556.8000;0.1620;0.9882;
557.1000;0.1636;0.9977;
557.4000;0.1644;0.9977;
557.7000;0.1636;0.9906;
558.0000;0.1636;0.9906;
558.3000;0.1685;0.9977;
558.6000;0.1644;0.9882;
558.9000;0.1620;0.9811;
559.2000;0.1636;0.9882;
559.5000;0.1628;0.9858;
559.8000;0.1636;1.0000;
560.1000;0.1620;0.9977;
560.4000;0.1636;0.9953;
560.7000;0.1628;0.9977;
561.0000;0.1661;1.0071;
561.3000;0.1644;1.0071;
561.6000;0.1636;1.0119;
561.9000;0.1612;1.0024;
562.2000;0.1636;1.0095;
562.5000;0.1612;1.0071;
562.8000;0.1644;1.0071;
563.1000;0.1636;0.9929;
563.4000;0.1620;0.9858;
563.7000;0.1636;0.9882;
564.0000;0.1644;0.9882;
564.3000;0.1636;0.9929;
564.6000;0.1652;0.9953;
564.9000;0.1636;0.9953;
565.2000;0.1628;0.9929;
565.5000;0.1620;0.9882;
565.8000;0.1636;0.9929;
566.1000;0.1644;0.9882;
566.4000;0.1628;0.9882;
566.7000;0.1644;0.9882;
567.0000;0.1628;0.9882;
567.3000;0.1620;0.9953;
567.6000;0.1644;0.9977;
567.9000;0.1661;1.0000;
568.2000;0.1636;0.9858;
568.5000;0.1636;0.9834;
568.8000;0.1644;0.9906;
569.1000;0.1628;0.9977;
569.4000;0.1604;0.9953;
569.7000;0.1677;1.0143;
570.0000;0.1636;1.0071;
570.3000;0.1644;1.0119;
570.6000;0.1628;1.0024;
570.9000;0.1652;1.0095;
571.2000;0.1652;1.0143;
571.5000;0.1636;1.0143;
571.8000;0.1652;1.0024;
572.1000;0.1669;0.9953;
572.4000;0.1644;0.9929;
572.7000;0.1628;0.9929;
573.0000;0.1628;0.9929;
573.3000;0.1636;0.9906;
573.6000;0.1636;0.9953;
573.9000;0.1644;0.9929;
574.2000;0.1669;0.9953;
574.5000;0.1628;0.9906;
574.8000;0.1644;0.9953;
575.1000;0.1604;0.9811;
575.4000;0.1636;0.9977;
575.7000;0.1636;0.9929;
576.0000;0.1628;0.9906;
576.3000;0.1636;0.9882;
576.6000;0.1661;0.9977;
576.9000;0.1644;0.9953;
577.2000;0.1612;0.9858;
577.5000;0.1620;0.9834;
577.8000;0.1644;0.9834;
578.1000;0.1628;0.9787;
578.4000;0.1628;0.9811;
578.7000;0.1620;0.9740;
579.0000;0.1661;0.9787;
579.3000;0.1628;0.9716;
579.6000;0.1620;0.9763;
579.9000;0.1620;0.9645;
580.2000;0.1620;0.9716;
580.5000;0.1579;0.9645;
580.8000;0.1612;0.9811;
581.1000;0.1628;0.9858;
581.4000;0.1620;0.9787;
581.7000;0.1636;0.9834;
582.0000;0.1620;0.9882;
582.3000;0.1628;0.9882;
582.6000;0.1636;0.9787;
582.9000;0.1644;0.9787;
583.2000;0.1628;0.9787;
583.5000;0.1636;0.9740;
583.8000;0.1620;0.9621;
584.1000;0.1644;0.9669;
584.4000;0.1644;0.9692;
584.7000;0.1636;0.9621;
585.0000;0.1612;0.9597;
585.3000;0.1644;0.9621;
585.6000;0.1644;0.9716;
585.9000;0.1628;0.9740;
586.2000;0.1628;0.9763;
586.5000;0.1604;0.9763;
586.8000;0.1636;0.9906;
587.1000;0.1620;1.0000;
587.4000;0.1628;0.9953;
587.7000;0.1661;1.0095;
588.0000;0.1661;1.0190;
588.3000;0.1628;1.0190;
588.6000;0.1620;1.0166;
588.9000;0.1677;1.0237;
589.2000;0.1693;1.0237;
589.5000;0.1628;1.0095;
589.8000;0.1644;1.0119;
590.1000;0.1636;1.0143;
590.4000;0.1612;0.9977;
590.7000;0.1677;1.0119;
591.0000;0.1644;1.0095;
591.3000;0.1636;1.0071;
591.6000;0.1644;1.0095;
591.9000;0.1628;1.0048;
592.2000;0.1644;0.9977;
592.5000;0.1652;0.9953;
592.8000;0.1628;0.9882;
593.1000;0.1628;0.9953;
593.4000;0.1628;1.0071;
593.7000;0.1628;1.0119;
594.0000;0.1644;1.0143;
594.3000;0.1636;1.0095;
594.6000;0.1612;1.0095;
594.9000;0.1579;0.9906;
595.2000;0.1612;0.9953;
595.5000;0.1595;0.9906;
595.8000;0.1595;0.9834;
596.1000;0.1587;0.9740;
596.4000;0.1636;0.9811;
596.7000;0.1587;0.9692;
597.0000;0.1636;0.9787;
597.3000;0.1628;0.9882;
597.6000;0.1628;0.9929;
597.9000;0.1628;0.9906;
598.2000;0.1636;1.0024;
598.5000;0.1628;1.0024;
598.8000;0.1612;0.9977;
599.1000;0.1571;0.9906;
599.4000;0.1685;1.0166;
599.7000;0.1644;1.0071;
600.0000;0.1693;1.0190;
600.3000;0.1612;0.9882;
600.6000;0.1595;0.9882;
600.9000;0.1612;0.9858;
601.2000;0.1555;0.9645;
601.5000;0.1612;0.9692;
601.8000;0.1587;0.9597;
602.1000;0.1571;0.9526;
602.4000;0.1579;0.9550;
602.7000;0.1563;0.9361;
603.0000;0.1522;0.9147;
603.3000;0.1571;0.9218;
603.6000;0.1538;0.9052;
603.9000;0.1530;0.8934;
604.2000;0.1530;0.8958;
604.5000;0.1522;0.8910;
604.8000;0.1498;0.8863;
605.1000;0.1506;0.8863;
605.4000;0.1490;0.8792;
605.7000;0.1530;0.8958;
606.0000;0.1481;0.8839;
606.3000;0.1481;0.8768;
606.6000;0.1473;0.8768;
606.9000;0.1473;0.8744;
607.2000;0.1473;0.8626;
607.5000;0.1457;0.8673;
607.8000;0.1465;0.8673;
608.1000;0.1449;0.8602;
608.4000;0.1465;0.8650;
608.7000;0.1465;0.8744;
609.0000;0.1449;0.8768;
609.3000;0.1449;0.8744;
609.6000;0.1441;0.8650;
609.9000;0.1441;0.8744;
610.2000;0.1441;0.8721;
610.5000;0.1425;0.8721;
610.8000;0.1416;0.8650;
611.1000;0.1433;0.8579;
611.4000;0.1457;0.8602;
611.7000;0.1441;0.8579;
612.0000;0.1408;0.8365;
612.3000;0.1425;0.8389;
612.6000;0.1433;0.8413;
612.9000;0.1425;0.8365;
613.2000;0.1408;0.8342;
613.5000;0.1392;0.8294;
613.8000;0.1392;0.8342;
614.1000;0.1400;0.8389;
614.4000;0.1400;0.8365;
614.7000;0.1441;0.8507;
615.0000;0.1384;0.8342;
615.3000;0.1400;0.8318;
615.6000;0.1392;0.8223;
615.9000;0.1392;0.8294;
616.2000;0.1376;0.8342;
616.5000;0.1392;0.8413;
616.8000;0.1384;0.8436;
617.1000;0.1368;0.8413;
617.4000;0.1376;0.8413;
617.7000;0.1384;0.8436;
618.0000;0.1384;0.8413;
618.3000;0.1376;0.8413;
618.6000;0.1384;0.8342;
618.9000;0.1368;0.8176;
619.2000;0.1368;0.8152;
619.5000;0.1351;0.8105;
619.8000;0.1359;0.8176;
620.1000;0.1359;0.8247;
620.4000;0.1351;0.8294;
620.7000;0.1359;0.8342;
621.0000;0.1392;0.8484;
621.3000;0.1343;0.8436;
621.6000;0.1368;0.8507;
621.9000;0.1359;0.8507;
622.2000;0.1343;0.8507;
622.5000;0.1343;0.8555;
622.8000;0.1327;0.8531;
623.1000;0.1327;0.8507;
623.4000;0.1335;0.8507;
623.7000;0.1335;0.8507;
624.0000;0.1343;0.8484;
624.3000;0.1343;0.8484;
624.6000;0.1319;0.8436;
624.9000;0.1343;0.8365;
625.2000;0.1302;0.8318;
625.5000;0.1335;0.8436;
625.8000;0.1311;0.8389;
626.1000;0.1335;0.8436;
626.4000;0.1319;0.8389;
626.7000;0.1327;0.8413;
627.0000;0.1359;0.8460;
627.3000;0.1335;0.8436;
627.6000;0.1311;0.8436;
627.9000;0.1327;0.8436;
628.2000;0.1319;0.8270;
628.5000;0.1319;0.8199;
628.8000;0.1335;0.8176;
629.1000;0.1278;0.8057;
629.4000;0.1319;0.8176;
629.7000;0.1319;0.8247;
630.0000;0.1319;0.8342;
630.3000;0.1311;0.8389;
630.6000;0.1311;0.8436;
630.9000;0.1302;0.8460;
631.2000;0.1343;0.8650;
631.5000;0.1311;0.8555;
631.8000;0.1302;0.8531;
632.1000;0.1319;0.8579;
632.4000;0.1311;0.8460;
632.7000;0.1270;0.8270;
633.0000;0.1302;0.8270;
633.3000;0.1278;0.8176;
633.6000;0.1286;0.8294;
633.9000;0.1319;0.8365;
634.2000;0.1262;0.8294;
634.5000;0.1311;0.8365;
634.8000;0.1302;0.8389;
635.1000;0.1278;0.8318;
635.4000;0.1294;0.8436;
635.7000;0.1254;0.8342;
636.0000;0.1286;0.8413;
636.3000;0.1311;0.8531;
636.6000;0.1294;0.8507;
636.9000;0.1286;0.8507;
637.2000;0.1270;0.8555;
637.5000;0.1262;0.8484;
637.8000;0.1262;0.8413;
638.1000;0.1278;0.8342;
638.4000;0.1278;0.8365;
638.7000;0.1270;0.8318;
639.0000;0.1278;0.8389;
639.3000;0.1286;0.8342;
639.6000;0.1270;0.8389;
639.9000;0.1278;0.8389;
640.2000;0.1278;0.8389;
640.5000;0.1278;0.8436;
640.8000;0.1278;0.8460;
641.1000;0.1286;0.8555;
641.4000;0.1286;0.8531;
641.7000;0.1262;0.8531;
642.0000;0.1270;0.8579;
642.3000;0.1254;0.8555;
642.6000;0.1221;0.8460;
642.9000;0.1270;0.8602;
643.2000;0.1262;0.8579;
643.5000;0.1270;0.8626;
643.8000;0.1229;0.8531;
644.1000;0.1270;0.8555;
644.4000;0.1270;0.8531;
644.7000;0.1213;0.8365;
645.0000;0.1262;0.8484;
645.3000;0.1270;0.8531;
645.6000;0.1254;0.8436;
645.9000;0.1245;0.8389;
646.2000;0.1262;0.8484;
646.5000;0.1262;0.8436;
646.8000;0.1262;0.8389;
647.1000;0.1270;0.8460;
647.4000;0.1254;0.8531;
647.7000;0.1262;0.8555;
648.0000;0.1237;0.8460;
648.3000;0.1254;0.8579;
648.6000;0.1237;0.8555;
648.9000;0.1229;0.8436;
649.2000;0.1270;0.8579;
649.5000;0.1245;0.8507;
649.8000;0.1229;0.8413;
650.1000;0.1229;0.8389;
650.4000;0.1237;0.8389;
650.7000;0.1229;0.8389;
651.0000;0.1229;0.8365;
651.3000;0.1229;0.8318;
651.6000;0.1245;0.8270;
651.9000;0.1245;0.8294;
652.2000;0.1262;0.8365;
652.5000;0.1254;0.8389;
652.8000;0.1270;0.8484;
653.1000;0.1245;0.8413;
653.4000;0.1245;0.8318;
653.7000;0.1262;0.8318;
654.0000;0.1229;0.8270;
654.3000;0.1237;0.8223;
654.6000;0.1245;0.8199;
654.9000;0.1237;0.8223;
655.2000;0.1237;0.8270;
655.5000;0.1270;0.8318;
655.8000;0.1278;0.8342;
656.1000;0.1262;0.8365;
656.4000;0.1245;0.8270;
656.7000;0.1229;0.8199;
657.0000;0.1245;0.8270;
657.3000;0.1229;0.8128;
657.6000;0.1229;0.8128;
657.9000;0.1286;0.8318;
658.2000;0.1245;0.8199;
658.5000;0.1229;0.8270;
658.8000;0.1237;0.8176;
659.1000;0.1237;0.8105;
659.4000;0.1229;0.8176;
659.7000;0.1140;0.7962;
660.0000;0.1205;0.8105;
660.3000;0.1229;0.8247;
660.6000;0.1237;0.8247;
660.9000;0.1221;0.8199;
661.2000;0.1237;0.8294;
661.5000;0.1254;0.8389;
661.8000;0.1213;0.8413;
662.1000;0.1229;0.8579;
662.4000;0.1229;0.8602;
662.7000;0.1221;0.8579;
663.0000;0.1229;0.8579;
663.3000;0.1237;0.8602;
663.6000;0.1237;0.8555;
663.9000;0.1221;0.8531;
664.2000;0.1205;0.8507;
664.5000;0.1221;0.8555;
664.8000;0.1213;0.8507;
665.1000;0.1229;0.8555;
665.4000;0.1237;0.8602;
665.7000;0.1213;0.8555;
666.0000;0.1213;0.8507;
666.3000;0.1229;0.8460;
666.6000;0.1221;0.8413;
666.9000;0.1229;0.8365;
667.2000;0.1188;0.8342;
667.5000;0.1213;0.8460;
667.8000;0.1221;0.8484;
668.1000;0.1205;0.8318;
668.4000;0.1237;0.8342;
668.7000;0.1205;0.8365;
669.0000;0.1302;0.8555;
669.3000;0.1237;0.8365;
669.6000;0.1245;0.8413;
669.9000;0.1221;0.8342;
670.2000;0.1213;0.8389;
670.5000;0.1213;0.8342;
670.8000;0.1205;0.8318;
671.1000;0.1188;0.8247;
671.4000;0.1205;0.8318;
671.7000;0.1213;0.8365;
672.0000;0.1205;0.8413;
672.3000;0.1213;0.8389;
672.6000;0.1213;0.8318;
672.9000;0.1213;0.8318;
673.2000;0.1270;0.8413;
673.5000;0.1188;0.8199;
673.8000;0.1213;0.8247;
674.1000;0.1213;0.8247;
674.4000;0.1237;0.8294;
674.7000;0.1213;0.8223;
675.0000;0.1180;0.8057;
675.3000;0.1205;0.8105;
675.6000;0.1180;0.7986;
675.9000;0.1188;0.8033;
676.2000;0.1221;0.8152;
676.5000;0.1205;0.8199;
676.8000;0.1237;0.8176;
677.1000;0.1213;0.8152;
677.4000;0.1148;0.8033;
677.7000;0.1221;0.8199;
678.0000;0.1188;0.8223;
678.3000;0.1180;0.8223;
678.6000;0.1221;0.8318;
678.9000;0.1205;0.8318;
679.2000;0.1229;0.8342;
679.5000;0.1188;0.8294;
679.8000;0.1205;0.8342;
680.1000;0.1213;0.8294;
680.4000;0.1205;0.8247;
680.7000;0.1188;0.8152;
681.0000;0.1172;0.8057;
681.3000;0.1180;0.8223;
681.6000;0.1197;0.8270;
681.9000;0.1205;0.8294;
682.2000;0.1197;0.8270;
682.5000;0.1262;0.8460;
682.8000;0.1188;0.8389;
683.1000;0.1188;0.8413;
683.4000;0.1180;0.8460;
683.7000;0.1197;0.8484;
684.0000;0.1205;0.8460;
684.3000;0.1221;0.8436;
684.6000;0.1197;0.8413;
684.9000;0.1164;0.8413;
685.2000;0.1205;0.8413;
685.5000;0.1197;0.8342;
685.8000;0.1197;0.8223;
686.1000;0.1205;0.8247;
686.4000;0.1188;0.8270;
686.7000;0.1188;0.8128;
687.0000;0.1197;0.8223;
687.3000;0.1188;0.8270;
687.6000;0.1188;0.8223;
687.9000;0.1188;0.8342;
688.2000;0.1286;0.8602;
688.5000;0.1188;0.8294;
688.8000;0.1188;0.8294;
689.1000;0.1188;0.8294;
689.4000;0.1180;0.8365;
689.7000;0.1164;0.8247;
690.0000;0.1172;0.8223;
690.3000;0.1164;0.8199;
690.6000;0.1197;0.8247;
690.9000;0.1205;0.8152;
691.2000;0.1197;0.8199;
691.5000;0.1188;0.8294;
691.8000;0.1188;0.8318;
692.1000;0.1197;0.8294;
692.4000;0.1164;0.8270;
692.7000;0.1188;0.8294;
693.0000;0.1156;0.8294;
693.3000;0.1197;0.8294;
693.6000;0.1140;0.8128;
693.9000;0.1205;0.8223;
694.2000;0.1180;0.8010;
694.5000;0.1172;0.7962;
694.8000;0.1180;0.7939;
695.1000;0.1180;0.7915;
695.4000;0.1180;0.8033;
695.7000;0.1188;0.8033;
696.0000;0.1180;0.8057;
696.3000;0.1172;0.8081;
696.6000;0.1245;0.8152;
696.9000;0.1197;0.8081;
697.2000;0.1188;0.8081;
697.5000;0.1164;0.8010;
697.8000;0.1188;0.8176;
698.1000;0.1180;0.8223;
698.4000;0.1180;0.8270;
698.7000;0.1172;0.8318;
699.0000;0.1148;0.8152;
699.3000;0.1180;0.8247;
699.6000;0.1156;0.8176;
699.9000;0.1140;0.8081;
700.2000;0.1197;0.8176;
700.5000;0.1188;0.8152;
700.8000;0.1197;0.8128;
701.1000;0.1180;0.8105;
701.4000;0.1123;0.7939;
701.7000;0.1180;0.8105;
702.0000;0.1188;0.8152;
702.3000;0.1188;0.8223;
702.6000;0.1205;0.8247;
702.9000;0.1180;0.8223;
703.2000;0.1188;0.8294;
703.5000;0.1245;0.8436;
703.8000;0.1123;0.8247;
704.1000;0.1172;0.8413;
704.4000;0.1172;0.8365;
704.7000;0.1221;0.8460;
705.0000;0.1164;0.8318;
705.3000;0.1172;0.8342;
705.6000;0.1180;0.8318;
705.9000;0.1188;0.8223;
706.2000;0.1221;0.8294;
706.5000;0.1172;0.8176;
706.8000;0.1172;0.8223;
707.1000;0.1164;0.8247;
707.4000;0.1172;0.8247;
707.7000;0.1164;0.8318;
708.0000;0.1180;0.8413;
708.3000;0.1172;0.8389;
708.6000;0.1205;0.8389;
708.9000;0.1188;0.8389;
709.2000;0.1188;0.8342;
709.5000;0.1188;0.8342;
709.8000;0.1254;0.8531;
710.1000;0.1197;0.8389;
710.4000;0.1197;0.8318;
710.7000;0.1180;0.8342;
711.0000;0.1180;0.8318;
711.3000;0.1188;0.8247;
711.6000;0.1188;0.8342;
711.9000;0.1188;0.8318;
712.2000;0.1197;0.8365;
712.5000;0.1197;0.8389;
712.8000;0.1131;0.8176;
713.1000;0.1156;0.8176;
713.4000;0.1164;0.8057;
713.7000;0.1172;0.8057;
714.0000;0.1164;0.8199;
714.3000;0.1172;0.8223;
714.6000;0.1156;0.8152;
714.9000;0.1172;0.8152;
715.2000;0.1172;0.8152;
715.5000;0.1180;0.8057;
715.8000;0.1083;0.7868;
716.1000;0.1156;0.8128;
716.4000;0.1164;0.8199;
716.7000;0.1180;0.8128;
717.0000;0.1164;0.8176;
717.3000;0.1156;0.8247;
717.6000;0.1131;0.8176;
717.9000;0.1164;0.8294;
718.2000;0.1115;0.8152;
718.5000;0.1115;0.8152;
718.8000;0.1164;0.8223;
719.1000;0.1172;0.8247;
719.4000;0.1123;0.8176;
719.7000;0.1164;0.8342;
720.0000;0.1197;0.8413;
720.3000;0.1188;0.8413;
720.6000;0.1237;0.8531;
720.9000;0.1172;0.8365;
721.2000;0.1148;0.8294;
721.5000;0.1164;0.8342;
721.8000;0.1180;0.8389;
722.1000;0.1172;0.8413;
722.4000;0.1148;0.8318;
722.7000;0.1164;0.8389;
723.0000;0.1115;0.8223;
723.3000;0.1180;0.8342;
723.6000;0.1156;0.8365;
723.9000;0.1164;0.8413;
724.2000;0.1140;0.8342;
724.5000;0.1172;0.8413;
724.8000;0.1156;0.8270;
725.1000;0.1172;0.8318;
725.4000;0.1197;0.8460;
725.7000;0.1164;0.8484;
726.0000;0.1188;0.8555;
726.3000;0.1164;0.8626;
726.6000;0.1180;0.8673;
726.9000;0.1213;0.8626;
727.2000;0.1172;0.8507;
727.5000;0.1172;0.8436;
727.8000;0.1172;0.8413;
728.1000;0.1156;0.8389;
728.4000;0.1172;0.8389;
728.7000;0.1197;0.8555;
729.0000;0.1180;0.8555;
729.3000;0.1172;0.8555;
729.6000;0.1188;0.8555;
729.9000;0.1156;0.8436;
730.2000;0.1156;0.8507;
730.5000;0.1164;0.8579;
730.8000;0.1172;0.8673;
731.1000;0.1164;0.8650;
731.4000;0.1148;0.8626;
731.7000;0.1180;0.8626;
732.0000;0.1156;0.8555;
732.3000;0.1156;0.8602;
732.6000;0.1156;0.8626;
732.9000;0.1164;0.8673;
733.2000;0.1188;0.8768;
733.5000;0.1164;0.8721;
733.8000;0.1148;0.8650;
734.1000;0.1156;0.8626;
734.4000;0.1107;0.8436;
734.7000;0.1131;0.8436;
735.0000;0.1148;0.8436;
735.3000;0.1254;0.8650;
735.6000;0.1180;0.8484;
735.9000;0.1180;0.8365;
736.2000;0.1115;0.8342;
736.5000;0.1172;0.8484;
736.8000;0.1131;0.8413;
737.1000;0.1156;0.8555;
737.4000;0.1156;0.8531;
737.7000;0.1140;0.8460;
738.0000;0.1229;0.8673;
738.3000;0.1254;0.8626;
738.6000;0.1083;0.8247;
738.9000;0.1180;0.8460;
739.2000;0.1131;0.8365;
739.5000;0.1172;0.8436;
739.8000;0.1180;0.8436;
740.1000;0.1156;0.8342;
740.4000;0.1164;0.8484;
740.7000;0.1164;0.8484;
741.0000;0.1172;0.8579;
741.3000;0.1148;0.8460;
741.6000;0.1188;0.8602;
741.9000;0.1148;0.8507;
742.2000;0.1164;0.8579;
742.5000;0.1172;0.8602;
742.8000;0.1172;0.8484;
743.1000;0.1140;0.8413;
743.4000;0.1164;0.8484;
743.7000;0.1156;0.8507;
744.0000;0.1148;0.8579;
744.3000;0.1140;0.8531;
744.6000;0.1148;0.8507;
744.9000;0.1156;0.8555;
745.2000;0.1188;0.8626;
745.5000;0.1156;0.8484;
745.8000;0.1148;0.8484;
746.1000;0.1156;0.8413;
746.4000;0.1099;0.8318;
746.7000;0.1156;0.8531;
747.0000;0.1156;0.8555;
747.3000;0.1156;0.8484;
747.6000;0.1164;0.8507;
747.9000;0.1140;0.8413;
748.2000;0.1164;0.8460;
748.5000;0.1156;0.8389;
748.8000;0.1148;0.8389;
749.1000;0.1164;0.8365;
749.4000;0.1156;0.8389;
749.7000;0.1148;0.8413;
750.0000;0.1156;0.8460;
750.3000;0.1156;0.8413;
750.6000;0.1156;0.8342;
750.9000;0.1164;0.8389;
751.2000;0.1156;0.8365;
751.5000;0.1164;0.8365;
751.8000;0.1172;0.8318;
752.1000;0.1148;0.8365;
752.4000;0.1131;0.8342;
752.7000;0.1099;0.8176;
753.0000;0.1148;0.8318;
753.3000;0.1180;0.8460;
753.6000;0.1148;0.8413;
753.9000;0.1148;0.8389;
754.2000;0.1131;0.8389;
754.5000;0.1156;0.8460;
754.8000;0.1188;0.8650;
755.1000;0.1172;0.8507;
755.4000;0.1237;0.8697;
755.7000;0.1140;0.8460;
756.0000;0.1140;0.8531;
756.3000;0.1172;0.8555;
756.6000;0.1156;0.8413;
756.9000;0.1131;0.8389;
757.2000;0.1148;0.8413;
757.5000;0.1156;0.8555;
757.8000;0.1164;0.8579;
758.1000;0.1156;0.8555;
758.4000;0.1131;0.8507;
758.7000;0.1148;0.8507;
759.0000;0.1140;0.8460;
759.3000;0.1180;0.8555;
759.6000;0.1148;0.8484;
759.9000;0.1172;0.8555;
760.2000;0.1148;0.8507;
760.5000;0.1156;0.8507;
760.8000;0.1107;0.8436;
761.1000;0.1107;0.8436;
761.4000;0.1148;0.8579;
761.7000;0.1148;0.8744;
762.0000;0.1140;0.8768;
762.3000;0.1148;0.8815;
762.6000;0.1156;0.8815;
762.9000;0.1131;0.8768;
763.2000;0.1140;0.8792;
763.5000;0.1172;0.8792;
763.8000;0.1156;0.8721;
764.1000;0.1140;0.8650;
764.4000;0.1148;0.8579;
764.7000;0.1164;0.8555;
765.0000;0.1140;0.8507;
765.3000;0.1156;0.8460;
765.6000;0.1148;0.8484;
765.9000;0.1172;0.8531;
766.2000;0.1148;0.8531;
766.5000;0.1123;0.8531;
766.8000;0.1131;0.8484;
767.1000;0.1140;0.8484;
767.4000;0.1164;0.8531;
767.7000;0.1140;0.8436;
768.0000;0.1164;0.8507;
768.3000;0.1172;0.8555;
768.6000;0.1156;0.8555;
768.9000;0.1115;0.8389;
769.2000;0.1156;0.8436;
769.5000;0.1164;0.8460;
769.8000;0.1148;0.8507;
770.1000;0.1156;0.8555;
770.4000;0.1148;0.8460;
770.7000;0.1140;0.8436;
771.0000;0.1148;0.8484;
771.3000;0.1156;0.8507;
771.6000;0.1148;0.8436;
771.9000;0.1107;0.8365;
772.2000;0.1188;0.8602;
772.5000;0.1131;0.8555;
772.8000;0.1140;0.8531;
773.1000;0.1131;0.8531;
773.4000;0.1131;0.8579;
773.7000;0.1148;0.8484;
774.0000;0.1148;0.8389;
774.3000;0.1148;0.8270;
774.6000;0.1148;0.8223;
774.9000;0.1123;0.8199;
775.2000;0.1156;0.8294;
775.5000;0.1148;0.8342;
775.8000;0.1148;0.8318;
776.1000;0.1156;0.8365;
776.4000;0.1172;0.8389;
776.7000;0.1197;0.8413;
777.0000;0.1156;0.8342;
777.3000;0.1164;0.8436;
777.6000;0.1156;0.8413;
777.9000;0.1164;0.8436;
778.2000;0.1140;0.8413;
778.5000;0.1156;0.8365;
778.8000;0.1148;0.8365;
779.1000;0.1140;0.8365;
779.4000;0.1148;0.8484;
779.7000;0.1148;0.8484;
780.0000;0.1140;0.8413;
780.3000;0.1148;0.8484;
780.6000;0.1123;0.8507;
780.9000;0.1131;0.8484;
781.2000;0.1148;0.8507;
781.5000;0.1148;0.8436;
781.8000;0.1148;0.8460;
782.1000;0.1131;0.8436;
782.4000;0.1131;0.8389;
782.7000;0.1140;0.8365;
783.0000;0.1140;0.8413;
783.3000;0.1123;0.8413;
783.6000;0.1131;0.8507;
783.9000;0.1156;0.8626;
784.2000;0.1131;0.8602;
784.5000;0.1131;0.8507;
784.8000;0.1123;0.8507;
785.1000;0.1131;0.8579;
785.4000;0.1172;0.8697;
785.7000;0.1131;0.8602;
786.0000;0.1123;0.8555;
786.3000;0.1156;0.8531;
786.6000;0.1156;0.8413;
786.9000;0.1148;0.8365;
787.2000;0.1131;0.8389;
787.5000;0.1131;0.8413;
787.8000;0.1131;0.8413;
788.1000;0.1140;0.8531;
788.4000;0.1107;0.8484;
788.7000;0.1140;0.8484;
789.0000;0.1140;0.8389;
789.3000;0.1148;0.8413;
789.6000;0.1115;0.8389;
789.9000;0.1107;0.8342;
790.2000;0.1148;0.8460;
790.5000;0.1180;0.8579;
790.8000;0.1148;0.8436;
791.1000;0.1131;0.8389;
791.4000;0.1148;0.8460;
791.7000;0.1148;0.8460;
792.0000;0.1172;0.8507;
792.3000;0.1148;0.8413;
792.6000;0.1123;0.8389;
792.9000;0.1140;0.8484;
793.2000;0.1148;0.8460;
793.5000;0.1156;0.8436;
793.8000;0.1123;0.8365;
794.1000;0.1083;0.8294;
794.4000;0.1131;0.8389;
794.7000;0.1123;0.8436;
795.0000;0.1140;0.8484;
795.3000;0.1140;0.8484;
795.6000;0.1164;0.8555;
795.9000;0.1140;0.8507;
796.2000;0.1148;0.8579;
796.5000;0.1131;0.8626;
796.8000;0.1107;0.8697;
797.1000;0.1140;0.8697;
797.4000;0.1172;0.8721;
797.7000;0.1123;0.8650;
798.0000;0.1140;0.8673;
798.3000;0.1115;0.8626;
798.6000;0.1140;0.8626;
798.9000;0.1148;0.8744;
799.2000;0.1131;0.8697;
799.5000;0.1131;0.8744;
799.8000;0.1123;0.8744;
800.1000;0.1140;0.8721;
800.4000;0.1131;0.8626;
800.7000;0.1123;0.8673;
801.0000;0.1148;0.8697;
801.3000;0.1115;0.8555;
801.6000;0.1140;0.8673;
801.9000;0.1148;0.8650;
802.2000;0.1156;0.8697;
802.5000;0.1188;0.8768;
802.8000;0.1148;0.8626;
803.1000;0.1140;0.8602;
803.4000;0.1140;0.8555;
803.7000;0.1148;0.8531;
804.0000;0.1140;0.8436;
804.3000;0.1140;0.8389;
804.6000;0.1148;0.8436;
804.9000;0.1115;0.8318;
805.2000;0.1131;0.8365;
805.5000;0.1148;0.8389;
805.8000;0.1131;0.8436;
806.1000;0.1180;0.8673;
806.4000;0.1131;0.8555;
806.7000;0.1107;0.8484;
807.0000;0.1156;0.8626;
807.3000;0.1123;0.8460;
807.6000;0.1148;0.8531;
807.9000;0.1123;0.8460;
808.2000;0.1131;0.8436;
808.5000;0.1156;0.8460;
808.8000;0.1156;0.8389;
809.1000;0.1148;0.8342;
809.4000;0.1164;0.8365;
809.7000;0.1099;0.8247;
810.0000;0.1172;0.8413;
810.3000;0.1164;0.8460;
810.6000;0.1140;0.8389;
810.9000;0.1164;0.8389;
811.2000;0.1140;0.8365;
811.5000;0.1131;0.8342;
811.8000;0.1131;0.8342;
812.1000;0.1156;0.8389;
812.4000;0.1140;0.8389;
812.7000;0.1123;0.8460;
813.0000;0.1123;0.8531;
813.3000;0.1131;0.8507;
813.6000;0.1140;0.8507;
813.9000;0.1148;0.8389;
814.2000;0.1148;0.8389;
814.5000;0.1172;0.8342;
814.8000;0.1164;0.8342;
815.1000;0.1148;0.8389;
815.4000;0.1172;0.8436;
815.7000;0.1115;0.8342;
816.0000;0.1140;0.8389;
816.3000;0.1140;0.8389;
816.6000;0.1148;0.8460;
816.9000;0.1148;0.8460;
817.2000;0.1148;0.8555;
817.5000;0.1140;0.8507;
817.8000;0.1083;0.8294;
818.1000;0.1156;0.8460;
818.4000;0.1123;0.8436;
818.7000;0.1148;0.8555;
819.0000;0.1172;0.8650;
819.3000;0.1156;0.8555;
819.6000;0.1107;0.8484;
819.9000;0.1164;0.8579;
820.2000;0.1140;0.8531;
820.5000;0.1131;0.8531;
820.8000;0.1140;0.8602;
821.1000;0.1148;0.8650;
821.4000;0.1140;0.8579;
821.7000;0.1148;0.8673;
822.0000;0.1140;0.8602;
822.3000;0.1148;0.8555;
822.6000;0.1156;0.8579;
822.9000;0.1148;0.8555;
823.2000;0.1140;0.8531;
823.5000;0.1123;0.8484;
823.8000;0.1123;0.8507;
824.1000;0.1123;0.8484;
824.4000;0.1123;0.8484;
824.7000;0.1140;0.8531;
825.0000;0.1156;0.8626;
825.3000;0.1148;0.8531;
825.6000;0.1229;0.8815;
825.9000;0.1099;0.8531;
826.2000;0.1123;0.8484;
826.5000;0.1131;0.8460;
826.8000;0.1099;0.8460;
827.1000;0.1107;0.8602;
827.4000;0.1115;0.8626;
827.7000;0.1107;0.8626;
828.0000;0.1140;0.8602;
828.3000;0.1131;0.8626;
828.6000;0.1115;0.8602;
828.9000;0.1131;0.8650;
829.2000;0.1140;0.8650;
829.5000;0.1148;0.8602;
829.8000;0.1099;0.8602;
830.1000;0.1140;0.8697;
830.4000;0.1140;0.8602;
830.7000;0.1213;0.8815;
831.0000;0.1091;0.8507;
831.3000;0.1099;0.8484;
831.6000;0.1091;0.8507;
831.9000;0.1123;0.8626;
832.2000;0.1197;0.8768;
832.5000;0.1123;0.8579;
832.8000;0.1180;0.8768;
833.1000;0.1180;0.8697;
833.4000;0.1197;0.8697;
833.7000;0.1140;0.8602;
834.0000;0.1197;0.8768;
834.3000;0.1156;0.8673;
834.6000;0.1131;0.8626;
834.9000;0.1131;0.8531;
835.2000;0.1107;0.8507;
835.5000;0.1131;0.8460;
835.8000;0.1140;0.8460;
836.1000;0.1140;0.8507;
836.4000;0.1172;0.8602;
836.7000;0.1123;0.8531;
837.0000;0.1131;0.8555;
837.3000;0.1140;0.8579;
837.6000;0.1148;0.8555;
837.9000;0.1123;0.8460;
838.2000;0.1131;0.8507;
838.5000;0.1164;0.8626;
838.8000;0.1123;0.8484;
839.1000;0.1123;0.8460;
839.4000;0.1115;0.8555;
839.7000;0.1140;0.8602;
840.0000;0.1131;0.8531;
840.3000;0.1140;0.8460;
840.6000;0.1131;0.8460;
840.9000;0.1148;0.8460;
841.2000;0.1148;0.8507;
841.5000;0.1148;0.8507;
841.8000;0.1148;0.8579;
842.1000;0.1148;0.8650;
842.4000;0.1140;0.8697;
842.7000;0.1115;0.8626;
843.0000;0.1115;0.8579;
843.3000;0.1123;0.8602;
843.6000;0.1156;0.8650;
843.9000;0.1140;0.8626;
844.2000;0.1115;0.8555;
844.5000;0.1140;0.8579;
844.8000;0.1164;0.8555;
845.1000;0.1140;0.8484;
845.4000;0.1131;0.8460;
845.7000;0.1131;0.8555;
846.0000;0.1131;0.8579;
846.3000;0.1131;0.8484;
846.6000;0.1131;0.8507;
846.9000;0.1131;0.8531;
847.2000;0.1148;0.8602;
847.5000;0.1115;0.8555;
847.8000;0.1034;0.8365;
848.1000;0.1140;0.8579;
848.4000;0.1131;0.8626;
848.7000;0.1172;0.8792;
849.0000;0.1123;0.8650;
849.3000;0.1107;0.8555;
849.6000;0.1131;0.8602;
849.9000;0.1115;0.8507;
850.2000;0.1115;0.8555;
850.5000;0.1107;0.8484;
850.8000;0.1099;0.8507;
851.1000;0.1123;0.8555;
851.4000;0.1131;0.8436;
851.7000;0.1140;0.8460;
852.0000;0.1131;0.8460;
852.3000;0.1131;0.8436;
852.6000;0.1115;0.8531;
852.9000;0.1115;0.8484;
853.2000;0.1123;0.8436;
853.5000;0.1123;0.8365;
853.8000;0.1140;0.8389;
854.1000;0.1131;0.8413;
854.4000;0.1115;0.8389;
854.7000;0.1140;0.8460;
855.0000;0.1107;0.8413;
855.3000;0.1131;0.8507;
855.6000;0.1083;0.8342;
855.9000;0.1066;0.8318;
856.2000;0.1123;0.8531;
856.5000;0.1156;0.8626;
856.8000;0.1107;0.8436;
857.1000;0.1115;0.8507;
857.4000;0.1131;0.8602;
857.7000;0.1131;0.8531;
858.0000;0.1115;0.8507;
858.3000;0.1115;0.8579;
858.6000;0.1131;0.8602;
858.9000;0.1148;0.8721;
859.2000;0.1099;0.8555;
859.5000;0.1123;0.8626;
859.8000;0.1115;0.8626;
860.1000;0.1140;0.8602;
860.4000;0.1123;0.8626;
860.7000;0.1107;0.8650;
861.0000;0.1123;0.8721;
861.3000;0.1123;0.8650;
861.6000;0.1123;0.8650;
861.9000;0.1123;0.8626;
862.2000;0.1115;0.8579;
862.5000;0.1197;0.8744;
862.8000;0.1131;0.8531;
863.1000;0.1148;0.8555;
863.4000;0.1172;0.8650;
863.7000;0.1148;0.8531;
864.0000;0.1131;0.8531;
864.3000;0.1140;0.8602;
864.6000;0.1123;0.8555;
864.9000;0.1131;0.8555;
865.2000;0.1131;0.8507;
865.5000;0.1148;0.8555;
865.8000;0.1140;0.8602;
866.1000;0.1115;0.8507;
866.4000;0.1123;0.8579;
866.7000;0.1107;0.8626;
867.0000;0.1123;0.8579;
867.3000;0.1107;0.8579;
867.6000;0.1107;0.8602;
867.9000;0.1115;0.8555;
868.2000;0.1140;0.8579;
868.5000;0.1140;0.8626;
868.8000;0.1123;0.8555;
869.1000;0.1140;0.8579;
869.4000;0.1131;0.8507;
869.7000;0.1107;0.8460;
870.0000;0.1123;0.8460;
870.3000;0.1123;0.8436;
870.6000;0.1131;0.8602;
870.9000;0.1107;0.8531;
871.2000;0.1115;0.8579;
871.5000;0.1099;0.8531;
871.8000;0.1123;0.8602;
872.1000;0.1140;0.8602;
872.4000;0.1131;0.8531;
872.7000;0.1123;0.8579;
873.0000;0.1131;0.8579;
873.3000;0.1131;0.8555;
873.6000;0.1131;0.8531;
873.9000;0.1148;0.8602;
874.2000;0.1123;0.8579;
874.5000;0.1123;0.8579;
874.8000;0.1131;0.8531;
875.1000;0.1123;0.8579;
875.4000;0.1140;0.8626;
875.7000;0.1123;0.8602;
876.0000;0.1115;0.8531;
876.3000;0.1148;0.8579;
876.6000;0.1107;0.8436;
876.9000;0.1148;0.8484;
877.2000;0.1123;0.8507;
877.5000;0.1123;0.8507;
877.8000;0.1131;0.8555;
878.1000;0.1131;0.8555;
878.4000;0.1131;0.8507;
878.7000;0.1123;0.8460;
879.0000;0.1213;0.8697;
879.3000;0.1107;0.8460;
879.6000;0.1115;0.8531;
879.9000;0.1115;0.8602;
880.2000;0.1123;0.8768;
880.5000;0.1107;0.8673;
880.8000;0.1107;0.8626;
881.1000;0.1115;0.8673;
881.4000;0.1107;0.8579;
881.7000;0.1115;0.8555;
882.0000;0.1140;0.8555;
882.3000;0.1091;0.8436;
882.6000;0.1115;0.8436;
882.9000;0.1123;0.8389;
883.2000;0.1107;0.8365;
883.5000;0.1131;0.8389;
883.8000;0.1107;0.8365;
884.1000;0.1115;0.8460;
884.4000;0.1099;0.8389;
884.7000;0.1091;0.8342;
885.0000;0.1131;0.8436;
885.3000;0.1115;0.8436;
885.6000;0.1115;0.8507;
885.9000;0.1115;0.8484;
886.2000;0.1131;0.8531;
886.5000;0.1050;0.8294;
886.8000;0.1115;0.8484;
887.1000;0.1107;0.8436;
887.4000;0.1156;0.8507;
887.7000;0.1107;0.8365;
888.0000;0.1058;0.8318;
888.3000;0.1131;0.8460;
888.6000;0.1131;0.8484;
888.9000;0.1115;0.8507;
889.2000;0.1099;0.8484;
889.5000;0.1123;0.8484;
889.8000;0.1140;0.8507;
890.1000;0.1156;0.8555;
890.4000;0.1131;0.8555;
890.7000;0.1140;0.8579;
891.0000;0.1123;0.8673;
891.3000;0.1115;0.8626;
891.6000;0.1140;0.8626;
891.9000;0.1091;0.8507;
892.2000;0.1107;0.8460;
892.5000;0.1131;0.8531;
892.8000;0.1172;0.8673;
893.1000;0.1140;0.8602;
893.4000;0.1123;0.8555;
893.7000;0.1115;0.8531;
894.0000;0.1115;0.8460;
894.3000;0.1091;0.8389;
894.6000;0.1115;0.8365;
894.9000;0.1107;0.8318;
895.2000;0.1099;0.8460;
895.5000;0.1099;0.8460;
895.8000;0.1091;0.8413;
896.1000;0.1115;0.8484;
896.4000;0.1115;0.8460;
896.7000;0.1148;0.8484;
897.0000;0.1123;0.8389;
897.3000;0.1099;0.8294;
897.6000;0.1058;0.8199;
897.9000;0.1115;0.8436;
898.2000;0.1123;0.8531;
898.5000;0.1115;0.8460;
898.8000;0.1123;0.8436;
899.1000;0.1115;0.8413;
899.4000;0.1115;0.8460;
899.7000;0.1123;0.8531;
900.0000;0.1107;0.8531;
900.3000;0.1099;0.8484;
900.6000;0.1107;0.8507;
900.9000;0.1140;0.8579;
901.2000;0.1123;0.8413;
901.5000;0.1156;0.8413;
901.8000;0.1140;0.8413;
902.1000;0.1115;0.8389;
902.4000;0.1123;0.8365;
902.7000;0.1123;0.8342;
903.0000;0.1123;0.8342;
903.3000;0.1115;0.8436;
903.6000;0.1115;0.8460;
903.9000;0.1074;0.8460;
904.2000;0.1123;0.8650;
904.5000;0.1099;0.8650;
904.8000;0.1123;0.8673;
905.1000;0.1115;0.8602;
905.4000;0.1131;0.8721;
905.7000;0.1140;0.8650;
906.0000;0.1099;0.8673;
906.3000;0.1123;0.8673;
906.6000;0.1148;0.8744;
906.9000;0.1156;0.8697;
907.2000;0.1140;0.8650;
907.5000;0.1131;0.8673;
907.8000;0.1140;0.8650;
908.1000;0.1140;0.8650;
908.4000;0.1237;0.8981;
908.7000;0.1140;0.8650;
909.0000;0.1140;0.8626;
909.3000;0.1221;0.8887;
909.6000;0.1140;0.8650;
909.9000;0.1156;0.8602;
910.2000;0.1066;0.8365;
910.5000;0.1115;0.8484;
910.8000;0.1099;0.8531;
911.1000;0.1123;0.8531;
911.4000;0.1156;0.8602;
911.7000;0.1123;0.8555;
912.0000;0.1123;0.8531;
912.3000;0.1115;0.8507;
912.6000;0.1131;0.8484;
912.9000;0.1123;0.8484;
913.2000;0.1083;0.8413;
913.5000;0.1140;0.8531;
913.8000;0.1115;0.8602;
914.1000;0.1123;0.8555;
914.4000;0.1123;0.8579;
914.7000;0.1131;0.8602;
915.0000;0.1115;0.8484;
915.3000;0.1123;0.8484;
915.6000;0.1123;0.8460;
915.9000;0.1115;0.8460;
916.2000;0.1123;0.8436;
916.5000;0.1099;0.8389;
916.8000;0.1099;0.8436;
917.1000;0.1123;0.8413;
917.4000;0.1107;0.8365;
917.7000;0.1123;0.8389;
918.0000;0.1140;0.8460;
918.3000;0.1123;0.8389;
918.6000;0.1140;0.8460;
918.9000;0.1050;0.8318;
919.2000;0.1123;0.8484;
919.5000;0.1131;0.8579;
919.8000;0.1123;0.8626;
920.1000;0.1123;0.8626;
920.4000;0.1107;0.8626;
920.7000;0.1131;0.8673;
921.0000;0.1131;0.8673;
921.3000;0.1123;0.8555;
921.6000;0.1115;0.8531;
921.9000;0.1099;0.8579;
922.2000;0.1115;0.8673;
922.5000;0.1107;0.8721;
922.8000;0.1123;0.8579;
923.1000;0.1131;0.8507;
923.4000;0.1115;0.8484;
923.7000;0.1107;0.8507;
924.0000;0.1140;0.8602;
924.3000;0.1115;0.8650;
924.6000;0.1115;0.8650;
924.9000;0.1083;0.8507;
925.2000;0.1123;0.8579;
925.5000;0.1107;0.8460;
925.8000;0.1123;0.8531;
926.1000;0.1123;0.8484;
926.4000;0.1148;0.8460;
926.7000;0.1140;0.8484;
927.0000;0.1074;0.8365;
927.3000;0.1107;0.8436;
927.6000;0.1131;0.8413;
927.9000;0.1131;0.8413;
928.2000;0.1123;0.8436;
928.5000;0.1131;0.8413;
928.8000;0.1115;0.8365;
929.1000;0.1140;0.8484;
929.4000;0.1123;0.8436;
929.7000;0.1115;0.8507;
930.0000;0.1131;0.8555;
930.3000;0.1148;0.8626;
930.6000;0.1123;0.8531;
930.9000;0.1123;0.8507;
931.2000;0.1131;0.8507;
931.5000;0.1091;0.8436;
931.8000;0.1123;0.8460;
932.1000;0.1091;0.8318;
932.4000;0.1083;0.8318;
932.7000;0.1123;0.8389;
933.0000;0.1115;0.8413;
933.3000;0.1172;0.8484;
933.6000;0.1131;0.8460;
933.9000;0.1107;0.8460;
934.2000;0.1140;0.8507;
934.5000;0.1107;0.8389;
934.8000;0.1115;0.8413;
935.1000;0.1107;0.8484;
935.4000;0.1123;0.8460;
935.7000;0.1123;0.8531;
936.0000;0.1115;0.8507;
936.3000;0.1107;0.8436;
936.6000;0.1140;0.8555;
936.9000;0.1140;0.8531;
937.2000;0.1131;0.8531;
937.5000;0.1115;0.8389;
937.8000;0.1115;0.8365;
938.1000;0.1156;0.8365;
938.4000;0.1131;0.8342;
938.7000;0.1148;0.8365;
939.0000;0.1123;0.8318;
939.3000;0.1115;0.8342;
939.6000;0.1123;0.8389;
939.9000;0.1123;0.8389;
940.2000;0.1131;0.8389;
940.5000;0.1123;0.8460;
940.8000;0.1115;0.8389;
941.1000;0.1083;0.8318;
941.4000;0.1123;0.8413;
941.7000;0.1140;0.8389;
942.0000;0.1123;0.8342;
942.3000;0.1123;0.8365;
942.6000;0.1180;0.8555;
942.9000;0.1115;0.8318;
943.2000;0.1140;0.8365;
943.5000;0.1140;0.8365;
943.8000;0.1123;0.8318;
944.1000;0.1123;0.8318;
944.4000;0.1123;0.8342;
944.7000;0.1131;0.8247;
945.0000;0.1066;0.8176;
945.3000;0.1099;0.8389;
945.6000;0.1115;0.8484;
945.9000;0.1140;0.8531;
946.2000;0.1123;0.8460;
946.5000;0.1115;0.8555;
946.8000;0.1123;0.8555;
947.1000;0.1123;0.8460;
947.4000;0.1107;0.8389;
947.7000;0.1123;0.8436;
948.0000;0.1123;0.8436;
948.3000;0.1107;0.8389;
948.6000;0.1115;0.8436;
948.9000;0.1115;0.8484;
949.2000;0.1123;0.8460;
949.5000;0.1099;0.8484;
949.8000;0.1123;0.8555;
950.1000;0.1018;0.8342;
950.4000;0.1115;0.8626;
950.7000;0.1115;0.8602;
951.0000;0.1107;0.8484;
951.3000;0.1115;0.8602;
951.6000;0.1115;0.8555;
951.9000;0.1123;0.8531;
952.2000;0.1123;0.8507;
952.5000;0.1115;0.8460;
952.8000;0.1140;0.8484;
953.1000;0.1107;0.8413;
953.4000;0.1123;0.8460;
953.7000;0.1131;0.8365;
954.0000;0.1123;0.8365;
954.3000;0.1115;0.8294;
954.6000;0.1123;0.8270;
954.9000;0.1131;0.8270;
955.2000;0.1107;0.8247;
955.5000;0.1107;0.8294;
955.8000;0.1123;0.8318;
956.1000;0.1107;0.8318;
956.4000;0.1188;0.8460;
956.7000;0.1091;0.8270;
957.0000;0.1140;0.8413;
957.3000;0.1123;0.8389;
957.6000;0.1123;0.8365;
957.9000;0.1123;0.8365;
958.2000;0.1107;0.8318;
958.5000;0.1123;0.8389;
958.8000;0.1099;0.8318;
959.1000;0.1107;0.8318;
959.4000;0.1107;0.8318;
959.7000;0.1099;0.8413;
960.0000;0.1099;0.8460;
960.3000;0.1091;0.8436;
960.6000;0.1091;0.8389;
960.9000;0.1099;0.8413;
961.2000;0.1107;0.8413;
961.5000;0.1083;0.8294;
961.8000;0.1083;0.8365;
962.1000;0.1115;0.8389;
962.4000;0.1123;0.8413;
962.7000;0.1074;0.8294;
963.0000;0.1115;0.8318;
963.3000;0.1123;0.8318;
963.6000;0.1156;0.8389;
963.9000;0.1123;0.8436;
964.2000;0.1131;0.8484;
964.5000;0.1074;0.8365;
964.8000;0.1131;0.8579;
965.1000;0.1123;0.8507;
965.4000;0.1123;0.8436;
965.7000;0.1099;0.8389;
966.0000;0.1123;0.8389;
966.3000;0.1123;0.8389;
966.6000;0.1156;0.8555;
966.9000;0.1131;0.8531;
967.2000;0.1123;0.8531;
967.5000;0.1115;0.8602;
967.8000;0.1099;0.8579;
968.1000;0.1099;0.8555;
968.4000;0.1107;0.8484;
968.7000;0.1115;0.8507;
969.0000;0.1123;0.8531;
969.3000;0.1123;0.8507;
969.6000;0.1140;0.8460;
969.9000;0.1115;0.8579;
970.2000;0.1115;0.8673;
970.5000;0.1115;0.8768;
970.8000;0.1115;0.8697;
971.1000;0.1083;0.8697;
971.4000;0.1123;0.8721;
971.7000;0.1107;0.8744;
972.0000;0.1107;0.8744;
972.3000;0.1099;0.8744;
972.6000;0.1099;0.8650;
972.9000;0.1107;0.8602;
973.2000;0.1115;0.8673;
973.5000;0.1091;0.8602;
973.8000;0.1131;0.8673;
974.1000;0.1115;0.8673;
974.4000;0.1123;0.8744;
974.7000;0.1140;0.8744;
975.0000;0.1164;0.8768;
975.3000;0.1123;0.8815;
975.6000;0.1140;0.8744;
975.9000;0.1115;0.8721;
976.2000;0.1115;0.8815;
976.5000;0.1074;0.8721;
976.8000;0.1091;0.8768;
977.1000;0.1140;0.8815;
977.4000;0.1115;0.8768;
977.7000;0.1115;0.8839;
978.0000;0.1131;0.8863;
978.3000;0.1115;0.8839;
978.6000;0.1099;0.8887;
978.9000;0.1066;0.8744;
979.2000;0.1107;0.8815;
979.5000;0.1197;0.9076;
979.8000;0.1123;0.8815;
980.1000;0.1107;0.8815;
980.4000;0.1099;0.8815;
980.7000;0.1107;0.8792;
981.0000;0.1107;0.8744;
981.3000;0.1091;0.8697;
981.6000;0.1164;0.8839;
981.9000;0.1123;0.8744;
982.2000;0.1123;0.8721;
982.5000;0.1156;0.8697;
982.8000;0.1115;0.8650;
983.1000;0.1099;0.8602;
983.4000;0.1107;0.8579;
983.7000;0.1131;0.8673;
984.0000;0.1107;0.8626;
984.3000;0.1091;0.8697;
984.6000;0.1107;0.8697;
984.9000;0.1115;0.8721;
985.2000;0.1091;0.8792;
985.5000;0.1099;0.8815;
985.8000;0.1107;0.8863;
986.1000;0.1123;0.8863;
986.4000;0.1156;0.8934;
986.7000;0.1140;0.8910;
987.0000;0.1115;0.8815;
987.3000;0.1123;0.8887;
987.6000;0.1091;0.8887;
987.9000;0.1107;0.8815;
988.2000;0.1066;0.8697;
988.5000;0.1107;0.8839;
988.8000;0.1115;0.8887;
989.1000;0.1107;0.8887;
989.4000;0.1107;0.8863;
989.7000;0.1115;0.8910;
990.0000;0.1099;0.8744;
990.3000;0.1099;0.8721;
990.6000;0.1140;0.8792;
990.9000;0.1091;0.8673;
991.2000;0.1123;0.8768;
991.5000;0.1115;0.8768;
991.8000;0.1115;0.8768;
992.1000;0.1115;0.8744;
992.4000;0.1115;0.8768;
992.7000;0.1107;0.8673;
993.0000;0.1140;0.8673;
993.3000;0.1115;0.8626;
993.6000;0.1123;0.8697;
993.9000;0.1188;0.8863;
994.2000;0.1099;0.8673;
994.5000;0.1107;0.8792;
994.8000;0.1107;0.8839;
995.1000;0.1123;0.8815;
995.4000;0.1123;0.8839;
995.7000;0.1107;0.8768;
996.0000;0.1115;0.8768;
996.3000;0.1107;0.8768;
996.6000;0.1115;0.8768;
996.9000;0.1131;0.8768;
997.2000;0.1131;0.8768;
997.5000;0.1156;0.8792;
997.8000;0.1115;0.8744;
998.1000;0.1123;0.8792;
998.4000;0.1140;0.8863;
998.7000;0.1107;0.8721;
999.0000;0.1123;0.8626;
999.3000;0.1107;0.8697;
999.6000;0.1115;0.8768;
999.9000;0.1091;0.8721;
1000.2000;0.1115;0.8768;
1000.5000;0.1180;0.8958;
1000.8000;0.1115;0.8768;
1001.1000;0.1107;0.8744;
1001.4000;0.1115;0.8792;
1001.7000;0.1123;0.8792;
1002.0000;0.1099;0.8673;
1002.3000;0.1107;0.8768;
1002.6000;0.1156;0.8887;
1002.9000;0.1066;0.8650;
1003.2000;0.1107;0.8721;
1003.5000;0.1107;0.8815;
1003.8000;0.1123;0.8839;
1004.1000;0.1131;0.8887;
1004.4000;0.1115;0.8863;
1004.7000;0.1099;0.8910;
1005.0000;0.1107;0.8934;
1005.3000;0.1107;0.8934;
1005.6000;0.1148;0.9052;
1005.9000;0.1115;0.8934;
1006.2000;0.1123;0.8934;
1006.5000;0.1123;0.8934;
1006.8000;0.1115;0.8863;
1007.1000;0.1172;0.8934;
1007.4000;0.1115;0.8721;
1007.7000;0.1091;0.8650;
1008.0000;0.1123;0.8744;
1008.3000;0.1123;0.8744;
1008.6000;0.1107;0.8721;
1008.9000;0.1123;0.8792;
1009.2000;0.1115;0.8839;
1009.5000;0.1123;0.8887;
1009.8000;0.1115;0.8792;
1010.1000;0.1115;0.8744;
1010.4000;0.1123;0.8815;
1010.7000;0.1197;0.8958;
1011.0000;0.1131;0.8744;
1011.3000;0.1131;0.8721;
1011.6000;0.1115;0.8721;
1011.9000;0.1140;0.8768;
1012.2000;0.1042;0.8555;
1012.5000;0.1123;0.8721;
1012.8000;0.1131;0.8650;
1013.1000;0.1123;0.8673;
1013.4000;0.1164;0.8697;
1013.7000;0.1123;0.8650;
1014.0000;0.1131;0.8673;
1014.3000;0.1131;0.8697;
1014.6000;0.1123;0.8721;
1014.9000;0.1107;0.8626;
1015.2000;0.1107;0.8602;
1015.5000;0.1107;0.8602;
1015.8000;0.1115;0.8507;
1016.1000;0.1115;0.8460;
1016.4000;0.1123;0.8460;
1016.7000;0.1091;0.8436;
1017.0000;0.1107;0.8507;
1017.3000;0.1107;0.8602;
1017.6000;0.1099;0.8673;
1017.9000;0.1091;0.8721;
1018.2000;0.1115;0.8744;
1018.5000;0.1123;0.8721;
1018.8000;0.1131;0.8626;
1019.1000;0.1107;0.8626;
1019.4000;0.1115;0.8721;
1019.7000;0.1123;0.8721;
1020.0000;0.1099;0.8697;
1020.3000;0.1099;0.8768;
1020.6000;0.1123;0.8815;
1020.9000;0.1115;0.8792;
1021.2000;0.1131;0.8579;
1021.5000;0.1123;0.8555;
1021.8000;0.1115;0.8531;
1022.1000;0.1099;0.8579;
1022.4000;0.1131;0.8555;
1022.7000;0.1115;0.8579;
1023.0000;0.1115;0.8673;
1023.3000;0.1123;0.8602;
1023.6000;0.1107;0.8602;
1023.9000;0.1123;0.8673;
1024.2000;0.1115;0.8626;
1024.5000;0.1099;0.8602;
1024.8000;0.1140;0.8768;
1025.1000;0.1115;0.8721;
1025.4000;0.1107;0.8721;
1025.7000;0.1123;0.8650;
1026.0000;0.1115;0.8697;
1026.3000;0.1107;0.8673;
1026.6000;0.1140;0.8744;
1026.9000;0.1107;0.8673;
1027.2000;0.1107;0.8768;
1027.5000;0.1123;0.8863;
1027.8000;0.1099;0.8792;
1028.1000;0.1107;0.8744;
1028.4000;0.1140;0.8792;
1028.7000;0.1115;0.8697;
1029.0000;0.1107;0.8697;
1029.3000;0.1123;0.8721;
1029.6000;0.1107;0.8744;
1029.9000;0.1107;0.8744;
1030.2000;0.1115;0.8721;
1030.5000;0.1123;0.8673;
1030.8000;0.1131;0.8626;
1031.1000;0.1131;0.8626;
1031.4000;0.1115;0.8602;
1031.7000;0.1123;0.8650;
1032.0000;0.1115;0.8602;
1032.3000;0.1107;0.8555;
1032.6000;0.1115;0.8484;
1032.9000;0.1115;0.8579;
1033.2000;0.1074;0.8436;
1033.5000;0.1115;0.8531;
1033.8000;0.1107;0.8484;
1034.1000;0.1131;0.8484;
1034.4000;0.1107;0.8389;
1034.7000;0.1131;0.8484;
1035.0000;0.1156;0.8507;
1035.3000;0.1131;0.8484;
1035.6000;0.1164;0.8602;
1035.9000;0.1123;0.8531;
1036.2000;0.1131;0.8555;
1036.5000;0.1107;0.8626;
1036.8000;0.1140;0.8626;
1037.1000;0.1115;0.8579;
1037.4000;0.1107;0.8602;
1037.7000;0.1115;0.8721;
1038.0000;0.1115;0.8673;
1038.3000;0.1107;0.8579;
1038.6000;0.1115;0.8507;
1038.9000;0.1115;0.8531;
1039.2000;0.1123;0.8602;
1039.5000;0.1107;0.8460;
1039.8000;0.1099;0.8602;
1040.1000;0.1099;0.8650;
1040.4000;0.1115;0.8626;
1040.7000;0.1123;0.8650;
1041.0000;0.1034;0.8389;
1041.3000;0.1107;0.8602;
1041.6000;0.1107;0.8650;
1041.9000;0.1123;0.8626;
1042.2000;0.1115;0.8579;
1042.5000;0.1123;0.8602;
1042.8000;0.1115;0.8626;
1043.1000;0.1123;0.8602;
1043.4000;0.1115;0.8626;
1043.7000;0.1107;0.8579;
1044.0000;0.1172;0.8673;
1044.3000;0.1107;0.8555;
1044.6000;0.1123;0.8555;
1044.9000;0.1107;0.8555;
1045.2000;0.1107;0.8531;
1045.5000;0.1123;0.8555;
1045.8000;0.1148;0.8626;
1046.1000;0.1115;0.8555;
1046.4000;0.1123;0.8602;
1046.7000;0.1123;0.8555;
1047.0000;0.1148;0.8602;
1047.3000;0.1107;0.8531;
1047.6000;0.1107;0.8579;
1047.9000;0.1115;0.8579;
1048.2000;0.1148;0.8650;
1048.5000;0.1148;0.8697;
1048.8000;0.1115;0.8579;
1049.1000;0.1115;0.8531;
1049.4000;0.1107;0.8602;
1049.7000;0.1107;0.8626;
1050.0000;0.1115;0.8579;
1050.3000;0.1107;0.8460;
1050.6000;0.1131;0.8460;
1050.9000;0.1115;0.8365;
1051.2000;0.1107;0.8389;
1051.5000;0.1115;0.8531;
1051.8000;0.1099;0.8602;
1052.1000;0.1115;0.8650;
1052.4000;0.1123;0.8721;
1052.7000;0.1123;0.8792;
1053.0000;0.1148;0.8887;
1053.3000;0.1099;0.8792;
1053.6000;0.1115;0.8839;
1053.9000;0.1107;0.8815;
1054.2000;0.1083;0.8792;
1054.5000;0.1123;0.8815;
1054.8000;0.1123;0.8721;
1055.1000;0.1156;0.8815;
1055.4000;0.1107;0.8815;
1055.7000;0.1140;0.8981;
1056.0000;0.1123;0.8934;
1056.3000;0.1123;0.8887;
1056.6000;0.1123;0.8863;
1056.9000;0.1066;0.8792;
1057.2000;0.1115;0.8839;
1057.5000;0.1115;0.8768;
1057.8000;0.1107;0.8650;
1058.1000;0.1115;0.8650;
1058.4000;0.1083;0.8673;
1058.7000;0.1123;0.8792;
1059.0000;0.1107;0.8673;
1059.3000;0.1123;0.8697;
1059.6000;0.1115;0.8744;
1059.9000;0.1131;0.8815;
1060.2000;0.1123;0.8768;
1060.5000;0.1115;0.8744;
1060.8000;0.1107;0.8721;
1061.1000;0.1188;0.8910;
1061.4000;0.1131;0.8744;
1061.7000;0.1083;0.8744;
1062.0000;0.1115;0.8863;
1062.3000;0.1107;0.8815;
1062.6000;0.1107;0.8815;
1062.9000;0.1107;0.8792;
1063.2000;0.1107;0.8792;
1063.5000;0.1115;0.8792;
1063.8000;0.1083;0.8744;
1064.1000;0.1140;0.8910;
1064.4000;0.1091;0.8815;
1064.7000;0.1107;0.8792;
1065.0000;0.1091;0.8792;
1065.3000;0.1123;0.8792;
1065.6000;0.1123;0.8792;
1065.9000;0.1115;0.8697;
1066.2000;0.1099;0.8579;
1066.5000;0.1123;0.8579;
1066.8000;0.1123;0.8650;
1067.1000;0.1123;0.8626;
1067.4000;0.1140;0.8673;
1067.7000;0.1107;0.8626;
1068.0000;0.1115;0.8673;
1068.3000;0.1140;0.8697;
1068.6000;0.1099;0.8602;
1068.9000;0.1123;0.8626;
1069.2000;0.1115;0.8650;
1069.5000;0.1107;0.8602;
1069.8000;0.1123;0.8579;
1070.1000;0.1107;0.8507;
1070.4000;0.1180;0.8650;
1070.7000;0.1115;0.8602;
1071.0000;0.1156;0.8744;
1071.3000;0.1115;0.8721;
1071.6000;0.1156;0.8792;
1071.9000;0.1115;0.8744;
1072.2000;0.1107;0.8697;
1072.5000;0.1099;0.8673;
1072.8000;0.1131;0.8744;
1073.1000;0.1123;0.8744;
1073.4000;0.1115;0.8697;
1073.7000;0.1107;0.8744;
1074.0000;0.1148;0.8815;
1074.3000;0.1123;0.8768;
1074.6000;0.1099;0.8721;
1074.9000;0.1099;0.8697;
1075.2000;0.1107;0.8697;
1075.5000;0.1107;0.8602;
1075.8000;0.1115;0.8650;
1076.1000;0.1107;0.8673;
1076.4000;0.1091;0.8673;
1076.7000;0.1107;0.8697;
1077.0000;0.1099;0.8697;
1077.3000;0.1099;0.8697;
1077.6000;0.1091;0.8626;
1077.9000;0.1107;0.8650;
1078.2000;0.1107;0.8697;
1078.5000;0.1099;0.8697;
1078.8000;0.1099;0.8768;
1079.1000;0.1115;0.8744;
1079.4000;0.1107;0.8744;
1079.7000;0.1083;0.8673;
1080.0000;0.1107;0.8673;
1080.3000;0.1107;0.8626;
1080.6000;0.1140;0.8697;
1080.9000;0.1156;0.8697;
1081.2000;0.1115;0.8579;
1081.5000;0.1123;0.8555;
1081.8000;0.1123;0.8626;
1082.1000;0.1131;0.8579;
1082.4000;0.1107;0.8555;
1082.7000;0.1107;0.8531;
1083.0000;0.1131;0.8602;
1083.3000;0.1107;0.8650;
1083.6000;0.1066;0.8602;
1083.9000;0.1091;0.8697;
1084.2000;0.1099;0.8744;
1084.5000;0.1099;0.8792;
1084.8000;0.1107;0.8744;
1085.1000;0.1131;0.8721;
1085.4000;0.1115;0.8697;
1085.7000;0.1083;0.8602;
1086.0000;0.1123;0.8721;
1086.3000;0.1091;0.8697;
1086.6000;0.1099;0.8792;
1086.9000;0.1107;0.8792;
1087.2000;0.1107;0.8697;
1087.5000;0.1115;0.8697;
1087.8000;0.1107;0.8721;
1088.1000;0.1123;0.8768;
1088.4000;0.1115;0.8744;
1088.7000;0.1091;0.8744;
1089.0000;0.1083;0.8626;
1089.3000;0.1099;0.8673;
1089.6000;0.1115;0.8673;
1089.9000;0.1115;0.8768;
1090.2000;0.1107;0.8744;
1090.5000;0.1091;0.8744;
1090.8000;0.1026;0.8602;
1091.1000;0.1115;0.8863;
1091.4000;0.1123;0.8792;
1091.7000;0.1115;0.8792;
1092.0000;0.1115;0.8744;
1092.3000;0.1115;0.8744;
1092.6000;0.1131;0.8768;
1092.9000;0.1115;0.8768;
1093.2000;0.1107;0.8768;
1093.5000;0.1099;0.8697;
1093.8000;0.1131;0.8673;
1094.1000;0.1131;0.8673;
1094.4000;0.1115;0.8579;
1094.7000;0.1099;0.8579;
1095.0000;0.1123;0.8555;
1095.3000;0.1115;0.8555;
1095.6000;0.1099;0.8555;
1095.9000;0.1099;0.8579;
1096.2000;0.1115;0.8626;
1096.5000;0.1140;0.8673;
1096.8000;0.1099;0.8697;
1097.1000;0.1115;0.8792;
1097.4000;0.1099;0.8815;
1097.7000;0.1123;0.8792;
1098.0000;0.1091;0.8697;
1098.3000;0.1115;0.8792;
1098.6000;0.1148;0.8934;
1098.9000;0.1123;0.8910;
1099.2000;0.1115;0.8887;
1099.5000;0.1107;0.8934;
1099.8000;0.1083;0.8910;
1100.1000;0.1131;0.8934;
1100.4000;0.1115;0.8815;
1100.7000;0.1099;0.8744;
1101.0000;0.1099;0.8744;
1101.3000;0.1091;0.8721;
1101.6000;0.1083;0.8673;
1101.9000;0.1107;0.8768;
1102.2000;0.1131;0.8673;
1102.5000;0.1148;0.8768;
1102.8000;0.1107;0.8626;
1103.1000;0.1115;0.8579;
1103.4000;0.1107;0.8626;
1103.7000;0.1107;0.8697;
1104.0000;0.1115;0.8721;
1104.3000;0.1115;0.8792;
1104.6000;0.1148;0.8792;
1104.9000;0.1091;0.8697;
1105.2000;0.1099;0.8744;
1105.5000;0.1131;0.8768;
1105.8000;0.1115;0.8815;
1106.1000;0.1115;0.8815;
1106.4000;0.1115;0.8934;
1106.7000;0.1083;0.8792;
1107.0000;0.1123;0.8910;
1107.3000;0.1115;0.8934;
1107.6000;0.1115;0.8839;
1107.9000;0.1131;0.8863;
1108.2000;0.1131;0.8863;
1108.5000;0.1115;0.8887;
1108.8000;0.1074;0.8768;
1109.1000;0.1123;0.8839;
1109.4000;0.1099;0.8792;
1109.7000;0.1099;0.8815;
1110.0000;0.1107;0.8768;
1110.3000;0.1099;0.8815;
1110.6000;0.1107;0.8768;
1110.9000;0.1099;0.8744;
1111.2000;0.1107;0.8792;
1111.5000;0.1099;0.8863;
1111.8000;0.1115;0.8839;
1112.1000;0.1091;0.8744;
1112.4000;0.1091;0.8768;
1112.7000;0.1107;0.8744;
1113.0000;0.1131;0.8768;
1113.3000;0.1107;0.8697;
1113.6000;0.1123;0.8721;
1113.9000;0.1115;0.8721;
1114.2000;0.1107;0.8815;
1114.5000;0.1115;0.8792;
1114.8000;0.1123;0.8768;
1115.1000;0.1115;0.8768;
1115.4000;0.1123;0.8792;
1115.7000;0.1099;0.8768;
1116.0000;0.1205;0.9052;
1116.3000;0.1131;0.8863;
1116.6000;0.1140;0.8887;
1116.9000;0.1115;0.8815;
1117.2000;0.1123;0.8744;
1117.5000;0.1091;0.8721;
1117.8000;0.1115;0.8792;
1118.1000;0.1107;0.8792;
1118.4000;0.1123;0.8887;
1118.7000;0.1115;0.8768;
1119.0000;0.1099;0.8744;
1119.3000;0.1034;0.8579;
1119.6000;0.1148;0.8839;
1119.9000;0.1115;0.8721;
1120.2000;0.1131;0.8721;
1120.5000;0.1066;0.8484;
1120.8000;0.1091;0.8579;
1121.1000;0.1123;0.8602;
1121.4000;0.1115;0.8555;
1121.7000;0.1099;0.8531;
1122.0000;0.1099;0.8531;
1122.3000;0.1123;0.8602;
1122.6000;0.1083;0.8626;
1122.9000;0.1099;0.8721;
1123.2000;0.1083;0.8626;
1123.5000;0.1131;0.8863;
1123.8000;0.1164;0.8839;
1124.1000;0.1115;0.8673;
1124.4000;0.1115;0.8721;
1124.7000;0.1115;0.8721;
1125.0000;0.1123;0.8744;
1125.3000;0.1123;0.8673;
1125.6000;0.1131;0.8697;
1125.9000;0.1115;0.8744;
1126.2000;0.1123;0.8744;
1126.5000;0.1131;0.8744;
1126.8000;0.1107;0.8673;
1127.1000;0.1115;0.8721;
1127.4000;0.1123;0.8768;
1127.7000;0.1091;0.8721;
1128.0000;0.1091;0.8673;
1128.3000;0.1123;0.8792;
1128.6000;0.1091;0.8863;
1128.9000;0.1099;0.8863;
1129.2000;0.1115;0.8863;
1129.5000;0.1115;0.8768;
1129.8000;0.1107;0.8744;
1130.1000;0.1074;0.8626;
1130.4000;0.1123;0.8721;
1130.7000;0.1131;0.8721;
1131.0000;0.1115;0.8768;
1131.3000;0.1115;0.8839;
1131.6000;0.1107;0.8792;
1131.9000;0.1164;0.8934;
1132.2000;0.1099;0.8768;
1132.5000;0.1107;0.8768;
1132.8000;0.1107;0.8815;
1133.1000;0.1115;0.8768;
1133.4000;0.1083;0.8697;
1133.7000;0.1099;0.8721;
1134.0000;0.1156;0.8910;
1134.3000;0.1115;0.8815;
1134.6000;0.1107;0.8910;
1134.9000;0.1148;0.9029;
1135.2000;0.1107;0.8958;
1135.5000;0.1099;0.8887;
1135.8000;0.1123;0.8934;
1136.1000;0.1115;0.8910;
1136.4000;0.1115;0.8910;
1136.7000;0.1123;0.8934;
1137.0000;0.1115;0.8910;
1137.3000;0.1083;0.8839;
1137.6000;0.1115;0.8981;
1137.9000;0.1107;0.8934;
1138.2000;0.1083;0.8815;
1138.5000;0.1107;0.8958;
1138.8000;0.1188;0.9195;
1139.1000;0.1115;0.8934;
1139.4000;0.1091;0.8815;
1139.7000;0.1123;0.8934;
1140.0000;0.1123;0.8910;
1140.3000;0.1107;0.8721;
1140.6000;0.1099;0.8626;
1140.9000;0.1115;0.8626;
1141.2000;0.1107;0.8579;
1141.5000;0.1107;0.8579;
1141.8000;0.1107;0.8650;
1142.1000;0.1099;0.8673;
1142.4000;0.1172;0.8910;
1142.7000;0.1123;0.8721;
1143.0000;0.1099;0.8673;
1143.3000;0.1099;0.8697;
1143.6000;0.1083;0.8673;
1143.9000;0.1099;0.8744;
1144.2000;0.1091;0.8697;
1144.5000;0.1123;0.8768;
1144.8000;0.1115;0.8839;
1145.1000;0.1091;0.8815;
1145.4000;0.1107;0.8792;
1145.7000;0.1099;0.8815;
1146.0000;0.1091;0.8815;
1146.3000;0.1107;0.8863;
1146.6000;0.1172;0.9076;
1146.9000;0.1115;0.8910;
1147.2000;0.1107;0.8910;
1147.5000;0.1115;0.8839;
1147.8000;0.1099;0.8815;
1148.1000;0.1123;0.8863;
1148.4000;0.1107;0.8792;
1148.7000;0.1115;0.8815;
1149.0000;0.1107;0.8697;
1149.3000;0.1123;0.8721;
1149.6000;0.1115;0.8697;
1149.9000;0.1074;0.8650;
1150.2000;0.1083;0.8555;
1150.5000;0.1099;0.8721;
1150.8000;0.1115;0.8650;
1151.1000;0.1123;0.8579;
1151.4000;0.1107;0.8579;
1151.7000;0.1107;0.8721;
1152.0000;0.1099;0.8697;
1152.3000;0.1123;0.8673;
1152.6000;0.1107;0.8626;
1152.9000;0.1058;0.8555;
1153.2000;0.1058;0.8650;
1153.5000;0.1099;0.8768;
1153.8000;0.1099;0.8768;
1154.1000;0.1099;0.8792;
1154.4000;0.1131;0.8839;
1154.7000;0.1074;0.8768;
1155.0000;0.1115;0.8839;
1155.3000;0.1091;0.8815;
1155.6000;0.1140;0.8863;
1155.9000;0.1107;0.8744;
1156.2000;0.1107;0.8673;
1156.5000;0.1107;0.8697;
1156.8000;0.1091;0.8626;
1157.1000;0.1107;0.8768;
1157.4000;0.1107;0.8744;
1157.7000;0.1083;0.8721;
1158.0000;0.1107;0.8815;
1158.3000;0.1107;0.8839;
1158.6000;0.1099;0.8768;
1158.9000;0.1123;0.8768;
1159.2000;0.1099;0.8721;
1159.5000;0.1115;0.8744;
1159.8000;0.1131;0.8744;
1160.1000;0.1123;0.8744;
1160.4000;0.1123;0.8815;
1160.7000;0.1099;0.8815;
1161.0000;0.1123;0.8863;
1161.3000;0.1115;0.8887;
1161.6000;0.1099;0.8910;
1161.9000;0.1099;0.8887;
1162.2000;0.1107;0.8910;
1162.5000;0.1115;0.8910;
1162.8000;0.1099;0.8815;
1163.1000;0.1099;0.8792;
1163.4000;0.1107;0.8768;
1163.7000;0.1131;0.8792;
1164.0000;0.1131;0.8815;
1164.3000;0.1083;0.8768;
1164.6000;0.1107;0.8721;
1164.9000;0.1099;0.8721;
1165.2000;0.1107;0.8768;
1165.5000;0.1115;0.8673;
1165.8000;0.1115;0.8673;
1166.1000;0.1115;0.8697;
1166.4000;0.1099;0.8721;
1166.7000;0.1099;0.8792;
1167.0000;0.1107;0.8768;
1167.3000;0.1099;0.8792;
1167.6000;0.1115;0.8815;
1167.9000;0.1115;0.8768;
1168.2000;0.1099;0.8839;
1168.5000;0.1083;0.8768;
1168.8000;0.1140;0.8839;
1169.1000;0.1107;0.8768;
1169.4000;0.1099;0.8697;
1169.7000;0.1083;0.8650;
1170.0000;0.1091;0.8650;
1170.3000;0.1107;0.8626;
1170.6000;0.1050;0.8579;
1170.9000;0.1099;0.8626;
1171.2000;0.1091;0.8721;
1171.5000;0.1099;0.8815;
1171.8000;0.1091;0.8815;
1172.1000;0.1066;0.8721;
1172.4000;0.1099;0.8744;
1172.7000;0.1091;0.8768;
1173.0000;0.1066;0.8650;
1173.3000;0.1107;0.8650;
1173.6000;0.1115;0.8626;
1173.9000;0.1115;0.8673;
1174.2000;0.1131;0.8721;
1174.5000;0.1107;0.8721;
1174.8000;0.1107;0.8744;
1175.1000;0.1115;0.8673;
1175.4000;0.1123;0.8768;
1175.7000;0.1091;0.8721;
1176.0000;0.1099;0.8744;
1176.3000;0.1107;0.8697;
1176.6000;0.1140;0.8815;
1176.9000;0.1140;0.8721;
1177.2000;0.1099;0.8555;
1177.5000;0.1131;0.8697;
1177.8000;0.1091;0.8602;
1178.1000;0.1091;0.8650;
1178.4000;0.1148;0.8792;
1178.7000;0.1156;0.8744;
1179.0000;0.1115;0.8626;
1179.3000;0.1099;0.8626;
1179.6000;0.1115;0.8650;
1179.9000;0.1091;0.8531;
1180.2000;0.1123;0.8579;
1180.5000;0.1115;0.8555;
1180.8000;0.1115;0.8602;
1181.1000;0.1091;0.8531;
1181.4000;0.1115;0.8626;
1181.7000;0.1205;0.8815;
1182.0000;0.1083;0.8413;
1182.3000;0.1107;0.8436;
1182.6000;0.1099;0.8555;
1182.9000;0.1099;0.8531;
1183.2000;0.1115;0.8579;
1183.5000;0.1091;0.8555;
1183.8000;0.1148;0.8626;
1184.1000;0.1115;0.8579;
1184.4000;0.1123;0.8602;
1184.7000;0.1115;0.8579;
1185.0000;0.1066;0.8507;
1185.3000;0.1107;0.8673;
1185.6000;0.1107;0.8744;
1185.9000;0.1123;0.8721;
1186.2000;0.1115;0.8626;
1186.5000;0.1123;0.8673;
1186.8000;0.1131;0.8768;
1187.1000;0.1115;0.8768;
1187.4000;0.1115;0.8721;
1187.7000;0.1099;0.8602;
1188.0000;0.1156;0.8744;
1188.3000;0.1099;0.8602;
1188.6000;0.1099;0.8484;
1188.9000;0.1107;0.8507;
1189.2000;0.1115;0.8531;
1189.5000;0.1107;0.8531;
1189.8000;0.1164;0.8673;
1190.1000;0.1115;0.8531;
1190.4000;0.1099;0.8531;
1190.7000;0.1083;0.8484;
1191.0000;0.1107;0.8484;
1191.3000;0.1083;0.8413;
1191.6000;0.1091;0.8389;
1191.9000;0.1115;0.8484;
1192.2000;0.1107;0.8484;
1192.5000;0.1099;0.8436;
1192.8000;0.1099;0.8436;
1193.1000;0.1099;0.8531;
1193.4000;0.1099;0.8579;
1193.7000;0.1099;0.8555;
1194.0000;0.1115;0.8507;
1194.3000;0.1115;0.8460;
1194.6000;0.1115;0.8413;
1194.9000;0.1107;0.8484;
1195.2000;0.1107;0.8555;
1195.5000;0.1115;0.8579;
1195.8000;0.1091;0.8579;
1196.1000;0.1123;0.8626;
1196.4000;0.1140;0.8602;
1196.7000;0.1123;0.8484;
1197.0000;0.1115;0.8507;
1197.3000;0.1123;0.8507;
1197.6000;0.1180;0.8602;
1197.9000;0.1091;0.8365;
1198.2000;0.1099;0.8436;
1198.5000;0.1115;0.8436;
1198.8000;0.1123;0.8507;
1199.1000;0.1115;0.8531;
1199.4000;0.1107;0.8507;
1199.7000;0.1123;0.8555;
1200.0000;0.1131;0.8507;
1200.3000;0.1115;0.8484;
1200.6000;0.1099;0.8436;
1200.9000;0.1107;0.8555;
1201.2000;0.1091;0.8650;
1201.5000;0.1099;0.8626;
1201.8000;0.1123;0.8602;
1202.1000;0.1099;0.8602;
1202.4000;0.1091;0.8602;
1202.7000;0.1164;0.8792;
1203.0000;0.1091;0.8626;
1203.3000;0.1099;0.8602;
1203.6000;0.1115;0.8650;
1203.9000;0.1107;0.8650;
1204.2000;0.1107;0.8626;
1204.5000;0.1115;0.8602;
1204.8000;0.1107;0.8673;
1205.1000;0.1107;0.8673;
1205.4000;0.1115;0.8744;
1205.7000;0.1107;0.8697;
1206.0000;0.1091;0.8626;
1206.3000;0.1058;0.8602;
1206.6000;0.1107;0.8721;
1206.9000;0.1099;0.8626;
1207.2000;0.1107;0.8531;
1207.5000;0.1107;0.8555;
1207.8000;0.1131;0.8626;
1208.1000;0.1115;0.8626;
1208.4000;0.1115;0.8626;
1208.7000;0.1123;0.8579;
1209.0000;0.1115;0.8579;
1209.3000;0.1123;0.8531;
1209.6000;0.1123;0.8579;
1209.9000;0.1164;0.8839;
1210.2000;0.1123;0.8792;
1210.5000;0.1099;0.8792;
1210.8000;0.1099;0.8768;
1211.1000;0.1107;0.8744;
1211.4000;0.1115;0.8839;
1211.7000;0.1148;0.8768;
1212.0000;0.1115;0.8721;
1212.3000;0.1099;0.8626;
1212.6000;0.1140;0.8650;
1212.9000;0.1099;0.8555;
1213.2000;0.1115;0.8626;
1213.5000;0.1099;0.8579;
1213.8000;0.1099;0.8626;
1214.1000;0.1107;0.8602;
1214.4000;0.1099;0.8531;
1214.7000;0.1091;0.8507;
1215.0000;0.1091;0.8626;
1215.3000;0.1107;0.8650;
1215.6000;0.1099;0.8602;
1215.9000;0.1099;0.8626;
1216.2000;0.1107;0.8673;
1216.5000;0.1172;0.8887;
1216.8000;0.1058;0.8579;
1217.1000;0.1107;0.8697;
1217.4000;0.1066;0.8579;
1217.7000;0.1099;0.8650;
1218.0000;0.1107;0.8579;
1218.3000;0.1099;0.8602;
1218.6000;0.1123;0.8555;
1218.9000;0.1099;0.8579;
1219.2000;0.1115;0.8650;
1219.5000;0.1123;0.8650;
1219.8000;0.1123;0.8626;
1220.1000;0.1107;0.8626;
1220.4000;0.1115;0.8602;
1220.7000;0.1115;0.8507;
1221.0000;0.1091;0.8579;
1221.3000;0.1107;0.8602;
1221.6000;0.1115;0.8579;
1221.9000;0.1107;0.8531;
1222.2000;0.1115;0.8555;
1222.5000;0.1107;0.8626;
1222.8000;0.1099;0.8602;
1223.1000;0.1115;0.8697;
1223.4000;0.1058;0.8579;
1223.7000;0.1099;0.8673;
1224.0000;0.1099;0.8768;
1224.3000;0.1115;0.8744;
1224.6000;0.1115;0.8697;
1224.9000;0.1140;0.8792;
1225.2000;0.1123;0.8650;
1225.5000;0.1115;0.8673;
1225.8000;0.1123;0.8673;
1226.1000;0.1131;0.8673;
1226.4000;0.1164;0.8792;
1226.7000;0.1099;0.8626;
1227.0000;0.1115;0.8721;
1227.3000;0.1099;0.8697;
1227.6000;0.1115;0.8721;
1227.9000;0.1099;0.8744;
1228.2000;0.1099;0.8673;
1228.5000;0.1099;0.8626;
1228.8000;0.1099;0.8555;
1229.1000;0.1091;0.8531;
1229.4000;0.1042;0.8389;
1229.7000;0.1099;0.8579;
1230.0000;0.1083;0.8507;
1230.3000;0.1083;0.8602;
1230.6000;0.1099;0.8721;
1230.9000;0.1099;0.8744;
1231.2000;0.1099;0.8792;
1231.5000;0.1091;0.8792;
1231.8000;0.1107;0.8792;
1232.1000;0.1107;0.8768;
1232.4000;0.1091;0.8768;
1232.7000;0.1115;0.8863;
1233.0000;0.1107;0.8792;
1233.3000;0.1107;0.8768;
1233.6000;0.1131;0.8792;
1233.9000;0.1115;0.8839;
1234.2000;0.1115;0.8815;
1234.5000;0.1083;0.8744;
1234.8000;0.1115;0.8863;
1235.1000;0.1107;0.8839;
1235.4000;0.1050;0.8650;
1235.7000;0.1115;0.8768;
1236.0000;0.1123;0.8744;
1236.3000;0.1148;0.8839;
1236.6000;0.1083;0.8650;
1236.9000;0.1115;0.8744;
1237.2000;0.1107;0.8650;
1237.5000;0.1083;0.8626;
1237.8000;0.1115;0.8744;
1238.1000;0.1131;0.8697;
1238.4000;0.1066;0.8555;
1238.7000;0.1107;0.8602;
1239.0000;0.1115;0.8579;
1239.3000;0.1099;0.8555;
1239.6000;0.1058;0.8460;
1239.9000;0.1099;0.8531;
1240.2000;0.1107;0.8531;
1240.5000;0.1115;0.8579;
1240.8000;0.1091;0.8555;
1241.1000;0.1099;0.8579;
1241.4000;0.1107;0.8579;
1241.7000;0.1083;0.8531;
1242.0000;0.1131;0.8626;
1242.3000;0.1115;0.8650;
1242.6000;0.1115;0.8579;
1242.9000;0.1123;0.8579;
1243.2000;0.1107;0.8673;
1243.5000;0.1107;0.8768;
1243.8000;0.1123;0.8839;
1244.1000;0.1115;0.8815;
1244.4000;0.1107;0.8792;
1244.7000;0.1107;0.8721;
1245.0000;0.1107;0.8673;
1245.3000;0.1091;0.8673;
1245.6000;0.1099;0.8721;
1245.9000;0.1099;0.8721;
1246.2000;0.1131;0.8839;
1246.5000;0.1123;0.8768;
1246.8000;0.1164;0.8910;
1247.1000;0.1107;0.8768;
1247.4000;0.1107;0.8792;
1247.7000;0.1107;0.8744;
1248.0000;0.1131;0.8673;
1248.3000;0.1115;0.8579;
1248.6000;0.1115;0.8579;
1248.9000;0.1123;0.8579;
1249.2000;0.1123;0.8579;
1249.5000;0.1107;0.8626;
1249.8000;0.1099;0.8650;
1250.1000;0.1099;0.8744;
1250.4000;0.1066;0.8673;
1250.7000;0.1099;0.8792;
1251.0000;0.1091;0.8768;
1251.3000;0.1107;0.8768;
1251.6000;0.1123;0.8768;
1251.9000;0.1091;0.8815;
1252.2000;0.1107;0.8863;
1252.5000;0.1091;0.8839;
1252.8000;0.1140;0.8958;
1253.1000;0.1115;0.8863;
1253.4000;0.1099;0.8792;
1253.7000;0.1091;0.8697;
1254.0000;0.1115;0.8721;
1254.3000;0.1107;0.8650;
1254.6000;0.1099;0.8555;
1254.9000;0.1164;0.8815;
1255.2000;0.1107;0.8768;
1255.5000;0.1107;0.8768;
1255.8000;0.1091;0.8792;
1256.1000;0.1107;0.8792;
1256.4000;0.1099;0.8792;
1256.7000;0.1099;0.8792;
1257.0000;0.1131;0.8981;
1257.3000;0.1091;0.8910;
1257.6000;0.1099;0.8934;
1257.9000;0.1107;0.8910;
1258.2000;0.1115;0.8839;
1258.5000;0.1140;0.8887;
1258.8000;0.1099;0.8815;
1259.1000;0.1164;0.9100;
1259.4000;0.1123;0.8958;
1259.7000;0.1123;0.8981;
1260.0000;0.1123;0.8910;
1260.3000;0.1099;0.8768;
1260.6000;0.1099;0.8721;
1260.9000;0.1131;0.8744;
1261.2000;0.1115;0.8721;
1261.5000;0.1099;0.8673;
1261.8000;0.1107;0.8839;
1262.1000;0.1115;0.8815;
1262.4000;0.1115;0.8768;
1262.7000;0.1091;0.8602;
1263.0000;0.1099;0.8626;
1263.3000;0.1115;0.8744;
1263.6000;0.1099;0.8792;
1263.9000;0.1123;0.8910;
1264.2000;0.1107;0.8910;
1264.5000;0.1107;0.8934;
1264.8000;0.1123;0.8887;
1265.1000;0.1115;0.8839;
1265.4000;0.1091;0.8792;
1265.7000;0.1066;0.8626;
1266.0000;0.1115;0.8602;
1266.3000;0.1115;0.8673;
1266.6000;0.1107;0.8650;
1266.9000;0.1107;0.8697;
1267.2000;0.1115;0.8744;
1267.5000;0.1123;0.8768;
1267.8000;0.1107;0.8815;
1268.1000;0.1083;0.8697;
1268.4000;0.1107;0.8887;
1268.7000;0.1107;0.9005;
1269.0000;0.1131;0.9076;
1269.3000;0.1099;0.8981;
1269.6000;0.1099;0.9029;
1269.9000;0.1107;0.9171;
1270.2000;0.1123;0.9052;
1270.5000;0.1107;0.8981;
1270.8000;0.1091;0.8958;
1271.1000;0.1123;0.9005;
1271.4000;0.1058;0.8887;
1271.7000;0.1107;0.8910;
1272.0000;0.1107;0.8839;
1272.3000;0.1074;0.8815;
1272.6000;0.1107;0.8815;
1272.9000;0.1099;0.8815;
1273.2000;0.1058;0.8626;
1273.5000;0.1099;0.8768;
1273.8000;0.1140;0.8887;
1274.1000;0.1164;0.8934;
1274.4000;0.1115;0.8792;
1274.7000;0.1123;0.8815;
1275.0000;0.1099;0.8792;
1275.3000;0.1107;0.8792;
1275.6000;0.1115;0.8815;
1275.9000;0.1091;0.8721;
1276.2000;0.1107;0.8768;
1276.5000;0.1123;0.8768;
1276.8000;0.1115;0.8697;
1277.1000;0.1123;0.8721;
1277.4000;0.1107;0.8673;
1277.7000;0.1123;0.8650;
1278.0000;0.1115;0.8626;
1278.3000;0.1107;0.8579;
1278.6000;0.1099;0.8579;
1278.9000;0.1107;0.8555;
1279.2000;0.1107;0.8507;
1279.5000;0.1107;0.8507;
1279.8000;0.1099;0.8531;
1280.1000;0.1123;0.8531;
1280.4000;0.1107;0.8460;
1280.7000;0.1107;0.8460;
1281.0000;0.1131;0.8650;
1281.3000;0.1107;0.8579;
1281.6000;0.1107;0.8531;
1281.9000;0.1148;0.8579;
1282.2000;0.1099;0.8531;
1282.5000;0.1115;0.8673;
1282.8000;0.1115;0.8744;
1283.1000;0.1115;0.8839;
1283.4000;0.1034;0.8650;
1283.7000;0.1099;0.8768;
1284.0000;0.1099;0.8839;
1284.3000;0.1107;0.8863;
1284.6000;0.1091;0.8839;
1284.9000;0.1099;0.8792;
1285.2000;0.1107;0.8863;
1285.5000;0.1099;0.8792;
1285.8000;0.1107;0.8815;
1286.1000;0.1115;0.8910;
1286.4000;0.1099;0.8958;
1286.7000;0.1107;0.8958;
1287.0000;0.1123;0.8958;
1287.3000;0.1115;0.9005;
1287.6000;0.1091;0.8958;
1287.9000;0.1099;0.9005;
1288.2000;0.1115;0.9029;
1288.5000;0.1180;0.9147;
1288.8000;0.1099;0.8981;
1289.1000;0.1115;0.9005;
1289.4000;0.1074;0.8910;
1289.7000;0.1107;0.8934;
1290.0000;0.1091;0.8863;
1290.3000;0.1099;0.8910;
1290.6000;0.1107;0.8981;
1290.9000;0.1131;0.9076;
1291.2000;0.1099;0.8910;
1291.5000;0.1091;0.8815;
1291.8000;0.1066;0.8768;
1292.1000;0.1156;0.9029;
1292.4000;0.1107;0.8958;
1292.7000;0.1140;0.8958;
1293.0000;0.1115;0.8887;
1293.3000;0.1115;0.8910;
1293.6000;0.1107;0.8839;
1293.9000;0.1091;0.8792;
1294.2000;0.1091;0.8815;
1294.5000;0.1115;0.8839;
1294.8000;0.1115;0.8721;
1295.1000;0.1115;0.8697;
1295.4000;0.1091;0.8650;
1295.7000;0.1156;0.8792;
1296.0000;0.1099;0.8650;
1296.3000;0.1091;0.8579;
1296.6000;0.1099;0.8555;
1296.9000;0.1074;0.8555;
1297.2000;0.1140;0.8863;
1297.5000;0.1115;0.8863;
1297.8000;0.1107;0.8863;
1298.1000;0.1115;0.8981;
1298.4000;0.1115;0.9005;
1298.7000;0.1099;0.8981;
1299.0000;0.1115;0.8958;
1299.3000;0.1099;0.8910;
1299.6000;0.1091;0.8910;
1299.9000;0.1107;0.8863;
1300.2000;0.1107;0.8815;
1300.5000;0.1050;0.8721;
1300.8000;0.1099;0.8910;
1301.1000;0.1099;0.8863;
1301.4000;0.1131;0.8958;
1301.7000;0.1172;0.9076;
1302.0000;0.1099;0.8839;
1302.3000;0.1099;0.8863;
1302.6000;0.1107;0.8815;
1302.9000;0.1123;0.8863;
1303.2000;0.1107;0.8887;
1303.5000;0.1115;0.8863;
1303.8000;0.1107;0.8958;
1304.1000;0.1099;0.8910;
1304.4000;0.1099;0.8887;
1304.7000;0.1083;0.8863;
1305.0000;0.1107;0.8887;
1305.3000;0.1091;0.8839;
1305.6000;0.1107;0.8863;
1305.9000;0.1091;0.8839;
1306.2000;0.1107;0.8863;
1306.5000;0.1099;0.8934;
1306.8000;0.1099;0.8887;
1307.1000;0.1099;0.8887;
1307.4000;0.1107;0.8934;
1307.7000;0.1123;0.8910;
1308.0000;0.1107;0.8887;
1308.3000;0.1115;0.8887;
1308.6000;0.1172;0.9124;
1308.9000;0.1099;0.8863;
1309.2000;0.1123;0.8887;
1309.5000;0.1099;0.8839;
1309.8000;0.1115;0.8839;
1310.1000;0.1123;0.8863;
1310.4000;0.1066;0.8792;
1310.7000;0.1188;0.9029;
1311.0000;0.1099;0.8792;
1311.3000;0.1115;0.8863;
1311.6000;0.1058;0.8697;
1311.9000;0.1107;0.8744;
1312.2000;0.1115;0.8721;
1312.5000;0.1123;0.8768;
1312.8000;0.1099;0.8650;
1313.1000;0.1107;0.8650;
1313.4000;0.1107;0.8650;
1313.7000;0.1107;0.8650;
1314.0000;0.1123;0.8721;
1314.3000;0.1123;0.8744;
1314.6000;0.1131;0.8721;
1314.9000;0.1099;0.8673;
1315.2000;0.1099;0.8744;
1315.5000;0.1107;0.8792;
1315.8000;0.1107;0.8721;
1316.1000;0.1107;0.8744;
1316.4000;0.1107;0.8744;
1316.7000;0.1099;0.8744;
1317.0000;0.1115;0.8697;
1317.3000;0.1107;0.8792;
1317.6000;0.1115;0.8768;
1317.9000;0.1091;0.8744;
1318.2000;0.1099;0.8744;
1318.5000;0.1115;0.8697;
1318.8000;0.1107;0.8650;
1319.1000;0.1123;0.8792;
1319.4000;0.1107;0.8768;
1319.7000;0.1115;0.8768;
1320.0000;0.1115;0.8721;
1320.3000;0.1107;0.8626;
1320.6000;0.1099;0.8673;
1320.9000;0.1083;0.8650;
1321.2000;0.1091;0.8579;
1321.5000;0.1107;0.8626;
1321.8000;0.1099;0.8673;
1322.1000;0.1099;0.8721;
1322.4000;0.1115;0.8792;
1322.7000;0.1099;0.8697;
1323.0000;0.1123;0.8721;
1323.3000;0.1107;0.8673;
1323.6000;0.1099;0.8579;
1323.9000;0.1099;0.8602;
1324.2000;0.1107;0.8602;
1324.5000;0.1131;0.8673;
1324.8000;0.1123;0.8721;
1325.1000;0.1099;0.8579;
1325.4000;0.1099;0.8626;
1325.7000;0.1115;0.8744;
1326.0000;0.1115;0.8744;
1326.3000;0.1099;0.8673;
1326.6000;0.1107;0.8721;
1326.9000;0.1123;0.8697;
1327.2000;0.1107;0.8626;
1327.5000;0.1115;0.8697;
1327.8000;0.1115;0.8721;
1328.1000;0.1123;0.8697;
1328.4000;0.1123;0.8673;
1328.7000;0.1099;0.8626;
1329.0000;0.1099;0.8602;
1329.3000;0.1099;0.8626;
1329.6000;0.1083;0.8579;
1329.9000;0.1115;0.8650;
1330.2000;0.1148;0.8815;
1330.5000;0.1123;0.8792;
1330.8000;0.1123;0.8697;
1331.1000;0.1115;0.8721;
1331.4000;0.1091;0.8650;
1331.7000;0.1099;0.8673;
1332.0000;0.1099;0.8531;
1332.3000;0.1115;0.8531;
1332.6000;0.1115;0.8555;
1332.9000;0.1131;0.8673;
1333.2000;0.1099;0.8673;
1333.5000;0.1099;0.8650;
1333.8000;0.1115;0.8697;
1334.1000;0.1099;0.8602;
1334.4000;0.1091;0.8673;
1334.7000;0.1115;0.8744;
1335.0000;0.1083;0.8626;
1335.3000;0.1115;0.8744;
1335.6000;0.1091;0.8673;
1335.9000;0.1107;0.8768;
1336.2000;0.1123;0.8792;
1336.5000;0.1107;0.8744;
1336.8000;0.1099;0.8744;
1337.1000;0.1123;0.8697;
1337.4000;0.1140;0.8673;
1337.7000;0.1123;0.8626;
1338.0000;0.1099;0.8507;
1338.3000;0.1107;0.8555;
1338.6000;0.1140;0.8626;
1338.9000;0.1107;0.8579;
1339.2000;0.1107;0.8721;
1339.5000;0.1107;0.8697;
1339.8000;0.1091;0.8768;
1340.1000;0.1091;0.8792;
1340.4000;0.1123;0.8863;
1340.7000;0.1099;0.8792;
1341.0000;0.1131;0.8839;
1341.3000;0.1115;0.8768;
1341.6000;0.1099;0.8744;
1341.9000;0.1115;0.8744;
1342.2000;0.1115;0.8815;
1342.5000;0.1107;0.8815;
1342.8000;0.1123;0.8792;
1343.1000;0.1107;0.8792;
1343.4000;0.1091;0.8744;
1343.7000;0.1099;0.8768;
1344.0000;0.1107;0.8721;
1344.3000;0.1107;0.8721;
1344.6000;0.1066;0.8673;
1344.9000;0.1107;0.8744;
1345.2000;0.1107;0.8744;
1345.5000;0.1115;0.8744;
1345.8000;0.1107;0.8697;
1346.1000;0.1099;0.8626;
1346.4000;0.1091;0.8673;
1346.7000;0.1107;0.8792;
1347.0000;0.1131;0.8792;
1347.3000;0.1107;0.8792;
1347.6000;0.1091;0.8815;
1347.9000;0.1115;0.8863;
1348.2000;0.1099;0.8792;
1348.5000;0.1131;0.8887;
1348.8000;0.1099;0.8815;
1349.1000;0.1123;0.8910;
1349.4000;0.1099;0.8839;
1349.7000;0.1091;0.8863;
1350.0000;0.1099;0.8839;
1350.3000;0.1123;0.8839;
1350.6000;0.1099;0.8792;
1350.9000;0.1140;0.8863;
1351.2000;0.1099;0.8744;
1351.5000;0.1131;0.8887;
1351.8000;0.1131;0.8887;
1352.1000;0.1115;0.8815;
1352.4000;0.1148;0.8910;
1352.7000;0.1107;0.8863;
1353.0000;0.1115;0.8934;
1353.3000;0.1115;0.8863;
1353.6000;0.1123;0.8768;
1353.9000;0.1074;0.8555;
1354.2000;0.1107;0.8602;
1354.5000;0.1074;0.8602;
1354.8000;0.1099;0.8792;
1355.1000;0.1180;0.9005;
1355.4000;0.1074;0.8673;
1355.7000;0.1099;0.8673;
1356.0000;0.1107;0.8673;
1356.3000;0.1091;0.8650;
1356.6000;0.1058;0.8579;
1356.9000;0.1107;0.8602;
1357.2000;0.1099;0.8602;
1357.5000;0.1107;0.8555;
1357.8000;0.1099;0.8531;
1358.1000;0.1107;0.8555;
1358.4000;0.1099;0.8626;
1358.7000;0.1115;0.8602;
1359.0000;0.1115;0.8602;
1359.3000;0.1123;0.8602;
1359.6000;0.1115;0.8531;
1359.9000;0.1099;0.8436;
1360.2000;0.1099;0.8460;
1360.5000;0.1107;0.8531;
1360.8000;0.1107;0.8460;
1361.1000;0.1107;0.8531;
1361.4000;0.1107;0.8602;
1361.7000;0.1099;0.8650;
1362.0000;0.1099;0.8602;
1362.3000;0.1091;0.8579;
1362.6000;0.1107;0.8579;
1362.9000;0.1066;0.8436;
1363.2000;0.1115;0.8555;
1363.5000;0.1115;0.8673;
1363.8000;0.1099;0.8602;
1364.1000;0.1099;0.8531;
1364.4000;0.1115;0.8650;
1364.7000;0.1107;0.8555;
1365.0000;0.1115;0.8650;
1365.3000;0.1115;0.8602;
1365.6000;0.1115;0.8626;
1365.9000;0.1123;0.8673;
1366.2000;0.1107;0.8744;
1366.5000;0.1107;0.8650;
1366.8000;0.1099;0.8650;
1367.1000;0.1107;0.8531;
1367.4000;0.1099;0.8460;
1367.7000;0.1099;0.8389;
1368.0000;0.1123;0.8389;
1368.3000;0.1074;0.8294;
1368.6000;0.1091;0.8436;
1368.9000;0.1123;0.8484;
1369.2000;0.1115;0.8484;
1369.5000;0.1115;0.8579;
1369.8000;0.1123;0.8531;
1370.1000;0.1115;0.8531;
1370.4000;0.1099;0.8579;
1370.7000;0.1115;0.8602;
1371.0000;0.1099;0.8555;
1371.3000;0.1107;0.8650;
1371.6000;0.1148;0.8744;
1371.9000;0.1091;0.8673;
1372.2000;0.1107;0.8673;
1372.5000;0.1123;0.8673;
1372.8000;0.1091;0.8579;
1373.1000;0.1083;0.8484;
1373.4000;0.1091;0.8507;
1373.7000;0.1099;0.8507;
1374.0000;0.1083;0.8507;
1374.3000;0.1091;0.8531;
1374.6000;0.1107;0.8531;
1374.9000;0.1115;0.8579;
1375.2000;0.1115;0.8602;
1375.5000;0.1115;0.8650;
1375.8000;0.1091;0.8626;
1376.1000;0.1107;0.8673;
1376.4000;0.1107;0.8721;
1376.7000;0.1107;0.8721;
1377.0000;0.1107;0.8626;
1377.3000;0.1099;0.8579;
1377.6000;0.1140;0.8721;
1377.9000;0.1091;0.8626;
1378.2000;0.1091;0.8626;
1378.5000;0.1091;0.8673;
1378.8000;0.1107;0.8602;
1379.1000;0.1115;0.8579;
1379.4000;0.1091;0.8507;
1379.7000;0.1099;0.8579;
1380.0000;0.1115;0.8673;
1380.3000;0.1115;0.8650;
1380.6000;0.1091;0.8579;
1380.9000;0.1107;0.8650;
1381.2000;0.1107;0.8673;
1381.5000;0.1107;0.8721;
1381.8000;0.1099;0.8744;
1382.1000;0.1115;0.8744;
1382.4000;0.1091;0.8792;
1382.7000;0.1123;0.8863;
1383.0000;0.1107;0.8815;
1383.3000;0.1083;0.8815;
1383.6000;0.1083;0.8815;
1383.9000;0.1091;0.8768;
1384.2000;0.1107;0.8792;
1384.5000;0.1099;0.8768;
1384.8000;0.1107;0.8744;
1385.1000;0.1107;0.8744;
1385.4000;0.1107;0.8626;
1385.7000;0.1091;0.8436;
1386.0000;0.1115;0.8626;
1386.3000;0.1091;0.8555;
1386.6000;0.1034;0.8484;
1386.9000;0.1091;0.8721;
1387.2000;0.1091;0.8602;
1387.5000;0.1115;0.8721;
1387.8000;0.1107;0.8744;
1388.1000;0.1107;0.8721;
1388.4000;0.1107;0.8650;
1388.7000;0.1099;0.8673;
1389.0000;0.1091;0.8744;
1389.3000;0.1107;0.8815;
1389.6000;0.1034;0.8602;
1389.9000;0.1180;0.8958;
1390.2000;0.1107;0.8792;
1390.5000;0.1131;0.8839;
1390.8000;0.1091;0.8744;
1391.1000;0.1107;0.8815;
1391.4000;0.1107;0.8768;
1391.7000;0.1099;0.8839;
1392.0000;0.1148;0.8934;
1392.3000;0.1066;0.8721;
1392.6000;0.1140;0.8863;
1392.9000;0.1091;0.8768;
1393.2000;0.1107;0.8839;
1393.5000;0.1123;0.8863;
1393.8000;0.1099;0.8744;
1394.1000;0.1107;0.8744;
1394.4000;0.1099;0.8744;
1394.7000;0.1099;0.8650;
1395.0000;0.1099;0.8697;
1395.3000;0.1074;0.8626;
1395.6000;0.1058;0.8673;
1395.9000;0.1083;0.8721;
1396.2000;0.1115;0.8839;
1396.5000;0.1083;0.8768;
1396.8000;0.1115;0.8744;
1397.1000;0.1091;0.8697;
1397.4000;0.1115;0.8721;
1397.7000;0.1115;0.8744;
1398.0000;0.1164;0.8863;
1398.3000;0.1091;0.8744;
1398.6000;0.1172;0.8958;
1398.9000;0.1107;0.8768;
1399.2000;0.1099;0.8650;
1399.5000;0.1091;0.8579;
1399.8000;0.1083;0.8626;
