time/ms;Fluo/V;P700 deltaI/I x10³;
-199.8000;0.1473;0.9124;
-199.5000;0.1498;0.9218;
-199.2000;0.1514;0.9242;
-198.9000;0.1498;0.9195;
-198.6000;0.1498;0.9100;
-198.3000;0.1506;0.9052;
-198.0000;0.1498;0.9005;
-197.7000;0.1490;0.8910;
-197.4000;0.1481;0.8887;
-197.1000;0.1514;0.8981;
-196.8000;0.1538;0.9100;
-196.5000;0.1506;0.9076;
-196.2000;0.1498;0.9005;
-195.9000;0.1498;0.9005;
-195.6000;0.1506;0.8934;
-195.3000;0.1498;0.8910;
-195.0000;0.1490;0.8958;
-194.7000;0.1498;0.8958;
-194.4000;0.1498;0.8981;
-194.1000;0.1506;0.8958;
-193.8000;0.1506;0.8934;
-193.5000;0.1498;0.8910;
-193.2000;0.1498;0.8887;
-192.9000;0.1498;0.8839;
-192.6000;0.1506;0.8910;
-192.3000;0.1514;0.8934;
-192.0000;0.1506;0.8958;
-191.7000;0.1514;0.9076;
-191.4000;0.1506;0.9100;
-191.1000;0.1498;0.9029;
-190.8000;0.1506;0.9052;
-190.5000;0.1506;0.9100;
-190.2000;0.1498;0.9171;
-189.9000;0.1506;0.9218;
-189.6000;0.1473;0.9100;
-189.3000;0.1473;0.9029;
-189.0000;0.1498;0.9100;
-188.7000;0.1506;0.9076;
-188.4000;0.1473;0.8981;
-188.1000;0.1506;0.8958;
-187.8000;0.1498;0.8934;
-187.5000;0.1538;0.9029;
-187.2000;0.1498;0.8981;
-186.9000;0.1506;0.9005;
-186.6000;0.1506;0.9076;
-186.3000;0.1514;0.9124;
-186.0000;0.1498;0.9147;
-185.7000;0.1498;0.9171;
-185.4000;0.1514;0.9171;
-185.1000;0.1498;0.9147;
-184.8000;0.1506;0.9076;
-184.5000;0.1490;0.9124;
-184.2000;0.1498;0.9076;
-183.9000;0.1481;0.9005;
-183.6000;0.1457;0.8958;
-183.3000;0.1481;0.8958;
-183.0000;0.1498;0.8839;
-182.7000;0.1490;0.8839;
-182.4000;0.1514;0.8887;
-182.1000;0.1490;0.8863;
-181.8000;0.1490;0.8815;
-181.5000;0.1498;0.8839;
-181.2000;0.1506;0.8910;
-180.9000;0.1506;0.8887;
-180.6000;0.1490;0.8839;
-180.3000;0.1498;0.8863;
-180.0000;0.1490;0.8839;
-179.7000;0.1506;0.8863;
-179.4000;0.1506;0.8863;
-179.1000;0.1490;0.8863;
-178.8000;0.1498;0.8887;
-178.5000;0.1506;0.8887;
-178.2000;0.1481;0.8910;
-177.9000;0.1490;0.8934;
-177.6000;0.1498;0.8958;
-177.3000;0.1514;0.9052;
-177.0000;0.1490;0.9076;
-176.7000;0.1490;0.9052;
-176.4000;0.1481;0.9005;
-176.1000;0.1457;0.8981;
-175.8000;0.1506;0.9052;
-175.5000;0.1506;0.8981;
-175.2000;0.1498;0.8958;
-174.9000;0.1490;0.8934;
-174.6000;0.1498;0.8934;
-174.3000;0.1514;0.9005;
-174.0000;0.1498;0.9005;
-173.7000;0.1498;0.8981;
-173.4000;0.1498;0.8934;
-173.1000;0.1522;0.8887;
-172.8000;0.1498;0.8792;
-172.5000;0.1498;0.8887;
-172.2000;0.1498;0.8934;
-171.9000;0.1490;0.8887;
-171.6000;0.1481;0.8815;
-171.3000;0.1481;0.8768;
-171.0000;0.1498;0.8792;
-170.7000;0.1498;0.8792;
-170.4000;0.1506;0.8863;
-170.1000;0.1498;0.8934;
-169.8000;0.1514;0.8981;
-169.5000;0.1506;0.8958;
-169.2000;0.1506;0.8981;
-168.9000;0.1490;0.8958;
-168.6000;0.1490;0.8934;
-168.3000;0.1506;0.8981;
-168.0000;0.1498;0.8934;
-167.7000;0.1498;0.8839;
-167.4000;0.1490;0.8934;
-167.1000;0.1449;0.8910;
-166.8000;0.1506;0.9076;
-166.5000;0.1490;0.8981;
-166.2000;0.1481;0.8887;
-165.9000;0.1473;0.8887;
-165.6000;0.1506;0.8958;
-165.3000;0.1514;0.8934;
-165.0000;0.1506;0.8981;
-164.7000;0.1498;0.9029;
-164.4000;0.1498;0.9052;
-164.1000;0.1490;0.8958;
-163.8000;0.1490;0.8958;
-163.5000;0.1498;0.8910;
-163.2000;0.1514;0.8958;
-162.9000;0.1506;0.8839;
-162.6000;0.1506;0.8815;
-162.3000;0.1498;0.8863;
-162.0000;0.1490;0.8815;
-161.7000;0.1514;0.8910;
-161.4000;0.1490;0.8863;
-161.1000;0.1481;0.8910;
-160.8000;0.1498;0.8910;
-160.5000;0.1498;0.8958;
-160.2000;0.1506;0.8934;
-159.9000;0.1498;0.8934;
-159.6000;0.1522;0.8981;
-159.3000;0.1538;0.8981;
-159.0000;0.1506;0.8934;
-158.7000;0.1457;0.8887;
-158.4000;0.1498;0.8958;
-158.1000;0.1514;0.8981;
-157.8000;0.1506;0.8958;
-157.5000;0.1514;0.9076;
-157.2000;0.1498;0.8981;
-156.9000;0.1490;0.8981;
-156.6000;0.1498;0.9147;
-156.3000;0.1498;0.9218;
-156.0000;0.1490;0.9171;
-155.7000;0.1490;0.9076;
-155.4000;0.1530;0.9100;
-155.1000;0.1449;0.8815;
-154.8000;0.1506;0.8887;
-154.5000;0.1490;0.8863;
-154.2000;0.1465;0.8815;
-153.9000;0.1498;0.8934;
-153.6000;0.1514;0.8910;
-153.3000;0.1490;0.8863;
-153.0000;0.1490;0.8863;
-152.7000;0.1538;0.9076;
-152.4000;0.1498;0.8958;
-152.1000;0.1481;0.8958;
-151.8000;0.1457;0.8887;
-151.5000;0.1481;0.9005;
-151.2000;0.1498;0.8981;
-150.9000;0.1514;0.8981;
-150.6000;0.1506;0.8934;
-150.3000;0.1506;0.8934;
-150.0000;0.1506;0.8887;
-149.7000;0.1457;0.8863;
-149.4000;0.1481;0.9029;
-149.1000;0.1514;0.9100;
-148.8000;0.1498;0.9147;
-148.5000;0.1498;0.9171;
-148.2000;0.1490;0.9076;
-147.9000;0.1498;0.9100;
-147.6000;0.1498;0.9124;
-147.3000;0.1498;0.9100;
-147.0000;0.1490;0.9124;
-146.7000;0.1481;0.9124;
-146.4000;0.1498;0.9171;
-146.1000;0.1481;0.9124;
-145.8000;0.1465;0.9005;
-145.5000;0.1481;0.9076;
-145.2000;0.1555;0.9147;
-144.9000;0.1498;0.9029;
-144.6000;0.1498;0.9005;
-144.3000;0.1498;0.8934;
-144.0000;0.1506;0.8934;
-143.7000;0.1498;0.8934;
-143.4000;0.1490;0.8958;
-143.1000;0.1473;0.9029;
-142.8000;0.1473;0.8981;
-142.5000;0.1498;0.9029;
-142.2000;0.1514;0.9076;
-141.9000;0.1506;0.9076;
-141.6000;0.1473;0.8981;
-141.3000;0.1514;0.9124;
-141.0000;0.1506;0.9124;
-140.7000;0.1490;0.9100;
-140.4000;0.1498;0.9052;
-140.1000;0.1481;0.9005;
-139.8000;0.1481;0.9029;
-139.5000;0.1425;0.8744;
-139.2000;0.1498;0.8910;
-138.9000;0.1490;0.8839;
-138.6000;0.1506;0.8839;
-138.3000;0.1506;0.8863;
-138.0000;0.1587;0.9076;
-137.7000;0.1490;0.8910;
-137.4000;0.1490;0.8887;
-137.1000;0.1506;0.8934;
-136.8000;0.1498;0.8981;
-136.5000;0.1506;0.8958;
-136.2000;0.1506;0.8958;
-135.9000;0.1498;0.8981;
-135.6000;0.1498;0.8958;
-135.3000;0.1571;0.9147;
-135.0000;0.1506;0.8981;
-134.7000;0.1514;0.8981;
-134.4000;0.1514;0.8981;
-134.1000;0.1530;0.9052;
-133.8000;0.1506;0.8958;
-133.5000;0.1490;0.8934;
-133.2000;0.1449;0.8744;
-132.9000;0.1498;0.8887;
-132.6000;0.1490;0.8839;
-132.3000;0.1506;0.8768;
-132.0000;0.1522;0.8673;
-131.7000;0.1563;0.8744;
-131.4000;0.1506;0.8697;
-131.1000;0.1514;0.8697;
-130.8000;0.1571;0.8887;
-130.5000;0.1506;0.8768;
-130.2000;0.1498;0.8792;
-129.9000;0.1498;0.8839;
-129.6000;0.1490;0.8887;
-129.3000;0.1506;0.8910;
-129.0000;0.1506;0.8910;
-128.7000;0.1514;0.8958;
-128.4000;0.1571;0.9076;
-128.1000;0.1514;0.8887;
-127.8000;0.1498;0.8887;
-127.5000;0.1506;0.8910;
-127.2000;0.1498;0.8910;
-126.9000;0.1506;0.8981;
-126.6000;0.1506;0.9005;
-126.3000;0.1498;0.9100;
-126.0000;0.1498;0.9076;
-125.7000;0.1514;0.9147;
-125.4000;0.1506;0.9171;
-125.1000;0.1522;0.9195;
-124.8000;0.1506;0.9171;
-124.5000;0.1506;0.9124;
-124.2000;0.1514;0.9171;
-123.9000;0.1522;0.9195;
-123.6000;0.1498;0.9124;
-123.3000;0.1498;0.9171;
-123.0000;0.1514;0.9218;
-122.7000;0.1506;0.9171;
-122.4000;0.1498;0.9171;
-122.1000;0.1498;0.9100;
-121.8000;0.1506;0.9100;
-121.5000;0.1522;0.9147;
-121.2000;0.1498;0.9100;
-120.9000;0.1473;0.9076;
-120.6000;0.1498;0.9100;
-120.3000;0.1522;0.9171;
-120.0000;0.1457;0.9124;
-119.7000;0.1498;0.9266;
-119.4000;0.1490;0.9171;
-119.1000;0.1490;0.9242;
-118.8000;0.1498;0.9242;
-118.5000;0.1490;0.9218;
-118.2000;0.1490;0.9218;
-117.9000;0.1425;0.8910;
-117.6000;0.1506;0.9124;
-117.3000;0.1498;0.9076;
-117.0000;0.1506;0.9100;
-116.7000;0.1514;0.9195;
-116.4000;0.1506;0.9195;
-116.1000;0.1514;0.9171;
-115.8000;0.1490;0.9124;
-115.5000;0.1481;0.9124;
-115.2000;0.1506;0.9195;
-114.9000;0.1538;0.9313;
-114.6000;0.1498;0.9147;
-114.3000;0.1506;0.9218;
-114.0000;0.1498;0.9266;
-113.7000;0.1514;0.9361;
-113.4000;0.1506;0.9313;
-113.1000;0.1538;0.9337;
-112.8000;0.1506;0.9266;
-112.5000;0.1506;0.9171;
-112.2000;0.1498;0.9218;
-111.9000;0.1481;0.9147;
-111.6000;0.1490;0.9171;
-111.3000;0.1522;0.9361;
-111.0000;0.1547;0.9384;
-110.7000;0.1465;0.9195;
-110.4000;0.1490;0.9266;
-110.1000;0.1449;0.9076;
-109.8000;0.1498;0.9195;
-109.5000;0.1490;0.9195;
-109.2000;0.1465;0.9100;
-108.9000;0.1563;0.9313;
-108.6000;0.1514;0.9124;
-108.3000;0.1547;0.9171;
-108.0000;0.1490;0.9052;
-107.7000;0.1498;0.9171;
-107.4000;0.1555;0.9266;
-107.1000;0.1490;0.9100;
-106.8000;0.1498;0.9076;
-106.5000;0.1465;0.9029;
-106.2000;0.1498;0.9100;
-105.9000;0.1506;0.9124;
-105.6000;0.1490;0.9076;
-105.3000;0.1457;0.9029;
-105.0000;0.1498;0.9076;
-104.7000;0.1506;0.9124;
-104.4000;0.1506;0.9171;
-104.1000;0.1522;0.9218;
-103.8000;0.1514;0.9242;
-103.5000;0.1506;0.9242;
-103.2000;0.1498;0.9100;
-102.9000;0.1490;0.8981;
-102.6000;0.1514;0.8958;
-102.3000;0.1506;0.9100;
-102.0000;0.1530;0.9218;
-101.7000;0.1506;0.9124;
-101.4000;0.1522;0.9124;
-101.1000;0.1498;0.9076;
-100.8000;0.1514;0.9100;
-100.5000;0.1506;0.9100;
-100.2000;0.1498;0.9147;
-99.9000;0.1530;0.9242;
-99.6000;0.1498;0.9195;
-99.3000;0.1498;0.9171;
-99.0000;0.1481;0.9171;
-98.7000;0.1506;0.9266;
-98.4000;0.1506;0.9266;
-98.1000;0.1506;0.9195;
-97.8000;0.1514;0.9124;
-97.5000;0.1498;0.9100;
-97.2000;0.1514;0.9124;
-96.9000;0.1522;0.9076;
-96.6000;0.1514;0.9005;
-96.3000;0.1498;0.9005;
-96.0000;0.1522;0.9029;
-95.7000;0.1514;0.9029;
-95.4000;0.1506;0.9076;
-95.1000;0.1490;0.9076;
-94.8000;0.1481;0.9076;
-94.5000;0.1498;0.9076;
-94.2000;0.1506;0.9052;
-93.9000;0.1490;0.9005;
-93.6000;0.1498;0.9029;
-93.3000;0.1538;0.9171;
-93.0000;0.1522;0.9147;
-92.7000;0.1522;0.9171;
-92.4000;0.1514;0.9218;
-92.1000;0.1506;0.9171;
-91.8000;0.1506;0.9171;
-91.5000;0.1514;0.9195;
-91.2000;0.1449;0.9052;
-90.9000;0.1498;0.9147;
-90.6000;0.1490;0.9076;
-90.3000;0.1514;0.9029;
-90.0000;0.1490;0.8981;
-89.7000;0.1498;0.8981;
-89.4000;0.1514;0.9029;
-89.1000;0.1473;0.8887;
-88.8000;0.1490;0.9005;
-88.5000;0.1481;0.8910;
-88.2000;0.1481;0.8910;
-87.9000;0.1530;0.9100;
-87.6000;0.1506;0.9052;
-87.3000;0.1506;0.9124;
-87.0000;0.1506;0.9076;
-86.7000;0.1498;0.9100;
-86.4000;0.1514;0.9171;
-86.1000;0.1595;0.9408;
-85.8000;0.1416;0.8981;
-85.5000;0.1473;0.9195;
-85.2000;0.1522;0.9289;
-84.9000;0.1498;0.9100;
-84.6000;0.1490;0.9029;
-84.3000;0.1579;0.9289;
-84.0000;0.1514;0.9076;
-83.7000;0.1506;0.9171;
-83.4000;0.1514;0.9171;
-83.1000;0.1481;0.9147;
-82.8000;0.1498;0.9147;
-82.5000;0.1441;0.8981;
-82.2000;0.1514;0.9076;
-81.9000;0.1522;0.8981;
-81.6000;0.1498;0.8958;
-81.3000;0.1473;0.8887;
-81.0000;0.1506;0.9029;
-80.7000;0.1506;0.9029;
-80.4000;0.1530;0.9124;
-80.1000;0.1530;0.9124;
-79.8000;0.1514;0.9052;
-79.5000;0.1506;0.8981;
-79.2000;0.1490;0.8910;
-78.9000;0.1490;0.8887;
-78.6000;0.1506;0.8910;
-78.3000;0.1506;0.8981;
-78.0000;0.1506;0.9005;
-77.7000;0.1498;0.9005;
-77.4000;0.1498;0.9076;
-77.1000;0.1498;0.9147;
-76.8000;0.1490;0.9124;
-76.5000;0.1490;0.9289;
-76.2000;0.1506;0.9289;
-75.9000;0.1481;0.9100;
-75.6000;0.1490;0.9147;
-75.3000;0.1473;0.9076;
-75.0000;0.1530;0.9100;
-74.7000;0.1506;0.9029;
-74.4000;0.1490;0.8910;
-74.1000;0.1490;0.8863;
-73.8000;0.1514;0.8839;
-73.5000;0.1506;0.8863;
-73.2000;0.1481;0.8934;
-72.9000;0.1481;0.9029;
-72.6000;0.1457;0.9005;
-72.3000;0.1522;0.9171;
-72.0000;0.1498;0.9124;
-71.7000;0.1490;0.9124;
-71.4000;0.1490;0.9076;
-71.1000;0.1522;0.9076;
-70.8000;0.1555;0.9147;
-70.5000;0.1514;0.9124;
-70.2000;0.1490;0.9147;
-69.9000;0.1514;0.9195;
-69.6000;0.1506;0.9124;
-69.3000;0.1473;0.8981;
-69.0000;0.1506;0.9147;
-68.7000;0.1506;0.9076;
-68.4000;0.1490;0.9005;
-68.1000;0.1498;0.8981;
-67.8000;0.1506;0.8958;
-67.5000;0.1498;0.8934;
-67.2000;0.1514;0.8934;
-66.9000;0.1457;0.8863;
-66.6000;0.1498;0.8958;
-66.3000;0.1547;0.9147;
-66.0000;0.1506;0.9029;
-65.7000;0.1498;0.8981;
-65.4000;0.1490;0.9005;
-65.1000;0.1514;0.9124;
-64.8000;0.1498;0.9147;
-64.5000;0.1522;0.9124;
-64.2000;0.1506;0.9005;
-63.9000;0.1465;0.8910;
-63.6000;0.1506;0.9124;
-63.3000;0.1514;0.9076;
-63.0000;0.1522;0.8981;
-62.7000;0.1506;0.8934;
-62.4000;0.1498;0.9005;
-62.1000;0.1514;0.8958;
-61.8000;0.1473;0.8815;
-61.5000;0.1506;0.8839;
-61.2000;0.1514;0.8815;
-60.9000;0.1441;0.8673;
-60.6000;0.1514;0.8981;
-60.3000;0.1530;0.9005;
-60.0000;0.1522;0.8981;
-59.7000;0.1498;0.8910;
-59.4000;0.1514;0.8981;
-59.1000;0.1506;0.9029;
-58.8000;0.1506;0.9076;
-58.5000;0.1506;0.9076;
-58.2000;0.1506;0.9100;
-57.9000;0.1506;0.9100;
-57.6000;0.1506;0.9052;
-57.3000;0.1481;0.9052;
-57.0000;0.1498;0.9029;
-56.7000;0.1498;0.8958;
-56.4000;0.1498;0.9029;
-56.1000;0.1481;0.8934;
-55.8000;0.1490;0.8981;
-55.5000;0.1506;0.8958;
-55.2000;0.1506;0.8981;
-54.9000;0.1498;0.9005;
-54.6000;0.1498;0.9076;
-54.3000;0.1506;0.9124;
-54.0000;0.1498;0.9147;
-53.7000;0.1481;0.9052;
-53.4000;0.1490;0.8910;
-53.1000;0.1490;0.8958;
-52.8000;0.1498;0.8863;
-52.5000;0.1498;0.8887;
-52.2000;0.1498;0.8910;
-51.9000;0.1481;0.8839;
-51.6000;0.1498;0.8839;
-51.3000;0.1481;0.8863;
-51.0000;0.1490;0.8863;
-50.7000;0.1481;0.8792;
-50.4000;0.1514;0.8792;
-50.1000;0.1498;0.8815;
-49.8000;0.1498;0.8768;
-49.5000;0.1563;0.8934;
-49.2000;0.1498;0.9076;
-48.9000;0.1506;0.9124;
-48.6000;0.1473;0.9005;
-48.3000;0.1506;0.9124;
-48.0000;0.1522;0.9124;
-47.7000;0.1522;0.9076;
-47.4000;0.1538;0.9147;
-47.1000;0.1579;0.9266;
-46.8000;0.1514;0.9029;
-46.5000;0.1490;0.8981;
-46.2000;0.1514;0.9005;
-45.9000;0.1498;0.8981;
-45.6000;0.1538;0.9076;
-45.3000;0.1490;0.9029;
-45.0000;0.1506;0.9005;
-44.7000;0.1514;0.8958;
-44.4000;0.1522;0.8981;
-44.1000;0.1473;0.8863;
-43.8000;0.1498;0.8958;
-43.5000;0.1506;0.8981;
-43.2000;0.1514;0.9005;
-42.9000;0.1498;0.9029;
-42.6000;0.1498;0.9100;
-42.3000;0.1473;0.9124;
-42.0000;0.1506;0.9242;
-41.7000;0.1473;0.9147;
-41.4000;0.1514;0.9195;
-41.1000;0.1506;0.9076;
-40.8000;0.1498;0.9100;
-40.5000;0.1514;0.9076;
-40.2000;0.1514;0.9052;
-39.9000;0.1522;0.9076;
-39.6000;0.1506;0.9029;
-39.3000;0.1506;0.9100;
-39.0000;0.1506;0.9171;
-38.7000;0.1498;0.9195;
-38.4000;0.1498;0.9147;
-38.1000;0.1514;0.9124;
-37.8000;0.1490;0.9029;
-37.5000;0.1522;0.9124;
-37.2000;0.1506;0.9171;
-36.9000;0.1506;0.9147;
-36.6000;0.1498;0.9171;
-36.3000;0.1506;0.9218;
-36.0000;0.1506;0.9195;
-35.7000;0.1498;0.9147;
-35.4000;0.1490;0.9100;
-35.1000;0.1498;0.9171;
-34.8000;0.1498;0.9124;
-34.5000;0.1481;0.9076;
-34.2000;0.1490;0.9005;
-33.9000;0.1498;0.8981;
-33.6000;0.1514;0.8981;
-33.3000;0.1498;0.9076;
-33.0000;0.1498;0.9052;
-32.7000;0.1506;0.9100;
-32.4000;0.1490;0.9029;
-32.1000;0.1498;0.8981;
-31.8000;0.1506;0.8981;
-31.5000;0.1490;0.8981;
-31.2000;0.1514;0.9029;
-30.9000;0.1506;0.9005;
-30.6000;0.1498;0.9005;
-30.3000;0.1481;0.8910;
-30.0000;0.1571;0.9195;
-29.7000;0.1514;0.9029;
-29.4000;0.1490;0.8934;
-29.1000;0.1538;0.8981;
-28.8000;0.1498;0.8910;
-28.5000;0.1481;0.8863;
-28.2000;0.1490;0.8910;
-27.9000;0.1498;0.8934;
-27.6000;0.1498;0.8958;
-27.3000;0.1481;0.8958;
-27.0000;0.1506;0.9029;
-26.7000;0.1506;0.9052;
-26.4000;0.1473;0.9005;
-26.1000;0.1506;0.9029;
-25.8000;0.1506;0.8981;
-25.5000;0.1514;0.9029;
-25.2000;0.1498;0.9052;
-24.9000;0.1490;0.9124;
-24.6000;0.1498;0.9171;
-24.3000;0.1506;0.9195;
-24.0000;0.1506;0.9242;
-23.7000;0.1506;0.9218;
-23.4000;0.1522;0.9218;
-23.1000;0.1506;0.9147;
-22.8000;0.1514;0.9100;
-22.5000;0.1457;0.9076;
-22.2000;0.1498;0.9124;
-21.9000;0.1490;0.9076;
-21.6000;0.1473;0.9100;
-21.3000;0.1538;0.9218;
-21.0000;0.1498;0.9029;
-20.7000;0.1506;0.9052;
-20.4000;0.1490;0.9029;
-20.1000;0.1506;0.9005;
-19.8000;0.1490;0.8958;
-19.5000;0.1514;0.9029;
-19.2000;0.1514;0.8981;
-18.9000;0.1506;0.9029;
-18.6000;0.1506;0.9005;
-18.3000;0.1547;0.9029;
-18.0000;0.1457;0.8815;
-17.7000;0.1441;0.8839;
-17.4000;0.1498;0.9029;
-17.1000;0.1498;0.9052;
-16.8000;0.1514;0.9147;
-16.5000;0.1506;0.9100;
-16.2000;0.1481;0.9124;
-15.9000;0.1481;0.9124;
-15.6000;0.1506;0.9195;
-15.3000;0.1547;0.9337;
-15.0000;0.1449;0.9052;
-14.7000;0.1498;0.9218;
-14.4000;0.1522;0.9313;
-14.1000;0.1514;0.9266;
-13.8000;0.1498;0.9195;
-13.5000;0.1555;0.9361;
-13.2000;0.1498;0.9218;
-12.9000;0.1514;0.9218;
-12.6000;0.1506;0.9124;
-12.3000;0.1490;0.9076;
-12.0000;0.1506;0.9076;
-11.7000;0.1506;0.9076;
-11.4000;0.1571;0.9266;
-11.1000;0.1490;0.9100;
-10.8000;0.1481;0.9100;
-10.5000;0.1506;0.9076;
-10.2000;0.1514;0.9124;
-9.9000;0.1506;0.9100;
-9.6000;0.1490;0.9171;
-9.3000;0.1490;0.9218;
-9.0000;0.1481;0.9147;
-8.7000;0.1522;0.9195;
-8.4000;0.1490;0.9029;
-8.1000;0.1514;0.9124;
-7.8000;0.1498;0.9029;
-7.5000;0.1530;0.9052;
-7.2000;0.1506;0.9005;
-6.9000;0.1530;0.9052;
-6.6000;0.1506;0.9076;
-6.3000;0.1522;0.9100;
-6.0000;0.1490;0.9029;
-5.7000;0.1522;0.9076;
-5.4000;0.1490;0.9005;
-5.1000;0.1481;0.9029;
-4.8000;0.1514;0.9124;
-4.5000;0.1498;0.9100;
-4.2000;0.1498;0.9076;
-3.9000;0.1514;0.9005;
-3.6000;0.1547;0.9005;
-3.3000;0.1522;0.8958;
-3.0000;0.1490;0.8910;
-2.7000;0.1506;0.8910;
-2.4000;0.1506;0.8910;
-2.1000;0.1514;0.8958;
-1.8000;0.1473;0.8839;
-1.5000;0.1498;0.8910;
-1.2000;0.1514;0.8958;
-0.9000;0.1473;0.8887;
-0.6000;0.1498;0.8934;
-0.3000;0.1514;0.8958;
0.0000;0.1514;0.8958;
0.3000;0.1530;0.8887;
0.6000;0.1522;0.8981;
0.9000;0.1530;0.8981;
1.2000;0.1547;0.9029;
1.5000;0.1547;0.9100;
1.8000;0.1506;0.9100;
2.1000;0.1530;0.9218;
2.4000;0.1530;0.9313;
2.7000;0.1555;0.9455;
3.0000;0.1555;0.9503;
3.3000;0.1538;0.9621;
3.6000;0.1530;0.9621;
3.9000;0.1538;0.9716;
4.2000;0.1530;0.9763;
4.5000;0.1530;0.9953;
4.8000;0.1563;1.0048;
5.1000;0.1604;1.0048;
5.4000;0.1547;1.0024;
5.7000;0.1555;1.0024;
6.0000;0.1555;1.0095;
6.3000;0.1530;1.0048;
6.6000;0.1563;1.0071;
6.9000;0.1547;0.9977;
7.2000;0.1571;1.0095;
7.5000;0.1571;1.0071;
7.8000;0.1571;1.0166;
8.1000;0.1547;1.0119;
8.4000;0.1555;1.0095;
8.7000;0.1579;1.0166;
9.0000;0.1555;1.0166;
9.3000;0.1555;1.0190;
9.6000;0.1571;1.0166;
9.9000;0.1555;1.0166;
10.2000;0.1571;1.0190;
10.5000;0.1587;1.0190;
10.8000;0.1571;1.0190;
11.1000;0.1579;1.0190;
11.4000;0.1571;1.0190;
11.7000;0.1506;1.0000;
12.0000;0.1571;1.0190;
12.3000;0.1563;1.0237;
12.6000;0.1563;1.0237;
12.9000;0.1547;1.0214;
13.2000;0.1571;1.0261;
13.5000;0.1587;1.0308;
13.8000;0.1547;1.0143;
14.1000;0.1514;1.0048;
14.4000;0.1555;1.0143;
14.7000;0.1563;1.0214;
15.0000;0.1563;1.0237;
15.3000;0.1547;1.0237;
15.6000;0.1563;1.0308;
15.9000;0.1555;1.0332;
16.2000;0.1547;1.0285;
16.5000;0.1555;1.0285;
16.8000;0.1571;1.0380;
17.1000;0.1563;1.0308;
17.4000;0.1571;1.0356;
17.7000;0.1555;1.0308;
18.0000;0.1587;1.0427;
18.3000;0.1555;1.0380;
18.6000;0.1571;1.0332;
18.9000;0.1547;1.0285;
19.2000;0.1579;1.0285;
19.5000;0.1579;1.0237;
19.8000;0.1579;1.0285;
20.1000;0.1555;1.0214;
20.4000;0.1538;1.0190;
20.7000;0.1587;1.0285;
21.0000;0.1579;1.0237;
21.3000;0.1563;1.0119;
21.6000;0.1571;1.0119;
21.9000;0.1563;1.0143;
22.2000;0.1595;1.0261;
22.5000;0.1571;1.0261;
22.8000;0.1563;1.0166;
23.1000;0.1620;1.0285;
23.4000;0.1571;1.0237;
23.7000;0.1587;1.0285;
24.0000;0.1587;1.0190;
24.3000;0.1571;1.0166;
24.6000;0.1522;0.9953;
24.9000;0.1579;1.0119;
25.2000;0.1612;1.0261;
25.5000;0.1555;1.0119;
25.8000;0.1547;1.0143;
26.1000;0.1530;1.0024;
26.4000;0.1587;1.0119;
26.7000;0.1530;1.0024;
27.0000;0.1571;1.0119;
27.3000;0.1595;1.0166;
27.6000;0.1538;1.0000;
27.9000;0.1579;1.0048;
28.2000;0.1571;1.0000;
28.5000;0.1571;1.0048;
28.8000;0.1709;1.0356;
29.1000;0.1563;0.9977;
29.4000;0.1563;1.0048;
29.7000;0.1595;1.0048;
30.0000;0.1612;1.0143;
30.3000;0.1563;1.0095;
30.6000;0.1571;1.0143;
30.9000;0.1571;1.0119;
31.2000;0.1571;1.0237;
31.5000;0.1587;1.0332;
31.8000;0.1563;1.0332;
32.1000;0.1579;1.0356;
32.4000;0.1595;1.0332;
32.7000;0.1538;1.0214;
33.0000;0.1571;1.0332;
33.3000;0.1571;1.0427;
33.6000;0.1612;1.0569;
33.9000;0.1612;1.0451;
34.2000;0.1579;1.0356;
34.5000;0.1547;1.0261;
34.8000;0.1563;1.0261;
35.1000;0.1595;1.0261;
35.4000;0.1595;1.0237;
35.7000;0.1563;1.0190;
36.0000;0.1563;1.0143;
36.3000;0.1571;1.0166;
36.6000;0.1579;1.0166;
36.9000;0.1579;1.0119;
37.2000;0.1571;1.0119;
37.5000;0.1571;1.0237;
37.8000;0.1587;1.0308;
38.1000;0.1587;1.0308;
38.4000;0.1579;1.0261;
38.7000;0.1571;1.0190;
39.0000;0.1571;1.0143;
39.3000;0.1595;1.0166;
39.6000;0.1595;1.0119;
39.9000;0.1571;1.0024;
40.2000;0.1579;1.0024;
40.5000;0.1595;1.0000;
40.8000;0.1547;0.9977;
41.1000;0.1571;0.9929;
41.4000;0.1579;0.9953;
41.7000;0.1587;1.0119;
42.0000;0.1587;1.0095;
42.3000;0.1563;1.0048;
42.6000;0.1555;1.0048;
42.9000;0.1579;1.0095;
43.2000;0.1587;1.0095;
43.5000;0.1555;0.9977;
43.8000;0.1579;1.0071;
44.1000;0.1571;1.0071;
44.4000;0.1587;1.0119;
44.7000;0.1571;1.0048;
45.0000;0.1579;1.0000;
45.3000;0.1595;1.0000;
45.6000;0.1604;1.0048;
45.9000;0.1579;1.0095;
46.2000;0.1579;1.0143;
46.5000;0.1587;1.0143;
46.8000;0.1587;1.0095;
47.1000;0.1636;1.0237;
47.4000;0.1571;1.0048;
47.7000;0.1571;1.0166;
48.0000;0.1579;1.0166;
48.3000;0.1571;1.0166;
48.6000;0.1587;1.0119;
48.9000;0.1579;0.9953;
49.2000;0.1563;0.9953;
49.5000;0.1595;1.0071;
49.8000;0.1595;1.0166;
50.1000;0.1579;1.0095;
50.4000;0.1563;1.0119;
50.7000;0.1587;1.0166;
51.0000;0.1530;1.0024;
51.3000;0.1579;1.0119;
51.6000;0.1604;1.0308;
51.9000;0.1563;1.0308;
52.2000;0.1538;1.0261;
52.5000;0.1587;1.0356;
52.8000;0.1604;1.0403;
53.1000;0.1587;1.0356;
53.4000;0.1571;1.0285;
53.7000;0.1571;1.0261;
54.0000;0.1563;1.0261;
54.3000;0.1538;1.0214;
54.6000;0.1579;1.0261;
54.9000;0.1587;1.0166;
55.2000;0.1530;1.0000;
55.5000;0.1563;1.0119;
55.8000;0.1587;1.0071;
56.1000;0.1571;1.0166;
56.4000;0.1579;1.0190;
56.7000;0.1571;1.0308;
57.0000;0.1563;1.0380;
57.3000;0.1579;1.0474;
57.6000;0.1579;1.0427;
57.9000;0.1555;1.0356;
58.2000;0.1563;1.0451;
58.5000;0.1571;1.0451;
58.8000;0.1579;1.0498;
59.1000;0.1579;1.0498;
59.4000;0.1579;1.0522;
59.7000;0.1579;1.0474;
60.0000;0.1587;1.0451;
60.3000;0.1579;1.0474;
60.6000;0.1587;1.0427;
60.9000;0.1587;1.0356;
61.2000;0.1579;1.0380;
61.5000;0.1571;1.0356;
61.8000;0.1579;1.0403;
62.1000;0.1563;1.0451;
62.4000;0.1579;1.0427;
62.7000;0.1595;1.0427;
63.0000;0.1579;1.0380;
63.3000;0.1571;1.0380;
63.6000;0.1587;1.0332;
63.9000;0.1587;1.0285;
64.2000;0.1604;1.0332;
64.5000;0.1571;1.0237;
64.8000;0.1571;1.0285;
65.1000;0.1571;1.0332;
65.4000;0.1579;1.0380;
65.7000;0.1579;1.0427;
66.0000;0.1587;1.0332;
66.3000;0.1587;1.0403;
66.6000;0.1563;1.0356;
66.9000;0.1579;1.0403;
67.2000;0.1587;1.0403;
67.5000;0.1595;1.0356;
67.8000;0.1579;1.0285;
68.1000;0.1571;1.0285;
68.4000;0.1604;1.0380;
68.7000;0.1579;1.0308;
69.0000;0.1579;1.0332;
69.3000;0.1587;1.0332;
69.6000;0.1604;1.0403;
69.9000;0.1571;1.0403;
70.2000;0.1636;1.0640;
70.5000;0.1579;1.0332;
70.8000;0.1571;1.0285;
71.1000;0.1555;1.0285;
71.4000;0.1579;1.0403;
71.7000;0.1579;1.0403;
72.0000;0.1604;1.0380;
72.3000;0.1644;1.0593;
72.6000;0.1587;1.0403;
72.9000;0.1604;1.0380;
73.2000;0.1652;1.0474;
73.5000;0.1579;1.0166;
73.8000;0.1547;1.0095;
74.1000;0.1604;1.0285;
74.4000;0.1587;1.0237;
74.7000;0.1595;1.0261;
75.0000;0.1595;1.0308;
75.3000;0.1636;1.0474;
75.6000;0.1595;1.0451;
75.9000;0.1612;1.0522;
76.2000;0.1579;1.0474;
76.5000;0.1579;1.0427;
76.8000;0.1571;1.0474;
77.1000;0.1579;1.0380;
77.4000;0.1579;1.0332;
77.7000;0.1587;1.0380;
78.0000;0.1579;1.0356;
78.3000;0.1555;1.0308;
78.6000;0.1571;1.0356;
78.9000;0.1587;1.0332;
79.2000;0.1587;1.0261;
79.5000;0.1587;1.0308;
79.8000;0.1579;1.0332;
80.1000;0.1587;1.0332;
80.4000;0.1579;1.0308;
80.7000;0.1522;1.0214;
81.0000;0.1587;1.0356;
81.3000;0.1579;1.0237;
81.6000;0.1579;1.0261;
81.9000;0.1547;1.0237;
82.2000;0.1579;1.0308;
82.5000;0.1571;1.0261;
82.8000;0.1571;1.0285;
83.1000;0.1579;1.0332;
83.4000;0.1571;1.0261;
83.7000;0.1563;1.0261;
84.0000;0.1579;1.0308;
84.3000;0.1579;1.0356;
84.6000;0.1563;1.0285;
84.9000;0.1579;1.0308;
85.2000;0.1563;1.0261;
85.5000;0.1579;1.0332;
85.8000;0.1571;1.0451;
86.1000;0.1555;1.0380;
86.4000;0.1579;1.0380;
86.7000;0.1571;1.0308;
87.0000;0.1579;1.0308;
87.3000;0.1563;1.0308;
87.6000;0.1579;1.0285;
87.9000;0.1555;1.0237;
88.2000;0.1595;1.0356;
88.5000;0.1579;1.0380;
88.8000;0.1587;1.0380;
89.1000;0.1571;1.0380;
89.4000;0.1579;1.0427;
89.7000;0.1595;1.0380;
90.0000;0.1571;1.0356;
90.3000;0.1612;1.0498;
90.6000;0.1579;1.0403;
90.9000;0.1628;1.0451;
91.2000;0.1563;1.0308;
91.5000;0.1571;1.0356;
91.8000;0.1595;1.0380;
92.1000;0.1563;1.0285;
92.4000;0.1628;1.0403;
92.7000;0.1595;1.0214;
93.0000;0.1587;1.0190;
93.3000;0.1571;1.0166;
93.6000;0.1595;1.0261;
93.9000;0.1604;1.0285;
94.2000;0.1579;1.0285;
94.5000;0.1587;1.0237;
94.8000;0.1604;1.0261;
95.1000;0.1587;1.0190;
95.4000;0.1604;1.0261;
95.7000;0.1579;1.0095;
96.0000;0.1595;1.0119;
96.3000;0.1644;1.0190;
96.6000;0.1579;1.0000;
96.9000;0.1669;1.0308;
97.2000;0.1555;1.0048;
97.5000;0.1595;1.0214;
97.8000;0.1579;1.0190;
98.1000;0.1587;1.0214;
98.4000;0.1571;1.0190;
98.7000;0.1595;1.0143;
99.0000;0.1595;1.0143;
99.3000;0.1587;1.0095;
99.6000;0.1571;1.0095;
99.9000;0.1579;1.0214;
100.2000;0.1547;1.0166;
100.5000;0.1587;1.0261;
100.8000;0.1571;1.0190;
101.1000;0.1514;1.0048;
101.4000;0.1636;1.0356;
101.7000;0.1604;1.0261;
102.0000;0.1579;1.0214;
102.3000;0.1595;1.0214;
102.6000;0.1571;1.0071;
102.9000;0.1661;1.0285;
103.2000;0.1579;1.0119;
103.5000;0.1595;1.0190;
103.8000;0.1579;1.0095;
104.1000;0.1563;1.0190;
104.4000;0.1563;1.0237;
104.7000;0.1514;1.0071;
105.0000;0.1620;1.0332;
105.3000;0.1595;1.0214;
105.6000;0.1587;1.0237;
105.9000;0.1612;1.0261;
106.2000;0.1604;1.0214;
106.5000;0.1555;1.0166;
106.8000;0.1595;1.0261;
107.1000;0.1604;1.0190;
107.4000;0.1587;1.0119;
107.7000;0.1571;1.0143;
108.0000;0.1587;1.0214;
108.3000;0.1604;1.0332;
108.6000;0.1571;1.0261;
108.9000;0.1579;1.0214;
109.2000;0.1579;1.0143;
109.5000;0.1571;1.0214;
109.8000;0.1571;1.0237;
110.1000;0.1571;1.0261;
110.4000;0.1579;1.0214;
110.7000;0.1563;1.0166;
111.0000;0.1612;1.0166;
111.3000;0.1579;1.0048;
111.6000;0.1571;1.0048;
111.9000;0.1538;1.0071;
112.2000;0.1571;1.0071;
112.5000;0.1571;1.0095;
112.8000;0.1579;1.0143;
113.1000;0.1595;1.0237;
113.4000;0.1604;1.0261;
113.7000;0.1587;1.0190;
114.0000;0.1579;1.0166;
114.3000;0.1587;1.0166;
114.6000;0.1587;1.0119;
114.9000;0.1587;1.0143;
115.2000;0.1563;1.0048;
115.5000;0.1571;1.0071;
115.8000;0.1579;1.0095;
116.1000;0.1571;1.0143;
116.4000;0.1579;1.0190;
116.7000;0.1579;1.0237;
117.0000;0.1563;1.0261;
117.3000;0.1579;1.0308;
117.6000;0.1579;1.0332;
117.9000;0.1571;1.0332;
118.2000;0.1587;1.0474;
118.5000;0.1579;1.0474;
118.8000;0.1571;1.0427;
119.1000;0.1579;1.0380;
119.4000;0.1587;1.0403;
119.7000;0.1604;1.0522;
120.0000;0.1587;1.0451;
120.3000;0.1595;1.0427;
120.6000;0.1595;1.0474;
120.9000;0.1547;1.0332;
121.2000;0.1669;1.0664;
121.5000;0.1579;1.0403;
121.8000;0.1571;1.0356;
122.1000;0.1587;1.0356;
122.4000;0.1587;1.0308;
122.7000;0.1595;1.0308;
123.0000;0.1587;1.0261;
123.3000;0.1547;1.0119;
123.6000;0.1563;1.0048;
123.9000;0.1595;1.0143;
124.2000;0.1522;0.9929;
124.5000;0.1579;1.0071;
124.8000;0.1595;1.0166;
125.1000;0.1563;1.0095;
125.4000;0.1571;1.0095;
125.7000;0.1563;1.0071;
126.0000;0.1571;1.0071;
126.3000;0.1579;1.0048;
126.6000;0.1555;0.9977;
126.9000;0.1595;1.0143;
127.2000;0.1587;1.0143;
127.5000;0.1628;1.0214;
127.8000;0.1579;1.0095;
128.1000;0.1555;1.0166;
128.4000;0.1612;1.0308;
128.7000;0.1587;1.0143;
129.0000;0.1530;1.0024;
129.3000;0.1571;1.0143;
129.6000;0.1555;1.0071;
129.9000;0.1587;1.0143;
130.2000;0.1612;1.0119;
130.5000;0.1595;1.0143;
130.8000;0.1579;1.0119;
131.1000;0.1555;1.0071;
131.4000;0.1595;1.0166;
131.7000;0.1547;0.9977;
132.0000;0.1587;1.0166;
132.3000;0.1579;1.0119;
132.6000;0.1579;1.0095;
132.9000;0.1604;1.0143;
133.2000;0.1571;1.0143;
133.5000;0.1579;1.0190;
133.8000;0.1579;1.0214;
134.1000;0.1587;1.0237;
134.4000;0.1579;1.0308;
134.7000;0.1595;1.0427;
135.0000;0.1579;1.0498;
135.3000;0.1612;1.0545;
135.6000;0.1595;1.0545;
135.9000;0.1595;1.0498;
136.2000;0.1587;1.0380;
136.5000;0.1587;1.0380;
136.8000;0.1587;1.0332;
137.1000;0.1563;1.0285;
137.4000;0.1571;1.0261;
137.7000;0.1579;1.0261;
138.0000;0.1595;1.0285;
138.3000;0.1579;1.0403;
138.6000;0.1563;1.0356;
138.9000;0.1587;1.0308;
139.2000;0.1579;1.0356;
139.5000;0.1579;1.0285;
139.8000;0.1595;1.0308;
140.1000;0.1595;1.0190;
140.4000;0.1595;1.0166;
140.7000;0.1595;1.0071;
141.0000;0.1579;1.0048;
141.3000;0.1604;1.0095;
141.6000;0.1547;1.0000;
141.9000;0.1587;1.0190;
142.2000;0.1555;1.0214;
142.5000;0.1547;1.0166;
142.8000;0.1579;1.0356;
143.1000;0.1587;1.0427;
143.4000;0.1555;1.0356;
143.7000;0.1571;1.0451;
144.0000;0.1587;1.0474;
144.3000;0.1563;1.0451;
144.6000;0.1571;1.0380;
144.9000;0.1563;1.0427;
145.2000;0.1636;1.0569;
145.5000;0.1563;1.0356;
145.8000;0.1587;1.0356;
146.1000;0.1579;1.0308;
146.4000;0.1587;1.0285;
146.7000;0.1547;1.0237;
147.0000;0.1587;1.0332;
147.3000;0.1587;1.0308;
147.6000;0.1563;1.0237;
147.9000;0.1571;1.0214;
148.2000;0.1555;1.0190;
148.5000;0.1579;1.0237;
148.8000;0.1595;1.0356;
149.1000;0.1587;1.0356;
149.4000;0.1587;1.0356;
149.7000;0.1538;1.0261;
150.0000;0.1628;1.0474;
150.3000;0.1587;1.0403;
150.6000;0.1595;1.0403;
150.9000;0.1579;1.0237;
151.2000;0.1587;1.0237;
151.5000;0.1587;1.0356;
151.8000;0.1579;1.0332;
152.1000;0.1595;1.0356;
152.4000;0.1587;1.0380;
152.7000;0.1595;1.0356;
153.0000;0.1595;1.0380;
153.3000;0.1595;1.0380;
153.6000;0.1571;1.0403;
153.9000;0.1579;1.0380;
154.2000;0.1604;1.0285;
154.5000;0.1604;1.0237;
154.8000;0.1595;1.0285;
155.1000;0.1587;1.0237;
155.4000;0.1587;1.0261;
155.7000;0.1571;1.0190;
156.0000;0.1595;1.0237;
156.3000;0.1563;1.0261;
156.6000;0.1571;1.0166;
156.9000;0.1571;1.0214;
157.2000;0.1595;1.0285;
157.5000;0.1595;1.0308;
157.8000;0.1514;1.0190;
158.1000;0.1571;1.0308;
158.4000;0.1563;1.0356;
158.7000;0.1587;1.0451;
159.0000;0.1579;1.0474;
159.3000;0.1571;1.0451;
159.6000;0.1587;1.0451;
159.9000;0.1579;1.0522;
160.2000;0.1587;1.0474;
160.5000;0.1571;1.0403;
160.8000;0.1612;1.0522;
161.1000;0.1571;1.0427;
161.4000;0.1547;1.0285;
161.7000;0.1563;1.0332;
162.0000;0.1563;1.0427;
162.3000;0.1563;1.0308;
162.6000;0.1555;1.0237;
162.9000;0.1571;1.0308;
163.2000;0.1612;1.0522;
163.5000;0.1595;1.0427;
163.8000;0.1563;1.0261;
164.1000;0.1571;1.0190;
164.4000;0.1571;1.0261;
164.7000;0.1587;1.0237;
165.0000;0.1587;1.0285;
165.3000;0.1595;1.0308;
165.6000;0.1669;1.0403;
165.9000;0.1579;1.0119;
166.2000;0.1628;1.0214;
166.5000;0.1587;1.0190;
166.8000;0.1612;1.0190;
167.1000;0.1579;1.0119;
167.4000;0.1652;1.0356;
167.7000;0.1595;1.0237;
168.0000;0.1587;1.0143;
168.3000;0.1555;1.0119;
168.6000;0.1595;1.0237;
168.9000;0.1595;1.0190;
169.2000;0.1587;1.0214;
169.5000;0.1579;1.0166;
169.8000;0.1587;1.0143;
170.1000;0.1587;1.0119;
170.4000;0.1579;1.0071;
170.7000;0.1571;1.0048;
171.0000;0.1620;1.0166;
171.3000;0.1579;1.0119;
171.6000;0.1587;1.0166;
171.9000;0.1595;1.0261;
172.2000;0.1579;1.0261;
172.5000;0.1587;1.0237;
172.8000;0.1595;1.0285;
173.1000;0.1587;1.0190;
173.4000;0.1595;1.0143;
173.7000;0.1571;1.0119;
174.0000;0.1587;1.0143;
174.3000;0.1595;1.0095;
174.6000;0.1563;1.0024;
174.9000;0.1595;1.0095;
175.2000;0.1587;1.0048;
175.5000;0.1595;1.0095;
175.8000;0.1579;0.9977;
176.1000;0.1579;1.0024;
176.4000;0.1579;1.0024;
176.7000;0.1595;1.0095;
177.0000;0.1587;1.0095;
177.3000;0.1587;1.0095;
177.6000;0.1579;1.0071;
177.9000;0.1587;0.9977;
178.2000;0.1587;1.0048;
178.5000;0.1579;1.0071;
178.8000;0.1579;1.0190;
179.1000;0.1587;1.0214;
179.4000;0.1587;1.0237;
179.7000;0.1563;1.0237;
180.0000;0.1571;1.0285;
180.3000;0.1571;1.0285;
180.6000;0.1571;1.0285;
180.9000;0.1612;1.0427;
181.2000;0.1579;1.0356;
181.5000;0.1587;1.0308;
181.8000;0.1587;1.0380;
182.1000;0.1579;1.0285;
182.4000;0.1571;1.0261;
182.7000;0.1595;1.0237;
183.0000;0.1571;1.0166;
183.3000;0.1563;1.0190;
183.6000;0.1579;1.0214;
183.9000;0.1587;1.0214;
184.2000;0.1612;1.0308;
184.5000;0.1595;1.0214;
184.8000;0.1587;1.0143;
185.1000;0.1587;1.0119;
185.4000;0.1644;1.0190;
185.7000;0.1595;1.0214;
186.0000;0.1587;1.0261;
186.3000;0.1587;1.0237;
186.6000;0.1579;1.0166;
186.9000;0.1587;1.0190;
187.2000;0.1628;1.0356;
187.5000;0.1604;1.0237;
187.8000;0.1579;1.0143;
188.1000;0.1587;1.0095;
188.4000;0.1514;0.9906;
188.7000;0.1587;1.0024;
189.0000;0.1587;1.0024;
189.3000;0.1571;0.9977;
189.6000;0.1587;1.0000;
189.9000;0.1587;0.9953;
190.2000;0.1579;0.9977;
190.5000;0.1530;0.9882;
190.8000;0.1612;0.9977;
191.1000;0.1587;0.9906;
191.4000;0.1587;0.9906;
191.7000;0.1595;0.9906;
192.0000;0.1579;0.9929;
192.3000;0.1587;1.0071;
192.6000;0.1563;1.0048;
192.9000;0.1571;1.0048;
193.2000;0.1579;1.0071;
193.5000;0.1587;1.0048;
193.8000;0.1571;1.0000;
194.1000;0.1579;1.0000;
194.4000;0.1595;1.0000;
194.7000;0.1587;1.0024;
195.0000;0.1587;1.0071;
195.3000;0.1579;1.0071;
195.6000;0.1579;1.0095;
195.9000;0.1612;1.0143;
196.2000;0.1587;1.0143;
196.5000;0.1563;1.0095;
196.8000;0.1563;1.0119;
197.1000;0.1571;1.0119;
197.4000;0.1579;1.0143;
197.7000;0.1579;1.0143;
198.0000;0.1571;1.0119;
198.3000;0.1547;1.0071;
198.6000;0.1571;1.0071;
198.9000;0.1563;0.9953;
199.2000;0.1587;1.0024;
199.5000;0.1571;1.0048;
199.8000;0.1587;1.0095;
200.1000;0.1571;1.0048;
200.4000;0.1547;0.9953;
200.7000;0.1587;0.9977;
201.0000;0.1579;1.0000;
201.3000;0.1595;1.0024;
201.6000;0.1571;1.0048;
201.9000;0.1579;1.0071;
202.2000;0.1595;1.0119;
202.5000;0.1595;1.0095;
202.8000;0.1579;1.0095;
203.1000;0.1571;1.0071;
203.4000;0.1579;1.0119;
203.7000;0.1571;1.0095;
204.0000;0.1579;1.0095;
204.3000;0.1555;1.0095;
204.6000;0.1563;1.0095;
204.9000;0.1571;1.0119;
205.2000;0.1579;1.0166;
205.5000;0.1571;1.0095;
205.8000;0.1563;1.0095;
206.1000;0.1547;1.0095;
206.4000;0.1579;1.0048;
206.7000;0.1571;1.0048;
207.0000;0.1571;0.9953;
207.3000;0.1579;0.9953;
207.6000;0.1587;1.0000;
207.9000;0.1579;0.9953;
208.2000;0.1555;1.0000;
208.5000;0.1579;1.0071;
208.8000;0.1563;0.9977;
209.1000;0.1571;1.0000;
209.4000;0.1595;1.0048;
209.7000;0.1563;0.9929;
210.0000;0.1571;1.0000;
210.3000;0.1604;1.0166;
210.6000;0.1579;1.0166;
210.9000;0.1636;1.0403;
211.2000;0.1587;1.0308;
211.5000;0.1579;1.0356;
211.8000;0.1579;1.0190;
212.1000;0.1661;1.0380;
212.4000;0.1555;1.0143;
212.7000;0.1595;1.0190;
213.0000;0.1587;1.0119;
213.3000;0.1604;1.0237;
213.6000;0.1571;1.0166;
213.9000;0.1587;1.0143;
214.2000;0.1579;1.0166;
214.5000;0.1579;1.0190;
214.8000;0.1595;1.0119;
215.1000;0.1587;1.0071;
215.4000;0.1571;1.0190;
215.7000;0.1579;1.0214;
216.0000;0.1571;1.0214;
216.3000;0.1579;1.0214;
216.6000;0.1587;1.0190;
216.9000;0.1571;1.0214;
217.2000;0.1595;1.0332;
217.5000;0.1579;1.0261;
217.8000;0.1555;1.0308;
218.1000;0.1571;1.0285;
218.4000;0.1579;1.0261;
218.7000;0.1579;1.0261;
219.0000;0.1571;1.0237;
219.3000;0.1669;1.0451;
219.6000;0.1571;1.0166;
219.9000;0.1571;1.0143;
220.2000;0.1555;1.0071;
220.5000;0.1587;1.0166;
220.8000;0.1538;1.0071;
221.1000;0.1579;1.0190;
221.4000;0.1522;0.9977;
221.7000;0.1579;0.9977;
222.0000;0.1538;0.9858;
222.3000;0.1595;0.9977;
222.6000;0.1579;0.9977;
222.9000;0.1612;0.9977;
223.2000;0.1587;0.9953;
223.5000;0.1587;1.0000;
223.8000;0.1563;1.0000;
224.1000;0.1644;1.0095;
224.4000;0.1595;1.0024;
224.7000;0.1595;1.0048;
225.0000;0.1547;0.9929;
225.3000;0.1587;1.0000;
225.6000;0.1620;1.0048;
225.9000;0.1612;1.0000;
226.2000;0.1587;0.9953;
226.5000;0.1587;0.9929;
226.8000;0.1587;0.9906;
227.1000;0.1587;0.9953;
227.4000;0.1595;1.0000;
227.7000;0.1587;0.9929;
228.0000;0.1595;0.9906;
228.3000;0.1571;0.9763;
228.6000;0.1587;0.9811;
228.9000;0.1595;0.9858;
229.2000;0.1571;0.9834;
229.5000;0.1579;0.9906;
229.8000;0.1734;1.0356;
230.1000;0.1579;1.0000;
230.4000;0.1555;0.9858;
230.7000;0.1571;0.9763;
231.0000;0.1595;0.9811;
231.3000;0.1612;0.9882;
231.6000;0.1571;0.9834;
231.9000;0.1514;0.9763;
232.2000;0.1579;0.9929;
232.5000;0.1595;0.9953;
232.8000;0.1571;0.9882;
233.1000;0.1579;0.9906;
233.4000;0.1595;0.9953;
233.7000;0.1587;0.9977;
234.0000;0.1571;0.9929;
234.3000;0.1579;1.0071;
234.6000;0.1587;1.0024;
234.9000;0.1612;1.0048;
235.2000;0.1612;1.0048;
235.5000;0.1587;1.0000;
235.8000;0.1514;0.9787;
236.1000;0.1595;0.9977;
236.4000;0.1579;1.0048;
236.7000;0.1595;1.0071;
237.0000;0.1579;1.0071;
237.3000;0.1579;1.0024;
237.6000;0.1579;0.9977;
237.9000;0.1587;1.0119;
238.2000;0.1579;1.0119;
238.5000;0.1595;1.0143;
238.8000;0.1604;1.0071;
239.1000;0.1587;0.9906;
239.4000;0.1579;0.9882;
239.7000;0.1563;0.9953;
240.0000;0.1604;1.0048;
240.3000;0.1579;0.9929;
240.6000;0.1587;0.9906;
240.9000;0.1595;0.9929;
241.2000;0.1628;1.0071;
241.5000;0.1587;0.9929;
241.8000;0.1579;0.9929;
242.1000;0.1563;0.9858;
242.4000;0.1514;0.9740;
242.7000;0.1579;0.9953;
243.0000;0.1571;0.9882;
243.3000;0.1579;0.9882;
243.6000;0.1571;0.9953;
243.9000;0.1587;1.0048;
244.2000;0.1595;1.0071;
244.5000;0.1587;1.0024;
244.8000;0.1595;1.0024;
245.1000;0.1612;0.9929;
245.4000;0.1587;0.9858;
245.7000;0.1587;0.9929;
246.0000;0.1628;1.0071;
246.3000;0.1595;0.9977;
246.6000;0.1595;0.9953;
246.9000;0.1563;0.9882;
247.2000;0.1563;0.9906;
247.5000;0.1563;0.9929;
247.8000;0.1612;1.0000;
248.1000;0.1555;0.9977;
248.4000;0.1579;1.0048;
248.7000;0.1579;1.0119;
249.0000;0.1612;1.0214;
249.3000;0.1587;1.0071;
249.6000;0.1579;0.9977;
249.9000;0.1661;1.0166;
250.2000;0.1587;0.9906;
250.5000;0.1620;1.0024;
250.8000;0.1579;0.9906;
251.1000;0.1547;0.9811;
251.4000;0.1587;0.9929;
251.7000;0.1587;0.9906;
252.0000;0.1547;0.9882;
252.3000;0.1571;0.9977;
252.6000;0.1571;1.0024;
252.9000;0.1587;1.0071;
253.2000;0.1579;0.9953;
253.5000;0.1571;1.0024;
253.8000;0.1595;1.0143;
254.1000;0.1571;1.0071;
254.4000;0.1587;1.0024;
254.7000;0.1579;1.0024;
255.0000;0.1571;1.0024;
255.3000;0.1555;1.0119;
255.6000;0.1571;1.0095;
255.9000;0.1571;1.0190;
256.2000;0.1579;1.0214;
256.5000;0.1571;1.0261;
256.8000;0.1571;1.0237;
257.1000;0.1636;1.0427;
257.4000;0.1514;1.0095;
257.7000;0.1571;1.0143;
258.0000;0.1571;1.0119;
258.3000;0.1595;1.0237;
258.6000;0.1604;1.0261;
258.9000;0.1604;1.0143;
259.2000;0.1579;1.0143;
259.5000;0.1563;1.0143;
259.8000;0.1571;1.0143;
260.1000;0.1555;1.0143;
260.4000;0.1636;1.0356;
260.7000;0.1579;1.0166;
261.0000;0.1595;1.0214;
261.3000;0.1669;1.0332;
261.6000;0.1587;1.0095;
261.9000;0.1595;1.0071;
262.2000;0.1563;0.9977;
262.5000;0.1595;1.0071;
262.8000;0.1587;1.0000;
263.1000;0.1587;1.0024;
263.4000;0.1628;1.0095;
263.7000;0.1579;0.9977;
264.0000;0.1571;0.9929;
264.3000;0.1612;1.0024;
264.6000;0.1595;1.0000;
264.9000;0.1579;0.9929;
265.2000;0.1530;0.9834;
265.5000;0.1587;1.0000;
265.8000;0.1579;1.0024;
266.1000;0.1571;1.0048;
266.4000;0.1579;1.0024;
266.7000;0.1579;0.9953;
267.0000;0.1579;0.9906;
267.3000;0.1636;1.0071;
267.6000;0.1595;1.0024;
267.9000;0.1579;0.9977;
268.2000;0.1587;1.0024;
268.5000;0.1579;0.9977;
268.8000;0.1571;1.0000;
269.1000;0.1587;1.0024;
269.4000;0.1579;1.0071;
269.7000;0.1612;1.0285;
270.0000;0.1571;1.0190;
270.3000;0.1571;1.0166;
270.6000;0.1579;1.0095;
270.9000;0.1579;1.0143;
271.2000;0.1587;1.0143;
271.5000;0.1571;1.0095;
271.8000;0.1571;1.0119;
272.1000;0.1587;1.0119;
272.4000;0.1595;1.0119;
272.7000;0.1579;1.0119;
273.0000;0.1595;1.0237;
273.3000;0.1571;1.0190;
273.6000;0.1612;1.0261;
273.9000;0.1595;1.0119;
274.2000;0.1563;1.0071;
274.5000;0.1498;0.9882;
274.8000;0.1579;1.0024;
275.1000;0.1595;0.9953;
275.4000;0.1595;0.9906;
275.7000;0.1571;0.9787;
276.0000;0.1595;0.9882;
276.3000;0.1587;0.9882;
276.6000;0.1579;0.9834;
276.9000;0.1587;0.9834;
277.2000;0.1563;0.9834;
277.5000;0.1595;0.9977;
277.8000;0.1579;1.0000;
278.1000;0.1555;0.9953;
278.4000;0.1604;1.0048;
278.7000;0.1571;1.0048;
279.0000;0.1571;1.0095;
279.3000;0.1579;1.0119;
279.6000;0.1563;1.0071;
279.9000;0.1587;1.0095;
280.2000;0.1571;1.0095;
280.5000;0.1595;1.0024;
280.8000;0.1571;0.9953;
281.1000;0.1579;0.9977;
281.4000;0.1604;1.0095;
281.7000;0.1563;0.9929;
282.0000;0.1587;0.9953;
282.3000;0.1547;0.9906;
282.6000;0.1620;1.0095;
282.9000;0.1604;1.0095;
283.2000;0.1595;1.0119;
283.5000;0.1587;1.0071;
283.8000;0.1587;1.0048;
284.1000;0.1604;1.0143;
284.4000;0.1587;1.0190;
284.7000;0.1587;1.0166;
285.0000;0.1587;1.0190;
285.3000;0.1579;1.0190;
285.6000;0.1563;1.0166;
285.9000;0.1579;1.0261;
286.2000;0.1563;1.0237;
286.5000;0.1595;1.0332;
286.8000;0.1547;1.0166;
287.1000;0.1579;1.0237;
287.4000;0.1514;1.0071;
287.7000;0.1587;1.0285;
288.0000;0.1595;1.0214;
288.3000;0.1530;1.0024;
288.6000;0.1579;1.0095;
288.9000;0.1595;1.0071;
289.2000;0.1595;1.0048;
289.5000;0.1587;1.0095;
289.8000;0.1620;1.0190;
290.1000;0.1579;1.0048;
290.4000;0.1587;1.0024;
290.7000;0.1604;1.0190;
291.0000;0.1587;1.0143;
291.3000;0.1571;1.0143;
291.6000;0.1579;1.0166;
291.9000;0.1587;1.0119;
292.2000;0.1579;1.0071;
292.5000;0.1579;1.0000;
292.8000;0.1587;0.9977;
293.1000;0.1579;1.0048;
293.4000;0.1587;1.0000;
293.7000;0.1571;1.0000;
294.0000;0.1579;1.0000;
294.3000;0.1571;1.0000;
294.6000;0.1587;1.0048;
294.9000;0.1579;1.0024;
295.2000;0.1571;0.9977;
295.5000;0.1563;0.9929;
295.8000;0.1587;0.9977;
296.1000;0.1571;0.9929;
296.4000;0.1571;0.9953;
296.7000;0.1579;0.9977;
297.0000;0.1579;1.0000;
297.3000;0.1579;1.0071;
297.6000;0.1538;1.0000;
297.9000;0.1571;1.0024;
298.2000;0.1563;0.9929;
298.5000;0.1563;0.9929;
298.8000;0.1571;0.9953;
299.1000;0.1595;1.0119;
299.4000;0.1587;1.0095;
299.7000;0.1587;1.0095;
300.0000;0.1555;1.0048;
300.3000;0.1571;1.0143;
300.6000;0.1587;1.0166;
300.9000;0.1571;1.0261;
301.2000;0.1547;1.0214;
301.5000;0.1587;1.0214;
301.8000;0.1522;1.0119;
302.1000;0.1587;1.0237;
302.4000;0.1563;1.0166;
302.7000;0.1579;1.0143;
303.0000;0.1547;1.0143;
303.3000;0.1579;1.0190;
303.6000;0.1571;1.0071;
303.9000;0.1579;1.0024;
304.2000;0.1579;1.0071;
304.5000;0.1571;1.0024;
304.8000;0.1595;1.0143;
305.1000;0.1587;1.0143;
305.4000;0.1538;1.0048;
305.7000;0.1579;1.0071;
306.0000;0.1571;1.0119;
306.3000;0.1604;1.0143;
306.6000;0.1587;1.0071;
306.9000;0.1587;1.0000;
307.2000;0.1595;0.9977;
307.5000;0.1579;1.0071;
307.8000;0.1579;1.0048;
308.1000;0.1587;1.0071;
308.4000;0.1571;1.0048;
308.7000;0.1571;1.0119;
309.0000;0.1661;1.0403;
309.3000;0.1579;1.0143;
309.6000;0.1595;1.0237;
309.9000;0.1579;1.0095;
310.2000;0.1563;1.0119;
310.5000;0.1563;1.0095;
310.8000;0.1587;1.0095;
311.1000;0.1571;1.0143;
311.4000;0.1571;1.0119;
311.7000;0.1571;1.0095;
312.0000;0.1587;1.0095;
312.3000;0.1563;1.0024;
312.6000;0.1587;1.0024;
312.9000;0.1579;0.9953;
313.2000;0.1506;0.9787;
313.5000;0.1571;1.0071;
313.8000;0.1595;1.0166;
314.1000;0.1571;1.0095;
314.4000;0.1563;1.0000;
314.7000;0.1563;0.9977;
315.0000;0.1579;1.0048;
315.3000;0.1595;1.0071;
315.6000;0.1579;1.0119;
315.9000;0.1563;1.0166;
316.2000;0.1587;1.0119;
316.5000;0.1587;1.0143;
316.8000;0.1587;1.0214;
317.1000;0.1587;1.0285;
317.4000;0.1595;1.0237;
317.7000;0.1604;1.0214;
318.0000;0.1587;1.0143;
318.3000;0.1587;1.0095;
318.6000;0.1595;1.0166;
318.9000;0.1595;1.0166;
319.2000;0.1522;1.0048;
319.5000;0.1555;1.0119;
319.8000;0.1595;1.0261;
320.1000;0.1579;1.0190;
320.4000;0.1563;1.0214;
320.7000;0.1571;1.0119;
321.0000;0.1571;1.0048;
321.3000;0.1579;1.0024;
321.6000;0.1587;1.0048;
321.9000;0.1587;1.0119;
322.2000;0.1579;1.0119;
322.5000;0.1571;1.0119;
322.8000;0.1571;1.0048;
323.1000;0.1571;1.0048;
323.4000;0.1579;1.0024;
323.7000;0.1571;1.0000;
324.0000;0.1571;1.0071;
324.3000;0.1571;1.0095;
324.6000;0.1612;1.0143;
324.9000;0.1538;0.9953;
325.2000;0.1579;1.0000;
325.5000;0.1579;1.0071;
325.8000;0.1579;1.0095;
326.1000;0.1604;1.0119;
326.4000;0.1571;1.0071;
326.7000;0.1555;1.0024;
327.0000;0.1579;1.0024;
327.3000;0.1587;0.9906;
327.6000;0.1563;0.9858;
327.9000;0.1571;0.9882;
328.2000;0.1579;1.0024;
328.5000;0.1563;0.9953;
328.8000;0.1587;1.0000;
329.1000;0.1587;1.0000;
329.4000;0.1579;1.0024;
329.7000;0.1571;1.0024;
330.0000;0.1579;0.9977;
330.3000;0.1587;1.0048;
330.6000;0.1587;1.0143;
330.9000;0.1587;1.0166;
331.2000;0.1579;1.0190;
331.5000;0.1571;1.0166;
331.8000;0.1587;1.0190;
332.1000;0.1571;1.0190;
332.4000;0.1587;1.0143;
332.7000;0.1579;1.0166;
333.0000;0.1579;1.0190;
333.3000;0.1571;1.0166;
333.6000;0.1563;1.0119;
333.9000;0.1579;1.0024;
334.2000;0.1595;1.0095;
334.5000;0.1604;1.0071;
334.8000;0.1612;1.0024;
335.1000;0.1571;0.9953;
335.4000;0.1604;1.0048;
335.7000;0.1563;1.0024;
336.0000;0.1595;1.0166;
336.3000;0.1547;1.0048;
336.6000;0.1571;1.0143;
336.9000;0.1571;1.0143;
337.2000;0.1579;1.0166;
337.5000;0.1579;1.0237;
337.8000;0.1506;1.0119;
338.1000;0.1579;1.0261;
338.4000;0.1579;1.0095;
338.7000;0.1587;1.0095;
339.0000;0.1571;1.0048;
339.3000;0.1571;1.0000;
339.6000;0.1571;1.0000;
339.9000;0.1587;1.0095;
340.2000;0.1579;1.0143;
340.5000;0.1595;1.0190;
340.8000;0.1595;1.0214;
341.1000;0.1595;1.0214;
341.4000;0.1587;1.0261;
341.7000;0.1595;1.0261;
342.0000;0.1579;1.0143;
342.3000;0.1595;1.0190;
342.6000;0.1620;1.0214;
342.9000;0.1587;1.0166;
343.2000;0.1547;1.0048;
343.5000;0.1595;1.0095;
343.8000;0.1587;1.0095;
344.1000;0.1587;1.0119;
344.4000;0.1579;1.0190;
344.7000;0.1587;1.0119;
345.0000;0.1579;1.0095;
345.3000;0.1587;1.0119;
345.6000;0.1522;0.9882;
345.9000;0.1587;1.0048;
346.2000;0.1587;1.0024;
346.5000;0.1595;1.0071;
346.8000;0.1595;1.0190;
347.1000;0.1579;1.0166;
347.4000;0.1571;1.0190;
347.7000;0.1579;1.0214;
348.0000;0.1571;1.0166;
348.3000;0.1587;1.0214;
348.6000;0.1587;1.0261;
348.9000;0.1579;1.0190;
349.2000;0.1579;1.0143;
349.5000;0.1571;1.0143;
349.8000;0.1587;1.0214;
350.1000;0.1587;1.0237;
350.4000;0.1579;1.0332;
350.7000;0.1587;1.0380;
351.0000;0.1571;1.0356;
351.3000;0.1620;1.0474;
351.6000;0.1579;1.0308;
351.9000;0.1595;1.0308;
352.2000;0.1579;1.0143;
352.5000;0.1587;1.0071;
352.8000;0.1579;1.0000;
353.1000;0.1563;0.9929;
353.4000;0.1587;1.0024;
353.7000;0.1571;1.0024;
354.0000;0.1579;1.0095;
354.3000;0.1571;1.0190;
354.6000;0.1555;1.0143;
354.9000;0.1563;1.0166;
355.2000;0.1579;1.0143;
355.5000;0.1579;1.0166;
355.8000;0.1522;0.9906;
356.1000;0.1587;1.0119;
356.4000;0.1555;1.0095;
356.7000;0.1579;1.0166;
357.0000;0.1587;1.0143;
357.3000;0.1579;1.0166;
357.6000;0.1563;1.0143;
357.9000;0.1587;1.0237;
358.2000;0.1563;1.0143;
358.5000;0.1571;1.0237;
358.8000;0.1555;1.0214;
359.1000;0.1579;1.0143;
359.4000;0.1604;1.0261;
359.7000;0.1563;1.0190;
360.0000;0.1587;1.0285;
360.3000;0.1571;1.0214;
360.6000;0.1579;1.0190;
360.9000;0.1579;1.0237;
361.2000;0.1595;1.0308;
361.5000;0.1579;1.0261;
361.8000;0.1571;1.0214;
362.1000;0.1595;1.0237;
362.4000;0.1579;1.0190;
362.7000;0.1571;1.0190;
363.0000;0.1555;1.0214;
363.3000;0.1595;1.0237;
363.6000;0.1579;1.0143;
363.9000;0.1587;1.0214;
364.2000;0.1587;1.0214;
364.5000;0.1563;1.0024;
364.8000;0.1620;1.0166;
365.1000;0.1563;1.0071;
365.4000;0.1579;1.0024;
365.7000;0.1571;1.0048;
366.0000;0.1579;1.0095;
366.3000;0.1563;1.0119;
366.6000;0.1587;1.0143;
366.9000;0.1571;1.0048;
367.2000;0.1587;1.0095;
367.5000;0.1579;1.0095;
367.8000;0.1579;1.0095;
368.1000;0.1563;1.0024;
368.4000;0.1595;1.0143;
368.7000;0.1571;1.0119;
369.0000;0.1587;1.0237;
369.3000;0.1595;1.0261;
369.6000;0.1595;1.0237;
369.9000;0.1555;1.0190;
370.2000;0.1563;1.0214;
370.5000;0.1563;1.0214;
370.8000;0.1571;1.0261;
371.1000;0.1595;1.0332;
371.4000;0.1612;1.0356;
371.7000;0.1587;1.0332;
372.0000;0.1579;1.0332;
372.3000;0.1587;1.0261;
372.6000;0.1604;1.0190;
372.9000;0.1563;1.0071;
373.2000;0.1579;1.0071;
373.5000;0.1530;0.9977;
373.8000;0.1571;1.0143;
374.1000;0.1604;1.0261;
374.4000;0.1595;1.0285;
374.7000;0.1595;1.0166;
375.0000;0.1612;1.0285;
375.3000;0.1555;1.0071;
375.6000;0.1661;1.0380;
375.9000;0.1547;1.0143;
376.2000;0.1538;1.0143;
376.5000;0.1547;1.0071;
376.8000;0.1571;1.0095;
377.1000;0.1579;1.0143;
377.4000;0.1555;1.0095;
377.7000;0.1579;1.0190;
378.0000;0.1628;1.0308;
378.3000;0.1579;1.0261;
378.6000;0.1579;1.0285;
378.9000;0.1571;1.0308;
379.2000;0.1563;1.0237;
379.5000;0.1652;1.0451;
379.8000;0.1579;1.0237;
380.1000;0.1579;1.0190;
380.4000;0.1490;1.0000;
380.7000;0.1563;1.0190;
381.0000;0.1644;1.0451;
381.3000;0.1587;1.0237;
381.6000;0.1571;1.0143;
381.9000;0.1571;1.0214;
382.2000;0.1571;1.0214;
382.5000;0.1587;1.0143;
382.8000;0.1604;1.0190;
383.1000;0.1579;1.0143;
383.4000;0.1579;1.0166;
383.7000;0.1530;1.0071;
384.0000;0.1571;1.0214;
384.3000;0.1571;1.0237;
384.6000;0.1563;1.0237;
384.9000;0.1595;1.0356;
385.2000;0.1579;1.0356;
385.5000;0.1579;1.0332;
385.8000;0.1571;1.0285;
386.1000;0.1579;1.0332;
386.4000;0.1579;1.0237;
386.7000;0.1555;1.0119;
387.0000;0.1563;1.0143;
387.3000;0.1587;1.0214;
387.6000;0.1595;1.0214;
387.9000;0.1571;1.0190;
388.2000;0.1579;1.0285;
388.5000;0.1563;1.0190;
388.8000;0.1571;1.0237;
389.1000;0.1595;1.0332;
389.4000;0.1579;1.0285;
389.7000;0.1547;1.0237;
390.0000;0.1595;1.0237;
390.3000;0.1587;1.0237;
390.6000;0.1628;1.0356;
390.9000;0.1587;1.0380;
391.2000;0.1579;1.0380;
391.5000;0.1571;1.0356;
391.8000;0.1579;1.0356;
392.1000;0.1563;1.0308;
392.4000;0.1587;1.0261;
392.7000;0.1604;1.0261;
393.0000;0.1555;1.0119;
393.3000;0.1571;1.0095;
393.6000;0.1555;1.0048;
393.9000;0.1595;1.0214;
394.2000;0.1571;1.0214;
394.5000;0.1579;1.0285;
394.8000;0.1579;1.0237;
395.1000;0.1571;1.0237;
395.4000;0.1636;1.0427;
395.7000;0.1587;1.0356;
396.0000;0.1579;1.0427;
396.3000;0.1571;1.0403;
396.6000;0.1595;1.0380;
396.9000;0.1587;1.0403;
397.2000;0.1555;1.0356;
397.5000;0.1547;1.0261;
397.8000;0.1579;1.0261;
398.1000;0.1644;1.0427;
398.4000;0.1547;1.0119;
398.7000;0.1563;1.0214;
399.0000;0.1595;1.0190;
399.3000;0.1563;1.0166;
399.6000;0.1587;1.0190;
399.9000;0.1555;1.0095;
400.2000;0.1604;1.0166;
400.5000;0.1595;1.0143;
400.8000;0.1595;1.0143;
401.1000;0.1579;1.0143;
401.4000;0.1579;1.0095;
401.7000;0.1587;1.0143;
402.0000;0.1587;1.0166;
402.3000;0.1587;1.0166;
402.6000;0.1587;1.0166;
402.9000;0.1579;1.0143;
403.2000;0.1579;1.0119;
403.5000;0.1538;0.9953;
403.8000;0.1579;1.0095;
404.1000;0.1587;1.0095;
404.4000;0.1587;1.0071;
404.7000;0.1587;1.0261;
405.0000;0.1571;1.0166;
405.3000;0.1579;1.0190;
405.6000;0.1595;1.0119;
405.9000;0.1595;1.0095;
406.2000;0.1604;1.0048;
406.5000;0.1579;1.0024;
406.8000;0.1579;1.0071;
407.1000;0.1587;1.0166;
407.4000;0.1555;1.0071;
407.7000;0.1571;1.0143;
408.0000;0.1522;1.0024;
408.3000;0.1579;1.0166;
408.6000;0.1555;1.0071;
408.9000;0.1587;1.0119;
409.2000;0.1579;1.0166;
409.5000;0.1579;1.0190;
409.8000;0.1587;1.0190;
410.1000;0.1587;1.0237;
410.4000;0.1563;1.0190;
410.7000;0.1571;1.0237;
411.0000;0.1563;1.0143;
411.3000;0.1579;1.0214;
411.6000;0.1579;1.0190;
411.9000;0.1579;1.0285;
412.2000;0.1571;1.0285;
412.5000;0.1604;1.0332;
412.8000;0.1579;1.0308;
413.1000;0.1579;1.0214;
413.4000;0.1579;1.0214;
413.7000;0.1579;1.0214;
414.0000;0.1465;1.0000;
414.3000;0.1563;1.0166;
414.6000;0.1571;1.0261;
414.9000;0.1571;1.0214;
415.2000;0.1579;1.0214;
415.5000;0.1538;1.0095;
415.8000;0.1555;1.0119;
416.1000;0.1563;1.0214;
416.4000;0.1563;1.0190;
416.7000;0.1571;1.0190;
417.0000;0.1555;1.0071;
417.3000;0.1579;1.0095;
417.6000;0.1571;1.0119;
417.9000;0.1587;1.0143;
418.2000;0.1571;1.0095;
418.5000;0.1563;1.0166;
418.8000;0.1579;1.0143;
419.1000;0.1587;1.0166;
419.4000;0.1555;1.0095;
419.7000;0.1579;1.0119;
420.0000;0.1547;1.0048;
420.3000;0.1595;1.0119;
420.6000;0.1579;1.0190;
420.9000;0.1571;1.0095;
421.2000;0.1571;1.0000;
421.5000;0.1579;1.0024;
421.8000;0.1587;1.0000;
422.1000;0.1547;0.9929;
422.4000;0.1604;1.0000;
422.7000;0.1595;0.9929;
423.0000;0.1595;0.9906;
423.3000;0.1579;0.9858;
423.6000;0.1579;0.9953;
423.9000;0.1555;0.9882;
424.2000;0.1587;1.0071;
424.5000;0.1579;1.0119;
424.8000;0.1563;1.0143;
425.1000;0.1595;1.0119;
425.4000;0.1571;1.0024;
425.7000;0.1579;1.0071;
426.0000;0.1563;1.0071;
426.3000;0.1595;1.0095;
426.6000;0.1571;1.0095;
426.9000;0.1595;1.0143;
427.2000;0.1555;1.0048;
427.5000;0.1587;1.0143;
427.8000;0.1571;1.0143;
428.1000;0.1595;1.0190;
428.4000;0.1563;1.0143;
428.7000;0.1571;1.0285;
429.0000;0.1571;1.0285;
429.3000;0.1587;1.0285;
429.6000;0.1563;1.0308;
429.9000;0.1579;1.0261;
430.2000;0.1604;1.0332;
430.5000;0.1571;1.0285;
430.8000;0.1563;1.0214;
431.1000;0.1571;1.0308;
431.4000;0.1538;1.0166;
431.7000;0.1579;1.0214;
432.0000;0.1571;1.0166;
432.3000;0.1563;1.0143;
432.6000;0.1579;1.0143;
432.9000;0.1587;1.0190;
433.2000;0.1555;1.0143;
433.5000;0.1555;1.0119;
433.8000;0.1571;1.0071;
434.1000;0.1595;1.0119;
434.4000;0.1571;1.0143;
434.7000;0.1522;1.0048;
435.0000;0.1555;1.0190;
435.3000;0.1579;1.0214;
435.6000;0.1571;1.0166;
435.9000;0.1595;1.0119;
436.2000;0.1571;1.0024;
436.5000;0.1685;1.0261;
436.8000;0.1595;0.9977;
437.1000;0.1587;1.0000;
437.4000;0.1579;0.9977;
437.7000;0.1587;1.0000;
438.0000;0.1587;1.0071;
438.3000;0.1595;1.0143;
438.6000;0.1579;1.0071;
438.9000;0.1587;1.0095;
439.2000;0.1571;1.0024;
439.5000;0.1620;1.0024;
439.8000;0.1587;1.0095;
440.1000;0.1587;0.9953;
440.4000;0.1579;1.0024;
440.7000;0.1612;1.0071;
441.0000;0.1547;0.9929;
441.3000;0.1587;0.9906;
441.6000;0.1579;0.9953;
441.9000;0.1563;0.9953;
442.2000;0.1579;0.9977;
442.5000;0.1587;0.9977;
442.8000;0.1563;0.9977;
443.1000;0.1579;0.9977;
443.4000;0.1587;1.0095;
443.7000;0.1579;1.0119;
444.0000;0.1571;1.0119;
444.3000;0.1571;1.0143;
444.6000;0.1579;1.0119;
444.9000;0.1604;1.0261;
445.2000;0.1571;1.0048;
445.5000;0.1571;0.9929;
445.8000;0.1563;0.9882;
446.1000;0.1595;0.9906;
446.4000;0.1587;0.9906;
446.7000;0.1587;0.9882;
447.0000;0.1587;0.9977;
447.3000;0.1620;1.0071;
447.6000;0.1579;0.9953;
447.9000;0.1579;1.0000;
448.2000;0.1579;1.0000;
448.5000;0.1595;1.0095;
448.8000;0.1595;1.0095;
449.1000;0.1498;0.9787;
449.4000;0.1579;1.0024;
449.7000;0.1579;1.0048;
450.0000;0.1538;1.0000;
450.3000;0.1571;1.0048;
450.6000;0.1579;1.0024;
450.9000;0.1579;0.9977;
451.2000;0.1571;1.0000;
451.5000;0.1579;0.9977;
451.8000;0.1612;1.0166;
452.1000;0.1579;1.0000;
452.4000;0.1522;0.9834;
452.7000;0.1571;0.9953;
453.0000;0.1547;0.9929;
453.3000;0.1571;0.9906;
453.6000;0.1579;1.0024;
453.9000;0.1579;1.0048;
454.2000;0.1547;0.9977;
454.5000;0.1555;0.9977;
454.8000;0.1555;0.9953;
455.1000;0.1571;1.0024;
455.4000;0.1563;0.9906;
455.7000;0.1579;1.0000;
456.0000;0.1571;0.9977;
456.3000;0.1579;1.0000;
456.6000;0.1579;0.9929;
456.9000;0.1571;0.9929;
457.2000;0.1587;1.0000;
457.5000;0.1587;1.0024;
457.8000;0.1571;1.0095;
458.1000;0.1579;1.0119;
458.4000;0.1579;1.0214;
458.7000;0.1563;1.0166;
459.0000;0.1587;1.0143;
459.3000;0.1587;1.0095;
459.6000;0.1579;1.0166;
459.9000;0.1563;1.0095;
460.2000;0.1579;1.0024;
460.5000;0.1579;1.0048;
460.8000;0.1530;0.9929;
461.1000;0.1587;1.0048;
461.4000;0.1587;0.9953;
461.7000;0.1547;0.9834;
462.0000;0.1547;0.9811;
462.3000;0.1571;0.9882;
462.6000;0.1587;0.9906;
462.9000;0.1587;0.9929;
463.2000;0.1571;1.0024;
463.5000;0.1587;1.0024;
463.8000;0.1563;0.9929;
464.1000;0.1579;1.0048;
464.4000;0.1579;1.0000;
464.7000;0.1522;0.9882;
465.0000;0.1661;1.0214;
465.3000;0.1579;1.0048;
465.6000;0.1579;1.0048;
465.9000;0.1579;1.0071;
466.2000;0.1547;0.9953;
466.5000;0.1571;0.9882;
466.8000;0.1612;1.0071;
467.1000;0.1620;1.0024;
467.4000;0.1604;0.9858;
467.7000;0.1579;0.9882;
468.0000;0.1530;0.9787;
468.3000;0.1579;1.0024;
468.6000;0.1604;1.0024;
468.9000;0.1571;0.9953;
469.2000;0.1587;1.0000;
469.5000;0.1555;0.9929;
469.8000;0.1571;0.9929;
470.1000;0.1490;0.9740;
470.4000;0.1595;1.0000;
470.7000;0.1579;0.9977;
471.0000;0.1587;1.0024;
471.3000;0.1571;0.9977;
471.6000;0.1604;1.0095;
471.9000;0.1522;0.9953;
472.2000;0.1604;1.0048;
472.5000;0.1571;0.9953;
472.8000;0.1587;1.0000;
473.1000;0.1547;0.9882;
473.4000;0.1522;0.9787;
473.7000;0.1514;0.9834;
474.0000;0.1587;1.0000;
474.3000;0.1587;0.9929;
474.6000;0.1538;0.9882;
474.9000;0.1538;0.9953;
475.2000;0.1571;1.0048;
475.5000;0.1579;1.0095;
475.8000;0.1587;1.0119;
476.1000;0.1587;1.0071;
476.4000;0.1587;1.0048;
476.7000;0.1563;0.9906;
477.0000;0.1587;0.9977;
477.3000;0.1522;0.9763;
477.6000;0.1571;0.9882;
477.9000;0.1587;0.9882;
478.2000;0.1595;1.0000;
478.5000;0.1595;1.0000;
478.8000;0.1620;1.0119;
479.1000;0.1595;1.0095;
479.4000;0.1563;1.0095;
479.7000;0.1587;1.0237;
480.0000;0.1571;1.0214;
480.3000;0.1563;1.0214;
480.6000;0.1579;1.0237;
480.9000;0.1579;1.0190;
481.2000;0.1595;1.0190;
481.5000;0.1579;1.0166;
481.8000;0.1555;1.0214;
482.1000;0.1579;1.0261;
482.4000;0.1587;1.0356;
482.7000;0.1563;1.0285;
483.0000;0.1538;1.0190;
483.3000;0.1555;1.0166;
483.6000;0.1587;1.0237;
483.9000;0.1579;1.0214;
484.2000;0.1587;1.0261;
484.5000;0.1595;1.0261;
484.8000;0.1579;1.0190;
485.1000;0.1563;1.0119;
485.4000;0.1571;1.0095;
485.7000;0.1595;1.0166;
486.0000;0.1571;1.0190;
486.3000;0.1563;1.0119;
486.6000;0.1555;1.0000;
486.9000;0.1555;0.9882;
487.2000;0.1555;0.9929;
487.5000;0.1579;1.0024;
487.8000;0.1547;1.0071;
488.1000;0.1555;1.0166;
488.4000;0.1563;1.0166;
488.7000;0.1538;1.0143;
489.0000;0.1571;1.0190;
489.3000;0.1587;1.0190;
489.6000;0.1571;1.0143;
489.9000;0.1587;1.0190;
490.2000;0.1563;1.0119;
490.5000;0.1563;1.0048;
490.8000;0.1563;1.0048;
491.1000;0.1571;1.0095;
491.4000;0.1563;1.0143;
491.7000;0.1579;1.0166;
492.0000;0.1595;1.0237;
492.3000;0.1571;1.0190;
492.6000;0.1587;1.0143;
492.9000;0.1595;1.0214;
493.2000;0.1620;1.0214;
493.5000;0.1563;1.0024;
493.8000;0.1587;1.0095;
494.1000;0.1587;1.0071;
494.4000;0.1571;1.0095;
494.7000;0.1587;1.0190;
495.0000;0.1628;1.0332;
495.3000;0.1579;1.0095;
495.6000;0.1571;1.0166;
495.9000;0.1571;1.0237;
496.2000;0.1563;1.0285;
496.5000;0.1595;1.0403;
496.8000;0.1563;1.0356;
497.1000;0.1563;1.0285;
497.4000;0.1571;1.0261;
497.7000;0.1571;1.0190;
498.0000;0.1555;1.0214;
498.3000;0.1555;1.0190;
498.6000;0.1547;1.0166;
498.9000;0.1587;1.0214;
499.2000;0.1571;1.0166;
499.5000;0.1571;1.0237;
499.8000;0.1579;1.0285;
500.1000;0.1563;1.0143;
500.4000;0.1579;1.0095;
500.7000;0.1571;1.0119;
501.0000;0.1571;1.0095;
501.3000;0.1579;1.0143;
501.6000;0.1579;1.0143;
501.9000;0.1571;1.0190;
502.2000;0.1571;1.0119;
502.5000;0.1563;1.0048;
502.8000;0.1514;0.9882;
503.1000;0.1579;1.0071;
503.4000;0.1571;1.0024;
503.7000;0.1579;1.0024;
504.0000;0.1530;0.9929;
504.3000;0.1571;1.0000;
504.6000;0.1612;1.0166;
504.9000;0.1579;0.9977;
505.2000;0.1563;0.9953;
505.5000;0.1563;0.9953;
505.8000;0.1587;1.0048;
506.1000;0.1563;1.0024;
506.4000;0.1555;1.0024;
506.7000;0.1612;1.0119;
507.0000;0.1604;1.0190;
507.3000;0.1579;1.0190;
507.6000;0.1612;1.0190;
507.9000;0.1587;1.0048;
508.2000;0.1604;1.0119;
508.5000;0.1579;1.0071;
508.8000;0.1538;1.0048;
509.1000;0.1595;1.0119;
509.4000;0.1579;1.0024;
509.7000;0.1571;0.9977;
510.0000;0.1579;1.0000;
510.3000;0.1571;1.0048;
510.6000;0.1538;0.9929;
510.9000;0.1579;1.0000;
511.2000;0.1571;1.0000;
511.5000;0.1579;1.0000;
511.8000;0.1579;1.0000;
512.1000;0.1563;1.0071;
512.4000;0.1555;1.0119;
512.7000;0.1571;1.0119;
513.0000;0.1555;1.0071;
513.3000;0.1563;1.0143;
513.6000;0.1571;1.0190;
513.9000;0.1563;1.0237;
514.2000;0.1555;1.0190;
514.5000;0.1587;1.0261;
514.8000;0.1579;1.0261;
515.1000;0.1579;1.0356;
515.4000;0.1571;1.0356;
515.7000;0.1579;1.0261;
516.0000;0.1579;1.0190;
516.3000;0.1579;1.0214;
516.6000;0.1563;1.0143;
516.9000;0.1579;1.0119;
517.2000;0.1579;1.0095;
517.5000;0.1579;1.0071;
517.8000;0.1579;1.0119;
518.1000;0.1579;1.0143;
518.4000;0.1595;1.0261;
518.7000;0.1579;1.0190;
519.0000;0.1579;1.0166;
519.3000;0.1563;1.0095;
519.6000;0.1571;1.0119;
519.9000;0.1571;1.0071;
520.2000;0.1604;1.0190;
520.5000;0.1571;1.0166;
520.8000;0.1587;1.0261;
521.1000;0.1636;1.0403;
521.4000;0.1571;1.0285;
521.7000;0.1571;1.0285;
522.0000;0.1579;1.0261;
522.3000;0.1547;1.0237;
522.6000;0.1587;1.0261;
522.9000;0.1579;1.0190;
523.2000;0.1571;1.0190;
523.5000;0.1587;1.0214;
523.8000;0.1587;1.0190;
524.1000;0.1579;1.0071;
524.4000;0.1571;1.0095;
524.7000;0.1571;1.0119;
525.0000;0.1579;1.0119;
525.3000;0.1530;0.9977;
525.6000;0.1579;0.9977;
525.9000;0.1571;1.0024;
526.2000;0.1579;1.0071;
526.5000;0.1571;1.0048;
526.8000;0.1571;1.0095;
527.1000;0.1563;1.0024;
527.4000;0.1571;1.0024;
527.7000;0.1571;1.0048;
528.0000;0.1587;1.0024;
528.3000;0.1571;1.0048;
528.6000;0.1587;1.0071;
528.9000;0.1587;1.0024;
529.2000;0.1563;1.0024;
529.5000;0.1547;1.0000;
529.8000;0.1571;1.0071;
530.1000;0.1579;1.0048;
530.4000;0.1595;1.0143;
530.7000;0.1595;1.0071;
531.0000;0.1595;1.0048;
531.3000;0.1579;1.0000;
531.6000;0.1612;1.0095;
531.9000;0.1579;1.0024;
532.2000;0.1530;1.0071;
532.5000;0.1595;1.0237;
532.8000;0.1571;1.0190;
533.1000;0.1595;1.0285;
533.4000;0.1538;1.0214;
533.7000;0.1579;1.0237;
534.0000;0.1595;1.0332;
534.3000;0.1579;1.0332;
534.6000;0.1571;1.0332;
534.9000;0.1571;1.0261;
535.2000;0.1579;1.0143;
535.5000;0.1595;1.0095;
535.8000;0.1498;0.9858;
536.1000;0.1579;1.0048;
536.4000;0.1571;1.0000;
536.7000;0.1620;1.0166;
537.0000;0.1587;1.0048;
537.3000;0.1579;1.0024;
537.6000;0.1571;0.9858;
537.9000;0.1571;0.9953;
538.2000;0.1571;1.0000;
538.5000;0.1571;0.9953;
538.8000;0.1547;1.0000;
539.1000;0.1587;1.0071;
539.4000;0.1595;1.0095;
539.7000;0.1571;1.0095;
540.0000;0.1579;1.0237;
540.3000;0.1579;1.0190;
540.6000;0.1587;1.0166;
540.9000;0.1579;1.0214;
541.2000;0.1604;1.0356;
541.5000;0.1579;1.0285;
541.8000;0.1604;1.0285;
542.1000;0.1644;1.0261;
542.4000;0.1571;1.0071;
542.7000;0.1563;1.0024;
543.0000;0.1579;0.9977;
543.3000;0.1579;0.9953;
543.6000;0.1604;1.0000;
543.9000;0.1652;1.0166;
544.2000;0.1579;1.0000;
544.5000;0.1604;1.0095;
544.8000;0.1587;1.0048;
545.1000;0.1587;1.0048;
545.4000;0.1563;0.9929;
545.7000;0.1579;0.9882;
546.0000;0.1563;0.9811;
546.3000;0.1587;0.9882;
546.6000;0.1563;0.9929;
546.9000;0.1571;0.9977;
547.2000;0.1579;1.0024;
547.5000;0.1571;0.9977;
547.8000;0.1563;0.9953;
548.1000;0.1563;1.0048;
548.4000;0.1604;1.0190;
548.7000;0.1579;1.0166;
549.0000;0.1555;1.0048;
549.3000;0.1563;1.0095;
549.6000;0.1571;1.0024;
549.9000;0.1579;1.0000;
550.2000;0.1547;0.9977;
550.5000;0.1571;0.9977;
550.8000;0.1571;0.9929;
551.1000;0.1595;0.9977;
551.4000;0.1571;0.9929;
551.7000;0.1579;0.9906;
552.0000;0.1587;0.9929;
552.3000;0.1595;0.9929;
552.6000;0.1579;0.9834;
552.9000;0.1555;0.9740;
553.2000;0.1571;0.9716;
553.5000;0.1579;0.9740;
553.8000;0.1571;0.9716;
554.1000;0.1571;0.9716;
554.4000;0.1571;0.9811;
554.7000;0.1587;0.9787;
555.0000;0.1579;0.9740;
555.3000;0.1579;0.9834;
555.6000;0.1620;0.9977;
555.9000;0.1587;0.9906;
556.2000;0.1571;0.9858;
556.5000;0.1571;0.9834;
556.8000;0.1571;0.9811;
557.1000;0.1571;0.9811;
557.4000;0.1595;0.9929;
557.7000;0.1571;0.9858;
558.0000;0.1571;0.9763;
558.3000;0.1587;0.9763;
558.6000;0.1587;0.9787;
558.9000;0.1563;0.9740;
559.2000;0.1555;0.9692;
559.5000;0.1571;0.9597;
559.8000;0.1563;0.9645;
560.1000;0.1579;0.9669;
560.4000;0.1555;0.9692;
560.7000;0.1571;0.9716;
561.0000;0.1620;0.9811;
561.3000;0.1563;0.9787;
561.6000;0.1563;0.9834;
561.9000;0.1571;0.9834;
562.2000;0.1644;1.0143;
562.5000;0.1579;0.9929;
562.8000;0.1579;0.9882;
563.1000;0.1555;0.9858;
563.4000;0.1571;0.9882;
563.7000;0.1579;0.9906;
564.0000;0.1579;0.9977;
564.3000;0.1498;0.9811;
564.6000;0.1571;1.0000;
564.9000;0.1530;0.9834;
565.2000;0.1620;0.9953;
565.5000;0.1595;0.9929;
565.8000;0.1587;0.9929;
566.1000;0.1595;0.9953;
566.4000;0.1612;1.0024;
566.7000;0.1579;0.9929;
567.0000;0.1530;0.9882;
567.3000;0.1604;1.0095;
567.6000;0.1620;1.0143;
567.9000;0.1571;0.9977;
568.2000;0.1571;1.0000;
568.5000;0.1571;1.0048;
568.8000;0.1563;1.0166;
569.1000;0.1579;1.0214;
569.4000;0.1571;1.0119;
569.7000;0.1547;0.9953;
570.0000;0.1530;0.9882;
570.3000;0.1514;0.9858;
570.6000;0.1563;1.0000;
570.9000;0.1571;0.9977;
571.2000;0.1587;1.0000;
571.5000;0.1571;0.9977;
571.8000;0.1490;0.9763;
572.1000;0.1563;0.9929;
572.4000;0.1612;1.0143;
572.7000;0.1563;1.0071;
573.0000;0.1587;1.0143;
573.3000;0.1587;1.0095;
573.6000;0.1571;0.9977;
573.9000;0.1571;0.9977;
574.2000;0.1595;1.0024;
574.5000;0.1587;0.9977;
574.8000;0.1571;0.9906;
575.1000;0.1579;0.9834;
575.4000;0.1571;0.9858;
575.7000;0.1571;0.9763;
576.0000;0.1595;0.9834;
576.3000;0.1571;0.9787;
576.6000;0.1579;0.9834;
576.9000;0.1571;0.9906;
577.2000;0.1563;0.9906;
577.5000;0.1563;0.9977;
577.8000;0.1571;1.0000;
578.1000;0.1587;0.9953;
578.4000;0.1579;0.9882;
578.7000;0.1579;0.9906;
579.0000;0.1530;0.9834;
579.3000;0.1571;0.9906;
579.6000;0.1579;0.9929;
579.9000;0.1571;0.9858;
580.2000;0.1571;0.9882;
580.5000;0.1522;0.9787;
580.8000;0.1555;0.9858;
581.1000;0.1571;0.9929;
581.4000;0.1563;0.9882;
581.7000;0.1652;1.0071;
582.0000;0.1604;0.9858;
582.3000;0.1579;0.9716;
582.6000;0.1579;0.9692;
582.9000;0.1563;0.9740;
583.2000;0.1547;0.9763;
583.5000;0.1579;0.9834;
583.8000;0.1571;0.9882;
584.1000;0.1538;0.9953;
584.4000;0.1571;1.0048;
584.7000;0.1571;1.0095;
585.0000;0.1538;1.0024;
585.3000;0.1579;1.0024;
585.6000;0.1563;1.0024;
585.9000;0.1563;1.0024;
586.2000;0.1604;1.0143;
586.5000;0.1563;0.9953;
586.8000;0.1571;0.9882;
587.1000;0.1530;0.9953;
587.4000;0.1563;1.0000;
587.7000;0.1587;1.0048;
588.0000;0.1563;0.9977;
588.3000;0.1587;0.9929;
588.6000;0.1579;0.9834;
588.9000;0.1579;0.9763;
589.2000;0.1595;0.9929;
589.5000;0.1587;0.9882;
589.8000;0.1579;0.9929;
590.1000;0.1579;0.9858;
590.4000;0.1555;0.9811;
590.7000;0.1579;0.9906;
591.0000;0.1620;1.0071;
591.3000;0.1628;1.0071;
591.6000;0.1563;1.0000;
591.9000;0.1579;1.0119;
592.2000;0.1595;1.0166;
592.5000;0.1571;1.0119;
592.8000;0.1563;1.0095;
593.1000;0.1563;1.0095;
593.4000;0.1571;1.0071;
593.7000;0.1579;1.0071;
594.0000;0.1587;0.9977;
594.3000;0.1547;0.9929;
594.6000;0.1555;0.9906;
594.9000;0.1595;1.0095;
595.2000;0.1571;1.0143;
595.5000;0.1563;1.0237;
595.8000;0.1563;1.0214;
596.1000;0.1538;1.0048;
596.4000;0.1579;1.0214;
596.7000;0.1571;1.0166;
597.0000;0.1595;1.0119;
597.3000;0.1579;1.0071;
597.6000;0.1579;1.0071;
597.9000;0.1563;1.0071;
598.2000;0.1563;1.0048;
598.5000;0.1563;1.0095;
598.8000;0.1587;1.0143;
599.1000;0.1563;1.0095;
599.4000;0.1579;1.0190;
599.7000;0.1563;1.0095;
600.0000;0.1571;1.0071;
600.3000;0.1587;1.0024;
600.6000;0.1579;0.9953;
600.9000;0.1563;0.9834;
601.2000;0.1530;0.9669;
601.5000;0.1555;0.9645;
601.8000;0.1547;0.9526;
602.1000;0.1547;0.9455;
602.4000;0.1522;0.9408;
602.7000;0.1490;0.9313;
603.0000;0.1465;0.9124;
603.3000;0.1490;0.9124;
603.6000;0.1473;0.9100;
603.9000;0.1416;0.8958;
604.2000;0.1465;0.9005;
604.5000;0.1441;0.8934;
604.8000;0.1449;0.8887;
605.1000;0.1457;0.8839;
605.4000;0.1449;0.8792;
605.7000;0.1351;0.8460;
606.0000;0.1433;0.8650;
606.3000;0.1433;0.8626;
606.6000;0.1425;0.8650;
606.9000;0.1416;0.8602;
607.2000;0.1408;0.8531;
607.5000;0.1408;0.8626;
607.8000;0.1400;0.8626;
608.1000;0.1392;0.8579;
608.4000;0.1376;0.8626;
608.7000;0.1384;0.8602;
609.0000;0.1384;0.8626;
609.3000;0.1376;0.8602;
609.6000;0.1384;0.8579;
609.9000;0.1368;0.8531;
610.2000;0.1376;0.8531;
610.5000;0.1351;0.8507;
610.8000;0.1351;0.8460;
611.1000;0.1311;0.8365;
611.4000;0.1368;0.8484;
611.7000;0.1343;0.8436;
612.0000;0.1368;0.8460;
612.3000;0.1384;0.8531;
612.6000;0.1359;0.8579;
612.9000;0.1359;0.8626;
613.2000;0.1376;0.8650;
613.5000;0.1392;0.8697;
613.8000;0.1343;0.8579;
614.1000;0.1327;0.8460;
614.4000;0.1384;0.8697;
614.7000;0.1343;0.8673;
615.0000;0.1335;0.8721;
615.3000;0.1335;0.8697;
615.6000;0.1343;0.8602;
615.9000;0.1327;0.8507;
616.2000;0.1359;0.8555;
616.5000;0.1343;0.8531;
616.8000;0.1311;0.8507;
617.1000;0.1327;0.8626;
617.4000;0.1311;0.8626;
617.7000;0.1319;0.8626;
618.0000;0.1319;0.8579;
618.3000;0.1302;0.8626;
618.6000;0.1302;0.8602;
618.9000;0.1229;0.8365;
619.2000;0.1294;0.8507;
619.5000;0.1302;0.8555;
619.8000;0.1302;0.8531;
620.1000;0.1311;0.8555;
620.4000;0.1302;0.8507;
620.7000;0.1270;0.8460;
621.0000;0.1286;0.8389;
621.3000;0.1270;0.8531;
621.6000;0.1262;0.8460;
621.9000;0.1294;0.8436;
622.2000;0.1311;0.8484;
622.5000;0.1278;0.8365;
622.8000;0.1278;0.8365;
623.1000;0.1294;0.8389;
623.4000;0.1294;0.8389;
623.7000;0.1286;0.8342;
624.0000;0.1237;0.8247;
624.3000;0.1270;0.8365;
624.6000;0.1270;0.8436;
624.9000;0.1254;0.8460;
625.2000;0.1286;0.8484;
625.5000;0.1294;0.8555;
625.8000;0.1278;0.8460;
626.1000;0.1254;0.8460;
626.4000;0.1262;0.8460;
626.7000;0.1270;0.8460;
627.0000;0.1294;0.8484;
627.3000;0.1270;0.8342;
627.6000;0.1270;0.8342;
627.9000;0.1245;0.8223;
628.2000;0.1270;0.8270;
628.5000;0.1294;0.8342;
628.8000;0.1254;0.8270;
629.1000;0.1237;0.8318;
629.4000;0.1254;0.8342;
629.7000;0.1237;0.8294;
630.0000;0.1237;0.8318;
630.3000;0.1245;0.8365;
630.6000;0.1245;0.8270;
630.9000;0.1229;0.8223;
631.2000;0.1245;0.8270;
631.5000;0.1237;0.8270;
631.8000;0.1229;0.8294;
632.1000;0.1221;0.8223;
632.4000;0.1229;0.8176;
632.7000;0.1254;0.8152;
633.0000;0.1237;0.8081;
633.3000;0.1197;0.8033;
633.6000;0.1237;0.8176;
633.9000;0.1245;0.8199;
634.2000;0.1254;0.8176;
634.5000;0.1245;0.8128;
634.8000;0.1245;0.8152;
635.1000;0.1245;0.8033;
635.4000;0.1262;0.8057;
635.7000;0.1229;0.8057;
636.0000;0.1237;0.8128;
636.3000;0.1245;0.8199;
636.6000;0.1237;0.8152;
636.9000;0.1221;0.8081;
637.2000;0.1245;0.8199;
637.5000;0.1172;0.8105;
637.8000;0.1221;0.8199;
638.1000;0.1237;0.8176;
638.4000;0.1221;0.8128;
638.7000;0.1221;0.8081;
639.0000;0.1237;0.8199;
639.3000;0.1221;0.8057;
639.6000;0.1205;0.8033;
639.9000;0.1213;0.7915;
640.2000;0.1172;0.7915;
640.5000;0.1213;0.8105;
640.8000;0.1221;0.8152;
641.1000;0.1197;0.8128;
641.4000;0.1213;0.8176;
641.7000;0.1213;0.8199;
642.0000;0.1197;0.8294;
642.3000;0.1172;0.8199;
642.6000;0.1205;0.8270;
642.9000;0.1237;0.8270;
643.2000;0.1197;0.8223;
643.5000;0.1213;0.8176;
643.8000;0.1197;0.8199;
644.1000;0.1205;0.8128;
644.4000;0.1213;0.8152;
644.7000;0.1213;0.8223;
645.0000;0.1213;0.8270;
645.3000;0.1197;0.8223;
645.6000;0.1205;0.8199;
645.9000;0.1188;0.8247;
646.2000;0.1180;0.8199;
646.5000;0.1213;0.8199;
646.8000;0.1180;0.8128;
647.1000;0.1172;0.8010;
647.4000;0.1197;0.8105;
647.7000;0.1164;0.8105;
648.0000;0.1213;0.8128;
648.3000;0.1205;0.8105;
648.6000;0.1197;0.8223;
648.9000;0.1205;0.8318;
649.2000;0.1213;0.8389;
649.5000;0.1205;0.8365;
649.8000;0.1205;0.8365;
650.1000;0.1172;0.8294;
650.4000;0.1188;0.8365;
650.7000;0.1205;0.8413;
651.0000;0.1262;0.8531;
651.3000;0.1197;0.8342;
651.6000;0.1172;0.8436;
651.9000;0.1172;0.8365;
652.2000;0.1229;0.8413;
652.5000;0.1140;0.8223;
652.8000;0.1188;0.8413;
653.1000;0.1180;0.8365;
653.4000;0.1188;0.8365;
653.7000;0.1172;0.8365;
654.0000;0.1172;0.8413;
654.3000;0.1180;0.8413;
654.6000;0.1180;0.8389;
654.9000;0.1188;0.8413;
655.2000;0.1188;0.8389;
655.5000;0.1180;0.8413;
655.8000;0.1188;0.8460;
656.1000;0.1213;0.8507;
656.4000;0.1180;0.8436;
656.7000;0.1188;0.8436;
657.0000;0.1180;0.8531;
657.3000;0.1221;0.8626;
657.6000;0.1188;0.8507;
657.9000;0.1180;0.8579;
658.2000;0.1237;0.8673;
658.5000;0.1197;0.8436;
658.8000;0.1156;0.8389;
659.1000;0.1180;0.8484;
659.4000;0.1180;0.8531;
659.7000;0.1180;0.8507;
660.0000;0.1197;0.8579;
660.3000;0.1188;0.8579;
660.6000;0.1188;0.8531;
660.9000;0.1188;0.8626;
661.2000;0.1229;0.8744;
661.5000;0.1188;0.8602;
661.8000;0.1172;0.8626;
662.1000;0.1188;0.8673;
662.4000;0.1180;0.8673;
662.7000;0.1188;0.8768;
663.0000;0.1180;0.8768;
663.3000;0.1148;0.8744;
663.6000;0.1164;0.8744;
663.9000;0.1164;0.8721;
664.2000;0.1197;0.8650;
664.5000;0.1164;0.8579;
664.8000;0.1188;0.8602;
665.1000;0.1172;0.8555;
665.4000;0.1164;0.8389;
665.7000;0.1148;0.8507;
666.0000;0.1172;0.8602;
666.3000;0.1123;0.8507;
666.6000;0.1164;0.8531;
666.9000;0.1213;0.8650;
667.2000;0.1164;0.8531;
667.5000;0.1172;0.8555;
667.8000;0.1156;0.8579;
668.1000;0.1172;0.8531;
668.4000;0.1172;0.8507;
668.7000;0.1156;0.8460;
669.0000;0.1164;0.8484;
669.3000;0.1123;0.8460;
669.6000;0.1172;0.8507;
669.9000;0.1164;0.8484;
670.2000;0.1123;0.8389;
670.5000;0.1148;0.8413;
670.8000;0.1172;0.8436;
671.1000;0.1148;0.8436;
671.4000;0.1172;0.8484;
671.7000;0.1148;0.8413;
672.0000;0.1188;0.8531;
672.3000;0.1172;0.8507;
672.6000;0.1172;0.8555;
672.9000;0.1172;0.8579;
673.2000;0.1172;0.8579;
673.5000;0.1156;0.8579;
673.8000;0.1148;0.8626;
674.1000;0.1148;0.8626;
674.4000;0.1156;0.8721;
674.7000;0.1164;0.8721;
675.0000;0.1148;0.8673;
675.3000;0.1148;0.8602;
675.6000;0.1148;0.8531;
675.9000;0.1156;0.8531;
676.2000;0.1131;0.8555;
676.5000;0.1148;0.8673;
676.8000;0.1156;0.8650;
677.1000;0.1148;0.8626;
677.4000;0.1131;0.8579;
677.7000;0.1148;0.8555;
678.0000;0.1156;0.8555;
678.3000;0.1140;0.8436;
678.6000;0.1140;0.8413;
678.9000;0.1156;0.8460;
679.2000;0.1123;0.8436;
679.5000;0.1156;0.8460;
679.8000;0.1156;0.8413;
680.1000;0.1164;0.8484;
680.4000;0.1164;0.8460;
680.7000;0.1164;0.8365;
681.0000;0.1156;0.8294;
681.3000;0.1164;0.8342;
681.6000;0.1164;0.8389;
681.9000;0.1180;0.8294;
682.2000;0.1164;0.8294;
682.5000;0.1123;0.8270;
682.8000;0.1180;0.8484;
683.1000;0.1148;0.8318;
683.4000;0.1156;0.8247;
683.7000;0.1156;0.8152;
684.0000;0.1140;0.8176;
684.3000;0.1164;0.8176;
684.6000;0.1156;0.8247;
684.9000;0.1148;0.8270;
685.2000;0.1091;0.8152;
685.5000;0.1164;0.8318;
685.8000;0.1091;0.8176;
686.1000;0.1172;0.8413;
686.4000;0.1148;0.8460;
686.7000;0.1156;0.8531;
687.0000;0.1205;0.8602;
687.3000;0.1164;0.8507;
687.6000;0.1140;0.8460;
687.9000;0.1148;0.8389;
688.2000;0.1156;0.8342;
688.5000;0.1148;0.8318;
688.8000;0.1148;0.8342;
689.1000;0.1148;0.8294;
689.4000;0.1148;0.8270;
689.7000;0.1164;0.8365;
690.0000;0.1140;0.8436;
690.3000;0.1140;0.8460;
690.6000;0.1140;0.8507;
690.9000;0.1140;0.8507;
691.2000;0.1123;0.8484;
691.5000;0.1131;0.8531;
691.8000;0.1123;0.8555;
692.1000;0.1140;0.8555;
692.4000;0.1148;0.8555;
692.7000;0.1148;0.8555;
693.0000;0.1148;0.8507;
693.3000;0.1131;0.8460;
693.6000;0.1148;0.8460;
693.9000;0.1156;0.8389;
694.2000;0.1148;0.8342;
694.5000;0.1148;0.8389;
694.8000;0.1131;0.8436;
695.1000;0.1172;0.8507;
695.4000;0.1148;0.8389;
695.7000;0.1140;0.8294;
696.0000;0.1074;0.8152;
696.3000;0.1131;0.8318;
696.6000;0.1131;0.8318;
696.9000;0.1140;0.8365;
697.2000;0.1099;0.8105;
697.5000;0.1140;0.8223;
697.8000;0.1066;0.8105;
698.1000;0.1148;0.8318;
698.4000;0.1140;0.8365;
698.7000;0.1140;0.8413;
699.0000;0.1140;0.8413;
699.3000;0.1131;0.8389;
699.6000;0.1148;0.8436;
699.9000;0.1131;0.8413;
700.2000;0.1107;0.8365;
700.5000;0.1140;0.8507;
700.8000;0.1140;0.8436;
701.1000;0.1123;0.8365;
701.4000;0.1131;0.8342;
701.7000;0.1140;0.8270;
702.0000;0.1115;0.8342;
702.3000;0.1131;0.8342;
702.6000;0.1083;0.8247;
702.9000;0.1107;0.8294;
703.2000;0.1148;0.8413;
703.5000;0.1131;0.8365;
703.8000;0.1156;0.8389;
704.1000;0.1131;0.8436;
704.4000;0.1123;0.8484;
704.7000;0.1131;0.8460;
705.0000;0.1131;0.8507;
705.3000;0.1164;0.8579;
705.6000;0.1148;0.8531;
705.9000;0.1123;0.8507;
706.2000;0.1107;0.8460;
706.5000;0.1180;0.8602;
706.8000;0.1140;0.8484;
707.1000;0.1123;0.8389;
707.4000;0.1123;0.8318;
707.7000;0.1172;0.8389;
708.0000;0.1115;0.8223;
708.3000;0.1131;0.8389;
708.6000;0.1123;0.8294;
708.9000;0.1131;0.8270;
709.2000;0.1099;0.8223;
709.5000;0.1131;0.8365;
709.8000;0.1131;0.8365;
710.1000;0.1131;0.8389;
710.4000;0.1131;0.8507;
710.7000;0.1123;0.8460;
711.0000;0.1123;0.8436;
711.3000;0.1115;0.8389;
711.6000;0.1131;0.8436;
711.9000;0.1115;0.8389;
712.2000;0.1115;0.8413;
712.5000;0.1115;0.8413;
712.8000;0.1115;0.8436;
713.1000;0.1115;0.8460;
713.4000;0.1107;0.8413;
713.7000;0.1107;0.8318;
714.0000;0.1123;0.8342;
714.3000;0.1148;0.8365;
714.6000;0.1123;0.8342;
714.9000;0.1188;0.8436;
715.2000;0.1099;0.8223;
715.5000;0.1123;0.8270;
715.8000;0.1140;0.8270;
716.1000;0.1074;0.8223;
716.4000;0.1131;0.8199;
716.7000;0.1140;0.8270;
717.0000;0.1131;0.8199;
717.3000;0.1140;0.8223;
717.6000;0.1123;0.8176;
717.9000;0.1140;0.8199;
718.2000;0.1131;0.8152;
718.5000;0.1123;0.8105;
718.8000;0.1091;0.8057;
719.1000;0.1148;0.8199;
719.4000;0.1131;0.8270;
719.7000;0.1123;0.8223;
720.0000;0.1180;0.8318;
720.3000;0.1123;0.8223;
720.6000;0.1140;0.8270;
720.9000;0.1074;0.8223;
721.2000;0.1131;0.8270;
721.5000;0.1148;0.8294;
721.8000;0.1221;0.8531;
722.1000;0.1188;0.8436;
722.4000;0.1115;0.8270;
722.7000;0.1197;0.8460;
723.0000;0.1123;0.8247;
723.3000;0.1131;0.8294;
723.6000;0.1123;0.8294;
723.9000;0.1115;0.8152;
724.2000;0.1083;0.8081;
724.5000;0.1123;0.8176;
724.8000;0.1123;0.8128;
725.1000;0.1107;0.8152;
725.4000;0.1123;0.8105;
725.7000;0.1131;0.8105;
726.0000;0.1123;0.8152;
726.3000;0.1131;0.8199;
726.6000;0.1115;0.8152;
726.9000;0.1123;0.8152;
727.2000;0.1123;0.8105;
727.5000;0.1091;0.7986;
727.8000;0.1107;0.8081;
728.1000;0.1123;0.8128;
728.4000;0.1140;0.8176;
728.7000;0.1131;0.8176;
729.0000;0.1115;0.8176;
729.3000;0.1115;0.8223;
729.6000;0.1131;0.8342;
729.9000;0.1123;0.8318;
730.2000;0.1123;0.8342;
730.5000;0.1099;0.8223;
730.8000;0.1123;0.8223;
731.1000;0.1140;0.8247;
731.4000;0.1123;0.8223;
731.7000;0.1115;0.8152;
732.0000;0.1131;0.8223;
732.3000;0.1123;0.8223;
732.6000;0.1107;0.8223;
732.9000;0.1131;0.8318;
733.2000;0.1140;0.8413;
733.5000;0.1107;0.8294;
733.8000;0.1083;0.8318;
734.1000;0.1050;0.8294;
734.4000;0.1123;0.8436;
734.7000;0.1107;0.8436;
735.0000;0.1148;0.8531;
735.3000;0.1123;0.8389;
735.6000;0.1115;0.8389;
735.9000;0.1131;0.8436;
736.2000;0.1131;0.8389;
736.5000;0.1115;0.8294;
736.8000;0.1107;0.8223;
737.1000;0.1115;0.8176;
737.4000;0.1066;0.8010;
737.7000;0.1115;0.8247;
738.0000;0.1131;0.8318;
738.3000;0.1115;0.8223;
738.6000;0.1131;0.8176;
738.9000;0.1140;0.8176;
739.2000;0.1131;0.8223;
739.5000;0.1115;0.8318;
739.8000;0.1123;0.8389;
740.1000;0.1115;0.8342;
740.4000;0.1107;0.8270;
740.7000;0.1115;0.8199;
741.0000;0.1148;0.8247;
741.3000;0.1140;0.8247;
741.6000;0.1115;0.8247;
741.9000;0.1107;0.8270;
742.2000;0.1091;0.8247;
742.5000;0.1099;0.8318;
742.8000;0.1123;0.8294;
743.1000;0.1083;0.8199;
743.4000;0.1107;0.8294;
743.7000;0.1107;0.8223;
744.0000;0.1107;0.8176;
744.3000;0.1123;0.8176;
744.6000;0.1148;0.8223;
744.9000;0.1099;0.8128;
745.2000;0.1083;0.8057;
745.5000;0.1123;0.8152;
745.8000;0.1131;0.8176;
746.1000;0.1115;0.8223;
746.4000;0.1099;0.8223;
746.7000;0.1107;0.8199;
747.0000;0.1107;0.8128;
747.3000;0.1107;0.8176;
747.6000;0.1107;0.8223;
747.9000;0.1099;0.8223;
748.2000;0.1123;0.8294;
748.5000;0.1115;0.8318;
748.8000;0.1148;0.8365;
749.1000;0.1131;0.8318;
749.4000;0.1131;0.8318;
749.7000;0.1131;0.8223;
750.0000;0.1123;0.8105;
750.3000;0.1131;0.8152;
750.6000;0.1115;0.8199;
750.9000;0.1115;0.8176;
751.2000;0.1091;0.8081;
751.5000;0.1107;0.8105;
751.8000;0.1148;0.8270;
752.1000;0.1091;0.8152;
752.4000;0.1091;0.8081;
752.7000;0.1099;0.8152;
753.0000;0.1107;0.8176;
753.3000;0.1066;0.8057;
753.6000;0.1107;0.8081;
753.9000;0.1099;0.8152;
754.2000;0.1050;0.8105;
754.5000;0.1123;0.8247;
754.8000;0.1115;0.8199;
755.1000;0.1107;0.8223;
755.4000;0.1123;0.8152;
755.7000;0.1091;0.8081;
756.0000;0.1115;0.8081;
756.3000;0.1107;0.8057;
756.6000;0.1123;0.8105;
756.9000;0.1131;0.8176;
757.2000;0.1131;0.8199;
757.5000;0.1107;0.8247;
757.8000;0.1115;0.8223;
758.1000;0.1099;0.8270;
758.4000;0.1066;0.8152;
758.7000;0.1058;0.8057;
759.0000;0.1091;0.8199;
759.3000;0.1123;0.8223;
759.6000;0.1115;0.8270;
759.9000;0.1074;0.8199;
760.2000;0.1050;0.8152;
760.5000;0.1123;0.8152;
760.8000;0.1107;0.8128;
761.1000;0.1123;0.8105;
761.4000;0.1115;0.8105;
761.7000;0.1091;0.8081;
762.0000;0.1123;0.8128;
762.3000;0.1131;0.8152;
762.6000;0.1099;0.8081;
762.9000;0.1091;0.7939;
763.2000;0.1123;0.8081;
763.5000;0.1107;0.8199;
763.8000;0.1115;0.8152;
764.1000;0.1123;0.8223;
764.4000;0.1107;0.8223;
764.7000;0.1091;0.8247;
765.0000;0.1115;0.8270;
765.3000;0.1107;0.8176;
765.6000;0.1099;0.8223;
765.9000;0.1115;0.8270;
766.2000;0.1074;0.8152;
766.5000;0.1099;0.8199;
766.8000;0.1115;0.8294;
767.1000;0.1066;0.8199;
767.4000;0.1099;0.8247;
767.7000;0.1099;0.8247;
768.0000;0.1115;0.8270;
768.3000;0.1115;0.8270;
768.6000;0.1115;0.8247;
768.9000;0.1034;0.8057;
769.2000;0.1091;0.8223;
769.5000;0.1115;0.8199;
769.8000;0.1091;0.8105;
770.1000;0.1099;0.8033;
770.4000;0.1083;0.7939;
770.7000;0.1083;0.7986;
771.0000;0.1115;0.8057;
771.3000;0.1107;0.8057;
771.6000;0.1107;0.8081;
771.9000;0.1123;0.8057;
772.2000;0.1131;0.8152;
772.5000;0.1115;0.8199;
772.8000;0.1123;0.8152;
773.1000;0.1083;0.8081;
773.4000;0.1115;0.8081;
773.7000;0.1107;0.8128;
774.0000;0.1115;0.8247;
774.3000;0.1066;0.8176;
774.6000;0.1083;0.8270;
774.9000;0.1099;0.8318;
775.2000;0.1115;0.8294;
775.5000;0.1091;0.8247;
775.8000;0.1083;0.8247;
776.1000;0.1099;0.8247;
776.4000;0.1107;0.8294;
776.7000;0.1107;0.8270;
777.0000;0.1091;0.8365;
777.3000;0.1050;0.8176;
777.6000;0.1115;0.8270;
777.9000;0.1091;0.8270;
778.2000;0.1107;0.8342;
778.5000;0.1099;0.8365;
778.8000;0.1091;0.8342;
779.1000;0.1115;0.8484;
779.4000;0.1099;0.8389;
779.7000;0.1099;0.8389;
780.0000;0.1099;0.8460;
780.3000;0.1099;0.8484;
780.6000;0.1099;0.8531;
780.9000;0.1050;0.8247;
781.2000;0.1091;0.8318;
781.5000;0.1099;0.8389;
781.8000;0.1099;0.8436;
782.1000;0.1115;0.8342;
782.4000;0.1083;0.8318;
782.7000;0.1099;0.8342;
783.0000;0.1107;0.8342;
783.3000;0.1058;0.8199;
783.6000;0.1123;0.8365;
783.9000;0.1172;0.8484;
784.2000;0.1107;0.8436;
784.5000;0.1099;0.8484;
784.8000;0.1115;0.8436;
785.1000;0.1042;0.8152;
785.4000;0.1180;0.8507;
785.7000;0.1107;0.8270;
786.0000;0.1091;0.8199;
786.3000;0.1099;0.8223;
786.6000;0.1091;0.8223;
786.9000;0.1107;0.8270;
787.2000;0.1083;0.8270;
787.5000;0.1107;0.8342;
787.8000;0.1107;0.8365;
788.1000;0.1099;0.8365;
788.4000;0.1107;0.8294;
788.7000;0.1107;0.8318;
789.0000;0.1131;0.8436;
789.3000;0.1115;0.8365;
789.6000;0.1115;0.8294;
789.9000;0.1115;0.8247;
790.2000;0.1107;0.8247;
790.5000;0.1091;0.8199;
790.8000;0.1083;0.8223;
791.1000;0.1083;0.8176;
791.4000;0.1083;0.8270;
791.7000;0.1083;0.8199;
792.0000;0.1091;0.8247;
792.3000;0.1107;0.8270;
792.6000;0.1083;0.8270;
792.9000;0.1058;0.8247;
793.2000;0.1034;0.8152;
793.5000;0.1099;0.8223;
793.8000;0.1107;0.8223;
794.1000;0.1091;0.8152;
794.4000;0.1091;0.8152;
794.7000;0.1123;0.8223;
795.0000;0.1091;0.8105;
795.3000;0.1083;0.8105;
795.6000;0.1107;0.8176;
795.9000;0.1123;0.8270;
796.2000;0.1083;0.8199;
796.5000;0.1083;0.8223;
796.8000;0.1115;0.8199;
797.1000;0.1115;0.8318;
797.4000;0.1099;0.8342;
797.7000;0.1115;0.8436;
798.0000;0.1107;0.8460;
798.3000;0.1091;0.8413;
798.6000;0.1115;0.8507;
798.9000;0.1099;0.8460;
799.2000;0.1107;0.8436;
799.5000;0.1131;0.8531;
799.8000;0.1123;0.8507;
800.1000;0.1115;0.8579;
800.4000;0.1099;0.8531;
800.7000;0.1099;0.8555;
801.0000;0.1107;0.8484;
801.3000;0.1066;0.8413;
801.6000;0.1091;0.8507;
801.9000;0.1091;0.8460;
802.2000;0.1091;0.8579;
802.5000;0.1066;0.8531;
802.8000;0.1107;0.8721;
803.1000;0.1091;0.8673;
803.4000;0.1099;0.8650;
803.7000;0.1140;0.8697;
804.0000;0.1115;0.8626;
804.3000;0.1091;0.8602;
804.6000;0.1123;0.8555;
804.9000;0.1091;0.8460;
805.2000;0.1099;0.8484;
805.5000;0.1099;0.8460;
805.8000;0.1091;0.8460;
806.1000;0.1107;0.8484;
806.4000;0.1115;0.8389;
806.7000;0.1099;0.8436;
807.0000;0.1091;0.8365;
807.3000;0.1099;0.8365;
807.6000;0.1107;0.8365;
807.9000;0.1066;0.8223;
808.2000;0.1091;0.8270;
808.5000;0.1091;0.8223;
808.8000;0.1107;0.8223;
809.1000;0.1050;0.8152;
809.4000;0.1083;0.8318;
809.7000;0.1099;0.8365;
810.0000;0.1107;0.8413;
810.3000;0.1115;0.8484;
810.6000;0.1099;0.8507;
810.9000;0.1107;0.8507;
811.2000;0.1107;0.8531;
811.5000;0.1123;0.8507;
811.8000;0.1156;0.8507;
812.1000;0.1107;0.8484;
812.4000;0.1091;0.8460;
812.7000;0.1091;0.8484;
813.0000;0.1074;0.8460;
813.3000;0.1074;0.8365;
813.6000;0.1091;0.8436;
813.9000;0.1115;0.8484;
814.2000;0.1083;0.8389;
814.5000;0.1107;0.8436;
814.8000;0.1091;0.8460;
815.1000;0.1115;0.8484;
815.4000;0.1164;0.8531;
815.7000;0.1107;0.8389;
816.0000;0.1091;0.8413;
816.3000;0.1099;0.8460;
816.6000;0.1115;0.8579;
816.9000;0.1107;0.8531;
817.2000;0.1083;0.8484;
817.5000;0.1091;0.8342;
817.8000;0.1050;0.8270;
818.1000;0.1091;0.8365;
818.4000;0.1091;0.8318;
818.7000;0.1074;0.8294;
819.0000;0.1091;0.8413;
819.3000;0.1107;0.8460;
819.6000;0.1091;0.8436;
819.9000;0.1099;0.8413;
820.2000;0.1140;0.8531;
820.5000;0.1115;0.8436;
820.8000;0.1099;0.8365;
821.1000;0.1140;0.8507;
821.4000;0.1107;0.8460;
821.7000;0.1099;0.8507;
822.0000;0.1107;0.8602;
822.3000;0.1099;0.8555;
822.6000;0.1107;0.8602;
822.9000;0.1107;0.8602;
823.2000;0.1083;0.8436;
823.5000;0.1091;0.8436;
823.8000;0.1058;0.8318;
824.1000;0.1083;0.8365;
824.4000;0.1107;0.8413;
824.7000;0.1107;0.8365;
825.0000;0.1083;0.8270;
825.3000;0.1083;0.8176;
825.6000;0.1099;0.8247;
825.9000;0.1099;0.8247;
826.2000;0.1091;0.8223;
826.5000;0.1066;0.8105;
826.8000;0.1099;0.8223;
827.1000;0.1091;0.8223;
827.4000;0.1074;0.8152;
827.7000;0.1091;0.8365;
828.0000;0.1050;0.8342;
828.3000;0.1099;0.8507;
828.6000;0.1099;0.8484;
828.9000;0.1083;0.8507;
829.2000;0.1123;0.8650;
829.5000;0.1115;0.8673;
829.8000;0.1107;0.8650;
830.1000;0.1091;0.8555;
830.4000;0.1123;0.8650;
830.7000;0.1107;0.8579;
831.0000;0.1180;0.8744;
831.3000;0.1115;0.8531;
831.6000;0.1091;0.8484;
831.9000;0.1099;0.8484;
832.2000;0.1107;0.8531;
832.5000;0.1083;0.8460;
832.8000;0.1164;0.8697;
833.1000;0.1050;0.8460;
833.4000;0.1115;0.8602;
833.7000;0.1074;0.8484;
834.0000;0.1091;0.8507;
834.3000;0.1099;0.8460;
834.6000;0.1099;0.8484;
834.9000;0.1074;0.8460;
835.2000;0.1091;0.8484;
835.5000;0.1083;0.8413;
835.8000;0.1099;0.8460;
836.1000;0.1123;0.8555;
836.4000;0.1074;0.8413;
836.7000;0.1083;0.8389;
837.0000;0.1083;0.8460;
837.3000;0.1091;0.8507;
837.6000;0.1099;0.8531;
837.9000;0.1066;0.8507;
838.2000;0.1091;0.8602;
838.5000;0.1083;0.8484;
838.8000;0.1050;0.8389;
839.1000;0.1115;0.8531;
839.4000;0.1091;0.8555;
839.7000;0.1074;0.8484;
840.0000;0.1091;0.8484;
840.3000;0.1091;0.8531;
840.6000;0.1066;0.8460;
840.9000;0.1074;0.8507;
841.2000;0.1131;0.8650;
841.5000;0.1091;0.8555;
841.8000;0.1091;0.8650;
842.1000;0.1091;0.8673;
842.4000;0.1107;0.8673;
842.7000;0.1099;0.8602;
843.0000;0.1107;0.8650;
843.3000;0.1115;0.8650;
843.6000;0.1091;0.8650;
843.9000;0.1091;0.8579;
844.2000;0.1107;0.8626;
844.5000;0.1099;0.8697;
844.8000;0.1083;0.8697;
845.1000;0.1107;0.8673;
845.4000;0.1091;0.8579;
845.7000;0.1091;0.8602;
846.0000;0.1083;0.8555;
846.3000;0.1107;0.8555;
846.6000;0.1107;0.8579;
846.9000;0.1115;0.8555;
847.2000;0.1091;0.8436;
847.5000;0.1107;0.8460;
847.8000;0.1091;0.8436;
848.1000;0.1099;0.8460;
848.4000;0.1066;0.8365;
848.7000;0.1083;0.8413;
849.0000;0.1091;0.8484;
849.3000;0.1123;0.8555;
849.6000;0.1074;0.8436;
849.9000;0.1115;0.8507;
850.2000;0.1107;0.8579;
850.5000;0.1091;0.8531;
850.8000;0.1107;0.8602;
851.1000;0.1074;0.8555;
851.4000;0.1091;0.8555;
851.7000;0.1083;0.8531;
852.0000;0.1099;0.8626;
852.3000;0.1091;0.8697;
852.6000;0.1042;0.8531;
852.9000;0.1099;0.8626;
853.2000;0.1123;0.8650;
853.5000;0.1091;0.8626;
853.8000;0.1091;0.8650;
854.1000;0.1115;0.8626;
854.4000;0.1009;0.8389;
854.7000;0.1026;0.8342;
855.0000;0.1099;0.8436;
855.3000;0.1107;0.8484;
855.6000;0.1123;0.8507;
855.9000;0.1083;0.8484;
856.2000;0.1091;0.8626;
856.5000;0.1099;0.8602;
856.8000;0.1115;0.8697;
857.1000;0.1099;0.8650;
857.4000;0.1083;0.8650;
857.7000;0.1074;0.8602;
858.0000;0.1091;0.8602;
858.3000;0.1091;0.8531;
858.6000;0.1083;0.8555;
858.9000;0.1091;0.8626;
859.2000;0.1083;0.8531;
859.5000;0.1083;0.8579;
859.8000;0.1107;0.8650;
860.1000;0.1058;0.8555;
860.4000;0.1099;0.8626;
860.7000;0.1115;0.8697;
861.0000;0.1099;0.8673;
861.3000;0.1091;0.8555;
861.6000;0.1107;0.8602;
861.9000;0.1091;0.8531;
862.2000;0.1099;0.8626;
862.5000;0.1091;0.8697;
862.8000;0.1091;0.8673;
863.1000;0.1107;0.8602;
863.4000;0.1091;0.8602;
863.7000;0.1074;0.8673;
864.0000;0.1083;0.8815;
864.3000;0.1099;0.8863;
864.6000;0.1099;0.8744;
864.9000;0.1107;0.8673;
865.2000;0.1074;0.8602;
865.5000;0.1091;0.8626;
865.8000;0.1099;0.8579;
866.1000;0.1099;0.8626;
866.4000;0.1091;0.8531;
866.7000;0.1091;0.8555;
867.0000;0.1099;0.8602;
867.3000;0.1050;0.8507;
867.6000;0.1091;0.8626;
867.9000;0.1091;0.8602;
868.2000;0.1099;0.8602;
868.5000;0.1058;0.8531;
868.8000;0.1099;0.8602;
869.1000;0.1066;0.8555;
869.4000;0.1091;0.8531;
869.7000;0.1140;0.8579;
870.0000;0.1091;0.8365;
870.3000;0.1099;0.8460;
870.6000;0.1099;0.8484;
870.9000;0.1115;0.8507;
871.2000;0.1099;0.8507;
871.5000;0.1107;0.8602;
871.8000;0.1099;0.8626;
872.1000;0.1099;0.8602;
872.4000;0.1107;0.8673;
872.7000;0.1123;0.8839;
873.0000;0.1091;0.8744;
873.3000;0.1083;0.8602;
873.6000;0.1140;0.8768;
873.9000;0.1107;0.8673;
874.2000;0.1091;0.8650;
874.5000;0.1083;0.8579;
874.8000;0.1058;0.8507;
875.1000;0.1107;0.8626;
875.4000;0.1115;0.8768;
875.7000;0.1066;0.8721;
876.0000;0.1107;0.8792;
876.3000;0.1115;0.8721;
876.6000;0.1099;0.8673;
876.9000;0.1083;0.8744;
877.2000;0.1091;0.8792;
877.5000;0.1099;0.8815;
877.8000;0.1050;0.8626;
878.1000;0.1107;0.8744;
878.4000;0.1107;0.8602;
878.7000;0.1083;0.8507;
879.0000;0.1115;0.8626;
879.3000;0.1164;0.8768;
879.6000;0.1083;0.8602;
879.9000;0.1180;0.8768;
880.2000;0.1083;0.8579;
880.5000;0.1083;0.8626;
880.8000;0.1083;0.8626;
881.1000;0.1099;0.8673;
881.4000;0.1107;0.8650;
881.7000;0.1083;0.8626;
882.0000;0.1099;0.8602;
882.3000;0.1074;0.8602;
882.6000;0.1091;0.8602;
882.9000;0.1099;0.8721;
883.2000;0.1083;0.8697;
883.5000;0.1091;0.8626;
883.8000;0.1091;0.8673;
884.1000;0.1148;0.8792;
884.4000;0.1074;0.8484;
884.7000;0.1066;0.8507;
885.0000;0.1107;0.8673;
885.3000;0.1083;0.8626;
885.6000;0.1091;0.8555;
885.9000;0.1066;0.8531;
886.2000;0.1091;0.8579;
886.5000;0.1099;0.8673;
886.8000;0.1107;0.8673;
887.1000;0.1083;0.8626;
887.4000;0.1099;0.8602;
887.7000;0.1091;0.8650;
888.0000;0.1083;0.8721;
888.3000;0.1074;0.8697;
888.6000;0.1091;0.8673;
888.9000;0.1083;0.8673;
889.2000;0.1131;0.8839;
889.5000;0.1091;0.8721;
889.8000;0.1074;0.8697;
890.1000;0.1058;0.8673;
890.4000;0.1083;0.8626;
890.7000;0.1091;0.8626;
891.0000;0.1091;0.8602;
891.3000;0.1131;0.8744;
891.6000;0.1099;0.8650;
891.9000;0.1083;0.8507;
892.2000;0.1083;0.8460;
892.5000;0.1074;0.8531;
892.8000;0.1091;0.8460;
893.1000;0.1083;0.8460;
893.4000;0.1091;0.8460;
893.7000;0.1091;0.8531;
894.0000;0.1083;0.8507;
894.3000;0.1107;0.8507;
894.6000;0.1091;0.8413;
894.9000;0.1091;0.8413;
895.2000;0.1074;0.8413;
895.5000;0.1074;0.8436;
895.8000;0.1083;0.8389;
896.1000;0.1099;0.8460;
896.4000;0.1083;0.8531;
896.7000;0.1091;0.8579;
897.0000;0.1083;0.8579;
897.3000;0.1099;0.8626;
897.6000;0.1074;0.8531;
897.9000;0.1107;0.8626;
898.2000;0.1083;0.8602;
898.5000;0.1107;0.8602;
898.8000;0.1091;0.8555;
899.1000;0.1083;0.8531;
899.4000;0.1091;0.8531;
899.7000;0.1107;0.8626;
900.0000;0.1123;0.8721;
900.3000;0.1091;0.8626;
900.6000;0.1107;0.8673;
900.9000;0.1091;0.8579;
901.2000;0.1091;0.8531;
901.5000;0.1091;0.8555;
901.8000;0.1083;0.8579;
902.1000;0.1099;0.8531;
902.4000;0.1074;0.8555;
902.7000;0.1083;0.8555;
903.0000;0.1091;0.8579;
903.3000;0.1083;0.8579;
903.6000;0.1050;0.8531;
903.9000;0.1074;0.8673;
904.2000;0.1091;0.8697;
904.5000;0.1074;0.8673;
904.8000;0.1083;0.8650;
905.1000;0.1083;0.8673;
905.4000;0.1083;0.8673;
905.7000;0.1091;0.8673;
906.0000;0.1091;0.8626;
906.3000;0.1083;0.8602;
906.6000;0.1074;0.8602;
906.9000;0.1074;0.8579;
907.2000;0.1131;0.8602;
907.5000;0.1074;0.8413;
907.8000;0.1091;0.8531;
908.1000;0.1074;0.8484;
908.4000;0.1091;0.8436;
908.7000;0.1099;0.8436;
909.0000;0.1083;0.8484;
909.3000;0.1107;0.8531;
909.6000;0.1091;0.8507;
909.9000;0.1107;0.8531;
910.2000;0.1115;0.8602;
910.5000;0.1091;0.8579;
910.8000;0.1107;0.8555;
911.1000;0.1091;0.8555;
911.4000;0.1083;0.8531;
911.7000;0.1091;0.8579;
912.0000;0.1083;0.8602;
912.3000;0.1099;0.8673;
912.6000;0.1091;0.8602;
912.9000;0.1074;0.8650;
913.2000;0.1074;0.8579;
913.5000;0.1083;0.8579;
913.8000;0.1099;0.8602;
914.1000;0.1115;0.8768;
914.4000;0.1083;0.8673;
914.7000;0.1099;0.8697;
915.0000;0.1107;0.8768;
915.3000;0.1115;0.8815;
915.6000;0.1083;0.8768;
915.9000;0.1083;0.8744;
916.2000;0.1131;0.8792;
916.5000;0.1107;0.8673;
916.8000;0.1074;0.8531;
917.1000;0.1083;0.8579;
917.4000;0.1107;0.8650;
917.7000;0.1091;0.8531;
918.0000;0.1107;0.8579;
918.3000;0.1074;0.8436;
918.6000;0.1074;0.8531;
918.9000;0.1099;0.8555;
919.2000;0.1091;0.8531;
919.5000;0.1074;0.8507;
919.8000;0.1083;0.8389;
920.1000;0.1099;0.8342;
920.4000;0.1091;0.8294;
920.7000;0.1083;0.8247;
921.0000;0.1074;0.8270;
921.3000;0.1083;0.8318;
921.6000;0.1083;0.8413;
921.9000;0.1091;0.8413;
922.2000;0.1058;0.8365;
922.5000;0.1074;0.8389;
922.8000;0.1083;0.8484;
923.1000;0.1099;0.8460;
923.4000;0.1083;0.8460;
923.7000;0.1083;0.8436;
924.0000;0.1099;0.8484;
924.3000;0.1026;0.8247;
924.6000;0.1083;0.8436;
924.9000;0.1099;0.8460;
925.2000;0.1148;0.8697;
925.5000;0.1091;0.8507;
925.8000;0.1091;0.8555;
926.1000;0.1074;0.8555;
926.4000;0.1091;0.8555;
926.7000;0.1099;0.8531;
927.0000;0.1099;0.8436;
927.3000;0.1091;0.8342;
927.6000;0.1074;0.8389;
927.9000;0.1083;0.8413;
928.2000;0.1115;0.8531;
928.5000;0.1083;0.8436;
928.8000;0.1066;0.8460;
929.1000;0.1066;0.8484;
929.4000;0.1066;0.8555;
929.7000;0.1083;0.8626;
930.0000;0.1115;0.8697;
930.3000;0.1066;0.8531;
930.6000;0.1074;0.8413;
930.9000;0.1083;0.8413;
931.2000;0.1099;0.8389;
931.5000;0.1091;0.8389;
931.8000;0.1091;0.8436;
932.1000;0.1058;0.8413;
932.4000;0.1074;0.8484;
932.7000;0.1083;0.8436;
933.0000;0.1099;0.8531;
933.3000;0.1083;0.8460;
933.6000;0.1083;0.8436;
933.9000;0.1074;0.8413;
934.2000;0.1140;0.8507;
934.5000;0.1083;0.8436;
934.8000;0.1091;0.8507;
935.1000;0.1074;0.8555;
935.4000;0.1083;0.8579;
935.7000;0.1099;0.8626;
936.0000;0.1091;0.8673;
936.3000;0.1083;0.8673;
936.6000;0.1083;0.8721;
936.9000;0.1083;0.8744;
937.2000;0.1148;0.8815;
937.5000;0.1091;0.8744;
937.8000;0.1091;0.8721;
938.1000;0.1107;0.8697;
938.4000;0.1107;0.8626;
938.7000;0.1083;0.8602;
939.0000;0.1083;0.8579;
939.3000;0.1099;0.8626;
939.6000;0.1091;0.8650;
939.9000;0.1107;0.8531;
940.2000;0.1074;0.8579;
940.5000;0.1083;0.8507;
940.8000;0.1091;0.8484;
941.1000;0.1083;0.8460;
941.4000;0.1074;0.8436;
941.7000;0.1074;0.8460;
942.0000;0.1074;0.8555;
942.3000;0.1131;0.8602;
942.6000;0.1083;0.8531;
942.9000;0.1074;0.8531;
943.2000;0.1074;0.8389;
943.5000;0.1107;0.8507;
943.8000;0.1099;0.8579;
944.1000;0.1083;0.8460;
944.4000;0.1099;0.8507;
944.7000;0.1123;0.8579;
945.0000;0.1083;0.8460;
945.3000;0.1083;0.8484;
945.6000;0.1074;0.8484;
945.9000;0.1074;0.8484;
946.2000;0.1164;0.8768;
946.5000;0.1083;0.8436;
946.8000;0.1058;0.8365;
947.1000;0.1131;0.8389;
947.4000;0.1107;0.8270;
947.7000;0.1099;0.8223;
948.0000;0.1091;0.8223;
948.3000;0.1066;0.8223;
948.6000;0.1074;0.8318;
948.9000;0.1131;0.8342;
949.2000;0.1074;0.8365;
949.5000;0.1140;0.8531;
949.8000;0.1083;0.8389;
950.1000;0.1083;0.8389;
950.4000;0.1074;0.8507;
950.7000;0.1164;0.8792;
951.0000;0.1074;0.8531;
951.3000;0.1091;0.8579;
951.6000;0.1074;0.8555;
951.9000;0.1083;0.8555;
952.2000;0.1074;0.8602;
952.5000;0.1074;0.8673;
952.8000;0.1131;0.8863;
953.1000;0.1083;0.8721;
953.4000;0.1091;0.8744;
953.7000;0.1066;0.8697;
954.0000;0.1091;0.8650;
954.3000;0.1091;0.8579;
954.6000;0.1091;0.8484;
954.9000;0.1074;0.8531;
955.2000;0.1066;0.8507;
955.5000;0.1066;0.8555;
955.8000;0.1083;0.8436;
956.1000;0.1083;0.8413;
956.4000;0.1091;0.8413;
956.7000;0.1099;0.8484;
957.0000;0.1099;0.8507;
957.3000;0.1066;0.8342;
957.6000;0.1083;0.8389;
957.9000;0.1107;0.8460;
958.2000;0.1058;0.8365;
958.5000;0.1083;0.8413;
958.8000;0.1091;0.8389;
959.1000;0.1083;0.8270;
959.4000;0.1091;0.8294;
959.7000;0.1099;0.8294;
960.0000;0.1099;0.8342;
960.3000;0.1091;0.8389;
960.6000;0.1099;0.8413;
960.9000;0.1099;0.8389;
961.2000;0.1083;0.8436;
961.5000;0.1099;0.8507;
961.8000;0.1074;0.8507;
962.1000;0.1074;0.8507;
962.4000;0.1083;0.8507;
962.7000;0.1099;0.8579;
963.0000;0.1074;0.8650;
963.3000;0.1058;0.8673;
963.6000;0.1066;0.8650;
963.9000;0.1026;0.8507;
964.2000;0.1083;0.8602;
964.5000;0.1083;0.8579;
964.8000;0.1083;0.8673;
965.1000;0.1107;0.8815;
965.4000;0.1107;0.8815;
965.7000;0.1091;0.8839;
966.0000;0.1083;0.8815;
966.3000;0.1099;0.8744;
966.6000;0.1083;0.8744;
966.9000;0.1099;0.8721;
967.2000;0.1107;0.8744;
967.5000;0.1074;0.8768;
967.8000;0.1091;0.8792;
968.1000;0.1066;0.8721;
968.4000;0.1074;0.8673;
968.7000;0.1050;0.8602;
969.0000;0.1091;0.8673;
969.3000;0.1091;0.8673;
969.6000;0.1099;0.8650;
969.9000;0.1074;0.8697;
970.2000;0.1083;0.8721;
970.5000;0.1091;0.8744;
970.8000;0.1066;0.8792;
971.1000;0.1074;0.8815;
971.4000;0.1083;0.8721;
971.7000;0.1042;0.8507;
972.0000;0.1083;0.8602;
972.3000;0.1123;0.8697;
972.6000;0.1083;0.8579;
972.9000;0.1058;0.8531;
973.2000;0.1083;0.8555;
973.5000;0.1099;0.8626;
973.8000;0.1164;0.8744;
974.1000;0.1074;0.8555;
974.4000;0.1083;0.8579;
974.7000;0.1099;0.8650;
975.0000;0.1083;0.8579;
975.3000;0.1091;0.8579;
975.6000;0.1091;0.8650;
975.9000;0.1107;0.8626;
976.2000;0.1066;0.8650;
976.5000;0.1050;0.8650;
976.8000;0.1074;0.8697;
977.1000;0.1083;0.8768;
977.4000;0.1074;0.8697;
977.7000;0.1083;0.8626;
978.0000;0.1115;0.8579;
978.3000;0.1083;0.8507;
978.6000;0.1099;0.8531;
978.9000;0.1123;0.8579;
979.2000;0.1034;0.8294;
979.5000;0.1091;0.8507;
979.8000;0.1091;0.8555;
980.1000;0.1091;0.8579;
980.4000;0.1091;0.8602;
980.7000;0.1074;0.8531;
981.0000;0.1034;0.8484;
981.3000;0.1091;0.8579;
981.6000;0.1140;0.8697;
981.9000;0.1083;0.8507;
982.2000;0.1107;0.8555;
982.5000;0.1107;0.8626;
982.8000;0.1083;0.8650;
983.1000;0.1058;0.8650;
983.4000;0.1099;0.8650;
983.7000;0.1091;0.8555;
984.0000;0.1099;0.8579;
984.3000;0.1115;0.8602;
984.6000;0.1131;0.8555;
984.9000;0.1115;0.8555;
985.2000;0.1099;0.8602;
985.5000;0.1042;0.8484;
985.8000;0.1107;0.8673;
986.1000;0.1099;0.8744;
986.4000;0.1107;0.8721;
986.7000;0.1099;0.8697;
987.0000;0.1091;0.8673;
987.3000;0.1074;0.8697;
987.6000;0.1107;0.8768;
987.9000;0.1083;0.8792;
988.2000;0.1131;0.8887;
988.5000;0.1074;0.8768;
988.8000;0.1099;0.8673;
989.1000;0.1115;0.8650;
989.4000;0.1074;0.8555;
989.7000;0.1074;0.8579;
990.0000;0.1074;0.8555;
990.3000;0.1083;0.8626;
990.6000;0.1091;0.8602;
990.9000;0.1074;0.8650;
991.2000;0.1083;0.8721;
991.5000;0.1066;0.8697;
991.8000;0.1091;0.8792;
992.1000;0.1074;0.8768;
992.4000;0.1091;0.8744;
992.7000;0.1099;0.8768;
993.0000;0.1074;0.8673;
993.3000;0.1091;0.8768;
993.6000;0.1091;0.8721;
993.9000;0.1107;0.8721;
994.2000;0.1107;0.8744;
994.5000;0.1091;0.8650;
994.8000;0.1099;0.8673;
995.1000;0.1018;0.8436;
995.4000;0.1099;0.8673;
995.7000;0.1058;0.8650;
996.0000;0.1107;0.8721;
996.3000;0.1083;0.8673;
996.6000;0.1083;0.8626;
996.9000;0.1042;0.8507;
997.2000;0.1083;0.8673;
997.5000;0.1074;0.8744;
997.8000;0.1018;0.8673;
998.1000;0.1083;0.8839;
998.4000;0.1066;0.8910;
998.7000;0.1058;0.8839;
999.0000;0.1083;0.8934;
999.3000;0.1074;0.8934;
999.6000;0.1074;0.8792;
999.9000;0.1066;0.8721;
1000.2000;0.1115;0.8744;
1000.5000;0.1091;0.8673;
1000.8000;0.1074;0.8650;
1001.1000;0.1074;0.8579;
1001.4000;0.1066;0.8697;
1001.7000;0.1066;0.8744;
1002.0000;0.1091;0.8744;
1002.3000;0.1058;0.8721;
1002.6000;0.1058;0.8768;
1002.9000;0.1115;0.8910;
1003.2000;0.1042;0.8721;
1003.5000;0.1091;0.8863;
1003.8000;0.1091;0.8815;
1004.1000;0.1083;0.8815;
1004.4000;0.1083;0.8863;
1004.7000;0.1099;0.8887;
1005.0000;0.1066;0.8839;
1005.3000;0.1074;0.8887;
1005.6000;0.1083;0.8863;
1005.9000;0.1099;0.8839;
1006.2000;0.1074;0.8673;
1006.5000;0.1066;0.8697;
1006.8000;0.1066;0.8650;
1007.1000;0.1083;0.8744;
1007.4000;0.1074;0.8744;
1007.7000;0.1091;0.8744;
1008.0000;0.1074;0.8721;
1008.3000;0.1083;0.8792;
1008.6000;0.1099;0.8815;
1008.9000;0.1099;0.8815;
1009.2000;0.1074;0.8910;
1009.5000;0.1140;0.9076;
1009.8000;0.1083;0.8887;
1010.1000;0.1066;0.8768;
1010.4000;0.1018;0.8602;
1010.7000;0.1083;0.8744;
1011.0000;0.1074;0.8697;
1011.3000;0.1058;0.8673;
1011.6000;0.1066;0.8721;
1011.9000;0.1074;0.8768;
1012.2000;0.1099;0.8792;
1012.5000;0.1074;0.8650;
1012.8000;0.1091;0.8744;
1013.1000;0.1066;0.8650;
1013.4000;0.1140;0.8792;
1013.7000;0.1099;0.8673;
1014.0000;0.1091;0.8697;
1014.3000;0.1074;0.8602;
1014.6000;0.1099;0.8792;
1014.9000;0.1083;0.8839;
1015.2000;0.1074;0.8839;
1015.5000;0.1083;0.8792;
1015.8000;0.1083;0.8815;
1016.1000;0.1091;0.8815;
1016.4000;0.1099;0.8792;
1016.7000;0.1091;0.8697;
1017.0000;0.1091;0.8697;
1017.3000;0.1115;0.8673;
1017.6000;0.1083;0.8579;
1017.9000;0.1091;0.8602;
1018.2000;0.1074;0.8626;
1018.5000;0.1066;0.8673;
1018.8000;0.1107;0.8744;
1019.1000;0.1066;0.8697;
1019.4000;0.1066;0.8650;
1019.7000;0.1091;0.8673;
1020.0000;0.1074;0.8697;
1020.3000;0.1091;0.8721;
1020.6000;0.1074;0.8744;
1020.9000;0.1009;0.8602;
1021.2000;0.1066;0.8792;
1021.5000;0.1083;0.8792;
1021.8000;0.1083;0.8744;
1022.1000;0.1074;0.8768;
1022.4000;0.1074;0.8839;
1022.7000;0.1050;0.8792;
1023.0000;0.1074;0.8863;
1023.3000;0.1042;0.8792;
1023.6000;0.1066;0.8815;
1023.9000;0.1074;0.8744;
1024.2000;0.1066;0.8673;
1024.5000;0.1074;0.8697;
1024.8000;0.1083;0.8650;
1025.1000;0.1091;0.8744;
1025.4000;0.1074;0.8744;
1025.7000;0.1074;0.8815;
1026.0000;0.1131;0.8910;
1026.3000;0.1091;0.8792;
1026.6000;0.1091;0.8744;
1026.9000;0.1083;0.8792;
1027.2000;0.1083;0.8815;
1027.5000;0.1074;0.8721;
1027.8000;0.1083;0.8815;
1028.1000;0.1140;0.8958;
1028.4000;0.1074;0.8744;
1028.7000;0.1058;0.8721;
1029.0000;0.1058;0.8792;
1029.3000;0.1074;0.8768;
1029.6000;0.1066;0.8863;
1029.9000;0.1091;0.8958;
1030.2000;0.1083;0.8910;
1030.5000;0.1091;0.8910;
1030.8000;0.1099;0.8934;
1031.1000;0.1074;0.8768;
1031.4000;0.1083;0.8815;
1031.7000;0.1091;0.8815;
1032.0000;0.1026;0.8673;
1032.3000;0.1083;0.8744;
1032.6000;0.1091;0.8792;
1032.9000;0.1074;0.8768;
1033.2000;0.1083;0.8792;
1033.5000;0.1074;0.8744;
1033.8000;0.1091;0.8839;
1034.1000;0.1050;0.8792;
1034.4000;0.1066;0.8887;
1034.7000;0.1058;0.8768;
1035.0000;0.1050;0.8792;
1035.3000;0.1131;0.8958;
1035.6000;0.1074;0.8815;
1035.9000;0.1083;0.8792;
1036.2000;0.1083;0.8744;
1036.5000;0.1066;0.8839;
1036.8000;0.1050;0.8910;
1037.1000;0.1099;0.8958;
1037.4000;0.1058;0.8839;
1037.7000;0.1091;0.8934;
1038.0000;0.1091;0.8910;
1038.3000;0.1083;0.8934;
1038.6000;0.1074;0.8815;
1038.9000;0.1083;0.8839;
1039.2000;0.1083;0.8887;
1039.5000;0.1091;0.8863;
1039.8000;0.1091;0.8934;
1040.1000;0.1099;0.8981;
1040.4000;0.1083;0.8934;
1040.7000;0.1083;0.8815;
1041.0000;0.1091;0.8792;
1041.3000;0.1091;0.8815;
1041.6000;0.1074;0.8792;
1041.9000;0.1034;0.8673;
1042.2000;0.1066;0.8792;
1042.5000;0.1074;0.8839;
1042.8000;0.1074;0.8792;
1043.1000;0.1107;0.8792;
1043.4000;0.1083;0.8792;
1043.7000;0.1083;0.8768;
1044.0000;0.1074;0.8744;
1044.3000;0.1099;0.8792;
1044.6000;0.1099;0.8815;
1044.9000;0.1058;0.8721;
1045.2000;0.1123;0.8910;
1045.5000;0.1091;0.8863;
1045.8000;0.1074;0.8863;
1046.1000;0.1083;0.8887;
1046.4000;0.1083;0.8792;
1046.7000;0.1066;0.8792;
1047.0000;0.1074;0.8792;
1047.3000;0.1074;0.8839;
1047.6000;0.1083;0.8887;
1047.9000;0.1074;0.8815;
1048.2000;0.1115;0.8887;
1048.5000;0.1074;0.8887;
1048.8000;0.1074;0.8863;
1049.1000;0.1066;0.8839;
1049.4000;0.1074;0.8815;
1049.7000;0.1066;0.8768;
1050.0000;0.1074;0.8887;
1050.3000;0.1074;0.8863;
1050.6000;0.1083;0.8934;
1050.9000;0.1066;0.8815;
1051.2000;0.1091;0.8910;
1051.5000;0.1091;0.8863;
1051.8000;0.1091;0.8910;
1052.1000;0.1066;0.8815;
1052.4000;0.1099;0.8934;
1052.7000;0.1083;0.8934;
1053.0000;0.1083;0.8981;
1053.3000;0.1083;0.8981;
1053.6000;0.1091;0.8958;
1053.9000;0.1074;0.8863;
1054.2000;0.1091;0.8887;
1054.5000;0.1042;0.8815;
1054.8000;0.1107;0.8863;
1055.1000;0.1074;0.8721;
1055.4000;0.1034;0.8673;
1055.7000;0.1066;0.8673;
1056.0000;0.1091;0.8744;
1056.3000;0.1091;0.8792;
1056.6000;0.1066;0.8721;
1056.9000;0.1115;0.8792;
1057.2000;0.1091;0.8768;
1057.5000;0.1099;0.8792;
1057.8000;0.1034;0.8626;
1058.1000;0.1074;0.8768;
1058.4000;0.1083;0.8863;
1058.7000;0.1083;0.8863;
1059.0000;0.1083;0.8792;
1059.3000;0.1091;0.8768;
1059.6000;0.1107;0.8815;
1059.9000;0.1083;0.8721;
1060.2000;0.1083;0.8697;
1060.5000;0.1083;0.8673;
1060.8000;0.1074;0.8650;
1061.1000;0.1083;0.8697;
1061.4000;0.1091;0.8792;
1061.7000;0.1083;0.8815;
1062.0000;0.1042;0.8768;
1062.3000;0.1074;0.8792;
1062.6000;0.1091;0.8744;
1062.9000;0.1083;0.8768;
1063.2000;0.1034;0.8650;
1063.5000;0.1083;0.8792;
1063.8000;0.1083;0.8887;
1064.1000;0.1050;0.8887;
1064.4000;0.1099;0.8981;
1064.7000;0.1083;0.8981;
1065.0000;0.1066;0.8863;
1065.3000;0.1083;0.8792;
1065.6000;0.1091;0.8768;
1065.9000;0.1099;0.8815;
1066.2000;0.1066;0.8839;
1066.5000;0.1074;0.8863;
1066.8000;0.1083;0.8887;
1067.1000;0.1083;0.8863;
1067.4000;0.1099;0.8887;
1067.7000;0.1083;0.8792;
1068.0000;0.1083;0.8697;
1068.3000;0.1091;0.8744;
1068.6000;0.1074;0.8839;
1068.9000;0.1042;0.8863;
1069.2000;0.1083;0.8934;
1069.5000;0.1083;0.8958;
1069.8000;0.1066;0.8910;
1070.1000;0.1066;0.8839;
1070.4000;0.1066;0.8863;
1070.7000;0.1091;0.8863;
1071.0000;0.1074;0.8839;
1071.3000;0.1074;0.8792;
1071.6000;0.1083;0.8744;
1071.9000;0.1091;0.8792;
1072.2000;0.1026;0.8626;
1072.5000;0.1074;0.8721;
1072.8000;0.1074;0.8815;
1073.1000;0.1074;0.8792;
1073.4000;0.1091;0.8792;
1073.7000;0.1066;0.8673;
1074.0000;0.1083;0.8650;
1074.3000;0.1074;0.8650;
1074.6000;0.1074;0.8650;
1074.9000;0.1091;0.8744;
1075.2000;0.1066;0.8673;
1075.5000;0.1074;0.8626;
1075.8000;0.1091;0.8697;
1076.1000;0.1148;0.8744;
1076.4000;0.1099;0.8650;
1076.7000;0.1115;0.8721;
1077.0000;0.1091;0.8626;
1077.3000;0.1091;0.8602;
1077.6000;0.1083;0.8555;
1077.9000;0.1083;0.8579;
1078.2000;0.1083;0.8579;
1078.5000;0.1140;0.8650;
1078.8000;0.1074;0.8507;
1079.1000;0.1107;0.8626;
1079.4000;0.1107;0.8626;
1079.7000;0.1074;0.8531;
1080.0000;0.1050;0.8436;
1080.3000;0.1074;0.8507;
1080.6000;0.1074;0.8507;
1080.9000;0.1083;0.8460;
1081.2000;0.1123;0.8507;
1081.5000;0.1099;0.8484;
1081.8000;0.1058;0.8342;
1082.1000;0.1074;0.8436;
1082.4000;0.1083;0.8413;
1082.7000;0.1066;0.8460;
1083.0000;0.1074;0.8484;
1083.3000;0.1083;0.8531;
1083.6000;0.1099;0.8555;
1083.9000;0.1074;0.8555;
1084.2000;0.1099;0.8650;
1084.5000;0.1099;0.8673;
1084.8000;0.1074;0.8602;
1085.1000;0.1026;0.8436;
1085.4000;0.1099;0.8507;
1085.7000;0.1083;0.8484;
1086.0000;0.1074;0.8531;
1086.3000;0.1058;0.8484;
1086.6000;0.1074;0.8531;
1086.9000;0.1083;0.8484;
1087.2000;0.1091;0.8365;
1087.5000;0.1091;0.8342;
1087.8000;0.1107;0.8389;
1088.1000;0.1026;0.8152;
1088.4000;0.1115;0.8484;
1088.7000;0.1074;0.8436;
1089.0000;0.1091;0.8531;
1089.3000;0.1074;0.8579;
1089.6000;0.1091;0.8626;
1089.9000;0.1099;0.8650;
1090.2000;0.1107;0.8697;
1090.5000;0.1083;0.8626;
1090.8000;0.1083;0.8579;
1091.1000;0.1091;0.8626;
1091.4000;0.1099;0.8626;
1091.7000;0.1083;0.8555;
1092.0000;0.1074;0.8531;
1092.3000;0.1099;0.8555;
1092.6000;0.1115;0.8602;
1092.9000;0.1091;0.8602;
1093.2000;0.1074;0.8531;
1093.5000;0.1083;0.8650;
1093.8000;0.1074;0.8650;
1094.1000;0.1066;0.8650;
1094.4000;0.1074;0.8602;
1094.7000;0.1058;0.8507;
1095.0000;0.1066;0.8602;
1095.3000;0.1091;0.8650;
1095.6000;0.1107;0.8697;
1095.9000;0.1074;0.8650;
1096.2000;0.1074;0.8626;
1096.5000;0.1083;0.8697;
1096.8000;0.1083;0.8768;
1097.1000;0.1074;0.8744;
1097.4000;0.1083;0.8792;
1097.7000;0.1091;0.8768;
1098.0000;0.1107;0.8768;
1098.3000;0.1083;0.8626;
1098.6000;0.1091;0.8626;
1098.9000;0.1099;0.8721;
1099.2000;0.1099;0.8744;
1099.5000;0.1083;0.8697;
1099.8000;0.1074;0.8626;
1100.1000;0.1099;0.8673;
1100.4000;0.1083;0.8555;
1100.7000;0.1074;0.8579;
1101.0000;0.1074;0.8650;
1101.3000;0.1058;0.8626;
1101.6000;0.1083;0.8768;
1101.9000;0.1074;0.8721;
1102.2000;0.1018;0.8531;
1102.5000;0.1107;0.8768;
1102.8000;0.1083;0.8579;
1103.1000;0.1140;0.8721;
1103.4000;0.1107;0.8650;
1103.7000;0.1083;0.8673;
1104.0000;0.1083;0.8626;
1104.3000;0.1042;0.8555;
1104.6000;0.1083;0.8744;
1104.9000;0.1083;0.8721;
1105.2000;0.1074;0.8792;
1105.5000;0.1091;0.8792;
1105.8000;0.1091;0.8744;
1106.1000;0.1066;0.8721;
1106.4000;0.1074;0.8721;
1106.7000;0.1091;0.8815;
1107.0000;0.1083;0.8792;
1107.3000;0.1074;0.8792;
1107.6000;0.1074;0.8792;
1107.9000;0.1042;0.8744;
1108.2000;0.1091;0.8839;
1108.5000;0.1099;0.8815;
1108.8000;0.1091;0.8839;
1109.1000;0.1091;0.8815;
1109.4000;0.1091;0.8839;
1109.7000;0.1083;0.8744;
1110.0000;0.1074;0.8626;
1110.3000;0.1091;0.8650;
1110.6000;0.1099;0.8744;
1110.9000;0.1123;0.8815;
1111.2000;0.1091;0.8721;
1111.5000;0.1083;0.8697;
1111.8000;0.1074;0.8815;
1112.1000;0.1099;0.8839;
1112.4000;0.1083;0.8744;
1112.7000;0.1091;0.8626;
1113.0000;0.1083;0.8697;
1113.3000;0.1099;0.8744;
1113.6000;0.1091;0.8744;
1113.9000;0.1091;0.8721;
1114.2000;0.1091;0.8721;
1114.5000;0.1083;0.8626;
1114.8000;0.1091;0.8721;
1115.1000;0.1074;0.8744;
1115.4000;0.1091;0.8744;
1115.7000;0.1074;0.8768;
1116.0000;0.1107;0.8815;
1116.3000;0.1074;0.8721;
1116.6000;0.1058;0.8697;
1116.9000;0.1083;0.8697;
1117.2000;0.1083;0.8721;
1117.5000;0.1074;0.8697;
1117.8000;0.1066;0.8768;
1118.1000;0.1034;0.8602;
1118.4000;0.1074;0.8721;
1118.7000;0.1074;0.8744;
1119.0000;0.1066;0.8697;
1119.3000;0.1091;0.8744;
1119.6000;0.1074;0.8744;
1119.9000;0.1083;0.8792;
1120.2000;0.1074;0.8792;
1120.5000;0.1091;0.8815;
1120.8000;0.1083;0.8839;
1121.1000;0.1066;0.8815;
1121.4000;0.1074;0.8792;
1121.7000;0.1066;0.8839;
1122.0000;0.1066;0.8839;
1122.3000;0.1074;0.8815;
1122.6000;0.1074;0.8768;
1122.9000;0.1050;0.8744;
1123.2000;0.1066;0.8815;
1123.5000;0.1074;0.8768;
1123.8000;0.1099;0.8815;
1124.1000;0.1074;0.8792;
1124.4000;0.1074;0.8768;
1124.7000;0.1083;0.8839;
1125.0000;0.1074;0.8768;
1125.3000;0.1083;0.8792;
1125.6000;0.1066;0.8697;
1125.9000;0.1099;0.8721;
1126.2000;0.1091;0.8626;
1126.5000;0.1115;0.8626;
1126.8000;0.1066;0.8579;
1127.1000;0.1083;0.8602;
1127.4000;0.1050;0.8531;
1127.7000;0.1099;0.8673;
1128.0000;0.1074;0.8744;
1128.3000;0.1058;0.8650;
1128.6000;0.1074;0.8721;
1128.9000;0.1083;0.8650;
1129.2000;0.1091;0.8579;
1129.5000;0.1083;0.8650;
1129.8000;0.1066;0.8626;
1130.1000;0.1083;0.8650;
1130.4000;0.1074;0.8650;
1130.7000;0.1074;0.8697;
1131.0000;0.1066;0.8721;
1131.3000;0.1083;0.8673;
1131.6000;0.1083;0.8744;
1131.9000;0.1083;0.8721;
1132.2000;0.1091;0.8721;
1132.5000;0.1083;0.8673;
1132.8000;0.1099;0.8697;
1133.1000;0.1083;0.8602;
1133.4000;0.1058;0.8531;
1133.7000;0.1091;0.8626;
1134.0000;0.1066;0.8579;
1134.3000;0.1091;0.8602;
1134.6000;0.1099;0.8650;
1134.9000;0.1074;0.8650;
1135.2000;0.1083;0.8650;
1135.5000;0.1091;0.8697;
1135.8000;0.1099;0.8721;
1136.1000;0.1091;0.8673;
1136.4000;0.1091;0.8697;
1136.7000;0.1058;0.8579;
1137.0000;0.1091;0.8744;
1137.3000;0.1140;0.8887;
1137.6000;0.1099;0.8839;
1137.9000;0.1099;0.8863;
1138.2000;0.1083;0.8910;
1138.5000;0.1066;0.8863;
1138.8000;0.1074;0.8910;
1139.1000;0.1066;0.8887;
1139.4000;0.1083;0.8934;
1139.7000;0.1058;0.8934;
1140.0000;0.1050;0.8839;
1140.3000;0.1091;0.8887;
1140.6000;0.1083;0.8910;
1140.9000;0.1074;0.8887;
1141.2000;0.1083;0.8839;
1141.5000;0.1083;0.8815;
1141.8000;0.1099;0.8887;
1142.1000;0.1099;0.8863;
1142.4000;0.1066;0.8863;
1142.7000;0.1074;0.8910;
1143.0000;0.1074;0.8910;
1143.3000;0.1074;0.8934;
1143.6000;0.1058;0.8958;
1143.9000;0.1058;0.8981;
1144.2000;0.1042;0.8934;
1144.5000;0.1074;0.8934;
1144.8000;0.1083;0.8910;
1145.1000;0.1042;0.8744;
1145.4000;0.1066;0.8839;
1145.7000;0.1066;0.8839;
1146.0000;0.1066;0.8792;
1146.3000;0.1074;0.8697;
1146.6000;0.1066;0.8768;
1146.9000;0.1074;0.8744;
1147.2000;0.1083;0.8815;
1147.5000;0.1091;0.8815;
1147.8000;0.1083;0.8839;
1148.1000;0.1074;0.8863;
1148.4000;0.1083;0.8887;
1148.7000;0.1066;0.8697;
1149.0000;0.1050;0.8626;
1149.3000;0.1074;0.8721;
1149.6000;0.1107;0.8768;
1149.9000;0.1091;0.8721;
1150.2000;0.1066;0.8697;
1150.5000;0.1083;0.8721;
1150.8000;0.1123;0.8863;
1151.1000;0.1074;0.8744;
1151.4000;0.1066;0.8744;
1151.7000;0.1066;0.8792;
1152.0000;0.1074;0.8839;
1152.3000;0.1091;0.8768;
1152.6000;0.1083;0.8815;
1152.9000;0.1099;0.8910;
1153.2000;0.1091;0.8887;
1153.5000;0.1091;0.8744;
1153.8000;0.1091;0.8602;
1154.1000;0.1083;0.8531;
1154.4000;0.1083;0.8602;
1154.7000;0.1107;0.8626;
1155.0000;0.1091;0.8626;
1155.3000;0.1083;0.8531;
1155.6000;0.1066;0.8602;
1155.9000;0.1058;0.8579;
1156.2000;0.1115;0.8721;
1156.5000;0.1074;0.8626;
1156.8000;0.1074;0.8744;
1157.1000;0.1099;0.8863;
1157.4000;0.1066;0.8744;
1157.7000;0.1058;0.8721;
1158.0000;0.1115;0.8910;
1158.3000;0.1099;0.8863;
1158.6000;0.1099;0.8863;
1158.9000;0.0961;0.8555;
1159.2000;0.1083;0.8887;
1159.5000;0.1066;0.8863;
1159.8000;0.1066;0.8815;
1160.1000;0.1164;0.9100;
1160.4000;0.1042;0.8839;
1160.7000;0.1091;0.8910;
1161.0000;0.1074;0.8815;
1161.3000;0.1058;0.8721;
1161.6000;0.1066;0.8744;
1161.9000;0.1083;0.8768;
1162.2000;0.1083;0.8839;
1162.5000;0.1066;0.8839;
1162.8000;0.1083;0.8815;
1163.1000;0.1074;0.8792;
1163.4000;0.1083;0.8839;
1163.7000;0.1074;0.8839;
1164.0000;0.1066;0.8744;
1164.3000;0.1091;0.8792;
1164.6000;0.1083;0.8792;
1164.9000;0.1083;0.8792;
1165.2000;0.1083;0.8768;
1165.5000;0.1091;0.8744;
1165.8000;0.1074;0.8673;
1166.1000;0.1091;0.8721;
1166.4000;0.1074;0.8744;
1166.7000;0.1099;0.8744;
1167.0000;0.1148;0.8863;
1167.3000;0.1099;0.8744;
1167.6000;0.1107;0.8792;
1167.9000;0.1083;0.8744;
1168.2000;0.1107;0.8887;
1168.5000;0.1083;0.8744;
1168.8000;0.1091;0.8721;
1169.1000;0.1140;0.8839;
1169.4000;0.1066;0.8673;
1169.7000;0.1026;0.8602;
1170.0000;0.1058;0.8744;
1170.3000;0.1091;0.8792;
1170.6000;0.1091;0.8839;
1170.9000;0.1074;0.8839;
1171.2000;0.1099;0.8839;
1171.5000;0.1107;0.8839;
1171.8000;0.1115;0.8815;
1172.1000;0.1083;0.8650;
1172.4000;0.1066;0.8626;
1172.7000;0.1083;0.8626;
1173.0000;0.1074;0.8555;
1173.3000;0.1050;0.8555;
1173.6000;0.1083;0.8650;
1173.9000;0.1107;0.8744;
1174.2000;0.1091;0.8673;
1174.5000;0.1091;0.8626;
1174.8000;0.1066;0.8507;
1175.1000;0.1140;0.8650;
1175.4000;0.1001;0.8247;
1175.7000;0.1091;0.8531;
1176.0000;0.1074;0.8602;
1176.3000;0.1099;0.8626;
1176.6000;0.1083;0.8602;
1176.9000;0.1091;0.8555;
1177.2000;0.1083;0.8555;
1177.5000;0.1058;0.8531;
1177.8000;0.1074;0.8507;
1178.1000;0.1083;0.8484;
1178.4000;0.1083;0.8507;
1178.7000;0.1083;0.8484;
1179.0000;0.1083;0.8436;
1179.3000;0.1099;0.8579;
1179.6000;0.1083;0.8531;
1179.9000;0.1083;0.8555;
1180.2000;0.1058;0.8484;
1180.5000;0.1083;0.8579;
1180.8000;0.1083;0.8602;
1181.1000;0.1099;0.8579;
1181.4000;0.1083;0.8460;
1181.7000;0.1115;0.8507;
1182.0000;0.1099;0.8555;
1182.3000;0.1083;0.8507;
1182.6000;0.1058;0.8531;
1182.9000;0.1066;0.8626;
1183.2000;0.1074;0.8697;
1183.5000;0.1091;0.8768;
1183.8000;0.1034;0.8555;
1184.1000;0.1074;0.8650;
1184.4000;0.1099;0.8673;
1184.7000;0.1083;0.8579;
1185.0000;0.1083;0.8531;
1185.3000;0.1074;0.8531;
1185.6000;0.1083;0.8650;
1185.9000;0.1099;0.8650;
1186.2000;0.1074;0.8555;
1186.5000;0.1091;0.8602;
1186.8000;0.1026;0.8507;
1187.1000;0.1099;0.8721;
1187.4000;0.1091;0.8792;
1187.7000;0.1131;0.8887;
1188.0000;0.1074;0.8744;
1188.3000;0.1066;0.8721;
1188.6000;0.1066;0.8744;
1188.9000;0.1074;0.8721;
1189.2000;0.1058;0.8697;
1189.5000;0.1091;0.8863;
1189.8000;0.1074;0.8815;
1190.1000;0.1099;0.8792;
1190.4000;0.1074;0.8792;
1190.7000;0.1058;0.8839;
1191.0000;0.1074;0.8839;
1191.3000;0.1083;0.8910;
1191.6000;0.1083;0.8910;
1191.9000;0.1099;0.8887;
1192.2000;0.1026;0.8697;
1192.5000;0.1107;0.8839;
1192.8000;0.1083;0.8768;
1193.1000;0.1074;0.8673;
1193.4000;0.1091;0.8721;
1193.7000;0.1083;0.8673;
1194.0000;0.1083;0.8721;
1194.3000;0.1074;0.8673;
1194.6000;0.1083;0.8673;
1194.9000;0.1083;0.8768;
1195.2000;0.1058;0.8697;
1195.5000;0.1066;0.8650;
1195.8000;0.1074;0.8673;
1196.1000;0.1074;0.8673;
1196.4000;0.1115;0.8697;
1196.7000;0.1066;0.8626;
1197.0000;0.1083;0.8697;
1197.3000;0.1083;0.8697;
1197.6000;0.1091;0.8673;
1197.9000;0.1042;0.8531;
1198.2000;0.1099;0.8626;
1198.5000;0.1083;0.8602;
1198.8000;0.1018;0.8460;
1199.1000;0.1066;0.8650;
1199.4000;0.1058;0.8626;
1199.7000;0.1083;0.8721;
1200.0000;0.1107;0.8744;
1200.3000;0.1091;0.8650;
1200.6000;0.1099;0.8673;
1200.9000;0.1083;0.8626;
1201.2000;0.1058;0.8673;
1201.5000;0.1091;0.8744;
1201.8000;0.1074;0.8721;
1202.1000;0.1083;0.8721;
1202.4000;0.1066;0.8626;
1202.7000;0.1099;0.8768;
1203.0000;0.1058;0.8744;
1203.3000;0.1083;0.8744;
1203.6000;0.1083;0.8768;
1203.9000;0.1083;0.8792;
1204.2000;0.1074;0.8815;
1204.5000;0.1018;0.8768;
1204.8000;0.1034;0.8744;
1205.1000;0.1091;0.8863;
1205.4000;0.1074;0.8815;
1205.7000;0.1074;0.8721;
1206.0000;0.1074;0.8650;
1206.3000;0.1083;0.8626;
1206.6000;0.1083;0.8721;
1206.9000;0.1066;0.8650;
1207.2000;0.1074;0.8626;
1207.5000;0.1083;0.8673;
1207.8000;0.1091;0.8744;
1208.1000;0.1099;0.8768;
1208.4000;0.1131;0.8839;
1208.7000;0.1099;0.8768;
1209.0000;0.1099;0.8768;
1209.3000;0.1107;0.8792;
1209.6000;0.1091;0.8744;
1209.9000;0.1083;0.8602;
1210.2000;0.1107;0.8555;
1210.5000;0.1099;0.8507;
1210.8000;0.1050;0.8389;
1211.1000;0.1074;0.8413;
1211.4000;0.1050;0.8436;
1211.7000;0.1074;0.8579;
1212.0000;0.1131;0.8744;
1212.3000;0.1058;0.8507;
1212.6000;0.1066;0.8531;
1212.9000;0.1091;0.8626;
1213.2000;0.1066;0.8697;
1213.5000;0.1074;0.8815;
1213.8000;0.1083;0.8887;
1214.1000;0.1091;0.8815;
1214.4000;0.1099;0.8768;
1214.7000;0.1058;0.8602;
1215.0000;0.1042;0.8484;
1215.3000;0.1066;0.8626;
1215.6000;0.1058;0.8602;
1215.9000;0.1099;0.8721;
1216.2000;0.1066;0.8768;
1216.5000;0.1074;0.8697;
1216.8000;0.1074;0.8650;
1217.1000;0.1099;0.8697;
1217.4000;0.1074;0.8673;
1217.7000;0.1107;0.8839;
1218.0000;0.1074;0.8697;
1218.3000;0.1083;0.8744;
1218.6000;0.1074;0.8744;
1218.9000;0.1066;0.8650;
1219.2000;0.1074;0.8744;
1219.5000;0.1074;0.8673;
1219.8000;0.1034;0.8602;
1220.1000;0.1140;0.8863;
1220.4000;0.1083;0.8721;
1220.7000;0.1099;0.8768;
1221.0000;0.1074;0.8721;
1221.3000;0.1091;0.8697;
1221.6000;0.1083;0.8650;
1221.9000;0.1074;0.8650;
1222.2000;0.1066;0.8650;
1222.5000;0.1140;0.8744;
1222.8000;0.1091;0.8650;
1223.1000;0.1091;0.8626;
1223.4000;0.1083;0.8626;
1223.7000;0.1091;0.8650;
1224.0000;0.1091;0.8650;
1224.3000;0.1050;0.8697;
1224.6000;0.1074;0.8744;
1224.9000;0.1091;0.8650;
1225.2000;0.1001;0.8436;
1225.5000;0.1074;0.8650;
1225.8000;0.1066;0.8744;
1226.1000;0.1083;0.8768;
1226.4000;0.1083;0.8697;
1226.7000;0.1034;0.8602;
1227.0000;0.1074;0.8626;
1227.3000;0.1083;0.8673;
1227.6000;0.1058;0.8697;
1227.9000;0.1074;0.8626;
1228.2000;0.1083;0.8626;
1228.5000;0.1083;0.8626;
1228.8000;0.1083;0.8721;
1229.1000;0.1066;0.8744;
1229.4000;0.1066;0.8744;
1229.7000;0.1074;0.8815;
1230.0000;0.1074;0.8792;
1230.3000;0.1074;0.8721;
1230.6000;0.1140;0.8887;
1230.9000;0.1074;0.8768;
1231.2000;0.1083;0.8839;
1231.5000;0.1083;0.8863;
1231.8000;0.1083;0.8934;
1232.1000;0.1099;0.8934;
1232.4000;0.1066;0.8934;
1232.7000;0.1066;0.8958;
1233.0000;0.1074;0.8815;
1233.3000;0.1066;0.8768;
1233.6000;0.1099;0.8815;
1233.9000;0.1074;0.8768;
1234.2000;0.1099;0.8815;
1234.5000;0.1066;0.8744;
1234.8000;0.1091;0.8721;
1235.1000;0.1123;0.8744;
1235.4000;0.1083;0.8650;
1235.7000;0.1074;0.8626;
1236.0000;0.1066;0.8602;
1236.3000;0.1091;0.8602;
1236.6000;0.1066;0.8602;
1236.9000;0.1066;0.8673;
1237.2000;0.1074;0.8744;
1237.5000;0.1058;0.8555;
1237.8000;0.1074;0.8602;
1238.1000;0.1026;0.8460;
1238.4000;0.1091;0.8650;
1238.7000;0.1083;0.8602;
1239.0000;0.1066;0.8555;
1239.3000;0.1066;0.8507;
1239.6000;0.1058;0.8507;
1239.9000;0.1066;0.8602;
1240.2000;0.1083;0.8602;
1240.5000;0.1083;0.8555;
1240.8000;0.1066;0.8507;
1241.1000;0.1083;0.8484;
1241.4000;0.1091;0.8602;
1241.7000;0.1058;0.8531;
1242.0000;0.1083;0.8650;
1242.3000;0.1083;0.8768;
1242.6000;0.1099;0.8910;
1242.9000;0.1083;0.8815;
1243.2000;0.1083;0.8839;
1243.5000;0.1099;0.8863;
1243.8000;0.1083;0.8839;
1244.1000;0.1091;0.8768;
1244.4000;0.1164;0.8934;
1244.7000;0.1091;0.8768;
1245.0000;0.1074;0.8768;
1245.3000;0.1156;0.8839;
1245.6000;0.1066;0.8579;
1245.9000;0.1083;0.8626;
1246.2000;0.1083;0.8673;
1246.5000;0.1074;0.8579;
1246.8000;0.1091;0.8602;
1247.1000;0.1066;0.8531;
1247.4000;0.1083;0.8579;
1247.7000;0.1066;0.8579;
1248.0000;0.1050;0.8650;
1248.3000;0.1074;0.8792;
1248.6000;0.1083;0.8815;
1248.9000;0.1074;0.8839;
1249.2000;0.1091;0.8792;
1249.5000;0.1083;0.8744;
1249.8000;0.1009;0.8460;
1250.1000;0.1058;0.8531;
1250.4000;0.1083;0.8531;
1250.7000;0.1074;0.8579;
1251.0000;0.1083;0.8626;
1251.3000;0.1074;0.8744;
1251.6000;0.1066;0.8744;
1251.9000;0.1074;0.8768;
1252.2000;0.1083;0.8744;
1252.5000;0.1066;0.8721;
1252.8000;0.1074;0.8721;
1253.1000;0.1066;0.8697;
1253.4000;0.1074;0.8721;
1253.7000;0.1083;0.8697;
1254.0000;0.1074;0.8768;
1254.3000;0.1083;0.8792;
1254.6000;0.1099;0.8744;
1254.9000;0.1083;0.8721;
1255.2000;0.1074;0.8721;
1255.5000;0.1083;0.8744;
1255.8000;0.1074;0.8839;
1256.1000;0.1091;0.8887;
1256.4000;0.1083;0.8815;
1256.7000;0.1083;0.8744;
1257.0000;0.1083;0.8792;
1257.3000;0.1066;0.8768;
1257.6000;0.1091;0.8744;
1257.9000;0.1074;0.8697;
1258.2000;0.1140;0.8863;
1258.5000;0.1083;0.8768;
1258.8000;0.1099;0.8744;
1259.1000;0.1074;0.8721;
1259.4000;0.1034;0.8626;
1259.7000;0.1099;0.8721;
1260.0000;0.1091;0.8673;
1260.3000;0.1042;0.8555;
1260.6000;0.1091;0.8602;
1260.9000;0.1083;0.8626;
1261.2000;0.1148;0.8815;
1261.5000;0.1066;0.8673;
1261.8000;0.1074;0.8697;
1262.1000;0.1107;0.8768;
1262.4000;0.1083;0.8673;
1262.7000;0.1074;0.8721;
1263.0000;0.1074;0.8673;
1263.3000;0.1074;0.8721;
1263.6000;0.1091;0.8673;
1263.9000;0.1083;0.8626;
1264.2000;0.1074;0.8650;
1264.5000;0.1083;0.8768;
1264.8000;0.1083;0.8768;
1265.1000;0.1083;0.8768;
1265.4000;0.1050;0.8697;
1265.7000;0.1066;0.8744;
1266.0000;0.1074;0.8697;
1266.3000;0.1066;0.8721;
1266.6000;0.1083;0.8887;
1266.9000;0.1083;0.8887;
1267.2000;0.1083;0.8863;
1267.5000;0.1164;0.8981;
1267.8000;0.1058;0.8697;
1268.1000;0.1099;0.8768;
1268.4000;0.1083;0.8792;
1268.7000;0.1083;0.8721;
1269.0000;0.1083;0.8697;
1269.3000;0.1074;0.8744;
1269.6000;0.1083;0.8721;
1269.9000;0.1099;0.8768;
1270.2000;0.1099;0.8768;
1270.5000;0.1099;0.8768;
1270.8000;0.1074;0.8768;
1271.1000;0.1058;0.8673;
1271.4000;0.1099;0.8721;
1271.7000;0.1123;0.8792;
1272.0000;0.1083;0.8768;
1272.3000;0.1066;0.8721;
1272.6000;0.1083;0.8697;
1272.9000;0.1042;0.8650;
1273.2000;0.1131;0.8792;
1273.5000;0.1083;0.8650;
1273.8000;0.1058;0.8673;
1274.1000;0.1091;0.8697;
1274.4000;0.1091;0.8602;
1274.7000;0.1156;0.8815;
1275.0000;0.1140;0.8650;
1275.3000;0.1099;0.8602;
1275.6000;0.1066;0.8579;
1275.9000;0.1066;0.8531;
1276.2000;0.1083;0.8650;
1276.5000;0.1083;0.8768;
1276.8000;0.1074;0.8744;
1277.1000;0.1091;0.8721;
1277.4000;0.1066;0.8650;
1277.7000;0.1083;0.8650;
1278.0000;0.1083;0.8768;
1278.3000;0.1058;0.8721;
1278.6000;0.1083;0.8744;
1278.9000;0.1074;0.8721;
1279.2000;0.1066;0.8555;
1279.5000;0.1091;0.8626;
1279.8000;0.1074;0.8602;
1280.1000;0.1091;0.8626;
1280.4000;0.1091;0.8697;
1280.7000;0.1107;0.8744;
1281.0000;0.1066;0.8673;
1281.3000;0.1099;0.8697;
1281.6000;0.1083;0.8673;
1281.9000;0.1074;0.8792;
1282.2000;0.1074;0.8839;
1282.5000;0.1050;0.8839;
1282.8000;0.1083;0.8815;
1283.1000;0.1091;0.8815;
1283.4000;0.1074;0.8768;
1283.7000;0.1074;0.8792;
1284.0000;0.1009;0.8650;
1284.3000;0.1034;0.8744;
1284.6000;0.1074;0.8792;
1284.9000;0.1091;0.8815;
1285.2000;0.1058;0.8839;
1285.5000;0.1074;0.8910;
1285.8000;0.1115;0.9052;
1286.1000;0.1074;0.9029;
1286.4000;0.1058;0.8934;
1286.7000;0.1066;0.8887;
1287.0000;0.1083;0.8958;
1287.3000;0.1083;0.9005;
1287.6000;0.1091;0.9005;
1287.9000;0.1066;0.8934;
1288.2000;0.1074;0.8910;
1288.5000;0.1074;0.8792;
1288.8000;0.1058;0.8839;
1289.1000;0.1083;0.8910;
1289.4000;0.1074;0.8934;
1289.7000;0.1026;0.8768;
1290.0000;0.1066;0.8815;
1290.3000;0.1107;0.8815;
1290.6000;0.1083;0.8768;
1290.9000;0.1083;0.8792;
1291.2000;0.1018;0.8626;
1291.5000;0.1034;0.8721;
1291.8000;0.1074;0.8887;
1292.1000;0.1083;0.9005;
1292.4000;0.1074;0.8958;
1292.7000;0.1050;0.8815;
1293.0000;0.1066;0.8887;
1293.3000;0.1083;0.9005;
1293.6000;0.1123;0.9147;
1293.9000;0.1066;0.9052;
1294.2000;0.1099;0.9124;
1294.5000;0.1058;0.9100;
1294.8000;0.1034;0.9052;
1295.1000;0.1099;0.9147;
1295.4000;0.1083;0.9100;
1295.7000;0.1148;0.9242;
1296.0000;0.1083;0.9171;
1296.3000;0.1091;0.9147;
1296.6000;0.1074;0.9076;
1296.9000;0.1083;0.8981;
1297.2000;0.1074;0.8887;
1297.5000;0.1091;0.8887;
1297.8000;0.1091;0.8958;
1298.1000;0.1074;0.8815;
1298.4000;0.1083;0.8887;
1298.7000;0.1074;0.8887;
1299.0000;0.1074;0.8863;
1299.3000;0.1066;0.8815;
1299.6000;0.1058;0.8839;
1299.9000;0.1083;0.8958;
1300.2000;0.1091;0.8981;
1300.5000;0.1074;0.9005;
1300.8000;0.1099;0.9147;
1301.1000;0.1091;0.9052;
1301.4000;0.1074;0.9029;
1301.7000;0.1083;0.9005;
1302.0000;0.1074;0.8934;
1302.3000;0.1083;0.8863;
1302.6000;0.1091;0.8910;
1302.9000;0.1099;0.8839;
1303.2000;0.1074;0.8792;
1303.5000;0.1074;0.8815;
1303.8000;0.1083;0.8910;
1304.1000;0.1058;0.8839;
1304.4000;0.1083;0.8839;
1304.7000;0.1091;0.8910;
1305.0000;0.1091;0.8958;
1305.3000;0.1091;0.8958;
1305.6000;0.1074;0.8958;
1305.9000;0.1091;0.9029;
1306.2000;0.1091;0.9100;
1306.5000;0.1083;0.9076;
1306.8000;0.1099;0.8958;
1307.1000;0.1083;0.8815;
1307.4000;0.1074;0.8839;
1307.7000;0.1083;0.8863;
1308.0000;0.1091;0.8863;
1308.3000;0.1074;0.8768;
1308.6000;0.1074;0.8768;
1308.9000;0.1083;0.8815;
1309.2000;0.1083;0.8910;
1309.5000;0.1083;0.8887;
1309.8000;0.1099;0.8863;
1310.1000;0.1074;0.8768;
1310.4000;0.1091;0.8792;
1310.7000;0.1066;0.8697;
1311.0000;0.1066;0.8673;
1311.3000;0.1074;0.8744;
1311.6000;0.1083;0.8768;
1311.9000;0.1123;0.8839;
1312.2000;0.1091;0.8863;
1312.5000;0.1066;0.8815;
1312.8000;0.1107;0.8958;
1313.1000;0.1074;0.8768;
1313.4000;0.1042;0.8721;
1313.7000;0.1034;0.8721;
1314.0000;0.1074;0.8887;
1314.3000;0.1131;0.9029;
1314.6000;0.1091;0.8815;
1314.9000;0.1050;0.8839;
1315.2000;0.1074;0.8934;
1315.5000;0.1074;0.8934;
1315.8000;0.1156;0.9147;
1316.1000;0.1042;0.8981;
1316.4000;0.1083;0.9052;
1316.7000;0.1074;0.9029;
1317.0000;0.1074;0.8958;
1317.3000;0.1083;0.8958;
1317.6000;0.1050;0.8792;
1317.9000;0.1099;0.8887;
1318.2000;0.1091;0.8910;
1318.5000;0.1140;0.9052;
1318.8000;0.1083;0.8958;
1319.1000;0.1091;0.9052;
1319.4000;0.1099;0.8958;
1319.7000;0.1083;0.8839;
1320.0000;0.1107;0.8910;
1320.3000;0.1115;0.8958;
1320.6000;0.1099;0.8887;
1320.9000;0.1091;0.8887;
1321.2000;0.1074;0.8792;
1321.5000;0.1083;0.8768;
1321.8000;0.1083;0.8673;
1322.1000;0.1083;0.8602;
1322.4000;0.1091;0.8602;
1322.7000;0.1083;0.8626;
1323.0000;0.1083;0.8673;
1323.3000;0.1083;0.8650;
1323.6000;0.1074;0.8697;
1323.9000;0.1123;0.8839;
1324.2000;0.1083;0.8815;
1324.5000;0.1091;0.8744;
1324.8000;0.1091;0.8673;
1325.1000;0.1083;0.8697;
1325.4000;0.1074;0.8673;
1325.7000;0.1066;0.8602;
1326.0000;0.1083;0.8650;
1326.3000;0.1074;0.8721;
1326.6000;0.1083;0.8744;
1326.9000;0.1083;0.8721;
1327.2000;0.1091;0.8792;
1327.5000;0.1058;0.8744;
1327.8000;0.1074;0.8721;
1328.1000;0.1074;0.8744;
1328.4000;0.1042;0.8650;
1328.7000;0.1091;0.8768;
1329.0000;0.1083;0.8839;
1329.3000;0.1083;0.8768;
1329.6000;0.1099;0.8863;
1329.9000;0.1083;0.8863;
1330.2000;0.1042;0.8815;
1330.5000;0.1074;0.8839;
1330.8000;0.1083;0.8815;
1331.1000;0.1099;0.8839;
1331.4000;0.1074;0.8792;
1331.7000;0.1074;0.8721;
1332.0000;0.1099;0.8815;
1332.3000;0.1083;0.8792;
1332.6000;0.1058;0.8744;
1332.9000;0.1066;0.8697;
1333.2000;0.1066;0.8697;
1333.5000;0.1131;0.8887;
1333.8000;0.1131;0.8934;
1334.1000;0.1066;0.8792;
1334.4000;0.1074;0.8863;
1334.7000;0.1074;0.8934;
1335.0000;0.1083;0.8981;
1335.3000;0.1066;0.8863;
1335.6000;0.1083;0.8887;
1335.9000;0.1074;0.8887;
1336.2000;0.1083;0.8910;
1336.5000;0.1131;0.8887;
1336.8000;0.1083;0.8721;
1337.1000;0.1083;0.8792;
1337.4000;0.1074;0.8839;
1337.7000;0.1164;0.8958;
1338.0000;0.1074;0.8626;
1338.3000;0.1058;0.8531;
1338.6000;0.1083;0.8579;
1338.9000;0.1083;0.8626;
1339.2000;0.1074;0.8744;
1339.5000;0.1050;0.8673;
1339.8000;0.1009;0.8602;
1340.1000;0.1074;0.8863;
1340.4000;0.1091;0.8958;
1340.7000;0.1083;0.8981;
1341.0000;0.1083;0.8934;
1341.3000;0.1074;0.8863;
1341.6000;0.1074;0.8839;
1341.9000;0.1083;0.8910;
1342.2000;0.1058;0.8792;
1342.5000;0.1066;0.8910;
1342.8000;0.1083;0.8887;
1343.1000;0.1074;0.8863;
1343.4000;0.1066;0.8768;
1343.7000;0.1058;0.8863;
1344.0000;0.1074;0.8863;
1344.3000;0.1066;0.8934;
1344.6000;0.1066;0.8934;
1344.9000;0.1074;0.8981;
1345.2000;0.1074;0.9005;
1345.5000;0.1091;0.8958;
1345.8000;0.1066;0.8958;
1346.1000;0.1140;0.9195;
1346.4000;0.1058;0.9076;
1346.7000;0.1074;0.9076;
1347.0000;0.1058;0.8958;
1347.3000;0.1074;0.8910;
1347.6000;0.1091;0.8887;
1347.9000;0.1066;0.8863;
1348.2000;0.1074;0.8934;
1348.5000;0.1099;0.8887;
1348.8000;0.1091;0.8815;
1349.1000;0.1107;0.9005;
1349.4000;0.1083;0.9005;
1349.7000;0.1107;0.9052;
1350.0000;0.1083;0.9005;
1350.3000;0.1099;0.8981;
1350.6000;0.1083;0.8910;
1350.9000;0.1091;0.8887;
1351.2000;0.1083;0.8839;
1351.5000;0.1091;0.8839;
1351.8000;0.1083;0.8744;
1352.1000;0.1083;0.8768;
1352.4000;0.1107;0.8839;
1352.7000;0.1066;0.8721;
1353.0000;0.1083;0.8650;
1353.3000;0.1066;0.8602;
1353.6000;0.1083;0.8602;
1353.9000;0.1091;0.8650;
1354.2000;0.1131;0.8744;
1354.5000;0.1074;0.8673;
1354.8000;0.1074;0.8768;
1355.1000;0.1074;0.8863;
1355.4000;0.1074;0.8910;
1355.7000;0.1074;0.8910;
1356.0000;0.1083;0.8934;
1356.3000;0.1083;0.8910;
1356.6000;0.1091;0.9005;
1356.9000;0.1091;0.8934;
1357.2000;0.1058;0.8910;
1357.5000;0.1091;0.8934;
1357.8000;0.1083;0.8887;
1358.1000;0.1099;0.8910;
1358.4000;0.1074;0.8863;
1358.7000;0.1091;0.8910;
1359.0000;0.1058;0.8887;
1359.3000;0.1091;0.8815;
1359.6000;0.1074;0.8792;
1359.9000;0.1083;0.8887;
1360.2000;0.1074;0.8815;
1360.5000;0.1074;0.8863;
1360.8000;0.1083;0.8910;
1361.1000;0.1074;0.8934;
1361.4000;0.1091;0.8910;
1361.7000;0.1091;0.8887;
1362.0000;0.1091;0.8863;
1362.3000;0.1091;0.8792;
1362.6000;0.1099;0.8815;
1362.9000;0.1083;0.8792;
1363.2000;0.1099;0.8839;
1363.5000;0.1083;0.8744;
1363.8000;0.1140;0.8910;
1364.1000;0.1074;0.8768;
1364.4000;0.1107;0.8839;
1364.7000;0.1131;0.9052;
1365.0000;0.1050;0.8910;
1365.3000;0.1131;0.9171;
1365.6000;0.1074;0.9076;
1365.9000;0.1066;0.8958;
1366.2000;0.1074;0.9005;
1366.5000;0.1074;0.8981;
1366.8000;0.1083;0.8934;
1367.1000;0.1099;0.9005;
1367.4000;0.1066;0.8934;
1367.7000;0.1107;0.8981;
1368.0000;0.1074;0.8958;
1368.3000;0.1083;0.9005;
1368.6000;0.1083;0.9076;
1368.9000;0.1099;0.9124;
1369.2000;0.1066;0.9076;
1369.5000;0.1074;0.8981;
1369.8000;0.1083;0.9029;
1370.1000;0.1115;0.9005;
1370.4000;0.1091;0.8934;
1370.7000;0.1050;0.8815;
1371.0000;0.1074;0.8981;
1371.3000;0.1099;0.9029;
1371.6000;0.1066;0.8934;
1371.9000;0.1066;0.8887;
1372.2000;0.1099;0.9052;
1372.5000;0.1083;0.8981;
1372.8000;0.1083;0.8958;
1373.1000;0.1148;0.9076;
1373.4000;0.1074;0.8934;
1373.7000;0.1091;0.8981;
1374.0000;0.1107;0.9005;
1374.3000;0.1083;0.9052;
1374.6000;0.1083;0.9005;
1374.9000;0.1091;0.9029;
1375.2000;0.1083;0.9005;
1375.5000;0.1074;0.8934;
1375.8000;0.1083;0.8910;
1376.1000;0.1083;0.8958;
1376.4000;0.1091;0.8981;
1376.7000;0.1074;0.8839;
1377.0000;0.1066;0.8792;
1377.3000;0.1074;0.8839;
1377.6000;0.1091;0.8815;
1377.9000;0.1066;0.8744;
1378.2000;0.1083;0.8768;
1378.5000;0.1083;0.8815;
1378.8000;0.1066;0.8768;
1379.1000;0.1074;0.8815;
1379.4000;0.1066;0.8792;
1379.7000;0.1058;0.8768;
1380.0000;0.1099;0.8887;
1380.3000;0.1066;0.8768;
1380.6000;0.1083;0.8744;
1380.9000;0.1156;0.8934;
1381.2000;0.1099;0.8839;
1381.5000;0.1091;0.8744;
1381.8000;0.1058;0.8744;
1382.1000;0.1058;0.8839;
1382.4000;0.1074;0.8934;
1382.7000;0.1074;0.8887;
1383.0000;0.1058;0.8839;
1383.3000;0.1091;0.8863;
1383.6000;0.1083;0.8910;
1383.9000;0.1074;0.8839;
1384.2000;0.1091;0.8934;
1384.5000;0.1074;0.8910;
1384.8000;0.1074;0.8934;
1385.1000;0.1091;0.9052;
1385.4000;0.1074;0.9100;
1385.7000;0.1091;0.9076;
1386.0000;0.1131;0.9100;
1386.3000;0.1066;0.9005;
1386.6000;0.1074;0.9076;
1386.9000;0.1074;0.8981;
1387.2000;0.1091;0.8981;
1387.5000;0.1083;0.8934;
1387.8000;0.1083;0.8981;
1388.1000;0.1034;0.8863;
1388.4000;0.1074;0.8958;
1388.7000;0.1066;0.8887;
1389.0000;0.1091;0.8839;
1389.3000;0.1115;0.8981;
1389.6000;0.1164;0.9100;
1389.9000;0.1066;0.8887;
1390.2000;0.1099;0.9005;
1390.5000;0.1050;0.8887;
1390.8000;0.1050;0.8934;
1391.1000;0.1074;0.9029;
1391.4000;0.1107;0.9100;
1391.7000;0.1099;0.8981;
1392.0000;0.1083;0.8815;
1392.3000;0.1091;0.8792;
1392.6000;0.1058;0.8744;
1392.9000;0.1099;0.8934;
1393.2000;0.1091;0.9029;
1393.5000;0.1083;0.8910;
1393.8000;0.1074;0.8910;
1394.1000;0.1058;0.8863;
1394.4000;0.1074;0.8910;
1394.7000;0.1074;0.8910;
1395.0000;0.1058;0.8863;
1395.3000;0.1083;0.8910;
1395.6000;0.1074;0.8863;
1395.9000;0.1091;0.8768;
1396.2000;0.1066;0.8697;
1396.5000;0.1074;0.8650;
1396.8000;0.1074;0.8650;
1397.1000;0.1066;0.8650;
1397.4000;0.1083;0.8626;
1397.7000;0.1066;0.8650;
1398.0000;0.1074;0.8721;
1398.3000;0.1083;0.8792;
1398.6000;0.1058;0.8815;
1398.9000;0.1066;0.8792;
1399.2000;0.1042;0.8815;
1399.5000;0.1074;0.8863;
1399.8000;0.1066;0.8815;
