time/ms;Fluo/V;P700 deltaI/I x10³;
-199.8000;0.1400;0.8673;
-199.5000;0.1408;0.8697;
-199.2000;0.1433;0.8839;
-198.9000;0.1400;0.8744;
-198.6000;0.1416;0.8744;
-198.3000;0.1392;0.8721;
-198.0000;0.1400;0.8721;
-197.7000;0.1392;0.8673;
-197.4000;0.1408;0.8602;
-197.1000;0.1408;0.8531;
-196.8000;0.1416;0.8555;
-196.5000;0.1408;0.8531;
-196.2000;0.1392;0.8555;
-195.9000;0.1416;0.8650;
-195.6000;0.1392;0.8531;
-195.3000;0.1368;0.8460;
-195.0000;0.1400;0.8531;
-194.7000;0.1425;0.8650;
-194.4000;0.1400;0.8555;
-194.1000;0.1392;0.8484;
-193.8000;0.1433;0.8555;
-193.5000;0.1400;0.8389;
-193.2000;0.1400;0.8365;
-192.9000;0.1400;0.8365;
-192.6000;0.1392;0.8365;
-192.3000;0.1384;0.8413;
-192.0000;0.1392;0.8460;
-191.7000;0.1368;0.8436;
-191.4000;0.1384;0.8484;
-191.1000;0.1392;0.8579;
-190.8000;0.1392;0.8626;
-190.5000;0.1408;0.8626;
-190.2000;0.1392;0.8579;
-189.9000;0.1368;0.8579;
-189.6000;0.1392;0.8602;
-189.3000;0.1392;0.8744;
-189.0000;0.1392;0.8768;
-188.7000;0.1392;0.8768;
-188.4000;0.1400;0.8839;
-188.1000;0.1384;0.8792;
-187.8000;0.1416;0.8934;
-187.5000;0.1392;0.8910;
-187.2000;0.1376;0.8863;
-186.9000;0.1408;0.8863;
-186.6000;0.1392;0.8815;
-186.3000;0.1384;0.8768;
-186.0000;0.1392;0.8744;
-185.7000;0.1392;0.8863;
-185.4000;0.1392;0.8863;
-185.1000;0.1384;0.8815;
-184.8000;0.1376;0.8792;
-184.5000;0.1400;0.8697;
-184.2000;0.1392;0.8650;
-183.9000;0.1384;0.8579;
-183.6000;0.1384;0.8531;
-183.3000;0.1376;0.8507;
-183.0000;0.1392;0.8626;
-182.7000;0.1359;0.8484;
-182.4000;0.1384;0.8555;
-182.1000;0.1376;0.8507;
-181.8000;0.1400;0.8555;
-181.5000;0.1400;0.8626;
-181.2000;0.1400;0.8673;
-180.9000;0.1384;0.8555;
-180.6000;0.1384;0.8626;
-180.3000;0.1408;0.8697;
-180.0000;0.1400;0.8744;
-179.7000;0.1400;0.8721;
-179.4000;0.1408;0.8744;
-179.1000;0.1376;0.8650;
-178.8000;0.1408;0.8602;
-178.5000;0.1392;0.8460;
-178.2000;0.1408;0.8389;
-177.9000;0.1376;0.8413;
-177.6000;0.1392;0.8484;
-177.3000;0.1392;0.8507;
-177.0000;0.1376;0.8555;
-176.7000;0.1392;0.8555;
-176.4000;0.1400;0.8531;
-176.1000;0.1392;0.8531;
-175.8000;0.1400;0.8507;
-175.5000;0.1400;0.8507;
-175.2000;0.1392;0.8436;
-174.9000;0.1392;0.8484;
-174.6000;0.1392;0.8602;
-174.3000;0.1416;0.8697;
-174.0000;0.1392;0.8673;
-173.7000;0.1359;0.8697;
-173.4000;0.1400;0.8721;
-173.1000;0.1384;0.8673;
-172.8000;0.1392;0.8673;
-172.5000;0.1400;0.8626;
-172.2000;0.1392;0.8650;
-171.9000;0.1408;0.8697;
-171.6000;0.1392;0.8768;
-171.3000;0.1400;0.8815;
-171.0000;0.1408;0.8815;
-170.7000;0.1425;0.8839;
-170.4000;0.1400;0.8839;
-170.1000;0.1384;0.8934;
-169.8000;0.1408;0.9029;
-169.5000;0.1392;0.8981;
-169.2000;0.1400;0.9052;
-168.9000;0.1400;0.9029;
-168.6000;0.1400;0.8910;
-168.3000;0.1392;0.8958;
-168.0000;0.1392;0.8958;
-167.7000;0.1400;0.8981;
-167.4000;0.1400;0.9005;
-167.1000;0.1425;0.8981;
-166.8000;0.1400;0.8863;
-166.5000;0.1408;0.8792;
-166.2000;0.1425;0.8839;
-165.9000;0.1416;0.8768;
-165.6000;0.1392;0.8721;
-165.3000;0.1400;0.8815;
-165.0000;0.1392;0.8887;
-164.7000;0.1384;0.8863;
-164.4000;0.1384;0.8887;
-164.1000;0.1408;0.8934;
-163.8000;0.1392;0.8910;
-163.5000;0.1400;0.8815;
-163.2000;0.1392;0.8673;
-162.9000;0.1392;0.8721;
-162.6000;0.1392;0.8673;
-162.3000;0.1392;0.8650;
-162.0000;0.1400;0.8650;
-161.7000;0.1425;0.8768;
-161.4000;0.1384;0.8673;
-161.1000;0.1384;0.8744;
-160.8000;0.1384;0.8697;
-160.5000;0.1392;0.8626;
-160.2000;0.1335;0.8436;
-159.9000;0.1384;0.8579;
-159.6000;0.1408;0.8697;
-159.3000;0.1392;0.8626;
-159.0000;0.1392;0.8602;
-158.7000;0.1400;0.8721;
-158.4000;0.1449;0.8863;
-158.1000;0.1408;0.8744;
-157.8000;0.1416;0.8744;
-157.5000;0.1408;0.8744;
-157.2000;0.1408;0.8792;
-156.9000;0.1408;0.8839;
-156.6000;0.1408;0.8792;
-156.3000;0.1392;0.8792;
-156.0000;0.1408;0.8721;
-155.7000;0.1425;0.8792;
-155.4000;0.1408;0.8815;
-155.1000;0.1400;0.8815;
-154.8000;0.1359;0.8744;
-154.5000;0.1408;0.8910;
-154.2000;0.1400;0.8839;
-153.9000;0.1392;0.8815;
-153.6000;0.1408;0.8768;
-153.3000;0.1408;0.8697;
-153.0000;0.1400;0.8673;
-152.7000;0.1384;0.8721;
-152.4000;0.1408;0.8626;
-152.1000;0.1400;0.8602;
-151.8000;0.1376;0.8507;
-151.5000;0.1392;0.8531;
-151.2000;0.1400;0.8507;
-150.9000;0.1384;0.8531;
-150.6000;0.1408;0.8531;
-150.3000;0.1400;0.8531;
-150.0000;0.1392;0.8436;
-149.7000;0.1384;0.8460;
-149.4000;0.1408;0.8579;
-149.1000;0.1400;0.8602;
-148.8000;0.1392;0.8602;
-148.5000;0.1400;0.8650;
-148.2000;0.1384;0.8673;
-147.9000;0.1392;0.8697;
-147.6000;0.1416;0.8721;
-147.3000;0.1400;0.8626;
-147.0000;0.1392;0.8650;
-146.7000;0.1392;0.8697;
-146.4000;0.1384;0.8650;
-146.1000;0.1392;0.8626;
-145.8000;0.1392;0.8673;
-145.5000;0.1392;0.8768;
-145.2000;0.1408;0.8768;
-144.9000;0.1408;0.8721;
-144.6000;0.1400;0.8626;
-144.3000;0.1392;0.8507;
-144.0000;0.1408;0.8531;
-143.7000;0.1408;0.8531;
-143.4000;0.1408;0.8413;
-143.1000;0.1400;0.8436;
-142.8000;0.1408;0.8460;
-142.5000;0.1384;0.8389;
-142.2000;0.1376;0.8365;
-141.9000;0.1384;0.8413;
-141.6000;0.1392;0.8531;
-141.3000;0.1384;0.8436;
-141.0000;0.1400;0.8436;
-140.7000;0.1392;0.8389;
-140.4000;0.1376;0.8413;
-140.1000;0.1425;0.8555;
-139.8000;0.1384;0.8460;
-139.5000;0.1400;0.8413;
-139.2000;0.1384;0.8436;
-138.9000;0.1278;0.8247;
-138.6000;0.1392;0.8484;
-138.3000;0.1392;0.8389;
-138.0000;0.1392;0.8389;
-137.7000;0.1457;0.8507;
-137.4000;0.1416;0.8413;
-137.1000;0.1384;0.8365;
-136.8000;0.1368;0.8389;
-136.5000;0.1392;0.8460;
-136.2000;0.1384;0.8531;
-135.9000;0.1384;0.8507;
-135.6000;0.1384;0.8507;
-135.3000;0.1343;0.8413;
-135.0000;0.1416;0.8626;
-134.7000;0.1384;0.8555;
-134.4000;0.1311;0.8389;
-134.1000;0.1392;0.8626;
-133.8000;0.1351;0.8555;
-133.5000;0.1359;0.8484;
-133.2000;0.1392;0.8555;
-132.9000;0.1384;0.8602;
-132.6000;0.1408;0.8579;
-132.3000;0.1319;0.8270;
-132.0000;0.1400;0.8484;
-131.7000;0.1400;0.8484;
-131.4000;0.1433;0.8484;
-131.1000;0.1384;0.8365;
-130.8000;0.1416;0.8389;
-130.5000;0.1400;0.8484;
-130.2000;0.1392;0.8460;
-129.9000;0.1400;0.8413;
-129.6000;0.1408;0.8389;
-129.3000;0.1408;0.8318;
-129.0000;0.1392;0.8318;
-128.7000;0.1400;0.8389;
-128.4000;0.1408;0.8436;
-128.1000;0.1408;0.8484;
-127.8000;0.1368;0.8413;
-127.5000;0.1384;0.8531;
-127.2000;0.1408;0.8555;
-126.9000;0.1400;0.8460;
-126.6000;0.1392;0.8389;
-126.3000;0.1392;0.8413;
-126.0000;0.1400;0.8484;
-125.7000;0.1400;0.8507;
-125.4000;0.1392;0.8531;
-125.1000;0.1376;0.8555;
-124.8000;0.1343;0.8436;
-124.5000;0.1400;0.8555;
-124.2000;0.1392;0.8531;
-123.9000;0.1359;0.8436;
-123.6000;0.1408;0.8579;
-123.3000;0.1400;0.8579;
-123.0000;0.1425;0.8721;
-122.7000;0.1376;0.8555;
-122.4000;0.1384;0.8531;
-122.1000;0.1384;0.8531;
-121.8000;0.1408;0.8626;
-121.5000;0.1408;0.8650;
-121.2000;0.1376;0.8602;
-120.9000;0.1408;0.8673;
-120.6000;0.1400;0.8602;
-120.3000;0.1384;0.8555;
-120.0000;0.1384;0.8555;
-119.7000;0.1392;0.8531;
-119.4000;0.1408;0.8507;
-119.1000;0.1400;0.8484;
-118.8000;0.1384;0.8507;
-118.5000;0.1392;0.8507;
-118.2000;0.1408;0.8555;
-117.9000;0.1449;0.8721;
-117.6000;0.1400;0.8579;
-117.3000;0.1376;0.8484;
-117.0000;0.1392;0.8436;
-116.7000;0.1408;0.8531;
-116.4000;0.1400;0.8555;
-116.1000;0.1408;0.8602;
-115.8000;0.1384;0.8555;
-115.5000;0.1384;0.8507;
-115.2000;0.1351;0.8460;
-114.9000;0.1408;0.8579;
-114.6000;0.1392;0.8626;
-114.3000;0.1392;0.8579;
-114.0000;0.1392;0.8602;
-113.7000;0.1376;0.8531;
-113.4000;0.1392;0.8602;
-113.1000;0.1384;0.8555;
-112.8000;0.1449;0.8792;
-112.5000;0.1408;0.8697;
-112.2000;0.1384;0.8507;
-111.9000;0.1400;0.8579;
-111.6000;0.1392;0.8579;
-111.3000;0.1433;0.8602;
-111.0000;0.1400;0.8626;
-110.7000;0.1416;0.8602;
-110.4000;0.1384;0.8484;
-110.1000;0.1392;0.8626;
-109.8000;0.1400;0.8721;
-109.5000;0.1408;0.8792;
-109.2000;0.1408;0.8815;
-108.9000;0.1392;0.8744;
-108.6000;0.1408;0.8721;
-108.3000;0.1416;0.8650;
-108.0000;0.1425;0.8626;
-107.7000;0.1408;0.8673;
-107.4000;0.1400;0.8650;
-107.1000;0.1384;0.8579;
-106.8000;0.1384;0.8626;
-106.5000;0.1351;0.8531;
-106.2000;0.1400;0.8697;
-105.9000;0.1400;0.8626;
-105.6000;0.1408;0.8650;
-105.3000;0.1376;0.8555;
-105.0000;0.1359;0.8436;
-104.7000;0.1376;0.8507;
-104.4000;0.1343;0.8413;
-104.1000;0.1392;0.8555;
-103.8000;0.1400;0.8507;
-103.5000;0.1400;0.8555;
-103.2000;0.1392;0.8555;
-102.9000;0.1416;0.8579;
-102.6000;0.1384;0.8389;
-102.3000;0.1441;0.8507;
-102.0000;0.1400;0.8365;
-101.7000;0.1408;0.8389;
-101.4000;0.1392;0.8389;
-101.1000;0.1376;0.8342;
-100.8000;0.1376;0.8270;
-100.5000;0.1384;0.8223;
-100.2000;0.1408;0.8318;
-99.9000;0.1384;0.8152;
-99.6000;0.1400;0.8152;
-99.3000;0.1384;0.8199;
-99.0000;0.1408;0.8223;
-98.7000;0.1400;0.8270;
-98.4000;0.1384;0.8294;
-98.1000;0.1400;0.8365;
-97.8000;0.1400;0.8365;
-97.5000;0.1408;0.8389;
-97.2000;0.1400;0.8413;
-96.9000;0.1368;0.8294;
-96.6000;0.1392;0.8294;
-96.3000;0.1400;0.8342;
-96.0000;0.1400;0.8436;
-95.7000;0.1392;0.8413;
-95.4000;0.1392;0.8318;
-95.1000;0.1408;0.8436;
-94.8000;0.1400;0.8413;
-94.5000;0.1408;0.8436;
-94.2000;0.1400;0.8389;
-93.9000;0.1384;0.8365;
-93.6000;0.1400;0.8436;
-93.3000;0.1400;0.8507;
-93.0000;0.1392;0.8460;
-92.7000;0.1384;0.8531;
-92.4000;0.1400;0.8602;
-92.1000;0.1400;0.8507;
-91.8000;0.1408;0.8460;
-91.5000;0.1359;0.8318;
-91.2000;0.1392;0.8389;
-90.9000;0.1400;0.8436;
-90.6000;0.1392;0.8389;
-90.3000;0.1376;0.8318;
-90.0000;0.1400;0.8365;
-89.7000;0.1408;0.8389;
-89.4000;0.1408;0.8507;
-89.1000;0.1416;0.8555;
-88.8000;0.1392;0.8460;
-88.5000;0.1400;0.8484;
-88.2000;0.1408;0.8484;
-87.9000;0.1416;0.8484;
-87.6000;0.1384;0.8531;
-87.3000;0.1368;0.8436;
-87.0000;0.1392;0.8436;
-86.7000;0.1400;0.8507;
-86.4000;0.1416;0.8626;
-86.1000;0.1400;0.8531;
-85.8000;0.1343;0.8270;
-85.5000;0.1400;0.8507;
-85.2000;0.1376;0.8460;
-84.9000;0.1416;0.8531;
-84.6000;0.1408;0.8484;
-84.3000;0.1392;0.8460;
-84.0000;0.1368;0.8365;
-83.7000;0.1392;0.8436;
-83.4000;0.1392;0.8507;
-83.1000;0.1441;0.8650;
-82.8000;0.1425;0.8602;
-82.5000;0.1425;0.8650;
-82.2000;0.1408;0.8555;
-81.9000;0.1359;0.8484;
-81.6000;0.1384;0.8579;
-81.3000;0.1400;0.8650;
-81.0000;0.1392;0.8673;
-80.7000;0.1392;0.8673;
-80.4000;0.1384;0.8721;
-80.1000;0.1416;0.8792;
-79.8000;0.1465;0.8958;
-79.5000;0.1400;0.8744;
-79.2000;0.1376;0.8673;
-78.9000;0.1384;0.8697;
-78.6000;0.1384;0.8721;
-78.3000;0.1408;0.8721;
-78.0000;0.1441;0.8792;
-77.7000;0.1384;0.8673;
-77.4000;0.1376;0.8673;
-77.1000;0.1384;0.8602;
-76.8000;0.1400;0.8626;
-76.5000;0.1392;0.8650;
-76.2000;0.1392;0.8744;
-75.9000;0.1408;0.8768;
-75.6000;0.1400;0.8768;
-75.3000;0.1400;0.8815;
-75.0000;0.1408;0.8839;
-74.7000;0.1400;0.8768;
-74.4000;0.1408;0.8744;
-74.1000;0.1400;0.8650;
-73.8000;0.1392;0.8650;
-73.5000;0.1392;0.8650;
-73.2000;0.1400;0.8650;
-72.9000;0.1400;0.8650;
-72.6000;0.1416;0.8650;
-72.3000;0.1400;0.8697;
-72.0000;0.1408;0.8721;
-71.7000;0.1425;0.8697;
-71.4000;0.1416;0.8697;
-71.1000;0.1400;0.8626;
-70.8000;0.1384;0.8531;
-70.5000;0.1400;0.8555;
-70.2000;0.1408;0.8555;
-69.9000;0.1384;0.8484;
-69.6000;0.1408;0.8602;
-69.3000;0.1384;0.8484;
-69.0000;0.1384;0.8507;
-68.7000;0.1408;0.8460;
-68.4000;0.1384;0.8365;
-68.1000;0.1425;0.8484;
-67.8000;0.1376;0.8436;
-67.5000;0.1392;0.8507;
-67.2000;0.1376;0.8460;
-66.9000;0.1384;0.8460;
-66.6000;0.1392;0.8484;
-66.3000;0.1416;0.8436;
-66.0000;0.1392;0.8365;
-65.7000;0.1376;0.8318;
-65.4000;0.1392;0.8413;
-65.1000;0.1400;0.8389;
-64.8000;0.1408;0.8484;
-64.5000;0.1368;0.8460;
-64.2000;0.1392;0.8507;
-63.9000;0.1384;0.8507;
-63.6000;0.1384;0.8531;
-63.3000;0.1384;0.8484;
-63.0000;0.1368;0.8579;
-62.7000;0.1392;0.8650;
-62.4000;0.1416;0.8673;
-62.1000;0.1384;0.8626;
-61.8000;0.1416;0.8697;
-61.5000;0.1416;0.8626;
-61.2000;0.1400;0.8721;
-60.9000;0.1416;0.8697;
-60.6000;0.1416;0.8602;
-60.3000;0.1384;0.8555;
-60.0000;0.1408;0.8555;
-59.7000;0.1425;0.8650;
-59.4000;0.1433;0.8602;
-59.1000;0.1392;0.8507;
-58.8000;0.1425;0.8579;
-58.5000;0.1376;0.8531;
-58.2000;0.1408;0.8626;
-57.9000;0.1392;0.8531;
-57.6000;0.1376;0.8484;
-57.3000;0.1400;0.8507;
-57.0000;0.1368;0.8389;
-56.7000;0.1400;0.8484;
-56.4000;0.1376;0.8413;
-56.1000;0.1392;0.8436;
-55.8000;0.1425;0.8460;
-55.5000;0.1384;0.8436;
-55.2000;0.1408;0.8507;
-54.9000;0.1400;0.8460;
-54.6000;0.1425;0.8436;
-54.3000;0.1400;0.8294;
-54.0000;0.1368;0.8247;
-53.7000;0.1400;0.8436;
-53.4000;0.1392;0.8507;
-53.1000;0.1392;0.8460;
-52.8000;0.1400;0.8484;
-52.5000;0.1400;0.8389;
-52.2000;0.1400;0.8413;
-51.9000;0.1425;0.8389;
-51.6000;0.1400;0.8342;
-51.3000;0.1416;0.8436;
-51.0000;0.1392;0.8389;
-50.7000;0.1408;0.8507;
-50.4000;0.1400;0.8531;
-50.1000;0.1392;0.8507;
-49.8000;0.1384;0.8507;
-49.5000;0.1400;0.8602;
-49.2000;0.1359;0.8555;
-48.9000;0.1400;0.8602;
-48.6000;0.1392;0.8531;
-48.3000;0.1400;0.8507;
-48.0000;0.1400;0.8531;
-47.7000;0.1392;0.8579;
-47.4000;0.1384;0.8626;
-47.1000;0.1384;0.8626;
-46.8000;0.1384;0.8721;
-46.5000;0.1384;0.8697;
-46.2000;0.1368;0.8626;
-45.9000;0.1319;0.8413;
-45.6000;0.1392;0.8650;
-45.3000;0.1400;0.8650;
-45.0000;0.1408;0.8650;
-44.7000;0.1392;0.8579;
-44.4000;0.1376;0.8484;
-44.1000;0.1392;0.8531;
-43.8000;0.1392;0.8555;
-43.5000;0.1408;0.8650;
-43.2000;0.1416;0.8650;
-42.9000;0.1392;0.8626;
-42.6000;0.1384;0.8697;
-42.3000;0.1392;0.8673;
-42.0000;0.1400;0.8650;
-41.7000;0.1384;0.8673;
-41.4000;0.1392;0.8602;
-41.1000;0.1408;0.8673;
-40.8000;0.1400;0.8768;
-40.5000;0.1408;0.8839;
-40.2000;0.1351;0.8721;
-39.9000;0.1384;0.8744;
-39.6000;0.1384;0.8721;
-39.3000;0.1465;0.8934;
-39.0000;0.1449;0.8887;
-38.7000;0.1384;0.8768;
-38.4000;0.1400;0.8744;
-38.1000;0.1392;0.8744;
-37.8000;0.1400;0.8792;
-37.5000;0.1400;0.8650;
-37.2000;0.1400;0.8579;
-36.9000;0.1384;0.8602;
-36.6000;0.1408;0.8697;
-36.3000;0.1441;0.8768;
-36.0000;0.1400;0.8602;
-35.7000;0.1392;0.8602;
-35.4000;0.1384;0.8602;
-35.1000;0.1408;0.8744;
-34.8000;0.1416;0.8768;
-34.5000;0.1457;0.9005;
-34.2000;0.1392;0.8792;
-33.9000;0.1400;0.8768;
-33.6000;0.1425;0.8792;
-33.3000;0.1392;0.8650;
-33.0000;0.1384;0.8626;
-32.7000;0.1400;0.8650;
-32.4000;0.1449;0.8792;
-32.1000;0.1384;0.8602;
-31.8000;0.1400;0.8555;
-31.5000;0.1376;0.8626;
-31.2000;0.1400;0.8744;
-30.9000;0.1392;0.8697;
-30.6000;0.1384;0.8721;
-30.3000;0.1376;0.8697;
-30.0000;0.1376;0.8697;
-29.7000;0.1400;0.8721;
-29.4000;0.1392;0.8697;
-29.1000;0.1392;0.8673;
-28.8000;0.1400;0.8744;
-28.5000;0.1408;0.8673;
-28.2000;0.1408;0.8650;
-27.9000;0.1392;0.8673;
-27.6000;0.1416;0.8768;
-27.3000;0.1408;0.8697;
-27.0000;0.1400;0.8697;
-26.7000;0.1392;0.8721;
-26.4000;0.1376;0.8697;
-26.1000;0.1400;0.8697;
-25.8000;0.1400;0.8650;
-25.5000;0.1392;0.8650;
-25.2000;0.1392;0.8579;
-24.9000;0.1384;0.8626;
-24.6000;0.1392;0.8555;
-24.3000;0.1400;0.8555;
-24.0000;0.1392;0.8555;
-23.7000;0.1416;0.8602;
-23.4000;0.1392;0.8673;
-23.1000;0.1400;0.8650;
-22.8000;0.1400;0.8697;
-22.5000;0.1384;0.8721;
-22.2000;0.1425;0.8839;
-21.9000;0.1400;0.8744;
-21.6000;0.1400;0.8673;
-21.3000;0.1408;0.8744;
-21.0000;0.1384;0.8697;
-20.7000;0.1392;0.8697;
-20.4000;0.1359;0.8579;
-20.1000;0.1376;0.8626;
-19.8000;0.1416;0.8673;
-19.5000;0.1368;0.8555;
-19.2000;0.1384;0.8579;
-18.9000;0.1400;0.8697;
-18.6000;0.1368;0.8555;
-18.3000;0.1359;0.8579;
-18.0000;0.1384;0.8650;
-17.7000;0.1392;0.8579;
-17.4000;0.1433;0.8673;
-17.1000;0.1408;0.8650;
-16.8000;0.1400;0.8673;
-16.5000;0.1368;0.8650;
-16.2000;0.1416;0.8768;
-15.9000;0.1319;0.8507;
-15.6000;0.1376;0.8815;
-15.3000;0.1311;0.8531;
-15.0000;0.1384;0.8602;
-14.7000;0.1392;0.8579;
-14.4000;0.1384;0.8531;
-14.1000;0.1392;0.8507;
-13.8000;0.1392;0.8507;
-13.5000;0.1400;0.8507;
-13.2000;0.1392;0.8484;
-12.9000;0.1392;0.8555;
-12.6000;0.1384;0.8531;
-12.3000;0.1400;0.8531;
-12.0000;0.1384;0.8555;
-11.7000;0.1408;0.8579;
-11.4000;0.1376;0.8555;
-11.1000;0.1400;0.8579;
-10.8000;0.1392;0.8579;
-10.5000;0.1400;0.8579;
-10.2000;0.1400;0.8602;
-9.9000;0.1400;0.8602;
-9.6000;0.1392;0.8579;
-9.3000;0.1400;0.8626;
-9.0000;0.1392;0.8579;
-8.7000;0.1392;0.8507;
-8.4000;0.1481;0.8721;
-8.1000;0.1384;0.8531;
-7.8000;0.1392;0.8555;
-7.5000;0.1384;0.8579;
-7.2000;0.1392;0.8650;
-6.9000;0.1384;0.8626;
-6.6000;0.1392;0.8721;
-6.3000;0.1392;0.8673;
-6.0000;0.1376;0.8555;
-5.7000;0.1376;0.8460;
-5.4000;0.1400;0.8484;
-5.1000;0.1416;0.8579;
-4.8000;0.1384;0.8531;
-4.5000;0.1392;0.8484;
-4.2000;0.1392;0.8460;
-3.9000;0.1400;0.8579;
-3.6000;0.1400;0.8579;
-3.3000;0.1400;0.8531;
-3.0000;0.1392;0.8436;
-2.7000;0.1400;0.8507;
-2.4000;0.1400;0.8507;
-2.1000;0.1408;0.8555;
-1.8000;0.1376;0.8531;
-1.5000;0.1400;0.8650;
-1.2000;0.1408;0.8650;
-0.9000;0.1400;0.8626;
-0.6000;0.1408;0.8650;
-0.3000;0.1416;0.8744;
0.0000;0.1416;0.8744;
0.3000;0.1408;0.8507;
0.6000;0.1400;0.8460;
0.9000;0.1425;0.8626;
1.2000;0.1481;0.8815;
1.5000;0.1473;0.9005;
1.8000;0.1490;0.9171;
2.1000;0.1481;0.9100;
2.4000;0.1457;0.9124;
2.7000;0.1498;0.9313;
3.0000;0.1555;0.9455;
3.3000;0.1514;0.9384;
3.6000;0.1522;0.9432;
3.9000;0.1530;0.9526;
4.2000;0.1514;0.9526;
4.5000;0.1481;0.9432;
4.8000;0.1490;0.9550;
5.1000;0.1538;0.9716;
5.4000;0.1498;0.9621;
5.7000;0.1563;0.9787;
6.0000;0.1514;0.9669;
6.3000;0.1538;0.9645;
6.6000;0.1522;0.9597;
6.9000;0.1538;0.9692;
7.2000;0.1538;0.9574;
7.5000;0.1465;0.9384;
7.8000;0.1530;0.9550;
8.1000;0.1514;0.9550;
8.4000;0.1547;0.9550;
8.7000;0.1579;0.9597;
9.0000;0.1538;0.9503;
9.3000;0.1538;0.9526;
9.6000;0.1538;0.9432;
9.9000;0.1555;0.9503;
10.2000;0.1547;0.9479;
10.5000;0.1506;0.9455;
10.8000;0.1538;0.9455;
11.1000;0.1555;0.9455;
11.4000;0.1595;0.9621;
11.7000;0.1530;0.9503;
12.0000;0.1595;0.9692;
12.3000;0.1530;0.9526;
12.6000;0.1538;0.9645;
12.9000;0.1522;0.9597;
13.2000;0.1563;0.9645;
13.5000;0.1547;0.9621;
13.8000;0.1555;0.9621;
14.1000;0.1571;0.9716;
14.4000;0.1555;0.9645;
14.7000;0.1547;0.9597;
15.0000;0.1555;0.9692;
15.3000;0.1563;0.9716;
15.6000;0.1612;0.9787;
15.9000;0.1571;0.9669;
16.2000;0.1555;0.9669;
16.5000;0.1571;0.9787;
16.8000;0.1636;0.9929;
17.1000;0.1571;0.9740;
17.4000;0.1555;0.9669;
17.7000;0.1571;0.9692;
18.0000;0.1563;0.9692;
18.3000;0.1555;0.9763;
18.6000;0.1555;0.9763;
18.9000;0.1571;0.9834;
19.2000;0.1587;0.9787;
19.5000;0.1579;0.9834;
19.8000;0.1563;0.9858;
20.1000;0.1555;0.9858;
20.4000;0.1555;0.9953;
20.7000;0.1587;0.9882;
21.0000;0.1555;0.9834;
21.3000;0.1563;0.9882;
21.6000;0.1587;0.9882;
21.9000;0.1563;0.9811;
22.2000;0.1571;0.9834;
22.5000;0.1604;0.9882;
22.8000;0.1579;0.9906;
23.1000;0.1587;0.9953;
23.4000;0.1579;0.9906;
23.7000;0.1579;0.9906;
24.0000;0.1587;0.9882;
24.3000;0.1571;0.9692;
24.6000;0.1579;0.9669;
24.9000;0.1571;0.9597;
25.2000;0.1555;0.9574;
25.5000;0.1571;0.9645;
25.8000;0.1579;0.9645;
26.1000;0.1587;0.9692;
26.4000;0.1571;0.9740;
26.7000;0.1579;0.9763;
27.0000;0.1579;0.9834;
27.3000;0.1579;0.9906;
27.6000;0.1587;0.9929;
27.9000;0.1555;0.9929;
28.2000;0.1522;0.9834;
28.5000;0.1506;0.9716;
28.8000;0.1587;0.9953;
29.1000;0.1571;0.9906;
29.4000;0.1579;0.9953;
29.7000;0.1587;0.9977;
30.0000;0.1595;1.0000;
30.3000;0.1587;1.0000;
30.6000;0.1579;0.9953;
30.9000;0.1579;0.9929;
31.2000;0.1538;0.9882;
31.5000;0.1587;0.9953;
31.8000;0.1571;0.9977;
32.1000;0.1595;0.9977;
32.4000;0.1587;1.0000;
32.7000;0.1555;0.9906;
33.0000;0.1636;1.0166;
33.3000;0.1587;1.0000;
33.6000;0.1604;1.0143;
33.9000;0.1587;1.0095;
34.2000;0.1587;1.0071;
34.5000;0.1587;0.9977;
34.8000;0.1685;1.0214;
35.1000;0.1595;1.0000;
35.4000;0.1579;1.0048;
35.7000;0.1595;1.0024;
36.0000;0.1612;0.9977;
36.3000;0.1579;0.9882;
36.6000;0.1563;0.9858;
36.9000;0.1620;1.0048;
37.2000;0.1628;0.9953;
37.5000;0.1604;0.9834;
37.8000;0.1604;0.9787;
38.1000;0.1587;0.9716;
38.4000;0.1595;0.9763;
38.7000;0.1604;0.9716;
39.0000;0.1587;0.9787;
39.3000;0.1587;0.9740;
39.6000;0.1604;0.9811;
39.9000;0.1604;0.9811;
40.2000;0.1604;0.9763;
40.5000;0.1587;0.9740;
40.8000;0.1587;0.9692;
41.1000;0.1595;0.9740;
41.4000;0.1595;0.9740;
41.7000;0.1595;0.9716;
42.0000;0.1579;0.9716;
42.3000;0.1579;0.9811;
42.6000;0.1604;0.9882;
42.9000;0.1604;0.9929;
43.2000;0.1604;0.9906;
43.5000;0.1604;0.9906;
43.8000;0.1612;0.9953;
44.1000;0.1612;0.9906;
44.4000;0.1604;0.9882;
44.7000;0.1612;0.9787;
45.0000;0.1612;0.9763;
45.3000;0.1620;0.9763;
45.6000;0.1612;0.9787;
45.9000;0.1612;0.9763;
46.2000;0.1612;0.9787;
46.5000;0.1604;0.9834;
46.8000;0.1620;0.9858;
47.1000;0.1530;0.9621;
47.4000;0.1628;0.9811;
47.7000;0.1620;0.9787;
48.0000;0.1595;0.9716;
48.3000;0.1579;0.9621;
48.6000;0.1595;0.9621;
48.9000;0.1595;0.9621;
49.2000;0.1595;0.9645;
49.5000;0.1587;0.9645;
49.8000;0.1587;0.9645;
50.1000;0.1636;0.9740;
50.4000;0.1636;0.9740;
50.7000;0.1587;0.9669;
51.0000;0.1587;0.9669;
51.3000;0.1612;0.9740;
51.6000;0.1636;0.9811;
51.9000;0.1587;0.9692;
52.2000;0.1547;0.9550;
52.5000;0.1612;0.9645;
52.8000;0.1587;0.9716;
53.1000;0.1514;0.9526;
53.4000;0.1604;0.9740;
53.7000;0.1644;0.9882;
54.0000;0.1612;0.9787;
54.3000;0.1595;0.9716;
54.6000;0.1636;0.9858;
54.9000;0.1563;0.9716;
55.2000;0.1612;0.9787;
55.5000;0.1587;0.9716;
55.8000;0.1612;0.9621;
56.1000;0.1571;0.9526;
56.4000;0.1612;0.9669;
56.7000;0.1620;0.9669;
57.0000;0.1612;0.9787;
57.3000;0.1587;0.9716;
57.6000;0.1595;0.9716;
57.9000;0.1612;0.9740;
58.2000;0.1620;0.9763;
58.5000;0.1628;0.9787;
58.8000;0.1587;0.9740;
59.1000;0.1587;0.9834;
59.4000;0.1612;0.9882;
59.7000;0.1604;0.9834;
60.0000;0.1612;0.9811;
60.3000;0.1620;0.9716;
60.6000;0.1612;0.9692;
60.9000;0.1620;0.9669;
61.2000;0.1661;0.9811;
61.5000;0.1636;0.9716;
61.8000;0.1612;0.9740;
62.1000;0.1612;0.9669;
62.4000;0.1595;0.9716;
62.7000;0.1595;0.9716;
63.0000;0.1612;0.9716;
63.3000;0.1620;0.9716;
63.6000;0.1604;0.9692;
63.9000;0.1612;0.9669;
64.2000;0.1604;0.9645;
64.5000;0.1612;0.9645;
64.8000;0.1620;0.9716;
65.1000;0.1604;0.9811;
65.4000;0.1604;0.9811;
65.7000;0.1604;0.9716;
66.0000;0.1595;0.9740;
66.3000;0.1604;0.9763;
66.6000;0.1612;0.9763;
66.9000;0.1595;0.9692;
67.2000;0.1595;0.9669;
67.5000;0.1620;0.9621;
67.8000;0.1604;0.9550;
68.1000;0.1595;0.9550;
68.4000;0.1620;0.9550;
68.7000;0.1612;0.9621;
69.0000;0.1571;0.9574;
69.3000;0.1620;0.9645;
69.6000;0.1620;0.9692;
69.9000;0.1644;0.9716;
70.2000;0.1628;0.9740;
70.5000;0.1604;0.9692;
70.8000;0.1612;0.9740;
71.1000;0.1604;0.9716;
71.4000;0.1604;0.9787;
71.7000;0.1595;0.9740;
72.0000;0.1604;0.9716;
72.3000;0.1587;0.9692;
72.6000;0.1628;0.9740;
72.9000;0.1595;0.9645;
73.2000;0.1652;0.9834;
73.5000;0.1677;0.9977;
73.8000;0.1595;0.9858;
74.1000;0.1612;0.9929;
74.4000;0.1579;0.9882;
74.7000;0.1579;0.9906;
75.0000;0.1612;0.9953;
75.3000;0.1595;0.9858;
75.6000;0.1595;0.9906;
75.9000;0.1604;0.9882;
76.2000;0.1620;0.9929;
76.5000;0.1612;0.9929;
76.8000;0.1571;0.9882;
77.1000;0.1636;1.0024;
77.4000;0.1620;1.0024;
77.7000;0.1636;1.0119;
78.0000;0.1595;1.0071;
78.3000;0.1604;1.0095;
78.6000;0.1612;1.0166;
78.9000;0.1620;1.0214;
79.2000;0.1604;1.0190;
79.5000;0.1579;1.0095;
79.8000;0.1595;1.0119;
80.1000;0.1612;1.0143;
80.4000;0.1620;1.0095;
80.7000;0.1693;1.0190;
81.0000;0.1612;0.9977;
81.3000;0.1612;1.0000;
81.6000;0.1612;1.0000;
81.9000;0.1612;0.9929;
82.2000;0.1612;0.9929;
82.5000;0.1612;0.9858;
82.8000;0.1612;0.9858;
83.1000;0.1587;0.9858;
83.4000;0.1595;0.9953;
83.7000;0.1612;1.0000;
84.0000;0.1620;1.0095;
84.3000;0.1604;1.0024;
84.6000;0.1677;1.0237;
84.9000;0.1612;0.9977;
85.2000;0.1620;0.9977;
85.5000;0.1612;1.0000;
85.8000;0.1612;1.0024;
86.1000;0.1595;1.0071;
86.4000;0.1612;1.0190;
86.7000;0.1620;1.0190;
87.0000;0.1620;1.0095;
87.3000;0.1612;1.0071;
87.6000;0.1612;1.0119;
87.9000;0.1644;1.0143;
88.2000;0.1620;1.0071;
88.5000;0.1604;1.0024;
88.8000;0.1612;1.0048;
89.1000;0.1661;1.0143;
89.4000;0.1628;1.0048;
89.7000;0.1595;0.9953;
90.0000;0.1563;0.9787;
90.3000;0.1538;0.9716;
90.6000;0.1612;0.9834;
90.9000;0.1595;0.9882;
91.2000;0.1604;0.9906;
91.5000;0.1604;0.9977;
91.8000;0.1620;1.0024;
92.1000;0.1612;1.0071;
92.4000;0.1612;1.0071;
92.7000;0.1644;1.0166;
93.0000;0.1677;1.0166;
93.3000;0.1628;1.0119;
93.6000;0.1636;1.0000;
93.9000;0.1620;1.0000;
94.2000;0.1620;1.0000;
94.5000;0.1628;1.0048;
94.8000;0.1604;1.0000;
95.1000;0.1628;1.0024;
95.4000;0.1628;1.0071;
95.7000;0.1636;1.0048;
96.0000;0.1612;0.9977;
96.3000;0.1636;0.9906;
96.6000;0.1612;0.9858;
96.9000;0.1587;0.9834;
97.2000;0.1620;0.9953;
97.5000;0.1661;1.0048;
97.8000;0.1604;0.9929;
98.1000;0.1579;0.9953;
98.4000;0.1644;1.0071;
98.7000;0.1620;1.0024;
99.0000;0.1612;1.0000;
99.3000;0.1620;1.0024;
99.6000;0.1612;1.0024;
99.9000;0.1612;1.0024;
100.2000;0.1604;1.0048;
100.5000;0.1644;1.0095;
100.8000;0.1612;0.9977;
101.1000;0.1604;0.9882;
101.4000;0.1628;0.9858;
101.7000;0.1604;0.9834;
102.0000;0.1612;0.9858;
102.3000;0.1612;0.9882;
102.6000;0.1595;0.9882;
102.9000;0.1612;0.9882;
103.2000;0.1612;0.9834;
103.5000;0.1604;0.9811;
103.8000;0.1620;0.9858;
104.1000;0.1620;0.9858;
104.4000;0.1628;0.9906;
104.7000;0.1628;0.9858;
105.0000;0.1628;0.9858;
105.3000;0.1612;0.9834;
105.6000;0.1612;0.9763;
105.9000;0.1628;0.9787;
106.2000;0.1604;0.9692;
106.5000;0.1620;0.9763;
106.8000;0.1612;0.9811;
107.1000;0.1595;0.9787;
107.4000;0.1620;0.9811;
107.7000;0.1612;0.9834;
108.0000;0.1587;0.9834;
108.3000;0.1604;0.9811;
108.6000;0.1604;0.9882;
108.9000;0.1612;0.9834;
109.2000;0.1612;0.9811;
109.5000;0.1612;0.9858;
109.8000;0.1620;0.9906;
110.1000;0.1628;0.9953;
110.4000;0.1612;0.9977;
110.7000;0.1636;1.0095;
111.0000;0.1620;1.0024;
111.3000;0.1612;1.0024;
111.6000;0.1620;1.0000;
111.9000;0.1612;0.9977;
112.2000;0.1595;0.9882;
112.5000;0.1612;0.9906;
112.8000;0.1563;0.9763;
113.1000;0.1604;0.9811;
113.4000;0.1652;1.0024;
113.7000;0.1604;0.9953;
114.0000;0.1636;0.9977;
114.3000;0.1644;1.0024;
114.6000;0.1612;0.9977;
114.9000;0.1620;1.0000;
115.2000;0.1612;1.0024;
115.5000;0.1612;0.9977;
115.8000;0.1612;0.9977;
116.1000;0.1628;1.0071;
116.4000;0.1620;1.0000;
116.7000;0.1612;0.9977;
117.0000;0.1628;1.0000;
117.3000;0.1620;0.9977;
117.6000;0.1612;0.9929;
117.9000;0.1620;0.9906;
118.2000;0.1604;0.9811;
118.5000;0.1612;0.9834;
118.8000;0.1612;0.9787;
119.1000;0.1620;0.9763;
119.4000;0.1628;0.9787;
119.7000;0.1604;0.9740;
120.0000;0.1612;0.9811;
120.3000;0.1620;0.9834;
120.6000;0.1644;0.9858;
120.9000;0.1612;0.9858;
121.2000;0.1620;0.9834;
121.5000;0.1612;0.9811;
121.8000;0.1620;0.9763;
122.1000;0.1612;0.9858;
122.4000;0.1530;0.9716;
122.7000;0.1612;1.0048;
123.0000;0.1620;1.0095;
123.3000;0.1612;1.0095;
123.6000;0.1595;1.0048;
123.9000;0.1595;1.0000;
124.2000;0.1604;0.9953;
124.5000;0.1604;0.9906;
124.8000;0.1604;0.9882;
125.1000;0.1604;1.0000;
125.4000;0.1612;1.0024;
125.7000;0.1620;1.0071;
126.0000;0.1612;0.9977;
126.3000;0.1612;0.9953;
126.6000;0.1604;0.9906;
126.9000;0.1620;0.9929;
127.2000;0.1612;0.9953;
127.5000;0.1628;0.9953;
127.8000;0.1595;0.9858;
128.1000;0.1644;0.9953;
128.4000;0.1628;0.9953;
128.7000;0.1628;1.0000;
129.0000;0.1620;0.9953;
129.3000;0.1628;0.9977;
129.6000;0.1612;0.9977;
129.9000;0.1604;0.9858;
130.2000;0.1620;0.9906;
130.5000;0.1555;0.9787;
130.8000;0.1620;0.9929;
131.1000;0.1620;0.9953;
131.4000;0.1604;0.9929;
131.7000;0.1587;0.9834;
132.0000;0.1644;0.9929;
132.3000;0.1612;0.9811;
132.6000;0.1612;0.9763;
132.9000;0.1628;0.9740;
133.2000;0.1636;0.9858;
133.5000;0.1612;0.9858;
133.8000;0.1644;0.9953;
134.1000;0.1595;0.9929;
134.4000;0.1595;1.0024;
134.7000;0.1620;1.0024;
135.0000;0.1604;0.9953;
135.3000;0.1604;1.0000;
135.6000;0.1612;0.9977;
135.9000;0.1595;0.9882;
136.2000;0.1604;0.9953;
136.5000;0.1604;0.9929;
136.8000;0.1604;0.9882;
137.1000;0.1612;0.9977;
137.4000;0.1661;1.0071;
137.7000;0.1620;1.0000;
138.0000;0.1538;0.9787;
138.3000;0.1620;1.0000;
138.6000;0.1701;1.0190;
138.9000;0.1693;1.0119;
139.2000;0.1636;0.9882;
139.5000;0.1612;0.9858;
139.8000;0.1644;0.9906;
140.1000;0.1636;0.9882;
140.4000;0.1628;0.9929;
140.7000;0.1604;0.9929;
141.0000;0.1636;0.9953;
141.3000;0.1636;0.9882;
141.6000;0.1612;0.9906;
141.9000;0.1612;0.9977;
142.2000;0.1620;1.0024;
142.5000;0.1620;1.0024;
142.8000;0.1620;1.0000;
143.1000;0.1587;0.9929;
143.4000;0.1612;1.0024;
143.7000;0.1628;1.0048;
144.0000;0.1628;1.0071;
144.3000;0.1620;1.0119;
144.6000;0.1612;1.0071;
144.9000;0.1644;1.0214;
145.2000;0.1579;1.0024;
145.5000;0.1620;1.0119;
145.8000;0.1595;1.0048;
146.1000;0.1612;1.0143;
146.4000;0.1522;0.9858;
146.7000;0.1612;1.0071;
147.0000;0.1636;1.0119;
147.3000;0.1628;1.0048;
147.6000;0.1628;1.0048;
147.9000;0.1612;1.0000;
148.2000;0.1620;1.0071;
148.5000;0.1612;1.0024;
148.8000;0.1620;1.0048;
149.1000;0.1587;0.9929;
149.4000;0.1628;1.0000;
149.7000;0.1612;1.0000;
150.0000;0.1538;0.9811;
150.3000;0.1604;1.0000;
150.6000;0.1604;1.0095;
150.9000;0.1604;1.0048;
151.2000;0.1612;1.0048;
151.5000;0.1628;1.0048;
151.8000;0.1620;1.0000;
152.1000;0.1604;0.9929;
152.4000;0.1636;1.0000;
152.7000;0.1612;0.9882;
153.0000;0.1587;0.9834;
153.3000;0.1628;0.9929;
153.6000;0.1644;0.9953;
153.9000;0.1620;0.9882;
154.2000;0.1628;0.9882;
154.5000;0.1636;0.9882;
154.8000;0.1636;0.9882;
155.1000;0.1628;0.9953;
155.4000;0.1636;0.9977;
155.7000;0.1620;1.0000;
156.0000;0.1595;0.9906;
156.3000;0.1620;0.9977;
156.6000;0.1628;0.9929;
156.9000;0.1628;1.0000;
157.2000;0.1636;1.0000;
157.5000;0.1612;0.9811;
157.8000;0.1620;0.9834;
158.1000;0.1612;0.9882;
158.4000;0.1612;0.9882;
158.7000;0.1620;0.9953;
159.0000;0.1636;1.0000;
159.3000;0.1612;1.0143;
159.6000;0.1620;1.0166;
159.9000;0.1595;1.0048;
160.2000;0.1612;1.0071;
160.5000;0.1620;1.0071;
160.8000;0.1620;1.0024;
161.1000;0.1612;1.0024;
161.4000;0.1644;1.0071;
161.7000;0.1628;1.0024;
162.0000;0.1628;1.0000;
162.3000;0.1620;0.9929;
162.6000;0.1620;1.0024;
162.9000;0.1636;1.0119;
163.2000;0.1628;1.0095;
163.5000;0.1612;1.0119;
163.8000;0.1718;1.0451;
164.1000;0.1612;1.0143;
164.4000;0.1620;1.0237;
164.7000;0.1612;1.0214;
165.0000;0.1620;1.0237;
165.3000;0.1628;1.0190;
165.6000;0.1595;1.0071;
165.9000;0.1538;0.9906;
166.2000;0.1587;1.0071;
166.5000;0.1587;1.0095;
166.8000;0.1620;1.0190;
167.1000;0.1604;1.0190;
167.4000;0.1604;1.0143;
167.7000;0.1587;1.0071;
168.0000;0.1612;1.0166;
168.3000;0.1652;1.0285;
168.6000;0.1709;1.0380;
168.9000;0.1587;0.9977;
169.2000;0.1644;1.0071;
169.5000;0.1612;1.0024;
169.8000;0.1612;1.0071;
170.1000;0.1685;1.0214;
170.4000;0.1612;1.0048;
170.7000;0.1604;1.0024;
171.0000;0.1636;1.0071;
171.3000;0.1644;1.0143;
171.6000;0.1604;1.0095;
171.9000;0.1604;1.0119;
172.2000;0.1604;1.0095;
172.5000;0.1636;1.0190;
172.8000;0.1604;1.0048;
173.1000;0.1612;1.0119;
173.4000;0.1628;1.0166;
173.7000;0.1604;1.0095;
174.0000;0.1612;1.0119;
174.3000;0.1604;1.0095;
174.6000;0.1612;1.0024;
174.9000;0.1571;0.9906;
175.2000;0.1595;0.9906;
175.5000;0.1587;0.9882;
175.8000;0.1595;0.9977;
176.1000;0.1604;1.0048;
176.4000;0.1636;1.0071;
176.7000;0.1571;0.9858;
177.0000;0.1636;1.0000;
177.3000;0.1612;0.9977;
177.6000;0.1612;1.0024;
177.9000;0.1579;1.0000;
178.2000;0.1612;0.9977;
178.5000;0.1701;1.0261;
178.8000;0.1612;1.0119;
179.1000;0.1612;1.0024;
179.4000;0.1547;0.9787;
179.7000;0.1612;0.9929;
180.0000;0.1628;1.0000;
180.3000;0.1612;0.9953;
180.6000;0.1587;0.9906;
180.9000;0.1587;0.9929;
181.2000;0.1620;0.9906;
181.5000;0.1620;0.9906;
181.8000;0.1612;0.9858;
182.1000;0.1555;0.9740;
182.4000;0.1652;0.9953;
182.7000;0.1685;1.0024;
183.0000;0.1587;0.9740;
183.3000;0.1604;0.9858;
183.6000;0.1612;0.9882;
183.9000;0.1612;0.9882;
184.2000;0.1628;0.9763;
184.5000;0.1612;0.9763;
184.8000;0.1677;0.9953;
185.1000;0.1612;0.9882;
185.4000;0.1563;0.9740;
185.7000;0.1595;0.9858;
186.0000;0.1612;0.9906;
186.3000;0.1612;0.9953;
186.6000;0.1612;0.9906;
186.9000;0.1604;0.9953;
187.2000;0.1579;0.9811;
187.5000;0.1604;0.9834;
187.8000;0.1620;0.9858;
188.1000;0.1628;0.9882;
188.4000;0.1612;0.9811;
188.7000;0.1595;0.9834;
189.0000;0.1628;0.9858;
189.3000;0.1620;0.9763;
189.6000;0.1652;0.9787;
189.9000;0.1628;0.9811;
190.2000;0.1579;0.9882;
190.5000;0.1628;0.9977;
190.8000;0.1620;0.9929;
191.1000;0.1669;1.0048;
191.4000;0.1612;0.9811;
191.7000;0.1644;0.9929;
192.0000;0.1604;0.9811;
192.3000;0.1563;0.9692;
192.6000;0.1571;0.9692;
192.9000;0.1620;0.9811;
193.2000;0.1620;0.9811;
193.5000;0.1620;0.9811;
193.8000;0.1644;0.9787;
194.1000;0.1620;0.9740;
194.4000;0.1636;0.9740;
194.7000;0.1612;0.9763;
195.0000;0.1604;0.9811;
195.3000;0.1579;0.9787;
195.6000;0.1628;0.9858;
195.9000;0.1620;0.9858;
196.2000;0.1612;0.9858;
196.5000;0.1620;0.9811;
196.8000;0.1620;0.9834;
197.1000;0.1620;0.9858;
197.4000;0.1636;0.9834;
197.7000;0.1612;0.9716;
198.0000;0.1636;0.9740;
198.3000;0.1628;0.9834;
198.6000;0.1612;0.9929;
198.9000;0.1612;0.9906;
199.2000;0.1604;0.9929;
199.5000;0.1636;0.9953;
199.8000;0.1612;0.9953;
200.1000;0.1612;0.9906;
200.4000;0.1620;0.9858;
200.7000;0.1612;0.9763;
201.0000;0.1604;0.9740;
201.3000;0.1636;0.9787;
201.6000;0.1604;0.9763;
201.9000;0.1595;0.9763;
202.2000;0.1595;0.9787;
202.5000;0.1595;0.9716;
202.8000;0.1612;0.9787;
203.1000;0.1628;0.9858;
203.4000;0.1620;0.9953;
203.7000;0.1628;0.9953;
204.0000;0.1636;0.9977;
204.3000;0.1620;0.9906;
204.6000;0.1604;0.9906;
204.9000;0.1628;1.0048;
205.2000;0.1595;0.9953;
205.5000;0.1604;0.9977;
205.8000;0.1628;1.0166;
206.1000;0.1644;1.0190;
206.4000;0.1547;1.0000;
206.7000;0.1563;1.0000;
207.0000;0.1595;0.9977;
207.3000;0.1612;0.9929;
207.6000;0.1612;0.9906;
207.9000;0.1612;0.9811;
208.2000;0.1636;0.9977;
208.5000;0.1628;0.9906;
208.8000;0.1620;0.9811;
209.1000;0.1620;0.9787;
209.4000;0.1636;0.9882;
209.7000;0.1636;0.9787;
210.0000;0.1612;0.9787;
210.3000;0.1620;0.9787;
210.6000;0.1620;0.9811;
210.9000;0.1636;0.9811;
211.2000;0.1587;0.9716;
211.5000;0.1612;0.9763;
211.8000;0.1612;0.9811;
212.1000;0.1595;0.9882;
212.4000;0.1628;0.9906;
212.7000;0.1612;0.9929;
213.0000;0.1587;0.9882;
213.3000;0.1661;1.0000;
213.6000;0.1604;0.9929;
213.9000;0.1595;0.9882;
214.2000;0.1612;0.9787;
214.5000;0.1652;0.9811;
214.8000;0.1604;0.9763;
215.1000;0.1628;0.9834;
215.4000;0.1620;0.9858;
215.7000;0.1612;0.9787;
216.0000;0.1620;0.9811;
216.3000;0.1612;0.9763;
216.6000;0.1628;0.9787;
216.9000;0.1612;0.9811;
217.2000;0.1628;0.9953;
217.5000;0.1652;0.9977;
217.8000;0.1620;0.9834;
218.1000;0.1620;0.9858;
218.4000;0.1620;0.9882;
218.7000;0.1620;0.9953;
219.0000;0.1620;0.9953;
219.3000;0.1604;0.9858;
219.6000;0.1587;0.9834;
219.9000;0.1604;0.9858;
220.2000;0.1620;0.9906;
220.5000;0.1612;0.9882;
220.8000;0.1604;0.9929;
221.1000;0.1604;0.9977;
221.4000;0.1612;0.9929;
221.7000;0.1604;0.9882;
222.0000;0.1604;0.9787;
222.3000;0.1620;0.9834;
222.6000;0.1644;0.9977;
222.9000;0.1620;0.9834;
223.2000;0.1620;0.9811;
223.5000;0.1595;0.9716;
223.8000;0.1604;0.9740;
224.1000;0.1604;0.9716;
224.4000;0.1604;0.9787;
224.7000;0.1612;0.9906;
225.0000;0.1628;0.9929;
225.3000;0.1612;0.9858;
225.6000;0.1620;0.9834;
225.9000;0.1612;0.9858;
226.2000;0.1628;0.9882;
226.5000;0.1628;0.9882;
226.8000;0.1620;0.9882;
227.1000;0.1612;0.9906;
227.4000;0.1604;0.9929;
227.7000;0.1612;1.0024;
228.0000;0.1628;1.0048;
228.3000;0.1620;0.9977;
228.6000;0.1604;1.0071;
228.9000;0.1612;1.0071;
229.2000;0.1604;1.0095;
229.5000;0.1595;1.0024;
229.8000;0.1595;1.0095;
230.1000;0.1604;1.0024;
230.4000;0.1644;1.0143;
230.7000;0.1620;1.0143;
231.0000;0.1587;0.9977;
231.3000;0.1612;0.9906;
231.6000;0.1604;0.9834;
231.9000;0.1628;0.9834;
232.2000;0.1522;0.9597;
232.5000;0.1620;0.9929;
232.8000;0.1620;0.9977;
233.1000;0.1628;1.0000;
233.4000;0.1628;1.0048;
233.7000;0.1628;1.0143;
234.0000;0.1644;1.0095;
234.3000;0.1636;0.9953;
234.6000;0.1612;0.9929;
234.9000;0.1661;1.0095;
235.2000;0.1530;0.9645;
235.5000;0.1612;0.9834;
235.8000;0.1628;0.9858;
236.1000;0.1612;0.9834;
236.4000;0.1604;0.9834;
236.7000;0.1620;0.9787;
237.0000;0.1612;0.9763;
237.3000;0.1636;0.9811;
237.6000;0.1620;0.9811;
237.9000;0.1612;0.9787;
238.2000;0.1604;0.9787;
238.5000;0.1604;0.9740;
238.8000;0.1620;0.9763;
239.1000;0.1604;0.9763;
239.4000;0.1620;0.9692;
239.7000;0.1612;0.9763;
240.0000;0.1604;0.9811;
240.3000;0.1620;0.9858;
240.6000;0.1612;0.9882;
240.9000;0.1612;0.9906;
241.2000;0.1628;0.9977;
241.5000;0.1652;0.9977;
241.8000;0.1563;0.9692;
242.1000;0.1620;0.9834;
242.4000;0.1587;0.9669;
242.7000;0.1612;0.9692;
243.0000;0.1612;0.9645;
243.3000;0.1758;0.9977;
243.6000;0.1620;0.9621;
243.9000;0.1612;0.9692;
244.2000;0.1604;0.9787;
244.5000;0.1628;0.9882;
244.8000;0.1628;0.9929;
245.1000;0.1620;0.9858;
245.4000;0.1644;0.9882;
245.7000;0.1620;0.9740;
246.0000;0.1604;0.9716;
246.3000;0.1612;0.9834;
246.6000;0.1604;0.9811;
246.9000;0.1612;0.9834;
247.2000;0.1604;0.9716;
247.5000;0.1620;0.9811;
247.8000;0.1628;0.9953;
248.1000;0.1620;0.9977;
248.4000;0.1563;0.9882;
248.7000;0.1636;1.0024;
249.0000;0.1636;1.0000;
249.3000;0.1620;0.9929;
249.6000;0.1620;0.9953;
249.9000;0.1652;1.0024;
250.2000;0.1636;0.9953;
250.5000;0.1612;0.9834;
250.8000;0.1620;0.9787;
251.1000;0.1612;0.9787;
251.4000;0.1612;0.9692;
251.7000;0.1628;0.9621;
252.0000;0.1604;0.9716;
252.3000;0.1612;0.9621;
252.6000;0.1612;0.9669;
252.9000;0.1669;0.9882;
253.2000;0.1612;0.9716;
253.5000;0.1604;0.9692;
253.8000;0.1620;0.9716;
254.1000;0.1604;0.9692;
254.4000;0.1604;0.9692;
254.7000;0.1612;0.9787;
255.0000;0.1612;0.9763;
255.3000;0.1612;0.9787;
255.6000;0.1612;0.9882;
255.9000;0.1604;0.9929;
256.2000;0.1604;0.9953;
256.5000;0.1628;0.9953;
256.8000;0.1612;0.9906;
257.1000;0.1661;0.9929;
257.4000;0.1612;0.9858;
257.7000;0.1612;0.9906;
258.0000;0.1620;0.9906;
258.3000;0.1604;0.9811;
258.6000;0.1620;0.9787;
258.9000;0.1612;0.9811;
259.2000;0.1620;0.9882;
259.5000;0.1612;0.9763;
259.8000;0.1604;0.9740;
260.1000;0.1620;0.9787;
260.4000;0.1595;0.9763;
260.7000;0.1620;0.9811;
261.0000;0.1612;0.9858;
261.3000;0.1620;0.9811;
261.6000;0.1595;0.9740;
261.9000;0.1612;0.9787;
262.2000;0.1555;0.9716;
262.5000;0.1612;0.9858;
262.8000;0.1620;0.9977;
263.1000;0.1579;0.9858;
263.4000;0.1604;0.9834;
263.7000;0.1587;0.9787;
264.0000;0.1652;0.9977;
264.3000;0.1595;0.9834;
264.6000;0.1636;0.9929;
264.9000;0.1612;0.9834;
265.2000;0.1628;0.9811;
265.5000;0.1612;0.9834;
265.8000;0.1628;0.9882;
266.1000;0.1587;0.9834;
266.4000;0.1620;0.9882;
266.7000;0.1612;0.9906;
267.0000;0.1620;0.9882;
267.3000;0.1612;0.9882;
267.6000;0.1628;0.9953;
267.9000;0.1620;0.9953;
268.2000;0.1620;0.9953;
268.5000;0.1612;0.9882;
268.8000;0.1595;0.9787;
269.1000;0.1620;0.9882;
269.4000;0.1636;0.9953;
269.7000;0.1628;0.9929;
270.0000;0.1587;1.0000;
270.3000;0.1612;1.0119;
270.6000;0.1612;1.0119;
270.9000;0.1604;1.0143;
271.2000;0.1604;1.0143;
271.5000;0.1628;1.0119;
271.8000;0.1604;1.0071;
272.1000;0.1636;1.0048;
272.4000;0.1612;1.0000;
272.7000;0.1612;1.0000;
273.0000;0.1612;1.0071;
273.3000;0.1636;1.0095;
273.6000;0.1669;1.0166;
273.9000;0.1620;1.0048;
274.2000;0.1620;0.9906;
274.5000;0.1628;0.9906;
274.8000;0.1628;0.9811;
275.1000;0.1612;0.9740;
275.4000;0.1628;0.9787;
275.7000;0.1636;0.9906;
276.0000;0.1620;0.9977;
276.3000;0.1612;1.0024;
276.6000;0.1620;1.0071;
276.9000;0.1612;1.0071;
277.2000;0.1636;1.0166;
277.5000;0.1612;1.0119;
277.8000;0.1612;1.0071;
278.1000;0.1579;0.9906;
278.4000;0.1571;0.9882;
278.7000;0.1620;0.9953;
279.0000;0.1595;0.9882;
279.3000;0.1587;0.9834;
279.6000;0.1604;0.9929;
279.9000;0.1579;1.0000;
280.2000;0.1677;1.0214;
280.5000;0.1612;1.0024;
280.8000;0.1612;1.0071;
281.1000;0.1636;1.0143;
281.4000;0.1636;1.0071;
281.7000;0.1612;1.0071;
282.0000;0.1579;1.0000;
282.3000;0.1628;1.0143;
282.6000;0.1612;1.0071;
282.9000;0.1587;1.0048;
283.2000;0.1555;1.0000;
283.5000;0.1628;1.0190;
283.8000;0.1620;1.0214;
284.1000;0.1579;1.0143;
284.4000;0.1604;1.0190;
284.7000;0.1612;1.0166;
285.0000;0.1612;1.0190;
285.3000;0.1604;1.0071;
285.6000;0.1604;1.0071;
285.9000;0.1628;1.0095;
286.2000;0.1644;1.0095;
286.5000;0.1620;1.0119;
286.8000;0.1595;1.0095;
287.1000;0.1628;1.0071;
287.4000;0.1587;0.9953;
287.7000;0.1604;1.0024;
288.0000;0.1604;1.0000;
288.3000;0.1498;0.9740;
288.6000;0.1636;1.0048;
288.9000;0.1612;1.0024;
289.2000;0.1612;1.0000;
289.5000;0.1604;1.0000;
289.8000;0.1604;1.0071;
290.1000;0.1620;1.0143;
290.4000;0.1620;1.0119;
290.7000;0.1612;1.0095;
291.0000;0.1595;1.0048;
291.3000;0.1604;1.0024;
291.6000;0.1604;0.9953;
291.9000;0.1604;0.9929;
292.2000;0.1595;0.9929;
292.5000;0.1604;0.9929;
292.8000;0.1604;0.9929;
293.1000;0.1620;1.0024;
293.4000;0.1628;0.9977;
293.7000;0.1628;1.0000;
294.0000;0.1612;0.9953;
294.3000;0.1628;1.0000;
294.6000;0.1612;1.0048;
294.9000;0.1628;1.0095;
295.2000;0.1628;1.0071;
295.5000;0.1628;1.0048;
295.8000;0.1612;1.0071;
296.1000;0.1612;1.0048;
296.4000;0.1604;1.0024;
296.7000;0.1628;1.0048;
297.0000;0.1628;0.9977;
297.3000;0.1604;0.9882;
297.6000;0.1604;0.9834;
297.9000;0.1644;0.9906;
298.2000;0.1612;0.9787;
298.5000;0.1604;0.9740;
298.8000;0.1612;0.9811;
299.1000;0.1644;0.9834;
299.4000;0.1612;0.9811;
299.7000;0.1628;0.9906;
300.0000;0.1620;1.0024;
300.3000;0.1612;0.9929;
300.6000;0.1595;0.9977;
300.9000;0.1604;1.0095;
301.2000;0.1563;0.9882;
301.5000;0.1628;0.9977;
301.8000;0.1620;1.0048;
302.1000;0.1587;1.0024;
302.4000;0.1612;1.0048;
302.7000;0.1595;1.0024;
303.0000;0.1604;0.9929;
303.3000;0.1612;0.9858;
303.6000;0.1604;0.9763;
303.9000;0.1604;0.9740;
304.2000;0.1612;0.9740;
304.5000;0.1604;0.9787;
304.8000;0.1620;0.9811;
305.1000;0.1628;0.9811;
305.4000;0.1612;0.9882;
305.7000;0.1628;0.9882;
306.0000;0.1604;0.9906;
306.3000;0.1612;0.9858;
306.6000;0.1620;0.9906;
306.9000;0.1628;1.0024;
307.2000;0.1661;1.0048;
307.5000;0.1612;0.9882;
307.8000;0.1538;0.9692;
308.1000;0.1612;0.9811;
308.4000;0.1612;0.9858;
308.7000;0.1604;0.9858;
309.0000;0.1612;0.9906;
309.3000;0.1652;1.0071;
309.6000;0.1620;0.9953;
309.9000;0.1620;0.9929;
310.2000;0.1620;0.9977;
310.5000;0.1612;0.9977;
310.8000;0.1604;1.0071;
311.1000;0.1595;1.0166;
311.4000;0.1628;1.0166;
311.7000;0.1595;1.0024;
312.0000;0.1612;1.0048;
312.3000;0.1530;0.9882;
312.6000;0.1595;1.0024;
312.9000;0.1604;0.9977;
313.2000;0.1604;0.9906;
313.5000;0.1595;0.9953;
313.8000;0.1612;1.0071;
314.1000;0.1620;1.0190;
314.4000;0.1604;1.0285;
314.7000;0.1604;1.0190;
315.0000;0.1612;1.0166;
315.3000;0.1604;1.0190;
315.6000;0.1620;1.0143;
315.9000;0.1612;1.0143;
316.2000;0.1612;1.0119;
316.5000;0.1612;1.0119;
316.8000;0.1644;1.0214;
317.1000;0.1612;1.0143;
317.4000;0.1595;1.0119;
317.7000;0.1612;1.0166;
318.0000;0.1595;1.0143;
318.3000;0.1604;1.0261;
318.6000;0.1571;1.0166;
318.9000;0.1604;1.0214;
319.2000;0.1620;1.0214;
319.5000;0.1595;1.0143;
319.8000;0.1628;1.0261;
320.1000;0.1612;1.0237;
320.4000;0.1595;1.0237;
320.7000;0.1604;1.0214;
321.0000;0.1620;1.0190;
321.3000;0.1612;1.0143;
321.6000;0.1604;1.0048;
321.9000;0.1563;0.9977;
322.2000;0.1604;1.0261;
322.5000;0.1612;1.0214;
322.8000;0.1620;1.0214;
323.1000;0.1555;1.0071;
323.4000;0.1612;1.0119;
323.7000;0.1579;0.9977;
324.0000;0.1604;1.0048;
324.3000;0.1587;1.0000;
324.6000;0.1604;1.0024;
324.9000;0.1661;1.0332;
325.2000;0.1628;1.0380;
325.5000;0.1620;1.0308;
325.8000;0.1547;1.0166;
326.1000;0.1636;1.0332;
326.4000;0.1612;1.0285;
326.7000;0.1612;1.0285;
327.0000;0.1620;1.0261;
327.3000;0.1604;1.0214;
327.6000;0.1604;1.0190;
327.9000;0.1644;1.0285;
328.2000;0.1628;1.0214;
328.5000;0.1612;1.0119;
328.8000;0.1661;1.0261;
329.1000;0.1612;1.0119;
329.4000;0.1620;1.0095;
329.7000;0.1587;1.0024;
330.0000;0.1604;1.0071;
330.3000;0.1620;1.0071;
330.6000;0.1612;1.0048;
330.9000;0.1604;1.0000;
331.2000;0.1595;1.0119;
331.5000;0.1612;1.0119;
331.8000;0.1604;1.0095;
332.1000;0.1612;1.0119;
332.4000;0.1620;1.0119;
332.7000;0.1620;1.0166;
333.0000;0.1612;1.0143;
333.3000;0.1612;1.0166;
333.6000;0.1612;1.0095;
333.9000;0.1661;1.0166;
334.2000;0.1612;1.0071;
334.5000;0.1604;1.0071;
334.8000;0.1604;1.0071;
335.1000;0.1604;1.0071;
335.4000;0.1612;1.0095;
335.7000;0.1620;1.0071;
336.0000;0.1620;1.0071;
336.3000;0.1595;0.9953;
336.6000;0.1604;0.9953;
336.9000;0.1652;1.0095;
337.2000;0.1604;0.9953;
337.5000;0.1595;1.0024;
337.8000;0.1612;1.0143;
338.1000;0.1620;1.0119;
338.4000;0.1628;1.0143;
338.7000;0.1620;1.0166;
339.0000;0.1612;1.0143;
339.3000;0.1628;1.0190;
339.6000;0.1644;1.0237;
339.9000;0.1604;1.0190;
340.2000;0.1628;1.0071;
340.5000;0.1644;1.0143;
340.8000;0.1612;1.0071;
341.1000;0.1620;1.0166;
341.4000;0.1628;1.0143;
341.7000;0.1604;1.0071;
342.0000;0.1620;1.0119;
342.3000;0.1612;1.0048;
342.6000;0.1571;0.9929;
342.9000;0.1628;1.0071;
343.2000;0.1628;1.0166;
343.5000;0.1604;1.0071;
343.8000;0.1628;1.0119;
344.1000;0.1636;1.0000;
344.4000;0.1620;1.0048;
344.7000;0.1628;1.0071;
345.0000;0.1620;1.0143;
345.3000;0.1612;1.0214;
345.6000;0.1612;1.0214;
345.9000;0.1604;1.0190;
346.2000;0.1604;1.0166;
346.5000;0.1620;1.0237;
346.8000;0.1604;1.0237;
347.1000;0.1612;1.0214;
347.4000;0.1620;1.0356;
347.7000;0.1604;1.0308;
348.0000;0.1612;1.0356;
348.3000;0.1612;1.0285;
348.6000;0.1620;1.0261;
348.9000;0.1612;1.0308;
349.2000;0.1612;1.0285;
349.5000;0.1604;1.0237;
349.8000;0.1612;1.0214;
350.1000;0.1595;1.0143;
350.4000;0.1620;1.0095;
350.7000;0.1612;1.0095;
351.0000;0.1620;1.0119;
351.3000;0.1628;1.0190;
351.6000;0.1604;1.0143;
351.9000;0.1628;1.0237;
352.2000;0.1669;1.0356;
352.5000;0.1628;1.0308;
352.8000;0.1620;1.0332;
353.1000;0.1579;1.0261;
353.4000;0.1620;1.0474;
353.7000;0.1612;1.0332;
354.0000;0.1612;1.0332;
354.3000;0.1620;1.0380;
354.6000;0.1612;1.0261;
354.9000;0.1604;1.0285;
355.2000;0.1579;1.0237;
355.5000;0.1604;1.0285;
355.8000;0.1604;1.0214;
356.1000;0.1612;1.0166;
356.4000;0.1620;1.0261;
356.7000;0.1612;1.0190;
357.0000;0.1604;1.0095;
357.3000;0.1636;1.0166;
357.6000;0.1595;1.0143;
357.9000;0.1595;1.0143;
358.2000;0.1612;1.0190;
358.5000;0.1620;1.0214;
358.8000;0.1595;1.0214;
359.1000;0.1587;1.0190;
359.4000;0.1652;1.0285;
359.7000;0.1612;1.0285;
360.0000;0.1620;1.0332;
360.3000;0.1612;1.0332;
360.6000;0.1636;1.0332;
360.9000;0.1595;1.0214;
361.2000;0.1620;1.0190;
361.5000;0.1612;1.0261;
361.8000;0.1604;1.0095;
362.1000;0.1620;1.0214;
362.4000;0.1620;1.0166;
362.7000;0.1604;1.0143;
363.0000;0.1604;1.0190;
363.3000;0.1595;1.0237;
363.6000;0.1620;1.0261;
363.9000;0.1612;1.0166;
364.2000;0.1620;1.0095;
364.5000;0.1612;0.9953;
364.8000;0.1644;0.9977;
365.1000;0.1612;1.0000;
365.4000;0.1579;0.9906;
365.7000;0.1604;1.0048;
366.0000;0.1612;1.0071;
366.3000;0.1604;1.0071;
366.6000;0.1612;1.0143;
366.9000;0.1612;1.0095;
367.2000;0.1620;1.0166;
367.5000;0.1620;1.0095;
367.8000;0.1620;1.0119;
368.1000;0.1604;1.0143;
368.4000;0.1604;1.0261;
368.7000;0.1612;1.0285;
369.0000;0.1628;1.0308;
369.3000;0.1620;1.0237;
369.6000;0.1604;1.0143;
369.9000;0.1595;1.0143;
370.2000;0.1604;1.0119;
370.5000;0.1604;1.0166;
370.8000;0.1620;1.0143;
371.1000;0.1677;1.0308;
371.4000;0.1620;1.0237;
371.7000;0.1620;1.0166;
372.0000;0.1636;1.0190;
372.3000;0.1652;1.0190;
372.6000;0.1612;1.0071;
372.9000;0.1644;1.0095;
373.2000;0.1587;0.9929;
373.5000;0.1612;1.0119;
373.8000;0.1604;1.0095;
374.1000;0.1579;1.0095;
374.4000;0.1669;1.0285;
374.7000;0.1612;1.0095;
375.0000;0.1579;1.0000;
375.3000;0.1636;1.0119;
375.6000;0.1604;1.0071;
375.9000;0.1604;1.0024;
376.2000;0.1604;0.9977;
376.5000;0.1620;0.9977;
376.8000;0.1636;0.9953;
377.1000;0.1644;0.9929;
377.4000;0.1612;0.9977;
377.7000;0.1612;1.0048;
378.0000;0.1636;1.0119;
378.3000;0.1612;1.0048;
378.6000;0.1620;1.0000;
378.9000;0.1579;1.0000;
379.2000;0.1661;1.0119;
379.5000;0.1587;0.9977;
379.8000;0.1628;1.0095;
380.1000;0.1612;1.0048;
380.4000;0.1620;1.0095;
380.7000;0.1612;1.0071;
381.0000;0.1612;1.0143;
381.3000;0.1628;1.0095;
381.6000;0.1628;1.0143;
381.9000;0.1612;1.0143;
382.2000;0.1620;1.0119;
382.5000;0.1636;1.0166;
382.8000;0.1620;1.0190;
383.1000;0.1604;1.0143;
383.4000;0.1612;1.0119;
383.7000;0.1636;1.0214;
384.0000;0.1595;1.0071;
384.3000;0.1595;1.0190;
384.6000;0.1652;1.0285;
384.9000;0.1595;1.0143;
385.2000;0.1612;1.0071;
385.5000;0.1547;0.9906;
385.8000;0.1604;1.0095;
386.1000;0.1628;1.0190;
386.4000;0.1604;1.0190;
386.7000;0.1612;1.0214;
387.0000;0.1612;1.0214;
387.3000;0.1604;1.0214;
387.6000;0.1628;1.0237;
387.9000;0.1620;1.0261;
388.2000;0.1644;1.0332;
388.5000;0.1612;1.0237;
388.8000;0.1620;1.0190;
389.1000;0.1587;1.0190;
389.4000;0.1587;1.0119;
389.7000;0.1620;1.0214;
390.0000;0.1628;1.0237;
390.3000;0.1644;1.0237;
390.6000;0.1604;1.0237;
390.9000;0.1595;1.0143;
391.2000;0.1587;1.0095;
391.5000;0.1612;1.0095;
391.8000;0.1579;1.0000;
392.1000;0.1620;1.0048;
392.4000;0.1620;1.0143;
392.7000;0.1620;1.0190;
393.0000;0.1612;1.0190;
393.3000;0.1620;1.0166;
393.6000;0.1628;1.0095;
393.9000;0.1604;1.0000;
394.2000;0.1628;1.0024;
394.5000;0.1604;1.0048;
394.8000;0.1628;1.0166;
395.1000;0.1628;1.0190;
395.4000;0.1604;1.0024;
395.7000;0.1620;0.9977;
396.0000;0.1595;0.9929;
396.3000;0.1604;0.9953;
396.6000;0.1612;1.0024;
396.9000;0.1612;1.0048;
397.2000;0.1652;1.0095;
397.5000;0.1604;1.0048;
397.8000;0.1604;1.0095;
398.1000;0.1538;0.9929;
398.4000;0.1620;1.0119;
398.7000;0.1620;1.0166;
399.0000;0.1661;1.0332;
399.3000;0.1612;1.0261;
399.6000;0.1604;1.0166;
399.9000;0.1620;1.0119;
400.2000;0.1604;1.0143;
400.5000;0.1628;1.0285;
400.8000;0.1612;1.0308;
401.1000;0.1612;1.0237;
401.4000;0.1587;1.0166;
401.7000;0.1636;1.0285;
402.0000;0.1612;1.0190;
402.3000;0.1612;1.0214;
402.6000;0.1595;1.0261;
402.9000;0.1620;1.0356;
403.2000;0.1612;1.0285;
403.5000;0.1604;1.0285;
403.8000;0.1612;1.0308;
404.1000;0.1612;1.0285;
404.4000;0.1669;1.0403;
404.7000;0.1587;1.0332;
405.0000;0.1612;1.0403;
405.3000;0.1636;1.0474;
405.6000;0.1620;1.0498;
405.9000;0.1612;1.0380;
406.2000;0.1604;1.0237;
406.5000;0.1612;1.0261;
406.8000;0.1612;1.0261;
407.1000;0.1620;1.0166;
407.4000;0.1579;1.0071;
407.7000;0.1595;1.0095;
408.0000;0.1612;1.0048;
408.3000;0.1604;0.9906;
408.6000;0.1587;0.9787;
408.9000;0.1604;0.9740;
409.2000;0.1604;0.9834;
409.5000;0.1612;0.9929;
409.8000;0.1620;0.9929;
410.1000;0.1604;0.9882;
410.4000;0.1612;0.9811;
410.7000;0.1612;0.9834;
411.0000;0.1612;0.9906;
411.3000;0.1612;0.9929;
411.6000;0.1595;0.9953;
411.9000;0.1612;1.0048;
412.2000;0.1595;0.9953;
412.5000;0.1604;1.0095;
412.8000;0.1595;1.0119;
413.1000;0.1595;1.0143;
413.4000;0.1620;1.0119;
413.7000;0.1604;1.0071;
414.0000;0.1604;1.0095;
414.3000;0.1595;1.0071;
414.6000;0.1620;1.0143;
414.9000;0.1612;1.0119;
415.2000;0.1587;1.0024;
415.5000;0.1604;1.0119;
415.8000;0.1612;1.0071;
416.1000;0.1612;1.0000;
416.4000;0.1604;1.0048;
416.7000;0.1612;1.0071;
417.0000;0.1604;1.0119;
417.3000;0.1612;1.0119;
417.6000;0.1595;1.0119;
417.9000;0.1595;1.0119;
418.2000;0.1579;1.0095;
418.5000;0.1571;1.0119;
418.8000;0.1587;1.0143;
419.1000;0.1636;1.0237;
419.4000;0.1612;1.0143;
419.7000;0.1612;1.0071;
420.0000;0.1595;0.9953;
420.3000;0.1644;1.0048;
420.6000;0.1604;0.9906;
420.9000;0.1612;1.0024;
421.2000;0.1587;0.9929;
421.5000;0.1612;1.0000;
421.8000;0.1612;1.0024;
422.1000;0.1628;1.0024;
422.4000;0.1612;1.0024;
422.7000;0.1612;1.0024;
423.0000;0.1595;0.9953;
423.3000;0.1620;1.0095;
423.6000;0.1636;1.0214;
423.9000;0.1620;1.0261;
424.2000;0.1604;1.0143;
424.5000;0.1595;1.0166;
424.8000;0.1612;1.0143;
425.1000;0.1604;1.0237;
425.4000;0.1604;1.0285;
425.7000;0.1571;1.0308;
426.0000;0.1612;1.0356;
426.3000;0.1604;1.0380;
426.6000;0.1612;1.0451;
426.9000;0.1661;1.0451;
427.2000;0.1595;1.0356;
427.5000;0.1579;1.0214;
427.8000;0.1636;1.0285;
428.1000;0.1604;1.0214;
428.4000;0.1571;1.0261;
428.7000;0.1612;1.0261;
429.0000;0.1587;1.0214;
429.3000;0.1612;1.0190;
429.6000;0.1604;1.0190;
429.9000;0.1612;1.0095;
430.2000;0.1612;1.0095;
430.5000;0.1604;1.0143;
430.8000;0.1604;1.0143;
431.1000;0.1604;1.0071;
431.4000;0.1612;1.0024;
431.7000;0.1620;1.0071;
432.0000;0.1604;1.0095;
432.3000;0.1612;1.0095;
432.6000;0.1636;1.0119;
432.9000;0.1636;1.0071;
433.2000;0.1620;1.0071;
433.5000;0.1604;1.0119;
433.8000;0.1620;1.0166;
434.1000;0.1669;1.0332;
434.4000;0.1587;1.0119;
434.7000;0.1612;1.0261;
435.0000;0.1620;1.0166;
435.3000;0.1612;1.0095;
435.6000;0.1612;1.0119;
435.9000;0.1604;1.0071;
436.2000;0.1595;1.0048;
436.5000;0.1612;0.9977;
436.8000;0.1620;0.9929;
437.1000;0.1620;0.9906;
437.4000;0.1587;0.9906;
437.7000;0.1612;1.0024;
438.0000;0.1636;1.0024;
438.3000;0.1628;0.9977;
438.6000;0.1579;0.9882;
438.9000;0.1620;0.9977;
439.2000;0.1652;1.0143;
439.5000;0.1628;1.0000;
439.8000;0.1661;1.0071;
440.1000;0.1628;1.0071;
440.4000;0.1595;0.9929;
440.7000;0.1620;1.0000;
441.0000;0.1587;0.9977;
441.3000;0.1644;1.0214;
441.6000;0.1620;1.0166;
441.9000;0.1612;1.0214;
442.2000;0.1628;1.0166;
442.5000;0.1612;1.0166;
442.8000;0.1628;1.0095;
443.1000;0.1620;1.0071;
443.4000;0.1620;1.0119;
443.7000;0.1620;1.0166;
444.0000;0.1620;1.0237;
444.3000;0.1612;1.0237;
444.6000;0.1595;1.0285;
444.9000;0.1579;1.0214;
445.2000;0.1571;1.0166;
445.5000;0.1604;1.0285;
445.8000;0.1620;1.0380;
446.1000;0.1530;1.0119;
446.4000;0.1595;1.0308;
446.7000;0.1652;1.0332;
447.0000;0.1612;1.0166;
447.3000;0.1636;1.0190;
447.6000;0.1612;1.0166;
447.9000;0.1612;1.0166;
448.2000;0.1628;1.0166;
448.5000;0.1636;1.0308;
448.8000;0.1612;1.0308;
449.1000;0.1620;1.0285;
449.4000;0.1604;1.0190;
449.7000;0.1628;1.0166;
450.0000;0.1612;1.0095;
450.3000;0.1612;1.0095;
450.6000;0.1595;1.0119;
450.9000;0.1595;1.0214;
451.2000;0.1604;1.0261;
451.5000;0.1628;1.0214;
451.8000;0.1604;1.0119;
452.1000;0.1612;1.0143;
452.4000;0.1612;1.0143;
452.7000;0.1612;1.0190;
453.0000;0.1612;1.0190;
453.3000;0.1604;1.0237;
453.6000;0.1620;1.0332;
453.9000;0.1604;1.0356;
454.2000;0.1612;1.0380;
454.5000;0.1620;1.0427;
454.8000;0.1612;1.0427;
455.1000;0.1620;1.0332;
455.4000;0.1571;1.0237;
455.7000;0.1612;1.0285;
456.0000;0.1563;1.0071;
456.3000;0.1620;1.0048;
456.6000;0.1628;1.0071;
456.9000;0.1604;1.0071;
457.2000;0.1620;1.0190;
457.5000;0.1628;1.0237;
457.8000;0.1620;1.0166;
458.1000;0.1620;1.0166;
458.4000;0.1620;1.0190;
458.7000;0.1587;1.0190;
459.0000;0.1628;1.0285;
459.3000;0.1612;1.0190;
459.6000;0.1612;1.0285;
459.9000;0.1612;1.0166;
460.2000;0.1620;1.0166;
460.5000;0.1620;1.0048;
460.8000;0.1612;1.0048;
461.1000;0.1612;1.0048;
461.4000;0.1620;1.0071;
461.7000;0.1604;1.0000;
462.0000;0.1555;0.9953;
462.3000;0.1612;1.0071;
462.6000;0.1604;1.0071;
462.9000;0.1612;1.0190;
463.2000;0.1612;1.0166;
463.5000;0.1612;1.0095;
463.8000;0.1604;1.0048;
464.1000;0.1620;1.0095;
464.4000;0.1612;1.0095;
464.7000;0.1604;1.0048;
465.0000;0.1620;1.0048;
465.3000;0.1620;1.0024;
465.6000;0.1612;1.0024;
465.9000;0.1612;1.0024;
466.2000;0.1612;1.0048;
466.5000;0.1620;1.0095;
466.8000;0.1612;1.0119;
467.1000;0.1604;1.0095;
467.4000;0.1587;1.0000;
467.7000;0.1612;1.0119;
468.0000;0.1595;1.0024;
468.3000;0.1628;1.0119;
468.6000;0.1612;0.9953;
468.9000;0.1628;1.0000;
469.2000;0.1620;1.0024;
469.5000;0.1595;1.0024;
469.8000;0.1612;1.0024;
470.1000;0.1612;1.0000;
470.4000;0.1620;1.0024;
470.7000;0.1620;0.9906;
471.0000;0.1612;0.9882;
471.3000;0.1620;0.9906;
471.6000;0.1612;0.9906;
471.9000;0.1628;0.9953;
472.2000;0.1604;0.9906;
472.5000;0.1587;0.9811;
472.8000;0.1612;0.9906;
473.1000;0.1612;0.9953;
473.4000;0.1563;0.9882;
473.7000;0.1604;1.0000;
474.0000;0.1669;1.0166;
474.3000;0.1612;1.0119;
474.6000;0.1587;1.0024;
474.9000;0.1604;1.0071;
475.2000;0.1620;1.0143;
475.5000;0.1620;1.0190;
475.8000;0.1604;1.0143;
476.1000;0.1595;1.0237;
476.4000;0.1604;1.0190;
476.7000;0.1620;1.0166;
477.0000;0.1612;1.0237;
477.3000;0.1628;1.0237;
477.6000;0.1579;1.0071;
477.9000;0.1587;1.0119;
478.2000;0.1612;1.0143;
478.5000;0.1620;1.0190;
478.8000;0.1530;1.0071;
479.1000;0.1612;1.0285;
479.4000;0.1604;1.0285;
479.7000;0.1604;1.0214;
480.0000;0.1571;1.0143;
480.3000;0.1595;1.0190;
480.6000;0.1612;1.0308;
480.9000;0.1620;1.0356;
481.2000;0.1604;1.0308;
481.5000;0.1595;1.0285;
481.8000;0.1612;1.0285;
482.1000;0.1579;1.0237;
482.4000;0.1620;1.0214;
482.7000;0.1604;1.0166;
483.0000;0.1612;1.0237;
483.3000;0.1612;1.0308;
483.6000;0.1604;1.0261;
483.9000;0.1620;1.0190;
484.2000;0.1604;1.0119;
484.5000;0.1595;1.0143;
484.8000;0.1595;1.0048;
485.1000;0.1587;1.0024;
485.4000;0.1595;1.0000;
485.7000;0.1604;1.0071;
486.0000;0.1612;1.0095;
486.3000;0.1604;1.0071;
486.6000;0.1587;0.9977;
486.9000;0.1595;0.9977;
487.2000;0.1628;1.0048;
487.5000;0.1612;1.0071;
487.8000;0.1604;1.0095;
488.1000;0.1595;1.0000;
488.4000;0.1620;1.0048;
488.7000;0.1604;1.0000;
489.0000;0.1595;1.0048;
489.3000;0.1604;1.0071;
489.6000;0.1604;1.0048;
489.9000;0.1612;1.0071;
490.2000;0.1612;1.0071;
490.5000;0.1612;1.0024;
490.8000;0.1595;1.0024;
491.1000;0.1636;1.0071;
491.4000;0.1579;0.9953;
491.7000;0.1620;0.9977;
492.0000;0.1555;0.9882;
492.3000;0.1644;1.0095;
492.6000;0.1628;1.0190;
492.9000;0.1579;1.0024;
493.2000;0.1685;1.0237;
493.5000;0.1604;1.0119;
493.8000;0.1579;1.0024;
494.1000;0.1620;1.0119;
494.4000;0.1612;1.0024;
494.7000;0.1612;1.0048;
495.0000;0.1636;1.0071;
495.3000;0.1620;1.0024;
495.6000;0.1587;0.9858;
495.9000;0.1620;0.9929;
496.2000;0.1620;1.0000;
496.5000;0.1587;0.9953;
496.8000;0.1555;0.9929;
497.1000;0.1604;1.0024;
497.4000;0.1628;1.0024;
497.7000;0.1612;0.9858;
498.0000;0.1604;0.9906;
498.3000;0.1612;1.0000;
498.6000;0.1620;0.9929;
498.9000;0.1644;0.9953;
499.2000;0.1620;0.9834;
499.5000;0.1595;0.9787;
499.8000;0.1636;0.9834;
500.1000;0.1604;0.9692;
500.4000;0.1620;0.9716;
500.7000;0.1669;0.9882;
501.0000;0.1612;0.9882;
501.3000;0.1604;0.9834;
501.6000;0.1636;0.9929;
501.9000;0.1612;0.9906;
502.2000;0.1628;0.9929;
502.5000;0.1636;1.0000;
502.8000;0.1620;1.0000;
503.1000;0.1636;0.9929;
503.4000;0.1604;0.9811;
503.7000;0.1595;0.9787;
504.0000;0.1612;0.9811;
504.3000;0.1612;0.9858;
504.6000;0.1652;1.0000;
504.9000;0.1538;0.9763;
505.2000;0.1661;1.0166;
505.5000;0.1612;1.0071;
505.8000;0.1628;1.0048;
506.1000;0.1555;0.9953;
506.4000;0.1595;1.0071;
506.7000;0.1604;1.0071;
507.0000;0.1604;1.0119;
507.3000;0.1636;1.0190;
507.6000;0.1620;1.0214;
507.9000;0.1652;1.0261;
508.2000;0.1604;1.0214;
508.5000;0.1620;1.0166;
508.8000;0.1620;1.0237;
509.1000;0.1620;1.0237;
509.4000;0.1620;1.0214;
509.7000;0.1620;1.0214;
510.0000;0.1612;1.0119;
510.3000;0.1612;1.0285;
510.6000;0.1612;1.0332;
510.9000;0.1595;1.0261;
511.2000;0.1604;1.0190;
511.5000;0.1628;1.0214;
511.8000;0.1644;1.0237;
512.1000;0.1620;1.0071;
512.4000;0.1612;1.0095;
512.7000;0.1595;1.0166;
513.0000;0.1620;1.0214;
513.3000;0.1644;1.0308;
513.6000;0.1604;1.0143;
513.9000;0.1579;1.0095;
514.2000;0.1604;1.0237;
514.5000;0.1595;1.0237;
514.8000;0.1595;1.0237;
515.1000;0.1595;1.0190;
515.4000;0.1604;1.0143;
515.7000;0.1628;1.0166;
516.0000;0.1587;1.0095;
516.3000;0.1620;1.0237;
516.6000;0.1612;1.0237;
516.9000;0.1612;1.0166;
517.2000;0.1620;1.0143;
517.5000;0.1612;1.0071;
517.8000;0.1587;0.9977;
518.1000;0.1604;1.0095;
518.4000;0.1612;1.0143;
518.7000;0.1604;1.0095;
519.0000;0.1595;1.0166;
519.3000;0.1620;1.0237;
519.6000;0.1612;1.0143;
519.9000;0.1604;1.0190;
520.2000;0.1604;1.0166;
520.5000;0.1604;1.0143;
520.8000;0.1612;1.0190;
521.1000;0.1612;1.0166;
521.4000;0.1604;1.0119;
521.7000;0.1595;1.0024;
522.0000;0.1620;1.0048;
522.3000;0.1612;1.0071;
522.6000;0.1636;1.0143;
522.9000;0.1612;0.9977;
523.2000;0.1595;1.0000;
523.5000;0.1644;1.0166;
523.8000;0.1604;1.0214;
524.1000;0.1628;1.0190;
524.4000;0.1604;1.0143;
524.7000;0.1628;1.0166;
525.0000;0.1620;1.0143;
525.3000;0.1604;1.0119;
525.6000;0.1604;1.0143;
525.9000;0.1595;1.0166;
526.2000;0.1612;1.0119;
526.5000;0.1563;1.0024;
526.8000;0.1612;1.0166;
527.1000;0.1620;1.0237;
527.4000;0.1612;1.0190;
527.7000;0.1652;1.0332;
528.0000;0.1628;1.0285;
528.3000;0.1595;1.0166;
528.6000;0.1612;1.0214;
528.9000;0.1612;1.0166;
529.2000;0.1628;1.0308;
529.5000;0.1595;1.0237;
529.8000;0.1620;1.0214;
530.1000;0.1636;1.0237;
530.4000;0.1571;1.0048;
530.7000;0.1604;1.0071;
531.0000;0.1604;0.9977;
531.3000;0.1628;1.0071;
531.6000;0.1587;0.9977;
531.9000;0.1620;1.0048;
532.2000;0.1620;1.0095;
532.5000;0.1620;1.0190;
532.8000;0.1612;1.0237;
533.1000;0.1620;1.0214;
533.4000;0.1628;1.0237;
533.7000;0.1620;1.0119;
534.0000;0.1612;1.0143;
534.3000;0.1620;1.0071;
534.6000;0.1636;1.0095;
534.9000;0.1661;1.0285;
535.2000;0.1612;1.0261;
535.5000;0.1628;1.0214;
535.8000;0.1612;1.0214;
536.1000;0.1612;1.0143;
536.4000;0.1612;1.0190;
536.7000;0.1604;1.0190;
537.0000;0.1612;1.0166;
537.3000;0.1628;1.0190;
537.6000;0.1620;1.0095;
537.9000;0.1612;1.0143;
538.2000;0.1628;1.0237;
538.5000;0.1612;1.0285;
538.8000;0.1612;1.0214;
539.1000;0.1628;1.0214;
539.4000;0.1628;1.0166;
539.7000;0.1604;1.0166;
540.0000;0.1636;1.0214;
540.3000;0.1604;1.0237;
540.6000;0.1612;1.0308;
540.9000;0.1612;1.0261;
541.2000;0.1604;1.0143;
541.5000;0.1587;1.0119;
541.8000;0.1628;1.0166;
542.1000;0.1612;1.0190;
542.4000;0.1612;1.0214;
542.7000;0.1612;1.0166;
543.0000;0.1612;1.0143;
543.3000;0.1612;1.0143;
543.6000;0.1620;1.0166;
543.9000;0.1604;1.0166;
544.2000;0.1604;1.0119;
544.5000;0.1628;1.0214;
544.8000;0.1604;1.0190;
545.1000;0.1620;1.0119;
545.4000;0.1620;1.0024;
545.7000;0.1620;1.0000;
546.0000;0.1604;0.9906;
546.3000;0.1620;1.0024;
546.6000;0.1612;1.0024;
546.9000;0.1620;1.0143;
547.2000;0.1620;1.0237;
547.5000;0.1620;1.0261;
547.8000;0.1669;1.0332;
548.1000;0.1628;1.0237;
548.4000;0.1612;1.0285;
548.7000;0.1612;1.0308;
549.0000;0.1563;1.0190;
549.3000;0.1612;1.0285;
549.6000;0.1604;1.0190;
549.9000;0.1620;1.0190;
550.2000;0.1612;1.0143;
550.5000;0.1604;1.0143;
550.8000;0.1604;1.0095;
551.1000;0.1628;1.0143;
551.4000;0.1612;1.0166;
551.7000;0.1595;1.0048;
552.0000;0.1604;1.0071;
552.3000;0.1620;1.0095;
552.6000;0.1628;1.0071;
552.9000;0.1636;1.0166;
553.2000;0.1620;1.0095;
553.5000;0.1620;1.0071;
553.8000;0.1595;0.9953;
554.1000;0.1612;0.9953;
554.4000;0.1538;0.9740;
554.7000;0.1612;0.9929;
555.0000;0.1612;1.0000;
555.3000;0.1604;1.0024;
555.6000;0.1587;0.9953;
555.9000;0.1669;1.0095;
556.2000;0.1612;0.9929;
556.5000;0.1612;0.9906;
556.8000;0.1604;0.9882;
557.1000;0.1669;1.0000;
557.4000;0.1595;0.9834;
557.7000;0.1612;0.9906;
558.0000;0.1612;0.9953;
558.3000;0.1628;1.0048;
558.6000;0.1628;1.0143;
558.9000;0.1636;1.0237;
559.2000;0.1620;1.0166;
559.5000;0.1612;1.0095;
559.8000;0.1636;1.0071;
560.1000;0.1612;1.0048;
560.4000;0.1547;0.9882;
560.7000;0.1620;1.0048;
561.0000;0.1604;0.9977;
561.3000;0.1652;1.0024;
561.6000;0.1604;0.9858;
561.9000;0.1595;0.9834;
562.2000;0.1604;0.9834;
562.5000;0.1595;0.9882;
562.8000;0.1604;0.9858;
563.1000;0.1612;0.9858;
563.4000;0.1555;0.9787;
563.7000;0.1604;1.0048;
564.0000;0.1604;1.0000;
564.3000;0.1604;1.0000;
564.6000;0.1604;1.0000;
564.9000;0.1604;1.0024;
565.2000;0.1612;1.0071;
565.5000;0.1628;1.0095;
565.8000;0.1595;1.0000;
566.1000;0.1604;1.0024;
566.4000;0.1612;1.0000;
566.7000;0.1604;0.9953;
567.0000;0.1604;0.9787;
567.3000;0.1595;0.9763;
567.6000;0.1612;0.9787;
567.9000;0.1595;0.9763;
568.2000;0.1620;0.9811;
568.5000;0.1612;0.9858;
568.8000;0.1652;0.9953;
569.1000;0.1612;0.9882;
569.4000;0.1612;0.9977;
569.7000;0.1620;0.9977;
570.0000;0.1620;1.0048;
570.3000;0.1587;1.0024;
570.6000;0.1612;1.0048;
570.9000;0.1612;1.0071;
571.2000;0.1620;1.0071;
571.5000;0.1628;1.0024;
571.8000;0.1612;1.0000;
572.1000;0.1579;0.9977;
572.4000;0.1612;0.9977;
572.7000;0.1612;0.9929;
573.0000;0.1604;0.9834;
573.3000;0.1587;0.9787;
573.6000;0.1612;0.9858;
573.9000;0.1612;0.9834;
574.2000;0.1612;0.9858;
574.5000;0.1604;0.9906;
574.8000;0.1595;0.9953;
575.1000;0.1612;0.9977;
575.4000;0.1636;0.9953;
575.7000;0.1612;0.9953;
576.0000;0.1652;1.0071;
576.3000;0.1628;1.0071;
576.6000;0.1628;1.0024;
576.9000;0.1620;1.0024;
577.2000;0.1620;0.9929;
577.5000;0.1612;0.9953;
577.8000;0.1612;0.9953;
578.1000;0.1652;1.0071;
578.4000;0.1677;1.0237;
578.7000;0.1604;1.0071;
579.0000;0.1628;1.0071;
579.3000;0.1563;1.0000;
579.6000;0.1604;1.0119;
579.9000;0.1604;1.0071;
580.2000;0.1595;1.0048;
580.5000;0.1604;1.0024;
580.8000;0.1587;1.0000;
581.1000;0.1604;0.9906;
581.4000;0.1620;0.9882;
581.7000;0.1612;0.9929;
582.0000;0.1612;0.9977;
582.3000;0.1652;1.0071;
582.6000;0.1612;0.9977;
582.9000;0.1612;0.9929;
583.2000;0.1644;0.9906;
583.5000;0.1652;0.9834;
583.8000;0.1612;0.9834;
584.1000;0.1628;0.9882;
584.4000;0.1595;0.9787;
584.7000;0.1612;0.9763;
585.0000;0.1595;0.9692;
585.3000;0.1612;0.9787;
585.6000;0.1604;0.9811;
585.9000;0.1644;0.9929;
586.2000;0.1604;0.9787;
586.5000;0.1604;0.9811;
586.8000;0.1604;0.9906;
587.1000;0.1604;0.9977;
587.4000;0.1604;0.9929;
587.7000;0.1612;0.9929;
588.0000;0.1612;0.9906;
588.3000;0.1628;0.9882;
588.6000;0.1612;0.9716;
588.9000;0.1604;0.9669;
589.2000;0.1612;0.9716;
589.5000;0.1620;0.9787;
589.8000;0.1612;0.9811;
590.1000;0.1595;0.9763;
590.4000;0.1595;0.9787;
590.7000;0.1604;0.9882;
591.0000;0.1595;0.9882;
591.3000;0.1620;0.9929;
591.6000;0.1587;0.9929;
591.9000;0.1612;0.9977;
592.2000;0.1612;0.9906;
592.5000;0.1620;0.9977;
592.8000;0.1612;0.9953;
593.1000;0.1620;0.9977;
593.4000;0.1612;0.9953;
593.7000;0.1620;1.0071;
594.0000;0.1604;1.0071;
594.3000;0.1579;0.9977;
594.6000;0.1604;0.9977;
594.9000;0.1612;0.9906;
595.2000;0.1604;0.9906;
595.5000;0.1579;0.9763;
595.8000;0.1595;0.9882;
596.1000;0.1620;0.9953;
596.4000;0.1620;1.0119;
596.7000;0.1628;1.0237;
597.0000;0.1628;1.0048;
597.3000;0.1644;1.0048;
597.6000;0.1612;1.0024;
597.9000;0.1595;1.0000;
598.2000;0.1612;0.9953;
598.5000;0.1612;1.0000;
598.8000;0.1628;1.0071;
599.1000;0.1628;1.0119;
599.4000;0.1604;1.0119;
599.7000;0.1604;1.0190;
600.0000;0.1612;1.0190;
600.3000;0.1620;1.0166;
600.6000;0.1620;1.0119;
600.9000;0.1587;1.0071;
601.2000;0.1595;1.0119;
601.5000;0.1595;1.0143;
601.8000;0.1563;1.0000;
602.1000;0.1547;0.9763;
602.4000;0.1571;0.9621;
602.7000;0.1538;0.9432;
603.0000;0.1555;0.9408;
603.3000;0.1506;0.9242;
603.6000;0.1522;0.9266;
603.9000;0.1522;0.9242;
604.2000;0.1514;0.9218;
604.5000;0.1481;0.9147;
604.8000;0.1538;0.9195;
605.1000;0.1473;0.9076;
605.4000;0.1473;0.9052;
605.7000;0.1481;0.9124;
606.0000;0.1449;0.9052;
606.3000;0.1465;0.8958;
606.6000;0.1473;0.8863;
606.9000;0.1457;0.8721;
607.2000;0.1473;0.8721;
607.5000;0.1392;0.8531;
607.8000;0.1449;0.8697;
608.1000;0.1400;0.8650;
608.4000;0.1425;0.8579;
608.7000;0.1433;0.8626;
609.0000;0.1351;0.8460;
609.3000;0.1384;0.8626;
609.6000;0.1400;0.8650;
609.9000;0.1376;0.8531;
610.2000;0.1368;0.8436;
610.5000;0.1408;0.8555;
610.8000;0.1408;0.8531;
611.1000;0.1433;0.8579;
611.4000;0.1433;0.8626;
611.7000;0.1392;0.8507;
612.0000;0.1392;0.8555;
612.3000;0.1400;0.8602;
612.6000;0.1400;0.8579;
612.9000;0.1425;0.8697;
613.2000;0.1359;0.8555;
613.5000;0.1343;0.8507;
613.8000;0.1359;0.8531;
614.1000;0.1368;0.8484;
614.4000;0.1376;0.8507;
614.7000;0.1368;0.8555;
615.0000;0.1351;0.8531;
615.3000;0.1392;0.8650;
615.6000;0.1359;0.8602;
615.9000;0.1343;0.8602;
616.2000;0.1351;0.8602;
616.5000;0.1335;0.8484;
616.8000;0.1343;0.8579;
617.1000;0.1343;0.8579;
617.4000;0.1327;0.8531;
617.7000;0.1351;0.8531;
618.0000;0.1343;0.8626;
618.3000;0.1335;0.8602;
618.6000;0.1311;0.8579;
618.9000;0.1319;0.8531;
619.2000;0.1327;0.8507;
619.5000;0.1384;0.8673;
619.8000;0.1327;0.8507;
620.1000;0.1327;0.8531;
620.4000;0.1327;0.8531;
620.7000;0.1278;0.8389;
621.0000;0.1351;0.8602;
621.3000;0.1343;0.8555;
621.6000;0.1343;0.8626;
621.9000;0.1319;0.8673;
622.2000;0.1278;0.8579;
622.5000;0.1278;0.8555;
622.8000;0.1294;0.8531;
623.1000;0.1294;0.8602;
623.4000;0.1286;0.8579;
623.7000;0.1302;0.8626;
624.0000;0.1311;0.8650;
624.3000;0.1278;0.8579;
624.6000;0.1302;0.8602;
624.9000;0.1294;0.8579;
625.2000;0.1294;0.8579;
625.5000;0.1335;0.8602;
625.8000;0.1302;0.8460;
626.1000;0.1311;0.8531;
626.4000;0.1302;0.8531;
626.7000;0.1319;0.8650;
627.0000;0.1278;0.8602;
627.3000;0.1262;0.8531;
627.6000;0.1286;0.8507;
627.9000;0.1262;0.8342;
628.2000;0.1286;0.8318;
628.5000;0.1302;0.8389;
628.8000;0.1294;0.8484;
629.1000;0.1245;0.8389;
629.4000;0.1286;0.8507;
629.7000;0.1286;0.8555;
630.0000;0.1319;0.8555;
630.3000;0.1278;0.8460;
630.6000;0.1270;0.8460;
630.9000;0.1302;0.8531;
631.2000;0.1302;0.8602;
631.5000;0.1294;0.8507;
631.8000;0.1286;0.8460;
632.1000;0.1286;0.8484;
632.4000;0.1237;0.8413;
632.7000;0.1270;0.8531;
633.0000;0.1237;0.8436;
633.3000;0.1254;0.8484;
633.6000;0.1270;0.8460;
633.9000;0.1270;0.8413;
634.2000;0.1254;0.8342;
634.5000;0.1278;0.8365;
634.8000;0.1270;0.8342;
635.1000;0.1270;0.8365;
635.4000;0.1270;0.8318;
635.7000;0.1229;0.8152;
636.0000;0.1262;0.8318;
636.3000;0.1270;0.8294;
636.6000;0.1270;0.8270;
636.9000;0.1270;0.8294;
637.2000;0.1262;0.8247;
637.5000;0.1262;0.8247;
637.8000;0.1254;0.8223;
638.1000;0.1237;0.8152;
638.4000;0.1270;0.8176;
638.7000;0.1254;0.8105;
639.0000;0.1245;0.8128;
639.3000;0.1254;0.8105;
639.6000;0.1229;0.8057;
639.9000;0.1237;0.8033;
640.2000;0.1245;0.8152;
640.5000;0.1254;0.8270;
640.8000;0.1237;0.8294;
641.1000;0.1229;0.8294;
641.4000;0.1245;0.8318;
641.7000;0.1254;0.8436;
642.0000;0.1245;0.8413;
642.3000;0.1213;0.8318;
642.6000;0.1245;0.8389;
642.9000;0.1205;0.8342;
643.2000;0.1229;0.8318;
643.5000;0.1245;0.8389;
643.8000;0.1237;0.8389;
644.1000;0.1245;0.8389;
644.4000;0.1221;0.8342;
644.7000;0.1237;0.8436;
645.0000;0.1188;0.8294;
645.3000;0.1229;0.8389;
645.6000;0.1221;0.8294;
645.9000;0.1213;0.8247;
646.2000;0.1221;0.8318;
646.5000;0.1270;0.8507;
646.8000;0.1221;0.8413;
647.1000;0.1245;0.8436;
647.4000;0.1205;0.8270;
647.7000;0.1213;0.8342;
648.0000;0.1221;0.8389;
648.3000;0.1156;0.8318;
648.6000;0.1229;0.8531;
648.9000;0.1221;0.8413;
649.2000;0.1221;0.8436;
649.5000;0.1278;0.8460;
649.8000;0.1229;0.8342;
650.1000;0.1213;0.8247;
650.4000;0.1286;0.8460;
650.7000;0.1237;0.8318;
651.0000;0.1221;0.8342;
651.3000;0.1205;0.8318;
651.6000;0.1229;0.8413;
651.9000;0.1205;0.8413;
652.2000;0.1213;0.8413;
652.5000;0.1213;0.8413;
652.8000;0.1221;0.8365;
653.1000;0.1229;0.8460;
653.4000;0.1221;0.8389;
653.7000;0.1213;0.8436;
654.0000;0.1205;0.8413;
654.3000;0.1197;0.8484;
654.6000;0.1229;0.8389;
654.9000;0.1221;0.8389;
655.2000;0.1221;0.8294;
655.5000;0.1213;0.8247;
655.8000;0.1213;0.8318;
656.1000;0.1197;0.8270;
656.4000;0.1229;0.8389;
656.7000;0.1213;0.8342;
657.0000;0.1221;0.8365;
657.3000;0.1205;0.8342;
657.6000;0.1197;0.8342;
657.9000;0.1205;0.8223;
658.2000;0.1213;0.8247;
658.5000;0.1205;0.8318;
658.8000;0.1205;0.8318;
659.1000;0.1180;0.8318;
659.4000;0.1205;0.8318;
659.7000;0.1213;0.8413;
660.0000;0.1197;0.8318;
660.3000;0.1213;0.8270;
660.6000;0.1221;0.8342;
660.9000;0.1262;0.8389;
661.2000;0.1197;0.8318;
661.5000;0.1205;0.8318;
661.8000;0.1213;0.8389;
662.1000;0.1188;0.8413;
662.4000;0.1213;0.8507;
662.7000;0.1213;0.8484;
663.0000;0.1205;0.8555;
663.3000;0.1213;0.8602;
663.6000;0.1229;0.8555;
663.9000;0.1197;0.8365;
664.2000;0.1197;0.8413;
664.5000;0.1254;0.8555;
664.8000;0.1213;0.8389;
665.1000;0.1205;0.8436;
665.4000;0.1197;0.8365;
665.7000;0.1205;0.8318;
666.0000;0.1221;0.8318;
666.3000;0.1180;0.8223;
666.6000;0.1164;0.8199;
666.9000;0.1205;0.8318;
667.2000;0.1205;0.8365;
667.5000;0.1156;0.8318;
667.8000;0.1188;0.8342;
668.1000;0.1180;0.8413;
668.4000;0.1180;0.8413;
668.7000;0.1188;0.8436;
669.0000;0.1213;0.8531;
669.3000;0.1188;0.8365;
669.6000;0.1197;0.8342;
669.9000;0.1205;0.8413;
670.2000;0.1221;0.8484;
670.5000;0.1172;0.8484;
670.8000;0.1180;0.8507;
671.1000;0.1140;0.8507;
671.4000;0.1188;0.8602;
671.7000;0.1180;0.8507;
672.0000;0.1180;0.8460;
672.3000;0.1164;0.8436;
672.6000;0.1188;0.8413;
672.9000;0.1205;0.8436;
673.2000;0.1188;0.8413;
673.5000;0.1237;0.8555;
673.8000;0.1188;0.8413;
674.1000;0.1188;0.8484;
674.4000;0.1188;0.8460;
674.7000;0.1197;0.8413;
675.0000;0.1148;0.8294;
675.3000;0.1172;0.8365;
675.6000;0.1188;0.8413;
675.9000;0.1188;0.8389;
676.2000;0.1197;0.8365;
676.5000;0.1205;0.8294;
676.8000;0.1245;0.8389;
677.1000;0.1188;0.8294;
677.4000;0.1156;0.8318;
677.7000;0.1188;0.8436;
678.0000;0.1180;0.8507;
678.3000;0.1164;0.8507;
678.6000;0.1180;0.8507;
678.9000;0.1180;0.8436;
679.2000;0.1172;0.8436;
679.5000;0.1164;0.8413;
679.8000;0.1156;0.8342;
680.1000;0.1180;0.8436;
680.4000;0.1188;0.8413;
680.7000;0.1156;0.8342;
681.0000;0.1172;0.8484;
681.3000;0.1213;0.8602;
681.6000;0.1197;0.8602;
681.9000;0.1172;0.8531;
682.2000;0.1172;0.8579;
682.5000;0.1164;0.8460;
682.8000;0.1172;0.8413;
683.1000;0.1172;0.8436;
683.4000;0.1164;0.8413;
683.7000;0.1164;0.8460;
684.0000;0.1148;0.8460;
684.3000;0.1205;0.8484;
684.6000;0.1164;0.8365;
684.9000;0.1164;0.8318;
685.2000;0.1172;0.8365;
685.5000;0.1172;0.8484;
685.8000;0.1148;0.8460;
686.1000;0.1188;0.8507;
686.4000;0.1115;0.8342;
686.7000;0.1172;0.8484;
687.0000;0.1188;0.8507;
687.3000;0.1164;0.8507;
687.6000;0.1172;0.8460;
687.9000;0.1172;0.8436;
688.2000;0.1180;0.8460;
688.5000;0.1164;0.8460;
688.8000;0.1156;0.8507;
689.1000;0.1164;0.8555;
689.4000;0.1164;0.8555;
689.7000;0.1172;0.8507;
690.0000;0.1156;0.8507;
690.3000;0.1140;0.8626;
690.6000;0.1164;0.8768;
690.9000;0.1164;0.8697;
691.2000;0.1156;0.8650;
691.5000;0.1172;0.8721;
691.8000;0.1131;0.8673;
692.1000;0.1164;0.8626;
692.4000;0.1148;0.8555;
692.7000;0.1140;0.8579;
693.0000;0.1115;0.8579;
693.3000;0.1164;0.8531;
693.6000;0.1156;0.8579;
693.9000;0.1115;0.8436;
694.2000;0.1156;0.8436;
694.5000;0.1148;0.8389;
694.8000;0.1172;0.8389;
695.1000;0.1156;0.8436;
695.4000;0.1123;0.8389;
695.7000;0.1156;0.8531;
696.0000;0.1164;0.8555;
696.3000;0.1148;0.8531;
696.6000;0.1156;0.8460;
696.9000;0.1156;0.8507;
697.2000;0.1164;0.8484;
697.5000;0.1156;0.8460;
697.8000;0.1148;0.8460;
698.1000;0.1156;0.8413;
698.4000;0.1156;0.8484;
698.7000;0.1148;0.8484;
699.0000;0.1205;0.8484;
699.3000;0.1221;0.8507;
699.6000;0.1164;0.8389;
699.9000;0.1148;0.8413;
700.2000;0.1156;0.8436;
700.5000;0.1148;0.8389;
700.8000;0.1148;0.8436;
701.1000;0.1164;0.8507;
701.4000;0.1156;0.8531;
701.7000;0.1156;0.8531;
702.0000;0.1148;0.8531;
702.3000;0.1172;0.8579;
702.6000;0.1164;0.8507;
702.9000;0.1156;0.8460;
703.2000;0.1221;0.8650;
703.5000;0.1156;0.8413;
703.8000;0.1172;0.8436;
704.1000;0.1156;0.8413;
704.4000;0.1156;0.8413;
704.7000;0.1156;0.8484;
705.0000;0.1172;0.8555;
705.3000;0.1172;0.8555;
705.6000;0.1156;0.8484;
705.9000;0.1140;0.8484;
706.2000;0.1140;0.8484;
706.5000;0.1172;0.8484;
706.8000;0.1148;0.8436;
707.1000;0.1156;0.8436;
707.4000;0.1180;0.8413;
707.7000;0.1164;0.8342;
708.0000;0.1148;0.8342;
708.3000;0.1148;0.8318;
708.6000;0.1148;0.8270;
708.9000;0.1164;0.8270;
709.2000;0.1148;0.8247;
709.5000;0.1180;0.8342;
709.8000;0.1148;0.8342;
710.1000;0.1164;0.8413;
710.4000;0.1148;0.8413;
710.7000;0.1156;0.8460;
711.0000;0.1156;0.8507;
711.3000;0.1148;0.8555;
711.6000;0.1148;0.8484;
711.9000;0.1180;0.8579;
712.2000;0.1140;0.8579;
712.5000;0.1140;0.8602;
712.8000;0.1180;0.8626;
713.1000;0.1140;0.8555;
713.4000;0.1148;0.8555;
713.7000;0.1131;0.8507;
714.0000;0.1180;0.8673;
714.3000;0.1140;0.8555;
714.6000;0.1140;0.8460;
714.9000;0.1140;0.8413;
715.2000;0.1148;0.8436;
715.5000;0.1148;0.8507;
715.8000;0.1148;0.8579;
716.1000;0.1164;0.8460;
716.4000;0.1148;0.8413;
716.7000;0.1156;0.8531;
717.0000;0.1156;0.8531;
717.3000;0.1131;0.8507;
717.6000;0.1148;0.8413;
717.9000;0.1131;0.8365;
718.2000;0.1140;0.8318;
718.5000;0.1148;0.8413;
718.8000;0.1148;0.8507;
719.1000;0.1188;0.8602;
719.4000;0.1148;0.8579;
719.7000;0.1115;0.8460;
720.0000;0.1156;0.8555;
720.3000;0.1148;0.8602;
720.6000;0.1205;0.8744;
720.9000;0.1172;0.8579;
721.2000;0.1148;0.8579;
721.5000;0.1156;0.8579;
721.8000;0.1172;0.8697;
722.1000;0.1156;0.8602;
722.4000;0.1156;0.8531;
722.7000;0.1140;0.8460;
723.0000;0.1148;0.8413;
723.3000;0.1148;0.8365;
723.6000;0.1140;0.8365;
723.9000;0.1107;0.8294;
724.2000;0.1156;0.8436;
724.5000;0.1148;0.8342;
724.8000;0.1131;0.8389;
725.1000;0.1140;0.8342;
725.4000;0.1123;0.8365;
725.7000;0.1197;0.8579;
726.0000;0.1131;0.8436;
726.3000;0.1123;0.8460;
726.6000;0.1140;0.8507;
726.9000;0.1140;0.8555;
727.2000;0.1148;0.8579;
727.5000;0.1123;0.8555;
727.8000;0.1156;0.8579;
728.1000;0.1148;0.8579;
728.4000;0.1156;0.8507;
728.7000;0.1066;0.8270;
729.0000;0.1115;0.8484;
729.3000;0.1148;0.8579;
729.6000;0.1148;0.8626;
729.9000;0.1148;0.8579;
730.2000;0.1172;0.8673;
730.5000;0.1131;0.8579;
730.8000;0.1131;0.8579;
731.1000;0.1164;0.8579;
731.4000;0.1131;0.8555;
731.7000;0.1140;0.8555;
732.0000;0.1156;0.8602;
732.3000;0.1131;0.8484;
732.6000;0.1140;0.8436;
732.9000;0.1140;0.8389;
733.2000;0.1140;0.8365;
733.5000;0.1140;0.8365;
733.8000;0.1148;0.8460;
734.1000;0.1099;0.8436;
734.4000;0.1115;0.8507;
734.7000;0.1131;0.8460;
735.0000;0.1091;0.8413;
735.3000;0.1140;0.8460;
735.6000;0.1123;0.8342;
735.9000;0.1148;0.8365;
736.2000;0.1131;0.8365;
736.5000;0.1115;0.8342;
736.8000;0.1131;0.8365;
737.1000;0.1131;0.8318;
737.4000;0.1140;0.8247;
737.7000;0.1148;0.8294;
738.0000;0.1148;0.8294;
738.3000;0.1140;0.8342;
738.6000;0.1140;0.8365;
738.9000;0.1156;0.8413;
739.2000;0.1140;0.8389;
739.5000;0.1066;0.8294;
739.8000;0.1115;0.8531;
740.1000;0.1131;0.8555;
740.4000;0.1123;0.8531;
740.7000;0.1140;0.8531;
741.0000;0.1058;0.8318;
741.3000;0.1083;0.8365;
741.6000;0.1188;0.8602;
741.9000;0.1115;0.8365;
742.2000;0.1131;0.8436;
742.5000;0.1131;0.8507;
742.8000;0.1131;0.8484;
743.1000;0.1074;0.8294;
743.4000;0.1091;0.8365;
743.7000;0.1123;0.8484;
744.0000;0.1140;0.8484;
744.3000;0.1131;0.8507;
744.6000;0.1148;0.8555;
744.9000;0.1148;0.8555;
745.2000;0.1156;0.8531;
745.5000;0.1140;0.8579;
745.8000;0.1131;0.8650;
746.1000;0.1123;0.8579;
746.4000;0.1107;0.8531;
746.7000;0.1107;0.8531;
747.0000;0.1123;0.8602;
747.3000;0.1115;0.8579;
747.6000;0.1123;0.8650;
747.9000;0.1131;0.8673;
748.2000;0.1156;0.8650;
748.5000;0.1148;0.8531;
748.8000;0.1148;0.8460;
749.1000;0.1148;0.8650;
749.4000;0.1148;0.8579;
749.7000;0.1156;0.8626;
750.0000;0.1131;0.8555;
750.3000;0.1148;0.8507;
750.6000;0.1123;0.8413;
750.9000;0.1140;0.8413;
751.2000;0.1148;0.8270;
751.5000;0.1074;0.8128;
751.8000;0.1123;0.8294;
752.1000;0.1140;0.8342;
752.4000;0.1131;0.8318;
752.7000;0.1123;0.8365;
753.0000;0.1148;0.8413;
753.3000;0.1123;0.8389;
753.6000;0.1131;0.8365;
753.9000;0.1131;0.8507;
754.2000;0.1156;0.8436;
754.5000;0.1188;0.8602;
754.8000;0.1156;0.8531;
755.1000;0.1140;0.8460;
755.4000;0.1140;0.8484;
755.7000;0.1123;0.8460;
756.0000;0.1123;0.8389;
756.3000;0.1140;0.8365;
756.6000;0.1115;0.8318;
756.9000;0.1140;0.8389;
757.2000;0.1140;0.8294;
757.5000;0.1123;0.8270;
757.8000;0.1140;0.8294;
758.1000;0.1131;0.8270;
758.4000;0.1115;0.8270;
758.7000;0.1123;0.8365;
759.0000;0.1140;0.8413;
759.3000;0.1164;0.8460;
759.6000;0.1148;0.8389;
759.9000;0.1131;0.8318;
760.2000;0.1107;0.8223;
760.5000;0.1148;0.8365;
760.8000;0.1221;0.8555;
761.1000;0.1107;0.8318;
761.4000;0.1123;0.8294;
761.7000;0.1123;0.8294;
762.0000;0.1107;0.8294;
762.3000;0.1107;0.8223;
762.6000;0.1123;0.8223;
762.9000;0.1058;0.8152;
763.2000;0.1115;0.8247;
763.5000;0.1115;0.8342;
763.8000;0.1050;0.8223;
764.1000;0.1107;0.8389;
764.4000;0.1066;0.8318;
764.7000;0.1123;0.8436;
765.0000;0.1156;0.8413;
765.3000;0.1115;0.8270;
765.6000;0.1131;0.8484;
765.9000;0.1188;0.8673;
766.2000;0.1123;0.8507;
766.5000;0.1026;0.8270;
766.8000;0.1148;0.8484;
767.1000;0.1131;0.8460;
767.4000;0.1131;0.8460;
767.7000;0.1115;0.8436;
768.0000;0.1131;0.8460;
768.3000;0.1131;0.8436;
768.6000;0.1140;0.8460;
768.9000;0.1115;0.8436;
769.2000;0.1123;0.8436;
769.5000;0.1091;0.8342;
769.8000;0.1123;0.8436;
770.1000;0.1123;0.8436;
770.4000;0.1074;0.8342;
770.7000;0.1123;0.8460;
771.0000;0.1140;0.8389;
771.3000;0.1123;0.8389;
771.6000;0.1123;0.8365;
771.9000;0.1107;0.8389;
772.2000;0.1140;0.8318;
772.5000;0.1123;0.8223;
772.8000;0.1115;0.8270;
773.1000;0.1107;0.8270;
773.4000;0.1123;0.8247;
773.7000;0.1107;0.8318;
774.0000;0.1115;0.8294;
774.3000;0.1131;0.8294;
774.6000;0.1172;0.8460;
774.9000;0.1140;0.8342;
775.2000;0.1083;0.8318;
775.5000;0.1115;0.8413;
775.8000;0.1099;0.8342;
776.1000;0.1123;0.8389;
776.4000;0.1123;0.8460;
776.7000;0.1123;0.8365;
777.0000;0.1131;0.8389;
777.3000;0.1131;0.8365;
777.6000;0.1148;0.8436;
777.9000;0.1131;0.8389;
778.2000;0.1131;0.8342;
778.5000;0.1148;0.8436;
778.8000;0.1131;0.8436;
779.1000;0.1131;0.8413;
779.4000;0.1131;0.8342;
779.7000;0.1107;0.8270;
780.0000;0.1156;0.8365;
780.3000;0.1140;0.8318;
780.6000;0.1107;0.8318;
780.9000;0.1107;0.8294;
781.2000;0.1123;0.8294;
781.5000;0.1123;0.8365;
781.8000;0.1107;0.8389;
782.1000;0.1180;0.8555;
782.4000;0.1083;0.8365;
782.7000;0.1123;0.8507;
783.0000;0.1083;0.8413;
783.3000;0.1115;0.8365;
783.6000;0.1123;0.8318;
783.9000;0.1148;0.8365;
784.2000;0.1091;0.8199;
784.5000;0.1123;0.8342;
784.8000;0.1131;0.8389;
785.1000;0.1099;0.8247;
785.4000;0.1123;0.8247;
785.7000;0.1123;0.8152;
786.0000;0.1115;0.8152;
786.3000;0.1115;0.8199;
786.6000;0.1066;0.8152;
786.9000;0.1107;0.8247;
787.2000;0.1107;0.8223;
787.5000;0.1115;0.8318;
787.8000;0.1172;0.8413;
788.1000;0.1140;0.8294;
788.4000;0.1115;0.8223;
788.7000;0.1123;0.8199;
789.0000;0.1107;0.8128;
789.3000;0.1115;0.8081;
789.6000;0.1123;0.8152;
789.9000;0.1115;0.8199;
790.2000;0.1164;0.8436;
790.5000;0.1140;0.8318;
790.8000;0.1123;0.8294;
791.1000;0.1107;0.8342;
791.4000;0.1131;0.8365;
791.7000;0.1131;0.8342;
792.0000;0.1180;0.8413;
792.3000;0.1131;0.8342;
792.6000;0.1123;0.8318;
792.9000;0.1123;0.8199;
793.2000;0.1140;0.8223;
793.5000;0.1131;0.8176;
793.8000;0.1131;0.8128;
794.1000;0.1123;0.8105;
794.4000;0.1115;0.8152;
794.7000;0.1123;0.8105;
795.0000;0.1115;0.8152;
795.3000;0.1115;0.8105;
795.6000;0.1123;0.8152;
795.9000;0.1131;0.8105;
796.2000;0.1156;0.8247;
796.5000;0.1107;0.8176;
796.8000;0.1123;0.8270;
797.1000;0.1115;0.8270;
797.4000;0.1115;0.8247;
797.7000;0.1115;0.8247;
798.0000;0.1131;0.8223;
798.3000;0.1123;0.8247;
798.6000;0.1123;0.8270;
798.9000;0.1107;0.8223;
799.2000;0.1050;0.8057;
799.5000;0.1107;0.8223;
799.8000;0.1107;0.8318;
800.1000;0.1107;0.8413;
800.4000;0.1115;0.8484;
800.7000;0.1091;0.8555;
801.0000;0.1131;0.8555;
801.3000;0.1074;0.8460;
801.6000;0.1107;0.8555;
801.9000;0.1107;0.8579;
802.2000;0.1123;0.8555;
802.5000;0.1115;0.8531;
802.8000;0.1115;0.8531;
803.1000;0.1123;0.8484;
803.4000;0.1115;0.8413;
803.7000;0.1123;0.8484;
804.0000;0.1115;0.8460;
804.3000;0.1107;0.8460;
804.6000;0.1123;0.8436;
804.9000;0.1148;0.8484;
805.2000;0.1115;0.8413;
805.5000;0.1123;0.8342;
805.8000;0.1107;0.8294;
806.1000;0.1140;0.8389;
806.4000;0.1123;0.8413;
806.7000;0.1099;0.8365;
807.0000;0.1091;0.8270;
807.3000;0.1115;0.8294;
807.6000;0.1123;0.8389;
807.9000;0.1140;0.8436;
808.2000;0.1123;0.8342;
808.5000;0.1099;0.8294;
808.8000;0.1123;0.8294;
809.1000;0.1099;0.8199;
809.4000;0.1123;0.8270;
809.7000;0.1115;0.8247;
810.0000;0.1131;0.8318;
810.3000;0.1123;0.8270;
810.6000;0.1115;0.8270;
810.9000;0.1115;0.8365;
811.2000;0.1107;0.8365;
811.5000;0.1107;0.8389;
811.8000;0.1107;0.8413;
812.1000;0.1107;0.8436;
812.4000;0.1099;0.8460;
812.7000;0.1099;0.8507;
813.0000;0.1107;0.8507;
813.3000;0.1074;0.8365;
813.6000;0.1107;0.8389;
813.9000;0.1123;0.8389;
814.2000;0.1115;0.8436;
814.5000;0.1123;0.8460;
814.8000;0.1107;0.8389;
815.1000;0.1123;0.8365;
815.4000;0.1107;0.8223;
815.7000;0.1091;0.8176;
816.0000;0.1107;0.8223;
816.3000;0.1148;0.8389;
816.6000;0.1107;0.8294;
816.9000;0.1123;0.8294;
817.2000;0.1083;0.8294;
817.5000;0.1107;0.8270;
817.8000;0.1074;0.8270;
818.1000;0.1107;0.8294;
818.4000;0.1099;0.8223;
818.7000;0.1123;0.8199;
819.0000;0.1115;0.8152;
819.3000;0.1131;0.8247;
819.6000;0.1099;0.8294;
819.9000;0.1099;0.8247;
820.2000;0.1074;0.8247;
820.5000;0.1115;0.8318;
820.8000;0.1107;0.8270;
821.1000;0.1115;0.8223;
821.4000;0.1115;0.8223;
821.7000;0.1123;0.8199;
822.0000;0.1091;0.8152;
822.3000;0.1107;0.8270;
822.6000;0.1115;0.8342;
822.9000;0.1107;0.8294;
823.2000;0.1115;0.8247;
823.5000;0.1115;0.8318;
823.8000;0.1099;0.8294;
824.1000;0.1107;0.8247;
824.4000;0.1115;0.8270;
824.7000;0.1107;0.8247;
825.0000;0.1018;0.7986;
825.3000;0.1091;0.8176;
825.6000;0.1107;0.8152;
825.9000;0.1091;0.8176;
826.2000;0.1107;0.8176;
826.5000;0.1148;0.8318;
826.8000;0.1123;0.8176;
827.1000;0.1099;0.8105;
827.4000;0.1099;0.8105;
827.7000;0.1115;0.8199;
828.0000;0.1115;0.8223;
828.3000;0.1099;0.8152;
828.6000;0.1115;0.8176;
828.9000;0.1123;0.8247;
829.2000;0.1107;0.8270;
829.5000;0.1140;0.8342;
829.8000;0.1099;0.8294;
830.1000;0.1099;0.8247;
830.4000;0.1131;0.8389;
830.7000;0.1115;0.8342;
831.0000;0.1099;0.8294;
831.3000;0.1083;0.8342;
831.6000;0.1107;0.8413;
831.9000;0.1131;0.8365;
832.2000;0.1123;0.8365;
832.5000;0.1115;0.8270;
832.8000;0.1099;0.8247;
833.1000;0.1083;0.8294;
833.4000;0.1115;0.8270;
833.7000;0.1107;0.8294;
834.0000;0.1123;0.8365;
834.3000;0.1123;0.8436;
834.6000;0.1099;0.8436;
834.9000;0.1123;0.8484;
835.2000;0.1123;0.8460;
835.5000;0.1123;0.8507;
835.8000;0.1099;0.8436;
836.1000;0.1107;0.8436;
836.4000;0.1099;0.8413;
836.7000;0.1107;0.8460;
837.0000;0.1123;0.8507;
837.3000;0.1140;0.8507;
837.6000;0.1123;0.8389;
837.9000;0.1115;0.8199;
838.2000;0.1140;0.8199;
838.5000;0.1123;0.8128;
838.8000;0.1131;0.8057;
839.1000;0.1050;0.7868;
839.4000;0.1172;0.8176;
839.7000;0.1107;0.8010;
840.0000;0.1123;0.8033;
840.3000;0.1083;0.8081;
840.6000;0.1091;0.8128;
840.9000;0.1083;0.8105;
841.2000;0.1099;0.8152;
841.5000;0.1107;0.8152;
841.8000;0.1107;0.8152;
842.1000;0.1107;0.8199;
842.4000;0.1123;0.8247;
842.7000;0.1131;0.8294;
843.0000;0.1099;0.8270;
843.3000;0.1058;0.8223;
843.6000;0.1107;0.8365;
843.9000;0.1115;0.8342;
844.2000;0.1107;0.8294;
844.5000;0.1115;0.8318;
844.8000;0.1099;0.8342;
845.1000;0.1099;0.8342;
845.4000;0.1091;0.8342;
845.7000;0.1107;0.8318;
846.0000;0.1099;0.8294;
846.3000;0.1066;0.8199;
846.6000;0.1115;0.8294;
846.9000;0.1115;0.8270;
847.2000;0.1099;0.8318;
847.5000;0.1107;0.8342;
847.8000;0.1099;0.8318;
848.1000;0.1115;0.8413;
848.4000;0.1099;0.8389;
848.7000;0.1099;0.8413;
849.0000;0.1148;0.8484;
849.3000;0.1099;0.8389;
849.6000;0.1099;0.8436;
849.9000;0.1107;0.8460;
850.2000;0.1074;0.8436;
850.5000;0.1115;0.8531;
850.8000;0.1091;0.8507;
851.1000;0.1131;0.8484;
851.4000;0.1099;0.8413;
851.7000;0.1164;0.8602;
852.0000;0.1058;0.8247;
852.3000;0.1091;0.8270;
852.6000;0.1026;0.8152;
852.9000;0.1107;0.8247;
853.2000;0.1107;0.8199;
853.5000;0.1115;0.8247;
853.8000;0.1123;0.8247;
854.1000;0.1115;0.8294;
854.4000;0.1099;0.8318;
854.7000;0.1115;0.8318;
855.0000;0.1091;0.8270;
855.3000;0.1131;0.8413;
855.6000;0.1091;0.8460;
855.9000;0.1074;0.8436;
856.2000;0.1099;0.8555;
856.5000;0.1123;0.8626;
856.8000;0.1107;0.8531;
857.1000;0.1107;0.8579;
857.4000;0.1099;0.8531;
857.7000;0.1115;0.8507;
858.0000;0.1164;0.8626;
858.3000;0.1066;0.8389;
858.6000;0.1172;0.8721;
858.9000;0.1091;0.8484;
859.2000;0.1107;0.8460;
859.5000;0.1099;0.8413;
859.8000;0.1074;0.8294;
860.1000;0.1123;0.8389;
860.4000;0.1066;0.8247;
860.7000;0.1107;0.8365;
861.0000;0.1050;0.8270;
861.3000;0.1099;0.8389;
861.6000;0.1107;0.8342;
861.9000;0.1180;0.8579;
862.2000;0.1107;0.8389;
862.5000;0.1099;0.8413;
862.8000;0.1099;0.8413;
863.1000;0.1058;0.8365;
863.4000;0.1099;0.8484;
863.7000;0.1107;0.8507;
864.0000;0.1107;0.8484;
864.3000;0.1107;0.8555;
864.6000;0.1083;0.8555;
864.9000;0.1099;0.8531;
865.2000;0.1099;0.8531;
865.5000;0.1107;0.8531;
865.8000;0.1107;0.8531;
866.1000;0.1091;0.8484;
866.4000;0.1091;0.8555;
866.7000;0.1107;0.8602;
867.0000;0.1115;0.8721;
867.3000;0.1107;0.8744;
867.6000;0.1099;0.8744;
867.9000;0.1083;0.8744;
868.2000;0.1091;0.8650;
868.5000;0.1099;0.8650;
868.8000;0.1083;0.8579;
869.1000;0.1091;0.8531;
869.4000;0.1107;0.8579;
869.7000;0.1107;0.8555;
870.0000;0.1083;0.8555;
870.3000;0.1115;0.8507;
870.6000;0.1107;0.8436;
870.9000;0.1115;0.8460;
871.2000;0.1115;0.8460;
871.5000;0.1107;0.8460;
871.8000;0.1115;0.8507;
872.1000;0.1115;0.8579;
872.4000;0.1115;0.8507;
872.7000;0.1107;0.8413;
873.0000;0.1123;0.8436;
873.3000;0.1099;0.8413;
873.6000;0.1115;0.8484;
873.9000;0.1107;0.8460;
874.2000;0.1099;0.8413;
874.5000;0.1091;0.8413;
874.8000;0.1099;0.8531;
875.1000;0.1140;0.8626;
875.4000;0.1107;0.8413;
875.7000;0.1123;0.8365;
876.0000;0.1107;0.8365;
876.3000;0.1115;0.8413;
876.6000;0.1107;0.8365;
876.9000;0.1099;0.8342;
877.2000;0.1115;0.8365;
877.5000;0.1148;0.8460;
877.8000;0.1083;0.8318;
878.1000;0.1123;0.8460;
878.4000;0.1107;0.8342;
878.7000;0.1107;0.8342;
879.0000;0.1164;0.8436;
879.3000;0.1107;0.8413;
879.6000;0.1107;0.8413;
879.9000;0.1074;0.8413;
880.2000;0.1115;0.8436;
880.5000;0.1083;0.8389;
880.8000;0.1009;0.8199;
881.1000;0.1123;0.8507;
881.4000;0.1099;0.8484;
881.7000;0.1107;0.8460;
882.0000;0.1107;0.8531;
882.3000;0.1099;0.8507;
882.6000;0.1123;0.8555;
882.9000;0.1115;0.8555;
883.2000;0.1115;0.8602;
883.5000;0.1115;0.8602;
883.8000;0.1091;0.8436;
884.1000;0.1058;0.8365;
884.4000;0.1091;0.8413;
884.7000;0.1099;0.8247;
885.0000;0.1107;0.8247;
885.3000;0.1083;0.8223;
885.6000;0.1091;0.8247;
885.9000;0.1091;0.8176;
886.2000;0.1099;0.8057;
886.5000;0.1091;0.8081;
886.8000;0.1107;0.8105;
887.1000;0.1099;0.8081;
887.4000;0.1115;0.8152;
887.7000;0.1107;0.8152;
888.0000;0.1123;0.8247;
888.3000;0.1091;0.8318;
888.6000;0.1123;0.8365;
888.9000;0.1123;0.8365;
889.2000;0.1115;0.8389;
889.5000;0.1123;0.8413;
889.8000;0.1099;0.8342;
890.1000;0.1107;0.8365;
890.4000;0.1107;0.8389;
890.7000;0.1099;0.8413;
891.0000;0.1091;0.8460;
891.3000;0.1123;0.8555;
891.6000;0.1107;0.8413;
891.9000;0.1107;0.8342;
892.2000;0.1099;0.8365;
892.5000;0.1107;0.8460;
892.8000;0.1107;0.8531;
893.1000;0.1107;0.8579;
893.4000;0.1099;0.8602;
893.7000;0.1107;0.8579;
894.0000;0.1083;0.8555;
894.3000;0.1091;0.8579;
894.6000;0.1099;0.8579;
894.9000;0.1091;0.8531;
895.2000;0.1123;0.8484;
895.5000;0.1123;0.8436;
895.8000;0.1140;0.8460;
896.1000;0.1099;0.8365;
896.4000;0.1083;0.8294;
896.7000;0.1107;0.8365;
897.0000;0.1180;0.8579;
897.3000;0.1131;0.8507;
897.6000;0.1083;0.8436;
897.9000;0.1107;0.8460;
898.2000;0.1148;0.8484;
898.5000;0.1148;0.8484;
898.8000;0.1083;0.8389;
899.1000;0.1115;0.8507;
899.4000;0.1099;0.8413;
899.7000;0.1083;0.8460;
900.0000;0.1099;0.8365;
900.3000;0.1131;0.8413;
900.6000;0.1115;0.8460;
900.9000;0.1115;0.8555;
901.2000;0.1099;0.8507;
901.5000;0.1083;0.8389;
901.8000;0.1099;0.8460;
902.1000;0.1115;0.8460;
902.4000;0.1091;0.8484;
902.7000;0.1091;0.8460;
903.0000;0.1099;0.8555;
903.3000;0.1107;0.8531;
903.6000;0.1091;0.8507;
903.9000;0.1107;0.8507;
904.2000;0.1091;0.8531;
904.5000;0.1107;0.8602;
904.8000;0.1115;0.8626;
905.1000;0.1099;0.8531;
905.4000;0.1083;0.8484;
905.7000;0.1107;0.8484;
906.0000;0.1107;0.8531;
906.3000;0.1091;0.8318;
906.6000;0.1091;0.8318;
906.9000;0.1099;0.8389;
907.2000;0.1123;0.8365;
907.5000;0.1099;0.8365;
907.8000;0.1099;0.8365;
908.1000;0.1083;0.8294;
908.4000;0.1107;0.8436;
908.7000;0.1099;0.8413;
909.0000;0.1099;0.8389;
909.3000;0.1107;0.8389;
909.6000;0.1107;0.8365;
909.9000;0.1131;0.8413;
910.2000;0.1091;0.8247;
910.5000;0.1099;0.8270;
910.8000;0.1099;0.8270;
911.1000;0.1123;0.8270;
911.4000;0.1115;0.8270;
911.7000;0.1099;0.8247;
912.0000;0.1091;0.8270;
912.3000;0.1058;0.8270;
912.6000;0.1107;0.8436;
912.9000;0.1099;0.8507;
913.2000;0.1107;0.8602;
913.5000;0.1099;0.8626;
913.8000;0.1099;0.8579;
914.1000;0.1099;0.8602;
914.4000;0.1042;0.8460;
914.7000;0.1074;0.8531;
915.0000;0.1099;0.8602;
915.3000;0.1099;0.8650;
915.6000;0.1099;0.8673;
915.9000;0.1091;0.8650;
916.2000;0.1099;0.8602;
916.5000;0.1156;0.8697;
916.8000;0.1115;0.8531;
917.1000;0.1107;0.8507;
917.4000;0.1083;0.8413;
917.7000;0.1107;0.8484;
918.0000;0.1091;0.8436;
918.3000;0.1083;0.8507;
918.6000;0.1091;0.8436;
918.9000;0.1091;0.8460;
919.2000;0.1091;0.8436;
919.5000;0.1091;0.8413;
919.8000;0.1107;0.8436;
920.1000;0.1123;0.8413;
920.4000;0.1107;0.8365;
920.7000;0.1091;0.8318;
921.0000;0.1107;0.8342;
921.3000;0.1123;0.8531;
921.6000;0.1115;0.8507;
921.9000;0.1107;0.8507;
922.2000;0.1131;0.8555;
922.5000;0.1099;0.8531;
922.8000;0.1107;0.8531;
923.1000;0.1083;0.8460;
923.4000;0.1091;0.8413;
923.7000;0.1107;0.8460;
924.0000;0.1099;0.8413;
924.3000;0.1107;0.8460;
924.6000;0.1091;0.8342;
924.9000;0.1107;0.8436;
925.2000;0.1091;0.8389;
925.5000;0.1107;0.8342;
925.8000;0.1107;0.8389;
926.1000;0.1091;0.8436;
926.4000;0.1107;0.8507;
926.7000;0.1107;0.8484;
927.0000;0.1050;0.8413;
927.3000;0.1123;0.8507;
927.6000;0.1099;0.8436;
927.9000;0.1107;0.8579;
928.2000;0.1107;0.8650;
928.5000;0.1074;0.8602;
928.8000;0.1091;0.8602;
929.1000;0.1091;0.8579;
929.4000;0.1099;0.8555;
929.7000;0.1083;0.8579;
930.0000;0.1099;0.8602;
930.3000;0.1058;0.8460;
930.6000;0.1107;0.8626;
930.9000;0.1099;0.8555;
931.2000;0.1083;0.8531;
931.5000;0.1099;0.8602;
931.8000;0.1099;0.8673;
932.1000;0.1099;0.8673;
932.4000;0.1083;0.8579;
932.7000;0.1091;0.8602;
933.0000;0.1107;0.8697;
933.3000;0.1083;0.8673;
933.6000;0.1099;0.8697;
933.9000;0.1099;0.8697;
934.2000;0.1099;0.8697;
934.5000;0.1115;0.8650;
934.8000;0.1099;0.8673;
935.1000;0.1091;0.8626;
935.4000;0.1091;0.8579;
935.7000;0.1115;0.8650;
936.0000;0.1091;0.8697;
936.3000;0.1140;0.8697;
936.6000;0.1115;0.8697;
936.9000;0.1107;0.8744;
937.2000;0.1107;0.8721;
937.5000;0.1115;0.8697;
937.8000;0.1107;0.8697;
938.1000;0.1115;0.8673;
938.4000;0.1107;0.8626;
938.7000;0.1083;0.8579;
939.0000;0.1099;0.8484;
939.3000;0.1099;0.8460;
939.6000;0.1115;0.8460;
939.9000;0.1099;0.8484;
940.2000;0.1140;0.8579;
940.5000;0.1091;0.8507;
940.8000;0.1123;0.8602;
941.1000;0.1131;0.8673;
941.4000;0.1083;0.8673;
941.7000;0.1091;0.8650;
942.0000;0.1115;0.8697;
942.3000;0.1123;0.8697;
942.6000;0.1083;0.8531;
942.9000;0.1099;0.8555;
943.2000;0.1156;0.8744;
943.5000;0.1115;0.8626;
943.8000;0.1107;0.8673;
944.1000;0.1099;0.8626;
944.4000;0.1091;0.8602;
944.7000;0.1091;0.8555;
945.0000;0.1107;0.8531;
945.3000;0.1099;0.8484;
945.6000;0.1099;0.8507;
945.9000;0.1091;0.8531;
946.2000;0.1091;0.8555;
946.5000;0.1107;0.8626;
946.8000;0.1099;0.8555;
947.1000;0.1123;0.8650;
947.4000;0.1115;0.8650;
947.7000;0.1107;0.8602;
948.0000;0.1123;0.8531;
948.3000;0.1099;0.8484;
948.6000;0.1123;0.8436;
948.9000;0.1107;0.8484;
949.2000;0.1099;0.8460;
949.5000;0.1091;0.8460;
949.8000;0.1074;0.8365;
950.1000;0.1091;0.8413;
950.4000;0.1058;0.8294;
950.7000;0.1091;0.8436;
951.0000;0.1123;0.8507;
951.3000;0.1066;0.8413;
951.6000;0.1091;0.8413;
951.9000;0.1140;0.8507;
952.2000;0.1091;0.8436;
952.5000;0.1188;0.8744;
952.8000;0.1091;0.8460;
953.1000;0.1058;0.8318;
953.4000;0.1140;0.8531;
953.7000;0.1091;0.8555;
954.0000;0.1115;0.8697;
954.3000;0.1083;0.8650;
954.6000;0.1009;0.8365;
954.9000;0.1099;0.8579;
955.2000;0.1099;0.8484;
955.5000;0.1083;0.8413;
955.8000;0.1099;0.8484;
956.1000;0.1099;0.8460;
956.4000;0.1099;0.8460;
956.7000;0.1091;0.8460;
957.0000;0.1099;0.8436;
957.3000;0.1083;0.8436;
957.6000;0.1091;0.8507;
957.9000;0.1099;0.8555;
958.2000;0.1091;0.8484;
958.5000;0.1099;0.8484;
958.8000;0.1107;0.8507;
959.1000;0.1115;0.8555;
959.4000;0.1099;0.8460;
959.7000;0.1107;0.8436;
960.0000;0.1107;0.8484;
960.3000;0.1156;0.8555;
960.6000;0.1099;0.8389;
960.9000;0.1115;0.8342;
961.2000;0.1123;0.8436;
961.5000;0.1123;0.8460;
961.8000;0.1107;0.8460;
962.1000;0.1091;0.8436;
962.4000;0.1083;0.8365;
962.7000;0.1050;0.8318;
963.0000;0.1115;0.8413;
963.3000;0.1107;0.8389;
963.6000;0.1091;0.8436;
963.9000;0.1107;0.8460;
964.2000;0.1115;0.8484;
964.5000;0.1115;0.8484;
964.8000;0.1091;0.8413;
965.1000;0.1091;0.8365;
965.4000;0.1107;0.8413;
965.7000;0.1107;0.8460;
966.0000;0.1107;0.8484;
966.3000;0.1099;0.8507;
966.6000;0.1099;0.8460;
966.9000;0.1131;0.8555;
967.2000;0.1107;0.8531;
967.5000;0.1091;0.8413;
967.8000;0.1091;0.8555;
968.1000;0.1172;0.8744;
968.4000;0.1107;0.8484;
968.7000;0.1091;0.8531;
969.0000;0.1074;0.8460;
969.3000;0.1091;0.8531;
969.6000;0.1099;0.8579;
969.9000;0.1099;0.8602;
970.2000;0.1091;0.8555;
970.5000;0.1042;0.8342;
970.8000;0.1131;0.8555;
971.1000;0.1058;0.8389;
971.4000;0.1107;0.8460;
971.7000;0.1034;0.8270;
972.0000;0.1123;0.8413;
972.3000;0.1107;0.8460;
972.6000;0.1099;0.8484;
972.9000;0.1237;0.8839;
973.2000;0.1115;0.8579;
973.5000;0.1115;0.8507;
973.8000;0.1058;0.8365;
974.1000;0.1107;0.8460;
974.4000;0.1115;0.8460;
974.7000;0.1107;0.8460;
975.0000;0.1099;0.8413;
975.3000;0.1083;0.8318;
975.6000;0.1107;0.8342;
975.9000;0.1131;0.8436;
976.2000;0.1099;0.8436;
976.5000;0.1115;0.8389;
976.8000;0.1091;0.8294;
977.1000;0.1083;0.8294;
977.4000;0.1074;0.8365;
977.7000;0.1107;0.8484;
978.0000;0.1123;0.8650;
978.3000;0.1074;0.8602;
978.6000;0.1058;0.8579;
978.9000;0.1107;0.8650;
979.2000;0.1099;0.8579;
979.5000;0.1107;0.8673;
979.8000;0.1091;0.8602;
980.1000;0.1115;0.8673;
980.4000;0.1091;0.8673;
980.7000;0.1107;0.8721;
981.0000;0.1099;0.8650;
981.3000;0.1115;0.8626;
981.6000;0.1123;0.8579;
981.9000;0.1099;0.8436;
982.2000;0.1091;0.8507;
982.5000;0.1091;0.8460;
982.8000;0.1099;0.8460;
983.1000;0.1099;0.8484;
983.4000;0.1091;0.8460;
983.7000;0.1083;0.8531;
984.0000;0.1107;0.8626;
984.3000;0.1091;0.8507;
984.6000;0.1074;0.8579;
984.9000;0.1058;0.8602;
985.2000;0.1074;0.8579;
985.5000;0.1083;0.8579;
985.8000;0.1099;0.8555;
986.1000;0.1091;0.8602;
986.4000;0.1107;0.8744;
986.7000;0.1099;0.8697;
987.0000;0.1107;0.8673;
987.3000;0.1107;0.8650;
987.6000;0.1091;0.8555;
987.9000;0.1083;0.8579;
988.2000;0.1115;0.8650;
988.5000;0.1099;0.8602;
988.8000;0.1099;0.8579;
989.1000;0.1091;0.8531;
989.4000;0.1091;0.8484;
989.7000;0.1074;0.8531;
990.0000;0.1091;0.8555;
990.3000;0.1091;0.8484;
990.6000;0.1083;0.8507;
990.9000;0.1074;0.8436;
991.2000;0.1091;0.8507;
991.5000;0.1099;0.8626;
991.8000;0.1083;0.8579;
992.1000;0.1042;0.8507;
992.4000;0.1050;0.8555;
992.7000;0.1091;0.8673;
993.0000;0.1099;0.8697;
993.3000;0.1058;0.8507;
993.6000;0.1074;0.8484;
993.9000;0.1123;0.8507;
994.2000;0.1180;0.8650;
994.5000;0.1091;0.8436;
994.8000;0.1115;0.8460;
995.1000;0.1107;0.8484;
995.4000;0.1107;0.8484;
995.7000;0.1107;0.8460;
996.0000;0.1172;0.8650;
996.3000;0.1131;0.8531;
996.6000;0.1107;0.8507;
996.9000;0.1091;0.8413;
997.2000;0.1083;0.8413;
997.5000;0.1091;0.8460;
997.8000;0.1066;0.8342;
998.1000;0.1107;0.8436;
998.4000;0.1074;0.8389;
998.7000;0.1099;0.8413;
999.0000;0.1099;0.8436;
999.3000;0.1107;0.8436;
999.6000;0.1091;0.8507;
999.9000;0.1083;0.8507;
1000.2000;0.1099;0.8507;
1000.5000;0.1091;0.8531;
1000.8000;0.1091;0.8484;
1001.1000;0.1042;0.8436;
1001.4000;0.1083;0.8579;
1001.7000;0.1091;0.8626;
1002.0000;0.1107;0.8602;
1002.3000;0.1091;0.8579;
1002.6000;0.1083;0.8579;
1002.9000;0.1091;0.8602;
1003.2000;0.1131;0.8697;
1003.5000;0.1074;0.8507;
1003.8000;0.1091;0.8484;
1004.1000;0.1099;0.8531;
1004.4000;0.1091;0.8460;
1004.7000;0.1107;0.8555;
1005.0000;0.1099;0.8555;
1005.3000;0.1099;0.8602;
1005.6000;0.1115;0.8602;
1005.9000;0.1099;0.8579;
1006.2000;0.1074;0.8436;
1006.5000;0.1099;0.8484;
1006.8000;0.1107;0.8579;
1007.1000;0.1107;0.8697;
1007.4000;0.1083;0.8768;
1007.7000;0.1091;0.8697;
1008.0000;0.1083;0.8602;
1008.3000;0.1099;0.8744;
1008.6000;0.1099;0.8792;
1008.9000;0.1091;0.8768;
1009.2000;0.1091;0.8744;
1009.5000;0.1107;0.8792;
1009.8000;0.1107;0.8815;
1010.1000;0.1091;0.8815;
1010.4000;0.1099;0.8792;
1010.7000;0.1091;0.8768;
1011.0000;0.1099;0.8934;
1011.3000;0.1091;0.8887;
1011.6000;0.1099;0.8744;
1011.9000;0.1091;0.8673;
1012.2000;0.1099;0.8744;
1012.5000;0.1099;0.8887;
1012.8000;0.1099;0.8887;
1013.1000;0.1123;0.8958;
1013.4000;0.1115;0.8958;
1013.7000;0.1107;0.8863;
1014.0000;0.1099;0.8768;
1014.3000;0.1099;0.8721;
1014.6000;0.1115;0.8650;
1014.9000;0.1099;0.8602;
1015.2000;0.1107;0.8579;
1015.5000;0.1091;0.8484;
1015.8000;0.1074;0.8555;
1016.1000;0.1107;0.8673;
1016.4000;0.1172;0.8792;
1016.7000;0.1091;0.8602;
1017.0000;0.1123;0.8721;
1017.3000;0.1099;0.8768;
1017.6000;0.1107;0.8815;
1017.9000;0.1123;0.8792;
1018.2000;0.1091;0.8650;
1018.5000;0.1083;0.8602;
1018.8000;0.1083;0.8650;
1019.1000;0.1083;0.8697;
1019.4000;0.1099;0.8744;
1019.7000;0.1091;0.8721;
1020.0000;0.1115;0.8697;
1020.3000;0.1107;0.8626;
1020.6000;0.1099;0.8626;
1020.9000;0.1074;0.8531;
1021.2000;0.1099;0.8579;
1021.5000;0.1107;0.8602;
1021.8000;0.1050;0.8507;
1022.1000;0.1099;0.8602;
1022.4000;0.1091;0.8650;
1022.7000;0.1099;0.8650;
1023.0000;0.1091;0.8626;
1023.3000;0.1074;0.8650;
1023.6000;0.1099;0.8650;
1023.9000;0.1091;0.8602;
1024.2000;0.1099;0.8673;
1024.5000;0.1083;0.8460;
1024.8000;0.1115;0.8650;
1025.1000;0.1099;0.8673;
1025.4000;0.1083;0.8673;
1025.7000;0.1091;0.8721;
1026.0000;0.1099;0.8721;
1026.3000;0.1115;0.8768;
1026.6000;0.1107;0.8768;
1026.9000;0.1091;0.8697;
1027.2000;0.1131;0.8863;
1027.5000;0.1091;0.8744;
1027.8000;0.1115;0.8768;
1028.1000;0.1083;0.8768;
1028.4000;0.1066;0.8697;
1028.7000;0.1083;0.8697;
1029.0000;0.1099;0.8815;
1029.3000;0.1083;0.8792;
1029.6000;0.1091;0.8744;
1029.9000;0.1107;0.8768;
1030.2000;0.1099;0.8792;
1030.5000;0.1091;0.8744;
1030.8000;0.1099;0.8744;
1031.1000;0.1107;0.8768;
1031.4000;0.1099;0.8839;
1031.7000;0.1074;0.8768;
1032.0000;0.1091;0.8768;
1032.3000;0.1034;0.8602;
1032.6000;0.1083;0.8697;
1032.9000;0.1107;0.8792;
1033.2000;0.1180;0.8910;
1033.5000;0.1099;0.8673;
1033.8000;0.1099;0.8697;
1034.1000;0.1099;0.8721;
1034.4000;0.1099;0.8744;
1034.7000;0.1091;0.8815;
1035.0000;0.1091;0.8792;
1035.3000;0.1115;0.8839;
1035.6000;0.1107;0.8768;
1035.9000;0.1091;0.8697;
1036.2000;0.1091;0.8650;
1036.5000;0.1099;0.8673;
1036.8000;0.1091;0.8721;
1037.1000;0.1099;0.8792;
1037.4000;0.1083;0.8721;
1037.7000;0.1099;0.8650;
1038.0000;0.1050;0.8507;
1038.3000;0.1091;0.8650;
1038.6000;0.1091;0.8697;
1038.9000;0.1042;0.8555;
1039.2000;0.1099;0.8744;
1039.5000;0.1091;0.8815;
1039.8000;0.1083;0.8650;
1040.1000;0.1083;0.8579;
1040.4000;0.1091;0.8507;
1040.7000;0.1107;0.8579;
1041.0000;0.1131;0.8744;
1041.3000;0.1107;0.8602;
1041.6000;0.1091;0.8460;
1041.9000;0.1083;0.8436;
1042.2000;0.1148;0.8579;
1042.5000;0.1083;0.8484;
1042.8000;0.1034;0.8365;
1043.1000;0.1107;0.8531;
1043.4000;0.1091;0.8484;
1043.7000;0.1091;0.8460;
1044.0000;0.1099;0.8460;
1044.3000;0.1091;0.8413;
1044.6000;0.1091;0.8413;
1044.9000;0.1091;0.8460;
1045.2000;0.1083;0.8389;
1045.5000;0.1091;0.8389;
1045.8000;0.0985;0.8199;
1046.1000;0.1091;0.8555;
1046.4000;0.1083;0.8507;
1046.7000;0.1074;0.8389;
1047.0000;0.1099;0.8318;
1047.3000;0.1115;0.8294;
1047.6000;0.1099;0.8247;
1047.9000;0.1099;0.8294;
1048.2000;0.1140;0.8436;
1048.5000;0.1091;0.8413;
1048.8000;0.1091;0.8460;
1049.1000;0.1099;0.8413;
1049.4000;0.1115;0.8413;
1049.7000;0.1107;0.8484;
1050.0000;0.1099;0.8531;
1050.3000;0.1107;0.8579;
1050.6000;0.1099;0.8650;
1050.9000;0.1091;0.8697;
1051.2000;0.1042;0.8531;
1051.5000;0.1107;0.8650;
1051.8000;0.1066;0.8673;
1052.1000;0.1099;0.8744;
1052.4000;0.1107;0.8768;
1052.7000;0.1099;0.8721;
1053.0000;0.1091;0.8650;
1053.3000;0.1131;0.8697;
1053.6000;0.1115;0.8626;
1053.9000;0.1099;0.8626;
1054.2000;0.1148;0.8697;
1054.5000;0.1107;0.8602;
1054.8000;0.1115;0.8626;
1055.1000;0.1099;0.8555;
1055.4000;0.1107;0.8555;
1055.7000;0.1091;0.8579;
1056.0000;0.1099;0.8484;
1056.3000;0.1099;0.8436;
1056.6000;0.1083;0.8460;
1056.9000;0.1091;0.8579;
1057.2000;0.1099;0.8673;
1057.5000;0.1123;0.8626;
1057.8000;0.1099;0.8602;
1058.1000;0.1099;0.8650;
1058.4000;0.1091;0.8602;
1058.7000;0.1099;0.8626;
1059.0000;0.1115;0.8721;
1059.3000;0.1050;0.8555;
1059.6000;0.1091;0.8650;
1059.9000;0.1091;0.8721;
1060.2000;0.1123;0.8792;
1060.5000;0.1131;0.8863;
1060.8000;0.1083;0.8768;
1061.1000;0.1091;0.8839;
1061.4000;0.1083;0.8815;
1061.7000;0.1083;0.8768;
1062.0000;0.1123;0.8815;
1062.3000;0.1091;0.8673;
1062.6000;0.1099;0.8626;
1062.9000;0.1099;0.8697;
1063.2000;0.1083;0.8650;
1063.5000;0.1083;0.8626;
1063.8000;0.1115;0.8673;
1064.1000;0.1107;0.8602;
1064.4000;0.1091;0.8602;
1064.7000;0.1099;0.8626;
1065.0000;0.1074;0.8531;
1065.3000;0.1115;0.8602;
1065.6000;0.1099;0.8602;
1065.9000;0.1066;0.8650;
1066.2000;0.1091;0.8768;
1066.5000;0.1107;0.8768;
1066.8000;0.1123;0.8839;
1067.1000;0.1042;0.8626;
1067.4000;0.1140;0.8839;
1067.7000;0.1091;0.8697;
1068.0000;0.1131;0.8650;
1068.3000;0.1107;0.8555;
1068.6000;0.1107;0.8579;
1068.9000;0.1115;0.8626;
1069.2000;0.1156;0.8768;
1069.5000;0.1099;0.8626;
1069.8000;0.1091;0.8579;
1070.1000;0.1050;0.8531;
1070.4000;0.1091;0.8650;
1070.7000;0.1123;0.8697;
1071.0000;0.1074;0.8650;
1071.3000;0.1123;0.8673;
1071.6000;0.1099;0.8555;
1071.9000;0.1091;0.8555;
1072.2000;0.1066;0.8436;
1072.5000;0.1074;0.8436;
1072.8000;0.1099;0.8555;
1073.1000;0.1107;0.8602;
1073.4000;0.1099;0.8484;
1073.7000;0.1050;0.8436;
1074.0000;0.1091;0.8507;
1074.3000;0.1091;0.8531;
1074.6000;0.1107;0.8579;
1074.9000;0.1083;0.8602;
1075.2000;0.1083;0.8531;
1075.5000;0.1091;0.8507;
1075.8000;0.1115;0.8555;
1076.1000;0.1107;0.8555;
1076.4000;0.1074;0.8531;
1076.7000;0.1099;0.8579;
1077.0000;0.1091;0.8626;
1077.3000;0.1115;0.8721;
1077.6000;0.1091;0.8721;
1077.9000;0.1099;0.8768;
1078.2000;0.1091;0.8792;
1078.5000;0.1018;0.8579;
1078.8000;0.1091;0.8815;
1079.1000;0.1099;0.8768;
1079.4000;0.1091;0.8863;
1079.7000;0.1091;0.8792;
1080.0000;0.1115;0.8839;
1080.3000;0.1099;0.8792;
1080.6000;0.1140;0.8815;
1080.9000;0.1107;0.8697;
1081.2000;0.1107;0.8650;
1081.5000;0.1115;0.8697;
1081.8000;0.1099;0.8673;
1082.1000;0.1099;0.8579;
1082.4000;0.1091;0.8579;
1082.7000;0.1083;0.8555;
1083.0000;0.1091;0.8555;
1083.3000;0.1091;0.8602;
1083.6000;0.1091;0.8602;
1083.9000;0.1107;0.8626;
1084.2000;0.1066;0.8507;
1084.5000;0.1058;0.8484;
1084.8000;0.1107;0.8555;
1085.1000;0.1123;0.8602;
1085.4000;0.1099;0.8436;
1085.7000;0.1091;0.8413;
1086.0000;0.1099;0.8460;
1086.3000;0.1123;0.8484;
1086.6000;0.1074;0.8318;
1086.9000;0.1099;0.8342;
1087.2000;0.1115;0.8413;
1087.5000;0.1074;0.8318;
1087.8000;0.1083;0.8294;
1088.1000;0.1042;0.8247;
1088.4000;0.1074;0.8342;
1088.7000;0.1099;0.8460;
1089.0000;0.1099;0.8507;
1089.3000;0.1131;0.8626;
1089.6000;0.1107;0.8602;
1089.9000;0.1115;0.8555;
1090.2000;0.1107;0.8460;
1090.5000;0.1099;0.8436;
1090.8000;0.1099;0.8531;
1091.1000;0.1123;0.8507;
1091.4000;0.1180;0.8650;
1091.7000;0.1091;0.8507;
1092.0000;0.1066;0.8579;
1092.3000;0.1099;0.8626;
1092.6000;0.1099;0.8484;
1092.9000;0.1164;0.8626;
1093.2000;0.1107;0.8389;
1093.5000;0.1099;0.8365;
1093.8000;0.1058;0.8270;
1094.1000;0.1091;0.8389;
1094.4000;0.1083;0.8484;
1094.7000;0.1091;0.8531;
1095.0000;0.1099;0.8602;
1095.3000;0.1091;0.8602;
1095.6000;0.1091;0.8602;
1095.9000;0.1083;0.8602;
1096.2000;0.1099;0.8531;
1096.5000;0.1099;0.8579;
1096.8000;0.1099;0.8579;
1097.1000;0.1099;0.8507;
1097.4000;0.1123;0.8555;
1097.7000;0.1115;0.8579;
1098.0000;0.1107;0.8507;
1098.3000;0.1099;0.8484;
1098.6000;0.1099;0.8579;
1098.9000;0.1107;0.8555;
1099.2000;0.1099;0.8555;
1099.5000;0.1107;0.8484;
1099.8000;0.1107;0.8507;
1100.1000;0.1099;0.8507;
1100.4000;0.1074;0.8484;
1100.7000;0.1083;0.8555;
1101.0000;0.1083;0.8531;
1101.3000;0.1091;0.8579;
1101.6000;0.1148;0.8768;
1101.9000;0.1099;0.8507;
1102.2000;0.1026;0.8270;
1102.5000;0.1083;0.8413;
1102.8000;0.1091;0.8389;
1103.1000;0.1099;0.8342;
1103.4000;0.1099;0.8270;
1103.7000;0.1083;0.8294;
1104.0000;0.1099;0.8365;
1104.3000;0.1107;0.8270;
1104.6000;0.1074;0.8318;
1104.9000;0.1074;0.8294;
1105.2000;0.1091;0.8389;
1105.5000;0.1083;0.8413;
1105.8000;0.1107;0.8413;
1106.1000;0.1074;0.8436;
1106.4000;0.1074;0.8436;
1106.7000;0.1091;0.8507;
1107.0000;0.1091;0.8579;
1107.3000;0.1099;0.8579;
1107.6000;0.1099;0.8555;
1107.9000;0.1066;0.8602;
1108.2000;0.1107;0.8626;
1108.5000;0.1107;0.8626;
1108.8000;0.1074;0.8531;
1109.1000;0.1091;0.8531;
1109.4000;0.1091;0.8507;
1109.7000;0.1115;0.8507;
1110.0000;0.1115;0.8531;
1110.3000;0.1107;0.8460;
1110.6000;0.1099;0.8531;
1110.9000;0.1107;0.8579;
1111.2000;0.1034;0.8436;
1111.5000;0.1058;0.8507;
1111.8000;0.1099;0.8579;
1112.1000;0.1099;0.8579;
1112.4000;0.1123;0.8579;
1112.7000;0.1091;0.8507;
1113.0000;0.1099;0.8555;
1113.3000;0.1091;0.8579;
1113.6000;0.1099;0.8579;
1113.9000;0.1115;0.8555;
1114.2000;0.1107;0.8579;
1114.5000;0.1091;0.8460;
1114.8000;0.1091;0.8507;
1115.1000;0.1091;0.8436;
1115.4000;0.1083;0.8413;
1115.7000;0.1091;0.8436;
1116.0000;0.1050;0.8365;
1116.3000;0.1074;0.8436;
1116.6000;0.1091;0.8413;
1116.9000;0.1083;0.8460;
1117.2000;0.1131;0.8626;
1117.5000;0.1083;0.8579;
1117.8000;0.1074;0.8626;
1118.1000;0.1091;0.8721;
1118.4000;0.1091;0.8650;
1118.7000;0.1148;0.8863;
1119.0000;0.1091;0.8650;
1119.3000;0.1091;0.8650;
1119.6000;0.1091;0.8650;
1119.9000;0.1083;0.8626;
1120.2000;0.1083;0.8555;
1120.5000;0.1107;0.8650;
1120.8000;0.1099;0.8650;
1121.1000;0.1115;0.8626;
1121.4000;0.1107;0.8650;
1121.7000;0.1099;0.8555;
1122.0000;0.1107;0.8484;
1122.3000;0.1099;0.8460;
1122.6000;0.1107;0.8460;
1122.9000;0.1099;0.8555;
1123.2000;0.1099;0.8602;
1123.5000;0.1099;0.8626;
1123.8000;0.1091;0.8650;
1124.1000;0.1091;0.8721;
1124.4000;0.1083;0.8673;
1124.7000;0.1066;0.8555;
1125.0000;0.1091;0.8579;
1125.3000;0.1099;0.8555;
1125.6000;0.1140;0.8650;
1125.9000;0.1074;0.8507;
1126.2000;0.1074;0.8507;
1126.5000;0.1115;0.8673;
1126.8000;0.1091;0.8555;
1127.1000;0.1074;0.8531;
1127.4000;0.1091;0.8555;
1127.7000;0.1099;0.8507;
1128.0000;0.1107;0.8460;
1128.3000;0.1099;0.8436;
1128.6000;0.1074;0.8460;
1128.9000;0.1074;0.8602;
1129.2000;0.1058;0.8531;
1129.5000;0.1107;0.8697;
1129.8000;0.1091;0.8602;
1130.1000;0.1091;0.8626;
1130.4000;0.1091;0.8507;
1130.7000;0.1083;0.8484;
1131.0000;0.1083;0.8484;
1131.3000;0.1099;0.8507;
1131.6000;0.1115;0.8531;
1131.9000;0.1091;0.8579;
1132.2000;0.1091;0.8602;
1132.5000;0.1083;0.8579;
1132.8000;0.1091;0.8579;
1133.1000;0.1099;0.8650;
1133.4000;0.1091;0.8579;
1133.7000;0.1099;0.8555;
1134.0000;0.1091;0.8507;
1134.3000;0.1099;0.8484;
1134.6000;0.1172;0.8626;
1134.9000;0.1099;0.8555;
1135.2000;0.1099;0.8697;
1135.5000;0.1107;0.8721;
1135.8000;0.1099;0.8697;
1136.1000;0.1091;0.8626;
1136.4000;0.1091;0.8673;
1136.7000;0.1099;0.8650;
1137.0000;0.1091;0.8650;
1137.3000;0.1083;0.8650;
1137.6000;0.1107;0.8697;
1137.9000;0.1099;0.8626;
1138.2000;0.1107;0.8626;
1138.5000;0.1083;0.8602;
1138.8000;0.1107;0.8555;
1139.1000;0.1083;0.8650;
1139.4000;0.1091;0.8650;
1139.7000;0.1083;0.8602;
1140.0000;0.1074;0.8650;
1140.3000;0.1140;0.8792;
1140.6000;0.1074;0.8697;
1140.9000;0.1083;0.8697;
1141.2000;0.1034;0.8507;
1141.5000;0.1074;0.8555;
1141.8000;0.1074;0.8626;
1142.1000;0.1074;0.8602;
1142.4000;0.1091;0.8626;
1142.7000;0.1099;0.8531;
1143.0000;0.1091;0.8484;
1143.3000;0.1042;0.8365;
1143.6000;0.1099;0.8484;
1143.9000;0.1099;0.8507;
1144.2000;0.1099;0.8484;
1144.5000;0.1091;0.8436;
1144.8000;0.1099;0.8531;
1145.1000;0.1099;0.8579;
1145.4000;0.1091;0.8626;
1145.7000;0.1099;0.8626;
1146.0000;0.1107;0.8673;
1146.3000;0.1099;0.8626;
1146.6000;0.1091;0.8555;
1146.9000;0.1115;0.8602;
1147.2000;0.1115;0.8602;
1147.5000;0.1123;0.8602;
1147.8000;0.1091;0.8531;
1148.1000;0.1107;0.8531;
1148.4000;0.1083;0.8484;
1148.7000;0.1091;0.8602;
1149.0000;0.1099;0.8673;
1149.3000;0.1164;0.8792;
1149.6000;0.1131;0.8721;
1149.9000;0.1091;0.8673;
1150.2000;0.1050;0.8555;
1150.5000;0.1083;0.8602;
1150.8000;0.1091;0.8602;
1151.1000;0.1083;0.8626;
1151.4000;0.1058;0.8555;
1151.7000;0.1083;0.8579;
1152.0000;0.1107;0.8602;
1152.3000;0.1074;0.8460;
1152.6000;0.1099;0.8507;
1152.9000;0.1083;0.8484;
1153.2000;0.1099;0.8484;
1153.5000;0.1115;0.8579;
1153.8000;0.1107;0.8650;
1154.1000;0.1091;0.8650;
1154.4000;0.1107;0.8626;
1154.7000;0.1099;0.8673;
1155.0000;0.1099;0.8650;
1155.3000;0.1083;0.8555;
1155.6000;0.1066;0.8507;
1155.9000;0.1091;0.8460;
1156.2000;0.1148;0.8531;
1156.5000;0.1091;0.8436;
1156.8000;0.1091;0.8507;
1157.1000;0.1099;0.8531;
1157.4000;0.1099;0.8531;
1157.7000;0.1107;0.8507;
1158.0000;0.1091;0.8531;
1158.3000;0.1107;0.8555;
1158.6000;0.1107;0.8555;
1158.9000;0.1107;0.8579;
1159.2000;0.1099;0.8626;
1159.5000;0.1099;0.8673;
1159.8000;0.1091;0.8673;
1160.1000;0.1083;0.8650;
1160.4000;0.1107;0.8721;
1160.7000;0.1091;0.8650;
1161.0000;0.1091;0.8626;
1161.3000;0.1099;0.8673;
1161.6000;0.1091;0.8697;
1161.9000;0.1083;0.8650;
1162.2000;0.1083;0.8626;
1162.5000;0.1091;0.8721;
1162.8000;0.1107;0.8721;
1163.1000;0.1099;0.8721;
1163.4000;0.1091;0.8673;
1163.7000;0.1099;0.8721;
1164.0000;0.1115;0.8863;
1164.3000;0.1107;0.8863;
1164.6000;0.1083;0.8815;
1164.9000;0.1099;0.8744;
1165.2000;0.1099;0.8815;
1165.5000;0.1083;0.8815;
1165.8000;0.1083;0.8721;
1166.1000;0.1066;0.8626;
1166.4000;0.1099;0.8721;
1166.7000;0.1099;0.8697;
1167.0000;0.1091;0.8650;
1167.3000;0.1099;0.8673;
1167.6000;0.1099;0.8721;
1167.9000;0.1107;0.8792;
1168.2000;0.1099;0.8839;
1168.5000;0.1083;0.8768;
1168.8000;0.1083;0.8697;
1169.1000;0.1099;0.8768;
1169.4000;0.1099;0.8792;
1169.7000;0.1091;0.8792;
1170.0000;0.1091;0.8744;
1170.3000;0.1115;0.8697;
1170.6000;0.1083;0.8626;
1170.9000;0.1099;0.8650;
1171.2000;0.1099;0.8673;
1171.5000;0.1099;0.8650;
1171.8000;0.1083;0.8626;
1172.1000;0.1107;0.8650;
1172.4000;0.1091;0.8602;
1172.7000;0.1099;0.8602;
1173.0000;0.1083;0.8555;
1173.3000;0.1083;0.8579;
1173.6000;0.1042;0.8436;
1173.9000;0.1091;0.8579;
1174.2000;0.1107;0.8673;
1174.5000;0.1066;0.8579;
1174.8000;0.1083;0.8650;
1175.1000;0.1074;0.8626;
1175.4000;0.1123;0.8721;
1175.7000;0.1074;0.8626;
1176.0000;0.1083;0.8650;
1176.3000;0.1074;0.8673;
1176.6000;0.1074;0.8650;
1176.9000;0.1074;0.8673;
1177.2000;0.1083;0.8697;
1177.5000;0.1066;0.8626;
1177.8000;0.1083;0.8650;
1178.1000;0.1091;0.8744;
1178.4000;0.1074;0.8697;
1178.7000;0.1074;0.8626;
1179.0000;0.1074;0.8579;
1179.3000;0.1091;0.8768;
1179.6000;0.1091;0.8768;
1179.9000;0.1099;0.8768;
1180.2000;0.1066;0.8744;
1180.5000;0.1050;0.8650;
1180.8000;0.1091;0.8602;
1181.1000;0.1107;0.8602;
1181.4000;0.1099;0.8507;
1181.7000;0.1091;0.8389;
1182.0000;0.1115;0.8389;
1182.3000;0.1107;0.8342;
1182.6000;0.1091;0.8318;
1182.9000;0.1131;0.8318;
1183.2000;0.1091;0.8223;
1183.5000;0.1050;0.8033;
1183.8000;0.1083;0.8223;
1184.1000;0.1091;0.8270;
1184.4000;0.1083;0.8342;
1184.7000;0.1099;0.8365;
1185.0000;0.1091;0.8342;
1185.3000;0.1083;0.8342;
1185.6000;0.1066;0.8294;
1185.9000;0.1066;0.8342;
1186.2000;0.1091;0.8413;
1186.5000;0.1115;0.8484;
1186.8000;0.1091;0.8507;
1187.1000;0.1099;0.8531;
1187.4000;0.1107;0.8555;
1187.7000;0.1074;0.8531;
1188.0000;0.1099;0.8531;
1188.3000;0.1099;0.8531;
1188.6000;0.1107;0.8602;
1188.9000;0.1099;0.8650;
1189.2000;0.1066;0.8507;
1189.5000;0.1099;0.8507;
1189.8000;0.1107;0.8531;
1190.1000;0.1091;0.8413;
1190.4000;0.1091;0.8365;
1190.7000;0.1091;0.8270;
1191.0000;0.1099;0.8247;
1191.3000;0.1083;0.8247;
1191.6000;0.1083;0.8270;
1191.9000;0.1091;0.8270;
1192.2000;0.1107;0.8223;
1192.5000;0.1123;0.8247;
1192.8000;0.1099;0.8247;
1193.1000;0.1099;0.8342;
1193.4000;0.1091;0.8342;
1193.7000;0.1099;0.8318;
1194.0000;0.1107;0.8342;
1194.3000;0.1091;0.8318;
1194.6000;0.1099;0.8294;
1194.9000;0.1083;0.8223;
1195.2000;0.1099;0.8223;
1195.5000;0.1083;0.8128;
1195.8000;0.1099;0.8270;
1196.1000;0.1091;0.8294;
1196.4000;0.1107;0.8365;
1196.7000;0.1074;0.8342;
1197.0000;0.1074;0.8365;
1197.3000;0.1091;0.8389;
1197.6000;0.1107;0.8413;
1197.9000;0.1099;0.8460;
1198.2000;0.1083;0.8436;
1198.5000;0.1107;0.8365;
1198.8000;0.1091;0.8318;
1199.1000;0.1131;0.8389;
1199.4000;0.1140;0.8389;
1199.7000;0.1091;0.8318;
1200.0000;0.1099;0.8318;
1200.3000;0.1091;0.8294;
1200.6000;0.1083;0.8247;
1200.9000;0.1001;0.8033;
1201.2000;0.1099;0.8342;
1201.5000;0.1083;0.8342;
1201.8000;0.1074;0.8365;
1202.1000;0.1066;0.8342;
1202.4000;0.1058;0.8342;
1202.7000;0.1107;0.8436;
1203.0000;0.1091;0.8413;
1203.3000;0.1074;0.8365;
1203.6000;0.1091;0.8460;
1203.9000;0.1091;0.8507;
1204.2000;0.1091;0.8484;
1204.5000;0.1058;0.8365;
1204.8000;0.1099;0.8365;
1205.1000;0.1083;0.8436;
1205.4000;0.1099;0.8555;
1205.7000;0.1091;0.8626;
1206.0000;0.1074;0.8555;
1206.3000;0.1131;0.8650;
1206.6000;0.1107;0.8484;
1206.9000;0.1099;0.8436;
1207.2000;0.1026;0.8247;
1207.5000;0.1083;0.8436;
1207.8000;0.1099;0.8389;
1208.1000;0.1107;0.8342;
1208.4000;0.1099;0.8247;
1208.7000;0.1099;0.8318;
1209.0000;0.1115;0.8365;
1209.3000;0.1115;0.8342;
1209.6000;0.1091;0.8365;
1209.9000;0.1083;0.8294;
1210.2000;0.1107;0.8389;
1210.5000;0.1099;0.8365;
1210.8000;0.1083;0.8365;
1211.1000;0.1115;0.8460;
1211.4000;0.1091;0.8389;
1211.7000;0.1091;0.8389;
1212.0000;0.1083;0.8389;
1212.3000;0.1091;0.8460;
1212.6000;0.1099;0.8436;
1212.9000;0.1091;0.8484;
1213.2000;0.1099;0.8579;
1213.5000;0.1115;0.8555;
1213.8000;0.1099;0.8507;
1214.1000;0.1091;0.8484;
1214.4000;0.1099;0.8602;
1214.7000;0.1091;0.8507;
1215.0000;0.1115;0.8507;
1215.3000;0.1091;0.8484;
1215.6000;0.1091;0.8531;
1215.9000;0.1091;0.8531;
1216.2000;0.1091;0.8531;
1216.5000;0.1074;0.8460;
1216.8000;0.1058;0.8436;
1217.1000;0.1083;0.8484;
1217.4000;0.1091;0.8507;
1217.7000;0.1083;0.8484;
1218.0000;0.1099;0.8460;
1218.3000;0.1083;0.8413;
1218.6000;0.1091;0.8389;
1218.9000;0.1091;0.8294;
1219.2000;0.1074;0.8342;
1219.5000;0.1107;0.8342;
1219.8000;0.1091;0.8342;
1220.1000;0.1083;0.8270;
1220.4000;0.0985;0.8033;
1220.7000;0.1083;0.8318;
1221.0000;0.1123;0.8484;
1221.3000;0.1034;0.8318;
1221.6000;0.1148;0.8555;
1221.9000;0.1026;0.8342;
1222.2000;0.1131;0.8531;
1222.5000;0.1107;0.8484;
1222.8000;0.1083;0.8436;
1223.1000;0.1091;0.8507;
1223.4000;0.1107;0.8460;
1223.7000;0.1066;0.8318;
1224.0000;0.1091;0.8389;
1224.3000;0.1091;0.8365;
1224.6000;0.1107;0.8365;
1224.9000;0.1091;0.8342;
1225.2000;0.1099;0.8176;
1225.5000;0.1074;0.8199;
1225.8000;0.1091;0.8294;
1226.1000;0.1050;0.8199;
1226.4000;0.1140;0.8460;
1226.7000;0.1083;0.8365;
1227.0000;0.1107;0.8436;
1227.3000;0.1107;0.8507;
1227.6000;0.1123;0.8531;
1227.9000;0.1083;0.8460;
1228.2000;0.1107;0.8507;
1228.5000;0.1099;0.8484;
1228.8000;0.1091;0.8389;
1229.1000;0.1099;0.8342;
1229.4000;0.1083;0.8223;
1229.7000;0.1099;0.8318;
1230.0000;0.1091;0.8294;
1230.3000;0.1074;0.8270;
1230.6000;0.1083;0.8365;
1230.9000;0.1083;0.8270;
1231.2000;0.1083;0.8318;
1231.5000;0.1099;0.8413;
1231.8000;0.1099;0.8436;
1232.1000;0.1099;0.8460;
1232.4000;0.1091;0.8436;
1232.7000;0.1107;0.8484;
1233.0000;0.1099;0.8389;
1233.3000;0.1091;0.8294;
1233.6000;0.1083;0.8413;
1233.9000;0.1083;0.8389;
1234.2000;0.1099;0.8365;
1234.5000;0.1074;0.8413;
1234.8000;0.1091;0.8507;
1235.1000;0.1123;0.8579;
1235.4000;0.1083;0.8460;
1235.7000;0.1099;0.8365;
1236.0000;0.1091;0.8318;
1236.3000;0.1091;0.8294;
1236.6000;0.1148;0.8436;
1236.9000;0.1083;0.8318;
1237.2000;0.1164;0.8579;
1237.5000;0.1123;0.8436;
1237.8000;0.1099;0.8318;
1238.1000;0.1099;0.8436;
1238.4000;0.1066;0.8413;
1238.7000;0.1083;0.8436;
1239.0000;0.1091;0.8436;
1239.3000;0.1107;0.8413;
1239.6000;0.1099;0.8342;
1239.9000;0.1107;0.8318;
1240.2000;0.1083;0.8318;
1240.5000;0.1107;0.8389;
1240.8000;0.1083;0.8294;
1241.1000;0.1074;0.8318;
1241.4000;0.1091;0.8365;
1241.7000;0.1074;0.8365;
1242.0000;0.1099;0.8318;
1242.3000;0.1131;0.8365;
1242.6000;0.1083;0.8365;
1242.9000;0.1099;0.8436;
1243.2000;0.1091;0.8436;
1243.5000;0.1083;0.8484;
1243.8000;0.1050;0.8413;
1244.1000;0.1083;0.8436;
1244.4000;0.1050;0.8294;
1244.7000;0.1042;0.8152;
1245.0000;0.1066;0.8199;
1245.3000;0.1091;0.8294;
1245.6000;0.1042;0.8176;
1245.9000;0.1074;0.8223;
1246.2000;0.1091;0.8270;
1246.5000;0.1099;0.8270;
1246.8000;0.1099;0.8223;
1247.1000;0.1107;0.8247;
1247.4000;0.1074;0.8199;
1247.7000;0.1099;0.8270;
1248.0000;0.1099;0.8318;
1248.3000;0.1115;0.8413;
1248.6000;0.1091;0.8365;
1248.9000;0.1083;0.8342;
1249.2000;0.1099;0.8342;
1249.5000;0.1091;0.8365;
1249.8000;0.1091;0.8318;
1250.1000;0.1107;0.8342;
1250.4000;0.1091;0.8342;
1250.7000;0.1107;0.8365;
1251.0000;0.1074;0.8247;
1251.3000;0.1099;0.8270;
1251.6000;0.1099;0.8342;
1251.9000;0.1091;0.8342;
1252.2000;0.1107;0.8223;
1252.5000;0.1083;0.8199;
1252.8000;0.1107;0.8247;
1253.1000;0.1107;0.8294;
1253.4000;0.1099;0.8365;
1253.7000;0.1099;0.8436;
1254.0000;0.1099;0.8436;
1254.3000;0.1074;0.8365;
1254.6000;0.1148;0.8579;
1254.9000;0.1099;0.8436;
1255.2000;0.1091;0.8365;
1255.5000;0.1115;0.8270;
1255.8000;0.1083;0.8318;
1256.1000;0.1091;0.8342;
1256.4000;0.1083;0.8294;
1256.7000;0.1091;0.8294;
1257.0000;0.1083;0.8318;
1257.3000;0.1115;0.8365;
1257.6000;0.1083;0.8176;
1257.9000;0.1074;0.8176;
1258.2000;0.1050;0.8081;
1258.5000;0.1099;0.8294;
1258.8000;0.1091;0.8365;
1259.1000;0.1074;0.8247;
1259.4000;0.1083;0.8270;
1259.7000;0.1107;0.8294;
1260.0000;0.1115;0.8294;
1260.3000;0.1099;0.8199;
1260.6000;0.1091;0.8176;
1260.9000;0.1107;0.8199;
1261.2000;0.1066;0.8105;
1261.5000;0.1042;0.7939;
1261.8000;0.1074;0.8081;
1262.1000;0.1107;0.8199;
1262.4000;0.1083;0.8223;
1262.7000;0.1091;0.8223;
1263.0000;0.1083;0.8152;
1263.3000;0.1083;0.8247;
1263.6000;0.1107;0.8365;
1263.9000;0.1099;0.8389;
1264.2000;0.1083;0.8294;
1264.5000;0.1115;0.8365;
1264.8000;0.1091;0.8247;
1265.1000;0.1083;0.8318;
1265.4000;0.1131;0.8413;
1265.7000;0.1083;0.8365;
1266.0000;0.1083;0.8460;
1266.3000;0.1107;0.8484;
1266.6000;0.1083;0.8389;
1266.9000;0.1083;0.8342;
1267.2000;0.1074;0.8318;
1267.5000;0.1091;0.8365;
1267.8000;0.1083;0.8318;
1268.1000;0.1066;0.8223;
1268.4000;0.1099;0.8247;
1268.7000;0.1091;0.8247;
1269.0000;0.1083;0.8318;
1269.3000;0.1091;0.8318;
1269.6000;0.1083;0.8389;
1269.9000;0.1083;0.8460;
1270.2000;0.1131;0.8531;
1270.5000;0.1099;0.8484;
1270.8000;0.1099;0.8436;
1271.1000;0.1099;0.8460;
1271.4000;0.1091;0.8389;
1271.7000;0.1107;0.8436;
1272.0000;0.1091;0.8436;
1272.3000;0.1083;0.8365;
1272.6000;0.1099;0.8365;
1272.9000;0.1091;0.8460;
1273.2000;0.1099;0.8484;
1273.5000;0.1140;0.8413;
1273.8000;0.1099;0.8294;
1274.1000;0.1091;0.8365;
1274.4000;0.1050;0.8270;
1274.7000;0.1091;0.8318;
1275.0000;0.1050;0.8199;
1275.3000;0.1066;0.8199;
1275.6000;0.1083;0.8176;
1275.9000;0.1091;0.8223;
1276.2000;0.1034;0.8128;
1276.5000;0.1091;0.8294;
1276.8000;0.1180;0.8626;
1277.1000;0.1091;0.8436;
1277.4000;0.1083;0.8365;
1277.7000;0.1091;0.8365;
1278.0000;0.1058;0.8342;
1278.3000;0.1091;0.8413;
1278.6000;0.1074;0.8507;
1278.9000;0.1042;0.8436;
1279.2000;0.1091;0.8460;
1279.5000;0.0977;0.8152;
1279.8000;0.1107;0.8460;
1280.1000;0.1083;0.8365;
1280.4000;0.1083;0.8318;
1280.7000;0.1091;0.8294;
1281.0000;0.1099;0.8342;
1281.3000;0.1123;0.8389;
1281.6000;0.1115;0.8318;
1281.9000;0.1107;0.8342;
1282.2000;0.1099;0.8389;
1282.5000;0.1107;0.8389;
1282.8000;0.1099;0.8389;
1283.1000;0.1099;0.8389;
1283.4000;0.1099;0.8342;
1283.7000;0.1091;0.8342;
1284.0000;0.1115;0.8484;
1284.3000;0.1107;0.8436;
1284.6000;0.1099;0.8413;
1284.9000;0.1091;0.8389;
1285.2000;0.1123;0.8365;
1285.5000;0.1107;0.8389;
1285.8000;0.1107;0.8436;
1286.1000;0.1091;0.8436;
1286.4000;0.1107;0.8484;
1286.7000;0.1115;0.8484;
1287.0000;0.1107;0.8507;
1287.3000;0.1131;0.8602;
1287.6000;0.1091;0.8484;
1287.9000;0.1099;0.8413;
1288.2000;0.1107;0.8460;
1288.5000;0.1091;0.8460;
1288.8000;0.1091;0.8484;
1289.1000;0.1091;0.8389;
1289.4000;0.1091;0.8342;
1289.7000;0.1099;0.8365;
1290.0000;0.1074;0.8389;
1290.3000;0.1083;0.8389;
1290.6000;0.1107;0.8389;
1290.9000;0.1140;0.8318;
1291.2000;0.1099;0.8247;
1291.5000;0.1074;0.8318;
1291.8000;0.1115;0.8365;
1292.1000;0.1099;0.8342;
1292.4000;0.1107;0.8365;
1292.7000;0.1099;0.8342;
1293.0000;0.1083;0.8318;
1293.3000;0.1107;0.8389;
1293.6000;0.1083;0.8318;
1293.9000;0.1083;0.8294;
1294.2000;0.1066;0.8270;
1294.5000;0.1107;0.8342;
1294.8000;0.1050;0.8199;
1295.1000;0.1066;0.8176;
1295.4000;0.1131;0.8247;
1295.7000;0.1083;0.8081;
1296.0000;0.1123;0.8199;
1296.3000;0.1148;0.8199;
1296.6000;0.1091;0.8105;
1296.9000;0.1115;0.8223;
1297.2000;0.1107;0.8247;
1297.5000;0.1131;0.8318;
1297.8000;0.1099;0.8176;
1298.1000;0.1091;0.8152;
1298.4000;0.1083;0.8081;
1298.7000;0.1099;0.8199;
1299.0000;0.1091;0.8223;
1299.3000;0.1074;0.8223;
1299.6000;0.1074;0.8199;
1299.9000;0.1091;0.8342;
1300.2000;0.1099;0.8294;
1300.5000;0.1066;0.8199;
1300.8000;0.1131;0.8389;
1301.1000;0.1083;0.8223;
1301.4000;0.1107;0.8223;
1301.7000;0.1083;0.8247;
1302.0000;0.1131;0.8318;
1302.3000;0.1107;0.8199;
1302.6000;0.1131;0.8199;
1302.9000;0.1066;0.8081;
1303.2000;0.1083;0.8010;
1303.5000;0.1091;0.8128;
1303.8000;0.1083;0.8128;
1304.1000;0.1083;0.8152;
1304.4000;0.1099;0.8128;
1304.7000;0.1091;0.8057;
1305.0000;0.1091;0.8033;
1305.3000;0.1091;0.8010;
1305.6000;0.1074;0.7891;
1305.9000;0.1156;0.8128;
1306.2000;0.1091;0.8033;
1306.5000;0.1091;0.8033;
1306.8000;0.1091;0.8105;
1307.1000;0.1066;0.8081;
1307.4000;0.1083;0.8105;
1307.7000;0.1091;0.8105;
1308.0000;0.1099;0.8033;
1308.3000;0.1107;0.8057;
1308.6000;0.1107;0.8105;
1308.9000;0.1083;0.8152;
1309.2000;0.1099;0.8128;
1309.5000;0.1066;0.7986;
1309.8000;0.1107;0.8081;
1310.1000;0.1091;0.8081;
1310.4000;0.1115;0.8199;
1310.7000;0.1099;0.8176;
1311.0000;0.1115;0.8223;
1311.3000;0.1074;0.8152;
1311.6000;0.1083;0.8223;
1311.9000;0.1107;0.8105;
1312.2000;0.1107;0.8128;
1312.5000;0.1091;0.8105;
1312.8000;0.1083;0.8033;
1313.1000;0.1091;0.8033;
1313.4000;0.1083;0.8010;
1313.7000;0.1107;0.8057;
1314.0000;0.1099;0.8033;
1314.3000;0.1066;0.7868;
1314.6000;0.1091;0.7962;
1314.9000;0.1091;0.7962;
1315.2000;0.1091;0.7962;
1315.5000;0.1074;0.7962;
1315.8000;0.1148;0.8152;
1316.1000;0.1115;0.8010;
1316.4000;0.1083;0.7891;
1316.7000;0.1083;0.7986;
1317.0000;0.1099;0.8223;
1317.3000;0.1083;0.8270;
1317.6000;0.1083;0.8294;
1317.9000;0.1091;0.8389;
1318.2000;0.1091;0.8365;
1318.5000;0.1058;0.8270;
1318.8000;0.1083;0.8294;
1319.1000;0.1107;0.8294;
1319.4000;0.1107;0.8318;
1319.7000;0.1107;0.8176;
1320.0000;0.1115;0.8199;
1320.3000;0.1099;0.8247;
1320.6000;0.1042;0.8199;
1320.9000;0.1074;0.8294;
1321.2000;0.1131;0.8436;
1321.5000;0.1099;0.8294;
1321.8000;0.1091;0.8294;
1322.1000;0.1091;0.8318;
1322.4000;0.1083;0.8365;
1322.7000;0.1091;0.8413;
1323.0000;0.1034;0.8270;
1323.3000;0.1083;0.8342;
1323.6000;0.1083;0.8270;
1323.9000;0.1099;0.8223;
1324.2000;0.1091;0.8176;
1324.5000;0.1091;0.8223;
1324.8000;0.1107;0.8413;
1325.1000;0.1091;0.8460;
1325.4000;0.1083;0.8460;
1325.7000;0.1099;0.8484;
1326.0000;0.1083;0.8413;
1326.3000;0.1107;0.8413;
1326.6000;0.1074;0.8342;
1326.9000;0.1099;0.8460;
1327.2000;0.1099;0.8507;
1327.5000;0.1123;0.8602;
1327.8000;0.1074;0.8555;
1328.1000;0.1099;0.8555;
1328.4000;0.1099;0.8484;
1328.7000;0.1099;0.8413;
1329.0000;0.1131;0.8531;
1329.3000;0.1034;0.8247;
1329.6000;0.1107;0.8436;
1329.9000;0.1115;0.8342;
1330.2000;0.1099;0.8342;
1330.5000;0.1099;0.8413;
1330.8000;0.1099;0.8365;
1331.1000;0.1164;0.8555;
1331.4000;0.1107;0.8484;
1331.7000;0.1099;0.8507;
1332.0000;0.1099;0.8484;
1332.3000;0.1115;0.8531;
1332.6000;0.1091;0.8413;
1332.9000;0.1091;0.8413;
1333.2000;0.1083;0.8460;
1333.5000;0.1083;0.8460;
1333.8000;0.1099;0.8484;
1334.1000;0.1083;0.8460;
1334.4000;0.1091;0.8460;
1334.7000;0.1074;0.8460;
1335.0000;0.1091;0.8531;
1335.3000;0.1083;0.8507;
1335.6000;0.1074;0.8460;
1335.9000;0.1074;0.8436;
1336.2000;0.1107;0.8460;
1336.5000;0.1091;0.8555;
1336.8000;0.1115;0.8626;
1337.1000;0.1091;0.8579;
1337.4000;0.1115;0.8650;
1337.7000;0.1140;0.8673;
1338.0000;0.1091;0.8507;
1338.3000;0.1066;0.8413;
1338.6000;0.1099;0.8413;
1338.9000;0.1083;0.8342;
1339.2000;0.1107;0.8342;
1339.5000;0.1091;0.8413;
1339.8000;0.1050;0.8318;
1340.1000;0.1107;0.8484;
1340.4000;0.1099;0.8389;
1340.7000;0.1091;0.8342;
1341.0000;0.1066;0.8223;
1341.3000;0.1074;0.8318;
1341.6000;0.1099;0.8342;
1341.9000;0.1050;0.8199;
1342.2000;0.1050;0.8247;
1342.5000;0.1074;0.8223;
1342.8000;0.1099;0.8318;
1343.1000;0.1107;0.8342;
1343.4000;0.1091;0.8294;
1343.7000;0.1091;0.8342;
1344.0000;0.1131;0.8436;
1344.3000;0.1107;0.8365;
1344.6000;0.1115;0.8436;
1344.9000;0.1099;0.8342;
1345.2000;0.1091;0.8294;
1345.5000;0.1018;0.8081;
1345.8000;0.1091;0.8294;
1346.1000;0.1099;0.8365;
1346.4000;0.1091;0.8389;
1346.7000;0.1099;0.8555;
1347.0000;0.1091;0.8555;
1347.3000;0.1066;0.8507;
1347.6000;0.1115;0.8460;
1347.9000;0.1074;0.8436;
1348.2000;0.1099;0.8484;
1348.5000;0.1083;0.8389;
1348.8000;0.1099;0.8389;
1349.1000;0.1074;0.8365;
1349.4000;0.1091;0.8389;
1349.7000;0.1091;0.8365;
1350.0000;0.1074;0.8342;
1350.3000;0.1131;0.8389;
1350.6000;0.1099;0.8389;
1350.9000;0.1099;0.8436;
1351.2000;0.1074;0.8460;
1351.5000;0.1099;0.8436;
1351.8000;0.1099;0.8389;
1352.1000;0.1107;0.8436;
1352.4000;0.1099;0.8365;
1352.7000;0.1083;0.8365;
1353.0000;0.1107;0.8460;
1353.3000;0.1115;0.8507;
1353.6000;0.1123;0.8531;
1353.9000;0.1091;0.8460;
1354.2000;0.1091;0.8460;
1354.5000;0.1091;0.8507;
1354.8000;0.1083;0.8579;
1355.1000;0.1083;0.8531;
1355.4000;0.1083;0.8602;
1355.7000;0.1115;0.8697;
1356.0000;0.1091;0.8697;
1356.3000;0.1083;0.8673;
1356.6000;0.1172;0.8839;
1356.9000;0.1091;0.8602;
1357.2000;0.1115;0.8650;
1357.5000;0.1091;0.8602;
1357.8000;0.1107;0.8579;
1358.1000;0.1115;0.8555;
1358.4000;0.1131;0.8531;
1358.7000;0.1099;0.8531;
1359.0000;0.1074;0.8436;
1359.3000;0.1091;0.8484;
1359.6000;0.1107;0.8602;
1359.9000;0.1050;0.8413;
1360.2000;0.1099;0.8460;
1360.5000;0.1091;0.8365;
1360.8000;0.1083;0.8294;
1361.1000;0.1091;0.8294;
1361.4000;0.1066;0.8128;
1361.7000;0.1099;0.8223;
1362.0000;0.1091;0.8128;
1362.3000;0.1172;0.8294;
1362.6000;0.1091;0.8128;
1362.9000;0.1083;0.8199;
1363.2000;0.1107;0.8270;
1363.5000;0.1123;0.8270;
1363.8000;0.1156;0.8365;
1364.1000;0.1083;0.8342;
1364.4000;0.1099;0.8413;
1364.7000;0.1099;0.8413;
1365.0000;0.1107;0.8342;
1365.3000;0.1091;0.8247;
1365.6000;0.1099;0.8318;
1365.9000;0.1140;0.8484;
1366.2000;0.1099;0.8460;
1366.5000;0.1083;0.8413;
1366.8000;0.1091;0.8389;
1367.1000;0.1099;0.8389;
1367.4000;0.1107;0.8389;
1367.7000;0.1107;0.8460;
1368.0000;0.1115;0.8460;
1368.3000;0.1099;0.8318;
1368.6000;0.1115;0.8389;
1368.9000;0.1107;0.8389;
1369.2000;0.1083;0.8318;
1369.5000;0.1083;0.8413;
1369.8000;0.1066;0.8460;
1370.1000;0.1099;0.8460;
1370.4000;0.1107;0.8484;
1370.7000;0.1083;0.8436;
1371.0000;0.1099;0.8531;
1371.3000;0.1107;0.8531;
1371.6000;0.1083;0.8484;
1371.9000;0.1066;0.8531;
1372.2000;0.1074;0.8555;
1372.5000;0.1107;0.8697;
1372.8000;0.1074;0.8650;
1373.1000;0.1058;0.8460;
1373.4000;0.1074;0.8460;
1373.7000;0.1140;0.8555;
1374.0000;0.1083;0.8436;
1374.3000;0.1074;0.8460;
1374.6000;0.1107;0.8507;
1374.9000;0.1099;0.8484;
1375.2000;0.1107;0.8507;
1375.5000;0.1107;0.8507;
1375.8000;0.1123;0.8484;
1376.1000;0.1107;0.8507;
1376.4000;0.1091;0.8579;
1376.7000;0.1172;0.8792;
1377.0000;0.1099;0.8507;
1377.3000;0.1099;0.8555;
1377.6000;0.1083;0.8555;
1377.9000;0.1083;0.8484;
1378.2000;0.1107;0.8484;
1378.5000;0.1083;0.8413;
1378.8000;0.1107;0.8460;
1379.1000;0.1107;0.8460;
1379.4000;0.1083;0.8413;
1379.7000;0.1099;0.8413;
1380.0000;0.1115;0.8460;
1380.3000;0.1107;0.8436;
1380.6000;0.1083;0.8389;
1380.9000;0.1099;0.8579;
1381.2000;0.1115;0.8697;
1381.5000;0.1107;0.8697;
1381.8000;0.1107;0.8626;
1382.1000;0.1099;0.8531;
1382.4000;0.1083;0.8484;
1382.7000;0.1074;0.8460;
1383.0000;0.1091;0.8484;
1383.3000;0.1091;0.8484;
1383.6000;0.1083;0.8436;
1383.9000;0.1083;0.8365;
1384.2000;0.1107;0.8460;
1384.5000;0.1140;0.8626;
1384.8000;0.1083;0.8365;
1385.1000;0.1091;0.8318;
1385.4000;0.1074;0.8365;
1385.7000;0.1091;0.8436;
1386.0000;0.1091;0.8318;
1386.3000;0.1083;0.8270;
1386.6000;0.1083;0.8294;
1386.9000;0.1172;0.8555;
1387.2000;0.1099;0.8270;
1387.5000;0.1140;0.8365;
1387.8000;0.1091;0.8270;
1388.1000;0.1091;0.8247;
1388.4000;0.1091;0.8270;
1388.7000;0.1091;0.8294;
1389.0000;0.1066;0.8294;
1389.3000;0.1083;0.8294;
1389.6000;0.1115;0.8294;
1389.9000;0.1066;0.8270;
1390.2000;0.1050;0.8247;
1390.5000;0.1074;0.8294;
1390.8000;0.1091;0.8247;
1391.1000;0.1074;0.8176;
1391.4000;0.1034;0.8128;
1391.7000;0.1091;0.8318;
1392.0000;0.1091;0.8342;
1392.3000;0.1083;0.8413;
1392.6000;0.1091;0.8389;
1392.9000;0.1091;0.8436;
1393.2000;0.1083;0.8365;
1393.5000;0.1099;0.8436;
1393.8000;0.1099;0.8413;
1394.1000;0.1074;0.8342;
1394.4000;0.1107;0.8413;
1394.7000;0.1091;0.8365;
1395.0000;0.1091;0.8436;
1395.3000;0.1074;0.8389;
1395.6000;0.1083;0.8413;
1395.9000;0.1091;0.8413;
1396.2000;0.1115;0.8460;
1396.5000;0.1099;0.8318;
1396.8000;0.1083;0.8270;
1397.1000;0.1107;0.8342;
1397.4000;0.1091;0.8247;
1397.7000;0.1091;0.8247;
1398.0000;0.1115;0.8247;
1398.3000;0.1018;0.8057;
1398.6000;0.1091;0.8247;
1398.9000;0.1091;0.8270;
1399.2000;0.1066;0.8342;
1399.5000;0.1083;0.8389;
1399.8000;0.1091;0.8460;
