time/ms;Fluo/V;P700 deltaI/I x10³;
-199.8000;0.1425;0.8531;
-199.5000;0.1425;0.8484;
-199.2000;0.1457;0.8579;
-198.9000;0.1465;0.8555;
-198.6000;0.1449;0.8555;
-198.3000;0.1449;0.8626;
-198.0000;0.1441;0.8768;
-197.7000;0.1441;0.8697;
-197.4000;0.1441;0.8768;
-197.1000;0.1441;0.8650;
-196.8000;0.1449;0.8626;
-196.5000;0.1457;0.8579;
-196.2000;0.1449;0.8626;
-195.9000;0.1449;0.8673;
-195.6000;0.1433;0.8650;
-195.3000;0.1433;0.8602;
-195.0000;0.1433;0.8602;
-194.7000;0.1416;0.8602;
-194.4000;0.1441;0.8744;
-194.1000;0.1449;0.8768;
-193.8000;0.1457;0.8815;
-193.5000;0.1449;0.8792;
-193.2000;0.1449;0.8768;
-192.9000;0.1433;0.8721;
-192.6000;0.1473;0.8768;
-192.3000;0.1449;0.8744;
-192.0000;0.1433;0.8721;
-191.7000;0.1449;0.8768;
-191.4000;0.1457;0.8768;
-191.1000;0.1433;0.8792;
-190.8000;0.1433;0.8815;
-190.5000;0.1433;0.8839;
-190.2000;0.1449;0.8863;
-189.9000;0.1441;0.8815;
-189.6000;0.1449;0.8839;
-189.3000;0.1368;0.8602;
-189.0000;0.1441;0.8768;
-188.7000;0.1465;0.8721;
-188.4000;0.1457;0.8673;
-188.1000;0.1441;0.8673;
-187.8000;0.1449;0.8650;
-187.5000;0.1441;0.8744;
-187.2000;0.1449;0.8721;
-186.9000;0.1433;0.8697;
-186.6000;0.1425;0.8697;
-186.3000;0.1449;0.8768;
-186.0000;0.1441;0.8815;
-185.7000;0.1441;0.8863;
-185.4000;0.1465;0.8958;
-185.1000;0.1441;0.8863;
-184.8000;0.1449;0.8839;
-184.5000;0.1441;0.8887;
-184.2000;0.1425;0.8839;
-183.9000;0.1441;0.8863;
-183.6000;0.1449;0.8839;
-183.3000;0.1457;0.8887;
-183.0000;0.1457;0.8910;
-182.7000;0.1441;0.8910;
-182.4000;0.1457;0.8981;
-182.1000;0.1506;0.9076;
-181.8000;0.1449;0.8863;
-181.5000;0.1433;0.8863;
-181.2000;0.1441;0.8768;
-180.9000;0.1449;0.8744;
-180.6000;0.1433;0.8721;
-180.3000;0.1433;0.8792;
-180.0000;0.1441;0.8768;
-179.7000;0.1441;0.8744;
-179.4000;0.1408;0.8650;
-179.1000;0.1408;0.8626;
-178.8000;0.1416;0.8650;
-178.5000;0.1441;0.8626;
-178.2000;0.1449;0.8626;
-177.9000;0.1449;0.8768;
-177.6000;0.1441;0.8815;
-177.3000;0.1433;0.8697;
-177.0000;0.1457;0.8744;
-176.7000;0.1457;0.8839;
-176.4000;0.1441;0.8744;
-176.1000;0.1433;0.8768;
-175.8000;0.1449;0.8768;
-175.5000;0.1441;0.8697;
-175.2000;0.1449;0.8721;
-174.9000;0.1441;0.8673;
-174.6000;0.1416;0.8626;
-174.3000;0.1465;0.8697;
-174.0000;0.1473;0.8744;
-173.7000;0.1441;0.8673;
-173.4000;0.1465;0.8744;
-173.1000;0.1473;0.8815;
-172.8000;0.1433;0.8697;
-172.5000;0.1433;0.8721;
-172.2000;0.1457;0.8744;
-171.9000;0.1457;0.8744;
-171.6000;0.1457;0.8721;
-171.3000;0.1441;0.8555;
-171.0000;0.1449;0.8555;
-170.7000;0.1449;0.8555;
-170.4000;0.1441;0.8579;
-170.1000;0.1441;0.8507;
-169.8000;0.1449;0.8531;
-169.5000;0.1441;0.8484;
-169.2000;0.1449;0.8579;
-168.9000;0.1441;0.8579;
-168.6000;0.1473;0.8721;
-168.3000;0.1441;0.8744;
-168.0000;0.1514;0.8958;
-167.7000;0.1498;0.8863;
-167.4000;0.1441;0.8792;
-167.1000;0.1457;0.8839;
-166.8000;0.1449;0.8768;
-166.5000;0.1449;0.8721;
-166.2000;0.1449;0.8697;
-165.9000;0.1449;0.8697;
-165.6000;0.1457;0.8744;
-165.3000;0.1449;0.8721;
-165.0000;0.1433;0.8792;
-164.7000;0.1449;0.8768;
-164.4000;0.1441;0.8744;
-164.1000;0.1449;0.8721;
-163.8000;0.1441;0.8673;
-163.5000;0.1408;0.8507;
-163.2000;0.1433;0.8602;
-162.9000;0.1433;0.8673;
-162.6000;0.1425;0.8555;
-162.3000;0.1441;0.8602;
-162.0000;0.1433;0.8697;
-161.7000;0.1416;0.8650;
-161.4000;0.1449;0.8650;
-161.1000;0.1457;0.8673;
-160.8000;0.1441;0.8697;
-160.5000;0.1441;0.8626;
-160.2000;0.1465;0.8602;
-159.9000;0.1425;0.8602;
-159.6000;0.1465;0.8721;
-159.3000;0.1473;0.8673;
-159.0000;0.1449;0.8602;
-158.7000;0.1457;0.8626;
-158.4000;0.1425;0.8555;
-158.1000;0.1359;0.8413;
-157.8000;0.1400;0.8579;
-157.5000;0.1425;0.8697;
-157.2000;0.1433;0.8650;
-156.9000;0.1425;0.8673;
-156.6000;0.1449;0.8744;
-156.3000;0.1449;0.8768;
-156.0000;0.1473;0.8792;
-155.7000;0.1441;0.8650;
-155.4000;0.1449;0.8673;
-155.1000;0.1433;0.8650;
-154.8000;0.1441;0.8555;
-154.5000;0.1465;0.8650;
-154.2000;0.1449;0.8673;
-153.9000;0.1465;0.8744;
-153.6000;0.1457;0.8721;
-153.3000;0.1457;0.8744;
-153.0000;0.1457;0.8744;
-152.7000;0.1449;0.8792;
-152.4000;0.1457;0.8863;
-152.1000;0.1441;0.8768;
-151.8000;0.1433;0.8721;
-151.5000;0.1441;0.8744;
-151.2000;0.1449;0.8744;
-150.9000;0.1449;0.8721;
-150.6000;0.1457;0.8673;
-150.3000;0.1449;0.8626;
-150.0000;0.1473;0.8602;
-149.7000;0.1384;0.8342;
-149.4000;0.1449;0.8555;
-149.1000;0.1457;0.8602;
-148.8000;0.1441;0.8555;
-148.5000;0.1433;0.8626;
-148.2000;0.1449;0.8650;
-147.9000;0.1416;0.8673;
-147.6000;0.1425;0.8744;
-147.3000;0.1473;0.8815;
-147.0000;0.1449;0.8768;
-146.7000;0.1400;0.8697;
-146.4000;0.1400;0.8768;
-146.1000;0.1425;0.8839;
-145.8000;0.1465;0.8910;
-145.5000;0.1433;0.8768;
-145.2000;0.1490;0.8910;
-144.9000;0.1368;0.8602;
-144.6000;0.1465;0.8839;
-144.3000;0.1465;0.8839;
-144.0000;0.1441;0.8768;
-143.7000;0.1449;0.8815;
-143.4000;0.1441;0.8792;
-143.1000;0.1416;0.8626;
-142.8000;0.1441;0.8673;
-142.5000;0.1392;0.8484;
-142.2000;0.1441;0.8626;
-141.9000;0.1441;0.8602;
-141.6000;0.1441;0.8626;
-141.3000;0.1416;0.8555;
-141.0000;0.1433;0.8507;
-140.7000;0.1457;0.8531;
-140.4000;0.1490;0.8650;
-140.1000;0.1441;0.8650;
-139.8000;0.1441;0.8697;
-139.5000;0.1433;0.8579;
-139.2000;0.1441;0.8626;
-138.9000;0.1449;0.8697;
-138.6000;0.1441;0.8721;
-138.3000;0.1481;0.8815;
-138.0000;0.1457;0.8721;
-137.7000;0.1441;0.8768;
-137.4000;0.1449;0.8744;
-137.1000;0.1433;0.8602;
-136.8000;0.1473;0.8697;
-136.5000;0.1441;0.8626;
-136.2000;0.1449;0.8650;
-135.9000;0.1441;0.8650;
-135.6000;0.1441;0.8744;
-135.3000;0.1441;0.8744;
-135.0000;0.1368;0.8555;
-134.7000;0.1449;0.8744;
-134.4000;0.1449;0.8697;
-134.1000;0.1400;0.8555;
-133.8000;0.1441;0.8721;
-133.5000;0.1441;0.8744;
-133.2000;0.1449;0.8792;
-132.9000;0.1433;0.8792;
-132.6000;0.1441;0.8768;
-132.3000;0.1473;0.8744;
-132.0000;0.1457;0.8697;
-131.7000;0.1457;0.8744;
-131.4000;0.1449;0.8697;
-131.1000;0.1522;0.8863;
-130.8000;0.1514;0.8910;
-130.5000;0.1457;0.8697;
-130.2000;0.1449;0.8673;
-129.9000;0.1441;0.8673;
-129.6000;0.1425;0.8626;
-129.3000;0.1441;0.8650;
-129.0000;0.1376;0.8436;
-128.7000;0.1441;0.8673;
-128.4000;0.1449;0.8721;
-128.1000;0.1425;0.8626;
-127.8000;0.1457;0.8744;
-127.5000;0.1433;0.8626;
-127.2000;0.1449;0.8673;
-126.9000;0.1457;0.8697;
-126.6000;0.1425;0.8626;
-126.3000;0.1449;0.8626;
-126.0000;0.1425;0.8602;
-125.7000;0.1449;0.8721;
-125.4000;0.1441;0.8792;
-125.1000;0.1457;0.8792;
-124.8000;0.1457;0.8910;
-124.5000;0.1441;0.8887;
-124.2000;0.1441;0.8863;
-123.9000;0.1449;0.8792;
-123.6000;0.1465;0.8887;
-123.3000;0.1490;0.8958;
-123.0000;0.1457;0.8863;
-122.7000;0.1425;0.8839;
-122.4000;0.1441;0.8863;
-122.1000;0.1400;0.8721;
-121.8000;0.1457;0.8792;
-121.5000;0.1465;0.8768;
-121.2000;0.1457;0.8721;
-120.9000;0.1449;0.8721;
-120.6000;0.1400;0.8531;
-120.3000;0.1457;0.8721;
-120.0000;0.1457;0.8721;
-119.7000;0.1449;0.8697;
-119.4000;0.1457;0.8697;
-119.1000;0.1449;0.8697;
-118.8000;0.1481;0.8744;
-118.5000;0.1433;0.8579;
-118.2000;0.1457;0.8650;
-117.9000;0.1449;0.8697;
-117.6000;0.1392;0.8531;
-117.3000;0.1441;0.8744;
-117.0000;0.1433;0.8792;
-116.7000;0.1473;0.8863;
-116.4000;0.1416;0.8697;
-116.1000;0.1465;0.8721;
-115.8000;0.1441;0.8673;
-115.5000;0.1481;0.8744;
-115.2000;0.1425;0.8650;
-114.9000;0.1449;0.8792;
-114.6000;0.1547;0.8958;
-114.3000;0.1449;0.8697;
-114.0000;0.1473;0.8721;
-113.7000;0.1449;0.8721;
-113.4000;0.1457;0.8815;
-113.1000;0.1449;0.8768;
-112.8000;0.1392;0.8626;
-112.5000;0.1449;0.8744;
-112.2000;0.1425;0.8744;
-111.9000;0.1441;0.8792;
-111.6000;0.1449;0.8744;
-111.3000;0.1449;0.8721;
-111.0000;0.1457;0.8792;
-110.7000;0.1433;0.8650;
-110.4000;0.1441;0.8579;
-110.1000;0.1433;0.8460;
-109.8000;0.1425;0.8555;
-109.5000;0.1441;0.8650;
-109.2000;0.1441;0.8650;
-108.9000;0.1425;0.8579;
-108.6000;0.1449;0.8626;
-108.3000;0.1433;0.8579;
-108.0000;0.1351;0.8342;
-107.7000;0.1433;0.8579;
-107.4000;0.1449;0.8697;
-107.1000;0.1441;0.8673;
-106.8000;0.1449;0.8673;
-106.5000;0.1433;0.8579;
-106.2000;0.1457;0.8650;
-105.9000;0.1465;0.8673;
-105.6000;0.1441;0.8602;
-105.3000;0.1441;0.8650;
-105.0000;0.1449;0.8673;
-104.7000;0.1465;0.8697;
-104.4000;0.1473;0.8721;
-104.1000;0.1449;0.8768;
-103.8000;0.1425;0.8721;
-103.5000;0.1449;0.8697;
-103.2000;0.1457;0.8744;
-102.9000;0.1465;0.8744;
-102.6000;0.1449;0.8744;
-102.3000;0.1457;0.8815;
-102.0000;0.1506;0.8934;
-101.7000;0.1441;0.8792;
-101.4000;0.1441;0.8815;
-101.1000;0.1416;0.8744;
-100.8000;0.1449;0.8792;
-100.5000;0.1449;0.8697;
-100.2000;0.1449;0.8673;
-99.9000;0.1441;0.8650;
-99.6000;0.1490;0.8815;
-99.3000;0.1449;0.8721;
-99.0000;0.1433;0.8673;
-98.7000;0.1473;0.8721;
-98.4000;0.1441;0.8650;
-98.1000;0.1425;0.8579;
-97.8000;0.1441;0.8650;
-97.5000;0.1441;0.8744;
-97.2000;0.1441;0.8815;
-96.9000;0.1433;0.8768;
-96.6000;0.1490;0.8958;
-96.3000;0.1441;0.8815;
-96.0000;0.1473;0.8958;
-95.7000;0.1425;0.8815;
-95.4000;0.1449;0.8934;
-95.1000;0.1433;0.8768;
-94.8000;0.1457;0.8721;
-94.5000;0.1457;0.8768;
-94.2000;0.1449;0.8673;
-93.9000;0.1465;0.8744;
-93.6000;0.1425;0.8650;
-93.3000;0.1441;0.8650;
-93.0000;0.1449;0.8650;
-92.7000;0.1449;0.8650;
-92.4000;0.1425;0.8602;
-92.1000;0.1433;0.8555;
-91.8000;0.1473;0.8579;
-91.5000;0.1457;0.8579;
-91.2000;0.1449;0.8555;
-90.9000;0.1425;0.8436;
-90.6000;0.1408;0.8365;
-90.3000;0.1433;0.8413;
-90.0000;0.1433;0.8555;
-89.7000;0.1433;0.8507;
-89.4000;0.1441;0.8579;
-89.1000;0.1441;0.8626;
-88.8000;0.1449;0.8579;
-88.5000;0.1441;0.8555;
-88.2000;0.1449;0.8602;
-87.9000;0.1441;0.8697;
-87.6000;0.1441;0.8697;
-87.3000;0.1473;0.8792;
-87.0000;0.1441;0.8697;
-86.7000;0.1441;0.8744;
-86.4000;0.1433;0.8768;
-86.1000;0.1457;0.8697;
-85.8000;0.1441;0.8673;
-85.5000;0.1433;0.8721;
-85.2000;0.1449;0.8768;
-84.9000;0.1408;0.8673;
-84.6000;0.1433;0.8744;
-84.3000;0.1416;0.8768;
-84.0000;0.1416;0.8768;
-83.7000;0.1425;0.8792;
-83.4000;0.1441;0.8744;
-83.1000;0.1441;0.8650;
-82.8000;0.1441;0.8602;
-82.5000;0.1449;0.8626;
-82.2000;0.1408;0.8650;
-81.9000;0.1441;0.8744;
-81.6000;0.1441;0.8721;
-81.3000;0.1433;0.8650;
-81.0000;0.1425;0.8555;
-80.7000;0.1449;0.8721;
-80.4000;0.1441;0.8721;
-80.1000;0.1473;0.8863;
-79.8000;0.1416;0.8768;
-79.5000;0.1425;0.8815;
-79.2000;0.1416;0.8744;
-78.9000;0.1465;0.8863;
-78.6000;0.1449;0.8887;
-78.3000;0.1490;0.8887;
-78.0000;0.1457;0.8887;
-77.7000;0.1449;0.8815;
-77.4000;0.1449;0.8815;
-77.1000;0.1441;0.8768;
-76.8000;0.1433;0.8721;
-76.5000;0.1433;0.8839;
-76.2000;0.1392;0.8744;
-75.9000;0.1441;0.8744;
-75.6000;0.1457;0.8744;
-75.3000;0.1457;0.8768;
-75.0000;0.1465;0.8768;
-74.7000;0.1441;0.8673;
-74.4000;0.1449;0.8673;
-74.1000;0.1416;0.8602;
-73.8000;0.1457;0.8650;
-73.5000;0.1441;0.8531;
-73.2000;0.1425;0.8460;
-72.9000;0.1457;0.8507;
-72.6000;0.1433;0.8365;
-72.3000;0.1449;0.8436;
-72.0000;0.1441;0.8484;
-71.7000;0.1441;0.8460;
-71.4000;0.1481;0.8579;
-71.1000;0.1441;0.8579;
-70.8000;0.1457;0.8579;
-70.5000;0.1449;0.8579;
-70.2000;0.1441;0.8555;
-69.9000;0.1457;0.8721;
-69.6000;0.1392;0.8507;
-69.3000;0.1457;0.8650;
-69.0000;0.1441;0.8650;
-68.7000;0.1425;0.8555;
-68.4000;0.1449;0.8555;
-68.1000;0.1384;0.8413;
-67.8000;0.1457;0.8697;
-67.5000;0.1433;0.8744;
-67.2000;0.1433;0.8697;
-66.9000;0.1449;0.8697;
-66.6000;0.1441;0.8626;
-66.3000;0.1441;0.8650;
-66.0000;0.1465;0.8744;
-65.7000;0.1441;0.8697;
-65.4000;0.1449;0.8721;
-65.1000;0.1441;0.8721;
-64.8000;0.1441;0.8650;
-64.5000;0.1433;0.8673;
-64.2000;0.1441;0.8697;
-63.9000;0.1433;0.8650;
-63.6000;0.1433;0.8650;
-63.3000;0.1433;0.8697;
-63.0000;0.1457;0.8768;
-62.7000;0.1441;0.8721;
-62.4000;0.1449;0.8650;
-62.1000;0.1441;0.8626;
-61.8000;0.1433;0.8602;
-61.5000;0.1441;0.8626;
-61.2000;0.1425;0.8579;
-60.9000;0.1425;0.8579;
-60.6000;0.1441;0.8602;
-60.3000;0.1441;0.8602;
-60.0000;0.1433;0.8602;
-59.7000;0.1441;0.8602;
-59.4000;0.1433;0.8555;
-59.1000;0.1441;0.8602;
-58.8000;0.1425;0.8555;
-58.5000;0.1433;0.8579;
-58.2000;0.1449;0.8650;
-57.9000;0.1441;0.8650;
-57.6000;0.1449;0.8697;
-57.3000;0.1449;0.8602;
-57.0000;0.1441;0.8579;
-56.7000;0.1449;0.8650;
-56.4000;0.1465;0.8602;
-56.1000;0.1441;0.8460;
-55.8000;0.1465;0.8484;
-55.5000;0.1441;0.8413;
-55.2000;0.1465;0.8555;
-54.9000;0.1465;0.8484;
-54.6000;0.1449;0.8413;
-54.3000;0.1433;0.8342;
-54.0000;0.1449;0.8484;
-53.7000;0.1441;0.8507;
-53.4000;0.1433;0.8507;
-53.1000;0.1408;0.8436;
-52.8000;0.1425;0.8389;
-52.5000;0.1433;0.8365;
-52.2000;0.1400;0.8199;
-51.9000;0.1441;0.8318;
-51.6000;0.1441;0.8413;
-51.3000;0.1441;0.8389;
-51.0000;0.1449;0.8484;
-50.7000;0.1449;0.8531;
-50.4000;0.1441;0.8650;
-50.1000;0.1441;0.8673;
-49.8000;0.1465;0.8697;
-49.5000;0.1433;0.8579;
-49.2000;0.1449;0.8555;
-48.9000;0.1441;0.8626;
-48.6000;0.1449;0.8555;
-48.3000;0.1433;0.8555;
-48.0000;0.1441;0.8579;
-47.7000;0.1441;0.8673;
-47.4000;0.1506;0.8863;
-47.1000;0.1433;0.8650;
-46.8000;0.1433;0.8626;
-46.5000;0.1425;0.8650;
-46.2000;0.1449;0.8721;
-45.9000;0.1449;0.8721;
-45.6000;0.1433;0.8744;
-45.3000;0.1441;0.8792;
-45.0000;0.1457;0.8863;
-44.7000;0.1457;0.8887;
-44.4000;0.1416;0.8792;
-44.1000;0.1449;0.8792;
-43.8000;0.1433;0.8792;
-43.5000;0.1441;0.8768;
-43.2000;0.1473;0.8744;
-42.9000;0.1449;0.8721;
-42.6000;0.1449;0.8697;
-42.3000;0.1433;0.8744;
-42.0000;0.1449;0.8626;
-41.7000;0.1425;0.8626;
-41.4000;0.1425;0.8626;
-41.1000;0.1449;0.8673;
-40.8000;0.1433;0.8744;
-40.5000;0.1441;0.8768;
-40.2000;0.1392;0.8579;
-39.9000;0.1449;0.8650;
-39.6000;0.1449;0.8721;
-39.3000;0.1449;0.8768;
-39.0000;0.1416;0.8744;
-38.7000;0.1441;0.8792;
-38.4000;0.1441;0.8768;
-38.1000;0.1449;0.8792;
-37.8000;0.1441;0.8721;
-37.5000;0.1433;0.8697;
-37.2000;0.1433;0.8768;
-36.9000;0.1449;0.8697;
-36.6000;0.1457;0.8650;
-36.3000;0.1433;0.8602;
-36.0000;0.1441;0.8602;
-35.7000;0.1449;0.8531;
-35.4000;0.1433;0.8531;
-35.1000;0.1433;0.8484;
-34.8000;0.1449;0.8507;
-34.5000;0.1433;0.8413;
-34.2000;0.1441;0.8507;
-33.9000;0.1433;0.8555;
-33.6000;0.1441;0.8602;
-33.3000;0.1465;0.8650;
-33.0000;0.1457;0.8555;
-32.7000;0.1449;0.8579;
-32.4000;0.1425;0.8579;
-32.1000;0.1457;0.8721;
-31.8000;0.1433;0.8697;
-31.5000;0.1449;0.8697;
-31.2000;0.1425;0.8673;
-30.9000;0.1449;0.8721;
-30.6000;0.1506;0.8815;
-30.3000;0.1441;0.8673;
-30.0000;0.1433;0.8697;
-29.7000;0.1408;0.8673;
-29.4000;0.1433;0.8744;
-29.1000;0.1416;0.8768;
-28.8000;0.1425;0.8721;
-28.5000;0.1441;0.8697;
-28.2000;0.1441;0.8673;
-27.9000;0.1449;0.8697;
-27.6000;0.1441;0.8673;
-27.3000;0.1449;0.8697;
-27.0000;0.1433;0.8579;
-26.7000;0.1449;0.8484;
-26.4000;0.1465;0.8436;
-26.1000;0.1457;0.8318;
-25.8000;0.1433;0.8365;
-25.5000;0.1449;0.8342;
-25.2000;0.1392;0.8270;
-24.9000;0.1359;0.8176;
-24.6000;0.1433;0.8484;
-24.3000;0.1441;0.8507;
-24.0000;0.1457;0.8602;
-23.7000;0.1392;0.8626;
-23.4000;0.1441;0.8697;
-23.1000;0.1441;0.8744;
-22.8000;0.1473;0.8792;
-22.5000;0.1441;0.8650;
-22.2000;0.1441;0.8673;
-21.9000;0.1441;0.8721;
-21.6000;0.1481;0.8792;
-21.3000;0.1433;0.8721;
-21.0000;0.1441;0.8673;
-20.7000;0.1441;0.8792;
-20.4000;0.1449;0.8768;
-20.1000;0.1449;0.8744;
-19.8000;0.1433;0.8626;
-19.5000;0.1425;0.8579;
-19.2000;0.1465;0.8650;
-18.9000;0.1433;0.8602;
-18.6000;0.1433;0.8602;
-18.3000;0.1441;0.8602;
-18.0000;0.1449;0.8673;
-17.7000;0.1449;0.8697;
-17.4000;0.1465;0.8602;
-17.1000;0.1425;0.8531;
-16.8000;0.1441;0.8531;
-16.5000;0.1441;0.8602;
-16.2000;0.1465;0.8673;
-15.9000;0.1416;0.8579;
-15.6000;0.1465;0.8602;
-15.3000;0.1449;0.8531;
-15.0000;0.1408;0.8413;
-14.7000;0.1465;0.8626;
-14.4000;0.1449;0.8579;
-14.1000;0.1473;0.8744;
-13.8000;0.1441;0.8673;
-13.5000;0.1441;0.8673;
-13.2000;0.1441;0.8626;
-12.9000;0.1441;0.8626;
-12.6000;0.1457;0.8579;
-12.3000;0.1425;0.8602;
-12.0000;0.1441;0.8626;
-11.7000;0.1441;0.8602;
-11.4000;0.1433;0.8579;
-11.1000;0.1457;0.8579;
-10.8000;0.1457;0.8697;
-10.5000;0.1465;0.8626;
-10.2000;0.1449;0.8673;
-9.9000;0.1465;0.8768;
-9.6000;0.1457;0.8768;
-9.3000;0.1441;0.8768;
-9.0000;0.1441;0.8768;
-8.7000;0.1441;0.8744;
-8.4000;0.1449;0.8768;
-8.1000;0.1441;0.8721;
-7.8000;0.1457;0.8697;
-7.5000;0.1441;0.8650;
-7.2000;0.1441;0.8650;
-6.9000;0.1441;0.8626;
-6.6000;0.1449;0.8602;
-6.3000;0.1433;0.8460;
-6.0000;0.1457;0.8507;
-5.7000;0.1465;0.8507;
-5.4000;0.1441;0.8389;
-5.1000;0.1441;0.8460;
-4.8000;0.1457;0.8579;
-4.5000;0.1449;0.8579;
-4.2000;0.1392;0.8389;
-3.9000;0.1449;0.8484;
-3.6000;0.1449;0.8507;
-3.3000;0.1441;0.8531;
-3.0000;0.1441;0.8697;
-2.7000;0.1416;0.8673;
-2.4000;0.1449;0.8744;
-2.1000;0.1441;0.8721;
-1.8000;0.1465;0.8792;
-1.5000;0.1457;0.8744;
-1.2000;0.1457;0.8744;
-0.9000;0.1441;0.8673;
-0.6000;0.1449;0.8721;
-0.3000;0.1441;0.8744;
0.0000;0.1441;0.8744;
0.3000;0.1449;0.8579;
0.6000;0.1490;0.8721;
0.9000;0.1530;0.8815;
1.2000;0.1465;0.8792;
1.5000;0.1433;0.8863;
1.8000;0.1514;0.9124;
2.1000;0.1538;0.9171;
2.4000;0.1457;0.8934;
2.7000;0.1538;0.9218;
3.0000;0.1522;0.9195;
3.3000;0.1522;0.9289;
3.6000;0.1530;0.9337;
3.9000;0.1530;0.9408;
4.2000;0.1547;0.9479;
4.5000;0.1547;0.9621;
4.8000;0.1538;0.9621;
5.1000;0.1555;0.9669;
5.4000;0.1571;0.9692;
5.7000;0.1547;0.9621;
6.0000;0.1563;0.9621;
6.3000;0.1555;0.9597;
6.6000;0.1547;0.9645;
6.9000;0.1538;0.9669;
7.2000;0.1555;0.9692;
7.5000;0.1530;0.9692;
7.8000;0.1538;0.9645;
8.1000;0.1547;0.9716;
8.4000;0.1555;0.9716;
8.7000;0.1563;0.9692;
9.0000;0.1547;0.9716;
9.3000;0.1538;0.9763;
9.6000;0.1555;0.9787;
9.9000;0.1555;0.9882;
10.2000;0.1547;0.9929;
10.5000;0.1547;1.0024;
10.8000;0.1563;1.0095;
11.1000;0.1530;1.0024;
11.4000;0.1628;1.0190;
11.7000;0.1563;0.9953;
12.0000;0.1506;0.9763;
12.3000;0.1547;0.9811;
12.6000;0.1555;0.9858;
12.9000;0.1547;0.9858;
13.2000;0.1579;0.9906;
13.5000;0.1555;0.9929;
13.8000;0.1587;0.9929;
14.1000;0.1555;0.9834;
14.4000;0.1555;0.9834;
14.7000;0.1563;0.9906;
15.0000;0.1563;0.9953;
15.3000;0.1538;0.9882;
15.6000;0.1555;0.9882;
15.9000;0.1555;0.9882;
16.2000;0.1563;0.9929;
16.5000;0.1555;0.9929;
16.8000;0.1563;0.9929;
17.1000;0.1595;1.0024;
17.4000;0.1571;1.0024;
17.7000;0.1579;1.0024;
18.0000;0.1579;0.9906;
18.3000;0.1579;0.9953;
18.6000;0.1579;0.9929;
18.9000;0.1571;0.9858;
19.2000;0.1563;0.9906;
19.5000;0.1555;0.9834;
19.8000;0.1563;0.9882;
20.1000;0.1587;0.9929;
20.4000;0.1579;0.9906;
20.7000;0.1579;0.9858;
21.0000;0.1595;0.9882;
21.3000;0.1571;0.9858;
21.6000;0.1579;0.9882;
21.9000;0.1579;0.9906;
22.2000;0.1579;0.9882;
22.5000;0.1579;0.9787;
22.8000;0.1587;0.9834;
23.1000;0.1563;0.9763;
23.4000;0.1587;0.9834;
23.7000;0.1587;0.9906;
24.0000;0.1604;0.9929;
24.3000;0.1579;0.9906;
24.6000;0.1579;0.9953;
24.9000;0.1571;0.9977;
25.2000;0.1571;0.9882;
25.5000;0.1587;0.9929;
25.8000;0.1514;0.9763;
26.1000;0.1595;0.9977;
26.4000;0.1579;1.0024;
26.7000;0.1571;1.0024;
27.0000;0.1579;1.0000;
27.3000;0.1579;0.9953;
27.6000;0.1587;0.9953;
27.9000;0.1587;0.9953;
28.2000;0.1579;0.9929;
28.5000;0.1587;0.9906;
28.8000;0.1563;0.9906;
29.1000;0.1571;0.9834;
29.4000;0.1571;0.9929;
29.7000;0.1563;0.9906;
30.0000;0.1563;0.9858;
30.3000;0.1579;1.0000;
30.6000;0.1571;1.0000;
30.9000;0.1522;0.9906;
31.2000;0.1579;1.0048;
31.5000;0.1579;1.0048;
31.8000;0.1579;1.0071;
32.1000;0.1587;1.0095;
32.4000;0.1571;1.0095;
32.7000;0.1587;1.0095;
33.0000;0.1595;1.0190;
33.3000;0.1587;1.0119;
33.6000;0.1595;1.0095;
33.9000;0.1595;1.0024;
34.2000;0.1604;1.0095;
34.5000;0.1595;1.0024;
34.8000;0.1587;0.9953;
35.1000;0.1587;0.9977;
35.4000;0.1579;1.0024;
35.7000;0.1579;0.9882;
36.0000;0.1595;0.9953;
36.3000;0.1579;0.9953;
36.6000;0.1587;0.9953;
36.9000;0.1587;1.0048;
37.2000;0.1563;1.0024;
37.5000;0.1579;1.0000;
37.8000;0.1595;0.9906;
38.1000;0.1563;0.9882;
38.4000;0.1628;1.0024;
38.7000;0.1595;0.9929;
39.0000;0.1595;0.9906;
39.3000;0.1547;0.9882;
39.6000;0.1595;1.0048;
39.9000;0.1571;0.9977;
40.2000;0.1579;0.9977;
40.5000;0.1547;1.0024;
40.8000;0.1612;1.0237;
41.1000;0.1579;1.0095;
41.4000;0.1587;1.0190;
41.7000;0.1571;1.0119;
42.0000;0.1620;1.0143;
42.3000;0.1604;1.0095;
42.6000;0.1587;0.9929;
42.9000;0.1555;0.9858;
43.2000;0.1571;0.9834;
43.5000;0.1587;0.9929;
43.8000;0.1587;0.9906;
44.1000;0.1579;0.9906;
44.4000;0.1595;0.9929;
44.7000;0.1595;0.9858;
45.0000;0.1595;0.9834;
45.3000;0.1595;0.9882;
45.6000;0.1620;0.9929;
45.9000;0.1595;1.0000;
46.2000;0.1579;0.9977;
46.5000;0.1604;0.9977;
46.8000;0.1587;0.9977;
47.1000;0.1604;1.0071;
47.4000;0.1587;1.0048;
47.7000;0.1612;1.0166;
48.0000;0.1595;1.0095;
48.3000;0.1595;1.0000;
48.6000;0.1587;1.0000;
48.9000;0.1587;0.9977;
49.2000;0.1595;0.9977;
49.5000;0.1604;0.9977;
49.8000;0.1628;0.9977;
50.1000;0.1587;0.9858;
50.4000;0.1604;0.9953;
50.7000;0.1604;0.9977;
51.0000;0.1612;0.9929;
51.3000;0.1587;0.9906;
51.6000;0.1604;0.9882;
51.9000;0.1587;0.9811;
52.2000;0.1595;0.9763;
52.5000;0.1595;0.9763;
52.8000;0.1579;0.9763;
53.1000;0.1563;0.9763;
53.4000;0.1604;0.9834;
53.7000;0.1604;0.9882;
54.0000;0.1604;0.9929;
54.3000;0.1595;0.9882;
54.6000;0.1604;0.9834;
54.9000;0.1612;0.9740;
55.2000;0.1595;0.9669;
55.5000;0.1604;0.9716;
55.8000;0.1604;0.9763;
56.1000;0.1604;0.9740;
56.4000;0.1595;0.9740;
56.7000;0.1595;0.9740;
57.0000;0.1587;0.9716;
57.3000;0.1612;0.9763;
57.6000;0.1595;0.9740;
57.9000;0.1595;0.9740;
58.2000;0.1579;0.9740;
58.5000;0.1595;0.9763;
58.8000;0.1595;0.9834;
59.1000;0.1587;0.9906;
59.4000;0.1587;0.9858;
59.7000;0.1587;0.9858;
60.0000;0.1538;0.9834;
60.3000;0.1612;1.0048;
60.6000;0.1595;1.0000;
60.9000;0.1628;1.0071;
61.2000;0.1620;0.9953;
61.5000;0.1604;0.9929;
61.8000;0.1595;0.9953;
62.1000;0.1530;0.9763;
62.4000;0.1587;0.9929;
62.7000;0.1595;0.9834;
63.0000;0.1579;0.9882;
63.3000;0.1538;0.9716;
63.6000;0.1587;0.9740;
63.9000;0.1612;0.9763;
64.2000;0.1604;0.9787;
64.5000;0.1604;0.9811;
64.8000;0.1604;0.9763;
65.1000;0.1595;0.9834;
65.4000;0.1587;0.9834;
65.7000;0.1604;0.9977;
66.0000;0.1604;1.0071;
66.3000;0.1604;1.0024;
66.6000;0.1571;0.9929;
66.9000;0.1620;0.9929;
67.2000;0.1563;0.9858;
67.5000;0.1506;0.9716;
67.8000;0.1604;1.0024;
68.1000;0.1604;1.0000;
68.4000;0.1587;0.9929;
68.7000;0.1571;0.9906;
69.0000;0.1579;0.9906;
69.3000;0.1579;0.9882;
69.6000;0.1595;0.9929;
69.9000;0.1604;0.9953;
70.2000;0.1595;1.0048;
70.5000;0.1563;0.9882;
70.8000;0.1595;0.9953;
71.1000;0.1595;0.9977;
71.4000;0.1538;0.9858;
71.7000;0.1604;1.0024;
72.0000;0.1604;1.0048;
72.3000;0.1587;1.0071;
72.6000;0.1595;1.0000;
72.9000;0.1612;1.0024;
73.2000;0.1604;1.0048;
73.5000;0.1612;1.0119;
73.8000;0.1587;1.0024;
74.1000;0.1506;0.9858;
74.4000;0.1644;1.0237;
74.7000;0.1587;1.0048;
75.0000;0.1587;1.0071;
75.3000;0.1636;1.0095;
75.6000;0.1587;1.0024;
75.9000;0.1669;1.0143;
76.2000;0.1587;1.0000;
76.5000;0.1587;0.9977;
76.8000;0.1604;0.9977;
77.1000;0.1587;0.9977;
77.4000;0.1604;1.0000;
77.7000;0.1604;0.9953;
78.0000;0.1604;0.9953;
78.3000;0.1620;0.9929;
78.6000;0.1595;0.9834;
78.9000;0.1571;0.9834;
79.2000;0.1604;0.9882;
79.5000;0.1620;0.9977;
79.8000;0.1612;1.0000;
80.1000;0.1595;0.9882;
80.4000;0.1595;0.9906;
80.7000;0.1595;0.9906;
81.0000;0.1612;0.9929;
81.3000;0.1595;0.9811;
81.6000;0.1604;0.9787;
81.9000;0.1604;0.9787;
82.2000;0.1604;0.9787;
82.5000;0.1604;0.9811;
82.8000;0.1604;0.9858;
83.1000;0.1604;0.9929;
83.4000;0.1604;1.0000;
83.7000;0.1595;0.9953;
84.0000;0.1571;0.9906;
84.3000;0.1595;0.9929;
84.6000;0.1612;1.0024;
84.9000;0.1604;1.0071;
85.2000;0.1587;0.9929;
85.5000;0.1604;0.9929;
85.8000;0.1587;0.9834;
86.1000;0.1587;0.9834;
86.4000;0.1587;0.9740;
86.7000;0.1587;0.9740;
87.0000;0.1612;0.9834;
87.3000;0.1620;0.9858;
87.6000;0.1636;0.9834;
87.9000;0.1587;0.9763;
88.2000;0.1604;0.9906;
88.5000;0.1604;0.9811;
88.8000;0.1571;0.9692;
89.1000;0.1604;0.9787;
89.4000;0.1595;0.9834;
89.7000;0.1604;0.9929;
90.0000;0.1604;0.9953;
90.3000;0.1612;0.9906;
90.6000;0.1579;0.9882;
90.9000;0.1628;0.9977;
91.2000;0.1547;0.9763;
91.5000;0.1571;0.9834;
91.8000;0.1652;0.9977;
92.1000;0.1595;0.9787;
92.4000;0.1620;0.9882;
92.7000;0.1604;0.9882;
93.0000;0.1563;0.9763;
93.3000;0.1644;0.9977;
93.6000;0.1604;0.9858;
93.9000;0.1595;0.9953;
94.2000;0.1555;0.9834;
94.5000;0.1595;1.0000;
94.8000;0.1620;1.0024;
95.1000;0.1620;1.0000;
95.4000;0.1652;1.0095;
95.7000;0.1612;1.0048;
96.0000;0.1612;1.0024;
96.3000;0.1514;0.9811;
96.6000;0.1595;1.0048;
96.9000;0.1604;1.0071;
97.2000;0.1595;0.9977;
97.5000;0.1644;1.0071;
97.8000;0.1595;0.9953;
98.1000;0.1612;1.0048;
98.4000;0.1604;1.0000;
98.7000;0.1604;0.9953;
99.0000;0.1555;0.9858;
99.3000;0.1579;0.9834;
99.6000;0.1612;0.9906;
99.9000;0.1604;0.9811;
100.2000;0.1587;0.9834;
100.5000;0.1612;0.9906;
100.8000;0.1604;0.9977;
101.1000;0.1604;0.9977;
101.4000;0.1595;0.9977;
101.7000;0.1604;1.0000;
102.0000;0.1612;0.9953;
102.3000;0.1604;0.9882;
102.6000;0.1612;0.9929;
102.9000;0.1612;0.9906;
103.2000;0.1612;0.9858;
103.5000;0.1604;0.9834;
103.8000;0.1620;0.9882;
104.1000;0.1604;0.9858;
104.4000;0.1628;0.9882;
104.7000;0.1595;0.9834;
105.0000;0.1612;0.9834;
105.3000;0.1620;0.9834;
105.6000;0.1620;0.9858;
105.9000;0.1612;0.9787;
106.2000;0.1595;0.9740;
106.5000;0.1628;0.9811;
106.8000;0.1612;0.9763;
107.1000;0.1538;0.9597;
107.4000;0.1604;0.9716;
107.7000;0.1612;0.9692;
108.0000;0.1587;0.9621;
108.3000;0.1587;0.9574;
108.6000;0.1571;0.9574;
108.9000;0.1604;0.9669;
109.2000;0.1620;0.9669;
109.5000;0.1628;0.9621;
109.8000;0.1587;0.9479;
110.1000;0.1595;0.9526;
110.4000;0.1587;0.9621;
110.7000;0.1604;0.9669;
111.0000;0.1604;0.9716;
111.3000;0.1571;0.9645;
111.6000;0.1636;0.9787;
111.9000;0.1587;0.9669;
112.2000;0.1547;0.9574;
112.5000;0.1604;0.9763;
112.8000;0.1612;0.9787;
113.1000;0.1620;0.9811;
113.4000;0.1595;0.9740;
113.7000;0.1604;0.9787;
114.0000;0.1522;0.9858;
114.3000;0.1604;1.0119;
114.6000;0.1612;1.0166;
114.9000;0.1620;1.0190;
115.2000;0.1595;1.0166;
115.5000;0.1604;1.0095;
115.8000;0.1604;1.0095;
116.1000;0.1595;1.0095;
116.4000;0.1628;1.0166;
116.7000;0.1579;1.0024;
117.0000;0.1563;0.9882;
117.3000;0.1604;1.0000;
117.6000;0.1595;1.0000;
117.9000;0.1595;0.9953;
118.2000;0.1563;0.9858;
118.5000;0.1595;0.9953;
118.8000;0.1587;0.9858;
119.1000;0.1579;0.9811;
119.4000;0.1571;0.9787;
119.7000;0.1595;0.9858;
120.0000;0.1587;0.9882;
120.3000;0.1604;0.9834;
120.6000;0.1595;0.9834;
120.9000;0.1669;0.9953;
121.2000;0.1644;0.9834;
121.5000;0.1604;0.9763;
121.8000;0.1604;0.9787;
122.1000;0.1604;0.9787;
122.4000;0.1612;0.9763;
122.7000;0.1612;0.9834;
123.0000;0.1604;0.9858;
123.3000;0.1620;0.9929;
123.6000;0.1604;0.9882;
123.9000;0.1604;0.9882;
124.2000;0.1595;0.9787;
124.5000;0.1595;0.9834;
124.8000;0.1604;0.9906;
125.1000;0.1595;0.9858;
125.4000;0.1595;0.9882;
125.7000;0.1587;0.9929;
126.0000;0.1595;0.9953;
126.3000;0.1612;0.9929;
126.6000;0.1612;0.9953;
126.9000;0.1604;0.9953;
127.2000;0.1604;0.9882;
127.5000;0.1620;0.9953;
127.8000;0.1604;0.9953;
128.1000;0.1595;0.9929;
128.4000;0.1595;0.9906;
128.7000;0.1620;0.9953;
129.0000;0.1595;0.9929;
129.3000;0.1579;0.9811;
129.6000;0.1595;0.9858;
129.9000;0.1595;0.9858;
130.2000;0.1628;0.9953;
130.5000;0.1579;0.9858;
130.8000;0.1595;0.9929;
131.1000;0.1587;0.9906;
131.4000;0.1595;0.9882;
131.7000;0.1595;0.9692;
132.0000;0.1587;0.9692;
132.3000;0.1595;0.9621;
132.6000;0.1587;0.9621;
132.9000;0.1604;0.9763;
133.2000;0.1547;0.9621;
133.5000;0.1579;0.9740;
133.8000;0.1579;0.9716;
134.1000;0.1538;0.9669;
134.4000;0.1579;0.9787;
134.7000;0.1579;0.9882;
135.0000;0.1587;0.9858;
135.3000;0.1685;1.0048;
135.6000;0.1595;0.9834;
135.9000;0.1595;0.9906;
136.2000;0.1604;1.0000;
136.5000;0.1604;0.9906;
136.8000;0.1595;0.9834;
137.1000;0.1587;0.9834;
137.4000;0.1604;0.9882;
137.7000;0.1595;0.9882;
138.0000;0.1595;0.9882;
138.3000;0.1587;0.9834;
138.6000;0.1563;0.9787;
138.9000;0.1587;0.9834;
139.2000;0.1628;0.9811;
139.5000;0.1595;0.9597;
139.8000;0.1604;0.9597;
140.1000;0.1595;0.9645;
140.4000;0.1612;0.9692;
140.7000;0.1579;0.9645;
141.0000;0.1604;0.9787;
141.3000;0.1579;0.9740;
141.6000;0.1547;0.9645;
141.9000;0.1587;0.9692;
142.2000;0.1579;0.9597;
142.5000;0.1579;0.9597;
142.8000;0.1595;0.9669;
143.1000;0.1595;0.9597;
143.4000;0.1547;0.9503;
143.7000;0.1652;0.9811;
144.0000;0.1587;0.9645;
144.3000;0.1612;0.9716;
144.6000;0.1669;0.9787;
144.9000;0.1587;0.9597;
145.2000;0.1612;0.9597;
145.5000;0.1604;0.9621;
145.8000;0.1620;0.9692;
146.1000;0.1612;0.9740;
146.4000;0.1604;0.9692;
146.7000;0.1604;0.9621;
147.0000;0.1644;0.9692;
147.3000;0.1612;0.9574;
147.6000;0.1579;0.9574;
147.9000;0.1595;0.9692;
148.2000;0.1612;0.9740;
148.5000;0.1604;0.9787;
148.8000;0.1595;0.9858;
149.1000;0.1604;0.9882;
149.4000;0.1604;0.9882;
149.7000;0.1604;0.9858;
150.0000;0.1555;0.9763;
150.3000;0.1595;0.9882;
150.6000;0.1595;0.9929;
150.9000;0.1587;0.9882;
151.2000;0.1620;0.9953;
151.5000;0.1595;0.9787;
151.8000;0.1595;0.9858;
152.1000;0.1604;0.9858;
152.4000;0.1604;0.9834;
152.7000;0.1595;0.9716;
153.0000;0.1595;0.9645;
153.3000;0.1595;0.9597;
153.6000;0.1595;0.9550;
153.9000;0.1587;0.9526;
154.2000;0.1595;0.9479;
154.5000;0.1604;0.9574;
154.8000;0.1612;0.9692;
155.1000;0.1652;0.9858;
155.4000;0.1620;0.9763;
155.7000;0.1595;0.9716;
156.0000;0.1620;0.9740;
156.3000;0.1620;0.9811;
156.6000;0.1620;0.9882;
156.9000;0.1595;0.9834;
157.2000;0.1636;0.9953;
157.5000;0.1612;1.0000;
157.8000;0.1612;0.9858;
158.1000;0.1612;0.9834;
158.4000;0.1604;0.9834;
158.7000;0.1644;0.9906;
159.0000;0.1612;0.9787;
159.3000;0.1587;0.9787;
159.6000;0.1604;0.9834;
159.9000;0.1620;0.9858;
160.2000;0.1612;0.9787;
160.5000;0.1652;0.9929;
160.8000;0.1595;0.9811;
161.1000;0.1538;0.9716;
161.4000;0.1595;0.9882;
161.7000;0.1547;0.9669;
162.0000;0.1604;0.9763;
162.3000;0.1604;0.9692;
162.6000;0.1579;0.9645;
162.9000;0.1595;0.9763;
163.2000;0.1571;0.9645;
163.5000;0.1604;0.9692;
163.8000;0.1587;0.9716;
164.1000;0.1587;0.9669;
164.4000;0.1604;0.9716;
164.7000;0.1595;0.9645;
165.0000;0.1604;0.9645;
165.3000;0.1604;0.9740;
165.6000;0.1604;0.9811;
165.9000;0.1604;0.9882;
166.2000;0.1604;0.9977;
166.5000;0.1636;0.9977;
166.8000;0.1620;0.9882;
167.1000;0.1604;0.9834;
167.4000;0.1595;0.9811;
167.7000;0.1604;0.9834;
168.0000;0.1587;0.9787;
168.3000;0.1604;0.9882;
168.6000;0.1604;0.9834;
168.9000;0.1604;0.9811;
169.2000;0.1628;0.9906;
169.5000;0.1604;0.9787;
169.8000;0.1604;0.9740;
170.1000;0.1612;0.9811;
170.4000;0.1620;0.9882;
170.7000;0.1620;0.9858;
171.0000;0.1620;0.9811;
171.3000;0.1620;0.9858;
171.6000;0.1644;0.9953;
171.9000;0.1604;0.9929;
172.2000;0.1604;0.9834;
172.5000;0.1604;0.9858;
172.8000;0.1612;0.9929;
173.1000;0.1628;1.0024;
173.4000;0.1604;0.9953;
173.7000;0.1595;0.9882;
174.0000;0.1555;0.9787;
174.3000;0.1612;0.9953;
174.6000;0.1595;0.9929;
174.9000;0.1595;0.9977;
175.2000;0.1620;1.0000;
175.5000;0.1595;1.0048;
175.8000;0.1595;0.9929;
176.1000;0.1604;0.9953;
176.4000;0.1595;1.0000;
176.7000;0.1595;0.9953;
177.0000;0.1604;1.0000;
177.3000;0.1628;1.0024;
177.6000;0.1595;1.0000;
177.9000;0.1604;1.0024;
178.2000;0.1612;1.0024;
178.5000;0.1595;0.9929;
178.8000;0.1595;0.9906;
179.1000;0.1612;1.0000;
179.4000;0.1612;1.0024;
179.7000;0.1604;0.9953;
180.0000;0.1628;0.9953;
180.3000;0.1604;0.9882;
180.6000;0.1612;0.9929;
180.9000;0.1636;0.9929;
181.2000;0.1612;0.9834;
181.5000;0.1620;0.9858;
181.8000;0.1620;0.9906;
182.1000;0.1620;0.9953;
182.4000;0.1604;0.9929;
182.7000;0.1571;0.9882;
183.0000;0.1620;0.9929;
183.3000;0.1701;1.0095;
183.6000;0.1636;0.9906;
183.9000;0.1620;0.9929;
184.2000;0.1620;1.0000;
184.5000;0.1587;0.9977;
184.8000;0.1604;1.0024;
185.1000;0.1604;0.9977;
185.4000;0.1595;0.9906;
185.7000;0.1661;1.0024;
186.0000;0.1604;0.9882;
186.3000;0.1595;0.9882;
186.6000;0.1612;0.9882;
186.9000;0.1587;0.9906;
187.2000;0.1587;0.9977;
187.5000;0.1587;0.9977;
187.8000;0.1604;1.0024;
188.1000;0.1595;0.9953;
188.4000;0.1612;1.0048;
188.7000;0.1604;1.0095;
189.0000;0.1595;1.0048;
189.3000;0.1587;0.9906;
189.6000;0.1595;0.9953;
189.9000;0.1587;0.9906;
190.2000;0.1604;1.0000;
190.5000;0.1587;0.9977;
190.8000;0.1595;1.0095;
191.1000;0.1612;1.0048;
191.4000;0.1587;1.0095;
191.7000;0.1579;1.0119;
192.0000;0.1595;1.0095;
192.3000;0.1587;1.0071;
192.6000;0.1604;1.0095;
192.9000;0.1604;1.0119;
193.2000;0.1620;1.0143;
193.5000;0.1620;1.0119;
193.8000;0.1612;1.0000;
194.1000;0.1595;0.9977;
194.4000;0.1604;0.9906;
194.7000;0.1604;0.9953;
195.0000;0.1595;0.9977;
195.3000;0.1612;1.0000;
195.6000;0.1604;1.0000;
195.9000;0.1579;0.9953;
196.2000;0.1604;0.9953;
196.5000;0.1604;1.0024;
196.8000;0.1579;1.0000;
197.1000;0.1587;1.0024;
197.4000;0.1563;1.0000;
197.7000;0.1612;1.0071;
198.0000;0.1612;1.0095;
198.3000;0.1595;1.0048;
198.6000;0.1628;1.0143;
198.9000;0.1636;1.0143;
199.2000;0.1604;1.0024;
199.5000;0.1604;1.0000;
199.8000;0.1612;1.0000;
200.1000;0.1612;0.9977;
200.4000;0.1620;0.9953;
200.7000;0.1612;0.9882;
201.0000;0.1595;0.9858;
201.3000;0.1612;0.9953;
201.6000;0.1620;1.0048;
201.9000;0.1579;0.9906;
202.2000;0.1595;0.9882;
202.5000;0.1587;0.9929;
202.8000;0.1620;0.9977;
203.1000;0.1595;0.9929;
203.4000;0.1587;0.9953;
203.7000;0.1587;0.9882;
204.0000;0.1677;1.0190;
204.3000;0.1595;1.0048;
204.6000;0.1604;1.0119;
204.9000;0.1538;1.0048;
205.2000;0.1636;1.0261;
205.5000;0.1579;1.0119;
205.8000;0.1612;1.0119;
206.1000;0.1604;1.0095;
206.4000;0.1547;0.9929;
206.7000;0.1563;1.0143;
207.0000;0.1571;1.0143;
207.3000;0.1587;1.0166;
207.6000;0.1595;1.0143;
207.9000;0.1612;1.0071;
208.2000;0.1604;1.0000;
208.5000;0.1595;0.9929;
208.8000;0.1595;1.0000;
209.1000;0.1604;1.0024;
209.4000;0.1595;0.9977;
209.7000;0.1514;0.9763;
210.0000;0.1661;1.0095;
210.3000;0.1612;1.0048;
210.6000;0.1636;1.0048;
210.9000;0.1612;1.0048;
211.2000;0.1587;1.0071;
211.5000;0.1587;1.0095;
211.8000;0.1604;1.0095;
212.1000;0.1612;1.0071;
212.4000;0.1620;1.0166;
212.7000;0.1612;1.0143;
213.0000;0.1579;1.0071;
213.3000;0.1604;1.0071;
213.6000;0.1604;1.0048;
213.9000;0.1628;1.0119;
214.2000;0.1620;1.0119;
214.5000;0.1595;1.0048;
214.8000;0.1587;1.0048;
215.1000;0.1579;1.0024;
215.4000;0.1604;1.0024;
215.7000;0.1604;1.0048;
216.0000;0.1604;1.0071;
216.3000;0.1612;1.0071;
216.6000;0.1612;0.9953;
216.9000;0.1612;0.9977;
217.2000;0.1604;0.9953;
217.5000;0.1612;1.0000;
217.8000;0.1636;1.0119;
218.1000;0.1612;1.0095;
218.4000;0.1612;1.0048;
218.7000;0.1612;1.0071;
219.0000;0.1620;1.0071;
219.3000;0.1595;1.0000;
219.6000;0.1628;1.0024;
219.9000;0.1595;1.0024;
220.2000;0.1555;0.9858;
220.5000;0.1595;0.9906;
220.8000;0.1555;0.9882;
221.1000;0.1555;0.9811;
221.4000;0.1612;0.9882;
221.7000;0.1587;0.9811;
222.0000;0.1595;0.9882;
222.3000;0.1595;0.9882;
222.6000;0.1579;0.9811;
222.9000;0.1595;0.9906;
223.2000;0.1604;0.9953;
223.5000;0.1604;0.9977;
223.8000;0.1604;0.9977;
224.1000;0.1587;1.0000;
224.4000;0.1620;0.9977;
224.7000;0.1612;0.9953;
225.0000;0.1612;0.9929;
225.3000;0.1620;0.9929;
225.6000;0.1595;0.9787;
225.9000;0.1604;0.9787;
226.2000;0.1571;0.9740;
226.5000;0.1587;0.9811;
226.8000;0.1612;0.9834;
227.1000;0.1612;0.9858;
227.4000;0.1612;0.9882;
227.7000;0.1628;0.9953;
228.0000;0.1612;0.9929;
228.3000;0.1514;0.9716;
228.6000;0.1587;0.9953;
228.9000;0.1579;0.9977;
229.2000;0.1587;0.9906;
229.5000;0.1538;0.9787;
229.8000;0.1579;0.9882;
230.1000;0.1547;0.9787;
230.4000;0.1604;0.9929;
230.7000;0.1538;0.9740;
231.0000;0.1620;0.9929;
231.3000;0.1571;0.9763;
231.6000;0.1636;0.9929;
231.9000;0.1612;0.9882;
232.2000;0.1595;0.9906;
232.5000;0.1595;1.0048;
232.8000;0.1587;1.0071;
233.1000;0.1595;1.0143;
233.4000;0.1644;1.0214;
233.7000;0.1587;1.0071;
234.0000;0.1620;1.0214;
234.3000;0.1595;1.0166;
234.6000;0.1636;1.0214;
234.9000;0.1595;1.0000;
235.2000;0.1595;1.0000;
235.5000;0.1595;0.9906;
235.8000;0.1555;0.9858;
236.1000;0.1595;1.0095;
236.4000;0.1652;1.0237;
236.7000;0.1604;1.0048;
237.0000;0.1604;1.0024;
237.3000;0.1595;1.0095;
237.6000;0.1595;1.0095;
237.9000;0.1555;1.0048;
238.2000;0.1595;1.0048;
238.5000;0.1604;1.0024;
238.8000;0.1612;0.9977;
239.1000;0.1604;0.9953;
239.4000;0.1604;0.9953;
239.7000;0.1595;0.9953;
240.0000;0.1579;0.9906;
240.3000;0.1604;0.9834;
240.6000;0.1595;0.9834;
240.9000;0.1604;0.9906;
241.2000;0.1563;0.9787;
241.5000;0.1604;0.9882;
241.8000;0.1612;0.9977;
242.1000;0.1604;1.0000;
242.4000;0.1595;1.0000;
242.7000;0.1595;1.0024;
243.0000;0.1620;1.0048;
243.3000;0.1612;1.0024;
243.6000;0.1595;0.9977;
243.9000;0.1620;0.9977;
244.2000;0.1612;0.9953;
244.5000;0.1604;0.9906;
244.8000;0.1612;0.9977;
245.1000;0.1595;1.0024;
245.4000;0.1604;1.0095;
245.7000;0.1628;1.0071;
246.0000;0.1604;0.9929;
246.3000;0.1595;0.9882;
246.6000;0.1587;0.9858;
246.9000;0.1595;0.9929;
247.2000;0.1555;0.9929;
247.5000;0.1612;1.0024;
247.8000;0.1587;0.9977;
248.1000;0.1595;1.0000;
248.4000;0.1595;0.9977;
248.7000;0.1595;0.9929;
249.0000;0.1604;0.9906;
249.3000;0.1587;0.9834;
249.6000;0.1612;0.9858;
249.9000;0.1612;0.9882;
250.2000;0.1595;1.0024;
250.5000;0.1620;1.0024;
250.8000;0.1612;0.9977;
251.1000;0.1595;0.9929;
251.4000;0.1595;0.9834;
251.7000;0.1612;0.9882;
252.0000;0.1612;0.9882;
252.3000;0.1628;1.0048;
252.6000;0.1595;0.9977;
252.9000;0.1579;0.9977;
253.2000;0.1612;1.0048;
253.5000;0.1587;0.9953;
253.8000;0.1595;1.0024;
254.1000;0.1636;1.0048;
254.4000;0.1595;0.9929;
254.7000;0.1604;0.9953;
255.0000;0.1595;1.0024;
255.3000;0.1612;0.9977;
255.6000;0.1604;0.9811;
255.9000;0.1604;0.9834;
256.2000;0.1604;0.9763;
256.5000;0.1595;0.9858;
256.8000;0.1620;0.9858;
257.1000;0.1595;0.9906;
257.4000;0.1595;0.9929;
257.7000;0.1620;1.0024;
258.0000;0.1579;1.0024;
258.3000;0.1612;1.0119;
258.6000;0.1620;1.0095;
258.9000;0.1563;0.9834;
259.2000;0.1587;0.9882;
259.5000;0.1612;0.9811;
259.8000;0.1620;0.9906;
260.1000;0.1571;0.9858;
260.4000;0.1587;0.9882;
260.7000;0.1595;0.9858;
261.0000;0.1604;0.9858;
261.3000;0.1612;0.9906;
261.6000;0.1612;0.9858;
261.9000;0.1587;0.9882;
262.2000;0.1595;0.9882;
262.5000;0.1595;0.9906;
262.8000;0.1595;0.9929;
263.1000;0.1587;0.9929;
263.4000;0.1652;1.0071;
263.7000;0.1571;0.9763;
264.0000;0.1620;0.9882;
264.3000;0.1587;0.9834;
264.6000;0.1612;0.9906;
264.9000;0.1669;1.0048;
265.2000;0.1628;0.9858;
265.5000;0.1587;0.9882;
265.8000;0.1595;0.9882;
266.1000;0.1628;1.0024;
266.4000;0.1612;1.0071;
266.7000;0.1604;1.0024;
267.0000;0.1595;0.9977;
267.3000;0.1612;1.0000;
267.6000;0.1612;0.9977;
267.9000;0.1612;0.9977;
268.2000;0.1571;0.9811;
268.5000;0.1604;0.9834;
268.8000;0.1595;0.9834;
269.1000;0.1612;0.9953;
269.4000;0.1587;0.9977;
269.7000;0.1604;1.0000;
270.0000;0.1595;0.9929;
270.3000;0.1604;0.9929;
270.6000;0.1604;1.0000;
270.9000;0.1612;1.0071;
271.2000;0.1604;1.0048;
271.5000;0.1612;1.0048;
271.8000;0.1604;1.0000;
272.1000;0.1579;0.9953;
272.4000;0.1604;0.9906;
272.7000;0.1620;0.9834;
273.0000;0.1612;0.9834;
273.3000;0.1612;0.9834;
273.6000;0.1620;0.9882;
273.9000;0.1604;0.9811;
274.2000;0.1595;0.9834;
274.5000;0.1628;0.9882;
274.8000;0.1587;0.9882;
275.1000;0.1595;0.9929;
275.4000;0.1604;0.9906;
275.7000;0.1563;0.9906;
276.0000;0.1612;0.9977;
276.3000;0.1587;0.9929;
276.6000;0.1547;0.9811;
276.9000;0.1604;0.9953;
277.2000;0.1595;0.9977;
277.5000;0.1579;0.9953;
277.8000;0.1604;0.9953;
278.1000;0.1587;0.9882;
278.4000;0.1604;0.9882;
278.7000;0.1595;0.9929;
279.0000;0.1604;0.9906;
279.3000;0.1604;0.9882;
279.6000;0.1571;0.9716;
279.9000;0.1587;0.9763;
280.2000;0.1604;0.9834;
280.5000;0.1563;0.9692;
280.8000;0.1595;0.9669;
281.1000;0.1587;0.9716;
281.4000;0.1579;0.9692;
281.7000;0.1604;0.9763;
282.0000;0.1555;0.9692;
282.3000;0.1595;0.9811;
282.6000;0.1587;0.9763;
282.9000;0.1604;0.9763;
283.2000;0.1612;0.9787;
283.5000;0.1595;0.9811;
283.8000;0.1595;0.9834;
284.1000;0.1595;0.9906;
284.4000;0.1685;1.0143;
284.7000;0.1587;0.9906;
285.0000;0.1604;0.9953;
285.3000;0.1604;0.9929;
285.6000;0.1595;0.9906;
285.9000;0.1620;0.9858;
286.2000;0.1587;0.9763;
286.5000;0.1595;0.9716;
286.8000;0.1620;0.9787;
287.1000;0.1555;0.9597;
287.4000;0.1595;0.9740;
287.7000;0.1612;0.9740;
288.0000;0.1612;0.9763;
288.3000;0.1628;0.9858;
288.6000;0.1595;0.9811;
288.9000;0.1555;0.9716;
289.2000;0.1595;0.9763;
289.5000;0.1587;0.9763;
289.8000;0.1612;0.9787;
290.1000;0.1604;0.9716;
290.4000;0.1547;0.9597;
290.7000;0.1612;0.9716;
291.0000;0.1563;0.9716;
291.3000;0.1595;0.9834;
291.6000;0.1644;0.9929;
291.9000;0.1595;0.9953;
292.2000;0.1612;0.9882;
292.5000;0.1604;0.9811;
292.8000;0.1595;0.9811;
293.1000;0.1595;0.9811;
293.4000;0.1604;0.9811;
293.7000;0.1604;0.9882;
294.0000;0.1522;0.9716;
294.3000;0.1612;0.9929;
294.6000;0.1595;0.9953;
294.9000;0.1604;0.9953;
295.2000;0.1604;0.9929;
295.5000;0.1587;0.9906;
295.8000;0.1595;0.9858;
296.1000;0.1595;0.9858;
296.4000;0.1595;0.9906;
296.7000;0.1595;0.9882;
297.0000;0.1587;0.9977;
297.3000;0.1587;1.0071;
297.6000;0.1604;1.0071;
297.9000;0.1604;1.0000;
298.2000;0.1595;0.9953;
298.5000;0.1595;0.9953;
298.8000;0.1612;1.0048;
299.1000;0.1620;1.0071;
299.4000;0.1595;0.9977;
299.7000;0.1620;1.0071;
300.0000;0.1604;1.0024;
300.3000;0.1612;0.9953;
300.6000;0.1595;0.9906;
300.9000;0.1604;0.9906;
301.2000;0.1595;0.9929;
301.5000;0.1604;1.0048;
301.8000;0.1604;0.9977;
302.1000;0.1604;0.9953;
302.4000;0.1595;1.0048;
302.7000;0.1604;1.0048;
303.0000;0.1595;1.0071;
303.3000;0.1604;1.0119;
303.6000;0.1604;1.0095;
303.9000;0.1620;1.0095;
304.2000;0.1612;1.0143;
304.5000;0.1595;1.0143;
304.8000;0.1604;1.0190;
305.1000;0.1595;1.0095;
305.4000;0.1620;1.0119;
305.7000;0.1604;1.0000;
306.0000;0.1604;0.9929;
306.3000;0.1595;0.9977;
306.6000;0.1636;1.0119;
306.9000;0.1595;1.0095;
307.2000;0.1604;1.0024;
307.5000;0.1587;1.0024;
307.8000;0.1620;1.0024;
308.1000;0.1547;0.9953;
308.4000;0.1612;1.0095;
308.7000;0.1595;1.0048;
309.0000;0.1644;1.0024;
309.3000;0.1604;0.9929;
309.6000;0.1612;0.9882;
309.9000;0.1612;0.9882;
310.2000;0.1604;0.9929;
310.5000;0.1612;0.9858;
310.8000;0.1595;0.9834;
311.1000;0.1612;0.9858;
311.4000;0.1620;0.9882;
311.7000;0.1612;0.9906;
312.0000;0.1612;0.9929;
312.3000;0.1595;0.9929;
312.6000;0.1595;0.9953;
312.9000;0.1612;0.9906;
313.2000;0.1604;0.9858;
313.5000;0.1587;0.9882;
313.8000;0.1522;0.9597;
314.1000;0.1587;0.9740;
314.4000;0.1604;0.9763;
314.7000;0.1587;0.9740;
315.0000;0.1587;0.9763;
315.3000;0.1547;0.9716;
315.6000;0.1612;0.9953;
315.9000;0.1579;0.9834;
316.2000;0.1652;0.9977;
316.5000;0.1604;0.9811;
316.8000;0.1620;0.9787;
317.1000;0.1612;0.9740;
317.4000;0.1620;0.9834;
317.7000;0.1595;0.9834;
318.0000;0.1595;0.9858;
318.3000;0.1595;0.9834;
318.6000;0.1612;0.9811;
318.9000;0.1604;0.9906;
319.2000;0.1612;0.9834;
319.5000;0.1612;0.9906;
319.8000;0.1604;0.9811;
320.1000;0.1587;0.9740;
320.4000;0.1612;0.9811;
320.7000;0.1579;0.9669;
321.0000;0.1595;0.9763;
321.3000;0.1612;0.9763;
321.6000;0.1595;0.9834;
321.9000;0.1595;0.9882;
322.2000;0.1669;1.0071;
322.5000;0.1555;0.9740;
322.8000;0.1587;0.9882;
323.1000;0.1595;0.9906;
323.4000;0.1612;0.9929;
323.7000;0.1587;0.9882;
324.0000;0.1579;0.9811;
324.3000;0.1620;0.9906;
324.6000;0.1587;0.9858;
324.9000;0.1587;0.9834;
325.2000;0.1587;0.9787;
325.5000;0.1595;0.9882;
325.8000;0.1595;0.9929;
326.1000;0.1587;1.0000;
326.4000;0.1595;0.9929;
326.7000;0.1595;0.9953;
327.0000;0.1595;1.0000;
327.3000;0.1587;0.9906;
327.6000;0.1587;0.9906;
327.9000;0.1620;0.9977;
328.2000;0.1595;0.9953;
328.5000;0.1595;1.0000;
328.8000;0.1612;1.0024;
329.1000;0.1612;1.0048;
329.4000;0.1604;1.0071;
329.7000;0.1604;0.9977;
330.0000;0.1571;0.9882;
330.3000;0.1604;0.9882;
330.6000;0.1587;0.9787;
330.9000;0.1628;0.9858;
331.2000;0.1604;0.9740;
331.5000;0.1612;0.9716;
331.8000;0.1595;0.9645;
332.1000;0.1620;0.9811;
332.4000;0.1628;0.9858;
332.7000;0.1571;0.9787;
333.0000;0.1579;0.9882;
333.3000;0.1595;0.9929;
333.6000;0.1595;0.9953;
333.9000;0.1661;1.0048;
334.2000;0.1595;0.9953;
334.5000;0.1604;1.0000;
334.8000;0.1620;1.0048;
335.1000;0.1587;0.9977;
335.4000;0.1587;0.9811;
335.7000;0.1595;0.9716;
336.0000;0.1579;0.9716;
336.3000;0.1620;0.9929;
336.6000;0.1604;0.9811;
336.9000;0.1595;0.9811;
337.2000;0.1612;0.9763;
337.5000;0.1612;0.9763;
337.8000;0.1661;0.9953;
338.1000;0.1604;0.9740;
338.4000;0.1522;0.9574;
338.7000;0.1612;0.9740;
339.0000;0.1604;0.9645;
339.3000;0.1604;0.9597;
339.6000;0.1604;0.9645;
339.9000;0.1595;0.9597;
340.2000;0.1514;0.9432;
340.5000;0.1579;0.9550;
340.8000;0.1612;0.9669;
341.1000;0.1595;0.9669;
341.4000;0.1604;0.9645;
341.7000;0.1604;0.9621;
342.0000;0.1612;0.9574;
342.3000;0.1612;0.9621;
342.6000;0.1604;0.9574;
342.9000;0.1604;0.9574;
343.2000;0.1595;0.9550;
343.5000;0.1595;0.9550;
343.8000;0.1644;0.9621;
344.1000;0.1579;0.9479;
344.4000;0.1628;0.9455;
344.7000;0.1587;0.9408;
345.0000;0.1620;0.9526;
345.3000;0.1652;0.9669;
345.6000;0.1538;0.9503;
345.9000;0.1612;0.9645;
346.2000;0.1636;0.9716;
346.5000;0.1595;0.9621;
346.8000;0.1579;0.9597;
347.1000;0.1628;0.9645;
347.4000;0.1595;0.9479;
347.7000;0.1530;0.9361;
348.0000;0.1669;0.9692;
348.3000;0.1587;0.9574;
348.6000;0.1612;0.9692;
348.9000;0.1620;0.9740;
349.2000;0.1595;0.9669;
349.5000;0.1595;0.9740;
349.8000;0.1604;0.9787;
350.1000;0.1595;0.9763;
350.4000;0.1571;0.9669;
350.7000;0.1587;0.9669;
351.0000;0.1587;0.9692;
351.3000;0.1595;0.9763;
351.6000;0.1604;0.9811;
351.9000;0.1587;0.9787;
352.2000;0.1587;0.9763;
352.5000;0.1595;0.9763;
352.8000;0.1604;0.9787;
353.1000;0.1595;0.9763;
353.4000;0.1604;0.9716;
353.7000;0.1579;0.9597;
354.0000;0.1604;0.9550;
354.3000;0.1595;0.9597;
354.6000;0.1595;0.9763;
354.9000;0.1636;0.9929;
355.2000;0.1612;0.9763;
355.5000;0.1604;0.9692;
355.8000;0.1604;0.9669;
356.1000;0.1595;0.9692;
356.4000;0.1587;0.9669;
356.7000;0.1595;0.9621;
357.0000;0.1595;0.9692;
357.3000;0.1595;0.9669;
357.6000;0.1595;0.9597;
357.9000;0.1612;0.9526;
358.2000;0.1579;0.9455;
358.5000;0.1587;0.9503;
358.8000;0.1604;0.9503;
359.1000;0.1571;0.9479;
359.4000;0.1587;0.9550;
359.7000;0.1587;0.9550;
360.0000;0.1595;0.9526;
360.3000;0.1595;0.9597;
360.6000;0.1612;0.9716;
360.9000;0.1595;0.9716;
361.2000;0.1538;0.9526;
361.5000;0.1587;0.9645;
361.8000;0.1579;0.9597;
362.1000;0.1612;0.9716;
362.4000;0.1595;0.9787;
362.7000;0.1595;0.9763;
363.0000;0.1595;0.9716;
363.3000;0.1579;0.9669;
363.6000;0.1620;0.9787;
363.9000;0.1587;0.9740;
364.2000;0.1563;0.9692;
364.5000;0.1595;0.9692;
364.8000;0.1620;0.9669;
365.1000;0.1595;0.9621;
365.4000;0.1595;0.9645;
365.7000;0.1563;0.9550;
366.0000;0.1612;0.9669;
366.3000;0.1620;0.9740;
366.6000;0.1563;0.9692;
366.9000;0.1563;0.9763;
367.2000;0.1595;0.9882;
367.5000;0.1587;0.9811;
367.8000;0.1636;0.9929;
368.1000;0.1620;0.9882;
368.4000;0.1604;0.9740;
368.7000;0.1587;0.9669;
369.0000;0.1604;0.9787;
369.3000;0.1595;0.9882;
369.6000;0.1595;0.9929;
369.9000;0.1604;0.9858;
370.2000;0.1595;0.9834;
370.5000;0.1587;0.9811;
370.8000;0.1579;0.9716;
371.1000;0.1604;0.9811;
371.4000;0.1595;0.9692;
371.7000;0.1604;0.9763;
372.0000;0.1612;0.9740;
372.3000;0.1604;0.9621;
372.6000;0.1612;0.9597;
372.9000;0.1628;0.9645;
373.2000;0.1595;0.9597;
373.5000;0.1628;0.9692;
373.8000;0.1612;0.9692;
374.1000;0.1604;0.9740;
374.4000;0.1595;0.9692;
374.7000;0.1595;0.9645;
375.0000;0.1612;0.9597;
375.3000;0.1604;0.9597;
375.6000;0.1571;0.9597;
375.9000;0.1628;0.9811;
376.2000;0.1604;0.9787;
376.5000;0.1652;0.9858;
376.8000;0.1604;0.9740;
377.1000;0.1587;0.9716;
377.4000;0.1595;0.9787;
377.7000;0.1620;0.9858;
378.0000;0.1571;0.9740;
378.3000;0.1587;0.9740;
378.6000;0.1563;0.9716;
378.9000;0.1595;0.9740;
379.2000;0.1604;0.9763;
379.5000;0.1604;0.9763;
379.8000;0.1579;0.9834;
380.1000;0.1563;0.9787;
380.4000;0.1587;0.9787;
380.7000;0.1587;0.9858;
381.0000;0.1587;0.9929;
381.3000;0.1587;0.9977;
381.6000;0.1604;0.9906;
381.9000;0.1604;0.9858;
382.2000;0.1612;0.9811;
382.5000;0.1604;0.9740;
382.8000;0.1620;0.9811;
383.1000;0.1579;0.9692;
383.4000;0.1595;0.9740;
383.7000;0.1604;0.9740;
384.0000;0.1579;0.9787;
384.3000;0.1579;0.9692;
384.6000;0.1587;0.9787;
384.9000;0.1595;0.9834;
385.2000;0.1571;0.9740;
385.5000;0.1595;0.9716;
385.8000;0.1595;0.9740;
386.1000;0.1612;0.9834;
386.4000;0.1595;0.9716;
386.7000;0.1587;0.9763;
387.0000;0.1628;0.9834;
387.3000;0.1555;0.9621;
387.6000;0.1595;0.9645;
387.9000;0.1587;0.9669;
388.2000;0.1604;0.9716;
388.5000;0.1595;0.9669;
388.8000;0.1587;0.9645;
389.1000;0.1604;0.9716;
389.4000;0.1612;0.9763;
389.7000;0.1595;0.9716;
390.0000;0.1612;0.9716;
390.3000;0.1636;0.9811;
390.6000;0.1612;0.9740;
390.9000;0.1587;0.9669;
391.2000;0.1587;0.9645;
391.5000;0.1612;0.9716;
391.8000;0.1595;0.9740;
392.1000;0.1604;0.9763;
392.4000;0.1571;0.9763;
392.7000;0.1595;0.9787;
393.0000;0.1587;0.9669;
393.3000;0.1612;0.9597;
393.6000;0.1612;0.9645;
393.9000;0.1595;0.9574;
394.2000;0.1595;0.9669;
394.5000;0.1612;0.9763;
394.8000;0.1587;0.9740;
395.1000;0.1587;0.9669;
395.4000;0.1595;0.9716;
395.7000;0.1604;0.9621;
396.0000;0.1604;0.9597;
396.3000;0.1595;0.9692;
396.6000;0.1579;0.9692;
396.9000;0.1612;0.9692;
397.2000;0.1604;0.9597;
397.5000;0.1604;0.9597;
397.8000;0.1587;0.9550;
398.1000;0.1563;0.9503;
398.4000;0.1620;0.9692;
398.7000;0.1604;0.9597;
399.0000;0.1612;0.9669;
399.3000;0.1595;0.9716;
399.6000;0.1595;0.9692;
399.9000;0.1652;0.9834;
400.2000;0.1579;0.9621;
400.5000;0.1587;0.9550;
400.8000;0.1604;0.9597;
401.1000;0.1595;0.9597;
401.4000;0.1644;0.9763;
401.7000;0.1595;0.9669;
402.0000;0.1555;0.9597;
402.3000;0.1595;0.9740;
402.6000;0.1612;0.9763;
402.9000;0.1604;0.9834;
403.2000;0.1587;0.9740;
403.5000;0.1595;0.9716;
403.8000;0.1604;0.9692;
404.1000;0.1595;0.9716;
404.4000;0.1587;0.9787;
404.7000;0.1636;0.9858;
405.0000;0.1620;0.9811;
405.3000;0.1563;0.9740;
405.6000;0.1595;0.9787;
405.9000;0.1579;0.9740;
406.2000;0.1555;0.9740;
406.5000;0.1587;0.9787;
406.8000;0.1587;0.9763;
407.1000;0.1587;0.9787;
407.4000;0.1604;0.9716;
407.7000;0.1587;0.9645;
408.0000;0.1587;0.9692;
408.3000;0.1595;0.9692;
408.6000;0.1612;0.9811;
408.9000;0.1595;0.9763;
409.2000;0.1604;0.9740;
409.5000;0.1595;0.9763;
409.8000;0.1604;0.9763;
410.1000;0.1612;0.9882;
410.4000;0.1628;0.9882;
410.7000;0.1604;0.9740;
411.0000;0.1604;0.9716;
411.3000;0.1563;0.9574;
411.6000;0.1612;0.9621;
411.9000;0.1604;0.9597;
412.2000;0.1604;0.9645;
412.5000;0.1628;0.9669;
412.8000;0.1612;0.9716;
413.1000;0.1587;0.9692;
413.4000;0.1604;0.9669;
413.7000;0.1522;0.9645;
414.0000;0.1595;0.9929;
414.3000;0.1620;0.9977;
414.6000;0.1587;0.9858;
414.9000;0.1587;0.9787;
415.2000;0.1612;0.9811;
415.5000;0.1620;0.9929;
415.8000;0.1604;0.9858;
416.1000;0.1595;0.9763;
416.4000;0.1595;0.9787;
416.7000;0.1604;0.9834;
417.0000;0.1604;0.9834;
417.3000;0.1587;0.9858;
417.6000;0.1604;0.9834;
417.9000;0.1587;0.9811;
418.2000;0.1604;0.9787;
418.5000;0.1579;0.9763;
418.8000;0.1595;0.9740;
419.1000;0.1595;0.9763;
419.4000;0.1604;0.9763;
419.7000;0.1620;0.9716;
420.0000;0.1587;0.9645;
420.3000;0.1604;0.9692;
420.6000;0.1620;0.9811;
420.9000;0.1595;0.9834;
421.2000;0.1604;0.9858;
421.5000;0.1579;0.9929;
421.8000;0.1595;0.9929;
422.1000;0.1587;0.9953;
422.4000;0.1604;1.0000;
422.7000;0.1595;1.0048;
423.0000;0.1612;1.0048;
423.3000;0.1604;1.0024;
423.6000;0.1669;1.0119;
423.9000;0.1636;1.0024;
424.2000;0.1620;0.9953;
424.5000;0.1652;1.0071;
424.8000;0.1636;1.0000;
425.1000;0.1595;0.9906;
425.4000;0.1604;0.9858;
425.7000;0.1547;0.9716;
426.0000;0.1595;0.9834;
426.3000;0.1587;0.9858;
426.6000;0.1604;0.9858;
426.9000;0.1555;0.9811;
427.2000;0.1612;0.9882;
427.5000;0.1587;0.9787;
427.8000;0.1579;0.9787;
428.1000;0.1612;0.9763;
428.4000;0.1595;0.9692;
428.7000;0.1579;0.9763;
429.0000;0.1587;0.9763;
429.3000;0.1587;0.9811;
429.6000;0.1604;0.9906;
429.9000;0.1604;0.9906;
430.2000;0.1595;0.9953;
430.5000;0.1604;0.9929;
430.8000;0.1644;1.0024;
431.1000;0.1612;0.9906;
431.4000;0.1628;0.9953;
431.7000;0.1612;0.9906;
432.0000;0.1604;0.9858;
432.3000;0.1644;0.9953;
432.6000;0.1587;0.9834;
432.9000;0.1579;0.9882;
433.2000;0.1620;0.9953;
433.5000;0.1604;0.9834;
433.8000;0.1612;0.9787;
434.1000;0.1604;0.9740;
434.4000;0.1595;0.9763;
434.7000;0.1595;0.9716;
435.0000;0.1612;0.9716;
435.3000;0.1595;0.9621;
435.6000;0.1595;0.9621;
435.9000;0.1612;0.9621;
436.2000;0.1587;0.9621;
436.5000;0.1587;0.9455;
436.8000;0.1620;0.9597;
437.1000;0.1595;0.9645;
437.4000;0.1595;0.9740;
437.7000;0.1579;0.9669;
438.0000;0.1555;0.9574;
438.3000;0.1644;0.9858;
438.6000;0.1644;0.9882;
438.9000;0.1620;0.9858;
439.2000;0.1604;0.9882;
439.5000;0.1620;0.9834;
439.8000;0.1587;0.9716;
440.1000;0.1555;0.9740;
440.4000;0.1595;0.9787;
440.7000;0.1587;0.9763;
441.0000;0.1547;0.9692;
441.3000;0.1669;1.0095;
441.6000;0.1644;1.0048;
441.9000;0.1555;0.9834;
442.2000;0.1604;0.9906;
442.5000;0.1595;0.9834;
442.8000;0.1620;0.9906;
443.1000;0.1571;0.9763;
443.4000;0.1587;0.9740;
443.7000;0.1587;0.9692;
444.0000;0.1604;0.9763;
444.3000;0.1587;0.9787;
444.6000;0.1555;0.9716;
444.9000;0.1595;0.9858;
445.2000;0.1595;0.9834;
445.5000;0.1595;0.9787;
445.8000;0.1604;0.9858;
446.1000;0.1636;0.9858;
446.4000;0.1604;0.9787;
446.7000;0.1612;0.9787;
447.0000;0.1612;0.9787;
447.3000;0.1612;0.9787;
447.6000;0.1620;0.9787;
447.9000;0.1612;0.9858;
448.2000;0.1604;0.9858;
448.5000;0.1612;0.9858;
448.8000;0.1612;0.9929;
449.1000;0.1604;0.9929;
449.4000;0.1612;0.9834;
449.7000;0.1555;0.9763;
450.0000;0.1661;0.9953;
450.3000;0.1620;0.9906;
450.6000;0.1604;0.9858;
450.9000;0.1595;0.9811;
451.2000;0.1604;0.9763;
451.5000;0.1620;0.9834;
451.8000;0.1595;0.9716;
452.1000;0.1579;0.9645;
452.4000;0.1595;0.9669;
452.7000;0.1604;0.9645;
453.0000;0.1612;0.9692;
453.3000;0.1612;0.9716;
453.6000;0.1587;0.9716;
453.9000;0.1579;0.9740;
454.2000;0.1612;0.9858;
454.5000;0.1644;1.0000;
454.8000;0.1571;0.9834;
455.1000;0.1612;0.9882;
455.4000;0.1612;1.0000;
455.7000;0.1604;0.9953;
456.0000;0.1604;0.9953;
456.3000;0.1612;0.9953;
456.6000;0.1612;0.9858;
456.9000;0.1604;0.9882;
457.2000;0.1555;0.9740;
457.5000;0.1620;0.9858;
457.8000;0.1612;0.9858;
458.1000;0.1612;0.9929;
458.4000;0.1604;0.9882;
458.7000;0.1604;0.9763;
459.0000;0.1571;0.9740;
459.3000;0.1652;0.9882;
459.6000;0.1604;0.9811;
459.9000;0.1612;0.9858;
460.2000;0.1620;0.9953;
460.5000;0.1579;0.9906;
460.8000;0.1628;0.9929;
461.1000;0.1595;0.9787;
461.4000;0.1595;0.9882;
461.7000;0.1595;0.9834;
462.0000;0.1595;0.9858;
462.3000;0.1620;0.9882;
462.6000;0.1612;0.9787;
462.9000;0.1620;0.9811;
463.2000;0.1620;0.9834;
463.5000;0.1563;0.9740;
463.8000;0.1595;0.9834;
464.1000;0.1587;0.9811;
464.4000;0.1604;0.9882;
464.7000;0.1595;0.9953;
465.0000;0.1595;0.9977;
465.3000;0.1555;0.9906;
465.6000;0.1604;1.0048;
465.9000;0.1612;0.9953;
466.2000;0.1669;1.0143;
466.5000;0.1571;0.9953;
466.8000;0.1652;1.0190;
467.1000;0.1604;1.0095;
467.4000;0.1628;1.0119;
467.7000;0.1595;1.0048;
468.0000;0.1587;1.0048;
468.3000;0.1595;1.0119;
468.6000;0.1571;1.0048;
468.9000;0.1595;1.0000;
469.2000;0.1604;1.0024;
469.5000;0.1620;1.0119;
469.8000;0.1693;1.0332;
470.1000;0.1612;1.0214;
470.4000;0.1595;1.0214;
470.7000;0.1612;1.0237;
471.0000;0.1604;1.0143;
471.3000;0.1595;1.0048;
471.6000;0.1595;1.0000;
471.9000;0.1595;0.9953;
472.2000;0.1604;0.9953;
472.5000;0.1579;0.9929;
472.8000;0.1604;0.9882;
473.1000;0.1652;0.9953;
473.4000;0.1612;0.9929;
473.7000;0.1604;0.9953;
474.0000;0.1579;0.9858;
474.3000;0.1595;1.0000;
474.6000;0.1595;0.9977;
474.9000;0.1669;1.0095;
475.2000;0.1595;0.9906;
475.5000;0.1595;0.9953;
475.8000;0.1595;0.9929;
476.1000;0.1595;0.9977;
476.4000;0.1620;1.0024;
476.7000;0.1595;0.9929;
477.0000;0.1571;0.9858;
477.3000;0.1628;0.9953;
477.6000;0.1620;0.9977;
477.9000;0.1628;1.0000;
478.2000;0.1604;0.9906;
478.5000;0.1620;1.0024;
478.8000;0.1652;1.0119;
479.1000;0.1595;0.9953;
479.4000;0.1579;0.9834;
479.7000;0.1587;0.9882;
480.0000;0.1579;0.9858;
480.3000;0.1530;0.9740;
480.6000;0.1587;0.9929;
480.9000;0.1587;1.0048;
481.2000;0.1604;1.0000;
481.5000;0.1604;0.9953;
481.8000;0.1604;0.9929;
482.1000;0.1636;0.9977;
482.4000;0.1612;0.9953;
482.7000;0.1620;1.0024;
483.0000;0.1571;0.9906;
483.3000;0.1628;0.9977;
483.6000;0.1595;0.9858;
483.9000;0.1604;0.9787;
484.2000;0.1595;0.9858;
484.5000;0.1587;0.9834;
484.8000;0.1595;0.9906;
485.1000;0.1587;0.9882;
485.4000;0.1612;0.9953;
485.7000;0.1604;0.9977;
486.0000;0.1595;1.0024;
486.3000;0.1595;1.0095;
486.6000;0.1595;1.0119;
486.9000;0.1604;1.0024;
487.2000;0.1587;1.0048;
487.5000;0.1595;1.0000;
487.8000;0.1587;1.0048;
488.1000;0.1604;1.0000;
488.4000;0.1604;0.9977;
488.7000;0.1604;0.9929;
489.0000;0.1595;0.9906;
489.3000;0.1612;0.9953;
489.6000;0.1636;1.0000;
489.9000;0.1612;1.0048;
490.2000;0.1587;0.9977;
490.5000;0.1604;0.9977;
490.8000;0.1595;0.9858;
491.1000;0.1587;0.9740;
491.4000;0.1612;0.9787;
491.7000;0.1604;0.9787;
492.0000;0.1547;0.9740;
492.3000;0.1612;0.9953;
492.6000;0.1579;0.9858;
492.9000;0.1595;0.9929;
493.2000;0.1595;1.0024;
493.5000;0.1595;1.0048;
493.8000;0.1685;1.0237;
494.1000;0.1612;1.0024;
494.4000;0.1620;1.0048;
494.7000;0.1587;1.0000;
495.0000;0.1587;1.0000;
495.3000;0.1604;0.9929;
495.6000;0.1530;0.9740;
495.9000;0.1579;0.9882;
496.2000;0.1571;0.9906;
496.5000;0.1579;0.9906;
496.8000;0.1595;0.9929;
497.1000;0.1612;1.0000;
497.4000;0.1595;1.0024;
497.7000;0.1571;1.0000;
498.0000;0.1595;0.9953;
498.3000;0.1579;0.9882;
498.6000;0.1604;0.9953;
498.9000;0.1595;0.9977;
499.2000;0.1587;0.9929;
499.5000;0.1612;0.9929;
499.8000;0.1604;0.9906;
500.1000;0.1612;0.9811;
500.4000;0.1620;0.9740;
500.7000;0.1579;0.9716;
501.0000;0.1604;0.9716;
501.3000;0.1669;0.9763;
501.6000;0.1604;0.9621;
501.9000;0.1595;0.9621;
502.2000;0.1620;0.9716;
502.5000;0.1604;0.9597;
502.8000;0.1612;0.9669;
503.1000;0.1604;0.9645;
503.4000;0.1595;0.9763;
503.7000;0.1587;0.9740;
504.0000;0.1571;0.9692;
504.3000;0.1620;0.9740;
504.6000;0.1636;0.9763;
504.9000;0.1620;0.9811;
505.2000;0.1595;0.9740;
505.5000;0.1587;0.9763;
505.8000;0.1579;0.9787;
506.1000;0.1612;0.9929;
506.4000;0.1620;1.0000;
506.7000;0.1595;1.0000;
507.0000;0.1612;1.0000;
507.3000;0.1604;1.0000;
507.6000;0.1612;1.0024;
507.9000;0.1595;1.0024;
508.2000;0.1587;1.0000;
508.5000;0.1612;1.0095;
508.8000;0.1587;1.0000;
509.1000;0.1587;0.9906;
509.4000;0.1604;0.9977;
509.7000;0.1587;1.0095;
510.0000;0.1612;1.0143;
510.3000;0.1587;1.0071;
510.6000;0.1595;1.0024;
510.9000;0.1587;1.0048;
511.2000;0.1595;1.0024;
511.5000;0.1604;1.0000;
511.8000;0.1612;1.0048;
512.1000;0.1587;0.9977;
512.4000;0.1677;1.0166;
512.7000;0.1628;1.0000;
513.0000;0.1595;0.9906;
513.3000;0.1595;0.9858;
513.6000;0.1595;0.9882;
513.9000;0.1636;1.0071;
514.2000;0.1587;1.0000;
514.5000;0.1579;1.0024;
514.8000;0.1579;1.0024;
515.1000;0.1595;1.0048;
515.4000;0.1595;1.0071;
515.7000;0.1587;1.0095;
516.0000;0.1571;1.0024;
516.3000;0.1604;1.0071;
516.6000;0.1595;1.0048;
516.9000;0.1604;1.0071;
517.2000;0.1587;1.0119;
517.5000;0.1604;1.0119;
517.8000;0.1661;1.0356;
518.1000;0.1620;1.0285;
518.4000;0.1563;1.0119;
518.7000;0.1604;1.0190;
519.0000;0.1604;1.0190;
519.3000;0.1612;1.0166;
519.6000;0.1579;1.0024;
519.9000;0.1547;0.9977;
520.2000;0.1587;1.0048;
520.5000;0.1604;1.0000;
520.8000;0.1571;0.9834;
521.1000;0.1571;0.9834;
521.4000;0.1604;0.9858;
521.7000;0.1612;0.9858;
522.0000;0.1612;0.9882;
522.3000;0.1595;0.9906;
522.6000;0.1587;0.9977;
522.9000;0.1604;1.0024;
523.2000;0.1595;0.9953;
523.5000;0.1587;0.9929;
523.8000;0.1587;0.9953;
524.1000;0.1595;1.0048;
524.4000;0.1579;0.9977;
524.7000;0.1587;0.9882;
525.0000;0.1612;1.0000;
525.3000;0.1612;1.0048;
525.6000;0.1604;1.0024;
525.9000;0.1587;0.9906;
526.2000;0.1595;0.9953;
526.5000;0.1587;0.9858;
526.8000;0.1604;0.9906;
527.1000;0.1587;0.9882;
527.4000;0.1587;0.9811;
527.7000;0.1595;0.9858;
528.0000;0.1604;0.9906;
528.3000;0.1620;1.0048;
528.6000;0.1595;0.9977;
528.9000;0.1595;0.9977;
529.2000;0.1604;1.0024;
529.5000;0.1595;0.9953;
529.8000;0.1604;0.9811;
530.1000;0.1604;0.9811;
530.4000;0.1604;0.9953;
530.7000;0.1595;1.0000;
531.0000;0.1612;1.0000;
531.3000;0.1579;0.9834;
531.6000;0.1620;0.9858;
531.9000;0.1579;0.9763;
532.2000;0.1595;0.9953;
532.5000;0.1587;0.9953;
532.8000;0.1579;0.9929;
533.1000;0.1595;1.0024;
533.4000;0.1604;0.9953;
533.7000;0.1571;0.9929;
534.0000;0.1595;0.9906;
534.3000;0.1579;0.9977;
534.6000;0.1587;1.0071;
534.9000;0.1604;1.0214;
535.2000;0.1587;1.0143;
535.5000;0.1579;1.0095;
535.8000;0.1595;1.0048;
536.1000;0.1587;1.0024;
536.4000;0.1604;1.0048;
536.7000;0.1579;0.9953;
537.0000;0.1587;0.9977;
537.3000;0.1612;0.9929;
537.6000;0.1595;1.0000;
537.9000;0.1595;1.0024;
538.2000;0.1620;1.0095;
538.5000;0.1579;0.9953;
538.8000;0.1595;0.9953;
539.1000;0.1604;0.9929;
539.4000;0.1563;0.9858;
539.7000;0.1595;0.9906;
540.0000;0.1571;0.9906;
540.3000;0.1587;0.9929;
540.6000;0.1571;0.9929;
540.9000;0.1571;0.9929;
541.2000;0.1612;0.9977;
541.5000;0.1587;0.9929;
541.8000;0.1595;0.9953;
542.1000;0.1595;0.9977;
542.4000;0.1579;1.0024;
542.7000;0.1604;1.0071;
543.0000;0.1612;1.0000;
543.3000;0.1587;0.9906;
543.6000;0.1604;0.9906;
543.9000;0.1587;0.9811;
544.2000;0.1595;0.9906;
544.5000;0.1612;0.9977;
544.8000;0.1612;0.9953;
545.1000;0.1595;0.9763;
545.4000;0.1571;0.9787;
545.7000;0.1595;0.9834;
546.0000;0.1595;0.9834;
546.3000;0.1604;0.9834;
546.6000;0.1612;0.9763;
546.9000;0.1595;0.9669;
547.2000;0.1595;0.9716;
547.5000;0.1587;0.9740;
547.8000;0.1595;0.9740;
548.1000;0.1595;0.9692;
548.4000;0.1612;0.9740;
548.7000;0.1579;0.9740;
549.0000;0.1595;0.9811;
549.3000;0.1644;0.9882;
549.6000;0.1587;0.9716;
549.9000;0.1604;0.9692;
550.2000;0.1604;0.9740;
550.5000;0.1612;0.9858;
550.8000;0.1612;0.9834;
551.1000;0.1579;0.9882;
551.4000;0.1693;1.0190;
551.7000;0.1612;0.9906;
552.0000;0.1595;0.9929;
552.3000;0.1587;0.9906;
552.6000;0.1612;0.9953;
552.9000;0.1604;0.9953;
553.2000;0.1587;0.9953;
553.5000;0.1587;1.0048;
553.8000;0.1547;0.9929;
554.1000;0.1604;1.0048;
554.4000;0.1587;0.9929;
554.7000;0.1579;0.9858;
555.0000;0.1628;0.9977;
555.3000;0.1628;0.9882;
555.6000;0.1604;0.9834;
555.9000;0.1604;0.9834;
556.2000;0.1604;0.9834;
556.5000;0.1571;0.9787;
556.8000;0.1612;0.9858;
557.1000;0.1595;0.9740;
557.4000;0.1538;0.9692;
557.7000;0.1530;0.9716;
558.0000;0.1604;0.9787;
558.3000;0.1612;0.9740;
558.6000;0.1555;0.9669;
558.9000;0.1620;0.9787;
559.2000;0.1604;0.9740;
559.5000;0.1595;0.9692;
559.8000;0.1587;0.9716;
560.1000;0.1587;0.9763;
560.4000;0.1604;0.9811;
560.7000;0.1587;0.9906;
561.0000;0.1587;0.9929;
561.3000;0.1587;0.9882;
561.6000;0.1612;0.9906;
561.9000;0.1661;0.9929;
562.2000;0.1612;0.9787;
562.5000;0.1620;0.9763;
562.8000;0.1612;0.9716;
563.1000;0.1620;0.9669;
563.4000;0.1604;0.9692;
563.7000;0.1612;0.9811;
564.0000;0.1563;0.9621;
564.3000;0.1620;0.9906;
564.6000;0.1604;0.9929;
564.9000;0.1612;0.9953;
565.2000;0.1587;0.9929;
565.5000;0.1595;0.9834;
565.8000;0.1604;0.9811;
566.1000;0.1587;0.9692;
566.4000;0.1604;0.9692;
566.7000;0.1604;0.9716;
567.0000;0.1563;0.9597;
567.3000;0.1604;0.9597;
567.6000;0.1555;0.9550;
567.9000;0.1620;0.9763;
568.2000;0.1620;0.9811;
568.5000;0.1604;0.9692;
568.8000;0.1587;0.9716;
569.1000;0.1571;0.9763;
569.4000;0.1587;0.9787;
569.7000;0.1595;0.9834;
570.0000;0.1587;0.9858;
570.3000;0.1579;0.9858;
570.6000;0.1595;0.9929;
570.9000;0.1595;0.9977;
571.2000;0.1595;0.9977;
571.5000;0.1612;0.9977;
571.8000;0.1604;0.9906;
572.1000;0.1636;0.9953;
572.4000;0.1612;0.9811;
572.7000;0.1595;0.9834;
573.0000;0.1612;0.9882;
573.3000;0.1530;0.9716;
573.6000;0.1595;0.9858;
573.9000;0.1595;0.9787;
574.2000;0.1547;0.9669;
574.5000;0.1612;0.9787;
574.8000;0.1595;0.9787;
575.1000;0.1604;0.9740;
575.4000;0.1595;0.9740;
575.7000;0.1620;0.9740;
576.0000;0.1604;0.9740;
576.3000;0.1612;0.9740;
576.6000;0.1587;0.9669;
576.9000;0.1587;0.9645;
577.2000;0.1587;0.9669;
577.5000;0.1620;0.9858;
577.8000;0.1604;0.9882;
578.1000;0.1587;0.9906;
578.4000;0.1555;0.9787;
578.7000;0.1587;0.9882;
579.0000;0.1595;0.9906;
579.3000;0.1595;0.9906;
579.6000;0.1587;0.9906;
579.9000;0.1685;1.0214;
580.2000;0.1587;0.9882;
580.5000;0.1587;0.9787;
580.8000;0.1587;0.9882;
581.1000;0.1587;0.9906;
581.4000;0.1595;0.9977;
581.7000;0.1595;1.0000;
582.0000;0.1579;0.9953;
582.3000;0.1538;0.9787;
582.6000;0.1604;1.0000;
582.9000;0.1595;0.9906;
583.2000;0.1579;0.9953;
583.5000;0.1571;0.9977;
583.8000;0.1587;1.0024;
584.1000;0.1579;0.9977;
584.4000;0.1579;0.9953;
584.7000;0.1579;0.9977;
585.0000;0.1644;1.0143;
585.3000;0.1620;1.0095;
585.6000;0.1595;1.0048;
585.9000;0.1620;1.0095;
586.2000;0.1604;1.0048;
586.5000;0.1612;1.0048;
586.8000;0.1620;1.0048;
587.1000;0.1604;1.0000;
587.4000;0.1595;1.0071;
587.7000;0.1620;1.0000;
588.0000;0.1620;0.9977;
588.3000;0.1530;0.9787;
588.6000;0.1636;1.0071;
588.9000;0.1612;1.0000;
589.2000;0.1555;0.9834;
589.5000;0.1587;0.9977;
589.8000;0.1587;1.0048;
590.1000;0.1587;1.0119;
590.4000;0.1628;1.0166;
590.7000;0.1587;1.0024;
591.0000;0.1587;1.0024;
591.3000;0.1636;1.0095;
591.6000;0.1571;0.9953;
591.9000;0.1620;1.0071;
592.2000;0.1620;1.0048;
592.5000;0.1587;1.0000;
592.8000;0.1595;1.0119;
593.1000;0.1595;1.0119;
593.4000;0.1587;1.0000;
593.7000;0.1604;0.9977;
594.0000;0.1604;1.0024;
594.3000;0.1612;1.0095;
594.6000;0.1604;1.0119;
594.9000;0.1595;1.0071;
595.2000;0.1595;1.0048;
595.5000;0.1612;1.0000;
595.8000;0.1604;1.0024;
596.1000;0.1595;0.9906;
596.4000;0.1652;1.0095;
596.7000;0.1620;0.9977;
597.0000;0.1571;0.9906;
597.3000;0.1612;0.9977;
597.6000;0.1571;0.9834;
597.9000;0.1587;0.9834;
598.2000;0.1587;0.9834;
598.5000;0.1604;0.9834;
598.8000;0.1587;0.9811;
599.1000;0.1604;0.9906;
599.4000;0.1628;0.9977;
599.7000;0.1612;0.9906;
600.0000;0.1587;0.9929;
600.3000;0.1579;0.9834;
600.6000;0.1595;0.9882;
600.9000;0.1604;0.9929;
601.2000;0.1579;0.9834;
601.5000;0.1563;0.9669;
601.8000;0.1571;0.9621;
602.1000;0.1547;0.9574;
602.4000;0.1547;0.9550;
602.7000;0.1538;0.9432;
603.0000;0.1530;0.9361;
603.3000;0.1530;0.9289;
603.6000;0.1514;0.9337;
603.9000;0.1498;0.9266;
604.2000;0.1481;0.9076;
604.5000;0.1490;0.8934;
604.8000;0.1481;0.8768;
605.1000;0.1481;0.8697;
605.4000;0.1465;0.8673;
605.7000;0.1449;0.8768;
606.0000;0.1473;0.8815;
606.3000;0.1449;0.8744;
606.6000;0.1465;0.8792;
606.9000;0.1441;0.8768;
607.2000;0.1449;0.8768;
607.5000;0.1441;0.8815;
607.8000;0.1433;0.8768;
608.1000;0.1416;0.8697;
608.4000;0.1416;0.8697;
608.7000;0.1416;0.8744;
609.0000;0.1416;0.8697;
609.3000;0.1408;0.8626;
609.6000;0.1425;0.8626;
609.9000;0.1311;0.8365;
610.2000;0.1408;0.8531;
610.5000;0.1400;0.8531;
610.8000;0.1408;0.8507;
611.1000;0.1400;0.8460;
611.4000;0.1392;0.8389;
611.7000;0.1400;0.8342;
612.0000;0.1400;0.8342;
612.3000;0.1376;0.8318;
612.6000;0.1400;0.8318;
612.9000;0.1327;0.8247;
613.2000;0.1359;0.8270;
613.5000;0.1351;0.8247;
613.8000;0.1359;0.8199;
614.1000;0.1343;0.8152;
614.4000;0.1376;0.8199;
614.7000;0.1343;0.8176;
615.0000;0.1294;0.7962;
615.3000;0.1351;0.8081;
615.6000;0.1343;0.8105;
615.9000;0.1335;0.8152;
616.2000;0.1359;0.8318;
616.5000;0.1335;0.8247;
616.8000;0.1335;0.8365;
617.1000;0.1311;0.8247;
617.4000;0.1351;0.8294;
617.7000;0.1311;0.8247;
618.0000;0.1286;0.8223;
618.3000;0.1286;0.8152;
618.6000;0.1327;0.8247;
618.9000;0.1311;0.8270;
619.2000;0.1311;0.8342;
619.5000;0.1302;0.8342;
619.8000;0.1319;0.8389;
620.1000;0.1311;0.8507;
620.4000;0.1327;0.8626;
620.7000;0.1302;0.8555;
621.0000;0.1311;0.8507;
621.3000;0.1262;0.8413;
621.6000;0.1319;0.8507;
621.9000;0.1302;0.8413;
622.2000;0.1286;0.8318;
622.5000;0.1311;0.8436;
622.8000;0.1302;0.8413;
623.1000;0.1302;0.8436;
623.4000;0.1245;0.8176;
623.7000;0.1302;0.8270;
624.0000;0.1286;0.8247;
624.3000;0.1286;0.8294;
624.6000;0.1278;0.8247;
624.9000;0.1270;0.8270;
625.2000;0.1270;0.8247;
625.5000;0.1278;0.8294;
625.8000;0.1286;0.8247;
626.1000;0.1278;0.8247;
626.4000;0.1254;0.8223;
626.7000;0.1286;0.8365;
627.0000;0.1262;0.8413;
627.3000;0.1286;0.8531;
627.6000;0.1270;0.8507;
627.9000;0.1270;0.8413;
628.2000;0.1278;0.8436;
628.5000;0.1245;0.8270;
628.8000;0.1237;0.8365;
629.1000;0.1270;0.8413;
629.4000;0.1270;0.8460;
629.7000;0.1254;0.8294;
630.0000;0.1262;0.8247;
630.3000;0.1262;0.8199;
630.6000;0.1262;0.8247;
630.9000;0.1262;0.8247;
631.2000;0.1270;0.8270;
631.5000;0.1254;0.8223;
631.8000;0.1262;0.8270;
632.1000;0.1270;0.8247;
632.4000;0.1254;0.8176;
632.7000;0.1237;0.8270;
633.0000;0.1262;0.8365;
633.3000;0.1270;0.8223;
633.6000;0.1254;0.8199;
633.9000;0.1180;0.8081;
634.2000;0.1245;0.8247;
634.5000;0.1254;0.8270;
634.8000;0.1237;0.8247;
635.1000;0.1302;0.8389;
635.4000;0.1237;0.8176;
635.7000;0.1245;0.8270;
636.0000;0.1229;0.8294;
636.3000;0.1245;0.8413;
636.6000;0.1213;0.8342;
636.9000;0.1229;0.8389;
637.2000;0.1188;0.8342;
637.5000;0.1229;0.8436;
637.8000;0.1213;0.8389;
638.1000;0.1229;0.8436;
638.4000;0.1213;0.8436;
638.7000;0.1221;0.8460;
639.0000;0.1221;0.8294;
639.3000;0.1229;0.8152;
639.6000;0.1229;0.8128;
639.9000;0.1229;0.8223;
640.2000;0.1229;0.8223;
640.5000;0.1245;0.8318;
640.8000;0.1254;0.8342;
641.1000;0.1254;0.8507;
641.4000;0.1245;0.8531;
641.7000;0.1221;0.8579;
642.0000;0.1221;0.8650;
642.3000;0.1229;0.8531;
642.6000;0.1213;0.8460;
642.9000;0.1254;0.8436;
643.2000;0.1197;0.8365;
643.5000;0.1229;0.8460;
643.8000;0.1254;0.8460;
644.1000;0.1237;0.8318;
644.4000;0.1229;0.8152;
644.7000;0.1245;0.8176;
645.0000;0.1229;0.8152;
645.3000;0.1221;0.8152;
645.6000;0.1254;0.8199;
645.9000;0.1213;0.8105;
646.2000;0.1221;0.8247;
646.5000;0.1205;0.8294;
646.8000;0.1205;0.8223;
647.1000;0.1221;0.8152;
647.4000;0.1262;0.8199;
647.7000;0.1270;0.8223;
648.0000;0.1221;0.8010;
648.3000;0.1213;0.8010;
648.6000;0.1213;0.8199;
648.9000;0.1205;0.8176;
649.2000;0.1205;0.8223;
649.5000;0.1156;0.8105;
649.8000;0.1229;0.8294;
650.1000;0.1205;0.8247;
650.4000;0.1213;0.8270;
650.7000;0.1188;0.8199;
651.0000;0.1164;0.8176;
651.3000;0.1180;0.8199;
651.6000;0.1180;0.8176;
651.9000;0.1205;0.8247;
652.2000;0.1197;0.8176;
652.5000;0.1058;0.7773;
652.8000;0.1205;0.8081;
653.1000;0.1205;0.8081;
653.4000;0.1229;0.8152;
653.7000;0.1213;0.8176;
654.0000;0.1180;0.8105;
654.3000;0.1180;0.8057;
654.6000;0.1188;0.8057;
654.9000;0.1213;0.8105;
655.2000;0.1205;0.8128;
655.5000;0.1188;0.8105;
655.8000;0.1213;0.8152;
656.1000;0.1237;0.8270;
656.4000;0.1188;0.8152;
656.7000;0.1197;0.8176;
657.0000;0.1164;0.8105;
657.3000;0.1197;0.8247;
657.6000;0.1197;0.8223;
657.9000;0.1229;0.8270;
658.2000;0.1197;0.8105;
658.5000;0.1188;0.8057;
658.8000;0.1205;0.8105;
659.1000;0.1229;0.8176;
659.4000;0.1188;0.8081;
659.7000;0.1205;0.8057;
660.0000;0.1148;0.7962;
660.3000;0.1180;0.8128;
660.6000;0.1148;0.8105;
660.9000;0.1180;0.8318;
661.2000;0.1188;0.8365;
661.5000;0.1213;0.8436;
661.8000;0.1197;0.8342;
662.1000;0.1188;0.8389;
662.4000;0.1164;0.8223;
662.7000;0.1188;0.8223;
663.0000;0.1180;0.8294;
663.3000;0.1213;0.8270;
663.6000;0.1172;0.8247;
663.9000;0.1197;0.8270;
664.2000;0.1205;0.8342;
664.5000;0.1188;0.8270;
664.8000;0.1197;0.8270;
665.1000;0.1205;0.8152;
665.4000;0.1172;0.8081;
665.7000;0.1188;0.8176;
666.0000;0.1197;0.8199;
666.3000;0.1180;0.8152;
666.6000;0.1237;0.8247;
666.9000;0.1197;0.8223;
667.2000;0.1180;0.8152;
667.5000;0.1197;0.8105;
667.8000;0.1188;0.8105;
668.1000;0.1197;0.8199;
668.4000;0.1180;0.8128;
668.7000;0.1188;0.8057;
669.0000;0.1172;0.8057;
669.3000;0.1188;0.8033;
669.6000;0.1180;0.8010;
669.9000;0.1180;0.8081;
670.2000;0.1188;0.8081;
670.5000;0.1156;0.8081;
670.8000;0.1172;0.8128;
671.1000;0.1188;0.8152;
671.4000;0.1188;0.8176;
671.7000;0.1180;0.8199;
672.0000;0.1188;0.8176;
672.3000;0.1172;0.8128;
672.6000;0.1172;0.8199;
672.9000;0.1180;0.8270;
673.2000;0.1180;0.8318;
673.5000;0.1172;0.8318;
673.8000;0.1172;0.8223;
674.1000;0.1164;0.8176;
674.4000;0.1180;0.8152;
674.7000;0.1164;0.8057;
675.0000;0.1180;0.8057;
675.3000;0.1164;0.8057;
675.6000;0.1172;0.8057;
675.9000;0.1188;0.7986;
676.2000;0.1156;0.7986;
676.5000;0.1164;0.7962;
676.8000;0.1164;0.8010;
677.1000;0.1188;0.7986;
677.4000;0.1180;0.8010;
677.7000;0.1172;0.8033;
678.0000;0.1164;0.8081;
678.3000;0.1188;0.8128;
678.6000;0.1164;0.8081;
678.9000;0.1180;0.8033;
679.2000;0.1164;0.7939;
679.5000;0.1131;0.7915;
679.8000;0.1180;0.8010;
680.1000;0.1172;0.7939;
680.4000;0.1180;0.7986;
680.7000;0.1156;0.7962;
681.0000;0.1123;0.7868;
681.3000;0.1180;0.8010;
681.6000;0.1172;0.7962;
681.9000;0.1172;0.8033;
682.2000;0.1172;0.8081;
682.5000;0.1099;0.8057;
682.8000;0.1172;0.8247;
683.1000;0.1180;0.8247;
683.4000;0.1164;0.8199;
683.7000;0.1188;0.8270;
684.0000;0.1156;0.8199;
684.3000;0.1164;0.8081;
684.6000;0.1164;0.8033;
684.9000;0.1197;0.8057;
685.2000;0.1156;0.8010;
685.5000;0.1197;0.8152;
685.8000;0.1140;0.8081;
686.1000;0.1131;0.8010;
686.4000;0.1148;0.8033;
686.7000;0.1140;0.8105;
687.0000;0.1148;0.8057;
687.3000;0.1131;0.8010;
687.6000;0.1172;0.8010;
687.9000;0.1164;0.8010;
688.2000;0.1164;0.7939;
688.5000;0.1164;0.7868;
688.8000;0.1197;0.7939;
689.1000;0.1156;0.7915;
689.4000;0.1164;0.7986;
689.7000;0.1180;0.8057;
690.0000;0.1148;0.7986;
690.3000;0.1156;0.8105;
690.6000;0.1140;0.8105;
690.9000;0.1156;0.8128;
691.2000;0.1148;0.8057;
691.5000;0.1164;0.8033;
691.8000;0.1164;0.8057;
692.1000;0.1123;0.7868;
692.4000;0.1156;0.7962;
692.7000;0.1172;0.8057;
693.0000;0.1172;0.8176;
693.3000;0.1156;0.8152;
693.6000;0.1156;0.8105;
693.9000;0.1172;0.8223;
694.2000;0.1140;0.8152;
694.5000;0.1156;0.8223;
694.8000;0.1148;0.8223;
695.1000;0.1083;0.8081;
695.4000;0.1156;0.8294;
695.7000;0.1180;0.8460;
696.0000;0.1148;0.8365;
696.3000;0.1156;0.8318;
696.6000;0.1156;0.8199;
696.9000;0.1148;0.8176;
697.2000;0.1123;0.8152;
697.5000;0.1123;0.8199;
697.8000;0.1156;0.8247;
698.1000;0.1156;0.8199;
698.4000;0.1140;0.8152;
698.7000;0.1140;0.8128;
699.0000;0.1156;0.8152;
699.3000;0.1197;0.8270;
699.6000;0.1140;0.8223;
699.9000;0.1140;0.8247;
700.2000;0.1156;0.8270;
700.5000;0.1172;0.8247;
700.8000;0.1107;0.8128;
701.1000;0.1172;0.8270;
701.4000;0.1148;0.8199;
701.7000;0.1115;0.8105;
702.0000;0.1148;0.8270;
702.3000;0.1148;0.8318;
702.6000;0.1140;0.8318;
702.9000;0.1066;0.8128;
703.2000;0.1188;0.8389;
703.5000;0.1148;0.8294;
703.8000;0.1140;0.8318;
704.1000;0.1164;0.8365;
704.4000;0.1180;0.8460;
704.7000;0.1148;0.8413;
705.0000;0.1091;0.8294;
705.3000;0.1156;0.8507;
705.6000;0.1140;0.8531;
705.9000;0.1180;0.8507;
706.2000;0.1140;0.8484;
706.5000;0.1188;0.8579;
706.8000;0.1148;0.8436;
707.1000;0.1131;0.8342;
707.4000;0.1131;0.8318;
707.7000;0.1131;0.8342;
708.0000;0.1131;0.8365;
708.3000;0.1140;0.8389;
708.6000;0.1140;0.8342;
708.9000;0.1123;0.8389;
709.2000;0.1131;0.8389;
709.5000;0.1140;0.8436;
709.8000;0.1099;0.8342;
710.1000;0.1123;0.8413;
710.4000;0.1123;0.8294;
710.7000;0.1140;0.8294;
711.0000;0.1229;0.8555;
711.3000;0.1123;0.8247;
711.6000;0.1123;0.8247;
711.9000;0.1148;0.8342;
712.2000;0.1156;0.8318;
712.5000;0.1140;0.8270;
712.8000;0.1131;0.8199;
713.1000;0.1140;0.8199;
713.4000;0.1140;0.8176;
713.7000;0.1148;0.8152;
714.0000;0.1140;0.8223;
714.3000;0.1131;0.8152;
714.6000;0.1140;0.8199;
714.9000;0.1140;0.8199;
715.2000;0.1148;0.8318;
715.5000;0.1140;0.8318;
715.8000;0.1164;0.8223;
716.1000;0.1131;0.8176;
716.4000;0.1140;0.8247;
716.7000;0.1156;0.8342;
717.0000;0.1123;0.8270;
717.3000;0.1148;0.8294;
717.6000;0.1123;0.8270;
717.9000;0.1131;0.8365;
718.2000;0.1123;0.8365;
718.5000;0.1123;0.8436;
718.8000;0.1156;0.8507;
719.1000;0.1148;0.8507;
719.4000;0.1148;0.8507;
719.7000;0.1123;0.8413;
720.0000;0.1131;0.8436;
720.3000;0.1115;0.8389;
720.6000;0.1123;0.8365;
720.9000;0.1131;0.8318;
721.2000;0.1148;0.8294;
721.5000;0.1140;0.8270;
721.8000;0.1140;0.8270;
722.1000;0.1140;0.8223;
722.4000;0.1140;0.8128;
722.7000;0.1140;0.8128;
723.0000;0.1131;0.8057;
723.3000;0.1148;0.8152;
723.6000;0.1131;0.8270;
723.9000;0.1123;0.8247;
724.2000;0.1115;0.8199;
724.5000;0.1140;0.8247;
724.8000;0.1148;0.8270;
725.1000;0.1131;0.8247;
725.4000;0.1140;0.8318;
725.7000;0.1131;0.8270;
726.0000;0.1148;0.8223;
726.3000;0.1140;0.8199;
726.6000;0.1131;0.8223;
726.9000;0.1123;0.8152;
727.2000;0.1131;0.8270;
727.5000;0.1107;0.8223;
727.8000;0.1148;0.8342;
728.1000;0.1115;0.8318;
728.4000;0.1107;0.8247;
728.7000;0.1123;0.8247;
729.0000;0.1131;0.8294;
729.3000;0.1131;0.8342;
729.6000;0.1115;0.8413;
729.9000;0.1099;0.8436;
730.2000;0.1123;0.8555;
730.5000;0.1115;0.8507;
730.8000;0.1099;0.8460;
731.1000;0.1107;0.8389;
731.4000;0.1123;0.8342;
731.7000;0.1131;0.8342;
732.0000;0.1229;0.8531;
732.3000;0.1115;0.8152;
732.6000;0.1140;0.8176;
732.9000;0.1107;0.8081;
733.2000;0.1123;0.8152;
733.5000;0.1140;0.8199;
733.8000;0.1205;0.8365;
734.1000;0.1131;0.8199;
734.4000;0.1107;0.8152;
734.7000;0.1131;0.8152;
735.0000;0.1115;0.8152;
735.3000;0.1115;0.8152;
735.6000;0.1123;0.8152;
735.9000;0.1123;0.8223;
736.2000;0.1074;0.8176;
736.5000;0.1123;0.8389;
736.8000;0.1131;0.8460;
737.1000;0.1115;0.8389;
737.4000;0.1197;0.8579;
737.7000;0.1131;0.8507;
738.0000;0.1140;0.8602;
738.3000;0.1107;0.8460;
738.6000;0.1123;0.8484;
738.9000;0.1123;0.8436;
739.2000;0.1164;0.8342;
739.5000;0.1123;0.8247;
739.8000;0.1123;0.8199;
740.1000;0.1140;0.8199;
740.4000;0.1140;0.8247;
740.7000;0.1107;0.8223;
741.0000;0.1131;0.8294;
741.3000;0.1107;0.8365;
741.6000;0.1115;0.8460;
741.9000;0.1115;0.8436;
742.2000;0.1099;0.8413;
742.5000;0.1115;0.8294;
742.8000;0.1115;0.8294;
743.1000;0.1131;0.8270;
743.4000;0.1131;0.8413;
743.7000;0.1131;0.8413;
744.0000;0.1107;0.8270;
744.3000;0.1156;0.8436;
744.6000;0.1123;0.8507;
744.9000;0.1115;0.8413;
745.2000;0.1115;0.8413;
745.5000;0.1148;0.8436;
745.8000;0.1140;0.8365;
746.1000;0.1123;0.8294;
746.4000;0.1083;0.8199;
746.7000;0.1115;0.8294;
747.0000;0.1115;0.8294;
747.3000;0.1115;0.8270;
747.6000;0.1131;0.8270;
747.9000;0.1131;0.8270;
748.2000;0.1148;0.8294;
748.5000;0.1131;0.8342;
748.8000;0.1115;0.8294;
749.1000;0.1123;0.8223;
749.4000;0.1148;0.8342;
749.7000;0.1131;0.8413;
750.0000;0.1123;0.8531;
750.3000;0.1115;0.8413;
750.6000;0.1131;0.8294;
750.9000;0.1107;0.8365;
751.2000;0.1115;0.8318;
751.5000;0.1123;0.8270;
751.8000;0.1099;0.8199;
752.1000;0.1172;0.8389;
752.4000;0.1131;0.8342;
752.7000;0.1115;0.8389;
753.0000;0.1131;0.8436;
753.3000;0.1107;0.8413;
753.6000;0.1123;0.8413;
753.9000;0.1107;0.8460;
754.2000;0.1099;0.8460;
754.5000;0.1115;0.8507;
754.8000;0.1131;0.8484;
755.1000;0.1115;0.8413;
755.4000;0.1131;0.8389;
755.7000;0.1107;0.8318;
756.0000;0.1148;0.8436;
756.3000;0.1131;0.8389;
756.6000;0.1131;0.8318;
756.9000;0.1107;0.8270;
757.2000;0.1123;0.8294;
757.5000;0.1115;0.8294;
757.8000;0.1115;0.8389;
758.1000;0.1131;0.8342;
758.4000;0.1123;0.8318;
758.7000;0.1123;0.8270;
759.0000;0.1140;0.8199;
759.3000;0.1107;0.8270;
759.6000;0.1131;0.8270;
759.9000;0.1115;0.8223;
760.2000;0.1131;0.8342;
760.5000;0.1123;0.8365;
760.8000;0.1123;0.8413;
761.1000;0.1131;0.8460;
761.4000;0.1099;0.8460;
761.7000;0.1107;0.8460;
762.0000;0.1115;0.8389;
762.3000;0.1131;0.8389;
762.6000;0.1115;0.8270;
762.9000;0.1123;0.8270;
763.2000;0.1099;0.8176;
763.5000;0.1107;0.8176;
763.8000;0.1131;0.8247;
764.1000;0.1115;0.8270;
764.4000;0.1131;0.8294;
764.7000;0.1123;0.8318;
765.0000;0.1115;0.8294;
765.3000;0.1131;0.8318;
765.6000;0.1123;0.8270;
765.9000;0.1115;0.8223;
766.2000;0.1099;0.8152;
766.5000;0.1123;0.8223;
766.8000;0.1115;0.8176;
767.1000;0.1107;0.8199;
767.4000;0.1107;0.8128;
767.7000;0.1131;0.8199;
768.0000;0.1131;0.8247;
768.3000;0.1123;0.8270;
768.6000;0.1107;0.8223;
768.9000;0.1123;0.8247;
769.2000;0.1107;0.8270;
769.5000;0.1140;0.8318;
769.8000;0.1115;0.8294;
770.1000;0.1115;0.8318;
770.4000;0.1058;0.8128;
770.7000;0.1123;0.8342;
771.0000;0.1148;0.8365;
771.3000;0.1131;0.8294;
771.6000;0.1148;0.8318;
771.9000;0.1099;0.8176;
772.2000;0.1131;0.8270;
772.5000;0.1115;0.8247;
772.8000;0.1123;0.8223;
773.1000;0.1131;0.8223;
773.4000;0.1115;0.8223;
773.7000;0.1099;0.8223;
774.0000;0.1099;0.8223;
774.3000;0.1107;0.8247;
774.6000;0.1107;0.8247;
774.9000;0.1099;0.8223;
775.2000;0.1115;0.8270;
775.5000;0.1131;0.8294;
775.8000;0.1140;0.8294;
776.1000;0.1091;0.8199;
776.4000;0.1148;0.8223;
776.7000;0.1140;0.8152;
777.0000;0.1099;0.8152;
777.3000;0.1123;0.8176;
777.6000;0.1115;0.8128;
777.9000;0.1115;0.8128;
778.2000;0.1115;0.8081;
778.5000;0.1123;0.8081;
778.8000;0.1107;0.7986;
779.1000;0.1107;0.7986;
779.4000;0.1107;0.8105;
779.7000;0.1107;0.8081;
780.0000;0.1115;0.8105;
780.3000;0.1115;0.8081;
780.6000;0.1115;0.8081;
780.9000;0.1107;0.8105;
781.2000;0.1115;0.8081;
781.5000;0.1083;0.8033;
781.8000;0.1115;0.8152;
782.1000;0.1115;0.8105;
782.4000;0.1115;0.8081;
782.7000;0.1107;0.8152;
783.0000;0.1115;0.8176;
783.3000;0.1123;0.8247;
783.6000;0.1131;0.8199;
783.9000;0.1107;0.8199;
784.2000;0.1172;0.8413;
784.5000;0.1131;0.8318;
784.8000;0.1107;0.8365;
785.1000;0.1099;0.8389;
785.4000;0.1115;0.8389;
785.7000;0.1115;0.8389;
786.0000;0.1123;0.8436;
786.3000;0.1131;0.8507;
786.6000;0.1107;0.8602;
786.9000;0.1091;0.8602;
787.2000;0.1197;0.8863;
787.5000;0.1115;0.8650;
787.8000;0.1140;0.8650;
788.1000;0.1115;0.8555;
788.4000;0.1123;0.8602;
788.7000;0.1107;0.8531;
789.0000;0.1123;0.8484;
789.3000;0.1115;0.8555;
789.6000;0.1091;0.8531;
789.9000;0.1123;0.8555;
790.2000;0.1115;0.8460;
790.5000;0.1099;0.8436;
790.8000;0.1115;0.8484;
791.1000;0.1107;0.8413;
791.4000;0.1107;0.8436;
791.7000;0.1099;0.8365;
792.0000;0.1156;0.8460;
792.3000;0.1123;0.8342;
792.6000;0.1107;0.8318;
792.9000;0.1091;0.8247;
793.2000;0.1107;0.8294;
793.5000;0.1115;0.8436;
793.8000;0.1123;0.8436;
794.1000;0.1123;0.8460;
794.4000;0.1115;0.8460;
794.7000;0.1115;0.8579;
795.0000;0.1107;0.8650;
795.3000;0.1107;0.8507;
795.6000;0.1099;0.8389;
795.9000;0.1107;0.8294;
796.2000;0.1107;0.8318;
796.5000;0.1083;0.8223;
796.8000;0.1148;0.8413;
797.1000;0.1091;0.8294;
797.4000;0.1115;0.8365;
797.7000;0.1123;0.8247;
798.0000;0.1115;0.8199;
798.3000;0.1099;0.8176;
798.6000;0.1107;0.8199;
798.9000;0.1123;0.8294;
799.2000;0.1115;0.8223;
799.5000;0.1115;0.8318;
799.8000;0.1074;0.8128;
800.1000;0.1123;0.8199;
800.4000;0.1107;0.8247;
800.7000;0.1099;0.8270;
801.0000;0.1091;0.8270;
801.3000;0.1099;0.8199;
801.6000;0.1107;0.8199;
801.9000;0.1107;0.8247;
802.2000;0.1123;0.8247;
802.5000;0.1115;0.8223;
802.8000;0.1131;0.8223;
803.1000;0.1074;0.8105;
803.4000;0.1091;0.8128;
803.7000;0.1107;0.8152;
804.0000;0.1107;0.8176;
804.3000;0.1131;0.8294;
804.6000;0.1115;0.8270;
804.9000;0.1099;0.8342;
805.2000;0.1115;0.8294;
805.5000;0.1131;0.8270;
805.8000;0.1050;0.8176;
806.1000;0.1123;0.8436;
806.4000;0.1107;0.8413;
806.7000;0.1107;0.8365;
807.0000;0.1099;0.8318;
807.3000;0.1091;0.8365;
807.6000;0.1107;0.8389;
807.9000;0.1115;0.8436;
808.2000;0.1164;0.8579;
808.5000;0.1107;0.8413;
808.8000;0.1115;0.8579;
809.1000;0.1091;0.8484;
809.4000;0.1107;0.8579;
809.7000;0.1107;0.8602;
810.0000;0.1050;0.8436;
810.3000;0.1107;0.8484;
810.6000;0.1123;0.8555;
810.9000;0.1123;0.8531;
811.2000;0.1131;0.8579;
811.5000;0.1099;0.8531;
811.8000;0.1099;0.8484;
812.1000;0.1099;0.8436;
812.4000;0.1115;0.8460;
812.7000;0.1115;0.8507;
813.0000;0.1099;0.8460;
813.3000;0.1107;0.8436;
813.6000;0.1107;0.8389;
813.9000;0.1083;0.8342;
814.2000;0.1107;0.8413;
814.5000;0.1074;0.8223;
814.8000;0.1115;0.8342;
815.1000;0.1091;0.8199;
815.4000;0.1123;0.8199;
815.7000;0.1115;0.8270;
816.0000;0.1115;0.8199;
816.3000;0.1115;0.8176;
816.6000;0.1115;0.8176;
816.9000;0.1099;0.8128;
817.2000;0.1107;0.8199;
817.5000;0.1107;0.8176;
817.8000;0.1099;0.8270;
818.1000;0.1115;0.8413;
818.4000;0.1131;0.8413;
818.7000;0.1115;0.8389;
819.0000;0.1115;0.8436;
819.3000;0.1140;0.8531;
819.6000;0.1074;0.8413;
819.9000;0.1099;0.8531;
820.2000;0.1123;0.8626;
820.5000;0.1066;0.8507;
820.8000;0.0993;0.8460;
821.1000;0.1140;0.8768;
821.4000;0.1115;0.8650;
821.7000;0.1115;0.8626;
822.0000;0.1131;0.8602;
822.3000;0.1099;0.8484;
822.6000;0.1107;0.8484;
822.9000;0.1099;0.8484;
823.2000;0.1083;0.8531;
823.5000;0.1099;0.8579;
823.8000;0.1099;0.8507;
824.1000;0.1066;0.8436;
824.4000;0.1099;0.8460;
824.7000;0.1083;0.8460;
825.0000;0.1083;0.8413;
825.3000;0.1099;0.8484;
825.6000;0.1099;0.8460;
825.9000;0.1115;0.8531;
826.2000;0.1107;0.8436;
826.5000;0.1107;0.8318;
826.8000;0.1099;0.8247;
827.1000;0.1099;0.8270;
827.4000;0.1107;0.8247;
827.7000;0.1107;0.8176;
828.0000;0.1115;0.8176;
828.3000;0.1099;0.8128;
828.6000;0.1107;0.8128;
828.9000;0.1099;0.8199;
829.2000;0.1099;0.8223;
829.5000;0.1099;0.8199;
829.8000;0.1099;0.8247;
830.1000;0.1107;0.8318;
830.4000;0.1099;0.8247;
830.7000;0.1099;0.8365;
831.0000;0.1099;0.8365;
831.3000;0.1115;0.8436;
831.6000;0.1107;0.8413;
831.9000;0.1131;0.8436;
832.2000;0.1066;0.8342;
832.5000;0.1115;0.8507;
832.8000;0.1115;0.8531;
833.1000;0.1107;0.8484;
833.4000;0.1083;0.8389;
833.7000;0.1099;0.8484;
834.0000;0.1107;0.8507;
834.3000;0.1188;0.8697;
834.6000;0.1099;0.8531;
834.9000;0.1099;0.8579;
835.2000;0.1107;0.8531;
835.5000;0.1083;0.8460;
835.8000;0.1099;0.8389;
836.1000;0.1074;0.8413;
836.4000;0.1099;0.8507;
836.7000;0.1107;0.8555;
837.0000;0.1115;0.8602;
837.3000;0.1074;0.8436;
837.6000;0.1115;0.8460;
837.9000;0.1099;0.8436;
838.2000;0.1107;0.8436;
838.5000;0.1099;0.8484;
838.8000;0.1099;0.8484;
839.1000;0.1115;0.8460;
839.4000;0.1099;0.8460;
839.7000;0.1091;0.8413;
840.0000;0.1091;0.8389;
840.3000;0.1091;0.8507;
840.6000;0.1115;0.8484;
840.9000;0.1099;0.8507;
841.2000;0.1115;0.8507;
841.5000;0.1107;0.8413;
841.8000;0.1099;0.8342;
842.1000;0.1115;0.8389;
842.4000;0.1107;0.8342;
842.7000;0.1091;0.8342;
843.0000;0.1123;0.8318;
843.3000;0.1115;0.8342;
843.6000;0.1099;0.8342;
843.9000;0.1099;0.8389;
844.2000;0.1083;0.8342;
844.5000;0.1107;0.8413;
844.8000;0.1140;0.8484;
845.1000;0.1099;0.8389;
845.4000;0.1099;0.8436;
845.7000;0.1083;0.8389;
846.0000;0.1164;0.8555;
846.3000;0.1140;0.8413;
846.6000;0.1091;0.8413;
846.9000;0.1083;0.8436;
847.2000;0.1099;0.8460;
847.5000;0.1099;0.8365;
847.8000;0.1091;0.8413;
848.1000;0.1091;0.8436;
848.4000;0.1099;0.8507;
848.7000;0.1091;0.8436;
849.0000;0.1058;0.8365;
849.3000;0.1083;0.8507;
849.6000;0.1107;0.8579;
849.9000;0.1091;0.8484;
850.2000;0.1066;0.8436;
850.5000;0.1099;0.8531;
850.8000;0.1099;0.8555;
851.1000;0.1083;0.8436;
851.4000;0.1099;0.8365;
851.7000;0.1099;0.8270;
852.0000;0.1107;0.8294;
852.3000;0.1083;0.8270;
852.6000;0.1099;0.8294;
852.9000;0.1091;0.8270;
853.2000;0.1099;0.8365;
853.5000;0.1107;0.8436;
853.8000;0.1099;0.8531;
854.1000;0.1107;0.8579;
854.4000;0.1107;0.8555;
854.7000;0.1123;0.8602;
855.0000;0.1099;0.8602;
855.3000;0.1091;0.8507;
855.6000;0.1115;0.8484;
855.9000;0.1107;0.8389;
856.2000;0.1091;0.8365;
856.5000;0.1107;0.8389;
856.8000;0.1115;0.8342;
857.1000;0.1115;0.8389;
857.4000;0.1115;0.8365;
857.7000;0.1026;0.8176;
858.0000;0.1115;0.8436;
858.3000;0.1083;0.8365;
858.6000;0.1107;0.8342;
858.9000;0.1091;0.8389;
859.2000;0.1091;0.8318;
859.5000;0.1115;0.8365;
859.8000;0.1099;0.8342;
860.1000;0.1107;0.8389;
860.4000;0.1091;0.8342;
860.7000;0.1099;0.8413;
861.0000;0.1107;0.8507;
861.3000;0.1083;0.8460;
861.6000;0.1099;0.8484;
861.9000;0.1074;0.8507;
862.2000;0.1099;0.8460;
862.5000;0.1140;0.8602;
862.8000;0.1099;0.8460;
863.1000;0.1091;0.8436;
863.4000;0.1091;0.8389;
863.7000;0.1107;0.8389;
864.0000;0.1099;0.8365;
864.3000;0.1091;0.8413;
864.6000;0.1091;0.8531;
864.9000;0.1099;0.8626;
865.2000;0.1107;0.8673;
865.5000;0.1074;0.8555;
865.8000;0.1115;0.8602;
866.1000;0.1115;0.8436;
866.4000;0.1083;0.8318;
866.7000;0.1091;0.8365;
867.0000;0.1099;0.8342;
867.3000;0.1083;0.8342;
867.6000;0.1115;0.8365;
867.9000;0.1107;0.8413;
868.2000;0.1115;0.8342;
868.5000;0.1050;0.8223;
868.8000;0.1091;0.8318;
869.1000;0.1107;0.8389;
869.4000;0.1099;0.8389;
869.7000;0.1083;0.8365;
870.0000;0.1091;0.8318;
870.3000;0.1107;0.8436;
870.6000;0.1099;0.8484;
870.9000;0.1107;0.8484;
871.2000;0.1099;0.8365;
871.5000;0.1107;0.8365;
871.8000;0.1099;0.8365;
872.1000;0.1107;0.8223;
872.4000;0.1099;0.8247;
872.7000;0.1107;0.8223;
873.0000;0.1115;0.8223;
873.3000;0.1107;0.8247;
873.6000;0.1099;0.8247;
873.9000;0.1115;0.8294;
874.2000;0.1099;0.8199;
874.5000;0.1099;0.8294;
874.8000;0.1099;0.8318;
875.1000;0.1099;0.8389;
875.4000;0.1083;0.8342;
875.7000;0.1115;0.8389;
876.0000;0.1099;0.8318;
876.3000;0.1107;0.8318;
876.6000;0.1091;0.8247;
876.9000;0.1091;0.8223;
877.2000;0.1099;0.8294;
877.5000;0.1091;0.8389;
877.8000;0.1107;0.8342;
878.1000;0.1091;0.8270;
878.4000;0.1107;0.8365;
878.7000;0.1091;0.8413;
879.0000;0.1091;0.8531;
879.3000;0.1099;0.8507;
879.6000;0.1091;0.8436;
879.9000;0.1123;0.8413;
880.2000;0.1091;0.8342;
880.5000;0.1123;0.8365;
880.8000;0.1099;0.8318;
881.1000;0.1115;0.8342;
881.4000;0.1083;0.8294;
881.7000;0.1115;0.8294;
882.0000;0.1083;0.8247;
882.3000;0.1099;0.8294;
882.6000;0.1091;0.8270;
882.9000;0.1009;0.8081;
883.2000;0.1115;0.8436;
883.5000;0.1115;0.8436;
883.8000;0.1083;0.8389;
884.1000;0.1091;0.8436;
884.4000;0.1091;0.8484;
884.7000;0.1083;0.8531;
885.0000;0.1066;0.8507;
885.3000;0.1074;0.8484;
885.6000;0.1083;0.8484;
885.9000;0.1107;0.8436;
886.2000;0.1091;0.8389;
886.5000;0.1083;0.8318;
886.8000;0.1091;0.8294;
887.1000;0.1091;0.8318;
887.4000;0.1107;0.8342;
887.7000;0.1099;0.8342;
888.0000;0.1099;0.8365;
888.3000;0.1083;0.8342;
888.6000;0.1099;0.8413;
888.9000;0.1074;0.8318;
889.2000;0.1074;0.8342;
889.5000;0.1107;0.8460;
889.8000;0.1091;0.8460;
890.1000;0.1099;0.8484;
890.4000;0.1091;0.8436;
890.7000;0.1099;0.8531;
891.0000;0.1099;0.8579;
891.3000;0.1107;0.8579;
891.6000;0.1091;0.8413;
891.9000;0.1091;0.8460;
892.2000;0.1099;0.8413;
892.5000;0.1099;0.8342;
892.8000;0.1164;0.8579;
893.1000;0.1091;0.8484;
893.4000;0.1131;0.8602;
893.7000;0.1099;0.8555;
894.0000;0.1074;0.8342;
894.3000;0.1091;0.8318;
894.6000;0.1083;0.8270;
894.9000;0.1115;0.8318;
895.2000;0.1107;0.8318;
895.5000;0.1091;0.8365;
895.8000;0.1091;0.8365;
896.1000;0.1115;0.8460;
896.4000;0.1083;0.8460;
896.7000;0.1107;0.8436;
897.0000;0.1099;0.8436;
897.3000;0.1107;0.8413;
897.6000;0.1091;0.8365;
897.9000;0.1091;0.8436;
898.2000;0.1091;0.8507;
898.5000;0.1083;0.8507;
898.8000;0.1099;0.8507;
899.1000;0.1099;0.8460;
899.4000;0.1091;0.8342;
899.7000;0.1115;0.8389;
900.0000;0.1091;0.8342;
900.3000;0.1099;0.8365;
900.6000;0.1083;0.8318;
900.9000;0.1083;0.8270;
901.2000;0.1083;0.8270;
901.5000;0.1107;0.8342;
901.8000;0.1066;0.8247;
902.1000;0.1091;0.8294;
902.4000;0.1058;0.8176;
902.7000;0.1099;0.8342;
903.0000;0.1107;0.8342;
903.3000;0.1050;0.8176;
903.6000;0.1115;0.8247;
903.9000;0.1091;0.8223;
904.2000;0.1091;0.8270;
904.5000;0.1091;0.8294;
904.8000;0.1083;0.8318;
905.1000;0.1099;0.8318;
905.4000;0.1099;0.8365;
905.7000;0.1091;0.8389;
906.0000;0.1083;0.8365;
906.3000;0.1099;0.8389;
906.6000;0.1091;0.8365;
906.9000;0.1083;0.8270;
907.2000;0.1091;0.8247;
907.5000;0.1107;0.8270;
907.8000;0.1107;0.8342;
908.1000;0.1107;0.8365;
908.4000;0.1115;0.8436;
908.7000;0.1107;0.8460;
909.0000;0.1131;0.8531;
909.3000;0.1091;0.8484;
909.6000;0.1066;0.8413;
909.9000;0.1083;0.8413;
910.2000;0.1083;0.8318;
910.5000;0.1123;0.8365;
910.8000;0.1091;0.8318;
911.1000;0.1074;0.8318;
911.4000;0.1074;0.8318;
911.7000;0.1099;0.8365;
912.0000;0.1091;0.8342;
912.3000;0.1058;0.8294;
912.6000;0.1099;0.8436;
912.9000;0.1091;0.8460;
913.2000;0.1180;0.8673;
913.5000;0.1091;0.8436;
913.8000;0.1091;0.8460;
914.1000;0.1107;0.8531;
914.4000;0.1099;0.8507;
914.7000;0.1091;0.8413;
915.0000;0.1164;0.8626;
915.3000;0.1091;0.8531;
915.6000;0.1099;0.8555;
915.9000;0.1091;0.8484;
916.2000;0.1083;0.8365;
916.5000;0.1148;0.8413;
916.8000;0.1099;0.8318;
917.1000;0.1042;0.8152;
917.4000;0.1074;0.8223;
917.7000;0.1091;0.8270;
918.0000;0.1091;0.8342;
918.3000;0.1091;0.8342;
918.6000;0.1083;0.8294;
918.9000;0.1107;0.8294;
919.2000;0.1050;0.8128;
919.5000;0.1099;0.8223;
919.8000;0.1107;0.8199;
920.1000;0.1058;0.8081;
920.4000;0.1099;0.8176;
920.7000;0.1083;0.8199;
921.0000;0.1099;0.8223;
921.3000;0.1107;0.8223;
921.6000;0.1099;0.8223;
921.9000;0.1107;0.8247;
922.2000;0.1091;0.8342;
922.5000;0.1074;0.8270;
922.8000;0.1091;0.8199;
923.1000;0.1123;0.8223;
923.4000;0.1107;0.8176;
923.7000;0.1074;0.7986;
924.0000;0.1099;0.8033;
924.3000;0.1083;0.8057;
924.6000;0.1115;0.8033;
924.9000;0.1123;0.8128;
925.2000;0.1099;0.8105;
925.5000;0.1091;0.8128;
925.8000;0.1131;0.8199;
926.1000;0.1115;0.8176;
926.4000;0.1164;0.8294;
926.7000;0.1099;0.8152;
927.0000;0.1107;0.8199;
927.3000;0.1107;0.8247;
927.6000;0.1099;0.8223;
927.9000;0.1091;0.8199;
928.2000;0.1156;0.8389;
928.5000;0.1091;0.8199;
928.8000;0.1107;0.8247;
929.1000;0.1107;0.8247;
929.4000;0.1083;0.8199;
929.7000;0.1099;0.8176;
930.0000;0.1083;0.8152;
930.3000;0.1083;0.8010;
930.6000;0.1091;0.8010;
930.9000;0.1131;0.8152;
931.2000;0.1099;0.8081;
931.5000;0.1099;0.8152;
931.8000;0.1099;0.8105;
932.1000;0.1042;0.7962;
932.4000;0.1099;0.8105;
932.7000;0.1091;0.8081;
933.0000;0.1074;0.8152;
933.3000;0.1042;0.8105;
933.6000;0.1091;0.8152;
933.9000;0.1083;0.8176;
934.2000;0.1074;0.8128;
934.5000;0.1148;0.8318;
934.8000;0.1091;0.8176;
935.1000;0.1083;0.8176;
935.4000;0.1140;0.8270;
935.7000;0.1107;0.8176;
936.0000;0.1034;0.7986;
936.3000;0.1099;0.8176;
936.6000;0.1107;0.8247;
936.9000;0.1131;0.8318;
937.2000;0.1074;0.8152;
937.5000;0.1099;0.8342;
937.8000;0.1099;0.8294;
938.1000;0.1091;0.8270;
938.4000;0.1091;0.8365;
938.7000;0.1099;0.8389;
939.0000;0.1107;0.8436;
939.3000;0.1083;0.8365;
939.6000;0.1042;0.8247;
939.9000;0.1091;0.8318;
940.2000;0.1099;0.8342;
940.5000;0.1091;0.8294;
940.8000;0.1074;0.8270;
941.1000;0.1099;0.8365;
941.4000;0.1083;0.8294;
941.7000;0.1091;0.8365;
942.0000;0.1066;0.8318;
942.3000;0.1050;0.8294;
942.6000;0.1107;0.8365;
942.9000;0.1107;0.8389;
943.2000;0.1099;0.8342;
943.5000;0.1083;0.8342;
943.8000;0.1099;0.8342;
944.1000;0.1107;0.8294;
944.4000;0.1107;0.8270;
944.7000;0.1091;0.8176;
945.0000;0.1140;0.8318;
945.3000;0.1099;0.8152;
945.6000;0.1099;0.8105;
945.9000;0.1083;0.8128;
946.2000;0.1107;0.8176;
946.5000;0.1107;0.8199;
946.8000;0.1099;0.8294;
947.1000;0.1083;0.8270;
947.4000;0.1107;0.8342;
947.7000;0.1083;0.8342;
948.0000;0.1099;0.8389;
948.3000;0.1074;0.8342;
948.6000;0.1066;0.8342;
948.9000;0.1107;0.8389;
949.2000;0.1058;0.8342;
949.5000;0.1140;0.8626;
949.8000;0.1083;0.8531;
950.1000;0.1107;0.8389;
950.4000;0.1099;0.8389;
950.7000;0.1066;0.8342;
951.0000;0.1083;0.8531;
951.3000;0.1083;0.8673;
951.6000;0.1074;0.8650;
951.9000;0.1164;0.8815;
952.2000;0.1091;0.8555;
952.5000;0.1099;0.8484;
952.8000;0.1107;0.8436;
953.1000;0.1099;0.8484;
953.4000;0.1074;0.8318;
953.7000;0.1091;0.8365;
954.0000;0.1091;0.8270;
954.3000;0.1091;0.8223;
954.6000;0.1099;0.8223;
954.9000;0.1115;0.8318;
955.2000;0.1115;0.8413;
955.5000;0.1107;0.8460;
955.8000;0.1115;0.8484;
956.1000;0.1131;0.8626;
956.4000;0.1074;0.8507;
956.7000;0.1172;0.8839;
957.0000;0.1091;0.8673;
957.3000;0.1042;0.8531;
957.6000;0.1091;0.8626;
957.9000;0.1091;0.8579;
958.2000;0.1091;0.8531;
958.5000;0.1107;0.8484;
958.8000;0.1091;0.8413;
959.1000;0.1091;0.8413;
959.4000;0.1123;0.8531;
959.7000;0.1083;0.8342;
960.0000;0.1066;0.8294;
960.3000;0.1099;0.8199;
960.6000;0.1099;0.8270;
960.9000;0.1099;0.8318;
961.2000;0.1107;0.8318;
961.5000;0.1099;0.8389;
961.8000;0.1091;0.8365;
962.1000;0.1091;0.8270;
962.4000;0.1115;0.8342;
962.7000;0.1091;0.8318;
963.0000;0.1091;0.8270;
963.3000;0.1107;0.8460;
963.6000;0.1099;0.8460;
963.9000;0.1050;0.8365;
964.2000;0.1140;0.8626;
964.5000;0.1099;0.8507;
964.8000;0.1099;0.8484;
965.1000;0.1074;0.8318;
965.4000;0.1091;0.8223;
965.7000;0.1107;0.8223;
966.0000;0.1091;0.8176;
966.3000;0.1091;0.8247;
966.6000;0.1091;0.8223;
966.9000;0.1099;0.8247;
967.2000;0.1099;0.8294;
967.5000;0.1123;0.8342;
967.8000;0.1083;0.8342;
968.1000;0.1107;0.8389;
968.4000;0.1099;0.8389;
968.7000;0.1107;0.8460;
969.0000;0.1091;0.8484;
969.3000;0.1091;0.8531;
969.6000;0.1099;0.8507;
969.9000;0.1115;0.8507;
970.2000;0.1099;0.8460;
970.5000;0.1140;0.8484;
970.8000;0.1091;0.8389;
971.1000;0.1091;0.8413;
971.4000;0.1107;0.8365;
971.7000;0.1066;0.8199;
972.0000;0.1083;0.8199;
972.3000;0.1091;0.8152;
972.6000;0.1091;0.8199;
972.9000;0.1074;0.8199;
973.2000;0.1115;0.8294;
973.5000;0.1074;0.8223;
973.8000;0.1042;0.8105;
974.1000;0.1083;0.8128;
974.4000;0.1140;0.8294;
974.7000;0.1091;0.8152;
975.0000;0.1083;0.8105;
975.3000;0.1115;0.8152;
975.6000;0.1091;0.8176;
975.9000;0.1074;0.8247;
976.2000;0.1099;0.8247;
976.5000;0.1107;0.8176;
976.8000;0.1099;0.8152;
977.1000;0.1066;0.8199;
977.4000;0.1083;0.8176;
977.7000;0.1107;0.8176;
978.0000;0.1099;0.8128;
978.3000;0.1083;0.8128;
978.6000;0.1074;0.8152;
978.9000;0.1074;0.8128;
979.2000;0.1074;0.8152;
979.5000;0.1074;0.8176;
979.8000;0.1099;0.8223;
980.1000;0.1066;0.8176;
980.4000;0.1115;0.8294;
980.7000;0.1074;0.8247;
981.0000;0.1099;0.8199;
981.3000;0.1083;0.8128;
981.6000;0.1099;0.8199;
981.9000;0.1091;0.8223;
982.2000;0.1091;0.8294;
982.5000;0.1107;0.8318;
982.8000;0.1099;0.8318;
983.1000;0.1083;0.8223;
983.4000;0.1099;0.8294;
983.7000;0.1074;0.8199;
984.0000;0.1099;0.8176;
984.3000;0.1107;0.8247;
984.6000;0.1099;0.8199;
984.9000;0.1099;0.8105;
985.2000;0.1099;0.8128;
985.5000;0.1140;0.8318;
985.8000;0.1083;0.8176;
986.1000;0.1091;0.8199;
986.4000;0.1123;0.8294;
986.7000;0.1099;0.8176;
987.0000;0.1107;0.8176;
987.3000;0.1115;0.8176;
987.6000;0.1074;0.8128;
987.9000;0.1107;0.8176;
988.2000;0.1107;0.8199;
988.5000;0.1115;0.8223;
988.8000;0.1091;0.8247;
989.1000;0.1083;0.8365;
989.4000;0.1050;0.8294;
989.7000;0.1099;0.8507;
990.0000;0.1083;0.8365;
990.3000;0.1074;0.8365;
990.6000;0.1107;0.8389;
990.9000;0.1107;0.8270;
991.2000;0.1083;0.8176;
991.5000;0.1107;0.8270;
991.8000;0.1091;0.8199;
992.1000;0.1074;0.8128;
992.4000;0.1083;0.8128;
992.7000;0.1083;0.8081;
993.0000;0.1074;0.8081;
993.3000;0.1115;0.8152;
993.6000;0.1091;0.8105;
993.9000;0.1107;0.8128;
994.2000;0.1123;0.8176;
994.5000;0.1099;0.8247;
994.8000;0.1107;0.8223;
995.1000;0.1140;0.8270;
995.4000;0.1099;0.8199;
995.7000;0.1107;0.8270;
996.0000;0.1099;0.8342;
996.3000;0.1107;0.8413;
996.6000;0.1099;0.8389;
996.9000;0.1050;0.8223;
997.2000;0.1148;0.8531;
997.5000;0.1099;0.8389;
997.8000;0.1148;0.8507;
998.1000;0.1107;0.8413;
998.4000;0.1083;0.8342;
998.7000;0.1099;0.8436;
999.0000;0.1099;0.8531;
999.3000;0.1074;0.8484;
999.6000;0.1107;0.8579;
999.9000;0.1107;0.8602;
1000.2000;0.1091;0.8579;
1000.5000;0.1091;0.8579;
1000.8000;0.1099;0.8626;
1001.1000;0.1099;0.8602;
1001.4000;0.1091;0.8673;
1001.7000;0.1083;0.8579;
1002.0000;0.1107;0.8531;
1002.3000;0.1099;0.8460;
1002.6000;0.1091;0.8436;
1002.9000;0.1091;0.8413;
1003.2000;0.1099;0.8413;
1003.5000;0.1107;0.8436;
1003.8000;0.1099;0.8460;
1004.1000;0.1066;0.8413;
1004.4000;0.1091;0.8484;
1004.7000;0.1115;0.8531;
1005.0000;0.1115;0.8484;
1005.3000;0.1091;0.8460;
1005.6000;0.1034;0.8294;
1005.9000;0.1091;0.8460;
1006.2000;0.1107;0.8555;
1006.5000;0.1083;0.8484;
1006.8000;0.1091;0.8460;
1007.1000;0.1050;0.8365;
1007.4000;0.1083;0.8389;
1007.7000;0.1091;0.8389;
1008.0000;0.1099;0.8507;
1008.3000;0.1066;0.8389;
1008.6000;0.1115;0.8389;
1008.9000;0.1107;0.8389;
1009.2000;0.1099;0.8413;
1009.5000;0.1099;0.8436;
1009.8000;0.1083;0.8436;
1010.1000;0.1115;0.8531;
1010.4000;0.1107;0.8460;
1010.7000;0.1091;0.8436;
1011.0000;0.1083;0.8460;
1011.3000;0.1115;0.8436;
1011.6000;0.1099;0.8413;
1011.9000;0.1083;0.8389;
1012.2000;0.1091;0.8413;
1012.5000;0.1066;0.8389;
1012.8000;0.1091;0.8460;
1013.1000;0.1099;0.8436;
1013.4000;0.1083;0.8365;
1013.7000;0.1083;0.8342;
1014.0000;0.1083;0.8342;
1014.3000;0.1074;0.8270;
1014.6000;0.1091;0.8318;
1014.9000;0.1074;0.8342;
1015.2000;0.1091;0.8460;
1015.5000;0.1091;0.8365;
1015.8000;0.1083;0.8365;
1016.1000;0.1091;0.8413;
1016.4000;0.1034;0.8294;
1016.7000;0.1099;0.8413;
1017.0000;0.1074;0.8365;
1017.3000;0.1107;0.8460;
1017.6000;0.1074;0.8342;
1017.9000;0.1083;0.8318;
1018.2000;0.1074;0.8365;
1018.5000;0.1074;0.8342;
1018.8000;0.1034;0.8270;
1019.1000;0.1123;0.8389;
1019.4000;0.1107;0.8342;
1019.7000;0.1083;0.8389;
1020.0000;0.1091;0.8413;
1020.3000;0.1083;0.8365;
1020.6000;0.1091;0.8389;
1020.9000;0.1058;0.8318;
1021.2000;0.1099;0.8342;
1021.5000;0.1091;0.8389;
1021.8000;0.1074;0.8460;
1022.1000;0.1091;0.8507;
1022.4000;0.1091;0.8555;
1022.7000;0.1091;0.8531;
1023.0000;0.1099;0.8507;
1023.3000;0.1050;0.8342;
1023.6000;0.1083;0.8413;
1023.9000;0.1083;0.8294;
1024.2000;0.1107;0.8247;
1024.5000;0.1123;0.8223;
1024.8000;0.1091;0.8152;
1025.1000;0.1083;0.8152;
1025.4000;0.1099;0.8152;
1025.7000;0.1091;0.8152;
1026.0000;0.1099;0.8247;
1026.3000;0.1107;0.8294;
1026.6000;0.1091;0.8365;
1026.9000;0.1091;0.8436;
1027.2000;0.1107;0.8460;
1027.5000;0.1074;0.8413;
1027.8000;0.1083;0.8389;
1028.1000;0.1083;0.8389;
1028.4000;0.1083;0.8365;
1028.7000;0.1115;0.8460;
1029.0000;0.1099;0.8484;
1029.3000;0.1099;0.8531;
1029.6000;0.1050;0.8413;
1029.9000;0.1099;0.8531;
1030.2000;0.1091;0.8484;
1030.5000;0.1091;0.8484;
1030.8000;0.1066;0.8389;
1031.1000;0.1140;0.8626;
1031.4000;0.1099;0.8555;
1031.7000;0.1074;0.8507;
1032.0000;0.1099;0.8555;
1032.3000;0.1091;0.8507;
1032.6000;0.1083;0.8389;
1032.9000;0.1091;0.8436;
1033.2000;0.1083;0.8460;
1033.5000;0.1091;0.8507;
1033.8000;0.1083;0.8460;
1034.1000;0.1074;0.8365;
1034.4000;0.1083;0.8413;
1034.7000;0.1091;0.8342;
1035.0000;0.1083;0.8294;
1035.3000;0.1107;0.8413;
1035.6000;0.1091;0.8389;
1035.9000;0.1131;0.8460;
1036.2000;0.1107;0.8436;
1036.5000;0.1091;0.8318;
1036.8000;0.1099;0.8342;
1037.1000;0.1140;0.8436;
1037.4000;0.1115;0.8270;
1037.7000;0.1091;0.8176;
1038.0000;0.1074;0.8081;
1038.3000;0.1083;0.8033;
1038.6000;0.1099;0.8105;
1038.9000;0.1099;0.8128;
1039.2000;0.1042;0.8010;
1039.5000;0.1066;0.8081;
1039.8000;0.1099;0.8105;
1040.1000;0.1083;0.8199;
1040.4000;0.1074;0.8176;
1040.7000;0.1083;0.8152;
1041.0000;0.1115;0.8128;
1041.3000;0.1074;0.8081;
1041.6000;0.1107;0.8199;
1041.9000;0.1074;0.8199;
1042.2000;0.1099;0.8294;
1042.5000;0.1107;0.8342;
1042.8000;0.1099;0.8365;
1043.1000;0.1091;0.8365;
1043.4000;0.1074;0.8342;
1043.7000;0.1091;0.8460;
1044.0000;0.1074;0.8413;
1044.3000;0.1131;0.8436;
1044.6000;0.1083;0.8342;
1044.9000;0.1083;0.8294;
1045.2000;0.1091;0.8294;
1045.5000;0.1050;0.8223;
1045.8000;0.1083;0.8294;
1046.1000;0.1074;0.8318;
1046.4000;0.1083;0.8247;
1046.7000;0.1083;0.8247;
1047.0000;0.1074;0.8365;
1047.3000;0.1083;0.8365;
1047.6000;0.1083;0.8413;
1047.9000;0.1091;0.8460;
1048.2000;0.1091;0.8389;
1048.5000;0.1083;0.8365;
1048.8000;0.1099;0.8318;
1049.1000;0.1083;0.8247;
1049.4000;0.1131;0.8318;
1049.7000;0.1083;0.8247;
1050.0000;0.1083;0.8294;
1050.3000;0.1099;0.8342;
1050.6000;0.1083;0.8460;
1050.9000;0.1091;0.8436;
1051.2000;0.1091;0.8436;
1051.5000;0.1123;0.8342;
1051.8000;0.1091;0.8247;
1052.1000;0.1018;0.7939;
1052.4000;0.1074;0.8057;
1052.7000;0.1083;0.8105;
1053.0000;0.1083;0.8152;
1053.3000;0.1099;0.8199;
1053.6000;0.1083;0.8176;
1053.9000;0.1066;0.8223;
1054.2000;0.1091;0.8199;
1054.5000;0.1091;0.8318;
1054.8000;0.1066;0.8436;
1055.1000;0.1083;0.8579;
1055.4000;0.1083;0.8531;
1055.7000;0.1083;0.8531;
1056.0000;0.1107;0.8531;
1056.3000;0.1074;0.8413;
1056.6000;0.1099;0.8484;
1056.9000;0.1099;0.8531;
1057.2000;0.1083;0.8436;
1057.5000;0.1066;0.8365;
1057.8000;0.1172;0.8650;
1058.1000;0.1091;0.8484;
1058.4000;0.1099;0.8389;
1058.7000;0.1131;0.8342;
1059.0000;0.1091;0.8223;
1059.3000;0.1042;0.8152;
1059.6000;0.1099;0.8270;
1059.9000;0.1050;0.8294;
1060.2000;0.1083;0.8460;
1060.5000;0.1099;0.8484;
1060.8000;0.1066;0.8389;
1061.1000;0.1099;0.8413;
1061.4000;0.1074;0.8342;
1061.7000;0.1091;0.8270;
1062.0000;0.1091;0.8365;
1062.3000;0.1091;0.8365;
1062.6000;0.1091;0.8318;
1062.9000;0.1083;0.8294;
1063.2000;0.1091;0.8318;
1063.5000;0.1099;0.8342;
1063.8000;0.1091;0.8270;
1064.1000;0.1074;0.8270;
1064.4000;0.1091;0.8389;
1064.7000;0.1107;0.8460;
1065.0000;0.1107;0.8389;
1065.3000;0.1099;0.8389;
1065.6000;0.1115;0.8365;
1065.9000;0.1091;0.8365;
1066.2000;0.1083;0.8389;
1066.5000;0.1058;0.8365;
1066.8000;0.1083;0.8413;
1067.1000;0.1107;0.8389;
1067.4000;0.1099;0.8365;
1067.7000;0.1074;0.8294;
1068.0000;0.1074;0.8389;
1068.3000;0.1091;0.8365;
1068.6000;0.1091;0.8460;
1068.9000;0.1099;0.8484;
1069.2000;0.1099;0.8436;
1069.5000;0.1066;0.8365;
1069.8000;0.1099;0.8389;
1070.1000;0.1099;0.8389;
1070.4000;0.1091;0.8365;
1070.7000;0.1107;0.8413;
1071.0000;0.1099;0.8389;
1071.3000;0.1091;0.8389;
1071.6000;0.1091;0.8342;
1071.9000;0.1091;0.8365;
1072.2000;0.1058;0.8223;
1072.5000;0.1074;0.8270;
1072.8000;0.1074;0.8199;
1073.1000;0.1058;0.8152;
1073.4000;0.1083;0.8199;
1073.7000;0.1083;0.8176;
1074.0000;0.1074;0.8176;
1074.3000;0.1083;0.8247;
1074.6000;0.1083;0.8342;
1074.9000;0.1083;0.8365;
1075.2000;0.1083;0.8342;
1075.5000;0.1107;0.8365;
1075.8000;0.1091;0.8365;
1076.1000;0.1091;0.8342;
1076.4000;0.1091;0.8294;
1076.7000;0.1091;0.8270;
1077.0000;0.1083;0.8318;
1077.3000;0.1083;0.8270;
1077.6000;0.1083;0.8247;
1077.9000;0.1083;0.8270;
1078.2000;0.1099;0.8294;
1078.5000;0.1099;0.8223;
1078.8000;0.1066;0.8247;
1079.1000;0.1083;0.8365;
1079.4000;0.1091;0.8318;
1079.7000;0.1074;0.8342;
1080.0000;0.1099;0.8365;
1080.3000;0.1091;0.8389;
1080.6000;0.1091;0.8389;
1080.9000;0.1099;0.8365;
1081.2000;0.1123;0.8389;
1081.5000;0.1091;0.8342;
1081.8000;0.1099;0.8365;
1082.1000;0.1123;0.8365;
1082.4000;0.1107;0.8270;
1082.7000;0.1091;0.8199;
1083.0000;0.1107;0.8223;
1083.3000;0.1140;0.8318;
1083.6000;0.1066;0.8081;
1083.9000;0.1099;0.8105;
1084.2000;0.1123;0.8105;
1084.5000;0.1091;0.8105;
1084.8000;0.1091;0.8152;
1085.1000;0.1083;0.8176;
1085.4000;0.1083;0.8223;
1085.7000;0.1091;0.8247;
1086.0000;0.1091;0.8247;
1086.3000;0.1091;0.8413;
1086.6000;0.1091;0.8389;
1086.9000;0.1091;0.8436;
1087.2000;0.1083;0.8294;
1087.5000;0.1083;0.8318;
1087.8000;0.1091;0.8247;
1088.1000;0.1107;0.8318;
1088.4000;0.1083;0.8294;
1088.7000;0.1083;0.8247;
1089.0000;0.1091;0.8199;
1089.3000;0.1083;0.8176;
1089.6000;0.1083;0.8223;
1089.9000;0.1083;0.8223;
1090.2000;0.1083;0.8176;
1090.5000;0.1099;0.8176;
1090.8000;0.1083;0.8176;
1091.1000;0.1083;0.8152;
1091.4000;0.1083;0.8223;
1091.7000;0.1099;0.8294;
1092.0000;0.1091;0.8247;
1092.3000;0.1091;0.8223;
1092.6000;0.1091;0.8199;
1092.9000;0.1066;0.8152;
1093.2000;0.1091;0.8152;
1093.5000;0.1091;0.8152;
1093.8000;0.1148;0.8318;
1094.1000;0.1099;0.8223;
1094.4000;0.1066;0.8199;
1094.7000;0.1083;0.8128;
1095.0000;0.1074;0.8128;
1095.3000;0.1083;0.8105;
1095.6000;0.1074;0.8176;
1095.9000;0.1083;0.8152;
1096.2000;0.1074;0.8033;
1096.5000;0.1083;0.8057;
1096.8000;0.1099;0.8128;
1097.1000;0.1091;0.8152;
1097.4000;0.1083;0.8199;
1097.7000;0.1066;0.8152;
1098.0000;0.1083;0.8199;
1098.3000;0.1099;0.8223;
1098.6000;0.1091;0.8152;
1098.9000;0.1066;0.8105;
1099.2000;0.1042;0.8010;
1099.5000;0.1050;0.8033;
1099.8000;0.1091;0.8152;
1100.1000;0.1066;0.8033;
1100.4000;0.1091;0.8128;
1100.7000;0.1099;0.8199;
1101.0000;0.1074;0.8176;
1101.3000;0.1074;0.8199;
1101.6000;0.1074;0.8223;
1101.9000;0.1091;0.8247;
1102.2000;0.1107;0.8247;
1102.5000;0.1115;0.8270;
1102.8000;0.1099;0.8294;
1103.1000;0.1156;0.8389;
1103.4000;0.1091;0.8270;
1103.7000;0.1107;0.8318;
1104.0000;0.1091;0.8247;
1104.3000;0.1099;0.8128;
1104.6000;0.1123;0.8105;
1104.9000;0.1091;0.8105;
1105.2000;0.1099;0.8010;
1105.5000;0.1066;0.7939;
1105.8000;0.1091;0.8033;
1106.1000;0.1074;0.8105;
1106.4000;0.1083;0.8081;
1106.7000;0.1083;0.8081;
1107.0000;0.1115;0.8105;
1107.3000;0.1083;0.8105;
1107.6000;0.1091;0.8081;
1107.9000;0.1091;0.8081;
1108.2000;0.1083;0.8057;
1108.5000;0.1083;0.8128;
1108.8000;0.1107;0.8247;
1109.1000;0.1083;0.8223;
1109.4000;0.1083;0.8247;
1109.7000;0.1091;0.8247;
1110.0000;0.1099;0.8223;
1110.3000;0.1083;0.8176;
1110.6000;0.1074;0.8223;
1110.9000;0.1172;0.8579;
1111.2000;0.1099;0.8365;
1111.5000;0.1074;0.8223;
1111.8000;0.1074;0.8270;
1112.1000;0.1074;0.8247;
1112.4000;0.1107;0.8365;
1112.7000;0.1091;0.8318;
1113.0000;0.1083;0.8247;
1113.3000;0.1083;0.8270;
1113.6000;0.1091;0.8365;
1113.9000;0.1131;0.8531;
1114.2000;0.1074;0.8342;
1114.5000;0.1083;0.8413;
1114.8000;0.1074;0.8294;
1115.1000;0.1083;0.8270;
1115.4000;0.1058;0.8176;
1115.7000;0.1115;0.8342;
1116.0000;0.1091;0.8318;
1116.3000;0.1083;0.8318;
1116.6000;0.1123;0.8413;
1116.9000;0.1083;0.8294;
1117.2000;0.1099;0.8294;
1117.5000;0.1066;0.8318;
1117.8000;0.1115;0.8318;
1118.1000;0.1083;0.8176;
1118.4000;0.1091;0.8247;
1118.7000;0.1091;0.8389;
1119.0000;0.1091;0.8365;
1119.3000;0.1091;0.8318;
1119.6000;0.1107;0.8247;
1119.9000;0.1083;0.8270;
1120.2000;0.1115;0.8318;
1120.5000;0.1107;0.8247;
1120.8000;0.1083;0.8128;
1121.1000;0.1107;0.8152;
1121.4000;0.1058;0.8057;
1121.7000;0.1099;0.8176;
1122.0000;0.1091;0.8176;
1122.3000;0.1074;0.8223;
1122.6000;0.1107;0.8294;
1122.9000;0.1074;0.8176;
1123.2000;0.1083;0.8199;
1123.5000;0.1074;0.8223;
1123.8000;0.1091;0.8270;
1124.1000;0.1091;0.8318;
1124.4000;0.1091;0.8413;
1124.7000;0.1091;0.8413;
1125.0000;0.1074;0.8318;
1125.3000;0.1091;0.8436;
1125.6000;0.1066;0.8318;
1125.9000;0.1099;0.8436;
1126.2000;0.1099;0.8436;
1126.5000;0.1091;0.8342;
1126.8000;0.1180;0.8555;
1127.1000;0.1091;0.8342;
1127.4000;0.1107;0.8413;
1127.7000;0.1107;0.8389;
1128.0000;0.1107;0.8413;
1128.3000;0.1034;0.8128;
1128.6000;0.1107;0.8389;
1128.9000;0.1172;0.8626;
1129.2000;0.1042;0.8152;
1129.5000;0.1050;0.8176;
1129.8000;0.1091;0.8294;
1130.1000;0.1018;0.8199;
1130.4000;0.1083;0.8365;
1130.7000;0.1099;0.8460;
1131.0000;0.1083;0.8389;
1131.3000;0.1091;0.8436;
1131.6000;0.1115;0.8436;
1131.9000;0.1188;0.8531;
1132.2000;0.1091;0.8342;
1132.5000;0.1083;0.8318;
1132.8000;0.1091;0.8342;
1133.1000;0.1091;0.8389;
1133.4000;0.1099;0.8365;
1133.7000;0.1107;0.8270;
1134.0000;0.1083;0.8199;
1134.3000;0.1066;0.8057;
1134.6000;0.1074;0.8033;
1134.9000;0.1083;0.8033;
1135.2000;0.1156;0.8223;
1135.5000;0.1083;0.8057;
1135.8000;0.1066;0.8081;
1136.1000;0.1099;0.8128;
1136.4000;0.1107;0.8247;
1136.7000;0.1026;0.8033;
1137.0000;0.1083;0.8247;
1137.3000;0.1083;0.8199;
1137.6000;0.1083;0.8176;
1137.9000;0.1083;0.8199;
1138.2000;0.1091;0.8270;
1138.5000;0.1115;0.8436;
1138.8000;0.1099;0.8365;
1139.1000;0.1066;0.8318;
1139.4000;0.1034;0.8199;
1139.7000;0.1042;0.8270;
1140.0000;0.1099;0.8342;
1140.3000;0.1074;0.8223;
1140.6000;0.1140;0.8389;
1140.9000;0.1131;0.8318;
1141.2000;0.1091;0.8223;
1141.5000;0.1066;0.8199;
1141.8000;0.1083;0.8223;
1142.1000;0.1066;0.8223;
1142.4000;0.1099;0.8223;
1142.7000;0.1123;0.8342;
1143.0000;0.1074;0.8270;
1143.3000;0.1099;0.8342;
1143.6000;0.1091;0.8294;
1143.9000;0.1083;0.8318;
1144.2000;0.1091;0.8389;
1144.5000;0.1099;0.8389;
1144.8000;0.1099;0.8389;
1145.1000;0.1107;0.8365;
1145.4000;0.1107;0.8342;
1145.7000;0.1083;0.8318;
1146.0000;0.1140;0.8436;
1146.3000;0.1074;0.8342;
1146.6000;0.1123;0.8436;
1146.9000;0.1083;0.8318;
1147.2000;0.1083;0.8294;
1147.5000;0.1083;0.8389;
1147.8000;0.1123;0.8460;
1148.1000;0.1083;0.8413;
1148.4000;0.1066;0.8436;
1148.7000;0.1083;0.8460;
1149.0000;0.1083;0.8484;
1149.3000;0.1107;0.8531;
1149.6000;0.1099;0.8579;
1149.9000;0.1074;0.8484;
1150.2000;0.1107;0.8579;
1150.5000;0.1058;0.8436;
1150.8000;0.1099;0.8507;
1151.1000;0.1091;0.8484;
1151.4000;0.1083;0.8531;
1151.7000;0.1058;0.8507;
1152.0000;0.1172;0.8626;
1152.3000;0.1083;0.8389;
1152.6000;0.1099;0.8365;
1152.9000;0.1083;0.8318;
1153.2000;0.1034;0.8247;
1153.5000;0.1074;0.8318;
1153.8000;0.1083;0.8389;
1154.1000;0.1058;0.8389;
1154.4000;0.1074;0.8318;
1154.7000;0.1091;0.8294;
1155.0000;0.1074;0.8389;
1155.3000;0.1107;0.8436;
1155.6000;0.1074;0.8413;
1155.9000;0.1140;0.8579;
1156.2000;0.1074;0.8436;
1156.5000;0.1148;0.8555;
1156.8000;0.1099;0.8436;
1157.1000;0.1091;0.8436;
1157.4000;0.1091;0.8484;
1157.7000;0.1083;0.8460;
1158.0000;0.1099;0.8413;
1158.3000;0.1083;0.8294;
1158.6000;0.1091;0.8247;
1158.9000;0.1099;0.8294;
1159.2000;0.1099;0.8413;
1159.5000;0.1034;0.8294;
1159.8000;0.1083;0.8413;
1160.1000;0.1091;0.8436;
1160.4000;0.1107;0.8531;
1160.7000;0.1115;0.8531;
1161.0000;0.1066;0.8342;
1161.3000;0.1058;0.8413;
1161.6000;0.1058;0.8342;
1161.9000;0.1074;0.8413;
1162.2000;0.1083;0.8460;
1162.5000;0.1058;0.8413;
1162.8000;0.1074;0.8436;
1163.1000;0.1058;0.8365;
1163.4000;0.1099;0.8413;
1163.7000;0.1083;0.8318;
1164.0000;0.1083;0.8247;
1164.3000;0.1099;0.8270;
1164.6000;0.1042;0.8176;
1164.9000;0.1083;0.8294;
1165.2000;0.1074;0.8294;
1165.5000;0.1083;0.8389;
1165.8000;0.1074;0.8436;
1166.1000;0.1074;0.8413;
1166.4000;0.1066;0.8342;
1166.7000;0.1091;0.8413;
1167.0000;0.1074;0.8413;
1167.3000;0.1050;0.8413;
1167.6000;0.1066;0.8436;
1167.9000;0.1091;0.8436;
1168.2000;0.1099;0.8436;
1168.5000;0.1091;0.8484;
1168.8000;0.1083;0.8389;
1169.1000;0.1083;0.8413;
1169.4000;0.1091;0.8413;
1169.7000;0.1099;0.8484;
1170.0000;0.1083;0.8531;
1170.3000;0.1074;0.8531;
1170.6000;0.1074;0.8579;
1170.9000;0.1099;0.8579;
1171.2000;0.1074;0.8531;
1171.5000;0.1074;0.8531;
1171.8000;0.1115;0.8602;
1172.1000;0.1091;0.8531;
1172.4000;0.1058;0.8460;
1172.7000;0.1091;0.8507;
1173.0000;0.1099;0.8507;
1173.3000;0.1091;0.8484;
1173.6000;0.1091;0.8460;
1173.9000;0.1091;0.8484;
1174.2000;0.1099;0.8507;
1174.5000;0.1107;0.8555;
1174.8000;0.1091;0.8579;
1175.1000;0.1074;0.8484;
1175.4000;0.1091;0.8555;
1175.7000;0.1107;0.8484;
1176.0000;0.1123;0.8436;
1176.3000;0.1115;0.8484;
1176.6000;0.1074;0.8365;
1176.9000;0.1091;0.8460;
1177.2000;0.1091;0.8436;
1177.5000;0.1083;0.8413;
1177.8000;0.1083;0.8365;
1178.1000;0.1066;0.8389;
1178.4000;0.1042;0.8294;
1178.7000;0.1083;0.8365;
1179.0000;0.1083;0.8365;
1179.3000;0.1091;0.8389;
1179.6000;0.1091;0.8413;
1179.9000;0.1091;0.8365;
1180.2000;0.1099;0.8342;
1180.5000;0.1107;0.8413;
1180.8000;0.1083;0.8484;
1181.1000;0.1099;0.8484;
1181.4000;0.1083;0.8365;
1181.7000;0.1034;0.8270;
1182.0000;0.1091;0.8365;
1182.3000;0.1091;0.8318;
1182.6000;0.1091;0.8318;
1182.9000;0.1091;0.8342;
1183.2000;0.1091;0.8365;
1183.5000;0.1074;0.8436;
1183.8000;0.1099;0.8555;
1184.1000;0.1083;0.8484;
1184.4000;0.1083;0.8436;
1184.7000;0.1034;0.8436;
1185.0000;0.1107;0.8673;
1185.3000;0.1083;0.8579;
1185.6000;0.1115;0.8602;
1185.9000;0.1083;0.8555;
1186.2000;0.1123;0.8650;
1186.5000;0.1099;0.8531;
1186.8000;0.1083;0.8460;
1187.1000;0.1091;0.8484;
1187.4000;0.1058;0.8365;
1187.7000;0.1083;0.8294;
1188.0000;0.1091;0.8365;
1188.3000;0.1083;0.8365;
1188.6000;0.1091;0.8365;
1188.9000;0.1083;0.8389;
1189.2000;0.1074;0.8318;
1189.5000;0.1074;0.8342;
1189.8000;0.1074;0.8294;
1190.1000;0.1066;0.8152;
1190.4000;0.1083;0.8128;
1190.7000;0.1083;0.8128;
1191.0000;0.1066;0.8152;
1191.3000;0.1083;0.8152;
1191.6000;0.1091;0.8270;
1191.9000;0.1074;0.8365;
1192.2000;0.1099;0.8413;
1192.5000;0.1099;0.8436;
1192.8000;0.1099;0.8413;
1193.1000;0.1074;0.8342;
1193.4000;0.1091;0.8365;
1193.7000;0.1083;0.8436;
1194.0000;0.1107;0.8507;
1194.3000;0.1091;0.8484;
1194.6000;0.1083;0.8531;
1194.9000;0.1099;0.8460;
1195.2000;0.1050;0.8247;
1195.5000;0.1083;0.8318;
1195.8000;0.1107;0.8413;
1196.1000;0.1074;0.8365;
1196.4000;0.1074;0.8318;
1196.7000;0.1091;0.8389;
1197.0000;0.1107;0.8460;
1197.3000;0.1074;0.8413;
1197.6000;0.1099;0.8389;
1197.9000;0.1091;0.8318;
1198.2000;0.1074;0.8365;
1198.5000;0.1091;0.8318;
1198.8000;0.1091;0.8199;
1199.1000;0.1083;0.8247;
1199.4000;0.1091;0.8365;
1199.7000;0.1074;0.8247;
1200.0000;0.1066;0.8294;
1200.3000;0.1099;0.8389;
1200.6000;0.1074;0.8389;
1200.9000;0.1074;0.8436;
1201.2000;0.1074;0.8389;
1201.5000;0.1083;0.8389;
1201.8000;0.1091;0.8342;
1202.1000;0.1107;0.8389;
1202.4000;0.1083;0.8294;
1202.7000;0.1091;0.8342;
1203.0000;0.1091;0.8436;
1203.3000;0.1099;0.8507;
1203.6000;0.1091;0.8602;
1203.9000;0.1091;0.8697;
1204.2000;0.1083;0.8697;
1204.5000;0.1099;0.8744;
1204.8000;0.1074;0.8673;
1205.1000;0.1083;0.8626;
1205.4000;0.1083;0.8650;
1205.7000;0.1074;0.8650;
1206.0000;0.1099;0.8650;
1206.3000;0.1083;0.8531;
1206.6000;0.1066;0.8602;
1206.9000;0.1091;0.8602;
1207.2000;0.1066;0.8531;
1207.5000;0.1083;0.8484;
1207.8000;0.1099;0.8413;
1208.1000;0.1099;0.8413;
1208.4000;0.1091;0.8484;
1208.7000;0.1099;0.8531;
1209.0000;0.1099;0.8507;
1209.3000;0.1050;0.8389;
1209.6000;0.1107;0.8460;
1209.9000;0.1026;0.8294;
1210.2000;0.1074;0.8436;
1210.5000;0.1066;0.8389;
1210.8000;0.1099;0.8507;
1211.1000;0.1099;0.8555;
1211.4000;0.1058;0.8484;
1211.7000;0.1107;0.8626;
1212.0000;0.1074;0.8579;
1212.3000;0.1107;0.8531;
1212.6000;0.1066;0.8436;
1212.9000;0.1091;0.8484;
1213.2000;0.1074;0.8413;
1213.5000;0.1091;0.8531;
1213.8000;0.1091;0.8531;
1214.1000;0.1083;0.8507;
1214.4000;0.1091;0.8531;
1214.7000;0.1123;0.8602;
1215.0000;0.1074;0.8436;
1215.3000;0.1074;0.8413;
1215.6000;0.1091;0.8365;
1215.9000;0.1083;0.8365;
1216.2000;0.1091;0.8365;
1216.5000;0.1091;0.8365;
1216.8000;0.1074;0.8342;
1217.1000;0.1083;0.8436;
1217.4000;0.1083;0.8460;
1217.7000;0.1074;0.8436;
1218.0000;0.1058;0.8342;
1218.3000;0.1050;0.8342;
1218.6000;0.1091;0.8460;
1218.9000;0.1074;0.8389;
1219.2000;0.1026;0.8199;
1219.5000;0.1066;0.8270;
1219.8000;0.1091;0.8270;
1220.1000;0.1083;0.8223;
1220.4000;0.1074;0.8294;
1220.7000;0.1074;0.8342;
1221.0000;0.1083;0.8413;
1221.3000;0.1099;0.8413;
1221.6000;0.1091;0.8507;
1221.9000;0.1099;0.8531;
1222.2000;0.1083;0.8579;
1222.5000;0.1066;0.8531;
1222.8000;0.1091;0.8579;
1223.1000;0.1066;0.8531;
1223.4000;0.1083;0.8626;
1223.7000;0.1091;0.8721;
1224.0000;0.1083;0.8673;
1224.3000;0.1074;0.8579;
1224.6000;0.1074;0.8484;
1224.9000;0.1074;0.8436;
1225.2000;0.1083;0.8436;
1225.5000;0.1091;0.8318;
1225.8000;0.1074;0.8270;
1226.1000;0.1074;0.8294;
1226.4000;0.1058;0.8342;
1226.7000;0.1083;0.8413;
1227.0000;0.1074;0.8365;
1227.3000;0.1058;0.8342;
1227.6000;0.1091;0.8389;
1227.9000;0.1074;0.8318;
1228.2000;0.1091;0.8365;
1228.5000;0.1074;0.8389;
1228.8000;0.1058;0.8342;
1229.1000;0.1074;0.8365;
1229.4000;0.1074;0.8389;
1229.7000;0.1091;0.8413;
1230.0000;0.1074;0.8389;
1230.3000;0.1074;0.8318;
1230.6000;0.1074;0.8436;
1230.9000;0.1099;0.8484;
1231.2000;0.1083;0.8460;
1231.5000;0.1091;0.8413;
1231.8000;0.1099;0.8413;
1232.1000;0.1083;0.8389;
1232.4000;0.1074;0.8270;
1232.7000;0.1066;0.8318;
1233.0000;0.1091;0.8318;
1233.3000;0.1074;0.8389;
1233.6000;0.1001;0.8105;
1233.9000;0.1180;0.8673;
1234.2000;0.1083;0.8413;
1234.5000;0.1074;0.8389;
1234.8000;0.1066;0.8270;
1235.1000;0.1123;0.8342;
1235.4000;0.1099;0.8365;
1235.7000;0.1083;0.8365;
1236.0000;0.1066;0.8436;
1236.3000;0.1091;0.8460;
1236.6000;0.1066;0.8484;
1236.9000;0.1091;0.8531;
1237.2000;0.1083;0.8460;
1237.5000;0.1083;0.8436;
1237.8000;0.1091;0.8413;
1238.1000;0.1091;0.8365;
1238.4000;0.1083;0.8389;
1238.7000;0.1074;0.8365;
1239.0000;0.1066;0.8294;
1239.3000;0.1083;0.8318;
1239.6000;0.1091;0.8294;
1239.9000;0.1066;0.8223;
1240.2000;0.1058;0.8152;
1240.5000;0.1074;0.8223;
1240.8000;0.1115;0.8365;
1241.1000;0.1091;0.8342;
1241.4000;0.1091;0.8270;
1241.7000;0.1091;0.8294;
1242.0000;0.1083;0.8223;
1242.3000;0.1083;0.8270;
1242.6000;0.1091;0.8365;
1242.9000;0.1066;0.8270;
1243.2000;0.1083;0.8365;
1243.5000;0.1099;0.8389;
1243.8000;0.1050;0.8247;
1244.1000;0.1074;0.8294;
1244.4000;0.1099;0.8342;
1244.7000;0.1099;0.8342;
1245.0000;0.1066;0.8342;
1245.3000;0.1083;0.8365;
1245.6000;0.1083;0.8389;
1245.9000;0.1018;0.8247;
1246.2000;0.1091;0.8460;
1246.5000;0.1099;0.8531;
1246.8000;0.1099;0.8460;
1247.1000;0.1074;0.8389;
1247.4000;0.1074;0.8413;
1247.7000;0.1099;0.8436;
1248.0000;0.1074;0.8460;
1248.3000;0.1042;0.8318;
1248.6000;0.1066;0.8270;
1248.9000;0.1083;0.8270;
1249.2000;0.1026;0.8105;
1249.5000;0.1083;0.8223;
1249.8000;0.1099;0.8199;
1250.1000;0.1074;0.8176;
1250.4000;0.1083;0.8176;
1250.7000;0.1083;0.8152;
1251.0000;0.1083;0.8105;
1251.3000;0.1083;0.8081;
1251.6000;0.1074;0.8033;
1251.9000;0.1083;0.8057;
1252.2000;0.1091;0.8081;
1252.5000;0.1107;0.8199;
1252.8000;0.1091;0.8294;
1253.1000;0.1099;0.8342;
1253.4000;0.1083;0.8365;
1253.7000;0.1099;0.8365;
1254.0000;0.1091;0.8247;
1254.3000;0.1074;0.8223;
1254.6000;0.1074;0.8342;
1254.9000;0.1083;0.8389;
1255.2000;0.1107;0.8413;
1255.5000;0.1083;0.8365;
1255.8000;0.1083;0.8389;
1256.1000;0.1083;0.8270;
1256.4000;0.1074;0.8294;
1256.7000;0.1083;0.8294;
1257.0000;0.1083;0.8365;
1257.3000;0.1099;0.8436;
1257.6000;0.1099;0.8460;
1257.9000;0.1058;0.8484;
1258.2000;0.1074;0.8436;
1258.5000;0.1074;0.8389;
1258.8000;0.1091;0.8531;
1259.1000;0.1099;0.8555;
1259.4000;0.1083;0.8436;
1259.7000;0.1074;0.8413;
1260.0000;0.1083;0.8365;
1260.3000;0.1091;0.8436;
1260.6000;0.1091;0.8365;
1260.9000;0.1058;0.8318;
1261.2000;0.1091;0.8342;
1261.5000;0.1091;0.8342;
1261.8000;0.1091;0.8389;
1262.1000;0.1042;0.8247;
1262.4000;0.1099;0.8318;
1262.7000;0.1091;0.8270;
1263.0000;0.1066;0.8105;
1263.3000;0.1099;0.8199;
1263.6000;0.1074;0.8176;
1263.9000;0.1091;0.8199;
1264.2000;0.1107;0.8199;
1264.5000;0.1099;0.8199;
1264.8000;0.1058;0.8152;
1265.1000;0.1083;0.8152;
1265.4000;0.1091;0.8176;
1265.7000;0.1099;0.8318;
1266.0000;0.1083;0.8223;
1266.3000;0.1091;0.8270;
1266.6000;0.1091;0.8294;
1266.9000;0.1099;0.8318;
1267.2000;0.1058;0.8270;
1267.5000;0.1083;0.8318;
1267.8000;0.1123;0.8389;
1268.1000;0.1107;0.8365;
1268.4000;0.1074;0.8294;
1268.7000;0.1083;0.8199;
1269.0000;0.1083;0.8105;
1269.3000;0.1083;0.8105;
1269.6000;0.1091;0.8057;
1269.9000;0.1083;0.7939;
1270.2000;0.1107;0.8010;
1270.5000;0.1115;0.8057;
1270.8000;0.1099;0.8010;
1271.1000;0.1107;0.8128;
1271.4000;0.1083;0.8199;
1271.7000;0.1091;0.8223;
1272.0000;0.1083;0.8318;
1272.3000;0.1083;0.8342;
1272.6000;0.1115;0.8460;
1272.9000;0.1083;0.8365;
1273.2000;0.1123;0.8413;
1273.5000;0.1074;0.8294;
1273.8000;0.1083;0.8270;
1274.1000;0.1091;0.8318;
1274.4000;0.1091;0.8342;
1274.7000;0.1066;0.8294;
1275.0000;0.1083;0.8247;
1275.3000;0.1099;0.8247;
1275.6000;0.1099;0.8270;
1275.9000;0.1091;0.8199;
1276.2000;0.1083;0.8199;
1276.5000;0.1091;0.8128;
1276.8000;0.1066;0.8152;
1277.1000;0.1091;0.8223;
1277.4000;0.1074;0.8176;
1277.7000;0.1083;0.8152;
1278.0000;0.1099;0.8152;
1278.3000;0.1099;0.8270;
1278.6000;0.1083;0.8318;
1278.9000;0.1091;0.8365;
1279.2000;0.1091;0.8270;
1279.5000;0.1099;0.8365;
1279.8000;0.1050;0.8152;
1280.1000;0.1091;0.8247;
1280.4000;0.1099;0.8318;
1280.7000;0.1091;0.8342;
1281.0000;0.1115;0.8294;
1281.3000;0.1091;0.8199;
1281.6000;0.1091;0.8199;
1281.9000;0.1115;0.8199;
1282.2000;0.1091;0.8176;
1282.5000;0.1083;0.8152;
1282.8000;0.1091;0.8152;
1283.1000;0.1050;0.8128;
1283.4000;0.1074;0.8199;
1283.7000;0.1074;0.8318;
1284.0000;0.1083;0.8413;
1284.3000;0.1066;0.8247;
1284.6000;0.1050;0.8270;
1284.9000;0.1091;0.8484;
1285.2000;0.1074;0.8484;
1285.5000;0.1066;0.8413;
1285.8000;0.1058;0.8389;
1286.1000;0.1115;0.8460;
1286.4000;0.1083;0.8389;
1286.7000;0.1091;0.8436;
1287.0000;0.1074;0.8389;
1287.3000;0.1083;0.8270;
1287.6000;0.1091;0.8270;
1287.9000;0.1107;0.8294;
1288.2000;0.1083;0.8318;
1288.5000;0.1074;0.8318;
1288.8000;0.1099;0.8413;
1289.1000;0.1091;0.8318;
1289.4000;0.1091;0.8270;
1289.7000;0.1083;0.8247;
1290.0000;0.1099;0.8223;
1290.3000;0.1107;0.8294;
1290.6000;0.1083;0.8342;
1290.9000;0.1042;0.8247;
1291.2000;0.1074;0.8318;
1291.5000;0.1091;0.8294;
1291.8000;0.1066;0.8318;
1292.1000;0.1099;0.8389;
1292.4000;0.1074;0.8318;
1292.7000;0.1091;0.8389;
1293.0000;0.1074;0.8413;
1293.3000;0.1074;0.8389;
1293.6000;0.1083;0.8389;
1293.9000;0.1083;0.8413;
1294.2000;0.1083;0.8413;
1294.5000;0.1083;0.8413;
1294.8000;0.1074;0.8389;
1295.1000;0.1083;0.8460;
1295.4000;0.1091;0.8460;
1295.7000;0.1091;0.8484;
1296.0000;0.1091;0.8460;
1296.3000;0.1083;0.8365;
1296.6000;0.1074;0.8342;
1296.9000;0.1083;0.8270;
1297.2000;0.1074;0.8247;
1297.5000;0.1066;0.8294;
1297.8000;0.1107;0.8389;
1298.1000;0.1083;0.8318;
1298.4000;0.1083;0.8365;
1298.7000;0.1091;0.8531;
1299.0000;0.1091;0.8531;
1299.3000;0.1131;0.8555;
1299.6000;0.1074;0.8342;
1299.9000;0.1083;0.8365;
1300.2000;0.1058;0.8342;
1300.5000;0.1058;0.8365;
1300.8000;0.1042;0.8247;
1301.1000;0.1083;0.8270;
1301.4000;0.1074;0.8294;
1301.7000;0.1009;0.8152;
1302.0000;0.1083;0.8294;
1302.3000;0.1066;0.8199;
1302.6000;0.1099;0.8294;
1302.9000;0.1074;0.8247;
1303.2000;0.1099;0.8199;
1303.5000;0.1042;0.8105;
1303.8000;0.1107;0.8223;
1304.1000;0.1066;0.8105;
1304.4000;0.1123;0.8247;
1304.7000;0.1107;0.8294;
1305.0000;0.1091;0.8318;
1305.3000;0.1091;0.8199;
1305.6000;0.1091;0.8128;
1305.9000;0.1042;0.7962;
1306.2000;0.1107;0.8105;
1306.5000;0.1083;0.8081;
1306.8000;0.1099;0.8128;
1307.1000;0.1099;0.8176;
1307.4000;0.1091;0.8199;
1307.7000;0.1074;0.8247;
1308.0000;0.1034;0.8199;
1308.3000;0.1099;0.8318;
1308.6000;0.1083;0.8270;
1308.9000;0.1083;0.8389;
1309.2000;0.1091;0.8342;
1309.5000;0.1091;0.8389;
1309.8000;0.1074;0.8365;
1310.1000;0.1091;0.8436;
1310.4000;0.1074;0.8389;
1310.7000;0.1066;0.8318;
1311.0000;0.1091;0.8436;
1311.3000;0.1099;0.8436;
1311.6000;0.1083;0.8365;
1311.9000;0.1074;0.8365;
1312.2000;0.1091;0.8413;
1312.5000;0.1140;0.8507;
1312.8000;0.1107;0.8413;
1313.1000;0.1172;0.8602;
1313.4000;0.1115;0.8460;
1313.7000;0.1099;0.8413;
1314.0000;0.1099;0.8413;
1314.3000;0.1083;0.8365;
1314.6000;0.1091;0.8436;
1314.9000;0.1099;0.8484;
1315.2000;0.1099;0.8484;
1315.5000;0.1091;0.8555;
1315.8000;0.1107;0.8460;
1316.1000;0.1115;0.8484;
1316.4000;0.1091;0.8365;
1316.7000;0.1091;0.8294;
1317.0000;0.1083;0.8270;
1317.3000;0.1123;0.8365;
1317.6000;0.1107;0.8270;
1317.9000;0.1066;0.8223;
1318.2000;0.1083;0.8270;
1318.5000;0.1107;0.8294;
1318.8000;0.1083;0.8199;
1319.1000;0.1034;0.7986;
1319.4000;0.1107;0.8152;
1319.7000;0.1115;0.8057;
1320.0000;0.1083;0.8081;
1320.3000;0.1091;0.8223;
1320.6000;0.1058;0.8247;
1320.9000;0.1091;0.8365;
1321.2000;0.1091;0.8365;
1321.5000;0.1083;0.8270;
1321.8000;0.1083;0.8176;
1322.1000;0.1083;0.8199;
1322.4000;0.1099;0.8199;
1322.7000;0.1091;0.8223;
1323.0000;0.1074;0.8176;
1323.3000;0.1091;0.8247;
1323.6000;0.1091;0.8342;
1323.9000;0.1083;0.8365;
1324.2000;0.1091;0.8318;
1324.5000;0.1074;0.8247;
1324.8000;0.1083;0.8247;
1325.1000;0.1083;0.8294;
1325.4000;0.1131;0.8389;
1325.7000;0.1091;0.8342;
1326.0000;0.1091;0.8389;
1326.3000;0.1091;0.8413;
1326.6000;0.1091;0.8389;
1326.9000;0.1148;0.8650;
1327.2000;0.1083;0.8342;
1327.5000;0.1034;0.8199;
1327.8000;0.1074;0.8318;
1328.1000;0.1083;0.8342;
1328.4000;0.1083;0.8294;
1328.7000;0.1099;0.8365;
1329.0000;0.1107;0.8318;
1329.3000;0.1099;0.8199;
1329.6000;0.1083;0.8128;
1329.9000;0.1115;0.8223;
1330.2000;0.1099;0.8176;
1330.5000;0.1123;0.8199;
1330.8000;0.1099;0.8176;
1331.1000;0.1091;0.8152;
1331.4000;0.1091;0.8176;
1331.7000;0.1091;0.8176;
1332.0000;0.1026;0.8010;
1332.3000;0.1050;0.8105;
1332.6000;0.1091;0.8223;
1332.9000;0.1083;0.8318;
1333.2000;0.1066;0.8247;
1333.5000;0.1091;0.8294;
1333.8000;0.1074;0.8294;
1334.1000;0.1091;0.8318;
1334.4000;0.1083;0.8270;
1334.7000;0.1099;0.8223;
1335.0000;0.1140;0.8389;
1335.3000;0.1058;0.8247;
1335.6000;0.1091;0.8342;
1335.9000;0.1107;0.8342;
1336.2000;0.1140;0.8460;
1336.5000;0.1091;0.8365;
1336.8000;0.1115;0.8389;
1337.1000;0.1107;0.8294;
1337.4000;0.1099;0.8247;
1337.7000;0.1091;0.8294;
1338.0000;0.1099;0.8342;
1338.3000;0.1050;0.8128;
1338.6000;0.1083;0.8176;
1338.9000;0.1123;0.8294;
1339.2000;0.1091;0.8176;
1339.5000;0.1083;0.8105;
1339.8000;0.1074;0.8176;
1340.1000;0.1091;0.8223;
1340.4000;0.1091;0.8294;
1340.7000;0.1074;0.8199;
1341.0000;0.1074;0.8199;
1341.3000;0.1091;0.8199;
1341.6000;0.1083;0.8247;
1341.9000;0.1083;0.8199;
1342.2000;0.1074;0.8199;
1342.5000;0.1083;0.8176;
1342.8000;0.1083;0.8176;
1343.1000;0.1034;0.8033;
1343.4000;0.1050;0.8152;
1343.7000;0.1074;0.8199;
1344.0000;0.1066;0.8105;
1344.3000;0.1091;0.8223;
1344.6000;0.1083;0.8199;
1344.9000;0.1066;0.8176;
1345.2000;0.1099;0.8270;
1345.5000;0.1083;0.8342;
1345.8000;0.1074;0.8270;
1346.1000;0.1099;0.8199;
1346.4000;0.1058;0.8010;
1346.7000;0.1066;0.8010;
1347.0000;0.1091;0.8105;
1347.3000;0.1074;0.7962;
1347.6000;0.1123;0.8010;
1347.9000;0.1074;0.7891;
1348.2000;0.1099;0.8010;
1348.5000;0.1115;0.8081;
1348.8000;0.1083;0.8010;
1349.1000;0.1099;0.8010;
1349.4000;0.1034;0.7915;
1349.7000;0.1074;0.8105;
1350.0000;0.1083;0.8128;
1350.3000;0.1107;0.8247;
1350.6000;0.1074;0.8152;
1350.9000;0.1074;0.8223;
1351.2000;0.1091;0.8318;
1351.5000;0.1091;0.8270;
1351.8000;0.1074;0.8199;
1352.1000;0.1091;0.8176;
1352.4000;0.1107;0.8176;
1352.7000;0.1140;0.8247;
1353.0000;0.1066;0.8128;
1353.3000;0.1091;0.8199;
1353.6000;0.1099;0.8176;
1353.9000;0.1074;0.8152;
1354.2000;0.1091;0.8223;
1354.5000;0.1074;0.8223;
1354.8000;0.1091;0.8318;
1355.1000;0.1083;0.8223;
1355.4000;0.1074;0.8152;
1355.7000;0.1066;0.8057;
1356.0000;0.1099;0.8128;
1356.3000;0.1074;0.8152;
1356.6000;0.1099;0.8128;
1356.9000;0.1074;0.8081;
1357.2000;0.1099;0.8128;
1357.5000;0.1083;0.8105;
1357.8000;0.1083;0.8176;
1358.1000;0.1066;0.8176;
1358.4000;0.1107;0.8223;
1358.7000;0.1091;0.8152;
1359.0000;0.1026;0.7986;
1359.3000;0.1083;0.8176;
1359.6000;0.1018;0.8033;
1359.9000;0.1123;0.8318;
1360.2000;0.1131;0.8270;
1360.5000;0.1099;0.8270;
1360.8000;0.1156;0.8507;
1361.1000;0.1083;0.8199;
1361.4000;0.1074;0.8294;
1361.7000;0.1074;0.8270;
1362.0000;0.1066;0.8223;
1362.3000;0.1074;0.8223;
1362.6000;0.1091;0.8342;
1362.9000;0.1099;0.8294;
1363.2000;0.1099;0.8294;
1363.5000;0.1066;0.8152;
1363.8000;0.1066;0.8176;
1364.1000;0.1131;0.8342;
1364.4000;0.1123;0.8294;
1364.7000;0.1099;0.8223;
1365.0000;0.1091;0.8176;
1365.3000;0.1107;0.8199;
1365.6000;0.1091;0.8223;
1365.9000;0.1091;0.8223;
1366.2000;0.1091;0.8176;
1366.5000;0.1083;0.8152;
1366.8000;0.1074;0.8223;
1367.1000;0.1172;0.8484;
1367.4000;0.1083;0.8247;
1367.7000;0.1091;0.8223;
1368.0000;0.1091;0.8223;
1368.3000;0.1083;0.8199;
1368.6000;0.1115;0.8413;
1368.9000;0.1099;0.8365;
1369.2000;0.1066;0.8365;
1369.5000;0.1066;0.8342;
1369.8000;0.1074;0.8342;
1370.1000;0.1083;0.8389;
1370.4000;0.1058;0.8318;
1370.7000;0.1074;0.8342;
1371.0000;0.1066;0.8342;
1371.3000;0.1107;0.8413;
1371.6000;0.1083;0.8389;
1371.9000;0.1091;0.8365;
1372.2000;0.1058;0.8342;
1372.5000;0.1099;0.8460;
1372.8000;0.1083;0.8460;
1373.1000;0.1091;0.8436;
1373.4000;0.1083;0.8389;
1373.7000;0.1091;0.8365;
1374.0000;0.1099;0.8342;
1374.3000;0.1099;0.8413;
1374.6000;0.1091;0.8484;
1374.9000;0.1083;0.8484;
1375.2000;0.1091;0.8460;
1375.5000;0.1083;0.8365;
1375.8000;0.1140;0.8484;
1376.1000;0.1091;0.8342;
1376.4000;0.1074;0.8318;
1376.7000;0.1066;0.8294;
1377.0000;0.1107;0.8436;
1377.3000;0.1058;0.8413;
1377.6000;0.1083;0.8507;
1377.9000;0.1009;0.8318;
1378.2000;0.1091;0.8531;
1378.5000;0.1131;0.8650;
1378.8000;0.1083;0.8555;
1379.1000;0.1083;0.8626;
1379.4000;0.1091;0.8673;
1379.7000;0.1074;0.8531;
1380.0000;0.1083;0.8579;
1380.3000;0.1083;0.8555;
1380.6000;0.1026;0.8389;
1380.9000;0.1074;0.8436;
1381.2000;0.1083;0.8436;
1381.5000;0.1066;0.8413;
1381.8000;0.1107;0.8484;
1382.1000;0.1083;0.8389;
1382.4000;0.1091;0.8318;
1382.7000;0.1083;0.8342;
1383.0000;0.1083;0.8365;
1383.3000;0.1099;0.8436;
1383.6000;0.1115;0.8484;
1383.9000;0.1091;0.8413;
1384.2000;0.1091;0.8436;
1384.5000;0.1074;0.8436;
1384.8000;0.1091;0.8507;
1385.1000;0.1099;0.8555;
1385.4000;0.1058;0.8389;
1385.7000;0.1099;0.8507;
1386.0000;0.1091;0.8507;
1386.3000;0.1074;0.8507;
1386.6000;0.1099;0.8507;
1386.9000;0.1099;0.8484;
1387.2000;0.1074;0.8436;
1387.5000;0.1091;0.8484;
1387.8000;0.1107;0.8389;
1388.1000;0.1066;0.8270;
1388.4000;0.1091;0.8342;
1388.7000;0.1074;0.8318;
1389.0000;0.1091;0.8413;
1389.3000;0.1074;0.8389;
1389.6000;0.1074;0.8484;
1389.9000;0.1066;0.8531;
1390.2000;0.1083;0.8579;
1390.5000;0.1091;0.8555;
1390.8000;0.1091;0.8531;
1391.1000;0.1099;0.8531;
1391.4000;0.1083;0.8436;
1391.7000;0.1091;0.8460;
1392.0000;0.1083;0.8507;
1392.3000;0.1074;0.8531;
1392.6000;0.1083;0.8650;
1392.9000;0.1058;0.8673;
1393.2000;0.1083;0.8744;
1393.5000;0.1091;0.8626;
1393.8000;0.1115;0.8626;
1394.1000;0.1018;0.8342;
1394.4000;0.1066;0.8484;
1394.7000;0.1083;0.8531;
1395.0000;0.1083;0.8602;
1395.3000;0.1083;0.8531;
1395.6000;0.1074;0.8507;
1395.9000;0.1083;0.8555;
1396.2000;0.1074;0.8626;
1396.5000;0.1099;0.8602;
1396.8000;0.1083;0.8602;
1397.1000;0.1083;0.8602;
1397.4000;0.1099;0.8507;
1397.7000;0.1091;0.8507;
1398.0000;0.1099;0.8579;
1398.3000;0.1091;0.8626;
1398.6000;0.1099;0.8579;
1398.9000;0.1091;0.8484;
1399.2000;0.1083;0.8389;
1399.5000;0.1074;0.8318;
1399.8000;0.1091;0.8318;
