time/ms;Fluo/V;P700 deltaI/I x10³;
-199.8000;0.1107;0.9195;
-199.5000;0.1123;0.9195;
-199.2000;0.1083;0.9171;
-198.9000;0.1123;0.9195;
-198.6000;0.1107;0.9218;
-198.3000;0.1099;0.9195;
-198.0000;0.1107;0.9266;
-197.7000;0.1091;0.9218;
-197.4000;0.1107;0.9171;
-197.1000;0.1123;0.9171;
-196.8000;0.1115;0.9195;
-196.5000;0.1107;0.9195;
-196.2000;0.1107;0.9218;
-195.9000;0.1099;0.9124;
-195.6000;0.1107;0.9076;
-195.3000;0.1058;0.8910;
-195.0000;0.1107;0.9052;
-194.7000;0.1099;0.8958;
-194.4000;0.1140;0.9124;
-194.1000;0.1115;0.9147;
-193.8000;0.1107;0.9052;
-193.5000;0.1107;0.9147;
-193.2000;0.1123;0.9218;
-192.9000;0.1115;0.9147;
-192.6000;0.1115;0.9195;
-192.3000;0.1074;0.8981;
-192.0000;0.1107;0.9076;
-191.7000;0.1099;0.9005;
-191.4000;0.1091;0.9029;
-191.1000;0.1115;0.9124;
-190.8000;0.1050;0.9052;
-190.5000;0.1083;0.9242;
-190.2000;0.1099;0.9266;
-189.9000;0.1083;0.9195;
-189.6000;0.1107;0.9100;
-189.3000;0.1123;0.9124;
-189.0000;0.1123;0.9147;
-188.7000;0.1099;0.9124;
-188.4000;0.1123;0.9076;
-188.1000;0.1123;0.9171;
-187.8000;0.1123;0.9147;
-187.5000;0.1115;0.9171;
-187.2000;0.1099;0.9218;
-186.9000;0.1123;0.9195;
-186.6000;0.1107;0.9195;
-186.3000;0.1099;0.9147;
-186.0000;0.1099;0.9147;
-185.7000;0.1099;0.9124;
-185.4000;0.1099;0.9100;
-185.1000;0.1107;0.9195;
-184.8000;0.1099;0.9124;
-184.5000;0.1091;0.9076;
-184.2000;0.1083;0.8958;
-183.9000;0.1066;0.8887;
-183.6000;0.1123;0.8981;
-183.3000;0.1123;0.8958;
-183.0000;0.1115;0.8863;
-182.7000;0.1123;0.8863;
-182.4000;0.1107;0.8839;
-182.1000;0.1148;0.9005;
-181.8000;0.1083;0.8934;
-181.5000;0.1107;0.9100;
-181.2000;0.1066;0.8981;
-180.9000;0.1107;0.9029;
-180.6000;0.1099;0.8981;
-180.3000;0.1107;0.8910;
-180.0000;0.1123;0.9029;
-179.7000;0.1140;0.9124;
-179.4000;0.1099;0.9029;
-179.1000;0.1091;0.8981;
-178.8000;0.1123;0.9052;
-178.5000;0.1131;0.9029;
-178.2000;0.1107;0.8981;
-177.9000;0.1083;0.8910;
-177.6000;0.1115;0.9029;
-177.3000;0.1115;0.9052;
-177.0000;0.1115;0.9052;
-176.7000;0.1115;0.9100;
-176.4000;0.1115;0.9147;
-176.1000;0.1123;0.9171;
-175.8000;0.1107;0.9124;
-175.5000;0.1099;0.9052;
-175.2000;0.1115;0.9195;
-174.9000;0.1123;0.9124;
-174.6000;0.1107;0.9076;
-174.3000;0.1115;0.9052;
-174.0000;0.1107;0.9052;
-173.7000;0.1091;0.9005;
-173.4000;0.1140;0.9005;
-173.1000;0.1107;0.8934;
-172.8000;0.1107;0.8934;
-172.5000;0.1099;0.8958;
-172.2000;0.1107;0.8958;
-171.9000;0.1140;0.9100;
-171.6000;0.1123;0.9029;
-171.3000;0.1131;0.9029;
-171.0000;0.1083;0.8958;
-170.7000;0.1107;0.8981;
-170.4000;0.1091;0.8934;
-170.1000;0.1115;0.8981;
-169.8000;0.1156;0.9076;
-169.5000;0.1131;0.9029;
-169.2000;0.1099;0.8958;
-168.9000;0.1123;0.9005;
-168.6000;0.1131;0.9005;
-168.3000;0.1115;0.8958;
-168.0000;0.1115;0.8910;
-167.7000;0.1099;0.8863;
-167.4000;0.1107;0.8910;
-167.1000;0.1115;0.9005;
-166.8000;0.1131;0.9029;
-166.5000;0.1123;0.9029;
-166.2000;0.1115;0.8958;
-165.9000;0.1107;0.8958;
-165.6000;0.1123;0.8934;
-165.3000;0.1107;0.9029;
-165.0000;0.1123;0.9100;
-164.7000;0.1115;0.9100;
-164.4000;0.1140;0.9147;
-164.1000;0.1107;0.9029;
-163.8000;0.1107;0.9029;
-163.5000;0.1115;0.9052;
-163.2000;0.1115;0.9147;
-162.9000;0.1123;0.9195;
-162.6000;0.1107;0.9100;
-162.3000;0.1099;0.9052;
-162.0000;0.1115;0.9052;
-161.7000;0.1115;0.9052;
-161.4000;0.1107;0.9029;
-161.1000;0.1115;0.9029;
-160.8000;0.1099;0.9029;
-160.5000;0.1115;0.9029;
-160.2000;0.1131;0.9052;
-159.9000;0.1099;0.8934;
-159.6000;0.1123;0.8887;
-159.3000;0.1115;0.8958;
-159.0000;0.1050;0.8815;
-158.7000;0.1099;0.8934;
-158.4000;0.1091;0.8863;
-158.1000;0.1115;0.9005;
-157.8000;0.1140;0.9076;
-157.5000;0.1099;0.9029;
-157.2000;0.1107;0.9052;
-156.9000;0.1115;0.9076;
-156.6000;0.1115;0.9029;
-156.3000;0.1115;0.9029;
-156.0000;0.1107;0.9076;
-155.7000;0.1115;0.9100;
-155.4000;0.1083;0.9029;
-155.1000;0.1115;0.9076;
-154.8000;0.1107;0.9100;
-154.5000;0.1131;0.9218;
-154.2000;0.1115;0.9266;
-153.9000;0.1123;0.9266;
-153.6000;0.1115;0.9195;
-153.3000;0.1131;0.9242;
-153.0000;0.1131;0.9266;
-152.7000;0.1123;0.9171;
-152.4000;0.1115;0.9147;
-152.1000;0.1131;0.9124;
-151.8000;0.1123;0.9124;
-151.5000;0.1115;0.9100;
-151.2000;0.1131;0.9171;
-150.9000;0.1123;0.9100;
-150.6000;0.1107;0.9029;
-150.3000;0.1123;0.8958;
-150.0000;0.1115;0.8934;
-149.7000;0.1107;0.8910;
-149.4000;0.1099;0.8958;
-149.1000;0.1123;0.9052;
-148.8000;0.1123;0.9052;
-148.5000;0.1131;0.9147;
-148.2000;0.1123;0.9100;
-147.9000;0.1107;0.9029;
-147.6000;0.1115;0.9005;
-147.3000;0.1123;0.9100;
-147.0000;0.1115;0.9076;
-146.7000;0.1107;0.9052;
-146.4000;0.1123;0.9147;
-146.1000;0.1107;0.9124;
-145.8000;0.1107;0.9147;
-145.5000;0.1083;0.9100;
-145.2000;0.1107;0.9171;
-144.9000;0.1131;0.9195;
-144.6000;0.1123;0.9218;
-144.3000;0.1115;0.9218;
-144.0000;0.1115;0.9242;
-143.7000;0.1123;0.9171;
-143.4000;0.1156;0.9266;
-143.1000;0.1107;0.9124;
-142.8000;0.1107;0.9171;
-142.5000;0.1148;0.9266;
-142.2000;0.1140;0.9266;
-141.9000;0.1123;0.9171;
-141.6000;0.1107;0.9124;
-141.3000;0.1115;0.9052;
-141.0000;0.1042;0.8768;
-140.7000;0.1107;0.8934;
-140.4000;0.1123;0.8981;
-140.1000;0.1115;0.8958;
-139.8000;0.1107;0.9005;
-139.5000;0.1115;0.9076;
-139.2000;0.1123;0.9124;
-138.9000;0.1107;0.9029;
-138.6000;0.1123;0.9029;
-138.3000;0.1140;0.9171;
-138.0000;0.1115;0.9100;
-137.7000;0.1123;0.9052;
-137.4000;0.1140;0.9195;
-137.1000;0.1115;0.9124;
-136.8000;0.1107;0.9029;
-136.5000;0.1172;0.9100;
-136.2000;0.1107;0.8934;
-135.9000;0.1115;0.8910;
-135.6000;0.1091;0.8910;
-135.3000;0.1074;0.8934;
-135.0000;0.1140;0.9171;
-134.7000;0.1123;0.9337;
-134.4000;0.1172;0.9455;
-134.1000;0.1115;0.9313;
-133.8000;0.1123;0.9337;
-133.5000;0.1115;0.9242;
-133.2000;0.1131;0.9242;
-132.9000;0.1123;0.9195;
-132.6000;0.1131;0.9242;
-132.3000;0.1131;0.9313;
-132.0000;0.1140;0.9313;
-131.7000;0.1115;0.9242;
-131.4000;0.1123;0.9100;
-131.1000;0.1123;0.9124;
-130.8000;0.1131;0.9100;
-130.5000;0.1115;0.9100;
-130.2000;0.1148;0.9171;
-129.9000;0.1123;0.9100;
-129.6000;0.1148;0.9171;
-129.3000;0.1123;0.9147;
-129.0000;0.1123;0.9171;
-128.7000;0.1123;0.9171;
-128.4000;0.1123;0.9100;
-128.1000;0.1148;0.9124;
-127.8000;0.1140;0.9171;
-127.5000;0.1197;0.9242;
-127.2000;0.1156;0.9124;
-126.9000;0.1140;0.9052;
-126.6000;0.1164;0.9052;
-126.3000;0.1115;0.8958;
-126.0000;0.1115;0.8839;
-125.7000;0.1123;0.8887;
-125.4000;0.1107;0.8768;
-125.1000;0.1123;0.8839;
-124.8000;0.1180;0.8934;
-124.5000;0.1115;0.8863;
-124.2000;0.1107;0.8815;
-123.9000;0.1123;0.8910;
-123.6000;0.1123;0.8958;
-123.3000;0.1164;0.8958;
-123.0000;0.1140;0.9005;
-122.7000;0.1131;0.9100;
-122.4000;0.1074;0.8887;
-122.1000;0.1131;0.9029;
-121.8000;0.1140;0.9076;
-121.5000;0.1156;0.9100;
-121.2000;0.1131;0.9005;
-120.9000;0.1140;0.9052;
-120.6000;0.1115;0.9100;
-120.3000;0.1131;0.9124;
-120.0000;0.1140;0.9124;
-119.7000;0.1115;0.9100;
-119.4000;0.1123;0.9100;
-119.1000;0.1131;0.9124;
-118.8000;0.1115;0.9124;
-118.5000;0.1180;0.9195;
-118.2000;0.1131;0.9076;
-117.9000;0.1140;0.9124;
-117.6000;0.1131;0.9100;
-117.3000;0.1140;0.9147;
-117.0000;0.1131;0.9076;
-116.7000;0.1140;0.9052;
-116.4000;0.1148;0.9005;
-116.1000;0.1140;0.9052;
-115.8000;0.1131;0.9124;
-115.5000;0.1123;0.9147;
-115.2000;0.1083;0.9029;
-114.9000;0.1099;0.8958;
-114.6000;0.1115;0.8958;
-114.3000;0.1123;0.9005;
-114.0000;0.1115;0.8981;
-113.7000;0.1107;0.8887;
-113.4000;0.1131;0.8934;
-113.1000;0.1123;0.8887;
-112.8000;0.1099;0.8839;
-112.5000;0.1123;0.8863;
-112.2000;0.1131;0.8887;
-111.9000;0.1123;0.8910;
-111.6000;0.1156;0.9052;
-111.3000;0.1123;0.8934;
-111.0000;0.1123;0.9005;
-110.7000;0.1131;0.8934;
-110.4000;0.1148;0.9052;
-110.1000;0.1140;0.9029;
-109.8000;0.1140;0.8981;
-109.5000;0.1140;0.8981;
-109.2000;0.1123;0.8934;
-108.9000;0.1140;0.9029;
-108.6000;0.1148;0.9076;
-108.3000;0.1197;0.9124;
-108.0000;0.1099;0.8839;
-107.7000;0.1115;0.8958;
-107.4000;0.1131;0.9147;
-107.1000;0.1131;0.9076;
-106.8000;0.1123;0.8981;
-106.5000;0.1107;0.9005;
-106.2000;0.1123;0.8981;
-105.9000;0.1123;0.8958;
-105.6000;0.1123;0.8981;
-105.3000;0.1115;0.8958;
-105.0000;0.1115;0.8958;
-104.7000;0.1099;0.8863;
-104.4000;0.1172;0.9052;
-104.1000;0.1099;0.8887;
-103.8000;0.1123;0.9005;
-103.5000;0.1140;0.9076;
-103.2000;0.1156;0.9124;
-102.9000;0.1131;0.9100;
-102.6000;0.1131;0.9076;
-102.3000;0.1140;0.9100;
-102.0000;0.1123;0.9005;
-101.7000;0.1123;0.8958;
-101.4000;0.1131;0.9005;
-101.1000;0.1148;0.9005;
-100.8000;0.1148;0.9029;
-100.5000;0.1213;0.9218;
-100.2000;0.1123;0.8934;
-99.9000;0.1140;0.9029;
-99.6000;0.1140;0.9124;
-99.3000;0.1140;0.9005;
-99.0000;0.1148;0.8934;
-98.7000;0.1131;0.8887;
-98.4000;0.1123;0.8839;
-98.1000;0.1140;0.8887;
-97.8000;0.1091;0.8863;
-97.5000;0.1140;0.8981;
-97.2000;0.1066;0.8887;
-96.9000;0.1123;0.9100;
-96.6000;0.1140;0.9052;
-96.3000;0.1131;0.9052;
-96.0000;0.1123;0.8981;
-95.7000;0.1091;0.8839;
-95.4000;0.1140;0.8910;
-95.1000;0.1131;0.8863;
-94.8000;0.1115;0.8863;
-94.5000;0.1140;0.8934;
-94.2000;0.1140;0.8958;
-93.9000;0.1148;0.8981;
-93.6000;0.1123;0.8958;
-93.3000;0.1140;0.8887;
-93.0000;0.1188;0.8910;
-92.7000;0.1148;0.8910;
-92.4000;0.1123;0.8863;
-92.1000;0.1140;0.8910;
-91.8000;0.1131;0.8863;
-91.5000;0.1123;0.8863;
-91.2000;0.1123;0.8887;
-90.9000;0.1148;0.9052;
-90.6000;0.1140;0.8981;
-90.3000;0.1123;0.8934;
-90.0000;0.1115;0.8934;
-89.7000;0.1123;0.8887;
-89.4000;0.1156;0.8958;
-89.1000;0.1123;0.8934;
-88.8000;0.1115;0.8910;
-88.5000;0.1140;0.8887;
-88.2000;0.1123;0.8887;
-87.9000;0.1115;0.8958;
-87.6000;0.1140;0.8934;
-87.3000;0.1066;0.8744;
-87.0000;0.1123;0.8910;
-86.7000;0.1131;0.8958;
-86.4000;0.1123;0.8981;
-86.1000;0.1131;0.9029;
-85.8000;0.1140;0.9076;
-85.5000;0.1131;0.9124;
-85.2000;0.1156;0.9147;
-84.9000;0.1131;0.9100;
-84.6000;0.1131;0.9076;
-84.3000;0.1172;0.9147;
-84.0000;0.1148;0.9052;
-83.7000;0.1180;0.9124;
-83.4000;0.1131;0.8863;
-83.1000;0.1131;0.8910;
-82.8000;0.1131;0.8958;
-82.5000;0.1140;0.8981;
-82.2000;0.1115;0.9005;
-81.9000;0.1140;0.9029;
-81.6000;0.1229;0.9218;
-81.3000;0.1107;0.8792;
-81.0000;0.1131;0.8981;
-80.7000;0.1140;0.9076;
-80.4000;0.1140;0.9100;
-80.1000;0.1164;0.9052;
-79.8000;0.1180;0.9076;
-79.5000;0.1156;0.9076;
-79.2000;0.1156;0.9052;
-78.9000;0.1148;0.9005;
-78.6000;0.1197;0.9076;
-78.3000;0.1131;0.8768;
-78.0000;0.1140;0.8815;
-77.7000;0.1148;0.8815;
-77.4000;0.1148;0.8792;
-77.1000;0.1148;0.8792;
-76.8000;0.1123;0.8697;
-76.5000;0.1148;0.8792;
-76.2000;0.1140;0.8768;
-75.9000;0.1156;0.8792;
-75.6000;0.1140;0.8815;
-75.3000;0.1148;0.8815;
-75.0000;0.1131;0.8839;
-74.7000;0.1148;0.8815;
-74.4000;0.1131;0.8863;
-74.1000;0.1148;0.8839;
-73.8000;0.1156;0.8887;
-73.5000;0.1172;0.8887;
-73.2000;0.1156;0.8792;
-72.9000;0.1148;0.8768;
-72.6000;0.1164;0.8792;
-72.3000;0.1123;0.8744;
-72.0000;0.1140;0.8863;
-71.7000;0.1091;0.8768;
-71.4000;0.1164;0.8887;
-71.1000;0.1148;0.8839;
-70.8000;0.1131;0.8792;
-70.5000;0.1156;0.8910;
-70.2000;0.1066;0.8697;
-69.9000;0.1123;0.8839;
-69.6000;0.1140;0.8792;
-69.3000;0.1131;0.8839;
-69.0000;0.1140;0.8839;
-68.7000;0.1156;0.8887;
-68.4000;0.1148;0.8815;
-68.1000;0.1140;0.8768;
-67.8000;0.1140;0.8721;
-67.5000;0.1140;0.8815;
-67.2000;0.1123;0.8768;
-66.9000;0.1148;0.8839;
-66.6000;0.1164;0.8934;
-66.3000;0.1156;0.8934;
-66.0000;0.1148;0.8839;
-65.7000;0.1148;0.8815;
-65.4000;0.1148;0.8697;
-65.1000;0.1148;0.8697;
-64.8000;0.1148;0.8792;
-64.5000;0.1140;0.8863;
-64.2000;0.1180;0.8910;
-63.9000;0.1156;0.8839;
-63.6000;0.1156;0.8792;
-63.3000;0.1148;0.8721;
-63.0000;0.1164;0.8744;
-62.7000;0.1156;0.8650;
-62.4000;0.1148;0.8531;
-62.1000;0.1140;0.8555;
-61.8000;0.1172;0.8602;
-61.5000;0.1156;0.8579;
-61.2000;0.1148;0.8602;
-60.9000;0.1131;0.8602;
-60.6000;0.1156;0.8673;
-60.3000;0.1148;0.8579;
-60.0000;0.1148;0.8602;
-59.7000;0.1148;0.8555;
-59.4000;0.1123;0.8507;
-59.1000;0.1140;0.8650;
-58.8000;0.1172;0.8792;
-58.5000;0.1172;0.8744;
-58.2000;0.1164;0.8721;
-57.9000;0.1140;0.8650;
-57.6000;0.1107;0.8602;
-57.3000;0.1123;0.8673;
-57.0000;0.1164;0.8839;
-56.7000;0.1148;0.8744;
-56.4000;0.1140;0.8650;
-56.1000;0.1148;0.8697;
-55.8000;0.1099;0.8579;
-55.5000;0.1180;0.8839;
-55.2000;0.1140;0.8768;
-54.9000;0.1140;0.8815;
-54.6000;0.1123;0.8768;
-54.3000;0.1140;0.8721;
-54.0000;0.1164;0.8697;
-53.7000;0.1148;0.8650;
-53.4000;0.1172;0.8673;
-53.1000;0.1156;0.8602;
-52.8000;0.1172;0.8579;
-52.5000;0.1148;0.8555;
-52.2000;0.1148;0.8579;
-51.9000;0.1156;0.8579;
-51.6000;0.1172;0.8626;
-51.3000;0.1148;0.8626;
-51.0000;0.1156;0.8673;
-50.7000;0.1164;0.8721;
-50.4000;0.1164;0.8697;
-50.1000;0.1172;0.8673;
-49.8000;0.1148;0.8744;
-49.5000;0.1148;0.8744;
-49.2000;0.1148;0.8768;
-48.9000;0.1164;0.8792;
-48.6000;0.1140;0.8721;
-48.3000;0.1156;0.8744;
-48.0000;0.1148;0.8744;
-47.7000;0.1172;0.8721;
-47.4000;0.1156;0.8721;
-47.1000;0.1148;0.8673;
-46.8000;0.1148;0.8744;
-46.5000;0.1148;0.8792;
-46.2000;0.1213;0.9005;
-45.9000;0.1131;0.8863;
-45.6000;0.1148;0.8887;
-45.3000;0.1148;0.8887;
-45.0000;0.1140;0.8839;
-44.7000;0.1172;0.8792;
-44.4000;0.1213;0.8981;
-44.1000;0.1164;0.8910;
-43.8000;0.1172;0.8934;
-43.5000;0.1164;0.8910;
-43.2000;0.1140;0.8887;
-42.9000;0.1164;0.8887;
-42.6000;0.1172;0.8934;
-42.3000;0.1140;0.8887;
-42.0000;0.1156;0.8958;
-41.7000;0.1156;0.8839;
-41.4000;0.1188;0.8934;
-41.1000;0.1156;0.8839;
-40.8000;0.1140;0.8768;
-40.5000;0.1164;0.8863;
-40.2000;0.1148;0.8887;
-39.9000;0.1148;0.8839;
-39.6000;0.1205;0.9029;
-39.3000;0.1205;0.8910;
-39.0000;0.1156;0.8792;
-38.7000;0.1172;0.8815;
-38.4000;0.1156;0.8721;
-38.1000;0.1172;0.8721;
-37.8000;0.1164;0.8697;
-37.5000;0.1172;0.8697;
-37.2000;0.1148;0.8650;
-36.9000;0.1156;0.8673;
-36.6000;0.1172;0.8697;
-36.3000;0.1123;0.8555;
-36.0000;0.1172;0.8697;
-35.7000;0.1156;0.8697;
-35.4000;0.1172;0.8697;
-35.1000;0.1156;0.8697;
-34.8000;0.1148;0.8721;
-34.5000;0.1188;0.8863;
-34.2000;0.1148;0.8815;
-33.9000;0.1156;0.8910;
-33.6000;0.1115;0.8721;
-33.3000;0.1164;0.8887;
-33.0000;0.1156;0.8815;
-32.7000;0.1156;0.8768;
-32.4000;0.1156;0.8768;
-32.1000;0.1156;0.8768;
-31.8000;0.1164;0.8768;
-31.5000;0.1197;0.8792;
-31.2000;0.1172;0.8815;
-30.9000;0.1164;0.8815;
-30.6000;0.1156;0.8792;
-30.3000;0.1156;0.8626;
-30.0000;0.1156;0.8697;
-29.7000;0.1164;0.8792;
-29.4000;0.1172;0.8863;
-29.1000;0.1164;0.8768;
-28.8000;0.1148;0.8721;
-28.5000;0.1172;0.8768;
-28.2000;0.1172;0.8744;
-27.9000;0.1180;0.8768;
-27.6000;0.1156;0.8744;
-27.3000;0.1164;0.8792;
-27.0000;0.1156;0.8815;
-26.7000;0.1164;0.8792;
-26.4000;0.1164;0.8815;
-26.1000;0.1164;0.8887;
-25.8000;0.1172;0.8839;
-25.5000;0.1180;0.8910;
-25.2000;0.1148;0.8839;
-24.9000;0.1156;0.8815;
-24.6000;0.1156;0.8768;
-24.3000;0.1172;0.8792;
-24.0000;0.1180;0.8768;
-23.7000;0.1164;0.8768;
-23.4000;0.1164;0.8792;
-23.1000;0.1180;0.8815;
-22.8000;0.1197;0.8958;
-22.5000;0.1164;0.8934;
-22.2000;0.1148;0.8934;
-21.9000;0.1164;0.8887;
-21.6000;0.1172;0.8863;
-21.3000;0.1180;0.8863;
-21.0000;0.1188;0.8887;
-20.7000;0.1156;0.8744;
-20.4000;0.1140;0.8650;
-20.1000;0.1148;0.8673;
-19.8000;0.1164;0.8744;
-19.5000;0.1164;0.8744;
-19.2000;0.1164;0.8815;
-18.9000;0.1156;0.8744;
-18.6000;0.1164;0.8792;
-18.3000;0.1156;0.8839;
-18.0000;0.1172;0.8934;
-17.7000;0.1164;0.8934;
-17.4000;0.1172;0.8934;
-17.1000;0.1180;0.8934;
-16.8000;0.1131;0.8792;
-16.5000;0.1131;0.8768;
-16.2000;0.1172;0.8887;
-15.9000;0.1148;0.8815;
-15.6000;0.1164;0.8792;
-15.3000;0.1180;0.8815;
-15.0000;0.1188;0.8815;
-14.7000;0.1172;0.8721;
-14.4000;0.1172;0.8697;
-14.1000;0.1188;0.8650;
-13.8000;0.1164;0.8673;
-13.5000;0.1188;0.8768;
-13.2000;0.1172;0.8792;
-12.9000;0.1172;0.8863;
-12.6000;0.1180;0.8910;
-12.3000;0.1172;0.8910;
-12.0000;0.1156;0.8792;
-11.7000;0.1164;0.8839;
-11.4000;0.1188;0.8863;
-11.1000;0.1156;0.8863;
-10.8000;0.1172;0.8887;
-10.5000;0.1164;0.8839;
-10.2000;0.1172;0.8839;
-9.9000;0.1172;0.8934;
-9.6000;0.1164;0.8934;
-9.3000;0.1164;0.8887;
-9.0000;0.1164;0.8910;
-8.7000;0.1180;0.8934;
-8.4000;0.1156;0.8839;
-8.1000;0.1172;0.8910;
-7.8000;0.1164;0.8863;
-7.5000;0.1148;0.8768;
-7.2000;0.1164;0.8839;
-6.9000;0.1188;0.8887;
-6.6000;0.1164;0.8768;
-6.3000;0.1172;0.8744;
-6.0000;0.1180;0.8815;
-5.7000;0.1188;0.8792;
-5.4000;0.1140;0.8697;
-5.1000;0.1188;0.8792;
-4.8000;0.1188;0.8815;
-4.5000;0.1156;0.8721;
-4.2000;0.1164;0.8768;
-3.9000;0.1188;0.8839;
-3.6000;0.1180;0.8792;
-3.3000;0.1172;0.8792;
-3.0000;0.1172;0.8815;
-2.7000;0.1188;0.8792;
-2.4000;0.1197;0.8863;
-2.1000;0.1180;0.8839;
-1.8000;0.1172;0.8744;
-1.5000;0.1172;0.8815;
-1.2000;0.1172;0.8863;
-0.9000;0.1180;0.8934;
-0.6000;0.1188;0.8934;
-0.3000;0.1197;0.8887;
0.0000;0.1197;0.8887;
0.3000;0.1237;0.8673;
0.6000;0.1262;0.8744;
0.9000;0.1311;0.8863;
1.2000;0.1351;0.9052;
1.5000;0.1384;0.9218;
1.8000;0.1408;0.9432;
2.1000;0.1425;0.9503;
2.4000;0.1433;0.9526;
2.7000;0.1441;0.9621;
3.0000;0.1457;0.9669;
3.3000;0.1465;0.9574;
3.6000;0.1457;0.9692;
3.9000;0.1490;0.9929;
4.2000;0.1498;0.9929;
4.5000;0.1498;0.9977;
4.8000;0.1506;0.9929;
5.1000;0.1506;0.9953;
5.4000;0.1514;0.9977;
5.7000;0.1490;0.9906;
6.0000;0.1514;0.9906;
6.3000;0.1538;1.0000;
6.6000;0.1514;0.9977;
6.9000;0.1530;0.9906;
7.2000;0.1587;1.0000;
7.5000;0.1555;0.9953;
7.8000;0.1522;0.9906;
8.1000;0.1555;0.9953;
8.4000;0.1522;0.9882;
8.7000;0.1522;0.9953;
9.0000;0.1530;1.0048;
9.3000;0.1530;1.0024;
9.6000;0.1530;0.9953;
9.9000;0.1538;0.9977;
10.2000;0.1530;0.9977;
10.5000;0.1555;1.0095;
10.8000;0.1530;1.0000;
11.1000;0.1530;1.0048;
11.4000;0.1555;1.0143;
11.7000;0.1530;1.0095;
12.0000;0.1563;1.0095;
12.3000;0.1547;1.0024;
12.6000;0.1547;0.9953;
12.9000;0.1530;0.9929;
13.2000;0.1547;0.9977;
13.5000;0.1490;0.9763;
13.8000;0.1530;0.9858;
14.1000;0.1538;0.9929;
14.4000;0.1555;0.9929;
14.7000;0.1563;0.9929;
15.0000;0.1579;1.0024;
15.3000;0.1538;0.9906;
15.6000;0.1514;0.9882;
15.9000;0.1547;0.9929;
16.2000;0.1547;0.9953;
16.5000;0.1571;0.9977;
16.8000;0.1563;0.9929;
17.1000;0.1571;0.9811;
17.4000;0.1587;0.9906;
17.7000;0.1579;0.9906;
18.0000;0.1579;0.9929;
18.3000;0.1579;0.9977;
18.6000;0.1571;1.0000;
18.9000;0.1587;1.0048;
19.2000;0.1555;0.9953;
19.5000;0.1563;0.9953;
19.8000;0.1571;0.9906;
20.1000;0.1571;0.9953;
20.4000;0.1563;1.0000;
20.7000;0.1587;1.0024;
21.0000;0.1587;1.0000;
21.3000;0.1587;1.0024;
21.6000;0.1579;1.0024;
21.9000;0.1661;1.0214;
22.2000;0.1604;1.0071;
22.5000;0.1579;1.0048;
22.8000;0.1595;1.0071;
23.1000;0.1587;0.9977;
23.4000;0.1579;0.9929;
23.7000;0.1604;0.9882;
24.0000;0.1595;0.9906;
24.3000;0.1587;0.9977;
24.6000;0.1604;0.9929;
24.9000;0.1612;0.9977;
25.2000;0.1604;0.9882;
25.5000;0.1604;0.9834;
25.8000;0.1571;0.9787;
26.1000;0.1604;0.9834;
26.4000;0.1587;0.9929;
26.7000;0.1604;0.9953;
27.0000;0.1595;0.9906;
27.3000;0.1604;0.9953;
27.6000;0.1604;1.0000;
27.9000;0.1547;0.9834;
28.2000;0.1595;0.9977;
28.5000;0.1595;0.9929;
28.8000;0.1612;1.0000;
29.1000;0.1620;1.0024;
29.4000;0.1620;1.0024;
29.7000;0.1636;1.0024;
30.0000;0.1604;0.9977;
30.3000;0.1587;0.9906;
30.6000;0.1595;0.9906;
30.9000;0.1604;0.9906;
31.2000;0.1612;0.9929;
31.5000;0.1628;0.9882;
31.8000;0.1612;0.9953;
32.1000;0.1579;0.9882;
32.4000;0.1604;0.9929;
32.7000;0.1604;1.0000;
33.0000;0.1604;1.0000;
33.3000;0.1604;1.0095;
33.6000;0.1604;1.0119;
33.9000;0.1604;1.0048;
34.2000;0.1579;1.0000;
34.5000;0.1595;1.0000;
34.8000;0.1604;1.0000;
35.1000;0.1612;1.0048;
35.4000;0.1612;1.0071;
35.7000;0.1620;1.0119;
36.0000;0.1571;0.9953;
36.3000;0.1604;1.0071;
36.6000;0.1604;1.0024;
36.9000;0.1620;1.0119;
37.2000;0.1612;1.0071;
37.5000;0.1669;1.0261;
37.8000;0.1620;1.0119;
38.1000;0.1628;1.0071;
38.4000;0.1628;1.0048;
38.7000;0.1612;0.9953;
39.0000;0.1628;1.0000;
39.3000;0.1644;1.0071;
39.6000;0.1628;1.0000;
39.9000;0.1636;0.9929;
40.2000;0.1628;0.9882;
40.5000;0.1644;0.9929;
40.8000;0.1636;0.9929;
41.1000;0.1652;1.0000;
41.4000;0.1620;0.9953;
41.7000;0.1636;0.9977;
42.0000;0.1628;0.9929;
42.3000;0.1661;0.9977;
42.6000;0.1636;0.9882;
42.9000;0.1644;0.9882;
43.2000;0.1628;0.9929;
43.5000;0.1620;1.0048;
43.8000;0.1604;1.0048;
44.1000;0.1620;1.0024;
44.4000;0.1636;1.0095;
44.7000;0.1628;0.9977;
45.0000;0.1636;0.9953;
45.3000;0.1652;1.0000;
45.6000;0.1652;1.0000;
45.9000;0.1644;1.0048;
46.2000;0.1661;1.0119;
46.5000;0.1644;1.0119;
46.8000;0.1644;1.0166;
47.1000;0.1652;1.0166;
47.4000;0.1628;1.0095;
47.7000;0.1628;1.0166;
48.0000;0.1620;1.0071;
48.3000;0.1652;1.0143;
48.6000;0.1652;1.0095;
48.9000;0.1644;1.0119;
49.2000;0.1652;1.0095;
49.5000;0.1661;1.0071;
49.8000;0.1644;0.9929;
50.1000;0.1628;0.9953;
50.4000;0.1628;0.9977;
50.7000;0.1636;0.9953;
51.0000;0.1644;0.9953;
51.3000;0.1661;1.0071;
51.6000;0.1644;1.0071;
51.9000;0.1636;1.0095;
52.2000;0.1636;1.0048;
52.5000;0.1636;0.9977;
52.8000;0.1628;0.9929;
53.1000;0.1644;0.9977;
53.4000;0.1669;0.9977;
53.7000;0.1661;0.9929;
54.0000;0.1652;0.9882;
54.3000;0.1636;0.9834;
54.6000;0.1726;1.0000;
54.9000;0.1652;0.9929;
55.2000;0.1652;0.9929;
55.5000;0.1644;1.0000;
55.8000;0.1661;1.0048;
56.1000;0.1701;1.0095;
56.4000;0.1677;1.0095;
56.7000;0.1644;0.9953;
57.0000;0.1628;0.9953;
57.3000;0.1636;0.9977;
57.6000;0.1636;1.0048;
57.9000;0.1636;1.0000;
58.2000;0.1628;0.9882;
58.5000;0.1652;0.9977;
58.8000;0.1652;0.9977;
59.1000;0.1636;1.0000;
59.4000;0.1636;1.0095;
59.7000;0.1652;1.0166;
60.0000;0.1652;1.0166;
60.3000;0.1628;1.0166;
60.6000;0.1636;1.0237;
60.9000;0.1661;1.0308;
61.2000;0.1652;1.0214;
61.5000;0.1661;1.0143;
61.8000;0.1644;1.0095;
62.1000;0.1661;1.0119;
62.4000;0.1669;1.0166;
62.7000;0.1685;1.0166;
63.0000;0.1661;1.0024;
63.3000;0.1661;0.9929;
63.6000;0.1669;0.9906;
63.9000;0.1669;0.9858;
64.2000;0.1661;0.9811;
64.5000;0.1661;0.9763;
64.8000;0.1669;0.9763;
65.1000;0.1677;0.9834;
65.4000;0.1677;0.9882;
65.7000;0.1677;0.9882;
66.0000;0.1652;0.9906;
66.3000;0.1652;0.9906;
66.6000;0.1628;0.9811;
66.9000;0.1628;0.9882;
67.2000;0.1661;0.9858;
67.5000;0.1652;0.9882;
67.8000;0.1677;0.9858;
68.1000;0.1677;0.9858;
68.4000;0.1652;0.9787;
68.7000;0.1628;0.9669;
69.0000;0.1669;0.9906;
69.3000;0.1669;0.9929;
69.6000;0.1677;0.9953;
69.9000;0.1742;1.0119;
70.2000;0.1669;1.0000;
70.5000;0.1693;0.9977;
70.8000;0.1644;0.9740;
71.1000;0.1644;0.9811;
71.4000;0.1677;0.9882;
71.7000;0.1661;0.9834;
72.0000;0.1661;0.9716;
72.3000;0.1661;0.9787;
72.6000;0.1685;0.9882;
72.9000;0.1677;1.0000;
73.2000;0.1669;1.0000;
73.5000;0.1677;0.9953;
73.8000;0.1644;0.9906;
74.1000;0.1685;0.9953;
74.4000;0.1701;1.0000;
74.7000;0.1718;0.9977;
75.0000;0.1661;0.9882;
75.3000;0.1661;0.9906;
75.6000;0.1669;0.9906;
75.9000;0.1669;0.9882;
76.2000;0.1677;0.9858;
76.5000;0.1628;0.9763;
76.8000;0.1669;1.0000;
77.1000;0.1652;0.9977;
77.4000;0.1661;1.0000;
77.7000;0.1669;0.9953;
78.0000;0.1669;0.9953;
78.3000;0.1652;0.9906;
78.6000;0.1734;1.0071;
78.9000;0.1669;0.9977;
79.2000;0.1669;1.0000;
79.5000;0.1669;0.9953;
79.8000;0.1669;0.9953;
80.1000;0.1669;0.9977;
80.4000;0.1677;1.0024;
80.7000;0.1677;1.0024;
81.0000;0.1669;1.0048;
81.3000;0.1669;1.0071;
81.6000;0.1669;0.9906;
81.9000;0.1669;0.9929;
82.2000;0.1677;0.9834;
82.5000;0.1693;0.9906;
82.8000;0.1677;0.9882;
83.1000;0.1677;0.9858;
83.4000;0.1669;0.9882;
83.7000;0.1661;0.9882;
84.0000;0.1669;0.9882;
84.3000;0.1677;0.9858;
84.6000;0.1661;0.9834;
84.9000;0.1669;0.9858;
85.2000;0.1669;0.9882;
85.5000;0.1693;1.0000;
85.8000;0.1636;0.9906;
86.1000;0.1644;0.9882;
86.4000;0.1669;0.9977;
86.7000;0.1677;0.9929;
87.0000;0.1685;0.9953;
87.3000;0.1669;0.9953;
87.6000;0.1677;0.9882;
87.9000;0.1669;0.9834;
88.2000;0.1677;0.9882;
88.5000;0.1685;0.9953;
88.8000;0.1701;0.9882;
89.1000;0.1677;0.9882;
89.4000;0.1693;0.9953;
89.7000;0.1766;1.0071;
90.0000;0.1693;0.9811;
90.3000;0.1693;0.9882;
90.6000;0.1677;0.9858;
90.9000;0.1677;0.9834;
91.2000;0.1693;0.9834;
91.5000;0.1693;0.9858;
91.8000;0.1685;0.9763;
92.1000;0.1685;0.9858;
92.4000;0.1742;1.0000;
92.7000;0.1644;0.9692;
93.0000;0.1677;0.9787;
93.3000;0.1669;0.9716;
93.6000;0.1693;0.9763;
93.9000;0.1685;0.9740;
94.2000;0.1677;0.9716;
94.5000;0.1701;0.9763;
94.8000;0.1701;0.9787;
95.1000;0.1693;0.9740;
95.4000;0.1652;0.9716;
95.7000;0.1718;0.9882;
96.0000;0.1685;0.9858;
96.3000;0.1693;0.9929;
96.6000;0.1661;0.9858;
96.9000;0.1685;0.9882;
97.2000;0.1644;0.9787;
97.5000;0.1685;0.9977;
97.8000;0.1669;0.9834;
98.1000;0.1693;0.9858;
98.4000;0.1685;0.9834;
98.7000;0.1685;0.9834;
99.0000;0.1701;0.9953;
99.3000;0.1709;0.9906;
99.6000;0.1677;0.9740;
99.9000;0.1693;0.9787;
100.2000;0.1685;0.9787;
100.5000;0.1693;0.9763;
100.8000;0.1693;0.9763;
101.1000;0.1685;0.9740;
101.4000;0.1685;0.9811;
101.7000;0.1709;0.9882;
102.0000;0.1661;0.9740;
102.3000;0.1661;0.9787;
102.6000;0.1693;0.9906;
102.9000;0.1685;0.9906;
103.2000;0.1685;0.9882;
103.5000;0.1693;0.9882;
103.8000;0.1677;0.9834;
104.1000;0.1685;0.9858;
104.4000;0.1677;0.9811;
104.7000;0.1677;0.9740;
105.0000;0.1677;0.9763;
105.3000;0.1677;0.9787;
105.6000;0.1685;0.9834;
105.9000;0.1677;0.9740;
106.2000;0.1677;0.9787;
106.5000;0.1677;0.9929;
106.8000;0.1677;0.9977;
107.1000;0.1701;0.9953;
107.4000;0.1685;0.9906;
107.7000;0.1693;0.9953;
108.0000;0.1718;0.9977;
108.3000;0.1693;0.9882;
108.6000;0.1628;0.9716;
108.9000;0.1685;0.9906;
109.2000;0.1693;0.9906;
109.5000;0.1742;1.0000;
109.8000;0.1693;0.9834;
110.1000;0.1669;0.9740;
110.4000;0.1677;0.9716;
110.7000;0.1685;0.9740;
111.0000;0.1693;0.9811;
111.3000;0.1701;0.9787;
111.6000;0.1652;0.9645;
111.9000;0.1709;0.9834;
112.2000;0.1693;0.9811;
112.5000;0.1685;0.9669;
112.8000;0.1718;0.9740;
113.1000;0.1693;0.9811;
113.4000;0.1693;0.9858;
113.7000;0.1701;0.9882;
114.0000;0.1709;0.9977;
114.3000;0.1677;0.9834;
114.6000;0.1685;0.9787;
114.9000;0.1661;0.9716;
115.2000;0.1685;0.9834;
115.5000;0.1685;0.9882;
115.8000;0.1701;0.9929;
116.1000;0.1709;0.9953;
116.4000;0.1677;0.9906;
116.7000;0.1652;0.9858;
117.0000;0.1652;0.9977;
117.3000;0.1677;1.0095;
117.6000;0.1677;0.9977;
117.9000;0.1701;0.9929;
118.2000;0.1685;0.9953;
118.5000;0.1661;0.9977;
118.8000;0.1693;1.0048;
119.1000;0.1718;1.0071;
119.4000;0.1677;1.0000;
119.7000;0.1685;0.9929;
120.0000;0.1685;0.9929;
120.3000;0.1709;0.9906;
120.6000;0.1685;0.9882;
120.9000;0.1709;0.9977;
121.2000;0.1701;0.9929;
121.5000;0.1742;0.9953;
121.8000;0.1677;0.9787;
122.1000;0.1693;0.9811;
122.4000;0.1685;0.9882;
122.7000;0.1693;1.0024;
123.0000;0.1701;1.0048;
123.3000;0.1701;1.0024;
123.6000;0.1685;1.0024;
123.9000;0.1693;0.9977;
124.2000;0.1709;1.0000;
124.5000;0.1693;0.9953;
124.8000;0.1701;1.0024;
125.1000;0.1677;0.9858;
125.4000;0.1693;0.9811;
125.7000;0.1685;0.9834;
126.0000;0.1685;0.9834;
126.3000;0.1693;0.9882;
126.6000;0.1677;0.9834;
126.9000;0.1685;0.9740;
127.2000;0.1669;0.9692;
127.5000;0.1669;0.9692;
127.8000;0.1604;0.9550;
128.1000;0.1636;0.9597;
128.4000;0.1677;0.9597;
128.7000;0.1685;0.9597;
129.0000;0.1677;0.9645;
129.3000;0.1294;0.9787;
129.6000;0.1384;0.9763;
129.9000;0.1457;0.9763;
130.2000;0.1514;0.9763;
130.5000;0.1595;1.0000;
130.8000;0.1587;0.9882;
131.1000;0.1644;0.9929;
131.4000;0.1628;0.9882;
131.7000;0.1644;0.9787;
132.0000;0.1652;0.9834;
132.3000;0.1669;0.9858;
132.6000;0.1652;0.9834;
132.9000;0.1693;0.9834;
133.2000;0.1677;0.9811;
133.5000;0.1701;0.9811;
133.8000;0.1677;0.9787;
134.1000;0.1701;0.9811;
134.4000;0.1709;0.9787;
134.7000;0.1701;0.9834;
135.0000;0.1693;0.9740;
135.3000;0.1701;0.9834;
135.6000;0.1620;0.9574;
135.9000;0.1685;0.9621;
136.2000;0.1685;0.9716;
136.5000;0.1701;0.9811;
136.8000;0.1661;0.9740;
137.1000;0.1685;0.9882;
137.4000;0.1701;0.9858;
137.7000;0.1636;0.9692;
138.0000;0.1693;0.9882;
138.3000;0.1701;0.9953;
138.6000;0.1685;0.9906;
138.9000;0.1644;0.9834;
139.2000;0.1685;0.9906;
139.5000;0.1734;1.0000;
139.8000;0.1701;0.9834;
140.1000;0.1718;0.9763;
140.4000;0.1709;0.9740;
140.7000;0.1709;0.9692;
141.0000;0.1701;0.9716;
141.3000;0.1693;0.9692;
141.6000;0.1693;0.9550;
141.9000;0.1709;0.9597;
142.2000;0.1693;0.9503;
142.5000;0.1701;0.9574;
142.8000;0.1709;0.9621;
143.1000;0.1685;0.9597;
143.4000;0.1701;0.9597;
143.7000;0.1734;0.9740;
144.0000;0.1701;0.9550;
144.3000;0.1718;0.9503;
144.6000;0.1701;0.9503;
144.9000;0.1709;0.9550;
145.2000;0.1701;0.9597;
145.5000;0.1669;0.9550;
145.8000;0.1701;0.9645;
146.1000;0.1701;0.9716;
146.4000;0.1693;0.9716;
146.7000;0.1701;0.9787;
147.0000;0.1693;0.9811;
147.3000;0.1701;0.9882;
147.6000;0.1701;0.9906;
147.9000;0.1685;0.9834;
148.2000;0.1693;0.9763;
148.5000;0.1709;0.9716;
148.8000;0.1758;0.9858;
149.1000;0.1693;0.9716;
149.4000;0.1758;0.9811;
149.7000;0.1709;0.9763;
150.0000;0.1701;0.9740;
150.3000;0.1652;0.9574;
150.6000;0.1718;0.9692;
150.9000;0.1693;0.9621;
151.2000;0.1701;0.9597;
151.5000;0.1693;0.9550;
151.8000;0.1709;0.9574;
152.1000;0.1734;0.9716;
152.4000;0.1734;0.9692;
152.7000;0.1726;0.9716;
153.0000;0.1693;0.9597;
153.3000;0.1701;0.9621;
153.6000;0.1742;0.9692;
153.9000;0.1709;0.9597;
154.2000;0.1726;0.9669;
154.5000;0.1669;0.9669;
154.8000;0.1709;0.9834;
155.1000;0.1701;0.9763;
155.4000;0.1709;0.9811;
155.7000;0.1693;0.9929;
156.0000;0.1709;0.9906;
156.3000;0.1701;0.9906;
156.6000;0.1669;0.9858;
156.9000;0.1693;0.9953;
157.2000;0.1709;0.9953;
157.5000;0.1734;0.9953;
157.8000;0.1677;0.9811;
158.1000;0.1685;0.9811;
158.4000;0.1709;0.9763;
158.7000;0.1709;0.9763;
159.0000;0.1693;0.9669;
159.3000;0.1701;0.9740;
159.6000;0.1701;0.9692;
159.9000;0.1701;0.9787;
160.2000;0.1709;0.9763;
160.5000;0.1685;0.9621;
160.8000;0.1701;0.9574;
161.1000;0.1718;0.9669;
161.4000;0.1701;0.9692;
161.7000;0.1701;0.9669;
162.0000;0.1726;0.9716;
162.3000;0.1685;0.9621;
162.6000;0.1718;0.9692;
162.9000;0.1701;0.9645;
163.2000;0.1669;0.9597;
163.5000;0.1701;0.9669;
163.8000;0.1734;0.9763;
164.1000;0.1693;0.9669;
164.4000;0.1693;0.9716;
164.7000;0.1677;0.9621;
165.0000;0.1709;0.9669;
165.3000;0.1726;0.9645;
165.6000;0.1709;0.9669;
165.9000;0.1701;0.9669;
166.2000;0.1709;0.9550;
166.5000;0.1718;0.9597;
166.8000;0.1685;0.9455;
167.1000;0.1693;0.9432;
167.4000;0.1701;0.9432;
167.7000;0.1709;0.9526;
168.0000;0.1709;0.9621;
168.3000;0.1758;0.9763;
168.6000;0.1750;0.9763;
168.9000;0.1726;0.9882;
169.2000;0.1701;0.9858;
169.5000;0.1701;0.9787;
169.8000;0.1693;0.9787;
170.1000;0.1701;0.9763;
170.4000;0.1661;0.9692;
170.7000;0.1661;0.9716;
171.0000;0.1693;0.9763;
171.3000;0.1709;0.9811;
171.6000;0.1701;0.9763;
171.9000;0.1709;0.9811;
172.2000;0.1693;0.9716;
172.5000;0.1718;0.9716;
172.8000;0.1726;0.9787;
173.1000;0.1742;0.9811;
173.4000;0.1718;0.9740;
173.7000;0.1709;0.9716;
174.0000;0.1726;0.9763;
174.3000;0.1718;0.9763;
174.6000;0.1718;0.9740;
174.9000;0.1701;0.9692;
175.2000;0.1718;0.9669;
175.5000;0.1709;0.9692;
175.8000;0.1701;0.9716;
176.1000;0.1685;0.9692;
176.4000;0.1718;0.9597;
176.7000;0.1718;0.9503;
177.0000;0.1709;0.9526;
177.3000;0.1718;0.9550;
177.6000;0.1701;0.9574;
177.9000;0.1718;0.9574;
178.2000;0.1693;0.9621;
178.5000;0.1701;0.9669;
178.8000;0.1685;0.9645;
179.1000;0.1718;0.9621;
179.4000;0.1701;0.9597;
179.7000;0.1718;0.9574;
180.0000;0.1701;0.9526;
180.3000;0.1709;0.9597;
180.6000;0.1709;0.9716;
180.9000;0.1701;0.9787;
181.2000;0.1693;0.9692;
181.5000;0.1693;0.9621;
181.8000;0.1701;0.9597;
182.1000;0.1709;0.9597;
182.4000;0.1718;0.9597;
182.7000;0.1709;0.9574;
183.0000;0.1709;0.9645;
183.3000;0.1701;0.9669;
183.6000;0.1701;0.9645;
183.9000;0.1718;0.9574;
184.2000;0.1701;0.9503;
184.5000;0.1709;0.9574;
184.8000;0.1709;0.9574;
185.1000;0.1701;0.9574;
185.4000;0.1734;0.9621;
185.7000;0.1709;0.9645;
186.0000;0.1701;0.9716;
186.3000;0.1677;0.9645;
186.6000;0.1661;0.9621;
186.9000;0.1693;0.9692;
187.2000;0.1693;0.9645;
187.5000;0.1685;0.9716;
187.8000;0.1620;0.9574;
188.1000;0.1709;0.9811;
188.4000;0.1693;0.9645;
188.7000;0.1701;0.9597;
189.0000;0.1693;0.9574;
189.3000;0.1734;0.9740;
189.6000;0.1742;0.9669;
189.9000;0.1709;0.9621;
190.2000;0.1701;0.9526;
190.5000;0.1693;0.9479;
190.8000;0.1693;0.9574;
191.1000;0.1701;0.9526;
191.4000;0.1775;0.9716;
191.7000;0.1709;0.9503;
192.0000;0.1709;0.9550;
192.3000;0.1709;0.9645;
192.6000;0.1701;0.9669;
192.9000;0.1709;0.9645;
193.2000;0.1709;0.9621;
193.5000;0.1734;0.9645;
193.8000;0.1718;0.9574;
194.1000;0.1709;0.9574;
194.4000;0.1644;0.9432;
194.7000;0.1718;0.9645;
195.0000;0.1718;0.9526;
195.3000;0.1709;0.9455;
195.6000;0.1709;0.9503;
195.9000;0.1701;0.9526;
196.2000;0.1693;0.9550;
196.5000;0.1701;0.9597;
196.8000;0.1701;0.9645;
197.1000;0.1701;0.9621;
197.4000;0.1701;0.9621;
197.7000;0.1726;0.9645;
198.0000;0.1701;0.9503;
198.3000;0.1701;0.9550;
198.6000;0.1709;0.9645;
198.9000;0.1726;0.9669;
199.2000;0.1677;0.9645;
199.5000;0.1693;0.9669;
199.8000;0.1709;0.9621;
200.1000;0.1709;0.9692;
200.4000;0.1701;0.9716;
200.7000;0.1693;0.9621;
201.0000;0.1709;0.9574;
201.3000;0.1701;0.9479;
201.6000;0.1709;0.9526;
201.9000;0.1718;0.9503;
202.2000;0.1709;0.9526;
202.5000;0.1718;0.9479;
202.8000;0.1718;0.9384;
203.1000;0.1718;0.9408;
203.4000;0.1742;0.9550;
203.7000;0.1734;0.9550;
204.0000;0.1718;0.9574;
204.3000;0.1709;0.9526;
204.6000;0.1701;0.9526;
204.9000;0.1709;0.9526;
205.2000;0.1693;0.9574;
205.5000;0.1701;0.9574;
205.8000;0.1709;0.9550;
206.1000;0.1693;0.9597;
206.4000;0.1709;0.9716;
206.7000;0.1701;0.9740;
207.0000;0.1701;0.9692;
207.3000;0.1693;0.9621;
207.6000;0.1709;0.9645;
207.9000;0.1685;0.9597;
208.2000;0.1701;0.9645;
208.5000;0.1750;0.9669;
208.8000;0.1726;0.9645;
209.1000;0.1758;0.9740;
209.4000;0.1709;0.9716;
209.7000;0.1742;0.9858;
210.0000;0.1726;0.9834;
210.3000;0.1685;0.9740;
210.6000;0.1693;0.9716;
210.9000;0.1701;0.9645;
211.2000;0.1709;0.9692;
211.5000;0.1718;0.9645;
211.8000;0.1726;0.9526;
212.1000;0.1709;0.9526;
212.4000;0.1709;0.9455;
212.7000;0.1701;0.9455;
213.0000;0.1709;0.9479;
213.3000;0.1718;0.9384;
213.6000;0.1685;0.9384;
213.9000;0.1701;0.9455;
214.2000;0.1693;0.9526;
214.5000;0.1726;0.9597;
214.8000;0.1766;0.9716;
215.1000;0.1669;0.9408;
215.4000;0.1799;0.9811;
215.7000;0.1718;0.9550;
216.0000;0.1709;0.9526;
216.3000;0.1758;0.9550;
216.6000;0.1709;0.9526;
216.9000;0.1718;0.9526;
217.2000;0.1709;0.9550;
217.5000;0.1726;0.9597;
217.8000;0.1709;0.9574;
218.1000;0.1709;0.9645;
218.4000;0.1661;0.9550;
218.7000;0.1726;0.9740;
219.0000;0.1685;0.9669;
219.3000;0.1750;0.9763;
219.6000;0.1709;0.9692;
219.9000;0.1701;0.9716;
220.2000;0.1709;0.9716;
220.5000;0.1701;0.9645;
220.8000;0.1718;0.9669;
221.1000;0.1709;0.9621;
221.4000;0.1726;0.9692;
221.7000;0.1701;0.9621;
222.0000;0.1709;0.9645;
222.3000;0.1718;0.9692;
222.6000;0.1693;0.9645;
222.9000;0.1709;0.9597;
223.2000;0.1709;0.9669;
223.5000;0.1726;0.9692;
223.8000;0.1701;0.9763;
224.1000;0.1693;0.9763;
224.4000;0.1709;0.9740;
224.7000;0.1718;0.9716;
225.0000;0.1701;0.9740;
225.3000;0.1709;0.9811;
225.6000;0.1685;0.9858;
225.9000;0.1701;0.9834;
226.2000;0.1709;0.9834;
226.5000;0.1709;0.9787;
226.8000;0.1775;0.9906;
227.1000;0.1726;0.9811;
227.4000;0.1661;0.9716;
227.7000;0.1726;0.9834;
228.0000;0.1718;0.9787;
228.3000;0.1709;0.9787;
228.6000;0.1718;0.9740;
228.9000;0.1718;0.9811;
229.2000;0.1718;0.9787;
229.5000;0.1734;0.9929;
229.8000;0.1693;0.9906;
230.1000;0.1718;0.9977;
230.4000;0.1709;0.9906;
230.7000;0.1677;0.9763;
231.0000;0.1701;0.9858;
231.3000;0.1709;0.9906;
231.6000;0.1685;0.9953;
231.9000;0.1693;0.9953;
232.2000;0.1693;1.0024;
232.5000;0.1669;0.9977;
232.8000;0.1693;1.0048;
233.1000;0.1701;1.0071;
233.4000;0.1709;1.0024;
233.7000;0.1709;0.9977;
234.0000;0.1709;1.0000;
234.3000;0.1677;0.9953;
234.6000;0.1709;1.0024;
234.9000;0.1709;1.0024;
235.2000;0.1750;1.0095;
235.5000;0.1709;0.9977;
235.8000;0.1709;0.9953;
236.1000;0.1718;1.0048;
236.4000;0.1718;1.0000;
236.7000;0.1709;0.9882;
237.0000;0.1726;0.9858;
237.3000;0.1726;0.9834;
237.6000;0.1718;0.9953;
237.9000;0.1718;1.0000;
238.2000;0.1701;0.9929;
238.5000;0.1709;0.9953;
238.8000;0.1709;0.9882;
239.1000;0.1693;0.9787;
239.4000;0.1685;0.9834;
239.7000;0.1718;0.9953;
240.0000;0.1701;0.9953;
240.3000;0.1726;0.9977;
240.6000;0.1718;1.0024;
240.9000;0.1799;1.0214;
241.2000;0.1726;1.0024;
241.5000;0.1718;0.9953;
241.8000;0.1709;0.9906;
242.1000;0.1701;0.9882;
242.4000;0.1718;0.9929;
242.7000;0.1709;0.9953;
243.0000;0.1709;0.9929;
243.3000;0.1750;0.9977;
243.6000;0.1709;0.9929;
243.9000;0.1726;1.0024;
244.2000;0.1758;1.0095;
244.5000;0.1701;1.0024;
244.8000;0.1709;1.0095;
245.1000;0.1669;0.9953;
245.4000;0.1718;1.0095;
245.7000;0.1709;1.0000;
246.0000;0.1685;1.0000;
246.3000;0.1709;1.0024;
246.6000;0.1701;0.9929;
246.9000;0.1709;0.9953;
247.2000;0.1718;0.9929;
247.5000;0.1652;0.9716;
247.8000;0.1701;0.9834;
248.1000;0.1701;0.9811;
248.4000;0.1644;0.9716;
248.7000;0.1709;0.9906;
249.0000;0.1718;0.9906;
249.3000;0.1709;0.9906;
249.6000;0.1693;0.9811;
249.9000;0.1701;0.9787;
250.2000;0.1718;0.9740;
250.5000;0.1709;0.9763;
250.8000;0.1709;0.9858;
251.1000;0.1750;0.9953;
251.4000;0.1701;0.9811;
251.7000;0.1766;1.0000;
252.0000;0.1718;0.9811;
252.3000;0.1709;0.9834;
252.6000;0.1718;0.9811;
252.9000;0.1718;0.9763;
253.2000;0.1718;0.9787;
253.5000;0.1726;0.9787;
253.8000;0.1701;0.9763;
254.1000;0.1726;0.9858;
254.4000;0.1718;0.9882;
254.7000;0.1718;0.9858;
255.0000;0.1718;0.9858;
255.3000;0.1709;0.9787;
255.6000;0.1701;0.9716;
255.9000;0.1709;0.9716;
256.2000;0.1701;0.9692;
256.5000;0.1718;0.9692;
256.8000;0.1709;0.9621;
257.1000;0.1701;0.9574;
257.4000;0.1709;0.9550;
257.7000;0.1726;0.9669;
258.0000;0.1701;0.9597;
258.3000;0.1709;0.9669;
258.6000;0.1709;0.9645;
258.9000;0.1807;0.9811;
259.2000;0.1726;0.9621;
259.5000;0.1718;0.9621;
259.8000;0.1709;0.9597;
260.1000;0.1750;0.9740;
260.4000;0.1701;0.9716;
260.7000;0.1709;0.9763;
261.0000;0.1726;0.9858;
261.3000;0.1701;0.9858;
261.6000;0.1726;0.9811;
261.9000;0.1758;0.9882;
262.2000;0.1709;0.9787;
262.5000;0.1709;0.9740;
262.8000;0.1742;0.9834;
263.1000;0.1701;0.9834;
263.4000;0.1709;0.9953;
263.7000;0.1718;0.9953;
264.0000;0.1709;0.9929;
264.3000;0.1701;0.9882;
264.6000;0.1742;0.9977;
264.9000;0.1693;0.9882;
265.2000;0.1701;0.9787;
265.5000;0.1726;0.9834;
265.8000;0.1734;0.9763;
266.1000;0.1685;0.9621;
266.4000;0.1701;0.9669;
266.7000;0.1734;0.9716;
267.0000;0.1718;0.9716;
267.3000;0.1718;0.9787;
267.6000;0.1701;0.9858;
267.9000;0.1709;0.9858;
268.2000;0.1709;0.9763;
268.5000;0.1726;0.9834;
268.8000;0.1718;0.9787;
269.1000;0.1718;0.9787;
269.4000;0.1718;0.9763;
269.7000;0.1709;0.9692;
270.0000;0.1718;0.9716;
270.3000;0.1750;0.9834;
270.6000;0.1718;0.9763;
270.9000;0.1718;0.9787;
271.2000;0.1718;0.9787;
271.5000;0.1709;0.9787;
271.8000;0.1742;0.9834;
272.1000;0.1685;0.9669;
272.4000;0.1644;0.9621;
272.7000;0.1709;0.9811;
273.0000;0.1709;0.9763;
273.3000;0.1701;0.9787;
273.6000;0.1726;0.9858;
273.9000;0.1734;0.9763;
274.2000;0.1709;0.9716;
274.5000;0.1718;0.9740;
274.8000;0.1709;0.9716;
275.1000;0.1726;0.9740;
275.4000;0.1709;0.9669;
275.7000;0.1709;0.9692;
276.0000;0.1701;0.9669;
276.3000;0.1718;0.9692;
276.6000;0.1734;0.9740;
276.9000;0.1701;0.9716;
277.2000;0.1718;0.9858;
277.5000;0.1726;0.9882;
277.8000;0.1718;0.9906;
278.1000;0.1718;0.9882;
278.4000;0.1701;0.9929;
278.7000;0.1742;1.0071;
279.0000;0.1718;1.0000;
279.3000;0.1726;0.9906;
279.6000;0.1701;0.9882;
279.9000;0.1701;0.9834;
280.2000;0.1766;0.9906;
280.5000;0.1693;0.9597;
280.8000;0.1685;0.9503;
281.1000;0.1718;0.9574;
281.4000;0.1718;0.9526;
281.7000;0.1734;0.9503;
282.0000;0.1652;0.9337;
282.3000;0.1709;0.9479;
282.6000;0.1701;0.9503;
282.9000;0.1718;0.9574;
283.2000;0.1718;0.9574;
283.5000;0.1709;0.9574;
283.8000;0.1758;0.9763;
284.1000;0.1726;0.9716;
284.4000;0.1644;0.9503;
284.7000;0.1701;0.9669;
285.0000;0.1701;0.9645;
285.3000;0.1709;0.9621;
285.6000;0.1709;0.9574;
285.9000;0.1718;0.9597;
286.2000;0.1709;0.9550;
286.5000;0.1742;0.9669;
286.8000;0.1758;0.9716;
287.1000;0.1726;0.9669;
287.4000;0.1709;0.9645;
287.7000;0.1701;0.9574;
288.0000;0.1701;0.9503;
288.3000;0.1734;0.9645;
288.6000;0.1685;0.9526;
288.9000;0.1709;0.9621;
289.2000;0.1718;0.9716;
289.5000;0.1726;0.9763;
289.8000;0.1685;0.9740;
290.1000;0.1709;0.9929;
290.4000;0.1709;0.9929;
290.7000;0.1766;1.0024;
291.0000;0.1718;0.9787;
291.3000;0.1669;0.9645;
291.6000;0.1718;0.9740;
291.9000;0.1693;0.9692;
292.2000;0.1709;0.9763;
292.5000;0.1709;0.9763;
292.8000;0.1701;0.9740;
293.1000;0.1718;0.9787;
293.4000;0.1718;0.9882;
293.7000;0.1709;0.9882;
294.0000;0.1709;0.9906;
294.3000;0.1709;0.9858;
294.6000;0.1709;0.9882;
294.9000;0.1701;0.9953;
295.2000;0.1709;0.9953;
295.5000;0.1709;0.9906;
295.8000;0.1709;0.9882;
296.1000;0.1726;0.9834;
296.4000;0.1718;0.9811;
296.7000;0.1726;0.9858;
297.0000;0.1718;0.9787;
297.3000;0.1718;0.9740;
297.6000;0.1742;0.9787;
297.9000;0.1718;0.9787;
298.2000;0.1726;0.9811;
298.5000;0.1718;0.9787;
298.8000;0.1685;0.9692;
299.1000;0.1709;0.9834;
299.4000;0.1709;0.9811;
299.7000;0.1709;0.9740;
300.0000;0.1701;0.9763;
300.3000;0.1718;0.9882;
300.6000;0.1718;0.9906;
300.9000;0.1709;0.9906;
301.2000;0.1701;0.9763;
301.5000;0.1669;0.9597;
301.8000;0.1709;0.9858;
302.1000;0.1669;0.9811;
302.4000;0.1709;0.9811;
302.7000;0.1718;0.9811;
303.0000;0.1718;0.9787;
303.3000;0.1701;0.9716;
303.6000;0.1709;0.9834;
303.9000;0.1701;0.9834;
304.2000;0.1742;0.9882;
304.5000;0.1693;0.9787;
304.8000;0.1709;0.9787;
305.1000;0.1701;0.9787;
305.4000;0.1709;0.9740;
305.7000;0.1783;0.9882;
306.0000;0.1807;0.9858;
306.3000;0.1750;0.9692;
306.6000;0.1734;0.9574;
306.9000;0.1726;0.9526;
307.2000;0.1734;0.9526;
307.5000;0.1775;0.9621;
307.8000;0.1709;0.9384;
308.1000;0.1766;0.9550;
308.4000;0.1661;0.9266;
308.7000;0.1709;0.9384;
309.0000;0.1734;0.9479;
309.3000;0.1685;0.9337;
309.6000;0.1693;0.9337;
309.9000;0.1709;0.9384;
310.2000;0.1709;0.9455;
310.5000;0.1693;0.9526;
310.8000;0.1750;0.9811;
311.1000;0.1701;0.9669;
311.4000;0.1693;0.9645;
311.7000;0.1701;0.9574;
312.0000;0.1718;0.9479;
312.3000;0.1726;0.9479;
312.6000;0.1685;0.9408;
312.9000;0.1709;0.9597;
313.2000;0.1709;0.9597;
313.5000;0.1726;0.9669;
313.8000;0.1709;0.9645;
314.1000;0.1718;0.9692;
314.4000;0.1693;0.9645;
314.7000;0.1709;0.9669;
315.0000;0.1701;0.9740;
315.3000;0.1693;0.9692;
315.6000;0.1718;0.9763;
315.9000;0.1766;0.9929;
316.2000;0.1685;0.9787;
316.5000;0.1693;0.9834;
316.8000;0.1709;0.9858;
317.1000;0.1701;0.9882;
317.4000;0.1726;0.9882;
317.7000;0.1701;0.9716;
318.0000;0.1718;0.9740;
318.3000;0.1718;0.9763;
318.6000;0.1734;0.9740;
318.9000;0.1718;0.9645;
319.2000;0.1693;0.9597;
319.5000;0.1709;0.9716;
319.8000;0.1693;0.9811;
320.1000;0.1709;0.9811;
320.4000;0.1734;0.9740;
320.7000;0.1718;0.9740;
321.0000;0.1742;0.9811;
321.3000;0.1726;0.9716;
321.6000;0.1669;0.9621;
321.9000;0.1718;0.9669;
322.2000;0.1726;0.9645;
322.5000;0.1701;0.9692;
322.8000;0.1718;0.9763;
323.1000;0.1718;0.9740;
323.4000;0.1701;0.9692;
323.7000;0.1709;0.9669;
324.0000;0.1709;0.9621;
324.3000;0.1709;0.9597;
324.6000;0.1742;0.9787;
324.9000;0.1701;0.9716;
325.2000;0.1701;0.9621;
325.5000;0.1742;0.9669;
325.8000;0.1726;0.9574;
326.1000;0.1693;0.9574;
326.4000;0.1693;0.9621;
326.7000;0.1701;0.9621;
327.0000;0.1718;0.9669;
327.3000;0.1775;0.9834;
327.6000;0.1685;0.9597;
327.9000;0.1718;0.9716;
328.2000;0.1669;0.9645;
328.5000;0.1709;0.9740;
328.8000;0.1693;0.9740;
329.1000;0.1750;0.9906;
329.4000;0.1718;0.9787;
329.7000;0.1726;0.9787;
330.0000;0.1701;0.9787;
330.3000;0.1718;0.9692;
330.6000;0.1701;0.9692;
330.9000;0.1718;0.9692;
331.2000;0.1652;0.9526;
331.5000;0.1701;0.9692;
331.8000;0.1709;0.9692;
332.1000;0.1677;0.9574;
332.4000;0.1742;0.9811;
332.7000;0.1718;0.9787;
333.0000;0.1701;0.9811;
333.3000;0.1734;0.9787;
333.6000;0.1709;0.9645;
333.9000;0.1726;0.9574;
334.2000;0.1709;0.9526;
334.5000;0.1718;0.9479;
334.8000;0.1718;0.9574;
335.1000;0.1726;0.9597;
335.4000;0.1726;0.9621;
335.7000;0.1709;0.9597;
336.0000;0.1709;0.9574;
336.3000;0.1701;0.9597;
336.6000;0.1701;0.9550;
336.9000;0.1677;0.9455;
337.2000;0.1693;0.9503;
337.5000;0.1685;0.9479;
337.8000;0.1709;0.9550;
338.1000;0.1693;0.9526;
338.4000;0.1709;0.9574;
338.7000;0.1709;0.9645;
339.0000;0.1742;0.9645;
339.3000;0.1718;0.9550;
339.6000;0.1709;0.9479;
339.9000;0.1718;0.9479;
340.2000;0.1718;0.9526;
340.5000;0.1750;0.9669;
340.8000;0.1718;0.9526;
341.1000;0.1701;0.9597;
341.4000;0.1718;0.9645;
341.7000;0.1709;0.9716;
342.0000;0.1709;0.9834;
342.3000;0.1709;0.9834;
342.6000;0.1766;0.9977;
342.9000;0.1701;0.9740;
343.2000;0.1701;0.9716;
343.5000;0.1677;0.9645;
343.8000;0.1685;0.9645;
344.1000;0.1709;0.9716;
344.4000;0.1661;0.9669;
344.7000;0.1726;0.9834;
345.0000;0.1709;0.9834;
345.3000;0.1718;0.9834;
345.6000;0.1766;0.9977;
345.9000;0.1783;0.9906;
346.2000;0.1709;0.9645;
346.5000;0.1734;0.9645;
346.8000;0.1718;0.9669;
347.1000;0.1718;0.9716;
347.4000;0.1701;0.9740;
347.7000;0.1709;0.9692;
348.0000;0.1693;0.9669;
348.3000;0.1709;0.9740;
348.6000;0.1709;0.9692;
348.9000;0.1701;0.9669;
349.2000;0.1685;0.9597;
349.5000;0.1701;0.9597;
349.8000;0.1718;0.9669;
350.1000;0.1693;0.9645;
350.4000;0.1701;0.9716;
350.7000;0.1726;0.9740;
351.0000;0.1726;0.9692;
351.3000;0.1709;0.9692;
351.6000;0.1726;0.9716;
351.9000;0.1718;0.9716;
352.2000;0.1726;0.9692;
352.5000;0.1734;0.9740;
352.8000;0.1750;0.9811;
353.1000;0.1701;0.9692;
353.4000;0.1709;0.9669;
353.7000;0.1701;0.9621;
354.0000;0.1709;0.9597;
354.3000;0.1726;0.9574;
354.6000;0.1701;0.9574;
354.9000;0.1701;0.9526;
355.2000;0.1661;0.9432;
355.5000;0.1701;0.9526;
355.8000;0.1726;0.9550;
356.1000;0.1701;0.9455;
356.4000;0.1750;0.9503;
356.7000;0.1718;0.9432;
357.0000;0.1709;0.9455;
357.3000;0.1726;0.9479;
357.6000;0.1726;0.9550;
357.9000;0.1718;0.9550;
358.2000;0.1709;0.9574;
358.5000;0.1701;0.9526;
358.8000;0.1718;0.9645;
359.1000;0.1701;0.9621;
359.4000;0.1718;0.9550;
359.7000;0.1775;0.9669;
360.0000;0.1718;0.9550;
360.3000;0.1766;0.9692;
360.6000;0.1718;0.9597;
360.9000;0.1718;0.9621;
361.2000;0.1709;0.9621;
361.5000;0.1718;0.9597;
361.8000;0.1734;0.9621;
362.1000;0.1709;0.9621;
362.4000;0.1718;0.9550;
362.7000;0.1726;0.9574;
363.0000;0.1718;0.9526;
363.3000;0.1742;0.9597;
363.6000;0.1718;0.9479;
363.9000;0.1693;0.9384;
364.2000;0.1685;0.9408;
364.5000;0.1701;0.9455;
364.8000;0.1718;0.9526;
365.1000;0.1701;0.9550;
365.4000;0.1709;0.9574;
365.7000;0.1709;0.9597;
366.0000;0.1701;0.9597;
366.3000;0.1718;0.9621;
366.6000;0.1742;0.9740;
366.9000;0.1701;0.9716;
367.2000;0.1726;0.9787;
367.5000;0.1709;0.9740;
367.8000;0.1693;0.9597;
368.1000;0.1693;0.9550;
368.4000;0.1718;0.9621;
368.7000;0.1718;0.9526;
369.0000;0.1726;0.9526;
369.3000;0.1701;0.9455;
369.6000;0.1718;0.9503;
369.9000;0.1734;0.9597;
370.2000;0.1709;0.9621;
370.5000;0.1709;0.9621;
370.8000;0.1701;0.9550;
371.1000;0.1701;0.9621;
371.4000;0.1742;0.9574;
371.7000;0.1718;0.9597;
372.0000;0.1726;0.9597;
372.3000;0.1709;0.9645;
372.6000;0.1718;0.9716;
372.9000;0.1718;0.9763;
373.2000;0.1701;0.9787;
373.5000;0.1685;0.9763;
373.8000;0.1701;0.9811;
374.1000;0.1709;0.9882;
374.4000;0.1709;0.9906;
374.7000;0.1701;0.9811;
375.0000;0.1709;0.9763;
375.3000;0.1709;0.9740;
375.6000;0.1718;0.9787;
375.9000;0.1701;0.9763;
376.2000;0.1709;0.9787;
376.5000;0.1718;0.9811;
376.8000;0.1718;0.9787;
377.1000;0.1718;0.9740;
377.4000;0.1766;0.9906;
377.7000;0.1709;0.9787;
378.0000;0.1709;0.9787;
378.3000;0.1701;0.9763;
378.6000;0.1718;0.9740;
378.9000;0.1701;0.9692;
379.2000;0.1709;0.9763;
379.5000;0.1709;0.9692;
379.8000;0.1742;0.9811;
380.1000;0.1718;0.9692;
380.4000;0.1734;0.9692;
380.7000;0.1726;0.9692;
381.0000;0.1709;0.9597;
381.3000;0.1734;0.9692;
381.6000;0.1726;0.9692;
381.9000;0.1718;0.9740;
382.2000;0.1709;0.9621;
382.5000;0.1709;0.9597;
382.8000;0.1734;0.9597;
383.1000;0.1718;0.9669;
383.4000;0.1709;0.9692;
383.7000;0.1709;0.9669;
384.0000;0.1718;0.9692;
384.3000;0.1742;0.9669;
384.6000;0.1718;0.9597;
384.9000;0.1726;0.9716;
385.2000;0.1726;0.9692;
385.5000;0.1734;0.9740;
385.8000;0.1693;0.9787;
386.1000;0.1709;0.9716;
386.4000;0.1718;0.9645;
386.7000;0.1709;0.9716;
387.0000;0.1726;0.9787;
387.3000;0.1677;0.9716;
387.6000;0.1701;0.9669;
387.9000;0.1726;0.9692;
388.2000;0.1693;0.9621;
388.5000;0.1734;0.9692;
388.8000;0.1701;0.9692;
389.1000;0.1718;0.9669;
389.4000;0.1766;0.9763;
389.7000;0.1726;0.9692;
390.0000;0.1718;0.9692;
390.3000;0.1718;0.9716;
390.6000;0.1685;0.9645;
390.9000;0.1718;0.9716;
391.2000;0.1718;0.9669;
391.5000;0.1726;0.9716;
391.8000;0.1718;0.9716;
392.1000;0.1693;0.9740;
392.4000;0.1709;0.9716;
392.7000;0.1726;0.9763;
393.0000;0.1709;0.9716;
393.3000;0.1701;0.9716;
393.6000;0.1709;0.9763;
393.9000;0.1709;0.9763;
394.2000;0.1701;0.9787;
394.5000;0.1742;0.9882;
394.8000;0.1726;0.9882;
395.1000;0.1726;0.9811;
395.4000;0.1734;0.9740;
395.7000;0.1734;0.9787;
396.0000;0.1766;0.9858;
396.3000;0.1709;0.9716;
396.6000;0.1701;0.9740;
396.9000;0.1718;0.9716;
397.2000;0.1734;0.9716;
397.5000;0.1718;0.9621;
397.8000;0.1693;0.9574;
398.1000;0.1701;0.9621;
398.4000;0.1726;0.9787;
398.7000;0.1709;0.9740;
399.0000;0.1709;0.9787;
399.3000;0.1709;0.9787;
399.6000;0.1718;0.9740;
399.9000;0.1677;0.9550;
400.2000;0.1661;0.9597;
400.5000;0.1709;0.9669;
400.8000;0.1709;0.9763;
401.1000;0.1718;0.9716;
401.4000;0.1709;0.9763;
401.7000;0.1709;0.9763;
402.0000;0.1652;0.9621;
402.3000;0.1726;0.9906;
402.6000;0.1726;0.9811;
402.9000;0.1726;0.9811;
403.2000;0.1766;0.9906;
403.5000;0.1734;0.9621;
403.8000;0.1709;0.9503;
404.1000;0.1709;0.9526;
404.4000;0.1718;0.9526;
404.7000;0.1718;0.9384;
405.0000;0.1718;0.9337;
405.3000;0.1718;0.9337;
405.6000;0.1709;0.9361;
405.9000;0.1709;0.9337;
406.2000;0.1718;0.9408;
406.5000;0.1693;0.9432;
406.8000;0.1718;0.9550;
407.1000;0.1709;0.9597;
407.4000;0.1701;0.9526;
407.7000;0.1718;0.9669;
408.0000;0.1701;0.9574;
408.3000;0.1709;0.9574;
408.6000;0.1701;0.9597;
408.9000;0.1726;0.9645;
409.2000;0.1693;0.9597;
409.5000;0.1693;0.9597;
409.8000;0.1718;0.9669;
410.1000;0.1718;0.9621;
410.4000;0.1718;0.9669;
410.7000;0.1693;0.9716;
411.0000;0.1701;0.9669;
411.3000;0.1718;0.9716;
411.6000;0.1718;0.9763;
411.9000;0.1709;0.9621;
412.2000;0.1709;0.9621;
412.5000;0.1734;0.9692;
412.8000;0.1726;0.9692;
413.1000;0.1718;0.9716;
413.4000;0.1726;0.9716;
413.7000;0.1661;0.9526;
414.0000;0.1701;0.9574;
414.3000;0.1677;0.9526;
414.6000;0.1726;0.9669;
414.9000;0.1701;0.9645;
415.2000;0.1726;0.9740;
415.5000;0.1701;0.9740;
415.8000;0.1734;0.9763;
416.1000;0.1709;0.9692;
416.4000;0.1734;0.9787;
416.7000;0.1734;0.9716;
417.0000;0.1718;0.9669;
417.3000;0.1718;0.9621;
417.6000;0.1734;0.9669;
417.9000;0.1718;0.9645;
418.2000;0.1709;0.9597;
418.5000;0.1685;0.9550;
418.8000;0.1701;0.9384;
419.1000;0.1709;0.9408;
419.4000;0.1709;0.9432;
419.7000;0.1709;0.9408;
420.0000;0.1677;0.9361;
420.3000;0.1709;0.9455;
420.6000;0.1701;0.9526;
420.9000;0.1718;0.9550;
421.2000;0.1734;0.9692;
421.5000;0.1701;0.9621;
421.8000;0.1742;0.9811;
422.1000;0.1718;0.9763;
422.4000;0.1693;0.9669;
422.7000;0.1677;0.9621;
423.0000;0.1701;0.9645;
423.3000;0.1734;0.9740;
423.6000;0.1709;0.9621;
423.9000;0.1718;0.9692;
424.2000;0.1718;0.9716;
424.5000;0.1718;0.9740;
424.8000;0.1701;0.9716;
425.1000;0.1709;0.9669;
425.4000;0.1628;0.9526;
425.7000;0.1709;0.9740;
426.0000;0.1709;0.9811;
426.3000;0.1677;0.9763;
426.6000;0.1718;0.9858;
426.9000;0.1709;0.9858;
427.2000;0.1734;0.9929;
427.5000;0.1718;0.9882;
427.8000;0.1709;0.9906;
428.1000;0.1709;0.9929;
428.4000;0.1742;0.9906;
428.7000;0.1709;0.9763;
429.0000;0.1693;0.9692;
429.3000;0.1701;0.9763;
429.6000;0.1709;0.9834;
429.9000;0.1693;0.9787;
430.2000;0.1775;0.9953;
430.5000;0.1701;0.9787;
430.8000;0.1775;0.9953;
431.1000;0.1701;0.9858;
431.4000;0.1701;0.9763;
431.7000;0.1709;0.9669;
432.0000;0.1709;0.9645;
432.3000;0.1718;0.9550;
432.6000;0.1709;0.9503;
432.9000;0.1718;0.9503;
433.2000;0.1726;0.9526;
433.5000;0.1718;0.9526;
433.8000;0.1701;0.9621;
434.1000;0.1718;0.9597;
434.4000;0.1726;0.9550;
434.7000;0.1726;0.9574;
435.0000;0.1709;0.9597;
435.3000;0.1701;0.9597;
435.6000;0.1701;0.9645;
435.9000;0.1701;0.9740;
436.2000;0.1709;0.9716;
436.5000;0.1669;0.9669;
436.8000;0.1718;0.9740;
437.1000;0.1709;0.9716;
437.4000;0.1709;0.9645;
437.7000;0.1677;0.9550;
438.0000;0.1701;0.9574;
438.3000;0.1701;0.9526;
438.6000;0.1791;0.9787;
438.9000;0.1718;0.9597;
439.2000;0.1718;0.9645;
439.5000;0.1718;0.9645;
439.8000;0.1709;0.9692;
440.1000;0.1758;0.9787;
440.4000;0.1734;0.9692;
440.7000;0.1726;0.9645;
441.0000;0.1734;0.9645;
441.3000;0.1726;0.9669;
441.6000;0.1718;0.9669;
441.9000;0.1726;0.9763;
442.2000;0.1701;0.9787;
442.5000;0.1718;0.9882;
442.8000;0.1718;0.9858;
443.1000;0.1718;0.9858;
443.4000;0.1709;0.9834;
443.7000;0.1734;0.9763;
444.0000;0.1742;0.9787;
444.3000;0.1701;0.9692;
444.6000;0.1718;0.9692;
444.9000;0.1693;0.9716;
445.2000;0.1709;0.9763;
445.5000;0.1709;0.9763;
445.8000;0.1693;0.9716;
446.1000;0.1709;0.9669;
446.4000;0.1701;0.9621;
446.7000;0.1734;0.9669;
447.0000;0.1718;0.9645;
447.3000;0.1758;0.9716;
447.6000;0.1718;0.9621;
447.9000;0.1766;0.9787;
448.2000;0.1709;0.9597;
448.5000;0.1709;0.9621;
448.8000;0.1726;0.9740;
449.1000;0.1677;0.9645;
449.4000;0.1701;0.9763;
449.7000;0.1709;0.9787;
450.0000;0.1718;0.9740;
450.3000;0.1718;0.9787;
450.6000;0.1718;0.9811;
450.9000;0.1685;0.9787;
451.2000;0.1718;0.9811;
451.5000;0.1709;0.9906;
451.8000;0.1709;0.9953;
452.1000;0.1709;0.9906;
452.4000;0.1701;0.9787;
452.7000;0.1718;0.9858;
453.0000;0.1718;0.9811;
453.3000;0.1718;0.9834;
453.6000;0.1726;0.9763;
453.9000;0.1685;0.9669;
454.2000;0.1734;0.9763;
454.5000;0.1709;0.9597;
454.8000;0.1709;0.9597;
455.1000;0.1701;0.9669;
455.4000;0.1709;0.9692;
455.7000;0.1734;0.9763;
456.0000;0.1693;0.9692;
456.3000;0.1709;0.9716;
456.6000;0.1709;0.9763;
456.9000;0.1709;0.9763;
457.2000;0.1701;0.9811;
457.5000;0.1709;0.9858;
457.8000;0.1709;0.9834;
458.1000;0.1742;0.9858;
458.4000;0.1685;0.9763;
458.7000;0.1726;0.9858;
459.0000;0.1677;0.9740;
459.3000;0.1709;0.9716;
459.6000;0.1701;0.9716;
459.9000;0.1693;0.9574;
460.2000;0.1709;0.9645;
460.5000;0.1709;0.9645;
460.8000;0.1677;0.9621;
461.1000;0.1783;0.9906;
461.4000;0.1661;0.9574;
461.7000;0.1709;0.9692;
462.0000;0.1709;0.9621;
462.3000;0.1709;0.9669;
462.6000;0.1726;0.9669;
462.9000;0.1750;0.9811;
463.2000;0.1718;0.9692;
463.5000;0.1726;0.9740;
463.8000;0.1693;0.9621;
464.1000;0.1734;0.9669;
464.4000;0.1669;0.9479;
464.7000;0.1709;0.9669;
465.0000;0.1661;0.9597;
465.3000;0.1685;0.9597;
465.6000;0.1709;0.9597;
465.9000;0.1718;0.9692;
466.2000;0.1726;0.9645;
466.5000;0.1718;0.9621;
466.8000;0.1726;0.9716;
467.1000;0.1726;0.9692;
467.4000;0.1718;0.9716;
467.7000;0.1709;0.9740;
468.0000;0.1701;0.9716;
468.3000;0.1718;0.9692;
468.6000;0.1718;0.9669;
468.9000;0.1742;0.9740;
469.2000;0.1718;0.9740;
469.5000;0.1726;0.9740;
469.8000;0.1734;0.9740;
470.1000;0.1709;0.9645;
470.4000;0.1718;0.9574;
470.7000;0.1709;0.9621;
471.0000;0.1718;0.9597;
471.3000;0.1709;0.9645;
471.6000;0.1701;0.9574;
471.9000;0.1709;0.9574;
472.2000;0.1750;0.9621;
472.5000;0.1726;0.9455;
472.8000;0.1742;0.9526;
473.1000;0.1726;0.9503;
473.4000;0.1750;0.9597;
473.7000;0.1709;0.9503;
474.0000;0.1709;0.9503;
474.3000;0.1685;0.9432;
474.6000;0.1718;0.9597;
474.9000;0.1734;0.9669;
475.2000;0.1701;0.9574;
475.5000;0.1734;0.9692;
475.8000;0.1709;0.9669;
476.1000;0.1718;0.9645;
476.4000;0.1726;0.9621;
476.7000;0.1709;0.9621;
477.0000;0.1718;0.9645;
477.3000;0.1685;0.9550;
477.6000;0.1734;0.9692;
477.9000;0.1718;0.9692;
478.2000;0.1709;0.9740;
478.5000;0.1726;0.9716;
478.8000;0.1750;0.9763;
479.1000;0.1718;0.9669;
479.4000;0.1726;0.9669;
479.7000;0.1709;0.9692;
480.0000;0.1718;0.9669;
480.3000;0.1726;0.9597;
480.6000;0.1693;0.9503;
480.9000;0.1718;0.9432;
481.2000;0.1701;0.9455;
481.5000;0.1709;0.9503;
481.8000;0.1701;0.9479;
482.1000;0.1701;0.9455;
482.4000;0.1718;0.9621;
482.7000;0.1718;0.9597;
483.0000;0.1709;0.9645;
483.3000;0.1718;0.9692;
483.6000;0.1718;0.9740;
483.9000;0.1718;0.9787;
484.2000;0.1718;0.9763;
484.5000;0.1709;0.9811;
484.8000;0.1693;0.9692;
485.1000;0.1701;0.9716;
485.4000;0.1726;0.9763;
485.7000;0.1709;0.9716;
486.0000;0.1718;0.9621;
486.3000;0.1718;0.9645;
486.6000;0.1734;0.9597;
486.9000;0.1709;0.9526;
487.2000;0.1693;0.9503;
487.5000;0.1709;0.9526;
487.8000;0.1709;0.9597;
488.1000;0.1750;0.9669;
488.4000;0.1718;0.9526;
488.7000;0.1701;0.9455;
489.0000;0.1726;0.9645;
489.3000;0.1718;0.9621;
489.6000;0.1709;0.9574;
489.9000;0.1718;0.9621;
490.2000;0.1718;0.9550;
490.5000;0.1709;0.9574;
490.8000;0.1734;0.9597;
491.1000;0.1718;0.9432;
491.4000;0.1726;0.9455;
491.7000;0.1709;0.9455;
492.0000;0.1701;0.9526;
492.3000;0.1701;0.9597;
492.6000;0.1701;0.9574;
492.9000;0.1693;0.9550;
493.2000;0.1718;0.9503;
493.5000;0.1709;0.9503;
493.8000;0.1709;0.9574;
494.1000;0.1718;0.9479;
494.4000;0.1726;0.9526;
494.7000;0.1726;0.9503;
495.0000;0.1693;0.9455;
495.3000;0.1718;0.9479;
495.6000;0.1709;0.9526;
495.9000;0.1726;0.9621;
496.2000;0.1669;0.9503;
496.5000;0.1709;0.9597;
496.8000;0.1701;0.9669;
497.1000;0.1709;0.9621;
497.4000;0.1709;0.9645;
497.7000;0.1701;0.9597;
498.0000;0.1709;0.9621;
498.3000;0.1709;0.9645;
498.6000;0.1709;0.9669;
498.9000;0.1709;0.9692;
499.2000;0.1693;0.9645;
499.5000;0.1718;0.9692;
499.8000;0.1677;0.9621;
500.1000;0.1718;0.9787;
500.4000;0.1742;0.9740;
500.7000;0.1726;0.9645;
501.0000;0.1718;0.9621;
501.3000;0.1718;0.9574;
501.6000;0.1718;0.9597;
501.9000;0.1709;0.9574;
502.2000;0.1726;0.9550;
502.5000;0.1701;0.9526;
502.8000;0.1718;0.9503;
503.1000;0.1709;0.9479;
503.4000;0.1718;0.9479;
503.7000;0.1709;0.9503;
504.0000;0.1701;0.9574;
504.3000;0.1693;0.9526;
504.6000;0.1693;0.9479;
504.9000;0.1726;0.9669;
505.2000;0.1718;0.9645;
505.5000;0.1709;0.9669;
505.8000;0.1718;0.9645;
506.1000;0.1709;0.9669;
506.4000;0.1734;0.9740;
506.7000;0.1701;0.9621;
507.0000;0.1701;0.9716;
507.3000;0.1718;0.9692;
507.6000;0.1718;0.9692;
507.9000;0.1734;0.9645;
508.2000;0.1693;0.9621;
508.5000;0.1661;0.9597;
508.8000;0.1709;0.9740;
509.1000;0.1709;0.9669;
509.4000;0.1718;0.9597;
509.7000;0.1709;0.9645;
510.0000;0.1709;0.9597;
510.3000;0.1709;0.9526;
510.6000;0.1677;0.9432;
510.9000;0.1709;0.9455;
511.2000;0.1709;0.9455;
511.5000;0.1701;0.9408;
511.8000;0.1709;0.9455;
512.1000;0.1718;0.9503;
512.4000;0.1709;0.9503;
512.7000;0.1709;0.9526;
513.0000;0.1783;0.9811;
513.3000;0.1701;0.9669;
513.6000;0.1718;0.9740;
513.9000;0.1718;0.9834;
514.2000;0.1701;0.9716;
514.5000;0.1726;0.9740;
514.8000;0.1718;0.9787;
515.1000;0.1726;0.9834;
515.4000;0.1701;0.9811;
515.7000;0.1709;0.9787;
516.0000;0.1701;0.9740;
516.3000;0.1693;0.9716;
516.6000;0.1701;0.9740;
516.9000;0.1693;0.9692;
517.2000;0.1709;0.9763;
517.5000;0.1709;0.9763;
517.8000;0.1718;0.9787;
518.1000;0.1791;0.9906;
518.4000;0.1709;0.9669;
518.7000;0.1709;0.9645;
519.0000;0.1693;0.9597;
519.3000;0.1709;0.9597;
519.6000;0.1709;0.9550;
519.9000;0.1718;0.9669;
520.2000;0.1726;0.9692;
520.5000;0.1709;0.9669;
520.8000;0.1734;0.9740;
521.1000;0.1701;0.9763;
521.4000;0.1750;0.9811;
521.7000;0.1718;0.9692;
522.0000;0.1701;0.9574;
522.3000;0.1709;0.9597;
522.6000;0.1709;0.9645;
522.9000;0.1709;0.9550;
523.2000;0.1726;0.9621;
523.5000;0.1750;0.9669;
523.8000;0.1652;0.9432;
524.1000;0.1718;0.9621;
524.4000;0.1742;0.9597;
524.7000;0.1701;0.9550;
525.0000;0.1701;0.9432;
525.3000;0.1709;0.9503;
525.6000;0.1701;0.9716;
525.9000;0.1775;0.9953;
526.2000;0.1709;0.9858;
526.5000;0.1718;0.9929;
526.8000;0.1726;0.9977;
527.1000;0.1709;1.0024;
527.4000;0.1709;1.0024;
527.7000;0.1726;1.0071;
528.0000;0.1701;1.0071;
528.3000;0.1685;0.9929;
528.6000;0.1718;0.9953;
528.9000;0.1685;0.9763;
529.2000;0.1701;0.9692;
529.5000;0.1718;0.9669;
529.8000;0.1701;0.9692;
530.1000;0.1775;0.9834;
530.4000;0.1709;0.9740;
530.7000;0.1718;0.9811;
531.0000;0.1734;0.9858;
531.3000;0.1718;0.9834;
531.6000;0.1718;0.9787;
531.9000;0.1701;0.9763;
532.2000;0.1718;0.9811;
532.5000;0.1701;0.9669;
532.8000;0.1709;0.9645;
533.1000;0.1718;0.9621;
533.4000;0.1709;0.9692;
533.7000;0.1726;0.9621;
534.0000;0.1726;0.9621;
534.3000;0.1701;0.9526;
534.6000;0.1718;0.9597;
534.9000;0.1726;0.9574;
535.2000;0.1685;0.9503;
535.5000;0.1709;0.9692;
535.8000;0.1693;0.9621;
536.1000;0.1742;0.9669;
536.4000;0.1701;0.9550;
536.7000;0.1693;0.9621;
537.0000;0.1701;0.9597;
537.3000;0.1709;0.9597;
537.6000;0.1693;0.9526;
537.9000;0.1701;0.9503;
538.2000;0.1718;0.9526;
538.5000;0.1709;0.9503;
538.8000;0.1718;0.9479;
539.1000;0.1734;0.9574;
539.4000;0.1709;0.9574;
539.7000;0.1726;0.9645;
540.0000;0.1750;0.9692;
540.3000;0.1718;0.9645;
540.6000;0.1709;0.9621;
540.9000;0.1709;0.9621;
541.2000;0.1709;0.9645;
541.5000;0.1693;0.9621;
541.8000;0.1709;0.9692;
542.1000;0.1661;0.9574;
542.4000;0.1709;0.9763;
542.7000;0.1693;0.9740;
543.0000;0.1693;0.9692;
543.3000;0.1693;0.9763;
543.6000;0.1709;0.9740;
543.9000;0.1709;0.9716;
544.2000;0.1709;0.9692;
544.5000;0.1701;0.9669;
544.8000;0.1709;0.9692;
545.1000;0.1709;0.9716;
545.4000;0.1693;0.9669;
545.7000;0.1685;0.9645;
546.0000;0.1709;0.9692;
546.3000;0.1718;0.9669;
546.6000;0.1701;0.9597;
546.9000;0.1701;0.9574;
547.2000;0.1709;0.9669;
547.5000;0.1718;0.9621;
547.8000;0.1734;0.9669;
548.1000;0.1709;0.9645;
548.4000;0.1734;0.9645;
548.7000;0.1701;0.9716;
549.0000;0.1677;0.9574;
549.3000;0.1726;0.9716;
549.6000;0.1693;0.9645;
549.9000;0.1701;0.9574;
550.2000;0.1701;0.9526;
550.5000;0.1726;0.9645;
550.8000;0.1709;0.9597;
551.1000;0.1709;0.9597;
551.4000;0.1718;0.9669;
551.7000;0.1709;0.9645;
552.0000;0.1709;0.9692;
552.3000;0.1701;0.9692;
552.6000;0.1701;0.9669;
552.9000;0.1709;0.9692;
553.2000;0.1677;0.9597;
553.5000;0.1742;0.9763;
553.8000;0.1620;0.9337;
554.1000;0.1709;0.9550;
554.4000;0.1693;0.9503;
554.7000;0.1685;0.9503;
555.0000;0.1701;0.9503;
555.3000;0.1734;0.9763;
555.6000;0.1701;0.9621;
555.9000;0.1693;0.9597;
556.2000;0.1718;0.9597;
556.5000;0.1718;0.9621;
556.8000;0.1718;0.9692;
557.1000;0.1726;0.9763;
557.4000;0.1726;0.9834;
557.7000;0.1766;0.9858;
558.0000;0.1709;0.9740;
558.3000;0.1718;0.9763;
558.6000;0.1709;0.9787;
558.9000;0.1734;0.9787;
559.2000;0.1709;0.9787;
559.5000;0.1718;0.9834;
559.8000;0.1742;0.9858;
560.1000;0.1718;0.9740;
560.4000;0.1693;0.9740;
560.7000;0.1709;0.9763;
561.0000;0.1701;0.9716;
561.3000;0.1693;0.9740;
561.6000;0.1709;0.9811;
561.9000;0.1709;0.9763;
562.2000;0.1718;0.9763;
562.5000;0.1709;0.9787;
562.8000;0.1726;0.9811;
563.1000;0.1726;0.9811;
563.4000;0.1709;0.9834;
563.7000;0.1718;0.9858;
564.0000;0.1709;0.9811;
564.3000;0.1693;0.9811;
564.6000;0.1718;0.9787;
564.9000;0.1693;0.9692;
565.2000;0.1693;0.9740;
565.5000;0.1709;0.9692;
565.8000;0.1718;0.9787;
566.1000;0.1718;0.9763;
566.4000;0.1718;0.9669;
566.7000;0.1709;0.9669;
567.0000;0.1718;0.9669;
567.3000;0.1726;0.9669;
567.6000;0.1718;0.9621;
567.9000;0.1685;0.9550;
568.2000;0.1709;0.9669;
568.5000;0.1726;0.9692;
568.8000;0.1905;1.0166;
569.1000;0.1709;0.9621;
569.4000;0.1701;0.9597;
569.7000;0.1709;0.9597;
570.0000;0.1742;0.9645;
570.3000;0.1734;0.9716;
570.6000;0.1742;0.9716;
570.9000;0.1709;0.9716;
571.2000;0.1701;0.9669;
571.5000;0.1709;0.9716;
571.8000;0.1693;0.9740;
572.1000;0.1709;0.9763;
572.4000;0.1709;0.9763;
572.7000;0.1766;0.9834;
573.0000;0.1718;0.9669;
573.3000;0.1709;0.9645;
573.6000;0.1726;0.9669;
573.9000;0.1718;0.9597;
574.2000;0.1709;0.9574;
574.5000;0.1685;0.9455;
574.8000;0.1709;0.9455;
575.1000;0.1718;0.9455;
575.4000;0.1677;0.9432;
575.7000;0.1726;0.9621;
576.0000;0.1709;0.9645;
576.3000;0.1718;0.9550;
576.6000;0.1718;0.9574;
576.9000;0.1709;0.9503;
577.2000;0.1709;0.9621;
577.5000;0.1726;0.9645;
577.8000;0.1718;0.9669;
578.1000;0.1742;0.9787;
578.4000;0.1734;0.9763;
578.7000;0.1750;0.9811;
579.0000;0.1718;0.9574;
579.3000;0.1750;0.9716;
579.6000;0.1718;0.9645;
579.9000;0.1726;0.9645;
580.2000;0.1718;0.9716;
580.5000;0.1734;0.9669;
580.8000;0.1693;0.9692;
581.1000;0.1709;0.9716;
581.4000;0.1718;0.9787;
581.7000;0.1709;0.9763;
582.0000;0.1693;0.9716;
582.3000;0.1701;0.9716;
582.6000;0.1718;0.9787;
582.9000;0.1718;0.9787;
583.2000;0.1718;0.9811;
583.5000;0.1709;0.9811;
583.8000;0.1734;0.9858;
584.1000;0.1709;0.9716;
584.4000;0.1701;0.9716;
584.7000;0.1709;0.9763;
585.0000;0.1709;0.9763;
585.3000;0.1718;0.9763;
585.6000;0.1718;0.9740;
585.9000;0.1669;0.9621;
586.2000;0.1693;0.9669;
586.5000;0.1709;0.9763;
586.8000;0.1718;0.9787;
587.1000;0.1685;0.9787;
587.4000;0.1693;0.9882;
587.7000;0.1718;0.9906;
588.0000;0.1709;0.9763;
588.3000;0.1709;0.9716;
588.6000;0.1709;0.9692;
588.9000;0.1685;0.9669;
589.2000;0.1693;0.9716;
589.5000;0.1734;0.9787;
589.8000;0.1718;0.9669;
590.1000;0.1709;0.9716;
590.4000;0.1734;0.9621;
590.7000;0.1636;0.9408;
591.0000;0.1701;0.9550;
591.3000;0.1685;0.9574;
591.6000;0.1734;0.9692;
591.9000;0.1709;0.9716;
592.2000;0.1685;0.9645;
592.5000;0.1750;0.9858;
592.8000;0.1734;0.9787;
593.1000;0.1726;0.9740;
593.4000;0.1685;0.9621;
593.7000;0.1693;0.9669;
594.0000;0.1693;0.9669;
594.3000;0.1661;0.9645;
594.6000;0.1726;0.9858;
594.9000;0.1718;0.9740;
595.2000;0.1685;0.9692;
595.5000;0.1775;0.9858;
595.8000;0.1766;0.9882;
596.1000;0.1718;0.9811;
596.4000;0.1718;0.9834;
596.7000;0.1669;0.9787;
597.0000;0.1709;0.9811;
597.3000;0.1709;0.9787;
597.6000;0.1709;0.9763;
597.9000;0.1709;0.9811;
598.2000;0.1709;0.9811;
598.5000;0.1701;0.9716;
598.8000;0.1701;0.9621;
599.1000;0.1693;0.9574;
599.4000;0.1701;0.9645;
599.7000;0.1693;0.9621;
600.0000;0.1709;0.9550;
600.3000;0.1709;0.9574;
600.6000;0.1701;0.9526;
600.9000;0.1677;0.9550;
601.2000;0.1709;0.9597;
601.5000;0.1677;0.9384;
601.8000;0.1604;0.9124;
602.1000;0.1669;0.9147;
602.4000;0.1661;0.9029;
602.7000;0.1571;0.8768;
603.0000;0.1661;0.9005;
603.3000;0.1652;0.8910;
603.6000;0.1636;0.8863;
603.9000;0.1644;0.8839;
604.2000;0.1628;0.8792;
604.5000;0.1595;0.8697;
604.8000;0.1620;0.8839;
605.1000;0.1644;0.8839;
605.4000;0.1587;0.8650;
605.7000;0.1612;0.8650;
606.0000;0.1604;0.8650;
606.3000;0.1595;0.8721;
606.6000;0.1612;0.8768;
606.9000;0.1612;0.8744;
607.2000;0.1628;0.8768;
607.5000;0.1595;0.8721;
607.8000;0.1579;0.8744;
608.1000;0.1579;0.8697;
608.4000;0.1587;0.8626;
608.7000;0.1563;0.8626;
609.0000;0.1579;0.8697;
609.3000;0.1571;0.8626;
609.6000;0.1579;0.8650;
609.9000;0.1595;0.8697;
610.2000;0.1563;0.8579;
610.5000;0.1571;0.8484;
610.8000;0.1579;0.8460;
611.1000;0.1563;0.8413;
611.4000;0.1555;0.8413;
611.7000;0.1555;0.8555;
612.0000;0.1571;0.8697;
612.3000;0.1547;0.8650;
612.6000;0.1547;0.8650;
612.9000;0.1530;0.8721;
613.2000;0.1514;0.8626;
613.5000;0.1547;0.8792;
613.8000;0.1555;0.8839;
614.1000;0.1612;0.8981;
614.4000;0.1481;0.8697;
614.7000;0.1506;0.8815;
615.0000;0.1449;0.8650;
615.3000;0.1538;0.8887;
615.6000;0.1587;0.9029;
615.9000;0.1538;0.8910;
616.2000;0.1522;0.8839;
616.5000;0.1538;0.8721;
616.8000;0.1538;0.8650;
617.1000;0.1530;0.8602;
617.4000;0.1498;0.8579;
617.7000;0.1547;0.8697;
618.0000;0.1571;0.8792;
618.3000;0.1522;0.8673;
618.6000;0.1514;0.8721;
618.9000;0.1547;0.8744;
619.2000;0.1530;0.8673;
619.5000;0.1473;0.8531;
619.8000;0.1506;0.8650;
620.1000;0.1547;0.8792;
620.4000;0.1522;0.8721;
620.7000;0.1522;0.8792;
621.0000;0.1522;0.8792;
621.3000;0.1522;0.8768;
621.6000;0.1530;0.8768;
621.9000;0.1514;0.8721;
622.2000;0.1506;0.8815;
622.5000;0.1498;0.8792;
622.8000;0.1506;0.8815;
623.1000;0.1506;0.8839;
623.4000;0.1506;0.8887;
623.7000;0.1514;0.8887;
624.0000;0.1514;0.8792;
624.3000;0.1514;0.8768;
624.6000;0.1506;0.8697;
624.9000;0.1514;0.8626;
625.2000;0.1506;0.8673;
625.5000;0.1530;0.8768;
625.8000;0.1522;0.8650;
626.1000;0.1538;0.8673;
626.4000;0.1498;0.8626;
626.7000;0.1506;0.8697;
627.0000;0.1490;0.8602;
627.3000;0.1473;0.8626;
627.6000;0.1473;0.8626;
627.9000;0.1490;0.8650;
628.2000;0.1506;0.8673;
628.5000;0.1473;0.8626;
628.8000;0.1465;0.8579;
629.1000;0.1490;0.8673;
629.4000;0.1481;0.8673;
629.7000;0.1473;0.8650;
630.0000;0.1481;0.8650;
630.3000;0.1481;0.8744;
630.6000;0.1490;0.8697;
630.9000;0.1465;0.8697;
631.2000;0.1449;0.8721;
631.5000;0.1465;0.8815;
631.8000;0.1490;0.8815;
632.1000;0.1490;0.8863;
632.4000;0.1473;0.8863;
632.7000;0.1473;0.8815;
633.0000;0.1473;0.8839;
633.3000;0.1481;0.8768;
633.6000;0.1473;0.8650;
633.9000;0.1465;0.8650;
634.2000;0.1490;0.8673;
634.5000;0.1490;0.8697;
634.8000;0.1465;0.8507;
635.1000;0.1465;0.8507;
635.4000;0.1498;0.8626;
635.7000;0.1490;0.8626;
636.0000;0.1490;0.8650;
636.3000;0.1490;0.8579;
636.6000;0.1481;0.8626;
636.9000;0.1465;0.8673;
637.2000;0.1449;0.8650;
637.5000;0.1473;0.8815;
637.8000;0.1457;0.8792;
638.1000;0.1465;0.8744;
638.4000;0.1473;0.8673;
638.7000;0.1457;0.8602;
639.0000;0.1449;0.8721;
639.3000;0.1465;0.8815;
639.6000;0.1465;0.8815;
639.9000;0.1433;0.8721;
640.2000;0.1514;0.8981;
640.5000;0.1457;0.8815;
640.8000;0.1416;0.8721;
641.1000;0.1457;0.8839;
641.4000;0.1457;0.8697;
641.7000;0.1449;0.8721;
642.0000;0.1457;0.8744;
642.3000;0.1465;0.8768;
642.6000;0.1400;0.8673;
642.9000;0.1425;0.8744;
643.2000;0.1457;0.8839;
643.5000;0.1457;0.8815;
643.8000;0.1441;0.8744;
644.1000;0.1449;0.8768;
644.4000;0.1457;0.8792;
644.7000;0.1449;0.8792;
645.0000;0.1457;0.8792;
645.3000;0.1457;0.8768;
645.6000;0.1481;0.8744;
645.9000;0.1465;0.8650;
646.2000;0.1465;0.8650;
646.5000;0.1465;0.8650;
646.8000;0.1449;0.8579;
647.1000;0.1465;0.8744;
647.4000;0.1465;0.8673;
647.7000;0.1465;0.8697;
648.0000;0.1457;0.8650;
648.3000;0.1449;0.8673;
648.6000;0.1457;0.8744;
648.9000;0.1449;0.8744;
649.2000;0.1408;0.8602;
649.5000;0.1433;0.8626;
649.8000;0.1457;0.8792;
650.1000;0.1392;0.8673;
650.4000;0.1433;0.8744;
650.7000;0.1433;0.8721;
651.0000;0.1416;0.8650;
651.3000;0.1441;0.8721;
651.6000;0.1449;0.8697;
651.9000;0.1425;0.8721;
652.2000;0.1441;0.8744;
652.5000;0.1433;0.8721;
652.8000;0.1433;0.8721;
653.1000;0.1457;0.8815;
653.4000;0.1441;0.8744;
653.7000;0.1441;0.8673;
654.0000;0.1441;0.8673;
654.3000;0.1433;0.8626;
654.6000;0.1441;0.8602;
654.9000;0.1433;0.8626;
655.2000;0.1433;0.8721;
655.5000;0.1425;0.8673;
655.8000;0.1433;0.8650;
656.1000;0.1449;0.8721;
656.4000;0.1441;0.8768;
656.7000;0.1449;0.8744;
657.0000;0.1433;0.8650;
657.3000;0.1441;0.8650;
657.6000;0.1425;0.8626;
657.9000;0.1449;0.8650;
658.2000;0.1416;0.8626;
658.5000;0.1441;0.8673;
658.8000;0.1425;0.8626;
659.1000;0.1457;0.8579;
659.4000;0.1433;0.8602;
659.7000;0.1408;0.8484;
660.0000;0.1400;0.8507;
660.3000;0.1425;0.8555;
660.6000;0.1473;0.8697;
660.9000;0.1481;0.8673;
661.2000;0.1408;0.8531;
661.5000;0.1416;0.8555;
661.8000;0.1433;0.8531;
662.1000;0.1416;0.8436;
662.4000;0.1368;0.8342;
662.7000;0.1433;0.8460;
663.0000;0.1392;0.8484;
663.3000;0.1425;0.8555;
663.6000;0.1416;0.8531;
663.9000;0.1400;0.8579;
664.2000;0.1416;0.8626;
664.5000;0.1433;0.8673;
664.8000;0.1416;0.8626;
665.1000;0.1400;0.8673;
665.4000;0.1416;0.8626;
665.7000;0.1425;0.8602;
666.0000;0.1481;0.8792;
666.3000;0.1376;0.8484;
666.6000;0.1408;0.8484;
666.9000;0.1384;0.8389;
667.2000;0.1425;0.8365;
667.5000;0.1425;0.8389;
667.8000;0.1400;0.8460;
668.1000;0.1408;0.8484;
668.4000;0.1457;0.8507;
668.7000;0.1425;0.8436;
669.0000;0.1457;0.8626;
669.3000;0.1359;0.8389;
669.6000;0.1376;0.8436;
669.9000;0.1416;0.8507;
670.2000;0.1400;0.8436;
670.5000;0.1408;0.8507;
670.8000;0.1416;0.8507;
671.1000;0.1425;0.8507;
671.4000;0.1425;0.8460;
671.7000;0.1400;0.8365;
672.0000;0.1433;0.8484;
672.3000;0.1449;0.8579;
672.6000;0.1408;0.8460;
672.9000;0.1408;0.8436;
673.2000;0.1416;0.8460;
673.5000;0.1408;0.8436;
673.8000;0.1473;0.8626;
674.1000;0.1368;0.8389;
674.4000;0.1392;0.8555;
674.7000;0.1425;0.8555;
675.0000;0.1490;0.8697;
675.3000;0.1416;0.8626;
675.6000;0.1408;0.8579;
675.9000;0.1408;0.8531;
676.2000;0.1416;0.8531;
676.5000;0.1400;0.8507;
676.8000;0.1408;0.8555;
677.1000;0.1416;0.8602;
677.4000;0.1400;0.8650;
677.7000;0.1408;0.8721;
678.0000;0.1392;0.8744;
678.3000;0.1408;0.8744;
678.6000;0.1416;0.8697;
678.9000;0.1408;0.8697;
679.2000;0.1441;0.8815;
679.5000;0.1416;0.8815;
679.8000;0.1425;0.8768;
680.1000;0.1425;0.8744;
680.4000;0.1400;0.8626;
680.7000;0.1376;0.8531;
681.0000;0.1400;0.8626;
681.3000;0.1392;0.8579;
681.6000;0.1392;0.8555;
681.9000;0.1408;0.8602;
682.2000;0.1408;0.8602;
682.5000;0.1400;0.8697;
682.8000;0.1416;0.8650;
683.1000;0.1400;0.8555;
683.4000;0.1400;0.8579;
683.7000;0.1400;0.8579;
684.0000;0.1359;0.8531;
684.3000;0.1384;0.8531;
684.6000;0.1384;0.8531;
684.9000;0.1400;0.8579;
685.2000;0.1449;0.8697;
685.5000;0.1400;0.8555;
685.8000;0.1408;0.8555;
686.1000;0.1408;0.8579;
686.4000;0.1392;0.8602;
686.7000;0.1408;0.8626;
687.0000;0.1368;0.8555;
687.3000;0.1400;0.8650;
687.6000;0.1359;0.8555;
687.9000;0.1400;0.8579;
688.2000;0.1384;0.8555;
688.5000;0.1384;0.8531;
688.8000;0.1359;0.8555;
689.1000;0.1376;0.8650;
689.4000;0.1368;0.8626;
689.7000;0.1392;0.8792;
690.0000;0.1425;0.8910;
690.3000;0.1416;0.8815;
690.6000;0.1392;0.8839;
690.9000;0.1408;0.8815;
691.2000;0.1408;0.8744;
691.5000;0.1392;0.8721;
691.8000;0.1384;0.8721;
692.1000;0.1384;0.8650;
692.4000;0.1384;0.8602;
692.7000;0.1392;0.8602;
693.0000;0.1384;0.8555;
693.3000;0.1392;0.8602;
693.6000;0.1343;0.8484;
693.9000;0.1384;0.8626;
694.2000;0.1376;0.8673;
694.5000;0.1392;0.8721;
694.8000;0.1384;0.8626;
695.1000;0.1400;0.8673;
695.4000;0.1392;0.8721;
695.7000;0.1384;0.8673;
696.0000;0.1392;0.8697;
696.3000;0.1351;0.8650;
696.6000;0.1425;0.8768;
696.9000;0.1384;0.8673;
697.2000;0.1359;0.8673;
697.5000;0.1376;0.8744;
697.8000;0.1376;0.8650;
698.1000;0.1408;0.8650;
698.4000;0.1368;0.8555;
698.7000;0.1368;0.8579;
699.0000;0.1376;0.8650;
699.3000;0.1376;0.8626;
699.6000;0.1384;0.8650;
699.9000;0.1392;0.8650;
700.2000;0.1368;0.8602;
700.5000;0.1376;0.8579;
700.8000;0.1392;0.8626;
701.1000;0.1384;0.8697;
701.4000;0.1376;0.8721;
701.7000;0.1425;0.8887;
702.0000;0.1384;0.8721;
702.3000;0.1400;0.8792;
702.6000;0.1376;0.8744;
702.9000;0.1368;0.8792;
703.2000;0.1384;0.8839;
703.5000;0.1425;0.8958;
703.8000;0.1376;0.8887;
704.1000;0.1376;0.8815;
704.4000;0.1400;0.8792;
704.7000;0.1384;0.8673;
705.0000;0.1416;0.8744;
705.3000;0.1408;0.8768;
705.6000;0.1384;0.8697;
705.9000;0.1400;0.8792;
706.2000;0.1376;0.8721;
706.5000;0.1392;0.8697;
706.8000;0.1400;0.8792;
707.1000;0.1392;0.8839;
707.4000;0.1416;0.8910;
707.7000;0.1400;0.8792;
708.0000;0.1376;0.8721;
708.3000;0.1368;0.8697;
708.6000;0.1376;0.8744;
708.9000;0.1376;0.8697;
709.2000;0.1351;0.8673;
709.5000;0.1376;0.8815;
709.8000;0.1359;0.8721;
710.1000;0.1376;0.8815;
710.4000;0.1319;0.8673;
710.7000;0.1376;0.8863;
711.0000;0.1384;0.8863;
711.3000;0.1368;0.8815;
711.6000;0.1384;0.8768;
711.9000;0.1359;0.8697;
712.2000;0.1376;0.8744;
712.5000;0.1384;0.8768;
712.8000;0.1425;0.8887;
713.1000;0.1376;0.8792;
713.4000;0.1384;0.8839;
713.7000;0.1400;0.8958;
714.0000;0.1392;0.8981;
714.3000;0.1376;0.8910;
714.6000;0.1302;0.8673;
714.9000;0.1392;0.8934;
715.2000;0.1376;0.8910;
715.5000;0.1384;0.8863;
715.8000;0.1368;0.8721;
716.1000;0.1368;0.8697;
716.4000;0.1392;0.8673;
716.7000;0.1335;0.8460;
717.0000;0.1384;0.8602;
717.3000;0.1368;0.8650;
717.6000;0.1359;0.8673;
717.9000;0.1384;0.8744;
718.2000;0.1392;0.8792;
718.5000;0.1376;0.8744;
718.8000;0.1384;0.8839;
719.1000;0.1368;0.8863;
719.4000;0.1368;0.8815;
719.7000;0.1351;0.8697;
720.0000;0.1368;0.8697;
720.3000;0.1359;0.8626;
720.6000;0.1376;0.8579;
720.9000;0.1376;0.8555;
721.2000;0.1368;0.8484;
721.5000;0.1368;0.8436;
721.8000;0.1376;0.8389;
722.1000;0.1384;0.8389;
722.4000;0.1368;0.8365;
722.7000;0.1376;0.8413;
723.0000;0.1359;0.8436;
723.3000;0.1302;0.8342;
723.6000;0.1368;0.8460;
723.9000;0.1368;0.8650;
724.2000;0.1368;0.8650;
724.5000;0.1376;0.8579;
724.8000;0.1359;0.8579;
725.1000;0.1368;0.8602;
725.4000;0.1368;0.8555;
725.7000;0.1351;0.8507;
726.0000;0.1351;0.8531;
726.3000;0.1368;0.8602;
726.6000;0.1368;0.8673;
726.9000;0.1351;0.8555;
727.2000;0.1368;0.8602;
727.5000;0.1359;0.8531;
727.8000;0.1392;0.8602;
728.1000;0.1376;0.8531;
728.4000;0.1359;0.8507;
728.7000;0.1294;0.8294;
729.0000;0.1359;0.8484;
729.3000;0.1327;0.8342;
729.6000;0.1359;0.8436;
729.9000;0.1400;0.8579;
730.2000;0.1368;0.8531;
730.5000;0.1376;0.8650;
730.8000;0.1335;0.8531;
731.1000;0.1343;0.8484;
731.4000;0.1351;0.8531;
731.7000;0.1319;0.8460;
732.0000;0.1408;0.8768;
732.3000;0.1359;0.8697;
732.6000;0.1384;0.8768;
732.9000;0.1425;0.8863;
733.2000;0.1416;0.8839;
733.5000;0.1335;0.8555;
733.8000;0.1343;0.8697;
734.1000;0.1351;0.8744;
734.4000;0.1359;0.8650;
734.7000;0.1368;0.8602;
735.0000;0.1368;0.8602;
735.3000;0.1359;0.8579;
735.6000;0.1359;0.8460;
735.9000;0.1359;0.8579;
736.2000;0.1359;0.8673;
736.5000;0.1343;0.8650;
736.8000;0.1359;0.8697;
737.1000;0.1351;0.8744;
737.4000;0.1351;0.8673;
737.7000;0.1335;0.8531;
738.0000;0.1351;0.8484;
738.3000;0.1359;0.8484;
738.6000;0.1376;0.8555;
738.9000;0.1376;0.8507;
739.2000;0.1368;0.8531;
739.5000;0.1376;0.8579;
739.8000;0.1384;0.8579;
740.1000;0.1351;0.8579;
740.4000;0.1359;0.8602;
740.7000;0.1359;0.8579;
741.0000;0.1351;0.8602;
741.3000;0.1351;0.8650;
741.6000;0.1343;0.8626;
741.9000;0.1359;0.8673;
742.2000;0.1359;0.8744;
742.5000;0.1351;0.8721;
742.8000;0.1343;0.8744;
743.1000;0.1351;0.8768;
743.4000;0.1351;0.8721;
743.7000;0.1368;0.8744;
744.0000;0.1343;0.8626;
744.3000;0.1351;0.8626;
744.6000;0.1351;0.8673;
744.9000;0.1359;0.8626;
745.2000;0.1359;0.8626;
745.5000;0.1351;0.8626;
745.8000;0.1359;0.8673;
746.1000;0.1351;0.8697;
746.4000;0.1368;0.8744;
746.7000;0.1392;0.8744;
747.0000;0.1343;0.8650;
747.3000;0.1368;0.8697;
747.6000;0.1368;0.8744;
747.9000;0.1368;0.8744;
748.2000;0.1351;0.8697;
748.5000;0.1384;0.8768;
748.8000;0.1368;0.8673;
749.1000;0.1351;0.8602;
749.4000;0.1368;0.8507;
749.7000;0.1359;0.8436;
750.0000;0.1351;0.8389;
750.3000;0.1359;0.8413;
750.6000;0.1351;0.8389;
750.9000;0.1359;0.8365;
751.2000;0.1351;0.8318;
751.5000;0.1335;0.8247;
751.8000;0.1359;0.8342;
752.1000;0.1335;0.8365;
752.4000;0.1351;0.8365;
752.7000;0.1359;0.8389;
753.0000;0.1368;0.8318;
753.3000;0.1359;0.8318;
753.6000;0.1335;0.8318;
753.9000;0.1327;0.8389;
754.2000;0.1327;0.8413;
754.5000;0.1327;0.8413;
754.8000;0.1335;0.8389;
755.1000;0.1368;0.8389;
755.4000;0.1359;0.8413;
755.7000;0.1351;0.8342;
756.0000;0.1335;0.8389;
756.3000;0.1327;0.8365;
756.6000;0.1343;0.8436;
756.9000;0.1335;0.8436;
757.2000;0.1343;0.8413;
757.5000;0.1343;0.8365;
757.8000;0.1343;0.8365;
758.1000;0.1343;0.8342;
758.4000;0.1343;0.8318;
758.7000;0.1359;0.8318;
759.0000;0.1351;0.8342;
759.3000;0.1359;0.8342;
759.6000;0.1351;0.8389;
759.9000;0.1319;0.8389;
760.2000;0.1359;0.8460;
760.5000;0.1262;0.8247;
760.8000;0.1359;0.8413;
761.1000;0.1359;0.8507;
761.4000;0.1351;0.8531;
761.7000;0.1343;0.8531;
762.0000;0.1351;0.8555;
762.3000;0.1359;0.8531;
762.6000;0.1351;0.8484;
762.9000;0.1302;0.8413;
763.2000;0.1359;0.8531;
763.5000;0.1311;0.8294;
763.8000;0.1384;0.8507;
764.1000;0.1327;0.8365;
764.4000;0.1335;0.8460;
764.7000;0.1368;0.8579;
765.0000;0.1343;0.8579;
765.3000;0.1343;0.8602;
765.6000;0.1343;0.8602;
765.9000;0.1327;0.8602;
766.2000;0.1327;0.8626;
766.5000;0.1327;0.8650;
766.8000;0.1343;0.8650;
767.1000;0.1351;0.8626;
767.4000;0.1351;0.8579;
767.7000;0.1343;0.8507;
768.0000;0.1351;0.8460;
768.3000;0.1359;0.8484;
768.6000;0.1343;0.8436;
768.9000;0.1351;0.8460;
769.2000;0.1359;0.8484;
769.5000;0.1335;0.8507;
769.8000;0.1368;0.8602;
770.1000;0.1335;0.8531;
770.4000;0.1327;0.8389;
770.7000;0.1343;0.8389;
771.0000;0.1335;0.8413;
771.3000;0.1351;0.8436;
771.6000;0.1335;0.8436;
771.9000;0.1343;0.8531;
772.2000;0.1335;0.8413;
772.5000;0.1327;0.8436;
772.8000;0.1319;0.8389;
773.1000;0.1351;0.8531;
773.4000;0.1351;0.8579;
773.7000;0.1335;0.8555;
774.0000;0.1343;0.8626;
774.3000;0.1359;0.8697;
774.6000;0.1392;0.8721;
774.9000;0.1351;0.8697;
775.2000;0.1270;0.8531;
775.5000;0.1416;0.8863;
775.8000;0.1351;0.8650;
776.1000;0.1359;0.8650;
776.4000;0.1335;0.8602;
776.7000;0.1351;0.8721;
777.0000;0.1359;0.8768;
777.3000;0.1384;0.8815;
777.6000;0.1351;0.8815;
777.9000;0.1351;0.8815;
778.2000;0.1343;0.8792;
778.5000;0.1368;0.8792;
778.8000;0.1319;0.8721;
779.1000;0.1286;0.8531;
779.4000;0.1351;0.8721;
779.7000;0.1376;0.8744;
780.0000;0.1343;0.8673;
780.3000;0.1286;0.8579;
780.6000;0.1302;0.8673;
780.9000;0.1343;0.8768;
781.2000;0.1343;0.8792;
781.5000;0.1351;0.8792;
781.8000;0.1343;0.8721;
782.1000;0.1335;0.8626;
782.4000;0.1335;0.8650;
782.7000;0.1343;0.8673;
783.0000;0.1319;0.8673;
783.3000;0.1327;0.8626;
783.6000;0.1343;0.8626;
783.9000;0.1302;0.8602;
784.2000;0.1327;0.8697;
784.5000;0.1343;0.8744;
784.8000;0.1343;0.8673;
785.1000;0.1335;0.8673;
785.4000;0.1351;0.8626;
785.7000;0.1327;0.8602;
786.0000;0.1343;0.8768;
786.3000;0.1343;0.8863;
786.6000;0.1335;0.8768;
786.9000;0.1335;0.8744;
787.2000;0.1351;0.8839;
787.5000;0.1327;0.8744;
787.8000;0.1327;0.8744;
788.1000;0.1351;0.8839;
788.4000;0.1335;0.8863;
788.7000;0.1384;0.8981;
789.0000;0.1335;0.8887;
789.3000;0.1327;0.8792;
789.6000;0.1343;0.8839;
789.9000;0.1343;0.8887;
790.2000;0.1335;0.8887;
790.5000;0.1286;0.8815;
790.8000;0.1327;0.8934;
791.1000;0.1319;0.8981;
791.4000;0.1376;0.9005;
791.7000;0.1343;0.8981;
792.0000;0.1327;0.8958;
792.3000;0.1335;0.8934;
792.6000;0.1319;0.8910;
792.9000;0.1327;0.8910;
793.2000;0.1335;0.8910;
793.5000;0.1327;0.8934;
793.8000;0.1335;0.8934;
794.1000;0.1343;0.8958;
794.4000;0.1319;0.8839;
794.7000;0.1327;0.8815;
795.0000;0.1335;0.8721;
795.3000;0.1327;0.8768;
795.6000;0.1335;0.8792;
795.9000;0.1351;0.8863;
796.2000;0.1335;0.8768;
796.5000;0.1319;0.8626;
796.8000;0.1343;0.8650;
797.1000;0.1335;0.8650;
797.4000;0.1319;0.8697;
797.7000;0.1351;0.8815;
798.0000;0.1343;0.8744;
798.3000;0.1351;0.8673;
798.6000;0.1327;0.8650;
798.9000;0.1311;0.8673;
799.2000;0.1327;0.8815;
799.5000;0.1319;0.8768;
799.8000;0.1327;0.8792;
800.1000;0.1359;0.8768;
800.4000;0.1319;0.8792;
800.7000;0.1319;0.8768;
801.0000;0.1335;0.8768;
801.3000;0.1319;0.8673;
801.6000;0.1343;0.8697;
801.9000;0.1311;0.8626;
802.2000;0.1335;0.8579;
802.5000;0.1327;0.8626;
802.8000;0.1335;0.8602;
803.1000;0.1327;0.8555;
803.4000;0.1327;0.8531;
803.7000;0.1294;0.8531;
804.0000;0.1327;0.8626;
804.3000;0.1359;0.8839;
804.6000;0.1327;0.8815;
804.9000;0.1327;0.8815;
805.2000;0.1245;0.8650;
805.5000;0.1343;0.8910;
805.8000;0.1270;0.8744;
806.1000;0.1327;0.8839;
806.4000;0.1376;0.9005;
806.7000;0.1335;0.8934;
807.0000;0.1327;0.8839;
807.3000;0.1343;0.8744;
807.6000;0.1327;0.8768;
807.9000;0.1327;0.8768;
808.2000;0.1335;0.8721;
808.5000;0.1319;0.8697;
808.8000;0.1384;0.8792;
809.1000;0.1327;0.8602;
809.4000;0.1327;0.8531;
809.7000;0.1359;0.8531;
810.0000;0.1319;0.8484;
810.3000;0.1327;0.8531;
810.6000;0.1335;0.8555;
810.9000;0.1327;0.8555;
811.2000;0.1311;0.8484;
811.5000;0.1343;0.8579;
811.8000;0.1327;0.8531;
812.1000;0.1343;0.8602;
812.4000;0.1343;0.8650;
812.7000;0.1327;0.8697;
813.0000;0.1319;0.8602;
813.3000;0.1351;0.8744;
813.6000;0.1368;0.8673;
813.9000;0.1335;0.8602;
814.2000;0.1335;0.8602;
814.5000;0.1335;0.8673;
814.8000;0.1359;0.8626;
815.1000;0.1335;0.8555;
815.4000;0.1311;0.8555;
815.7000;0.1335;0.8602;
816.0000;0.1327;0.8555;
816.3000;0.1311;0.8602;
816.6000;0.1327;0.8602;
816.9000;0.1327;0.8579;
817.2000;0.1327;0.8555;
817.5000;0.1343;0.8579;
817.8000;0.1335;0.8507;
818.1000;0.1335;0.8507;
818.4000;0.1359;0.8555;
818.7000;0.1351;0.8507;
819.0000;0.1335;0.8531;
819.3000;0.1335;0.8602;
819.6000;0.1327;0.8507;
819.9000;0.1335;0.8531;
820.2000;0.1327;0.8626;
820.5000;0.1327;0.8579;
820.8000;0.1335;0.8673;
821.1000;0.1335;0.8744;
821.4000;0.1294;0.8673;
821.7000;0.1311;0.8697;
822.0000;0.1335;0.8721;
822.3000;0.1335;0.8792;
822.6000;0.1319;0.8768;
822.9000;0.1327;0.8815;
823.2000;0.1327;0.8863;
823.5000;0.1327;0.8910;
823.8000;0.1327;0.8887;
824.1000;0.1327;0.8887;
824.4000;0.1335;0.8934;
824.7000;0.1335;0.8839;
825.0000;0.1262;0.8673;
825.3000;0.1327;0.8815;
825.6000;0.1311;0.8839;
825.9000;0.1294;0.8744;
826.2000;0.1319;0.8744;
826.5000;0.1335;0.8887;
826.8000;0.1327;0.8958;
827.1000;0.1311;0.8910;
827.4000;0.1335;0.8958;
827.7000;0.1302;0.8744;
828.0000;0.1327;0.8721;
828.3000;0.1327;0.8626;
828.6000;0.1335;0.8602;
828.9000;0.1335;0.8579;
829.2000;0.1343;0.8579;
829.5000;0.1384;0.8626;
829.8000;0.1319;0.8484;
830.1000;0.1327;0.8507;
830.4000;0.1327;0.8507;
830.7000;0.1335;0.8507;
831.0000;0.1311;0.8531;
831.3000;0.1327;0.8555;
831.6000;0.1319;0.8507;
831.9000;0.1327;0.8460;
832.2000;0.1319;0.8342;
832.5000;0.1294;0.8176;
832.8000;0.1335;0.8270;
833.1000;0.1319;0.8294;
833.4000;0.1302;0.8342;
833.7000;0.1311;0.8342;
834.0000;0.1319;0.8413;
834.3000;0.1302;0.8460;
834.6000;0.1335;0.8460;
834.9000;0.1311;0.8436;
835.2000;0.1294;0.8484;
835.5000;0.1335;0.8555;
835.8000;0.1319;0.8602;
836.1000;0.1351;0.8721;
836.4000;0.1302;0.8602;
836.7000;0.1311;0.8602;
837.0000;0.1319;0.8650;
837.3000;0.1343;0.8721;
837.6000;0.1335;0.8768;
837.9000;0.1311;0.8697;
838.2000;0.1327;0.8768;
838.5000;0.1302;0.8697;
838.8000;0.1327;0.8721;
839.1000;0.1319;0.8721;
839.4000;0.1327;0.8697;
839.7000;0.1335;0.8744;
840.0000;0.1302;0.8721;
840.3000;0.1286;0.8673;
840.6000;0.1319;0.8697;
840.9000;0.1335;0.8768;
841.2000;0.1335;0.8768;
841.5000;0.1327;0.8768;
841.8000;0.1278;0.8792;
842.1000;0.1319;0.8934;
842.4000;0.1319;0.8910;
842.7000;0.1311;0.8792;
843.0000;0.1335;0.8768;
843.3000;0.1327;0.8721;
843.6000;0.1286;0.8650;
843.9000;0.1335;0.8697;
844.2000;0.1319;0.8697;
844.5000;0.1319;0.8721;
844.8000;0.1327;0.8744;
845.1000;0.1302;0.8626;
845.4000;0.1351;0.8792;
845.7000;0.1311;0.8721;
846.0000;0.1376;0.8863;
846.3000;0.1319;0.8934;
846.6000;0.1302;0.8910;
846.9000;0.1254;0.8744;
847.2000;0.1327;0.8981;
847.5000;0.1294;0.8839;
847.8000;0.1319;0.8839;
848.1000;0.1221;0.8650;
848.4000;0.1302;0.8887;
848.7000;0.1302;0.8863;
849.0000;0.1237;0.8673;
849.3000;0.1302;0.8887;
849.6000;0.1311;0.8839;
849.9000;0.1327;0.8863;
850.2000;0.1319;0.8887;
850.5000;0.1311;0.8887;
850.8000;0.1311;0.8863;
851.1000;0.1359;0.8934;
851.4000;0.1319;0.8792;
851.7000;0.1302;0.8721;
852.0000;0.1319;0.8721;
852.3000;0.1319;0.8815;
852.6000;0.1319;0.8863;
852.9000;0.1327;0.8839;
853.2000;0.1319;0.8792;
853.5000;0.1327;0.8744;
853.8000;0.1262;0.8555;
854.1000;0.1319;0.8744;
854.4000;0.1319;0.8839;
854.7000;0.1335;0.8839;
855.0000;0.1327;0.8815;
855.3000;0.1286;0.8768;
855.6000;0.1327;0.8815;
855.9000;0.1319;0.8815;
856.2000;0.1319;0.8910;
856.5000;0.1311;0.8887;
856.8000;0.1302;0.8863;
857.1000;0.1319;0.8910;
857.4000;0.1319;0.8981;
857.7000;0.1327;0.8910;
858.0000;0.1319;0.8887;
858.3000;0.1302;0.8910;
858.6000;0.1294;0.8863;
858.9000;0.1302;0.8792;
859.2000;0.1294;0.8792;
859.5000;0.1286;0.8815;
859.8000;0.1319;0.8887;
860.1000;0.1319;0.8910;
860.4000;0.1302;0.8910;
860.7000;0.1302;0.8863;
861.0000;0.1294;0.8815;
861.3000;0.1302;0.8792;
861.6000;0.1302;0.8768;
861.9000;0.1302;0.8721;
862.2000;0.1262;0.8673;
862.5000;0.1286;0.8815;
862.8000;0.1327;0.8887;
863.1000;0.1319;0.8815;
863.4000;0.1294;0.8768;
863.7000;0.1302;0.8792;
864.0000;0.1327;0.8863;
864.3000;0.1319;0.8815;
864.6000;0.1311;0.8792;
864.9000;0.1327;0.8839;
865.2000;0.1311;0.8815;
865.5000;0.1262;0.8721;
865.8000;0.1294;0.8815;
866.1000;0.1294;0.8815;
866.4000;0.1319;0.8934;
866.7000;0.1311;0.8934;
867.0000;0.1302;0.8910;
867.3000;0.1311;0.8934;
867.6000;0.1294;0.8839;
867.9000;0.1294;0.8792;
868.2000;0.1302;0.8910;
868.5000;0.1311;0.8887;
868.8000;0.1302;0.8863;
869.1000;0.1311;0.8887;
869.4000;0.1335;0.8910;
869.7000;0.1335;0.8934;
870.0000;0.1302;0.8839;
870.3000;0.1302;0.8863;
870.6000;0.1327;0.8887;
870.9000;0.1294;0.8815;
871.2000;0.1302;0.8792;
871.5000;0.1302;0.8815;
871.8000;0.1302;0.8887;
872.1000;0.1286;0.8792;
872.4000;0.1327;0.8887;
872.7000;0.1327;0.8815;
873.0000;0.1335;0.8792;
873.3000;0.1294;0.8792;
873.6000;0.1294;0.8721;
873.9000;0.1302;0.8721;
874.2000;0.1319;0.8792;
874.5000;0.1319;0.8792;
874.8000;0.1286;0.8768;
875.1000;0.1302;0.8839;
875.4000;0.1302;0.8839;
875.7000;0.1286;0.8910;
876.0000;0.1327;0.8910;
876.3000;0.1311;0.8839;
876.6000;0.1294;0.8744;
876.9000;0.1311;0.8721;
877.2000;0.1302;0.8721;
877.5000;0.1294;0.8697;
877.8000;0.1368;0.8934;
878.1000;0.1335;0.8839;
878.4000;0.1327;0.8839;
878.7000;0.1327;0.8792;
879.0000;0.1311;0.8721;
879.3000;0.1302;0.8768;
879.6000;0.1327;0.8887;
879.9000;0.1351;0.8887;
880.2000;0.1294;0.8721;
880.5000;0.1311;0.8721;
880.8000;0.1311;0.8768;
881.1000;0.1327;0.8744;
881.4000;0.1311;0.8768;
881.7000;0.1311;0.8721;
882.0000;0.1294;0.8839;
882.3000;0.1302;0.8863;
882.6000;0.1302;0.8863;
882.9000;0.1311;0.8839;
883.2000;0.1311;0.8863;
883.5000;0.1319;0.8792;
883.8000;0.1311;0.8721;
884.1000;0.1319;0.8744;
884.4000;0.1302;0.8602;
884.7000;0.1319;0.8697;
885.0000;0.1311;0.8697;
885.3000;0.1335;0.8792;
885.6000;0.1302;0.8721;
885.9000;0.1327;0.8815;
886.2000;0.1368;0.8934;
886.5000;0.1319;0.8792;
886.8000;0.1286;0.8673;
887.1000;0.1311;0.8744;
887.4000;0.1319;0.8792;
887.7000;0.1302;0.8792;
888.0000;0.1311;0.8744;
888.3000;0.1311;0.8744;
888.6000;0.1302;0.8768;
888.9000;0.1311;0.8768;
889.2000;0.1302;0.8744;
889.5000;0.1311;0.8744;
889.8000;0.1294;0.8768;
890.1000;0.1311;0.8744;
890.4000;0.1302;0.8744;
890.7000;0.1311;0.8744;
891.0000;0.1302;0.8768;
891.3000;0.1311;0.8839;
891.6000;0.1311;0.8768;
891.9000;0.1327;0.8863;
892.2000;0.1311;0.8815;
892.5000;0.1302;0.8768;
892.8000;0.1327;0.8815;
893.1000;0.1302;0.8768;
893.4000;0.1311;0.8792;
893.7000;0.1335;0.8839;
894.0000;0.1286;0.8721;
894.3000;0.1294;0.8768;
894.6000;0.1286;0.8721;
894.9000;0.1311;0.8744;
895.2000;0.1319;0.8792;
895.5000;0.1278;0.8721;
895.8000;0.1278;0.8673;
896.1000;0.1286;0.8650;
896.4000;0.1302;0.8650;
896.7000;0.1302;0.8768;
897.0000;0.1286;0.8626;
897.3000;0.1302;0.8650;
897.6000;0.1294;0.8697;
897.9000;0.1294;0.8697;
898.2000;0.1286;0.8673;
898.5000;0.1294;0.8721;
898.8000;0.1351;0.8958;
899.1000;0.1294;0.8815;
899.4000;0.1286;0.8863;
899.7000;0.1302;0.8934;
900.0000;0.1294;0.8887;
900.3000;0.1302;0.8934;
900.6000;0.1302;0.8863;
900.9000;0.1254;0.8673;
901.2000;0.1286;0.8721;
901.5000;0.1302;0.8697;
901.8000;0.1319;0.8721;
902.1000;0.1311;0.8673;
902.4000;0.1302;0.8744;
902.7000;0.1294;0.8744;
903.0000;0.1311;0.8721;
903.3000;0.1302;0.8673;
903.6000;0.1319;0.8744;
903.9000;0.1302;0.8602;
904.2000;0.1302;0.8602;
904.5000;0.1286;0.8626;
904.8000;0.1270;0.8484;
905.1000;0.1286;0.8531;
905.4000;0.1294;0.8555;
905.7000;0.1294;0.8602;
906.0000;0.1302;0.8721;
906.3000;0.1286;0.8721;
906.6000;0.1319;0.8768;
906.9000;0.1294;0.8768;
907.2000;0.1294;0.8697;
907.5000;0.1294;0.8792;
907.8000;0.1278;0.8673;
908.1000;0.1294;0.8721;
908.4000;0.1254;0.8697;
908.7000;0.1270;0.8768;
909.0000;0.1302;0.8744;
909.3000;0.1294;0.8721;
909.6000;0.1294;0.8697;
909.9000;0.1286;0.8650;
910.2000;0.1278;0.8602;
910.5000;0.1302;0.8673;
910.8000;0.1311;0.8697;
911.1000;0.1286;0.8602;
911.4000;0.1245;0.8507;
911.7000;0.1254;0.8507;
912.0000;0.1311;0.8602;
912.3000;0.1302;0.8626;
912.6000;0.1294;0.8555;
912.9000;0.1237;0.8413;
913.2000;0.1359;0.8744;
913.5000;0.1294;0.8626;
913.8000;0.1286;0.8507;
914.1000;0.1294;0.8484;
914.4000;0.1311;0.8507;
914.7000;0.1302;0.8436;
915.0000;0.1302;0.8413;
915.3000;0.1278;0.8389;
915.6000;0.1270;0.8460;
915.9000;0.1319;0.8507;
916.2000;0.1294;0.8531;
916.5000;0.1270;0.8555;
916.8000;0.1221;0.8436;
917.1000;0.1294;0.8626;
917.4000;0.1343;0.8697;
917.7000;0.1294;0.8555;
918.0000;0.1278;0.8531;
918.3000;0.1229;0.8389;
918.6000;0.1270;0.8413;
918.9000;0.1294;0.8531;
919.2000;0.1294;0.8602;
919.5000;0.1294;0.8673;
919.8000;0.1294;0.8650;
920.1000;0.1294;0.8579;
920.4000;0.1286;0.8626;
920.7000;0.1286;0.8697;
921.0000;0.1262;0.8697;
921.3000;0.1278;0.8650;
921.6000;0.1351;0.8839;
921.9000;0.1286;0.8626;
922.2000;0.1294;0.8673;
922.5000;0.1311;0.8744;
922.8000;0.1302;0.8744;
923.1000;0.1294;0.8839;
923.4000;0.1286;0.8863;
923.7000;0.1302;0.8910;
924.0000;0.1302;0.8910;
924.3000;0.1302;0.8910;
924.6000;0.1302;0.8863;
924.9000;0.1278;0.8744;
925.2000;0.1311;0.8721;
925.5000;0.1319;0.8744;
925.8000;0.1311;0.8626;
926.1000;0.1286;0.8579;
926.4000;0.1294;0.8602;
926.7000;0.1254;0.8555;
927.0000;0.1278;0.8650;
927.3000;0.1294;0.8744;
927.6000;0.1294;0.8673;
927.9000;0.1286;0.8602;
928.2000;0.1294;0.8626;
928.5000;0.1294;0.8650;
928.8000;0.1302;0.8673;
929.1000;0.1302;0.8650;
929.4000;0.1294;0.8626;
929.7000;0.1302;0.8507;
930.0000;0.1286;0.8555;
930.3000;0.1286;0.8626;
930.6000;0.1311;0.8673;
930.9000;0.1286;0.8602;
931.2000;0.1286;0.8602;
931.5000;0.1286;0.8579;
931.8000;0.1286;0.8555;
932.1000;0.1278;0.8531;
932.4000;0.1278;0.8602;
932.7000;0.1278;0.8626;
933.0000;0.1294;0.8602;
933.3000;0.1294;0.8531;
933.6000;0.1286;0.8531;
933.9000;0.1278;0.8626;
934.2000;0.1302;0.8744;
934.5000;0.1278;0.8650;
934.8000;0.1286;0.8602;
935.1000;0.1302;0.8507;
935.4000;0.1311;0.8555;
935.7000;0.1302;0.8626;
936.0000;0.1302;0.8602;
936.3000;0.1302;0.8673;
936.6000;0.1302;0.8744;
936.9000;0.1327;0.8768;
937.2000;0.1278;0.8602;
937.5000;0.1319;0.8697;
937.8000;0.1294;0.8555;
938.1000;0.1278;0.8531;
938.4000;0.1286;0.8555;
938.7000;0.1270;0.8626;
939.0000;0.1286;0.8626;
939.3000;0.1302;0.8650;
939.6000;0.1237;0.8602;
939.9000;0.1311;0.8768;
940.2000;0.1294;0.8697;
940.5000;0.1302;0.8673;
940.8000;0.1270;0.8626;
941.1000;0.1343;0.8839;
941.4000;0.1327;0.8721;
941.7000;0.1286;0.8579;
942.0000;0.1237;0.8413;
942.3000;0.1294;0.8626;
942.6000;0.1319;0.8721;
942.9000;0.1286;0.8602;
943.2000;0.1286;0.8507;
943.5000;0.1327;0.8602;
943.8000;0.1302;0.8507;
944.1000;0.1278;0.8436;
944.4000;0.1270;0.8365;
944.7000;0.1286;0.8413;
945.0000;0.1294;0.8413;
945.3000;0.1286;0.8460;
945.6000;0.1302;0.8507;
945.9000;0.1278;0.8507;
946.2000;0.1278;0.8579;
946.5000;0.1302;0.8626;
946.8000;0.1286;0.8626;
947.1000;0.1302;0.8650;
947.4000;0.1294;0.8602;
947.7000;0.1286;0.8697;
948.0000;0.1294;0.8650;
948.3000;0.1302;0.8697;
948.6000;0.1245;0.8484;
948.9000;0.1286;0.8602;
949.2000;0.1278;0.8626;
949.5000;0.1172;0.8342;
949.8000;0.1286;0.8626;
950.1000;0.1278;0.8602;
950.4000;0.1205;0.8436;
950.7000;0.1270;0.8626;
951.0000;0.1294;0.8673;
951.3000;0.1286;0.8744;
951.6000;0.1270;0.8768;
951.9000;0.1270;0.8792;
952.2000;0.1278;0.8910;
952.5000;0.1302;0.8910;
952.8000;0.1270;0.8792;
953.1000;0.1262;0.8792;
953.4000;0.1278;0.8792;
953.7000;0.1278;0.8768;
954.0000;0.1278;0.8792;
954.3000;0.1270;0.8744;
954.6000;0.1286;0.8768;
954.9000;0.1286;0.8721;
955.2000;0.1286;0.8673;
955.5000;0.1262;0.8531;
955.8000;0.1311;0.8626;
956.1000;0.1197;0.8484;
956.4000;0.1278;0.8626;
956.7000;0.1327;0.8673;
957.0000;0.1294;0.8602;
957.3000;0.1343;0.8792;
957.6000;0.1294;0.8815;
957.9000;0.1262;0.8721;
958.2000;0.1278;0.8792;
958.5000;0.1278;0.8839;
958.8000;0.1286;0.8650;
959.1000;0.1286;0.8626;
959.4000;0.1237;0.8507;
959.7000;0.1278;0.8673;
960.0000;0.1270;0.8744;
960.3000;0.1278;0.8768;
960.6000;0.1270;0.8721;
960.9000;0.1270;0.8673;
961.2000;0.1286;0.8768;
961.5000;0.1278;0.8697;
961.8000;0.1294;0.8673;
962.1000;0.1278;0.8697;
962.4000;0.1286;0.8673;
962.7000;0.1278;0.8673;
963.0000;0.1294;0.8626;
963.3000;0.1278;0.8555;
963.6000;0.1294;0.8579;
963.9000;0.1351;0.8697;
964.2000;0.1294;0.8555;
964.5000;0.1254;0.8436;
964.8000;0.1278;0.8484;
965.1000;0.1294;0.8579;
965.4000;0.1270;0.8555;
965.7000;0.1270;0.8697;
966.0000;0.1245;0.8697;
966.3000;0.1294;0.8863;
966.6000;0.1302;0.8887;
966.9000;0.1286;0.8815;
967.2000;0.1278;0.8792;
967.5000;0.1270;0.8839;
967.8000;0.1319;0.8958;
968.1000;0.1294;0.8768;
968.4000;0.1286;0.8744;
968.7000;0.1270;0.8602;
969.0000;0.1294;0.8673;
969.3000;0.1262;0.8744;
969.6000;0.1270;0.8721;
969.9000;0.1278;0.8815;
970.2000;0.1286;0.8792;
970.5000;0.1351;0.8981;
970.8000;0.1254;0.8792;
971.1000;0.1278;0.8910;
971.4000;0.1278;0.8863;
971.7000;0.1302;0.8863;
972.0000;0.1294;0.8792;
972.3000;0.1278;0.8815;
972.6000;0.1294;0.8768;
972.9000;0.1286;0.8744;
973.2000;0.1286;0.8768;
973.5000;0.1245;0.8697;
973.8000;0.1286;0.8792;
974.1000;0.1278;0.8721;
974.4000;0.1302;0.8839;
974.7000;0.1311;0.8934;
975.0000;0.1278;0.8863;
975.3000;0.1286;0.8910;
975.6000;0.1286;0.8958;
975.9000;0.1286;0.8958;
976.2000;0.1270;0.9005;
976.5000;0.1262;0.9076;
976.8000;0.1286;0.9100;
977.1000;0.1262;0.9029;
977.4000;0.1278;0.9029;
977.7000;0.1254;0.8887;
978.0000;0.1278;0.8958;
978.3000;0.1221;0.8768;
978.6000;0.1213;0.8815;
978.9000;0.1262;0.9005;
979.2000;0.1278;0.8958;
979.5000;0.1286;0.8934;
979.8000;0.1311;0.8958;
980.1000;0.1278;0.8863;
980.4000;0.1254;0.8934;
980.7000;0.1294;0.8958;
981.0000;0.1294;0.8981;
981.3000;0.1286;0.8934;
981.6000;0.1302;0.9005;
981.9000;0.1278;0.8958;
982.2000;0.1294;0.8887;
982.5000;0.1270;0.8863;
982.8000;0.1294;0.8934;
983.1000;0.1221;0.8792;
983.4000;0.1278;0.9005;
983.7000;0.1286;0.9076;
984.0000;0.1294;0.9076;
984.3000;0.1286;0.9052;
984.6000;0.1254;0.8887;
984.9000;0.1302;0.9029;
985.2000;0.1286;0.8958;
985.5000;0.1294;0.9029;
985.8000;0.1237;0.8792;
986.1000;0.1278;0.8958;
986.4000;0.1286;0.8910;
986.7000;0.1262;0.8839;
987.0000;0.1278;0.8887;
987.3000;0.1278;0.8981;
987.6000;0.1286;0.9029;
987.9000;0.1294;0.8981;
988.2000;0.1270;0.8887;
988.5000;0.1278;0.8792;
988.8000;0.1254;0.8697;
989.1000;0.1278;0.8697;
989.4000;0.1254;0.8744;
989.7000;0.1278;0.8792;
990.0000;0.1278;0.8815;
990.3000;0.1286;0.8744;
990.6000;0.1286;0.8910;
990.9000;0.1262;0.8934;
991.2000;0.1270;0.8958;
991.5000;0.1302;0.9052;
991.8000;0.1319;0.9052;
992.1000;0.1270;0.9052;
992.4000;0.1278;0.9005;
992.7000;0.1278;0.8981;
993.0000;0.1302;0.9029;
993.3000;0.1270;0.9005;
993.6000;0.1286;0.9218;
993.9000;0.1286;0.9218;
994.2000;0.1278;0.9218;
994.5000;0.1278;0.9218;
994.8000;0.1294;0.9171;
995.1000;0.1278;0.9124;
995.4000;0.1278;0.9076;
995.7000;0.1335;0.9218;
996.0000;0.1294;0.9076;
996.3000;0.1286;0.9124;
996.6000;0.1270;0.9100;
996.9000;0.1294;0.9076;
997.2000;0.1302;0.9076;
997.5000;0.1286;0.8958;
997.8000;0.1278;0.8958;
998.1000;0.1270;0.9052;
998.4000;0.1286;0.9124;
998.7000;0.1286;0.9171;
999.0000;0.1294;0.9313;
999.3000;0.1270;0.9218;
999.6000;0.1254;0.9289;
999.9000;0.1270;0.9266;
1000.2000;0.1278;0.9195;
1000.5000;0.1286;0.9171;
1000.8000;0.1294;0.9242;
1001.1000;0.1270;0.9076;
1001.4000;0.1278;0.9052;
1001.7000;0.1286;0.9076;
1002.0000;0.1270;0.8910;
1002.3000;0.1270;0.8839;
1002.6000;0.1278;0.8887;
1002.9000;0.1262;0.8839;
1003.2000;0.1270;0.8863;
1003.5000;0.1270;0.8863;
1003.8000;0.1294;0.8981;
1004.1000;0.1286;0.9052;
1004.4000;0.1286;0.9100;
1004.7000;0.1237;0.8958;
1005.0000;0.1270;0.8981;
1005.3000;0.1278;0.9029;
1005.6000;0.1278;0.9052;
1005.9000;0.1278;0.9005;
1006.2000;0.1270;0.8958;
1006.5000;0.1294;0.9029;
1006.8000;0.1278;0.9076;
1007.1000;0.1294;0.9100;
1007.4000;0.1278;0.9100;
1007.7000;0.1278;0.9076;
1008.0000;0.1286;0.9029;
1008.3000;0.1286;0.9029;
1008.6000;0.1278;0.9005;
1008.9000;0.1286;0.9124;
1009.2000;0.1278;0.9124;
1009.5000;0.1270;0.9076;
1009.8000;0.1319;0.9076;
1010.1000;0.1262;0.8910;
1010.4000;0.1278;0.8958;
1010.7000;0.1237;0.8910;
1011.0000;0.1270;0.8981;
1011.3000;0.1286;0.9005;
1011.6000;0.1254;0.8981;
1011.9000;0.1270;0.8958;
1012.2000;0.1286;0.8887;
1012.5000;0.1262;0.8768;
1012.8000;0.1262;0.8768;
1013.1000;0.1286;0.8744;
1013.4000;0.1286;0.8768;
1013.7000;0.1278;0.8792;
1014.0000;0.1270;0.8744;
1014.3000;0.1278;0.8815;
1014.6000;0.1278;0.8863;
1014.9000;0.1278;0.8910;
1015.2000;0.1270;0.8863;
1015.5000;0.1294;0.8958;
1015.8000;0.1270;0.8910;
1016.1000;0.1262;0.8863;
1016.4000;0.1294;0.8958;
1016.7000;0.1262;0.8863;
1017.0000;0.1302;0.8934;
1017.3000;0.1302;0.8887;
1017.6000;0.1278;0.8839;
1017.9000;0.1302;0.8910;
1018.2000;0.1294;0.8887;
1018.5000;0.1294;0.8839;
1018.8000;0.1270;0.8815;
1019.1000;0.1278;0.8792;
1019.4000;0.1278;0.8839;
1019.7000;0.1270;0.8839;
1020.0000;0.1302;0.8910;
1020.3000;0.1262;0.8768;
1020.6000;0.1294;0.8887;
1020.9000;0.1270;0.8934;
1021.2000;0.1270;0.8958;
1021.5000;0.1270;0.8981;
1021.8000;0.1245;0.8863;
1022.1000;0.1286;0.8887;
1022.4000;0.1286;0.8863;
1022.7000;0.1262;0.8815;
1023.0000;0.1278;0.8839;
1023.3000;0.1286;0.8839;
1023.6000;0.1294;0.8887;
1023.9000;0.1270;0.8910;
1024.2000;0.1270;0.8934;
1024.5000;0.1278;0.9029;
1024.8000;0.1351;0.9218;
1025.1000;0.1294;0.9052;
1025.4000;0.1278;0.9076;
1025.7000;0.1270;0.9076;
1026.0000;0.1286;0.9124;
1026.3000;0.1286;0.9195;
1026.6000;0.1270;0.9124;
1026.9000;0.1278;0.9100;
1027.2000;0.1270;0.9124;
1027.5000;0.1270;0.9076;
1027.8000;0.1221;0.8981;
1028.1000;0.1262;0.9100;
1028.4000;0.1270;0.9100;
1028.7000;0.1278;0.9124;
1029.0000;0.1262;0.9100;
1029.3000;0.1270;0.9100;
1029.6000;0.1278;0.9195;
1029.9000;0.1278;0.9171;
1030.2000;0.1294;0.9171;
1030.5000;0.1319;0.9242;
1030.8000;0.1294;0.9171;
1031.1000;0.1286;0.9195;
1031.4000;0.1294;0.9242;
1031.7000;0.1278;0.9266;
1032.0000;0.1270;0.9266;
1032.3000;0.1270;0.9218;
1032.6000;0.1278;0.9242;
1032.9000;0.1270;0.9195;
1033.2000;0.1262;0.9171;
1033.5000;0.1262;0.9124;
1033.8000;0.1278;0.9076;
1034.1000;0.1270;0.9029;
1034.4000;0.1286;0.9100;
1034.7000;0.1262;0.9029;
1035.0000;0.1278;0.9005;
1035.3000;0.1278;0.9029;
1035.6000;0.1278;0.9100;
1035.9000;0.1278;0.9100;
1036.2000;0.1286;0.9076;
1036.5000;0.1294;0.9052;
1036.8000;0.1278;0.9076;
1037.1000;0.1278;0.9124;
1037.4000;0.1270;0.9052;
1037.7000;0.1319;0.9052;
1038.0000;0.1270;0.8910;
1038.3000;0.1262;0.8981;
1038.6000;0.1351;0.9171;
1038.9000;0.1270;0.8981;
1039.2000;0.1270;0.8934;
1039.5000;0.1237;0.8768;
1039.8000;0.1270;0.8792;
1040.1000;0.1262;0.8839;
1040.4000;0.1262;0.8863;
1040.7000;0.1270;0.8910;
1041.0000;0.1278;0.8910;
1041.3000;0.1302;0.9005;
1041.6000;0.1270;0.8958;
1041.9000;0.1270;0.8958;
1042.2000;0.1286;0.9005;
1042.5000;0.1270;0.9100;
1042.8000;0.1302;0.9171;
1043.1000;0.1294;0.9124;
1043.4000;0.1229;0.8934;
1043.7000;0.1270;0.9029;
1044.0000;0.1286;0.8981;
1044.3000;0.1294;0.9076;
1044.6000;0.1286;0.9076;
1044.9000;0.1278;0.9124;
1045.2000;0.1286;0.9147;
1045.5000;0.1302;0.9147;
1045.8000;0.1294;0.8981;
1046.1000;0.1270;0.8934;
1046.4000;0.1245;0.8887;
1046.7000;0.1270;0.8910;
1047.0000;0.1278;0.8981;
1047.3000;0.1262;0.8910;
1047.6000;0.1278;0.8981;
1047.9000;0.1270;0.9005;
1048.2000;0.1278;0.8981;
1048.5000;0.1270;0.8887;
1048.8000;0.1270;0.8887;
1049.1000;0.1270;0.8934;
1049.4000;0.1327;0.9171;
1049.7000;0.1262;0.9029;
1050.0000;0.1270;0.8958;
1050.3000;0.1335;0.9076;
1050.6000;0.1229;0.8863;
1050.9000;0.1270;0.8839;
1051.2000;0.1270;0.8792;
1051.5000;0.1270;0.8792;
1051.8000;0.1262;0.8792;
1052.1000;0.1270;0.8792;
1052.4000;0.1270;0.8839;
1052.7000;0.1286;0.8863;
1053.0000;0.1262;0.8910;
1053.3000;0.1278;0.9052;
1053.6000;0.1270;0.9029;
1053.9000;0.1319;0.9052;
1054.2000;0.1278;0.9029;
1054.5000;0.1245;0.8910;
1054.8000;0.1270;0.8910;
1055.1000;0.1262;0.8910;
1055.4000;0.1270;0.8910;
1055.7000;0.1278;0.8934;
1056.0000;0.1237;0.8863;
1056.3000;0.1278;0.8910;
1056.6000;0.1278;0.8839;
1056.9000;0.1278;0.8910;
1057.2000;0.1270;0.9005;
1057.5000;0.1278;0.9005;
1057.8000;0.1335;0.9218;
1058.1000;0.1270;0.8981;
1058.4000;0.1221;0.8887;
1058.7000;0.1270;0.9052;
1059.0000;0.1262;0.9076;
1059.3000;0.1245;0.9029;
1059.6000;0.1270;0.9242;
1059.9000;0.1270;0.9313;
1060.2000;0.1245;0.9171;
1060.5000;0.1262;0.9195;
1060.8000;0.1270;0.9124;
1061.1000;0.1278;0.9100;
1061.4000;0.1270;0.9124;
1061.7000;0.1262;0.9147;
1062.0000;0.1254;0.9171;
1062.3000;0.1254;0.9076;
1062.6000;0.1262;0.9029;
1062.9000;0.1262;0.9029;
1063.2000;0.1278;0.8910;
1063.5000;0.1188;0.8721;
1063.8000;0.1237;0.8863;
1064.1000;0.1270;0.9005;
1064.4000;0.1270;0.9005;
1064.7000;0.1278;0.8958;
1065.0000;0.1311;0.9171;
1065.3000;0.1262;0.9005;
1065.6000;0.1254;0.9029;
1065.9000;0.1270;0.9029;
1066.2000;0.1262;0.9076;
1066.5000;0.1294;0.9029;
1066.8000;0.1270;0.8934;
1067.1000;0.1262;0.8910;
1067.4000;0.1254;0.8958;
1067.7000;0.1262;0.8887;
1068.0000;0.1262;0.8934;
1068.3000;0.1254;0.8815;
1068.6000;0.1262;0.8839;
1068.9000;0.1262;0.8887;
1069.2000;0.1278;0.8910;
1069.5000;0.1254;0.8887;
1069.8000;0.1294;0.8910;
1070.1000;0.1245;0.8744;
1070.4000;0.1245;0.8792;
1070.7000;0.1254;0.8815;
1071.0000;0.1245;0.8815;
1071.3000;0.1262;0.8934;
1071.6000;0.1286;0.8910;
1071.9000;0.1245;0.8887;
1072.2000;0.1237;0.8839;
1072.5000;0.1278;0.8768;
1072.8000;0.1270;0.8768;
1073.1000;0.1262;0.8863;
1073.4000;0.1254;0.8863;
1073.7000;0.1278;0.8910;
1074.0000;0.1278;0.8863;
1074.3000;0.1254;0.8815;
1074.6000;0.1254;0.8768;
1074.9000;0.1262;0.8673;
1075.2000;0.1335;0.8887;
1075.5000;0.1262;0.8744;
1075.8000;0.1262;0.8744;
1076.1000;0.1262;0.8721;
1076.4000;0.1270;0.8697;
1076.7000;0.1262;0.8768;
1077.0000;0.1245;0.8792;
1077.3000;0.1262;0.8768;
1077.6000;0.1254;0.8768;
1077.9000;0.1294;0.8815;
1078.2000;0.1286;0.8768;
1078.5000;0.1254;0.8721;
1078.8000;0.1311;0.8887;
1079.1000;0.1286;0.8768;
1079.4000;0.1278;0.8815;
1079.7000;0.1262;0.8839;
1080.0000;0.1237;0.8839;
1080.3000;0.1294;0.9005;
1080.6000;0.1245;0.9005;
1080.9000;0.1254;0.9052;
1081.2000;0.1254;0.9005;
1081.5000;0.1254;0.8958;
1081.8000;0.1327;0.9100;
1082.1000;0.1270;0.9029;
1082.4000;0.1311;0.9147;
1082.7000;0.1254;0.8981;
1083.0000;0.1254;0.8910;
1083.3000;0.1254;0.8934;
1083.6000;0.1254;0.8887;
1083.9000;0.1254;0.8910;
1084.2000;0.1237;0.8863;
1084.5000;0.1229;0.8863;
1084.8000;0.1254;0.8981;
1085.1000;0.1245;0.8910;
1085.4000;0.1254;0.8981;
1085.7000;0.1270;0.9052;
1086.0000;0.1270;0.8981;
1086.3000;0.1254;0.8934;
1086.6000;0.1262;0.8839;
1086.9000;0.1262;0.8815;
1087.2000;0.1262;0.8839;
1087.5000;0.1254;0.8768;
1087.8000;0.1221;0.8673;
1088.1000;0.1245;0.8839;
1088.4000;0.1262;0.8887;
1088.7000;0.1270;0.8887;
1089.0000;0.1245;0.8887;
1089.3000;0.1270;0.8958;
1089.6000;0.1262;0.8958;
1089.9000;0.1270;0.8958;
1090.2000;0.1262;0.8863;
1090.5000;0.1262;0.8887;
1090.8000;0.1270;0.8910;
1091.1000;0.1278;0.8910;
1091.4000;0.1270;0.8863;
1091.7000;0.1245;0.8934;
1092.0000;0.1319;0.9218;
1092.3000;0.1270;0.9100;
1092.6000;0.1262;0.9100;
1092.9000;0.1254;0.9076;
1093.2000;0.1254;0.9052;
1093.5000;0.1229;0.9005;
1093.8000;0.1237;0.9005;
1094.1000;0.1286;0.9029;
1094.4000;0.1237;0.8887;
1094.7000;0.1302;0.9005;
1095.0000;0.1262;0.8863;
1095.3000;0.1245;0.8863;
1095.6000;0.1237;0.8815;
1095.9000;0.1254;0.8768;
1096.2000;0.1294;0.8910;
1096.5000;0.1254;0.8815;
1096.8000;0.1197;0.8626;
1097.1000;0.1237;0.8744;
1097.4000;0.1254;0.8863;
1097.7000;0.1286;0.8887;
1098.0000;0.1262;0.8815;
1098.3000;0.1319;0.8981;
1098.6000;0.1294;0.9005;
1098.9000;0.1254;0.9052;
1099.2000;0.1237;0.9124;
1099.5000;0.1254;0.9124;
1099.8000;0.1245;0.9147;
1100.1000;0.1254;0.9195;
1100.4000;0.1286;0.9147;
1100.7000;0.1254;0.9076;
1101.0000;0.1262;0.9100;
1101.3000;0.1262;0.9029;
1101.6000;0.1254;0.8887;
1101.9000;0.1197;0.8721;
1102.2000;0.1262;0.8910;
1102.5000;0.1270;0.8958;
1102.8000;0.1262;0.9005;
1103.1000;0.1254;0.8958;
1103.4000;0.1270;0.8887;
1103.7000;0.1254;0.8839;
1104.0000;0.1262;0.8863;
1104.3000;0.1254;0.8887;
1104.6000;0.1262;0.8910;
1104.9000;0.1262;0.8768;
1105.2000;0.1254;0.8863;
1105.5000;0.1237;0.8815;
1105.8000;0.1245;0.8910;
1106.1000;0.1254;0.8910;
1106.4000;0.1254;0.8958;
1106.7000;0.1237;0.8792;
1107.0000;0.1262;0.8815;
1107.3000;0.1270;0.8910;
1107.6000;0.1254;0.8792;
1107.9000;0.1197;0.8602;
1108.2000;0.1262;0.8815;
1108.5000;0.1245;0.8839;
1108.8000;0.1245;0.8815;
1109.1000;0.1262;0.8863;
1109.4000;0.1245;0.8792;
1109.7000;0.1254;0.8768;
1110.0000;0.1302;0.8934;
1110.3000;0.1237;0.8887;
1110.6000;0.1270;0.8887;
1110.9000;0.1286;0.8815;
1111.2000;0.1254;0.8697;
1111.5000;0.1254;0.8697;
1111.8000;0.1294;0.8792;
1112.1000;0.1237;0.8721;
1112.4000;0.1254;0.8815;
1112.7000;0.1262;0.8863;
1113.0000;0.1229;0.8744;
1113.3000;0.1229;0.8744;
1113.6000;0.1294;0.8839;
1113.9000;0.1245;0.8744;
1114.2000;0.1278;0.8768;
1114.5000;0.1254;0.8650;
1114.8000;0.1262;0.8697;
1115.1000;0.1237;0.8673;
1115.4000;0.1254;0.8721;
1115.7000;0.1262;0.8697;
1116.0000;0.1245;0.8721;
1116.3000;0.1270;0.8792;
1116.6000;0.1254;0.8792;
1116.9000;0.1262;0.8792;
1117.2000;0.1180;0.8602;
1117.5000;0.1254;0.8887;
1117.8000;0.1254;0.8910;
1118.1000;0.1262;0.8887;
1118.4000;0.1245;0.8934;
1118.7000;0.1262;0.8934;
1119.0000;0.1262;0.8910;
1119.3000;0.1270;0.8934;
1119.6000;0.1262;0.8887;
1119.9000;0.1254;0.8910;
1120.2000;0.1262;0.8863;
1120.5000;0.1245;0.8792;
1120.8000;0.1278;0.8863;
1121.1000;0.1254;0.8815;
1121.4000;0.1254;0.8815;
1121.7000;0.1254;0.8863;
1122.0000;0.1270;0.8910;
1122.3000;0.1254;0.8815;
1122.6000;0.1245;0.8863;
1122.9000;0.1262;0.8887;
1123.2000;0.1245;0.8792;
1123.5000;0.1254;0.8673;
1123.8000;0.1245;0.8650;
1124.1000;0.1262;0.8602;
1124.4000;0.1278;0.8673;
1124.7000;0.1278;0.8697;
1125.0000;0.1262;0.8744;
1125.3000;0.1262;0.8721;
1125.6000;0.1262;0.8744;
1125.9000;0.1270;0.8863;
1126.2000;0.1262;0.8863;
1126.5000;0.1245;0.8792;
1126.8000;0.1245;0.8768;
1127.1000;0.1245;0.8768;
1127.4000;0.1294;0.8958;
1127.7000;0.1254;0.8839;
1128.0000;0.1229;0.8744;
1128.3000;0.1254;0.8650;
1128.6000;0.1270;0.8650;
1128.9000;0.1286;0.8721;
1129.2000;0.1245;0.8650;
1129.5000;0.1254;0.8697;
1129.8000;0.1262;0.8792;
1130.1000;0.1254;0.8744;
1130.4000;0.1254;0.8744;
1130.7000;0.1262;0.8744;
1131.0000;0.1254;0.8697;
1131.3000;0.1245;0.8697;
1131.6000;0.1270;0.8650;
1131.9000;0.1172;0.8342;
1132.2000;0.1270;0.8602;
1132.5000;0.1245;0.8650;
1132.8000;0.1262;0.8744;
1133.1000;0.1254;0.8744;
1133.4000;0.1254;0.8721;
1133.7000;0.1254;0.8744;
1134.0000;0.1262;0.8744;
1134.3000;0.1245;0.8815;
1134.6000;0.1254;0.8839;
1134.9000;0.1254;0.8839;
1135.2000;0.1270;0.8887;
1135.5000;0.1262;0.8934;
1135.8000;0.1270;0.8863;
1136.1000;0.1262;0.8863;
1136.4000;0.1262;0.8815;
1136.7000;0.1262;0.8863;
1137.0000;0.1254;0.8863;
1137.3000;0.1286;0.8839;
1137.6000;0.1262;0.8721;
1137.9000;0.1254;0.8768;
1138.2000;0.1254;0.8744;
1138.5000;0.1278;0.8839;
1138.8000;0.1237;0.8744;
1139.1000;0.1237;0.8744;
1139.4000;0.1245;0.8721;
1139.7000;0.1278;0.8721;
1140.0000;0.1254;0.8650;
1140.3000;0.1245;0.8673;
1140.6000;0.1245;0.8650;
1140.9000;0.1245;0.8650;
1141.2000;0.1245;0.8602;
1141.5000;0.1294;0.8768;
1141.8000;0.1262;0.8815;
1142.1000;0.1278;0.8910;
1142.4000;0.1262;0.8815;
1142.7000;0.1221;0.8721;
1143.0000;0.1237;0.8815;
1143.3000;0.1237;0.8815;
1143.6000;0.1237;0.8815;
1143.9000;0.1245;0.8863;
1144.2000;0.1245;0.8863;
1144.5000;0.1254;0.8934;
1144.8000;0.1254;0.8934;
1145.1000;0.1311;0.9124;
1145.4000;0.1254;0.8981;
1145.7000;0.1278;0.8981;
1146.0000;0.1286;0.9029;
1146.3000;0.1237;0.8910;
1146.6000;0.1254;0.8981;
1146.9000;0.1254;0.9005;
1147.2000;0.1254;0.8910;
1147.5000;0.1254;0.8981;
1147.8000;0.1254;0.8958;
1148.1000;0.1254;0.9029;
1148.4000;0.1254;0.9005;
1148.7000;0.1294;0.9076;
1149.0000;0.1254;0.8910;
1149.3000;0.1254;0.8910;
1149.6000;0.1254;0.8934;
1149.9000;0.1221;0.8887;
1150.2000;0.1237;0.8958;
1150.5000;0.1262;0.8958;
1150.8000;0.1262;0.9147;
1151.1000;0.1286;0.9124;
1151.4000;0.1254;0.9052;
1151.7000;0.1262;0.9029;
1152.0000;0.1270;0.8958;
1152.3000;0.1254;0.9005;
1152.6000;0.1270;0.9052;
1152.9000;0.1311;0.9124;
1153.2000;0.1229;0.8839;
1153.5000;0.1245;0.8792;
1153.8000;0.1254;0.8839;
1154.1000;0.1245;0.8887;
1154.4000;0.1237;0.8958;
1154.7000;0.1229;0.8934;
1155.0000;0.1237;0.8958;
1155.3000;0.1245;0.8887;
1155.6000;0.1254;0.8887;
1155.9000;0.1205;0.8792;
1156.2000;0.1254;0.8981;
1156.5000;0.1188;0.8815;
1156.8000;0.1237;0.8934;
1157.1000;0.1262;0.8981;
1157.4000;0.1237;0.8910;
1157.7000;0.1254;0.8887;
1158.0000;0.1245;0.8839;
1158.3000;0.1254;0.8815;
1158.6000;0.1245;0.8863;
1158.9000;0.1229;0.8792;
1159.2000;0.1254;0.8815;
1159.5000;0.1245;0.8792;
1159.8000;0.1237;0.8863;
1160.1000;0.1245;0.8887;
1160.4000;0.1237;0.8839;
1160.7000;0.1229;0.8839;
1161.0000;0.1245;0.8887;
1161.3000;0.1245;0.8934;
1161.6000;0.1254;0.8958;
1161.9000;0.1245;0.8934;
1162.2000;0.1245;0.8910;
1162.5000;0.1262;0.8934;
1162.8000;0.1245;0.8887;
1163.1000;0.1254;0.8910;
1163.4000;0.1278;0.8863;
1163.7000;0.1262;0.8815;
1164.0000;0.1262;0.8887;
1164.3000;0.1254;0.8910;
1164.6000;0.1262;0.8934;
1164.9000;0.1254;0.8839;
1165.2000;0.1278;0.8863;
1165.5000;0.1262;0.8768;
1165.8000;0.1245;0.8744;
1166.1000;0.1245;0.8721;
1166.4000;0.1237;0.8744;
1166.7000;0.1172;0.8626;
1167.0000;0.1237;0.8815;
1167.3000;0.1270;0.8958;
1167.6000;0.1262;0.8934;
1167.9000;0.1245;0.8863;
1168.2000;0.1180;0.8744;
1168.5000;0.1237;0.8910;
1168.8000;0.1294;0.9029;
1169.1000;0.1229;0.8958;
1169.4000;0.1262;0.9005;
1169.7000;0.1254;0.8981;
1170.0000;0.1254;0.9052;
1170.3000;0.1254;0.9029;
1170.6000;0.1245;0.9076;
1170.9000;0.1262;0.9076;
1171.2000;0.1254;0.9052;
1171.5000;0.1254;0.8958;
1171.8000;0.1254;0.8981;
1172.1000;0.1245;0.8910;
1172.4000;0.1245;0.8981;
1172.7000;0.1245;0.8981;
1173.0000;0.1294;0.9171;
1173.3000;0.1188;0.8839;
1173.6000;0.1254;0.8958;
1173.9000;0.1229;0.8839;
1174.2000;0.1254;0.8958;
1174.5000;0.1245;0.8934;
1174.8000;0.1237;0.8863;
1175.1000;0.1245;0.8839;
1175.4000;0.1270;0.8910;
1175.7000;0.1254;0.8934;
1176.0000;0.1327;0.9147;
1176.3000;0.1245;0.8958;
1176.6000;0.1245;0.8981;
1176.9000;0.1262;0.8934;
1177.2000;0.1245;0.8981;
1177.5000;0.1213;0.8934;
1177.8000;0.1245;0.8934;
1178.1000;0.1254;0.8887;
1178.4000;0.1245;0.8910;
1178.7000;0.1237;0.8910;
1179.0000;0.1237;0.8910;
1179.3000;0.1254;0.8910;
1179.6000;0.1254;0.8934;
1179.9000;0.1245;0.9005;
1180.2000;0.1229;0.9029;
1180.5000;0.1270;0.9052;
1180.8000;0.1270;0.9076;
1181.1000;0.1237;0.9029;
1181.4000;0.1262;0.9052;
1181.7000;0.1278;0.9147;
1182.0000;0.1172;0.8863;
1182.3000;0.1229;0.9100;
1182.6000;0.1197;0.9005;
1182.9000;0.1213;0.9076;
1183.2000;0.1237;0.9171;
1183.5000;0.1221;0.9171;
1183.8000;0.1164;0.8981;
1184.1000;0.1245;0.9171;
1184.4000;0.1237;0.9147;
1184.7000;0.1262;0.9171;
1185.0000;0.1254;0.9147;
1185.3000;0.1254;0.9124;
1185.6000;0.1270;0.9124;
1185.9000;0.1245;0.9076;
1186.2000;0.1237;0.9029;
1186.5000;0.1254;0.9052;
1186.8000;0.1237;0.8981;
1187.1000;0.1229;0.8910;
1187.4000;0.1221;0.8934;
1187.7000;0.1245;0.8910;
1188.0000;0.1245;0.8887;
1188.3000;0.1237;0.8887;
1188.6000;0.1245;0.8934;
1188.9000;0.1229;0.8792;
1189.2000;0.1245;0.8887;
1189.5000;0.1254;0.8958;
1189.8000;0.1229;0.8887;
1190.1000;0.1229;0.8792;
1190.4000;0.1245;0.8815;
1190.7000;0.1237;0.8887;
1191.0000;0.1245;0.8958;
1191.3000;0.1237;0.8958;
1191.6000;0.1254;0.8910;
1191.9000;0.1245;0.8910;
1192.2000;0.1278;0.8981;
1192.5000;0.1254;0.8910;
1192.8000;0.1262;0.8887;
1193.1000;0.1294;0.8981;
1193.4000;0.1278;0.8981;
1193.7000;0.1237;0.8981;
1194.0000;0.1237;0.8910;
1194.3000;0.1245;0.8887;
1194.6000;0.1254;0.8958;
1194.9000;0.1237;0.8958;
1195.2000;0.1237;0.8934;
1195.5000;0.1237;0.8958;
1195.8000;0.1245;0.8958;
1196.1000;0.1245;0.8887;
1196.4000;0.1254;0.8815;
1196.7000;0.1245;0.8815;
1197.0000;0.1278;0.8887;
1197.3000;0.1254;0.8863;
1197.6000;0.1254;0.8863;
1197.9000;0.1286;0.9005;
1198.2000;0.1270;0.9052;
1198.5000;0.1254;0.9029;
1198.8000;0.1245;0.9052;
1199.1000;0.1229;0.9124;
1199.4000;0.1254;0.9171;
1199.7000;0.1237;0.9029;
1200.0000;0.1254;0.9005;
1200.3000;0.1262;0.8958;
1200.6000;0.1270;0.8981;
1200.9000;0.1270;0.8981;
1201.2000;0.1319;0.9076;
1201.5000;0.1229;0.8958;
1201.8000;0.1221;0.8934;
1202.1000;0.1245;0.8958;
1202.4000;0.1237;0.9029;
1202.7000;0.1245;0.8910;
1203.0000;0.1237;0.8910;
1203.3000;0.1221;0.8863;
1203.6000;0.1245;0.8839;
1203.9000;0.1245;0.8863;
1204.2000;0.1229;0.8792;
1204.5000;0.1262;0.8839;
1204.8000;0.1254;0.8744;
1205.1000;0.1245;0.8697;
1205.4000;0.1237;0.8721;
1205.7000;0.1245;0.8697;
1206.0000;0.1213;0.8650;
1206.3000;0.1270;0.8815;
1206.6000;0.1172;0.8531;
1206.9000;0.1172;0.8602;
1207.2000;0.1245;0.8792;
1207.5000;0.1237;0.8815;
1207.8000;0.1245;0.8839;
1208.1000;0.1229;0.8863;
1208.4000;0.1245;0.8910;
1208.7000;0.1245;0.8887;
1209.0000;0.1254;0.8887;
1209.3000;0.1229;0.8839;
1209.6000;0.1229;0.8863;
1209.9000;0.1229;0.8910;
1210.2000;0.1254;0.8981;
1210.5000;0.1237;0.8934;
1210.8000;0.1270;0.8863;
1211.1000;0.1229;0.8815;
1211.4000;0.1254;0.8887;
1211.7000;0.1245;0.8887;
1212.0000;0.1229;0.8934;
1212.3000;0.1237;0.9029;
1212.6000;0.1254;0.8934;
1212.9000;0.1254;0.8839;
1213.2000;0.1237;0.8721;
1213.5000;0.1262;0.8792;
1213.8000;0.1213;0.8768;
1214.1000;0.1237;0.8839;
1214.4000;0.1262;0.8887;
1214.7000;0.1294;0.9005;
1215.0000;0.1237;0.8863;
1215.3000;0.1245;0.8910;
1215.6000;0.1254;0.8839;
1215.9000;0.1254;0.8839;
1216.2000;0.1245;0.8815;
1216.5000;0.1237;0.8839;
1216.8000;0.1254;0.8815;
1217.1000;0.1237;0.8768;
1217.4000;0.1237;0.8839;
1217.7000;0.1229;0.8839;
1218.0000;0.1245;0.8887;
1218.3000;0.1229;0.8863;
1218.6000;0.1245;0.8958;
1218.9000;0.1237;0.8934;
1219.2000;0.1245;0.8958;
1219.5000;0.1262;0.9100;
1219.8000;0.1245;0.9076;
1220.1000;0.1237;0.8981;
1220.4000;0.1237;0.8958;
1220.7000;0.1262;0.8958;
1221.0000;0.1221;0.8981;
1221.3000;0.1270;0.8958;
1221.6000;0.1229;0.8887;
1221.9000;0.1245;0.8887;
1222.2000;0.1278;0.8981;
1222.5000;0.1221;0.8934;
1222.8000;0.1254;0.8958;
1223.1000;0.1245;0.8981;
1223.4000;0.1254;0.8981;
1223.7000;0.1262;0.8910;
1224.0000;0.1262;0.8887;
1224.3000;0.1245;0.8815;
1224.6000;0.1262;0.8934;
1224.9000;0.1245;0.8910;
1225.2000;0.1245;0.8839;
1225.5000;0.1237;0.8839;
1225.8000;0.1237;0.8934;
1226.1000;0.1245;0.8934;
1226.4000;0.1245;0.8910;
1226.7000;0.1254;0.8887;
1227.0000;0.1245;0.8887;
1227.3000;0.1245;0.8981;
1227.6000;0.1237;0.8910;
1227.9000;0.1245;0.8792;
1228.2000;0.1254;0.8792;
1228.5000;0.1237;0.8815;
1228.8000;0.1270;0.8887;
1229.1000;0.1245;0.8768;
1229.4000;0.1262;0.8768;
1229.7000;0.1262;0.8768;
1230.0000;0.1254;0.8839;
1230.3000;0.1229;0.8815;
1230.6000;0.1245;0.8744;
1230.9000;0.1254;0.8839;
1231.2000;0.1245;0.8768;
1231.5000;0.1254;0.8721;
1231.8000;0.1245;0.8792;
1232.1000;0.1229;0.8792;
1232.4000;0.1254;0.8863;
1232.7000;0.1262;0.8887;
1233.0000;0.1229;0.8792;
1233.3000;0.1237;0.8768;
1233.6000;0.1245;0.8815;
1233.9000;0.1245;0.8744;
1234.2000;0.1245;0.8673;
1234.5000;0.1229;0.8673;
1234.8000;0.1237;0.8721;
1235.1000;0.1262;0.8839;
1235.4000;0.1254;0.8863;
1235.7000;0.1254;0.8863;
1236.0000;0.1245;0.8981;
1236.3000;0.1237;0.8981;
1236.6000;0.1237;0.8981;
1236.9000;0.1245;0.9029;
1237.2000;0.1245;0.9076;
1237.5000;0.1270;0.9052;
1237.8000;0.1237;0.8887;
1238.1000;0.1221;0.8744;
1238.4000;0.1213;0.8744;
1238.7000;0.1270;0.8839;
1239.0000;0.1221;0.8792;
1239.3000;0.1229;0.8887;
1239.6000;0.1254;0.9005;
1239.9000;0.1213;0.8863;
1240.2000;0.1221;0.8792;
1240.5000;0.1229;0.8792;
1240.8000;0.1229;0.8768;
1241.1000;0.1237;0.8721;
1241.4000;0.1213;0.8792;
1241.7000;0.1245;0.8887;
1242.0000;0.1229;0.8815;
1242.3000;0.1221;0.8863;
1242.6000;0.1237;0.8887;
1242.9000;0.1270;0.9005;
1243.2000;0.1221;0.8887;
1243.5000;0.1188;0.8721;
1243.8000;0.1237;0.8839;
1244.1000;0.1286;0.8981;
1244.4000;0.1180;0.8744;
1244.7000;0.1237;0.8863;
1245.0000;0.1180;0.8744;
1245.3000;0.1237;0.8887;
1245.6000;0.1221;0.8887;
1245.9000;0.1221;0.8887;
1246.2000;0.1229;0.8934;
1246.5000;0.1237;0.8910;
1246.8000;0.1270;0.8981;
1247.1000;0.1270;0.8981;
1247.4000;0.1229;0.8887;
1247.7000;0.1237;0.8910;
1248.0000;0.1245;0.8981;
1248.3000;0.1237;0.8934;
1248.6000;0.1229;0.8910;
1248.9000;0.1237;0.8981;
1249.2000;0.1245;0.9029;
1249.5000;0.1237;0.9124;
1249.8000;0.1221;0.9005;
1250.1000;0.1229;0.8981;
1250.4000;0.1237;0.8958;
1250.7000;0.1229;0.8887;
1251.0000;0.1221;0.8792;
1251.3000;0.1229;0.8934;
1251.6000;0.1237;0.8958;
1251.9000;0.1237;0.8981;
1252.2000;0.1245;0.8934;
1252.5000;0.1262;0.8958;
1252.8000;0.1221;0.8887;
1253.1000;0.1237;0.8934;
1253.4000;0.1229;0.8934;
1253.7000;0.1254;0.8934;
1254.0000;0.1229;0.8887;
1254.3000;0.1221;0.8887;
1254.6000;0.1221;0.8958;
1254.9000;0.1221;0.8981;
1255.2000;0.1213;0.8958;
1255.5000;0.1237;0.8981;
1255.8000;0.1237;0.8981;
1256.1000;0.1237;0.8910;
1256.4000;0.1221;0.8815;
1256.7000;0.1262;0.8910;
1257.0000;0.1254;0.8887;
1257.3000;0.1205;0.8839;
1257.6000;0.1221;0.8958;
1257.9000;0.1245;0.9029;
1258.2000;0.1245;0.9052;
1258.5000;0.1262;0.9029;
1258.8000;0.1237;0.8910;
1259.1000;0.1245;0.8934;
1259.4000;0.1229;0.8934;
1259.7000;0.1245;0.8910;
1260.0000;0.1229;0.8910;
1260.3000;0.1229;0.8958;
1260.6000;0.1229;0.8981;
1260.9000;0.1237;0.9029;
1261.2000;0.1213;0.9052;
1261.5000;0.1229;0.9100;
1261.8000;0.1245;0.9100;
1262.1000;0.1229;0.9052;
1262.4000;0.1229;0.9005;
1262.7000;0.1245;0.9124;
1263.0000;0.1237;0.9005;
1263.3000;0.1229;0.8981;
1263.6000;0.1229;0.9052;
1263.9000;0.1245;0.9029;
1264.2000;0.1237;0.9029;
1264.5000;0.1229;0.9005;
1264.8000;0.1221;0.8934;
1265.1000;0.1221;0.9005;
1265.4000;0.1245;0.9076;
1265.7000;0.1270;0.9100;
1266.0000;0.1245;0.9052;
1266.3000;0.1229;0.8981;
1266.6000;0.1245;0.8958;
1266.9000;0.1229;0.8934;
1267.2000;0.1221;0.8958;
1267.5000;0.1237;0.8981;
1267.8000;0.1229;0.8958;
1268.1000;0.1221;0.8958;
1268.4000;0.1237;0.9029;
1268.7000;0.1221;0.8981;
1269.0000;0.1245;0.9029;
1269.3000;0.1229;0.9029;
1269.6000;0.1237;0.9052;
1269.9000;0.1237;0.9029;
1270.2000;0.1237;0.8958;
1270.5000;0.1205;0.8863;
1270.8000;0.1229;0.8910;
1271.1000;0.1229;0.8887;
1271.4000;0.1229;0.8981;
1271.7000;0.1229;0.8910;
1272.0000;0.1237;0.8792;
1272.3000;0.1245;0.8839;
1272.6000;0.1237;0.8839;
1272.9000;0.1245;0.8839;
1273.2000;0.1245;0.8910;
1273.5000;0.1237;0.8934;
1273.8000;0.1262;0.9052;
1274.1000;0.1237;0.9029;
1274.4000;0.1229;0.8863;
1274.7000;0.1237;0.8815;
1275.0000;0.1245;0.8815;
1275.3000;0.1245;0.8744;
1275.6000;0.1262;0.8792;
1275.9000;0.1270;0.8768;
1276.2000;0.1245;0.8744;
1276.5000;0.1245;0.8721;
1276.8000;0.1245;0.8721;
1277.1000;0.1237;0.8697;
1277.4000;0.1245;0.8792;
1277.7000;0.1262;0.8887;
1278.0000;0.1245;0.8958;
1278.3000;0.1237;0.9005;
1278.6000;0.1237;0.9005;
1278.9000;0.1237;0.9076;
1279.2000;0.1180;0.8863;
1279.5000;0.1286;0.9076;
1279.8000;0.1237;0.9052;
1280.1000;0.1254;0.9029;
1280.4000;0.1245;0.9029;
1280.7000;0.1254;0.9100;
1281.0000;0.1245;0.8910;
1281.3000;0.1205;0.8744;
1281.6000;0.1229;0.8792;
1281.9000;0.1237;0.8744;
1282.2000;0.1237;0.8673;
1282.5000;0.1245;0.8721;
1282.8000;0.1221;0.8650;
1283.1000;0.1229;0.8697;
1283.4000;0.1172;0.8555;
1283.7000;0.1262;0.8815;
1284.0000;0.1221;0.8721;
1284.3000;0.1245;0.8697;
1284.6000;0.1302;0.8839;
1284.9000;0.1221;0.8673;
1285.2000;0.1229;0.8744;
1285.5000;0.1221;0.8744;
1285.8000;0.1262;0.8768;
1286.1000;0.1237;0.8792;
1286.4000;0.1229;0.8697;
1286.7000;0.1278;0.8792;
1287.0000;0.1229;0.8697;
1287.3000;0.1229;0.8602;
1287.6000;0.1213;0.8507;
1287.9000;0.1254;0.8673;
1288.2000;0.1229;0.8721;
1288.5000;0.1254;0.8768;
1288.8000;0.1221;0.8721;
1289.1000;0.1229;0.8792;
1289.4000;0.1254;0.8815;
1289.7000;0.1245;0.8815;
1290.0000;0.1245;0.8863;
1290.3000;0.1229;0.8815;
1290.6000;0.1229;0.8744;
1290.9000;0.1229;0.8697;
1291.2000;0.1237;0.8768;
1291.5000;0.1237;0.8721;
1291.8000;0.1237;0.8673;
1292.1000;0.1205;0.8626;
1292.4000;0.1270;0.8887;
1292.7000;0.1213;0.8792;
1293.0000;0.1237;0.8839;
1293.3000;0.1197;0.8626;
1293.6000;0.1229;0.8697;
1293.9000;0.1237;0.8815;
1294.2000;0.1221;0.8673;
1294.5000;0.1254;0.8792;
1294.8000;0.1262;0.8721;
1295.1000;0.1229;0.8626;
1295.4000;0.1229;0.8650;
1295.7000;0.1237;0.8744;
1296.0000;0.1237;0.8721;
1296.3000;0.1245;0.8673;
1296.6000;0.1221;0.8602;
1296.9000;0.1237;0.8673;
1297.2000;0.1254;0.8650;
1297.5000;0.1254;0.8721;
1297.8000;0.1221;0.8721;
1298.1000;0.1237;0.8744;
1298.4000;0.1278;0.8815;
1298.7000;0.1229;0.8744;
1299.0000;0.1286;0.8958;
1299.3000;0.1229;0.8792;
1299.6000;0.1229;0.8839;
1299.9000;0.1237;0.8934;
1300.2000;0.1221;0.8910;
1300.5000;0.1221;0.8910;
1300.8000;0.1172;0.8721;
1301.1000;0.1237;0.8839;
1301.4000;0.1221;0.8815;
1301.7000;0.1221;0.8815;
1302.0000;0.1311;0.8981;
1302.3000;0.1245;0.8815;
1302.6000;0.1229;0.8792;
1302.9000;0.1245;0.8863;
1303.2000;0.1229;0.8792;
1303.5000;0.1245;0.8839;
1303.8000;0.1213;0.8768;
1304.1000;0.1229;0.8815;
1304.4000;0.1188;0.8815;
1304.7000;0.1229;0.9029;
1305.0000;0.1221;0.9029;
1305.3000;0.1229;0.9005;
1305.6000;0.1221;0.9029;
1305.9000;0.1221;0.9052;
1306.2000;0.1213;0.8958;
1306.5000;0.1237;0.9029;
1306.8000;0.1270;0.9076;
1307.1000;0.1229;0.9005;
1307.4000;0.1286;0.9147;
1307.7000;0.1237;0.9052;
1308.0000;0.1262;0.9005;
1308.3000;0.1245;0.9005;
1308.6000;0.1237;0.8981;
1308.9000;0.1237;0.9005;
1309.2000;0.1245;0.8958;
1309.5000;0.1237;0.8934;
1309.8000;0.1229;0.8981;
1310.1000;0.1229;0.8863;
1310.4000;0.1229;0.8839;
1310.7000;0.1237;0.8863;
1311.0000;0.1221;0.8839;
1311.3000;0.1229;0.8839;
1311.6000;0.1188;0.8839;
1311.9000;0.1229;0.8887;
1312.2000;0.1229;0.8839;
1312.5000;0.1237;0.8958;
1312.8000;0.1254;0.9052;
1313.1000;0.1254;0.9124;
1313.4000;0.1262;0.9100;
1313.7000;0.1278;0.9147;
1314.0000;0.1262;0.9100;
1314.3000;0.1237;0.9100;
1314.6000;0.1245;0.9147;
1314.9000;0.1254;0.9147;
1315.2000;0.1221;0.9005;
1315.5000;0.1229;0.9052;
1315.8000;0.1213;0.9100;
1316.1000;0.1254;0.9147;
1316.4000;0.1221;0.9100;
1316.7000;0.1148;0.8934;
1317.0000;0.1245;0.9147;
1317.3000;0.1221;0.9029;
1317.6000;0.1229;0.9029;
1317.9000;0.1335;0.9289;
1318.2000;0.1245;0.9076;
1318.5000;0.1221;0.9076;
1318.8000;0.1237;0.9029;
1319.1000;0.1237;0.9005;
1319.4000;0.1221;0.8910;
1319.7000;0.1205;0.8910;
1320.0000;0.1286;0.9052;
1320.3000;0.1245;0.8981;
1320.6000;0.1237;0.8910;
1320.9000;0.1237;0.9029;
1321.2000;0.1245;0.9005;
1321.5000;0.1237;0.8934;
1321.8000;0.1254;0.8958;
1322.1000;0.1245;0.8981;
1322.4000;0.1237;0.8958;
1322.7000;0.1237;0.8958;
1323.0000;0.1245;0.9052;
1323.3000;0.1237;0.9052;
1323.6000;0.1237;0.9029;
1323.9000;0.1237;0.8958;
1324.2000;0.1319;0.9100;
1324.5000;0.1237;0.8934;
1324.8000;0.1205;0.8815;
1325.1000;0.1237;0.9005;
1325.4000;0.1245;0.8981;
1325.7000;0.1197;0.8815;
1326.0000;0.1302;0.9147;
1326.3000;0.1221;0.8958;
1326.6000;0.1213;0.8910;
1326.9000;0.1221;0.8815;
1327.2000;0.1221;0.8815;
1327.5000;0.1245;0.8887;
1327.8000;0.1237;0.8910;
1328.1000;0.1237;0.8958;
1328.4000;0.1221;0.8934;
1328.7000;0.1221;0.8910;
1329.0000;0.1229;0.8910;
1329.3000;0.1245;0.8863;
1329.6000;0.1213;0.8839;
1329.9000;0.1213;0.8910;
1330.2000;0.1229;0.8934;
1330.5000;0.1229;0.8981;
1330.8000;0.1229;0.8958;
1331.1000;0.1245;0.8910;
1331.4000;0.1237;0.8934;
1331.7000;0.1221;0.8839;
1332.0000;0.1237;0.8792;
1332.3000;0.1213;0.8721;
1332.6000;0.1221;0.8792;
1332.9000;0.1237;0.8863;
1333.2000;0.1229;0.8910;
1333.5000;0.1245;0.8981;
1333.8000;0.1229;0.9052;
1334.1000;0.1221;0.9052;
1334.4000;0.1197;0.9029;
1334.7000;0.1319;0.9313;
1335.0000;0.1213;0.9005;
1335.3000;0.1131;0.8839;
1335.6000;0.1221;0.9029;
1335.9000;0.1221;0.9005;
1336.2000;0.1237;0.8910;
1336.5000;0.1229;0.8934;
1336.8000;0.1213;0.8863;
1337.1000;0.1221;0.9029;
1337.4000;0.1221;0.9076;
1337.7000;0.1245;0.9005;
1338.0000;0.1229;0.8981;
1338.3000;0.1245;0.8981;
1338.6000;0.1221;0.9005;
1338.9000;0.1213;0.9029;
1339.2000;0.1131;0.8768;
1339.5000;0.1205;0.9076;
1339.8000;0.1205;0.9147;
1340.1000;0.1254;0.9242;
1340.4000;0.1229;0.9195;
1340.7000;0.1229;0.9124;
1341.0000;0.1237;0.9171;
1341.3000;0.1245;0.9076;
1341.6000;0.1254;0.9005;
1341.9000;0.1213;0.8934;
1342.2000;0.1254;0.9029;
1342.5000;0.1254;0.9076;
1342.8000;0.1237;0.9100;
1343.1000;0.1229;0.9147;
1343.4000;0.1237;0.9124;
1343.7000;0.1270;0.9242;
1344.0000;0.1237;0.9124;
1344.3000;0.1221;0.9052;
1344.6000;0.1237;0.9076;
1344.9000;0.1237;0.9147;
1345.2000;0.1245;0.9147;
1345.5000;0.1245;0.9171;
1345.8000;0.1229;0.9076;
1346.1000;0.1229;0.9100;
1346.4000;0.1270;0.9124;
1346.7000;0.1237;0.9100;
1347.0000;0.1229;0.9100;
1347.3000;0.1221;0.9100;
1347.6000;0.1213;0.9052;
1347.9000;0.1221;0.9124;
1348.2000;0.1237;0.9147;
1348.5000;0.1229;0.9076;
1348.8000;0.1221;0.9100;
1349.1000;0.1237;0.9195;
1349.4000;0.1278;0.9289;
1349.7000;0.1221;0.9147;
1350.0000;0.1221;0.9124;
1350.3000;0.1229;0.9171;
1350.6000;0.1229;0.9147;
1350.9000;0.1221;0.9124;
1351.2000;0.1221;0.9100;
1351.5000;0.1188;0.9029;
1351.8000;0.1221;0.9147;
1352.1000;0.1237;0.9195;
1352.4000;0.1221;0.9242;
1352.7000;0.1229;0.9289;
1353.0000;0.1237;0.9408;
1353.3000;0.1254;0.9479;
1353.6000;0.1221;0.9337;
1353.9000;0.1245;0.9313;
1354.2000;0.1245;0.9337;
1354.5000;0.1229;0.9242;
1354.8000;0.1237;0.9195;
1355.1000;0.1229;0.9171;
1355.4000;0.1221;0.9171;
1355.7000;0.1254;0.9171;
1356.0000;0.1221;0.9100;
1356.3000;0.1205;0.9076;
1356.6000;0.1237;0.9124;
1356.9000;0.1245;0.9171;
1357.2000;0.1237;0.9218;
1357.5000;0.1229;0.9100;
1357.8000;0.1221;0.9052;
1358.1000;0.1213;0.9052;
1358.4000;0.1213;0.9171;
1358.7000;0.1229;0.9147;
1359.0000;0.1205;0.9147;
1359.3000;0.1213;0.9147;
1359.6000;0.1229;0.9124;
1359.9000;0.1237;0.9147;
1360.2000;0.1237;0.9124;
1360.5000;0.1237;0.9052;
1360.8000;0.1221;0.9005;
1361.1000;0.1205;0.8981;
1361.4000;0.1221;0.8981;
1361.7000;0.1245;0.9100;
1362.0000;0.1245;0.9100;
1362.3000;0.1245;0.9124;
1362.6000;0.1229;0.9124;
1362.9000;0.1213;0.8958;
1363.2000;0.1221;0.9029;
1363.5000;0.1229;0.9005;
1363.8000;0.1221;0.9029;
1364.1000;0.1229;0.8958;
1364.4000;0.1221;0.8863;
1364.7000;0.1229;0.8887;
1365.0000;0.1221;0.8958;
1365.3000;0.1213;0.8863;
1365.6000;0.1237;0.8934;
1365.9000;0.1229;0.8887;
1366.2000;0.1254;0.8934;
1366.5000;0.1221;0.8887;
1366.8000;0.1205;0.8887;
1367.1000;0.1229;0.8958;
1367.4000;0.1237;0.8981;
1367.7000;0.1237;0.8981;
1368.0000;0.1221;0.8958;
1368.3000;0.1221;0.8910;
1368.6000;0.1245;0.8934;
1368.9000;0.1221;0.8934;
1369.2000;0.1229;0.8910;
1369.5000;0.1254;0.9005;
1369.8000;0.1229;0.8958;
1370.1000;0.1237;0.8958;
1370.4000;0.1237;0.9005;
1370.7000;0.1205;0.8934;
1371.0000;0.1245;0.9029;
1371.3000;0.1229;0.9005;
1371.6000;0.1197;0.8887;
1371.9000;0.1213;0.8910;
1372.2000;0.1213;0.8863;
1372.5000;0.1213;0.8887;
1372.8000;0.1237;0.8981;
1373.1000;0.1221;0.8863;
1373.4000;0.1237;0.8863;
1373.7000;0.1245;0.8934;
1374.0000;0.1229;0.8887;
1374.3000;0.1229;0.8887;
1374.6000;0.1254;0.9076;
1374.9000;0.1237;0.9052;
1375.2000;0.1237;0.9029;
1375.5000;0.1197;0.8934;
1375.8000;0.1229;0.8958;
1376.1000;0.1229;0.8910;
1376.4000;0.1229;0.8887;
1376.7000;0.1245;0.8981;
1377.0000;0.1221;0.8934;
1377.3000;0.1221;0.8934;
1377.6000;0.1221;0.8910;
1377.9000;0.1254;0.8981;
1378.2000;0.1229;0.8958;
1378.5000;0.1213;0.8981;
1378.8000;0.1221;0.9005;
1379.1000;0.1221;0.8981;
1379.4000;0.1221;0.9029;
1379.7000;0.1156;0.8815;
1380.0000;0.1229;0.8958;
1380.3000;0.1205;0.8981;
1380.6000;0.1221;0.8981;
1380.9000;0.1205;0.9052;
1381.2000;0.1213;0.9100;
1381.5000;0.1286;0.9337;
1381.8000;0.1213;0.9147;
1382.1000;0.1254;0.9337;
1382.4000;0.1221;0.9289;
1382.7000;0.1205;0.9218;
1383.0000;0.1213;0.9337;
1383.3000;0.1229;0.9361;
1383.6000;0.1229;0.9242;
1383.9000;0.1237;0.9218;
1384.2000;0.1156;0.9029;
1384.5000;0.1197;0.9147;
1384.8000;0.1221;0.9242;
1385.1000;0.1229;0.9266;
1385.4000;0.1237;0.9289;
1385.7000;0.1188;0.9124;
1386.0000;0.1188;0.9124;
1386.3000;0.1221;0.9124;
1386.6000;0.1278;0.9242;
1386.9000;0.1205;0.9076;
1387.2000;0.1213;0.9100;
1387.5000;0.1213;0.9052;
1387.8000;0.1221;0.9076;
1388.1000;0.1237;0.9100;
1388.4000;0.1213;0.9076;
1388.7000;0.1237;0.9124;
1389.0000;0.1213;0.9005;
1389.3000;0.1237;0.9076;
1389.6000;0.1164;0.8863;
1389.9000;0.1221;0.8958;
1390.2000;0.1221;0.9005;
1390.5000;0.1229;0.9005;
1390.8000;0.1213;0.8981;
1391.1000;0.1205;0.9029;
1391.4000;0.1229;0.9076;
1391.7000;0.1221;0.9100;
1392.0000;0.1229;0.9100;
1392.3000;0.1205;0.9100;
1392.6000;0.1262;0.9195;
1392.9000;0.1229;0.9100;
1393.2000;0.1237;0.9100;
1393.5000;0.1254;0.9195;
1393.8000;0.1237;0.9147;
1394.1000;0.1221;0.9076;
1394.4000;0.1254;0.9218;
1394.7000;0.1229;0.9171;
1395.0000;0.1221;0.9124;
1395.3000;0.1270;0.9195;
1395.6000;0.1245;0.9076;
1395.9000;0.1245;0.9076;
1396.2000;0.1221;0.9005;
1396.5000;0.1229;0.9029;
1396.8000;0.1213;0.9005;
1397.1000;0.1270;0.9100;
1397.4000;0.1229;0.9005;
1397.7000;0.1229;0.8863;
1398.0000;0.1205;0.8910;
1398.3000;0.1237;0.9005;
1398.6000;0.1237;0.9052;
1398.9000;0.1205;0.9029;
1399.2000;0.1213;0.9029;
1399.5000;0.1213;0.9076;
1399.8000;0.1221;0.9029;
