time/ms;Fluo/V;P700 deltaI/I x10³;
-199.8000;0.1376;0.8531;
-199.5000;0.1368;0.8507;
-199.2000;0.1368;0.8484;
-198.9000;0.1368;0.8460;
-198.6000;0.1359;0.8484;
-198.3000;0.1368;0.8460;
-198.0000;0.1376;0.8507;
-197.7000;0.1368;0.8531;
-197.4000;0.1359;0.8602;
-197.1000;0.1351;0.8602;
-196.8000;0.1351;0.8555;
-196.5000;0.1368;0.8650;
-196.2000;0.1359;0.8579;
-195.9000;0.1376;0.8650;
-195.6000;0.1359;0.8650;
-195.3000;0.1351;0.8650;
-195.0000;0.1376;0.8768;
-194.7000;0.1359;0.8697;
-194.4000;0.1343;0.8602;
-194.1000;0.1368;0.8650;
-193.8000;0.1376;0.8744;
-193.5000;0.1376;0.8744;
-193.2000;0.1351;0.8673;
-192.9000;0.1368;0.8744;
-192.6000;0.1376;0.8815;
-192.3000;0.1359;0.8697;
-192.0000;0.1351;0.8626;
-191.7000;0.1368;0.8579;
-191.4000;0.1392;0.8650;
-191.1000;0.1376;0.8602;
-190.8000;0.1384;0.8626;
-190.5000;0.1368;0.8602;
-190.2000;0.1368;0.8602;
-189.9000;0.1376;0.8579;
-189.6000;0.1368;0.8579;
-189.3000;0.1416;0.8839;
-189.0000;0.1359;0.8673;
-188.7000;0.1368;0.8721;
-188.4000;0.1343;0.8697;
-188.1000;0.1368;0.8626;
-187.8000;0.1368;0.8602;
-187.5000;0.1359;0.8650;
-187.2000;0.1376;0.8650;
-186.9000;0.1359;0.8650;
-186.6000;0.1359;0.8626;
-186.3000;0.1368;0.8555;
-186.0000;0.1392;0.8531;
-185.7000;0.1368;0.8413;
-185.4000;0.1368;0.8484;
-185.1000;0.1368;0.8413;
-184.8000;0.1351;0.8389;
-184.5000;0.1425;0.8650;
-184.2000;0.1368;0.8579;
-183.9000;0.1359;0.8650;
-183.6000;0.1376;0.8650;
-183.3000;0.1441;0.8863;
-183.0000;0.1368;0.8602;
-182.7000;0.1351;0.8650;
-182.4000;0.1343;0.8650;
-182.1000;0.1359;0.8697;
-181.8000;0.1368;0.8697;
-181.5000;0.1343;0.8555;
-181.2000;0.1368;0.8602;
-180.9000;0.1376;0.8673;
-180.6000;0.1368;0.8650;
-180.3000;0.1359;0.8555;
-180.0000;0.1384;0.8531;
-179.7000;0.1384;0.8579;
-179.4000;0.1457;0.8768;
-179.1000;0.1384;0.8531;
-178.8000;0.1343;0.8484;
-178.5000;0.1384;0.8626;
-178.2000;0.1376;0.8650;
-177.9000;0.1368;0.8650;
-177.6000;0.1368;0.8673;
-177.3000;0.1376;0.8626;
-177.0000;0.1351;0.8579;
-176.7000;0.1359;0.8602;
-176.4000;0.1343;0.8531;
-176.1000;0.1351;0.8555;
-175.8000;0.1400;0.8626;
-175.5000;0.1368;0.8650;
-175.2000;0.1359;0.8626;
-174.9000;0.1343;0.8697;
-174.6000;0.1351;0.8768;
-174.3000;0.1368;0.8815;
-174.0000;0.1359;0.8815;
-173.7000;0.1343;0.8768;
-173.4000;0.1343;0.8768;
-173.1000;0.1384;0.8768;
-172.8000;0.1368;0.8744;
-172.5000;0.1311;0.8460;
-172.2000;0.1351;0.8602;
-171.9000;0.1368;0.8697;
-171.6000;0.1368;0.8721;
-171.3000;0.1359;0.8673;
-171.0000;0.1359;0.8673;
-170.7000;0.1359;0.8602;
-170.4000;0.1359;0.8626;
-170.1000;0.1368;0.8555;
-169.8000;0.1359;0.8602;
-169.5000;0.1351;0.8626;
-169.2000;0.1359;0.8555;
-168.9000;0.1400;0.8697;
-168.6000;0.1384;0.8626;
-168.3000;0.1400;0.8744;
-168.0000;0.1376;0.8721;
-167.7000;0.1368;0.8744;
-167.4000;0.1368;0.8815;
-167.1000;0.1376;0.8792;
-166.8000;0.1392;0.8792;
-166.5000;0.1376;0.8792;
-166.2000;0.1425;0.8792;
-165.9000;0.1376;0.8697;
-165.6000;0.1359;0.8744;
-165.3000;0.1384;0.8792;
-165.0000;0.1376;0.8673;
-164.7000;0.1351;0.8626;
-164.4000;0.1368;0.8531;
-164.1000;0.1351;0.8531;
-163.8000;0.1368;0.8602;
-163.5000;0.1311;0.8484;
-163.2000;0.1368;0.8768;
-162.9000;0.1359;0.8839;
-162.6000;0.1392;0.8887;
-162.3000;0.1368;0.8839;
-162.0000;0.1384;0.8887;
-161.7000;0.1368;0.8934;
-161.4000;0.1384;0.8934;
-161.1000;0.1384;0.8839;
-160.8000;0.1359;0.8792;
-160.5000;0.1384;0.8792;
-160.2000;0.1384;0.8839;
-159.9000;0.1359;0.8721;
-159.6000;0.1384;0.8768;
-159.3000;0.1368;0.8721;
-159.0000;0.1359;0.8673;
-158.7000;0.1359;0.8721;
-158.4000;0.1425;0.8910;
-158.1000;0.1351;0.8744;
-157.8000;0.1376;0.8697;
-157.5000;0.1319;0.8507;
-157.2000;0.1368;0.8602;
-156.9000;0.1376;0.8626;
-156.6000;0.1351;0.8673;
-156.3000;0.1368;0.8650;
-156.0000;0.1368;0.8579;
-155.7000;0.1335;0.8531;
-155.4000;0.1408;0.8697;
-155.1000;0.1376;0.8555;
-154.8000;0.1376;0.8531;
-154.5000;0.1343;0.8389;
-154.2000;0.1368;0.8460;
-153.9000;0.1359;0.8460;
-153.6000;0.1368;0.8460;
-153.3000;0.1351;0.8389;
-153.0000;0.1368;0.8389;
-152.7000;0.1384;0.8389;
-152.4000;0.1416;0.8460;
-152.1000;0.1376;0.8365;
-151.8000;0.1359;0.8436;
-151.5000;0.1400;0.8507;
-151.2000;0.1368;0.8460;
-150.9000;0.1376;0.8579;
-150.6000;0.1376;0.8626;
-150.3000;0.1376;0.8650;
-150.0000;0.1384;0.8673;
-149.7000;0.1368;0.8579;
-149.4000;0.1351;0.8602;
-149.1000;0.1408;0.8650;
-148.8000;0.1368;0.8484;
-148.5000;0.1359;0.8436;
-148.2000;0.1351;0.8460;
-147.9000;0.1368;0.8484;
-147.6000;0.1376;0.8460;
-147.3000;0.1376;0.8484;
-147.0000;0.1359;0.8484;
-146.7000;0.1359;0.8579;
-146.4000;0.1368;0.8626;
-146.1000;0.1368;0.8579;
-145.8000;0.1384;0.8673;
-145.5000;0.1368;0.8673;
-145.2000;0.1368;0.8650;
-144.9000;0.1392;0.8721;
-144.6000;0.1400;0.8815;
-144.3000;0.1368;0.8697;
-144.0000;0.1359;0.8626;
-143.7000;0.1376;0.8673;
-143.4000;0.1359;0.8650;
-143.1000;0.1351;0.8650;
-142.8000;0.1368;0.8650;
-142.5000;0.1359;0.8555;
-142.2000;0.1376;0.8507;
-141.9000;0.1368;0.8579;
-141.6000;0.1433;0.8768;
-141.3000;0.1376;0.8626;
-141.0000;0.1359;0.8531;
-140.7000;0.1376;0.8650;
-140.4000;0.1359;0.8602;
-140.1000;0.1359;0.8650;
-139.8000;0.1376;0.8673;
-139.5000;0.1384;0.8697;
-139.2000;0.1384;0.8697;
-138.9000;0.1368;0.8650;
-138.6000;0.1368;0.8602;
-138.3000;0.1408;0.8626;
-138.0000;0.1376;0.8507;
-137.7000;0.1376;0.8579;
-137.4000;0.1368;0.8602;
-137.1000;0.1359;0.8626;
-136.8000;0.1351;0.8579;
-136.5000;0.1359;0.8602;
-136.2000;0.1343;0.8555;
-135.9000;0.1368;0.8650;
-135.6000;0.1392;0.8792;
-135.3000;0.1368;0.8721;
-135.0000;0.1343;0.8721;
-134.7000;0.1359;0.8650;
-134.4000;0.1392;0.8744;
-134.1000;0.1408;0.8721;
-133.8000;0.1359;0.8579;
-133.5000;0.1359;0.8626;
-133.2000;0.1368;0.8721;
-132.9000;0.1376;0.8697;
-132.6000;0.1359;0.8721;
-132.3000;0.1376;0.8768;
-132.0000;0.1351;0.8697;
-131.7000;0.1376;0.8744;
-131.4000;0.1425;0.8768;
-131.1000;0.1302;0.8555;
-130.8000;0.1368;0.8792;
-130.5000;0.1343;0.8768;
-130.2000;0.1392;0.8815;
-129.9000;0.1351;0.8721;
-129.6000;0.1343;0.8602;
-129.3000;0.1368;0.8579;
-129.0000;0.1368;0.8579;
-128.7000;0.1376;0.8626;
-128.4000;0.1359;0.8626;
-128.1000;0.1359;0.8602;
-127.8000;0.1376;0.8626;
-127.5000;0.1359;0.8602;
-127.2000;0.1376;0.8579;
-126.9000;0.1359;0.8555;
-126.6000;0.1368;0.8602;
-126.3000;0.1368;0.8602;
-126.0000;0.1368;0.8555;
-125.7000;0.1343;0.8555;
-125.4000;0.1384;0.8650;
-125.1000;0.1359;0.8626;
-124.8000;0.1368;0.8626;
-124.5000;0.1368;0.8602;
-124.2000;0.1368;0.8602;
-123.9000;0.1376;0.8602;
-123.6000;0.1368;0.8626;
-123.3000;0.1384;0.8768;
-123.0000;0.1408;0.8839;
-122.7000;0.1368;0.8815;
-122.4000;0.1359;0.8934;
-122.1000;0.1351;0.8934;
-121.8000;0.1359;0.8887;
-121.5000;0.1351;0.8792;
-121.2000;0.1335;0.8815;
-120.9000;0.1376;0.8768;
-120.6000;0.1392;0.8792;
-120.3000;0.1368;0.8697;
-120.0000;0.1368;0.8721;
-119.7000;0.1376;0.8673;
-119.4000;0.1368;0.8768;
-119.1000;0.1343;0.8721;
-118.8000;0.1368;0.8792;
-118.5000;0.1384;0.8768;
-118.2000;0.1359;0.8768;
-117.9000;0.1368;0.8673;
-117.6000;0.1368;0.8673;
-117.3000;0.1368;0.8673;
-117.0000;0.1408;0.8768;
-116.7000;0.1376;0.8721;
-116.4000;0.1335;0.8673;
-116.1000;0.1359;0.8721;
-115.8000;0.1359;0.8673;
-115.5000;0.1343;0.8602;
-115.2000;0.1359;0.8626;
-114.9000;0.1384;0.8697;
-114.6000;0.1368;0.8673;
-114.3000;0.1368;0.8744;
-114.0000;0.1368;0.8768;
-113.7000;0.1359;0.8697;
-113.4000;0.1359;0.8792;
-113.1000;0.1351;0.8792;
-112.8000;0.1368;0.8792;
-112.5000;0.1376;0.8863;
-112.2000;0.1384;0.8792;
-111.9000;0.1359;0.8602;
-111.6000;0.1359;0.8579;
-111.3000;0.1311;0.8484;
-111.0000;0.1286;0.8460;
-110.7000;0.1384;0.8602;
-110.4000;0.1359;0.8697;
-110.1000;0.1351;0.8697;
-109.8000;0.1392;0.8673;
-109.5000;0.1368;0.8602;
-109.2000;0.1335;0.8507;
-108.9000;0.1343;0.8579;
-108.6000;0.1302;0.8389;
-108.3000;0.1368;0.8531;
-108.0000;0.1376;0.8555;
-107.7000;0.1278;0.8365;
-107.4000;0.1359;0.8626;
-107.1000;0.1376;0.8673;
-106.8000;0.1376;0.8744;
-106.5000;0.1368;0.8697;
-106.2000;0.1368;0.8626;
-105.9000;0.1368;0.8626;
-105.6000;0.1368;0.8602;
-105.3000;0.1376;0.8579;
-105.0000;0.1368;0.8650;
-104.7000;0.1343;0.8650;
-104.4000;0.1351;0.8650;
-104.1000;0.1351;0.8579;
-103.8000;0.1359;0.8626;
-103.5000;0.1376;0.8626;
-103.2000;0.1368;0.8602;
-102.9000;0.1359;0.8650;
-102.6000;0.1343;0.8602;
-102.3000;0.1343;0.8602;
-102.0000;0.1384;0.8697;
-101.7000;0.1384;0.8673;
-101.4000;0.1376;0.8650;
-101.1000;0.1343;0.8555;
-100.8000;0.1384;0.8579;
-100.5000;0.1384;0.8602;
-100.2000;0.1384;0.8650;
-99.9000;0.1392;0.8626;
-99.6000;0.1368;0.8602;
-99.3000;0.1384;0.8650;
-99.0000;0.1368;0.8626;
-98.7000;0.1376;0.8626;
-98.4000;0.1359;0.8673;
-98.1000;0.1392;0.8744;
-97.8000;0.1368;0.8744;
-97.5000;0.1384;0.8721;
-97.2000;0.1400;0.8721;
-96.9000;0.1384;0.8626;
-96.6000;0.1384;0.8602;
-96.3000;0.1376;0.8579;
-96.0000;0.1368;0.8579;
-95.7000;0.1384;0.8602;
-95.4000;0.1384;0.8579;
-95.1000;0.1376;0.8579;
-94.8000;0.1359;0.8650;
-94.5000;0.1359;0.8650;
-94.2000;0.1376;0.8697;
-93.9000;0.1359;0.8602;
-93.6000;0.1368;0.8602;
-93.3000;0.1368;0.8697;
-93.0000;0.1368;0.8744;
-92.7000;0.1351;0.8744;
-92.4000;0.1319;0.8721;
-92.1000;0.1335;0.8839;
-91.8000;0.1359;0.8910;
-91.5000;0.1368;0.8887;
-91.2000;0.1359;0.8863;
-90.9000;0.1359;0.8792;
-90.6000;0.1400;0.8815;
-90.3000;0.1384;0.8673;
-90.0000;0.1416;0.8721;
-89.7000;0.1376;0.8602;
-89.4000;0.1384;0.8626;
-89.1000;0.1351;0.8531;
-88.8000;0.1359;0.8484;
-88.5000;0.1376;0.8602;
-88.2000;0.1359;0.8626;
-87.9000;0.1449;0.8792;
-87.6000;0.1368;0.8531;
-87.3000;0.1359;0.8484;
-87.0000;0.1351;0.8460;
-86.7000;0.1351;0.8413;
-86.4000;0.1376;0.8484;
-86.1000;0.1376;0.8507;
-85.8000;0.1376;0.8531;
-85.5000;0.1368;0.8436;
-85.2000;0.1384;0.8460;
-84.9000;0.1368;0.8460;
-84.6000;0.1368;0.8484;
-84.3000;0.1343;0.8507;
-84.0000;0.1302;0.8389;
-83.7000;0.1392;0.8650;
-83.4000;0.1359;0.8579;
-83.1000;0.1343;0.8507;
-82.8000;0.1351;0.8555;
-82.5000;0.1351;0.8507;
-82.2000;0.1368;0.8484;
-81.9000;0.1359;0.8436;
-81.6000;0.1376;0.8460;
-81.3000;0.1359;0.8484;
-81.0000;0.1368;0.8507;
-80.7000;0.1359;0.8555;
-80.4000;0.1343;0.8626;
-80.1000;0.1376;0.8673;
-79.8000;0.1359;0.8626;
-79.5000;0.1368;0.8650;
-79.2000;0.1376;0.8626;
-78.9000;0.1359;0.8626;
-78.6000;0.1359;0.8626;
-78.3000;0.1359;0.8531;
-78.0000;0.1327;0.8507;
-77.7000;0.1359;0.8555;
-77.4000;0.1359;0.8507;
-77.1000;0.1368;0.8436;
-76.8000;0.1351;0.8413;
-76.5000;0.1359;0.8436;
-76.2000;0.1351;0.8507;
-75.9000;0.1359;0.8531;
-75.6000;0.1343;0.8484;
-75.3000;0.1368;0.8460;
-75.0000;0.1384;0.8531;
-74.7000;0.1400;0.8626;
-74.4000;0.1384;0.8626;
-74.1000;0.1359;0.8555;
-73.8000;0.1368;0.8555;
-73.5000;0.1359;0.8531;
-73.2000;0.1359;0.8555;
-72.9000;0.1327;0.8484;
-72.6000;0.1294;0.8413;
-72.3000;0.1335;0.8555;
-72.0000;0.1351;0.8507;
-71.7000;0.1351;0.8413;
-71.4000;0.1351;0.8413;
-71.1000;0.1351;0.8413;
-70.8000;0.1384;0.8484;
-70.5000;0.1359;0.8413;
-70.2000;0.1376;0.8413;
-69.9000;0.1359;0.8318;
-69.6000;0.1359;0.8294;
-69.3000;0.1400;0.8342;
-69.0000;0.1343;0.8247;
-68.7000;0.1359;0.8247;
-68.4000;0.1286;0.8081;
-68.1000;0.1368;0.8389;
-67.8000;0.1400;0.8531;
-67.5000;0.1359;0.8484;
-67.2000;0.1351;0.8460;
-66.9000;0.1359;0.8413;
-66.6000;0.1343;0.8342;
-66.3000;0.1359;0.8342;
-66.0000;0.1359;0.8294;
-65.7000;0.1359;0.8223;
-65.4000;0.1343;0.8199;
-65.1000;0.1376;0.8365;
-64.8000;0.1359;0.8318;
-64.5000;0.1376;0.8413;
-64.2000;0.1376;0.8507;
-63.9000;0.1359;0.8436;
-63.6000;0.1368;0.8460;
-63.3000;0.1376;0.8484;
-63.0000;0.1359;0.8531;
-62.7000;0.1368;0.8484;
-62.4000;0.1351;0.8507;
-62.1000;0.1376;0.8531;
-61.8000;0.1384;0.8555;
-61.5000;0.1400;0.8531;
-61.2000;0.1368;0.8460;
-60.9000;0.1359;0.8436;
-60.6000;0.1368;0.8507;
-60.3000;0.1384;0.8531;
-60.0000;0.1359;0.8460;
-59.7000;0.1368;0.8555;
-59.4000;0.1359;0.8460;
-59.1000;0.1376;0.8460;
-58.8000;0.1351;0.8389;
-58.5000;0.1359;0.8389;
-58.2000;0.1433;0.8697;
-57.9000;0.1359;0.8460;
-57.6000;0.1359;0.8436;
-57.3000;0.1359;0.8365;
-57.0000;0.1384;0.8365;
-56.7000;0.1376;0.8484;
-56.4000;0.1392;0.8531;
-56.1000;0.1351;0.8531;
-55.8000;0.1368;0.8507;
-55.5000;0.1359;0.8436;
-55.2000;0.1359;0.8342;
-54.9000;0.1368;0.8389;
-54.6000;0.1368;0.8484;
-54.3000;0.1368;0.8531;
-54.0000;0.1416;0.8768;
-53.7000;0.1368;0.8673;
-53.4000;0.1359;0.8697;
-53.1000;0.1368;0.8673;
-52.8000;0.1384;0.8721;
-52.5000;0.1368;0.8744;
-52.2000;0.1359;0.8626;
-51.9000;0.1351;0.8602;
-51.6000;0.1359;0.8555;
-51.3000;0.1376;0.8579;
-51.0000;0.1359;0.8579;
-50.7000;0.1359;0.8579;
-50.4000;0.1351;0.8626;
-50.1000;0.1384;0.8555;
-49.8000;0.1359;0.8413;
-49.5000;0.1359;0.8413;
-49.2000;0.1343;0.8413;
-48.9000;0.1311;0.8365;
-48.6000;0.1327;0.8507;
-48.3000;0.1351;0.8555;
-48.0000;0.1351;0.8507;
-47.7000;0.1368;0.8460;
-47.4000;0.1392;0.8507;
-47.1000;0.1368;0.8413;
-46.8000;0.1368;0.8389;
-46.5000;0.1368;0.8413;
-46.2000;0.1376;0.8460;
-45.9000;0.1384;0.8413;
-45.6000;0.1400;0.8436;
-45.3000;0.1368;0.8413;
-45.0000;0.1368;0.8365;
-44.7000;0.1359;0.8294;
-44.4000;0.1384;0.8294;
-44.1000;0.1327;0.8105;
-43.8000;0.1368;0.8176;
-43.5000;0.1376;0.8199;
-43.2000;0.1376;0.8294;
-42.9000;0.1351;0.8294;
-42.6000;0.1376;0.8365;
-42.3000;0.1368;0.8389;
-42.0000;0.1376;0.8365;
-41.7000;0.1351;0.8389;
-41.4000;0.1376;0.8294;
-41.1000;0.1392;0.8389;
-40.8000;0.1392;0.8389;
-40.5000;0.1359;0.8365;
-40.2000;0.1351;0.8389;
-39.9000;0.1351;0.8460;
-39.6000;0.1376;0.8460;
-39.3000;0.1408;0.8626;
-39.0000;0.1368;0.8602;
-38.7000;0.1351;0.8555;
-38.4000;0.1335;0.8555;
-38.1000;0.1359;0.8555;
-37.8000;0.1343;0.8507;
-37.5000;0.1376;0.8555;
-37.2000;0.1351;0.8626;
-36.9000;0.1351;0.8555;
-36.6000;0.1351;0.8484;
-36.3000;0.1327;0.8436;
-36.0000;0.1359;0.8484;
-35.7000;0.1286;0.8270;
-35.4000;0.1359;0.8507;
-35.1000;0.1359;0.8484;
-34.8000;0.1359;0.8579;
-34.5000;0.1368;0.8626;
-34.2000;0.1368;0.8650;
-33.9000;0.1368;0.8721;
-33.6000;0.1351;0.8697;
-33.3000;0.1376;0.8744;
-33.0000;0.1359;0.8697;
-32.7000;0.1359;0.8744;
-32.4000;0.1359;0.8626;
-32.1000;0.1359;0.8650;
-31.8000;0.1384;0.8650;
-31.5000;0.1376;0.8650;
-31.2000;0.1368;0.8744;
-30.9000;0.1384;0.8768;
-30.6000;0.1384;0.8721;
-30.3000;0.1384;0.8673;
-30.0000;0.1376;0.8697;
-29.7000;0.1359;0.8721;
-29.4000;0.1384;0.8768;
-29.1000;0.1384;0.8792;
-28.8000;0.1392;0.8792;
-28.5000;0.1376;0.8744;
-28.2000;0.1359;0.8744;
-27.9000;0.1376;0.8697;
-27.6000;0.1384;0.8626;
-27.3000;0.1351;0.8626;
-27.0000;0.1368;0.8673;
-26.7000;0.1368;0.8721;
-26.4000;0.1359;0.8697;
-26.1000;0.1351;0.8673;
-25.8000;0.1376;0.8697;
-25.5000;0.1368;0.8721;
-25.2000;0.1359;0.8650;
-24.9000;0.1327;0.8555;
-24.6000;0.1359;0.8602;
-24.3000;0.1368;0.8531;
-24.0000;0.1319;0.8389;
-23.7000;0.1376;0.8484;
-23.4000;0.1351;0.8602;
-23.1000;0.1376;0.8673;
-22.8000;0.1368;0.8602;
-22.5000;0.1343;0.8602;
-22.2000;0.1368;0.8579;
-21.9000;0.1351;0.8673;
-21.6000;0.1335;0.8673;
-21.3000;0.1384;0.8721;
-21.0000;0.1343;0.8602;
-20.7000;0.1351;0.8531;
-20.4000;0.1359;0.8507;
-20.1000;0.1408;0.8602;
-19.8000;0.1359;0.8507;
-19.5000;0.1384;0.8484;
-19.2000;0.1376;0.8413;
-18.9000;0.1351;0.8365;
-18.6000;0.1343;0.8389;
-18.3000;0.1359;0.8531;
-18.0000;0.1359;0.8602;
-17.7000;0.1359;0.8626;
-17.4000;0.1351;0.8626;
-17.1000;0.1408;0.8697;
-16.8000;0.1384;0.8721;
-16.5000;0.1359;0.8650;
-16.2000;0.1359;0.8721;
-15.9000;0.1351;0.8673;
-15.6000;0.1319;0.8579;
-15.3000;0.1343;0.8697;
-15.0000;0.1368;0.8744;
-14.7000;0.1359;0.8697;
-14.4000;0.1416;0.8768;
-14.1000;0.1343;0.8697;
-13.8000;0.1376;0.8721;
-13.5000;0.1368;0.8602;
-13.2000;0.1400;0.8602;
-12.9000;0.1384;0.8602;
-12.6000;0.1335;0.8460;
-12.3000;0.1368;0.8507;
-12.0000;0.1376;0.8507;
-11.7000;0.1368;0.8555;
-11.4000;0.1335;0.8531;
-11.1000;0.1368;0.8626;
-10.8000;0.1368;0.8602;
-10.5000;0.1359;0.8602;
-10.2000;0.1359;0.8626;
-9.9000;0.1368;0.8697;
-9.6000;0.1311;0.8626;
-9.3000;0.1359;0.8673;
-9.0000;0.1368;0.8697;
-8.7000;0.1368;0.8626;
-8.4000;0.1368;0.8673;
-8.1000;0.1359;0.8697;
-7.8000;0.1359;0.8697;
-7.5000;0.1359;0.8650;
-7.2000;0.1376;0.8626;
-6.9000;0.1359;0.8626;
-6.6000;0.1368;0.8697;
-6.3000;0.1376;0.8721;
-6.0000;0.1368;0.8650;
-5.7000;0.1359;0.8602;
-5.4000;0.1376;0.8744;
-5.1000;0.1343;0.8697;
-4.8000;0.1359;0.8697;
-4.5000;0.1368;0.8721;
-4.2000;0.1343;0.8721;
-3.9000;0.1343;0.8744;
-3.6000;0.1351;0.8768;
-3.3000;0.1368;0.8768;
-3.0000;0.1359;0.8792;
-2.7000;0.1368;0.8721;
-2.4000;0.1359;0.8650;
-2.1000;0.1368;0.8602;
-1.8000;0.1359;0.8650;
-1.5000;0.1392;0.8792;
-1.2000;0.1359;0.8768;
-0.9000;0.1343;0.8721;
-0.6000;0.1294;0.8579;
-0.3000;0.1368;0.8744;
0.0000;0.1368;0.8744;
0.3000;0.1392;0.8602;
0.6000;0.1408;0.8768;
0.9000;0.1449;0.8792;
1.2000;0.1457;0.8934;
1.5000;0.1473;0.9029;
1.8000;0.1498;0.9147;
2.1000;0.1457;0.9195;
2.4000;0.1506;0.9313;
2.7000;0.1490;0.9313;
3.0000;0.1498;0.9503;
3.3000;0.1506;0.9574;
3.6000;0.1579;0.9834;
3.9000;0.1555;0.9811;
4.2000;0.1538;0.9811;
4.5000;0.1514;0.9787;
4.8000;0.1473;0.9692;
5.1000;0.1514;0.9787;
5.4000;0.1555;0.9953;
5.7000;0.1538;1.0000;
6.0000;0.1661;1.0261;
6.3000;0.1522;0.9929;
6.6000;0.1530;0.9953;
6.9000;0.1530;0.9929;
7.2000;0.1530;0.9906;
7.5000;0.1522;0.9953;
7.8000;0.1522;1.0048;
8.1000;0.1522;1.0071;
8.4000;0.1547;1.0166;
8.7000;0.1538;1.0166;
9.0000;0.1538;1.0143;
9.3000;0.1547;1.0214;
9.6000;0.1530;1.0214;
9.9000;0.1547;1.0237;
10.2000;0.1547;1.0214;
10.5000;0.1538;1.0190;
10.8000;0.1547;1.0071;
11.1000;0.1555;1.0166;
11.4000;0.1571;1.0190;
11.7000;0.1563;1.0190;
12.0000;0.1555;1.0143;
12.3000;0.1514;0.9953;
12.6000;0.1538;0.9811;
12.9000;0.1538;0.9740;
13.2000;0.1547;0.9669;
13.5000;0.1547;0.9787;
13.8000;0.1538;0.9763;
14.1000;0.1538;0.9858;
14.4000;0.1538;0.9834;
14.7000;0.1563;0.9811;
15.0000;0.1547;0.9858;
15.3000;0.1571;0.9929;
15.6000;0.1563;0.9977;
15.9000;0.1563;0.9929;
16.2000;0.1555;0.9834;
16.5000;0.1555;0.9811;
16.8000;0.1555;0.9811;
17.1000;0.1555;0.9906;
17.4000;0.1563;0.9858;
17.7000;0.1555;0.9787;
18.0000;0.1538;0.9787;
18.3000;0.1555;0.9834;
18.6000;0.1555;0.9882;
18.9000;0.1555;0.9906;
19.2000;0.1555;0.9953;
19.5000;0.1563;0.9977;
19.8000;0.1547;1.0000;
20.1000;0.1555;1.0000;
20.4000;0.1522;0.9906;
20.7000;0.1563;1.0024;
21.0000;0.1571;1.0095;
21.3000;0.1612;1.0190;
21.6000;0.1571;1.0095;
21.9000;0.1555;1.0000;
22.2000;0.1571;1.0095;
22.5000;0.1579;1.0095;
22.8000;0.1579;1.0095;
23.1000;0.1612;1.0237;
23.4000;0.1555;1.0024;
23.7000;0.1579;1.0048;
24.0000;0.1571;0.9906;
24.3000;0.1555;0.9882;
24.6000;0.1620;1.0048;
24.9000;0.1604;1.0119;
25.2000;0.1579;1.0071;
25.5000;0.1579;1.0071;
25.8000;0.1538;0.9929;
26.1000;0.1555;0.9977;
26.4000;0.1595;1.0024;
26.7000;0.1571;1.0071;
27.0000;0.1555;1.0119;
27.3000;0.1571;1.0143;
27.6000;0.1595;1.0190;
27.9000;0.1587;1.0119;
28.2000;0.1571;1.0071;
28.5000;0.1587;1.0095;
28.8000;0.1587;1.0048;
29.1000;0.1604;1.0143;
29.4000;0.1595;1.0024;
29.7000;0.1579;0.9906;
30.0000;0.1490;0.9692;
30.3000;0.1571;0.9882;
30.6000;0.1579;0.9882;
30.9000;0.1579;0.9977;
31.2000;0.1587;1.0024;
31.5000;0.1579;1.0071;
31.8000;0.1587;1.0071;
32.1000;0.1555;0.9977;
32.4000;0.1579;1.0048;
32.7000;0.1587;1.0071;
33.0000;0.1595;1.0119;
33.3000;0.1587;1.0190;
33.6000;0.1595;1.0261;
33.9000;0.1587;1.0308;
34.2000;0.1587;1.0308;
34.5000;0.1538;1.0190;
34.8000;0.1587;1.0332;
35.1000;0.1595;1.0285;
35.4000;0.1587;1.0190;
35.7000;0.1587;1.0143;
36.0000;0.1595;1.0308;
36.3000;0.1587;1.0285;
36.6000;0.1628;1.0237;
36.9000;0.1612;1.0261;
37.2000;0.1587;1.0332;
37.5000;0.1587;1.0356;
37.8000;0.1595;1.0308;
38.1000;0.1595;1.0261;
38.4000;0.1595;1.0285;
38.7000;0.1587;1.0166;
39.0000;0.1604;1.0166;
39.3000;0.1595;1.0071;
39.6000;0.1595;1.0024;
39.9000;0.1587;1.0000;
40.2000;0.1579;0.9977;
40.5000;0.1587;0.9953;
40.8000;0.1587;0.9929;
41.1000;0.1571;0.9953;
41.4000;0.1579;0.9953;
41.7000;0.1595;1.0048;
42.0000;0.1587;1.0048;
42.3000;0.1571;0.9929;
42.6000;0.1522;0.9811;
42.9000;0.1595;0.9977;
43.2000;0.1612;1.0071;
43.5000;0.1604;1.0024;
43.8000;0.1595;1.0000;
44.1000;0.1604;1.0071;
44.4000;0.1604;1.0190;
44.7000;0.1595;1.0143;
45.0000;0.1636;1.0143;
45.3000;0.1604;1.0071;
45.6000;0.1587;1.0071;
45.9000;0.1612;1.0095;
46.2000;0.1595;1.0143;
46.5000;0.1595;1.0071;
46.8000;0.1587;1.0048;
47.1000;0.1579;1.0024;
47.4000;0.1604;1.0071;
47.7000;0.1587;1.0048;
48.0000;0.1587;1.0000;
48.3000;0.1595;0.9953;
48.6000;0.1595;0.9834;
48.9000;0.1620;0.9858;
49.2000;0.1595;0.9692;
49.5000;0.1604;0.9763;
49.8000;0.1620;0.9858;
50.1000;0.1612;0.9787;
50.4000;0.1595;0.9787;
50.7000;0.1612;0.9858;
51.0000;0.1604;0.9858;
51.3000;0.1604;0.9882;
51.6000;0.1604;1.0024;
51.9000;0.1628;0.9977;
52.2000;0.1604;0.9977;
52.5000;0.1612;1.0095;
52.8000;0.1595;1.0071;
53.1000;0.1595;1.0095;
53.4000;0.1612;1.0119;
53.7000;0.1652;1.0308;
54.0000;0.1604;1.0095;
54.3000;0.1538;0.9929;
54.6000;0.1612;1.0119;
54.9000;0.1595;1.0024;
55.2000;0.1612;0.9977;
55.5000;0.1587;1.0048;
55.8000;0.1620;1.0143;
56.1000;0.1612;1.0119;
56.4000;0.1595;1.0119;
56.7000;0.1587;1.0095;
57.0000;0.1604;1.0166;
57.3000;0.1604;1.0143;
57.6000;0.1595;1.0071;
57.9000;0.1620;1.0071;
58.2000;0.1612;1.0000;
58.5000;0.1620;0.9977;
58.8000;0.1636;0.9953;
59.1000;0.1628;0.9929;
59.4000;0.1620;0.9882;
59.7000;0.1620;0.9882;
60.0000;0.1620;0.9929;
60.3000;0.1604;0.9977;
60.6000;0.1595;0.9977;
60.9000;0.1604;0.9977;
61.2000;0.1587;1.0000;
61.5000;0.1604;0.9953;
61.8000;0.1620;0.9906;
62.1000;0.1579;0.9811;
62.4000;0.1612;0.9858;
62.7000;0.1628;0.9906;
63.0000;0.1604;0.9858;
63.3000;0.1612;0.9858;
63.6000;0.1620;0.9906;
63.9000;0.1620;0.9953;
64.2000;0.1636;0.9953;
64.5000;0.1604;0.9929;
64.8000;0.1604;0.9906;
65.1000;0.1604;0.9811;
65.4000;0.1612;0.9858;
65.7000;0.1620;0.9834;
66.0000;0.1620;0.9882;
66.3000;0.1612;0.9882;
66.6000;0.1636;0.9906;
66.9000;0.1612;0.9906;
67.2000;0.1604;0.9834;
67.5000;0.1604;0.9906;
67.8000;0.1628;1.0000;
68.1000;0.1612;0.9953;
68.4000;0.1628;0.9977;
68.7000;0.1612;1.0024;
69.0000;0.1644;1.0071;
69.3000;0.1620;1.0024;
69.6000;0.1628;1.0048;
69.9000;0.1587;0.9953;
70.2000;0.1628;1.0048;
70.5000;0.1620;1.0024;
70.8000;0.1612;0.9906;
71.1000;0.1612;0.9906;
71.4000;0.1612;0.9929;
71.7000;0.1636;0.9906;
72.0000;0.1604;0.9929;
72.3000;0.1620;0.9953;
72.6000;0.1587;0.9977;
72.9000;0.1612;1.0095;
73.2000;0.1628;1.0143;
73.5000;0.1620;1.0119;
73.8000;0.1604;1.0071;
74.1000;0.1587;1.0048;
74.4000;0.1636;1.0143;
74.7000;0.1595;1.0024;
75.0000;0.1661;1.0071;
75.3000;0.1604;1.0000;
75.6000;0.1555;0.9953;
75.9000;0.1620;1.0119;
76.2000;0.1604;1.0071;
76.5000;0.1595;1.0024;
76.8000;0.1604;1.0024;
77.1000;0.1620;1.0048;
77.4000;0.1571;0.9929;
77.7000;0.1604;0.9953;
78.0000;0.1604;1.0000;
78.3000;0.1612;0.9977;
78.6000;0.1604;0.9953;
78.9000;0.1571;0.9882;
79.2000;0.1612;0.9953;
79.5000;0.1612;0.9977;
79.8000;0.1612;1.0024;
80.1000;0.1604;0.9953;
80.4000;0.1571;0.9882;
80.7000;0.1628;1.0000;
81.0000;0.1628;0.9882;
81.3000;0.1636;0.9858;
81.6000;0.1612;0.9740;
81.9000;0.1628;0.9763;
82.2000;0.1628;0.9811;
82.5000;0.1620;0.9929;
82.8000;0.1628;1.0048;
83.1000;0.1620;1.0048;
83.4000;0.1620;1.0071;
83.7000;0.1628;1.0000;
84.0000;0.1620;1.0000;
84.3000;0.1612;1.0024;
84.6000;0.1628;1.0048;
84.9000;0.1595;0.9977;
85.2000;0.1612;0.9929;
85.5000;0.1620;0.9906;
85.8000;0.1604;0.9811;
86.1000;0.1636;0.9858;
86.4000;0.1620;0.9882;
86.7000;0.1612;0.9906;
87.0000;0.1636;1.0000;
87.3000;0.1636;0.9977;
87.6000;0.1644;0.9977;
87.9000;0.1628;0.9906;
88.2000;0.1620;0.9953;
88.5000;0.1652;0.9977;
88.8000;0.1628;1.0024;
89.1000;0.1620;0.9953;
89.4000;0.1628;1.0024;
89.7000;0.1669;1.0095;
90.0000;0.1620;1.0048;
90.3000;0.1628;1.0071;
90.6000;0.1604;1.0095;
90.9000;0.1628;1.0190;
91.2000;0.1620;1.0214;
91.5000;0.1628;1.0190;
91.8000;0.1612;1.0119;
92.1000;0.1636;1.0143;
92.4000;0.1620;1.0095;
92.7000;0.1620;1.0095;
93.0000;0.1547;0.9906;
93.3000;0.1669;1.0119;
93.6000;0.1555;0.9953;
93.9000;0.1636;1.0214;
94.2000;0.1620;1.0143;
94.5000;0.1604;1.0095;
94.8000;0.1571;1.0000;
95.1000;0.1604;1.0095;
95.4000;0.1620;1.0119;
95.7000;0.1612;1.0048;
96.0000;0.1604;1.0000;
96.3000;0.1612;0.9953;
96.6000;0.1636;0.9977;
96.9000;0.1628;1.0000;
97.2000;0.1612;0.9953;
97.5000;0.1644;0.9953;
97.8000;0.1620;0.9953;
98.1000;0.1620;1.0071;
98.4000;0.1644;1.0166;
98.7000;0.1628;1.0071;
99.0000;0.1644;1.0166;
99.3000;0.1644;1.0119;
99.6000;0.1612;1.0048;
99.9000;0.1612;1.0095;
100.2000;0.1628;1.0048;
100.5000;0.1644;1.0071;
100.8000;0.1661;1.0071;
101.1000;0.1604;0.9882;
101.4000;0.1595;0.9811;
101.7000;0.1620;0.9811;
102.0000;0.1620;0.9882;
102.3000;0.1620;0.9882;
102.6000;0.1604;0.9858;
102.9000;0.1612;0.9906;
103.2000;0.1620;1.0024;
103.5000;0.1571;0.9882;
103.8000;0.1612;0.9977;
104.1000;0.1628;1.0048;
104.4000;0.1612;1.0095;
104.7000;0.1693;1.0261;
105.0000;0.1628;0.9953;
105.3000;0.1604;0.9858;
105.6000;0.1620;0.9858;
105.9000;0.1628;0.9882;
106.2000;0.1612;0.9834;
106.5000;0.1604;0.9787;
106.8000;0.1620;0.9882;
107.1000;0.1604;0.9882;
107.4000;0.1612;0.9858;
107.7000;0.1636;0.9858;
108.0000;0.1620;0.9882;
108.3000;0.1620;0.9929;
108.6000;0.1620;0.9977;
108.9000;0.1612;0.9953;
109.2000;0.1644;1.0048;
109.5000;0.1628;0.9929;
109.8000;0.1612;0.9811;
110.1000;0.1628;0.9906;
110.4000;0.1595;0.9953;
110.7000;0.1579;0.9811;
111.0000;0.1612;0.9882;
111.3000;0.1604;0.9787;
111.6000;0.1604;0.9763;
111.9000;0.1636;0.9858;
112.2000;0.1620;0.9811;
112.5000;0.1612;0.9787;
112.8000;0.1604;0.9787;
113.1000;0.1636;0.9882;
113.4000;0.1636;0.9811;
113.7000;0.1620;0.9763;
114.0000;0.1620;0.9763;
114.3000;0.1612;0.9787;
114.6000;0.1677;1.0024;
114.9000;0.1620;0.9787;
115.2000;0.1612;0.9882;
115.5000;0.1604;0.9882;
115.8000;0.1620;0.9906;
116.1000;0.1555;0.9740;
116.4000;0.1628;0.9811;
116.7000;0.1604;0.9811;
117.0000;0.1612;0.9811;
117.3000;0.1620;0.9811;
117.6000;0.1571;0.9645;
117.9000;0.1628;0.9811;
118.2000;0.1661;0.9882;
118.5000;0.1555;0.9621;
118.8000;0.1595;0.9740;
119.1000;0.1571;0.9787;
119.4000;0.1612;0.9834;
119.7000;0.1636;0.9906;
120.0000;0.1636;0.9977;
120.3000;0.1612;1.0000;
120.6000;0.1636;1.0024;
120.9000;0.1652;1.0143;
121.2000;0.1628;1.0095;
121.5000;0.1620;1.0024;
121.8000;0.1628;0.9953;
122.1000;0.1604;0.9929;
122.4000;0.1620;0.9858;
122.7000;0.1612;0.9834;
123.0000;0.1636;0.9929;
123.3000;0.1612;0.9834;
123.6000;0.1620;0.9834;
123.9000;0.1595;0.9763;
124.2000;0.1677;0.9882;
124.5000;0.1628;0.9882;
124.8000;0.1612;0.9882;
125.1000;0.1612;0.9882;
125.4000;0.1604;0.9906;
125.7000;0.1620;1.0048;
126.0000;0.1628;1.0166;
126.3000;0.1628;1.0143;
126.6000;0.1620;1.0190;
126.9000;0.1604;1.0166;
127.2000;0.1612;1.0119;
127.5000;0.1612;1.0143;
127.8000;0.1620;1.0190;
128.1000;0.1612;1.0143;
128.4000;0.1604;1.0190;
128.7000;0.1620;1.0237;
129.0000;0.1620;1.0285;
129.3000;0.1620;1.0285;
129.6000;0.1620;1.0214;
129.9000;0.1628;1.0190;
130.2000;0.1628;1.0190;
130.5000;0.1636;1.0166;
130.8000;0.1636;1.0119;
131.1000;0.1628;1.0119;
131.4000;0.1636;1.0119;
131.7000;0.1628;1.0071;
132.0000;0.1620;1.0048;
132.3000;0.1620;1.0071;
132.6000;0.1612;1.0024;
132.9000;0.1636;1.0048;
133.2000;0.1604;1.0048;
133.5000;0.1604;1.0071;
133.8000;0.1612;1.0095;
134.1000;0.1628;1.0143;
134.4000;0.1555;0.9953;
134.7000;0.1604;1.0095;
135.0000;0.1604;1.0000;
135.3000;0.1628;1.0024;
135.6000;0.1612;0.9977;
135.9000;0.1620;0.9977;
136.2000;0.1604;1.0048;
136.5000;0.1595;1.0048;
136.8000;0.1612;1.0071;
137.1000;0.1563;0.9929;
137.4000;0.1652;1.0261;
137.7000;0.1587;1.0119;
138.0000;0.1628;1.0166;
138.3000;0.1620;1.0095;
138.6000;0.1563;1.0071;
138.9000;0.1579;1.0143;
139.2000;0.1620;1.0285;
139.5000;0.1620;1.0261;
139.8000;0.1604;1.0190;
140.1000;0.1604;1.0237;
140.4000;0.1595;1.0237;
140.7000;0.1661;1.0332;
141.0000;0.1628;1.0190;
141.3000;0.1620;1.0166;
141.6000;0.1628;1.0166;
141.9000;0.1628;1.0143;
142.2000;0.1636;1.0285;
142.5000;0.1620;1.0285;
142.8000;0.1595;1.0308;
143.1000;0.1620;1.0332;
143.4000;0.1636;1.0380;
143.7000;0.1620;1.0285;
144.0000;0.1628;1.0166;
144.3000;0.1612;1.0071;
144.6000;0.1636;1.0119;
144.9000;0.1620;1.0119;
145.2000;0.1612;1.0119;
145.5000;0.1620;1.0143;
145.8000;0.1612;1.0237;
146.1000;0.1587;1.0166;
146.4000;0.1620;1.0261;
146.7000;0.1620;1.0261;
147.0000;0.1612;1.0237;
147.3000;0.1604;1.0190;
147.6000;0.1644;1.0214;
147.9000;0.1604;1.0095;
148.2000;0.1636;1.0143;
148.5000;0.1612;1.0166;
148.8000;0.1604;1.0095;
149.1000;0.1620;1.0095;
149.4000;0.1628;1.0143;
149.7000;0.1620;1.0190;
150.0000;0.1628;1.0143;
150.3000;0.1612;1.0095;
150.6000;0.1612;1.0024;
150.9000;0.1628;1.0095;
151.2000;0.1604;1.0095;
151.5000;0.1604;1.0095;
151.8000;0.1628;1.0143;
152.1000;0.1628;1.0166;
152.4000;0.1620;1.0119;
152.7000;0.1628;1.0166;
153.0000;0.1628;1.0143;
153.3000;0.1628;1.0166;
153.6000;0.1628;1.0143;
153.9000;0.1620;1.0119;
154.2000;0.1620;1.0119;
154.5000;0.1652;1.0095;
154.8000;0.1620;1.0119;
155.1000;0.1628;1.0071;
155.4000;0.1620;1.0000;
155.7000;0.1644;0.9953;
156.0000;0.1620;0.9953;
156.3000;0.1612;0.9929;
156.6000;0.1612;0.9929;
156.9000;0.1595;0.9906;
157.2000;0.1620;0.9906;
157.5000;0.1636;0.9977;
157.8000;0.1620;1.0024;
158.1000;0.1604;1.0048;
158.4000;0.1604;0.9953;
158.7000;0.1628;0.9953;
159.0000;0.1620;0.9882;
159.3000;0.1636;0.9953;
159.6000;0.1620;0.9953;
159.9000;0.1636;1.0024;
160.2000;0.1620;0.9929;
160.5000;0.1612;0.9929;
160.8000;0.1620;1.0000;
161.1000;0.1579;0.9882;
161.4000;0.1636;1.0000;
161.7000;0.1579;0.9858;
162.0000;0.1612;1.0024;
162.3000;0.1652;1.0119;
162.6000;0.1628;1.0143;
162.9000;0.1555;1.0024;
163.2000;0.1604;1.0261;
163.5000;0.1612;1.0308;
163.8000;0.1661;1.0545;
164.1000;0.1628;1.0332;
164.4000;0.1612;1.0190;
164.7000;0.1604;1.0119;
165.0000;0.1628;1.0166;
165.3000;0.1620;1.0237;
165.6000;0.1612;1.0166;
165.9000;0.1612;1.0119;
166.2000;0.1628;1.0095;
166.5000;0.1620;1.0166;
166.8000;0.1628;1.0166;
167.1000;0.1628;1.0214;
167.4000;0.1620;1.0237;
167.7000;0.1636;1.0285;
168.0000;0.1571;1.0190;
168.3000;0.1604;1.0261;
168.6000;0.1620;1.0190;
168.9000;0.1628;1.0237;
169.2000;0.1652;1.0308;
169.5000;0.1612;1.0237;
169.8000;0.1604;1.0214;
170.1000;0.1628;1.0190;
170.4000;0.1636;1.0119;
170.7000;0.1612;0.9953;
171.0000;0.1636;1.0000;
171.3000;0.1612;0.9906;
171.6000;0.1628;0.9882;
171.9000;0.1636;1.0000;
172.2000;0.1628;1.0048;
172.5000;0.1612;1.0048;
172.8000;0.1612;1.0071;
173.1000;0.1620;1.0024;
173.4000;0.1612;1.0000;
173.7000;0.1604;1.0024;
174.0000;0.1612;1.0048;
174.3000;0.1612;1.0048;
174.6000;0.1628;1.0095;
174.9000;0.1604;1.0048;
175.2000;0.1620;1.0095;
175.5000;0.1620;1.0071;
175.8000;0.1612;1.0024;
176.1000;0.1628;1.0095;
176.4000;0.1620;1.0071;
176.7000;0.1628;1.0119;
177.0000;0.1628;1.0119;
177.3000;0.1628;1.0166;
177.6000;0.1620;1.0095;
177.9000;0.1620;1.0071;
178.2000;0.1644;1.0071;
178.5000;0.1604;0.9977;
178.8000;0.1636;0.9929;
179.1000;0.1628;0.9906;
179.4000;0.1628;1.0000;
179.7000;0.1636;1.0095;
180.0000;0.1628;1.0119;
180.3000;0.1628;1.0119;
180.6000;0.1644;1.0119;
180.9000;0.1628;1.0048;
181.2000;0.1652;1.0119;
181.5000;0.1612;1.0048;
181.8000;0.1644;1.0143;
182.1000;0.1636;1.0143;
182.4000;0.1628;1.0119;
182.7000;0.1620;1.0143;
183.0000;0.1604;1.0071;
183.3000;0.1612;1.0190;
183.6000;0.1604;1.0166;
183.9000;0.1612;1.0071;
184.2000;0.1620;1.0071;
184.5000;0.1612;1.0071;
184.8000;0.1612;1.0048;
185.1000;0.1571;0.9858;
185.4000;0.1595;0.9929;
185.7000;0.1620;1.0000;
186.0000;0.1628;1.0095;
186.3000;0.1612;1.0143;
186.6000;0.1595;1.0190;
186.9000;0.1620;1.0237;
187.2000;0.1612;1.0190;
187.5000;0.1628;1.0214;
187.8000;0.1620;1.0095;
188.1000;0.1620;1.0119;
188.4000;0.1620;1.0071;
188.7000;0.1644;1.0048;
189.0000;0.1604;0.9929;
189.3000;0.1612;0.9906;
189.6000;0.1620;1.0000;
189.9000;0.1636;1.0095;
190.2000;0.1620;1.0095;
190.5000;0.1620;1.0095;
190.8000;0.1628;1.0095;
191.1000;0.1628;1.0095;
191.4000;0.1628;1.0071;
191.7000;0.1628;1.0095;
192.0000;0.1661;1.0214;
192.3000;0.1628;1.0048;
192.6000;0.1620;1.0000;
192.9000;0.1612;1.0095;
193.2000;0.1644;1.0190;
193.5000;0.1636;1.0214;
193.8000;0.1669;1.0308;
194.1000;0.1604;1.0143;
194.4000;0.1612;1.0119;
194.7000;0.1620;1.0190;
195.0000;0.1595;1.0024;
195.3000;0.1620;1.0143;
195.6000;0.1612;1.0166;
195.9000;0.1620;1.0190;
196.2000;0.1620;1.0143;
196.5000;0.1612;1.0119;
196.8000;0.1620;1.0095;
197.1000;0.1620;1.0071;
197.4000;0.1628;0.9929;
197.7000;0.1612;0.9858;
198.0000;0.1612;0.9906;
198.3000;0.1628;0.9953;
198.6000;0.1628;0.9953;
198.9000;0.1620;1.0000;
199.2000;0.1628;1.0024;
199.5000;0.1604;0.9977;
199.8000;0.1628;1.0119;
200.1000;0.1644;1.0095;
200.4000;0.1620;1.0048;
200.7000;0.1628;1.0048;
201.0000;0.1612;1.0095;
201.3000;0.1620;1.0143;
201.6000;0.1628;1.0166;
201.9000;0.1628;1.0166;
202.2000;0.1612;1.0000;
202.5000;0.1563;0.9906;
202.8000;0.1636;1.0095;
203.1000;0.1628;1.0000;
203.4000;0.1620;0.9929;
203.7000;0.1604;0.9977;
204.0000;0.1620;1.0048;
204.3000;0.1612;1.0048;
204.6000;0.1604;0.9929;
204.9000;0.1604;0.9929;
205.2000;0.1620;1.0024;
205.5000;0.1620;1.0024;
205.8000;0.1595;0.9977;
206.1000;0.1604;0.9929;
206.4000;0.1628;0.9977;
206.7000;0.1685;1.0048;
207.0000;0.1620;0.9811;
207.3000;0.1620;0.9787;
207.6000;0.1571;0.9716;
207.9000;0.1620;0.9882;
208.2000;0.1612;0.9858;
208.5000;0.1604;0.9811;
208.8000;0.1620;0.9763;
209.1000;0.1661;0.9882;
209.4000;0.1612;0.9858;
209.7000;0.1595;0.9858;
210.0000;0.1563;0.9787;
210.3000;0.1620;0.9834;
210.6000;0.1604;0.9763;
210.9000;0.1612;0.9669;
211.2000;0.1587;0.9692;
211.5000;0.1620;0.9669;
211.8000;0.1612;0.9692;
212.1000;0.1604;0.9669;
212.4000;0.1612;0.9692;
212.7000;0.1612;0.9692;
213.0000;0.1652;0.9834;
213.3000;0.1628;0.9811;
213.6000;0.1620;0.9858;
213.9000;0.1612;0.9882;
214.2000;0.1612;0.9858;
214.5000;0.1636;1.0000;
214.8000;0.1628;1.0000;
215.1000;0.1628;0.9953;
215.4000;0.1612;0.9953;
215.7000;0.1612;1.0024;
216.0000;0.1579;1.0024;
216.3000;0.1612;1.0024;
216.6000;0.1538;0.9692;
216.9000;0.1628;0.9953;
217.2000;0.1628;0.9953;
217.5000;0.1612;1.0071;
217.8000;0.1628;1.0143;
218.1000;0.1612;1.0095;
218.4000;0.1628;1.0071;
218.7000;0.1628;1.0000;
219.0000;0.1620;1.0048;
219.3000;0.1628;1.0095;
219.6000;0.1620;1.0143;
219.9000;0.1612;1.0119;
220.2000;0.1612;1.0095;
220.5000;0.1612;1.0048;
220.8000;0.1620;1.0024;
221.1000;0.1612;1.0024;
221.4000;0.1620;1.0024;
221.7000;0.1530;0.9858;
222.0000;0.1620;1.0166;
222.3000;0.1620;1.0143;
222.6000;0.1636;1.0095;
222.9000;0.1620;1.0071;
223.2000;0.1620;0.9977;
223.5000;0.1579;0.9834;
223.8000;0.1636;1.0024;
224.1000;0.1628;1.0000;
224.4000;0.1669;1.0071;
224.7000;0.1620;1.0024;
225.0000;0.1652;1.0071;
225.3000;0.1620;1.0095;
225.6000;0.1604;1.0048;
225.9000;0.1628;1.0095;
226.2000;0.1620;1.0143;
226.5000;0.1604;1.0119;
226.8000;0.1628;1.0095;
227.1000;0.1612;1.0143;
227.4000;0.1612;1.0166;
227.7000;0.1612;1.0190;
228.0000;0.1620;1.0143;
228.3000;0.1620;1.0071;
228.6000;0.1620;1.0095;
228.9000;0.1612;1.0119;
229.2000;0.1604;1.0119;
229.5000;0.1644;1.0214;
229.8000;0.1579;1.0024;
230.1000;0.1620;1.0119;
230.4000;0.1612;1.0095;
230.7000;0.1604;1.0143;
231.0000;0.1628;1.0190;
231.3000;0.1628;1.0190;
231.6000;0.1612;1.0190;
231.9000;0.1636;1.0261;
232.2000;0.1644;1.0285;
232.5000;0.1612;1.0071;
232.8000;0.1579;1.0071;
233.1000;0.1571;1.0166;
233.4000;0.1587;1.0261;
233.7000;0.1604;1.0308;
234.0000;0.1652;1.0451;
234.3000;0.1604;1.0308;
234.6000;0.1612;1.0285;
234.9000;0.1620;1.0261;
235.2000;0.1628;1.0214;
235.5000;0.1595;1.0214;
235.8000;0.1612;1.0190;
236.1000;0.1620;1.0190;
236.4000;0.1652;1.0237;
236.7000;0.1620;1.0214;
237.0000;0.1628;1.0143;
237.3000;0.1587;1.0095;
237.6000;0.1644;1.0261;
237.9000;0.1628;1.0237;
238.2000;0.1579;1.0071;
238.5000;0.1620;1.0237;
238.8000;0.1628;1.0214;
239.1000;0.1620;1.0285;
239.4000;0.1620;1.0285;
239.7000;0.1595;1.0237;
240.0000;0.1620;1.0308;
240.3000;0.1620;1.0308;
240.6000;0.1604;1.0261;
240.9000;0.1620;1.0214;
241.2000;0.1620;1.0190;
241.5000;0.1620;1.0095;
241.8000;0.1571;0.9858;
242.1000;0.1644;1.0071;
242.4000;0.1604;0.9906;
242.7000;0.1636;0.9929;
243.0000;0.1628;0.9977;
243.3000;0.1620;0.9953;
243.6000;0.1604;0.9906;
243.9000;0.1644;1.0048;
244.2000;0.1620;1.0000;
244.5000;0.1620;1.0048;
244.8000;0.1595;1.0071;
245.1000;0.1595;1.0095;
245.4000;0.1620;1.0166;
245.7000;0.1612;1.0143;
246.0000;0.1612;1.0071;
246.3000;0.1644;1.0119;
246.6000;0.1652;1.0119;
246.9000;0.1628;1.0095;
247.2000;0.1620;1.0071;
247.5000;0.1571;0.9977;
247.8000;0.1587;1.0048;
248.1000;0.1620;1.0143;
248.4000;0.1612;1.0166;
248.7000;0.1636;1.0261;
249.0000;0.1620;1.0214;
249.3000;0.1555;1.0000;
249.6000;0.1628;1.0048;
249.9000;0.1636;1.0071;
250.2000;0.1612;1.0048;
250.5000;0.1612;1.0119;
250.8000;0.1628;1.0166;
251.1000;0.1612;1.0166;
251.4000;0.1612;1.0237;
251.7000;0.1612;1.0285;
252.0000;0.1604;1.0214;
252.3000;0.1595;1.0119;
252.6000;0.1604;1.0119;
252.9000;0.1604;1.0190;
253.2000;0.1628;1.0237;
253.5000;0.1612;1.0214;
253.8000;0.1652;1.0285;
254.1000;0.1571;1.0048;
254.4000;0.1628;1.0119;
254.7000;0.1612;1.0095;
255.0000;0.1628;1.0119;
255.3000;0.1620;1.0119;
255.6000;0.1612;1.0119;
255.9000;0.1612;1.0166;
256.2000;0.1604;1.0190;
256.5000;0.1612;1.0166;
256.8000;0.1595;1.0143;
257.1000;0.1563;1.0071;
257.4000;0.1612;1.0143;
257.7000;0.1595;1.0071;
258.0000;0.1612;1.0048;
258.3000;0.1563;0.9882;
258.6000;0.1636;1.0071;
258.9000;0.1612;0.9977;
259.2000;0.1620;0.9977;
259.5000;0.1620;1.0024;
259.8000;0.1604;1.0000;
260.1000;0.1587;0.9953;
260.4000;0.1612;1.0048;
260.7000;0.1644;1.0071;
261.0000;0.1636;1.0119;
261.3000;0.1636;1.0119;
261.6000;0.1620;1.0119;
261.9000;0.1612;1.0119;
262.2000;0.1669;1.0261;
262.5000;0.1628;1.0143;
262.8000;0.1612;1.0143;
263.1000;0.1612;1.0119;
263.4000;0.1661;1.0285;
263.7000;0.1628;1.0237;
264.0000;0.1612;1.0214;
264.3000;0.1604;1.0095;
264.6000;0.1620;1.0214;
264.9000;0.1620;1.0214;
265.2000;0.1620;1.0119;
265.5000;0.1612;1.0048;
265.8000;0.1677;1.0261;
266.1000;0.1547;0.9906;
266.4000;0.1620;1.0095;
266.7000;0.1604;1.0071;
267.0000;0.1612;1.0143;
267.3000;0.1612;1.0190;
267.6000;0.1661;1.0332;
267.9000;0.1628;1.0214;
268.2000;0.1620;1.0214;
268.5000;0.1612;1.0214;
268.8000;0.1628;1.0285;
269.1000;0.1636;1.0356;
269.4000;0.1628;1.0308;
269.7000;0.1612;1.0214;
270.0000;0.1604;1.0237;
270.3000;0.1595;1.0119;
270.6000;0.1612;0.9977;
270.9000;0.1595;0.9929;
271.2000;0.1612;0.9977;
271.5000;0.1620;0.9977;
271.8000;0.1652;1.0024;
272.1000;0.1620;0.9977;
272.4000;0.1685;1.0190;
272.7000;0.1612;1.0048;
273.0000;0.1620;0.9977;
273.3000;0.1604;0.9929;
273.6000;0.1620;1.0024;
273.9000;0.1604;0.9929;
274.2000;0.1595;0.9858;
274.5000;0.1628;0.9834;
274.8000;0.1604;0.9834;
275.1000;0.1612;0.9906;
275.4000;0.1652;1.0048;
275.7000;0.1636;1.0071;
276.0000;0.1612;1.0095;
276.3000;0.1620;1.0119;
276.6000;0.1636;1.0119;
276.9000;0.1587;1.0071;
277.2000;0.1604;1.0071;
277.5000;0.1620;1.0048;
277.8000;0.1595;0.9953;
278.1000;0.1644;1.0071;
278.4000;0.1612;1.0048;
278.7000;0.1595;1.0024;
279.0000;0.1604;1.0024;
279.3000;0.1595;0.9977;
279.6000;0.1612;1.0048;
279.9000;0.1612;1.0119;
280.2000;0.1644;1.0071;
280.5000;0.1628;1.0119;
280.8000;0.1628;1.0143;
281.1000;0.1587;1.0024;
281.4000;0.1620;1.0166;
281.7000;0.1628;1.0214;
282.0000;0.1628;1.0190;
282.3000;0.1636;1.0261;
282.6000;0.1604;1.0119;
282.9000;0.1612;1.0071;
283.2000;0.1612;1.0071;
283.5000;0.1612;1.0095;
283.8000;0.1604;1.0024;
284.1000;0.1669;1.0214;
284.4000;0.1620;1.0119;
284.7000;0.1628;1.0190;
285.0000;0.1620;1.0166;
285.3000;0.1612;1.0095;
285.6000;0.1595;1.0000;
285.9000;0.1636;1.0190;
286.2000;0.1620;1.0143;
286.5000;0.1612;1.0143;
286.8000;0.1636;1.0190;
287.1000;0.1620;1.0143;
287.4000;0.1628;1.0119;
287.7000;0.1604;1.0048;
288.0000;0.1604;1.0071;
288.3000;0.1628;1.0095;
288.6000;0.1612;1.0048;
288.9000;0.1612;0.9977;
289.2000;0.1644;1.0048;
289.5000;0.1636;0.9977;
289.8000;0.1604;0.9953;
290.1000;0.1612;1.0000;
290.4000;0.1612;1.0024;
290.7000;0.1628;1.0048;
291.0000;0.1620;1.0024;
291.3000;0.1620;0.9953;
291.6000;0.1628;1.0048;
291.9000;0.1604;1.0000;
292.2000;0.1620;1.0119;
292.5000;0.1604;1.0166;
292.8000;0.1563;1.0024;
293.1000;0.1604;1.0214;
293.4000;0.1644;1.0285;
293.7000;0.1628;1.0166;
294.0000;0.1644;1.0190;
294.3000;0.1628;1.0119;
294.6000;0.1628;1.0000;
294.9000;0.1595;0.9858;
295.2000;0.1620;0.9882;
295.5000;0.1636;0.9953;
295.8000;0.1644;1.0024;
296.1000;0.1620;0.9882;
296.4000;0.1628;0.9929;
296.7000;0.1595;0.9834;
297.0000;0.1604;0.9811;
297.3000;0.1612;0.9906;
297.6000;0.1604;0.9906;
297.9000;0.1636;0.9977;
298.2000;0.1636;0.9977;
298.5000;0.1620;0.9906;
298.8000;0.1620;0.9906;
299.1000;0.1620;0.9906;
299.4000;0.1620;0.9882;
299.7000;0.1620;0.9929;
300.0000;0.1644;0.9953;
300.3000;0.1604;0.9882;
300.6000;0.1620;0.9977;
300.9000;0.1612;1.0071;
301.2000;0.1604;1.0071;
301.5000;0.1563;0.9906;
301.8000;0.1604;0.9977;
302.1000;0.1620;0.9977;
302.4000;0.1620;1.0071;
302.7000;0.1595;0.9953;
303.0000;0.1612;0.9929;
303.3000;0.1595;1.0000;
303.6000;0.1604;1.0071;
303.9000;0.1620;1.0095;
304.2000;0.1628;1.0095;
304.5000;0.1636;1.0190;
304.8000;0.1604;1.0143;
305.1000;0.1612;1.0095;
305.4000;0.1628;1.0071;
305.7000;0.1644;1.0237;
306.0000;0.1636;1.0190;
306.3000;0.1628;1.0095;
306.6000;0.1628;1.0000;
306.9000;0.1677;1.0166;
307.2000;0.1604;0.9929;
307.5000;0.1612;0.9977;
307.8000;0.1612;1.0095;
308.1000;0.1636;1.0071;
308.4000;0.1612;1.0071;
308.7000;0.1620;1.0119;
309.0000;0.1628;1.0214;
309.3000;0.1620;1.0261;
309.6000;0.1604;1.0190;
309.9000;0.1612;1.0285;
310.2000;0.1620;1.0285;
310.5000;0.1595;1.0261;
310.8000;0.1604;1.0308;
311.1000;0.1644;1.0403;
311.4000;0.1595;1.0237;
311.7000;0.1604;1.0166;
312.0000;0.1587;1.0166;
312.3000;0.1604;1.0143;
312.6000;0.1604;1.0190;
312.9000;0.1612;1.0237;
313.2000;0.1612;1.0214;
313.5000;0.1620;1.0143;
313.8000;0.1620;1.0143;
314.1000;0.1628;1.0214;
314.4000;0.1620;1.0237;
314.7000;0.1612;1.0166;
315.0000;0.1677;1.0285;
315.3000;0.1620;1.0143;
315.6000;0.1612;1.0119;
315.9000;0.1612;1.0143;
316.2000;0.1620;1.0071;
316.5000;0.1604;1.0024;
316.8000;0.1620;1.0166;
317.1000;0.1612;1.0119;
317.4000;0.1612;1.0143;
317.7000;0.1604;1.0166;
318.0000;0.1620;1.0214;
318.3000;0.1628;1.0190;
318.6000;0.1652;1.0214;
318.9000;0.1620;1.0166;
319.2000;0.1620;1.0214;
319.5000;0.1636;1.0214;
319.8000;0.1628;1.0166;
320.1000;0.1620;1.0143;
320.4000;0.1636;1.0214;
320.7000;0.1636;1.0261;
321.0000;0.1612;1.0237;
321.3000;0.1628;1.0214;
321.6000;0.1636;1.0285;
321.9000;0.1604;1.0285;
322.2000;0.1636;1.0261;
322.5000;0.1612;1.0190;
322.8000;0.1612;1.0143;
323.1000;0.1620;1.0190;
323.4000;0.1612;1.0214;
323.7000;0.1620;1.0214;
324.0000;0.1612;1.0190;
324.3000;0.1612;1.0166;
324.6000;0.1604;1.0190;
324.9000;0.1628;1.0143;
325.2000;0.1620;1.0166;
325.5000;0.1628;1.0190;
325.8000;0.1644;1.0190;
326.1000;0.1628;1.0214;
326.4000;0.1595;1.0143;
326.7000;0.1652;1.0308;
327.0000;0.1604;1.0308;
327.3000;0.1612;1.0380;
327.6000;0.1612;1.0403;
327.9000;0.1563;1.0190;
328.2000;0.1612;1.0285;
328.5000;0.1620;1.0237;
328.8000;0.1628;1.0190;
329.1000;0.1644;1.0261;
329.4000;0.1620;1.0166;
329.7000;0.1628;1.0308;
330.0000;0.1620;1.0285;
330.3000;0.1595;1.0166;
330.6000;0.1620;1.0261;
330.9000;0.1595;1.0166;
331.2000;0.1628;1.0261;
331.5000;0.1628;1.0237;
331.8000;0.1620;1.0237;
332.1000;0.1669;1.0332;
332.4000;0.1620;1.0261;
332.7000;0.1612;1.0214;
333.0000;0.1620;1.0143;
333.3000;0.1612;1.0095;
333.6000;0.1579;1.0048;
333.9000;0.1612;1.0143;
334.2000;0.1620;1.0071;
334.5000;0.1612;1.0024;
334.8000;0.1612;1.0024;
335.1000;0.1628;1.0119;
335.4000;0.1620;1.0143;
335.7000;0.1628;1.0143;
336.0000;0.1636;1.0190;
336.3000;0.1604;1.0143;
336.6000;0.1604;1.0166;
336.9000;0.1628;1.0143;
337.2000;0.1612;1.0143;
337.5000;0.1612;1.0214;
337.8000;0.1620;1.0237;
338.1000;0.1612;1.0308;
338.4000;0.1612;1.0214;
338.7000;0.1620;1.0214;
339.0000;0.1628;1.0190;
339.3000;0.1604;1.0214;
339.6000;0.1612;1.0237;
339.9000;0.1612;1.0214;
340.2000;0.1620;1.0308;
340.5000;0.1612;1.0237;
340.8000;0.1669;1.0308;
341.1000;0.1636;1.0190;
341.4000;0.1628;1.0190;
341.7000;0.1620;1.0190;
342.0000;0.1636;1.0143;
342.3000;0.1604;1.0071;
342.6000;0.1620;1.0071;
342.9000;0.1628;1.0166;
343.2000;0.1612;1.0095;
343.5000;0.1612;1.0119;
343.8000;0.1587;1.0000;
344.1000;0.1636;1.0000;
344.4000;0.1612;0.9977;
344.7000;0.1628;1.0048;
345.0000;0.1628;0.9953;
345.3000;0.1620;0.9929;
345.6000;0.1620;0.9929;
345.9000;0.1628;0.9977;
346.2000;0.1636;1.0024;
346.5000;0.1718;1.0261;
346.8000;0.1628;1.0048;
347.1000;0.1644;1.0119;
347.4000;0.1571;0.9953;
347.7000;0.1595;1.0071;
348.0000;0.1612;1.0143;
348.3000;0.1644;1.0214;
348.6000;0.1620;1.0143;
348.9000;0.1685;1.0285;
349.2000;0.1677;1.0214;
349.5000;0.1612;1.0048;
349.8000;0.1555;0.9906;
350.1000;0.1604;1.0024;
350.4000;0.1612;1.0000;
350.7000;0.1628;1.0071;
351.0000;0.1612;0.9953;
351.3000;0.1538;0.9787;
351.6000;0.1595;0.9953;
351.9000;0.1636;1.0095;
352.2000;0.1652;1.0048;
352.5000;0.1612;1.0000;
352.8000;0.1604;1.0048;
353.1000;0.1628;1.0143;
353.4000;0.1595;1.0048;
353.7000;0.1612;0.9953;
354.0000;0.1612;0.9929;
354.3000;0.1612;0.9953;
354.6000;0.1644;1.0071;
354.9000;0.1604;1.0024;
355.2000;0.1620;1.0048;
355.5000;0.1620;1.0000;
355.8000;0.1612;1.0000;
356.1000;0.1620;0.9929;
356.4000;0.1604;0.9858;
356.7000;0.1620;0.9929;
357.0000;0.1644;0.9953;
357.3000;0.1604;0.9882;
357.6000;0.1587;0.9763;
357.9000;0.1644;0.9882;
358.2000;0.1587;0.9834;
358.5000;0.1612;0.9858;
358.8000;0.1620;0.9882;
359.1000;0.1612;0.9906;
359.4000;0.1620;0.9906;
359.7000;0.1620;0.9929;
360.0000;0.1604;0.9858;
360.3000;0.1628;1.0024;
360.6000;0.1604;0.9977;
360.9000;0.1595;0.9882;
361.2000;0.1620;0.9929;
361.5000;0.1604;0.9929;
361.8000;0.1595;0.9953;
362.1000;0.1604;0.9858;
362.4000;0.1612;0.9811;
362.7000;0.1604;0.9763;
363.0000;0.1620;0.9834;
363.3000;0.1628;0.9787;
363.6000;0.1620;0.9763;
363.9000;0.1628;0.9740;
364.2000;0.1620;0.9740;
364.5000;0.1620;0.9834;
364.8000;0.1628;0.9882;
365.1000;0.1620;0.9953;
365.4000;0.1595;0.9953;
365.7000;0.1620;1.0024;
366.0000;0.1628;0.9953;
366.3000;0.1636;1.0000;
366.6000;0.1587;0.9858;
366.9000;0.1644;1.0024;
367.2000;0.1604;0.9977;
367.5000;0.1595;1.0024;
367.8000;0.1685;1.0261;
368.1000;0.1612;1.0048;
368.4000;0.1587;0.9977;
368.7000;0.1604;1.0048;
369.0000;0.1628;1.0000;
369.3000;0.1604;0.9977;
369.6000;0.1628;1.0095;
369.9000;0.1652;1.0190;
370.2000;0.1636;1.0166;
370.5000;0.1620;1.0166;
370.8000;0.1595;1.0071;
371.1000;0.1628;1.0071;
371.4000;0.1685;1.0095;
371.7000;0.1620;0.9977;
372.0000;0.1669;1.0071;
372.3000;0.1595;0.9882;
372.6000;0.1628;0.9977;
372.9000;0.1636;1.0119;
373.2000;0.1652;1.0214;
373.5000;0.1604;1.0119;
373.8000;0.1595;1.0071;
374.1000;0.1579;1.0095;
374.4000;0.1612;1.0166;
374.7000;0.1604;1.0143;
375.0000;0.1595;1.0024;
375.3000;0.1612;1.0071;
375.6000;0.1620;1.0071;
375.9000;0.1604;1.0024;
376.2000;0.1620;1.0048;
376.5000;0.1620;1.0048;
376.8000;0.1620;1.0071;
377.1000;0.1604;1.0048;
377.4000;0.1604;1.0048;
377.7000;0.1620;1.0024;
378.0000;0.1620;1.0071;
378.3000;0.1612;0.9953;
378.6000;0.1604;0.9906;
378.9000;0.1669;1.0071;
379.2000;0.1620;0.9977;
379.5000;0.1612;0.9858;
379.8000;0.1595;0.9906;
380.1000;0.1620;0.9929;
380.4000;0.1620;0.9953;
380.7000;0.1628;0.9906;
381.0000;0.1628;0.9929;
381.3000;0.1620;0.9977;
381.6000;0.1620;1.0024;
381.9000;0.1612;1.0071;
382.2000;0.1538;0.9858;
382.5000;0.1595;0.9977;
382.8000;0.1636;1.0024;
383.1000;0.1579;0.9977;
383.4000;0.1612;1.0143;
383.7000;0.1612;1.0095;
384.0000;0.1620;1.0095;
384.3000;0.1612;1.0095;
384.6000;0.1612;1.0095;
384.9000;0.1604;1.0000;
385.2000;0.1612;0.9929;
385.5000;0.1587;0.9929;
385.8000;0.1628;0.9977;
386.1000;0.1612;0.9977;
386.4000;0.1612;1.0071;
386.7000;0.1628;1.0143;
387.0000;0.1620;1.0071;
387.3000;0.1604;1.0071;
387.6000;0.1587;1.0000;
387.9000;0.1555;0.9929;
388.2000;0.1620;1.0119;
388.5000;0.1604;1.0024;
388.8000;0.1661;1.0166;
389.1000;0.1620;1.0119;
389.4000;0.1612;1.0119;
389.7000;0.1620;1.0071;
390.0000;0.1669;1.0261;
390.3000;0.1587;1.0095;
390.6000;0.1669;1.0261;
390.9000;0.1620;1.0071;
391.2000;0.1612;1.0071;
391.5000;0.1677;1.0143;
391.8000;0.1612;1.0048;
392.1000;0.1620;1.0048;
392.4000;0.1620;1.0024;
392.7000;0.1612;1.0000;
393.0000;0.1644;1.0119;
393.3000;0.1628;1.0119;
393.6000;0.1612;1.0024;
393.9000;0.1644;1.0095;
394.2000;0.1636;1.0119;
394.5000;0.1579;1.0000;
394.8000;0.1604;1.0071;
395.1000;0.1612;1.0048;
395.4000;0.1628;1.0095;
395.7000;0.1628;1.0143;
396.0000;0.1628;1.0119;
396.3000;0.1628;1.0095;
396.6000;0.1612;1.0000;
396.9000;0.1595;0.9977;
397.2000;0.1620;1.0143;
397.5000;0.1612;1.0119;
397.8000;0.1612;1.0048;
398.1000;0.1595;1.0048;
398.4000;0.1636;1.0071;
398.7000;0.1644;1.0095;
399.0000;0.1604;1.0071;
399.3000;0.1555;0.9953;
399.6000;0.1620;1.0071;
399.9000;0.1604;1.0048;
400.2000;0.1612;1.0048;
400.5000;0.1604;1.0048;
400.8000;0.1628;1.0000;
401.1000;0.1758;1.0261;
401.4000;0.1628;0.9906;
401.7000;0.1612;0.9858;
402.0000;0.1604;0.9834;
402.3000;0.1579;0.9834;
402.6000;0.1604;0.9858;
402.9000;0.1595;0.9858;
403.2000;0.1595;0.9858;
403.5000;0.1604;0.9929;
403.8000;0.1604;0.9977;
404.1000;0.1612;1.0071;
404.4000;0.1620;1.0190;
404.7000;0.1636;1.0214;
405.0000;0.1628;1.0166;
405.3000;0.1604;1.0119;
405.6000;0.1612;1.0095;
405.9000;0.1620;1.0143;
406.2000;0.1620;1.0143;
406.5000;0.1644;1.0214;
406.8000;0.1636;1.0166;
407.1000;0.1547;0.9882;
407.4000;0.1620;1.0048;
407.7000;0.1636;0.9906;
408.0000;0.1620;0.9858;
408.3000;0.1628;0.9882;
408.6000;0.1620;0.9858;
408.9000;0.1652;1.0000;
409.2000;0.1628;1.0024;
409.5000;0.1612;0.9953;
409.8000;0.1628;0.9977;
410.1000;0.1636;1.0024;
410.4000;0.1612;1.0048;
410.7000;0.1612;1.0000;
411.0000;0.1644;1.0095;
411.3000;0.1620;1.0071;
411.6000;0.1661;1.0095;
411.9000;0.1644;1.0119;
412.2000;0.1612;1.0071;
412.5000;0.1620;1.0071;
412.8000;0.1652;1.0166;
413.1000;0.1620;1.0190;
413.4000;0.1628;1.0071;
413.7000;0.1628;1.0000;
414.0000;0.1620;1.0000;
414.3000;0.1628;1.0000;
414.6000;0.1571;0.9882;
414.9000;0.1620;1.0071;
415.2000;0.1628;1.0119;
415.5000;0.1620;1.0048;
415.8000;0.1612;1.0024;
416.1000;0.1612;1.0000;
416.4000;0.1701;1.0237;
416.7000;0.1628;1.0024;
417.0000;0.1628;1.0024;
417.3000;0.1612;0.9953;
417.6000;0.1604;0.9977;
417.9000;0.1620;1.0000;
418.2000;0.1628;1.0024;
418.5000;0.1628;0.9977;
418.8000;0.1628;1.0000;
419.1000;0.1612;1.0024;
419.4000;0.1620;1.0095;
419.7000;0.1628;1.0143;
420.0000;0.1620;1.0071;
420.3000;0.1604;1.0071;
420.6000;0.1628;1.0190;
420.9000;0.1555;1.0048;
421.2000;0.1604;1.0166;
421.5000;0.1612;1.0190;
421.8000;0.1620;1.0166;
422.1000;0.1571;1.0024;
422.4000;0.1612;1.0071;
422.7000;0.1604;1.0095;
423.0000;0.1563;0.9977;
423.3000;0.1620;1.0024;
423.6000;0.1595;1.0024;
423.9000;0.1595;1.0000;
424.2000;0.1604;1.0048;
424.5000;0.1612;1.0071;
424.8000;0.1604;1.0166;
425.1000;0.1604;1.0261;
425.4000;0.1612;1.0237;
425.7000;0.1628;1.0285;
426.0000;0.1620;1.0308;
426.3000;0.1612;1.0332;
426.6000;0.1604;1.0308;
426.9000;0.1604;1.0285;
427.2000;0.1628;1.0308;
427.5000;0.1604;1.0166;
427.8000;0.1604;1.0119;
428.1000;0.1612;1.0190;
428.4000;0.1612;1.0166;
428.7000;0.1604;1.0166;
429.0000;0.1644;1.0261;
429.3000;0.1612;1.0119;
429.6000;0.1604;1.0071;
429.9000;0.1628;1.0190;
430.2000;0.1604;1.0261;
430.5000;0.1587;1.0285;
430.8000;0.1620;1.0190;
431.1000;0.1636;1.0119;
431.4000;0.1620;1.0119;
431.7000;0.1628;1.0166;
432.0000;0.1628;1.0190;
432.3000;0.1636;1.0190;
432.6000;0.1579;1.0143;
432.9000;0.1604;1.0214;
433.2000;0.1612;1.0166;
433.5000;0.1620;1.0143;
433.8000;0.1604;1.0048;
434.1000;0.1620;0.9953;
434.4000;0.1628;1.0048;
434.7000;0.1612;0.9953;
435.0000;0.1612;0.9906;
435.3000;0.1612;0.9882;
435.6000;0.1604;0.9906;
435.9000;0.1677;1.0214;
436.2000;0.1620;1.0000;
436.5000;0.1604;0.9906;
436.8000;0.1604;0.9882;
437.1000;0.1612;0.9929;
437.4000;0.1628;0.9977;
437.7000;0.1620;0.9929;
438.0000;0.1620;1.0048;
438.3000;0.1628;1.0048;
438.6000;0.1612;1.0048;
438.9000;0.1587;0.9953;
439.2000;0.1612;1.0048;
439.5000;0.1595;1.0048;
439.8000;0.1620;1.0095;
440.1000;0.1636;1.0143;
440.4000;0.1620;1.0190;
440.7000;0.1604;1.0143;
441.0000;0.1636;1.0166;
441.3000;0.1644;1.0143;
441.6000;0.1604;1.0048;
441.9000;0.1636;1.0095;
442.2000;0.1620;1.0024;
442.5000;0.1604;1.0095;
442.8000;0.1620;1.0166;
443.1000;0.1612;1.0143;
443.4000;0.1587;1.0095;
443.7000;0.1620;1.0119;
444.0000;0.1555;1.0000;
444.3000;0.1579;1.0143;
444.6000;0.1604;1.0214;
444.9000;0.1547;1.0119;
445.2000;0.1661;1.0427;
445.5000;0.1587;1.0214;
445.8000;0.1555;1.0119;
446.1000;0.1604;1.0119;
446.4000;0.1620;1.0048;
446.7000;0.1563;0.9882;
447.0000;0.1612;0.9953;
447.3000;0.1612;0.9953;
447.6000;0.1628;0.9977;
447.9000;0.1636;0.9977;
448.2000;0.1620;1.0048;
448.5000;0.1628;1.0048;
448.8000;0.1636;1.0166;
449.1000;0.1628;1.0190;
449.4000;0.1677;1.0356;
449.7000;0.1612;1.0143;
450.0000;0.1628;1.0071;
450.3000;0.1644;1.0048;
450.6000;0.1652;1.0095;
450.9000;0.1612;1.0048;
451.2000;0.1612;1.0048;
451.5000;0.1636;1.0071;
451.8000;0.1612;1.0000;
452.1000;0.1620;1.0024;
452.4000;0.1604;1.0024;
452.7000;0.1620;1.0024;
453.0000;0.1628;1.0095;
453.3000;0.1628;1.0048;
453.6000;0.1612;0.9977;
453.9000;0.1644;1.0071;
454.2000;0.1644;1.0166;
454.5000;0.1628;1.0214;
454.8000;0.1612;1.0095;
455.1000;0.1628;1.0119;
455.4000;0.1628;1.0166;
455.7000;0.1620;1.0166;
456.0000;0.1636;1.0237;
456.3000;0.1604;1.0214;
456.6000;0.1612;1.0214;
456.9000;0.1644;1.0261;
457.2000;0.1620;1.0285;
457.5000;0.1612;1.0214;
457.8000;0.1612;1.0143;
458.1000;0.1612;1.0119;
458.4000;0.1612;1.0166;
458.7000;0.1595;1.0237;
459.0000;0.1604;1.0237;
459.3000;0.1612;1.0285;
459.6000;0.1620;1.0332;
459.9000;0.1612;1.0261;
460.2000;0.1604;1.0308;
460.5000;0.1620;1.0356;
460.8000;0.1514;1.0095;
461.1000;0.1612;1.0332;
461.4000;0.1652;1.0498;
461.7000;0.1620;1.0403;
462.0000;0.1677;1.0545;
462.3000;0.1620;1.0427;
462.6000;0.1612;1.0308;
462.9000;0.1604;1.0308;
463.2000;0.1628;1.0356;
463.5000;0.1612;1.0332;
463.8000;0.1612;1.0332;
464.1000;0.1644;1.0356;
464.4000;0.1636;1.0332;
464.7000;0.1636;1.0285;
465.0000;0.1587;1.0119;
465.3000;0.1620;1.0143;
465.6000;0.1620;1.0119;
465.9000;0.1595;1.0024;
466.2000;0.1636;1.0119;
466.5000;0.1620;1.0119;
466.8000;0.1636;1.0119;
467.1000;0.1644;1.0119;
467.4000;0.1612;1.0071;
467.7000;0.1595;0.9953;
468.0000;0.1620;1.0024;
468.3000;0.1620;1.0119;
468.6000;0.1612;1.0190;
468.9000;0.1604;1.0166;
469.2000;0.1555;1.0000;
469.5000;0.1612;1.0048;
469.8000;0.1612;1.0024;
470.1000;0.1612;0.9929;
470.4000;0.1595;0.9929;
470.7000;0.1620;0.9906;
471.0000;0.1693;1.0071;
471.3000;0.1547;0.9740;
471.6000;0.1620;0.9906;
471.9000;0.1612;0.9906;
472.2000;0.1620;0.9858;
472.5000;0.1612;0.9929;
472.8000;0.1628;1.0024;
473.1000;0.1604;1.0095;
473.4000;0.1612;1.0190;
473.7000;0.1628;1.0237;
474.0000;0.1612;1.0214;
474.3000;0.1636;1.0261;
474.6000;0.1620;1.0166;
474.9000;0.1620;1.0166;
475.2000;0.1595;1.0071;
475.5000;0.1628;1.0119;
475.8000;0.1636;1.0071;
476.1000;0.1677;1.0095;
476.4000;0.1636;1.0071;
476.7000;0.1628;1.0071;
477.0000;0.1620;1.0071;
477.3000;0.1636;1.0143;
477.6000;0.1563;0.9977;
477.9000;0.1620;1.0071;
478.2000;0.1587;1.0024;
478.5000;0.1612;1.0000;
478.8000;0.1620;1.0048;
479.1000;0.1620;1.0119;
479.4000;0.1604;1.0166;
479.7000;0.1652;1.0285;
480.0000;0.1636;1.0190;
480.3000;0.1644;1.0095;
480.6000;0.1595;1.0095;
480.9000;0.1612;1.0143;
481.2000;0.1636;1.0119;
481.5000;0.1628;1.0048;
481.8000;0.1628;1.0024;
482.1000;0.1620;1.0024;
482.4000;0.1620;1.0000;
482.7000;0.1652;1.0048;
483.0000;0.1644;1.0119;
483.3000;0.1604;1.0024;
483.6000;0.1587;1.0000;
483.9000;0.1628;1.0048;
484.2000;0.1628;1.0024;
484.5000;0.1628;0.9953;
484.8000;0.1547;0.9858;
485.1000;0.1636;1.0095;
485.4000;0.1652;1.0190;
485.7000;0.1644;1.0119;
486.0000;0.1628;1.0071;
486.3000;0.1620;1.0166;
486.6000;0.1604;1.0119;
486.9000;0.1547;0.9929;
487.2000;0.1612;1.0119;
487.5000;0.1604;1.0143;
487.8000;0.1620;1.0190;
488.1000;0.1612;1.0214;
488.4000;0.1612;1.0119;
488.7000;0.1612;1.0071;
489.0000;0.1595;1.0095;
489.3000;0.1604;1.0237;
489.6000;0.1612;1.0143;
489.9000;0.1612;1.0071;
490.2000;0.1604;1.0071;
490.5000;0.1628;1.0095;
490.8000;0.1636;1.0071;
491.1000;0.1612;0.9977;
491.4000;0.1620;1.0000;
491.7000;0.1595;1.0000;
492.0000;0.1587;0.9977;
492.3000;0.1628;1.0048;
492.6000;0.1620;1.0024;
492.9000;0.1620;1.0024;
493.2000;0.1612;1.0000;
493.5000;0.1636;1.0071;
493.8000;0.1612;1.0048;
494.1000;0.1563;0.9929;
494.4000;0.1612;1.0024;
494.7000;0.1685;1.0166;
495.0000;0.1571;0.9811;
495.3000;0.1604;0.9882;
495.6000;0.1612;0.9929;
495.9000;0.1612;0.9929;
496.2000;0.1595;0.9858;
496.5000;0.1612;0.9906;
496.8000;0.1612;0.9977;
497.1000;0.1612;0.9953;
497.4000;0.1628;1.0000;
497.7000;0.1604;0.9906;
498.0000;0.1595;0.9834;
498.3000;0.1612;0.9858;
498.6000;0.1604;0.9882;
498.9000;0.1620;0.9906;
499.2000;0.1661;1.0024;
499.5000;0.1595;0.9858;
499.8000;0.1612;0.9929;
500.1000;0.1669;1.0048;
500.4000;0.1612;0.9953;
500.7000;0.1612;0.9977;
501.0000;0.1669;1.0166;
501.3000;0.1595;1.0024;
501.6000;0.1612;1.0095;
501.9000;0.1604;1.0071;
502.2000;0.1652;1.0190;
502.5000;0.1620;1.0071;
502.8000;0.1612;1.0095;
503.1000;0.1636;1.0166;
503.4000;0.1628;1.0119;
503.7000;0.1595;1.0095;
504.0000;0.1604;1.0119;
504.3000;0.1636;1.0166;
504.6000;0.1677;1.0214;
504.9000;0.1620;1.0048;
505.2000;0.1644;1.0143;
505.5000;0.1620;1.0143;
505.8000;0.1587;1.0024;
506.1000;0.1644;1.0190;
506.4000;0.1652;1.0143;
506.7000;0.1628;1.0071;
507.0000;0.1628;1.0024;
507.3000;0.1595;0.9929;
507.6000;0.1604;1.0000;
507.9000;0.1538;0.9834;
508.2000;0.1579;1.0024;
508.5000;0.1628;1.0048;
508.8000;0.1620;1.0048;
509.1000;0.1628;0.9977;
509.4000;0.1620;0.9953;
509.7000;0.1628;1.0048;
510.0000;0.1620;1.0024;
510.3000;0.1628;1.0095;
510.6000;0.1620;1.0119;
510.9000;0.1620;1.0048;
511.2000;0.1628;1.0095;
511.5000;0.1612;1.0048;
511.8000;0.1628;1.0000;
512.1000;0.1620;1.0048;
512.4000;0.1620;0.9977;
512.7000;0.1620;1.0000;
513.0000;0.1612;1.0024;
513.3000;0.1620;1.0024;
513.6000;0.1636;1.0071;
513.9000;0.1628;1.0095;
514.2000;0.1612;1.0048;
514.5000;0.1620;1.0048;
514.8000;0.1636;1.0048;
515.1000;0.1644;1.0048;
515.4000;0.1628;1.0024;
515.7000;0.1612;1.0000;
516.0000;0.1620;1.0048;
516.3000;0.1620;1.0048;
516.6000;0.1628;1.0048;
516.9000;0.1620;1.0000;
517.2000;0.1620;1.0024;
517.5000;0.1644;1.0143;
517.8000;0.1628;1.0071;
518.1000;0.1636;1.0143;
518.4000;0.1595;1.0071;
518.7000;0.1612;1.0119;
519.0000;0.1644;1.0237;
519.3000;0.1587;1.0119;
519.6000;0.1604;1.0166;
519.9000;0.1587;1.0095;
520.2000;0.1628;1.0166;
520.5000;0.1595;1.0071;
520.8000;0.1612;1.0071;
521.1000;0.1628;1.0071;
521.4000;0.1620;1.0071;
521.7000;0.1612;1.0095;
522.0000;0.1620;1.0285;
522.3000;0.1628;1.0356;
522.6000;0.1628;1.0356;
522.9000;0.1612;1.0237;
523.2000;0.1587;1.0095;
523.5000;0.1579;1.0000;
523.8000;0.1612;1.0024;
524.1000;0.1620;1.0048;
524.4000;0.1620;1.0048;
524.7000;0.1612;1.0048;
525.0000;0.1620;1.0000;
525.3000;0.1628;0.9953;
525.6000;0.1620;0.9906;
525.9000;0.1636;0.9953;
526.2000;0.1620;0.9953;
526.5000;0.1612;0.9929;
526.8000;0.1628;0.9953;
527.1000;0.1612;0.9929;
527.4000;0.1612;1.0048;
527.7000;0.1620;1.0119;
528.0000;0.1628;1.0166;
528.3000;0.1620;1.0119;
528.6000;0.1628;1.0143;
528.9000;0.1612;1.0190;
529.2000;0.1620;1.0237;
529.5000;0.1620;1.0285;
529.8000;0.1620;1.0308;
530.1000;0.1612;1.0308;
530.4000;0.1612;1.0285;
530.7000;0.1628;1.0308;
531.0000;0.1604;1.0261;
531.3000;0.1612;1.0143;
531.6000;0.1636;1.0190;
531.9000;0.1612;1.0190;
532.2000;0.1620;1.0261;
532.5000;0.1628;1.0285;
532.8000;0.1595;1.0214;
533.1000;0.1636;1.0261;
533.4000;0.1636;1.0285;
533.7000;0.1628;1.0285;
534.0000;0.1604;1.0166;
534.3000;0.1595;1.0071;
534.6000;0.1612;1.0071;
534.9000;0.1620;1.0071;
535.2000;0.1620;1.0095;
535.5000;0.1595;1.0071;
535.8000;0.1612;1.0095;
536.1000;0.1579;1.0024;
536.4000;0.1620;1.0048;
536.7000;0.1604;1.0000;
537.0000;0.1628;1.0024;
537.3000;0.1620;1.0071;
537.6000;0.1620;1.0119;
537.9000;0.1652;1.0261;
538.2000;0.1620;1.0214;
538.5000;0.1636;1.0237;
538.8000;0.1620;1.0166;
539.1000;0.1620;1.0143;
539.4000;0.1620;1.0285;
539.7000;0.1612;1.0285;
540.0000;0.1620;1.0261;
540.3000;0.1595;1.0261;
540.6000;0.1604;1.0285;
540.9000;0.1620;1.0308;
541.2000;0.1612;1.0332;
541.5000;0.1620;1.0308;
541.8000;0.1612;1.0237;
542.1000;0.1604;1.0166;
542.4000;0.1612;1.0214;
542.7000;0.1612;1.0261;
543.0000;0.1595;1.0166;
543.3000;0.1620;1.0166;
543.6000;0.1620;1.0095;
543.9000;0.1612;1.0071;
544.2000;0.1604;1.0071;
544.5000;0.1636;1.0071;
544.8000;0.1677;1.0166;
545.1000;0.1620;0.9977;
545.4000;0.1620;0.9953;
545.7000;0.1604;0.9906;
546.0000;0.1661;0.9977;
546.3000;0.1563;0.9763;
546.6000;0.1620;0.9929;
546.9000;0.1612;1.0000;
547.2000;0.1628;1.0095;
547.5000;0.1628;1.0166;
547.8000;0.1612;1.0261;
548.1000;0.1612;1.0261;
548.4000;0.1604;1.0285;
548.7000;0.1620;1.0237;
549.0000;0.1620;1.0237;
549.3000;0.1620;1.0237;
549.6000;0.1612;1.0308;
549.9000;0.1604;1.0214;
550.2000;0.1604;1.0214;
550.5000;0.1612;1.0237;
550.8000;0.1612;1.0166;
551.1000;0.1604;1.0190;
551.4000;0.1644;1.0261;
551.7000;0.1604;1.0285;
552.0000;0.1612;1.0308;
552.3000;0.1612;1.0332;
552.6000;0.1612;1.0308;
552.9000;0.1612;1.0261;
553.2000;0.1612;1.0190;
553.5000;0.1628;1.0143;
553.8000;0.1579;1.0048;
554.1000;0.1628;1.0143;
554.4000;0.1604;1.0071;
554.7000;0.1628;1.0143;
555.0000;0.1612;1.0095;
555.3000;0.1612;1.0095;
555.6000;0.1612;1.0024;
555.9000;0.1620;1.0071;
556.2000;0.1636;1.0143;
556.5000;0.1612;1.0166;
556.8000;0.1628;1.0190;
557.1000;0.1612;1.0214;
557.4000;0.1612;1.0214;
557.7000;0.1628;1.0190;
558.0000;0.1636;1.0237;
558.3000;0.1620;1.0095;
558.6000;0.1555;0.9977;
558.9000;0.1612;1.0214;
559.2000;0.1636;1.0261;
559.5000;0.1620;1.0261;
559.8000;0.1628;1.0143;
560.1000;0.1652;1.0261;
560.4000;0.1604;1.0190;
560.7000;0.1620;1.0237;
561.0000;0.1620;1.0261;
561.3000;0.1620;1.0261;
561.6000;0.1612;1.0190;
561.9000;0.1628;1.0237;
562.2000;0.1612;1.0261;
562.5000;0.1547;1.0024;
562.8000;0.1612;1.0190;
563.1000;0.1612;1.0308;
563.4000;0.1628;1.0308;
563.7000;0.1538;1.0000;
564.0000;0.1620;1.0237;
564.3000;0.1652;1.0308;
564.6000;0.1612;1.0261;
564.9000;0.1595;1.0214;
565.2000;0.1595;1.0166;
565.5000;0.1612;1.0285;
565.8000;0.1612;1.0332;
566.1000;0.1620;1.0261;
566.4000;0.1612;1.0237;
566.7000;0.1628;1.0237;
567.0000;0.1628;1.0380;
567.3000;0.1612;1.0332;
567.6000;0.1604;1.0285;
567.9000;0.1595;1.0332;
568.2000;0.1604;1.0261;
568.5000;0.1612;1.0261;
568.8000;0.1620;1.0237;
569.1000;0.1620;1.0237;
569.4000;0.1612;1.0166;
569.7000;0.1628;1.0143;
570.0000;0.1628;1.0095;
570.3000;0.1612;1.0071;
570.6000;0.1620;1.0071;
570.9000;0.1620;1.0143;
571.2000;0.1579;1.0071;
571.5000;0.1620;1.0214;
571.8000;0.1595;1.0119;
572.1000;0.1612;1.0119;
572.4000;0.1612;1.0119;
572.7000;0.1644;1.0095;
573.0000;0.1612;1.0000;
573.3000;0.1628;1.0024;
573.6000;0.1604;0.9977;
573.9000;0.1620;1.0048;
574.2000;0.1604;1.0000;
574.5000;0.1636;1.0095;
574.8000;0.1620;1.0071;
575.1000;0.1620;1.0048;
575.4000;0.1612;0.9977;
575.7000;0.1628;0.9977;
576.0000;0.1579;0.9953;
576.3000;0.1620;1.0024;
576.6000;0.1563;0.9882;
576.9000;0.1628;1.0000;
577.2000;0.1620;0.9953;
577.5000;0.1612;0.9906;
577.8000;0.1587;0.9929;
578.1000;0.1595;1.0024;
578.4000;0.1604;1.0000;
578.7000;0.1661;1.0166;
579.0000;0.1612;1.0071;
579.3000;0.1604;1.0048;
579.6000;0.1612;1.0071;
579.9000;0.1628;1.0143;
580.2000;0.1620;1.0119;
580.5000;0.1612;1.0119;
580.8000;0.1612;1.0095;
581.1000;0.1628;1.0071;
581.4000;0.1644;1.0071;
581.7000;0.1620;1.0048;
582.0000;0.1628;1.0071;
582.3000;0.1620;1.0166;
582.6000;0.1620;1.0143;
582.9000;0.1579;1.0071;
583.2000;0.1604;1.0071;
583.5000;0.1636;1.0143;
583.8000;0.1628;1.0143;
584.1000;0.1628;1.0237;
584.4000;0.1604;1.0143;
584.7000;0.1628;1.0285;
585.0000;0.1661;1.0403;
585.3000;0.1563;1.0214;
585.6000;0.1612;1.0332;
585.9000;0.1620;1.0308;
586.2000;0.1628;1.0285;
586.5000;0.1620;1.0332;
586.8000;0.1620;1.0308;
587.1000;0.1595;1.0285;
587.4000;0.1628;1.0237;
587.7000;0.1604;1.0237;
588.0000;0.1652;1.0356;
588.3000;0.1620;1.0261;
588.6000;0.1604;1.0285;
588.9000;0.1604;1.0285;
589.2000;0.1579;1.0261;
589.5000;0.1563;1.0143;
589.8000;0.1604;1.0143;
590.1000;0.1652;1.0261;
590.4000;0.1620;1.0237;
590.7000;0.1595;1.0285;
591.0000;0.1612;1.0308;
591.3000;0.1612;1.0237;
591.6000;0.1571;1.0214;
591.9000;0.1628;1.0356;
592.2000;0.1612;1.0214;
592.5000;0.1636;1.0261;
592.8000;0.1620;1.0261;
593.1000;0.1620;1.0190;
593.4000;0.1604;1.0095;
593.7000;0.1604;1.0095;
594.0000;0.1595;1.0071;
594.3000;0.1636;1.0190;
594.6000;0.1628;1.0237;
594.9000;0.1620;1.0190;
595.2000;0.1612;1.0190;
595.5000;0.1604;1.0095;
595.8000;0.1620;1.0024;
596.1000;0.1620;1.0048;
596.4000;0.1661;1.0261;
596.7000;0.1612;1.0119;
597.0000;0.1620;1.0166;
597.3000;0.1628;1.0308;
597.6000;0.1595;1.0380;
597.9000;0.1604;1.0356;
598.2000;0.1628;1.0332;
598.5000;0.1612;1.0261;
598.8000;0.1628;1.0261;
599.1000;0.1604;1.0119;
599.4000;0.1604;1.0048;
599.7000;0.1652;1.0071;
600.0000;0.1595;0.9953;
600.3000;0.1604;0.9929;
600.6000;0.1587;0.9882;
600.9000;0.1587;0.9882;
601.2000;0.1587;0.9740;
601.5000;0.1579;0.9669;
601.8000;0.1636;0.9669;
602.1000;0.1563;0.9455;
602.4000;0.1555;0.9408;
602.7000;0.1555;0.9361;
603.0000;0.1571;0.9289;
603.3000;0.1547;0.9218;
603.6000;0.1522;0.9218;
603.9000;0.1530;0.9242;
604.2000;0.1514;0.9124;
604.5000;0.1498;0.9076;
604.8000;0.1498;0.8981;
605.1000;0.1490;0.8887;
605.4000;0.1481;0.8792;
605.7000;0.1473;0.8768;
606.0000;0.1433;0.8721;
606.3000;0.1449;0.8839;
606.6000;0.1457;0.8815;
606.9000;0.1457;0.8863;
607.2000;0.1457;0.8863;
607.5000;0.1449;0.8744;
607.8000;0.1441;0.8792;
608.1000;0.1449;0.8863;
608.4000;0.1441;0.8863;
608.7000;0.1441;0.8839;
609.0000;0.1425;0.8792;
609.3000;0.1433;0.8721;
609.6000;0.1433;0.8721;
609.9000;0.1425;0.8721;
610.2000;0.1400;0.8602;
610.5000;0.1384;0.8579;
610.8000;0.1425;0.8697;
611.1000;0.1449;0.8721;
611.4000;0.1376;0.8602;
611.7000;0.1376;0.8555;
612.0000;0.1416;0.8579;
612.3000;0.1384;0.8507;
612.6000;0.1392;0.8531;
612.9000;0.1392;0.8507;
613.2000;0.1408;0.8507;
613.5000;0.1392;0.8389;
613.8000;0.1351;0.8270;
614.1000;0.1416;0.8413;
614.4000;0.1376;0.8318;
614.7000;0.1351;0.8413;
615.0000;0.1384;0.8579;
615.3000;0.1376;0.8579;
615.6000;0.1376;0.8650;
615.9000;0.1376;0.8602;
616.2000;0.1319;0.8389;
616.5000;0.1368;0.8484;
616.8000;0.1351;0.8555;
617.1000;0.1359;0.8531;
617.4000;0.1351;0.8555;
617.7000;0.1343;0.8579;
618.0000;0.1262;0.8342;
618.3000;0.1343;0.8507;
618.6000;0.1368;0.8602;
618.9000;0.1376;0.8626;
619.2000;0.1376;0.8650;
619.5000;0.1343;0.8531;
619.8000;0.1343;0.8579;
620.1000;0.1351;0.8650;
620.4000;0.1343;0.8602;
620.7000;0.1335;0.8555;
621.0000;0.1335;0.8626;
621.3000;0.1351;0.8602;
621.6000;0.1343;0.8650;
621.9000;0.1335;0.8626;
622.2000;0.1327;0.8555;
622.5000;0.1327;0.8602;
622.8000;0.1335;0.8555;
623.1000;0.1327;0.8460;
623.4000;0.1327;0.8460;
623.7000;0.1302;0.8507;
624.0000;0.1262;0.8413;
624.3000;0.1319;0.8460;
624.6000;0.1327;0.8436;
624.9000;0.1359;0.8555;
625.2000;0.1319;0.8436;
625.5000;0.1335;0.8413;
625.8000;0.1319;0.8389;
626.1000;0.1319;0.8389;
626.4000;0.1311;0.8484;
626.7000;0.1311;0.8579;
627.0000;0.1311;0.8531;
627.3000;0.1311;0.8531;
627.6000;0.1278;0.8531;
627.9000;0.1294;0.8531;
628.2000;0.1302;0.8579;
628.5000;0.1302;0.8484;
628.8000;0.1294;0.8460;
629.1000;0.1286;0.8413;
629.4000;0.1286;0.8365;
629.7000;0.1286;0.8318;
630.0000;0.1278;0.8342;
630.3000;0.1286;0.8342;
630.6000;0.1286;0.8342;
630.9000;0.1278;0.8270;
631.2000;0.1278;0.8247;
631.5000;0.1270;0.8294;
631.8000;0.1278;0.8342;
632.1000;0.1229;0.8270;
632.4000;0.1270;0.8436;
632.7000;0.1262;0.8342;
633.0000;0.1278;0.8342;
633.3000;0.1270;0.8270;
633.6000;0.1254;0.8247;
633.9000;0.1311;0.8342;
634.2000;0.1278;0.8389;
634.5000;0.1262;0.8342;
634.8000;0.1270;0.8413;
635.1000;0.1254;0.8413;
635.4000;0.1270;0.8389;
635.7000;0.1270;0.8318;
636.0000;0.1270;0.8294;
636.3000;0.1262;0.8389;
636.6000;0.1270;0.8436;
636.9000;0.1270;0.8460;
637.2000;0.1254;0.8413;
637.5000;0.1245;0.8460;
637.8000;0.1270;0.8507;
638.1000;0.1237;0.8365;
638.4000;0.1188;0.8270;
638.7000;0.1254;0.8531;
639.0000;0.1254;0.8531;
639.3000;0.1245;0.8484;
639.6000;0.1262;0.8413;
639.9000;0.1286;0.8460;
640.2000;0.1188;0.8294;
640.5000;0.1254;0.8436;
640.8000;0.1254;0.8436;
641.1000;0.1262;0.8389;
641.4000;0.1237;0.8389;
641.7000;0.1197;0.8294;
642.0000;0.1270;0.8555;
642.3000;0.1245;0.8507;
642.6000;0.1245;0.8555;
642.9000;0.1188;0.8318;
643.2000;0.1237;0.8484;
643.5000;0.1180;0.8365;
643.8000;0.1237;0.8436;
644.1000;0.1229;0.8436;
644.4000;0.1245;0.8389;
644.7000;0.1237;0.8413;
645.0000;0.1237;0.8436;
645.3000;0.1237;0.8365;
645.6000;0.1237;0.8389;
645.9000;0.1229;0.8460;
646.2000;0.1254;0.8507;
646.5000;0.1221;0.8531;
646.8000;0.1229;0.8555;
647.1000;0.1237;0.8579;
647.4000;0.1254;0.8697;
647.7000;0.1237;0.8650;
648.0000;0.1229;0.8650;
648.3000;0.1229;0.8602;
648.6000;0.1237;0.8626;
648.9000;0.1229;0.8484;
649.2000;0.1205;0.8318;
649.5000;0.1221;0.8389;
649.8000;0.1229;0.8413;
650.1000;0.1245;0.8484;
650.4000;0.1221;0.8389;
650.7000;0.1229;0.8389;
651.0000;0.1221;0.8413;
651.3000;0.1237;0.8436;
651.6000;0.1229;0.8436;
651.9000;0.1213;0.8365;
652.2000;0.1229;0.8389;
652.5000;0.1229;0.8318;
652.8000;0.1229;0.8294;
653.1000;0.1197;0.8318;
653.4000;0.1229;0.8484;
653.7000;0.1237;0.8484;
654.0000;0.1221;0.8413;
654.3000;0.1229;0.8413;
654.6000;0.1213;0.8413;
654.9000;0.1221;0.8389;
655.2000;0.1213;0.8436;
655.5000;0.1205;0.8365;
655.8000;0.1205;0.8413;
656.1000;0.1205;0.8436;
656.4000;0.1229;0.8436;
656.7000;0.1221;0.8413;
657.0000;0.1188;0.8318;
657.3000;0.1221;0.8365;
657.6000;0.1213;0.8389;
657.9000;0.1205;0.8318;
658.2000;0.1205;0.8389;
658.5000;0.1197;0.8342;
658.8000;0.1197;0.8342;
659.1000;0.1172;0.8199;
659.4000;0.1213;0.8247;
659.7000;0.1188;0.8199;
660.0000;0.1205;0.8318;
660.3000;0.1229;0.8413;
660.6000;0.1197;0.8342;
660.9000;0.1188;0.8318;
661.2000;0.1197;0.8270;
661.5000;0.1205;0.8318;
661.8000;0.1213;0.8342;
662.1000;0.1188;0.8176;
662.4000;0.1213;0.8199;
662.7000;0.1188;0.8128;
663.0000;0.1197;0.8128;
663.3000;0.1180;0.8128;
663.6000;0.1188;0.8223;
663.9000;0.1197;0.8247;
664.2000;0.1197;0.8176;
664.5000;0.1229;0.8223;
664.8000;0.1197;0.8152;
665.1000;0.1197;0.8199;
665.4000;0.1213;0.8176;
665.7000;0.1205;0.8318;
666.0000;0.1197;0.8270;
666.3000;0.1197;0.8270;
666.6000;0.1205;0.8365;
666.9000;0.1180;0.8318;
667.2000;0.1188;0.8389;
667.5000;0.1245;0.8579;
667.8000;0.1188;0.8460;
668.1000;0.1180;0.8389;
668.4000;0.1205;0.8460;
668.7000;0.1180;0.8413;
669.0000;0.1188;0.8342;
669.3000;0.1205;0.8389;
669.6000;0.1188;0.8342;
669.9000;0.1197;0.8294;
670.2000;0.1205;0.8342;
670.5000;0.1213;0.8413;
670.8000;0.1213;0.8460;
671.1000;0.1197;0.8389;
671.4000;0.1148;0.8342;
671.7000;0.1172;0.8436;
672.0000;0.1172;0.8436;
672.3000;0.1131;0.8342;
672.6000;0.1188;0.8555;
672.9000;0.1180;0.8531;
673.2000;0.1172;0.8507;
673.5000;0.1172;0.8507;
673.8000;0.1270;0.8792;
674.1000;0.1197;0.8531;
674.4000;0.1197;0.8507;
674.7000;0.1172;0.8413;
675.0000;0.1188;0.8389;
675.3000;0.1188;0.8413;
675.6000;0.1188;0.8365;
675.9000;0.1197;0.8389;
676.2000;0.1164;0.8247;
676.5000;0.1188;0.8294;
676.8000;0.1172;0.8294;
677.1000;0.1180;0.8342;
677.4000;0.1197;0.8270;
677.7000;0.1180;0.8247;
678.0000;0.1164;0.8199;
678.3000;0.1197;0.8223;
678.6000;0.1213;0.8247;
678.9000;0.1188;0.8294;
679.2000;0.1213;0.8365;
679.5000;0.1172;0.8342;
679.8000;0.1197;0.8389;
680.1000;0.1188;0.8342;
680.4000;0.1245;0.8484;
680.7000;0.1197;0.8294;
681.0000;0.1229;0.8460;
681.3000;0.1229;0.8460;
681.6000;0.1172;0.8389;
681.9000;0.1180;0.8436;
682.2000;0.1164;0.8342;
682.5000;0.1172;0.8365;
682.8000;0.1180;0.8318;
683.1000;0.1221;0.8389;
683.4000;0.1188;0.8318;
683.7000;0.1188;0.8365;
684.0000;0.1172;0.8318;
684.3000;0.1156;0.8152;
684.6000;0.1172;0.8176;
684.9000;0.1205;0.8247;
685.2000;0.1229;0.8294;
685.5000;0.1229;0.8318;
685.8000;0.1164;0.8199;
686.1000;0.1172;0.8223;
686.4000;0.1172;0.8294;
686.7000;0.1164;0.8294;
687.0000;0.1188;0.8365;
687.3000;0.1172;0.8342;
687.6000;0.1172;0.8318;
687.9000;0.1164;0.8223;
688.2000;0.1164;0.8223;
688.5000;0.1180;0.8270;
688.8000;0.1172;0.8294;
689.1000;0.1099;0.8105;
689.4000;0.1164;0.8318;
689.7000;0.1229;0.8436;
690.0000;0.1180;0.8318;
690.3000;0.1197;0.8389;
690.6000;0.1188;0.8413;
690.9000;0.1221;0.8484;
691.2000;0.1164;0.8365;
691.5000;0.1197;0.8389;
691.8000;0.1180;0.8294;
692.1000;0.1188;0.8389;
692.4000;0.1172;0.8365;
692.7000;0.1180;0.8389;
693.0000;0.1148;0.8342;
693.3000;0.1172;0.8342;
693.6000;0.1213;0.8389;
693.9000;0.1172;0.8294;
694.2000;0.1180;0.8294;
694.5000;0.1188;0.8389;
694.8000;0.1156;0.8389;
695.1000;0.1172;0.8318;
695.4000;0.1164;0.8365;
695.7000;0.1164;0.8389;
696.0000;0.1213;0.8555;
696.3000;0.1172;0.8484;
696.6000;0.1172;0.8531;
696.9000;0.1156;0.8602;
697.2000;0.1148;0.8555;
697.5000;0.1164;0.8579;
697.8000;0.1172;0.8555;
698.1000;0.1197;0.8626;
698.4000;0.1172;0.8626;
698.7000;0.1156;0.8579;
699.0000;0.1164;0.8579;
699.3000;0.1164;0.8531;
699.6000;0.1148;0.8507;
699.9000;0.1156;0.8507;
700.2000;0.1156;0.8507;
700.5000;0.1180;0.8436;
700.8000;0.1164;0.8413;
701.1000;0.1164;0.8413;
701.4000;0.1164;0.8389;
701.7000;0.1156;0.8318;
702.0000;0.1156;0.8318;
702.3000;0.1148;0.8318;
702.6000;0.1164;0.8342;
702.9000;0.1164;0.8294;
703.2000;0.1164;0.8294;
703.5000;0.1156;0.8365;
703.8000;0.1156;0.8365;
704.1000;0.1180;0.8365;
704.4000;0.1164;0.8342;
704.7000;0.1172;0.8389;
705.0000;0.1172;0.8389;
705.3000;0.1164;0.8389;
705.6000;0.1148;0.8294;
705.9000;0.1148;0.8318;
706.2000;0.1156;0.8413;
706.5000;0.1156;0.8460;
706.8000;0.1156;0.8460;
707.1000;0.1197;0.8460;
707.4000;0.1164;0.8436;
707.7000;0.1156;0.8507;
708.0000;0.1140;0.8365;
708.3000;0.1221;0.8531;
708.6000;0.1140;0.8389;
708.9000;0.1107;0.8413;
709.2000;0.1156;0.8579;
709.5000;0.1156;0.8555;
709.8000;0.1140;0.8436;
710.1000;0.1229;0.8602;
710.4000;0.1148;0.8484;
710.7000;0.1148;0.8555;
711.0000;0.1156;0.8579;
711.3000;0.1131;0.8531;
711.6000;0.1131;0.8484;
711.9000;0.1180;0.8555;
712.2000;0.1115;0.8318;
712.5000;0.1148;0.8413;
712.8000;0.1131;0.8389;
713.1000;0.1172;0.8436;
713.4000;0.1172;0.8460;
713.7000;0.1148;0.8436;
714.0000;0.1140;0.8436;
714.3000;0.1164;0.8484;
714.6000;0.1140;0.8531;
714.9000;0.1148;0.8531;
715.2000;0.1148;0.8460;
715.5000;0.1148;0.8484;
715.8000;0.1148;0.8531;
716.1000;0.1156;0.8555;
716.4000;0.1131;0.8626;
716.7000;0.1140;0.8579;
717.0000;0.1131;0.8484;
717.3000;0.1140;0.8507;
717.6000;0.1131;0.8413;
717.9000;0.1131;0.8365;
718.2000;0.1140;0.8365;
718.5000;0.1148;0.8413;
718.8000;0.1123;0.8436;
719.1000;0.1131;0.8484;
719.4000;0.1148;0.8460;
719.7000;0.1172;0.8579;
720.0000;0.1156;0.8602;
720.3000;0.1148;0.8531;
720.6000;0.1156;0.8579;
720.9000;0.1148;0.8626;
721.2000;0.1156;0.8626;
721.5000;0.1148;0.8507;
721.8000;0.1131;0.8484;
722.1000;0.1156;0.8460;
722.4000;0.1123;0.8413;
722.7000;0.1140;0.8413;
723.0000;0.1066;0.8294;
723.3000;0.1148;0.8531;
723.6000;0.1164;0.8626;
723.9000;0.1172;0.8697;
724.2000;0.1140;0.8673;
724.5000;0.1148;0.8673;
724.8000;0.1148;0.8697;
725.1000;0.1164;0.8602;
725.4000;0.1164;0.8507;
725.7000;0.1164;0.8484;
726.0000;0.1148;0.8507;
726.3000;0.1156;0.8507;
726.6000;0.1148;0.8507;
726.9000;0.1156;0.8484;
727.2000;0.1148;0.8555;
727.5000;0.1156;0.8602;
727.8000;0.1140;0.8579;
728.1000;0.1156;0.8626;
728.4000;0.1140;0.8531;
728.7000;0.1140;0.8507;
729.0000;0.1172;0.8602;
729.3000;0.1140;0.8579;
729.6000;0.1131;0.8484;
729.9000;0.1156;0.8531;
730.2000;0.1148;0.8413;
730.5000;0.1156;0.8389;
730.8000;0.1156;0.8389;
731.1000;0.1140;0.8342;
731.4000;0.1148;0.8413;
731.7000;0.1156;0.8484;
732.0000;0.1131;0.8436;
732.3000;0.1148;0.8507;
732.6000;0.1140;0.8531;
732.9000;0.1131;0.8579;
733.2000;0.1148;0.8602;
733.5000;0.1140;0.8579;
733.8000;0.1140;0.8626;
734.1000;0.1148;0.8602;
734.4000;0.1140;0.8531;
734.7000;0.1205;0.8721;
735.0000;0.1148;0.8507;
735.3000;0.1148;0.8555;
735.6000;0.1140;0.8507;
735.9000;0.1213;0.8626;
736.2000;0.1213;0.8602;
736.5000;0.1156;0.8555;
736.8000;0.1164;0.8579;
737.1000;0.1172;0.8579;
737.4000;0.1107;0.8413;
737.7000;0.1131;0.8436;
738.0000;0.1164;0.8413;
738.3000;0.1140;0.8389;
738.6000;0.1123;0.8365;
738.9000;0.1180;0.8602;
739.2000;0.1140;0.8507;
739.5000;0.1131;0.8436;
739.8000;0.1140;0.8436;
740.1000;0.1148;0.8507;
740.4000;0.1140;0.8436;
740.7000;0.1140;0.8460;
741.0000;0.1140;0.8484;
741.3000;0.1172;0.8555;
741.6000;0.1099;0.8342;
741.9000;0.1123;0.8413;
742.2000;0.1140;0.8389;
742.5000;0.1123;0.8389;
742.8000;0.1140;0.8413;
743.1000;0.1156;0.8460;
743.4000;0.1140;0.8365;
743.7000;0.1140;0.8365;
744.0000;0.1131;0.8342;
744.3000;0.1140;0.8389;
744.6000;0.1148;0.8365;
744.9000;0.1140;0.8270;
745.2000;0.1148;0.8318;
745.5000;0.1140;0.8365;
745.8000;0.1148;0.8342;
746.1000;0.1156;0.8294;
746.4000;0.1131;0.8294;
746.7000;0.1148;0.8318;
747.0000;0.1131;0.8247;
747.3000;0.1148;0.8318;
747.6000;0.1140;0.8318;
747.9000;0.1140;0.8342;
748.2000;0.1140;0.8460;
748.5000;0.1115;0.8413;
748.8000;0.1156;0.8531;
749.1000;0.1099;0.8460;
749.4000;0.1140;0.8555;
749.7000;0.1148;0.8579;
750.0000;0.1099;0.8413;
750.3000;0.1131;0.8413;
750.6000;0.1140;0.8436;
750.9000;0.1123;0.8389;
751.2000;0.1148;0.8389;
751.5000;0.1156;0.8413;
751.8000;0.1131;0.8342;
752.1000;0.1205;0.8531;
752.4000;0.1140;0.8413;
752.7000;0.1131;0.8413;
753.0000;0.1115;0.8294;
753.3000;0.1148;0.8342;
753.6000;0.1140;0.8342;
753.9000;0.1131;0.8365;
754.2000;0.1140;0.8365;
754.5000;0.1131;0.8389;
754.8000;0.1140;0.8436;
755.1000;0.1213;0.8626;
755.4000;0.1123;0.8389;
755.7000;0.1107;0.8365;
756.0000;0.1131;0.8389;
756.3000;0.1115;0.8531;
756.6000;0.1123;0.8507;
756.9000;0.1123;0.8413;
757.2000;0.1148;0.8342;
757.5000;0.1123;0.8318;
757.8000;0.1156;0.8365;
758.1000;0.1115;0.8270;
758.4000;0.1131;0.8365;
758.7000;0.1156;0.8413;
759.0000;0.1107;0.8318;
759.3000;0.1123;0.8365;
759.6000;0.1115;0.8436;
759.9000;0.1131;0.8531;
760.2000;0.1131;0.8579;
760.5000;0.1123;0.8602;
760.8000;0.1148;0.8579;
761.1000;0.1115;0.8460;
761.4000;0.1131;0.8484;
761.7000;0.1140;0.8436;
762.0000;0.1140;0.8389;
762.3000;0.1131;0.8365;
762.6000;0.1131;0.8460;
762.9000;0.1131;0.8365;
763.2000;0.1123;0.8413;
763.5000;0.1123;0.8365;
763.8000;0.1156;0.8436;
764.1000;0.1131;0.8413;
764.4000;0.1140;0.8389;
764.7000;0.1140;0.8413;
765.0000;0.1123;0.8342;
765.3000;0.1131;0.8389;
765.6000;0.1123;0.8389;
765.9000;0.1140;0.8507;
766.2000;0.1123;0.8460;
766.5000;0.1107;0.8413;
766.8000;0.1131;0.8460;
767.1000;0.1131;0.8436;
767.4000;0.1131;0.8484;
767.7000;0.1115;0.8436;
768.0000;0.1140;0.8460;
768.3000;0.1148;0.8460;
768.6000;0.1148;0.8531;
768.9000;0.1123;0.8413;
769.2000;0.1140;0.8389;
769.5000;0.1140;0.8436;
769.8000;0.1131;0.8413;
770.1000;0.1140;0.8436;
770.4000;0.1140;0.8436;
770.7000;0.1140;0.8484;
771.0000;0.1074;0.8294;
771.3000;0.1123;0.8436;
771.6000;0.1148;0.8531;
771.9000;0.1131;0.8389;
772.2000;0.1123;0.8318;
772.5000;0.1115;0.8294;
772.8000;0.1131;0.8318;
773.1000;0.1140;0.8270;
773.4000;0.1148;0.8294;
773.7000;0.1066;0.8105;
774.0000;0.1107;0.8176;
774.3000;0.1140;0.8223;
774.6000;0.1140;0.8365;
774.9000;0.1140;0.8342;
775.2000;0.1123;0.8270;
775.5000;0.1148;0.8389;
775.8000;0.1140;0.8413;
776.1000;0.1164;0.8460;
776.4000;0.1131;0.8365;
776.7000;0.1131;0.8365;
777.0000;0.1131;0.8389;
777.3000;0.1083;0.8223;
777.6000;0.1115;0.8365;
777.9000;0.1131;0.8365;
778.2000;0.1131;0.8389;
778.5000;0.1123;0.8342;
778.8000;0.1140;0.8342;
779.1000;0.1115;0.8270;
779.4000;0.1123;0.8247;
779.7000;0.1091;0.8176;
780.0000;0.1107;0.8223;
780.3000;0.1107;0.8199;
780.6000;0.1140;0.8365;
780.9000;0.1131;0.8484;
781.2000;0.1099;0.8436;
781.5000;0.1131;0.8507;
781.8000;0.1131;0.8531;
782.1000;0.1131;0.8531;
782.4000;0.1131;0.8460;
782.7000;0.1099;0.8365;
783.0000;0.1099;0.8365;
783.3000;0.1123;0.8413;
783.6000;0.1131;0.8389;
783.9000;0.1131;0.8342;
784.2000;0.1115;0.8342;
784.5000;0.1107;0.8413;
784.8000;0.1131;0.8460;
785.1000;0.1131;0.8436;
785.4000;0.1123;0.8365;
785.7000;0.1123;0.8413;
786.0000;0.1180;0.8507;
786.3000;0.1140;0.8413;
786.6000;0.1107;0.8389;
786.9000;0.1123;0.8389;
787.2000;0.1131;0.8413;
787.5000;0.1131;0.8436;
787.8000;0.1164;0.8531;
788.1000;0.1115;0.8365;
788.4000;0.1115;0.8436;
788.7000;0.1172;0.8602;
789.0000;0.1123;0.8531;
789.3000;0.1123;0.8626;
789.6000;0.1107;0.8697;
789.9000;0.1131;0.8650;
790.2000;0.1123;0.8579;
790.5000;0.1123;0.8555;
790.8000;0.1115;0.8531;
791.1000;0.1123;0.8602;
791.4000;0.1131;0.8579;
791.7000;0.1123;0.8507;
792.0000;0.1172;0.8555;
792.3000;0.1131;0.8413;
792.6000;0.1140;0.8484;
792.9000;0.1099;0.8436;
793.2000;0.1140;0.8602;
793.5000;0.1131;0.8602;
793.8000;0.1148;0.8531;
794.1000;0.1131;0.8484;
794.4000;0.1140;0.8531;
794.7000;0.1172;0.8626;
795.0000;0.1115;0.8555;
795.3000;0.1107;0.8579;
795.6000;0.1115;0.8531;
795.9000;0.1131;0.8460;
796.2000;0.1156;0.8460;
796.5000;0.1164;0.8484;
796.8000;0.1123;0.8318;
797.1000;0.1099;0.8270;
797.4000;0.1131;0.8389;
797.7000;0.1123;0.8342;
798.0000;0.1140;0.8413;
798.3000;0.1123;0.8389;
798.6000;0.1140;0.8436;
798.9000;0.1123;0.8413;
799.2000;0.1148;0.8531;
799.5000;0.1115;0.8389;
799.8000;0.1107;0.8342;
800.1000;0.1164;0.8507;
800.4000;0.1131;0.8389;
800.7000;0.1123;0.8365;
801.0000;0.1115;0.8294;
801.3000;0.1066;0.8152;
801.6000;0.1131;0.8365;
801.9000;0.1140;0.8436;
802.2000;0.1115;0.8389;
802.5000;0.1123;0.8484;
802.8000;0.1131;0.8507;
803.1000;0.1131;0.8507;
803.4000;0.1131;0.8460;
803.7000;0.1156;0.8531;
804.0000;0.1221;0.8721;
804.3000;0.1140;0.8531;
804.6000;0.1107;0.8389;
804.9000;0.1083;0.8365;
805.2000;0.1115;0.8460;
805.5000;0.1213;0.8697;
805.8000;0.1099;0.8484;
806.1000;0.1042;0.8342;
806.4000;0.1083;0.8484;
806.7000;0.1074;0.8626;
807.0000;0.1107;0.8744;
807.3000;0.1099;0.8673;
807.6000;0.1099;0.8650;
807.9000;0.1140;0.8673;
808.2000;0.1099;0.8555;
808.5000;0.1115;0.8579;
808.8000;0.1115;0.8650;
809.1000;0.1115;0.8697;
809.4000;0.1123;0.8673;
809.7000;0.1115;0.8697;
810.0000;0.1107;0.8602;
810.3000;0.1123;0.8579;
810.6000;0.1123;0.8579;
810.9000;0.1123;0.8602;
811.2000;0.1091;0.8602;
811.5000;0.1131;0.8626;
811.8000;0.1099;0.8626;
812.1000;0.1123;0.8626;
812.4000;0.1099;0.8673;
812.7000;0.1140;0.8768;
813.0000;0.1099;0.8744;
813.3000;0.1140;0.8792;
813.6000;0.1091;0.8626;
813.9000;0.1123;0.8697;
814.2000;0.1123;0.8673;
814.5000;0.1140;0.8650;
814.8000;0.1131;0.8650;
815.1000;0.1131;0.8650;
815.4000;0.1148;0.8650;
815.7000;0.1131;0.8650;
816.0000;0.1115;0.8602;
816.3000;0.1115;0.8626;
816.6000;0.1107;0.8650;
816.9000;0.1140;0.8673;
817.2000;0.1123;0.8602;
817.5000;0.1107;0.8555;
817.8000;0.1123;0.8602;
818.1000;0.1099;0.8602;
818.4000;0.1107;0.8650;
818.7000;0.1123;0.8744;
819.0000;0.1107;0.8650;
819.3000;0.1099;0.8602;
819.6000;0.1115;0.8555;
819.9000;0.1131;0.8626;
820.2000;0.1123;0.8602;
820.5000;0.1083;0.8531;
820.8000;0.1115;0.8555;
821.1000;0.1131;0.8555;
821.4000;0.1107;0.8531;
821.7000;0.1115;0.8507;
822.0000;0.1091;0.8531;
822.3000;0.1115;0.8579;
822.6000;0.1123;0.8602;
822.9000;0.1123;0.8602;
823.2000;0.1123;0.8650;
823.5000;0.1107;0.8721;
823.8000;0.1123;0.8792;
824.1000;0.1115;0.8768;
824.4000;0.1115;0.8839;
824.7000;0.1123;0.8910;
825.0000;0.1131;0.8863;
825.3000;0.1115;0.8721;
825.6000;0.1099;0.8697;
825.9000;0.1083;0.8555;
826.2000;0.1148;0.8697;
826.5000;0.1107;0.8673;
826.8000;0.1115;0.8697;
827.1000;0.1091;0.8650;
827.4000;0.1123;0.8673;
827.7000;0.1050;0.8413;
828.0000;0.1091;0.8531;
828.3000;0.1115;0.8531;
828.6000;0.1131;0.8650;
828.9000;0.1091;0.8626;
829.2000;0.1066;0.8531;
829.5000;0.1099;0.8721;
829.8000;0.1123;0.8744;
830.1000;0.1180;0.8839;
830.4000;0.1115;0.8579;
830.7000;0.1123;0.8602;
831.0000;0.1131;0.8579;
831.3000;0.1140;0.8626;
831.6000;0.1140;0.8697;
831.9000;0.1123;0.8721;
832.2000;0.1091;0.8697;
832.5000;0.1107;0.8721;
832.8000;0.1115;0.8673;
833.1000;0.1123;0.8602;
833.4000;0.1107;0.8555;
833.7000;0.1123;0.8673;
834.0000;0.1083;0.8626;
834.3000;0.1115;0.8650;
834.6000;0.1107;0.8673;
834.9000;0.1099;0.8626;
835.2000;0.1115;0.8555;
835.5000;0.1107;0.8555;
835.8000;0.1107;0.8673;
836.1000;0.1099;0.8602;
836.4000;0.1123;0.8697;
836.7000;0.1099;0.8673;
837.0000;0.1123;0.8744;
837.3000;0.1099;0.8673;
837.6000;0.1099;0.8579;
837.9000;0.1107;0.8460;
838.2000;0.1123;0.8413;
838.5000;0.1140;0.8531;
838.8000;0.1115;0.8484;
839.1000;0.1123;0.8460;
839.4000;0.1107;0.8484;
839.7000;0.1107;0.8555;
840.0000;0.1115;0.8579;
840.3000;0.1131;0.8626;
840.6000;0.1123;0.8626;
840.9000;0.1123;0.8579;
841.2000;0.1123;0.8602;
841.5000;0.1140;0.8579;
841.8000;0.1131;0.8602;
842.1000;0.1123;0.8555;
842.4000;0.1131;0.8531;
842.7000;0.1115;0.8460;
843.0000;0.1123;0.8507;
843.3000;0.1131;0.8507;
843.6000;0.1115;0.8484;
843.9000;0.1115;0.8507;
844.2000;0.1131;0.8507;
844.5000;0.1115;0.8460;
844.8000;0.1107;0.8507;
845.1000;0.1107;0.8484;
845.4000;0.1115;0.8531;
845.7000;0.1107;0.8579;
846.0000;0.1074;0.8484;
846.3000;0.1107;0.8531;
846.6000;0.1123;0.8579;
846.9000;0.1131;0.8673;
847.2000;0.1123;0.8697;
847.5000;0.1115;0.8744;
847.8000;0.1107;0.8673;
848.1000;0.1131;0.8673;
848.4000;0.1107;0.8673;
848.7000;0.1148;0.8744;
849.0000;0.1066;0.8579;
849.3000;0.1115;0.8768;
849.6000;0.1083;0.8697;
849.9000;0.1115;0.8815;
850.2000;0.1148;0.8815;
850.5000;0.1148;0.8863;
850.8000;0.1099;0.8626;
851.1000;0.1115;0.8626;
851.4000;0.1099;0.8626;
851.7000;0.1115;0.8650;
852.0000;0.1123;0.8768;
852.3000;0.1123;0.8768;
852.6000;0.1123;0.8697;
852.9000;0.1123;0.8602;
853.2000;0.1107;0.8602;
853.5000;0.1123;0.8602;
853.8000;0.1123;0.8531;
854.1000;0.1131;0.8579;
854.4000;0.1131;0.8579;
854.7000;0.1140;0.8650;
855.0000;0.1115;0.8650;
855.3000;0.1123;0.8697;
855.6000;0.1107;0.8531;
855.9000;0.1115;0.8484;
856.2000;0.1123;0.8579;
856.5000;0.1131;0.8626;
856.8000;0.1140;0.8697;
857.1000;0.1123;0.8768;
857.4000;0.1115;0.8697;
857.7000;0.1107;0.8602;
858.0000;0.1115;0.8626;
858.3000;0.1115;0.8721;
858.6000;0.1107;0.8744;
858.9000;0.1107;0.8697;
859.2000;0.1107;0.8744;
859.5000;0.1115;0.8721;
859.8000;0.1115;0.8673;
860.1000;0.1107;0.8602;
860.4000;0.1107;0.8626;
860.7000;0.1099;0.8602;
861.0000;0.1058;0.8436;
861.3000;0.1115;0.8555;
861.6000;0.1115;0.8531;
861.9000;0.1115;0.8602;
862.2000;0.1115;0.8555;
862.5000;0.1123;0.8650;
862.8000;0.1123;0.8650;
863.1000;0.1115;0.8650;
863.4000;0.1107;0.8673;
863.7000;0.1107;0.8744;
864.0000;0.1115;0.8815;
864.3000;0.1099;0.8721;
864.6000;0.1107;0.8673;
864.9000;0.1099;0.8697;
865.2000;0.1123;0.8650;
865.5000;0.1115;0.8555;
865.8000;0.1099;0.8531;
866.1000;0.1140;0.8650;
866.4000;0.1115;0.8602;
866.7000;0.1115;0.8579;
867.0000;0.1115;0.8484;
867.3000;0.1115;0.8460;
867.6000;0.1131;0.8484;
867.9000;0.1099;0.8555;
868.2000;0.1099;0.8579;
868.5000;0.1107;0.8579;
868.8000;0.1107;0.8626;
869.1000;0.1099;0.8484;
869.4000;0.1058;0.8342;
869.7000;0.1123;0.8602;
870.0000;0.1091;0.8484;
870.3000;0.1123;0.8484;
870.6000;0.1099;0.8484;
870.9000;0.1107;0.8460;
871.2000;0.1099;0.8413;
871.5000;0.1099;0.8436;
871.8000;0.1123;0.8507;
872.1000;0.1107;0.8460;
872.4000;0.1099;0.8436;
872.7000;0.1107;0.8507;
873.0000;0.1115;0.8531;
873.3000;0.1115;0.8531;
873.6000;0.1140;0.8626;
873.9000;0.1099;0.8484;
874.2000;0.1131;0.8507;
874.5000;0.1115;0.8484;
874.8000;0.1115;0.8413;
875.1000;0.1123;0.8531;
875.4000;0.1123;0.8507;
875.7000;0.1091;0.8413;
876.0000;0.1091;0.8294;
876.3000;0.1123;0.8365;
876.6000;0.1115;0.8318;
876.9000;0.1115;0.8389;
877.2000;0.1131;0.8365;
877.5000;0.1107;0.8389;
877.8000;0.1115;0.8413;
878.1000;0.1115;0.8436;
878.4000;0.1099;0.8342;
878.7000;0.1115;0.8436;
879.0000;0.1107;0.8484;
879.3000;0.1107;0.8460;
879.6000;0.1091;0.8342;
879.9000;0.1123;0.8389;
880.2000;0.1115;0.8365;
880.5000;0.1099;0.8460;
880.8000;0.1123;0.8507;
881.1000;0.1115;0.8507;
881.4000;0.1131;0.8650;
881.7000;0.1099;0.8555;
882.0000;0.1074;0.8507;
882.3000;0.1115;0.8531;
882.6000;0.1107;0.8436;
882.9000;0.1131;0.8460;
883.2000;0.1099;0.8389;
883.5000;0.1083;0.8365;
883.8000;0.1099;0.8365;
884.1000;0.1107;0.8294;
884.4000;0.1115;0.8318;
884.7000;0.1099;0.8223;
885.0000;0.1091;0.8270;
885.3000;0.1123;0.8342;
885.6000;0.1107;0.8436;
885.9000;0.1099;0.8413;
886.2000;0.1115;0.8507;
886.5000;0.1115;0.8507;
886.8000;0.1123;0.8436;
887.1000;0.1115;0.8484;
887.4000;0.1091;0.8460;
887.7000;0.1115;0.8507;
888.0000;0.1099;0.8484;
888.3000;0.1107;0.8436;
888.6000;0.1099;0.8365;
888.9000;0.1140;0.8531;
889.2000;0.1099;0.8484;
889.5000;0.1107;0.8460;
889.8000;0.1115;0.8507;
890.1000;0.1140;0.8602;
890.4000;0.1083;0.8436;
890.7000;0.1115;0.8460;
891.0000;0.1099;0.8507;
891.3000;0.1164;0.8650;
891.6000;0.1164;0.8579;
891.9000;0.1083;0.8413;
892.2000;0.1107;0.8579;
892.5000;0.1115;0.8555;
892.8000;0.1107;0.8484;
893.1000;0.1115;0.8460;
893.4000;0.1164;0.8555;
893.7000;0.1099;0.8342;
894.0000;0.1099;0.8342;
894.3000;0.1099;0.8365;
894.6000;0.1091;0.8413;
894.9000;0.1115;0.8436;
895.2000;0.1107;0.8389;
895.5000;0.1107;0.8389;
895.8000;0.1099;0.8436;
896.1000;0.1091;0.8460;
896.4000;0.1115;0.8436;
896.7000;0.1066;0.8389;
897.0000;0.1083;0.8460;
897.3000;0.1107;0.8531;
897.6000;0.1115;0.8555;
897.9000;0.1099;0.8531;
898.2000;0.1099;0.8555;
898.5000;0.1115;0.8579;
898.8000;0.1107;0.8579;
899.1000;0.1188;0.8768;
899.4000;0.1099;0.8507;
899.7000;0.1188;0.8910;
900.0000;0.1123;0.8650;
900.3000;0.1099;0.8531;
900.6000;0.1099;0.8531;
900.9000;0.1042;0.8318;
901.2000;0.1115;0.8555;
901.5000;0.1050;0.8413;
901.8000;0.1156;0.8673;
902.1000;0.1099;0.8507;
902.4000;0.1131;0.8555;
902.7000;0.1140;0.8531;
903.0000;0.1107;0.8342;
903.3000;0.1107;0.8460;
903.6000;0.1115;0.8389;
903.9000;0.1123;0.8413;
904.2000;0.1115;0.8413;
904.5000;0.1115;0.8342;
904.8000;0.1140;0.8389;
905.1000;0.1091;0.8294;
905.4000;0.1058;0.8247;
905.7000;0.1115;0.8460;
906.0000;0.1115;0.8460;
906.3000;0.1099;0.8436;
906.6000;0.1115;0.8460;
906.9000;0.1148;0.8555;
907.2000;0.1107;0.8460;
907.5000;0.1083;0.8389;
907.8000;0.1099;0.8484;
908.1000;0.1123;0.8460;
908.4000;0.1099;0.8342;
908.7000;0.1091;0.8436;
909.0000;0.1123;0.8460;
909.3000;0.1107;0.8460;
909.6000;0.1107;0.8507;
909.9000;0.1115;0.8507;
910.2000;0.1091;0.8460;
910.5000;0.1107;0.8531;
910.8000;0.1083;0.8436;
911.1000;0.1099;0.8484;
911.4000;0.1107;0.8602;
911.7000;0.1115;0.8626;
912.0000;0.1107;0.8673;
912.3000;0.1091;0.8531;
912.6000;0.1115;0.8626;
912.9000;0.1099;0.8602;
913.2000;0.1042;0.8342;
913.5000;0.1115;0.8484;
913.8000;0.1058;0.8270;
914.1000;0.1115;0.8460;
914.4000;0.1115;0.8460;
914.7000;0.1099;0.8389;
915.0000;0.1115;0.8389;
915.3000;0.1099;0.8389;
915.6000;0.1148;0.8484;
915.9000;0.1131;0.8413;
916.2000;0.1099;0.8318;
916.5000;0.1107;0.8294;
916.8000;0.1066;0.8247;
917.1000;0.1107;0.8436;
917.4000;0.1099;0.8436;
917.7000;0.1099;0.8436;
918.0000;0.1115;0.8531;
918.3000;0.1107;0.8602;
918.6000;0.1115;0.8650;
918.9000;0.1123;0.8531;
919.2000;0.1107;0.8579;
919.5000;0.1148;0.8626;
919.8000;0.1123;0.8602;
920.1000;0.1115;0.8650;
920.4000;0.1140;0.8673;
920.7000;0.1131;0.8650;
921.0000;0.1156;0.8768;
921.3000;0.1099;0.8602;
921.6000;0.1131;0.8602;
921.9000;0.1156;0.8721;
922.2000;0.1066;0.8484;
922.5000;0.1107;0.8626;
922.8000;0.1091;0.8602;
923.1000;0.1099;0.8602;
923.4000;0.1099;0.8626;
923.7000;0.1115;0.8602;
924.0000;0.1107;0.8626;
924.3000;0.1115;0.8650;
924.6000;0.1180;0.8697;
924.9000;0.1107;0.8436;
925.2000;0.1123;0.8460;
925.5000;0.1091;0.8484;
925.8000;0.1123;0.8650;
926.1000;0.1115;0.8579;
926.4000;0.1099;0.8484;
926.7000;0.0993;0.8247;
927.0000;0.1099;0.8555;
927.3000;0.1107;0.8460;
927.6000;0.1099;0.8389;
927.9000;0.1091;0.8436;
928.2000;0.1099;0.8555;
928.5000;0.1115;0.8673;
928.8000;0.1123;0.8602;
929.1000;0.1107;0.8602;
929.4000;0.1091;0.8579;
929.7000;0.1123;0.8579;
930.0000;0.1148;0.8626;
930.3000;0.1107;0.8579;
930.6000;0.1107;0.8531;
930.9000;0.1107;0.8507;
931.2000;0.1099;0.8531;
931.5000;0.1099;0.8484;
931.8000;0.1115;0.8555;
932.1000;0.1115;0.8579;
932.4000;0.1091;0.8579;
932.7000;0.1091;0.8602;
933.0000;0.1148;0.8697;
933.3000;0.1115;0.8555;
933.6000;0.1115;0.8507;
933.9000;0.1115;0.8579;
934.2000;0.1099;0.8531;
934.5000;0.1123;0.8531;
934.8000;0.1115;0.8555;
935.1000;0.1115;0.8555;
935.4000;0.1115;0.8579;
935.7000;0.1107;0.8555;
936.0000;0.1107;0.8460;
936.3000;0.1091;0.8413;
936.6000;0.1107;0.8531;
936.9000;0.1115;0.8579;
937.2000;0.1099;0.8579;
937.5000;0.1099;0.8673;
937.8000;0.1099;0.8673;
938.1000;0.1123;0.8721;
938.4000;0.1099;0.8626;
938.7000;0.1083;0.8673;
939.0000;0.1091;0.8650;
939.3000;0.1034;0.8413;
939.6000;0.1083;0.8531;
939.9000;0.1107;0.8555;
940.2000;0.1091;0.8484;
940.5000;0.1099;0.8555;
940.8000;0.1107;0.8626;
941.1000;0.1107;0.8744;
941.4000;0.1172;0.8910;
941.7000;0.1107;0.8744;
942.0000;0.1123;0.8697;
942.3000;0.1107;0.8721;
942.6000;0.1115;0.8697;
942.9000;0.1042;0.8436;
943.2000;0.1099;0.8507;
943.5000;0.1091;0.8579;
943.8000;0.1083;0.8507;
944.1000;0.1115;0.8579;
944.4000;0.1099;0.8507;
944.7000;0.1188;0.8768;
945.0000;0.1074;0.8436;
945.3000;0.1107;0.8507;
945.6000;0.1140;0.8626;
945.9000;0.1140;0.8697;
946.2000;0.1140;0.8650;
946.5000;0.1107;0.8555;
946.8000;0.1091;0.8436;
947.1000;0.1107;0.8484;
947.4000;0.1083;0.8460;
947.7000;0.1164;0.8650;
948.0000;0.1091;0.8389;
948.3000;0.1107;0.8602;
948.6000;0.1107;0.8579;
948.9000;0.1107;0.8531;
949.2000;0.1091;0.8484;
949.5000;0.1099;0.8484;
949.8000;0.1107;0.8389;
950.1000;0.1066;0.8247;
950.4000;0.1091;0.8294;
950.7000;0.1099;0.8365;
951.0000;0.1099;0.8413;
951.3000;0.1099;0.8460;
951.6000;0.1099;0.8484;
951.9000;0.1107;0.8460;
952.2000;0.1099;0.8531;
952.5000;0.1091;0.8531;
952.8000;0.1115;0.8579;
953.1000;0.1083;0.8602;
953.4000;0.1099;0.8626;
953.7000;0.1099;0.8650;
954.0000;0.1050;0.8484;
954.3000;0.1083;0.8531;
954.6000;0.1115;0.8697;
954.9000;0.1099;0.8507;
955.2000;0.1083;0.8460;
955.5000;0.1115;0.8507;
955.8000;0.1074;0.8436;
956.1000;0.1091;0.8507;
956.4000;0.1107;0.8531;
956.7000;0.1074;0.8484;
957.0000;0.1091;0.8460;
957.3000;0.1099;0.8460;
957.6000;0.1091;0.8342;
957.9000;0.1083;0.8342;
958.2000;0.1107;0.8460;
958.5000;0.1066;0.8413;
958.8000;0.1066;0.8436;
959.1000;0.1099;0.8555;
959.4000;0.1099;0.8555;
959.7000;0.1107;0.8531;
960.0000;0.1018;0.8294;
960.3000;0.1091;0.8484;
960.6000;0.1091;0.8484;
960.9000;0.1083;0.8507;
961.2000;0.1083;0.8460;
961.5000;0.1099;0.8436;
961.8000;0.1099;0.8413;
962.1000;0.1099;0.8531;
962.4000;0.1099;0.8555;
962.7000;0.1099;0.8626;
963.0000;0.1107;0.8579;
963.3000;0.1083;0.8531;
963.6000;0.1091;0.8555;
963.9000;0.1091;0.8626;
964.2000;0.1091;0.8555;
964.5000;0.1099;0.8579;
964.8000;0.1115;0.8579;
965.1000;0.1115;0.8602;
965.4000;0.1140;0.8650;
965.7000;0.1107;0.8602;
966.0000;0.1099;0.8650;
966.3000;0.1107;0.8650;
966.6000;0.1107;0.8697;
966.9000;0.1083;0.8650;
967.2000;0.1107;0.8626;
967.5000;0.1140;0.8697;
967.8000;0.1099;0.8531;
968.1000;0.1131;0.8650;
968.4000;0.1074;0.8484;
968.7000;0.1164;0.8815;
969.0000;0.1148;0.8721;
969.3000;0.1050;0.8531;
969.6000;0.1091;0.8744;
969.9000;0.1099;0.8744;
970.2000;0.1107;0.8721;
970.5000;0.1123;0.8768;
970.8000;0.1083;0.8673;
971.1000;0.1066;0.8579;
971.4000;0.1115;0.8697;
971.7000;0.1107;0.8626;
972.0000;0.1107;0.8579;
972.3000;0.1148;0.8697;
972.6000;0.1099;0.8484;
972.9000;0.1099;0.8531;
973.2000;0.1091;0.8531;
973.5000;0.1091;0.8555;
973.8000;0.1099;0.8626;
974.1000;0.1123;0.8650;
974.4000;0.1099;0.8555;
974.7000;0.1107;0.8555;
975.0000;0.1123;0.8650;
975.3000;0.1115;0.8650;
975.6000;0.1099;0.8602;
975.9000;0.1107;0.8555;
976.2000;0.1099;0.8626;
976.5000;0.1115;0.8673;
976.8000;0.1107;0.8673;
977.1000;0.1091;0.8602;
977.4000;0.1099;0.8697;
977.7000;0.1099;0.8721;
978.0000;0.1050;0.8531;
978.3000;0.1091;0.8626;
978.6000;0.1123;0.8650;
978.9000;0.1091;0.8602;
979.2000;0.1107;0.8650;
979.5000;0.1107;0.8626;
979.8000;0.1091;0.8531;
980.1000;0.1083;0.8365;
980.4000;0.1099;0.8342;
980.7000;0.1083;0.8365;
981.0000;0.1099;0.8294;
981.3000;0.1099;0.8247;
981.6000;0.1107;0.8294;
981.9000;0.1123;0.8318;
982.2000;0.1091;0.8318;
982.5000;0.1091;0.8389;
982.8000;0.1115;0.8460;
983.1000;0.1099;0.8342;
983.4000;0.1115;0.8365;
983.7000;0.1074;0.8247;
984.0000;0.1099;0.8413;
984.3000;0.1107;0.8484;
984.6000;0.1115;0.8460;
984.9000;0.1099;0.8294;
985.2000;0.1091;0.8270;
985.5000;0.1083;0.8342;
985.8000;0.1034;0.8270;
986.1000;0.1099;0.8389;
986.4000;0.1140;0.8531;
986.7000;0.1083;0.8389;
987.0000;0.1115;0.8507;
987.3000;0.1115;0.8531;
987.6000;0.1107;0.8507;
987.9000;0.1074;0.8460;
988.2000;0.1115;0.8579;
988.5000;0.1091;0.8650;
988.8000;0.1107;0.8650;
989.1000;0.1107;0.8602;
989.4000;0.1066;0.8389;
989.7000;0.1099;0.8507;
990.0000;0.1099;0.8460;
990.3000;0.1091;0.8460;
990.6000;0.1099;0.8342;
990.9000;0.1115;0.8318;
991.2000;0.1083;0.8270;
991.5000;0.1115;0.8318;
991.8000;0.1123;0.8389;
992.1000;0.1123;0.8365;
992.4000;0.1115;0.8389;
992.7000;0.1099;0.8318;
993.0000;0.1091;0.8318;
993.3000;0.1074;0.8318;
993.6000;0.1099;0.8318;
993.9000;0.1074;0.8247;
994.2000;0.1083;0.8294;
994.5000;0.1099;0.8294;
994.8000;0.1131;0.8365;
995.1000;0.1018;0.8199;
995.4000;0.1083;0.8365;
995.7000;0.1172;0.8673;
996.0000;0.1115;0.8579;
996.3000;0.1026;0.8389;
996.6000;0.1091;0.8602;
996.9000;0.1091;0.8650;
997.2000;0.1074;0.8650;
997.5000;0.1107;0.8673;
997.8000;0.1099;0.8602;
998.1000;0.1099;0.8555;
998.4000;0.1115;0.8531;
998.7000;0.1091;0.8579;
999.0000;0.1091;0.8579;
999.3000;0.1091;0.8626;
999.6000;0.1091;0.8507;
999.9000;0.1099;0.8507;
1000.2000;0.1099;0.8460;
1000.5000;0.1091;0.8460;
1000.8000;0.1140;0.8531;
1001.1000;0.1115;0.8484;
1001.4000;0.1099;0.8389;
1001.7000;0.1091;0.8365;
1002.0000;0.1099;0.8413;
1002.3000;0.1091;0.8460;
1002.6000;0.1099;0.8413;
1002.9000;0.1123;0.8342;
1003.2000;0.1107;0.8342;
1003.5000;0.1091;0.8270;
1003.8000;0.1123;0.8460;
1004.1000;0.1115;0.8555;
1004.4000;0.1099;0.8650;
1004.7000;0.1123;0.8792;
1005.0000;0.1107;0.8792;
1005.3000;0.1091;0.8697;
1005.6000;0.1099;0.8650;
1005.9000;0.1099;0.8721;
1006.2000;0.1099;0.8768;
1006.5000;0.1107;0.8744;
1006.8000;0.1083;0.8697;
1007.1000;0.1091;0.8721;
1007.4000;0.1099;0.8792;
1007.7000;0.1058;0.8721;
1008.0000;0.1107;0.8792;
1008.3000;0.1123;0.8768;
1008.6000;0.1107;0.8768;
1008.9000;0.1107;0.8839;
1009.2000;0.1123;0.8815;
1009.5000;0.1099;0.8815;
1009.8000;0.1107;0.8792;
1010.1000;0.1123;0.8839;
1010.4000;0.1164;0.8910;
1010.7000;0.1107;0.8768;
1011.0000;0.1099;0.8697;
1011.3000;0.1099;0.8673;
1011.6000;0.1099;0.8744;
1011.9000;0.1083;0.8768;
1012.2000;0.1099;0.8744;
1012.5000;0.1099;0.8673;
1012.8000;0.1123;0.8673;
1013.1000;0.1115;0.8626;
1013.4000;0.1107;0.8673;
1013.7000;0.1107;0.8673;
1014.0000;0.1107;0.8721;
1014.3000;0.1099;0.8744;
1014.6000;0.1123;0.8721;
1014.9000;0.1115;0.8602;
1015.2000;0.1083;0.8650;
1015.5000;0.1099;0.8697;
1015.8000;0.1180;0.8910;
1016.1000;0.1099;0.8744;
1016.4000;0.1091;0.8768;
1016.7000;0.1083;0.8815;
1017.0000;0.1115;0.8768;
1017.3000;0.1074;0.8650;
1017.6000;0.1123;0.8721;
1017.9000;0.1115;0.8673;
1018.2000;0.1107;0.8650;
1018.5000;0.1123;0.8697;
1018.8000;0.1156;0.8697;
1019.1000;0.1074;0.8484;
1019.4000;0.1115;0.8555;
1019.7000;0.1107;0.8531;
1020.0000;0.1107;0.8579;
1020.3000;0.1131;0.8697;
1020.6000;0.1107;0.8697;
1020.9000;0.1115;0.8744;
1021.2000;0.1099;0.8650;
1021.5000;0.1091;0.8579;
1021.8000;0.1066;0.8389;
1022.1000;0.1091;0.8436;
1022.4000;0.1099;0.8507;
1022.7000;0.1091;0.8460;
1023.0000;0.1099;0.8531;
1023.3000;0.1123;0.8626;
1023.6000;0.1115;0.8650;
1023.9000;0.1099;0.8579;
1024.2000;0.1091;0.8531;
1024.5000;0.1123;0.8579;
1024.8000;0.1066;0.8413;
1025.1000;0.1099;0.8507;
1025.4000;0.1066;0.8365;
1025.7000;0.1099;0.8436;
1026.0000;0.1099;0.8460;
1026.3000;0.1099;0.8555;
1026.6000;0.1115;0.8484;
1026.9000;0.1099;0.8460;
1027.2000;0.1099;0.8436;
1027.5000;0.1083;0.8436;
1027.8000;0.1083;0.8460;
1028.1000;0.1091;0.8507;
1028.4000;0.1107;0.8579;
1028.7000;0.1099;0.8602;
1029.0000;0.1115;0.8531;
1029.3000;0.1107;0.8602;
1029.6000;0.1107;0.8555;
1029.9000;0.1115;0.8579;
1030.2000;0.1107;0.8602;
1030.5000;0.1107;0.8602;
1030.8000;0.1115;0.8555;
1031.1000;0.1115;0.8484;
1031.4000;0.1091;0.8436;
1031.7000;0.1099;0.8365;
1032.0000;0.1099;0.8365;
1032.3000;0.1123;0.8365;
1032.6000;0.1123;0.8413;
1032.9000;0.1107;0.8342;
1033.2000;0.1123;0.8460;
1033.5000;0.1107;0.8484;
1033.8000;0.1115;0.8484;
1034.1000;0.1066;0.8389;
1034.4000;0.1091;0.8460;
1034.7000;0.1099;0.8507;
1035.0000;0.1099;0.8531;
1035.3000;0.1083;0.8460;
1035.6000;0.1131;0.8555;
1035.9000;0.1107;0.8460;
1036.2000;0.1107;0.8436;
1036.5000;0.1091;0.8413;
1036.8000;0.1099;0.8389;
1037.1000;0.1099;0.8365;
1037.4000;0.1131;0.8484;
1037.7000;0.1099;0.8342;
1038.0000;0.1115;0.8389;
1038.3000;0.1099;0.8318;
1038.6000;0.1099;0.8342;
1038.9000;0.1091;0.8389;
1039.2000;0.1091;0.8436;
1039.5000;0.1034;0.8413;
1039.8000;0.1091;0.8602;
1040.1000;0.1083;0.8602;
1040.4000;0.1099;0.8673;
1040.7000;0.1107;0.8626;
1041.0000;0.1074;0.8602;
1041.3000;0.1091;0.8650;
1041.6000;0.1050;0.8531;
1041.9000;0.1099;0.8602;
1042.2000;0.1091;0.8602;
1042.5000;0.1107;0.8579;
1042.8000;0.1123;0.8579;
1043.1000;0.1099;0.8484;
1043.4000;0.1099;0.8555;
1043.7000;0.1083;0.8436;
1044.0000;0.1099;0.8531;
1044.3000;0.1156;0.8650;
1044.6000;0.1107;0.8602;
1044.9000;0.1066;0.8531;
1045.2000;0.1115;0.8602;
1045.5000;0.1107;0.8673;
1045.8000;0.1091;0.8555;
1046.1000;0.1091;0.8484;
1046.4000;0.1026;0.8342;
1046.7000;0.1115;0.8389;
1047.0000;0.1099;0.8294;
1047.3000;0.1091;0.8365;
1047.6000;0.1099;0.8365;
1047.9000;0.1107;0.8389;
1048.2000;0.1091;0.8413;
1048.5000;0.1083;0.8413;
1048.8000;0.1091;0.8413;
1049.1000;0.1099;0.8413;
1049.4000;0.1091;0.8413;
1049.7000;0.1107;0.8484;
1050.0000;0.1099;0.8507;
1050.3000;0.1091;0.8413;
1050.6000;0.1091;0.8389;
1050.9000;0.1099;0.8389;
1051.2000;0.1107;0.8413;
1051.5000;0.1099;0.8436;
1051.8000;0.1091;0.8436;
1052.1000;0.1107;0.8389;
1052.4000;0.1115;0.8413;
1052.7000;0.1099;0.8365;
1053.0000;0.1107;0.8365;
1053.3000;0.1115;0.8484;
1053.6000;0.1099;0.8484;
1053.9000;0.1066;0.8436;
1054.2000;0.1091;0.8436;
1054.5000;0.1115;0.8507;
1054.8000;0.1091;0.8555;
1055.1000;0.1099;0.8507;
1055.4000;0.1107;0.8579;
1055.7000;0.1066;0.8579;
1056.0000;0.1099;0.8650;
1056.3000;0.1107;0.8673;
1056.6000;0.1131;0.8768;
1056.9000;0.1115;0.8673;
1057.2000;0.1148;0.8768;
1057.5000;0.1107;0.8626;
1057.8000;0.1099;0.8650;
1058.1000;0.1091;0.8697;
1058.4000;0.1099;0.8650;
1058.7000;0.1156;0.8815;
1059.0000;0.1148;0.8744;
1059.3000;0.1107;0.8673;
1059.6000;0.1099;0.8721;
1059.9000;0.1099;0.8768;
1060.2000;0.1140;0.8815;
1060.5000;0.1034;0.8507;
1060.8000;0.1099;0.8602;
1061.1000;0.1107;0.8626;
1061.4000;0.1148;0.8815;
1061.7000;0.1091;0.8579;
1062.0000;0.1107;0.8602;
1062.3000;0.1083;0.8626;
1062.6000;0.1099;0.8626;
1062.9000;0.1091;0.8579;
1063.2000;0.1115;0.8744;
1063.5000;0.1091;0.8721;
1063.8000;0.1164;0.8863;
1064.1000;0.1050;0.8555;
1064.4000;0.1091;0.8673;
1064.7000;0.1131;0.8768;
1065.0000;0.1058;0.8650;
1065.3000;0.1066;0.8602;
1065.6000;0.1115;0.8673;
1065.9000;0.1083;0.8673;
1066.2000;0.1156;0.8958;
1066.5000;0.1099;0.8863;
1066.8000;0.1083;0.8839;
1067.1000;0.1083;0.8863;
1067.4000;0.1099;0.8744;
1067.7000;0.1091;0.8792;
1068.0000;0.1091;0.8744;
1068.3000;0.1091;0.8744;
1068.6000;0.1107;0.8792;
1068.9000;0.1099;0.8721;
1069.2000;0.1107;0.8721;
1069.5000;0.1099;0.8626;
1069.8000;0.1156;0.8673;
1070.1000;0.1115;0.8555;
1070.4000;0.1107;0.8531;
1070.7000;0.1115;0.8579;
1071.0000;0.1099;0.8507;
1071.3000;0.1115;0.8555;
1071.6000;0.1099;0.8531;
1071.9000;0.1148;0.8697;
1072.2000;0.1091;0.8626;
1072.5000;0.1099;0.8721;
1072.8000;0.1083;0.8673;
1073.1000;0.1074;0.8650;
1073.4000;0.1083;0.8650;
1073.7000;0.1091;0.8650;
1074.0000;0.1115;0.8673;
1074.3000;0.1107;0.8602;
1074.6000;0.1107;0.8626;
1074.9000;0.1083;0.8531;
1075.2000;0.1115;0.8602;
1075.5000;0.1091;0.8579;
1075.8000;0.1099;0.8626;
1076.1000;0.1123;0.8721;
1076.4000;0.1099;0.8768;
1076.7000;0.1107;0.8768;
1077.0000;0.1107;0.8768;
1077.3000;0.1091;0.8744;
1077.6000;0.1083;0.8650;
1077.9000;0.1188;0.8910;
1078.2000;0.1058;0.8579;
1078.5000;0.1091;0.8673;
1078.8000;0.1115;0.8650;
1079.1000;0.1115;0.8602;
1079.4000;0.1099;0.8579;
1079.7000;0.1026;0.8294;
1080.0000;0.1099;0.8507;
1080.3000;0.1091;0.8507;
1080.6000;0.1074;0.8555;
1080.9000;0.1083;0.8602;
1081.2000;0.1091;0.8673;
1081.5000;0.1083;0.8650;
1081.8000;0.1083;0.8626;
1082.1000;0.1123;0.8792;
1082.4000;0.1083;0.8531;
1082.7000;0.1180;0.8744;
1083.0000;0.1099;0.8602;
1083.3000;0.1107;0.8579;
1083.6000;0.1115;0.8507;
1083.9000;0.1107;0.8507;
1084.2000;0.1107;0.8484;
1084.5000;0.1083;0.8436;
1084.8000;0.1115;0.8555;
1085.1000;0.1115;0.8579;
1085.4000;0.1050;0.8460;
1085.7000;0.1107;0.8579;
1086.0000;0.1099;0.8602;
1086.3000;0.1099;0.8507;
1086.6000;0.1083;0.8460;
1086.9000;0.1115;0.8555;
1087.2000;0.1083;0.8507;
1087.5000;0.1099;0.8531;
1087.8000;0.1058;0.8460;
1088.1000;0.1091;0.8507;
1088.4000;0.1083;0.8507;
1088.7000;0.1083;0.8460;
1089.0000;0.1107;0.8531;
1089.3000;0.1099;0.8507;
1089.6000;0.1099;0.8531;
1089.9000;0.1091;0.8507;
1090.2000;0.1083;0.8531;
1090.5000;0.1091;0.8507;
1090.8000;0.1091;0.8507;
1091.1000;0.1115;0.8555;
1091.4000;0.1034;0.8413;
1091.7000;0.1091;0.8460;
1092.0000;0.1091;0.8531;
1092.3000;0.1107;0.8602;
1092.6000;0.1099;0.8507;
1092.9000;0.1058;0.8365;
1093.2000;0.1115;0.8413;
1093.5000;0.1083;0.8270;
1093.8000;0.1115;0.8389;
1094.1000;0.1107;0.8365;
1094.4000;0.1107;0.8389;
1094.7000;0.1066;0.8270;
1095.0000;0.1115;0.8389;
1095.3000;0.1099;0.8436;
1095.6000;0.1091;0.8555;
1095.9000;0.1164;0.8768;
1096.2000;0.1091;0.8555;
1096.5000;0.1099;0.8555;
1096.8000;0.1074;0.8507;
1097.1000;0.1107;0.8650;
1097.4000;0.1099;0.8579;
1097.7000;0.1099;0.8602;
1098.0000;0.1074;0.8602;
1098.3000;0.1083;0.8531;
1098.6000;0.1107;0.8602;
1098.9000;0.1058;0.8507;
1099.2000;0.1091;0.8650;
1099.5000;0.1083;0.8744;
1099.8000;0.1066;0.8744;
1100.1000;0.1115;0.8768;
1100.4000;0.1074;0.8626;
1100.7000;0.1107;0.8721;
1101.0000;0.1074;0.8744;
1101.3000;0.1091;0.8792;
1101.6000;0.1107;0.8768;
1101.9000;0.1026;0.8555;
1102.2000;0.1091;0.8579;
1102.5000;0.1123;0.8602;
1102.8000;0.1091;0.8484;
1103.1000;0.1099;0.8579;
1103.4000;0.1107;0.8673;
1103.7000;0.1180;0.8863;
1104.0000;0.1156;0.8910;
1104.3000;0.1083;0.8768;
1104.6000;0.1099;0.8721;
1104.9000;0.1156;0.8768;
1105.2000;0.1107;0.8650;
1105.5000;0.1083;0.8602;
1105.8000;0.1083;0.8626;
1106.1000;0.1091;0.8697;
1106.4000;0.1042;0.8579;
1106.7000;0.1107;0.8792;
1107.0000;0.1091;0.8721;
1107.3000;0.1107;0.8839;
1107.6000;0.1107;0.8910;
1107.9000;0.1083;0.8815;
1108.2000;0.1083;0.8792;
1108.5000;0.1058;0.8673;
1108.8000;0.1131;0.8792;
1109.1000;0.1091;0.8792;
1109.4000;0.1099;0.8887;
1109.7000;0.1083;0.8839;
1110.0000;0.1091;0.8839;
1110.3000;0.1083;0.8744;
1110.6000;0.1091;0.8697;
1110.9000;0.1131;0.8792;
1111.2000;0.1050;0.8531;
1111.5000;0.1099;0.8626;
1111.8000;0.1083;0.8579;
1112.1000;0.1091;0.8531;
1112.4000;0.1083;0.8579;
1112.7000;0.1083;0.8555;
1113.0000;0.1091;0.8531;
1113.3000;0.1074;0.8555;
1113.6000;0.1091;0.8531;
1113.9000;0.1091;0.8484;
1114.2000;0.1099;0.8507;
1114.5000;0.1083;0.8507;
1114.8000;0.1107;0.8460;
1115.1000;0.1099;0.8436;
1115.4000;0.1107;0.8460;
1115.7000;0.1107;0.8436;
1116.0000;0.1091;0.8413;
1116.3000;0.1099;0.8507;
1116.6000;0.1091;0.8484;
1116.9000;0.1123;0.8579;
1117.2000;0.1091;0.8484;
1117.5000;0.1115;0.8531;
1117.8000;0.1099;0.8460;
1118.1000;0.1115;0.8531;
1118.4000;0.1099;0.8484;
1118.7000;0.1123;0.8579;
1119.0000;0.1099;0.8579;
1119.3000;0.1099;0.8650;
1119.6000;0.1107;0.8602;
1119.9000;0.1156;0.8839;
1120.2000;0.1083;0.8697;
1120.5000;0.1099;0.8744;
1120.8000;0.1107;0.8815;
1121.1000;0.1099;0.8815;
1121.4000;0.1091;0.8839;
1121.7000;0.1099;0.8887;
1122.0000;0.1099;0.8863;
1122.3000;0.1115;0.8839;
1122.6000;0.1091;0.8697;
1122.9000;0.1107;0.8721;
1123.2000;0.1107;0.8721;
1123.5000;0.1107;0.8673;
1123.8000;0.1091;0.8768;
1124.1000;0.1107;0.8792;
1124.4000;0.1123;0.8792;
1124.7000;0.1131;0.8673;
1125.0000;0.1107;0.8626;
1125.3000;0.1099;0.8650;
1125.6000;0.1107;0.8697;
1125.9000;0.1099;0.8697;
1126.2000;0.1099;0.8721;
1126.5000;0.1091;0.8650;
1126.8000;0.1107;0.8697;
1127.1000;0.1083;0.8626;
1127.4000;0.1099;0.8650;
1127.7000;0.1123;0.8721;
1128.0000;0.1107;0.8744;
1128.3000;0.1099;0.8768;
1128.6000;0.1099;0.8792;
1128.9000;0.1099;0.8721;
1129.2000;0.1099;0.8673;
1129.5000;0.1107;0.8697;
1129.8000;0.1115;0.8744;
1130.1000;0.1091;0.8626;
1130.4000;0.1148;0.8768;
1130.7000;0.1107;0.8626;
1131.0000;0.1058;0.8484;
1131.3000;0.1091;0.8626;
1131.6000;0.1042;0.8531;
1131.9000;0.1107;0.8650;
1132.2000;0.1107;0.8626;
1132.5000;0.1099;0.8531;
1132.8000;0.1083;0.8507;
1133.1000;0.1042;0.8484;
1133.4000;0.1099;0.8697;
1133.7000;0.1140;0.8839;
1134.0000;0.1042;0.8555;
1134.3000;0.1083;0.8602;
1134.6000;0.1083;0.8602;
1134.9000;0.1107;0.8579;
1135.2000;0.1091;0.8531;
1135.5000;0.1026;0.8342;
1135.8000;0.1107;0.8555;
1136.1000;0.1091;0.8555;
1136.4000;0.1107;0.8579;
1136.7000;0.1091;0.8507;
1137.0000;0.1099;0.8507;
1137.3000;0.1099;0.8389;
1137.6000;0.1083;0.8484;
1137.9000;0.1083;0.8484;
1138.2000;0.1091;0.8436;
1138.5000;0.1107;0.8413;
1138.8000;0.1099;0.8389;
1139.1000;0.1107;0.8342;
1139.4000;0.1091;0.8270;
1139.7000;0.1107;0.8389;
1140.0000;0.1107;0.8436;
1140.3000;0.1099;0.8507;
1140.6000;0.1091;0.8460;
1140.9000;0.1099;0.8413;
1141.2000;0.1123;0.8318;
1141.5000;0.1123;0.8413;
1141.8000;0.1107;0.8484;
1142.1000;0.1107;0.8579;
1142.4000;0.1099;0.8579;
1142.7000;0.1115;0.8650;
1143.0000;0.1107;0.8650;
1143.3000;0.1099;0.8626;
1143.6000;0.1107;0.8650;
1143.9000;0.1099;0.8626;
1144.2000;0.1099;0.8626;
1144.5000;0.1074;0.8626;
1144.8000;0.1083;0.8697;
1145.1000;0.1107;0.8744;
1145.4000;0.1074;0.8697;
1145.7000;0.1091;0.8744;
1146.0000;0.1099;0.8792;
1146.3000;0.1123;0.8839;
1146.6000;0.1107;0.8721;
1146.9000;0.1083;0.8697;
1147.2000;0.1099;0.8673;
1147.5000;0.1083;0.8721;
1147.8000;0.1091;0.8744;
1148.1000;0.1099;0.8768;
1148.4000;0.1091;0.8768;
1148.7000;0.1107;0.8839;
1149.0000;0.1107;0.8744;
1149.3000;0.1083;0.8744;
1149.6000;0.1074;0.8673;
1149.9000;0.1083;0.8673;
1150.2000;0.1018;0.8531;
1150.5000;0.1083;0.8744;
1150.8000;0.1091;0.8721;
1151.1000;0.1091;0.8650;
1151.4000;0.1066;0.8555;
1151.7000;0.1091;0.8602;
1152.0000;0.1083;0.8602;
1152.3000;0.1099;0.8721;
1152.6000;0.1066;0.8602;
1152.9000;0.1099;0.8602;
1153.2000;0.1091;0.8555;
1153.5000;0.1180;0.8744;
1153.8000;0.1107;0.8579;
1154.1000;0.1107;0.8626;
1154.4000;0.1018;0.8389;
1154.7000;0.1115;0.8555;
1155.0000;0.1091;0.8484;
1155.3000;0.1099;0.8507;
1155.6000;0.1066;0.8484;
1155.9000;0.1074;0.8555;
1156.2000;0.1115;0.8697;
1156.5000;0.1131;0.8768;
1156.8000;0.1123;0.8744;
1157.1000;0.1099;0.8673;
1157.4000;0.1156;0.8839;
1157.7000;0.1123;0.8744;
1158.0000;0.1074;0.8650;
1158.3000;0.1091;0.8602;
1158.6000;0.1091;0.8650;
1158.9000;0.1083;0.8744;
1159.2000;0.1107;0.8721;
1159.5000;0.1188;0.8934;
1159.8000;0.1091;0.8721;
1160.1000;0.1156;0.8887;
1160.4000;0.1091;0.8673;
1160.7000;0.1099;0.8697;
1161.0000;0.1091;0.8721;
1161.3000;0.1058;0.8602;
1161.6000;0.1107;0.8697;
1161.9000;0.1099;0.8697;
1162.2000;0.1164;0.8887;
1162.5000;0.1099;0.8744;
1162.8000;0.1091;0.8744;
1163.1000;0.1091;0.8792;
1163.4000;0.1099;0.8815;
1163.7000;0.1107;0.8863;
1164.0000;0.1123;0.8958;
1164.3000;0.1091;0.8958;
1164.6000;0.1107;0.8981;
1164.9000;0.1066;0.8934;
1165.2000;0.1099;0.8863;
1165.5000;0.1123;0.8839;
1165.8000;0.1107;0.8815;
1166.1000;0.1091;0.8768;
1166.4000;0.1099;0.8815;
1166.7000;0.1083;0.8744;
1167.0000;0.1099;0.8815;
1167.3000;0.1115;0.8768;
1167.6000;0.1107;0.8815;
1167.9000;0.1099;0.8815;
1168.2000;0.1099;0.8815;
1168.5000;0.1099;0.8863;
1168.8000;0.1091;0.8863;
1169.1000;0.1091;0.8792;
1169.4000;0.1091;0.8792;
1169.7000;0.1123;0.8887;
1170.0000;0.1091;0.8744;
1170.3000;0.1107;0.8768;
1170.6000;0.1099;0.8697;
1170.9000;0.1091;0.8697;
1171.2000;0.1107;0.8673;
1171.5000;0.1091;0.8673;
1171.8000;0.1083;0.8626;
1172.1000;0.1050;0.8579;
1172.4000;0.1083;0.8744;
1172.7000;0.1058;0.8744;
1173.0000;0.1115;0.8887;
1173.3000;0.1099;0.8792;
1173.6000;0.1083;0.8792;
1173.9000;0.1148;0.8863;
1174.2000;0.1099;0.8673;
1174.5000;0.1083;0.8721;
1174.8000;0.1099;0.8673;
1175.1000;0.1115;0.8650;
1175.4000;0.1058;0.8531;
1175.7000;0.1074;0.8579;
1176.0000;0.1099;0.8626;
1176.3000;0.1034;0.8436;
1176.6000;0.1091;0.8721;
1176.9000;0.1091;0.8697;
1177.2000;0.1091;0.8697;
1177.5000;0.1099;0.8697;
1177.8000;0.1099;0.8626;
1178.1000;0.1091;0.8460;
1178.4000;0.1091;0.8555;
1178.7000;0.1123;0.8579;
1179.0000;0.1107;0.8531;
1179.3000;0.1091;0.8507;
1179.6000;0.1091;0.8531;
1179.9000;0.1074;0.8484;
1180.2000;0.1083;0.8602;
1180.5000;0.1099;0.8626;
1180.8000;0.1091;0.8602;
1181.1000;0.1107;0.8602;
1181.4000;0.1099;0.8602;
1181.7000;0.1083;0.8507;
1182.0000;0.1091;0.8650;
1182.3000;0.1083;0.8650;
1182.6000;0.1091;0.8650;
1182.9000;0.1099;0.8626;
1183.2000;0.1083;0.8721;
1183.5000;0.1115;0.8815;
1183.8000;0.1074;0.8768;
1184.1000;0.1091;0.8839;
1184.4000;0.1099;0.8721;
1184.7000;0.1099;0.8792;
1185.0000;0.1099;0.8839;
1185.3000;0.1140;0.8958;
1185.6000;0.1107;0.8934;
1185.9000;0.1115;0.8934;
1186.2000;0.1164;0.9029;
1186.5000;0.1099;0.8744;
1186.8000;0.1123;0.8815;
1187.1000;0.1099;0.8839;
1187.4000;0.1091;0.8934;
1187.7000;0.1091;0.8958;
1188.0000;0.1123;0.9052;
1188.3000;0.1099;0.9005;
1188.6000;0.1074;0.8863;
1188.9000;0.1131;0.8958;
1189.2000;0.1107;0.8958;
1189.5000;0.1091;0.8887;
1189.8000;0.1107;0.8887;
1190.1000;0.1107;0.8839;
1190.4000;0.1115;0.8792;
1190.7000;0.1115;0.8744;
1191.0000;0.1107;0.8768;
1191.3000;0.1091;0.8673;
1191.6000;0.1107;0.8673;
1191.9000;0.1091;0.8673;
1192.2000;0.1091;0.8673;
1192.5000;0.1083;0.8650;
1192.8000;0.1083;0.8626;
1193.1000;0.1099;0.8721;
1193.4000;0.1091;0.8673;
1193.7000;0.1099;0.8673;
1194.0000;0.1091;0.8697;
1194.3000;0.1066;0.8673;
1194.6000;0.1074;0.8721;
1194.9000;0.1083;0.8697;
1195.2000;0.1099;0.8721;
1195.5000;0.1099;0.8815;
1195.8000;0.1066;0.8863;
1196.1000;0.1107;0.8863;
1196.4000;0.1091;0.8815;
1196.7000;0.1099;0.8863;
1197.0000;0.1074;0.8792;
1197.3000;0.1099;0.8863;
1197.6000;0.1091;0.8839;
1197.9000;0.1050;0.8697;
1198.2000;0.1099;0.8887;
1198.5000;0.1180;0.9052;
1198.8000;0.1107;0.8792;
1199.1000;0.1083;0.8673;
1199.4000;0.1091;0.8768;
1199.7000;0.1099;0.8768;
1200.0000;0.1091;0.8744;
1200.3000;0.1091;0.8815;
1200.6000;0.1091;0.8768;
1200.9000;0.1099;0.8768;
1201.2000;0.1107;0.8744;
1201.5000;0.1099;0.8721;
1201.8000;0.1115;0.8792;
1202.1000;0.1099;0.8815;
1202.4000;0.1123;0.8863;
1202.7000;0.1091;0.8839;
1203.0000;0.1091;0.8792;
1203.3000;0.1099;0.8815;
1203.6000;0.1091;0.8863;
1203.9000;0.1099;0.8887;
1204.2000;0.1083;0.8839;
1204.5000;0.1083;0.8934;
1204.8000;0.1074;0.8958;
1205.1000;0.1083;0.8934;
1205.4000;0.1091;0.8839;
1205.7000;0.1091;0.8744;
1206.0000;0.1099;0.8650;
1206.3000;0.1099;0.8507;
1206.6000;0.1107;0.8531;
1206.9000;0.1107;0.8507;
1207.2000;0.1115;0.8507;
1207.5000;0.1107;0.8507;
1207.8000;0.1115;0.8579;
1208.1000;0.1123;0.8673;
1208.4000;0.1115;0.8626;
1208.7000;0.1107;0.8626;
1209.0000;0.1099;0.8602;
1209.3000;0.1099;0.8673;
1209.6000;0.1099;0.8650;
1209.9000;0.1115;0.8650;
1210.2000;0.1107;0.8602;
1210.5000;0.1107;0.8697;
1210.8000;0.1115;0.8815;
1211.1000;0.1083;0.8721;
1211.4000;0.1107;0.8626;
1211.7000;0.1091;0.8579;
1212.0000;0.1091;0.8626;
1212.3000;0.1115;0.8626;
1212.6000;0.1091;0.8673;
1212.9000;0.1099;0.8602;
1213.2000;0.1091;0.8697;
1213.5000;0.1083;0.8673;
1213.8000;0.1156;0.8815;
1214.1000;0.1091;0.8507;
1214.4000;0.1083;0.8484;
1214.7000;0.1107;0.8555;
1215.0000;0.1148;0.8579;
1215.3000;0.1091;0.8484;
1215.6000;0.1074;0.8602;
1215.9000;0.1066;0.8650;
1216.2000;0.1091;0.8626;
1216.5000;0.1115;0.8721;
1216.8000;0.1091;0.8673;
1217.1000;0.1083;0.8650;
1217.4000;0.1099;0.8602;
1217.7000;0.1099;0.8626;
1218.0000;0.1074;0.8579;
1218.3000;0.1115;0.8697;
1218.6000;0.1091;0.8673;
1218.9000;0.1115;0.8579;
1219.2000;0.1107;0.8555;
1219.5000;0.1091;0.8555;
1219.8000;0.1083;0.8531;
1220.1000;0.1099;0.8626;
1220.4000;0.1074;0.8555;
1220.7000;0.1099;0.8626;
1221.0000;0.1099;0.8579;
1221.3000;0.1148;0.8650;
1221.6000;0.1099;0.8507;
1221.9000;0.1107;0.8507;
1222.2000;0.1099;0.8507;
1222.5000;0.1140;0.8602;
1222.8000;0.1115;0.8531;
1223.1000;0.1034;0.8342;
1223.4000;0.1115;0.8531;
1223.7000;0.1099;0.8460;
1224.0000;0.1091;0.8436;
1224.3000;0.0985;0.8152;
1224.6000;0.1091;0.8413;
1224.9000;0.1099;0.8436;
1225.2000;0.1107;0.8413;
1225.5000;0.1099;0.8507;
1225.8000;0.1091;0.8579;
1226.1000;0.1091;0.8507;
1226.4000;0.1091;0.8413;
1226.7000;0.1115;0.8413;
1227.0000;0.1091;0.8389;
1227.3000;0.1042;0.8342;
1227.6000;0.1091;0.8460;
1227.9000;0.1123;0.8531;
1228.2000;0.1099;0.8579;
1228.5000;0.1083;0.8602;
1228.8000;0.1074;0.8579;
1229.1000;0.1083;0.8626;
1229.4000;0.1107;0.8555;
1229.7000;0.1107;0.8579;
1230.0000;0.1091;0.8555;
1230.3000;0.1083;0.8507;
1230.6000;0.1091;0.8579;
1230.9000;0.1099;0.8721;
1231.2000;0.1091;0.8697;
1231.5000;0.1091;0.8673;
1231.8000;0.1091;0.8792;
1232.1000;0.1131;0.8839;
1232.4000;0.1091;0.8792;
1232.7000;0.1091;0.8839;
1233.0000;0.1058;0.8744;
1233.3000;0.1083;0.8768;
1233.6000;0.1091;0.8792;
1233.9000;0.1074;0.8673;
1234.2000;0.1164;0.8887;
1234.5000;0.1115;0.8673;
1234.8000;0.1115;0.8744;
1235.1000;0.1091;0.8673;
1235.4000;0.1091;0.8626;
1235.7000;0.1099;0.8768;
1236.0000;0.1091;0.8768;
1236.3000;0.1107;0.8768;
1236.6000;0.1107;0.8697;
1236.9000;0.1099;0.8721;
1237.2000;0.1115;0.8744;
1237.5000;0.1107;0.8673;
1237.8000;0.1099;0.8602;
1238.1000;0.1099;0.8579;
1238.4000;0.1099;0.8673;
1238.7000;0.1091;0.8792;
1239.0000;0.1099;0.8839;
1239.3000;0.1091;0.8887;
1239.6000;0.1091;0.8887;
1239.9000;0.1083;0.8815;
1240.2000;0.1083;0.8839;
1240.5000;0.1026;0.8673;
1240.8000;0.1107;0.8863;
1241.1000;0.1099;0.8887;
1241.4000;0.1107;0.8958;
1241.7000;0.1091;0.8981;
1242.0000;0.1107;0.8958;
1242.3000;0.1107;0.9029;
1242.6000;0.1099;0.8958;
1242.9000;0.1107;0.8887;
1243.2000;0.1083;0.8815;
1243.5000;0.1099;0.8815;
1243.8000;0.1107;0.8768;
1244.1000;0.1091;0.8744;
1244.4000;0.1083;0.8744;
1244.7000;0.1066;0.8721;
1245.0000;0.1099;0.8673;
1245.3000;0.1156;0.8839;
1245.6000;0.1058;0.8626;
1245.9000;0.1123;0.8792;
1246.2000;0.1107;0.8863;
1246.5000;0.1099;0.8863;
1246.8000;0.1107;0.8839;
1247.1000;0.1131;0.8815;
1247.4000;0.1123;0.8815;
1247.7000;0.1115;0.8721;
1248.0000;0.1074;0.8555;
1248.3000;0.1099;0.8555;
1248.6000;0.1083;0.8579;
1248.9000;0.1115;0.8602;
1249.2000;0.1099;0.8579;
1249.5000;0.1034;0.8460;
1249.8000;0.1058;0.8579;
1250.1000;0.1083;0.8626;
1250.4000;0.1091;0.8602;
1250.7000;0.1099;0.8579;
1251.0000;0.1099;0.8579;
1251.3000;0.1107;0.8579;
1251.6000;0.1091;0.8507;
1251.9000;0.1091;0.8531;
1252.2000;0.1083;0.8579;
1252.5000;0.1091;0.8602;
1252.8000;0.1107;0.8744;
1253.1000;0.1083;0.8697;
1253.4000;0.1074;0.8768;
1253.7000;0.1099;0.8863;
1254.0000;0.1091;0.8815;
1254.3000;0.1091;0.8768;
1254.6000;0.1099;0.8768;
1254.9000;0.1091;0.8721;
1255.2000;0.1083;0.8721;
1255.5000;0.1099;0.8744;
1255.8000;0.1099;0.8768;
1256.1000;0.1115;0.8863;
1256.4000;0.1091;0.8792;
1256.7000;0.1115;0.8792;
1257.0000;0.1107;0.8744;
1257.3000;0.1099;0.8650;
1257.6000;0.1099;0.8697;
1257.9000;0.1083;0.8673;
1258.2000;0.1083;0.8721;
1258.5000;0.1074;0.8721;
1258.8000;0.1091;0.8815;
1259.1000;0.1107;0.8744;
1259.4000;0.1099;0.8768;
1259.7000;0.1099;0.8744;
1260.0000;0.1066;0.8531;
1260.3000;0.1091;0.8555;
1260.6000;0.1099;0.8579;
1260.9000;0.1091;0.8555;
1261.2000;0.1058;0.8602;
1261.5000;0.1107;0.8768;
1261.8000;0.1091;0.8579;
1262.1000;0.1091;0.8579;
1262.4000;0.1091;0.8626;
1262.7000;0.1083;0.8602;
1263.0000;0.1099;0.8721;
1263.3000;0.1099;0.8721;
1263.6000;0.1099;0.8697;
1263.9000;0.1083;0.8626;
1264.2000;0.1099;0.8673;
1264.5000;0.1099;0.8626;
1264.8000;0.1123;0.8602;
1265.1000;0.1123;0.8650;
1265.4000;0.1091;0.8626;
1265.7000;0.1099;0.8673;
1266.0000;0.1083;0.8626;
1266.3000;0.1074;0.8626;
1266.6000;0.1091;0.8602;
1266.9000;0.1091;0.8531;
1267.2000;0.1099;0.8579;
1267.5000;0.1074;0.8484;
1267.8000;0.1099;0.8579;
1268.1000;0.1099;0.8531;
1268.4000;0.1091;0.8507;
1268.7000;0.1034;0.8460;
1269.0000;0.1058;0.8484;
1269.3000;0.1050;0.8460;
1269.6000;0.1074;0.8579;
1269.9000;0.1099;0.8602;
1270.2000;0.1115;0.8507;
1270.5000;0.1107;0.8507;
1270.8000;0.1026;0.8436;
1271.1000;0.1099;0.8531;
1271.4000;0.1140;0.8555;
1271.7000;0.1115;0.8484;
1272.0000;0.1091;0.8460;
1272.3000;0.1083;0.8365;
1272.6000;0.1026;0.8294;
1272.9000;0.1099;0.8507;
1273.2000;0.1099;0.8460;
1273.5000;0.1107;0.8531;
1273.8000;0.1107;0.8507;
1274.1000;0.1099;0.8436;
1274.4000;0.1099;0.8460;
1274.7000;0.1099;0.8555;
1275.0000;0.1115;0.8744;
1275.3000;0.1099;0.8744;
1275.6000;0.1099;0.8721;
1275.9000;0.1091;0.8697;
1276.2000;0.1091;0.8673;
1276.5000;0.1099;0.8673;
1276.8000;0.1083;0.8626;
1277.1000;0.1107;0.8721;
1277.4000;0.1091;0.8697;
1277.7000;0.1099;0.8673;
1278.0000;0.1091;0.8721;
1278.3000;0.1091;0.8697;
1278.6000;0.1091;0.8697;
1278.9000;0.1099;0.8650;
1279.2000;0.1083;0.8673;
1279.5000;0.1091;0.8602;
1279.8000;0.1091;0.8721;
1280.1000;0.1091;0.8744;
1280.4000;0.1099;0.8815;
1280.7000;0.1091;0.8863;
1281.0000;0.1099;0.8910;
1281.3000;0.1091;0.8934;
1281.6000;0.1099;0.8839;
1281.9000;0.1099;0.8815;
1282.2000;0.1099;0.8839;
1282.5000;0.1099;0.8792;
1282.8000;0.1066;0.8697;
1283.1000;0.1074;0.8626;
1283.4000;0.1083;0.8744;
1283.7000;0.1091;0.8721;
1284.0000;0.1099;0.8673;
1284.3000;0.1091;0.8768;
1284.6000;0.1058;0.8744;
1284.9000;0.1091;0.8815;
1285.2000;0.1026;0.8673;
1285.5000;0.1083;0.8863;
1285.8000;0.1099;0.8934;
1286.1000;0.1083;0.8863;
1286.4000;0.1099;0.8934;
1286.7000;0.1140;0.8981;
1287.0000;0.1083;0.8887;
1287.3000;0.1091;0.8863;
1287.6000;0.1083;0.8792;
1287.9000;0.1074;0.8792;
1288.2000;0.1107;0.8863;
1288.5000;0.1066;0.8887;
1288.8000;0.1091;0.8887;
1289.1000;0.1074;0.8863;
1289.4000;0.1099;0.8958;
1289.7000;0.1115;0.8958;
1290.0000;0.1091;0.8839;
1290.3000;0.1091;0.8839;
1290.6000;0.1091;0.8839;
1290.9000;0.1083;0.8768;
1291.2000;0.1107;0.8744;
1291.5000;0.1107;0.8721;
1291.8000;0.1099;0.8744;
1292.1000;0.1083;0.8697;
1292.4000;0.1083;0.8792;
1292.7000;0.1156;0.8958;
1293.0000;0.1107;0.8792;
1293.3000;0.1099;0.8815;
1293.6000;0.1074;0.8744;
1293.9000;0.1115;0.8815;
1294.2000;0.1083;0.8839;
1294.5000;0.1107;0.8863;
1294.8000;0.1099;0.8910;
1295.1000;0.1091;0.8815;
1295.4000;0.1123;0.8768;
1295.7000;0.1099;0.8815;
1296.0000;0.1083;0.8792;
1296.3000;0.1091;0.8792;
1296.6000;0.1058;0.8721;
1296.9000;0.1091;0.8697;
1297.2000;0.1099;0.8744;
1297.5000;0.1074;0.8673;
1297.8000;0.1083;0.8697;
1298.1000;0.1099;0.8721;
1298.4000;0.1099;0.8697;
1298.7000;0.1091;0.8673;
1299.0000;0.1083;0.8721;
1299.3000;0.1066;0.8650;
1299.6000;0.1083;0.8768;
1299.9000;0.1091;0.8863;
1300.2000;0.1083;0.8792;
1300.5000;0.1091;0.8863;
1300.8000;0.1083;0.8934;
1301.1000;0.1091;0.8981;
1301.4000;0.1091;0.8887;
1301.7000;0.1107;0.8910;
1302.0000;0.1099;0.8981;
1302.3000;0.1107;0.8887;
1302.6000;0.1091;0.8839;
1302.9000;0.1172;0.9029;
1303.2000;0.1107;0.8792;
1303.5000;0.1107;0.8721;
1303.8000;0.1115;0.8744;
1304.1000;0.1091;0.8721;
1304.4000;0.1091;0.8650;
1304.7000;0.1099;0.8650;
1305.0000;0.1083;0.8626;
1305.3000;0.1083;0.8650;
1305.6000;0.1099;0.8697;
1305.9000;0.1083;0.8673;
1306.2000;0.1099;0.8744;
1306.5000;0.1091;0.8815;
1306.8000;0.1074;0.8744;
1307.1000;0.1083;0.8768;
1307.4000;0.1083;0.8721;
1307.7000;0.1107;0.8768;
1308.0000;0.1156;0.8934;
1308.3000;0.1099;0.8744;
1308.6000;0.1091;0.8744;
1308.9000;0.1099;0.8721;
1309.2000;0.1091;0.8673;
1309.5000;0.1099;0.8626;
1309.8000;0.1074;0.8531;
1310.1000;0.1091;0.8507;
1310.4000;0.1083;0.8507;
1310.7000;0.1074;0.8602;
1311.0000;0.1083;0.8721;
1311.3000;0.1099;0.8721;
1311.6000;0.1074;0.8673;
1311.9000;0.1107;0.8721;
1312.2000;0.1115;0.8768;
1312.5000;0.1099;0.8650;
1312.8000;0.1083;0.8626;
1313.1000;0.1091;0.8531;
1313.4000;0.1107;0.8579;
1313.7000;0.1091;0.8579;
1314.0000;0.1099;0.8436;
1314.3000;0.1091;0.8436;
1314.6000;0.1123;0.8602;
1314.9000;0.1107;0.8602;
1315.2000;0.1091;0.8555;
1315.5000;0.1091;0.8602;
1315.8000;0.1083;0.8673;
1316.1000;0.1091;0.8744;
1316.4000;0.1083;0.8697;
1316.7000;0.1083;0.8673;
1317.0000;0.1091;0.8744;
1317.3000;0.1074;0.8650;
1317.6000;0.1083;0.8602;
1317.9000;0.1083;0.8555;
1318.2000;0.1083;0.8650;
1318.5000;0.1156;0.8792;
1318.8000;0.1066;0.8626;
1319.1000;0.1091;0.8744;
1319.4000;0.1107;0.8768;
1319.7000;0.1131;0.8863;
1320.0000;0.1091;0.8768;
1320.3000;0.1131;0.8863;
1320.6000;0.1099;0.8768;
1320.9000;0.1099;0.8792;
1321.2000;0.1083;0.8815;
1321.5000;0.1091;0.8839;
1321.8000;0.1131;0.8910;
1322.1000;0.1091;0.8792;
1322.4000;0.1058;0.8744;
1322.7000;0.1099;0.8815;
1323.0000;0.1099;0.8792;
1323.3000;0.1091;0.8721;
1323.6000;0.1091;0.8697;
1323.9000;0.1115;0.8768;
1324.2000;0.1099;0.8768;
1324.5000;0.1115;0.8887;
1324.8000;0.1074;0.8744;
1325.1000;0.1115;0.8792;
1325.4000;0.1099;0.8744;
1325.7000;0.1099;0.8815;
1326.0000;0.1091;0.8815;
1326.3000;0.1083;0.8792;
1326.6000;0.1123;0.8815;
1326.9000;0.1083;0.8744;
1327.2000;0.1099;0.8721;
1327.5000;0.1091;0.8602;
1327.8000;0.1099;0.8602;
1328.1000;0.1123;0.8697;
1328.4000;0.1099;0.8673;
1328.7000;0.1091;0.8626;
1329.0000;0.1140;0.8815;
1329.3000;0.1099;0.8626;
1329.6000;0.1099;0.8531;
1329.9000;0.1123;0.8507;
1330.2000;0.1107;0.8484;
1330.5000;0.1018;0.8318;
1330.8000;0.1099;0.8579;
1331.1000;0.1083;0.8555;
1331.4000;0.1099;0.8555;
1331.7000;0.1066;0.8555;
1332.0000;0.1099;0.8602;
1332.3000;0.1091;0.8555;
1332.6000;0.1074;0.8531;
1332.9000;0.1091;0.8555;
1333.2000;0.1099;0.8602;
1333.5000;0.1066;0.8555;
1333.8000;0.1083;0.8531;
1334.1000;0.1099;0.8484;
1334.4000;0.1107;0.8484;
1334.7000;0.1083;0.8389;
1335.0000;0.1050;0.8270;
1335.3000;0.1091;0.8365;
1335.6000;0.1099;0.8342;
1335.9000;0.1115;0.8389;
1336.2000;0.1091;0.8389;
1336.5000;0.1091;0.8389;
1336.8000;0.1107;0.8484;
1337.1000;0.1091;0.8484;
1337.4000;0.1131;0.8650;
1337.7000;0.1091;0.8602;
1338.0000;0.1091;0.8626;
1338.3000;0.1091;0.8531;
1338.6000;0.1131;0.8650;
1338.9000;0.1107;0.8531;
1339.2000;0.1091;0.8484;
1339.5000;0.1091;0.8555;
1339.8000;0.1180;0.8744;
1340.1000;0.1107;0.8555;
1340.4000;0.1083;0.8579;
1340.7000;0.1091;0.8484;
1341.0000;0.1115;0.8555;
1341.3000;0.1099;0.8484;
1341.6000;0.1123;0.8507;
1341.9000;0.1115;0.8507;
1342.2000;0.1115;0.8555;
1342.5000;0.1091;0.8579;
1342.8000;0.1115;0.8531;
1343.1000;0.1091;0.8531;
1343.4000;0.1001;0.8270;
1343.7000;0.1099;0.8460;
1344.0000;0.1083;0.8413;
1344.3000;0.1091;0.8460;
1344.6000;0.1091;0.8413;
1344.9000;0.1099;0.8507;
1345.2000;0.1091;0.8507;
1345.5000;0.1099;0.8555;
1345.8000;0.1091;0.8460;
1346.1000;0.1107;0.8531;
1346.4000;0.1091;0.8531;
1346.7000;0.1091;0.8507;
1347.0000;0.1099;0.8555;
1347.3000;0.1091;0.8531;
1347.6000;0.1091;0.8531;
1347.9000;0.1083;0.8436;
1348.2000;0.1091;0.8602;
1348.5000;0.1115;0.8673;
1348.8000;0.1115;0.8626;
1349.1000;0.1074;0.8531;
1349.4000;0.1083;0.8626;
1349.7000;0.1091;0.8579;
1350.0000;0.1115;0.8721;
1350.3000;0.1083;0.8626;
1350.6000;0.1091;0.8650;
1350.9000;0.1099;0.8602;
1351.2000;0.1099;0.8650;
1351.5000;0.1099;0.8555;
1351.8000;0.1083;0.8507;
1352.1000;0.1140;0.8555;
1352.4000;0.1099;0.8555;
1352.7000;0.1115;0.8507;
1353.0000;0.1083;0.8507;
1353.3000;0.1107;0.8602;
1353.6000;0.1107;0.8602;
1353.9000;0.1066;0.8507;
1354.2000;0.1066;0.8579;
1354.5000;0.1115;0.8721;
1354.8000;0.1156;0.8721;
1355.1000;0.1091;0.8555;
1355.4000;0.1107;0.8579;
1355.7000;0.1123;0.8484;
1356.0000;0.1099;0.8484;
1356.3000;0.1091;0.8507;
1356.6000;0.1083;0.8484;
1356.9000;0.1099;0.8555;
1357.2000;0.1074;0.8460;
1357.5000;0.1091;0.8436;
1357.8000;0.1091;0.8413;
1358.1000;0.1091;0.8389;
1358.4000;0.1091;0.8389;
1358.7000;0.1091;0.8389;
1359.0000;0.1074;0.8270;
1359.3000;0.1099;0.8294;
1359.6000;0.1083;0.8176;
1359.9000;0.1123;0.8270;
1360.2000;0.1083;0.8223;
1360.5000;0.1099;0.8342;
1360.8000;0.1131;0.8531;
1361.1000;0.1099;0.8460;
1361.4000;0.1074;0.8389;
1361.7000;0.1083;0.8507;
1362.0000;0.1091;0.8579;
1362.3000;0.1091;0.8531;
1362.6000;0.1099;0.8602;
1362.9000;0.1099;0.8650;
1363.2000;0.1099;0.8602;
1363.5000;0.1074;0.8626;
1363.8000;0.1091;0.8602;
1364.1000;0.1099;0.8673;
1364.4000;0.1115;0.8650;
1364.7000;0.1115;0.8579;
1365.0000;0.1091;0.8484;
1365.3000;0.1107;0.8579;
1365.6000;0.1099;0.8626;
1365.9000;0.1091;0.8626;
1366.2000;0.1074;0.8602;
1366.5000;0.1091;0.8602;
1366.8000;0.1099;0.8507;
1367.1000;0.1083;0.8579;
1367.4000;0.1066;0.8579;
1367.7000;0.1115;0.8650;
1368.0000;0.1083;0.8531;
1368.3000;0.1091;0.8602;
1368.6000;0.1074;0.8602;
1368.9000;0.1099;0.8626;
1369.2000;0.1091;0.8626;
1369.5000;0.1099;0.8721;
1369.8000;0.1091;0.8721;
1370.1000;0.1099;0.8768;
1370.4000;0.1091;0.8721;
1370.7000;0.1107;0.8744;
1371.0000;0.1083;0.8721;
1371.3000;0.1091;0.8744;
1371.6000;0.1083;0.8721;
1371.9000;0.1099;0.8744;
1372.2000;0.1091;0.8721;
1372.5000;0.1074;0.8626;
1372.8000;0.1074;0.8650;
1373.1000;0.1091;0.8626;
1373.4000;0.1091;0.8673;
1373.7000;0.1099;0.8626;
1374.0000;0.1091;0.8626;
1374.3000;0.1083;0.8650;
1374.6000;0.1107;0.8602;
1374.9000;0.1107;0.8673;
1375.2000;0.1107;0.8697;
1375.5000;0.1107;0.8673;
1375.8000;0.1123;0.8721;
1376.1000;0.1083;0.8768;
1376.4000;0.1091;0.8863;
1376.7000;0.1083;0.8863;
1377.0000;0.1099;0.8863;
1377.3000;0.1099;0.8863;
1377.6000;0.1074;0.8768;
1377.9000;0.1074;0.8744;
1378.2000;0.1091;0.8721;
1378.5000;0.1066;0.8602;
1378.8000;0.1091;0.8673;
1379.1000;0.1066;0.8531;
1379.4000;0.1091;0.8602;
1379.7000;0.1099;0.8650;
1380.0000;0.1107;0.8744;
1380.3000;0.1083;0.8721;
1380.6000;0.1091;0.8626;
1380.9000;0.1107;0.8626;
1381.2000;0.1083;0.8507;
1381.5000;0.1091;0.8579;
1381.8000;0.1099;0.8650;
1382.1000;0.1164;0.8839;
1382.4000;0.1099;0.8673;
1382.7000;0.1058;0.8507;
1383.0000;0.1091;0.8579;
1383.3000;0.1091;0.8579;
1383.6000;0.1148;0.8650;
1383.9000;0.1148;0.8673;
1384.2000;0.1091;0.8626;
1384.5000;0.1099;0.8697;
1384.8000;0.1115;0.8792;
1385.1000;0.1123;0.8815;
1385.4000;0.1131;0.8910;
1385.7000;0.1050;0.8697;
1386.0000;0.1164;0.9029;
1386.3000;0.1107;0.8815;
1386.6000;0.1099;0.8650;
1386.9000;0.1066;0.8602;
1387.2000;0.1099;0.8673;
1387.5000;0.1099;0.8626;
1387.8000;0.1091;0.8744;
1388.1000;0.1074;0.8744;
1388.4000;0.1091;0.8744;
1388.7000;0.1091;0.8744;
1389.0000;0.1107;0.8815;
1389.3000;0.1107;0.8815;
1389.6000;0.1091;0.8768;
1389.9000;0.1091;0.8815;
1390.2000;0.1107;0.8910;
1390.5000;0.1083;0.8887;
1390.8000;0.1099;0.8887;
1391.1000;0.1107;0.8863;
1391.4000;0.1156;0.8815;
1391.7000;0.1107;0.8721;
1392.0000;0.1099;0.8673;
1392.3000;0.1099;0.8626;
1392.6000;0.1107;0.8602;
1392.9000;0.1115;0.8579;
1393.2000;0.1083;0.8650;
1393.5000;0.1066;0.8602;
1393.8000;0.1099;0.8697;
1394.1000;0.1099;0.8650;
1394.4000;0.1083;0.8744;
1394.7000;0.1050;0.8579;
1395.0000;0.1107;0.8602;
1395.3000;0.1091;0.8602;
1395.6000;0.1099;0.8555;
1395.9000;0.1066;0.8484;
1396.2000;0.1091;0.8531;
1396.5000;0.1050;0.8342;
1396.8000;0.1099;0.8579;
1397.1000;0.1066;0.8555;
1397.4000;0.1091;0.8626;
1397.7000;0.1099;0.8531;
1398.0000;0.1099;0.8579;
1398.3000;0.1091;0.8602;
1398.6000;0.1091;0.8602;
1398.9000;0.1083;0.8579;
1399.2000;0.1050;0.8507;
1399.5000;0.1042;0.8460;
1399.8000;0.1091;0.8602;
