time/ms;Fluo/V;P700 deltaI/I x10³;
-199.8000;0.1091;0.8152;
-199.5000;0.1083;0.8105;
-199.2000;0.1058;0.8057;
-198.9000;0.1083;0.8199;
-198.6000;0.1115;0.8223;
-198.3000;0.1107;0.8223;
-198.0000;0.1083;0.8105;
-197.7000;0.1066;0.8081;
-197.4000;0.1115;0.8199;
-197.1000;0.1107;0.8057;
-196.8000;0.1107;0.8010;
-196.5000;0.1115;0.7962;
-196.2000;0.1091;0.7891;
-195.9000;0.1099;0.7891;
-195.6000;0.1091;0.7986;
-195.3000;0.1083;0.8081;
-195.0000;0.1131;0.8270;
-194.7000;0.1180;0.8436;
-194.4000;0.1123;0.8270;
-194.1000;0.1083;0.8199;
-193.8000;0.1091;0.8199;
-193.5000;0.1091;0.8199;
-193.2000;0.1099;0.8176;
-192.9000;0.1099;0.8176;
-192.6000;0.1099;0.8152;
-192.3000;0.1099;0.8176;
-192.0000;0.1107;0.8105;
-191.7000;0.1107;0.8128;
-191.4000;0.1099;0.8128;
-191.1000;0.1107;0.8199;
-190.8000;0.1115;0.8176;
-190.5000;0.1091;0.8128;
-190.2000;0.1074;0.8081;
-189.9000;0.1091;0.8081;
-189.6000;0.1115;0.8057;
-189.3000;0.1099;0.7962;
-189.0000;0.1091;0.7962;
-188.7000;0.1066;0.7939;
-188.4000;0.1091;0.8010;
-188.1000;0.1091;0.7915;
-187.8000;0.1083;0.7986;
-187.5000;0.1164;0.8152;
-187.2000;0.1074;0.7939;
-186.9000;0.1099;0.8010;
-186.6000;0.1099;0.8033;
-186.3000;0.1091;0.8010;
-186.0000;0.1083;0.7962;
-185.7000;0.1091;0.8057;
-185.4000;0.1091;0.8033;
-185.1000;0.1066;0.7939;
-184.8000;0.1034;0.7844;
-184.5000;0.1074;0.8010;
-184.2000;0.1115;0.8081;
-183.9000;0.1091;0.8033;
-183.6000;0.1083;0.8057;
-183.3000;0.1107;0.8105;
-183.0000;0.1107;0.8176;
-182.7000;0.1091;0.8223;
-182.4000;0.1074;0.8176;
-182.1000;0.1091;0.8199;
-181.8000;0.1091;0.8223;
-181.5000;0.1099;0.8342;
-181.2000;0.1099;0.8318;
-180.9000;0.1107;0.8294;
-180.6000;0.1034;0.8105;
-180.3000;0.1074;0.8199;
-180.0000;0.1107;0.8128;
-179.7000;0.1115;0.8223;
-179.4000;0.1091;0.8081;
-179.1000;0.1074;0.8081;
-178.8000;0.1034;0.7891;
-178.5000;0.1083;0.8081;
-178.2000;0.1148;0.8176;
-177.9000;0.1099;0.8105;
-177.6000;0.1099;0.8223;
-177.3000;0.1018;0.8057;
-177.0000;0.1091;0.8318;
-176.7000;0.1091;0.8247;
-176.4000;0.1131;0.8365;
-176.1000;0.1115;0.8389;
-175.8000;0.1099;0.8389;
-175.5000;0.1115;0.8342;
-175.2000;0.1123;0.8389;
-174.9000;0.1115;0.8365;
-174.6000;0.1091;0.8342;
-174.3000;0.1091;0.8484;
-174.0000;0.1115;0.8436;
-173.7000;0.1107;0.8365;
-173.4000;0.1083;0.8270;
-173.1000;0.1099;0.8342;
-172.8000;0.1091;0.8318;
-172.5000;0.1099;0.8365;
-172.2000;0.1091;0.8389;
-171.9000;0.1091;0.8389;
-171.6000;0.1099;0.8413;
-171.3000;0.1131;0.8460;
-171.0000;0.1099;0.8342;
-170.7000;0.1083;0.8294;
-170.4000;0.1083;0.8247;
-170.1000;0.1123;0.8247;
-169.8000;0.1091;0.8105;
-169.5000;0.1083;0.8128;
-169.2000;0.1107;0.8176;
-168.9000;0.1099;0.8247;
-168.6000;0.1115;0.8247;
-168.3000;0.1091;0.8057;
-168.0000;0.1091;0.8176;
-167.7000;0.1131;0.8294;
-167.4000;0.1091;0.8176;
-167.1000;0.1123;0.8199;
-166.8000;0.1050;0.8057;
-166.5000;0.1099;0.8247;
-166.2000;0.1099;0.8247;
-165.9000;0.1058;0.8199;
-165.6000;0.1091;0.8223;
-165.3000;0.1083;0.8223;
-165.0000;0.1058;0.8176;
-164.7000;0.1099;0.8270;
-164.4000;0.1099;0.8247;
-164.1000;0.1058;0.8128;
-163.8000;0.1042;0.8057;
-163.5000;0.1107;0.8152;
-163.2000;0.1107;0.8176;
-162.9000;0.1083;0.8176;
-162.6000;0.1140;0.8247;
-162.3000;0.1091;0.8152;
-162.0000;0.1074;0.8033;
-161.7000;0.1107;0.8010;
-161.4000;0.1091;0.7939;
-161.1000;0.1099;0.7939;
-160.8000;0.1099;0.7844;
-160.5000;0.1058;0.7796;
-160.2000;0.1099;0.8010;
-159.9000;0.1091;0.8010;
-159.6000;0.1091;0.8105;
-159.3000;0.1099;0.8057;
-159.0000;0.1091;0.8033;
-158.7000;0.1091;0.8033;
-158.4000;0.1131;0.8152;
-158.1000;0.1091;0.8081;
-157.8000;0.1091;0.8081;
-157.5000;0.1099;0.8010;
-157.2000;0.1091;0.8105;
-156.9000;0.1115;0.8152;
-156.6000;0.1083;0.8057;
-156.3000;0.1099;0.8105;
-156.0000;0.1058;0.8081;
-155.7000;0.1099;0.8199;
-155.4000;0.1091;0.8152;
-155.1000;0.1115;0.8247;
-154.8000;0.1107;0.8152;
-154.5000;0.1099;0.8152;
-154.2000;0.1026;0.7891;
-153.9000;0.1107;0.8033;
-153.6000;0.1083;0.7986;
-153.3000;0.1107;0.7962;
-153.0000;0.1058;0.7891;
-152.7000;0.1099;0.8010;
-152.4000;0.1115;0.8081;
-152.1000;0.1107;0.8057;
-151.8000;0.1042;0.7891;
-151.5000;0.1099;0.8010;
-151.2000;0.1083;0.7962;
-150.9000;0.1099;0.7986;
-150.6000;0.1091;0.7986;
-150.3000;0.1091;0.7962;
-150.0000;0.1074;0.8010;
-149.7000;0.1115;0.8081;
-149.4000;0.1123;0.8128;
-149.1000;0.1099;0.8105;
-148.8000;0.1091;0.8105;
-148.5000;0.1034;0.7868;
-148.2000;0.1140;0.8152;
-147.9000;0.1107;0.8081;
-147.6000;0.1091;0.8081;
-147.3000;0.1107;0.8057;
-147.0000;0.1099;0.8176;
-146.7000;0.1099;0.8223;
-146.4000;0.1091;0.8318;
-146.1000;0.1083;0.8342;
-145.8000;0.1099;0.8365;
-145.5000;0.1099;0.8294;
-145.2000;0.1107;0.8247;
-144.9000;0.1083;0.8199;
-144.6000;0.1140;0.8318;
-144.3000;0.1099;0.8270;
-144.0000;0.1083;0.8318;
-143.7000;0.1148;0.8531;
-143.4000;0.1091;0.8436;
-143.1000;0.1091;0.8389;
-142.8000;0.1140;0.8484;
-142.5000;0.1083;0.8365;
-142.2000;0.1099;0.8413;
-141.9000;0.1099;0.8436;
-141.6000;0.1148;0.8579;
-141.3000;0.1148;0.8579;
-141.0000;0.1107;0.8460;
-140.7000;0.1099;0.8436;
-140.4000;0.1099;0.8365;
-140.1000;0.1099;0.8342;
-139.8000;0.1083;0.8342;
-139.5000;0.1091;0.8389;
-139.2000;0.1107;0.8484;
-138.9000;0.1091;0.8413;
-138.6000;0.1107;0.8389;
-138.3000;0.1099;0.8389;
-138.0000;0.1107;0.8484;
-137.7000;0.1091;0.8460;
-137.4000;0.1099;0.8531;
-137.1000;0.1099;0.8484;
-136.8000;0.1091;0.8507;
-136.5000;0.1091;0.8507;
-136.2000;0.1091;0.8436;
-135.9000;0.1107;0.8389;
-135.6000;0.1099;0.8365;
-135.3000;0.1083;0.8342;
-135.0000;0.1066;0.8247;
-134.7000;0.1091;0.8318;
-134.4000;0.1066;0.8223;
-134.1000;0.1091;0.8247;
-133.8000;0.1099;0.8270;
-133.5000;0.1123;0.8365;
-133.2000;0.1091;0.8365;
-132.9000;0.1091;0.8318;
-132.6000;0.1115;0.8389;
-132.3000;0.1107;0.8389;
-132.0000;0.1140;0.8484;
-131.7000;0.1107;0.8389;
-131.4000;0.1091;0.8270;
-131.1000;0.1099;0.8342;
-130.8000;0.1131;0.8413;
-130.5000;0.1074;0.8294;
-130.2000;0.1099;0.8342;
-129.9000;0.1140;0.8365;
-129.6000;0.1026;0.8105;
-129.3000;0.1074;0.8223;
-129.0000;0.1091;0.8199;
-128.7000;0.1026;0.7986;
-128.4000;0.1099;0.8176;
-128.1000;0.1083;0.8176;
-127.8000;0.1083;0.8128;
-127.5000;0.1099;0.8010;
-127.2000;0.1091;0.8105;
-126.9000;0.1091;0.8247;
-126.6000;0.1074;0.8247;
-126.3000;0.1115;0.8223;
-126.0000;0.1107;0.8223;
-125.7000;0.1099;0.8223;
-125.4000;0.1099;0.8223;
-125.1000;0.1083;0.8247;
-124.8000;0.1091;0.8365;
-124.5000;0.1099;0.8413;
-124.2000;0.1099;0.8413;
-123.9000;0.1091;0.8365;
-123.6000;0.1099;0.8389;
-123.3000;0.1074;0.8342;
-123.0000;0.1099;0.8365;
-122.7000;0.1091;0.8436;
-122.4000;0.1148;0.8555;
-122.1000;0.1099;0.8413;
-121.8000;0.1091;0.8460;
-121.5000;0.1091;0.8413;
-121.2000;0.1099;0.8413;
-120.9000;0.1099;0.8389;
-120.6000;0.1099;0.8365;
-120.3000;0.1099;0.8342;
-120.0000;0.1099;0.8223;
-119.7000;0.1107;0.8270;
-119.4000;0.1107;0.8318;
-119.1000;0.1099;0.8318;
-118.8000;0.1107;0.8342;
-118.5000;0.1091;0.8318;
-118.2000;0.1074;0.8294;
-117.9000;0.1099;0.8389;
-117.6000;0.1099;0.8342;
-117.3000;0.1099;0.8294;
-117.0000;0.1123;0.8318;
-116.7000;0.1131;0.8318;
-116.4000;0.1083;0.8199;
-116.1000;0.1091;0.8270;
-115.8000;0.1107;0.8270;
-115.5000;0.1099;0.8294;
-115.2000;0.1107;0.8365;
-114.9000;0.1107;0.8389;
-114.6000;0.1107;0.8365;
-114.3000;0.1156;0.8436;
-114.0000;0.1066;0.8176;
-113.7000;0.1083;0.8223;
-113.4000;0.1099;0.8152;
-113.1000;0.1099;0.8105;
-112.8000;0.1091;0.8081;
-112.5000;0.1099;0.8152;
-112.2000;0.1091;0.8199;
-111.9000;0.1099;0.8128;
-111.6000;0.1083;0.8152;
-111.3000;0.1034;0.8057;
-111.0000;0.1099;0.8199;
-110.7000;0.1107;0.8247;
-110.4000;0.1131;0.8318;
-110.1000;0.1091;0.8294;
-109.8000;0.1099;0.8199;
-109.5000;0.1115;0.8247;
-109.2000;0.1107;0.8199;
-108.9000;0.1099;0.8105;
-108.6000;0.1091;0.8105;
-108.3000;0.1107;0.8105;
-108.0000;0.1099;0.8033;
-107.7000;0.1099;0.7986;
-107.4000;0.1115;0.8057;
-107.1000;0.1107;0.8033;
-106.8000;0.1099;0.7986;
-106.5000;0.1091;0.8057;
-106.2000;0.1074;0.7962;
-105.9000;0.1099;0.8033;
-105.6000;0.1107;0.8010;
-105.3000;0.1107;0.8057;
-105.0000;0.1091;0.8057;
-104.7000;0.1083;0.8010;
-104.4000;0.1083;0.7986;
-104.1000;0.1123;0.7962;
-103.8000;0.1107;0.7962;
-103.5000;0.1180;0.8105;
-103.2000;0.1083;0.7891;
-102.9000;0.1115;0.8010;
-102.6000;0.1107;0.8081;
-102.3000;0.1115;0.8128;
-102.0000;0.1107;0.8176;
-101.7000;0.1107;0.8199;
-101.4000;0.1172;0.8365;
-101.1000;0.1091;0.8128;
-100.8000;0.1156;0.8223;
-100.5000;0.1107;0.8081;
-100.2000;0.1050;0.7962;
-99.9000;0.1083;0.8128;
-99.6000;0.1091;0.8176;
-99.3000;0.1123;0.8199;
-99.0000;0.1115;0.8199;
-98.7000;0.1091;0.8199;
-98.4000;0.1164;0.8342;
-98.1000;0.1099;0.8152;
-97.8000;0.1107;0.8223;
-97.5000;0.1074;0.8223;
-97.2000;0.1107;0.8152;
-96.9000;0.1091;0.8057;
-96.6000;0.1099;0.8057;
-96.3000;0.1099;0.8152;
-96.0000;0.1099;0.8223;
-95.7000;0.1083;0.8270;
-95.4000;0.1099;0.8223;
-95.1000;0.1107;0.8223;
-94.8000;0.1083;0.8223;
-94.5000;0.1083;0.8176;
-94.2000;0.1099;0.8199;
-93.9000;0.1131;0.8270;
-93.6000;0.1099;0.8223;
-93.3000;0.1115;0.8318;
-93.0000;0.1050;0.8176;
-92.7000;0.1099;0.8318;
-92.4000;0.1107;0.8365;
-92.1000;0.1083;0.8223;
-91.8000;0.1083;0.8176;
-91.5000;0.1083;0.8223;
-91.2000;0.1140;0.8318;
-90.9000;0.1123;0.8247;
-90.6000;0.1091;0.8176;
-90.3000;0.1091;0.8270;
-90.0000;0.1107;0.8342;
-89.7000;0.1099;0.8365;
-89.4000;0.1091;0.8365;
-89.1000;0.1099;0.8318;
-88.8000;0.1107;0.8342;
-88.5000;0.1099;0.8294;
-88.2000;0.1099;0.8247;
-87.9000;0.1115;0.8223;
-87.6000;0.1115;0.8247;
-87.3000;0.1115;0.8270;
-87.0000;0.1107;0.8270;
-86.7000;0.1099;0.8247;
-86.4000;0.1074;0.8152;
-86.1000;0.1107;0.8247;
-85.8000;0.1099;0.8176;
-85.5000;0.1099;0.8247;
-85.2000;0.1091;0.8270;
-84.9000;0.1099;0.8342;
-84.6000;0.1107;0.8365;
-84.3000;0.1099;0.8318;
-84.0000;0.1107;0.8270;
-83.7000;0.1115;0.8223;
-83.4000;0.1107;0.8294;
-83.1000;0.1074;0.8105;
-82.8000;0.1083;0.8176;
-82.5000;0.1099;0.8176;
-82.2000;0.1083;0.8223;
-81.9000;0.1083;0.8199;
-81.6000;0.1107;0.8270;
-81.3000;0.1091;0.8199;
-81.0000;0.1099;0.8152;
-80.7000;0.1099;0.8199;
-80.4000;0.1115;0.8199;
-80.1000;0.1107;0.8199;
-79.8000;0.1099;0.8223;
-79.5000;0.1083;0.8270;
-79.2000;0.1091;0.8223;
-78.9000;0.1099;0.8294;
-78.6000;0.1083;0.8152;
-78.3000;0.1123;0.8152;
-78.0000;0.1107;0.8105;
-77.7000;0.1131;0.8081;
-77.4000;0.1099;0.8081;
-77.1000;0.1107;0.8105;
-76.8000;0.1107;0.8270;
-76.5000;0.1083;0.8365;
-76.2000;0.1050;0.8342;
-75.9000;0.1083;0.8342;
-75.6000;0.1115;0.8413;
-75.3000;0.1107;0.8342;
-75.0000;0.1091;0.8247;
-74.7000;0.1099;0.8223;
-74.4000;0.1180;0.8484;
-74.1000;0.1115;0.8270;
-73.8000;0.1107;0.8223;
-73.5000;0.1026;0.7939;
-73.2000;0.1107;0.8152;
-72.9000;0.1115;0.8128;
-72.6000;0.1091;0.8176;
-72.3000;0.1091;0.8270;
-72.0000;0.1099;0.8342;
-71.7000;0.1099;0.8389;
-71.4000;0.1091;0.8270;
-71.1000;0.1099;0.8199;
-70.8000;0.1091;0.8105;
-70.5000;0.1083;0.8081;
-70.2000;0.1099;0.8128;
-69.9000;0.1091;0.8176;
-69.6000;0.1107;0.8199;
-69.3000;0.1091;0.8128;
-69.0000;0.1099;0.8176;
-68.7000;0.1099;0.8199;
-68.4000;0.1074;0.8176;
-68.1000;0.1123;0.8105;
-67.8000;0.1099;0.8128;
-67.5000;0.1099;0.8128;
-67.2000;0.1123;0.8128;
-66.9000;0.1099;0.8128;
-66.6000;0.1091;0.8128;
-66.3000;0.1107;0.8270;
-66.0000;0.1091;0.8199;
-65.7000;0.1042;0.8105;
-65.4000;0.1083;0.8247;
-65.1000;0.1107;0.8318;
-64.8000;0.1083;0.8176;
-64.5000;0.1091;0.8223;
-64.2000;0.1107;0.8223;
-63.9000;0.1115;0.8247;
-63.6000;0.1115;0.8176;
-63.3000;0.1205;0.8294;
-63.0000;0.1115;0.8057;
-62.7000;0.1107;0.8105;
-62.4000;0.1091;0.8128;
-62.1000;0.1091;0.8152;
-61.8000;0.1099;0.8152;
-61.5000;0.1107;0.8128;
-61.2000;0.1066;0.8033;
-60.9000;0.1074;0.8128;
-60.6000;0.1083;0.8152;
-60.3000;0.1091;0.8081;
-60.0000;0.1050;0.7939;
-59.7000;0.1074;0.8010;
-59.4000;0.1115;0.8033;
-59.1000;0.1091;0.8057;
-58.8000;0.1099;0.8057;
-58.5000;0.1107;0.8057;
-58.2000;0.1107;0.8033;
-57.9000;0.1083;0.8010;
-57.6000;0.1074;0.7986;
-57.3000;0.1107;0.8033;
-57.0000;0.1099;0.8057;
-56.7000;0.1091;0.8057;
-56.4000;0.1083;0.8010;
-56.1000;0.1091;0.8033;
-55.8000;0.1099;0.7962;
-55.5000;0.1091;0.8010;
-55.2000;0.1083;0.7986;
-54.9000;0.1091;0.7986;
-54.6000;0.1099;0.8057;
-54.3000;0.1115;0.8105;
-54.0000;0.1099;0.8010;
-53.7000;0.1091;0.8033;
-53.4000;0.1066;0.8010;
-53.1000;0.1107;0.8128;
-52.8000;0.1091;0.8176;
-52.5000;0.1123;0.8294;
-52.2000;0.1050;0.8152;
-51.9000;0.1083;0.8176;
-51.6000;0.1066;0.8199;
-51.3000;0.1083;0.8223;
-51.0000;0.1099;0.8247;
-50.7000;0.1099;0.8318;
-50.4000;0.1115;0.8294;
-50.1000;0.1107;0.8318;
-49.8000;0.1164;0.8555;
-49.5000;0.1123;0.8342;
-49.2000;0.1091;0.8270;
-48.9000;0.1091;0.8318;
-48.6000;0.1123;0.8413;
-48.3000;0.1099;0.8389;
-48.0000;0.1107;0.8413;
-47.7000;0.1091;0.8413;
-47.4000;0.1099;0.8389;
-47.1000;0.1099;0.8389;
-46.8000;0.1099;0.8365;
-46.5000;0.1099;0.8365;
-46.2000;0.1066;0.8294;
-45.9000;0.1091;0.8484;
-45.6000;0.1058;0.8389;
-45.3000;0.1058;0.8365;
-45.0000;0.1091;0.8436;
-44.7000;0.1115;0.8531;
-44.4000;0.1099;0.8531;
-44.1000;0.1018;0.8199;
-43.8000;0.1074;0.8365;
-43.5000;0.1091;0.8436;
-43.2000;0.1034;0.8318;
-42.9000;0.1099;0.8555;
-42.6000;0.1099;0.8579;
-42.3000;0.1091;0.8531;
-42.0000;0.1099;0.8484;
-41.7000;0.1083;0.8413;
-41.4000;0.1107;0.8436;
-41.1000;0.1107;0.8413;
-40.8000;0.1091;0.8389;
-40.5000;0.1074;0.8318;
-40.2000;0.1107;0.8294;
-39.9000;0.1091;0.8247;
-39.6000;0.1083;0.8176;
-39.3000;0.1123;0.8223;
-39.0000;0.1083;0.8105;
-38.7000;0.1091;0.8105;
-38.4000;0.1083;0.8152;
-38.1000;0.1148;0.8199;
-37.8000;0.1091;0.8152;
-37.5000;0.1026;0.7939;
-37.2000;0.1123;0.8270;
-36.9000;0.1148;0.8389;
-36.6000;0.1091;0.8270;
-36.3000;0.1140;0.8365;
-36.0000;0.1074;0.8199;
-35.7000;0.1083;0.8199;
-35.4000;0.1099;0.8199;
-35.1000;0.1058;0.8057;
-34.8000;0.1083;0.8247;
-34.5000;0.1099;0.8223;
-34.2000;0.1099;0.8223;
-33.9000;0.1091;0.8128;
-33.6000;0.1058;0.8105;
-33.3000;0.1042;0.8105;
-33.0000;0.1099;0.8199;
-32.7000;0.1066;0.8199;
-32.4000;0.1099;0.8247;
-32.1000;0.1074;0.8105;
-31.8000;0.1099;0.8176;
-31.5000;0.1099;0.8199;
-31.2000;0.1099;0.8128;
-30.9000;0.1099;0.8105;
-30.6000;0.1099;0.8152;
-30.3000;0.1091;0.8152;
-30.0000;0.1107;0.8128;
-29.7000;0.1091;0.8057;
-29.4000;0.1131;0.8128;
-29.1000;0.1083;0.7915;
-28.8000;0.1099;0.7915;
-28.5000;0.1091;0.7868;
-28.2000;0.1091;0.7891;
-27.9000;0.1115;0.7962;
-27.6000;0.1115;0.8033;
-27.3000;0.1156;0.8294;
-27.0000;0.1107;0.8199;
-26.7000;0.1099;0.8270;
-26.4000;0.1091;0.8223;
-26.1000;0.1091;0.8247;
-25.8000;0.1099;0.8247;
-25.5000;0.1099;0.8247;
-25.2000;0.1107;0.8247;
-24.9000;0.1099;0.8318;
-24.6000;0.1107;0.8413;
-24.3000;0.1066;0.8389;
-24.0000;0.1091;0.8460;
-23.7000;0.1099;0.8484;
-23.4000;0.1123;0.8436;
-23.1000;0.1091;0.8413;
-22.8000;0.1091;0.8389;
-22.5000;0.1091;0.8507;
-22.2000;0.1131;0.8579;
-21.9000;0.1058;0.8342;
-21.6000;0.1099;0.8413;
-21.3000;0.1099;0.8484;
-21.0000;0.1115;0.8484;
-20.7000;0.1091;0.8484;
-20.4000;0.1123;0.8365;
-20.1000;0.1115;0.8270;
-19.8000;0.1099;0.8365;
-19.5000;0.1091;0.8389;
-19.2000;0.1131;0.8436;
-18.9000;0.1099;0.8294;
-18.6000;0.1123;0.8294;
-18.3000;0.1107;0.8294;
-18.0000;0.1091;0.8247;
-17.7000;0.1099;0.8247;
-17.4000;0.1099;0.8318;
-17.1000;0.1091;0.8365;
-16.8000;0.1091;0.8365;
-16.5000;0.1099;0.8318;
-16.2000;0.1115;0.8318;
-15.9000;0.1099;0.8294;
-15.6000;0.1083;0.8318;
-15.3000;0.1148;0.8436;
-15.0000;0.1123;0.8389;
-14.7000;0.1099;0.8389;
-14.4000;0.1123;0.8413;
-14.1000;0.1107;0.8342;
-13.8000;0.1107;0.8436;
-13.5000;0.1107;0.8436;
-13.2000;0.1099;0.8436;
-12.9000;0.1099;0.8389;
-12.6000;0.1091;0.8389;
-12.3000;0.1083;0.8413;
-12.0000;0.1099;0.8413;
-11.7000;0.1074;0.8365;
-11.4000;0.1074;0.8342;
-11.1000;0.1099;0.8342;
-10.8000;0.1091;0.8389;
-10.5000;0.1099;0.8342;
-10.2000;0.1099;0.8342;
-9.9000;0.1091;0.8389;
-9.6000;0.1131;0.8389;
-9.3000;0.1091;0.8318;
-9.0000;0.1099;0.8365;
-8.7000;0.1107;0.8460;
-8.4000;0.1131;0.8531;
-8.1000;0.1107;0.8436;
-7.8000;0.1091;0.8389;
-7.5000;0.1091;0.8342;
-7.2000;0.1083;0.8294;
-6.9000;0.1115;0.8176;
-6.6000;0.1083;0.8105;
-6.3000;0.1107;0.8223;
-6.0000;0.1099;0.8152;
-5.7000;0.1091;0.8152;
-5.4000;0.1131;0.8105;
-5.1000;0.1083;0.8010;
-4.8000;0.1091;0.8057;
-4.5000;0.1107;0.8176;
-4.2000;0.1156;0.8223;
-3.9000;0.1099;0.8128;
-3.6000;0.1099;0.8223;
-3.3000;0.1115;0.8223;
-3.0000;0.1115;0.8223;
-2.7000;0.1107;0.8199;
-2.4000;0.1107;0.8152;
-2.1000;0.1107;0.8199;
-1.8000;0.1099;0.8223;
-1.5000;0.1115;0.8223;
-1.2000;0.1099;0.8223;
-0.9000;0.1074;0.8247;
-0.6000;0.1115;0.8294;
-0.3000;0.1123;0.8318;
0.0000;0.1123;0.8318;
0.3000;0.1115;0.8247;
0.6000;0.1172;0.8365;
0.9000;0.1254;0.8626;
1.2000;0.1270;0.8792;
1.5000;0.1294;0.8839;
1.8000;0.1343;0.9100;
2.1000;0.1351;0.9076;
2.4000;0.1384;0.9171;
2.7000;0.1351;0.9147;
3.0000;0.1384;0.9313;
3.3000;0.1425;0.9526;
3.6000;0.1400;0.9479;
3.9000;0.1441;0.9574;
4.2000;0.1400;0.9526;
4.5000;0.1425;0.9597;
4.8000;0.1465;0.9811;
5.1000;0.1441;0.9716;
5.4000;0.1433;0.9669;
5.7000;0.1449;0.9597;
6.0000;0.1449;0.9597;
6.3000;0.1449;0.9574;
6.6000;0.1449;0.9526;
6.9000;0.1441;0.9550;
7.2000;0.1416;0.9455;
7.5000;0.1465;0.9479;
7.8000;0.1449;0.9361;
8.1000;0.1441;0.9408;
8.4000;0.1457;0.9550;
8.7000;0.1457;0.9597;
9.0000;0.1457;0.9574;
9.3000;0.1473;0.9597;
9.6000;0.1465;0.9597;
9.9000;0.1473;0.9621;
10.2000;0.1465;0.9597;
10.5000;0.1465;0.9597;
10.8000;0.1449;0.9621;
11.1000;0.1498;0.9716;
11.4000;0.1457;0.9621;
11.7000;0.1522;0.9811;
12.0000;0.1473;0.9669;
12.3000;0.1473;0.9597;
12.6000;0.1457;0.9669;
12.9000;0.1465;0.9621;
13.2000;0.1490;0.9574;
13.5000;0.1490;0.9597;
13.8000;0.1498;0.9597;
14.1000;0.1481;0.9550;
14.4000;0.1473;0.9550;
14.7000;0.1481;0.9503;
15.0000;0.1490;0.9645;
15.3000;0.1473;0.9550;
15.6000;0.1465;0.9455;
15.9000;0.1490;0.9526;
16.2000;0.1490;0.9526;
16.5000;0.1490;0.9526;
16.8000;0.1481;0.9479;
17.1000;0.1481;0.9384;
17.4000;0.1498;0.9479;
17.7000;0.1506;0.9455;
18.0000;0.1506;0.9408;
18.3000;0.1490;0.9455;
18.6000;0.1595;0.9621;
18.9000;0.1498;0.9408;
19.2000;0.1498;0.9455;
19.5000;0.1498;0.9384;
19.8000;0.1571;0.9550;
20.1000;0.1506;0.9384;
20.4000;0.1506;0.9432;
20.7000;0.1522;0.9455;
21.0000;0.1481;0.9432;
21.3000;0.1441;0.9266;
21.6000;0.1498;0.9384;
21.9000;0.1498;0.9455;
22.2000;0.1498;0.9455;
22.5000;0.1490;0.9503;
22.8000;0.1514;0.9574;
23.1000;0.1498;0.9526;
23.4000;0.1490;0.9621;
23.7000;0.1490;0.9550;
24.0000;0.1514;0.9597;
24.3000;0.1506;0.9621;
24.6000;0.1514;0.9597;
24.9000;0.1506;0.9574;
25.2000;0.1514;0.9692;
25.5000;0.1514;0.9669;
25.8000;0.1514;0.9621;
26.1000;0.1636;0.9929;
26.4000;0.1530;0.9645;
26.7000;0.1514;0.9669;
27.0000;0.1490;0.9550;
27.3000;0.1522;0.9621;
27.6000;0.1514;0.9479;
27.9000;0.1506;0.9408;
28.2000;0.1514;0.9455;
28.5000;0.1506;0.9479;
28.8000;0.1506;0.9526;
29.1000;0.1547;0.9526;
29.4000;0.1522;0.9479;
29.7000;0.1547;0.9597;
30.0000;0.1514;0.9503;
30.3000;0.1522;0.9526;
30.6000;0.1522;0.9621;
30.9000;0.1522;0.9597;
31.2000;0.1530;0.9645;
31.5000;0.1441;0.9432;
31.8000;0.1514;0.9574;
32.1000;0.1522;0.9526;
32.4000;0.1530;0.9479;
32.7000;0.1522;0.9503;
33.0000;0.1530;0.9503;
33.3000;0.1522;0.9503;
33.6000;0.1530;0.9526;
33.9000;0.1522;0.9479;
34.2000;0.1538;0.9645;
34.5000;0.1547;0.9669;
34.8000;0.1538;0.9621;
35.1000;0.1530;0.9597;
35.4000;0.1538;0.9669;
35.7000;0.1555;0.9669;
36.0000;0.1538;0.9669;
36.3000;0.1538;0.9692;
36.6000;0.1506;0.9692;
36.9000;0.1538;0.9834;
37.2000;0.1547;0.9882;
37.5000;0.1522;0.9834;
37.8000;0.1555;0.9834;
38.1000;0.1530;0.9740;
38.4000;0.1538;0.9763;
38.7000;0.1538;0.9716;
39.0000;0.1538;0.9597;
39.3000;0.1530;0.9503;
39.6000;0.1547;0.9455;
39.9000;0.1547;0.9432;
40.2000;0.1547;0.9503;
40.5000;0.1547;0.9550;
40.8000;0.1547;0.9597;
41.1000;0.1547;0.9526;
41.4000;0.1522;0.9455;
41.7000;0.1547;0.9574;
42.0000;0.1547;0.9621;
42.3000;0.1620;0.9692;
42.6000;0.1547;0.9526;
42.9000;0.1547;0.9503;
43.2000;0.1555;0.9574;
43.5000;0.1547;0.9526;
43.8000;0.1555;0.9526;
44.1000;0.1571;0.9574;
44.4000;0.1563;0.9550;
44.7000;0.1530;0.9526;
45.0000;0.1563;0.9669;
45.3000;0.1538;0.9645;
45.6000;0.1563;0.9597;
45.9000;0.1555;0.9526;
46.2000;0.1587;0.9597;
46.5000;0.1563;0.9526;
46.8000;0.1571;0.9574;
47.1000;0.1547;0.9692;
47.4000;0.1571;0.9716;
47.7000;0.1538;0.9716;
48.0000;0.1547;0.9716;
48.3000;0.1555;0.9692;
48.6000;0.1555;0.9716;
48.9000;0.1538;0.9787;
49.2000;0.1538;0.9882;
49.5000;0.1538;0.9787;
49.8000;0.1547;0.9740;
50.1000;0.1571;0.9787;
50.4000;0.1530;0.9787;
50.7000;0.1498;0.9692;
51.0000;0.1563;0.9787;
51.3000;0.1604;0.9882;
51.6000;0.1563;0.9645;
51.9000;0.1555;0.9692;
52.2000;0.1563;0.9716;
52.5000;0.1563;0.9811;
52.8000;0.1579;0.9763;
53.1000;0.1563;0.9692;
53.4000;0.1563;0.9669;
53.7000;0.1579;0.9740;
54.0000;0.1571;0.9740;
54.3000;0.1555;0.9645;
54.6000;0.1587;0.9716;
54.9000;0.1563;0.9692;
55.2000;0.1652;0.9906;
55.5000;0.1563;0.9669;
55.8000;0.1571;0.9669;
56.1000;0.1555;0.9740;
56.4000;0.1587;0.9740;
56.7000;0.1555;0.9645;
57.0000;0.1547;0.9669;
57.3000;0.1530;0.9526;
57.6000;0.1555;0.9597;
57.9000;0.1587;0.9669;
58.2000;0.1571;0.9645;
58.5000;0.1587;0.9716;
58.8000;0.1563;0.9716;
59.1000;0.1579;0.9692;
59.4000;0.1571;0.9645;
59.7000;0.1555;0.9597;
60.0000;0.1571;0.9669;
60.3000;0.1555;0.9597;
60.6000;0.1571;0.9574;
60.9000;0.1571;0.9645;
61.2000;0.1563;0.9574;
61.5000;0.1571;0.9597;
61.8000;0.1571;0.9597;
62.1000;0.1579;0.9574;
62.4000;0.1571;0.9597;
62.7000;0.1579;0.9574;
63.0000;0.1571;0.9574;
63.3000;0.1587;0.9574;
63.6000;0.1587;0.9526;
63.9000;0.1612;0.9503;
64.2000;0.1587;0.9479;
64.5000;0.1587;0.9526;
64.8000;0.1604;0.9550;
65.1000;0.1571;0.9574;
65.4000;0.1595;0.9645;
65.7000;0.1587;0.9669;
66.0000;0.1579;0.9669;
66.3000;0.1514;0.9503;
66.6000;0.1595;0.9716;
66.9000;0.1571;0.9692;
67.2000;0.1587;0.9692;
67.5000;0.1595;0.9740;
67.8000;0.1587;0.9740;
68.1000;0.1579;0.9692;
68.4000;0.1604;0.9740;
68.7000;0.1636;0.9811;
69.0000;0.1628;0.9787;
69.3000;0.1587;0.9669;
69.6000;0.1595;0.9645;
69.9000;0.1579;0.9574;
70.2000;0.1579;0.9526;
70.5000;0.1571;0.9597;
70.8000;0.1620;0.9692;
71.1000;0.1595;0.9503;
71.4000;0.1604;0.9550;
71.7000;0.1612;0.9526;
72.0000;0.1636;0.9621;
72.3000;0.1555;0.9313;
72.6000;0.1571;0.9455;
72.9000;0.1555;0.9479;
73.2000;0.1587;0.9503;
73.5000;0.1595;0.9503;
73.8000;0.1538;0.9408;
74.1000;0.1644;0.9645;
74.4000;0.1587;0.9526;
74.7000;0.1530;0.9408;
75.0000;0.1652;0.9669;
75.3000;0.1595;0.9550;
75.6000;0.1604;0.9597;
75.9000;0.1628;0.9621;
76.2000;0.1595;0.9503;
76.5000;0.1595;0.9574;
76.8000;0.1563;0.9526;
77.1000;0.1595;0.9597;
77.4000;0.1595;0.9621;
77.7000;0.1563;0.9479;
78.0000;0.1579;0.9503;
78.3000;0.1595;0.9550;
78.6000;0.1579;0.9455;
78.9000;0.1587;0.9432;
79.2000;0.1579;0.9432;
79.5000;0.1612;0.9384;
79.8000;0.1604;0.9384;
80.1000;0.1587;0.9432;
80.4000;0.1595;0.9479;
80.7000;0.1677;0.9763;
81.0000;0.1587;0.9550;
81.3000;0.1636;0.9740;
81.6000;0.1579;0.9526;
81.9000;0.1587;0.9645;
82.2000;0.1587;0.9716;
82.5000;0.1612;0.9740;
82.8000;0.1571;0.9645;
83.1000;0.1587;0.9669;
83.4000;0.1595;0.9597;
83.7000;0.1587;0.9574;
84.0000;0.1612;0.9597;
84.3000;0.1604;0.9574;
84.6000;0.1587;0.9645;
84.9000;0.1612;0.9716;
85.2000;0.1587;0.9645;
85.5000;0.1612;0.9645;
85.8000;0.1628;0.9740;
86.1000;0.1620;0.9716;
86.4000;0.1612;0.9669;
86.7000;0.1579;0.9692;
87.0000;0.1563;0.9503;
87.3000;0.1604;0.9645;
87.6000;0.1571;0.9503;
87.9000;0.1587;0.9479;
88.2000;0.1595;0.9455;
88.5000;0.1587;0.9408;
88.8000;0.1604;0.9408;
89.1000;0.1669;0.9455;
89.4000;0.1595;0.9361;
89.7000;0.1620;0.9479;
90.0000;0.1595;0.9408;
90.3000;0.1595;0.9479;
90.6000;0.1595;0.9574;
90.9000;0.1555;0.9503;
91.2000;0.1571;0.9526;
91.5000;0.1587;0.9574;
91.8000;0.1612;0.9645;
92.1000;0.1595;0.9574;
92.4000;0.1604;0.9550;
92.7000;0.1555;0.9361;
93.0000;0.1563;0.9408;
93.3000;0.1595;0.9408;
93.6000;0.1579;0.9384;
93.9000;0.1612;0.9455;
94.2000;0.1604;0.9432;
94.5000;0.1620;0.9574;
94.8000;0.1620;0.9645;
95.1000;0.1563;0.9455;
95.4000;0.1595;0.9526;
95.7000;0.1628;0.9621;
96.0000;0.1587;0.9526;
96.3000;0.1587;0.9503;
96.6000;0.1595;0.9550;
96.9000;0.1595;0.9550;
97.2000;0.1604;0.9503;
97.5000;0.1579;0.9455;
97.8000;0.1595;0.9503;
98.1000;0.1579;0.9503;
98.4000;0.1587;0.9503;
98.7000;0.1612;0.9526;
99.0000;0.1595;0.9645;
99.3000;0.1604;0.9645;
99.6000;0.1595;0.9621;
99.9000;0.1587;0.9597;
100.2000;0.1587;0.9526;
100.5000;0.1595;0.9408;
100.8000;0.1595;0.9455;
101.1000;0.1555;0.9337;
101.4000;0.1595;0.9408;
101.7000;0.1587;0.9337;
102.0000;0.1604;0.9337;
102.3000;0.1604;0.9432;
102.6000;0.1604;0.9550;
102.9000;0.1595;0.9740;
103.2000;0.1612;0.9811;
103.5000;0.1620;0.9763;
103.8000;0.1604;0.9669;
104.1000;0.1587;0.9669;
104.4000;0.1604;0.9716;
104.7000;0.1612;0.9669;
105.0000;0.1604;0.9692;
105.3000;0.1604;0.9597;
105.6000;0.1612;0.9550;
105.9000;0.1604;0.9526;
106.2000;0.1587;0.9503;
106.5000;0.1587;0.9526;
106.8000;0.1612;0.9597;
107.1000;0.1612;0.9550;
107.4000;0.1612;0.9574;
107.7000;0.1612;0.9597;
108.0000;0.1604;0.9574;
108.3000;0.1620;0.9621;
108.6000;0.1604;0.9479;
108.9000;0.1595;0.9526;
109.2000;0.1595;0.9503;
109.5000;0.1612;0.9503;
109.8000;0.1620;0.9503;
110.1000;0.1604;0.9503;
110.4000;0.1604;0.9597;
110.7000;0.1538;0.9479;
111.0000;0.1604;0.9597;
111.3000;0.1595;0.9526;
111.6000;0.1587;0.9526;
111.9000;0.1604;0.9621;
112.2000;0.1604;0.9621;
112.5000;0.1620;0.9645;
112.8000;0.1595;0.9597;
113.1000;0.1612;0.9574;
113.4000;0.1604;0.9597;
113.7000;0.1579;0.9574;
114.0000;0.1661;0.9692;
114.3000;0.1604;0.9574;
114.6000;0.1604;0.9550;
114.9000;0.1612;0.9645;
115.2000;0.1612;0.9645;
115.5000;0.1595;0.9574;
115.8000;0.1587;0.9550;
116.1000;0.1636;0.9669;
116.4000;0.1612;0.9621;
116.7000;0.1604;0.9645;
117.0000;0.1612;0.9716;
117.3000;0.1595;0.9763;
117.6000;0.1604;0.9811;
117.9000;0.1595;0.9787;
118.2000;0.1595;0.9740;
118.5000;0.1604;0.9740;
118.8000;0.1612;0.9740;
119.1000;0.1620;0.9669;
119.4000;0.1620;0.9621;
119.7000;0.1612;0.9621;
120.0000;0.1612;0.9574;
120.3000;0.1620;0.9597;
120.6000;0.1612;0.9574;
120.9000;0.1547;0.9384;
121.2000;0.1612;0.9574;
121.5000;0.1604;0.9645;
121.8000;0.1661;0.9834;
122.1000;0.1604;0.9763;
122.4000;0.1604;0.9858;
122.7000;0.1604;0.9834;
123.0000;0.1595;0.9811;
123.3000;0.1612;0.9811;
123.6000;0.1595;0.9716;
123.9000;0.1612;0.9834;
124.2000;0.1620;0.9858;
124.5000;0.1612;0.9834;
124.8000;0.1604;0.9787;
125.1000;0.1612;0.9787;
125.4000;0.1595;0.9716;
125.7000;0.1571;0.9669;
126.0000;0.1620;0.9834;
126.3000;0.1604;0.9787;
126.6000;0.1636;0.9882;
126.9000;0.1604;0.9834;
127.2000;0.1595;0.9787;
127.5000;0.1604;0.9882;
127.8000;0.1612;0.9858;
128.1000;0.1620;0.9787;
128.4000;0.1620;0.9811;
128.7000;0.1595;0.9787;
129.0000;0.1612;0.9763;
129.3000;0.1620;0.9787;
129.6000;0.1612;0.9763;
129.9000;0.1595;0.9716;
130.2000;0.1628;0.9716;
130.5000;0.1644;0.9740;
130.8000;0.1604;0.9692;
131.1000;0.1604;0.9716;
131.4000;0.1620;0.9716;
131.7000;0.1595;0.9669;
132.0000;0.1612;0.9621;
132.3000;0.1595;0.9645;
132.6000;0.1612;0.9740;
132.9000;0.1587;0.9597;
133.2000;0.1612;0.9550;
133.5000;0.1595;0.9526;
133.8000;0.1595;0.9526;
134.1000;0.1612;0.9574;
134.4000;0.1612;0.9550;
134.7000;0.1628;0.9550;
135.0000;0.1620;0.9574;
135.3000;0.1620;0.9669;
135.6000;0.1579;0.9574;
135.9000;0.1612;0.9669;
136.2000;0.1604;0.9621;
136.5000;0.1538;0.9455;
136.8000;0.1571;0.9526;
137.1000;0.1612;0.9526;
137.4000;0.1604;0.9432;
137.7000;0.1595;0.9432;
138.0000;0.1612;0.9455;
138.3000;0.1620;0.9479;
138.6000;0.1604;0.9455;
138.9000;0.1595;0.9479;
139.2000;0.1604;0.9503;
139.5000;0.1612;0.9550;
139.8000;0.1612;0.9503;
140.1000;0.1595;0.9455;
140.4000;0.1620;0.9479;
140.7000;0.1595;0.9432;
141.0000;0.1595;0.9526;
141.3000;0.1620;0.9645;
141.6000;0.1636;0.9692;
141.9000;0.1579;0.9574;
142.2000;0.1604;0.9645;
142.5000;0.1604;0.9716;
142.8000;0.1595;0.9621;
143.1000;0.1612;0.9526;
143.4000;0.1595;0.9503;
143.7000;0.1595;0.9550;
144.0000;0.1604;0.9526;
144.3000;0.1604;0.9597;
144.6000;0.1612;0.9574;
144.9000;0.1636;0.9621;
145.2000;0.1620;0.9669;
145.5000;0.1604;0.9669;
145.8000;0.1612;0.9669;
146.1000;0.1612;0.9716;
146.4000;0.1595;0.9692;
146.7000;0.1636;0.9787;
147.0000;0.1604;0.9621;
147.3000;0.1604;0.9479;
147.6000;0.1620;0.9432;
147.9000;0.1604;0.9384;
148.2000;0.1612;0.9503;
148.5000;0.1587;0.9455;
148.8000;0.1620;0.9621;
149.1000;0.1612;0.9645;
149.4000;0.1604;0.9692;
149.7000;0.1612;0.9811;
150.0000;0.1612;0.9787;
150.3000;0.1620;0.9716;
150.6000;0.1620;0.9692;
150.9000;0.1628;0.9763;
151.2000;0.1612;0.9669;
151.5000;0.1620;0.9692;
151.8000;0.1604;0.9669;
152.1000;0.1612;0.9716;
152.4000;0.1579;0.9621;
152.7000;0.1604;0.9716;
153.0000;0.1595;0.9621;
153.3000;0.1620;0.9740;
153.6000;0.1628;0.9787;
153.9000;0.1620;0.9716;
154.2000;0.1595;0.9669;
154.5000;0.1595;0.9645;
154.8000;0.1604;0.9669;
155.1000;0.1612;0.9669;
155.4000;0.1677;0.9763;
155.7000;0.1579;0.9503;
156.0000;0.1604;0.9550;
156.3000;0.1595;0.9526;
156.6000;0.1612;0.9597;
156.9000;0.1612;0.9574;
157.2000;0.1604;0.9621;
157.5000;0.1612;0.9669;
157.8000;0.1652;0.9763;
158.1000;0.1612;0.9645;
158.4000;0.1612;0.9550;
158.7000;0.1628;0.9574;
159.0000;0.1685;0.9692;
159.3000;0.1669;0.9550;
159.6000;0.1620;0.9479;
159.9000;0.1612;0.9455;
160.2000;0.1620;0.9574;
160.5000;0.1628;0.9574;
160.8000;0.1636;0.9574;
161.1000;0.1620;0.9503;
161.4000;0.1628;0.9455;
161.7000;0.1620;0.9479;
162.0000;0.1636;0.9526;
162.3000;0.1644;0.9550;
162.6000;0.1620;0.9455;
162.9000;0.1636;0.9503;
163.2000;0.1628;0.9503;
163.5000;0.1620;0.9503;
163.8000;0.1612;0.9621;
164.1000;0.1612;0.9692;
164.4000;0.1595;0.9645;
164.7000;0.1612;0.9669;
165.0000;0.1604;0.9669;
165.3000;0.1579;0.9597;
165.6000;0.1612;0.9621;
165.9000;0.1604;0.9526;
166.2000;0.1636;0.9645;
166.5000;0.1547;0.9503;
166.8000;0.1555;0.9455;
167.1000;0.1628;0.9597;
167.4000;0.1595;0.9526;
167.7000;0.1652;0.9716;
168.0000;0.1612;0.9526;
168.3000;0.1604;0.9574;
168.6000;0.1595;0.9621;
168.9000;0.1571;0.9597;
169.2000;0.1612;0.9740;
169.5000;0.1595;0.9669;
169.8000;0.1604;0.9692;
170.1000;0.1604;0.9716;
170.4000;0.1595;0.9621;
170.7000;0.1604;0.9645;
171.0000;0.1620;0.9669;
171.3000;0.1530;0.9408;
171.6000;0.1604;0.9597;
171.9000;0.1612;0.9526;
172.2000;0.1620;0.9621;
172.5000;0.1595;0.9621;
172.8000;0.1620;0.9692;
173.1000;0.1620;0.9740;
173.4000;0.1612;0.9740;
173.7000;0.1644;0.9834;
174.0000;0.1612;0.9834;
174.3000;0.1595;0.9811;
174.6000;0.1604;0.9834;
174.9000;0.1612;0.9787;
175.2000;0.1620;0.9811;
175.5000;0.1571;0.9740;
175.8000;0.1595;0.9858;
176.1000;0.1620;0.9858;
176.4000;0.1604;0.9811;
176.7000;0.1628;0.9834;
177.0000;0.1612;0.9787;
177.3000;0.1612;0.9858;
177.6000;0.1604;0.9858;
177.9000;0.1612;0.9882;
178.2000;0.1620;0.9834;
178.5000;0.1620;0.9834;
178.8000;0.1620;0.9716;
179.1000;0.1612;0.9597;
179.4000;0.1644;0.9692;
179.7000;0.1644;0.9692;
180.0000;0.1604;0.9692;
180.3000;0.1628;0.9716;
180.6000;0.1636;0.9763;
180.9000;0.1595;0.9740;
181.2000;0.1620;0.9763;
181.5000;0.1620;0.9763;
181.8000;0.1612;0.9716;
182.1000;0.1644;0.9811;
182.4000;0.1661;0.9834;
182.7000;0.1604;0.9716;
183.0000;0.1579;0.9716;
183.3000;0.1587;0.9692;
183.6000;0.1628;0.9740;
183.9000;0.1620;0.9811;
184.2000;0.1595;0.9811;
184.5000;0.1620;0.9834;
184.8000;0.1612;0.9882;
185.1000;0.1612;0.9763;
185.4000;0.1620;0.9669;
185.7000;0.1604;0.9669;
186.0000;0.1620;0.9740;
186.3000;0.1612;0.9787;
186.6000;0.1620;0.9692;
186.9000;0.1636;0.9716;
187.2000;0.1628;0.9740;
187.5000;0.1661;0.9787;
187.8000;0.1644;0.9740;
188.1000;0.1612;0.9669;
188.4000;0.1595;0.9740;
188.7000;0.1612;0.9740;
189.0000;0.1636;0.9811;
189.3000;0.1604;0.9716;
189.6000;0.1563;0.9692;
189.9000;0.1612;0.9716;
190.2000;0.1620;0.9645;
190.5000;0.1620;0.9692;
190.8000;0.1579;0.9550;
191.1000;0.1612;0.9645;
191.4000;0.1620;0.9716;
191.7000;0.1693;0.9858;
192.0000;0.1612;0.9597;
192.3000;0.1612;0.9550;
192.6000;0.1644;0.9645;
192.9000;0.1718;0.9787;
193.2000;0.1604;0.9574;
193.5000;0.1620;0.9669;
193.8000;0.1604;0.9692;
194.1000;0.1612;0.9621;
194.4000;0.1587;0.9479;
194.7000;0.1595;0.9503;
195.0000;0.1620;0.9526;
195.3000;0.1620;0.9550;
195.6000;0.1620;0.9550;
195.9000;0.1612;0.9526;
196.2000;0.1604;0.9479;
196.5000;0.1604;0.9479;
196.8000;0.1620;0.9479;
197.1000;0.1612;0.9455;
197.4000;0.1620;0.9432;
197.7000;0.1628;0.9432;
198.0000;0.1612;0.9408;
198.3000;0.1612;0.9526;
198.6000;0.1604;0.9574;
198.9000;0.1595;0.9526;
199.2000;0.1636;0.9574;
199.5000;0.1628;0.9503;
199.8000;0.1604;0.9455;
200.1000;0.1612;0.9479;
200.4000;0.1628;0.9621;
200.7000;0.1620;0.9645;
201.0000;0.1620;0.9574;
201.3000;0.1628;0.9597;
201.6000;0.1620;0.9716;
201.9000;0.1652;0.9858;
202.2000;0.1604;0.9716;
202.5000;0.1620;0.9811;
202.8000;0.1604;0.9716;
203.1000;0.1628;0.9716;
203.4000;0.1595;0.9574;
203.7000;0.1620;0.9692;
204.0000;0.1604;0.9550;
204.3000;0.1612;0.9526;
204.6000;0.1595;0.9455;
204.9000;0.1595;0.9526;
205.2000;0.1595;0.9574;
205.5000;0.1612;0.9692;
205.8000;0.1636;0.9811;
206.1000;0.1595;0.9787;
206.4000;0.1604;0.9882;
206.7000;0.1604;0.9858;
207.0000;0.1612;0.9834;
207.3000;0.1604;0.9763;
207.6000;0.1612;0.9811;
207.9000;0.1587;0.9692;
208.2000;0.1620;0.9740;
208.5000;0.1644;0.9811;
208.8000;0.1693;1.0000;
209.1000;0.1604;0.9716;
209.4000;0.1604;0.9692;
209.7000;0.1612;0.9740;
210.0000;0.1604;0.9669;
210.3000;0.1636;0.9669;
210.6000;0.1612;0.9597;
210.9000;0.1628;0.9621;
211.2000;0.1612;0.9574;
211.5000;0.1620;0.9503;
211.8000;0.1620;0.9526;
212.1000;0.1628;0.9455;
212.4000;0.1636;0.9479;
212.7000;0.1620;0.9455;
213.0000;0.1628;0.9432;
213.3000;0.1612;0.9361;
213.6000;0.1620;0.9408;
213.9000;0.1612;0.9408;
214.2000;0.1604;0.9408;
214.5000;0.1579;0.9432;
214.8000;0.1595;0.9479;
215.1000;0.1661;0.9740;
215.4000;0.1587;0.9621;
215.7000;0.1604;0.9597;
216.0000;0.1612;0.9597;
216.3000;0.1628;0.9669;
216.6000;0.1636;0.9740;
216.9000;0.1612;0.9740;
217.2000;0.1669;0.9763;
217.5000;0.1636;0.9669;
217.8000;0.1612;0.9621;
218.1000;0.1636;0.9716;
218.4000;0.1620;0.9716;
218.7000;0.1604;0.9692;
219.0000;0.1612;0.9740;
219.3000;0.1612;0.9882;
219.6000;0.1604;0.9953;
219.9000;0.1612;0.9977;
220.2000;0.1604;0.9953;
220.5000;0.1612;0.9953;
220.8000;0.1620;1.0000;
221.1000;0.1612;0.9953;
221.4000;0.1612;0.9953;
221.7000;0.1604;0.9929;
222.0000;0.1604;0.9906;
222.3000;0.1595;0.9906;
222.6000;0.1628;0.9953;
222.9000;0.1612;0.9858;
223.2000;0.1612;0.9858;
223.5000;0.1612;0.9953;
223.8000;0.1628;0.9953;
224.1000;0.1620;0.9929;
224.4000;0.1636;0.9953;
224.7000;0.1652;0.9953;
225.0000;0.1604;0.9858;
225.3000;0.1612;0.9834;
225.6000;0.1595;0.9645;
225.9000;0.1571;0.9526;
226.2000;0.1612;0.9692;
226.5000;0.1628;0.9716;
226.8000;0.1661;0.9787;
227.1000;0.1595;0.9645;
227.4000;0.1620;0.9669;
227.7000;0.1620;0.9645;
228.0000;0.1579;0.9574;
228.3000;0.1563;0.9432;
228.6000;0.1628;0.9597;
228.9000;0.1636;0.9597;
229.2000;0.1604;0.9526;
229.5000;0.1604;0.9526;
229.8000;0.1644;0.9645;
230.1000;0.1612;0.9526;
230.4000;0.1612;0.9503;
230.7000;0.1595;0.9455;
231.0000;0.1612;0.9455;
231.3000;0.1612;0.9550;
231.6000;0.1612;0.9621;
231.9000;0.1612;0.9597;
232.2000;0.1620;0.9597;
232.5000;0.1620;0.9597;
232.8000;0.1612;0.9574;
233.1000;0.1604;0.9669;
233.4000;0.1620;0.9597;
233.7000;0.1604;0.9597;
234.0000;0.1612;0.9503;
234.3000;0.1661;0.9574;
234.6000;0.1620;0.9574;
234.9000;0.1587;0.9526;
235.2000;0.1604;0.9574;
235.5000;0.1669;0.9645;
235.8000;0.1604;0.9432;
236.1000;0.1604;0.9337;
236.4000;0.1604;0.9337;
236.7000;0.1620;0.9432;
237.0000;0.1612;0.9408;
237.3000;0.1612;0.9408;
237.6000;0.1636;0.9526;
237.9000;0.1604;0.9432;
238.2000;0.1612;0.9503;
238.5000;0.1595;0.9455;
238.8000;0.1612;0.9432;
239.1000;0.1620;0.9408;
239.4000;0.1604;0.9479;
239.7000;0.1604;0.9526;
240.0000;0.1620;0.9526;
240.3000;0.1571;0.9479;
240.6000;0.1612;0.9550;
240.9000;0.1620;0.9550;
241.2000;0.1604;0.9479;
241.5000;0.1604;0.9526;
241.8000;0.1620;0.9621;
242.1000;0.1620;0.9597;
242.4000;0.1604;0.9645;
242.7000;0.1604;0.9692;
243.0000;0.1620;0.9740;
243.3000;0.1636;0.9787;
243.6000;0.1595;0.9787;
243.9000;0.1604;0.9811;
244.2000;0.1595;0.9811;
244.5000;0.1595;0.9716;
244.8000;0.1612;0.9692;
245.1000;0.1620;0.9740;
245.4000;0.1612;0.9645;
245.7000;0.1595;0.9550;
246.0000;0.1636;0.9645;
246.3000;0.1612;0.9669;
246.6000;0.1612;0.9669;
246.9000;0.1612;0.9621;
247.2000;0.1628;0.9669;
247.5000;0.1604;0.9597;
247.8000;0.1620;0.9621;
248.1000;0.1628;0.9574;
248.4000;0.1636;0.9597;
248.7000;0.1620;0.9597;
249.0000;0.1604;0.9550;
249.3000;0.1612;0.9526;
249.6000;0.1628;0.9574;
249.9000;0.1628;0.9526;
250.2000;0.1604;0.9574;
250.5000;0.1612;0.9597;
250.8000;0.1620;0.9550;
251.1000;0.1612;0.9479;
251.4000;0.1612;0.9597;
251.7000;0.1661;0.9740;
252.0000;0.1652;0.9787;
252.3000;0.1612;0.9692;
252.6000;0.1628;0.9621;
252.9000;0.1620;0.9574;
253.2000;0.1604;0.9597;
253.5000;0.1612;0.9621;
253.8000;0.1612;0.9645;
254.1000;0.1612;0.9645;
254.4000;0.1595;0.9692;
254.7000;0.1604;0.9716;
255.0000;0.1669;0.9834;
255.3000;0.1612;0.9716;
255.6000;0.1604;0.9740;
255.9000;0.1612;0.9669;
256.2000;0.1620;0.9740;
256.5000;0.1587;0.9692;
256.8000;0.1612;0.9740;
257.1000;0.1612;0.9669;
257.4000;0.1628;0.9716;
257.7000;0.1612;0.9740;
258.0000;0.1612;0.9716;
258.3000;0.1620;0.9740;
258.6000;0.1612;0.9692;
258.9000;0.1661;0.9811;
259.2000;0.1612;0.9692;
259.5000;0.1612;0.9621;
259.8000;0.1612;0.9597;
260.1000;0.1620;0.9621;
260.4000;0.1612;0.9621;
260.7000;0.1612;0.9574;
261.0000;0.1628;0.9574;
261.3000;0.1612;0.9526;
261.6000;0.1644;0.9574;
261.9000;0.1628;0.9621;
262.2000;0.1587;0.9503;
262.5000;0.1620;0.9550;
262.8000;0.1628;0.9550;
263.1000;0.1620;0.9574;
263.4000;0.1652;0.9645;
263.7000;0.1628;0.9526;
264.0000;0.1604;0.9432;
264.3000;0.1595;0.9526;
264.6000;0.1604;0.9621;
264.9000;0.1612;0.9526;
265.2000;0.1604;0.9550;
265.5000;0.1604;0.9621;
265.8000;0.1612;0.9645;
266.1000;0.1612;0.9597;
266.4000;0.1530;0.9408;
266.7000;0.1563;0.9526;
267.0000;0.1628;0.9645;
267.3000;0.1693;0.9811;
267.6000;0.1636;0.9621;
267.9000;0.1628;0.9526;
268.2000;0.1628;0.9526;
268.5000;0.1620;0.9574;
268.8000;0.1636;0.9621;
269.1000;0.1587;0.9526;
269.4000;0.1612;0.9597;
269.7000;0.1612;0.9574;
270.0000;0.1628;0.9621;
270.3000;0.1612;0.9645;
270.6000;0.1571;0.9550;
270.9000;0.1595;0.9597;
271.2000;0.1604;0.9645;
271.5000;0.1620;0.9550;
271.8000;0.1587;0.9503;
272.1000;0.1604;0.9550;
272.4000;0.1595;0.9574;
272.7000;0.1587;0.9455;
273.0000;0.1571;0.9432;
273.3000;0.1636;0.9526;
273.6000;0.1604;0.9432;
273.9000;0.1652;0.9597;
274.2000;0.1620;0.9503;
274.5000;0.1612;0.9503;
274.8000;0.1620;0.9503;
275.1000;0.1604;0.9550;
275.4000;0.1620;0.9550;
275.7000;0.1604;0.9526;
276.0000;0.1579;0.9432;
276.3000;0.1595;0.9526;
276.6000;0.1612;0.9526;
276.9000;0.1636;0.9621;
277.2000;0.1612;0.9597;
277.5000;0.1579;0.9574;
277.8000;0.1644;0.9740;
278.1000;0.1628;0.9669;
278.4000;0.1604;0.9645;
278.7000;0.1612;0.9692;
279.0000;0.1604;0.9645;
279.3000;0.1579;0.9574;
279.6000;0.1595;0.9669;
279.9000;0.1620;0.9621;
280.2000;0.1604;0.9550;
280.5000;0.1604;0.9597;
280.8000;0.1620;0.9597;
281.1000;0.1620;0.9503;
281.4000;0.1612;0.9455;
281.7000;0.1636;0.9432;
282.0000;0.1595;0.9408;
282.3000;0.1604;0.9455;
282.6000;0.1604;0.9479;
282.9000;0.1563;0.9408;
283.2000;0.1604;0.9526;
283.5000;0.1555;0.9479;
283.8000;0.1604;0.9597;
284.1000;0.1595;0.9597;
284.4000;0.1579;0.9574;
284.7000;0.1612;0.9550;
285.0000;0.1612;0.9503;
285.3000;0.1604;0.9574;
285.6000;0.1628;0.9645;
285.9000;0.1547;0.9455;
286.2000;0.1595;0.9574;
286.5000;0.1620;0.9574;
286.8000;0.1604;0.9597;
287.1000;0.1628;0.9574;
287.4000;0.1620;0.9574;
287.7000;0.1604;0.9479;
288.0000;0.1620;0.9432;
288.3000;0.1620;0.9432;
288.6000;0.1628;0.9526;
288.9000;0.1620;0.9574;
289.2000;0.1587;0.9503;
289.5000;0.1595;0.9479;
289.8000;0.1604;0.9526;
290.1000;0.1612;0.9526;
290.4000;0.1604;0.9597;
290.7000;0.1604;0.9597;
291.0000;0.1620;0.9669;
291.3000;0.1636;0.9692;
291.6000;0.1587;0.9645;
291.9000;0.1612;0.9669;
292.2000;0.1628;0.9669;
292.5000;0.1612;0.9716;
292.8000;0.1612;0.9716;
293.1000;0.1620;0.9740;
293.4000;0.1612;0.9740;
293.7000;0.1604;0.9740;
294.0000;0.1628;0.9692;
294.3000;0.1628;0.9645;
294.6000;0.1612;0.9550;
294.9000;0.1620;0.9550;
295.2000;0.1628;0.9503;
295.5000;0.1669;0.9526;
295.8000;0.1604;0.9337;
296.1000;0.1620;0.9384;
296.4000;0.1644;0.9408;
296.7000;0.1620;0.9455;
297.0000;0.1595;0.9479;
297.3000;0.1595;0.9503;
297.6000;0.1636;0.9621;
297.9000;0.1620;0.9645;
298.2000;0.1563;0.9550;
298.5000;0.1612;0.9526;
298.8000;0.1620;0.9526;
299.1000;0.1612;0.9526;
299.4000;0.1620;0.9621;
299.7000;0.1620;0.9621;
300.0000;0.1604;0.9550;
300.3000;0.1628;0.9597;
300.6000;0.1652;0.9716;
300.9000;0.1612;0.9574;
301.2000;0.1628;0.9692;
301.5000;0.1628;0.9787;
301.8000;0.1555;0.9597;
302.1000;0.1612;0.9834;
302.4000;0.1612;0.9763;
302.7000;0.1612;0.9716;
303.0000;0.1620;0.9692;
303.3000;0.1685;0.9858;
303.6000;0.1604;0.9621;
303.9000;0.1628;0.9621;
304.2000;0.1604;0.9597;
304.5000;0.1595;0.9645;
304.8000;0.1628;0.9692;
305.1000;0.1612;0.9716;
305.4000;0.1644;0.9834;
305.7000;0.1595;0.9740;
306.0000;0.1604;0.9882;
306.3000;0.1604;0.9834;
306.6000;0.1620;0.9834;
306.9000;0.1669;0.9858;
307.2000;0.1644;0.9858;
307.5000;0.1579;0.9669;
307.8000;0.1644;0.9811;
308.1000;0.1595;0.9692;
308.4000;0.1628;0.9692;
308.7000;0.1612;0.9763;
309.0000;0.1612;0.9645;
309.3000;0.1620;0.9645;
309.6000;0.1612;0.9597;
309.9000;0.1579;0.9503;
310.2000;0.1587;0.9526;
310.5000;0.1604;0.9526;
310.8000;0.1620;0.9526;
311.1000;0.1604;0.9550;
311.4000;0.1628;0.9574;
311.7000;0.1628;0.9550;
312.0000;0.1628;0.9574;
312.3000;0.1628;0.9550;
312.6000;0.1620;0.9597;
312.9000;0.1604;0.9716;
313.2000;0.1628;0.9740;
313.5000;0.1612;0.9692;
313.8000;0.1612;0.9692;
314.1000;0.1620;0.9645;
314.4000;0.1604;0.9597;
314.7000;0.1612;0.9669;
315.0000;0.1620;0.9692;
315.3000;0.1604;0.9621;
315.6000;0.1620;0.9669;
315.9000;0.1620;0.9692;
316.2000;0.1620;0.9692;
316.5000;0.1604;0.9692;
316.8000;0.1628;0.9716;
317.1000;0.1636;0.9763;
317.4000;0.1612;0.9597;
317.7000;0.1620;0.9574;
318.0000;0.1579;0.9574;
318.3000;0.1620;0.9621;
318.6000;0.1612;0.9550;
318.9000;0.1604;0.9503;
319.2000;0.1628;0.9597;
319.5000;0.1612;0.9550;
319.8000;0.1612;0.9574;
320.1000;0.1604;0.9597;
320.4000;0.1595;0.9645;
320.7000;0.1604;0.9763;
321.0000;0.1604;0.9811;
321.3000;0.1620;0.9834;
321.6000;0.1636;0.9834;
321.9000;0.1587;0.9811;
322.2000;0.1644;0.9953;
322.5000;0.1612;0.9929;
322.8000;0.1604;0.9882;
323.1000;0.1555;0.9692;
323.4000;0.1620;0.9811;
323.7000;0.1620;0.9858;
324.0000;0.1620;0.9858;
324.3000;0.1620;0.9858;
324.6000;0.1612;0.9834;
324.9000;0.1555;0.9645;
325.2000;0.1612;0.9763;
325.5000;0.1563;0.9692;
325.8000;0.1595;0.9740;
326.1000;0.1595;0.9834;
326.4000;0.1636;1.0000;
326.7000;0.1612;0.9882;
327.0000;0.1604;0.9811;
327.3000;0.1604;0.9763;
327.6000;0.1612;0.9834;
327.9000;0.1612;0.9787;
328.2000;0.1612;0.9740;
328.5000;0.1604;0.9787;
328.8000;0.1644;0.9858;
329.1000;0.1595;0.9787;
329.4000;0.1604;0.9811;
329.7000;0.1620;0.9811;
330.0000;0.1595;0.9834;
330.3000;0.1628;0.9858;
330.6000;0.1612;0.9858;
330.9000;0.1620;0.9740;
331.2000;0.1620;0.9787;
331.5000;0.1628;0.9858;
331.8000;0.1604;0.9763;
332.1000;0.1612;0.9716;
332.4000;0.1612;0.9763;
332.7000;0.1612;0.9787;
333.0000;0.1595;0.9763;
333.3000;0.1612;0.9763;
333.6000;0.1595;0.9692;
333.9000;0.1620;0.9716;
334.2000;0.1620;0.9740;
334.5000;0.1604;0.9692;
334.8000;0.1604;0.9763;
335.1000;0.1620;0.9811;
335.4000;0.1612;0.9834;
335.7000;0.1604;0.9763;
336.0000;0.1620;0.9811;
336.3000;0.1620;0.9834;
336.6000;0.1628;0.9882;
336.9000;0.1604;0.9811;
337.2000;0.1620;0.9811;
337.5000;0.1612;0.9787;
337.8000;0.1652;0.9882;
338.1000;0.1612;0.9834;
338.4000;0.1620;0.9811;
338.7000;0.1595;0.9692;
339.0000;0.1604;0.9645;
339.3000;0.1595;0.9645;
339.6000;0.1595;0.9645;
339.9000;0.1604;0.9669;
340.2000;0.1612;0.9645;
340.5000;0.1612;0.9621;
340.8000;0.1612;0.9669;
341.1000;0.1612;0.9740;
341.4000;0.1612;0.9716;
341.7000;0.1587;0.9645;
342.0000;0.1612;0.9740;
342.3000;0.1612;0.9692;
342.6000;0.1620;0.9763;
342.9000;0.1595;0.9763;
343.2000;0.1612;0.9763;
343.5000;0.1612;0.9906;
343.8000;0.1595;0.9834;
344.1000;0.1595;0.9811;
344.4000;0.1595;0.9811;
344.7000;0.1612;0.9882;
345.0000;0.1620;0.9787;
345.3000;0.1612;0.9858;
345.6000;0.1612;0.9811;
345.9000;0.1620;0.9787;
346.2000;0.1612;0.9811;
346.5000;0.1620;0.9763;
346.8000;0.1628;0.9716;
347.1000;0.1628;0.9716;
347.4000;0.1636;0.9787;
347.7000;0.1628;0.9740;
348.0000;0.1612;0.9787;
348.3000;0.1604;0.9787;
348.6000;0.1604;0.9716;
348.9000;0.1612;0.9740;
349.2000;0.1612;0.9740;
349.5000;0.1636;0.9787;
349.8000;0.1612;0.9740;
350.1000;0.1612;0.9669;
350.4000;0.1612;0.9692;
350.7000;0.1612;0.9669;
351.0000;0.1628;0.9645;
351.3000;0.1620;0.9692;
351.6000;0.1612;0.9692;
351.9000;0.1628;0.9740;
352.2000;0.1620;0.9692;
352.5000;0.1612;0.9574;
352.8000;0.1612;0.9597;
353.1000;0.1612;0.9597;
353.4000;0.1612;0.9621;
353.7000;0.1604;0.9692;
354.0000;0.1604;0.9645;
354.3000;0.1612;0.9645;
354.6000;0.1612;0.9669;
354.9000;0.1604;0.9692;
355.2000;0.1604;0.9645;
355.5000;0.1555;0.9503;
355.8000;0.1612;0.9550;
356.1000;0.1644;0.9716;
356.4000;0.1620;0.9574;
356.7000;0.1612;0.9621;
357.0000;0.1595;0.9645;
357.3000;0.1612;0.9787;
357.6000;0.1620;0.9811;
357.9000;0.1604;0.9811;
358.2000;0.1571;0.9669;
358.5000;0.1620;0.9834;
358.8000;0.1612;0.9740;
359.1000;0.1612;0.9692;
359.4000;0.1604;0.9692;
359.7000;0.1644;0.9834;
360.0000;0.1612;0.9763;
360.3000;0.1604;0.9692;
360.6000;0.1595;0.9597;
360.9000;0.1612;0.9716;
361.2000;0.1612;0.9692;
361.5000;0.1620;0.9692;
361.8000;0.1612;0.9740;
362.1000;0.1620;0.9763;
362.4000;0.1612;0.9811;
362.7000;0.1620;0.9882;
363.0000;0.1628;0.9740;
363.3000;0.1620;0.9716;
363.6000;0.1644;0.9763;
363.9000;0.1628;0.9669;
364.2000;0.1628;0.9645;
364.5000;0.1669;0.9740;
364.8000;0.1620;0.9716;
365.1000;0.1620;0.9740;
365.4000;0.1612;0.9669;
365.7000;0.1620;0.9597;
366.0000;0.1604;0.9550;
366.3000;0.1620;0.9692;
366.6000;0.1628;0.9787;
366.9000;0.1620;0.9834;
367.2000;0.1612;0.9763;
367.5000;0.1628;0.9763;
367.8000;0.1612;0.9740;
368.1000;0.1628;0.9787;
368.4000;0.1604;0.9787;
368.7000;0.1636;0.9763;
369.0000;0.1628;0.9787;
369.3000;0.1612;0.9787;
369.6000;0.1612;0.9692;
369.9000;0.1628;0.9669;
370.2000;0.1636;0.9645;
370.5000;0.1612;0.9692;
370.8000;0.1620;0.9645;
371.1000;0.1604;0.9550;
371.4000;0.1628;0.9574;
371.7000;0.1620;0.9669;
372.0000;0.1587;0.9692;
372.3000;0.1612;0.9692;
372.6000;0.1620;0.9716;
372.9000;0.1628;0.9740;
373.2000;0.1628;0.9716;
373.5000;0.1587;0.9692;
373.8000;0.1636;0.9858;
374.1000;0.1628;0.9834;
374.4000;0.1612;0.9858;
374.7000;0.1612;0.9811;
375.0000;0.1612;0.9716;
375.3000;0.1612;0.9716;
375.6000;0.1628;0.9716;
375.9000;0.1595;0.9669;
376.2000;0.1604;0.9716;
376.5000;0.1644;0.9763;
376.8000;0.1612;0.9787;
377.1000;0.1612;0.9787;
377.4000;0.1612;0.9811;
377.7000;0.1612;0.9834;
378.0000;0.1595;0.9811;
378.3000;0.1604;0.9834;
378.6000;0.1628;0.9929;
378.9000;0.1587;0.9929;
379.2000;0.1612;0.9953;
379.5000;0.1628;0.9977;
379.8000;0.1612;0.9906;
380.1000;0.1620;0.9834;
380.4000;0.1628;0.9882;
380.7000;0.1604;0.9740;
381.0000;0.1620;0.9740;
381.3000;0.1587;0.9645;
381.6000;0.1595;0.9692;
381.9000;0.1612;0.9740;
382.2000;0.1595;0.9669;
382.5000;0.1612;0.9597;
382.8000;0.1612;0.9550;
383.1000;0.1628;0.9574;
383.4000;0.1620;0.9597;
383.7000;0.1595;0.9621;
384.0000;0.1587;0.9597;
384.3000;0.1628;0.9645;
384.6000;0.1620;0.9645;
384.9000;0.1620;0.9550;
385.2000;0.1612;0.9597;
385.5000;0.1644;0.9597;
385.8000;0.1628;0.9550;
386.1000;0.1612;0.9526;
386.4000;0.1612;0.9550;
386.7000;0.1612;0.9645;
387.0000;0.1620;0.9621;
387.3000;0.1612;0.9645;
387.6000;0.1620;0.9692;
387.9000;0.1612;0.9763;
388.2000;0.1620;0.9740;
388.5000;0.1612;0.9740;
388.8000;0.1612;0.9740;
389.1000;0.1604;0.9692;
389.4000;0.1604;0.9763;
389.7000;0.1628;0.9787;
390.0000;0.1612;0.9811;
390.3000;0.1604;0.9763;
390.6000;0.1636;0.9811;
390.9000;0.1604;0.9763;
391.2000;0.1620;0.9787;
391.5000;0.1604;0.9763;
391.8000;0.1628;0.9787;
392.1000;0.1620;0.9811;
392.4000;0.1620;0.9834;
392.7000;0.1612;0.9740;
393.0000;0.1595;0.9716;
393.3000;0.1604;0.9787;
393.6000;0.1685;1.0024;
393.9000;0.1604;0.9858;
394.2000;0.1579;0.9787;
394.5000;0.1612;0.9763;
394.8000;0.1604;0.9716;
395.1000;0.1612;0.9763;
395.4000;0.1620;0.9787;
395.7000;0.1604;0.9740;
396.0000;0.1612;0.9787;
396.3000;0.1538;0.9692;
396.6000;0.1612;0.9906;
396.9000;0.1612;0.9858;
397.2000;0.1612;0.9834;
397.5000;0.1612;0.9787;
397.8000;0.1612;0.9645;
398.1000;0.1612;0.9574;
398.4000;0.1612;0.9597;
398.7000;0.1644;0.9716;
399.0000;0.1612;0.9692;
399.3000;0.1612;0.9763;
399.6000;0.1628;0.9811;
399.9000;0.1620;0.9834;
400.2000;0.1612;0.9858;
400.5000;0.1612;0.9882;
400.8000;0.1612;0.9834;
401.1000;0.1620;0.9763;
401.4000;0.1636;0.9716;
401.7000;0.1620;0.9621;
402.0000;0.1620;0.9597;
402.3000;0.1628;0.9645;
402.6000;0.1636;0.9692;
402.9000;0.1587;0.9763;
403.2000;0.1612;0.9787;
403.5000;0.1644;0.9834;
403.8000;0.1620;0.9716;
404.1000;0.1628;0.9716;
404.4000;0.1604;0.9669;
404.7000;0.1620;0.9692;
405.0000;0.1620;0.9692;
405.3000;0.1636;0.9669;
405.6000;0.1620;0.9692;
405.9000;0.1604;0.9597;
406.2000;0.1604;0.9669;
406.5000;0.1612;0.9692;
406.8000;0.1644;0.9692;
407.1000;0.1604;0.9574;
407.4000;0.1620;0.9621;
407.7000;0.1587;0.9669;
408.0000;0.1612;0.9740;
408.3000;0.1604;0.9716;
408.6000;0.1620;0.9621;
408.9000;0.1620;0.9597;
409.2000;0.1620;0.9550;
409.5000;0.1604;0.9550;
409.8000;0.1612;0.9621;
410.1000;0.1587;0.9597;
410.4000;0.1604;0.9621;
410.7000;0.1620;0.9692;
411.0000;0.1636;0.9811;
411.3000;0.1628;0.9740;
411.6000;0.1620;0.9716;
411.9000;0.1644;0.9716;
412.2000;0.1612;0.9574;
412.5000;0.1604;0.9621;
412.8000;0.1587;0.9574;
413.1000;0.1587;0.9574;
413.4000;0.1620;0.9645;
413.7000;0.1587;0.9550;
414.0000;0.1628;0.9597;
414.3000;0.1604;0.9597;
414.6000;0.1587;0.9597;
414.9000;0.1628;0.9597;
415.2000;0.1677;0.9716;
415.5000;0.1620;0.9550;
415.8000;0.1644;0.9574;
416.1000;0.1620;0.9503;
416.4000;0.1620;0.9526;
416.7000;0.1628;0.9645;
417.0000;0.1620;0.9645;
417.3000;0.1595;0.9669;
417.6000;0.1612;0.9692;
417.9000;0.1628;0.9692;
418.2000;0.1620;0.9669;
418.5000;0.1628;0.9692;
418.8000;0.1571;0.9455;
419.1000;0.1587;0.9479;
419.4000;0.1612;0.9574;
419.7000;0.1604;0.9550;
420.0000;0.1604;0.9621;
420.3000;0.1620;0.9621;
420.6000;0.1612;0.9621;
420.9000;0.1547;0.9479;
421.2000;0.1555;0.9455;
421.5000;0.1652;0.9811;
421.8000;0.1620;0.9740;
422.1000;0.1612;0.9834;
422.4000;0.1595;0.9858;
422.7000;0.1604;0.9906;
423.0000;0.1604;0.9834;
423.3000;0.1604;0.9929;
423.6000;0.1636;1.0000;
423.9000;0.1677;1.0095;
424.2000;0.1604;0.9882;
424.5000;0.1677;1.0024;
424.8000;0.1636;0.9906;
425.1000;0.1620;0.9953;
425.4000;0.1587;0.9882;
425.7000;0.1620;0.9929;
426.0000;0.1604;0.9929;
426.3000;0.1604;0.9834;
426.6000;0.1612;0.9858;
426.9000;0.1595;0.9811;
427.2000;0.1595;0.9834;
427.5000;0.1595;0.9763;
427.8000;0.1604;0.9669;
428.1000;0.1604;0.9621;
428.4000;0.1620;0.9645;
428.7000;0.1628;0.9597;
429.0000;0.1604;0.9550;
429.3000;0.1628;0.9574;
429.6000;0.1628;0.9574;
429.9000;0.1628;0.9692;
430.2000;0.1620;0.9692;
430.5000;0.1587;0.9645;
430.8000;0.1604;0.9645;
431.1000;0.1620;0.9645;
431.4000;0.1620;0.9645;
431.7000;0.1620;0.9716;
432.0000;0.1604;0.9669;
432.3000;0.1612;0.9740;
432.6000;0.1612;0.9763;
432.9000;0.1612;0.9906;
433.2000;0.1612;0.9787;
433.5000;0.1620;0.9763;
433.8000;0.1595;0.9763;
434.1000;0.1587;0.9763;
434.4000;0.1595;0.9763;
434.7000;0.1612;0.9834;
435.0000;0.1620;0.9882;
435.3000;0.1604;0.9858;
435.6000;0.1604;0.9834;
435.9000;0.1604;0.9740;
436.2000;0.1604;0.9740;
436.5000;0.1571;0.9645;
436.8000;0.1571;0.9716;
437.1000;0.1587;0.9692;
437.4000;0.1604;0.9692;
437.7000;0.1604;0.9669;
438.0000;0.1595;0.9645;
438.3000;0.1612;0.9645;
438.6000;0.1620;0.9645;
438.9000;0.1571;0.9574;
439.2000;0.1661;0.9811;
439.5000;0.1612;0.9716;
439.8000;0.1604;0.9763;
440.1000;0.1628;0.9882;
440.4000;0.1677;1.0000;
440.7000;0.1604;0.9858;
441.0000;0.1604;0.9716;
441.3000;0.1604;0.9692;
441.6000;0.1571;0.9692;
441.9000;0.1555;0.9645;
442.2000;0.1644;0.9882;
442.5000;0.1587;0.9763;
442.8000;0.1620;0.9834;
443.1000;0.1563;0.9716;
443.4000;0.1604;0.9740;
443.7000;0.1628;0.9763;
444.0000;0.1612;0.9692;
444.3000;0.1620;0.9763;
444.6000;0.1620;0.9740;
444.9000;0.1612;0.9716;
445.2000;0.1652;0.9787;
445.5000;0.1587;0.9597;
445.8000;0.1620;0.9716;
446.1000;0.1620;0.9669;
446.4000;0.1612;0.9669;
446.7000;0.1620;0.9716;
447.0000;0.1636;0.9740;
447.3000;0.1604;0.9574;
447.6000;0.1612;0.9574;
447.9000;0.1620;0.9621;
448.2000;0.1604;0.9621;
448.5000;0.1604;0.9645;
448.8000;0.1612;0.9692;
449.1000;0.1612;0.9716;
449.4000;0.1595;0.9645;
449.7000;0.1587;0.9597;
450.0000;0.1579;0.9597;
450.3000;0.1612;0.9645;
450.6000;0.1604;0.9645;
450.9000;0.1628;0.9716;
451.2000;0.1612;0.9645;
451.5000;0.1604;0.9645;
451.8000;0.1628;0.9669;
452.1000;0.1612;0.9621;
452.4000;0.1612;0.9597;
452.7000;0.1604;0.9621;
453.0000;0.1669;0.9906;
453.3000;0.1612;0.9787;
453.6000;0.1620;0.9763;
453.9000;0.1604;0.9740;
454.2000;0.1620;0.9740;
454.5000;0.1628;0.9787;
454.8000;0.1612;0.9787;
455.1000;0.1579;0.9692;
455.4000;0.1595;0.9669;
455.7000;0.1652;0.9787;
456.0000;0.1612;0.9716;
456.3000;0.1612;0.9692;
456.6000;0.1595;0.9597;
456.9000;0.1571;0.9455;
457.2000;0.1612;0.9574;
457.5000;0.1522;0.9313;
457.8000;0.1604;0.9526;
458.1000;0.1604;0.9597;
458.4000;0.1620;0.9550;
458.7000;0.1595;0.9432;
459.0000;0.1612;0.9455;
459.3000;0.1612;0.9503;
459.6000;0.1677;0.9716;
459.9000;0.1595;0.9574;
460.2000;0.1604;0.9574;
460.5000;0.1612;0.9669;
460.8000;0.1595;0.9692;
461.1000;0.1612;0.9669;
461.4000;0.1612;0.9692;
461.7000;0.1604;0.9645;
462.0000;0.1595;0.9621;
462.3000;0.1628;0.9740;
462.6000;0.1612;0.9787;
462.9000;0.1644;0.9929;
463.2000;0.1604;0.9763;
463.5000;0.1595;0.9621;
463.8000;0.1620;0.9645;
464.1000;0.1604;0.9692;
464.4000;0.1620;0.9763;
464.7000;0.1595;0.9669;
465.0000;0.1587;0.9574;
465.3000;0.1612;0.9597;
465.6000;0.1587;0.9669;
465.9000;0.1595;0.9763;
466.2000;0.1677;0.9953;
466.5000;0.1612;0.9740;
466.8000;0.1620;0.9763;
467.1000;0.1620;0.9811;
467.4000;0.1595;0.9740;
467.7000;0.1636;0.9858;
468.0000;0.1612;0.9763;
468.3000;0.1587;0.9763;
468.6000;0.1620;0.9834;
468.9000;0.1620;0.9811;
469.2000;0.1612;0.9716;
469.5000;0.1547;0.9455;
469.8000;0.1604;0.9526;
470.1000;0.1604;0.9479;
470.4000;0.1628;0.9526;
470.7000;0.1604;0.9550;
471.0000;0.1620;0.9621;
471.3000;0.1604;0.9621;
471.6000;0.1612;0.9597;
471.9000;0.1604;0.9597;
472.2000;0.1620;0.9716;
472.5000;0.1571;0.9645;
472.8000;0.1628;0.9763;
473.1000;0.1620;0.9692;
473.4000;0.1620;0.9669;
473.7000;0.1604;0.9597;
474.0000;0.1620;0.9763;
474.3000;0.1612;0.9763;
474.6000;0.1604;0.9811;
474.9000;0.1604;0.9858;
475.2000;0.1612;0.9882;
475.5000;0.1612;0.9882;
475.8000;0.1620;0.9882;
476.1000;0.1595;0.9858;
476.4000;0.1612;0.9834;
476.7000;0.1612;0.9834;
477.0000;0.1628;0.9929;
477.3000;0.1612;0.9906;
477.6000;0.1612;0.9882;
477.9000;0.1595;0.9787;
478.2000;0.1612;0.9763;
478.5000;0.1612;0.9692;
478.8000;0.1612;0.9621;
479.1000;0.1620;0.9645;
479.4000;0.1595;0.9692;
479.7000;0.1612;0.9669;
480.0000;0.1612;0.9621;
480.3000;0.1620;0.9621;
480.6000;0.1604;0.9669;
480.9000;0.1628;0.9763;
481.2000;0.1612;0.9716;
481.5000;0.1604;0.9692;
481.8000;0.1612;0.9716;
482.1000;0.1595;0.9692;
482.4000;0.1595;0.9645;
482.7000;0.1636;0.9834;
483.0000;0.1620;0.9811;
483.3000;0.1612;0.9763;
483.6000;0.1595;0.9716;
483.9000;0.1579;0.9692;
484.2000;0.1652;0.9858;
484.5000;0.1604;0.9787;
484.8000;0.1604;0.9716;
485.1000;0.1595;0.9645;
485.4000;0.1604;0.9716;
485.7000;0.1620;0.9716;
486.0000;0.1628;0.9692;
486.3000;0.1595;0.9574;
486.6000;0.1595;0.9597;
486.9000;0.1620;0.9621;
487.2000;0.1612;0.9669;
487.5000;0.1604;0.9645;
487.8000;0.1604;0.9716;
488.1000;0.1612;0.9763;
488.4000;0.1595;0.9811;
488.7000;0.1604;0.9716;
489.0000;0.1612;0.9692;
489.3000;0.1628;0.9692;
489.6000;0.1612;0.9716;
489.9000;0.1595;0.9763;
490.2000;0.1604;0.9834;
490.5000;0.1604;0.9882;
490.8000;0.1612;0.9906;
491.1000;0.1604;0.9929;
491.4000;0.1604;0.9858;
491.7000;0.1579;0.9811;
492.0000;0.1620;0.9906;
492.3000;0.1563;0.9692;
492.6000;0.1555;0.9716;
492.9000;0.1604;0.9763;
493.2000;0.1620;0.9787;
493.5000;0.1628;0.9740;
493.8000;0.1595;0.9740;
494.1000;0.1612;0.9716;
494.4000;0.1636;0.9716;
494.7000;0.1628;0.9692;
495.0000;0.1620;0.9740;
495.3000;0.1677;0.9882;
495.6000;0.1604;0.9763;
495.9000;0.1612;0.9811;
496.2000;0.1612;0.9763;
496.5000;0.1595;0.9716;
496.8000;0.1612;0.9645;
497.1000;0.1620;0.9716;
497.4000;0.1595;0.9716;
497.7000;0.1587;0.9740;
498.0000;0.1612;0.9692;
498.3000;0.1595;0.9645;
498.6000;0.1620;0.9787;
498.9000;0.1563;0.9740;
499.2000;0.1620;0.9834;
499.5000;0.1612;0.9787;
499.8000;0.1604;0.9763;
500.1000;0.1612;0.9787;
500.4000;0.1595;0.9740;
500.7000;0.1612;0.9692;
501.0000;0.1604;0.9645;
501.3000;0.1530;0.9455;
501.6000;0.1571;0.9550;
501.9000;0.1587;0.9574;
502.2000;0.1620;0.9645;
502.5000;0.1612;0.9621;
502.8000;0.1587;0.9550;
503.1000;0.1571;0.9455;
503.4000;0.1604;0.9503;
503.7000;0.1604;0.9597;
504.0000;0.1604;0.9621;
504.3000;0.1604;0.9621;
504.6000;0.1604;0.9526;
504.9000;0.1604;0.9692;
505.2000;0.1620;0.9669;
505.5000;0.1685;0.9811;
505.8000;0.1604;0.9669;
506.1000;0.1620;0.9669;
506.4000;0.1612;0.9669;
506.7000;0.1620;0.9716;
507.0000;0.1612;0.9669;
507.3000;0.1612;0.9621;
507.6000;0.1612;0.9645;
507.9000;0.1612;0.9574;
508.2000;0.1612;0.9645;
508.5000;0.1620;0.9669;
508.8000;0.1595;0.9669;
509.1000;0.1604;0.9597;
509.4000;0.1604;0.9669;
509.7000;0.1612;0.9574;
510.0000;0.1604;0.9574;
510.3000;0.1620;0.9597;
510.6000;0.1595;0.9597;
510.9000;0.1604;0.9574;
511.2000;0.1587;0.9503;
511.5000;0.1612;0.9574;
511.8000;0.1604;0.9597;
512.1000;0.1604;0.9526;
512.4000;0.1620;0.9526;
512.7000;0.1612;0.9550;
513.0000;0.1595;0.9574;
513.3000;0.1587;0.9597;
513.6000;0.1538;0.9432;
513.9000;0.1620;0.9645;
514.2000;0.1604;0.9645;
514.5000;0.1612;0.9621;
514.8000;0.1612;0.9574;
515.1000;0.1612;0.9574;
515.4000;0.1628;0.9645;
515.7000;0.1604;0.9597;
516.0000;0.1595;0.9645;
516.3000;0.1612;0.9692;
516.6000;0.1612;0.9740;
516.9000;0.1612;0.9716;
517.2000;0.1628;0.9858;
517.5000;0.1644;0.9906;
517.8000;0.1620;0.9834;
518.1000;0.1652;0.9977;
518.4000;0.1571;0.9740;
518.7000;0.1620;0.9787;
519.0000;0.1579;0.9669;
519.3000;0.1620;0.9669;
519.6000;0.1644;0.9740;
519.9000;0.1636;0.9763;
520.2000;0.1604;0.9716;
520.5000;0.1628;0.9740;
520.8000;0.1620;0.9716;
521.1000;0.1595;0.9692;
521.4000;0.1661;0.9811;
521.7000;0.1620;0.9692;
522.0000;0.1620;0.9692;
522.3000;0.1636;0.9763;
522.6000;0.1620;0.9716;
522.9000;0.1571;0.9621;
523.2000;0.1612;0.9716;
523.5000;0.1604;0.9669;
523.8000;0.1604;0.9763;
524.1000;0.1628;0.9834;
524.4000;0.1628;0.9692;
524.7000;0.1628;0.9740;
525.0000;0.1595;0.9740;
525.3000;0.1595;0.9692;
525.6000;0.1595;0.9740;
525.9000;0.1612;0.9716;
526.2000;0.1587;0.9692;
526.5000;0.1595;0.9669;
526.8000;0.1644;0.9692;
527.1000;0.1620;0.9716;
527.4000;0.1604;0.9716;
527.7000;0.1604;0.9716;
528.0000;0.1620;0.9763;
528.3000;0.1612;0.9787;
528.6000;0.1612;0.9716;
528.9000;0.1563;0.9574;
529.2000;0.1620;0.9763;
529.5000;0.1612;0.9716;
529.8000;0.1620;0.9787;
530.1000;0.1620;0.9692;
530.4000;0.1587;0.9621;
530.7000;0.1587;0.9645;
531.0000;0.1620;0.9787;
531.3000;0.1587;0.9763;
531.6000;0.1620;0.9787;
531.9000;0.1595;0.9645;
532.2000;0.1604;0.9716;
532.5000;0.1604;0.9597;
532.8000;0.1604;0.9621;
533.1000;0.1563;0.9479;
533.4000;0.1636;0.9669;
533.7000;0.1644;0.9621;
534.0000;0.1555;0.9432;
534.3000;0.1604;0.9550;
534.6000;0.1587;0.9526;
534.9000;0.1595;0.9574;
535.2000;0.1669;0.9692;
535.5000;0.1604;0.9479;
535.8000;0.1587;0.9550;
536.1000;0.1612;0.9645;
536.4000;0.1628;0.9597;
536.7000;0.1628;0.9645;
537.0000;0.1604;0.9526;
537.3000;0.1612;0.9526;
537.6000;0.1587;0.9361;
537.9000;0.1620;0.9384;
538.2000;0.1604;0.9361;
538.5000;0.1604;0.9408;
538.8000;0.1636;0.9455;
539.1000;0.1595;0.9455;
539.4000;0.1677;0.9645;
539.7000;0.1604;0.9550;
540.0000;0.1612;0.9645;
540.3000;0.1579;0.9621;
540.6000;0.1644;0.9716;
540.9000;0.1604;0.9574;
541.2000;0.1595;0.9503;
541.5000;0.1612;0.9597;
541.8000;0.1595;0.9503;
542.1000;0.1620;0.9550;
542.4000;0.1604;0.9550;
542.7000;0.1604;0.9621;
543.0000;0.1628;0.9645;
543.3000;0.1620;0.9645;
543.6000;0.1628;0.9597;
543.9000;0.1628;0.9550;
544.2000;0.1612;0.9550;
544.5000;0.1612;0.9692;
544.8000;0.1620;0.9692;
545.1000;0.1612;0.9645;
545.4000;0.1693;0.9858;
545.7000;0.1620;0.9763;
546.0000;0.1587;0.9692;
546.3000;0.1620;0.9763;
546.6000;0.1620;0.9716;
546.9000;0.1604;0.9621;
547.2000;0.1604;0.9692;
547.5000;0.1595;0.9692;
547.8000;0.1628;0.9645;
548.1000;0.1612;0.9645;
548.4000;0.1604;0.9574;
548.7000;0.1595;0.9597;
549.0000;0.1628;0.9597;
549.3000;0.1604;0.9645;
549.6000;0.1595;0.9645;
549.9000;0.1604;0.9669;
550.2000;0.1604;0.9716;
550.5000;0.1604;0.9740;
550.8000;0.1604;0.9716;
551.1000;0.1604;0.9740;
551.4000;0.1604;0.9716;
551.7000;0.1685;0.9929;
552.0000;0.1612;0.9811;
552.3000;0.1612;0.9834;
552.6000;0.1604;0.9787;
552.9000;0.1620;0.9858;
553.2000;0.1628;0.9858;
553.5000;0.1604;0.9811;
553.8000;0.1620;0.9787;
554.1000;0.1612;0.9787;
554.4000;0.1620;0.9787;
554.7000;0.1628;0.9811;
555.0000;0.1595;0.9692;
555.3000;0.1620;0.9787;
555.6000;0.1612;0.9811;
555.9000;0.1612;0.9787;
556.2000;0.1636;0.9834;
556.5000;0.1620;0.9763;
556.8000;0.1628;0.9811;
557.1000;0.1644;0.9834;
557.4000;0.1612;0.9716;
557.7000;0.1595;0.9597;
558.0000;0.1604;0.9574;
558.3000;0.1587;0.9503;
558.6000;0.1612;0.9574;
558.9000;0.1595;0.9574;
559.2000;0.1587;0.9645;
559.5000;0.1587;0.9740;
559.8000;0.1587;0.9692;
560.1000;0.1595;0.9763;
560.4000;0.1612;0.9858;
560.7000;0.1612;0.9834;
561.0000;0.1563;0.9645;
561.3000;0.1595;0.9692;
561.6000;0.1612;0.9740;
561.9000;0.1571;0.9645;
562.2000;0.1571;0.9645;
562.5000;0.1620;0.9692;
562.8000;0.1604;0.9716;
563.1000;0.1620;0.9740;
563.4000;0.1612;0.9740;
563.7000;0.1604;0.9763;
564.0000;0.1595;0.9882;
564.3000;0.1587;0.9763;
564.6000;0.1612;0.9740;
564.9000;0.1604;0.9692;
565.2000;0.1579;0.9669;
565.5000;0.1644;0.9929;
565.8000;0.1595;0.9740;
566.1000;0.1620;0.9787;
566.4000;0.1595;0.9740;
566.7000;0.1595;0.9787;
567.0000;0.1620;0.9763;
567.3000;0.1604;0.9763;
567.6000;0.1612;0.9787;
567.9000;0.1612;0.9858;
568.2000;0.1628;0.9834;
568.5000;0.1628;0.9811;
568.8000;0.1620;0.9787;
569.1000;0.1628;0.9787;
569.4000;0.1620;0.9740;
569.7000;0.1620;0.9692;
570.0000;0.1612;0.9692;
570.3000;0.1604;0.9621;
570.6000;0.1612;0.9692;
570.9000;0.1612;0.9597;
571.2000;0.1612;0.9574;
571.5000;0.1636;0.9692;
571.8000;0.1612;0.9574;
572.1000;0.1595;0.9479;
572.4000;0.1604;0.9526;
572.7000;0.1604;0.9503;
573.0000;0.1595;0.9550;
573.3000;0.1612;0.9597;
573.6000;0.1595;0.9550;
573.9000;0.1612;0.9692;
574.2000;0.1587;0.9621;
574.5000;0.1595;0.9550;
574.8000;0.1604;0.9526;
575.1000;0.1612;0.9455;
575.4000;0.1604;0.9479;
575.7000;0.1530;0.9361;
576.0000;0.1595;0.9550;
576.3000;0.1595;0.9479;
576.6000;0.1579;0.9455;
576.9000;0.1571;0.9432;
577.2000;0.1620;0.9503;
577.5000;0.1587;0.9384;
577.8000;0.1628;0.9479;
578.1000;0.1612;0.9455;
578.4000;0.1595;0.9503;
578.7000;0.1612;0.9503;
579.0000;0.1612;0.9408;
579.3000;0.1628;0.9408;
579.6000;0.1604;0.9432;
579.9000;0.1644;0.9574;
580.2000;0.1620;0.9526;
580.5000;0.1604;0.9503;
580.8000;0.1571;0.9408;
581.1000;0.1604;0.9479;
581.4000;0.1620;0.9408;
581.7000;0.1612;0.9337;
582.0000;0.1604;0.9432;
582.3000;0.1604;0.9503;
582.6000;0.1612;0.9503;
582.9000;0.1612;0.9526;
583.2000;0.1612;0.9526;
583.5000;0.1595;0.9503;
583.8000;0.1612;0.9526;
584.1000;0.1612;0.9621;
584.4000;0.1595;0.9574;
584.7000;0.1604;0.9621;
585.0000;0.1604;0.9503;
585.3000;0.1636;0.9550;
585.6000;0.1587;0.9384;
585.9000;0.1644;0.9621;
586.2000;0.1595;0.9526;
586.5000;0.1620;0.9597;
586.8000;0.1595;0.9621;
587.1000;0.1604;0.9550;
587.4000;0.1571;0.9432;
587.7000;0.1604;0.9526;
588.0000;0.1612;0.9621;
588.3000;0.1620;0.9669;
588.6000;0.1612;0.9645;
588.9000;0.1612;0.9621;
589.2000;0.1604;0.9574;
589.5000;0.1620;0.9645;
589.8000;0.1612;0.9526;
590.1000;0.1604;0.9550;
590.4000;0.1628;0.9550;
590.7000;0.1595;0.9503;
591.0000;0.1612;0.9621;
591.3000;0.1628;0.9645;
591.6000;0.1579;0.9574;
591.9000;0.1604;0.9621;
592.2000;0.1612;0.9669;
592.5000;0.1612;0.9645;
592.8000;0.1620;0.9597;
593.1000;0.1620;0.9621;
593.4000;0.1612;0.9574;
593.7000;0.1612;0.9574;
594.0000;0.1612;0.9645;
594.3000;0.1604;0.9597;
594.6000;0.1612;0.9597;
594.9000;0.1587;0.9526;
595.2000;0.1612;0.9574;
595.5000;0.1595;0.9503;
595.8000;0.1604;0.9503;
596.1000;0.1636;0.9597;
596.4000;0.1579;0.9574;
596.7000;0.1595;0.9716;
597.0000;0.1612;0.9740;
597.3000;0.1604;0.9716;
597.6000;0.1612;0.9645;
597.9000;0.1587;0.9597;
598.2000;0.1612;0.9574;
598.5000;0.1571;0.9408;
598.8000;0.1587;0.9289;
599.1000;0.1595;0.9337;
599.4000;0.1595;0.9526;
599.7000;0.1612;0.9550;
600.0000;0.1579;0.9574;
600.3000;0.1612;0.9669;
600.6000;0.1604;0.9550;
600.9000;0.1604;0.9432;
601.2000;0.1587;0.9313;
601.5000;0.1563;0.9171;
601.8000;0.1579;0.9100;
602.1000;0.1571;0.8958;
602.4000;0.1563;0.8863;
602.7000;0.1547;0.8839;
603.0000;0.1547;0.8792;
603.3000;0.1530;0.8744;
603.6000;0.1514;0.8768;
603.9000;0.1530;0.8673;
604.2000;0.1425;0.8389;
604.5000;0.1490;0.8484;
604.8000;0.1490;0.8460;
605.1000;0.1465;0.8413;
605.4000;0.1465;0.8389;
605.7000;0.1473;0.8365;
606.0000;0.1514;0.8436;
606.3000;0.1457;0.8365;
606.6000;0.1441;0.8294;
606.9000;0.1441;0.8152;
607.2000;0.1449;0.8270;
607.5000;0.1457;0.8270;
607.8000;0.1425;0.8176;
608.1000;0.1425;0.8199;
608.4000;0.1416;0.8128;
608.7000;0.1425;0.8176;
609.0000;0.1465;0.8176;
609.3000;0.1416;0.8010;
609.6000;0.1408;0.7962;
609.9000;0.1416;0.7962;
610.2000;0.1408;0.7868;
610.5000;0.1416;0.7891;
610.8000;0.1384;0.7844;
611.1000;0.1400;0.7868;
611.4000;0.1392;0.7844;
611.7000;0.1408;0.7891;
612.0000;0.1400;0.7962;
612.3000;0.1384;0.7939;
612.6000;0.1384;0.7962;
612.9000;0.1335;0.7844;
613.2000;0.1384;0.7986;
613.5000;0.1392;0.8010;
613.8000;0.1368;0.7986;
614.1000;0.1368;0.7962;
614.4000;0.1351;0.7915;
614.7000;0.1368;0.7986;
615.0000;0.1351;0.7962;
615.3000;0.1335;0.7939;
615.6000;0.1376;0.8010;
615.9000;0.1343;0.7962;
616.2000;0.1351;0.7939;
616.5000;0.1359;0.7962;
616.8000;0.1359;0.7844;
617.1000;0.1335;0.7725;
617.4000;0.1359;0.7702;
617.7000;0.1343;0.7607;
618.0000;0.1351;0.7678;
618.3000;0.1343;0.7749;
618.6000;0.1335;0.7796;
618.9000;0.1327;0.7820;
619.2000;0.1319;0.7915;
619.5000;0.1319;0.7915;
619.8000;0.1327;0.7915;
620.1000;0.1327;0.7891;
620.4000;0.1335;0.7939;
620.7000;0.1319;0.7868;
621.0000;0.1311;0.7891;
621.3000;0.1319;0.7844;
621.6000;0.1319;0.7773;
621.9000;0.1327;0.7749;
622.2000;0.1311;0.7702;
622.5000;0.1311;0.7654;
622.8000;0.1311;0.7631;
623.1000;0.1302;0.7654;
623.4000;0.1319;0.7702;
623.7000;0.1376;0.7868;
624.0000;0.1319;0.7654;
624.3000;0.1302;0.7607;
624.6000;0.1286;0.7512;
624.9000;0.1245;0.7560;
625.2000;0.1302;0.7702;
625.5000;0.1294;0.7702;
625.8000;0.1270;0.7678;
626.1000;0.1278;0.7583;
626.4000;0.1278;0.7678;
626.7000;0.1262;0.7773;
627.0000;0.1286;0.7939;
627.3000;0.1286;0.7915;
627.6000;0.1311;0.7939;
627.9000;0.1286;0.7868;
628.2000;0.1335;0.7986;
628.5000;0.1262;0.7796;
628.8000;0.1278;0.7749;
629.1000;0.1254;0.7607;
629.4000;0.1294;0.7678;
629.7000;0.1286;0.7702;
630.0000;0.1270;0.7654;
630.3000;0.1270;0.7654;
630.6000;0.1221;0.7631;
630.9000;0.1270;0.7820;
631.2000;0.1302;0.7962;
631.5000;0.1262;0.7844;
631.8000;0.1270;0.7844;
632.1000;0.1262;0.7891;
632.4000;0.1254;0.7915;
632.7000;0.1229;0.7915;
633.0000;0.1245;0.7986;
633.3000;0.1237;0.8033;
633.6000;0.1245;0.7986;
633.9000;0.1254;0.7986;
634.2000;0.1286;0.8105;
634.5000;0.1270;0.8033;
634.8000;0.1254;0.8033;
635.1000;0.1278;0.8057;
635.4000;0.1229;0.7915;
635.7000;0.1245;0.8081;
636.0000;0.1245;0.8057;
636.3000;0.1237;0.8105;
636.6000;0.1245;0.8081;
636.9000;0.1237;0.8010;
637.2000;0.1245;0.8033;
637.5000;0.1254;0.8033;
637.8000;0.1254;0.7939;
638.1000;0.1254;0.7915;
638.4000;0.1278;0.7962;
638.7000;0.1245;0.7891;
639.0000;0.1205;0.7796;
639.3000;0.1237;0.7844;
639.6000;0.1245;0.7891;
639.9000;0.1229;0.7891;
640.2000;0.1237;0.7796;
640.5000;0.1213;0.7702;
640.8000;0.1237;0.7749;
641.1000;0.1245;0.7820;
641.4000;0.1245;0.7820;
641.7000;0.1229;0.7820;
642.0000;0.1237;0.7891;
642.3000;0.1237;0.7939;
642.6000;0.1229;0.7891;
642.9000;0.1237;0.7844;
643.2000;0.1278;0.7986;
643.5000;0.1278;0.8033;
643.8000;0.1229;0.7986;
644.1000;0.1221;0.8010;
644.4000;0.1229;0.7844;
644.7000;0.1221;0.7749;
645.0000;0.1237;0.7796;
645.3000;0.1237;0.7796;
645.6000;0.1213;0.7773;
645.9000;0.1229;0.7749;
646.2000;0.1229;0.7773;
646.5000;0.1221;0.7796;
646.8000;0.1245;0.7915;
647.1000;0.1197;0.7820;
647.4000;0.1213;0.7868;
647.7000;0.1197;0.7844;
648.0000;0.1197;0.7891;
648.3000;0.1188;0.7915;
648.6000;0.1221;0.7986;
648.9000;0.1164;0.7796;
649.2000;0.1213;0.7796;
649.5000;0.1229;0.7844;
649.8000;0.1221;0.7844;
650.1000;0.1213;0.7820;
650.4000;0.1213;0.7844;
650.7000;0.1180;0.7796;
651.0000;0.1180;0.7749;
651.3000;0.1213;0.7891;
651.6000;0.1245;0.7962;
651.9000;0.1205;0.7939;
652.2000;0.1188;0.7844;
652.5000;0.1180;0.7820;
652.8000;0.1197;0.7773;
653.1000;0.1205;0.7773;
653.4000;0.1221;0.7796;
653.7000;0.1188;0.7654;
654.0000;0.1205;0.7702;
654.3000;0.1205;0.7725;
654.6000;0.1205;0.7796;
654.9000;0.1197;0.7868;
655.2000;0.1229;0.7962;
655.5000;0.1197;0.7915;
655.8000;0.1278;0.8057;
656.1000;0.1205;0.7868;
656.4000;0.1213;0.7915;
656.7000;0.1213;0.7820;
657.0000;0.1229;0.7868;
657.3000;0.1197;0.7844;
657.6000;0.1213;0.7844;
657.9000;0.1205;0.7796;
658.2000;0.1245;0.7915;
658.5000;0.1213;0.7844;
658.8000;0.1180;0.7796;
659.1000;0.1197;0.7868;
659.4000;0.1131;0.7796;
659.7000;0.1197;0.7868;
660.0000;0.1180;0.7749;
660.3000;0.1213;0.7820;
660.6000;0.1205;0.7868;
660.9000;0.1188;0.7844;
661.2000;0.1188;0.7820;
661.5000;0.1197;0.7891;
661.8000;0.1197;0.7844;
662.1000;0.1205;0.7796;
662.4000;0.1213;0.7915;
662.7000;0.1188;0.7915;
663.0000;0.1197;0.7915;
663.3000;0.1205;0.7939;
663.6000;0.1188;0.7844;
663.9000;0.1188;0.7844;
664.2000;0.1188;0.7915;
664.5000;0.1205;0.7891;
664.8000;0.1164;0.7796;
665.1000;0.1205;0.7820;
665.4000;0.1172;0.7725;
665.7000;0.1197;0.7773;
666.0000;0.1205;0.7773;
666.3000;0.1188;0.7820;
666.6000;0.1229;0.7868;
666.9000;0.1245;0.8010;
667.2000;0.1213;0.7844;
667.5000;0.1197;0.7868;
667.8000;0.1172;0.7939;
668.1000;0.1205;0.8010;
668.4000;0.1197;0.8033;
668.7000;0.1156;0.8010;
669.0000;0.1197;0.8081;
669.3000;0.1205;0.8033;
669.6000;0.1123;0.7868;
669.9000;0.1221;0.8010;
670.2000;0.1188;0.7962;
670.5000;0.1156;0.7962;
670.8000;0.1180;0.7939;
671.1000;0.1180;0.7891;
671.4000;0.1180;0.7796;
671.7000;0.1229;0.7868;
672.0000;0.1213;0.7915;
672.3000;0.1197;0.7962;
672.6000;0.1172;0.7962;
672.9000;0.1180;0.7939;
673.2000;0.1197;0.7915;
673.5000;0.1188;0.7939;
673.8000;0.1180;0.7868;
674.1000;0.1148;0.7820;
674.4000;0.1197;0.7962;
674.7000;0.1188;0.7939;
675.0000;0.1237;0.8033;
675.3000;0.1197;0.7986;
675.6000;0.1197;0.7962;
675.9000;0.1197;0.7962;
676.2000;0.1188;0.7868;
676.5000;0.1164;0.7796;
676.8000;0.1172;0.7915;
677.1000;0.1180;0.7844;
677.4000;0.1197;0.7891;
677.7000;0.1197;0.7868;
678.0000;0.1156;0.7725;
678.3000;0.1188;0.7844;
678.6000;0.1197;0.7868;
678.9000;0.1131;0.7844;
679.2000;0.1188;0.8033;
679.5000;0.1156;0.8033;
679.8000;0.1172;0.8033;
680.1000;0.1172;0.8010;
680.4000;0.1164;0.8081;
680.7000;0.1180;0.8176;
681.0000;0.1172;0.8247;
681.3000;0.1180;0.8247;
681.6000;0.1164;0.8199;
681.9000;0.1156;0.8128;
682.2000;0.1172;0.8033;
682.5000;0.1091;0.7868;
682.8000;0.1164;0.7986;
683.1000;0.1172;0.7891;
683.4000;0.1237;0.8010;
683.7000;0.1188;0.7891;
684.0000;0.1188;0.7844;
684.3000;0.1156;0.7820;
684.6000;0.1188;0.7868;
684.9000;0.1156;0.7844;
685.2000;0.1140;0.7796;
685.5000;0.1140;0.7844;
685.8000;0.1180;0.7915;
686.1000;0.1156;0.7891;
686.4000;0.1148;0.7868;
686.7000;0.1164;0.7939;
687.0000;0.1156;0.7868;
687.3000;0.1164;0.7915;
687.6000;0.1180;0.8057;
687.9000;0.1172;0.8010;
688.2000;0.1188;0.8152;
688.5000;0.1156;0.8105;
688.8000;0.1188;0.8128;
689.1000;0.1221;0.8247;
689.4000;0.1237;0.8342;
689.7000;0.1131;0.7986;
690.0000;0.1164;0.7986;
690.3000;0.1164;0.7962;
690.6000;0.1123;0.7796;
690.9000;0.1197;0.8010;
691.2000;0.1229;0.8152;
691.5000;0.1180;0.7962;
691.8000;0.1172;0.8010;
692.1000;0.1140;0.7962;
692.4000;0.1156;0.8033;
692.7000;0.1245;0.8247;
693.0000;0.1172;0.8128;
693.3000;0.1156;0.8081;
693.6000;0.1148;0.8081;
693.9000;0.1164;0.8152;
694.2000;0.1156;0.8010;
694.5000;0.1197;0.8105;
694.8000;0.1148;0.8010;
695.1000;0.1188;0.8033;
695.4000;0.1156;0.7891;
695.7000;0.1156;0.7820;
696.0000;0.1164;0.7725;
696.3000;0.1148;0.7773;
696.6000;0.1172;0.7820;
696.9000;0.1148;0.7796;
697.2000;0.1140;0.7725;
697.5000;0.1164;0.7844;
697.8000;0.1156;0.7939;
698.1000;0.1180;0.8033;
698.4000;0.1164;0.8010;
698.7000;0.1156;0.7962;
699.0000;0.1156;0.7986;
699.3000;0.1164;0.8033;
699.6000;0.1172;0.8057;
699.9000;0.1148;0.7962;
700.2000;0.1156;0.8010;
700.5000;0.1164;0.8105;
700.8000;0.1156;0.8176;
701.1000;0.1140;0.8057;
701.4000;0.1148;0.8033;
701.7000;0.1172;0.8081;
702.0000;0.1148;0.8057;
702.3000;0.1180;0.8152;
702.6000;0.1156;0.8033;
702.9000;0.1156;0.7939;
703.2000;0.1156;0.8033;
703.5000;0.1156;0.8010;
703.8000;0.1156;0.7962;
704.1000;0.1148;0.7939;
704.4000;0.1188;0.7986;
704.7000;0.1164;0.7986;
705.0000;0.1148;0.7986;
705.3000;0.1131;0.7915;
705.6000;0.1164;0.7962;
705.9000;0.1156;0.7962;
706.2000;0.1172;0.7939;
706.5000;0.1197;0.8010;
706.8000;0.1156;0.7891;
707.1000;0.1164;0.7962;
707.4000;0.1156;0.7986;
707.7000;0.1164;0.8010;
708.0000;0.1140;0.7868;
708.3000;0.1156;0.7868;
708.6000;0.1156;0.7820;
708.9000;0.1172;0.7725;
709.2000;0.1164;0.7678;
709.5000;0.1164;0.7631;
709.8000;0.1164;0.7749;
710.1000;0.1172;0.7773;
710.4000;0.1156;0.7749;
710.7000;0.1156;0.7773;
711.0000;0.1164;0.7749;
711.3000;0.1140;0.7654;
711.6000;0.1148;0.7725;
711.9000;0.1156;0.7820;
712.2000;0.1172;0.7844;
712.5000;0.1140;0.7844;
712.8000;0.1148;0.7796;
713.1000;0.1156;0.7844;
713.4000;0.1172;0.7939;
713.7000;0.1164;0.7891;
714.0000;0.1148;0.7891;
714.3000;0.1140;0.7844;
714.6000;0.1140;0.7868;
714.9000;0.1148;0.7891;
715.2000;0.1148;0.7962;
715.5000;0.1131;0.7915;
715.8000;0.1180;0.8081;
716.1000;0.1156;0.8081;
716.4000;0.1140;0.8105;
716.7000;0.1148;0.7986;
717.0000;0.1148;0.7986;
717.3000;0.1140;0.7986;
717.6000;0.1172;0.8033;
717.9000;0.1140;0.7891;
718.2000;0.1140;0.7915;
718.5000;0.1131;0.7962;
718.8000;0.1140;0.8033;
719.1000;0.1221;0.8176;
719.4000;0.1140;0.7868;
719.7000;0.1131;0.7915;
720.0000;0.1148;0.7868;
720.3000;0.1091;0.7796;
720.6000;0.1172;0.7962;
720.9000;0.1156;0.7891;
721.2000;0.1156;0.7939;
721.5000;0.1156;0.7915;
721.8000;0.1131;0.7820;
722.1000;0.1156;0.7939;
722.4000;0.1172;0.7915;
722.7000;0.1156;0.7962;
723.0000;0.1156;0.7986;
723.3000;0.1140;0.7962;
723.6000;0.1140;0.7962;
723.9000;0.1115;0.7868;
724.2000;0.1140;0.7962;
724.5000;0.1115;0.8010;
724.8000;0.1123;0.8033;
725.1000;0.1123;0.7986;
725.4000;0.1131;0.8057;
725.7000;0.1131;0.8010;
726.0000;0.1156;0.8010;
726.3000;0.1148;0.8033;
726.6000;0.1156;0.8081;
726.9000;0.1140;0.8033;
727.2000;0.1148;0.8033;
727.5000;0.1099;0.7891;
727.8000;0.1148;0.8081;
728.1000;0.1140;0.8128;
728.4000;0.1123;0.8105;
728.7000;0.1131;0.8057;
729.0000;0.1140;0.8057;
729.3000;0.1050;0.7796;
729.6000;0.1140;0.7962;
729.9000;0.1156;0.8033;
730.2000;0.1148;0.7939;
730.5000;0.1156;0.7939;
730.8000;0.1164;0.8033;
731.1000;0.1123;0.7915;
731.4000;0.1140;0.7939;
731.7000;0.1156;0.8010;
732.0000;0.1156;0.7962;
732.3000;0.1148;0.7962;
732.6000;0.1140;0.7962;
732.9000;0.1123;0.7939;
733.2000;0.1148;0.7939;
733.5000;0.1140;0.7986;
733.8000;0.1140;0.7986;
734.1000;0.1164;0.7986;
734.4000;0.1140;0.7915;
734.7000;0.1148;0.8010;
735.0000;0.1131;0.8033;
735.3000;0.1131;0.8010;
735.6000;0.1140;0.7962;
735.9000;0.1156;0.8033;
736.2000;0.1156;0.8081;
736.5000;0.1123;0.8010;
736.8000;0.1131;0.8010;
737.1000;0.1140;0.7986;
737.4000;0.1131;0.7891;
737.7000;0.1148;0.7891;
738.0000;0.1140;0.7915;
738.3000;0.1131;0.7962;
738.6000;0.1140;0.7939;
738.9000;0.1131;0.7986;
739.2000;0.1140;0.7962;
739.5000;0.1140;0.7796;
739.8000;0.1131;0.7796;
740.1000;0.1148;0.7796;
740.4000;0.1140;0.7796;
740.7000;0.1131;0.7749;
741.0000;0.1254;0.8033;
741.3000;0.1123;0.7773;
741.6000;0.1131;0.7868;
741.9000;0.1188;0.8057;
742.2000;0.1091;0.7749;
742.5000;0.1131;0.7891;
742.8000;0.1140;0.7915;
743.1000;0.1131;0.7962;
743.4000;0.1148;0.7986;
743.7000;0.1131;0.7962;
744.0000;0.1074;0.7868;
744.3000;0.1123;0.7986;
744.6000;0.1140;0.8057;
744.9000;0.1148;0.8057;
745.2000;0.1140;0.8081;
745.5000;0.1131;0.8105;
745.8000;0.1099;0.8010;
746.1000;0.1140;0.8223;
746.4000;0.1115;0.8199;
746.7000;0.1131;0.8199;
747.0000;0.1188;0.8270;
747.3000;0.1172;0.8176;
747.6000;0.1131;0.8081;
747.9000;0.1107;0.7962;
748.2000;0.1091;0.7891;
748.5000;0.1123;0.7986;
748.8000;0.1123;0.8081;
749.1000;0.1123;0.8128;
749.4000;0.1123;0.8176;
749.7000;0.1123;0.8247;
750.0000;0.1123;0.8199;
750.3000;0.1123;0.8223;
750.6000;0.1131;0.8128;
750.9000;0.1131;0.8105;
751.2000;0.1131;0.8105;
751.5000;0.1115;0.8105;
751.8000;0.1083;0.8033;
752.1000;0.1107;0.8176;
752.4000;0.1123;0.8176;
752.7000;0.1099;0.8128;
753.0000;0.1115;0.8270;
753.3000;0.1115;0.8294;
753.6000;0.1066;0.8081;
753.9000;0.1123;0.8152;
754.2000;0.1107;0.8128;
754.5000;0.1115;0.8199;
754.8000;0.1107;0.8223;
755.1000;0.1140;0.8199;
755.4000;0.1140;0.8223;
755.7000;0.1123;0.8057;
756.0000;0.1115;0.8057;
756.3000;0.1156;0.8105;
756.6000;0.1148;0.8057;
756.9000;0.1123;0.8033;
757.2000;0.1131;0.8128;
757.5000;0.1131;0.8081;
757.8000;0.1140;0.8128;
758.1000;0.1123;0.8105;
758.4000;0.1131;0.8057;
758.7000;0.1148;0.8057;
759.0000;0.1115;0.7986;
759.3000;0.1148;0.8010;
759.6000;0.1123;0.7986;
759.9000;0.1140;0.7962;
760.2000;0.1123;0.8010;
760.5000;0.1131;0.8010;
760.8000;0.1123;0.8033;
761.1000;0.1123;0.8057;
761.4000;0.1131;0.8105;
761.7000;0.1140;0.8105;
762.0000;0.1107;0.8081;
762.3000;0.1123;0.8105;
762.6000;0.1164;0.8176;
762.9000;0.1123;0.8010;
763.2000;0.1140;0.8081;
763.5000;0.1083;0.7962;
763.8000;0.1083;0.7939;
764.1000;0.1131;0.7986;
764.4000;0.1148;0.8033;
764.7000;0.1115;0.7939;
765.0000;0.1131;0.7986;
765.3000;0.1123;0.8057;
765.6000;0.1123;0.8176;
765.9000;0.1131;0.8247;
766.2000;0.1123;0.8270;
766.5000;0.1140;0.8270;
766.8000;0.1148;0.8389;
767.1000;0.1131;0.8318;
767.4000;0.1123;0.8270;
767.7000;0.1123;0.8270;
768.0000;0.1099;0.8199;
768.3000;0.1140;0.8318;
768.6000;0.1140;0.8294;
768.9000;0.1115;0.8223;
769.2000;0.1131;0.8199;
769.5000;0.1131;0.8294;
769.8000;0.1123;0.8270;
770.1000;0.1123;0.8199;
770.4000;0.1123;0.8247;
770.7000;0.1131;0.8294;
771.0000;0.1188;0.8484;
771.3000;0.1140;0.8294;
771.6000;0.1131;0.8247;
771.9000;0.1148;0.8318;
772.2000;0.1123;0.8247;
772.5000;0.1115;0.8176;
772.8000;0.1107;0.8152;
773.1000;0.1123;0.8176;
773.4000;0.1148;0.8247;
773.7000;0.1115;0.8105;
774.0000;0.1115;0.8057;
774.3000;0.1107;0.8152;
774.6000;0.1140;0.8247;
774.9000;0.1115;0.8152;
775.2000;0.1131;0.8176;
775.5000;0.1091;0.8057;
775.8000;0.1091;0.8033;
776.1000;0.1123;0.8010;
776.4000;0.1131;0.8033;
776.7000;0.1131;0.8081;
777.0000;0.1188;0.8318;
777.3000;0.1107;0.8105;
777.6000;0.1083;0.8057;
777.9000;0.1123;0.8152;
778.2000;0.1123;0.8176;
778.5000;0.1131;0.8105;
778.8000;0.1091;0.7986;
779.1000;0.1115;0.8033;
779.4000;0.1123;0.7986;
779.7000;0.1123;0.8033;
780.0000;0.1115;0.7986;
780.3000;0.1123;0.8033;
780.6000;0.1164;0.8176;
780.9000;0.1115;0.8057;
781.2000;0.1099;0.8105;
781.5000;0.1115;0.8010;
781.8000;0.1107;0.7939;
782.1000;0.1107;0.8010;
782.4000;0.1140;0.8128;
782.7000;0.1099;0.7986;
783.0000;0.1107;0.7986;
783.3000;0.1115;0.8010;
783.6000;0.1123;0.8010;
783.9000;0.1148;0.8128;
784.2000;0.1140;0.8128;
784.5000;0.1140;0.8199;
784.8000;0.1123;0.8128;
785.1000;0.1115;0.8128;
785.4000;0.1107;0.8033;
785.7000;0.1058;0.7773;
786.0000;0.1131;0.7986;
786.3000;0.1140;0.8176;
786.6000;0.1074;0.8033;
786.9000;0.1042;0.7939;
787.2000;0.1074;0.8081;
787.5000;0.1213;0.8436;
787.8000;0.1107;0.8199;
788.1000;0.1107;0.8247;
788.4000;0.1058;0.8105;
788.7000;0.1083;0.8199;
789.0000;0.1107;0.8223;
789.3000;0.1148;0.8270;
789.6000;0.1131;0.8247;
789.9000;0.1123;0.8223;
790.2000;0.1140;0.8318;
790.5000;0.1123;0.8342;
790.8000;0.1131;0.8460;
791.1000;0.1123;0.8436;
791.4000;0.1131;0.8365;
791.7000;0.1107;0.8294;
792.0000;0.1115;0.8270;
792.3000;0.1107;0.8199;
792.6000;0.1123;0.8128;
792.9000;0.1140;0.8199;
793.2000;0.1115;0.8081;
793.5000;0.1107;0.8105;
793.8000;0.1115;0.8176;
794.1000;0.1123;0.8152;
794.4000;0.1123;0.8152;
794.7000;0.1123;0.8033;
795.0000;0.1115;0.8033;
795.3000;0.1107;0.8081;
795.6000;0.1115;0.8152;
795.9000;0.1123;0.8199;
796.2000;0.1107;0.8223;
796.5000;0.1066;0.8057;
796.8000;0.1131;0.8270;
797.1000;0.1107;0.8223;
797.4000;0.1066;0.8057;
797.7000;0.1107;0.8152;
798.0000;0.1115;0.8128;
798.3000;0.1188;0.8270;
798.6000;0.1115;0.8081;
798.9000;0.1140;0.8010;
799.2000;0.1131;0.7962;
799.5000;0.1172;0.8128;
799.8000;0.1148;0.8057;
800.1000;0.1115;0.8010;
800.4000;0.1131;0.8081;
800.7000;0.1107;0.8128;
801.0000;0.1107;0.8199;
801.3000;0.1107;0.8199;
801.6000;0.1042;0.7915;
801.9000;0.1115;0.8105;
802.2000;0.1091;0.8057;
802.5000;0.1074;0.8105;
802.8000;0.1172;0.8389;
803.1000;0.1115;0.8247;
803.4000;0.1115;0.8247;
803.7000;0.1115;0.8294;
804.0000;0.1099;0.8199;
804.3000;0.1140;0.8247;
804.6000;0.1099;0.8176;
804.9000;0.1107;0.8223;
805.2000;0.1131;0.8270;
805.5000;0.1099;0.8176;
805.8000;0.1123;0.8223;
806.1000;0.1099;0.8081;
806.4000;0.1123;0.8176;
806.7000;0.1131;0.8176;
807.0000;0.1115;0.8223;
807.3000;0.1107;0.8270;
807.6000;0.1107;0.8270;
807.9000;0.1131;0.8342;
808.2000;0.1115;0.8270;
808.5000;0.1115;0.8270;
808.8000;0.1115;0.8176;
809.1000;0.1107;0.8247;
809.4000;0.1115;0.8176;
809.7000;0.1083;0.8010;
810.0000;0.1107;0.8176;
810.3000;0.1123;0.8223;
810.6000;0.1115;0.8223;
810.9000;0.1115;0.8247;
811.2000;0.1018;0.8033;
811.5000;0.1091;0.8247;
811.8000;0.1099;0.8223;
812.1000;0.1123;0.8247;
812.4000;0.1115;0.8152;
812.7000;0.1115;0.8128;
813.0000;0.1107;0.8152;
813.3000;0.1115;0.8128;
813.6000;0.1107;0.8010;
813.9000;0.1115;0.8033;
814.2000;0.1115;0.8128;
814.5000;0.1099;0.8081;
814.8000;0.1107;0.8081;
815.1000;0.1107;0.8010;
815.4000;0.1115;0.7986;
815.7000;0.1107;0.8033;
816.0000;0.1131;0.8128;
816.3000;0.1123;0.8152;
816.6000;0.1107;0.8152;
816.9000;0.1123;0.8223;
817.2000;0.1131;0.8176;
817.5000;0.1131;0.8105;
817.8000;0.1131;0.8010;
818.1000;0.1140;0.8010;
818.4000;0.1115;0.7915;
818.7000;0.1123;0.7962;
819.0000;0.1123;0.7962;
819.3000;0.1099;0.8010;
819.6000;0.1058;0.7915;
819.9000;0.1107;0.8010;
820.2000;0.1172;0.8176;
820.5000;0.1123;0.8033;
820.8000;0.1107;0.8081;
821.1000;0.1115;0.8128;
821.4000;0.1107;0.8105;
821.7000;0.1099;0.8081;
822.0000;0.1091;0.8128;
822.3000;0.1123;0.8176;
822.6000;0.1099;0.8199;
822.9000;0.1107;0.8223;
823.2000;0.1091;0.8105;
823.5000;0.1172;0.8389;
823.8000;0.1131;0.8223;
824.1000;0.1115;0.8176;
824.4000;0.1083;0.8105;
824.7000;0.1099;0.8105;
825.0000;0.1099;0.8128;
825.3000;0.1099;0.8152;
825.6000;0.1123;0.8223;
825.9000;0.1099;0.8270;
826.2000;0.1115;0.8342;
826.5000;0.1172;0.8507;
826.8000;0.1115;0.8413;
827.1000;0.1131;0.8436;
827.4000;0.1107;0.8342;
827.7000;0.1115;0.8318;
828.0000;0.1107;0.8199;
828.3000;0.1099;0.8152;
828.6000;0.1107;0.8033;
828.9000;0.1099;0.7986;
829.2000;0.1115;0.8033;
829.5000;0.1107;0.7939;
829.8000;0.1099;0.7891;
830.1000;0.1107;0.7939;
830.4000;0.1115;0.8057;
830.7000;0.1123;0.8176;
831.0000;0.1123;0.8199;
831.3000;0.1107;0.8128;
831.6000;0.1115;0.8176;
831.9000;0.1050;0.7986;
832.2000;0.1107;0.8033;
832.5000;0.1115;0.8105;
832.8000;0.1107;0.8081;
833.1000;0.1115;0.8057;
833.4000;0.1107;0.8057;
833.7000;0.1058;0.7868;
834.0000;0.1123;0.7986;
834.3000;0.1123;0.8033;
834.6000;0.1107;0.8033;
834.9000;0.1107;0.8033;
835.2000;0.1107;0.8033;
835.5000;0.1107;0.8033;
835.8000;0.1099;0.8128;
836.1000;0.1083;0.8105;
836.4000;0.1099;0.8128;
836.7000;0.1123;0.8247;
837.0000;0.1107;0.8128;
837.3000;0.1107;0.8010;
837.6000;0.1115;0.7915;
837.9000;0.1083;0.7986;
838.2000;0.1156;0.8152;
838.5000;0.1091;0.7962;
838.8000;0.1091;0.7939;
839.1000;0.1229;0.8223;
839.4000;0.1123;0.8057;
839.7000;0.1107;0.8105;
840.0000;0.1131;0.8176;
840.3000;0.1107;0.8176;
840.6000;0.1107;0.8176;
840.9000;0.1156;0.8270;
841.2000;0.1099;0.8223;
841.5000;0.1099;0.8057;
841.8000;0.1180;0.8152;
842.1000;0.1066;0.7844;
842.4000;0.1123;0.7891;
842.7000;0.1131;0.7986;
843.0000;0.1148;0.8128;
843.3000;0.1131;0.8033;
843.6000;0.1131;0.8128;
843.9000;0.1107;0.8199;
844.2000;0.1123;0.8152;
844.5000;0.1107;0.8081;
844.8000;0.1099;0.8081;
845.1000;0.1115;0.7986;
845.4000;0.1140;0.8105;
845.7000;0.1131;0.8033;
846.0000;0.1099;0.7915;
846.3000;0.1107;0.7939;
846.6000;0.1107;0.7939;
846.9000;0.1099;0.7962;
847.2000;0.1115;0.7986;
847.5000;0.1156;0.8010;
847.8000;0.1107;0.7868;
848.1000;0.1156;0.8010;
848.4000;0.1123;0.7915;
848.7000;0.1156;0.7962;
849.0000;0.1091;0.7796;
849.3000;0.1115;0.7796;
849.6000;0.1115;0.7820;
849.9000;0.1091;0.7820;
850.2000;0.1107;0.7844;
850.5000;0.1131;0.7868;
850.8000;0.1099;0.7844;
851.1000;0.1083;0.7773;
851.4000;0.1083;0.7773;
851.7000;0.1083;0.7725;
852.0000;0.1091;0.7702;
852.3000;0.1099;0.7725;
852.6000;0.1074;0.7702;
852.9000;0.1091;0.7749;
853.2000;0.1099;0.7773;
853.5000;0.1107;0.7725;
853.8000;0.1099;0.7725;
854.1000;0.1115;0.7725;
854.4000;0.1131;0.7654;
854.7000;0.1148;0.7654;
855.0000;0.1107;0.7654;
855.3000;0.1107;0.7678;
855.6000;0.1164;0.7915;
855.9000;0.1123;0.7891;
856.2000;0.1099;0.7868;
856.5000;0.1091;0.7820;
856.8000;0.1123;0.7820;
857.1000;0.1131;0.7962;
857.4000;0.1115;0.7868;
857.7000;0.1091;0.7796;
858.0000;0.1115;0.7844;
858.3000;0.1091;0.7820;
858.6000;0.1099;0.7796;
858.9000;0.1099;0.7820;
859.2000;0.1107;0.7868;
859.5000;0.1115;0.7962;
859.8000;0.1131;0.8057;
860.1000;0.1123;0.8033;
860.4000;0.1091;0.8010;
860.7000;0.1066;0.8057;
861.0000;0.1066;0.8057;
861.3000;0.1115;0.8199;
861.6000;0.1107;0.8199;
861.9000;0.1099;0.8199;
862.2000;0.1099;0.8199;
862.5000;0.1099;0.8294;
862.8000;0.1107;0.8199;
863.1000;0.1083;0.8176;
863.4000;0.1107;0.8223;
863.7000;0.1099;0.8247;
864.0000;0.1107;0.8247;
864.3000;0.1115;0.8223;
864.6000;0.1107;0.8247;
864.9000;0.1099;0.8294;
865.2000;0.1131;0.8389;
865.5000;0.1107;0.8342;
865.8000;0.1123;0.8270;
866.1000;0.1123;0.8342;
866.4000;0.1107;0.8365;
866.7000;0.1115;0.8318;
867.0000;0.1107;0.8294;
867.3000;0.1074;0.8199;
867.6000;0.1115;0.8199;
867.9000;0.1107;0.8199;
868.2000;0.1099;0.8152;
868.5000;0.1091;0.8081;
868.8000;0.1074;0.8033;
869.1000;0.1099;0.8176;
869.4000;0.1091;0.8081;
869.7000;0.1123;0.8128;
870.0000;0.1083;0.8057;
870.3000;0.1099;0.7986;
870.6000;0.1099;0.7986;
870.9000;0.1115;0.8033;
871.2000;0.1091;0.8010;
871.5000;0.1148;0.8176;
871.8000;0.1066;0.7962;
872.1000;0.1099;0.8033;
872.4000;0.1091;0.7962;
872.7000;0.1091;0.7962;
873.0000;0.1099;0.8033;
873.3000;0.1099;0.7986;
873.6000;0.1083;0.7868;
873.9000;0.1083;0.7962;
874.2000;0.1115;0.8010;
874.5000;0.1091;0.7939;
874.8000;0.1091;0.7986;
875.1000;0.1099;0.8105;
875.4000;0.1099;0.8152;
875.7000;0.1099;0.8199;
876.0000;0.1091;0.8152;
876.3000;0.1115;0.8176;
876.6000;0.1115;0.8152;
876.9000;0.1115;0.8128;
877.2000;0.1107;0.8128;
877.5000;0.1091;0.8081;
877.8000;0.1123;0.8081;
878.1000;0.1140;0.8128;
878.4000;0.1148;0.8128;
878.7000;0.1123;0.8105;
879.0000;0.1099;0.7986;
879.3000;0.1099;0.7986;
879.6000;0.1099;0.7986;
879.9000;0.1123;0.8010;
880.2000;0.1099;0.7986;
880.5000;0.1115;0.8033;
880.8000;0.1115;0.7986;
881.1000;0.1123;0.7986;
881.4000;0.1091;0.7939;
881.7000;0.1026;0.7749;
882.0000;0.1099;0.7962;
882.3000;0.1107;0.7962;
882.6000;0.1099;0.7915;
882.9000;0.1099;0.7915;
883.2000;0.1099;0.7986;
883.5000;0.1131;0.8105;
883.8000;0.1099;0.8057;
884.1000;0.1123;0.8081;
884.4000;0.1091;0.7962;
884.7000;0.1099;0.7962;
885.0000;0.1091;0.7986;
885.3000;0.1099;0.7962;
885.6000;0.1107;0.7962;
885.9000;0.1107;0.7939;
886.2000;0.1107;0.7939;
886.5000;0.1091;0.7844;
886.8000;0.1099;0.7844;
887.1000;0.1107;0.7891;
887.4000;0.1107;0.7868;
887.7000;0.1091;0.7915;
888.0000;0.1099;0.7962;
888.3000;0.1099;0.7986;
888.6000;0.1107;0.7986;
888.9000;0.1099;0.8081;
889.2000;0.1107;0.7939;
889.5000;0.1123;0.8010;
889.8000;0.1107;0.8010;
890.1000;0.1099;0.7962;
890.4000;0.1107;0.7962;
890.7000;0.1091;0.7868;
891.0000;0.1123;0.8010;
891.3000;0.1115;0.7939;
891.6000;0.1091;0.7939;
891.9000;0.1099;0.7986;
892.2000;0.1148;0.8105;
892.5000;0.1099;0.8081;
892.8000;0.1091;0.8033;
893.1000;0.1107;0.8010;
893.4000;0.1099;0.8033;
893.7000;0.1131;0.8152;
894.0000;0.1115;0.8152;
894.3000;0.1099;0.8033;
894.6000;0.1091;0.7962;
894.9000;0.1131;0.8010;
895.2000;0.1107;0.7962;
895.5000;0.1058;0.7962;
895.8000;0.1099;0.8152;
896.1000;0.1091;0.8081;
896.4000;0.1107;0.8223;
896.7000;0.1034;0.8010;
897.0000;0.1091;0.8223;
897.3000;0.1107;0.8223;
897.6000;0.1107;0.8176;
897.9000;0.1099;0.8128;
898.2000;0.1091;0.8152;
898.5000;0.1083;0.8105;
898.8000;0.1107;0.8128;
899.1000;0.1123;0.8105;
899.4000;0.1091;0.8033;
899.7000;0.1140;0.8105;
900.0000;0.1115;0.8081;
900.3000;0.1107;0.8128;
900.6000;0.1123;0.8152;
900.9000;0.1172;0.8270;
901.2000;0.1115;0.8033;
901.5000;0.1123;0.8081;
901.8000;0.1107;0.8128;
902.1000;0.1099;0.8033;
902.4000;0.1083;0.8081;
902.7000;0.1172;0.8247;
903.0000;0.1099;0.8033;
903.3000;0.1107;0.8010;
903.6000;0.1099;0.8105;
903.9000;0.1091;0.8010;
904.2000;0.1115;0.7986;
904.5000;0.1115;0.7939;
904.8000;0.1115;0.7844;
905.1000;0.1131;0.7868;
905.4000;0.1083;0.7773;
905.7000;0.1099;0.7796;
906.0000;0.1091;0.7844;
906.3000;0.1107;0.7939;
906.6000;0.1099;0.7986;
906.9000;0.1107;0.8081;
907.2000;0.1099;0.8128;
907.5000;0.1099;0.8128;
907.8000;0.1091;0.8033;
908.1000;0.1099;0.8033;
908.4000;0.1123;0.8057;
908.7000;0.1107;0.8033;
909.0000;0.1099;0.8057;
909.3000;0.1107;0.8152;
909.6000;0.1099;0.8057;
909.9000;0.1091;0.8010;
910.2000;0.1099;0.8081;
910.5000;0.1131;0.8152;
910.8000;0.1091;0.8105;
911.1000;0.1099;0.8057;
911.4000;0.1099;0.8033;
911.7000;0.1115;0.8057;
912.0000;0.1107;0.7962;
912.3000;0.1099;0.8033;
912.6000;0.1091;0.7986;
912.9000;0.1091;0.8010;
913.2000;0.1107;0.7986;
913.5000;0.1099;0.7891;
913.8000;0.1099;0.7891;
914.1000;0.1107;0.7820;
914.4000;0.1083;0.7796;
914.7000;0.1107;0.7844;
915.0000;0.1099;0.7844;
915.3000;0.1083;0.7725;
915.6000;0.1099;0.7749;
915.9000;0.1107;0.7749;
916.2000;0.1083;0.7725;
916.5000;0.1074;0.7678;
916.8000;0.1091;0.7631;
917.1000;0.1099;0.7702;
917.4000;0.1221;0.8033;
917.7000;0.1131;0.7773;
918.0000;0.1099;0.7725;
918.3000;0.1099;0.7702;
918.6000;0.1115;0.7678;
918.9000;0.1091;0.7607;
919.2000;0.1099;0.7654;
919.5000;0.1099;0.7773;
919.8000;0.1107;0.7844;
920.1000;0.1099;0.7939;
920.4000;0.1066;0.7939;
920.7000;0.1083;0.7939;
921.0000;0.1107;0.7939;
921.3000;0.1099;0.7891;
921.6000;0.1099;0.7962;
921.9000;0.1099;0.7962;
922.2000;0.1099;0.7915;
922.5000;0.1099;0.7962;
922.8000;0.1074;0.7939;
923.1000;0.1107;0.7986;
923.4000;0.1123;0.8081;
923.7000;0.1091;0.8081;
924.0000;0.1156;0.8152;
924.3000;0.1099;0.8033;
924.6000;0.1099;0.8081;
924.9000;0.1099;0.8033;
925.2000;0.1099;0.7939;
925.5000;0.1107;0.7939;
925.8000;0.1099;0.7868;
926.1000;0.1099;0.7939;
926.4000;0.1115;0.7891;
926.7000;0.1107;0.7939;
927.0000;0.1131;0.7962;
927.3000;0.1091;0.7820;
927.6000;0.1107;0.7820;
927.9000;0.1107;0.7773;
928.2000;0.1123;0.7844;
928.5000;0.1099;0.7844;
928.8000;0.1091;0.7915;
929.1000;0.1099;0.7868;
929.4000;0.1099;0.7868;
929.7000;0.1099;0.7939;
930.0000;0.1107;0.8010;
930.3000;0.1074;0.7891;
930.6000;0.1083;0.7891;
930.9000;0.1083;0.7915;
931.2000;0.1083;0.7939;
931.5000;0.1083;0.7939;
931.8000;0.1107;0.8010;
932.1000;0.1091;0.7939;
932.4000;0.1099;0.8033;
932.7000;0.1107;0.8057;
933.0000;0.1083;0.8033;
933.3000;0.1091;0.7986;
933.6000;0.1107;0.8081;
933.9000;0.1099;0.8081;
934.2000;0.1091;0.7939;
934.5000;0.1115;0.7939;
934.8000;0.1115;0.7891;
935.1000;0.1115;0.7844;
935.4000;0.1107;0.7820;
935.7000;0.1107;0.7678;
936.0000;0.1099;0.7631;
936.3000;0.1115;0.7654;
936.6000;0.1091;0.7583;
936.9000;0.1099;0.7631;
937.2000;0.1099;0.7583;
937.5000;0.1140;0.7631;
937.8000;0.1107;0.7465;
938.1000;0.1115;0.7512;
938.4000;0.1091;0.7512;
938.7000;0.1099;0.7654;
939.0000;0.1107;0.7678;
939.3000;0.1099;0.7796;
939.6000;0.1091;0.7796;
939.9000;0.1115;0.7891;
940.2000;0.1099;0.7868;
940.5000;0.1107;0.7868;
940.8000;0.1107;0.7844;
941.1000;0.1083;0.7868;
941.4000;0.1099;0.7915;
941.7000;0.1099;0.7844;
942.0000;0.1091;0.7796;
942.3000;0.1091;0.7773;
942.6000;0.1091;0.7749;
942.9000;0.1091;0.7725;
943.2000;0.1099;0.7773;
943.5000;0.1066;0.7725;
943.8000;0.1115;0.7844;
944.1000;0.1107;0.7868;
944.4000;0.1115;0.7891;
944.7000;0.1091;0.7891;
945.0000;0.1083;0.7820;
945.3000;0.1091;0.7844;
945.6000;0.1099;0.7844;
945.9000;0.1074;0.7796;
946.2000;0.1074;0.7820;
946.5000;0.1091;0.7820;
946.8000;0.1131;0.7986;
947.1000;0.1123;0.7915;
947.4000;0.1099;0.7891;
947.7000;0.1083;0.7844;
948.0000;0.1099;0.7868;
948.3000;0.1107;0.7939;
948.6000;0.1099;0.7962;
948.9000;0.1107;0.7962;
949.2000;0.1107;0.8010;
949.5000;0.1107;0.8010;
949.8000;0.1058;0.8010;
950.1000;0.1123;0.8152;
950.4000;0.1099;0.8081;
950.7000;0.1107;0.8128;
951.0000;0.1091;0.8081;
951.3000;0.1091;0.8033;
951.6000;0.1083;0.8010;
951.9000;0.1091;0.7962;
952.2000;0.1107;0.8057;
952.5000;0.1099;0.8010;
952.8000;0.1099;0.8010;
953.1000;0.1099;0.8105;
953.4000;0.1099;0.8081;
953.7000;0.1074;0.8081;
954.0000;0.1083;0.8057;
954.3000;0.1099;0.7962;
954.6000;0.1115;0.7986;
954.9000;0.1091;0.8033;
955.2000;0.1066;0.7915;
955.5000;0.1099;0.7962;
955.8000;0.1091;0.7939;
956.1000;0.1099;0.8010;
956.4000;0.1172;0.8128;
956.7000;0.1099;0.7939;
957.0000;0.1123;0.7986;
957.3000;0.1099;0.7915;
957.6000;0.1099;0.7868;
957.9000;0.1091;0.7891;
958.2000;0.1091;0.7962;
958.5000;0.1091;0.7986;
958.8000;0.1131;0.8081;
959.1000;0.1099;0.8081;
959.4000;0.1091;0.8105;
959.7000;0.1115;0.8223;
960.0000;0.1115;0.8105;
960.3000;0.1091;0.8010;
960.6000;0.1115;0.8105;
960.9000;0.1115;0.8057;
961.2000;0.1107;0.8057;
961.5000;0.1099;0.8057;
961.8000;0.1099;0.7962;
962.1000;0.1107;0.8057;
962.4000;0.1099;0.8033;
962.7000;0.1091;0.8057;
963.0000;0.1099;0.8033;
963.3000;0.1156;0.8176;
963.6000;0.1107;0.8033;
963.9000;0.1083;0.7939;
964.2000;0.1083;0.7915;
964.5000;0.1099;0.7939;
964.8000;0.1083;0.7915;
965.1000;0.1091;0.7962;
965.4000;0.1099;0.8057;
965.7000;0.1091;0.8128;
966.0000;0.1074;0.8057;
966.3000;0.1091;0.8128;
966.6000;0.1140;0.8199;
966.9000;0.1083;0.8128;
967.2000;0.1099;0.8128;
967.5000;0.1099;0.8152;
967.8000;0.1091;0.8057;
968.1000;0.1083;0.8033;
968.4000;0.1123;0.8128;
968.7000;0.1131;0.8247;
969.0000;0.1099;0.8199;
969.3000;0.1083;0.8128;
969.6000;0.1074;0.8128;
969.9000;0.1091;0.8105;
970.2000;0.1099;0.8152;
970.5000;0.1091;0.8176;
970.8000;0.1099;0.8081;
971.1000;0.1091;0.8057;
971.4000;0.1107;0.8081;
971.7000;0.1107;0.8105;
972.0000;0.1099;0.7962;
972.3000;0.1091;0.7962;
972.6000;0.1107;0.8010;
972.9000;0.1099;0.7986;
973.2000;0.1091;0.7915;
973.5000;0.1058;0.7868;
973.8000;0.1107;0.8057;
974.1000;0.1083;0.8128;
974.4000;0.1123;0.8176;
974.7000;0.0961;0.7725;
975.0000;0.1107;0.8010;
975.3000;0.1083;0.7962;
975.6000;0.1107;0.8081;
975.9000;0.1091;0.7986;
976.2000;0.1107;0.7986;
976.5000;0.1107;0.7986;
976.8000;0.1018;0.7796;
977.1000;0.1091;0.8010;
977.4000;0.1099;0.7986;
977.7000;0.1107;0.8033;
978.0000;0.1099;0.7939;
978.3000;0.1099;0.7868;
978.6000;0.1099;0.7773;
978.9000;0.1091;0.7725;
979.2000;0.1074;0.7725;
979.5000;0.1099;0.7773;
979.8000;0.1083;0.7725;
980.1000;0.1091;0.7702;
980.4000;0.1107;0.7702;
980.7000;0.1107;0.7654;
981.0000;0.1107;0.7654;
981.3000;0.1083;0.7654;
981.6000;0.1115;0.7702;
981.9000;0.1107;0.7725;
982.2000;0.1099;0.7725;
982.5000;0.1123;0.7749;
982.8000;0.1091;0.7678;
983.1000;0.1123;0.7749;
983.4000;0.1123;0.7773;
983.7000;0.1131;0.7796;
984.0000;0.1115;0.7844;
984.3000;0.1123;0.7939;
984.6000;0.1099;0.7891;
984.9000;0.1099;0.7844;
985.2000;0.1083;0.7868;
985.5000;0.1091;0.7962;
985.8000;0.1099;0.7986;
986.1000;0.1107;0.8010;
986.4000;0.1091;0.8033;
986.7000;0.1107;0.8105;
987.0000;0.1091;0.7986;
987.3000;0.1091;0.8010;
987.6000;0.1091;0.8057;
987.9000;0.1107;0.8105;
988.2000;0.1099;0.8128;
988.5000;0.1099;0.8152;
988.8000;0.1099;0.8152;
989.1000;0.1091;0.8152;
989.4000;0.1099;0.8081;
989.7000;0.1083;0.8033;
990.0000;0.1058;0.8010;
990.3000;0.1083;0.8105;
990.6000;0.1074;0.8033;
990.9000;0.1091;0.8081;
991.2000;0.1091;0.8033;
991.5000;0.1042;0.7891;
991.8000;0.1026;0.7796;
992.1000;0.1099;0.8010;
992.4000;0.1115;0.8033;
992.7000;0.1099;0.8105;
993.0000;0.1091;0.8128;
993.3000;0.1099;0.8199;
993.6000;0.1115;0.8128;
993.9000;0.1099;0.8105;
994.2000;0.1099;0.8033;
994.5000;0.1107;0.8105;
994.8000;0.1115;0.8081;
995.1000;0.1107;0.8033;
995.4000;0.1099;0.8081;
995.7000;0.1074;0.8010;
996.0000;0.1107;0.8105;
996.3000;0.1091;0.8081;
996.6000;0.1083;0.8057;
996.9000;0.1099;0.8105;
997.2000;0.1107;0.8105;
997.5000;0.1131;0.8199;
997.8000;0.1123;0.8342;
998.1000;0.1099;0.8294;
998.4000;0.1066;0.8294;
998.7000;0.1074;0.8270;
999.0000;0.1099;0.8270;
999.3000;0.1066;0.8199;
999.6000;0.1107;0.8223;
999.9000;0.1066;0.7986;
1000.2000;0.1091;0.8081;
1000.5000;0.1083;0.7986;
1000.8000;0.1091;0.7962;
1001.1000;0.1099;0.8010;
1001.4000;0.1091;0.8010;
1001.7000;0.1099;0.8081;
1002.0000;0.1099;0.8081;
1002.3000;0.1099;0.8105;
1002.6000;0.1107;0.8057;
1002.9000;0.1091;0.8105;
1003.2000;0.1083;0.8223;
1003.5000;0.1091;0.8152;
1003.8000;0.1107;0.8176;
1004.1000;0.1099;0.8247;
1004.4000;0.1107;0.8199;
1004.7000;0.1091;0.8152;
1005.0000;0.1099;0.8176;
1005.3000;0.1099;0.8128;
1005.6000;0.1107;0.8105;
1005.9000;0.1099;0.8033;
1006.2000;0.1115;0.7962;
1006.5000;0.1107;0.7962;
1006.8000;0.1107;0.7986;
1007.1000;0.1131;0.7962;
1007.4000;0.1099;0.8010;
1007.7000;0.1107;0.8033;
1008.0000;0.1099;0.8010;
1008.3000;0.1083;0.7939;
1008.6000;0.1099;0.8010;
1008.9000;0.1091;0.8010;
1009.2000;0.1099;0.8081;
1009.5000;0.1115;0.8128;
1009.8000;0.1115;0.8105;
1010.1000;0.1099;0.8152;
1010.4000;0.1099;0.8176;
1010.7000;0.1083;0.8128;
1011.0000;0.1115;0.8247;
1011.3000;0.1091;0.8247;
1011.6000;0.1091;0.8152;
1011.9000;0.1107;0.8176;
1012.2000;0.1074;0.8105;
1012.5000;0.1099;0.8105;
1012.8000;0.1050;0.7915;
1013.1000;0.1107;0.8033;
1013.4000;0.1091;0.8081;
1013.7000;0.1009;0.7915;
1014.0000;0.1026;0.7962;
1014.3000;0.1115;0.8128;
1014.6000;0.1034;0.7962;
1014.9000;0.1083;0.8105;
1015.2000;0.1099;0.8128;
1015.5000;0.1107;0.8152;
1015.8000;0.1107;0.8033;
1016.1000;0.1099;0.8057;
1016.4000;0.1099;0.8105;
1016.7000;0.1018;0.7986;
1017.0000;0.1083;0.8152;
1017.3000;0.1099;0.8199;
1017.6000;0.1074;0.8128;
1017.9000;0.1099;0.8105;
1018.2000;0.1099;0.8081;
1018.5000;0.1107;0.8128;
1018.8000;0.1115;0.8105;
1019.1000;0.1107;0.8176;
1019.4000;0.1099;0.8176;
1019.7000;0.1156;0.8294;
1020.0000;0.1099;0.8152;
1020.3000;0.1091;0.8199;
1020.6000;0.1131;0.8318;
1020.9000;0.1115;0.8247;
1021.2000;0.1099;0.8223;
1021.5000;0.1099;0.8247;
1021.8000;0.1115;0.8318;
1022.1000;0.1099;0.8270;
1022.4000;0.1074;0.8247;
1022.7000;0.1091;0.8223;
1023.0000;0.1091;0.8199;
1023.3000;0.1148;0.8389;
1023.6000;0.1091;0.8247;
1023.9000;0.1083;0.8294;
1024.2000;0.1091;0.8342;
1024.5000;0.1107;0.8294;
1024.8000;0.1091;0.8318;
1025.1000;0.1099;0.8318;
1025.4000;0.1107;0.8294;
1025.7000;0.1099;0.8389;
1026.0000;0.1107;0.8318;
1026.3000;0.1115;0.8294;
1026.6000;0.1099;0.8294;
1026.9000;0.1107;0.8318;
1027.2000;0.1099;0.8270;
1027.5000;0.1115;0.8270;
1027.8000;0.1107;0.8176;
1028.1000;0.1083;0.8128;
1028.4000;0.1083;0.8128;
1028.7000;0.1083;0.8081;
1029.0000;0.1074;0.8081;
1029.3000;0.1099;0.8176;
1029.6000;0.1099;0.8152;
1029.9000;0.1107;0.8199;
1030.2000;0.1099;0.8176;
1030.5000;0.1099;0.8176;
1030.8000;0.1091;0.8176;
1031.1000;0.1107;0.8199;
1031.4000;0.1107;0.8152;
1031.7000;0.1083;0.8105;
1032.0000;0.1091;0.8128;
1032.3000;0.1099;0.8105;
1032.6000;0.1123;0.8152;
1032.9000;0.1083;0.8105;
1033.2000;0.1099;0.8176;
1033.5000;0.1066;0.8033;
1033.8000;0.1099;0.8152;
1034.1000;0.1083;0.8152;
1034.4000;0.1034;0.8010;
1034.7000;0.1083;0.8152;
1035.0000;0.1083;0.8128;
1035.3000;0.1091;0.8247;
1035.6000;0.1066;0.8152;
1035.9000;0.1074;0.8105;
1036.2000;0.1115;0.8081;
1036.5000;0.1099;0.8033;
1036.8000;0.1107;0.8152;
1037.1000;0.1083;0.8105;
1037.4000;0.1066;0.8105;
1037.7000;0.1099;0.8128;
1038.0000;0.1099;0.8105;
1038.3000;0.1099;0.8105;
1038.6000;0.1099;0.8199;
1038.9000;0.1107;0.8270;
1039.2000;0.1099;0.8270;
1039.5000;0.1083;0.8199;
1039.8000;0.1115;0.8247;
1040.1000;0.1091;0.8152;
1040.4000;0.1107;0.8199;
1040.7000;0.1034;0.8105;
1041.0000;0.1083;0.8105;
1041.3000;0.1083;0.8105;
1041.6000;0.1091;0.8128;
1041.9000;0.1107;0.8081;
1042.2000;0.1099;0.7962;
1042.5000;0.1091;0.7986;
1042.8000;0.1148;0.8105;
1043.1000;0.1107;0.8152;
1043.4000;0.1091;0.8199;
1043.7000;0.1107;0.8223;
1044.0000;0.1115;0.8199;
1044.3000;0.1107;0.8152;
1044.6000;0.1099;0.8176;
1044.9000;0.1107;0.8223;
1045.2000;0.1123;0.8199;
1045.5000;0.1091;0.8128;
1045.8000;0.1091;0.8033;
1046.1000;0.1074;0.7939;
1046.4000;0.1091;0.7891;
1046.7000;0.1058;0.7796;
1047.0000;0.1083;0.7844;
1047.3000;0.1074;0.7844;
1047.6000;0.1091;0.7915;
1047.9000;0.1107;0.7868;
1048.2000;0.1091;0.7868;
1048.5000;0.1099;0.8010;
1048.8000;0.1009;0.7939;
1049.1000;0.1083;0.8199;
1049.4000;0.1107;0.8270;
1049.7000;0.1099;0.8270;
1050.0000;0.1050;0.8105;
1050.3000;0.1099;0.8270;
1050.6000;0.1091;0.8247;
1050.9000;0.1083;0.8199;
1051.2000;0.1083;0.8081;
1051.5000;0.1083;0.8033;
1051.8000;0.1091;0.8152;
1052.1000;0.1091;0.8223;
1052.4000;0.1099;0.8223;
1052.7000;0.1099;0.8223;
1053.0000;0.1099;0.8152;
1053.3000;0.1115;0.8105;
1053.6000;0.1099;0.8033;
1053.9000;0.1099;0.8081;
1054.2000;0.1107;0.8152;
1054.5000;0.1083;0.8057;
1054.8000;0.1083;0.8128;
1055.1000;0.1091;0.8199;
1055.4000;0.1091;0.8152;
1055.7000;0.1091;0.8176;
1056.0000;0.1091;0.8152;
1056.3000;0.1074;0.8105;
1056.6000;0.1091;0.8176;
1056.9000;0.1107;0.8057;
1057.2000;0.1107;0.7962;
1057.5000;0.1091;0.7939;
1057.8000;0.1099;0.7986;
1058.1000;0.1083;0.7962;
1058.4000;0.1115;0.7986;
1058.7000;0.1083;0.7939;
1059.0000;0.1156;0.8176;
1059.3000;0.1083;0.8033;
1059.6000;0.1099;0.8105;
1059.9000;0.1091;0.8128;
1060.2000;0.1074;0.8057;
1060.5000;0.1099;0.8128;
1060.8000;0.1083;0.8128;
1061.1000;0.1083;0.8152;
1061.4000;0.1091;0.8223;
1061.7000;0.1083;0.8105;
1062.0000;0.1091;0.8152;
1062.3000;0.1099;0.8247;
1062.6000;0.1107;0.8342;
1062.9000;0.1099;0.8270;
1063.2000;0.1099;0.8247;
1063.5000;0.1107;0.8318;
1063.8000;0.1148;0.8365;
1064.1000;0.1091;0.8270;
1064.4000;0.1099;0.8247;
1064.7000;0.1107;0.8176;
1065.0000;0.1091;0.8105;
1065.3000;0.1115;0.8128;
1065.6000;0.1099;0.8105;
1065.9000;0.1058;0.8033;
1066.2000;0.1058;0.8033;
1066.5000;0.1099;0.8105;
1066.8000;0.1099;0.8081;
1067.1000;0.1131;0.8247;
1067.4000;0.1164;0.8342;
1067.7000;0.1115;0.8247;
1068.0000;0.1091;0.8152;
1068.3000;0.1083;0.8081;
1068.6000;0.1099;0.8176;
1068.9000;0.1131;0.8247;
1069.2000;0.1099;0.8176;
1069.5000;0.1099;0.8152;
1069.8000;0.1091;0.8152;
1070.1000;0.1115;0.8223;
1070.4000;0.1107;0.8176;
1070.7000;0.1083;0.8199;
1071.0000;0.1091;0.8199;
1071.3000;0.1148;0.8294;
1071.6000;0.1083;0.8081;
1071.9000;0.1123;0.8199;
1072.2000;0.1123;0.8152;
1072.5000;0.1099;0.8176;
1072.8000;0.1091;0.8010;
1073.1000;0.1083;0.8010;
1073.4000;0.1091;0.8057;
1073.7000;0.1091;0.8010;
1074.0000;0.1131;0.8057;
1074.3000;0.1083;0.7939;
1074.6000;0.1091;0.7939;
1074.9000;0.1042;0.7820;
1075.2000;0.1099;0.7939;
1075.5000;0.1050;0.7773;
1075.8000;0.1099;0.7962;
1076.1000;0.1099;0.7915;
1076.4000;0.1099;0.7986;
1076.7000;0.1107;0.7939;
1077.0000;0.1083;0.7986;
1077.3000;0.1107;0.7844;
1077.6000;0.1107;0.7939;
1077.9000;0.1091;0.7915;
1078.2000;0.1074;0.7915;
1078.5000;0.1083;0.7939;
1078.8000;0.1091;0.7962;
1079.1000;0.1091;0.7820;
1079.4000;0.1115;0.7844;
1079.7000;0.1099;0.7844;
1080.0000;0.1115;0.7891;
1080.3000;0.1107;0.7820;
1080.6000;0.1099;0.7749;
1080.9000;0.1099;0.7773;
1081.2000;0.1107;0.7844;
1081.5000;0.1026;0.7773;
1081.8000;0.1099;0.7939;
1082.1000;0.1083;0.7939;
1082.4000;0.1034;0.7773;
1082.7000;0.1164;0.8081;
1083.0000;0.1099;0.7868;
1083.3000;0.1074;0.7868;
1083.6000;0.1091;0.7986;
1083.9000;0.1083;0.7939;
1084.2000;0.1099;0.7962;
1084.5000;0.1066;0.7891;
1084.8000;0.1099;0.7939;
1085.1000;0.1099;0.7986;
1085.4000;0.1107;0.8081;
1085.7000;0.1099;0.8081;
1086.0000;0.1083;0.8033;
1086.3000;0.1083;0.8010;
1086.6000;0.1107;0.8057;
1086.9000;0.1099;0.8105;
1087.2000;0.1083;0.8105;
1087.5000;0.1091;0.8128;
1087.8000;0.1123;0.8199;
1088.1000;0.1099;0.8057;
1088.4000;0.1091;0.8010;
1088.7000;0.1083;0.8010;
1089.0000;0.1083;0.8033;
1089.3000;0.1083;0.8057;
1089.6000;0.1083;0.7939;
1089.9000;0.1091;0.8010;
1090.2000;0.1083;0.7939;
1090.5000;0.1083;0.7939;
1090.8000;0.1099;0.7939;
1091.1000;0.1123;0.7939;
1091.4000;0.1091;0.7939;
1091.7000;0.1107;0.7962;
1092.0000;0.1083;0.7891;
1092.3000;0.1083;0.7962;
1092.6000;0.1083;0.7962;
1092.9000;0.1123;0.7939;
1093.2000;0.1140;0.8010;
1093.5000;0.1083;0.7915;
1093.8000;0.1074;0.7962;
1094.1000;0.1091;0.7962;
1094.4000;0.1091;0.8081;
1094.7000;0.1074;0.8081;
1095.0000;0.1115;0.8223;
1095.3000;0.1099;0.8176;
1095.6000;0.1091;0.8081;
1095.9000;0.1074;0.8105;
1096.2000;0.1091;0.8033;
1096.5000;0.1099;0.7891;
1096.8000;0.1066;0.7844;
1097.1000;0.1099;0.8057;
1097.4000;0.1083;0.8105;
1097.7000;0.1099;0.8105;
1098.0000;0.1066;0.8010;
1098.3000;0.1099;0.8033;
1098.6000;0.1091;0.8010;
1098.9000;0.1115;0.8105;
1099.2000;0.1083;0.8010;
1099.5000;0.1099;0.7986;
1099.8000;0.1099;0.8057;
1100.1000;0.1058;0.7891;
1100.4000;0.1074;0.7939;
1100.7000;0.1140;0.8057;
1101.0000;0.1099;0.8010;
1101.3000;0.1074;0.7962;
1101.6000;0.1091;0.8010;
1101.9000;0.1107;0.8033;
1102.2000;0.1091;0.8010;
1102.5000;0.1083;0.8033;
1102.8000;0.1083;0.8081;
1103.1000;0.1083;0.8176;
1103.4000;0.1074;0.8128;
1103.7000;0.1074;0.8057;
1104.0000;0.1083;0.8057;
1104.3000;0.1091;0.8057;
1104.6000;0.1107;0.8105;
1104.9000;0.1050;0.8057;
1105.2000;0.1083;0.8033;
1105.5000;0.1066;0.8033;
1105.8000;0.1091;0.8057;
1106.1000;0.1099;0.8033;
1106.4000;0.1131;0.8105;
1106.7000;0.1099;0.8057;
1107.0000;0.1074;0.8010;
1107.3000;0.1099;0.8057;
1107.6000;0.1066;0.8010;
1107.9000;0.1091;0.8105;
1108.2000;0.1083;0.8152;
1108.5000;0.1091;0.8176;
1108.8000;0.1107;0.8223;
1109.1000;0.1091;0.8176;
1109.4000;0.1066;0.8033;
1109.7000;0.1091;0.7986;
1110.0000;0.1099;0.7986;
1110.3000;0.1091;0.7986;
1110.6000;0.1091;0.7986;
1110.9000;0.1091;0.7962;
1111.2000;0.1107;0.7986;
1111.5000;0.1099;0.8010;
1111.8000;0.1074;0.8057;
1112.1000;0.1091;0.8176;
1112.4000;0.1074;0.8081;
1112.7000;0.1091;0.8057;
1113.0000;0.1099;0.8128;
1113.3000;0.1091;0.8033;
1113.6000;0.1074;0.7939;
1113.9000;0.1123;0.8081;
1114.2000;0.1074;0.7891;
1114.5000;0.1083;0.7915;
1114.8000;0.1091;0.7915;
1115.1000;0.1107;0.7962;
1115.4000;0.1083;0.7962;
1115.7000;0.1091;0.8057;
1116.0000;0.1074;0.8057;
1116.3000;0.1099;0.8152;
1116.6000;0.1074;0.8128;
1116.9000;0.1034;0.7939;
1117.2000;0.1074;0.7986;
1117.5000;0.1083;0.7986;
1117.8000;0.1074;0.7939;
1118.1000;0.1034;0.7844;
1118.4000;0.1091;0.8081;
1118.7000;0.1074;0.8057;
1119.0000;0.1107;0.8057;
1119.3000;0.1107;0.8010;
1119.6000;0.1099;0.7915;
1119.9000;0.1066;0.7844;
1120.2000;0.1091;0.7962;
1120.5000;0.1107;0.8010;
1120.8000;0.1099;0.8105;
1121.1000;0.1091;0.8176;
1121.4000;0.1091;0.8223;
1121.7000;0.1074;0.8176;
1122.0000;0.1091;0.8128;
1122.3000;0.1099;0.8152;
1122.6000;0.1164;0.8342;
1122.9000;0.1099;0.8152;
1123.2000;0.1091;0.8128;
1123.5000;0.1099;0.8152;
1123.8000;0.1099;0.8105;
1124.1000;0.1091;0.8033;
1124.4000;0.1140;0.8199;
1124.7000;0.1099;0.8081;
1125.0000;0.1091;0.8033;
1125.3000;0.1083;0.8033;
1125.6000;0.1131;0.8105;
1125.9000;0.1099;0.7962;
1126.2000;0.1115;0.7986;
1126.5000;0.1074;0.7891;
1126.8000;0.1083;0.7915;
1127.1000;0.1107;0.8105;
1127.4000;0.1131;0.8128;
1127.7000;0.1091;0.7986;
1128.0000;0.1099;0.7986;
1128.3000;0.1083;0.7915;
1128.6000;0.1091;0.8010;
1128.9000;0.1083;0.8057;
1129.2000;0.1083;0.7986;
1129.5000;0.1083;0.7986;
1129.8000;0.1115;0.8033;
1130.1000;0.1083;0.7915;
1130.4000;0.1123;0.7962;
1130.7000;0.1099;0.7844;
1131.0000;0.1083;0.7844;
1131.3000;0.1083;0.7820;
1131.6000;0.1123;0.7962;
1131.9000;0.1083;0.7891;
1132.2000;0.1074;0.8010;
1132.5000;0.1083;0.7986;
1132.8000;0.1107;0.8081;
1133.1000;0.1140;0.8033;
1133.4000;0.1123;0.7962;
1133.7000;0.1107;0.8033;
1134.0000;0.1091;0.8010;
1134.3000;0.1091;0.8010;
1134.6000;0.1083;0.8010;
1134.9000;0.1091;0.8010;
1135.2000;0.1099;0.7962;
1135.5000;0.1074;0.7939;
1135.8000;0.1083;0.7939;
1136.1000;0.1042;0.7868;
1136.4000;0.1083;0.7891;
1136.7000;0.1083;0.7962;
1137.0000;0.1107;0.8010;
1137.3000;0.1107;0.7962;
1137.6000;0.1091;0.7891;
1137.9000;0.1107;0.7868;
1138.2000;0.1099;0.7891;
1138.5000;0.1083;0.7915;
1138.8000;0.1091;0.7939;
1139.1000;0.1099;0.8010;
1139.4000;0.1107;0.8081;
1139.7000;0.1115;0.8128;
1140.0000;0.1083;0.8105;
1140.3000;0.1074;0.8081;
1140.6000;0.1091;0.8176;
1140.9000;0.1083;0.8105;
1141.2000;0.1099;0.8081;
1141.5000;0.1099;0.8105;
1141.8000;0.1091;0.8176;
1142.1000;0.1026;0.8033;
1142.4000;0.1099;0.8128;
1142.7000;0.1091;0.8057;
1143.0000;0.1099;0.7986;
1143.3000;0.1099;0.8057;
1143.6000;0.1099;0.8057;
1143.9000;0.1066;0.7986;
1144.2000;0.1099;0.8033;
1144.5000;0.1058;0.7986;
1144.8000;0.1091;0.8105;
1145.1000;0.1083;0.8033;
1145.4000;0.1083;0.8010;
1145.7000;0.1058;0.7962;
1146.0000;0.1091;0.8081;
1146.3000;0.1083;0.8057;
1146.6000;0.1156;0.8294;
1146.9000;0.1083;0.8010;
1147.2000;0.1091;0.8033;
1147.5000;0.1107;0.8081;
1147.8000;0.1050;0.7939;
1148.1000;0.1083;0.7915;
1148.4000;0.1091;0.7844;
1148.7000;0.1107;0.7939;
1149.0000;0.1107;0.7986;
1149.3000;0.1083;0.7939;
1149.6000;0.1107;0.8010;
1149.9000;0.1091;0.7891;
1150.2000;0.1099;0.8010;
1150.5000;0.1107;0.7891;
1150.8000;0.1066;0.7891;
1151.1000;0.1091;0.7986;
1151.4000;0.1050;0.7962;
1151.7000;0.1083;0.8081;
1152.0000;0.1083;0.8081;
1152.3000;0.1091;0.8105;
1152.6000;0.1099;0.8128;
1152.9000;0.1091;0.8176;
1153.2000;0.1042;0.8010;
1153.5000;0.1091;0.8105;
1153.8000;0.1050;0.8081;
1154.1000;0.1083;0.8199;
1154.4000;0.1066;0.8176;
1154.7000;0.1091;0.8199;
1155.0000;0.1115;0.8223;
1155.3000;0.1083;0.8176;
1155.6000;0.1083;0.8199;
1155.9000;0.1074;0.8176;
1156.2000;0.1083;0.8176;
1156.5000;0.1099;0.8199;
1156.8000;0.1099;0.8128;
1157.1000;0.1099;0.8105;
1157.4000;0.1083;0.8081;
1157.7000;0.1091;0.8105;
1158.0000;0.1091;0.8152;
1158.3000;0.1099;0.8199;
1158.6000;0.1074;0.8223;
1158.9000;0.1099;0.8318;
1159.2000;0.1131;0.8460;
1159.5000;0.1099;0.8318;
1159.8000;0.1107;0.8270;
1160.1000;0.1099;0.8294;
1160.4000;0.1083;0.8318;
1160.7000;0.1107;0.8294;
1161.0000;0.1107;0.8223;
1161.3000;0.1107;0.8223;
1161.6000;0.1091;0.8128;
1161.9000;0.1099;0.8199;
1162.2000;0.1026;0.8010;
1162.5000;0.1091;0.8270;
1162.8000;0.1074;0.8176;
1163.1000;0.1083;0.8270;
1163.4000;0.1099;0.8247;
1163.7000;0.1083;0.8176;
1164.0000;0.1074;0.8152;
1164.3000;0.1074;0.8247;
1164.6000;0.1083;0.8152;
1164.9000;0.1074;0.8105;
1165.2000;0.1058;0.8105;
1165.5000;0.1099;0.8128;
1165.8000;0.1099;0.8152;
1166.1000;0.1083;0.8152;
1166.4000;0.1115;0.8223;
1166.7000;0.1091;0.8318;
1167.0000;0.1099;0.8318;
1167.3000;0.1091;0.8270;
1167.6000;0.1050;0.8199;
1167.9000;0.1074;0.8152;
1168.2000;0.1099;0.8247;
1168.5000;0.1091;0.8270;
1168.8000;0.1083;0.8294;
1169.1000;0.1140;0.8342;
1169.4000;0.1107;0.8247;
1169.7000;0.1058;0.8128;
1170.0000;0.1107;0.8342;
1170.3000;0.1091;0.8247;
1170.6000;0.1018;0.8033;
1170.9000;0.1115;0.8294;
1171.2000;0.1074;0.8176;
1171.5000;0.1099;0.8247;
1171.8000;0.1091;0.8223;
1172.1000;0.1091;0.8223;
1172.4000;0.1099;0.8152;
1172.7000;0.1099;0.8152;
1173.0000;0.1107;0.8223;
1173.3000;0.1099;0.8270;
1173.6000;0.1091;0.8223;
1173.9000;0.1099;0.8294;
1174.2000;0.1099;0.8294;
1174.5000;0.1099;0.8365;
1174.8000;0.1091;0.8318;
1175.1000;0.1107;0.8247;
1175.4000;0.1099;0.8176;
1175.7000;0.1091;0.8152;
1176.0000;0.1091;0.8128;
1176.3000;0.1099;0.8152;
1176.6000;0.1099;0.8105;
1176.9000;0.1099;0.8057;
1177.2000;0.1115;0.8010;
1177.5000;0.1099;0.7962;
1177.8000;0.1091;0.7986;
1178.1000;0.1083;0.8010;
1178.4000;0.1083;0.8081;
1178.7000;0.1091;0.8176;
1179.0000;0.1107;0.8152;
1179.3000;0.1091;0.8199;
1179.6000;0.1083;0.8128;
1179.9000;0.1091;0.8176;
1180.2000;0.1091;0.8294;
1180.5000;0.1099;0.8342;
1180.8000;0.1091;0.8223;
1181.1000;0.1091;0.8176;
1181.4000;0.1091;0.8199;
1181.7000;0.1107;0.8176;
1182.0000;0.1091;0.8152;
1182.3000;0.1115;0.8176;
1182.6000;0.1099;0.8176;
1182.9000;0.1083;0.8057;
1183.2000;0.1066;0.8033;
1183.5000;0.1083;0.8105;
1183.8000;0.1042;0.8128;
1184.1000;0.1099;0.8247;
1184.4000;0.1074;0.8176;
1184.7000;0.1091;0.8318;
1185.0000;0.1229;0.8555;
1185.3000;0.1091;0.8223;
1185.6000;0.1107;0.8152;
1185.9000;0.1066;0.8010;
1186.2000;0.1083;0.7962;
1186.5000;0.1115;0.8152;
1186.8000;0.1058;0.8081;
1187.1000;0.1099;0.8223;
1187.4000;0.1123;0.8342;
1187.7000;0.1131;0.8270;
1188.0000;0.1107;0.8247;
1188.3000;0.1091;0.8199;
1188.6000;0.1083;0.8247;
1188.9000;0.1091;0.8176;
1189.2000;0.1099;0.8223;
1189.5000;0.1074;0.8128;
1189.8000;0.1083;0.8081;
1190.1000;0.1066;0.8033;
1190.4000;0.1083;0.7915;
1190.7000;0.1083;0.7891;
1191.0000;0.1083;0.7891;
1191.3000;0.1099;0.7844;
1191.6000;0.1083;0.7844;
1191.9000;0.1058;0.7844;
1192.2000;0.1091;0.7891;
1192.5000;0.1091;0.7891;
1192.8000;0.1066;0.7915;
1193.1000;0.1107;0.8057;
1193.4000;0.1091;0.8010;
1193.7000;0.1123;0.8105;
1194.0000;0.1083;0.8010;
1194.3000;0.1091;0.7986;
1194.6000;0.1091;0.7986;
1194.9000;0.1156;0.8081;
1195.2000;0.1091;0.7962;
1195.5000;0.1083;0.8010;
1195.8000;0.1091;0.8057;
1196.1000;0.1115;0.8176;
1196.4000;0.1123;0.8223;
1196.7000;0.1107;0.8199;
1197.0000;0.1083;0.8176;
1197.3000;0.1091;0.8223;
1197.6000;0.1099;0.8247;
1197.9000;0.1083;0.8152;
1198.2000;0.1115;0.8223;
1198.5000;0.1058;0.8128;
1198.8000;0.1066;0.8199;
1199.1000;0.1099;0.8318;
1199.4000;0.1058;0.8318;
1199.7000;0.1140;0.8342;
1200.0000;0.1107;0.8270;
1200.3000;0.1099;0.8294;
1200.6000;0.1099;0.8389;
1200.9000;0.1099;0.8294;
1201.2000;0.1091;0.8176;
1201.5000;0.1074;0.8033;
1201.8000;0.1083;0.8057;
1202.1000;0.1107;0.8081;
1202.4000;0.1074;0.8105;
1202.7000;0.1091;0.8081;
1203.0000;0.1058;0.8033;
1203.3000;0.1099;0.8081;
1203.6000;0.1066;0.8057;
1203.9000;0.1083;0.8105;
1204.2000;0.1099;0.8081;
1204.5000;0.1131;0.8223;
1204.8000;0.1091;0.8176;
1205.1000;0.1026;0.8057;
1205.4000;0.1074;0.8199;
1205.7000;0.1091;0.8270;
1206.0000;0.1091;0.8223;
1206.3000;0.1074;0.8105;
1206.6000;0.1083;0.8105;
1206.9000;0.1083;0.8152;
1207.2000;0.1083;0.8152;
1207.5000;0.1074;0.8128;
1207.8000;0.1083;0.8199;
1208.1000;0.1107;0.8365;
1208.4000;0.1091;0.8460;
1208.7000;0.1083;0.8389;
1209.0000;0.1050;0.8270;
1209.3000;0.1115;0.8389;
1209.6000;0.1099;0.8318;
1209.9000;0.1091;0.8342;
1210.2000;0.1034;0.8152;
1210.5000;0.1091;0.8223;
1210.8000;0.1083;0.8199;
1211.1000;0.1131;0.8294;
1211.4000;0.1099;0.8294;
1211.7000;0.1091;0.8318;
1212.0000;0.1091;0.8294;
1212.3000;0.1083;0.8318;
1212.6000;0.1091;0.8294;
1212.9000;0.1091;0.8294;
1213.2000;0.1091;0.8270;
1213.5000;0.1115;0.8270;
1213.8000;0.1107;0.8247;
1214.1000;0.1115;0.8342;
1214.4000;0.1091;0.8294;
1214.7000;0.1115;0.8294;
1215.0000;0.1050;0.8223;
1215.3000;0.1083;0.8342;
1215.6000;0.1074;0.8223;
1215.9000;0.1042;0.8176;
1216.2000;0.1083;0.8318;
1216.5000;0.1107;0.8342;
1216.8000;0.1091;0.8342;
1217.1000;0.1091;0.8365;
1217.4000;0.1083;0.8270;
1217.7000;0.1107;0.8318;
1218.0000;0.1058;0.8223;
1218.3000;0.1083;0.8270;
1218.6000;0.1107;0.8247;
1218.9000;0.1074;0.8199;
1219.2000;0.1083;0.8223;
1219.5000;0.1091;0.8247;
1219.8000;0.1083;0.8342;
1220.1000;0.1074;0.8270;
1220.4000;0.1107;0.8318;
1220.7000;0.1164;0.8484;
1221.0000;0.1099;0.8318;
1221.3000;0.1083;0.8294;
1221.6000;0.1099;0.8318;
1221.9000;0.1074;0.8247;
1222.2000;0.1091;0.8342;
1222.5000;0.1083;0.8342;
1222.8000;0.1099;0.8389;
1223.1000;0.1107;0.8294;
1223.4000;0.1148;0.8389;
1223.7000;0.1172;0.8460;
1224.0000;0.1091;0.8247;
1224.3000;0.1091;0.8199;
1224.6000;0.1115;0.8247;
1224.9000;0.1091;0.8247;
1225.2000;0.1083;0.8247;
1225.5000;0.1018;0.8057;
1225.8000;0.1099;0.8270;
1226.1000;0.1115;0.8294;
1226.4000;0.1180;0.8460;
1226.7000;0.1058;0.8057;
1227.0000;0.1099;0.8152;
1227.3000;0.1107;0.8152;
1227.6000;0.1123;0.8176;
1227.9000;0.1091;0.8057;
1228.2000;0.1091;0.8057;
1228.5000;0.1091;0.8057;
1228.8000;0.1099;0.8105;
1229.1000;0.1083;0.8010;
1229.4000;0.1091;0.8010;
1229.7000;0.1083;0.7986;
1230.0000;0.1099;0.7962;
1230.3000;0.1083;0.7915;
1230.6000;0.1107;0.8010;
1230.9000;0.1099;0.8010;
1231.2000;0.1115;0.7986;
1231.5000;0.1091;0.7939;
1231.8000;0.1099;0.7986;
1232.1000;0.1099;0.8033;
1232.4000;0.1083;0.7986;
1232.7000;0.1083;0.8033;
1233.0000;0.1099;0.8105;
1233.3000;0.1083;0.7939;
1233.6000;0.1091;0.7986;
1233.9000;0.1107;0.7939;
1234.2000;0.1050;0.7915;
1234.5000;0.1099;0.8010;
1234.8000;0.1083;0.8105;
1235.1000;0.1099;0.8105;
1235.4000;0.1026;0.7891;
1235.7000;0.1107;0.8105;
1236.0000;0.1099;0.8105;
1236.3000;0.1091;0.8010;
1236.6000;0.1107;0.7986;
1236.9000;0.1099;0.8010;
1237.2000;0.1091;0.8057;
1237.5000;0.1107;0.8105;
1237.8000;0.1091;0.8152;
1238.1000;0.1107;0.8128;
1238.4000;0.1107;0.8081;
1238.7000;0.1115;0.8128;
1239.0000;0.1083;0.7962;
1239.3000;0.1083;0.7962;
1239.6000;0.1083;0.8081;
1239.9000;0.1091;0.8152;
1240.2000;0.1034;0.8105;
1240.5000;0.1091;0.8342;
1240.8000;0.1099;0.8270;
1241.1000;0.1099;0.8247;
1241.4000;0.1099;0.8270;
1241.7000;0.1099;0.8223;
1242.0000;0.1091;0.8247;
1242.3000;0.1091;0.8223;
1242.6000;0.1099;0.8223;
1242.9000;0.1074;0.8199;
1243.2000;0.1099;0.8105;
1243.5000;0.1123;0.8176;
1243.8000;0.1099;0.8152;
1244.1000;0.1083;0.8081;
1244.4000;0.1066;0.7986;
1244.7000;0.1099;0.8152;
1245.0000;0.1099;0.8105;
1245.3000;0.1083;0.8105;
1245.6000;0.1074;0.8081;
1245.9000;0.1083;0.8128;
1246.2000;0.1083;0.8128;
1246.5000;0.1083;0.8105;
1246.8000;0.1115;0.8199;
1247.1000;0.1074;0.8176;
1247.4000;0.1140;0.8294;
1247.7000;0.1099;0.8223;
1248.0000;0.1099;0.8199;
1248.3000;0.1091;0.8199;
1248.6000;0.1156;0.8365;
1248.9000;0.1156;0.8389;
1249.2000;0.1083;0.8199;
1249.5000;0.1074;0.8128;
1249.8000;0.1107;0.8128;
1250.1000;0.1083;0.8152;
1250.4000;0.1074;0.8033;
1250.7000;0.1058;0.8010;
1251.0000;0.1148;0.8270;
1251.3000;0.1083;0.8081;
1251.6000;0.1091;0.8081;
1251.9000;0.1074;0.8033;
1252.2000;0.1083;0.8152;
1252.5000;0.1091;0.8199;
1252.8000;0.1058;0.8010;
1253.1000;0.1083;0.8128;
1253.4000;0.1091;0.8128;
1253.7000;0.1083;0.8128;
1254.0000;0.1107;0.8176;
1254.3000;0.1058;0.8176;
1254.6000;0.1091;0.8270;
1254.9000;0.1074;0.8270;
1255.2000;0.1083;0.8413;
1255.5000;0.1099;0.8342;
1255.8000;0.1099;0.8342;
1256.1000;0.1083;0.8247;
1256.4000;0.1091;0.8270;
1256.7000;0.1099;0.8247;
1257.0000;0.1050;0.8105;
1257.3000;0.1083;0.8152;
1257.6000;0.1091;0.8152;
1257.9000;0.1074;0.8223;
1258.2000;0.1164;0.8365;
1258.5000;0.1074;0.8176;
1258.8000;0.1083;0.8152;
1259.1000;0.1091;0.8176;
1259.4000;0.1074;0.8176;
1259.7000;0.1091;0.8270;
1260.0000;0.1074;0.8270;
1260.3000;0.1074;0.8199;
1260.6000;0.1074;0.8176;
1260.9000;0.1083;0.8128;
1261.2000;0.1083;0.8199;
1261.5000;0.1107;0.8270;
1261.8000;0.1042;0.8081;
1262.1000;0.1123;0.8270;
1262.4000;0.1074;0.8199;
1262.7000;0.1091;0.8199;
1263.0000;0.1083;0.8247;
1263.3000;0.1074;0.8223;
1263.6000;0.1091;0.8247;
1263.9000;0.1091;0.8199;
1264.2000;0.1172;0.8342;
1264.5000;0.1099;0.8105;
1264.8000;0.1091;0.7986;
1265.1000;0.1091;0.7915;
1265.4000;0.1074;0.7868;
1265.7000;0.1123;0.8010;
1266.0000;0.1091;0.7939;
1266.3000;0.1074;0.7915;
1266.6000;0.1091;0.7868;
1266.9000;0.1140;0.8033;
1267.2000;0.1091;0.7915;
1267.5000;0.1123;0.8081;
1267.8000;0.1091;0.8010;
1268.1000;0.1083;0.8010;
1268.4000;0.1083;0.8010;
1268.7000;0.1099;0.7962;
1269.0000;0.1066;0.7891;
1269.3000;0.1074;0.7962;
1269.6000;0.1083;0.8033;
1269.9000;0.1074;0.7962;
1270.2000;0.1083;0.8033;
1270.5000;0.1107;0.8081;
1270.8000;0.1140;0.8105;
1271.1000;0.1099;0.8010;
1271.4000;0.1099;0.8128;
1271.7000;0.1091;0.8105;
1272.0000;0.1099;0.8176;
1272.3000;0.1107;0.8128;
1272.6000;0.1091;0.8105;
1272.9000;0.1123;0.8223;
1273.2000;0.1091;0.8152;
1273.5000;0.1091;0.8152;
1273.8000;0.1083;0.8128;
1274.1000;0.1091;0.8057;
1274.4000;0.1083;0.8081;
1274.7000;0.1099;0.8152;
1275.0000;0.1099;0.8105;
1275.3000;0.1083;0.8128;
1275.6000;0.1091;0.8199;
1275.9000;0.1115;0.8223;
1276.2000;0.1091;0.8128;
1276.5000;0.1107;0.8199;
1276.8000;0.1083;0.8152;
1277.1000;0.1091;0.8176;
1277.4000;0.1083;0.8105;
1277.7000;0.1091;0.8105;
1278.0000;0.1091;0.8128;
1278.3000;0.1099;0.8176;
1278.6000;0.1099;0.8223;
1278.9000;0.1107;0.8176;
1279.2000;0.1091;0.8152;
1279.5000;0.1083;0.8128;
1279.8000;0.1099;0.8152;
1280.1000;0.1099;0.8152;
1280.4000;0.1091;0.8057;
1280.7000;0.1083;0.8081;
1281.0000;0.1091;0.8152;
1281.3000;0.1107;0.8247;
1281.6000;0.1091;0.8176;
1281.9000;0.1091;0.8057;
1282.2000;0.1148;0.8247;
1282.5000;0.1107;0.8152;
1282.8000;0.1099;0.8152;
1283.1000;0.1083;0.8128;
1283.4000;0.1091;0.8199;
1283.7000;0.1083;0.8270;
1284.0000;0.1091;0.8294;
1284.3000;0.1091;0.8294;
1284.6000;0.1074;0.8294;
1284.9000;0.1099;0.8342;
1285.2000;0.1099;0.8365;
1285.5000;0.1099;0.8247;
1285.8000;0.1074;0.8199;
1286.1000;0.1099;0.8294;
1286.4000;0.1107;0.8365;
1286.7000;0.1131;0.8413;
1287.0000;0.1091;0.8318;
1287.3000;0.1099;0.8318;
1287.6000;0.1115;0.8270;
1287.9000;0.1099;0.8247;
1288.2000;0.1074;0.8199;
1288.5000;0.1091;0.8223;
1288.8000;0.1099;0.8176;
1289.1000;0.1074;0.8152;
1289.4000;0.1091;0.8128;
1289.7000;0.1148;0.8223;
1290.0000;0.1099;0.8128;
1290.3000;0.1099;0.8199;
1290.6000;0.1099;0.8176;
1290.9000;0.1083;0.8176;
1291.2000;0.1099;0.8152;
1291.5000;0.1091;0.8199;
1291.8000;0.1091;0.8105;
1292.1000;0.1083;0.8105;
1292.4000;0.1099;0.8152;
1292.7000;0.1115;0.8270;
1293.0000;0.1083;0.8270;
1293.3000;0.1074;0.8176;
1293.6000;0.1058;0.8010;
1293.9000;0.1091;0.8152;
1294.2000;0.1074;0.8152;
1294.5000;0.1091;0.8152;
1294.8000;0.1140;0.8342;
1295.1000;0.1083;0.8176;
1295.4000;0.1091;0.8199;
1295.7000;0.1074;0.8152;
1296.0000;0.1066;0.8152;
1296.3000;0.1091;0.8176;
1296.6000;0.1140;0.8223;
1296.9000;0.1107;0.8105;
1297.2000;0.1042;0.7939;
1297.5000;0.1083;0.8105;
1297.8000;0.1083;0.8057;
1298.1000;0.1131;0.8152;
1298.4000;0.1083;0.8033;
1298.7000;0.1099;0.8057;
1299.0000;0.1140;0.8105;
1299.3000;0.1107;0.8105;
1299.6000;0.1091;0.8128;
1299.9000;0.1148;0.8294;
1300.2000;0.1099;0.8223;
1300.5000;0.1099;0.8199;
1300.8000;0.1083;0.8128;
1301.1000;0.1107;0.8247;
1301.4000;0.1083;0.8152;
1301.7000;0.1115;0.8199;
1302.0000;0.1099;0.8105;
1302.3000;0.1148;0.8199;
1302.6000;0.1091;0.8010;
1302.9000;0.1091;0.7986;
1303.2000;0.1115;0.8152;
1303.5000;0.1091;0.8128;
1303.8000;0.1091;0.8128;
1304.1000;0.1083;0.8105;
1304.4000;0.1091;0.8199;
1304.7000;0.1131;0.8223;
1305.0000;0.1083;0.8199;
1305.3000;0.1074;0.8199;
1305.6000;0.1091;0.8270;
1305.9000;0.1091;0.8318;
1306.2000;0.1050;0.8223;
1306.5000;0.1083;0.8342;
1306.8000;0.1026;0.8176;
1307.1000;0.1107;0.8413;
1307.4000;0.1091;0.8389;
1307.7000;0.1074;0.8318;
1308.0000;0.1091;0.8342;
1308.3000;0.1050;0.8223;
1308.6000;0.1083;0.8270;
1308.9000;0.1099;0.8294;
1309.2000;0.1099;0.8247;
1309.5000;0.1091;0.8294;
1309.8000;0.1091;0.8128;
1310.1000;0.1091;0.8152;
1310.4000;0.1083;0.8199;
1310.7000;0.1091;0.8294;
1311.0000;0.1091;0.8294;
1311.3000;0.1074;0.8294;
1311.6000;0.1099;0.8365;
1311.9000;0.1156;0.8531;
1312.2000;0.1091;0.8365;
1312.5000;0.1115;0.8389;
1312.8000;0.1083;0.8270;
1313.1000;0.1074;0.8057;
1313.4000;0.1099;0.7986;
1313.7000;0.1115;0.8057;
1314.0000;0.1123;0.8152;
1314.3000;0.1107;0.8152;
1314.6000;0.1091;0.8128;
1314.9000;0.1115;0.8199;
1315.2000;0.1091;0.8105;
1315.5000;0.1091;0.8081;
1315.8000;0.1091;0.8128;
1316.1000;0.1091;0.8033;
1316.4000;0.1066;0.8010;
1316.7000;0.1091;0.8105;
1317.0000;0.1115;0.8128;
1317.3000;0.1026;0.7915;
1317.6000;0.0993;0.7844;
1317.9000;0.1115;0.8247;
1318.2000;0.1091;0.8223;
1318.5000;0.1066;0.8223;
1318.8000;0.1083;0.8176;
1319.1000;0.1083;0.8152;
1319.4000;0.1074;0.8176;
1319.7000;0.1091;0.8247;
1320.0000;0.1091;0.8176;
1320.3000;0.1074;0.8199;
1320.6000;0.1131;0.8270;
1320.9000;0.1066;0.8199;
1321.2000;0.1099;0.8342;
1321.5000;0.1099;0.8318;
1321.8000;0.1074;0.8247;
1322.1000;0.1083;0.8223;
1322.4000;0.1091;0.8247;
1322.7000;0.1074;0.8199;
1323.0000;0.1091;0.8081;
1323.3000;0.1083;0.8152;
1323.6000;0.1066;0.8152;
1323.9000;0.1123;0.8223;
1324.2000;0.1123;0.8223;
1324.5000;0.1091;0.8176;
1324.8000;0.1074;0.8176;
1325.1000;0.1074;0.8128;
1325.4000;0.1083;0.8176;
1325.7000;0.1107;0.8176;
1326.0000;0.1115;0.8199;
1326.3000;0.1091;0.8247;
1326.6000;0.1107;0.8176;
1326.9000;0.1156;0.8247;
1327.2000;0.1115;0.8128;
1327.5000;0.1099;0.8057;
1327.8000;0.1107;0.8010;
1328.1000;0.1091;0.7986;
1328.4000;0.1083;0.7962;
1328.7000;0.1107;0.7986;
1329.0000;0.1091;0.8057;
1329.3000;0.1091;0.8081;
1329.6000;0.1066;0.8057;
1329.9000;0.1058;0.8105;
1330.2000;0.1091;0.8247;
1330.5000;0.1099;0.8270;
1330.8000;0.1083;0.8270;
1331.1000;0.1074;0.8247;
1331.4000;0.1099;0.8365;
1331.7000;0.1107;0.8389;
1332.0000;0.1083;0.8365;
1332.3000;0.1074;0.8413;
1332.6000;0.1099;0.8389;
1332.9000;0.1083;0.8342;
1333.2000;0.1091;0.8342;
1333.5000;0.1091;0.8365;
1333.8000;0.1074;0.8365;
1334.1000;0.1083;0.8460;
1334.4000;0.1083;0.8531;
1334.7000;0.1091;0.8413;
1335.0000;0.1050;0.8342;
1335.3000;0.1107;0.8460;
1335.6000;0.1083;0.8413;
1335.9000;0.1115;0.8460;
1336.2000;0.0952;0.8010;
1336.5000;0.1091;0.8389;
1336.8000;0.1099;0.8365;
1337.1000;0.1091;0.8342;
1337.4000;0.1074;0.8342;
1337.7000;0.1083;0.8365;
1338.0000;0.1107;0.8389;
1338.3000;0.1123;0.8413;
1338.6000;0.1083;0.8389;
1338.9000;0.1083;0.8389;
1339.2000;0.1083;0.8342;
1339.5000;0.1026;0.8247;
1339.8000;0.1058;0.8270;
1340.1000;0.1050;0.8247;
1340.4000;0.1099;0.8342;
1340.7000;0.1099;0.8342;
1341.0000;0.1123;0.8413;
1341.3000;0.1091;0.8365;
1341.6000;0.1156;0.8531;
1341.9000;0.1115;0.8365;
1342.2000;0.1107;0.8413;
1342.5000;0.1115;0.8507;
1342.8000;0.1091;0.8365;
1343.1000;0.1066;0.8270;
1343.4000;0.1066;0.8294;
1343.7000;0.1074;0.8342;
1344.0000;0.1042;0.8270;
1344.3000;0.1083;0.8413;
1344.6000;0.1083;0.8389;
1344.9000;0.1083;0.8413;
1345.2000;0.1074;0.8436;
1345.5000;0.1074;0.8389;
1345.8000;0.1099;0.8389;
1346.1000;0.1091;0.8365;
1346.4000;0.1099;0.8365;
1346.7000;0.1091;0.8247;
1347.0000;0.1091;0.8247;
1347.3000;0.1099;0.8176;
1347.6000;0.1099;0.8199;
1347.9000;0.1091;0.8223;
1348.2000;0.1099;0.8247;
1348.5000;0.1099;0.8223;
1348.8000;0.1083;0.8199;
1349.1000;0.1066;0.8199;
1349.4000;0.1074;0.8223;
1349.7000;0.1091;0.8199;
1350.0000;0.1091;0.8270;
1350.3000;0.1083;0.8294;
1350.6000;0.1074;0.8342;
1350.9000;0.1091;0.8342;
1351.2000;0.1074;0.8342;
1351.5000;0.1074;0.8413;
1351.8000;0.1083;0.8365;
1352.1000;0.1091;0.8318;
1352.4000;0.1123;0.8365;
1352.7000;0.1091;0.8270;
1353.0000;0.1099;0.8223;
1353.3000;0.1091;0.8199;
1353.6000;0.1058;0.8105;
1353.9000;0.1074;0.8081;
1354.2000;0.1091;0.8057;
1354.5000;0.1091;0.8081;
1354.8000;0.1107;0.8223;
1355.1000;0.1083;0.8176;
1355.4000;0.1074;0.8176;
1355.7000;0.1058;0.8223;
1356.0000;0.1131;0.8294;
1356.3000;0.1115;0.8270;
1356.6000;0.1107;0.8318;
1356.9000;0.1091;0.8247;
1357.2000;0.1066;0.8223;
1357.5000;0.1107;0.8247;
1357.8000;0.1107;0.8223;
1358.1000;0.1083;0.8223;
1358.4000;0.1066;0.8270;
1358.7000;0.1083;0.8413;
1359.0000;0.1066;0.8413;
1359.3000;0.1083;0.8389;
1359.6000;0.1050;0.8199;
1359.9000;0.1083;0.8199;
1360.2000;0.1107;0.8176;
1360.5000;0.1172;0.8413;
1360.8000;0.1074;0.8199;
1361.1000;0.1107;0.8223;
1361.4000;0.1131;0.8247;
1361.7000;0.1099;0.8199;
1362.0000;0.1091;0.8247;
1362.3000;0.1107;0.8318;
1362.6000;0.1083;0.8318;
1362.9000;0.1083;0.8318;
1363.2000;0.1091;0.8294;
1363.5000;0.1083;0.8176;
1363.8000;0.1099;0.8128;
1364.1000;0.1099;0.8176;
1364.4000;0.1099;0.8223;
1364.7000;0.1074;0.8105;
1365.0000;0.1091;0.8081;
1365.3000;0.1172;0.8199;
1365.6000;0.1066;0.7939;
1365.9000;0.1074;0.8010;
1366.2000;0.1074;0.8105;
1366.5000;0.1107;0.8247;
1366.8000;0.1091;0.8270;
1367.1000;0.1074;0.8128;
1367.4000;0.1074;0.8176;
1367.7000;0.1074;0.8176;
1368.0000;0.1107;0.8223;
1368.3000;0.1083;0.8199;
1368.6000;0.1091;0.8223;
1368.9000;0.1083;0.8105;
1369.2000;0.1099;0.8176;
1369.5000;0.1091;0.8199;
1369.8000;0.1091;0.8223;
1370.1000;0.1091;0.8247;
1370.4000;0.1107;0.8342;
1370.7000;0.1099;0.8223;
1371.0000;0.1091;0.8199;
1371.3000;0.1083;0.8223;
1371.6000;0.1091;0.8223;
1371.9000;0.1074;0.8223;
1372.2000;0.1066;0.8199;
1372.5000;0.1066;0.8152;
1372.8000;0.1074;0.8199;
1373.1000;0.1091;0.8247;
1373.4000;0.1156;0.8484;
1373.7000;0.1066;0.8223;
1374.0000;0.1083;0.8247;
1374.3000;0.1083;0.8294;
1374.6000;0.1099;0.8294;
1374.9000;0.1083;0.8223;
1375.2000;0.1091;0.8270;
1375.5000;0.1115;0.8365;
1375.8000;0.1099;0.8294;
1376.1000;0.1099;0.8342;
1376.4000;0.1091;0.8342;
1376.7000;0.1091;0.8318;
1377.0000;0.1091;0.8270;
1377.3000;0.1083;0.8365;
1377.6000;0.1091;0.8365;
1377.9000;0.1099;0.8436;
1378.2000;0.1099;0.8413;
1378.5000;0.1099;0.8365;
1378.8000;0.1083;0.8365;
1379.1000;0.1123;0.8507;
1379.4000;0.1107;0.8484;
1379.7000;0.1115;0.8413;
1380.0000;0.1058;0.8270;
1380.3000;0.1091;0.8318;
1380.6000;0.1091;0.8294;
1380.9000;0.1107;0.8342;
1381.2000;0.1042;0.8152;
1381.5000;0.1058;0.8199;
1381.8000;0.1091;0.8294;
1382.1000;0.1099;0.8294;
1382.4000;0.1099;0.8294;
1382.7000;0.1099;0.8270;
1383.0000;0.1091;0.8342;
1383.3000;0.1083;0.8247;
1383.6000;0.1131;0.8342;
1383.9000;0.1083;0.8199;
1384.2000;0.1083;0.8270;
1384.5000;0.1099;0.8294;
1384.8000;0.1107;0.8318;
1385.1000;0.1091;0.8365;
1385.4000;0.1091;0.8318;
1385.7000;0.1099;0.8342;
1386.0000;0.1115;0.8318;
1386.3000;0.1091;0.8318;
1386.6000;0.1091;0.8342;
1386.9000;0.1099;0.8436;
1387.2000;0.1115;0.8460;
1387.5000;0.1099;0.8436;
1387.8000;0.1099;0.8342;
1388.1000;0.1083;0.8270;
1388.4000;0.1083;0.8294;
1388.7000;0.1140;0.8413;
1389.0000;0.1091;0.8270;
1389.3000;0.1074;0.8247;
1389.6000;0.1074;0.8270;
1389.9000;0.1083;0.8247;
1390.2000;0.1091;0.8247;
1390.5000;0.1091;0.8342;
1390.8000;0.1091;0.8389;
1391.1000;0.1099;0.8389;
1391.4000;0.1099;0.8436;
1391.7000;0.1131;0.8460;
1392.0000;0.1083;0.8294;
1392.3000;0.1123;0.8365;
1392.6000;0.1131;0.8389;
1392.9000;0.1148;0.8365;
1393.2000;0.1099;0.8176;
1393.5000;0.1074;0.8199;
1393.8000;0.1091;0.8176;
1394.1000;0.1099;0.8152;
1394.4000;0.1091;0.8176;
1394.7000;0.1091;0.8247;
1395.0000;0.1091;0.8342;
1395.3000;0.1091;0.8413;
1395.6000;0.1074;0.8507;
1395.9000;0.1074;0.8460;
1396.2000;0.1091;0.8484;
1396.5000;0.1099;0.8602;
1396.8000;0.1083;0.8484;
1397.1000;0.1050;0.8413;
1397.4000;0.1083;0.8460;
1397.7000;0.1091;0.8436;
1398.0000;0.1074;0.8389;
1398.3000;0.1099;0.8413;
1398.6000;0.1091;0.8436;
1398.9000;0.1083;0.8436;
1399.2000;0.1099;0.8436;
1399.5000;0.1107;0.8436;
1399.8000;0.1083;0.8389;
