time/ms;Fluo/V;P700 deltaI/I x10³;
-199.8000;0.1481;0.8768;
-199.5000;0.1498;0.8792;
-199.2000;0.1481;0.8697;
-198.9000;0.1490;0.8673;
-198.6000;0.1498;0.8744;
-198.3000;0.1473;0.8697;
-198.0000;0.1498;0.8768;
-197.7000;0.1481;0.8768;
-197.4000;0.1457;0.8792;
-197.1000;0.1490;0.8887;
-196.8000;0.1490;0.8887;
-196.5000;0.1498;0.8934;
-196.2000;0.1481;0.8910;
-195.9000;0.1481;0.8981;
-195.6000;0.1473;0.8934;
-195.3000;0.1465;0.8910;
-195.0000;0.1498;0.8887;
-194.7000;0.1473;0.8839;
-194.4000;0.1465;0.8863;
-194.1000;0.1481;0.8839;
-193.8000;0.1481;0.8910;
-193.5000;0.1498;0.8981;
-193.2000;0.1498;0.9052;
-192.9000;0.1481;0.8934;
-192.6000;0.1481;0.8934;
-192.3000;0.1490;0.8934;
-192.0000;0.1481;0.8934;
-191.7000;0.1481;0.8934;
-191.4000;0.1555;0.9100;
-191.1000;0.1490;0.9005;
-190.8000;0.1481;0.8981;
-190.5000;0.1490;0.8958;
-190.2000;0.1473;0.8934;
-189.9000;0.1490;0.8910;
-189.6000;0.1473;0.8839;
-189.3000;0.1473;0.8981;
-189.0000;0.1481;0.9029;
-188.7000;0.1490;0.9005;
-188.4000;0.1465;0.8934;
-188.1000;0.1481;0.9005;
-187.8000;0.1481;0.9029;
-187.5000;0.1481;0.8981;
-187.2000;0.1473;0.9005;
-186.9000;0.1506;0.9029;
-186.6000;0.1506;0.8958;
-186.3000;0.1490;0.8958;
-186.0000;0.1490;0.8958;
-185.7000;0.1465;0.8981;
-185.4000;0.1538;0.9171;
-185.1000;0.1481;0.9124;
-184.8000;0.1490;0.9029;
-184.5000;0.1481;0.8981;
-184.2000;0.1498;0.9029;
-183.9000;0.1498;0.8958;
-183.6000;0.1490;0.8887;
-183.3000;0.1457;0.8839;
-183.0000;0.1473;0.8910;
-182.7000;0.1506;0.9005;
-182.4000;0.1506;0.8981;
-182.1000;0.1473;0.9005;
-181.8000;0.1457;0.9005;
-181.5000;0.1457;0.8981;
-181.2000;0.1481;0.9029;
-180.9000;0.1481;0.9029;
-180.6000;0.1465;0.8934;
-180.3000;0.1538;0.9171;
-180.0000;0.1481;0.8934;
-179.7000;0.1498;0.8958;
-179.4000;0.1498;0.8934;
-179.1000;0.1449;0.8815;
-178.8000;0.1498;0.8910;
-178.5000;0.1449;0.8721;
-178.2000;0.1498;0.8934;
-177.9000;0.1481;0.8910;
-177.6000;0.1465;0.8839;
-177.3000;0.1498;0.8934;
-177.0000;0.1465;0.8863;
-176.7000;0.1433;0.8839;
-176.4000;0.1481;0.8910;
-176.1000;0.1490;0.8934;
-175.8000;0.1473;0.8863;
-175.5000;0.1449;0.8744;
-175.2000;0.1481;0.8792;
-174.9000;0.1481;0.8768;
-174.6000;0.1473;0.8744;
-174.3000;0.1490;0.8768;
-174.0000;0.1530;0.8934;
-173.7000;0.1490;0.8792;
-173.4000;0.1538;0.8887;
-173.1000;0.1433;0.8650;
-172.8000;0.1473;0.8863;
-172.5000;0.1425;0.8697;
-172.2000;0.1490;0.8792;
-171.9000;0.1481;0.8744;
-171.6000;0.1473;0.8792;
-171.3000;0.1506;0.8839;
-171.0000;0.1498;0.8792;
-170.7000;0.1490;0.8815;
-170.4000;0.1400;0.8673;
-170.1000;0.1481;0.8910;
-169.8000;0.1506;0.8863;
-169.5000;0.1473;0.8887;
-169.2000;0.1506;0.8958;
-168.9000;0.1490;0.8934;
-168.6000;0.1490;0.8863;
-168.3000;0.1481;0.8863;
-168.0000;0.1481;0.8768;
-167.7000;0.1481;0.8697;
-167.4000;0.1400;0.8602;
-167.1000;0.1490;0.8839;
-166.8000;0.1506;0.8910;
-166.5000;0.1481;0.8910;
-166.2000;0.1490;0.8981;
-165.9000;0.1498;0.9124;
-165.6000;0.1473;0.9124;
-165.3000;0.1457;0.9171;
-165.0000;0.1514;0.9218;
-164.7000;0.1481;0.9171;
-164.4000;0.1473;0.9124;
-164.1000;0.1481;0.9218;
-163.8000;0.1465;0.9124;
-163.5000;0.1490;0.9100;
-163.2000;0.1490;0.9076;
-162.9000;0.1506;0.9052;
-162.6000;0.1473;0.9029;
-162.3000;0.1481;0.9100;
-162.0000;0.1490;0.9124;
-161.7000;0.1490;0.9147;
-161.4000;0.1457;0.9100;
-161.1000;0.1481;0.9171;
-160.8000;0.1481;0.9195;
-160.5000;0.1481;0.9171;
-160.2000;0.1473;0.9171;
-159.9000;0.1473;0.9147;
-159.6000;0.1490;0.9147;
-159.3000;0.1506;0.9171;
-159.0000;0.1490;0.9171;
-158.7000;0.1490;0.9195;
-158.4000;0.1465;0.9076;
-158.1000;0.1498;0.9124;
-157.8000;0.1490;0.9100;
-157.5000;0.1473;0.9124;
-157.2000;0.1473;0.9029;
-156.9000;0.1498;0.9052;
-156.6000;0.1433;0.8934;
-156.3000;0.1481;0.9029;
-156.0000;0.1481;0.9029;
-155.7000;0.1465;0.9052;
-155.4000;0.1473;0.9076;
-155.1000;0.1490;0.9029;
-154.8000;0.1490;0.9029;
-154.5000;0.1481;0.8981;
-154.2000;0.1481;0.9005;
-153.9000;0.1465;0.9005;
-153.6000;0.1490;0.9076;
-153.3000;0.1481;0.9124;
-153.0000;0.1490;0.9124;
-152.7000;0.1506;0.9147;
-152.4000;0.1498;0.9147;
-152.1000;0.1490;0.9100;
-151.8000;0.1481;0.9147;
-151.5000;0.1481;0.9195;
-151.2000;0.1514;0.9266;
-150.9000;0.1465;0.9100;
-150.6000;0.1433;0.8958;
-150.3000;0.1490;0.9100;
-150.0000;0.1457;0.9052;
-149.7000;0.1481;0.9147;
-149.4000;0.1490;0.9124;
-149.1000;0.1506;0.9076;
-148.8000;0.1498;0.9100;
-148.5000;0.1481;0.9147;
-148.2000;0.1473;0.9076;
-147.9000;0.1481;0.8981;
-147.6000;0.1506;0.9100;
-147.3000;0.1506;0.9147;
-147.0000;0.1433;0.8910;
-146.7000;0.1457;0.9076;
-146.4000;0.1490;0.9171;
-146.1000;0.1490;0.9218;
-145.8000;0.1563;0.9432;
-145.5000;0.1481;0.9218;
-145.2000;0.1490;0.9266;
-144.9000;0.1555;0.9408;
-144.6000;0.1481;0.9242;
-144.3000;0.1473;0.9218;
-144.0000;0.1481;0.9147;
-143.7000;0.1400;0.8910;
-143.4000;0.1498;0.9100;
-143.1000;0.1490;0.8981;
-142.8000;0.1481;0.8958;
-142.5000;0.1490;0.9052;
-142.2000;0.1481;0.9005;
-141.9000;0.1473;0.8910;
-141.6000;0.1498;0.9005;
-141.3000;0.1441;0.8863;
-141.0000;0.1481;0.9005;
-140.7000;0.1490;0.8934;
-140.4000;0.1506;0.8934;
-140.1000;0.1498;0.8910;
-139.8000;0.1473;0.8863;
-139.5000;0.1498;0.8981;
-139.2000;0.1506;0.9147;
-138.9000;0.1498;0.9052;
-138.6000;0.1490;0.9005;
-138.3000;0.1498;0.9005;
-138.0000;0.1490;0.9076;
-137.7000;0.1490;0.9124;
-137.4000;0.1490;0.9076;
-137.1000;0.1490;0.9029;
-136.8000;0.1490;0.9124;
-136.5000;0.1473;0.9218;
-136.2000;0.1481;0.9218;
-135.9000;0.1465;0.9100;
-135.6000;0.1490;0.9124;
-135.3000;0.1465;0.9029;
-135.0000;0.1449;0.9005;
-134.7000;0.1449;0.9052;
-134.4000;0.1498;0.9147;
-134.1000;0.1522;0.9266;
-133.8000;0.1473;0.9171;
-133.5000;0.1506;0.9171;
-133.2000;0.1481;0.9052;
-132.9000;0.1490;0.8981;
-132.6000;0.1473;0.8863;
-132.3000;0.1481;0.8887;
-132.0000;0.1473;0.8910;
-131.7000;0.1498;0.9005;
-131.4000;0.1490;0.9052;
-131.1000;0.1465;0.9029;
-130.8000;0.1473;0.9052;
-130.5000;0.1465;0.9076;
-130.2000;0.1473;0.9076;
-129.9000;0.1465;0.9147;
-129.6000;0.1530;0.9242;
-129.3000;0.1481;0.9076;
-129.0000;0.1449;0.8887;
-128.7000;0.1522;0.9052;
-128.4000;0.1465;0.8981;
-128.1000;0.1481;0.8958;
-127.8000;0.1473;0.8958;
-127.5000;0.1433;0.8839;
-127.2000;0.1473;0.8958;
-126.9000;0.1481;0.8981;
-126.6000;0.1522;0.9029;
-126.3000;0.1465;0.8815;
-126.0000;0.1530;0.8981;
-125.7000;0.1490;0.8958;
-125.4000;0.1522;0.8981;
-125.1000;0.1522;0.9029;
-124.8000;0.1473;0.8887;
-124.5000;0.1481;0.8958;
-124.2000;0.1490;0.9005;
-123.9000;0.1481;0.9029;
-123.6000;0.1481;0.9076;
-123.3000;0.1490;0.9076;
-123.0000;0.1473;0.9029;
-122.7000;0.1481;0.9005;
-122.4000;0.1473;0.8958;
-122.1000;0.1490;0.8934;
-121.8000;0.1481;0.8958;
-121.5000;0.1425;0.8768;
-121.2000;0.1473;0.8981;
-120.9000;0.1481;0.9005;
-120.6000;0.1457;0.8910;
-120.3000;0.1514;0.9052;
-120.0000;0.1490;0.9029;
-119.7000;0.1514;0.9052;
-119.4000;0.1465;0.8910;
-119.1000;0.1473;0.8910;
-118.8000;0.1457;0.8815;
-118.5000;0.1538;0.9005;
-118.2000;0.1481;0.8958;
-117.9000;0.1473;0.9029;
-117.6000;0.1473;0.9052;
-117.3000;0.1481;0.9076;
-117.0000;0.1465;0.8981;
-116.7000;0.1481;0.8981;
-116.4000;0.1522;0.9076;
-116.1000;0.1481;0.8981;
-115.8000;0.1490;0.8981;
-115.5000;0.1473;0.8934;
-115.2000;0.1522;0.8910;
-114.9000;0.1481;0.8744;
-114.6000;0.1490;0.8768;
-114.3000;0.1473;0.8721;
-114.0000;0.1490;0.8863;
-113.7000;0.1490;0.8887;
-113.4000;0.1481;0.8863;
-113.1000;0.1465;0.8887;
-112.8000;0.1481;0.8910;
-112.5000;0.1490;0.8934;
-112.2000;0.1457;0.8910;
-111.9000;0.1473;0.8934;
-111.6000;0.1465;0.8887;
-111.3000;0.1481;0.8863;
-111.0000;0.1481;0.8768;
-110.7000;0.1457;0.8697;
-110.4000;0.1473;0.8744;
-110.1000;0.1465;0.8744;
-109.8000;0.1506;0.8839;
-109.5000;0.1481;0.8887;
-109.2000;0.1481;0.8863;
-108.9000;0.1481;0.8839;
-108.6000;0.1457;0.8721;
-108.3000;0.1473;0.8697;
-108.0000;0.1514;0.8863;
-107.7000;0.1506;0.8887;
-107.4000;0.1473;0.8839;
-107.1000;0.1465;0.8839;
-106.8000;0.1473;0.8815;
-106.5000;0.1490;0.8839;
-106.2000;0.1368;0.8531;
-105.9000;0.1449;0.8650;
-105.6000;0.1465;0.8673;
-105.3000;0.1473;0.8602;
-105.0000;0.1481;0.8673;
-104.7000;0.1490;0.8697;
-104.4000;0.1490;0.8744;
-104.1000;0.1473;0.8697;
-103.8000;0.1522;0.8768;
-103.5000;0.1490;0.8744;
-103.2000;0.1465;0.8673;
-102.9000;0.1465;0.8579;
-102.6000;0.1490;0.8673;
-102.3000;0.1473;0.8626;
-102.0000;0.1522;0.8768;
-101.7000;0.1441;0.8626;
-101.4000;0.1490;0.8792;
-101.1000;0.1481;0.8887;
-100.8000;0.1481;0.8839;
-100.5000;0.1465;0.8768;
-100.2000;0.1481;0.8744;
-99.9000;0.1473;0.8697;
-99.6000;0.1490;0.8815;
-99.3000;0.1506;0.8863;
-99.0000;0.1555;0.9029;
-98.7000;0.1481;0.8934;
-98.4000;0.1579;0.9100;
-98.1000;0.1481;0.8792;
-97.8000;0.1481;0.8721;
-97.5000;0.1506;0.8815;
-97.2000;0.1481;0.8768;
-96.9000;0.1473;0.8721;
-96.6000;0.1514;0.8792;
-96.3000;0.1473;0.8744;
-96.0000;0.1473;0.8721;
-95.7000;0.1481;0.8744;
-95.4000;0.1481;0.8721;
-95.1000;0.1457;0.8673;
-94.8000;0.1490;0.8815;
-94.5000;0.1473;0.8768;
-94.2000;0.1498;0.8792;
-93.9000;0.1506;0.8839;
-93.6000;0.1473;0.8792;
-93.3000;0.1514;0.8887;
-93.0000;0.1481;0.8863;
-92.7000;0.1481;0.8815;
-92.4000;0.1498;0.8815;
-92.1000;0.1498;0.8863;
-91.8000;0.1481;0.8863;
-91.5000;0.1498;0.8934;
-91.2000;0.1498;0.8934;
-90.9000;0.1490;0.8934;
-90.6000;0.1490;0.8958;
-90.3000;0.1490;0.8863;
-90.0000;0.1481;0.8768;
-89.7000;0.1473;0.8839;
-89.4000;0.1506;0.8934;
-89.1000;0.1465;0.8958;
-88.8000;0.1498;0.9029;
-88.5000;0.1498;0.8981;
-88.2000;0.1498;0.8958;
-87.9000;0.1490;0.8934;
-87.6000;0.1490;0.8934;
-87.3000;0.1506;0.8981;
-87.0000;0.1514;0.9005;
-86.7000;0.1490;0.8934;
-86.4000;0.1473;0.8981;
-86.1000;0.1408;0.8887;
-85.8000;0.1449;0.8958;
-85.5000;0.1457;0.8981;
-85.2000;0.1465;0.8958;
-84.9000;0.1498;0.9029;
-84.6000;0.1465;0.8934;
-84.3000;0.1481;0.8934;
-84.0000;0.1465;0.8934;
-83.7000;0.1490;0.9005;
-83.4000;0.1481;0.8958;
-83.1000;0.1449;0.8839;
-82.8000;0.1490;0.8934;
-82.5000;0.1465;0.8887;
-82.2000;0.1441;0.8887;
-81.9000;0.1481;0.9029;
-81.6000;0.1481;0.9124;
-81.3000;0.1490;0.9076;
-81.0000;0.1490;0.9005;
-80.7000;0.1490;0.9076;
-80.4000;0.1555;0.9218;
-80.1000;0.1547;0.9147;
-79.8000;0.1481;0.8934;
-79.5000;0.1481;0.8887;
-79.2000;0.1498;0.8910;
-78.9000;0.1490;0.8910;
-78.6000;0.1449;0.8815;
-78.3000;0.1449;0.8887;
-78.0000;0.1473;0.8839;
-77.7000;0.1490;0.8792;
-77.4000;0.1490;0.8863;
-77.1000;0.1490;0.8815;
-76.8000;0.1522;0.8910;
-76.5000;0.1498;0.8839;
-76.2000;0.1498;0.8887;
-75.9000;0.1506;0.8910;
-75.6000;0.1465;0.8863;
-75.3000;0.1449;0.8910;
-75.0000;0.1498;0.8981;
-74.7000;0.1481;0.8910;
-74.4000;0.1473;0.8839;
-74.1000;0.1490;0.8792;
-73.8000;0.1490;0.8839;
-73.5000;0.1498;0.8887;
-73.2000;0.1498;0.8887;
-72.9000;0.1481;0.8863;
-72.6000;0.1498;0.8981;
-72.3000;0.1481;0.8981;
-72.0000;0.1465;0.8934;
-71.7000;0.1490;0.8958;
-71.4000;0.1490;0.8958;
-71.1000;0.1481;0.9052;
-70.8000;0.1465;0.8981;
-70.5000;0.1473;0.8981;
-70.2000;0.1481;0.9029;
-69.9000;0.1481;0.8981;
-69.6000;0.1490;0.9005;
-69.3000;0.1433;0.8839;
-69.0000;0.1465;0.8863;
-68.7000;0.1465;0.8934;
-68.4000;0.1465;0.9029;
-68.1000;0.1481;0.9124;
-67.8000;0.1490;0.9147;
-67.5000;0.1490;0.9029;
-67.2000;0.1506;0.9029;
-66.9000;0.1473;0.8981;
-66.6000;0.1481;0.9005;
-66.3000;0.1481;0.8958;
-66.0000;0.1530;0.9100;
-65.7000;0.1506;0.9005;
-65.4000;0.1465;0.8934;
-65.1000;0.1530;0.9052;
-64.8000;0.1498;0.8958;
-64.5000;0.1498;0.8934;
-64.2000;0.1506;0.9005;
-63.9000;0.1481;0.9029;
-63.6000;0.1473;0.9029;
-63.3000;0.1465;0.9005;
-63.0000;0.1481;0.9052;
-62.7000;0.1530;0.9124;
-62.4000;0.1481;0.9052;
-62.1000;0.1473;0.9100;
-61.8000;0.1490;0.9124;
-61.5000;0.1481;0.9029;
-61.2000;0.1498;0.9100;
-60.9000;0.1473;0.9052;
-60.6000;0.1530;0.9171;
-60.3000;0.1425;0.8981;
-60.0000;0.1473;0.9100;
-59.7000;0.1514;0.9124;
-59.4000;0.1506;0.9052;
-59.1000;0.1490;0.9029;
-58.8000;0.1506;0.9052;
-58.5000;0.1441;0.8863;
-58.2000;0.1481;0.8981;
-57.9000;0.1481;0.8934;
-57.6000;0.1522;0.9005;
-57.3000;0.1481;0.8958;
-57.0000;0.1481;0.9029;
-56.7000;0.1473;0.8981;
-56.4000;0.1490;0.9029;
-56.1000;0.1481;0.9076;
-55.8000;0.1498;0.9195;
-55.5000;0.1473;0.9147;
-55.2000;0.1490;0.9171;
-54.9000;0.1490;0.9147;
-54.6000;0.1481;0.9147;
-54.3000;0.1490;0.9100;
-54.0000;0.1433;0.8958;
-53.7000;0.1481;0.9124;
-53.4000;0.1441;0.9052;
-53.1000;0.1490;0.9100;
-52.8000;0.1481;0.9005;
-52.5000;0.1465;0.8958;
-52.2000;0.1490;0.9029;
-51.9000;0.1481;0.9005;
-51.6000;0.1498;0.9005;
-51.3000;0.1481;0.8958;
-51.0000;0.1473;0.8981;
-50.7000;0.1498;0.9005;
-50.4000;0.1490;0.8958;
-50.1000;0.1498;0.8934;
-49.8000;0.1481;0.8815;
-49.5000;0.1481;0.8934;
-49.2000;0.1481;0.8981;
-48.9000;0.1498;0.9005;
-48.6000;0.1490;0.9076;
-48.3000;0.1490;0.9005;
-48.0000;0.1490;0.9029;
-47.7000;0.1473;0.9052;
-47.4000;0.1465;0.8910;
-47.1000;0.1481;0.8934;
-46.8000;0.1490;0.9005;
-46.5000;0.1481;0.8910;
-46.2000;0.1473;0.8863;
-45.9000;0.1465;0.8839;
-45.6000;0.1490;0.8863;
-45.3000;0.1498;0.8887;
-45.0000;0.1490;0.8863;
-44.7000;0.1473;0.8815;
-44.4000;0.1498;0.8863;
-44.1000;0.1490;0.8815;
-43.8000;0.1490;0.8792;
-43.5000;0.1481;0.8839;
-43.2000;0.1465;0.8815;
-42.9000;0.1481;0.8863;
-42.6000;0.1481;0.8934;
-42.3000;0.1481;0.8958;
-42.0000;0.1473;0.8934;
-41.7000;0.1490;0.8934;
-41.4000;0.1506;0.8910;
-41.1000;0.1490;0.8863;
-40.8000;0.1473;0.8792;
-40.5000;0.1473;0.8863;
-40.2000;0.1481;0.8887;
-39.9000;0.1473;0.8934;
-39.6000;0.1530;0.9005;
-39.3000;0.1490;0.8934;
-39.0000;0.1490;0.8934;
-38.7000;0.1506;0.9005;
-38.4000;0.1473;0.8958;
-38.1000;0.1481;0.8934;
-37.8000;0.1481;0.8910;
-37.5000;0.1498;0.9005;
-37.2000;0.1481;0.9052;
-36.9000;0.1490;0.9052;
-36.6000;0.1490;0.9005;
-36.3000;0.1498;0.9005;
-36.0000;0.1481;0.9029;
-35.7000;0.1449;0.8958;
-35.4000;0.1490;0.9124;
-35.1000;0.1481;0.9147;
-34.8000;0.1514;0.9195;
-34.5000;0.1473;0.9029;
-34.2000;0.1481;0.8934;
-33.9000;0.1392;0.8721;
-33.6000;0.1481;0.8910;
-33.3000;0.1473;0.8887;
-33.0000;0.1473;0.8863;
-32.7000;0.1473;0.8910;
-32.4000;0.1473;0.8910;
-32.1000;0.1490;0.8887;
-31.8000;0.1473;0.8863;
-31.5000;0.1506;0.9029;
-31.2000;0.1481;0.8934;
-30.9000;0.1449;0.8863;
-30.6000;0.1441;0.8910;
-30.3000;0.1465;0.8910;
-30.0000;0.1416;0.8744;
-29.7000;0.1481;0.8910;
-29.4000;0.1498;0.8863;
-29.1000;0.1498;0.8792;
-28.8000;0.1473;0.8839;
-28.5000;0.1498;0.8910;
-28.2000;0.1498;0.9029;
-27.9000;0.1490;0.9100;
-27.6000;0.1490;0.9005;
-27.3000;0.1481;0.9029;
-27.0000;0.1481;0.9005;
-26.7000;0.1473;0.9005;
-26.4000;0.1473;0.9005;
-26.1000;0.1465;0.9076;
-25.8000;0.1465;0.9076;
-25.5000;0.1465;0.9029;
-25.2000;0.1457;0.9029;
-24.9000;0.1457;0.9029;
-24.6000;0.1490;0.9076;
-24.3000;0.1473;0.9005;
-24.0000;0.1506;0.9005;
-23.7000;0.1473;0.8887;
-23.4000;0.1522;0.9052;
-23.1000;0.1457;0.8863;
-22.8000;0.1490;0.8910;
-22.5000;0.1457;0.8839;
-22.2000;0.1481;0.8887;
-21.9000;0.1490;0.8934;
-21.6000;0.1465;0.8839;
-21.3000;0.1473;0.8744;
-21.0000;0.1473;0.8721;
-20.7000;0.1473;0.8744;
-20.4000;0.1473;0.8744;
-20.1000;0.1490;0.8768;
-19.8000;0.1481;0.8839;
-19.5000;0.1481;0.8863;
-19.2000;0.1473;0.8863;
-18.9000;0.1481;0.8792;
-18.6000;0.1481;0.8697;
-18.3000;0.1481;0.8697;
-18.0000;0.1473;0.8744;
-17.7000;0.1465;0.8815;
-17.4000;0.1441;0.8744;
-17.1000;0.1481;0.8863;
-16.8000;0.1490;0.8910;
-16.5000;0.1498;0.8910;
-16.2000;0.1481;0.8887;
-15.9000;0.1490;0.8934;
-15.6000;0.1490;0.8934;
-15.3000;0.1473;0.9005;
-15.0000;0.1465;0.9005;
-14.7000;0.1457;0.9076;
-14.4000;0.1514;0.9147;
-14.1000;0.1490;0.9029;
-13.8000;0.1481;0.9052;
-13.5000;0.1473;0.9100;
-13.2000;0.1490;0.9171;
-12.9000;0.1490;0.9124;
-12.6000;0.1481;0.9005;
-12.3000;0.1473;0.9029;
-12.0000;0.1481;0.9124;
-11.7000;0.1490;0.9147;
-11.4000;0.1473;0.9052;
-11.1000;0.1400;0.8792;
-10.8000;0.1408;0.8744;
-10.5000;0.1465;0.8910;
-10.2000;0.1490;0.8792;
-9.9000;0.1473;0.8697;
-9.6000;0.1473;0.8626;
-9.3000;0.1490;0.8650;
-9.0000;0.1506;0.8697;
-8.7000;0.1481;0.8626;
-8.4000;0.1538;0.8673;
-8.1000;0.1481;0.8579;
-7.8000;0.1506;0.8602;
-7.5000;0.1481;0.8484;
-7.2000;0.1490;0.8436;
-6.9000;0.1498;0.8579;
-6.6000;0.1481;0.8579;
-6.3000;0.1473;0.8507;
-6.0000;0.1473;0.8531;
-5.7000;0.1465;0.8507;
-5.4000;0.1425;0.8389;
-5.1000;0.1530;0.8673;
-4.8000;0.1490;0.8626;
-4.5000;0.1473;0.8555;
-4.2000;0.1481;0.8531;
-3.9000;0.1490;0.8650;
-3.6000;0.1481;0.8697;
-3.3000;0.1433;0.8484;
-3.0000;0.1449;0.8602;
-2.7000;0.1457;0.8602;
-2.4000;0.1481;0.8673;
-2.1000;0.1457;0.8602;
-1.8000;0.1490;0.8650;
-1.5000;0.1481;0.8697;
-1.2000;0.1481;0.8721;
-0.9000;0.1481;0.8697;
-0.6000;0.1498;0.8697;
-0.3000;0.1490;0.8673;
0.0000;0.1490;0.8673;
0.3000;0.1522;0.8650;
0.6000;0.1522;0.8697;
0.9000;0.1514;0.8792;
1.2000;0.1555;0.8910;
1.5000;0.1514;0.8981;
1.8000;0.1604;0.9313;
2.1000;0.1538;0.9289;
2.4000;0.1481;0.9242;
2.7000;0.1563;0.9574;
3.0000;0.1547;0.9597;
3.3000;0.1538;0.9597;
3.6000;0.1530;0.9669;
3.9000;0.1547;0.9740;
4.2000;0.1538;0.9811;
4.5000;0.1547;0.9834;
4.8000;0.1530;0.9858;
5.1000;0.1563;0.9858;
5.4000;0.1538;0.9811;
5.7000;0.1555;0.9787;
6.0000;0.1563;0.9929;
6.3000;0.1555;0.9858;
6.6000;0.1547;0.9953;
6.9000;0.1563;0.9977;
7.2000;0.1555;0.9882;
7.5000;0.1555;0.9763;
7.8000;0.1547;0.9716;
8.1000;0.1538;0.9692;
8.4000;0.1571;0.9882;
8.7000;0.1555;0.9929;
9.0000;0.1563;0.9858;
9.3000;0.1563;0.9834;
9.6000;0.1563;0.9858;
9.9000;0.1555;0.9858;
10.2000;0.1587;0.9929;
10.5000;0.1587;0.9929;
10.8000;0.1571;0.9929;
11.1000;0.1571;0.9882;
11.4000;0.1595;0.9929;
11.7000;0.1563;0.9929;
12.0000;0.1555;0.9977;
12.3000;0.1506;0.9858;
12.6000;0.1644;1.0166;
12.9000;0.1571;0.9858;
13.2000;0.1555;0.9834;
13.5000;0.1547;0.9811;
13.8000;0.1563;0.9787;
14.1000;0.1579;0.9787;
14.4000;0.1571;0.9811;
14.7000;0.1547;0.9692;
15.0000;0.1538;0.9645;
15.3000;0.1587;0.9763;
15.6000;0.1620;0.9977;
15.9000;0.1563;0.9858;
16.2000;0.1595;0.9882;
16.5000;0.1555;0.9834;
16.8000;0.1571;0.9882;
17.1000;0.1547;0.9740;
17.4000;0.1571;0.9858;
17.7000;0.1555;0.9858;
18.0000;0.1563;0.9882;
18.3000;0.1579;0.9882;
18.6000;0.1571;0.9858;
18.9000;0.1571;0.9906;
19.2000;0.1587;1.0000;
19.5000;0.1571;0.9929;
19.8000;0.1587;0.9953;
20.1000;0.1555;0.9977;
20.4000;0.1571;1.0000;
20.7000;0.1587;0.9906;
21.0000;0.1587;0.9858;
21.3000;0.1563;0.9834;
21.6000;0.1571;0.9834;
21.9000;0.1587;0.9977;
22.2000;0.1587;0.9953;
22.5000;0.1555;0.9882;
22.8000;0.1579;0.9929;
23.1000;0.1555;0.9929;
23.4000;0.1587;1.0048;
23.7000;0.1587;1.0048;
24.0000;0.1571;0.9953;
24.3000;0.1604;1.0000;
24.6000;0.1604;0.9882;
24.9000;0.1644;0.9811;
25.2000;0.1579;0.9669;
25.5000;0.1579;0.9692;
25.8000;0.1587;0.9716;
26.1000;0.1587;0.9692;
26.4000;0.1579;0.9574;
26.7000;0.1571;0.9645;
27.0000;0.1579;0.9669;
27.3000;0.1587;0.9716;
27.6000;0.1571;0.9692;
27.9000;0.1587;0.9811;
28.2000;0.1571;0.9787;
28.5000;0.1571;0.9740;
28.8000;0.1555;0.9692;
29.1000;0.1595;0.9787;
29.4000;0.1587;0.9811;
29.7000;0.1628;1.0024;
30.0000;0.1587;0.9929;
30.3000;0.1587;0.9929;
30.6000;0.1587;0.9929;
30.9000;0.1579;1.0000;
31.2000;0.1620;1.0119;
31.5000;0.1587;1.0095;
31.8000;0.1579;1.0119;
32.1000;0.1612;1.0143;
32.4000;0.1587;1.0071;
32.7000;0.1595;1.0095;
33.0000;0.1587;1.0024;
33.3000;0.1506;0.9787;
33.6000;0.1563;0.9929;
33.9000;0.1587;0.9929;
34.2000;0.1661;1.0119;
34.5000;0.1604;0.9929;
34.8000;0.1579;0.9882;
35.1000;0.1587;0.9953;
35.4000;0.1669;1.0095;
35.7000;0.1571;0.9787;
36.0000;0.1604;0.9811;
36.3000;0.1604;0.9858;
36.6000;0.1571;0.9763;
36.9000;0.1604;0.9763;
37.2000;0.1514;0.9621;
37.5000;0.1563;0.9740;
37.8000;0.1587;0.9834;
38.1000;0.1587;0.9858;
38.4000;0.1547;0.9834;
38.7000;0.1595;0.9953;
39.0000;0.1595;0.9906;
39.3000;0.1587;0.9882;
39.6000;0.1579;0.9858;
39.9000;0.1595;0.9953;
40.2000;0.1595;0.9929;
40.5000;0.1587;0.9882;
40.8000;0.1612;0.9929;
41.1000;0.1571;0.9882;
41.4000;0.1571;0.9929;
41.7000;0.1604;1.0024;
42.0000;0.1587;1.0048;
42.3000;0.1587;1.0095;
42.6000;0.1587;1.0095;
42.9000;0.1571;1.0024;
43.2000;0.1555;0.9906;
43.5000;0.1587;0.9977;
43.8000;0.1620;1.0000;
44.1000;0.1587;0.9977;
44.4000;0.1604;1.0024;
44.7000;0.1571;0.9929;
45.0000;0.1579;1.0000;
45.3000;0.1612;1.0143;
45.6000;0.1587;1.0048;
45.9000;0.1587;1.0024;
46.2000;0.1587;1.0048;
46.5000;0.1595;1.0000;
46.8000;0.1595;0.9953;
47.1000;0.1587;0.9858;
47.4000;0.1595;0.9882;
47.7000;0.1595;0.9953;
48.0000;0.1587;0.9953;
48.3000;0.1579;1.0000;
48.6000;0.1579;0.9977;
48.9000;0.1587;1.0024;
49.2000;0.1587;1.0095;
49.5000;0.1555;0.9977;
49.8000;0.1563;1.0000;
50.1000;0.1677;1.0261;
50.4000;0.1595;1.0048;
50.7000;0.1587;1.0048;
51.0000;0.1636;1.0190;
51.3000;0.1579;1.0048;
51.6000;0.1595;1.0071;
51.9000;0.1604;1.0071;
52.2000;0.1587;1.0095;
52.5000;0.1636;1.0214;
52.8000;0.1595;1.0190;
53.1000;0.1595;1.0214;
53.4000;0.1628;1.0332;
53.7000;0.1604;1.0332;
54.0000;0.1579;1.0332;
54.3000;0.1571;1.0214;
54.6000;0.1612;1.0237;
54.9000;0.1563;1.0095;
55.2000;0.1628;1.0285;
55.5000;0.1595;1.0285;
55.8000;0.1595;1.0285;
56.1000;0.1587;1.0190;
56.4000;0.1604;1.0261;
56.7000;0.1604;1.0237;
57.0000;0.1579;1.0166;
57.3000;0.1595;1.0261;
57.6000;0.1595;1.0214;
57.9000;0.1579;1.0166;
58.2000;0.1587;1.0095;
58.5000;0.1587;1.0166;
58.8000;0.1595;1.0166;
59.1000;0.1563;1.0095;
59.4000;0.1620;1.0214;
59.7000;0.1579;1.0166;
60.0000;0.1595;1.0214;
60.3000;0.1595;1.0190;
60.6000;0.1595;1.0261;
60.9000;0.1612;1.0332;
61.2000;0.1620;1.0285;
61.5000;0.1604;1.0095;
61.8000;0.1587;1.0095;
62.1000;0.1595;1.0143;
62.4000;0.1595;1.0143;
62.7000;0.1595;1.0143;
63.0000;0.1587;1.0143;
63.3000;0.1579;1.0143;
63.6000;0.1595;1.0166;
63.9000;0.1604;1.0095;
64.2000;0.1595;0.9977;
64.5000;0.1595;0.9977;
64.8000;0.1604;1.0000;
65.1000;0.1604;0.9977;
65.4000;0.1587;0.9977;
65.7000;0.1604;1.0000;
66.0000;0.1595;0.9953;
66.3000;0.1595;0.9953;
66.6000;0.1587;0.9929;
66.9000;0.1555;0.9882;
67.2000;0.1595;0.9929;
67.5000;0.1587;0.9882;
67.8000;0.1595;0.9882;
68.1000;0.1595;0.9929;
68.4000;0.1595;1.0000;
68.7000;0.1612;1.0024;
69.0000;0.1604;0.9906;
69.3000;0.1595;0.9977;
69.6000;0.1595;0.9929;
69.9000;0.1595;0.9953;
70.2000;0.1595;0.9906;
70.5000;0.1579;0.9929;
70.8000;0.1579;0.9906;
71.1000;0.1595;0.9906;
71.4000;0.1595;0.9906;
71.7000;0.1587;0.9858;
72.0000;0.1595;0.9929;
72.3000;0.1587;0.9953;
72.6000;0.1595;1.0000;
72.9000;0.1587;1.0071;
73.2000;0.1604;1.0024;
73.5000;0.1612;1.0048;
73.8000;0.1587;0.9953;
74.1000;0.1587;1.0000;
74.4000;0.1563;0.9882;
74.7000;0.1604;0.9953;
75.0000;0.1612;1.0024;
75.3000;0.1595;1.0024;
75.6000;0.1587;1.0095;
75.9000;0.1571;1.0166;
76.2000;0.1587;1.0190;
76.5000;0.1604;1.0166;
76.8000;0.1587;1.0190;
77.1000;0.1604;1.0261;
77.4000;0.1595;1.0237;
77.7000;0.1612;1.0261;
78.0000;0.1612;1.0261;
78.3000;0.1587;1.0214;
78.6000;0.1661;1.0356;
78.9000;0.1595;1.0166;
79.2000;0.1604;1.0095;
79.5000;0.1579;0.9953;
79.8000;0.1604;0.9906;
80.1000;0.1579;0.9858;
80.4000;0.1595;0.9882;
80.7000;0.1636;1.0024;
81.0000;0.1587;0.9811;
81.3000;0.1652;1.0048;
81.6000;0.1604;0.9953;
81.9000;0.1604;0.9906;
82.2000;0.1579;0.9763;
82.5000;0.1579;0.9763;
82.8000;0.1693;1.0024;
83.1000;0.1595;0.9811;
83.4000;0.1612;0.9858;
83.7000;0.1604;0.9858;
84.0000;0.1579;0.9929;
84.3000;0.1604;1.0071;
84.6000;0.1669;1.0237;
84.9000;0.1604;1.0095;
85.2000;0.1547;0.9977;
85.5000;0.1612;1.0143;
85.8000;0.1595;1.0000;
86.1000;0.1595;1.0048;
86.4000;0.1612;1.0071;
86.7000;0.1595;1.0024;
87.0000;0.1604;1.0024;
87.3000;0.1595;0.9953;
87.6000;0.1571;0.9787;
87.9000;0.1587;0.9929;
88.2000;0.1612;0.9977;
88.5000;0.1563;0.9906;
88.8000;0.1628;1.0214;
89.1000;0.1538;1.0071;
89.4000;0.1595;1.0214;
89.7000;0.1595;1.0214;
90.0000;0.1604;1.0237;
90.3000;0.1595;1.0237;
90.6000;0.1587;1.0356;
90.9000;0.1620;1.0451;
91.2000;0.1587;1.0261;
91.5000;0.1587;1.0214;
91.8000;0.1595;1.0166;
92.1000;0.1604;1.0095;
92.4000;0.1604;1.0095;
92.7000;0.1612;1.0095;
93.0000;0.1620;1.0166;
93.3000;0.1571;1.0000;
93.6000;0.1595;1.0119;
93.9000;0.1604;1.0119;
94.2000;0.1612;1.0166;
94.5000;0.1604;1.0190;
94.8000;0.1604;1.0190;
95.1000;0.1604;1.0143;
95.4000;0.1530;0.9977;
95.7000;0.1652;1.0119;
96.0000;0.1661;1.0166;
96.3000;0.1595;1.0048;
96.6000;0.1587;1.0048;
96.9000;0.1620;1.0095;
97.2000;0.1604;0.9953;
97.5000;0.1669;1.0071;
97.8000;0.1587;0.9882;
98.1000;0.1595;0.9811;
98.4000;0.1612;0.9811;
98.7000;0.1587;0.9787;
99.0000;0.1604;0.9858;
99.3000;0.1595;0.9906;
99.6000;0.1587;0.9906;
99.9000;0.1587;0.9953;
100.2000;0.1587;0.9882;
100.5000;0.1595;0.9906;
100.8000;0.1595;1.0000;
101.1000;0.1669;1.0190;
101.4000;0.1579;0.9977;
101.7000;0.1587;0.9977;
102.0000;0.1555;0.9953;
102.3000;0.1595;1.0119;
102.6000;0.1604;1.0071;
102.9000;0.1620;1.0119;
103.2000;0.1579;1.0048;
103.5000;0.1587;1.0048;
103.8000;0.1595;1.0000;
104.1000;0.1604;1.0000;
104.4000;0.1636;1.0119;
104.7000;0.1522;0.9811;
105.0000;0.1620;1.0024;
105.3000;0.1587;0.9953;
105.6000;0.1587;0.9977;
105.9000;0.1595;1.0000;
106.2000;0.1595;1.0000;
106.5000;0.1709;1.0285;
106.8000;0.1595;1.0095;
107.1000;0.1587;1.0095;
107.4000;0.1587;1.0095;
107.7000;0.1595;1.0119;
108.0000;0.1579;0.9977;
108.3000;0.1612;1.0000;
108.6000;0.1595;0.9929;
108.9000;0.1579;0.9906;
109.2000;0.1604;0.9977;
109.5000;0.1620;0.9977;
109.8000;0.1669;1.0166;
110.1000;0.1604;0.9953;
110.4000;0.1587;0.9882;
110.7000;0.1587;0.9906;
111.0000;0.1579;0.9882;
111.3000;0.1620;1.0024;
111.6000;0.1604;1.0095;
111.9000;0.1587;1.0048;
112.2000;0.1652;1.0190;
112.5000;0.1595;1.0048;
112.8000;0.1595;1.0071;
113.1000;0.1595;0.9953;
113.4000;0.1595;1.0024;
113.7000;0.1612;1.0000;
114.0000;0.1604;1.0048;
114.3000;0.1612;1.0000;
114.6000;0.1587;0.9929;
114.9000;0.1604;1.0000;
115.2000;0.1612;1.0048;
115.5000;0.1604;1.0048;
115.8000;0.1587;1.0048;
116.1000;0.1604;1.0095;
116.4000;0.1587;1.0024;
116.7000;0.1595;1.0095;
117.0000;0.1612;1.0214;
117.3000;0.1595;1.0261;
117.6000;0.1604;1.0214;
117.9000;0.1514;1.0000;
118.2000;0.1595;1.0119;
118.5000;0.1595;1.0095;
118.8000;0.1595;1.0095;
119.1000;0.1595;1.0071;
119.4000;0.1604;1.0000;
119.7000;0.1587;0.9906;
120.0000;0.1587;0.9906;
120.3000;0.1628;0.9953;
120.6000;0.1595;0.9858;
120.9000;0.1604;0.9977;
121.2000;0.1587;1.0000;
121.5000;0.1595;1.0048;
121.8000;0.1644;1.0166;
122.1000;0.1587;0.9977;
122.4000;0.1587;0.9977;
122.7000;0.1620;1.0024;
123.0000;0.1620;1.0000;
123.3000;0.1587;1.0000;
123.6000;0.1587;0.9977;
123.9000;0.1595;0.9977;
124.2000;0.1587;0.9977;
124.5000;0.1579;0.9977;
124.8000;0.1579;0.9929;
125.1000;0.1563;0.9858;
125.4000;0.1579;0.9906;
125.7000;0.1595;0.9977;
126.0000;0.1604;1.0024;
126.3000;0.1595;1.0000;
126.6000;0.1604;1.0071;
126.9000;0.1587;1.0095;
127.2000;0.1595;1.0119;
127.5000;0.1587;1.0166;
127.8000;0.1612;1.0261;
128.1000;0.1620;1.0285;
128.4000;0.1604;1.0285;
128.7000;0.1604;1.0237;
129.0000;0.1587;1.0214;
129.3000;0.1587;1.0166;
129.6000;0.1612;1.0261;
129.9000;0.1595;1.0237;
130.2000;0.1595;1.0237;
130.5000;0.1595;1.0237;
130.8000;0.1595;1.0190;
131.1000;0.1587;1.0285;
131.4000;0.1604;1.0380;
131.7000;0.1595;1.0285;
132.0000;0.1555;1.0143;
132.3000;0.1620;1.0237;
132.6000;0.1604;1.0166;
132.9000;0.1612;1.0071;
133.2000;0.1628;1.0048;
133.5000;0.1644;1.0095;
133.8000;0.1587;1.0024;
134.1000;0.1587;0.9953;
134.4000;0.1612;1.0000;
134.7000;0.1612;1.0071;
135.0000;0.1595;1.0095;
135.3000;0.1587;1.0048;
135.6000;0.1595;1.0024;
135.9000;0.1669;1.0143;
136.2000;0.1547;0.9882;
136.5000;0.1604;0.9977;
136.8000;0.1604;1.0000;
137.1000;0.1595;0.9953;
137.4000;0.1604;0.9906;
137.7000;0.1604;0.9858;
138.0000;0.1595;0.9811;
138.3000;0.1628;0.9953;
138.6000;0.1604;1.0024;
138.9000;0.1595;1.0024;
139.2000;0.1595;0.9953;
139.5000;0.1612;1.0048;
139.8000;0.1579;0.9953;
140.1000;0.1612;1.0024;
140.4000;0.1587;1.0048;
140.7000;0.1563;0.9977;
141.0000;0.1595;1.0143;
141.3000;0.1604;1.0143;
141.6000;0.1595;1.0143;
141.9000;0.1628;1.0143;
142.2000;0.1604;1.0048;
142.5000;0.1612;1.0024;
142.8000;0.1563;0.9929;
143.1000;0.1571;0.9929;
143.4000;0.1620;1.0024;
143.7000;0.1595;1.0000;
144.0000;0.1604;1.0048;
144.3000;0.1620;1.0095;
144.6000;0.1595;1.0048;
144.9000;0.1604;1.0119;
145.2000;0.1612;1.0048;
145.5000;0.1644;1.0190;
145.8000;0.1595;1.0119;
146.1000;0.1587;1.0071;
146.4000;0.1595;1.0143;
146.7000;0.1595;1.0166;
147.0000;0.1604;1.0095;
147.3000;0.1604;1.0190;
147.6000;0.1571;1.0166;
147.9000;0.1587;1.0214;
148.2000;0.1579;1.0143;
148.5000;0.1587;1.0190;
148.8000;0.1595;1.0308;
149.1000;0.1595;1.0332;
149.4000;0.1563;1.0285;
149.7000;0.1604;1.0427;
150.0000;0.1547;1.0308;
150.3000;0.1669;1.0616;
150.6000;0.1587;1.0451;
150.9000;0.1587;1.0332;
151.2000;0.1563;1.0285;
151.5000;0.1604;1.0332;
151.8000;0.1604;1.0285;
152.1000;0.1579;1.0190;
152.4000;0.1587;1.0119;
152.7000;0.1587;1.0285;
153.0000;0.1677;1.0522;
153.3000;0.1612;1.0427;
153.6000;0.1595;1.0380;
153.9000;0.1595;1.0380;
154.2000;0.1595;1.0380;
154.5000;0.1595;1.0380;
154.8000;0.1612;1.0427;
155.1000;0.1555;1.0332;
155.4000;0.1571;1.0380;
155.7000;0.1620;1.0451;
156.0000;0.1604;1.0308;
156.3000;0.1595;1.0285;
156.6000;0.1595;1.0308;
156.9000;0.1595;1.0332;
157.2000;0.1628;1.0427;
157.5000;0.1595;1.0332;
157.8000;0.1595;1.0332;
158.1000;0.1595;1.0261;
158.4000;0.1587;1.0237;
158.7000;0.1547;1.0095;
159.0000;0.1604;1.0237;
159.3000;0.1587;1.0166;
159.6000;0.1587;1.0166;
159.9000;0.1595;1.0143;
160.2000;0.1604;1.0048;
160.5000;0.1612;1.0048;
160.8000;0.1612;1.0071;
161.1000;0.1595;1.0000;
161.4000;0.1595;0.9953;
161.7000;0.1587;0.9929;
162.0000;0.1595;0.9977;
162.3000;0.1604;1.0071;
162.6000;0.1587;1.0048;
162.9000;0.1612;1.0095;
163.2000;0.1579;1.0048;
163.5000;0.1563;1.0048;
163.8000;0.1595;1.0166;
164.1000;0.1612;1.0332;
164.4000;0.1644;1.0427;
164.7000;0.1604;1.0403;
165.0000;0.1620;1.0308;
165.3000;0.1628;1.0285;
165.6000;0.1587;1.0214;
165.9000;0.1604;1.0237;
166.2000;0.1587;1.0119;
166.5000;0.1595;1.0071;
166.8000;0.1595;1.0143;
167.1000;0.1620;1.0214;
167.4000;0.1595;1.0166;
167.7000;0.1595;1.0190;
168.0000;0.1604;1.0071;
168.3000;0.1604;1.0095;
168.6000;0.1595;1.0119;
168.9000;0.1604;1.0143;
169.2000;0.1604;1.0071;
169.5000;0.1595;1.0071;
169.8000;0.1628;1.0190;
170.1000;0.1604;1.0000;
170.4000;0.1612;0.9953;
170.7000;0.1604;0.9953;
171.0000;0.1644;1.0048;
171.3000;0.1587;0.9953;
171.6000;0.1587;0.9906;
171.9000;0.1604;0.9858;
172.2000;0.1595;0.9882;
172.5000;0.1547;0.9763;
172.8000;0.1604;0.9977;
173.1000;0.1579;1.0000;
173.4000;0.1587;1.0048;
173.7000;0.1604;1.0071;
174.0000;0.1604;1.0071;
174.3000;0.1498;0.9858;
174.6000;0.1620;1.0143;
174.9000;0.1563;1.0071;
175.2000;0.1595;1.0214;
175.5000;0.1595;1.0190;
175.8000;0.1587;1.0048;
176.1000;0.1595;1.0000;
176.4000;0.1628;1.0000;
176.7000;0.1620;0.9929;
177.0000;0.1587;0.9906;
177.3000;0.1612;0.9929;
177.6000;0.1612;0.9953;
177.9000;0.1604;0.9906;
178.2000;0.1612;0.9906;
178.5000;0.1604;0.9906;
178.8000;0.1595;0.9977;
179.1000;0.1612;0.9929;
179.4000;0.1595;0.9953;
179.7000;0.1595;1.0071;
180.0000;0.1604;1.0143;
180.3000;0.1587;1.0119;
180.6000;0.1571;1.0024;
180.9000;0.1587;0.9977;
181.2000;0.1628;1.0048;
181.5000;0.1612;1.0048;
181.8000;0.1612;1.0000;
182.1000;0.1595;0.9929;
182.4000;0.1628;1.0024;
182.7000;0.1620;0.9953;
183.0000;0.1612;0.9953;
183.3000;0.1587;0.9811;
183.6000;0.1636;0.9834;
183.9000;0.1612;0.9787;
184.2000;0.1587;0.9740;
184.5000;0.1628;0.9882;
184.8000;0.1587;0.9692;
185.1000;0.1595;0.9621;
185.4000;0.1604;0.9645;
185.7000;0.1595;0.9716;
186.0000;0.1604;0.9692;
186.3000;0.1563;0.9669;
186.6000;0.1587;0.9669;
186.9000;0.1595;0.9645;
187.2000;0.1587;0.9645;
187.5000;0.1563;0.9669;
187.8000;0.1604;0.9740;
188.1000;0.1595;0.9740;
188.4000;0.1604;0.9740;
188.7000;0.1579;0.9763;
189.0000;0.1595;0.9834;
189.3000;0.1595;0.9858;
189.6000;0.1595;0.9811;
189.9000;0.1579;0.9787;
190.2000;0.1612;0.9834;
190.5000;0.1587;0.9858;
190.8000;0.1595;0.9858;
191.1000;0.1595;0.9882;
191.4000;0.1579;0.9834;
191.7000;0.1579;0.9811;
192.0000;0.1595;0.9763;
192.3000;0.1555;0.9645;
192.6000;0.1579;0.9740;
192.9000;0.1595;0.9858;
193.2000;0.1595;0.9858;
193.5000;0.1587;0.9811;
193.8000;0.1595;0.9858;
194.1000;0.1579;0.9906;
194.4000;0.1604;1.0024;
194.7000;0.1604;1.0095;
195.0000;0.1620;1.0143;
195.3000;0.1579;1.0048;
195.6000;0.1595;1.0071;
195.9000;0.1595;1.0024;
196.2000;0.1587;0.9953;
196.5000;0.1587;1.0000;
196.8000;0.1595;1.0024;
197.1000;0.1604;0.9977;
197.4000;0.1587;0.9906;
197.7000;0.1587;0.9929;
198.0000;0.1595;0.9953;
198.3000;0.1595;1.0000;
198.6000;0.1628;1.0024;
198.9000;0.1677;1.0166;
199.2000;0.1612;1.0000;
199.5000;0.1604;0.9929;
199.8000;0.1595;1.0000;
200.1000;0.1595;1.0000;
200.4000;0.1587;1.0000;
200.7000;0.1579;1.0000;
201.0000;0.1571;0.9929;
201.3000;0.1595;1.0048;
201.6000;0.1661;1.0119;
201.9000;0.1579;1.0000;
202.2000;0.1579;1.0000;
202.5000;0.1547;0.9929;
202.8000;0.1587;1.0000;
203.1000;0.1587;0.9882;
203.4000;0.1612;0.9882;
203.7000;0.1595;0.9858;
204.0000;0.1604;0.9882;
204.3000;0.1604;0.9882;
204.6000;0.1604;0.9906;
204.9000;0.1587;0.9906;
205.2000;0.1604;0.9977;
205.5000;0.1547;0.9834;
205.8000;0.1604;0.9882;
206.1000;0.1587;0.9763;
206.4000;0.1604;0.9834;
206.7000;0.1636;0.9977;
207.0000;0.1571;0.9740;
207.3000;0.1595;0.9834;
207.6000;0.1620;0.9811;
207.9000;0.1604;0.9716;
208.2000;0.1595;0.9740;
208.5000;0.1506;0.9550;
208.8000;0.1579;0.9740;
209.1000;0.1587;0.9669;
209.4000;0.1587;0.9669;
209.7000;0.1587;0.9692;
210.0000;0.1612;0.9787;
210.3000;0.1604;0.9763;
210.6000;0.1604;0.9787;
210.9000;0.1628;0.9858;
211.2000;0.1579;0.9882;
211.5000;0.1587;0.9906;
211.8000;0.1587;0.9763;
212.1000;0.1604;0.9763;
212.4000;0.1604;0.9763;
212.7000;0.1604;0.9763;
213.0000;0.1587;0.9763;
213.3000;0.1579;0.9763;
213.6000;0.1571;0.9716;
213.9000;0.1587;0.9811;
214.2000;0.1612;0.9906;
214.5000;0.1612;0.9834;
214.8000;0.1595;0.9763;
215.1000;0.1612;0.9716;
215.4000;0.1587;0.9692;
215.7000;0.1604;0.9763;
216.0000;0.1587;0.9811;
216.3000;0.1604;0.9929;
216.6000;0.1604;0.9882;
216.9000;0.1595;0.9929;
217.2000;0.1595;0.9834;
217.5000;0.1604;0.9882;
217.8000;0.1579;0.9882;
218.1000;0.1587;0.9882;
218.4000;0.1612;0.9929;
218.7000;0.1595;0.9977;
219.0000;0.1595;1.0024;
219.3000;0.1587;1.0095;
219.6000;0.1579;1.0048;
219.9000;0.1587;1.0000;
220.2000;0.1587;1.0048;
220.5000;0.1587;1.0000;
220.8000;0.1612;1.0000;
221.1000;0.1563;0.9906;
221.4000;0.1604;1.0000;
221.7000;0.1547;0.9858;
222.0000;0.1612;1.0024;
222.3000;0.1587;1.0000;
222.6000;0.1595;1.0048;
222.9000;0.1604;1.0048;
223.2000;0.1604;1.0048;
223.5000;0.1587;1.0048;
223.8000;0.1587;1.0095;
224.1000;0.1595;1.0071;
224.4000;0.1530;0.9906;
224.7000;0.1612;1.0166;
225.0000;0.1587;1.0095;
225.3000;0.1587;1.0071;
225.6000;0.1579;1.0143;
225.9000;0.1595;1.0261;
226.2000;0.1587;1.0356;
226.5000;0.1661;1.0498;
226.8000;0.1628;1.0308;
227.1000;0.1595;1.0308;
227.4000;0.1595;1.0285;
227.7000;0.1636;1.0237;
228.0000;0.1652;1.0356;
228.3000;0.1579;1.0190;
228.6000;0.1604;1.0190;
228.9000;0.1579;1.0095;
229.2000;0.1595;1.0095;
229.5000;0.1644;1.0166;
229.8000;0.1604;0.9953;
230.1000;0.1595;1.0024;
230.4000;0.1579;1.0119;
230.7000;0.1604;1.0190;
231.0000;0.1612;1.0143;
231.3000;0.1595;1.0214;
231.6000;0.1604;1.0261;
231.9000;0.1604;1.0214;
232.2000;0.1595;1.0261;
232.5000;0.1612;1.0308;
232.8000;0.1604;1.0214;
233.1000;0.1604;1.0332;
233.4000;0.1620;1.0308;
233.7000;0.1604;1.0285;
234.0000;0.1587;1.0308;
234.3000;0.1612;1.0356;
234.6000;0.1563;1.0261;
234.9000;0.1604;1.0380;
235.2000;0.1587;1.0356;
235.5000;0.1579;1.0332;
235.8000;0.1612;1.0356;
236.1000;0.1604;1.0237;
236.4000;0.1530;1.0095;
236.7000;0.1571;1.0190;
237.0000;0.1579;1.0237;
237.3000;0.1595;1.0308;
237.6000;0.1563;1.0308;
237.9000;0.1661;1.0616;
238.2000;0.1604;1.0427;
238.5000;0.1652;1.0498;
238.8000;0.1604;1.0380;
239.1000;0.1595;1.0285;
239.4000;0.1595;1.0237;
239.7000;0.1628;1.0285;
240.0000;0.1595;1.0285;
240.3000;0.1587;1.0214;
240.6000;0.1587;1.0166;
240.9000;0.1595;1.0119;
241.2000;0.1587;1.0119;
241.5000;0.1587;1.0071;
241.8000;0.1522;0.9906;
242.1000;0.1587;1.0119;
242.4000;0.1587;1.0095;
242.7000;0.1620;1.0119;
243.0000;0.1587;1.0095;
243.3000;0.1595;1.0024;
243.6000;0.1579;1.0024;
243.9000;0.1604;1.0024;
244.2000;0.1579;1.0024;
244.5000;0.1604;1.0071;
244.8000;0.1595;0.9977;
245.1000;0.1579;0.9977;
245.4000;0.1612;1.0071;
245.7000;0.1555;0.9953;
246.0000;0.1555;0.9906;
246.3000;0.1612;1.0000;
246.6000;0.1595;1.0024;
246.9000;0.1636;1.0214;
247.2000;0.1587;1.0024;
247.5000;0.1571;0.9929;
247.8000;0.1612;1.0048;
248.1000;0.1587;0.9953;
248.4000;0.1587;0.9906;
248.7000;0.1628;1.0071;
249.0000;0.1595;0.9977;
249.3000;0.1726;1.0214;
249.6000;0.1595;0.9906;
249.9000;0.1579;0.9834;
250.2000;0.1604;0.9929;
250.5000;0.1604;0.9858;
250.8000;0.1604;0.9882;
251.1000;0.1620;0.9882;
251.4000;0.1579;0.9716;
251.7000;0.1595;0.9763;
252.0000;0.1555;0.9669;
252.3000;0.1612;0.9811;
252.6000;0.1604;0.9882;
252.9000;0.1604;0.9882;
253.2000;0.1604;0.9906;
253.5000;0.1587;0.9858;
253.8000;0.1595;0.9834;
254.1000;0.1604;0.9882;
254.4000;0.1587;0.9882;
254.7000;0.1587;0.9882;
255.0000;0.1612;0.9953;
255.3000;0.1587;0.9906;
255.6000;0.1595;0.9929;
255.9000;0.1595;0.9858;
256.2000;0.1587;0.9740;
256.5000;0.1604;0.9834;
256.8000;0.1579;0.9811;
257.1000;0.1587;0.9858;
257.4000;0.1595;0.9953;
257.7000;0.1595;1.0000;
258.0000;0.1571;0.9929;
258.3000;0.1563;0.9858;
258.6000;0.1571;0.9882;
258.9000;0.1563;0.9858;
259.2000;0.1595;0.9906;
259.5000;0.1620;0.9977;
259.8000;0.1555;0.9716;
260.1000;0.1604;0.9834;
260.4000;0.1587;0.9834;
260.7000;0.1587;0.9834;
261.0000;0.1579;0.9906;
261.3000;0.1587;0.9906;
261.6000;0.1579;0.9929;
261.9000;0.1563;1.0000;
262.2000;0.1587;1.0048;
262.5000;0.1579;0.9953;
262.8000;0.1587;0.9953;
263.1000;0.1587;0.9906;
263.4000;0.1579;0.9906;
263.7000;0.1612;1.0048;
264.0000;0.1587;1.0024;
264.3000;0.1595;1.0119;
264.6000;0.1612;1.0071;
264.9000;0.1587;0.9929;
265.2000;0.1612;1.0000;
265.5000;0.1620;1.0048;
265.8000;0.1612;1.0095;
266.1000;0.1669;1.0166;
266.4000;0.1595;1.0000;
266.7000;0.1612;1.0024;
267.0000;0.1595;0.9953;
267.3000;0.1579;0.9953;
267.6000;0.1587;1.0119;
267.9000;0.1522;0.9953;
268.2000;0.1604;1.0095;
268.5000;0.1620;1.0095;
268.8000;0.1579;1.0024;
269.1000;0.1555;0.9858;
269.4000;0.1604;0.9906;
269.7000;0.1604;0.9929;
270.0000;0.1612;0.9953;
270.3000;0.1547;0.9858;
270.6000;0.1587;1.0000;
270.9000;0.1612;1.0048;
271.2000;0.1555;0.9882;
271.5000;0.1587;1.0000;
271.8000;0.1587;1.0095;
272.1000;0.1571;1.0048;
272.4000;0.1587;0.9977;
272.7000;0.1587;0.9929;
273.0000;0.1595;1.0000;
273.3000;0.1595;1.0048;
273.6000;0.1612;1.0095;
273.9000;0.1595;1.0000;
274.2000;0.1563;0.9977;
274.5000;0.1587;1.0071;
274.8000;0.1612;1.0119;
275.1000;0.1604;1.0095;
275.4000;0.1604;1.0119;
275.7000;0.1595;1.0119;
276.0000;0.1604;1.0024;
276.3000;0.1604;1.0000;
276.6000;0.1612;1.0024;
276.9000;0.1571;1.0024;
277.2000;0.1579;1.0000;
277.5000;0.1612;1.0095;
277.8000;0.1612;1.0095;
278.1000;0.1587;1.0048;
278.4000;0.1612;1.0024;
278.7000;0.1587;1.0048;
279.0000;0.1595;1.0024;
279.3000;0.1571;1.0024;
279.6000;0.1587;1.0048;
279.9000;0.1604;1.0048;
280.2000;0.1595;1.0024;
280.5000;0.1595;1.0071;
280.8000;0.1587;0.9977;
281.1000;0.1612;1.0024;
281.4000;0.1595;0.9953;
281.7000;0.1595;1.0000;
282.0000;0.1595;1.0048;
282.3000;0.1579;1.0095;
282.6000;0.1595;1.0095;
282.9000;0.1604;1.0095;
283.2000;0.1595;1.0095;
283.5000;0.1612;1.0143;
283.8000;0.1587;1.0071;
284.1000;0.1595;1.0119;
284.4000;0.1636;1.0190;
284.7000;0.1604;1.0119;
285.0000;0.1595;1.0071;
285.3000;0.1604;1.0095;
285.6000;0.1595;1.0119;
285.9000;0.1579;1.0024;
286.2000;0.1587;1.0000;
286.5000;0.1587;0.9977;
286.8000;0.1612;0.9977;
287.1000;0.1595;1.0000;
287.4000;0.1612;1.0095;
287.7000;0.1604;1.0095;
288.0000;0.1604;1.0119;
288.3000;0.1604;1.0119;
288.6000;0.1579;1.0119;
288.9000;0.1620;1.0071;
289.2000;0.1604;1.0166;
289.5000;0.1604;1.0095;
289.8000;0.1620;1.0119;
290.1000;0.1604;1.0095;
290.4000;0.1595;1.0119;
290.7000;0.1595;1.0095;
291.0000;0.1604;1.0095;
291.3000;0.1628;1.0166;
291.6000;0.1587;1.0095;
291.9000;0.1595;1.0095;
292.2000;0.1571;0.9953;
292.5000;0.1595;0.9929;
292.8000;0.1612;0.9953;
293.1000;0.1595;1.0000;
293.4000;0.1587;1.0048;
293.7000;0.1595;1.0000;
294.0000;0.1579;1.0024;
294.3000;0.1595;1.0095;
294.6000;0.1579;1.0071;
294.9000;0.1604;1.0071;
295.2000;0.1555;1.0000;
295.5000;0.1636;1.0285;
295.8000;0.1595;1.0143;
296.1000;0.1652;1.0380;
296.4000;0.1579;1.0166;
296.7000;0.1604;1.0308;
297.0000;0.1612;1.0332;
297.3000;0.1587;1.0143;
297.6000;0.1579;1.0071;
297.9000;0.1612;1.0119;
298.2000;0.1620;1.0143;
298.5000;0.1612;1.0095;
298.8000;0.1604;1.0095;
299.1000;0.1612;1.0143;
299.4000;0.1612;1.0119;
299.7000;0.1612;1.0095;
300.0000;0.1595;1.0071;
300.3000;0.1604;1.0071;
300.6000;0.1530;0.9882;
300.9000;0.1604;1.0071;
301.2000;0.1587;1.0071;
301.5000;0.1587;1.0119;
301.8000;0.1604;1.0119;
302.1000;0.1595;1.0119;
302.4000;0.1587;1.0071;
302.7000;0.1595;1.0048;
303.0000;0.1604;1.0024;
303.3000;0.1612;0.9977;
303.6000;0.1595;0.9858;
303.9000;0.1579;0.9906;
304.2000;0.1636;1.0095;
304.5000;0.1587;1.0000;
304.8000;0.1595;0.9929;
305.1000;0.1579;0.9882;
305.4000;0.1547;0.9858;
305.7000;0.1595;0.9977;
306.0000;0.1579;1.0024;
306.3000;0.1620;1.0071;
306.6000;0.1563;1.0024;
306.9000;0.1587;1.0024;
307.2000;0.1547;1.0000;
307.5000;0.1620;1.0214;
307.8000;0.1587;1.0119;
308.1000;0.1595;1.0143;
308.4000;0.1571;1.0071;
308.7000;0.1604;1.0071;
309.0000;0.1595;1.0024;
309.3000;0.1644;1.0166;
309.6000;0.1587;1.0095;
309.9000;0.1595;1.0143;
310.2000;0.1587;1.0190;
310.5000;0.1579;1.0119;
310.8000;0.1579;1.0143;
311.1000;0.1604;1.0285;
311.4000;0.1612;1.0190;
311.7000;0.1595;1.0048;
312.0000;0.1604;0.9929;
312.3000;0.1595;0.9858;
312.6000;0.1612;0.9763;
312.9000;0.1595;0.9740;
313.2000;0.1595;0.9834;
313.5000;0.1604;0.9858;
313.8000;0.1604;0.9834;
314.1000;0.1604;0.9787;
314.4000;0.1595;0.9858;
314.7000;0.1595;0.9787;
315.0000;0.1604;0.9834;
315.3000;0.1620;0.9929;
315.6000;0.1555;0.9834;
315.9000;0.1563;0.9906;
316.2000;0.1620;1.0024;
316.5000;0.1587;1.0000;
316.8000;0.1595;0.9953;
317.1000;0.1595;0.9929;
317.4000;0.1612;1.0024;
317.7000;0.1604;0.9953;
318.0000;0.1587;0.9882;
318.3000;0.1579;0.9906;
318.6000;0.1628;1.0024;
318.9000;0.1595;0.9906;
319.2000;0.1595;0.9858;
319.5000;0.1620;0.9929;
319.8000;0.1595;0.9882;
320.1000;0.1579;0.9858;
320.4000;0.1636;0.9929;
320.7000;0.1595;0.9811;
321.0000;0.1547;0.9692;
321.3000;0.1604;0.9834;
321.6000;0.1604;0.9834;
321.9000;0.1587;0.9858;
322.2000;0.1579;0.9882;
322.5000;0.1604;0.9858;
322.8000;0.1628;0.9953;
323.1000;0.1595;0.9906;
323.4000;0.1587;0.9929;
323.7000;0.1620;0.9953;
324.0000;0.1595;0.9858;
324.3000;0.1587;0.9858;
324.6000;0.1579;0.9882;
324.9000;0.1612;0.9906;
325.2000;0.1612;0.9953;
325.5000;0.1595;1.0000;
325.8000;0.1604;1.0048;
326.1000;0.1587;1.0119;
326.4000;0.1612;1.0261;
326.7000;0.1612;1.0285;
327.0000;0.1587;1.0166;
327.3000;0.1595;1.0190;
327.6000;0.1595;1.0190;
327.9000;0.1595;1.0143;
328.2000;0.1587;1.0095;
328.5000;0.1563;1.0071;
328.8000;0.1595;1.0261;
329.1000;0.1604;1.0237;
329.4000;0.1587;1.0237;
329.7000;0.1579;1.0166;
330.0000;0.1587;1.0166;
330.3000;0.1620;1.0237;
330.6000;0.1604;1.0237;
330.9000;0.1587;1.0166;
331.2000;0.1595;1.0119;
331.5000;0.1595;1.0214;
331.8000;0.1604;1.0261;
332.1000;0.1587;1.0261;
332.4000;0.1587;1.0285;
332.7000;0.1595;1.0261;
333.0000;0.1595;1.0237;
333.3000;0.1587;1.0237;
333.6000;0.1595;1.0356;
333.9000;0.1587;1.0380;
334.2000;0.1587;1.0261;
334.5000;0.1595;1.0285;
334.8000;0.1595;1.0285;
335.1000;0.1579;1.0261;
335.4000;0.1595;1.0332;
335.7000;0.1587;1.0332;
336.0000;0.1604;1.0332;
336.3000;0.1563;1.0237;
336.6000;0.1579;1.0190;
336.9000;0.1604;1.0166;
337.2000;0.1595;1.0237;
337.5000;0.1538;1.0095;
337.8000;0.1579;1.0190;
338.1000;0.1604;1.0308;
338.4000;0.1587;1.0285;
338.7000;0.1587;1.0190;
339.0000;0.1563;1.0143;
339.3000;0.1612;1.0214;
339.6000;0.1587;1.0119;
339.9000;0.1652;1.0332;
340.2000;0.1579;1.0095;
340.5000;0.1612;1.0166;
340.8000;0.1612;1.0166;
341.1000;0.1595;1.0048;
341.4000;0.1604;1.0000;
341.7000;0.1563;0.9929;
342.0000;0.1587;1.0024;
342.3000;0.1604;1.0143;
342.6000;0.1612;1.0143;
342.9000;0.1595;1.0166;
343.2000;0.1587;1.0166;
343.5000;0.1612;1.0261;
343.8000;0.1620;1.0237;
344.1000;0.1595;1.0143;
344.4000;0.1612;1.0048;
344.7000;0.1612;1.0048;
345.0000;0.1595;0.9977;
345.3000;0.1604;1.0048;
345.6000;0.1620;1.0071;
345.9000;0.1595;1.0048;
346.2000;0.1587;1.0024;
346.5000;0.1604;0.9953;
346.8000;0.1587;1.0000;
347.1000;0.1530;0.9929;
347.4000;0.1595;1.0166;
347.7000;0.1587;1.0166;
348.0000;0.1555;1.0214;
348.3000;0.1595;1.0332;
348.6000;0.1514;1.0095;
348.9000;0.1563;1.0143;
349.2000;0.1604;1.0214;
349.5000;0.1612;1.0166;
349.8000;0.1604;1.0119;
350.1000;0.1604;1.0143;
350.4000;0.1595;1.0190;
350.7000;0.1595;1.0166;
351.0000;0.1579;1.0190;
351.3000;0.1587;1.0237;
351.6000;0.1587;1.0356;
351.9000;0.1604;1.0332;
352.2000;0.1587;1.0285;
352.5000;0.1620;1.0285;
352.8000;0.1595;1.0214;
353.1000;0.1587;1.0119;
353.4000;0.1587;1.0095;
353.7000;0.1579;1.0048;
354.0000;0.1604;1.0119;
354.3000;0.1636;1.0261;
354.6000;0.1595;1.0166;
354.9000;0.1612;1.0261;
355.2000;0.1612;1.0237;
355.5000;0.1595;1.0166;
355.8000;0.1604;1.0237;
356.1000;0.1604;1.0237;
356.4000;0.1595;1.0190;
356.7000;0.1595;1.0166;
357.0000;0.1587;1.0143;
357.3000;0.1579;1.0071;
357.6000;0.1579;0.9953;
357.9000;0.1571;0.9929;
358.2000;0.1587;0.9977;
358.5000;0.1604;0.9977;
358.8000;0.1636;1.0000;
359.1000;0.1579;0.9929;
359.4000;0.1604;1.0048;
359.7000;0.1595;1.0143;
360.0000;0.1547;1.0119;
360.3000;0.1604;1.0214;
360.6000;0.1595;1.0190;
360.9000;0.1587;1.0095;
361.2000;0.1587;1.0119;
361.5000;0.1620;1.0095;
361.8000;0.1595;1.0024;
362.1000;0.1579;1.0048;
362.4000;0.1587;1.0095;
362.7000;0.1587;1.0166;
363.0000;0.1563;1.0048;
363.3000;0.1604;1.0095;
363.6000;0.1595;1.0095;
363.9000;0.1587;1.0024;
364.2000;0.1595;1.0000;
364.5000;0.1587;0.9977;
364.8000;0.1604;1.0000;
365.1000;0.1604;1.0024;
365.4000;0.1595;1.0000;
365.7000;0.1595;0.9977;
366.0000;0.1563;0.9953;
366.3000;0.1571;1.0119;
366.6000;0.1587;1.0190;
366.9000;0.1604;1.0190;
367.2000;0.1587;1.0190;
367.5000;0.1587;1.0143;
367.8000;0.1587;1.0119;
368.1000;0.1604;1.0166;
368.4000;0.1595;1.0166;
368.7000;0.1579;1.0119;
369.0000;0.1595;1.0143;
369.3000;0.1595;1.0143;
369.6000;0.1604;1.0237;
369.9000;0.1595;1.0095;
370.2000;0.1571;1.0024;
370.5000;0.1595;1.0166;
370.8000;0.1628;1.0261;
371.1000;0.1620;1.0285;
371.4000;0.1595;1.0237;
371.7000;0.1571;1.0237;
372.0000;0.1620;1.0403;
372.3000;0.1595;1.0356;
372.6000;0.1587;1.0237;
372.9000;0.1595;1.0214;
373.2000;0.1604;1.0214;
373.5000;0.1587;1.0143;
373.8000;0.1587;1.0095;
374.1000;0.1587;1.0143;
374.4000;0.1587;1.0166;
374.7000;0.1595;1.0095;
375.0000;0.1595;1.0143;
375.3000;0.1563;1.0048;
375.6000;0.1604;1.0095;
375.9000;0.1579;1.0024;
376.2000;0.1595;0.9977;
376.5000;0.1595;1.0024;
376.8000;0.1612;1.0024;
377.1000;0.1595;1.0024;
377.4000;0.1547;0.9977;
377.7000;0.1604;1.0166;
378.0000;0.1595;1.0166;
378.3000;0.1612;1.0143;
378.6000;0.1571;1.0143;
378.9000;0.1563;1.0048;
379.2000;0.1595;1.0071;
379.5000;0.1677;1.0285;
379.8000;0.1604;1.0048;
380.1000;0.1579;0.9953;
380.4000;0.1604;1.0024;
380.7000;0.1587;0.9929;
381.0000;0.1587;0.9953;
381.3000;0.1587;0.9977;
381.6000;0.1612;1.0000;
381.9000;0.1604;1.0143;
382.2000;0.1595;1.0190;
382.5000;0.1595;1.0190;
382.8000;0.1587;1.0119;
383.1000;0.1579;1.0071;
383.4000;0.1595;1.0095;
383.7000;0.1595;1.0095;
384.0000;0.1604;1.0119;
384.3000;0.1563;1.0071;
384.6000;0.1587;1.0143;
384.9000;0.1579;1.0119;
385.2000;0.1587;1.0119;
385.5000;0.1595;1.0095;
385.8000;0.1604;1.0119;
386.1000;0.1612;1.0190;
386.4000;0.1595;1.0143;
386.7000;0.1579;1.0071;
387.0000;0.1595;1.0190;
387.3000;0.1628;1.0261;
387.6000;0.1604;1.0143;
387.9000;0.1595;1.0166;
388.2000;0.1587;1.0166;
388.5000;0.1587;1.0237;
388.8000;0.1604;1.0308;
389.1000;0.1563;1.0214;
389.4000;0.1587;1.0214;
389.7000;0.1604;1.0119;
390.0000;0.1579;1.0095;
390.3000;0.1604;1.0214;
390.6000;0.1604;1.0143;
390.9000;0.1595;1.0119;
391.2000;0.1595;1.0119;
391.5000;0.1652;1.0261;
391.8000;0.1587;1.0095;
392.1000;0.1579;1.0143;
392.4000;0.1595;1.0261;
392.7000;0.1595;1.0332;
393.0000;0.1587;1.0261;
393.3000;0.1595;1.0261;
393.6000;0.1595;1.0285;
393.9000;0.1604;1.0308;
394.2000;0.1571;1.0166;
394.5000;0.1579;1.0166;
394.8000;0.1595;1.0095;
395.1000;0.1620;1.0237;
395.4000;0.1587;1.0143;
395.7000;0.1604;1.0119;
396.0000;0.1595;1.0071;
396.3000;0.1612;1.0119;
396.6000;0.1604;1.0143;
396.9000;0.1547;1.0048;
397.2000;0.1612;1.0190;
397.5000;0.1595;1.0261;
397.8000;0.1587;1.0166;
398.1000;0.1604;1.0119;
398.4000;0.1587;1.0143;
398.7000;0.1604;1.0190;
399.0000;0.1587;1.0095;
399.3000;0.1595;1.0143;
399.6000;0.1595;1.0119;
399.9000;0.1587;1.0071;
400.2000;0.1579;1.0071;
400.5000;0.1595;1.0143;
400.8000;0.1579;1.0071;
401.1000;0.1579;1.0095;
401.4000;0.1644;1.0308;
401.7000;0.1595;1.0308;
402.0000;0.1587;1.0308;
402.3000;0.1587;1.0285;
402.6000;0.1587;1.0261;
402.9000;0.1595;1.0166;
403.2000;0.1595;1.0119;
403.5000;0.1587;1.0214;
403.8000;0.1595;1.0285;
404.1000;0.1604;1.0380;
404.4000;0.1636;1.0427;
404.7000;0.1571;1.0356;
405.0000;0.1620;1.0498;
405.3000;0.1595;1.0522;
405.6000;0.1595;1.0545;
405.9000;0.1587;1.0545;
406.2000;0.1604;1.0640;
406.5000;0.1595;1.0593;
406.8000;0.1612;1.0640;
407.1000;0.1587;1.0522;
407.4000;0.1595;1.0474;
407.7000;0.1604;1.0427;
408.0000;0.1587;1.0308;
408.3000;0.1604;1.0285;
408.6000;0.1595;1.0332;
408.9000;0.1604;1.0332;
409.2000;0.1595;1.0380;
409.5000;0.1604;1.0403;
409.8000;0.1587;1.0308;
410.1000;0.1587;1.0332;
410.4000;0.1587;1.0261;
410.7000;0.1595;1.0285;
411.0000;0.1604;1.0380;
411.3000;0.1604;1.0332;
411.6000;0.1595;1.0261;
411.9000;0.1595;1.0237;
412.2000;0.1604;1.0214;
412.5000;0.1555;1.0119;
412.8000;0.1571;1.0143;
413.1000;0.1587;1.0190;
413.4000;0.1579;1.0237;
413.7000;0.1587;1.0237;
414.0000;0.1563;1.0237;
414.3000;0.1595;1.0356;
414.6000;0.1612;1.0380;
414.9000;0.1595;1.0308;
415.2000;0.1636;1.0356;
415.5000;0.1595;1.0237;
415.8000;0.1595;1.0214;
416.1000;0.1587;1.0143;
416.4000;0.1587;1.0095;
416.7000;0.1628;1.0261;
417.0000;0.1628;1.0214;
417.3000;0.1587;1.0190;
417.6000;0.1587;1.0190;
417.9000;0.1595;1.0285;
418.2000;0.1595;1.0214;
418.5000;0.1587;1.0190;
418.8000;0.1595;1.0166;
419.1000;0.1595;1.0166;
419.4000;0.1587;1.0190;
419.7000;0.1604;1.0214;
420.0000;0.1595;1.0143;
420.3000;0.1612;1.0190;
420.6000;0.1604;1.0166;
420.9000;0.1595;1.0214;
421.2000;0.1612;1.0237;
421.5000;0.1595;1.0214;
421.8000;0.1628;1.0261;
422.1000;0.1604;1.0285;
422.4000;0.1587;1.0285;
422.7000;0.1530;1.0095;
423.0000;0.1579;1.0237;
423.3000;0.1595;1.0308;
423.6000;0.1628;1.0451;
423.9000;0.1636;1.0403;
424.2000;0.1595;1.0285;
424.5000;0.1571;1.0308;
424.8000;0.1612;1.0285;
425.1000;0.1579;1.0190;
425.4000;0.1587;1.0214;
425.7000;0.1620;1.0308;
426.0000;0.1604;1.0308;
426.3000;0.1587;1.0214;
426.6000;0.1563;1.0166;
426.9000;0.1604;1.0190;
427.2000;0.1612;1.0190;
427.5000;0.1595;1.0214;
427.8000;0.1604;1.0214;
428.1000;0.1604;1.0190;
428.4000;0.1595;1.0143;
428.7000;0.1587;1.0143;
429.0000;0.1604;1.0237;
429.3000;0.1595;1.0143;
429.6000;0.1612;1.0166;
429.9000;0.1595;1.0119;
430.2000;0.1604;1.0166;
430.5000;0.1587;1.0095;
430.8000;0.1595;1.0071;
431.1000;0.1587;1.0024;
431.4000;0.1587;1.0024;
431.7000;0.1612;1.0190;
432.0000;0.1652;1.0380;
432.3000;0.1579;1.0214;
432.6000;0.1571;1.0214;
432.9000;0.1652;1.0380;
433.2000;0.1604;1.0308;
433.5000;0.1587;1.0332;
433.8000;0.1604;1.0285;
434.1000;0.1620;1.0427;
434.4000;0.1571;1.0356;
434.7000;0.1579;1.0308;
435.0000;0.1612;1.0380;
435.3000;0.1579;1.0308;
435.6000;0.1587;1.0332;
435.9000;0.1563;1.0308;
436.2000;0.1587;1.0380;
436.5000;0.1522;1.0237;
436.8000;0.1595;1.0332;
437.1000;0.1604;1.0261;
437.4000;0.1595;1.0285;
437.7000;0.1595;1.0261;
438.0000;0.1628;1.0380;
438.3000;0.1604;1.0332;
438.6000;0.1587;1.0308;
438.9000;0.1604;1.0427;
439.2000;0.1612;1.0474;
439.5000;0.1579;1.0356;
439.8000;0.1587;1.0380;
440.1000;0.1587;1.0380;
440.4000;0.1587;1.0356;
440.7000;0.1595;1.0380;
441.0000;0.1595;1.0308;
441.3000;0.1587;1.0332;
441.6000;0.1587;1.0308;
441.9000;0.1587;1.0332;
442.2000;0.1579;1.0308;
442.5000;0.1571;1.0261;
442.8000;0.1530;1.0071;
443.1000;0.1579;1.0119;
443.4000;0.1595;1.0119;
443.7000;0.1595;1.0119;
444.0000;0.1587;1.0166;
444.3000;0.1612;1.0214;
444.6000;0.1620;1.0261;
444.9000;0.1587;1.0237;
445.2000;0.1636;1.0308;
445.5000;0.1579;1.0285;
445.8000;0.1612;1.0356;
446.1000;0.1571;1.0308;
446.4000;0.1579;1.0356;
446.7000;0.1579;1.0427;
447.0000;0.1612;1.0451;
447.3000;0.1620;1.0427;
447.6000;0.1595;1.0356;
447.9000;0.1579;1.0332;
448.2000;0.1595;1.0332;
448.5000;0.1579;1.0356;
448.8000;0.1579;1.0380;
449.1000;0.1604;1.0474;
449.4000;0.1563;1.0427;
449.7000;0.1604;1.0451;
450.0000;0.1612;1.0427;
450.3000;0.1595;1.0332;
450.6000;0.1604;1.0308;
450.9000;0.1587;1.0308;
451.2000;0.1595;1.0308;
451.5000;0.1595;1.0261;
451.8000;0.1604;1.0261;
452.1000;0.1595;1.0214;
452.4000;0.1612;1.0237;
452.7000;0.1612;1.0308;
453.0000;0.1612;1.0356;
453.3000;0.1612;1.0356;
453.6000;0.1612;1.0285;
453.9000;0.1604;1.0285;
454.2000;0.1604;1.0261;
454.5000;0.1595;1.0166;
454.8000;0.1579;1.0166;
455.1000;0.1628;1.0308;
455.4000;0.1604;1.0190;
455.7000;0.1595;1.0143;
456.0000;0.1538;1.0095;
456.3000;0.1587;1.0356;
456.6000;0.1604;1.0380;
456.9000;0.1538;1.0261;
457.2000;0.1587;1.0285;
457.5000;0.1620;1.0427;
457.8000;0.1571;1.0261;
458.1000;0.1587;1.0261;
458.4000;0.1579;1.0285;
458.7000;0.1595;1.0237;
459.0000;0.1595;1.0261;
459.3000;0.1604;1.0285;
459.6000;0.1620;1.0380;
459.9000;0.1595;1.0261;
460.2000;0.1604;1.0237;
460.5000;0.1595;1.0261;
460.8000;0.1587;1.0356;
461.1000;0.1604;1.0403;
461.4000;0.1571;1.0308;
461.7000;0.1620;1.0403;
462.0000;0.1595;1.0380;
462.3000;0.1587;1.0285;
462.6000;0.1636;1.0237;
462.9000;0.1587;1.0071;
463.2000;0.1604;1.0071;
463.5000;0.1604;1.0048;
463.8000;0.1604;1.0024;
464.1000;0.1595;1.0048;
464.4000;0.1595;1.0095;
464.7000;0.1604;1.0119;
465.0000;0.1604;1.0190;
465.3000;0.1595;1.0190;
465.6000;0.1604;1.0237;
465.9000;0.1587;1.0261;
466.2000;0.1587;1.0261;
466.5000;0.1587;1.0308;
466.8000;0.1595;1.0261;
467.1000;0.1595;1.0285;
467.4000;0.1579;1.0285;
467.7000;0.1587;1.0356;
468.0000;0.1579;1.0380;
468.3000;0.1587;1.0356;
468.6000;0.1547;1.0308;
468.9000;0.1555;1.0332;
469.2000;0.1604;1.0451;
469.5000;0.1563;1.0285;
469.8000;0.1579;1.0308;
470.1000;0.1579;1.0308;
470.4000;0.1579;1.0356;
470.7000;0.1604;1.0403;
471.0000;0.1595;1.0380;
471.3000;0.1612;1.0451;
471.6000;0.1604;1.0356;
471.9000;0.1547;1.0119;
472.2000;0.1587;1.0190;
472.5000;0.1579;1.0143;
472.8000;0.1604;1.0190;
473.1000;0.1595;1.0190;
473.4000;0.1563;1.0119;
473.7000;0.1587;1.0143;
474.0000;0.1587;1.0024;
474.3000;0.1595;0.9953;
474.6000;0.1595;0.9977;
474.9000;0.1612;1.0119;
475.2000;0.1579;1.0000;
475.5000;0.1604;1.0071;
475.8000;0.1604;1.0095;
476.1000;0.1628;1.0166;
476.4000;0.1604;1.0143;
476.7000;0.1604;1.0166;
477.0000;0.1604;1.0166;
477.3000;0.1604;1.0190;
477.6000;0.1587;1.0143;
477.9000;0.1595;1.0261;
478.2000;0.1620;1.0332;
478.5000;0.1579;1.0214;
478.8000;0.1604;1.0261;
479.1000;0.1587;1.0308;
479.4000;0.1579;1.0308;
479.7000;0.1604;1.0332;
480.0000;0.1547;1.0214;
480.3000;0.1587;1.0261;
480.6000;0.1579;1.0261;
480.9000;0.1628;1.0332;
481.2000;0.1612;1.0308;
481.5000;0.1604;1.0261;
481.8000;0.1587;1.0261;
482.1000;0.1571;1.0261;
482.4000;0.1604;1.0261;
482.7000;0.1587;1.0166;
483.0000;0.1579;1.0071;
483.3000;0.1571;1.0143;
483.6000;0.1587;1.0143;
483.9000;0.1604;1.0143;
484.2000;0.1595;1.0166;
484.5000;0.1587;1.0095;
484.8000;0.1579;1.0261;
485.1000;0.1579;1.0261;
485.4000;0.1579;1.0332;
485.7000;0.1587;1.0380;
486.0000;0.1579;1.0403;
486.3000;0.1587;1.0403;
486.6000;0.1579;1.0332;
486.9000;0.1587;1.0356;
487.2000;0.1604;1.0403;
487.5000;0.1595;1.0427;
487.8000;0.1530;1.0261;
488.1000;0.1587;1.0356;
488.4000;0.1555;1.0261;
488.7000;0.1595;1.0308;
489.0000;0.1587;1.0332;
489.3000;0.1595;1.0308;
489.6000;0.1587;1.0403;
489.9000;0.1587;1.0498;
490.2000;0.1595;1.0474;
490.5000;0.1595;1.0403;
490.8000;0.1595;1.0403;
491.1000;0.1612;1.0474;
491.4000;0.1604;1.0545;
491.7000;0.1579;1.0451;
492.0000;0.1595;1.0451;
492.3000;0.1604;1.0356;
492.6000;0.1595;1.0356;
492.9000;0.1595;1.0166;
493.2000;0.1595;1.0143;
493.5000;0.1612;1.0143;
493.8000;0.1604;1.0190;
494.1000;0.1579;1.0190;
494.4000;0.1587;1.0214;
494.7000;0.1563;1.0119;
495.0000;0.1652;1.0285;
495.3000;0.1595;1.0095;
495.6000;0.1579;1.0071;
495.9000;0.1514;0.9953;
496.2000;0.1595;1.0190;
496.5000;0.1620;1.0261;
496.8000;0.1620;1.0237;
497.1000;0.1587;1.0214;
497.4000;0.1555;1.0119;
497.7000;0.1604;1.0237;
498.0000;0.1604;1.0143;
498.3000;0.1595;1.0143;
498.6000;0.1604;1.0143;
498.9000;0.1612;1.0143;
499.2000;0.1612;1.0214;
499.5000;0.1604;1.0166;
499.8000;0.1587;1.0095;
500.1000;0.1595;1.0143;
500.4000;0.1595;1.0190;
500.7000;0.1669;1.0498;
501.0000;0.1587;1.0261;
501.3000;0.1595;1.0214;
501.6000;0.1604;1.0214;
501.9000;0.1604;1.0166;
502.2000;0.1587;1.0214;
502.5000;0.1587;1.0261;
502.8000;0.1604;1.0190;
503.1000;0.1579;1.0119;
503.4000;0.1587;1.0095;
503.7000;0.1587;1.0071;
504.0000;0.1612;1.0166;
504.3000;0.1595;1.0048;
504.6000;0.1595;1.0024;
504.9000;0.1604;0.9977;
505.2000;0.1612;0.9977;
505.5000;0.1595;0.9929;
505.8000;0.1595;0.9929;
506.1000;0.1595;1.0024;
506.4000;0.1587;1.0048;
506.7000;0.1579;1.0166;
507.0000;0.1587;1.0214;
507.3000;0.1587;1.0214;
507.6000;0.1587;1.0237;
507.9000;0.1587;1.0143;
508.2000;0.1547;1.0000;
508.5000;0.1604;1.0119;
508.8000;0.1579;1.0143;
509.1000;0.1571;1.0190;
509.4000;0.1587;1.0261;
509.7000;0.1595;1.0237;
510.0000;0.1587;1.0285;
510.3000;0.1595;1.0285;
510.6000;0.1587;1.0237;
510.9000;0.1571;1.0119;
511.2000;0.1555;1.0024;
511.5000;0.1587;1.0143;
511.8000;0.1628;1.0214;
512.1000;0.1595;1.0143;
512.4000;0.1587;1.0214;
512.7000;0.1587;1.0214;
513.0000;0.1636;1.0380;
513.3000;0.1595;1.0261;
513.6000;0.1579;1.0214;
513.9000;0.1587;1.0143;
514.2000;0.1595;1.0048;
514.5000;0.1587;1.0119;
514.8000;0.1669;1.0380;
515.1000;0.1620;1.0308;
515.4000;0.1595;1.0261;
515.7000;0.1620;1.0451;
516.0000;0.1636;1.0451;
516.3000;0.1595;1.0356;
516.6000;0.1595;1.0403;
516.9000;0.1595;1.0451;
517.2000;0.1587;1.0403;
517.5000;0.1571;1.0356;
517.8000;0.1587;1.0427;
518.1000;0.1595;1.0451;
518.4000;0.1595;1.0451;
518.7000;0.1628;1.0545;
519.0000;0.1579;1.0498;
519.3000;0.1595;1.0474;
519.6000;0.1595;1.0427;
519.9000;0.1644;1.0616;
520.2000;0.1579;1.0380;
520.5000;0.1595;1.0427;
520.8000;0.1473;1.0095;
521.1000;0.1604;1.0403;
521.4000;0.1547;1.0356;
521.7000;0.1595;1.0474;
522.0000;0.1604;1.0522;
522.3000;0.1604;1.0522;
522.6000;0.1595;1.0498;
522.9000;0.1587;1.0522;
523.2000;0.1587;1.0522;
523.5000;0.1595;1.0545;
523.8000;0.1595;1.0616;
524.1000;0.1612;1.0640;
524.4000;0.1595;1.0522;
524.7000;0.1595;1.0474;
525.0000;0.1587;1.0451;
525.3000;0.1595;1.0498;
525.6000;0.1604;1.0569;
525.9000;0.1571;1.0451;
526.2000;0.1604;1.0569;
526.5000;0.1604;1.0545;
526.8000;0.1587;1.0545;
527.1000;0.1620;1.0593;
527.4000;0.1595;1.0474;
527.7000;0.1604;1.0451;
528.0000;0.1579;1.0380;
528.3000;0.1587;1.0427;
528.6000;0.1579;1.0427;
528.9000;0.1604;1.0451;
529.2000;0.1587;1.0403;
529.5000;0.1595;1.0451;
529.8000;0.1571;1.0285;
530.1000;0.1628;1.0308;
530.4000;0.1587;1.0356;
530.7000;0.1587;1.0356;
531.0000;0.1587;1.0427;
531.3000;0.1595;1.0474;
531.6000;0.1595;1.0474;
531.9000;0.1595;1.0332;
532.2000;0.1587;1.0332;
532.5000;0.1595;1.0403;
532.8000;0.1604;1.0451;
533.1000;0.1555;1.0380;
533.4000;0.1587;1.0427;
533.7000;0.1555;1.0451;
534.0000;0.1604;1.0593;
534.3000;0.1595;1.0451;
534.6000;0.1595;1.0380;
534.9000;0.1587;1.0498;
535.2000;0.1579;1.0451;
535.5000;0.1595;1.0403;
535.8000;0.1604;1.0356;
536.1000;0.1579;1.0308;
536.4000;0.1587;1.0427;
536.7000;0.1595;1.0427;
537.0000;0.1587;1.0427;
537.3000;0.1595;1.0522;
537.6000;0.1587;1.0451;
537.9000;0.1587;1.0451;
538.2000;0.1604;1.0474;
538.5000;0.1563;1.0285;
538.8000;0.1620;1.0285;
539.1000;0.1604;1.0261;
539.4000;0.1547;1.0095;
539.7000;0.1579;1.0071;
540.0000;0.1579;1.0095;
540.3000;0.1587;1.0119;
540.6000;0.1579;1.0143;
540.9000;0.1579;1.0214;
541.2000;0.1579;1.0143;
541.5000;0.1587;1.0166;
541.8000;0.1620;1.0285;
542.1000;0.1604;1.0143;
542.4000;0.1644;1.0261;
542.7000;0.1595;1.0119;
543.0000;0.1579;1.0095;
543.3000;0.1604;1.0119;
543.6000;0.1595;1.0071;
543.9000;0.1595;1.0000;
544.2000;0.1620;1.0071;
544.5000;0.1644;1.0000;
544.8000;0.1604;0.9929;
545.1000;0.1571;0.9929;
545.4000;0.1669;1.0166;
545.7000;0.1595;0.9929;
546.0000;0.1595;0.9906;
546.3000;0.1604;0.9882;
546.6000;0.1579;0.9929;
546.9000;0.1604;0.9977;
547.2000;0.1604;1.0000;
547.5000;0.1604;1.0095;
547.8000;0.1612;1.0143;
548.1000;0.1595;1.0119;
548.4000;0.1587;1.0190;
548.7000;0.1595;1.0308;
549.0000;0.1595;1.0332;
549.3000;0.1595;1.0237;
549.6000;0.1636;1.0214;
549.9000;0.1636;1.0237;
550.2000;0.1587;1.0143;
550.5000;0.1595;1.0166;
550.8000;0.1612;1.0285;
551.1000;0.1644;1.0332;
551.4000;0.1595;1.0166;
551.7000;0.1587;1.0119;
552.0000;0.1652;1.0143;
552.3000;0.1612;1.0048;
552.6000;0.1604;1.0024;
552.9000;0.1628;1.0024;
553.2000;0.1604;1.0024;
553.5000;0.1595;0.9906;
553.8000;0.1587;0.9858;
554.1000;0.1595;0.9882;
554.4000;0.1587;0.9953;
554.7000;0.1595;0.9882;
555.0000;0.1587;0.9882;
555.3000;0.1587;0.9929;
555.6000;0.1604;1.0000;
555.9000;0.1595;0.9953;
556.2000;0.1587;0.9929;
556.5000;0.1571;0.9906;
556.8000;0.1587;1.0000;
557.1000;0.1587;0.9977;
557.4000;0.1587;0.9858;
557.7000;0.1579;0.9811;
558.0000;0.1587;0.9740;
558.3000;0.1595;0.9811;
558.6000;0.1595;0.9763;
558.9000;0.1595;0.9716;
559.2000;0.1595;0.9716;
559.5000;0.1595;0.9740;
559.8000;0.1595;0.9787;
560.1000;0.1595;0.9906;
560.4000;0.1595;0.9906;
560.7000;0.1604;1.0024;
561.0000;0.1661;1.0166;
561.3000;0.1595;1.0071;
561.6000;0.1612;1.0143;
561.9000;0.1612;1.0261;
562.2000;0.1587;1.0190;
562.5000;0.1579;1.0048;
562.8000;0.1587;1.0000;
563.1000;0.1595;1.0000;
563.4000;0.1595;1.0000;
563.7000;0.1595;1.0024;
564.0000;0.1579;1.0000;
564.3000;0.1579;0.9953;
564.6000;0.1587;0.9977;
564.9000;0.1579;0.9977;
565.2000;0.1595;1.0095;
565.5000;0.1579;0.9953;
565.8000;0.1579;0.9882;
566.1000;0.1595;1.0000;
566.4000;0.1595;1.0000;
566.7000;0.1587;0.9929;
567.0000;0.1636;1.0071;
567.3000;0.1595;1.0000;
567.6000;0.1587;0.9977;
567.9000;0.1506;0.9787;
568.2000;0.1587;1.0024;
568.5000;0.1547;0.9906;
568.8000;0.1595;0.9977;
569.1000;0.1587;0.9953;
569.4000;0.1595;0.9977;
569.7000;0.1563;0.9906;
570.0000;0.1612;0.9953;
570.3000;0.1587;0.9953;
570.6000;0.1579;0.9929;
570.9000;0.1604;1.0000;
571.2000;0.1604;1.0024;
571.5000;0.1644;1.0143;
571.8000;0.1579;1.0048;
572.1000;0.1587;1.0000;
572.4000;0.1587;1.0000;
572.7000;0.1595;1.0024;
573.0000;0.1604;1.0000;
573.3000;0.1587;0.9882;
573.6000;0.1587;0.9834;
573.9000;0.1620;0.9953;
574.2000;0.1595;1.0024;
574.5000;0.1595;1.0024;
574.8000;0.1595;1.0000;
575.1000;0.1644;1.0095;
575.4000;0.1595;1.0024;
575.7000;0.1587;1.0000;
576.0000;0.1571;1.0071;
576.3000;0.1595;1.0143;
576.6000;0.1587;1.0095;
576.9000;0.1604;1.0119;
577.2000;0.1530;0.9882;
577.5000;0.1628;1.0119;
577.8000;0.1636;1.0119;
578.1000;0.1652;1.0214;
578.4000;0.1595;1.0000;
578.7000;0.1571;0.9953;
579.0000;0.1595;0.9929;
579.3000;0.1587;0.9882;
579.6000;0.1587;0.9906;
579.9000;0.1587;0.9906;
580.2000;0.1587;0.9882;
580.5000;0.1587;0.9929;
580.8000;0.1587;0.9882;
581.1000;0.1571;0.9858;
581.4000;0.1563;0.9787;
581.7000;0.1604;0.9811;
582.0000;0.1595;0.9929;
582.3000;0.1595;0.9906;
582.6000;0.1644;1.0024;
582.9000;0.1595;0.9858;
583.2000;0.1587;0.9811;
583.5000;0.1587;0.9811;
583.8000;0.1587;0.9834;
584.1000;0.1587;0.9811;
584.4000;0.1587;0.9858;
584.7000;0.1571;0.9787;
585.0000;0.1579;0.9787;
585.3000;0.1587;0.9787;
585.6000;0.1571;0.9834;
585.9000;0.1579;0.9858;
586.2000;0.1579;0.9906;
586.5000;0.1595;0.9929;
586.8000;0.1587;0.9906;
587.1000;0.1595;0.9834;
587.4000;0.1587;0.9787;
587.7000;0.1587;0.9716;
588.0000;0.1587;0.9787;
588.3000;0.1587;0.9882;
588.6000;0.1595;1.0000;
588.9000;0.1579;1.0000;
589.2000;0.1587;1.0024;
589.5000;0.1595;1.0048;
589.8000;0.1555;0.9906;
590.1000;0.1571;0.9929;
590.4000;0.1579;0.9882;
590.7000;0.1595;0.9882;
591.0000;0.1595;0.9882;
591.3000;0.1595;0.9787;
591.6000;0.1579;0.9716;
591.9000;0.1587;0.9763;
592.2000;0.1604;0.9787;
592.5000;0.1595;0.9740;
592.8000;0.1514;0.9550;
593.1000;0.1612;0.9763;
593.4000;0.1612;0.9787;
593.7000;0.1595;0.9787;
594.0000;0.1587;0.9834;
594.3000;0.1579;0.9858;
594.6000;0.1579;0.9929;
594.9000;0.1595;1.0071;
595.2000;0.1595;1.0119;
595.5000;0.1547;1.0000;
595.8000;0.1587;1.0048;
596.1000;0.1604;1.0071;
596.4000;0.1595;1.0048;
596.7000;0.1628;1.0166;
597.0000;0.1587;1.0071;
597.3000;0.1587;1.0024;
597.6000;0.1595;1.0119;
597.9000;0.1587;1.0071;
598.2000;0.1547;0.9953;
598.5000;0.1604;1.0048;
598.8000;0.1620;1.0190;
599.1000;0.1636;1.0166;
599.4000;0.1587;1.0143;
599.7000;0.1579;1.0190;
600.0000;0.1587;1.0285;
600.3000;0.1587;1.0237;
600.6000;0.1587;1.0095;
600.9000;0.1571;0.9977;
601.2000;0.1514;0.9692;
601.5000;0.1555;0.9669;
601.8000;0.1538;0.9479;
602.1000;0.1571;0.9503;
602.4000;0.1530;0.9337;
602.7000;0.1530;0.9218;
603.0000;0.1490;0.9147;
603.3000;0.1490;0.9218;
603.6000;0.1490;0.9124;
603.9000;0.1506;0.9242;
604.2000;0.1481;0.9147;
604.5000;0.1490;0.9124;
604.8000;0.1465;0.8981;
605.1000;0.1465;0.8958;
605.4000;0.1449;0.8863;
605.7000;0.1449;0.8887;
606.0000;0.1441;0.8792;
606.3000;0.1441;0.8673;
606.6000;0.1465;0.8792;
606.9000;0.1433;0.8697;
607.2000;0.1425;0.8721;
607.5000;0.1433;0.8768;
607.8000;0.1416;0.8839;
608.1000;0.1416;0.8863;
608.4000;0.1416;0.8839;
608.7000;0.1400;0.8744;
609.0000;0.1425;0.8721;
609.3000;0.1400;0.8673;
609.6000;0.1457;0.8768;
609.9000;0.1384;0.8602;
610.2000;0.1392;0.8579;
610.5000;0.1384;0.8555;
610.8000;0.1376;0.8650;
611.1000;0.1368;0.8673;
611.4000;0.1376;0.8744;
611.7000;0.1319;0.8579;
612.0000;0.1368;0.8697;
612.3000;0.1400;0.8673;
612.6000;0.1343;0.8579;
612.9000;0.1343;0.8531;
613.2000;0.1368;0.8531;
613.5000;0.1351;0.8602;
613.8000;0.1376;0.8721;
614.1000;0.1376;0.8673;
614.4000;0.1335;0.8579;
614.7000;0.1359;0.8626;
615.0000;0.1343;0.8531;
615.3000;0.1294;0.8318;
615.6000;0.1359;0.8413;
615.9000;0.1335;0.8318;
616.2000;0.1335;0.8294;
616.5000;0.1327;0.8460;
616.8000;0.1416;0.8626;
617.1000;0.1335;0.8342;
617.4000;0.1319;0.8318;
617.7000;0.1327;0.8318;
618.0000;0.1319;0.8365;
618.3000;0.1327;0.8413;
618.6000;0.1319;0.8294;
618.9000;0.1327;0.8342;
619.2000;0.1319;0.8318;
619.5000;0.1319;0.8247;
619.8000;0.1319;0.8270;
620.1000;0.1302;0.8223;
620.4000;0.1286;0.8223;
620.7000;0.1245;0.8128;
621.0000;0.1302;0.8342;
621.3000;0.1270;0.8342;
621.6000;0.1262;0.8342;
621.9000;0.1343;0.8484;
622.2000;0.1278;0.8318;
622.5000;0.1294;0.8318;
622.8000;0.1278;0.8270;
623.1000;0.1278;0.8270;
623.4000;0.1294;0.8176;
623.7000;0.1278;0.8081;
624.0000;0.1294;0.8152;
624.3000;0.1278;0.8105;
624.6000;0.1302;0.8199;
624.9000;0.1335;0.8342;
625.2000;0.1262;0.8247;
625.5000;0.1278;0.8389;
625.8000;0.1278;0.8436;
626.1000;0.1262;0.8389;
626.4000;0.1278;0.8460;
626.7000;0.1327;0.8507;
627.0000;0.1237;0.8318;
627.3000;0.1262;0.8484;
627.6000;0.1270;0.8436;
627.9000;0.1262;0.8413;
628.2000;0.1278;0.8436;
628.5000;0.1278;0.8365;
628.8000;0.1270;0.8342;
629.1000;0.1270;0.8365;
629.4000;0.1270;0.8318;
629.7000;0.1262;0.8318;
630.0000;0.1262;0.8389;
630.3000;0.1254;0.8365;
630.6000;0.1254;0.8413;
630.9000;0.1205;0.8223;
631.2000;0.1270;0.8460;
631.5000;0.1254;0.8436;
631.8000;0.1245;0.8484;
632.1000;0.1262;0.8555;
632.4000;0.1262;0.8555;
632.7000;0.1262;0.8531;
633.0000;0.1245;0.8507;
633.3000;0.1245;0.8555;
633.6000;0.1254;0.8531;
633.9000;0.1245;0.8555;
634.2000;0.1237;0.8460;
634.5000;0.1221;0.8531;
634.8000;0.1221;0.8531;
635.1000;0.1237;0.8602;
635.4000;0.1229;0.8531;
635.7000;0.1229;0.8507;
636.0000;0.1237;0.8484;
636.3000;0.1302;0.8555;
636.6000;0.1229;0.8413;
636.9000;0.1245;0.8436;
637.2000;0.1229;0.8413;
637.5000;0.1221;0.8436;
637.8000;0.1245;0.8484;
638.1000;0.1254;0.8507;
638.4000;0.1213;0.8413;
638.7000;0.1221;0.8389;
639.0000;0.1254;0.8484;
639.3000;0.1221;0.8413;
639.6000;0.1237;0.8413;
639.9000;0.1237;0.8389;
640.2000;0.1221;0.8318;
640.5000;0.1172;0.8270;
640.8000;0.1197;0.8365;
641.1000;0.1245;0.8460;
641.4000;0.1254;0.8413;
641.7000;0.1245;0.8365;
642.0000;0.1229;0.8342;
642.3000;0.1229;0.8389;
642.6000;0.1237;0.8436;
642.9000;0.1245;0.8531;
643.2000;0.1245;0.8555;
643.5000;0.1221;0.8507;
643.8000;0.1245;0.8579;
644.1000;0.1229;0.8555;
644.4000;0.1221;0.8531;
644.7000;0.1229;0.8460;
645.0000;0.1197;0.8365;
645.3000;0.1221;0.8413;
645.6000;0.1221;0.8389;
645.9000;0.1213;0.8389;
646.2000;0.1221;0.8436;
646.5000;0.1213;0.8413;
646.8000;0.1213;0.8579;
647.1000;0.1221;0.8650;
647.4000;0.1205;0.8697;
647.7000;0.1197;0.8650;
648.0000;0.1205;0.8531;
648.3000;0.1205;0.8507;
648.6000;0.1197;0.8436;
648.9000;0.1213;0.8460;
649.2000;0.1213;0.8460;
649.5000;0.1205;0.8413;
649.8000;0.1229;0.8531;
650.1000;0.1188;0.8484;
650.4000;0.1213;0.8507;
650.7000;0.1213;0.8507;
651.0000;0.1205;0.8507;
651.3000;0.1197;0.8436;
651.6000;0.1229;0.8436;
651.9000;0.1197;0.8247;
652.2000;0.1148;0.8128;
652.5000;0.1205;0.8270;
652.8000;0.1205;0.8294;
653.1000;0.1213;0.8365;
653.4000;0.1213;0.8460;
653.7000;0.1205;0.8484;
654.0000;0.1205;0.8507;
654.3000;0.1205;0.8531;
654.6000;0.1213;0.8673;
654.9000;0.1180;0.8579;
655.2000;0.1197;0.8650;
655.5000;0.1164;0.8579;
655.8000;0.1188;0.8602;
656.1000;0.1164;0.8579;
656.4000;0.1172;0.8650;
656.7000;0.1188;0.8626;
657.0000;0.1197;0.8602;
657.3000;0.1205;0.8626;
657.6000;0.1188;0.8602;
657.9000;0.1197;0.8626;
658.2000;0.1197;0.8602;
658.5000;0.1205;0.8507;
658.8000;0.1156;0.8365;
659.1000;0.1188;0.8460;
659.4000;0.1180;0.8413;
659.7000;0.1197;0.8484;
660.0000;0.1213;0.8507;
660.3000;0.1180;0.8365;
660.6000;0.1164;0.8342;
660.9000;0.1213;0.8484;
661.2000;0.1188;0.8413;
661.5000;0.1188;0.8507;
661.8000;0.1180;0.8460;
662.1000;0.1180;0.8507;
662.4000;0.1172;0.8436;
662.7000;0.1164;0.8389;
663.0000;0.1180;0.8389;
663.3000;0.1213;0.8460;
663.6000;0.1245;0.8555;
663.9000;0.1188;0.8436;
664.2000;0.1180;0.8484;
664.5000;0.1188;0.8555;
664.8000;0.1205;0.8602;
665.1000;0.1172;0.8555;
665.4000;0.1197;0.8460;
665.7000;0.1180;0.8389;
666.0000;0.1188;0.8507;
666.3000;0.1197;0.8436;
666.6000;0.1188;0.8365;
666.9000;0.1262;0.8602;
667.2000;0.1188;0.8413;
667.5000;0.1197;0.8389;
667.8000;0.1148;0.8342;
668.1000;0.1131;0.8436;
668.4000;0.1164;0.8531;
668.7000;0.1188;0.8673;
669.0000;0.1172;0.8650;
669.3000;0.1156;0.8650;
669.6000;0.1164;0.8697;
669.9000;0.1229;0.8792;
670.2000;0.1188;0.8697;
670.5000;0.1172;0.8626;
670.8000;0.1197;0.8626;
671.1000;0.1180;0.8602;
671.4000;0.1172;0.8436;
671.7000;0.1172;0.8318;
672.0000;0.1164;0.8365;
672.3000;0.1197;0.8436;
672.6000;0.1172;0.8555;
672.9000;0.1180;0.8579;
673.2000;0.1164;0.8555;
673.5000;0.1148;0.8507;
673.8000;0.1164;0.8531;
674.1000;0.1197;0.8626;
674.4000;0.1180;0.8602;
674.7000;0.1172;0.8602;
675.0000;0.1188;0.8555;
675.3000;0.1172;0.8460;
675.6000;0.1180;0.8413;
675.9000;0.1164;0.8389;
676.2000;0.1180;0.8436;
676.5000;0.1156;0.8389;
676.8000;0.1156;0.8365;
677.1000;0.1164;0.8342;
677.4000;0.1164;0.8342;
677.7000;0.1197;0.8436;
678.0000;0.1172;0.8460;
678.3000;0.1164;0.8413;
678.6000;0.1148;0.8389;
678.9000;0.1180;0.8507;
679.2000;0.1164;0.8507;
679.5000;0.1156;0.8507;
679.8000;0.1262;0.8673;
680.1000;0.1180;0.8484;
680.4000;0.1164;0.8484;
680.7000;0.1172;0.8531;
681.0000;0.1148;0.8507;
681.3000;0.1164;0.8484;
681.6000;0.1140;0.8460;
681.9000;0.1164;0.8602;
682.2000;0.1156;0.8507;
682.5000;0.1164;0.8484;
682.8000;0.1164;0.8531;
683.1000;0.1164;0.8555;
683.4000;0.1156;0.8531;
683.7000;0.1148;0.8484;
684.0000;0.1156;0.8484;
684.3000;0.1164;0.8389;
684.6000;0.1148;0.8365;
684.9000;0.1180;0.8436;
685.2000;0.1148;0.8342;
685.5000;0.1156;0.8342;
685.8000;0.1140;0.8318;
686.1000;0.1180;0.8318;
686.4000;0.1140;0.8318;
686.7000;0.1156;0.8247;
687.0000;0.1180;0.8270;
687.3000;0.1164;0.8270;
687.6000;0.1172;0.8247;
687.9000;0.1156;0.8152;
688.2000;0.1172;0.8199;
688.5000;0.1164;0.8176;
688.8000;0.1164;0.8270;
689.1000;0.1148;0.8270;
689.4000;0.1164;0.8436;
689.7000;0.1164;0.8460;
690.0000;0.1156;0.8318;
690.3000;0.1148;0.8247;
690.6000;0.1156;0.8318;
690.9000;0.1123;0.8270;
691.2000;0.1066;0.8105;
691.5000;0.1115;0.8223;
691.8000;0.1115;0.8176;
692.1000;0.1140;0.8270;
692.4000;0.1148;0.8294;
692.7000;0.1156;0.8294;
693.0000;0.1156;0.8342;
693.3000;0.1172;0.8389;
693.6000;0.1156;0.8436;
693.9000;0.1148;0.8389;
694.2000;0.1140;0.8436;
694.5000;0.1107;0.8484;
694.8000;0.1148;0.8484;
695.1000;0.1148;0.8413;
695.4000;0.1156;0.8365;
695.7000;0.1148;0.8342;
696.0000;0.1140;0.8365;
696.3000;0.1131;0.8413;
696.6000;0.1140;0.8436;
696.9000;0.1148;0.8342;
697.2000;0.1148;0.8342;
697.5000;0.1164;0.8389;
697.8000;0.1148;0.8294;
698.1000;0.1221;0.8555;
698.4000;0.1156;0.8342;
698.7000;0.1074;0.8176;
699.0000;0.1140;0.8389;
699.3000;0.1131;0.8389;
699.6000;0.1148;0.8484;
699.9000;0.1148;0.8555;
700.2000;0.1148;0.8460;
700.5000;0.1156;0.8507;
700.8000;0.1148;0.8413;
701.1000;0.1148;0.8555;
701.4000;0.1140;0.8602;
701.7000;0.1148;0.8602;
702.0000;0.1131;0.8531;
702.3000;0.1148;0.8579;
702.6000;0.1123;0.8484;
702.9000;0.1148;0.8555;
703.2000;0.1123;0.8413;
703.5000;0.1131;0.8531;
703.8000;0.1123;0.8460;
704.1000;0.1140;0.8484;
704.4000;0.1164;0.8531;
704.7000;0.1148;0.8507;
705.0000;0.1140;0.8555;
705.3000;0.1148;0.8579;
705.6000;0.1140;0.8507;
705.9000;0.1164;0.8602;
706.2000;0.1140;0.8555;
706.5000;0.1172;0.8626;
706.8000;0.1148;0.8579;
707.1000;0.1131;0.8579;
707.4000;0.1148;0.8626;
707.7000;0.1148;0.8673;
708.0000;0.1123;0.8531;
708.3000;0.1131;0.8579;
708.6000;0.1148;0.8602;
708.9000;0.1099;0.8484;
709.2000;0.1140;0.8602;
709.5000;0.1115;0.8579;
709.8000;0.1140;0.8650;
710.1000;0.1148;0.8650;
710.4000;0.1140;0.8579;
710.7000;0.1123;0.8460;
711.0000;0.1131;0.8531;
711.3000;0.1131;0.8602;
711.6000;0.1131;0.8602;
711.9000;0.1140;0.8626;
712.2000;0.1123;0.8626;
712.5000;0.1115;0.8579;
712.8000;0.1148;0.8697;
713.1000;0.1131;0.8650;
713.4000;0.1140;0.8626;
713.7000;0.1164;0.8650;
714.0000;0.1148;0.8626;
714.3000;0.1172;0.8650;
714.6000;0.1123;0.8460;
714.9000;0.1123;0.8436;
715.2000;0.1148;0.8507;
715.5000;0.1140;0.8484;
715.8000;0.1148;0.8507;
716.1000;0.1140;0.8555;
716.4000;0.1140;0.8507;
716.7000;0.1164;0.8555;
717.0000;0.1148;0.8555;
717.3000;0.1140;0.8531;
717.6000;0.1156;0.8602;
717.9000;0.1131;0.8579;
718.2000;0.1131;0.8626;
718.5000;0.1188;0.8744;
718.8000;0.1131;0.8555;
719.1000;0.1140;0.8507;
719.4000;0.1148;0.8602;
719.7000;0.1131;0.8721;
720.0000;0.1140;0.8650;
720.3000;0.1131;0.8579;
720.6000;0.1180;0.8602;
720.9000;0.1131;0.8507;
721.2000;0.1140;0.8507;
721.5000;0.1164;0.8579;
721.8000;0.1148;0.8484;
722.1000;0.1140;0.8579;
722.4000;0.1140;0.8626;
722.7000;0.1115;0.8673;
723.0000;0.1099;0.8626;
723.3000;0.1140;0.8697;
723.6000;0.1115;0.8673;
723.9000;0.1107;0.8650;
724.2000;0.1197;0.8815;
724.5000;0.1123;0.8602;
724.8000;0.1148;0.8673;
725.1000;0.1107;0.8602;
725.4000;0.1115;0.8602;
725.7000;0.1123;0.8555;
726.0000;0.1148;0.8531;
726.3000;0.1131;0.8413;
726.6000;0.1131;0.8484;
726.9000;0.1140;0.8507;
727.2000;0.1131;0.8626;
727.5000;0.1140;0.8721;
727.8000;0.1123;0.8697;
728.1000;0.1131;0.8626;
728.4000;0.1123;0.8579;
728.7000;0.1123;0.8602;
729.0000;0.1115;0.8531;
729.3000;0.1123;0.8579;
729.6000;0.1115;0.8507;
729.9000;0.1188;0.8650;
730.2000;0.1115;0.8507;
730.5000;0.1123;0.8555;
730.8000;0.1115;0.8555;
731.1000;0.1131;0.8673;
731.4000;0.1074;0.8555;
731.7000;0.1115;0.8697;
732.0000;0.1156;0.8768;
732.3000;0.1099;0.8602;
732.6000;0.1131;0.8626;
732.9000;0.1131;0.8626;
733.2000;0.1115;0.8579;
733.5000;0.1148;0.8626;
733.8000;0.1099;0.8602;
734.1000;0.1115;0.8626;
734.4000;0.1083;0.8460;
734.7000;0.1123;0.8555;
735.0000;0.1123;0.8555;
735.3000;0.1131;0.8555;
735.6000;0.1131;0.8531;
735.9000;0.1140;0.8602;
736.2000;0.1131;0.8650;
736.5000;0.1172;0.8721;
736.8000;0.1123;0.8626;
737.1000;0.1156;0.8721;
737.4000;0.1115;0.8579;
737.7000;0.1115;0.8579;
738.0000;0.1115;0.8507;
738.3000;0.1123;0.8555;
738.6000;0.1123;0.8555;
738.9000;0.1050;0.8365;
739.2000;0.1107;0.8531;
739.5000;0.1099;0.8555;
739.8000;0.1131;0.8555;
740.1000;0.1050;0.8342;
740.4000;0.1123;0.8531;
740.7000;0.1107;0.8436;
741.0000;0.1115;0.8484;
741.3000;0.1115;0.8531;
741.6000;0.1131;0.8555;
741.9000;0.1115;0.8460;
742.2000;0.1131;0.8484;
742.5000;0.1107;0.8531;
742.8000;0.1099;0.8507;
743.1000;0.1115;0.8602;
743.4000;0.1115;0.8602;
743.7000;0.1099;0.8531;
744.0000;0.1099;0.8507;
744.3000;0.1115;0.8626;
744.6000;0.1115;0.8626;
744.9000;0.1099;0.8602;
745.2000;0.1107;0.8602;
745.5000;0.1115;0.8602;
745.8000;0.1107;0.8507;
746.1000;0.1107;0.8484;
746.4000;0.1131;0.8531;
746.7000;0.1140;0.8697;
747.0000;0.1107;0.8555;
747.3000;0.1115;0.8555;
747.6000;0.1123;0.8650;
747.9000;0.1140;0.8721;
748.2000;0.1131;0.8697;
748.5000;0.1123;0.8650;
748.8000;0.1140;0.8650;
749.1000;0.1148;0.8626;
749.4000;0.1115;0.8555;
749.7000;0.1099;0.8484;
750.0000;0.1115;0.8507;
750.3000;0.1115;0.8531;
750.6000;0.1123;0.8531;
750.9000;0.1131;0.8555;
751.2000;0.1115;0.8413;
751.5000;0.1115;0.8365;
751.8000;0.1123;0.8413;
752.1000;0.1115;0.8484;
752.4000;0.1164;0.8579;
752.7000;0.1115;0.8436;
753.0000;0.1123;0.8389;
753.3000;0.1107;0.8365;
753.6000;0.1148;0.8436;
753.9000;0.1099;0.8294;
754.2000;0.1123;0.8365;
754.5000;0.1131;0.8413;
754.8000;0.1115;0.8389;
755.1000;0.1099;0.8436;
755.4000;0.1091;0.8460;
755.7000;0.1099;0.8436;
756.0000;0.1074;0.8294;
756.3000;0.1074;0.8270;
756.6000;0.1099;0.8365;
756.9000;0.1107;0.8365;
757.2000;0.1099;0.8389;
757.5000;0.1099;0.8436;
757.8000;0.1107;0.8389;
758.1000;0.1123;0.8555;
758.4000;0.1115;0.8531;
758.7000;0.1115;0.8579;
759.0000;0.1156;0.8626;
759.3000;0.1140;0.8626;
759.6000;0.1140;0.8626;
759.9000;0.1099;0.8460;
760.2000;0.1099;0.8460;
760.5000;0.1123;0.8507;
760.8000;0.1099;0.8436;
761.1000;0.1115;0.8436;
761.4000;0.1107;0.8389;
761.7000;0.1123;0.8365;
762.0000;0.1156;0.8294;
762.3000;0.1099;0.8318;
762.6000;0.1115;0.8389;
762.9000;0.1099;0.8365;
763.2000;0.1074;0.8365;
763.5000;0.1123;0.8507;
763.8000;0.1131;0.8579;
764.1000;0.1107;0.8531;
764.4000;0.1115;0.8555;
764.7000;0.1115;0.8484;
765.0000;0.1115;0.8531;
765.3000;0.1099;0.8460;
765.6000;0.1123;0.8555;
765.9000;0.1115;0.8626;
766.2000;0.1115;0.8626;
766.5000;0.1123;0.8602;
766.8000;0.1074;0.8555;
767.1000;0.1115;0.8602;
767.4000;0.1115;0.8555;
767.7000;0.1107;0.8555;
768.0000;0.1107;0.8579;
768.3000;0.1099;0.8602;
768.6000;0.1107;0.8531;
768.9000;0.1099;0.8555;
769.2000;0.1107;0.8697;
769.5000;0.1099;0.8721;
769.8000;0.1123;0.8697;
770.1000;0.1115;0.8579;
770.4000;0.1099;0.8555;
770.7000;0.1083;0.8531;
771.0000;0.1099;0.8579;
771.3000;0.1107;0.8555;
771.6000;0.1107;0.8555;
771.9000;0.1099;0.8555;
772.2000;0.1074;0.8484;
772.5000;0.1115;0.8602;
772.8000;0.1115;0.8626;
773.1000;0.1107;0.8579;
773.4000;0.1091;0.8531;
773.7000;0.1107;0.8531;
774.0000;0.1115;0.8579;
774.3000;0.1123;0.8650;
774.6000;0.1099;0.8555;
774.9000;0.1131;0.8602;
775.2000;0.1123;0.8579;
775.5000;0.1131;0.8673;
775.8000;0.1115;0.8579;
776.1000;0.1115;0.8602;
776.4000;0.1115;0.8602;
776.7000;0.1115;0.8555;
777.0000;0.1099;0.8531;
777.3000;0.1115;0.8413;
777.6000;0.1123;0.8436;
777.9000;0.1099;0.8365;
778.2000;0.1091;0.8294;
778.5000;0.1131;0.8507;
778.8000;0.1083;0.8342;
779.1000;0.1131;0.8389;
779.4000;0.1115;0.8342;
779.7000;0.1131;0.8342;
780.0000;0.1123;0.8413;
780.3000;0.1115;0.8436;
780.6000;0.1107;0.8484;
780.9000;0.1018;0.8318;
781.2000;0.1099;0.8555;
781.5000;0.1115;0.8602;
781.8000;0.1099;0.8602;
782.1000;0.1091;0.8579;
782.4000;0.1115;0.8555;
782.7000;0.1115;0.8460;
783.0000;0.1107;0.8318;
783.3000;0.1107;0.8365;
783.6000;0.1099;0.8436;
783.9000;0.1148;0.8697;
784.2000;0.1115;0.8555;
784.5000;0.1107;0.8579;
784.8000;0.1107;0.8602;
785.1000;0.1131;0.8602;
785.4000;0.1107;0.8484;
785.7000;0.1099;0.8484;
786.0000;0.1074;0.8365;
786.3000;0.1115;0.8460;
786.6000;0.1115;0.8460;
786.9000;0.1172;0.8650;
787.2000;0.1107;0.8460;
787.5000;0.1107;0.8484;
787.8000;0.1107;0.8460;
788.1000;0.1107;0.8436;
788.4000;0.1107;0.8413;
788.7000;0.1107;0.8436;
789.0000;0.1091;0.8436;
789.3000;0.1099;0.8342;
789.6000;0.1099;0.8365;
789.9000;0.1099;0.8342;
790.2000;0.1091;0.8389;
790.5000;0.1115;0.8507;
790.8000;0.1066;0.8342;
791.1000;0.1099;0.8436;
791.4000;0.1099;0.8507;
791.7000;0.1099;0.8413;
792.0000;0.1123;0.8436;
792.3000;0.1115;0.8389;
792.6000;0.1115;0.8389;
792.9000;0.1156;0.8460;
793.2000;0.1107;0.8365;
793.5000;0.1115;0.8318;
793.8000;0.1115;0.8294;
794.1000;0.1123;0.8270;
794.4000;0.1123;0.8247;
794.7000;0.1123;0.8294;
795.0000;0.1107;0.8294;
795.3000;0.1107;0.8294;
795.6000;0.1107;0.8247;
795.9000;0.1107;0.8318;
796.2000;0.1107;0.8270;
796.5000;0.1107;0.8247;
796.8000;0.1074;0.8199;
797.1000;0.1115;0.8342;
797.4000;0.1107;0.8342;
797.7000;0.1091;0.8270;
798.0000;0.1140;0.8342;
798.3000;0.1107;0.8342;
798.6000;0.1131;0.8365;
798.9000;0.1123;0.8436;
799.2000;0.1083;0.8507;
799.5000;0.1148;0.8579;
799.8000;0.1123;0.8626;
800.1000;0.1123;0.8626;
800.4000;0.1091;0.8555;
800.7000;0.1091;0.8531;
801.0000;0.1099;0.8579;
801.3000;0.1140;0.8626;
801.6000;0.1091;0.8507;
801.9000;0.1115;0.8555;
802.2000;0.1107;0.8602;
802.5000;0.1107;0.8626;
802.8000;0.1009;0.8342;
803.1000;0.1107;0.8460;
803.4000;0.1107;0.8555;
803.7000;0.1107;0.8626;
804.0000;0.1107;0.8673;
804.3000;0.1115;0.8697;
804.6000;0.1115;0.8721;
804.9000;0.1107;0.8721;
805.2000;0.1107;0.8673;
805.5000;0.1091;0.8602;
805.8000;0.1091;0.8673;
806.1000;0.1074;0.8602;
806.4000;0.1140;0.8815;
806.7000;0.1156;0.8934;
807.0000;0.1099;0.8697;
807.3000;0.1107;0.8744;
807.6000;0.1107;0.8815;
807.9000;0.1107;0.8721;
808.2000;0.1107;0.8673;
808.5000;0.1107;0.8744;
808.8000;0.1115;0.8768;
809.1000;0.1099;0.8744;
809.4000;0.1099;0.8744;
809.7000;0.1058;0.8555;
810.0000;0.1083;0.8602;
810.3000;0.1107;0.8650;
810.6000;0.1058;0.8484;
810.9000;0.1148;0.8815;
811.2000;0.1099;0.8673;
811.5000;0.1107;0.8650;
811.8000;0.1115;0.8602;
812.1000;0.1083;0.8579;
812.4000;0.1115;0.8650;
812.7000;0.1099;0.8626;
813.0000;0.1107;0.8626;
813.3000;0.1099;0.8673;
813.6000;0.1099;0.8697;
813.9000;0.1115;0.8673;
814.2000;0.1107;0.8579;
814.5000;0.1083;0.8531;
814.8000;0.1099;0.8602;
815.1000;0.1107;0.8650;
815.4000;0.1099;0.8673;
815.7000;0.1099;0.8721;
816.0000;0.1164;0.8839;
816.3000;0.1107;0.8602;
816.6000;0.1099;0.8650;
816.9000;0.1091;0.8650;
817.2000;0.1123;0.8673;
817.5000;0.1115;0.8744;
817.8000;0.1107;0.8697;
818.1000;0.1164;0.8792;
818.4000;0.1099;0.8744;
818.7000;0.1131;0.8792;
819.0000;0.1123;0.8839;
819.3000;0.1107;0.8792;
819.6000;0.1091;0.8673;
819.9000;0.1074;0.8579;
820.2000;0.1107;0.8602;
820.5000;0.1131;0.8697;
820.8000;0.1091;0.8650;
821.1000;0.1123;0.8673;
821.4000;0.1099;0.8555;
821.7000;0.1091;0.8507;
822.0000;0.1042;0.8342;
822.3000;0.1107;0.8602;
822.6000;0.1131;0.8626;
822.9000;0.1099;0.8602;
823.2000;0.1091;0.8531;
823.5000;0.1099;0.8555;
823.8000;0.1107;0.8602;
824.1000;0.1148;0.8579;
824.4000;0.1099;0.8484;
824.7000;0.1115;0.8626;
825.0000;0.1091;0.8579;
825.3000;0.1115;0.8602;
825.6000;0.1148;0.8697;
825.9000;0.1099;0.8484;
826.2000;0.1091;0.8460;
826.5000;0.1099;0.8365;
826.8000;0.1140;0.8484;
827.1000;0.1107;0.8460;
827.4000;0.1091;0.8484;
827.7000;0.1083;0.8484;
828.0000;0.1107;0.8579;
828.3000;0.1099;0.8531;
828.6000;0.1115;0.8531;
828.9000;0.1107;0.8507;
829.2000;0.1099;0.8579;
829.5000;0.1123;0.8626;
829.8000;0.1091;0.8531;
830.1000;0.1123;0.8484;
830.4000;0.1099;0.8389;
830.7000;0.1107;0.8484;
831.0000;0.1107;0.8507;
831.3000;0.1107;0.8579;
831.6000;0.1107;0.8579;
831.9000;0.1099;0.8531;
832.2000;0.1083;0.8579;
832.5000;0.1099;0.8507;
832.8000;0.1083;0.8507;
833.1000;0.1140;0.8721;
833.4000;0.1066;0.8531;
833.7000;0.1091;0.8650;
834.0000;0.1091;0.8650;
834.3000;0.1050;0.8507;
834.6000;0.1099;0.8697;
834.9000;0.1091;0.8721;
835.2000;0.1099;0.8721;
835.5000;0.1091;0.8744;
835.8000;0.1123;0.8744;
836.1000;0.1140;0.8815;
836.4000;0.1099;0.8744;
836.7000;0.1074;0.8673;
837.0000;0.1107;0.8673;
837.3000;0.1107;0.8673;
837.6000;0.1107;0.8626;
837.9000;0.1107;0.8626;
838.2000;0.1099;0.8579;
838.5000;0.1091;0.8579;
838.8000;0.1074;0.8531;
839.1000;0.1091;0.8484;
839.4000;0.1083;0.8460;
839.7000;0.1115;0.8460;
840.0000;0.1083;0.8484;
840.3000;0.1099;0.8484;
840.6000;0.1091;0.8531;
840.9000;0.1099;0.8555;
841.2000;0.1123;0.8626;
841.5000;0.1115;0.8673;
841.8000;0.1050;0.8507;
842.1000;0.1180;0.8887;
842.4000;0.1107;0.8673;
842.7000;0.1156;0.8815;
843.0000;0.1107;0.8602;
843.3000;0.1099;0.8531;
843.6000;0.1083;0.8365;
843.9000;0.1099;0.8436;
844.2000;0.1107;0.8413;
844.5000;0.1091;0.8413;
844.8000;0.1099;0.8436;
845.1000;0.1099;0.8460;
845.4000;0.1074;0.8413;
845.7000;0.1066;0.8413;
846.0000;0.1091;0.8460;
846.3000;0.1107;0.8602;
846.6000;0.1115;0.8626;
846.9000;0.1099;0.8579;
847.2000;0.1099;0.8460;
847.5000;0.1107;0.8531;
847.8000;0.1115;0.8531;
848.1000;0.1091;0.8460;
848.4000;0.1099;0.8507;
848.7000;0.1091;0.8555;
849.0000;0.1115;0.8697;
849.3000;0.1091;0.8602;
849.6000;0.1083;0.8626;
849.9000;0.1131;0.8792;
850.2000;0.1083;0.8721;
850.5000;0.1099;0.8673;
850.8000;0.1091;0.8579;
851.1000;0.1107;0.8602;
851.4000;0.1099;0.8650;
851.7000;0.1099;0.8673;
852.0000;0.1091;0.8650;
852.3000;0.1091;0.8602;
852.6000;0.1107;0.8626;
852.9000;0.1107;0.8555;
853.2000;0.1066;0.8579;
853.5000;0.1066;0.8531;
853.8000;0.1107;0.8579;
854.1000;0.1083;0.8531;
854.4000;0.1050;0.8365;
854.7000;0.1099;0.8389;
855.0000;0.1115;0.8436;
855.3000;0.1131;0.8484;
855.6000;0.1099;0.8413;
855.9000;0.1091;0.8389;
856.2000;0.1074;0.8318;
856.5000;0.1099;0.8342;
856.8000;0.1091;0.8342;
857.1000;0.1091;0.8365;
857.4000;0.1107;0.8365;
857.7000;0.1099;0.8413;
858.0000;0.1107;0.8436;
858.3000;0.1164;0.8555;
858.6000;0.1099;0.8389;
858.9000;0.1099;0.8365;
859.2000;0.1091;0.8318;
859.5000;0.1099;0.8342;
859.8000;0.1107;0.8389;
860.1000;0.1083;0.8389;
860.4000;0.1115;0.8318;
860.7000;0.1099;0.8342;
861.0000;0.1066;0.8318;
861.3000;0.1074;0.8413;
861.6000;0.1083;0.8413;
861.9000;0.1107;0.8484;
862.2000;0.1115;0.8436;
862.5000;0.1091;0.8484;
862.8000;0.1099;0.8365;
863.1000;0.1123;0.8365;
863.4000;0.1099;0.8270;
863.7000;0.1099;0.8199;
864.0000;0.1107;0.8247;
864.3000;0.1091;0.8270;
864.6000;0.1091;0.8294;
864.9000;0.1099;0.8365;
865.2000;0.1083;0.8342;
865.5000;0.1091;0.8460;
865.8000;0.1091;0.8460;
866.1000;0.1083;0.8389;
866.4000;0.1131;0.8507;
866.7000;0.1107;0.8342;
867.0000;0.1099;0.8270;
867.3000;0.1091;0.8270;
867.6000;0.1099;0.8318;
867.9000;0.1107;0.8389;
868.2000;0.1123;0.8460;
868.5000;0.1099;0.8413;
868.8000;0.1091;0.8318;
869.1000;0.1115;0.8389;
869.4000;0.1107;0.8436;
869.7000;0.1026;0.8176;
870.0000;0.1099;0.8365;
870.3000;0.1099;0.8365;
870.6000;0.1074;0.8247;
870.9000;0.1107;0.8318;
871.2000;0.1091;0.8365;
871.5000;0.1066;0.8365;
871.8000;0.1099;0.8436;
872.1000;0.1107;0.8389;
872.4000;0.1107;0.8342;
872.7000;0.1083;0.8342;
873.0000;0.1091;0.8342;
873.3000;0.1123;0.8413;
873.6000;0.1107;0.8342;
873.9000;0.1083;0.8223;
874.2000;0.1091;0.8270;
874.5000;0.1115;0.8294;
874.8000;0.1107;0.8318;
875.1000;0.1140;0.8531;
875.4000;0.1099;0.8507;
875.7000;0.1107;0.8436;
876.0000;0.1091;0.8413;
876.3000;0.1091;0.8460;
876.6000;0.1123;0.8531;
876.9000;0.1091;0.8460;
877.2000;0.1099;0.8389;
877.5000;0.1066;0.8294;
877.8000;0.1091;0.8507;
878.1000;0.1050;0.8436;
878.4000;0.1074;0.8507;
878.7000;0.1091;0.8507;
879.0000;0.1107;0.8507;
879.3000;0.1074;0.8342;
879.6000;0.1099;0.8389;
879.9000;0.1131;0.8484;
880.2000;0.1050;0.8294;
880.5000;0.1115;0.8507;
880.8000;0.1083;0.8389;
881.1000;0.1140;0.8507;
881.4000;0.1107;0.8342;
881.7000;0.1115;0.8342;
882.0000;0.1107;0.8294;
882.3000;0.1148;0.8484;
882.6000;0.1099;0.8342;
882.9000;0.1083;0.8413;
883.2000;0.1091;0.8413;
883.5000;0.1099;0.8342;
883.8000;0.1099;0.8342;
884.1000;0.1091;0.8389;
884.4000;0.1099;0.8365;
884.7000;0.1099;0.8413;
885.0000;0.1107;0.8436;
885.3000;0.1115;0.8531;
885.6000;0.1107;0.8579;
885.9000;0.1156;0.8626;
886.2000;0.1099;0.8436;
886.5000;0.1107;0.8460;
886.8000;0.1091;0.8413;
887.1000;0.1107;0.8484;
887.4000;0.1115;0.8507;
887.7000;0.1083;0.8484;
888.0000;0.1091;0.8507;
888.3000;0.1091;0.8436;
888.6000;0.1074;0.8436;
888.9000;0.1083;0.8531;
889.2000;0.1091;0.8555;
889.5000;0.1099;0.8602;
889.8000;0.1034;0.8389;
890.1000;0.1091;0.8602;
890.4000;0.1091;0.8626;
890.7000;0.1083;0.8555;
891.0000;0.1083;0.8436;
891.3000;0.1099;0.8365;
891.6000;0.1115;0.8389;
891.9000;0.1123;0.8342;
892.2000;0.1099;0.8270;
892.5000;0.1107;0.8294;
892.8000;0.1115;0.8294;
893.1000;0.1115;0.8318;
893.4000;0.1107;0.8247;
893.7000;0.1083;0.8199;
894.0000;0.1091;0.8270;
894.3000;0.1099;0.8342;
894.6000;0.1099;0.8413;
894.9000;0.1123;0.8413;
895.2000;0.1099;0.8318;
895.5000;0.1099;0.8342;
895.8000;0.1026;0.8128;
896.1000;0.1115;0.8342;
896.4000;0.1107;0.8342;
896.7000;0.1115;0.8294;
897.0000;0.1115;0.8318;
897.3000;0.1083;0.8318;
897.6000;0.1091;0.8342;
897.9000;0.1131;0.8460;
898.2000;0.1099;0.8389;
898.5000;0.1099;0.8436;
898.8000;0.1099;0.8436;
899.1000;0.1099;0.8484;
899.4000;0.1115;0.8555;
899.7000;0.1083;0.8460;
900.0000;0.1091;0.8460;
900.3000;0.1099;0.8413;
900.6000;0.1091;0.8460;
900.9000;0.1099;0.8484;
901.2000;0.1083;0.8507;
901.5000;0.1099;0.8555;
901.8000;0.1115;0.8507;
902.1000;0.1140;0.8413;
902.4000;0.1107;0.8294;
902.7000;0.1091;0.8199;
903.0000;0.1099;0.8270;
903.3000;0.1058;0.8152;
903.6000;0.1091;0.8176;
903.9000;0.1083;0.8152;
904.2000;0.1091;0.8176;
904.5000;0.1107;0.8199;
904.8000;0.1107;0.8247;
905.1000;0.1172;0.8460;
905.4000;0.1107;0.8270;
905.7000;0.1107;0.8318;
906.0000;0.1091;0.8342;
906.3000;0.1099;0.8365;
906.6000;0.1099;0.8365;
906.9000;0.1115;0.8318;
907.2000;0.1115;0.8294;
907.5000;0.1050;0.8199;
907.8000;0.1083;0.8318;
908.1000;0.1107;0.8270;
908.4000;0.1107;0.8365;
908.7000;0.1074;0.8365;
909.0000;0.1099;0.8507;
909.3000;0.1083;0.8555;
909.6000;0.1091;0.8579;
909.9000;0.1107;0.8626;
910.2000;0.1083;0.8507;
910.5000;0.1083;0.8507;
910.8000;0.1107;0.8507;
911.1000;0.1091;0.8555;
911.4000;0.1083;0.8555;
911.7000;0.1083;0.8507;
912.0000;0.1074;0.8484;
912.3000;0.1107;0.8531;
912.6000;0.1107;0.8579;
912.9000;0.1107;0.8579;
913.2000;0.1107;0.8484;
913.5000;0.1107;0.8436;
913.8000;0.1091;0.8389;
914.1000;0.1115;0.8413;
914.4000;0.1107;0.8365;
914.7000;0.1091;0.8460;
915.0000;0.1107;0.8531;
915.3000;0.1083;0.8342;
915.6000;0.1091;0.8342;
915.9000;0.1099;0.8318;
916.2000;0.1091;0.8294;
916.5000;0.1115;0.8318;
916.8000;0.1091;0.8342;
917.1000;0.1083;0.8294;
917.4000;0.1099;0.8365;
917.7000;0.1107;0.8389;
918.0000;0.1083;0.8342;
918.3000;0.1091;0.8365;
918.6000;0.1074;0.8247;
918.9000;0.1026;0.8128;
919.2000;0.1099;0.8270;
919.5000;0.1091;0.8152;
919.8000;0.1099;0.8270;
920.1000;0.1091;0.8270;
920.4000;0.1091;0.8389;
920.7000;0.1083;0.8365;
921.0000;0.1091;0.8318;
921.3000;0.1074;0.8247;
921.6000;0.1091;0.8294;
921.9000;0.1083;0.8223;
922.2000;0.1074;0.8176;
922.5000;0.1091;0.8223;
922.8000;0.1099;0.8365;
923.1000;0.1107;0.8413;
923.4000;0.1083;0.8318;
923.7000;0.1099;0.8365;
924.0000;0.1099;0.8342;
924.3000;0.1074;0.8270;
924.6000;0.1099;0.8294;
924.9000;0.1091;0.8318;
925.2000;0.1091;0.8365;
925.5000;0.1099;0.8318;
925.8000;0.1107;0.8389;
926.1000;0.1099;0.8318;
926.4000;0.1123;0.8460;
926.7000;0.1099;0.8389;
927.0000;0.1099;0.8294;
927.3000;0.1083;0.8342;
927.6000;0.1123;0.8460;
927.9000;0.1083;0.8342;
928.2000;0.1091;0.8365;
928.5000;0.1083;0.8318;
928.8000;0.1083;0.8365;
929.1000;0.1107;0.8460;
929.4000;0.1115;0.8484;
929.7000;0.1107;0.8484;
930.0000;0.1083;0.8555;
930.3000;0.1115;0.8602;
930.6000;0.1074;0.8555;
930.9000;0.1074;0.8626;
931.2000;0.1083;0.8602;
931.5000;0.1083;0.8626;
931.8000;0.1115;0.8602;
932.1000;0.1107;0.8673;
932.4000;0.1074;0.8650;
932.7000;0.1083;0.8626;
933.0000;0.1050;0.8602;
933.3000;0.1083;0.8697;
933.6000;0.1074;0.8626;
933.9000;0.1091;0.8626;
934.2000;0.1099;0.8721;
934.5000;0.1091;0.8721;
934.8000;0.1131;0.8768;
935.1000;0.1001;0.8555;
935.4000;0.1091;0.8744;
935.7000;0.1099;0.8744;
936.0000;0.1018;0.8579;
936.3000;0.1099;0.8744;
936.6000;0.1091;0.8697;
936.9000;0.1091;0.8792;
937.2000;0.1115;0.8863;
937.5000;0.1099;0.8839;
937.8000;0.1066;0.8579;
938.1000;0.1107;0.8673;
938.4000;0.1099;0.8673;
938.7000;0.1107;0.8602;
939.0000;0.1091;0.8602;
939.3000;0.1091;0.8507;
939.6000;0.1115;0.8507;
939.9000;0.1091;0.8579;
940.2000;0.1074;0.8579;
940.5000;0.1148;0.8863;
940.8000;0.1083;0.8721;
941.1000;0.1107;0.8555;
941.4000;0.1091;0.8507;
941.7000;0.1091;0.8531;
942.0000;0.1026;0.8436;
942.3000;0.1099;0.8626;
942.6000;0.1091;0.8579;
942.9000;0.1083;0.8579;
943.2000;0.1091;0.8626;
943.5000;0.1091;0.8579;
943.8000;0.1091;0.8602;
944.1000;0.1099;0.8650;
944.4000;0.1099;0.8721;
944.7000;0.1058;0.8650;
945.0000;0.1099;0.8697;
945.3000;0.1091;0.8721;
945.6000;0.1091;0.8673;
945.9000;0.1091;0.8579;
946.2000;0.1091;0.8673;
946.5000;0.1074;0.8602;
946.8000;0.1099;0.8626;
947.1000;0.1074;0.8579;
947.4000;0.1099;0.8555;
947.7000;0.1107;0.8555;
948.0000;0.1083;0.8507;
948.3000;0.1099;0.8531;
948.6000;0.1148;0.8744;
948.9000;0.1099;0.8507;
949.2000;0.1115;0.8436;
949.5000;0.1026;0.8199;
949.8000;0.1099;0.8389;
950.1000;0.1091;0.8413;
950.4000;0.1083;0.8389;
950.7000;0.1140;0.8555;
951.0000;0.1099;0.8436;
951.3000;0.1042;0.8223;
951.6000;0.1123;0.8484;
951.9000;0.1009;0.8247;
952.2000;0.1091;0.8436;
952.5000;0.1107;0.8436;
952.8000;0.1099;0.8507;
953.1000;0.1099;0.8507;
953.4000;0.1099;0.8436;
953.7000;0.1091;0.8484;
954.0000;0.1107;0.8626;
954.3000;0.1074;0.8673;
954.6000;0.1091;0.8744;
954.9000;0.1083;0.8697;
955.2000;0.1066;0.8673;
955.5000;0.1066;0.8697;
955.8000;0.1099;0.8721;
956.1000;0.1066;0.8602;
956.4000;0.1091;0.8602;
956.7000;0.1091;0.8531;
957.0000;0.1091;0.8650;
957.3000;0.1099;0.8721;
957.6000;0.1091;0.8792;
957.9000;0.1083;0.8744;
958.2000;0.1066;0.8721;
958.5000;0.1091;0.8768;
958.8000;0.1042;0.8602;
959.1000;0.1026;0.8531;
959.4000;0.1091;0.8579;
959.7000;0.1091;0.8555;
960.0000;0.1140;0.8626;
960.3000;0.1107;0.8507;
960.6000;0.1107;0.8436;
960.9000;0.1058;0.8318;
961.2000;0.1091;0.8389;
961.5000;0.1099;0.8484;
961.8000;0.1058;0.8484;
962.1000;0.1099;0.8484;
962.4000;0.1091;0.8460;
962.7000;0.1107;0.8484;
963.0000;0.1107;0.8507;
963.3000;0.1107;0.8531;
963.6000;0.1091;0.8460;
963.9000;0.1099;0.8413;
964.2000;0.1115;0.8389;
964.5000;0.1131;0.8436;
964.8000;0.1099;0.8436;
965.1000;0.1099;0.8413;
965.4000;0.1091;0.8436;
965.7000;0.1083;0.8507;
966.0000;0.1115;0.8626;
966.3000;0.1083;0.8507;
966.6000;0.1074;0.8507;
966.9000;0.1083;0.8436;
967.2000;0.1074;0.8389;
967.5000;0.1091;0.8389;
967.8000;0.1099;0.8436;
968.1000;0.1099;0.8460;
968.4000;0.1107;0.8413;
968.7000;0.1083;0.8460;
969.0000;0.1091;0.8555;
969.3000;0.1091;0.8673;
969.6000;0.1058;0.8579;
969.9000;0.1107;0.8626;
970.2000;0.1083;0.8579;
970.5000;0.1091;0.8579;
970.8000;0.1099;0.8579;
971.1000;0.1083;0.8436;
971.4000;0.1091;0.8484;
971.7000;0.1099;0.8389;
972.0000;0.1050;0.8223;
972.3000;0.1091;0.8342;
972.6000;0.1083;0.8365;
972.9000;0.1099;0.8436;
973.2000;0.1091;0.8484;
973.5000;0.1091;0.8507;
973.8000;0.1091;0.8413;
974.1000;0.1099;0.8460;
974.4000;0.1083;0.8413;
974.7000;0.1083;0.8365;
975.0000;0.1083;0.8389;
975.3000;0.1074;0.8436;
975.6000;0.1099;0.8531;
975.9000;0.1083;0.8555;
976.2000;0.1083;0.8555;
976.5000;0.1091;0.8531;
976.8000;0.1083;0.8531;
977.1000;0.1099;0.8507;
977.4000;0.1099;0.8460;
977.7000;0.1083;0.8389;
978.0000;0.1099;0.8460;
978.3000;0.1091;0.8436;
978.6000;0.1083;0.8460;
978.9000;0.1099;0.8507;
979.2000;0.1099;0.8460;
979.5000;0.1066;0.8460;
979.8000;0.1091;0.8531;
980.1000;0.1083;0.8413;
980.4000;0.1083;0.8436;
980.7000;0.1107;0.8436;
981.0000;0.1107;0.8413;
981.3000;0.1091;0.8389;
981.6000;0.1083;0.8365;
981.9000;0.1083;0.8365;
982.2000;0.1099;0.8436;
982.5000;0.1091;0.8460;
982.8000;0.1066;0.8507;
983.1000;0.1083;0.8460;
983.4000;0.1107;0.8531;
983.7000;0.1099;0.8555;
984.0000;0.1074;0.8626;
984.3000;0.1083;0.8673;
984.6000;0.1083;0.8602;
984.9000;0.1074;0.8626;
985.2000;0.1091;0.8673;
985.5000;0.1083;0.8697;
985.8000;0.1099;0.8626;
986.1000;0.1115;0.8579;
986.4000;0.1107;0.8602;
986.7000;0.1099;0.8602;
987.0000;0.1099;0.8507;
987.3000;0.1099;0.8460;
987.6000;0.1091;0.8460;
987.9000;0.1099;0.8531;
988.2000;0.1083;0.8555;
988.5000;0.1099;0.8555;
988.8000;0.1107;0.8555;
989.1000;0.1074;0.8389;
989.4000;0.1091;0.8436;
989.7000;0.1099;0.8460;
990.0000;0.1115;0.8555;
990.3000;0.1083;0.8507;
990.6000;0.1107;0.8507;
990.9000;0.1083;0.8626;
991.2000;0.1099;0.8721;
991.5000;0.1099;0.8744;
991.8000;0.1083;0.8673;
992.1000;0.1066;0.8626;
992.4000;0.1091;0.8673;
992.7000;0.1083;0.8721;
993.0000;0.1083;0.8673;
993.3000;0.1074;0.8673;
993.6000;0.1099;0.8792;
993.9000;0.1083;0.8744;
994.2000;0.1050;0.8555;
994.5000;0.1099;0.8579;
994.8000;0.1099;0.8555;
995.1000;0.1066;0.8436;
995.4000;0.1091;0.8602;
995.7000;0.1091;0.8579;
996.0000;0.1091;0.8436;
996.3000;0.1107;0.8413;
996.6000;0.1107;0.8389;
996.9000;0.1099;0.8365;
997.2000;0.1091;0.8436;
997.5000;0.1099;0.8507;
997.8000;0.1083;0.8460;
998.1000;0.0985;0.8152;
998.4000;0.1091;0.8413;
998.7000;0.1083;0.8484;
999.0000;0.1140;0.8650;
999.3000;0.1131;0.8555;
999.6000;0.1107;0.8484;
999.9000;0.1083;0.8460;
1000.2000;0.1091;0.8484;
1000.5000;0.1091;0.8484;
1000.8000;0.1099;0.8460;
1001.1000;0.1099;0.8436;
1001.4000;0.1091;0.8507;
1001.7000;0.1066;0.8436;
1002.0000;0.1091;0.8555;
1002.3000;0.1091;0.8579;
1002.6000;0.1091;0.8484;
1002.9000;0.1083;0.8531;
1003.2000;0.1091;0.8602;
1003.5000;0.1091;0.8555;
1003.8000;0.1058;0.8579;
1004.1000;0.1083;0.8721;
1004.4000;0.1083;0.8744;
1004.7000;0.1066;0.8744;
1005.0000;0.1074;0.8768;
1005.3000;0.1074;0.8721;
1005.6000;0.1066;0.8650;
1005.9000;0.1107;0.8626;
1006.2000;0.1083;0.8650;
1006.5000;0.1091;0.8602;
1006.8000;0.1107;0.8673;
1007.1000;0.1107;0.8744;
1007.4000;0.1091;0.8721;
1007.7000;0.1091;0.8768;
1008.0000;0.1066;0.8697;
1008.3000;0.1074;0.8744;
1008.6000;0.1083;0.8650;
1008.9000;0.1018;0.8507;
1009.2000;0.1074;0.8673;
1009.5000;0.1066;0.8650;
1009.8000;0.1074;0.8650;
1010.1000;0.1091;0.8650;
1010.4000;0.1074;0.8626;
1010.7000;0.1091;0.8626;
1011.0000;0.1091;0.8602;
1011.3000;0.1074;0.8484;
1011.6000;0.1099;0.8507;
1011.9000;0.1091;0.8484;
1012.2000;0.1099;0.8460;
1012.5000;0.1083;0.8531;
1012.8000;0.1140;0.8579;
1013.1000;0.1091;0.8389;
1013.4000;0.1099;0.8413;
1013.7000;0.1115;0.8602;
1014.0000;0.1091;0.8531;
1014.3000;0.1107;0.8602;
1014.6000;0.1083;0.8555;
1014.9000;0.1083;0.8626;
1015.2000;0.1083;0.8650;
1015.5000;0.1083;0.8744;
1015.8000;0.1042;0.8650;
1016.1000;0.1083;0.8721;
1016.4000;0.1099;0.8673;
1016.7000;0.1074;0.8673;
1017.0000;0.1074;0.8697;
1017.3000;0.1107;0.8744;
1017.6000;0.1091;0.8768;
1017.9000;0.1091;0.8697;
1018.2000;0.1115;0.8697;
1018.5000;0.1107;0.8673;
1018.8000;0.1099;0.8626;
1019.1000;0.1074;0.8484;
1019.4000;0.1066;0.8555;
1019.7000;0.1099;0.8507;
1020.0000;0.1131;0.8579;
1020.3000;0.1099;0.8507;
1020.6000;0.1091;0.8484;
1020.9000;0.1091;0.8507;
1021.2000;0.1099;0.8531;
1021.5000;0.1123;0.8602;
1021.8000;0.1091;0.8507;
1022.1000;0.1091;0.8484;
1022.4000;0.1083;0.8436;
1022.7000;0.1083;0.8531;
1023.0000;0.1091;0.8579;
1023.3000;0.1083;0.8484;
1023.6000;0.1099;0.8460;
1023.9000;0.1099;0.8460;
1024.2000;0.1083;0.8413;
1024.5000;0.1091;0.8460;
1024.8000;0.1091;0.8460;
1025.1000;0.1091;0.8413;
1025.4000;0.1091;0.8484;
1025.7000;0.1074;0.8579;
1026.0000;0.1074;0.8602;
1026.3000;0.1107;0.8721;
1026.6000;0.1083;0.8744;
1026.9000;0.1131;0.8934;
1027.2000;0.1074;0.8768;
1027.5000;0.1083;0.8792;
1027.8000;0.1034;0.8650;
1028.1000;0.1066;0.8721;
1028.4000;0.1066;0.8697;
1028.7000;0.1083;0.8626;
1029.0000;0.1091;0.8579;
1029.3000;0.1074;0.8555;
1029.6000;0.1083;0.8555;
1029.9000;0.1066;0.8484;
1030.2000;0.1099;0.8579;
1030.5000;0.1091;0.8484;
1030.8000;0.1083;0.8507;
1031.1000;0.1074;0.8484;
1031.4000;0.1099;0.8579;
1031.7000;0.1164;0.8768;
1032.0000;0.1107;0.8650;
1032.3000;0.1083;0.8602;
1032.6000;0.1074;0.8650;
1032.9000;0.1148;0.8815;
1033.2000;0.1091;0.8673;
1033.5000;0.1091;0.8650;
1033.8000;0.1050;0.8507;
1034.1000;0.1091;0.8602;
1034.4000;0.1099;0.8602;
1034.7000;0.1074;0.8507;
1035.0000;0.1050;0.8294;
1035.3000;0.1107;0.8413;
1035.6000;0.1131;0.8507;
1035.9000;0.1083;0.8436;
1036.2000;0.1091;0.8484;
1036.5000;0.1107;0.8531;
1036.8000;0.1091;0.8555;
1037.1000;0.1091;0.8531;
1037.4000;0.1066;0.8413;
1037.7000;0.1083;0.8413;
1038.0000;0.1091;0.8579;
1038.3000;0.1123;0.8673;
1038.6000;0.1099;0.8650;
1038.9000;0.1074;0.8650;
1039.2000;0.1083;0.8697;
1039.5000;0.1091;0.8768;
1039.8000;0.1083;0.8839;
1040.1000;0.1074;0.8863;
1040.4000;0.1083;0.8887;
1040.7000;0.1099;0.8792;
1041.0000;0.1099;0.8721;
1041.3000;0.1083;0.8626;
1041.6000;0.1066;0.8579;
1041.9000;0.1099;0.8673;
1042.2000;0.1107;0.8721;
1042.5000;0.1074;0.8673;
1042.8000;0.1091;0.8650;
1043.1000;0.1083;0.8626;
1043.4000;0.1091;0.8579;
1043.7000;0.1083;0.8602;
1044.0000;0.1074;0.8602;
1044.3000;0.1140;0.8768;
1044.6000;0.1074;0.8721;
1044.9000;0.1066;0.8673;
1045.2000;0.1074;0.8626;
1045.5000;0.1107;0.8792;
1045.8000;0.1091;0.8768;
1046.1000;0.1107;0.8815;
1046.4000;0.1074;0.8768;
1046.7000;0.1091;0.8839;
1047.0000;0.1091;0.8815;
1047.3000;0.1091;0.8910;
1047.6000;0.1123;0.8910;
1047.9000;0.1099;0.8887;
1048.2000;0.1099;0.8863;
1048.5000;0.1091;0.8839;
1048.8000;0.1074;0.8744;
1049.1000;0.1001;0.8484;
1049.4000;0.1083;0.8697;
1049.7000;0.1083;0.8673;
1050.0000;0.1091;0.8602;
1050.3000;0.1066;0.8555;
1050.6000;0.1018;0.8436;
1050.9000;0.1066;0.8460;
1051.2000;0.1091;0.8436;
1051.5000;0.1083;0.8507;
1051.8000;0.1058;0.8484;
1052.1000;0.1083;0.8555;
1052.4000;0.1083;0.8555;
1052.7000;0.1091;0.8579;
1053.0000;0.1091;0.8555;
1053.3000;0.1091;0.8626;
1053.6000;0.1180;0.8839;
1053.9000;0.1083;0.8673;
1054.2000;0.1091;0.8673;
1054.5000;0.1099;0.8673;
1054.8000;0.1091;0.8673;
1055.1000;0.1099;0.8673;
1055.4000;0.1083;0.8697;
1055.7000;0.1091;0.8673;
1056.0000;0.1074;0.8626;
1056.3000;0.1083;0.8673;
1056.6000;0.1091;0.8650;
1056.9000;0.1091;0.8579;
1057.2000;0.1099;0.8650;
1057.5000;0.1083;0.8650;
1057.8000;0.1099;0.8673;
1058.1000;0.1074;0.8602;
1058.4000;0.1091;0.8650;
1058.7000;0.1083;0.8673;
1059.0000;0.1091;0.8579;
1059.3000;0.1074;0.8555;
1059.6000;0.1050;0.8602;
1059.9000;0.1140;0.8768;
1060.2000;0.1083;0.8602;
1060.5000;0.1074;0.8531;
1060.8000;0.1091;0.8579;
1061.1000;0.1083;0.8555;
1061.4000;0.1074;0.8531;
1061.7000;0.1083;0.8555;
1062.0000;0.1083;0.8602;
1062.3000;0.1074;0.8579;
1062.6000;0.1083;0.8697;
1062.9000;0.1083;0.8673;
1063.2000;0.1083;0.8744;
1063.5000;0.1058;0.8650;
1063.8000;0.1074;0.8555;
1064.1000;0.1091;0.8555;
1064.4000;0.1074;0.8413;
1064.7000;0.1083;0.8484;
1065.0000;0.1083;0.8626;
1065.3000;0.1074;0.8768;
1065.6000;0.1091;0.8792;
1065.9000;0.1058;0.8768;
1066.2000;0.1074;0.8768;
1066.5000;0.1099;0.8744;
1066.8000;0.1107;0.8673;
1067.1000;0.1091;0.8673;
1067.4000;0.1091;0.8650;
1067.7000;0.1099;0.8673;
1068.0000;0.1099;0.8626;
1068.3000;0.1091;0.8602;
1068.6000;0.1074;0.8602;
1068.9000;0.1099;0.8697;
1069.2000;0.1066;0.8650;
1069.5000;0.1091;0.8673;
1069.8000;0.1091;0.8579;
1070.1000;0.1099;0.8579;
1070.4000;0.1115;0.8626;
1070.7000;0.1091;0.8579;
1071.0000;0.1091;0.8602;
1071.3000;0.1091;0.8721;
1071.6000;0.1083;0.8768;
1071.9000;0.1083;0.8744;
1072.2000;0.1074;0.8792;
1072.5000;0.1066;0.8792;
1072.8000;0.1099;0.8815;
1073.1000;0.1074;0.8768;
1073.4000;0.1091;0.8768;
1073.7000;0.1107;0.8768;
1074.0000;0.1107;0.8721;
1074.3000;0.1107;0.8721;
1074.6000;0.1099;0.8697;
1074.9000;0.1164;0.8839;
1075.2000;0.1083;0.8555;
1075.5000;0.1091;0.8555;
1075.8000;0.1083;0.8460;
1076.1000;0.1074;0.8460;
1076.4000;0.1074;0.8555;
1076.7000;0.1148;0.8744;
1077.0000;0.1074;0.8626;
1077.3000;0.1083;0.8673;
1077.6000;0.1083;0.8626;
1077.9000;0.1091;0.8484;
1078.2000;0.1066;0.8413;
1078.5000;0.1099;0.8507;
1078.8000;0.1083;0.8602;
1079.1000;0.1099;0.8579;
1079.4000;0.1091;0.8673;
1079.7000;0.1091;0.8673;
1080.0000;0.1099;0.8626;
1080.3000;0.1099;0.8650;
1080.6000;0.1099;0.8602;
1080.9000;0.1099;0.8626;
1081.2000;0.1074;0.8602;
1081.5000;0.1107;0.8721;
1081.8000;0.1074;0.8721;
1082.1000;0.1091;0.8768;
1082.4000;0.1083;0.8768;
1082.7000;0.1083;0.8792;
1083.0000;0.1091;0.8815;
1083.3000;0.1083;0.8673;
1083.6000;0.1074;0.8650;
1083.9000;0.1148;0.8910;
1084.2000;0.1083;0.8744;
1084.5000;0.1099;0.8792;
1084.8000;0.1156;0.8981;
1085.1000;0.1140;0.8887;
1085.4000;0.1140;0.8863;
1085.7000;0.1123;0.8792;
1086.0000;0.1099;0.8768;
1086.3000;0.1091;0.8768;
1086.6000;0.1091;0.8744;
1086.9000;0.1074;0.8744;
1087.2000;0.1066;0.8650;
1087.5000;0.1083;0.8815;
1087.8000;0.1066;0.8768;
1088.1000;0.1083;0.8768;
1088.4000;0.1107;0.8815;
1088.7000;0.1083;0.8768;
1089.0000;0.1099;0.8768;
1089.3000;0.1058;0.8697;
1089.6000;0.1083;0.8744;
1089.9000;0.1034;0.8673;
1090.2000;0.1115;0.8863;
1090.5000;0.1083;0.8792;
1090.8000;0.1083;0.8815;
1091.1000;0.1034;0.8626;
1091.4000;0.1091;0.8744;
1091.7000;0.1099;0.8768;
1092.0000;0.1074;0.8673;
1092.3000;0.1074;0.8673;
1092.6000;0.1099;0.8792;
1092.9000;0.1099;0.8792;
1093.2000;0.1066;0.8697;
1093.5000;0.1091;0.8721;
1093.8000;0.1091;0.8673;
1094.1000;0.1066;0.8602;
1094.4000;0.1083;0.8673;
1094.7000;0.1083;0.8650;
1095.0000;0.1074;0.8626;
1095.3000;0.1099;0.8507;
1095.6000;0.1083;0.8484;
1095.9000;0.1099;0.8531;
1096.2000;0.1091;0.8507;
1096.5000;0.1107;0.8484;
1096.8000;0.1115;0.8602;
1097.1000;0.1148;0.8650;
1097.4000;0.1091;0.8602;
1097.7000;0.1083;0.8507;
1098.0000;0.1099;0.8531;
1098.3000;0.1074;0.8484;
1098.6000;0.1164;0.8673;
1098.9000;0.1066;0.8460;
1099.2000;0.1091;0.8579;
1099.5000;0.1099;0.8507;
1099.8000;0.1074;0.8436;
1100.1000;0.1091;0.8413;
1100.4000;0.1083;0.8365;
1100.7000;0.1074;0.8436;
1101.0000;0.1091;0.8555;
1101.3000;0.1074;0.8602;
1101.6000;0.1115;0.8697;
1101.9000;0.1083;0.8697;
1102.2000;0.1074;0.8721;
1102.5000;0.1091;0.8744;
1102.8000;0.1123;0.8863;
1103.1000;0.1107;0.8815;
1103.4000;0.1083;0.8744;
1103.7000;0.1091;0.8721;
1104.0000;0.1074;0.8673;
1104.3000;0.1091;0.8626;
1104.6000;0.1099;0.8650;
1104.9000;0.1091;0.8697;
1105.2000;0.1091;0.8721;
1105.5000;0.1091;0.8744;
1105.8000;0.1042;0.8579;
1106.1000;0.1083;0.8697;
1106.4000;0.1156;0.8792;
1106.7000;0.1091;0.8626;
1107.0000;0.1074;0.8602;
1107.3000;0.1091;0.8650;
1107.6000;0.1091;0.8650;
1107.9000;0.1058;0.8626;
1108.2000;0.1058;0.8626;
1108.5000;0.1099;0.8650;
1108.8000;0.1083;0.8507;
1109.1000;0.1074;0.8460;
1109.4000;0.1091;0.8389;
1109.7000;0.1083;0.8318;
1110.0000;0.1074;0.8365;
1110.3000;0.1083;0.8389;
1110.6000;0.1083;0.8460;
1110.9000;0.1066;0.8579;
1111.2000;0.1074;0.8555;
1111.5000;0.1066;0.8484;
1111.8000;0.1074;0.8531;
1112.1000;0.1099;0.8555;
1112.4000;0.1050;0.8484;
1112.7000;0.1099;0.8460;
1113.0000;0.1074;0.8413;
1113.3000;0.1091;0.8484;
1113.6000;0.1107;0.8579;
1113.9000;0.1091;0.8579;
1114.2000;0.1058;0.8531;
1114.5000;0.1099;0.8602;
1114.8000;0.1083;0.8602;
1115.1000;0.1074;0.8579;
1115.4000;0.1083;0.8602;
1115.7000;0.1107;0.8579;
1116.0000;0.1083;0.8579;
1116.3000;0.1058;0.8460;
1116.6000;0.1074;0.8413;
1116.9000;0.1083;0.8507;
1117.2000;0.1074;0.8484;
1117.5000;0.1099;0.8460;
1117.8000;0.1083;0.8436;
1118.1000;0.1091;0.8436;
1118.4000;0.1099;0.8413;
1118.7000;0.1083;0.8484;
1119.0000;0.1074;0.8507;
1119.3000;0.1083;0.8531;
1119.6000;0.1115;0.8579;
1119.9000;0.1083;0.8507;
1120.2000;0.1074;0.8413;
1120.5000;0.1091;0.8436;
1120.8000;0.1164;0.8602;
1121.1000;0.1099;0.8365;
1121.4000;0.1083;0.8389;
1121.7000;0.1091;0.8460;
1122.0000;0.1083;0.8484;
1122.3000;0.1099;0.8507;
1122.6000;0.1018;0.8270;
1122.9000;0.1001;0.8223;
1123.2000;0.1050;0.8436;
1123.5000;0.1058;0.8413;
1123.8000;0.1074;0.8484;
1124.1000;0.1074;0.8460;
1124.4000;0.1066;0.8365;
1124.7000;0.1050;0.8342;
1125.0000;0.1083;0.8436;
1125.3000;0.1083;0.8342;
1125.6000;0.1083;0.8365;
1125.9000;0.1074;0.8365;
1126.2000;0.1099;0.8389;
1126.5000;0.1107;0.8389;
1126.8000;0.1083;0.8436;
1127.1000;0.1091;0.8436;
1127.4000;0.1083;0.8342;
1127.7000;0.1156;0.8484;
1128.0000;0.1058;0.8176;
1128.3000;0.1091;0.8223;
1128.6000;0.1099;0.8342;
1128.9000;0.1066;0.8318;
1129.2000;0.1083;0.8318;
1129.5000;0.1083;0.8365;
1129.8000;0.1099;0.8365;
1130.1000;0.1107;0.8318;
1130.4000;0.1091;0.8294;
1130.7000;0.1074;0.8270;
1131.0000;0.1091;0.8413;
1131.3000;0.1083;0.8365;
1131.6000;0.1074;0.8365;
1131.9000;0.1131;0.8484;
1132.2000;0.1148;0.8673;
1132.5000;0.1074;0.8484;
1132.8000;0.1091;0.8579;
1133.1000;0.1083;0.8579;
1133.4000;0.1066;0.8579;
1133.7000;0.1091;0.8602;
1134.0000;0.1066;0.8460;
1134.3000;0.1091;0.8484;
1134.6000;0.1107;0.8579;
1134.9000;0.1091;0.8531;
1135.2000;0.1115;0.8579;
1135.5000;0.1074;0.8436;
1135.8000;0.1074;0.8413;
1136.1000;0.1091;0.8413;
1136.4000;0.1091;0.8507;
1136.7000;0.1083;0.8555;
1137.0000;0.1083;0.8555;
1137.3000;0.1083;0.8507;
1137.6000;0.1148;0.8721;
1137.9000;0.1107;0.8531;
1138.2000;0.1066;0.8484;
1138.5000;0.1083;0.8484;
1138.8000;0.1074;0.8460;
1139.1000;0.1083;0.8507;
1139.4000;0.1083;0.8507;
1139.7000;0.1066;0.8531;
1140.0000;0.1107;0.8602;
1140.3000;0.1099;0.8579;
1140.6000;0.1018;0.8436;
1140.9000;0.1083;0.8602;
1141.2000;0.1099;0.8650;
1141.5000;0.1099;0.8650;
1141.8000;0.1074;0.8602;
1142.1000;0.1074;0.8555;
1142.4000;0.1091;0.8579;
1142.7000;0.1083;0.8579;
1143.0000;0.1091;0.8507;
1143.3000;0.1091;0.8484;
1143.6000;0.1083;0.8436;
1143.9000;0.1083;0.8342;
1144.2000;0.1091;0.8342;
1144.5000;0.1099;0.8294;
1144.8000;0.1083;0.8223;
1145.1000;0.1091;0.8318;
1145.4000;0.1099;0.8389;
1145.7000;0.1099;0.8365;
1146.0000;0.1074;0.8342;
1146.3000;0.1074;0.8294;
1146.6000;0.1099;0.8342;
1146.9000;0.1074;0.8365;
1147.2000;0.1074;0.8365;
1147.5000;0.1066;0.8318;
1147.8000;0.1026;0.8128;
1148.1000;0.1083;0.8318;
1148.4000;0.1099;0.8365;
1148.7000;0.1074;0.8247;
1149.0000;0.1083;0.8223;
1149.3000;0.1083;0.8247;
1149.6000;0.1074;0.8318;
1149.9000;0.1091;0.8389;
1150.2000;0.1074;0.8389;
1150.5000;0.1140;0.8555;
1150.8000;0.1099;0.8413;
1151.1000;0.1083;0.8389;
1151.4000;0.1091;0.8342;
1151.7000;0.1083;0.8342;
1152.0000;0.1107;0.8531;
1152.3000;0.1091;0.8460;
1152.6000;0.1091;0.8460;
1152.9000;0.1050;0.8389;
1153.2000;0.1091;0.8555;
1153.5000;0.1074;0.8602;
1153.8000;0.1091;0.8626;
1154.1000;0.1083;0.8555;
1154.4000;0.1107;0.8531;
1154.7000;0.1099;0.8507;
1155.0000;0.1083;0.8460;
1155.3000;0.1083;0.8389;
1155.6000;0.1074;0.8389;
1155.9000;0.1083;0.8413;
1156.2000;0.1074;0.8389;
1156.5000;0.1074;0.8342;
1156.8000;0.1074;0.8318;
1157.1000;0.1042;0.8199;
1157.4000;0.1099;0.8389;
1157.7000;0.1091;0.8413;
1158.0000;0.1099;0.8389;
1158.3000;0.1091;0.8389;
1158.6000;0.1099;0.8413;
1158.9000;0.1083;0.8365;
1159.2000;0.1074;0.8318;
1159.5000;0.1091;0.8318;
1159.8000;0.1131;0.8413;
1160.1000;0.1131;0.8436;
1160.4000;0.1091;0.8270;
1160.7000;0.1083;0.8270;
1161.0000;0.1115;0.8318;
1161.3000;0.1083;0.8270;
1161.6000;0.1115;0.8294;
1161.9000;0.1123;0.8294;
1162.2000;0.1091;0.8223;
1162.5000;0.1091;0.8270;
1162.8000;0.1148;0.8460;
1163.1000;0.1009;0.8057;
1163.4000;0.1091;0.8223;
1163.7000;0.1107;0.8294;
1164.0000;0.1197;0.8484;
1164.3000;0.1091;0.8176;
1164.6000;0.1001;0.8033;
1164.9000;0.1107;0.8342;
1165.2000;0.1083;0.8342;
1165.5000;0.1091;0.8223;
1165.8000;0.1099;0.8247;
1166.1000;0.1083;0.8365;
1166.4000;0.1066;0.8389;
1166.7000;0.1042;0.8389;
1167.0000;0.1058;0.8365;
1167.3000;0.1099;0.8365;
1167.6000;0.1099;0.8342;
1167.9000;0.1083;0.8365;
1168.2000;0.1074;0.8294;
1168.5000;0.1083;0.8365;
1168.8000;0.1099;0.8413;
1169.1000;0.1074;0.8413;
1169.4000;0.1107;0.8460;
1169.7000;0.1115;0.8555;
1170.0000;0.1074;0.8484;
1170.3000;0.1131;0.8555;
1170.6000;0.1091;0.8436;
1170.9000;0.1083;0.8436;
1171.2000;0.1091;0.8413;
1171.5000;0.1099;0.8436;
1171.8000;0.1074;0.8318;
1172.1000;0.1099;0.8318;
1172.4000;0.1074;0.8294;
1172.7000;0.1123;0.8436;
1173.0000;0.1083;0.8365;
1173.3000;0.1074;0.8436;
1173.6000;0.1091;0.8507;
1173.9000;0.1083;0.8484;
1174.2000;0.1091;0.8507;
1174.5000;0.1083;0.8413;
1174.8000;0.1083;0.8365;
1175.1000;0.1083;0.8342;
1175.4000;0.1083;0.8342;
1175.7000;0.1058;0.8294;
1176.0000;0.1074;0.8365;
1176.3000;0.1074;0.8389;
1176.6000;0.1066;0.8389;
1176.9000;0.1107;0.8507;
1177.2000;0.1074;0.8460;
1177.5000;0.1050;0.8436;
1177.8000;0.1083;0.8579;
1178.1000;0.1083;0.8555;
1178.4000;0.1180;0.8863;
1178.7000;0.1091;0.8673;
1179.0000;0.1099;0.8602;
1179.3000;0.1099;0.8531;
1179.6000;0.1083;0.8436;
1179.9000;0.1164;0.8697;
1180.2000;0.1083;0.8555;
1180.5000;0.1083;0.8579;
1180.8000;0.1083;0.8626;
1181.1000;0.1074;0.8626;
1181.4000;0.1026;0.8484;
1181.7000;0.1091;0.8650;
1182.0000;0.1066;0.8484;
1182.3000;0.1034;0.8413;
1182.6000;0.1083;0.8531;
1182.9000;0.1074;0.8413;
1183.2000;0.1083;0.8365;
1183.5000;0.1074;0.8436;
1183.8000;0.1091;0.8389;
1184.1000;0.1083;0.8294;
1184.4000;0.1099;0.8365;
1184.7000;0.1099;0.8460;
1185.0000;0.1074;0.8460;
1185.3000;0.1074;0.8460;
1185.6000;0.1083;0.8436;
1185.9000;0.1091;0.8389;
1186.2000;0.1083;0.8342;
1186.5000;0.1066;0.8270;
1186.8000;0.1148;0.8555;
1187.1000;0.1091;0.8413;
1187.4000;0.1074;0.8270;
1187.7000;0.1131;0.8507;
1188.0000;0.1083;0.8318;
1188.3000;0.1083;0.8389;
1188.6000;0.1074;0.8413;
1188.9000;0.1026;0.8365;
1189.2000;0.1083;0.8507;
1189.5000;0.1115;0.8531;
1189.8000;0.1091;0.8436;
1190.1000;0.1083;0.8413;
1190.4000;0.1083;0.8342;
1190.7000;0.1083;0.8270;
1191.0000;0.1083;0.8247;
1191.3000;0.1074;0.8294;
1191.6000;0.1066;0.8342;
1191.9000;0.1074;0.8342;
1192.2000;0.1099;0.8436;
1192.5000;0.1074;0.8365;
1192.8000;0.1091;0.8389;
1193.1000;0.1099;0.8413;
1193.4000;0.1091;0.8342;
1193.7000;0.1123;0.8389;
1194.0000;0.1066;0.8318;
1194.3000;0.1083;0.8365;
1194.6000;0.1066;0.8342;
1194.9000;0.1066;0.8389;
1195.2000;0.1083;0.8413;
1195.5000;0.1083;0.8413;
1195.8000;0.1099;0.8579;
1196.1000;0.1083;0.8484;
1196.4000;0.1074;0.8460;
1196.7000;0.1083;0.8460;
1197.0000;0.1083;0.8460;
1197.3000;0.1083;0.8365;
1197.6000;0.1091;0.8223;
1197.9000;0.1091;0.8247;
1198.2000;0.1083;0.8270;
1198.5000;0.1083;0.8247;
1198.8000;0.1091;0.8270;
1199.1000;0.1123;0.8294;
1199.4000;0.1074;0.8294;
1199.7000;0.1099;0.8389;
1200.0000;0.1099;0.8460;
1200.3000;0.1083;0.8365;
1200.6000;0.1066;0.8365;
1200.9000;0.1083;0.8413;
1201.2000;0.1083;0.8389;
1201.5000;0.1099;0.8365;
1201.8000;0.1074;0.8342;
1202.1000;0.1107;0.8389;
1202.4000;0.1083;0.8342;
1202.7000;0.1107;0.8413;
1203.0000;0.1107;0.8389;
1203.3000;0.1074;0.8294;
1203.6000;0.1074;0.8318;
1203.9000;0.1099;0.8365;
1204.2000;0.1091;0.8342;
1204.5000;0.1091;0.8342;
1204.8000;0.1083;0.8318;
1205.1000;0.1083;0.8365;
1205.4000;0.1091;0.8413;
1205.7000;0.1066;0.8342;
1206.0000;0.1083;0.8413;
1206.3000;0.1099;0.8484;
1206.6000;0.1091;0.8436;
1206.9000;0.1066;0.8413;
1207.2000;0.1074;0.8436;
1207.5000;0.1083;0.8484;
1207.8000;0.1034;0.8365;
1208.1000;0.1107;0.8436;
1208.4000;0.1083;0.8484;
1208.7000;0.1083;0.8484;
1209.0000;0.1083;0.8484;
1209.3000;0.1083;0.8484;
1209.6000;0.1074;0.8436;
1209.9000;0.1083;0.8389;
1210.2000;0.1123;0.8507;
1210.5000;0.1091;0.8413;
1210.8000;0.1107;0.8413;
1211.1000;0.1091;0.8365;
1211.4000;0.1083;0.8342;
1211.7000;0.1074;0.8389;
1212.0000;0.1083;0.8460;
1212.3000;0.1074;0.8436;
1212.6000;0.1091;0.8555;
1212.9000;0.1083;0.8507;
1213.2000;0.1091;0.8555;
1213.5000;0.1083;0.8531;
1213.8000;0.1058;0.8484;
1214.1000;0.1091;0.8555;
1214.4000;0.1099;0.8626;
1214.7000;0.1074;0.8555;
1215.0000;0.1091;0.8579;
1215.3000;0.1083;0.8579;
1215.6000;0.1099;0.8555;
1215.9000;0.1148;0.8650;
1216.2000;0.1066;0.8436;
1216.5000;0.1083;0.8555;
1216.8000;0.1083;0.8484;
1217.1000;0.1091;0.8460;
1217.4000;0.1083;0.8484;
1217.7000;0.1099;0.8507;
1218.0000;0.1091;0.8531;
1218.3000;0.1091;0.8579;
1218.6000;0.1066;0.8579;
1218.9000;0.1083;0.8579;
1219.2000;0.1099;0.8697;
1219.5000;0.1091;0.8744;
1219.8000;0.1066;0.8650;
1220.1000;0.1058;0.8579;
1220.4000;0.1050;0.8507;
1220.7000;0.1115;0.8650;
1221.0000;0.1074;0.8602;
1221.3000;0.1066;0.8555;
1221.6000;0.1074;0.8626;
1221.9000;0.1074;0.8626;
1222.2000;0.1074;0.8579;
1222.5000;0.1083;0.8507;
1222.8000;0.1066;0.8389;
1223.1000;0.1066;0.8365;
1223.4000;0.1107;0.8460;
1223.7000;0.1099;0.8365;
1224.0000;0.1107;0.8318;
1224.3000;0.1099;0.8318;
1224.6000;0.1091;0.8365;
1224.9000;0.1066;0.8460;
1225.2000;0.1107;0.8555;
1225.5000;0.1083;0.8579;
1225.8000;0.1074;0.8626;
1226.1000;0.1091;0.8650;
1226.4000;0.1074;0.8507;
1226.7000;0.1074;0.8555;
1227.0000;0.1083;0.8626;
1227.3000;0.1083;0.8626;
1227.6000;0.1074;0.8579;
1227.9000;0.1066;0.8579;
1228.2000;0.1099;0.8626;
1228.5000;0.1074;0.8531;
1228.8000;0.1083;0.8626;
1229.1000;0.1131;0.8721;
1229.4000;0.1099;0.8579;
1229.7000;0.1091;0.8555;
1230.0000;0.1091;0.8507;
1230.3000;0.1123;0.8602;
1230.6000;0.1099;0.8579;
1230.9000;0.1099;0.8602;
1231.2000;0.1099;0.8579;
1231.5000;0.1083;0.8555;
1231.8000;0.1058;0.8436;
1232.1000;0.1083;0.8484;
1232.4000;0.1058;0.8413;
1232.7000;0.1107;0.8436;
1233.0000;0.1066;0.8342;
1233.3000;0.1083;0.8413;
1233.6000;0.1148;0.8602;
1233.9000;0.1091;0.8579;
1234.2000;0.1107;0.8673;
1234.5000;0.1091;0.8650;
1234.8000;0.1107;0.8697;
1235.1000;0.1099;0.8602;
1235.4000;0.1083;0.8484;
1235.7000;0.1083;0.8460;
1236.0000;0.1074;0.8460;
1236.3000;0.1115;0.8436;
1236.6000;0.1083;0.8436;
1236.9000;0.1074;0.8436;
1237.2000;0.1091;0.8436;
1237.5000;0.1107;0.8507;
1237.8000;0.1058;0.8460;
1238.1000;0.1066;0.8460;
1238.4000;0.1083;0.8436;
1238.7000;0.1091;0.8507;
1239.0000;0.1091;0.8507;
1239.3000;0.1091;0.8507;
1239.6000;0.1083;0.8365;
1239.9000;0.1034;0.8199;
1240.2000;0.1107;0.8413;
1240.5000;0.1091;0.8460;
1240.8000;0.1083;0.8484;
1241.1000;0.1074;0.8436;
1241.4000;0.1099;0.8436;
1241.7000;0.1083;0.8342;
1242.0000;0.1091;0.8365;
1242.3000;0.1083;0.8365;
1242.6000;0.1083;0.8318;
1242.9000;0.1066;0.8270;
1243.2000;0.1099;0.8247;
1243.5000;0.1083;0.8247;
1243.8000;0.1058;0.8199;
1244.1000;0.1083;0.8365;
1244.4000;0.1099;0.8460;
1244.7000;0.1083;0.8436;
1245.0000;0.1091;0.8531;
1245.3000;0.1074;0.8507;
1245.6000;0.1099;0.8555;
1245.9000;0.1083;0.8507;
1246.2000;0.1074;0.8507;
1246.5000;0.1083;0.8484;
1246.8000;0.1091;0.8507;
1247.1000;0.1074;0.8484;
1247.4000;0.1058;0.8531;
1247.7000;0.1074;0.8484;
1248.0000;0.1099;0.8507;
1248.3000;0.1066;0.8484;
1248.6000;0.1083;0.8507;
1248.9000;0.1091;0.8579;
1249.2000;0.1050;0.8484;
1249.5000;0.1074;0.8507;
1249.8000;0.1083;0.8436;
1250.1000;0.1074;0.8507;
1250.4000;0.1058;0.8507;
1250.7000;0.1083;0.8531;
1251.0000;0.1091;0.8507;
1251.3000;0.1091;0.8531;
1251.6000;0.1123;0.8602;
1251.9000;0.1091;0.8484;
1252.2000;0.1091;0.8484;
1252.5000;0.1099;0.8460;
1252.8000;0.1156;0.8555;
1253.1000;0.1115;0.8436;
1253.4000;0.1083;0.8389;
1253.7000;0.1099;0.8531;
1254.0000;0.1083;0.8460;
1254.3000;0.1083;0.8436;
1254.6000;0.1074;0.8365;
1254.9000;0.1083;0.8413;
1255.2000;0.1074;0.8460;
1255.5000;0.1026;0.8342;
1255.8000;0.1074;0.8460;
1256.1000;0.1083;0.8507;
1256.4000;0.1083;0.8507;
1256.7000;0.1034;0.8389;
1257.0000;0.1066;0.8531;
1257.3000;0.1099;0.8555;
1257.6000;0.1091;0.8507;
1257.9000;0.1091;0.8484;
1258.2000;0.1091;0.8342;
1258.5000;0.1099;0.8365;
1258.8000;0.1091;0.8342;
1259.1000;0.1074;0.8365;
1259.4000;0.1091;0.8460;
1259.7000;0.1107;0.8436;
1260.0000;0.1091;0.8507;
1260.3000;0.1066;0.8484;
1260.6000;0.1066;0.8413;
1260.9000;0.1172;0.8626;
1261.2000;0.1099;0.8413;
1261.5000;0.1074;0.8365;
1261.8000;0.1091;0.8294;
1262.1000;0.1091;0.8413;
1262.4000;0.1083;0.8484;
1262.7000;0.1083;0.8579;
1263.0000;0.1083;0.8673;
1263.3000;0.1074;0.8650;
1263.6000;0.1091;0.8626;
1263.9000;0.1018;0.8436;
1264.2000;0.1074;0.8507;
1264.5000;0.1091;0.8507;
1264.8000;0.1131;0.8555;
1265.1000;0.1091;0.8507;
1265.4000;0.1066;0.8484;
1265.7000;0.1140;0.8697;
1266.0000;0.1099;0.8626;
1266.3000;0.1083;0.8555;
1266.6000;0.1091;0.8579;
1266.9000;0.1074;0.8579;
1267.2000;0.1074;0.8579;
1267.5000;0.1083;0.8579;
1267.8000;0.1091;0.8626;
1268.1000;0.1083;0.8602;
1268.4000;0.1091;0.8507;
1268.7000;0.1083;0.8531;
1269.0000;0.1083;0.8484;
1269.3000;0.1074;0.8484;
1269.6000;0.1074;0.8460;
1269.9000;0.1091;0.8531;
1270.2000;0.1083;0.8413;
1270.5000;0.1091;0.8342;
1270.8000;0.1091;0.8294;
1271.1000;0.1066;0.8247;
1271.4000;0.1107;0.8413;
1271.7000;0.1083;0.8318;
1272.0000;0.1099;0.8318;
1272.3000;0.1099;0.8247;
1272.6000;0.1083;0.8270;
1272.9000;0.1083;0.8342;
1273.2000;0.1091;0.8436;
1273.5000;0.1083;0.8413;
1273.8000;0.1099;0.8389;
1274.1000;0.1074;0.8342;
1274.4000;0.1066;0.8484;
1274.7000;0.1091;0.8555;
1275.0000;0.1107;0.8436;
1275.3000;0.1107;0.8436;
1275.6000;0.1074;0.8342;
1275.9000;0.1066;0.8389;
1276.2000;0.1066;0.8413;
1276.5000;0.1091;0.8484;
1276.8000;0.1099;0.8460;
1277.1000;0.1091;0.8389;
1277.4000;0.1091;0.8365;
1277.7000;0.1091;0.8342;
1278.0000;0.1164;0.8555;
1278.3000;0.1091;0.8389;
1278.6000;0.1083;0.8294;
1278.9000;0.1034;0.8247;
1279.2000;0.1050;0.8318;
1279.5000;0.1091;0.8413;
1279.8000;0.1148;0.8484;
1280.1000;0.1148;0.8531;
1280.4000;0.1091;0.8436;
1280.7000;0.1123;0.8460;
1281.0000;0.1091;0.8365;
1281.3000;0.1083;0.8460;
1281.6000;0.1083;0.8389;
1281.9000;0.1107;0.8507;
1282.2000;0.1099;0.8484;
1282.5000;0.1083;0.8436;
1282.8000;0.1091;0.8413;
1283.1000;0.1091;0.8389;
1283.4000;0.1164;0.8602;
1283.7000;0.1074;0.8342;
1284.0000;0.1091;0.8507;
1284.3000;0.1091;0.8436;
1284.6000;0.1091;0.8389;
1284.9000;0.1148;0.8555;
1285.2000;0.1083;0.8389;
1285.5000;0.1107;0.8389;
1285.8000;0.1099;0.8389;
1286.1000;0.1083;0.8342;
1286.4000;0.1083;0.8318;
1286.7000;0.1107;0.8389;
1287.0000;0.1099;0.8318;
1287.3000;0.1091;0.8294;
1287.6000;0.1091;0.8270;
1287.9000;0.1091;0.8436;
1288.2000;0.1083;0.8413;
1288.5000;0.1091;0.8413;
1288.8000;0.1083;0.8413;
1289.1000;0.1107;0.8460;
1289.4000;0.1140;0.8555;
1289.7000;0.1083;0.8413;
1290.0000;0.1074;0.8484;
1290.3000;0.1074;0.8484;
1290.6000;0.1083;0.8555;
1290.9000;0.1091;0.8555;
1291.2000;0.1083;0.8507;
1291.5000;0.1074;0.8436;
1291.8000;0.1099;0.8484;
1292.1000;0.1083;0.8507;
1292.4000;0.1074;0.8436;
1292.7000;0.1074;0.8365;
1293.0000;0.1083;0.8318;
1293.3000;0.1074;0.8318;
1293.6000;0.1058;0.8247;
1293.9000;0.1115;0.8413;
1294.2000;0.1074;0.8294;
1294.5000;0.1099;0.8389;
1294.8000;0.1115;0.8460;
1295.1000;0.1148;0.8555;
1295.4000;0.1083;0.8413;
1295.7000;0.1107;0.8531;
1296.0000;0.1091;0.8555;
1296.3000;0.1083;0.8579;
1296.6000;0.1091;0.8602;
1296.9000;0.1131;0.8744;
1297.2000;0.1099;0.8673;
1297.5000;0.1083;0.8626;
1297.8000;0.1083;0.8602;
1298.1000;0.1066;0.8602;
1298.4000;0.1091;0.8531;
1298.7000;0.1083;0.8531;
1299.0000;0.1099;0.8507;
1299.3000;0.1083;0.8531;
1299.6000;0.1091;0.8507;
1299.9000;0.1058;0.8365;
1300.2000;0.1091;0.8365;
1300.5000;0.1164;0.8579;
1300.8000;0.1099;0.8436;
1301.1000;0.1066;0.8318;
1301.4000;0.1131;0.8555;
1301.7000;0.1058;0.8389;
1302.0000;0.1115;0.8650;
1302.3000;0.1091;0.8602;
1302.6000;0.1066;0.8555;
1302.9000;0.1050;0.8484;
1303.2000;0.1026;0.8365;
1303.5000;0.1066;0.8531;
1303.8000;0.1083;0.8626;
1304.1000;0.1026;0.8531;
1304.4000;0.1074;0.8650;
1304.7000;0.1074;0.8626;
1305.0000;0.1083;0.8602;
1305.3000;0.1066;0.8579;
1305.6000;0.1058;0.8531;
1305.9000;0.1066;0.8531;
1306.2000;0.1091;0.8436;
1306.5000;0.1042;0.8365;
1306.8000;0.1066;0.8531;
1307.1000;0.1083;0.8579;
1307.4000;0.1099;0.8626;
1307.7000;0.1107;0.8650;
1308.0000;0.1066;0.8579;
1308.3000;0.1083;0.8555;
1308.6000;0.1091;0.8531;
1308.9000;0.1074;0.8413;
1309.2000;0.1099;0.8389;
1309.5000;0.1058;0.8342;
1309.8000;0.1083;0.8436;
1310.1000;0.1091;0.8389;
1310.4000;0.1091;0.8460;
1310.7000;0.1058;0.8365;
1311.0000;0.1074;0.8365;
1311.3000;0.1034;0.8318;
1311.6000;0.1107;0.8436;
1311.9000;0.1156;0.8555;
1312.2000;0.1107;0.8531;
1312.5000;0.1083;0.8507;
1312.8000;0.1083;0.8507;
1313.1000;0.1091;0.8507;
1313.4000;0.1099;0.8531;
1313.7000;0.1091;0.8436;
1314.0000;0.1091;0.8436;
1314.3000;0.1099;0.8460;
1314.6000;0.1083;0.8318;
1314.9000;0.1083;0.8270;
1315.2000;0.1099;0.8413;
1315.5000;0.1107;0.8460;
1315.8000;0.1042;0.8389;
1316.1000;0.1107;0.8531;
1316.4000;0.1115;0.8507;
1316.7000;0.1083;0.8389;
1317.0000;0.1074;0.8531;
1317.3000;0.1091;0.8626;
1317.6000;0.1083;0.8602;
1317.9000;0.1099;0.8673;
1318.2000;0.1074;0.8555;
1318.5000;0.1083;0.8531;
1318.8000;0.1074;0.8507;
1319.1000;0.1083;0.8507;
1319.4000;0.1074;0.8460;
1319.7000;0.1083;0.8389;
1320.0000;0.1099;0.8436;
1320.3000;0.1099;0.8413;
1320.6000;0.1026;0.8199;
1320.9000;0.1074;0.8365;
1321.2000;0.1058;0.8342;
1321.5000;0.1131;0.8507;
1321.8000;0.1123;0.8484;
1322.1000;0.1074;0.8294;
1322.4000;0.1074;0.8247;
1322.7000;0.1083;0.8223;
1323.0000;0.1091;0.8294;
1323.3000;0.1074;0.8247;
1323.6000;0.1058;0.8199;
1323.9000;0.1091;0.8365;
1324.2000;0.1074;0.8270;
1324.5000;0.1099;0.8223;
1324.8000;0.1099;0.8270;
1325.1000;0.1107;0.8342;
1325.4000;0.1099;0.8365;
1325.7000;0.1115;0.8389;
1326.0000;0.1091;0.8365;
1326.3000;0.1066;0.8318;
1326.6000;0.1074;0.8270;
1326.9000;0.1099;0.8270;
1327.2000;0.1074;0.8199;
1327.5000;0.1066;0.8199;
1327.8000;0.1083;0.8223;
1328.1000;0.1099;0.8247;
1328.4000;0.1083;0.8223;
1328.7000;0.1074;0.8199;
1329.0000;0.1091;0.8270;
1329.3000;0.1083;0.8365;
1329.6000;0.1083;0.8436;
1329.9000;0.1066;0.8436;
1330.2000;0.1074;0.8365;
1330.5000;0.1083;0.8318;
1330.8000;0.1099;0.8342;
1331.1000;0.1091;0.8413;
1331.4000;0.1083;0.8436;
1331.7000;0.1074;0.8389;
1332.0000;0.1099;0.8436;
1332.3000;0.1091;0.8413;
1332.6000;0.1083;0.8365;
1332.9000;0.1066;0.8294;
1333.2000;0.1083;0.8365;
1333.5000;0.1074;0.8389;
1333.8000;0.1083;0.8460;
1334.1000;0.1091;0.8460;
1334.4000;0.1099;0.8436;
1334.7000;0.1091;0.8460;
1335.0000;0.1074;0.8389;
1335.3000;0.1074;0.8365;
1335.6000;0.1074;0.8436;
1335.9000;0.1091;0.8413;
1336.2000;0.1091;0.8460;
1336.5000;0.1074;0.8436;
1336.8000;0.1099;0.8484;
1337.1000;0.1091;0.8436;
1337.4000;0.1091;0.8460;
1337.7000;0.1074;0.8436;
1338.0000;0.1074;0.8436;
1338.3000;0.1074;0.8507;
1338.6000;0.1099;0.8484;
1338.9000;0.1058;0.8318;
1339.2000;0.1099;0.8436;
1339.5000;0.1083;0.8460;
1339.8000;0.1123;0.8436;
1340.1000;0.1074;0.8365;
1340.4000;0.1131;0.8531;
1340.7000;0.1099;0.8389;
1341.0000;0.1091;0.8460;
1341.3000;0.1083;0.8436;
1341.6000;0.1099;0.8531;
1341.9000;0.1042;0.8507;
1342.2000;0.1083;0.8484;
1342.5000;0.1091;0.8484;
1342.8000;0.1083;0.8413;
1343.1000;0.1066;0.8294;
1343.4000;0.1066;0.8342;
1343.7000;0.1091;0.8342;
1344.0000;0.1066;0.8294;
1344.3000;0.1091;0.8318;
1344.6000;0.1091;0.8223;
1344.9000;0.1074;0.8247;
1345.2000;0.1074;0.8365;
1345.5000;0.1074;0.8365;
1345.8000;0.1083;0.8389;
1346.1000;0.1074;0.8342;
1346.4000;0.1107;0.8389;
1346.7000;0.1099;0.8413;
1347.0000;0.1083;0.8436;
1347.3000;0.1083;0.8413;
1347.6000;0.1026;0.8270;
1347.9000;0.1091;0.8460;
1348.2000;0.1066;0.8365;
1348.5000;0.1026;0.8223;
1348.8000;0.1083;0.8436;
1349.1000;0.1083;0.8342;
1349.4000;0.1074;0.8342;
1349.7000;0.1042;0.8199;
1350.0000;0.1083;0.8223;
1350.3000;0.1034;0.8176;
1350.6000;0.1091;0.8389;
1350.9000;0.1083;0.8389;
1351.2000;0.1074;0.8389;
1351.5000;0.1091;0.8389;
1351.8000;0.1188;0.8673;
1352.1000;0.1091;0.8484;
1352.4000;0.1066;0.8389;
1352.7000;0.1083;0.8389;
1353.0000;0.1083;0.8389;
1353.3000;0.1156;0.8389;
1353.6000;0.1074;0.8247;
1353.9000;0.1074;0.8270;
1354.2000;0.1091;0.8365;
1354.5000;0.1074;0.8365;
1354.8000;0.1123;0.8484;
1355.1000;0.1074;0.8342;
1355.4000;0.1091;0.8389;
1355.7000;0.1131;0.8555;
1356.0000;0.1091;0.8531;
1356.3000;0.1107;0.8579;
1356.6000;0.1091;0.8555;
1356.9000;0.1107;0.8650;
1357.2000;0.1107;0.8673;
1357.5000;0.1099;0.8579;
1357.8000;0.1099;0.8602;
1358.1000;0.1107;0.8650;
1358.4000;0.1091;0.8602;
1358.7000;0.1188;0.8839;
1359.0000;0.1074;0.8673;
1359.3000;0.1091;0.8744;
1359.6000;0.1083;0.8721;
1359.9000;0.1083;0.8673;
1360.2000;0.1058;0.8602;
1360.5000;0.1083;0.8626;
1360.8000;0.1083;0.8579;
1361.1000;0.1074;0.8531;
1361.4000;0.1074;0.8413;
1361.7000;0.1107;0.8413;
1362.0000;0.1099;0.8460;
1362.3000;0.1074;0.8389;
1362.6000;0.1074;0.8365;
1362.9000;0.1091;0.8365;
1363.2000;0.1099;0.8342;
1363.5000;0.1091;0.8318;
1363.8000;0.1083;0.8318;
1364.1000;0.1083;0.8247;
1364.4000;0.1107;0.8342;
1364.7000;0.1083;0.8413;
1365.0000;0.1091;0.8413;
1365.3000;0.1083;0.8484;
1365.6000;0.1091;0.8460;
1365.9000;0.1091;0.8484;
1366.2000;0.1115;0.8602;
1366.5000;0.1058;0.8436;
1366.8000;0.1074;0.8460;
1367.1000;0.1083;0.8484;
1367.4000;0.1074;0.8484;
1367.7000;0.1066;0.8531;
1368.0000;0.1066;0.8531;
1368.3000;0.1091;0.8460;
1368.6000;0.1083;0.8365;
1368.9000;0.1115;0.8436;
1369.2000;0.1074;0.8342;
1369.5000;0.1050;0.8247;
1369.8000;0.1091;0.8436;
1370.1000;0.1074;0.8365;
1370.4000;0.1074;0.8413;
1370.7000;0.1164;0.8602;
1371.0000;0.1099;0.8531;
1371.3000;0.1066;0.8484;
1371.6000;0.1034;0.8436;
1371.9000;0.1083;0.8602;
1372.2000;0.1074;0.8579;
1372.5000;0.1083;0.8579;
1372.8000;0.1074;0.8460;
1373.1000;0.1156;0.8673;
1373.4000;0.1074;0.8413;
1373.7000;0.1074;0.8460;
1374.0000;0.1091;0.8460;
1374.3000;0.1083;0.8460;
1374.6000;0.1083;0.8460;
1374.9000;0.1091;0.8507;
1375.2000;0.1123;0.8531;
1375.5000;0.1074;0.8365;
1375.8000;0.1091;0.8294;
1376.1000;0.1091;0.8342;
1376.4000;0.1099;0.8389;
1376.7000;0.1083;0.8413;
1377.0000;0.1156;0.8697;
1377.3000;0.1074;0.8579;
1377.6000;0.1083;0.8579;
1377.9000;0.1083;0.8555;
1378.2000;0.1107;0.8413;
1378.5000;0.1074;0.8365;
1378.8000;0.1091;0.8342;
1379.1000;0.1091;0.8318;
1379.4000;0.1083;0.8342;
1379.7000;0.1083;0.8413;
1380.0000;0.1099;0.8389;
1380.3000;0.1074;0.8389;
1380.6000;0.1091;0.8342;
1380.9000;0.1074;0.8365;
1381.2000;0.1107;0.8531;
1381.5000;0.1083;0.8436;
1381.8000;0.1058;0.8413;
1382.1000;0.1074;0.8436;
1382.4000;0.1107;0.8579;
1382.7000;0.1083;0.8507;
1383.0000;0.1083;0.8507;
1383.3000;0.1066;0.8484;
1383.6000;0.1083;0.8531;
1383.9000;0.1083;0.8436;
1384.2000;0.1083;0.8365;
1384.5000;0.1066;0.8365;
1384.8000;0.1091;0.8436;
1385.1000;0.1074;0.8365;
1385.4000;0.1091;0.8342;
1385.7000;0.1091;0.8294;
1386.0000;0.1083;0.8294;
1386.3000;0.1099;0.8294;
1386.6000;0.1083;0.8247;
1386.9000;0.1074;0.8176;
1387.2000;0.1083;0.8152;
1387.5000;0.1091;0.8247;
1387.8000;0.1074;0.8176;
1388.1000;0.1091;0.8270;
1388.4000;0.1042;0.8033;
1388.7000;0.1074;0.8105;
1389.0000;0.1066;0.8176;
1389.3000;0.1074;0.8247;
1389.6000;0.1066;0.8199;
1389.9000;0.1050;0.8223;
1390.2000;0.1074;0.8318;
1390.5000;0.1083;0.8389;
1390.8000;0.1083;0.8413;
1391.1000;0.1172;0.8650;
1391.4000;0.1083;0.8389;
1391.7000;0.1083;0.8389;
1392.0000;0.1091;0.8342;
1392.3000;0.1058;0.8342;
1392.6000;0.1074;0.8389;
1392.9000;0.1066;0.8318;
1393.2000;0.1083;0.8223;
1393.5000;0.1131;0.8413;
1393.8000;0.1050;0.8270;
1394.1000;0.1074;0.8318;
1394.4000;0.1034;0.8128;
1394.7000;0.1058;0.8152;
1395.0000;0.1074;0.8176;
1395.3000;0.1074;0.8247;
1395.6000;0.1091;0.8342;
1395.9000;0.1066;0.8270;
1396.2000;0.1099;0.8365;
1396.5000;0.1083;0.8413;
1396.8000;0.1074;0.8318;
1397.1000;0.1099;0.8389;
1397.4000;0.1066;0.8342;
1397.7000;0.1091;0.8342;
1398.0000;0.1074;0.8247;
1398.3000;0.1099;0.8318;
1398.6000;0.1083;0.8223;
1398.9000;0.1107;0.8223;
1399.2000;0.1091;0.8247;
1399.5000;0.1107;0.8318;
1399.8000;0.1074;0.8318;
