time/ms;Fluo/V;P700 deltaI/I x10³;
-199.8000;0.1302;0.8815;
-199.5000;0.1302;0.8863;
-199.2000;0.1294;0.8815;
-198.9000;0.1294;0.8910;
-198.6000;0.1302;0.8910;
-198.3000;0.1351;0.9029;
-198.0000;0.1294;0.8768;
-197.7000;0.1286;0.8768;
-197.4000;0.1302;0.8792;
-197.1000;0.1302;0.8768;
-196.8000;0.1294;0.8863;
-196.5000;0.1311;0.8981;
-196.2000;0.1302;0.8958;
-195.9000;0.1286;0.8863;
-195.6000;0.1302;0.8958;
-195.3000;0.1294;0.8934;
-195.0000;0.1294;0.8887;
-194.7000;0.1302;0.8839;
-194.4000;0.1278;0.8792;
-194.1000;0.1286;0.8744;
-193.8000;0.1311;0.8697;
-193.5000;0.1359;0.8815;
-193.2000;0.1294;0.8721;
-192.9000;0.1294;0.8744;
-192.6000;0.1294;0.8673;
-192.3000;0.1302;0.8673;
-192.0000;0.1294;0.8673;
-191.7000;0.1311;0.8602;
-191.4000;0.1311;0.8626;
-191.1000;0.1319;0.8626;
-190.8000;0.1311;0.8697;
-190.5000;0.1254;0.8507;
-190.2000;0.1294;0.8555;
-189.9000;0.1327;0.8626;
-189.6000;0.1286;0.8531;
-189.3000;0.1376;0.8721;
-189.0000;0.1286;0.8531;
-188.7000;0.1311;0.8579;
-188.4000;0.1351;0.8673;
-188.1000;0.1254;0.8507;
-187.8000;0.1343;0.8744;
-187.5000;0.1286;0.8602;
-187.2000;0.1286;0.8602;
-186.9000;0.1294;0.8555;
-186.6000;0.1294;0.8650;
-186.3000;0.1294;0.8792;
-186.0000;0.1254;0.8579;
-185.7000;0.1286;0.8744;
-185.4000;0.1286;0.8626;
-185.1000;0.1286;0.8697;
-184.8000;0.1286;0.8768;
-184.5000;0.1319;0.8768;
-184.2000;0.1335;0.8863;
-183.9000;0.1302;0.8815;
-183.6000;0.1294;0.8792;
-183.3000;0.1286;0.8744;
-183.0000;0.1278;0.8626;
-182.7000;0.1294;0.8650;
-182.4000;0.1286;0.8650;
-182.1000;0.1294;0.8721;
-181.8000;0.1278;0.8744;
-181.5000;0.1278;0.8768;
-181.2000;0.1262;0.8721;
-180.9000;0.1384;0.8981;
-180.6000;0.1294;0.8839;
-180.3000;0.1278;0.8910;
-180.0000;0.1294;0.8887;
-179.7000;0.1286;0.8910;
-179.4000;0.1237;0.8815;
-179.1000;0.1302;0.8934;
-178.8000;0.1262;0.8863;
-178.5000;0.1286;0.8887;
-178.2000;0.1302;0.8887;
-177.9000;0.1319;0.8934;
-177.6000;0.1311;0.8863;
-177.3000;0.1286;0.8815;
-177.0000;0.1302;0.8839;
-176.7000;0.1302;0.8887;
-176.4000;0.1294;0.8887;
-176.1000;0.1278;0.8768;
-175.8000;0.1294;0.8815;
-175.5000;0.1262;0.8863;
-175.2000;0.1286;0.8910;
-174.9000;0.1302;0.8887;
-174.6000;0.1302;0.8910;
-174.3000;0.1311;0.8887;
-174.0000;0.1294;0.8792;
-173.7000;0.1294;0.8768;
-173.4000;0.1311;0.8815;
-173.1000;0.1311;0.8839;
-172.8000;0.1302;0.8839;
-172.5000;0.1302;0.8863;
-172.2000;0.1229;0.8673;
-171.9000;0.1294;0.8815;
-171.6000;0.1294;0.8697;
-171.3000;0.1286;0.8768;
-171.0000;0.1294;0.8744;
-170.7000;0.1294;0.8721;
-170.4000;0.1254;0.8697;
-170.1000;0.1311;0.8744;
-169.8000;0.1302;0.8697;
-169.5000;0.1319;0.8768;
-169.2000;0.1311;0.8768;
-168.9000;0.1278;0.8697;
-168.6000;0.1286;0.8768;
-168.3000;0.1311;0.8744;
-168.0000;0.1302;0.8721;
-167.7000;0.1302;0.8744;
-167.4000;0.1294;0.8721;
-167.1000;0.1302;0.8744;
-166.8000;0.1302;0.8744;
-166.5000;0.1294;0.8768;
-166.2000;0.1302;0.8602;
-165.9000;0.1294;0.8602;
-165.6000;0.1294;0.8697;
-165.3000;0.1311;0.8697;
-165.0000;0.1294;0.8721;
-164.7000;0.1302;0.8650;
-164.4000;0.1384;0.8934;
-164.1000;0.1319;0.8863;
-163.8000;0.1302;0.8768;
-163.5000;0.1286;0.8768;
-163.2000;0.1229;0.8602;
-162.9000;0.1237;0.8507;
-162.6000;0.1286;0.8697;
-162.3000;0.1302;0.8721;
-162.0000;0.1286;0.8768;
-161.7000;0.1302;0.8839;
-161.4000;0.1302;0.8744;
-161.1000;0.1294;0.8697;
-160.8000;0.1286;0.8721;
-160.5000;0.1294;0.8792;
-160.2000;0.1221;0.8650;
-159.9000;0.1311;0.8792;
-159.6000;0.1278;0.8744;
-159.3000;0.1294;0.8744;
-159.0000;0.1294;0.8744;
-158.7000;0.1294;0.8744;
-158.4000;0.1286;0.8768;
-158.1000;0.1286;0.8792;
-157.8000;0.1286;0.8768;
-157.5000;0.1294;0.8768;
-157.2000;0.1302;0.8697;
-156.9000;0.1302;0.8744;
-156.6000;0.1302;0.8721;
-156.3000;0.1262;0.8626;
-156.0000;0.1294;0.8650;
-155.7000;0.1302;0.8697;
-155.4000;0.1311;0.8721;
-155.1000;0.1286;0.8650;
-154.8000;0.1302;0.8650;
-154.5000;0.1302;0.8673;
-154.2000;0.1294;0.8626;
-153.9000;0.1294;0.8697;
-153.6000;0.1294;0.8673;
-153.3000;0.1302;0.8697;
-153.0000;0.1270;0.8602;
-152.7000;0.1302;0.8697;
-152.4000;0.1335;0.8744;
-152.1000;0.1294;0.8555;
-151.8000;0.1319;0.8579;
-151.5000;0.1302;0.8531;
-151.2000;0.1319;0.8579;
-150.9000;0.1302;0.8673;
-150.6000;0.1319;0.8673;
-150.3000;0.1302;0.8673;
-150.0000;0.1311;0.8650;
-149.7000;0.1294;0.8721;
-149.4000;0.1302;0.8650;
-149.1000;0.1254;0.8484;
-148.8000;0.1302;0.8555;
-148.5000;0.1302;0.8579;
-148.2000;0.1335;0.8650;
-147.9000;0.1294;0.8531;
-147.6000;0.1327;0.8650;
-147.3000;0.1294;0.8697;
-147.0000;0.1278;0.8626;
-146.7000;0.1286;0.8650;
-146.4000;0.1294;0.8626;
-146.1000;0.1335;0.8697;
-145.8000;0.1319;0.8721;
-145.5000;0.1286;0.8744;
-145.2000;0.1294;0.8697;
-144.9000;0.1302;0.8744;
-144.6000;0.1302;0.8768;
-144.3000;0.1384;0.8981;
-144.0000;0.1286;0.8792;
-143.7000;0.1270;0.8792;
-143.4000;0.1302;0.8768;
-143.1000;0.1294;0.8768;
-142.8000;0.1278;0.8673;
-142.5000;0.1286;0.8744;
-142.2000;0.1294;0.8721;
-141.9000;0.1286;0.8697;
-141.6000;0.1278;0.8650;
-141.3000;0.1270;0.8555;
-141.0000;0.1302;0.8579;
-140.7000;0.1319;0.8555;
-140.4000;0.1294;0.8507;
-140.1000;0.1302;0.8531;
-139.8000;0.1311;0.8555;
-139.5000;0.1335;0.8673;
-139.2000;0.1302;0.8673;
-138.9000;0.1278;0.8579;
-138.6000;0.1302;0.8650;
-138.3000;0.1311;0.8650;
-138.0000;0.1311;0.8673;
-137.7000;0.1302;0.8579;
-137.4000;0.1302;0.8579;
-137.1000;0.1286;0.8579;
-136.8000;0.1319;0.8626;
-136.5000;0.1302;0.8602;
-136.2000;0.1302;0.8555;
-135.9000;0.1311;0.8650;
-135.6000;0.1302;0.8697;
-135.3000;0.1302;0.8602;
-135.0000;0.1327;0.8650;
-134.7000;0.1294;0.8626;
-134.4000;0.1351;0.8792;
-134.1000;0.1319;0.8673;
-133.8000;0.1302;0.8650;
-133.5000;0.1343;0.8721;
-133.2000;0.1311;0.8673;
-132.9000;0.1335;0.8768;
-132.6000;0.1294;0.8650;
-132.3000;0.1311;0.8673;
-132.0000;0.1229;0.8436;
-131.7000;0.1319;0.8744;
-131.4000;0.1343;0.8887;
-131.1000;0.1294;0.8673;
-130.8000;0.1254;0.8579;
-130.5000;0.1311;0.8673;
-130.2000;0.1302;0.8744;
-129.9000;0.1245;0.8579;
-129.6000;0.1286;0.8673;
-129.3000;0.1327;0.8768;
-129.0000;0.1294;0.8697;
-128.7000;0.1286;0.8721;
-128.4000;0.1294;0.8650;
-128.1000;0.1286;0.8602;
-127.8000;0.1270;0.8579;
-127.5000;0.1302;0.8602;
-127.2000;0.1294;0.8555;
-126.9000;0.1286;0.8507;
-126.6000;0.1311;0.8507;
-126.3000;0.1311;0.8507;
-126.0000;0.1311;0.8484;
-125.7000;0.1302;0.8531;
-125.4000;0.1262;0.8531;
-125.1000;0.1294;0.8650;
-124.8000;0.1294;0.8721;
-124.5000;0.1294;0.8697;
-124.2000;0.1327;0.8792;
-123.9000;0.1302;0.8650;
-123.6000;0.1302;0.8768;
-123.3000;0.1286;0.8768;
-123.0000;0.1311;0.8863;
-122.7000;0.1302;0.8792;
-122.4000;0.1245;0.8650;
-122.1000;0.1245;0.8650;
-121.8000;0.1294;0.8768;
-121.5000;0.1294;0.8815;
-121.2000;0.1294;0.8839;
-120.9000;0.1278;0.8697;
-120.6000;0.1286;0.8744;
-120.3000;0.1294;0.8744;
-120.0000;0.1302;0.8744;
-119.7000;0.1302;0.8650;
-119.4000;0.1294;0.8579;
-119.1000;0.1302;0.8579;
-118.8000;0.1311;0.8579;
-118.5000;0.1286;0.8507;
-118.2000;0.1294;0.8531;
-117.9000;0.1302;0.8602;
-117.6000;0.1311;0.8602;
-117.3000;0.1294;0.8602;
-117.0000;0.1237;0.8555;
-116.7000;0.1286;0.8697;
-116.4000;0.1294;0.8626;
-116.1000;0.1311;0.8579;
-115.8000;0.1294;0.8626;
-115.5000;0.1311;0.8650;
-115.2000;0.1286;0.8626;
-114.9000;0.1294;0.8650;
-114.6000;0.1286;0.8602;
-114.3000;0.1286;0.8579;
-114.0000;0.1335;0.8744;
-113.7000;0.1294;0.8768;
-113.4000;0.1294;0.8768;
-113.1000;0.1294;0.8744;
-112.8000;0.1311;0.8839;
-112.5000;0.1294;0.8768;
-112.2000;0.1294;0.8815;
-111.9000;0.1286;0.8792;
-111.6000;0.1286;0.8768;
-111.3000;0.1286;0.8768;
-111.0000;0.1270;0.8650;
-110.7000;0.1262;0.8721;
-110.4000;0.1327;0.8839;
-110.1000;0.1311;0.8839;
-109.8000;0.1302;0.8815;
-109.5000;0.1294;0.8721;
-109.2000;0.1294;0.8650;
-108.9000;0.1302;0.8626;
-108.6000;0.1270;0.8579;
-108.3000;0.1286;0.8721;
-108.0000;0.1294;0.8721;
-107.7000;0.1343;0.8792;
-107.4000;0.1286;0.8650;
-107.1000;0.1294;0.8697;
-106.8000;0.1302;0.8673;
-106.5000;0.1359;0.8673;
-106.2000;0.1311;0.8555;
-105.9000;0.1368;0.8839;
-105.6000;0.1302;0.8721;
-105.3000;0.1286;0.8650;
-105.0000;0.1278;0.8697;
-104.7000;0.1294;0.8721;
-104.4000;0.1294;0.8768;
-104.1000;0.1286;0.8839;
-103.8000;0.1262;0.8792;
-103.5000;0.1278;0.8815;
-103.2000;0.1302;0.8863;
-102.9000;0.1294;0.8839;
-102.6000;0.1286;0.8887;
-102.3000;0.1302;0.8934;
-102.0000;0.1319;0.9005;
-101.7000;0.1311;0.8958;
-101.4000;0.1311;0.8934;
-101.1000;0.1286;0.8839;
-100.8000;0.1294;0.8839;
-100.5000;0.1311;0.8863;
-100.2000;0.1302;0.8863;
-99.9000;0.1286;0.8815;
-99.6000;0.1319;0.8910;
-99.3000;0.1351;0.9005;
-99.0000;0.1286;0.8863;
-98.7000;0.1294;0.8887;
-98.4000;0.1302;0.8887;
-98.1000;0.1343;0.8934;
-97.8000;0.1302;0.8815;
-97.5000;0.1294;0.8792;
-97.2000;0.1335;0.8887;
-96.9000;0.1286;0.8792;
-96.6000;0.1286;0.8792;
-96.3000;0.1302;0.8839;
-96.0000;0.1270;0.8744;
-95.7000;0.1319;0.8839;
-95.4000;0.1351;0.8981;
-95.1000;0.1302;0.8887;
-94.8000;0.1302;0.8839;
-94.5000;0.1294;0.8815;
-94.2000;0.1294;0.8721;
-93.9000;0.1278;0.8744;
-93.6000;0.1359;0.8910;
-93.3000;0.1286;0.8839;
-93.0000;0.1237;0.8744;
-92.7000;0.1294;0.8792;
-92.4000;0.1286;0.8721;
-92.1000;0.1286;0.8650;
-91.8000;0.1311;0.8673;
-91.5000;0.1335;0.8768;
-91.2000;0.1286;0.8768;
-90.9000;0.1294;0.8792;
-90.6000;0.1294;0.8815;
-90.3000;0.1302;0.8792;
-90.0000;0.1294;0.8792;
-89.7000;0.1302;0.8887;
-89.4000;0.1286;0.8910;
-89.1000;0.1319;0.8934;
-88.8000;0.1302;0.8887;
-88.5000;0.1294;0.8887;
-88.2000;0.1311;0.8887;
-87.9000;0.1286;0.8815;
-87.6000;0.1237;0.8721;
-87.3000;0.1294;0.8887;
-87.0000;0.1302;0.8887;
-86.7000;0.1270;0.8839;
-86.4000;0.1302;0.9029;
-86.1000;0.1294;0.9005;
-85.8000;0.1327;0.9005;
-85.5000;0.1294;0.8863;
-85.2000;0.1286;0.8910;
-84.9000;0.1237;0.8839;
-84.6000;0.1302;0.8934;
-84.3000;0.1286;0.8910;
-84.0000;0.1278;0.8910;
-83.7000;0.1286;0.8910;
-83.4000;0.1286;0.8958;
-83.1000;0.1311;0.8934;
-82.8000;0.1311;0.8910;
-82.5000;0.1311;0.8887;
-82.2000;0.1286;0.8815;
-81.9000;0.1286;0.8721;
-81.6000;0.1294;0.8792;
-81.3000;0.1286;0.8815;
-81.0000;0.1278;0.8768;
-80.7000;0.1302;0.8792;
-80.4000;0.1221;0.8602;
-80.1000;0.1294;0.8887;
-79.8000;0.1294;0.8910;
-79.5000;0.1286;0.8863;
-79.2000;0.1286;0.8887;
-78.9000;0.1286;0.8958;
-78.6000;0.1294;0.8981;
-78.3000;0.1302;0.8958;
-78.0000;0.1294;0.8981;
-77.7000;0.1311;0.8958;
-77.4000;0.1302;0.8815;
-77.1000;0.1294;0.8744;
-76.8000;0.1294;0.8555;
-76.5000;0.1302;0.8531;
-76.2000;0.1359;0.8768;
-75.9000;0.1311;0.8768;
-75.6000;0.1302;0.8815;
-75.3000;0.1286;0.8744;
-75.0000;0.1302;0.8697;
-74.7000;0.1319;0.8673;
-74.4000;0.1286;0.8602;
-74.1000;0.1311;0.8579;
-73.8000;0.1302;0.8579;
-73.5000;0.1311;0.8697;
-73.2000;0.1294;0.8579;
-72.9000;0.1319;0.8673;
-72.6000;0.1302;0.8555;
-72.3000;0.1278;0.8531;
-72.0000;0.1311;0.8555;
-71.7000;0.1286;0.8460;
-71.4000;0.1229;0.8389;
-71.1000;0.1302;0.8484;
-70.8000;0.1311;0.8507;
-70.5000;0.1294;0.8579;
-70.2000;0.1302;0.8579;
-69.9000;0.1302;0.8602;
-69.6000;0.1327;0.8602;
-69.3000;0.1319;0.8697;
-69.0000;0.1311;0.8697;
-68.7000;0.1294;0.8673;
-68.4000;0.1311;0.8721;
-68.1000;0.1302;0.8602;
-67.8000;0.1286;0.8531;
-67.5000;0.1294;0.8507;
-67.2000;0.1286;0.8484;
-66.9000;0.1311;0.8602;
-66.6000;0.1270;0.8579;
-66.3000;0.1294;0.8673;
-66.0000;0.1262;0.8626;
-65.7000;0.1302;0.8650;
-65.4000;0.1278;0.8484;
-65.1000;0.1294;0.8555;
-64.8000;0.1286;0.8531;
-64.5000;0.1286;0.8626;
-64.2000;0.1294;0.8721;
-63.9000;0.1286;0.8721;
-63.6000;0.1294;0.8744;
-63.3000;0.1311;0.8815;
-63.0000;0.1311;0.8863;
-62.7000;0.1376;0.8981;
-62.4000;0.1302;0.8744;
-62.1000;0.1294;0.8721;
-61.8000;0.1343;0.8697;
-61.5000;0.1311;0.8602;
-61.2000;0.1311;0.8531;
-60.9000;0.1294;0.8673;
-60.6000;0.1294;0.8626;
-60.3000;0.1311;0.8697;
-60.0000;0.1278;0.8673;
-59.7000;0.1343;0.8887;
-59.4000;0.1294;0.8887;
-59.1000;0.1319;0.8887;
-58.8000;0.1302;0.8815;
-58.5000;0.1294;0.8839;
-58.2000;0.1302;0.8863;
-57.9000;0.1392;0.9124;
-57.6000;0.1319;0.8910;
-57.3000;0.1270;0.8863;
-57.0000;0.1294;0.8934;
-56.7000;0.1319;0.8958;
-56.4000;0.1294;0.8839;
-56.1000;0.1286;0.8744;
-55.8000;0.1294;0.8744;
-55.5000;0.1294;0.8626;
-55.2000;0.1237;0.8484;
-54.9000;0.1311;0.8673;
-54.6000;0.1286;0.8673;
-54.3000;0.1294;0.8721;
-54.0000;0.1302;0.8744;
-53.7000;0.1294;0.8792;
-53.4000;0.1302;0.8839;
-53.1000;0.1286;0.8792;
-52.8000;0.1311;0.8768;
-52.5000;0.1286;0.8744;
-52.2000;0.1237;0.8579;
-51.9000;0.1286;0.8673;
-51.6000;0.1294;0.8744;
-51.3000;0.1319;0.8792;
-51.0000;0.1294;0.8673;
-50.7000;0.1311;0.8721;
-50.4000;0.1294;0.8721;
-50.1000;0.1302;0.8626;
-49.8000;0.1286;0.8579;
-49.5000;0.1286;0.8507;
-49.2000;0.1270;0.8531;
-48.9000;0.1319;0.8626;
-48.6000;0.1286;0.8650;
-48.3000;0.1286;0.8721;
-48.0000;0.1286;0.8673;
-47.7000;0.1302;0.8650;
-47.4000;0.1294;0.8555;
-47.1000;0.1327;0.8626;
-46.8000;0.1270;0.8484;
-46.5000;0.1302;0.8484;
-46.2000;0.1319;0.8531;
-45.9000;0.1294;0.8555;
-45.6000;0.1294;0.8484;
-45.3000;0.1302;0.8436;
-45.0000;0.1278;0.8413;
-44.7000;0.1294;0.8484;
-44.4000;0.1302;0.8555;
-44.1000;0.1294;0.8579;
-43.8000;0.1254;0.8531;
-43.5000;0.1294;0.8602;
-43.2000;0.1278;0.8579;
-42.9000;0.1302;0.8650;
-42.6000;0.1278;0.8626;
-42.3000;0.1294;0.8602;
-42.0000;0.1319;0.8602;
-41.7000;0.1278;0.8602;
-41.4000;0.1221;0.8484;
-41.1000;0.1311;0.8673;
-40.8000;0.1294;0.8579;
-40.5000;0.1343;0.8697;
-40.2000;0.1311;0.8721;
-39.9000;0.1302;0.8697;
-39.6000;0.1302;0.8650;
-39.3000;0.1262;0.8555;
-39.0000;0.1302;0.8673;
-38.7000;0.1262;0.8579;
-38.4000;0.1319;0.8673;
-38.1000;0.1286;0.8673;
-37.8000;0.1302;0.8744;
-37.5000;0.1286;0.8792;
-37.2000;0.1302;0.8815;
-36.9000;0.1286;0.8721;
-36.6000;0.1302;0.8697;
-36.3000;0.1245;0.8602;
-36.0000;0.1294;0.8815;
-35.7000;0.1302;0.8792;
-35.4000;0.1286;0.8863;
-35.1000;0.1294;0.8863;
-34.8000;0.1294;0.8839;
-34.5000;0.1302;0.8815;
-34.2000;0.1311;0.8958;
-33.9000;0.1359;0.9076;
-33.6000;0.1294;0.8863;
-33.3000;0.1286;0.8863;
-33.0000;0.1311;0.8815;
-32.7000;0.1278;0.8650;
-32.4000;0.1311;0.8697;
-32.1000;0.1302;0.8744;
-31.8000;0.1311;0.8721;
-31.5000;0.1286;0.8650;
-31.2000;0.1311;0.8626;
-30.9000;0.1278;0.8555;
-30.6000;0.1311;0.8626;
-30.3000;0.1327;0.8673;
-30.0000;0.1294;0.8579;
-29.7000;0.1294;0.8531;
-29.4000;0.1319;0.8555;
-29.1000;0.1286;0.8531;
-28.8000;0.1278;0.8484;
-28.5000;0.1286;0.8507;
-28.2000;0.1311;0.8579;
-27.9000;0.1294;0.8579;
-27.6000;0.1286;0.8555;
-27.3000;0.1286;0.8531;
-27.0000;0.1278;0.8531;
-26.7000;0.1294;0.8626;
-26.4000;0.1286;0.8650;
-26.1000;0.1286;0.8697;
-25.8000;0.1311;0.8792;
-25.5000;0.1302;0.8792;
-25.2000;0.1294;0.8792;
-24.9000;0.1327;0.8839;
-24.6000;0.1294;0.8673;
-24.3000;0.1319;0.8697;
-24.0000;0.1327;0.8792;
-23.7000;0.1311;0.8815;
-23.4000;0.1294;0.8768;
-23.1000;0.1262;0.8721;
-22.8000;0.1221;0.8626;
-22.5000;0.1319;0.8815;
-22.2000;0.1294;0.8721;
-21.9000;0.1302;0.8650;
-21.6000;0.1311;0.8697;
-21.3000;0.1302;0.8673;
-21.0000;0.1286;0.8650;
-20.7000;0.1245;0.8579;
-20.4000;0.1327;0.8721;
-20.1000;0.1311;0.8673;
-19.8000;0.1254;0.8531;
-19.5000;0.1294;0.8626;
-19.2000;0.1294;0.8673;
-18.9000;0.1286;0.8744;
-18.6000;0.1294;0.8815;
-18.3000;0.1294;0.8934;
-18.0000;0.1311;0.8934;
-17.7000;0.1319;0.8958;
-17.4000;0.1311;0.8981;
-17.1000;0.1294;0.8981;
-16.8000;0.1286;0.8958;
-16.5000;0.1294;0.8981;
-16.2000;0.1302;0.9005;
-15.9000;0.1343;0.9005;
-15.6000;0.1286;0.8815;
-15.3000;0.1270;0.8792;
-15.0000;0.1302;0.8887;
-14.7000;0.1311;0.8815;
-14.4000;0.1319;0.8839;
-14.1000;0.1335;0.8910;
-13.8000;0.1302;0.8744;
-13.5000;0.1278;0.8626;
-13.2000;0.1319;0.8721;
-12.9000;0.1319;0.8768;
-12.6000;0.1319;0.8815;
-12.3000;0.1311;0.8910;
-12.0000;0.1311;0.8910;
-11.7000;0.1286;0.8958;
-11.4000;0.1294;0.8934;
-11.1000;0.1311;0.8863;
-10.8000;0.1286;0.8839;
-10.5000;0.1278;0.8863;
-10.2000;0.1294;0.8839;
-9.9000;0.1270;0.8792;
-9.6000;0.1286;0.8792;
-9.3000;0.1245;0.8650;
-9.0000;0.1302;0.8792;
-8.7000;0.1286;0.8792;
-8.4000;0.1311;0.8815;
-8.1000;0.1319;0.8815;
-7.8000;0.1294;0.8721;
-7.5000;0.1319;0.8768;
-7.2000;0.1294;0.8721;
-6.9000;0.1286;0.8697;
-6.6000;0.1294;0.8673;
-6.3000;0.1302;0.8744;
-6.0000;0.1311;0.8792;
-5.7000;0.1286;0.8792;
-5.4000;0.1294;0.8697;
-5.1000;0.1343;0.8792;
-4.8000;0.1294;0.8744;
-4.5000;0.1286;0.8697;
-4.2000;0.1286;0.8697;
-3.9000;0.1294;0.8721;
-3.6000;0.1278;0.8792;
-3.3000;0.1286;0.8721;
-3.0000;0.1286;0.8721;
-2.7000;0.1286;0.8768;
-2.4000;0.1311;0.8815;
-2.1000;0.1327;0.8863;
-1.8000;0.1302;0.8887;
-1.5000;0.1294;0.8863;
-1.2000;0.1294;0.8815;
-0.9000;0.1286;0.8815;
-0.6000;0.1302;0.8768;
-0.3000;0.1294;0.8744;
0.0000;0.1294;0.8744;
0.3000;0.1286;0.8792;
0.6000;0.1327;0.8887;
0.9000;0.1359;0.9029;
1.2000;0.1392;0.9076;
1.5000;0.1425;0.9289;
1.8000;0.1481;0.9337;
2.1000;0.1416;0.9218;
2.4000;0.1457;0.9384;
2.7000;0.1465;0.9526;
3.0000;0.1481;0.9597;
3.3000;0.1506;0.9716;
3.6000;0.1481;0.9740;
3.9000;0.1490;0.9858;
4.2000;0.1506;0.9858;
4.5000;0.1498;0.9906;
4.8000;0.1506;0.9882;
5.1000;0.1498;0.9858;
5.4000;0.1522;0.9953;
5.7000;0.1498;0.9929;
6.0000;0.1498;0.9929;
6.3000;0.1506;0.9929;
6.6000;0.1481;0.9834;
6.9000;0.1514;0.9882;
7.2000;0.1490;0.9929;
7.5000;0.1522;1.0095;
7.8000;0.1506;1.0024;
8.1000;0.1481;0.9953;
8.4000;0.1498;0.9953;
8.7000;0.1498;1.0048;
9.0000;0.1457;0.9953;
9.3000;0.1506;0.9953;
9.6000;0.1514;1.0000;
9.9000;0.1514;1.0071;
10.2000;0.1506;1.0048;
10.5000;0.1506;0.9977;
10.8000;0.1522;0.9929;
11.1000;0.1555;1.0000;
11.4000;0.1514;0.9953;
11.7000;0.1555;1.0048;
12.0000;0.1538;1.0000;
12.3000;0.1530;1.0071;
12.6000;0.1563;1.0119;
12.9000;0.1522;0.9977;
13.2000;0.1538;1.0048;
13.5000;0.1547;1.0071;
13.8000;0.1530;1.0119;
14.1000;0.1547;1.0214;
14.4000;0.1530;1.0214;
14.7000;0.1563;1.0261;
15.0000;0.1547;1.0190;
15.3000;0.1498;1.0024;
15.6000;0.1555;1.0143;
15.9000;0.1530;1.0071;
16.2000;0.1555;1.0190;
16.5000;0.1522;1.0190;
16.8000;0.1547;1.0166;
17.1000;0.1538;1.0190;
17.4000;0.1538;1.0214;
17.7000;0.1522;1.0143;
18.0000;0.1538;1.0166;
18.3000;0.1530;1.0190;
18.6000;0.1563;1.0285;
18.9000;0.1538;1.0214;
19.2000;0.1547;1.0166;
19.5000;0.1555;1.0166;
19.8000;0.1563;1.0143;
20.1000;0.1555;1.0095;
20.4000;0.1547;1.0071;
20.7000;0.1563;1.0166;
21.0000;0.1530;1.0166;
21.3000;0.1555;1.0190;
21.6000;0.1555;1.0143;
21.9000;0.1555;1.0095;
22.2000;0.1563;1.0095;
22.5000;0.1571;1.0095;
22.8000;0.1571;1.0071;
23.1000;0.1547;1.0024;
23.4000;0.1563;1.0071;
23.7000;0.1555;1.0024;
24.0000;0.1636;1.0214;
24.3000;0.1579;1.0048;
24.6000;0.1555;1.0048;
24.9000;0.1579;1.0095;
25.2000;0.1530;1.0000;
25.5000;0.1571;1.0048;
25.8000;0.1612;1.0190;
26.1000;0.1579;1.0143;
26.4000;0.1571;1.0166;
26.7000;0.1555;1.0143;
27.0000;0.1555;1.0119;
27.3000;0.1636;1.0261;
27.6000;0.1587;1.0119;
27.9000;0.1571;1.0024;
28.2000;0.1571;1.0000;
28.5000;0.1579;1.0024;
28.8000;0.1538;1.0024;
29.1000;0.1555;1.0071;
29.4000;0.1571;1.0024;
29.7000;0.1555;0.9953;
30.0000;0.1579;0.9834;
30.3000;0.1563;0.9858;
30.6000;0.1612;0.9929;
30.9000;0.1555;0.9858;
31.2000;0.1579;0.9787;
31.5000;0.1571;0.9834;
31.8000;0.1563;0.9834;
32.1000;0.1595;0.9953;
32.4000;0.1587;0.9977;
32.7000;0.1595;1.0071;
33.0000;0.1579;1.0000;
33.3000;0.1538;0.9882;
33.6000;0.1538;0.9929;
33.9000;0.1571;0.9977;
34.2000;0.1563;1.0000;
34.5000;0.1587;1.0048;
34.8000;0.1571;0.9953;
35.1000;0.1579;0.9906;
35.4000;0.1587;0.9929;
35.7000;0.1587;1.0048;
36.0000;0.1579;1.0071;
36.3000;0.1571;1.0190;
36.6000;0.1587;1.0261;
36.9000;0.1595;1.0214;
37.2000;0.1587;1.0095;
37.5000;0.1595;1.0095;
37.8000;0.1595;1.0024;
38.1000;0.1604;1.0071;
38.4000;0.1579;1.0048;
38.7000;0.1587;1.0143;
39.0000;0.1587;1.0285;
39.3000;0.1595;1.0403;
39.6000;0.1587;1.0332;
39.9000;0.1555;1.0261;
40.2000;0.1579;1.0237;
40.5000;0.1587;1.0237;
40.8000;0.1547;1.0024;
41.1000;0.1571;1.0024;
41.4000;0.1579;1.0071;
41.7000;0.1587;1.0071;
42.0000;0.1587;1.0095;
42.3000;0.1595;1.0119;
42.6000;0.1587;1.0048;
42.9000;0.1612;1.0024;
43.2000;0.1604;1.0024;
43.5000;0.1587;0.9953;
43.8000;0.1587;1.0000;
44.1000;0.1595;1.0095;
44.4000;0.1595;1.0166;
44.7000;0.1555;1.0024;
45.0000;0.1587;1.0143;
45.3000;0.1571;1.0143;
45.6000;0.1587;1.0285;
45.9000;0.1595;1.0332;
46.2000;0.1587;1.0427;
46.5000;0.1571;1.0474;
46.8000;0.1530;1.0308;
47.1000;0.1587;1.0380;
47.4000;0.1604;1.0403;
47.7000;0.1595;1.0308;
48.0000;0.1628;1.0308;
48.3000;0.1604;1.0285;
48.6000;0.1620;1.0285;
48.9000;0.1595;1.0190;
49.2000;0.1661;1.0308;
49.5000;0.1620;1.0143;
49.8000;0.1579;1.0119;
50.1000;0.1604;1.0119;
50.4000;0.1587;1.0190;
50.7000;0.1587;1.0190;
51.0000;0.1587;1.0119;
51.3000;0.1587;1.0048;
51.6000;0.1604;1.0048;
51.9000;0.1587;1.0048;
52.2000;0.1644;1.0071;
52.5000;0.1604;1.0048;
52.8000;0.1579;1.0000;
53.1000;0.1587;1.0048;
53.4000;0.1604;1.0095;
53.7000;0.1604;1.0048;
54.0000;0.1604;1.0143;
54.3000;0.1604;1.0095;
54.6000;0.1604;1.0166;
54.9000;0.1620;1.0237;
55.2000;0.1587;1.0214;
55.5000;0.1595;1.0356;
55.8000;0.1579;1.0356;
56.1000;0.1604;1.0332;
56.4000;0.1604;1.0332;
56.7000;0.1620;1.0285;
57.0000;0.1604;1.0261;
57.3000;0.1604;1.0308;
57.6000;0.1612;1.0403;
57.9000;0.1595;1.0380;
58.2000;0.1595;1.0332;
58.5000;0.1587;1.0261;
58.8000;0.1636;1.0285;
59.1000;0.1612;1.0261;
59.4000;0.1612;1.0190;
59.7000;0.1612;1.0095;
60.0000;0.1628;1.0166;
60.3000;0.1604;1.0095;
60.6000;0.1612;1.0024;
60.9000;0.1628;1.0095;
61.2000;0.1612;1.0095;
61.5000;0.1620;1.0143;
61.8000;0.1604;1.0095;
62.1000;0.1612;1.0143;
62.4000;0.1628;1.0214;
62.7000;0.1620;1.0143;
63.0000;0.1595;1.0048;
63.3000;0.1612;1.0071;
63.6000;0.1628;1.0190;
63.9000;0.1612;1.0119;
64.2000;0.1620;1.0119;
64.5000;0.1604;1.0024;
64.8000;0.1547;0.9834;
65.1000;0.1612;1.0048;
65.4000;0.1652;1.0214;
65.7000;0.1628;1.0214;
66.0000;0.1595;1.0119;
66.3000;0.1620;1.0190;
66.6000;0.1612;1.0166;
66.9000;0.1620;1.0119;
67.2000;0.1636;1.0166;
67.5000;0.1604;1.0214;
67.8000;0.1604;1.0285;
68.1000;0.1604;1.0285;
68.4000;0.1612;1.0214;
68.7000;0.1612;1.0237;
69.0000;0.1652;1.0285;
69.3000;0.1604;1.0190;
69.6000;0.1612;1.0166;
69.9000;0.1612;1.0071;
70.2000;0.1612;1.0048;
70.5000;0.1636;1.0166;
70.8000;0.1620;1.0143;
71.1000;0.1579;1.0095;
71.4000;0.1628;1.0308;
71.7000;0.1636;1.0285;
72.0000;0.1628;1.0190;
72.3000;0.1612;1.0166;
72.6000;0.1612;1.0261;
72.9000;0.1628;1.0285;
73.2000;0.1628;1.0261;
73.5000;0.1612;1.0214;
73.8000;0.1620;1.0143;
74.1000;0.1677;1.0261;
74.4000;0.1628;1.0237;
74.7000;0.1628;1.0308;
75.0000;0.1636;1.0308;
75.3000;0.1636;1.0403;
75.6000;0.1620;1.0261;
75.9000;0.1628;1.0308;
76.2000;0.1579;1.0119;
76.5000;0.1620;1.0119;
76.8000;0.1620;1.0095;
77.1000;0.1620;1.0166;
77.4000;0.1620;1.0166;
77.7000;0.1612;1.0166;
78.0000;0.1612;1.0237;
78.3000;0.1620;1.0261;
78.6000;0.1620;1.0261;
78.9000;0.1604;1.0285;
79.2000;0.1547;1.0190;
79.5000;0.1628;1.0308;
79.8000;0.1604;1.0190;
80.1000;0.1612;1.0261;
80.4000;0.1612;1.0237;
80.7000;0.1644;1.0308;
81.0000;0.1628;1.0261;
81.3000;0.1595;1.0190;
81.6000;0.1620;1.0143;
81.9000;0.1620;1.0095;
82.2000;0.1628;1.0024;
82.5000;0.1620;0.9929;
82.8000;0.1620;0.9977;
83.1000;0.1628;1.0000;
83.4000;0.1628;1.0024;
83.7000;0.1620;1.0095;
84.0000;0.1620;1.0166;
84.3000;0.1612;1.0048;
84.6000;0.1628;1.0095;
84.9000;0.1628;1.0119;
85.2000;0.1620;1.0166;
85.5000;0.1620;1.0143;
85.8000;0.1628;1.0237;
86.1000;0.1636;1.0214;
86.4000;0.1612;1.0119;
86.7000;0.1636;1.0308;
87.0000;0.1628;1.0261;
87.3000;0.1644;1.0356;
87.6000;0.1636;1.0332;
87.9000;0.1595;1.0237;
88.2000;0.1612;1.0261;
88.5000;0.1571;1.0095;
88.8000;0.1628;1.0190;
89.1000;0.1620;1.0166;
89.4000;0.1612;1.0143;
89.7000;0.1628;1.0261;
90.0000;0.1604;1.0166;
90.3000;0.1612;1.0095;
90.6000;0.1604;1.0071;
90.9000;0.1620;1.0024;
91.2000;0.1628;1.0000;
91.5000;0.1636;1.0048;
91.8000;0.1628;1.0048;
92.1000;0.1628;1.0071;
92.4000;0.1620;0.9977;
92.7000;0.1587;0.9906;
93.0000;0.1620;0.9882;
93.3000;0.1612;0.9906;
93.6000;0.1628;0.9977;
93.9000;0.1612;0.9953;
94.2000;0.1620;1.0024;
94.5000;0.1612;0.9977;
94.8000;0.1636;1.0071;
95.1000;0.1636;1.0071;
95.4000;0.1628;1.0024;
95.7000;0.1612;0.9977;
96.0000;0.1620;1.0000;
96.3000;0.1628;0.9953;
96.6000;0.1620;0.9953;
96.9000;0.1628;0.9953;
97.2000;0.1571;0.9906;
97.5000;0.1595;1.0000;
97.8000;0.1595;1.0024;
98.1000;0.1628;1.0190;
98.4000;0.1620;1.0214;
98.7000;0.1604;1.0190;
99.0000;0.1604;1.0285;
99.3000;0.1636;1.0356;
99.6000;0.1628;1.0403;
99.9000;0.1636;1.0403;
100.2000;0.1636;1.0427;
100.5000;0.1644;1.0427;
100.8000;0.1604;1.0332;
101.1000;0.1620;1.0285;
101.4000;0.1628;1.0285;
101.7000;0.1677;1.0403;
102.0000;0.1604;1.0166;
102.3000;0.1620;1.0237;
102.6000;0.1628;1.0261;
102.9000;0.1636;1.0214;
103.2000;0.1620;1.0166;
103.5000;0.1620;1.0119;
103.8000;0.1628;1.0166;
104.1000;0.1628;1.0237;
104.4000;0.1612;1.0237;
104.7000;0.1652;1.0261;
105.0000;0.1628;1.0190;
105.3000;0.1628;1.0190;
105.6000;0.1628;1.0166;
105.9000;0.1595;1.0048;
106.2000;0.1661;1.0261;
106.5000;0.1628;1.0190;
106.8000;0.1628;1.0308;
107.1000;0.1652;1.0356;
107.4000;0.1628;1.0308;
107.7000;0.1628;1.0237;
108.0000;0.1628;1.0308;
108.3000;0.1620;1.0261;
108.6000;0.1636;1.0308;
108.9000;0.1644;1.0308;
109.2000;0.1620;1.0261;
109.5000;0.1661;1.0308;
109.8000;0.1628;1.0166;
110.1000;0.1636;1.0143;
110.4000;0.1636;1.0166;
110.7000;0.1628;1.0214;
111.0000;0.1636;1.0214;
111.3000;0.1652;1.0237;
111.6000;0.1644;1.0214;
111.9000;0.1644;1.0214;
112.2000;0.1620;1.0166;
112.5000;0.1628;1.0143;
112.8000;0.1604;1.0095;
113.1000;0.1620;1.0119;
113.4000;0.1620;1.0190;
113.7000;0.1620;1.0214;
114.0000;0.1628;1.0261;
114.3000;0.1628;1.0261;
114.6000;0.1628;1.0285;
114.9000;0.1628;1.0285;
115.2000;0.1620;1.0237;
115.5000;0.1628;1.0261;
115.8000;0.1628;1.0237;
116.1000;0.1669;1.0380;
116.4000;0.1628;1.0356;
116.7000;0.1628;1.0261;
117.0000;0.1587;1.0143;
117.3000;0.1628;1.0237;
117.6000;0.1661;1.0308;
117.9000;0.1620;1.0261;
118.2000;0.1604;1.0214;
118.5000;0.1579;1.0166;
118.8000;0.1644;1.0237;
119.1000;0.1587;1.0143;
119.4000;0.1620;1.0190;
119.7000;0.1620;1.0214;
120.0000;0.1620;1.0119;
120.3000;0.1604;1.0095;
120.6000;0.1628;1.0119;
120.9000;0.1636;1.0190;
121.2000;0.1620;1.0071;
121.5000;0.1628;1.0119;
121.8000;0.1587;1.0048;
122.1000;0.1628;1.0071;
122.4000;0.1636;1.0119;
122.7000;0.1636;1.0071;
123.0000;0.1636;1.0119;
123.3000;0.1595;1.0000;
123.6000;0.1677;1.0261;
123.9000;0.1644;1.0143;
124.2000;0.1579;1.0024;
124.5000;0.1685;1.0285;
124.8000;0.1636;1.0119;
125.1000;0.1644;1.0143;
125.4000;0.1604;1.0071;
125.7000;0.1620;1.0119;
126.0000;0.1620;1.0119;
126.3000;0.1628;1.0166;
126.6000;0.1514;0.9858;
126.9000;0.1628;1.0095;
127.2000;0.1636;1.0166;
127.5000;0.1628;1.0143;
127.8000;0.1644;1.0261;
128.1000;0.1628;1.0214;
128.4000;0.1628;1.0143;
128.7000;0.1636;1.0095;
129.0000;0.1620;1.0024;
129.3000;0.1636;1.0095;
129.6000;0.1595;1.0048;
129.9000;0.1620;1.0190;
130.2000;0.1628;1.0166;
130.5000;0.1636;1.0143;
130.8000;0.1628;1.0190;
131.1000;0.1620;1.0261;
131.4000;0.1563;1.0095;
131.7000;0.1636;1.0261;
132.0000;0.1620;1.0166;
132.3000;0.1628;1.0095;
132.6000;0.1620;1.0143;
132.9000;0.1636;1.0166;
133.2000;0.1628;1.0166;
133.5000;0.1628;1.0166;
133.8000;0.1612;1.0071;
134.1000;0.1612;1.0119;
134.4000;0.1628;1.0119;
134.7000;0.1628;1.0000;
135.0000;0.1620;0.9929;
135.3000;0.1604;0.9953;
135.6000;0.1636;1.0071;
135.9000;0.1612;1.0048;
136.2000;0.1628;1.0143;
136.5000;0.1628;1.0119;
136.8000;0.1612;1.0095;
137.1000;0.1620;1.0095;
137.4000;0.1620;1.0095;
137.7000;0.1620;1.0048;
138.0000;0.1628;1.0119;
138.3000;0.1620;1.0071;
138.6000;0.1612;1.0071;
138.9000;0.1595;1.0048;
139.2000;0.1620;1.0048;
139.5000;0.1620;1.0071;
139.8000;0.1652;1.0119;
140.1000;0.1644;1.0071;
140.4000;0.1636;1.0095;
140.7000;0.1628;1.0095;
141.0000;0.1652;1.0166;
141.3000;0.1628;0.9977;
141.6000;0.1644;0.9906;
141.9000;0.1636;0.9929;
142.2000;0.1620;0.9906;
142.5000;0.1628;0.9953;
142.8000;0.1620;0.9977;
143.1000;0.1628;1.0024;
143.4000;0.1636;1.0048;
143.7000;0.1620;1.0048;
144.0000;0.1693;1.0285;
144.3000;0.1604;1.0095;
144.6000;0.1644;1.0166;
144.9000;0.1628;1.0119;
145.2000;0.1620;1.0143;
145.5000;0.1693;1.0522;
145.8000;0.1612;1.0308;
146.1000;0.1604;1.0261;
146.4000;0.1661;1.0356;
146.7000;0.1587;1.0214;
147.0000;0.1628;1.0285;
147.3000;0.1620;1.0332;
147.6000;0.1677;1.0427;
147.9000;0.1604;1.0285;
148.2000;0.1636;1.0308;
148.5000;0.1628;1.0285;
148.8000;0.1620;1.0356;
149.1000;0.1628;1.0403;
149.4000;0.1636;1.0403;
149.7000;0.1636;1.0285;
150.0000;0.1628;1.0237;
150.3000;0.1571;1.0095;
150.6000;0.1604;1.0190;
150.9000;0.1620;1.0190;
151.2000;0.1652;1.0261;
151.5000;0.1604;1.0190;
151.8000;0.1620;1.0166;
152.1000;0.1620;1.0166;
152.4000;0.1612;1.0214;
152.7000;0.1612;1.0190;
153.0000;0.1620;1.0261;
153.3000;0.1620;1.0214;
153.6000;0.1685;1.0308;
153.9000;0.1628;1.0119;
154.2000;0.1612;1.0048;
154.5000;0.1644;1.0119;
154.8000;0.1661;1.0190;
155.1000;0.1620;1.0143;
155.4000;0.1669;1.0285;
155.7000;0.1579;1.0143;
156.0000;0.1636;1.0308;
156.3000;0.1628;1.0285;
156.6000;0.1628;1.0332;
156.9000;0.1652;1.0403;
157.2000;0.1636;1.0356;
157.5000;0.1628;1.0403;
157.8000;0.1604;1.0380;
158.1000;0.1612;1.0427;
158.4000;0.1628;1.0451;
158.7000;0.1677;1.0545;
159.0000;0.1620;1.0474;
159.3000;0.1628;1.0474;
159.6000;0.1628;1.0474;
159.9000;0.1555;1.0166;
160.2000;0.1612;1.0308;
160.5000;0.1620;1.0308;
160.8000;0.1628;1.0332;
161.1000;0.1644;1.0285;
161.4000;0.1644;1.0285;
161.7000;0.1628;1.0190;
162.0000;0.1628;1.0166;
162.3000;0.1628;1.0237;
162.6000;0.1636;1.0261;
162.9000;0.1636;1.0356;
163.2000;0.1612;1.0308;
163.5000;0.1636;1.0356;
163.8000;0.1628;1.0237;
164.1000;0.1620;1.0214;
164.4000;0.1547;1.0119;
164.7000;0.1612;1.0261;
165.0000;0.1644;1.0285;
165.3000;0.1636;1.0308;
165.6000;0.1636;1.0308;
165.9000;0.1620;1.0285;
166.2000;0.1652;1.0356;
166.5000;0.1636;1.0403;
166.8000;0.1661;1.0451;
167.1000;0.1620;1.0308;
167.4000;0.1669;1.0403;
167.7000;0.1604;1.0356;
168.0000;0.1620;1.0356;
168.3000;0.1644;1.0356;
168.6000;0.1620;1.0332;
168.9000;0.1628;1.0380;
169.2000;0.1628;1.0380;
169.5000;0.1563;1.0214;
169.8000;0.1620;1.0308;
170.1000;0.1620;1.0261;
170.4000;0.1620;1.0261;
170.7000;0.1644;1.0261;
171.0000;0.1620;1.0190;
171.3000;0.1612;1.0166;
171.6000;0.1644;1.0143;
171.9000;0.1636;1.0285;
172.2000;0.1587;1.0119;
172.5000;0.1612;1.0214;
172.8000;0.1644;1.0261;
173.1000;0.1636;1.0237;
173.4000;0.1612;1.0166;
173.7000;0.1612;1.0143;
174.0000;0.1604;1.0000;
174.3000;0.1620;1.0024;
174.6000;0.1620;1.0071;
174.9000;0.1636;1.0048;
175.2000;0.1620;0.9977;
175.5000;0.1620;1.0000;
175.8000;0.1628;1.0143;
176.1000;0.1604;1.0143;
176.4000;0.1612;1.0071;
176.7000;0.1636;1.0071;
177.0000;0.1620;1.0024;
177.3000;0.1620;1.0024;
177.6000;0.1612;0.9977;
177.9000;0.1644;1.0119;
178.2000;0.1652;1.0071;
178.5000;0.1620;1.0071;
178.8000;0.1612;1.0048;
179.1000;0.1612;1.0143;
179.4000;0.1636;1.0214;
179.7000;0.1620;1.0237;
180.0000;0.1669;1.0237;
180.3000;0.1620;1.0190;
180.6000;0.1628;1.0166;
180.9000;0.1620;1.0143;
181.2000;0.1628;1.0143;
181.5000;0.1628;1.0095;
181.8000;0.1620;1.0071;
182.1000;0.1628;1.0048;
182.4000;0.1628;1.0095;
182.7000;0.1701;1.0285;
183.0000;0.1628;1.0071;
183.3000;0.1628;1.0071;
183.6000;0.1612;1.0048;
183.9000;0.1628;1.0048;
184.2000;0.1612;0.9929;
184.5000;0.1620;0.9906;
184.8000;0.1612;1.0000;
185.1000;0.1612;0.9977;
185.4000;0.1595;0.9929;
185.7000;0.1644;1.0071;
186.0000;0.1595;0.9953;
186.3000;0.1628;1.0048;
186.6000;0.1628;1.0024;
186.9000;0.1636;0.9953;
187.2000;0.1669;1.0071;
187.5000;0.1628;1.0000;
187.8000;0.1612;1.0024;
188.1000;0.1685;1.0237;
188.4000;0.1620;1.0048;
188.7000;0.1628;1.0024;
189.0000;0.1571;0.9834;
189.3000;0.1620;0.9953;
189.6000;0.1620;1.0095;
189.9000;0.1620;1.0048;
190.2000;0.1709;1.0261;
190.5000;0.1636;1.0000;
190.8000;0.1636;1.0048;
191.1000;0.1612;1.0071;
191.4000;0.1644;1.0190;
191.7000;0.1612;1.0119;
192.0000;0.1628;1.0071;
192.3000;0.1644;1.0119;
192.6000;0.1636;1.0095;
192.9000;0.1620;1.0095;
193.2000;0.1604;1.0071;
193.5000;0.1620;1.0119;
193.8000;0.1677;1.0143;
194.1000;0.1628;1.0000;
194.4000;0.1604;0.9929;
194.7000;0.1620;0.9977;
195.0000;0.1620;1.0071;
195.3000;0.1636;1.0095;
195.6000;0.1579;1.0024;
195.9000;0.1620;1.0048;
196.2000;0.1677;1.0095;
196.5000;0.1628;1.0048;
196.8000;0.1612;1.0048;
197.1000;0.1628;1.0119;
197.4000;0.1628;1.0166;
197.7000;0.1612;1.0190;
198.0000;0.1612;1.0095;
198.3000;0.1612;1.0071;
198.6000;0.1652;1.0048;
198.9000;0.1628;0.9906;
199.2000;0.1652;0.9906;
199.5000;0.1628;0.9953;
199.8000;0.1644;0.9953;
200.1000;0.1636;1.0024;
200.4000;0.1587;0.9977;
200.7000;0.1620;1.0048;
201.0000;0.1636;1.0048;
201.3000;0.1628;1.0071;
201.6000;0.1661;1.0237;
201.9000;0.1628;1.0024;
202.2000;0.1620;1.0024;
202.5000;0.1636;1.0071;
202.8000;0.1636;1.0119;
203.1000;0.1620;1.0048;
203.4000;0.1644;1.0237;
203.7000;0.1628;1.0190;
204.0000;0.1636;1.0190;
204.3000;0.1636;1.0143;
204.6000;0.1628;1.0071;
204.9000;0.1620;1.0143;
205.2000;0.1628;1.0143;
205.5000;0.1636;1.0166;
205.8000;0.1644;1.0214;
206.1000;0.1604;1.0119;
206.4000;0.1636;1.0261;
206.7000;0.1628;1.0380;
207.0000;0.1620;1.0403;
207.3000;0.1620;1.0451;
207.6000;0.1628;1.0474;
207.9000;0.1644;1.0474;
208.2000;0.1620;1.0380;
208.5000;0.1628;1.0285;
208.8000;0.1620;1.0261;
209.1000;0.1636;1.0237;
209.4000;0.1636;1.0190;
209.7000;0.1636;1.0190;
210.0000;0.1620;1.0143;
210.3000;0.1628;1.0237;
210.6000;0.1636;1.0356;
210.9000;0.1628;1.0403;
211.2000;0.1555;1.0237;
211.5000;0.1612;1.0308;
211.8000;0.1652;1.0427;
212.1000;0.1604;1.0285;
212.4000;0.1628;1.0356;
212.7000;0.1628;1.0308;
213.0000;0.1620;1.0190;
213.3000;0.1628;1.0190;
213.6000;0.1636;1.0071;
213.9000;0.1652;1.0119;
214.2000;0.1636;1.0119;
214.5000;0.1644;1.0214;
214.8000;0.1652;1.0119;
215.1000;0.1628;1.0071;
215.4000;0.1636;1.0024;
215.7000;0.1644;1.0000;
216.0000;0.1628;0.9953;
216.3000;0.1595;0.9882;
216.6000;0.1628;0.9977;
216.9000;0.1612;1.0000;
217.2000;0.1587;1.0071;
217.5000;0.1636;1.0237;
217.8000;0.1620;1.0190;
218.1000;0.1612;1.0190;
218.4000;0.1604;1.0237;
218.7000;0.1620;1.0285;
219.0000;0.1604;1.0214;
219.3000;0.1693;1.0451;
219.6000;0.1620;1.0261;
219.9000;0.1620;1.0237;
220.2000;0.1579;1.0071;
220.5000;0.1620;1.0237;
220.8000;0.1620;1.0214;
221.1000;0.1644;1.0261;
221.4000;0.1628;1.0214;
221.7000;0.1628;1.0285;
222.0000;0.1628;1.0285;
222.3000;0.1644;1.0332;
222.6000;0.1669;1.0356;
222.9000;0.1620;1.0190;
223.2000;0.1636;1.0166;
223.5000;0.1628;1.0166;
223.8000;0.1628;1.0214;
224.1000;0.1628;1.0237;
224.4000;0.1669;1.0237;
224.7000;0.1644;1.0143;
225.0000;0.1628;1.0095;
225.3000;0.1636;1.0095;
225.6000;0.1620;1.0119;
225.9000;0.1620;1.0119;
226.2000;0.1587;0.9953;
226.5000;0.1628;1.0119;
226.8000;0.1620;0.9977;
227.1000;0.1636;0.9977;
227.4000;0.1628;0.9906;
227.7000;0.1661;1.0000;
228.0000;0.1620;0.9953;
228.3000;0.1628;0.9929;
228.6000;0.1628;0.9882;
228.9000;0.1636;0.9929;
229.2000;0.1628;0.9953;
229.5000;0.1604;0.9977;
229.8000;0.1620;0.9977;
230.1000;0.1620;0.9906;
230.4000;0.1563;0.9787;
230.7000;0.1693;1.0095;
231.0000;0.1644;0.9906;
231.3000;0.1677;1.0119;
231.6000;0.1628;0.9977;
231.9000;0.1620;0.9929;
232.2000;0.1628;1.0000;
232.5000;0.1669;1.0024;
232.8000;0.1628;0.9953;
233.1000;0.1652;0.9977;
233.4000;0.1628;0.9858;
233.7000;0.1620;0.9763;
234.0000;0.1612;0.9716;
234.3000;0.1587;0.9621;
234.6000;0.1620;0.9716;
234.9000;0.1628;0.9811;
235.2000;0.1628;0.9906;
235.5000;0.1587;0.9882;
235.8000;0.1620;1.0000;
236.1000;0.1620;1.0000;
236.4000;0.1628;1.0143;
236.7000;0.1636;1.0095;
237.0000;0.1563;0.9953;
237.3000;0.1612;1.0048;
237.6000;0.1612;1.0143;
237.9000;0.1669;1.0237;
238.2000;0.1644;1.0190;
238.5000;0.1628;1.0095;
238.8000;0.1620;1.0048;
239.1000;0.1620;1.0095;
239.4000;0.1620;1.0071;
239.7000;0.1587;0.9953;
240.0000;0.1620;1.0095;
240.3000;0.1628;1.0048;
240.6000;0.1652;1.0095;
240.9000;0.1612;1.0024;
241.2000;0.1612;1.0095;
241.5000;0.1677;1.0285;
241.8000;0.1628;1.0143;
242.1000;0.1612;1.0119;
242.4000;0.1612;1.0071;
242.7000;0.1636;1.0143;
243.0000;0.1636;1.0166;
243.3000;0.1636;1.0119;
243.6000;0.1612;1.0048;
243.9000;0.1628;0.9953;
244.2000;0.1628;0.9929;
244.5000;0.1628;0.9953;
244.8000;0.1612;0.9858;
245.1000;0.1620;0.9882;
245.4000;0.1612;0.9811;
245.7000;0.1709;1.0048;
246.0000;0.1628;0.9834;
246.3000;0.1579;0.9692;
246.6000;0.1628;0.9787;
246.9000;0.1620;0.9787;
247.2000;0.1636;0.9787;
247.5000;0.1571;0.9740;
247.8000;0.1620;0.9787;
248.1000;0.1620;0.9763;
248.4000;0.1636;0.9906;
248.7000;0.1628;0.9858;
249.0000;0.1620;0.9858;
249.3000;0.1644;0.9882;
249.6000;0.1636;0.9929;
249.9000;0.1636;0.9929;
250.2000;0.1612;0.9882;
250.5000;0.1636;0.9906;
250.8000;0.1587;0.9858;
251.1000;0.1628;1.0000;
251.4000;0.1620;1.0000;
251.7000;0.1644;1.0024;
252.0000;0.1620;0.9882;
252.3000;0.1612;0.9906;
252.6000;0.1636;1.0095;
252.9000;0.1644;1.0095;
253.2000;0.1628;1.0000;
253.5000;0.1636;1.0048;
253.8000;0.1636;1.0000;
254.1000;0.1628;0.9906;
254.4000;0.1661;1.0048;
254.7000;0.1652;1.0000;
255.0000;0.1612;0.9882;
255.3000;0.1652;1.0000;
255.6000;0.1628;0.9906;
255.9000;0.1620;0.9977;
256.2000;0.1636;1.0048;
256.5000;0.1620;1.0024;
256.8000;0.1628;1.0095;
257.1000;0.1620;1.0119;
257.4000;0.1628;1.0237;
257.7000;0.1620;1.0143;
258.0000;0.1620;1.0119;
258.3000;0.1587;1.0095;
258.6000;0.1620;1.0143;
258.9000;0.1644;1.0190;
259.2000;0.1612;1.0143;
259.5000;0.1595;1.0048;
259.8000;0.1571;1.0048;
260.1000;0.1620;1.0119;
260.4000;0.1652;1.0190;
260.7000;0.1620;1.0095;
261.0000;0.1628;1.0095;
261.3000;0.1628;0.9953;
261.6000;0.1628;0.9882;
261.9000;0.1620;0.9882;
262.2000;0.1620;0.9906;
262.5000;0.1644;0.9929;
262.8000;0.1612;0.9929;
263.1000;0.1604;0.9953;
263.4000;0.1620;0.9977;
263.7000;0.1661;0.9977;
264.0000;0.1644;0.9953;
264.3000;0.1620;0.9858;
264.6000;0.1612;0.9858;
264.9000;0.1628;0.9977;
265.2000;0.1628;0.9977;
265.5000;0.1620;0.9953;
265.8000;0.1628;0.9953;
266.1000;0.1628;1.0000;
266.4000;0.1652;1.0024;
266.7000;0.1636;0.9858;
267.0000;0.1628;0.9906;
267.3000;0.1628;0.9906;
267.6000;0.1636;0.9929;
267.9000;0.1628;0.9929;
268.2000;0.1612;0.9834;
268.5000;0.1595;0.9763;
268.8000;0.1636;0.9906;
269.1000;0.1636;0.9929;
269.4000;0.1636;0.9858;
269.7000;0.1571;0.9763;
270.0000;0.1620;0.9977;
270.3000;0.1563;0.9811;
270.6000;0.1636;0.9977;
270.9000;0.1604;0.9977;
271.2000;0.1628;1.0000;
271.5000;0.1636;0.9953;
271.8000;0.1612;0.9858;
272.1000;0.1612;0.9811;
272.4000;0.1620;0.9858;
272.7000;0.1620;1.0000;
273.0000;0.1620;1.0024;
273.3000;0.1620;0.9953;
273.6000;0.1620;0.9977;
273.9000;0.1628;1.0048;
274.2000;0.1628;1.0000;
274.5000;0.1571;0.9834;
274.8000;0.1628;1.0000;
275.1000;0.1628;1.0024;
275.4000;0.1628;1.0095;
275.7000;0.1587;0.9977;
276.0000;0.1620;1.0000;
276.3000;0.1636;0.9977;
276.6000;0.1636;0.9953;
276.9000;0.1571;0.9906;
277.2000;0.1628;1.0048;
277.5000;0.1628;1.0048;
277.8000;0.1636;1.0048;
278.1000;0.1644;1.0119;
278.4000;0.1669;1.0119;
278.7000;0.1628;0.9977;
279.0000;0.1636;1.0024;
279.3000;0.1612;0.9953;
279.6000;0.1620;0.9882;
279.9000;0.1628;0.9906;
280.2000;0.1620;0.9882;
280.5000;0.1636;0.9953;
280.8000;0.1636;0.9929;
281.1000;0.1620;0.9882;
281.4000;0.1636;0.9929;
281.7000;0.1636;0.9953;
282.0000;0.1636;0.9929;
282.3000;0.1620;0.9834;
282.6000;0.1620;0.9811;
282.9000;0.1620;0.9858;
283.2000;0.1644;1.0000;
283.5000;0.1636;1.0048;
283.8000;0.1628;1.0048;
284.1000;0.1628;1.0095;
284.4000;0.1628;1.0071;
284.7000;0.1628;1.0095;
285.0000;0.1628;1.0095;
285.3000;0.1628;1.0119;
285.6000;0.1620;1.0119;
285.9000;0.1628;1.0095;
286.2000;0.1563;0.9953;
286.5000;0.1587;0.9929;
286.8000;0.1628;1.0024;
287.1000;0.1644;1.0024;
287.4000;0.1652;1.0119;
287.7000;0.1587;0.9882;
288.0000;0.1628;1.0000;
288.3000;0.1628;1.0024;
288.6000;0.1620;1.0024;
288.9000;0.1612;1.0071;
289.2000;0.1661;0.9953;
289.5000;0.1636;1.0000;
289.8000;0.1628;0.9977;
290.1000;0.1612;0.9811;
290.4000;0.1604;0.9716;
290.7000;0.1620;0.9858;
291.0000;0.1644;0.9953;
291.3000;0.1563;0.9834;
291.6000;0.1612;0.9906;
291.9000;0.1620;0.9858;
292.2000;0.1628;0.9858;
292.5000;0.1644;0.9882;
292.8000;0.1612;0.9858;
293.1000;0.1628;0.9953;
293.4000;0.1636;1.0000;
293.7000;0.1644;1.0048;
294.0000;0.1628;1.0024;
294.3000;0.1628;1.0048;
294.6000;0.1563;0.9929;
294.9000;0.1620;1.0071;
295.2000;0.1628;1.0166;
295.5000;0.1612;1.0095;
295.8000;0.1620;1.0119;
296.1000;0.1587;1.0024;
296.4000;0.1628;1.0095;
296.7000;0.1620;1.0095;
297.0000;0.1604;1.0071;
297.3000;0.1636;1.0166;
297.6000;0.1636;1.0190;
297.9000;0.1652;1.0166;
298.2000;0.1628;1.0071;
298.5000;0.1620;1.0119;
298.8000;0.1628;1.0166;
299.1000;0.1620;1.0048;
299.4000;0.1620;1.0048;
299.7000;0.1620;1.0095;
300.0000;0.1620;1.0095;
300.3000;0.1636;1.0071;
300.6000;0.1693;1.0166;
300.9000;0.1636;1.0048;
301.2000;0.1636;1.0000;
301.5000;0.1636;1.0000;
301.8000;0.1620;1.0000;
302.1000;0.1628;1.0048;
302.4000;0.1636;1.0071;
302.7000;0.1644;1.0119;
303.0000;0.1636;1.0119;
303.3000;0.1628;1.0143;
303.6000;0.1628;1.0119;
303.9000;0.1628;1.0166;
304.2000;0.1636;1.0143;
304.5000;0.1620;0.9953;
304.8000;0.1620;0.9953;
305.1000;0.1628;0.9929;
305.4000;0.1693;0.9977;
305.7000;0.1620;0.9834;
306.0000;0.1652;0.9906;
306.3000;0.1620;0.9811;
306.6000;0.1628;0.9834;
306.9000;0.1620;0.9858;
307.2000;0.1628;0.9906;
307.5000;0.1628;0.9858;
307.8000;0.1628;0.9834;
308.1000;0.1612;0.9858;
308.4000;0.1620;0.9906;
308.7000;0.1628;1.0000;
309.0000;0.1612;0.9977;
309.3000;0.1604;0.9906;
309.6000;0.1661;1.0024;
309.9000;0.1652;0.9953;
310.2000;0.1652;0.9929;
310.5000;0.1587;0.9834;
310.8000;0.1612;0.9953;
311.1000;0.1628;0.9977;
311.4000;0.1628;1.0024;
311.7000;0.1612;0.9953;
312.0000;0.1612;1.0024;
312.3000;0.1620;1.0024;
312.6000;0.1579;0.9906;
312.9000;0.1620;0.9953;
313.2000;0.1620;0.9906;
313.5000;0.1612;1.0000;
313.8000;0.1604;1.0000;
314.1000;0.1628;1.0071;
314.4000;0.1595;1.0071;
314.7000;0.1661;1.0285;
315.0000;0.1620;1.0143;
315.3000;0.1604;1.0071;
315.6000;0.1587;1.0095;
315.9000;0.1604;1.0095;
316.2000;0.1620;1.0190;
316.5000;0.1628;1.0190;
316.8000;0.1636;1.0190;
317.1000;0.1628;1.0119;
317.4000;0.1628;1.0071;
317.7000;0.1620;1.0024;
318.0000;0.1628;1.0024;
318.3000;0.1595;1.0071;
318.6000;0.1620;1.0071;
318.9000;0.1620;1.0143;
319.2000;0.1620;1.0119;
319.5000;0.1628;1.0095;
319.8000;0.1612;1.0143;
320.1000;0.1620;1.0190;
320.4000;0.1628;1.0237;
320.7000;0.1644;1.0261;
321.0000;0.1636;1.0190;
321.3000;0.1579;0.9977;
321.6000;0.1620;1.0095;
321.9000;0.1612;1.0024;
322.2000;0.1620;1.0024;
322.5000;0.1620;1.0024;
322.8000;0.1620;0.9977;
323.1000;0.1628;1.0024;
323.4000;0.1620;1.0071;
323.7000;0.1636;1.0095;
324.0000;0.1620;1.0071;
324.3000;0.1636;1.0119;
324.6000;0.1612;1.0071;
324.9000;0.1620;1.0095;
325.2000;0.1612;1.0071;
325.5000;0.1628;1.0071;
325.8000;0.1636;1.0095;
326.1000;0.1604;1.0048;
326.4000;0.1587;0.9929;
326.7000;0.1644;1.0143;
327.0000;0.1628;1.0095;
327.3000;0.1604;1.0071;
327.6000;0.1644;1.0119;
327.9000;0.1644;1.0071;
328.2000;0.1644;1.0071;
328.5000;0.1636;1.0119;
328.8000;0.1595;1.0048;
329.1000;0.1620;1.0143;
329.4000;0.1628;1.0237;
329.7000;0.1620;1.0214;
330.0000;0.1628;1.0308;
330.3000;0.1604;1.0166;
330.6000;0.1620;1.0119;
330.9000;0.1661;1.0143;
331.2000;0.1595;1.0095;
331.5000;0.1612;1.0143;
331.8000;0.1571;0.9953;
332.1000;0.1563;0.9834;
332.4000;0.1636;1.0095;
332.7000;0.1620;1.0095;
333.0000;0.1628;1.0071;
333.3000;0.1636;1.0024;
333.6000;0.1644;1.0048;
333.9000;0.1579;0.9953;
334.2000;0.1620;1.0095;
334.5000;0.1579;1.0048;
334.8000;0.1628;1.0214;
335.1000;0.1620;1.0214;
335.4000;0.1677;1.0261;
335.7000;0.1538;0.9882;
336.0000;0.1652;1.0119;
336.3000;0.1636;1.0143;
336.6000;0.1669;1.0143;
336.9000;0.1636;1.0048;
337.2000;0.1636;1.0048;
337.5000;0.1628;1.0071;
337.8000;0.1636;1.0095;
338.1000;0.1628;1.0143;
338.4000;0.1636;1.0119;
338.7000;0.1604;1.0119;
339.0000;0.1628;1.0190;
339.3000;0.1620;1.0261;
339.6000;0.1620;1.0143;
339.9000;0.1620;1.0166;
340.2000;0.1604;1.0119;
340.5000;0.1669;1.0261;
340.8000;0.1612;1.0048;
341.1000;0.1628;1.0119;
341.4000;0.1620;1.0214;
341.7000;0.1620;1.0214;
342.0000;0.1636;1.0166;
342.3000;0.1628;1.0190;
342.6000;0.1604;1.0166;
342.9000;0.1652;1.0285;
343.2000;0.1636;1.0285;
343.5000;0.1595;1.0119;
343.8000;0.1620;1.0214;
344.1000;0.1677;1.0285;
344.4000;0.1636;1.0190;
344.7000;0.1644;1.0119;
345.0000;0.1604;0.9953;
345.3000;0.1620;1.0119;
345.6000;0.1620;1.0143;
345.9000;0.1636;1.0166;
346.2000;0.1628;1.0143;
346.5000;0.1620;1.0095;
346.8000;0.1636;1.0095;
347.1000;0.1709;1.0285;
347.4000;0.1636;1.0166;
347.7000;0.1628;1.0214;
348.0000;0.1652;1.0261;
348.3000;0.1620;1.0190;
348.6000;0.1628;1.0071;
348.9000;0.1685;1.0166;
349.2000;0.1644;1.0024;
349.5000;0.1620;0.9977;
349.8000;0.1547;0.9763;
350.1000;0.1636;0.9977;
350.4000;0.1636;1.0024;
350.7000;0.1636;1.0024;
351.0000;0.1677;1.0095;
351.3000;0.1620;0.9882;
351.6000;0.1628;0.9906;
351.9000;0.1595;0.9858;
352.2000;0.1636;0.9977;
352.5000;0.1612;0.9882;
352.8000;0.1677;1.0143;
353.1000;0.1620;1.0024;
353.4000;0.1571;0.9953;
353.7000;0.1620;1.0095;
354.0000;0.1612;1.0166;
354.3000;0.1628;1.0143;
354.6000;0.1620;1.0190;
354.9000;0.1604;1.0119;
355.2000;0.1620;1.0024;
355.5000;0.1636;1.0024;
355.8000;0.1628;1.0048;
356.1000;0.1604;1.0071;
356.4000;0.1628;1.0119;
356.7000;0.1620;1.0143;
357.0000;0.1604;1.0024;
357.3000;0.1612;1.0024;
357.6000;0.1612;1.0024;
357.9000;0.1628;1.0048;
358.2000;0.1628;1.0048;
358.5000;0.1595;0.9906;
358.8000;0.1612;0.9929;
359.1000;0.1636;0.9953;
359.4000;0.1636;0.9977;
359.7000;0.1628;0.9906;
360.0000;0.1620;0.9834;
360.3000;0.1612;0.9906;
360.6000;0.1628;0.9953;
360.9000;0.1636;0.9882;
361.2000;0.1685;0.9929;
361.5000;0.1628;0.9787;
361.8000;0.1628;0.9906;
362.1000;0.1661;0.9858;
362.4000;0.1628;0.9787;
362.7000;0.1628;0.9787;
363.0000;0.1620;0.9834;
363.3000;0.1563;0.9716;
363.6000;0.1604;0.9834;
363.9000;0.1620;0.9953;
364.2000;0.1612;0.9929;
364.5000;0.1628;0.9882;
364.8000;0.1644;0.9906;
365.1000;0.1612;0.9811;
365.4000;0.1579;0.9763;
365.7000;0.1620;0.9787;
366.0000;0.1636;0.9811;
366.3000;0.1661;0.9882;
366.6000;0.1636;0.9834;
366.9000;0.1628;0.9929;
367.2000;0.1636;1.0000;
367.5000;0.1628;1.0024;
367.8000;0.1620;1.0071;
368.1000;0.1612;1.0119;
368.4000;0.1636;1.0190;
368.7000;0.1636;1.0095;
369.0000;0.1652;1.0024;
369.3000;0.1620;0.9977;
369.6000;0.1636;1.0048;
369.9000;0.1604;1.0048;
370.2000;0.1636;1.0095;
370.5000;0.1628;1.0143;
370.8000;0.1620;1.0166;
371.1000;0.1620;1.0166;
371.4000;0.1644;1.0190;
371.7000;0.1628;1.0166;
372.0000;0.1669;1.0308;
372.3000;0.1628;1.0214;
372.6000;0.1612;1.0214;
372.9000;0.1636;1.0261;
373.2000;0.1628;1.0214;
373.5000;0.1620;1.0143;
373.8000;0.1620;1.0261;
374.1000;0.1701;1.0403;
374.4000;0.1612;1.0143;
374.7000;0.1612;1.0119;
375.0000;0.1636;1.0166;
375.3000;0.1636;1.0190;
375.6000;0.1628;1.0119;
375.9000;0.1620;1.0119;
376.2000;0.1620;1.0095;
376.5000;0.1636;1.0119;
376.8000;0.1636;1.0095;
377.1000;0.1628;1.0095;
377.4000;0.1620;1.0166;
377.7000;0.1595;1.0190;
378.0000;0.1620;1.0166;
378.3000;0.1555;1.0048;
378.6000;0.1604;1.0166;
378.9000;0.1612;1.0237;
379.2000;0.1612;1.0237;
379.5000;0.1636;1.0214;
379.8000;0.1620;1.0143;
380.1000;0.1628;1.0190;
380.4000;0.1636;1.0214;
380.7000;0.1604;1.0190;
381.0000;0.1620;1.0214;
381.3000;0.1612;1.0190;
381.6000;0.1669;1.0356;
381.9000;0.1612;1.0214;
382.2000;0.1644;1.0332;
382.5000;0.1620;1.0237;
382.8000;0.1620;1.0143;
383.1000;0.1612;1.0048;
383.4000;0.1628;1.0095;
383.7000;0.1677;1.0214;
384.0000;0.1620;1.0071;
384.3000;0.1701;1.0356;
384.6000;0.1628;1.0237;
384.9000;0.1620;1.0190;
385.2000;0.1563;0.9977;
385.5000;0.1620;1.0024;
385.8000;0.1612;0.9977;
386.1000;0.1612;0.9858;
386.4000;0.1595;0.9929;
386.7000;0.1628;0.9977;
387.0000;0.1620;0.9977;
387.3000;0.1620;0.9977;
387.6000;0.1612;0.9929;
387.9000;0.1612;0.9906;
388.2000;0.1628;0.9977;
388.5000;0.1604;0.9953;
388.8000;0.1628;1.0024;
389.1000;0.1604;1.0071;
389.4000;0.1620;1.0143;
389.7000;0.1595;1.0166;
390.0000;0.1612;1.0143;
390.3000;0.1604;1.0095;
390.6000;0.1628;1.0143;
390.9000;0.1652;1.0190;
391.2000;0.1636;1.0095;
391.5000;0.1652;1.0048;
391.8000;0.1628;1.0048;
392.1000;0.1661;1.0048;
392.4000;0.1652;0.9953;
392.7000;0.1636;0.9882;
393.0000;0.1595;0.9882;
393.3000;0.1587;0.9906;
393.6000;0.1620;0.9953;
393.9000;0.1587;0.9882;
394.2000;0.1620;1.0000;
394.5000;0.1587;0.9882;
394.8000;0.1620;0.9977;
395.1000;0.1612;1.0000;
395.4000;0.1644;1.0095;
395.7000;0.1620;1.0024;
396.0000;0.1628;1.0024;
396.3000;0.1604;0.9977;
396.6000;0.1628;1.0000;
396.9000;0.1620;0.9977;
397.2000;0.1636;0.9906;
397.5000;0.1636;0.9953;
397.8000;0.1652;0.9977;
398.1000;0.1612;0.9929;
398.4000;0.1644;1.0166;
398.7000;0.1636;1.0261;
399.0000;0.1636;1.0237;
399.3000;0.1636;1.0261;
399.6000;0.1636;1.0190;
399.9000;0.1652;1.0190;
400.2000;0.1604;1.0071;
400.5000;0.1644;1.0261;
400.8000;0.1628;1.0237;
401.1000;0.1644;1.0332;
401.4000;0.1628;1.0285;
401.7000;0.1579;1.0143;
402.0000;0.1620;1.0143;
402.3000;0.1620;1.0190;
402.6000;0.1652;1.0166;
402.9000;0.1620;1.0095;
403.2000;0.1612;1.0048;
403.5000;0.1661;1.0095;
403.8000;0.1620;1.0048;
404.1000;0.1628;1.0048;
404.4000;0.1628;1.0048;
404.7000;0.1628;1.0119;
405.0000;0.1644;1.0071;
405.3000;0.1636;1.0095;
405.6000;0.1636;1.0048;
405.9000;0.1628;1.0024;
406.2000;0.1595;0.9858;
406.5000;0.1612;0.9858;
406.8000;0.1644;0.9929;
407.1000;0.1620;0.9834;
407.4000;0.1612;0.9811;
407.7000;0.1644;0.9929;
408.0000;0.1620;0.9906;
408.3000;0.1669;1.0048;
408.6000;0.1595;0.9953;
408.9000;0.1636;1.0071;
409.2000;0.1636;1.0071;
409.5000;0.1620;1.0071;
409.8000;0.1628;1.0071;
410.1000;0.1636;1.0048;
410.4000;0.1620;1.0024;
410.7000;0.1620;0.9929;
411.0000;0.1620;0.9977;
411.3000;0.1628;0.9953;
411.6000;0.1644;1.0071;
411.9000;0.1628;0.9953;
412.2000;0.1620;0.9882;
412.5000;0.1636;0.9929;
412.8000;0.1612;0.9929;
413.1000;0.1620;0.9953;
413.4000;0.1612;0.9906;
413.7000;0.1620;0.9882;
414.0000;0.1620;0.9858;
414.3000;0.1620;0.9834;
414.6000;0.1628;0.9882;
414.9000;0.1563;0.9763;
415.2000;0.1620;0.9929;
415.5000;0.1628;0.9906;
415.8000;0.1620;0.9929;
416.1000;0.1628;0.9977;
416.4000;0.1628;0.9977;
416.7000;0.1636;1.0024;
417.0000;0.1636;1.0024;
417.3000;0.1612;1.0071;
417.6000;0.1661;1.0119;
417.9000;0.1604;1.0119;
418.2000;0.1604;1.0119;
418.5000;0.1604;1.0095;
418.8000;0.1612;1.0166;
419.1000;0.1612;1.0095;
419.4000;0.1612;1.0000;
419.7000;0.1612;1.0000;
420.0000;0.1628;1.0024;
420.3000;0.1636;1.0024;
420.6000;0.1628;1.0024;
420.9000;0.1620;1.0000;
421.2000;0.1620;1.0024;
421.5000;0.1636;1.0119;
421.8000;0.1620;1.0095;
422.1000;0.1620;0.9977;
422.4000;0.1628;0.9906;
422.7000;0.1612;0.9858;
423.0000;0.1612;0.9811;
423.3000;0.1587;0.9740;
423.6000;0.1620;0.9811;
423.9000;0.1620;0.9763;
424.2000;0.1612;0.9811;
424.5000;0.1628;0.9906;
424.8000;0.1628;0.9811;
425.1000;0.1579;0.9740;
425.4000;0.1604;0.9763;
425.7000;0.1563;0.9645;
426.0000;0.1604;0.9834;
426.3000;0.1628;0.9929;
426.6000;0.1636;0.9953;
426.9000;0.1612;0.9906;
427.2000;0.1628;0.9882;
427.5000;0.1661;0.9953;
427.8000;0.1595;0.9692;
428.1000;0.1620;0.9882;
428.4000;0.1628;0.9953;
428.7000;0.1604;0.9953;
429.0000;0.1612;0.9929;
429.3000;0.1628;0.9953;
429.6000;0.1644;1.0024;
429.9000;0.1652;1.0048;
430.2000;0.1628;1.0048;
430.5000;0.1612;0.9977;
430.8000;0.1628;1.0048;
431.1000;0.1669;1.0095;
431.4000;0.1644;1.0024;
431.7000;0.1652;1.0000;
432.0000;0.1636;0.9953;
432.3000;0.1595;0.9763;
432.6000;0.1595;0.9740;
432.9000;0.1620;0.9811;
433.2000;0.1652;0.9858;
433.5000;0.1620;0.9763;
433.8000;0.1644;0.9811;
434.1000;0.1579;0.9574;
434.4000;0.1628;0.9692;
434.7000;0.1644;0.9811;
435.0000;0.1620;0.9834;
435.3000;0.1628;0.9858;
435.6000;0.1612;0.9763;
435.9000;0.1620;0.9692;
436.2000;0.1652;0.9787;
436.5000;0.1620;0.9716;
436.8000;0.1612;0.9858;
437.1000;0.1652;0.9929;
437.4000;0.1644;0.9882;
437.7000;0.1612;0.9787;
438.0000;0.1636;0.9740;
438.3000;0.1612;0.9858;
438.6000;0.1620;0.9929;
438.9000;0.1628;0.9977;
439.2000;0.1636;0.9953;
439.5000;0.1644;1.0000;
439.8000;0.1620;1.0024;
440.1000;0.1628;1.0024;
440.4000;0.1652;1.0000;
440.7000;0.1628;1.0024;
441.0000;0.1571;0.9858;
441.3000;0.1644;1.0024;
441.6000;0.1636;1.0071;
441.9000;0.1661;1.0143;
442.2000;0.1612;1.0000;
442.5000;0.1652;1.0143;
442.8000;0.1612;1.0095;
443.1000;0.1612;1.0071;
443.4000;0.1612;1.0048;
443.7000;0.1636;1.0024;
444.0000;0.1620;1.0071;
444.3000;0.1628;1.0024;
444.6000;0.1612;0.9977;
444.9000;0.1628;0.9977;
445.2000;0.1604;0.9929;
445.5000;0.1604;0.9906;
445.8000;0.1628;0.9929;
446.1000;0.1604;0.9858;
446.4000;0.1612;0.9882;
446.7000;0.1628;0.9953;
447.0000;0.1579;0.9834;
447.3000;0.1604;0.9929;
447.6000;0.1604;0.9929;
447.9000;0.1612;1.0000;
448.2000;0.1685;1.0166;
448.5000;0.1620;1.0048;
448.8000;0.1620;1.0071;
449.1000;0.1652;1.0143;
449.4000;0.1612;1.0000;
449.7000;0.1628;1.0024;
450.0000;0.1571;0.9929;
450.3000;0.1612;1.0024;
450.6000;0.1628;1.0024;
450.9000;0.1612;0.9953;
451.2000;0.1628;0.9977;
451.5000;0.1644;0.9953;
451.8000;0.1620;0.9834;
452.1000;0.1628;0.9834;
452.4000;0.1661;0.9858;
452.7000;0.1636;0.9787;
453.0000;0.1612;0.9716;
453.3000;0.1652;0.9834;
453.6000;0.1620;0.9811;
453.9000;0.1628;0.9763;
454.2000;0.1644;0.9787;
454.5000;0.1620;0.9811;
454.8000;0.1628;0.9811;
455.1000;0.1620;0.9834;
455.4000;0.1636;0.9953;
455.7000;0.1628;0.9977;
456.0000;0.1620;0.9882;
456.3000;0.1604;0.9929;
456.6000;0.1612;0.9906;
456.9000;0.1628;0.9906;
457.2000;0.1604;0.9811;
457.5000;0.1620;0.9906;
457.8000;0.1628;0.9977;
458.1000;0.1628;0.9953;
458.4000;0.1587;0.9740;
458.7000;0.1620;0.9740;
459.0000;0.1628;0.9740;
459.3000;0.1628;0.9787;
459.6000;0.1636;0.9787;
459.9000;0.1628;0.9787;
460.2000;0.1628;0.9740;
460.5000;0.1612;0.9645;
460.8000;0.1628;0.9645;
461.1000;0.1628;0.9716;
461.4000;0.1628;0.9692;
461.7000;0.1628;0.9763;
462.0000;0.1628;0.9763;
462.3000;0.1628;0.9740;
462.6000;0.1587;0.9574;
462.9000;0.1628;0.9597;
463.2000;0.1612;0.9597;
463.5000;0.1620;0.9597;
463.8000;0.1620;0.9550;
464.1000;0.1595;0.9550;
464.4000;0.1579;0.9526;
464.7000;0.1628;0.9574;
465.0000;0.1620;0.9550;
465.3000;0.1636;0.9550;
465.6000;0.1636;0.9526;
465.9000;0.1652;0.9669;
466.2000;0.1644;0.9716;
466.5000;0.1644;0.9716;
466.8000;0.1628;0.9645;
467.1000;0.1636;0.9597;
467.4000;0.1636;0.9669;
467.7000;0.1652;0.9763;
468.0000;0.1612;0.9858;
468.3000;0.1685;1.0048;
468.6000;0.1652;0.9977;
468.9000;0.1636;1.0024;
469.2000;0.1595;0.9906;
469.5000;0.1612;0.9929;
469.8000;0.1628;0.9858;
470.1000;0.1612;0.9811;
470.4000;0.1604;0.9787;
470.7000;0.1620;0.9787;
471.0000;0.1612;0.9787;
471.3000;0.1636;0.9763;
471.6000;0.1644;0.9740;
471.9000;0.1620;0.9763;
472.2000;0.1718;1.0048;
472.5000;0.1636;0.9906;
472.8000;0.1612;0.9858;
473.1000;0.1636;0.9882;
473.4000;0.1636;0.9906;
473.7000;0.1612;0.9906;
474.0000;0.1685;1.0119;
474.3000;0.1628;0.9977;
474.6000;0.1620;0.9953;
474.9000;0.1644;1.0000;
475.2000;0.1636;0.9929;
475.5000;0.1628;0.9929;
475.8000;0.1595;0.9787;
476.1000;0.1644;0.9787;
476.4000;0.1636;0.9834;
476.7000;0.1620;0.9858;
477.0000;0.1620;0.9882;
477.3000;0.1612;0.9811;
477.6000;0.1620;0.9787;
477.9000;0.1604;0.9716;
478.2000;0.1636;0.9740;
478.5000;0.1612;0.9669;
478.8000;0.1644;0.9763;
479.1000;0.1652;0.9858;
479.4000;0.1636;0.9834;
479.7000;0.1620;0.9763;
480.0000;0.1620;0.9834;
480.3000;0.1644;0.9834;
480.6000;0.1612;0.9763;
480.9000;0.1612;0.9763;
481.2000;0.1620;0.9858;
481.5000;0.1661;0.9977;
481.8000;0.1587;0.9834;
482.1000;0.1612;0.9906;
482.4000;0.1620;0.9953;
482.7000;0.1644;1.0000;
483.0000;0.1628;0.9906;
483.3000;0.1612;0.9834;
483.6000;0.1620;0.9763;
483.9000;0.1620;0.9834;
484.2000;0.1628;0.9858;
484.5000;0.1628;0.9906;
484.8000;0.1604;0.9906;
485.1000;0.1620;0.9929;
485.4000;0.1628;0.9882;
485.7000;0.1628;0.9740;
486.0000;0.1612;0.9669;
486.3000;0.1628;0.9740;
486.6000;0.1620;0.9669;
486.9000;0.1579;0.9526;
487.2000;0.1628;0.9692;
487.5000;0.1612;0.9716;
487.8000;0.1587;0.9692;
488.1000;0.1636;0.9740;
488.4000;0.1636;0.9740;
488.7000;0.1587;0.9621;
489.0000;0.1636;0.9787;
489.3000;0.1636;0.9811;
489.6000;0.1620;0.9834;
489.9000;0.1620;0.9858;
490.2000;0.1636;0.9929;
490.5000;0.1628;0.9953;
490.8000;0.1636;0.9929;
491.1000;0.1604;0.9882;
491.4000;0.1620;0.9787;
491.7000;0.1612;0.9834;
492.0000;0.1620;0.9882;
492.3000;0.1620;0.9882;
492.6000;0.1604;0.9906;
492.9000;0.1628;1.0000;
493.2000;0.1620;1.0000;
493.5000;0.1661;1.0071;
493.8000;0.1628;0.9953;
494.1000;0.1628;0.9953;
494.4000;0.1587;0.9787;
494.7000;0.1628;0.9834;
495.0000;0.1612;0.9811;
495.3000;0.1604;0.9811;
495.6000;0.1636;0.9882;
495.9000;0.1628;0.9929;
496.2000;0.1636;0.9906;
496.5000;0.1604;0.9834;
496.8000;0.1628;0.9763;
497.1000;0.1628;0.9811;
497.4000;0.1620;0.9834;
497.7000;0.1620;0.9834;
498.0000;0.1620;0.9906;
498.3000;0.1620;0.9906;
498.6000;0.1709;1.0119;
498.9000;0.1620;0.9834;
499.2000;0.1636;0.9906;
499.5000;0.1628;0.9882;
499.8000;0.1636;0.9858;
500.1000;0.1604;0.9740;
500.4000;0.1628;0.9669;
500.7000;0.1636;0.9763;
501.0000;0.1718;1.0095;
501.3000;0.1685;0.9977;
501.6000;0.1644;0.9906;
501.9000;0.1628;0.9953;
502.2000;0.1661;1.0071;
502.5000;0.1652;1.0071;
502.8000;0.1701;1.0261;
503.1000;0.1628;0.9977;
503.4000;0.1628;0.9858;
503.7000;0.1685;1.0024;
504.0000;0.1604;0.9906;
504.3000;0.1587;0.9882;
504.6000;0.1563;0.9882;
504.9000;0.1628;0.9953;
505.2000;0.1620;0.9858;
505.5000;0.1644;0.9953;
505.8000;0.1652;0.9953;
506.1000;0.1693;1.0000;
506.4000;0.1636;0.9858;
506.7000;0.1628;0.9882;
507.0000;0.1628;0.9858;
507.3000;0.1620;0.9834;
507.6000;0.1628;0.9882;
507.9000;0.1636;0.9977;
508.2000;0.1628;0.9929;
508.5000;0.1612;0.9977;
508.8000;0.1669;1.0166;
509.1000;0.1636;0.9977;
509.4000;0.1628;0.9811;
509.7000;0.1612;0.9834;
510.0000;0.1644;0.9906;
510.3000;0.1628;0.9882;
510.6000;0.1620;0.9882;
510.9000;0.1547;0.9669;
511.2000;0.1620;0.9906;
511.5000;0.1620;0.9929;
511.8000;0.1620;0.9906;
512.1000;0.1612;0.9882;
512.4000;0.1636;0.9906;
512.7000;0.1644;0.9953;
513.0000;0.1644;0.9977;
513.3000;0.1636;0.9882;
513.6000;0.1620;0.9882;
513.9000;0.1620;0.9858;
514.2000;0.1636;0.9858;
514.5000;0.1620;0.9834;
514.8000;0.1612;0.9763;
515.1000;0.1636;0.9740;
515.4000;0.1636;0.9787;
515.7000;0.1636;0.9811;
516.0000;0.1587;0.9692;
516.3000;0.1620;0.9763;
516.6000;0.1620;0.9834;
516.9000;0.1628;0.9929;
517.2000;0.1628;1.0048;
517.5000;0.1604;1.0071;
517.8000;0.1620;1.0143;
518.1000;0.1612;1.0024;
518.4000;0.1612;0.9977;
518.7000;0.1595;0.9977;
519.0000;0.1652;1.0119;
519.3000;0.1628;0.9929;
519.6000;0.1628;0.9929;
519.9000;0.1636;0.9858;
520.2000;0.1636;0.9906;
520.5000;0.1628;0.9906;
520.8000;0.1628;0.9858;
521.1000;0.1628;0.9787;
521.4000;0.1612;0.9858;
521.7000;0.1652;0.9977;
522.0000;0.1628;0.9882;
522.3000;0.1628;0.9906;
522.6000;0.1652;0.9906;
522.9000;0.1612;0.9787;
523.2000;0.1612;0.9763;
523.5000;0.1628;0.9740;
523.8000;0.1612;0.9740;
524.1000;0.1612;0.9787;
524.4000;0.1636;0.9882;
524.7000;0.1636;0.9929;
525.0000;0.1579;0.9811;
525.3000;0.1628;0.9953;
525.6000;0.1644;1.0024;
525.9000;0.1636;1.0048;
526.2000;0.1636;0.9977;
526.5000;0.1620;0.9906;
526.8000;0.1628;0.9929;
527.1000;0.1636;0.9953;
527.4000;0.1628;1.0000;
527.7000;0.1620;0.9906;
528.0000;0.1620;0.9906;
528.3000;0.1636;1.0024;
528.6000;0.1685;1.0024;
528.9000;0.1612;0.9834;
529.2000;0.1652;0.9953;
529.5000;0.1612;0.9882;
529.8000;0.1620;0.9834;
530.1000;0.1612;0.9740;
530.4000;0.1595;0.9740;
530.7000;0.1604;0.9669;
531.0000;0.1628;0.9716;
531.3000;0.1628;0.9763;
531.6000;0.1628;0.9787;
531.9000;0.1612;0.9811;
532.2000;0.1620;0.9906;
532.5000;0.1612;0.9977;
532.8000;0.1604;0.9882;
533.1000;0.1628;0.9929;
533.4000;0.1628;0.9929;
533.7000;0.1620;0.9953;
534.0000;0.1620;0.9929;
534.3000;0.1620;0.9882;
534.6000;0.1612;0.9811;
534.9000;0.1604;0.9787;
535.2000;0.1628;0.9740;
535.5000;0.1620;0.9692;
535.8000;0.1628;0.9811;
536.1000;0.1636;0.9882;
536.4000;0.1636;0.9858;
536.7000;0.1628;0.9858;
537.0000;0.1636;0.9906;
537.3000;0.1636;0.9953;
537.6000;0.1636;0.9929;
537.9000;0.1661;0.9953;
538.2000;0.1636;0.9834;
538.5000;0.1628;0.9834;
538.8000;0.1652;0.9858;
539.1000;0.1644;0.9906;
539.4000;0.1620;0.9906;
539.7000;0.1620;0.9977;
540.0000;0.1677;1.0095;
540.3000;0.1612;0.9977;
540.6000;0.1620;0.9953;
540.9000;0.1620;0.9977;
541.2000;0.1636;1.0143;
541.5000;0.1612;1.0143;
541.8000;0.1604;1.0214;
542.1000;0.1563;1.0000;
542.4000;0.1612;1.0143;
542.7000;0.1636;1.0166;
543.0000;0.1587;1.0071;
543.3000;0.1628;1.0190;
543.6000;0.1661;1.0237;
543.9000;0.1636;1.0166;
544.2000;0.1628;1.0095;
544.5000;0.1628;1.0071;
544.8000;0.1644;1.0095;
545.1000;0.1677;1.0190;
545.4000;0.1628;1.0071;
545.7000;0.1612;0.9953;
546.0000;0.1563;0.9787;
546.3000;0.1620;0.9977;
546.6000;0.1636;1.0024;
546.9000;0.1604;0.9953;
547.2000;0.1612;1.0000;
547.5000;0.1628;1.0024;
547.8000;0.1636;1.0048;
548.1000;0.1620;1.0000;
548.4000;0.1644;0.9977;
548.7000;0.1628;0.9953;
549.0000;0.1636;1.0000;
549.3000;0.1636;1.0000;
549.6000;0.1604;0.9929;
549.9000;0.1612;0.9929;
550.2000;0.1636;0.9953;
550.5000;0.1620;0.9977;
550.8000;0.1579;0.9858;
551.1000;0.1563;0.9811;
551.4000;0.1604;0.9811;
551.7000;0.1628;0.9929;
552.0000;0.1620;0.9882;
552.3000;0.1620;0.9882;
552.6000;0.1595;0.9763;
552.9000;0.1620;0.9834;
553.2000;0.1604;0.9834;
553.5000;0.1604;0.9882;
553.8000;0.1579;0.9858;
554.1000;0.1628;0.9906;
554.4000;0.1628;0.9929;
554.7000;0.1612;0.9834;
555.0000;0.1587;0.9811;
555.3000;0.1612;0.9882;
555.6000;0.1636;0.9811;
555.9000;0.1612;0.9811;
556.2000;0.1628;0.9811;
556.5000;0.1636;0.9858;
556.8000;0.1620;0.9882;
557.1000;0.1693;1.0190;
557.4000;0.1604;0.9977;
557.7000;0.1604;0.9929;
558.0000;0.1595;0.9977;
558.3000;0.1563;0.9929;
558.6000;0.1620;1.0048;
558.9000;0.1636;1.0048;
559.2000;0.1628;1.0095;
559.5000;0.1636;1.0119;
559.8000;0.1579;0.9906;
560.1000;0.1620;1.0024;
560.4000;0.1571;0.9929;
560.7000;0.1628;1.0095;
561.0000;0.1628;1.0048;
561.3000;0.1612;1.0048;
561.6000;0.1628;0.9953;
561.9000;0.1538;0.9669;
562.2000;0.1628;0.9834;
562.5000;0.1620;0.9692;
562.8000;0.1604;0.9716;
563.1000;0.1628;0.9692;
563.4000;0.1628;0.9645;
563.7000;0.1636;0.9669;
564.0000;0.1693;0.9858;
564.3000;0.1628;0.9716;
564.6000;0.1628;0.9763;
564.9000;0.1636;0.9906;
565.2000;0.1636;0.9906;
565.5000;0.1628;0.9858;
565.8000;0.1644;1.0000;
566.1000;0.1644;0.9977;
566.4000;0.1628;0.9953;
566.7000;0.1628;0.9953;
567.0000;0.1620;0.9906;
567.3000;0.1636;0.9977;
567.6000;0.1669;1.0095;
567.9000;0.1636;1.0000;
568.2000;0.1636;1.0024;
568.5000;0.1628;1.0000;
568.8000;0.1628;0.9929;
569.1000;0.1628;0.9953;
569.4000;0.1620;0.9977;
569.7000;0.1644;1.0000;
570.0000;0.1636;0.9929;
570.3000;0.1628;0.9882;
570.6000;0.1636;0.9858;
570.9000;0.1620;0.9906;
571.2000;0.1612;1.0000;
571.5000;0.1571;0.9953;
571.8000;0.1612;1.0024;
572.1000;0.1636;1.0071;
572.4000;0.1636;1.0071;
572.7000;0.1612;1.0095;
573.0000;0.1612;1.0071;
573.3000;0.1620;1.0071;
573.6000;0.1701;1.0308;
573.9000;0.1612;1.0024;
574.2000;0.1628;0.9906;
574.5000;0.1604;0.9787;
574.8000;0.1547;0.9550;
575.1000;0.1628;0.9763;
575.4000;0.1628;0.9740;
575.7000;0.1628;0.9716;
576.0000;0.1636;0.9669;
576.3000;0.1628;0.9645;
576.6000;0.1636;0.9692;
576.9000;0.1620;0.9574;
577.2000;0.1628;0.9645;
577.5000;0.1620;0.9597;
577.8000;0.1628;0.9669;
578.1000;0.1628;0.9669;
578.4000;0.1612;0.9669;
578.7000;0.1612;0.9621;
579.0000;0.1628;0.9692;
579.3000;0.1620;0.9621;
579.6000;0.1628;0.9669;
579.9000;0.1628;0.9716;
580.2000;0.1620;0.9692;
580.5000;0.1628;0.9669;
580.8000;0.1661;0.9740;
581.1000;0.1604;0.9526;
581.4000;0.1636;0.9574;
581.7000;0.1612;0.9597;
582.0000;0.1636;0.9574;
582.3000;0.1636;0.9455;
582.6000;0.1636;0.9526;
582.9000;0.1612;0.9503;
583.2000;0.1604;0.9550;
583.5000;0.1612;0.9574;
583.8000;0.1636;0.9526;
584.1000;0.1669;0.9597;
584.4000;0.1587;0.9361;
584.7000;0.1636;0.9455;
585.0000;0.1636;0.9503;
585.3000;0.1612;0.9479;
585.6000;0.1628;0.9526;
585.9000;0.1612;0.9432;
586.2000;0.1628;0.9526;
586.5000;0.1612;0.9574;
586.8000;0.1636;0.9669;
587.1000;0.1628;0.9763;
587.4000;0.1620;0.9787;
587.7000;0.1620;0.9882;
588.0000;0.1612;0.9977;
588.3000;0.1628;1.0071;
588.6000;0.1628;1.0000;
588.9000;0.1612;1.0000;
589.2000;0.1612;1.0024;
589.5000;0.1612;0.9906;
589.8000;0.1620;0.9929;
590.1000;0.1661;0.9929;
590.4000;0.1612;0.9787;
590.7000;0.1612;0.9811;
591.0000;0.1661;0.9834;
591.3000;0.1612;0.9716;
591.6000;0.1628;0.9716;
591.9000;0.1604;0.9669;
592.2000;0.1628;0.9763;
592.5000;0.1628;0.9740;
592.8000;0.1595;0.9669;
593.1000;0.1604;0.9621;
593.4000;0.1628;0.9669;
593.7000;0.1612;0.9692;
594.0000;0.1620;0.9740;
594.3000;0.1636;0.9787;
594.6000;0.1709;0.9977;
594.9000;0.1644;0.9834;
595.2000;0.1652;0.9906;
595.5000;0.1620;0.9882;
595.8000;0.1620;0.9953;
596.1000;0.1612;0.9953;
596.4000;0.1612;0.9953;
596.7000;0.1628;1.0000;
597.0000;0.1628;0.9953;
597.3000;0.1628;0.9906;
597.6000;0.1612;0.9834;
597.9000;0.1612;0.9858;
598.2000;0.1628;0.9882;
598.5000;0.1628;0.9811;
598.8000;0.1669;0.9882;
599.1000;0.1612;0.9787;
599.4000;0.1628;0.9953;
599.7000;0.1628;1.0024;
600.0000;0.1636;0.9906;
600.3000;0.1636;0.9811;
600.6000;0.1636;0.9834;
600.9000;0.1636;0.9740;
601.2000;0.1628;0.9597;
601.5000;0.1595;0.9479;
601.8000;0.1595;0.9361;
602.1000;0.1579;0.9289;
602.4000;0.1587;0.9242;
602.7000;0.1620;0.9242;
603.0000;0.1547;0.9029;
603.3000;0.1555;0.9076;
603.6000;0.1538;0.9052;
603.9000;0.1522;0.9005;
604.2000;0.1522;0.8981;
604.5000;0.1514;0.8958;
604.8000;0.1522;0.8981;
605.1000;0.1498;0.8910;
605.4000;0.1473;0.8815;
605.7000;0.1498;0.8792;
606.0000;0.1481;0.8744;
606.3000;0.1506;0.8768;
606.6000;0.1457;0.8626;
606.9000;0.1465;0.8650;
607.2000;0.1465;0.8626;
607.5000;0.1457;0.8602;
607.8000;0.1441;0.8460;
608.1000;0.1457;0.8413;
608.4000;0.1457;0.8294;
608.7000;0.1449;0.8223;
609.0000;0.1441;0.8294;
609.3000;0.1384;0.8247;
609.6000;0.1506;0.8626;
609.9000;0.1441;0.8531;
610.2000;0.1433;0.8579;
610.5000;0.1416;0.8555;
610.8000;0.1416;0.8650;
611.1000;0.1425;0.8602;
611.4000;0.1425;0.8650;
611.7000;0.1400;0.8579;
612.0000;0.1408;0.8579;
612.3000;0.1408;0.8602;
612.6000;0.1400;0.8650;
612.9000;0.1392;0.8650;
613.2000;0.1384;0.8602;
613.5000;0.1400;0.8650;
613.8000;0.1392;0.8602;
614.1000;0.1392;0.8555;
614.4000;0.1384;0.8555;
614.7000;0.1392;0.8555;
615.0000;0.1392;0.8602;
615.3000;0.1384;0.8579;
615.6000;0.1376;0.8579;
615.9000;0.1376;0.8484;
616.2000;0.1376;0.8602;
616.5000;0.1368;0.8579;
616.8000;0.1368;0.8531;
617.1000;0.1359;0.8579;
617.4000;0.1359;0.8602;
617.7000;0.1351;0.8602;
618.0000;0.1376;0.8484;
618.3000;0.1359;0.8460;
618.6000;0.1343;0.8507;
618.9000;0.1343;0.8436;
619.2000;0.1359;0.8460;
619.5000;0.1359;0.8460;
619.8000;0.1302;0.8318;
620.1000;0.1351;0.8484;
620.4000;0.1368;0.8531;
620.7000;0.1359;0.8436;
621.0000;0.1270;0.8105;
621.3000;0.1351;0.8270;
621.6000;0.1343;0.8318;
621.9000;0.1343;0.8342;
622.2000;0.1343;0.8318;
622.5000;0.1351;0.8318;
622.8000;0.1384;0.8484;
623.1000;0.1368;0.8436;
623.4000;0.1319;0.8389;
623.7000;0.1335;0.8507;
624.0000;0.1327;0.8507;
624.3000;0.1327;0.8484;
624.6000;0.1335;0.8413;
624.9000;0.1327;0.8365;
625.2000;0.1319;0.8365;
625.5000;0.1327;0.8365;
625.8000;0.1335;0.8389;
626.1000;0.1327;0.8389;
626.4000;0.1327;0.8342;
626.7000;0.1311;0.8270;
627.0000;0.1327;0.8342;
627.3000;0.1311;0.8294;
627.6000;0.1311;0.8223;
627.9000;0.1335;0.8294;
628.2000;0.1311;0.8176;
628.5000;0.1286;0.8152;
628.8000;0.1294;0.8176;
629.1000;0.1245;0.8081;
629.4000;0.1294;0.8176;
629.7000;0.1311;0.8128;
630.0000;0.1294;0.8105;
630.3000;0.1294;0.8152;
630.6000;0.1327;0.8294;
630.9000;0.1302;0.8270;
631.2000;0.1286;0.8223;
631.5000;0.1294;0.8223;
631.8000;0.1294;0.8176;
632.1000;0.1302;0.8128;
632.4000;0.1286;0.8128;
632.7000;0.1311;0.8105;
633.0000;0.1278;0.7986;
633.3000;0.1294;0.8057;
633.6000;0.1294;0.8057;
633.9000;0.1270;0.8057;
634.2000;0.1262;0.8128;
634.5000;0.1278;0.8152;
634.8000;0.1278;0.8128;
635.1000;0.1302;0.8199;
635.4000;0.1270;0.8199;
635.7000;0.1278;0.8199;
636.0000;0.1294;0.8223;
636.3000;0.1278;0.8223;
636.6000;0.1262;0.8223;
636.9000;0.1286;0.8270;
637.2000;0.1286;0.8247;
637.5000;0.1262;0.8318;
637.8000;0.1270;0.8365;
638.1000;0.1311;0.8413;
638.4000;0.1270;0.8365;
638.7000;0.1237;0.8294;
639.0000;0.1254;0.8294;
639.3000;0.1254;0.8365;
639.6000;0.1262;0.8365;
639.9000;0.1270;0.8389;
640.2000;0.1245;0.8270;
640.5000;0.1197;0.8081;
640.8000;0.1237;0.8199;
641.1000;0.1254;0.8223;
641.4000;0.1254;0.8247;
641.7000;0.1262;0.8318;
642.0000;0.1270;0.8389;
642.3000;0.1270;0.8365;
642.6000;0.1254;0.8318;
642.9000;0.1270;0.8342;
643.2000;0.1245;0.8318;
643.5000;0.1262;0.8318;
643.8000;0.1221;0.8152;
644.1000;0.1245;0.8270;
644.4000;0.1262;0.8247;
644.7000;0.1245;0.8247;
645.0000;0.1245;0.8294;
645.3000;0.1278;0.8413;
645.6000;0.1262;0.8389;
645.9000;0.1229;0.8318;
646.2000;0.1262;0.8342;
646.5000;0.1254;0.8294;
646.8000;0.1229;0.8318;
647.1000;0.1237;0.8294;
647.4000;0.1245;0.8365;
647.7000;0.1245;0.8318;
648.0000;0.1237;0.8247;
648.3000;0.1237;0.8365;
648.6000;0.1245;0.8365;
648.9000;0.1229;0.8413;
649.2000;0.1245;0.8531;
649.5000;0.1237;0.8507;
649.8000;0.1237;0.8507;
650.1000;0.1254;0.8507;
650.4000;0.1221;0.8460;
650.7000;0.1237;0.8413;
651.0000;0.1229;0.8318;
651.3000;0.1245;0.8318;
651.6000;0.1245;0.8318;
651.9000;0.1229;0.8294;
652.2000;0.1229;0.8389;
652.5000;0.1221;0.8294;
652.8000;0.1213;0.8270;
653.1000;0.1213;0.8294;
653.4000;0.1229;0.8270;
653.7000;0.1286;0.8460;
654.0000;0.1245;0.8294;
654.3000;0.1254;0.8342;
654.6000;0.1302;0.8484;
654.9000;0.1245;0.8318;
655.2000;0.1180;0.8152;
655.5000;0.1229;0.8294;
655.8000;0.1229;0.8247;
656.1000;0.1221;0.8223;
656.4000;0.1205;0.8223;
656.7000;0.1229;0.8223;
657.0000;0.1229;0.8176;
657.3000;0.1221;0.8247;
657.6000;0.1229;0.8389;
657.9000;0.1245;0.8460;
658.2000;0.1327;0.8602;
658.5000;0.1245;0.8413;
658.8000;0.1254;0.8460;
659.1000;0.1188;0.8342;
659.4000;0.1229;0.8413;
659.7000;0.1221;0.8413;
660.0000;0.1254;0.8579;
660.3000;0.1197;0.8507;
660.6000;0.1229;0.8531;
660.9000;0.1213;0.8484;
661.2000;0.1205;0.8413;
661.5000;0.1205;0.8342;
661.8000;0.1221;0.8342;
662.1000;0.1213;0.8365;
662.4000;0.1205;0.8389;
662.7000;0.1205;0.8342;
663.0000;0.1188;0.8318;
663.3000;0.1205;0.8436;
663.6000;0.1205;0.8365;
663.9000;0.1197;0.8389;
664.2000;0.1221;0.8460;
664.5000;0.1213;0.8436;
664.8000;0.1205;0.8389;
665.1000;0.1205;0.8507;
665.4000;0.1205;0.8484;
665.7000;0.1205;0.8460;
666.0000;0.1213;0.8507;
666.3000;0.1197;0.8436;
666.6000;0.1262;0.8602;
666.9000;0.1221;0.8484;
667.2000;0.1205;0.8460;
667.5000;0.1188;0.8342;
667.8000;0.1205;0.8270;
668.1000;0.1221;0.8318;
668.4000;0.1188;0.8247;
668.7000;0.1180;0.8270;
669.0000;0.1197;0.8199;
669.3000;0.1197;0.8270;
669.6000;0.1164;0.8128;
669.9000;0.1188;0.8223;
670.2000;0.1205;0.8270;
670.5000;0.1205;0.8270;
670.8000;0.1213;0.8294;
671.1000;0.1188;0.8176;
671.4000;0.1205;0.8294;
671.7000;0.1180;0.8270;
672.0000;0.1229;0.8342;
672.3000;0.1213;0.8294;
672.6000;0.1197;0.8247;
672.9000;0.1172;0.8223;
673.2000;0.1188;0.8247;
673.5000;0.1197;0.8270;
673.8000;0.1180;0.8199;
674.1000;0.1221;0.8247;
674.4000;0.1188;0.8199;
674.7000;0.1229;0.8365;
675.0000;0.1229;0.8342;
675.3000;0.1188;0.8318;
675.6000;0.1188;0.8247;
675.9000;0.1172;0.8199;
676.2000;0.1164;0.8199;
676.5000;0.1156;0.8176;
676.8000;0.1172;0.8223;
677.1000;0.1107;0.8010;
677.4000;0.1188;0.8199;
677.7000;0.1205;0.8247;
678.0000;0.1180;0.8152;
678.3000;0.1197;0.8152;
678.6000;0.1180;0.8152;
678.9000;0.1197;0.8199;
679.2000;0.1229;0.8318;
679.5000;0.1237;0.8389;
679.8000;0.1205;0.8223;
680.1000;0.1205;0.8270;
680.4000;0.1172;0.8152;
680.7000;0.1197;0.8199;
681.0000;0.1213;0.8270;
681.3000;0.1197;0.8199;
681.6000;0.1188;0.8223;
681.9000;0.1180;0.8176;
682.2000;0.1197;0.8318;
682.5000;0.1180;0.8342;
682.8000;0.1197;0.8365;
683.1000;0.1205;0.8389;
683.4000;0.1188;0.8294;
683.7000;0.1188;0.8199;
684.0000;0.1156;0.8128;
684.3000;0.1180;0.8294;
684.6000;0.1188;0.8247;
684.9000;0.1180;0.8270;
685.2000;0.1188;0.8365;
685.5000;0.1180;0.8342;
685.8000;0.1205;0.8436;
686.1000;0.1156;0.8318;
686.4000;0.1197;0.8365;
686.7000;0.1197;0.8389;
687.0000;0.1148;0.8413;
687.3000;0.1123;0.8270;
687.6000;0.1197;0.8342;
687.9000;0.1164;0.8247;
688.2000;0.1197;0.8294;
688.5000;0.1172;0.8342;
688.8000;0.1172;0.8318;
689.1000;0.1180;0.8318;
689.4000;0.1172;0.8342;
689.7000;0.1172;0.8342;
690.0000;0.1156;0.8389;
690.3000;0.1188;0.8413;
690.6000;0.1172;0.8318;
690.9000;0.1229;0.8460;
691.2000;0.1172;0.8413;
691.5000;0.1188;0.8413;
691.8000;0.1172;0.8365;
692.1000;0.1254;0.8507;
692.4000;0.1197;0.8318;
692.7000;0.1278;0.8460;
693.0000;0.1197;0.8223;
693.3000;0.1180;0.8152;
693.6000;0.1164;0.8033;
693.9000;0.1172;0.8152;
694.2000;0.1213;0.8223;
694.5000;0.1172;0.8081;
694.8000;0.1205;0.8128;
695.1000;0.1172;0.8010;
695.4000;0.1188;0.8033;
695.7000;0.1205;0.8105;
696.0000;0.1164;0.8033;
696.3000;0.1164;0.8033;
696.6000;0.1164;0.8105;
696.9000;0.1164;0.8128;
697.2000;0.1156;0.8176;
697.5000;0.1172;0.8199;
697.8000;0.1148;0.8199;
698.1000;0.1180;0.8247;
698.4000;0.1237;0.8365;
698.7000;0.1188;0.8365;
699.0000;0.1156;0.8318;
699.3000;0.1180;0.8342;
699.6000;0.1172;0.8365;
699.9000;0.1148;0.8389;
700.2000;0.1164;0.8460;
700.5000;0.1188;0.8484;
700.8000;0.1213;0.8531;
701.1000;0.1197;0.8507;
701.4000;0.1164;0.8413;
701.7000;0.1197;0.8579;
702.0000;0.1254;0.8650;
702.3000;0.1164;0.8484;
702.6000;0.1164;0.8484;
702.9000;0.1172;0.8436;
703.2000;0.1188;0.8531;
703.5000;0.1180;0.8579;
703.8000;0.1164;0.8507;
704.1000;0.1180;0.8507;
704.4000;0.1188;0.8507;
704.7000;0.1140;0.8342;
705.0000;0.1205;0.8389;
705.3000;0.1164;0.8365;
705.6000;0.1237;0.8507;
705.9000;0.1188;0.8436;
706.2000;0.1180;0.8365;
706.5000;0.1164;0.8365;
706.8000;0.1172;0.8365;
707.1000;0.1172;0.8342;
707.4000;0.1180;0.8436;
707.7000;0.1164;0.8389;
708.0000;0.1164;0.8413;
708.3000;0.1148;0.8436;
708.6000;0.1180;0.8413;
708.9000;0.1156;0.8294;
709.2000;0.1140;0.8342;
709.5000;0.1197;0.8507;
709.8000;0.1172;0.8484;
710.1000;0.1205;0.8555;
710.4000;0.1148;0.8460;
710.7000;0.1172;0.8436;
711.0000;0.1188;0.8413;
711.3000;0.1156;0.8294;
711.6000;0.1091;0.8128;
711.9000;0.1205;0.8436;
712.2000;0.1156;0.8342;
712.5000;0.1188;0.8436;
712.8000;0.1197;0.8460;
713.1000;0.1164;0.8413;
713.4000;0.1164;0.8413;
713.7000;0.1164;0.8389;
714.0000;0.1148;0.8342;
714.3000;0.1156;0.8413;
714.6000;0.1164;0.8389;
714.9000;0.1164;0.8413;
715.2000;0.1164;0.8460;
715.5000;0.1156;0.8413;
715.8000;0.1172;0.8413;
716.1000;0.1180;0.8413;
716.4000;0.1164;0.8413;
716.7000;0.1164;0.8389;
717.0000;0.1172;0.8460;
717.3000;0.1148;0.8413;
717.6000;0.1221;0.8555;
717.9000;0.1156;0.8436;
718.2000;0.1140;0.8460;
718.5000;0.1156;0.8531;
718.8000;0.1156;0.8555;
719.1000;0.1140;0.8531;
719.4000;0.1131;0.8436;
719.7000;0.1156;0.8413;
720.0000;0.1148;0.8294;
720.3000;0.1172;0.8342;
720.6000;0.1148;0.8342;
720.9000;0.1148;0.8318;
721.2000;0.1164;0.8365;
721.5000;0.1156;0.8413;
721.8000;0.1156;0.8413;
722.1000;0.1148;0.8507;
722.4000;0.1148;0.8579;
722.7000;0.1148;0.8531;
723.0000;0.1148;0.8555;
723.3000;0.1148;0.8602;
723.6000;0.1148;0.8602;
723.9000;0.1156;0.8555;
724.2000;0.1172;0.8579;
724.5000;0.1131;0.8507;
724.8000;0.1164;0.8436;
725.1000;0.1164;0.8318;
725.4000;0.1188;0.8365;
725.7000;0.1156;0.8294;
726.0000;0.1156;0.8199;
726.3000;0.1148;0.8270;
726.6000;0.1172;0.8270;
726.9000;0.1164;0.8247;
727.2000;0.1164;0.8176;
727.5000;0.1156;0.8176;
727.8000;0.1164;0.8176;
728.1000;0.1164;0.8199;
728.4000;0.1172;0.8199;
728.7000;0.1156;0.8199;
729.0000;0.1237;0.8484;
729.3000;0.1164;0.8365;
729.6000;0.1156;0.8413;
729.9000;0.1148;0.8484;
730.2000;0.1164;0.8507;
730.5000;0.1172;0.8460;
730.8000;0.1148;0.8436;
731.1000;0.1164;0.8531;
731.4000;0.1164;0.8507;
731.7000;0.1140;0.8507;
732.0000;0.1123;0.8365;
732.3000;0.1148;0.8484;
732.6000;0.1115;0.8436;
732.9000;0.1148;0.8579;
733.2000;0.1205;0.8579;
733.5000;0.1148;0.8531;
733.8000;0.1148;0.8507;
734.1000;0.1131;0.8460;
734.4000;0.1156;0.8531;
734.7000;0.1156;0.8650;
735.0000;0.1140;0.8626;
735.3000;0.1140;0.8602;
735.6000;0.1148;0.8650;
735.9000;0.1164;0.8579;
736.2000;0.1156;0.8507;
736.5000;0.1140;0.8484;
736.8000;0.1172;0.8507;
737.1000;0.1156;0.8460;
737.4000;0.1140;0.8436;
737.7000;0.1156;0.8460;
738.0000;0.1156;0.8436;
738.3000;0.1140;0.8365;
738.6000;0.1148;0.8365;
738.9000;0.1140;0.8342;
739.2000;0.1131;0.8389;
739.5000;0.1140;0.8460;
739.8000;0.1221;0.8602;
740.1000;0.1140;0.8342;
740.4000;0.1148;0.8365;
740.7000;0.1123;0.8270;
741.0000;0.1148;0.8365;
741.3000;0.1140;0.8318;
741.6000;0.1148;0.8389;
741.9000;0.1131;0.8460;
742.2000;0.1140;0.8484;
742.5000;0.1156;0.8436;
742.8000;0.1131;0.8413;
743.1000;0.1148;0.8555;
743.4000;0.1140;0.8484;
743.7000;0.1148;0.8484;
744.0000;0.1123;0.8484;
744.3000;0.1131;0.8436;
744.6000;0.1140;0.8460;
744.9000;0.1156;0.8460;
745.2000;0.1148;0.8484;
745.5000;0.1140;0.8460;
745.8000;0.1123;0.8602;
746.1000;0.1148;0.8555;
746.4000;0.1148;0.8507;
746.7000;0.1140;0.8507;
747.0000;0.1115;0.8413;
747.3000;0.1156;0.8555;
747.6000;0.1172;0.8436;
747.9000;0.1148;0.8389;
748.2000;0.1140;0.8460;
748.5000;0.1131;0.8436;
748.8000;0.1148;0.8507;
749.1000;0.1148;0.8460;
749.4000;0.1148;0.8365;
749.7000;0.1148;0.8413;
750.0000;0.1156;0.8460;
750.3000;0.1140;0.8484;
750.6000;0.1148;0.8484;
750.9000;0.1148;0.8507;
751.2000;0.1140;0.8460;
751.5000;0.1164;0.8484;
751.8000;0.1156;0.8460;
752.1000;0.1148;0.8413;
752.4000;0.1140;0.8436;
752.7000;0.1172;0.8531;
753.0000;0.1148;0.8413;
753.3000;0.1156;0.8460;
753.6000;0.1148;0.8436;
753.9000;0.1156;0.8507;
754.2000;0.1148;0.8389;
754.5000;0.1140;0.8342;
754.8000;0.1140;0.8342;
755.1000;0.1156;0.8507;
755.4000;0.1148;0.8579;
755.7000;0.1131;0.8602;
756.0000;0.1123;0.8602;
756.3000;0.1148;0.8650;
756.6000;0.1123;0.8531;
756.9000;0.1148;0.8484;
757.2000;0.1123;0.8484;
757.5000;0.1131;0.8531;
757.8000;0.1156;0.8531;
758.1000;0.1156;0.8531;
758.4000;0.1131;0.8531;
758.7000;0.1172;0.8673;
759.0000;0.1148;0.8555;
759.3000;0.1148;0.8555;
759.6000;0.1115;0.8460;
759.9000;0.1140;0.8413;
760.2000;0.1180;0.8531;
760.5000;0.1148;0.8413;
760.8000;0.1107;0.8413;
761.1000;0.1131;0.8436;
761.4000;0.1140;0.8555;
761.7000;0.1156;0.8579;
762.0000;0.1131;0.8531;
762.3000;0.1115;0.8531;
762.6000;0.1123;0.8531;
762.9000;0.1140;0.8460;
763.2000;0.1140;0.8460;
763.5000;0.1123;0.8484;
763.8000;0.1156;0.8507;
764.1000;0.1156;0.8555;
764.4000;0.1140;0.8673;
764.7000;0.1148;0.8697;
765.0000;0.1115;0.8626;
765.3000;0.1140;0.8602;
765.6000;0.1205;0.8673;
765.9000;0.1148;0.8484;
766.2000;0.1131;0.8460;
766.5000;0.1148;0.8531;
766.8000;0.1156;0.8579;
767.1000;0.1115;0.8507;
767.4000;0.1115;0.8460;
767.7000;0.1115;0.8484;
768.0000;0.1164;0.8673;
768.3000;0.1123;0.8673;
768.6000;0.1148;0.8744;
768.9000;0.1083;0.8602;
769.2000;0.1140;0.8697;
769.5000;0.1131;0.8626;
769.8000;0.1131;0.8602;
770.1000;0.1058;0.8365;
770.4000;0.1131;0.8673;
770.7000;0.1156;0.8650;
771.0000;0.1107;0.8507;
771.3000;0.1123;0.8579;
771.6000;0.1164;0.8626;
771.9000;0.1123;0.8460;
772.2000;0.1123;0.8460;
772.5000;0.1123;0.8531;
772.8000;0.1131;0.8484;
773.1000;0.1172;0.8626;
773.4000;0.1148;0.8555;
773.7000;0.1123;0.8531;
774.0000;0.1140;0.8626;
774.3000;0.1099;0.8579;
774.6000;0.1148;0.8721;
774.9000;0.1140;0.8697;
775.2000;0.1164;0.8792;
775.5000;0.1148;0.8721;
775.8000;0.1172;0.8839;
776.1000;0.1140;0.8839;
776.4000;0.1131;0.8792;
776.7000;0.1131;0.8768;
777.0000;0.1140;0.8744;
777.3000;0.1148;0.8744;
777.6000;0.1140;0.8697;
777.9000;0.1131;0.8673;
778.2000;0.1156;0.8744;
778.5000;0.1123;0.8673;
778.8000;0.1123;0.8721;
779.1000;0.1107;0.8602;
779.4000;0.1140;0.8602;
779.7000;0.1107;0.8531;
780.0000;0.1131;0.8650;
780.3000;0.1107;0.8626;
780.6000;0.1115;0.8602;
780.9000;0.1099;0.8626;
781.2000;0.1148;0.8721;
781.5000;0.1123;0.8602;
781.8000;0.1099;0.8436;
782.1000;0.1131;0.8531;
782.4000;0.1131;0.8413;
782.7000;0.1156;0.8460;
783.0000;0.1123;0.8460;
783.3000;0.1140;0.8460;
783.6000;0.1172;0.8602;
783.9000;0.1148;0.8531;
784.2000;0.1099;0.8365;
784.5000;0.1131;0.8436;
784.8000;0.1123;0.8484;
785.1000;0.1140;0.8436;
785.4000;0.1140;0.8413;
785.7000;0.1123;0.8365;
786.0000;0.1140;0.8484;
786.3000;0.1131;0.8484;
786.6000;0.1131;0.8484;
786.9000;0.1148;0.8531;
787.2000;0.1188;0.8650;
787.5000;0.1148;0.8602;
787.8000;0.1156;0.8650;
788.1000;0.1140;0.8602;
788.4000;0.1131;0.8579;
788.7000;0.1131;0.8484;
789.0000;0.1123;0.8436;
789.3000;0.1131;0.8389;
789.6000;0.1164;0.8460;
789.9000;0.1148;0.8342;
790.2000;0.1140;0.8413;
790.5000;0.1123;0.8413;
790.8000;0.1115;0.8365;
791.1000;0.1074;0.8247;
791.4000;0.1131;0.8342;
791.7000;0.1123;0.8342;
792.0000;0.1107;0.8318;
792.3000;0.1131;0.8294;
792.6000;0.1115;0.8199;
792.9000;0.1083;0.8128;
793.2000;0.1042;0.7986;
793.5000;0.1115;0.8176;
793.8000;0.1123;0.8223;
794.1000;0.1140;0.8223;
794.4000;0.1074;0.8057;
794.7000;0.1107;0.8128;
795.0000;0.1115;0.8105;
795.3000;0.1123;0.8105;
795.6000;0.1148;0.8128;
795.9000;0.1123;0.8081;
796.2000;0.1131;0.8176;
796.5000;0.1131;0.8128;
796.8000;0.1115;0.8010;
797.1000;0.1115;0.8010;
797.4000;0.1131;0.8152;
797.7000;0.1156;0.8223;
798.0000;0.1140;0.8223;
798.3000;0.1131;0.8270;
798.6000;0.1107;0.8223;
798.9000;0.1172;0.8365;
799.2000;0.1140;0.8365;
799.5000;0.1131;0.8436;
799.8000;0.1123;0.8436;
800.1000;0.1123;0.8484;
800.4000;0.1140;0.8531;
800.7000;0.1115;0.8531;
801.0000;0.1131;0.8579;
801.3000;0.1140;0.8650;
801.6000;0.1131;0.8650;
801.9000;0.1107;0.8650;
802.2000;0.1123;0.8555;
802.5000;0.1131;0.8579;
802.8000;0.1148;0.8602;
803.1000;0.1156;0.8650;
803.4000;0.1131;0.8507;
803.7000;0.1123;0.8507;
804.0000;0.1115;0.8436;
804.3000;0.1115;0.8413;
804.6000;0.1115;0.8413;
804.9000;0.1107;0.8413;
805.2000;0.1115;0.8413;
805.5000;0.1123;0.8460;
805.8000;0.1115;0.8365;
806.1000;0.1115;0.8365;
806.4000;0.1123;0.8365;
806.7000;0.1140;0.8389;
807.0000;0.1140;0.8460;
807.3000;0.1107;0.8413;
807.6000;0.1115;0.8413;
807.9000;0.1123;0.8460;
808.2000;0.1140;0.8436;
808.5000;0.1123;0.8436;
808.8000;0.1107;0.8413;
809.1000;0.1115;0.8413;
809.4000;0.1180;0.8531;
809.7000;0.1123;0.8460;
810.0000;0.1188;0.8579;
810.3000;0.1123;0.8460;
810.6000;0.1140;0.8555;
810.9000;0.1123;0.8507;
811.2000;0.1123;0.8436;
811.5000;0.1091;0.8318;
811.8000;0.1131;0.8460;
812.1000;0.1140;0.8531;
812.4000;0.1156;0.8579;
812.7000;0.1131;0.8555;
813.0000;0.1131;0.8507;
813.3000;0.1148;0.8531;
813.6000;0.1148;0.8484;
813.9000;0.1148;0.8484;
814.2000;0.1123;0.8507;
814.5000;0.1131;0.8579;
814.8000;0.1140;0.8555;
815.1000;0.1164;0.8602;
815.4000;0.1164;0.8626;
815.7000;0.1123;0.8555;
816.0000;0.1156;0.8602;
816.3000;0.1123;0.8602;
816.6000;0.1123;0.8602;
816.9000;0.1107;0.8579;
817.2000;0.1131;0.8697;
817.5000;0.1115;0.8650;
817.8000;0.1115;0.8721;
818.1000;0.1115;0.8744;
818.4000;0.1099;0.8768;
818.7000;0.1123;0.8650;
819.0000;0.1115;0.8626;
819.3000;0.1123;0.8697;
819.6000;0.1107;0.8579;
819.9000;0.1115;0.8555;
820.2000;0.1123;0.8602;
820.5000;0.1123;0.8579;
820.8000;0.1148;0.8650;
821.1000;0.1115;0.8602;
821.4000;0.1091;0.8650;
821.7000;0.1123;0.8768;
822.0000;0.1115;0.8697;
822.3000;0.1164;0.8768;
822.6000;0.1131;0.8673;
822.9000;0.1148;0.8602;
823.2000;0.1115;0.8507;
823.5000;0.1131;0.8555;
823.8000;0.1188;0.8792;
824.1000;0.1115;0.8626;
824.4000;0.1123;0.8602;
824.7000;0.1140;0.8673;
825.0000;0.1123;0.8626;
825.3000;0.1131;0.8697;
825.6000;0.1107;0.8626;
825.9000;0.1156;0.8768;
826.2000;0.1156;0.8815;
826.5000;0.1131;0.8744;
826.8000;0.1131;0.8697;
827.1000;0.1115;0.8579;
827.4000;0.1123;0.8626;
827.7000;0.1140;0.8744;
828.0000;0.1115;0.8673;
828.3000;0.1115;0.8602;
828.6000;0.1156;0.8626;
828.9000;0.1107;0.8531;
829.2000;0.1115;0.8531;
829.5000;0.1123;0.8579;
829.8000;0.1115;0.8626;
830.1000;0.1123;0.8626;
830.4000;0.1123;0.8579;
830.7000;0.1123;0.8531;
831.0000;0.1123;0.8555;
831.3000;0.1107;0.8507;
831.6000;0.1148;0.8579;
831.9000;0.1123;0.8531;
832.2000;0.1091;0.8389;
832.5000;0.1131;0.8531;
832.8000;0.1172;0.8673;
833.1000;0.1148;0.8650;
833.4000;0.1140;0.8602;
833.7000;0.1123;0.8555;
834.0000;0.1107;0.8602;
834.3000;0.1131;0.8626;
834.6000;0.1115;0.8579;
834.9000;0.1164;0.8673;
835.2000;0.1131;0.8555;
835.5000;0.1140;0.8579;
835.8000;0.1131;0.8507;
836.1000;0.1074;0.8294;
836.4000;0.1156;0.8460;
836.7000;0.1148;0.8389;
837.0000;0.1131;0.8413;
837.3000;0.1123;0.8436;
837.6000;0.1123;0.8555;
837.9000;0.1172;0.8650;
838.2000;0.1148;0.8602;
838.5000;0.1123;0.8531;
838.8000;0.1115;0.8555;
839.1000;0.1123;0.8579;
839.4000;0.1123;0.8650;
839.7000;0.1131;0.8673;
840.0000;0.1058;0.8507;
840.3000;0.1115;0.8602;
840.6000;0.1197;0.8839;
840.9000;0.1123;0.8626;
841.2000;0.1123;0.8626;
841.5000;0.1107;0.8602;
841.8000;0.1099;0.8555;
842.1000;0.1107;0.8602;
842.4000;0.1115;0.8626;
842.7000;0.1107;0.8673;
843.0000;0.1099;0.8673;
843.3000;0.1115;0.8579;
843.6000;0.1107;0.8507;
843.9000;0.1115;0.8602;
844.2000;0.1107;0.8507;
844.5000;0.1123;0.8579;
844.8000;0.1123;0.8650;
845.1000;0.1115;0.8602;
845.4000;0.1123;0.8650;
845.7000;0.1140;0.8673;
846.0000;0.1123;0.8673;
846.3000;0.1091;0.8555;
846.6000;0.1115;0.8673;
846.9000;0.1156;0.8626;
847.2000;0.1074;0.8436;
847.5000;0.1131;0.8650;
847.8000;0.1123;0.8579;
848.1000;0.1131;0.8531;
848.4000;0.1148;0.8555;
848.7000;0.1115;0.8507;
849.0000;0.1099;0.8413;
849.3000;0.1123;0.8507;
849.6000;0.1091;0.8389;
849.9000;0.1123;0.8531;
850.2000;0.1156;0.8626;
850.5000;0.1091;0.8507;
850.8000;0.1131;0.8602;
851.1000;0.1123;0.8626;
851.4000;0.1123;0.8744;
851.7000;0.1107;0.8697;
852.0000;0.1131;0.8721;
852.3000;0.1123;0.8697;
852.6000;0.1156;0.8768;
852.9000;0.1131;0.8650;
853.2000;0.1099;0.8555;
853.5000;0.1107;0.8531;
853.8000;0.1115;0.8507;
854.1000;0.1083;0.8555;
854.4000;0.1099;0.8650;
854.7000;0.1188;0.8792;
855.0000;0.1131;0.8650;
855.3000;0.1115;0.8507;
855.6000;0.1115;0.8507;
855.9000;0.1123;0.8413;
856.2000;0.1131;0.8436;
856.5000;0.1115;0.8413;
856.8000;0.1115;0.8413;
857.1000;0.1107;0.8436;
857.4000;0.1140;0.8484;
857.7000;0.1115;0.8389;
858.0000;0.1123;0.8460;
858.3000;0.1115;0.8602;
858.6000;0.1107;0.8602;
858.9000;0.1123;0.8673;
859.2000;0.1107;0.8626;
859.5000;0.1115;0.8555;
859.8000;0.1115;0.8579;
860.1000;0.1131;0.8531;
860.4000;0.1107;0.8484;
860.7000;0.1131;0.8579;
861.0000;0.1131;0.8626;
861.3000;0.1123;0.8579;
861.6000;0.1131;0.8602;
861.9000;0.1115;0.8555;
862.2000;0.1099;0.8602;
862.5000;0.1123;0.8697;
862.8000;0.1107;0.8744;
863.1000;0.1115;0.8887;
863.4000;0.1107;0.8863;
863.7000;0.1115;0.8910;
864.0000;0.1123;0.8910;
864.3000;0.1164;0.8887;
864.6000;0.1123;0.8650;
864.9000;0.1197;0.8792;
865.2000;0.1131;0.8602;
865.5000;0.1107;0.8555;
865.8000;0.1115;0.8673;
866.1000;0.1123;0.8744;
866.4000;0.1091;0.8721;
866.7000;0.1107;0.8697;
867.0000;0.1123;0.8673;
867.3000;0.1115;0.8650;
867.6000;0.1115;0.8650;
867.9000;0.1123;0.8673;
868.2000;0.1115;0.8673;
868.5000;0.1099;0.8626;
868.8000;0.1123;0.8602;
869.1000;0.1091;0.8507;
869.4000;0.1123;0.8602;
869.7000;0.1115;0.8579;
870.0000;0.1115;0.8555;
870.3000;0.1140;0.8697;
870.6000;0.1099;0.8697;
870.9000;0.1107;0.8626;
871.2000;0.1123;0.8673;
871.5000;0.1115;0.8697;
871.8000;0.1115;0.8673;
872.1000;0.1091;0.8602;
872.4000;0.1131;0.8650;
872.7000;0.1115;0.8531;
873.0000;0.1115;0.8531;
873.3000;0.1107;0.8626;
873.6000;0.1099;0.8579;
873.9000;0.1099;0.8555;
874.2000;0.1107;0.8602;
874.5000;0.1131;0.8673;
874.8000;0.1107;0.8531;
875.1000;0.1099;0.8460;
875.4000;0.1107;0.8484;
875.7000;0.1115;0.8602;
876.0000;0.1099;0.8602;
876.3000;0.1091;0.8626;
876.6000;0.1099;0.8555;
876.9000;0.1123;0.8626;
877.2000;0.1107;0.8650;
877.5000;0.1099;0.8555;
877.8000;0.1115;0.8602;
878.1000;0.1123;0.8721;
878.4000;0.1107;0.8768;
878.7000;0.1107;0.8792;
879.0000;0.1099;0.8768;
879.3000;0.1099;0.8744;
879.6000;0.1099;0.8673;
879.9000;0.1115;0.8697;
880.2000;0.1156;0.8650;
880.5000;0.1115;0.8602;
880.8000;0.1123;0.8602;
881.1000;0.1123;0.8626;
881.4000;0.1115;0.8721;
881.7000;0.1115;0.8673;
882.0000;0.1123;0.8768;
882.3000;0.1148;0.8815;
882.6000;0.1115;0.8744;
882.9000;0.1115;0.8792;
883.2000;0.1115;0.8768;
883.5000;0.1115;0.8697;
883.8000;0.1123;0.8744;
884.1000;0.1115;0.8673;
884.4000;0.1099;0.8626;
884.7000;0.1123;0.8673;
885.0000;0.1083;0.8579;
885.3000;0.1091;0.8650;
885.6000;0.1107;0.8744;
885.9000;0.1107;0.8721;
886.2000;0.1099;0.8673;
886.5000;0.1123;0.8744;
886.8000;0.1131;0.8721;
887.1000;0.1091;0.8721;
887.4000;0.1115;0.8721;
887.7000;0.1115;0.8673;
888.0000;0.1099;0.8531;
888.3000;0.1115;0.8579;
888.6000;0.1140;0.8507;
888.9000;0.1123;0.8507;
889.2000;0.1148;0.8650;
889.5000;0.1156;0.8744;
889.8000;0.1131;0.8697;
890.1000;0.1156;0.8744;
890.4000;0.1131;0.8650;
890.7000;0.1099;0.8507;
891.0000;0.1164;0.8650;
891.3000;0.1123;0.8460;
891.6000;0.1115;0.8460;
891.9000;0.1131;0.8507;
892.2000;0.1083;0.8413;
892.5000;0.1123;0.8579;
892.8000;0.1180;0.8626;
893.1000;0.1115;0.8436;
893.4000;0.1131;0.8365;
893.7000;0.1123;0.8365;
894.0000;0.1123;0.8413;
894.3000;0.1123;0.8413;
894.6000;0.1107;0.8342;
894.9000;0.1099;0.8270;
895.2000;0.1148;0.8389;
895.5000;0.1123;0.8199;
895.8000;0.1123;0.8128;
896.1000;0.1034;0.8010;
896.4000;0.1115;0.8176;
896.7000;0.1115;0.8270;
897.0000;0.1123;0.8389;
897.3000;0.1034;0.8176;
897.6000;0.1115;0.8436;
897.9000;0.1099;0.8389;
898.2000;0.1091;0.8389;
898.5000;0.1156;0.8531;
898.8000;0.1123;0.8531;
899.1000;0.1107;0.8555;
899.4000;0.1107;0.8555;
899.7000;0.1107;0.8531;
900.0000;0.1091;0.8436;
900.3000;0.1115;0.8460;
900.6000;0.1091;0.8389;
900.9000;0.1066;0.8318;
901.2000;0.1091;0.8294;
901.5000;0.1107;0.8318;
901.8000;0.1140;0.8460;
902.1000;0.1107;0.8460;
902.4000;0.1099;0.8436;
902.7000;0.1091;0.8484;
903.0000;0.1107;0.8555;
903.3000;0.1123;0.8436;
903.6000;0.1107;0.8507;
903.9000;0.1042;0.8389;
904.2000;0.1083;0.8507;
904.5000;0.1131;0.8602;
904.8000;0.1123;0.8626;
905.1000;0.1131;0.8721;
905.4000;0.1131;0.8602;
905.7000;0.1156;0.8531;
906.0000;0.1083;0.8413;
906.3000;0.1091;0.8531;
906.6000;0.1099;0.8507;
906.9000;0.1123;0.8555;
907.2000;0.1091;0.8484;
907.5000;0.1115;0.8436;
907.8000;0.1107;0.8484;
908.1000;0.1123;0.8484;
908.4000;0.1099;0.8484;
908.7000;0.1123;0.8507;
909.0000;0.1123;0.8436;
909.3000;0.1115;0.8460;
909.6000;0.1115;0.8531;
909.9000;0.1115;0.8484;
910.2000;0.1099;0.8413;
910.5000;0.1123;0.8389;
910.8000;0.1115;0.8365;
911.1000;0.1091;0.8318;
911.4000;0.1107;0.8389;
911.7000;0.1115;0.8413;
912.0000;0.1115;0.8413;
912.3000;0.1140;0.8413;
912.6000;0.1091;0.8365;
912.9000;0.1180;0.8555;
913.2000;0.1131;0.8484;
913.5000;0.1066;0.8365;
913.8000;0.1099;0.8507;
914.1000;0.1115;0.8555;
914.4000;0.1107;0.8507;
914.7000;0.1123;0.8531;
915.0000;0.1131;0.8602;
915.3000;0.1115;0.8602;
915.6000;0.1107;0.8579;
915.9000;0.1123;0.8626;
916.2000;0.1180;0.8744;
916.5000;0.1099;0.8531;
916.8000;0.1083;0.8531;
917.1000;0.1115;0.8744;
917.4000;0.1180;0.8910;
917.7000;0.1123;0.8721;
918.0000;0.1115;0.8721;
918.3000;0.1123;0.8744;
918.6000;0.1140;0.8697;
918.9000;0.1107;0.8555;
919.2000;0.1123;0.8555;
919.5000;0.1131;0.8555;
919.8000;0.1115;0.8602;
920.1000;0.1115;0.8484;
920.4000;0.1131;0.8507;
920.7000;0.1099;0.8484;
921.0000;0.1107;0.8555;
921.3000;0.1164;0.8744;
921.6000;0.1107;0.8579;
921.9000;0.1099;0.8507;
922.2000;0.1091;0.8531;
922.5000;0.1107;0.8460;
922.8000;0.1099;0.8389;
923.1000;0.1091;0.8318;
923.4000;0.1115;0.8389;
923.7000;0.1156;0.8507;
924.0000;0.1115;0.8460;
924.3000;0.1099;0.8460;
924.6000;0.1123;0.8460;
924.9000;0.1140;0.8484;
925.2000;0.1123;0.8436;
925.5000;0.1115;0.8436;
925.8000;0.1115;0.8365;
926.1000;0.1115;0.8365;
926.4000;0.1115;0.8389;
926.7000;0.1066;0.8247;
927.0000;0.1123;0.8413;
927.3000;0.1091;0.8342;
927.6000;0.1050;0.8270;
927.9000;0.1099;0.8507;
928.2000;0.1140;0.8626;
928.5000;0.1115;0.8555;
928.8000;0.1148;0.8673;
929.1000;0.1115;0.8531;
929.4000;0.1107;0.8460;
929.7000;0.1107;0.8507;
930.0000;0.1115;0.8484;
930.3000;0.1099;0.8436;
930.6000;0.1099;0.8365;
930.9000;0.1099;0.8389;
931.2000;0.1107;0.8436;
931.5000;0.1115;0.8484;
931.8000;0.1099;0.8555;
932.1000;0.1131;0.8507;
932.4000;0.1115;0.8413;
932.7000;0.1140;0.8460;
933.0000;0.1107;0.8484;
933.3000;0.1083;0.8531;
933.6000;0.1107;0.8484;
933.9000;0.1107;0.8555;
934.2000;0.1107;0.8626;
934.5000;0.1099;0.8531;
934.8000;0.1107;0.8555;
935.1000;0.1083;0.8579;
935.4000;0.1107;0.8626;
935.7000;0.1091;0.8626;
936.0000;0.1091;0.8602;
936.3000;0.1115;0.8555;
936.6000;0.1131;0.8626;
936.9000;0.1107;0.8721;
937.2000;0.1066;0.8579;
937.5000;0.1131;0.8721;
937.8000;0.1115;0.8531;
938.1000;0.1115;0.8531;
938.4000;0.1074;0.8342;
938.7000;0.1091;0.8413;
939.0000;0.1140;0.8460;
939.3000;0.1123;0.8484;
939.6000;0.1099;0.8460;
939.9000;0.1083;0.8413;
940.2000;0.1123;0.8507;
940.5000;0.1131;0.8555;
940.8000;0.1131;0.8650;
941.1000;0.1107;0.8579;
941.4000;0.1188;0.8792;
941.7000;0.1131;0.8650;
942.0000;0.1131;0.8626;
942.3000;0.1140;0.8602;
942.6000;0.1099;0.8413;
942.9000;0.1115;0.8436;
943.2000;0.1131;0.8436;
943.5000;0.1123;0.8413;
943.8000;0.1115;0.8413;
944.1000;0.1107;0.8294;
944.4000;0.1115;0.8318;
944.7000;0.1091;0.8247;
945.0000;0.1091;0.8365;
945.3000;0.1115;0.8507;
945.6000;0.1115;0.8484;
945.9000;0.1050;0.8294;
946.2000;0.1107;0.8460;
946.5000;0.1148;0.8650;
946.8000;0.1131;0.8626;
947.1000;0.1091;0.8531;
947.4000;0.1107;0.8555;
947.7000;0.1091;0.8484;
948.0000;0.1050;0.8365;
948.3000;0.1123;0.8484;
948.6000;0.1083;0.8507;
948.9000;0.1131;0.8555;
949.2000;0.1115;0.8484;
949.5000;0.1131;0.8531;
949.8000;0.1115;0.8507;
950.1000;0.1107;0.8579;
950.4000;0.1115;0.8531;
950.7000;0.1107;0.8531;
951.0000;0.1083;0.8413;
951.3000;0.1107;0.8484;
951.6000;0.1131;0.8531;
951.9000;0.1099;0.8389;
952.2000;0.1131;0.8460;
952.5000;0.1123;0.8507;
952.8000;0.1099;0.8579;
953.1000;0.1123;0.8579;
953.4000;0.1115;0.8602;
953.7000;0.1123;0.8531;
954.0000;0.1042;0.8365;
954.3000;0.1107;0.8460;
954.6000;0.1123;0.8342;
954.9000;0.1107;0.8342;
955.2000;0.1123;0.8413;
955.5000;0.1099;0.8365;
955.8000;0.1115;0.8413;
956.1000;0.1123;0.8436;
956.4000;0.1131;0.8460;
956.7000;0.1107;0.8436;
957.0000;0.1140;0.8507;
957.3000;0.1099;0.8413;
957.6000;0.1099;0.8389;
957.9000;0.1099;0.8484;
958.2000;0.1123;0.8531;
958.5000;0.1107;0.8460;
958.8000;0.1115;0.8531;
959.1000;0.1107;0.8507;
959.4000;0.1107;0.8507;
959.7000;0.1099;0.8507;
960.0000;0.1083;0.8389;
960.3000;0.1123;0.8460;
960.6000;0.1107;0.8436;
960.9000;0.1091;0.8436;
961.2000;0.1099;0.8531;
961.5000;0.1074;0.8484;
961.8000;0.1115;0.8579;
962.1000;0.1083;0.8531;
962.4000;0.1107;0.8602;
962.7000;0.1058;0.8484;
963.0000;0.1107;0.8602;
963.3000;0.1099;0.8626;
963.6000;0.1123;0.8602;
963.9000;0.1131;0.8650;
964.2000;0.1115;0.8697;
964.5000;0.1107;0.8721;
964.8000;0.1164;0.8792;
965.1000;0.1123;0.8697;
965.4000;0.1107;0.8602;
965.7000;0.1131;0.8626;
966.0000;0.1115;0.8602;
966.3000;0.1083;0.8626;
966.6000;0.1107;0.8744;
966.9000;0.1107;0.8744;
967.2000;0.1115;0.8721;
967.5000;0.1083;0.8673;
967.8000;0.1123;0.8744;
968.1000;0.1115;0.8579;
968.4000;0.1099;0.8555;
968.7000;0.1156;0.8626;
969.0000;0.1115;0.8626;
969.3000;0.1107;0.8579;
969.6000;0.1066;0.8507;
969.9000;0.1107;0.8531;
970.2000;0.1099;0.8460;
970.5000;0.1188;0.8626;
970.8000;0.1099;0.8342;
971.1000;0.1099;0.8413;
971.4000;0.1083;0.8460;
971.7000;0.1107;0.8460;
972.0000;0.1083;0.8365;
972.3000;0.1091;0.8389;
972.6000;0.1115;0.8484;
972.9000;0.1034;0.8342;
973.2000;0.1042;0.8389;
973.5000;0.1083;0.8460;
973.8000;0.1115;0.8507;
974.1000;0.1115;0.8484;
974.4000;0.1083;0.8507;
974.7000;0.1099;0.8579;
975.0000;0.1091;0.8484;
975.3000;0.1107;0.8626;
975.6000;0.1131;0.8602;
975.9000;0.1188;0.8768;
976.2000;0.1099;0.8531;
976.5000;0.1115;0.8555;
976.8000;0.1107;0.8531;
977.1000;0.1091;0.8484;
977.4000;0.1188;0.8626;
977.7000;0.1107;0.8436;
978.0000;0.1123;0.8436;
978.3000;0.1107;0.8365;
978.6000;0.1099;0.8318;
978.9000;0.1074;0.8223;
979.2000;0.1107;0.8365;
979.5000;0.1123;0.8484;
979.8000;0.1099;0.8507;
980.1000;0.1050;0.8413;
980.4000;0.1115;0.8626;
980.7000;0.1107;0.8650;
981.0000;0.1091;0.8721;
981.3000;0.1099;0.8721;
981.6000;0.1107;0.8626;
981.9000;0.1123;0.8673;
982.2000;0.1091;0.8602;
982.5000;0.1066;0.8531;
982.8000;0.1099;0.8555;
983.1000;0.1123;0.8626;
983.4000;0.1156;0.8697;
983.7000;0.1107;0.8602;
984.0000;0.1099;0.8626;
984.3000;0.1099;0.8626;
984.6000;0.1123;0.8673;
984.9000;0.1107;0.8697;
985.2000;0.1091;0.8744;
985.5000;0.1099;0.8721;
985.8000;0.1123;0.8768;
986.1000;0.1107;0.8721;
986.4000;0.1107;0.8792;
986.7000;0.1115;0.8768;
987.0000;0.1107;0.8768;
987.3000;0.1115;0.8744;
987.6000;0.1099;0.8721;
987.9000;0.1148;0.8721;
988.2000;0.1107;0.8626;
988.5000;0.1107;0.8650;
988.8000;0.1115;0.8697;
989.1000;0.1099;0.8744;
989.4000;0.1099;0.8815;
989.7000;0.1115;0.8839;
990.0000;0.1123;0.8887;
990.3000;0.1140;0.8958;
990.6000;0.1091;0.8887;
990.9000;0.1083;0.8744;
991.2000;0.1107;0.8792;
991.5000;0.1107;0.8768;
991.8000;0.1099;0.8673;
992.1000;0.1107;0.8555;
992.4000;0.1107;0.8484;
992.7000;0.1099;0.8507;
993.0000;0.1123;0.8531;
993.3000;0.1107;0.8626;
993.6000;0.1115;0.8650;
993.9000;0.1107;0.8721;
994.2000;0.1115;0.8744;
994.5000;0.1099;0.8792;
994.8000;0.1115;0.8744;
995.1000;0.1099;0.8815;
995.4000;0.1091;0.8815;
995.7000;0.1091;0.8839;
996.0000;0.1115;0.8815;
996.3000;0.1099;0.8815;
996.6000;0.1107;0.8815;
996.9000;0.1091;0.8934;
997.2000;0.1172;0.9076;
997.5000;0.1107;0.8910;
997.8000;0.1099;0.8863;
998.1000;0.1099;0.8792;
998.4000;0.1107;0.8744;
998.7000;0.1115;0.8673;
999.0000;0.1115;0.8650;
999.3000;0.1107;0.8579;
999.6000;0.1115;0.8626;
999.9000;0.1107;0.8602;
1000.2000;0.1058;0.8484;
1000.5000;0.1099;0.8579;
1000.8000;0.1099;0.8579;
1001.1000;0.1115;0.8602;
1001.4000;0.1107;0.8579;
1001.7000;0.1164;0.8673;
1002.0000;0.1115;0.8555;
1002.3000;0.1115;0.8507;
1002.6000;0.1099;0.8436;
1002.9000;0.1107;0.8484;
1003.2000;0.1091;0.8531;
1003.5000;0.1099;0.8531;
1003.8000;0.1107;0.8579;
1004.1000;0.1107;0.8484;
1004.4000;0.1156;0.8579;
1004.7000;0.1099;0.8460;
1005.0000;0.1123;0.8531;
1005.3000;0.1099;0.8507;
1005.6000;0.1099;0.8484;
1005.9000;0.1066;0.8389;
1006.2000;0.1066;0.8365;
1006.5000;0.1066;0.8413;
1006.8000;0.1115;0.8484;
1007.1000;0.1099;0.8436;
1007.4000;0.1091;0.8436;
1007.7000;0.1099;0.8531;
1008.0000;0.1107;0.8436;
1008.3000;0.1115;0.8436;
1008.6000;0.1115;0.8531;
1008.9000;0.1099;0.8531;
1009.2000;0.1131;0.8602;
1009.5000;0.1074;0.8389;
1009.8000;0.1123;0.8507;
1010.1000;0.1123;0.8579;
1010.4000;0.1131;0.8650;
1010.7000;0.1099;0.8507;
1011.0000;0.1148;0.8626;
1011.3000;0.1099;0.8579;
1011.6000;0.1107;0.8626;
1011.9000;0.1083;0.8531;
1012.2000;0.1123;0.8650;
1012.5000;0.1091;0.8531;
1012.8000;0.1074;0.8555;
1013.1000;0.1123;0.8650;
1013.4000;0.1099;0.8673;
1013.7000;0.1099;0.8650;
1014.0000;0.1107;0.8650;
1014.3000;0.1099;0.8673;
1014.6000;0.1099;0.8650;
1014.9000;0.1131;0.8673;
1015.2000;0.1123;0.8697;
1015.5000;0.1099;0.8626;
1015.8000;0.1107;0.8626;
1016.1000;0.1131;0.8673;
1016.4000;0.1091;0.8673;
1016.7000;0.1115;0.8744;
1017.0000;0.1123;0.8721;
1017.3000;0.1099;0.8602;
1017.6000;0.1091;0.8650;
1017.9000;0.1083;0.8602;
1018.2000;0.1099;0.8626;
1018.5000;0.1099;0.8531;
1018.8000;0.1099;0.8460;
1019.1000;0.1083;0.8484;
1019.4000;0.1091;0.8555;
1019.7000;0.1099;0.8555;
1020.0000;0.1099;0.8531;
1020.3000;0.1099;0.8484;
1020.6000;0.1164;0.8555;
1020.9000;0.1034;0.8247;
1021.2000;0.1115;0.8365;
1021.5000;0.1115;0.8413;
1021.8000;0.1107;0.8413;
1022.1000;0.1123;0.8484;
1022.4000;0.1107;0.8579;
1022.7000;0.1107;0.8673;
1023.0000;0.1099;0.8650;
1023.3000;0.1066;0.8507;
1023.6000;0.1083;0.8650;
1023.9000;0.1107;0.8768;
1024.2000;0.1115;0.8697;
1024.5000;0.1107;0.8626;
1024.8000;0.1099;0.8697;
1025.1000;0.1107;0.8744;
1025.4000;0.1123;0.8768;
1025.7000;0.1083;0.8650;
1026.0000;0.1123;0.8792;
1026.3000;0.1115;0.8721;
1026.6000;0.1066;0.8602;
1026.9000;0.1091;0.8673;
1027.2000;0.1123;0.8721;
1027.5000;0.1148;0.8792;
1027.8000;0.1107;0.8744;
1028.1000;0.1107;0.8839;
1028.4000;0.1099;0.8863;
1028.7000;0.1083;0.8721;
1029.0000;0.1083;0.8697;
1029.3000;0.1107;0.8744;
1029.6000;0.1058;0.8650;
1029.9000;0.1107;0.8815;
1030.2000;0.1058;0.8650;
1030.5000;0.1123;0.8815;
1030.8000;0.1115;0.8815;
1031.1000;0.1115;0.8815;
1031.4000;0.1099;0.8815;
1031.7000;0.1107;0.8863;
1032.0000;0.1107;0.8792;
1032.3000;0.1091;0.8744;
1032.6000;0.1115;0.8744;
1032.9000;0.1107;0.8744;
1033.2000;0.1099;0.8815;
1033.5000;0.1188;0.8981;
1033.8000;0.1123;0.8721;
1034.1000;0.1091;0.8626;
1034.4000;0.1091;0.8650;
1034.7000;0.1091;0.8697;
1035.0000;0.1115;0.8697;
1035.3000;0.1115;0.8626;
1035.6000;0.1107;0.8744;
1035.9000;0.1107;0.8768;
1036.2000;0.1131;0.8792;
1036.5000;0.1091;0.8673;
1036.8000;0.1091;0.8602;
1037.1000;0.1148;0.8815;
1037.4000;0.1115;0.8792;
1037.7000;0.1123;0.8744;
1038.0000;0.1115;0.8673;
1038.3000;0.1107;0.8673;
1038.6000;0.1083;0.8650;
1038.9000;0.1099;0.8602;
1039.2000;0.1115;0.8602;
1039.5000;0.1091;0.8579;
1039.8000;0.1115;0.8650;
1040.1000;0.1131;0.8768;
1040.4000;0.1123;0.8744;
1040.7000;0.1115;0.8721;
1041.0000;0.1107;0.8673;
1041.3000;0.1099;0.8744;
1041.6000;0.1099;0.8768;
1041.9000;0.1115;0.8815;
1042.2000;0.1115;0.8839;
1042.5000;0.1091;0.8863;
1042.8000;0.1115;0.8863;
1043.1000;0.1107;0.8839;
1043.4000;0.1123;0.8863;
1043.7000;0.1074;0.8673;
1044.0000;0.1123;0.8792;
1044.3000;0.1107;0.8744;
1044.6000;0.1099;0.8721;
1044.9000;0.1107;0.8697;
1045.2000;0.1115;0.8768;
1045.5000;0.1131;0.8792;
1045.8000;0.1099;0.8721;
1046.1000;0.1083;0.8650;
1046.4000;0.1115;0.8673;
1046.7000;0.1115;0.8650;
1047.0000;0.1091;0.8650;
1047.3000;0.1091;0.8650;
1047.6000;0.1099;0.8673;
1047.9000;0.1123;0.8721;
1048.2000;0.1140;0.8815;
1048.5000;0.1099;0.8626;
1048.8000;0.1107;0.8673;
1049.1000;0.1115;0.8602;
1049.4000;0.1115;0.8650;
1049.7000;0.1099;0.8650;
1050.0000;0.1083;0.8602;
1050.3000;0.1107;0.8650;
1050.6000;0.1115;0.8626;
1050.9000;0.1099;0.8626;
1051.2000;0.1099;0.8626;
1051.5000;0.1074;0.8579;
1051.8000;0.1091;0.8626;
1052.1000;0.1107;0.8579;
1052.4000;0.1091;0.8507;
1052.7000;0.1083;0.8507;
1053.0000;0.1099;0.8531;
1053.3000;0.1115;0.8555;
1053.6000;0.1099;0.8602;
1053.9000;0.1107;0.8626;
1054.2000;0.1115;0.8650;
1054.5000;0.1115;0.8602;
1054.8000;0.1107;0.8650;
1055.1000;0.1083;0.8555;
1055.4000;0.1099;0.8602;
1055.7000;0.1099;0.8531;
1056.0000;0.1115;0.8650;
1056.3000;0.1099;0.8579;
1056.6000;0.1099;0.8626;
1056.9000;0.1107;0.8626;
1057.2000;0.1115;0.8602;
1057.5000;0.1099;0.8650;
1057.8000;0.1091;0.8579;
1058.1000;0.1083;0.8579;
1058.4000;0.1107;0.8650;
1058.7000;0.1107;0.8602;
1059.0000;0.1107;0.8650;
1059.3000;0.1123;0.8697;
1059.6000;0.1115;0.8673;
1059.9000;0.1180;0.8697;
1060.2000;0.1099;0.8507;
1060.5000;0.1091;0.8413;
1060.8000;0.1099;0.8436;
1061.1000;0.1107;0.8460;
1061.4000;0.1107;0.8555;
1061.7000;0.1115;0.8673;
1062.0000;0.1107;0.8697;
1062.3000;0.1115;0.8768;
1062.6000;0.1115;0.8792;
1062.9000;0.1107;0.8768;
1063.2000;0.1091;0.8697;
1063.5000;0.1091;0.8626;
1063.8000;0.1107;0.8721;
1064.1000;0.1083;0.8626;
1064.4000;0.1115;0.8626;
1064.7000;0.1099;0.8650;
1065.0000;0.1091;0.8673;
1065.3000;0.1107;0.8673;
1065.6000;0.1115;0.8673;
1065.9000;0.1099;0.8602;
1066.2000;0.1115;0.8626;
1066.5000;0.1107;0.8555;
1066.8000;0.1107;0.8531;
1067.1000;0.1131;0.8579;
1067.4000;0.1107;0.8579;
1067.7000;0.1099;0.8650;
1068.0000;0.1115;0.8626;
1068.3000;0.1091;0.8555;
1068.6000;0.1107;0.8579;
1068.9000;0.1074;0.8555;
1069.2000;0.1115;0.8650;
1069.5000;0.1099;0.8602;
1069.8000;0.1107;0.8579;
1070.1000;0.1099;0.8602;
1070.4000;0.1107;0.8555;
1070.7000;0.1099;0.8555;
1071.0000;0.1099;0.8673;
1071.3000;0.1107;0.8721;
1071.6000;0.1107;0.8697;
1071.9000;0.1099;0.8673;
1072.2000;0.1099;0.8579;
1072.5000;0.1091;0.8507;
1072.8000;0.1115;0.8555;
1073.1000;0.1099;0.8531;
1073.4000;0.1115;0.8602;
1073.7000;0.1099;0.8673;
1074.0000;0.1083;0.8626;
1074.3000;0.1083;0.8579;
1074.6000;0.1107;0.8626;
1074.9000;0.1099;0.8650;
1075.2000;0.1050;0.8436;
1075.5000;0.1099;0.8484;
1075.8000;0.1091;0.8484;
1076.1000;0.1107;0.8484;
1076.4000;0.1066;0.8342;
1076.7000;0.1115;0.8460;
1077.0000;0.1115;0.8389;
1077.3000;0.1099;0.8460;
1077.6000;0.1107;0.8531;
1077.9000;0.1107;0.8531;
1078.2000;0.1107;0.8531;
1078.5000;0.1099;0.8531;
1078.8000;0.1091;0.8507;
1079.1000;0.1115;0.8531;
1079.4000;0.1099;0.8555;
1079.7000;0.1091;0.8602;
1080.0000;0.1115;0.8626;
1080.3000;0.1123;0.8650;
1080.6000;0.1091;0.8650;
1080.9000;0.1131;0.8650;
1081.2000;0.1091;0.8602;
1081.5000;0.1091;0.8555;
1081.8000;0.1099;0.8507;
1082.1000;0.1131;0.8650;
1082.4000;0.1091;0.8555;
1082.7000;0.1099;0.8555;
1083.0000;0.1123;0.8507;
1083.3000;0.1107;0.8507;
1083.6000;0.1115;0.8555;
1083.9000;0.1058;0.8460;
1084.2000;0.1058;0.8389;
1084.5000;0.1107;0.8626;
1084.8000;0.1164;0.8697;
1085.1000;0.1091;0.8507;
1085.4000;0.1099;0.8507;
1085.7000;0.1115;0.8484;
1086.0000;0.1066;0.8270;
1086.3000;0.1107;0.8365;
1086.6000;0.1123;0.8436;
1086.9000;0.1115;0.8413;
1087.2000;0.1123;0.8436;
1087.5000;0.1099;0.8436;
1087.8000;0.1107;0.8484;
1088.1000;0.1099;0.8460;
1088.4000;0.1099;0.8413;
1088.7000;0.1099;0.8531;
1089.0000;0.1091;0.8531;
1089.3000;0.1091;0.8626;
1089.6000;0.1099;0.8697;
1089.9000;0.1091;0.8579;
1090.2000;0.1091;0.8579;
1090.5000;0.1083;0.8579;
1090.8000;0.1115;0.8697;
1091.1000;0.1099;0.8697;
1091.4000;0.1115;0.8721;
1091.7000;0.1099;0.8626;
1092.0000;0.1107;0.8626;
1092.3000;0.1115;0.8673;
1092.6000;0.1099;0.8579;
1092.9000;0.1164;0.8673;
1093.2000;0.1115;0.8555;
1093.5000;0.1107;0.8626;
1093.8000;0.1107;0.8602;
1094.1000;0.1107;0.8579;
1094.4000;0.1091;0.8626;
1094.7000;0.1115;0.8721;
1095.0000;0.1107;0.8579;
1095.3000;0.1107;0.8626;
1095.6000;0.1107;0.8697;
1095.9000;0.1140;0.8744;
1096.2000;0.1074;0.8602;
1096.5000;0.1091;0.8697;
1096.8000;0.1099;0.8697;
1097.1000;0.1115;0.8721;
1097.4000;0.1131;0.8815;
1097.7000;0.1123;0.8744;
1098.0000;0.1107;0.8792;
1098.3000;0.1115;0.8697;
1098.6000;0.1148;0.8697;
1098.9000;0.1107;0.8579;
1099.2000;0.1115;0.8460;
1099.5000;0.1156;0.8602;
1099.8000;0.1115;0.8555;
1100.1000;0.1115;0.8602;
1100.4000;0.1091;0.8673;
1100.7000;0.1131;0.8792;
1101.0000;0.1107;0.8768;
1101.3000;0.1123;0.8815;
1101.6000;0.1107;0.8792;
1101.9000;0.1099;0.8744;
1102.2000;0.1099;0.8768;
1102.5000;0.1107;0.8792;
1102.8000;0.1107;0.8744;
1103.1000;0.1099;0.8673;
1103.4000;0.1107;0.8673;
1103.7000;0.1115;0.8721;
1104.0000;0.1131;0.8768;
1104.3000;0.1099;0.8673;
1104.6000;0.1107;0.8650;
1104.9000;0.1091;0.8650;
1105.2000;0.1115;0.8673;
1105.5000;0.1091;0.8673;
1105.8000;0.1107;0.8626;
1106.1000;0.1107;0.8650;
1106.4000;0.1091;0.8673;
1106.7000;0.1131;0.8650;
1107.0000;0.1156;0.8721;
1107.3000;0.1091;0.8626;
1107.6000;0.1115;0.8650;
1107.9000;0.1115;0.8602;
1108.2000;0.1074;0.8507;
1108.5000;0.1107;0.8555;
1108.8000;0.1107;0.8579;
1109.1000;0.1107;0.8697;
1109.4000;0.1091;0.8744;
1109.7000;0.1058;0.8721;
1110.0000;0.1115;0.8839;
1110.3000;0.1115;0.8815;
1110.6000;0.1107;0.8768;
1110.9000;0.1099;0.8744;
1111.2000;0.1091;0.8768;
1111.5000;0.1058;0.8673;
1111.8000;0.1131;0.8863;
1112.1000;0.1091;0.8744;
1112.4000;0.1099;0.8839;
1112.7000;0.1115;0.8839;
1113.0000;0.1123;0.8792;
1113.3000;0.1099;0.8650;
1113.6000;0.1083;0.8626;
1113.9000;0.1115;0.8744;
1114.2000;0.1107;0.8697;
1114.5000;0.1115;0.8650;
1114.8000;0.1091;0.8602;
1115.1000;0.1099;0.8626;
1115.4000;0.1074;0.8602;
1115.7000;0.1099;0.8626;
1116.0000;0.1091;0.8531;
1116.3000;0.1099;0.8531;
1116.6000;0.1099;0.8555;
1116.9000;0.1107;0.8531;
1117.2000;0.1066;0.8484;
1117.5000;0.1091;0.8579;
1117.8000;0.1123;0.8650;
1118.1000;0.1107;0.8602;
1118.4000;0.1099;0.8626;
1118.7000;0.1091;0.8673;
1119.0000;0.1099;0.8697;
1119.3000;0.1107;0.8721;
1119.6000;0.1091;0.8626;
1119.9000;0.1091;0.8555;
1120.2000;0.1115;0.8602;
1120.5000;0.1115;0.8626;
1120.8000;0.1099;0.8555;
1121.1000;0.1099;0.8602;
1121.4000;0.1034;0.8436;
1121.7000;0.1099;0.8602;
1122.0000;0.1107;0.8602;
1122.3000;0.1107;0.8602;
1122.6000;0.1091;0.8579;
1122.9000;0.1091;0.8602;
1123.2000;0.1066;0.8460;
1123.5000;0.1091;0.8484;
1123.8000;0.1083;0.8484;
1124.1000;0.1107;0.8626;
1124.4000;0.1042;0.8436;
1124.7000;0.1091;0.8460;
1125.0000;0.1115;0.8460;
1125.3000;0.1091;0.8507;
1125.6000;0.1099;0.8555;
1125.9000;0.1091;0.8531;
1126.2000;0.1099;0.8579;
1126.5000;0.1083;0.8555;
1126.8000;0.1107;0.8697;
1127.1000;0.1140;0.8697;
1127.4000;0.1099;0.8579;
1127.7000;0.1131;0.8602;
1128.0000;0.1115;0.8555;
1128.3000;0.1107;0.8602;
1128.6000;0.1131;0.8626;
1128.9000;0.1131;0.8697;
1129.2000;0.1099;0.8626;
1129.5000;0.1099;0.8650;
1129.8000;0.1099;0.8673;
1130.1000;0.1115;0.8721;
1130.4000;0.1115;0.8792;
1130.7000;0.1115;0.8697;
1131.0000;0.1123;0.8744;
1131.3000;0.1115;0.8815;
1131.6000;0.1107;0.8815;
1131.9000;0.1099;0.8792;
1132.2000;0.1123;0.8863;
1132.5000;0.1131;0.8792;
1132.8000;0.1123;0.8697;
1133.1000;0.1091;0.8650;
1133.4000;0.1091;0.8650;
1133.7000;0.1083;0.8507;
1134.0000;0.1091;0.8579;
1134.3000;0.1091;0.8602;
1134.6000;0.1083;0.8579;
1134.9000;0.1115;0.8650;
1135.2000;0.1107;0.8602;
1135.5000;0.1018;0.8413;
1135.8000;0.1042;0.8460;
1136.1000;0.1091;0.8507;
1136.4000;0.1091;0.8555;
1136.7000;0.1188;0.8768;
1137.0000;0.1131;0.8744;
1137.3000;0.1099;0.8673;
1137.6000;0.1107;0.8626;
1137.9000;0.1123;0.8602;
1138.2000;0.1156;0.8673;
1138.5000;0.1091;0.8602;
1138.8000;0.1115;0.8697;
1139.1000;0.1091;0.8721;
1139.4000;0.1099;0.8697;
1139.7000;0.1091;0.8721;
1140.0000;0.1091;0.8697;
1140.3000;0.1091;0.8626;
1140.6000;0.1107;0.8602;
1140.9000;0.1083;0.8555;
1141.2000;0.1091;0.8626;
1141.5000;0.1107;0.8626;
1141.8000;0.1115;0.8626;
1142.1000;0.1107;0.8697;
1142.4000;0.1123;0.8650;
1142.7000;0.1123;0.8650;
1143.0000;0.1180;0.8792;
1143.3000;0.1107;0.8579;
1143.6000;0.1123;0.8673;
1143.9000;0.1115;0.8673;
1144.2000;0.1091;0.8602;
1144.5000;0.1066;0.8531;
1144.8000;0.1099;0.8555;
1145.1000;0.1115;0.8507;
1145.4000;0.1050;0.8413;
1145.7000;0.1091;0.8555;
1146.0000;0.1074;0.8531;
1146.3000;0.1115;0.8626;
1146.6000;0.1107;0.8602;
1146.9000;0.1115;0.8602;
1147.2000;0.1091;0.8579;
1147.5000;0.1107;0.8744;
1147.8000;0.1091;0.8768;
1148.1000;0.1107;0.8744;
1148.4000;0.1091;0.8673;
1148.7000;0.1099;0.8650;
1149.0000;0.1091;0.8673;
1149.3000;0.1115;0.8650;
1149.6000;0.1091;0.8602;
1149.9000;0.1099;0.8602;
1150.2000;0.1115;0.8507;
1150.5000;0.1115;0.8531;
1150.8000;0.1099;0.8460;
1151.1000;0.1099;0.8531;
1151.4000;0.1115;0.8650;
1151.7000;0.1115;0.8673;
1152.0000;0.1091;0.8531;
1152.3000;0.1131;0.8650;
1152.6000;0.1115;0.8555;
1152.9000;0.1107;0.8555;
1153.2000;0.1123;0.8697;
1153.5000;0.1083;0.8626;
1153.8000;0.1107;0.8697;
1154.1000;0.1099;0.8602;
1154.4000;0.1107;0.8507;
1154.7000;0.1107;0.8484;
1155.0000;0.1107;0.8413;
1155.3000;0.1164;0.8579;
1155.6000;0.1074;0.8413;
1155.9000;0.1140;0.8484;
1156.2000;0.1107;0.8413;
1156.5000;0.1083;0.8460;
1156.8000;0.1123;0.8555;
1157.1000;0.1148;0.8626;
1157.4000;0.1083;0.8602;
1157.7000;0.1099;0.8579;
1158.0000;0.1115;0.8673;
1158.3000;0.1107;0.8602;
1158.6000;0.1042;0.8484;
1158.9000;0.1107;0.8721;
1159.2000;0.1091;0.8673;
1159.5000;0.1099;0.8602;
1159.8000;0.1140;0.8721;
1160.1000;0.1099;0.8650;
1160.4000;0.1091;0.8602;
1160.7000;0.1115;0.8697;
1161.0000;0.1091;0.8768;
1161.3000;0.1099;0.8744;
1161.6000;0.1083;0.8650;
1161.9000;0.1066;0.8626;
1162.2000;0.1091;0.8721;
1162.5000;0.1099;0.8768;
1162.8000;0.1107;0.8697;
1163.1000;0.1123;0.8792;
1163.4000;0.1099;0.8792;
1163.7000;0.1123;0.8697;
1164.0000;0.1164;0.8721;
1164.3000;0.1099;0.8579;
1164.6000;0.1099;0.8626;
1164.9000;0.1115;0.8626;
1165.2000;0.1115;0.8579;
1165.5000;0.1107;0.8579;
1165.8000;0.1107;0.8626;
1166.1000;0.1107;0.8626;
1166.4000;0.1115;0.8602;
1166.7000;0.1099;0.8507;
1167.0000;0.1091;0.8507;
1167.3000;0.1107;0.8555;
1167.6000;0.1107;0.8768;
1167.9000;0.1107;0.8768;
1168.2000;0.1099;0.8744;
1168.5000;0.1115;0.8721;
1168.8000;0.1123;0.8721;
1169.1000;0.1107;0.8673;
1169.4000;0.1091;0.8697;
1169.7000;0.1099;0.8697;
1170.0000;0.1107;0.8768;
1170.3000;0.1123;0.8721;
1170.6000;0.1123;0.8626;
1170.9000;0.1131;0.8579;
1171.2000;0.1083;0.8579;
1171.5000;0.1123;0.8626;
1171.8000;0.1083;0.8555;
1172.1000;0.1107;0.8555;
1172.4000;0.1107;0.8460;
1172.7000;0.1107;0.8484;
1173.0000;0.1115;0.8531;
1173.3000;0.1099;0.8579;
1173.6000;0.1099;0.8579;
1173.9000;0.1115;0.8626;
1174.2000;0.1115;0.8650;
1174.5000;0.1099;0.8555;
1174.8000;0.1115;0.8579;
1175.1000;0.1131;0.8555;
1175.4000;0.1148;0.8555;
1175.7000;0.1131;0.8555;
1176.0000;0.1123;0.8626;
1176.3000;0.1123;0.8673;
1176.6000;0.1115;0.8626;
1176.9000;0.1091;0.8650;
1177.2000;0.1099;0.8673;
1177.5000;0.1115;0.8673;
1177.8000;0.1115;0.8650;
1178.1000;0.1083;0.8555;
1178.4000;0.1083;0.8602;
1178.7000;0.1091;0.8555;
1179.0000;0.1099;0.8555;
1179.3000;0.1083;0.8507;
1179.6000;0.1050;0.8436;
1179.9000;0.1083;0.8507;
1180.2000;0.1091;0.8460;
1180.5000;0.1074;0.8365;
1180.8000;0.1099;0.8389;
1181.1000;0.1091;0.8413;
1181.4000;0.1107;0.8436;
1181.7000;0.1107;0.8460;
1182.0000;0.1115;0.8436;
1182.3000;0.1083;0.8389;
1182.6000;0.1099;0.8436;
1182.9000;0.1107;0.8531;
1183.2000;0.1083;0.8342;
1183.5000;0.1083;0.8318;
1183.8000;0.1099;0.8460;
1184.1000;0.1107;0.8484;
1184.4000;0.1091;0.8460;
1184.7000;0.1099;0.8507;
1185.0000;0.1091;0.8460;
1185.3000;0.1099;0.8507;
1185.6000;0.1099;0.8484;
1185.9000;0.1107;0.8507;
1186.2000;0.1074;0.8436;
1186.5000;0.1091;0.8507;
1186.8000;0.1180;0.8721;
1187.1000;0.1099;0.8531;
1187.4000;0.1115;0.8460;
1187.7000;0.1107;0.8460;
1188.0000;0.1099;0.8436;
1188.3000;0.1083;0.8365;
1188.6000;0.1099;0.8413;
1188.9000;0.1091;0.8413;
1189.2000;0.1115;0.8436;
1189.5000;0.1107;0.8436;
1189.8000;0.1131;0.8531;
1190.1000;0.1074;0.8413;
1190.4000;0.1115;0.8484;
1190.7000;0.1115;0.8507;
1191.0000;0.1099;0.8484;
1191.3000;0.1091;0.8555;
1191.6000;0.1083;0.8531;
1191.9000;0.1115;0.8555;
1192.2000;0.1107;0.8413;
1192.5000;0.1058;0.8223;
1192.8000;0.1099;0.8389;
1193.1000;0.1099;0.8507;
1193.4000;0.1099;0.8555;
1193.7000;0.1074;0.8507;
1194.0000;0.1083;0.8555;
1194.3000;0.1115;0.8531;
1194.6000;0.1074;0.8531;
1194.9000;0.1099;0.8579;
1195.2000;0.1107;0.8531;
1195.5000;0.1107;0.8507;
1195.8000;0.1123;0.8507;
1196.1000;0.1107;0.8507;
1196.4000;0.1156;0.8531;
1196.7000;0.1140;0.8579;
1197.0000;0.1074;0.8507;
1197.3000;0.1091;0.8531;
1197.6000;0.1091;0.8531;
1197.9000;0.1083;0.8602;
1198.2000;0.1107;0.8650;
1198.5000;0.1107;0.8650;
1198.8000;0.1107;0.8650;
1199.1000;0.1107;0.8650;
1199.4000;0.1140;0.8697;
1199.7000;0.1131;0.8626;
1200.0000;0.1099;0.8579;
1200.3000;0.1099;0.8602;
1200.6000;0.1099;0.8531;
1200.9000;0.1091;0.8531;
1201.2000;0.1164;0.8650;
1201.5000;0.1066;0.8365;
1201.8000;0.1083;0.8342;
1202.1000;0.1083;0.8365;
1202.4000;0.1107;0.8413;
1202.7000;0.1107;0.8507;
1203.0000;0.1091;0.8484;
1203.3000;0.1131;0.8650;
1203.6000;0.1099;0.8650;
1203.9000;0.1091;0.8697;
1204.2000;0.1083;0.8650;
1204.5000;0.1091;0.8673;
1204.8000;0.1091;0.8673;
1205.1000;0.1115;0.8697;
1205.4000;0.1074;0.8555;
1205.7000;0.1091;0.8626;
1206.0000;0.1083;0.8626;
1206.3000;0.1074;0.8626;
1206.6000;0.1107;0.8626;
1206.9000;0.1074;0.8555;
1207.2000;0.0977;0.8294;
1207.5000;0.1083;0.8579;
1207.8000;0.1083;0.8602;
1208.1000;0.1083;0.8673;
1208.4000;0.1074;0.8626;
1208.7000;0.1099;0.8626;
1209.0000;0.1083;0.8579;
1209.3000;0.1083;0.8555;
1209.6000;0.1091;0.8602;
1209.9000;0.1115;0.8650;
1210.2000;0.1107;0.8721;
1210.5000;0.1099;0.8768;
1210.8000;0.1091;0.8839;
1211.1000;0.1099;0.8887;
1211.4000;0.1115;0.8934;
1211.7000;0.1115;0.8887;
1212.0000;0.1091;0.8721;
1212.3000;0.1115;0.8697;
1212.6000;0.1107;0.8697;
1212.9000;0.1107;0.8768;
1213.2000;0.1115;0.8815;
1213.5000;0.1099;0.8744;
1213.8000;0.1107;0.8673;
1214.1000;0.1091;0.8602;
1214.4000;0.1107;0.8626;
1214.7000;0.1091;0.8555;
1215.0000;0.1099;0.8579;
1215.3000;0.1107;0.8579;
1215.6000;0.1099;0.8579;
1215.9000;0.1091;0.8555;
1216.2000;0.1099;0.8531;
1216.5000;0.1107;0.8579;
1216.8000;0.1131;0.8650;
1217.1000;0.1099;0.8626;
1217.4000;0.1050;0.8579;
1217.7000;0.1083;0.8626;
1218.0000;0.1123;0.8673;
1218.3000;0.1058;0.8460;
1218.6000;0.1099;0.8626;
1218.9000;0.1099;0.8697;
1219.2000;0.1123;0.8792;
1219.5000;0.1091;0.8721;
1219.8000;0.1099;0.8744;
1220.1000;0.1099;0.8650;
1220.4000;0.1172;0.8744;
1220.7000;0.1115;0.8650;
1221.0000;0.1091;0.8602;
1221.3000;0.1099;0.8650;
1221.6000;0.1099;0.8721;
1221.9000;0.1131;0.8744;
1222.2000;0.1091;0.8673;
1222.5000;0.1083;0.8744;
1222.8000;0.1115;0.8768;
1223.1000;0.1099;0.8673;
1223.4000;0.1091;0.8650;
1223.7000;0.1083;0.8602;
1224.0000;0.1099;0.8626;
1224.3000;0.1131;0.8579;
1224.6000;0.1131;0.8555;
1224.9000;0.1026;0.8365;
1225.2000;0.1099;0.8531;
1225.5000;0.1074;0.8507;
1225.8000;0.1099;0.8579;
1226.1000;0.1099;0.8531;
1226.4000;0.1083;0.8436;
1226.7000;0.1083;0.8555;
1227.0000;0.1099;0.8650;
1227.3000;0.1091;0.8484;
1227.6000;0.1107;0.8484;
1227.9000;0.1099;0.8507;
1228.2000;0.1099;0.8579;
1228.5000;0.1058;0.8579;
1228.8000;0.1115;0.8626;
1229.1000;0.1107;0.8650;
1229.4000;0.1115;0.8673;
1229.7000;0.1099;0.8602;
1230.0000;0.1050;0.8484;
1230.3000;0.1107;0.8650;
1230.6000;0.1148;0.8792;
1230.9000;0.1083;0.8673;
1231.2000;0.1115;0.8697;
1231.5000;0.1091;0.8673;
1231.8000;0.1066;0.8650;
1232.1000;0.1115;0.8744;
1232.4000;0.1083;0.8650;
1232.7000;0.1107;0.8650;
1233.0000;0.1107;0.8507;
1233.3000;0.1107;0.8460;
1233.6000;0.1107;0.8436;
1233.9000;0.1107;0.8413;
1234.2000;0.1115;0.8389;
1234.5000;0.1115;0.8365;
1234.8000;0.1131;0.8413;
1235.1000;0.1058;0.8270;
1235.4000;0.1107;0.8389;
1235.7000;0.1091;0.8389;
1236.0000;0.1156;0.8484;
1236.3000;0.1091;0.8413;
1236.6000;0.1123;0.8507;
1236.9000;0.1099;0.8484;
1237.2000;0.1099;0.8507;
1237.5000;0.1115;0.8650;
1237.8000;0.1091;0.8626;
1238.1000;0.1091;0.8602;
1238.4000;0.1099;0.8650;
1238.7000;0.1107;0.8721;
1239.0000;0.1091;0.8650;
1239.3000;0.1099;0.8721;
1239.6000;0.1107;0.8744;
1239.9000;0.1074;0.8721;
1240.2000;0.1042;0.8579;
1240.5000;0.1066;0.8555;
1240.8000;0.1083;0.8555;
1241.1000;0.1091;0.8484;
1241.4000;0.1074;0.8507;
1241.7000;0.1172;0.8721;
1242.0000;0.1099;0.8507;
1242.3000;0.1099;0.8531;
1242.6000;0.1107;0.8507;
1242.9000;0.1099;0.8484;
1243.2000;0.1099;0.8460;
1243.5000;0.1131;0.8531;
1243.8000;0.1123;0.8531;
1244.1000;0.1099;0.8484;
1244.4000;0.1099;0.8531;
1244.7000;0.1099;0.8650;
1245.0000;0.1107;0.8768;
1245.3000;0.1099;0.8839;
1245.6000;0.1099;0.8697;
1245.9000;0.1107;0.8673;
1246.2000;0.1099;0.8650;
1246.5000;0.1099;0.8721;
1246.8000;0.1091;0.8626;
1247.1000;0.1115;0.8721;
1247.4000;0.1091;0.8697;
1247.7000;0.1107;0.8744;
1248.0000;0.1083;0.8579;
1248.3000;0.1091;0.8602;
1248.6000;0.1099;0.8507;
1248.9000;0.1115;0.8460;
1249.2000;0.1099;0.8389;
1249.5000;0.1131;0.8531;
1249.8000;0.1074;0.8365;
1250.1000;0.1123;0.8436;
1250.4000;0.1115;0.8436;
1250.7000;0.1123;0.8460;
1251.0000;0.1140;0.8484;
1251.3000;0.1107;0.8531;
1251.6000;0.1148;0.8626;
1251.9000;0.1091;0.8555;
1252.2000;0.1099;0.8650;
1252.5000;0.1140;0.8673;
1252.8000;0.1140;0.8626;
1253.1000;0.1091;0.8531;
1253.4000;0.1099;0.8507;
1253.7000;0.1091;0.8555;
1254.0000;0.1091;0.8602;
1254.3000;0.1091;0.8602;
1254.6000;0.1091;0.8650;
1254.9000;0.1099;0.8650;
1255.2000;0.1099;0.8626;
1255.5000;0.1091;0.8602;
1255.8000;0.1115;0.8531;
1256.1000;0.1107;0.8555;
1256.4000;0.1091;0.8579;
1256.7000;0.1091;0.8602;
1257.0000;0.1107;0.8650;
1257.3000;0.1156;0.8815;
1257.6000;0.1099;0.8768;
1257.9000;0.1107;0.8815;
1258.2000;0.1131;0.8887;
1258.5000;0.1091;0.8815;
1258.8000;0.1074;0.8768;
1259.1000;0.1091;0.8839;
1259.4000;0.1099;0.8839;
1259.7000;0.1115;0.8839;
1260.0000;0.1107;0.8744;
1260.3000;0.1123;0.8768;
1260.6000;0.1123;0.8768;
1260.9000;0.1131;0.8768;
1261.2000;0.1091;0.8768;
1261.5000;0.1115;0.8744;
1261.8000;0.1107;0.8768;
1262.1000;0.1091;0.8697;
1262.4000;0.1091;0.8602;
1262.7000;0.1099;0.8602;
1263.0000;0.1123;0.8673;
1263.3000;0.1099;0.8626;
1263.6000;0.1107;0.8555;
1263.9000;0.1099;0.8555;
1264.2000;0.1091;0.8531;
1264.5000;0.1107;0.8579;
1264.8000;0.1123;0.8602;
1265.1000;0.1083;0.8579;
1265.4000;0.1091;0.8697;
1265.7000;0.1107;0.8768;
1266.0000;0.1148;0.8887;
1266.3000;0.1107;0.8815;
1266.6000;0.1164;0.8863;
1266.9000;0.1099;0.8602;
1267.2000;0.1099;0.8531;
1267.5000;0.1091;0.8484;
1267.8000;0.1099;0.8602;
1268.1000;0.1123;0.8673;
1268.4000;0.1099;0.8673;
1268.7000;0.1083;0.8602;
1269.0000;0.1140;0.8721;
1269.3000;0.1099;0.8555;
1269.6000;0.1115;0.8626;
1269.9000;0.1107;0.8650;
1270.2000;0.1099;0.8626;
1270.5000;0.1091;0.8602;
1270.8000;0.1107;0.8531;
1271.1000;0.1123;0.8602;
1271.4000;0.1164;0.8697;
1271.7000;0.1123;0.8579;
1272.0000;0.1107;0.8602;
1272.3000;0.1164;0.8626;
1272.6000;0.1083;0.8436;
1272.9000;0.1148;0.8579;
1273.2000;0.1107;0.8484;
1273.5000;0.1099;0.8531;
1273.8000;0.1115;0.8579;
1274.1000;0.1091;0.8579;
1274.4000;0.1083;0.8602;
1274.7000;0.1123;0.8744;
1275.0000;0.1107;0.8697;
1275.3000;0.1099;0.8626;
1275.6000;0.1131;0.8768;
1275.9000;0.1107;0.8721;
1276.2000;0.1099;0.8650;
1276.5000;0.1107;0.8673;
1276.8000;0.1107;0.8673;
1277.1000;0.1107;0.8673;
1277.4000;0.1091;0.8602;
1277.7000;0.1099;0.8555;
1278.0000;0.1091;0.8484;
1278.3000;0.1091;0.8460;
1278.6000;0.1115;0.8602;
1278.9000;0.1091;0.8626;
1279.2000;0.1083;0.8626;
1279.5000;0.1091;0.8602;
1279.8000;0.1099;0.8602;
1280.1000;0.1107;0.8579;
1280.4000;0.1091;0.8460;
1280.7000;0.1099;0.8436;
1281.0000;0.1107;0.8484;
1281.3000;0.1091;0.8555;
1281.6000;0.1107;0.8602;
1281.9000;0.1091;0.8531;
1282.2000;0.1107;0.8531;
1282.5000;0.1107;0.8531;
1282.8000;0.1083;0.8507;
1283.1000;0.1074;0.8579;
1283.4000;0.1083;0.8555;
1283.7000;0.1091;0.8602;
1284.0000;0.1099;0.8626;
1284.3000;0.1099;0.8602;
1284.6000;0.1074;0.8531;
1284.9000;0.1099;0.8602;
1285.2000;0.1091;0.8602;
1285.5000;0.1099;0.8579;
1285.8000;0.1050;0.8507;
1286.1000;0.1091;0.8650;
1286.4000;0.1123;0.8650;
1286.7000;0.1115;0.8626;
1287.0000;0.1099;0.8531;
1287.3000;0.1099;0.8626;
1287.6000;0.1123;0.8768;
1287.9000;0.1115;0.8792;
1288.2000;0.1115;0.8815;
1288.5000;0.1058;0.8673;
1288.8000;0.1099;0.8768;
1289.1000;0.1107;0.8744;
1289.4000;0.1107;0.8555;
1289.7000;0.1083;0.8507;
1290.0000;0.1091;0.8579;
1290.3000;0.1123;0.8579;
1290.6000;0.1107;0.8531;
1290.9000;0.1099;0.8507;
1291.2000;0.1058;0.8436;
1291.5000;0.1188;0.8721;
1291.8000;0.1148;0.8673;
1292.1000;0.1107;0.8531;
1292.4000;0.1107;0.8602;
1292.7000;0.1107;0.8579;
1293.0000;0.1107;0.8579;
1293.3000;0.1099;0.8555;
1293.6000;0.1123;0.8579;
1293.9000;0.1099;0.8531;
1294.2000;0.1099;0.8507;
1294.5000;0.1091;0.8507;
1294.8000;0.1107;0.8484;
1295.1000;0.1083;0.8484;
1295.4000;0.1107;0.8626;
1295.7000;0.1091;0.8697;
1296.0000;0.1091;0.8744;
1296.3000;0.1099;0.8626;
1296.6000;0.1099;0.8602;
1296.9000;0.1107;0.8626;
1297.2000;0.1099;0.8602;
1297.5000;0.1107;0.8602;
1297.8000;0.1140;0.8768;
1298.1000;0.1091;0.8626;
1298.4000;0.1107;0.8697;
1298.7000;0.1083;0.8626;
1299.0000;0.1099;0.8650;
1299.3000;0.1083;0.8507;
1299.6000;0.1115;0.8602;
1299.9000;0.1107;0.8602;
1300.2000;0.1099;0.8579;
1300.5000;0.1099;0.8507;
1300.8000;0.1099;0.8507;
1301.1000;0.1156;0.8697;
1301.4000;0.1115;0.8602;
1301.7000;0.1083;0.8555;
1302.0000;0.1107;0.8673;
1302.3000;0.1099;0.8697;
1302.6000;0.1107;0.8626;
1302.9000;0.1099;0.8602;
1303.2000;0.1099;0.8579;
1303.5000;0.1091;0.8579;
1303.8000;0.1091;0.8602;
1304.1000;0.1099;0.8626;
1304.4000;0.1099;0.8673;
1304.7000;0.1099;0.8721;
1305.0000;0.1107;0.8697;
1305.3000;0.1099;0.8744;
1305.6000;0.1091;0.8768;
1305.9000;0.1099;0.8673;
1306.2000;0.1099;0.8650;
1306.5000;0.1107;0.8721;
1306.8000;0.1083;0.8697;
1307.1000;0.1099;0.8650;
1307.4000;0.1099;0.8579;
1307.7000;0.1099;0.8579;
1308.0000;0.1099;0.8555;
1308.3000;0.1115;0.8555;
1308.6000;0.1066;0.8460;
1308.9000;0.1099;0.8484;
1309.2000;0.1148;0.8602;
1309.5000;0.1099;0.8579;
1309.8000;0.1099;0.8602;
1310.1000;0.1058;0.8555;
1310.4000;0.1131;0.8721;
1310.7000;0.1083;0.8626;
1311.0000;0.1115;0.8721;
1311.3000;0.1107;0.8650;
1311.6000;0.1115;0.8555;
1311.9000;0.1107;0.8555;
1312.2000;0.1123;0.8531;
1312.5000;0.1074;0.8413;
1312.8000;0.1099;0.8507;
1313.1000;0.1148;0.8579;
1313.4000;0.1164;0.8602;
1313.7000;0.1099;0.8460;
1314.0000;0.1034;0.8318;
1314.3000;0.1042;0.8270;
1314.6000;0.1123;0.8460;
1314.9000;0.1115;0.8436;
1315.2000;0.1083;0.8318;
1315.5000;0.1091;0.8413;
1315.8000;0.1099;0.8555;
1316.1000;0.1099;0.8602;
1316.4000;0.1091;0.8650;
1316.7000;0.1058;0.8460;
1317.0000;0.1131;0.8673;
1317.3000;0.1091;0.8602;
1317.6000;0.1066;0.8626;
1317.9000;0.1107;0.8626;
1318.2000;0.1091;0.8602;
1318.5000;0.1083;0.8626;
1318.8000;0.1123;0.8697;
1319.1000;0.1091;0.8721;
1319.4000;0.1091;0.8697;
1319.7000;0.1074;0.8602;
1320.0000;0.1107;0.8555;
1320.3000;0.1188;0.8792;
1320.6000;0.1083;0.8484;
1320.9000;0.1050;0.8318;
1321.2000;0.1099;0.8436;
1321.5000;0.1026;0.8223;
1321.8000;0.1107;0.8436;
1322.1000;0.1083;0.8460;
1322.4000;0.1083;0.8389;
1322.7000;0.1091;0.8436;
1323.0000;0.1066;0.8365;
1323.3000;0.1107;0.8484;
1323.6000;0.1083;0.8436;
1323.9000;0.1091;0.8460;
1324.2000;0.1099;0.8507;
1324.5000;0.1107;0.8460;
1324.8000;0.1083;0.8413;
1325.1000;0.1107;0.8507;
1325.4000;0.1123;0.8579;
1325.7000;0.1123;0.8531;
1326.0000;0.1180;0.8744;
1326.3000;0.1066;0.8436;
1326.6000;0.1115;0.8507;
1326.9000;0.1099;0.8413;
1327.2000;0.1099;0.8436;
1327.5000;0.1099;0.8460;
1327.8000;0.1107;0.8602;
1328.1000;0.1107;0.8626;
1328.4000;0.1115;0.8626;
1328.7000;0.1091;0.8507;
1329.0000;0.1091;0.8507;
1329.3000;0.1107;0.8626;
1329.6000;0.1099;0.8626;
1329.9000;0.1091;0.8697;
1330.2000;0.1099;0.8697;
1330.5000;0.1107;0.8673;
1330.8000;0.1115;0.8697;
1331.1000;0.1074;0.8673;
1331.4000;0.1107;0.8792;
1331.7000;0.1131;0.8792;
1332.0000;0.1107;0.8650;
1332.3000;0.1172;0.8863;
1332.6000;0.1107;0.8721;
1332.9000;0.1099;0.8650;
1333.2000;0.1115;0.8626;
1333.5000;0.1091;0.8626;
1333.8000;0.1083;0.8626;
1334.1000;0.1099;0.8579;
1334.4000;0.1074;0.8507;
1334.7000;0.1107;0.8673;
1335.0000;0.1091;0.8673;
1335.3000;0.1115;0.8579;
1335.6000;0.1091;0.8555;
1335.9000;0.1099;0.8626;
1336.2000;0.1140;0.8650;
1336.5000;0.1091;0.8579;
1336.8000;0.1107;0.8626;
1337.1000;0.1123;0.8602;
1337.4000;0.1140;0.8626;
1337.7000;0.1115;0.8555;
1338.0000;0.1115;0.8555;
1338.3000;0.1091;0.8555;
1338.6000;0.1115;0.8697;
1338.9000;0.1164;0.8863;
1339.2000;0.1115;0.8721;
1339.5000;0.1107;0.8650;
1339.8000;0.1083;0.8602;
1340.1000;0.1099;0.8602;
1340.4000;0.1107;0.8650;
1340.7000;0.1099;0.8626;
1341.0000;0.1107;0.8673;
1341.3000;0.1099;0.8626;
1341.6000;0.1091;0.8673;
1341.9000;0.1107;0.8650;
1342.2000;0.1099;0.8673;
1342.5000;0.1099;0.8579;
1342.8000;0.1115;0.8602;
1343.1000;0.1042;0.8389;
1343.4000;0.1099;0.8365;
1343.7000;0.1107;0.8413;
1344.0000;0.1083;0.8389;
1344.3000;0.1099;0.8436;
1344.6000;0.1099;0.8413;
1344.9000;0.1083;0.8342;
1345.2000;0.1107;0.8436;
1345.5000;0.1156;0.8626;
1345.8000;0.1099;0.8413;
1346.1000;0.1066;0.8342;
1346.4000;0.1140;0.8531;
1346.7000;0.1083;0.8484;
1347.0000;0.1066;0.8460;
1347.3000;0.1099;0.8555;
1347.6000;0.1123;0.8697;
1347.9000;0.1115;0.8697;
1348.2000;0.1099;0.8744;
1348.5000;0.1091;0.8792;
1348.8000;0.1074;0.8721;
1349.1000;0.1131;0.8887;
1349.4000;0.1107;0.8768;
1349.7000;0.1140;0.8887;
1350.0000;0.1123;0.8839;
1350.3000;0.1099;0.8721;
1350.6000;0.1099;0.8721;
1350.9000;0.1050;0.8484;
1351.2000;0.1074;0.8626;
1351.5000;0.1099;0.8721;
1351.8000;0.1083;0.8602;
1352.1000;0.1091;0.8579;
1352.4000;0.1107;0.8602;
1352.7000;0.1099;0.8579;
1353.0000;0.1107;0.8650;
1353.3000;0.1115;0.8697;
1353.6000;0.1115;0.8768;
1353.9000;0.1107;0.8792;
1354.2000;0.1107;0.8815;
1354.5000;0.1107;0.8744;
1354.8000;0.1091;0.8697;
1355.1000;0.1107;0.8697;
1355.4000;0.1115;0.8673;
1355.7000;0.1074;0.8673;
1356.0000;0.1091;0.8650;
1356.3000;0.1099;0.8626;
1356.6000;0.1107;0.8579;
1356.9000;0.1034;0.8484;
1357.2000;0.1083;0.8626;
1357.5000;0.1091;0.8579;
1357.8000;0.1115;0.8531;
1358.1000;0.1131;0.8531;
1358.4000;0.1107;0.8507;
1358.7000;0.1099;0.8531;
1359.0000;0.1083;0.8531;
1359.3000;0.1091;0.8531;
1359.6000;0.1099;0.8531;
1359.9000;0.1107;0.8531;
1360.2000;0.1115;0.8507;
1360.5000;0.1164;0.8673;
1360.8000;0.1099;0.8626;
1361.1000;0.1123;0.8768;
1361.4000;0.1107;0.8721;
1361.7000;0.1091;0.8673;
1362.0000;0.1091;0.8673;
1362.3000;0.1164;0.8721;
1362.6000;0.1074;0.8650;
1362.9000;0.1099;0.8768;
1363.2000;0.1123;0.8744;
1363.5000;0.1107;0.8579;
1363.8000;0.1099;0.8579;
1364.1000;0.1058;0.8531;
1364.4000;0.1107;0.8650;
1364.7000;0.1107;0.8531;
1365.0000;0.1034;0.8389;
1365.3000;0.1099;0.8555;
1365.6000;0.1107;0.8626;
1365.9000;0.1099;0.8531;
1366.2000;0.1123;0.8555;
1366.5000;0.1091;0.8531;
1366.8000;0.1115;0.8507;
1367.1000;0.1148;0.8650;
1367.4000;0.1107;0.8555;
1367.7000;0.1091;0.8555;
1368.0000;0.1123;0.8602;
1368.3000;0.1107;0.8555;
1368.6000;0.1083;0.8507;
1368.9000;0.1099;0.8626;
1369.2000;0.1107;0.8650;
1369.5000;0.1107;0.8721;
1369.8000;0.1107;0.8744;
1370.1000;0.1107;0.8626;
1370.4000;0.1091;0.8579;
1370.7000;0.1107;0.8555;
1371.0000;0.1099;0.8484;
1371.3000;0.1091;0.8436;
1371.6000;0.1058;0.8389;
1371.9000;0.1140;0.8602;
1372.2000;0.1107;0.8531;
1372.5000;0.1091;0.8531;
1372.8000;0.1123;0.8626;
1373.1000;0.1107;0.8650;
1373.4000;0.1107;0.8626;
1373.7000;0.1107;0.8602;
1374.0000;0.1140;0.8673;
1374.3000;0.1099;0.8626;
1374.6000;0.1107;0.8626;
1374.9000;0.1131;0.8721;
1375.2000;0.1083;0.8579;
1375.5000;0.1123;0.8744;
1375.8000;0.1099;0.8626;
1376.1000;0.1083;0.8555;
1376.4000;0.1148;0.8673;
1376.7000;0.1091;0.8484;
1377.0000;0.1091;0.8484;
1377.3000;0.1107;0.8531;
1377.6000;0.1099;0.8507;
1377.9000;0.1091;0.8460;
1378.2000;0.1091;0.8507;
1378.5000;0.1107;0.8650;
1378.8000;0.1099;0.8673;
1379.1000;0.1107;0.8744;
1379.4000;0.1050;0.8555;
1379.7000;0.1091;0.8555;
1380.0000;0.1131;0.8602;
1380.3000;0.1074;0.8484;
1380.6000;0.1131;0.8673;
1380.9000;0.1058;0.8531;
1381.2000;0.1042;0.8436;
1381.5000;0.1099;0.8650;
1381.8000;0.1115;0.8697;
1382.1000;0.1099;0.8768;
1382.4000;0.1107;0.8792;
1382.7000;0.1107;0.8815;
1383.0000;0.1066;0.8721;
1383.3000;0.1091;0.8697;
1383.6000;0.1099;0.8768;
1383.9000;0.1099;0.8792;
1384.2000;0.1115;0.8768;
1384.5000;0.1099;0.8721;
1384.8000;0.1115;0.8697;
1385.1000;0.1123;0.8697;
1385.4000;0.1123;0.8721;
1385.7000;0.1099;0.8626;
1386.0000;0.1164;0.8792;
1386.3000;0.1115;0.8721;
1386.6000;0.1091;0.8697;
1386.9000;0.1115;0.8697;
1387.2000;0.1140;0.8650;
1387.5000;0.1099;0.8531;
1387.8000;0.1091;0.8484;
1388.1000;0.1148;0.8555;
1388.4000;0.1115;0.8507;
1388.7000;0.1107;0.8460;
1389.0000;0.1091;0.8507;
1389.3000;0.1107;0.8673;
1389.6000;0.1099;0.8602;
1389.9000;0.1066;0.8579;
1390.2000;0.1083;0.8650;
1390.5000;0.1083;0.8650;
1390.8000;0.1099;0.8721;
1391.1000;0.1066;0.8650;
1391.4000;0.1091;0.8673;
1391.7000;0.1115;0.8650;
1392.0000;0.1091;0.8626;
1392.3000;0.1123;0.8768;
1392.6000;0.1107;0.8721;
1392.9000;0.1107;0.8626;
1393.2000;0.1123;0.8650;
1393.5000;0.1099;0.8579;
1393.8000;0.1123;0.8626;
1394.1000;0.1115;0.8721;
1394.4000;0.1107;0.8792;
1394.7000;0.1099;0.8744;
1395.0000;0.1099;0.8721;
1395.3000;0.1107;0.8673;
1395.6000;0.1099;0.8650;
1395.9000;0.1123;0.8626;
1396.2000;0.1099;0.8626;
1396.5000;0.1107;0.8650;
1396.8000;0.1099;0.8673;
1397.1000;0.1091;0.8744;
1397.4000;0.1107;0.8815;
1397.7000;0.1164;0.9124;
1398.0000;0.1091;0.8934;
1398.3000;0.1099;0.8887;
1398.6000;0.1099;0.8839;
1398.9000;0.1107;0.8815;
1399.2000;0.1107;0.8815;
1399.5000;0.1066;0.8721;
1399.8000;0.1099;0.8744;
