time/ms;Fluo/V;P700 deltaI/I x10³;
-199.8000;0.5128;1.4560;
-199.5000;0.5169;1.4536;
-199.2000;0.5161;1.4560;
-198.9000;0.5104;1.4417;
-198.6000;0.5161;1.4536;
-198.3000;0.5161;1.4607;
-198.0000;0.5177;1.4750;
-197.7000;0.5161;1.4655;
-197.4000;0.5161;1.4584;
-197.1000;0.5161;1.4631;
-196.8000;0.5161;1.4631;
-196.5000;0.5177;1.4631;
-196.2000;0.5144;1.4560;
-195.9000;0.5177;1.4655;
-195.6000;0.5169;1.4679;
-195.3000;0.5161;1.4655;
-195.0000;0.5144;1.4607;
-194.7000;0.5153;1.4655;
-194.4000;0.5169;1.4607;
-194.1000;0.5161;1.4584;
-193.8000;0.5177;1.4631;
-193.5000;0.5153;1.4584;
-193.2000;0.5226;1.4798;
-192.9000;0.5161;1.4631;
-192.6000;0.5153;1.4631;
-192.3000;0.5153;1.4536;
-192.0000;0.5169;1.4607;
-191.7000;0.5161;1.4560;
-191.4000;0.5161;1.4536;
-191.1000;0.5144;1.4631;
-190.8000;0.5185;1.4726;
-190.5000;0.5169;1.4584;
-190.2000;0.5169;1.4560;
-189.9000;0.5153;1.4512;
-189.6000;0.5153;1.4560;
-189.3000;0.5153;1.4441;
-189.0000;0.5161;1.4441;
-188.7000;0.5153;1.4465;
-188.4000;0.5177;1.4417;
-188.1000;0.5071;1.4132;
-187.8000;0.5153;1.4275;
-187.5000;0.5161;1.4346;
-187.2000;0.5177;1.4322;
-186.9000;0.5161;1.4275;
-186.6000;0.5169;1.4180;
-186.3000;0.5169;1.4204;
-186.0000;0.5161;1.4227;
-185.7000;0.5201;1.4346;
-185.4000;0.5161;1.4251;
-185.1000;0.5201;1.4441;
-184.8000;0.5161;1.4346;
-184.5000;0.5161;1.4322;
-184.2000;0.5153;1.4370;
-183.9000;0.5120;1.4299;
-183.6000;0.5169;1.4441;
-183.3000;0.5153;1.4417;
-183.0000;0.5161;1.4441;
-182.7000;0.5169;1.4465;
-182.4000;0.5128;1.4346;
-182.1000;0.5136;1.4512;
-181.8000;0.5169;1.4512;
-181.5000;0.5153;1.4536;
-181.2000;0.5234;1.4726;
-180.9000;0.5161;1.4584;
-180.6000;0.5161;1.4584;
-180.3000;0.5153;1.4584;
-180.0000;0.5153;1.4679;
-179.7000;0.5234;1.4893;
-179.4000;0.5193;1.4869;
-179.1000;0.5210;1.4893;
-178.8000;0.5161;1.4702;
-178.5000;0.5161;1.4702;
-178.2000;0.5136;1.4631;
-177.9000;0.5161;1.4702;
-177.6000;0.5144;1.4584;
-177.3000;0.5136;1.4489;
-177.0000;0.5161;1.4607;
-176.7000;0.5153;1.4607;
-176.4000;0.5136;1.4560;
-176.1000;0.5161;1.4584;
-175.8000;0.5210;1.4750;
-175.5000;0.5161;1.4607;
-175.2000;0.5153;1.4607;
-174.9000;0.5169;1.4631;
-174.6000;0.5104;1.4489;
-174.3000;0.5177;1.4631;
-174.0000;0.5161;1.4679;
-173.7000;0.5071;1.4489;
-173.4000;0.5161;1.4750;
-173.1000;0.5177;1.4726;
-172.8000;0.5177;1.4702;
-172.5000;0.5169;1.4607;
-172.2000;0.5153;1.4536;
-171.9000;0.5169;1.4512;
-171.6000;0.5153;1.4489;
-171.3000;0.5153;1.4394;
-171.0000;0.5153;1.4489;
-170.7000;0.5153;1.4536;
-170.4000;0.5144;1.4489;
-170.1000;0.5275;1.4726;
-169.8000;0.5128;1.4417;
-169.5000;0.5128;1.4394;
-169.2000;0.5161;1.4512;
-168.9000;0.5185;1.4584;
-168.6000;0.5153;1.4560;
-168.3000;0.5153;1.4489;
-168.0000;0.5169;1.4560;
-167.7000;0.5153;1.4536;
-167.4000;0.5153;1.4607;
-167.1000;0.5153;1.4584;
-166.8000;0.5185;1.4631;
-166.5000;0.5169;1.4536;
-166.2000;0.5177;1.4560;
-165.9000;0.5161;1.4655;
-165.6000;0.5161;1.4655;
-165.3000;0.5177;1.4584;
-165.0000;0.5161;1.4560;
-164.7000;0.5153;1.4560;
-164.4000;0.5169;1.4631;
-164.1000;0.5250;1.4750;
-163.8000;0.5169;1.4607;
-163.5000;0.5177;1.4584;
-163.2000;0.5234;1.4726;
-162.9000;0.5177;1.4679;
-162.6000;0.5177;1.4750;
-162.3000;0.5177;1.4679;
-162.0000;0.5169;1.4679;
-161.7000;0.5120;1.4607;
-161.4000;0.5169;1.4702;
-161.1000;0.5128;1.4584;
-160.8000;0.5177;1.4774;
-160.5000;0.5153;1.4702;
-160.2000;0.5161;1.4774;
-159.9000;0.5169;1.4821;
-159.6000;0.5177;1.4750;
-159.3000;0.5153;1.4702;
-159.0000;0.5169;1.4774;
-158.7000;0.5169;1.4726;
-158.4000;0.5153;1.4702;
-158.1000;0.5144;1.4679;
-157.8000;0.5144;1.4584;
-157.5000;0.5169;1.4655;
-157.2000;0.5161;1.4607;
-156.9000;0.5136;1.4584;
-156.6000;0.5169;1.4702;
-156.3000;0.5144;1.4702;
-156.0000;0.5161;1.4750;
-155.7000;0.5153;1.4750;
-155.4000;0.5153;1.4750;
-155.1000;0.5153;1.4679;
-154.8000;0.5161;1.4750;
-154.5000;0.5136;1.4702;
-154.2000;0.5153;1.4774;
-153.9000;0.5161;1.4726;
-153.6000;0.5169;1.4702;
-153.3000;0.5161;1.4774;
-153.0000;0.5226;1.4845;
-152.7000;0.5177;1.4750;
-152.4000;0.5193;1.4893;
-152.1000;0.5169;1.4893;
-151.8000;0.5153;1.4821;
-151.5000;0.5161;1.4845;
-151.2000;0.5161;1.4916;
-150.9000;0.5136;1.4845;
-150.6000;0.5144;1.4774;
-150.3000;0.5161;1.4774;
-150.0000;0.5169;1.4821;
-149.7000;0.5161;1.4821;
-149.4000;0.5234;1.4988;
-149.1000;0.5153;1.4798;
-148.8000;0.5161;1.4821;
-148.5000;0.5169;1.4726;
-148.2000;0.5169;1.4726;
-147.9000;0.5161;1.4726;
-147.6000;0.5169;1.4679;
-147.3000;0.5332;1.5178;
-147.0000;0.5144;1.4774;
-146.7000;0.5144;1.4774;
-146.4000;0.5153;1.4774;
-146.1000;0.5169;1.4726;
-145.8000;0.5169;1.4821;
-145.5000;0.5161;1.4798;
-145.2000;0.5169;1.4821;
-144.9000;0.5144;1.4750;
-144.6000;0.5161;1.4821;
-144.3000;0.5169;1.4869;
-144.0000;0.5161;1.4893;
-143.7000;0.5153;1.4845;
-143.4000;0.5161;1.4869;
-143.1000;0.5169;1.4845;
-142.8000;0.5161;1.4869;
-142.5000;0.5177;1.4988;
-142.2000;0.5169;1.4964;
-141.9000;0.5161;1.4964;
-141.6000;0.5210;1.5201;
-141.3000;0.5161;1.4988;
-141.0000;0.5177;1.4988;
-140.7000;0.5128;1.4893;
-140.4000;0.5128;1.4869;
-140.1000;0.5161;1.4916;
-139.8000;0.5185;1.4916;
-139.5000;0.5177;1.4916;
-139.2000;0.5144;1.4964;
-138.9000;0.5153;1.4964;
-138.6000;0.5161;1.4988;
-138.3000;0.5161;1.4988;
-138.0000;0.5161;1.5011;
-137.7000;0.5153;1.5059;
-137.4000;0.5136;1.5011;
-137.1000;0.5153;1.4988;
-136.8000;0.5153;1.4988;
-136.5000;0.5153;1.4893;
-136.2000;0.5161;1.4798;
-135.9000;0.5153;1.4750;
-135.6000;0.5226;1.4916;
-135.3000;0.5177;1.4821;
-135.0000;0.5153;1.4750;
-134.7000;0.5144;1.4774;
-134.4000;0.5177;1.4821;
-134.1000;0.5144;1.4774;
-133.8000;0.5153;1.4798;
-133.5000;0.5112;1.4726;
-133.2000;0.5161;1.4893;
-132.9000;0.5169;1.4988;
-132.6000;0.5185;1.4964;
-132.3000;0.5193;1.4940;
-132.0000;0.5169;1.4845;
-131.7000;0.5055;1.4607;
-131.4000;0.5144;1.4798;
-131.1000;0.5120;1.4679;
-130.8000;0.5144;1.4726;
-130.5000;0.5096;1.4607;
-130.2000;0.5144;1.4702;
-129.9000;0.5144;1.4750;
-129.6000;0.5153;1.4774;
-129.3000;0.5144;1.4726;
-129.0000;0.5185;1.4916;
-128.7000;0.5185;1.4916;
-128.4000;0.5169;1.4869;
-128.1000;0.5161;1.4845;
-127.8000;0.5161;1.4845;
-127.5000;0.5153;1.4774;
-127.2000;0.5096;1.4655;
-126.9000;0.5153;1.4726;
-126.6000;0.5169;1.4726;
-126.3000;0.5144;1.4726;
-126.0000;0.5153;1.4750;
-125.7000;0.5161;1.4750;
-125.4000;0.5161;1.4798;
-125.1000;0.5153;1.4821;
-124.8000;0.5161;1.4845;
-124.5000;0.5161;1.4869;
-124.2000;0.5136;1.4798;
-123.9000;0.5120;1.4750;
-123.6000;0.5177;1.5011;
-123.3000;0.5185;1.5083;
-123.0000;0.5169;1.5011;
-122.7000;0.5177;1.4988;
-122.4000;0.5161;1.4893;
-122.1000;0.5161;1.4845;
-121.8000;0.5161;1.4774;
-121.5000;0.5153;1.4679;
-121.2000;0.5161;1.4750;
-120.9000;0.5169;1.4798;
-120.6000;0.5201;1.4940;
-120.3000;0.5153;1.4798;
-120.0000;0.5169;1.4845;
-119.7000;0.5177;1.4821;
-119.4000;0.5201;1.4964;
-119.1000;0.5153;1.4893;
-118.8000;0.5177;1.4940;
-118.5000;0.5185;1.5035;
-118.2000;0.5169;1.4988;
-117.9000;0.5161;1.4964;
-117.6000;0.5177;1.4964;
-117.3000;0.5161;1.4940;
-117.0000;0.5153;1.4845;
-116.7000;0.5161;1.4869;
-116.4000;0.5153;1.4845;
-116.1000;0.5153;1.4916;
-115.8000;0.5161;1.4988;
-115.5000;0.5153;1.4964;
-115.2000;0.5153;1.4916;
-114.9000;0.5128;1.4893;
-114.6000;0.5153;1.4916;
-114.3000;0.5169;1.4964;
-114.0000;0.5153;1.4845;
-113.7000;0.5144;1.4702;
-113.4000;0.5185;1.4821;
-113.1000;0.5177;1.4821;
-112.8000;0.5169;1.4869;
-112.5000;0.5185;1.4916;
-112.2000;0.5161;1.4798;
-111.9000;0.5153;1.4679;
-111.6000;0.5161;1.4774;
-111.3000;0.5153;1.4726;
-111.0000;0.5161;1.4774;
-110.7000;0.5161;1.4726;
-110.4000;0.5226;1.4845;
-110.1000;0.5161;1.4750;
-109.8000;0.5161;1.4798;
-109.5000;0.5258;1.5011;
-109.2000;0.5161;1.4702;
-108.9000;0.5144;1.4655;
-108.6000;0.5153;1.4631;
-108.3000;0.5201;1.4750;
-108.0000;0.5063;1.4441;
-107.7000;0.5153;1.4631;
-107.4000;0.5153;1.4655;
-107.1000;0.5161;1.4655;
-106.8000;0.5153;1.4679;
-106.5000;0.5153;1.4750;
-106.2000;0.5161;1.4726;
-105.9000;0.5169;1.4821;
-105.6000;0.5161;1.4845;
-105.3000;0.5128;1.4726;
-105.0000;0.5161;1.4869;
-104.7000;0.5144;1.4798;
-104.4000;0.5169;1.4798;
-104.1000;0.5161;1.4750;
-103.8000;0.5153;1.4774;
-103.5000;0.5153;1.4750;
-103.2000;0.5079;1.4536;
-102.9000;0.5144;1.4750;
-102.6000;0.5161;1.4798;
-102.3000;0.5161;1.4798;
-102.0000;0.5153;1.4750;
-101.7000;0.5144;1.4679;
-101.4000;0.5144;1.4631;
-101.1000;0.5136;1.4631;
-100.8000;0.5136;1.4607;
-100.5000;0.5153;1.4655;
-100.2000;0.5161;1.4607;
-99.9000;0.5128;1.4560;
-99.6000;0.5161;1.4607;
-99.3000;0.5177;1.4607;
-99.0000;0.5153;1.4607;
-98.7000;0.5161;1.4655;
-98.4000;0.5161;1.4631;
-98.1000;0.5169;1.4560;
-97.8000;0.5250;1.4679;
-97.5000;0.5136;1.4489;
-97.2000;0.5153;1.4560;
-96.9000;0.5169;1.4560;
-96.6000;0.5210;1.4702;
-96.3000;0.5153;1.4560;
-96.0000;0.5153;1.4512;
-95.7000;0.5177;1.4584;
-95.4000;0.5153;1.4560;
-95.1000;0.5153;1.4679;
-94.8000;0.5153;1.4774;
-94.5000;0.5153;1.4726;
-94.2000;0.5169;1.4750;
-93.9000;0.5169;1.4631;
-93.6000;0.5177;1.4679;
-93.3000;0.5161;1.4631;
-93.0000;0.5169;1.4726;
-92.7000;0.5161;1.4726;
-92.4000;0.5169;1.4774;
-92.1000;0.5161;1.4750;
-91.8000;0.5169;1.4750;
-91.5000;0.5161;1.4750;
-91.2000;0.5120;1.4655;
-90.9000;0.5153;1.4679;
-90.6000;0.5153;1.4774;
-90.3000;0.5177;1.4774;
-90.0000;0.5161;1.4655;
-89.7000;0.5161;1.4679;
-89.4000;0.5153;1.4702;
-89.1000;0.5169;1.4679;
-88.8000;0.5161;1.4655;
-88.5000;0.5210;1.4726;
-88.2000;0.5153;1.4655;
-87.9000;0.5161;1.4631;
-87.6000;0.5153;1.4607;
-87.3000;0.5153;1.4536;
-87.0000;0.5153;1.4465;
-86.7000;0.5161;1.4465;
-86.4000;0.5169;1.4560;
-86.1000;0.5169;1.4655;
-85.8000;0.5153;1.4655;
-85.5000;0.5128;1.4512;
-85.2000;0.5177;1.4655;
-84.9000;0.5153;1.4655;
-84.6000;0.5136;1.4607;
-84.3000;0.5120;1.4655;
-84.0000;0.5185;1.4774;
-83.7000;0.5153;1.4655;
-83.4000;0.5136;1.4607;
-83.1000;0.5169;1.4655;
-82.8000;0.5144;1.4512;
-82.5000;0.5177;1.4560;
-82.2000;0.5169;1.4536;
-81.9000;0.5144;1.4584;
-81.6000;0.5144;1.4679;
-81.3000;0.5169;1.4774;
-81.0000;0.5088;1.4584;
-80.7000;0.5177;1.4774;
-80.4000;0.5169;1.4798;
-80.1000;0.5177;1.4845;
-79.8000;0.5161;1.4869;
-79.5000;0.5161;1.4869;
-79.2000;0.5169;1.4798;
-78.9000;0.5226;1.4964;
-78.6000;0.5161;1.4798;
-78.3000;0.5136;1.4702;
-78.0000;0.5161;1.4726;
-77.7000;0.5161;1.4655;
-77.4000;0.5153;1.4655;
-77.1000;0.5136;1.4584;
-76.8000;0.5161;1.4607;
-76.5000;0.5161;1.4607;
-76.2000;0.5144;1.4584;
-75.9000;0.5153;1.4607;
-75.6000;0.5153;1.4631;
-75.3000;0.5161;1.4702;
-75.0000;0.5161;1.4702;
-74.7000;0.5161;1.4536;
-74.4000;0.5153;1.4536;
-74.1000;0.5169;1.4560;
-73.8000;0.5169;1.4631;
-73.5000;0.5177;1.4584;
-73.2000;0.5161;1.4607;
-72.9000;0.5128;1.4655;
-72.6000;0.5136;1.4679;
-72.3000;0.5153;1.4655;
-72.0000;0.5144;1.4607;
-71.7000;0.5088;1.4465;
-71.4000;0.5177;1.4631;
-71.1000;0.5161;1.4584;
-70.8000;0.5161;1.4607;
-70.5000;0.5185;1.4679;
-70.2000;0.5161;1.4631;
-69.9000;0.5169;1.4726;
-69.6000;0.5169;1.4631;
-69.3000;0.5161;1.4607;
-69.0000;0.5161;1.4560;
-68.7000;0.5161;1.4512;
-68.4000;0.5136;1.4536;
-68.1000;0.5153;1.4607;
-67.8000;0.5153;1.4607;
-67.5000;0.5201;1.4655;
-67.2000;0.5153;1.4631;
-66.9000;0.5144;1.4607;
-66.6000;0.5153;1.4702;
-66.3000;0.5144;1.4631;
-66.0000;0.5218;1.4893;
-65.7000;0.5161;1.4726;
-65.4000;0.5161;1.4750;
-65.1000;0.5177;1.4702;
-64.8000;0.5169;1.4679;
-64.5000;0.5161;1.4631;
-64.2000;0.5144;1.4607;
-63.9000;0.5193;1.4750;
-63.6000;0.5169;1.4584;
-63.3000;0.5153;1.4512;
-63.0000;0.5153;1.4536;
-62.7000;0.5161;1.4679;
-62.4000;0.5144;1.4726;
-62.1000;0.5144;1.4726;
-61.8000;0.5120;1.4631;
-61.5000;0.5153;1.4726;
-61.2000;0.5185;1.4774;
-60.9000;0.5153;1.4726;
-60.6000;0.5161;1.4655;
-60.3000;0.5218;1.4726;
-60.0000;0.5153;1.4607;
-59.7000;0.5153;1.4584;
-59.4000;0.5153;1.4631;
-59.1000;0.5161;1.4607;
-58.8000;0.5161;1.4584;
-58.5000;0.5153;1.4536;
-58.2000;0.5193;1.4702;
-57.9000;0.5153;1.4655;
-57.6000;0.5153;1.4560;
-57.3000;0.5218;1.4560;
-57.0000;0.5210;1.4489;
-56.7000;0.5153;1.4346;
-56.4000;0.5161;1.4417;
-56.1000;0.5185;1.4607;
-55.8000;0.5161;1.4489;
-55.5000;0.5169;1.4512;
-55.2000;0.5153;1.4584;
-54.9000;0.5177;1.4631;
-54.6000;0.5169;1.4631;
-54.3000;0.5185;1.4631;
-54.0000;0.5104;1.4512;
-53.7000;0.5161;1.4726;
-53.4000;0.5161;1.4750;
-53.1000;0.5177;1.4750;
-52.8000;0.5079;1.4536;
-52.5000;0.5169;1.4798;
-52.2000;0.5161;1.4726;
-51.9000;0.5128;1.4702;
-51.6000;0.5153;1.4726;
-51.3000;0.5144;1.4679;
-51.0000;0.5161;1.4679;
-50.7000;0.5161;1.4536;
-50.4000;0.5153;1.4536;
-50.1000;0.5153;1.4489;
-49.8000;0.5177;1.4465;
-49.5000;0.5161;1.4560;
-49.2000;0.5161;1.4536;
-48.9000;0.5161;1.4536;
-48.6000;0.5039;1.4180;
-48.3000;0.5161;1.4607;
-48.0000;0.5153;1.4607;
-47.7000;0.5047;1.4370;
-47.4000;0.5185;1.4774;
-47.1000;0.5242;1.4988;
-46.8000;0.5218;1.4845;
-46.5000;0.5161;1.4702;
-46.2000;0.5161;1.4702;
-45.9000;0.5088;1.4560;
-45.6000;0.5161;1.4631;
-45.3000;0.5153;1.4631;
-45.0000;0.5177;1.4726;
-44.7000;0.5177;1.4631;
-44.4000;0.5144;1.4584;
-44.1000;0.5153;1.4607;
-43.8000;0.5153;1.4631;
-43.5000;0.5193;1.4679;
-43.2000;0.5153;1.4679;
-42.9000;0.5153;1.4702;
-42.6000;0.5153;1.4726;
-42.3000;0.5136;1.4750;
-42.0000;0.5144;1.4726;
-41.7000;0.5144;1.4679;
-41.4000;0.5153;1.4655;
-41.1000;0.5128;1.4607;
-40.8000;0.5144;1.4798;
-40.5000;0.5193;1.4893;
-40.2000;0.5153;1.4821;
-39.9000;0.5153;1.4893;
-39.6000;0.5161;1.4893;
-39.3000;0.5177;1.4940;
-39.0000;0.5144;1.4821;
-38.7000;0.5104;1.4631;
-38.4000;0.5185;1.4869;
-38.1000;0.5153;1.4750;
-37.8000;0.5144;1.4702;
-37.5000;0.5153;1.4655;
-37.2000;0.5153;1.4655;
-36.9000;0.5169;1.4726;
-36.6000;0.5144;1.4750;
-36.3000;0.5136;1.4726;
-36.0000;0.5161;1.4679;
-35.7000;0.5177;1.4607;
-35.4000;0.5218;1.4726;
-35.1000;0.5161;1.4536;
-34.8000;0.5169;1.4536;
-34.5000;0.5161;1.4560;
-34.2000;0.5161;1.4560;
-33.9000;0.5136;1.4489;
-33.6000;0.5169;1.4536;
-33.3000;0.5144;1.4417;
-33.0000;0.5161;1.4394;
-32.7000;0.5144;1.4394;
-32.4000;0.5177;1.4489;
-32.1000;0.5169;1.4441;
-31.8000;0.5153;1.4417;
-31.5000;0.5161;1.4394;
-31.2000;0.5153;1.4417;
-30.9000;0.5153;1.4465;
-30.6000;0.5153;1.4465;
-30.3000;0.5153;1.4417;
-30.0000;0.5153;1.4441;
-29.7000;0.5177;1.4465;
-29.4000;0.5177;1.4536;
-29.1000;0.5144;1.4536;
-28.8000;0.5161;1.4560;
-28.5000;0.5144;1.4489;
-28.2000;0.5161;1.4607;
-27.9000;0.5161;1.4631;
-27.6000;0.5153;1.4655;
-27.3000;0.5128;1.4631;
-27.0000;0.5153;1.4702;
-26.7000;0.5161;1.4655;
-26.4000;0.5153;1.4584;
-26.1000;0.5144;1.4536;
-25.8000;0.5169;1.4607;
-25.5000;0.5153;1.4584;
-25.2000;0.5144;1.4655;
-24.9000;0.5169;1.4726;
-24.6000;0.5120;1.4631;
-24.3000;0.5161;1.4655;
-24.0000;0.5136;1.4584;
-23.7000;0.5201;1.4655;
-23.4000;0.5128;1.4489;
-23.1000;0.5161;1.4560;
-22.8000;0.5153;1.4512;
-22.5000;0.5153;1.4370;
-22.2000;0.5128;1.4417;
-21.9000;0.5153;1.4489;
-21.6000;0.5153;1.4489;
-21.3000;0.5153;1.4584;
-21.0000;0.5169;1.4679;
-20.7000;0.5210;1.4750;
-20.4000;0.5169;1.4655;
-20.1000;0.5153;1.4655;
-19.8000;0.5169;1.4655;
-19.5000;0.5185;1.4655;
-19.2000;0.5153;1.4584;
-18.9000;0.5161;1.4536;
-18.6000;0.5161;1.4512;
-18.3000;0.5169;1.4560;
-18.0000;0.5275;1.4750;
-17.7000;0.5153;1.4322;
-17.4000;0.5153;1.4417;
-17.1000;0.5242;1.4655;
-16.8000;0.5169;1.4560;
-16.5000;0.5177;1.4631;
-16.2000;0.5153;1.4536;
-15.9000;0.5104;1.4370;
-15.6000;0.5136;1.4441;
-15.3000;0.5120;1.4370;
-15.0000;0.5169;1.4441;
-14.7000;0.5218;1.4584;
-14.4000;0.5063;1.4180;
-14.1000;0.5112;1.4275;
-13.8000;0.5161;1.4512;
-13.5000;0.5136;1.4512;
-13.2000;0.5177;1.4607;
-12.9000;0.5153;1.4560;
-12.6000;0.5153;1.4560;
-12.3000;0.5161;1.4536;
-12.0000;0.5161;1.4584;
-11.7000;0.5185;1.4702;
-11.4000;0.5177;1.4679;
-11.1000;0.5153;1.4702;
-10.8000;0.5169;1.4726;
-10.5000;0.5161;1.4726;
-10.2000;0.5161;1.4679;
-9.9000;0.5120;1.4584;
-9.6000;0.5144;1.4655;
-9.3000;0.5161;1.4702;
-9.0000;0.5144;1.4560;
-8.7000;0.5128;1.4584;
-8.4000;0.5161;1.4536;
-8.1000;0.5161;1.4512;
-7.8000;0.5153;1.4489;
-7.5000;0.5128;1.4560;
-7.2000;0.5153;1.4560;
-6.9000;0.5161;1.4607;
-6.6000;0.5169;1.4631;
-6.3000;0.5161;1.4584;
-6.0000;0.5153;1.4631;
-5.7000;0.5161;1.4607;
-5.4000;0.5169;1.4607;
-5.1000;0.5161;1.4536;
-4.8000;0.5258;1.4774;
-4.5000;0.5153;1.4560;
-4.2000;0.5161;1.4584;
-3.9000;0.5153;1.4536;
-3.6000;0.5169;1.4607;
-3.3000;0.5161;1.4655;
-3.0000;0.5161;1.4726;
-2.7000;0.5169;1.4774;
-2.4000;0.5128;1.4726;
-2.1000;0.5161;1.4821;
-1.8000;0.5153;1.4821;
-1.5000;0.5161;1.4893;
-1.2000;0.5161;1.4869;
-0.9000;0.5161;1.4845;
-0.6000;0.5153;1.4726;
-0.3000;0.5153;1.4679;
0.0000;0.5153;1.4679;
0.3000;0.5128;1.4536;
0.6000;0.5128;1.4798;
0.9000;0.5088;1.4893;
1.2000;0.5112;1.5130;
1.5000;0.5031;1.5059;
1.8000;0.5047;1.5273;
2.1000;0.4982;1.5344;
2.4000;0.4982;1.5463;
2.7000;0.4998;1.5486;
3.0000;0.5006;1.5581;
3.3000;0.4974;1.5558;
3.6000;0.4998;1.5748;
3.9000;0.4965;1.5748;
4.2000;0.4925;1.5724;
4.5000;0.4974;1.6009;
4.8000;0.4949;1.5938;
5.1000;0.4957;1.6056;
5.4000;0.4974;1.6104;
5.7000;0.4965;1.6056;
6.0000;0.4941;1.5843;
6.3000;0.4933;1.5771;
6.6000;0.4925;1.5819;
6.9000;0.4957;1.5938;
7.2000;0.4957;1.5938;
7.5000;0.4990;1.6033;
7.8000;0.4974;1.6080;
8.1000;0.4917;1.5866;
8.4000;0.4974;1.6033;
8.7000;0.4868;1.5748;
9.0000;0.4957;1.6056;
9.3000;0.4957;1.6080;
9.6000;0.4957;1.6080;
9.9000;0.4957;1.6056;
10.2000;0.4957;1.6009;
10.5000;0.4941;1.5985;
10.8000;0.4908;1.5938;
11.1000;0.4941;1.6056;
11.4000;0.4949;1.6104;
11.7000;0.4925;1.6128;
12.0000;0.4917;1.6223;
12.3000;0.4949;1.6246;
12.6000;0.4941;1.6294;
12.9000;0.4925;1.6270;
13.2000;0.4933;1.6270;
13.5000;0.4941;1.6270;
13.8000;0.4949;1.6270;
14.1000;0.4925;1.6175;
14.4000;0.4941;1.6151;
14.7000;0.4933;1.6151;
15.0000;0.4941;1.6246;
15.3000;0.4949;1.6246;
15.6000;0.4933;1.6318;
15.9000;0.4933;1.6223;
16.2000;0.4917;1.6199;
16.5000;0.4908;1.6151;
16.8000;0.4925;1.6175;
17.1000;0.4949;1.6223;
17.4000;0.4917;1.6056;
17.7000;0.4917;1.6033;
18.0000;0.4917;1.6080;
18.3000;0.4884;1.6009;
18.6000;0.4917;1.6128;
18.9000;0.4933;1.6151;
19.2000;0.4892;1.6033;
19.5000;0.4908;1.6080;
19.8000;0.4925;1.6080;
20.1000;0.4941;1.6009;
20.4000;0.4917;1.6009;
20.7000;0.4917;1.6009;
21.0000;0.4933;1.6033;
21.3000;0.4908;1.6009;
21.6000;0.4908;1.6033;
21.9000;0.4908;1.6033;
22.2000;0.4884;1.5890;
22.5000;0.4925;1.6104;
22.8000;0.4925;1.6104;
23.1000;0.4925;1.6080;
23.4000;0.4917;1.6080;
23.7000;0.4925;1.6128;
24.0000;0.4933;1.6175;
24.3000;0.4925;1.6128;
24.6000;0.4917;1.6246;
24.9000;0.4933;1.6341;
25.2000;0.4917;1.6365;
25.5000;0.4908;1.6341;
25.8000;0.4917;1.6365;
26.1000;0.4908;1.6318;
26.4000;0.4908;1.6294;
26.7000;0.4876;1.6246;
27.0000;0.4908;1.6294;
27.3000;0.4917;1.6294;
27.6000;0.4900;1.6294;
27.9000;0.4917;1.6341;
28.2000;0.4876;1.6246;
28.5000;0.4908;1.6270;
28.8000;0.4884;1.6199;
29.1000;0.4900;1.6270;
29.4000;0.4884;1.6199;
29.7000;0.5006;1.6484;
30.0000;0.4908;1.6270;
30.3000;0.4908;1.6223;
30.6000;0.4892;1.6223;
30.9000;0.4884;1.6246;
31.2000;0.5006;1.6626;
31.5000;0.4884;1.6389;
31.8000;0.4843;1.6270;
32.1000;0.4876;1.6365;
32.4000;0.4884;1.6389;
32.7000;0.4876;1.6389;
33.0000;0.4892;1.6413;
33.3000;0.4892;1.6341;
33.6000;0.4851;1.6199;
33.9000;0.4900;1.6365;
34.2000;0.4860;1.6270;
34.5000;0.4892;1.6294;
34.8000;0.4900;1.6294;
35.1000;0.4908;1.6246;
35.4000;0.4892;1.6128;
35.7000;0.4843;1.6080;
36.0000;0.4884;1.6128;
36.3000;0.4843;1.6033;
36.6000;0.4851;1.6033;
36.9000;0.4892;1.6128;
37.2000;0.4884;1.6128;
37.5000;0.4884;1.6128;
37.8000;0.4892;1.6080;
38.1000;0.4998;1.6246;
38.4000;0.4892;1.6033;
38.7000;0.4892;1.6175;
39.0000;0.4892;1.6246;
39.3000;0.4843;1.6151;
39.6000;0.4884;1.6270;
39.9000;0.4892;1.6341;
40.2000;0.4892;1.6318;
40.5000;0.4884;1.6246;
40.8000;0.4868;1.6270;
41.1000;0.4851;1.6151;
41.4000;0.4876;1.6223;
41.7000;0.4843;1.6128;
42.0000;0.4851;1.6175;
42.3000;0.4892;1.6223;
42.6000;0.4876;1.6270;
42.9000;0.4884;1.6175;
43.2000;0.4876;1.6223;
43.5000;0.4876;1.6270;
43.8000;0.4892;1.6341;
44.1000;0.4900;1.6460;
44.4000;0.4982;1.6508;
44.7000;0.4876;1.6223;
45.0000;0.4876;1.6199;
45.3000;0.4917;1.6365;
45.6000;0.4884;1.6223;
45.9000;0.4892;1.6223;
46.2000;0.4884;1.6270;
46.5000;0.4884;1.6318;
46.8000;0.4892;1.6365;
47.1000;0.4868;1.6341;
47.4000;0.4900;1.6365;
47.7000;0.4884;1.6413;
48.0000;0.4892;1.6436;
48.3000;0.4892;1.6365;
48.6000;0.4884;1.6365;
48.9000;0.4900;1.6413;
49.2000;0.4884;1.6413;
49.5000;0.4876;1.6365;
49.8000;0.4884;1.6413;
50.1000;0.4876;1.6484;
50.4000;0.4884;1.6484;
50.7000;0.4876;1.6389;
51.0000;0.4990;1.6721;
51.3000;0.4892;1.6318;
51.6000;0.4892;1.6294;
51.9000;0.4884;1.6341;
52.2000;0.4860;1.6318;
52.5000;0.4884;1.6413;
52.8000;0.4860;1.6365;
53.1000;0.4860;1.6294;
53.4000;0.4892;1.6389;
53.7000;0.4908;1.6460;
54.0000;0.4884;1.6389;
54.3000;0.4900;1.6413;
54.6000;0.4900;1.6436;
54.9000;0.4819;1.6199;
55.2000;0.4884;1.6341;
55.5000;0.4876;1.6365;
55.8000;0.4876;1.6341;
56.1000;0.4851;1.6294;
56.4000;0.4860;1.6246;
56.7000;0.4843;1.6270;
57.0000;0.4876;1.6389;
57.3000;0.4868;1.6294;
57.6000;0.4892;1.6365;
57.9000;0.4884;1.6294;
58.2000;0.4908;1.6365;
58.5000;0.4876;1.6270;
58.8000;0.4803;1.6033;
59.1000;0.4884;1.6199;
59.4000;0.4876;1.6104;
59.7000;0.4835;1.6009;
60.0000;0.4868;1.6104;
60.3000;0.4860;1.6104;
60.6000;0.4868;1.6151;
60.9000;0.4868;1.6175;
61.2000;0.4892;1.6270;
61.5000;0.4868;1.6246;
61.8000;0.4843;1.6223;
62.1000;0.4860;1.6318;
62.4000;0.4851;1.6294;
62.7000;0.4957;1.6484;
63.0000;0.4860;1.6199;
63.3000;0.4860;1.6246;
63.6000;0.4868;1.6270;
63.9000;0.4876;1.6318;
64.2000;0.4868;1.6270;
64.5000;0.4876;1.6294;
64.8000;0.4851;1.6175;
65.1000;0.4860;1.6223;
65.4000;0.4860;1.6294;
65.7000;0.4860;1.6246;
66.0000;0.4851;1.6199;
66.3000;0.4868;1.6175;
66.6000;0.4868;1.6175;
66.9000;0.4868;1.6151;
67.2000;0.4827;1.6080;
67.5000;0.4860;1.6151;
67.8000;0.4851;1.6199;
68.1000;0.4851;1.6270;
68.4000;0.4803;1.6104;
68.7000;0.4860;1.6223;
69.0000;0.4868;1.6246;
69.3000;0.4851;1.6294;
69.6000;0.4860;1.6436;
69.9000;0.4843;1.6413;
70.2000;0.4851;1.6389;
70.5000;0.4876;1.6436;
70.8000;0.4843;1.6341;
71.1000;0.4868;1.6318;
71.4000;0.4860;1.6246;
71.7000;0.4860;1.6270;
72.0000;0.4868;1.6270;
72.3000;0.4860;1.6294;
72.6000;0.4835;1.6246;
72.9000;0.4868;1.6294;
73.2000;0.4860;1.6294;
73.5000;0.4868;1.6246;
73.8000;0.4868;1.6246;
74.1000;0.4868;1.6318;
74.4000;0.4851;1.6223;
74.7000;0.4892;1.6318;
75.0000;0.4851;1.6270;
75.3000;0.4925;1.6341;
75.6000;0.4851;1.6151;
75.9000;0.4900;1.6246;
76.2000;0.4876;1.6080;
76.5000;0.4754;1.5748;
76.8000;0.4860;1.6056;
77.1000;0.4868;1.6128;
77.4000;0.4917;1.6294;
77.7000;0.4982;1.6460;
78.0000;0.4876;1.6294;
78.3000;0.4860;1.6270;
78.6000;0.4835;1.6199;
78.9000;0.4827;1.6199;
79.2000;0.4868;1.6341;
79.5000;0.4860;1.6294;
79.8000;0.4917;1.6460;
80.1000;0.4860;1.6318;
80.4000;0.4860;1.6365;
80.7000;0.4860;1.6318;
81.0000;0.4868;1.6270;
81.3000;0.4860;1.6223;
81.6000;0.4876;1.6175;
81.9000;0.4868;1.6128;
82.2000;0.4876;1.6175;
82.5000;0.4860;1.6199;
82.8000;0.4876;1.6270;
83.1000;0.4827;1.6151;
83.4000;0.4860;1.6246;
83.7000;0.4860;1.6318;
84.0000;0.4843;1.6270;
84.3000;0.4876;1.6365;
84.6000;0.4860;1.6270;
84.9000;0.4851;1.6246;
85.2000;0.4851;1.6318;
85.5000;0.4860;1.6270;
85.8000;0.4884;1.6460;
86.1000;0.4851;1.6365;
86.4000;0.4843;1.6341;
86.7000;0.4851;1.6294;
87.0000;0.4876;1.6294;
87.3000;0.4860;1.6270;
87.6000;0.4868;1.6365;
87.9000;0.4860;1.6270;
88.2000;0.4843;1.6199;
88.5000;0.4835;1.6223;
88.8000;0.4851;1.6294;
89.1000;0.4851;1.6294;
89.4000;0.4860;1.6294;
89.7000;0.4860;1.6318;
90.0000;0.4860;1.6389;
90.3000;0.4868;1.6294;
90.6000;0.4851;1.6246;
90.9000;0.4876;1.6223;
91.2000;0.4868;1.6080;
91.5000;0.4868;1.6175;
91.8000;0.4860;1.6223;
92.1000;0.4860;1.6270;
92.4000;0.4860;1.6270;
92.7000;0.4851;1.6246;
93.0000;0.4851;1.6294;
93.3000;0.4835;1.6175;
93.6000;0.4860;1.6341;
93.9000;0.4860;1.6318;
94.2000;0.4860;1.6294;
94.5000;0.4860;1.6246;
94.8000;0.4851;1.6246;
95.1000;0.4851;1.6199;
95.4000;0.4843;1.6270;
95.7000;0.4851;1.6246;
96.0000;0.4843;1.6175;
96.3000;0.4811;1.6056;
96.6000;0.4851;1.6104;
96.9000;0.4843;1.6151;
97.2000;0.4843;1.6175;
97.5000;0.4851;1.6199;
97.8000;0.4868;1.6270;
98.1000;0.4868;1.6294;
98.4000;0.4892;1.6389;
98.7000;0.4868;1.6365;
99.0000;0.4860;1.6341;
99.3000;0.4835;1.6318;
99.6000;0.4868;1.6365;
99.9000;0.4860;1.6460;
100.2000;0.4851;1.6579;
100.5000;0.4860;1.6579;
100.8000;0.4851;1.6484;
101.1000;0.4868;1.6484;
101.4000;0.4843;1.6389;
101.7000;0.4843;1.6389;
102.0000;0.4851;1.6460;
102.3000;0.4851;1.6460;
102.6000;0.4851;1.6413;
102.9000;0.4851;1.6341;
103.2000;0.4868;1.6341;
103.5000;0.4843;1.6341;
103.8000;0.4851;1.6365;
104.1000;0.4851;1.6389;
104.4000;0.4851;1.6365;
104.7000;0.4908;1.6484;
105.0000;0.4851;1.6318;
105.3000;0.4851;1.6199;
105.6000;0.4843;1.6199;
105.9000;0.4884;1.6318;
106.2000;0.4794;1.6151;
106.5000;0.4827;1.6246;
106.8000;0.4851;1.6246;
107.1000;0.4843;1.6246;
107.4000;0.4868;1.6294;
107.7000;0.4851;1.6223;
108.0000;0.4851;1.6318;
108.3000;0.4843;1.6365;
108.6000;0.4843;1.6365;
108.9000;0.4851;1.6508;
109.2000;0.4851;1.6508;
109.5000;0.4860;1.6484;
109.8000;0.4860;1.6484;
110.1000;0.4851;1.6436;
110.4000;0.4851;1.6436;
110.7000;0.4851;1.6460;
111.0000;0.4860;1.6460;
111.3000;0.4860;1.6436;
111.6000;0.4843;1.6436;
111.9000;0.4851;1.6413;
112.2000;0.4884;1.6508;
112.5000;0.4835;1.6365;
112.8000;0.4851;1.6460;
113.1000;0.4868;1.6555;
113.4000;0.4843;1.6555;
113.7000;0.4868;1.6531;
114.0000;0.4851;1.6484;
114.3000;0.4819;1.6389;
114.6000;0.4868;1.6484;
114.9000;0.4876;1.6531;
115.2000;0.4803;1.6341;
115.5000;0.4925;1.6626;
115.8000;0.4851;1.6413;
116.1000;0.4851;1.6413;
116.4000;0.4868;1.6436;
116.7000;0.4843;1.6365;
117.0000;0.4843;1.6460;
117.3000;0.4819;1.6508;
117.6000;0.4835;1.6579;
117.9000;0.4843;1.6626;
118.2000;0.4876;1.6650;
118.5000;0.4851;1.6626;
118.8000;0.4868;1.6531;
119.1000;0.4843;1.6508;
119.4000;0.4843;1.6508;
119.7000;0.4851;1.6555;
120.0000;0.4851;1.6460;
120.3000;0.4851;1.6484;
120.6000;0.4827;1.6318;
120.9000;0.4843;1.6318;
121.2000;0.4843;1.6294;
121.5000;0.4835;1.6318;
121.8000;0.4819;1.6246;
122.1000;0.4851;1.6246;
122.4000;0.4868;1.6246;
122.7000;0.4868;1.6270;
123.0000;0.4843;1.6246;
123.3000;0.4851;1.6270;
123.6000;0.4860;1.6294;
123.9000;0.4868;1.6294;
124.2000;0.4851;1.6318;
124.5000;0.4843;1.6413;
124.8000;0.4860;1.6413;
125.1000;0.4860;1.6508;
125.4000;0.4851;1.6531;
125.7000;0.4851;1.6579;
126.0000;0.4843;1.6531;
126.3000;0.4860;1.6531;
126.6000;0.4851;1.6579;
126.9000;0.4851;1.6555;
127.2000;0.4868;1.6579;
127.5000;0.4843;1.6531;
127.8000;0.4860;1.6626;
128.1000;0.4851;1.6579;
128.4000;0.4851;1.6555;
128.7000;0.4851;1.6603;
129.0000;0.4860;1.6579;
129.3000;0.4860;1.6484;
129.6000;0.4843;1.6460;
129.9000;0.4843;1.6508;
130.2000;0.4835;1.6484;
130.5000;0.4835;1.6436;
130.8000;0.4827;1.6318;
131.1000;0.4908;1.6555;
131.4000;0.4843;1.6341;
131.7000;0.4860;1.6365;
132.0000;0.4835;1.6365;
132.3000;0.4851;1.6460;
132.6000;0.4843;1.6365;
132.9000;0.4851;1.6413;
133.2000;0.4835;1.6365;
133.5000;0.4860;1.6413;
133.8000;0.4851;1.6460;
134.1000;0.4835;1.6389;
134.4000;0.4835;1.6341;
134.7000;0.4860;1.6413;
135.0000;0.4843;1.6341;
135.3000;0.4884;1.6531;
135.6000;0.4900;1.6555;
135.9000;0.4835;1.6555;
136.2000;0.4868;1.6626;
136.5000;0.4827;1.6436;
136.8000;0.4851;1.6436;
137.1000;0.4860;1.6436;
137.4000;0.4827;1.6389;
137.7000;0.4876;1.6603;
138.0000;0.4851;1.6626;
138.3000;0.4819;1.6484;
138.6000;0.4851;1.6484;
138.9000;0.4868;1.6413;
139.2000;0.4835;1.6270;
139.5000;0.4851;1.6389;
139.8000;0.4892;1.6531;
140.1000;0.4860;1.6484;
140.4000;0.4876;1.6555;
140.7000;0.4843;1.6436;
141.0000;0.4843;1.6531;
141.3000;0.4860;1.6555;
141.6000;0.4884;1.6603;
141.9000;0.4851;1.6508;
142.2000;0.4860;1.6508;
142.5000;0.4876;1.6460;
142.8000;0.4868;1.6436;
143.1000;0.4851;1.6460;
143.4000;0.4843;1.6484;
143.7000;0.4851;1.6508;
144.0000;0.4851;1.6460;
144.3000;0.4851;1.6413;
144.6000;0.4835;1.6223;
144.9000;0.4876;1.6294;
145.2000;0.4860;1.6294;
145.5000;0.4868;1.6223;
145.8000;0.4843;1.6104;
146.1000;0.4860;1.6151;
146.4000;0.4851;1.6246;
146.7000;0.4851;1.6389;
147.0000;0.4843;1.6341;
147.3000;0.4835;1.6365;
147.6000;0.4851;1.6436;
147.9000;0.4851;1.6460;
148.2000;0.4827;1.6389;
148.5000;0.4843;1.6531;
148.8000;0.4860;1.6508;
149.1000;0.4868;1.6460;
149.4000;0.4860;1.6413;
149.7000;0.4860;1.6389;
150.0000;0.4762;1.6175;
150.3000;0.4876;1.6484;
150.6000;0.4851;1.6365;
150.9000;0.4843;1.6460;
151.2000;0.4876;1.6650;
151.5000;0.4851;1.6508;
151.8000;0.4851;1.6484;
152.1000;0.4843;1.6484;
152.4000;0.4868;1.6579;
152.7000;0.4908;1.6721;
153.0000;0.4851;1.6626;
153.3000;0.4868;1.6626;
153.6000;0.4908;1.6721;
153.9000;0.4851;1.6555;
154.2000;0.4811;1.6389;
154.5000;0.4851;1.6484;
154.8000;0.4851;1.6531;
155.1000;0.4957;1.6840;
155.4000;0.4860;1.6555;
155.7000;0.4860;1.6603;
156.0000;0.4843;1.6579;
156.3000;0.4843;1.6531;
156.6000;0.4884;1.6508;
156.9000;0.4860;1.6436;
157.2000;0.4860;1.6365;
157.5000;0.4835;1.6294;
157.8000;0.4900;1.6460;
158.1000;0.4851;1.6341;
158.4000;0.4851;1.6389;
158.7000;0.4851;1.6484;
159.0000;0.4868;1.6460;
159.3000;0.4851;1.6413;
159.6000;0.4843;1.6460;
159.9000;0.4843;1.6460;
160.2000;0.4860;1.6484;
160.5000;0.4860;1.6484;
160.8000;0.4860;1.6531;
161.1000;0.4843;1.6460;
161.4000;0.4851;1.6531;
161.7000;0.4794;1.6365;
162.0000;0.4868;1.6531;
162.3000;0.4827;1.6531;
162.6000;0.4762;1.6341;
162.9000;0.4868;1.6579;
163.2000;0.4860;1.6603;
163.5000;0.4827;1.6603;
163.8000;0.4851;1.6555;
164.1000;0.4868;1.6555;
164.4000;0.4851;1.6413;
164.7000;0.4868;1.6365;
165.0000;0.4843;1.6341;
165.3000;0.4884;1.6508;
165.6000;0.4868;1.6508;
165.9000;0.4843;1.6484;
166.2000;0.4851;1.6436;
166.5000;0.4860;1.6460;
166.8000;0.4860;1.6508;
167.1000;0.4868;1.6484;
167.4000;0.4843;1.6436;
167.7000;0.4835;1.6508;
168.0000;0.4884;1.6626;
168.3000;0.4860;1.6603;
168.6000;0.4835;1.6603;
168.9000;0.4835;1.6508;
169.2000;0.4851;1.6555;
169.5000;0.4860;1.6603;
169.8000;0.4835;1.6579;
170.1000;0.4843;1.6508;
170.4000;0.4843;1.6484;
170.7000;0.4835;1.6413;
171.0000;0.4851;1.6484;
171.3000;0.4835;1.6460;
171.6000;0.4860;1.6531;
171.9000;0.4851;1.6484;
172.2000;0.4860;1.6508;
172.5000;0.4835;1.6508;
172.8000;0.4851;1.6579;
173.1000;0.4851;1.6603;
173.4000;0.4868;1.6531;
173.7000;0.4868;1.6555;
174.0000;0.4843;1.6603;
174.3000;0.4860;1.6626;
174.6000;0.4860;1.6674;
174.9000;0.4843;1.6555;
175.2000;0.4851;1.6555;
175.5000;0.4851;1.6626;
175.8000;0.4860;1.6650;
176.1000;0.4851;1.6531;
176.4000;0.4770;1.6318;
176.7000;0.4843;1.6484;
177.0000;0.4884;1.6531;
177.3000;0.4851;1.6508;
177.6000;0.4827;1.6436;
177.9000;0.4860;1.6484;
178.2000;0.4851;1.6508;
178.5000;0.4868;1.6603;
178.8000;0.4860;1.6603;
179.1000;0.4851;1.6531;
179.4000;0.4843;1.6579;
179.7000;0.4851;1.6531;
180.0000;0.4851;1.6508;
180.3000;0.4843;1.6484;
180.6000;0.4835;1.6484;
180.9000;0.4843;1.6484;
181.2000;0.4851;1.6460;
181.5000;0.4868;1.6436;
181.8000;0.4819;1.6365;
182.1000;0.4851;1.6436;
182.4000;0.4827;1.6365;
182.7000;0.4835;1.6436;
183.0000;0.4868;1.6579;
183.3000;0.4868;1.6603;
183.6000;0.4843;1.6484;
183.9000;0.4860;1.6555;
184.2000;0.4860;1.6603;
184.5000;0.4860;1.6579;
184.8000;0.4851;1.6508;
185.1000;0.4827;1.6508;
185.4000;0.4843;1.6603;
185.7000;0.4851;1.6626;
186.0000;0.4860;1.6650;
186.3000;0.4851;1.6603;
186.6000;0.4860;1.6579;
186.9000;0.4860;1.6603;
187.2000;0.4860;1.6650;
187.5000;0.4900;1.6793;
187.8000;0.4860;1.6769;
188.1000;0.4941;1.6983;
188.4000;0.4843;1.6793;
188.7000;0.4851;1.6793;
189.0000;0.4860;1.6816;
189.3000;0.4827;1.6674;
189.6000;0.4819;1.6603;
189.9000;0.4851;1.6721;
190.2000;0.4851;1.6721;
190.5000;0.4811;1.6508;
190.8000;0.4843;1.6603;
191.1000;0.4843;1.6674;
191.4000;0.4860;1.6698;
191.7000;0.4868;1.6745;
192.0000;0.4843;1.6745;
192.3000;0.4868;1.6721;
192.6000;0.4851;1.6674;
192.9000;0.4860;1.6698;
193.2000;0.4868;1.6674;
193.5000;0.4827;1.6555;
193.8000;0.4851;1.6603;
194.1000;0.4860;1.6674;
194.4000;0.4860;1.6650;
194.7000;0.4851;1.6721;
195.0000;0.4786;1.6650;
195.3000;0.4851;1.6864;
195.6000;0.4851;1.6816;
195.9000;0.4843;1.6840;
196.2000;0.4876;1.6888;
196.5000;0.4819;1.6864;
196.8000;0.4778;1.6721;
197.1000;0.4868;1.6888;
197.4000;0.4860;1.6864;
197.7000;0.4835;1.6840;
198.0000;0.4851;1.6816;
198.3000;0.4860;1.6840;
198.6000;0.4860;1.6793;
198.9000;0.4851;1.6793;
199.2000;0.4827;1.6745;
199.5000;0.4868;1.6745;
199.8000;0.4876;1.6745;
200.1000;0.4843;1.6721;
200.4000;0.4860;1.6698;
200.7000;0.4868;1.6769;
201.0000;0.4860;1.6793;
201.3000;0.4860;1.6840;
201.6000;0.4851;1.6769;
201.9000;0.4868;1.6793;
202.2000;0.4860;1.6769;
202.5000;0.4851;1.6769;
202.8000;0.4851;1.6745;
203.1000;0.4851;1.6674;
203.4000;0.4860;1.6674;
203.7000;0.4851;1.6626;
204.0000;0.4843;1.6721;
204.3000;0.4835;1.6698;
204.6000;0.4851;1.6721;
204.9000;0.4843;1.6674;
205.2000;0.4835;1.6603;
205.5000;0.4843;1.6698;
205.8000;0.4843;1.6698;
206.1000;0.4868;1.6674;
206.4000;0.4803;1.6460;
206.7000;0.4851;1.6674;
207.0000;0.4868;1.6674;
207.3000;0.4860;1.6745;
207.6000;0.4851;1.6793;
207.9000;0.4851;1.6793;
208.2000;0.4762;1.6531;
208.5000;0.4851;1.6626;
208.8000;0.4876;1.6555;
209.1000;0.4851;1.6460;
209.4000;0.4843;1.6484;
209.7000;0.4851;1.6508;
210.0000;0.4843;1.6555;
210.3000;0.4835;1.6603;
210.6000;0.4843;1.6579;
210.9000;0.4868;1.6603;
211.2000;0.4868;1.6603;
211.5000;0.4851;1.6650;
211.8000;0.4851;1.6721;
212.1000;0.4860;1.6745;
212.4000;0.4851;1.6721;
212.7000;0.4843;1.6698;
213.0000;0.4860;1.6769;
213.3000;0.4860;1.6816;
213.6000;0.4876;1.6840;
213.9000;0.4770;1.6650;
214.2000;0.4851;1.6721;
214.5000;0.4860;1.6674;
214.8000;0.4860;1.6674;
215.1000;0.4860;1.6769;
215.4000;0.4851;1.6674;
215.7000;0.4803;1.6603;
216.0000;0.4835;1.6721;
216.3000;0.4851;1.6793;
216.6000;0.4843;1.6816;
216.9000;0.4835;1.6816;
217.2000;0.4843;1.6816;
217.5000;0.4843;1.6888;
217.8000;0.4851;1.6911;
218.1000;0.4835;1.6864;
218.4000;0.4860;1.6935;
218.7000;0.4851;1.6864;
219.0000;0.4860;1.6816;
219.3000;0.4835;1.6650;
219.6000;0.4868;1.6603;
219.9000;0.4851;1.6579;
220.2000;0.4884;1.6674;
220.5000;0.4843;1.6579;
220.8000;0.4868;1.6698;
221.1000;0.4868;1.6650;
221.4000;0.4876;1.6745;
221.7000;0.4835;1.6698;
222.0000;0.4868;1.6745;
222.3000;0.4892;1.6816;
222.6000;0.4884;1.6745;
222.9000;0.4868;1.6698;
223.2000;0.4860;1.6698;
223.5000;0.4860;1.6816;
223.8000;0.4851;1.6888;
224.1000;0.4851;1.6911;
224.4000;0.4851;1.6959;
224.7000;0.4868;1.6864;
225.0000;0.4851;1.6816;
225.3000;0.4843;1.6816;
225.6000;0.4868;1.6745;
225.9000;0.4860;1.6745;
226.2000;0.4851;1.6674;
226.5000;0.4876;1.6816;
226.8000;0.4860;1.6840;
227.1000;0.4860;1.6911;
227.4000;0.4868;1.6935;
227.7000;0.4851;1.6935;
228.0000;0.4860;1.6911;
228.3000;0.4868;1.6888;
228.6000;0.4860;1.6840;
228.9000;0.4860;1.6864;
229.2000;0.4851;1.6793;
229.5000;0.4843;1.6816;
229.8000;0.4851;1.6888;
230.1000;0.4876;1.6959;
230.4000;0.4876;1.6935;
230.7000;0.4835;1.6840;
231.0000;0.4843;1.6864;
231.3000;0.4851;1.6935;
231.6000;0.4843;1.6959;
231.9000;0.4843;1.6983;
232.2000;0.4819;1.6816;
232.5000;0.4868;1.6864;
232.8000;0.4860;1.6745;
233.1000;0.4835;1.6650;
233.4000;0.4868;1.6698;
233.7000;0.4860;1.6650;
234.0000;0.4868;1.6626;
234.3000;0.4860;1.6650;
234.6000;0.4868;1.6698;
234.9000;0.4843;1.6698;
235.2000;0.4851;1.6864;
235.5000;0.4868;1.6888;
235.8000;0.4868;1.6888;
236.1000;0.4860;1.6816;
236.4000;0.4851;1.6864;
236.7000;0.4851;1.6864;
237.0000;0.4860;1.6888;
237.3000;0.4876;1.6888;
237.6000;0.4876;1.6888;
237.9000;0.4868;1.6840;
238.2000;0.4868;1.6816;
238.5000;0.4868;1.6793;
238.8000;0.4860;1.6840;
239.1000;0.4876;1.6959;
239.4000;0.4851;1.6816;
239.7000;0.4860;1.6745;
240.0000;0.4843;1.6674;
240.3000;0.4884;1.6840;
240.6000;0.4860;1.6911;
240.9000;0.4860;1.6935;
241.2000;0.4851;1.6983;
241.5000;0.4868;1.7006;
241.8000;0.4868;1.6983;
242.1000;0.4868;1.6959;
242.4000;0.4835;1.6983;
242.7000;0.4868;1.6983;
243.0000;0.4860;1.6911;
243.3000;0.4860;1.6888;
243.6000;0.4827;1.6769;
243.9000;0.4860;1.6840;
244.2000;0.4860;1.6816;
244.5000;0.4933;1.6983;
244.8000;0.4843;1.6840;
245.1000;0.4868;1.6911;
245.4000;0.4868;1.6911;
245.7000;0.4884;1.7078;
246.0000;0.4860;1.7006;
246.3000;0.4876;1.6959;
246.6000;0.4851;1.6840;
246.9000;0.4851;1.6840;
247.2000;0.4860;1.6864;
247.5000;0.4835;1.6888;
247.8000;0.4868;1.7006;
248.1000;0.4843;1.6959;
248.4000;0.4917;1.7054;
248.7000;0.4851;1.6911;
249.0000;0.4843;1.6983;
249.3000;0.4835;1.7006;
249.6000;0.4900;1.7173;
249.9000;0.4851;1.7006;
250.2000;0.4843;1.6983;
250.5000;0.4843;1.6911;
250.8000;0.4860;1.6911;
251.1000;0.4843;1.6864;
251.4000;0.4835;1.6840;
251.7000;0.4868;1.6935;
252.0000;0.4851;1.6935;
252.3000;0.4843;1.6935;
252.6000;0.4851;1.6959;
252.9000;0.4868;1.6959;
253.2000;0.4851;1.6888;
253.5000;0.4884;1.6935;
253.8000;0.4843;1.6793;
254.1000;0.4851;1.6769;
254.4000;0.4851;1.6793;
254.7000;0.4860;1.6840;
255.0000;0.4851;1.6793;
255.3000;0.4851;1.6888;
255.6000;0.4827;1.6816;
255.9000;0.4851;1.6864;
256.2000;0.4851;1.6864;
256.5000;0.4876;1.6983;
256.8000;0.4860;1.6864;
257.1000;0.4851;1.6840;
257.4000;0.4860;1.6816;
257.7000;0.4868;1.6864;
258.0000;0.4860;1.6888;
258.3000;0.4851;1.6864;
258.6000;0.4884;1.6935;
258.9000;0.4851;1.6888;
259.2000;0.4868;1.6888;
259.5000;0.4868;1.6959;
259.8000;0.4851;1.6911;
260.1000;0.4843;1.6793;
260.4000;0.4876;1.6911;
260.7000;0.4860;1.6959;
261.0000;0.4835;1.6911;
261.3000;0.4860;1.7030;
261.6000;0.4868;1.7006;
261.9000;0.4876;1.7030;
262.2000;0.4868;1.7030;
262.5000;0.4908;1.7006;
262.8000;0.4860;1.6983;
263.1000;0.4851;1.6959;
263.4000;0.4843;1.7006;
263.7000;0.4843;1.6935;
264.0000;0.4843;1.7006;
264.3000;0.4868;1.7101;
264.6000;0.4868;1.7078;
264.9000;0.4835;1.6911;
265.2000;0.4868;1.6959;
265.5000;0.4860;1.7006;
265.8000;0.4876;1.6983;
266.1000;0.4843;1.6911;
266.4000;0.4892;1.7030;
266.7000;0.4860;1.6935;
267.0000;0.4917;1.7101;
267.3000;0.4851;1.7030;
267.6000;0.4868;1.7006;
267.9000;0.4851;1.7006;
268.2000;0.4917;1.7078;
268.5000;0.4843;1.7006;
268.8000;0.4860;1.7101;
269.1000;0.4835;1.7006;
269.4000;0.4851;1.7078;
269.7000;0.4851;1.7101;
270.0000;0.4851;1.6959;
270.3000;0.4778;1.6816;
270.6000;0.4860;1.6983;
270.9000;0.4860;1.6983;
271.2000;0.4754;1.6745;
271.5000;0.4892;1.7125;
271.8000;0.4876;1.7006;
272.1000;0.4860;1.6911;
272.4000;0.4868;1.6935;
272.7000;0.4860;1.6983;
273.0000;0.4851;1.6911;
273.3000;0.4851;1.6888;
273.6000;0.4851;1.6864;
273.9000;0.4803;1.6721;
274.2000;0.4843;1.6840;
274.5000;0.4851;1.6840;
274.8000;0.4868;1.6816;
275.1000;0.4851;1.6769;
275.4000;0.4868;1.6793;
275.7000;0.4876;1.6769;
276.0000;0.4868;1.6840;
276.3000;0.4851;1.6864;
276.6000;0.4851;1.6864;
276.9000;0.4876;1.6864;
277.2000;0.4876;1.6864;
277.5000;0.4860;1.6840;
277.8000;0.4851;1.6864;
278.1000;0.4860;1.6840;
278.4000;0.4819;1.6698;
278.7000;0.4892;1.6721;
279.0000;0.4851;1.6603;
279.3000;0.4876;1.6603;
279.6000;0.4868;1.6626;
279.9000;0.4860;1.6698;
280.2000;0.4868;1.6793;
280.5000;0.4835;1.6769;
280.8000;0.4851;1.6769;
281.1000;0.4868;1.6745;
281.4000;0.4851;1.6816;
281.7000;0.4843;1.6769;
282.0000;0.4851;1.6721;
282.3000;0.4868;1.6698;
282.6000;0.4892;1.6698;
282.9000;0.4860;1.6579;
283.2000;0.4851;1.6603;
283.5000;0.4860;1.6698;
283.8000;0.4851;1.6698;
284.1000;0.4860;1.6745;
284.4000;0.4860;1.6721;
284.7000;0.4868;1.6721;
285.0000;0.4860;1.6674;
285.3000;0.4876;1.6721;
285.6000;0.4835;1.6603;
285.9000;0.4860;1.6721;
286.2000;0.4851;1.6745;
286.5000;0.4811;1.6721;
286.8000;0.4860;1.6864;
287.1000;0.4851;1.6793;
287.4000;0.4868;1.6721;
287.7000;0.4868;1.6698;
288.0000;0.4868;1.6721;
288.3000;0.4876;1.6721;
288.6000;0.4892;1.6769;
288.9000;0.4860;1.6769;
289.2000;0.4835;1.6721;
289.5000;0.4868;1.6816;
289.8000;0.4843;1.6816;
290.1000;0.4803;1.6698;
290.4000;0.4827;1.6840;
290.7000;0.4851;1.6888;
291.0000;0.4860;1.6888;
291.3000;0.4843;1.6935;
291.6000;0.4843;1.6888;
291.9000;0.4884;1.6840;
292.2000;0.4860;1.6769;
292.5000;0.4860;1.6816;
292.8000;0.4868;1.6793;
293.1000;0.4835;1.6769;
293.4000;0.4860;1.6864;
293.7000;0.4851;1.6840;
294.0000;0.4860;1.6911;
294.3000;0.4876;1.6983;
294.6000;0.4868;1.7030;
294.9000;0.4868;1.7125;
295.2000;0.4917;1.7244;
295.5000;0.4843;1.7101;
295.8000;0.4851;1.7125;
296.1000;0.4876;1.7125;
296.4000;0.4868;1.7078;
296.7000;0.4851;1.7030;
297.0000;0.4876;1.7030;
297.3000;0.4827;1.6935;
297.6000;0.4860;1.7030;
297.9000;0.4868;1.7054;
298.2000;0.4860;1.7006;
298.5000;0.4851;1.7078;
298.8000;0.4860;1.7054;
299.1000;0.4860;1.7054;
299.4000;0.4868;1.7101;
299.7000;0.4860;1.7196;
300.0000;0.4851;1.7220;
300.3000;0.4835;1.7149;
300.6000;0.4876;1.7173;
300.9000;0.4876;1.7149;
301.2000;0.4868;1.7125;
301.5000;0.4860;1.7054;
301.8000;0.4860;1.6959;
302.1000;0.4851;1.6983;
302.4000;0.4925;1.7101;
302.7000;0.4843;1.6840;
303.0000;0.4868;1.6793;
303.3000;0.4851;1.6698;
303.6000;0.4868;1.6721;
303.9000;0.4843;1.6674;
304.2000;0.4835;1.6674;
304.5000;0.4860;1.6674;
304.8000;0.4860;1.6674;
305.1000;0.4851;1.6721;
305.4000;0.4876;1.6745;
305.7000;0.4843;1.6626;
306.0000;0.4851;1.6626;
306.3000;0.4851;1.6721;
306.6000;0.4811;1.6650;
306.9000;0.4868;1.6745;
307.2000;0.4835;1.6650;
307.5000;0.4868;1.6769;
307.8000;0.4827;1.6745;
308.1000;0.4835;1.6769;
308.4000;0.4868;1.6888;
308.7000;0.4860;1.6888;
309.0000;0.4851;1.6769;
309.3000;0.4884;1.6840;
309.6000;0.4851;1.6793;
309.9000;0.4851;1.6769;
310.2000;0.4860;1.6698;
310.5000;0.4835;1.6698;
310.8000;0.4851;1.6816;
311.1000;0.4892;1.6911;
311.4000;0.4860;1.6911;
311.7000;0.4876;1.7006;
312.0000;0.4803;1.6745;
312.3000;0.4868;1.6959;
312.6000;0.4876;1.6911;
312.9000;0.4762;1.6555;
313.2000;0.4860;1.6816;
313.5000;0.4860;1.6816;
313.8000;0.4868;1.6793;
314.1000;0.4876;1.6816;
314.4000;0.4860;1.6745;
314.7000;0.4900;1.6816;
315.0000;0.4876;1.6864;
315.3000;0.4843;1.6793;
315.6000;0.4876;1.6721;
315.9000;0.4843;1.6698;
316.2000;0.4868;1.6745;
316.5000;0.4884;1.6793;
316.8000;0.4819;1.6650;
317.1000;0.4827;1.6793;
317.4000;0.4868;1.6888;
317.7000;0.4811;1.6721;
318.0000;0.4868;1.6769;
318.3000;0.4876;1.6793;
318.6000;0.4860;1.6769;
318.9000;0.4868;1.6816;
319.2000;0.4868;1.6840;
319.5000;0.4851;1.6769;
319.8000;0.4843;1.6793;
320.1000;0.4851;1.6816;
320.4000;0.4860;1.6745;
320.7000;0.4843;1.6769;
321.0000;0.4860;1.6793;
321.3000;0.4794;1.6579;
321.6000;0.4892;1.6864;
321.9000;0.4860;1.6840;
322.2000;0.4868;1.6864;
322.5000;0.4884;1.6816;
322.8000;0.4851;1.6793;
323.1000;0.4860;1.6769;
323.4000;0.4843;1.6816;
323.7000;0.4851;1.6864;
324.0000;0.4868;1.6840;
324.3000;0.4892;1.6935;
324.6000;0.4851;1.6959;
324.9000;0.4868;1.7006;
325.2000;0.4827;1.6911;
325.5000;0.4884;1.7030;
325.8000;0.4860;1.6935;
326.1000;0.4860;1.7006;
326.4000;0.4925;1.7054;
326.7000;0.4868;1.6959;
327.0000;0.4860;1.6911;
327.3000;0.4868;1.6911;
327.6000;0.4868;1.6935;
327.9000;0.4860;1.7006;
328.2000;0.4860;1.6935;
328.5000;0.4851;1.6935;
328.8000;0.4851;1.6935;
329.1000;0.4860;1.6983;
329.4000;0.4860;1.6983;
329.7000;0.4892;1.6983;
330.0000;0.4860;1.6911;
330.3000;0.4860;1.6840;
330.6000;0.4851;1.6911;
330.9000;0.4860;1.6888;
331.2000;0.4851;1.6911;
331.5000;0.4843;1.6816;
331.8000;0.4860;1.6816;
332.1000;0.4860;1.6840;
332.4000;0.4843;1.6816;
332.7000;0.4868;1.6888;
333.0000;0.4843;1.6864;
333.3000;0.4860;1.6911;
333.6000;0.4803;1.6793;
333.9000;0.4965;1.7196;
334.2000;0.4868;1.6935;
334.5000;0.4851;1.6888;
334.8000;0.4843;1.6888;
335.1000;0.4868;1.6911;
335.4000;0.4868;1.6959;
335.7000;0.4835;1.6864;
336.0000;0.4851;1.6816;
336.3000;0.4892;1.6840;
336.6000;0.4851;1.6698;
336.9000;0.4835;1.6674;
337.2000;0.4868;1.6721;
337.5000;0.4851;1.6745;
337.8000;0.4860;1.6816;
338.1000;0.4851;1.6793;
338.4000;0.4819;1.6603;
338.7000;0.4851;1.6626;
339.0000;0.4843;1.6626;
339.3000;0.4868;1.6698;
339.6000;0.4860;1.6674;
339.9000;0.4868;1.6650;
340.2000;0.4876;1.6674;
340.5000;0.4786;1.6460;
340.8000;0.4876;1.6745;
341.1000;0.4835;1.6650;
341.4000;0.4851;1.6603;
341.7000;0.4868;1.6745;
342.0000;0.4868;1.6674;
342.3000;0.4876;1.6769;
342.6000;0.4843;1.6745;
342.9000;0.4868;1.6935;
343.2000;0.4868;1.7006;
343.5000;0.4860;1.7006;
343.8000;0.4868;1.6983;
344.1000;0.4860;1.7006;
344.4000;0.4868;1.7006;
344.7000;0.4876;1.7101;
345.0000;0.4868;1.7149;
345.3000;0.4868;1.7101;
345.6000;0.4876;1.7006;
345.9000;0.4851;1.6911;
346.2000;0.4835;1.6888;
346.5000;0.4860;1.6911;
346.8000;0.4876;1.6840;
347.1000;0.4868;1.6864;
347.4000;0.4868;1.6745;
347.7000;0.4860;1.6769;
348.0000;0.4876;1.6840;
348.3000;0.4876;1.6769;
348.6000;0.4860;1.6816;
348.9000;0.4860;1.6793;
349.2000;0.4860;1.6840;
349.5000;0.4884;1.6840;
349.8000;0.4868;1.6769;
350.1000;0.4860;1.6888;
350.4000;0.4860;1.6911;
350.7000;0.4851;1.6864;
351.0000;0.4860;1.6840;
351.3000;0.4860;1.6721;
351.6000;0.4876;1.6745;
351.9000;0.4876;1.6698;
352.2000;0.4860;1.6555;
352.5000;0.4827;1.6389;
352.8000;0.4868;1.6531;
353.1000;0.4876;1.6508;
353.4000;0.4835;1.6508;
353.7000;0.4868;1.6579;
354.0000;0.4860;1.6626;
354.3000;0.4868;1.6721;
354.6000;0.4884;1.6769;
354.9000;0.4835;1.6626;
355.2000;0.4868;1.6650;
355.5000;0.4835;1.6531;
355.8000;0.4884;1.6674;
356.1000;0.4908;1.6721;
356.4000;0.4860;1.6555;
356.7000;0.4876;1.6698;
357.0000;0.4860;1.6721;
357.3000;0.4851;1.6650;
357.6000;0.4860;1.6674;
357.9000;0.4876;1.6793;
358.2000;0.4860;1.6745;
358.5000;0.4876;1.6816;
358.8000;0.4868;1.6816;
359.1000;0.4892;1.6888;
359.4000;0.4843;1.6793;
359.7000;0.4868;1.6769;
360.0000;0.4868;1.6816;
360.3000;0.4868;1.6816;
360.6000;0.4876;1.6959;
360.9000;0.4860;1.6911;
361.2000;0.4868;1.6935;
361.5000;0.4860;1.6888;
361.8000;0.4892;1.6888;
362.1000;0.4908;1.7006;
362.4000;0.4900;1.6888;
362.7000;0.4892;1.6959;
363.0000;0.4860;1.6959;
363.3000;0.4876;1.6983;
363.6000;0.4868;1.6959;
363.9000;0.4868;1.6935;
364.2000;0.4819;1.6745;
364.5000;0.4868;1.6864;
364.8000;0.4917;1.7101;
365.1000;0.4860;1.6911;
365.4000;0.4835;1.6816;
365.7000;0.4868;1.6935;
366.0000;0.4876;1.6888;
366.3000;0.4892;1.6816;
366.6000;0.4851;1.6864;
366.9000;0.4868;1.6888;
367.2000;0.4868;1.6911;
367.5000;0.4876;1.6888;
367.8000;0.4884;1.6888;
368.1000;0.4851;1.6911;
368.4000;0.4860;1.6864;
368.7000;0.4860;1.6959;
369.0000;0.4860;1.7006;
369.3000;0.4860;1.6935;
369.6000;0.4860;1.6911;
369.9000;0.4876;1.6983;
370.2000;0.4868;1.6983;
370.5000;0.4876;1.6935;
370.8000;0.4876;1.6888;
371.1000;0.4868;1.6864;
371.4000;0.4868;1.6793;
371.7000;0.4860;1.6840;
372.0000;0.4868;1.6769;
372.3000;0.4876;1.6816;
372.6000;0.4851;1.6769;
372.9000;0.4868;1.6793;
373.2000;0.4876;1.6840;
373.5000;0.4746;1.6555;
373.8000;0.4851;1.6864;
374.1000;0.4868;1.6888;
374.4000;0.4851;1.6864;
374.7000;0.4884;1.6864;
375.0000;0.4860;1.6888;
375.3000;0.4851;1.6864;
375.6000;0.4860;1.6935;
375.9000;0.4868;1.7006;
376.2000;0.4868;1.6983;
376.5000;0.4835;1.6888;
376.8000;0.4860;1.6983;
377.1000;0.4860;1.6959;
377.4000;0.4876;1.7006;
377.7000;0.4868;1.7030;
378.0000;0.4835;1.7006;
378.3000;0.4876;1.7054;
378.6000;0.4868;1.7054;
378.9000;0.4860;1.7054;
379.2000;0.4876;1.7125;
379.5000;0.4835;1.7078;
379.8000;0.4868;1.7173;
380.1000;0.4860;1.7244;
380.4000;0.4860;1.7220;
380.7000;0.4868;1.7196;
381.0000;0.4933;1.7291;
381.3000;0.4860;1.7054;
381.6000;0.4876;1.7054;
381.9000;0.4868;1.7030;
382.2000;0.4900;1.7054;
382.5000;0.4868;1.6888;
382.8000;0.4860;1.6888;
383.1000;0.4811;1.6793;
383.4000;0.4868;1.6935;
383.7000;0.4868;1.6935;
384.0000;0.4860;1.6959;
384.3000;0.4876;1.7054;
384.6000;0.4876;1.7054;
384.9000;0.4876;1.7101;
385.2000;0.4860;1.6983;
385.5000;0.4868;1.7030;
385.8000;0.4876;1.6935;
386.1000;0.4868;1.6959;
386.4000;0.4868;1.7030;
386.7000;0.4860;1.7078;
387.0000;0.4835;1.6959;
387.3000;0.4925;1.7244;
387.6000;0.4860;1.7125;
387.9000;0.4860;1.7078;
388.2000;0.4860;1.7030;
388.5000;0.4860;1.7030;
388.8000;0.4851;1.6983;
389.1000;0.4860;1.6983;
389.4000;0.4737;1.6698;
389.7000;0.4868;1.7030;
390.0000;0.4876;1.7078;
390.3000;0.4876;1.7030;
390.6000;0.4884;1.6983;
390.9000;0.4860;1.7006;
391.2000;0.4868;1.6959;
391.5000;0.4876;1.7006;
391.8000;0.4868;1.7030;
392.1000;0.4868;1.7078;
392.4000;0.4884;1.7125;
392.7000;0.4868;1.7125;
393.0000;0.4868;1.7173;
393.3000;0.4868;1.7125;
393.6000;0.4868;1.7101;
393.9000;0.4908;1.7173;
394.2000;0.4860;1.7030;
394.5000;0.4892;1.7149;
394.8000;0.4860;1.6983;
395.1000;0.4843;1.7030;
395.4000;0.4868;1.7006;
395.7000;0.4851;1.7006;
396.0000;0.4868;1.6983;
396.3000;0.4851;1.6935;
396.6000;0.4860;1.6959;
396.9000;0.4843;1.7030;
397.2000;0.4884;1.7149;
397.5000;0.4860;1.6983;
397.8000;0.4868;1.7030;
398.1000;0.4868;1.7006;
398.4000;0.4860;1.6935;
398.7000;0.4884;1.6959;
399.0000;0.4860;1.6911;
399.3000;0.4860;1.6911;
399.6000;0.4868;1.6959;
399.9000;0.4876;1.6959;
400.2000;0.4868;1.7006;
400.5000;0.4860;1.6959;
400.8000;0.4860;1.6959;
401.1000;0.4868;1.6983;
401.4000;0.4876;1.6959;
401.7000;0.4860;1.6888;
402.0000;0.4835;1.6888;
402.3000;0.4868;1.6983;
402.6000;0.4860;1.6888;
402.9000;0.4892;1.6983;
403.2000;0.4860;1.6983;
403.5000;0.4908;1.7078;
403.8000;0.4868;1.7006;
404.1000;0.4868;1.7054;
404.4000;0.4860;1.6983;
404.7000;0.4884;1.7101;
405.0000;0.4884;1.7078;
405.3000;0.4851;1.6983;
405.6000;0.4819;1.6769;
405.9000;0.4884;1.6935;
406.2000;0.4892;1.6959;
406.5000;0.4868;1.6911;
406.8000;0.4868;1.6864;
407.1000;0.4917;1.7006;
407.4000;0.4860;1.6959;
407.7000;0.4876;1.7006;
408.0000;0.4868;1.7054;
408.3000;0.4900;1.7125;
408.6000;0.4876;1.6983;
408.9000;0.4860;1.7030;
409.2000;0.4876;1.7054;
409.5000;0.4868;1.7078;
409.8000;0.4884;1.7196;
410.1000;0.4860;1.7173;
410.4000;0.4860;1.7149;
410.7000;0.4835;1.6983;
411.0000;0.4884;1.7030;
411.3000;0.4917;1.7125;
411.6000;0.4868;1.7006;
411.9000;0.4876;1.7006;
412.2000;0.4868;1.7030;
412.5000;0.4884;1.7125;
412.8000;0.4876;1.7054;
413.1000;0.4900;1.7054;
413.4000;0.4884;1.6959;
413.7000;0.4884;1.6935;
414.0000;0.4884;1.6959;
414.3000;0.4868;1.6935;
414.6000;0.4851;1.6816;
414.9000;0.4860;1.6864;
415.2000;0.4851;1.6840;
415.5000;0.4884;1.6911;
415.8000;0.4876;1.6983;
416.1000;0.4868;1.7078;
416.4000;0.4876;1.7173;
416.7000;0.4876;1.7220;
417.0000;0.4876;1.7173;
417.3000;0.4868;1.7173;
417.6000;0.4868;1.7173;
417.9000;0.4868;1.7125;
418.2000;0.4860;1.7101;
418.5000;0.4860;1.7125;
418.8000;0.4851;1.7078;
419.1000;0.4851;1.7101;
419.4000;0.4941;1.7268;
419.7000;0.4868;1.6959;
420.0000;0.4868;1.6983;
420.3000;0.4868;1.6983;
420.6000;0.4868;1.7054;
420.9000;0.4868;1.7054;
421.2000;0.4811;1.6983;
421.5000;0.4819;1.6959;
421.8000;0.4843;1.7054;
422.1000;0.4908;1.7196;
422.4000;0.4851;1.7078;
422.7000;0.4843;1.7030;
423.0000;0.4860;1.7149;
423.3000;0.4868;1.7220;
423.6000;0.4835;1.7149;
423.9000;0.4868;1.7220;
424.2000;0.4868;1.7220;
424.5000;0.4900;1.7315;
424.8000;0.4860;1.7125;
425.1000;0.4868;1.7125;
425.4000;0.4884;1.7125;
425.7000;0.4868;1.7030;
426.0000;0.4851;1.7054;
426.3000;0.4876;1.7101;
426.6000;0.4884;1.7078;
426.9000;0.4868;1.7125;
427.2000;0.4876;1.7101;
427.5000;0.4868;1.7078;
427.8000;0.4884;1.7006;
428.1000;0.4860;1.6935;
428.4000;0.4851;1.6816;
428.7000;0.4860;1.6816;
429.0000;0.4860;1.6793;
429.3000;0.4876;1.6864;
429.6000;0.4860;1.6864;
429.9000;0.4754;1.6650;
430.2000;0.4876;1.7006;
430.5000;0.4876;1.7030;
430.8000;0.4851;1.6935;
431.1000;0.4843;1.6864;
431.4000;0.4908;1.7030;
431.7000;0.4925;1.7196;
432.0000;0.4868;1.7101;
432.3000;0.4884;1.7196;
432.6000;0.4860;1.7030;
432.9000;0.4876;1.7078;
433.2000;0.4876;1.7054;
433.5000;0.4860;1.6911;
433.8000;0.4860;1.6983;
434.1000;0.4876;1.6935;
434.4000;0.4892;1.6935;
434.7000;0.4876;1.6911;
435.0000;0.4868;1.6864;
435.3000;0.4933;1.6911;
435.6000;0.4933;1.6935;
435.9000;0.4868;1.6840;
436.2000;0.4860;1.6864;
436.5000;0.4851;1.6840;
436.8000;0.4860;1.6888;
437.1000;0.4843;1.6793;
437.4000;0.4860;1.6816;
437.7000;0.4851;1.6864;
438.0000;0.4860;1.6864;
438.3000;0.4860;1.6888;
438.6000;0.4860;1.6888;
438.9000;0.4876;1.6959;
439.2000;0.4892;1.6959;
439.5000;0.4876;1.6840;
439.8000;0.4860;1.6745;
440.1000;0.4876;1.6721;
440.4000;0.4900;1.6793;
440.7000;0.4876;1.6674;
441.0000;0.4851;1.6626;
441.3000;0.4876;1.6840;
441.6000;0.4868;1.6769;
441.9000;0.4876;1.6840;
442.2000;0.4868;1.6745;
442.5000;0.4860;1.6769;
442.8000;0.4868;1.6793;
443.1000;0.4868;1.6864;
443.4000;0.4892;1.6864;
443.7000;0.4860;1.6603;
444.0000;0.4876;1.6579;
444.3000;0.4860;1.6603;
444.6000;0.4876;1.6745;
444.9000;0.4860;1.6721;
445.2000;0.4868;1.6793;
445.5000;0.4868;1.6864;
445.8000;0.4876;1.6911;
446.1000;0.4851;1.6864;
446.4000;0.4868;1.6983;
446.7000;0.4884;1.7030;
447.0000;0.4860;1.6911;
447.3000;0.4860;1.6864;
447.6000;0.4925;1.6864;
447.9000;0.4868;1.6745;
448.2000;0.4876;1.6793;
448.5000;0.4868;1.6674;
448.8000;0.4884;1.6674;
449.1000;0.4860;1.6674;
449.4000;0.4884;1.6674;
449.7000;0.4868;1.6650;
450.0000;0.4860;1.6650;
450.3000;0.4876;1.6698;
450.6000;0.4868;1.6793;
450.9000;0.4876;1.6769;
451.2000;0.4860;1.6698;
451.5000;0.4892;1.6745;
451.8000;0.4843;1.6626;
452.1000;0.4933;1.6888;
452.4000;0.4884;1.6864;
452.7000;0.4876;1.6935;
453.0000;0.4868;1.6911;
453.3000;0.4843;1.6959;
453.6000;0.4860;1.6935;
453.9000;0.4860;1.6864;
454.2000;0.4860;1.6793;
454.5000;0.4860;1.6769;
454.8000;0.4851;1.6769;
455.1000;0.4876;1.6864;
455.4000;0.4876;1.6816;
455.7000;0.4884;1.6911;
456.0000;0.4884;1.6888;
456.3000;0.4737;1.6484;
456.6000;0.4868;1.6793;
456.9000;0.4868;1.6745;
457.2000;0.4843;1.6674;
457.5000;0.4851;1.6745;
457.8000;0.4900;1.6888;
458.1000;0.4892;1.6840;
458.4000;0.4868;1.6721;
458.7000;0.4851;1.6579;
459.0000;0.4868;1.6674;
459.3000;0.4876;1.6721;
459.6000;0.4876;1.6745;
459.9000;0.4876;1.6769;
460.2000;0.4860;1.6745;
460.5000;0.4868;1.6769;
460.8000;0.4876;1.6769;
461.1000;0.4884;1.6816;
461.4000;0.4925;1.6983;
461.7000;0.4868;1.6816;
462.0000;0.4868;1.6864;
462.3000;0.4884;1.6935;
462.6000;0.4868;1.6888;
462.9000;0.4860;1.6769;
463.2000;0.4868;1.6674;
463.5000;0.4884;1.6698;
463.8000;0.4876;1.6650;
464.1000;0.4860;1.6650;
464.4000;0.4884;1.6745;
464.7000;0.4860;1.6650;
465.0000;0.4860;1.6721;
465.3000;0.4868;1.6769;
465.6000;0.4860;1.6793;
465.9000;0.4876;1.6769;
466.2000;0.4884;1.6816;
466.5000;0.4860;1.6721;
466.8000;0.4851;1.6674;
467.1000;0.4860;1.6650;
467.4000;0.4868;1.6650;
467.7000;0.4851;1.6555;
468.0000;0.4860;1.6674;
468.3000;0.4884;1.6769;
468.6000;0.4868;1.6674;
468.9000;0.4843;1.6674;
469.2000;0.4884;1.6745;
469.5000;0.4892;1.6864;
469.8000;0.4876;1.6840;
470.1000;0.4860;1.6935;
470.4000;0.4868;1.6816;
470.7000;0.4933;1.7078;
471.0000;0.4892;1.6959;
471.3000;0.4884;1.7006;
471.6000;0.4876;1.7006;
471.9000;0.4868;1.6959;
472.2000;0.4884;1.7006;
472.5000;0.4868;1.7030;
472.8000;0.4868;1.7030;
473.1000;0.4868;1.6959;
473.4000;0.4900;1.6983;
473.7000;0.4851;1.6816;
474.0000;0.4884;1.6911;
474.3000;0.4868;1.6959;
474.6000;0.4868;1.7030;
474.9000;0.4876;1.7030;
475.2000;0.4884;1.7030;
475.5000;0.4876;1.6959;
475.8000;0.4884;1.6888;
476.1000;0.4892;1.6864;
476.4000;0.4843;1.6793;
476.7000;0.4860;1.6864;
477.0000;0.4827;1.6793;
477.3000;0.4860;1.6959;
477.6000;0.4957;1.7149;
477.9000;0.4860;1.6935;
478.2000;0.4851;1.7006;
478.5000;0.4860;1.7006;
478.8000;0.4876;1.6983;
479.1000;0.4835;1.6935;
479.4000;0.4860;1.6911;
479.7000;0.4884;1.6935;
480.0000;0.4868;1.6840;
480.3000;0.4884;1.6959;
480.6000;0.4868;1.6983;
480.9000;0.4860;1.6959;
481.2000;0.4860;1.6935;
481.5000;0.4868;1.6864;
481.8000;0.4860;1.6935;
482.1000;0.4860;1.6864;
482.4000;0.4876;1.6911;
482.7000;0.4851;1.6816;
483.0000;0.4876;1.6935;
483.3000;0.4860;1.6864;
483.6000;0.4876;1.6888;
483.9000;0.4884;1.6864;
484.2000;0.4868;1.6864;
484.5000;0.4884;1.6935;
484.8000;0.4892;1.6888;
485.1000;0.4868;1.6864;
485.4000;0.4868;1.6935;
485.7000;0.4892;1.6935;
486.0000;0.4900;1.6983;
486.3000;0.4868;1.6864;
486.6000;0.4868;1.6864;
486.9000;0.4868;1.6840;
487.2000;0.4876;1.6769;
487.5000;0.4876;1.6769;
487.8000;0.4851;1.6650;
488.1000;0.4868;1.6698;
488.4000;0.4884;1.6816;
488.7000;0.4884;1.6816;
489.0000;0.4876;1.6769;
489.3000;0.4876;1.6793;
489.6000;0.4811;1.6650;
489.9000;0.4892;1.6935;
490.2000;0.4868;1.6983;
490.5000;0.4876;1.6911;
490.8000;0.4868;1.6888;
491.1000;0.4868;1.6888;
491.4000;0.4876;1.6935;
491.7000;0.4876;1.6911;
492.0000;0.4884;1.6983;
492.3000;0.4876;1.7006;
492.6000;0.4851;1.6935;
492.9000;0.4868;1.6935;
493.2000;0.4868;1.6935;
493.5000;0.4876;1.6793;
493.8000;0.4884;1.6816;
494.1000;0.4900;1.6935;
494.4000;0.4876;1.6864;
494.7000;0.4876;1.6864;
495.0000;0.4868;1.6864;
495.3000;0.4868;1.6864;
495.6000;0.4803;1.6721;
495.9000;0.4876;1.6983;
496.2000;0.4900;1.7006;
496.5000;0.4868;1.6935;
496.8000;0.4868;1.6864;
497.1000;0.4860;1.6888;
497.4000;0.4892;1.6840;
497.7000;0.4876;1.6745;
498.0000;0.4876;1.6674;
498.3000;0.4843;1.6650;
498.6000;0.4884;1.6769;
498.9000;0.4868;1.6840;
499.2000;0.4860;1.6816;
499.5000;0.4876;1.6864;
499.8000;0.4876;1.6816;
500.1000;0.4868;1.6840;
500.4000;0.4860;1.6911;
500.7000;0.4860;1.6888;
501.0000;0.4860;1.6911;
501.3000;0.4876;1.7078;
501.6000;0.4876;1.7101;
501.9000;0.4868;1.7078;
502.2000;0.4868;1.6983;
502.5000;0.4876;1.7030;
502.8000;0.4876;1.7030;
503.1000;0.4876;1.7054;
503.4000;0.4868;1.6935;
503.7000;0.4876;1.6935;
504.0000;0.4884;1.6959;
504.3000;0.4868;1.6935;
504.6000;0.4851;1.6888;
504.9000;0.4876;1.7006;
505.2000;0.4884;1.7030;
505.5000;0.4851;1.7030;
505.8000;0.4876;1.7030;
506.1000;0.4884;1.6983;
506.4000;0.4884;1.6983;
506.7000;0.4876;1.6864;
507.0000;0.4900;1.6911;
507.3000;0.4876;1.6840;
507.6000;0.4860;1.6816;
507.9000;0.4860;1.6793;
508.2000;0.4868;1.6745;
508.5000;0.4843;1.6769;
508.8000;0.4876;1.6864;
509.1000;0.4876;1.6983;
509.4000;0.4868;1.6983;
509.7000;0.4851;1.6959;
510.0000;0.4884;1.7054;
510.3000;0.4860;1.7101;
510.6000;0.4868;1.7078;
510.9000;0.4868;1.7101;
511.2000;0.4851;1.7196;
511.5000;0.4884;1.7244;
511.8000;0.4868;1.7125;
512.1000;0.4860;1.7078;
512.4000;0.4860;1.7078;
512.7000;0.4860;1.7078;
513.0000;0.4851;1.7054;
513.3000;0.4868;1.7030;
513.6000;0.4868;1.7006;
513.9000;0.4876;1.7006;
514.2000;0.4860;1.6935;
514.5000;0.4868;1.7030;
514.8000;0.4868;1.7054;
515.1000;0.4884;1.7101;
515.4000;0.4876;1.7101;
515.7000;0.4892;1.7078;
516.0000;0.4876;1.6983;
516.3000;0.4860;1.6911;
516.6000;0.4851;1.6911;
516.9000;0.4868;1.6911;
517.2000;0.4843;1.6935;
517.5000;0.4868;1.6935;
517.8000;0.4868;1.6959;
518.1000;0.4884;1.6911;
518.4000;0.4884;1.6935;
518.7000;0.4892;1.6935;
519.0000;0.4876;1.6911;
519.3000;0.4876;1.7006;
519.6000;0.4892;1.7054;
519.9000;0.4876;1.7006;
520.2000;0.4884;1.7054;
520.5000;0.4876;1.7078;
520.8000;0.4876;1.7030;
521.1000;0.4933;1.7173;
521.4000;0.4974;1.7244;
521.7000;0.4876;1.7078;
522.0000;0.4876;1.7101;
522.3000;0.4860;1.7006;
522.6000;0.4884;1.6959;
522.9000;0.4868;1.6959;
523.2000;0.4884;1.6959;
523.5000;0.4884;1.7006;
523.8000;0.4884;1.7006;
524.1000;0.4868;1.7030;
524.4000;0.4860;1.7054;
524.7000;0.4876;1.7006;
525.0000;0.4876;1.6983;
525.3000;0.4884;1.7030;
525.6000;0.4892;1.6959;
525.9000;0.4860;1.6840;
526.2000;0.4860;1.6793;
526.5000;0.4876;1.6698;
526.8000;0.4876;1.6769;
527.1000;0.4860;1.6793;
527.4000;0.4851;1.6745;
527.7000;0.4876;1.6674;
528.0000;0.4884;1.6698;
528.3000;0.4884;1.6650;
528.6000;0.4884;1.6698;
528.9000;0.4884;1.6626;
529.2000;0.4884;1.6626;
529.5000;0.4876;1.6745;
529.8000;0.4876;1.6721;
530.1000;0.4876;1.6816;
530.4000;0.4876;1.6769;
530.7000;0.4868;1.6816;
531.0000;0.4876;1.6888;
531.3000;0.4868;1.6864;
531.6000;0.4851;1.6959;
531.9000;0.4860;1.6911;
532.2000;0.4860;1.6888;
532.5000;0.4868;1.6840;
532.8000;0.4860;1.6888;
533.1000;0.4876;1.7006;
533.4000;0.4876;1.6935;
533.7000;0.4868;1.6816;
534.0000;0.4868;1.6769;
534.3000;0.4884;1.6769;
534.6000;0.4876;1.6769;
534.9000;0.4868;1.6698;
535.2000;0.4884;1.6769;
535.5000;0.4860;1.6745;
535.8000;0.4860;1.6816;
536.1000;0.4843;1.6816;
536.4000;0.4860;1.6864;
536.7000;0.4868;1.6864;
537.0000;0.4868;1.6816;
537.3000;0.4851;1.6816;
537.6000;0.4876;1.6816;
537.9000;0.4868;1.6793;
538.2000;0.4868;1.6793;
538.5000;0.4868;1.6793;
538.8000;0.4868;1.6769;
539.1000;0.4884;1.6840;
539.4000;0.4884;1.6911;
539.7000;0.4884;1.7030;
540.0000;0.4876;1.6959;
540.3000;0.4860;1.6911;
540.6000;0.4876;1.6911;
540.9000;0.4876;1.6864;
541.2000;0.4876;1.6935;
541.5000;0.4868;1.6911;
541.8000;0.4892;1.6888;
542.1000;0.4884;1.6959;
542.4000;0.4868;1.7006;
542.7000;0.4884;1.7030;
543.0000;0.4884;1.7054;
543.3000;0.4900;1.7078;
543.6000;0.4900;1.7196;
543.9000;0.4868;1.7101;
544.2000;0.4860;1.7149;
544.5000;0.4884;1.7173;
544.8000;0.4876;1.7149;
545.1000;0.4827;1.7030;
545.4000;0.4884;1.7054;
545.7000;0.4860;1.7101;
546.0000;0.4868;1.7101;
546.3000;0.4868;1.7006;
546.6000;0.4884;1.6911;
546.9000;0.4884;1.6935;
547.2000;0.4868;1.6983;
547.5000;0.4868;1.6935;
547.8000;0.4884;1.6935;
548.1000;0.4876;1.6959;
548.4000;0.4900;1.6983;
548.7000;0.4908;1.6935;
549.0000;0.4868;1.6793;
549.3000;0.4876;1.6888;
549.6000;0.4876;1.6840;
549.9000;0.4876;1.6911;
550.2000;0.4876;1.6911;
550.5000;0.4884;1.6911;
550.8000;0.4868;1.6840;
551.1000;0.4884;1.6840;
551.4000;0.4860;1.6864;
551.7000;0.4868;1.6911;
552.0000;0.4876;1.7030;
552.3000;0.4884;1.7101;
552.6000;0.4925;1.7149;
552.9000;0.4860;1.7030;
553.2000;0.4876;1.7006;
553.5000;0.4884;1.7006;
553.8000;0.4860;1.6935;
554.1000;0.4868;1.6959;
554.4000;0.4917;1.7030;
554.7000;0.4884;1.6959;
555.0000;0.4868;1.6959;
555.3000;0.4860;1.6888;
555.6000;0.4876;1.6888;
555.9000;0.4884;1.6888;
556.2000;0.4876;1.6816;
556.5000;0.4876;1.6816;
556.8000;0.4884;1.6864;
557.1000;0.4892;1.6840;
557.4000;0.4884;1.6840;
557.7000;0.4868;1.6769;
558.0000;0.4892;1.6888;
558.3000;0.4892;1.6959;
558.6000;0.4860;1.6935;
558.9000;0.4900;1.6983;
559.2000;0.4868;1.6935;
559.5000;0.4884;1.6935;
559.8000;0.4884;1.6935;
560.1000;0.4868;1.6935;
560.4000;0.4868;1.6840;
560.7000;0.4876;1.6840;
561.0000;0.4876;1.6935;
561.3000;0.4876;1.6935;
561.6000;0.4868;1.6911;
561.9000;0.4884;1.6983;
562.2000;0.4884;1.6959;
562.5000;0.4884;1.6864;
562.8000;0.4900;1.6864;
563.1000;0.4860;1.6745;
563.4000;0.4892;1.6840;
563.7000;0.4843;1.6840;
564.0000;0.4876;1.6911;
564.3000;0.4884;1.6935;
564.6000;0.4982;1.7268;
564.9000;0.4884;1.7006;
565.2000;0.4892;1.7054;
565.5000;0.4892;1.7078;
565.8000;0.4884;1.7078;
566.1000;0.4925;1.7196;
566.4000;0.4876;1.7030;
566.7000;0.4876;1.6983;
567.0000;0.4884;1.7030;
567.3000;0.4884;1.6911;
567.6000;0.4974;1.7006;
567.9000;0.4884;1.6793;
568.2000;0.4876;1.6816;
568.5000;0.4884;1.6864;
568.8000;0.4876;1.6793;
569.1000;0.4868;1.6840;
569.4000;0.4876;1.6911;
569.7000;0.4835;1.6793;
570.0000;0.4900;1.6959;
570.3000;0.4884;1.7030;
570.6000;0.4876;1.7078;
570.9000;0.4876;1.7149;
571.2000;0.4949;1.7386;
571.5000;0.4868;1.7125;
571.8000;0.4884;1.7030;
572.1000;0.4884;1.7078;
572.4000;0.4876;1.7078;
572.7000;0.4876;1.7054;
573.0000;0.4876;1.7030;
573.3000;0.4908;1.7173;
573.6000;0.4884;1.7078;
573.9000;0.4876;1.7173;
574.2000;0.4957;1.7386;
574.5000;0.4876;1.7220;
574.8000;0.4868;1.7220;
575.1000;0.4868;1.7125;
575.4000;0.4868;1.7030;
575.7000;0.4868;1.7006;
576.0000;0.4868;1.7030;
576.3000;0.4925;1.7173;
576.6000;0.4884;1.7030;
576.9000;0.4811;1.6816;
577.2000;0.4868;1.6959;
577.5000;0.4843;1.6935;
577.8000;0.4876;1.7054;
578.1000;0.4860;1.7006;
578.4000;0.4876;1.7078;
578.7000;0.4884;1.7101;
579.0000;0.4876;1.7101;
579.3000;0.4876;1.7101;
579.6000;0.4868;1.7101;
579.9000;0.4884;1.7149;
580.2000;0.4868;1.7196;
580.5000;0.4868;1.7173;
580.8000;0.4860;1.7054;
581.1000;0.4843;1.6935;
581.4000;0.4876;1.7006;
581.7000;0.4884;1.6911;
582.0000;0.4868;1.6888;
582.3000;0.4868;1.6840;
582.6000;0.4876;1.6840;
582.9000;0.4884;1.6840;
583.2000;0.4876;1.6793;
583.5000;0.4876;1.6864;
583.8000;0.4884;1.6983;
584.1000;0.4868;1.6935;
584.4000;0.4876;1.6959;
584.7000;0.4868;1.6983;
585.0000;0.4860;1.7006;
585.3000;0.4868;1.6959;
585.6000;0.4843;1.6888;
585.9000;0.4868;1.6864;
586.2000;0.4876;1.6888;
586.5000;0.4868;1.6793;
586.8000;0.4876;1.6769;
587.1000;0.4868;1.6816;
587.4000;0.4843;1.6793;
587.7000;0.4819;1.6650;
588.0000;0.4884;1.6793;
588.3000;0.4908;1.6935;
588.6000;0.4860;1.6769;
588.9000;0.4868;1.6793;
589.2000;0.4892;1.6769;
589.5000;0.4884;1.6745;
589.8000;0.4876;1.6721;
590.1000;0.4884;1.6769;
590.4000;0.4868;1.6745;
590.7000;0.4851;1.6721;
591.0000;0.4876;1.6769;
591.3000;0.4876;1.6721;
591.6000;0.4876;1.6721;
591.9000;0.4868;1.6816;
592.2000;0.4860;1.6793;
592.5000;0.4868;1.6864;
592.8000;0.4884;1.6888;
593.1000;0.4876;1.7030;
593.4000;0.4860;1.7006;
593.7000;0.4794;1.6816;
594.0000;0.4884;1.7030;
594.3000;0.4835;1.6888;
594.6000;0.4860;1.6935;
594.9000;0.4876;1.6911;
595.2000;0.4900;1.6816;
595.5000;0.4884;1.6864;
595.8000;0.4900;1.6959;
596.1000;0.4892;1.7006;
596.4000;0.4876;1.6864;
596.7000;0.4884;1.6911;
597.0000;0.4868;1.6816;
597.3000;0.4884;1.6864;
597.6000;0.4892;1.6911;
597.9000;0.4884;1.6864;
598.2000;0.4868;1.6864;
598.5000;0.4884;1.6911;
598.8000;0.4884;1.6983;
599.1000;0.4900;1.7030;
599.4000;0.4884;1.7078;
599.7000;0.4884;1.7078;
600.0000;0.4884;1.7054;
600.3000;0.4908;1.6959;
600.6000;0.4917;1.6864;
600.9000;0.4941;1.6769;
601.2000;0.4949;1.6674;
601.5000;0.4925;1.6555;
601.8000;0.4982;1.6508;
602.1000;0.4982;1.6436;
602.4000;0.4965;1.6246;
602.7000;0.5031;1.6223;
603.0000;0.5006;1.6056;
603.3000;0.4974;1.5961;
603.6000;0.4982;1.5938;
603.9000;0.4974;1.5866;
604.2000;0.4965;1.5843;
604.5000;0.4949;1.5724;
604.8000;0.4957;1.5700;
605.1000;0.4965;1.5700;
605.4000;0.4949;1.5700;
605.7000;0.4949;1.5581;
606.0000;0.4933;1.5534;
606.3000;0.4949;1.5558;
606.6000;0.4925;1.5581;
606.9000;0.4917;1.5558;
607.2000;0.4892;1.5439;
607.5000;0.4908;1.5463;
607.8000;0.4925;1.5534;
608.1000;0.4908;1.5534;
608.4000;0.4908;1.5510;
608.7000;0.4933;1.5558;
609.0000;0.4908;1.5534;
609.3000;0.4917;1.5581;
609.6000;0.4827;1.5463;
609.9000;0.4884;1.5605;
610.2000;0.4884;1.5653;
610.5000;0.4917;1.5795;
610.8000;0.4884;1.5676;
611.1000;0.4892;1.5700;
611.4000;0.4892;1.5724;
611.7000;0.4884;1.5605;
612.0000;0.4860;1.5486;
612.3000;0.4900;1.5510;
612.6000;0.4884;1.5463;
612.9000;0.4884;1.5486;
613.2000;0.4868;1.5368;
613.5000;0.4868;1.5391;
613.8000;0.4868;1.5368;
614.1000;0.4868;1.5486;
614.4000;0.4876;1.5510;
614.7000;0.4868;1.5439;
615.0000;0.4843;1.5439;
615.3000;0.4843;1.5439;
615.6000;0.4860;1.5510;
615.9000;0.4835;1.5320;
616.2000;0.4900;1.5463;
616.5000;0.4843;1.5415;
616.8000;0.4843;1.5368;
617.1000;0.4843;1.5368;
617.4000;0.4835;1.5249;
617.7000;0.4851;1.5368;
618.0000;0.4746;1.5201;
618.3000;0.4843;1.5439;
618.6000;0.4843;1.5439;
618.9000;0.4835;1.5368;
619.2000;0.4835;1.5344;
619.5000;0.4851;1.5439;
619.8000;0.4868;1.5463;
620.1000;0.4925;1.5581;
620.4000;0.4843;1.5415;
620.7000;0.4835;1.5344;
621.0000;0.4827;1.5320;
621.3000;0.4827;1.5201;
621.6000;0.4851;1.5273;
621.9000;0.4819;1.5154;
622.2000;0.4835;1.5178;
622.5000;0.4835;1.5178;
622.8000;0.4827;1.5178;
623.1000;0.4843;1.5178;
623.4000;0.4843;1.5273;
623.7000;0.4860;1.5344;
624.0000;0.4843;1.5320;
624.3000;0.4860;1.5273;
624.6000;0.4843;1.5296;
624.9000;0.4819;1.5320;
625.2000;0.4843;1.5273;
625.5000;0.4908;1.5415;
625.8000;0.4851;1.5201;
626.1000;0.4843;1.5201;
626.4000;0.4827;1.5225;
626.7000;0.4835;1.5178;
627.0000;0.4835;1.5178;
627.3000;0.4819;1.5130;
627.6000;0.4819;1.5106;
627.9000;0.4843;1.5178;
628.2000;0.4835;1.5178;
628.5000;0.4729;1.4964;
628.8000;0.4827;1.5178;
629.1000;0.4835;1.5178;
629.4000;0.4762;1.4988;
629.7000;0.4843;1.5130;
630.0000;0.4827;1.5130;
630.3000;0.4851;1.5154;
630.6000;0.4827;1.5130;
630.9000;0.4819;1.5154;
631.2000;0.4835;1.5201;
631.5000;0.4835;1.5273;
631.8000;0.4851;1.5368;
632.1000;0.4835;1.5486;
632.4000;0.4835;1.5391;
632.7000;0.4835;1.5391;
633.0000;0.4827;1.5415;
633.3000;0.4827;1.5415;
633.6000;0.4827;1.5415;
633.9000;0.4827;1.5415;
634.2000;0.4803;1.5344;
634.5000;0.4819;1.5368;
634.8000;0.4827;1.5273;
635.1000;0.4827;1.5178;
635.4000;0.4819;1.5130;
635.7000;0.4843;1.5201;
636.0000;0.4819;1.5154;
636.3000;0.4835;1.5178;
636.6000;0.4827;1.5154;
636.9000;0.4835;1.5201;
637.2000;0.4860;1.5415;
637.5000;0.4835;1.5344;
637.8000;0.4835;1.5320;
638.1000;0.4843;1.5344;
638.4000;0.4819;1.5249;
638.7000;0.4819;1.5296;
639.0000;0.4835;1.5344;
639.3000;0.4827;1.5344;
639.6000;0.4819;1.5273;
639.9000;0.4778;1.5130;
640.2000;0.4811;1.5130;
640.5000;0.4843;1.5178;
640.8000;0.4835;1.5178;
641.1000;0.4827;1.5106;
641.4000;0.4827;1.5059;
641.7000;0.4835;1.5178;
642.0000;0.4933;1.5391;
642.3000;0.4803;1.5130;
642.6000;0.4827;1.5178;
642.9000;0.4908;1.5415;
643.2000;0.4835;1.5178;
643.5000;0.4835;1.5201;
643.8000;0.4819;1.5201;
644.1000;0.4835;1.5178;
644.4000;0.4811;1.5130;
644.7000;0.4819;1.5225;
645.0000;0.4811;1.5273;
645.3000;0.4868;1.5486;
645.6000;0.4819;1.5249;
645.9000;0.4835;1.5225;
646.2000;0.4827;1.5130;
646.5000;0.4819;1.5249;
646.8000;0.4819;1.5368;
647.1000;0.4803;1.5249;
647.4000;0.4827;1.5225;
647.7000;0.4803;1.5106;
648.0000;0.4835;1.5130;
648.3000;0.4843;1.5154;
648.6000;0.4835;1.5178;
648.9000;0.4835;1.5154;
649.2000;0.4884;1.5320;
649.5000;0.4827;1.5249;
649.8000;0.4835;1.5201;
650.1000;0.4843;1.5201;
650.4000;0.4794;1.5083;
650.7000;0.4827;1.5225;
651.0000;0.4827;1.5178;
651.3000;0.4819;1.5059;
651.6000;0.4860;1.5011;
651.9000;0.4827;1.5059;
652.2000;0.4819;1.5083;
652.5000;0.4827;1.5154;
652.8000;0.4835;1.5130;
653.1000;0.4835;1.5154;
653.4000;0.4819;1.5106;
653.7000;0.4835;1.4988;
654.0000;0.4811;1.5059;
654.3000;0.4819;1.5178;
654.6000;0.4819;1.5154;
654.9000;0.4803;1.5154;
655.2000;0.4794;1.5225;
655.5000;0.4811;1.5225;
655.8000;0.4819;1.5249;
656.1000;0.4803;1.5178;
656.4000;0.4827;1.5178;
656.7000;0.4811;1.5130;
657.0000;0.4811;1.5225;
657.3000;0.4827;1.5249;
657.6000;0.4811;1.5201;
657.9000;0.4819;1.5344;
658.2000;0.4835;1.5391;
658.5000;0.4770;1.5154;
658.8000;0.4819;1.5344;
659.1000;0.4819;1.5320;
659.4000;0.4778;1.5106;
659.7000;0.4827;1.5273;
660.0000;0.4843;1.5225;
660.3000;0.4851;1.5201;
660.6000;0.4892;1.5415;
660.9000;0.4819;1.5273;
661.2000;0.4868;1.5344;
661.5000;0.4827;1.5201;
661.8000;0.4827;1.5178;
662.1000;0.4811;1.5178;
662.4000;0.4827;1.5249;
662.7000;0.4827;1.5225;
663.0000;0.4827;1.5320;
663.3000;0.4819;1.5296;
663.6000;0.4827;1.5225;
663.9000;0.4851;1.5201;
664.2000;0.4835;1.5249;
664.5000;0.4811;1.5201;
664.8000;0.4835;1.5201;
665.1000;0.4827;1.5201;
665.4000;0.4811;1.5201;
665.7000;0.4843;1.5296;
666.0000;0.4827;1.5296;
666.3000;0.4762;1.5106;
666.6000;0.4819;1.5439;
666.9000;0.4819;1.5368;
667.2000;0.4827;1.5439;
667.5000;0.4819;1.5344;
667.8000;0.4811;1.5296;
668.1000;0.4868;1.5415;
668.4000;0.4811;1.5201;
668.7000;0.4811;1.5154;
669.0000;0.4819;1.5130;
669.3000;0.4811;1.5201;
669.6000;0.4876;1.5249;
669.9000;0.4835;1.5178;
670.2000;0.4843;1.5201;
670.5000;0.4819;1.5178;
670.8000;0.4835;1.5201;
671.1000;0.4827;1.5178;
671.4000;0.4819;1.5130;
671.7000;0.4843;1.5178;
672.0000;0.4827;1.5059;
672.3000;0.4827;1.4988;
672.6000;0.4835;1.4964;
672.9000;0.4819;1.5035;
673.2000;0.4835;1.5106;
673.5000;0.4843;1.5201;
673.8000;0.4835;1.5225;
674.1000;0.4811;1.5201;
674.4000;0.4827;1.5130;
674.7000;0.4851;1.5178;
675.0000;0.4835;1.5106;
675.3000;0.4843;1.5059;
675.6000;0.4827;1.5011;
675.9000;0.4827;1.5059;
676.2000;0.4835;1.5106;
676.5000;0.4835;1.5035;
676.8000;0.4835;1.5059;
677.1000;0.4860;1.5225;
677.4000;0.4819;1.5083;
677.7000;0.4884;1.5106;
678.0000;0.4827;1.5035;
678.3000;0.4835;1.4964;
678.6000;0.4827;1.4869;
678.9000;0.4835;1.5011;
679.2000;0.4835;1.4964;
679.5000;0.4811;1.4893;
679.8000;0.4819;1.4964;
680.1000;0.4835;1.5106;
680.4000;0.4811;1.5035;
680.7000;0.4811;1.5106;
681.0000;0.4819;1.5154;
681.3000;0.4827;1.5178;
681.6000;0.4835;1.5059;
681.9000;0.4835;1.5011;
682.2000;0.4860;1.5130;
682.5000;0.4803;1.5083;
682.8000;0.4811;1.5201;
683.1000;0.4827;1.5106;
683.4000;0.4835;1.5130;
683.7000;0.4794;1.5011;
684.0000;0.4819;1.5059;
684.3000;0.4827;1.4988;
684.6000;0.4835;1.4940;
684.9000;0.4827;1.4940;
685.2000;0.4827;1.5011;
685.5000;0.4794;1.4964;
685.8000;0.4827;1.5011;
686.1000;0.4819;1.4940;
686.4000;0.4835;1.5011;
686.7000;0.4827;1.5011;
687.0000;0.4811;1.4964;
687.3000;0.4827;1.4988;
687.6000;0.4827;1.4964;
687.9000;0.4827;1.4988;
688.2000;0.4835;1.5059;
688.5000;0.4851;1.5059;
688.8000;0.4851;1.5130;
689.1000;0.4835;1.5130;
689.4000;0.4835;1.5178;
689.7000;0.4835;1.5178;
690.0000;0.4843;1.5130;
690.3000;0.4762;1.4964;
690.6000;0.4811;1.5083;
690.9000;0.4819;1.5035;
691.2000;0.4819;1.4988;
691.5000;0.4843;1.5059;
691.8000;0.4827;1.5059;
692.1000;0.4827;1.4940;
692.4000;0.4941;1.5178;
692.7000;0.4876;1.5083;
693.0000;0.4819;1.4988;
693.3000;0.4754;1.4893;
693.6000;0.4835;1.5106;
693.9000;0.4925;1.5415;
694.2000;0.4851;1.5178;
694.5000;0.4843;1.5154;
694.8000;0.4827;1.5201;
695.1000;0.4851;1.5273;
695.4000;0.4835;1.5296;
695.7000;0.4827;1.5249;
696.0000;0.4827;1.5391;
696.3000;0.4835;1.5415;
696.6000;0.4754;1.5249;
696.9000;0.4835;1.5391;
697.2000;0.4835;1.5510;
697.5000;0.4835;1.5463;
697.8000;0.4827;1.5391;
698.1000;0.4819;1.5296;
698.4000;0.4843;1.5296;
698.7000;0.4835;1.5273;
699.0000;0.4811;1.5249;
699.3000;0.4811;1.5225;
699.6000;0.4819;1.5201;
699.9000;0.4843;1.5225;
700.2000;0.4843;1.5178;
700.5000;0.4835;1.5130;
700.8000;0.4843;1.5178;
701.1000;0.4819;1.5130;
701.4000;0.4827;1.5059;
701.7000;0.4835;1.4964;
702.0000;0.4827;1.4916;
702.3000;0.4827;1.5011;
702.6000;0.4835;1.5106;
702.9000;0.4835;1.5130;
703.2000;0.4827;1.5083;
703.5000;0.4803;1.5059;
703.8000;0.4819;1.5178;
704.1000;0.4827;1.5154;
704.4000;0.4843;1.5201;
704.7000;0.4827;1.5201;
705.0000;0.4811;1.5201;
705.3000;0.4835;1.5296;
705.6000;0.4827;1.5249;
705.9000;0.4803;1.5154;
706.2000;0.4835;1.5225;
706.5000;0.4835;1.5201;
706.8000;0.4835;1.5225;
707.1000;0.4843;1.5296;
707.4000;0.4827;1.5201;
707.7000;0.4868;1.5249;
708.0000;0.4860;1.5154;
708.3000;0.4876;1.5201;
708.6000;0.4827;1.5083;
708.9000;0.4835;1.5154;
709.2000;0.4843;1.5154;
709.5000;0.4827;1.5059;
709.8000;0.4835;1.5154;
710.1000;0.4835;1.5201;
710.4000;0.4843;1.5273;
710.7000;0.4835;1.5296;
711.0000;0.4819;1.5273;
711.3000;0.4835;1.5273;
711.6000;0.4835;1.5249;
711.9000;0.4827;1.5130;
712.2000;0.4900;1.5201;
712.5000;0.4827;1.4988;
712.8000;0.4827;1.4988;
713.1000;0.4843;1.5035;
713.4000;0.4835;1.5083;
713.7000;0.4835;1.5130;
714.0000;0.4835;1.5130;
714.3000;0.4851;1.5154;
714.6000;0.4827;1.5083;
714.9000;0.4827;1.5059;
715.2000;0.4843;1.4988;
715.5000;0.4835;1.5011;
715.8000;0.4827;1.5011;
716.1000;0.4827;1.4988;
716.4000;0.4843;1.5011;
716.7000;0.4843;1.5059;
717.0000;0.4843;1.4988;
717.3000;0.4900;1.5178;
717.6000;0.4892;1.5178;
717.9000;0.4843;1.4988;
718.2000;0.4819;1.4893;
718.5000;0.4827;1.4916;
718.8000;0.4819;1.4916;
719.1000;0.4835;1.4988;
719.4000;0.4884;1.5035;
719.7000;0.4876;1.5011;
720.0000;0.4827;1.4916;
720.3000;0.4827;1.4916;
720.6000;0.4835;1.5011;
720.9000;0.4827;1.4940;
721.2000;0.4835;1.4988;
721.5000;0.4835;1.5035;
721.8000;0.4835;1.4964;
722.1000;0.4843;1.4940;
722.4000;0.4803;1.4750;
722.7000;0.4835;1.4869;
723.0000;0.4819;1.4750;
723.3000;0.4868;1.4916;
723.6000;0.4827;1.4988;
723.9000;0.4754;1.4750;
724.2000;0.4827;1.5059;
724.5000;0.4843;1.5083;
724.8000;0.4827;1.4988;
725.1000;0.4843;1.5059;
725.4000;0.4819;1.5059;
725.7000;0.4843;1.5178;
726.0000;0.4835;1.5106;
726.3000;0.4843;1.5083;
726.6000;0.4908;1.5249;
726.9000;0.4843;1.5154;
727.2000;0.4868;1.5154;
727.5000;0.4835;1.4988;
727.8000;0.4835;1.4940;
728.1000;0.4843;1.5059;
728.4000;0.4851;1.5035;
728.7000;0.4908;1.5178;
729.0000;0.4843;1.4964;
729.3000;0.4827;1.4988;
729.6000;0.4811;1.4916;
729.9000;0.4827;1.4988;
730.2000;0.4827;1.5011;
730.5000;0.4819;1.4964;
730.8000;0.4827;1.4988;
731.1000;0.4819;1.4988;
731.4000;0.4835;1.5035;
731.7000;0.4746;1.4726;
732.0000;0.4843;1.5083;
732.3000;0.4843;1.5059;
732.6000;0.4835;1.4893;
732.9000;0.4835;1.4893;
733.2000;0.4851;1.4964;
733.5000;0.4843;1.4988;
733.8000;0.4835;1.5035;
734.1000;0.4835;1.4988;
734.4000;0.4835;1.4964;
734.7000;0.4851;1.4940;
735.0000;0.4835;1.4845;
735.3000;0.4819;1.4964;
735.6000;0.4843;1.5059;
735.9000;0.4843;1.4964;
736.2000;0.4819;1.4869;
736.5000;0.4835;1.4845;
736.8000;0.4860;1.5011;
737.1000;0.4843;1.5011;
737.4000;0.4868;1.5035;
737.7000;0.4851;1.4988;
738.0000;0.4851;1.5011;
738.3000;0.4843;1.5059;
738.6000;0.4811;1.4940;
738.9000;0.4835;1.4988;
739.2000;0.4835;1.5011;
739.5000;0.4819;1.4916;
739.8000;0.4843;1.4940;
740.1000;0.4835;1.4893;
740.4000;0.4835;1.4940;
740.7000;0.4843;1.4988;
741.0000;0.4835;1.5011;
741.3000;0.4843;1.5106;
741.6000;0.4843;1.5059;
741.9000;0.4835;1.5106;
742.2000;0.4843;1.5130;
742.5000;0.4819;1.5035;
742.8000;0.4843;1.5106;
743.1000;0.4835;1.5106;
743.4000;0.4811;1.4940;
743.7000;0.4917;1.5249;
744.0000;0.4835;1.5011;
744.3000;0.4860;1.5130;
744.6000;0.4876;1.5130;
744.9000;0.4835;1.5059;
745.2000;0.4843;1.5059;
745.5000;0.4819;1.4988;
745.8000;0.4770;1.4750;
746.1000;0.4868;1.4988;
746.4000;0.4843;1.5011;
746.7000;0.4843;1.4964;
747.0000;0.4762;1.4726;
747.3000;0.4868;1.4964;
747.6000;0.4851;1.4940;
747.9000;0.4819;1.4845;
748.2000;0.4843;1.4988;
748.5000;0.4835;1.4964;
748.8000;0.4851;1.5035;
749.1000;0.4835;1.4893;
749.4000;0.4835;1.4869;
749.7000;0.4843;1.4845;
750.0000;0.4835;1.4750;
750.3000;0.4827;1.4679;
750.6000;0.4827;1.4726;
750.9000;0.4843;1.4893;
751.2000;0.4851;1.4940;
751.5000;0.4819;1.4845;
751.8000;0.4843;1.4869;
752.1000;0.4843;1.4916;
752.4000;0.4851;1.4869;
752.7000;0.4843;1.4774;
753.0000;0.4835;1.4702;
753.3000;0.4933;1.4988;
753.6000;0.4827;1.4798;
753.9000;0.4819;1.4774;
754.2000;0.4827;1.4869;
754.5000;0.4843;1.4988;
754.8000;0.4851;1.4940;
755.1000;0.4835;1.4893;
755.4000;0.4851;1.4845;
755.7000;0.4868;1.4964;
756.0000;0.4868;1.4964;
756.3000;0.4851;1.5011;
756.6000;0.4843;1.4964;
756.9000;0.4851;1.4964;
757.2000;0.4851;1.4964;
757.5000;0.4851;1.5011;
757.8000;0.4794;1.4893;
758.1000;0.4786;1.4869;
758.4000;0.4868;1.5035;
758.7000;0.4860;1.5130;
759.0000;0.4835;1.4988;
759.3000;0.4851;1.4988;
759.6000;0.4843;1.4964;
759.9000;0.4843;1.5011;
760.2000;0.4811;1.5011;
760.5000;0.4827;1.5035;
760.8000;0.4835;1.5083;
761.1000;0.4876;1.5178;
761.4000;0.4908;1.5249;
761.7000;0.4860;1.5106;
762.0000;0.4860;1.5154;
762.3000;0.4860;1.5059;
762.6000;0.4819;1.4964;
762.9000;0.4835;1.4988;
763.2000;0.4851;1.5011;
763.5000;0.4843;1.4988;
763.8000;0.4819;1.4964;
764.1000;0.4843;1.5059;
764.4000;0.4843;1.5011;
764.7000;0.4860;1.4940;
765.0000;0.4860;1.4988;
765.3000;0.4827;1.4916;
765.6000;0.4827;1.5011;
765.9000;0.4827;1.5011;
766.2000;0.4843;1.5059;
766.5000;0.4794;1.4869;
766.8000;0.4851;1.4988;
767.1000;0.4884;1.5059;
767.4000;0.4851;1.5011;
767.7000;0.4851;1.4964;
768.0000;0.4876;1.5083;
768.3000;0.4843;1.5035;
768.6000;0.4843;1.5059;
768.9000;0.4851;1.5106;
769.2000;0.4835;1.5154;
769.5000;0.4835;1.5225;
769.8000;0.4851;1.5201;
770.1000;0.4843;1.5130;
770.4000;0.4900;1.5273;
770.7000;0.4835;1.5154;
771.0000;0.4851;1.5201;
771.3000;0.4843;1.5154;
771.6000;0.4843;1.5106;
771.9000;0.4843;1.5201;
772.2000;0.4860;1.5201;
772.5000;0.4860;1.5225;
772.8000;0.4843;1.5225;
773.1000;0.4860;1.5320;
773.4000;0.4843;1.5273;
773.7000;0.4843;1.5368;
774.0000;0.4851;1.5368;
774.3000;0.4843;1.5391;
774.6000;0.4860;1.5344;
774.9000;0.4851;1.5344;
775.2000;0.4925;1.5486;
775.5000;0.4843;1.5225;
775.8000;0.4835;1.5201;
776.1000;0.4835;1.5225;
776.4000;0.4851;1.5296;
776.7000;0.4843;1.5225;
777.0000;0.4884;1.5249;
777.3000;0.4851;1.5130;
777.6000;0.4925;1.5249;
777.9000;0.4868;1.4940;
778.2000;0.4843;1.4869;
778.5000;0.4835;1.4916;
778.8000;0.4851;1.4988;
779.1000;0.4908;1.5225;
779.4000;0.4843;1.5059;
779.7000;0.4843;1.5083;
780.0000;0.4851;1.5035;
780.3000;0.4860;1.5011;
780.6000;0.4851;1.4845;
780.9000;0.4851;1.4845;
781.2000;0.4876;1.5011;
781.5000;0.4851;1.4964;
781.8000;0.4851;1.4988;
782.1000;0.4762;1.4821;
782.4000;0.4778;1.4893;
782.7000;0.4843;1.5059;
783.0000;0.4851;1.5059;
783.3000;0.4884;1.5130;
783.6000;0.4843;1.5178;
783.9000;0.4851;1.5106;
784.2000;0.4851;1.5130;
784.5000;0.4868;1.5106;
784.8000;0.4835;1.5059;
785.1000;0.4851;1.5059;
785.4000;0.4851;1.5059;
785.7000;0.4843;1.5011;
786.0000;0.4843;1.5011;
786.3000;0.4843;1.4988;
786.6000;0.4835;1.4988;
786.9000;0.4843;1.5106;
787.2000;0.4851;1.5201;
787.5000;0.4851;1.5249;
787.8000;0.4868;1.5154;
788.1000;0.4843;1.5106;
788.4000;0.4835;1.5083;
788.7000;0.4835;1.5083;
789.0000;0.4843;1.5059;
789.3000;0.4876;1.5011;
789.6000;0.4835;1.4940;
789.9000;0.4860;1.5059;
790.2000;0.4876;1.5106;
790.5000;0.4860;1.5059;
790.8000;0.4851;1.4988;
791.1000;0.4860;1.4940;
791.4000;0.4876;1.4916;
791.7000;0.4843;1.4893;
792.0000;0.4860;1.4893;
792.3000;0.4860;1.4988;
792.6000;0.4851;1.4988;
792.9000;0.4827;1.4940;
793.2000;0.4843;1.4988;
793.5000;0.4851;1.5035;
793.8000;0.4851;1.5035;
794.1000;0.4835;1.4988;
794.4000;0.4843;1.4988;
794.7000;0.4835;1.4916;
795.0000;0.4851;1.4940;
795.3000;0.4884;1.4916;
795.6000;0.4860;1.4940;
795.9000;0.4851;1.4845;
796.2000;0.4851;1.4869;
796.5000;0.4860;1.4893;
796.8000;0.4851;1.4869;
797.1000;0.4843;1.4869;
797.4000;0.4851;1.4821;
797.7000;0.4843;1.4774;
798.0000;0.4851;1.4774;
798.3000;0.4819;1.4726;
798.6000;0.4843;1.4893;
798.9000;0.4851;1.4845;
799.2000;0.4900;1.4988;
799.5000;0.4843;1.4845;
799.8000;0.4843;1.4869;
800.1000;0.4860;1.4940;
800.4000;0.4868;1.4964;
800.7000;0.4851;1.5011;
801.0000;0.4868;1.5106;
801.3000;0.4860;1.5059;
801.6000;0.4851;1.5011;
801.9000;0.4860;1.5011;
802.2000;0.4843;1.4964;
802.5000;0.4851;1.4988;
802.8000;0.4851;1.4964;
803.1000;0.4843;1.4869;
803.4000;0.4860;1.4869;
803.7000;0.4868;1.4916;
804.0000;0.4778;1.4726;
804.3000;0.4851;1.4916;
804.6000;0.4835;1.4893;
804.9000;0.4843;1.4916;
805.2000;0.4835;1.4893;
805.5000;0.4868;1.4893;
805.8000;0.4860;1.4916;
806.1000;0.4835;1.4774;
806.4000;0.4851;1.4869;
806.7000;0.4851;1.4726;
807.0000;0.4868;1.4750;
807.3000;0.4851;1.4631;
807.6000;0.4835;1.4631;
807.9000;0.4851;1.4702;
808.2000;0.4827;1.4679;
808.5000;0.4843;1.4750;
808.8000;0.4868;1.4869;
809.1000;0.4868;1.4869;
809.4000;0.4860;1.4893;
809.7000;0.4851;1.4845;
810.0000;0.4860;1.4893;
810.3000;0.4860;1.4845;
810.6000;0.4876;1.4869;
810.9000;0.4851;1.4869;
811.2000;0.4851;1.5011;
811.5000;0.4876;1.5035;
811.8000;0.4868;1.5035;
812.1000;0.4851;1.4964;
812.4000;0.4908;1.5154;
812.7000;0.4851;1.4988;
813.0000;0.4851;1.4940;
813.3000;0.4843;1.4893;
813.6000;0.4835;1.4774;
813.9000;0.4851;1.4798;
814.2000;0.4843;1.4916;
814.5000;0.4835;1.4964;
814.8000;0.4860;1.4964;
815.1000;0.4778;1.4750;
815.4000;0.4843;1.4893;
815.7000;0.4868;1.5011;
816.0000;0.4860;1.4893;
816.3000;0.4851;1.4845;
816.6000;0.4851;1.4845;
816.9000;0.4860;1.4821;
817.2000;0.4860;1.4726;
817.5000;0.4843;1.4726;
817.8000;0.4949;1.5035;
818.1000;0.4860;1.4798;
818.4000;0.4851;1.4750;
818.7000;0.4876;1.4845;
819.0000;0.4860;1.4869;
819.3000;0.4900;1.5011;
819.6000;0.4851;1.4988;
819.9000;0.4860;1.4916;
820.2000;0.4827;1.4821;
820.5000;0.4908;1.5083;
820.8000;0.4876;1.5011;
821.1000;0.4868;1.4964;
821.4000;0.4843;1.4916;
821.7000;0.4868;1.4940;
822.0000;0.4868;1.4916;
822.3000;0.4860;1.4893;
822.6000;0.4860;1.4916;
822.9000;0.4843;1.4940;
823.2000;0.4868;1.5083;
823.5000;0.4762;1.4774;
823.8000;0.4835;1.4940;
824.1000;0.4851;1.5035;
824.4000;0.4933;1.5178;
824.7000;0.4860;1.4964;
825.0000;0.4868;1.4916;
825.3000;0.4868;1.4916;
825.6000;0.4868;1.4964;
825.9000;0.4835;1.4916;
826.2000;0.4851;1.5083;
826.5000;0.4860;1.5059;
826.8000;0.4876;1.5059;
827.1000;0.4876;1.5035;
827.4000;0.4884;1.5059;
827.7000;0.4900;1.5154;
828.0000;0.4860;1.5083;
828.3000;0.4860;1.5083;
828.6000;0.4860;1.4964;
828.9000;0.4860;1.4916;
829.2000;0.4860;1.4964;
829.5000;0.4851;1.4869;
829.8000;0.4860;1.4774;
830.1000;0.4876;1.4702;
830.4000;0.4868;1.4702;
830.7000;0.4851;1.4774;
831.0000;0.4860;1.4774;
831.3000;0.4876;1.4750;
831.6000;0.4868;1.4750;
831.9000;0.4860;1.4774;
832.2000;0.4851;1.4821;
832.5000;0.4851;1.4821;
832.8000;0.4868;1.4821;
833.1000;0.4876;1.4821;
833.4000;0.4868;1.4821;
833.7000;0.4851;1.4798;
834.0000;0.4851;1.4845;
834.3000;0.4860;1.4821;
834.6000;0.4876;1.4821;
834.9000;0.4868;1.4750;
835.2000;0.4868;1.4750;
835.5000;0.4876;1.4750;
835.8000;0.4868;1.4702;
836.1000;0.4908;1.4821;
836.4000;0.4851;1.4774;
836.7000;0.4868;1.4845;
837.0000;0.4876;1.4893;
837.3000;0.4860;1.4869;
837.6000;0.4819;1.4893;
837.9000;0.4851;1.5011;
838.2000;0.4851;1.5083;
838.5000;0.4868;1.5106;
838.8000;0.4835;1.4988;
839.1000;0.4843;1.4964;
839.4000;0.4860;1.5059;
839.7000;0.4868;1.5083;
840.0000;0.4803;1.4798;
840.3000;0.4860;1.4964;
840.6000;0.4851;1.4988;
840.9000;0.4860;1.4964;
841.2000;0.4860;1.4940;
841.5000;0.4868;1.4964;
841.8000;0.4868;1.4916;
842.1000;0.4868;1.4845;
842.4000;0.4835;1.4750;
842.7000;0.4884;1.4774;
843.0000;0.4860;1.4774;
843.3000;0.4851;1.4774;
843.6000;0.4868;1.4893;
843.9000;0.4868;1.4916;
844.2000;0.4851;1.4869;
844.5000;0.4868;1.4821;
844.8000;0.4933;1.4916;
845.1000;0.4860;1.4845;
845.4000;0.4868;1.4869;
845.7000;0.4876;1.4869;
846.0000;0.4884;1.4964;
846.3000;0.4835;1.4869;
846.6000;0.4843;1.4916;
846.9000;0.4860;1.4869;
847.2000;0.4868;1.4845;
847.5000;0.4876;1.4821;
847.8000;0.4860;1.4750;
848.1000;0.4868;1.4845;
848.4000;0.4860;1.4845;
848.7000;0.4860;1.4893;
849.0000;0.4851;1.4869;
849.3000;0.4900;1.4964;
849.6000;0.4868;1.4869;
849.9000;0.4876;1.4893;
850.2000;0.4876;1.4893;
850.5000;0.4876;1.4916;
850.8000;0.4876;1.4940;
851.1000;0.4876;1.4964;
851.4000;0.4876;1.4869;
851.7000;0.4884;1.4869;
852.0000;0.4868;1.4821;
852.3000;0.4892;1.4869;
852.6000;0.4876;1.4869;
852.9000;0.4868;1.4798;
853.2000;0.4868;1.4750;
853.5000;0.4860;1.4655;
853.8000;0.4851;1.4702;
854.1000;0.4860;1.4726;
854.4000;0.4868;1.4679;
854.7000;0.4860;1.4631;
855.0000;0.4860;1.4607;
855.3000;0.4860;1.4607;
855.6000;0.4884;1.4702;
855.9000;0.4868;1.4631;
856.2000;0.4876;1.4679;
856.5000;0.4876;1.4774;
856.8000;0.4860;1.4750;
857.1000;0.4884;1.4869;
857.4000;0.4868;1.4869;
857.7000;0.4851;1.4821;
858.0000;0.4851;1.4750;
858.3000;0.4851;1.4702;
858.6000;0.4884;1.4821;
858.9000;0.4868;1.4845;
859.2000;0.4860;1.4798;
859.5000;0.4876;1.4750;
859.8000;0.4892;1.4845;
860.1000;0.4827;1.4679;
860.4000;0.4876;1.4798;
860.7000;0.4851;1.4702;
861.0000;0.4876;1.4774;
861.3000;0.4884;1.4798;
861.6000;0.4851;1.4726;
861.9000;0.4860;1.4845;
862.2000;0.4851;1.4798;
862.5000;0.4868;1.4774;
862.8000;0.4851;1.4702;
863.1000;0.4843;1.4655;
863.4000;0.4860;1.4679;
863.7000;0.4851;1.4821;
864.0000;0.4843;1.4750;
864.3000;0.4860;1.4821;
864.6000;0.4876;1.4988;
864.9000;0.4860;1.4988;
865.2000;0.4868;1.4916;
865.5000;0.4860;1.4869;
865.8000;0.4884;1.4893;
866.1000;0.4892;1.4916;
866.4000;0.4884;1.4893;
866.7000;0.4876;1.4774;
867.0000;0.4876;1.4702;
867.3000;0.4900;1.4726;
867.6000;0.4876;1.4702;
867.9000;0.4860;1.4655;
868.2000;0.4811;1.4441;
868.5000;0.4876;1.4560;
868.8000;0.4876;1.4560;
869.1000;0.4868;1.4512;
869.4000;0.4941;1.4726;
869.7000;0.4868;1.4584;
870.0000;0.4851;1.4560;
870.3000;0.4884;1.4584;
870.6000;0.4860;1.4441;
870.9000;0.4876;1.4417;
871.2000;0.4876;1.4441;
871.5000;0.4876;1.4536;
871.8000;0.4876;1.4584;
872.1000;0.4908;1.4679;
872.4000;0.4868;1.4607;
872.7000;0.4868;1.4607;
873.0000;0.4860;1.4679;
873.3000;0.4860;1.4774;
873.6000;0.4876;1.4821;
873.9000;0.4884;1.4821;
874.2000;0.4884;1.4845;
874.5000;0.4900;1.4988;
874.8000;0.4884;1.4893;
875.1000;0.4811;1.4631;
875.4000;0.4868;1.4774;
875.7000;0.4860;1.4869;
876.0000;0.4851;1.4798;
876.3000;0.4884;1.4869;
876.6000;0.4908;1.4964;
876.9000;0.4860;1.4916;
877.2000;0.4860;1.4964;
877.5000;0.4868;1.4916;
877.8000;0.4860;1.4964;
878.1000;0.4876;1.5059;
878.4000;0.4876;1.5035;
878.7000;0.4876;1.4988;
879.0000;0.4868;1.4916;
879.3000;0.4860;1.4869;
879.6000;0.4892;1.4869;
879.9000;0.4884;1.4916;
880.2000;0.4884;1.4940;
880.5000;0.4868;1.4964;
880.8000;0.4876;1.5059;
881.1000;0.4876;1.5059;
881.4000;0.4892;1.5059;
881.7000;0.4884;1.5059;
882.0000;0.4868;1.4940;
882.3000;0.4868;1.4964;
882.6000;0.4892;1.5059;
882.9000;0.4876;1.5106;
883.2000;0.4868;1.5083;
883.5000;0.4884;1.5011;
883.8000;0.4794;1.4798;
884.1000;0.4884;1.5035;
884.4000;0.4811;1.4821;
884.7000;0.4884;1.4988;
885.0000;0.4876;1.4940;
885.3000;0.4876;1.4988;
885.6000;0.4860;1.4893;
885.9000;0.4860;1.4916;
886.2000;0.4868;1.4916;
886.5000;0.4876;1.4940;
886.8000;0.4868;1.4916;
887.1000;0.4860;1.4845;
887.4000;0.4860;1.4845;
887.7000;0.4851;1.4845;
888.0000;0.4851;1.4726;
888.3000;0.4876;1.4798;
888.6000;0.4892;1.4798;
888.9000;0.4868;1.4774;
889.2000;0.4876;1.4845;
889.5000;0.4884;1.4750;
889.8000;0.4868;1.4774;
890.1000;0.4884;1.4893;
890.4000;0.4892;1.4916;
890.7000;0.4876;1.4869;
891.0000;0.4868;1.4869;
891.3000;0.4900;1.4893;
891.6000;0.4884;1.4845;
891.9000;0.4860;1.4798;
892.2000;0.4843;1.4726;
892.5000;0.4868;1.4726;
892.8000;0.4884;1.4679;
893.1000;0.4868;1.4655;
893.4000;0.4884;1.4679;
893.7000;0.4876;1.4631;
894.0000;0.4876;1.4679;
894.3000;0.4933;1.4869;
894.6000;0.4884;1.4702;
894.9000;0.4900;1.4726;
895.2000;0.4843;1.4607;
895.5000;0.4884;1.4750;
895.8000;0.4892;1.4893;
896.1000;0.4811;1.4607;
896.4000;0.4884;1.4821;
896.7000;0.4811;1.4560;
897.0000;0.4900;1.4750;
897.3000;0.4868;1.4584;
897.6000;0.4827;1.4489;
897.9000;0.4884;1.4631;
898.2000;0.4884;1.4655;
898.5000;0.4803;1.4512;
898.8000;0.4876;1.4774;
899.1000;0.4892;1.4893;
899.4000;0.4884;1.4821;
899.7000;0.4827;1.4702;
900.0000;0.4851;1.4798;
900.3000;0.4876;1.4869;
900.6000;0.4884;1.4869;
900.9000;0.4868;1.4869;
901.2000;0.4876;1.4845;
901.5000;0.4860;1.4845;
901.8000;0.4884;1.4869;
902.1000;0.4876;1.4845;
902.4000;0.4974;1.5059;
902.7000;0.4884;1.4750;
903.0000;0.4868;1.4679;
903.3000;0.4892;1.4750;
903.6000;0.4868;1.4798;
903.9000;0.4876;1.4821;
904.2000;0.4876;1.4798;
904.5000;0.4876;1.4726;
904.8000;0.4884;1.4679;
905.1000;0.4884;1.4655;
905.4000;0.4876;1.4584;
905.7000;0.4892;1.4512;
906.0000;0.4876;1.4512;
906.3000;0.4900;1.4607;
906.6000;0.4957;1.4798;
906.9000;0.4892;1.4655;
907.2000;0.4868;1.4607;
907.5000;0.4892;1.4726;
907.8000;0.4876;1.4607;
908.1000;0.4884;1.4750;
908.4000;0.4884;1.4702;
908.7000;0.4851;1.4560;
909.0000;0.4868;1.4679;
909.3000;0.4835;1.4631;
909.6000;0.4884;1.4702;
909.9000;0.4917;1.4821;
910.2000;0.4884;1.4774;
910.5000;0.4900;1.4893;
910.8000;0.4876;1.4869;
911.1000;0.4900;1.4940;
911.4000;0.4876;1.4821;
911.7000;0.4884;1.4869;
912.0000;0.4868;1.4750;
912.3000;0.4876;1.4774;
912.6000;0.4876;1.4702;
912.9000;0.4884;1.4750;
913.2000;0.4884;1.4750;
913.5000;0.4876;1.4655;
913.8000;0.4876;1.4655;
914.1000;0.4876;1.4702;
914.4000;0.4908;1.4869;
914.7000;0.4876;1.4702;
915.0000;0.4868;1.4631;
915.3000;0.4884;1.4655;
915.6000;0.4884;1.4584;
915.9000;0.4884;1.4655;
916.2000;0.4892;1.4702;
916.5000;0.4884;1.4631;
916.8000;0.4884;1.4702;
917.1000;0.4917;1.4798;
917.4000;0.4884;1.4750;
917.7000;0.4884;1.4750;
918.0000;0.4892;1.4798;
918.3000;0.4884;1.4726;
918.6000;0.4884;1.4702;
918.9000;0.4868;1.4702;
919.2000;0.4892;1.4774;
919.5000;0.4884;1.4750;
919.8000;0.4851;1.4726;
920.1000;0.4868;1.4702;
920.4000;0.4892;1.4750;
920.7000;0.4892;1.4702;
921.0000;0.4884;1.4631;
921.3000;0.4876;1.4655;
921.6000;0.4860;1.4584;
921.9000;0.4868;1.4584;
922.2000;0.4860;1.4631;
922.5000;0.4941;1.4821;
922.8000;0.4868;1.4679;
923.1000;0.4892;1.4774;
923.4000;0.4860;1.4726;
923.7000;0.4835;1.4631;
924.0000;0.4876;1.4702;
924.3000;0.4860;1.4655;
924.6000;0.4908;1.4679;
924.9000;0.4876;1.4631;
925.2000;0.4884;1.4702;
925.5000;0.4868;1.4750;
925.8000;0.4884;1.4750;
926.1000;0.4892;1.4750;
926.4000;0.4892;1.4774;
926.7000;0.4892;1.4821;
927.0000;0.4884;1.4821;
927.3000;0.4884;1.4916;
927.6000;0.4876;1.4869;
927.9000;0.4884;1.4845;
928.2000;0.4868;1.4869;
928.5000;0.4860;1.4750;
928.8000;0.4892;1.4750;
929.1000;0.4892;1.4655;
929.4000;0.4892;1.4750;
929.7000;0.4876;1.4750;
930.0000;0.4884;1.4679;
930.3000;0.4884;1.4702;
930.6000;0.4860;1.4726;
930.9000;0.4990;1.5083;
931.2000;0.4884;1.4845;
931.5000;0.4868;1.4821;
931.8000;0.4851;1.4798;
932.1000;0.4876;1.4702;
932.4000;0.4851;1.4655;
932.7000;0.4851;1.4679;
933.0000;0.4868;1.4702;
933.3000;0.4876;1.4702;
933.6000;0.4892;1.4655;
933.9000;0.4949;1.4821;
934.2000;0.4965;1.4916;
934.5000;0.4892;1.4750;
934.8000;0.4908;1.4845;
935.1000;0.4941;1.4988;
935.4000;0.4868;1.4798;
935.7000;0.4892;1.4893;
936.0000;0.4876;1.4893;
936.3000;0.4876;1.4774;
936.6000;0.4884;1.4798;
936.9000;0.4884;1.4798;
937.2000;0.4892;1.4750;
937.5000;0.4884;1.4750;
937.8000;0.4884;1.4750;
938.1000;0.4868;1.4774;
938.4000;0.4876;1.4821;
938.7000;0.4892;1.4845;
939.0000;0.4884;1.4798;
939.3000;0.4884;1.4774;
939.6000;0.4884;1.4845;
939.9000;0.4892;1.4893;
940.2000;0.4908;1.4916;
940.5000;0.4892;1.4916;
940.8000;0.4827;1.4726;
941.1000;0.4884;1.4845;
941.4000;0.4884;1.4821;
941.7000;0.4884;1.4893;
942.0000;0.4892;1.4964;
942.3000;0.4892;1.4916;
942.6000;0.4884;1.5011;
942.9000;0.4892;1.4964;
943.2000;0.4892;1.5011;
943.5000;0.4868;1.4940;
943.8000;0.4876;1.4940;
944.1000;0.4884;1.4964;
944.4000;0.4876;1.4940;
944.7000;0.4884;1.4964;
945.0000;0.4884;1.4916;
945.3000;0.4884;1.4869;
945.6000;0.4884;1.4821;
945.9000;0.4925;1.4869;
946.2000;0.4876;1.4702;
946.5000;0.4876;1.4774;
946.8000;0.4868;1.4750;
947.1000;0.4876;1.4774;
947.4000;0.4933;1.4964;
947.7000;0.4884;1.4726;
948.0000;0.4876;1.4726;
948.3000;0.4892;1.4845;
948.6000;0.4892;1.4774;
948.9000;0.4900;1.4750;
949.2000;0.4884;1.4726;
949.5000;0.4884;1.4702;
949.8000;0.4786;1.4441;
950.1000;0.4884;1.4679;
950.4000;0.4876;1.4798;
950.7000;0.4974;1.4988;
951.0000;0.4868;1.4726;
951.3000;0.4868;1.4702;
951.6000;0.4876;1.4798;
951.9000;0.4876;1.4869;
952.2000;0.4860;1.4774;
952.5000;0.4851;1.4750;
952.8000;0.4892;1.4845;
953.1000;0.4868;1.4798;
953.4000;0.4876;1.4798;
953.7000;0.4884;1.4821;
954.0000;0.4876;1.4750;
954.3000;0.4884;1.4821;
954.6000;0.4803;1.4631;
954.9000;0.4900;1.4798;
955.2000;0.4892;1.4798;
955.5000;0.4965;1.4964;
955.8000;0.4884;1.4750;
956.1000;0.4803;1.4560;
956.4000;0.4900;1.4702;
956.7000;0.4868;1.4702;
957.0000;0.4892;1.4679;
957.3000;0.4892;1.4726;
957.6000;0.4884;1.4726;
957.9000;0.4917;1.4774;
958.2000;0.4884;1.4750;
958.5000;0.4892;1.4774;
958.8000;0.4860;1.4726;
959.1000;0.4998;1.5035;
959.4000;0.4876;1.4774;
959.7000;0.4884;1.4750;
960.0000;0.4908;1.4774;
960.3000;0.4868;1.4631;
960.6000;0.4925;1.4631;
960.9000;0.4884;1.4607;
961.2000;0.4884;1.4679;
961.5000;0.4884;1.4679;
961.8000;0.4868;1.4584;
962.1000;0.4876;1.4774;
962.4000;0.4884;1.4774;
962.7000;0.4925;1.4893;
963.0000;0.4876;1.4798;
963.3000;0.4876;1.4726;
963.6000;0.4884;1.4726;
963.9000;0.4876;1.4798;
964.2000;0.4876;1.4774;
964.5000;0.4884;1.4750;
964.8000;0.4860;1.4726;
965.1000;0.4908;1.4774;
965.4000;0.4827;1.4560;
965.7000;0.4876;1.4607;
966.0000;0.4884;1.4607;
966.3000;0.4884;1.4607;
966.6000;0.4900;1.4702;
966.9000;0.4876;1.4655;
967.2000;0.4876;1.4726;
967.5000;0.4884;1.4702;
967.8000;0.4884;1.4702;
968.1000;0.4786;1.4370;
968.4000;0.4892;1.4631;
968.7000;0.4892;1.4631;
969.0000;0.4900;1.4631;
969.3000;0.4876;1.4607;
969.6000;0.4884;1.4584;
969.9000;0.4876;1.4536;
970.2000;0.4900;1.4607;
970.5000;0.4851;1.4536;
970.8000;0.4876;1.4512;
971.1000;0.4884;1.4607;
971.4000;0.4908;1.4655;
971.7000;0.4892;1.4584;
972.0000;0.4868;1.4512;
972.3000;0.4876;1.4536;
972.6000;0.4884;1.4607;
972.9000;0.4892;1.4702;
973.2000;0.4884;1.4655;
973.5000;0.4884;1.4679;
973.8000;0.4949;1.4893;
974.1000;0.4884;1.4845;
974.4000;0.4876;1.4774;
974.7000;0.4900;1.4702;
975.0000;0.4892;1.4726;
975.3000;0.4900;1.4750;
975.6000;0.4900;1.4798;
975.9000;0.4892;1.4821;
976.2000;0.4900;1.4869;
976.5000;0.4908;1.4845;
976.8000;0.4884;1.4869;
977.1000;0.4892;1.4774;
977.4000;0.4884;1.4702;
977.7000;0.4884;1.4655;
978.0000;0.4892;1.4726;
978.3000;0.4900;1.4679;
978.6000;0.4860;1.4631;
978.9000;0.4900;1.4702;
979.2000;0.4892;1.4702;
979.5000;0.4974;1.4916;
979.8000;0.4900;1.4869;
980.1000;0.4892;1.4845;
980.4000;0.4941;1.4940;
980.7000;0.4892;1.4916;
981.0000;0.4868;1.4916;
981.3000;0.4868;1.4964;
981.6000;0.4908;1.4964;
981.9000;0.4892;1.4940;
982.2000;0.4884;1.4893;
982.5000;0.4900;1.4893;
982.8000;0.4892;1.4940;
983.1000;0.4876;1.5011;
983.4000;0.4892;1.4964;
983.7000;0.4892;1.4916;
984.0000;0.4892;1.4964;
984.3000;0.4957;1.5059;
984.6000;0.4884;1.4916;
984.9000;0.4900;1.5083;
985.2000;0.4900;1.4988;
985.5000;0.4900;1.5011;
985.8000;0.4876;1.5035;
986.1000;0.4917;1.5106;
986.4000;0.4900;1.5059;
986.7000;0.4884;1.4893;
987.0000;0.4900;1.4916;
987.3000;0.4892;1.4893;
987.6000;0.4868;1.4869;
987.9000;0.4917;1.5011;
988.2000;0.4876;1.4988;
988.5000;0.4884;1.5035;
988.8000;0.4908;1.5059;
989.1000;0.4900;1.4940;
989.4000;0.4892;1.4916;
989.7000;0.4892;1.4798;
990.0000;0.4876;1.4821;
990.3000;0.4900;1.4869;
990.6000;0.4900;1.4845;
990.9000;0.4884;1.4821;
991.2000;0.4778;1.4607;
991.5000;0.4884;1.4869;
991.8000;0.4892;1.4964;
992.1000;0.4982;1.5154;
992.4000;0.4941;1.5059;
992.7000;0.4892;1.4988;
993.0000;0.4900;1.5011;
993.3000;0.4892;1.4916;
993.6000;0.4892;1.4988;
993.9000;0.4892;1.4893;
994.2000;0.4900;1.4916;
994.5000;0.4957;1.5106;
994.8000;0.4949;1.5059;
995.1000;0.4876;1.4845;
995.4000;0.4917;1.4869;
995.7000;0.4957;1.5035;
996.0000;0.4868;1.4821;
996.3000;0.4884;1.4821;
996.6000;0.4876;1.4869;
996.9000;0.4794;1.4607;
997.2000;0.4892;1.4821;
997.5000;0.4876;1.4679;
997.8000;0.4900;1.4798;
998.1000;0.4892;1.4798;
998.4000;0.4876;1.4821;
998.7000;0.4892;1.4845;
999.0000;0.4884;1.4916;
999.3000;0.4917;1.4893;
999.6000;0.4892;1.4893;
999.9000;0.4892;1.4916;
1000.2000;0.4900;1.4845;
1000.5000;0.4892;1.4798;
1000.8000;0.4876;1.4750;
1001.1000;0.4876;1.4750;
1001.4000;0.4868;1.4726;
1001.7000;0.4884;1.4798;
1002.0000;0.4884;1.4869;
1002.3000;0.4860;1.4798;
1002.6000;0.4868;1.4774;
1002.9000;0.4892;1.4726;
1003.2000;0.4884;1.4679;
1003.5000;0.4884;1.4702;
1003.8000;0.4884;1.4631;
1004.1000;0.4892;1.4607;
1004.4000;0.4892;1.4655;
1004.7000;0.4900;1.4679;
1005.0000;0.4892;1.4631;
1005.3000;0.4884;1.4655;
1005.6000;0.4900;1.4750;
1005.9000;0.4892;1.4750;
1006.2000;0.4876;1.4821;
1006.5000;0.4884;1.4821;
1006.8000;0.4884;1.4869;
1007.1000;0.4884;1.4869;
1007.4000;0.4900;1.4821;
1007.7000;0.4892;1.4702;
1008.0000;0.4900;1.4702;
1008.3000;0.4900;1.4726;
1008.6000;0.4900;1.4750;
1008.9000;0.4900;1.4798;
1009.2000;0.4900;1.4821;
1009.5000;0.4917;1.4821;
1009.8000;0.4908;1.4845;
1010.1000;0.4884;1.4774;
1010.4000;0.4860;1.4702;
1010.7000;0.4908;1.4893;
1011.0000;0.4900;1.4893;
1011.3000;0.4900;1.4916;
1011.6000;0.4900;1.4774;
1011.9000;0.4900;1.4702;
1012.2000;0.4892;1.4774;
1012.5000;0.4900;1.4750;
1012.8000;0.4892;1.4679;
1013.1000;0.4868;1.4607;
1013.4000;0.4868;1.4655;
1013.7000;0.4868;1.4679;
1014.0000;0.4876;1.4655;
1014.3000;0.4892;1.4726;
1014.6000;0.4884;1.4750;
1014.9000;0.4884;1.4750;
1015.2000;0.4900;1.4821;
1015.5000;0.4900;1.4893;
1015.8000;0.4892;1.4869;
1016.1000;0.4868;1.4821;
1016.4000;0.4876;1.4916;
1016.7000;0.4892;1.4988;
1017.0000;0.4892;1.5035;
1017.3000;0.4908;1.5059;
1017.6000;0.4900;1.4964;
1017.9000;0.4917;1.4988;
1018.2000;0.4884;1.4916;
1018.5000;0.4900;1.4940;
1018.8000;0.4917;1.4964;
1019.1000;0.4892;1.4893;
1019.4000;0.4900;1.4916;
1019.7000;0.4908;1.5011;
1020.0000;0.4868;1.4964;
1020.3000;0.4892;1.5059;
1020.6000;0.4908;1.5035;
1020.9000;0.4843;1.4869;
1021.2000;0.4892;1.4940;
1021.5000;0.4900;1.4988;
1021.8000;0.4908;1.4988;
1022.1000;0.4900;1.4988;
1022.4000;0.4900;1.4988;
1022.7000;0.4892;1.4988;
1023.0000;0.4892;1.4988;
1023.3000;0.4908;1.5011;
1023.6000;0.4908;1.4988;
1023.9000;0.4908;1.4964;
1024.2000;0.4900;1.4893;
1024.5000;0.4908;1.4916;
1024.8000;0.4900;1.4916;
1025.1000;0.4892;1.4869;
1025.4000;0.4884;1.4964;
1025.7000;0.4892;1.4988;
1026.0000;0.4900;1.5035;
1026.3000;0.4900;1.4916;
1026.6000;0.4868;1.4750;
1026.9000;0.4900;1.4869;
1027.2000;0.4892;1.4869;
1027.5000;0.4917;1.4821;
1027.8000;0.4892;1.4821;
1028.1000;0.5014;1.5106;
1028.4000;0.4908;1.4869;
1028.7000;0.4884;1.4869;
1029.0000;0.4884;1.4821;
1029.3000;0.4892;1.4869;
1029.6000;0.4868;1.4774;
1029.9000;0.4876;1.4774;
1030.2000;0.4957;1.5011;
1030.5000;0.4892;1.4869;
1030.8000;0.4811;1.4607;
1031.1000;0.4900;1.4750;
1031.4000;0.4868;1.4679;
1031.7000;0.4884;1.4774;
1032.0000;0.4908;1.4798;
1032.3000;0.4892;1.4845;
1032.6000;0.4908;1.4893;
1032.9000;0.4900;1.4893;
1033.2000;0.4900;1.4893;
1033.5000;0.4900;1.4798;
1033.8000;0.4900;1.4821;
1034.1000;0.4892;1.4821;
1034.4000;0.4965;1.4988;
1034.7000;0.4908;1.4798;
1035.0000;0.4900;1.4893;
1035.3000;0.4892;1.4940;
1035.6000;0.4892;1.4869;
1035.9000;0.4900;1.4916;
1036.2000;0.4892;1.4774;
1036.5000;0.4892;1.4798;
1036.8000;0.4884;1.4821;
1037.1000;0.4908;1.4893;
1037.4000;0.4884;1.4845;
1037.7000;0.4884;1.4845;
1038.0000;0.4884;1.4869;
1038.3000;0.4900;1.4893;
1038.6000;0.4917;1.5011;
1038.9000;0.4892;1.4916;
1039.2000;0.4884;1.4964;
1039.5000;0.4900;1.5059;
1039.8000;0.4908;1.5083;
1040.1000;0.4892;1.5106;
1040.4000;0.4900;1.5106;
1040.7000;0.4884;1.5059;
1041.0000;0.4908;1.5011;
1041.3000;0.4876;1.4893;
1041.6000;0.4876;1.4916;
1041.9000;0.4908;1.4940;
1042.2000;0.4908;1.4893;
1042.5000;0.4900;1.4869;
1042.8000;0.4917;1.4869;
1043.1000;0.4917;1.4845;
1043.4000;0.4917;1.4893;
1043.7000;0.4941;1.4964;
1044.0000;0.4917;1.4916;
1044.3000;0.4908;1.5059;
1044.6000;0.4917;1.5059;
1044.9000;0.4908;1.5011;
1045.2000;0.4917;1.4964;
1045.5000;0.4900;1.4869;
1045.8000;0.4884;1.4726;
1046.1000;0.4908;1.4798;
1046.4000;0.4917;1.4798;
1046.7000;0.4900;1.4631;
1047.0000;0.4908;1.4655;
1047.3000;0.4908;1.4655;
1047.6000;0.4941;1.4631;
1047.9000;0.4925;1.4631;
1048.2000;0.4900;1.4679;
1048.5000;0.4900;1.4726;
1048.8000;0.4876;1.4726;
1049.1000;0.4868;1.4702;
1049.4000;0.4900;1.4774;
1049.7000;0.4908;1.4821;
1050.0000;0.4949;1.4940;
1050.3000;0.4876;1.4774;
1050.6000;0.4892;1.4798;
1050.9000;0.4868;1.4774;
1051.2000;0.4884;1.4821;
1051.5000;0.4892;1.4798;
1051.8000;0.4884;1.4821;
1052.1000;0.4851;1.4726;
1052.4000;0.4884;1.4821;
1052.7000;0.4884;1.4845;
1053.0000;0.4892;1.4869;
1053.3000;0.4908;1.4845;
1053.6000;0.4892;1.4916;
1053.9000;0.4900;1.4964;
1054.2000;0.4876;1.4916;
1054.5000;0.4892;1.4869;
1054.8000;0.4892;1.4798;
1055.1000;0.4892;1.4821;
1055.4000;0.4860;1.4679;
1055.7000;0.4892;1.4821;
1056.0000;0.4892;1.4798;
1056.3000;0.4786;1.4512;
1056.6000;0.4884;1.4845;
1056.9000;0.4876;1.4893;
1057.2000;0.4925;1.4988;
1057.5000;0.4892;1.4988;
1057.8000;0.4884;1.4964;
1058.1000;0.4900;1.4940;
1058.4000;0.4892;1.4988;
1058.7000;0.4908;1.5035;
1059.0000;0.4892;1.4964;
1059.3000;0.4884;1.4964;
1059.6000;0.4900;1.4964;
1059.9000;0.4892;1.5011;
1060.2000;0.4892;1.5083;
1060.5000;0.4884;1.4988;
1060.8000;0.4835;1.4988;
1061.1000;0.4892;1.5178;
1061.4000;0.4941;1.5344;
1061.7000;0.4884;1.5154;
1062.0000;0.4892;1.5059;
1062.3000;0.4884;1.5083;
1062.6000;0.4892;1.5011;
1062.9000;0.4917;1.5059;
1063.2000;0.4892;1.4964;
1063.5000;0.4900;1.4988;
1063.8000;0.4892;1.4940;
1064.1000;0.4900;1.4893;
1064.4000;0.4900;1.4893;
1064.7000;0.4892;1.4916;
1065.0000;0.4900;1.4988;
1065.3000;0.4892;1.4940;
1065.6000;0.4900;1.4845;
1065.9000;0.4892;1.4893;
1066.2000;0.4900;1.4940;
1066.5000;0.4892;1.4988;
1066.8000;0.4900;1.4940;
1067.1000;0.4908;1.4916;
1067.4000;0.4900;1.4916;
1067.7000;0.4908;1.4964;
1068.0000;0.4900;1.4964;
1068.3000;0.4892;1.4893;
1068.6000;0.4884;1.4869;
1068.9000;0.4917;1.4940;
1069.2000;0.4908;1.4940;
1069.5000;0.4908;1.4940;
1069.8000;0.4900;1.4869;
1070.1000;0.4908;1.4893;
1070.4000;0.4908;1.4845;
1070.7000;0.4908;1.4869;
1071.0000;0.4900;1.4916;
1071.3000;0.4908;1.4964;
1071.6000;0.4908;1.4988;
1071.9000;0.4868;1.4916;
1072.2000;0.4908;1.5011;
1072.5000;0.4908;1.5035;
1072.8000;0.4884;1.4964;
1073.1000;0.4908;1.4940;
1073.4000;0.4908;1.4964;
1073.7000;0.4908;1.4940;
1074.0000;0.4908;1.4964;
1074.3000;0.4884;1.4916;
1074.6000;0.4941;1.5035;
1074.9000;0.4876;1.4916;
1075.2000;0.4908;1.5035;
1075.5000;0.4892;1.5083;
1075.8000;0.4908;1.5083;
1076.1000;0.4884;1.4988;
1076.4000;0.4917;1.5106;
1076.7000;0.4917;1.5035;
1077.0000;0.4908;1.4893;
1077.3000;0.4908;1.4940;
1077.6000;0.4908;1.4988;
1077.9000;0.4908;1.5011;
1078.2000;0.4900;1.4916;
1078.5000;0.4908;1.4821;
1078.8000;0.4900;1.4845;
1079.1000;0.4917;1.4845;
1079.4000;0.4908;1.4798;
1079.7000;0.4900;1.4750;
1080.0000;0.4925;1.4774;
1080.3000;0.4892;1.4798;
1080.6000;0.4908;1.4845;
1080.9000;0.4900;1.4916;
1081.2000;0.4998;1.5083;
1081.5000;0.4925;1.4940;
1081.8000;0.4900;1.4988;
1082.1000;0.4933;1.4964;
1082.4000;0.4908;1.4940;
1082.7000;0.4925;1.5059;
1083.0000;0.4900;1.4964;
1083.3000;0.4917;1.5083;
1083.6000;0.4949;1.5273;
1083.9000;0.4908;1.5130;
1084.2000;0.4819;1.4916;
1084.5000;0.4900;1.5083;
1084.8000;0.4892;1.5083;
1085.1000;0.4892;1.5154;
1085.4000;0.4876;1.5154;
1085.7000;0.4908;1.5083;
1086.0000;0.4908;1.5011;
1086.3000;0.4925;1.5011;
1086.6000;0.4900;1.4916;
1086.9000;0.4908;1.4893;
1087.2000;0.4908;1.4869;
1087.5000;0.4925;1.4988;
1087.8000;0.4908;1.4964;
1088.1000;0.4917;1.5083;
1088.4000;0.4908;1.5011;
1088.7000;0.4908;1.4916;
1089.0000;0.4908;1.4988;
1089.3000;0.4908;1.5011;
1089.6000;0.4900;1.4940;
1089.9000;0.4917;1.4940;
1090.2000;0.4933;1.4940;
1090.5000;0.4917;1.4893;
1090.8000;0.4908;1.4774;
1091.1000;0.4900;1.4798;
1091.4000;0.4900;1.4821;
1091.7000;0.4908;1.4869;
1092.0000;0.4908;1.4893;
1092.3000;0.4917;1.4845;
1092.6000;0.4917;1.4774;
1092.9000;0.4917;1.4750;
1093.2000;0.4925;1.4774;
1093.5000;0.4917;1.4774;
1093.8000;0.4917;1.4798;
1094.1000;0.4900;1.4774;
1094.4000;0.4925;1.4774;
1094.7000;0.4900;1.4774;
1095.0000;0.4892;1.4679;
1095.3000;0.4917;1.4774;
1095.6000;0.4957;1.4964;
1095.9000;0.4900;1.4798;
1096.2000;0.4892;1.4702;
1096.5000;0.4908;1.4798;
1096.8000;0.4917;1.4845;
1097.1000;0.4900;1.4845;
1097.4000;0.4892;1.4845;
1097.7000;0.4908;1.4893;
1098.0000;0.4892;1.4845;
1098.3000;0.4925;1.4964;
1098.6000;0.4900;1.4893;
1098.9000;0.4900;1.4940;
1099.2000;0.4876;1.4916;
1099.5000;0.4917;1.4988;
1099.8000;0.4892;1.4988;
1100.1000;0.4965;1.5178;
1100.4000;0.4957;1.5130;
1100.7000;0.4876;1.4916;
1101.0000;0.4900;1.4893;
1101.3000;0.5014;1.5106;
1101.6000;0.4908;1.4988;
1101.9000;0.4884;1.4964;
1102.2000;0.4941;1.5059;
1102.5000;0.4933;1.5059;
1102.8000;0.4900;1.5035;
1103.1000;0.4900;1.5035;
1103.4000;0.4900;1.5035;
1103.7000;0.4908;1.5106;
1104.0000;0.4908;1.5130;
1104.3000;0.4892;1.5035;
1104.6000;0.4900;1.4940;
1104.9000;0.4900;1.4916;
1105.2000;0.4917;1.4988;
1105.5000;0.4900;1.4964;
1105.8000;0.4908;1.5011;
1106.1000;0.4941;1.5083;
1106.4000;0.4908;1.4940;
1106.7000;0.4900;1.4916;
1107.0000;0.4892;1.4964;
1107.3000;0.4900;1.4988;
1107.6000;0.4884;1.5035;
1107.9000;0.4892;1.5106;
1108.2000;0.4884;1.5035;
1108.5000;0.4908;1.5059;
1108.8000;0.4900;1.5059;
1109.1000;0.4892;1.5035;
1109.4000;0.4900;1.5035;
1109.7000;0.4908;1.4964;
1110.0000;0.4900;1.4821;
1110.3000;0.4900;1.4916;
1110.6000;0.4900;1.4940;
1110.9000;0.4900;1.4916;
1111.2000;0.4892;1.4964;
1111.5000;0.4884;1.4916;
1111.8000;0.4900;1.4893;
1112.1000;0.4917;1.4893;
1112.4000;0.4884;1.4845;
1112.7000;0.4900;1.4869;
1113.0000;0.4908;1.4893;
1113.3000;0.4925;1.4893;
1113.6000;0.4900;1.4869;
1113.9000;0.4900;1.4916;
1114.2000;0.4900;1.4869;
1114.5000;0.4900;1.4893;
1114.8000;0.4900;1.4988;
1115.1000;0.4908;1.5035;
1115.4000;0.4925;1.5059;
1115.7000;0.4917;1.5035;
1116.0000;0.4925;1.5011;
1116.3000;0.4908;1.4916;
1116.6000;0.4917;1.4845;
1116.9000;0.4908;1.4821;
1117.2000;0.4900;1.4798;
1117.5000;0.4900;1.4774;
1117.8000;0.4851;1.4607;
1118.1000;0.4892;1.4726;
1118.4000;0.4908;1.4702;
1118.7000;0.4900;1.4726;
1119.0000;0.4933;1.4774;
1119.3000;0.4884;1.4679;
1119.6000;0.4925;1.4726;
1119.9000;0.4900;1.4750;
1120.2000;0.4908;1.4726;
1120.5000;0.4908;1.4679;
1120.8000;0.4900;1.4726;
1121.1000;0.4933;1.4845;
1121.4000;0.4908;1.4845;
1121.7000;0.4900;1.4726;
1122.0000;0.4925;1.4821;
1122.3000;0.4925;1.4869;
1122.6000;0.4900;1.4845;
1122.9000;0.4925;1.4988;
1123.2000;0.4941;1.5011;
1123.5000;0.4917;1.4964;
1123.8000;0.4892;1.4940;
1124.1000;0.4965;1.5083;
1124.4000;0.4908;1.4988;
1124.7000;0.4892;1.4964;
1125.0000;0.4908;1.4988;
1125.3000;0.4933;1.4988;
1125.6000;0.4892;1.4845;
1125.9000;0.4908;1.4869;
1126.2000;0.4868;1.4750;
1126.5000;0.4925;1.4940;
1126.8000;0.4917;1.4916;
1127.1000;0.4941;1.4940;
1127.4000;0.4908;1.4964;
1127.7000;0.5014;1.5201;
1128.0000;0.4900;1.4964;
1128.3000;0.4917;1.5059;
1128.6000;0.4925;1.5035;
1128.9000;0.4908;1.5011;
1129.2000;0.4900;1.5011;
1129.5000;0.4892;1.5011;
1129.8000;0.4917;1.5035;
1130.1000;0.4908;1.5035;
1130.4000;0.4908;1.4988;
1130.7000;0.4908;1.4916;
1131.0000;0.4900;1.4869;
1131.3000;0.4908;1.4845;
1131.6000;0.4917;1.4798;
1131.9000;0.4908;1.4845;
1132.2000;0.4900;1.4845;
1132.5000;0.4917;1.4893;
1132.8000;0.4917;1.4893;
1133.1000;0.4908;1.4845;
1133.4000;0.4925;1.4798;
1133.7000;0.4900;1.4774;
1134.0000;0.4908;1.4798;
1134.3000;0.4900;1.4750;
1134.6000;0.4917;1.4821;
1134.9000;0.4892;1.4774;
1135.2000;0.4900;1.4798;
1135.5000;0.4908;1.4845;
1135.8000;0.4917;1.4774;
1136.1000;0.4908;1.4798;
1136.4000;0.4908;1.4750;
1136.7000;0.4900;1.4845;
1137.0000;0.4917;1.4821;
1137.3000;0.4933;1.4893;
1137.6000;0.4957;1.4940;
1137.9000;0.4917;1.4750;
1138.2000;0.4908;1.4702;
1138.5000;0.4917;1.4774;
1138.8000;0.4908;1.4750;
1139.1000;0.4908;1.4702;
1139.4000;0.4908;1.4655;
1139.7000;0.4917;1.4655;
1140.0000;0.4974;1.4869;
1140.3000;0.4892;1.4655;
1140.6000;0.4900;1.4607;
1140.9000;0.4908;1.4631;
1141.2000;0.4925;1.4750;
1141.5000;0.4884;1.4655;
1141.8000;0.4892;1.4702;
1142.1000;0.4965;1.4893;
1142.4000;0.4908;1.4726;
1142.7000;0.4908;1.4774;
1143.0000;0.4925;1.4821;
1143.3000;0.4933;1.4845;
1143.6000;0.4925;1.4821;
1143.9000;0.4917;1.4893;
1144.2000;0.4908;1.4940;
1144.5000;0.4900;1.4940;
1144.8000;0.4933;1.4988;
1145.1000;0.4908;1.4893;
1145.4000;0.4908;1.4845;
1145.7000;0.4908;1.4869;
1146.0000;0.4827;1.4679;
1146.3000;0.4819;1.4702;
1146.6000;0.4908;1.5011;
1146.9000;0.4884;1.4940;
1147.2000;0.4892;1.5011;
1147.5000;0.4925;1.5059;
1147.8000;0.4900;1.4964;
1148.1000;0.4917;1.4893;
1148.4000;0.4908;1.4821;
1148.7000;0.4827;1.4536;
1149.0000;0.4908;1.4726;
1149.3000;0.4925;1.4821;
1149.6000;0.4900;1.4750;
1149.9000;0.4908;1.4774;
1150.2000;0.4908;1.4750;
1150.5000;0.4908;1.4798;
1150.8000;0.4908;1.4821;
1151.1000;0.4900;1.4845;
1151.4000;0.4908;1.5011;
1151.7000;0.4917;1.5011;
1152.0000;0.4900;1.4964;
1152.3000;0.4925;1.5035;
1152.6000;0.4917;1.4988;
1152.9000;0.4908;1.4964;
1153.2000;0.4908;1.4893;
1153.5000;0.4892;1.4750;
1153.8000;0.4917;1.4774;
1154.1000;0.4900;1.4798;
1154.4000;0.4900;1.4798;
1154.7000;0.4884;1.4798;
1155.0000;0.4917;1.4893;
1155.3000;0.4835;1.4702;
1155.6000;0.4965;1.5083;
1155.9000;0.4941;1.5011;
1156.2000;0.4908;1.4940;
1156.5000;0.4908;1.4988;
1156.8000;0.4908;1.4893;
1157.1000;0.4908;1.4845;
1157.4000;0.4900;1.4821;
1157.7000;0.4908;1.4845;
1158.0000;0.4908;1.4869;
1158.3000;0.4900;1.4845;
1158.6000;0.4900;1.4893;
1158.9000;0.4917;1.4964;
1159.2000;0.4900;1.4940;
1159.5000;0.4900;1.4940;
1159.8000;0.4900;1.4940;
1160.1000;0.4933;1.4940;
1160.4000;0.4908;1.4940;
1160.7000;0.4908;1.4845;
1161.0000;0.4900;1.4869;
1161.3000;0.4941;1.4893;
1161.6000;0.4925;1.4869;
1161.9000;0.4917;1.4821;
1162.2000;0.4917;1.4821;
1162.5000;0.4917;1.4750;
1162.8000;0.4908;1.4821;
1163.1000;0.4884;1.4750;
1163.4000;0.4917;1.4774;
1163.7000;0.4925;1.4845;
1164.0000;0.4900;1.4726;
1164.3000;0.4925;1.4893;
1164.6000;0.4925;1.4845;
1164.9000;0.4941;1.4845;
1165.2000;0.4892;1.4821;
1165.5000;0.4908;1.4845;
1165.8000;0.4917;1.4869;
1166.1000;0.4917;1.4821;
1166.4000;0.4925;1.4869;
1166.7000;0.4908;1.4774;
1167.0000;0.4949;1.4940;
1167.3000;0.4925;1.4821;
1167.6000;0.4908;1.4845;
1167.9000;0.4925;1.4869;
1168.2000;0.4884;1.4702;
1168.5000;0.4892;1.4679;
1168.8000;0.4900;1.4702;
1169.1000;0.4908;1.4798;
1169.4000;0.4900;1.4750;
1169.7000;0.4908;1.4702;
1170.0000;0.4908;1.4774;
1170.3000;0.4917;1.4798;
1170.6000;0.4908;1.4845;
1170.9000;0.4900;1.4774;
1171.2000;0.4925;1.4774;
1171.5000;0.4925;1.4774;
1171.8000;0.4900;1.4798;
1172.1000;0.4908;1.4798;
1172.4000;0.4941;1.4869;
1172.7000;0.4925;1.4893;
1173.0000;0.4933;1.4798;
1173.3000;0.4933;1.4845;
1173.6000;0.4900;1.4774;
1173.9000;0.4925;1.4845;
1174.2000;0.4925;1.4869;
1174.5000;0.4917;1.4774;
1174.8000;0.4892;1.4774;
1175.1000;0.4900;1.4845;
1175.4000;0.4917;1.4916;
1175.7000;0.4933;1.4869;
1176.0000;0.4908;1.4774;
1176.3000;0.4900;1.4726;
1176.6000;0.4908;1.4821;
1176.9000;0.4876;1.4655;
1177.2000;0.4925;1.4726;
1177.5000;0.4908;1.4607;
1177.8000;0.4925;1.4726;
1178.1000;0.4892;1.4750;
1178.4000;0.4949;1.4893;
1178.7000;0.4908;1.4798;
1179.0000;0.4925;1.4726;
1179.3000;0.4868;1.4512;
1179.6000;0.4917;1.4655;
1179.9000;0.4908;1.4702;
1180.2000;0.4908;1.4750;
1180.5000;0.4933;1.4798;
1180.8000;0.4933;1.4821;
1181.1000;0.4908;1.4750;
1181.4000;0.4941;1.4869;
1181.7000;0.4925;1.4750;
1182.0000;0.4908;1.4726;
1182.3000;0.4908;1.4702;
1182.6000;0.4917;1.4798;
1182.9000;0.4925;1.4726;
1183.2000;0.4908;1.4655;
1183.5000;0.4908;1.4584;
1183.8000;0.4957;1.4679;
1184.1000;0.4900;1.4560;
1184.4000;0.4908;1.4536;
1184.7000;0.4900;1.4536;
1185.0000;0.4900;1.4512;
1185.3000;0.4917;1.4607;
1185.6000;0.4908;1.4584;
1185.9000;0.4917;1.4584;
1186.2000;0.4941;1.4702;
1186.5000;0.4933;1.4679;
1186.8000;0.4941;1.4702;
1187.1000;0.4925;1.4679;
1187.4000;0.4917;1.4655;
1187.7000;0.4908;1.4726;
1188.0000;0.4925;1.4750;
1188.3000;0.4908;1.4726;
1188.6000;0.4908;1.4726;
1188.9000;0.4900;1.4655;
1189.2000;0.4925;1.4726;
1189.5000;0.4917;1.4607;
1189.8000;0.4908;1.4560;
1190.1000;0.4908;1.4584;
1190.4000;0.4908;1.4679;
1190.7000;0.4917;1.4655;
1191.0000;0.4908;1.4679;
1191.3000;0.4917;1.4726;
1191.6000;0.4925;1.4726;
1191.9000;0.4892;1.4560;
1192.2000;0.5014;1.4893;
1192.5000;0.4933;1.4655;
1192.8000;0.4925;1.4726;
1193.1000;0.4917;1.4774;
1193.4000;0.4908;1.4679;
1193.7000;0.4908;1.4679;
1194.0000;0.4908;1.4726;
1194.3000;0.4908;1.4679;
1194.6000;0.4908;1.4679;
1194.9000;0.4933;1.4679;
1195.2000;0.4917;1.4607;
1195.5000;0.4900;1.4560;
1195.8000;0.4900;1.4536;
1196.1000;0.4908;1.4512;
1196.4000;0.4851;1.4322;
1196.7000;0.4908;1.4560;
1197.0000;0.4908;1.4536;
1197.3000;0.4925;1.4631;
1197.6000;0.4908;1.4560;
1197.9000;0.4917;1.4512;
1198.2000;0.4827;1.4346;
1198.5000;0.4908;1.4631;
1198.8000;0.4917;1.4702;
1199.1000;0.4917;1.4726;
1199.4000;0.4925;1.4750;
1199.7000;0.4900;1.4750;
1200.0000;0.4908;1.4798;
1200.3000;0.4925;1.4798;
1200.6000;0.4917;1.4845;
1200.9000;0.4892;1.4774;
1201.2000;0.4892;1.4655;
1201.5000;0.4933;1.4679;
1201.8000;0.4917;1.4679;
1202.1000;0.4908;1.4679;
1202.4000;0.4908;1.4607;
1202.7000;0.4908;1.4607;
1203.0000;0.4917;1.4679;
1203.3000;0.4933;1.4726;
1203.6000;0.4908;1.4726;
1203.9000;0.4908;1.4726;
1204.2000;0.4917;1.4798;
1204.5000;0.4908;1.4750;
1204.8000;0.4892;1.4655;
1205.1000;0.4900;1.4702;
1205.4000;0.4892;1.4679;
1205.7000;0.4908;1.4774;
1206.0000;0.4917;1.4798;
1206.3000;0.4908;1.4774;
1206.6000;0.4908;1.4821;
1206.9000;0.4860;1.4679;
1207.2000;0.4925;1.4869;
1207.5000;0.4908;1.4750;
1207.8000;0.4908;1.4774;
1208.1000;0.4917;1.4750;
1208.4000;0.4917;1.4702;
1208.7000;0.4892;1.4702;
1209.0000;0.4925;1.4774;
1209.3000;0.4900;1.4798;
1209.6000;0.4982;1.4916;
1209.9000;0.4892;1.4607;
1210.2000;0.4917;1.4607;
1210.5000;0.4917;1.4607;
1210.8000;0.4941;1.4584;
1211.1000;0.4917;1.4560;
1211.4000;0.4925;1.4631;
1211.7000;0.4860;1.4465;
1212.0000;0.4917;1.4655;
1212.3000;0.4908;1.4631;
1212.6000;0.4917;1.4679;
1212.9000;0.4925;1.4750;
1213.2000;0.4933;1.4798;
1213.5000;0.4925;1.4845;
1213.8000;0.4908;1.4798;
1214.1000;0.4900;1.4798;
1214.4000;0.4908;1.4869;
1214.7000;0.4925;1.4964;
1215.0000;0.4917;1.4940;
1215.3000;0.4892;1.4845;
1215.6000;0.4933;1.4964;
1215.9000;0.4933;1.4893;
1216.2000;0.4925;1.4798;
1216.5000;0.4908;1.4702;
1216.8000;0.4965;1.4893;
1217.1000;0.4925;1.4774;
1217.4000;0.4917;1.4750;
1217.7000;0.4892;1.4607;
1218.0000;0.4917;1.4607;
1218.3000;0.5096;1.5035;
1218.6000;0.4925;1.4655;
1218.9000;0.4917;1.4679;
1219.2000;0.4941;1.4702;
1219.5000;0.4933;1.4726;
1219.8000;0.4925;1.4798;
1220.1000;0.4917;1.4750;
1220.4000;0.4941;1.4821;
1220.7000;0.4925;1.4893;
1221.0000;0.4917;1.4916;
1221.3000;0.4908;1.4821;
1221.6000;0.4917;1.4845;
1221.9000;0.4917;1.4821;
1222.2000;0.4925;1.4821;
1222.5000;0.4917;1.4821;
1222.8000;0.4917;1.4821;
1223.1000;0.4908;1.4821;
1223.4000;0.4933;1.4916;
1223.7000;0.4925;1.4869;
1224.0000;0.4925;1.4940;
1224.3000;0.4917;1.4916;
1224.6000;0.4917;1.4940;
1224.9000;0.4917;1.4893;
1225.2000;0.4917;1.4916;
1225.5000;0.4925;1.4916;
1225.8000;0.4925;1.4916;
1226.1000;0.4949;1.5106;
1226.4000;0.4917;1.5106;
1226.7000;0.4925;1.5130;
1227.0000;0.4933;1.5083;
1227.3000;0.4925;1.5035;
1227.6000;0.4925;1.5059;
1227.9000;0.4949;1.5154;
1228.2000;0.4941;1.5106;
1228.5000;0.4876;1.4988;
1228.8000;0.4900;1.5059;
1229.1000;0.4811;1.4750;
1229.4000;0.4957;1.5154;
1229.7000;0.4917;1.4988;
1230.0000;0.4908;1.5035;
1230.3000;0.4900;1.4988;
1230.6000;0.4917;1.4940;
1230.9000;0.4925;1.4964;
1231.2000;0.4925;1.4940;
1231.5000;0.4917;1.4916;
1231.8000;0.4941;1.4964;
1232.1000;0.4900;1.4916;
1232.4000;0.4933;1.4964;
1232.7000;0.4892;1.4964;
1233.0000;0.4900;1.4893;
1233.3000;0.4933;1.4916;
1233.6000;0.4917;1.4821;
1233.9000;0.4876;1.4726;
1234.2000;0.4900;1.4750;
1234.5000;0.4908;1.4702;
1234.8000;0.4917;1.4750;
1235.1000;0.4884;1.4702;
1235.4000;0.4908;1.4702;
1235.7000;0.4917;1.4750;
1236.0000;0.4868;1.4655;
1236.3000;0.4917;1.4869;
1236.6000;0.4917;1.4869;
1236.9000;0.4925;1.4893;
1237.2000;0.4925;1.4893;
1237.5000;0.4933;1.4893;
1237.8000;0.4917;1.4774;
1238.1000;0.4949;1.4798;
1238.4000;0.4949;1.4798;
1238.7000;0.4900;1.4726;
1239.0000;0.4957;1.4821;
1239.3000;0.4941;1.4845;
1239.6000;0.4900;1.4726;
1239.9000;0.4908;1.4750;
1240.2000;0.4957;1.4845;
1240.5000;0.4908;1.4655;
1240.8000;0.4925;1.4702;
1241.1000;0.4925;1.4702;
1241.4000;0.4884;1.4631;
1241.7000;0.4917;1.4726;
1242.0000;0.4917;1.4798;
1242.3000;0.4908;1.4750;
1242.6000;0.4908;1.4798;
1242.9000;0.4917;1.4798;
1243.2000;0.4876;1.4679;
1243.5000;0.4908;1.4726;
1243.8000;0.4925;1.4726;
1244.1000;0.4908;1.4702;
1244.4000;0.4908;1.4821;
1244.7000;0.4917;1.4845;
1245.0000;0.4933;1.4798;
1245.3000;0.4925;1.4798;
1245.6000;0.4917;1.4750;
1245.9000;0.4933;1.4869;
1246.2000;0.4933;1.4869;
1246.5000;0.4917;1.4869;
1246.8000;0.4917;1.4893;
1247.1000;0.4900;1.4916;
1247.4000;0.4908;1.4774;
1247.7000;0.4925;1.4821;
1248.0000;0.4908;1.4845;
1248.3000;0.4876;1.4798;
1248.6000;0.4908;1.4845;
1248.9000;0.4908;1.4821;
1249.2000;0.4908;1.4821;
1249.5000;0.4908;1.4821;
1249.8000;0.4900;1.4845;
1250.1000;0.4908;1.4821;
1250.4000;0.4917;1.4821;
1250.7000;0.4925;1.4750;
1251.0000;0.4908;1.4750;
1251.3000;0.4925;1.4821;
1251.6000;0.4949;1.4845;
1251.9000;0.4925;1.4750;
1252.2000;0.4933;1.4702;
1252.5000;0.4933;1.4774;
1252.8000;0.4949;1.4750;
1253.1000;0.4900;1.4631;
1253.4000;0.4892;1.4655;
1253.7000;0.4908;1.4679;
1254.0000;0.4933;1.4702;
1254.3000;0.4900;1.4655;
1254.6000;0.4917;1.4726;
1254.9000;0.4925;1.4726;
1255.2000;0.4908;1.4750;
1255.5000;0.4917;1.4821;
1255.8000;0.4908;1.4774;
1256.1000;0.4908;1.4726;
1256.4000;0.4933;1.4821;
1256.7000;0.4876;1.4655;
1257.0000;0.4917;1.4893;
1257.3000;0.4982;1.4988;
1257.6000;0.4949;1.4893;
1257.9000;0.4949;1.4893;
1258.2000;0.4900;1.4798;
1258.5000;0.4917;1.4916;
1258.8000;0.4835;1.4750;
1259.1000;0.4900;1.4940;
1259.4000;0.4941;1.4988;
1259.7000;0.4917;1.4916;
1260.0000;0.4900;1.4916;
1260.3000;0.4925;1.5035;
1260.6000;0.4925;1.5059;
1260.9000;0.4974;1.5201;
1261.2000;0.4941;1.5083;
1261.5000;0.4933;1.5059;
1261.8000;0.4925;1.4964;
1262.1000;0.4933;1.4940;
1262.4000;0.4933;1.4940;
1262.7000;0.4925;1.4988;
1263.0000;0.4917;1.4988;
1263.3000;0.4917;1.4940;
1263.6000;0.4884;1.4940;
1263.9000;0.4974;1.5106;
1264.2000;0.4949;1.5059;
1264.5000;0.4933;1.4964;
1264.8000;0.4925;1.4964;
1265.1000;0.4925;1.5035;
1265.4000;0.4933;1.4964;
1265.7000;0.4868;1.4726;
1266.0000;0.4917;1.4940;
1266.3000;0.4876;1.4821;
1266.6000;0.4933;1.5011;
1266.9000;0.4819;1.4821;
1267.2000;0.4925;1.5059;
1267.5000;0.4933;1.5083;
1267.8000;0.4933;1.5059;
1268.1000;0.4925;1.4988;
1268.4000;0.4908;1.4988;
1268.7000;0.4908;1.5011;
1269.0000;0.4925;1.4988;
1269.3000;0.4925;1.4940;
1269.6000;0.4908;1.4869;
1269.9000;0.4908;1.4916;
1270.2000;0.4917;1.4964;
1270.5000;0.4917;1.4964;
1270.8000;0.4908;1.4940;
1271.1000;0.4941;1.5011;
1271.4000;0.4900;1.4821;
1271.7000;0.4933;1.4750;
1272.0000;0.4957;1.4774;
1272.3000;0.4941;1.4821;
1272.6000;0.4925;1.4798;
1272.9000;0.4900;1.4702;
1273.2000;0.4884;1.4702;
1273.5000;0.4900;1.4726;
1273.8000;0.4900;1.4679;
1274.1000;0.5022;1.4988;
1274.4000;0.4917;1.4821;
1274.7000;0.4925;1.4869;
1275.0000;0.4917;1.4845;
1275.3000;0.4908;1.4869;
1275.6000;0.4917;1.4940;
1275.9000;0.4917;1.4916;
1276.2000;0.4933;1.4893;
1276.5000;0.4957;1.4988;
1276.8000;0.4941;1.4964;
1277.1000;0.4925;1.4893;
1277.4000;0.4925;1.4845;
1277.7000;0.4974;1.4940;
1278.0000;0.4925;1.4798;
1278.3000;0.4941;1.4916;
1278.6000;0.4917;1.4869;
1278.9000;0.4933;1.4869;
1279.2000;0.4925;1.4869;
1279.5000;0.4925;1.4964;
1279.8000;0.4900;1.4821;
1280.1000;0.4933;1.4893;
1280.4000;0.4933;1.4821;
1280.7000;0.4933;1.4869;
1281.0000;0.4917;1.4821;
1281.3000;0.4925;1.4916;
1281.6000;0.4908;1.4964;
1281.9000;0.4925;1.5035;
1282.2000;0.4917;1.5035;
1282.5000;0.4965;1.5083;
1282.8000;0.4860;1.4774;
1283.1000;0.4925;1.4940;
1283.4000;0.4917;1.4916;
1283.7000;0.4941;1.4893;
1284.0000;0.4884;1.4845;
1284.3000;0.4917;1.4821;
1284.6000;0.4925;1.4893;
1284.9000;0.4908;1.4774;
1285.2000;0.4900;1.4774;
1285.5000;0.4827;1.4560;
1285.8000;0.4925;1.4798;
1286.1000;0.4917;1.4893;
1286.4000;0.4941;1.4940;
1286.7000;0.4933;1.5083;
1287.0000;0.4925;1.5035;
1287.3000;0.4917;1.4940;
1287.6000;0.4949;1.5035;
1287.9000;0.4949;1.4988;
1288.2000;0.4900;1.4845;
1288.5000;0.4941;1.4845;
1288.8000;0.4876;1.4702;
1289.1000;0.4917;1.4750;
1289.4000;0.4941;1.4774;
1289.7000;0.4900;1.4702;
1290.0000;0.4908;1.4750;
1290.3000;0.4957;1.4893;
1290.6000;0.4949;1.4893;
1290.9000;0.4933;1.4845;
1291.2000;0.4933;1.4893;
1291.5000;0.4925;1.4821;
1291.8000;0.4917;1.4798;
1292.1000;0.4925;1.4821;
1292.4000;0.4900;1.4774;
1292.7000;0.4949;1.4869;
1293.0000;0.4908;1.4798;
1293.3000;0.4933;1.4798;
1293.6000;0.4917;1.4798;
1293.9000;0.4941;1.4774;
1294.2000;0.4925;1.4726;
1294.5000;0.5039;1.4988;
1294.8000;0.4925;1.4702;
1295.1000;0.4941;1.4560;
1295.4000;0.4917;1.4489;
1295.7000;0.4941;1.4584;
1296.0000;0.4876;1.4441;
1296.3000;0.4949;1.4631;
1296.6000;0.4908;1.4584;
1296.9000;0.4917;1.4655;
1297.2000;0.4941;1.4702;
1297.5000;0.4908;1.4607;
1297.8000;0.4908;1.4584;
1298.1000;0.4884;1.4536;
1298.4000;0.4925;1.4631;
1298.7000;0.4941;1.4631;
1299.0000;0.4917;1.4679;
1299.3000;0.4908;1.4560;
1299.6000;0.4949;1.4607;
1299.9000;0.4917;1.4536;
1300.2000;0.4933;1.4560;
1300.5000;0.4933;1.4560;
1300.8000;0.4900;1.4536;
1301.1000;0.4990;1.4750;
1301.4000;0.4925;1.4607;
1301.7000;0.4925;1.4607;
1302.0000;0.4933;1.4679;
1302.3000;0.4917;1.4726;
1302.6000;0.4908;1.4631;
1302.9000;0.4925;1.4679;
1303.2000;0.4925;1.4726;
1303.5000;0.4917;1.4702;
1303.8000;0.4917;1.4655;
1304.1000;0.4933;1.4679;
1304.4000;0.4917;1.4655;
1304.7000;0.4941;1.4726;
1305.0000;0.4908;1.4726;
1305.3000;0.4892;1.4584;
1305.6000;0.4957;1.4726;
1305.9000;0.4933;1.4679;
1306.2000;0.4925;1.4631;
1306.5000;0.4917;1.4631;
1306.8000;0.4917;1.4726;
1307.1000;0.4949;1.4655;
1307.4000;0.4917;1.4631;
1307.7000;0.4908;1.4655;
1308.0000;0.4925;1.4679;
1308.3000;0.4925;1.4679;
1308.6000;0.4925;1.4679;
1308.9000;0.4933;1.4726;
1309.2000;0.4941;1.4702;
1309.5000;0.4908;1.4655;
1309.8000;0.4933;1.4726;
1310.1000;0.4925;1.4726;
1310.4000;0.4876;1.4679;
1310.7000;0.5022;1.5106;
1311.0000;0.4925;1.4845;
1311.3000;0.4949;1.4916;
1311.6000;0.4925;1.4916;
1311.9000;0.4917;1.4869;
1312.2000;0.4998;1.5059;
1312.5000;0.4925;1.4916;
1312.8000;0.4892;1.4821;
1313.1000;0.4908;1.4869;
1313.4000;0.4925;1.4988;
1313.7000;0.4941;1.5011;
1314.0000;0.4908;1.5059;
1314.3000;0.4925;1.5106;
1314.6000;0.4933;1.5130;
1314.9000;0.4925;1.5130;
1315.2000;0.4925;1.5106;
1315.5000;0.4917;1.5011;
1315.8000;0.4925;1.4916;
1316.1000;0.4933;1.4916;
1316.4000;0.4827;1.4631;
1316.7000;0.4925;1.4798;
1317.0000;0.4941;1.4821;
1317.3000;0.4990;1.5011;
1317.6000;0.4917;1.4821;
1317.9000;0.4925;1.4821;
1318.2000;0.4917;1.4821;
1318.5000;0.4908;1.4798;
1318.8000;0.4933;1.4916;
1319.1000;0.4965;1.5035;
1319.4000;0.4900;1.4916;
1319.7000;0.4925;1.4988;
1320.0000;0.4917;1.4964;
1320.3000;0.4908;1.4845;
1320.6000;0.4900;1.4869;
1320.9000;0.4908;1.4940;
1321.2000;0.4917;1.5059;
1321.5000;0.4908;1.5035;
1321.8000;0.4908;1.5035;
1322.1000;0.4933;1.5035;
1322.4000;0.4941;1.4964;
1322.7000;0.4925;1.4964;
1323.0000;0.4908;1.5035;
1323.3000;0.4933;1.5106;
1323.6000;0.4925;1.5035;
1323.9000;0.4925;1.4940;
1324.2000;0.4917;1.4845;
1324.5000;0.4917;1.4798;
1324.8000;0.4900;1.4821;
1325.1000;0.4933;1.4964;
1325.4000;0.4933;1.4869;
1325.7000;0.4925;1.4893;
1326.0000;0.4933;1.4916;
1326.3000;0.4933;1.4940;
1326.6000;0.4941;1.4964;
1326.9000;0.4957;1.4916;
1327.2000;0.4917;1.4845;
1327.5000;0.4941;1.4964;
1327.8000;0.4933;1.4916;
1328.1000;0.4941;1.4916;
1328.4000;0.4917;1.4869;
1328.7000;0.4925;1.4893;
1329.0000;0.4925;1.4893;
1329.3000;0.4917;1.4845;
1329.6000;0.4933;1.4940;
1329.9000;0.4957;1.4964;
1330.2000;0.4917;1.4916;
1330.5000;0.4917;1.4916;
1330.8000;0.4933;1.4964;
1331.1000;0.4884;1.4869;
1331.4000;0.4917;1.4940;
1331.7000;0.4917;1.4916;
1332.0000;0.4843;1.4607;
1332.3000;0.4900;1.4726;
1332.6000;0.4941;1.4774;
1332.9000;0.4933;1.4750;
1333.2000;0.4908;1.4798;
1333.5000;0.4933;1.4869;
1333.8000;0.4933;1.4798;
1334.1000;0.4925;1.4821;
1334.4000;0.5006;1.5106;
1334.7000;0.4917;1.4916;
1335.0000;0.4941;1.4964;
1335.3000;0.4892;1.4821;
1335.6000;0.4908;1.4940;
1335.9000;0.4884;1.4869;
1336.2000;0.4868;1.4869;
1336.5000;0.4925;1.4893;
1336.8000;0.4933;1.4988;
1337.1000;0.4925;1.4893;
1337.4000;0.4917;1.4798;
1337.7000;0.4933;1.4750;
1338.0000;0.4917;1.4774;
1338.3000;0.4917;1.4821;
1338.6000;0.4925;1.4821;
1338.9000;0.4933;1.4845;
1339.2000;0.4925;1.4750;
1339.5000;0.4917;1.4750;
1339.8000;0.4949;1.4774;
1340.1000;0.4949;1.4750;
1340.4000;0.4941;1.4869;
1340.7000;0.4900;1.4774;
1341.0000;0.4949;1.4845;
1341.3000;0.4925;1.4964;
1341.6000;0.4925;1.4893;
1341.9000;0.4908;1.4774;
1342.2000;0.4925;1.4798;
1342.5000;0.4908;1.4679;
1342.8000;0.4933;1.4750;
1343.1000;0.4933;1.4798;
1343.4000;0.4884;1.4726;
1343.7000;0.4917;1.4916;
1344.0000;0.4925;1.4916;
1344.3000;0.4892;1.4845;
1344.6000;0.4933;1.4916;
1344.9000;0.4925;1.4893;
1345.2000;0.4941;1.4821;
1345.5000;0.4941;1.4798;
1345.8000;0.4925;1.4774;
1346.1000;0.4868;1.4560;
1346.4000;0.4965;1.4798;
1346.7000;0.4933;1.4774;
1347.0000;0.4917;1.4726;
1347.3000;0.4933;1.4845;
1347.6000;0.4917;1.4845;
1347.9000;0.4876;1.4679;
1348.2000;0.4933;1.4845;
1348.5000;0.4933;1.4821;
1348.8000;0.4925;1.4798;
1349.1000;0.4917;1.4750;
1349.4000;0.4925;1.4798;
1349.7000;0.4925;1.4821;
1350.0000;0.4868;1.4726;
1350.3000;0.4941;1.4869;
1350.6000;0.4925;1.4845;
1350.9000;0.4982;1.5059;
1351.2000;0.4917;1.4869;
1351.5000;0.4941;1.4940;
1351.8000;0.4933;1.4916;
1352.1000;0.4925;1.4869;
1352.4000;0.4925;1.4869;
1352.7000;0.4917;1.4750;
1353.0000;0.4917;1.4702;
1353.3000;0.4933;1.4679;
1353.6000;0.4917;1.4655;
1353.9000;0.4925;1.4750;
1354.2000;0.4900;1.4702;
1354.5000;0.4917;1.4679;
1354.8000;0.4851;1.4560;
1355.1000;0.4860;1.4512;
1355.4000;0.4941;1.4774;
1355.7000;0.4925;1.4750;
1356.0000;0.4925;1.4774;
1356.3000;0.4908;1.4726;
1356.6000;0.4908;1.4750;
1356.9000;0.4908;1.4726;
1357.2000;0.4908;1.4631;
1357.5000;0.4908;1.4726;
1357.8000;0.4941;1.4750;
1358.1000;0.4917;1.4726;
1358.4000;0.4933;1.4750;
1358.7000;0.4925;1.4774;
1359.0000;0.4941;1.4750;
1359.3000;0.4941;1.4750;
1359.6000;0.4941;1.4750;
1359.9000;0.4892;1.4726;
1360.2000;0.4876;1.4798;
1360.5000;0.4941;1.4893;
1360.8000;0.4933;1.4869;
1361.1000;0.4925;1.4821;
1361.4000;0.4941;1.4869;
1361.7000;0.4933;1.4798;
1362.0000;0.4933;1.4750;
1362.3000;0.4908;1.4679;
1362.6000;0.4933;1.4702;
1362.9000;0.4925;1.4702;
1363.2000;0.4941;1.4798;
1363.5000;0.4941;1.4750;
1363.8000;0.4965;1.4798;
1364.1000;0.4941;1.4774;
1364.4000;0.4941;1.4750;
1364.7000;0.4917;1.4726;
1365.0000;0.4925;1.4750;
1365.3000;0.4933;1.4726;
1365.6000;0.4941;1.4679;
1365.9000;0.4925;1.4631;
1366.2000;0.4917;1.4679;
1366.5000;0.4974;1.4845;
1366.8000;0.4925;1.4631;
1367.1000;0.4957;1.4798;
1367.4000;0.4917;1.4631;
1367.7000;0.4925;1.4631;
1368.0000;0.4941;1.4702;
1368.3000;0.4917;1.4655;
1368.6000;0.4933;1.4702;
1368.9000;0.4933;1.4679;
1369.2000;0.4908;1.4679;
1369.5000;0.4933;1.4607;
1369.8000;0.4917;1.4560;
1370.1000;0.4908;1.4465;
1370.4000;0.4941;1.4536;
1370.7000;0.4908;1.4512;
1371.0000;0.4908;1.4560;
1371.3000;0.4925;1.4536;
1371.6000;0.4941;1.4536;
1371.9000;0.4965;1.4584;
1372.2000;0.4933;1.4536;
1372.5000;0.4908;1.4441;
1372.8000;0.4933;1.4512;
1373.1000;0.4933;1.4655;
1373.4000;0.4925;1.4702;
1373.7000;0.4917;1.4774;
1374.0000;0.4900;1.4631;
1374.3000;0.4949;1.4726;
1374.6000;0.4941;1.4750;
1374.9000;0.4957;1.4916;
1375.2000;0.4925;1.4916;
1375.5000;0.4949;1.4964;
1375.8000;0.4860;1.4726;
1376.1000;0.4917;1.4869;
1376.4000;0.4925;1.4798;
1376.7000;0.4949;1.4845;
1377.0000;0.4917;1.4798;
1377.3000;0.4941;1.4798;
1377.6000;0.4949;1.4869;
1377.9000;0.4827;1.4512;
1378.2000;0.4949;1.4774;
1378.5000;0.4925;1.4774;
1378.8000;0.4917;1.4821;
1379.1000;0.4925;1.4893;
1379.4000;0.4908;1.4774;
1379.7000;0.4925;1.4821;
1380.0000;0.4941;1.4845;
1380.3000;0.4941;1.4750;
1380.6000;0.4949;1.4726;
1380.9000;0.4957;1.4702;
1381.2000;0.4941;1.4631;
1381.5000;0.4908;1.4631;
1381.8000;0.4933;1.4726;
1382.1000;0.4941;1.4702;
1382.4000;0.4933;1.4679;
1382.7000;0.5006;1.4916;
1383.0000;0.4917;1.4631;
1383.3000;0.4925;1.4702;
1383.6000;0.4917;1.4631;
1383.9000;0.4917;1.4655;
1384.2000;0.4933;1.4631;
1384.5000;0.4941;1.4607;
1384.8000;0.5039;1.4821;
1385.1000;0.4941;1.4679;
1385.4000;0.4941;1.4679;
1385.7000;0.4876;1.4536;
1386.0000;0.4933;1.4798;
1386.3000;0.4925;1.4821;
1386.6000;0.4949;1.4845;
1386.9000;0.4941;1.4726;
1387.2000;0.4933;1.4655;
1387.5000;0.4908;1.4631;
1387.8000;0.4925;1.4655;
1388.1000;0.4941;1.4679;
1388.4000;0.4933;1.4584;
1388.7000;0.4941;1.4631;
1389.0000;0.4917;1.4584;
1389.3000;0.4851;1.4417;
1389.6000;0.4965;1.4821;
1389.9000;0.4941;1.4798;
1390.2000;0.4949;1.4750;
1390.5000;0.4819;1.4489;
1390.8000;0.4949;1.4798;
1391.1000;0.4917;1.4726;
1391.4000;0.4892;1.4584;
1391.7000;0.4949;1.4726;
1392.0000;0.4974;1.4845;
1392.3000;0.4925;1.4750;
1392.6000;0.4941;1.4798;
1392.9000;0.4925;1.4774;
1393.2000;0.5006;1.5011;
1393.5000;0.4949;1.4845;
1393.8000;0.4908;1.4726;
1394.1000;0.4941;1.4774;
1394.4000;0.4941;1.4774;
1394.7000;0.4990;1.4893;
1395.0000;0.4925;1.4726;
1395.3000;0.4925;1.4726;
1395.6000;0.4982;1.4845;
1395.9000;0.4941;1.4726;
1396.2000;0.4933;1.4679;
1396.5000;0.4933;1.4631;
1396.8000;0.4925;1.4584;
1397.1000;0.4933;1.4607;
1397.4000;0.4908;1.4655;
1397.7000;0.4933;1.4607;
1398.0000;0.4917;1.4536;
1398.3000;0.4925;1.4584;
1398.6000;0.4957;1.4702;
1398.9000;0.4925;1.4607;
1399.2000;0.4933;1.4679;
1399.5000;0.4925;1.4679;
1399.8000;0.4908;1.4679;
