time/ms;Fluo/V;P700 deltaI/I x10³;
-199.8000;0.5226;1.4560;
-199.5000;0.5201;1.4560;
-199.2000;0.5210;1.4512;
-198.9000;0.5210;1.4489;
-198.6000;0.5210;1.4441;
-198.3000;0.5201;1.4346;
-198.0000;0.5218;1.4417;
-197.7000;0.5210;1.4417;
-197.4000;0.5193;1.4394;
-197.1000;0.5226;1.4417;
-196.8000;0.5201;1.4322;
-196.5000;0.5201;1.4322;
-196.2000;0.5258;1.4512;
-195.9000;0.5193;1.4370;
-195.6000;0.5201;1.4465;
-195.3000;0.5201;1.4512;
-195.0000;0.5218;1.4465;
-194.7000;0.5201;1.4441;
-194.4000;0.5185;1.4346;
-194.1000;0.5201;1.4441;
-193.8000;0.5218;1.4465;
-193.5000;0.5177;1.4346;
-193.2000;0.5193;1.4346;
-192.9000;0.5210;1.4394;
-192.6000;0.5218;1.4370;
-192.3000;0.5234;1.4489;
-192.0000;0.5218;1.4417;
-191.7000;0.5144;1.4227;
-191.4000;0.5193;1.4299;
-191.1000;0.5210;1.4299;
-190.8000;0.5193;1.4299;
-190.5000;0.5201;1.4346;
-190.2000;0.5210;1.4394;
-189.9000;0.5201;1.4370;
-189.6000;0.5210;1.4370;
-189.3000;0.5193;1.4346;
-189.0000;0.5218;1.4465;
-188.7000;0.5226;1.4536;
-188.4000;0.5201;1.4489;
-188.1000;0.5250;1.4655;
-187.8000;0.5218;1.4536;
-187.5000;0.5210;1.4536;
-187.2000;0.5201;1.4536;
-186.9000;0.5218;1.4417;
-186.6000;0.5218;1.4417;
-186.3000;0.5218;1.4346;
-186.0000;0.5193;1.4346;
-185.7000;0.5201;1.4322;
-185.4000;0.5218;1.4346;
-185.1000;0.5210;1.4370;
-184.8000;0.5210;1.4322;
-184.5000;0.5201;1.4346;
-184.2000;0.5218;1.4370;
-183.9000;0.5201;1.4417;
-183.6000;0.5210;1.4417;
-183.3000;0.5218;1.4512;
-183.0000;0.5210;1.4465;
-182.7000;0.5210;1.4465;
-182.4000;0.5210;1.4394;
-182.1000;0.5193;1.4417;
-181.8000;0.5201;1.4394;
-181.5000;0.5185;1.4322;
-181.2000;0.5210;1.4370;
-180.9000;0.5201;1.4394;
-180.6000;0.5193;1.4275;
-180.3000;0.5226;1.4346;
-180.0000;0.5218;1.4370;
-179.7000;0.5218;1.4299;
-179.4000;0.5283;1.4584;
-179.1000;0.5218;1.4417;
-178.8000;0.5185;1.4299;
-178.5000;0.5218;1.4441;
-178.2000;0.5201;1.4465;
-177.9000;0.5210;1.4441;
-177.6000;0.5210;1.4394;
-177.3000;0.5201;1.4299;
-177.0000;0.5201;1.4299;
-176.7000;0.5218;1.4346;
-176.4000;0.5201;1.4299;
-176.1000;0.5210;1.4275;
-175.8000;0.5210;1.4275;
-175.5000;0.5218;1.4180;
-175.2000;0.5226;1.4299;
-174.9000;0.5201;1.4322;
-174.6000;0.5226;1.4346;
-174.3000;0.5193;1.4322;
-174.0000;0.5210;1.4346;
-173.7000;0.5226;1.4346;
-173.4000;0.5218;1.4394;
-173.1000;0.5193;1.4370;
-172.8000;0.5210;1.4394;
-172.5000;0.5210;1.4394;
-172.2000;0.5193;1.4417;
-171.9000;0.5210;1.4394;
-171.6000;0.5201;1.4370;
-171.3000;0.5201;1.4441;
-171.0000;0.5210;1.4489;
-170.7000;0.5218;1.4417;
-170.4000;0.5193;1.4370;
-170.1000;0.5234;1.4441;
-169.8000;0.5210;1.4370;
-169.5000;0.5210;1.4370;
-169.2000;0.5315;1.4679;
-168.9000;0.5234;1.4512;
-168.6000;0.5258;1.4536;
-168.3000;0.5201;1.4346;
-168.0000;0.5201;1.4370;
-167.7000;0.5185;1.4275;
-167.4000;0.5226;1.4394;
-167.1000;0.5201;1.4394;
-166.8000;0.5218;1.4441;
-166.5000;0.5226;1.4465;
-166.2000;0.5210;1.4370;
-165.9000;0.5210;1.4370;
-165.6000;0.5210;1.4322;
-165.3000;0.5201;1.4299;
-165.0000;0.5218;1.4275;
-164.7000;0.5201;1.4204;
-164.4000;0.5210;1.4204;
-164.1000;0.5226;1.4299;
-163.8000;0.5226;1.4322;
-163.5000;0.5226;1.4251;
-163.2000;0.5193;1.4275;
-162.9000;0.5185;1.4275;
-162.6000;0.5210;1.4322;
-162.3000;0.5226;1.4370;
-162.0000;0.5193;1.4346;
-161.7000;0.5201;1.4465;
-161.4000;0.5201;1.4465;
-161.1000;0.5210;1.4512;
-160.8000;0.5201;1.4512;
-160.5000;0.5201;1.4512;
-160.2000;0.5218;1.4489;
-159.9000;0.5218;1.4417;
-159.6000;0.5218;1.4346;
-159.3000;0.5210;1.4417;
-159.0000;0.5258;1.4584;
-158.7000;0.5201;1.4512;
-158.4000;0.5210;1.4370;
-158.1000;0.5218;1.4299;
-157.8000;0.5218;1.4251;
-157.5000;0.5201;1.4227;
-157.2000;0.5201;1.4394;
-156.9000;0.5226;1.4394;
-156.6000;0.5210;1.4346;
-156.3000;0.5218;1.4370;
-156.0000;0.5201;1.4370;
-155.7000;0.5250;1.4441;
-155.4000;0.5226;1.4370;
-155.1000;0.5218;1.4299;
-154.8000;0.5226;1.4275;
-154.5000;0.5185;1.4251;
-154.2000;0.5201;1.4204;
-153.9000;0.5218;1.4299;
-153.6000;0.5210;1.4394;
-153.3000;0.5218;1.4370;
-153.0000;0.5201;1.4299;
-152.7000;0.5201;1.4322;
-152.4000;0.5210;1.4275;
-152.1000;0.5210;1.4204;
-151.8000;0.5218;1.4204;
-151.5000;0.5210;1.4085;
-151.2000;0.5218;1.4132;
-150.9000;0.5218;1.4109;
-150.6000;0.5210;1.4132;
-150.3000;0.5201;1.4156;
-150.0000;0.5185;1.4180;
-149.7000;0.5226;1.4251;
-149.4000;0.5193;1.4227;
-149.1000;0.5218;1.4275;
-148.8000;0.5210;1.4299;
-148.5000;0.5218;1.4322;
-148.2000;0.5226;1.4275;
-147.9000;0.5193;1.4227;
-147.6000;0.5210;1.4251;
-147.3000;0.5218;1.4299;
-147.0000;0.5218;1.4370;
-146.7000;0.5201;1.4322;
-146.4000;0.5226;1.4370;
-146.1000;0.5210;1.4299;
-145.8000;0.5226;1.4299;
-145.5000;0.5226;1.4275;
-145.2000;0.5218;1.4346;
-144.9000;0.5210;1.4346;
-144.6000;0.5218;1.4394;
-144.3000;0.5201;1.4322;
-144.0000;0.5136;1.4061;
-143.7000;0.5210;1.4132;
-143.4000;0.5218;1.4132;
-143.1000;0.5201;1.4037;
-142.8000;0.5210;1.3990;
-142.5000;0.5210;1.3966;
-142.2000;0.5210;1.3990;
-141.9000;0.5210;1.4085;
-141.6000;0.5226;1.4109;
-141.3000;0.5210;1.4132;
-141.0000;0.5218;1.4132;
-140.7000;0.5226;1.4085;
-140.4000;0.5210;1.4109;
-140.1000;0.5234;1.4180;
-139.8000;0.5218;1.4085;
-139.5000;0.5218;1.4085;
-139.2000;0.5210;1.4085;
-138.9000;0.5210;1.4132;
-138.6000;0.5210;1.4156;
-138.3000;0.5275;1.4322;
-138.0000;0.5218;1.4204;
-137.7000;0.5210;1.4204;
-137.4000;0.5169;1.4085;
-137.1000;0.5210;1.4227;
-136.8000;0.5193;1.4180;
-136.5000;0.5193;1.4227;
-136.2000;0.5210;1.4299;
-135.9000;0.5218;1.4299;
-135.6000;0.5226;1.4370;
-135.3000;0.5218;1.4275;
-135.0000;0.5210;1.4251;
-134.7000;0.5234;1.4204;
-134.4000;0.5120;1.3919;
-134.1000;0.5185;1.4156;
-133.8000;0.5218;1.4275;
-133.5000;0.5218;1.4204;
-133.2000;0.5210;1.4180;
-132.9000;0.5193;1.4204;
-132.6000;0.5210;1.4251;
-132.3000;0.5201;1.4180;
-132.0000;0.5210;1.4204;
-131.7000;0.5218;1.4227;
-131.4000;0.5177;1.4061;
-131.1000;0.5218;1.4227;
-130.8000;0.5201;1.4227;
-130.5000;0.5218;1.4299;
-130.2000;0.5218;1.4370;
-129.9000;0.5226;1.4370;
-129.6000;0.5201;1.4299;
-129.3000;0.5218;1.4299;
-129.0000;0.5193;1.4251;
-128.7000;0.5283;1.4465;
-128.4000;0.5201;1.4251;
-128.1000;0.5226;1.4251;
-127.8000;0.5193;1.4204;
-127.5000;0.5210;1.4299;
-127.2000;0.5218;1.4346;
-126.9000;0.5218;1.4370;
-126.6000;0.5201;1.4322;
-126.3000;0.5210;1.4275;
-126.0000;0.5250;1.4370;
-125.7000;0.5210;1.4299;
-125.4000;0.5218;1.4299;
-125.1000;0.5210;1.4299;
-124.8000;0.5218;1.4322;
-124.5000;0.5226;1.4322;
-124.2000;0.5226;1.4204;
-123.9000;0.5218;1.4180;
-123.6000;0.5218;1.4180;
-123.3000;0.5193;1.4227;
-123.0000;0.5226;1.4370;
-122.7000;0.5201;1.4322;
-122.4000;0.5210;1.4322;
-122.1000;0.5210;1.4370;
-121.8000;0.5193;1.4394;
-121.5000;0.5193;1.4441;
-121.2000;0.5201;1.4441;
-120.9000;0.5210;1.4417;
-120.6000;0.5210;1.4417;
-120.3000;0.5201;1.4322;
-120.0000;0.5299;1.4536;
-119.7000;0.5201;1.4346;
-119.4000;0.5218;1.4394;
-119.1000;0.5258;1.4536;
-118.8000;0.5161;1.4346;
-118.5000;0.5218;1.4489;
-118.2000;0.5201;1.4417;
-117.9000;0.5210;1.4417;
-117.6000;0.5201;1.4394;
-117.3000;0.5201;1.4322;
-117.0000;0.5218;1.4346;
-116.7000;0.5210;1.4299;
-116.4000;0.5193;1.4322;
-116.1000;0.5226;1.4322;
-115.8000;0.5218;1.4322;
-115.5000;0.5218;1.4346;
-115.2000;0.5210;1.4322;
-114.9000;0.5242;1.4441;
-114.6000;0.5218;1.4394;
-114.3000;0.5226;1.4346;
-114.0000;0.5226;1.4322;
-113.7000;0.5218;1.4275;
-113.4000;0.5201;1.4275;
-113.1000;0.5144;1.4227;
-112.8000;0.5210;1.4512;
-112.5000;0.5169;1.4394;
-112.2000;0.5201;1.4489;
-111.9000;0.5218;1.4465;
-111.6000;0.5226;1.4441;
-111.3000;0.5185;1.4322;
-111.0000;0.5218;1.4417;
-110.7000;0.5234;1.4417;
-110.4000;0.5218;1.4370;
-110.1000;0.5193;1.4370;
-109.8000;0.5201;1.4299;
-109.5000;0.5210;1.4346;
-109.2000;0.5218;1.4322;
-108.9000;0.5210;1.4299;
-108.6000;0.5193;1.4251;
-108.3000;0.5201;1.4275;
-108.0000;0.5210;1.4322;
-107.7000;0.5218;1.4417;
-107.4000;0.5193;1.4299;
-107.1000;0.5201;1.4322;
-106.8000;0.5218;1.4370;
-106.5000;0.5218;1.4465;
-106.2000;0.5193;1.4441;
-105.9000;0.5201;1.4465;
-105.6000;0.5242;1.4584;
-105.3000;0.5226;1.4441;
-105.0000;0.5226;1.4489;
-104.7000;0.5210;1.4441;
-104.4000;0.5210;1.4417;
-104.1000;0.5226;1.4441;
-103.8000;0.5193;1.4346;
-103.5000;0.5218;1.4465;
-103.2000;0.5218;1.4441;
-102.9000;0.5193;1.4465;
-102.6000;0.5210;1.4536;
-102.3000;0.5185;1.4512;
-102.0000;0.5193;1.4394;
-101.7000;0.5234;1.4465;
-101.4000;0.5201;1.4394;
-101.1000;0.5193;1.4417;
-100.8000;0.5177;1.4417;
-100.5000;0.5201;1.4465;
-100.2000;0.5136;1.4227;
-99.9000;0.5267;1.4512;
-99.6000;0.5153;1.4227;
-99.3000;0.5210;1.4441;
-99.0000;0.5307;1.4774;
-98.7000;0.5201;1.4489;
-98.4000;0.5201;1.4417;
-98.1000;0.5201;1.4465;
-97.8000;0.5128;1.4370;
-97.5000;0.5218;1.4536;
-97.2000;0.5267;1.4679;
-96.9000;0.5201;1.4607;
-96.6000;0.5258;1.4798;
-96.3000;0.5201;1.4607;
-96.0000;0.5210;1.4655;
-95.7000;0.5210;1.4560;
-95.4000;0.5226;1.4536;
-95.1000;0.5267;1.4702;
-94.8000;0.5250;1.4679;
-94.5000;0.5226;1.4512;
-94.2000;0.5218;1.4536;
-93.9000;0.5201;1.4465;
-93.6000;0.5210;1.4465;
-93.3000;0.5201;1.4465;
-93.0000;0.5218;1.4489;
-92.7000;0.5210;1.4536;
-92.4000;0.5218;1.4536;
-92.1000;0.5201;1.4489;
-91.8000;0.5185;1.4489;
-91.5000;0.5218;1.4441;
-91.2000;0.5193;1.4346;
-90.9000;0.5201;1.4417;
-90.6000;0.5210;1.4417;
-90.3000;0.5210;1.4370;
-90.0000;0.5218;1.4346;
-89.7000;0.5201;1.4370;
-89.4000;0.5210;1.4394;
-89.1000;0.5218;1.4441;
-88.8000;0.5226;1.4489;
-88.5000;0.5210;1.4275;
-88.2000;0.5210;1.4251;
-87.9000;0.5201;1.4251;
-87.6000;0.5193;1.4204;
-87.3000;0.5193;1.4227;
-87.0000;0.5201;1.4251;
-86.7000;0.5185;1.4204;
-86.4000;0.5218;1.4299;
-86.1000;0.5218;1.4299;
-85.8000;0.5226;1.4251;
-85.5000;0.5226;1.4227;
-85.2000;0.5210;1.4251;
-84.9000;0.5161;1.4132;
-84.6000;0.5177;1.4204;
-84.3000;0.5201;1.4275;
-84.0000;0.5218;1.4322;
-83.7000;0.5210;1.4227;
-83.4000;0.5169;1.4156;
-83.1000;0.5193;1.4251;
-82.8000;0.5218;1.4346;
-82.5000;0.5193;1.4394;
-82.2000;0.5177;1.4370;
-81.9000;0.5201;1.4417;
-81.6000;0.5218;1.4465;
-81.3000;0.5226;1.4465;
-81.0000;0.5226;1.4465;
-80.7000;0.5201;1.4322;
-80.4000;0.5210;1.4251;
-80.1000;0.5218;1.4227;
-79.8000;0.5201;1.4275;
-79.5000;0.5218;1.4251;
-79.2000;0.5210;1.4322;
-78.9000;0.5218;1.4227;
-78.6000;0.5218;1.4370;
-78.3000;0.5201;1.4441;
-78.0000;0.5210;1.4394;
-77.7000;0.5201;1.4346;
-77.4000;0.5210;1.4346;
-77.1000;0.5161;1.4275;
-76.8000;0.5226;1.4370;
-76.5000;0.5218;1.4370;
-76.2000;0.5185;1.4394;
-75.9000;0.5210;1.4394;
-75.6000;0.5226;1.4465;
-75.3000;0.5201;1.4394;
-75.0000;0.5185;1.4299;
-74.7000;0.5210;1.4299;
-74.4000;0.5218;1.4346;
-74.1000;0.5169;1.4204;
-73.8000;0.5185;1.4204;
-73.5000;0.5218;1.4346;
-73.2000;0.5201;1.4322;
-72.9000;0.5218;1.4322;
-72.6000;0.5267;1.4417;
-72.3000;0.5193;1.4275;
-72.0000;0.5193;1.4275;
-71.7000;0.5201;1.4251;
-71.4000;0.5201;1.4275;
-71.1000;0.5226;1.4346;
-70.8000;0.5210;1.4322;
-70.5000;0.5193;1.4299;
-70.2000;0.5193;1.4322;
-69.9000;0.5218;1.4394;
-69.6000;0.5201;1.4370;
-69.3000;0.5193;1.4370;
-69.0000;0.5210;1.4275;
-68.7000;0.5210;1.4322;
-68.4000;0.5185;1.4227;
-68.1000;0.5185;1.4275;
-67.8000;0.5218;1.4394;
-67.5000;0.5226;1.4465;
-67.2000;0.5210;1.4417;
-66.9000;0.5193;1.4489;
-66.6000;0.5218;1.4465;
-66.3000;0.5193;1.4394;
-66.0000;0.5218;1.4536;
-65.7000;0.5210;1.4560;
-65.4000;0.5193;1.4536;
-65.1000;0.5218;1.4512;
-64.8000;0.5210;1.4465;
-64.5000;0.5226;1.4489;
-64.2000;0.5185;1.4441;
-63.9000;0.5193;1.4441;
-63.6000;0.5210;1.4417;
-63.3000;0.5193;1.4370;
-63.0000;0.5185;1.4370;
-62.7000;0.5193;1.4417;
-62.4000;0.5210;1.4417;
-62.1000;0.5201;1.4417;
-61.8000;0.5201;1.4370;
-61.5000;0.5193;1.4275;
-61.2000;0.5218;1.4275;
-60.9000;0.5226;1.4299;
-60.6000;0.5161;1.4132;
-60.3000;0.5201;1.4299;
-60.0000;0.5234;1.4322;
-59.7000;0.5218;1.4275;
-59.4000;0.5218;1.4227;
-59.1000;0.5218;1.4322;
-58.8000;0.5218;1.4299;
-58.5000;0.5218;1.4299;
-58.2000;0.5218;1.4227;
-57.9000;0.5218;1.4204;
-57.6000;0.5218;1.4156;
-57.3000;0.5218;1.4132;
-57.0000;0.5234;1.4227;
-56.7000;0.5201;1.4275;
-56.4000;0.5201;1.4275;
-56.1000;0.5218;1.4394;
-55.8000;0.5218;1.4394;
-55.5000;0.5226;1.4370;
-55.2000;0.5201;1.4370;
-54.9000;0.5210;1.4370;
-54.6000;0.5210;1.4370;
-54.3000;0.5210;1.4370;
-54.0000;0.5210;1.4346;
-53.7000;0.5210;1.4322;
-53.4000;0.5267;1.4394;
-53.1000;0.5193;1.4227;
-52.8000;0.5193;1.4109;
-52.5000;0.5193;1.4204;
-52.2000;0.5210;1.4251;
-51.9000;0.5218;1.4251;
-51.6000;0.5201;1.4275;
-51.3000;0.5210;1.4346;
-51.0000;0.5193;1.4346;
-50.7000;0.5193;1.4370;
-50.4000;0.5193;1.4322;
-50.1000;0.5201;1.4346;
-49.8000;0.5210;1.4322;
-49.5000;0.5218;1.4370;
-49.2000;0.5210;1.4346;
-48.9000;0.5201;1.4322;
-48.6000;0.5201;1.4299;
-48.3000;0.5210;1.4322;
-48.0000;0.5210;1.4370;
-47.7000;0.5201;1.4346;
-47.4000;0.5210;1.4204;
-47.1000;0.5218;1.4156;
-46.8000;0.5210;1.4204;
-46.5000;0.5210;1.4251;
-46.2000;0.5218;1.4275;
-45.9000;0.5218;1.4227;
-45.6000;0.5210;1.4227;
-45.3000;0.5193;1.4251;
-45.0000;0.5210;1.4322;
-44.7000;0.5226;1.4370;
-44.4000;0.5218;1.4394;
-44.1000;0.5210;1.4346;
-43.8000;0.5169;1.4204;
-43.5000;0.5210;1.4275;
-43.2000;0.5201;1.4180;
-42.9000;0.5210;1.4180;
-42.6000;0.5201;1.4132;
-42.3000;0.5226;1.4251;
-42.0000;0.5226;1.4346;
-41.7000;0.5226;1.4346;
-41.4000;0.5210;1.4322;
-41.1000;0.5218;1.4322;
-40.8000;0.5226;1.4322;
-40.5000;0.5218;1.4299;
-40.2000;0.5218;1.4275;
-39.9000;0.5242;1.4322;
-39.6000;0.5201;1.4227;
-39.3000;0.5201;1.4227;
-39.0000;0.5177;1.4227;
-38.7000;0.5193;1.4251;
-38.4000;0.5218;1.4322;
-38.1000;0.5185;1.4346;
-37.8000;0.5201;1.4394;
-37.5000;0.5193;1.4417;
-37.2000;0.5210;1.4441;
-36.9000;0.5250;1.4560;
-36.6000;0.5218;1.4489;
-36.3000;0.5201;1.4489;
-36.0000;0.5218;1.4417;
-35.7000;0.5201;1.4465;
-35.4000;0.5201;1.4489;
-35.1000;0.5193;1.4441;
-34.8000;0.5210;1.4346;
-34.5000;0.5201;1.4394;
-34.2000;0.5210;1.4441;
-33.9000;0.5169;1.4346;
-33.6000;0.5201;1.4299;
-33.3000;0.5210;1.4299;
-33.0000;0.5185;1.4227;
-32.7000;0.5201;1.4251;
-32.4000;0.5226;1.4299;
-32.1000;0.5275;1.4417;
-31.8000;0.5201;1.4204;
-31.5000;0.5299;1.4394;
-31.2000;0.5307;1.4370;
-30.9000;0.5210;1.4156;
-30.6000;0.5226;1.4180;
-30.3000;0.5218;1.4180;
-30.0000;0.5193;1.4156;
-29.7000;0.5193;1.4156;
-29.4000;0.5210;1.4251;
-29.1000;0.5210;1.4346;
-28.8000;0.5218;1.4299;
-28.5000;0.5218;1.4251;
-28.2000;0.5226;1.4275;
-27.9000;0.5210;1.4275;
-27.6000;0.5210;1.4346;
-27.3000;0.5218;1.4370;
-27.0000;0.5210;1.4299;
-26.7000;0.5226;1.4370;
-26.4000;0.5210;1.4346;
-26.1000;0.5218;1.4299;
-25.8000;0.5210;1.4227;
-25.5000;0.5218;1.4251;
-25.2000;0.5210;1.4275;
-24.9000;0.5210;1.4251;
-24.6000;0.5210;1.4227;
-24.3000;0.5218;1.4204;
-24.0000;0.5218;1.4204;
-23.7000;0.5193;1.4061;
-23.4000;0.5201;1.4156;
-23.1000;0.5218;1.4204;
-22.8000;0.5218;1.4180;
-22.5000;0.5226;1.4275;
-22.2000;0.5201;1.4275;
-21.9000;0.5210;1.4299;
-21.6000;0.5218;1.4370;
-21.3000;0.5226;1.4299;
-21.0000;0.5218;1.4275;
-20.7000;0.5210;1.4370;
-20.4000;0.5226;1.4394;
-20.1000;0.5161;1.4275;
-19.8000;0.5201;1.4370;
-19.5000;0.5210;1.4417;
-19.2000;0.5226;1.4275;
-18.9000;0.5210;1.4204;
-18.6000;0.5218;1.4227;
-18.3000;0.5201;1.4180;
-18.0000;0.5201;1.4275;
-17.7000;0.5201;1.4275;
-17.4000;0.5210;1.4322;
-17.1000;0.5193;1.4370;
-16.8000;0.5210;1.4394;
-16.5000;0.5210;1.4394;
-16.2000;0.5210;1.4489;
-15.9000;0.5210;1.4489;
-15.6000;0.5210;1.4512;
-15.3000;0.5201;1.4512;
-15.0000;0.5201;1.4465;
-14.7000;0.5201;1.4560;
-14.4000;0.5201;1.4560;
-14.1000;0.5177;1.4465;
-13.8000;0.5185;1.4536;
-13.5000;0.5193;1.4560;
-13.2000;0.5210;1.4441;
-12.9000;0.5218;1.4441;
-12.6000;0.5210;1.4394;
-12.3000;0.5201;1.4465;
-12.0000;0.5218;1.4394;
-11.7000;0.5201;1.4346;
-11.4000;0.5226;1.4370;
-11.1000;0.5210;1.4275;
-10.8000;0.5193;1.4322;
-10.5000;0.5210;1.4370;
-10.2000;0.5210;1.4394;
-9.9000;0.5218;1.4322;
-9.6000;0.5210;1.4227;
-9.3000;0.5218;1.4299;
-9.0000;0.5218;1.4322;
-8.7000;0.5201;1.4299;
-8.4000;0.5136;1.4132;
-8.1000;0.5210;1.4394;
-7.8000;0.5226;1.4441;
-7.5000;0.5193;1.4322;
-7.2000;0.5218;1.4346;
-6.9000;0.5226;1.4370;
-6.6000;0.5226;1.4346;
-6.3000;0.5226;1.4346;
-6.0000;0.5201;1.4370;
-5.7000;0.5201;1.4417;
-5.4000;0.5210;1.4370;
-5.1000;0.5218;1.4394;
-4.8000;0.5193;1.4299;
-4.5000;0.5201;1.4394;
-4.2000;0.5201;1.4370;
-3.9000;0.5185;1.4322;
-3.6000;0.5201;1.4346;
-3.3000;0.5201;1.4322;
-3.0000;0.5201;1.4251;
-2.7000;0.5218;1.4227;
-2.4000;0.5201;1.4227;
-2.1000;0.5210;1.4322;
-1.8000;0.5210;1.4275;
-1.5000;0.5218;1.4275;
-1.2000;0.5201;1.4299;
-0.9000;0.5210;1.4299;
-0.6000;0.5201;1.4322;
-0.3000;0.5177;1.4322;
0.0000;0.5177;1.4322;
0.3000;0.5177;1.4251;
0.6000;0.5153;1.4346;
0.9000;0.5234;1.4655;
1.2000;0.5096;1.4370;
1.5000;0.5088;1.4394;
1.8000;0.5079;1.4489;
2.1000;0.5071;1.4631;
2.4000;0.5055;1.4821;
2.7000;0.5047;1.4893;
3.0000;0.5055;1.4988;
3.3000;0.5071;1.5178;
3.6000;0.5063;1.5249;
3.9000;0.5039;1.5225;
4.2000;0.5031;1.5178;
4.5000;0.5031;1.5249;
4.8000;0.5031;1.5391;
5.1000;0.5022;1.5486;
5.4000;0.5014;1.5558;
5.7000;0.5022;1.5653;
6.0000;0.5014;1.5700;
6.3000;0.5022;1.5629;
6.6000;0.5014;1.5653;
6.9000;0.5014;1.5676;
7.2000;0.5014;1.5581;
7.5000;0.5014;1.5629;
7.8000;0.5006;1.5676;
8.1000;0.5006;1.5724;
8.4000;0.5014;1.5724;
8.7000;0.4998;1.5653;
9.0000;0.5104;1.5938;
9.3000;0.5014;1.5700;
9.6000;0.4998;1.5700;
9.9000;0.5014;1.5748;
10.2000;0.4949;1.5486;
10.5000;0.5006;1.5558;
10.8000;0.4998;1.5534;
11.1000;0.5039;1.5676;
11.4000;0.4990;1.5653;
11.7000;0.4990;1.5605;
12.0000;0.4998;1.5629;
12.3000;0.4974;1.5534;
12.6000;0.5014;1.5700;
12.9000;0.4998;1.5653;
13.2000;0.5096;1.5938;
13.5000;0.4990;1.5629;
13.8000;0.4974;1.5653;
14.1000;0.4949;1.5581;
14.4000;0.4982;1.5581;
14.7000;0.5079;1.5866;
15.0000;0.4965;1.5486;
15.3000;0.4990;1.5581;
15.6000;0.4990;1.5676;
15.9000;0.4998;1.5676;
16.2000;0.4990;1.5653;
16.5000;0.4982;1.5676;
16.8000;0.4990;1.5700;
17.1000;0.4990;1.5724;
17.4000;0.4998;1.5748;
17.7000;0.4990;1.5724;
18.0000;0.4982;1.5581;
18.3000;0.4982;1.5558;
18.6000;0.4974;1.5629;
18.9000;0.4974;1.5605;
19.2000;0.4965;1.5581;
19.5000;0.4990;1.5629;
19.8000;0.4974;1.5605;
20.1000;0.4982;1.5653;
20.4000;0.4990;1.5700;
20.7000;0.4982;1.5676;
21.0000;0.4974;1.5653;
21.3000;0.4982;1.5748;
21.6000;0.4974;1.5676;
21.9000;0.4965;1.5653;
22.2000;0.4998;1.5748;
22.5000;0.4974;1.5771;
22.8000;0.4965;1.5819;
23.1000;0.4965;1.5843;
23.4000;0.4974;1.5843;
23.7000;0.4957;1.5866;
24.0000;0.4957;1.5819;
24.3000;0.4990;1.5866;
24.6000;0.4949;1.5795;
24.9000;0.4965;1.5938;
25.2000;0.4965;1.5938;
25.5000;0.4957;1.5890;
25.8000;0.4974;1.5938;
26.1000;0.4957;1.5819;
26.4000;0.4941;1.5890;
26.7000;0.4974;1.5866;
27.0000;0.4957;1.5914;
27.3000;0.4957;1.5843;
27.6000;0.4957;1.5843;
27.9000;0.4982;1.5914;
28.2000;0.4965;1.5819;
28.5000;0.4949;1.5771;
28.8000;0.4957;1.5866;
29.1000;0.4965;1.5866;
29.4000;0.4949;1.5771;
29.7000;0.5031;1.6009;
30.0000;0.4949;1.5843;
30.3000;0.4949;1.5866;
30.6000;0.4933;1.5843;
30.9000;0.4917;1.5890;
31.2000;0.4941;1.5961;
31.5000;0.4941;1.5914;
31.8000;0.4851;1.5629;
32.1000;0.4933;1.5866;
32.4000;0.4957;1.5985;
32.7000;0.4949;1.6080;
33.0000;0.4957;1.6033;
33.3000;0.4949;1.5985;
33.6000;0.4957;1.5938;
33.9000;0.4933;1.5985;
34.2000;0.4917;1.5866;
34.5000;0.4917;1.5843;
34.8000;0.4957;1.5985;
35.1000;0.4949;1.6009;
35.4000;0.5006;1.6128;
35.7000;0.4941;1.6033;
36.0000;0.4941;1.5961;
36.3000;0.4908;1.5866;
36.6000;0.4941;1.5961;
36.9000;0.4941;1.5914;
37.2000;0.4884;1.5748;
37.5000;0.4949;1.5961;
37.8000;0.4933;1.5961;
38.1000;0.4917;1.5819;
38.4000;0.4925;1.5771;
38.7000;0.4982;1.6033;
39.0000;0.4998;1.6009;
39.3000;0.4925;1.5843;
39.6000;0.4892;1.5771;
39.9000;0.4941;1.5890;
40.2000;0.4957;1.5866;
40.5000;0.4941;1.5819;
40.8000;0.4941;1.5938;
41.1000;0.4925;1.5938;
41.4000;0.4925;1.5961;
41.7000;0.4925;1.5938;
42.0000;0.4925;1.5961;
42.3000;0.4941;1.5914;
42.6000;0.4925;1.5771;
42.9000;0.4949;1.5819;
43.2000;0.4933;1.5795;
43.5000;0.4933;1.5724;
43.8000;0.4925;1.5653;
44.1000;0.4933;1.5724;
44.4000;0.4949;1.5748;
44.7000;0.4941;1.5771;
45.0000;0.4941;1.5795;
45.3000;0.4941;1.5843;
45.6000;0.4933;1.5819;
45.9000;0.4925;1.5843;
46.2000;0.4933;1.5938;
46.5000;0.4949;1.5985;
46.8000;0.4933;1.5890;
47.1000;0.4941;1.5866;
47.4000;0.4917;1.5914;
47.7000;0.4917;1.5890;
48.0000;0.4933;1.6009;
48.3000;0.4957;1.5985;
48.6000;0.4900;1.5914;
48.9000;0.4900;1.5795;
49.2000;0.4949;1.5843;
49.5000;0.4965;1.5819;
49.8000;0.4917;1.5795;
50.1000;0.4917;1.5795;
50.4000;0.4933;1.5795;
50.7000;0.4917;1.5748;
51.0000;0.4917;1.5771;
51.3000;0.4900;1.5771;
51.6000;0.4908;1.5819;
51.9000;0.4908;1.5843;
52.2000;0.4892;1.5866;
52.5000;0.4908;1.5961;
52.8000;0.4876;1.5914;
53.1000;0.4900;1.5843;
53.4000;0.4917;1.5866;
53.7000;0.4925;1.5914;
54.0000;0.4917;1.5890;
54.3000;0.4908;1.5843;
54.6000;0.4925;1.5843;
54.9000;0.4900;1.5771;
55.2000;0.4876;1.5629;
55.5000;0.4908;1.5771;
55.8000;0.4917;1.5819;
56.1000;0.4892;1.5819;
56.4000;0.4917;1.5795;
56.7000;0.4933;1.5771;
57.0000;0.4925;1.5819;
57.3000;0.4876;1.5653;
57.6000;0.4917;1.5748;
57.9000;0.4933;1.5724;
58.2000;0.4827;1.5534;
58.5000;0.4908;1.5866;
58.8000;0.4908;1.5890;
59.1000;0.4892;1.5795;
59.4000;0.4917;1.5795;
59.7000;0.4933;1.5914;
60.0000;0.4908;1.5748;
60.3000;0.4908;1.5724;
60.6000;0.4925;1.5724;
60.9000;0.4917;1.5700;
61.2000;0.4908;1.5676;
61.5000;0.4925;1.5676;
61.8000;0.4925;1.5629;
62.1000;0.4917;1.5653;
62.4000;0.4917;1.5748;
62.7000;0.4917;1.5795;
63.0000;0.4925;1.5795;
63.3000;0.4908;1.5795;
63.6000;0.4908;1.5819;
63.9000;0.4900;1.5843;
64.2000;0.4925;1.5890;
64.5000;0.4917;1.5866;
64.8000;0.5006;1.6199;
65.1000;0.4892;1.5890;
65.4000;0.4900;1.5843;
65.7000;0.4908;1.5938;
66.0000;0.4892;1.5961;
66.3000;0.4917;1.6056;
66.6000;0.4908;1.6033;
66.9000;0.4917;1.6033;
67.2000;0.4925;1.5938;
67.5000;0.4917;1.5961;
67.8000;0.4917;1.5890;
68.1000;0.4925;1.5866;
68.4000;0.4917;1.5914;
68.7000;0.4908;1.5914;
69.0000;0.4917;1.6033;
69.3000;0.4925;1.6009;
69.6000;0.4908;1.6009;
69.9000;0.4892;1.6033;
70.2000;0.4908;1.6104;
70.5000;0.4925;1.6104;
70.8000;0.4908;1.6056;
71.1000;0.4925;1.6056;
71.4000;0.4908;1.6033;
71.7000;0.4974;1.6175;
72.0000;0.4900;1.5914;
72.3000;0.4917;1.5985;
72.6000;0.4917;1.5985;
72.9000;0.4900;1.5914;
73.2000;0.4908;1.6033;
73.5000;0.4941;1.6056;
73.8000;0.4900;1.5914;
74.1000;0.4900;1.5890;
74.4000;0.4900;1.5819;
74.7000;0.4884;1.5771;
75.0000;0.4965;1.5961;
75.3000;0.4892;1.5843;
75.6000;0.4917;1.6009;
75.9000;0.4933;1.6009;
76.2000;0.4917;1.6009;
76.5000;0.4900;1.5985;
76.8000;0.4900;1.5961;
77.1000;0.4884;1.5890;
77.4000;0.4892;1.5890;
77.7000;0.4892;1.5866;
78.0000;0.4884;1.5795;
78.3000;0.4908;1.5819;
78.6000;0.4917;1.5771;
78.9000;0.4908;1.5819;
79.2000;0.4860;1.5700;
79.5000;0.4892;1.5866;
79.8000;0.4917;1.5843;
80.1000;0.4908;1.5938;
80.4000;0.4900;1.5914;
80.7000;0.4917;1.5985;
81.0000;0.4819;1.5771;
81.3000;0.4892;1.5961;
81.6000;0.4892;1.5938;
81.9000;0.4908;1.5914;
82.2000;0.4908;1.5771;
82.5000;0.4949;1.5914;
82.8000;0.4925;1.5843;
83.1000;0.4917;1.5866;
83.4000;0.4917;1.5914;
83.7000;0.4908;1.5866;
84.0000;0.4900;1.5795;
84.3000;0.4908;1.5866;
84.6000;0.4908;1.5890;
84.9000;0.4900;1.5961;
85.2000;0.4908;1.6056;
85.5000;0.4892;1.6128;
85.8000;0.4917;1.6128;
86.1000;0.4892;1.6033;
86.4000;0.4908;1.6033;
86.7000;0.4843;1.5938;
87.0000;0.4835;1.5938;
87.3000;0.4900;1.6056;
87.6000;0.4892;1.5961;
87.9000;0.4957;1.6009;
88.2000;0.4917;1.5795;
88.5000;0.4917;1.5795;
88.8000;0.4900;1.5795;
89.1000;0.4900;1.5771;
89.4000;0.4908;1.5819;
89.7000;0.4908;1.5914;
90.0000;0.4892;1.5914;
90.3000;0.4892;1.5985;
90.6000;0.4917;1.6080;
90.9000;0.4900;1.6056;
91.2000;0.4908;1.6009;
91.5000;0.4900;1.5866;
91.8000;0.4908;1.5914;
92.1000;0.4900;1.5961;
92.4000;0.4908;1.5938;
92.7000;0.4917;1.6033;
93.0000;0.4892;1.6009;
93.3000;0.4917;1.6104;
93.6000;0.4908;1.6080;
93.9000;0.4908;1.6009;
94.2000;0.4908;1.5961;
94.5000;0.4925;1.6033;
94.8000;0.4892;1.5961;
95.1000;0.4908;1.5985;
95.4000;0.4900;1.5985;
95.7000;0.4933;1.5985;
96.0000;0.4965;1.6080;
96.3000;0.4892;1.5866;
96.6000;0.4925;1.5961;
96.9000;0.4900;1.6009;
97.2000;0.4900;1.5985;
97.5000;0.4908;1.5938;
97.8000;0.4925;1.5961;
98.1000;0.4908;1.5819;
98.4000;0.4957;1.5890;
98.7000;0.4900;1.5843;
99.0000;0.4892;1.5938;
99.3000;0.4892;1.5914;
99.6000;0.4917;1.6056;
99.9000;0.4900;1.6080;
100.2000;0.4884;1.6056;
100.5000;0.4876;1.5985;
100.8000;0.4908;1.5961;
101.1000;0.4917;1.5985;
101.4000;0.4908;1.5890;
101.7000;0.4917;1.5938;
102.0000;0.4917;1.6009;
102.3000;0.4884;1.5914;
102.6000;0.4917;1.5961;
102.9000;0.4884;1.5914;
103.2000;0.4908;1.5985;
103.5000;0.4908;1.6080;
103.8000;0.4900;1.6104;
104.1000;0.4892;1.6056;
104.4000;0.4884;1.6056;
104.7000;0.4868;1.6033;
105.0000;0.4876;1.6033;
105.3000;0.4900;1.6056;
105.6000;0.4892;1.6009;
105.9000;0.4892;1.6033;
106.2000;0.4900;1.6080;
106.5000;0.4884;1.6104;
106.8000;0.4884;1.6033;
107.1000;0.4900;1.6080;
107.4000;0.4900;1.6056;
107.7000;0.4917;1.6128;
108.0000;0.4884;1.6009;
108.3000;0.4892;1.6080;
108.6000;0.4884;1.6009;
108.9000;0.4908;1.6056;
109.2000;0.4884;1.6033;
109.5000;0.4900;1.6033;
109.8000;0.4900;1.6080;
110.1000;0.4900;1.6056;
110.4000;0.4892;1.6009;
110.7000;0.4908;1.6009;
111.0000;0.4908;1.6009;
111.3000;0.4917;1.6009;
111.6000;0.4900;1.5961;
111.9000;0.4900;1.5938;
112.2000;0.4908;1.5961;
112.5000;0.4900;1.5985;
112.8000;0.4908;1.5938;
113.1000;0.4908;1.6080;
113.4000;0.4884;1.6056;
113.7000;0.4900;1.6151;
114.0000;0.4892;1.6151;
114.3000;0.4892;1.6056;
114.6000;0.4892;1.6056;
114.9000;0.4941;1.6056;
115.2000;0.4900;1.5914;
115.5000;0.4900;1.5866;
115.8000;0.4900;1.5819;
116.1000;0.4900;1.5961;
116.4000;0.4900;1.5914;
116.7000;0.4908;1.5914;
117.0000;0.5006;1.6294;
117.3000;0.4900;1.6033;
117.6000;0.4900;1.5914;
117.9000;0.4933;1.5914;
118.2000;0.4949;1.5961;
118.5000;0.4908;1.5771;
118.8000;0.4908;1.5843;
119.1000;0.4900;1.5914;
119.4000;0.4884;1.5985;
119.7000;0.4900;1.6033;
120.0000;0.4908;1.6056;
120.3000;0.4900;1.6033;
120.6000;0.4892;1.5985;
120.9000;0.4884;1.5938;
121.2000;0.4908;1.5938;
121.5000;0.4900;1.5985;
121.8000;0.4892;1.6009;
122.1000;0.4884;1.5938;
122.4000;0.4908;1.6056;
122.7000;0.4908;1.6080;
123.0000;0.4900;1.6080;
123.3000;0.4900;1.6128;
123.6000;0.4900;1.6151;
123.9000;0.4860;1.6056;
124.2000;0.4892;1.6151;
124.5000;0.4900;1.6151;
124.8000;0.4892;1.6128;
125.1000;0.4884;1.6056;
125.4000;0.4892;1.6033;
125.7000;0.4900;1.6151;
126.0000;0.4949;1.6318;
126.3000;0.4908;1.6199;
126.6000;0.4908;1.6199;
126.9000;0.4868;1.6056;
127.2000;0.4908;1.6175;
127.5000;0.4835;1.5914;
127.8000;0.4884;1.5985;
128.1000;0.4892;1.6033;
128.4000;0.4884;1.6080;
128.7000;0.4908;1.6151;
129.0000;0.4965;1.6436;
129.3000;0.4941;1.6413;
129.6000;0.4917;1.6270;
129.9000;0.5006;1.6484;
130.2000;0.4908;1.6151;
130.5000;0.4908;1.6223;
130.8000;0.4917;1.6270;
131.1000;0.4900;1.6199;
131.4000;0.4908;1.6246;
131.7000;0.4941;1.6365;
132.0000;0.4884;1.6270;
132.3000;0.4900;1.6318;
132.6000;0.4900;1.6318;
132.9000;0.4908;1.6294;
133.2000;0.4884;1.6318;
133.5000;0.4900;1.6270;
133.8000;0.4908;1.6294;
134.1000;0.4860;1.6199;
134.4000;0.4892;1.6199;
134.7000;0.4900;1.6104;
135.0000;0.4892;1.6080;
135.3000;0.4900;1.6056;
135.6000;0.4884;1.6128;
135.9000;0.4892;1.6128;
136.2000;0.4884;1.6104;
136.5000;0.4900;1.6223;
136.8000;0.4900;1.6270;
137.1000;0.4908;1.6223;
137.4000;0.4908;1.6246;
137.7000;0.4900;1.6270;
138.0000;0.4900;1.6246;
138.3000;0.4884;1.6223;
138.6000;0.4892;1.6223;
138.9000;0.4892;1.6223;
139.2000;0.4925;1.6246;
139.5000;0.4900;1.6223;
139.8000;0.4884;1.6104;
140.1000;0.4884;1.6175;
140.4000;0.4900;1.6294;
140.7000;0.4892;1.6246;
141.0000;0.4892;1.6294;
141.3000;0.4892;1.6246;
141.6000;0.4900;1.6223;
141.9000;0.4892;1.6341;
142.2000;0.4917;1.6389;
142.5000;0.4908;1.6318;
142.8000;0.4908;1.6341;
143.1000;0.4908;1.6365;
143.4000;0.4803;1.6128;
143.7000;0.4892;1.6341;
144.0000;0.4884;1.6341;
144.3000;0.4884;1.6341;
144.6000;0.4892;1.6365;
144.9000;0.4900;1.6413;
145.2000;0.4941;1.6484;
145.5000;0.4884;1.6318;
145.8000;0.4884;1.6270;
146.1000;0.4892;1.6270;
146.4000;0.4892;1.6246;
146.7000;0.4892;1.6246;
147.0000;0.4925;1.6413;
147.3000;0.4876;1.6341;
147.6000;0.4900;1.6365;
147.9000;0.4900;1.6365;
148.2000;0.4892;1.6389;
148.5000;0.4892;1.6484;
148.8000;0.4908;1.6531;
149.1000;0.4917;1.6555;
149.4000;0.4917;1.6508;
149.7000;0.4900;1.6508;
150.0000;0.4892;1.6460;
150.3000;0.4941;1.6555;
150.6000;0.4908;1.6484;
150.9000;0.4965;1.6626;
151.2000;0.4811;1.6223;
151.5000;0.4900;1.6555;
151.8000;0.4900;1.6531;
152.1000;0.4990;1.6698;
152.4000;0.4908;1.6460;
152.7000;0.4908;1.6460;
153.0000;0.4908;1.6460;
153.3000;0.4884;1.6413;
153.6000;0.4884;1.6460;
153.9000;0.4884;1.6531;
154.2000;0.4884;1.6484;
154.5000;0.4892;1.6460;
154.8000;0.4868;1.6341;
155.1000;0.4876;1.6318;
155.4000;0.4884;1.6294;
155.7000;0.4900;1.6270;
156.0000;0.4892;1.6175;
156.3000;0.4908;1.6294;
156.6000;0.4908;1.6246;
156.9000;0.4892;1.6246;
157.2000;0.4892;1.6294;
157.5000;0.4908;1.6341;
157.8000;0.4933;1.6413;
158.1000;0.4892;1.6294;
158.4000;0.4908;1.6318;
158.7000;0.4908;1.6436;
159.0000;0.4908;1.6389;
159.3000;0.4908;1.6318;
159.6000;0.4900;1.6246;
159.9000;0.4884;1.6246;
160.2000;0.4892;1.6270;
160.5000;0.4892;1.6223;
160.8000;0.4917;1.6246;
161.1000;0.4908;1.6151;
161.4000;0.4884;1.6151;
161.7000;0.4892;1.6246;
162.0000;0.4900;1.6294;
162.3000;0.4908;1.6246;
162.6000;0.4900;1.6246;
162.9000;0.4917;1.6199;
163.2000;0.4908;1.6175;
163.5000;0.4900;1.6151;
163.8000;0.4900;1.6080;
164.1000;0.4892;1.6033;
164.4000;0.4900;1.6009;
164.7000;0.4884;1.5938;
165.0000;0.4892;1.6009;
165.3000;0.4884;1.5985;
165.6000;0.4941;1.6151;
165.9000;0.4900;1.6128;
166.2000;0.4900;1.6104;
166.5000;0.4892;1.6104;
166.8000;0.4892;1.6223;
167.1000;0.4900;1.6318;
167.4000;0.4908;1.6294;
167.7000;0.4974;1.6484;
168.0000;0.4900;1.6246;
168.3000;0.4892;1.6318;
168.6000;0.4900;1.6341;
168.9000;0.4900;1.6436;
169.2000;0.4892;1.6413;
169.5000;0.4908;1.6460;
169.8000;0.4908;1.6365;
170.1000;0.4900;1.6223;
170.4000;0.4908;1.6151;
170.7000;0.4900;1.6009;
171.0000;0.4892;1.5938;
171.3000;0.4941;1.6080;
171.6000;0.4900;1.5961;
171.9000;0.4900;1.6056;
172.2000;0.4941;1.6246;
172.5000;0.4908;1.6199;
172.8000;0.4900;1.6270;
173.1000;0.4900;1.6270;
173.4000;0.4957;1.6460;
173.7000;0.4917;1.6365;
174.0000;0.4892;1.6294;
174.3000;0.4908;1.6318;
174.6000;0.4908;1.6294;
174.9000;0.4884;1.6246;
175.2000;0.4851;1.6128;
175.5000;0.4900;1.6318;
175.8000;0.4908;1.6365;
176.1000;0.4957;1.6436;
176.4000;0.4892;1.6246;
176.7000;0.4892;1.6294;
177.0000;0.4908;1.6318;
177.3000;0.4908;1.6413;
177.6000;0.4900;1.6413;
177.9000;0.4900;1.6460;
178.2000;0.4908;1.6389;
178.5000;0.4908;1.6413;
178.8000;0.4884;1.6341;
179.1000;0.4884;1.6223;
179.4000;0.4892;1.6223;
179.7000;0.4908;1.6318;
180.0000;0.4892;1.6341;
180.3000;0.4892;1.6318;
180.6000;0.4900;1.6341;
180.9000;0.4900;1.6270;
181.2000;0.4908;1.6246;
181.5000;0.4884;1.6199;
181.8000;0.4990;1.6555;
182.1000;0.4900;1.6389;
182.4000;0.4925;1.6436;
182.7000;0.4892;1.6341;
183.0000;0.4892;1.6294;
183.3000;0.4892;1.6270;
183.6000;0.4892;1.6246;
183.9000;0.4892;1.6223;
184.2000;0.4892;1.6223;
184.5000;0.4892;1.6199;
184.8000;0.4908;1.6175;
185.1000;0.4884;1.6151;
185.4000;0.4900;1.6175;
185.7000;0.4917;1.6246;
186.0000;0.4908;1.6294;
186.3000;0.4884;1.6270;
186.6000;0.4900;1.6294;
186.9000;0.4900;1.6294;
187.2000;0.4908;1.6341;
187.5000;0.4908;1.6270;
187.8000;0.4965;1.6484;
188.1000;0.5014;1.6674;
188.4000;0.4917;1.6413;
188.7000;0.4908;1.6389;
189.0000;0.4892;1.6460;
189.3000;0.4892;1.6484;
189.6000;0.4892;1.6508;
189.9000;0.4908;1.6603;
190.2000;0.4957;1.6626;
190.5000;0.4933;1.6603;
190.8000;0.4900;1.6579;
191.1000;0.4892;1.6531;
191.4000;0.4941;1.6603;
191.7000;0.4957;1.6579;
192.0000;0.4957;1.6508;
192.3000;0.4917;1.6294;
192.6000;0.4892;1.6365;
192.9000;0.4884;1.6318;
193.2000;0.4933;1.6436;
193.5000;0.4900;1.6413;
193.8000;0.4908;1.6389;
194.1000;0.4908;1.6413;
194.4000;0.4892;1.6294;
194.7000;0.4900;1.6318;
195.0000;0.4957;1.6389;
195.3000;0.4908;1.6341;
195.6000;0.4892;1.6318;
195.9000;0.4908;1.6389;
196.2000;0.4908;1.6413;
196.5000;0.4908;1.6508;
196.8000;0.4884;1.6508;
197.1000;0.4908;1.6460;
197.4000;0.4900;1.6365;
197.7000;0.4900;1.6365;
198.0000;0.4900;1.6413;
198.3000;0.4908;1.6436;
198.6000;0.4900;1.6413;
198.9000;0.4908;1.6389;
199.2000;0.4908;1.6413;
199.5000;0.4925;1.6413;
199.8000;0.4892;1.6365;
200.1000;0.4908;1.6389;
200.4000;0.4908;1.6413;
200.7000;0.4884;1.6389;
201.0000;0.4908;1.6508;
201.3000;0.4908;1.6460;
201.6000;0.4917;1.6436;
201.9000;0.4900;1.6389;
202.2000;0.4892;1.6389;
202.5000;0.4917;1.6413;
202.8000;0.4892;1.6389;
203.1000;0.4900;1.6365;
203.4000;0.4900;1.6389;
203.7000;0.4892;1.6389;
204.0000;0.4908;1.6389;
204.3000;0.4908;1.6294;
204.6000;0.4900;1.6223;
204.9000;0.4933;1.6365;
205.2000;0.4892;1.6294;
205.5000;0.4900;1.6294;
205.8000;0.4925;1.6341;
206.1000;0.4892;1.6318;
206.4000;0.4884;1.6270;
206.7000;0.4892;1.6318;
207.0000;0.4908;1.6365;
207.3000;0.4900;1.6389;
207.6000;0.4900;1.6341;
207.9000;0.4868;1.6199;
208.2000;0.4908;1.6151;
208.5000;0.4876;1.6151;
208.8000;0.4900;1.6318;
209.1000;0.4900;1.6318;
209.4000;0.4892;1.6294;
209.7000;0.4884;1.6318;
210.0000;0.4900;1.6389;
210.3000;0.4949;1.6603;
210.6000;0.4900;1.6413;
210.9000;0.4908;1.6389;
211.2000;0.4941;1.6484;
211.5000;0.4868;1.6294;
211.8000;0.4908;1.6365;
212.1000;0.4933;1.6460;
212.4000;0.4868;1.6294;
212.7000;0.4908;1.6318;
213.0000;0.4884;1.6294;
213.3000;0.4892;1.6341;
213.6000;0.4884;1.6270;
213.9000;0.4908;1.6270;
214.2000;0.4884;1.6151;
214.5000;0.4900;1.6341;
214.8000;0.4876;1.6389;
215.1000;0.4892;1.6389;
215.4000;0.4908;1.6484;
215.7000;0.4908;1.6531;
216.0000;0.4860;1.6413;
216.3000;0.4900;1.6508;
216.6000;0.4835;1.6341;
216.9000;0.4892;1.6650;
217.2000;0.4827;1.6484;
217.5000;0.4908;1.6674;
217.8000;0.4868;1.6650;
218.1000;0.4974;1.6840;
218.4000;0.4892;1.6698;
218.7000;0.4917;1.6793;
219.0000;0.4900;1.6698;
219.3000;0.4900;1.6650;
219.6000;0.4892;1.6674;
219.9000;0.4908;1.6650;
220.2000;0.4908;1.6674;
220.5000;0.4900;1.6650;
220.8000;0.4892;1.6555;
221.1000;0.4892;1.6460;
221.4000;0.4925;1.6579;
221.7000;0.4892;1.6436;
222.0000;0.4933;1.6698;
222.3000;0.4876;1.6579;
222.6000;0.4868;1.6484;
222.9000;0.4908;1.6508;
223.2000;0.4876;1.6555;
223.5000;0.4900;1.6650;
223.8000;0.4892;1.6626;
224.1000;0.4892;1.6579;
224.4000;0.4900;1.6531;
224.7000;0.4851;1.6365;
225.0000;0.4908;1.6484;
225.3000;0.4892;1.6460;
225.6000;0.4884;1.6389;
225.9000;0.4876;1.6341;
226.2000;0.4884;1.6389;
226.5000;0.4917;1.6389;
226.8000;0.4803;1.6104;
227.1000;0.4908;1.6389;
227.4000;0.4908;1.6341;
227.7000;0.4908;1.6341;
228.0000;0.4908;1.6294;
228.3000;0.4908;1.6270;
228.6000;0.4908;1.6294;
228.9000;0.4884;1.6199;
229.2000;0.4892;1.6365;
229.5000;0.4900;1.6508;
229.8000;0.4892;1.6460;
230.1000;0.4917;1.6436;
230.4000;0.4908;1.6436;
230.7000;0.4892;1.6460;
231.0000;0.4892;1.6508;
231.3000;0.4908;1.6508;
231.6000;0.4908;1.6531;
231.9000;0.4900;1.6603;
232.2000;0.4908;1.6650;
232.5000;0.4900;1.6603;
232.8000;0.4917;1.6650;
233.1000;0.4908;1.6650;
233.4000;0.4892;1.6626;
233.7000;0.4900;1.6484;
234.0000;0.4900;1.6484;
234.3000;0.4917;1.6484;
234.6000;0.4900;1.6436;
234.9000;0.4892;1.6365;
235.2000;0.4892;1.6365;
235.5000;0.4908;1.6270;
235.8000;0.4908;1.6318;
236.1000;0.4892;1.6246;
236.4000;0.4860;1.6175;
236.7000;0.4900;1.6223;
237.0000;0.4917;1.6294;
237.3000;0.4860;1.6294;
237.6000;0.4892;1.6341;
237.9000;0.4892;1.6294;
238.2000;0.4794;1.6033;
238.5000;0.4925;1.6413;
238.8000;0.4908;1.6436;
239.1000;0.4908;1.6413;
239.4000;0.4884;1.6223;
239.7000;0.4908;1.6294;
240.0000;0.4892;1.6294;
240.3000;0.4917;1.6365;
240.6000;0.4917;1.6365;
240.9000;0.4908;1.6341;
241.2000;0.4908;1.6389;
241.5000;0.4925;1.6389;
241.8000;0.4900;1.6341;
242.1000;0.4941;1.6484;
242.4000;0.4900;1.6436;
242.7000;0.4925;1.6484;
243.0000;0.4908;1.6436;
243.3000;0.5006;1.6745;
243.6000;0.4876;1.6508;
243.9000;0.4892;1.6555;
244.2000;0.4908;1.6579;
244.5000;0.4900;1.6579;
244.8000;0.4860;1.6508;
245.1000;0.4876;1.6555;
245.4000;0.4908;1.6626;
245.7000;0.4892;1.6555;
246.0000;0.4908;1.6626;
246.3000;0.4908;1.6650;
246.6000;0.4925;1.6698;
246.9000;0.4876;1.6579;
247.2000;0.4917;1.6698;
247.5000;0.4892;1.6555;
247.8000;0.4876;1.6508;
248.1000;0.4884;1.6508;
248.4000;0.4884;1.6508;
248.7000;0.4876;1.6484;
249.0000;0.4868;1.6460;
249.3000;0.4843;1.6389;
249.6000;0.4900;1.6460;
249.9000;0.4884;1.6436;
250.2000;0.4900;1.6436;
250.5000;0.4900;1.6413;
250.8000;0.4908;1.6389;
251.1000;0.4908;1.6436;
251.4000;0.4900;1.6508;
251.7000;0.4900;1.6508;
252.0000;0.4933;1.6626;
252.3000;0.4908;1.6674;
252.6000;0.4925;1.6674;
252.9000;0.4933;1.6674;
253.2000;0.4925;1.6650;
253.5000;0.4908;1.6531;
253.8000;0.4908;1.6603;
254.1000;0.4892;1.6650;
254.4000;0.4917;1.6674;
254.7000;0.4908;1.6626;
255.0000;0.4908;1.6484;
255.3000;0.4900;1.6389;
255.6000;0.4917;1.6365;
255.9000;0.4925;1.6436;
256.2000;0.4908;1.6508;
256.5000;0.4933;1.6460;
256.8000;0.4933;1.6413;
257.1000;0.4908;1.6460;
257.4000;0.4917;1.6603;
257.7000;0.4917;1.6603;
258.0000;0.4900;1.6555;
258.3000;0.4835;1.6460;
258.6000;0.4884;1.6603;
258.9000;0.4884;1.6531;
259.2000;0.4884;1.6650;
259.5000;0.5006;1.6911;
259.8000;0.4843;1.6460;
260.1000;0.4884;1.6508;
260.4000;0.4843;1.6341;
260.7000;0.4900;1.6531;
261.0000;0.4908;1.6531;
261.3000;0.4876;1.6436;
261.6000;0.4892;1.6484;
261.9000;0.4908;1.6531;
262.2000;0.4900;1.6555;
262.5000;0.4900;1.6508;
262.8000;0.4892;1.6531;
263.1000;0.4925;1.6650;
263.4000;0.4876;1.6555;
263.7000;0.4917;1.6626;
264.0000;0.4900;1.6555;
264.3000;0.4917;1.6603;
264.6000;0.4892;1.6626;
264.9000;0.4900;1.6674;
265.2000;0.4892;1.6626;
265.5000;0.4908;1.6674;
265.8000;0.4933;1.6769;
266.1000;0.4868;1.6603;
266.4000;0.4925;1.6769;
266.7000;0.4917;1.6674;
267.0000;0.4908;1.6698;
267.3000;0.4908;1.6793;
267.6000;0.4908;1.6721;
267.9000;0.4933;1.6698;
268.2000;0.4933;1.6626;
268.5000;0.4900;1.6484;
268.8000;0.4884;1.6531;
269.1000;0.4908;1.6626;
269.4000;0.4908;1.6650;
269.7000;0.4925;1.6674;
270.0000;0.4900;1.6650;
270.3000;0.4892;1.6626;
270.6000;0.4917;1.6650;
270.9000;0.4949;1.6769;
271.2000;0.4900;1.6579;
271.5000;0.4900;1.6413;
271.8000;0.4949;1.6555;
272.1000;0.4892;1.6460;
272.4000;0.4917;1.6531;
272.7000;0.4900;1.6508;
273.0000;0.4908;1.6460;
273.3000;0.4908;1.6555;
273.6000;0.4900;1.6531;
273.9000;0.4908;1.6579;
274.2000;0.4908;1.6579;
274.5000;0.4917;1.6531;
274.8000;0.4917;1.6626;
275.1000;0.4908;1.6626;
275.4000;0.4908;1.6626;
275.7000;0.4900;1.6579;
276.0000;0.4925;1.6579;
276.3000;0.4892;1.6626;
276.6000;0.4908;1.6674;
276.9000;0.4925;1.6698;
277.2000;0.4908;1.6650;
277.5000;0.4925;1.6603;
277.8000;0.4917;1.6531;
278.1000;0.4917;1.6508;
278.4000;0.4925;1.6508;
278.7000;0.4908;1.6531;
279.0000;0.4900;1.6603;
279.3000;0.4917;1.6698;
279.6000;0.4925;1.6721;
279.9000;0.4917;1.6674;
280.2000;0.4884;1.6484;
280.5000;0.4908;1.6603;
280.8000;0.4900;1.6579;
281.1000;0.4925;1.6579;
281.4000;0.4900;1.6555;
281.7000;0.4908;1.6484;
282.0000;0.4908;1.6484;
282.3000;0.4941;1.6603;
282.6000;0.4908;1.6531;
282.9000;0.4908;1.6531;
283.2000;0.4941;1.6626;
283.5000;0.4917;1.6698;
283.8000;0.4892;1.6721;
284.1000;0.4803;1.6484;
284.4000;0.4965;1.6935;
284.7000;0.4933;1.6911;
285.0000;0.4998;1.7030;
285.3000;0.4917;1.6864;
285.6000;0.4860;1.6745;
285.9000;0.4925;1.6816;
286.2000;0.4900;1.6745;
286.5000;0.4908;1.6674;
286.8000;0.4900;1.6698;
287.1000;0.4908;1.6674;
287.4000;0.4900;1.6603;
287.7000;0.4908;1.6531;
288.0000;0.4917;1.6531;
288.3000;0.4925;1.6579;
288.6000;0.4908;1.6579;
288.9000;0.4908;1.6626;
289.2000;0.4908;1.6674;
289.5000;0.4892;1.6674;
289.8000;0.4917;1.6698;
290.1000;0.4917;1.6674;
290.4000;0.4908;1.6579;
290.7000;0.4892;1.6460;
291.0000;0.4925;1.6555;
291.3000;0.4900;1.6460;
291.6000;0.4908;1.6389;
291.9000;0.4908;1.6341;
292.2000;0.4900;1.6460;
292.5000;0.4917;1.6460;
292.8000;0.4908;1.6436;
293.1000;0.4892;1.6365;
293.4000;0.4892;1.6413;
293.7000;0.4900;1.6508;
294.0000;0.4900;1.6460;
294.3000;0.4892;1.6460;
294.6000;0.4933;1.6484;
294.9000;0.4908;1.6484;
295.2000;0.4908;1.6436;
295.5000;0.4908;1.6413;
295.8000;0.4908;1.6389;
296.1000;0.4900;1.6436;
296.4000;0.4917;1.6413;
296.7000;0.4892;1.6341;
297.0000;0.4876;1.6436;
297.3000;0.4917;1.6484;
297.6000;0.4908;1.6413;
297.9000;0.4908;1.6531;
298.2000;0.4900;1.6460;
298.5000;0.4925;1.6555;
298.8000;0.4860;1.6413;
299.1000;0.4908;1.6484;
299.4000;0.4900;1.6484;
299.7000;0.4884;1.6484;
300.0000;0.4908;1.6555;
300.3000;0.4900;1.6484;
300.6000;0.4933;1.6508;
300.9000;0.4925;1.6531;
301.2000;0.4917;1.6603;
301.5000;0.4933;1.6579;
301.8000;0.4900;1.6579;
302.1000;0.4908;1.6650;
302.4000;0.4908;1.6721;
302.7000;0.4917;1.6603;
303.0000;0.4900;1.6579;
303.3000;0.4876;1.6603;
303.6000;0.4900;1.6626;
303.9000;0.4884;1.6650;
304.2000;0.4860;1.6603;
304.5000;0.4892;1.6674;
304.8000;0.4892;1.6674;
305.1000;0.4925;1.6626;
305.4000;0.4917;1.6508;
305.7000;0.4908;1.6460;
306.0000;0.4835;1.6223;
306.3000;0.4908;1.6555;
306.6000;0.4917;1.6484;
306.9000;0.4892;1.6436;
307.2000;0.4990;1.6626;
307.5000;0.4941;1.6508;
307.8000;0.4900;1.6460;
308.1000;0.4933;1.6579;
308.4000;0.4884;1.6508;
308.7000;0.4917;1.6650;
309.0000;0.4917;1.6674;
309.3000;0.4908;1.6626;
309.6000;0.4819;1.6436;
309.9000;0.4917;1.6650;
310.2000;0.4925;1.6579;
310.5000;0.4892;1.6460;
310.8000;0.4917;1.6555;
311.1000;0.4908;1.6674;
311.4000;0.4925;1.6650;
311.7000;0.4917;1.6603;
312.0000;0.4925;1.6650;
312.3000;0.4892;1.6626;
312.6000;0.4917;1.6603;
312.9000;0.4908;1.6579;
313.2000;0.4908;1.6579;
313.5000;0.4884;1.6579;
313.8000;0.4917;1.6555;
314.1000;0.4925;1.6555;
314.4000;0.4941;1.6745;
314.7000;0.4908;1.6745;
315.0000;0.4917;1.6816;
315.3000;0.4908;1.6888;
315.6000;0.4908;1.6911;
315.9000;0.4900;1.6840;
316.2000;0.4917;1.6959;
316.5000;0.4941;1.6888;
316.8000;0.4908;1.6745;
317.1000;0.4908;1.6745;
317.4000;0.4998;1.6959;
317.7000;0.4892;1.6698;
318.0000;0.4933;1.6674;
318.3000;0.4908;1.6579;
318.6000;0.4908;1.6626;
318.9000;0.4900;1.6721;
319.2000;0.4908;1.6769;
319.5000;0.4917;1.6816;
319.8000;0.4884;1.6650;
320.1000;0.4925;1.6721;
320.4000;0.4900;1.6650;
320.7000;0.4900;1.6555;
321.0000;0.4892;1.6579;
321.3000;0.4908;1.6698;
321.6000;0.4892;1.6626;
321.9000;0.4876;1.6555;
322.2000;0.4900;1.6603;
322.5000;0.4917;1.6603;
322.8000;0.4917;1.6579;
323.1000;0.4917;1.6555;
323.4000;0.4925;1.6579;
323.7000;0.4917;1.6603;
324.0000;0.4908;1.6626;
324.3000;0.4925;1.6674;
324.6000;0.4917;1.6674;
324.9000;0.4908;1.6674;
325.2000;0.4908;1.6626;
325.5000;0.4925;1.6650;
325.8000;0.4908;1.6674;
326.1000;0.4900;1.6650;
326.4000;0.4900;1.6626;
326.7000;0.4908;1.6674;
327.0000;0.4884;1.6603;
327.3000;0.4884;1.6626;
327.6000;0.4908;1.6674;
327.9000;0.4892;1.6626;
328.2000;0.4908;1.6603;
328.5000;0.4917;1.6626;
328.8000;0.4908;1.6626;
329.1000;0.4900;1.6579;
329.4000;0.4876;1.6579;
329.7000;0.4908;1.6745;
330.0000;0.4884;1.6698;
330.3000;0.4917;1.6816;
330.6000;0.4908;1.6745;
330.9000;0.4933;1.6793;
331.2000;0.4982;1.6793;
331.5000;0.4868;1.6531;
331.8000;0.4925;1.6626;
332.1000;0.4900;1.6626;
332.4000;0.4900;1.6650;
332.7000;0.4917;1.6603;
333.0000;0.4908;1.6555;
333.3000;0.4900;1.6626;
333.6000;0.4900;1.6603;
333.9000;0.4908;1.6626;
334.2000;0.4917;1.6650;
334.5000;0.4949;1.6698;
334.8000;0.4917;1.6674;
335.1000;0.4933;1.6650;
335.4000;0.4892;1.6460;
335.7000;0.4917;1.6531;
336.0000;0.4941;1.6674;
336.3000;0.4908;1.6531;
336.6000;0.4925;1.6626;
336.9000;0.4908;1.6674;
337.2000;0.4892;1.6698;
337.5000;0.4851;1.6555;
337.8000;0.4908;1.6745;
338.1000;0.4941;1.6816;
338.4000;0.4884;1.6650;
338.7000;0.4900;1.6698;
339.0000;0.4892;1.6603;
339.3000;0.4908;1.6674;
339.6000;0.4908;1.6674;
339.9000;0.4900;1.6745;
340.2000;0.4908;1.6745;
340.5000;0.4908;1.6769;
340.8000;0.4900;1.6816;
341.1000;0.4900;1.6721;
341.4000;0.4892;1.6698;
341.7000;0.4900;1.6745;
342.0000;0.4892;1.6698;
342.3000;0.4900;1.6626;
342.6000;0.4925;1.6674;
342.9000;0.4917;1.6745;
343.2000;0.4876;1.6626;
343.5000;0.4917;1.6555;
343.8000;0.4908;1.6460;
344.1000;0.4933;1.6555;
344.4000;0.4900;1.6413;
344.7000;0.4917;1.6508;
345.0000;0.4900;1.6413;
345.3000;0.4917;1.6436;
345.6000;0.4892;1.6365;
345.9000;0.4827;1.6151;
346.2000;0.4908;1.6389;
346.5000;0.4908;1.6436;
346.8000;0.4917;1.6508;
347.1000;0.4917;1.6508;
347.4000;0.4900;1.6413;
347.7000;0.4900;1.6484;
348.0000;0.4908;1.6579;
348.3000;0.4908;1.6721;
348.6000;0.4908;1.6816;
348.9000;0.4917;1.6911;
349.2000;0.4917;1.6935;
349.5000;0.4917;1.6864;
349.8000;0.4925;1.6816;
350.1000;0.4917;1.6745;
350.4000;0.4892;1.6816;
350.7000;0.4884;1.6793;
351.0000;0.4925;1.6864;
351.3000;0.4925;1.6745;
351.6000;0.4908;1.6721;
351.9000;0.4908;1.6721;
352.2000;0.4908;1.6769;
352.5000;0.4884;1.6650;
352.8000;0.4892;1.6698;
353.1000;0.4908;1.6721;
353.4000;0.4892;1.6674;
353.7000;0.4908;1.6674;
354.0000;0.4982;1.6911;
354.3000;0.4908;1.6769;
354.6000;0.4917;1.6745;
354.9000;0.4917;1.6698;
355.2000;0.4900;1.6650;
355.5000;0.4917;1.6698;
355.8000;0.4900;1.6745;
356.1000;0.4925;1.6793;
356.4000;0.4917;1.6793;
356.7000;0.4917;1.6745;
357.0000;0.4908;1.6674;
357.3000;0.4884;1.6650;
357.6000;0.4900;1.6793;
357.9000;0.4900;1.6721;
358.2000;0.4925;1.6840;
358.5000;0.4917;1.6840;
358.8000;0.4917;1.6769;
359.1000;0.4908;1.6745;
359.4000;0.4917;1.6864;
359.7000;0.4917;1.6959;
360.0000;0.4925;1.6911;
360.3000;0.4892;1.6745;
360.6000;0.4908;1.6626;
360.9000;0.4941;1.6650;
361.2000;0.4908;1.6603;
361.5000;0.4892;1.6555;
361.8000;0.4917;1.6626;
362.1000;0.4917;1.6745;
362.4000;0.4908;1.6698;
362.7000;0.4900;1.6650;
363.0000;0.4908;1.6745;
363.3000;0.4908;1.6793;
363.6000;0.4908;1.6721;
363.9000;0.5022;1.7030;
364.2000;0.4917;1.6864;
364.5000;0.4933;1.6840;
364.8000;0.4957;1.6769;
365.1000;0.4917;1.6721;
365.4000;0.4917;1.6650;
365.7000;0.4917;1.6579;
366.0000;0.4925;1.6555;
366.3000;0.4925;1.6603;
366.6000;0.4917;1.6531;
366.9000;0.4908;1.6484;
367.2000;0.4900;1.6460;
367.5000;0.4908;1.6436;
367.8000;0.4933;1.6555;
368.1000;0.4908;1.6436;
368.4000;0.4900;1.6365;
368.7000;0.4925;1.6413;
369.0000;0.4900;1.6413;
369.3000;0.4917;1.6555;
369.6000;0.4917;1.6484;
369.9000;0.4892;1.6460;
370.2000;0.4974;1.6555;
370.5000;0.4933;1.6460;
370.8000;0.4933;1.6460;
371.1000;0.4908;1.6365;
371.4000;0.4908;1.6246;
371.7000;0.4892;1.6223;
372.0000;0.4908;1.6270;
372.3000;0.4917;1.6318;
372.6000;0.4835;1.6151;
372.9000;0.4917;1.6341;
373.2000;0.4908;1.6460;
373.5000;0.4917;1.6460;
373.8000;0.4908;1.6436;
374.1000;0.4925;1.6579;
374.4000;0.4925;1.6579;
374.7000;0.4892;1.6531;
375.0000;0.4917;1.6531;
375.3000;0.5022;1.6840;
375.6000;0.4949;1.6674;
375.9000;0.4917;1.6603;
376.2000;0.4835;1.6413;
376.5000;0.4892;1.6484;
376.8000;0.4892;1.6484;
377.1000;0.4876;1.6555;
377.4000;0.4925;1.6626;
377.7000;0.4811;1.6365;
378.0000;0.4908;1.6603;
378.3000;0.4876;1.6531;
378.6000;0.4949;1.6721;
378.9000;0.4908;1.6650;
379.2000;0.4900;1.6674;
379.5000;0.4917;1.6674;
379.8000;0.4925;1.6650;
380.1000;0.4917;1.6579;
380.4000;0.4925;1.6579;
380.7000;0.4892;1.6508;
381.0000;0.4892;1.6555;
381.3000;0.4892;1.6555;
381.6000;0.4917;1.6650;
381.9000;0.4925;1.6579;
382.2000;0.4917;1.6579;
382.5000;0.4941;1.6603;
382.8000;0.4925;1.6579;
383.1000;0.4925;1.6603;
383.4000;0.4925;1.6508;
383.7000;0.4925;1.6413;
384.0000;0.4908;1.6436;
384.3000;0.4925;1.6484;
384.6000;0.4908;1.6484;
384.9000;0.4941;1.6579;
385.2000;0.4917;1.6508;
385.5000;0.4900;1.6436;
385.8000;0.4917;1.6603;
386.1000;0.4917;1.6555;
386.4000;0.4917;1.6650;
386.7000;0.4925;1.6674;
387.0000;0.4925;1.6674;
387.3000;0.4908;1.6626;
387.6000;0.4925;1.6650;
387.9000;0.4908;1.6460;
388.2000;0.4884;1.6413;
388.5000;0.4933;1.6508;
388.8000;0.4917;1.6436;
389.1000;0.4917;1.6365;
389.4000;0.4900;1.6365;
389.7000;0.4925;1.6436;
390.0000;0.4933;1.6555;
390.3000;0.4917;1.6436;
390.6000;0.4908;1.6460;
390.9000;0.4982;1.6745;
391.2000;0.4925;1.6555;
391.5000;0.4908;1.6626;
391.8000;0.4900;1.6698;
392.1000;0.4908;1.6745;
392.4000;0.4925;1.6745;
392.7000;0.4908;1.6603;
393.0000;0.4917;1.6579;
393.3000;0.4908;1.6603;
393.6000;0.4925;1.6555;
393.9000;0.4925;1.6650;
394.2000;0.4917;1.6650;
394.5000;0.4908;1.6555;
394.8000;0.4917;1.6531;
395.1000;0.4933;1.6603;
395.4000;0.4917;1.6626;
395.7000;0.4933;1.6698;
396.0000;0.4933;1.6650;
396.3000;0.4908;1.6555;
396.6000;0.4917;1.6484;
396.9000;0.5031;1.6816;
397.2000;0.4900;1.6508;
397.5000;0.4925;1.6531;
397.8000;0.4917;1.6508;
398.1000;0.4908;1.6508;
398.4000;0.4900;1.6508;
398.7000;0.4949;1.6531;
399.0000;0.4900;1.6436;
399.3000;0.4917;1.6460;
399.6000;0.4941;1.6508;
399.9000;0.4900;1.6341;
400.2000;0.4835;1.6199;
400.5000;0.4941;1.6484;
400.8000;0.4941;1.6318;
401.1000;0.4876;1.6223;
401.4000;0.4925;1.6413;
401.7000;0.4884;1.6294;
402.0000;0.4892;1.6223;
402.3000;0.4949;1.6270;
402.6000;0.4884;1.6151;
402.9000;0.4908;1.6246;
403.2000;0.4908;1.6341;
403.5000;0.4941;1.6436;
403.8000;0.4900;1.6270;
404.1000;0.4917;1.6318;
404.4000;0.4974;1.6460;
404.7000;0.4917;1.6365;
405.0000;0.4925;1.6436;
405.3000;0.4917;1.6413;
405.6000;0.4917;1.6484;
405.9000;0.4908;1.6531;
406.2000;0.4925;1.6555;
406.5000;0.4908;1.6555;
406.8000;0.4908;1.6626;
407.1000;0.4908;1.6579;
407.4000;0.4917;1.6650;
407.7000;0.4917;1.6674;
408.0000;0.4925;1.6603;
408.3000;0.4811;1.6223;
408.6000;0.4900;1.6460;
408.9000;0.4908;1.6436;
409.2000;0.4908;1.6484;
409.5000;0.4925;1.6531;
409.8000;0.4908;1.6365;
410.1000;0.4884;1.6318;
410.4000;0.4892;1.6270;
410.7000;0.4900;1.6246;
411.0000;0.4908;1.6294;
411.3000;0.4908;1.6294;
411.6000;0.4917;1.6389;
411.9000;0.4868;1.6246;
412.2000;0.4908;1.6389;
412.5000;0.4917;1.6413;
412.8000;0.4917;1.6436;
413.1000;0.4917;1.6413;
413.4000;0.4933;1.6413;
413.7000;0.4925;1.6413;
414.0000;0.4860;1.6199;
414.3000;0.4941;1.6508;
414.6000;0.4933;1.6555;
414.9000;0.4908;1.6413;
415.2000;0.4974;1.6626;
415.5000;0.4933;1.6460;
415.8000;0.4925;1.6318;
416.1000;0.4860;1.6270;
416.4000;0.4925;1.6389;
416.7000;0.4819;1.6175;
417.0000;0.4925;1.6508;
417.3000;0.4908;1.6460;
417.6000;0.4908;1.6460;
417.9000;0.4908;1.6460;
418.2000;0.4917;1.6460;
418.5000;0.4908;1.6460;
418.8000;0.4917;1.6484;
419.1000;0.4925;1.6460;
419.4000;0.4917;1.6484;
419.7000;0.4925;1.6436;
420.0000;0.4933;1.6460;
420.3000;0.4925;1.6436;
420.6000;0.4933;1.6508;
420.9000;0.4884;1.6389;
421.2000;0.4925;1.6484;
421.5000;0.4925;1.6508;
421.8000;0.4917;1.6531;
422.1000;0.4925;1.6508;
422.4000;0.4908;1.6531;
422.7000;0.4917;1.6389;
423.0000;0.4917;1.6389;
423.3000;0.4908;1.6413;
423.6000;0.4892;1.6389;
423.9000;0.4925;1.6484;
424.2000;0.4917;1.6460;
424.5000;0.4925;1.6603;
424.8000;0.4917;1.6603;
425.1000;0.4917;1.6555;
425.4000;0.4908;1.6579;
425.7000;0.4900;1.6484;
426.0000;0.4908;1.6531;
426.3000;0.4917;1.6555;
426.6000;0.4827;1.6199;
426.9000;0.4917;1.6436;
427.2000;0.4917;1.6484;
427.5000;0.4917;1.6460;
427.8000;0.4908;1.6413;
428.1000;0.4908;1.6460;
428.4000;0.4917;1.6436;
428.7000;0.4908;1.6365;
429.0000;0.4900;1.6341;
429.3000;0.4908;1.6318;
429.6000;0.4908;1.6389;
429.9000;0.4908;1.6341;
430.2000;0.4925;1.6484;
430.5000;0.4917;1.6531;
430.8000;0.4908;1.6484;
431.1000;0.4900;1.6555;
431.4000;0.4917;1.6603;
431.7000;0.4925;1.6555;
432.0000;0.4908;1.6603;
432.3000;0.5014;1.6840;
432.6000;0.4908;1.6508;
432.9000;0.4925;1.6531;
433.2000;0.4925;1.6531;
433.5000;0.4908;1.6484;
433.8000;0.4933;1.6555;
434.1000;0.4917;1.6579;
434.4000;0.4908;1.6603;
434.7000;0.4917;1.6531;
435.0000;0.4917;1.6531;
435.3000;0.4892;1.6484;
435.6000;0.4917;1.6555;
435.9000;0.4876;1.6555;
436.2000;0.4908;1.6579;
436.5000;0.4908;1.6460;
436.8000;0.4925;1.6460;
437.1000;0.4933;1.6531;
437.4000;0.4908;1.6484;
437.7000;0.4908;1.6508;
438.0000;0.4982;1.6603;
438.3000;0.4868;1.6318;
438.6000;0.4933;1.6484;
438.9000;0.4925;1.6460;
439.2000;0.4941;1.6579;
439.5000;0.4917;1.6555;
439.8000;0.4917;1.6555;
440.1000;0.4908;1.6531;
440.4000;0.4925;1.6555;
440.7000;0.4908;1.6436;
441.0000;0.4900;1.6531;
441.3000;0.4908;1.6531;
441.6000;0.4908;1.6531;
441.9000;0.4892;1.6460;
442.2000;0.4917;1.6508;
442.5000;0.4917;1.6555;
442.8000;0.4908;1.6555;
443.1000;0.4925;1.6508;
443.4000;0.4917;1.6484;
443.7000;0.4925;1.6531;
444.0000;0.4925;1.6460;
444.3000;0.4917;1.6460;
444.6000;0.4843;1.6365;
444.9000;0.4925;1.6508;
445.2000;0.4925;1.6484;
445.5000;0.4917;1.6460;
445.8000;0.4908;1.6341;
446.1000;0.4908;1.6341;
446.4000;0.4917;1.6413;
446.7000;0.4925;1.6413;
447.0000;0.4917;1.6484;
447.3000;0.4925;1.6460;
447.6000;0.4925;1.6508;
447.9000;0.4933;1.6484;
448.2000;0.4917;1.6460;
448.5000;0.4933;1.6460;
448.8000;0.4917;1.6413;
449.1000;0.4933;1.6436;
449.4000;0.4925;1.6579;
449.7000;0.4908;1.6603;
450.0000;0.4900;1.6579;
450.3000;0.4908;1.6555;
450.6000;0.4900;1.6555;
450.9000;0.4900;1.6603;
451.2000;0.4908;1.6531;
451.5000;0.4925;1.6460;
451.8000;0.4925;1.6436;
452.1000;0.4908;1.6436;
452.4000;0.4908;1.6460;
452.7000;0.4925;1.6531;
453.0000;0.4900;1.6484;
453.3000;0.5022;1.6769;
453.6000;0.4925;1.6531;
453.9000;0.4925;1.6484;
454.2000;0.4908;1.6460;
454.5000;0.4982;1.6674;
454.8000;0.4917;1.6508;
455.1000;0.4908;1.6531;
455.4000;0.4933;1.6579;
455.7000;0.4917;1.6436;
456.0000;0.4908;1.6460;
456.3000;0.4917;1.6460;
456.6000;0.4908;1.6460;
456.9000;0.4900;1.6508;
457.2000;0.4917;1.6555;
457.5000;0.4900;1.6579;
457.8000;0.4884;1.6603;
458.1000;0.4941;1.6721;
458.4000;0.4908;1.6721;
458.7000;0.4917;1.6674;
459.0000;0.4917;1.6650;
459.3000;0.4933;1.6650;
459.6000;0.4900;1.6603;
459.9000;0.4917;1.6674;
460.2000;0.4925;1.6626;
460.5000;0.4908;1.6555;
460.8000;0.4917;1.6460;
461.1000;0.4917;1.6484;
461.4000;0.4917;1.6365;
461.7000;0.4925;1.6294;
462.0000;0.4917;1.6270;
462.3000;0.4965;1.6365;
462.6000;0.4900;1.6246;
462.9000;0.4917;1.6341;
463.2000;0.4908;1.6341;
463.5000;0.4933;1.6436;
463.8000;0.4925;1.6484;
464.1000;0.4892;1.6389;
464.4000;0.4908;1.6484;
464.7000;0.4917;1.6508;
465.0000;0.4925;1.6508;
465.3000;0.4900;1.6531;
465.6000;0.4900;1.6531;
465.9000;0.4917;1.6508;
466.2000;0.4917;1.6484;
466.5000;0.4900;1.6531;
466.8000;0.4908;1.6555;
467.1000;0.4908;1.6531;
467.4000;0.4868;1.6436;
467.7000;0.4917;1.6555;
468.0000;0.4917;1.6555;
468.3000;0.4917;1.6626;
468.6000;0.4925;1.6674;
468.9000;0.4925;1.6674;
469.2000;0.4949;1.6698;
469.5000;0.4933;1.6650;
469.8000;0.4933;1.6674;
470.1000;0.4908;1.6674;
470.4000;0.4917;1.6698;
470.7000;0.4892;1.6579;
471.0000;0.4917;1.6508;
471.3000;0.4917;1.6508;
471.6000;0.4917;1.6460;
471.9000;0.4900;1.6460;
472.2000;0.4917;1.6674;
472.5000;0.4925;1.6626;
472.8000;0.4925;1.6674;
473.1000;0.4876;1.6579;
473.4000;0.4835;1.6484;
473.7000;0.4917;1.6745;
474.0000;0.4925;1.6698;
474.3000;0.4908;1.6626;
474.6000;0.4908;1.6531;
474.9000;0.4917;1.6555;
475.2000;0.4917;1.6484;
475.5000;0.4933;1.6484;
475.8000;0.4908;1.6294;
476.1000;0.4917;1.6294;
476.4000;0.4941;1.6341;
476.7000;0.4900;1.6294;
477.0000;0.4908;1.6270;
477.3000;0.4925;1.6223;
477.6000;0.4917;1.6223;
477.9000;0.4933;1.6318;
478.2000;0.4917;1.6294;
478.5000;0.4925;1.6294;
478.8000;0.4925;1.6223;
479.1000;0.4917;1.6223;
479.4000;0.4917;1.6223;
479.7000;0.4925;1.6246;
480.0000;0.4917;1.6199;
480.3000;0.4925;1.6246;
480.6000;0.4900;1.6246;
480.9000;0.4892;1.6246;
481.2000;0.4900;1.6318;
481.5000;0.4908;1.6318;
481.8000;0.4925;1.6389;
482.1000;0.4900;1.6365;
482.4000;0.4917;1.6436;
482.7000;0.4925;1.6460;
483.0000;0.4900;1.6365;
483.3000;0.4900;1.6341;
483.6000;0.4933;1.6436;
483.9000;0.4933;1.6555;
484.2000;0.4917;1.6579;
484.5000;0.4925;1.6531;
484.8000;0.4884;1.6436;
485.1000;0.4908;1.6436;
485.4000;0.4933;1.6484;
485.7000;0.4917;1.6436;
486.0000;0.4941;1.6531;
486.3000;0.4941;1.6484;
486.6000;0.4908;1.6413;
486.9000;0.4917;1.6436;
487.2000;0.5031;1.6650;
487.5000;0.4908;1.6389;
487.8000;0.4933;1.6436;
488.1000;0.4908;1.6365;
488.4000;0.4941;1.6436;
488.7000;0.4925;1.6318;
489.0000;0.4925;1.6223;
489.3000;0.4917;1.6175;
489.6000;0.4876;1.6080;
489.9000;0.4925;1.6294;
490.2000;0.4941;1.6365;
490.5000;0.4868;1.6223;
490.8000;0.4908;1.6270;
491.1000;0.4933;1.6389;
491.4000;0.4957;1.6555;
491.7000;0.4884;1.6436;
492.0000;0.5031;1.6721;
492.3000;0.4908;1.6484;
492.6000;0.4892;1.6508;
492.9000;0.4908;1.6508;
493.2000;0.4917;1.6484;
493.5000;0.4835;1.6151;
493.8000;0.4917;1.6413;
494.1000;0.4884;1.6294;
494.4000;0.4917;1.6413;
494.7000;0.4933;1.6436;
495.0000;0.4892;1.6365;
495.3000;0.4949;1.6413;
495.6000;0.4941;1.6294;
495.9000;0.4876;1.6175;
496.2000;0.4925;1.6175;
496.5000;0.4949;1.6223;
496.8000;0.4908;1.6175;
497.1000;0.4925;1.6270;
497.4000;0.4811;1.6009;
497.7000;0.4908;1.6341;
498.0000;0.4917;1.6413;
498.3000;0.4933;1.6436;
498.6000;0.4917;1.6460;
498.9000;0.4925;1.6531;
499.2000;0.4908;1.6460;
499.5000;0.4925;1.6531;
499.8000;0.4908;1.6484;
500.1000;0.4933;1.6484;
500.4000;0.4876;1.6341;
500.7000;0.4925;1.6460;
501.0000;0.4925;1.6413;
501.3000;0.4925;1.6365;
501.6000;0.4908;1.6294;
501.9000;0.4917;1.6341;
502.2000;0.4933;1.6413;
502.5000;0.4925;1.6460;
502.8000;0.4982;1.6555;
503.1000;0.4917;1.6389;
503.4000;0.4884;1.6413;
503.7000;0.4860;1.6341;
504.0000;0.4925;1.6460;
504.3000;0.4982;1.6603;
504.6000;0.4925;1.6555;
504.9000;0.4917;1.6555;
505.2000;0.4917;1.6555;
505.5000;0.4917;1.6555;
505.8000;0.4917;1.6508;
506.1000;0.4892;1.6508;
506.4000;0.4900;1.6484;
506.7000;0.4908;1.6484;
507.0000;0.4908;1.6484;
507.3000;0.4949;1.6555;
507.6000;0.4933;1.6555;
507.9000;0.4949;1.6579;
508.2000;0.4917;1.6389;
508.5000;0.4925;1.6436;
508.8000;0.4933;1.6484;
509.1000;0.4949;1.6436;
509.4000;0.4925;1.6436;
509.7000;0.4957;1.6460;
510.0000;0.4917;1.6365;
510.3000;0.4941;1.6341;
510.6000;0.4957;1.6389;
510.9000;0.4925;1.6389;
511.2000;0.4925;1.6365;
511.5000;0.4908;1.6318;
511.8000;0.4933;1.6365;
512.1000;0.4933;1.6436;
512.4000;0.4908;1.6365;
512.7000;0.4933;1.6436;
513.0000;0.4827;1.6128;
513.3000;0.4965;1.6436;
513.6000;0.4917;1.6318;
513.9000;0.4917;1.6294;
514.2000;0.4900;1.6246;
514.5000;0.4917;1.6365;
514.8000;0.4868;1.6318;
515.1000;0.4917;1.6413;
515.4000;0.4933;1.6436;
515.7000;0.4884;1.6270;
516.0000;0.4933;1.6436;
516.3000;0.4900;1.6484;
516.6000;0.4900;1.6484;
516.9000;0.4933;1.6484;
517.2000;0.4917;1.6484;
517.5000;0.4851;1.6246;
517.8000;0.4892;1.6436;
518.1000;0.4908;1.6389;
518.4000;0.4908;1.6389;
518.7000;0.4908;1.6436;
519.0000;0.4957;1.6579;
519.3000;0.4933;1.6508;
519.6000;0.4908;1.6389;
519.9000;0.4941;1.6436;
520.2000;0.4908;1.6389;
520.5000;0.4941;1.6436;
520.8000;0.4941;1.6508;
521.1000;0.4917;1.6413;
521.4000;0.4925;1.6413;
521.7000;0.4933;1.6460;
522.0000;0.4925;1.6484;
522.3000;0.4933;1.6484;
522.6000;0.4941;1.6460;
522.9000;0.4933;1.6436;
523.2000;0.4917;1.6413;
523.5000;0.4933;1.6484;
523.8000;0.4908;1.6389;
524.1000;0.4925;1.6436;
524.4000;0.4949;1.6508;
524.7000;0.4933;1.6531;
525.0000;0.4925;1.6508;
525.3000;0.4941;1.6555;
525.6000;0.4925;1.6555;
525.9000;0.4925;1.6579;
526.2000;0.4917;1.6579;
526.5000;0.4941;1.6650;
526.8000;0.4949;1.6745;
527.1000;0.4908;1.6650;
527.4000;0.4908;1.6650;
527.7000;0.4925;1.6674;
528.0000;0.4925;1.6626;
528.3000;0.4908;1.6579;
528.6000;0.4925;1.6484;
528.9000;0.4933;1.6555;
529.2000;0.4925;1.6603;
529.5000;0.4925;1.6603;
529.8000;0.4908;1.6531;
530.1000;0.4884;1.6460;
530.4000;0.4908;1.6484;
530.7000;0.4925;1.6555;
531.0000;0.4900;1.6579;
531.3000;0.4908;1.6389;
531.6000;0.4917;1.6389;
531.9000;0.4917;1.6389;
532.2000;0.4998;1.6555;
532.5000;0.4917;1.6318;
532.8000;0.4933;1.6460;
533.1000;0.4908;1.6365;
533.4000;0.4933;1.6389;
533.7000;0.4908;1.6294;
534.0000;0.4933;1.6460;
534.3000;0.4933;1.6484;
534.6000;0.4917;1.6484;
534.9000;0.4908;1.6460;
535.2000;0.4900;1.6413;
535.5000;0.4917;1.6341;
535.8000;0.4917;1.6365;
536.1000;0.4933;1.6484;
536.4000;0.4900;1.6341;
536.7000;0.4925;1.6365;
537.0000;0.4925;1.6460;
537.3000;0.4974;1.6579;
537.6000;0.4974;1.6555;
537.9000;0.4941;1.6555;
538.2000;0.4933;1.6555;
538.5000;0.4925;1.6531;
538.8000;0.4917;1.6508;
539.1000;0.4925;1.6484;
539.4000;0.4876;1.6318;
539.7000;0.4908;1.6413;
540.0000;0.4925;1.6436;
540.3000;0.4925;1.6436;
540.6000;0.4908;1.6508;
540.9000;0.4925;1.6508;
541.2000;0.4892;1.6436;
541.5000;0.4908;1.6341;
541.8000;0.4917;1.6341;
542.1000;0.4933;1.6413;
542.4000;0.4925;1.6436;
542.7000;0.4925;1.6436;
543.0000;0.4933;1.6436;
543.3000;0.4925;1.6460;
543.6000;0.4933;1.6484;
543.9000;0.4908;1.6460;
544.2000;0.4908;1.6436;
544.5000;0.4941;1.6460;
544.8000;0.4908;1.6460;
545.1000;0.4900;1.6484;
545.4000;0.4917;1.6436;
545.7000;0.4949;1.6460;
546.0000;0.4900;1.6365;
546.3000;0.4917;1.6413;
546.6000;0.4917;1.6413;
546.9000;0.4941;1.6436;
547.2000;0.4949;1.6436;
547.5000;0.4957;1.6508;
547.8000;0.4917;1.6460;
548.1000;0.4925;1.6436;
548.4000;0.4925;1.6484;
548.7000;0.4925;1.6531;
549.0000;0.4917;1.6531;
549.3000;0.4957;1.6460;
549.6000;0.4949;1.6436;
549.9000;0.4925;1.6318;
550.2000;0.4917;1.6294;
550.5000;0.4933;1.6365;
550.8000;0.4933;1.6294;
551.1000;0.4933;1.6270;
551.4000;0.4925;1.6246;
551.7000;0.4925;1.6294;
552.0000;0.4933;1.6460;
552.3000;0.4908;1.6389;
552.6000;0.4900;1.6294;
552.9000;0.4941;1.6436;
553.2000;0.4941;1.6436;
553.5000;0.4949;1.6460;
553.8000;0.4925;1.6365;
554.1000;0.4917;1.6413;
554.4000;0.4892;1.6294;
554.7000;0.4917;1.6436;
555.0000;0.4868;1.6318;
555.3000;0.4908;1.6389;
555.6000;0.4900;1.6389;
555.9000;0.4900;1.6365;
556.2000;0.4908;1.6460;
556.5000;0.4917;1.6460;
556.8000;0.4868;1.6318;
557.1000;0.4941;1.6460;
557.4000;0.4908;1.6460;
557.7000;0.4908;1.6413;
558.0000;0.4941;1.6460;
558.3000;0.4949;1.6531;
558.6000;0.4908;1.6436;
558.9000;0.4908;1.6341;
559.2000;0.4917;1.6389;
559.5000;0.4908;1.6365;
559.8000;0.4925;1.6484;
560.1000;0.4908;1.6365;
560.4000;0.4917;1.6413;
560.7000;0.4917;1.6413;
561.0000;0.4917;1.6389;
561.3000;0.4925;1.6389;
561.6000;0.4917;1.6413;
561.9000;0.4908;1.6389;
562.2000;0.4982;1.6603;
562.5000;0.4925;1.6508;
562.8000;0.4917;1.6436;
563.1000;0.4933;1.6436;
563.4000;0.4925;1.6318;
563.7000;0.4917;1.6318;
564.0000;0.4917;1.6270;
564.3000;0.4941;1.6270;
564.6000;0.4925;1.6246;
564.9000;0.4917;1.6294;
565.2000;0.4868;1.6080;
565.5000;0.4925;1.6223;
565.8000;0.4892;1.6175;
566.1000;0.4933;1.6318;
566.4000;0.4933;1.6413;
566.7000;0.4933;1.6389;
567.0000;0.4925;1.6389;
567.3000;0.4917;1.6270;
567.6000;0.4925;1.6246;
567.9000;0.4925;1.6318;
568.2000;0.4925;1.6365;
568.5000;0.4917;1.6413;
568.8000;0.4925;1.6508;
569.1000;0.4925;1.6436;
569.4000;0.4884;1.6413;
569.7000;0.4941;1.6460;
570.0000;0.4925;1.6508;
570.3000;0.4925;1.6413;
570.6000;0.4933;1.6389;
570.9000;0.4925;1.6365;
571.2000;0.4933;1.6341;
571.5000;0.4941;1.6365;
571.8000;0.4933;1.6270;
572.1000;0.4949;1.6223;
572.4000;0.4949;1.6175;
572.7000;0.4933;1.6175;
573.0000;0.4957;1.6294;
573.3000;0.4941;1.6223;
573.6000;0.4941;1.6294;
573.9000;0.4957;1.6365;
574.2000;0.4908;1.6294;
574.5000;0.4908;1.6318;
574.8000;0.4925;1.6294;
575.1000;0.4925;1.6294;
575.4000;0.4925;1.6365;
575.7000;0.4908;1.6389;
576.0000;0.4941;1.6484;
576.3000;0.4941;1.6460;
576.6000;0.4925;1.6436;
576.9000;0.4925;1.6484;
577.2000;0.4917;1.6413;
577.5000;0.4933;1.6460;
577.8000;0.4941;1.6389;
578.1000;0.4933;1.6365;
578.4000;0.4925;1.6365;
578.7000;0.4925;1.6365;
579.0000;0.4933;1.6413;
579.3000;0.4925;1.6389;
579.6000;0.4925;1.6436;
579.9000;0.4949;1.6460;
580.2000;0.4941;1.6460;
580.5000;0.4917;1.6460;
580.8000;0.4851;1.6246;
581.1000;0.4990;1.6531;
581.4000;0.4933;1.6389;
581.7000;0.4941;1.6460;
582.0000;0.4925;1.6460;
582.3000;0.4925;1.6436;
582.6000;0.4949;1.6413;
582.9000;0.4908;1.6294;
583.2000;0.4892;1.6199;
583.5000;0.4957;1.6318;
583.8000;0.4974;1.6270;
584.1000;0.4949;1.6318;
584.4000;0.4933;1.6318;
584.7000;0.4949;1.6341;
585.0000;0.4941;1.6460;
585.3000;0.4925;1.6508;
585.6000;0.4933;1.6508;
585.9000;0.4925;1.6508;
586.2000;0.4851;1.6318;
586.5000;0.4917;1.6436;
586.8000;0.4925;1.6484;
587.1000;0.4843;1.6318;
587.4000;0.5006;1.6674;
587.7000;0.4933;1.6555;
588.0000;0.4835;1.6151;
588.3000;0.4925;1.6413;
588.6000;0.4941;1.6460;
588.9000;0.4933;1.6413;
589.2000;0.4917;1.6413;
589.5000;0.4925;1.6508;
589.8000;0.4900;1.6436;
590.1000;0.4925;1.6531;
590.4000;0.4884;1.6413;
590.7000;0.4925;1.6531;
591.0000;0.4933;1.6460;
591.3000;0.4917;1.6341;
591.6000;0.4884;1.6175;
591.9000;0.4876;1.6223;
592.2000;0.4941;1.6318;
592.5000;0.4925;1.6389;
592.8000;0.4933;1.6413;
593.1000;0.4925;1.6365;
593.4000;0.4933;1.6318;
593.7000;0.4933;1.6246;
594.0000;0.4933;1.6294;
594.3000;0.4933;1.6413;
594.6000;0.4917;1.6436;
594.9000;0.4925;1.6413;
595.2000;0.4917;1.6413;
595.5000;0.4917;1.6365;
595.8000;0.4933;1.6365;
596.1000;0.4941;1.6413;
596.4000;0.4998;1.6579;
596.7000;0.4949;1.6460;
597.0000;0.4925;1.6460;
597.3000;0.4949;1.6460;
597.6000;0.4933;1.6484;
597.9000;0.4925;1.6555;
598.2000;0.4941;1.6555;
598.5000;0.4908;1.6531;
598.8000;0.4941;1.6579;
599.1000;0.4933;1.6626;
599.4000;0.4933;1.6626;
599.7000;0.4990;1.6721;
600.0000;0.4949;1.6603;
600.3000;0.4957;1.6413;
600.6000;0.4982;1.6341;
600.9000;0.5006;1.6294;
601.2000;0.5014;1.6246;
601.5000;0.5039;1.6175;
601.8000;0.5039;1.6033;
602.1000;0.5039;1.6009;
602.4000;0.5039;1.5843;
602.7000;0.5039;1.5748;
603.0000;0.5039;1.5629;
603.3000;0.4941;1.5320;
603.6000;0.5039;1.5510;
603.9000;0.5039;1.5463;
604.2000;0.5022;1.5415;
604.5000;0.5022;1.5368;
604.8000;0.4998;1.5320;
605.1000;0.5014;1.5273;
605.4000;0.5006;1.5249;
605.7000;0.4974;1.5154;
606.0000;0.4990;1.5273;
606.3000;0.4990;1.5249;
606.6000;0.4982;1.5178;
606.9000;0.4917;1.5035;
607.2000;0.5006;1.5225;
607.5000;0.4965;1.5130;
607.8000;0.4957;1.5011;
608.1000;0.4949;1.4964;
608.4000;0.4949;1.4940;
608.7000;0.4949;1.4916;
609.0000;0.4949;1.4988;
609.3000;0.4949;1.5059;
609.6000;0.4925;1.5083;
609.9000;0.4917;1.5130;
610.2000;0.4925;1.5201;
610.5000;0.4917;1.5225;
610.8000;0.4925;1.5130;
611.1000;0.4868;1.4964;
611.4000;0.4917;1.5106;
611.7000;0.4933;1.5154;
612.0000;0.4892;1.5011;
612.3000;0.4908;1.5083;
612.6000;0.4917;1.5059;
612.9000;0.4917;1.5059;
613.2000;0.4925;1.5035;
613.5000;0.4908;1.5059;
613.8000;0.4908;1.5106;
614.1000;0.4917;1.5225;
614.4000;0.4900;1.5201;
614.7000;0.4908;1.5249;
615.0000;0.4884;1.5201;
615.3000;0.4900;1.5178;
615.6000;0.4884;1.5083;
615.9000;0.4884;1.5035;
616.2000;0.4900;1.5011;
616.5000;0.4884;1.4964;
616.8000;0.4900;1.5011;
617.1000;0.4892;1.5106;
617.4000;0.4819;1.4798;
617.7000;0.4892;1.4893;
618.0000;0.4900;1.4916;
618.3000;0.4965;1.5130;
618.6000;0.4884;1.4964;
618.9000;0.4876;1.4893;
619.2000;0.4884;1.4916;
619.5000;0.4892;1.4940;
619.8000;0.4868;1.4798;
620.1000;0.4884;1.4726;
620.4000;0.4982;1.5130;
620.7000;0.4892;1.4940;
621.0000;0.4884;1.4845;
621.3000;0.4908;1.4774;
621.6000;0.4892;1.4798;
621.9000;0.4892;1.4821;
622.2000;0.4917;1.4893;
622.5000;0.4900;1.4893;
622.8000;0.4925;1.4869;
623.1000;0.4933;1.4940;
623.4000;0.4892;1.4750;
623.7000;0.4884;1.4702;
624.0000;0.4794;1.4441;
624.3000;0.5014;1.5035;
624.6000;0.4892;1.4726;
624.9000;0.4884;1.4607;
625.2000;0.4860;1.4631;
625.5000;0.4876;1.4655;
625.8000;0.4892;1.4702;
626.1000;0.4794;1.4489;
626.4000;0.4884;1.4750;
626.7000;0.4884;1.4774;
627.0000;0.4811;1.4584;
627.3000;0.4876;1.4750;
627.6000;0.4876;1.4774;
627.9000;0.4860;1.4726;
628.2000;0.4900;1.4821;
628.5000;0.4876;1.4821;
628.8000;0.4884;1.4869;
629.1000;0.4917;1.4940;
629.4000;0.4892;1.4821;
629.7000;0.4884;1.4821;
630.0000;0.4876;1.4845;
630.3000;0.4892;1.4845;
630.6000;0.4892;1.4845;
630.9000;0.4884;1.4774;
631.2000;0.4851;1.4798;
631.5000;0.4876;1.4869;
631.8000;0.4884;1.4869;
632.1000;0.4892;1.4893;
632.4000;0.4884;1.4988;
632.7000;0.4884;1.4869;
633.0000;0.4884;1.4940;
633.3000;0.4892;1.5011;
633.6000;0.4851;1.4940;
633.9000;0.4941;1.5201;
634.2000;0.4900;1.5035;
634.5000;0.4868;1.4964;
634.8000;0.4876;1.4916;
635.1000;0.4876;1.4916;
635.4000;0.4868;1.4893;
635.7000;0.4892;1.4916;
636.0000;0.4884;1.4893;
636.3000;0.4884;1.4845;
636.6000;0.4884;1.4869;
636.9000;0.4974;1.5106;
637.2000;0.4884;1.4845;
637.5000;0.4876;1.4798;
637.8000;0.4892;1.4845;
638.1000;0.4884;1.4869;
638.4000;0.4884;1.4821;
638.7000;0.4892;1.4798;
639.0000;0.4868;1.4750;
639.3000;0.4892;1.4750;
639.6000;0.4811;1.4560;
639.9000;0.4892;1.4726;
640.2000;0.4868;1.4631;
640.5000;0.4876;1.4584;
640.8000;0.4876;1.4560;
641.1000;0.4876;1.4655;
641.4000;0.4884;1.4821;
641.7000;0.4860;1.4679;
642.0000;0.4868;1.4679;
642.3000;0.4851;1.4631;
642.6000;0.4884;1.4702;
642.9000;0.4868;1.4726;
643.2000;0.4884;1.4750;
643.5000;0.4876;1.4702;
643.8000;0.4876;1.4726;
644.1000;0.4876;1.4750;
644.4000;0.4868;1.4702;
644.7000;0.4884;1.4774;
645.0000;0.4884;1.4750;
645.3000;0.4868;1.4607;
645.6000;0.4868;1.4655;
645.9000;0.4908;1.4869;
646.2000;0.4868;1.4726;
646.5000;0.4900;1.4774;
646.8000;0.4876;1.4726;
647.1000;0.4925;1.4845;
647.4000;0.4900;1.4821;
647.7000;0.4843;1.4679;
648.0000;0.4876;1.4726;
648.3000;0.4884;1.4726;
648.6000;0.4900;1.4750;
648.9000;0.4876;1.4631;
649.2000;0.4860;1.4536;
649.5000;0.4884;1.4560;
649.8000;0.4884;1.4560;
650.1000;0.4884;1.4560;
650.4000;0.4876;1.4536;
650.7000;0.4851;1.4512;
651.0000;0.4949;1.4774;
651.3000;0.4876;1.4584;
651.6000;0.4876;1.4631;
651.9000;0.4884;1.4607;
652.2000;0.4876;1.4607;
652.5000;0.4884;1.4584;
652.8000;0.4892;1.4631;
653.1000;0.4892;1.4560;
653.4000;0.4900;1.4631;
653.7000;0.4876;1.4560;
654.0000;0.4876;1.4607;
654.3000;0.4884;1.4631;
654.6000;0.4900;1.4584;
654.9000;0.4876;1.4536;
655.2000;0.4925;1.4655;
655.5000;0.4884;1.4631;
655.8000;0.4982;1.4988;
656.1000;0.4892;1.4679;
656.4000;0.4860;1.4679;
656.7000;0.4876;1.4702;
657.0000;0.4884;1.4702;
657.3000;0.4884;1.4679;
657.6000;0.4908;1.4774;
657.9000;0.4876;1.4726;
658.2000;0.4884;1.4679;
658.5000;0.4900;1.4702;
658.8000;0.4892;1.4702;
659.1000;0.4884;1.4774;
659.4000;0.4892;1.4774;
659.7000;0.4900;1.4798;
660.0000;0.4876;1.4726;
660.3000;0.4892;1.4679;
660.6000;0.4957;1.4774;
660.9000;0.4876;1.4489;
661.2000;0.4900;1.4512;
661.5000;0.4884;1.4441;
661.8000;0.4876;1.4441;
662.1000;0.4876;1.4441;
662.4000;0.4949;1.4607;
662.7000;0.4892;1.4417;
663.0000;0.4868;1.4489;
663.3000;0.4908;1.4584;
663.6000;0.4884;1.4536;
663.9000;0.4884;1.4607;
664.2000;0.4884;1.4726;
664.5000;0.4957;1.4940;
664.8000;0.4884;1.4798;
665.1000;0.4876;1.4679;
665.4000;0.4868;1.4631;
665.7000;0.4957;1.4798;
666.0000;0.4884;1.4631;
666.3000;0.4900;1.4679;
666.6000;0.4892;1.4584;
666.9000;0.4868;1.4607;
667.2000;0.4892;1.4702;
667.5000;0.4892;1.4607;
667.8000;0.4925;1.4726;
668.1000;0.4884;1.4702;
668.4000;0.4892;1.4679;
668.7000;0.4892;1.4631;
669.0000;0.4876;1.4584;
669.3000;0.4884;1.4607;
669.6000;0.4876;1.4560;
669.9000;0.4876;1.4536;
670.2000;0.4884;1.4536;
670.5000;0.4884;1.4560;
670.8000;0.4876;1.4584;
671.1000;0.4892;1.4607;
671.4000;0.4900;1.4607;
671.7000;0.4884;1.4607;
672.0000;0.4884;1.4560;
672.3000;0.4860;1.4465;
672.6000;0.4892;1.4560;
672.9000;0.4794;1.4346;
673.2000;0.4860;1.4512;
673.5000;0.4868;1.4512;
673.8000;0.4827;1.4370;
674.1000;0.4908;1.4489;
674.4000;0.4876;1.4417;
674.7000;0.4892;1.4417;
675.0000;0.4876;1.4394;
675.3000;0.4876;1.4441;
675.6000;0.4868;1.4489;
675.9000;0.4892;1.4536;
676.2000;0.4908;1.4631;
676.5000;0.4908;1.4798;
676.8000;0.4884;1.4750;
677.1000;0.4884;1.4750;
677.4000;0.4908;1.4893;
677.7000;0.4892;1.4845;
678.0000;0.4860;1.4750;
678.3000;0.4876;1.4750;
678.6000;0.4884;1.4750;
678.9000;0.4900;1.4750;
679.2000;0.4900;1.4726;
679.5000;0.4884;1.4655;
679.8000;0.4892;1.4702;
680.1000;0.4892;1.4631;
680.4000;0.4786;1.4370;
680.7000;0.4892;1.4679;
681.0000;0.4892;1.4774;
681.3000;0.4876;1.4750;
681.6000;0.4884;1.4774;
681.9000;0.4998;1.5083;
682.2000;0.4892;1.4869;
682.5000;0.4900;1.4726;
682.8000;0.4884;1.4679;
683.1000;0.4876;1.4726;
683.4000;0.4884;1.4655;
683.7000;0.4900;1.4631;
684.0000;0.4884;1.4584;
684.3000;0.4884;1.4560;
684.6000;0.4868;1.4560;
684.9000;0.4900;1.4679;
685.2000;0.4982;1.4821;
685.5000;0.4876;1.4560;
685.8000;0.4892;1.4679;
686.1000;0.4925;1.4750;
686.4000;0.4900;1.4655;
686.7000;0.4884;1.4584;
687.0000;0.4941;1.4774;
687.3000;0.4892;1.4750;
687.6000;0.4908;1.4869;
687.9000;0.4908;1.4916;
688.2000;0.4892;1.4821;
688.5000;0.4900;1.4750;
688.8000;0.4900;1.4679;
689.1000;0.4892;1.4702;
689.4000;0.4908;1.4702;
689.7000;0.4884;1.4702;
690.0000;0.4900;1.4702;
690.3000;0.4908;1.4679;
690.6000;0.4900;1.4702;
690.9000;0.4900;1.4750;
691.2000;0.4908;1.4821;
691.5000;0.4892;1.4869;
691.8000;0.4900;1.4893;
692.1000;0.4892;1.4845;
692.4000;0.4892;1.4869;
692.7000;0.4884;1.4869;
693.0000;0.4900;1.4869;
693.3000;0.4900;1.4845;
693.6000;0.4876;1.4726;
693.9000;0.4884;1.4750;
694.2000;0.4835;1.4607;
694.5000;0.4892;1.4726;
694.8000;0.4884;1.4679;
695.1000;0.4933;1.4916;
695.4000;0.4892;1.4821;
695.7000;0.4900;1.4869;
696.0000;0.4892;1.4798;
696.3000;0.4917;1.4869;
696.6000;0.4908;1.4845;
696.9000;0.4900;1.4774;
697.2000;0.4811;1.4512;
697.5000;0.4900;1.4750;
697.8000;0.4900;1.4750;
698.1000;0.4892;1.4750;
698.4000;0.4876;1.4702;
698.7000;0.4892;1.4774;
699.0000;0.4892;1.4845;
699.3000;0.4900;1.4988;
699.6000;0.4900;1.4940;
699.9000;0.4892;1.4845;
700.2000;0.4925;1.4845;
700.5000;0.4917;1.4750;
700.8000;0.4884;1.4655;
701.1000;0.4900;1.4655;
701.4000;0.4908;1.4560;
701.7000;0.4900;1.4607;
702.0000;0.4884;1.4584;
702.3000;0.4851;1.4489;
702.6000;0.4908;1.4607;
702.9000;0.4884;1.4560;
703.2000;0.4900;1.4679;
703.5000;0.4876;1.4774;
703.8000;0.4892;1.4798;
704.1000;0.4908;1.4798;
704.4000;0.4892;1.4774;
704.7000;0.4884;1.4798;
705.0000;0.4900;1.4821;
705.3000;0.4884;1.4750;
705.6000;0.4917;1.4798;
705.9000;0.4860;1.4655;
706.2000;0.4900;1.4655;
706.5000;0.4860;1.4631;
706.8000;0.4908;1.4750;
707.1000;0.4868;1.4679;
707.4000;0.4892;1.4679;
707.7000;0.4884;1.4607;
708.0000;0.4884;1.4631;
708.3000;0.4884;1.4702;
708.6000;0.4892;1.4655;
708.9000;0.4900;1.4750;
709.2000;0.4908;1.4750;
709.5000;0.4892;1.4750;
709.8000;0.4892;1.4845;
710.1000;0.4892;1.4869;
710.4000;0.4900;1.4869;
710.7000;0.4892;1.4798;
711.0000;0.4860;1.4750;
711.3000;0.4900;1.4893;
711.6000;0.4900;1.4798;
711.9000;0.4900;1.4798;
712.2000;0.4908;1.4750;
712.5000;0.4892;1.4631;
712.8000;0.4827;1.4465;
713.1000;0.4860;1.4584;
713.4000;0.4876;1.4679;
713.7000;0.4892;1.4631;
714.0000;0.4908;1.4655;
714.3000;0.4892;1.4631;
714.6000;0.4900;1.4607;
714.9000;0.4925;1.4750;
715.2000;0.4908;1.4679;
715.5000;0.4908;1.4631;
715.8000;0.4900;1.4679;
716.1000;0.4908;1.4655;
716.4000;0.4892;1.4679;
716.7000;0.4974;1.4821;
717.0000;0.4892;1.4655;
717.3000;0.4868;1.4584;
717.6000;0.4892;1.4631;
717.9000;0.4900;1.4584;
718.2000;0.4811;1.4299;
718.5000;0.4892;1.4536;
718.8000;0.4884;1.4560;
719.1000;0.4908;1.4726;
719.4000;0.4900;1.4726;
719.7000;0.4892;1.4655;
720.0000;0.4957;1.4702;
720.3000;0.4917;1.4512;
720.6000;0.4917;1.4489;
720.9000;0.4949;1.4560;
721.2000;0.4876;1.4465;
721.5000;0.4908;1.4489;
721.8000;0.4900;1.4512;
722.1000;0.4908;1.4512;
722.4000;0.4908;1.4584;
722.7000;0.4908;1.4560;
723.0000;0.4908;1.4584;
723.3000;0.4900;1.4607;
723.6000;0.4925;1.4631;
723.9000;0.4908;1.4512;
724.2000;0.4933;1.4584;
724.5000;0.4908;1.4536;
724.8000;0.4892;1.4441;
725.1000;0.4917;1.4489;
725.4000;0.4884;1.4512;
725.7000;0.4908;1.4631;
726.0000;0.4908;1.4679;
726.3000;0.4892;1.4655;
726.6000;0.4925;1.4726;
726.9000;0.4925;1.4655;
727.2000;0.4892;1.4607;
727.5000;0.4900;1.4631;
727.8000;0.4917;1.4607;
728.1000;0.4908;1.4679;
728.4000;0.4900;1.4655;
728.7000;0.4892;1.4560;
729.0000;0.4884;1.4536;
729.3000;0.4868;1.4560;
729.6000;0.4900;1.4702;
729.9000;0.4892;1.4631;
730.2000;0.4892;1.4679;
730.5000;0.4868;1.4536;
730.8000;0.4900;1.4536;
731.1000;0.4908;1.4489;
731.4000;0.4965;1.4726;
731.7000;0.4900;1.4584;
732.0000;0.4868;1.4536;
732.3000;0.4900;1.4679;
732.6000;0.4908;1.4631;
732.9000;0.4900;1.4584;
733.2000;0.4900;1.4655;
733.5000;0.4900;1.4584;
733.8000;0.4908;1.4584;
734.1000;0.4908;1.4560;
734.4000;0.4908;1.4560;
734.7000;0.4900;1.4631;
735.0000;0.4908;1.4631;
735.3000;0.4900;1.4702;
735.6000;0.4908;1.4774;
735.9000;0.4933;1.4798;
736.2000;0.4908;1.4750;
736.5000;0.4900;1.4726;
736.8000;0.4754;1.4299;
737.1000;0.4884;1.4584;
737.4000;0.4917;1.4584;
737.7000;0.4908;1.4512;
738.0000;0.4917;1.4512;
738.3000;0.4892;1.4441;
738.6000;0.4900;1.4465;
738.9000;0.4892;1.4441;
739.2000;0.4900;1.4489;
739.5000;0.4900;1.4584;
739.8000;0.4900;1.4560;
740.1000;0.4908;1.4536;
740.4000;0.4908;1.4631;
740.7000;0.4925;1.4655;
741.0000;0.4908;1.4702;
741.3000;0.4908;1.4702;
741.6000;0.4917;1.4679;
741.9000;0.4917;1.4726;
742.2000;0.4908;1.4750;
742.5000;0.4900;1.4702;
742.8000;0.4908;1.4702;
743.1000;0.4860;1.4631;
743.4000;0.4908;1.4774;
743.7000;0.4908;1.4702;
744.0000;0.4892;1.4655;
744.3000;0.4908;1.4584;
744.6000;0.4908;1.4607;
744.9000;0.4900;1.4584;
745.2000;0.4933;1.4679;
745.5000;0.4917;1.4607;
745.8000;0.4925;1.4679;
746.1000;0.4917;1.4798;
746.4000;0.4900;1.4798;
746.7000;0.4917;1.4774;
747.0000;0.4917;1.4774;
747.3000;0.4925;1.4798;
747.6000;0.4900;1.4702;
747.9000;0.4892;1.4726;
748.2000;0.4925;1.4821;
748.5000;0.4908;1.4798;
748.8000;0.4835;1.4607;
749.1000;0.4917;1.4774;
749.4000;0.4908;1.4702;
749.7000;0.4917;1.4726;
750.0000;0.4917;1.4821;
750.3000;0.4917;1.4821;
750.6000;0.4900;1.4774;
750.9000;0.4908;1.4726;
751.2000;0.4908;1.4679;
751.5000;0.4908;1.4631;
751.8000;0.4908;1.4536;
752.1000;0.4908;1.4536;
752.4000;0.4908;1.4560;
752.7000;0.4917;1.4584;
753.0000;0.4892;1.4536;
753.3000;0.4925;1.4560;
753.6000;0.4851;1.4417;
753.9000;0.4900;1.4512;
754.2000;0.4908;1.4607;
754.5000;0.4974;1.4702;
754.8000;0.4900;1.4631;
755.1000;0.4884;1.4560;
755.4000;0.4925;1.4607;
755.7000;0.4917;1.4536;
756.0000;0.4900;1.4512;
756.3000;0.4892;1.4441;
756.6000;0.4925;1.4512;
756.9000;0.4908;1.4584;
757.2000;0.4908;1.4584;
757.5000;0.4908;1.4560;
757.8000;0.4900;1.4489;
758.1000;0.4827;1.4417;
758.4000;0.4908;1.4560;
758.7000;0.4908;1.4631;
759.0000;0.4933;1.4702;
759.3000;0.4917;1.4655;
759.6000;0.4917;1.4655;
759.9000;0.5014;1.4964;
760.2000;0.4917;1.4655;
760.5000;0.4933;1.4679;
760.8000;0.4965;1.4798;
761.1000;0.4941;1.4774;
761.4000;0.4908;1.4679;
761.7000;0.4900;1.4631;
762.0000;0.4908;1.4726;
762.3000;0.4908;1.4750;
762.6000;0.4917;1.4821;
762.9000;0.4884;1.4702;
763.2000;0.4908;1.4750;
763.5000;0.4917;1.4774;
763.8000;0.4900;1.4774;
764.1000;0.4876;1.4845;
764.4000;0.4908;1.4893;
764.7000;0.4925;1.4845;
765.0000;0.4908;1.4726;
765.3000;0.4925;1.4821;
765.6000;0.4908;1.4750;
765.9000;0.4917;1.4750;
766.2000;0.4917;1.4750;
766.5000;0.4908;1.4702;
766.8000;0.4908;1.4679;
767.1000;0.4900;1.4631;
767.4000;0.4917;1.4702;
767.7000;0.4908;1.4655;
768.0000;0.4908;1.4560;
768.3000;0.4892;1.4560;
768.6000;0.4908;1.4679;
768.9000;0.4908;1.4726;
769.2000;0.4908;1.4726;
769.5000;0.4908;1.4750;
769.8000;0.4908;1.4679;
770.1000;0.4908;1.4679;
770.4000;0.4908;1.4655;
770.7000;0.4908;1.4679;
771.0000;0.4908;1.4655;
771.3000;0.4884;1.4702;
771.6000;0.4908;1.4750;
771.9000;0.4917;1.4774;
772.2000;0.4843;1.4536;
772.5000;0.4908;1.4702;
772.8000;0.4900;1.4655;
773.1000;0.4917;1.4726;
773.4000;0.4917;1.4702;
773.7000;0.4917;1.4774;
774.0000;0.4917;1.4821;
774.3000;0.4925;1.4821;
774.6000;0.4892;1.4750;
774.9000;0.4925;1.4750;
775.2000;0.4925;1.4702;
775.5000;0.4917;1.4679;
775.8000;0.4917;1.4607;
776.1000;0.4933;1.4726;
776.4000;0.4917;1.4631;
776.7000;0.4900;1.4631;
777.0000;0.4900;1.4631;
777.3000;0.4965;1.4798;
777.6000;0.4908;1.4655;
777.9000;0.4900;1.4607;
778.2000;0.4892;1.4655;
778.5000;0.4941;1.4726;
778.8000;0.4917;1.4702;
779.1000;0.4957;1.4750;
779.4000;0.5014;1.4940;
779.7000;0.4917;1.4655;
780.0000;0.4974;1.4726;
780.3000;0.4917;1.4536;
780.6000;0.4908;1.4584;
780.9000;0.4917;1.4560;
781.2000;0.4843;1.4299;
781.5000;0.4917;1.4465;
781.8000;0.4925;1.4512;
782.1000;0.4908;1.4465;
782.4000;0.4819;1.4251;
782.7000;0.4957;1.4607;
783.0000;0.4892;1.4536;
783.3000;0.4876;1.4536;
783.6000;0.4908;1.4560;
783.9000;0.4925;1.4536;
784.2000;0.4925;1.4607;
784.5000;0.4925;1.4655;
784.8000;0.4884;1.4512;
785.1000;0.4908;1.4655;
785.4000;0.4925;1.4679;
785.7000;0.4917;1.4512;
786.0000;0.4908;1.4465;
786.3000;0.4925;1.4536;
786.6000;0.4843;1.4370;
786.9000;0.4917;1.4489;
787.2000;0.4925;1.4441;
787.5000;0.4900;1.4560;
787.8000;0.4965;1.4726;
788.1000;0.4908;1.4655;
788.4000;0.4908;1.4631;
788.7000;0.4917;1.4679;
789.0000;0.4941;1.4655;
789.3000;0.4876;1.4536;
789.6000;0.4908;1.4607;
789.9000;0.4917;1.4655;
790.2000;0.4941;1.4607;
790.5000;0.4917;1.4631;
790.8000;0.4925;1.4655;
791.1000;0.4917;1.4584;
791.4000;0.4925;1.4655;
791.7000;0.4908;1.4584;
792.0000;0.4908;1.4607;
792.3000;0.4900;1.4489;
792.6000;0.4917;1.4536;
792.9000;0.4998;1.4679;
793.2000;0.4908;1.4417;
793.5000;0.4917;1.4370;
793.8000;0.4933;1.4489;
794.1000;0.4925;1.4441;
794.4000;0.4917;1.4370;
794.7000;0.4974;1.4512;
795.0000;0.4933;1.4489;
795.3000;0.4851;1.4394;
795.6000;0.4941;1.4726;
795.9000;0.4933;1.4702;
796.2000;0.4868;1.4631;
796.5000;0.4925;1.4750;
796.8000;0.4917;1.4702;
797.1000;0.4908;1.4560;
797.4000;0.4917;1.4584;
797.7000;0.4933;1.4584;
798.0000;0.4917;1.4536;
798.3000;0.4925;1.4441;
798.6000;0.4851;1.4227;
798.9000;0.4933;1.4394;
799.2000;0.4941;1.4394;
799.5000;0.4965;1.4512;
799.8000;0.4925;1.4465;
800.1000;0.4941;1.4536;
800.4000;0.4917;1.4560;
800.7000;0.4917;1.4584;
801.0000;0.4925;1.4631;
801.3000;0.4892;1.4560;
801.6000;0.4925;1.4679;
801.9000;0.4925;1.4702;
802.2000;0.4876;1.4441;
802.5000;0.4925;1.4584;
802.8000;0.4917;1.4512;
803.1000;0.4925;1.4536;
803.4000;0.4917;1.4512;
803.7000;0.4925;1.4417;
804.0000;0.4933;1.4346;
804.3000;0.4925;1.4322;
804.6000;0.4917;1.4322;
804.9000;0.4908;1.4299;
805.2000;0.4917;1.4322;
805.5000;0.4965;1.4465;
805.8000;0.4884;1.4251;
806.1000;0.4933;1.4322;
806.4000;0.4925;1.4322;
806.7000;0.4925;1.4251;
807.0000;0.4933;1.4275;
807.3000;0.4917;1.4251;
807.6000;0.4925;1.4322;
807.9000;0.4917;1.4299;
808.2000;0.4925;1.4299;
808.5000;0.4892;1.4275;
808.8000;0.4819;1.4061;
809.1000;0.4917;1.4346;
809.4000;0.4941;1.4370;
809.7000;0.4925;1.4346;
810.0000;0.4908;1.4322;
810.3000;0.4925;1.4370;
810.6000;0.4941;1.4346;
810.9000;0.4925;1.4370;
811.2000;0.4860;1.4227;
811.5000;0.4925;1.4346;
811.8000;0.4957;1.4441;
812.1000;0.4908;1.4299;
812.4000;0.4908;1.4322;
812.7000;0.5022;1.4607;
813.0000;0.4900;1.4394;
813.3000;0.4925;1.4346;
813.6000;0.5014;1.4607;
813.9000;0.4917;1.4417;
814.2000;0.4925;1.4417;
814.5000;0.4941;1.4489;
814.8000;0.4908;1.4465;
815.1000;0.4933;1.4465;
815.4000;0.4933;1.4417;
815.7000;0.4965;1.4417;
816.0000;0.4933;1.4346;
816.3000;0.4908;1.4370;
816.6000;0.4917;1.4417;
816.9000;0.4949;1.4417;
817.2000;0.4908;1.4346;
817.5000;0.4900;1.4251;
817.8000;0.4892;1.4251;
818.1000;0.4933;1.4370;
818.4000;0.4925;1.4394;
818.7000;0.4917;1.4394;
819.0000;0.4917;1.4370;
819.3000;0.4949;1.4417;
819.6000;0.4925;1.4441;
819.9000;0.4941;1.4465;
820.2000;0.4933;1.4417;
820.5000;0.4917;1.4465;
820.8000;0.4941;1.4607;
821.1000;0.4933;1.4560;
821.4000;0.4925;1.4536;
821.7000;0.4900;1.4465;
822.0000;0.4933;1.4607;
822.3000;0.4908;1.4584;
822.6000;0.4998;1.4655;
822.9000;0.4925;1.4560;
823.2000;0.4925;1.4560;
823.5000;0.4900;1.4536;
823.8000;0.4933;1.4584;
824.1000;0.4941;1.4607;
824.4000;0.4917;1.4607;
824.7000;0.4925;1.4584;
825.0000;0.4925;1.4631;
825.3000;0.4925;1.4536;
825.6000;0.4925;1.4512;
825.9000;0.4908;1.4512;
826.2000;0.4892;1.4584;
826.5000;0.4908;1.4631;
826.8000;0.4925;1.4584;
827.1000;0.4908;1.4536;
827.4000;0.4917;1.4489;
827.7000;0.4933;1.4536;
828.0000;0.4917;1.4536;
828.3000;0.4933;1.4560;
828.6000;0.5031;1.4893;
828.9000;0.4917;1.4631;
829.2000;0.4949;1.4750;
829.5000;0.4925;1.4726;
829.8000;0.4925;1.4726;
830.1000;0.4917;1.4631;
830.4000;0.4925;1.4655;
830.7000;0.4941;1.4607;
831.0000;0.4949;1.4679;
831.3000;0.4933;1.4679;
831.6000;0.4925;1.4607;
831.9000;0.4941;1.4631;
832.2000;0.4933;1.4750;
832.5000;0.4949;1.4821;
832.8000;0.4982;1.4821;
833.1000;0.4949;1.4655;
833.4000;0.4941;1.4607;
833.7000;0.4933;1.4560;
834.0000;0.4876;1.4394;
834.3000;0.4949;1.4584;
834.6000;0.4957;1.4560;
834.9000;0.4925;1.4512;
835.2000;0.4957;1.4679;
835.5000;0.4925;1.4584;
835.8000;0.4941;1.4560;
836.1000;0.4941;1.4655;
836.4000;0.4925;1.4655;
836.7000;0.4925;1.4607;
837.0000;0.4941;1.4560;
837.3000;0.4933;1.4536;
837.6000;0.4925;1.4489;
837.9000;0.4917;1.4465;
838.2000;0.4941;1.4536;
838.5000;0.4941;1.4607;
838.8000;0.4900;1.4607;
839.1000;0.4925;1.4655;
839.4000;0.4925;1.4536;
839.7000;0.4933;1.4536;
840.0000;0.4925;1.4489;
840.3000;0.4949;1.4560;
840.6000;0.4925;1.4465;
840.9000;0.4998;1.4679;
841.2000;0.4917;1.4441;
841.5000;0.4917;1.4465;
841.8000;0.4917;1.4536;
842.1000;0.4925;1.4465;
842.4000;0.4917;1.4465;
842.7000;0.4933;1.4584;
843.0000;0.4925;1.4584;
843.3000;0.4900;1.4560;
843.6000;0.4933;1.4607;
843.9000;0.4933;1.4679;
844.2000;0.4925;1.4655;
844.5000;0.4917;1.4702;
844.8000;0.4933;1.4750;
845.1000;0.4917;1.4655;
845.4000;0.4949;1.4702;
845.7000;0.4908;1.4679;
846.0000;0.4925;1.4726;
846.3000;0.4933;1.4702;
846.6000;0.4933;1.4679;
846.9000;0.4933;1.4631;
847.2000;0.4925;1.4607;
847.5000;0.4925;1.4584;
847.8000;0.4957;1.4655;
848.1000;0.4917;1.4536;
848.4000;0.4925;1.4489;
848.7000;0.4900;1.4489;
849.0000;0.4900;1.4370;
849.3000;0.4925;1.4489;
849.6000;0.4941;1.4536;
849.9000;0.4876;1.4465;
850.2000;0.5022;1.4916;
850.5000;0.4949;1.4726;
850.8000;0.4933;1.4679;
851.1000;0.4941;1.4631;
851.4000;0.4949;1.4536;
851.7000;0.4925;1.4394;
852.0000;0.4933;1.4370;
852.3000;0.4868;1.4180;
852.6000;0.4933;1.4417;
852.9000;0.5022;1.4726;
853.2000;0.4949;1.4512;
853.5000;0.4941;1.4536;
853.8000;0.4941;1.4607;
854.1000;0.4908;1.4584;
854.4000;0.4925;1.4584;
854.7000;0.4949;1.4607;
855.0000;0.4925;1.4536;
855.3000;0.4949;1.4631;
855.6000;0.4917;1.4631;
855.9000;0.4933;1.4631;
856.2000;0.4925;1.4631;
856.5000;0.4917;1.4512;
856.8000;0.4925;1.4465;
857.1000;0.4941;1.4512;
857.4000;0.4933;1.4441;
857.7000;0.4933;1.4465;
858.0000;0.4941;1.4512;
858.3000;0.4900;1.4536;
858.6000;0.4949;1.4584;
858.9000;0.4892;1.4465;
859.2000;0.4998;1.4726;
859.5000;0.4941;1.4679;
859.8000;0.4949;1.4607;
860.1000;0.4876;1.4441;
860.4000;0.4941;1.4631;
860.7000;0.4933;1.4679;
861.0000;0.4925;1.4631;
861.3000;0.5006;1.4893;
861.6000;0.4917;1.4607;
861.9000;0.4917;1.4584;
862.2000;0.4933;1.4679;
862.5000;0.4917;1.4584;
862.8000;0.4933;1.4607;
863.1000;0.4917;1.4560;
863.4000;0.4917;1.4584;
863.7000;0.4933;1.4655;
864.0000;0.4933;1.4607;
864.3000;0.4965;1.4702;
864.6000;0.4949;1.4631;
864.9000;0.4949;1.4679;
865.2000;0.4933;1.4631;
865.5000;0.4990;1.4750;
865.8000;0.4917;1.4655;
866.1000;0.4941;1.4750;
866.4000;0.4941;1.4821;
866.7000;0.4925;1.4702;
867.0000;0.4949;1.4679;
867.3000;0.4933;1.4679;
867.6000;0.4933;1.4607;
867.9000;0.4917;1.4560;
868.2000;0.4933;1.4702;
868.5000;0.4957;1.4655;
868.8000;0.4965;1.4702;
869.1000;0.4925;1.4607;
869.4000;0.5039;1.4893;
869.7000;0.4933;1.4702;
870.0000;0.4957;1.4679;
870.3000;0.4917;1.4679;
870.6000;0.4933;1.4679;
870.9000;0.4933;1.4560;
871.2000;0.4949;1.4702;
871.5000;0.4957;1.4774;
871.8000;0.4892;1.4702;
872.1000;0.4933;1.4821;
872.4000;0.4941;1.4750;
872.7000;0.4949;1.4726;
873.0000;0.4965;1.4726;
873.3000;0.4917;1.4655;
873.6000;0.4941;1.4655;
873.9000;0.4925;1.4631;
874.2000;0.4974;1.4774;
874.5000;0.4892;1.4607;
874.8000;0.4925;1.4726;
875.1000;0.4933;1.4750;
875.4000;0.4811;1.4465;
875.7000;0.4941;1.4774;
876.0000;0.4917;1.4726;
876.3000;0.4941;1.4679;
876.6000;0.4925;1.4655;
876.9000;0.4949;1.4726;
877.2000;0.4974;1.4845;
877.5000;0.4941;1.4798;
877.8000;0.4925;1.4774;
878.1000;0.4941;1.4726;
878.4000;0.4998;1.4845;
878.7000;0.4949;1.4726;
879.0000;0.4941;1.4702;
879.3000;0.4933;1.4655;
879.6000;0.4835;1.4394;
879.9000;0.4957;1.4631;
880.2000;0.4949;1.4536;
880.5000;0.4933;1.4512;
880.8000;0.4941;1.4512;
881.1000;0.4917;1.4512;
881.4000;0.4900;1.4441;
881.7000;0.4933;1.4536;
882.0000;0.4925;1.4584;
882.3000;0.4900;1.4512;
882.6000;0.4933;1.4560;
882.9000;0.4949;1.4679;
883.2000;0.4949;1.4679;
883.5000;0.4925;1.4489;
883.8000;0.4941;1.4536;
884.1000;0.4949;1.4536;
884.4000;0.4908;1.4441;
884.7000;0.4933;1.4536;
885.0000;0.4949;1.4631;
885.3000;0.4990;1.4702;
885.6000;0.4949;1.4560;
885.9000;0.4941;1.4489;
886.2000;0.4925;1.4465;
886.5000;0.4974;1.4536;
886.8000;0.4933;1.4489;
887.1000;0.4925;1.4370;
887.4000;0.4957;1.4536;
887.7000;0.4925;1.4512;
888.0000;0.4933;1.4465;
888.3000;0.5047;1.4821;
888.6000;0.4949;1.4584;
888.9000;0.4941;1.4512;
889.2000;0.4957;1.4631;
889.5000;0.4933;1.4584;
889.8000;0.4957;1.4631;
890.1000;0.4957;1.4536;
890.4000;0.4941;1.4465;
890.7000;0.4925;1.4417;
891.0000;0.4949;1.4536;
891.3000;0.4933;1.4489;
891.6000;0.4941;1.4417;
891.9000;0.4957;1.4465;
892.2000;0.4949;1.4417;
892.5000;0.4925;1.4370;
892.8000;0.4941;1.4394;
893.1000;0.4941;1.4417;
893.4000;0.4982;1.4512;
893.7000;0.4957;1.4394;
894.0000;0.4974;1.4512;
894.3000;0.4941;1.4441;
894.6000;0.4933;1.4441;
894.9000;0.4957;1.4560;
895.2000;0.4892;1.4465;
895.5000;0.4957;1.4631;
895.8000;0.4933;1.4536;
896.1000;0.4957;1.4655;
896.4000;0.4908;1.4465;
896.7000;0.4949;1.4631;
897.0000;0.4941;1.4584;
897.3000;0.4933;1.4607;
897.6000;0.4941;1.4607;
897.9000;0.4957;1.4607;
898.2000;0.4965;1.4607;
898.5000;0.4941;1.4489;
898.8000;0.4957;1.4441;
899.1000;0.4957;1.4441;
899.4000;0.4957;1.4465;
899.7000;0.4941;1.4465;
900.0000;0.4917;1.4394;
900.3000;0.4957;1.4536;
900.6000;0.4957;1.4584;
900.9000;0.4949;1.4560;
901.2000;0.4974;1.4631;
901.5000;0.4957;1.4512;
901.8000;0.4974;1.4655;
902.1000;0.4957;1.4679;
902.4000;0.4957;1.4631;
902.7000;0.4949;1.4607;
903.0000;0.4941;1.4584;
903.3000;0.4949;1.4607;
903.6000;0.4957;1.4607;
903.9000;0.4949;1.4512;
904.2000;0.4965;1.4607;
904.5000;0.4941;1.4584;
904.8000;0.4965;1.4631;
905.1000;0.4957;1.4607;
905.4000;0.4965;1.4512;
905.7000;0.4957;1.4489;
906.0000;0.4941;1.4489;
906.3000;0.4933;1.4394;
906.6000;0.4957;1.4441;
906.9000;0.4949;1.4489;
907.2000;0.4941;1.4489;
907.5000;0.4949;1.4489;
907.8000;0.4949;1.4465;
908.1000;0.4957;1.4394;
908.4000;0.4941;1.4299;
908.7000;0.4949;1.4299;
909.0000;0.4941;1.4370;
909.3000;0.4941;1.4441;
909.6000;0.4957;1.4394;
909.9000;0.4998;1.4465;
910.2000;0.4949;1.4394;
910.5000;0.4949;1.4465;
910.8000;0.5014;1.4607;
911.1000;0.4957;1.4417;
911.4000;0.4917;1.4346;
911.7000;0.4957;1.4322;
912.0000;0.4941;1.4346;
912.3000;0.4933;1.4346;
912.6000;0.4990;1.4441;
912.9000;0.4949;1.4441;
913.2000;0.4949;1.4512;
913.5000;0.4957;1.4512;
913.8000;0.4933;1.4394;
914.1000;0.4949;1.4417;
914.4000;0.4990;1.4512;
914.7000;0.4990;1.4441;
915.0000;0.4957;1.4251;
915.3000;0.4949;1.4275;
915.6000;0.4949;1.4299;
915.9000;0.4957;1.4394;
916.2000;0.4982;1.4512;
916.5000;0.4957;1.4417;
916.8000;0.4957;1.4465;
917.1000;0.4949;1.4607;
917.4000;0.4949;1.4655;
917.7000;0.4925;1.4560;
918.0000;0.4957;1.4607;
918.3000;0.4957;1.4679;
918.6000;0.4965;1.4607;
918.9000;0.4949;1.4584;
919.2000;0.4957;1.4512;
919.5000;0.4957;1.4465;
919.8000;0.4949;1.4299;
920.1000;0.4949;1.4322;
920.4000;0.4941;1.4322;
920.7000;0.4941;1.4275;
921.0000;0.4933;1.4322;
921.3000;0.4925;1.4251;
921.6000;0.4933;1.4251;
921.9000;0.4933;1.4322;
922.2000;0.4941;1.4322;
922.5000;0.4949;1.4346;
922.8000;0.4949;1.4417;
923.1000;0.4965;1.4441;
923.4000;0.4957;1.4394;
923.7000;0.4941;1.4346;
924.0000;0.4957;1.4394;
924.3000;0.4957;1.4465;
924.6000;0.4957;1.4370;
924.9000;0.4957;1.4489;
925.2000;0.4957;1.4489;
925.5000;0.4957;1.4560;
925.8000;0.4957;1.4679;
926.1000;0.4949;1.4702;
926.4000;0.4949;1.4774;
926.7000;0.4949;1.4750;
927.0000;0.4965;1.4750;
927.3000;0.4941;1.4750;
927.6000;0.4941;1.4607;
927.9000;0.5039;1.4750;
928.2000;0.4941;1.4489;
928.5000;0.4957;1.4560;
928.8000;0.4892;1.4346;
929.1000;0.4933;1.4465;
929.4000;0.4957;1.4512;
929.7000;0.4957;1.4512;
930.0000;0.4933;1.4512;
930.3000;0.4957;1.4560;
930.6000;0.4957;1.4560;
930.9000;0.4965;1.4584;
931.2000;0.4941;1.4394;
931.5000;0.4949;1.4441;
931.8000;0.4949;1.4465;
932.1000;0.4949;1.4512;
932.4000;0.4965;1.4536;
932.7000;0.4892;1.4275;
933.0000;0.4892;1.4227;
933.3000;0.4957;1.4465;
933.6000;0.4957;1.4489;
933.9000;0.4957;1.4441;
934.2000;0.4965;1.4536;
934.5000;0.4949;1.4584;
934.8000;0.4941;1.4607;
935.1000;0.4957;1.4512;
935.4000;0.4957;1.4465;
935.7000;0.4957;1.4489;
936.0000;0.4965;1.4417;
936.3000;0.4949;1.4394;
936.6000;0.4949;1.4465;
936.9000;0.4949;1.4465;
937.2000;0.4941;1.4489;
937.5000;0.4949;1.4489;
937.8000;0.4949;1.4417;
938.1000;0.4949;1.4465;
938.4000;0.4949;1.4536;
938.7000;0.4949;1.4536;
939.0000;0.4933;1.4512;
939.3000;0.4949;1.4512;
939.6000;0.4957;1.4584;
939.9000;0.5014;1.4750;
940.2000;0.4957;1.4679;
940.5000;0.4949;1.4726;
940.8000;0.4949;1.4679;
941.1000;0.4949;1.4655;
941.4000;0.4949;1.4655;
941.7000;0.4965;1.4774;
942.0000;0.4957;1.4774;
942.3000;0.4974;1.4702;
942.6000;0.4941;1.4655;
942.9000;0.4957;1.4750;
943.2000;0.4957;1.4726;
943.5000;0.4957;1.4750;
943.8000;0.4965;1.4750;
944.1000;0.4941;1.4631;
944.4000;0.4957;1.4512;
944.7000;0.4965;1.4489;
945.0000;0.4957;1.4512;
945.3000;0.4957;1.4465;
945.6000;0.4957;1.4441;
945.9000;0.4957;1.4417;
946.2000;0.4933;1.4370;
946.5000;0.4933;1.4441;
946.8000;0.4949;1.4512;
947.1000;0.4941;1.4394;
947.4000;0.4957;1.4536;
947.7000;0.4941;1.4560;
948.0000;0.4957;1.4536;
948.3000;0.4949;1.4512;
948.6000;0.4957;1.4536;
948.9000;0.5022;1.4584;
949.2000;0.4933;1.4346;
949.5000;0.4949;1.4441;
949.8000;0.4941;1.4465;
950.1000;0.4957;1.4560;
950.4000;0.4949;1.4512;
950.7000;0.4957;1.4512;
951.0000;0.4982;1.4726;
951.3000;0.4957;1.4702;
951.6000;0.4957;1.4655;
951.9000;0.4925;1.4512;
952.2000;0.4957;1.4584;
952.5000;0.4957;1.4584;
952.8000;0.4965;1.4560;
953.1000;0.4957;1.4512;
953.4000;0.4957;1.4489;
953.7000;0.4957;1.4465;
954.0000;0.4957;1.4417;
954.3000;0.4949;1.4346;
954.6000;0.4957;1.4394;
954.9000;0.4957;1.4370;
955.2000;0.4949;1.4322;
955.5000;0.4949;1.4299;
955.8000;0.4965;1.4322;
956.1000;0.4941;1.4299;
956.4000;0.4941;1.4299;
956.7000;0.4957;1.4370;
957.0000;0.4941;1.4322;
957.3000;0.4941;1.4299;
957.6000;0.4965;1.4394;
957.9000;0.4957;1.4370;
958.2000;0.4957;1.4465;
958.5000;0.4982;1.4631;
958.8000;0.4974;1.4655;
959.1000;0.4965;1.4607;
959.4000;0.5079;1.4893;
959.7000;0.4933;1.4536;
960.0000;0.4965;1.4655;
960.3000;0.4892;1.4512;
960.6000;0.4949;1.4584;
960.9000;0.4917;1.4417;
961.2000;0.4965;1.4465;
961.5000;0.4949;1.4489;
961.8000;0.4949;1.4536;
962.1000;0.4941;1.4607;
962.4000;0.4957;1.4679;
962.7000;0.4957;1.4679;
963.0000;0.4949;1.4702;
963.3000;0.4941;1.4679;
963.6000;0.4957;1.4726;
963.9000;0.4949;1.4726;
964.2000;0.4957;1.4726;
964.5000;0.4941;1.4702;
964.8000;0.5047;1.4893;
965.1000;0.4957;1.4655;
965.4000;0.4941;1.4607;
965.7000;0.4990;1.4774;
966.0000;0.4933;1.4702;
966.3000;0.4949;1.4726;
966.6000;0.4957;1.4726;
966.9000;0.4876;1.4536;
967.2000;0.4965;1.4774;
967.5000;0.4933;1.4536;
967.8000;0.4876;1.4417;
968.1000;0.4982;1.4726;
968.4000;0.4957;1.4631;
968.7000;0.4965;1.4655;
969.0000;0.5014;1.4750;
969.3000;0.4957;1.4702;
969.6000;0.4941;1.4679;
969.9000;0.4998;1.4798;
970.2000;0.4957;1.4631;
970.5000;0.4957;1.4536;
970.8000;0.4957;1.4584;
971.1000;0.4957;1.4584;
971.4000;0.4949;1.4536;
971.7000;0.4933;1.4417;
972.0000;0.4974;1.4489;
972.3000;0.4949;1.4441;
972.6000;0.4965;1.4607;
972.9000;0.5014;1.4702;
973.2000;0.4917;1.4465;
973.5000;0.4949;1.4607;
973.8000;0.4965;1.4607;
974.1000;0.4965;1.4584;
974.4000;0.4974;1.4512;
974.7000;0.4965;1.4346;
975.0000;0.4965;1.4346;
975.3000;0.4974;1.4370;
975.6000;0.4965;1.4322;
975.9000;0.4965;1.4370;
976.2000;0.4957;1.4417;
976.5000;0.4941;1.4394;
976.8000;0.4949;1.4370;
977.1000;0.4965;1.4465;
977.4000;0.4957;1.4417;
977.7000;0.4974;1.4489;
978.0000;0.4957;1.4536;
978.3000;0.4941;1.4512;
978.6000;0.4965;1.4536;
978.9000;0.4933;1.4441;
979.2000;0.4974;1.4489;
979.5000;0.4949;1.4441;
979.8000;0.4949;1.4370;
980.1000;0.4957;1.4346;
980.4000;0.4974;1.4299;
980.7000;0.4957;1.4346;
981.0000;0.4941;1.4417;
981.3000;0.4965;1.4536;
981.6000;0.4957;1.4489;
981.9000;0.4941;1.4441;
982.2000;0.4957;1.4441;
982.5000;0.4949;1.4441;
982.8000;0.4982;1.4489;
983.1000;0.4974;1.4441;
983.4000;0.4949;1.4489;
983.7000;0.4949;1.4441;
984.0000;0.4957;1.4394;
984.3000;0.4860;1.4180;
984.6000;0.5055;1.4655;
984.9000;0.4949;1.4465;
985.2000;0.5071;1.4798;
985.5000;0.4965;1.4560;
985.8000;0.4925;1.4370;
986.1000;0.4965;1.4441;
986.4000;0.4933;1.4441;
986.7000;0.4949;1.4512;
987.0000;0.4957;1.4536;
987.3000;0.4957;1.4465;
987.6000;0.4965;1.4441;
987.9000;0.4990;1.4441;
988.2000;0.4957;1.4465;
988.5000;0.4965;1.4536;
988.8000;0.4957;1.4512;
989.1000;0.4965;1.4560;
989.4000;0.4998;1.4631;
989.7000;0.4925;1.4346;
990.0000;0.4990;1.4417;
990.3000;0.4990;1.4489;
990.6000;0.4965;1.4394;
990.9000;0.4876;1.4204;
991.2000;0.4949;1.4394;
991.5000;0.4965;1.4441;
991.8000;0.4957;1.4489;
992.1000;0.4974;1.4536;
992.4000;0.4974;1.4370;
992.7000;0.4982;1.4394;
993.0000;0.4982;1.4465;
993.3000;0.4982;1.4489;
993.6000;0.4957;1.4394;
993.9000;0.4982;1.4465;
994.2000;0.4974;1.4417;
994.5000;0.4965;1.4394;
994.8000;0.4957;1.4322;
995.1000;0.4974;1.4370;
995.4000;0.4982;1.4417;
995.7000;0.4957;1.4417;
996.0000;0.4965;1.4512;
996.3000;0.4949;1.4536;
996.6000;0.4957;1.4584;
996.9000;0.4957;1.4489;
997.2000;0.4941;1.4512;
997.5000;0.4957;1.4536;
997.8000;0.4965;1.4584;
998.1000;0.4868;1.4346;
998.4000;0.4965;1.4512;
998.7000;0.4965;1.4394;
999.0000;0.4965;1.4417;
999.3000;0.4949;1.4299;
999.6000;0.4957;1.4370;
999.9000;0.4957;1.4346;
1000.2000;0.4957;1.4394;
1000.5000;0.4974;1.4441;
1000.8000;0.4982;1.4417;
1001.1000;0.4933;1.4370;
1001.4000;0.4941;1.4417;
1001.7000;0.4957;1.4394;
1002.0000;0.4965;1.4346;
1002.3000;0.4957;1.4322;
1002.6000;0.4974;1.4251;
1002.9000;0.4965;1.4275;
1003.2000;0.4957;1.4322;
1003.5000;0.4965;1.4346;
1003.8000;0.4949;1.4322;
1004.1000;0.4974;1.4346;
1004.4000;0.4998;1.4417;
1004.7000;0.4957;1.4227;
1005.0000;0.4965;1.4227;
1005.3000;0.4949;1.4275;
1005.6000;0.4965;1.4299;
1005.9000;0.4941;1.4180;
1006.2000;0.4965;1.4275;
1006.5000;0.4965;1.4204;
1006.8000;0.4957;1.4180;
1007.1000;0.4965;1.4180;
1007.4000;0.5006;1.4275;
1007.7000;0.4957;1.4156;
1008.0000;0.4965;1.4251;
1008.3000;0.4974;1.4227;
1008.6000;0.4965;1.4180;
1008.9000;0.4957;1.4180;
1009.2000;0.4957;1.4132;
1009.5000;0.4957;1.4180;
1009.8000;0.4974;1.4251;
1010.1000;0.4957;1.4322;
1010.4000;0.4965;1.4346;
1010.7000;0.4941;1.4275;
1011.0000;0.4949;1.4346;
1011.3000;0.4957;1.4370;
1011.6000;0.4941;1.4299;
1011.9000;0.4957;1.4204;
1012.2000;0.4965;1.4227;
1012.5000;0.4990;1.4275;
1012.8000;0.4974;1.4180;
1013.1000;0.4957;1.4227;
1013.4000;0.4974;1.4322;
1013.7000;0.4957;1.4299;
1014.0000;0.4949;1.4251;
1014.3000;0.4965;1.4251;
1014.6000;0.4957;1.4204;
1014.9000;0.4949;1.4180;
1015.2000;0.4933;1.4061;
1015.5000;0.4965;1.4156;
1015.8000;0.4957;1.4251;
1016.1000;0.4965;1.4299;
1016.4000;0.4949;1.4346;
1016.7000;0.4974;1.4394;
1017.0000;0.4974;1.4299;
1017.3000;0.4982;1.4204;
1017.6000;0.4974;1.4299;
1017.9000;0.4965;1.4204;
1018.2000;0.4965;1.4180;
1018.5000;0.4982;1.4156;
1018.8000;0.4965;1.4132;
1019.1000;0.4965;1.4132;
1019.4000;0.4965;1.4132;
1019.7000;0.4990;1.4204;
1020.0000;0.4949;1.4061;
1020.3000;0.4933;1.4061;
1020.6000;0.4974;1.4037;
1020.9000;0.4965;1.4132;
1021.2000;0.4957;1.4156;
1021.5000;0.4965;1.4251;
1021.8000;0.4949;1.4156;
1022.1000;0.4965;1.4156;
1022.4000;0.4965;1.4061;
1022.7000;0.4990;1.4085;
1023.0000;0.4982;1.3990;
1023.3000;0.5039;1.4204;
1023.6000;0.4982;1.4037;
1023.9000;0.4949;1.4085;
1024.2000;0.4941;1.4085;
1024.5000;0.4982;1.4156;
1024.8000;0.4974;1.4085;
1025.1000;0.4965;1.4014;
1025.4000;0.4974;1.4061;
1025.7000;0.4974;1.4037;
1026.0000;0.4957;1.3966;
1026.3000;0.4957;1.3919;
1026.6000;0.4957;1.3895;
1026.9000;0.4965;1.3966;
1027.2000;0.4965;1.3990;
1027.5000;0.4965;1.3966;
1027.8000;0.4974;1.3966;
1028.1000;0.4965;1.4037;
1028.4000;0.4982;1.4204;
1028.7000;0.4974;1.4132;
1029.0000;0.4957;1.4085;
1029.3000;0.4982;1.4227;
1029.6000;0.4982;1.4180;
1029.9000;0.4965;1.4085;
1030.2000;0.4949;1.4085;
1030.5000;0.4957;1.4085;
1030.8000;0.4965;1.4061;
1031.1000;0.4974;1.4061;
1031.4000;0.4941;1.3966;
1031.7000;0.4974;1.3942;
1032.0000;0.4957;1.3919;
1032.3000;0.4957;1.3942;
1032.6000;0.4974;1.3990;
1032.9000;0.4957;1.4061;
1033.2000;0.4941;1.3990;
1033.5000;0.4974;1.4085;
1033.8000;0.4941;1.3990;
1034.1000;0.4965;1.4037;
1034.4000;0.4974;1.4085;
1034.7000;0.4974;1.4061;
1035.0000;0.4982;1.4037;
1035.3000;0.4941;1.3990;
1035.6000;0.4957;1.4037;
1035.9000;0.4925;1.4014;
1036.2000;0.4982;1.4204;
1036.5000;0.4900;1.4014;
1036.8000;0.4965;1.4322;
1037.1000;0.4974;1.4299;
1037.4000;0.4949;1.4275;
1037.7000;0.4974;1.4299;
1038.0000;0.4982;1.4275;
1038.3000;0.4990;1.4346;
1038.6000;0.4982;1.4441;
1038.9000;0.4974;1.4370;
1039.2000;0.5039;1.4536;
1039.5000;0.4990;1.4465;
1039.8000;0.5006;1.4536;
1040.1000;0.4982;1.4465;
1040.4000;0.4974;1.4489;
1040.7000;0.4974;1.4417;
1041.0000;0.4851;1.4085;
1041.3000;0.4974;1.4346;
1041.6000;0.4965;1.4370;
1041.9000;0.4974;1.4346;
1042.2000;0.5006;1.4441;
1042.5000;0.4974;1.4394;
1042.8000;0.4974;1.4441;
1043.1000;0.4982;1.4441;
1043.4000;0.5039;1.4560;
1043.7000;0.4990;1.4394;
1044.0000;0.4982;1.4394;
1044.3000;0.4965;1.4394;
1044.6000;0.4965;1.4417;
1044.9000;0.4982;1.4465;
1045.2000;0.4957;1.4394;
1045.5000;0.4957;1.4394;
1045.8000;0.4957;1.4489;
1046.1000;0.4925;1.4441;
1046.4000;0.4965;1.4489;
1046.7000;0.4965;1.4512;
1047.0000;0.4974;1.4370;
1047.3000;0.4941;1.4322;
1047.6000;0.4974;1.4370;
1047.9000;0.4965;1.4346;
1048.2000;0.4965;1.4394;
1048.5000;0.5006;1.4536;
1048.8000;0.4974;1.4465;
1049.1000;0.4974;1.4394;
1049.4000;0.4965;1.4346;
1049.7000;0.4965;1.4251;
1050.0000;0.4974;1.4299;
1050.3000;0.4949;1.4251;
1050.6000;0.4900;1.4109;
1050.9000;0.4933;1.4251;
1051.2000;0.4965;1.4322;
1051.5000;0.4965;1.4346;
1051.8000;0.4965;1.4299;
1052.1000;0.4965;1.4227;
1052.4000;0.4965;1.4275;
1052.7000;0.4965;1.4204;
1053.0000;0.4957;1.4251;
1053.3000;0.4957;1.4180;
1053.6000;0.4917;1.3990;
1053.9000;0.4974;1.4109;
1054.2000;0.4974;1.4085;
1054.5000;0.4949;1.4061;
1054.8000;0.4965;1.4109;
1055.1000;0.5031;1.4251;
1055.4000;0.4957;1.4085;
1055.7000;0.4974;1.4132;
1056.0000;0.4965;1.4180;
1056.3000;0.4965;1.4227;
1056.6000;0.4974;1.4132;
1056.9000;0.4965;1.4132;
1057.2000;0.4974;1.4085;
1057.5000;0.4965;1.4132;
1057.8000;0.4965;1.4014;
1058.1000;0.4933;1.3824;
1058.4000;0.4941;1.3895;
1058.7000;0.4974;1.3990;
1059.0000;0.5022;1.4132;
1059.3000;0.5014;1.4132;
1059.6000;0.4974;1.3990;
1059.9000;0.4900;1.3847;
1060.2000;0.4949;1.3990;
1060.5000;0.4957;1.4014;
1060.8000;0.4941;1.3942;
1061.1000;0.4974;1.4014;
1061.4000;0.4990;1.4014;
1061.7000;0.4982;1.4037;
1062.0000;0.4917;1.3895;
1062.3000;0.4908;1.3847;
1062.6000;0.4957;1.3966;
1062.9000;0.5006;1.4132;
1063.2000;0.5031;1.4180;
1063.5000;0.4974;1.4014;
1063.8000;0.4965;1.4085;
1064.1000;0.4974;1.4132;
1064.4000;0.4965;1.4156;
1064.7000;0.4982;1.4180;
1065.0000;0.4917;1.4014;
1065.3000;0.4974;1.4204;
1065.6000;0.4957;1.4109;
1065.9000;0.4957;1.4132;
1066.2000;0.4974;1.4156;
1066.5000;0.4965;1.4132;
1066.8000;0.4990;1.4109;
1067.1000;0.4965;1.3990;
1067.4000;0.4974;1.3966;
1067.7000;0.4982;1.4061;
1068.0000;0.4998;1.4085;
1068.3000;0.4974;1.4085;
1068.6000;0.4965;1.4061;
1068.9000;0.4990;1.4156;
1069.2000;0.5006;1.4204;
1069.5000;0.4949;1.4109;
1069.8000;0.4957;1.4180;
1070.1000;0.4998;1.4299;
1070.4000;0.4965;1.4275;
1070.7000;0.4957;1.4251;
1071.0000;0.4965;1.4227;
1071.3000;0.4974;1.4251;
1071.6000;0.4982;1.4322;
1071.9000;0.4974;1.4346;
1072.2000;0.4982;1.4394;
1072.5000;0.4974;1.4394;
1072.8000;0.4998;1.4417;
1073.1000;0.4974;1.4417;
1073.4000;0.4982;1.4417;
1073.7000;0.4982;1.4394;
1074.0000;0.4974;1.4417;
1074.3000;0.4982;1.4370;
1074.6000;0.4982;1.4322;
1074.9000;0.4974;1.4346;
1075.2000;0.4900;1.4132;
1075.5000;0.4982;1.4322;
1075.8000;0.4965;1.4227;
1076.1000;0.4998;1.4299;
1076.4000;0.4965;1.4180;
1076.7000;0.4982;1.4180;
1077.0000;0.4974;1.4037;
1077.3000;0.4965;1.4061;
1077.6000;0.4982;1.4085;
1077.9000;0.4990;1.4109;
1078.2000;0.4974;1.4109;
1078.5000;0.4982;1.4180;
1078.8000;0.4974;1.4156;
1079.1000;0.4974;1.4109;
1079.4000;0.4974;1.4109;
1079.7000;0.4957;1.4132;
1080.0000;0.4941;1.4061;
1080.3000;0.4998;1.4204;
1080.6000;0.4974;1.4156;
1080.9000;0.4917;1.4061;
1081.2000;0.4965;1.4132;
1081.5000;0.4982;1.4109;
1081.8000;0.4876;1.3966;
1082.1000;0.4957;1.4251;
1082.4000;0.4982;1.4275;
1082.7000;0.5014;1.4299;
1083.0000;0.4974;1.4109;
1083.3000;0.5014;1.4251;
1083.6000;0.4974;1.4299;
1083.9000;0.4957;1.4204;
1084.2000;0.5047;1.4512;
1084.5000;0.4957;1.4275;
1084.8000;0.4965;1.4132;
1085.1000;0.4957;1.4132;
1085.4000;0.4990;1.4322;
1085.7000;0.4990;1.4346;
1086.0000;0.4974;1.4394;
1086.3000;0.4949;1.4275;
1086.6000;0.5063;1.4584;
1086.9000;0.4965;1.4275;
1087.2000;0.4974;1.4370;
1087.5000;0.4974;1.4370;
1087.8000;0.4965;1.4370;
1088.1000;0.4982;1.4370;
1088.4000;0.4982;1.4322;
1088.7000;0.4965;1.4346;
1089.0000;0.4957;1.4251;
1089.3000;0.4990;1.4370;
1089.6000;0.4941;1.4132;
1089.9000;0.4974;1.4156;
1090.2000;0.4965;1.4109;
1090.5000;0.4965;1.4061;
1090.8000;0.4982;1.4227;
1091.1000;0.4965;1.4132;
1091.4000;0.4965;1.4204;
1091.7000;0.4998;1.4227;
1092.0000;0.4949;1.4275;
1092.3000;0.4965;1.4275;
1092.6000;0.4990;1.4370;
1092.9000;0.4982;1.4227;
1093.2000;0.4982;1.4227;
1093.5000;0.4990;1.4299;
1093.8000;0.4957;1.4204;
1094.1000;0.4957;1.4180;
1094.4000;0.4974;1.4085;
1094.7000;0.4974;1.4085;
1095.0000;0.4965;1.4014;
1095.3000;0.4974;1.4085;
1095.6000;0.4974;1.4085;
1095.9000;0.4949;1.4061;
1096.2000;0.4965;1.4109;
1096.5000;0.4965;1.4180;
1096.8000;0.4974;1.4204;
1097.1000;0.4990;1.4227;
1097.4000;0.4998;1.4251;
1097.7000;0.4982;1.4180;
1098.0000;0.4974;1.4180;
1098.3000;0.4925;1.4014;
1098.6000;0.4990;1.4204;
1098.9000;0.4974;1.4299;
1099.2000;0.4974;1.4275;
1099.5000;0.4982;1.4299;
1099.8000;0.4990;1.4251;
1100.1000;0.4949;1.4204;
1100.4000;0.4892;1.4037;
1100.7000;0.4974;1.4251;
1101.0000;0.4982;1.4299;
1101.3000;0.4974;1.4322;
1101.6000;0.4998;1.4322;
1101.9000;0.4982;1.4251;
1102.2000;0.4982;1.4227;
1102.5000;0.4982;1.4132;
1102.8000;0.4965;1.4109;
1103.1000;0.4982;1.4156;
1103.4000;0.4957;1.4085;
1103.7000;0.4933;1.4014;
1104.0000;0.4957;1.4109;
1104.3000;0.4965;1.4132;
1104.6000;0.4974;1.4085;
1104.9000;0.5031;1.4156;
1105.2000;0.4925;1.3871;
1105.5000;0.4974;1.4109;
1105.8000;0.4925;1.4085;
1106.1000;0.4974;1.4227;
1106.4000;0.4965;1.4180;
1106.7000;0.4965;1.4109;
1107.0000;0.4982;1.4109;
1107.3000;0.4974;1.4037;
1107.6000;0.4998;1.4085;
1107.9000;0.4982;1.4109;
1108.2000;0.5006;1.4109;
1108.5000;0.4974;1.4132;
1108.8000;0.4982;1.4180;
1109.1000;0.4982;1.4156;
1109.4000;0.4982;1.4132;
1109.7000;0.4990;1.4132;
1110.0000;0.5039;1.4299;
1110.3000;0.4974;1.4132;
1110.6000;0.4982;1.4109;
1110.9000;0.4982;1.4156;
1111.2000;0.4982;1.4156;
1111.5000;0.5006;1.4132;
1111.8000;0.4982;1.3990;
1112.1000;0.4990;1.4037;
1112.4000;0.4974;1.4085;
1112.7000;0.4974;1.4109;
1113.0000;0.4990;1.4156;
1113.3000;0.4982;1.4156;
1113.6000;0.4982;1.4132;
1113.9000;0.4982;1.4132;
1114.2000;0.4974;1.4156;
1114.5000;0.4982;1.4251;
1114.8000;0.4965;1.4180;
1115.1000;0.4965;1.4156;
1115.4000;0.4949;1.4085;
1115.7000;0.5006;1.4204;
1116.0000;0.4974;1.4085;
1116.3000;0.4965;1.4061;
1116.6000;0.4974;1.4037;
1116.9000;0.4998;1.4109;
1117.2000;0.4982;1.4085;
1117.5000;0.4974;1.4014;
1117.8000;0.4965;1.4061;
1118.1000;0.4965;1.4037;
1118.4000;0.4974;1.4109;
1118.7000;0.4974;1.4085;
1119.0000;0.4965;1.4037;
1119.3000;0.4982;1.4109;
1119.6000;0.4965;1.4085;
1119.9000;0.4900;1.4014;
1120.2000;0.4957;1.4180;
1120.5000;0.4965;1.4132;
1120.8000;0.4974;1.4156;
1121.1000;0.4990;1.4132;
1121.4000;0.4974;1.4061;
1121.7000;0.4982;1.4061;
1122.0000;0.5006;1.4156;
1122.3000;0.4957;1.4014;
1122.6000;0.4965;1.4037;
1122.9000;0.5071;1.4322;
1123.2000;0.4982;1.4180;
1123.5000;0.4982;1.4227;
1123.8000;0.4974;1.4204;
1124.1000;0.5006;1.4180;
1124.4000;0.4965;1.4132;
1124.7000;0.4917;1.4037;
1125.0000;0.4957;1.4109;
1125.3000;0.4982;1.4180;
1125.6000;0.4982;1.4109;
1125.9000;0.4982;1.4109;
1126.2000;0.4957;1.4037;
1126.5000;0.4982;1.4061;
1126.8000;0.4982;1.4061;
1127.1000;0.4990;1.4061;
1127.4000;0.4974;1.3895;
1127.7000;0.4965;1.3847;
1128.0000;0.4982;1.3871;
1128.3000;0.4974;1.3966;
1128.6000;0.4990;1.4037;
1128.9000;0.5039;1.4085;
1129.2000;0.4965;1.3895;
1129.5000;0.4974;1.3895;
1129.8000;0.5047;1.4132;
1130.1000;0.4998;1.3990;
1130.4000;0.4974;1.3871;
1130.7000;0.4974;1.3942;
1131.0000;0.4982;1.3847;
1131.3000;0.4990;1.3871;
1131.6000;0.4998;1.3942;
1131.9000;0.4998;1.3990;
1132.2000;0.4990;1.4037;
1132.5000;0.4990;1.4085;
1132.8000;0.4974;1.3942;
1133.1000;0.4990;1.3966;
1133.4000;0.4965;1.3942;
1133.7000;0.4974;1.3966;
1134.0000;0.4957;1.3919;
1134.3000;0.4982;1.3942;
1134.6000;0.4965;1.3871;
1134.9000;0.4990;1.3942;
1135.2000;0.5006;1.4014;
1135.5000;0.4982;1.3990;
1135.8000;0.4998;1.4037;
1136.1000;0.4965;1.4014;
1136.4000;0.4974;1.4014;
1136.7000;0.4990;1.4061;
1137.0000;0.4974;1.4085;
1137.3000;0.4884;1.3942;
1137.6000;0.4982;1.4180;
1137.9000;0.4957;1.4180;
1138.2000;0.4917;1.4156;
1138.5000;0.4982;1.4322;
1138.8000;0.4982;1.4204;
1139.1000;0.5047;1.4180;
1139.4000;0.4933;1.3895;
1139.7000;0.5063;1.4227;
1140.0000;0.4965;1.4014;
1140.3000;0.4957;1.3966;
1140.6000;0.4965;1.4037;
1140.9000;0.4982;1.4085;
1141.2000;0.4990;1.4085;
1141.5000;0.5006;1.4061;
1141.8000;0.5022;1.4251;
1142.1000;0.4990;1.4227;
1142.4000;0.4998;1.4180;
1142.7000;0.4990;1.4109;
1143.0000;0.4957;1.4037;
1143.3000;0.4982;1.4132;
1143.6000;0.4957;1.4132;
1143.9000;0.4982;1.4204;
1144.2000;0.4982;1.4251;
1144.5000;0.4982;1.4251;
1144.8000;0.4965;1.4132;
1145.1000;0.4982;1.4180;
1145.4000;0.4974;1.4204;
1145.7000;0.4974;1.4275;
1146.0000;0.4990;1.4299;
1146.3000;0.4998;1.4322;
1146.6000;0.4957;1.4227;
1146.9000;0.4998;1.4322;
1147.2000;0.4998;1.4299;
1147.5000;0.4990;1.4299;
1147.8000;0.4990;1.4251;
1148.1000;0.5031;1.4465;
1148.4000;0.5006;1.4346;
1148.7000;0.5047;1.4441;
1149.0000;0.4974;1.4227;
1149.3000;0.4998;1.4322;
1149.6000;0.4974;1.4394;
1149.9000;0.5006;1.4489;
1150.2000;0.4990;1.4370;
1150.5000;0.4957;1.4299;
1150.8000;0.4974;1.4346;
1151.1000;0.4974;1.4370;
1151.4000;0.4957;1.4299;
1151.7000;0.4900;1.4109;
1152.0000;0.4990;1.4299;
1152.3000;0.4982;1.4251;
1152.6000;0.4982;1.4204;
1152.9000;0.4965;1.4180;
1153.2000;0.4982;1.4180;
1153.5000;0.4974;1.4180;
1153.8000;0.4941;1.4132;
1154.1000;0.4974;1.4204;
1154.4000;0.5047;1.4322;
1154.7000;0.4974;1.4204;
1155.0000;0.4892;1.4037;
1155.3000;0.5047;1.4370;
1155.6000;0.4990;1.4227;
1155.9000;0.5079;1.4560;
1156.2000;0.4974;1.4299;
1156.5000;0.4998;1.4370;
1156.8000;0.5014;1.4489;
1157.1000;0.5006;1.4394;
1157.4000;0.4998;1.4394;
1157.7000;0.4990;1.4394;
1158.0000;0.4998;1.4394;
1158.3000;0.4990;1.4370;
1158.6000;0.4974;1.4322;
1158.9000;0.4990;1.4322;
1159.2000;0.4990;1.4227;
1159.5000;0.4998;1.4227;
1159.8000;0.4990;1.4275;
1160.1000;0.4908;1.4132;
1160.4000;0.4990;1.4441;
1160.7000;0.4982;1.4417;
1161.0000;0.4965;1.4465;
1161.3000;0.4982;1.4512;
1161.6000;0.4990;1.4536;
1161.9000;0.4982;1.4536;
1162.2000;0.4965;1.4441;
1162.5000;0.4957;1.4489;
1162.8000;0.4982;1.4536;
1163.1000;0.4933;1.4346;
1163.4000;0.4982;1.4346;
1163.7000;0.4982;1.4322;
1164.0000;0.4974;1.4275;
1164.3000;0.4990;1.4275;
1164.6000;0.4982;1.4204;
1164.9000;0.4990;1.4299;
1165.2000;0.4998;1.4346;
1165.5000;0.4990;1.4322;
1165.8000;0.4990;1.4346;
1166.1000;0.4982;1.4346;
1166.4000;0.4990;1.4441;
1166.7000;0.4982;1.4346;
1167.0000;0.4982;1.4346;
1167.3000;0.4965;1.4370;
1167.6000;0.4974;1.4299;
1167.9000;0.4982;1.4370;
1168.2000;0.4965;1.4322;
1168.5000;0.4982;1.4394;
1168.8000;0.4965;1.4346;
1169.1000;0.4965;1.4417;
1169.4000;0.4982;1.4441;
1169.7000;0.4982;1.4299;
1170.0000;0.4982;1.4227;
1170.3000;0.4990;1.4275;
1170.6000;0.4974;1.4275;
1170.9000;0.4965;1.4251;
1171.2000;0.4982;1.4394;
1171.5000;0.4990;1.4394;
1171.8000;0.4965;1.4346;
1172.1000;0.4982;1.4370;
1172.4000;0.4982;1.4465;
1172.7000;0.5161;1.4940;
1173.0000;0.4941;1.4346;
1173.3000;0.4982;1.4417;
1173.6000;0.4998;1.4441;
1173.9000;0.4965;1.4417;
1174.2000;0.4990;1.4512;
1174.5000;0.4900;1.4227;
1174.8000;0.4957;1.4370;
1175.1000;0.4974;1.4346;
1175.4000;0.4957;1.4275;
1175.7000;0.4982;1.4299;
1176.0000;0.4965;1.4322;
1176.3000;0.5022;1.4370;
1176.6000;0.4965;1.4322;
1176.9000;0.4965;1.4299;
1177.2000;0.4974;1.4370;
1177.5000;0.4982;1.4346;
1177.8000;0.4998;1.4394;
1178.1000;0.4990;1.4417;
1178.4000;0.4982;1.4489;
1178.7000;0.4974;1.4394;
1179.0000;0.4957;1.4299;
1179.3000;0.4998;1.4346;
1179.6000;0.4965;1.4299;
1179.9000;0.5031;1.4465;
1180.2000;0.4982;1.4346;
1180.5000;0.4982;1.4370;
1180.8000;0.4990;1.4346;
1181.1000;0.4982;1.4370;
1181.4000;0.4965;1.4370;
1181.7000;0.4982;1.4394;
1182.0000;0.4982;1.4394;
1182.3000;0.4982;1.4394;
1182.6000;0.4982;1.4394;
1182.9000;0.4982;1.4394;
1183.2000;0.4982;1.4417;
1183.5000;0.4974;1.4370;
1183.8000;0.4965;1.4322;
1184.1000;0.5006;1.4417;
1184.4000;0.5006;1.4322;
1184.7000;0.5006;1.4299;
1185.0000;0.4990;1.4251;
1185.3000;0.4982;1.4204;
1185.6000;0.4998;1.4132;
1185.9000;0.4965;1.4037;
1186.2000;0.4990;1.4132;
1186.5000;0.4990;1.4109;
1186.8000;0.4998;1.4132;
1187.1000;0.4982;1.4132;
1187.4000;0.4957;1.4180;
1187.7000;0.4974;1.4109;
1188.0000;0.4982;1.4204;
1188.3000;0.4974;1.4156;
1188.6000;0.4990;1.4251;
1188.9000;0.4957;1.4251;
1189.2000;0.5031;1.4465;
1189.5000;0.4941;1.4275;
1189.8000;0.4982;1.4346;
1190.1000;0.4965;1.4251;
1190.4000;0.4998;1.4299;
1190.7000;0.4982;1.4275;
1191.0000;0.4982;1.4251;
1191.3000;0.4925;1.4085;
1191.6000;0.4982;1.4251;
1191.9000;0.4998;1.4346;
1192.2000;0.4965;1.4275;
1192.5000;0.4990;1.4227;
1192.8000;0.4957;1.4156;
1193.1000;0.4982;1.4251;
1193.4000;0.4982;1.4299;
1193.7000;0.4982;1.4275;
1194.0000;0.4949;1.4227;
1194.3000;0.4982;1.4251;
1194.6000;0.4957;1.4299;
1194.9000;0.5014;1.4441;
1195.2000;0.4990;1.4322;
1195.5000;0.4982;1.4322;
1195.8000;0.4933;1.4251;
1196.1000;0.4990;1.4322;
1196.4000;0.4974;1.4227;
1196.7000;0.4982;1.4251;
1197.0000;0.4990;1.4322;
1197.3000;0.4876;1.4037;
1197.6000;0.5063;1.4465;
1197.9000;0.4998;1.4251;
1198.2000;0.4982;1.4227;
1198.5000;0.4941;1.4109;
1198.8000;0.4990;1.4275;
1199.1000;0.4965;1.4204;
1199.4000;0.4990;1.4275;
1199.7000;0.5006;1.4346;
1200.0000;0.4990;1.4322;
1200.3000;0.4957;1.4204;
1200.6000;0.4990;1.4227;
1200.9000;0.4998;1.4180;
1201.2000;0.4974;1.4180;
1201.5000;0.4982;1.4180;
1201.8000;0.4933;1.3990;
1202.1000;0.4974;1.4156;
1202.4000;0.5006;1.4251;
1202.7000;0.4974;1.4156;
1203.0000;0.5031;1.4251;
1203.3000;0.4982;1.4180;
1203.6000;0.4990;1.4156;
1203.9000;0.4990;1.4227;
1204.2000;0.5039;1.4346;
1204.5000;0.4982;1.4299;
1204.8000;0.4982;1.4322;
1205.1000;0.4982;1.4346;
1205.4000;0.5006;1.4370;
1205.7000;0.5055;1.4370;
1206.0000;0.5006;1.4322;
1206.3000;0.4982;1.4275;
1206.6000;0.4982;1.4204;
1206.9000;0.4982;1.4227;
1207.2000;0.4949;1.4204;
1207.5000;0.4990;1.4299;
1207.8000;0.4982;1.4251;
1208.1000;0.5006;1.4275;
1208.4000;0.4990;1.4275;
1208.7000;0.4982;1.4156;
1209.0000;0.4982;1.4109;
1209.3000;0.4990;1.4109;
1209.6000;0.4998;1.4156;
1209.9000;0.4982;1.4109;
1210.2000;0.4982;1.4227;
1210.5000;0.4998;1.4394;
1210.8000;0.4998;1.4441;
1211.1000;0.4941;1.4417;
1211.4000;0.4908;1.4370;
1211.7000;0.4965;1.4465;
1212.0000;0.4990;1.4536;
1212.3000;0.4998;1.4536;
1212.6000;0.4982;1.4394;
1212.9000;0.4982;1.4394;
1213.2000;0.4990;1.4346;
1213.5000;0.5006;1.4322;
1213.8000;0.4974;1.4251;
1214.1000;0.5022;1.4346;
1214.4000;0.4998;1.4180;
1214.7000;0.4982;1.4180;
1215.0000;0.4998;1.4180;
1215.3000;0.4982;1.4132;
1215.6000;0.4990;1.4085;
1215.9000;0.4892;1.3871;
1216.2000;0.5039;1.4251;
1216.5000;0.4990;1.4132;
1216.8000;0.4990;1.4109;
1217.1000;0.4974;1.4061;
1217.4000;0.4990;1.4109;
1217.7000;0.4965;1.4085;
1218.0000;0.4974;1.4061;
1218.3000;0.4974;1.4085;
1218.6000;0.5006;1.4156;
1218.9000;0.4990;1.4156;
1219.2000;0.4982;1.4180;
1219.5000;0.4998;1.4346;
1219.8000;0.5039;1.4465;
1220.1000;0.4998;1.4346;
1220.4000;0.4998;1.4346;
1220.7000;0.4990;1.4417;
1221.0000;0.4908;1.4132;
1221.3000;0.4990;1.4394;
1221.6000;0.4982;1.4346;
1221.9000;0.4949;1.4227;
1222.2000;0.4982;1.4394;
1222.5000;0.4965;1.4489;
1222.8000;0.4982;1.4489;
1223.1000;0.4965;1.4512;
1223.4000;0.4990;1.4489;
1223.7000;0.4990;1.4512;
1224.0000;0.5006;1.4489;
1224.3000;0.4982;1.4370;
1224.6000;0.4990;1.4346;
1224.9000;0.4990;1.4322;
1225.2000;0.4990;1.4346;
1225.5000;0.4990;1.4299;
1225.8000;0.5006;1.4227;
1226.1000;0.4998;1.4204;
1226.4000;0.5014;1.4204;
1226.7000;0.4982;1.4109;
1227.0000;0.4982;1.4156;
1227.3000;0.4990;1.4180;
1227.6000;0.4998;1.4204;
1227.9000;0.4982;1.4156;
1228.2000;0.4982;1.4132;
1228.5000;0.4998;1.4156;
1228.8000;0.4990;1.4227;
1229.1000;0.4982;1.4227;
1229.4000;0.4990;1.4227;
1229.7000;0.4998;1.4299;
1230.0000;0.4998;1.4275;
1230.3000;0.4998;1.4251;
1230.6000;0.4990;1.4251;
1230.9000;0.5006;1.4227;
1231.2000;0.5006;1.4204;
1231.5000;0.4990;1.4251;
1231.8000;0.5014;1.4204;
1232.1000;0.4982;1.4156;
1232.4000;0.5006;1.4156;
1232.7000;0.5039;1.4275;
1233.0000;0.4990;1.4180;
1233.3000;0.4982;1.4180;
1233.6000;0.5006;1.4251;
1233.9000;0.5014;1.4156;
1234.2000;0.4974;1.4014;
1234.5000;0.4998;1.4061;
1234.8000;0.4990;1.4085;
1235.1000;0.4998;1.4109;
1235.4000;0.4990;1.4156;
1235.7000;0.4974;1.4156;
1236.0000;0.4982;1.4180;
1236.3000;0.4990;1.4204;
1236.6000;0.4982;1.4180;
1236.9000;0.4965;1.4251;
1237.2000;0.4982;1.4251;
1237.5000;0.4982;1.4227;
1237.8000;0.4998;1.4299;
1238.1000;0.4990;1.4227;
1238.4000;0.4990;1.4275;
1238.7000;0.5014;1.4346;
1239.0000;0.5031;1.4322;
1239.3000;0.4982;1.4180;
1239.6000;0.4990;1.4299;
1239.9000;0.4990;1.4251;
1240.2000;0.5006;1.4322;
1240.5000;0.4974;1.4322;
1240.8000;0.4982;1.4346;
1241.1000;0.4990;1.4441;
1241.4000;0.4998;1.4489;
1241.7000;0.4990;1.4465;
1242.0000;0.4998;1.4465;
1242.3000;0.4998;1.4322;
1242.6000;0.4998;1.4251;
1242.9000;0.4990;1.4204;
1243.2000;0.4974;1.4275;
1243.5000;0.4982;1.4346;
1243.8000;0.4990;1.4346;
1244.1000;0.4949;1.4275;
1244.4000;0.4990;1.4346;
1244.7000;0.4990;1.4299;
1245.0000;0.4990;1.4275;
1245.3000;0.4990;1.4251;
1245.6000;0.4990;1.4251;
1245.9000;0.4982;1.4322;
1246.2000;0.4990;1.4299;
1246.5000;0.4998;1.4346;
1246.8000;0.4982;1.4394;
1247.1000;0.4982;1.4394;
1247.4000;0.4990;1.4417;
1247.7000;0.4974;1.4417;
1248.0000;0.4982;1.4417;
1248.3000;0.4965;1.4299;
1248.6000;0.4982;1.4322;
1248.9000;0.5055;1.4512;
1249.2000;0.4957;1.4251;
1249.5000;0.5047;1.4512;
1249.8000;0.4998;1.4322;
1250.1000;0.5022;1.4322;
1250.4000;0.4990;1.4299;
1250.7000;0.4982;1.4346;
1251.0000;0.4990;1.4322;
1251.3000;0.4982;1.4346;
1251.6000;0.4974;1.4346;
1251.9000;0.4982;1.4299;
1252.2000;0.4982;1.4275;
1252.5000;0.4982;1.4322;
1252.8000;0.4982;1.4322;
1253.1000;0.4998;1.4346;
1253.4000;0.4982;1.4346;
1253.7000;0.4990;1.4322;
1254.0000;0.5014;1.4394;
1254.3000;0.4998;1.4322;
1254.6000;0.4982;1.4346;
1254.9000;0.5006;1.4299;
1255.2000;0.4998;1.4275;
1255.5000;0.5006;1.4322;
1255.8000;0.4990;1.4346;
1256.1000;0.4990;1.4394;
1256.4000;0.5006;1.4346;
1256.7000;0.4998;1.4275;
1257.0000;0.4982;1.4275;
1257.3000;0.4990;1.4227;
1257.6000;0.4998;1.4299;
1257.9000;0.4998;1.4251;
1258.2000;0.4990;1.4299;
1258.5000;0.4990;1.4322;
1258.8000;0.4982;1.4346;
1259.1000;0.4998;1.4370;
1259.4000;0.4998;1.4299;
1259.7000;0.4990;1.4275;
1260.0000;0.5006;1.4251;
1260.3000;0.5006;1.4180;
1260.6000;0.4998;1.4132;
1260.9000;0.4982;1.4061;
1261.2000;0.4982;1.4037;
1261.5000;0.4990;1.4085;
1261.8000;0.4998;1.4109;
1262.1000;0.4982;1.4109;
1262.4000;0.4990;1.4156;
1262.7000;0.5006;1.4227;
1263.0000;0.4998;1.4156;
1263.3000;0.4982;1.4109;
1263.6000;0.4990;1.4109;
1263.9000;0.4998;1.4132;
1264.2000;0.5006;1.4085;
1264.5000;0.4998;1.4132;
1264.8000;0.4998;1.4204;
1265.1000;0.5022;1.4346;
1265.4000;0.5006;1.4275;
1265.7000;0.5022;1.4275;
1266.0000;0.4990;1.4299;
1266.3000;0.4982;1.4370;
1266.6000;0.4998;1.4417;
1266.9000;0.4974;1.4322;
1267.2000;0.4982;1.4275;
1267.5000;0.4998;1.4322;
1267.8000;0.4965;1.4251;
1268.1000;0.5006;1.4180;
1268.4000;0.5022;1.4204;
1268.7000;0.4990;1.4156;
1269.0000;0.5022;1.4204;
1269.3000;0.5014;1.4132;
1269.6000;0.5014;1.4132;
1269.9000;0.5169;1.4465;
1270.2000;0.5014;1.4037;
1270.5000;0.4965;1.3990;
1270.8000;0.4957;1.3895;
1271.1000;0.4990;1.4014;
1271.4000;0.4884;1.3871;
1271.7000;0.4990;1.4156;
1272.0000;0.4925;1.4085;
1272.3000;0.4917;1.4156;
1272.6000;0.5006;1.4346;
1272.9000;0.5063;1.4417;
1273.2000;0.4957;1.4204;
1273.5000;0.5006;1.4275;
1273.8000;0.4990;1.4156;
1274.1000;0.5014;1.4251;
1274.4000;0.5014;1.4322;
1274.7000;0.4998;1.4299;
1275.0000;0.4998;1.4299;
1275.3000;0.4998;1.4251;
1275.6000;0.4990;1.4204;
1275.9000;0.4982;1.4180;
1276.2000;0.4990;1.4156;
1276.5000;0.4990;1.4180;
1276.8000;0.4982;1.4204;
1277.1000;0.4982;1.4180;
1277.4000;0.4982;1.4180;
1277.7000;0.4998;1.4180;
1278.0000;0.4998;1.4132;
1278.3000;0.4990;1.4085;
1278.6000;0.4998;1.4109;
1278.9000;0.5014;1.4109;
1279.2000;0.4957;1.3990;
1279.5000;0.5014;1.4156;
1279.8000;0.4990;1.4156;
1280.1000;0.4998;1.4132;
1280.4000;0.4990;1.4180;
1280.7000;0.4998;1.4275;
1281.0000;0.5006;1.4322;
1281.3000;0.4974;1.4227;
1281.6000;0.5055;1.4441;
1281.9000;0.5014;1.4251;
1282.2000;0.4982;1.4180;
1282.5000;0.4998;1.4180;
1282.8000;0.4925;1.3966;
1283.1000;0.5006;1.4227;
1283.4000;0.5006;1.4299;
1283.7000;0.4998;1.4227;
1284.0000;0.4990;1.4251;
1284.3000;0.5006;1.4275;
1284.6000;0.4908;1.3966;
1284.9000;0.5006;1.4156;
1285.2000;0.5006;1.4156;
1285.5000;0.4990;1.4132;
1285.8000;0.4998;1.4180;
1286.1000;0.4990;1.4156;
1286.4000;0.4982;1.4227;
1286.7000;0.4982;1.4204;
1287.0000;0.4982;1.4132;
1287.3000;0.4998;1.4180;
1287.6000;0.4998;1.4204;
1287.9000;0.4982;1.4132;
1288.2000;0.5006;1.4132;
1288.5000;0.4998;1.4204;
1288.8000;0.5006;1.4251;
1289.1000;0.4949;1.4156;
1289.4000;0.4998;1.4299;
1289.7000;0.4998;1.4370;
1290.0000;0.4990;1.4370;
1290.3000;0.4982;1.4346;
1290.6000;0.4990;1.4275;
1290.9000;0.4974;1.4275;
1291.2000;0.4974;1.4227;
1291.5000;0.4990;1.4180;
1291.8000;0.4965;1.4109;
1292.1000;0.4998;1.4132;
1292.4000;0.5014;1.4085;
1292.7000;0.4982;1.4037;
1293.0000;0.4990;1.3990;
1293.3000;0.5006;1.3966;
1293.6000;0.4982;1.3966;
1293.9000;0.5031;1.4109;
1294.2000;0.5063;1.4275;
1294.5000;0.5014;1.4061;
1294.8000;0.4974;1.3942;
1295.1000;0.4990;1.3919;
1295.4000;0.4933;1.3895;
1295.7000;0.5031;1.4132;
1296.0000;0.5088;1.4227;
1296.3000;0.5063;1.4085;
1296.6000;0.5014;1.3966;
1296.9000;0.4998;1.3942;
1297.2000;0.4998;1.4014;
1297.5000;0.5006;1.4061;
1297.8000;0.4982;1.4037;
1298.1000;0.4998;1.4061;
1298.4000;0.4982;1.3966;
1298.7000;0.4998;1.4014;
1299.0000;0.4974;1.3919;
1299.3000;0.4998;1.3990;
1299.6000;0.5014;1.4037;
1299.9000;0.4990;1.4085;
1300.2000;0.4998;1.4014;
1300.5000;0.4998;1.4109;
1300.8000;0.4990;1.4037;
1301.1000;0.4982;1.4085;
1301.4000;0.4957;1.4132;
1301.7000;0.4990;1.4156;
1302.0000;0.4998;1.4180;
1302.3000;0.4982;1.4061;
1302.6000;0.4998;1.4061;
1302.9000;0.4998;1.4180;
1303.2000;0.5014;1.4180;
1303.5000;0.5006;1.4156;
1303.8000;0.4998;1.4156;
1304.1000;0.4990;1.4109;
1304.4000;0.4990;1.4132;
1304.7000;0.4998;1.4204;
1305.0000;0.4982;1.4227;
1305.3000;0.4990;1.4322;
1305.6000;0.4998;1.4299;
1305.9000;0.5022;1.4394;
1306.2000;0.4998;1.4322;
1306.5000;0.4982;1.4227;
1306.8000;0.4990;1.4204;
1307.1000;0.5031;1.4370;
1307.4000;0.5031;1.4394;
1307.7000;0.4974;1.4322;
1308.0000;0.4990;1.4394;
1308.3000;0.4990;1.4417;
1308.6000;0.5014;1.4394;
1308.9000;0.4982;1.4275;
1309.2000;0.4974;1.4227;
1309.5000;0.5006;1.4299;
1309.8000;0.4998;1.4227;
1310.1000;0.4990;1.4180;
1310.4000;0.5063;1.4370;
1310.7000;0.4998;1.4180;
1311.0000;0.5104;1.4417;
1311.3000;0.4982;1.4109;
1311.6000;0.4982;1.4156;
1311.9000;0.4982;1.4109;
1312.2000;0.4998;1.4156;
1312.5000;0.4998;1.4132;
1312.8000;0.4982;1.4037;
1313.1000;0.4982;1.4014;
1313.4000;0.4998;1.3990;
1313.7000;0.4990;1.3990;
1314.0000;0.4998;1.4014;
1314.3000;0.5006;1.4037;
1314.6000;0.5006;1.4037;
1314.9000;0.5031;1.4061;
1315.2000;0.4982;1.3871;
1315.5000;0.4998;1.3919;
1315.8000;0.5014;1.4014;
1316.1000;0.5047;1.4132;
1316.4000;0.4998;1.4037;
1316.7000;0.4990;1.4085;
1317.0000;0.4998;1.4132;
1317.3000;0.4974;1.4109;
1317.6000;0.4990;1.4156;
1317.9000;0.4982;1.4156;
1318.2000;0.4982;1.4180;
1318.5000;0.4998;1.4156;
1318.8000;0.5006;1.4251;
1319.1000;0.4998;1.4346;
1319.4000;0.4990;1.4370;
1319.7000;0.4982;1.4370;
1320.0000;0.5014;1.4370;
1320.3000;0.5014;1.4275;
1320.6000;0.4990;1.4346;
1320.9000;0.5014;1.4512;
1321.2000;0.5014;1.4441;
1321.5000;0.4998;1.4370;
1321.8000;0.4982;1.4370;
1322.1000;0.4990;1.4322;
1322.4000;0.4998;1.4251;
1322.7000;0.4998;1.4180;
1323.0000;0.4982;1.4109;
1323.3000;0.4998;1.4227;
1323.6000;0.5014;1.4251;
1323.9000;0.4990;1.4275;
1324.2000;0.5120;1.4536;
1324.5000;0.5055;1.4441;
1324.8000;0.5006;1.4394;
1325.1000;0.5006;1.4394;
1325.4000;0.4990;1.4322;
1325.7000;0.4982;1.4275;
1326.0000;0.5014;1.4275;
1326.3000;0.4941;1.4061;
1326.6000;0.4998;1.4227;
1326.9000;0.4982;1.4180;
1327.2000;0.4990;1.4227;
1327.5000;0.5022;1.4322;
1327.8000;0.4998;1.4299;
1328.1000;0.4998;1.4204;
1328.4000;0.4990;1.4156;
1328.7000;0.5006;1.4180;
1329.0000;0.4982;1.4132;
1329.3000;0.5006;1.4227;
1329.6000;0.5006;1.4204;
1329.9000;0.4998;1.4204;
1330.2000;0.4965;1.4109;
1330.5000;0.4974;1.4180;
1330.8000;0.4982;1.4156;
1331.1000;0.4974;1.4204;
1331.4000;0.5006;1.4275;
1331.7000;0.4990;1.4227;
1332.0000;0.4974;1.4204;
1332.3000;0.4998;1.4227;
1332.6000;0.5014;1.4322;
1332.9000;0.4982;1.4204;
1333.2000;0.4982;1.4227;
1333.5000;0.5014;1.4227;
1333.8000;0.5006;1.4204;
1334.1000;0.4982;1.4156;
1334.4000;0.4957;1.4251;
1334.7000;0.4998;1.4417;
1335.0000;0.5006;1.4465;
1335.3000;0.4990;1.4417;
1335.6000;0.4998;1.4370;
1335.9000;0.4990;1.4370;
1336.2000;0.4998;1.4370;
1336.5000;0.4990;1.4370;
1336.8000;0.4990;1.4322;
1337.1000;0.4998;1.4322;
1337.4000;0.4998;1.4346;
1337.7000;0.5006;1.4299;
1338.0000;0.4982;1.4299;
1338.3000;0.4974;1.4299;
1338.6000;0.4998;1.4370;
1338.9000;0.5014;1.4417;
1339.2000;0.4998;1.4370;
1339.5000;0.4990;1.4346;
1339.8000;0.4998;1.4251;
1340.1000;0.5014;1.4346;
1340.4000;0.4998;1.4322;
1340.7000;0.4990;1.4204;
1341.0000;0.4990;1.4204;
1341.3000;0.4998;1.4180;
1341.6000;0.4998;1.4109;
1341.9000;0.4990;1.4037;
1342.2000;0.4982;1.4014;
1342.5000;0.5006;1.4061;
1342.8000;0.4990;1.4109;
1343.1000;0.4990;1.4132;
1343.4000;0.4998;1.4180;
1343.7000;0.5006;1.4227;
1344.0000;0.4990;1.4227;
1344.3000;0.5006;1.4251;
1344.6000;0.4998;1.4251;
1344.9000;0.5006;1.4204;
1345.2000;0.5014;1.4251;
1345.5000;0.5006;1.4299;
1345.8000;0.4998;1.4251;
1346.1000;0.4998;1.4299;
1346.4000;0.5006;1.4299;
1346.7000;0.4990;1.4299;
1347.0000;0.4998;1.4346;
1347.3000;0.4998;1.4275;
1347.6000;0.5014;1.4346;
1347.9000;0.5006;1.4394;
1348.2000;0.4998;1.4489;
1348.5000;0.4990;1.4394;
1348.8000;0.5006;1.4394;
1349.1000;0.4998;1.4394;
1349.4000;0.4998;1.4299;
1349.7000;0.4998;1.4299;
1350.0000;0.5006;1.4299;
1350.3000;0.5022;1.4465;
1350.6000;0.5006;1.4346;
1350.9000;0.4990;1.4322;
1351.2000;0.5039;1.4394;
1351.5000;0.4990;1.4299;
1351.8000;0.4998;1.4227;
1352.1000;0.4998;1.4275;
1352.4000;0.5006;1.4204;
1352.7000;0.5014;1.4204;
1353.0000;0.4998;1.4180;
1353.3000;0.4998;1.4204;
1353.6000;0.4982;1.4132;
1353.9000;0.5022;1.4156;
1354.2000;0.5006;1.4061;
1354.5000;0.5006;1.4037;
1354.8000;0.5006;1.4037;
1355.1000;0.5014;1.4037;
1355.4000;0.4998;1.3966;
1355.7000;0.4990;1.3990;
1356.0000;0.5006;1.4037;
1356.3000;0.5014;1.3919;
1356.6000;0.5006;1.3871;
1356.9000;0.4974;1.3776;
1357.2000;0.4974;1.3800;
1357.5000;0.5006;1.3847;
1357.8000;0.5047;1.3942;
1358.1000;0.5006;1.3895;
1358.4000;0.4990;1.3871;
1358.7000;0.5014;1.3895;
1359.0000;0.5006;1.3966;
1359.3000;0.5006;1.3942;
1359.6000;0.5006;1.3966;
1359.9000;0.4990;1.3966;
1360.2000;0.4998;1.3990;
1360.5000;0.5006;1.4037;
1360.8000;0.5014;1.4061;
1361.1000;0.4982;1.3942;
1361.4000;0.4998;1.3919;
1361.7000;0.5006;1.3847;
1362.0000;0.5006;1.3990;
1362.3000;0.4998;1.3990;
1362.6000;0.5006;1.4014;
1362.9000;0.4998;1.3966;
1363.2000;0.5006;1.4014;
1363.5000;0.4998;1.4014;
1363.8000;0.5006;1.4037;
1364.1000;0.4998;1.4061;
1364.4000;0.5006;1.4061;
1364.7000;0.4998;1.3990;
1365.0000;0.4982;1.3847;
1365.3000;0.5006;1.3919;
1365.6000;0.4933;1.3752;
1365.9000;0.4990;1.3942;
1366.2000;0.4982;1.3919;
1366.5000;0.5014;1.4014;
1366.8000;0.5014;1.3990;
1367.1000;0.4990;1.3942;
1367.4000;0.4998;1.3919;
1367.7000;0.4998;1.3942;
1368.0000;0.5006;1.3895;
1368.3000;0.5014;1.3895;
1368.6000;0.4998;1.3824;
1368.9000;0.5014;1.3824;
1369.2000;0.5006;1.3871;
1369.5000;0.4998;1.3847;
1369.8000;0.4998;1.3847;
1370.1000;0.4933;1.3705;
1370.4000;0.5006;1.3942;
1370.7000;0.5006;1.3919;
1371.0000;0.4998;1.3871;
1371.3000;0.4933;1.3705;
1371.6000;0.4998;1.3942;
1371.9000;0.4998;1.3919;
1372.2000;0.4949;1.3752;
1372.5000;0.4998;1.3800;
1372.8000;0.5031;1.3824;
1373.1000;0.5014;1.3800;
1373.4000;0.4908;1.3610;
1373.7000;0.5006;1.3919;
1374.0000;0.4998;1.3847;
1374.3000;0.5014;1.3871;
1374.6000;0.5006;1.3824;
1374.9000;0.4998;1.3776;
1375.2000;0.4974;1.3776;
1375.5000;0.5006;1.3942;
1375.8000;0.4998;1.3824;
1376.1000;0.4998;1.3824;
1376.4000;0.4998;1.3824;
1376.7000;0.4998;1.3919;
1377.0000;0.5006;1.3919;
1377.3000;0.4982;1.3824;
1377.6000;0.4949;1.3729;
1377.9000;0.5014;1.3847;
1378.2000;0.5014;1.3871;
1378.5000;0.4998;1.3800;
1378.8000;0.4990;1.3776;
1379.1000;0.4998;1.3824;
1379.4000;0.4998;1.3776;
1379.7000;0.5006;1.3681;
1380.0000;0.5006;1.3705;
1380.3000;0.5006;1.3657;
1380.6000;0.5014;1.3752;
1380.9000;0.4974;1.3657;
1381.2000;0.5014;1.3729;
1381.5000;0.5014;1.3752;
1381.8000;0.5006;1.3800;
1382.1000;0.4998;1.3752;
1382.4000;0.5014;1.3847;
1382.7000;0.5039;1.4061;
1383.0000;0.4998;1.3990;
1383.3000;0.4998;1.3990;
1383.6000;0.5014;1.3942;
1383.9000;0.5006;1.3942;
1384.2000;0.4982;1.3800;
1384.5000;0.4990;1.3824;
1384.8000;0.5104;1.4109;
1385.1000;0.4982;1.3824;
1385.4000;0.4998;1.3800;
1385.7000;0.4998;1.3871;
1386.0000;0.4982;1.3752;
1386.3000;0.4998;1.3776;
1386.6000;0.4990;1.3824;
1386.9000;0.4998;1.3847;
1387.2000;0.4974;1.3705;
1387.5000;0.4892;1.3467;
1387.8000;0.4990;1.3729;
1388.1000;0.5006;1.3729;
1388.4000;0.5006;1.3776;
1388.7000;0.4998;1.3681;
1389.0000;0.4933;1.3539;
1389.3000;0.4998;1.3752;
1389.6000;0.4998;1.3752;
1389.9000;0.4990;1.3729;
1390.2000;0.5006;1.3847;
1390.5000;0.5006;1.3871;
1390.8000;0.4990;1.3942;
1391.1000;0.5014;1.3966;
1391.4000;0.5006;1.3919;
1391.7000;0.5022;1.4061;
1392.0000;0.5014;1.4085;
1392.3000;0.4990;1.4014;
1392.6000;0.5006;1.4037;
1392.9000;0.4998;1.3895;
1393.2000;0.5031;1.3966;
1393.5000;0.4908;1.3705;
1393.8000;0.4892;1.3657;
1394.1000;0.4998;1.3895;
1394.4000;0.5006;1.3871;
1394.7000;0.4982;1.3752;
1395.0000;0.4990;1.3729;
1395.3000;0.5014;1.3705;
1395.6000;0.4998;1.3657;
1395.9000;0.5014;1.3729;
1396.2000;0.5006;1.3752;
1396.5000;0.5014;1.3752;
1396.8000;0.5014;1.3800;
1397.1000;0.5014;1.3729;
1397.4000;0.5006;1.3681;
1397.7000;0.5014;1.3681;
1398.0000;0.5014;1.3634;
1398.3000;0.5022;1.3586;
1398.6000;0.5039;1.3610;
1398.9000;0.5006;1.3562;
1399.2000;0.5014;1.3586;
1399.5000;0.5014;1.3681;
1399.8000;0.5014;1.3705;
