time/ms;Fluo/V;P700 deltaI/I x10³;
-199.8000;0.1042;9.2234;
-199.5000;0.1058;9.2162;
-199.2000;0.1050;9.2066;
-198.9000;0.1034;9.1946;
-198.6000;0.1034;9.2018;
-198.3000;0.1091;9.2186;
-198.0000;0.1066;9.2162;
-197.7000;0.1107;9.2258;
-197.4000;0.1058;9.2138;
-197.1000;0.1066;9.2210;
-196.8000;0.1066;9.2210;
-196.5000;0.1083;9.2210;
-196.2000;0.1050;9.2210;
-195.9000;0.1058;9.2258;
-195.6000;0.1091;9.2330;
-195.3000;0.1042;9.2234;
-195.0000;0.1131;9.2377;
-194.7000;0.1091;9.2258;
-194.4000;0.1050;9.2114;
-194.1000;0.1058;9.2186;
-193.8000;0.1042;9.2162;
-193.5000;0.1091;9.2306;
-193.2000;0.1058;9.2210;
-192.9000;0.1083;9.2210;
-192.6000;0.1107;9.2258;
-192.3000;0.1074;9.2234;
-192.0000;0.1042;9.2114;
-191.7000;0.1058;9.2138;
-191.4000;0.1083;9.2234;
-191.1000;0.1058;9.2186;
-190.8000;0.1066;9.2138;
-190.5000;0.1115;9.2258;
-190.2000;0.1050;9.2090;
-189.9000;0.1066;9.2066;
-189.6000;0.1034;9.2042;
-189.3000;0.1050;9.2114;
-189.0000;0.1050;9.2114;
-188.7000;0.1074;9.2186;
-188.4000;0.1083;9.2234;
-188.1000;0.1058;9.2114;
-187.8000;0.1091;9.2114;
-187.5000;0.1083;9.2186;
-187.2000;0.1066;9.2210;
-186.9000;0.1050;9.2138;
-186.6000;0.1050;9.2162;
-186.3000;0.1050;9.2138;
-186.0000;0.1042;9.2114;
-185.7000;0.1115;9.2306;
-185.4000;0.1058;9.2186;
-185.1000;0.1083;9.2210;
-184.8000;0.1058;9.2234;
-184.5000;0.1074;9.2258;
-184.2000;0.1058;9.2234;
-183.9000;0.1074;9.2330;
-183.6000;0.1026;9.2258;
-183.3000;0.1066;9.2282;
-183.0000;0.1058;9.2306;
-182.7000;0.1066;9.2306;
-182.4000;0.1050;9.2210;
-182.1000;0.1066;9.2282;
-181.8000;0.1058;9.2234;
-181.5000;0.1058;9.2234;
-181.2000;0.1042;9.2210;
-180.9000;0.1058;9.2210;
-180.6000;0.1058;9.2282;
-180.3000;0.1066;9.2282;
-180.0000;0.1034;9.2258;
-179.7000;0.1058;9.2258;
-179.4000;0.1066;9.2234;
-179.1000;0.1083;9.2330;
-178.8000;0.1058;9.2306;
-178.5000;0.1074;9.2353;
-178.2000;0.1074;9.2330;
-177.9000;0.1066;9.2330;
-177.6000;0.1058;9.2377;
-177.3000;0.1066;9.2449;
-177.0000;0.1050;9.2473;
-176.7000;0.1042;9.2569;
-176.4000;0.1058;9.2593;
-176.1000;0.1042;9.2545;
-175.8000;0.1066;9.2593;
-175.5000;0.1083;9.2569;
-175.2000;0.1156;9.2785;
-174.9000;0.1042;9.2401;
-174.6000;0.1050;9.2330;
-174.3000;0.1066;9.2425;
-174.0000;0.1058;9.2425;
-173.7000;0.1066;9.2449;
-173.4000;0.1058;9.2401;
-173.1000;0.1026;9.2306;
-172.8000;0.1066;9.2449;
-172.5000;0.1074;9.2521;
-172.2000;0.1074;9.2569;
-171.9000;0.1034;9.2473;
-171.6000;0.1058;9.2521;
-171.3000;0.1034;9.2425;
-171.0000;0.1066;9.2401;
-170.7000;0.1058;9.2282;
-170.4000;0.1074;9.2234;
-170.1000;0.1058;9.2258;
-169.8000;0.1050;9.2234;
-169.5000;0.1058;9.2306;
-169.2000;0.1058;9.2210;
-168.9000;0.1107;9.2234;
-168.6000;0.1066;9.2162;
-168.3000;0.1074;9.2186;
-168.0000;0.1083;9.2258;
-167.7000;0.1074;9.2282;
-167.4000;0.1058;9.2210;
-167.1000;0.1050;9.2186;
-166.8000;0.1066;9.2234;
-166.5000;0.1074;9.2282;
-166.2000;0.1115;9.2425;
-165.9000;0.1058;9.2258;
-165.6000;0.1074;9.2425;
-165.3000;0.1058;9.2401;
-165.0000;0.1123;9.2521;
-164.7000;0.1066;9.2377;
-164.4000;0.1091;9.2401;
-164.1000;0.1074;9.2401;
-163.8000;0.1066;9.2425;
-163.5000;0.1099;9.2521;
-163.2000;0.1074;9.2473;
-162.9000;0.1091;9.2473;
-162.6000;0.1058;9.2425;
-162.3000;0.1083;9.2497;
-162.0000;0.1066;9.2425;
-161.7000;0.1058;9.2353;
-161.4000;0.1074;9.2497;
-161.1000;0.1058;9.2449;
-160.8000;0.1050;9.2449;
-160.5000;0.1050;9.2497;
-160.2000;0.1058;9.2545;
-159.9000;0.1074;9.2593;
-159.6000;0.1058;9.2449;
-159.3000;0.1074;9.2401;
-159.0000;0.1066;9.2377;
-158.7000;0.1050;9.2330;
-158.4000;0.1058;9.2377;
-158.1000;0.1066;9.2377;
-157.8000;0.1066;9.2377;
-157.5000;0.1066;9.2377;
-157.2000;0.1058;9.2353;
-156.9000;0.1034;9.2282;
-156.6000;0.1091;9.2425;
-156.3000;0.1058;9.2425;
-156.0000;0.1074;9.2401;
-155.7000;0.1066;9.2258;
-155.4000;0.1058;9.2258;
-155.1000;0.1066;9.2306;
-154.8000;0.1074;9.2330;
-154.5000;0.1107;9.2401;
-154.2000;0.1058;9.2377;
-153.9000;0.1083;9.2449;
-153.6000;0.1058;9.2425;
-153.3000;0.1074;9.2473;
-153.0000;0.1066;9.2401;
-152.7000;0.1066;9.2449;
-152.4000;0.1050;9.2377;
-152.1000;0.1058;9.2401;
-151.8000;0.1050;9.2377;
-151.5000;0.1050;9.2330;
-151.2000;0.1018;9.2210;
-150.9000;0.1050;9.2234;
-150.6000;0.1050;9.2234;
-150.3000;0.1042;9.2162;
-150.0000;0.1074;9.2210;
-149.7000;0.1074;9.2210;
-149.4000;0.1050;9.2114;
-149.1000;0.1066;9.2162;
-148.8000;0.1083;9.2234;
-148.5000;0.1066;9.2258;
-148.2000;0.1066;9.2306;
-147.9000;0.1066;9.2353;
-147.6000;0.1050;9.2377;
-147.3000;0.1083;9.2425;
-147.0000;0.1066;9.2330;
-146.7000;0.1058;9.2258;
-146.4000;0.0977;9.2090;
-146.1000;0.1074;9.2258;
-145.8000;0.1091;9.2282;
-145.5000;0.1058;9.2234;
-145.2000;0.1058;9.2306;
-144.9000;0.1009;9.2210;
-144.6000;0.1050;9.2282;
-144.3000;0.1091;9.2377;
-144.0000;0.1058;9.2282;
-143.7000;0.1091;9.2353;
-143.4000;0.1083;9.2306;
-143.1000;0.1074;9.2258;
-142.8000;0.1074;9.2258;
-142.5000;0.1066;9.2186;
-142.2000;0.1050;9.2138;
-141.9000;0.1001;9.1994;
-141.6000;0.1083;9.2066;
-141.3000;0.1042;9.2042;
-141.0000;0.1058;9.2210;
-140.7000;0.1099;9.2234;
-140.4000;0.1074;9.2138;
-140.1000;0.1058;9.2114;
-139.8000;0.1083;9.2186;
-139.5000;0.1074;9.2210;
-139.2000;0.1066;9.2258;
-138.9000;0.1083;9.2258;
-138.6000;0.1083;9.2306;
-138.3000;0.1066;9.2162;
-138.0000;0.1058;9.2234;
-137.7000;0.1083;9.2282;
-137.4000;0.1074;9.2114;
-137.1000;0.1074;9.2114;
-136.8000;0.1058;9.2138;
-136.5000;0.1058;9.2162;
-136.2000;0.1050;9.2258;
-135.9000;0.1074;9.2282;
-135.6000;0.1050;9.2186;
-135.3000;0.1034;9.2042;
-135.0000;0.1066;9.2066;
-134.7000;0.1066;9.2042;
-134.4000;0.1066;9.2018;
-134.1000;0.1058;9.1970;
-133.8000;0.1050;9.1946;
-133.5000;0.1074;9.2138;
-133.2000;0.1074;9.2186;
-132.9000;0.1042;9.2042;
-132.6000;0.1066;9.2066;
-132.3000;0.1066;9.2042;
-132.0000;0.1074;9.2138;
-131.7000;0.1074;9.2162;
-131.4000;0.1050;9.2114;
-131.1000;0.1034;9.2210;
-130.8000;0.1050;9.2162;
-130.5000;0.1050;9.2210;
-130.2000;0.1066;9.2330;
-129.9000;0.1074;9.2353;
-129.6000;0.1066;9.2282;
-129.3000;0.1066;9.2306;
-129.0000;0.1083;9.2306;
-128.7000;0.1099;9.2306;
-128.4000;0.1074;9.2330;
-128.1000;0.1058;9.2306;
-127.8000;0.1083;9.2330;
-127.5000;0.1074;9.2282;
-127.2000;0.1172;9.2473;
-126.9000;0.1074;9.2210;
-126.6000;0.1083;9.2234;
-126.3000;0.1058;9.2234;
-126.0000;0.1074;9.2282;
-125.7000;0.1050;9.2186;
-125.4000;0.1066;9.2186;
-125.1000;0.1074;9.2162;
-124.8000;0.1066;9.2186;
-124.5000;0.1074;9.2210;
-124.2000;0.1091;9.2234;
-123.9000;0.1058;9.2234;
-123.6000;0.1066;9.2330;
-123.3000;0.1058;9.2282;
-123.0000;0.1083;9.2306;
-122.7000;0.1042;9.2210;
-122.4000;0.1074;9.2138;
-122.1000;0.1042;9.2138;
-121.8000;0.1042;9.2138;
-121.5000;0.1050;9.2162;
-121.2000;0.1034;9.2258;
-120.9000;0.1066;9.2306;
-120.6000;0.1074;9.2258;
-120.3000;0.1074;9.2186;
-120.0000;0.1042;9.2090;
-119.7000;0.1050;9.2042;
-119.4000;0.1115;9.2186;
-119.1000;0.1107;9.2234;
-118.8000;0.1066;9.2210;
-118.5000;0.1034;9.2138;
-118.2000;0.1131;9.2306;
-117.9000;0.1058;9.2282;
-117.6000;0.1066;9.2330;
-117.3000;0.1058;9.2306;
-117.0000;0.1042;9.2210;
-116.7000;0.1099;9.2306;
-116.4000;0.1058;9.2186;
-116.1000;0.1115;9.2258;
-115.8000;0.1066;9.2042;
-115.5000;0.1131;9.2210;
-115.2000;0.1066;9.2114;
-114.9000;0.1026;9.2066;
-114.6000;0.1074;9.2186;
-114.3000;0.1091;9.2306;
-114.0000;0.1091;9.2306;
-113.7000;0.1083;9.2210;
-113.4000;0.1074;9.2090;
-113.1000;0.1066;9.2018;
-112.8000;0.1074;9.2042;
-112.5000;0.1058;9.1994;
-112.2000;0.1058;9.2138;
-111.9000;0.1066;9.2162;
-111.6000;0.1058;9.2042;
-111.3000;0.1156;9.2282;
-111.0000;0.1050;9.1946;
-110.7000;0.1050;9.1970;
-110.4000;0.1050;9.1874;
-110.1000;0.1074;9.1898;
-109.8000;0.1058;9.1827;
-109.5000;0.1058;9.1851;
-109.2000;0.1066;9.1827;
-108.9000;0.1058;9.1874;
-108.6000;0.1148;9.2066;
-108.3000;0.1107;9.2018;
-108.0000;0.1066;9.1851;
-107.7000;0.1058;9.1827;
-107.4000;0.1058;9.1707;
-107.1000;0.1058;9.1731;
-106.8000;0.1050;9.1683;
-106.5000;0.1074;9.1827;
-106.2000;0.1099;9.1898;
-105.9000;0.1050;9.1851;
-105.6000;0.1083;9.2018;
-105.3000;0.1083;9.1946;
-105.0000;0.1050;9.1827;
-104.7000;0.1066;9.1851;
-104.4000;0.1074;9.1779;
-104.1000;0.1115;9.1827;
-103.8000;0.1091;9.1731;
-103.5000;0.1099;9.1659;
-103.2000;0.1074;9.1731;
-102.9000;0.1083;9.1635;
-102.6000;0.1099;9.1635;
-102.3000;0.1083;9.1635;
-102.0000;0.1074;9.1683;
-101.7000;0.1042;9.1659;
-101.4000;0.1066;9.1683;
-101.1000;0.1115;9.1803;
-100.8000;0.1083;9.1707;
-100.5000;0.1083;9.1731;
-100.2000;0.1123;9.1755;
-99.9000;0.1066;9.1707;
-99.6000;0.1083;9.1755;
-99.3000;0.1058;9.1683;
-99.0000;0.1091;9.1731;
-98.7000;0.1099;9.1803;
-98.4000;0.1107;9.1779;
-98.1000;0.1066;9.1659;
-97.8000;0.1034;9.1563;
-97.5000;0.1050;9.1683;
-97.2000;0.1050;9.1707;
-96.9000;0.1058;9.1635;
-96.6000;0.1050;9.1563;
-96.3000;0.1058;9.1515;
-96.0000;0.1026;9.1372;
-95.7000;0.1034;9.1324;
-95.4000;0.1058;9.1300;
-95.1000;0.1058;9.1372;
-94.8000;0.1083;9.1611;
-94.5000;0.1074;9.1707;
-94.2000;0.1050;9.1659;
-93.9000;0.1091;9.1683;
-93.6000;0.1083;9.1635;
-93.3000;0.1115;9.1707;
-93.0000;0.1058;9.1539;
-92.7000;0.1115;9.1635;
-92.4000;0.1083;9.1707;
-92.1000;0.1131;9.1827;
-91.8000;0.1066;9.1779;
-91.5000;0.1050;9.1707;
-91.2000;0.1123;9.1922;
-90.9000;0.1058;9.1779;
-90.6000;0.1083;9.1874;
-90.3000;0.1107;9.1922;
-90.0000;0.1066;9.1946;
-89.7000;0.1074;9.1922;
-89.4000;0.1074;9.1898;
-89.1000;0.1066;9.1827;
-88.8000;0.1066;9.1779;
-88.5000;0.1074;9.1779;
-88.2000;0.1066;9.1827;
-87.9000;0.1050;9.1803;
-87.6000;0.1066;9.1851;
-87.3000;0.1074;9.1803;
-87.0000;0.1083;9.1827;
-86.7000;0.1042;9.1779;
-86.4000;0.1107;9.1994;
-86.1000;0.1083;9.1946;
-85.8000;0.1050;9.1970;
-85.5000;0.1140;9.2186;
-85.2000;0.1058;9.2018;
-84.9000;0.1050;9.1970;
-84.6000;0.1009;9.1779;
-84.3000;0.1058;9.1874;
-84.0000;0.1058;9.1922;
-83.7000;0.1074;9.1898;
-83.4000;0.1091;9.2042;
-83.1000;0.1050;9.1970;
-82.8000;0.1074;9.1946;
-82.5000;0.1074;9.1994;
-82.2000;0.1091;9.2042;
-81.9000;0.1074;9.1970;
-81.6000;0.1083;9.1994;
-81.3000;0.1172;9.2330;
-81.0000;0.1066;9.2018;
-80.7000;0.1074;9.1946;
-80.4000;0.1066;9.1898;
-80.1000;0.1050;9.1803;
-79.8000;0.1074;9.1803;
-79.5000;0.1091;9.1731;
-79.2000;0.1083;9.1707;
-78.9000;0.1099;9.1803;
-78.6000;0.1074;9.1779;
-78.3000;0.0993;9.1611;
-78.0000;0.1058;9.1827;
-77.7000;0.1083;9.1874;
-77.4000;0.1091;9.1946;
-77.1000;0.1066;9.1946;
-76.8000;0.1074;9.1874;
-76.5000;0.1058;9.1851;
-76.2000;0.1066;9.1731;
-75.9000;0.1083;9.1755;
-75.6000;0.1001;9.1611;
-75.3000;0.1050;9.1779;
-75.0000;0.1131;9.2018;
-74.7000;0.1074;9.1898;
-74.4000;0.1083;9.2018;
-74.1000;0.1083;9.2042;
-73.8000;0.0977;9.1874;
-73.5000;0.1009;9.1874;
-73.2000;0.1066;9.2018;
-72.9000;0.1083;9.2090;
-72.6000;0.1083;9.2066;
-72.3000;0.1099;9.2042;
-72.0000;0.1066;9.2018;
-71.7000;0.0985;9.1827;
-71.4000;0.1066;9.2018;
-71.1000;0.1050;9.1898;
-70.8000;0.1066;9.1922;
-70.5000;0.1074;9.1898;
-70.2000;0.1058;9.1803;
-69.9000;0.1083;9.1803;
-69.6000;0.1099;9.1779;
-69.3000;0.1107;9.1707;
-69.0000;0.1066;9.1683;
-68.7000;0.1066;9.1827;
-68.4000;0.1115;9.1874;
-68.1000;0.1066;9.1851;
-67.8000;0.1050;9.1851;
-67.5000;0.1091;9.1946;
-67.2000;0.1074;9.1827;
-66.9000;0.1091;9.1779;
-66.6000;0.1042;9.1707;
-66.3000;0.1050;9.1755;
-66.0000;0.1066;9.1755;
-65.7000;0.1058;9.1731;
-65.4000;0.1066;9.1803;
-65.1000;0.1026;9.1707;
-64.8000;0.1066;9.1803;
-64.5000;0.1066;9.1755;
-64.2000;0.1050;9.1731;
-63.9000;0.1074;9.1827;
-63.6000;0.1034;9.1707;
-63.3000;0.1042;9.1707;
-63.0000;0.1074;9.1755;
-62.7000;0.1074;9.1779;
-62.4000;0.1042;9.1611;
-62.1000;0.1066;9.1731;
-61.8000;0.1074;9.1851;
-61.5000;0.1164;9.2090;
-61.2000;0.1083;9.1851;
-60.9000;0.1058;9.1779;
-60.6000;0.1091;9.1779;
-60.3000;0.1058;9.1803;
-60.0000;0.1050;9.1779;
-59.7000;0.1058;9.1755;
-59.4000;0.1074;9.1731;
-59.1000;0.1042;9.1683;
-58.8000;0.1034;9.1707;
-58.5000;0.1058;9.1707;
-58.2000;0.1083;9.1683;
-57.9000;0.1066;9.1635;
-57.6000;0.1066;9.1611;
-57.3000;0.1131;9.1755;
-57.0000;0.1058;9.1611;
-56.7000;0.1107;9.1803;
-56.4000;0.1066;9.1611;
-56.1000;0.1091;9.1659;
-55.8000;0.1050;9.1587;
-55.5000;0.1050;9.1659;
-55.2000;0.1083;9.1731;
-54.9000;0.1066;9.1707;
-54.6000;0.1099;9.1827;
-54.3000;0.1156;9.1946;
-54.0000;0.1058;9.1707;
-53.7000;0.1074;9.1707;
-53.4000;0.1066;9.1683;
-53.1000;0.1074;9.1755;
-52.8000;0.1131;9.1946;
-52.5000;0.1083;9.1707;
-52.2000;0.1058;9.1611;
-51.9000;0.1066;9.1707;
-51.6000;0.1042;9.1659;
-51.3000;0.1050;9.1683;
-51.0000;0.1050;9.1683;
-50.7000;0.1091;9.1803;
-50.4000;0.1115;9.1851;
-50.1000;0.1058;9.1683;
-49.8000;0.0928;9.1443;
-49.5000;0.1115;9.1922;
-49.2000;0.1099;9.1779;
-48.9000;0.1083;9.1659;
-48.6000;0.1074;9.1611;
-48.3000;0.1050;9.1611;
-48.0000;0.1083;9.1659;
-47.7000;0.1140;9.1779;
-47.4000;0.1066;9.1707;
-47.1000;0.1074;9.1874;
-46.8000;0.1074;9.1827;
-46.5000;0.1058;9.1779;
-46.2000;0.1050;9.1874;
-45.9000;0.1058;9.1851;
-45.6000;0.1091;9.1946;
-45.3000;0.1074;9.1827;
-45.0000;0.1074;9.1851;
-44.7000;0.1091;9.1851;
-44.4000;0.1091;9.1898;
-44.1000;0.1074;9.1827;
-43.8000;0.1083;9.1827;
-43.5000;0.1074;9.1731;
-43.2000;0.1050;9.1635;
-42.9000;0.1083;9.1635;
-42.6000;0.1083;9.1683;
-42.3000;0.1172;9.1970;
-42.0000;0.1074;9.1779;
-41.7000;0.1083;9.1898;
-41.4000;0.1050;9.1898;
-41.1000;0.1058;9.1827;
-40.8000;0.1050;9.1755;
-40.5000;0.1074;9.1731;
-40.2000;0.1074;9.1683;
-39.9000;0.1074;9.1731;
-39.6000;0.1042;9.1707;
-39.3000;0.1066;9.1755;
-39.0000;0.1074;9.1755;
-38.7000;0.1058;9.1803;
-38.4000;0.1050;9.1779;
-38.1000;0.1058;9.1731;
-37.8000;0.1083;9.1803;
-37.5000;0.1050;9.1827;
-37.2000;0.1050;9.1803;
-36.9000;0.1058;9.1803;
-36.6000;0.1050;9.1707;
-36.3000;0.1050;9.1707;
-36.0000;0.1074;9.1707;
-35.7000;0.1050;9.1587;
-35.4000;0.1074;9.1611;
-35.1000;0.1099;9.1635;
-34.8000;0.1074;9.1659;
-34.5000;0.1050;9.1683;
-34.2000;0.1131;9.1970;
-33.9000;0.1074;9.1827;
-33.6000;0.1083;9.1874;
-33.3000;0.1091;9.1946;
-33.0000;0.1058;9.1922;
-32.7000;0.1042;9.1851;
-32.4000;0.1131;9.2042;
-32.1000;0.1091;9.1970;
-31.8000;0.1066;9.1922;
-31.5000;0.1091;9.1898;
-31.2000;0.1091;9.1898;
-30.9000;0.1066;9.1874;
-30.6000;0.1058;9.1874;
-30.3000;0.1066;9.1874;
-30.0000;0.1074;9.1779;
-29.7000;0.1066;9.1683;
-29.4000;0.1066;9.1779;
-29.1000;0.1058;9.1851;
-28.8000;0.1074;9.1827;
-28.5000;0.1042;9.1755;
-28.2000;0.1001;9.1587;
-27.9000;0.1074;9.1731;
-27.6000;0.1034;9.1707;
-27.3000;0.1026;9.1611;
-27.0000;0.1058;9.1611;
-26.7000;0.1018;9.1539;
-26.4000;0.1066;9.1755;
-26.1000;0.1050;9.1707;
-25.8000;0.1066;9.1803;
-25.5000;0.1083;9.1898;
-25.2000;0.1042;9.1731;
-24.9000;0.1058;9.1731;
-24.6000;0.1018;9.1635;
-24.3000;0.1026;9.1539;
-24.0000;0.1058;9.1611;
-23.7000;0.1026;9.1587;
-23.4000;0.1074;9.1731;
-23.1000;0.1074;9.1803;
-22.8000;0.1066;9.1755;
-22.5000;0.1140;9.1827;
-22.2000;0.1058;9.1635;
-21.9000;0.1066;9.1659;
-21.6000;0.1058;9.1611;
-21.3000;0.1083;9.1635;
-21.0000;0.1066;9.1611;
-20.7000;0.1074;9.1659;
-20.4000;0.0936;9.1204;
-20.1000;0.1091;9.1587;
-19.8000;0.1058;9.1491;
-19.5000;0.1058;9.1539;
-19.2000;0.1050;9.1467;
-18.9000;0.1083;9.1563;
-18.6000;0.1058;9.1467;
-18.3000;0.1066;9.1491;
-18.0000;0.1042;9.1515;
-17.7000;0.1066;9.1563;
-17.4000;0.1074;9.1611;
-17.1000;0.1058;9.1563;
-16.8000;0.1042;9.1491;
-16.5000;0.1066;9.1539;
-16.2000;0.1058;9.1419;
-15.9000;0.1058;9.1395;
-15.6000;0.1066;9.1491;
-15.3000;0.1107;9.1587;
-15.0000;0.1066;9.1515;
-14.7000;0.0985;9.1300;
-14.4000;0.1123;9.1539;
-14.1000;0.1058;9.1491;
-13.8000;0.1066;9.1563;
-13.5000;0.1083;9.1587;
-13.2000;0.1066;9.1539;
-12.9000;0.1058;9.1491;
-12.6000;0.1058;9.1419;
-12.3000;0.1042;9.1372;
-12.0000;0.1066;9.1467;
-11.7000;0.1066;9.1587;
-11.4000;0.1058;9.1635;
-11.1000;0.1066;9.1635;
-10.8000;0.1066;9.1611;
-10.5000;0.1058;9.1635;
-10.2000;0.1131;9.1779;
-9.9000;0.1083;9.1659;
-9.6000;0.1099;9.1635;
-9.3000;0.1009;9.1491;
-9.0000;0.1083;9.1587;
-8.7000;0.1074;9.1515;
-8.4000;0.1058;9.1491;
-8.1000;0.1074;9.1563;
-7.8000;0.1058;9.1443;
-7.5000;0.1083;9.1563;
-7.2000;0.1074;9.1587;
-6.9000;0.1083;9.1467;
-6.6000;0.1058;9.1395;
-6.3000;0.1074;9.1491;
-6.0000;0.1050;9.1419;
-5.7000;0.1066;9.1491;
-5.4000;0.1058;9.1611;
-5.1000;0.1066;9.1707;
-4.8000;0.1050;9.1731;
-4.5000;0.1066;9.1683;
-4.2000;0.1066;9.1683;
-3.9000;0.1066;9.1707;
-3.6000;0.1058;9.1707;
-3.3000;0.1066;9.1611;
-3.0000;0.1058;9.1563;
-2.7000;0.1107;9.1611;
-2.4000;0.1034;9.1443;
-2.1000;0.1074;9.1491;
-1.8000;0.1083;9.1587;
-1.5000;0.1026;9.1443;
-1.2000;0.1050;9.1515;
-0.9000;0.1066;9.1659;
-0.6000;0.1066;9.1707;
-0.3000;0.1050;9.1683;
0.0000;0.1050;9.1683;
0.3000;0.1066;9.1683;
0.6000;0.1099;9.1731;
0.9000;0.1123;9.1874;
1.2000;0.1164;9.2042;
1.5000;0.1172;9.2090;
1.8000;0.1205;9.2186;
2.1000;0.1205;9.2234;
2.4000;0.1221;9.2306;
2.7000;0.1229;9.2353;
3.0000;0.1245;9.2401;
3.3000;0.1156;9.2162;
3.6000;0.1237;9.2353;
3.9000;0.1262;9.2449;
4.2000;0.1254;9.2521;
4.5000;0.1270;9.2617;
4.8000;0.1254;9.2593;
5.1000;0.1254;9.2713;
5.4000;0.1254;9.2809;
5.7000;0.1188;9.2689;
6.0000;0.1237;9.2856;
6.3000;0.1286;9.2952;
6.6000;0.1254;9.2761;
6.9000;0.1270;9.2737;
7.2000;0.1229;9.2593;
7.5000;0.1262;9.2617;
7.8000;0.1254;9.2617;
8.1000;0.1270;9.2737;
8.4000;0.1254;9.2737;
8.7000;0.1311;9.2761;
9.0000;0.1286;9.2737;
9.3000;0.1286;9.2832;
9.6000;0.1270;9.2809;
9.9000;0.1262;9.2785;
10.2000;0.1262;9.2856;
10.5000;0.1286;9.2952;
10.8000;0.1188;9.2737;
11.1000;0.1270;9.2856;
11.4000;0.1286;9.2904;
11.7000;0.1245;9.2785;
12.0000;0.1294;9.2904;
12.3000;0.1278;9.2856;
12.6000;0.1302;9.2785;
12.9000;0.1368;9.2856;
13.2000;0.1294;9.2737;
13.5000;0.1286;9.2809;
13.8000;0.1278;9.2856;
14.1000;0.1294;9.2856;
14.4000;0.1302;9.2809;
14.7000;0.1311;9.2856;
15.0000;0.1278;9.2785;
15.3000;0.1270;9.2785;
15.6000;0.1278;9.2832;
15.9000;0.1343;9.3048;
16.2000;0.1278;9.2832;
16.5000;0.1294;9.2880;
16.8000;0.1278;9.2785;
17.1000;0.1286;9.2713;
17.4000;0.1294;9.2689;
17.7000;0.1278;9.2641;
18.0000;0.1270;9.2641;
18.3000;0.1278;9.2689;
18.6000;0.1278;9.2809;
18.9000;0.1278;9.2809;
19.2000;0.1294;9.2976;
19.5000;0.1278;9.2928;
19.8000;0.1270;9.2880;
20.1000;0.1286;9.2976;
20.4000;0.1286;9.3096;
20.7000;0.1343;9.3216;
21.0000;0.1278;9.3168;
21.3000;0.1270;9.3168;
21.6000;0.1278;9.3120;
21.9000;0.1286;9.3024;
22.2000;0.1278;9.3000;
22.5000;0.1294;9.2952;
22.8000;0.1335;9.2856;
23.1000;0.1311;9.2761;
23.4000;0.1319;9.2761;
23.7000;0.1262;9.2617;
24.0000;0.1311;9.2713;
24.3000;0.1311;9.2713;
24.6000;0.1319;9.2713;
24.9000;0.1286;9.2713;
25.2000;0.1311;9.2832;
25.5000;0.1286;9.2785;
25.8000;0.1286;9.2785;
26.1000;0.1319;9.2880;
26.4000;0.1270;9.2880;
26.7000;0.1278;9.2880;
27.0000;0.1286;9.2832;
27.3000;0.1294;9.2832;
27.6000;0.1302;9.2880;
27.9000;0.1294;9.2809;
28.2000;0.1311;9.2832;
28.5000;0.1294;9.2832;
28.8000;0.1278;9.2904;
29.1000;0.1294;9.2880;
29.4000;0.1302;9.2856;
29.7000;0.1278;9.2809;
30.0000;0.1286;9.2689;
30.3000;0.1229;9.2569;
30.6000;0.1278;9.2665;
30.9000;0.1294;9.2761;
31.2000;0.1286;9.2713;
31.5000;0.1286;9.2617;
31.8000;0.1294;9.2713;
32.1000;0.1311;9.2785;
32.4000;0.1302;9.2809;
32.7000;0.1311;9.2856;
33.0000;0.1319;9.2904;
33.3000;0.1319;9.2904;
33.6000;0.1294;9.2976;
33.9000;0.1270;9.2904;
34.2000;0.1327;9.3120;
34.5000;0.1311;9.3096;
34.8000;0.1335;9.3120;
35.1000;0.1311;9.3024;
35.4000;0.1254;9.2904;
35.7000;0.1262;9.2952;
36.0000;0.1302;9.3072;
36.3000;0.1311;9.3120;
36.6000;0.1270;9.2952;
36.9000;0.1319;9.3072;
37.2000;0.1335;9.3120;
37.5000;0.1311;9.3024;
37.8000;0.1392;9.3240;
38.1000;0.1311;9.3000;
38.4000;0.1327;9.3048;
38.7000;0.1327;9.3096;
39.0000;0.1335;9.3096;
39.3000;0.1327;9.3072;
39.6000;0.1319;9.3048;
39.9000;0.1302;9.3024;
40.2000;0.1254;9.2809;
40.5000;0.1302;9.2952;
40.8000;0.1311;9.3024;
41.1000;0.1302;9.3024;
41.4000;0.1335;9.3096;
41.7000;0.1335;9.3048;
42.0000;0.1302;9.3000;
42.3000;0.1351;9.3120;
42.6000;0.1327;9.3120;
42.9000;0.1311;9.3024;
43.2000;0.1302;9.2952;
43.5000;0.1294;9.2976;
43.8000;0.1319;9.3096;
44.1000;0.1311;9.3096;
44.4000;0.1319;9.3120;
44.7000;0.1286;9.3072;
45.0000;0.1311;9.3072;
45.3000;0.1254;9.2880;
45.6000;0.1302;9.2832;
45.9000;0.1311;9.2737;
46.2000;0.1319;9.2713;
46.5000;0.1294;9.2689;
46.8000;0.1335;9.2809;
47.1000;0.1343;9.2880;
47.4000;0.1286;9.2832;
47.7000;0.1327;9.2880;
48.0000;0.1319;9.2856;
48.3000;0.1327;9.2832;
48.6000;0.1311;9.2809;
48.9000;0.1343;9.2952;
49.2000;0.1311;9.2904;
49.5000;0.1319;9.2832;
49.8000;0.1311;9.2785;
50.1000;0.1327;9.2785;
50.4000;0.1327;9.2832;
50.7000;0.1327;9.2856;
51.0000;0.1327;9.2832;
51.3000;0.1327;9.2904;
51.6000;0.1327;9.2952;
51.9000;0.1327;9.3000;
52.2000;0.1319;9.3048;
52.5000;0.1327;9.2928;
52.8000;0.1335;9.2952;
53.1000;0.1319;9.2832;
53.4000;0.1311;9.2832;
53.7000;0.1351;9.2880;
54.0000;0.1335;9.2832;
54.3000;0.1294;9.2832;
54.6000;0.1343;9.2928;
54.9000;0.1302;9.2809;
55.2000;0.1319;9.2713;
55.5000;0.1302;9.2665;
55.8000;0.1319;9.2641;
56.1000;0.1335;9.2761;
56.4000;0.1319;9.2713;
56.7000;0.1327;9.2713;
57.0000;0.1319;9.2737;
57.3000;0.1335;9.2713;
57.6000;0.1351;9.2785;
57.9000;0.1286;9.2617;
58.2000;0.1327;9.2761;
58.5000;0.1376;9.2713;
58.8000;0.1327;9.2473;
59.1000;0.1319;9.2473;
59.4000;0.1311;9.2521;
59.7000;0.1359;9.2737;
60.0000;0.1286;9.2617;
60.3000;0.1327;9.2809;
60.6000;0.1270;9.2641;
60.9000;0.1262;9.2545;
61.2000;0.1335;9.2713;
61.5000;0.1327;9.2689;
61.8000;0.1384;9.2904;
62.1000;0.1319;9.2737;
62.4000;0.1311;9.2689;
62.7000;0.1351;9.2785;
63.0000;0.1343;9.2904;
63.3000;0.1335;9.2832;
63.6000;0.1368;9.2809;
63.9000;0.1335;9.2641;
64.2000;0.1311;9.2593;
64.5000;0.1311;9.2593;
64.8000;0.1327;9.2689;
65.1000;0.1335;9.2785;
65.4000;0.1368;9.2904;
65.7000;0.1319;9.2761;
66.0000;0.1311;9.2832;
66.3000;0.1311;9.2737;
66.6000;0.1270;9.2641;
66.9000;0.1319;9.2809;
67.2000;0.1311;9.2713;
67.5000;0.1335;9.2761;
67.8000;0.1327;9.2832;
68.1000;0.1343;9.2832;
68.4000;0.1270;9.2545;
68.7000;0.1327;9.2713;
69.0000;0.1351;9.2665;
69.3000;0.1416;9.2737;
69.6000;0.1376;9.2713;
69.9000;0.1335;9.2593;
70.2000;0.1343;9.2617;
70.5000;0.1311;9.2545;
70.8000;0.1319;9.2617;
71.1000;0.1335;9.2689;
71.4000;0.1343;9.2809;
71.7000;0.1311;9.2737;
72.0000;0.1327;9.2809;
72.3000;0.1327;9.2785;
72.6000;0.1335;9.2761;
72.9000;0.1302;9.2641;
73.2000;0.1343;9.2713;
73.5000;0.1343;9.2761;
73.8000;0.1327;9.2761;
74.1000;0.1343;9.2832;
74.4000;0.1335;9.2832;
74.7000;0.1343;9.2737;
75.0000;0.1335;9.2761;
75.3000;0.1335;9.2785;
75.6000;0.1343;9.2785;
75.9000;0.1376;9.2904;
76.2000;0.1343;9.2832;
76.5000;0.1351;9.2904;
76.8000;0.1359;9.2928;
77.1000;0.1343;9.2928;
77.4000;0.1319;9.2904;
77.7000;0.1335;9.2976;
78.0000;0.1359;9.2952;
78.3000;0.1351;9.2904;
78.6000;0.1335;9.2856;
78.9000;0.1343;9.2809;
79.2000;0.1311;9.2641;
79.5000;0.1359;9.2856;
79.8000;0.1351;9.2856;
80.1000;0.1319;9.2856;
80.4000;0.1343;9.2832;
80.7000;0.1327;9.2785;
81.0000;0.1343;9.2809;
81.3000;0.1343;9.2832;
81.6000;0.1343;9.2785;
81.9000;0.1294;9.2569;
82.2000;0.1343;9.2785;
82.5000;0.1343;9.2785;
82.8000;0.1319;9.2761;
83.1000;0.1351;9.2809;
83.4000;0.1359;9.2856;
83.7000;0.1327;9.2809;
84.0000;0.1327;9.2761;
84.3000;0.1359;9.2880;
84.6000;0.1319;9.2832;
84.9000;0.1400;9.3024;
85.2000;0.1368;9.3000;
85.5000;0.1351;9.2952;
85.8000;0.1319;9.2785;
86.1000;0.1343;9.2809;
86.4000;0.1327;9.2785;
86.7000;0.1343;9.3024;
87.0000;0.1343;9.3024;
87.3000;0.1278;9.2928;
87.6000;0.1335;9.3096;
87.9000;0.1384;9.3144;
88.2000;0.1376;9.3096;
88.5000;0.1359;9.2952;
88.8000;0.1335;9.3000;
89.1000;0.1335;9.2952;
89.4000;0.1343;9.2880;
89.7000;0.1335;9.2809;
90.0000;0.1335;9.2832;
90.3000;0.1351;9.2856;
90.6000;0.1368;9.2856;
90.9000;0.1376;9.2809;
91.2000;0.1359;9.2785;
91.5000;0.1327;9.2809;
91.8000;0.1384;9.2904;
92.1000;0.1335;9.2761;
92.4000;0.1359;9.2809;
92.7000;0.1343;9.2880;
93.0000;0.1376;9.2928;
93.3000;0.1302;9.2665;
93.6000;0.1351;9.2737;
93.9000;0.1368;9.2761;
94.2000;0.1359;9.2809;
94.5000;0.1368;9.2832;
94.8000;0.1278;9.2641;
95.1000;0.1343;9.2809;
95.4000;0.1335;9.2665;
95.7000;0.1368;9.2713;
96.0000;0.1327;9.2641;
96.3000;0.1319;9.2593;
96.6000;0.1351;9.2569;
96.9000;0.1351;9.2617;
97.2000;0.1351;9.2665;
97.5000;0.1351;9.2617;
97.8000;0.1376;9.2593;
98.1000;0.1343;9.2617;
98.4000;0.1351;9.2665;
98.7000;0.1368;9.2689;
99.0000;0.1335;9.2593;
99.3000;0.1335;9.2497;
99.6000;0.1376;9.2617;
99.9000;0.1368;9.2689;
100.2000;0.1335;9.2689;
100.5000;0.1368;9.2737;
100.8000;0.1465;9.2976;
101.1000;0.1351;9.2617;
101.4000;0.1351;9.2617;
101.7000;0.1335;9.2401;
102.0000;0.1359;9.2473;
102.3000;0.1392;9.2545;
102.6000;0.1335;9.2401;
102.9000;0.1351;9.2425;
103.2000;0.1384;9.2593;
103.5000;0.1368;9.2665;
103.8000;0.1351;9.2689;
104.1000;0.1351;9.2617;
104.4000;0.1368;9.2617;
104.7000;0.1302;9.2425;
105.0000;0.1343;9.2545;
105.3000;0.1327;9.2449;
105.6000;0.1368;9.2521;
105.9000;0.1359;9.2521;
106.2000;0.1359;9.2569;
106.5000;0.1351;9.2593;
106.8000;0.1343;9.2545;
107.1000;0.1416;9.2761;
107.4000;0.1359;9.2665;
107.7000;0.1351;9.2593;
108.0000;0.1368;9.2641;
108.3000;0.1392;9.2856;
108.6000;0.1368;9.2832;
108.9000;0.1311;9.2737;
109.2000;0.1335;9.2761;
109.5000;0.1335;9.2713;
109.8000;0.1335;9.2569;
110.1000;0.1351;9.2449;
110.4000;0.1335;9.2473;
110.7000;0.1359;9.2473;
111.0000;0.1359;9.2521;
111.3000;0.1343;9.2569;
111.6000;0.1416;9.2785;
111.9000;0.1351;9.2761;
112.2000;0.1359;9.2761;
112.5000;0.1359;9.2785;
112.8000;0.1416;9.2856;
113.1000;0.1343;9.2713;
113.4000;0.1359;9.2832;
113.7000;0.1368;9.2856;
114.0000;0.1335;9.2809;
114.3000;0.1351;9.2761;
114.6000;0.1368;9.2761;
114.9000;0.1343;9.2641;
115.2000;0.1376;9.2593;
115.5000;0.1359;9.2593;
115.8000;0.1359;9.2713;
116.1000;0.1359;9.2689;
116.4000;0.1376;9.2593;
116.7000;0.1359;9.2569;
117.0000;0.1343;9.2545;
117.3000;0.1351;9.2569;
117.6000;0.1359;9.2665;
117.9000;0.1351;9.2617;
118.2000;0.1351;9.2641;
118.5000;0.1351;9.2617;
118.8000;0.1368;9.2689;
119.1000;0.1359;9.2665;
119.4000;0.1384;9.2665;
119.7000;0.1376;9.2617;
120.0000;0.1392;9.2689;
120.3000;0.1359;9.2545;
120.6000;0.1319;9.2401;
120.9000;0.1359;9.2497;
121.2000;0.1368;9.2545;
121.5000;0.1359;9.2569;
121.8000;0.1416;9.2665;
122.1000;0.1294;9.2473;
122.4000;0.1327;9.2617;
122.7000;0.1351;9.2713;
123.0000;0.1359;9.2809;
123.3000;0.1343;9.2761;
123.6000;0.1359;9.2713;
123.9000;0.1368;9.2665;
124.2000;0.1359;9.2521;
124.5000;0.1376;9.2545;
124.8000;0.1343;9.2521;
125.1000;0.1343;9.2593;
125.4000;0.1335;9.2449;
125.7000;0.1351;9.2473;
126.0000;0.1335;9.2473;
126.3000;0.1368;9.2449;
126.6000;0.1359;9.2545;
126.9000;0.1384;9.2617;
127.2000;0.1343;9.2665;
127.5000;0.1359;9.2713;
127.8000;0.1343;9.2713;
128.1000;0.1400;9.2904;
128.4000;0.1351;9.2785;
128.7000;0.1359;9.2761;
129.0000;0.1376;9.2761;
129.3000;0.1359;9.2761;
129.6000;0.1351;9.2809;
129.9000;0.1343;9.2689;
130.2000;0.1376;9.2761;
130.5000;0.1335;9.2641;
130.8000;0.1368;9.2856;
131.1000;0.1343;9.2809;
131.4000;0.1302;9.2689;
131.7000;0.1351;9.2832;
132.0000;0.1343;9.2785;
132.3000;0.1327;9.2761;
132.6000;0.1343;9.2713;
132.9000;0.1368;9.2809;
133.2000;0.1351;9.2856;
133.5000;0.1335;9.2809;
133.8000;0.1311;9.2809;
134.1000;0.1359;9.2880;
134.4000;0.1359;9.2904;
134.7000;0.1351;9.2785;
135.0000;0.1384;9.2809;
135.3000;0.1351;9.2785;
135.6000;0.1359;9.2713;
135.9000;0.1343;9.2737;
136.2000;0.1351;9.2809;
136.5000;0.1351;9.2856;
136.8000;0.1319;9.2832;
137.1000;0.1335;9.2809;
137.4000;0.1351;9.2856;
137.7000;0.1359;9.2880;
138.0000;0.1408;9.2976;
138.3000;0.1425;9.2976;
138.6000;0.1433;9.2976;
138.9000;0.1384;9.2809;
139.2000;0.1359;9.2737;
139.5000;0.1433;9.2952;
139.8000;0.1376;9.2809;
140.1000;0.1351;9.2785;
140.4000;0.1359;9.2809;
140.7000;0.1359;9.2832;
141.0000;0.1425;9.3000;
141.3000;0.1368;9.2832;
141.6000;0.1368;9.2737;
141.9000;0.1327;9.2617;
142.2000;0.1351;9.2617;
142.5000;0.1359;9.2641;
142.8000;0.1343;9.2521;
143.1000;0.1384;9.2545;
143.4000;0.1376;9.2497;
143.7000;0.1368;9.2449;
144.0000;0.1359;9.2449;
144.3000;0.1351;9.2569;
144.6000;0.1384;9.2665;
144.9000;0.1343;9.2521;
145.2000;0.1408;9.2593;
145.5000;0.1392;9.2521;
145.8000;0.1514;9.2832;
146.1000;0.1335;9.2545;
146.4000;0.1376;9.2617;
146.7000;0.1335;9.2569;
147.0000;0.1335;9.2521;
147.3000;0.1351;9.2569;
147.6000;0.1343;9.2617;
147.9000;0.1368;9.2737;
148.2000;0.1368;9.2761;
148.5000;0.1359;9.2713;
148.8000;0.1368;9.2761;
149.1000;0.1376;9.2737;
149.4000;0.1359;9.2665;
149.7000;0.1392;9.2689;
150.0000;0.1359;9.2545;
150.3000;0.1359;9.2569;
150.6000;0.1351;9.2545;
150.9000;0.1376;9.2593;
151.2000;0.1441;9.2689;
151.5000;0.1359;9.2569;
151.8000;0.1351;9.2641;
152.1000;0.1359;9.2641;
152.4000;0.1351;9.2497;
152.7000;0.1343;9.2473;
153.0000;0.1351;9.2449;
153.3000;0.1359;9.2377;
153.6000;0.1335;9.2330;
153.9000;0.1433;9.2473;
154.2000;0.1351;9.2353;
154.5000;0.1433;9.2593;
154.8000;0.1368;9.2521;
155.1000;0.1368;9.2473;
155.4000;0.1351;9.2497;
155.7000;0.1311;9.2306;
156.0000;0.1359;9.2473;
156.3000;0.1343;9.2425;
156.6000;0.1376;9.2449;
156.9000;0.1400;9.2521;
157.2000;0.1359;9.2425;
157.5000;0.1392;9.2569;
157.8000;0.1319;9.2473;
158.1000;0.1359;9.2641;
158.4000;0.1335;9.2689;
158.7000;0.1286;9.2449;
159.0000;0.1368;9.2665;
159.3000;0.1351;9.2473;
159.6000;0.1368;9.2473;
159.9000;0.1376;9.2497;
160.2000;0.1262;9.2306;
160.5000;0.1400;9.2689;
160.8000;0.1319;9.2569;
161.1000;0.1351;9.2689;
161.4000;0.1351;9.2689;
161.7000;0.1327;9.2593;
162.0000;0.1368;9.2617;
162.3000;0.1425;9.2761;
162.6000;0.1416;9.2665;
162.9000;0.1376;9.2665;
163.2000;0.1368;9.2641;
163.5000;0.1481;9.2880;
163.8000;0.1351;9.2569;
164.1000;0.1351;9.2641;
164.4000;0.1343;9.2617;
164.7000;0.1368;9.2593;
165.0000;0.1376;9.2593;
165.3000;0.1359;9.2521;
165.6000;0.1335;9.2449;
165.9000;0.1384;9.2545;
166.2000;0.1359;9.2473;
166.5000;0.1343;9.2593;
166.8000;0.1359;9.2689;
167.1000;0.1359;9.2713;
167.4000;0.1376;9.2761;
167.7000;0.1302;9.2617;
168.0000;0.1351;9.2785;
168.3000;0.1351;9.2785;
168.6000;0.1286;9.2521;
168.9000;0.1343;9.2545;
169.2000;0.1376;9.2617;
169.5000;0.1351;9.2497;
169.8000;0.1368;9.2473;
170.1000;0.1368;9.2473;
170.4000;0.1359;9.2377;
170.7000;0.1376;9.2497;
171.0000;0.1368;9.2545;
171.3000;0.1351;9.2473;
171.6000;0.1327;9.2425;
171.9000;0.1335;9.2401;
172.2000;0.1368;9.2497;
172.5000;0.1400;9.2665;
172.8000;0.1376;9.2569;
173.1000;0.1359;9.2593;
173.4000;0.1343;9.2641;
173.7000;0.1368;9.2713;
174.0000;0.1327;9.2593;
174.3000;0.1359;9.2641;
174.6000;0.1351;9.2593;
174.9000;0.1368;9.2545;
175.2000;0.1368;9.2473;
175.5000;0.1359;9.2473;
175.8000;0.1433;9.2617;
176.1000;0.1384;9.2545;
176.4000;0.1311;9.2521;
176.7000;0.1359;9.2689;
177.0000;0.1376;9.2617;
177.3000;0.1384;9.2665;
177.6000;0.1359;9.2737;
177.9000;0.1351;9.2737;
178.2000;0.1359;9.2809;
178.5000;0.1376;9.2832;
178.8000;0.1376;9.2761;
179.1000;0.1376;9.2617;
179.4000;0.1384;9.2521;
179.7000;0.1368;9.2569;
180.0000;0.1392;9.2689;
180.3000;0.1392;9.2689;
180.6000;0.1368;9.2665;
180.9000;0.1376;9.2689;
181.2000;0.1335;9.2689;
181.5000;0.1384;9.2761;
181.8000;0.1335;9.2785;
182.1000;0.1359;9.2761;
182.4000;0.1343;9.2737;
182.7000;0.1359;9.2761;
183.0000;0.1368;9.2761;
183.3000;0.1343;9.2761;
183.6000;0.1408;9.2928;
183.9000;0.1392;9.2904;
184.2000;0.1368;9.2785;
184.5000;0.1376;9.2785;
184.8000;0.1368;9.2689;
185.1000;0.1368;9.2713;
185.4000;0.1343;9.2617;
185.7000;0.1368;9.2689;
186.0000;0.1368;9.2689;
186.3000;0.1359;9.2641;
186.6000;0.1376;9.2689;
186.9000;0.1368;9.2689;
187.2000;0.1343;9.2665;
187.5000;0.1368;9.2761;
187.8000;0.1457;9.3024;
188.1000;0.1351;9.2713;
188.4000;0.1368;9.2785;
188.7000;0.1384;9.2761;
189.0000;0.1384;9.2785;
189.3000;0.1376;9.2713;
189.6000;0.1376;9.2713;
189.9000;0.1376;9.2713;
190.2000;0.1359;9.2665;
190.5000;0.1368;9.2617;
190.8000;0.1359;9.2617;
191.1000;0.1368;9.2641;
191.4000;0.1368;9.2665;
191.7000;0.1473;9.2952;
192.0000;0.1359;9.2593;
192.3000;0.1359;9.2689;
192.6000;0.1351;9.2713;
192.9000;0.1343;9.2785;
193.2000;0.1359;9.2880;
193.5000;0.1359;9.2761;
193.8000;0.1384;9.2761;
194.1000;0.1359;9.2617;
194.4000;0.1343;9.2617;
194.7000;0.1384;9.2665;
195.0000;0.1368;9.2713;
195.3000;0.1376;9.2856;
195.6000;0.1376;9.2785;
195.9000;0.1400;9.2880;
196.2000;0.1343;9.2761;
196.5000;0.1351;9.2761;
196.8000;0.1335;9.2689;
197.1000;0.1416;9.2832;
197.4000;0.1392;9.2809;
197.7000;0.1294;9.2617;
198.0000;0.1376;9.2832;
198.3000;0.1351;9.2761;
198.6000;0.1368;9.2761;
198.9000;0.1425;9.2832;
199.2000;0.1368;9.2809;
199.5000;0.1376;9.2904;
199.8000;0.1368;9.2856;
200.1000;0.1384;9.2952;
200.4000;0.1376;9.2976;
200.7000;0.1335;9.2856;
201.0000;0.1351;9.2785;
201.3000;0.1359;9.2785;
201.6000;0.1376;9.2856;
201.9000;0.1376;9.2832;
202.2000;0.1376;9.2928;
202.5000;0.1384;9.2976;
202.8000;0.1376;9.2880;
203.1000;0.1376;9.2761;
203.4000;0.1376;9.2809;
203.7000;0.1433;9.2976;
204.0000;0.1359;9.2856;
204.3000;0.1376;9.2928;
204.6000;0.1359;9.2880;
204.9000;0.1368;9.2904;
205.2000;0.1343;9.2880;
205.5000;0.1319;9.2809;
205.8000;0.1359;9.2832;
206.1000;0.1376;9.2832;
206.4000;0.1384;9.2856;
206.7000;0.1408;9.2976;
207.0000;0.1351;9.2880;
207.3000;0.1359;9.2832;
207.6000;0.1384;9.2976;
207.9000;0.1319;9.2713;
208.2000;0.1392;9.2737;
208.5000;0.1368;9.2665;
208.8000;0.1368;9.2617;
209.1000;0.1392;9.2665;
209.4000;0.1384;9.2689;
209.7000;0.1384;9.2665;
210.0000;0.1384;9.2761;
210.3000;0.1368;9.2665;
210.6000;0.1376;9.2761;
210.9000;0.1368;9.2617;
211.2000;0.1351;9.2569;
211.5000;0.1368;9.2473;
211.8000;0.1376;9.2545;
212.1000;0.1368;9.2569;
212.4000;0.1368;9.2497;
212.7000;0.1376;9.2617;
213.0000;0.1368;9.2641;
213.3000;0.1376;9.2689;
213.6000;0.1392;9.2737;
213.9000;0.1359;9.2569;
214.2000;0.1400;9.2665;
214.5000;0.1392;9.2593;
214.8000;0.1359;9.2545;
215.1000;0.1376;9.2497;
215.4000;0.1400;9.2497;
215.7000;0.1368;9.2401;
216.0000;0.1392;9.2377;
216.3000;0.1376;9.2449;
216.6000;0.1433;9.2713;
216.9000;0.1351;9.2713;
217.2000;0.1368;9.2713;
217.5000;0.1327;9.2569;
217.8000;0.1433;9.2832;
218.1000;0.1270;9.2521;
218.4000;0.1384;9.2689;
218.7000;0.1359;9.2593;
219.0000;0.1351;9.2593;
219.3000;0.1376;9.2641;
219.6000;0.1368;9.2641;
219.9000;0.1335;9.2641;
220.2000;0.1368;9.2689;
220.5000;0.1359;9.2689;
220.8000;0.1368;9.2761;
221.1000;0.1384;9.2761;
221.4000;0.1368;9.2713;
221.7000;0.1335;9.2713;
222.0000;0.1392;9.2904;
222.3000;0.1359;9.2856;
222.6000;0.1368;9.2713;
222.9000;0.1384;9.2737;
223.2000;0.1368;9.2785;
223.5000;0.1368;9.2761;
223.8000;0.1343;9.2713;
224.1000;0.1368;9.2761;
224.4000;0.1368;9.2737;
224.7000;0.1376;9.2737;
225.0000;0.1392;9.2713;
225.3000;0.1368;9.2665;
225.6000;0.1319;9.2521;
225.9000;0.1392;9.2665;
226.2000;0.1376;9.2545;
226.5000;0.1392;9.2641;
226.8000;0.1327;9.2521;
227.1000;0.1376;9.2689;
227.4000;0.1376;9.2737;
227.7000;0.1425;9.2809;
228.0000;0.1368;9.2713;
228.3000;0.1376;9.2809;
228.6000;0.1392;9.2809;
228.9000;0.1319;9.2617;
229.2000;0.1368;9.2761;
229.5000;0.1384;9.2713;
229.8000;0.1368;9.2593;
230.1000;0.1425;9.2641;
230.4000;0.1368;9.2473;
230.7000;0.1384;9.2569;
231.0000;0.1359;9.2425;
231.3000;0.1376;9.2497;
231.6000;0.1376;9.2449;
231.9000;0.1343;9.2330;
232.2000;0.1359;9.2330;
232.5000;0.1311;9.2186;
232.8000;0.1343;9.2330;
233.1000;0.1368;9.2377;
233.4000;0.1327;9.2377;
233.7000;0.1302;9.2353;
234.0000;0.1359;9.2521;
234.3000;0.1368;9.2713;
234.6000;0.1311;9.2617;
234.9000;0.1384;9.2785;
235.2000;0.1343;9.2761;
235.5000;0.1376;9.2856;
235.8000;0.1368;9.2809;
236.1000;0.1368;9.2713;
236.4000;0.1359;9.2641;
236.7000;0.1368;9.2617;
237.0000;0.1351;9.2617;
237.3000;0.1351;9.2593;
237.6000;0.1343;9.2593;
237.9000;0.1416;9.2809;
238.2000;0.1302;9.2497;
238.5000;0.1384;9.2689;
238.8000;0.1286;9.2497;
239.1000;0.1335;9.2545;
239.4000;0.1368;9.2665;
239.7000;0.1408;9.2713;
240.0000;0.1359;9.2497;
240.3000;0.1343;9.2473;
240.6000;0.1359;9.2593;
240.9000;0.1343;9.2545;
241.2000;0.1319;9.2497;
241.5000;0.1400;9.2665;
241.8000;0.1351;9.2401;
242.1000;0.1359;9.2401;
242.4000;0.1376;9.2473;
242.7000;0.1376;9.2521;
243.0000;0.1359;9.2521;
243.3000;0.1368;9.2569;
243.6000;0.1376;9.2641;
243.9000;0.1368;9.2641;
244.2000;0.1351;9.2641;
244.5000;0.1319;9.2353;
244.8000;0.1408;9.2569;
245.1000;0.1359;9.2449;
245.4000;0.1441;9.2521;
245.7000;0.1408;9.2425;
246.0000;0.1376;9.2353;
246.3000;0.1368;9.2353;
246.6000;0.1465;9.2761;
246.9000;0.1368;9.2521;
247.2000;0.1359;9.2569;
247.5000;0.1368;9.2617;
247.8000;0.1359;9.2617;
248.1000;0.1408;9.2689;
248.4000;0.1368;9.2617;
248.7000;0.1392;9.2641;
249.0000;0.1343;9.2521;
249.3000;0.1368;9.2545;
249.6000;0.1400;9.2641;
249.9000;0.1368;9.2689;
250.2000;0.1368;9.2665;
250.5000;0.1351;9.2689;
250.8000;0.1359;9.2617;
251.1000;0.1376;9.2665;
251.4000;0.1530;9.2976;
251.7000;0.1368;9.2497;
252.0000;0.1351;9.2497;
252.3000;0.1433;9.2689;
252.6000;0.1384;9.2617;
252.9000;0.1408;9.2641;
253.2000;0.1433;9.2641;
253.5000;0.1335;9.2425;
253.8000;0.1392;9.2521;
254.1000;0.1359;9.2569;
254.4000;0.1359;9.2641;
254.7000;0.1368;9.2737;
255.0000;0.1392;9.2880;
255.3000;0.1376;9.2809;
255.6000;0.1368;9.2665;
255.9000;0.1368;9.2617;
256.2000;0.1359;9.2545;
256.5000;0.1506;9.2880;
256.8000;0.1368;9.2569;
257.1000;0.1359;9.2641;
257.4000;0.1384;9.2785;
257.7000;0.1400;9.2809;
258.0000;0.1359;9.2761;
258.3000;0.1376;9.2737;
258.6000;0.1408;9.2856;
258.9000;0.1327;9.2713;
259.2000;0.1359;9.2785;
259.5000;0.1343;9.2665;
259.8000;0.1335;9.2665;
260.1000;0.1376;9.2761;
260.4000;0.1368;9.2689;
260.7000;0.1425;9.2785;
261.0000;0.1351;9.2641;
261.3000;0.1359;9.2641;
261.6000;0.1433;9.2761;
261.9000;0.1376;9.2617;
262.2000;0.1376;9.2665;
262.5000;0.1359;9.2641;
262.8000;0.1351;9.2689;
263.1000;0.1327;9.2665;
263.4000;0.1343;9.2713;
263.7000;0.1400;9.2809;
264.0000;0.1327;9.2689;
264.3000;0.1368;9.2761;
264.6000;0.1376;9.2785;
264.9000;0.1351;9.2665;
265.2000;0.1376;9.2785;
265.5000;0.1343;9.2832;
265.8000;0.1384;9.2904;
266.1000;0.1376;9.2832;
266.4000;0.1343;9.2785;
266.7000;0.1368;9.2928;
267.0000;0.1335;9.2856;
267.3000;0.1262;9.2617;
267.6000;0.1376;9.2952;
267.9000;0.1376;9.2880;
268.2000;0.1368;9.2832;
268.5000;0.1408;9.2856;
268.8000;0.1327;9.2617;
269.1000;0.1359;9.2593;
269.4000;0.1425;9.2617;
269.7000;0.1392;9.2569;
270.0000;0.1343;9.2545;
270.3000;0.1359;9.2641;
270.6000;0.1359;9.2545;
270.9000;0.1376;9.2497;
271.2000;0.1335;9.2425;
271.5000;0.1376;9.2473;
271.8000;0.1441;9.2617;
272.1000;0.1359;9.2521;
272.4000;0.1359;9.2497;
272.7000;0.1376;9.2569;
273.0000;0.1376;9.2593;
273.3000;0.1359;9.2497;
273.6000;0.1359;9.2593;
273.9000;0.1351;9.2569;
274.2000;0.1425;9.2785;
274.5000;0.1376;9.2641;
274.8000;0.1359;9.2641;
275.1000;0.1384;9.2713;
275.4000;0.1384;9.2737;
275.7000;0.1376;9.2617;
276.0000;0.1368;9.2641;
276.3000;0.1327;9.2521;
276.6000;0.1343;9.2521;
276.9000;0.1311;9.2401;
277.2000;0.1368;9.2521;
277.5000;0.1384;9.2449;
277.8000;0.1343;9.2425;
278.1000;0.1359;9.2569;
278.4000;0.1351;9.2569;
278.7000;0.1335;9.2521;
279.0000;0.1376;9.2545;
279.3000;0.1359;9.2545;
279.6000;0.1368;9.2593;
279.9000;0.1359;9.2569;
280.2000;0.1359;9.2545;
280.5000;0.1359;9.2521;
280.8000;0.1368;9.2569;
281.1000;0.1368;9.2617;
281.4000;0.1384;9.2593;
281.7000;0.1376;9.2617;
282.0000;0.1343;9.2617;
282.3000;0.1359;9.2593;
282.6000;0.1368;9.2545;
282.9000;0.1376;9.2569;
283.2000;0.1384;9.2497;
283.5000;0.1359;9.2473;
283.8000;0.1368;9.2497;
284.1000;0.1359;9.2401;
284.4000;0.1359;9.2449;
284.7000;0.1359;9.2425;
285.0000;0.1359;9.2330;
285.3000;0.1368;9.2330;
285.6000;0.1368;9.2258;
285.9000;0.1359;9.2162;
286.2000;0.1368;9.2210;
286.5000;0.1359;9.2186;
286.8000;0.1433;9.2401;
287.1000;0.1376;9.2234;
287.4000;0.1351;9.2186;
287.7000;0.1368;9.2306;
288.0000;0.1368;9.2401;
288.3000;0.1327;9.2353;
288.6000;0.1368;9.2449;
288.9000;0.1359;9.2401;
289.2000;0.1384;9.2521;
289.5000;0.1359;9.2473;
289.8000;0.1376;9.2569;
290.1000;0.1359;9.2569;
290.4000;0.1384;9.2521;
290.7000;0.1392;9.2497;
291.0000;0.1368;9.2497;
291.3000;0.1335;9.2401;
291.6000;0.1351;9.2497;
291.9000;0.1376;9.2569;
292.2000;0.1376;9.2401;
292.5000;0.1368;9.2353;
292.8000;0.1359;9.2353;
293.1000;0.1359;9.2425;
293.4000;0.1368;9.2401;
293.7000;0.1327;9.2330;
294.0000;0.1376;9.2401;
294.3000;0.1368;9.2425;
294.6000;0.1302;9.2234;
294.9000;0.1343;9.2306;
295.2000;0.1359;9.2306;
295.5000;0.1351;9.2377;
295.8000;0.1408;9.2617;
296.1000;0.1359;9.2401;
296.4000;0.1286;9.2210;
296.7000;0.1368;9.2497;
297.0000;0.1376;9.2473;
297.3000;0.1359;9.2449;
297.6000;0.1384;9.2545;
297.9000;0.1368;9.2545;
298.2000;0.1359;9.2497;
298.5000;0.1335;9.2497;
298.8000;0.1262;9.2353;
299.1000;0.1359;9.2545;
299.4000;0.1376;9.2641;
299.7000;0.1359;9.2641;
300.0000;0.1368;9.2593;
300.3000;0.1351;9.2593;
300.6000;0.1384;9.2593;
300.9000;0.1384;9.2593;
301.2000;0.1368;9.2569;
301.5000;0.1384;9.2569;
301.8000;0.1376;9.2617;
302.1000;0.1368;9.2665;
302.4000;0.1351;9.2665;
302.7000;0.1368;9.2569;
303.0000;0.1368;9.2569;
303.3000;0.1368;9.2545;
303.6000;0.1359;9.2521;
303.9000;0.1359;9.2497;
304.2000;0.1384;9.2521;
304.5000;0.1384;9.2737;
304.8000;0.1376;9.2665;
305.1000;0.1392;9.2713;
305.4000;0.1359;9.2689;
305.7000;0.1359;9.2641;
306.0000;0.1376;9.2617;
306.3000;0.1368;9.2521;
306.6000;0.1351;9.2449;
306.9000;0.1425;9.2617;
307.2000;0.1351;9.2473;
307.5000;0.1359;9.2569;
307.8000;0.1351;9.2497;
308.1000;0.1368;9.2497;
308.4000;0.1400;9.2545;
308.7000;0.1343;9.2353;
309.0000;0.1343;9.2330;
309.3000;0.1343;9.2377;
309.6000;0.1368;9.2401;
309.9000;0.1376;9.2425;
310.2000;0.1408;9.2449;
310.5000;0.1384;9.2353;
310.8000;0.1384;9.2401;
311.1000;0.1368;9.2401;
311.4000;0.1359;9.2330;
311.7000;0.1376;9.2377;
312.0000;0.1368;9.2425;
312.3000;0.1351;9.2425;
312.6000;0.1368;9.2497;
312.9000;0.1359;9.2497;
313.2000;0.1376;9.2545;
313.5000;0.1408;9.2617;
313.8000;0.1368;9.2473;
314.1000;0.1359;9.2401;
314.4000;0.1384;9.2353;
314.7000;0.1359;9.2330;
315.0000;0.1368;9.2377;
315.3000;0.1376;9.2425;
315.6000;0.1368;9.2425;
315.9000;0.1319;9.2306;
316.2000;0.1368;9.2401;
316.5000;0.1384;9.2377;
316.8000;0.1359;9.2330;
317.1000;0.1359;9.2258;
317.4000;0.1359;9.2258;
317.7000;0.1359;9.2306;
318.0000;0.1351;9.2306;
318.3000;0.1359;9.2377;
318.6000;0.1376;9.2473;
318.9000;0.1368;9.2449;
319.2000;0.1368;9.2401;
319.5000;0.1368;9.2330;
319.8000;0.1359;9.2306;
320.1000;0.1392;9.2330;
320.4000;0.1359;9.2282;
320.7000;0.1368;9.2353;
321.0000;0.1376;9.2377;
321.3000;0.1351;9.2353;
321.6000;0.1351;9.2401;
321.9000;0.1359;9.2497;
322.2000;0.1368;9.2449;
322.5000;0.1368;9.2521;
322.8000;0.1359;9.2545;
323.1000;0.1368;9.2545;
323.4000;0.1368;9.2617;
323.7000;0.1400;9.2737;
324.0000;0.1384;9.2665;
324.3000;0.1368;9.2641;
324.6000;0.1359;9.2569;
324.9000;0.1359;9.2497;
325.2000;0.1384;9.2545;
325.5000;0.1359;9.2377;
325.8000;0.1376;9.2449;
326.1000;0.1368;9.2473;
326.4000;0.1368;9.2449;
326.7000;0.1368;9.2377;
327.0000;0.1384;9.2425;
327.3000;0.1351;9.2401;
327.6000;0.1359;9.2473;
327.9000;0.1359;9.2401;
328.2000;0.1335;9.2258;
328.5000;0.1359;9.2282;
328.8000;0.1368;9.2353;
329.1000;0.1384;9.2401;
329.4000;0.1376;9.2401;
329.7000;0.1392;9.2401;
330.0000;0.1376;9.2401;
330.3000;0.1343;9.2401;
330.6000;0.1392;9.2593;
330.9000;0.1457;9.2737;
331.2000;0.1392;9.2593;
331.5000;0.1384;9.2617;
331.8000;0.1368;9.2521;
332.1000;0.1433;9.2641;
332.4000;0.1384;9.2497;
332.7000;0.1376;9.2497;
333.0000;0.1368;9.2401;
333.3000;0.1294;9.2306;
333.6000;0.1384;9.2521;
333.9000;0.1368;9.2497;
334.2000;0.1327;9.2353;
334.5000;0.1351;9.2449;
334.8000;0.1359;9.2425;
335.1000;0.1425;9.2665;
335.4000;0.1368;9.2593;
335.7000;0.1359;9.2569;
336.0000;0.1376;9.2497;
336.3000;0.1376;9.2521;
336.6000;0.1441;9.2713;
336.9000;0.1384;9.2545;
337.2000;0.1376;9.2545;
337.5000;0.1376;9.2545;
337.8000;0.1392;9.2569;
338.1000;0.1351;9.2449;
338.4000;0.1343;9.2425;
338.7000;0.1359;9.2473;
339.0000;0.1368;9.2545;
339.3000;0.1359;9.2521;
339.6000;0.1351;9.2617;
339.9000;0.1359;9.2689;
340.2000;0.1368;9.2689;
340.5000;0.1311;9.2593;
340.8000;0.1368;9.2689;
341.1000;0.1384;9.2617;
341.4000;0.1441;9.2809;
341.7000;0.1376;9.2737;
342.0000;0.1343;9.2545;
342.3000;0.1376;9.2665;
342.6000;0.1384;9.2641;
342.9000;0.1392;9.2617;
343.2000;0.1351;9.2425;
343.5000;0.1408;9.2497;
343.8000;0.1359;9.2401;
344.1000;0.1359;9.2449;
344.4000;0.1368;9.2521;
344.7000;0.1368;9.2473;
345.0000;0.1384;9.2521;
345.3000;0.1376;9.2569;
345.6000;0.1376;9.2473;
345.9000;0.1400;9.2521;
346.2000;0.1359;9.2449;
346.5000;0.1433;9.2593;
346.8000;0.1368;9.2521;
347.1000;0.1368;9.2401;
347.4000;0.1359;9.2545;
347.7000;0.1384;9.2737;
348.0000;0.1359;9.2689;
348.3000;0.1368;9.2641;
348.6000;0.1335;9.2593;
348.9000;0.1294;9.2449;
349.2000;0.1368;9.2617;
349.5000;0.1359;9.2593;
349.8000;0.1359;9.2569;
350.1000;0.1376;9.2593;
350.4000;0.1376;9.2665;
350.7000;0.1376;9.2569;
351.0000;0.1384;9.2569;
351.3000;0.1359;9.2449;
351.6000;0.1384;9.2497;
351.9000;0.1392;9.2617;
352.2000;0.1376;9.2809;
352.5000;0.1376;9.2761;
352.8000;0.1384;9.2641;
353.1000;0.1335;9.2497;
353.4000;0.1359;9.2425;
353.7000;0.1408;9.2473;
354.0000;0.1368;9.2449;
354.3000;0.1319;9.2306;
354.6000;0.1343;9.2330;
354.9000;0.1351;9.2401;
355.2000;0.1351;9.2425;
355.5000;0.1376;9.2473;
355.8000;0.1368;9.2377;
356.1000;0.1376;9.2330;
356.4000;0.1368;9.2258;
356.7000;0.1368;9.2282;
357.0000;0.1384;9.2306;
357.3000;0.1327;9.2234;
357.6000;0.1368;9.2353;
357.9000;0.1376;9.2330;
358.2000;0.1359;9.2377;
358.5000;0.1384;9.2425;
358.8000;0.1343;9.2330;
359.1000;0.1400;9.2425;
359.4000;0.1368;9.2401;
359.7000;0.1343;9.2377;
360.0000;0.1351;9.2401;
360.3000;0.1359;9.2449;
360.6000;0.1384;9.2569;
360.9000;0.1368;9.2545;
361.2000;0.1368;9.2569;
361.5000;0.1351;9.2545;
361.8000;0.1343;9.2449;
362.1000;0.1359;9.2473;
362.4000;0.1359;9.2401;
362.7000;0.1359;9.2401;
363.0000;0.1359;9.2473;
363.3000;0.1392;9.2593;
363.6000;0.1343;9.2593;
363.9000;0.1335;9.2545;
364.2000;0.1351;9.2497;
364.5000;0.1368;9.2521;
364.8000;0.1384;9.2569;
365.1000;0.1384;9.2545;
365.4000;0.1368;9.2521;
365.7000;0.1392;9.2665;
366.0000;0.1392;9.2713;
366.3000;0.1319;9.2593;
366.6000;0.1368;9.2737;
366.9000;0.1400;9.2809;
367.2000;0.1368;9.2809;
367.5000;0.1343;9.2761;
367.8000;0.1376;9.2856;
368.1000;0.1368;9.2880;
368.4000;0.1368;9.2832;
368.7000;0.1425;9.3024;
369.0000;0.1368;9.2856;
369.3000;0.1359;9.2880;
369.6000;0.1400;9.2904;
369.9000;0.1384;9.2713;
370.2000;0.1359;9.2641;
370.5000;0.1368;9.2713;
370.8000;0.1392;9.2713;
371.1000;0.1343;9.2521;
371.4000;0.1376;9.2617;
371.7000;0.1376;9.2641;
372.0000;0.1368;9.2641;
372.3000;0.1368;9.2641;
372.6000;0.1359;9.2665;
372.9000;0.1392;9.2785;
373.2000;0.1376;9.2761;
373.5000;0.1343;9.2617;
373.8000;0.1343;9.2569;
374.1000;0.1368;9.2593;
374.4000;0.1368;9.2737;
374.7000;0.1335;9.2689;
375.0000;0.1359;9.2737;
375.3000;0.1351;9.2809;
375.6000;0.1368;9.2809;
375.9000;0.1481;9.2952;
376.2000;0.1351;9.2737;
376.5000;0.1368;9.2737;
376.8000;0.1327;9.2569;
377.1000;0.1368;9.2713;
377.4000;0.1376;9.2713;
377.7000;0.1343;9.2593;
378.0000;0.1359;9.2593;
378.3000;0.1368;9.2617;
378.6000;0.1351;9.2593;
378.9000;0.1359;9.2593;
379.2000;0.1343;9.2521;
379.5000;0.1359;9.2593;
379.8000;0.1376;9.2641;
380.1000;0.1376;9.2641;
380.4000;0.1359;9.2641;
380.7000;0.1376;9.2665;
381.0000;0.1376;9.2689;
381.3000;0.1335;9.2569;
381.6000;0.1368;9.2641;
381.9000;0.1368;9.2785;
382.2000;0.1368;9.2809;
382.5000;0.1368;9.2785;
382.8000;0.1368;9.2713;
383.1000;0.1368;9.2737;
383.4000;0.1368;9.2689;
383.7000;0.1359;9.2832;
384.0000;0.1359;9.2904;
384.3000;0.1262;9.2593;
384.6000;0.1311;9.2665;
384.9000;0.1359;9.2785;
385.2000;0.1343;9.2761;
385.5000;0.1368;9.2713;
385.8000;0.1376;9.2761;
386.1000;0.1368;9.2713;
386.4000;0.1400;9.2689;
386.7000;0.1359;9.2713;
387.0000;0.1351;9.2689;
387.3000;0.1376;9.2713;
387.6000;0.1335;9.2545;
387.9000;0.1294;9.2473;
388.2000;0.1351;9.2641;
388.5000;0.1376;9.2665;
388.8000;0.1368;9.2593;
389.1000;0.1376;9.2665;
389.4000;0.1416;9.2761;
389.7000;0.1376;9.2617;
390.0000;0.1376;9.2641;
390.3000;0.1359;9.2665;
390.6000;0.1359;9.2713;
390.9000;0.1359;9.2665;
391.2000;0.1376;9.2641;
391.5000;0.1368;9.2617;
391.8000;0.1400;9.2713;
392.1000;0.1376;9.2713;
392.4000;0.1351;9.2665;
392.7000;0.1359;9.2689;
393.0000;0.1368;9.2713;
393.3000;0.1416;9.2785;
393.6000;0.1343;9.2569;
393.9000;0.1376;9.2665;
394.2000;0.1376;9.2617;
394.5000;0.1359;9.2641;
394.8000;0.1368;9.2737;
395.1000;0.1368;9.2809;
395.4000;0.1335;9.2689;
395.7000;0.1351;9.2713;
396.0000;0.1368;9.2689;
396.3000;0.1359;9.2665;
396.6000;0.1351;9.2617;
396.9000;0.1343;9.2641;
397.2000;0.1343;9.2713;
397.5000;0.1376;9.2856;
397.8000;0.1384;9.2832;
398.1000;0.1368;9.2809;
398.4000;0.1384;9.2928;
398.7000;0.1351;9.2832;
399.0000;0.1351;9.2809;
399.3000;0.1392;9.2832;
399.6000;0.1359;9.2617;
399.9000;0.1368;9.2665;
400.2000;0.1359;9.2761;
400.5000;0.1351;9.2832;
400.8000;0.1359;9.2856;
401.1000;0.1359;9.2832;
401.4000;0.1368;9.2832;
401.7000;0.1368;9.2761;
402.0000;0.1359;9.2737;
402.3000;0.1359;9.2737;
402.6000;0.1425;9.2880;
402.9000;0.1343;9.2593;
403.2000;0.1359;9.2641;
403.5000;0.1343;9.2641;
403.8000;0.1351;9.2593;
404.1000;0.1351;9.2569;
404.4000;0.1376;9.2641;
404.7000;0.1359;9.2689;
405.0000;0.1359;9.2689;
405.3000;0.1481;9.2904;
405.6000;0.1376;9.2713;
405.9000;0.1359;9.2689;
406.2000;0.1384;9.2809;
406.5000;0.1384;9.2832;
406.8000;0.1359;9.2737;
407.1000;0.1376;9.2737;
407.4000;0.1343;9.2689;
407.7000;0.1376;9.2689;
408.0000;0.1425;9.2761;
408.3000;0.1384;9.2665;
408.6000;0.1384;9.2713;
408.9000;0.1368;9.2689;
409.2000;0.1368;9.2641;
409.5000;0.1351;9.2569;
409.8000;0.1368;9.2689;
410.1000;0.1376;9.2785;
410.4000;0.1351;9.2713;
410.7000;0.1359;9.2880;
411.0000;0.1359;9.2856;
411.3000;0.1368;9.2904;
411.6000;0.1359;9.2904;
411.9000;0.1351;9.2785;
412.2000;0.1327;9.2665;
412.5000;0.1376;9.2785;
412.8000;0.1400;9.2761;
413.1000;0.1368;9.2689;
413.4000;0.1368;9.2569;
413.7000;0.1400;9.2641;
414.0000;0.1359;9.2593;
414.3000;0.1368;9.2617;
414.6000;0.1376;9.2641;
414.9000;0.1368;9.2737;
415.2000;0.1376;9.2713;
415.5000;0.1376;9.2761;
415.8000;0.1376;9.2617;
416.1000;0.1368;9.2545;
416.4000;0.1481;9.2856;
416.7000;0.1319;9.2449;
417.0000;0.1368;9.2689;
417.3000;0.1392;9.2737;
417.6000;0.1376;9.2761;
417.9000;0.1384;9.2785;
418.2000;0.1368;9.2761;
418.5000;0.1359;9.2689;
418.8000;0.1384;9.2713;
419.1000;0.1392;9.2761;
419.4000;0.1368;9.2665;
419.7000;0.1359;9.2713;
420.0000;0.1359;9.2689;
420.3000;0.1384;9.2713;
420.6000;0.1368;9.2665;
420.9000;0.1400;9.2737;
421.2000;0.1376;9.2665;
421.5000;0.1376;9.2737;
421.8000;0.1384;9.2809;
422.1000;0.1351;9.2832;
422.4000;0.1351;9.2785;
422.7000;0.1392;9.2880;
423.0000;0.1384;9.2856;
423.3000;0.1392;9.2832;
423.6000;0.1359;9.2761;
423.9000;0.1359;9.2785;
424.2000;0.1343;9.2785;
424.5000;0.1359;9.2809;
424.8000;0.1376;9.2785;
425.1000;0.1351;9.2761;
425.4000;0.1368;9.2737;
425.7000;0.1408;9.2880;
426.0000;0.1400;9.2832;
426.3000;0.1343;9.2737;
426.6000;0.1376;9.2785;
426.9000;0.1408;9.2832;
427.2000;0.1384;9.2809;
427.5000;0.1376;9.2665;
427.8000;0.1343;9.2617;
428.1000;0.1368;9.2737;
428.4000;0.1335;9.2665;
428.7000;0.1408;9.2856;
429.0000;0.1368;9.2737;
429.3000;0.1408;9.2880;
429.6000;0.1335;9.2809;
429.9000;0.1384;9.2880;
430.2000;0.1359;9.2880;
430.5000;0.1441;9.3072;
430.8000;0.1343;9.2856;
431.1000;0.1351;9.2856;
431.4000;0.1335;9.2785;
431.7000;0.1376;9.2832;
432.0000;0.1400;9.2928;
432.3000;0.1384;9.2761;
432.6000;0.1343;9.2593;
432.9000;0.1368;9.2569;
433.2000;0.1359;9.2569;
433.5000;0.1359;9.2545;
433.8000;0.1368;9.2569;
434.1000;0.1359;9.2665;
434.4000;0.1351;9.2593;
434.7000;0.1457;9.2880;
435.0000;0.1384;9.2737;
435.3000;0.1343;9.2617;
435.6000;0.1392;9.2641;
435.9000;0.1368;9.2593;
436.2000;0.1351;9.2569;
436.5000;0.1376;9.2641;
436.8000;0.1376;9.2569;
437.1000;0.1368;9.2521;
437.4000;0.1408;9.2665;
437.7000;0.1384;9.2593;
438.0000;0.1376;9.2689;
438.3000;0.1376;9.2737;
438.6000;0.1400;9.2856;
438.9000;0.1368;9.2785;
439.2000;0.1359;9.2689;
439.5000;0.1368;9.2761;
439.8000;0.1368;9.2809;
440.1000;0.1376;9.2809;
440.4000;0.1335;9.2713;
440.7000;0.1359;9.2689;
441.0000;0.1368;9.2713;
441.3000;0.1359;9.2737;
441.6000;0.1400;9.2976;
441.9000;0.1376;9.2880;
442.2000;0.1384;9.2904;
442.5000;0.1368;9.2880;
442.8000;0.1384;9.2880;
443.1000;0.1359;9.2665;
443.4000;0.1368;9.2617;
443.7000;0.1351;9.2521;
444.0000;0.1343;9.2401;
444.3000;0.1384;9.2521;
444.6000;0.1359;9.2569;
444.9000;0.1335;9.2617;
445.2000;0.1376;9.2641;
445.5000;0.1351;9.2665;
445.8000;0.1359;9.2713;
446.1000;0.1376;9.2617;
446.4000;0.1359;9.2593;
446.7000;0.1376;9.2569;
447.0000;0.1392;9.2593;
447.3000;0.1376;9.2617;
447.6000;0.1384;9.2617;
447.9000;0.1384;9.2593;
448.2000;0.1425;9.2713;
448.5000;0.1359;9.2569;
448.8000;0.1368;9.2569;
449.1000;0.1335;9.2521;
449.4000;0.1392;9.2785;
449.7000;0.1359;9.2761;
450.0000;0.1376;9.2904;
450.3000;0.1351;9.2880;
450.6000;0.1343;9.2713;
450.9000;0.1368;9.2761;
451.2000;0.1343;9.2593;
451.5000;0.1359;9.2617;
451.8000;0.1368;9.2689;
452.1000;0.1351;9.2665;
452.4000;0.1368;9.2617;
452.7000;0.1351;9.2617;
453.0000;0.1368;9.2641;
453.3000;0.1335;9.2641;
453.6000;0.1351;9.2665;
453.9000;0.1327;9.2545;
454.2000;0.1351;9.2617;
454.5000;0.1368;9.2593;
454.8000;0.1376;9.2569;
455.1000;0.1368;9.2545;
455.4000;0.1392;9.2737;
455.7000;0.1376;9.2785;
456.0000;0.1425;9.2928;
456.3000;0.1368;9.2952;
456.6000;0.1368;9.2952;
456.9000;0.1368;9.2976;
457.2000;0.1384;9.3024;
457.5000;0.1343;9.2880;
457.8000;0.1376;9.2809;
458.1000;0.1481;9.3120;
458.4000;0.1368;9.2809;
458.7000;0.1327;9.2761;
459.0000;0.1359;9.2737;
459.3000;0.1368;9.2785;
459.6000;0.1359;9.2665;
459.9000;0.1368;9.2713;
460.2000;0.1425;9.2809;
460.5000;0.1359;9.2617;
460.8000;0.1368;9.2641;
461.1000;0.1359;9.2617;
461.4000;0.1441;9.2832;
461.7000;0.1343;9.2497;
462.0000;0.1368;9.2593;
462.3000;0.1384;9.2689;
462.6000;0.1343;9.2665;
462.9000;0.1359;9.2856;
463.2000;0.1368;9.2880;
463.5000;0.1441;9.3048;
463.8000;0.1368;9.2809;
464.1000;0.1351;9.2785;
464.4000;0.1368;9.2809;
464.7000;0.1335;9.2713;
465.0000;0.1368;9.2809;
465.3000;0.1368;9.2832;
465.6000;0.1351;9.2689;
465.9000;0.1368;9.2713;
466.2000;0.1376;9.2665;
466.5000;0.1376;9.2521;
466.8000;0.1449;9.2689;
467.1000;0.1392;9.2545;
467.4000;0.1368;9.2521;
467.7000;0.1351;9.2425;
468.0000;0.1384;9.2569;
468.3000;0.1368;9.2593;
468.6000;0.1351;9.2497;
468.9000;0.1376;9.2521;
469.2000;0.1368;9.2497;
469.5000;0.1351;9.2377;
469.8000;0.1335;9.2306;
470.1000;0.1359;9.2401;
470.4000;0.1376;9.2425;
470.7000;0.1359;9.2401;
471.0000;0.1368;9.2449;
471.3000;0.1311;9.2401;
471.6000;0.1368;9.2497;
471.9000;0.1376;9.2473;
472.2000;0.1376;9.2521;
472.5000;0.1384;9.2545;
472.8000;0.1351;9.2569;
473.1000;0.1359;9.2593;
473.4000;0.1368;9.2713;
473.7000;0.1384;9.2809;
474.0000;0.1368;9.2761;
474.3000;0.1376;9.2689;
474.6000;0.1343;9.2569;
474.9000;0.1359;9.2521;
475.2000;0.1351;9.2641;
475.5000;0.1368;9.2665;
475.8000;0.1384;9.2569;
476.1000;0.1359;9.2473;
476.4000;0.1384;9.2545;
476.7000;0.1441;9.2665;
477.0000;0.1408;9.2593;
477.3000;0.1384;9.2569;
477.6000;0.1416;9.2689;
477.9000;0.1359;9.2569;
478.2000;0.1368;9.2641;
478.5000;0.1254;9.2353;
478.8000;0.1384;9.2617;
479.1000;0.1368;9.2641;
479.4000;0.1335;9.2617;
479.7000;0.1351;9.2665;
480.0000;0.1408;9.2880;
480.3000;0.1392;9.2809;
480.6000;0.1408;9.2832;
480.9000;0.1351;9.2617;
481.2000;0.1351;9.2689;
481.5000;0.1335;9.2569;
481.8000;0.1343;9.2665;
482.1000;0.1376;9.2689;
482.4000;0.1376;9.2809;
482.7000;0.1351;9.2737;
483.0000;0.1359;9.2761;
483.3000;0.1359;9.2713;
483.6000;0.1359;9.2713;
483.9000;0.1368;9.2713;
484.2000;0.1408;9.2785;
484.5000;0.1343;9.2569;
484.8000;0.1392;9.2665;
485.1000;0.1359;9.2569;
485.4000;0.1433;9.2785;
485.7000;0.1359;9.2617;
486.0000;0.1351;9.2545;
486.3000;0.1319;9.2497;
486.6000;0.1335;9.2521;
486.9000;0.1351;9.2569;
487.2000;0.1351;9.2569;
487.5000;0.1368;9.2545;
487.8000;0.1376;9.2569;
488.1000;0.1359;9.2593;
488.4000;0.1376;9.2641;
488.7000;0.1327;9.2593;
489.0000;0.1359;9.2737;
489.3000;0.1376;9.2593;
489.6000;0.1441;9.2785;
489.9000;0.1335;9.2545;
490.2000;0.1351;9.2593;
490.5000;0.1376;9.2545;
490.8000;0.1343;9.2425;
491.1000;0.1359;9.2377;
491.4000;0.1359;9.2473;
491.7000;0.1392;9.2521;
492.0000;0.1359;9.2425;
492.3000;0.1368;9.2425;
492.6000;0.1368;9.2449;
492.9000;0.1335;9.2425;
493.2000;0.1376;9.2449;
493.5000;0.1368;9.2449;
493.8000;0.1392;9.2497;
494.1000;0.1384;9.2545;
494.4000;0.1343;9.2377;
494.7000;0.1351;9.2306;
495.0000;0.1359;9.2282;
495.3000;0.1416;9.2425;
495.6000;0.1376;9.2425;
495.9000;0.1343;9.2449;
496.2000;0.1359;9.2473;
496.5000;0.1359;9.2425;
496.8000;0.1359;9.2449;
497.1000;0.1343;9.2425;
497.4000;0.1376;9.2473;
497.7000;0.1311;9.2306;
498.0000;0.1335;9.2282;
498.3000;0.1351;9.2234;
498.6000;0.1351;9.2282;
498.9000;0.1359;9.2282;
499.2000;0.1359;9.2282;
499.5000;0.1319;9.2186;
499.8000;0.1368;9.2258;
500.1000;0.1384;9.2377;
500.4000;0.1335;9.2282;
500.7000;0.1359;9.2306;
501.0000;0.1368;9.2449;
501.3000;0.1311;9.2306;
501.6000;0.1359;9.2377;
501.9000;0.1368;9.2425;
502.2000;0.1351;9.2353;
502.5000;0.1368;9.2330;
502.8000;0.1245;9.2066;
503.1000;0.1408;9.2401;
503.4000;0.1392;9.2353;
503.7000;0.1343;9.2282;
504.0000;0.1368;9.2306;
504.3000;0.1392;9.2306;
504.6000;0.1359;9.2186;
504.9000;0.1351;9.2234;
505.2000;0.1359;9.2234;
505.5000;0.1351;9.2234;
505.8000;0.1384;9.2282;
506.1000;0.1376;9.2258;
506.4000;0.1343;9.2186;
506.7000;0.1392;9.2138;
507.0000;0.1368;9.1946;
507.3000;0.1359;9.1898;
507.6000;0.1368;9.1946;
507.9000;0.1376;9.1946;
508.2000;0.1376;9.1898;
508.5000;0.1359;9.1994;
508.8000;0.1319;9.1946;
509.1000;0.1359;9.2114;
509.4000;0.1368;9.2066;
509.7000;0.1384;9.2066;
510.0000;0.1376;9.2186;
510.3000;0.1368;9.2282;
510.6000;0.1400;9.2377;
510.9000;0.1335;9.2138;
511.2000;0.1368;9.2234;
511.5000;0.1449;9.2569;
511.8000;0.1359;9.2306;
512.1000;0.1376;9.2401;
512.4000;0.1368;9.2306;
512.7000;0.1368;9.2282;
513.0000;0.1368;9.2234;
513.3000;0.1376;9.2306;
513.6000;0.1359;9.2234;
513.9000;0.1376;9.2282;
514.2000;0.1343;9.2258;
514.5000;0.1368;9.2330;
514.8000;0.1376;9.2306;
515.1000;0.1368;9.2330;
515.4000;0.1368;9.2425;
515.7000;0.1376;9.2353;
516.0000;0.1368;9.2425;
516.3000;0.1376;9.2258;
516.6000;0.1343;9.2186;
516.9000;0.1359;9.2234;
517.2000;0.1376;9.2114;
517.5000;0.1392;9.2162;
517.8000;0.1368;9.2114;
518.1000;0.1302;9.1970;
518.4000;0.1384;9.2234;
518.7000;0.1376;9.2138;
519.0000;0.1368;9.2042;
519.3000;0.1368;9.1970;
519.6000;0.1359;9.1994;
519.9000;0.1368;9.1994;
520.2000;0.1327;9.1946;
520.5000;0.1425;9.2210;
520.8000;0.1359;9.2042;
521.1000;0.1319;9.2114;
521.4000;0.1343;9.2162;
521.7000;0.1368;9.2162;
522.0000;0.1327;9.2090;
522.3000;0.1416;9.2258;
522.6000;0.1343;9.2162;
522.9000;0.1351;9.2186;
523.2000;0.1376;9.2258;
523.5000;0.1359;9.2186;
523.8000;0.1376;9.2162;
524.1000;0.1327;9.2138;
524.4000;0.1449;9.2449;
524.7000;0.1351;9.2138;
525.0000;0.1376;9.2090;
525.3000;0.1359;9.2042;
525.6000;0.1376;9.2042;
525.9000;0.1319;9.1922;
526.2000;0.1359;9.2066;
526.5000;0.1359;9.2066;
526.8000;0.1343;9.2042;
527.1000;0.1368;9.2042;
527.4000;0.1376;9.2066;
527.7000;0.1359;9.1970;
528.0000;0.1343;9.1922;
528.3000;0.1368;9.2018;
528.6000;0.1368;9.1946;
528.9000;0.1368;9.1898;
529.2000;0.1359;9.1970;
529.5000;0.1359;9.2018;
529.8000;0.1359;9.2042;
530.1000;0.1376;9.1946;
530.4000;0.1376;9.1970;
530.7000;0.1351;9.1898;
531.0000;0.1376;9.1874;
531.3000;0.1368;9.1970;
531.6000;0.1384;9.1994;
531.9000;0.1384;9.2138;
532.2000;0.1376;9.2018;
532.5000;0.1384;9.2018;
532.8000;0.1384;9.2066;
533.1000;0.1368;9.2114;
533.4000;0.1392;9.2162;
533.7000;0.1384;9.2042;
534.0000;0.1368;9.2042;
534.3000;0.1359;9.1994;
534.6000;0.1400;9.2210;
534.9000;0.1368;9.2162;
535.2000;0.1359;9.2186;
535.5000;0.1359;9.2114;
535.8000;0.1351;9.2114;
536.1000;0.1392;9.2066;
536.4000;0.1376;9.2042;
536.7000;0.1368;9.2042;
537.0000;0.1376;9.2042;
537.3000;0.1351;9.1922;
537.6000;0.1359;9.1994;
537.9000;0.1368;9.2042;
538.2000;0.1376;9.2042;
538.5000;0.1392;9.2114;
538.8000;0.1384;9.2138;
539.1000;0.1359;9.2114;
539.4000;0.1368;9.1994;
539.7000;0.1351;9.1994;
540.0000;0.1359;9.2066;
540.3000;0.1327;9.1922;
540.6000;0.1384;9.2066;
540.9000;0.1351;9.2042;
541.2000;0.1384;9.2066;
541.5000;0.1343;9.1994;
541.8000;0.1359;9.2042;
542.1000;0.1319;9.1970;
542.4000;0.1351;9.2042;
542.7000;0.1376;9.1994;
543.0000;0.1449;9.2138;
543.3000;0.1368;9.1922;
543.6000;0.1368;9.1922;
543.9000;0.1376;9.1922;
544.2000;0.1351;9.1827;
544.5000;0.1359;9.1874;
544.8000;0.1359;9.1946;
545.1000;0.1441;9.2162;
545.4000;0.1376;9.2066;
545.7000;0.1368;9.2018;
546.0000;0.1359;9.1946;
546.3000;0.1351;9.1898;
546.6000;0.1368;9.1946;
546.9000;0.1351;9.1922;
547.2000;0.1351;9.2018;
547.5000;0.1359;9.2138;
547.8000;0.1376;9.2066;
548.1000;0.1368;9.1922;
548.4000;0.1368;9.1946;
548.7000;0.1368;9.1970;
549.0000;0.1368;9.1946;
549.3000;0.1359;9.1898;
549.6000;0.1368;9.1874;
549.9000;0.1376;9.1898;
550.2000;0.1376;9.1946;
550.5000;0.1351;9.1851;
550.8000;0.1359;9.1994;
551.1000;0.1359;9.2090;
551.4000;0.1408;9.2186;
551.7000;0.1376;9.2090;
552.0000;0.1351;9.2066;
552.3000;0.1359;9.2066;
552.6000;0.1359;9.2090;
552.9000;0.1351;9.2114;
553.2000;0.1351;9.2066;
553.5000;0.1351;9.2066;
553.8000;0.1368;9.2066;
554.1000;0.1376;9.2210;
554.4000;0.1351;9.2138;
554.7000;0.1392;9.2234;
555.0000;0.1368;9.2162;
555.3000;0.1376;9.2234;
555.6000;0.1400;9.2282;
555.9000;0.1368;9.2114;
556.2000;0.1351;9.1994;
556.5000;0.1368;9.2018;
556.8000;0.1359;9.1922;
557.1000;0.1392;9.2042;
557.4000;0.1368;9.2042;
557.7000;0.1278;9.1851;
558.0000;0.1359;9.1922;
558.3000;0.1376;9.1922;
558.6000;0.1319;9.1803;
558.9000;0.1376;9.1922;
559.2000;0.1368;9.1946;
559.5000;0.1376;9.1851;
559.8000;0.1351;9.1851;
560.1000;0.1335;9.1827;
560.4000;0.1343;9.1874;
560.7000;0.1368;9.2018;
561.0000;0.1359;9.2090;
561.3000;0.1351;9.1970;
561.6000;0.1368;9.2018;
561.9000;0.1359;9.2066;
562.2000;0.1343;9.2066;
562.5000;0.1368;9.2066;
562.8000;0.1376;9.2114;
563.1000;0.1376;9.2066;
563.4000;0.1343;9.1946;
563.7000;0.1359;9.1994;
564.0000;0.1392;9.2042;
564.3000;0.1359;9.1970;
564.6000;0.1351;9.1898;
564.9000;0.1335;9.1827;
565.2000;0.1319;9.1731;
565.5000;0.1343;9.1779;
565.8000;0.1416;9.1970;
566.1000;0.1343;9.1898;
566.4000;0.1343;9.1851;
566.7000;0.1473;9.2162;
567.0000;0.1376;9.1922;
567.3000;0.1408;9.2066;
567.6000;0.1335;9.1779;
567.9000;0.1392;9.1922;
568.2000;0.1368;9.1874;
568.5000;0.1335;9.1898;
568.8000;0.1351;9.1970;
569.1000;0.1327;9.1851;
569.4000;0.1368;9.1898;
569.7000;0.1368;9.1922;
570.0000;0.1359;9.1922;
570.3000;0.1351;9.1898;
570.6000;0.1359;9.1922;
570.9000;0.1384;9.1946;
571.2000;0.1351;9.1827;
571.5000;0.1376;9.1898;
571.8000;0.1359;9.1851;
572.1000;0.1351;9.1779;
572.4000;0.1368;9.1779;
572.7000;0.1359;9.1731;
573.0000;0.1368;9.1635;
573.3000;0.1376;9.1611;
573.6000;0.1351;9.1563;
573.9000;0.1359;9.1659;
574.2000;0.1335;9.1611;
574.5000;0.1368;9.1755;
574.8000;0.1368;9.1707;
575.1000;0.1376;9.1635;
575.4000;0.1400;9.1731;
575.7000;0.1368;9.1683;
576.0000;0.1368;9.1803;
576.3000;0.1359;9.1827;
576.6000;0.1335;9.1779;
576.9000;0.1359;9.1898;
577.2000;0.1335;9.1827;
577.5000;0.1376;9.1874;
577.8000;0.1351;9.1946;
578.1000;0.1343;9.1898;
578.4000;0.1376;9.1994;
578.7000;0.1343;9.2018;
579.0000;0.1376;9.2042;
579.3000;0.1359;9.1946;
579.6000;0.1392;9.1874;
579.9000;0.1359;9.1827;
580.2000;0.1359;9.1874;
580.5000;0.1368;9.1946;
580.8000;0.1368;9.1946;
581.1000;0.1359;9.1946;
581.4000;0.1376;9.2018;
581.7000;0.1359;9.2090;
582.0000;0.1376;9.2138;
582.3000;0.1368;9.2162;
582.6000;0.1376;9.2114;
582.9000;0.1351;9.2042;
583.2000;0.1376;9.2114;
583.5000;0.1319;9.1946;
583.8000;0.1368;9.2018;
584.1000;0.1376;9.2042;
584.4000;0.1351;9.2042;
584.7000;0.1351;9.1922;
585.0000;0.1359;9.1946;
585.3000;0.1359;9.1874;
585.6000;0.1351;9.1851;
585.9000;0.1392;9.1851;
586.2000;0.1368;9.1874;
586.5000;0.1343;9.1827;
586.8000;0.1392;9.1970;
587.1000;0.1359;9.1970;
587.4000;0.1368;9.1898;
587.7000;0.1359;9.1874;
588.0000;0.1351;9.1874;
588.3000;0.1343;9.1898;
588.6000;0.1311;9.1827;
588.9000;0.1416;9.2018;
589.2000;0.1343;9.1874;
589.5000;0.1351;9.1898;
589.8000;0.1327;9.1851;
590.1000;0.1351;9.1874;
590.4000;0.1343;9.1851;
590.7000;0.1392;9.1994;
591.0000;0.1368;9.1851;
591.3000;0.1368;9.1898;
591.6000;0.1302;9.1731;
591.9000;0.1262;9.1635;
592.2000;0.1376;9.1970;
592.5000;0.1392;9.1946;
592.8000;0.1351;9.1803;
593.1000;0.1368;9.1874;
593.4000;0.1359;9.1970;
593.7000;0.1376;9.2018;
594.0000;0.1359;9.1946;
594.3000;0.1384;9.1970;
594.6000;0.1376;9.1970;
594.9000;0.1400;9.1970;
595.2000;0.1368;9.2018;
595.5000;0.1376;9.1970;
595.8000;0.1376;9.1970;
596.1000;0.1400;9.1994;
596.4000;0.1327;9.1755;
596.7000;0.1359;9.1779;
597.0000;0.1368;9.1827;
597.3000;0.1368;9.1779;
597.6000;0.1302;9.1659;
597.9000;0.1384;9.1874;
598.2000;0.1335;9.1755;
598.5000;0.1376;9.1851;
598.8000;0.1376;9.1874;
599.1000;0.1359;9.1874;
599.4000;0.1359;9.1851;
599.7000;0.1351;9.1683;
600.0000;0.1335;9.1539;
600.3000;0.1335;9.1515;
600.6000;0.1343;9.1563;
600.9000;0.1376;9.1587;
601.2000;0.1311;9.1491;
601.5000;0.1327;9.1515;
601.8000;0.1319;9.1419;
602.1000;0.1319;9.1395;
602.4000;0.1286;9.1252;
602.7000;0.1311;9.1228;
603.0000;0.1286;9.1084;
603.3000;0.1311;9.1132;
603.6000;0.1262;9.1108;
603.9000;0.1286;9.1108;
604.2000;0.1294;9.1060;
604.5000;0.1270;9.0892;
604.8000;0.1302;9.0916;
605.1000;0.1262;9.0821;
605.4000;0.1270;9.0797;
605.7000;0.1286;9.0845;
606.0000;0.1262;9.0725;
606.3000;0.1254;9.0677;
606.6000;0.1237;9.0605;
606.9000;0.1221;9.0653;
607.2000;0.1245;9.0725;
607.5000;0.1229;9.0581;
607.8000;0.1262;9.0629;
608.1000;0.1229;9.0413;
608.4000;0.1245;9.0413;
608.7000;0.1197;9.0318;
609.0000;0.1237;9.0366;
609.3000;0.1237;9.0318;
609.6000;0.1245;9.0509;
609.9000;0.1237;9.0557;
610.2000;0.1221;9.0533;
610.5000;0.1237;9.0653;
610.8000;0.1205;9.0557;
611.1000;0.1237;9.0653;
611.4000;0.1245;9.0653;
611.7000;0.1180;9.0461;
612.0000;0.1197;9.0437;
612.3000;0.1188;9.0366;
612.6000;0.1205;9.0390;
612.9000;0.1278;9.0509;
613.2000;0.1245;9.0557;
613.5000;0.1221;9.0533;
613.8000;0.1229;9.0461;
614.1000;0.1245;9.0437;
614.4000;0.1197;9.0270;
614.7000;0.1156;9.0174;
615.0000;0.1229;9.0294;
615.3000;0.1180;9.0198;
615.6000;0.1213;9.0222;
615.9000;0.1229;9.0270;
616.2000;0.1221;9.0294;
616.5000;0.1213;9.0270;
616.8000;0.1188;9.0246;
617.1000;0.1205;9.0222;
617.4000;0.1213;9.0390;
617.7000;0.1197;9.0342;
618.0000;0.1172;9.0270;
618.3000;0.1205;9.0390;
618.6000;0.1188;9.0461;
618.9000;0.1221;9.0605;
619.2000;0.1197;9.0509;
619.5000;0.1197;9.0533;
619.8000;0.1140;9.0342;
620.1000;0.1197;9.0390;
620.4000;0.1180;9.0413;
620.7000;0.1197;9.0533;
621.0000;0.1172;9.0461;
621.3000;0.1172;9.0437;
621.6000;0.1156;9.0366;
621.9000;0.1148;9.0246;
622.2000;0.1172;9.0294;
622.5000;0.1180;9.0318;
622.8000;0.1164;9.0342;
623.1000;0.1164;9.0318;
623.4000;0.1156;9.0294;
623.7000;0.1148;9.0342;
624.0000;0.1205;9.0461;
624.3000;0.1180;9.0390;
624.6000;0.1156;9.0294;
624.9000;0.1188;9.0437;
625.2000;0.1188;9.0413;
625.5000;0.1172;9.0461;
625.8000;0.1172;9.0485;
626.1000;0.1148;9.0437;
626.4000;0.1156;9.0509;
626.7000;0.1156;9.0461;
627.0000;0.1172;9.0437;
627.3000;0.1164;9.0294;
627.6000;0.1148;9.0270;
627.9000;0.1180;9.0270;
628.2000;0.1140;9.0126;
628.5000;0.1180;9.0198;
628.8000;0.1205;9.0270;
629.1000;0.1172;9.0126;
629.4000;0.1180;9.0126;
629.7000;0.1156;9.0150;
630.0000;0.1172;9.0246;
630.3000;0.1172;9.0294;
630.6000;0.1188;9.0390;
630.9000;0.1156;9.0342;
631.2000;0.1156;9.0342;
631.5000;0.1164;9.0342;
631.8000;0.1156;9.0342;
632.1000;0.1148;9.0342;
632.4000;0.1164;9.0342;
632.7000;0.1164;9.0390;
633.0000;0.1140;9.0318;
633.3000;0.1123;9.0198;
633.6000;0.1140;9.0174;
633.9000;0.1148;9.0126;
634.2000;0.1140;9.0030;
634.5000;0.1148;8.9982;
634.8000;0.1148;9.0006;
635.1000;0.1164;9.0054;
635.4000;0.1156;9.0030;
635.7000;0.1140;9.0054;
636.0000;0.1156;9.0102;
636.3000;0.1172;9.0198;
636.6000;0.1148;9.0222;
636.9000;0.1180;9.0366;
637.2000;0.1131;9.0198;
637.5000;0.1140;9.0294;
637.8000;0.1140;9.0294;
638.1000;0.1205;9.0366;
638.4000;0.1148;9.0174;
638.7000;0.1156;9.0222;
639.0000;0.1058;8.9982;
639.3000;0.1164;9.0222;
639.6000;0.1164;9.0246;
639.9000;0.1164;9.0270;
640.2000;0.1172;9.0198;
640.5000;0.1156;9.0102;
640.8000;0.1164;9.0126;
641.1000;0.1131;9.0078;
641.4000;0.1131;9.0078;
641.7000;0.1156;9.0270;
642.0000;0.1164;9.0294;
642.3000;0.1131;9.0270;
642.6000;0.1131;9.0318;
642.9000;0.1140;9.0366;
643.2000;0.1140;9.0342;
643.5000;0.1123;9.0294;
643.8000;0.1140;9.0222;
644.1000;0.1123;9.0222;
644.4000;0.1107;9.0174;
644.7000;0.1140;9.0270;
645.0000;0.1140;9.0294;
645.3000;0.1131;9.0294;
645.6000;0.1131;9.0270;
645.9000;0.1123;9.0246;
646.2000;0.1148;9.0222;
646.5000;0.1131;9.0174;
646.8000;0.1131;9.0102;
647.1000;0.1148;9.0126;
647.4000;0.1131;9.0030;
647.7000;0.1123;8.9863;
648.0000;0.1140;8.9934;
648.3000;0.1148;8.9982;
648.6000;0.1148;9.0006;
648.9000;0.1131;8.9887;
649.2000;0.1148;8.9863;
649.5000;0.1140;8.9887;
649.8000;0.1148;8.9887;
650.1000;0.1140;8.9911;
650.4000;0.1131;8.9911;
650.7000;0.1148;8.9982;
651.0000;0.1148;8.9934;
651.3000;0.1140;9.0030;
651.6000;0.1123;8.9911;
651.9000;0.1156;8.9958;
652.2000;0.1156;8.9982;
652.5000;0.1156;9.0030;
652.8000;0.1140;8.9958;
653.1000;0.1156;9.0078;
653.4000;0.1148;9.0102;
653.7000;0.1156;9.0126;
654.0000;0.1148;9.0030;
654.3000;0.1131;9.0006;
654.6000;0.1148;8.9958;
654.9000;0.1131;8.9887;
655.2000;0.1115;8.9791;
655.5000;0.1131;8.9743;
655.8000;0.1156;8.9934;
656.1000;0.1131;8.9934;
656.4000;0.1099;8.9839;
656.7000;0.1107;8.9863;
657.0000;0.1205;8.9982;
657.3000;0.1148;8.9815;
657.6000;0.1123;8.9719;
657.9000;0.1140;8.9791;
658.2000;0.1115;8.9671;
658.5000;0.1099;8.9695;
658.8000;0.1123;8.9767;
659.1000;0.1131;8.9791;
659.4000;0.1123;8.9767;
659.7000;0.1148;8.9863;
660.0000;0.1148;8.9887;
660.3000;0.1074;8.9767;
660.6000;0.1131;8.9934;
660.9000;0.1115;8.9958;
661.2000;0.1221;9.0198;
661.5000;0.1107;8.9982;
661.8000;0.1099;9.0030;
662.1000;0.1115;9.0006;
662.4000;0.1115;8.9982;
662.7000;0.1107;8.9934;
663.0000;0.1115;8.9982;
663.3000;0.1140;9.0126;
663.6000;0.1148;9.0054;
663.9000;0.1115;8.9934;
664.2000;0.1123;8.9982;
664.5000;0.1131;9.0030;
664.8000;0.1148;9.0054;
665.1000;0.1123;8.9934;
665.4000;0.1066;8.9815;
665.7000;0.1188;9.0102;
666.0000;0.1123;8.9887;
666.3000;0.1131;8.9839;
666.6000;0.1083;8.9647;
666.9000;0.1050;8.9575;
667.2000;0.1140;8.9815;
667.5000;0.1123;8.9839;
667.8000;0.1107;8.9839;
668.1000;0.1107;8.9815;
668.4000;0.1091;8.9863;
668.7000;0.1123;8.9958;
669.0000;0.1091;9.0006;
669.3000;0.1099;8.9839;
669.6000;0.1131;8.9863;
669.9000;0.1115;8.9767;
670.2000;0.1091;8.9911;
670.5000;0.1099;8.9958;
670.8000;0.1115;9.0030;
671.1000;0.1083;8.9863;
671.4000;0.1107;8.9934;
671.7000;0.1107;8.9863;
672.0000;0.1099;8.9719;
672.3000;0.1115;8.9743;
672.6000;0.1115;8.9743;
672.9000;0.1099;8.9743;
673.2000;0.1123;8.9743;
673.5000;0.1115;8.9791;
673.8000;0.1131;8.9815;
674.1000;0.1131;8.9887;
674.4000;0.1123;8.9934;
674.7000;0.1148;9.0030;
675.0000;0.1131;9.0030;
675.3000;0.1140;8.9982;
675.6000;0.1123;8.9934;
675.9000;0.1140;9.0030;
676.2000;0.1131;8.9958;
676.5000;0.1115;8.9958;
676.8000;0.1115;8.9982;
677.1000;0.1091;8.9934;
677.4000;0.1131;9.0030;
677.7000;0.1107;9.0030;
678.0000;0.1115;9.0030;
678.3000;0.1107;9.0054;
678.6000;0.1066;9.0006;
678.9000;0.1115;9.0126;
679.2000;0.1115;9.0126;
679.5000;0.1115;9.0102;
679.8000;0.1107;9.0054;
680.1000;0.1123;9.0054;
680.4000;0.1107;8.9982;
680.7000;0.1034;8.9863;
681.0000;0.1164;9.0150;
681.3000;0.1115;9.0006;
681.6000;0.1115;8.9934;
681.9000;0.1131;9.0078;
682.2000;0.1083;8.9911;
682.5000;0.1107;8.9982;
682.8000;0.1115;9.0030;
683.1000;0.1099;9.0054;
683.4000;0.1115;9.0078;
683.7000;0.1115;8.9982;
684.0000;0.1107;8.9839;
684.3000;0.1107;8.9815;
684.6000;0.1099;8.9791;
684.9000;0.1156;8.9958;
685.2000;0.1123;8.9911;
685.5000;0.1083;8.9863;
685.8000;0.1164;9.0078;
686.1000;0.1172;9.0054;
686.4000;0.1083;8.9719;
686.7000;0.1107;8.9887;
687.0000;0.1221;9.0174;
687.3000;0.1123;8.9863;
687.6000;0.1131;8.9863;
687.9000;0.1050;8.9647;
688.2000;0.1091;8.9695;
688.5000;0.1074;8.9671;
688.8000;0.1131;8.9767;
689.1000;0.1115;8.9815;
689.4000;0.1026;8.9695;
689.7000;0.1115;9.0006;
690.0000;0.1148;9.0174;
690.3000;0.1131;9.0126;
690.6000;0.1074;8.9958;
690.9000;0.1123;8.9958;
691.2000;0.1107;8.9887;
691.5000;0.1107;8.9982;
691.8000;0.1115;9.0078;
692.1000;0.1091;8.9982;
692.4000;0.1099;8.9911;
692.7000;0.1131;8.9982;
693.0000;0.1107;8.9791;
693.3000;0.1107;8.9743;
693.6000;0.1107;8.9815;
693.9000;0.1107;8.9934;
694.2000;0.1140;8.9958;
694.5000;0.1107;8.9815;
694.8000;0.1115;8.9815;
695.1000;0.1115;8.9791;
695.4000;0.1099;8.9767;
695.7000;0.1123;8.9911;
696.0000;0.1164;8.9982;
696.3000;0.1115;8.9887;
696.6000;0.1123;8.9958;
696.9000;0.1123;8.9887;
697.2000;0.1123;8.9887;
697.5000;0.1083;8.9815;
697.8000;0.1115;8.9911;
698.1000;0.1107;8.9839;
698.4000;0.1107;8.9815;
698.7000;0.1131;8.9911;
699.0000;0.1107;8.9911;
699.3000;0.1099;8.9911;
699.6000;0.1148;8.9911;
699.9000;0.1107;8.9839;
700.2000;0.1107;8.9863;
700.5000;0.1083;8.9815;
700.8000;0.1107;8.9863;
701.1000;0.1091;8.9887;
701.4000;0.1107;8.9839;
701.7000;0.1074;8.9743;
702.0000;0.1091;8.9743;
702.3000;0.1099;8.9767;
702.6000;0.1107;8.9767;
702.9000;0.1123;8.9743;
703.2000;0.1099;8.9695;
703.5000;0.1099;8.9815;
703.8000;0.1107;8.9863;
704.1000;0.1091;8.9815;
704.4000;0.1099;8.9839;
704.7000;0.1099;8.9911;
705.0000;0.1083;8.9839;
705.3000;0.1107;8.9911;
705.6000;0.1091;8.9791;
705.9000;0.1099;8.9839;
706.2000;0.1099;8.9791;
706.5000;0.1140;8.9863;
706.8000;0.1091;8.9791;
707.1000;0.1107;8.9934;
707.4000;0.1107;8.9887;
707.7000;0.1099;8.9863;
708.0000;0.1107;8.9839;
708.3000;0.1156;8.9958;
708.6000;0.1140;8.9911;
708.9000;0.1091;8.9743;
709.2000;0.1099;8.9791;
709.5000;0.1164;8.9911;
709.8000;0.1107;8.9719;
710.1000;0.1107;8.9743;
710.4000;0.1107;8.9767;
710.7000;0.1091;8.9671;
711.0000;0.1107;8.9791;
711.3000;0.1107;8.9887;
711.6000;0.1099;8.9958;
711.9000;0.1074;8.9767;
712.2000;0.1083;8.9743;
712.5000;0.1074;8.9671;
712.8000;0.1083;8.9719;
713.1000;0.1099;8.9743;
713.4000;0.1066;8.9719;
713.7000;0.1131;8.9982;
714.0000;0.1083;8.9911;
714.3000;0.1107;8.9934;
714.6000;0.1107;8.9863;
714.9000;0.1099;8.9863;
715.2000;0.1091;8.9887;
715.5000;0.1115;8.9934;
715.8000;0.1107;8.9958;
716.1000;0.1099;8.9934;
716.4000;0.1083;8.9887;
716.7000;0.1123;9.0030;
717.0000;0.1099;8.9958;
717.3000;0.1091;8.9911;
717.6000;0.1066;8.9719;
717.9000;0.1099;8.9839;
718.2000;0.1091;8.9839;
718.5000;0.1099;8.9743;
718.8000;0.1091;8.9839;
719.1000;0.1083;8.9791;
719.4000;0.1123;8.9911;
719.7000;0.1107;8.9982;
720.0000;0.1115;9.0006;
720.3000;0.1099;8.9934;
720.6000;0.1115;9.0054;
720.9000;0.1107;9.0006;
721.2000;0.1140;9.0030;
721.5000;0.1099;8.9934;
721.8000;0.1107;9.0006;
722.1000;0.1107;9.0006;
722.4000;0.1107;9.0006;
722.7000;0.1107;9.0126;
723.0000;0.1131;9.0246;
723.3000;0.1042;9.0054;
723.6000;0.1083;9.0150;
723.9000;0.1083;9.0102;
724.2000;0.1074;9.0078;
724.5000;0.1091;9.0054;
724.8000;0.1107;9.0030;
725.1000;0.1131;9.0102;
725.4000;0.1074;8.9982;
725.7000;0.1115;9.0078;
726.0000;0.1026;8.9887;
726.3000;0.1066;9.0006;
726.6000;0.1091;9.0102;
726.9000;0.1140;9.0222;
727.2000;0.1099;9.0102;
727.5000;0.1083;9.0174;
727.8000;0.1074;9.0174;
728.1000;0.1009;9.0102;
728.4000;0.1066;9.0246;
728.7000;0.1131;9.0342;
729.0000;0.1107;9.0318;
729.3000;0.1018;9.0126;
729.6000;0.1107;9.0150;
729.9000;0.1099;9.0078;
730.2000;0.1140;9.0126;
730.5000;0.1050;8.9839;
730.8000;0.1099;8.9863;
731.1000;0.1107;8.9887;
731.4000;0.1074;8.9791;
731.7000;0.1099;8.9982;
732.0000;0.1074;8.9982;
732.3000;0.1009;8.9815;
732.6000;0.1074;9.0078;
732.9000;0.1083;9.0102;
733.2000;0.1091;9.0102;
733.5000;0.1107;9.0126;
733.8000;0.1091;9.0126;
734.1000;0.1018;8.9934;
734.4000;0.1099;9.0174;
734.7000;0.1099;9.0126;
735.0000;0.1172;9.0174;
735.3000;0.1099;9.0006;
735.6000;0.1091;8.9982;
735.9000;0.1099;9.0006;
736.2000;0.1083;8.9982;
736.5000;0.1083;9.0006;
736.8000;0.1123;9.0174;
737.1000;0.1091;9.0150;
737.4000;0.1107;9.0126;
737.7000;0.1083;9.0078;
738.0000;0.1083;9.0078;
738.3000;0.1083;9.0126;
738.6000;0.1083;9.0078;
738.9000;0.1099;9.0102;
739.2000;0.1099;9.0102;
739.5000;0.1099;9.0102;
739.8000;0.1091;9.0054;
740.1000;0.1091;9.0030;
740.4000;0.1083;9.0054;
740.7000;0.1091;9.0126;
741.0000;0.1099;9.0126;
741.3000;0.1083;9.0078;
741.6000;0.1083;9.0030;
741.9000;0.1091;8.9934;
742.2000;0.1083;8.9958;
742.5000;0.1115;9.0006;
742.8000;0.1107;9.0054;
743.1000;0.1083;8.9958;
743.4000;0.1042;8.9887;
743.7000;0.1115;9.0102;
744.0000;0.1074;9.0030;
744.3000;0.1058;8.9863;
744.6000;0.1091;8.9934;
744.9000;0.1066;8.9839;
745.2000;0.1066;8.9863;
745.5000;0.1107;8.9958;
745.8000;0.1099;8.9887;
746.1000;0.1123;8.9958;
746.4000;0.1099;8.9887;
746.7000;0.1099;8.9911;
747.0000;0.1107;8.9911;
747.3000;0.1042;8.9791;
747.6000;0.1099;8.9911;
747.9000;0.1058;8.9719;
748.2000;0.1074;8.9767;
748.5000;0.1058;8.9719;
748.8000;0.1074;8.9623;
749.1000;0.1091;8.9695;
749.4000;0.1066;8.9575;
749.7000;0.1083;8.9599;
750.0000;0.1115;8.9743;
750.3000;0.1099;8.9791;
750.6000;0.1066;8.9695;
750.9000;0.1083;8.9695;
751.2000;0.1123;8.9719;
751.5000;0.1131;8.9767;
751.8000;0.1099;8.9791;
752.1000;0.1107;8.9791;
752.4000;0.1066;8.9599;
752.7000;0.1091;8.9623;
753.0000;0.1188;8.9887;
753.3000;0.1050;8.9551;
753.6000;0.1115;8.9647;
753.9000;0.1164;8.9911;
754.2000;0.1099;8.9743;
754.5000;0.1099;8.9743;
754.8000;0.1099;8.9839;
755.1000;0.1074;8.9719;
755.4000;0.1107;8.9767;
755.7000;0.1066;8.9575;
756.0000;0.1050;8.9527;
756.3000;0.1107;8.9839;
756.6000;0.1091;8.9887;
756.9000;0.1099;8.9887;
757.2000;0.1091;8.9934;
757.5000;0.1131;9.0054;
757.8000;0.1099;9.0126;
758.1000;0.1074;9.0030;
758.4000;0.1074;8.9934;
758.7000;0.1058;8.9911;
759.0000;0.1083;8.9887;
759.3000;0.1066;8.9719;
759.6000;0.1099;8.9863;
759.9000;0.1099;8.9982;
760.2000;0.1066;8.9839;
760.5000;0.1074;8.9863;
760.8000;0.1074;8.9815;
761.1000;0.1074;8.9815;
761.4000;0.1074;8.9815;
761.7000;0.1066;8.9887;
762.0000;0.1074;8.9863;
762.3000;0.1066;8.9815;
762.6000;0.1066;8.9743;
762.9000;0.1083;8.9719;
763.2000;0.1099;8.9647;
763.5000;0.1083;8.9647;
763.8000;0.1107;8.9719;
764.1000;0.1074;8.9647;
764.4000;0.1034;8.9551;
764.7000;0.1066;8.9551;
765.0000;0.1107;8.9671;
765.3000;0.1140;8.9791;
765.6000;0.1083;8.9767;
765.9000;0.1058;8.9671;
766.2000;0.1107;8.9815;
766.5000;0.1107;8.9863;
766.8000;0.1107;8.9815;
767.1000;0.1083;8.9767;
767.4000;0.1042;8.9647;
767.7000;0.1066;8.9791;
768.0000;0.1099;8.9863;
768.3000;0.1099;8.9934;
768.6000;0.1058;8.9911;
768.9000;0.1099;9.0030;
769.2000;0.1091;8.9958;
769.5000;0.1091;8.9934;
769.8000;0.1066;8.9815;
770.1000;0.1074;8.9887;
770.4000;0.1091;8.9958;
770.7000;0.1091;8.9958;
771.0000;0.1091;9.0054;
771.3000;0.1099;9.0126;
771.6000;0.1083;9.0054;
771.9000;0.1083;9.0030;
772.2000;0.1034;8.9839;
772.5000;0.1083;8.9815;
772.8000;0.1115;8.9743;
773.1000;0.1099;8.9647;
773.4000;0.1091;8.9719;
773.7000;0.1074;8.9671;
774.0000;0.1066;8.9719;
774.3000;0.1074;8.9695;
774.6000;0.1091;8.9695;
774.9000;0.1172;8.9934;
775.2000;0.1083;8.9743;
775.5000;0.1099;8.9911;
775.8000;0.1074;8.9815;
776.1000;0.1107;8.9887;
776.4000;0.1099;8.9839;
776.7000;0.1091;8.9815;
777.0000;0.1115;8.9982;
777.3000;0.1099;8.9887;
777.6000;0.1066;8.9743;
777.9000;0.1066;8.9767;
778.2000;0.1018;8.9599;
778.5000;0.1099;8.9815;
778.8000;0.1091;8.9743;
779.1000;0.1083;8.9839;
779.4000;0.1083;8.9934;
779.7000;0.1074;8.9839;
780.0000;0.1001;8.9647;
780.3000;0.1131;8.9911;
780.6000;0.1074;8.9791;
780.9000;0.1091;8.9719;
781.2000;0.1099;8.9623;
781.5000;0.0944;8.9264;
781.8000;0.1083;8.9599;
782.1000;0.1123;8.9671;
782.4000;0.1164;8.9863;
782.7000;0.0993;8.9527;
783.0000;0.1074;8.9767;
783.3000;0.1083;8.9719;
783.6000;0.1066;8.9575;
783.9000;0.1099;8.9671;
784.2000;0.1083;8.9695;
784.5000;0.1099;8.9695;
784.8000;0.1066;8.9599;
785.1000;0.1074;8.9551;
785.4000;0.1083;8.9527;
785.7000;0.1066;8.9527;
786.0000;0.1074;8.9695;
786.3000;0.1058;8.9575;
786.6000;0.1164;8.9791;
786.9000;0.1123;8.9671;
787.2000;0.1074;8.9551;
787.5000;0.1091;8.9743;
787.8000;0.1074;8.9767;
788.1000;0.1091;8.9839;
788.4000;0.1083;8.9887;
788.7000;0.1050;8.9839;
789.0000;0.1091;8.9934;
789.3000;0.1074;8.9958;
789.6000;0.1026;8.9719;
789.9000;0.1074;8.9719;
790.2000;0.1083;8.9767;
790.5000;0.1091;8.9815;
790.8000;0.1058;8.9815;
791.1000;0.1140;8.9887;
791.4000;0.1058;8.9623;
791.7000;0.1074;8.9695;
792.0000;0.1083;8.9575;
792.3000;0.1066;8.9479;
792.6000;0.1091;8.9599;
792.9000;0.1058;8.9527;
793.2000;0.1188;8.9839;
793.5000;0.1083;8.9647;
793.8000;0.1091;8.9719;
794.1000;0.1099;8.9719;
794.4000;0.1091;8.9719;
794.7000;0.1066;8.9791;
795.0000;0.1083;8.9911;
795.3000;0.1188;9.0246;
795.6000;0.1074;8.9982;
795.9000;0.1091;9.0006;
796.2000;0.1083;8.9982;
796.5000;0.1083;8.9934;
796.8000;0.1091;8.9887;
797.1000;0.1107;9.0030;
797.4000;0.1074;8.9911;
797.7000;0.1074;8.9911;
798.0000;0.1091;9.0006;
798.3000;0.1083;8.9887;
798.6000;0.1123;8.9887;
798.9000;0.1058;8.9623;
799.2000;0.1083;8.9695;
799.5000;0.1107;8.9767;
799.8000;0.1026;8.9695;
800.1000;0.1066;8.9839;
800.4000;0.1083;8.9911;
800.7000;0.1074;8.9863;
801.0000;0.1066;8.9863;
801.3000;0.1131;9.0006;
801.6000;0.1156;8.9958;
801.9000;0.1099;8.9695;
802.2000;0.1091;8.9791;
802.5000;0.1083;8.9815;
802.8000;0.1083;8.9815;
803.1000;0.1034;8.9695;
803.4000;0.1083;8.9863;
803.7000;0.1099;8.9863;
804.0000;0.1140;9.0030;
804.3000;0.1140;9.0078;
804.6000;0.1099;8.9911;
804.9000;0.1115;8.9958;
805.2000;0.1091;8.9863;
805.5000;0.1026;8.9623;
805.8000;0.1091;8.9815;
806.1000;0.1083;8.9743;
806.4000;0.0993;8.9623;
806.7000;0.1074;8.9887;
807.0000;0.1091;8.9958;
807.3000;0.1074;8.9958;
807.6000;0.1099;9.0006;
807.9000;0.1074;8.9934;
808.2000;0.1066;8.9887;
808.5000;0.1074;8.9863;
808.8000;0.1083;8.9839;
809.1000;0.1091;8.9863;
809.4000;0.1058;8.9863;
809.7000;0.1164;9.0030;
810.0000;0.1066;8.9767;
810.3000;0.1066;8.9791;
810.6000;0.1042;8.9695;
810.9000;0.1083;8.9743;
811.2000;0.1091;8.9791;
811.5000;0.1042;8.9743;
811.8000;0.1058;8.9791;
812.1000;0.1083;8.9791;
812.4000;0.1091;8.9815;
812.7000;0.1034;8.9719;
813.0000;0.1091;8.9815;
813.3000;0.1074;8.9839;
813.6000;0.1074;8.9934;
813.9000;0.1066;8.9934;
814.2000;0.1083;8.9934;
814.5000;0.1066;8.9887;
814.8000;0.1107;9.0102;
815.1000;0.1066;8.9911;
815.4000;0.1091;8.9982;
815.7000;0.1197;9.0294;
816.0000;0.1083;8.9982;
816.3000;0.1091;9.0030;
816.6000;0.1107;9.0078;
816.9000;0.1066;9.0054;
817.2000;0.1058;9.0006;
817.5000;0.1107;9.0102;
817.8000;0.1066;8.9982;
818.1000;0.1066;9.0006;
818.4000;0.1083;9.0078;
818.7000;0.1026;8.9934;
819.0000;0.1058;9.0078;
819.3000;0.1123;9.0126;
819.6000;0.1074;8.9934;
819.9000;0.1123;9.0102;
820.2000;0.1074;8.9934;
820.5000;0.1058;8.9934;
820.8000;0.1058;8.9982;
821.1000;0.1115;9.0126;
821.4000;0.1074;8.9982;
821.7000;0.1140;9.0030;
822.0000;0.1066;8.9839;
822.3000;0.1074;8.9863;
822.6000;0.1066;8.9815;
822.9000;0.1148;8.9982;
823.2000;0.1066;8.9719;
823.5000;0.1066;8.9719;
823.8000;0.1042;8.9647;
824.1000;0.1066;8.9719;
824.4000;0.1083;8.9815;
824.7000;0.1066;8.9767;
825.0000;0.1066;8.9815;
825.3000;0.1074;8.9815;
825.6000;0.1058;8.9695;
825.9000;0.1091;8.9671;
826.2000;0.1091;8.9671;
826.5000;0.1091;8.9695;
826.8000;0.1091;8.9743;
827.1000;0.1066;8.9671;
827.4000;0.1091;8.9695;
827.7000;0.1074;8.9671;
828.0000;0.1083;8.9671;
828.3000;0.1091;8.9695;
828.6000;0.1099;8.9743;
828.9000;0.1050;8.9623;
829.2000;0.1099;8.9767;
829.5000;0.1107;8.9743;
829.8000;0.1074;8.9719;
830.1000;0.1034;8.9551;
830.4000;0.1066;8.9527;
830.7000;0.1083;8.9551;
831.0000;0.1107;8.9743;
831.3000;0.1083;8.9743;
831.6000;0.1083;8.9695;
831.9000;0.1091;8.9719;
832.2000;0.1083;8.9791;
832.5000;0.1099;8.9719;
832.8000;0.1107;8.9719;
833.1000;0.1074;8.9575;
833.4000;0.1083;8.9647;
833.7000;0.1099;8.9599;
834.0000;0.1083;8.9527;
834.3000;0.1107;8.9599;
834.6000;0.1066;8.9527;
834.9000;0.1066;8.9479;
835.2000;0.1083;8.9479;
835.5000;0.1058;8.9384;
835.8000;0.1074;8.9503;
836.1000;0.1083;8.9623;
836.4000;0.1099;8.9743;
836.7000;0.1140;8.9791;
837.0000;0.1107;8.9719;
837.3000;0.1050;8.9767;
837.6000;0.1115;8.9839;
837.9000;0.1058;8.9599;
838.2000;0.1099;8.9647;
838.5000;0.1066;8.9647;
838.8000;0.1026;8.9599;
839.1000;0.1058;8.9695;
839.4000;0.1091;8.9863;
839.7000;0.1058;8.9719;
840.0000;0.1074;8.9791;
840.3000;0.1074;8.9743;
840.6000;0.1066;8.9671;
840.9000;0.1091;8.9719;
841.2000;0.1066;8.9695;
841.5000;0.1050;8.9671;
841.8000;0.1066;8.9623;
842.1000;0.1188;8.9815;
842.4000;0.1083;8.9551;
842.7000;0.1083;8.9599;
843.0000;0.1115;8.9671;
843.3000;0.1083;8.9527;
843.6000;0.1050;8.9503;
843.9000;0.1066;8.9719;
844.2000;0.1091;8.9863;
844.5000;0.1058;8.9767;
844.8000;0.0993;8.9575;
845.1000;0.1001;8.9575;
845.4000;0.1050;8.9695;
845.7000;0.1074;8.9791;
846.0000;0.1115;8.9767;
846.3000;0.1091;8.9671;
846.6000;0.1074;8.9671;
846.9000;0.1058;8.9503;
847.2000;0.1123;8.9647;
847.5000;0.1074;8.9527;
847.8000;0.1066;8.9551;
848.1000;0.1140;8.9671;
848.4000;0.1099;8.9551;
848.7000;0.1066;8.9455;
849.0000;0.1074;8.9551;
849.3000;0.1058;8.9575;
849.6000;0.1042;8.9527;
849.9000;0.1074;8.9455;
850.2000;0.1074;8.9455;
850.5000;0.1091;8.9647;
850.8000;0.1066;8.9623;
851.1000;0.1074;8.9815;
851.4000;0.1091;8.9863;
851.7000;0.1018;8.9647;
852.0000;0.1172;9.0054;
852.3000;0.1074;8.9839;
852.6000;0.1050;8.9863;
852.9000;0.1018;8.9647;
853.2000;0.1091;8.9791;
853.5000;0.1074;8.9815;
853.8000;0.1107;8.9958;
854.1000;0.1050;8.9863;
854.4000;0.1066;8.9863;
854.7000;0.1050;8.9767;
855.0000;0.1050;8.9815;
855.3000;0.1083;8.9911;
855.6000;0.1066;8.9863;
855.9000;0.1074;8.9887;
856.2000;0.1066;8.9839;
856.5000;0.1066;8.9815;
856.8000;0.1091;8.9887;
857.1000;0.1107;8.9958;
857.4000;0.1074;8.9887;
857.7000;0.1050;8.9695;
858.0000;0.1066;8.9815;
858.3000;0.1099;8.9887;
858.6000;0.1074;8.9911;
858.9000;0.1058;8.9982;
859.2000;0.1058;8.9958;
859.5000;0.1074;8.9815;
859.8000;0.1066;8.9767;
860.1000;0.1042;8.9695;
860.4000;0.1058;8.9791;
860.7000;0.1074;8.9863;
861.0000;0.1091;8.9815;
861.3000;0.1009;8.9575;
861.6000;0.1074;8.9743;
861.9000;0.1074;8.9743;
862.2000;0.1188;9.0030;
862.5000;0.1091;8.9815;
862.8000;0.1083;8.9815;
863.1000;0.1058;8.9815;
863.4000;0.1074;8.9887;
863.7000;0.1066;8.9839;
864.0000;0.1083;8.9934;
864.3000;0.1058;8.9791;
864.6000;0.1066;8.9767;
864.9000;0.1058;8.9767;
865.2000;0.1123;8.9791;
865.5000;0.1099;8.9743;
865.8000;0.1091;8.9767;
866.1000;0.1131;8.9911;
866.4000;0.1083;8.9791;
866.7000;0.1091;8.9911;
867.0000;0.1156;9.0150;
867.3000;0.1058;8.9911;
867.6000;0.1099;8.9934;
867.9000;0.1091;8.9958;
868.2000;0.1074;8.9863;
868.5000;0.1091;8.9839;
868.8000;0.0961;8.9479;
869.1000;0.1131;8.9911;
869.4000;0.1074;8.9815;
869.7000;0.1091;8.9767;
870.0000;0.1115;8.9911;
870.3000;0.1083;8.9863;
870.6000;0.1091;9.0006;
870.9000;0.1197;9.0270;
871.2000;0.1091;9.0078;
871.5000;0.1074;8.9982;
871.8000;0.1091;9.0054;
872.1000;0.1083;9.0102;
872.4000;0.1042;9.0054;
872.7000;0.1099;9.0222;
873.0000;0.1083;9.0102;
873.3000;0.1083;9.0078;
873.6000;0.1083;9.0006;
873.9000;0.1066;8.9911;
874.2000;0.1050;8.9815;
874.5000;0.1066;8.9887;
874.8000;0.1058;8.9767;
875.1000;0.1058;8.9719;
875.4000;0.1066;8.9647;
875.7000;0.1140;8.9863;
876.0000;0.1083;8.9647;
876.3000;0.1083;8.9599;
876.6000;0.1066;8.9503;
876.9000;0.1066;8.9647;
877.2000;0.1058;8.9719;
877.5000;0.1074;8.9767;
877.8000;0.1091;8.9839;
878.1000;0.1066;8.9863;
878.4000;0.1074;8.9911;
878.7000;0.1099;9.0006;
879.0000;0.1066;8.9958;
879.3000;0.1066;8.9982;
879.6000;0.1066;8.9934;
879.9000;0.1050;8.9839;
880.2000;0.1091;8.9839;
880.5000;0.1034;8.9695;
880.8000;0.1074;8.9815;
881.1000;0.1066;8.9911;
881.4000;0.1091;8.9911;
881.7000;0.1074;8.9887;
882.0000;0.1091;8.9958;
882.3000;0.1058;8.9863;
882.6000;0.1050;8.9911;
882.9000;0.1058;8.9958;
883.2000;0.1074;8.9982;
883.5000;0.1083;9.0030;
883.8000;0.1083;9.0030;
884.1000;0.1050;9.0006;
884.4000;0.1083;9.0126;
884.7000;0.0952;8.9791;
885.0000;0.1091;9.0102;
885.3000;0.1058;8.9958;
885.6000;0.1074;8.9958;
885.9000;0.1050;8.9934;
886.2000;0.1058;8.9863;
886.5000;0.1074;8.9839;
886.8000;0.1074;8.9887;
887.1000;0.1050;8.9911;
887.4000;0.1066;8.9934;
887.7000;0.1058;8.9982;
888.0000;0.1058;9.0006;
888.3000;0.1050;8.9911;
888.6000;0.1099;8.9958;
888.9000;0.1066;8.9767;
889.2000;0.1074;8.9791;
889.5000;0.1066;8.9767;
889.8000;0.1091;8.9863;
890.1000;0.1091;8.9911;
890.4000;0.1058;8.9767;
890.7000;0.1066;8.9743;
891.0000;0.1083;8.9695;
891.3000;0.1066;8.9671;
891.6000;0.1083;8.9743;
891.9000;0.1058;8.9743;
892.2000;0.1074;8.9863;
892.5000;0.1140;9.0054;
892.8000;0.1083;8.9958;
893.1000;0.1018;8.9863;
893.4000;0.1074;8.9934;
893.7000;0.1058;8.9911;
894.0000;0.1083;9.0006;
894.3000;0.1058;8.9982;
894.6000;0.1066;9.0006;
894.9000;0.1050;8.9982;
895.2000;0.1042;8.9887;
895.5000;0.1083;9.0006;
895.8000;0.1034;8.9863;
896.1000;0.1083;8.9934;
896.4000;0.1083;8.9863;
896.7000;0.1107;8.9911;
897.0000;0.1066;8.9863;
897.3000;0.1066;8.9934;
897.6000;0.1074;8.9887;
897.9000;0.1123;8.9982;
898.2000;0.1074;8.9839;
898.5000;0.1074;8.9791;
898.8000;0.1066;8.9839;
899.1000;0.1058;8.9767;
899.4000;0.1018;8.9743;
899.7000;0.1058;8.9815;
900.0000;0.1058;8.9911;
900.3000;0.1058;8.9863;
900.6000;0.1107;8.9982;
900.9000;0.1066;9.0030;
901.2000;0.1050;9.0054;
901.5000;0.1091;9.0222;
901.8000;0.1058;9.0150;
902.1000;0.1083;9.0222;
902.4000;0.1074;9.0150;
902.7000;0.1083;9.0174;
903.0000;0.1050;9.0246;
903.3000;0.1066;9.0222;
903.6000;0.1083;9.0318;
903.9000;0.1172;9.0629;
904.2000;0.1066;9.0246;
904.5000;0.1058;9.0174;
904.8000;0.1083;9.0198;
905.1000;0.1091;9.0222;
905.4000;0.1074;9.0222;
905.7000;0.1050;9.0078;
906.0000;0.1083;9.0054;
906.3000;0.1083;9.0030;
906.6000;0.1091;9.0006;
906.9000;0.1074;9.0054;
907.2000;0.1091;9.0150;
907.5000;0.1026;8.9839;
907.8000;0.1083;8.9958;
908.1000;0.1083;8.9958;
908.4000;0.1074;8.9911;
908.7000;0.1099;8.9911;
909.0000;0.1083;8.9934;
909.3000;0.1034;8.9767;
909.6000;0.1099;8.9863;
909.9000;0.1050;8.9647;
910.2000;0.1058;8.9719;
910.5000;0.1083;8.9863;
910.8000;0.1083;8.9839;
911.1000;0.1083;8.9815;
911.4000;0.1115;8.9982;
911.7000;0.1083;8.9767;
912.0000;0.1083;8.9863;
912.3000;0.1074;8.9887;
912.6000;0.1083;8.9815;
912.9000;0.1099;8.9958;
913.2000;0.1066;8.9934;
913.5000;0.1042;8.9815;
913.8000;0.1099;8.9958;
914.1000;0.1074;8.9791;
914.4000;0.1091;8.9911;
914.7000;0.1083;8.9887;
915.0000;0.1066;8.9743;
915.3000;0.1050;8.9647;
915.6000;0.1058;8.9767;
915.9000;0.1091;8.9863;
916.2000;0.1099;8.9863;
916.5000;0.1074;8.9863;
916.8000;0.1083;9.0006;
917.1000;0.1009;8.9863;
917.4000;0.1058;8.9982;
917.7000;0.1050;9.0006;
918.0000;0.1074;9.0054;
918.3000;0.1115;9.0174;
918.6000;0.1058;9.0054;
918.9000;0.1034;9.0006;
919.2000;0.1058;9.0030;
919.5000;0.1050;8.9958;
919.8000;0.1050;8.9934;
920.1000;0.1066;8.9958;
920.4000;0.1018;8.9911;
920.7000;0.1042;8.9911;
921.0000;0.1034;8.9934;
921.3000;0.1050;8.9911;
921.6000;0.1091;9.0006;
921.9000;0.1066;8.9934;
922.2000;0.1066;8.9887;
922.5000;0.1083;8.9982;
922.8000;0.1066;8.9958;
923.1000;0.1131;9.0078;
923.4000;0.1050;8.9911;
923.7000;0.1066;8.9934;
924.0000;0.1066;8.9982;
924.3000;0.1083;9.0030;
924.6000;0.1058;8.9934;
924.9000;0.1099;8.9982;
925.2000;0.1083;8.9863;
925.5000;0.1042;8.9815;
925.8000;0.1050;8.9911;
926.1000;0.1074;9.0054;
926.4000;0.1074;8.9982;
926.7000;0.1197;9.0198;
927.0000;0.1091;9.0030;
927.3000;0.1074;9.0030;
927.6000;0.1050;8.9934;
927.9000;0.1066;8.9911;
928.2000;0.1066;8.9934;
928.5000;0.1066;8.9982;
928.8000;0.1050;8.9839;
929.1000;0.1074;8.9934;
929.4000;0.1091;8.9911;
929.7000;0.1074;8.9887;
930.0000;0.1066;8.9839;
930.3000;0.1034;8.9719;
930.6000;0.0912;8.9312;
930.9000;0.1083;8.9695;
931.2000;0.1058;8.9671;
931.5000;0.1050;8.9671;
931.8000;0.1074;8.9743;
932.1000;0.1050;8.9695;
932.4000;0.1066;8.9767;
932.7000;0.0993;8.9527;
933.0000;0.1058;8.9647;
933.3000;0.1074;8.9671;
933.6000;0.1172;9.0030;
933.9000;0.1074;8.9743;
934.2000;0.1074;8.9671;
934.5000;0.1083;8.9671;
934.8000;0.1074;8.9575;
935.1000;0.1042;8.9575;
935.4000;0.1066;8.9671;
935.7000;0.1099;8.9695;
936.0000;0.1107;8.9839;
936.3000;0.1091;8.9791;
936.6000;0.1050;8.9695;
936.9000;0.1091;8.9767;
937.2000;0.1058;8.9767;
937.5000;0.1058;8.9839;
937.8000;0.1018;8.9671;
938.1000;0.1018;8.9815;
938.4000;0.1074;8.9982;
938.7000;0.1066;8.9958;
939.0000;0.1034;8.9863;
939.3000;0.1058;8.9911;
939.6000;0.1083;8.9934;
939.9000;0.1123;8.9934;
940.2000;0.1034;8.9791;
940.5000;0.1066;8.9839;
940.8000;0.1050;8.9839;
941.1000;0.1050;8.9815;
941.4000;0.1042;8.9791;
941.7000;0.1066;8.9743;
942.0000;0.1042;8.9767;
942.3000;0.1058;8.9791;
942.6000;0.1058;8.9863;
942.9000;0.1083;8.9934;
943.2000;0.1074;8.9863;
943.5000;0.1058;8.9863;
943.8000;0.1123;8.9982;
944.1000;0.1066;8.9911;
944.4000;0.1066;8.9863;
944.7000;0.1058;8.9887;
945.0000;0.1123;8.9958;
945.3000;0.1066;8.9839;
945.6000;0.1091;8.9887;
945.9000;0.1074;8.9767;
946.2000;0.1050;8.9695;
946.5000;0.1074;8.9743;
946.8000;0.1099;8.9791;
947.1000;0.1091;8.9767;
947.4000;0.1091;8.9815;
947.7000;0.1050;8.9719;
948.0000;0.1140;9.0006;
948.3000;0.1066;8.9863;
948.6000;0.1074;8.9815;
948.9000;0.1074;8.9791;
949.2000;0.1074;8.9839;
949.5000;0.1058;8.9887;
949.8000;0.1099;8.9958;
950.1000;0.1042;8.9815;
950.4000;0.1050;8.9743;
950.7000;0.1066;8.9743;
951.0000;0.1074;8.9743;
951.3000;0.1099;8.9815;
951.6000;0.1107;8.9839;
951.9000;0.1083;8.9791;
952.2000;0.1091;8.9743;
952.5000;0.1066;8.9767;
952.8000;0.1066;8.9839;
953.1000;0.1066;8.9839;
953.4000;0.1074;8.9887;
953.7000;0.1091;8.9934;
954.0000;0.1058;8.9934;
954.3000;0.1074;8.9982;
954.6000;0.1083;9.0006;
954.9000;0.1050;8.9911;
955.2000;0.1091;8.9958;
955.5000;0.1074;8.9934;
955.8000;0.1066;8.9958;
956.1000;0.1074;9.0006;
956.4000;0.1074;9.0006;
956.7000;0.1107;9.0126;
957.0000;0.1074;8.9958;
957.3000;0.1058;9.0006;
957.6000;0.1083;9.0030;
957.9000;0.1050;8.9887;
958.2000;0.1074;9.0054;
958.5000;0.1074;8.9982;
958.8000;0.1034;8.9887;
959.1000;0.1058;8.9887;
959.4000;0.1074;8.9911;
959.7000;0.1066;8.9934;
960.0000;0.1099;8.9958;
960.3000;0.1042;8.9791;
960.6000;0.1058;8.9815;
960.9000;0.1099;8.9815;
961.2000;0.1026;8.9647;
961.5000;0.1083;8.9791;
961.8000;0.1026;8.9647;
962.1000;0.1083;8.9911;
962.4000;0.1091;9.0078;
962.7000;0.1074;9.0078;
963.0000;0.1034;8.9911;
963.3000;0.1123;9.0126;
963.6000;0.1074;9.0006;
963.9000;0.1066;8.9911;
964.2000;0.1074;8.9934;
964.5000;0.1042;8.9815;
964.8000;0.1083;8.9958;
965.1000;0.1066;8.9911;
965.4000;0.1091;8.9911;
965.7000;0.1042;8.9791;
966.0000;0.1066;8.9863;
966.3000;0.1026;8.9815;
966.6000;0.1058;8.9887;
966.9000;0.1058;8.9934;
967.2000;0.1058;8.9934;
967.5000;0.1058;9.0006;
967.8000;0.1074;9.0030;
968.1000;0.1091;9.0078;
968.4000;0.1066;9.0006;
968.7000;0.1034;8.9934;
969.0000;0.1074;9.0030;
969.3000;0.1083;9.0030;
969.6000;0.1050;8.9911;
969.9000;0.1074;8.9815;
970.2000;0.1058;8.9743;
970.5000;0.1058;8.9743;
970.8000;0.1066;8.9767;
971.1000;0.1083;8.9887;
971.4000;0.1050;8.9815;
971.7000;0.0961;8.9575;
972.0000;0.1074;8.9815;
972.3000;0.1058;8.9791;
972.6000;0.1140;9.0030;
972.9000;0.1099;8.9934;
973.2000;0.1050;8.9887;
973.5000;0.1066;8.9887;
973.8000;0.1083;8.9791;
974.1000;0.1066;8.9695;
974.4000;0.1115;8.9791;
974.7000;0.1026;8.9551;
975.0000;0.1074;8.9719;
975.3000;0.1058;8.9671;
975.6000;0.1083;8.9767;
975.9000;0.1058;8.9791;
976.2000;0.1074;8.9815;
976.5000;0.1074;8.9815;
976.8000;0.1066;8.9719;
977.1000;0.1050;8.9695;
977.4000;0.1213;9.0126;
977.7000;0.1083;8.9863;
978.0000;0.1066;8.9982;
978.3000;0.1099;9.0126;
978.6000;0.1091;9.0078;
978.9000;0.1083;9.0030;
979.2000;0.1091;9.0030;
979.5000;0.1099;9.0126;
979.8000;0.1050;9.0102;
980.1000;0.1074;9.0126;
980.4000;0.1148;9.0342;
980.7000;0.1058;9.0030;
981.0000;0.1074;9.0030;
981.3000;0.1083;9.0006;
981.6000;0.1066;8.9934;
981.9000;0.1074;8.9958;
982.2000;0.1074;9.0030;
982.5000;0.1066;9.0054;
982.8000;0.1091;9.0126;
983.1000;0.1066;9.0078;
983.4000;0.1066;9.0174;
983.7000;0.1123;9.0342;
984.0000;0.1107;9.0294;
984.3000;0.1091;9.0222;
984.6000;0.1058;9.0078;
984.9000;0.1074;9.0198;
985.2000;0.1083;9.0174;
985.5000;0.1099;9.0150;
985.8000;0.0993;8.9982;
986.1000;0.1050;9.0150;
986.4000;0.1050;9.0150;
986.7000;0.1091;9.0150;
987.0000;0.1066;9.0102;
987.3000;0.1066;9.0126;
987.6000;0.1099;9.0150;
987.9000;0.1164;9.0342;
988.2000;0.1074;9.0198;
988.5000;0.1148;9.0318;
988.8000;0.1066;9.0078;
989.1000;0.1099;9.0126;
989.4000;0.1050;9.0078;
989.7000;0.1050;9.0078;
990.0000;0.1042;8.9982;
990.3000;0.1083;8.9934;
990.6000;0.1083;9.0030;
990.9000;0.1050;8.9982;
991.2000;0.1058;9.0054;
991.5000;0.1042;9.0126;
991.8000;0.1050;9.0078;
992.1000;0.1083;9.0102;
992.4000;0.1042;8.9958;
992.7000;0.1131;9.0078;
993.0000;0.1083;8.9982;
993.3000;0.1091;9.0054;
993.6000;0.0985;8.9743;
993.9000;0.1156;9.0150;
994.2000;0.1099;9.0030;
994.5000;0.1083;9.0054;
994.8000;0.1034;9.0054;
995.1000;0.1034;9.0054;
995.4000;0.1050;9.0054;
995.7000;0.1050;9.0078;
996.0000;0.1034;9.0078;
996.3000;0.1074;9.0150;
996.6000;0.1066;9.0030;
996.9000;0.1050;9.0030;
997.2000;0.1066;9.0054;
997.5000;0.1058;9.0054;
997.8000;0.1058;9.0054;
998.1000;0.1099;9.0174;
998.4000;0.1074;9.0174;
998.7000;0.1058;9.0222;
999.0000;0.1066;9.0174;
999.3000;0.1099;9.0126;
999.6000;0.1066;9.0030;
999.9000;0.1050;9.0102;
1000.2000;0.1050;9.0102;
1000.5000;0.1058;9.0030;
1000.8000;0.1066;9.0006;
1001.1000;0.1018;8.9911;
1001.4000;0.1050;9.0078;
1001.7000;0.1074;9.0150;
1002.0000;0.1074;9.0222;
1002.3000;0.1099;9.0318;
1002.6000;0.1074;9.0270;
1002.9000;0.1083;9.0246;
1003.2000;0.1050;9.0150;
1003.5000;0.1058;9.0150;
1003.8000;0.1042;9.0102;
1004.1000;0.1058;9.0126;
1004.4000;0.1009;8.9982;
1004.7000;0.1058;9.0078;
1005.0000;0.1074;9.0054;
1005.3000;0.1034;8.9934;
1005.6000;0.1058;8.9982;
1005.9000;0.1066;9.0030;
1006.2000;0.1042;8.9958;
1006.5000;0.1058;9.0006;
1006.8000;0.1026;8.9839;
1007.1000;0.1083;9.0006;
1007.4000;0.1050;8.9982;
1007.7000;0.1066;9.0054;
1008.0000;0.1050;9.0054;
1008.3000;0.1091;9.0198;
1008.6000;0.1099;9.0222;
1008.9000;0.1083;9.0102;
1009.2000;0.1074;9.0078;
1009.5000;0.1091;9.0102;
1009.8000;0.1034;8.9958;
1010.1000;0.1066;9.0078;
1010.4000;0.1050;9.0078;
1010.7000;0.1058;9.0102;
1011.0000;0.1058;9.0102;
1011.3000;0.1058;9.0150;
1011.6000;0.1042;9.0030;
1011.9000;0.1058;9.0054;
1012.2000;0.1058;9.0030;
1012.5000;0.1034;8.9982;
1012.8000;0.1066;9.0150;
1013.1000;0.1034;9.0054;
1013.4000;0.1009;9.0006;
1013.7000;0.1066;9.0102;
1014.0000;0.1009;8.9934;
1014.3000;0.1042;9.0030;
1014.6000;0.1074;9.0078;
1014.9000;0.1099;9.0150;
1015.2000;0.1058;9.0126;
1015.5000;0.1066;9.0102;
1015.8000;0.1099;9.0126;
1016.1000;0.1066;9.0054;
1016.4000;0.1083;8.9982;
1016.7000;0.1083;8.9958;
1017.0000;0.1172;9.0078;
1017.3000;0.1066;8.9839;
1017.6000;0.1066;8.9863;
1017.9000;0.1099;8.9982;
1018.2000;0.1091;8.9887;
1018.5000;0.1099;8.9958;
1018.8000;0.1083;8.9934;
1019.1000;0.1058;8.9839;
1019.4000;0.1091;8.9911;
1019.7000;0.1083;8.9863;
1020.0000;0.1074;8.9815;
1020.3000;0.1050;8.9743;
1020.6000;0.1058;8.9743;
1020.9000;0.1066;8.9815;
1021.2000;0.1050;8.9815;
1021.5000;0.1083;8.9911;
1021.8000;0.1074;8.9934;
1022.1000;0.1074;9.0030;
1022.4000;0.1074;9.0078;
1022.7000;0.1107;9.0102;
1023.0000;0.1074;9.0078;
1023.3000;0.1099;9.0150;
1023.6000;0.1066;9.0102;
1023.9000;0.1066;9.0030;
1024.2000;0.1050;8.9958;
1024.5000;0.1058;9.0030;
1024.8000;0.1050;9.0078;
1025.1000;0.1058;9.0102;
1025.4000;0.0961;8.9887;
1025.7000;0.1042;9.0174;
1026.0000;0.1058;9.0198;
1026.3000;0.1058;9.0222;
1026.6000;0.1050;9.0174;
1026.9000;0.1034;9.0150;
1027.2000;0.1066;9.0270;
1027.5000;0.1058;9.0270;
1027.8000;0.1083;9.0318;
1028.1000;0.1074;9.0246;
1028.4000;0.1074;9.0270;
1028.7000;0.1074;9.0246;
1029.0000;0.1066;9.0222;
1029.3000;0.1058;9.0198;
1029.6000;0.1066;9.0198;
1029.9000;0.1058;9.0174;
1030.2000;0.1058;9.0126;
1030.5000;0.1058;9.0078;
1030.8000;0.1058;9.0102;
1031.1000;0.1050;9.0102;
1031.4000;0.1058;9.0174;
1031.7000;0.1042;9.0126;
1032.0000;0.1034;9.0174;
1032.3000;0.1074;9.0294;
1032.6000;0.1058;9.0174;
1032.9000;0.1148;9.0437;
1033.2000;0.1074;9.0174;
1033.5000;0.1074;9.0246;
1033.8000;0.1050;9.0246;
1034.1000;0.1058;9.0222;
1034.4000;0.1050;9.0222;
1034.7000;0.1156;9.0437;
1035.0000;0.1091;9.0150;
1035.3000;0.1091;9.0246;
1035.6000;0.1074;9.0198;
1035.9000;0.1058;9.0102;
1036.2000;0.1058;9.0126;
1036.5000;0.1066;9.0174;
1036.8000;0.1058;9.0222;
1037.1000;0.1083;9.0270;
1037.4000;0.1091;9.0342;
1037.7000;0.1123;9.0533;
1038.0000;0.1050;9.0342;
1038.3000;0.1058;9.0342;
1038.6000;0.1050;9.0270;
1038.9000;0.1066;9.0342;
1039.2000;0.1066;9.0413;
1039.5000;0.1074;9.0366;
1039.8000;0.1066;9.0390;
1040.1000;0.1083;9.0413;
1040.4000;0.1074;9.0342;
1040.7000;0.1066;9.0342;
1041.0000;0.1115;9.0509;
1041.3000;0.1074;9.0461;
1041.6000;0.1131;9.0605;
1041.9000;0.1074;9.0509;
1042.2000;0.1074;9.0485;
1042.5000;0.1058;9.0413;
1042.8000;0.1091;9.0509;
1043.1000;0.1050;9.0413;
1043.4000;0.1091;9.0437;
1043.7000;0.1074;9.0390;
1044.0000;0.1066;9.0390;
1044.3000;0.1074;9.0270;
1044.6000;0.1050;9.0246;
1044.9000;0.1058;9.0294;
1045.2000;0.1050;9.0270;
1045.5000;0.1050;9.0318;
1045.8000;0.1083;9.0413;
1046.1000;0.1066;9.0437;
1046.4000;0.1066;9.0461;
1046.7000;0.1050;9.0437;
1047.0000;0.1058;9.0366;
1047.3000;0.1050;9.0318;
1047.6000;0.1058;9.0461;
1047.9000;0.1058;9.0366;
1048.2000;0.1042;9.0222;
1048.5000;0.1042;9.0270;
1048.8000;0.1058;9.0318;
1049.1000;0.1091;9.0174;
1049.4000;0.1083;9.0174;
1049.7000;0.1042;9.0126;
1050.0000;0.1091;9.0294;
1050.3000;0.1091;9.0294;
1050.6000;0.1042;9.0294;
1050.9000;0.1066;9.0390;
1051.2000;0.0993;9.0246;
1051.5000;0.1042;9.0294;
1051.8000;0.1042;9.0270;
1052.1000;0.1066;9.0246;
1052.4000;0.1066;9.0342;
1052.7000;0.1131;9.0485;
1053.0000;0.1156;9.0653;
1053.3000;0.1099;9.0509;
1053.6000;0.1058;9.0413;
1053.9000;0.1026;9.0342;
1054.2000;0.1042;9.0294;
1054.5000;0.1091;9.0366;
1054.8000;0.1148;9.0605;
1055.1000;0.1074;9.0390;
1055.4000;0.1050;9.0366;
1055.7000;0.1058;9.0246;
1056.0000;0.1074;9.0294;
1056.3000;0.1001;9.0198;
1056.6000;0.1042;9.0270;
1056.9000;0.1066;9.0461;
1057.2000;0.1034;9.0461;
1057.5000;0.1042;9.0390;
1057.8000;0.1074;9.0390;
1058.1000;0.1026;9.0198;
1058.4000;0.1042;9.0222;
1058.7000;0.1034;9.0246;
1059.0000;0.1042;9.0222;
1059.3000;0.1083;9.0342;
1059.6000;0.1066;9.0318;
1059.9000;0.1058;9.0342;
1060.2000;0.1066;9.0437;
1060.5000;0.1107;9.0413;
1060.8000;0.1066;9.0342;
1061.1000;0.1058;9.0461;
1061.4000;0.1050;9.0318;
1061.7000;0.1074;9.0390;
1062.0000;0.1050;9.0342;
1062.3000;0.1066;9.0294;
1062.6000;0.1074;9.0318;
1062.9000;0.1042;9.0294;
1063.2000;0.1050;9.0246;
1063.5000;0.1042;9.0198;
1063.8000;0.1042;9.0174;
1064.1000;0.1066;9.0246;
1064.4000;0.1066;9.0150;
1064.7000;0.1066;9.0126;
1065.0000;0.1050;9.0294;
1065.3000;0.1066;9.0294;
1065.6000;0.1074;9.0318;
1065.9000;0.1058;9.0222;
1066.2000;0.1042;9.0174;
1066.5000;0.1058;9.0222;
1066.8000;0.1058;9.0198;
1067.1000;0.1066;9.0246;
1067.4000;0.1058;9.0198;
1067.7000;0.1066;9.0294;
1068.0000;0.1050;9.0342;
1068.3000;0.1034;9.0318;
1068.6000;0.1042;9.0342;
1068.9000;0.1074;9.0413;
1069.2000;0.1058;9.0342;
1069.5000;0.1083;9.0413;
1069.8000;0.1042;9.0366;
1070.1000;0.1050;9.0294;
1070.4000;0.1115;9.0533;
1070.7000;0.1050;9.0342;
1071.0000;0.1074;9.0366;
1071.3000;0.1066;9.0366;
1071.6000;0.1058;9.0390;
1071.9000;0.1001;9.0366;
1072.2000;0.1009;9.0270;
1072.5000;0.1058;9.0342;
1072.8000;0.1066;9.0318;
1073.1000;0.1034;9.0366;
1073.4000;0.1083;9.0461;
1073.7000;0.1058;9.0366;
1074.0000;0.1083;9.0509;
1074.3000;0.1042;9.0437;
1074.6000;0.1074;9.0461;
1074.9000;0.1042;9.0270;
1075.2000;0.1091;9.0366;
1075.5000;0.1066;9.0342;
1075.8000;0.1058;9.0437;
1076.1000;0.1050;9.0461;
1076.4000;0.1042;9.0437;
1076.7000;0.1050;9.0390;
1077.0000;0.1066;9.0461;
1077.3000;0.1091;9.0461;
1077.6000;0.1058;9.0390;
1077.9000;0.1066;9.0437;
1078.2000;0.1131;9.0653;
1078.5000;0.1099;9.0485;
1078.8000;0.1091;9.0294;
1079.1000;0.1018;9.0150;
1079.4000;0.1066;9.0294;
1079.7000;0.1058;9.0318;
1080.0000;0.1009;9.0222;
1080.3000;0.1107;9.0485;
1080.6000;0.1058;9.0294;
1080.9000;0.1066;9.0294;
1081.2000;0.1123;9.0437;
1081.5000;0.1042;9.0198;
1081.8000;0.1066;9.0222;
1082.1000;0.1058;9.0270;
1082.4000;0.1050;9.0222;
1082.7000;0.1042;9.0294;
1083.0000;0.1042;9.0246;
1083.3000;0.1083;9.0342;
1083.6000;0.1058;9.0318;
1083.9000;0.1034;9.0270;
1084.2000;0.1074;9.0437;
1084.5000;0.1074;9.0413;
1084.8000;0.1066;9.0509;
1085.1000;0.1050;9.0509;
1085.4000;0.1042;9.0390;
1085.7000;0.1050;9.0437;
1086.0000;0.1042;9.0437;
1086.3000;0.1058;9.0437;
1086.6000;0.1042;9.0437;
1086.9000;0.1066;9.0581;
1087.2000;0.1091;9.0749;
1087.5000;0.1066;9.0629;
1087.8000;0.1066;9.0509;
1088.1000;0.1140;9.0725;
1088.4000;0.1058;9.0485;
1088.7000;0.1083;9.0437;
1089.0000;0.1050;9.0270;
1089.3000;0.1083;9.0366;
1089.6000;0.1099;9.0509;
1089.9000;0.1066;9.0413;
1090.2000;0.1066;9.0390;
1090.5000;0.1042;9.0318;
1090.8000;0.1107;9.0461;
1091.1000;0.1066;9.0222;
1091.4000;0.1050;9.0150;
1091.7000;0.1009;9.0102;
1092.0000;0.1074;9.0246;
1092.3000;0.1034;9.0150;
1092.6000;0.1042;9.0198;
1092.9000;0.1066;9.0294;
1093.2000;0.0952;8.9958;
1093.5000;0.1123;9.0318;
1093.8000;0.1115;9.0222;
1094.1000;0.1074;9.0150;
1094.4000;0.1042;9.0198;
1094.7000;0.1074;9.0270;
1095.0000;0.1050;9.0198;
1095.3000;0.1058;9.0246;
1095.6000;0.1066;9.0437;
1095.9000;0.1074;9.0366;
1096.2000;0.1123;9.0485;
1096.5000;0.1050;9.0342;
1096.8000;0.1042;9.0342;
1097.1000;0.1083;9.0318;
1097.4000;0.1066;9.0294;
1097.7000;0.1050;9.0222;
1098.0000;0.1083;9.0198;
1098.3000;0.1099;9.0198;
1098.6000;0.1066;9.0198;
1098.9000;0.1066;9.0270;
1099.2000;0.1058;9.0294;
1099.5000;0.1058;9.0270;
1099.8000;0.1131;9.0413;
1100.1000;0.1074;9.0270;
1100.4000;0.1074;9.0318;
1100.7000;0.1083;9.0270;
1101.0000;0.1050;9.0318;
1101.3000;0.1058;9.0342;
1101.6000;0.1050;9.0342;
1101.9000;0.1172;9.0701;
1102.2000;0.1042;9.0437;
1102.5000;0.1050;9.0437;
1102.8000;0.1050;9.0413;
1103.1000;0.1066;9.0342;
1103.4000;0.0993;9.0222;
1103.7000;0.1074;9.0390;
1104.0000;0.1009;9.0222;
1104.3000;0.1050;9.0342;
1104.6000;0.1066;9.0366;
1104.9000;0.1099;9.0390;
1105.2000;0.1066;9.0294;
1105.5000;0.1066;9.0222;
1105.8000;0.1066;9.0198;
1106.1000;0.1074;9.0198;
1106.4000;0.1058;9.0198;
1106.7000;0.1058;9.0246;
1107.0000;0.1050;9.0222;
1107.3000;0.1058;9.0294;
1107.6000;0.1083;9.0270;
1107.9000;0.1123;9.0318;
1108.2000;0.1066;9.0222;
1108.5000;0.1074;9.0294;
1108.8000;0.1050;9.0174;
1109.1000;0.1034;9.0078;
1109.4000;0.1091;9.0222;
1109.7000;0.1074;9.0174;
1110.0000;0.1083;9.0126;
1110.3000;0.1083;9.0174;
1110.6000;0.1066;9.0150;
1110.9000;0.1050;9.0126;
1111.2000;0.1066;9.0246;
1111.5000;0.1074;9.0270;
1111.8000;0.1066;9.0318;
1112.1000;0.1058;9.0246;
1112.4000;0.1083;9.0318;
1112.7000;0.1083;9.0294;
1113.0000;0.1066;9.0270;
1113.3000;0.1050;9.0222;
1113.6000;0.1050;9.0318;
1113.9000;0.1042;9.0390;
1114.2000;0.1042;9.0294;
1114.5000;0.1050;9.0413;
1114.8000;0.1074;9.0390;
1115.1000;0.1050;9.0366;
1115.4000;0.1058;9.0342;
1115.7000;0.1058;9.0366;
1116.0000;0.1083;9.0437;
1116.3000;0.1066;9.0390;
1116.6000;0.1050;9.0390;
1116.9000;0.1001;9.0198;
1117.2000;0.1034;9.0150;
1117.5000;0.1050;9.0222;
1117.8000;0.1099;9.0342;
1118.1000;0.1050;9.0318;
1118.4000;0.1058;9.0318;
1118.7000;0.1058;9.0437;
1119.0000;0.1083;9.0485;
1119.3000;0.1066;9.0366;
1119.6000;0.1074;9.0342;
1119.9000;0.1050;9.0390;
1120.2000;0.1058;9.0390;
1120.5000;0.1058;9.0246;
1120.8000;0.1066;9.0126;
1121.1000;0.1091;9.0174;
1121.4000;0.1066;9.0150;
1121.7000;0.1083;9.0150;
1122.0000;0.1050;9.0150;
1122.3000;0.1074;9.0174;
1122.6000;0.1115;9.0318;
1122.9000;0.1058;9.0270;
1123.2000;0.1058;9.0318;
1123.5000;0.1083;9.0366;
1123.8000;0.1050;9.0294;
1124.1000;0.1091;9.0366;
1124.4000;0.1034;9.0246;
1124.7000;0.1074;9.0366;
1125.0000;0.0985;9.0078;
1125.3000;0.1083;9.0318;
1125.6000;0.1050;9.0294;
1125.9000;0.1042;9.0366;
1126.2000;0.1058;9.0461;
1126.5000;0.1066;9.0533;
1126.8000;0.0928;9.0366;
1127.1000;0.1050;9.0677;
1127.4000;0.1074;9.0725;
1127.7000;0.1058;9.0581;
1128.0000;0.1050;9.0533;
1128.3000;0.1058;9.0461;
1128.6000;0.1050;9.0342;
1128.9000;0.1058;9.0270;
1129.2000;0.1074;9.0318;
1129.5000;0.1074;9.0294;
1129.8000;0.1083;9.0390;
1130.1000;0.1042;9.0294;
1130.4000;0.1083;9.0342;
1130.7000;0.1074;9.0318;
1131.0000;0.1091;9.0342;
1131.3000;0.1074;9.0270;
1131.6000;0.1074;9.0246;
1131.9000;0.1058;9.0246;
1132.2000;0.1058;9.0270;
1132.5000;0.1074;9.0318;
1132.8000;0.1074;9.0366;
1133.1000;0.1058;9.0294;
1133.4000;0.1066;9.0318;
1133.7000;0.1066;9.0294;
1134.0000;0.1066;9.0150;
1134.3000;0.1074;9.0102;
1134.6000;0.1148;9.0246;
1134.9000;0.1058;9.0006;
1135.2000;0.1058;8.9982;
1135.5000;0.1148;9.0246;
1135.8000;0.1050;9.0054;
1136.1000;0.1058;9.0102;
1136.4000;0.1058;9.0150;
1136.7000;0.1091;9.0246;
1137.0000;0.1074;9.0222;
1137.3000;0.1066;9.0222;
1137.6000;0.1050;9.0270;
1137.9000;0.1050;9.0270;
1138.2000;0.1058;9.0222;
1138.5000;0.1050;9.0222;
1138.8000;0.1009;9.0126;
1139.1000;0.1074;9.0294;
1139.4000;0.1066;9.0461;
1139.7000;0.1058;9.0437;
1140.0000;0.1091;9.0485;
1140.3000;0.1034;9.0366;
1140.6000;0.1091;9.0413;
1140.9000;0.1099;9.0437;
1141.2000;0.1058;9.0485;
1141.5000;0.1066;9.0485;
1141.8000;0.1099;9.0533;
1142.1000;0.1074;9.0485;
1142.4000;0.1050;9.0485;
1142.7000;0.1050;9.0342;
1143.0000;0.1050;9.0366;
1143.3000;0.1074;9.0318;
1143.6000;0.1058;9.0342;
1143.9000;0.1074;9.0413;
1144.2000;0.1091;9.0437;
1144.5000;0.1083;9.0485;
1144.8000;0.1074;9.0461;
1145.1000;0.1042;9.0294;
1145.4000;0.1074;9.0390;
1145.7000;0.1083;9.0413;
1146.0000;0.1074;9.0390;
1146.3000;0.1058;9.0366;
1146.6000;0.1066;9.0413;
1146.9000;0.1009;9.0294;
1147.2000;0.1066;9.0342;
1147.5000;0.1140;9.0533;
1147.8000;0.1042;9.0342;
1148.1000;0.1050;9.0318;
1148.4000;0.1042;9.0174;
1148.7000;0.1091;9.0270;
1149.0000;0.1140;9.0485;
1149.3000;0.1058;9.0318;
1149.6000;0.1018;9.0150;
1149.9000;0.1058;9.0054;
1150.2000;0.1091;9.0126;
1150.5000;0.1058;9.0006;
1150.8000;0.1066;9.0078;
1151.1000;0.1066;9.0102;
1151.4000;0.1050;9.0126;
1151.7000;0.1066;9.0246;
1152.0000;0.1083;9.0198;
1152.3000;0.1009;9.0078;
1152.6000;0.1058;9.0126;
1152.9000;0.1042;9.0054;
1153.2000;0.1074;9.0198;
1153.5000;0.1131;9.0366;
1153.8000;0.1050;9.0174;
1154.1000;0.1066;9.0150;
1154.4000;0.1066;9.0126;
1154.7000;0.1083;9.0126;
1155.0000;0.1074;9.0150;
1155.3000;0.1115;9.0294;
1155.6000;0.1042;9.0126;
1155.9000;0.1074;9.0102;
1156.2000;0.1050;9.0126;
1156.5000;0.0952;8.9839;
1156.8000;0.1058;9.0102;
1157.1000;0.1058;9.0126;
1157.4000;0.1058;9.0150;
1157.7000;0.1066;9.0150;
1158.0000;0.1058;9.0246;
1158.3000;0.1050;9.0198;
1158.6000;0.1042;9.0126;
1158.9000;0.1050;9.0054;
1159.2000;0.1066;9.0150;
1159.5000;0.1042;9.0174;
1159.8000;0.1066;9.0174;
1160.1000;0.1066;9.0150;
1160.4000;0.1042;9.0054;
1160.7000;0.1042;8.9958;
1161.0000;0.1058;9.0006;
1161.3000;0.1034;8.9863;
1161.6000;0.1058;8.9958;
1161.9000;0.1042;8.9958;
1162.2000;0.1050;9.0054;
1162.5000;0.1058;9.0126;
1162.8000;0.1042;9.0150;
1163.1000;0.1042;9.0198;
1163.4000;0.1083;9.0222;
1163.7000;0.1074;9.0198;
1164.0000;0.1050;9.0246;
1164.3000;0.1066;9.0342;
1164.6000;0.1083;9.0437;
1164.9000;0.1001;9.0174;
1165.2000;0.1083;9.0270;
1165.5000;0.1058;9.0126;
1165.8000;0.1115;9.0246;
1166.1000;0.1074;9.0198;
1166.4000;0.1074;9.0126;
1166.7000;0.1058;9.0150;
1167.0000;0.1058;9.0102;
1167.3000;0.1066;9.0198;
1167.6000;0.0961;8.9911;
1167.9000;0.1140;9.0294;
1168.2000;0.1050;9.0006;
1168.5000;0.1074;9.0030;
1168.8000;0.1058;9.0030;
1169.1000;0.1066;8.9982;
1169.4000;0.1050;9.0006;
1169.7000;0.1074;9.0126;
1170.0000;0.1099;9.0174;
1170.3000;0.1058;9.0174;
1170.6000;0.1042;9.0150;
1170.9000;0.1058;9.0174;
1171.2000;0.1050;9.0222;
1171.5000;0.0977;9.0078;
1171.8000;0.1066;9.0246;
1172.1000;0.1107;9.0366;
1172.4000;0.1001;9.0174;
1172.7000;0.1180;9.0533;
1173.0000;0.1042;9.0174;
1173.3000;0.1083;9.0150;
1173.6000;0.1066;9.0054;
1173.9000;0.1050;9.0030;
1174.2000;0.1107;9.0198;
1174.5000;0.1050;9.0054;
1174.8000;0.1058;9.0078;
1175.1000;0.1066;9.0126;
1175.4000;0.1066;9.0150;
1175.7000;0.1034;9.0150;
1176.0000;0.1115;9.0342;
1176.3000;0.1074;9.0318;
1176.6000;0.1018;9.0150;
1176.9000;0.1050;9.0246;
1177.2000;0.1050;9.0246;
1177.5000;0.1001;9.0078;
1177.8000;0.1050;9.0294;
1178.1000;0.1074;9.0342;
1178.4000;0.1066;9.0318;
1178.7000;0.1066;9.0413;
1179.0000;0.1083;9.0437;
1179.3000;0.1058;9.0366;
1179.6000;0.1083;9.0437;
1179.9000;0.1083;9.0390;
1180.2000;0.1066;9.0270;
1180.5000;0.1042;9.0198;
1180.8000;0.1018;9.0174;
1181.1000;0.1050;9.0198;
1181.4000;0.1042;9.0150;
1181.7000;0.1018;9.0054;
1182.0000;0.1034;9.0150;
1182.3000;0.1058;9.0246;
1182.6000;0.1131;9.0366;
1182.9000;0.1050;9.0222;
1183.2000;0.0993;9.0198;
1183.5000;0.1050;9.0270;
1183.8000;0.1074;9.0366;
1184.1000;0.1042;9.0366;
1184.4000;0.1074;9.0390;
1184.7000;0.1058;9.0294;
1185.0000;0.1074;9.0437;
1185.3000;0.1050;9.0390;
1185.6000;0.1066;9.0461;
1185.9000;0.1050;9.0485;
1186.2000;0.0961;9.0366;
1186.5000;0.1050;9.0485;
1186.8000;0.1042;9.0413;
1187.1000;0.1058;9.0533;
1187.4000;0.1074;9.0509;
1187.7000;0.1074;9.0390;
1188.0000;0.1034;9.0318;
1188.3000;0.1009;9.0318;
1188.6000;0.1018;9.0294;
1188.9000;0.1058;9.0342;
1189.2000;0.1042;9.0318;
1189.5000;0.1058;9.0318;
1189.8000;0.1066;9.0318;
1190.1000;0.1050;9.0318;
1190.4000;0.1074;9.0342;
1190.7000;0.1058;9.0318;
1191.0000;0.1066;9.0342;
1191.3000;0.1074;9.0366;
1191.6000;0.1066;9.0413;
1191.9000;0.1058;9.0461;
1192.2000;0.1058;9.0390;
1192.5000;0.1058;9.0318;
1192.8000;0.1058;9.0222;
1193.1000;0.1058;9.0246;
1193.4000;0.1066;9.0222;
1193.7000;0.1083;9.0318;
1194.0000;0.1066;9.0294;
1194.3000;0.1066;9.0246;
1194.6000;0.1034;9.0174;
1194.9000;0.1026;9.0126;
1195.2000;0.1026;9.0030;
1195.5000;0.1083;9.0198;
1195.8000;0.1066;9.0078;
1196.1000;0.1099;9.0198;
1196.4000;0.1074;9.0126;
1196.7000;0.1066;9.0174;
1197.0000;0.1050;9.0270;
1197.3000;0.1042;9.0246;
1197.6000;0.1050;9.0318;
1197.9000;0.1074;9.0366;
1198.2000;0.1074;9.0246;
1198.5000;0.1034;9.0246;
1198.8000;0.1042;9.0246;
1199.1000;0.1018;9.0174;
1199.4000;0.1050;9.0222;
1199.7000;0.1058;9.0198;
1200.0000;0.1042;9.0246;
1200.3000;0.1050;9.0366;
1200.6000;0.1058;9.0437;
1200.9000;0.1164;9.0773;
1201.2000;0.1074;9.0509;
1201.5000;0.1074;9.0485;
1201.8000;0.1066;9.0509;
1202.1000;0.1050;9.0413;
1202.4000;0.1050;9.0342;
1202.7000;0.1083;9.0437;
1203.0000;0.1001;9.0246;
1203.3000;0.1074;9.0413;
1203.6000;0.1042;9.0366;
1203.9000;0.1042;9.0342;
1204.2000;0.1058;9.0270;
1204.5000;0.1074;9.0366;
1204.8000;0.1066;9.0366;
1205.1000;0.1058;9.0366;
1205.4000;0.1066;9.0318;
1205.7000;0.1058;9.0366;
1206.0000;0.1083;9.0390;
1206.3000;0.1050;9.0390;
1206.6000;0.1050;9.0485;
1206.9000;0.1058;9.0413;
1207.2000;0.1058;9.0390;
1207.5000;0.1058;9.0413;
1207.8000;0.1058;9.0294;
1208.1000;0.1058;9.0366;
1208.4000;0.1107;9.0461;
1208.7000;0.1099;9.0413;
1209.0000;0.1058;9.0342;
1209.3000;0.1018;9.0270;
1209.6000;0.1066;9.0366;
1209.9000;0.1034;9.0318;
1210.2000;0.1074;9.0437;
1210.5000;0.1026;9.0437;
1210.8000;0.1042;9.0485;
1211.1000;0.1026;9.0509;
1211.4000;0.0977;9.0318;
1211.7000;0.1058;9.0557;
1212.0000;0.1058;9.0437;
1212.3000;0.1026;9.0413;
1212.6000;0.1042;9.0437;
1212.9000;0.1058;9.0437;
1213.2000;0.1058;9.0461;
1213.5000;0.1058;9.0485;
1213.8000;0.1042;9.0390;
1214.1000;0.1074;9.0413;
1214.4000;0.1066;9.0437;
1214.7000;0.1066;9.0413;
1215.0000;0.1066;9.0294;
1215.3000;0.1058;9.0413;
1215.6000;0.1074;9.0485;
1215.9000;0.1042;9.0366;
1216.2000;0.1066;9.0413;
1216.5000;0.1042;9.0366;
1216.8000;0.1140;9.0557;
1217.1000;0.1083;9.0413;
1217.4000;0.1042;9.0413;
1217.7000;0.1058;9.0390;
1218.0000;0.1058;9.0485;
1218.3000;0.1066;9.0581;
1218.6000;0.1058;9.0557;
1218.9000;0.1050;9.0605;
1219.2000;0.1058;9.0557;
1219.5000;0.1058;9.0413;
1219.8000;0.1188;9.0701;
1220.1000;0.1083;9.0342;
1220.4000;0.1083;9.0342;
1220.7000;0.1083;9.0366;
1221.0000;0.1050;9.0366;
1221.3000;0.1058;9.0437;
1221.6000;0.1034;9.0390;
1221.9000;0.1091;9.0437;
1222.2000;0.1074;9.0390;
1222.5000;0.1058;9.0366;
1222.8000;0.1091;9.0461;
1223.1000;0.1050;9.0390;
1223.4000;0.1058;9.0390;
1223.7000;0.1034;9.0318;
1224.0000;0.1058;9.0318;
1224.3000;0.1083;9.0294;
1224.6000;0.1107;9.0294;
1224.9000;0.1034;9.0126;
1225.2000;0.1066;9.0150;
1225.5000;0.1074;9.0246;
1225.8000;0.1083;9.0342;
1226.1000;0.1050;9.0390;
1226.4000;0.1066;9.0461;
1226.7000;0.1058;9.0461;
1227.0000;0.1066;9.0437;
1227.3000;0.1066;9.0437;
1227.6000;0.1123;9.0581;
1227.9000;0.1131;9.0629;
1228.2000;0.1026;9.0318;
1228.5000;0.1026;9.0270;
1228.8000;0.1050;9.0342;
1229.1000;0.1058;9.0342;
1229.4000;0.1091;9.0461;
1229.7000;0.1058;9.0342;
1230.0000;0.1074;9.0366;
1230.3000;0.1066;9.0366;
1230.6000;0.1050;9.0294;
1230.9000;0.1074;9.0390;
1231.2000;0.1058;9.0342;
1231.5000;0.1058;9.0366;
1231.8000;0.1034;9.0246;
1232.1000;0.1050;9.0246;
1232.4000;0.1050;9.0198;
1232.7000;0.1034;9.0174;
1233.0000;0.1058;9.0102;
1233.3000;0.1001;8.9934;
1233.6000;0.1058;9.0102;
1233.9000;0.1066;9.0174;
1234.2000;0.1066;9.0174;
1234.5000;0.1066;9.0222;
1234.8000;0.1066;9.0198;
1235.1000;0.1066;9.0174;
1235.4000;0.1042;9.0222;
1235.7000;0.1050;9.0437;
1236.0000;0.1050;9.0461;
1236.3000;0.1042;9.0390;
1236.6000;0.1091;9.0557;
1236.9000;0.1091;9.0605;
1237.2000;0.1066;9.0509;
1237.5000;0.1058;9.0413;
1237.8000;0.0969;9.0222;
1238.1000;0.1050;9.0342;
1238.4000;0.1058;9.0342;
1238.7000;0.1074;9.0390;
1239.0000;0.1001;9.0270;
1239.3000;0.1058;9.0509;
1239.6000;0.1074;9.0581;
1239.9000;0.1050;9.0485;
1240.2000;0.1066;9.0533;
1240.5000;0.1058;9.0461;
1240.8000;0.1091;9.0509;
1241.1000;0.1074;9.0461;
1241.4000;0.1074;9.0437;
1241.7000;0.1058;9.0366;
1242.0000;0.1066;9.0390;
1242.3000;0.1074;9.0413;
1242.6000;0.1066;9.0437;
1242.9000;0.1026;9.0342;
1243.2000;0.1058;9.0342;
1243.5000;0.1083;9.0413;
1243.8000;0.0993;9.0246;
1244.1000;0.1042;9.0461;
1244.4000;0.1050;9.0390;
1244.7000;0.1083;9.0461;
1245.0000;0.1083;9.0390;
1245.3000;0.1074;9.0342;
1245.6000;0.1074;9.0270;
1245.9000;0.1018;9.0150;
1246.2000;0.1083;9.0246;
1246.5000;0.1066;9.0318;
1246.8000;0.1074;9.0342;
1247.1000;0.1058;9.0270;
1247.4000;0.1066;9.0294;
1247.7000;0.1058;9.0126;
1248.0000;0.1107;9.0198;
1248.3000;0.1074;9.0102;
1248.6000;0.1066;9.0246;
1248.9000;0.1074;9.0294;
1249.2000;0.1066;9.0222;
1249.5000;0.1026;9.0102;
1249.8000;0.1042;9.0174;
1250.1000;0.1050;9.0246;
1250.4000;0.1074;9.0318;
1250.7000;0.1058;9.0294;
1251.0000;0.1083;9.0390;
1251.3000;0.1058;9.0342;
1251.6000;0.1058;9.0342;
1251.9000;0.1058;9.0270;
1252.2000;0.1066;9.0342;
1252.5000;0.1066;9.0342;
1252.8000;0.1074;9.0342;
1253.1000;0.1066;9.0318;
1253.4000;0.1083;9.0342;
1253.7000;0.1131;9.0437;
1254.0000;0.1058;9.0246;
1254.3000;0.1050;9.0246;
1254.6000;0.1058;9.0174;
1254.9000;0.1066;9.0174;
1255.2000;0.1107;9.0342;
1255.5000;0.1066;9.0294;
1255.8000;0.1066;9.0294;
1256.1000;0.1058;9.0270;
1256.4000;0.1066;9.0270;
1256.7000;0.1083;9.0366;
1257.0000;0.1042;9.0318;
1257.3000;0.1026;9.0366;
1257.6000;0.1050;9.0437;
1257.9000;0.1074;9.0413;
1258.2000;0.1050;9.0294;
1258.5000;0.1115;9.0461;
1258.8000;0.1026;9.0222;
1259.1000;0.1066;9.0318;
1259.4000;0.1042;9.0342;
1259.7000;0.1001;9.0222;
1260.0000;0.1074;9.0461;
1260.3000;0.1058;9.0437;
1260.6000;0.1074;9.0390;
1260.9000;0.1034;9.0294;
1261.2000;0.1058;9.0413;
1261.5000;0.1074;9.0413;
1261.8000;0.1050;9.0342;
1262.1000;0.1074;9.0461;
1262.4000;0.1058;9.0461;
1262.7000;0.1074;9.0533;
1263.0000;0.1123;9.0629;
1263.3000;0.1091;9.0485;
1263.6000;0.1042;9.0413;
1263.9000;0.1099;9.0437;
1264.2000;0.1074;9.0390;
1264.5000;0.1066;9.0366;
1264.8000;0.1066;9.0437;
1265.1000;0.1018;9.0222;
1265.4000;0.1042;9.0270;
1265.7000;0.1058;9.0270;
1266.0000;0.1123;9.0461;
1266.3000;0.1066;9.0318;
1266.6000;0.1050;9.0270;
1266.9000;0.1042;9.0174;
1267.2000;0.1050;9.0174;
1267.5000;0.1066;9.0318;
1267.8000;0.1074;9.0318;
1268.1000;0.1107;9.0366;
1268.4000;0.1058;9.0174;
1268.7000;0.1074;9.0198;
1269.0000;0.1074;9.0198;
1269.3000;0.1042;9.0222;
1269.6000;0.1034;9.0150;
1269.9000;0.1042;9.0198;
1270.2000;0.1074;9.0270;
1270.5000;0.1083;9.0294;
1270.8000;0.1066;9.0294;
1271.1000;0.1042;9.0294;
1271.4000;0.1074;9.0246;
1271.7000;0.1074;9.0246;
1272.0000;0.1131;9.0461;
1272.3000;0.1074;9.0366;
1272.6000;0.0985;9.0126;
1272.9000;0.1091;9.0413;
1273.2000;0.1083;9.0461;
1273.5000;0.1091;9.0485;
1273.8000;0.1083;9.0413;
1274.1000;0.1074;9.0413;
1274.4000;0.1058;9.0366;
1274.7000;0.1026;9.0222;
1275.0000;0.1050;9.0270;
1275.3000;0.1091;9.0461;
1275.6000;0.1050;9.0318;
1275.9000;0.1050;9.0390;
1276.2000;0.1058;9.0437;
1276.5000;0.1074;9.0509;
1276.8000;0.1026;9.0437;
1277.1000;0.1066;9.0533;
1277.4000;0.1034;9.0413;
1277.7000;0.1066;9.0437;
1278.0000;0.1058;9.0437;
1278.3000;0.1058;9.0485;
1278.6000;0.1066;9.0485;
1278.9000;0.1050;9.0485;
1279.2000;0.1034;9.0366;
1279.5000;0.1050;9.0366;
1279.8000;0.1066;9.0246;
1280.1000;0.1050;9.0222;
1280.4000;0.1050;9.0126;
1280.7000;0.1131;9.0342;
1281.0000;0.1091;9.0222;
1281.3000;0.1058;9.0102;
1281.6000;0.1074;9.0126;
1281.9000;0.1058;9.0126;
1282.2000;0.1066;9.0150;
1282.5000;0.1066;9.0126;
1282.8000;0.1107;9.0270;
1283.1000;0.1058;9.0126;
1283.4000;0.1050;9.0150;
1283.7000;0.1107;9.0294;
1284.0000;0.1099;9.0294;
1284.3000;0.1066;9.0342;
1284.6000;0.1026;9.0318;
1284.9000;0.1074;9.0366;
1285.2000;0.1050;9.0318;
1285.5000;0.1115;9.0485;
1285.8000;0.1107;9.0461;
1286.1000;0.1099;9.0413;
1286.4000;0.1050;9.0246;
1286.7000;0.1066;9.0366;
1287.0000;0.1083;9.0318;
1287.3000;0.1050;9.0246;
1287.6000;0.1058;9.0102;
1287.9000;0.1058;9.0102;
1288.2000;0.1066;9.0174;
1288.5000;0.1042;9.0198;
1288.8000;0.1074;9.0270;
1289.1000;0.1115;9.0318;
1289.4000;0.1074;9.0174;
1289.7000;0.1050;9.0126;
1290.0000;0.1026;9.0102;
1290.3000;0.1034;9.0126;
1290.6000;0.1083;9.0270;
1290.9000;0.1026;9.0150;
1291.2000;0.1042;9.0198;
1291.5000;0.1058;9.0222;
1291.8000;0.1066;9.0222;
1292.1000;0.1066;9.0198;
1292.4000;0.1074;9.0222;
1292.7000;0.1083;9.0198;
1293.0000;0.1009;9.0030;
1293.3000;0.1050;9.0150;
1293.6000;0.1083;9.0342;
1293.9000;0.1050;9.0246;
1294.2000;0.1058;9.0270;
1294.5000;0.1083;9.0413;
1294.8000;0.1050;9.0318;
1295.1000;0.1058;9.0318;
1295.4000;0.1058;9.0246;
1295.7000;0.1083;9.0198;
1296.0000;0.1107;9.0198;
1296.3000;0.1091;9.0174;
1296.6000;0.1164;9.0413;
1296.9000;0.1042;9.0198;
1297.2000;0.1066;9.0342;
1297.5000;0.1026;9.0246;
1297.8000;0.1058;9.0270;
1298.1000;0.1050;9.0270;
1298.4000;0.1058;9.0222;
1298.7000;0.1066;9.0270;
1299.0000;0.1058;9.0270;
1299.3000;0.1058;9.0342;
1299.6000;0.1058;9.0318;
1299.9000;0.1058;9.0198;
1300.2000;0.1074;9.0294;
1300.5000;0.1009;9.0102;
1300.8000;0.1058;9.0174;
1301.1000;0.1058;9.0126;
1301.4000;0.1050;9.0150;
1301.7000;0.1099;9.0294;
1302.0000;0.1058;9.0246;
1302.3000;0.1091;9.0366;
1302.6000;0.1042;9.0342;
1302.9000;0.1066;9.0294;
1303.2000;0.1083;9.0294;
1303.5000;0.0969;8.9982;
1303.8000;0.1034;9.0174;
1304.1000;0.1050;9.0174;
1304.4000;0.1050;9.0222;
1304.7000;0.1066;9.0198;
1305.0000;0.1058;9.0198;
1305.3000;0.1066;9.0294;
1305.6000;0.1050;9.0270;
1305.9000;0.1083;9.0270;
1306.2000;0.1074;9.0054;
1306.5000;0.1058;9.0102;
1306.8000;0.1066;9.0174;
1307.1000;0.1074;9.0174;
1307.4000;0.1123;9.0318;
1307.7000;0.1050;9.0198;
1308.0000;0.1050;9.0222;
1308.3000;0.1066;9.0102;
1308.6000;0.1066;9.0078;
1308.9000;0.1050;9.0054;
1309.2000;0.1058;9.0102;
1309.5000;0.1066;9.0246;
1309.8000;0.1058;9.0078;
1310.1000;0.1042;9.0006;
1310.4000;0.1050;8.9958;
1310.7000;0.1050;8.9887;
1311.0000;0.1066;9.0006;
1311.3000;0.1058;9.0030;
1311.6000;0.1050;9.0078;
1311.9000;0.1066;9.0054;
1312.2000;0.1066;9.0078;
1312.5000;0.1042;9.0030;
1312.8000;0.1066;9.0174;
1313.1000;0.1050;9.0126;
1313.4000;0.1058;9.0150;
1313.7000;0.1042;9.0078;
1314.0000;0.1066;9.0102;
1314.3000;0.1042;9.0006;
1314.6000;0.1058;9.0054;
1314.9000;0.1091;9.0126;
1315.2000;0.1074;9.0150;
1315.5000;0.1074;9.0198;
1315.8000;0.1058;9.0174;
1316.1000;0.1066;9.0246;
1316.4000;0.1018;9.0126;
1316.7000;0.1050;9.0174;
1317.0000;0.1123;9.0342;
1317.3000;0.1042;9.0126;
1317.6000;0.1074;9.0174;
1317.9000;0.1131;9.0342;
1318.2000;0.1066;9.0222;
1318.5000;0.1074;9.0318;
1318.8000;0.0969;9.0102;
1319.1000;0.1050;9.0222;
1319.4000;0.1074;9.0222;
1319.7000;0.1058;9.0222;
1320.0000;0.1050;9.0246;
1320.3000;0.1042;9.0246;
1320.6000;0.1066;9.0342;
1320.9000;0.1074;9.0294;
1321.2000;0.1083;9.0461;
1321.5000;0.1074;9.0533;
1321.8000;0.1074;9.0390;
1322.1000;0.1050;9.0294;
1322.4000;0.1083;9.0318;
1322.7000;0.1050;9.0246;
1323.0000;0.1050;9.0294;
1323.3000;0.1058;9.0270;
1323.6000;0.1058;9.0198;
1323.9000;0.1099;9.0174;
1324.2000;0.1058;8.9934;
1324.5000;0.1083;9.0078;
1324.8000;0.1066;9.0102;
1325.1000;0.1074;9.0102;
1325.4000;0.1042;9.0078;
1325.7000;0.1050;9.0150;
1326.0000;0.1042;9.0150;
1326.3000;0.1058;9.0318;
1326.6000;0.1042;9.0366;
1326.9000;0.1042;9.0246;
1327.2000;0.1034;9.0318;
1327.5000;0.1123;9.0581;
1327.8000;0.1074;9.0390;
1328.1000;0.1042;9.0222;
1328.4000;0.0985;9.0054;
1328.7000;0.1066;9.0270;
1329.0000;0.1066;9.0150;
1329.3000;0.1042;9.0078;
1329.6000;0.1058;9.0222;
1329.9000;0.1050;9.0174;
1330.2000;0.1050;9.0174;
1330.5000;0.1066;9.0222;
1330.8000;0.1058;9.0150;
1331.1000;0.1083;9.0174;
1331.4000;0.1058;9.0150;
1331.7000;0.1083;9.0222;
1332.0000;0.1050;9.0126;
1332.3000;0.1058;9.0078;
1332.6000;0.1042;9.0102;
1332.9000;0.1050;9.0150;
1333.2000;0.1058;9.0150;
1333.5000;0.1066;9.0126;
1333.8000;0.1050;9.0126;
1334.1000;0.1066;9.0078;
1334.4000;0.1058;9.0054;
1334.7000;0.1042;8.9982;
1335.0000;0.1066;9.0078;
1335.3000;0.1083;9.0126;
1335.6000;0.1074;8.9958;
1335.9000;0.1066;8.9958;
1336.2000;0.1058;9.0054;
1336.5000;0.1066;9.0030;
1336.8000;0.1050;9.0030;
1337.1000;0.1058;9.0150;
1337.4000;0.1066;9.0222;
1337.7000;0.1066;9.0174;
1338.0000;0.1034;9.0150;
1338.3000;0.1058;9.0150;
1338.6000;0.1042;8.9958;
1338.9000;0.1018;8.9958;
1339.2000;0.1066;9.0102;
1339.5000;0.1058;9.0102;
1339.8000;0.1058;9.0030;
1340.1000;0.1066;9.0078;
1340.4000;0.1050;9.0102;
1340.7000;0.1083;9.0270;
1341.0000;0.1058;9.0198;
1341.3000;0.1058;9.0126;
1341.6000;0.1066;9.0126;
1341.9000;0.1058;9.0150;
1342.2000;0.1066;9.0174;
1342.5000;0.1050;9.0222;
1342.8000;0.1026;9.0126;
1343.1000;0.1091;9.0270;
1343.4000;0.1026;9.0150;
1343.7000;0.0993;8.9934;
1344.0000;0.1066;9.0198;
1344.3000;0.1058;9.0270;
1344.6000;0.1026;9.0198;
1344.9000;0.1058;9.0270;
1345.2000;0.1066;9.0318;
1345.5000;0.1034;9.0294;
1345.8000;0.1042;9.0246;
1346.1000;0.1050;9.0342;
1346.4000;0.1058;9.0390;
1346.7000;0.1074;9.0390;
1347.0000;0.1050;9.0294;
1347.3000;0.1083;9.0318;
1347.6000;0.1066;9.0366;
1347.9000;0.1074;9.0485;
1348.2000;0.1058;9.0461;
1348.5000;0.1058;9.0413;
1348.8000;0.1074;9.0413;
1349.1000;0.1074;9.0557;
1349.4000;0.1058;9.0461;
1349.7000;0.1050;9.0366;
1350.0000;0.1009;9.0270;
1350.3000;0.1042;9.0294;
1350.6000;0.1066;9.0413;
1350.9000;0.1083;9.0533;
1351.2000;0.1066;9.0461;
1351.5000;0.1050;9.0390;
1351.8000;0.1180;9.0629;
1352.1000;0.1074;9.0294;
1352.4000;0.1050;9.0246;
1352.7000;0.1074;9.0390;
1353.0000;0.1066;9.0390;
1353.3000;0.1058;9.0437;
1353.6000;0.1066;9.0437;
1353.9000;0.1026;9.0413;
1354.2000;0.1050;9.0461;
1354.5000;0.1042;9.0342;
1354.8000;0.1042;9.0318;
1355.1000;0.1058;9.0294;
1355.4000;0.1050;9.0294;
1355.7000;0.1074;9.0413;
1356.0000;0.1058;9.0437;
1356.3000;0.1066;9.0461;
1356.6000;0.1074;9.0366;
1356.9000;0.1131;9.0509;
1357.2000;0.1066;9.0485;
1357.5000;0.1050;9.0390;
1357.8000;0.0977;9.0174;
1358.1000;0.1074;9.0318;
1358.4000;0.1074;9.0294;
1358.7000;0.1042;9.0246;
1359.0000;0.1009;9.0294;
1359.3000;0.1058;9.0342;
1359.6000;0.1058;9.0294;
1359.9000;0.1026;9.0222;
1360.2000;0.1066;9.0318;
1360.5000;0.1066;9.0294;
1360.8000;0.1050;9.0246;
1361.1000;0.1058;9.0318;
1361.4000;0.1066;9.0294;
1361.7000;0.1050;9.0270;
1362.0000;0.1083;9.0390;
1362.3000;0.1074;9.0246;
1362.6000;0.1115;9.0461;
1362.9000;0.1074;9.0366;
1363.2000;0.1066;9.0390;
1363.5000;0.1066;9.0461;
1363.8000;0.1058;9.0413;
1364.1000;0.1050;9.0437;
1364.4000;0.1050;9.0485;
1364.7000;0.1074;9.0461;
1365.0000;0.1026;9.0318;
1365.3000;0.1042;9.0318;
1365.6000;0.1050;9.0294;
1365.9000;0.1058;9.0294;
1366.2000;0.1042;9.0294;
1366.5000;0.1009;9.0150;
1366.8000;0.1074;9.0390;
1367.1000;0.1074;9.0342;
1367.4000;0.1099;9.0390;
1367.7000;0.1058;9.0246;
1368.0000;0.1058;9.0294;
1368.3000;0.1034;9.0246;
1368.6000;0.1066;9.0294;
1368.9000;0.1058;9.0342;
1369.2000;0.1050;9.0318;
1369.5000;0.1058;9.0342;
1369.8000;0.1066;9.0366;
1370.1000;0.1058;9.0294;
1370.4000;0.1034;9.0294;
1370.7000;0.1066;9.0390;
1371.0000;0.1042;9.0294;
1371.3000;0.1050;9.0366;
1371.6000;0.1091;9.0366;
1371.9000;0.1107;9.0318;
1372.2000;0.1050;9.0198;
1372.5000;0.1034;9.0078;
1372.8000;0.1140;9.0270;
1373.1000;0.1058;9.0150;
1373.4000;0.1083;9.0198;
1373.7000;0.1034;9.0054;
1374.0000;0.1050;9.0078;
1374.3000;0.1009;8.9934;
1374.6000;0.1083;9.0150;
1374.9000;0.1042;9.0006;
1375.2000;0.1058;9.0030;
1375.5000;0.1050;9.0078;
1375.8000;0.1099;9.0366;
1376.1000;0.1050;9.0270;
1376.4000;0.1091;9.0461;
1376.7000;0.1066;9.0461;
1377.0000;0.1083;9.0390;
1377.3000;0.1050;9.0270;
1377.6000;0.1074;9.0342;
1377.9000;0.1009;9.0246;
1378.2000;0.1058;9.0318;
1378.5000;0.1042;9.0246;
1378.8000;0.1074;9.0294;
1379.1000;0.1050;9.0318;
1379.4000;0.1034;9.0294;
1379.7000;0.1058;9.0366;
1380.0000;0.1107;9.0413;
1380.3000;0.1066;9.0294;
1380.6000;0.0985;9.0030;
1380.9000;0.1058;9.0294;
1381.2000;0.1050;9.0318;
1381.5000;0.1180;9.0581;
1381.8000;0.1074;9.0318;
1382.1000;0.1083;9.0294;
1382.4000;0.1034;9.0174;
1382.7000;0.1050;9.0126;
1383.0000;0.1074;9.0222;
1383.3000;0.1058;9.0222;
1383.6000;0.1058;9.0294;
1383.9000;0.0993;9.0102;
1384.2000;0.1066;9.0198;
1384.5000;0.1050;9.0102;
1384.8000;0.1058;9.0150;
1385.1000;0.1066;9.0222;
1385.4000;0.1066;9.0222;
1385.7000;0.1058;9.0246;
1386.0000;0.1058;9.0222;
1386.3000;0.1074;9.0222;
1386.6000;0.1074;9.0222;
1386.9000;0.1074;9.0054;
1387.2000;0.1074;9.0078;
1387.5000;0.1058;9.0054;
1387.8000;0.1091;9.0102;
1388.1000;0.1034;8.9958;
1388.4000;0.1099;9.0078;
1388.7000;0.1091;9.0078;
1389.0000;0.1074;9.0078;
1389.3000;0.1058;9.0054;
1389.6000;0.1066;9.0054;
1389.9000;0.1050;8.9982;
1390.2000;0.1091;9.0006;
1390.5000;0.1115;9.0078;
1390.8000;0.1083;8.9982;
1391.1000;0.1083;8.9982;
1391.4000;0.1050;9.0078;
1391.7000;0.1083;9.0126;
1392.0000;0.1058;9.0054;
1392.3000;0.1091;9.0222;
1392.6000;0.1050;9.0198;
1392.9000;0.1091;9.0366;
1393.2000;0.1066;9.0318;
1393.5000;0.1066;9.0294;
1393.8000;0.1058;9.0102;
1394.1000;0.1058;9.0078;
1394.4000;0.1050;9.0054;
1394.7000;0.1050;8.9982;
1395.0000;0.1164;9.0270;
1395.3000;0.1066;9.0078;
1395.6000;0.1018;8.9958;
1395.9000;0.1009;8.9911;
1396.2000;0.1083;9.0078;
1396.5000;0.1050;9.0126;
1396.8000;0.1050;9.0150;
1397.1000;0.1083;9.0126;
1397.4000;0.1074;9.0078;
1397.7000;0.1058;8.9982;
1398.0000;0.1091;9.0030;
1398.3000;0.1034;8.9911;
1398.6000;0.1074;8.9982;
1398.9000;0.1026;8.9958;
1399.2000;0.1066;9.0126;
1399.5000;0.1058;9.0102;
1399.8000;0.1066;9.0102;
