time/ms;Fluo/V;P700 deltaI/I x10³;
-199.8000;0.1514;-0.3354;
-199.5000;0.1514;-0.3306;
-199.2000;0.1538;-0.3211;
-198.9000;0.1498;-0.3235;
-198.6000;0.1530;-0.3259;
-198.3000;0.1538;-0.3235;
-198.0000;0.1514;-0.3211;
-197.7000;0.1498;-0.3259;
-197.4000;0.1506;-0.3235;
-197.1000;0.1514;-0.3187;
-196.8000;0.1506;-0.3139;
-196.5000;0.1506;-0.3163;
-196.2000;0.1522;-0.3067;
-195.9000;0.1514;-0.3067;
-195.6000;0.1457;-0.3187;
-195.3000;0.1481;-0.3091;
-195.0000;0.1506;-0.3067;
-194.7000;0.1416;-0.3259;
-194.4000;0.1506;-0.3115;
-194.1000;0.1514;-0.3091;
-193.8000;0.1498;-0.3115;
-193.5000;0.1498;-0.3067;
-193.2000;0.1522;-0.3163;
-192.9000;0.1514;-0.3163;
-192.6000;0.1604;-0.2947;
-192.3000;0.1498;-0.3306;
-192.0000;0.1514;-0.3354;
-191.7000;0.1506;-0.3402;
-191.4000;0.1506;-0.3498;
-191.1000;0.1506;-0.3522;
-190.8000;0.1506;-0.3498;
-190.5000;0.1514;-0.3570;
-190.2000;0.1506;-0.3594;
-189.9000;0.1506;-0.3570;
-189.6000;0.1473;-0.3594;
-189.3000;0.1506;-0.3354;
-189.0000;0.1490;-0.3450;
-188.7000;0.1408;-0.3738;
-188.4000;0.1514;-0.3546;
-188.1000;0.1506;-0.3474;
-187.8000;0.1514;-0.3426;
-187.5000;0.1514;-0.3474;
-187.2000;0.1506;-0.3522;
-186.9000;0.1481;-0.3618;
-186.6000;0.1514;-0.3522;
-186.3000;0.1506;-0.3594;
-186.0000;0.1530;-0.3450;
-185.7000;0.1498;-0.3522;
-185.4000;0.1498;-0.3450;
-185.1000;0.1522;-0.3426;
-184.8000;0.1490;-0.3618;
-184.5000;0.1514;-0.3570;
-184.2000;0.1563;-0.3522;
-183.9000;0.1506;-0.3666;
-183.6000;0.1514;-0.3642;
-183.3000;0.1522;-0.3618;
-183.0000;0.1514;-0.3618;
-182.7000;0.1522;-0.3522;
-182.4000;0.1498;-0.3498;
-182.1000;0.1522;-0.3402;
-181.8000;0.1563;-0.3283;
-181.5000;0.1514;-0.3354;
-181.2000;0.1506;-0.3402;
-180.9000;0.1473;-0.3426;
-180.6000;0.1587;-0.3187;
-180.3000;0.1506;-0.3330;
-180.0000;0.1506;-0.3330;
-179.7000;0.1481;-0.3426;
-179.4000;0.1441;-0.3546;
-179.1000;0.1506;-0.3378;
-178.8000;0.1514;-0.3330;
-178.5000;0.1514;-0.3235;
-178.2000;0.1530;-0.3235;
-177.9000;0.1514;-0.3211;
-177.6000;0.1498;-0.3283;
-177.3000;0.1522;-0.3211;
-177.0000;0.1522;-0.3235;
-176.7000;0.1506;-0.3235;
-176.4000;0.1522;-0.3187;
-176.1000;0.1506;-0.3163;
-175.8000;0.1506;-0.3163;
-175.5000;0.1498;-0.3211;
-175.2000;0.1522;-0.3139;
-174.9000;0.1538;-0.3139;
-174.6000;0.1522;-0.3235;
-174.3000;0.1530;-0.3187;
-174.0000;0.1514;-0.3283;
-173.7000;0.1547;-0.3259;
-173.4000;0.1514;-0.3402;
-173.1000;0.1490;-0.3426;
-172.8000;0.1514;-0.3426;
-172.5000;0.1514;-0.3426;
-172.2000;0.1522;-0.3474;
-171.9000;0.1522;-0.3474;
-171.6000;0.1522;-0.3546;
-171.3000;0.1571;-0.3259;
-171.0000;0.1514;-0.3306;
-170.7000;0.1522;-0.3283;
-170.4000;0.1506;-0.3283;
-170.1000;0.1506;-0.3330;
-169.8000;0.1530;-0.3306;
-169.5000;0.1498;-0.3426;
-169.2000;0.1514;-0.3330;
-168.9000;0.1579;-0.3139;
-168.6000;0.1514;-0.3402;
-168.3000;0.1595;-0.3259;
-168.0000;0.1514;-0.3474;
-167.7000;0.1498;-0.3522;
-167.4000;0.1457;-0.3642;
-167.1000;0.1522;-0.3474;
-166.8000;0.1506;-0.3594;
-166.5000;0.1506;-0.3546;
-166.2000;0.1514;-0.3546;
-165.9000;0.1547;-0.3378;
-165.6000;0.1506;-0.3546;
-165.3000;0.1490;-0.3522;
-165.0000;0.1498;-0.3474;
-164.7000;0.1490;-0.3450;
-164.4000;0.1587;-0.3187;
-164.1000;0.1481;-0.3426;
-163.8000;0.1514;-0.3259;
-163.5000;0.1498;-0.3259;
-163.2000;0.1530;-0.3235;
-162.9000;0.1514;-0.3211;
-162.6000;0.1473;-0.3402;
-162.3000;0.1506;-0.3259;
-162.0000;0.1481;-0.3330;
-161.7000;0.1457;-0.3450;
-161.4000;0.1465;-0.3426;
-161.1000;0.1514;-0.3330;
-160.8000;0.1538;-0.3211;
-160.5000;0.1465;-0.3474;
-160.2000;0.1530;-0.3330;
-159.9000;0.1522;-0.3354;
-159.6000;0.1506;-0.3450;
-159.3000;0.1481;-0.3498;
-159.0000;0.1490;-0.3450;
-158.7000;0.1490;-0.3354;
-158.4000;0.1498;-0.3306;
-158.1000;0.1514;-0.3306;
-157.8000;0.1457;-0.3474;
-157.5000;0.1498;-0.3426;
-157.2000;0.1530;-0.3354;
-156.9000;0.1522;-0.3402;
-156.6000;0.1514;-0.3450;
-156.3000;0.1522;-0.3330;
-156.0000;0.1604;-0.3139;
-155.7000;0.1506;-0.3450;
-155.4000;0.1514;-0.3426;
-155.1000;0.1506;-0.3498;
-154.8000;0.1498;-0.3546;
-154.5000;0.1498;-0.3498;
-154.2000;0.1506;-0.3426;
-153.9000;0.1514;-0.3426;
-153.6000;0.1530;-0.3378;
-153.3000;0.1514;-0.3283;
-153.0000;0.1514;-0.3306;
-152.7000;0.1522;-0.3330;
-152.4000;0.1490;-0.3378;
-152.1000;0.1506;-0.3402;
-151.8000;0.1514;-0.3378;
-151.5000;0.1514;-0.3378;
-151.2000;0.1514;-0.3354;
-150.9000;0.1506;-0.3378;
-150.6000;0.1506;-0.3354;
-150.3000;0.1571;-0.3187;
-150.0000;0.1481;-0.3402;
-149.7000;0.1522;-0.3283;
-149.4000;0.1563;-0.3283;
-149.1000;0.1506;-0.3378;
-148.8000;0.1514;-0.3378;
-148.5000;0.1498;-0.3402;
-148.2000;0.1522;-0.3378;
-147.9000;0.1506;-0.3426;
-147.6000;0.1522;-0.3402;
-147.3000;0.1506;-0.3522;
-147.0000;0.1490;-0.3474;
-146.7000;0.1522;-0.3474;
-146.4000;0.1514;-0.3474;
-146.1000;0.1498;-0.3498;
-145.8000;0.1506;-0.3498;
-145.5000;0.1530;-0.3498;
-145.2000;0.1522;-0.3474;
-144.9000;0.1498;-0.3594;
-144.6000;0.1490;-0.3450;
-144.3000;0.1547;-0.3354;
-144.0000;0.1506;-0.3426;
-143.7000;0.1522;-0.3402;
-143.4000;0.1506;-0.3426;
-143.1000;0.1506;-0.3378;
-142.8000;0.1522;-0.3354;
-142.5000;0.1506;-0.3211;
-142.2000;0.1498;-0.3235;
-141.9000;0.1530;-0.3259;
-141.6000;0.1490;-0.3306;
-141.3000;0.1490;-0.3187;
-141.0000;0.1522;-0.3187;
-140.7000;0.1514;-0.3235;
-140.4000;0.1506;-0.3378;
-140.1000;0.1506;-0.3402;
-139.8000;0.1514;-0.3426;
-139.5000;0.1506;-0.3426;
-139.2000;0.1506;-0.3330;
-138.9000;0.1490;-0.3402;
-138.6000;0.1457;-0.3474;
-138.3000;0.1522;-0.3378;
-138.0000;0.1530;-0.3354;
-137.7000;0.1514;-0.3378;
-137.4000;0.1595;-0.3235;
-137.1000;0.1433;-0.3714;
-136.8000;0.1514;-0.3522;
-136.5000;0.1433;-0.3714;
-136.2000;0.1416;-0.3642;
-135.9000;0.1392;-0.3786;
-135.6000;0.1579;-0.3378;
-135.3000;0.1604;-0.3354;
-135.0000;0.1506;-0.3642;
-134.7000;0.1530;-0.3450;
-134.4000;0.1604;-0.3235;
-134.1000;0.1628;-0.3211;
-133.8000;0.1514;-0.3546;
-133.5000;0.1514;-0.3570;
-133.2000;0.1522;-0.3426;
-132.9000;0.1547;-0.3259;
-132.6000;0.1506;-0.3378;
-132.3000;0.1498;-0.3354;
-132.0000;0.1522;-0.3259;
-131.7000;0.1547;-0.3115;
-131.4000;0.1506;-0.3330;
-131.1000;0.1498;-0.3330;
-130.8000;0.1498;-0.3235;
-130.5000;0.1514;-0.3235;
-130.2000;0.1514;-0.3235;
-129.9000;0.1506;-0.3187;
-129.6000;0.1506;-0.3235;
-129.3000;0.1465;-0.3402;
-129.0000;0.1522;-0.3235;
-128.7000;0.1506;-0.3283;
-128.4000;0.1595;-0.3019;
-128.1000;0.1498;-0.3330;
-127.8000;0.1514;-0.3259;
-127.5000;0.1522;-0.3259;
-127.2000;0.1530;-0.3306;
-126.9000;0.1514;-0.3259;
-126.6000;0.1490;-0.3283;
-126.3000;0.1514;-0.3211;
-126.0000;0.1522;-0.3211;
-125.7000;0.1514;-0.3235;
-125.4000;0.1490;-0.3211;
-125.1000;0.1465;-0.3306;
-124.8000;0.1547;-0.3163;
-124.5000;0.1481;-0.3306;
-124.2000;0.1506;-0.3283;
-123.9000;0.1506;-0.3259;
-123.6000;0.1506;-0.3235;
-123.3000;0.1506;-0.3187;
-123.0000;0.1563;-0.3019;
-122.7000;0.1514;-0.3163;
-122.4000;0.1522;-0.3211;
-122.1000;0.1506;-0.3259;
-121.8000;0.1490;-0.3354;
-121.5000;0.1506;-0.3330;
-121.2000;0.1522;-0.3259;
-120.9000;0.1514;-0.3306;
-120.6000;0.1514;-0.3259;
-120.3000;0.1433;-0.3498;
-120.0000;0.1498;-0.3283;
-119.7000;0.1514;-0.3163;
-119.4000;0.1522;-0.3187;
-119.1000;0.1555;-0.3163;
-118.8000;0.1522;-0.3259;
-118.5000;0.1514;-0.3235;
-118.2000;0.1538;-0.3115;
-117.9000;0.1514;-0.3163;
-117.6000;0.1506;-0.3187;
-117.3000;0.1555;-0.3091;
-117.0000;0.1555;-0.3091;
-116.7000;0.1514;-0.3211;
-116.4000;0.1481;-0.3378;
-116.1000;0.1490;-0.3354;
-115.8000;0.1514;-0.3474;
-115.5000;0.1522;-0.3450;
-115.2000;0.1498;-0.3546;
-114.9000;0.1538;-0.3402;
-114.6000;0.1465;-0.3570;
-114.3000;0.1490;-0.3450;
-114.0000;0.1498;-0.3306;
-113.7000;0.1506;-0.3259;
-113.4000;0.1490;-0.3330;
-113.1000;0.1522;-0.3259;
-112.8000;0.1522;-0.3259;
-112.5000;0.1498;-0.3426;
-112.2000;0.1530;-0.3235;
-111.9000;0.1498;-0.3259;
-111.6000;0.1514;-0.3235;
-111.3000;0.1457;-0.3354;
-111.0000;0.1547;-0.3067;
-110.7000;0.1506;-0.3211;
-110.4000;0.1530;-0.3187;
-110.1000;0.1490;-0.3115;
-109.8000;0.1506;-0.3115;
-109.5000;0.1506;-0.3115;
-109.2000;0.1498;-0.3067;
-108.9000;0.1490;-0.3067;
-108.6000;0.1498;-0.3067;
-108.3000;0.1514;-0.3091;
-108.0000;0.1465;-0.3330;
-107.7000;0.1425;-0.3426;
-107.4000;0.1514;-0.3139;
-107.1000;0.1506;-0.3211;
-106.8000;0.1506;-0.3163;
-106.5000;0.1530;-0.3091;
-106.2000;0.1506;-0.3115;
-105.9000;0.1506;-0.3067;
-105.6000;0.1514;-0.3115;
-105.3000;0.1433;-0.3402;
-105.0000;0.1481;-0.3306;
-104.7000;0.1498;-0.3283;
-104.4000;0.1498;-0.3474;
-104.1000;0.1514;-0.3522;
-103.8000;0.1506;-0.3498;
-103.5000;0.1506;-0.3450;
-103.2000;0.1514;-0.3450;
-102.9000;0.1530;-0.3426;
-102.6000;0.1514;-0.3474;
-102.3000;0.1506;-0.3522;
-102.0000;0.1522;-0.3522;
-101.7000;0.1522;-0.3570;
-101.4000;0.1514;-0.3618;
-101.1000;0.1498;-0.3570;
-100.8000;0.1498;-0.3570;
-100.5000;0.1538;-0.3330;
-100.2000;0.1514;-0.3354;
-99.9000;0.1547;-0.3283;
-99.6000;0.1522;-0.3354;
-99.3000;0.1498;-0.3498;
-99.0000;0.1530;-0.3378;
-98.7000;0.1522;-0.3426;
-98.4000;0.1498;-0.3426;
-98.1000;0.1490;-0.3474;
-97.8000;0.1522;-0.3426;
-97.5000;0.1498;-0.3474;
-97.2000;0.1506;-0.3426;
-96.9000;0.1473;-0.3474;
-96.6000;0.1587;-0.3235;
-96.3000;0.1506;-0.3498;
-96.0000;0.1465;-0.3522;
-95.7000;0.1522;-0.3378;
-95.4000;0.1490;-0.3450;
-95.1000;0.1579;-0.3259;
-94.8000;0.1498;-0.3498;
-94.5000;0.1506;-0.3522;
-94.2000;0.1579;-0.3283;
-93.9000;0.1530;-0.3354;
-93.6000;0.1498;-0.3354;
-93.3000;0.1506;-0.3354;
-93.0000;0.1408;-0.3642;
-92.7000;0.1490;-0.3426;
-92.4000;0.1530;-0.3378;
-92.1000;0.1481;-0.3474;
-91.8000;0.1514;-0.3354;
-91.5000;0.1522;-0.3306;
-91.2000;0.1473;-0.3402;
-90.9000;0.1514;-0.3354;
-90.6000;0.1530;-0.3283;
-90.3000;0.1522;-0.3330;
-90.0000;0.1538;-0.3259;
-89.7000;0.1522;-0.3211;
-89.4000;0.1530;-0.3139;
-89.1000;0.1579;-0.3043;
-88.8000;0.1506;-0.3283;
-88.5000;0.1498;-0.3354;
-88.2000;0.1498;-0.3354;
-87.9000;0.1563;-0.3211;
-87.6000;0.1530;-0.3330;
-87.3000;0.1522;-0.3402;
-87.0000;0.1514;-0.3450;
-86.7000;0.1530;-0.3402;
-86.4000;0.1457;-0.3618;
-86.1000;0.1498;-0.3498;
-85.8000;0.1498;-0.3450;
-85.5000;0.1514;-0.3450;
-85.2000;0.1514;-0.3498;
-84.9000;0.1555;-0.3426;
-84.6000;0.1506;-0.3474;
-84.3000;0.1449;-0.3594;
-84.0000;0.1490;-0.3450;
-83.7000;0.1514;-0.3354;
-83.4000;0.1514;-0.3354;
-83.1000;0.1514;-0.3330;
-82.8000;0.1498;-0.3426;
-82.5000;0.1522;-0.3474;
-82.2000;0.1481;-0.3666;
-81.9000;0.1514;-0.3594;
-81.6000;0.1514;-0.3594;
-81.3000;0.1522;-0.3546;
-81.0000;0.1538;-0.3522;
-80.7000;0.1538;-0.3498;
-80.4000;0.1571;-0.3378;
-80.1000;0.1506;-0.3426;
-79.8000;0.1514;-0.3402;
-79.5000;0.1457;-0.3546;
-79.2000;0.1498;-0.3426;
-78.9000;0.1506;-0.3378;
-78.6000;0.1514;-0.3426;
-78.3000;0.1498;-0.3546;
-78.0000;0.1498;-0.3522;
-77.7000;0.1498;-0.3570;
-77.4000;0.1595;-0.3354;
-77.1000;0.1506;-0.3498;
-76.8000;0.1498;-0.3522;
-76.5000;0.1465;-0.3690;
-76.2000;0.1473;-0.3570;
-75.9000;0.1547;-0.3354;
-75.6000;0.1481;-0.3522;
-75.3000;0.1514;-0.3330;
-75.0000;0.1506;-0.3306;
-74.7000;0.1522;-0.3330;
-74.4000;0.1547;-0.3283;
-74.1000;0.1595;-0.3139;
-73.8000;0.1563;-0.3187;
-73.5000;0.1514;-0.3330;
-73.2000;0.1490;-0.3450;
-72.9000;0.1490;-0.3522;
-72.6000;0.1587;-0.3259;
-72.3000;0.1604;-0.3139;
-72.0000;0.1514;-0.3354;
-71.7000;0.1498;-0.3378;
-71.4000;0.1571;-0.3211;
-71.1000;0.1506;-0.3378;
-70.8000;0.1506;-0.3378;
-70.5000;0.1506;-0.3354;
-70.2000;0.1481;-0.3354;
-69.9000;0.1522;-0.3259;
-69.6000;0.1506;-0.3354;
-69.3000;0.1506;-0.3426;
-69.0000;0.1604;-0.3211;
-68.7000;0.1481;-0.3522;
-68.4000;0.1490;-0.3498;
-68.1000;0.1506;-0.3498;
-67.8000;0.1522;-0.3378;
-67.5000;0.1514;-0.3402;
-67.2000;0.1514;-0.3235;
-66.9000;0.1538;-0.3163;
-66.6000;0.1538;-0.3163;
-66.3000;0.1498;-0.3354;
-66.0000;0.1498;-0.3474;
-65.7000;0.1514;-0.3426;
-65.4000;0.1530;-0.3522;
-65.1000;0.1506;-0.3618;
-64.8000;0.1530;-0.3594;
-64.5000;0.1555;-0.3546;
-64.2000;0.1522;-0.3618;
-63.9000;0.1522;-0.3546;
-63.6000;0.1514;-0.3498;
-63.3000;0.1490;-0.3450;
-63.0000;0.1506;-0.3354;
-62.7000;0.1506;-0.3330;
-62.4000;0.1530;-0.3283;
-62.1000;0.1522;-0.3283;
-61.8000;0.1498;-0.3330;
-61.5000;0.1530;-0.3211;
-61.2000;0.1506;-0.3306;
-60.9000;0.1514;-0.3378;
-60.6000;0.1506;-0.3402;
-60.3000;0.1547;-0.3378;
-60.0000;0.1547;-0.3354;
-59.7000;0.1522;-0.3378;
-59.4000;0.1522;-0.3522;
-59.1000;0.1530;-0.3450;
-58.8000;0.1498;-0.3474;
-58.5000;0.1473;-0.3594;
-58.2000;0.1490;-0.3474;
-57.9000;0.1522;-0.3426;
-57.6000;0.1530;-0.3402;
-57.3000;0.1514;-0.3402;
-57.0000;0.1530;-0.3306;
-56.7000;0.1522;-0.3211;
-56.4000;0.1514;-0.3139;
-56.1000;0.1506;-0.3115;
-55.8000;0.1506;-0.3043;
-55.5000;0.1547;-0.2971;
-55.2000;0.1522;-0.3091;
-54.9000;0.1514;-0.3211;
-54.6000;0.1506;-0.3283;
-54.3000;0.1547;-0.3091;
-54.0000;0.1522;-0.3187;
-53.7000;0.1514;-0.3115;
-53.4000;0.1498;-0.3163;
-53.1000;0.1506;-0.3235;
-52.8000;0.1514;-0.3306;
-52.5000;0.1530;-0.3211;
-52.2000;0.1465;-0.3259;
-51.9000;0.1506;-0.3115;
-51.6000;0.1473;-0.3259;
-51.3000;0.1522;-0.3211;
-51.0000;0.1498;-0.3235;
-50.7000;0.1522;-0.3163;
-50.4000;0.1522;-0.3211;
-50.1000;0.1571;-0.3187;
-49.8000;0.1498;-0.3330;
-49.5000;0.1522;-0.3283;
-49.2000;0.1514;-0.3283;
-48.9000;0.1522;-0.3283;
-48.6000;0.1514;-0.3330;
-48.3000;0.1490;-0.3378;
-48.0000;0.1514;-0.3378;
-47.7000;0.1514;-0.3378;
-47.4000;0.1498;-0.3426;
-47.1000;0.1563;-0.3139;
-46.8000;0.1498;-0.3378;
-46.5000;0.1514;-0.3354;
-46.2000;0.1514;-0.3450;
-45.9000;0.1490;-0.3546;
-45.6000;0.1522;-0.3426;
-45.3000;0.1555;-0.3235;
-45.0000;0.1530;-0.3330;
-44.7000;0.1498;-0.3426;
-44.4000;0.1514;-0.3330;
-44.1000;0.1514;-0.3283;
-43.8000;0.1514;-0.3283;
-43.5000;0.1433;-0.3594;
-43.2000;0.1530;-0.3306;
-42.9000;0.1416;-0.3522;
-42.6000;0.1563;-0.3139;
-42.3000;0.1514;-0.3330;
-42.0000;0.1530;-0.3378;
-41.7000;0.1498;-0.3474;
-41.4000;0.1498;-0.3474;
-41.1000;0.1514;-0.3546;
-40.8000;0.1457;-0.3714;
-40.5000;0.1530;-0.3546;
-40.2000;0.1522;-0.3546;
-39.9000;0.1514;-0.3618;
-39.6000;0.1514;-0.3546;
-39.3000;0.1481;-0.3594;
-39.0000;0.1498;-0.3618;
-38.7000;0.1514;-0.3714;
-38.4000;0.1595;-0.3426;
-38.1000;0.1490;-0.3594;
-37.8000;0.1506;-0.3474;
-37.5000;0.1498;-0.3522;
-37.2000;0.1522;-0.3450;
-36.9000;0.1522;-0.3402;
-36.6000;0.1530;-0.3283;
-36.3000;0.1506;-0.3306;
-36.0000;0.1498;-0.3378;
-35.7000;0.1514;-0.3283;
-35.4000;0.1506;-0.3259;
-35.1000;0.1571;-0.3091;
-34.8000;0.1514;-0.3354;
-34.5000;0.1555;-0.3259;
-34.2000;0.1506;-0.3378;
-33.9000;0.1498;-0.3354;
-33.6000;0.1490;-0.3259;
-33.3000;0.1506;-0.3211;
-33.0000;0.1514;-0.3163;
-32.7000;0.1514;-0.3163;
-32.4000;0.1481;-0.3378;
-32.1000;0.1506;-0.3259;
-31.8000;0.1506;-0.3283;
-31.5000;0.1498;-0.3354;
-31.2000;0.1514;-0.3306;
-30.9000;0.1514;-0.3283;
-30.6000;0.1490;-0.3330;
-30.3000;0.1490;-0.3306;
-30.0000;0.1465;-0.3426;
-29.7000;0.1522;-0.3354;
-29.4000;0.1612;-0.3091;
-29.1000;0.1490;-0.3402;
-28.8000;0.1416;-0.3570;
-28.5000;0.1506;-0.3259;
-28.2000;0.1481;-0.3306;
-27.9000;0.1514;-0.3283;
-27.6000;0.1481;-0.3235;
-27.3000;0.1506;-0.3259;
-27.0000;0.1522;-0.3259;
-26.7000;0.1530;-0.3283;
-26.4000;0.1514;-0.3354;
-26.1000;0.1498;-0.3402;
-25.8000;0.1498;-0.3354;
-25.5000;0.1506;-0.3283;
-25.2000;0.1498;-0.3283;
-24.9000;0.1506;-0.3306;
-24.6000;0.1506;-0.3235;
-24.3000;0.1416;-0.3546;
-24.0000;0.1457;-0.3426;
-23.7000;0.1506;-0.3330;
-23.4000;0.1563;-0.3139;
-23.1000;0.1506;-0.3330;
-22.8000;0.1522;-0.3306;
-22.5000;0.1481;-0.3426;
-22.2000;0.1514;-0.3426;
-21.9000;0.1506;-0.3450;
-21.6000;0.1506;-0.3402;
-21.3000;0.1392;-0.3666;
-21.0000;0.1563;-0.3187;
-20.7000;0.1522;-0.3283;
-20.4000;0.1530;-0.3330;
-20.1000;0.1514;-0.3474;
-19.8000;0.1522;-0.3426;
-19.5000;0.1457;-0.3594;
-19.2000;0.1506;-0.3426;
-18.9000;0.1514;-0.3378;
-18.6000;0.1490;-0.3474;
-18.3000;0.1514;-0.3354;
-18.0000;0.1498;-0.3402;
-17.7000;0.1481;-0.3498;
-17.4000;0.1571;-0.3259;
-17.1000;0.1514;-0.3402;
-16.8000;0.1604;-0.3115;
-16.5000;0.1514;-0.3330;
-16.2000;0.1514;-0.3330;
-15.9000;0.1522;-0.3283;
-15.6000;0.1530;-0.3330;
-15.3000;0.1514;-0.3354;
-15.0000;0.1506;-0.3498;
-14.7000;0.1579;-0.3330;
-14.4000;0.1498;-0.3570;
-14.1000;0.1490;-0.3642;
-13.8000;0.1571;-0.3522;
-13.5000;0.1481;-0.3762;
-13.2000;0.1506;-0.3618;
-12.9000;0.1522;-0.3570;
-12.6000;0.1522;-0.3570;
-12.3000;0.1514;-0.3570;
-12.0000;0.1530;-0.3546;
-11.7000;0.1522;-0.3546;
-11.4000;0.1490;-0.3594;
-11.1000;0.1498;-0.3594;
-10.8000;0.1490;-0.3570;
-10.5000;0.1498;-0.3546;
-10.2000;0.1563;-0.3426;
-9.9000;0.1481;-0.3570;
-9.6000;0.1490;-0.3522;
-9.3000;0.1514;-0.3498;
-9.0000;0.1587;-0.3330;
-8.7000;0.1506;-0.3450;
-8.4000;0.1514;-0.3474;
-8.1000;0.1571;-0.3187;
-7.8000;0.1514;-0.3402;
-7.5000;0.1481;-0.3450;
-7.2000;0.1506;-0.3450;
-6.9000;0.1547;-0.3330;
-6.6000;0.1522;-0.3402;
-6.3000;0.1514;-0.3378;
-6.0000;0.1514;-0.3402;
-5.7000;0.1514;-0.3426;
-5.4000;0.1498;-0.3450;
-5.1000;0.1514;-0.3450;
-4.8000;0.1547;-0.3378;
-4.5000;0.1490;-0.3522;
-4.2000;0.1538;-0.3306;
-3.9000;0.1514;-0.3426;
-3.6000;0.1547;-0.3330;
-3.3000;0.1538;-0.3378;
-3.0000;0.1555;-0.3211;
-2.7000;0.1628;-0.3019;
-2.4000;0.1457;-0.3354;
-2.1000;0.1506;-0.3235;
-1.8000;0.1481;-0.3306;
-1.5000;0.1514;-0.3211;
-1.2000;0.1465;-0.3306;
-0.9000;0.1522;-0.3139;
-0.6000;0.1514;-0.3211;
-0.3000;0.1490;-0.3306;
0.0000;0.1490;-0.3306;
0.3000;0.1481;-0.3690;
0.6000;0.1490;-0.3474;
0.9000;0.1530;-0.3067;
1.2000;0.1547;-0.2827;
1.5000;0.1620;-0.2468;
1.8000;0.1538;-0.2516;
2.1000;0.1538;-0.2348;
2.4000;0.1538;-0.2204;
2.7000;0.1612;-0.1941;
3.0000;0.1547;-0.2037;
3.3000;0.1677;-0.1581;
3.6000;0.1579;-0.1749;
3.9000;0.1555;-0.1749;
4.2000;0.1612;-0.1533;
4.5000;0.1604;-0.1557;
4.8000;0.1604;-0.1605;
5.1000;0.1587;-0.1653;
5.4000;0.1669;-0.1342;
5.7000;0.1587;-0.1557;
6.0000;0.1595;-0.1509;
6.3000;0.1587;-0.1486;
6.6000;0.1587;-0.1486;
6.9000;0.1644;-0.1246;
7.2000;0.1563;-0.1486;
7.5000;0.1538;-0.1557;
7.8000;0.1612;-0.1390;
8.1000;0.1587;-0.1318;
8.4000;0.1514;-0.1486;
8.7000;0.1587;-0.1294;
9.0000;0.1604;-0.1174;
9.3000;0.1587;-0.1174;
9.6000;0.1620;-0.1126;
9.9000;0.1628;-0.1102;
10.2000;0.1563;-0.1270;
10.5000;0.1612;-0.1222;
10.8000;0.1612;-0.1270;
11.1000;0.1604;-0.1342;
11.4000;0.1595;-0.1342;
11.7000;0.1612;-0.1270;
12.0000;0.1612;-0.1270;
12.3000;0.1587;-0.1294;
12.6000;0.1644;-0.1102;
12.9000;0.1620;-0.1270;
13.2000;0.1604;-0.1366;
13.5000;0.1628;-0.1390;
13.8000;0.1718;-0.1054;
14.1000;0.1612;-0.1318;
14.4000;0.1604;-0.1318;
14.7000;0.1661;-0.1198;
15.0000;0.1604;-0.1390;
15.3000;0.1604;-0.1318;
15.6000;0.1587;-0.1294;
15.9000;0.1612;-0.1198;
16.2000;0.1628;-0.1270;
16.5000;0.1530;-0.1414;
16.8000;0.1612;-0.1222;
17.1000;0.1579;-0.1270;
17.4000;0.1595;-0.1318;
17.7000;0.1595;-0.1294;
18.0000;0.1612;-0.1270;
18.3000;0.1604;-0.1270;
18.6000;0.1612;-0.1222;
18.9000;0.1563;-0.1318;
19.2000;0.1571;-0.1198;
19.5000;0.1587;-0.1126;
19.8000;0.1661;-0.1006;
20.1000;0.1587;-0.1198;
20.4000;0.1595;-0.1174;
20.7000;0.1644;-0.1078;
21.0000;0.1604;-0.1006;
21.3000;0.1644;-0.0934;
21.6000;0.1522;-0.1294;
21.9000;0.1587;-0.1102;
22.2000;0.1628;-0.1054;
22.5000;0.1604;-0.1198;
22.8000;0.1587;-0.1246;
23.1000;0.1547;-0.1390;
23.4000;0.1579;-0.1318;
23.7000;0.1612;-0.1246;
24.0000;0.1579;-0.1294;
24.3000;0.1579;-0.1294;
24.6000;0.1587;-0.1270;
24.9000;0.1595;-0.1246;
25.2000;0.1571;-0.1414;
25.5000;0.1490;-0.1581;
25.8000;0.1604;-0.1318;
26.1000;0.1604;-0.1342;
26.4000;0.1612;-0.1342;
26.7000;0.1644;-0.1150;
27.0000;0.1612;-0.1318;
27.3000;0.1709;-0.1030;
27.6000;0.1612;-0.1294;
27.9000;0.1612;-0.1390;
28.2000;0.1595;-0.1486;
28.5000;0.1636;-0.1390;
28.8000;0.1595;-0.1509;
29.1000;0.1579;-0.1462;
29.4000;0.1604;-0.1414;
29.7000;0.1612;-0.1438;
30.0000;0.1604;-0.1486;
30.3000;0.1604;-0.1509;
30.6000;0.1595;-0.1557;
30.9000;0.1587;-0.1581;
31.2000;0.1620;-0.1462;
31.5000;0.1595;-0.1533;
31.8000;0.1563;-0.1629;
32.1000;0.1612;-0.1390;
32.4000;0.1620;-0.1366;
32.7000;0.1620;-0.1318;
33.0000;0.1612;-0.1342;
33.3000;0.1612;-0.1246;
33.6000;0.1595;-0.1222;
33.9000;0.1595;-0.1318;
34.2000;0.1604;-0.1366;
34.5000;0.1628;-0.1174;
34.8000;0.1620;-0.1174;
35.1000;0.1620;-0.1102;
35.4000;0.1636;-0.1222;
35.7000;0.1595;-0.1270;
36.0000;0.1612;-0.1294;
36.3000;0.1595;-0.1366;
36.6000;0.1620;-0.1342;
36.9000;0.1628;-0.1342;
37.2000;0.1628;-0.1342;
37.5000;0.1579;-0.1533;
37.8000;0.1604;-0.1462;
38.1000;0.1587;-0.1414;
38.4000;0.1612;-0.1318;
38.7000;0.1538;-0.1486;
39.0000;0.1587;-0.1366;
39.3000;0.1620;-0.1246;
39.6000;0.1604;-0.1294;
39.9000;0.1604;-0.1270;
40.2000;0.1604;-0.1270;
40.5000;0.1604;-0.1174;
40.8000;0.1579;-0.1126;
41.1000;0.1636;-0.1054;
41.4000;0.1604;-0.1126;
41.7000;0.1612;-0.1174;
42.0000;0.1587;-0.1246;
42.3000;0.1555;-0.1270;
42.6000;0.1595;-0.1222;
42.9000;0.1604;-0.1174;
43.2000;0.1636;-0.1174;
43.5000;0.1587;-0.1294;
43.8000;0.1612;-0.1222;
44.1000;0.1595;-0.1198;
44.4000;0.1595;-0.1246;
44.7000;0.1595;-0.1150;
45.0000;0.1579;-0.1198;
45.3000;0.1604;-0.1150;
45.6000;0.1612;-0.1198;
45.9000;0.1604;-0.1318;
46.2000;0.1604;-0.1174;
46.5000;0.1612;-0.1246;
46.8000;0.1604;-0.1318;
47.1000;0.1587;-0.1342;
47.4000;0.1652;-0.1126;
47.7000;0.1612;-0.1342;
48.0000;0.1652;-0.1270;
48.3000;0.1604;-0.1342;
48.6000;0.1620;-0.1342;
48.9000;0.1636;-0.1222;
49.2000;0.1661;-0.1150;
49.5000;0.1595;-0.1390;
49.8000;0.1612;-0.1294;
50.1000;0.1595;-0.1246;
50.4000;0.1718;-0.0910;
50.7000;0.1571;-0.1342;
51.0000;0.1636;-0.1150;
51.3000;0.1490;-0.1581;
51.6000;0.1628;-0.1174;
51.9000;0.1506;-0.1486;
52.2000;0.1604;-0.1198;
52.5000;0.1571;-0.1318;
52.8000;0.1595;-0.1246;
53.1000;0.1604;-0.1198;
53.4000;0.1595;-0.1222;
53.7000;0.1595;-0.1246;
54.0000;0.1628;-0.1078;
54.3000;0.1604;-0.1198;
54.6000;0.1563;-0.1318;
54.9000;0.1652;-0.1054;
55.2000;0.1604;-0.1174;
55.5000;0.1604;-0.1174;
55.8000;0.1620;-0.1270;
56.1000;0.1644;-0.1198;
56.4000;0.1595;-0.1270;
56.7000;0.1587;-0.1222;
57.0000;0.1595;-0.1222;
57.3000;0.1563;-0.1270;
57.6000;0.1555;-0.1270;
57.9000;0.1620;-0.1246;
58.2000;0.1612;-0.1246;
58.5000;0.1628;-0.1246;
58.8000;0.1595;-0.1294;
59.1000;0.1636;-0.1198;
59.4000;0.1587;-0.1318;
59.7000;0.1514;-0.1462;
60.0000;0.1604;-0.1270;
60.3000;0.1604;-0.1342;
60.6000;0.1604;-0.1342;
60.9000;0.1595;-0.1366;
61.2000;0.1595;-0.1294;
61.5000;0.1595;-0.1342;
61.8000;0.1595;-0.1342;
62.1000;0.1571;-0.1390;
62.4000;0.1547;-0.1438;
62.7000;0.1595;-0.1246;
63.0000;0.1595;-0.1270;
63.3000;0.1652;-0.1222;
63.6000;0.1587;-0.1414;
63.9000;0.1465;-0.1677;
64.2000;0.1620;-0.1294;
64.5000;0.1693;-0.1150;
64.8000;0.1612;-0.1366;
65.1000;0.1595;-0.1390;
65.4000;0.1571;-0.1462;
65.7000;0.1595;-0.1246;
66.0000;0.1490;-0.1438;
66.3000;0.1579;-0.1294;
66.6000;0.1612;-0.1318;
66.9000;0.1595;-0.1462;
67.2000;0.1628;-0.1390;
67.5000;0.1612;-0.1318;
67.8000;0.1490;-0.1629;
68.1000;0.1587;-0.1366;
68.4000;0.1595;-0.1342;
68.7000;0.1620;-0.1366;
69.0000;0.1595;-0.1294;
69.3000;0.1604;-0.1270;
69.6000;0.1612;-0.1294;
69.9000;0.1587;-0.1318;
70.2000;0.1587;-0.1414;
70.5000;0.1604;-0.1366;
70.8000;0.1726;-0.0982;
71.1000;0.1571;-0.1318;
71.4000;0.1644;-0.1222;
71.7000;0.1587;-0.1366;
72.0000;0.1604;-0.1390;
72.3000;0.1555;-0.1581;
72.6000;0.1604;-0.1342;
72.9000;0.1612;-0.1270;
73.2000;0.1595;-0.1318;
73.5000;0.1481;-0.1653;
73.8000;0.1587;-0.1366;
74.1000;0.1709;-0.1102;
74.4000;0.1620;-0.1270;
74.7000;0.1604;-0.1318;
75.0000;0.1628;-0.1270;
75.3000;0.1579;-0.1390;
75.6000;0.1718;-0.1078;
75.9000;0.1571;-0.1390;
76.2000;0.1587;-0.1438;
76.5000;0.1636;-0.1246;
76.8000;0.1595;-0.1342;
77.1000;0.1547;-0.1486;
77.4000;0.1595;-0.1294;
77.7000;0.1604;-0.1270;
78.0000;0.1587;-0.1318;
78.3000;0.1595;-0.1270;
78.6000;0.1612;-0.1198;
78.9000;0.1612;-0.1150;
79.2000;0.1612;-0.1222;
79.5000;0.1620;-0.1198;
79.8000;0.1669;-0.1150;
80.1000;0.1604;-0.1318;
80.4000;0.1612;-0.1294;
80.7000;0.1612;-0.1342;
81.0000;0.1628;-0.1318;
81.3000;0.1604;-0.1366;
81.6000;0.1595;-0.1342;
81.9000;0.1595;-0.1366;
82.2000;0.1604;-0.1366;
82.5000;0.1604;-0.1294;
82.8000;0.1595;-0.1294;
83.1000;0.1604;-0.1318;
83.4000;0.1587;-0.1294;
83.7000;0.1595;-0.1294;
84.0000;0.1612;-0.1198;
84.3000;0.1595;-0.1150;
84.6000;0.1571;-0.1198;
84.9000;0.1587;-0.1150;
85.2000;0.1620;-0.1150;
85.5000;0.1604;-0.1270;
85.8000;0.1579;-0.1270;
86.1000;0.1587;-0.1246;
86.4000;0.1522;-0.1390;
86.7000;0.1620;-0.1246;
87.0000;0.1604;-0.1294;
87.3000;0.1604;-0.1246;
87.6000;0.1595;-0.1246;
87.9000;0.1604;-0.1198;
88.2000;0.1604;-0.1174;
88.5000;0.1587;-0.1294;
88.8000;0.1595;-0.1342;
89.1000;0.1620;-0.1198;
89.4000;0.1571;-0.1342;
89.7000;0.1563;-0.1294;
90.0000;0.1628;-0.1102;
90.3000;0.1620;-0.1078;
90.6000;0.1644;-0.1030;
90.9000;0.1612;-0.1054;
91.2000;0.1612;-0.1054;
91.5000;0.1612;-0.1078;
91.8000;0.1522;-0.1318;
92.1000;0.1595;-0.1150;
92.4000;0.1644;-0.1030;
92.7000;0.1595;-0.1198;
93.0000;0.1620;-0.1198;
93.3000;0.1579;-0.1294;
93.6000;0.1587;-0.1222;
93.9000;0.1604;-0.1102;
94.2000;0.1587;-0.1102;
94.5000;0.1579;-0.1102;
94.8000;0.1563;-0.1246;
95.1000;0.1620;-0.1102;
95.4000;0.1620;-0.1102;
95.7000;0.1595;-0.1174;
96.0000;0.1604;-0.1150;
96.3000;0.1563;-0.1270;
96.6000;0.1628;-0.1054;
96.9000;0.1612;-0.1150;
97.2000;0.1595;-0.1222;
97.5000;0.1636;-0.1150;
97.8000;0.1595;-0.1222;
98.1000;0.1595;-0.1342;
98.4000;0.1628;-0.1318;
98.7000;0.1604;-0.1342;
99.0000;0.1677;-0.1150;
99.3000;0.1612;-0.1222;
99.6000;0.1587;-0.1222;
99.9000;0.1481;-0.1509;
100.2000;0.1661;-0.1150;
100.5000;0.1604;-0.1270;
100.8000;0.1587;-0.1270;
101.1000;0.1595;-0.1294;
101.4000;0.1612;-0.1198;
101.7000;0.1604;-0.1150;
102.0000;0.1465;-0.1486;
102.3000;0.1587;-0.1150;
102.6000;0.1604;-0.1078;
102.9000;0.1604;-0.1006;
103.2000;0.1604;-0.1030;
103.5000;0.1604;-0.1030;
103.8000;0.1604;-0.1102;
104.1000;0.1612;-0.1054;
104.4000;0.1604;-0.1078;
104.7000;0.1612;-0.1126;
105.0000;0.1604;-0.1126;
105.3000;0.1587;-0.1174;
105.6000;0.1644;-0.1006;
105.9000;0.1579;-0.1222;
106.2000;0.1604;-0.1174;
106.5000;0.1595;-0.1126;
106.8000;0.1595;-0.1174;
107.1000;0.1595;-0.1174;
107.4000;0.1595;-0.1174;
107.7000;0.1595;-0.1126;
108.0000;0.1604;-0.1150;
108.3000;0.1612;-0.1174;
108.6000;0.1538;-0.1294;
108.9000;0.1587;-0.1150;
109.2000;0.1571;-0.1222;
109.5000;0.1742;-0.0958;
109.8000;0.1604;-0.1294;
110.1000;0.1595;-0.1270;
110.4000;0.1571;-0.1366;
110.7000;0.1701;-0.1054;
111.0000;0.1595;-0.1366;
111.3000;0.1579;-0.1318;
111.6000;0.1620;-0.1174;
111.9000;0.1604;-0.1126;
112.2000;0.1555;-0.1174;
112.5000;0.1604;-0.1102;
112.8000;0.1620;-0.1126;
113.1000;0.1579;-0.1294;
113.4000;0.1628;-0.1102;
113.7000;0.1490;-0.1486;
114.0000;0.1612;-0.1246;
114.3000;0.1612;-0.1222;
114.6000;0.1587;-0.1246;
114.9000;0.1620;-0.1102;
115.2000;0.1661;-0.0958;
115.5000;0.1612;-0.1102;
115.8000;0.1416;-0.1605;
116.1000;0.1595;-0.1174;
116.4000;0.1620;-0.1198;
116.7000;0.1661;-0.1102;
117.0000;0.1595;-0.1294;
117.3000;0.1628;-0.1222;
117.6000;0.1612;-0.1294;
117.9000;0.1604;-0.1294;
118.2000;0.1587;-0.1366;
118.5000;0.1612;-0.1222;
118.8000;0.1571;-0.1294;
119.1000;0.1579;-0.1150;
119.4000;0.1587;-0.1102;
119.7000;0.1595;-0.1102;
120.0000;0.1661;-0.1006;
120.3000;0.1530;-0.1318;
120.6000;0.1547;-0.1294;
120.9000;0.1579;-0.1198;
121.2000;0.1604;-0.1150;
121.5000;0.1522;-0.1294;
121.8000;0.1595;-0.1102;
122.1000;0.1604;-0.1174;
122.4000;0.1595;-0.1174;
122.7000;0.1579;-0.1198;
123.0000;0.1677;-0.0934;
123.3000;0.1579;-0.1294;
123.6000;0.1644;-0.1198;
123.9000;0.1587;-0.1342;
124.2000;0.1579;-0.1270;
124.5000;0.1579;-0.1294;
124.8000;0.1595;-0.1270;
125.1000;0.1587;-0.1270;
125.4000;0.1579;-0.1198;
125.7000;0.1612;-0.1078;
126.0000;0.1579;-0.1246;
126.3000;0.1612;-0.1270;
126.6000;0.1587;-0.1414;
126.9000;0.1628;-0.1366;
127.2000;0.1579;-0.1509;
127.5000;0.1563;-0.1509;
127.8000;0.1604;-0.1366;
128.1000;0.1595;-0.1390;
128.4000;0.1612;-0.1414;
128.7000;0.1481;-0.1773;
129.0000;0.1595;-0.1462;
129.3000;0.1604;-0.1366;
129.6000;0.1661;-0.1174;
129.9000;0.1595;-0.1294;
130.2000;0.1612;-0.1198;
130.5000;0.1579;-0.1270;
130.8000;0.1628;-0.1150;
131.1000;0.1604;-0.1198;
131.4000;0.1612;-0.1198;
131.7000;0.1612;-0.1102;
132.0000;0.1579;-0.1174;
132.3000;0.1579;-0.1054;
132.6000;0.1514;-0.1294;
132.9000;0.1612;-0.1102;
133.2000;0.1620;-0.1126;
133.5000;0.1563;-0.1342;
133.8000;0.1628;-0.1198;
134.1000;0.1595;-0.1222;
134.4000;0.1595;-0.1246;
134.7000;0.1498;-0.1486;
135.0000;0.1604;-0.1318;
135.3000;0.1644;-0.1222;
135.6000;0.1612;-0.1294;
135.9000;0.1636;-0.1126;
136.2000;0.1636;-0.1054;
136.5000;0.1604;-0.1222;
136.8000;0.1595;-0.1246;
137.1000;0.1620;-0.1102;
137.4000;0.1579;-0.1222;
137.7000;0.1587;-0.1270;
138.0000;0.1579;-0.1318;
138.3000;0.1538;-0.1462;
138.6000;0.1579;-0.1294;
138.9000;0.1587;-0.1270;
139.2000;0.1661;-0.1054;
139.5000;0.1604;-0.1222;
139.8000;0.1473;-0.1581;
140.1000;0.1612;-0.1246;
140.4000;0.1555;-0.1366;
140.7000;0.1579;-0.1294;
141.0000;0.1538;-0.1342;
141.3000;0.1604;-0.1150;
141.6000;0.1579;-0.1150;
141.9000;0.1587;-0.1126;
142.2000;0.1579;-0.1150;
142.5000;0.1587;-0.1102;
142.8000;0.1587;-0.1102;
143.1000;0.1579;-0.1030;
143.4000;0.1587;-0.0982;
143.7000;0.1571;-0.0982;
144.0000;0.1579;-0.0958;
144.3000;0.1604;-0.0958;
144.6000;0.1571;-0.1054;
144.9000;0.1547;-0.1030;
145.2000;0.1587;-0.1006;
145.5000;0.1661;-0.0863;
145.8000;0.1612;-0.0982;
146.1000;0.1604;-0.1030;
146.4000;0.1587;-0.1030;
146.7000;0.1612;-0.1006;
147.0000;0.1604;-0.1054;
147.3000;0.1579;-0.1126;
147.6000;0.1620;-0.1006;
147.9000;0.1579;-0.1078;
148.2000;0.1595;-0.1054;
148.5000;0.1579;-0.1030;
148.8000;0.1555;-0.1174;
149.1000;0.1587;-0.1054;
149.4000;0.1587;-0.1006;
149.7000;0.1587;-0.1054;
150.0000;0.1595;-0.1126;
150.3000;0.1604;-0.1126;
150.6000;0.1620;-0.1102;
150.9000;0.1579;-0.1174;
151.2000;0.1620;-0.1054;
151.5000;0.1595;-0.1102;
151.8000;0.1595;-0.1030;
152.1000;0.1628;-0.0887;
152.4000;0.1530;-0.1246;
152.7000;0.1490;-0.1390;
153.0000;0.1604;-0.1126;
153.3000;0.1604;-0.1126;
153.6000;0.1547;-0.1366;
153.9000;0.1595;-0.1198;
154.2000;0.1587;-0.1078;
154.5000;0.1612;-0.1078;
154.8000;0.1604;-0.1126;
155.1000;0.1620;-0.1054;
155.4000;0.1587;-0.1054;
155.7000;0.1579;-0.1126;
156.0000;0.1628;-0.1006;
156.3000;0.1563;-0.1174;
156.6000;0.1538;-0.1246;
156.9000;0.1612;-0.0982;
157.2000;0.1628;-0.0910;
157.5000;0.1612;-0.1006;
157.8000;0.1595;-0.1078;
158.1000;0.1595;-0.1078;
158.4000;0.1604;-0.1078;
158.7000;0.1587;-0.1054;
159.0000;0.1571;-0.1102;
159.3000;0.1595;-0.1102;
159.6000;0.1571;-0.1102;
159.9000;0.1620;-0.0982;
160.2000;0.1718;-0.0695;
160.5000;0.1579;-0.1078;
160.8000;0.1595;-0.1054;
161.1000;0.1587;-0.1054;
161.4000;0.1604;-0.1078;
161.7000;0.1595;-0.1174;
162.0000;0.1595;-0.1222;
162.3000;0.1604;-0.1126;
162.6000;0.1587;-0.1174;
162.9000;0.1579;-0.1270;
163.2000;0.1571;-0.1342;
163.5000;0.1530;-0.1438;
163.8000;0.1628;-0.1174;
164.1000;0.1595;-0.1222;
164.4000;0.1595;-0.1174;
164.7000;0.1612;-0.1174;
165.0000;0.1604;-0.1198;
165.3000;0.1612;-0.1102;
165.6000;0.1595;-0.1102;
165.9000;0.1595;-0.1078;
166.2000;0.1612;-0.1054;
166.5000;0.1595;-0.1030;
166.8000;0.1587;-0.0982;
167.1000;0.1595;-0.0982;
167.4000;0.1514;-0.1150;
167.7000;0.1587;-0.1006;
168.0000;0.1587;-0.1030;
168.3000;0.1612;-0.0982;
168.6000;0.1587;-0.1078;
168.9000;0.1604;-0.1030;
169.2000;0.1587;-0.1198;
169.5000;0.1604;-0.1174;
169.8000;0.1604;-0.1150;
170.1000;0.1620;-0.1150;
170.4000;0.1595;-0.1198;
170.7000;0.1563;-0.1246;
171.0000;0.1595;-0.1294;
171.3000;0.1579;-0.1246;
171.6000;0.1587;-0.1150;
171.9000;0.1612;-0.1198;
172.2000;0.1612;-0.1174;
172.5000;0.1612;-0.1174;
172.8000;0.1579;-0.1318;
173.1000;0.1604;-0.1270;
173.4000;0.1604;-0.1246;
173.7000;0.1490;-0.1414;
174.0000;0.1604;-0.1078;
174.3000;0.1595;-0.1102;
174.6000;0.1628;-0.1150;
174.9000;0.1571;-0.1270;
175.2000;0.1587;-0.1198;
175.5000;0.1652;-0.1078;
175.8000;0.1571;-0.1246;
176.1000;0.1595;-0.1198;
176.4000;0.1620;-0.1102;
176.7000;0.1555;-0.1366;
177.0000;0.1604;-0.1246;
177.3000;0.1612;-0.1294;
177.6000;0.1612;-0.1246;
177.9000;0.1555;-0.1390;
178.2000;0.1595;-0.1270;
178.5000;0.1587;-0.1150;
178.8000;0.1604;-0.1150;
179.1000;0.1604;-0.1150;
179.4000;0.1595;-0.1030;
179.7000;0.1595;-0.1030;
180.0000;0.1571;-0.1078;
180.3000;0.1579;-0.1054;
180.6000;0.1579;-0.1126;
180.9000;0.1595;-0.1198;
181.2000;0.1587;-0.1174;
181.5000;0.1571;-0.1150;
181.8000;0.1579;-0.1150;
182.1000;0.1457;-0.1533;
182.4000;0.1498;-0.1438;
182.7000;0.1628;-0.1198;
183.0000;0.1612;-0.1198;
183.3000;0.1579;-0.1174;
183.6000;0.1587;-0.1198;
183.9000;0.1595;-0.1222;
184.2000;0.1538;-0.1366;
184.5000;0.1587;-0.1342;
184.8000;0.1628;-0.1150;
185.1000;0.1579;-0.1270;
185.4000;0.1604;-0.1198;
185.7000;0.1571;-0.1294;
186.0000;0.1604;-0.1246;
186.3000;0.1571;-0.1366;
186.6000;0.1628;-0.1222;
186.9000;0.1595;-0.1342;
187.2000;0.1595;-0.1342;
187.5000;0.1644;-0.1294;
187.8000;0.1563;-0.1366;
188.1000;0.1612;-0.1294;
188.4000;0.1538;-0.1438;
188.7000;0.1595;-0.1198;
189.0000;0.1604;-0.1126;
189.3000;0.1661;-0.0887;
189.6000;0.1547;-0.1078;
189.9000;0.1587;-0.1054;
190.2000;0.1579;-0.1030;
190.5000;0.1652;-0.0839;
190.8000;0.1661;-0.0863;
191.1000;0.1563;-0.1102;
191.4000;0.1636;-0.1006;
191.7000;0.1595;-0.1126;
192.0000;0.1571;-0.1198;
192.3000;0.1620;-0.1150;
192.6000;0.1595;-0.1198;
192.9000;0.1652;-0.1006;
193.2000;0.1587;-0.1078;
193.5000;0.1612;-0.1006;
193.8000;0.1612;-0.0982;
194.1000;0.1595;-0.0958;
194.4000;0.1620;-0.0839;
194.7000;0.1595;-0.0982;
195.0000;0.1571;-0.1102;
195.3000;0.1579;-0.1126;
195.6000;0.1547;-0.1270;
195.9000;0.1563;-0.1246;
196.2000;0.1579;-0.1198;
196.5000;0.1563;-0.1270;
196.8000;0.1620;-0.1102;
197.1000;0.1604;-0.1174;
197.4000;0.1547;-0.1318;
197.7000;0.1587;-0.1150;
198.0000;0.1587;-0.1198;
198.3000;0.1595;-0.1126;
198.6000;0.1612;-0.1126;
198.9000;0.1571;-0.1270;
199.2000;0.1604;-0.1270;
199.5000;0.1612;-0.1270;
199.8000;0.1612;-0.1294;
200.1000;0.1620;-0.1270;
200.4000;0.1652;-0.1150;
200.7000;0.1579;-0.1294;
201.0000;0.1628;-0.1174;
201.3000;0.1612;-0.1246;
201.6000;0.1595;-0.1294;
201.9000;0.1612;-0.1342;
202.2000;0.1685;-0.1102;
202.5000;0.1547;-0.1414;
202.8000;0.1636;-0.1150;
203.1000;0.1587;-0.1342;
203.4000;0.1571;-0.1342;
203.7000;0.1587;-0.1366;
204.0000;0.1595;-0.1270;
204.3000;0.1587;-0.1318;
204.6000;0.1612;-0.1174;
204.9000;0.1587;-0.1126;
205.2000;0.1579;-0.1174;
205.5000;0.1612;-0.1078;
205.8000;0.1587;-0.1198;
206.1000;0.1595;-0.1174;
206.4000;0.1579;-0.1270;
206.7000;0.1595;-0.1150;
207.0000;0.1620;-0.1150;
207.3000;0.1620;-0.1174;
207.6000;0.1514;-0.1509;
207.9000;0.1595;-0.1150;
208.2000;0.1514;-0.1390;
208.5000;0.1604;-0.1150;
208.8000;0.1514;-0.1414;
209.1000;0.1563;-0.1390;
209.4000;0.1587;-0.1294;
209.7000;0.1514;-0.1462;
210.0000;0.1563;-0.1342;
210.3000;0.1563;-0.1366;
210.6000;0.1693;-0.0934;
210.9000;0.1693;-0.0910;
211.2000;0.1530;-0.1342;
211.5000;0.1636;-0.1006;
211.8000;0.1612;-0.1030;
212.1000;0.1579;-0.1150;
212.4000;0.1530;-0.1270;
212.7000;0.1587;-0.1126;
213.0000;0.1604;-0.1102;
213.3000;0.1506;-0.1294;
213.6000;0.1587;-0.0982;
213.9000;0.1652;-0.0887;
214.2000;0.1571;-0.1174;
214.5000;0.1571;-0.1174;
214.8000;0.1587;-0.1102;
215.1000;0.1571;-0.1198;
215.4000;0.1579;-0.1246;
215.7000;0.1595;-0.1270;
216.0000;0.1604;-0.1270;
216.3000;0.1587;-0.1318;
216.6000;0.1595;-0.1246;
216.9000;0.1628;-0.1102;
217.2000;0.1587;-0.1198;
217.5000;0.1669;-0.0982;
217.8000;0.1579;-0.1222;
218.1000;0.1644;-0.1054;
218.4000;0.1620;-0.1150;
218.7000;0.1604;-0.1198;
219.0000;0.1612;-0.1198;
219.3000;0.1612;-0.1174;
219.6000;0.1579;-0.1294;
219.9000;0.1612;-0.1294;
220.2000;0.1612;-0.1294;
220.5000;0.1587;-0.1342;
220.8000;0.1604;-0.1342;
221.1000;0.1612;-0.1246;
221.4000;0.1587;-0.1294;
221.7000;0.1644;-0.1126;
222.0000;0.1628;-0.1222;
222.3000;0.1612;-0.1294;
222.6000;0.1587;-0.1270;
222.9000;0.1522;-0.1414;
223.2000;0.1579;-0.1294;
223.5000;0.1595;-0.1270;
223.8000;0.1677;-0.1006;
224.1000;0.1498;-0.1462;
224.4000;0.1571;-0.1318;
224.7000;0.1538;-0.1533;
225.0000;0.1595;-0.1462;
225.3000;0.1604;-0.1462;
225.6000;0.1587;-0.1414;
225.9000;0.1612;-0.1342;
226.2000;0.1628;-0.1198;
226.5000;0.1538;-0.1414;
226.8000;0.1628;-0.1078;
227.1000;0.1604;-0.1126;
227.4000;0.1587;-0.1150;
227.7000;0.1579;-0.1174;
228.0000;0.1604;-0.1126;
228.3000;0.1563;-0.1246;
228.6000;0.1595;-0.1174;
228.9000;0.1579;-0.1222;
229.2000;0.1612;-0.1150;
229.5000;0.1612;-0.1198;
229.8000;0.1612;-0.1174;
230.1000;0.1612;-0.1318;
230.4000;0.1587;-0.1486;
230.7000;0.1571;-0.1438;
231.0000;0.1620;-0.1342;
231.3000;0.1701;-0.1174;
231.6000;0.1579;-0.1533;
231.9000;0.1644;-0.1342;
232.2000;0.1595;-0.1390;
232.5000;0.1571;-0.1462;
232.8000;0.1628;-0.1198;
233.1000;0.1587;-0.1294;
233.4000;0.1595;-0.1246;
233.7000;0.1661;-0.1102;
234.0000;0.1587;-0.1318;
234.3000;0.1587;-0.1342;
234.6000;0.1587;-0.1270;
234.9000;0.1595;-0.1342;
235.2000;0.1571;-0.1438;
235.5000;0.1595;-0.1366;
235.8000;0.1587;-0.1342;
236.1000;0.1571;-0.1390;
236.4000;0.1579;-0.1318;
236.7000;0.1620;-0.1174;
237.0000;0.1620;-0.1246;
237.3000;0.1612;-0.1270;
237.6000;0.1595;-0.1294;
237.9000;0.1595;-0.1294;
238.2000;0.1579;-0.1270;
238.5000;0.1595;-0.1246;
238.8000;0.1604;-0.1126;
239.1000;0.1579;-0.1174;
239.4000;0.1604;-0.1126;
239.7000;0.1620;-0.1102;
240.0000;0.1644;-0.1006;
240.3000;0.1604;-0.1078;
240.6000;0.1595;-0.1150;
240.9000;0.1579;-0.1174;
241.2000;0.1595;-0.1174;
241.5000;0.1612;-0.1126;
241.8000;0.1595;-0.1102;
242.1000;0.1620;-0.1054;
242.4000;0.1595;-0.1078;
242.7000;0.1628;-0.1054;
243.0000;0.1604;-0.1126;
243.3000;0.1612;-0.1150;
243.6000;0.1595;-0.1198;
243.9000;0.1579;-0.1246;
244.2000;0.1612;-0.1126;
244.5000;0.1595;-0.1102;
244.8000;0.1636;-0.1102;
245.1000;0.1587;-0.1222;
245.4000;0.1604;-0.1126;
245.7000;0.1571;-0.1198;
246.0000;0.1555;-0.1246;
246.3000;0.1620;-0.1126;
246.6000;0.1612;-0.1174;
246.9000;0.1579;-0.1246;
247.2000;0.1587;-0.1222;
247.5000;0.1538;-0.1270;
247.8000;0.1563;-0.1198;
248.1000;0.1620;-0.1030;
248.4000;0.1587;-0.1174;
248.7000;0.1628;-0.1078;
249.0000;0.1661;-0.1054;
249.3000;0.1579;-0.1246;
249.6000;0.1579;-0.1222;
249.9000;0.1604;-0.1054;
250.2000;0.1604;-0.0982;
250.5000;0.1595;-0.1078;
250.8000;0.1579;-0.1030;
251.1000;0.1612;-0.0958;
251.4000;0.1587;-0.1078;
251.7000;0.1587;-0.1078;
252.0000;0.1595;-0.0934;
252.3000;0.1604;-0.0910;
252.6000;0.1604;-0.0815;
252.9000;0.1587;-0.0815;
253.2000;0.1604;-0.0815;
253.5000;0.1604;-0.0839;
253.8000;0.1595;-0.0910;
254.1000;0.1612;-0.1006;
254.4000;0.1604;-0.1054;
254.7000;0.1595;-0.1102;
255.0000;0.1587;-0.1198;
255.3000;0.1604;-0.1174;
255.6000;0.1563;-0.1246;
255.9000;0.1661;-0.1126;
256.2000;0.1587;-0.1294;
256.5000;0.1579;-0.1294;
256.8000;0.1587;-0.1270;
257.1000;0.1579;-0.1150;
257.4000;0.1555;-0.1126;
257.7000;0.1604;-0.0982;
258.0000;0.1604;-0.0958;
258.3000;0.1612;-0.1054;
258.6000;0.1587;-0.1174;
258.9000;0.1587;-0.1270;
259.2000;0.1612;-0.1270;
259.5000;0.1514;-0.1557;
259.8000;0.1587;-0.1294;
260.1000;0.1595;-0.1174;
260.4000;0.1636;-0.1150;
260.7000;0.1612;-0.1174;
261.0000;0.1587;-0.1222;
261.3000;0.1595;-0.1270;
261.6000;0.1604;-0.1342;
261.9000;0.1595;-0.1342;
262.2000;0.1587;-0.1294;
262.5000;0.1595;-0.1270;
262.8000;0.1587;-0.1222;
263.1000;0.1595;-0.1174;
263.4000;0.1571;-0.1198;
263.7000;0.1571;-0.1222;
264.0000;0.1587;-0.1198;
264.3000;0.1498;-0.1438;
264.6000;0.1718;-0.0887;
264.9000;0.1595;-0.1222;
265.2000;0.1587;-0.1246;
265.5000;0.1571;-0.1366;
265.8000;0.1612;-0.1318;
266.1000;0.1587;-0.1342;
266.4000;0.1661;-0.1078;
266.7000;0.1595;-0.1222;
267.0000;0.1604;-0.1102;
267.3000;0.1571;-0.1222;
267.6000;0.1612;-0.1126;
267.9000;0.1579;-0.1198;
268.2000;0.1612;-0.1222;
268.5000;0.1604;-0.1246;
268.8000;0.1685;-0.1078;
269.1000;0.1555;-0.1294;
269.4000;0.1595;-0.1126;
269.7000;0.1661;-0.0982;
270.0000;0.1563;-0.1246;
270.3000;0.1652;-0.1102;
270.6000;0.1595;-0.1174;
270.9000;0.1612;-0.1222;
271.2000;0.1514;-0.1438;
271.5000;0.1620;-0.1102;
271.8000;0.1587;-0.1246;
272.1000;0.1620;-0.1174;
272.4000;0.1587;-0.1222;
272.7000;0.1685;-0.0934;
273.0000;0.1595;-0.1126;
273.3000;0.1595;-0.1054;
273.6000;0.1563;-0.1102;
273.9000;0.1587;-0.1102;
274.2000;0.1587;-0.1150;
274.5000;0.1571;-0.1222;
274.8000;0.1709;-0.0934;
275.1000;0.1571;-0.1294;
275.4000;0.1595;-0.1198;
275.7000;0.1595;-0.1150;
276.0000;0.1604;-0.1150;
276.3000;0.1579;-0.1198;
276.6000;0.1571;-0.1222;
276.9000;0.1579;-0.1198;
277.2000;0.1587;-0.1198;
277.5000;0.1587;-0.1126;
277.8000;0.1514;-0.1462;
278.1000;0.1595;-0.1270;
278.4000;0.1595;-0.1294;
278.7000;0.1612;-0.1270;
279.0000;0.1555;-0.1438;
279.3000;0.1595;-0.1366;
279.6000;0.1595;-0.1342;
279.9000;0.1587;-0.1294;
280.2000;0.1604;-0.1318;
280.5000;0.1587;-0.1318;
280.8000;0.1587;-0.1390;
281.1000;0.1571;-0.1438;
281.4000;0.1620;-0.1366;
281.7000;0.1587;-0.1438;
282.0000;0.1571;-0.1462;
282.3000;0.1571;-0.1438;
282.6000;0.1579;-0.1342;
282.9000;0.1587;-0.1366;
283.2000;0.1587;-0.1438;
283.5000;0.1595;-0.1414;
283.8000;0.1579;-0.1438;
284.1000;0.1571;-0.1414;
284.4000;0.1571;-0.1390;
284.7000;0.1579;-0.1318;
285.0000;0.1579;-0.1318;
285.3000;0.1587;-0.1342;
285.6000;0.1636;-0.1198;
285.9000;0.1587;-0.1390;
286.2000;0.1587;-0.1342;
286.5000;0.1612;-0.1270;
286.8000;0.1587;-0.1342;
287.1000;0.1555;-0.1342;
287.4000;0.1595;-0.1294;
287.7000;0.1587;-0.1342;
288.0000;0.1604;-0.1246;
288.3000;0.1579;-0.1318;
288.6000;0.1595;-0.1318;
288.9000;0.1587;-0.1270;
289.2000;0.1595;-0.1318;
289.5000;0.1547;-0.1486;
289.8000;0.1571;-0.1390;
290.1000;0.1595;-0.1318;
290.4000;0.1604;-0.1294;
290.7000;0.1587;-0.1342;
291.0000;0.1587;-0.1318;
291.3000;0.1538;-0.1462;
291.6000;0.1587;-0.1222;
291.9000;0.1636;-0.1030;
292.2000;0.1685;-0.0910;
292.5000;0.1571;-0.1222;
292.8000;0.1620;-0.1126;
293.1000;0.1579;-0.1270;
293.4000;0.1579;-0.1246;
293.7000;0.1579;-0.1222;
294.0000;0.1571;-0.1222;
294.3000;0.1587;-0.1222;
294.6000;0.1587;-0.1222;
294.9000;0.1604;-0.1198;
295.2000;0.1595;-0.1150;
295.5000;0.1563;-0.1174;
295.8000;0.1571;-0.1174;
296.1000;0.1571;-0.1174;
296.4000;0.1571;-0.1150;
296.7000;0.1612;-0.1030;
297.0000;0.1579;-0.1054;
297.3000;0.1587;-0.1054;
297.6000;0.1604;-0.0982;
297.9000;0.1595;-0.1126;
298.2000;0.1595;-0.1198;
298.5000;0.1571;-0.1318;
298.8000;0.1579;-0.1270;
299.1000;0.1587;-0.1294;
299.4000;0.1563;-0.1246;
299.7000;0.1563;-0.1198;
300.0000;0.1628;-0.1078;
300.3000;0.1604;-0.1198;
300.6000;0.1587;-0.1294;
300.9000;0.1490;-0.1533;
301.2000;0.1604;-0.1198;
301.5000;0.1555;-0.1342;
301.8000;0.1547;-0.1366;
302.1000;0.1587;-0.1198;
302.4000;0.1636;-0.1126;
302.7000;0.1587;-0.1342;
303.0000;0.1604;-0.1318;
303.3000;0.1604;-0.1318;
303.6000;0.1620;-0.1270;
303.9000;0.1595;-0.1318;
304.2000;0.1628;-0.1174;
304.5000;0.1595;-0.1198;
304.8000;0.1595;-0.1174;
305.1000;0.1604;-0.1222;
305.4000;0.1587;-0.1270;
305.7000;0.1595;-0.1270;
306.0000;0.1571;-0.1390;
306.3000;0.1595;-0.1270;
306.6000;0.1604;-0.1222;
306.9000;0.1571;-0.1246;
307.2000;0.1604;-0.1174;
307.5000;0.1604;-0.1222;
307.8000;0.1579;-0.1294;
308.1000;0.1644;-0.1174;
308.4000;0.1612;-0.1246;
308.7000;0.1612;-0.1294;
309.0000;0.1587;-0.1366;
309.3000;0.1628;-0.1270;
309.6000;0.1669;-0.1126;
309.9000;0.1595;-0.1318;
310.2000;0.1595;-0.1294;
310.5000;0.1620;-0.1126;
310.8000;0.1595;-0.1150;
311.1000;0.1595;-0.1078;
311.4000;0.1579;-0.1150;
311.7000;0.1571;-0.1198;
312.0000;0.1595;-0.1246;
312.3000;0.1579;-0.1366;
312.6000;0.1571;-0.1294;
312.9000;0.1571;-0.1390;
313.2000;0.1620;-0.1342;
313.5000;0.1595;-0.1390;
313.8000;0.1595;-0.1366;
314.1000;0.1587;-0.1438;
314.4000;0.1579;-0.1462;
314.7000;0.1587;-0.1438;
315.0000;0.1571;-0.1509;
315.3000;0.1579;-0.1486;
315.6000;0.1579;-0.1486;
315.9000;0.1604;-0.1557;
316.2000;0.1587;-0.1605;
316.5000;0.1595;-0.1509;
316.8000;0.1604;-0.1462;
317.1000;0.1595;-0.1509;
317.4000;0.1595;-0.1438;
317.7000;0.1579;-0.1438;
318.0000;0.1587;-0.1414;
318.3000;0.1563;-0.1533;
318.6000;0.1595;-0.1486;
318.9000;0.1604;-0.1390;
319.2000;0.1587;-0.1414;
319.5000;0.1595;-0.1486;
319.8000;0.1587;-0.1509;
320.1000;0.1579;-0.1581;
320.4000;0.1555;-0.1701;
320.7000;0.1530;-0.1797;
321.0000;0.1742;-0.1174;
321.3000;0.1604;-0.1605;
321.6000;0.1579;-0.1629;
321.9000;0.1595;-0.1557;
322.2000;0.1644;-0.1438;
322.5000;0.1579;-0.1629;
322.8000;0.1644;-0.1462;
323.1000;0.1612;-0.1557;
323.4000;0.1587;-0.1533;
323.7000;0.1587;-0.1509;
324.0000;0.1595;-0.1438;
324.3000;0.1571;-0.1414;
324.6000;0.1595;-0.1438;
324.9000;0.1571;-0.1438;
325.2000;0.1587;-0.1390;
325.5000;0.1579;-0.1438;
325.8000;0.1587;-0.1342;
326.1000;0.1587;-0.1270;
326.4000;0.1604;-0.1222;
326.7000;0.1587;-0.1318;
327.0000;0.1514;-0.1581;
327.3000;0.1604;-0.1438;
327.6000;0.1595;-0.1414;
327.9000;0.1595;-0.1390;
328.2000;0.1571;-0.1462;
328.5000;0.1595;-0.1414;
328.8000;0.1604;-0.1414;
329.1000;0.1612;-0.1414;
329.4000;0.1652;-0.1390;
329.7000;0.1620;-0.1486;
330.0000;0.1530;-0.1629;
330.3000;0.1587;-0.1462;
330.6000;0.1595;-0.1342;
330.9000;0.1604;-0.1294;
331.2000;0.1595;-0.1342;
331.5000;0.1587;-0.1342;
331.8000;0.1620;-0.1318;
332.1000;0.1587;-0.1390;
332.4000;0.1612;-0.1486;
332.7000;0.1547;-0.1605;
333.0000;0.1563;-0.1462;
333.3000;0.1587;-0.1414;
333.6000;0.1587;-0.1414;
333.9000;0.1628;-0.1366;
334.2000;0.1612;-0.1414;
334.5000;0.1587;-0.1414;
334.8000;0.1587;-0.1462;
335.1000;0.1579;-0.1462;
335.4000;0.1563;-0.1438;
335.7000;0.1490;-0.1701;
336.0000;0.1628;-0.1270;
336.3000;0.1579;-0.1486;
336.6000;0.1587;-0.1509;
336.9000;0.1595;-0.1629;
337.2000;0.1587;-0.1653;
337.5000;0.1612;-0.1701;
337.8000;0.1579;-0.1797;
338.1000;0.1587;-0.1677;
338.4000;0.1579;-0.1653;
338.7000;0.1595;-0.1749;
339.0000;0.1587;-0.1773;
339.3000;0.1604;-0.1677;
339.6000;0.1595;-0.1677;
339.9000;0.1547;-0.1773;
340.2000;0.1587;-0.1605;
340.5000;0.1587;-0.1533;
340.8000;0.1604;-0.1390;
341.1000;0.1579;-0.1438;
341.4000;0.1587;-0.1366;
341.7000;0.1563;-0.1390;
342.0000;0.1579;-0.1246;
342.3000;0.1595;-0.1174;
342.6000;0.1579;-0.1246;
342.9000;0.1498;-0.1509;
343.2000;0.1587;-0.1294;
343.5000;0.1579;-0.1390;
343.8000;0.1587;-0.1270;
344.1000;0.1587;-0.1174;
344.4000;0.1595;-0.1126;
344.7000;0.1595;-0.1126;
345.0000;0.1571;-0.1198;
345.3000;0.1587;-0.1102;
345.6000;0.1595;-0.1054;
345.9000;0.1595;-0.1126;
346.2000;0.1587;-0.1102;
346.5000;0.1636;-0.0958;
346.8000;0.1595;-0.1054;
347.1000;0.1587;-0.1078;
347.4000;0.1604;-0.0982;
347.7000;0.1595;-0.0982;
348.0000;0.1595;-0.0958;
348.3000;0.1612;-0.0934;
348.6000;0.1595;-0.0910;
348.9000;0.1587;-0.0982;
349.2000;0.1604;-0.1030;
349.5000;0.1587;-0.1102;
349.8000;0.1538;-0.1198;
350.1000;0.1571;-0.1198;
350.4000;0.1612;-0.1126;
350.7000;0.1604;-0.1102;
351.0000;0.1595;-0.1174;
351.3000;0.1587;-0.1222;
351.6000;0.1595;-0.1198;
351.9000;0.1587;-0.1270;
352.2000;0.1579;-0.1198;
352.5000;0.1555;-0.1270;
352.8000;0.1604;-0.1102;
353.1000;0.1595;-0.1150;
353.4000;0.1604;-0.1150;
353.7000;0.1587;-0.1150;
354.0000;0.1571;-0.1246;
354.3000;0.1587;-0.1246;
354.6000;0.1595;-0.1222;
354.9000;0.1587;-0.1222;
355.2000;0.1530;-0.1366;
355.5000;0.1628;-0.1126;
355.8000;0.1595;-0.1174;
356.1000;0.1661;-0.1078;
356.4000;0.1669;-0.1078;
356.7000;0.1587;-0.1366;
357.0000;0.1604;-0.1294;
357.3000;0.1604;-0.1342;
357.6000;0.1587;-0.1342;
357.9000;0.1555;-0.1414;
358.2000;0.1595;-0.1342;
358.5000;0.1612;-0.1342;
358.8000;0.1579;-0.1342;
359.1000;0.1563;-0.1342;
359.4000;0.1612;-0.1318;
359.7000;0.1571;-0.1462;
360.0000;0.1563;-0.1486;
360.3000;0.1587;-0.1414;
360.6000;0.1604;-0.1390;
360.9000;0.1595;-0.1294;
361.2000;0.1555;-0.1366;
361.5000;0.1563;-0.1366;
361.8000;0.1620;-0.1318;
362.1000;0.1579;-0.1414;
362.4000;0.1514;-0.1486;
362.7000;0.1571;-0.1294;
363.0000;0.1595;-0.1174;
363.3000;0.1587;-0.1222;
363.6000;0.1620;-0.1126;
363.9000;0.1579;-0.1198;
364.2000;0.1587;-0.1174;
364.5000;0.1547;-0.1270;
364.8000;0.1571;-0.1198;
365.1000;0.1579;-0.1246;
365.4000;0.1595;-0.1294;
365.7000;0.1547;-0.1438;
366.0000;0.1595;-0.1318;
366.3000;0.1579;-0.1390;
366.6000;0.1587;-0.1318;
366.9000;0.1547;-0.1414;
367.2000;0.1579;-0.1270;
367.5000;0.1604;-0.1126;
367.8000;0.1579;-0.1222;
368.1000;0.1579;-0.1246;
368.4000;0.1587;-0.1174;
368.7000;0.1563;-0.1222;
369.0000;0.1620;-0.1126;
369.3000;0.1579;-0.1246;
369.6000;0.1587;-0.1318;
369.9000;0.1587;-0.1390;
370.2000;0.1579;-0.1438;
370.5000;0.1612;-0.1438;
370.8000;0.1579;-0.1486;
371.1000;0.1587;-0.1366;
371.4000;0.1587;-0.1390;
371.7000;0.1587;-0.1318;
372.0000;0.1587;-0.1294;
372.3000;0.1481;-0.1581;
372.6000;0.1571;-0.1294;
372.9000;0.1604;-0.1462;
373.2000;0.1587;-0.1509;
373.5000;0.1612;-0.1414;
373.8000;0.1604;-0.1318;
374.1000;0.1595;-0.1246;
374.4000;0.1579;-0.1270;
374.7000;0.1563;-0.1414;
375.0000;0.1571;-0.1294;
375.3000;0.1555;-0.1318;
375.6000;0.1555;-0.1318;
375.9000;0.1587;-0.1222;
376.2000;0.1579;-0.1222;
376.5000;0.1620;-0.1054;
376.8000;0.1595;-0.1198;
377.1000;0.1587;-0.1222;
377.4000;0.1571;-0.1246;
377.7000;0.1587;-0.1318;
378.0000;0.1595;-0.1294;
378.3000;0.1587;-0.1366;
378.6000;0.1571;-0.1342;
378.9000;0.1595;-0.1294;
379.2000;0.1587;-0.1222;
379.5000;0.1669;-0.1054;
379.8000;0.1636;-0.1078;
380.1000;0.1595;-0.1198;
380.4000;0.1604;-0.1078;
380.7000;0.1685;-0.0815;
381.0000;0.1579;-0.1174;
381.3000;0.1595;-0.1198;
381.6000;0.1636;-0.1102;
381.9000;0.1604;-0.1150;
382.2000;0.1506;-0.1509;
382.5000;0.1547;-0.1366;
382.8000;0.1604;-0.1102;
383.1000;0.1587;-0.1222;
383.4000;0.1571;-0.1270;
383.7000;0.1604;-0.1246;
384.0000;0.1563;-0.1390;
384.3000;0.1587;-0.1294;
384.6000;0.1595;-0.1198;
384.9000;0.1612;-0.1174;
385.2000;0.1604;-0.1102;
385.5000;0.1595;-0.1102;
385.8000;0.1571;-0.1174;
386.1000;0.1579;-0.1174;
386.4000;0.1595;-0.1078;
386.7000;0.1579;-0.1150;
387.0000;0.1620;-0.1126;
387.3000;0.1587;-0.1198;
387.6000;0.1587;-0.1126;
387.9000;0.1587;-0.1150;
388.2000;0.1579;-0.1222;
388.5000;0.1595;-0.1270;
388.8000;0.1604;-0.1246;
389.1000;0.1595;-0.1270;
389.4000;0.1587;-0.1222;
389.7000;0.1555;-0.1342;
390.0000;0.1587;-0.1294;
390.3000;0.1595;-0.1294;
390.6000;0.1587;-0.1246;
390.9000;0.1587;-0.1294;
391.2000;0.1579;-0.1342;
391.5000;0.1579;-0.1342;
391.8000;0.1595;-0.1294;
392.1000;0.1612;-0.1318;
392.4000;0.1587;-0.1318;
392.7000;0.1595;-0.1318;
393.0000;0.1612;-0.1294;
393.3000;0.1579;-0.1366;
393.6000;0.1571;-0.1414;
393.9000;0.1595;-0.1342;
394.2000;0.1587;-0.1270;
394.5000;0.1604;-0.1174;
394.8000;0.1612;-0.1174;
395.1000;0.1604;-0.1198;
395.4000;0.1604;-0.1126;
395.7000;0.1579;-0.1102;
396.0000;0.1587;-0.1126;
396.3000;0.1563;-0.1246;
396.6000;0.1612;-0.1126;
396.9000;0.1661;-0.1006;
397.2000;0.1587;-0.1270;
397.5000;0.1587;-0.1318;
397.8000;0.1661;-0.1078;
398.1000;0.1595;-0.1198;
398.4000;0.1685;-0.0958;
398.7000;0.1571;-0.1342;
399.0000;0.1579;-0.1342;
399.3000;0.1579;-0.1318;
399.6000;0.1587;-0.1342;
399.9000;0.1579;-0.1390;
400.2000;0.1587;-0.1318;
400.5000;0.1506;-0.1414;
400.8000;0.1604;-0.1150;
401.1000;0.1595;-0.1222;
401.4000;0.1709;-0.0839;
401.7000;0.1595;-0.1102;
402.0000;0.1595;-0.1150;
402.3000;0.1595;-0.1150;
402.6000;0.1595;-0.1198;
402.9000;0.1587;-0.1246;
403.2000;0.1571;-0.1318;
403.5000;0.1604;-0.1222;
403.8000;0.1595;-0.1246;
404.1000;0.1620;-0.1318;
404.4000;0.1547;-0.1509;
404.7000;0.1604;-0.1366;
405.0000;0.1563;-0.1438;
405.3000;0.1587;-0.1342;
405.6000;0.1538;-0.1486;
405.9000;0.1587;-0.1366;
406.2000;0.1571;-0.1390;
406.5000;0.1628;-0.1294;
406.8000;0.1571;-0.1462;
407.1000;0.1571;-0.1366;
407.4000;0.1587;-0.1246;
407.7000;0.1620;-0.1198;
408.0000;0.1604;-0.1342;
408.3000;0.1571;-0.1390;
408.6000;0.1604;-0.1294;
408.9000;0.1587;-0.1270;
409.2000;0.1587;-0.1222;
409.5000;0.1595;-0.1318;
409.8000;0.1620;-0.1270;
410.1000;0.1579;-0.1390;
410.4000;0.1604;-0.1342;
410.7000;0.1595;-0.1342;
411.0000;0.1595;-0.1390;
411.3000;0.1604;-0.1342;
411.6000;0.1595;-0.1366;
411.9000;0.1604;-0.1318;
412.2000;0.1604;-0.1318;
412.5000;0.1604;-0.1318;
412.8000;0.1595;-0.1366;
413.1000;0.1530;-0.1438;
413.4000;0.1595;-0.1222;
413.7000;0.1620;-0.1198;
414.0000;0.1587;-0.1294;
414.3000;0.1587;-0.1318;
414.6000;0.1555;-0.1509;
414.9000;0.1604;-0.1222;
415.2000;0.1595;-0.1270;
415.5000;0.1612;-0.1294;
415.8000;0.1579;-0.1486;
416.1000;0.1587;-0.1486;
416.4000;0.1587;-0.1390;
416.7000;0.1579;-0.1533;
417.0000;0.1563;-0.1486;
417.3000;0.1571;-0.1462;
417.6000;0.1604;-0.1366;
417.9000;0.1530;-0.1557;
418.2000;0.1612;-0.1318;
418.5000;0.1579;-0.1342;
418.8000;0.1571;-0.1366;
419.1000;0.1514;-0.1509;
419.4000;0.1644;-0.1198;
419.7000;0.1604;-0.1342;
420.0000;0.1604;-0.1366;
420.3000;0.1604;-0.1366;
420.6000;0.1563;-0.1414;
420.9000;0.1571;-0.1414;
421.2000;0.1587;-0.1414;
421.5000;0.1547;-0.1533;
421.8000;0.1604;-0.1438;
422.1000;0.1579;-0.1509;
422.4000;0.1636;-0.1342;
422.7000;0.1579;-0.1486;
423.0000;0.1612;-0.1414;
423.3000;0.1628;-0.1294;
423.6000;0.1587;-0.1414;
423.9000;0.1579;-0.1366;
424.2000;0.1587;-0.1366;
424.5000;0.1636;-0.1222;
424.8000;0.1563;-0.1486;
425.1000;0.1587;-0.1438;
425.4000;0.1595;-0.1438;
425.7000;0.1595;-0.1414;
426.0000;0.1595;-0.1462;
426.3000;0.1595;-0.1557;
426.6000;0.1604;-0.1629;
426.9000;0.1571;-0.1701;
427.2000;0.1628;-0.1557;
427.5000;0.1571;-0.1725;
427.8000;0.1595;-0.1629;
428.1000;0.1636;-0.1533;
428.4000;0.1555;-0.1701;
428.7000;0.1555;-0.1629;
429.0000;0.1579;-0.1629;
429.3000;0.1595;-0.1557;
429.6000;0.1587;-0.1533;
429.9000;0.1612;-0.1462;
430.2000;0.1587;-0.1533;
430.5000;0.1595;-0.1509;
430.8000;0.1555;-0.1653;
431.1000;0.1587;-0.1677;
431.4000;0.1579;-0.1749;
431.7000;0.1604;-0.1653;
432.0000;0.1595;-0.1509;
432.3000;0.1595;-0.1462;
432.6000;0.1612;-0.1366;
432.9000;0.1547;-0.1557;
433.2000;0.1571;-0.1462;
433.5000;0.1579;-0.1414;
433.8000;0.1563;-0.1366;
434.1000;0.1595;-0.1318;
434.4000;0.1595;-0.1342;
434.7000;0.1579;-0.1414;
435.0000;0.1620;-0.1390;
435.3000;0.1604;-0.1438;
435.6000;0.1595;-0.1390;
435.9000;0.1604;-0.1438;
436.2000;0.1604;-0.1462;
436.5000;0.1604;-0.1390;
436.8000;0.1514;-0.1557;
437.1000;0.1612;-0.1342;
437.4000;0.1579;-0.1414;
437.7000;0.1555;-0.1438;
438.0000;0.1604;-0.1318;
438.3000;0.1628;-0.1270;
438.6000;0.1555;-0.1438;
438.9000;0.1571;-0.1342;
439.2000;0.1579;-0.1318;
439.5000;0.1563;-0.1414;
439.8000;0.1563;-0.1438;
440.1000;0.1579;-0.1342;
440.4000;0.1563;-0.1390;
440.7000;0.1595;-0.1318;
441.0000;0.1693;-0.1078;
441.3000;0.1604;-0.1390;
441.6000;0.1595;-0.1366;
441.9000;0.1547;-0.1557;
442.2000;0.1587;-0.1438;
442.5000;0.1587;-0.1390;
442.8000;0.1571;-0.1318;
443.1000;0.1604;-0.1198;
443.4000;0.1612;-0.1222;
443.7000;0.1604;-0.1318;
444.0000;0.1644;-0.1174;
444.3000;0.1579;-0.1366;
444.6000;0.1587;-0.1342;
444.9000;0.1579;-0.1390;
445.2000;0.1555;-0.1581;
445.5000;0.1522;-0.1581;
445.8000;0.1571;-0.1462;
446.1000;0.1612;-0.1438;
446.4000;0.1587;-0.1486;
446.7000;0.1555;-0.1605;
447.0000;0.1604;-0.1414;
447.3000;0.1604;-0.1342;
447.6000;0.1595;-0.1390;
447.9000;0.1595;-0.1390;
448.2000;0.1595;-0.1390;
448.5000;0.1547;-0.1533;
448.8000;0.1587;-0.1342;
449.1000;0.1579;-0.1390;
449.4000;0.1587;-0.1390;
449.7000;0.1595;-0.1294;
450.0000;0.1579;-0.1390;
450.3000;0.1595;-0.1390;
450.6000;0.1612;-0.1414;
450.9000;0.1620;-0.1366;
451.2000;0.1636;-0.1246;
451.5000;0.1506;-0.1605;
451.8000;0.1555;-0.1509;
452.1000;0.1595;-0.1294;
452.4000;0.1595;-0.1318;
452.7000;0.1579;-0.1366;
453.0000;0.1595;-0.1342;
453.3000;0.1620;-0.1318;
453.6000;0.1604;-0.1366;
453.9000;0.1595;-0.1366;
454.2000;0.1579;-0.1390;
454.5000;0.1587;-0.1414;
454.8000;0.1612;-0.1390;
455.1000;0.1604;-0.1486;
455.4000;0.1571;-0.1533;
455.7000;0.1563;-0.1581;
456.0000;0.1571;-0.1509;
456.3000;0.1604;-0.1318;
456.6000;0.1620;-0.1246;
456.9000;0.1628;-0.1318;
457.2000;0.1587;-0.1462;
457.5000;0.1530;-0.1581;
457.8000;0.1604;-0.1366;
458.1000;0.1595;-0.1342;
458.4000;0.1547;-0.1509;
458.7000;0.1579;-0.1462;
459.0000;0.1579;-0.1533;
459.3000;0.1587;-0.1414;
459.6000;0.1652;-0.1222;
459.9000;0.1555;-0.1462;
460.2000;0.1604;-0.1366;
460.5000;0.1571;-0.1557;
460.8000;0.1595;-0.1581;
461.1000;0.1563;-0.1701;
461.4000;0.1579;-0.1701;
461.7000;0.1522;-0.1749;
462.0000;0.1595;-0.1438;
462.3000;0.1595;-0.1366;
462.6000;0.1636;-0.1246;
462.9000;0.1579;-0.1366;
463.2000;0.1587;-0.1438;
463.5000;0.1595;-0.1414;
463.8000;0.1563;-0.1533;
464.1000;0.1587;-0.1318;
464.4000;0.1595;-0.1366;
464.7000;0.1579;-0.1438;
465.0000;0.1571;-0.1390;
465.3000;0.1612;-0.1222;
465.6000;0.1595;-0.1246;
465.9000;0.1473;-0.1486;
466.2000;0.1604;-0.1174;
466.5000;0.1579;-0.1150;
466.8000;0.1604;-0.1150;
467.1000;0.1579;-0.1126;
467.4000;0.1604;-0.1102;
467.7000;0.1563;-0.1270;
468.0000;0.1571;-0.1174;
468.3000;0.1547;-0.1270;
468.6000;0.1587;-0.1222;
468.9000;0.1587;-0.1222;
469.2000;0.1587;-0.1246;
469.5000;0.1604;-0.1246;
469.8000;0.1587;-0.1318;
470.1000;0.1595;-0.1294;
470.4000;0.1506;-0.1557;
470.7000;0.1628;-0.1318;
471.0000;0.1587;-0.1414;
471.3000;0.1587;-0.1414;
471.6000;0.1587;-0.1390;
471.9000;0.1563;-0.1438;
472.2000;0.1514;-0.1605;
472.5000;0.1538;-0.1557;
472.8000;0.1473;-0.1773;
473.1000;0.1644;-0.1342;
473.4000;0.1587;-0.1462;
473.7000;0.1571;-0.1438;
474.0000;0.1620;-0.1222;
474.3000;0.1595;-0.1198;
474.6000;0.1709;-0.0910;
474.9000;0.1579;-0.1318;
475.2000;0.1449;-0.1653;
475.5000;0.1587;-0.1294;
475.8000;0.1538;-0.1414;
476.1000;0.1620;-0.1294;
476.4000;0.1571;-0.1462;
476.7000;0.1571;-0.1557;
477.0000;0.1563;-0.1557;
477.3000;0.1571;-0.1462;
477.6000;0.1612;-0.1366;
477.9000;0.1571;-0.1462;
478.2000;0.1587;-0.1414;
478.5000;0.1555;-0.1557;
478.8000;0.1579;-0.1438;
479.1000;0.1595;-0.1438;
479.4000;0.1636;-0.1294;
479.7000;0.1612;-0.1318;
480.0000;0.1677;-0.1054;
480.3000;0.1604;-0.1222;
480.6000;0.1587;-0.1222;
480.9000;0.1595;-0.1150;
481.2000;0.1587;-0.1078;
481.5000;0.1628;-0.1102;
481.8000;0.1579;-0.1222;
482.1000;0.1595;-0.1150;
482.4000;0.1587;-0.1222;
482.7000;0.1571;-0.1270;
483.0000;0.1587;-0.1222;
483.3000;0.1587;-0.1198;
483.6000;0.1514;-0.1414;
483.9000;0.1579;-0.1270;
484.2000;0.1612;-0.1174;
484.5000;0.1604;-0.1126;
484.8000;0.1595;-0.1150;
485.1000;0.1579;-0.1246;
485.4000;0.1612;-0.1198;
485.7000;0.1555;-0.1270;
486.0000;0.1612;-0.1102;
486.3000;0.1579;-0.1078;
486.6000;0.1595;-0.1054;
486.9000;0.1563;-0.1150;
487.2000;0.1563;-0.1078;
487.5000;0.1579;-0.1150;
487.8000;0.1595;-0.1054;
488.1000;0.1579;-0.1174;
488.4000;0.1612;-0.1198;
488.7000;0.1587;-0.1270;
489.0000;0.1595;-0.1222;
489.3000;0.1579;-0.1294;
489.6000;0.1579;-0.1198;
489.9000;0.1587;-0.1198;
490.2000;0.1563;-0.1342;
490.5000;0.1604;-0.1174;
490.8000;0.1595;-0.1246;
491.1000;0.1587;-0.1222;
491.4000;0.1587;-0.1270;
491.7000;0.1644;-0.1078;
492.0000;0.1587;-0.1150;
492.3000;0.1620;-0.1078;
492.6000;0.1555;-0.1246;
492.9000;0.1563;-0.1222;
493.2000;0.1563;-0.1246;
493.5000;0.1579;-0.1150;
493.8000;0.1595;-0.1078;
494.1000;0.1579;-0.1126;
494.4000;0.1636;-0.1030;
494.7000;0.1595;-0.1126;
495.0000;0.1498;-0.1462;
495.3000;0.1652;-0.1150;
495.6000;0.1547;-0.1509;
495.9000;0.1604;-0.1318;
496.2000;0.1587;-0.1342;
496.5000;0.1587;-0.1366;
496.8000;0.1563;-0.1342;
497.1000;0.1498;-0.1414;
497.4000;0.1579;-0.1198;
497.7000;0.1547;-0.1342;
498.0000;0.1571;-0.1270;
498.3000;0.1587;-0.1222;
498.6000;0.1538;-0.1342;
498.9000;0.1587;-0.1246;
499.2000;0.1571;-0.1246;
499.5000;0.1538;-0.1318;
499.8000;0.1677;-0.0958;
500.1000;0.1530;-0.1318;
500.4000;0.1587;-0.1102;
500.7000;0.1555;-0.1126;
501.0000;0.1604;-0.1078;
501.3000;0.1604;-0.1030;
501.6000;0.1555;-0.1270;
501.9000;0.1604;-0.1222;
502.2000;0.1595;-0.1246;
502.5000;0.1579;-0.1270;
502.8000;0.1677;-0.1102;
503.1000;0.1612;-0.1318;
503.4000;0.1571;-0.1318;
503.7000;0.1595;-0.1294;
504.0000;0.1579;-0.1294;
504.3000;0.1604;-0.1270;
504.6000;0.1587;-0.1366;
504.9000;0.1514;-0.1581;
505.2000;0.1595;-0.1366;
505.5000;0.1595;-0.1366;
505.8000;0.1604;-0.1438;
506.1000;0.1595;-0.1414;
506.4000;0.1571;-0.1462;
506.7000;0.1595;-0.1438;
507.0000;0.1579;-0.1414;
507.3000;0.1595;-0.1366;
507.6000;0.1579;-0.1342;
507.9000;0.1604;-0.1246;
508.2000;0.1587;-0.1222;
508.5000;0.1587;-0.1222;
508.8000;0.1628;-0.1102;
509.1000;0.1587;-0.1246;
509.4000;0.1604;-0.1246;
509.7000;0.1579;-0.1342;
510.0000;0.1587;-0.1342;
510.3000;0.1587;-0.1318;
510.6000;0.1587;-0.1342;
510.9000;0.1595;-0.1294;
511.2000;0.1579;-0.1342;
511.5000;0.1595;-0.1318;
511.8000;0.1579;-0.1366;
512.1000;0.1587;-0.1318;
512.4000;0.1595;-0.1270;
512.7000;0.1587;-0.1318;
513.0000;0.1587;-0.1270;
513.3000;0.1604;-0.1246;
513.6000;0.1595;-0.1198;
513.9000;0.1612;-0.1102;
514.2000;0.1636;-0.1222;
514.5000;0.1595;-0.1342;
514.8000;0.1595;-0.1342;
515.1000;0.1604;-0.1150;
515.4000;0.1612;-0.1102;
515.7000;0.1628;-0.1102;
516.0000;0.1595;-0.1150;
516.3000;0.1538;-0.1342;
516.6000;0.1620;-0.1102;
516.9000;0.1604;-0.1126;
517.2000;0.1538;-0.1246;
517.5000;0.1636;-0.0982;
517.8000;0.1473;-0.1414;
518.1000;0.1587;-0.1030;
518.4000;0.1579;-0.1102;
518.7000;0.1563;-0.1222;
519.0000;0.1595;-0.1174;
519.3000;0.1587;-0.1198;
519.6000;0.1677;-0.0934;
519.9000;0.1587;-0.1198;
520.2000;0.1595;-0.1222;
520.5000;0.1595;-0.1270;
520.8000;0.1595;-0.1270;
521.1000;0.1612;-0.1294;
521.4000;0.1644;-0.1222;
521.7000;0.1547;-0.1342;
522.0000;0.1604;-0.1222;
522.3000;0.1579;-0.1270;
522.6000;0.1579;-0.1294;
522.9000;0.1555;-0.1462;
523.2000;0.1595;-0.1318;
523.5000;0.1571;-0.1342;
523.8000;0.1587;-0.1342;
524.1000;0.1587;-0.1318;
524.4000;0.1587;-0.1294;
524.7000;0.1579;-0.1318;
525.0000;0.1587;-0.1294;
525.3000;0.1579;-0.1366;
525.6000;0.1595;-0.1366;
525.9000;0.1563;-0.1390;
526.2000;0.1579;-0.1318;
526.5000;0.1636;-0.1198;
526.8000;0.1595;-0.1342;
527.1000;0.1604;-0.1318;
527.4000;0.1571;-0.1318;
527.7000;0.1579;-0.1294;
528.0000;0.1579;-0.1198;
528.3000;0.1506;-0.1438;
528.6000;0.1595;-0.1270;
528.9000;0.1612;-0.1222;
529.2000;0.1522;-0.1390;
529.5000;0.1579;-0.1342;
529.8000;0.1579;-0.1414;
530.1000;0.1604;-0.1366;
530.4000;0.1579;-0.1342;
530.7000;0.1661;-0.1030;
531.0000;0.1685;-0.1078;
531.3000;0.1604;-0.1222;
531.6000;0.1595;-0.1222;
531.9000;0.1604;-0.1198;
532.2000;0.1709;-0.0887;
532.5000;0.1587;-0.1174;
532.8000;0.1579;-0.1174;
533.1000;0.1628;-0.0982;
533.4000;0.1587;-0.1150;
533.7000;0.1595;-0.1078;
534.0000;0.1685;-0.0791;
534.3000;0.1579;-0.1054;
534.6000;0.1587;-0.1054;
534.9000;0.1587;-0.1078;
535.2000;0.1612;-0.1054;
535.5000;0.1587;-0.1006;
535.8000;0.1587;-0.0934;
536.1000;0.1595;-0.0958;
536.4000;0.1604;-0.1006;
536.7000;0.1579;-0.1078;
537.0000;0.1587;-0.1030;
537.3000;0.1595;-0.1030;
537.6000;0.1604;-0.1030;
537.9000;0.1620;-0.0982;
538.2000;0.1579;-0.1102;
538.5000;0.1563;-0.1222;
538.8000;0.1604;-0.1126;
539.1000;0.1579;-0.1174;
539.4000;0.1571;-0.1246;
539.7000;0.1604;-0.1150;
540.0000;0.1579;-0.1222;
540.3000;0.1547;-0.1318;
540.6000;0.1579;-0.1150;
540.9000;0.1579;-0.1102;
541.2000;0.1579;-0.1102;
541.5000;0.1595;-0.1102;
541.8000;0.1571;-0.1150;
542.1000;0.1587;-0.1222;
542.4000;0.1579;-0.1270;
542.7000;0.1579;-0.1366;
543.0000;0.1571;-0.1438;
543.3000;0.1579;-0.1390;
543.6000;0.1595;-0.1438;
543.9000;0.1538;-0.1509;
544.2000;0.1587;-0.1390;
544.5000;0.1587;-0.1390;
544.8000;0.1595;-0.1294;
545.1000;0.1587;-0.1270;
545.4000;0.1587;-0.1222;
545.7000;0.1587;-0.1246;
546.0000;0.1571;-0.1294;
546.3000;0.1571;-0.1270;
546.6000;0.1514;-0.1414;
546.9000;0.1612;-0.1030;
547.2000;0.1579;-0.1126;
547.5000;0.1587;-0.1198;
547.8000;0.1555;-0.1174;
548.1000;0.1595;-0.1150;
548.4000;0.1604;-0.1246;
548.7000;0.1604;-0.1198;
549.0000;0.1612;-0.1246;
549.3000;0.1595;-0.1342;
549.6000;0.1636;-0.1198;
549.9000;0.1587;-0.1294;
550.2000;0.1604;-0.1126;
550.5000;0.1579;-0.1198;
550.8000;0.1612;-0.1126;
551.1000;0.1595;-0.1150;
551.4000;0.1571;-0.1150;
551.7000;0.1514;-0.1294;
552.0000;0.1595;-0.1126;
552.3000;0.1620;-0.1030;
552.6000;0.1612;-0.1102;
552.9000;0.1563;-0.1246;
553.2000;0.1693;-0.0910;
553.5000;0.1538;-0.1222;
553.8000;0.1538;-0.1270;
554.1000;0.1579;-0.1102;
554.4000;0.1604;-0.1054;
554.7000;0.1530;-0.1294;
555.0000;0.1595;-0.1102;
555.3000;0.1587;-0.1174;
555.6000;0.1579;-0.1246;
555.9000;0.1595;-0.1270;
556.2000;0.1587;-0.1246;
556.5000;0.1579;-0.1198;
556.8000;0.1620;-0.1078;
557.1000;0.1595;-0.1126;
557.4000;0.1563;-0.1150;
557.7000;0.1604;-0.1054;
558.0000;0.1620;-0.1054;
558.3000;0.1587;-0.1198;
558.6000;0.1595;-0.1198;
558.9000;0.1595;-0.1174;
559.2000;0.1563;-0.1222;
559.5000;0.1604;-0.1198;
559.8000;0.1612;-0.1198;
560.1000;0.1587;-0.1270;
560.4000;0.1538;-0.1366;
560.7000;0.1620;-0.1102;
561.0000;0.1652;-0.0958;
561.3000;0.1595;-0.1198;
561.6000;0.1587;-0.1126;
561.9000;0.1604;-0.1126;
562.2000;0.1595;-0.1198;
562.5000;0.1587;-0.1174;
562.8000;0.1669;-0.0887;
563.1000;0.1595;-0.1078;
563.4000;0.1571;-0.1126;
563.7000;0.1595;-0.1054;
564.0000;0.1604;-0.1102;
564.3000;0.1571;-0.1126;
564.6000;0.1595;-0.1078;
564.9000;0.1612;-0.1150;
565.2000;0.1571;-0.1246;
565.5000;0.1579;-0.1198;
565.8000;0.1587;-0.1174;
566.1000;0.1604;-0.1102;
566.4000;0.1620;-0.1102;
566.7000;0.1579;-0.1174;
567.0000;0.1587;-0.1102;
567.3000;0.1620;-0.1030;
567.6000;0.1547;-0.1342;
567.9000;0.1563;-0.1318;
568.2000;0.1563;-0.1270;
568.5000;0.1473;-0.1438;
568.8000;0.1506;-0.1462;
569.1000;0.1587;-0.1270;
569.4000;0.1604;-0.1270;
569.7000;0.1604;-0.1366;
570.0000;0.1587;-0.1438;
570.3000;0.1595;-0.1366;
570.6000;0.1457;-0.1701;
570.9000;0.1604;-0.1438;
571.2000;0.1595;-0.1438;
571.5000;0.1571;-0.1414;
571.8000;0.1571;-0.1318;
572.1000;0.1547;-0.1414;
572.4000;0.1595;-0.1318;
572.7000;0.1579;-0.1318;
573.0000;0.1571;-0.1270;
573.3000;0.1579;-0.1222;
573.6000;0.1555;-0.1270;
573.9000;0.1636;-0.1150;
574.2000;0.1571;-0.1246;
574.5000;0.1595;-0.1270;
574.8000;0.1604;-0.1294;
575.1000;0.1579;-0.1342;
575.4000;0.1571;-0.1294;
575.7000;0.1465;-0.1557;
576.0000;0.1612;-0.1150;
576.3000;0.1490;-0.1414;
576.6000;0.1661;-0.1102;
576.9000;0.1620;-0.1126;
577.2000;0.1604;-0.1198;
577.5000;0.1547;-0.1414;
577.8000;0.1571;-0.1342;
578.1000;0.1620;-0.1246;
578.4000;0.1579;-0.1174;
578.7000;0.1571;-0.1222;
579.0000;0.1579;-0.1174;
579.3000;0.1571;-0.1222;
579.6000;0.1563;-0.1270;
579.9000;0.1587;-0.1174;
580.2000;0.1579;-0.1174;
580.5000;0.1612;-0.1054;
580.8000;0.1555;-0.1126;
581.1000;0.1579;-0.1102;
581.4000;0.1604;-0.1030;
581.7000;0.1604;-0.1078;
582.0000;0.1661;-0.0934;
582.3000;0.1571;-0.1222;
582.6000;0.1587;-0.1150;
582.9000;0.1693;-0.0958;
583.2000;0.1587;-0.1198;
583.5000;0.1571;-0.1294;
583.8000;0.1587;-0.1318;
584.1000;0.1595;-0.1318;
584.4000;0.1563;-0.1486;
584.7000;0.1571;-0.1509;
585.0000;0.1595;-0.1438;
585.3000;0.1604;-0.1414;
585.6000;0.1579;-0.1462;
585.9000;0.1604;-0.1366;
586.2000;0.1587;-0.1390;
586.5000;0.1571;-0.1342;
586.8000;0.1595;-0.1366;
587.1000;0.1587;-0.1294;
587.4000;0.1555;-0.1318;
587.7000;0.1579;-0.1150;
588.0000;0.1571;-0.1198;
588.3000;0.1579;-0.1270;
588.6000;0.1579;-0.1246;
588.9000;0.1579;-0.1222;
589.2000;0.1579;-0.1246;
589.5000;0.1571;-0.1246;
589.8000;0.1579;-0.1246;
590.1000;0.1579;-0.1150;
590.4000;0.1563;-0.1222;
590.7000;0.1587;-0.1150;
591.0000;0.1595;-0.1102;
591.3000;0.1514;-0.1294;
591.6000;0.1514;-0.1270;
591.9000;0.1612;-0.1102;
592.2000;0.1587;-0.1078;
592.5000;0.1514;-0.1318;
592.8000;0.1571;-0.1198;
593.1000;0.1587;-0.1126;
593.4000;0.1595;-0.1102;
593.7000;0.1595;-0.1102;
594.0000;0.1595;-0.1174;
594.3000;0.1587;-0.1198;
594.6000;0.1473;-0.1629;
594.9000;0.1555;-0.1366;
595.2000;0.1579;-0.1366;
595.5000;0.1587;-0.1294;
595.8000;0.1547;-0.1366;
596.1000;0.1595;-0.1174;
596.4000;0.1571;-0.1102;
596.7000;0.1620;-0.1078;
597.0000;0.1595;-0.1198;
597.3000;0.1579;-0.1270;
597.6000;0.1571;-0.1318;
597.9000;0.1522;-0.1414;
598.2000;0.1595;-0.1366;
598.5000;0.1595;-0.1342;
598.8000;0.1620;-0.1270;
599.1000;0.1612;-0.1246;
599.4000;0.1595;-0.1246;
599.7000;0.1587;-0.1270;
600.0000;0.1571;-0.1294;
600.3000;0.1587;-0.1222;
600.6000;0.1595;-0.1126;
600.9000;0.1612;-0.1198;
601.2000;0.1636;-0.1198;
601.5000;0.1563;-0.1533;
601.8000;0.1579;-0.1581;
602.1000;0.1571;-0.1653;
602.4000;0.1547;-0.1821;
602.7000;0.1555;-0.1965;
603.0000;0.1563;-0.2013;
603.3000;0.1587;-0.2085;
603.6000;0.1522;-0.2396;
603.9000;0.1571;-0.2444;
604.2000;0.1530;-0.2540;
604.5000;0.1538;-0.2588;
604.8000;0.1530;-0.2684;
605.1000;0.1538;-0.2612;
605.4000;0.1530;-0.2588;
605.7000;0.1530;-0.2684;
606.0000;0.1473;-0.2947;
606.3000;0.1522;-0.2851;
606.6000;0.1538;-0.2827;
606.9000;0.1522;-0.2875;
607.2000;0.1538;-0.2875;
607.5000;0.1530;-0.2827;
607.8000;0.1498;-0.2875;
608.1000;0.1547;-0.2827;
608.4000;0.1538;-0.2851;
608.7000;0.1506;-0.2923;
609.0000;0.1579;-0.2707;
609.3000;0.1416;-0.3187;
609.6000;0.1514;-0.3019;
609.9000;0.1498;-0.3187;
610.2000;0.1506;-0.3283;
610.5000;0.1514;-0.3306;
610.8000;0.1498;-0.3306;
611.1000;0.1522;-0.3259;
611.4000;0.1498;-0.3259;
611.7000;0.1547;-0.3187;
612.0000;0.1522;-0.3211;
612.3000;0.1400;-0.3546;
612.6000;0.1408;-0.3570;
612.9000;0.1506;-0.3306;
613.2000;0.1506;-0.3402;
613.5000;0.1555;-0.3330;
613.8000;0.1530;-0.3354;
614.1000;0.1514;-0.3402;
614.4000;0.1514;-0.3259;
614.7000;0.1449;-0.3426;
615.0000;0.1555;-0.3067;
615.3000;0.1490;-0.3187;
615.6000;0.1498;-0.3139;
615.9000;0.1506;-0.3163;
616.2000;0.1498;-0.3211;
616.5000;0.1441;-0.3378;
616.8000;0.1457;-0.3330;
617.1000;0.1457;-0.3378;
617.4000;0.1514;-0.3259;
617.7000;0.1522;-0.3259;
618.0000;0.1506;-0.3259;
618.3000;0.1506;-0.3139;
618.6000;0.1644;-0.2803;
618.9000;0.1506;-0.3163;
619.2000;0.1514;-0.3043;
619.5000;0.1506;-0.3115;
619.8000;0.1481;-0.3259;
620.1000;0.1506;-0.3259;
620.4000;0.1481;-0.3330;
620.7000;0.1490;-0.3235;
621.0000;0.1490;-0.3211;
621.3000;0.1498;-0.3259;
621.6000;0.1506;-0.3259;
621.9000;0.1506;-0.3330;
622.2000;0.1490;-0.3259;
622.5000;0.1514;-0.3139;
622.8000;0.1498;-0.3187;
623.1000;0.1506;-0.3187;
623.4000;0.1555;-0.3067;
623.7000;0.1481;-0.3259;
624.0000;0.1481;-0.3283;
624.3000;0.1506;-0.3211;
624.6000;0.1506;-0.3283;
624.9000;0.1490;-0.3378;
625.2000;0.1376;-0.3594;
625.5000;0.1506;-0.3235;
625.8000;0.1490;-0.3235;
626.1000;0.1506;-0.3187;
626.4000;0.1595;-0.2995;
626.7000;0.1514;-0.3211;
627.0000;0.1506;-0.3235;
627.3000;0.1490;-0.3283;
627.6000;0.1514;-0.3211;
627.9000;0.1563;-0.3163;
628.2000;0.1498;-0.3378;
628.5000;0.1457;-0.3474;
628.8000;0.1392;-0.3642;
629.1000;0.1498;-0.3426;
629.4000;0.1481;-0.3402;
629.7000;0.1498;-0.3330;
630.0000;0.1498;-0.3306;
630.3000;0.1506;-0.3283;
630.6000;0.1522;-0.3283;
630.9000;0.1506;-0.3283;
631.2000;0.1498;-0.3378;
631.5000;0.1498;-0.3402;
631.8000;0.1490;-0.3474;
632.1000;0.1490;-0.3402;
632.4000;0.1490;-0.3426;
632.7000;0.1506;-0.3306;
633.0000;0.1498;-0.3211;
633.3000;0.1506;-0.3187;
633.6000;0.1473;-0.3187;
633.9000;0.1506;-0.3139;
634.2000;0.1514;-0.3115;
634.5000;0.1400;-0.3402;
634.8000;0.1506;-0.3043;
635.1000;0.1506;-0.3067;
635.4000;0.1490;-0.3091;
635.7000;0.1506;-0.3043;
636.0000;0.1481;-0.3043;
636.3000;0.1498;-0.3091;
636.6000;0.1449;-0.3235;
636.9000;0.1506;-0.3211;
637.2000;0.1506;-0.3187;
637.5000;0.1506;-0.3259;
637.8000;0.1498;-0.3306;
638.1000;0.1498;-0.3187;
638.4000;0.1530;-0.3139;
638.7000;0.1490;-0.3283;
639.0000;0.1506;-0.3163;
639.3000;0.1498;-0.3115;
639.6000;0.1473;-0.3139;
639.9000;0.1506;-0.3043;
640.2000;0.1506;-0.3067;
640.5000;0.1506;-0.3091;
640.8000;0.1506;-0.3115;
641.1000;0.1514;-0.3115;
641.4000;0.1506;-0.3067;
641.7000;0.1498;-0.3067;
642.0000;0.1522;-0.3115;
642.3000;0.1498;-0.3163;
642.6000;0.1481;-0.3187;
642.9000;0.1522;-0.3163;
643.2000;0.1506;-0.3235;
643.5000;0.1514;-0.3235;
643.8000;0.1498;-0.3211;
644.1000;0.1498;-0.3211;
644.4000;0.1498;-0.3187;
644.7000;0.1498;-0.3187;
645.0000;0.1490;-0.3259;
645.3000;0.1490;-0.3259;
645.6000;0.1490;-0.3259;
645.9000;0.1498;-0.3306;
646.2000;0.1490;-0.3235;
646.5000;0.1490;-0.3211;
646.8000;0.1490;-0.3211;
647.1000;0.1522;-0.3115;
647.4000;0.1465;-0.3211;
647.7000;0.1498;-0.3115;
648.0000;0.1506;-0.3163;
648.3000;0.1571;-0.2995;
648.6000;0.1506;-0.3187;
648.9000;0.1473;-0.3211;
649.2000;0.1506;-0.3187;
649.5000;0.1514;-0.3211;
649.8000;0.1441;-0.3426;
650.1000;0.1587;-0.3163;
650.4000;0.1481;-0.3330;
650.7000;0.1490;-0.3402;
651.0000;0.1498;-0.3378;
651.3000;0.1514;-0.3354;
651.6000;0.1490;-0.3330;
651.9000;0.1498;-0.3354;
652.2000;0.1514;-0.3283;
652.5000;0.1498;-0.3259;
652.8000;0.1465;-0.3402;
653.1000;0.1498;-0.3330;
653.4000;0.1522;-0.3306;
653.7000;0.1481;-0.3378;
654.0000;0.1490;-0.3378;
654.3000;0.1473;-0.3378;
654.6000;0.1498;-0.3330;
654.9000;0.1473;-0.3498;
655.2000;0.1514;-0.3378;
655.5000;0.1490;-0.3474;
655.8000;0.1481;-0.3498;
656.1000;0.1538;-0.3330;
656.4000;0.1522;-0.3474;
656.7000;0.1481;-0.3498;
657.0000;0.1490;-0.3426;
657.3000;0.1490;-0.3354;
657.6000;0.1514;-0.3283;
657.9000;0.1498;-0.3330;
658.2000;0.1506;-0.3330;
658.5000;0.1506;-0.3330;
658.8000;0.1490;-0.3283;
659.1000;0.1506;-0.3235;
659.4000;0.1506;-0.3115;
659.7000;0.1514;-0.3139;
660.0000;0.1465;-0.3306;
660.3000;0.1498;-0.3211;
660.6000;0.1555;-0.3115;
660.9000;0.1481;-0.3306;
661.2000;0.1498;-0.3235;
661.5000;0.1498;-0.3235;
661.8000;0.1498;-0.3259;
662.1000;0.1530;-0.3330;
662.4000;0.1522;-0.3259;
662.7000;0.1498;-0.3235;
663.0000;0.1481;-0.3211;
663.3000;0.1498;-0.3139;
663.6000;0.1441;-0.3402;
663.9000;0.1481;-0.3378;
664.2000;0.1498;-0.3306;
664.5000;0.1473;-0.3354;
664.8000;0.1473;-0.3378;
665.1000;0.1498;-0.3330;
665.4000;0.1498;-0.3402;
665.7000;0.1506;-0.3378;
666.0000;0.1514;-0.3330;
666.3000;0.1506;-0.3330;
666.6000;0.1628;-0.3115;
666.9000;0.1441;-0.3546;
667.2000;0.1514;-0.3306;
667.5000;0.1498;-0.3283;
667.8000;0.1547;-0.3091;
668.1000;0.1490;-0.3330;
668.4000;0.1481;-0.3330;
668.7000;0.1416;-0.3450;
669.0000;0.1506;-0.3211;
669.3000;0.1433;-0.3402;
669.6000;0.1490;-0.3187;
669.9000;0.1506;-0.3115;
670.2000;0.1465;-0.3187;
670.5000;0.1490;-0.3187;
670.8000;0.1538;-0.3163;
671.1000;0.1481;-0.3283;
671.4000;0.1595;-0.3043;
671.7000;0.1481;-0.3259;
672.0000;0.1465;-0.3402;
672.3000;0.1465;-0.3426;
672.6000;0.1514;-0.3378;
672.9000;0.1498;-0.3306;
673.2000;0.1506;-0.3283;
673.5000;0.1498;-0.3330;
673.8000;0.1498;-0.3259;
674.1000;0.1498;-0.3283;
674.4000;0.1498;-0.3235;
674.7000;0.1457;-0.3426;
675.0000;0.1498;-0.3330;
675.3000;0.1530;-0.3259;
675.6000;0.1522;-0.3283;
675.9000;0.1514;-0.3283;
676.2000;0.1481;-0.3354;
676.5000;0.1571;-0.3115;
676.8000;0.1506;-0.3354;
677.1000;0.1514;-0.3378;
677.4000;0.1506;-0.3426;
677.7000;0.1620;-0.3115;
678.0000;0.1514;-0.3426;
678.3000;0.1595;-0.3187;
678.6000;0.1449;-0.3546;
678.9000;0.1490;-0.3450;
679.2000;0.1481;-0.3426;
679.5000;0.1416;-0.3642;
679.8000;0.1490;-0.3522;
680.1000;0.1481;-0.3450;
680.4000;0.1481;-0.3402;
680.7000;0.1514;-0.3378;
681.0000;0.1481;-0.3402;
681.3000;0.1465;-0.3426;
681.6000;0.1481;-0.3378;
681.9000;0.1498;-0.3354;
682.2000;0.1498;-0.3283;
682.5000;0.1481;-0.3426;
682.8000;0.1498;-0.3402;
683.1000;0.1530;-0.3330;
683.4000;0.1441;-0.3522;
683.7000;0.1490;-0.3474;
684.0000;0.1522;-0.3354;
684.3000;0.1490;-0.3378;
684.6000;0.1514;-0.3378;
684.9000;0.1506;-0.3378;
685.2000;0.1498;-0.3402;
685.5000;0.1490;-0.3402;
685.8000;0.1481;-0.3450;
686.1000;0.1490;-0.3354;
686.4000;0.1441;-0.3474;
686.7000;0.1498;-0.3306;
687.0000;0.1490;-0.3378;
687.3000;0.1481;-0.3474;
687.6000;0.1498;-0.3306;
687.9000;0.1555;-0.3139;
688.2000;0.1506;-0.3283;
688.5000;0.1498;-0.3283;
688.8000;0.1506;-0.3306;
689.1000;0.1514;-0.3330;
689.4000;0.1498;-0.3378;
689.7000;0.1522;-0.3378;
690.0000;0.1514;-0.3283;
690.3000;0.1498;-0.3259;
690.6000;0.1498;-0.3235;
690.9000;0.1490;-0.3259;
691.2000;0.1498;-0.3283;
691.5000;0.1473;-0.3354;
691.8000;0.1530;-0.3139;
692.1000;0.1481;-0.3259;
692.4000;0.1498;-0.3259;
692.7000;0.1433;-0.3354;
693.0000;0.1490;-0.3259;
693.3000;0.1514;-0.3211;
693.6000;0.1514;-0.3163;
693.9000;0.1522;-0.3067;
694.2000;0.1490;-0.3163;
694.5000;0.1490;-0.3259;
694.8000;0.1563;-0.3043;
695.1000;0.1555;-0.3019;
695.4000;0.1425;-0.3354;
695.7000;0.1481;-0.3259;
696.0000;0.1498;-0.3187;
696.3000;0.1498;-0.3163;
696.6000;0.1506;-0.3211;
696.9000;0.1490;-0.3211;
697.2000;0.1506;-0.3211;
697.5000;0.1416;-0.3474;
697.8000;0.1506;-0.3211;
698.1000;0.1506;-0.3211;
698.4000;0.1481;-0.3306;
698.7000;0.1498;-0.3235;
699.0000;0.1498;-0.3283;
699.3000;0.1514;-0.3259;
699.6000;0.1514;-0.3306;
699.9000;0.1514;-0.3259;
700.2000;0.1530;-0.3139;
700.5000;0.1400;-0.3594;
700.8000;0.1506;-0.3283;
701.1000;0.1514;-0.3235;
701.4000;0.1498;-0.3283;
701.7000;0.1481;-0.3235;
702.0000;0.1506;-0.3139;
702.3000;0.1595;-0.2899;
702.6000;0.1416;-0.3426;
702.9000;0.1498;-0.3163;
703.2000;0.1498;-0.3163;
703.5000;0.1595;-0.2875;
703.8000;0.1522;-0.3139;
704.1000;0.1498;-0.3235;
704.4000;0.1571;-0.2995;
704.7000;0.1490;-0.3187;
705.0000;0.1490;-0.3283;
705.3000;0.1498;-0.3259;
705.6000;0.1490;-0.3330;
705.9000;0.1481;-0.3259;
706.2000;0.1481;-0.3211;
706.5000;0.1490;-0.3259;
706.8000;0.1490;-0.3259;
707.1000;0.1571;-0.3043;
707.4000;0.1522;-0.3139;
707.7000;0.1506;-0.3163;
708.0000;0.1481;-0.3354;
708.3000;0.1498;-0.3306;
708.6000;0.1555;-0.3067;
708.9000;0.1481;-0.3259;
709.2000;0.1498;-0.3259;
709.5000;0.1408;-0.3594;
709.8000;0.1490;-0.3378;
710.1000;0.1457;-0.3450;
710.4000;0.1498;-0.3354;
710.7000;0.1465;-0.3402;
711.0000;0.1490;-0.3283;
711.3000;0.1473;-0.3330;
711.6000;0.1490;-0.3259;
711.9000;0.1433;-0.3426;
712.2000;0.1498;-0.3211;
712.5000;0.1473;-0.3330;
712.8000;0.1498;-0.3354;
713.1000;0.1498;-0.3259;
713.4000;0.1481;-0.3283;
713.7000;0.1400;-0.3474;
714.0000;0.1498;-0.3187;
714.3000;0.1481;-0.3211;
714.6000;0.1490;-0.3163;
714.9000;0.1490;-0.3235;
715.2000;0.1498;-0.3211;
715.5000;0.1514;-0.3187;
715.8000;0.1506;-0.3283;
716.1000;0.1408;-0.3594;
716.4000;0.1514;-0.3378;
716.7000;0.1522;-0.3306;
717.0000;0.1506;-0.3402;
717.3000;0.1498;-0.3378;
717.6000;0.1538;-0.3306;
717.9000;0.1490;-0.3354;
718.2000;0.1490;-0.3306;
718.5000;0.1498;-0.3235;
718.8000;0.1514;-0.3211;
719.1000;0.1514;-0.3283;
719.4000;0.1498;-0.3306;
719.7000;0.1506;-0.3330;
720.0000;0.1481;-0.3330;
720.3000;0.1498;-0.3259;
720.6000;0.1506;-0.3187;
720.9000;0.1506;-0.3259;
721.2000;0.1595;-0.3067;
721.5000;0.1530;-0.3259;
721.8000;0.1498;-0.3235;
722.1000;0.1498;-0.3283;
722.4000;0.1522;-0.3187;
722.7000;0.1498;-0.3306;
723.0000;0.1498;-0.3354;
723.3000;0.1506;-0.3330;
723.6000;0.1465;-0.3450;
723.9000;0.1490;-0.3354;
724.2000;0.1490;-0.3354;
724.5000;0.1620;-0.3139;
724.8000;0.1506;-0.3474;
725.1000;0.1473;-0.3522;
725.4000;0.1514;-0.3402;
725.7000;0.1514;-0.3378;
726.0000;0.1506;-0.3426;
726.3000;0.1514;-0.3354;
726.6000;0.1514;-0.3378;
726.9000;0.1514;-0.3378;
727.2000;0.1490;-0.3354;
727.5000;0.1481;-0.3378;
727.8000;0.1514;-0.3306;
728.1000;0.1547;-0.3211;
728.4000;0.1441;-0.3450;
728.7000;0.1522;-0.3354;
729.0000;0.1457;-0.3570;
729.3000;0.1498;-0.3378;
729.6000;0.1522;-0.3259;
729.9000;0.1498;-0.3330;
730.2000;0.1498;-0.3306;
730.5000;0.1481;-0.3330;
730.8000;0.1498;-0.3283;
731.1000;0.1506;-0.3306;
731.4000;0.1473;-0.3402;
731.7000;0.1514;-0.3259;
732.0000;0.1506;-0.3283;
732.3000;0.1498;-0.3306;
732.6000;0.1490;-0.3306;
732.9000;0.1490;-0.3330;
733.2000;0.1498;-0.3211;
733.5000;0.1498;-0.3330;
733.8000;0.1506;-0.3378;
734.1000;0.1498;-0.3330;
734.4000;0.1522;-0.3259;
734.7000;0.1498;-0.3283;
735.0000;0.1481;-0.3426;
735.3000;0.1490;-0.3426;
735.6000;0.1514;-0.3402;
735.9000;0.1514;-0.3450;
736.2000;0.1522;-0.3378;
736.5000;0.1490;-0.3402;
736.8000;0.1506;-0.3354;
737.1000;0.1490;-0.3354;
737.4000;0.1514;-0.3330;
737.7000;0.1538;-0.3187;
738.0000;0.1481;-0.3378;
738.3000;0.1498;-0.3235;
738.6000;0.1506;-0.3163;
738.9000;0.1457;-0.3211;
739.2000;0.1481;-0.3163;
739.5000;0.1473;-0.3163;
739.8000;0.1506;-0.3115;
740.1000;0.1490;-0.3091;
740.4000;0.1506;-0.3067;
740.7000;0.1498;-0.3187;
741.0000;0.1490;-0.3306;
741.3000;0.1604;-0.3019;
741.6000;0.1490;-0.3306;
741.9000;0.1498;-0.3283;
742.2000;0.1481;-0.3378;
742.5000;0.1498;-0.3235;
742.8000;0.1481;-0.3402;
743.1000;0.1506;-0.3330;
743.4000;0.1481;-0.3330;
743.7000;0.1522;-0.3163;
744.0000;0.1514;-0.3235;
744.3000;0.1514;-0.3330;
744.6000;0.1498;-0.3283;
744.9000;0.1490;-0.3306;
745.2000;0.1425;-0.3570;
745.5000;0.1490;-0.3402;
745.8000;0.1481;-0.3450;
746.1000;0.1506;-0.3402;
746.4000;0.1490;-0.3378;
746.7000;0.1506;-0.3330;
747.0000;0.1473;-0.3378;
747.3000;0.1473;-0.3402;
747.6000;0.1530;-0.3235;
747.9000;0.1490;-0.3354;
748.2000;0.1498;-0.3306;
748.5000;0.1563;-0.3139;
748.8000;0.1498;-0.3163;
749.1000;0.1498;-0.3163;
749.4000;0.1481;-0.3139;
749.7000;0.1498;-0.3163;
750.0000;0.1498;-0.3187;
750.3000;0.1441;-0.3330;
750.6000;0.1506;-0.3211;
750.9000;0.1457;-0.3306;
751.2000;0.1530;-0.3043;
751.5000;0.1530;-0.3043;
751.8000;0.1392;-0.3402;
752.1000;0.1490;-0.3091;
752.4000;0.1522;-0.2971;
752.7000;0.1490;-0.3115;
753.0000;0.1498;-0.3067;
753.3000;0.1506;-0.3043;
753.6000;0.1498;-0.3067;
753.9000;0.1425;-0.3235;
754.2000;0.1490;-0.3115;
754.5000;0.1481;-0.3139;
754.8000;0.1490;-0.3211;
755.1000;0.1506;-0.3163;
755.4000;0.1481;-0.3211;
755.7000;0.1547;-0.3139;
756.0000;0.1506;-0.3283;
756.3000;0.1498;-0.3283;
756.6000;0.1506;-0.3306;
756.9000;0.1498;-0.3306;
757.2000;0.1490;-0.3378;
757.5000;0.1498;-0.3330;
757.8000;0.1522;-0.3211;
758.1000;0.1498;-0.3139;
758.4000;0.1490;-0.3163;
758.7000;0.1433;-0.3306;
759.0000;0.1514;-0.3187;
759.3000;0.1506;-0.3259;
759.6000;0.1514;-0.3330;
759.9000;0.1498;-0.3378;
760.2000;0.1498;-0.3235;
760.5000;0.1514;-0.3187;
760.8000;0.1514;-0.3235;
761.1000;0.1481;-0.3330;
761.4000;0.1457;-0.3378;
761.7000;0.1498;-0.3402;
762.0000;0.1481;-0.3426;
762.3000;0.1473;-0.3450;
762.6000;0.1506;-0.3306;
762.9000;0.1490;-0.3330;
763.2000;0.1490;-0.3306;
763.5000;0.1481;-0.3283;
763.8000;0.1343;-0.3690;
764.1000;0.1481;-0.3283;
764.4000;0.1530;-0.3139;
764.7000;0.1490;-0.3235;
765.0000;0.1498;-0.3235;
765.3000;0.1587;-0.2899;
765.6000;0.1498;-0.3115;
765.9000;0.1490;-0.3139;
766.2000;0.1490;-0.3163;
766.5000;0.1490;-0.3235;
766.8000;0.1506;-0.3163;
767.1000;0.1506;-0.3235;
767.4000;0.1490;-0.3283;
767.7000;0.1457;-0.3378;
768.0000;0.1506;-0.3187;
768.3000;0.1498;-0.3115;
768.6000;0.1498;-0.3139;
768.9000;0.1555;-0.3043;
769.2000;0.1490;-0.3211;
769.5000;0.1506;-0.3163;
769.8000;0.1498;-0.3091;
770.1000;0.1506;-0.2971;
770.4000;0.1522;-0.2947;
770.7000;0.1522;-0.2971;
771.0000;0.1514;-0.3043;
771.3000;0.1490;-0.3115;
771.6000;0.1481;-0.3115;
771.9000;0.1506;-0.3163;
772.2000;0.1481;-0.3187;
772.5000;0.1506;-0.3115;
772.8000;0.1481;-0.3139;
773.1000;0.1473;-0.3091;
773.4000;0.1498;-0.2971;
773.7000;0.1514;-0.2923;
774.0000;0.1490;-0.3019;
774.3000;0.1498;-0.3043;
774.6000;0.1604;-0.2827;
774.9000;0.1498;-0.3163;
775.2000;0.1498;-0.3067;
775.5000;0.1433;-0.3259;
775.8000;0.1498;-0.3115;
776.1000;0.1498;-0.3139;
776.4000;0.1547;-0.2971;
776.7000;0.1400;-0.3330;
777.0000;0.1425;-0.3378;
777.3000;0.1490;-0.3306;
777.6000;0.1425;-0.3474;
777.9000;0.1530;-0.3259;
778.2000;0.1481;-0.3283;
778.5000;0.1457;-0.3402;
778.8000;0.1481;-0.3306;
779.1000;0.1498;-0.3235;
779.4000;0.1481;-0.3187;
779.7000;0.1530;-0.3115;
780.0000;0.1498;-0.3163;
780.3000;0.1498;-0.3163;
780.6000;0.1579;-0.2971;
780.9000;0.1506;-0.3115;
781.2000;0.1498;-0.3139;
781.5000;0.1498;-0.3115;
781.8000;0.1490;-0.3091;
782.1000;0.1481;-0.3043;
782.4000;0.1473;-0.2995;
782.7000;0.1490;-0.2923;
783.0000;0.1481;-0.2995;
783.3000;0.1490;-0.2971;
783.6000;0.1506;-0.2947;
783.9000;0.1490;-0.2923;
784.2000;0.1490;-0.2947;
784.5000;0.1506;-0.2899;
784.8000;0.1449;-0.3187;
785.1000;0.1465;-0.3115;
785.4000;0.1498;-0.3019;
785.7000;0.1392;-0.3283;
786.0000;0.1449;-0.3091;
786.3000;0.1498;-0.3019;
786.6000;0.1490;-0.3019;
786.9000;0.1498;-0.2923;
787.2000;0.1538;-0.2827;
787.5000;0.1481;-0.2923;
787.8000;0.1465;-0.2947;
788.1000;0.1441;-0.3067;
788.4000;0.1481;-0.3139;
788.7000;0.1481;-0.3163;
789.0000;0.1473;-0.3139;
789.3000;0.1490;-0.3067;
789.6000;0.1490;-0.3115;
789.9000;0.1547;-0.2995;
790.2000;0.1490;-0.3091;
790.5000;0.1506;-0.3091;
790.8000;0.1481;-0.3139;
791.1000;0.1563;-0.2899;
791.4000;0.1514;-0.2995;
791.7000;0.1473;-0.3091;
792.0000;0.1579;-0.2971;
792.3000;0.1481;-0.3235;
792.6000;0.1514;-0.3187;
792.9000;0.1498;-0.3283;
793.2000;0.1498;-0.3330;
793.5000;0.1498;-0.3330;
793.8000;0.1506;-0.3330;
794.1000;0.1514;-0.3354;
794.4000;0.1522;-0.3235;
794.7000;0.1506;-0.3259;
795.0000;0.1498;-0.3211;
795.3000;0.1473;-0.3163;
795.6000;0.1506;-0.3091;
795.9000;0.1481;-0.3163;
796.2000;0.1481;-0.3043;
796.5000;0.1498;-0.2995;
796.8000;0.1481;-0.3019;
797.1000;0.1473;-0.3019;
797.4000;0.1473;-0.3019;
797.7000;0.1498;-0.3019;
798.0000;0.1498;-0.3043;
798.3000;0.1555;-0.2971;
798.6000;0.1490;-0.3091;
798.9000;0.1473;-0.3139;
799.2000;0.1490;-0.3115;
799.5000;0.1392;-0.3474;
799.8000;0.1449;-0.3354;
800.1000;0.1473;-0.3115;
800.4000;0.1587;-0.2803;
800.7000;0.1571;-0.2803;
801.0000;0.1506;-0.2995;
801.3000;0.1514;-0.2923;
801.6000;0.1555;-0.2827;
801.9000;0.1514;-0.3019;
802.2000;0.1490;-0.2995;
802.5000;0.1490;-0.3043;
802.8000;0.1514;-0.3091;
803.1000;0.1506;-0.3091;
803.4000;0.1425;-0.3378;
803.7000;0.1473;-0.3211;
804.0000;0.1481;-0.3235;
804.3000;0.1490;-0.3235;
804.6000;0.1490;-0.3259;
804.9000;0.1506;-0.3163;
805.2000;0.1498;-0.3187;
805.5000;0.1514;-0.3067;
805.8000;0.1530;-0.3043;
806.1000;0.1481;-0.3091;
806.4000;0.1555;-0.2875;
806.7000;0.1498;-0.3043;
807.0000;0.1514;-0.2995;
807.3000;0.1490;-0.3115;
807.6000;0.1490;-0.3139;
807.9000;0.1473;-0.3259;
808.2000;0.1506;-0.3139;
808.5000;0.1498;-0.3091;
808.8000;0.1498;-0.3115;
809.1000;0.1498;-0.3139;
809.4000;0.1514;-0.3163;
809.7000;0.1498;-0.3163;
810.0000;0.1490;-0.3187;
810.3000;0.1481;-0.3235;
810.6000;0.1506;-0.3187;
810.9000;0.1506;-0.3235;
811.2000;0.1506;-0.3259;
811.5000;0.1522;-0.3235;
811.8000;0.1498;-0.3306;
812.1000;0.1506;-0.3259;
812.4000;0.1473;-0.3378;
812.7000;0.1514;-0.3330;
813.0000;0.1506;-0.3235;
813.3000;0.1506;-0.3283;
813.6000;0.1490;-0.3378;
813.9000;0.1490;-0.3402;
814.2000;0.1465;-0.3450;
814.5000;0.1522;-0.3402;
814.8000;0.1481;-0.3570;
815.1000;0.1490;-0.3546;
815.4000;0.1481;-0.3546;
815.7000;0.1465;-0.3594;
816.0000;0.1522;-0.3498;
816.3000;0.1481;-0.3498;
816.6000;0.1530;-0.3330;
816.9000;0.1498;-0.3546;
817.2000;0.1506;-0.3522;
817.5000;0.1457;-0.3618;
817.8000;0.1506;-0.3450;
818.1000;0.1506;-0.3402;
818.4000;0.1530;-0.3306;
818.7000;0.1457;-0.3474;
819.0000;0.1530;-0.3283;
819.3000;0.1522;-0.3211;
819.6000;0.1514;-0.3283;
819.9000;0.1506;-0.3283;
820.2000;0.1498;-0.3235;
820.5000;0.1547;-0.3139;
820.8000;0.1498;-0.3211;
821.1000;0.1514;-0.3139;
821.4000;0.1490;-0.3187;
821.7000;0.1522;-0.3163;
822.0000;0.1530;-0.3139;
822.3000;0.1571;-0.3019;
822.6000;0.1490;-0.3211;
822.9000;0.1514;-0.3091;
823.2000;0.1498;-0.3139;
823.5000;0.1514;-0.3139;
823.8000;0.1514;-0.3235;
824.1000;0.1498;-0.3283;
824.4000;0.1465;-0.3330;
824.7000;0.1514;-0.3163;
825.0000;0.1498;-0.3259;
825.3000;0.1481;-0.3259;
825.6000;0.1547;-0.3019;
825.9000;0.1481;-0.3187;
826.2000;0.1506;-0.3067;
826.5000;0.1473;-0.3187;
826.8000;0.1481;-0.3139;
827.1000;0.1490;-0.3163;
827.4000;0.1498;-0.3091;
827.7000;0.1490;-0.3115;
828.0000;0.1481;-0.3115;
828.3000;0.1498;-0.3043;
828.6000;0.1481;-0.3091;
828.9000;0.1522;-0.2971;
829.2000;0.1498;-0.3067;
829.5000;0.1506;-0.3067;
829.8000;0.1481;-0.3091;
830.1000;0.1490;-0.3091;
830.4000;0.1514;-0.2971;
830.7000;0.1490;-0.3043;
831.0000;0.1490;-0.2971;
831.3000;0.1490;-0.3091;
831.6000;0.1490;-0.3211;
831.9000;0.1473;-0.3283;
832.2000;0.1538;-0.3139;
832.5000;0.1498;-0.3330;
832.8000;0.1498;-0.3330;
833.1000;0.1514;-0.3330;
833.4000;0.1490;-0.3306;
833.7000;0.1498;-0.3211;
834.0000;0.1506;-0.3187;
834.3000;0.1587;-0.2947;
834.6000;0.1506;-0.3163;
834.9000;0.1473;-0.3283;
835.2000;0.1506;-0.3235;
835.5000;0.1498;-0.3235;
835.8000;0.1506;-0.3235;
836.1000;0.1506;-0.3211;
836.4000;0.1473;-0.3283;
836.7000;0.1490;-0.3187;
837.0000;0.1481;-0.3211;
837.3000;0.1506;-0.3067;
837.6000;0.1473;-0.3139;
837.9000;0.1490;-0.3163;
838.2000;0.1498;-0.3187;
838.5000;0.1514;-0.3187;
838.8000;0.1490;-0.3283;
839.1000;0.1514;-0.3259;
839.4000;0.1506;-0.3259;
839.7000;0.1490;-0.3283;
840.0000;0.1506;-0.3211;
840.3000;0.1514;-0.3115;
840.6000;0.1530;-0.3067;
840.9000;0.1498;-0.3187;
841.2000;0.1490;-0.3187;
841.5000;0.1481;-0.3259;
841.8000;0.1490;-0.3115;
842.1000;0.1490;-0.3163;
842.4000;0.1481;-0.3163;
842.7000;0.1473;-0.3091;
843.0000;0.1392;-0.3378;
843.3000;0.1498;-0.3139;
843.6000;0.1514;-0.3163;
843.9000;0.1506;-0.3235;
844.2000;0.1498;-0.3259;
844.5000;0.1465;-0.3330;
844.8000;0.1481;-0.3402;
845.1000;0.1514;-0.3235;
845.4000;0.1498;-0.3283;
845.7000;0.1481;-0.3211;
846.0000;0.1498;-0.3091;
846.3000;0.1481;-0.3043;
846.6000;0.1457;-0.3139;
846.9000;0.1506;-0.2947;
847.2000;0.1481;-0.2971;
847.5000;0.1490;-0.2923;
847.8000;0.1498;-0.2995;
848.1000;0.1498;-0.3043;
848.4000;0.1514;-0.3115;
848.7000;0.1522;-0.3019;
849.0000;0.1506;-0.3043;
849.3000;0.1481;-0.3115;
849.6000;0.1538;-0.3019;
849.9000;0.1506;-0.3187;
850.2000;0.1473;-0.3211;
850.5000;0.1522;-0.3091;
850.8000;0.1481;-0.3211;
851.1000;0.1506;-0.3139;
851.4000;0.1498;-0.3163;
851.7000;0.1473;-0.3235;
852.0000;0.1490;-0.3259;
852.3000;0.1498;-0.3283;
852.6000;0.1506;-0.3354;
852.9000;0.1506;-0.3259;
853.2000;0.1490;-0.3211;
853.5000;0.1481;-0.3187;
853.8000;0.1530;-0.3115;
854.1000;0.1384;-0.3522;
854.4000;0.1506;-0.3163;
854.7000;0.1514;-0.3043;
855.0000;0.1490;-0.3139;
855.3000;0.1465;-0.3235;
855.6000;0.1490;-0.3163;
855.9000;0.1481;-0.3211;
856.2000;0.1538;-0.3115;
856.5000;0.1465;-0.3235;
856.8000;0.1498;-0.3139;
857.1000;0.1506;-0.3115;
857.4000;0.1595;-0.2947;
857.7000;0.1498;-0.3163;
858.0000;0.1490;-0.3163;
858.3000;0.1498;-0.3211;
858.6000;0.1481;-0.3354;
858.9000;0.1441;-0.3354;
859.2000;0.1490;-0.3306;
859.5000;0.1481;-0.3402;
859.8000;0.1498;-0.3378;
860.1000;0.1490;-0.3283;
860.4000;0.1481;-0.3235;
860.7000;0.1441;-0.3306;
861.0000;0.1465;-0.3211;
861.3000;0.1473;-0.3187;
861.6000;0.1490;-0.3067;
861.9000;0.1481;-0.3091;
862.2000;0.1481;-0.3139;
862.5000;0.1498;-0.3187;
862.8000;0.1595;-0.2971;
863.1000;0.1490;-0.3259;
863.4000;0.1481;-0.3306;
863.7000;0.1481;-0.3402;
864.0000;0.1490;-0.3546;
864.3000;0.1506;-0.3522;
864.6000;0.1490;-0.3498;
864.9000;0.1490;-0.3450;
865.2000;0.1490;-0.3522;
865.5000;0.1473;-0.3546;
865.8000;0.1498;-0.3522;
866.1000;0.1498;-0.3498;
866.4000;0.1514;-0.3474;
866.7000;0.1538;-0.3378;
867.0000;0.1481;-0.3522;
867.3000;0.1498;-0.3474;
867.6000;0.1522;-0.3378;
867.9000;0.1490;-0.3402;
868.2000;0.1498;-0.3378;
868.5000;0.1481;-0.3354;
868.8000;0.1490;-0.3402;
869.1000;0.1465;-0.3474;
869.4000;0.1506;-0.3402;
869.7000;0.1490;-0.3402;
870.0000;0.1498;-0.3330;
870.3000;0.1514;-0.3330;
870.6000;0.1514;-0.3283;
870.9000;0.1400;-0.3546;
871.2000;0.1514;-0.3330;
871.5000;0.1481;-0.3378;
871.8000;0.1595;-0.3115;
872.1000;0.1514;-0.3330;
872.4000;0.1514;-0.3306;
872.7000;0.1498;-0.3378;
873.0000;0.1490;-0.3426;
873.3000;0.1473;-0.3450;
873.6000;0.1490;-0.3450;
873.9000;0.1408;-0.3714;
874.2000;0.1441;-0.3642;
874.5000;0.1538;-0.3378;
874.8000;0.1490;-0.3426;
875.1000;0.1481;-0.3498;
875.4000;0.1490;-0.3522;
875.7000;0.1498;-0.3426;
876.0000;0.1506;-0.3330;
876.3000;0.1481;-0.3426;
876.6000;0.1506;-0.3378;
876.9000;0.1498;-0.3402;
877.2000;0.1498;-0.3450;
877.5000;0.1457;-0.3570;
877.8000;0.1538;-0.3402;
878.1000;0.1457;-0.3618;
878.4000;0.1498;-0.3450;
878.7000;0.1514;-0.3330;
879.0000;0.1530;-0.3283;
879.3000;0.1522;-0.3354;
879.6000;0.1506;-0.3402;
879.9000;0.1408;-0.3522;
880.2000;0.1498;-0.3402;
880.5000;0.1506;-0.3378;
880.8000;0.1530;-0.3306;
881.1000;0.1490;-0.3450;
881.4000;0.1473;-0.3450;
881.7000;0.1457;-0.3570;
882.0000;0.1490;-0.3474;
882.3000;0.1408;-0.3690;
882.6000;0.1571;-0.3259;
882.9000;0.1506;-0.3426;
883.2000;0.1514;-0.3330;
883.5000;0.1498;-0.3283;
883.8000;0.1457;-0.3378;
884.1000;0.1498;-0.3235;
884.4000;0.1490;-0.3187;
884.7000;0.1490;-0.3211;
885.0000;0.1465;-0.3259;
885.3000;0.1481;-0.3211;
885.6000;0.1490;-0.3187;
885.9000;0.1481;-0.3139;
886.2000;0.1481;-0.3139;
886.5000;0.1490;-0.3139;
886.8000;0.1522;-0.3163;
887.1000;0.1490;-0.3378;
887.4000;0.1490;-0.3354;
887.7000;0.1498;-0.3378;
888.0000;0.1514;-0.3354;
888.3000;0.1490;-0.3402;
888.6000;0.1506;-0.3330;
888.9000;0.1490;-0.3378;
889.2000;0.1498;-0.3354;
889.5000;0.1490;-0.3283;
889.8000;0.1449;-0.3354;
890.1000;0.1376;-0.3594;
890.4000;0.1498;-0.3235;
890.7000;0.1498;-0.3187;
891.0000;0.1498;-0.3259;
891.3000;0.1506;-0.3235;
891.6000;0.1514;-0.3187;
891.9000;0.1481;-0.3259;
892.2000;0.1498;-0.3211;
892.5000;0.1514;-0.3283;
892.8000;0.1490;-0.3354;
893.1000;0.1498;-0.3283;
893.4000;0.1425;-0.3426;
893.7000;0.1498;-0.3354;
894.0000;0.1522;-0.3139;
894.3000;0.1498;-0.3235;
894.6000;0.1473;-0.3306;
894.9000;0.1498;-0.3306;
895.2000;0.1595;-0.2995;
895.5000;0.1595;-0.3019;
895.8000;0.1449;-0.3426;
896.1000;0.1498;-0.3211;
896.4000;0.1547;-0.3091;
896.7000;0.1506;-0.3115;
897.0000;0.1481;-0.3187;
897.3000;0.1514;-0.3139;
897.6000;0.1514;-0.3187;
897.9000;0.1498;-0.3259;
898.2000;0.1498;-0.3259;
898.5000;0.1538;-0.3139;
898.8000;0.1522;-0.3211;
899.1000;0.1506;-0.3235;
899.4000;0.1514;-0.3306;
899.7000;0.1522;-0.3211;
900.0000;0.1498;-0.3211;
900.3000;0.1465;-0.3283;
900.6000;0.1490;-0.3235;
900.9000;0.1481;-0.3259;
901.2000;0.1481;-0.3259;
901.5000;0.1498;-0.3283;
901.8000;0.1498;-0.3378;
902.1000;0.1506;-0.3354;
902.4000;0.1498;-0.3378;
902.7000;0.1481;-0.3354;
903.0000;0.1441;-0.3474;
903.3000;0.1498;-0.3354;
903.6000;0.1530;-0.3330;
903.9000;0.1465;-0.3402;
904.2000;0.1506;-0.3330;
904.5000;0.1498;-0.3330;
904.8000;0.1506;-0.3259;
905.1000;0.1490;-0.3235;
905.4000;0.1473;-0.3378;
905.7000;0.1481;-0.3402;
906.0000;0.1498;-0.3354;
906.3000;0.1530;-0.3283;
906.6000;0.1473;-0.3330;
906.9000;0.1563;-0.3187;
907.2000;0.1490;-0.3402;
907.5000;0.1490;-0.3306;
907.8000;0.1490;-0.3330;
908.1000;0.1498;-0.3354;
908.4000;0.1481;-0.3378;
908.7000;0.1530;-0.3283;
909.0000;0.1490;-0.3426;
909.3000;0.1490;-0.3426;
909.6000;0.1514;-0.3450;
909.9000;0.1490;-0.3546;
910.2000;0.1498;-0.3570;
910.5000;0.1522;-0.3546;
910.8000;0.1514;-0.3450;
911.1000;0.1498;-0.3522;
911.4000;0.1514;-0.3522;
911.7000;0.1368;-0.3905;
912.0000;0.1425;-0.3714;
912.3000;0.1490;-0.3546;
912.6000;0.1498;-0.3498;
912.9000;0.1457;-0.3570;
913.2000;0.1490;-0.3498;
913.5000;0.1473;-0.3522;
913.8000;0.1506;-0.3402;
914.1000;0.1433;-0.3546;
914.4000;0.1522;-0.3306;
914.7000;0.1425;-0.3594;
915.0000;0.1506;-0.3498;
915.3000;0.1506;-0.3522;
915.6000;0.1490;-0.3522;
915.9000;0.1498;-0.3498;
916.2000;0.1506;-0.3426;
916.5000;0.1547;-0.3283;
916.8000;0.1498;-0.3378;
917.1000;0.1481;-0.3330;
917.4000;0.1547;-0.3091;
917.7000;0.1425;-0.3570;
918.0000;0.1481;-0.3354;
918.3000;0.1490;-0.3402;
918.6000;0.1490;-0.3450;
918.9000;0.1506;-0.3450;
919.2000;0.1506;-0.3474;
919.5000;0.1506;-0.3402;
919.8000;0.1498;-0.3354;
920.1000;0.1514;-0.3354;
920.4000;0.1628;-0.2947;
920.7000;0.1530;-0.3283;
921.0000;0.1506;-0.3259;
921.3000;0.1506;-0.3235;
921.6000;0.1506;-0.3259;
921.9000;0.1490;-0.3330;
922.2000;0.1498;-0.3259;
922.5000;0.1514;-0.3235;
922.8000;0.1498;-0.3259;
923.1000;0.1481;-0.3378;
923.4000;0.1514;-0.3306;
923.7000;0.1481;-0.3426;
924.0000;0.1506;-0.3306;
924.3000;0.1514;-0.3187;
924.6000;0.1490;-0.3259;
924.9000;0.1490;-0.3354;
925.2000;0.1514;-0.3259;
925.5000;0.1490;-0.3283;
925.8000;0.1490;-0.3283;
926.1000;0.1506;-0.3283;
926.4000;0.1506;-0.3283;
926.7000;0.1449;-0.3426;
927.0000;0.1522;-0.3235;
927.3000;0.1490;-0.3330;
927.6000;0.1506;-0.3187;
927.9000;0.1522;-0.3091;
928.2000;0.1498;-0.3163;
928.5000;0.1506;-0.3235;
928.8000;0.1490;-0.3306;
929.1000;0.1490;-0.3283;
929.4000;0.1522;-0.3283;
929.7000;0.1498;-0.3354;
930.0000;0.1498;-0.3402;
930.3000;0.1514;-0.3378;
930.6000;0.1498;-0.3426;
930.9000;0.1498;-0.3426;
931.2000;0.1481;-0.3498;
931.5000;0.1490;-0.3474;
931.8000;0.1514;-0.3378;
932.1000;0.1498;-0.3330;
932.4000;0.1514;-0.3283;
932.7000;0.1506;-0.3283;
933.0000;0.1490;-0.3330;
933.3000;0.1481;-0.3450;
933.6000;0.1473;-0.3498;
933.9000;0.1490;-0.3474;
934.2000;0.1547;-0.3259;
934.5000;0.1506;-0.3330;
934.8000;0.1571;-0.3163;
935.1000;0.1481;-0.3283;
935.4000;0.1506;-0.3306;
935.7000;0.1522;-0.3187;
936.0000;0.1425;-0.3474;
936.3000;0.1465;-0.3402;
936.6000;0.1498;-0.3354;
936.9000;0.1506;-0.3306;
937.2000;0.1522;-0.3259;
937.5000;0.1612;-0.2947;
937.8000;0.1490;-0.3259;
938.1000;0.1441;-0.3402;
938.4000;0.1498;-0.3211;
938.7000;0.1587;-0.2875;
939.0000;0.1457;-0.3283;
939.3000;0.1441;-0.3378;
939.6000;0.1506;-0.3211;
939.9000;0.1498;-0.3235;
940.2000;0.1498;-0.3163;
940.5000;0.1530;-0.2995;
940.8000;0.1522;-0.3091;
941.1000;0.1514;-0.3139;
941.4000;0.1522;-0.3163;
941.7000;0.1522;-0.3187;
942.0000;0.1522;-0.3139;
942.3000;0.1473;-0.3211;
942.6000;0.1473;-0.3139;
942.9000;0.1490;-0.3115;
943.2000;0.1490;-0.2971;
943.5000;0.1498;-0.2923;
943.8000;0.1490;-0.2971;
944.1000;0.1498;-0.2995;
944.4000;0.1498;-0.2995;
944.7000;0.1481;-0.3163;
945.0000;0.1498;-0.3091;
945.3000;0.1481;-0.3163;
945.6000;0.1530;-0.3019;
945.9000;0.1498;-0.3163;
946.2000;0.1530;-0.3043;
946.5000;0.1481;-0.3235;
946.8000;0.1547;-0.3163;
947.1000;0.1506;-0.3187;
947.4000;0.1498;-0.3187;
947.7000;0.1473;-0.3330;
948.0000;0.1506;-0.3211;
948.3000;0.1481;-0.3283;
948.6000;0.1506;-0.3163;
948.9000;0.1514;-0.3091;
949.2000;0.1595;-0.2851;
949.5000;0.1481;-0.3211;
949.8000;0.1506;-0.3187;
950.1000;0.1498;-0.3187;
950.4000;0.1465;-0.3283;
950.7000;0.1457;-0.3330;
951.0000;0.1506;-0.3187;
951.3000;0.1514;-0.3235;
951.6000;0.1481;-0.3330;
951.9000;0.1473;-0.3283;
952.2000;0.1530;-0.3115;
952.5000;0.1514;-0.3187;
952.8000;0.1498;-0.3187;
953.1000;0.1490;-0.3187;
953.4000;0.1498;-0.3091;
953.7000;0.1465;-0.3187;
954.0000;0.1506;-0.3139;
954.3000;0.1498;-0.3139;
954.6000;0.1514;-0.3043;
954.9000;0.1514;-0.3091;
955.2000;0.1506;-0.3211;
955.5000;0.1490;-0.3259;
955.8000;0.1481;-0.3354;
956.1000;0.1490;-0.3354;
956.4000;0.1530;-0.3259;
956.7000;0.1481;-0.3235;
957.0000;0.1498;-0.3187;
957.3000;0.1498;-0.3139;
957.6000;0.1522;-0.3067;
957.9000;0.1522;-0.3091;
958.2000;0.1498;-0.3043;
958.5000;0.1506;-0.2995;
958.8000;0.1473;-0.3115;
959.1000;0.1506;-0.3067;
959.4000;0.1498;-0.3115;
959.7000;0.1498;-0.3139;
960.0000;0.1490;-0.3115;
960.3000;0.1498;-0.3115;
960.6000;0.1490;-0.3187;
960.9000;0.1498;-0.3187;
961.2000;0.1498;-0.3235;
961.5000;0.1506;-0.3163;
961.8000;0.1498;-0.3235;
962.1000;0.1481;-0.3235;
962.4000;0.1498;-0.3187;
962.7000;0.1473;-0.3259;
963.0000;0.1490;-0.3187;
963.3000;0.1490;-0.3259;
963.6000;0.1498;-0.3211;
963.9000;0.1506;-0.3187;
964.2000;0.1498;-0.3163;
964.5000;0.1481;-0.3163;
964.8000;0.1522;-0.3115;
965.1000;0.1498;-0.3235;
965.4000;0.1522;-0.3187;
965.7000;0.1498;-0.3283;
966.0000;0.1473;-0.3283;
966.3000;0.1498;-0.3235;
966.6000;0.1490;-0.3235;
966.9000;0.1498;-0.3163;
967.2000;0.1490;-0.3187;
967.5000;0.1498;-0.3187;
967.8000;0.1514;-0.3235;
968.1000;0.1490;-0.3283;
968.4000;0.1498;-0.3283;
968.7000;0.1498;-0.3259;
969.0000;0.1490;-0.3235;
969.3000;0.1506;-0.3211;
969.6000;0.1490;-0.3211;
969.9000;0.1481;-0.3259;
970.2000;0.1498;-0.3235;
970.5000;0.1490;-0.3235;
970.8000;0.1473;-0.3330;
971.1000;0.1481;-0.3306;
971.4000;0.1498;-0.3211;
971.7000;0.1522;-0.3187;
972.0000;0.1490;-0.3283;
972.3000;0.1384;-0.3594;
972.6000;0.1490;-0.3211;
972.9000;0.1506;-0.3115;
973.2000;0.1490;-0.3139;
973.5000;0.1481;-0.3187;
973.8000;0.1490;-0.3187;
974.1000;0.1490;-0.3211;
974.4000;0.1481;-0.3235;
974.7000;0.1441;-0.3306;
975.0000;0.1498;-0.3163;
975.3000;0.1587;-0.2995;
975.6000;0.1490;-0.3187;
975.9000;0.1490;-0.3163;
976.2000;0.1481;-0.3187;
976.5000;0.1490;-0.3306;
976.8000;0.1498;-0.3283;
977.1000;0.1506;-0.3187;
977.4000;0.1498;-0.3187;
977.7000;0.1465;-0.3211;
978.0000;0.1490;-0.3235;
978.3000;0.1506;-0.3187;
978.6000;0.1498;-0.3139;
978.9000;0.1473;-0.3163;
979.2000;0.1473;-0.3235;
979.5000;0.1522;-0.3163;
979.8000;0.1481;-0.3378;
980.1000;0.1490;-0.3283;
980.4000;0.1498;-0.3283;
980.7000;0.1425;-0.3378;
981.0000;0.1514;-0.3259;
981.3000;0.1481;-0.3306;
981.6000;0.1490;-0.3283;
981.9000;0.1490;-0.3259;
982.2000;0.1514;-0.3235;
982.5000;0.1481;-0.3330;
982.8000;0.1473;-0.3378;
983.1000;0.1449;-0.3522;
983.4000;0.1490;-0.3330;
983.7000;0.1490;-0.3259;
984.0000;0.1498;-0.3187;
984.3000;0.1506;-0.3235;
984.6000;0.1498;-0.3330;
984.9000;0.1473;-0.3426;
985.2000;0.1506;-0.3330;
985.5000;0.1481;-0.3378;
985.8000;0.1473;-0.3354;
986.1000;0.1498;-0.3259;
986.4000;0.1514;-0.3259;
986.7000;0.1490;-0.3378;
987.0000;0.1514;-0.3378;
987.3000;0.1490;-0.3450;
987.6000;0.1490;-0.3450;
987.9000;0.1498;-0.3426;
988.2000;0.1506;-0.3378;
988.5000;0.1498;-0.3354;
988.8000;0.1506;-0.3211;
989.1000;0.1490;-0.3115;
989.4000;0.1481;-0.3067;
989.7000;0.1620;-0.2755;
990.0000;0.1481;-0.3139;
990.3000;0.1490;-0.3091;
990.6000;0.1514;-0.3067;
990.9000;0.1514;-0.3187;
991.2000;0.1490;-0.3235;
991.5000;0.1498;-0.3187;
991.8000;0.1481;-0.3187;
992.1000;0.1498;-0.3163;
992.4000;0.1498;-0.3235;
992.7000;0.1490;-0.3306;
993.0000;0.1481;-0.3283;
993.3000;0.1481;-0.3187;
993.6000;0.1498;-0.3211;
993.9000;0.1604;-0.2971;
994.2000;0.1498;-0.3306;
994.5000;0.1490;-0.3306;
994.8000;0.1506;-0.3330;
995.1000;0.1514;-0.3306;
995.4000;0.1547;-0.3139;
995.7000;0.1481;-0.3306;
996.0000;0.1506;-0.3211;
996.3000;0.1604;-0.2947;
996.6000;0.1490;-0.3235;
996.9000;0.1498;-0.3306;
997.2000;0.1490;-0.3235;
997.5000;0.1498;-0.3259;
997.8000;0.1481;-0.3283;
998.1000;0.1490;-0.3283;
998.4000;0.1392;-0.3498;
998.7000;0.1490;-0.3235;
999.0000;0.1490;-0.3259;
999.3000;0.1473;-0.3283;
999.6000;0.1473;-0.3283;
999.9000;0.1498;-0.3259;
1000.2000;0.1522;-0.3211;
1000.5000;0.1498;-0.3187;
1000.8000;0.1457;-0.3306;
1001.1000;0.1498;-0.3211;
1001.4000;0.1400;-0.3378;
1001.7000;0.1481;-0.3091;
1002.0000;0.1563;-0.3019;
1002.3000;0.1522;-0.3187;
1002.6000;0.1506;-0.3259;
1002.9000;0.1506;-0.3211;
1003.2000;0.1473;-0.3306;
1003.5000;0.1587;-0.2995;
1003.8000;0.1506;-0.3259;
1004.1000;0.1506;-0.3259;
1004.4000;0.1506;-0.3306;
1004.7000;0.1425;-0.3498;
1005.0000;0.1498;-0.3354;
1005.3000;0.1506;-0.3330;
1005.6000;0.1514;-0.3402;
1005.9000;0.1481;-0.3426;
1006.2000;0.1416;-0.3546;
1006.5000;0.1425;-0.3618;
1006.8000;0.1490;-0.3354;
1007.1000;0.1490;-0.3259;
1007.4000;0.1465;-0.3378;
1007.7000;0.1506;-0.3378;
1008.0000;0.1530;-0.3306;
1008.3000;0.1400;-0.3738;
1008.6000;0.1506;-0.3474;
1008.9000;0.1506;-0.3474;
1009.2000;0.1498;-0.3498;
1009.5000;0.1530;-0.3426;
1009.8000;0.1490;-0.3426;
1010.1000;0.1490;-0.3378;
1010.4000;0.1425;-0.3546;
1010.7000;0.1498;-0.3259;
1011.0000;0.1506;-0.3235;
1011.3000;0.1514;-0.3283;
1011.6000;0.1490;-0.3354;
1011.9000;0.1465;-0.3402;
1012.2000;0.1506;-0.3211;
1012.5000;0.1490;-0.3283;
1012.8000;0.1514;-0.3163;
1013.1000;0.1490;-0.3163;
1013.4000;0.1498;-0.3139;
1013.7000;0.1506;-0.3139;
1014.0000;0.1408;-0.3402;
1014.3000;0.1481;-0.3259;
1014.6000;0.1498;-0.3330;
1014.9000;0.1514;-0.3283;
1015.2000;0.1481;-0.3354;
1015.5000;0.1498;-0.3235;
1015.8000;0.1579;-0.3067;
1016.1000;0.1498;-0.3235;
1016.4000;0.1498;-0.3259;
1016.7000;0.1506;-0.3187;
1017.0000;0.1506;-0.3283;
1017.3000;0.1506;-0.3259;
1017.6000;0.1490;-0.3259;
1017.9000;0.1498;-0.3306;
1018.2000;0.1514;-0.3235;
1018.5000;0.1498;-0.3235;
1018.8000;0.1392;-0.3498;
1019.1000;0.1473;-0.3283;
1019.4000;0.1490;-0.3259;
1019.7000;0.1498;-0.3163;
1020.0000;0.1555;-0.3043;
1020.3000;0.1473;-0.3211;
1020.6000;0.1473;-0.3259;
1020.9000;0.1506;-0.3139;
1021.2000;0.1506;-0.3187;
1021.5000;0.1457;-0.3283;
1021.8000;0.1547;-0.3139;
1022.1000;0.1490;-0.3259;
1022.4000;0.1506;-0.3187;
1022.7000;0.1506;-0.3163;
1023.0000;0.1449;-0.3306;
1023.3000;0.1498;-0.3139;
1023.6000;0.1481;-0.3187;
1023.9000;0.1498;-0.3259;
1024.2000;0.1490;-0.3283;
1024.5000;0.1506;-0.3259;
1024.8000;0.1506;-0.3235;
1025.1000;0.1481;-0.3187;
1025.4000;0.1433;-0.3354;
1025.7000;0.1490;-0.3283;
1026.0000;0.1473;-0.3306;
1026.3000;0.1498;-0.3163;
1026.6000;0.1498;-0.3187;
1026.9000;0.1473;-0.3163;
1027.2000;0.1490;-0.3187;
1027.5000;0.1425;-0.3330;
1027.8000;0.1514;-0.3139;
1028.1000;0.1473;-0.3354;
1028.4000;0.1522;-0.3235;
1028.7000;0.1522;-0.3283;
1029.0000;0.1490;-0.3426;
1029.3000;0.1514;-0.3402;
1029.6000;0.1506;-0.3426;
1029.9000;0.1522;-0.3402;
1030.2000;0.1481;-0.3522;
1030.5000;0.1392;-0.3786;
1030.8000;0.1473;-0.3570;
1031.1000;0.1481;-0.3498;
1031.4000;0.1425;-0.3714;
1031.7000;0.1490;-0.3594;
1032.0000;0.1481;-0.3618;
1032.3000;0.1506;-0.3594;
1032.6000;0.1498;-0.3498;
1032.9000;0.1506;-0.3474;
1033.2000;0.1498;-0.3450;
1033.5000;0.1555;-0.3211;
1033.8000;0.1441;-0.3522;
1034.1000;0.1498;-0.3354;
1034.4000;0.1481;-0.3426;
1034.7000;0.1547;-0.3283;
1035.0000;0.1514;-0.3354;
1035.3000;0.1547;-0.3235;
1035.6000;0.1538;-0.3187;
1035.9000;0.1498;-0.3211;
1036.2000;0.1498;-0.3211;
1036.5000;0.1506;-0.3163;
1036.8000;0.1473;-0.3211;
1037.1000;0.1481;-0.3187;
1037.4000;0.1522;-0.3115;
1037.7000;0.1490;-0.3235;
1038.0000;0.1490;-0.3235;
1038.3000;0.1498;-0.3259;
1038.6000;0.1498;-0.3259;
1038.9000;0.1498;-0.3283;
1039.2000;0.1490;-0.3402;
1039.5000;0.1481;-0.3330;
1039.8000;0.1490;-0.3259;
1040.1000;0.1481;-0.3378;
1040.4000;0.1514;-0.3283;
1040.7000;0.1490;-0.3306;
1041.0000;0.1481;-0.3306;
1041.3000;0.1473;-0.3330;
1041.6000;0.1498;-0.3283;
1041.9000;0.1547;-0.3091;
1042.2000;0.1547;-0.3091;
1042.5000;0.1473;-0.3235;
1042.8000;0.1481;-0.3163;
1043.1000;0.1473;-0.3163;
1043.4000;0.1555;-0.2995;
1043.7000;0.1465;-0.3306;
1044.0000;0.1498;-0.3259;
1044.3000;0.1481;-0.3378;
1044.6000;0.1514;-0.3259;
1044.9000;0.1498;-0.3283;
1045.2000;0.1506;-0.3187;
1045.5000;0.1506;-0.3115;
1045.8000;0.1490;-0.3187;
1046.1000;0.1506;-0.3187;
1046.4000;0.1506;-0.3259;
1046.7000;0.1498;-0.3187;
1047.0000;0.1506;-0.3163;
1047.3000;0.1490;-0.3163;
1047.6000;0.1481;-0.3163;
1047.9000;0.1490;-0.3163;
1048.2000;0.1498;-0.3139;
1048.5000;0.1473;-0.3187;
1048.8000;0.1498;-0.3139;
1049.1000;0.1506;-0.3139;
1049.4000;0.1490;-0.3115;
1049.7000;0.1481;-0.3187;
1050.0000;0.1490;-0.3330;
1050.3000;0.1473;-0.3306;
1050.6000;0.1506;-0.3187;
1050.9000;0.1506;-0.3235;
1051.2000;0.1547;-0.3091;
1051.5000;0.1514;-0.3211;
1051.8000;0.1498;-0.3474;
1052.1000;0.1473;-0.3474;
1052.4000;0.1498;-0.3354;
1052.7000;0.1490;-0.3330;
1053.0000;0.1514;-0.3211;
1053.3000;0.1506;-0.3187;
1053.6000;0.1506;-0.3211;
1053.9000;0.1481;-0.3306;
1054.2000;0.1498;-0.3354;
1054.5000;0.1620;-0.2995;
1054.8000;0.1490;-0.3402;
1055.1000;0.1514;-0.3330;
1055.4000;0.1530;-0.3283;
1055.7000;0.1481;-0.3450;
1056.0000;0.1514;-0.3402;
1056.3000;0.1506;-0.3378;
1056.6000;0.1579;-0.3235;
1056.9000;0.1514;-0.3426;
1057.2000;0.1481;-0.3426;
1057.5000;0.1498;-0.3330;
1057.8000;0.1481;-0.3235;
1058.1000;0.1490;-0.3067;
1058.4000;0.1465;-0.3139;
1058.7000;0.1465;-0.3091;
1059.0000;0.1327;-0.3402;
1059.3000;0.1481;-0.2995;
1059.6000;0.1441;-0.3139;
1059.9000;0.1506;-0.3019;
1060.2000;0.1514;-0.2971;
1060.5000;0.1490;-0.2971;
1060.8000;0.1506;-0.2947;
1061.1000;0.1481;-0.3019;
1061.4000;0.1490;-0.3067;
1061.7000;0.1506;-0.2971;
1062.0000;0.1514;-0.3067;
1062.3000;0.1481;-0.3115;
1062.6000;0.1522;-0.2995;
1062.9000;0.1538;-0.3019;
1063.2000;0.1498;-0.3067;
1063.5000;0.1498;-0.3067;
1063.8000;0.1490;-0.3091;
1064.1000;0.1506;-0.2995;
1064.4000;0.1481;-0.2899;
1064.7000;0.1506;-0.2899;
1065.0000;0.1490;-0.2971;
1065.3000;0.1433;-0.3259;
1065.6000;0.1498;-0.3139;
1065.9000;0.1514;-0.3091;
1066.2000;0.1498;-0.3091;
1066.5000;0.1522;-0.3067;
1066.8000;0.1473;-0.3211;
1067.1000;0.1490;-0.3187;
1067.4000;0.1604;-0.2731;
1067.7000;0.1514;-0.3115;
1068.0000;0.1563;-0.3043;
1068.3000;0.1384;-0.3570;
1068.6000;0.1465;-0.3402;
1068.9000;0.1490;-0.3306;
1069.2000;0.1490;-0.3378;
1069.5000;0.1514;-0.3306;
1069.8000;0.1498;-0.3330;
1070.1000;0.1514;-0.3330;
1070.4000;0.1490;-0.3354;
1070.7000;0.1498;-0.3354;
1071.0000;0.1563;-0.3187;
1071.3000;0.1555;-0.3211;
1071.6000;0.1376;-0.3642;
1071.9000;0.1547;-0.3211;
1072.2000;0.1514;-0.3283;
1072.5000;0.1514;-0.3211;
1072.8000;0.1481;-0.3187;
1073.1000;0.1538;-0.3019;
1073.4000;0.1498;-0.3163;
1073.7000;0.1506;-0.3139;
1074.0000;0.1490;-0.3139;
1074.3000;0.1490;-0.3091;
1074.6000;0.1506;-0.3163;
1074.9000;0.1490;-0.3235;
1075.2000;0.1490;-0.3330;
1075.5000;0.1498;-0.3450;
1075.8000;0.1514;-0.3354;
1076.1000;0.1449;-0.3474;
1076.4000;0.1514;-0.3259;
1076.7000;0.1441;-0.3450;
1077.0000;0.1498;-0.3354;
1077.3000;0.1490;-0.3450;
1077.6000;0.1473;-0.3450;
1077.9000;0.1408;-0.3546;
1078.2000;0.1490;-0.3306;
1078.5000;0.1579;-0.3091;
1078.8000;0.1514;-0.3330;
1079.1000;0.1490;-0.3378;
1079.4000;0.1498;-0.3354;
1079.7000;0.1498;-0.3330;
1080.0000;0.1498;-0.3163;
1080.3000;0.1481;-0.3283;
1080.6000;0.1490;-0.3354;
1080.9000;0.1612;-0.3067;
1081.2000;0.1490;-0.3426;
1081.5000;0.1506;-0.3378;
1081.8000;0.1473;-0.3426;
1082.1000;0.1530;-0.3283;
1082.4000;0.1514;-0.3330;
1082.7000;0.1498;-0.3378;
1083.0000;0.1490;-0.3450;
1083.3000;0.1481;-0.3522;
1083.6000;0.1481;-0.3498;
1083.9000;0.1490;-0.3450;
1084.2000;0.1498;-0.3354;
1084.5000;0.1481;-0.3354;
1084.8000;0.1490;-0.3306;
1085.1000;0.1490;-0.3259;
1085.4000;0.1481;-0.3330;
1085.7000;0.1538;-0.3211;
1086.0000;0.1473;-0.3378;
1086.3000;0.1498;-0.3211;
1086.6000;0.1514;-0.3187;
1086.9000;0.1490;-0.3187;
1087.2000;0.1481;-0.3211;
1087.5000;0.1490;-0.3139;
1087.8000;0.1506;-0.3019;
1088.1000;0.1490;-0.3019;
1088.4000;0.1473;-0.3139;
1088.7000;0.1490;-0.3115;
1089.0000;0.1490;-0.3139;
1089.3000;0.1587;-0.2899;
1089.6000;0.1457;-0.3259;
1089.9000;0.1506;-0.3259;
1090.2000;0.1490;-0.3354;
1090.5000;0.1514;-0.3306;
1090.8000;0.1490;-0.3330;
1091.1000;0.1506;-0.3259;
1091.4000;0.1506;-0.3211;
1091.7000;0.1506;-0.3283;
1092.0000;0.1506;-0.3354;
1092.3000;0.1506;-0.3354;
1092.6000;0.1587;-0.3163;
1092.9000;0.1498;-0.3330;
1093.2000;0.1433;-0.3402;
1093.5000;0.1490;-0.3330;
1093.8000;0.1506;-0.3283;
1094.1000;0.1498;-0.3306;
1094.4000;0.1506;-0.3211;
1094.7000;0.1506;-0.3235;
1095.0000;0.1498;-0.3211;
1095.3000;0.1522;-0.3211;
1095.6000;0.1514;-0.3187;
1095.9000;0.1481;-0.3235;
1096.2000;0.1595;-0.2971;
1096.5000;0.1490;-0.3187;
1096.8000;0.1473;-0.3187;
1097.1000;0.1490;-0.3187;
1097.4000;0.1490;-0.3235;
1097.7000;0.1579;-0.2995;
1098.0000;0.1498;-0.3235;
1098.3000;0.1481;-0.3283;
1098.6000;0.1490;-0.3283;
1098.9000;0.1490;-0.3235;
1099.2000;0.1449;-0.3354;
1099.5000;0.1498;-0.3163;
1099.8000;0.1473;-0.3139;
1100.1000;0.1465;-0.3067;
1100.4000;0.1416;-0.3235;
1100.7000;0.1490;-0.3043;
1101.0000;0.1506;-0.2995;
1101.3000;0.1506;-0.2995;
1101.6000;0.1498;-0.3019;
1101.9000;0.1481;-0.3067;
1102.2000;0.1506;-0.3115;
1102.5000;0.1522;-0.3043;
1102.8000;0.1498;-0.3091;
1103.1000;0.1498;-0.3091;
1103.4000;0.1522;-0.3043;
1103.7000;0.1490;-0.3163;
1104.0000;0.1490;-0.3187;
1104.3000;0.1514;-0.3115;
1104.6000;0.1498;-0.3139;
1104.9000;0.1498;-0.3115;
1105.2000;0.1506;-0.3115;
1105.5000;0.1579;-0.2923;
1105.8000;0.1530;-0.3019;
1106.1000;0.1392;-0.3426;
1106.4000;0.1490;-0.3211;
1106.7000;0.1490;-0.3283;
1107.0000;0.1530;-0.3163;
1107.3000;0.1498;-0.3163;
1107.6000;0.1522;-0.3043;
1107.9000;0.1498;-0.3043;
1108.2000;0.1514;-0.2995;
1108.5000;0.1473;-0.3043;
1108.8000;0.1473;-0.3043;
1109.1000;0.1538;-0.2827;
1109.4000;0.1473;-0.3067;
1109.7000;0.1490;-0.3139;
1110.0000;0.1473;-0.3306;
1110.3000;0.1473;-0.3259;
1110.6000;0.1563;-0.2923;
1110.9000;0.1498;-0.3139;
1111.2000;0.1514;-0.3115;
1111.5000;0.1490;-0.3259;
1111.8000;0.1498;-0.3402;
1112.1000;0.1514;-0.3330;
1112.4000;0.1473;-0.3378;
1112.7000;0.1514;-0.3259;
1113.0000;0.1465;-0.3354;
1113.3000;0.1506;-0.3211;
1113.6000;0.1506;-0.3235;
1113.9000;0.1620;-0.2827;
1114.2000;0.1481;-0.3163;
1114.5000;0.1490;-0.3115;
1114.8000;0.1498;-0.3091;
1115.1000;0.1481;-0.3187;
1115.4000;0.1490;-0.3163;
1115.7000;0.1498;-0.3139;
1116.0000;0.1587;-0.2899;
1116.3000;0.1481;-0.3139;
1116.6000;0.1522;-0.3115;
1116.9000;0.1498;-0.3115;
1117.2000;0.1506;-0.3115;
1117.5000;0.1514;-0.3115;
1117.8000;0.1481;-0.3211;
1118.1000;0.1498;-0.3211;
1118.4000;0.1498;-0.3163;
1118.7000;0.1555;-0.2971;
1119.0000;0.1506;-0.3235;
1119.3000;0.1490;-0.3187;
1119.6000;0.1498;-0.3163;
1119.9000;0.1514;-0.3043;
1120.2000;0.1506;-0.3043;
1120.5000;0.1473;-0.3091;
1120.8000;0.1522;-0.2923;
1121.1000;0.1481;-0.3067;
1121.4000;0.1481;-0.3091;
1121.7000;0.1530;-0.3019;
1122.0000;0.1490;-0.3139;
1122.3000;0.1498;-0.3091;
1122.6000;0.1498;-0.3043;
1122.9000;0.1473;-0.3139;
1123.2000;0.1473;-0.3115;
1123.5000;0.1473;-0.3067;
1123.8000;0.1481;-0.3043;
1124.1000;0.1490;-0.2971;
1124.4000;0.1514;-0.2923;
1124.7000;0.1498;-0.2899;
1125.0000;0.1530;-0.2827;
1125.3000;0.1465;-0.3019;
1125.6000;0.1530;-0.2947;
1125.9000;0.1473;-0.3139;
1126.2000;0.1498;-0.3115;
1126.5000;0.1481;-0.3115;
1126.8000;0.1473;-0.3139;
1127.1000;0.1481;-0.3139;
1127.4000;0.1530;-0.2995;
1127.7000;0.1425;-0.3283;
1128.0000;0.1506;-0.3115;
1128.3000;0.1473;-0.3139;
1128.6000;0.1490;-0.3043;
1128.9000;0.1498;-0.3115;
1129.2000;0.1498;-0.3139;
1129.5000;0.1481;-0.3187;
1129.8000;0.1481;-0.3091;
1130.1000;0.1490;-0.3115;
1130.4000;0.1490;-0.3115;
1130.7000;0.1498;-0.3067;
1131.0000;0.1465;-0.3163;
1131.3000;0.1481;-0.3091;
1131.6000;0.1498;-0.3067;
1131.9000;0.1498;-0.3091;
1132.2000;0.1481;-0.3043;
1132.5000;0.1490;-0.3019;
1132.8000;0.1498;-0.2947;
1133.1000;0.1490;-0.3019;
1133.4000;0.1481;-0.3067;
1133.7000;0.1498;-0.3067;
1134.0000;0.1498;-0.3187;
1134.3000;0.1473;-0.3211;
1134.6000;0.1498;-0.3163;
1134.9000;0.1490;-0.3163;
1135.2000;0.1457;-0.3211;
1135.5000;0.1481;-0.3163;
1135.8000;0.1530;-0.3067;
1136.1000;0.1481;-0.3187;
1136.4000;0.1490;-0.3115;
1136.7000;0.1498;-0.3115;
1137.0000;0.1449;-0.3330;
1137.3000;0.1473;-0.3259;
1137.6000;0.1498;-0.3235;
1137.9000;0.1481;-0.3211;
1138.2000;0.1490;-0.3259;
1138.5000;0.1514;-0.3163;
1138.8000;0.1498;-0.3211;
1139.1000;0.1506;-0.3067;
1139.4000;0.1506;-0.3091;
1139.7000;0.1490;-0.3067;
1140.0000;0.1457;-0.3187;
1140.3000;0.1490;-0.3187;
1140.6000;0.1498;-0.3211;
1140.9000;0.1522;-0.3187;
1141.2000;0.1506;-0.3259;
1141.5000;0.1400;-0.3426;
1141.8000;0.1498;-0.3187;
1142.1000;0.1449;-0.3235;
1142.4000;0.1473;-0.3115;
1142.7000;0.1425;-0.3306;
1143.0000;0.1473;-0.3187;
1143.3000;0.1506;-0.3139;
1143.6000;0.1359;-0.3546;
1143.9000;0.1481;-0.3091;
1144.2000;0.1563;-0.2923;
1144.5000;0.1433;-0.3283;
1144.8000;0.1465;-0.3187;
1145.1000;0.1530;-0.3067;
1145.4000;0.1473;-0.3235;
1145.7000;0.1481;-0.3259;
1146.0000;0.1465;-0.3330;
1146.3000;0.1490;-0.3235;
1146.6000;0.1490;-0.3283;
1146.9000;0.1498;-0.3211;
1147.2000;0.1506;-0.3211;
1147.5000;0.1473;-0.3187;
1147.8000;0.1498;-0.3115;
1148.1000;0.1522;-0.3067;
1148.4000;0.1530;-0.3043;
1148.7000;0.1490;-0.3259;
1149.0000;0.1498;-0.3235;
1149.3000;0.1530;-0.3091;
1149.6000;0.1506;-0.3211;
1149.9000;0.1506;-0.3163;
1150.2000;0.1490;-0.3115;
1150.5000;0.1457;-0.3235;
1150.8000;0.1498;-0.3139;
1151.1000;0.1498;-0.3163;
1151.4000;0.1530;-0.3067;
1151.7000;0.1498;-0.3139;
1152.0000;0.1498;-0.3187;
1152.3000;0.1498;-0.3187;
1152.6000;0.1490;-0.3187;
1152.9000;0.1506;-0.3187;
1153.2000;0.1481;-0.3283;
1153.5000;0.1481;-0.3283;
1153.8000;0.1490;-0.3259;
1154.1000;0.1490;-0.3187;
1154.4000;0.1490;-0.3163;
1154.7000;0.1547;-0.2995;
1155.0000;0.1490;-0.3067;
1155.3000;0.1498;-0.3067;
1155.6000;0.1490;-0.3091;
1155.9000;0.1473;-0.3115;
1156.2000;0.1473;-0.3115;
1156.5000;0.1506;-0.3115;
1156.8000;0.1498;-0.3115;
1157.1000;0.1522;-0.3115;
1157.4000;0.1481;-0.3259;
1157.7000;0.1490;-0.3283;
1158.0000;0.1490;-0.3259;
1158.3000;0.1490;-0.3283;
1158.6000;0.1498;-0.3259;
1158.9000;0.1506;-0.3187;
1159.2000;0.1506;-0.3163;
1159.5000;0.1498;-0.3211;
1159.8000;0.1498;-0.3259;
1160.1000;0.1473;-0.3259;
1160.4000;0.1473;-0.3283;
1160.7000;0.1490;-0.3163;
1161.0000;0.1481;-0.3235;
1161.3000;0.1449;-0.3283;
1161.6000;0.1481;-0.3211;
1161.9000;0.1514;-0.3115;
1162.2000;0.1498;-0.3019;
1162.5000;0.1555;-0.2779;
1162.8000;0.1481;-0.2995;
1163.1000;0.1481;-0.3091;
1163.4000;0.1555;-0.2947;
1163.7000;0.1481;-0.3187;
1164.0000;0.1498;-0.3139;
1164.3000;0.1481;-0.3187;
1164.6000;0.1498;-0.3139;
1164.9000;0.1547;-0.3091;
1165.2000;0.1481;-0.3163;
1165.5000;0.1506;-0.3043;
1165.8000;0.1457;-0.3139;
1166.1000;0.1547;-0.2875;
1166.4000;0.1465;-0.3115;
1166.7000;0.1490;-0.3187;
1167.0000;0.1490;-0.3235;
1167.3000;0.1506;-0.3163;
1167.6000;0.1498;-0.3139;
1167.9000;0.1498;-0.3115;
1168.2000;0.1490;-0.3115;
1168.5000;0.1473;-0.3187;
1168.8000;0.1506;-0.3139;
1169.1000;0.1506;-0.3163;
1169.4000;0.1530;-0.3115;
1169.7000;0.1376;-0.3474;
1170.0000;0.1555;-0.3115;
1170.3000;0.1490;-0.3378;
1170.6000;0.1473;-0.3354;
1170.9000;0.1490;-0.3235;
1171.2000;0.1506;-0.3211;
1171.5000;0.1506;-0.3163;
1171.8000;0.1465;-0.3283;
1172.1000;0.1481;-0.3259;
1172.4000;0.1473;-0.3235;
1172.7000;0.1465;-0.3211;
1173.0000;0.1481;-0.3163;
1173.3000;0.1514;-0.3139;
1173.6000;0.1498;-0.3187;
1173.9000;0.1522;-0.3115;
1174.2000;0.1498;-0.3235;
1174.5000;0.1498;-0.3211;
1174.8000;0.1506;-0.3235;
1175.1000;0.1506;-0.3211;
1175.4000;0.1506;-0.3163;
1175.7000;0.1490;-0.3259;
1176.0000;0.1490;-0.3235;
1176.3000;0.1498;-0.3235;
1176.6000;0.1506;-0.3211;
1176.9000;0.1473;-0.3330;
1177.2000;0.1490;-0.3283;
1177.5000;0.1481;-0.3306;
1177.8000;0.1490;-0.3211;
1178.1000;0.1498;-0.3211;
1178.4000;0.1506;-0.3187;
1178.7000;0.1587;-0.2971;
1179.0000;0.1595;-0.2971;
1179.3000;0.1498;-0.3091;
1179.6000;0.1506;-0.3067;
1179.9000;0.1490;-0.3091;
1180.2000;0.1498;-0.3091;
1180.5000;0.1490;-0.3211;
1180.8000;0.1498;-0.3211;
1181.1000;0.1522;-0.3163;
1181.4000;0.1481;-0.3259;
1181.7000;0.1490;-0.3259;
1182.0000;0.1506;-0.3211;
1182.3000;0.1498;-0.3211;
1182.6000;0.1506;-0.3187;
1182.9000;0.1498;-0.3187;
1183.2000;0.1490;-0.3163;
1183.5000;0.1506;-0.3187;
1183.8000;0.1481;-0.3283;
1184.1000;0.1506;-0.3187;
1184.4000;0.1506;-0.3163;
1184.7000;0.1481;-0.3211;
1185.0000;0.1490;-0.3235;
1185.3000;0.1522;-0.3187;
1185.6000;0.1555;-0.3043;
1185.9000;0.1481;-0.3211;
1186.2000;0.1465;-0.3378;
1186.5000;0.1481;-0.3306;
1186.8000;0.1498;-0.3211;
1187.1000;0.1595;-0.2899;
1187.4000;0.1490;-0.3211;
1187.7000;0.1481;-0.3259;
1188.0000;0.1490;-0.3235;
1188.3000;0.1506;-0.3163;
1188.6000;0.1449;-0.3330;
1188.9000;0.1441;-0.3354;
1189.2000;0.1400;-0.3546;
1189.5000;0.1490;-0.3330;
1189.8000;0.1506;-0.3259;
1190.1000;0.1490;-0.3354;
1190.4000;0.1498;-0.3306;
1190.7000;0.1522;-0.3211;
1191.0000;0.1498;-0.3259;
1191.3000;0.1481;-0.3211;
1191.6000;0.1498;-0.3259;
1191.9000;0.1449;-0.3450;
1192.2000;0.1498;-0.3187;
1192.5000;0.1506;-0.3115;
1192.8000;0.1481;-0.3211;
1193.1000;0.1490;-0.3306;
1193.4000;0.1522;-0.3259;
1193.7000;0.1547;-0.3259;
1194.0000;0.1490;-0.3354;
1194.3000;0.1595;-0.3115;
1194.6000;0.1506;-0.3330;
1194.9000;0.1514;-0.3330;
1195.2000;0.1506;-0.3354;
1195.5000;0.1514;-0.3354;
1195.8000;0.1490;-0.3354;
1196.1000;0.1481;-0.3306;
1196.4000;0.1481;-0.3306;
1196.7000;0.1498;-0.3306;
1197.0000;0.1490;-0.3259;
1197.3000;0.1498;-0.3235;
1197.6000;0.1522;-0.3163;
1197.9000;0.1400;-0.3498;
1198.2000;0.1481;-0.3354;
1198.5000;0.1481;-0.3474;
1198.8000;0.1506;-0.3402;
1199.1000;0.1473;-0.3378;
1199.4000;0.1506;-0.3330;
1199.7000;0.1490;-0.3283;
1200.0000;0.1522;-0.3187;
1200.3000;0.1498;-0.3259;
1200.6000;0.1490;-0.3235;
1200.9000;0.1449;-0.3354;
1201.2000;0.1498;-0.3211;
1201.5000;0.1465;-0.3306;
1201.8000;0.1425;-0.3474;
1202.1000;0.1473;-0.3426;
1202.4000;0.1481;-0.3426;
1202.7000;0.1481;-0.3450;
1203.0000;0.1506;-0.3426;
1203.3000;0.1481;-0.3450;
1203.6000;0.1498;-0.3283;
1203.9000;0.1490;-0.3330;
1204.2000;0.1490;-0.3306;
1204.5000;0.1465;-0.3426;
1204.8000;0.1506;-0.3378;
1205.1000;0.1481;-0.3378;
1205.4000;0.1481;-0.3330;
1205.7000;0.1433;-0.3426;
1206.0000;0.1522;-0.3283;
1206.3000;0.1514;-0.3235;
1206.6000;0.1498;-0.3283;
1206.9000;0.1669;-0.2827;
1207.2000;0.1506;-0.3187;
1207.5000;0.1506;-0.3283;
1207.8000;0.1506;-0.3306;
1208.1000;0.1465;-0.3402;
1208.4000;0.1449;-0.3378;
1208.7000;0.1498;-0.3211;
1209.0000;0.1514;-0.3187;
1209.3000;0.1514;-0.3211;
1209.6000;0.1490;-0.3259;
1209.9000;0.1490;-0.3187;
1210.2000;0.1425;-0.3378;
1210.5000;0.1490;-0.3187;
1210.8000;0.1498;-0.3211;
1211.1000;0.1498;-0.3163;
1211.4000;0.1506;-0.3211;
1211.7000;0.1506;-0.3235;
1212.0000;0.1506;-0.3187;
1212.3000;0.1498;-0.3211;
1212.6000;0.1506;-0.3139;
1212.9000;0.1498;-0.3306;
1213.2000;0.1522;-0.3187;
1213.5000;0.1498;-0.3211;
1213.8000;0.1506;-0.3163;
1214.1000;0.1514;-0.3115;
1214.4000;0.1498;-0.3091;
1214.7000;0.1498;-0.3163;
1215.0000;0.1547;-0.3019;
1215.3000;0.1530;-0.3019;
1215.6000;0.1490;-0.3019;
1215.9000;0.1514;-0.2995;
1216.2000;0.1506;-0.3091;
1216.5000;0.1449;-0.3235;
1216.8000;0.1473;-0.3187;
1217.1000;0.1490;-0.3139;
1217.4000;0.1530;-0.3091;
1217.7000;0.1498;-0.3211;
1218.0000;0.1490;-0.3235;
1218.3000;0.1457;-0.3283;
1218.6000;0.1514;-0.3115;
1218.9000;0.1481;-0.3259;
1219.2000;0.1481;-0.3211;
1219.5000;0.1498;-0.3187;
1219.8000;0.1481;-0.3163;
1220.1000;0.1506;-0.3235;
1220.4000;0.1400;-0.3474;
1220.7000;0.1457;-0.3283;
1221.0000;0.1514;-0.3139;
1221.3000;0.1506;-0.3163;
1221.6000;0.1538;-0.3091;
1221.9000;0.1498;-0.3163;
1222.2000;0.1563;-0.2875;
1222.5000;0.1481;-0.3091;
1222.8000;0.1481;-0.3115;
1223.1000;0.1530;-0.2971;
1223.4000;0.1498;-0.3067;
1223.7000;0.1490;-0.3091;
1224.0000;0.1490;-0.3139;
1224.3000;0.1506;-0.3187;
1224.6000;0.1473;-0.3330;
1224.9000;0.1465;-0.3354;
1225.2000;0.1498;-0.3187;
1225.5000;0.1481;-0.3259;
1225.8000;0.1514;-0.3187;
1226.1000;0.1465;-0.3306;
1226.4000;0.1514;-0.3163;
1226.7000;0.1465;-0.3259;
1227.0000;0.1506;-0.3187;
1227.3000;0.1490;-0.3211;
1227.6000;0.1481;-0.3211;
1227.9000;0.1506;-0.3091;
1228.2000;0.1490;-0.3211;
1228.5000;0.1481;-0.3211;
1228.8000;0.1506;-0.3163;
1229.1000;0.1481;-0.3163;
1229.4000;0.1514;-0.3091;
1229.7000;0.1530;-0.3043;
1230.0000;0.1449;-0.3259;
1230.3000;0.1481;-0.3163;
1230.6000;0.1481;-0.3211;
1230.9000;0.1514;-0.3091;
1231.2000;0.1514;-0.3091;
1231.5000;0.1481;-0.3163;
1231.8000;0.1530;-0.3067;
1232.1000;0.1506;-0.3139;
1232.4000;0.1514;-0.3187;
1232.7000;0.1425;-0.3378;
1233.0000;0.1522;-0.3091;
1233.3000;0.1441;-0.3283;
1233.6000;0.1400;-0.3498;
1233.9000;0.1530;-0.3211;
1234.2000;0.1522;-0.3283;
1234.5000;0.1498;-0.3330;
1234.8000;0.1547;-0.3259;
1235.1000;0.1555;-0.3187;
1235.4000;0.1392;-0.3522;
1235.7000;0.1490;-0.3259;
1236.0000;0.1481;-0.3354;
1236.3000;0.1506;-0.3235;
1236.6000;0.1400;-0.3522;
1236.9000;0.1498;-0.3235;
1237.2000;0.1490;-0.3283;
1237.5000;0.1514;-0.3187;
1237.8000;0.1473;-0.3330;
1238.1000;0.1522;-0.3115;
1238.4000;0.1481;-0.3163;
1238.7000;0.1498;-0.3067;
1239.0000;0.1335;-0.3570;
1239.3000;0.1473;-0.3283;
1239.6000;0.1498;-0.3354;
1239.9000;0.1498;-0.3306;
1240.2000;0.1481;-0.3283;
1240.5000;0.1506;-0.3187;
1240.8000;0.1498;-0.3306;
1241.1000;0.1522;-0.3259;
1241.4000;0.1530;-0.3163;
1241.7000;0.1416;-0.3498;
1242.0000;0.1498;-0.3330;
1242.3000;0.1498;-0.3187;
1242.6000;0.1514;-0.3163;
1242.9000;0.1473;-0.3306;
1243.2000;0.1498;-0.3211;
1243.5000;0.1522;-0.3163;
1243.8000;0.1481;-0.3330;
1244.1000;0.1481;-0.3378;
1244.4000;0.1498;-0.3235;
1244.7000;0.1514;-0.3211;
1245.0000;0.1465;-0.3259;
1245.3000;0.1433;-0.3330;
1245.6000;0.1490;-0.3235;
1245.9000;0.1481;-0.3259;
1246.2000;0.1481;-0.3211;
1246.5000;0.1514;-0.3187;
1246.8000;0.1506;-0.3211;
1247.1000;0.1506;-0.3187;
1247.4000;0.1506;-0.3067;
1247.7000;0.1490;-0.3211;
1248.0000;0.1490;-0.3211;
1248.3000;0.1506;-0.3283;
1248.6000;0.1481;-0.3378;
1248.9000;0.1522;-0.3330;
1249.2000;0.1514;-0.3306;
1249.5000;0.1498;-0.3426;
1249.8000;0.1490;-0.3426;
1250.1000;0.1465;-0.3426;
1250.4000;0.1506;-0.3211;
1250.7000;0.1473;-0.3378;
1251.0000;0.1498;-0.3354;
1251.3000;0.1506;-0.3211;
1251.6000;0.1514;-0.3163;
1251.9000;0.1547;-0.3163;
1252.2000;0.1522;-0.3283;
1252.5000;0.1514;-0.3354;
1252.8000;0.1506;-0.3450;
1253.1000;0.1498;-0.3378;
1253.4000;0.1604;-0.2971;
1253.7000;0.1514;-0.3115;
1254.0000;0.1506;-0.3091;
1254.3000;0.1498;-0.3139;
1254.6000;0.1514;-0.3139;
1254.9000;0.1571;-0.3091;
1255.2000;0.1473;-0.3354;
1255.5000;0.1506;-0.3330;
1255.8000;0.1522;-0.3378;
1256.1000;0.1547;-0.3259;
1256.4000;0.1408;-0.3642;
1256.7000;0.1514;-0.3378;
1257.0000;0.1498;-0.3450;
1257.3000;0.1465;-0.3426;
1257.6000;0.1547;-0.3259;
1257.9000;0.1547;-0.3283;
1258.2000;0.1481;-0.3426;
1258.5000;0.1490;-0.3378;
1258.8000;0.1514;-0.3330;
1259.1000;0.1490;-0.3402;
1259.4000;0.1538;-0.3235;
1259.7000;0.1538;-0.3283;
1260.0000;0.1433;-0.3498;
1260.3000;0.1490;-0.3378;
1260.6000;0.1465;-0.3474;
1260.9000;0.1498;-0.3283;
1261.2000;0.1530;-0.3235;
1261.5000;0.1449;-0.3426;
1261.8000;0.1490;-0.3259;
1262.1000;0.1498;-0.3211;
1262.4000;0.1490;-0.3235;
1262.7000;0.1498;-0.3187;
1263.0000;0.1506;-0.3187;
1263.3000;0.1498;-0.3163;
1263.6000;0.1481;-0.3187;
1263.9000;0.1506;-0.3067;
1264.2000;0.1514;-0.3115;
1264.5000;0.1490;-0.3211;
1264.8000;0.1514;-0.3163;
1265.1000;0.1481;-0.3235;
1265.4000;0.1506;-0.3163;
1265.7000;0.1490;-0.3091;
1266.0000;0.1498;-0.3115;
1266.3000;0.1498;-0.3283;
1266.6000;0.1522;-0.3283;
1266.9000;0.1498;-0.3402;
1267.2000;0.1506;-0.3426;
1267.5000;0.1506;-0.3474;
1267.8000;0.1555;-0.3330;
1268.1000;0.1481;-0.3522;
1268.4000;0.1449;-0.3714;
1268.7000;0.1473;-0.3642;
1269.0000;0.1506;-0.3618;
1269.3000;0.1522;-0.3498;
1269.6000;0.1490;-0.3594;
1269.9000;0.1506;-0.3522;
1270.2000;0.1490;-0.3498;
1270.5000;0.1490;-0.3498;
1270.8000;0.1506;-0.3498;
1271.1000;0.1498;-0.3474;
1271.4000;0.1490;-0.3426;
1271.7000;0.1514;-0.3306;
1272.0000;0.1506;-0.3378;
1272.3000;0.1481;-0.3330;
1272.6000;0.1481;-0.3306;
1272.9000;0.1490;-0.3283;
1273.2000;0.1506;-0.3235;
1273.5000;0.1522;-0.3259;
1273.8000;0.1490;-0.3354;
1274.1000;0.1498;-0.3211;
1274.4000;0.1522;-0.3163;
1274.7000;0.1490;-0.3211;
1275.0000;0.1433;-0.3354;
1275.3000;0.1473;-0.3283;
1275.6000;0.1514;-0.3211;
1275.9000;0.1498;-0.3330;
1276.2000;0.1490;-0.3330;
1276.5000;0.1465;-0.3354;
1276.8000;0.1522;-0.3163;
1277.1000;0.1490;-0.3283;
1277.4000;0.1538;-0.3139;
1277.7000;0.1498;-0.3235;
1278.0000;0.1490;-0.3235;
1278.3000;0.1514;-0.3163;
1278.6000;0.1490;-0.3187;
1278.9000;0.1490;-0.3211;
1279.2000;0.1425;-0.3474;
1279.5000;0.1473;-0.3402;
1279.8000;0.1473;-0.3378;
1280.1000;0.1522;-0.3187;
1280.4000;0.1490;-0.3259;
1280.7000;0.1481;-0.3235;
1281.0000;0.1506;-0.3115;
1281.3000;0.1498;-0.3139;
1281.6000;0.1514;-0.3139;
1281.9000;0.1425;-0.3283;
1282.2000;0.1538;-0.3019;
1282.5000;0.1498;-0.3187;
1282.8000;0.1490;-0.3211;
1283.1000;0.1506;-0.3211;
1283.4000;0.1506;-0.3163;
1283.7000;0.1481;-0.3259;
1284.0000;0.1465;-0.3211;
1284.3000;0.1498;-0.3163;
1284.6000;0.1506;-0.3163;
1284.9000;0.1481;-0.3235;
1285.2000;0.1490;-0.3283;
1285.5000;0.1490;-0.3426;
1285.8000;0.1490;-0.3474;
1286.1000;0.1547;-0.3283;
1286.4000;0.1506;-0.3402;
1286.7000;0.1506;-0.3426;
1287.0000;0.1498;-0.3498;
1287.3000;0.1522;-0.3402;
1287.6000;0.1506;-0.3402;
1287.9000;0.1490;-0.3450;
1288.2000;0.1481;-0.3426;
1288.5000;0.1490;-0.3402;
1288.8000;0.1506;-0.3426;
1289.1000;0.1506;-0.3378;
1289.4000;0.1473;-0.3402;
1289.7000;0.1506;-0.3426;
1290.0000;0.1506;-0.3402;
1290.3000;0.1490;-0.3498;
1290.6000;0.1538;-0.3354;
1290.9000;0.1498;-0.3426;
1291.2000;0.1514;-0.3402;
1291.5000;0.1498;-0.3402;
1291.8000;0.1514;-0.3283;
1292.1000;0.1433;-0.3498;
1292.4000;0.1490;-0.3330;
1292.7000;0.1506;-0.3306;
1293.0000;0.1465;-0.3450;
1293.3000;0.1506;-0.3330;
1293.6000;0.1490;-0.3378;
1293.9000;0.1481;-0.3306;
1294.2000;0.1490;-0.3354;
1294.5000;0.1490;-0.3378;
1294.8000;0.1473;-0.3402;
1295.1000;0.1506;-0.3354;
1295.4000;0.1514;-0.3354;
1295.7000;0.1498;-0.3450;
1296.0000;0.1498;-0.3474;
1296.3000;0.1506;-0.3354;
1296.6000;0.1481;-0.3378;
1296.9000;0.1473;-0.3402;
1297.2000;0.1498;-0.3306;
1297.5000;0.1498;-0.3402;
1297.8000;0.1481;-0.3330;
1298.1000;0.1465;-0.3426;
1298.4000;0.1506;-0.3378;
1298.7000;0.1506;-0.3306;
1299.0000;0.1498;-0.3378;
1299.3000;0.1506;-0.3235;
1299.6000;0.1481;-0.3283;
1299.9000;0.1481;-0.3259;
1300.2000;0.1506;-0.3211;
1300.5000;0.1514;-0.3211;
1300.8000;0.1490;-0.3306;
1301.1000;0.1490;-0.3330;
1301.4000;0.1400;-0.3618;
1301.7000;0.1490;-0.3426;
1302.0000;0.1490;-0.3330;
1302.3000;0.1481;-0.3306;
1302.6000;0.1506;-0.3283;
1302.9000;0.1490;-0.3402;
1303.2000;0.1498;-0.3330;
1303.5000;0.1481;-0.3426;
1303.8000;0.1481;-0.3546;
1304.1000;0.1506;-0.3498;
1304.4000;0.1506;-0.3402;
1304.7000;0.1490;-0.3354;
1305.0000;0.1481;-0.3426;
1305.3000;0.1457;-0.3546;
1305.6000;0.1498;-0.3378;
1305.9000;0.1490;-0.3426;
1306.2000;0.1481;-0.3426;
1306.5000;0.1506;-0.3259;
1306.8000;0.1506;-0.3306;
1307.1000;0.1506;-0.3306;
1307.4000;0.1522;-0.3235;
1307.7000;0.1563;-0.3163;
1308.0000;0.1506;-0.3330;
1308.3000;0.1506;-0.3426;
1308.6000;0.1359;-0.3882;
1308.9000;0.1498;-0.3450;
1309.2000;0.1498;-0.3426;
1309.5000;0.1612;-0.3163;
1309.8000;0.1481;-0.3498;
1310.1000;0.1481;-0.3642;
1310.4000;0.1506;-0.3618;
1310.7000;0.1506;-0.3618;
1311.0000;0.1530;-0.3546;
1311.3000;0.1473;-0.3714;
1311.6000;0.1498;-0.3618;
1311.9000;0.1506;-0.3546;
1312.2000;0.1514;-0.3474;
1312.5000;0.1498;-0.3546;
1312.8000;0.1498;-0.3522;
1313.1000;0.1498;-0.3474;
1313.4000;0.1490;-0.3426;
1313.7000;0.1441;-0.3522;
1314.0000;0.1490;-0.3474;
1314.3000;0.1490;-0.3426;
1314.6000;0.1514;-0.3330;
1314.9000;0.1481;-0.3474;
1315.2000;0.1514;-0.3402;
1315.5000;0.1481;-0.3474;
1315.8000;0.1522;-0.3402;
1316.1000;0.1514;-0.3426;
1316.4000;0.1514;-0.3402;
1316.7000;0.1490;-0.3450;
1317.0000;0.1490;-0.3426;
1317.3000;0.1498;-0.3426;
1317.6000;0.1514;-0.3378;
1317.9000;0.1490;-0.3450;
1318.2000;0.1498;-0.3402;
1318.5000;0.1490;-0.3354;
1318.8000;0.1506;-0.3354;
1319.1000;0.1441;-0.3498;
1319.4000;0.1506;-0.3402;
1319.7000;0.1490;-0.3426;
1320.0000;0.1514;-0.3283;
1320.3000;0.1498;-0.3235;
1320.6000;0.1473;-0.3211;
1320.9000;0.1522;-0.3139;
1321.2000;0.1498;-0.3211;
1321.5000;0.1490;-0.3283;
1321.8000;0.1514;-0.3235;
1322.1000;0.1506;-0.3306;
1322.4000;0.1498;-0.3330;
1322.7000;0.1490;-0.3306;
1323.0000;0.1498;-0.3283;
1323.3000;0.1498;-0.3235;
1323.6000;0.1490;-0.3378;
1323.9000;0.1498;-0.3402;
1324.2000;0.1530;-0.3306;
1324.5000;0.1514;-0.3426;
1324.8000;0.1481;-0.3426;
1325.1000;0.1449;-0.3546;
1325.4000;0.1506;-0.3474;
1325.7000;0.1506;-0.3498;
1326.0000;0.1506;-0.3498;
1326.3000;0.1481;-0.3498;
1326.6000;0.1563;-0.3187;
1326.9000;0.1506;-0.3283;
1327.2000;0.1506;-0.3259;
1327.5000;0.1490;-0.3283;
1327.8000;0.1514;-0.3283;
1328.1000;0.1481;-0.3498;
1328.4000;0.1498;-0.3498;
1328.7000;0.1498;-0.3450;
1329.0000;0.1506;-0.3306;
1329.3000;0.1506;-0.3306;
1329.6000;0.1498;-0.3354;
1329.9000;0.1498;-0.3259;
1330.2000;0.1514;-0.3235;
1330.5000;0.1587;-0.3091;
1330.8000;0.1498;-0.3354;
1331.1000;0.1457;-0.3474;
1331.4000;0.1490;-0.3378;
1331.7000;0.1506;-0.3330;
1332.0000;0.1408;-0.3642;
1332.3000;0.1498;-0.3426;
1332.6000;0.1530;-0.3283;
1332.9000;0.1514;-0.3402;
1333.2000;0.1376;-0.3810;
1333.5000;0.1490;-0.3402;
1333.8000;0.1465;-0.3474;
1334.1000;0.1644;-0.2971;
1334.4000;0.1498;-0.3402;
1334.7000;0.1538;-0.3306;
1335.0000;0.1571;-0.3211;
1335.3000;0.1473;-0.3450;
1335.6000;0.1498;-0.3354;
1335.9000;0.1481;-0.3402;
1336.2000;0.1490;-0.3259;
1336.5000;0.1481;-0.3306;
1336.8000;0.1481;-0.3283;
1337.1000;0.1490;-0.3283;
1337.4000;0.1498;-0.3378;
1337.7000;0.1522;-0.3354;
1338.0000;0.1408;-0.3570;
1338.3000;0.1498;-0.3283;
1338.6000;0.1506;-0.3259;
1338.9000;0.1498;-0.3235;
1339.2000;0.1498;-0.3187;
1339.5000;0.1490;-0.3354;
1339.8000;0.1506;-0.3283;
1340.1000;0.1506;-0.3235;
1340.4000;0.1490;-0.3235;
1340.7000;0.1506;-0.3283;
1341.0000;0.1481;-0.3378;
1341.3000;0.1530;-0.3283;
1341.6000;0.1473;-0.3402;
1341.9000;0.1514;-0.3259;
1342.2000;0.1490;-0.3354;
1342.5000;0.1498;-0.3211;
1342.8000;0.1481;-0.3187;
1343.1000;0.1481;-0.3259;
1343.4000;0.1498;-0.3306;
1343.7000;0.1498;-0.3283;
1344.0000;0.1490;-0.3235;
1344.3000;0.1498;-0.3163;
1344.6000;0.1490;-0.3235;
1344.9000;0.1490;-0.3283;
1345.2000;0.1465;-0.3306;
1345.5000;0.1498;-0.3187;
1345.8000;0.1490;-0.3235;
1346.1000;0.1490;-0.3235;
1346.4000;0.1481;-0.3306;
1346.7000;0.1473;-0.3426;
1347.0000;0.1490;-0.3426;
1347.3000;0.1473;-0.3498;
1347.6000;0.1490;-0.3498;
1347.9000;0.1473;-0.3474;
1348.2000;0.1490;-0.3426;
1348.5000;0.1506;-0.3450;
1348.8000;0.1506;-0.3498;
1349.1000;0.1400;-0.3738;
1349.4000;0.1530;-0.3259;
1349.7000;0.1579;-0.3187;
1350.0000;0.1506;-0.3330;
1350.3000;0.1506;-0.3330;
1350.6000;0.1433;-0.3522;
1350.9000;0.1498;-0.3426;
1351.2000;0.1449;-0.3546;
1351.5000;0.1408;-0.3714;
1351.8000;0.1457;-0.3594;
1352.1000;0.1498;-0.3522;
1352.4000;0.1481;-0.3498;
1352.7000;0.1473;-0.3474;
1353.0000;0.1498;-0.3474;
1353.3000;0.1498;-0.3474;
1353.6000;0.1441;-0.3546;
1353.9000;0.1473;-0.3426;
1354.2000;0.1514;-0.3378;
1354.5000;0.1449;-0.3378;
1354.8000;0.1498;-0.3306;
1355.1000;0.1498;-0.3259;
1355.4000;0.1498;-0.3283;
1355.7000;0.1530;-0.3187;
1356.0000;0.1612;-0.3043;
1356.3000;0.1506;-0.3330;
1356.6000;0.1457;-0.3402;
1356.9000;0.1473;-0.3306;
1357.2000;0.1490;-0.3235;
1357.5000;0.1506;-0.3259;
1357.8000;0.1506;-0.3163;
1358.1000;0.1490;-0.3163;
1358.4000;0.1481;-0.3211;
1358.7000;0.1473;-0.3187;
1359.0000;0.1506;-0.3187;
1359.3000;0.1498;-0.3163;
1359.6000;0.1498;-0.3211;
1359.9000;0.1506;-0.3211;
1360.2000;0.1506;-0.3259;
1360.5000;0.1506;-0.3259;
1360.8000;0.1530;-0.3259;
1361.1000;0.1506;-0.3211;
1361.4000;0.1498;-0.3283;
1361.7000;0.1473;-0.3235;
1362.0000;0.1506;-0.3187;
1362.3000;0.1465;-0.3306;
1362.6000;0.1498;-0.3283;
1362.9000;0.1481;-0.3378;
1363.2000;0.1490;-0.3378;
1363.5000;0.1490;-0.3354;
1363.8000;0.1498;-0.3378;
1364.1000;0.1473;-0.3259;
1364.4000;0.1481;-0.3235;
1364.7000;0.1449;-0.3330;
1365.0000;0.1490;-0.3211;
1365.3000;0.1506;-0.3235;
1365.6000;0.1481;-0.3402;
1365.9000;0.1498;-0.3306;
1366.2000;0.1506;-0.3235;
1366.5000;0.1481;-0.3354;
1366.8000;0.1490;-0.3354;
1367.1000;0.1481;-0.3330;
1367.4000;0.1490;-0.3378;
1367.7000;0.1481;-0.3354;
1368.0000;0.1465;-0.3450;
1368.3000;0.1490;-0.3354;
1368.6000;0.1441;-0.3426;
1368.9000;0.1538;-0.3139;
1369.2000;0.1547;-0.3163;
1369.5000;0.1498;-0.3306;
1369.8000;0.1514;-0.3306;
1370.1000;0.1498;-0.3330;
1370.4000;0.1498;-0.3235;
1370.7000;0.1498;-0.3259;
1371.0000;0.1490;-0.3211;
1371.3000;0.1416;-0.3426;
1371.6000;0.1498;-0.3283;
1371.9000;0.1457;-0.3426;
1372.2000;0.1587;-0.3043;
1372.5000;0.1506;-0.3283;
1372.8000;0.1522;-0.3283;
1373.1000;0.1473;-0.3426;
1373.4000;0.1571;-0.3163;
1373.7000;0.1498;-0.3306;
1374.0000;0.1498;-0.3306;
1374.3000;0.1481;-0.3235;
1374.6000;0.1481;-0.3187;
1374.9000;0.1457;-0.3306;
1375.2000;0.1604;-0.2971;
1375.5000;0.1392;-0.3498;
1375.8000;0.1490;-0.3235;
1376.1000;0.1498;-0.3235;
1376.4000;0.1498;-0.3259;
1376.7000;0.1473;-0.3402;
1377.0000;0.1441;-0.3570;
1377.3000;0.1473;-0.3330;
1377.6000;0.1538;-0.3259;
1377.9000;0.1490;-0.3283;
1378.2000;0.1425;-0.3378;
1378.5000;0.1571;-0.2971;
1378.8000;0.1547;-0.3091;
1379.1000;0.1506;-0.3211;
1379.4000;0.1514;-0.3187;
1379.7000;0.1506;-0.3139;
1380.0000;0.1498;-0.3091;
1380.3000;0.1506;-0.3115;
1380.6000;0.1490;-0.3163;
1380.9000;0.1490;-0.3187;
1381.2000;0.1490;-0.3115;
1381.5000;0.1514;-0.3115;
1381.8000;0.1514;-0.3091;
1382.1000;0.1473;-0.3235;
1382.4000;0.1490;-0.3187;
1382.7000;0.1481;-0.3378;
1383.0000;0.1490;-0.3330;
1383.3000;0.1481;-0.3306;
1383.6000;0.1506;-0.3259;
1383.9000;0.1490;-0.3306;
1384.2000;0.1498;-0.3259;
1384.5000;0.1490;-0.3330;
1384.8000;0.1490;-0.3235;
1385.1000;0.1490;-0.3211;
1385.4000;0.1490;-0.3163;
1385.7000;0.1481;-0.3163;
1386.0000;0.1481;-0.3163;
1386.3000;0.1481;-0.3211;
1386.6000;0.1506;-0.3235;
1386.9000;0.1506;-0.3306;
1387.2000;0.1506;-0.3450;
1387.5000;0.1506;-0.3402;
1387.8000;0.1514;-0.3330;
1388.1000;0.1490;-0.3378;
1388.4000;0.1490;-0.3474;
1388.7000;0.1481;-0.3474;
1389.0000;0.1490;-0.3450;
1389.3000;0.1425;-0.3618;
1389.6000;0.1490;-0.3522;
1389.9000;0.1490;-0.3522;
1390.2000;0.1498;-0.3474;
1390.5000;0.1481;-0.3498;
1390.8000;0.1473;-0.3522;
1391.1000;0.1498;-0.3570;
1391.4000;0.1441;-0.3666;
1391.7000;0.1473;-0.3642;
1392.0000;0.1506;-0.3594;
1392.3000;0.1449;-0.3762;
1392.6000;0.1506;-0.3498;
1392.9000;0.1514;-0.3474;
1393.2000;0.1481;-0.3570;
1393.5000;0.1490;-0.3594;
1393.8000;0.1490;-0.3594;
1394.1000;0.1506;-0.3594;
1394.4000;0.1498;-0.3522;
1394.7000;0.1498;-0.3426;
1395.0000;0.1473;-0.3498;
1395.3000;0.1530;-0.3402;
1395.6000;0.1506;-0.3426;
1395.9000;0.1481;-0.3498;
1396.2000;0.1473;-0.3570;
1396.5000;0.1481;-0.3546;
1396.8000;0.1473;-0.3546;
1397.1000;0.1498;-0.3594;
1397.4000;0.1563;-0.3426;
1397.7000;0.1498;-0.3594;
1398.0000;0.1498;-0.3474;
1398.3000;0.1498;-0.3450;
1398.6000;0.1490;-0.3498;
1398.9000;0.1473;-0.3570;
1399.2000;0.1473;-0.3570;
1399.5000;0.1376;-0.3834;
1399.8000;0.1465;-0.3570;
