time/ms;Fluo/V;P700 deltaI/I x10³;
-199.8000;1.0191;1.2923;
-199.5000;1.0191;1.2923;
-199.2000;1.0208;1.2947;
-198.9000;1.0199;1.2996;
-198.6000;1.0199;1.2996;
-198.3000;1.0199;1.3068;
-198.0000;1.0199;1.3068;
-197.7000;1.0232;1.3214;
-197.4000;1.0191;1.3068;
-197.1000;1.0208;1.3044;
-196.8000;1.0208;1.3044;
-196.5000;1.0191;1.2996;
-196.2000;1.0191;1.3020;
-195.9000;1.0175;1.3020;
-195.6000;1.0199;1.3093;
-195.3000;1.0191;1.3020;
-195.0000;1.0191;1.2971;
-194.7000;1.0199;1.2923;
-194.4000;1.0191;1.2971;
-194.1000;1.0208;1.3068;
-193.8000;1.0191;1.3044;
-193.5000;1.0183;1.2996;
-193.2000;1.0183;1.2923;
-192.9000;1.0183;1.2971;
-192.6000;1.0175;1.2971;
-192.3000;1.0224;1.2947;
-192.0000;1.0183;1.2802;
-191.7000;1.0208;1.2874;
-191.4000;1.0208;1.2899;
-191.1000;1.0183;1.2850;
-190.8000;1.0199;1.2899;
-190.5000;1.0208;1.2874;
-190.2000;1.0208;1.2899;
-189.9000;1.0167;1.2826;
-189.6000;1.0183;1.2971;
-189.3000;1.0208;1.2947;
-189.0000;1.0216;1.2923;
-188.7000;1.0232;1.2947;
-188.4000;1.0199;1.2874;
-188.1000;1.0216;1.2874;
-187.8000;1.0208;1.2826;
-187.5000;1.0159;1.2753;
-187.2000;1.0208;1.2850;
-186.9000;1.0208;1.2850;
-186.6000;1.0134;1.2705;
-186.3000;1.0183;1.2850;
-186.0000;1.0191;1.2874;
-185.7000;1.0191;1.2850;
-185.4000;1.0191;1.2947;
-185.1000;1.0240;1.2947;
-184.8000;1.0175;1.2923;
-184.5000;1.0191;1.2996;
-184.2000;1.0216;1.2947;
-183.9000;1.0191;1.2899;
-183.6000;1.0199;1.2923;
-183.3000;1.0191;1.2947;
-183.0000;1.0199;1.3020;
-182.7000;1.0199;1.2996;
-182.4000;1.0199;1.3068;
-182.1000;1.0216;1.2971;
-181.8000;1.0216;1.2923;
-181.5000;1.0191;1.2753;
-181.2000;1.0199;1.2729;
-180.9000;1.0208;1.2753;
-180.6000;1.0191;1.2777;
-180.3000;1.0191;1.2753;
-180.0000;1.0175;1.2753;
-179.7000;1.0191;1.2826;
-179.4000;1.0175;1.2826;
-179.1000;1.0199;1.2874;
-178.8000;1.0208;1.2971;
-178.5000;1.0199;1.2996;
-178.2000;1.0232;1.3044;
-177.9000;1.0224;1.3020;
-177.6000;1.0265;1.3068;
-177.3000;1.0191;1.2923;
-177.0000;1.0256;1.3141;
-176.7000;1.0175;1.2899;
-176.4000;1.0208;1.2947;
-176.1000;1.0199;1.2923;
-175.8000;1.0191;1.2850;
-175.5000;1.0191;1.2826;
-175.2000;1.0199;1.2923;
-174.9000;1.0224;1.2971;
-174.6000;1.0191;1.2802;
-174.3000;1.0199;1.2753;
-174.0000;1.0208;1.2874;
-173.7000;1.0224;1.2947;
-173.4000;1.0199;1.2874;
-173.1000;1.0199;1.3020;
-172.8000;1.0199;1.3068;
-172.5000;1.0224;1.3068;
-172.2000;1.0191;1.3044;
-171.9000;1.0175;1.3020;
-171.6000;1.0199;1.2996;
-171.3000;1.0199;1.3044;
-171.0000;1.0199;1.3044;
-170.7000;1.0191;1.3020;
-170.4000;1.0191;1.2947;
-170.1000;1.0142;1.2850;
-169.8000;1.0199;1.2996;
-169.5000;1.0183;1.3020;
-169.2000;1.0175;1.3020;
-168.9000;1.0183;1.3020;
-168.6000;1.0183;1.2996;
-168.3000;1.0199;1.2850;
-168.0000;1.0183;1.2826;
-167.7000;1.0208;1.2899;
-167.4000;1.0191;1.2923;
-167.1000;1.0183;1.3020;
-166.8000;1.0183;1.3068;
-166.5000;1.0183;1.3044;
-166.2000;1.0256;1.3238;
-165.9000;1.0208;1.3117;
-165.6000;1.0183;1.3068;
-165.3000;1.0183;1.2996;
-165.0000;1.0208;1.3020;
-164.7000;1.0183;1.2947;
-164.4000;1.0199;1.2947;
-164.1000;1.0183;1.2923;
-163.8000;1.0191;1.2971;
-163.5000;1.0199;1.3044;
-163.2000;1.0199;1.2971;
-162.9000;1.0216;1.2971;
-162.6000;1.0216;1.3020;
-162.3000;1.0216;1.2947;
-162.0000;1.0199;1.2899;
-161.7000;1.0199;1.2874;
-161.4000;1.0183;1.2777;
-161.1000;1.0199;1.2680;
-160.8000;1.0191;1.2656;
-160.5000;1.0216;1.2705;
-160.2000;1.0199;1.2753;
-159.9000;1.0191;1.2777;
-159.6000;1.0208;1.2826;
-159.3000;1.0208;1.2802;
-159.0000;1.0126;1.2608;
-158.7000;1.0199;1.2826;
-158.4000;1.0199;1.2826;
-158.1000;1.0199;1.2777;
-157.8000;1.0199;1.2802;
-157.5000;1.0191;1.2729;
-157.2000;1.0208;1.2777;
-156.9000;1.0208;1.2680;
-156.6000;1.0208;1.2753;
-156.3000;1.0199;1.2777;
-156.0000;1.0208;1.2729;
-155.7000;1.0216;1.2656;
-155.4000;1.0216;1.2632;
-155.1000;1.0191;1.2608;
-154.8000;1.0208;1.2583;
-154.5000;1.0167;1.2583;
-154.2000;1.0191;1.2705;
-153.9000;1.0208;1.2705;
-153.6000;1.0199;1.2826;
-153.3000;1.0199;1.2874;
-153.0000;1.0199;1.2923;
-152.7000;1.0232;1.3020;
-152.4000;1.0191;1.2899;
-152.1000;1.0216;1.2996;
-151.8000;1.0208;1.2947;
-151.5000;1.0199;1.2947;
-151.2000;1.0216;1.2971;
-150.9000;1.0199;1.2923;
-150.6000;1.0159;1.2802;
-150.3000;1.0199;1.2874;
-150.0000;1.0208;1.3020;
-149.7000;1.0199;1.3044;
-149.4000;1.0199;1.2947;
-149.1000;1.0199;1.2971;
-148.8000;1.0183;1.2923;
-148.5000;1.0191;1.3020;
-148.2000;1.0216;1.2996;
-147.9000;1.0199;1.2971;
-147.6000;1.0167;1.2899;
-147.3000;1.0199;1.2947;
-147.0000;1.0167;1.2826;
-146.7000;1.0191;1.2777;
-146.4000;1.0191;1.2777;
-146.1000;1.0167;1.2583;
-145.8000;1.0216;1.2680;
-145.5000;1.0199;1.2680;
-145.2000;1.0208;1.2753;
-144.9000;1.0256;1.2874;
-144.6000;1.0110;1.2511;
-144.3000;1.0208;1.2705;
-144.0000;1.0183;1.2729;
-143.7000;1.0191;1.2777;
-143.4000;1.0191;1.2753;
-143.1000;1.0216;1.2705;
-142.8000;1.0216;1.2632;
-142.5000;1.0191;1.2583;
-142.2000;1.0199;1.2705;
-141.9000;1.0199;1.2680;
-141.6000;1.0216;1.2729;
-141.3000;1.0175;1.2705;
-141.0000;1.0191;1.2705;
-140.7000;1.0183;1.2680;
-140.4000;1.0183;1.2632;
-140.1000;1.0175;1.2511;
-139.8000;1.0183;1.2511;
-139.5000;1.0183;1.2535;
-139.2000;1.0199;1.2656;
-138.9000;1.0199;1.2559;
-138.6000;1.0183;1.2656;
-138.3000;1.0240;1.2777;
-138.0000;1.0208;1.2680;
-137.7000;1.0199;1.2656;
-137.4000;1.0191;1.2656;
-137.1000;1.0183;1.2559;
-136.8000;1.0208;1.2559;
-136.5000;1.0208;1.2608;
-136.2000;1.0216;1.2826;
-135.9000;1.0191;1.2802;
-135.6000;1.0216;1.2753;
-135.3000;1.0248;1.2850;
-135.0000;1.0208;1.2729;
-134.7000;1.0208;1.2680;
-134.4000;1.0183;1.2608;
-134.1000;1.0199;1.2656;
-133.8000;1.0199;1.2656;
-133.5000;1.0159;1.2656;
-133.2000;1.0199;1.2826;
-132.9000;1.0191;1.2802;
-132.6000;1.0142;1.2632;
-132.3000;1.0208;1.2826;
-132.0000;1.0199;1.2680;
-131.7000;1.0151;1.2535;
-131.4000;1.0199;1.2705;
-131.1000;1.0224;1.2656;
-130.8000;1.0199;1.2535;
-130.5000;1.0183;1.2486;
-130.2000;1.0208;1.2608;
-129.9000;1.0183;1.2583;
-129.6000;1.0199;1.2729;
-129.3000;1.0199;1.2850;
-129.0000;1.0191;1.2850;
-128.7000;1.0183;1.2802;
-128.4000;1.0191;1.2753;
-128.1000;1.0175;1.2753;
-127.8000;1.0199;1.2874;
-127.5000;1.0199;1.2802;
-127.2000;1.0175;1.2680;
-126.9000;1.0191;1.2656;
-126.6000;1.0167;1.2632;
-126.3000;1.0191;1.2680;
-126.0000;1.0208;1.2705;
-125.7000;1.0191;1.2777;
-125.4000;1.0183;1.2802;
-125.1000;1.0199;1.2802;
-124.8000;1.0175;1.2777;
-124.5000;1.0208;1.2923;
-124.2000;1.0199;1.2923;
-123.9000;1.0224;1.3020;
-123.6000;1.0199;1.2899;
-123.3000;1.0167;1.2802;
-123.0000;1.0191;1.2874;
-122.7000;1.0216;1.2899;
-122.4000;1.0191;1.2826;
-122.1000;1.0191;1.2777;
-121.8000;1.0265;1.2923;
-121.5000;1.0216;1.2826;
-121.2000;1.0208;1.2874;
-120.9000;1.0216;1.2874;
-120.6000;1.0183;1.2826;
-120.3000;1.0199;1.2874;
-120.0000;1.0208;1.2874;
-119.7000;1.0199;1.2850;
-119.4000;1.0199;1.2947;
-119.1000;1.0216;1.2923;
-118.8000;1.0208;1.2850;
-118.5000;1.0208;1.2850;
-118.2000;1.0191;1.2899;
-117.9000;1.0199;1.3020;
-117.6000;1.0199;1.2947;
-117.3000;1.0199;1.2899;
-117.0000;1.0199;1.2826;
-116.7000;1.0199;1.2802;
-116.4000;1.0216;1.2680;
-116.1000;1.0191;1.2680;
-115.8000;1.0175;1.2680;
-115.5000;1.0183;1.2632;
-115.2000;1.0191;1.2656;
-114.9000;1.0232;1.2777;
-114.6000;1.0216;1.2656;
-114.3000;1.0183;1.2608;
-114.0000;1.0199;1.2680;
-113.7000;1.0183;1.2680;
-113.4000;1.0183;1.2632;
-113.1000;1.0224;1.2777;
-112.8000;1.0191;1.2656;
-112.5000;1.0199;1.2777;
-112.2000;1.0199;1.2802;
-111.9000;1.0191;1.2777;
-111.6000;1.0191;1.2753;
-111.3000;1.0151;1.2656;
-111.0000;1.0199;1.2680;
-110.7000;1.0199;1.2632;
-110.4000;1.0191;1.2608;
-110.1000;1.0175;1.2608;
-109.8000;1.0208;1.2753;
-109.5000;1.0199;1.2729;
-109.2000;1.0191;1.2753;
-108.9000;1.0199;1.2777;
-108.6000;1.0191;1.2753;
-108.3000;1.0183;1.2826;
-108.0000;1.0191;1.2777;
-107.7000;1.0191;1.2826;
-107.4000;1.0199;1.2850;
-107.1000;1.0208;1.2802;
-106.8000;1.0191;1.2777;
-106.5000;1.0175;1.2656;
-106.2000;1.0183;1.2753;
-105.9000;1.0191;1.2826;
-105.6000;1.0232;1.2826;
-105.3000;1.0183;1.2608;
-105.0000;1.0191;1.2632;
-104.7000;1.0216;1.2777;
-104.4000;1.0191;1.2802;
-104.1000;1.0191;1.2850;
-103.8000;1.0199;1.2947;
-103.5000;1.0208;1.2947;
-103.2000;1.0208;1.2923;
-102.9000;1.0183;1.2874;
-102.6000;1.0151;1.2802;
-102.3000;1.0208;1.2947;
-102.0000;1.0208;1.2971;
-101.7000;1.0248;1.2971;
-101.4000;1.0191;1.2826;
-101.1000;1.0191;1.2802;
-100.8000;1.0216;1.2826;
-100.5000;1.0208;1.2923;
-100.2000;1.0208;1.2971;
-99.9000;1.0208;1.2996;
-99.6000;1.0216;1.2947;
-99.3000;1.0199;1.2850;
-99.0000;1.0175;1.2802;
-98.7000;1.0191;1.2802;
-98.4000;1.0208;1.2777;
-98.1000;1.0273;1.2947;
-97.8000;1.0248;1.2923;
-97.5000;1.0199;1.2802;
-97.2000;1.0208;1.2874;
-96.9000;1.0199;1.2874;
-96.6000;1.0199;1.2899;
-96.3000;1.0199;1.2899;
-96.0000;1.0208;1.2874;
-95.7000;1.0216;1.2874;
-95.4000;1.0216;1.2826;
-95.1000;1.0191;1.2753;
-94.8000;1.0199;1.2802;
-94.5000;1.0232;1.2802;
-94.2000;1.0208;1.2656;
-93.9000;1.0216;1.2656;
-93.6000;1.0208;1.2608;
-93.3000;1.0208;1.2583;
-93.0000;1.0191;1.2535;
-92.7000;1.0183;1.2559;
-92.4000;1.0183;1.2583;
-92.1000;1.0216;1.2729;
-91.8000;1.0191;1.2680;
-91.5000;1.0191;1.2729;
-91.2000;1.0191;1.2753;
-90.9000;1.0191;1.2777;
-90.6000;1.0216;1.2899;
-90.3000;1.0208;1.2899;
-90.0000;1.0199;1.2947;
-89.7000;1.0183;1.2874;
-89.4000;1.0183;1.2826;
-89.1000;1.0191;1.2680;
-88.8000;1.0191;1.2632;
-88.5000;1.0208;1.2705;
-88.2000;1.0208;1.2705;
-87.9000;1.0191;1.2753;
-87.6000;1.0175;1.2777;
-87.3000;1.0167;1.2608;
-87.0000;1.0199;1.2705;
-86.7000;1.0208;1.2656;
-86.4000;1.0208;1.2656;
-86.1000;1.0199;1.2632;
-85.8000;1.0126;1.2486;
-85.5000;1.0191;1.2583;
-85.2000;1.0208;1.2608;
-84.9000;1.0199;1.2486;
-84.6000;1.0208;1.2511;
-84.3000;1.0232;1.2583;
-84.0000;1.0216;1.2486;
-83.7000;1.0159;1.2389;
-83.4000;1.0232;1.2583;
-83.1000;1.0183;1.2438;
-82.8000;1.0191;1.2486;
-82.5000;1.0175;1.2486;
-82.2000;1.0175;1.2559;
-81.9000;1.0167;1.2632;
-81.6000;1.0167;1.2632;
-81.3000;1.0191;1.2632;
-81.0000;1.0199;1.2850;
-80.7000;1.0175;1.2826;
-80.4000;1.0191;1.2971;
-80.1000;1.0191;1.2899;
-79.8000;1.0199;1.2899;
-79.5000;1.0191;1.2947;
-79.2000;1.0191;1.2923;
-78.9000;1.0183;1.2850;
-78.6000;1.0191;1.2850;
-78.3000;1.0199;1.2850;
-78.0000;1.0159;1.2777;
-77.7000;1.0191;1.2826;
-77.4000;1.0191;1.2753;
-77.1000;1.0208;1.2802;
-76.8000;1.0199;1.2729;
-76.5000;1.0199;1.2777;
-76.2000;1.0199;1.2705;
-75.9000;1.0191;1.2705;
-75.6000;1.0191;1.2729;
-75.3000;1.0216;1.2850;
-75.0000;1.0199;1.2923;
-74.7000;1.0208;1.2899;
-74.4000;1.0199;1.2802;
-74.1000;1.0191;1.2729;
-73.8000;1.0191;1.2680;
-73.5000;1.0191;1.2608;
-73.2000;1.0208;1.2632;
-72.9000;1.0175;1.2632;
-72.6000;1.0191;1.2705;
-72.3000;1.0199;1.2680;
-72.0000;1.0199;1.2632;
-71.7000;1.0199;1.2729;
-71.4000;1.0183;1.2826;
-71.1000;1.0183;1.2826;
-70.8000;1.0199;1.2850;
-70.5000;1.0199;1.2899;
-70.2000;1.0191;1.2899;
-69.9000;1.0199;1.2802;
-69.6000;1.0191;1.2777;
-69.3000;1.0208;1.2874;
-69.0000;1.0224;1.2947;
-68.7000;1.0208;1.2850;
-68.4000;1.0191;1.2753;
-68.1000;1.0208;1.2680;
-67.8000;1.0199;1.2608;
-67.5000;1.0183;1.2559;
-67.2000;1.0183;1.2559;
-66.9000;1.0191;1.2632;
-66.6000;1.0191;1.2656;
-66.3000;1.0248;1.2705;
-66.0000;1.0183;1.2656;
-65.7000;1.0183;1.2632;
-65.4000;1.0175;1.2753;
-65.1000;1.0216;1.2705;
-64.8000;1.0208;1.2680;
-64.5000;1.0191;1.2632;
-64.2000;1.0183;1.2729;
-63.9000;1.0224;1.2826;
-63.6000;1.0159;1.2705;
-63.3000;1.0183;1.2753;
-63.0000;1.0191;1.2680;
-62.7000;1.0191;1.2802;
-62.4000;1.0191;1.2777;
-62.1000;1.0183;1.2777;
-61.8000;1.0191;1.2753;
-61.5000;1.0191;1.2802;
-61.2000;1.0191;1.2826;
-60.9000;1.0208;1.2802;
-60.6000;1.0183;1.2826;
-60.3000;1.0208;1.2923;
-60.0000;1.0289;1.3165;
-59.7000;1.0191;1.2971;
-59.4000;1.0191;1.2947;
-59.1000;1.0191;1.3044;
-58.8000;1.0199;1.3020;
-58.5000;1.0183;1.2874;
-58.2000;1.0199;1.2947;
-57.9000;1.0183;1.2826;
-57.6000;1.0175;1.2826;
-57.3000;1.0183;1.2802;
-57.0000;1.0183;1.2826;
-56.7000;1.0191;1.2850;
-56.4000;1.0183;1.2826;
-56.1000;1.0183;1.2850;
-55.8000;1.0126;1.2729;
-55.5000;1.0183;1.2874;
-55.2000;1.0216;1.2874;
-54.9000;1.0191;1.2899;
-54.6000;1.0199;1.2874;
-54.3000;1.0191;1.2899;
-54.0000;1.0224;1.3044;
-53.7000;1.0208;1.2996;
-53.4000;1.0134;1.2850;
-53.1000;1.0183;1.2874;
-52.8000;1.0216;1.2923;
-52.5000;1.0199;1.2826;
-52.2000;1.0191;1.2753;
-51.9000;1.0191;1.2729;
-51.6000;1.0183;1.2753;
-51.3000;1.0199;1.2777;
-51.0000;1.0199;1.2826;
-50.7000;1.0208;1.2802;
-50.4000;1.0208;1.2826;
-50.1000;1.0216;1.2850;
-49.8000;1.0199;1.2874;
-49.5000;1.0208;1.2850;
-49.2000;1.0199;1.2874;
-48.9000;1.0208;1.2874;
-48.6000;1.0191;1.2923;
-48.3000;1.0175;1.2923;
-48.0000;1.0183;1.2971;
-47.7000;1.0191;1.2971;
-47.4000;1.0191;1.2923;
-47.1000;1.0208;1.2899;
-46.8000;1.0191;1.2826;
-46.5000;1.0183;1.2899;
-46.2000;1.0183;1.2971;
-45.9000;1.0224;1.3068;
-45.6000;1.0183;1.3044;
-45.3000;1.0208;1.3068;
-45.0000;1.0191;1.3141;
-44.7000;1.0183;1.3141;
-44.4000;1.0191;1.3141;
-44.1000;1.0191;1.3190;
-43.8000;1.0191;1.3020;
-43.5000;1.0199;1.2996;
-43.2000;1.0191;1.2996;
-42.9000;1.0183;1.3020;
-42.6000;1.0167;1.2971;
-42.3000;1.0191;1.2996;
-42.0000;1.0199;1.2874;
-41.7000;1.0175;1.2874;
-41.4000;1.0183;1.2874;
-41.1000;1.0199;1.2874;
-40.8000;1.0199;1.2874;
-40.5000;1.0175;1.2899;
-40.2000;1.0191;1.2996;
-39.9000;1.0199;1.3020;
-39.6000;1.0175;1.2923;
-39.3000;1.0199;1.2947;
-39.0000;1.0199;1.2899;
-38.7000;1.0199;1.2899;
-38.4000;1.0199;1.2899;
-38.1000;1.0208;1.2874;
-37.8000;1.0191;1.2802;
-37.5000;1.0191;1.2802;
-37.2000;1.0199;1.2729;
-36.9000;1.0199;1.2680;
-36.6000;1.0199;1.2705;
-36.3000;1.0191;1.2802;
-36.0000;1.0191;1.2753;
-35.7000;1.0191;1.2777;
-35.4000;1.0191;1.2777;
-35.1000;1.0199;1.2777;
-34.8000;1.0208;1.2874;
-34.5000;1.0199;1.2923;
-34.2000;1.0208;1.2947;
-33.9000;1.0183;1.2947;
-33.6000;1.0224;1.2996;
-33.3000;1.0199;1.2923;
-33.0000;1.0126;1.2729;
-32.7000;1.0167;1.2802;
-32.4000;1.0183;1.2826;
-32.1000;1.0126;1.2753;
-31.8000;1.0208;1.2899;
-31.5000;1.0167;1.2802;
-31.2000;1.0191;1.2826;
-30.9000;1.0199;1.2874;
-30.6000;1.0216;1.2826;
-30.3000;1.0191;1.2874;
-30.0000;1.0191;1.2899;
-29.7000;1.0199;1.2971;
-29.4000;1.0151;1.2874;
-29.1000;1.0183;1.2996;
-28.8000;1.0216;1.3020;
-28.5000;1.0110;1.2729;
-28.2000;1.0191;1.2947;
-27.9000;1.0191;1.2971;
-27.6000;1.0240;1.2996;
-27.3000;1.0183;1.2874;
-27.0000;1.0183;1.2971;
-26.7000;1.0175;1.3044;
-26.4000;1.0191;1.3020;
-26.1000;1.0191;1.3020;
-25.8000;1.0183;1.2971;
-25.5000;1.0175;1.3020;
-25.2000;1.0191;1.3044;
-24.9000;1.0175;1.2996;
-24.6000;1.0208;1.3020;
-24.3000;1.0216;1.3020;
-24.0000;1.0224;1.3141;
-23.7000;1.0281;1.3287;
-23.4000;1.0199;1.3044;
-23.1000;1.0216;1.3068;
-22.8000;1.0224;1.3044;
-22.5000;1.0191;1.3044;
-22.2000;1.0183;1.3020;
-21.9000;1.0199;1.3020;
-21.6000;1.0183;1.2923;
-21.3000;1.0118;1.2826;
-21.0000;1.0199;1.3020;
-20.7000;1.0191;1.2923;
-20.4000;1.0199;1.3020;
-20.1000;1.0191;1.3044;
-19.8000;1.0183;1.2923;
-19.5000;1.0183;1.2996;
-19.2000;1.0183;1.3044;
-18.9000;1.0199;1.3044;
-18.6000;1.0126;1.2850;
-18.3000;1.0183;1.2947;
-18.0000;1.0208;1.2971;
-17.7000;1.0224;1.2923;
-17.4000;1.0191;1.2850;
-17.1000;1.0191;1.2874;
-16.8000;1.0208;1.2826;
-16.5000;1.0191;1.2680;
-16.2000;1.0191;1.2705;
-15.9000;1.0183;1.2680;
-15.6000;1.0134;1.2608;
-15.3000;1.0191;1.2680;
-15.0000;1.0208;1.2729;
-14.7000;1.0191;1.2680;
-14.4000;1.0216;1.2826;
-14.1000;1.0224;1.2850;
-13.8000;1.0216;1.2850;
-13.5000;1.0224;1.2802;
-13.2000;1.0191;1.2753;
-12.9000;1.0199;1.2874;
-12.6000;1.0183;1.2899;
-12.3000;1.0183;1.2947;
-12.0000;1.0183;1.2971;
-11.7000;1.0183;1.2947;
-11.4000;1.0183;1.2947;
-11.1000;1.0175;1.2923;
-10.8000;1.0167;1.2971;
-10.5000;1.0159;1.2899;
-10.2000;1.0183;1.2923;
-9.9000;1.0183;1.2899;
-9.6000;1.0191;1.2826;
-9.3000;1.0183;1.2802;
-9.0000;1.0134;1.2705;
-8.7000;1.0191;1.2802;
-8.4000;1.0216;1.2874;
-8.1000;1.0183;1.2802;
-7.8000;1.0224;1.2826;
-7.5000;1.0224;1.2899;
-7.2000;1.0183;1.2753;
-6.9000;1.0191;1.2802;
-6.6000;1.0183;1.2826;
-6.3000;1.0208;1.2802;
-6.0000;1.0191;1.2850;
-5.7000;1.0183;1.2802;
-5.4000;1.0167;1.2632;
-5.1000;1.0191;1.2680;
-4.8000;1.0208;1.2753;
-4.5000;1.0224;1.2729;
-4.2000;1.0199;1.2777;
-3.9000;1.0224;1.2802;
-3.6000;1.0224;1.2802;
-3.3000;1.0199;1.2826;
-3.0000;1.0191;1.2850;
-2.7000;1.0208;1.2802;
-2.4000;1.0208;1.2826;
-2.1000;1.0191;1.2874;
-1.8000;1.0208;1.2947;
-1.5000;1.0208;1.2947;
-1.2000;1.0199;1.2947;
-0.9000;1.0191;1.2971;
-0.6000;1.0191;1.2874;
-0.3000;1.0183;1.2874;
0.0000;1.0183;1.2874;
0.3000;1.0509;1.3068;
0.6000;1.1013;1.3553;
0.9000;1.1412;1.4087;
1.2000;1.1705;1.4523;
1.5000;1.1950;1.4935;
1.8000;1.2161;1.5250;
2.1000;1.2300;1.5469;
2.4000;1.2430;1.5687;
2.7000;1.2560;1.5760;
3.0000;1.2674;1.5929;
3.3000;1.2755;1.5929;
3.6000;1.2829;1.6026;
3.9000;1.2902;1.6099;
4.2000;1.2983;1.6051;
4.5000;1.3000;1.5978;
4.8000;1.3065;1.6099;
5.1000;1.3114;1.6172;
5.4000;1.3162;1.6172;
5.7000;1.3228;1.6123;
6.0000;1.3260;1.6196;
6.3000;1.3317;1.6293;
6.6000;1.3341;1.6220;
6.9000;1.3423;1.6366;
7.2000;1.3431;1.6317;
7.5000;1.3464;1.6293;
7.8000;1.3504;1.6293;
8.1000;1.3512;1.6245;
8.4000;1.3618;1.6438;
8.7000;1.3594;1.6293;
9.0000;1.3651;1.6390;
9.3000;1.3683;1.6366;
9.6000;1.3716;1.6293;
9.9000;1.3740;1.6220;
10.2000;1.3781;1.6269;
10.5000;1.3740;1.6148;
10.8000;1.3805;1.6269;
11.1000;1.3862;1.6438;
11.4000;1.3862;1.6487;
11.7000;1.3895;1.6463;
12.0000;1.3911;1.6414;
12.3000;1.3936;1.6366;
12.6000;1.3968;1.6487;
12.9000;1.3993;1.6438;
13.2000;1.4017;1.6438;
13.5000;1.4017;1.6414;
13.8000;1.4042;1.6487;
14.1000;1.4066;1.6438;
14.4000;1.4090;1.6438;
14.7000;1.4090;1.6341;
15.0000;1.4107;1.6390;
15.3000;1.4123;1.6463;
15.6000;1.4147;1.6511;
15.9000;1.4155;1.6487;
16.2000;1.4196;1.6463;
16.5000;1.4212;1.6414;
16.8000;1.4212;1.6414;
17.1000;1.4212;1.6390;
17.4000;1.4221;1.6341;
17.7000;1.4237;1.6317;
18.0000;1.4269;1.6341;
18.3000;1.4253;1.6366;
18.6000;1.4269;1.6366;
18.9000;1.4294;1.6463;
19.2000;1.4278;1.6341;
19.5000;1.4310;1.6317;
19.8000;1.4302;1.6293;
20.1000;1.4294;1.6245;
20.4000;1.4335;1.6366;
20.7000;1.4367;1.6390;
21.0000;1.4343;1.6390;
21.3000;1.4359;1.6366;
21.6000;1.4392;1.6341;
21.9000;1.4400;1.6269;
22.2000;1.4392;1.6366;
22.5000;1.4392;1.6220;
22.8000;1.4424;1.6293;
23.1000;1.4416;1.6245;
23.4000;1.4424;1.6293;
23.7000;1.4432;1.6196;
24.0000;1.4432;1.6172;
24.3000;1.4457;1.6269;
24.6000;1.4457;1.6220;
24.9000;1.4440;1.6269;
25.2000;1.4449;1.6341;
25.5000;1.4457;1.6366;
25.8000;1.4465;1.6366;
26.1000;1.4473;1.6487;
26.4000;1.4481;1.6511;
26.7000;1.4505;1.6681;
27.0000;1.4489;1.6657;
27.3000;1.4497;1.6560;
27.6000;1.4497;1.6535;
27.9000;1.4530;1.6584;
28.2000;1.4497;1.6584;
28.5000;1.4505;1.6632;
28.8000;1.4514;1.6632;
29.1000;1.4505;1.6584;
29.4000;1.4530;1.6608;
29.7000;1.4538;1.6584;
30.0000;1.4546;1.6632;
30.3000;1.4505;1.6560;
30.6000;1.4530;1.6657;
30.9000;1.4546;1.6632;
31.2000;1.4497;1.6535;
31.5000;1.4497;1.6487;
31.8000;1.4538;1.6608;
32.1000;1.4562;1.6729;
32.4000;1.4505;1.6584;
32.7000;1.4554;1.6705;
33.0000;1.4579;1.6754;
33.3000;1.4579;1.6875;
33.6000;1.4579;1.6826;
33.9000;1.4571;1.6826;
34.2000;1.4562;1.6729;
34.5000;1.4587;1.6729;
34.8000;1.4587;1.6778;
35.1000;1.4514;1.6657;
35.4000;1.4571;1.6681;
35.7000;1.4595;1.6657;
36.0000;1.4595;1.6681;
36.3000;1.4587;1.6560;
36.6000;1.4611;1.6584;
36.9000;1.4611;1.6632;
37.2000;1.4595;1.6584;
37.5000;1.4611;1.6608;
37.8000;1.4611;1.6487;
38.1000;1.4595;1.6487;
38.4000;1.4619;1.6511;
38.7000;1.4603;1.6487;
39.0000;1.4603;1.6511;
39.3000;1.4619;1.6535;
39.6000;1.4611;1.6511;
39.9000;1.4611;1.6535;
40.2000;1.4619;1.6560;
40.5000;1.4636;1.6487;
40.8000;1.4619;1.6414;
41.1000;1.4595;1.6390;
41.4000;1.4587;1.6366;
41.7000;1.4628;1.6511;
42.0000;1.4644;1.6535;
42.3000;1.4628;1.6463;
42.6000;1.4619;1.6438;
42.9000;1.4579;1.6196;
43.2000;1.4693;1.6487;
43.5000;1.4644;1.6463;
43.8000;1.4644;1.6487;
44.1000;1.4709;1.6681;
44.4000;1.4652;1.6535;
44.7000;1.4644;1.6463;
45.0000;1.4644;1.6487;
45.3000;1.4644;1.6487;
45.6000;1.4644;1.6463;
45.9000;1.4636;1.6560;
46.2000;1.4644;1.6584;
46.5000;1.4628;1.6463;
46.8000;1.4611;1.6293;
47.1000;1.4628;1.6317;
47.4000;1.4652;1.6293;
47.7000;1.4652;1.6317;
48.0000;1.4652;1.6220;
48.3000;1.4644;1.6293;
48.6000;1.4660;1.6341;
48.9000;1.4660;1.6366;
49.2000;1.4685;1.6366;
49.5000;1.4660;1.6293;
49.8000;1.4660;1.6390;
50.1000;1.4668;1.6390;
50.4000;1.4668;1.6366;
50.7000;1.4660;1.6317;
51.0000;1.4652;1.6269;
51.3000;1.4676;1.6366;
51.6000;1.4652;1.6269;
51.9000;1.4685;1.6293;
52.2000;1.4676;1.6317;
52.5000;1.4652;1.6220;
52.8000;1.4676;1.6341;
53.1000;1.4668;1.6341;
53.4000;1.4685;1.6414;
53.7000;1.4668;1.6511;
54.0000;1.4668;1.6535;
54.3000;1.4660;1.6535;
54.6000;1.4685;1.6511;
54.9000;1.4676;1.6487;
55.2000;1.4685;1.6463;
55.5000;1.4676;1.6390;
55.8000;1.4668;1.6366;
56.1000;1.4676;1.6414;
56.4000;1.4668;1.6414;
56.7000;1.4660;1.6463;
57.0000;1.4652;1.6414;
57.3000;1.4693;1.6535;
57.6000;1.4685;1.6535;
57.9000;1.4668;1.6438;
58.2000;1.4685;1.6414;
58.5000;1.4725;1.6535;
58.8000;1.4685;1.6584;
59.1000;1.4660;1.6560;
59.4000;1.4693;1.6535;
59.7000;1.4676;1.6487;
60.0000;1.4693;1.6438;
60.3000;1.4693;1.6414;
60.6000;1.4676;1.6366;
60.9000;1.4676;1.6438;
61.2000;1.4668;1.6390;
61.5000;1.4709;1.6438;
61.8000;1.4668;1.6341;
62.1000;1.4685;1.6390;
62.4000;1.4660;1.6390;
62.7000;1.4693;1.6487;
63.0000;1.4685;1.6438;
63.3000;1.4701;1.6487;
63.6000;1.4685;1.6438;
63.9000;1.4693;1.6390;
64.2000;1.4693;1.6438;
64.5000;1.4668;1.6317;
64.8000;1.4693;1.6390;
65.1000;1.4676;1.6293;
65.4000;1.4701;1.6366;
65.7000;1.4701;1.6366;
66.0000;1.4717;1.6366;
66.3000;1.4693;1.6293;
66.6000;1.4693;1.6245;
66.9000;1.4693;1.6245;
67.2000;1.4717;1.6269;
67.5000;1.4693;1.6293;
67.8000;1.4701;1.6220;
68.1000;1.4733;1.6220;
68.4000;1.4685;1.6099;
68.7000;1.4676;1.6075;
69.0000;1.4709;1.6051;
69.3000;1.4709;1.6099;
69.6000;1.4676;1.6075;
69.9000;1.4685;1.6051;
70.2000;1.4709;1.6196;
70.5000;1.4685;1.6148;
70.8000;1.4693;1.6172;
71.1000;1.4693;1.6220;
71.4000;1.4709;1.6269;
71.7000;1.4685;1.6172;
72.0000;1.4685;1.6123;
72.3000;1.4685;1.6123;
72.6000;1.4701;1.6196;
72.9000;1.4693;1.6220;
73.2000;1.4725;1.6196;
73.5000;1.4685;1.6051;
73.8000;1.4709;1.6099;
74.1000;1.4725;1.6196;
74.4000;1.4717;1.6341;
74.7000;1.4701;1.6293;
75.0000;1.4693;1.6220;
75.3000;1.4709;1.6123;
75.6000;1.4709;1.6172;
75.9000;1.4685;1.6051;
76.2000;1.4701;1.6123;
76.5000;1.4693;1.6148;
76.8000;1.4701;1.6123;
77.1000;1.4701;1.6172;
77.4000;1.4685;1.6148;
77.7000;1.4701;1.6196;
78.0000;1.4709;1.6317;
78.3000;1.4758;1.6463;
78.6000;1.4717;1.6293;
78.9000;1.4733;1.6390;
79.2000;1.4717;1.6317;
79.5000;1.4709;1.6220;
79.8000;1.4717;1.6196;
80.1000;1.4717;1.6245;
80.4000;1.4717;1.6172;
80.7000;1.4709;1.6220;
81.0000;1.4717;1.6245;
81.3000;1.4733;1.6269;
81.6000;1.4685;1.6075;
81.9000;1.4709;1.6317;
82.2000;1.4709;1.6293;
82.5000;1.4693;1.6220;
82.8000;1.4725;1.6220;
83.1000;1.4725;1.6196;
83.4000;1.4717;1.6196;
83.7000;1.4709;1.6123;
84.0000;1.4693;1.6172;
84.3000;1.4717;1.6245;
84.6000;1.4685;1.6269;
84.9000;1.4676;1.6196;
85.2000;1.4668;1.6245;
85.5000;1.4717;1.6390;
85.8000;1.4709;1.6293;
86.1000;1.4701;1.6293;
86.4000;1.4742;1.6390;
86.7000;1.4717;1.6317;
87.0000;1.4701;1.6390;
87.3000;1.4693;1.6414;
87.6000;1.4701;1.6511;
87.9000;1.4701;1.6366;
88.2000;1.4725;1.6390;
88.5000;1.4685;1.6269;
88.8000;1.4709;1.6317;
89.1000;1.4717;1.6390;
89.4000;1.4725;1.6414;
89.7000;1.4709;1.6293;
90.0000;1.4717;1.6293;
90.3000;1.4750;1.6414;
90.6000;1.4725;1.6390;
90.9000;1.4725;1.6341;
91.2000;1.4717;1.6438;
91.5000;1.4725;1.6438;
91.8000;1.4717;1.6463;
92.1000;1.4693;1.6293;
92.4000;1.4725;1.6366;
92.7000;1.4701;1.6293;
93.0000;1.4701;1.6317;
93.3000;1.4693;1.6366;
93.6000;1.4701;1.6366;
93.9000;1.4709;1.6438;
94.2000;1.4717;1.6414;
94.5000;1.4725;1.6487;
94.8000;1.4799;1.6584;
95.1000;1.4717;1.6438;
95.4000;1.4709;1.6341;
95.7000;1.4733;1.6463;
96.0000;1.4693;1.6390;
96.3000;1.4717;1.6438;
96.6000;1.4709;1.6341;
96.9000;1.4717;1.6293;
97.2000;1.4733;1.6366;
97.5000;1.4717;1.6414;
97.8000;1.4693;1.6341;
98.1000;1.4709;1.6341;
98.4000;1.4725;1.6487;
98.7000;1.4790;1.6729;
99.0000;1.4709;1.6511;
99.3000;1.4709;1.6463;
99.6000;1.4709;1.6366;
99.9000;1.4709;1.6317;
100.2000;1.4725;1.6341;
100.5000;1.4750;1.6438;
100.8000;1.4725;1.6390;
101.1000;1.4725;1.6366;
101.4000;1.4733;1.6414;
101.7000;1.4709;1.6341;
102.0000;1.4725;1.6438;
102.3000;1.4725;1.6463;
102.6000;1.4742;1.6511;
102.9000;1.4701;1.6414;
103.2000;1.4725;1.6438;
103.5000;1.4652;1.6269;
103.8000;1.4709;1.6414;
104.1000;1.4725;1.6438;
104.4000;1.4709;1.6463;
104.7000;1.4725;1.6487;
105.0000;1.4717;1.6463;
105.3000;1.4709;1.6487;
105.6000;1.4709;1.6511;
105.9000;1.4725;1.6487;
106.2000;1.4725;1.6487;
106.5000;1.4709;1.6487;
106.8000;1.4717;1.6487;
107.1000;1.4717;1.6487;
107.4000;1.4725;1.6487;
107.7000;1.4717;1.6487;
108.0000;1.4676;1.6414;
108.3000;1.4701;1.6511;
108.6000;1.4709;1.6560;
108.9000;1.4717;1.6608;
109.2000;1.4693;1.6608;
109.5000;1.4717;1.6608;
109.8000;1.4750;1.6705;
110.1000;1.4742;1.6705;
110.4000;1.4725;1.6632;
110.7000;1.4725;1.6657;
111.0000;1.4725;1.6729;
111.3000;1.4717;1.6754;
111.6000;1.4701;1.6705;
111.9000;1.4701;1.6584;
112.2000;1.4709;1.6535;
112.5000;1.4709;1.6584;
112.8000;1.4709;1.6487;
113.1000;1.4701;1.6414;
113.4000;1.4709;1.6438;
113.7000;1.4725;1.6511;
114.0000;1.4701;1.6535;
114.3000;1.4709;1.6511;
114.6000;1.4725;1.6535;
114.9000;1.4733;1.6584;
115.2000;1.4717;1.6584;
115.5000;1.4725;1.6560;
115.8000;1.4709;1.6511;
116.1000;1.4733;1.6535;
116.4000;1.4725;1.6487;
116.7000;1.4717;1.6487;
117.0000;1.4709;1.6511;
117.3000;1.4701;1.6608;
117.6000;1.4709;1.6511;
117.9000;1.4733;1.6487;
118.2000;1.4709;1.6341;
118.5000;1.4701;1.6366;
118.8000;1.4766;1.6487;
119.1000;1.4725;1.6487;
119.4000;1.4733;1.6511;
119.7000;1.4725;1.6487;
120.0000;1.4742;1.6487;
120.3000;1.4725;1.6414;
120.6000;1.4709;1.6366;
120.9000;1.4709;1.6341;
121.2000;1.4676;1.6293;
121.5000;1.4709;1.6341;
121.8000;1.4701;1.6366;
122.1000;1.4717;1.6317;
122.4000;1.4725;1.6317;
122.7000;1.4701;1.6317;
123.0000;1.4685;1.6269;
123.3000;1.4676;1.6293;
123.6000;1.4717;1.6317;
123.9000;1.4701;1.6390;
124.2000;1.4717;1.6390;
124.5000;1.4733;1.6366;
124.8000;1.4725;1.6390;
125.1000;1.4725;1.6438;
125.4000;1.4742;1.6438;
125.7000;1.4725;1.6414;
126.0000;1.4717;1.6390;
126.3000;1.4709;1.6511;
126.6000;1.4799;1.6705;
126.9000;1.4709;1.6463;
127.2000;1.4709;1.6366;
127.5000;1.4709;1.6317;
127.8000;1.4717;1.6293;
128.1000;1.4668;1.6123;
128.4000;1.4717;1.6245;
128.7000;1.4717;1.6220;
129.0000;1.4725;1.6269;
129.3000;1.4758;1.6341;
129.6000;1.4717;1.6245;
129.9000;1.4701;1.6269;
130.2000;1.4685;1.6293;
130.5000;1.4725;1.6317;
130.8000;1.4709;1.6293;
131.1000;1.4717;1.6245;
131.4000;1.4733;1.6148;
131.7000;1.4733;1.6148;
132.0000;1.4717;1.6148;
132.3000;1.4701;1.6172;
132.6000;1.4709;1.6269;
132.9000;1.4725;1.6293;
133.2000;1.4725;1.6269;
133.5000;1.4709;1.6269;
133.8000;1.4709;1.6220;
134.1000;1.4790;1.6341;
134.4000;1.4717;1.6196;
134.7000;1.4701;1.6099;
135.0000;1.4709;1.6099;
135.3000;1.4685;1.6026;
135.6000;1.4701;1.6099;
135.9000;1.4709;1.6099;
136.2000;1.4701;1.6099;
136.5000;1.4717;1.6245;
136.8000;1.4717;1.6317;
137.1000;1.4701;1.6390;
137.4000;1.4701;1.6438;
137.7000;1.4693;1.6390;
138.0000;1.4733;1.6463;
138.3000;1.4709;1.6366;
138.6000;1.4701;1.6366;
138.9000;1.4709;1.6366;
139.2000;1.4701;1.6390;
139.5000;1.4701;1.6438;
139.8000;1.4717;1.6535;
140.1000;1.4701;1.6487;
140.4000;1.4701;1.6366;
140.7000;1.4717;1.6366;
141.0000;1.4717;1.6390;
141.3000;1.4717;1.6560;
141.6000;1.4725;1.6584;
141.9000;1.4693;1.6438;
142.2000;1.4693;1.6463;
142.5000;1.4701;1.6584;
142.8000;1.4660;1.6463;
143.1000;1.4709;1.6560;
143.4000;1.4701;1.6535;
143.7000;1.4668;1.6366;
144.0000;1.4693;1.6366;
144.3000;1.4717;1.6366;
144.6000;1.4709;1.6366;
144.9000;1.4758;1.6535;
145.2000;1.4766;1.6584;
145.5000;1.4685;1.6366;
145.8000;1.4725;1.6438;
146.1000;1.4717;1.6414;
146.4000;1.4701;1.6269;
146.7000;1.4717;1.6293;
147.0000;1.4709;1.6293;
147.3000;1.4709;1.6293;
147.6000;1.4725;1.6293;
147.9000;1.4709;1.6172;
148.2000;1.4717;1.6196;
148.5000;1.4733;1.6293;
148.8000;1.4676;1.6172;
149.1000;1.4717;1.6293;
149.4000;1.4717;1.6245;
149.7000;1.4733;1.6366;
150.0000;1.4701;1.6390;
150.3000;1.4709;1.6366;
150.6000;1.4709;1.6317;
150.9000;1.4725;1.6245;
151.2000;1.4685;1.6196;
151.5000;1.4725;1.6196;
151.8000;1.4717;1.6245;
152.1000;1.4725;1.6245;
152.4000;1.4709;1.6245;
152.7000;1.4709;1.6245;
153.0000;1.4668;1.6123;
153.3000;1.4660;1.6196;
153.6000;1.4693;1.6293;
153.9000;1.4693;1.6366;
154.2000;1.4693;1.6414;
154.5000;1.4693;1.6414;
154.8000;1.4709;1.6366;
155.1000;1.4668;1.6269;
155.4000;1.4701;1.6317;
155.7000;1.4709;1.6438;
156.0000;1.4644;1.6366;
156.3000;1.4709;1.6463;
156.6000;1.4709;1.6438;
156.9000;1.4693;1.6511;
157.2000;1.4717;1.6463;
157.5000;1.4717;1.6366;
157.8000;1.4709;1.6366;
158.1000;1.4725;1.6414;
158.4000;1.4709;1.6366;
158.7000;1.4701;1.6269;
159.0000;1.4701;1.6148;
159.3000;1.4701;1.6220;
159.6000;1.4709;1.6148;
159.9000;1.4709;1.6245;
160.2000;1.4685;1.6220;
160.5000;1.4709;1.6317;
160.8000;1.4701;1.6317;
161.1000;1.4717;1.6293;
161.4000;1.4693;1.6172;
161.7000;1.4701;1.6245;
162.0000;1.4701;1.6245;
162.3000;1.4709;1.6293;
162.6000;1.4717;1.6269;
162.9000;1.4725;1.6172;
163.2000;1.4725;1.6148;
163.5000;1.4709;1.6123;
163.8000;1.4717;1.6099;
164.1000;1.4717;1.6002;
164.4000;1.4733;1.6002;
164.7000;1.4733;1.6026;
165.0000;1.4725;1.5929;
165.3000;1.4660;1.5881;
165.6000;1.4709;1.6026;
165.9000;1.4709;1.6002;
166.2000;1.4685;1.5978;
166.5000;1.4668;1.5905;
166.8000;1.4709;1.5929;
167.1000;1.4709;1.6002;
167.4000;1.4717;1.6026;
167.7000;1.4709;1.6026;
168.0000;1.4693;1.6099;
168.3000;1.4709;1.6220;
168.6000;1.4717;1.6220;
168.9000;1.4701;1.6220;
169.2000;1.4709;1.6220;
169.5000;1.4701;1.6245;
169.8000;1.4709;1.6293;
170.1000;1.4701;1.6293;
170.4000;1.4693;1.6269;
170.7000;1.4701;1.6269;
171.0000;1.4693;1.6366;
171.3000;1.4725;1.6438;
171.6000;1.4701;1.6438;
171.9000;1.4701;1.6463;
172.2000;1.4709;1.6535;
172.5000;1.4709;1.6535;
172.8000;1.4701;1.6560;
173.1000;1.4693;1.6463;
173.4000;1.4676;1.6511;
173.7000;1.4676;1.6560;
174.0000;1.4709;1.6584;
174.3000;1.4701;1.6535;
174.6000;1.4685;1.6487;
174.9000;1.4676;1.6390;
175.2000;1.4676;1.6390;
175.5000;1.4701;1.6438;
175.8000;1.4685;1.6487;
176.1000;1.4685;1.6511;
176.4000;1.4693;1.6463;
176.7000;1.4709;1.6317;
177.0000;1.4644;1.6002;
177.3000;1.4717;1.6148;
177.6000;1.4701;1.6172;
177.9000;1.4742;1.6220;
178.2000;1.4709;1.6220;
178.5000;1.4709;1.6293;
178.8000;1.4709;1.6390;
179.1000;1.4701;1.6341;
179.4000;1.4701;1.6341;
179.7000;1.4717;1.6463;
180.0000;1.4668;1.6341;
180.3000;1.4701;1.6390;
180.6000;1.4709;1.6341;
180.9000;1.4676;1.6293;
181.2000;1.4709;1.6414;
181.5000;1.4717;1.6438;
181.8000;1.4709;1.6414;
182.1000;1.4693;1.6366;
182.4000;1.4717;1.6341;
182.7000;1.4709;1.6293;
183.0000;1.4668;1.6123;
183.3000;1.4693;1.6196;
183.6000;1.4693;1.6123;
183.9000;1.4717;1.6220;
184.2000;1.4701;1.6196;
184.5000;1.4701;1.6123;
184.8000;1.4693;1.6245;
185.1000;1.4709;1.6293;
185.4000;1.4709;1.6317;
185.7000;1.4701;1.6245;
186.0000;1.4717;1.6341;
186.3000;1.4709;1.6438;
186.6000;1.4709;1.6463;
186.9000;1.4701;1.6438;
187.2000;1.4701;1.6414;
187.5000;1.4693;1.6438;
187.8000;1.4717;1.6535;
188.1000;1.4701;1.6511;
188.4000;1.4709;1.6463;
188.7000;1.4701;1.6463;
189.0000;1.4750;1.6560;
189.3000;1.4709;1.6535;
189.6000;1.4725;1.6487;
189.9000;1.4750;1.6608;
190.2000;1.4701;1.6511;
190.5000;1.4701;1.6463;
190.8000;1.4701;1.6487;
191.1000;1.4701;1.6463;
191.4000;1.4717;1.6487;
191.7000;1.4709;1.6414;
192.0000;1.4701;1.6341;
192.3000;1.4685;1.6172;
192.6000;1.4709;1.6269;
192.9000;1.4733;1.6317;
193.2000;1.4636;1.6002;
193.5000;1.4701;1.6220;
193.8000;1.4709;1.6341;
194.1000;1.4725;1.6390;
194.4000;1.4709;1.6366;
194.7000;1.4693;1.6293;
195.0000;1.4709;1.6317;
195.3000;1.4733;1.6438;
195.6000;1.4750;1.6366;
195.9000;1.4693;1.6317;
196.2000;1.4693;1.6220;
196.5000;1.4725;1.6269;
196.8000;1.4709;1.6245;
197.1000;1.4693;1.6196;
197.4000;1.4701;1.6196;
197.7000;1.4774;1.6414;
198.0000;1.4693;1.6148;
198.3000;1.4701;1.6196;
198.6000;1.4693;1.6172;
198.9000;1.4693;1.6148;
199.2000;1.4701;1.6293;
199.5000;1.4693;1.6341;
199.8000;1.4676;1.6317;
200.1000;1.4701;1.6390;
200.4000;1.4685;1.6366;
200.7000;1.4693;1.6390;
201.0000;1.4685;1.6390;
201.3000;1.4701;1.6366;
201.6000;1.4701;1.6366;
201.9000;1.4660;1.6269;
202.2000;1.4709;1.6366;
202.5000;1.4701;1.6390;
202.8000;1.4693;1.6366;
203.1000;1.4709;1.6317;
203.4000;1.4709;1.6245;
203.7000;1.4717;1.6269;
204.0000;1.4742;1.6390;
204.3000;1.4717;1.6366;
204.6000;1.4701;1.6293;
204.9000;1.4685;1.6196;
205.2000;1.4693;1.6196;
205.5000;1.4693;1.6269;
205.8000;1.4701;1.6220;
206.1000;1.4685;1.6123;
206.4000;1.4701;1.6123;
206.7000;1.4701;1.6220;
207.0000;1.4701;1.6317;
207.3000;1.4774;1.6487;
207.6000;1.4717;1.6366;
207.9000;1.4717;1.6438;
208.2000;1.4717;1.6487;
208.5000;1.4709;1.6463;
208.8000;1.4717;1.6487;
209.1000;1.4701;1.6438;
209.4000;1.4709;1.6438;
209.7000;1.4717;1.6438;
210.0000;1.4701;1.6414;
210.3000;1.4701;1.6511;
210.6000;1.4693;1.6487;
210.9000;1.4676;1.6438;
211.2000;1.4693;1.6414;
211.5000;1.4685;1.6438;
211.8000;1.4685;1.6414;
212.1000;1.4693;1.6463;
212.4000;1.4636;1.6366;
212.7000;1.4685;1.6487;
213.0000;1.4685;1.6511;
213.3000;1.4693;1.6535;
213.6000;1.4701;1.6487;
213.9000;1.4676;1.6511;
214.2000;1.4693;1.6535;
214.5000;1.4693;1.6535;
214.8000;1.4774;1.6778;
215.1000;1.4685;1.6608;
215.4000;1.4660;1.6438;
215.7000;1.4701;1.6487;
216.0000;1.4693;1.6414;
216.3000;1.4685;1.6390;
216.6000;1.4676;1.6535;
216.9000;1.4676;1.6511;
217.2000;1.4717;1.6632;
217.5000;1.4693;1.6584;
217.8000;1.4676;1.6632;
218.1000;1.4685;1.6632;
218.4000;1.4660;1.6535;
218.7000;1.4628;1.6366;
219.0000;1.4685;1.6584;
219.3000;1.4685;1.6511;
219.6000;1.4685;1.6535;
219.9000;1.4676;1.6511;
220.2000;1.4693;1.6438;
220.5000;1.4676;1.6414;
220.8000;1.4709;1.6487;
221.1000;1.4693;1.6463;
221.4000;1.4693;1.6463;
221.7000;1.4685;1.6390;
222.0000;1.4693;1.6463;
222.3000;1.4701;1.6584;
222.6000;1.4693;1.6511;
222.9000;1.4676;1.6535;
223.2000;1.4668;1.6560;
223.5000;1.4701;1.6584;
223.8000;1.4701;1.6560;
224.1000;1.4685;1.6535;
224.4000;1.4693;1.6487;
224.7000;1.4701;1.6414;
225.0000;1.4676;1.6438;
225.3000;1.4676;1.6317;
225.6000;1.4693;1.6269;
225.9000;1.4693;1.6293;
226.2000;1.4693;1.6341;
226.5000;1.4693;1.6293;
226.8000;1.4676;1.6293;
227.1000;1.4693;1.6341;
227.4000;1.4693;1.6390;
227.7000;1.4685;1.6366;
228.0000;1.4733;1.6463;
228.3000;1.4685;1.6414;
228.6000;1.4693;1.6438;
228.9000;1.4701;1.6535;
229.2000;1.4701;1.6535;
229.5000;1.4685;1.6560;
229.8000;1.4676;1.6463;
230.1000;1.4660;1.6366;
230.4000;1.4660;1.6317;
230.7000;1.4676;1.6341;
231.0000;1.4685;1.6293;
231.3000;1.4693;1.6341;
231.6000;1.4676;1.6341;
231.9000;1.4693;1.6438;
232.2000;1.4693;1.6487;
232.5000;1.4725;1.6511;
232.8000;1.4693;1.6511;
233.1000;1.4693;1.6487;
233.4000;1.4709;1.6535;
233.7000;1.4709;1.6535;
234.0000;1.4701;1.6511;
234.3000;1.4668;1.6390;
234.6000;1.4701;1.6438;
234.9000;1.4693;1.6463;
235.2000;1.4717;1.6535;
235.5000;1.4676;1.6463;
235.8000;1.4717;1.6584;
236.1000;1.4701;1.6535;
236.4000;1.4701;1.6438;
236.7000;1.4685;1.6414;
237.0000;1.4660;1.6269;
237.3000;1.4676;1.6390;
237.6000;1.4733;1.6535;
237.9000;1.4644;1.6341;
238.2000;1.4685;1.6463;
238.5000;1.4701;1.6390;
238.8000;1.4693;1.6390;
239.1000;1.4668;1.6317;
239.4000;1.4685;1.6341;
239.7000;1.4676;1.6341;
240.0000;1.4693;1.6390;
240.3000;1.4693;1.6366;
240.6000;1.4701;1.6317;
240.9000;1.4693;1.6317;
241.2000;1.4693;1.6390;
241.5000;1.4685;1.6414;
241.8000;1.4701;1.6511;
242.1000;1.4693;1.6511;
242.4000;1.4701;1.6511;
242.7000;1.4701;1.6438;
243.0000;1.4701;1.6390;
243.3000;1.4676;1.6293;
243.6000;1.4685;1.6269;
243.9000;1.4685;1.6269;
244.2000;1.4685;1.6317;
244.5000;1.4676;1.6293;
244.8000;1.4685;1.6366;
245.1000;1.4701;1.6366;
245.4000;1.4693;1.6390;
245.7000;1.4676;1.6366;
246.0000;1.4701;1.6317;
246.3000;1.4693;1.6366;
246.6000;1.4685;1.6414;
246.9000;1.4676;1.6390;
247.2000;1.4701;1.6414;
247.5000;1.4685;1.6317;
247.8000;1.4676;1.6317;
248.1000;1.4685;1.6366;
248.4000;1.4685;1.6390;
248.7000;1.4676;1.6463;
249.0000;1.4701;1.6535;
249.3000;1.4676;1.6487;
249.6000;1.4701;1.6584;
249.9000;1.4685;1.6511;
250.2000;1.4693;1.6511;
250.5000;1.4717;1.6487;
250.8000;1.4693;1.6511;
251.1000;1.4676;1.6438;
251.4000;1.4676;1.6463;
251.7000;1.4676;1.6535;
252.0000;1.4652;1.6463;
252.3000;1.4668;1.6414;
252.6000;1.4676;1.6414;
252.9000;1.4676;1.6390;
253.2000;1.4685;1.6366;
253.5000;1.4668;1.6341;
253.8000;1.4676;1.6293;
254.1000;1.4701;1.6341;
254.4000;1.4685;1.6341;
254.7000;1.4701;1.6341;
255.0000;1.4693;1.6293;
255.3000;1.4701;1.6220;
255.6000;1.4709;1.6366;
255.9000;1.4676;1.6414;
256.2000;1.4652;1.6390;
256.5000;1.4685;1.6366;
256.8000;1.4676;1.6366;
257.1000;1.4676;1.6341;
257.4000;1.4668;1.6414;
257.7000;1.4668;1.6487;
258.0000;1.4668;1.6414;
258.3000;1.4619;1.6390;
258.6000;1.4676;1.6511;
258.9000;1.4676;1.6511;
259.2000;1.4636;1.6390;
259.5000;1.4676;1.6560;
259.8000;1.4693;1.6511;
260.1000;1.4685;1.6487;
260.4000;1.4595;1.6245;
260.7000;1.4685;1.6414;
261.0000;1.4685;1.6341;
261.3000;1.4676;1.6293;
261.6000;1.4685;1.6341;
261.9000;1.4676;1.6366;
262.2000;1.4685;1.6414;
262.5000;1.4676;1.6366;
262.8000;1.4693;1.6317;
263.1000;1.4693;1.6341;
263.4000;1.4676;1.6366;
263.7000;1.4709;1.6390;
264.0000;1.4685;1.6366;
264.3000;1.4693;1.6341;
264.6000;1.4701;1.6390;
264.9000;1.4668;1.6293;
265.2000;1.4676;1.6220;
265.5000;1.4668;1.6269;
265.8000;1.4685;1.6269;
266.1000;1.4685;1.6317;
266.4000;1.4685;1.6293;
266.7000;1.4717;1.6341;
267.0000;1.4701;1.6196;
267.3000;1.4668;1.6269;
267.6000;1.4652;1.6220;
267.9000;1.4685;1.6293;
268.2000;1.4709;1.6341;
268.5000;1.4725;1.6390;
268.8000;1.4636;1.6172;
269.1000;1.4676;1.6341;
269.4000;1.4685;1.6366;
269.7000;1.4709;1.6390;
270.0000;1.4644;1.6317;
270.3000;1.4693;1.6414;
270.6000;1.4685;1.6341;
270.9000;1.4733;1.6487;
271.2000;1.4668;1.6438;
271.5000;1.4693;1.6511;
271.8000;1.4693;1.6535;
272.1000;1.4685;1.6438;
272.4000;1.4693;1.6487;
272.7000;1.4685;1.6366;
273.0000;1.4676;1.6390;
273.3000;1.4676;1.6438;
273.6000;1.4676;1.6341;
273.9000;1.4693;1.6341;
274.2000;1.4676;1.6366;
274.5000;1.4685;1.6390;
274.8000;1.4709;1.6487;
275.1000;1.4676;1.6341;
275.4000;1.4685;1.6341;
275.7000;1.4676;1.6245;
276.0000;1.4701;1.6341;
276.3000;1.4766;1.6560;
276.6000;1.4676;1.6245;
276.9000;1.4676;1.6123;
277.2000;1.4709;1.6123;
277.5000;1.4693;1.6220;
277.8000;1.4693;1.6269;
278.1000;1.4685;1.6269;
278.4000;1.4709;1.6341;
278.7000;1.4685;1.6317;
279.0000;1.4685;1.6341;
279.3000;1.4685;1.6317;
279.6000;1.4676;1.6317;
279.9000;1.4693;1.6317;
280.2000;1.4693;1.6366;
280.5000;1.4660;1.6341;
280.8000;1.4685;1.6438;
281.1000;1.4693;1.6463;
281.4000;1.4709;1.6487;
281.7000;1.4676;1.6463;
282.0000;1.4676;1.6463;
282.3000;1.4685;1.6414;
282.6000;1.4628;1.6245;
282.9000;1.4693;1.6511;
283.2000;1.4652;1.6487;
283.5000;1.4725;1.6681;
283.8000;1.4685;1.6608;
284.1000;1.4676;1.6584;
284.4000;1.4693;1.6584;
284.7000;1.4668;1.6463;
285.0000;1.4701;1.6487;
285.3000;1.4701;1.6487;
285.6000;1.4685;1.6487;
285.9000;1.4668;1.6438;
286.2000;1.4676;1.6463;
286.5000;1.4701;1.6535;
286.8000;1.4676;1.6438;
287.1000;1.4668;1.6341;
287.4000;1.4676;1.6293;
287.7000;1.4676;1.6366;
288.0000;1.4693;1.6341;
288.3000;1.4668;1.6293;
288.6000;1.4676;1.6414;
288.9000;1.4676;1.6438;
289.2000;1.4693;1.6438;
289.5000;1.4660;1.6414;
289.8000;1.4676;1.6341;
290.1000;1.4693;1.6438;
290.4000;1.4701;1.6414;
290.7000;1.4685;1.6366;
291.0000;1.4701;1.6438;
291.3000;1.4676;1.6487;
291.6000;1.4717;1.6560;
291.9000;1.4685;1.6414;
292.2000;1.4676;1.6463;
292.5000;1.4758;1.6681;
292.8000;1.4685;1.6390;
293.1000;1.4644;1.6341;
293.4000;1.4701;1.6487;
293.7000;1.4701;1.6511;
294.0000;1.4668;1.6438;
294.3000;1.4668;1.6390;
294.6000;1.4668;1.6366;
294.9000;1.4660;1.6390;
295.2000;1.4652;1.6317;
295.5000;1.4685;1.6366;
295.8000;1.4685;1.6341;
296.1000;1.4685;1.6366;
296.4000;1.4685;1.6317;
296.7000;1.4693;1.6390;
297.0000;1.4701;1.6390;
297.3000;1.4668;1.6341;
297.6000;1.4676;1.6438;
297.9000;1.4668;1.6414;
298.2000;1.4685;1.6438;
298.5000;1.4685;1.6438;
298.8000;1.4668;1.6414;
299.1000;1.4619;1.6390;
299.4000;1.4668;1.6511;
299.7000;1.4676;1.6463;
300.0000;1.4676;1.6487;
300.3000;1.4693;1.6487;
300.6000;1.4685;1.6535;
300.9000;1.4668;1.6438;
301.2000;1.4676;1.6366;
301.5000;1.4685;1.6390;
301.8000;1.4693;1.6390;
302.1000;1.4685;1.6341;
302.4000;1.4701;1.6341;
302.7000;1.4685;1.6390;
303.0000;1.4676;1.6487;
303.3000;1.4685;1.6560;
303.6000;1.4652;1.6487;
303.9000;1.4660;1.6487;
304.2000;1.4676;1.6511;
304.5000;1.4660;1.6487;
304.8000;1.4611;1.6366;
305.1000;1.4693;1.6535;
305.4000;1.4668;1.6487;
305.7000;1.4685;1.6511;
306.0000;1.4660;1.6341;
306.3000;1.4668;1.6366;
306.6000;1.4652;1.6317;
306.9000;1.4676;1.6366;
307.2000;1.4668;1.6366;
307.5000;1.4660;1.6293;
307.8000;1.4693;1.6196;
308.1000;1.4685;1.6123;
308.4000;1.4733;1.6245;
308.7000;1.4660;1.6220;
309.0000;1.4676;1.6293;
309.3000;1.4685;1.6390;
309.6000;1.4644;1.6293;
309.9000;1.4733;1.6463;
310.2000;1.4685;1.6269;
310.5000;1.4668;1.6220;
310.8000;1.4693;1.6341;
311.1000;1.4676;1.6317;
311.4000;1.4693;1.6317;
311.7000;1.4709;1.6390;
312.0000;1.4693;1.6390;
312.3000;1.4685;1.6390;
312.6000;1.4668;1.6293;
312.9000;1.4676;1.6414;
313.2000;1.4668;1.6463;
313.5000;1.4668;1.6487;
313.8000;1.4668;1.6438;
314.1000;1.4676;1.6414;
314.4000;1.4652;1.6438;
314.7000;1.4693;1.6584;
315.0000;1.4652;1.6560;
315.3000;1.4676;1.6511;
315.6000;1.4668;1.6463;
315.9000;1.4733;1.6632;
316.2000;1.4676;1.6438;
316.5000;1.4676;1.6438;
316.8000;1.4685;1.6438;
317.1000;1.4709;1.6463;
317.4000;1.4668;1.6341;
317.7000;1.4693;1.6317;
318.0000;1.4685;1.6317;
318.3000;1.4668;1.6245;
318.6000;1.4685;1.6075;
318.9000;1.4685;1.6051;
319.2000;1.4693;1.6123;
319.5000;1.4693;1.6196;
319.8000;1.4676;1.6148;
320.1000;1.4668;1.6123;
320.4000;1.4668;1.6148;
320.7000;1.4676;1.6172;
321.0000;1.4676;1.6172;
321.3000;1.4693;1.6196;
321.6000;1.4693;1.6341;
321.9000;1.4676;1.6245;
322.2000;1.4693;1.6220;
322.5000;1.4676;1.6196;
322.8000;1.4668;1.6196;
323.1000;1.4685;1.6172;
323.4000;1.4685;1.6172;
323.7000;1.4676;1.6245;
324.0000;1.4676;1.6293;
324.3000;1.4668;1.6293;
324.6000;1.4676;1.6366;
324.9000;1.4685;1.6366;
325.2000;1.4660;1.6341;
325.5000;1.4660;1.6269;
325.8000;1.4693;1.6245;
326.1000;1.4676;1.6220;
326.4000;1.4676;1.6341;
326.7000;1.4685;1.6269;
327.0000;1.4619;1.6148;
327.3000;1.4676;1.6269;
327.6000;1.4693;1.6269;
327.9000;1.4693;1.6317;
328.2000;1.4676;1.6341;
328.5000;1.4693;1.6220;
328.8000;1.4668;1.6123;
329.1000;1.4668;1.6148;
329.4000;1.4660;1.6172;
329.7000;1.4628;1.6148;
330.0000;1.4742;1.6487;
330.3000;1.4668;1.6293;
330.6000;1.4668;1.6148;
330.9000;1.4676;1.6196;
331.2000;1.4709;1.6293;
331.5000;1.4660;1.6099;
331.8000;1.4676;1.6196;
332.1000;1.4668;1.6172;
332.4000;1.4717;1.6317;
332.7000;1.4652;1.6172;
333.0000;1.4676;1.6172;
333.3000;1.4652;1.6172;
333.6000;1.4636;1.6075;
333.9000;1.4660;1.6196;
334.2000;1.4685;1.6245;
334.5000;1.4660;1.6172;
334.8000;1.4685;1.6220;
335.1000;1.4676;1.6220;
335.4000;1.4636;1.6148;
335.7000;1.4668;1.6172;
336.0000;1.4685;1.6245;
336.3000;1.4668;1.6196;
336.6000;1.4676;1.6148;
336.9000;1.4668;1.6196;
337.2000;1.4660;1.6220;
337.5000;1.4685;1.6317;
337.8000;1.4668;1.6245;
338.1000;1.4668;1.6293;
338.4000;1.4628;1.6196;
338.7000;1.4668;1.6341;
339.0000;1.4652;1.6390;
339.3000;1.4668;1.6487;
339.6000;1.4660;1.6390;
339.9000;1.4668;1.6463;
340.2000;1.4676;1.6414;
340.5000;1.4660;1.6341;
340.8000;1.4685;1.6341;
341.1000;1.4685;1.6366;
341.4000;1.4685;1.6463;
341.7000;1.4693;1.6535;
342.0000;1.4701;1.6535;
342.3000;1.4693;1.6560;
342.6000;1.4709;1.6487;
342.9000;1.4685;1.6390;
343.2000;1.4701;1.6414;
343.5000;1.4676;1.6366;
343.8000;1.4668;1.6414;
344.1000;1.4685;1.6414;
344.4000;1.4693;1.6414;
344.7000;1.4676;1.6487;
345.0000;1.4685;1.6438;
345.3000;1.4685;1.6414;
345.6000;1.4676;1.6438;
345.9000;1.4676;1.6438;
346.2000;1.4685;1.6487;
346.5000;1.4685;1.6463;
346.8000;1.4685;1.6414;
347.1000;1.4685;1.6414;
347.4000;1.4693;1.6463;
347.7000;1.4668;1.6390;
348.0000;1.4676;1.6269;
348.3000;1.4676;1.6245;
348.6000;1.4693;1.6390;
348.9000;1.4693;1.6317;
349.2000;1.4685;1.6366;
349.5000;1.4660;1.6438;
349.8000;1.4660;1.6414;
350.1000;1.4668;1.6390;
350.4000;1.4676;1.6341;
350.7000;1.4652;1.6269;
351.0000;1.4660;1.6317;
351.3000;1.4628;1.6269;
351.6000;1.4636;1.6269;
351.9000;1.4668;1.6366;
352.2000;1.4611;1.6196;
352.5000;1.4644;1.6293;
352.8000;1.4676;1.6317;
353.1000;1.4668;1.6317;
353.4000;1.4676;1.6317;
353.7000;1.4709;1.6366;
354.0000;1.4701;1.6293;
354.3000;1.4644;1.6269;
354.6000;1.4693;1.6366;
354.9000;1.4668;1.6245;
355.2000;1.4701;1.6317;
355.5000;1.4693;1.6293;
355.8000;1.4660;1.6148;
356.1000;1.4676;1.6172;
356.4000;1.4676;1.6220;
356.7000;1.4668;1.6293;
357.0000;1.4685;1.6293;
357.3000;1.4693;1.6414;
357.6000;1.4733;1.6463;
357.9000;1.4685;1.6293;
358.2000;1.4668;1.6220;
358.5000;1.4668;1.6245;
358.8000;1.4668;1.6196;
359.1000;1.4676;1.6269;
359.4000;1.4668;1.6366;
359.7000;1.4685;1.6487;
360.0000;1.4652;1.6487;
360.3000;1.4652;1.6487;
360.6000;1.4676;1.6341;
360.9000;1.4652;1.6317;
361.2000;1.4660;1.6269;
361.5000;1.4668;1.6245;
361.8000;1.4660;1.6269;
362.1000;1.4676;1.6366;
362.4000;1.4676;1.6414;
362.7000;1.4676;1.6366;
363.0000;1.4693;1.6390;
363.3000;1.4685;1.6390;
363.6000;1.4676;1.6366;
363.9000;1.4693;1.6366;
364.2000;1.4676;1.6390;
364.5000;1.4676;1.6366;
364.8000;1.4685;1.6366;
365.1000;1.4701;1.6390;
365.4000;1.4676;1.6341;
365.7000;1.4693;1.6390;
366.0000;1.4668;1.6317;
366.3000;1.4660;1.6366;
366.6000;1.4660;1.6366;
366.9000;1.4676;1.6487;
367.2000;1.4693;1.6463;
367.5000;1.4676;1.6438;
367.8000;1.4668;1.6487;
368.1000;1.4676;1.6487;
368.4000;1.4676;1.6535;
368.7000;1.4676;1.6511;
369.0000;1.4676;1.6511;
369.3000;1.4668;1.6511;
369.6000;1.4668;1.6511;
369.9000;1.4676;1.6511;
370.2000;1.4676;1.6414;
370.5000;1.4701;1.6414;
370.8000;1.4676;1.6317;
371.1000;1.4611;1.6172;
371.4000;1.4676;1.6390;
371.7000;1.4668;1.6390;
372.0000;1.4676;1.6463;
372.3000;1.4685;1.6438;
372.6000;1.4676;1.6511;
372.9000;1.4668;1.6487;
373.2000;1.4660;1.6584;
373.5000;1.4676;1.6584;
373.8000;1.4652;1.6463;
374.1000;1.4660;1.6511;
374.4000;1.4636;1.6487;
374.7000;1.4652;1.6584;
375.0000;1.4668;1.6560;
375.3000;1.4676;1.6535;
375.6000;1.4685;1.6560;
375.9000;1.4644;1.6438;
376.2000;1.4668;1.6511;
376.5000;1.4668;1.6535;
376.8000;1.4676;1.6560;
377.1000;1.4660;1.6511;
377.4000;1.4693;1.6584;
377.7000;1.4660;1.6584;
378.0000;1.4652;1.6511;
378.3000;1.4660;1.6511;
378.6000;1.4668;1.6487;
378.9000;1.4676;1.6560;
379.2000;1.4676;1.6511;
379.5000;1.4676;1.6511;
379.8000;1.4628;1.6414;
380.1000;1.4668;1.6511;
380.4000;1.4676;1.6535;
380.7000;1.4660;1.6487;
381.0000;1.4676;1.6560;
381.3000;1.4668;1.6608;
381.6000;1.4701;1.6729;
381.9000;1.4660;1.6657;
382.2000;1.4644;1.6632;
382.5000;1.4685;1.6754;
382.8000;1.4644;1.6681;
383.1000;1.4660;1.6657;
383.4000;1.4668;1.6632;
383.7000;1.4668;1.6705;
384.0000;1.4668;1.6657;
384.3000;1.4660;1.6681;
384.6000;1.4717;1.6778;
384.9000;1.4676;1.6705;
385.2000;1.4668;1.6705;
385.5000;1.4660;1.6705;
385.8000;1.4685;1.6778;
386.1000;1.4660;1.6729;
386.4000;1.4668;1.6657;
386.7000;1.4709;1.6754;
387.0000;1.4676;1.6681;
387.3000;1.4668;1.6560;
387.6000;1.4660;1.6608;
387.9000;1.4652;1.6535;
388.2000;1.4660;1.6584;
388.5000;1.4676;1.6584;
388.8000;1.4668;1.6414;
389.1000;1.4685;1.6487;
389.4000;1.4701;1.6535;
389.7000;1.4676;1.6366;
390.0000;1.4676;1.6535;
390.3000;1.4685;1.6560;
390.6000;1.4676;1.6438;
390.9000;1.4676;1.6438;
391.2000;1.4644;1.6390;
391.5000;1.4676;1.6487;
391.8000;1.4660;1.6366;
392.1000;1.4693;1.6487;
392.4000;1.4668;1.6632;
392.7000;1.4668;1.6705;
393.0000;1.4668;1.6608;
393.3000;1.4660;1.6511;
393.6000;1.4685;1.6535;
393.9000;1.4660;1.6511;
394.2000;1.4668;1.6511;
394.5000;1.4668;1.6487;
394.8000;1.4668;1.6487;
395.1000;1.4668;1.6463;
395.4000;1.4668;1.6414;
395.7000;1.4652;1.6438;
396.0000;1.4668;1.6390;
396.3000;1.4652;1.6269;
396.6000;1.4668;1.6245;
396.9000;1.4685;1.6220;
397.2000;1.4685;1.6317;
397.5000;1.4668;1.6293;
397.8000;1.4668;1.6341;
398.1000;1.4668;1.6341;
398.4000;1.4644;1.6245;
398.7000;1.4685;1.6341;
399.0000;1.4676;1.6390;
399.3000;1.4668;1.6366;
399.6000;1.4660;1.6317;
399.9000;1.4693;1.6535;
400.2000;1.4693;1.6584;
400.5000;1.4685;1.6487;
400.8000;1.4685;1.6414;
401.1000;1.4693;1.6414;
401.4000;1.4693;1.6511;
401.7000;1.4685;1.6560;
402.0000;1.4660;1.6511;
402.3000;1.4676;1.6681;
402.6000;1.4668;1.6657;
402.9000;1.4676;1.6608;
403.2000;1.4676;1.6535;
403.5000;1.4668;1.6584;
403.8000;1.4676;1.6584;
404.1000;1.4644;1.6535;
404.4000;1.4676;1.6657;
404.7000;1.4668;1.6632;
405.0000;1.4676;1.6681;
405.3000;1.4676;1.6705;
405.6000;1.4676;1.6729;
405.9000;1.4676;1.6681;
406.2000;1.4676;1.6705;
406.5000;1.4676;1.6632;
406.8000;1.4668;1.6535;
407.1000;1.4660;1.6535;
407.4000;1.4636;1.6390;
407.7000;1.4668;1.6511;
408.0000;1.4685;1.6511;
408.3000;1.4619;1.6390;
408.6000;1.4619;1.6390;
408.9000;1.4725;1.6632;
409.2000;1.4668;1.6438;
409.5000;1.4676;1.6511;
409.8000;1.4676;1.6511;
410.1000;1.4668;1.6511;
410.4000;1.4660;1.6632;
410.7000;1.4676;1.6681;
411.0000;1.4668;1.6608;
411.3000;1.4660;1.6632;
411.6000;1.4660;1.6657;
411.9000;1.4660;1.6681;
412.2000;1.4660;1.6705;
412.5000;1.4652;1.6657;
412.8000;1.4660;1.6584;
413.1000;1.4652;1.6560;
413.4000;1.4701;1.6729;
413.7000;1.4668;1.6729;
414.0000;1.4676;1.6778;
414.3000;1.4652;1.6826;
414.6000;1.4668;1.6778;
414.9000;1.4603;1.6584;
415.2000;1.4619;1.6560;
415.5000;1.4668;1.6729;
415.8000;1.4668;1.6754;
416.1000;1.4676;1.6729;
416.4000;1.4676;1.6705;
416.7000;1.4676;1.6681;
417.0000;1.4668;1.6729;
417.3000;1.4668;1.6681;
417.6000;1.4668;1.6608;
417.9000;1.4660;1.6511;
418.2000;1.4701;1.6584;
418.5000;1.4644;1.6414;
418.8000;1.4652;1.6438;
419.1000;1.4644;1.6390;
419.4000;1.4652;1.6341;
419.7000;1.4652;1.6366;
420.0000;1.4652;1.6366;
420.3000;1.4693;1.6487;
420.6000;1.4660;1.6463;
420.9000;1.4668;1.6438;
421.2000;1.4668;1.6463;
421.5000;1.4676;1.6511;
421.8000;1.4676;1.6511;
422.1000;1.4668;1.6511;
422.4000;1.4660;1.6487;
422.7000;1.4668;1.6560;
423.0000;1.4685;1.6608;
423.3000;1.4644;1.6584;
423.6000;1.4660;1.6681;
423.9000;1.4668;1.6657;
424.2000;1.4701;1.6657;
424.5000;1.4619;1.6535;
424.8000;1.4676;1.6657;
425.1000;1.4652;1.6681;
425.4000;1.4668;1.6681;
425.7000;1.4733;1.6826;
426.0000;1.4660;1.6681;
426.3000;1.4652;1.6705;
426.6000;1.4644;1.6754;
426.9000;1.4668;1.6826;
427.2000;1.4660;1.6778;
427.5000;1.4660;1.6729;
427.8000;1.4644;1.6681;
428.1000;1.4652;1.6681;
428.4000;1.4644;1.6705;
428.7000;1.4660;1.6681;
429.0000;1.4676;1.6705;
429.3000;1.4693;1.6778;
429.6000;1.4701;1.6754;
429.9000;1.4660;1.6657;
430.2000;1.4668;1.6705;
430.5000;1.4701;1.6851;
430.8000;1.4668;1.6778;
431.1000;1.4668;1.6778;
431.4000;1.4676;1.6802;
431.7000;1.4636;1.6657;
432.0000;1.4668;1.6778;
432.3000;1.4611;1.6705;
432.6000;1.4676;1.6705;
432.9000;1.4644;1.6632;
433.2000;1.4644;1.6584;
433.5000;1.4709;1.6705;
433.8000;1.4652;1.6608;
434.1000;1.4611;1.6535;
434.4000;1.4660;1.6632;
434.7000;1.4652;1.6681;
435.0000;1.4725;1.6899;
435.3000;1.4652;1.6754;
435.6000;1.4676;1.6729;
435.9000;1.4652;1.6657;
436.2000;1.4676;1.6657;
436.5000;1.4660;1.6560;
436.8000;1.4676;1.6608;
437.1000;1.4652;1.6535;
437.4000;1.4676;1.6584;
437.7000;1.4660;1.6511;
438.0000;1.4652;1.6463;
438.3000;1.4725;1.6608;
438.6000;1.4676;1.6511;
438.9000;1.4668;1.6438;
439.2000;1.4628;1.6269;
439.5000;1.4660;1.6390;
439.8000;1.4668;1.6341;
440.1000;1.4701;1.6560;
440.4000;1.4701;1.6584;
440.7000;1.4685;1.6632;
441.0000;1.4701;1.6754;
441.3000;1.4644;1.6584;
441.6000;1.4668;1.6560;
441.9000;1.4660;1.6535;
442.2000;1.4676;1.6608;
442.5000;1.4660;1.6681;
442.8000;1.4652;1.6657;
443.1000;1.4685;1.6705;
443.4000;1.4660;1.6681;
443.7000;1.4668;1.6584;
444.0000;1.4668;1.6608;
444.3000;1.4685;1.6657;
444.6000;1.4652;1.6535;
444.9000;1.4652;1.6535;
445.2000;1.4644;1.6560;
445.5000;1.4652;1.6535;
445.8000;1.4676;1.6560;
446.1000;1.4668;1.6487;
446.4000;1.4693;1.6608;
446.7000;1.4701;1.6681;
447.0000;1.4652;1.6584;
447.3000;1.4660;1.6632;
447.6000;1.4758;1.7020;
447.9000;1.4652;1.6754;
448.2000;1.4685;1.6802;
448.5000;1.4660;1.6632;
448.8000;1.4668;1.6632;
449.1000;1.4660;1.6705;
449.4000;1.4611;1.6632;
449.7000;1.4660;1.6681;
450.0000;1.4668;1.6729;
450.3000;1.4676;1.6778;
450.6000;1.4668;1.6681;
450.9000;1.4676;1.6729;
451.2000;1.4676;1.6754;
451.5000;1.4668;1.6729;
451.8000;1.4652;1.6681;
452.1000;1.4676;1.6754;
452.4000;1.4660;1.6778;
452.7000;1.4611;1.6632;
453.0000;1.4652;1.6778;
453.3000;1.4652;1.6778;
453.6000;1.4668;1.6778;
453.9000;1.4668;1.6754;
454.2000;1.4660;1.6754;
454.5000;1.4660;1.6802;
454.8000;1.4660;1.6851;
455.1000;1.4668;1.6802;
455.4000;1.4668;1.6778;
455.7000;1.4660;1.6657;
456.0000;1.4652;1.6705;
456.3000;1.4668;1.6657;
456.6000;1.4652;1.6632;
456.9000;1.4660;1.6608;
457.2000;1.4660;1.6681;
457.5000;1.4676;1.6632;
457.8000;1.4668;1.6584;
458.1000;1.4685;1.6584;
458.4000;1.4685;1.6560;
458.7000;1.4668;1.6463;
459.0000;1.4636;1.6390;
459.3000;1.4660;1.6487;
459.6000;1.4668;1.6438;
459.9000;1.4668;1.6390;
460.2000;1.4660;1.6414;
460.5000;1.4652;1.6438;
460.8000;1.4660;1.6463;
461.1000;1.4660;1.6463;
461.4000;1.4685;1.6487;
461.7000;1.4676;1.6463;
462.0000;1.4644;1.6390;
462.3000;1.4668;1.6438;
462.6000;1.4685;1.6463;
462.9000;1.4676;1.6487;
463.2000;1.4685;1.6511;
463.5000;1.4652;1.6438;
463.8000;1.4660;1.6535;
464.1000;1.4701;1.6608;
464.4000;1.4660;1.6535;
464.7000;1.4652;1.6535;
465.0000;1.4652;1.6560;
465.3000;1.4701;1.6681;
465.6000;1.4668;1.6584;
465.9000;1.4668;1.6584;
466.2000;1.4660;1.6608;
466.5000;1.4652;1.6584;
466.8000;1.4652;1.6632;
467.1000;1.4644;1.6705;
467.4000;1.4660;1.6705;
467.7000;1.4652;1.6705;
468.0000;1.4668;1.6657;
468.3000;1.4668;1.6608;
468.6000;1.4676;1.6729;
468.9000;1.4676;1.6802;
469.2000;1.4660;1.6778;
469.5000;1.4652;1.6681;
469.8000;1.4636;1.6657;
470.1000;1.4660;1.6632;
470.4000;1.4595;1.6487;
470.7000;1.4652;1.6511;
471.0000;1.4652;1.6463;
471.3000;1.4644;1.6511;
471.6000;1.4644;1.6511;
471.9000;1.4733;1.6681;
472.2000;1.4660;1.6511;
472.5000;1.4660;1.6487;
472.8000;1.4668;1.6535;
473.1000;1.4668;1.6535;
473.4000;1.4652;1.6511;
473.7000;1.4668;1.6511;
474.0000;1.4668;1.6438;
474.3000;1.4660;1.6390;
474.6000;1.4668;1.6414;
474.9000;1.4644;1.6390;
475.2000;1.4652;1.6487;
475.5000;1.4652;1.6535;
475.8000;1.4628;1.6414;
476.1000;1.4660;1.6560;
476.4000;1.4660;1.6487;
476.7000;1.4668;1.6511;
477.0000;1.4644;1.6487;
477.3000;1.4660;1.6584;
477.6000;1.4644;1.6487;
477.9000;1.4636;1.6560;
478.2000;1.4676;1.6657;
478.5000;1.4619;1.6560;
478.8000;1.4644;1.6608;
479.1000;1.4676;1.6705;
479.4000;1.4652;1.6608;
479.7000;1.4644;1.6584;
480.0000;1.4636;1.6560;
480.3000;1.4652;1.6535;
480.6000;1.4685;1.6608;
480.9000;1.4668;1.6632;
481.2000;1.4652;1.6681;
481.5000;1.4668;1.6705;
481.8000;1.4668;1.6632;
482.1000;1.4676;1.6632;
482.4000;1.4676;1.6632;
482.7000;1.4660;1.6632;
483.0000;1.4676;1.6608;
483.3000;1.4644;1.6535;
483.6000;1.4660;1.6560;
483.9000;1.4660;1.6487;
484.2000;1.4668;1.6414;
484.5000;1.4668;1.6560;
484.8000;1.4660;1.6584;
485.1000;1.4709;1.6802;
485.4000;1.4644;1.6705;
485.7000;1.4660;1.6754;
486.0000;1.4644;1.6729;
486.3000;1.4676;1.6802;
486.6000;1.4644;1.6729;
486.9000;1.4652;1.6705;
487.2000;1.4701;1.6851;
487.5000;1.4644;1.6826;
487.8000;1.4652;1.6754;
488.1000;1.4685;1.6778;
488.4000;1.4660;1.6632;
488.7000;1.4660;1.6681;
489.0000;1.4644;1.6632;
489.3000;1.4709;1.6778;
489.6000;1.4660;1.6657;
489.9000;1.4636;1.6608;
490.2000;1.4644;1.6608;
490.5000;1.4652;1.6608;
490.8000;1.4660;1.6632;
491.1000;1.4660;1.6584;
491.4000;1.4676;1.6681;
491.7000;1.4668;1.6754;
492.0000;1.4660;1.6729;
492.3000;1.4685;1.6826;
492.6000;1.4660;1.6729;
492.9000;1.4652;1.6729;
493.2000;1.4660;1.6729;
493.5000;1.4628;1.6778;
493.8000;1.4660;1.6802;
494.1000;1.4652;1.6754;
494.4000;1.4660;1.6729;
494.7000;1.4644;1.6681;
495.0000;1.4652;1.6681;
495.3000;1.4636;1.6681;
495.6000;1.4685;1.6705;
495.9000;1.4668;1.6657;
496.2000;1.4652;1.6584;
496.5000;1.4652;1.6511;
496.8000;1.4652;1.6511;
497.1000;1.4660;1.6560;
497.4000;1.4628;1.6487;
497.7000;1.4652;1.6535;
498.0000;1.4660;1.6560;
498.3000;1.4676;1.6608;
498.6000;1.4668;1.6560;
498.9000;1.4668;1.6657;
499.2000;1.4660;1.6632;
499.5000;1.4676;1.6584;
499.8000;1.4668;1.6535;
500.1000;1.4644;1.6487;
500.4000;1.4652;1.6511;
500.7000;1.4636;1.6535;
501.0000;1.4652;1.6632;
501.3000;1.4652;1.6632;
501.6000;1.4644;1.6584;
501.9000;1.4652;1.6608;
502.2000;1.4660;1.6608;
502.5000;1.4644;1.6608;
502.8000;1.4644;1.6608;
503.1000;1.4652;1.6584;
503.4000;1.4652;1.6608;
503.7000;1.4668;1.6608;
504.0000;1.4676;1.6560;
504.3000;1.4652;1.6487;
504.6000;1.4668;1.6535;
504.9000;1.4676;1.6463;
505.2000;1.4668;1.6438;
505.5000;1.4660;1.6463;
505.8000;1.4652;1.6560;
506.1000;1.4668;1.6632;
506.4000;1.4644;1.6681;
506.7000;1.4660;1.6705;
507.0000;1.4652;1.6657;
507.3000;1.4668;1.6632;
507.6000;1.4660;1.6584;
507.9000;1.4652;1.6584;
508.2000;1.4652;1.6608;
508.5000;1.4660;1.6511;
508.8000;1.4685;1.6608;
509.1000;1.4676;1.6608;
509.4000;1.4644;1.6511;
509.7000;1.4636;1.6535;
510.0000;1.4660;1.6584;
510.3000;1.4652;1.6608;
510.6000;1.4652;1.6681;
510.9000;1.4644;1.6632;
511.2000;1.4644;1.6608;
511.5000;1.4644;1.6632;
511.8000;1.4644;1.6681;
512.1000;1.4644;1.6657;
512.4000;1.4652;1.6584;
512.7000;1.4652;1.6560;
513.0000;1.4652;1.6584;
513.3000;1.4652;1.6584;
513.6000;1.4660;1.6705;
513.9000;1.4676;1.6705;
514.2000;1.4668;1.6778;
514.5000;1.4652;1.6754;
514.8000;1.4644;1.6729;
515.1000;1.4652;1.6729;
515.4000;1.4652;1.6681;
515.7000;1.4644;1.6705;
516.0000;1.4652;1.6632;
516.3000;1.4660;1.6632;
516.6000;1.4652;1.6608;
516.9000;1.4685;1.6657;
517.2000;1.4668;1.6681;
517.5000;1.4644;1.6584;
517.8000;1.4660;1.6584;
518.1000;1.4579;1.6341;
518.4000;1.4619;1.6438;
518.7000;1.4652;1.6463;
519.0000;1.4660;1.6608;
519.3000;1.4644;1.6584;
519.6000;1.4652;1.6632;
519.9000;1.4652;1.6657;
520.2000;1.4636;1.6681;
520.5000;1.4636;1.6681;
520.8000;1.4652;1.6705;
521.1000;1.4644;1.6778;
521.4000;1.4603;1.6632;
521.7000;1.4660;1.6778;
522.0000;1.4652;1.6705;
522.3000;1.4652;1.6657;
522.6000;1.4652;1.6584;
522.9000;1.4652;1.6584;
523.2000;1.4636;1.6584;
523.5000;1.4676;1.6729;
523.8000;1.4660;1.6729;
524.1000;1.4668;1.6681;
524.4000;1.4652;1.6657;
524.7000;1.4644;1.6705;
525.0000;1.4652;1.6754;
525.3000;1.4668;1.6778;
525.6000;1.4644;1.6729;
525.9000;1.4644;1.6826;
526.2000;1.4644;1.6754;
526.5000;1.4579;1.6657;
526.8000;1.4652;1.6802;
527.1000;1.4660;1.6826;
527.4000;1.4644;1.6632;
527.7000;1.4660;1.6657;
528.0000;1.4652;1.6632;
528.3000;1.4644;1.6632;
528.6000;1.4652;1.6657;
528.9000;1.4676;1.6705;
529.2000;1.4628;1.6560;
529.5000;1.4652;1.6535;
529.8000;1.4660;1.6584;
530.1000;1.4603;1.6535;
530.4000;1.4652;1.6560;
530.7000;1.4644;1.6511;
531.0000;1.4579;1.6366;
531.3000;1.4652;1.6511;
531.6000;1.4660;1.6560;
531.9000;1.4652;1.6632;
532.2000;1.4668;1.6778;
532.5000;1.4668;1.6802;
532.8000;1.4636;1.6778;
533.1000;1.4628;1.6729;
533.4000;1.4652;1.6681;
533.7000;1.4644;1.6535;
534.0000;1.4628;1.6535;
534.3000;1.4636;1.6535;
534.6000;1.4644;1.6535;
534.9000;1.4652;1.6560;
535.2000;1.4644;1.6632;
535.5000;1.4660;1.6681;
535.8000;1.4636;1.6632;
536.1000;1.4611;1.6487;
536.4000;1.4636;1.6584;
536.7000;1.4644;1.6657;
537.0000;1.4660;1.6754;
537.3000;1.4636;1.6681;
537.6000;1.4644;1.6851;
537.9000;1.4652;1.6923;
538.2000;1.4685;1.6948;
538.5000;1.4644;1.6826;
538.8000;1.4636;1.6778;
539.1000;1.4636;1.6851;
539.4000;1.4733;1.6996;
539.7000;1.4652;1.6778;
540.0000;1.4644;1.6729;
540.3000;1.4652;1.6729;
540.6000;1.4636;1.6681;
540.9000;1.4644;1.6705;
541.2000;1.4660;1.6705;
541.5000;1.4660;1.6754;
541.8000;1.4668;1.6778;
542.1000;1.4660;1.6754;
542.4000;1.4636;1.6705;
542.7000;1.4587;1.6463;
543.0000;1.4636;1.6657;
543.3000;1.4628;1.6608;
543.6000;1.4652;1.6705;
543.9000;1.4652;1.6657;
544.2000;1.4628;1.6705;
544.5000;1.4652;1.6754;
544.8000;1.4644;1.6899;
545.1000;1.4644;1.6899;
545.4000;1.4644;1.6851;
545.7000;1.4701;1.6948;
546.0000;1.4636;1.6802;
546.3000;1.4644;1.6778;
546.6000;1.4652;1.6826;
546.9000;1.4644;1.6754;
547.2000;1.4676;1.6778;
547.5000;1.4660;1.6705;
547.8000;1.4652;1.6729;
548.1000;1.4660;1.6705;
548.4000;1.4668;1.6681;
548.7000;1.4628;1.6632;
549.0000;1.4636;1.6657;
549.3000;1.4644;1.6729;
549.6000;1.4660;1.6729;
549.9000;1.4628;1.6608;
550.2000;1.4652;1.6681;
550.5000;1.4652;1.6657;
550.8000;1.4668;1.6632;
551.1000;1.4652;1.6632;
551.4000;1.4644;1.6632;
551.7000;1.4619;1.6608;
552.0000;1.4628;1.6608;
552.3000;1.4636;1.6584;
552.6000;1.4636;1.6560;
552.9000;1.4652;1.6608;
553.2000;1.4652;1.6608;
553.5000;1.4660;1.6681;
553.8000;1.4660;1.6657;
554.1000;1.4644;1.6681;
554.4000;1.4619;1.6754;
554.7000;1.4652;1.6875;
555.0000;1.4611;1.6681;
555.3000;1.4652;1.6754;
555.6000;1.4644;1.6754;
555.9000;1.4668;1.6754;
556.2000;1.4660;1.6657;
556.5000;1.4644;1.6632;
556.8000;1.4636;1.6657;
557.1000;1.4676;1.6802;
557.4000;1.4660;1.6729;
557.7000;1.4644;1.6705;
558.0000;1.4628;1.6584;
558.3000;1.4644;1.6608;
558.6000;1.4636;1.6608;
558.9000;1.4652;1.6608;
559.2000;1.4644;1.6463;
559.5000;1.4636;1.6414;
559.8000;1.4652;1.6511;
560.1000;1.4652;1.6535;
560.4000;1.4644;1.6560;
560.7000;1.4636;1.6681;
561.0000;1.4652;1.6681;
561.3000;1.4636;1.6584;
561.6000;1.4628;1.6560;
561.9000;1.4644;1.6560;
562.2000;1.4644;1.6535;
562.5000;1.4644;1.6535;
562.8000;1.4636;1.6511;
563.1000;1.4628;1.6487;
563.4000;1.4652;1.6438;
563.7000;1.4652;1.6463;
564.0000;1.4644;1.6511;
564.3000;1.4628;1.6560;
564.6000;1.4603;1.6487;
564.9000;1.4644;1.6560;
565.2000;1.4652;1.6584;
565.5000;1.4644;1.6584;
565.8000;1.4644;1.6632;
566.1000;1.4628;1.6535;
566.4000;1.4644;1.6657;
566.7000;1.4636;1.6608;
567.0000;1.4595;1.6511;
567.3000;1.4636;1.6584;
567.6000;1.4628;1.6608;
567.9000;1.4628;1.6632;
568.2000;1.4628;1.6584;
568.5000;1.4595;1.6511;
568.8000;1.4636;1.6584;
569.1000;1.4636;1.6681;
569.4000;1.4628;1.6729;
569.7000;1.4619;1.6632;
570.0000;1.4644;1.6681;
570.3000;1.4644;1.6681;
570.6000;1.4636;1.6608;
570.9000;1.4636;1.6560;
571.2000;1.4628;1.6560;
571.5000;1.4603;1.6487;
571.8000;1.4636;1.6511;
572.1000;1.4554;1.6317;
572.4000;1.4652;1.6511;
572.7000;1.4628;1.6535;
573.0000;1.4644;1.6463;
573.3000;1.4636;1.6463;
573.6000;1.4619;1.6390;
573.9000;1.4660;1.6487;
574.2000;1.4668;1.6584;
574.5000;1.4628;1.6511;
574.8000;1.4628;1.6560;
575.1000;1.4644;1.6632;
575.4000;1.4652;1.6584;
575.7000;1.4644;1.6560;
576.0000;1.4636;1.6560;
576.3000;1.4652;1.6560;
576.6000;1.4668;1.6487;
576.9000;1.4644;1.6487;
577.2000;1.4652;1.6511;
577.5000;1.4676;1.6560;
577.8000;1.4644;1.6560;
578.1000;1.4603;1.6535;
578.4000;1.4717;1.6826;
578.7000;1.4636;1.6681;
579.0000;1.4660;1.6632;
579.3000;1.4660;1.6584;
579.6000;1.4644;1.6511;
579.9000;1.4644;1.6511;
580.2000;1.4660;1.6535;
580.5000;1.4611;1.6438;
580.8000;1.4644;1.6608;
581.1000;1.4644;1.6632;
581.4000;1.4579;1.6390;
581.7000;1.4660;1.6560;
582.0000;1.4660;1.6584;
582.3000;1.4644;1.6560;
582.6000;1.4644;1.6657;
582.9000;1.4668;1.6705;
583.2000;1.4660;1.6729;
583.5000;1.4652;1.6705;
583.8000;1.4636;1.6705;
584.1000;1.4636;1.6705;
584.4000;1.4644;1.6705;
584.7000;1.4644;1.6705;
585.0000;1.4636;1.6802;
585.3000;1.4660;1.6802;
585.6000;1.4652;1.6778;
585.9000;1.4652;1.6778;
586.2000;1.4636;1.6729;
586.5000;1.4644;1.6681;
586.8000;1.4660;1.6729;
587.1000;1.4652;1.6754;
587.4000;1.4603;1.6681;
587.7000;1.4644;1.6802;
588.0000;1.4644;1.6802;
588.3000;1.4611;1.6657;
588.6000;1.4636;1.6729;
588.9000;1.4636;1.6657;
589.2000;1.4644;1.6657;
589.5000;1.4652;1.6657;
589.8000;1.4668;1.6705;
590.1000;1.4676;1.6729;
590.4000;1.4644;1.6632;
590.7000;1.4579;1.6487;
591.0000;1.4636;1.6632;
591.3000;1.4636;1.6608;
591.6000;1.4693;1.6705;
591.9000;1.4619;1.6560;
592.2000;1.4628;1.6584;
592.5000;1.4628;1.6632;
592.8000;1.4628;1.6681;
593.1000;1.4619;1.6681;
593.4000;1.4628;1.6657;
593.7000;1.4628;1.6584;
594.0000;1.4652;1.6584;
594.3000;1.4660;1.6511;
594.6000;1.4595;1.6293;
594.9000;1.4628;1.6366;
595.2000;1.4628;1.6390;
595.5000;1.4636;1.6390;
595.8000;1.4709;1.6632;
596.1000;1.4644;1.6535;
596.4000;1.4644;1.6535;
596.7000;1.4644;1.6632;
597.0000;1.4652;1.6657;
597.3000;1.4628;1.6632;
597.6000;1.4619;1.6584;
597.9000;1.4628;1.6584;
598.2000;1.4628;1.6584;
598.5000;1.4619;1.6584;
598.8000;1.4636;1.6535;
599.1000;1.4603;1.6511;
599.4000;1.4628;1.6584;
599.7000;1.4619;1.6487;
600.0000;1.4660;1.6535;
600.3000;1.4685;1.6560;
600.6000;1.4628;1.6366;
600.9000;1.4546;1.6220;
601.2000;1.4440;1.5954;
601.5000;1.4294;1.5687;
601.8000;1.4180;1.5614;
602.1000;1.4058;1.5566;
602.4000;1.3928;1.5493;
602.7000;1.3765;1.5202;
603.0000;1.3651;1.4984;
603.3000;1.3537;1.4911;
603.6000;1.3415;1.4766;
603.9000;1.3293;1.4596;
604.2000;1.3138;1.4353;
604.5000;1.3097;1.4329;
604.8000;1.3000;1.4232;
605.1000;1.2918;1.4135;
605.4000;1.2821;1.3990;
605.7000;1.2747;1.3868;
606.0000;1.2674;1.3699;
606.3000;1.2633;1.3747;
606.6000;1.2503;1.3505;
606.9000;1.2430;1.3505;
607.2000;1.2348;1.3481;
607.5000;1.2291;1.3505;
607.8000;1.2177;1.3384;
608.1000;1.2104;1.3359;
608.4000;1.2072;1.3408;
608.7000;1.1990;1.3384;
609.0000;1.1941;1.3359;
609.3000;1.1860;1.3287;
609.6000;1.1819;1.3359;
609.9000;1.1754;1.3335;
610.2000;1.1689;1.3238;
610.5000;1.1616;1.3141;
610.8000;1.1583;1.3214;
611.1000;1.1510;1.3190;
611.4000;1.1469;1.3165;
611.7000;1.1429;1.3238;
612.0000;1.1355;1.3141;
612.3000;1.1298;1.3093;
612.6000;1.1258;1.3044;
612.9000;1.1201;1.2996;
613.2000;1.1152;1.2996;
613.5000;1.1103;1.2947;
613.8000;1.1095;1.2996;
614.1000;1.1022;1.2971;
614.4000;1.0956;1.2947;
614.7000;1.0916;1.2899;
615.0000;1.0908;1.2947;
615.3000;1.0834;1.2850;
615.6000;1.0818;1.2729;
615.9000;1.0753;1.2632;
616.2000;1.0696;1.2511;
616.5000;1.0680;1.2583;
616.8000;1.0623;1.2656;
617.1000;1.0582;1.2583;
617.4000;1.0533;1.2656;
617.7000;1.0492;1.2535;
618.0000;1.0468;1.2559;
618.3000;1.0419;1.2583;
618.6000;1.0379;1.2559;
618.9000;1.0387;1.2656;
619.2000;1.0313;1.2462;
619.5000;1.0281;1.2486;
619.8000;1.0248;1.2438;
620.1000;1.0248;1.2608;
620.4000;1.0175;1.2486;
620.7000;1.0151;1.2389;
621.0000;1.0110;1.2317;
621.3000;1.0094;1.2317;
621.6000;1.0061;1.2292;
621.9000;1.0028;1.2341;
622.2000;0.9996;1.2365;
622.5000;0.9963;1.2389;
622.8000;0.9955;1.2341;
623.1000;0.9931;1.2389;
623.4000;0.9858;1.2365;
623.7000;0.9841;1.2365;
624.0000;0.9792;1.2292;
624.3000;0.9744;1.2317;
624.6000;0.9735;1.2292;
624.9000;0.9719;1.2268;
625.2000;0.9695;1.2244;
625.5000;0.9654;1.2317;
625.8000;0.9630;1.2317;
626.1000;0.9613;1.2341;
626.4000;0.9597;1.2292;
626.7000;0.9581;1.2268;
627.0000;0.9565;1.2244;
627.3000;0.9499;1.2099;
627.6000;0.9491;1.2123;
627.9000;0.9434;1.2002;
628.2000;0.9459;1.2196;
628.5000;0.9434;1.2171;
628.8000;0.9402;1.2268;
629.1000;0.9377;1.2292;
629.4000;0.9296;1.2123;
629.7000;0.9337;1.2196;
630.0000;0.9320;1.2220;
630.3000;0.9288;1.2244;
630.6000;0.9263;1.2147;
630.9000;0.9255;1.2244;
631.2000;0.9231;1.2220;
631.5000;0.9214;1.2196;
631.8000;0.9206;1.2196;
632.1000;0.9101;1.1977;
632.4000;0.9149;1.2099;
632.7000;0.9133;1.2171;
633.0000;0.9109;1.2099;
633.3000;0.9092;1.2147;
633.6000;0.9068;1.2147;
633.9000;0.9101;1.2244;
634.2000;0.9011;1.2099;
634.5000;0.9060;1.2220;
634.8000;0.9003;1.2147;
635.1000;0.8987;1.2196;
635.4000;0.9011;1.2292;
635.7000;0.8938;1.2099;
636.0000;0.8938;1.2147;
636.3000;0.8913;1.2099;
636.6000;0.8897;1.2123;
636.9000;0.8897;1.2196;
637.2000;0.8848;1.2074;
637.5000;0.8856;1.2074;
637.8000;0.8840;1.2026;
638.1000;0.8824;1.1929;
638.4000;0.8807;1.1929;
638.7000;0.8816;1.2002;
639.0000;0.8783;1.1929;
639.3000;0.8775;1.2026;
639.6000;0.8742;1.1929;
639.9000;0.8742;1.1905;
640.2000;0.8718;1.1808;
640.5000;0.8702;1.1735;
640.8000;0.8710;1.1759;
641.1000;0.8685;1.1808;
641.4000;0.8677;1.1808;
641.7000;0.8645;1.1735;
642.0000;0.8645;1.1686;
642.3000;0.8637;1.1711;
642.6000;0.8628;1.1783;
642.9000;0.8620;1.1856;
643.2000;0.8612;1.1905;
643.5000;0.8604;1.1880;
643.8000;0.8580;1.1856;
644.1000;0.8555;1.1783;
644.4000;0.8555;1.1880;
644.7000;0.8523;1.1905;
645.0000;0.8514;1.1929;
645.3000;0.8498;1.1929;
645.6000;0.8506;1.1977;
645.9000;0.8490;1.1953;
646.2000;0.8482;1.1953;
646.5000;0.8457;1.1905;
646.8000;0.8449;1.1880;
647.1000;0.8449;1.1929;
647.4000;0.8433;1.1905;
647.7000;0.8409;1.1880;
648.0000;0.8409;1.1880;
648.3000;0.8417;1.1977;
648.6000;0.8392;1.1905;
648.9000;0.8335;1.1905;
649.2000;0.8384;1.2026;
649.5000;0.8344;1.2002;
649.8000;0.8335;1.2002;
650.1000;0.8295;1.1929;
650.4000;0.8278;1.1929;
650.7000;0.8311;1.2002;
651.0000;0.8278;1.1905;
651.3000;0.8287;1.1977;
651.6000;0.8287;1.1856;
651.9000;0.8278;1.1856;
652.2000;0.8262;1.1856;
652.5000;0.8254;1.1953;
652.8000;0.8287;1.2074;
653.1000;0.8189;1.1905;
653.4000;0.8262;1.2050;
653.7000;0.8197;1.2002;
654.0000;0.8213;1.2002;
654.3000;0.8205;1.1953;
654.6000;0.8205;1.1880;
654.9000;0.8132;1.1686;
655.2000;0.8181;1.1808;
655.5000;0.8148;1.1711;
655.8000;0.8140;1.1759;
656.1000;0.8189;1.1905;
656.4000;0.8156;1.1880;
656.7000;0.8132;1.1832;
657.0000;0.8099;1.1735;
657.3000;0.8107;1.1808;
657.6000;0.8107;1.1856;
657.9000;0.8107;1.1856;
658.2000;0.8042;1.1711;
658.5000;0.8091;1.1856;
658.8000;0.8164;1.2026;
659.1000;0.8059;1.1856;
659.4000;0.8026;1.1759;
659.7000;0.8099;1.1929;
660.0000;0.8026;1.1735;
660.3000;0.8026;1.1711;
660.6000;0.8042;1.1783;
660.9000;0.8026;1.1783;
661.2000;0.7977;1.1686;
661.5000;0.8002;1.1759;
661.8000;0.7993;1.1759;
662.1000;0.7993;1.1783;
662.4000;0.7977;1.1711;
662.7000;0.7969;1.1759;
663.0000;0.7961;1.1808;
663.3000;0.7961;1.1929;
663.6000;0.7945;1.1929;
663.9000;0.7945;1.1929;
664.2000;0.7961;1.1905;
664.5000;0.7896;1.1735;
664.8000;0.7896;1.1711;
665.1000;0.7912;1.1832;
665.4000;0.7904;1.1783;
665.7000;0.7912;1.1783;
666.0000;0.7912;1.1808;
666.3000;0.7888;1.1783;
666.6000;0.7896;1.1808;
666.9000;0.7855;1.1686;
667.2000;0.7888;1.1783;
667.5000;0.7904;1.1808;
667.8000;0.7880;1.1783;
668.1000;0.7880;1.1856;
668.4000;0.7863;1.1856;
668.7000;0.7855;1.1929;
669.0000;0.7823;1.1783;
669.3000;0.7831;1.1832;
669.6000;0.7831;1.1880;
669.9000;0.7831;1.1880;
670.2000;0.7823;1.1905;
670.5000;0.7814;1.1856;
670.8000;0.7823;1.1929;
671.1000;0.7855;1.1953;
671.4000;0.7798;1.1929;
671.7000;0.7798;1.1977;
672.0000;0.7774;1.1929;
672.3000;0.7863;1.2099;
672.6000;0.7790;1.1929;
672.9000;0.7749;1.1880;
673.2000;0.7757;1.1832;
673.5000;0.7790;1.1953;
673.8000;0.7757;1.1856;
674.1000;0.7725;1.1735;
674.4000;0.7749;1.1808;
674.7000;0.7733;1.1759;
675.0000;0.7741;1.1929;
675.3000;0.7733;1.1929;
675.6000;0.7717;1.1808;
675.9000;0.7733;1.1856;
676.2000;0.7709;1.1832;
676.5000;0.7717;1.1856;
676.8000;0.7709;1.1929;
677.1000;0.7692;1.2002;
677.4000;0.7692;1.2026;
677.7000;0.7692;1.2074;
678.0000;0.7676;1.1953;
678.3000;0.7692;1.1953;
678.6000;0.7684;1.1977;
678.9000;0.7684;1.1977;
679.2000;0.7668;1.2026;
679.5000;0.7660;1.2050;
679.8000;0.7684;1.2074;
680.1000;0.7660;1.1953;
680.4000;0.7660;1.1856;
680.7000;0.7652;1.1783;
681.0000;0.7643;1.1808;
681.3000;0.7643;1.1808;
681.6000;0.7652;1.1808;
681.9000;0.7619;1.1783;
682.2000;0.7595;1.1759;
682.5000;0.7603;1.1808;
682.8000;0.7603;1.1832;
683.1000;0.7603;1.1856;
683.4000;0.7603;1.1808;
683.7000;0.7586;1.1808;
684.0000;0.7603;1.1783;
684.3000;0.7562;1.1711;
684.6000;0.7538;1.1711;
684.9000;0.7554;1.1711;
685.2000;0.7595;1.1735;
685.5000;0.7570;1.1759;
685.8000;0.7554;1.1808;
686.1000;0.7554;1.1808;
686.4000;0.7554;1.1856;
686.7000;0.7538;1.1808;
687.0000;0.7554;1.1856;
687.3000;0.7538;1.1808;
687.6000;0.7530;1.1783;
687.9000;0.7546;1.1783;
688.2000;0.7546;1.1832;
688.5000;0.7530;1.1783;
688.8000;0.7546;1.1856;
689.1000;0.7546;1.1856;
689.4000;0.7521;1.1759;
689.7000;0.7505;1.1808;
690.0000;0.7505;1.1905;
690.3000;0.7521;1.1929;
690.6000;0.7505;1.1832;
690.9000;0.7513;1.1832;
691.2000;0.7505;1.1832;
691.5000;0.7481;1.1783;
691.8000;0.7481;1.1686;
692.1000;0.7481;1.1614;
692.4000;0.7489;1.1589;
692.7000;0.7489;1.1711;
693.0000;0.7456;1.1686;
693.3000;0.7473;1.1856;
693.6000;0.7481;1.1856;
693.9000;0.7481;1.1808;
694.2000;0.7464;1.1759;
694.5000;0.7456;1.1735;
694.8000;0.7448;1.1808;
695.1000;0.7448;1.1808;
695.4000;0.7456;1.1711;
695.7000;0.7440;1.1589;
696.0000;0.7464;1.1614;
696.3000;0.7424;1.1517;
696.6000;0.7448;1.1541;
696.9000;0.7432;1.1541;
697.2000;0.7424;1.1541;
697.5000;0.7416;1.1492;
697.8000;0.7424;1.1589;
698.1000;0.7416;1.1711;
698.4000;0.7473;1.1953;
698.7000;0.7407;1.1856;
699.0000;0.7391;1.1856;
699.3000;0.7416;1.1880;
699.6000;0.7383;1.1808;
699.9000;0.7399;1.1759;
700.2000;0.7391;1.1711;
700.5000;0.7399;1.1662;
700.8000;0.7359;1.1565;
701.1000;0.7399;1.1686;
701.4000;0.7375;1.1808;
701.7000;0.7383;1.1808;
702.0000;0.7383;1.1711;
702.3000;0.7359;1.1541;
702.6000;0.7367;1.1565;
702.9000;0.7375;1.1662;
703.2000;0.7359;1.1711;
703.5000;0.7359;1.1614;
703.8000;0.7367;1.1735;
704.1000;0.7367;1.1735;
704.4000;0.7359;1.1686;
704.7000;0.7383;1.1832;
705.0000;0.7350;1.1808;
705.3000;0.7342;1.1832;
705.6000;0.7359;1.1735;
705.9000;0.7350;1.1759;
706.2000;0.7334;1.1759;
706.5000;0.7334;1.1735;
706.8000;0.7334;1.1783;
707.1000;0.7326;1.1686;
707.4000;0.7326;1.1711;
707.7000;0.7342;1.1711;
708.0000;0.7318;1.1662;
708.3000;0.7326;1.1686;
708.6000;0.7318;1.1686;
708.9000;0.7318;1.1759;
709.2000;0.7302;1.1711;
709.5000;0.7318;1.1662;
709.8000;0.7310;1.1638;
710.1000;0.7318;1.1735;
710.4000;0.7310;1.1686;
710.7000;0.7302;1.1686;
711.0000;0.7326;1.1735;
711.3000;0.7302;1.1565;
711.6000;0.7326;1.1589;
711.9000;0.7293;1.1541;
712.2000;0.7285;1.1638;
712.5000;0.7285;1.1662;
712.8000;0.7269;1.1638;
713.1000;0.7326;1.1759;
713.4000;0.7293;1.1662;
713.7000;0.7285;1.1686;
714.0000;0.7277;1.1735;
714.3000;0.7269;1.1808;
714.6000;0.7261;1.1856;
714.9000;0.7277;1.1856;
715.2000;0.7261;1.1759;
715.5000;0.7261;1.1783;
715.8000;0.7253;1.1735;
716.1000;0.7269;1.1686;
716.4000;0.7245;1.1662;
716.7000;0.7196;1.1517;
717.0000;0.7204;1.1614;
717.3000;0.7261;1.1856;
717.6000;0.7245;1.1856;
717.9000;0.7285;1.1953;
718.2000;0.7253;1.1953;
718.5000;0.7269;1.2050;
718.8000;0.7245;1.1953;
719.1000;0.7236;1.1905;
719.4000;0.7236;1.1880;
719.7000;0.7228;1.1735;
720.0000;0.7236;1.1783;
720.3000;0.7204;1.1880;
720.6000;0.7220;1.1929;
720.9000;0.7220;1.1977;
721.2000;0.7212;1.2002;
721.5000;0.7212;1.1929;
721.8000;0.7212;1.1880;
722.1000;0.7155;1.1735;
722.4000;0.7220;1.1880;
722.7000;0.7196;1.1856;
723.0000;0.7204;1.1832;
723.3000;0.7212;1.1808;
723.6000;0.7212;1.1808;
723.9000;0.7196;1.1759;
724.2000;0.7204;1.1783;
724.5000;0.7204;1.1735;
724.8000;0.7204;1.1783;
725.1000;0.7188;1.1735;
725.4000;0.7196;1.1759;
725.7000;0.7196;1.1783;
726.0000;0.7196;1.1759;
726.3000;0.7188;1.1808;
726.6000;0.7196;1.1856;
726.9000;0.7171;1.1856;
727.2000;0.7204;1.1953;
727.5000;0.7171;1.1905;
727.8000;0.7179;1.1808;
728.1000;0.7171;1.1880;
728.4000;0.7171;1.1832;
728.7000;0.7179;1.1905;
729.0000;0.7188;1.1905;
729.3000;0.7123;1.1832;
729.6000;0.7163;1.1953;
729.9000;0.7171;1.1905;
730.2000;0.7171;1.1783;
730.5000;0.7163;1.1783;
730.8000;0.7163;1.1856;
731.1000;0.7171;1.1832;
731.4000;0.7163;1.1832;
731.7000;0.7147;1.1856;
732.0000;0.7147;1.1856;
732.3000;0.7171;1.1832;
732.6000;0.7147;1.1905;
732.9000;0.7147;1.1977;
733.2000;0.7147;1.1929;
733.5000;0.7139;1.1880;
733.8000;0.7106;1.1783;
734.1000;0.7123;1.1905;
734.4000;0.7147;1.1953;
734.7000;0.7147;1.1953;
735.0000;0.7155;1.2074;
735.3000;0.7147;1.2050;
735.6000;0.7131;1.1953;
735.9000;0.7106;1.1977;
736.2000;0.7131;1.1977;
736.5000;0.7090;1.1905;
736.8000;0.7106;1.1977;
737.1000;0.7106;1.2002;
737.4000;0.7123;1.2099;
737.7000;0.7123;1.2099;
738.0000;0.7114;1.2026;
738.3000;0.7098;1.2050;
738.6000;0.7106;1.2074;
738.9000;0.7098;1.2026;
739.2000;0.7098;1.2002;
739.5000;0.7090;1.1929;
739.8000;0.7098;1.1905;
740.1000;0.7098;1.1856;
740.4000;0.7114;1.1929;
740.7000;0.7106;1.2002;
741.0000;0.7090;1.2026;
741.3000;0.7082;1.1929;
741.6000;0.7106;1.1880;
741.9000;0.7098;1.1905;
742.2000;0.7090;1.1880;
742.5000;0.7098;1.1977;
742.8000;0.7123;1.1977;
743.1000;0.7090;1.1977;
743.4000;0.7017;1.1783;
743.7000;0.7074;1.1929;
744.0000;0.7066;1.2002;
744.3000;0.7066;1.1977;
744.6000;0.7074;1.1977;
744.9000;0.7082;1.1977;
745.2000;0.7033;1.1977;
745.5000;0.7074;1.2171;
745.8000;0.7114;1.2244;
746.1000;0.7082;1.2099;
746.4000;0.7074;1.1977;
746.7000;0.7066;1.1905;
747.0000;0.7066;1.1880;
747.3000;0.7066;1.1880;
747.6000;0.7057;1.1905;
747.9000;0.7057;1.1856;
748.2000;0.7074;1.1880;
748.5000;0.7049;1.1808;
748.8000;0.7049;1.1880;
749.1000;0.6992;1.1711;
749.4000;0.7049;1.1880;
749.7000;0.7057;1.1929;
750.0000;0.7074;1.1929;
750.3000;0.7017;1.1880;
750.6000;0.7066;1.2050;
750.9000;0.7098;1.2074;
751.2000;0.7098;1.2099;
751.5000;0.7025;1.1905;
751.8000;0.7017;1.1856;
752.1000;0.7033;1.1880;
752.4000;0.7017;1.1832;
752.7000;0.7057;1.1905;
753.0000;0.7025;1.1880;
753.3000;0.7066;1.2026;
753.6000;0.7017;1.1880;
753.9000;0.7049;1.1953;
754.2000;0.7066;1.2050;
754.5000;0.7017;1.2002;
754.8000;0.7017;1.2050;
755.1000;0.7041;1.2074;
755.4000;0.7017;1.2074;
755.7000;0.7033;1.2171;
756.0000;0.7017;1.2050;
756.3000;0.7009;1.2026;
756.6000;0.6992;1.1929;
756.9000;0.7033;1.1953;
757.2000;0.7017;1.1905;
757.5000;0.7017;1.1905;
757.8000;0.6992;1.1880;
758.1000;0.7033;1.2050;
758.4000;0.7009;1.2026;
758.7000;0.7009;1.2026;
759.0000;0.7000;1.2050;
759.3000;0.7017;1.2050;
759.6000;0.7017;1.2026;
759.9000;0.7017;1.2123;
760.2000;0.7025;1.2171;
760.5000;0.7025;1.2196;
760.8000;0.7074;1.2244;
761.1000;0.7009;1.2026;
761.4000;0.7017;1.2074;
761.7000;0.6984;1.1977;
762.0000;0.6992;1.2002;
762.3000;0.6984;1.1953;
762.6000;0.6984;1.2002;
762.9000;0.7009;1.1977;
763.2000;0.7009;1.1977;
763.5000;0.6984;1.1953;
763.8000;0.7000;1.1880;
764.1000;0.7000;1.1929;
764.4000;0.7025;1.2026;
764.7000;0.6984;1.1977;
765.0000;0.6976;1.2002;
765.3000;0.6984;1.2074;
765.6000;0.6984;1.1953;
765.9000;0.6992;1.1880;
766.2000;0.7066;1.2002;
766.5000;0.6960;1.1686;
766.8000;0.7009;1.1783;
767.1000;0.6992;1.1808;
767.4000;0.6960;1.1759;
767.7000;0.6992;1.1735;
768.0000;0.6968;1.1783;
768.3000;0.7025;1.2026;
768.6000;0.6992;1.1905;
768.9000;0.6976;1.1880;
769.2000;0.6968;1.1953;
769.5000;0.7025;1.2050;
769.8000;0.6968;1.1880;
770.1000;0.6943;1.1783;
770.4000;0.6960;1.1832;
770.7000;0.6976;1.1856;
771.0000;0.6960;1.1832;
771.3000;0.6984;1.1953;
771.6000;0.6943;1.1856;
771.9000;0.6976;1.1977;
772.2000;0.6968;1.2074;
772.5000;0.6943;1.1977;
772.8000;0.6960;1.1977;
773.1000;0.6992;1.2026;
773.4000;0.6952;1.1905;
773.7000;0.6935;1.1929;
774.0000;0.6927;1.1929;
774.3000;0.6968;1.2074;
774.6000;0.6976;1.2099;
774.9000;0.6984;1.2099;
775.2000;0.6927;1.1929;
775.5000;0.6968;1.2074;
775.8000;0.6960;1.2123;
776.1000;0.6943;1.2074;
776.4000;0.6943;1.2099;
776.7000;0.6952;1.2268;
777.0000;0.6943;1.2268;
777.3000;0.6968;1.2292;
777.6000;0.6976;1.2171;
777.9000;0.6935;1.2074;
778.2000;0.6952;1.2026;
778.5000;0.6943;1.2050;
778.8000;0.6943;1.2123;
779.1000;0.6935;1.2074;
779.4000;0.6935;1.2099;
779.7000;0.6952;1.2099;
780.0000;0.6952;1.2074;
780.3000;0.6927;1.2002;
780.6000;0.6952;1.2026;
780.9000;0.6943;1.2074;
781.2000;0.6927;1.1977;
781.5000;0.6919;1.1929;
781.8000;0.6935;1.1905;
782.1000;0.6927;1.1832;
782.4000;0.6927;1.1832;
782.7000;0.6935;1.1880;
783.0000;0.6903;1.1808;
783.3000;0.6919;1.1977;
783.6000;0.6911;1.1977;
783.9000;0.6919;1.1929;
784.2000;0.6927;1.2026;
784.5000;0.6935;1.2050;
784.8000;0.6943;1.2099;
785.1000;0.6895;1.1953;
785.4000;0.6927;1.2002;
785.7000;0.6903;1.2026;
786.0000;0.6919;1.2074;
786.3000;0.6927;1.2074;
786.6000;0.6919;1.2074;
786.9000;0.6927;1.2026;
787.2000;0.6919;1.1977;
787.5000;0.6935;1.1977;
787.8000;0.6927;1.1953;
788.1000;0.6911;1.1977;
788.4000;0.6927;1.2026;
788.7000;0.6927;1.1880;
789.0000;0.6927;1.1905;
789.3000;0.6903;1.1905;
789.6000;0.6886;1.1880;
789.9000;0.6943;1.1977;
790.2000;0.6878;1.1832;
790.5000;0.6927;1.2026;
790.8000;0.6886;1.1953;
791.1000;0.6886;1.1977;
791.4000;0.6903;1.2099;
791.7000;0.6895;1.2074;
792.0000;0.6895;1.1977;
792.3000;0.6878;1.2002;
792.6000;0.6911;1.2099;
792.9000;0.6903;1.2074;
793.2000;0.6911;1.2050;
793.5000;0.6903;1.2050;
793.8000;0.6911;1.2050;
794.1000;0.6878;1.1953;
794.4000;0.6886;1.1880;
794.7000;0.6895;1.1880;
795.0000;0.6886;1.1856;
795.3000;0.6886;1.1905;
795.6000;0.6878;1.2002;
795.9000;0.6878;1.2026;
796.2000;0.6903;1.2050;
796.5000;0.6886;1.1977;
796.8000;0.6903;1.2026;
797.1000;0.6886;1.2002;
797.4000;0.6895;1.2026;
797.7000;0.6911;1.2074;
798.0000;0.6886;1.1929;
798.3000;0.6911;1.2002;
798.6000;0.6846;1.1880;
798.9000;0.6911;1.2002;
799.2000;0.6878;1.2002;
799.5000;0.6878;1.1977;
799.8000;0.6878;1.1929;
800.1000;0.6895;1.2026;
800.4000;0.6895;1.1953;
800.7000;0.6862;1.1929;
801.0000;0.6862;1.1905;
801.3000;0.6870;1.1905;
801.6000;0.6878;1.1905;
801.9000;0.6886;1.1880;
802.2000;0.6862;1.1735;
802.5000;0.6895;1.1783;
802.8000;0.6886;1.1759;
803.1000;0.6878;1.1759;
803.4000;0.6878;1.1783;
803.7000;0.6878;1.1832;
804.0000;0.6870;1.1880;
804.3000;0.6862;1.1880;
804.6000;0.6821;1.1711;
804.9000;0.6854;1.1905;
805.2000;0.6862;1.1953;
805.5000;0.6862;1.1905;
805.8000;0.6862;1.1880;
806.1000;0.6862;1.1905;
806.4000;0.6870;1.1905;
806.7000;0.6846;1.1832;
807.0000;0.6862;1.1808;
807.3000;0.6846;1.1808;
807.6000;0.6862;1.1832;
807.9000;0.6862;1.1929;
808.2000;0.6911;1.2050;
808.5000;0.6878;1.1977;
808.8000;0.6846;1.1880;
809.1000;0.6886;1.1977;
809.4000;0.6854;1.1905;
809.7000;0.6854;1.1977;
810.0000;0.6854;1.1953;
810.3000;0.6846;1.1953;
810.6000;0.6854;1.2002;
810.9000;0.6854;1.1953;
811.2000;0.6829;1.1953;
811.5000;0.6862;1.1977;
811.8000;0.6821;1.1856;
812.1000;0.6862;1.1905;
812.4000;0.6846;1.1953;
812.7000;0.6878;1.1977;
813.0000;0.6886;1.1977;
813.3000;0.6854;1.1905;
813.6000;0.6846;1.1905;
813.9000;0.6846;1.2002;
814.2000;0.6895;1.2244;
814.5000;0.6838;1.2099;
814.8000;0.6838;1.2074;
815.1000;0.6813;1.1929;
815.4000;0.6838;1.1905;
815.7000;0.6862;1.2026;
816.0000;0.6846;1.2026;
816.3000;0.6846;1.1977;
816.6000;0.6854;1.1905;
816.9000;0.6772;1.1735;
817.2000;0.6829;1.1977;
817.5000;0.6846;1.1953;
817.8000;0.6829;1.1856;
818.1000;0.6870;1.1905;
818.4000;0.6821;1.1711;
818.7000;0.6813;1.1686;
819.0000;0.6838;1.1711;
819.3000;0.6838;1.1808;
819.6000;0.6838;1.1832;
819.9000;0.6829;1.1759;
820.2000;0.6846;1.1735;
820.5000;0.6838;1.1711;
820.8000;0.6838;1.1808;
821.1000;0.6829;1.1880;
821.4000;0.6829;1.1880;
821.7000;0.6821;1.1856;
822.0000;0.6829;1.1856;
822.3000;0.6838;1.1856;
822.6000;0.6813;1.1783;
822.9000;0.6838;1.1783;
823.2000;0.6838;1.1905;
823.5000;0.6878;1.2026;
823.8000;0.6821;1.1905;
824.1000;0.6862;1.1953;
824.4000;0.6838;1.1953;
824.7000;0.6805;1.1880;
825.0000;0.6797;1.1880;
825.3000;0.6821;1.1905;
825.6000;0.6813;1.1953;
825.9000;0.6821;1.2002;
826.2000;0.6805;1.1905;
826.5000;0.6821;1.1953;
826.8000;0.6821;1.2002;
827.1000;0.6829;1.2026;
827.4000;0.6838;1.1977;
827.7000;0.6805;1.1808;
828.0000;0.6789;1.1735;
828.3000;0.6829;1.1856;
828.6000;0.6838;1.1929;
828.9000;0.6813;1.1929;
829.2000;0.6821;1.1905;
829.5000;0.6821;1.1929;
829.8000;0.6813;1.1929;
830.1000;0.6789;1.1977;
830.4000;0.6821;1.2002;
830.7000;0.6813;1.2074;
831.0000;0.6846;1.2050;
831.3000;0.6805;1.1905;
831.6000;0.6772;1.1880;
831.9000;0.6821;1.1977;
832.2000;0.6813;1.1929;
832.5000;0.6821;1.1953;
832.8000;0.6813;1.1953;
833.1000;0.6805;1.1905;
833.4000;0.6821;1.1880;
833.7000;0.6813;1.1856;
834.0000;0.6846;1.1856;
834.3000;0.6813;1.1759;
834.6000;0.6821;1.1880;
834.9000;0.6813;1.1783;
835.2000;0.6805;1.1832;
835.5000;0.6821;1.1880;
835.8000;0.6821;1.1880;
836.1000;0.6813;1.2002;
836.4000;0.6813;1.1977;
836.7000;0.6805;1.2026;
837.0000;0.6805;1.2074;
837.3000;0.6813;1.2147;
837.6000;0.6821;1.2147;
837.9000;0.6813;1.2050;
838.2000;0.6813;1.2002;
838.5000;0.6829;1.2074;
838.8000;0.6797;1.1905;
839.1000;0.6846;1.1905;
839.4000;0.6748;1.1662;
839.7000;0.6821;1.1856;
840.0000;0.6821;1.1880;
840.3000;0.6805;1.1856;
840.6000;0.6789;1.1856;
840.9000;0.6797;1.1929;
841.2000;0.6789;1.1808;
841.5000;0.6813;1.1856;
841.8000;0.6789;1.1856;
842.1000;0.6789;1.1880;
842.4000;0.6797;1.1880;
842.7000;0.6797;1.1808;
843.0000;0.6789;1.1832;
843.3000;0.6781;1.1783;
843.6000;0.6862;1.2026;
843.9000;0.6748;1.1856;
844.2000;0.6789;1.1905;
844.5000;0.6772;1.1832;
844.8000;0.6813;1.2002;
845.1000;0.6789;1.1953;
845.4000;0.6781;1.1953;
845.7000;0.6805;1.1977;
846.0000;0.6813;1.2002;
846.3000;0.6781;1.1880;
846.6000;0.6707;1.1735;
846.9000;0.6772;1.1880;
847.2000;0.6789;1.1880;
847.5000;0.6789;1.1977;
847.8000;0.6789;1.1953;
848.1000;0.6789;1.1880;
848.4000;0.6789;1.1856;
848.7000;0.6797;1.1856;
849.0000;0.6781;1.1832;
849.3000;0.6781;1.1832;
849.6000;0.6789;1.1832;
849.9000;0.6797;1.1905;
850.2000;0.6789;1.1905;
850.5000;0.6764;1.1856;
850.8000;0.6756;1.1832;
851.1000;0.6862;1.2123;
851.4000;0.6781;1.1929;
851.7000;0.6772;1.1953;
852.0000;0.6781;1.2050;
852.3000;0.6789;1.2050;
852.6000;0.6797;1.2074;
852.9000;0.6789;1.2074;
853.2000;0.6797;1.2123;
853.5000;0.6748;1.1977;
853.8000;0.6797;1.2002;
854.1000;0.6838;1.2026;
854.4000;0.6781;1.1929;
854.7000;0.6756;1.1880;
855.0000;0.6781;1.1953;
855.3000;0.6789;1.1977;
855.6000;0.6789;1.2050;
855.9000;0.6748;1.1953;
856.2000;0.6772;1.2026;
856.5000;0.6789;1.2002;
856.8000;0.6781;1.1977;
857.1000;0.6805;1.1977;
857.4000;0.6764;1.1929;
857.7000;0.6772;1.1929;
858.0000;0.6789;1.1929;
858.3000;0.6781;1.1905;
858.6000;0.6781;1.1880;
858.9000;0.6789;1.1880;
859.2000;0.6772;1.2026;
859.5000;0.6789;1.2099;
859.8000;0.6772;1.2026;
860.1000;0.6772;1.2002;
860.4000;0.6789;1.2002;
860.7000;0.6756;1.2002;
861.0000;0.6764;1.2026;
861.3000;0.6789;1.2002;
861.6000;0.6764;1.2026;
861.9000;0.6756;1.2074;
862.2000;0.6764;1.2147;
862.5000;0.6756;1.2123;
862.8000;0.6772;1.2171;
863.1000;0.6764;1.2123;
863.4000;0.6764;1.2147;
863.7000;0.6797;1.2220;
864.0000;0.6756;1.2026;
864.3000;0.6764;1.2050;
864.6000;0.6748;1.1977;
864.9000;0.6732;1.1880;
865.2000;0.6838;1.2171;
865.5000;0.6772;1.2002;
865.8000;0.6748;1.2026;
866.1000;0.6756;1.2026;
866.4000;0.6740;1.2050;
866.7000;0.6772;1.2026;
867.0000;0.6772;1.2026;
867.3000;0.6764;1.1977;
867.6000;0.6756;1.2147;
867.9000;0.6764;1.2171;
868.2000;0.6764;1.2171;
868.5000;0.6740;1.2123;
868.8000;0.6740;1.2147;
869.1000;0.6748;1.2196;
869.4000;0.6707;1.2074;
869.7000;0.6764;1.2074;
870.0000;0.6756;1.2074;
870.3000;0.6764;1.2074;
870.6000;0.6813;1.2171;
870.9000;0.6813;1.2220;
871.2000;0.6740;1.2002;
871.5000;0.6748;1.2074;
871.8000;0.6724;1.2099;
872.1000;0.6740;1.2196;
872.4000;0.6748;1.2268;
872.7000;0.6748;1.2292;
873.0000;0.6756;1.2317;
873.3000;0.6748;1.2292;
873.6000;0.6748;1.2317;
873.9000;0.6707;1.2268;
874.2000;0.6707;1.2292;
874.5000;0.6748;1.2438;
874.8000;0.6756;1.2389;
875.1000;0.6748;1.2341;
875.4000;0.6732;1.2292;
875.7000;0.6732;1.2292;
876.0000;0.6732;1.2268;
876.3000;0.6732;1.2196;
876.6000;0.6699;1.2123;
876.9000;0.6748;1.2244;
877.2000;0.6724;1.2268;
877.5000;0.6740;1.2292;
877.8000;0.6740;1.2292;
878.1000;0.6732;1.2268;
878.4000;0.6756;1.2341;
878.7000;0.6732;1.2220;
879.0000;0.6732;1.2244;
879.3000;0.6740;1.2292;
879.6000;0.6732;1.2244;
879.9000;0.6748;1.2268;
880.2000;0.6740;1.2268;
880.5000;0.6740;1.2244;
880.8000;0.6764;1.2220;
881.1000;0.6740;1.2171;
881.4000;0.6732;1.2147;
881.7000;0.6732;1.2123;
882.0000;0.6748;1.2123;
882.3000;0.6732;1.2074;
882.6000;0.6732;1.2074;
882.9000;0.6740;1.2074;
883.2000;0.6691;1.1977;
883.5000;0.6740;1.2147;
883.8000;0.6740;1.2292;
884.1000;0.6756;1.2268;
884.4000;0.6748;1.2292;
884.7000;0.6740;1.2220;
885.0000;0.6756;1.2171;
885.3000;0.6699;1.1977;
885.6000;0.6781;1.2147;
885.9000;0.6740;1.2026;
886.2000;0.6740;1.1905;
886.5000;0.6748;1.1880;
886.8000;0.6732;1.1808;
887.1000;0.6740;1.1856;
887.4000;0.6748;1.1880;
887.7000;0.6732;1.1880;
888.0000;0.6732;1.1977;
888.3000;0.6732;1.1929;
888.6000;0.6716;1.1832;
888.9000;0.6724;1.1808;
889.2000;0.6716;1.1783;
889.5000;0.6732;1.1735;
889.8000;0.6724;1.1783;
890.1000;0.6732;1.1832;
890.4000;0.6724;1.1832;
890.7000;0.6724;1.1905;
891.0000;0.6748;1.1880;
891.3000;0.6732;1.1880;
891.6000;0.6732;1.1856;
891.9000;0.6724;1.1905;
892.2000;0.6748;1.1977;
892.5000;0.6740;1.2002;
892.8000;0.6716;1.2002;
893.1000;0.6716;1.2002;
893.4000;0.6724;1.2026;
893.7000;0.6707;1.2026;
894.0000;0.6699;1.2002;
894.3000;0.6732;1.2026;
894.6000;0.6740;1.2026;
894.9000;0.6724;1.2123;
895.2000;0.6732;1.2074;
895.5000;0.6716;1.2026;
895.8000;0.6716;1.2026;
896.1000;0.6732;1.2002;
896.4000;0.6724;1.1977;
896.7000;0.6740;1.2026;
897.0000;0.6724;1.2026;
897.3000;0.6724;1.2002;
897.6000;0.6740;1.1977;
897.9000;0.6756;1.2123;
898.2000;0.6716;1.2002;
898.5000;0.6724;1.2026;
898.8000;0.6707;1.2002;
899.1000;0.6724;1.2050;
899.4000;0.6675;1.1929;
899.7000;0.6748;1.2099;
900.0000;0.6724;1.2026;
900.3000;0.6707;1.2050;
900.6000;0.6724;1.2074;
900.9000;0.6732;1.2050;
901.2000;0.6789;1.2196;
901.5000;0.6756;1.2171;
901.8000;0.6675;1.2002;
902.1000;0.6699;1.2074;
902.4000;0.6716;1.2074;
902.7000;0.6781;1.2220;
903.0000;0.6699;1.2074;
903.3000;0.6699;1.2050;
903.6000;0.6707;1.2002;
903.9000;0.6716;1.2099;
904.2000;0.6716;1.2074;
904.5000;0.6716;1.2099;
904.8000;0.6716;1.2147;
905.1000;0.6683;1.2099;
905.4000;0.6772;1.2292;
905.7000;0.6724;1.2292;
906.0000;0.6716;1.2341;
906.3000;0.6659;1.2123;
906.6000;0.6699;1.2292;
906.9000;0.6683;1.2220;
907.2000;0.6691;1.2244;
907.5000;0.6707;1.2365;
907.8000;0.6699;1.2341;
908.1000;0.6691;1.2317;
908.4000;0.6675;1.2268;
908.7000;0.6707;1.2317;
909.0000;0.6699;1.2196;
909.3000;0.6732;1.2317;
909.6000;0.6732;1.2292;
909.9000;0.6707;1.2171;
910.2000;0.6764;1.2341;
910.5000;0.6724;1.2099;
910.8000;0.6724;1.2099;
911.1000;0.6699;1.2026;
911.4000;0.6716;1.2050;
911.7000;0.6699;1.2026;
912.0000;0.6716;1.2074;
912.3000;0.6707;1.2050;
912.6000;0.6707;1.2074;
912.9000;0.6699;1.2050;
913.2000;0.6691;1.2099;
913.5000;0.6691;1.2099;
913.8000;0.6716;1.2171;
914.1000;0.6716;1.2147;
914.4000;0.6691;1.2196;
914.7000;0.6707;1.2171;
915.0000;0.6683;1.2171;
915.3000;0.6716;1.2220;
915.6000;0.6659;1.2074;
915.9000;0.6699;1.2171;
916.2000;0.6707;1.2220;
916.5000;0.6699;1.2147;
916.8000;0.6716;1.2099;
917.1000;0.6716;1.2074;
917.4000;0.6675;1.1977;
917.7000;0.6707;1.2123;
918.0000;0.6716;1.2123;
918.3000;0.6699;1.2050;
918.6000;0.6667;1.2002;
918.9000;0.6732;1.2147;
919.2000;0.6691;1.2099;
919.5000;0.6724;1.2147;
919.8000;0.6683;1.2074;
920.1000;0.6716;1.2171;
920.4000;0.6699;1.2171;
920.7000;0.6699;1.2147;
921.0000;0.6675;1.2147;
921.3000;0.6699;1.2244;
921.6000;0.6683;1.2292;
921.9000;0.6707;1.2389;
922.2000;0.6797;1.2559;
922.5000;0.6667;1.2244;
922.8000;0.6691;1.2317;
923.1000;0.6691;1.2292;
923.4000;0.6675;1.2268;
923.7000;0.6675;1.2292;
924.0000;0.6699;1.2292;
924.3000;0.6691;1.2292;
924.6000;0.6691;1.2292;
924.9000;0.6699;1.2268;
925.2000;0.6724;1.2292;
925.5000;0.6642;1.2123;
925.8000;0.6732;1.2292;
926.1000;0.6707;1.2220;
926.4000;0.6716;1.2268;
926.7000;0.6716;1.2389;
927.0000;0.6707;1.2389;
927.3000;0.6707;1.2292;
927.6000;0.6691;1.2244;
927.9000;0.6699;1.2268;
928.2000;0.6691;1.2220;
928.5000;0.6699;1.2196;
928.8000;0.6675;1.2196;
929.1000;0.6675;1.2196;
929.4000;0.6691;1.2074;
929.7000;0.6683;1.2050;
930.0000;0.6683;1.2074;
930.3000;0.6642;1.1977;
930.6000;0.6699;1.2196;
930.9000;0.6707;1.2196;
931.2000;0.6699;1.2244;
931.5000;0.6683;1.2292;
931.8000;0.6707;1.2365;
932.1000;0.6659;1.2317;
932.4000;0.6716;1.2389;
932.7000;0.6699;1.2389;
933.0000;0.6691;1.2389;
933.3000;0.6699;1.2292;
933.6000;0.6716;1.2244;
933.9000;0.6675;1.2171;
934.2000;0.6691;1.2220;
934.5000;0.6675;1.2147;
934.8000;0.6683;1.2292;
935.1000;0.6675;1.2292;
935.4000;0.6699;1.2365;
935.7000;0.6691;1.2389;
936.0000;0.6699;1.2365;
936.3000;0.6699;1.2317;
936.6000;0.6675;1.2220;
936.9000;0.6667;1.2099;
937.2000;0.6683;1.2123;
937.5000;0.6675;1.2099;
937.8000;0.6675;1.2147;
938.1000;0.6683;1.2244;
938.4000;0.6699;1.2268;
938.7000;0.6659;1.2171;
939.0000;0.6667;1.2244;
939.3000;0.6675;1.2220;
939.6000;0.6732;1.2292;
939.9000;0.6667;1.2123;
940.2000;0.6667;1.2147;
940.5000;0.6683;1.2220;
940.8000;0.6675;1.2171;
941.1000;0.6699;1.2196;
941.4000;0.6642;1.2002;
941.7000;0.6691;1.2026;
942.0000;0.6659;1.2002;
942.3000;0.6691;1.1977;
942.6000;0.6691;1.2026;
942.9000;0.6683;1.2074;
943.2000;0.6691;1.2099;
943.5000;0.6667;1.2002;
943.8000;0.6667;1.1977;
944.1000;0.6650;1.1929;
944.4000;0.6699;1.2123;
944.7000;0.6667;1.2123;
945.0000;0.6650;1.2147;
945.3000;0.6675;1.2244;
945.6000;0.6659;1.2196;
945.9000;0.6675;1.2244;
946.2000;0.6699;1.2317;
946.5000;0.6667;1.2196;
946.8000;0.6667;1.2341;
947.1000;0.6642;1.2317;
947.4000;0.6602;1.2244;
947.7000;0.6675;1.2365;
948.0000;0.6659;1.2389;
948.3000;0.6610;1.2268;
948.6000;0.6675;1.2365;
948.9000;0.6675;1.2341;
949.2000;0.6642;1.2196;
949.5000;0.6667;1.2244;
949.8000;0.6675;1.2244;
950.1000;0.6691;1.2292;
950.4000;0.6675;1.2317;
950.7000;0.6675;1.2268;
951.0000;0.6683;1.2341;
951.3000;0.6683;1.2341;
951.6000;0.6691;1.2292;
951.9000;0.6675;1.2341;
952.2000;0.6683;1.2341;
952.5000;0.6675;1.2317;
952.8000;0.6675;1.2268;
953.1000;0.6659;1.2268;
953.4000;0.6675;1.2292;
953.7000;0.6675;1.2268;
954.0000;0.6650;1.2196;
954.3000;0.6667;1.2220;
954.6000;0.6667;1.2123;
954.9000;0.6675;1.2171;
955.2000;0.6626;1.2171;
955.5000;0.6650;1.2171;
955.8000;0.6683;1.2123;
956.1000;0.6667;1.2171;
956.4000;0.6675;1.2171;
956.7000;0.6659;1.2171;
957.0000;0.6659;1.2147;
957.3000;0.6707;1.2171;
957.6000;0.6659;1.2050;
957.9000;0.6667;1.2099;
958.2000;0.6659;1.2050;
958.5000;0.6667;1.2026;
958.8000;0.6610;1.1977;
959.1000;0.6659;1.2074;
959.4000;0.6659;1.2099;
959.7000;0.6667;1.2147;
960.0000;0.6659;1.2147;
960.3000;0.6675;1.2244;
960.6000;0.6748;1.2462;
960.9000;0.6659;1.2317;
961.2000;0.6667;1.2341;
961.5000;0.6650;1.2268;
961.8000;0.6650;1.2244;
962.1000;0.6659;1.2220;
962.4000;0.6675;1.2244;
962.7000;0.6659;1.2220;
963.0000;0.6642;1.2123;
963.3000;0.6650;1.2171;
963.6000;0.6626;1.2147;
963.9000;0.6634;1.2220;
964.2000;0.6634;1.2220;
964.5000;0.6650;1.2244;
964.8000;0.6642;1.2147;
965.1000;0.6659;1.2171;
965.4000;0.6642;1.2171;
965.7000;0.6659;1.2171;
966.0000;0.6659;1.2171;
966.3000;0.6667;1.2123;
966.6000;0.6650;1.2099;
966.9000;0.6659;1.2123;
967.2000;0.6667;1.2171;
967.5000;0.6626;1.2099;
967.8000;0.6650;1.2099;
968.1000;0.6659;1.2123;
968.4000;0.6683;1.2196;
968.7000;0.6642;1.2002;
969.0000;0.6699;1.2099;
969.3000;0.6659;1.2050;
969.6000;0.6650;1.2002;
969.9000;0.6659;1.2026;
970.2000;0.6650;1.1953;
970.5000;0.6642;1.1929;
970.8000;0.6650;1.2026;
971.1000;0.6618;1.2002;
971.4000;0.6683;1.2099;
971.7000;0.6650;1.2099;
972.0000;0.6650;1.2123;
972.3000;0.6650;1.2147;
972.6000;0.6667;1.2244;
972.9000;0.6650;1.2196;
973.2000;0.6650;1.2050;
973.5000;0.6634;1.2002;
973.8000;0.6667;1.1953;
974.1000;0.6675;1.1977;
974.4000;0.6634;1.1905;
974.7000;0.6650;1.1977;
975.0000;0.6642;1.2050;
975.3000;0.6659;1.2026;
975.6000;0.6659;1.1977;
975.9000;0.6642;1.1977;
976.2000;0.6642;1.2099;
976.5000;0.6659;1.2220;
976.8000;0.6634;1.2292;
977.1000;0.6618;1.2268;
977.4000;0.6626;1.2365;
977.7000;0.6659;1.2389;
978.0000;0.6642;1.2244;
978.3000;0.6642;1.2268;
978.6000;0.6659;1.2341;
978.9000;0.6667;1.2268;
979.2000;0.6642;1.2268;
979.5000;0.6642;1.2244;
979.8000;0.6593;1.2050;
980.1000;0.6650;1.2099;
980.4000;0.6650;1.2099;
980.7000;0.6650;1.2002;
981.0000;0.6642;1.1953;
981.3000;0.6585;1.1905;
981.6000;0.6650;1.2099;
981.9000;0.6659;1.2074;
982.2000;0.6659;1.2074;
982.5000;0.6659;1.2123;
982.8000;0.6634;1.2099;
983.1000;0.6659;1.2099;
983.4000;0.6659;1.2147;
983.7000;0.6667;1.2123;
984.0000;0.6650;1.2026;
984.3000;0.6659;1.2026;
984.6000;0.6634;1.2026;
984.9000;0.6659;1.2099;
985.2000;0.6659;1.2050;
985.5000;0.6618;1.1905;
985.8000;0.6634;1.1977;
986.1000;0.6642;1.2026;
986.4000;0.6650;1.2002;
986.7000;0.6650;1.2002;
987.0000;0.6650;1.2074;
987.3000;0.6642;1.2099;
987.6000;0.6667;1.2196;
987.9000;0.6650;1.2171;
988.2000;0.6642;1.2196;
988.5000;0.6659;1.2196;
988.8000;0.6634;1.2220;
989.1000;0.6626;1.2244;
989.4000;0.6642;1.2414;
989.7000;0.6577;1.2244;
990.0000;0.6577;1.2317;
990.3000;0.6650;1.2438;
990.6000;0.6642;1.2462;
990.9000;0.6634;1.2389;
991.2000;0.6634;1.2365;
991.5000;0.6602;1.2220;
991.8000;0.6634;1.2244;
992.1000;0.6626;1.2196;
992.4000;0.6618;1.2171;
992.7000;0.6667;1.2220;
993.0000;0.6618;1.2099;
993.3000;0.6626;1.2171;
993.6000;0.6634;1.2099;
993.9000;0.6650;1.2099;
994.2000;0.6634;1.2074;
994.5000;0.6675;1.2220;
994.8000;0.6642;1.2220;
995.1000;0.6634;1.2171;
995.4000;0.6634;1.2220;
995.7000;0.6691;1.2317;
996.0000;0.6642;1.2196;
996.3000;0.6642;1.2123;
996.6000;0.6642;1.2123;
996.9000;0.6659;1.2171;
997.2000;0.6585;1.1977;
997.5000;0.6642;1.2171;
997.8000;0.6650;1.2317;
998.1000;0.6650;1.2389;
998.4000;0.6618;1.2171;
998.7000;0.6642;1.2171;
999.0000;0.6642;1.2220;
999.3000;0.6618;1.2196;
999.6000;0.6642;1.2389;
999.9000;0.6634;1.2317;
1000.2000;0.6659;1.2317;
1000.5000;0.6602;1.2147;
1000.8000;0.6626;1.2244;
1001.1000;0.6659;1.2341;
1001.4000;0.6634;1.2268;
1001.7000;0.6626;1.2147;
1002.0000;0.6626;1.2123;
1002.3000;0.6577;1.2026;
1002.6000;0.6618;1.2147;
1002.9000;0.6626;1.2123;
1003.2000;0.6602;1.2074;
1003.5000;0.6683;1.2220;
1003.8000;0.6634;1.2074;
1004.1000;0.6626;1.2026;
1004.4000;0.6650;1.2099;
1004.7000;0.6626;1.2074;
1005.0000;0.6626;1.2099;
1005.3000;0.6577;1.2002;
1005.6000;0.6618;1.2074;
1005.9000;0.6626;1.2074;
1006.2000;0.6618;1.2074;
1006.5000;0.6618;1.2099;
1006.8000;0.6642;1.2171;
1007.1000;0.6642;1.2099;
1007.4000;0.6650;1.2074;
1007.7000;0.6642;1.2002;
1008.0000;0.6642;1.2002;
1008.3000;0.6675;1.2074;
1008.6000;0.6642;1.2074;
1008.9000;0.6626;1.1953;
1009.2000;0.6634;1.2002;
1009.5000;0.6626;1.2050;
1009.8000;0.6650;1.2099;
1010.1000;0.6634;1.2147;
1010.4000;0.6626;1.2099;
1010.7000;0.6626;1.2050;
1011.0000;0.6642;1.2099;
1011.3000;0.6626;1.2050;
1011.6000;0.6618;1.2002;
1011.9000;0.6618;1.2026;
1012.2000;0.6618;1.2074;
1012.5000;0.6634;1.2123;
1012.8000;0.6618;1.2123;
1013.1000;0.6610;1.2147;
1013.4000;0.6593;1.2026;
1013.7000;0.6618;1.2147;
1014.0000;0.6626;1.2147;
1014.3000;0.6585;1.2050;
1014.6000;0.6618;1.2123;
1014.9000;0.6634;1.2196;
1015.2000;0.6610;1.2196;
1015.5000;0.6634;1.2268;
1015.8000;0.6618;1.2074;
1016.1000;0.6610;1.2074;
1016.4000;0.6553;1.1880;
1016.7000;0.6618;1.2171;
1017.0000;0.6610;1.2147;
1017.3000;0.6618;1.2171;
1017.6000;0.6626;1.2244;
1017.9000;0.6626;1.2317;
1018.2000;0.6650;1.2341;
1018.5000;0.6626;1.2292;
1018.8000;0.6659;1.2268;
1019.1000;0.6610;1.2196;
1019.4000;0.6610;1.2196;
1019.7000;0.6618;1.2123;
1020.0000;0.6675;1.2292;
1020.3000;0.6634;1.2171;
1020.6000;0.6626;1.2196;
1020.9000;0.6618;1.2171;
1021.2000;0.6618;1.2147;
1021.5000;0.6626;1.2147;
1021.8000;0.6618;1.2147;
1022.1000;0.6610;1.2147;
1022.4000;0.6602;1.2147;
1022.7000;0.6626;1.2171;
1023.0000;0.6618;1.2147;
1023.3000;0.6561;1.2050;
1023.6000;0.6618;1.2171;
1023.9000;0.6626;1.2220;
1024.2000;0.6618;1.2220;
1024.5000;0.6618;1.2171;
1024.8000;0.6626;1.2196;
1025.1000;0.6618;1.2196;
1025.4000;0.6610;1.2196;
1025.7000;0.6618;1.2317;
1026.0000;0.6602;1.2341;
1026.3000;0.6650;1.2462;
1026.6000;0.6618;1.2341;
1026.9000;0.6618;1.2292;
1027.2000;0.6602;1.2317;
1027.5000;0.6610;1.2317;
1027.8000;0.6618;1.2220;
1028.1000;0.6618;1.2147;
1028.4000;0.6602;1.2171;
1028.7000;0.6610;1.2196;
1029.0000;0.6634;1.2244;
1029.3000;0.6618;1.2220;
1029.6000;0.6593;1.2220;
1029.9000;0.6602;1.2244;
1030.2000;0.6634;1.2341;
1030.5000;0.6626;1.2414;
1030.8000;0.6610;1.2389;
1031.1000;0.6618;1.2389;
1031.4000;0.6610;1.2292;
1031.7000;0.6634;1.2268;
1032.0000;0.6618;1.2317;
1032.3000;0.6618;1.2438;
1032.6000;0.6610;1.2414;
1032.9000;0.6618;1.2317;
1033.2000;0.6626;1.2292;
1033.5000;0.6602;1.2171;
1033.8000;0.6634;1.2292;
1034.1000;0.6642;1.2341;
1034.4000;0.6626;1.2268;
1034.7000;0.6618;1.2292;
1035.0000;0.6650;1.2341;
1035.3000;0.6642;1.2244;
1035.6000;0.6618;1.2147;
1035.9000;0.6626;1.2268;
1036.2000;0.6610;1.2341;
1036.5000;0.6626;1.2341;
1036.8000;0.6610;1.2220;
1037.1000;0.6618;1.2244;
1037.4000;0.6610;1.2123;
1037.7000;0.6610;1.2099;
1038.0000;0.6634;1.2074;
1038.3000;0.6602;1.2123;
1038.6000;0.6634;1.2123;
1038.9000;0.6561;1.1929;
1039.2000;0.6561;1.1929;
1039.5000;0.6602;1.2171;
1039.8000;0.6610;1.2171;
1040.1000;0.6618;1.2123;
1040.4000;0.6602;1.2050;
1040.7000;0.6618;1.2002;
1041.0000;0.6585;1.1977;
1041.3000;0.6610;1.2050;
1041.6000;0.6618;1.2074;
1041.9000;0.6610;1.2074;
1042.2000;0.6593;1.2147;
1042.5000;0.6610;1.2099;
1042.8000;0.6602;1.2026;
1043.1000;0.6626;1.2147;
1043.4000;0.6626;1.2365;
1043.7000;0.6618;1.2317;
1044.0000;0.6602;1.2365;
1044.3000;0.6618;1.2365;
1044.6000;0.6610;1.2317;
1044.9000;0.6618;1.2365;
1045.2000;0.6642;1.2511;
1045.5000;0.6610;1.2511;
1045.8000;0.6618;1.2511;
1046.1000;0.6610;1.2414;
1046.4000;0.6602;1.2438;
1046.7000;0.6618;1.2486;
1047.0000;0.6618;1.2462;
1047.3000;0.6618;1.2486;
1047.6000;0.6610;1.2462;
1047.9000;0.6610;1.2511;
1048.2000;0.6626;1.2583;
1048.5000;0.6602;1.2608;
1048.8000;0.6610;1.2559;
1049.1000;0.6610;1.2486;
1049.4000;0.6610;1.2414;
1049.7000;0.6618;1.2389;
1050.0000;0.6593;1.2317;
1050.3000;0.6602;1.2292;
1050.6000;0.6610;1.2268;
1050.9000;0.6602;1.2171;
1051.2000;0.6585;1.2171;
1051.5000;0.6585;1.2123;
1051.8000;0.6610;1.2123;
1052.1000;0.6593;1.2147;
1052.4000;0.6602;1.2171;
1052.7000;0.6610;1.2196;
1053.0000;0.6610;1.2220;
1053.3000;0.6602;1.2365;
1053.6000;0.6593;1.2317;
1053.9000;0.6585;1.2365;
1054.2000;0.6602;1.2341;
1054.5000;0.6610;1.2414;
1054.8000;0.6593;1.2341;
1055.1000;0.6618;1.2389;
1055.4000;0.6618;1.2389;
1055.7000;0.6593;1.2317;
1056.0000;0.6618;1.2317;
1056.3000;0.6610;1.2220;
1056.6000;0.6536;1.2026;
1056.9000;0.6618;1.2147;
1057.2000;0.6602;1.2099;
1057.5000;0.6642;1.2171;
1057.8000;0.6602;1.2074;
1058.1000;0.6610;1.2147;
1058.4000;0.6602;1.2050;
1058.7000;0.6610;1.2147;
1059.0000;0.6602;1.2123;
1059.3000;0.6610;1.2099;
1059.6000;0.6602;1.2147;
1059.9000;0.6642;1.2244;
1060.2000;0.6634;1.2244;
1060.5000;0.6602;1.2268;
1060.8000;0.6610;1.2317;
1061.1000;0.6618;1.2292;
1061.4000;0.6602;1.2244;
1061.7000;0.6593;1.2147;
1062.0000;0.6569;1.2099;
1062.3000;0.6593;1.2196;
1062.6000;0.6602;1.2220;
1062.9000;0.6602;1.2099;
1063.2000;0.6569;1.1953;
1063.5000;0.6610;1.2074;
1063.8000;0.6593;1.2050;
1064.1000;0.6593;1.2026;
1064.4000;0.6553;1.2002;
1064.7000;0.6602;1.2099;
1065.0000;0.6602;1.2099;
1065.3000;0.6585;1.2074;
1065.6000;0.6577;1.2171;
1065.9000;0.6593;1.2196;
1066.2000;0.6642;1.2317;
1066.5000;0.6593;1.2196;
1066.8000;0.6577;1.2123;
1067.1000;0.6602;1.2292;
1067.4000;0.6593;1.2244;
1067.7000;0.6585;1.2147;
1068.0000;0.6593;1.2147;
1068.3000;0.6602;1.2099;
1068.6000;0.6626;1.2196;
1068.9000;0.6602;1.2196;
1069.2000;0.6593;1.2171;
1069.5000;0.6659;1.2317;
1069.8000;0.6610;1.2220;
1070.1000;0.6602;1.2244;
1070.4000;0.6585;1.2220;
1070.7000;0.6585;1.2147;
1071.0000;0.6610;1.2171;
1071.3000;0.6602;1.2147;
1071.6000;0.6577;1.2099;
1071.9000;0.6593;1.2147;
1072.2000;0.6593;1.2171;
1072.5000;0.6602;1.2123;
1072.8000;0.6602;1.2074;
1073.1000;0.6602;1.2147;
1073.4000;0.6593;1.2196;
1073.7000;0.6593;1.2268;
1074.0000;0.6593;1.2389;
1074.3000;0.6585;1.2317;
1074.6000;0.6561;1.2196;
1074.9000;0.6602;1.2220;
1075.2000;0.6585;1.2074;
1075.5000;0.6593;1.2050;
1075.8000;0.6593;1.2147;
1076.1000;0.6585;1.2196;
1076.4000;0.6610;1.2244;
1076.7000;0.6593;1.2171;
1077.0000;0.6569;1.2123;
1077.3000;0.6585;1.2123;
1077.6000;0.6585;1.2074;
1077.9000;0.6577;1.2074;
1078.2000;0.6585;1.2123;
1078.5000;0.6561;1.2026;
1078.8000;0.6585;1.2123;
1079.1000;0.6577;1.2050;
1079.4000;0.6585;1.2050;
1079.7000;0.6602;1.2074;
1080.0000;0.6585;1.2099;
1080.3000;0.6585;1.2099;
1080.6000;0.6585;1.2099;
1080.9000;0.6593;1.2074;
1081.2000;0.6593;1.2196;
1081.5000;0.6602;1.2244;
1081.8000;0.6602;1.2244;
1082.1000;0.6536;1.2050;
1082.4000;0.6585;1.2123;
1082.7000;0.6593;1.2074;
1083.0000;0.6593;1.2074;
1083.3000;0.6585;1.2196;
1083.6000;0.6593;1.2147;
1083.9000;0.6610;1.2171;
1084.2000;0.6585;1.2123;
1084.5000;0.6577;1.2123;
1084.8000;0.6545;1.2050;
1085.1000;0.6610;1.2171;
1085.4000;0.6585;1.2074;
1085.7000;0.6593;1.2099;
1086.0000;0.6593;1.2050;
1086.3000;0.6561;1.1977;
1086.6000;0.6585;1.2002;
1086.9000;0.6577;1.2002;
1087.2000;0.6577;1.2002;
1087.5000;0.6593;1.2074;
1087.8000;0.6585;1.2074;
1088.1000;0.6577;1.2050;
1088.4000;0.6593;1.2074;
1088.7000;0.6577;1.2147;
1089.0000;0.6593;1.2268;
1089.3000;0.6602;1.2317;
1089.6000;0.6553;1.2147;
1089.9000;0.6577;1.2244;
1090.2000;0.6593;1.2341;
1090.5000;0.6593;1.2317;
1090.8000;0.6593;1.2292;
1091.1000;0.6585;1.2268;
1091.4000;0.6602;1.2317;
1091.7000;0.6593;1.2292;
1092.0000;0.6593;1.2292;
1092.3000;0.6593;1.2196;
1092.6000;0.6585;1.2220;
1092.9000;0.6593;1.2220;
1093.2000;0.6577;1.2171;
1093.5000;0.6593;1.2123;
1093.8000;0.6585;1.2171;
1094.1000;0.6618;1.2268;
1094.4000;0.6585;1.2074;
1094.7000;0.6577;1.2074;
1095.0000;0.6593;1.2123;
1095.3000;0.6634;1.2268;
1095.6000;0.6577;1.2171;
1095.9000;0.6585;1.2123;
1096.2000;0.6504;1.1929;
1096.5000;0.6650;1.2292;
1096.8000;0.6593;1.2292;
1097.1000;0.6585;1.2268;
1097.4000;0.6593;1.2317;
1097.7000;0.6577;1.2462;
1098.0000;0.6585;1.2486;
1098.3000;0.6569;1.2389;
1098.6000;0.6585;1.2365;
1098.9000;0.6585;1.2292;
1099.2000;0.6585;1.2268;
1099.5000;0.6585;1.2292;
1099.8000;0.6602;1.2220;
1100.1000;0.6585;1.2268;
1100.4000;0.6585;1.2317;
1100.7000;0.6593;1.2268;
1101.0000;0.6585;1.2341;
1101.3000;0.6585;1.2244;
1101.6000;0.6585;1.2244;
1101.9000;0.6569;1.2292;
1102.2000;0.6577;1.2244;
1102.5000;0.6561;1.2196;
1102.8000;0.6577;1.2171;
1103.1000;0.6585;1.2220;
1103.4000;0.6585;1.2244;
1103.7000;0.6577;1.2220;
1104.0000;0.6577;1.2196;
1104.3000;0.6585;1.2317;
1104.6000;0.6585;1.2365;
1104.9000;0.6569;1.2341;
1105.2000;0.6569;1.2341;
1105.5000;0.6585;1.2365;
1105.8000;0.6593;1.2317;
1106.1000;0.6569;1.2292;
1106.4000;0.6561;1.2220;
1106.7000;0.6626;1.2317;
1107.0000;0.6585;1.2292;
1107.3000;0.6577;1.2317;
1107.6000;0.6585;1.2341;
1107.9000;0.6585;1.2389;
1108.2000;0.6569;1.2341;
1108.5000;0.6577;1.2365;
1108.8000;0.6585;1.2414;
1109.1000;0.6585;1.2462;
1109.4000;0.6577;1.2438;
1109.7000;0.6536;1.2292;
1110.0000;0.6577;1.2365;
1110.3000;0.6561;1.2341;
1110.6000;0.6585;1.2317;
1110.9000;0.6577;1.2220;
1111.2000;0.6610;1.2317;
1111.5000;0.6602;1.2292;
1111.8000;0.6577;1.2196;
1112.1000;0.6642;1.2414;
1112.4000;0.6585;1.2438;
1112.7000;0.6504;1.2196;
1113.0000;0.6569;1.2365;
1113.3000;0.6593;1.2389;
1113.6000;0.6585;1.2414;
1113.9000;0.6577;1.2414;
1114.2000;0.6585;1.2414;
1114.5000;0.6569;1.2317;
1114.8000;0.6569;1.2244;
1115.1000;0.6593;1.2268;
1115.4000;0.6585;1.2244;
1115.7000;0.6577;1.2171;
1116.0000;0.6585;1.2171;
1116.3000;0.6520;1.1953;
1116.6000;0.6569;1.2026;
1116.9000;0.6577;1.2050;
1117.2000;0.6577;1.1953;
1117.5000;0.6585;1.1953;
1117.8000;0.6585;1.1953;
1118.1000;0.6610;1.2002;
1118.4000;0.6585;1.1880;
1118.7000;0.6593;1.1856;
1119.0000;0.6585;1.1880;
1119.3000;0.6593;1.2026;
1119.6000;0.6569;1.2026;
1119.9000;0.6585;1.2074;
1120.2000;0.6585;1.2050;
1120.5000;0.6536;1.1856;
1120.8000;0.6577;1.1929;
1121.1000;0.6593;1.1905;
1121.4000;0.6536;1.1711;
1121.7000;0.6593;1.1880;
1122.0000;0.6593;1.1929;
1122.3000;0.6577;1.1929;
1122.6000;0.6593;1.2026;
1122.9000;0.6561;1.2050;
1123.2000;0.6585;1.1977;
1123.5000;0.6593;1.2099;
1123.8000;0.6585;1.2074;
1124.1000;0.6569;1.2002;
1124.4000;0.6618;1.2123;
1124.7000;0.6577;1.2123;
1125.0000;0.6602;1.2220;
1125.3000;0.6585;1.2196;
1125.6000;0.6577;1.2220;
1125.9000;0.6585;1.2220;
1126.2000;0.6577;1.2147;
1126.5000;0.6602;1.2292;
1126.8000;0.6585;1.2268;
1127.1000;0.6593;1.2389;
1127.4000;0.6593;1.2341;
1127.7000;0.6585;1.2147;
1128.0000;0.6585;1.2171;
1128.3000;0.6585;1.2196;
1128.6000;0.6593;1.2220;
1128.9000;0.6577;1.2244;
1129.2000;0.6561;1.2244;
1129.5000;0.6577;1.2268;
1129.8000;0.6528;1.2171;
1130.1000;0.6561;1.2244;
1130.4000;0.6561;1.2244;
1130.7000;0.6553;1.2244;
1131.0000;0.6577;1.2268;
1131.3000;0.6602;1.2341;
1131.6000;0.6569;1.2341;
1131.9000;0.6577;1.2317;
1132.2000;0.6561;1.2341;
1132.5000;0.6585;1.2365;
1132.8000;0.6593;1.2438;
1133.1000;0.6585;1.2486;
1133.4000;0.6569;1.2486;
1133.7000;0.6577;1.2511;
1134.0000;0.6602;1.2535;
1134.3000;0.6618;1.2438;
1134.6000;0.6593;1.2365;
1134.9000;0.6561;1.2268;
1135.2000;0.6553;1.2220;
1135.5000;0.6561;1.2268;
1135.8000;0.6553;1.2147;
1136.1000;0.6561;1.2268;
1136.4000;0.6577;1.2220;
1136.7000;0.6569;1.2220;
1137.0000;0.6585;1.2341;
1137.3000;0.6593;1.2292;
1137.6000;0.6577;1.2268;
1137.9000;0.6569;1.2220;
1138.2000;0.6561;1.2171;
1138.5000;0.6569;1.2171;
1138.8000;0.6577;1.2268;
1139.1000;0.6585;1.2317;
1139.4000;0.6569;1.2341;
1139.7000;0.6569;1.2268;
1140.0000;0.6553;1.2244;
1140.3000;0.6634;1.2462;
1140.6000;0.6545;1.2244;
1140.9000;0.6561;1.2292;
1141.2000;0.6561;1.2389;
1141.5000;0.6569;1.2317;
1141.8000;0.6569;1.2341;
1142.1000;0.6569;1.2365;
1142.4000;0.6561;1.2438;
1142.7000;0.6577;1.2438;
1143.0000;0.6569;1.2414;
1143.3000;0.6553;1.2317;
1143.6000;0.6569;1.2317;
1143.9000;0.6577;1.2317;
1144.2000;0.6569;1.2317;
1144.5000;0.6577;1.2292;
1144.8000;0.6569;1.2292;
1145.1000;0.6577;1.2365;
1145.4000;0.6569;1.2341;
1145.7000;0.6561;1.2292;
1146.0000;0.6553;1.2317;
1146.3000;0.6561;1.2220;
1146.6000;0.6561;1.2123;
1146.9000;0.6536;1.2171;
1147.2000;0.6569;1.2292;
1147.5000;0.6569;1.2268;
1147.8000;0.6577;1.2365;
1148.1000;0.6577;1.2341;
1148.4000;0.6618;1.2486;
1148.7000;0.6577;1.2486;
1149.0000;0.6610;1.2583;
1149.3000;0.6569;1.2535;
1149.6000;0.6569;1.2535;
1149.9000;0.6569;1.2535;
1150.2000;0.6593;1.2608;
1150.5000;0.6585;1.2656;
1150.8000;0.6577;1.2583;
1151.1000;0.6553;1.2462;
1151.4000;0.6585;1.2414;
1151.7000;0.6577;1.2414;
1152.0000;0.6561;1.2389;
1152.3000;0.6569;1.2414;
1152.6000;0.6569;1.2341;
1152.9000;0.6577;1.2365;
1153.2000;0.6569;1.2389;
1153.5000;0.6561;1.2365;
1153.8000;0.6561;1.2341;
1154.1000;0.6545;1.2268;
1154.4000;0.6553;1.2196;
1154.7000;0.6561;1.2292;
1155.0000;0.6504;1.2196;
1155.3000;0.6528;1.2147;
1155.6000;0.6561;1.2196;
1155.9000;0.6545;1.2292;
1156.2000;0.6577;1.2365;
1156.5000;0.6577;1.2341;
1156.8000;0.6561;1.2317;
1157.1000;0.6553;1.2268;
1157.4000;0.6536;1.2244;
1157.7000;0.6561;1.2244;
1158.0000;0.6553;1.2147;
1158.3000;0.6561;1.2244;
1158.6000;0.6610;1.2365;
1158.9000;0.6569;1.2341;
1159.2000;0.6577;1.2389;
1159.5000;0.6569;1.2365;
1159.8000;0.6569;1.2292;
1160.1000;0.6561;1.2244;
1160.4000;0.6561;1.2244;
1160.7000;0.6569;1.2244;
1161.0000;0.6561;1.2244;
1161.3000;0.6561;1.2292;
1161.6000;0.6569;1.2341;
1161.9000;0.6577;1.2389;
1162.2000;0.6577;1.2462;
1162.5000;0.6553;1.2438;
1162.8000;0.6569;1.2462;
1163.1000;0.6569;1.2438;
1163.4000;0.6553;1.2341;
1163.7000;0.6545;1.2268;
1164.0000;0.6553;1.2196;
1164.3000;0.6577;1.2147;
1164.6000;0.6561;1.2147;
1164.9000;0.6545;1.2099;
1165.2000;0.6553;1.2123;
1165.5000;0.6553;1.2147;
1165.8000;0.6553;1.2099;
1166.1000;0.6561;1.2099;
1166.4000;0.6561;1.2268;
1166.7000;0.6569;1.2341;
1167.0000;0.6577;1.2414;
1167.3000;0.6561;1.2317;
1167.6000;0.6553;1.2244;
1167.9000;0.6536;1.2268;
1168.2000;0.6577;1.2317;
1168.5000;0.6569;1.2317;
1168.8000;0.6561;1.2268;
1169.1000;0.6561;1.2341;
1169.4000;0.6577;1.2438;
1169.7000;0.6569;1.2462;
1170.0000;0.6561;1.2438;
1170.3000;0.6545;1.2438;
1170.6000;0.6553;1.2389;
1170.9000;0.6553;1.2414;
1171.2000;0.6561;1.2292;
1171.5000;0.6553;1.2268;
1171.8000;0.6577;1.2268;
1172.1000;0.6569;1.2292;
1172.4000;0.6553;1.2196;
1172.7000;0.6569;1.2292;
1173.0000;0.6536;1.2268;
1173.3000;0.6577;1.2268;
1173.6000;0.6602;1.2317;
1173.9000;0.6569;1.2171;
1174.2000;0.6561;1.2171;
1174.5000;0.6528;1.2123;
1174.8000;0.6577;1.2292;
1175.1000;0.6545;1.2268;
1175.4000;0.6561;1.2268;
1175.7000;0.6553;1.2220;
1176.0000;0.6561;1.2292;
1176.3000;0.6553;1.2292;
1176.6000;0.6545;1.2244;
1176.9000;0.6602;1.2389;
1177.2000;0.6561;1.2268;
1177.5000;0.6577;1.2268;
1177.8000;0.6553;1.2196;
1178.1000;0.6528;1.2171;
1178.4000;0.6585;1.2292;
1178.7000;0.6585;1.2317;
1179.0000;0.6561;1.2317;
1179.3000;0.6553;1.2244;
1179.6000;0.6585;1.2292;
1179.9000;0.6585;1.2292;
1180.2000;0.6561;1.2196;
1180.5000;0.6569;1.2196;
1180.8000;0.6553;1.2074;
1181.1000;0.6569;1.2196;
1181.4000;0.6569;1.2123;
1181.7000;0.6536;1.2099;
1182.0000;0.6553;1.2171;
1182.3000;0.6561;1.2196;
1182.6000;0.6577;1.2171;
1182.9000;0.6553;1.2268;
1183.2000;0.6569;1.2220;
1183.5000;0.6553;1.2220;
1183.8000;0.6569;1.2268;
1184.1000;0.6553;1.2292;
1184.4000;0.6553;1.2317;
1184.7000;0.6553;1.2341;
1185.0000;0.6553;1.2268;
1185.3000;0.6553;1.2244;
1185.6000;0.6553;1.2292;
1185.9000;0.6553;1.2268;
1186.2000;0.6577;1.2220;
1186.5000;0.6569;1.2244;
1186.8000;0.6545;1.2268;
1187.1000;0.6545;1.2220;
1187.4000;0.6520;1.2099;
1187.7000;0.6561;1.2147;
1188.0000;0.6536;1.2074;
1188.3000;0.6553;1.2050;
1188.6000;0.6561;1.2074;
1188.9000;0.6553;1.2099;
1189.2000;0.6553;1.2074;
1189.5000;0.6561;1.2026;
1189.8000;0.6561;1.1977;
1190.1000;0.6561;1.2002;
1190.4000;0.6561;1.1977;
1190.7000;0.6545;1.1929;
1191.0000;0.6569;1.2026;
1191.3000;0.6561;1.1953;
1191.6000;0.6561;1.1929;
1191.9000;0.6545;1.1880;
1192.2000;0.6545;1.1953;
1192.5000;0.6561;1.2099;
1192.8000;0.6553;1.2196;
1193.1000;0.6561;1.2171;
1193.4000;0.6545;1.2074;
1193.7000;0.6545;1.2123;
1194.0000;0.6545;1.2196;
1194.3000;0.6561;1.2147;
1194.6000;0.6545;1.2074;
1194.9000;0.6545;1.2123;
1195.2000;0.6577;1.2196;
1195.5000;0.6569;1.2244;
1195.8000;0.6569;1.2196;
1196.1000;0.6569;1.2099;
1196.4000;0.6561;1.2026;
1196.7000;0.6569;1.2074;
1197.0000;0.6553;1.2050;
1197.3000;0.6553;1.2123;
1197.6000;0.6545;1.2074;
1197.9000;0.6561;1.2123;
1198.2000;0.6561;1.2099;
1198.5000;0.6545;1.2099;
1198.8000;0.6553;1.2147;
1199.1000;0.6569;1.2244;
1199.4000;0.6561;1.2196;
1199.7000;0.6545;1.2196;
1200.0000;0.6593;1.2317;
1200.3000;0.6545;1.2244;
1200.6000;0.6545;1.2220;
1200.9000;0.6553;1.2147;
1201.2000;0.6553;1.2196;
1201.5000;0.6561;1.2244;
1201.8000;0.6553;1.2220;
1202.1000;0.6496;1.2074;
1202.4000;0.6536;1.2244;
1202.7000;0.6545;1.2244;
1203.0000;0.6577;1.2268;
1203.3000;0.6545;1.2196;
1203.6000;0.6545;1.2147;
1203.9000;0.6553;1.2196;
1204.2000;0.6577;1.2268;
1204.5000;0.6553;1.2171;
1204.8000;0.6553;1.2317;
1205.1000;0.6585;1.2511;
1205.4000;0.6553;1.2414;
1205.7000;0.6561;1.2365;
1206.0000;0.6561;1.2292;
1206.3000;0.6593;1.2486;
1206.6000;0.6577;1.2414;
1206.9000;0.6553;1.2341;
1207.2000;0.6553;1.2268;
1207.5000;0.6553;1.2220;
1207.8000;0.6569;1.2341;
1208.1000;0.6561;1.2268;
1208.4000;0.6545;1.2317;
1208.7000;0.6561;1.2292;
1209.0000;0.6569;1.2292;
1209.3000;0.6577;1.2341;
1209.6000;0.6561;1.2317;
1209.9000;0.6569;1.2292;
1210.2000;0.6577;1.2365;
1210.5000;0.6569;1.2292;
1210.8000;0.6561;1.2292;
1211.1000;0.6553;1.2244;
1211.4000;0.6520;1.2220;
1211.7000;0.6545;1.2414;
1212.0000;0.6536;1.2341;
1212.3000;0.6528;1.2317;
1212.6000;0.6536;1.2414;
1212.9000;0.6561;1.2365;
1213.2000;0.6545;1.2317;
1213.5000;0.6545;1.2365;
1213.8000;0.6545;1.2317;
1214.1000;0.6569;1.2365;
1214.4000;0.6561;1.2268;
1214.7000;0.6553;1.2268;
1215.0000;0.6545;1.2171;
1215.3000;0.6561;1.2220;
1215.6000;0.6585;1.2244;
1215.9000;0.6561;1.2244;
1216.2000;0.6553;1.2147;
1216.5000;0.6545;1.2196;
1216.8000;0.6561;1.2220;
1217.1000;0.6545;1.2196;
1217.4000;0.6545;1.2244;
1217.7000;0.6553;1.2220;
1218.0000;0.6561;1.2196;
1218.3000;0.6553;1.2171;
1218.6000;0.6553;1.2220;
1218.9000;0.6536;1.2147;
1219.2000;0.6536;1.2123;
1219.5000;0.6553;1.2147;
1219.8000;0.6545;1.2074;
1220.1000;0.6561;1.2147;
1220.4000;0.6585;1.2317;
1220.7000;0.6545;1.2292;
1221.0000;0.6553;1.2317;
1221.3000;0.6545;1.2292;
1221.6000;0.6545;1.2244;
1221.9000;0.6504;1.2171;
1222.2000;0.6545;1.2123;
1222.5000;0.6536;1.2147;
1222.8000;0.6528;1.2171;
1223.1000;0.6536;1.2220;
1223.4000;0.6545;1.2123;
1223.7000;0.6528;1.2099;
1224.0000;0.6585;1.2220;
1224.3000;0.6536;1.2220;
1224.6000;0.6561;1.2292;
1224.9000;0.6520;1.2171;
1225.2000;0.6528;1.2147;
1225.5000;0.6561;1.2317;
1225.8000;0.6545;1.2244;
1226.1000;0.6593;1.2317;
1226.4000;0.6577;1.2268;
1226.7000;0.6545;1.2196;
1227.0000;0.6520;1.2099;
1227.3000;0.6577;1.2268;
1227.6000;0.6545;1.2196;
1227.9000;0.6536;1.2196;
1228.2000;0.6553;1.2268;
1228.5000;0.6545;1.2244;
1228.8000;0.6553;1.2268;
1229.1000;0.6536;1.2268;
1229.4000;0.6561;1.2268;
1229.7000;0.6569;1.2268;
1230.0000;0.6577;1.2244;
1230.3000;0.6577;1.2244;
1230.6000;0.6545;1.2220;
1230.9000;0.6561;1.2292;
1231.2000;0.6561;1.2292;
1231.5000;0.6569;1.2365;
1231.8000;0.6553;1.2292;
1232.1000;0.6553;1.2389;
1232.4000;0.6569;1.2438;
1232.7000;0.6536;1.2389;
1233.0000;0.6536;1.2486;
1233.3000;0.6553;1.2511;
1233.6000;0.6545;1.2511;
1233.9000;0.6545;1.2462;
1234.2000;0.6536;1.2438;
1234.5000;0.6545;1.2414;
1234.8000;0.6536;1.2365;
1235.1000;0.6553;1.2317;
1235.4000;0.6536;1.2220;
1235.7000;0.6545;1.2317;
1236.0000;0.6553;1.2341;
1236.3000;0.6561;1.2365;
1236.6000;0.6545;1.2317;
1236.9000;0.6553;1.2389;
1237.2000;0.6561;1.2341;
1237.5000;0.6561;1.2341;
1237.8000;0.6496;1.2244;
1238.1000;0.6528;1.2414;
1238.4000;0.6561;1.2438;
1238.7000;0.6545;1.2365;
1239.0000;0.6536;1.2317;
1239.3000;0.6545;1.2341;
1239.6000;0.6545;1.2196;
1239.9000;0.6553;1.2171;
1240.2000;0.6585;1.2171;
1240.5000;0.6553;1.2123;
1240.8000;0.6553;1.2220;
1241.1000;0.6553;1.2147;
1241.4000;0.6553;1.2196;
1241.7000;0.6545;1.2171;
1242.0000;0.6536;1.2220;
1242.3000;0.6561;1.2244;
1242.6000;0.6545;1.2220;
1242.9000;0.6545;1.2244;
1243.2000;0.6545;1.2220;
1243.5000;0.6553;1.2196;
1243.8000;0.6545;1.2220;
1244.1000;0.6536;1.2123;
1244.4000;0.6553;1.2099;
1244.7000;0.6561;1.2123;
1245.0000;0.6561;1.2147;
1245.3000;0.6545;1.2099;
1245.6000;0.6536;1.2026;
1245.9000;0.6545;1.2050;
1246.2000;0.6545;1.2002;
1246.5000;0.6545;1.2002;
1246.8000;0.6545;1.2050;
1247.1000;0.6561;1.2099;
1247.4000;0.6545;1.2147;
1247.7000;0.6545;1.2147;
1248.0000;0.6520;1.2196;
1248.3000;0.6536;1.2244;
1248.6000;0.6536;1.2317;
1248.9000;0.6545;1.2292;
1249.2000;0.6553;1.2341;
1249.5000;0.6496;1.2292;
1249.8000;0.6545;1.2341;
1250.1000;0.6545;1.2317;
1250.4000;0.6561;1.2317;
1250.7000;0.6536;1.2244;
1251.0000;0.6536;1.2196;
1251.3000;0.6561;1.2341;
1251.6000;0.6553;1.2341;
1251.9000;0.6545;1.2268;
1252.2000;0.6553;1.2341;
1252.5000;0.6528;1.2268;
1252.8000;0.6545;1.2317;
1253.1000;0.6545;1.2341;
1253.4000;0.6520;1.2317;
1253.7000;0.6536;1.2341;
1254.0000;0.6536;1.2341;
1254.3000;0.6545;1.2438;
1254.6000;0.6536;1.2317;
1254.9000;0.6536;1.2196;
1255.2000;0.6545;1.2220;
1255.5000;0.6545;1.2220;
1255.8000;0.6545;1.2171;
1256.1000;0.6545;1.2244;
1256.4000;0.6545;1.2292;
1256.7000;0.6561;1.2341;
1257.0000;0.6553;1.2341;
1257.3000;0.6553;1.2317;
1257.6000;0.6536;1.2268;
1257.9000;0.6553;1.2292;
1258.2000;0.6536;1.2341;
1258.5000;0.6528;1.2292;
1258.8000;0.6553;1.2268;
1259.1000;0.6545;1.2268;
1259.4000;0.6545;1.2292;
1259.7000;0.6569;1.2414;
1260.0000;0.6520;1.2292;
1260.3000;0.6553;1.2292;
1260.6000;0.6553;1.2292;
1260.9000;0.6528;1.2244;
1261.2000;0.6553;1.2268;
1261.5000;0.6545;1.2196;
1261.8000;0.6545;1.2220;
1262.1000;0.6536;1.2220;
1262.4000;0.6545;1.2268;
1262.7000;0.6585;1.2292;
1263.0000;0.6545;1.2268;
1263.3000;0.6593;1.2462;
1263.6000;0.6545;1.2317;
1263.9000;0.6545;1.2389;
1264.2000;0.6569;1.2389;
1264.5000;0.6545;1.2268;
1264.8000;0.6536;1.2341;
1265.1000;0.6536;1.2414;
1265.4000;0.6545;1.2486;
1265.7000;0.6561;1.2535;
1266.0000;0.6520;1.2462;
1266.3000;0.6528;1.2559;
1266.6000;0.6577;1.2608;
1266.9000;0.6545;1.2583;
1267.2000;0.6536;1.2462;
1267.5000;0.6488;1.2292;
1267.8000;0.6553;1.2438;
1268.1000;0.6504;1.2292;
1268.4000;0.6553;1.2317;
1268.7000;0.6536;1.2220;
1269.0000;0.6479;1.2123;
1269.3000;0.6504;1.2171;
1269.6000;0.6520;1.2196;
1269.9000;0.6593;1.2414;
1270.2000;0.6545;1.2365;
1270.5000;0.6545;1.2414;
1270.8000;0.6553;1.2365;
1271.1000;0.6512;1.2268;
1271.4000;0.6553;1.2389;
1271.7000;0.6536;1.2292;
1272.0000;0.6496;1.2196;
1272.3000;0.6536;1.2244;
1272.6000;0.6528;1.2317;
1272.9000;0.6545;1.2389;
1273.2000;0.6553;1.2341;
1273.5000;0.6536;1.2365;
1273.8000;0.6545;1.2365;
1274.1000;0.6545;1.2389;
1274.4000;0.6545;1.2365;
1274.7000;0.6545;1.2317;
1275.0000;0.6545;1.2365;
1275.3000;0.6536;1.2341;
1275.6000;0.6553;1.2365;
1275.9000;0.6528;1.2244;
1276.2000;0.6545;1.2292;
1276.5000;0.6553;1.2414;
1276.8000;0.6545;1.2292;
1277.1000;0.6545;1.2317;
1277.4000;0.6536;1.2244;
1277.7000;0.6545;1.2220;
1278.0000;0.6545;1.2292;
1278.3000;0.6536;1.2389;
1278.6000;0.6528;1.2341;
1278.9000;0.6561;1.2317;
1279.2000;0.6561;1.2244;
1279.5000;0.6545;1.2292;
1279.8000;0.6553;1.2268;
1280.1000;0.6536;1.2220;
1280.4000;0.6512;1.2244;
1280.7000;0.6536;1.2365;
1281.0000;0.6528;1.2292;
1281.3000;0.6545;1.2341;
1281.6000;0.6536;1.2317;
1281.9000;0.6545;1.2292;
1282.2000;0.6553;1.2341;
1282.5000;0.6536;1.2414;
1282.8000;0.6520;1.2365;
1283.1000;0.6528;1.2438;
1283.4000;0.6585;1.2608;
1283.7000;0.6536;1.2511;
1284.0000;0.6545;1.2511;
1284.3000;0.6528;1.2486;
1284.6000;0.6536;1.2462;
1284.9000;0.6545;1.2462;
1285.2000;0.6545;1.2389;
1285.5000;0.6528;1.2389;
1285.8000;0.6536;1.2414;
1286.1000;0.6569;1.2462;
1286.4000;0.6536;1.2414;
1286.7000;0.6536;1.2389;
1287.0000;0.6545;1.2389;
1287.3000;0.6553;1.2462;
1287.6000;0.6553;1.2511;
1287.9000;0.6545;1.2535;
1288.2000;0.6577;1.2608;
1288.5000;0.6569;1.2559;
1288.8000;0.6545;1.2438;
1289.1000;0.6528;1.2389;
1289.4000;0.6520;1.2317;
1289.7000;0.6536;1.2365;
1290.0000;0.6536;1.2317;
1290.3000;0.6577;1.2365;
1290.6000;0.6496;1.2123;
1290.9000;0.6561;1.2365;
1291.2000;0.6447;1.2099;
1291.5000;0.6528;1.2268;
1291.8000;0.6512;1.2268;
1292.1000;0.6553;1.2389;
1292.4000;0.6528;1.2414;
1292.7000;0.6536;1.2389;
1293.0000;0.6553;1.2511;
1293.3000;0.6536;1.2511;
1293.6000;0.6536;1.2559;
1293.9000;0.6553;1.2583;
1294.2000;0.6520;1.2535;
1294.5000;0.6520;1.2438;
1294.8000;0.6528;1.2486;
1295.1000;0.6536;1.2559;
1295.4000;0.6528;1.2511;
1295.7000;0.6520;1.2438;
1296.0000;0.6528;1.2438;
1296.3000;0.6528;1.2486;
1296.6000;0.6528;1.2511;
1296.9000;0.6545;1.2559;
1297.2000;0.6545;1.2559;
1297.5000;0.6536;1.2511;
1297.8000;0.6512;1.2486;
1298.1000;0.6528;1.2535;
1298.4000;0.6545;1.2486;
1298.7000;0.6553;1.2486;
1299.0000;0.6545;1.2438;
1299.3000;0.6536;1.2438;
1299.6000;0.6536;1.2438;
1299.9000;0.6536;1.2414;
1300.2000;0.6520;1.2365;
1300.5000;0.6545;1.2414;
1300.8000;0.6488;1.2341;
1301.1000;0.6569;1.2583;
1301.4000;0.6528;1.2486;
1301.7000;0.6528;1.2486;
1302.0000;0.6536;1.2414;
1302.3000;0.6536;1.2365;
1302.6000;0.6536;1.2341;
1302.9000;0.6528;1.2268;
1303.2000;0.6545;1.2292;
1303.5000;0.6536;1.2196;
1303.8000;0.6545;1.2317;
1304.1000;0.6528;1.2341;
1304.4000;0.6528;1.2365;
1304.7000;0.6528;1.2414;
1305.0000;0.6536;1.2486;
1305.3000;0.6553;1.2535;
1305.6000;0.6536;1.2486;
1305.9000;0.6536;1.2486;
1306.2000;0.6528;1.2389;
1306.5000;0.6536;1.2486;
1306.8000;0.6520;1.2365;
1307.1000;0.6536;1.2317;
1307.4000;0.6536;1.2220;
1307.7000;0.6536;1.2196;
1308.0000;0.6528;1.2268;
1308.3000;0.6545;1.2292;
1308.6000;0.6536;1.2292;
1308.9000;0.6536;1.2365;
1309.2000;0.6536;1.2341;
1309.5000;0.6504;1.2268;
1309.8000;0.6520;1.2317;
1310.1000;0.6561;1.2414;
1310.4000;0.6536;1.2292;
1310.7000;0.6520;1.2292;
1311.0000;0.6512;1.2317;
1311.3000;0.6536;1.2365;
1311.6000;0.6545;1.2438;
1311.9000;0.6512;1.2317;
1312.2000;0.6536;1.2389;
1312.5000;0.6536;1.2414;
1312.8000;0.6545;1.2462;
1313.1000;0.6610;1.2608;
1313.4000;0.6536;1.2414;
1313.7000;0.6536;1.2438;
1314.0000;0.6553;1.2389;
1314.3000;0.6545;1.2438;
1314.6000;0.6528;1.2414;
1314.9000;0.6553;1.2438;
1315.2000;0.6545;1.2438;
1315.5000;0.6536;1.2462;
1315.8000;0.6520;1.2511;
1316.1000;0.6512;1.2462;
1316.4000;0.6528;1.2438;
1316.7000;0.6536;1.2389;
1317.0000;0.6471;1.2171;
1317.3000;0.6545;1.2365;
1317.6000;0.6536;1.2317;
1317.9000;0.6528;1.2365;
1318.2000;0.6528;1.2365;
1318.5000;0.6528;1.2317;
1318.8000;0.6536;1.2414;
1319.1000;0.6536;1.2389;
1319.4000;0.6512;1.2317;
1319.7000;0.6504;1.2244;
1320.0000;0.6569;1.2341;
1320.3000;0.6602;1.2559;
1320.6000;0.6504;1.2292;
1320.9000;0.6528;1.2341;
1321.2000;0.6512;1.2244;
1321.5000;0.6602;1.2389;
1321.8000;0.6528;1.2196;
1322.1000;0.6528;1.2196;
1322.4000;0.6504;1.2220;
1322.7000;0.6528;1.2317;
1323.0000;0.6553;1.2220;
1323.3000;0.6545;1.2244;
1323.6000;0.6536;1.2341;
1323.9000;0.6488;1.2220;
1324.2000;0.6536;1.2292;
1324.5000;0.6536;1.2220;
1324.8000;0.6520;1.2268;
1325.1000;0.6545;1.2292;
1325.4000;0.6520;1.2292;
1325.7000;0.6520;1.2317;
1326.0000;0.6536;1.2292;
1326.3000;0.6536;1.2341;
1326.6000;0.6569;1.2462;
1326.9000;0.6536;1.2268;
1327.2000;0.6536;1.2317;
1327.5000;0.6512;1.2244;
1327.8000;0.6553;1.2317;
1328.1000;0.6545;1.2292;
1328.4000;0.6536;1.2196;
1328.7000;0.6553;1.2171;
1329.0000;0.6545;1.2123;
1329.3000;0.6536;1.2171;
1329.6000;0.6520;1.2196;
1329.9000;0.6528;1.2220;
1330.2000;0.6536;1.2196;
1330.5000;0.6553;1.2268;
1330.8000;0.6528;1.2244;
1331.1000;0.6528;1.2244;
1331.4000;0.6536;1.2292;
1331.7000;0.6528;1.2292;
1332.0000;0.6512;1.2171;
1332.3000;0.6520;1.2171;
1332.6000;0.6528;1.2220;
1332.9000;0.6536;1.2244;
1333.2000;0.6520;1.2220;
1333.5000;0.6545;1.2365;
1333.8000;0.6528;1.2317;
1334.1000;0.6528;1.2317;
1334.4000;0.6536;1.2244;
1334.7000;0.6528;1.2220;
1335.0000;0.6536;1.2220;
1335.3000;0.6536;1.2292;
1335.6000;0.6585;1.2511;
1335.9000;0.6545;1.2341;
1336.2000;0.6545;1.2317;
1336.5000;0.6528;1.2292;
1336.8000;0.6528;1.2317;
1337.1000;0.6545;1.2365;
1337.4000;0.6520;1.2365;
1337.7000;0.6528;1.2438;
1338.0000;0.6528;1.2511;
1338.3000;0.6553;1.2656;
1338.6000;0.6545;1.2656;
1338.9000;0.6545;1.2608;
1339.2000;0.6520;1.2535;
1339.5000;0.6479;1.2365;
1339.8000;0.6536;1.2511;
1340.1000;0.6553;1.2511;
1340.4000;0.6528;1.2414;
1340.7000;0.6520;1.2389;
1341.0000;0.6504;1.2341;
1341.3000;0.6553;1.2365;
1341.6000;0.6520;1.2292;
1341.9000;0.6569;1.2389;
1342.2000;0.6553;1.2438;
1342.5000;0.6528;1.2341;
1342.8000;0.6536;1.2365;
1343.1000;0.6504;1.2365;
1343.4000;0.6528;1.2414;
1343.7000;0.6528;1.2341;
1344.0000;0.6553;1.2341;
1344.3000;0.6520;1.2292;
1344.6000;0.6545;1.2389;
1344.9000;0.6528;1.2389;
1345.2000;0.6536;1.2414;
1345.5000;0.6528;1.2341;
1345.8000;0.6536;1.2389;
1346.1000;0.6504;1.2292;
1346.4000;0.6528;1.2438;
1346.7000;0.6520;1.2462;
1347.0000;0.6528;1.2438;
1347.3000;0.6504;1.2389;
1347.6000;0.6520;1.2341;
1347.9000;0.6536;1.2389;
1348.2000;0.6545;1.2414;
1348.5000;0.6536;1.2486;
1348.8000;0.6545;1.2414;
1349.1000;0.6545;1.2438;
1349.4000;0.6536;1.2462;
1349.7000;0.6561;1.2486;
1350.0000;0.6528;1.2389;
1350.3000;0.6545;1.2389;
1350.6000;0.6528;1.2341;
1350.9000;0.6520;1.2292;
1351.2000;0.6553;1.2341;
1351.5000;0.6545;1.2317;
1351.8000;0.6512;1.2292;
1352.1000;0.6520;1.2220;
1352.4000;0.6504;1.2099;
1352.7000;0.6496;1.2099;
1353.0000;0.6528;1.2147;
1353.3000;0.6520;1.2196;
1353.6000;0.6528;1.2244;
1353.9000;0.6553;1.2365;
1354.2000;0.6528;1.2292;
1354.5000;0.6528;1.2292;
1354.8000;0.6536;1.2317;
1355.1000;0.6528;1.2292;
1355.4000;0.6520;1.2268;
1355.7000;0.6545;1.2268;
1356.0000;0.6536;1.2244;
1356.3000;0.6528;1.2244;
1356.6000;0.6528;1.2220;
1356.9000;0.6545;1.2244;
1357.2000;0.6520;1.2220;
1357.5000;0.6545;1.2292;
1357.8000;0.6536;1.2389;
1358.1000;0.6553;1.2438;
1358.4000;0.6504;1.2365;
1358.7000;0.6545;1.2486;
1359.0000;0.6536;1.2535;
1359.3000;0.6561;1.2559;
1359.6000;0.6520;1.2438;
1359.9000;0.6553;1.2559;
1360.2000;0.6545;1.2511;
1360.5000;0.6528;1.2535;
1360.8000;0.6528;1.2414;
1361.1000;0.6488;1.2292;
1361.4000;0.6520;1.2414;
1361.7000;0.6528;1.2414;
1362.0000;0.6504;1.2292;
1362.3000;0.6545;1.2317;
1362.6000;0.6528;1.2147;
1362.9000;0.6528;1.2123;
1363.2000;0.6520;1.2099;
1363.5000;0.6528;1.2123;
1363.8000;0.6536;1.2268;
1364.1000;0.6528;1.2365;
1364.4000;0.6536;1.2365;
1364.7000;0.6512;1.2317;
1365.0000;0.6536;1.2341;
1365.3000;0.6536;1.2341;
1365.6000;0.6545;1.2414;
1365.9000;0.6545;1.2462;
1366.2000;0.6504;1.2268;
1366.5000;0.6528;1.2268;
1366.8000;0.6528;1.2317;
1367.1000;0.6561;1.2462;
1367.4000;0.6536;1.2462;
1367.7000;0.6545;1.2486;
1368.0000;0.6496;1.2414;
1368.3000;0.6496;1.2389;
1368.6000;0.6528;1.2511;
1368.9000;0.6545;1.2511;
1369.2000;0.6488;1.2462;
1369.5000;0.6528;1.2656;
1369.8000;0.6528;1.2656;
1370.1000;0.6545;1.2680;
1370.4000;0.6545;1.2680;
1370.7000;0.6512;1.2583;
1371.0000;0.6536;1.2535;
1371.3000;0.6528;1.2535;
1371.6000;0.6545;1.2535;
1371.9000;0.6536;1.2414;
1372.2000;0.6528;1.2389;
1372.5000;0.6520;1.2389;
1372.8000;0.6536;1.2438;
1373.1000;0.6520;1.2341;
1373.4000;0.6528;1.2341;
1373.7000;0.6512;1.2389;
1374.0000;0.6520;1.2389;
1374.3000;0.6520;1.2486;
1374.6000;0.6520;1.2438;
1374.9000;0.6528;1.2462;
1375.2000;0.6536;1.2535;
1375.5000;0.6528;1.2559;
1375.8000;0.6602;1.2753;
1376.1000;0.6496;1.2559;
1376.4000;0.6528;1.2656;
1376.7000;0.6528;1.2656;
1377.0000;0.6504;1.2511;
1377.3000;0.6512;1.2462;
1377.6000;0.6528;1.2462;
1377.9000;0.6545;1.2438;
1378.2000;0.6536;1.2389;
1378.5000;0.6520;1.2438;
1378.8000;0.6602;1.2656;
1379.1000;0.6528;1.2462;
1379.4000;0.6528;1.2414;
1379.7000;0.6520;1.2341;
1380.0000;0.6536;1.2389;
1380.3000;0.6545;1.2414;
1380.6000;0.6528;1.2414;
1380.9000;0.6512;1.2365;
1381.2000;0.6520;1.2438;
1381.5000;0.6561;1.2486;
1381.8000;0.6520;1.2389;
1382.1000;0.6528;1.2341;
1382.4000;0.6536;1.2341;
1382.7000;0.6520;1.2389;
1383.0000;0.6528;1.2414;
1383.3000;0.6512;1.2414;
1383.6000;0.6512;1.2389;
1383.9000;0.6512;1.2365;
1384.2000;0.6528;1.2389;
1384.5000;0.6520;1.2341;
1384.8000;0.6528;1.2292;
1385.1000;0.6528;1.2317;
1385.4000;0.6528;1.2365;
1385.7000;0.6545;1.2317;
1386.0000;0.6536;1.2292;
1386.3000;0.6536;1.2220;
1386.6000;0.6528;1.2292;
1386.9000;0.6536;1.2292;
1387.2000;0.6488;1.2147;
1387.5000;0.6536;1.2268;
1387.8000;0.6545;1.2365;
1388.1000;0.6528;1.2341;
1388.4000;0.6520;1.2389;
1388.7000;0.6545;1.2438;
1389.0000;0.6520;1.2438;
1389.3000;0.6545;1.2438;
1389.6000;0.6520;1.2438;
1389.9000;0.6528;1.2486;
1390.2000;0.6512;1.2486;
1390.5000;0.6536;1.2414;
1390.8000;0.6545;1.2438;
1391.1000;0.6520;1.2414;
1391.4000;0.6545;1.2414;
1391.7000;0.6536;1.2414;
1392.0000;0.6545;1.2462;
1392.3000;0.6528;1.2414;
1392.6000;0.6561;1.2486;
1392.9000;0.6528;1.2389;
1393.2000;0.6536;1.2438;
1393.5000;0.6528;1.2365;
1393.8000;0.6504;1.2341;
1394.1000;0.6504;1.2341;
1394.4000;0.6553;1.2462;
1394.7000;0.6504;1.2268;
1395.0000;0.6512;1.2244;
1395.3000;0.6520;1.2171;
1395.6000;0.6536;1.2123;
1395.9000;0.6545;1.2220;
1396.2000;0.6545;1.2244;
1396.5000;0.6520;1.2171;
1396.8000;0.6488;1.2099;
1397.1000;0.6545;1.2244;
1397.4000;0.6512;1.2171;
1397.7000;0.6536;1.2268;
1398.0000;0.6536;1.2268;
1398.3000;0.6536;1.2196;
1398.6000;0.6504;1.2171;
1398.9000;0.6520;1.2171;
1399.2000;0.6512;1.2099;
1399.5000;0.6536;1.2147;
1399.8000;0.6536;1.2099;
