time/ms;Fluo/V;P700 deltaI/I x10³;
-199.8000;1.2617;1.5396;
-199.5000;1.2568;1.5250;
-199.2000;1.2625;1.5347;
-198.9000;1.2617;1.5396;
-198.6000;1.2625;1.5372;
-198.3000;1.2625;1.5372;
-198.0000;1.2625;1.5372;
-197.7000;1.2609;1.5420;
-197.4000;1.2617;1.5444;
-197.1000;1.2617;1.5420;
-196.8000;1.2633;1.5444;
-196.5000;1.2625;1.5396;
-196.2000;1.2674;1.5541;
-195.9000;1.2625;1.5444;
-195.6000;1.2666;1.5493;
-195.3000;1.2617;1.5444;
-195.0000;1.2609;1.5541;
-194.7000;1.2633;1.5517;
-194.4000;1.2625;1.5566;
-194.1000;1.2715;1.5784;
-193.8000;1.2633;1.5590;
-193.5000;1.2650;1.5566;
-193.2000;1.2625;1.5444;
-192.9000;1.2593;1.5323;
-192.6000;1.2650;1.5396;
-192.3000;1.2625;1.5347;
-192.0000;1.2666;1.5517;
-191.7000;1.2609;1.5372;
-191.4000;1.2544;1.5105;
-191.1000;1.2625;1.5347;
-190.8000;1.2625;1.5323;
-190.5000;1.2617;1.5347;
-190.2000;1.2625;1.5372;
-189.9000;1.2617;1.5420;
-189.6000;1.2658;1.5493;
-189.3000;1.2698;1.5541;
-189.0000;1.2625;1.5372;
-188.7000;1.2601;1.5323;
-188.4000;1.2601;1.5347;
-188.1000;1.2601;1.5250;
-187.8000;1.2617;1.5226;
-187.5000;1.2625;1.5250;
-187.2000;1.2609;1.5202;
-186.9000;1.2601;1.5226;
-186.6000;1.2609;1.5323;
-186.3000;1.2617;1.5420;
-186.0000;1.2625;1.5420;
-185.7000;1.2617;1.5420;
-185.4000;1.2633;1.5517;
-185.1000;1.2617;1.5420;
-184.8000;1.2625;1.5444;
-184.5000;1.2633;1.5517;
-184.2000;1.2609;1.5614;
-183.9000;1.2609;1.5493;
-183.6000;1.2601;1.5444;
-183.3000;1.2609;1.5444;
-183.0000;1.2609;1.5420;
-182.7000;1.2633;1.5469;
-182.4000;1.2641;1.5517;
-182.1000;1.2625;1.5493;
-181.8000;1.2625;1.5614;
-181.5000;1.2593;1.5590;
-181.2000;1.2609;1.5663;
-180.9000;1.2625;1.5735;
-180.6000;1.2625;1.5735;
-180.3000;1.2617;1.5711;
-180.0000;1.2617;1.5663;
-179.7000;1.2625;1.5711;
-179.4000;1.2609;1.5663;
-179.1000;1.2617;1.5590;
-178.8000;1.2601;1.5614;
-178.5000;1.2601;1.5638;
-178.2000;1.2609;1.5663;
-177.9000;1.2625;1.5566;
-177.6000;1.2593;1.5517;
-177.3000;1.2593;1.5493;
-177.0000;1.2601;1.5517;
-176.7000;1.2609;1.5493;
-176.4000;1.2609;1.5469;
-176.1000;1.2617;1.5444;
-175.8000;1.2609;1.5347;
-175.5000;1.2609;1.5347;
-175.2000;1.2601;1.5347;
-174.9000;1.2609;1.5372;
-174.6000;1.2617;1.5444;
-174.3000;1.2625;1.5469;
-174.0000;1.2601;1.5420;
-173.7000;1.2617;1.5372;
-173.4000;1.2633;1.5396;
-173.1000;1.2641;1.5420;
-172.8000;1.2609;1.5275;
-172.5000;1.2641;1.5396;
-172.2000;1.2593;1.5323;
-171.9000;1.2593;1.5347;
-171.6000;1.2633;1.5469;
-171.3000;1.2650;1.5590;
-171.0000;1.2625;1.5493;
-170.7000;1.2633;1.5420;
-170.4000;1.2633;1.5372;
-170.1000;1.2641;1.5444;
-169.8000;1.2633;1.5469;
-169.5000;1.2650;1.5517;
-169.2000;1.2617;1.5444;
-168.9000;1.2617;1.5420;
-168.6000;1.2601;1.5469;
-168.3000;1.2625;1.5541;
-168.0000;1.2576;1.5396;
-167.7000;1.2609;1.5590;
-167.4000;1.2609;1.5566;
-167.1000;1.2625;1.5541;
-166.8000;1.2609;1.5493;
-166.5000;1.2601;1.5444;
-166.2000;1.2617;1.5517;
-165.9000;1.2617;1.5517;
-165.6000;1.2625;1.5493;
-165.3000;1.2617;1.5469;
-165.0000;1.2601;1.5493;
-164.7000;1.2601;1.5541;
-164.4000;1.2625;1.5614;
-164.1000;1.2609;1.5614;
-163.8000;1.2625;1.5517;
-163.5000;1.2601;1.5566;
-163.2000;1.2625;1.5566;
-162.9000;1.2625;1.5590;
-162.6000;1.2625;1.5566;
-162.3000;1.2609;1.5638;
-162.0000;1.2617;1.5711;
-161.7000;1.2625;1.5638;
-161.4000;1.2617;1.5590;
-161.1000;1.2593;1.5444;
-160.8000;1.2625;1.5493;
-160.5000;1.2625;1.5469;
-160.2000;1.2666;1.5614;
-159.9000;1.2625;1.5493;
-159.6000;1.2617;1.5493;
-159.3000;1.2617;1.5541;
-159.0000;1.2625;1.5566;
-158.7000;1.2625;1.5566;
-158.4000;1.2609;1.5541;
-158.1000;1.2633;1.5566;
-157.8000;1.2617;1.5469;
-157.5000;1.2633;1.5517;
-157.2000;1.2658;1.5614;
-156.9000;1.2617;1.5444;
-156.6000;1.2617;1.5469;
-156.3000;1.2617;1.5469;
-156.0000;1.2601;1.5469;
-155.7000;1.2617;1.5517;
-155.4000;1.2617;1.5566;
-155.1000;1.2641;1.5638;
-154.8000;1.2625;1.5638;
-154.5000;1.2617;1.5638;
-154.2000;1.2641;1.5663;
-153.9000;1.2633;1.5638;
-153.6000;1.2625;1.5638;
-153.3000;1.2609;1.5614;
-153.0000;1.2617;1.5614;
-152.7000;1.2641;1.5590;
-152.4000;1.2633;1.5517;
-152.1000;1.2625;1.5517;
-151.8000;1.2633;1.5590;
-151.5000;1.2625;1.5541;
-151.2000;1.2633;1.5566;
-150.9000;1.2633;1.5541;
-150.6000;1.2633;1.5590;
-150.3000;1.2641;1.5541;
-150.0000;1.2633;1.5614;
-149.7000;1.2617;1.5590;
-149.4000;1.2617;1.5590;
-149.1000;1.2617;1.5711;
-148.8000;1.2617;1.5760;
-148.5000;1.2617;1.5808;
-148.2000;1.2617;1.5760;
-147.9000;1.2617;1.5687;
-147.6000;1.2609;1.5614;
-147.3000;1.2593;1.5590;
-147.0000;1.2601;1.5566;
-146.7000;1.2609;1.5566;
-146.4000;1.2617;1.5517;
-146.1000;1.2617;1.5493;
-145.8000;1.2601;1.5469;
-145.5000;1.2617;1.5566;
-145.2000;1.2617;1.5638;
-144.9000;1.2625;1.5590;
-144.6000;1.2609;1.5517;
-144.3000;1.2593;1.5566;
-144.0000;1.2601;1.5663;
-143.7000;1.2617;1.5784;
-143.4000;1.2609;1.5784;
-143.1000;1.2609;1.5735;
-142.8000;1.2609;1.5711;
-142.5000;1.2617;1.5711;
-142.2000;1.2593;1.5663;
-141.9000;1.2609;1.5663;
-141.6000;1.2617;1.5711;
-141.3000;1.2617;1.5711;
-141.0000;1.2617;1.5663;
-140.7000;1.2609;1.5663;
-140.4000;1.2625;1.5590;
-140.1000;1.2650;1.5687;
-139.8000;1.2707;1.5881;
-139.5000;1.2617;1.5711;
-139.2000;1.2609;1.5711;
-138.9000;1.2715;1.6002;
-138.6000;1.2617;1.5784;
-138.3000;1.2609;1.5784;
-138.0000;1.2625;1.5881;
-137.7000;1.2609;1.5881;
-137.4000;1.2617;1.5905;
-137.1000;1.2658;1.5929;
-136.8000;1.2593;1.5784;
-136.5000;1.2609;1.5784;
-136.2000;1.2625;1.5857;
-135.9000;1.2633;1.5832;
-135.6000;1.2609;1.5784;
-135.3000;1.2625;1.5760;
-135.0000;1.2617;1.5663;
-134.7000;1.2609;1.5711;
-134.4000;1.2609;1.5784;
-134.1000;1.2617;1.5711;
-133.8000;1.2641;1.5711;
-133.5000;1.2609;1.5711;
-133.2000;1.2601;1.5711;
-132.9000;1.2601;1.5735;
-132.6000;1.2617;1.5711;
-132.3000;1.2625;1.5760;
-132.0000;1.2617;1.5711;
-131.7000;1.2593;1.5735;
-131.4000;1.2601;1.5735;
-131.1000;1.2617;1.5760;
-130.8000;1.2609;1.5808;
-130.5000;1.2617;1.5808;
-130.2000;1.2568;1.5711;
-129.9000;1.2617;1.5808;
-129.6000;1.2617;1.5808;
-129.3000;1.2633;1.5760;
-129.0000;1.2650;1.5663;
-128.7000;1.2641;1.5638;
-128.4000;1.2617;1.5663;
-128.1000;1.2625;1.5711;
-127.8000;1.2633;1.5735;
-127.5000;1.2609;1.5808;
-127.2000;1.2625;1.5857;
-126.9000;1.2625;1.5808;
-126.6000;1.2617;1.5808;
-126.3000;1.2617;1.5760;
-126.0000;1.2617;1.5735;
-125.7000;1.2625;1.5735;
-125.4000;1.2625;1.5711;
-125.1000;1.2650;1.5784;
-124.8000;1.2609;1.5760;
-124.5000;1.2609;1.5614;
-124.2000;1.2650;1.5784;
-123.9000;1.2601;1.5687;
-123.6000;1.2593;1.5663;
-123.3000;1.2625;1.5663;
-123.0000;1.2601;1.5566;
-122.7000;1.2617;1.5517;
-122.4000;1.2601;1.5590;
-122.1000;1.2601;1.5614;
-121.8000;1.2617;1.5663;
-121.5000;1.2593;1.5614;
-121.2000;1.2601;1.5687;
-120.9000;1.2609;1.5711;
-120.6000;1.2609;1.5687;
-120.3000;1.2617;1.5638;
-120.0000;1.2617;1.5614;
-119.7000;1.2617;1.5590;
-119.4000;1.2617;1.5711;
-119.1000;1.2625;1.5711;
-118.8000;1.2609;1.5687;
-118.5000;1.2617;1.5711;
-118.2000;1.2625;1.5687;
-117.9000;1.2625;1.5614;
-117.6000;1.2617;1.5687;
-117.3000;1.2625;1.5735;
-117.0000;1.2625;1.5760;
-116.7000;1.2609;1.5735;
-116.4000;1.2601;1.5760;
-116.1000;1.2601;1.5735;
-115.8000;1.2609;1.5735;
-115.5000;1.2625;1.5760;
-115.2000;1.2617;1.5687;
-114.9000;1.2617;1.5638;
-114.6000;1.2617;1.5735;
-114.3000;1.2625;1.5711;
-114.0000;1.2617;1.5711;
-113.7000;1.2617;1.5711;
-113.4000;1.2625;1.5663;
-113.1000;1.2633;1.5711;
-112.8000;1.2601;1.5638;
-112.5000;1.2617;1.5663;
-112.2000;1.2633;1.5638;
-111.9000;1.2633;1.5687;
-111.6000;1.2609;1.5711;
-111.3000;1.2609;1.5687;
-111.0000;1.2617;1.5638;
-110.7000;1.2641;1.5638;
-110.4000;1.2633;1.5590;
-110.1000;1.2633;1.5663;
-109.8000;1.2593;1.5614;
-109.5000;1.2609;1.5663;
-109.2000;1.2617;1.5735;
-108.9000;1.2617;1.5735;
-108.6000;1.2633;1.5687;
-108.3000;1.2625;1.5711;
-108.0000;1.2641;1.5663;
-107.7000;1.2682;1.5760;
-107.4000;1.2609;1.5590;
-107.1000;1.2625;1.5711;
-106.8000;1.2625;1.5760;
-106.5000;1.2625;1.5760;
-106.2000;1.2617;1.5663;
-105.9000;1.2625;1.5590;
-105.6000;1.2674;1.5735;
-105.3000;1.2609;1.5590;
-105.0000;1.2568;1.5566;
-104.7000;1.2609;1.5711;
-104.4000;1.2609;1.5711;
-104.1000;1.2617;1.5687;
-103.8000;1.2641;1.5711;
-103.5000;1.2625;1.5711;
-103.2000;1.2625;1.5711;
-102.9000;1.2617;1.5687;
-102.6000;1.2625;1.5711;
-102.3000;1.2617;1.5735;
-102.0000;1.2609;1.5760;
-101.7000;1.2617;1.5808;
-101.4000;1.2617;1.5784;
-101.1000;1.2601;1.5735;
-100.8000;1.2609;1.5663;
-100.5000;1.2576;1.5663;
-100.2000;1.2593;1.5711;
-99.9000;1.2601;1.5687;
-99.6000;1.2609;1.5760;
-99.3000;1.2617;1.5760;
-99.0000;1.2625;1.5760;
-98.7000;1.2609;1.5784;
-98.4000;1.2609;1.5711;
-98.1000;1.2617;1.5760;
-97.8000;1.2601;1.5808;
-97.5000;1.2625;1.5784;
-97.2000;1.2593;1.5760;
-96.9000;1.2617;1.5735;
-96.6000;1.2625;1.5687;
-96.3000;1.2625;1.5663;
-96.0000;1.2617;1.5590;
-95.7000;1.2601;1.5614;
-95.4000;1.2617;1.5614;
-95.1000;1.2617;1.5638;
-94.8000;1.2625;1.5687;
-94.5000;1.2593;1.5566;
-94.2000;1.2609;1.5493;
-93.9000;1.2650;1.5590;
-93.6000;1.2609;1.5541;
-93.3000;1.2625;1.5590;
-93.0000;1.2617;1.5614;
-92.7000;1.2617;1.5638;
-92.4000;1.2609;1.5711;
-92.1000;1.2617;1.5687;
-91.8000;1.2576;1.5566;
-91.5000;1.2617;1.5638;
-91.2000;1.2617;1.5638;
-90.9000;1.2650;1.5638;
-90.6000;1.2617;1.5638;
-90.3000;1.2633;1.5614;
-90.0000;1.2625;1.5614;
-89.7000;1.2609;1.5590;
-89.4000;1.2617;1.5614;
-89.1000;1.2617;1.5663;
-88.8000;1.2625;1.5735;
-88.5000;1.2650;1.5857;
-88.2000;1.2617;1.5735;
-87.9000;1.2617;1.5784;
-87.6000;1.2633;1.5832;
-87.3000;1.2625;1.5857;
-87.0000;1.2617;1.5784;
-86.7000;1.2609;1.5711;
-86.4000;1.2641;1.5760;
-86.1000;1.2625;1.5687;
-85.8000;1.2617;1.5663;
-85.5000;1.2601;1.5638;
-85.2000;1.2609;1.5663;
-84.9000;1.2617;1.5687;
-84.6000;1.2641;1.5760;
-84.3000;1.2601;1.5493;
-84.0000;1.2609;1.5469;
-83.7000;1.2584;1.5323;
-83.4000;1.2633;1.5469;
-83.1000;1.2617;1.5444;
-82.8000;1.2633;1.5444;
-82.5000;1.2650;1.5590;
-82.2000;1.2625;1.5566;
-81.9000;1.2633;1.5614;
-81.6000;1.2609;1.5541;
-81.3000;1.2609;1.5590;
-81.0000;1.2633;1.5663;
-80.7000;1.2609;1.5590;
-80.4000;1.2617;1.5711;
-80.1000;1.2641;1.5832;
-79.8000;1.2601;1.5784;
-79.5000;1.2617;1.5735;
-79.2000;1.2601;1.5687;
-78.9000;1.2609;1.5663;
-78.6000;1.2617;1.5638;
-78.3000;1.2617;1.5663;
-78.0000;1.2617;1.5638;
-77.7000;1.2633;1.5614;
-77.4000;1.2584;1.5517;
-77.1000;1.2625;1.5614;
-76.8000;1.2617;1.5566;
-76.5000;1.2609;1.5541;
-76.2000;1.2625;1.5590;
-75.9000;1.2617;1.5590;
-75.6000;1.2609;1.5614;
-75.3000;1.2707;1.5808;
-75.0000;1.2617;1.5663;
-74.7000;1.2641;1.5638;
-74.4000;1.2609;1.5638;
-74.1000;1.2601;1.5614;
-73.8000;1.2625;1.5638;
-73.5000;1.2617;1.5614;
-73.2000;1.2593;1.5663;
-72.9000;1.2609;1.5735;
-72.6000;1.2601;1.5711;
-72.3000;1.2601;1.5687;
-72.0000;1.2609;1.5590;
-71.7000;1.2593;1.5541;
-71.4000;1.2609;1.5517;
-71.1000;1.2633;1.5517;
-70.8000;1.2601;1.5372;
-70.5000;1.2601;1.5372;
-70.2000;1.2601;1.5372;
-69.9000;1.2568;1.5347;
-69.6000;1.2617;1.5420;
-69.3000;1.2617;1.5444;
-69.0000;1.2625;1.5444;
-68.7000;1.2617;1.5469;
-68.4000;1.2625;1.5493;
-68.1000;1.2641;1.5517;
-67.8000;1.2682;1.5638;
-67.5000;1.2625;1.5469;
-67.2000;1.2633;1.5541;
-66.9000;1.2617;1.5541;
-66.6000;1.2625;1.5590;
-66.3000;1.2609;1.5590;
-66.0000;1.2625;1.5638;
-65.7000;1.2617;1.5590;
-65.4000;1.2633;1.5614;
-65.1000;1.2601;1.5566;
-64.8000;1.2609;1.5566;
-64.5000;1.2658;1.5614;
-64.2000;1.2609;1.5469;
-63.9000;1.2617;1.5420;
-63.6000;1.2625;1.5396;
-63.3000;1.2625;1.5517;
-63.0000;1.2617;1.5541;
-62.7000;1.2609;1.5517;
-62.4000;1.2633;1.5517;
-62.1000;1.2601;1.5493;
-61.8000;1.2625;1.5566;
-61.5000;1.2601;1.5517;
-61.2000;1.2633;1.5590;
-60.9000;1.2625;1.5590;
-60.6000;1.2633;1.5638;
-60.3000;1.2601;1.5614;
-60.0000;1.2609;1.5541;
-59.7000;1.2617;1.5444;
-59.4000;1.2633;1.5541;
-59.1000;1.2593;1.5566;
-58.8000;1.2625;1.5541;
-58.5000;1.2625;1.5663;
-58.2000;1.2625;1.5614;
-57.9000;1.2617;1.5663;
-57.6000;1.2633;1.5687;
-57.3000;1.2641;1.5784;
-57.0000;1.2633;1.5711;
-56.7000;1.2633;1.5808;
-56.4000;1.2617;1.5760;
-56.1000;1.2617;1.5711;
-55.8000;1.2617;1.5687;
-55.5000;1.2658;1.5687;
-55.2000;1.2609;1.5590;
-54.9000;1.2633;1.5614;
-54.6000;1.2625;1.5590;
-54.3000;1.2641;1.5614;
-54.0000;1.2625;1.5590;
-53.7000;1.2617;1.5566;
-53.4000;1.2576;1.5469;
-53.1000;1.2641;1.5638;
-52.8000;1.2666;1.5735;
-52.5000;1.2601;1.5493;
-52.2000;1.2625;1.5541;
-51.9000;1.2625;1.5517;
-51.6000;1.2625;1.5493;
-51.3000;1.2617;1.5493;
-51.0000;1.2576;1.5372;
-50.7000;1.2609;1.5469;
-50.4000;1.2674;1.5614;
-50.1000;1.2625;1.5517;
-49.8000;1.2593;1.5420;
-49.5000;1.2617;1.5396;
-49.2000;1.2617;1.5469;
-48.9000;1.2617;1.5420;
-48.6000;1.2625;1.5493;
-48.3000;1.2609;1.5444;
-48.0000;1.2625;1.5444;
-47.7000;1.2641;1.5517;
-47.4000;1.2625;1.5444;
-47.1000;1.2617;1.5541;
-46.8000;1.2560;1.5469;
-46.5000;1.2617;1.5614;
-46.2000;1.2625;1.5566;
-45.9000;1.2633;1.5541;
-45.6000;1.2625;1.5566;
-45.3000;1.2625;1.5614;
-45.0000;1.2625;1.5590;
-44.7000;1.2625;1.5566;
-44.4000;1.2633;1.5590;
-44.1000;1.2617;1.5590;
-43.8000;1.2609;1.5663;
-43.5000;1.2617;1.5590;
-43.2000;1.2593;1.5541;
-42.9000;1.2617;1.5614;
-42.6000;1.2568;1.5469;
-42.3000;1.2593;1.5517;
-42.0000;1.2617;1.5493;
-41.7000;1.2617;1.5493;
-41.4000;1.2593;1.5517;
-41.1000;1.2527;1.5347;
-40.8000;1.2576;1.5323;
-40.5000;1.2617;1.5347;
-40.2000;1.2633;1.5444;
-39.9000;1.2625;1.5372;
-39.6000;1.2617;1.5323;
-39.3000;1.2617;1.5347;
-39.0000;1.2625;1.5250;
-38.7000;1.2617;1.5153;
-38.4000;1.2601;1.5226;
-38.1000;1.2617;1.5299;
-37.8000;1.2544;1.5129;
-37.5000;1.2617;1.5420;
-37.2000;1.2617;1.5420;
-36.9000;1.2601;1.5396;
-36.6000;1.2609;1.5420;
-36.3000;1.2625;1.5469;
-36.0000;1.2511;1.5178;
-35.7000;1.2593;1.5372;
-35.4000;1.2625;1.5444;
-35.1000;1.2633;1.5372;
-34.8000;1.2625;1.5372;
-34.5000;1.2682;1.5541;
-34.2000;1.2617;1.5347;
-33.9000;1.2617;1.5420;
-33.6000;1.2617;1.5541;
-33.3000;1.2609;1.5614;
-33.0000;1.2609;1.5566;
-32.7000;1.2601;1.5469;
-32.4000;1.2625;1.5541;
-32.1000;1.2609;1.5517;
-31.8000;1.2617;1.5590;
-31.5000;1.2658;1.5687;
-31.2000;1.2633;1.5638;
-30.9000;1.2617;1.5493;
-30.6000;1.2617;1.5493;
-30.3000;1.2617;1.5566;
-30.0000;1.2617;1.5614;
-29.7000;1.2584;1.5590;
-29.4000;1.2690;1.5857;
-29.1000;1.2617;1.5614;
-28.8000;1.2593;1.5541;
-28.5000;1.2609;1.5590;
-28.2000;1.2609;1.5566;
-27.9000;1.2625;1.5614;
-27.6000;1.2609;1.5541;
-27.3000;1.2609;1.5541;
-27.0000;1.2617;1.5541;
-26.7000;1.2617;1.5614;
-26.4000;1.2609;1.5590;
-26.1000;1.2650;1.5760;
-25.8000;1.2609;1.5638;
-25.5000;1.2641;1.5687;
-25.2000;1.2601;1.5541;
-24.9000;1.2625;1.5663;
-24.6000;1.2625;1.5711;
-24.3000;1.2609;1.5784;
-24.0000;1.2625;1.5735;
-23.7000;1.2617;1.5687;
-23.4000;1.2609;1.5711;
-23.1000;1.2617;1.5711;
-22.8000;1.2536;1.5444;
-22.5000;1.2617;1.5541;
-22.2000;1.2625;1.5469;
-21.9000;1.2609;1.5420;
-21.6000;1.2617;1.5444;
-21.3000;1.2641;1.5517;
-21.0000;1.2584;1.5420;
-20.7000;1.2601;1.5444;
-20.4000;1.2633;1.5420;
-20.1000;1.2625;1.5493;
-19.8000;1.2625;1.5566;
-19.5000;1.2617;1.5493;
-19.2000;1.2609;1.5493;
-18.9000;1.2617;1.5493;
-18.6000;1.2601;1.5469;
-18.3000;1.2601;1.5469;
-18.0000;1.2609;1.5517;
-17.7000;1.2601;1.5493;
-17.4000;1.2625;1.5566;
-17.1000;1.2617;1.5541;
-16.8000;1.2617;1.5493;
-16.5000;1.2617;1.5493;
-16.2000;1.2633;1.5493;
-15.9000;1.2617;1.5396;
-15.6000;1.2617;1.5372;
-15.3000;1.2617;1.5396;
-15.0000;1.2625;1.5469;
-14.7000;1.2641;1.5493;
-14.4000;1.2617;1.5469;
-14.1000;1.2633;1.5590;
-13.8000;1.2617;1.5590;
-13.5000;1.2584;1.5469;
-13.2000;1.2617;1.5444;
-12.9000;1.2633;1.5469;
-12.6000;1.2601;1.5396;
-12.3000;1.2625;1.5372;
-12.0000;1.2698;1.5469;
-11.7000;1.2617;1.5226;
-11.4000;1.2633;1.5347;
-11.1000;1.2633;1.5396;
-10.8000;1.2641;1.5396;
-10.5000;1.2617;1.5323;
-10.2000;1.2601;1.5299;
-9.9000;1.2617;1.5347;
-9.6000;1.2625;1.5372;
-9.3000;1.2617;1.5275;
-9.0000;1.2617;1.5323;
-8.7000;1.2609;1.5275;
-8.4000;1.2609;1.5250;
-8.1000;1.2584;1.5226;
-7.8000;1.2601;1.5250;
-7.5000;1.2576;1.5250;
-7.2000;1.2601;1.5323;
-6.9000;1.2617;1.5372;
-6.6000;1.2609;1.5275;
-6.3000;1.2593;1.5323;
-6.0000;1.2609;1.5396;
-5.7000;1.2633;1.5541;
-5.4000;1.2633;1.5638;
-5.1000;1.2609;1.5566;
-4.8000;1.2617;1.5517;
-4.5000;1.2617;1.5566;
-4.2000;1.2609;1.5566;
-3.9000;1.2601;1.5566;
-3.6000;1.2617;1.5590;
-3.3000;1.2617;1.5566;
-3.0000;1.2601;1.5590;
-2.7000;1.2601;1.5566;
-2.4000;1.2617;1.5590;
-2.1000;1.2609;1.5517;
-1.8000;1.2609;1.5590;
-1.5000;1.2609;1.5517;
-1.2000;1.2609;1.5566;
-0.9000;1.2625;1.5614;
-0.6000;1.2633;1.5711;
-0.3000;1.2625;1.5711;
0.0000;1.2625;1.5711;
0.3000;1.2674;1.5493;
0.6000;1.2796;1.5808;
0.9000;1.2894;1.6051;
1.2000;1.2991;1.6366;
1.5000;1.3024;1.6608;
1.8000;1.3081;1.6875;
2.1000;1.3187;1.7166;
2.4000;1.3162;1.7239;
2.7000;1.3203;1.7384;
3.0000;1.3228;1.7433;
3.3000;1.3252;1.7530;
3.6000;1.3276;1.7530;
3.9000;1.3284;1.7651;
4.2000;1.3309;1.7748;
4.5000;1.3341;1.7772;
4.8000;1.3333;1.7723;
5.1000;1.3350;1.7723;
5.4000;1.3382;1.7772;
5.7000;1.3374;1.7723;
6.0000;1.3407;1.7748;
6.3000;1.3407;1.7651;
6.6000;1.3423;1.7796;
6.9000;1.3423;1.7772;
7.2000;1.3464;1.7845;
7.5000;1.3439;1.7820;
7.8000;1.3447;1.7796;
8.1000;1.3464;1.7845;
8.4000;1.3415;1.7772;
8.7000;1.3472;1.7893;
9.0000;1.3480;1.7990;
9.3000;1.3496;1.7990;
9.6000;1.3504;1.7917;
9.9000;1.3504;1.7917;
10.2000;1.3569;1.8039;
10.5000;1.3521;1.7772;
10.8000;1.3537;1.7772;
11.1000;1.3521;1.7627;
11.4000;1.3521;1.7675;
11.7000;1.3561;1.7748;
12.0000;1.3545;1.7845;
12.3000;1.3545;1.7796;
12.6000;1.3561;1.7820;
12.9000;1.3561;1.7772;
13.2000;1.3586;1.7723;
13.5000;1.3504;1.7578;
13.8000;1.3586;1.7699;
14.1000;1.3602;1.7772;
14.4000;1.3594;1.7796;
14.7000;1.3602;1.7845;
15.0000;1.3594;1.7748;
15.3000;1.3610;1.7820;
15.6000;1.3602;1.7796;
15.9000;1.3618;1.7893;
16.2000;1.3602;1.7869;
16.5000;1.3602;1.7845;
16.8000;1.3602;1.7796;
17.1000;1.3602;1.7845;
17.4000;1.3626;1.7917;
17.7000;1.3602;1.7942;
18.0000;1.3610;1.7917;
18.3000;1.3618;1.7990;
18.6000;1.3610;1.8039;
18.9000;1.3651;1.8111;
19.2000;1.3618;1.7966;
19.5000;1.3610;1.7966;
19.8000;1.3635;1.7942;
20.1000;1.3602;1.7917;
20.4000;1.3643;1.8063;
20.7000;1.3635;1.7942;
21.0000;1.3635;1.7917;
21.3000;1.3643;1.7845;
21.6000;1.3635;1.7917;
21.9000;1.3643;1.7942;
22.2000;1.3675;1.7990;
22.5000;1.3651;1.7942;
22.8000;1.3602;1.7869;
23.1000;1.3716;1.8063;
23.4000;1.3659;1.7893;
23.7000;1.3659;1.7917;
24.0000;1.3675;1.7942;
24.3000;1.3635;1.7820;
24.6000;1.3659;1.7820;
24.9000;1.3659;1.7893;
25.2000;1.3651;1.7893;
25.5000;1.3651;1.7966;
25.8000;1.3667;1.8014;
26.1000;1.3643;1.7942;
26.4000;1.3667;1.8039;
26.7000;1.3667;1.7966;
27.0000;1.3700;1.8014;
27.3000;1.3667;1.8014;
27.6000;1.3667;1.7942;
27.9000;1.3659;1.7917;
28.2000;1.3659;1.7893;
28.5000;1.3683;1.7966;
28.8000;1.3675;1.7942;
29.1000;1.3651;1.7820;
29.4000;1.3659;1.7893;
29.7000;1.3675;1.7869;
30.0000;1.3691;1.7917;
30.3000;1.3683;1.7966;
30.6000;1.3675;1.7893;
30.9000;1.3691;1.7869;
31.2000;1.3683;1.7845;
31.5000;1.3691;1.7820;
31.8000;1.3683;1.7796;
32.1000;1.3691;1.7869;
32.4000;1.3683;1.7966;
32.7000;1.3675;1.7966;
33.0000;1.3691;1.7942;
33.3000;1.3675;1.7917;
33.6000;1.3691;1.7942;
33.9000;1.3708;1.7966;
34.2000;1.3700;1.7942;
34.5000;1.3691;1.7893;
34.8000;1.3691;1.7820;
35.1000;1.3708;1.7917;
35.4000;1.3691;1.7869;
35.7000;1.3700;1.7845;
36.0000;1.3724;1.7942;
36.3000;1.3691;1.7869;
36.6000;1.3716;1.7942;
36.9000;1.3700;1.7820;
37.2000;1.3708;1.7796;
37.5000;1.3724;1.7845;
37.8000;1.3659;1.7627;
38.1000;1.3683;1.7723;
38.4000;1.3667;1.7723;
38.7000;1.3765;1.8039;
39.0000;1.3700;1.7917;
39.3000;1.3691;1.8014;
39.6000;1.3667;1.7990;
39.9000;1.3691;1.7966;
40.2000;1.3700;1.7917;
40.5000;1.3675;1.7820;
40.8000;1.3691;1.7893;
41.1000;1.3683;1.7869;
41.4000;1.3716;1.7845;
41.7000;1.3700;1.7893;
42.0000;1.3700;1.7796;
42.3000;1.3700;1.7772;
42.6000;1.3691;1.7723;
42.9000;1.3700;1.7675;
43.2000;1.3683;1.7651;
43.5000;1.3683;1.7675;
43.8000;1.3700;1.7723;
44.1000;1.3708;1.7845;
44.4000;1.3691;1.7748;
44.7000;1.3683;1.7748;
45.0000;1.3708;1.7748;
45.3000;1.3683;1.7651;
45.6000;1.3700;1.7675;
45.9000;1.3691;1.7651;
46.2000;1.3700;1.7651;
46.5000;1.3724;1.7723;
46.8000;1.3708;1.7748;
47.1000;1.3708;1.7772;
47.4000;1.3691;1.7820;
47.7000;1.3700;1.7796;
48.0000;1.3691;1.7796;
48.3000;1.3643;1.7748;
48.6000;1.3700;1.7893;
48.9000;1.3716;1.7966;
49.2000;1.3675;1.7845;
49.5000;1.3700;1.7893;
49.8000;1.3691;1.7845;
50.1000;1.3700;1.7796;
50.4000;1.3716;1.7820;
50.7000;1.3683;1.7772;
51.0000;1.3683;1.7748;
51.3000;1.3691;1.7748;
51.6000;1.3700;1.7723;
51.9000;1.3691;1.7748;
52.2000;1.3700;1.7820;
52.5000;1.3700;1.7796;
52.8000;1.3700;1.7893;
53.1000;1.3691;1.7845;
53.4000;1.3708;1.7869;
53.7000;1.3724;1.7869;
54.0000;1.3691;1.7845;
54.3000;1.3700;1.7845;
54.6000;1.3659;1.7651;
54.9000;1.3691;1.7723;
55.2000;1.3651;1.7602;
55.5000;1.3700;1.7772;
55.8000;1.3716;1.7772;
56.1000;1.3691;1.7675;
56.4000;1.3675;1.7723;
56.7000;1.3691;1.7772;
57.0000;1.3700;1.7723;
57.3000;1.3765;1.7966;
57.6000;1.3691;1.7845;
57.9000;1.3691;1.7796;
58.2000;1.3708;1.7796;
58.5000;1.3700;1.7748;
58.8000;1.3708;1.7748;
59.1000;1.3675;1.7796;
59.4000;1.3708;1.7845;
59.7000;1.3708;1.7893;
60.0000;1.3700;1.7942;
60.3000;1.3716;1.7893;
60.6000;1.3724;1.7869;
60.9000;1.3716;1.7869;
61.2000;1.3716;1.7845;
61.5000;1.3683;1.7893;
61.8000;1.3716;1.7966;
62.1000;1.3700;1.7990;
62.4000;1.3732;1.8087;
62.7000;1.3700;1.8014;
63.0000;1.3683;1.7893;
63.3000;1.3667;1.7796;
63.6000;1.3635;1.7748;
63.9000;1.3708;1.7917;
64.2000;1.3683;1.7869;
64.5000;1.3740;1.7966;
64.8000;1.3700;1.7796;
65.1000;1.3757;1.7966;
65.4000;1.3651;1.7772;
65.7000;1.3781;1.8087;
66.0000;1.3708;1.7942;
66.3000;1.3700;1.7966;
66.6000;1.3691;1.7966;
66.9000;1.3691;1.7966;
67.2000;1.3740;1.8087;
67.5000;1.3675;1.7966;
67.8000;1.3675;1.8014;
68.1000;1.3683;1.7990;
68.4000;1.3708;1.8014;
68.7000;1.3691;1.7917;
69.0000;1.3626;1.7820;
69.3000;1.3667;1.7966;
69.6000;1.3691;1.7990;
69.9000;1.3691;1.7990;
70.2000;1.3748;1.8039;
70.5000;1.3691;1.7893;
70.8000;1.3691;1.7942;
71.1000;1.3691;1.7917;
71.4000;1.3700;1.7869;
71.7000;1.3683;1.7893;
72.0000;1.3659;1.7772;
72.3000;1.3716;1.7966;
72.6000;1.3708;1.7990;
72.9000;1.3700;1.7966;
73.2000;1.3635;1.7845;
73.5000;1.3700;1.7990;
73.8000;1.3683;1.7966;
74.1000;1.3691;1.8014;
74.4000;1.3683;1.7966;
74.7000;1.3635;1.7845;
75.0000;1.3691;1.8039;
75.3000;1.3708;1.8087;
75.6000;1.3691;1.8014;
75.9000;1.3700;1.7966;
76.2000;1.3708;1.8039;
76.5000;1.3691;1.8014;
76.8000;1.3667;1.7990;
77.1000;1.3708;1.8087;
77.4000;1.3708;1.8111;
77.7000;1.3732;1.8136;
78.0000;1.3757;1.8233;
78.3000;1.3700;1.8039;
78.6000;1.3716;1.8039;
78.9000;1.3691;1.8014;
79.2000;1.3716;1.8087;
79.5000;1.3659;1.7990;
79.8000;1.3708;1.8111;
80.1000;1.3683;1.7966;
80.4000;1.3667;1.7893;
80.7000;1.3683;1.7893;
81.0000;1.3691;1.7966;
81.3000;1.3732;1.8111;
81.6000;1.3675;1.7990;
81.9000;1.3708;1.7990;
82.2000;1.3700;1.8014;
82.5000;1.3716;1.8111;
82.8000;1.3691;1.7893;
83.1000;1.3691;1.7820;
83.4000;1.3691;1.7917;
83.7000;1.3700;1.8039;
84.0000;1.3691;1.8014;
84.3000;1.3667;1.7917;
84.6000;1.3683;1.7845;
84.9000;1.3716;1.7917;
85.2000;1.3667;1.7820;
85.5000;1.3683;1.7796;
85.8000;1.3675;1.7845;
86.1000;1.3659;1.7796;
86.4000;1.3700;1.7869;
86.7000;1.3700;1.7869;
87.0000;1.3691;1.7917;
87.3000;1.3675;1.7942;
87.6000;1.3691;1.8039;
87.9000;1.3691;1.7942;
88.2000;1.3683;1.7845;
88.5000;1.3675;1.7820;
88.8000;1.3683;1.7869;
89.1000;1.3683;1.7869;
89.4000;1.3683;1.7893;
89.7000;1.3683;1.7917;
90.0000;1.3610;1.7699;
90.3000;1.3691;1.7820;
90.6000;1.3675;1.7820;
90.9000;1.3708;1.7893;
91.2000;1.3691;1.7796;
91.5000;1.3691;1.7772;
91.8000;1.3700;1.7820;
92.1000;1.3708;1.7820;
92.4000;1.3700;1.7796;
92.7000;1.3724;1.7796;
93.0000;1.3708;1.7772;
93.3000;1.3700;1.7723;
93.6000;1.3691;1.7748;
93.9000;1.3700;1.7748;
94.2000;1.3691;1.7723;
94.5000;1.3683;1.7820;
94.8000;1.3667;1.7699;
95.1000;1.3675;1.7723;
95.4000;1.3683;1.7675;
95.7000;1.3675;1.7627;
96.0000;1.3683;1.7699;
96.3000;1.3675;1.7723;
96.6000;1.3700;1.7772;
96.9000;1.3691;1.7796;
97.2000;1.3716;1.7869;
97.5000;1.3700;1.7772;
97.8000;1.3716;1.7699;
98.1000;1.3683;1.7675;
98.4000;1.3675;1.7699;
98.7000;1.3716;1.7796;
99.0000;1.3700;1.7820;
99.3000;1.3675;1.7772;
99.6000;1.3675;1.7772;
99.9000;1.3683;1.7772;
100.2000;1.3675;1.7748;
100.5000;1.3708;1.7723;
100.8000;1.3675;1.7748;
101.1000;1.3683;1.7772;
101.4000;1.3683;1.7893;
101.7000;1.3691;1.7893;
102.0000;1.3667;1.7893;
102.3000;1.3643;1.7796;
102.6000;1.3675;1.7869;
102.9000;1.3691;1.7942;
103.2000;1.3740;1.8039;
103.5000;1.3675;1.7869;
103.8000;1.3773;1.8014;
104.1000;1.3691;1.7893;
104.4000;1.3691;1.7820;
104.7000;1.3683;1.7845;
105.0000;1.3675;1.7772;
105.3000;1.3683;1.7796;
105.6000;1.3675;1.7845;
105.9000;1.3683;1.7820;
106.2000;1.3691;1.7772;
106.5000;1.3675;1.7723;
106.8000;1.3691;1.7796;
107.1000;1.3724;1.7820;
107.4000;1.3691;1.7675;
107.7000;1.3691;1.7651;
108.0000;1.3691;1.7723;
108.3000;1.3667;1.7699;
108.6000;1.3683;1.7772;
108.9000;1.3691;1.7772;
109.2000;1.3700;1.7869;
109.5000;1.3675;1.7869;
109.8000;1.3659;1.7772;
110.1000;1.3683;1.7820;
110.4000;1.3683;1.7820;
110.7000;1.3667;1.7748;
111.0000;1.3659;1.7675;
111.3000;1.3667;1.7723;
111.6000;1.3618;1.7602;
111.9000;1.3683;1.7772;
112.2000;1.3659;1.7796;
112.5000;1.3675;1.7796;
112.8000;1.3667;1.7796;
113.1000;1.3683;1.7869;
113.4000;1.3667;1.7893;
113.7000;1.3691;1.7869;
114.0000;1.3675;1.7820;
114.3000;1.3700;1.7723;
114.6000;1.3675;1.7699;
114.9000;1.3675;1.7723;
115.2000;1.3667;1.7723;
115.5000;1.3683;1.7796;
115.8000;1.3683;1.7845;
116.1000;1.3675;1.7917;
116.4000;1.3667;1.7893;
116.7000;1.3675;1.7893;
117.0000;1.3675;1.7845;
117.3000;1.3683;1.7772;
117.6000;1.3675;1.7748;
117.9000;1.3651;1.7699;
118.2000;1.3667;1.7699;
118.5000;1.3659;1.7651;
118.8000;1.3667;1.7602;
119.1000;1.3757;1.7845;
119.4000;1.3708;1.7723;
119.7000;1.3700;1.7723;
120.0000;1.3700;1.7723;
120.3000;1.3675;1.7699;
120.6000;1.3700;1.7820;
120.9000;1.3691;1.7845;
121.2000;1.3683;1.7772;
121.5000;1.3675;1.7796;
121.8000;1.3683;1.7796;
122.1000;1.3667;1.7796;
122.4000;1.3667;1.7748;
122.7000;1.3667;1.7796;
123.0000;1.3667;1.7796;
123.3000;1.3675;1.7845;
123.6000;1.3675;1.7820;
123.9000;1.3691;1.7869;
124.2000;1.3691;1.7796;
124.5000;1.3667;1.7723;
124.8000;1.3675;1.7772;
125.1000;1.3667;1.7748;
125.4000;1.3659;1.7772;
125.7000;1.3675;1.7772;
126.0000;1.3667;1.7675;
126.3000;1.3586;1.7554;
126.6000;1.3724;1.8014;
126.9000;1.3683;1.7869;
127.2000;1.3691;1.7869;
127.5000;1.3667;1.7820;
127.8000;1.3675;1.7820;
128.1000;1.3667;1.7820;
128.4000;1.3683;1.7796;
128.7000;1.3659;1.7699;
129.0000;1.3700;1.7748;
129.3000;1.3667;1.7675;
129.6000;1.3675;1.7699;
129.9000;1.3683;1.7772;
130.2000;1.3667;1.7748;
130.5000;1.3667;1.7675;
130.8000;1.3667;1.7627;
131.1000;1.3765;1.7869;
131.4000;1.3683;1.7675;
131.7000;1.3667;1.7699;
132.0000;1.3683;1.7796;
132.3000;1.3683;1.7893;
132.6000;1.3667;1.7845;
132.9000;1.3675;1.7845;
133.2000;1.3667;1.7893;
133.5000;1.3708;1.7966;
133.8000;1.3643;1.7796;
134.1000;1.3643;1.7675;
134.4000;1.3659;1.7699;
134.7000;1.3667;1.7651;
135.0000;1.3675;1.7651;
135.3000;1.3667;1.7699;
135.6000;1.3675;1.7651;
135.9000;1.3659;1.7578;
136.2000;1.3683;1.7675;
136.5000;1.3667;1.7675;
136.8000;1.3659;1.7675;
137.1000;1.3667;1.7675;
137.4000;1.3700;1.7699;
137.7000;1.3667;1.7675;
138.0000;1.3683;1.7723;
138.3000;1.3659;1.7699;
138.6000;1.3683;1.7845;
138.9000;1.3667;1.7869;
139.2000;1.3651;1.7772;
139.5000;1.3651;1.7796;
139.8000;1.3675;1.7820;
140.1000;1.3716;1.7820;
140.4000;1.3667;1.7723;
140.7000;1.3667;1.7723;
141.0000;1.3667;1.7675;
141.3000;1.3675;1.7772;
141.6000;1.3683;1.7820;
141.9000;1.3683;1.7651;
142.2000;1.3667;1.7651;
142.5000;1.3683;1.7723;
142.8000;1.3667;1.7748;
143.1000;1.3651;1.7699;
143.4000;1.3675;1.7723;
143.7000;1.3683;1.7627;
144.0000;1.3675;1.7602;
144.3000;1.3675;1.7602;
144.6000;1.3675;1.7602;
144.9000;1.3683;1.7651;
145.2000;1.3675;1.7651;
145.5000;1.3659;1.7699;
145.8000;1.3667;1.7602;
146.1000;1.3667;1.7627;
146.4000;1.3675;1.7675;
146.7000;1.3675;1.7675;
147.0000;1.3626;1.7602;
147.3000;1.3667;1.7796;
147.6000;1.3667;1.7869;
147.9000;1.3675;1.7917;
148.2000;1.3667;1.7796;
148.5000;1.3659;1.7699;
148.8000;1.3667;1.7651;
149.1000;1.3667;1.7748;
149.4000;1.3659;1.7748;
149.7000;1.3675;1.7796;
150.0000;1.3659;1.7699;
150.3000;1.3667;1.7699;
150.6000;1.3635;1.7627;
150.9000;1.3626;1.7602;
151.2000;1.3667;1.7723;
151.5000;1.3643;1.7699;
151.8000;1.3651;1.7796;
152.1000;1.3635;1.7869;
152.4000;1.3659;1.7942;
152.7000;1.3659;1.7942;
153.0000;1.3683;1.7966;
153.3000;1.3667;1.7820;
153.6000;1.3659;1.7820;
153.9000;1.3700;1.7917;
154.2000;1.3667;1.7796;
154.5000;1.3675;1.7748;
154.8000;1.3659;1.7675;
155.1000;1.3643;1.7627;
155.4000;1.3700;1.7699;
155.7000;1.3724;1.7772;
156.0000;1.3635;1.7554;
156.3000;1.3643;1.7675;
156.6000;1.3651;1.7675;
156.9000;1.3651;1.7627;
157.2000;1.3651;1.7651;
157.5000;1.3643;1.7602;
157.8000;1.3667;1.7699;
158.1000;1.3659;1.7723;
158.4000;1.3594;1.7554;
158.7000;1.3708;1.7845;
159.0000;1.3659;1.7675;
159.3000;1.3651;1.7651;
159.6000;1.3659;1.7699;
159.9000;1.3667;1.7772;
160.2000;1.3683;1.7845;
160.5000;1.3683;1.7748;
160.8000;1.3667;1.7651;
161.1000;1.3683;1.7748;
161.4000;1.3659;1.7796;
161.7000;1.3667;1.7796;
162.0000;1.3618;1.7578;
162.3000;1.3659;1.7651;
162.6000;1.3675;1.7723;
162.9000;1.3757;1.8014;
163.2000;1.3683;1.7723;
163.5000;1.3675;1.7723;
163.8000;1.3683;1.7772;
164.1000;1.3691;1.7796;
164.4000;1.3667;1.7699;
164.7000;1.3675;1.7820;
165.0000;1.3675;1.7845;
165.3000;1.3651;1.7845;
165.6000;1.3675;1.7869;
165.9000;1.3667;1.7796;
166.2000;1.3667;1.7893;
166.5000;1.3691;1.8063;
166.8000;1.3667;1.8039;
167.1000;1.3643;1.8014;
167.4000;1.3635;1.7990;
167.7000;1.3667;1.7990;
168.0000;1.3667;1.7917;
168.3000;1.3651;1.7990;
168.6000;1.3643;1.8087;
168.9000;1.3659;1.8087;
169.2000;1.3667;1.8087;
169.5000;1.3667;1.8014;
169.8000;1.3667;1.7990;
170.1000;1.3667;1.8087;
170.4000;1.3675;1.8160;
170.7000;1.3635;1.8087;
171.0000;1.3659;1.8184;
171.3000;1.3626;1.8063;
171.6000;1.3610;1.8014;
171.9000;1.3675;1.8184;
172.2000;1.3635;1.8111;
172.5000;1.3643;1.8063;
172.8000;1.3651;1.8014;
173.1000;1.3651;1.7893;
173.4000;1.3675;1.8014;
173.7000;1.3659;1.8063;
174.0000;1.3667;1.8063;
174.3000;1.3667;1.8111;
174.6000;1.3748;1.8354;
174.9000;1.3635;1.8063;
175.2000;1.3643;1.8111;
175.5000;1.3635;1.7990;
175.8000;1.3643;1.7990;
176.1000;1.3675;1.8087;
176.4000;1.3667;1.8063;
176.7000;1.3643;1.7966;
177.0000;1.3659;1.8014;
177.3000;1.3683;1.8039;
177.6000;1.3667;1.7990;
177.9000;1.3659;1.7942;
178.2000;1.3667;1.7966;
178.5000;1.3700;1.8063;
178.8000;1.3659;1.7942;
179.1000;1.3659;1.7893;
179.4000;1.3700;1.8039;
179.7000;1.3667;1.7893;
180.0000;1.3651;1.7917;
180.3000;1.3651;1.7966;
180.6000;1.3659;1.7990;
180.9000;1.3659;1.7990;
181.2000;1.3675;1.8136;
181.5000;1.3651;1.8087;
181.8000;1.3659;1.8136;
182.1000;1.3635;1.8160;
182.4000;1.3651;1.8160;
182.7000;1.3659;1.8087;
183.0000;1.3651;1.8014;
183.3000;1.3659;1.8063;
183.6000;1.3643;1.8063;
183.9000;1.3667;1.8063;
184.2000;1.3635;1.7942;
184.5000;1.3659;1.7966;
184.8000;1.3667;1.7990;
185.1000;1.3683;1.8136;
185.4000;1.3635;1.7917;
185.7000;1.3659;1.7893;
186.0000;1.3651;1.8014;
186.3000;1.3651;1.7990;
186.6000;1.3651;1.8014;
186.9000;1.3667;1.8063;
187.2000;1.3659;1.8087;
187.5000;1.3651;1.8014;
187.8000;1.3683;1.8063;
188.1000;1.3635;1.8039;
188.4000;1.3643;1.8039;
188.7000;1.3651;1.8063;
189.0000;1.3643;1.7990;
189.3000;1.3651;1.8014;
189.6000;1.3643;1.7990;
189.9000;1.3626;1.8014;
190.2000;1.3651;1.8039;
190.5000;1.3635;1.7990;
190.8000;1.3651;1.8087;
191.1000;1.3651;1.8063;
191.4000;1.3643;1.8039;
191.7000;1.3651;1.7966;
192.0000;1.3643;1.7942;
192.3000;1.3659;1.8014;
192.6000;1.3659;1.7990;
192.9000;1.3651;1.7966;
193.2000;1.3626;1.7893;
193.5000;1.3659;1.7942;
193.8000;1.3667;1.7942;
194.1000;1.3618;1.7820;
194.4000;1.3610;1.7772;
194.7000;1.3708;1.8063;
195.0000;1.3651;1.7990;
195.3000;1.3602;1.7893;
195.6000;1.3659;1.8063;
195.9000;1.3659;1.8087;
196.2000;1.3618;1.7990;
196.5000;1.3626;1.8063;
196.8000;1.3618;1.8136;
197.1000;1.3635;1.8111;
197.4000;1.3659;1.8039;
197.7000;1.3651;1.7966;
198.0000;1.3643;1.7966;
198.3000;1.3643;1.8014;
198.6000;1.3651;1.8087;
198.9000;1.3691;1.8208;
199.2000;1.3643;1.8136;
199.5000;1.3659;1.8184;
199.8000;1.3643;1.8111;
200.1000;1.3651;1.8233;
200.4000;1.3626;1.8208;
200.7000;1.3651;1.8184;
201.0000;1.3643;1.8136;
201.3000;1.3635;1.8087;
201.6000;1.3643;1.8087;
201.9000;1.3667;1.8087;
202.2000;1.3667;1.8087;
202.5000;1.3651;1.8039;
202.8000;1.3626;1.8039;
203.1000;1.3651;1.8063;
203.4000;1.3626;1.8039;
203.7000;1.3659;1.8039;
204.0000;1.3643;1.8063;
204.3000;1.3635;1.8063;
204.6000;1.3626;1.8111;
204.9000;1.3643;1.8111;
205.2000;1.3651;1.8136;
205.5000;1.3643;1.8063;
205.8000;1.3626;1.8039;
206.1000;1.3610;1.7869;
206.4000;1.3651;1.8039;
206.7000;1.3651;1.7990;
207.0000;1.3635;1.7942;
207.3000;1.3635;1.7869;
207.6000;1.3626;1.7893;
207.9000;1.3651;1.7893;
208.2000;1.3651;1.7845;
208.5000;1.3635;1.7772;
208.8000;1.3651;1.7748;
209.1000;1.3651;1.7796;
209.4000;1.3626;1.7699;
209.7000;1.3643;1.7627;
210.0000;1.3643;1.7699;
210.3000;1.3675;1.7845;
210.6000;1.3635;1.7845;
210.9000;1.3643;1.7820;
211.2000;1.3602;1.7796;
211.5000;1.3667;1.7966;
211.8000;1.3651;1.8014;
212.1000;1.3651;1.8063;
212.4000;1.3659;1.8063;
212.7000;1.3659;1.8039;
213.0000;1.3659;1.7990;
213.3000;1.3578;1.7748;
213.6000;1.3626;1.7820;
213.9000;1.3618;1.7796;
214.2000;1.3643;1.7845;
214.5000;1.3643;1.7796;
214.8000;1.3635;1.7820;
215.1000;1.3643;1.7772;
215.4000;1.3635;1.7796;
215.7000;1.3651;1.7796;
216.0000;1.3635;1.7748;
216.3000;1.3626;1.7748;
216.6000;1.3659;1.7845;
216.9000;1.3643;1.7772;
217.2000;1.3643;1.7820;
217.5000;1.3635;1.7748;
217.8000;1.3651;1.7845;
218.1000;1.3659;1.7869;
218.4000;1.3586;1.7651;
218.7000;1.3635;1.7796;
219.0000;1.3651;1.7820;
219.3000;1.3675;1.7942;
219.6000;1.3602;1.7699;
219.9000;1.3635;1.7748;
220.2000;1.3602;1.7748;
220.5000;1.3643;1.7845;
220.8000;1.3643;1.7893;
221.1000;1.3635;1.7942;
221.4000;1.3635;1.7917;
221.7000;1.3635;1.7893;
222.0000;1.3643;1.7942;
222.3000;1.3626;1.7893;
222.6000;1.3618;1.7820;
222.9000;1.3643;1.7893;
223.2000;1.3659;1.7845;
223.5000;1.3659;1.7845;
223.8000;1.3651;1.7893;
224.1000;1.3675;1.7917;
224.4000;1.3643;1.7966;
224.7000;1.3643;1.7990;
225.0000;1.3635;1.7966;
225.3000;1.3651;1.7990;
225.6000;1.3651;1.7966;
225.9000;1.3659;1.8014;
226.2000;1.3643;1.8111;
226.5000;1.3659;1.8136;
226.8000;1.3643;1.8014;
227.1000;1.3610;1.7942;
227.4000;1.3643;1.8039;
227.7000;1.3651;1.8063;
228.0000;1.3651;1.8014;
228.3000;1.3675;1.8014;
228.6000;1.3700;1.8136;
228.9000;1.3643;1.8063;
229.2000;1.3643;1.7990;
229.5000;1.3675;1.8111;
229.8000;1.3626;1.7917;
230.1000;1.3643;1.7796;
230.4000;1.3626;1.7723;
230.7000;1.3635;1.7796;
231.0000;1.3635;1.7820;
231.3000;1.3643;1.7869;
231.6000;1.3643;1.7796;
231.9000;1.3635;1.7796;
232.2000;1.3635;1.7845;
232.5000;1.3651;1.7893;
232.8000;1.3651;1.7942;
233.1000;1.3635;1.7917;
233.4000;1.3651;1.7990;
233.7000;1.3635;1.8014;
234.0000;1.3618;1.8014;
234.3000;1.3578;1.7869;
234.6000;1.3635;1.7917;
234.9000;1.3618;1.7845;
235.2000;1.3659;1.7917;
235.5000;1.3626;1.7893;
235.8000;1.3643;1.7917;
236.1000;1.3643;1.8014;
236.4000;1.3643;1.8014;
236.7000;1.3651;1.8160;
237.0000;1.3667;1.8184;
237.3000;1.3651;1.8160;
237.6000;1.3643;1.8160;
237.9000;1.3643;1.8111;
238.2000;1.3635;1.8087;
238.5000;1.3659;1.8233;
238.8000;1.3635;1.8330;
239.1000;1.3635;1.8257;
239.4000;1.3610;1.8184;
239.7000;1.3643;1.8111;
240.0000;1.3626;1.8136;
240.3000;1.3586;1.7917;
240.6000;1.3610;1.7990;
240.9000;1.3651;1.8014;
241.2000;1.3626;1.7917;
241.5000;1.3643;1.7917;
241.8000;1.3643;1.7869;
242.1000;1.3643;1.7893;
242.4000;1.3635;1.7845;
242.7000;1.3626;1.7869;
243.0000;1.3635;1.7893;
243.3000;1.3626;1.7845;
243.6000;1.3635;1.7796;
243.9000;1.3708;1.7917;
244.2000;1.3643;1.7869;
244.5000;1.3626;1.7917;
244.8000;1.3635;1.7917;
245.1000;1.3626;1.7917;
245.4000;1.3626;1.7942;
245.7000;1.3635;1.7942;
246.0000;1.3643;1.7990;
246.3000;1.3635;1.8014;
246.6000;1.3724;1.8257;
246.9000;1.3610;1.7990;
247.2000;1.3635;1.8111;
247.5000;1.3635;1.8111;
247.8000;1.3635;1.8014;
248.1000;1.3659;1.8014;
248.4000;1.3651;1.7990;
248.7000;1.3659;1.8063;
249.0000;1.3626;1.8063;
249.3000;1.3610;1.8063;
249.6000;1.3635;1.8063;
249.9000;1.3643;1.8087;
250.2000;1.3635;1.8039;
250.5000;1.3626;1.8111;
250.8000;1.3618;1.8160;
251.1000;1.3643;1.8136;
251.4000;1.3635;1.7990;
251.7000;1.3635;1.7990;
252.0000;1.3643;1.7917;
252.3000;1.3626;1.7748;
252.6000;1.3635;1.7748;
252.9000;1.3643;1.7772;
253.2000;1.3659;1.7820;
253.5000;1.3635;1.7748;
253.8000;1.3635;1.7845;
254.1000;1.3643;1.7869;
254.4000;1.3635;1.7917;
254.7000;1.3635;1.7942;
255.0000;1.3635;1.7966;
255.3000;1.3626;1.7990;
255.6000;1.3626;1.7966;
255.9000;1.3626;1.8087;
256.2000;1.3626;1.8039;
256.5000;1.3626;1.8014;
256.8000;1.3618;1.7917;
257.1000;1.3618;1.7917;
257.4000;1.3626;1.7893;
257.7000;1.3635;1.7869;
258.0000;1.3626;1.7748;
258.3000;1.3651;1.7699;
258.6000;1.3635;1.7675;
258.9000;1.3626;1.7578;
259.2000;1.3626;1.7602;
259.5000;1.3618;1.7699;
259.8000;1.3635;1.7723;
260.1000;1.3635;1.7748;
260.4000;1.3626;1.7723;
260.7000;1.3618;1.7675;
261.0000;1.3626;1.7723;
261.3000;1.3643;1.7796;
261.6000;1.3643;1.7796;
261.9000;1.3626;1.7820;
262.2000;1.3643;1.7869;
262.5000;1.3635;1.7869;
262.8000;1.3643;1.7845;
263.1000;1.3635;1.7796;
263.4000;1.3635;1.7820;
263.7000;1.3635;1.7845;
264.0000;1.3643;1.7893;
264.3000;1.3667;1.7845;
264.6000;1.3635;1.7699;
264.9000;1.3594;1.7554;
265.2000;1.3643;1.7772;
265.5000;1.3643;1.7772;
265.8000;1.3626;1.7772;
266.1000;1.3659;1.7869;
266.4000;1.3635;1.7772;
266.7000;1.3635;1.7748;
267.0000;1.3626;1.7748;
267.3000;1.3635;1.7772;
267.6000;1.3594;1.7723;
267.9000;1.3643;1.7748;
268.2000;1.3626;1.7723;
268.5000;1.3586;1.7578;
268.8000;1.3643;1.7772;
269.1000;1.3635;1.7772;
269.4000;1.3626;1.7723;
269.7000;1.3602;1.7699;
270.0000;1.3618;1.7748;
270.3000;1.3626;1.7820;
270.6000;1.3618;1.7796;
270.9000;1.3618;1.7796;
271.2000;1.3618;1.7942;
271.5000;1.3578;1.7869;
271.8000;1.3659;1.7990;
272.1000;1.3594;1.7796;
272.4000;1.3618;1.7869;
272.7000;1.3626;1.7869;
273.0000;1.3643;1.7845;
273.3000;1.3635;1.7869;
273.6000;1.3626;1.7869;
273.9000;1.3635;1.7893;
274.2000;1.3643;1.7845;
274.5000;1.3626;1.7796;
274.8000;1.3610;1.7772;
275.1000;1.3643;1.7917;
275.4000;1.3635;1.7893;
275.7000;1.3626;1.7796;
276.0000;1.3691;1.7966;
276.3000;1.3610;1.7723;
276.6000;1.3618;1.7723;
276.9000;1.3651;1.7772;
277.2000;1.3602;1.7699;
277.5000;1.3610;1.7845;
277.8000;1.3626;1.7845;
278.1000;1.3626;1.7796;
278.4000;1.3635;1.7845;
278.7000;1.3594;1.7699;
279.0000;1.3618;1.7772;
279.3000;1.3691;1.8014;
279.6000;1.3626;1.7820;
279.9000;1.3618;1.7723;
280.2000;1.3626;1.7699;
280.5000;1.3635;1.7723;
280.8000;1.3626;1.7748;
281.1000;1.3602;1.7748;
281.4000;1.3610;1.7820;
281.7000;1.3626;1.7845;
282.0000;1.3635;1.7820;
282.3000;1.3626;1.7772;
282.6000;1.3626;1.7772;
282.9000;1.3635;1.7748;
283.2000;1.3635;1.7772;
283.5000;1.3643;1.7796;
283.8000;1.3626;1.7748;
284.1000;1.3643;1.7772;
284.4000;1.3610;1.7772;
284.7000;1.3643;1.7748;
285.0000;1.3618;1.7820;
285.3000;1.3651;1.7845;
285.6000;1.3626;1.7796;
285.9000;1.3626;1.7820;
286.2000;1.3594;1.7772;
286.5000;1.3618;1.7893;
286.8000;1.3602;1.7796;
287.1000;1.3618;1.7845;
287.4000;1.3618;1.7820;
287.7000;1.3602;1.7796;
288.0000;1.3667;1.7966;
288.3000;1.3643;1.7845;
288.6000;1.3635;1.7990;
288.9000;1.3610;1.7942;
289.2000;1.3610;1.7966;
289.5000;1.3643;1.8039;
289.8000;1.3618;1.8039;
290.1000;1.3635;1.8111;
290.4000;1.3635;1.8111;
290.7000;1.3635;1.8111;
291.0000;1.3626;1.8111;
291.3000;1.3635;1.8039;
291.6000;1.3618;1.7942;
291.9000;1.3618;1.7942;
292.2000;1.3643;1.7990;
292.5000;1.3635;1.7990;
292.8000;1.3626;1.8063;
293.1000;1.3659;1.8063;
293.4000;1.3626;1.7966;
293.7000;1.3553;1.7796;
294.0000;1.3626;1.7990;
294.3000;1.3635;1.7990;
294.6000;1.3635;1.7990;
294.9000;1.3635;1.7966;
295.2000;1.3626;1.8014;
295.5000;1.3651;1.8014;
295.8000;1.3618;1.7942;
296.1000;1.3643;1.8014;
296.4000;1.3626;1.7942;
296.7000;1.3626;1.7942;
297.0000;1.3626;1.7820;
297.3000;1.3610;1.7893;
297.6000;1.3618;1.7796;
297.9000;1.3610;1.7820;
298.2000;1.3626;1.7772;
298.5000;1.3626;1.7723;
298.8000;1.3569;1.7457;
299.1000;1.3626;1.7554;
299.4000;1.3610;1.7602;
299.7000;1.3618;1.7675;
300.0000;1.3602;1.7651;
300.3000;1.3618;1.7578;
300.6000;1.3618;1.7602;
300.9000;1.3610;1.7675;
301.2000;1.3594;1.7723;
301.5000;1.3602;1.7748;
301.8000;1.3610;1.7772;
302.1000;1.3626;1.7796;
302.4000;1.3618;1.7796;
302.7000;1.3586;1.7772;
303.0000;1.3618;1.7893;
303.3000;1.3618;1.7942;
303.6000;1.3618;1.7893;
303.9000;1.3635;1.7893;
304.2000;1.3610;1.7893;
304.5000;1.3569;1.7748;
304.8000;1.3635;1.7942;
305.1000;1.3635;1.7990;
305.4000;1.3610;1.8111;
305.7000;1.3610;1.8184;
306.0000;1.3610;1.8184;
306.3000;1.3618;1.8233;
306.6000;1.3594;1.8087;
306.9000;1.3610;1.8039;
307.2000;1.3610;1.8039;
307.5000;1.3610;1.8111;
307.8000;1.3618;1.8111;
308.1000;1.3594;1.8111;
308.4000;1.3610;1.8111;
308.7000;1.3618;1.8208;
309.0000;1.3602;1.8160;
309.3000;1.3561;1.8063;
309.6000;1.3626;1.8111;
309.9000;1.3626;1.8208;
310.2000;1.3610;1.8184;
310.5000;1.3643;1.8281;
310.8000;1.3626;1.8208;
311.1000;1.3626;1.8184;
311.4000;1.3586;1.8039;
311.7000;1.3618;1.8111;
312.0000;1.3618;1.8063;
312.3000;1.3635;1.8087;
312.6000;1.3626;1.7990;
312.9000;1.3618;1.7966;
313.2000;1.3626;1.7966;
313.5000;1.3618;1.7942;
313.8000;1.3586;1.7893;
314.1000;1.3594;1.7966;
314.4000;1.3626;1.7942;
314.7000;1.3626;1.7917;
315.0000;1.3618;1.7893;
315.3000;1.3618;1.7845;
315.6000;1.3578;1.7796;
315.9000;1.3610;1.7869;
316.2000;1.3610;1.7845;
316.5000;1.3618;1.7869;
316.8000;1.3626;1.7820;
317.1000;1.3602;1.7796;
317.4000;1.3643;1.7893;
317.7000;1.3618;1.7845;
318.0000;1.3626;1.7845;
318.3000;1.3602;1.7748;
318.6000;1.3618;1.7772;
318.9000;1.3626;1.7772;
319.2000;1.3618;1.7675;
319.5000;1.3594;1.7627;
319.8000;1.3618;1.7627;
320.1000;1.3635;1.7627;
320.4000;1.3626;1.7627;
320.7000;1.3602;1.7602;
321.0000;1.3602;1.7699;
321.3000;1.3602;1.7651;
321.6000;1.3610;1.7602;
321.9000;1.3602;1.7627;
322.2000;1.3626;1.7748;
322.5000;1.3618;1.7723;
322.8000;1.3602;1.7845;
323.1000;1.3683;1.7917;
323.4000;1.3602;1.7723;
323.7000;1.3610;1.7772;
324.0000;1.3618;1.7748;
324.3000;1.3626;1.7748;
324.6000;1.3626;1.7699;
324.9000;1.3610;1.7651;
325.2000;1.3708;1.7966;
325.5000;1.3610;1.7723;
325.8000;1.3618;1.7699;
326.1000;1.3602;1.7675;
326.4000;1.3610;1.7723;
326.7000;1.3610;1.7796;
327.0000;1.3618;1.7748;
327.3000;1.3610;1.7893;
327.6000;1.3602;1.7990;
327.9000;1.3635;1.7966;
328.2000;1.3643;1.7966;
328.5000;1.3610;1.7893;
328.8000;1.3578;1.7845;
329.1000;1.3602;1.7893;
329.4000;1.3635;1.7869;
329.7000;1.3618;1.7869;
330.0000;1.3626;1.7845;
330.3000;1.3610;1.7748;
330.6000;1.3626;1.7748;
330.9000;1.3626;1.7796;
331.2000;1.3635;1.7675;
331.5000;1.3626;1.7675;
331.8000;1.3569;1.7602;
332.1000;1.3635;1.7772;
332.4000;1.3610;1.7699;
332.7000;1.3618;1.7723;
333.0000;1.3618;1.7723;
333.3000;1.3594;1.7796;
333.6000;1.3602;1.7893;
333.9000;1.3610;1.7869;
334.2000;1.3635;1.7893;
334.5000;1.3618;1.7893;
334.8000;1.3610;1.7917;
335.1000;1.3626;1.8039;
335.4000;1.3610;1.8111;
335.7000;1.3626;1.7990;
336.0000;1.3618;1.7893;
336.3000;1.3618;1.7917;
336.6000;1.3626;1.7966;
336.9000;1.3610;1.7917;
337.2000;1.3618;1.7893;
337.5000;1.3610;1.7820;
337.8000;1.3594;1.7820;
338.1000;1.3618;1.7869;
338.4000;1.3610;1.7869;
338.7000;1.3610;1.7796;
339.0000;1.3618;1.7772;
339.3000;1.3586;1.7772;
339.6000;1.3586;1.7748;
339.9000;1.3618;1.7820;
340.2000;1.3618;1.7772;
340.5000;1.3610;1.7748;
340.8000;1.3635;1.7772;
341.1000;1.3586;1.7651;
341.4000;1.3618;1.7748;
341.7000;1.3626;1.7748;
342.0000;1.3635;1.7772;
342.3000;1.3626;1.7796;
342.6000;1.3610;1.7893;
342.9000;1.3602;1.7942;
343.2000;1.3618;1.7893;
343.5000;1.3610;1.7942;
343.8000;1.3618;1.7917;
344.1000;1.3602;1.7893;
344.4000;1.3626;1.8014;
344.7000;1.3635;1.8063;
345.0000;1.3635;1.8111;
345.3000;1.3610;1.8063;
345.6000;1.3610;1.7990;
345.9000;1.3618;1.7990;
346.2000;1.3610;1.8039;
346.5000;1.3610;1.8039;
346.8000;1.3586;1.7942;
347.1000;1.3618;1.8014;
347.4000;1.3602;1.8039;
347.7000;1.3594;1.8014;
348.0000;1.3569;1.7917;
348.3000;1.3602;1.8039;
348.6000;1.3602;1.8014;
348.9000;1.3594;1.8014;
349.2000;1.3610;1.8063;
349.5000;1.3586;1.7966;
349.8000;1.3561;1.7893;
350.1000;1.3569;1.7917;
350.4000;1.3594;1.7942;
350.7000;1.3602;1.7893;
351.0000;1.3626;1.7966;
351.3000;1.3651;1.8014;
351.6000;1.3610;1.7942;
351.9000;1.3643;1.8184;
352.2000;1.3602;1.8014;
352.5000;1.3569;1.7942;
352.8000;1.3618;1.8087;
353.1000;1.3610;1.7966;
353.4000;1.3602;1.7966;
353.7000;1.3618;1.7966;
354.0000;1.3610;1.7942;
354.3000;1.3545;1.7796;
354.6000;1.3594;1.7942;
354.9000;1.3610;1.7966;
355.2000;1.3594;1.7893;
355.5000;1.3594;1.7869;
355.8000;1.3602;1.7893;
356.1000;1.3626;1.7966;
356.4000;1.3586;1.7893;
356.7000;1.3602;1.7869;
357.0000;1.3610;1.7893;
357.3000;1.3569;1.7796;
357.6000;1.3602;1.7869;
357.9000;1.3578;1.7845;
358.2000;1.3594;1.7820;
358.5000;1.3635;1.8039;
358.8000;1.3635;1.8063;
359.1000;1.3602;1.8014;
359.4000;1.3610;1.8039;
359.7000;1.3626;1.7990;
360.0000;1.3610;1.7893;
360.3000;1.3618;1.7942;
360.6000;1.3618;1.7990;
360.9000;1.3618;1.7990;
361.2000;1.3618;1.7990;
361.5000;1.3610;1.8014;
361.8000;1.3594;1.8014;
362.1000;1.3618;1.8111;
362.4000;1.3610;1.8039;
362.7000;1.3626;1.7990;
363.0000;1.3610;1.7966;
363.3000;1.3561;1.7869;
363.6000;1.3594;1.7893;
363.9000;1.3602;1.7869;
364.2000;1.3586;1.7820;
364.5000;1.3578;1.7845;
364.8000;1.3602;1.7966;
365.1000;1.3594;1.7990;
365.4000;1.3659;1.8111;
365.7000;1.3618;1.8136;
366.0000;1.3504;1.7869;
366.3000;1.3626;1.8160;
366.6000;1.3626;1.8111;
366.9000;1.3618;1.8039;
367.2000;1.3626;1.8111;
367.5000;1.3594;1.8014;
367.8000;1.3610;1.7966;
368.1000;1.3594;1.7869;
368.4000;1.3594;1.7893;
368.7000;1.3602;1.7966;
369.0000;1.3635;1.8039;
369.3000;1.3594;1.7917;
369.6000;1.3594;1.7845;
369.9000;1.3618;1.7893;
370.2000;1.3610;1.7845;
370.5000;1.3618;1.7820;
370.8000;1.3618;1.7748;
371.1000;1.3626;1.7699;
371.4000;1.3626;1.7723;
371.7000;1.3602;1.7772;
372.0000;1.3618;1.7796;
372.3000;1.3610;1.7845;
372.6000;1.3626;1.7869;
372.9000;1.3618;1.7869;
373.2000;1.3610;1.7845;
373.5000;1.3610;1.7845;
373.8000;1.3618;1.7917;
374.1000;1.3610;1.7796;
374.4000;1.3610;1.7699;
374.7000;1.3618;1.7675;
375.0000;1.3610;1.7723;
375.3000;1.3618;1.7796;
375.6000;1.3618;1.7820;
375.9000;1.3618;1.7772;
376.2000;1.3618;1.7820;
376.5000;1.3610;1.7917;
376.8000;1.3618;1.7942;
377.1000;1.3594;1.7917;
377.4000;1.3610;1.7990;
377.7000;1.3602;1.8039;
378.0000;1.3626;1.8014;
378.3000;1.3602;1.7942;
378.6000;1.3610;1.7917;
378.9000;1.3610;1.7869;
379.2000;1.3610;1.7796;
379.5000;1.3610;1.7723;
379.8000;1.3618;1.7627;
380.1000;1.3602;1.7675;
380.4000;1.3602;1.7699;
380.7000;1.3618;1.7723;
381.0000;1.3602;1.7772;
381.3000;1.3618;1.7820;
381.6000;1.3635;1.7869;
381.9000;1.3626;1.7796;
382.2000;1.3635;1.7917;
382.5000;1.3651;1.7990;
382.8000;1.3618;1.7796;
383.1000;1.3602;1.7699;
383.4000;1.3578;1.7554;
383.7000;1.3602;1.7651;
384.0000;1.3586;1.7748;
384.3000;1.3594;1.7772;
384.6000;1.3578;1.7796;
384.9000;1.3610;1.7869;
385.2000;1.3635;1.7990;
385.5000;1.3594;1.7966;
385.8000;1.3594;1.7990;
386.1000;1.3594;1.7942;
386.4000;1.3618;1.7942;
386.7000;1.3594;1.7917;
387.0000;1.3618;1.8063;
387.3000;1.3594;1.8014;
387.6000;1.3594;1.7893;
387.9000;1.3610;1.7917;
388.2000;1.3610;1.7966;
388.5000;1.3602;1.7917;
388.8000;1.3578;1.7723;
389.1000;1.3594;1.7820;
389.4000;1.3602;1.7893;
389.7000;1.3594;1.7893;
390.0000;1.3586;1.7845;
390.3000;1.3610;1.7869;
390.6000;1.3610;1.7917;
390.9000;1.3594;1.7893;
391.2000;1.3586;1.7869;
391.5000;1.3569;1.7796;
391.8000;1.3610;1.7869;
392.1000;1.3586;1.7869;
392.4000;1.3586;1.7869;
392.7000;1.3594;1.7942;
393.0000;1.3618;1.7990;
393.3000;1.3610;1.7942;
393.6000;1.3602;1.7869;
393.9000;1.3578;1.7845;
394.2000;1.3594;1.7893;
394.5000;1.3594;1.7942;
394.8000;1.3594;1.7942;
395.1000;1.3586;1.7942;
395.4000;1.3602;1.7845;
395.7000;1.3594;1.7845;
396.0000;1.3667;1.8014;
396.3000;1.3594;1.7845;
396.6000;1.3651;1.7942;
396.9000;1.3594;1.7893;
397.2000;1.3586;1.7845;
397.5000;1.3586;1.7820;
397.8000;1.3602;1.7869;
398.1000;1.3602;1.7869;
398.4000;1.3602;1.7845;
398.7000;1.3602;1.7772;
399.0000;1.3618;1.7796;
399.3000;1.3594;1.7820;
399.6000;1.3610;1.7917;
399.9000;1.3594;1.7869;
400.2000;1.3586;1.7893;
400.5000;1.3594;1.7917;
400.8000;1.3602;1.7893;
401.1000;1.3691;1.8184;
401.4000;1.3618;1.7942;
401.7000;1.3610;1.7869;
402.0000;1.3626;1.7845;
402.3000;1.3610;1.7796;
402.6000;1.3602;1.7675;
402.9000;1.3610;1.7627;
403.2000;1.3610;1.7699;
403.5000;1.3610;1.7699;
403.8000;1.3602;1.7699;
404.1000;1.3602;1.7675;
404.4000;1.3602;1.7723;
404.7000;1.3594;1.7748;
405.0000;1.3586;1.7699;
405.3000;1.3594;1.7627;
405.6000;1.3602;1.7627;
405.9000;1.3602;1.7651;
406.2000;1.3537;1.7505;
406.5000;1.3561;1.7530;
406.8000;1.3537;1.7457;
407.1000;1.3602;1.7699;
407.4000;1.3569;1.7602;
407.7000;1.3602;1.7699;
408.0000;1.3594;1.7748;
408.3000;1.3529;1.7651;
408.6000;1.3610;1.7845;
408.9000;1.3610;1.7869;
409.2000;1.3602;1.7893;
409.5000;1.3586;1.7917;
409.8000;1.3618;1.7893;
410.1000;1.3643;1.7893;
410.4000;1.3586;1.7796;
410.7000;1.3610;1.7820;
411.0000;1.3594;1.7845;
411.3000;1.3602;1.7869;
411.6000;1.3578;1.7893;
411.9000;1.3586;1.7820;
412.2000;1.3594;1.7869;
412.5000;1.3602;1.7845;
412.8000;1.3602;1.7869;
413.1000;1.3586;1.7723;
413.4000;1.3667;1.7845;
413.7000;1.3602;1.7699;
414.0000;1.3610;1.7675;
414.3000;1.3602;1.7554;
414.6000;1.3602;1.7602;
414.9000;1.3578;1.7578;
415.2000;1.3594;1.7578;
415.5000;1.3594;1.7530;
415.8000;1.3578;1.7505;
416.1000;1.3667;1.7723;
416.4000;1.3594;1.7675;
416.7000;1.3578;1.7651;
417.0000;1.3586;1.7578;
417.3000;1.3594;1.7554;
417.6000;1.3675;1.7820;
417.9000;1.3602;1.7699;
418.2000;1.3594;1.7602;
418.5000;1.3594;1.7699;
418.8000;1.3594;1.7675;
419.1000;1.3594;1.7675;
419.4000;1.3594;1.7723;
419.7000;1.3569;1.7699;
420.0000;1.3569;1.7627;
420.3000;1.3594;1.7627;
420.6000;1.3561;1.7578;
420.9000;1.3569;1.7627;
421.2000;1.3586;1.7627;
421.5000;1.3578;1.7651;
421.8000;1.3578;1.7651;
422.1000;1.3643;1.7772;
422.4000;1.3586;1.7627;
422.7000;1.3602;1.7651;
423.0000;1.3578;1.7699;
423.3000;1.3602;1.7699;
423.6000;1.3610;1.7820;
423.9000;1.3586;1.7796;
424.2000;1.3594;1.7845;
424.5000;1.3594;1.7869;
424.8000;1.3586;1.7796;
425.1000;1.3610;1.7845;
425.4000;1.3586;1.7796;
425.7000;1.3569;1.7845;
426.0000;1.3602;1.7917;
426.3000;1.3610;1.7869;
426.6000;1.3602;1.7796;
426.9000;1.3561;1.7651;
427.2000;1.3586;1.7699;
427.5000;1.3594;1.7796;
427.8000;1.3602;1.7796;
428.1000;1.3569;1.7796;
428.4000;1.3586;1.7772;
428.7000;1.3610;1.7820;
429.0000;1.3602;1.7820;
429.3000;1.3602;1.7796;
429.6000;1.3610;1.7772;
429.9000;1.3569;1.7651;
430.2000;1.3594;1.7723;
430.5000;1.3578;1.7675;
430.8000;1.3545;1.7530;
431.1000;1.3602;1.7651;
431.4000;1.3586;1.7627;
431.7000;1.3561;1.7505;
432.0000;1.3578;1.7578;
432.3000;1.3586;1.7627;
432.6000;1.3569;1.7602;
432.9000;1.3586;1.7675;
433.2000;1.3586;1.7675;
433.5000;1.3578;1.7699;
433.8000;1.3618;1.7820;
434.1000;1.3610;1.7748;
434.4000;1.3586;1.7772;
434.7000;1.3578;1.7723;
435.0000;1.3610;1.7772;
435.3000;1.3602;1.7772;
435.6000;1.3586;1.7772;
435.9000;1.3594;1.7748;
436.2000;1.3594;1.7772;
436.5000;1.3610;1.7796;
436.8000;1.3578;1.7748;
437.1000;1.3586;1.7699;
437.4000;1.3578;1.7723;
437.7000;1.3586;1.7772;
438.0000;1.3602;1.7893;
438.3000;1.3569;1.7796;
438.6000;1.3553;1.7723;
438.9000;1.3610;1.7796;
439.2000;1.3537;1.7578;
439.5000;1.3602;1.7748;
439.8000;1.3578;1.7723;
440.1000;1.3586;1.7820;
440.4000;1.3610;1.7869;
440.7000;1.3586;1.7772;
441.0000;1.3578;1.7772;
441.3000;1.3569;1.7820;
441.6000;1.3594;1.7845;
441.9000;1.3594;1.7772;
442.2000;1.3586;1.7796;
442.5000;1.3594;1.7820;
442.8000;1.3586;1.7820;
443.1000;1.3602;1.7845;
443.4000;1.3569;1.7845;
443.7000;1.3586;1.7869;
444.0000;1.3610;1.8039;
444.3000;1.3545;1.7893;
444.6000;1.3602;1.7942;
444.9000;1.3586;1.7917;
445.2000;1.3594;1.7869;
445.5000;1.3602;1.7893;
445.8000;1.3578;1.7772;
446.1000;1.3618;1.7893;
446.4000;1.3643;1.8014;
446.7000;1.3594;1.7917;
447.0000;1.3594;1.7942;
447.3000;1.3586;1.7966;
447.6000;1.3569;1.7917;
447.9000;1.3586;1.7917;
448.2000;1.3569;1.7796;
448.5000;1.3594;1.7675;
448.8000;1.3578;1.7675;
449.1000;1.3545;1.7627;
449.4000;1.3594;1.7723;
449.7000;1.3578;1.7602;
450.0000;1.3586;1.7627;
450.3000;1.3569;1.7651;
450.6000;1.3586;1.7723;
450.9000;1.3578;1.7723;
451.2000;1.3569;1.7748;
451.5000;1.3594;1.7796;
451.8000;1.3586;1.7723;
452.1000;1.3569;1.7820;
452.4000;1.3586;1.7845;
452.7000;1.3561;1.7772;
453.0000;1.3586;1.7845;
453.3000;1.3586;1.7869;
453.6000;1.3586;1.7820;
453.9000;1.3578;1.7748;
454.2000;1.3586;1.7796;
454.5000;1.3602;1.7845;
454.8000;1.3586;1.7893;
455.1000;1.3569;1.7869;
455.4000;1.3586;1.7845;
455.7000;1.3586;1.7772;
456.0000;1.3578;1.7796;
456.3000;1.3578;1.7748;
456.6000;1.3553;1.7748;
456.9000;1.3569;1.7820;
457.2000;1.3561;1.7772;
457.5000;1.3561;1.7748;
457.8000;1.3602;1.7869;
458.1000;1.3618;1.7893;
458.4000;1.3594;1.7748;
458.7000;1.3569;1.7627;
459.0000;1.3553;1.7578;
459.3000;1.3569;1.7651;
459.6000;1.3594;1.7651;
459.9000;1.3594;1.7651;
460.2000;1.3578;1.7554;
460.5000;1.3635;1.7796;
460.8000;1.3602;1.7699;
461.1000;1.3586;1.7723;
461.4000;1.3586;1.7772;
461.7000;1.3578;1.7820;
462.0000;1.3594;1.7772;
462.3000;1.3578;1.7675;
462.6000;1.3626;1.7772;
462.9000;1.3610;1.7699;
463.2000;1.3561;1.7578;
463.5000;1.3586;1.7651;
463.8000;1.3578;1.7554;
464.1000;1.3578;1.7505;
464.4000;1.3602;1.7530;
464.7000;1.3594;1.7530;
465.0000;1.3586;1.7675;
465.3000;1.3578;1.7699;
465.6000;1.3512;1.7602;
465.9000;1.3594;1.7723;
466.2000;1.3602;1.7748;
466.5000;1.3586;1.7651;
466.8000;1.3586;1.7772;
467.1000;1.3586;1.7796;
467.4000;1.3569;1.7796;
467.7000;1.3586;1.7845;
468.0000;1.3578;1.7845;
468.3000;1.3561;1.7723;
468.6000;1.3569;1.7675;
468.9000;1.3569;1.7699;
469.2000;1.3537;1.7748;
469.5000;1.3594;1.7942;
469.8000;1.3586;1.7893;
470.1000;1.3602;1.7869;
470.4000;1.3553;1.7699;
470.7000;1.3569;1.7820;
471.0000;1.3594;1.7796;
471.3000;1.3651;1.7942;
471.6000;1.3586;1.7651;
471.9000;1.3578;1.7627;
472.2000;1.3578;1.7723;
472.5000;1.3602;1.7796;
472.8000;1.3602;1.7699;
473.1000;1.3561;1.7675;
473.4000;1.3626;1.7845;
473.7000;1.3578;1.7723;
474.0000;1.3561;1.7627;
474.3000;1.3586;1.7699;
474.6000;1.3594;1.7723;
474.9000;1.3586;1.7699;
475.2000;1.3561;1.7651;
475.5000;1.3569;1.7651;
475.8000;1.3561;1.7699;
476.1000;1.3594;1.7796;
476.4000;1.3578;1.7675;
476.7000;1.3569;1.7675;
477.0000;1.3578;1.7699;
477.3000;1.3586;1.7699;
477.6000;1.3586;1.7772;
477.9000;1.3651;1.7966;
478.2000;1.3569;1.7748;
478.5000;1.3578;1.7699;
478.8000;1.3586;1.7723;
479.1000;1.3586;1.7651;
479.4000;1.3578;1.7651;
479.7000;1.3553;1.7699;
480.0000;1.3602;1.7723;
480.3000;1.3578;1.7675;
480.6000;1.3651;1.7942;
480.9000;1.3586;1.7869;
481.2000;1.3537;1.7675;
481.5000;1.3578;1.7723;
481.8000;1.3569;1.7748;
482.1000;1.3586;1.7796;
482.4000;1.3578;1.7675;
482.7000;1.3545;1.7627;
483.0000;1.3545;1.7699;
483.3000;1.3569;1.7772;
483.6000;1.3578;1.7820;
483.9000;1.3586;1.7893;
484.2000;1.3537;1.7820;
484.5000;1.3569;1.7845;
484.8000;1.3594;1.7893;
485.1000;1.3569;1.7796;
485.4000;1.3578;1.7869;
485.7000;1.3594;1.7869;
486.0000;1.3578;1.7820;
486.3000;1.3569;1.7845;
486.6000;1.3537;1.7796;
486.9000;1.3553;1.7869;
487.2000;1.3553;1.7845;
487.5000;1.3578;1.7869;
487.8000;1.3561;1.7845;
488.1000;1.3561;1.7893;
488.4000;1.3569;1.7869;
488.7000;1.3569;1.7820;
489.0000;1.3586;1.7796;
489.3000;1.3578;1.7796;
489.6000;1.3578;1.7796;
489.9000;1.3578;1.7820;
490.2000;1.3586;1.7796;
490.5000;1.3578;1.7772;
490.8000;1.3578;1.7748;
491.1000;1.3569;1.7772;
491.4000;1.3586;1.7796;
491.7000;1.3594;1.7772;
492.0000;1.3578;1.7675;
492.3000;1.3569;1.7651;
492.6000;1.3578;1.7627;
492.9000;1.3586;1.7651;
493.2000;1.3594;1.7651;
493.5000;1.3569;1.7554;
493.8000;1.3545;1.7530;
494.1000;1.3578;1.7651;
494.4000;1.3569;1.7675;
494.7000;1.3561;1.7651;
495.0000;1.3569;1.7602;
495.3000;1.3651;1.7893;
495.6000;1.3578;1.7723;
495.9000;1.3578;1.7820;
496.2000;1.3561;1.7917;
496.5000;1.3561;1.7990;
496.8000;1.3618;1.8160;
497.1000;1.3569;1.7990;
497.4000;1.3545;1.7869;
497.7000;1.3569;1.7845;
498.0000;1.3569;1.7796;
498.3000;1.3553;1.7723;
498.6000;1.3553;1.7651;
498.9000;1.3594;1.7796;
499.2000;1.3569;1.7820;
499.5000;1.3561;1.7796;
499.8000;1.3586;1.7869;
500.1000;1.3586;1.7966;
500.4000;1.3504;1.7772;
500.7000;1.3578;1.7893;
501.0000;1.3561;1.7893;
501.3000;1.3578;1.7893;
501.6000;1.3569;1.7869;
501.9000;1.3569;1.7893;
502.2000;1.3488;1.7627;
502.5000;1.3569;1.7723;
502.8000;1.3594;1.7796;
503.1000;1.3586;1.7748;
503.4000;1.3586;1.7796;
503.7000;1.3586;1.7869;
504.0000;1.3578;1.7845;
504.3000;1.3602;1.7893;
504.6000;1.3561;1.7772;
504.9000;1.3626;1.7942;
505.2000;1.3659;1.8111;
505.5000;1.3586;1.7966;
505.8000;1.3626;1.7917;
506.1000;1.3569;1.7820;
506.4000;1.3578;1.7893;
506.7000;1.3569;1.7917;
507.0000;1.3594;1.7869;
507.3000;1.3569;1.7869;
507.6000;1.3553;1.7845;
507.9000;1.3569;1.7893;
508.2000;1.3578;1.7917;
508.5000;1.3569;1.7990;
508.8000;1.3578;1.8039;
509.1000;1.3569;1.8063;
509.4000;1.3586;1.7990;
509.7000;1.3561;1.7917;
510.0000;1.3561;1.7893;
510.3000;1.3578;1.7796;
510.6000;1.3569;1.7723;
510.9000;1.3553;1.7651;
511.2000;1.3553;1.7530;
511.5000;1.3569;1.7554;
511.8000;1.3561;1.7578;
512.1000;1.3578;1.7675;
512.4000;1.3578;1.7723;
512.7000;1.3529;1.7627;
513.0000;1.3553;1.7748;
513.3000;1.3561;1.7772;
513.6000;1.3569;1.7820;
513.9000;1.3569;1.7723;
514.2000;1.3553;1.7699;
514.5000;1.3561;1.7699;
514.8000;1.3569;1.7723;
515.1000;1.3553;1.7675;
515.4000;1.3569;1.7748;
515.7000;1.3569;1.7723;
516.0000;1.3561;1.7651;
516.3000;1.3553;1.7651;
516.6000;1.3561;1.7723;
516.9000;1.3553;1.7723;
517.2000;1.3578;1.7796;
517.5000;1.3561;1.7748;
517.8000;1.3561;1.7796;
518.1000;1.3561;1.7820;
518.4000;1.3569;1.7772;
518.7000;1.3561;1.7699;
519.0000;1.3561;1.7651;
519.3000;1.3561;1.7699;
519.6000;1.3578;1.7772;
519.9000;1.3569;1.7748;
520.2000;1.3569;1.7723;
520.5000;1.3578;1.7748;
520.8000;1.3586;1.7772;
521.1000;1.3578;1.7772;
521.4000;1.3594;1.7796;
521.7000;1.3569;1.7748;
522.0000;1.3594;1.7748;
522.3000;1.3586;1.7651;
522.6000;1.3610;1.7772;
522.9000;1.3561;1.7748;
523.2000;1.3569;1.7845;
523.5000;1.3569;1.7893;
523.8000;1.3569;1.7845;
524.1000;1.3553;1.7772;
524.4000;1.3521;1.7723;
524.7000;1.3569;1.7869;
525.0000;1.3537;1.7723;
525.3000;1.3569;1.7772;
525.6000;1.3553;1.7748;
525.9000;1.3561;1.7748;
526.2000;1.3561;1.7675;
526.5000;1.3561;1.7651;
526.8000;1.3553;1.7627;
527.1000;1.3569;1.7675;
527.4000;1.3578;1.7602;
527.7000;1.3553;1.7505;
528.0000;1.3561;1.7554;
528.3000;1.3569;1.7578;
528.6000;1.3561;1.7651;
528.9000;1.3561;1.7723;
529.2000;1.3561;1.7699;
529.5000;1.3537;1.7651;
529.8000;1.3561;1.7699;
530.1000;1.3561;1.7723;
530.4000;1.3553;1.7772;
530.7000;1.3553;1.7869;
531.0000;1.3569;1.7893;
531.3000;1.3553;1.7966;
531.6000;1.3537;1.7869;
531.9000;1.3553;1.7966;
532.2000;1.3553;1.7990;
532.5000;1.3602;1.8160;
532.8000;1.3569;1.8111;
533.1000;1.3569;1.8233;
533.4000;1.3578;1.8184;
533.7000;1.3545;1.8087;
534.0000;1.3561;1.8111;
534.3000;1.3561;1.8184;
534.6000;1.3561;1.8233;
534.9000;1.3561;1.8233;
535.2000;1.3569;1.8208;
535.5000;1.3553;1.8184;
535.8000;1.3561;1.8184;
536.1000;1.3561;1.8160;
536.4000;1.3578;1.8208;
536.7000;1.3553;1.8136;
537.0000;1.3561;1.8160;
537.3000;1.3537;1.8063;
537.6000;1.3488;1.7917;
537.9000;1.3545;1.7966;
538.2000;1.3578;1.7990;
538.5000;1.3561;1.7990;
538.8000;1.3578;1.8014;
539.1000;1.3586;1.8063;
539.4000;1.3586;1.7990;
539.7000;1.3545;1.7869;
540.0000;1.3561;1.7845;
540.3000;1.3521;1.7675;
540.6000;1.3553;1.7748;
540.9000;1.3553;1.7796;
541.2000;1.3545;1.7796;
541.5000;1.3553;1.7820;
541.8000;1.3561;1.7820;
542.1000;1.3569;1.7723;
542.4000;1.3553;1.7772;
542.7000;1.3569;1.7772;
543.0000;1.3553;1.7820;
543.3000;1.3553;1.7820;
543.6000;1.3561;1.7845;
543.9000;1.3561;1.7893;
544.2000;1.3545;1.7869;
544.5000;1.3553;1.7845;
544.8000;1.3561;1.7869;
545.1000;1.3537;1.7869;
545.4000;1.3553;1.7893;
545.7000;1.3553;1.7869;
546.0000;1.3553;1.7845;
546.3000;1.3561;1.7820;
546.6000;1.3553;1.7869;
546.9000;1.3561;1.7893;
547.2000;1.3553;1.7869;
547.5000;1.3586;1.7917;
547.8000;1.3561;1.7942;
548.1000;1.3578;1.8039;
548.4000;1.3545;1.7966;
548.7000;1.3553;1.7917;
549.0000;1.3553;1.7893;
549.3000;1.3561;1.7869;
549.6000;1.3545;1.7748;
549.9000;1.3545;1.7772;
550.2000;1.3561;1.7796;
550.5000;1.3521;1.7699;
550.8000;1.3545;1.7699;
551.1000;1.3537;1.7699;
551.4000;1.3553;1.7675;
551.7000;1.3553;1.7675;
552.0000;1.3545;1.7675;
552.3000;1.3561;1.7748;
552.6000;1.3610;1.7772;
552.9000;1.3578;1.7675;
553.2000;1.3569;1.7675;
553.5000;1.3553;1.7578;
553.8000;1.3537;1.7602;
554.1000;1.3561;1.7627;
554.4000;1.3545;1.7578;
554.7000;1.3561;1.7627;
555.0000;1.3561;1.7602;
555.3000;1.3553;1.7675;
555.6000;1.3521;1.7627;
555.9000;1.3553;1.7748;
556.2000;1.3537;1.7772;
556.5000;1.3594;1.7966;
556.8000;1.3569;1.7772;
557.1000;1.3553;1.7845;
557.4000;1.3553;1.7869;
557.7000;1.3545;1.7748;
558.0000;1.3553;1.7699;
558.3000;1.3553;1.7675;
558.6000;1.3561;1.7748;
558.9000;1.3561;1.7723;
559.2000;1.3561;1.7723;
559.5000;1.3553;1.7699;
559.8000;1.3561;1.7699;
560.1000;1.3545;1.7651;
560.4000;1.3578;1.7772;
560.7000;1.3537;1.7651;
561.0000;1.3553;1.7651;
561.3000;1.3537;1.7651;
561.6000;1.3561;1.7675;
561.9000;1.3569;1.7627;
562.2000;1.3578;1.7675;
562.5000;1.3569;1.7699;
562.8000;1.3569;1.7845;
563.1000;1.3553;1.7869;
563.4000;1.3553;1.7820;
563.7000;1.3561;1.7845;
564.0000;1.3561;1.7820;
564.3000;1.3537;1.7772;
564.6000;1.3561;1.7820;
564.9000;1.3537;1.7772;
565.2000;1.3561;1.7748;
565.5000;1.3537;1.7651;
565.8000;1.3618;1.7845;
566.1000;1.3545;1.7651;
566.4000;1.3545;1.7748;
566.7000;1.3545;1.7699;
567.0000;1.3545;1.7723;
567.3000;1.3553;1.7651;
567.6000;1.3569;1.7627;
567.9000;1.3545;1.7602;
568.2000;1.3561;1.7723;
568.5000;1.3553;1.7627;
568.8000;1.3537;1.7651;
569.1000;1.3553;1.7699;
569.4000;1.3553;1.7651;
569.7000;1.3553;1.7651;
570.0000;1.3561;1.7675;
570.3000;1.3553;1.7675;
570.6000;1.3529;1.7627;
570.9000;1.3553;1.7675;
571.2000;1.3545;1.7578;
571.5000;1.3488;1.7360;
571.8000;1.3578;1.7602;
572.1000;1.3553;1.7602;
572.4000;1.3545;1.7602;
572.7000;1.3553;1.7675;
573.0000;1.3553;1.7627;
573.3000;1.3569;1.7651;
573.6000;1.3578;1.7699;
573.9000;1.3553;1.7651;
574.2000;1.3537;1.7699;
574.5000;1.3561;1.7699;
574.8000;1.3553;1.7723;
575.1000;1.3586;1.7796;
575.4000;1.3553;1.7748;
575.7000;1.3561;1.7723;
576.0000;1.3504;1.7602;
576.3000;1.3553;1.7699;
576.6000;1.3569;1.7723;
576.9000;1.3586;1.7820;
577.2000;1.3537;1.7723;
577.5000;1.3553;1.7772;
577.8000;1.3553;1.7699;
578.1000;1.3569;1.7699;
578.4000;1.3561;1.7675;
578.7000;1.3561;1.7627;
579.0000;1.3553;1.7675;
579.3000;1.3553;1.7699;
579.6000;1.3561;1.7723;
579.9000;1.3553;1.7748;
580.2000;1.3553;1.7796;
580.5000;1.3553;1.7796;
580.8000;1.3545;1.7723;
581.1000;1.3512;1.7602;
581.4000;1.3537;1.7627;
581.7000;1.3586;1.7675;
582.0000;1.3553;1.7602;
582.3000;1.3578;1.7699;
582.6000;1.3561;1.7675;
582.9000;1.3545;1.7699;
583.2000;1.3545;1.7723;
583.5000;1.3561;1.7699;
583.8000;1.3553;1.7675;
584.1000;1.3561;1.7723;
584.4000;1.3553;1.7675;
584.7000;1.3545;1.7675;
585.0000;1.3545;1.7602;
585.3000;1.3545;1.7651;
585.6000;1.3537;1.7699;
585.9000;1.3545;1.7675;
586.2000;1.3545;1.7772;
586.5000;1.3553;1.7699;
586.8000;1.3553;1.7651;
587.1000;1.3553;1.7627;
587.4000;1.3512;1.7554;
587.7000;1.3569;1.7748;
588.0000;1.3553;1.7699;
588.3000;1.3553;1.7699;
588.6000;1.3618;1.7845;
588.9000;1.3553;1.7772;
589.2000;1.3553;1.7651;
589.5000;1.3545;1.7554;
589.8000;1.3569;1.7505;
590.1000;1.3545;1.7530;
590.4000;1.3545;1.7530;
590.7000;1.3521;1.7530;
591.0000;1.3521;1.7530;
591.3000;1.3561;1.7602;
591.6000;1.3545;1.7675;
591.9000;1.3626;1.7966;
592.2000;1.3553;1.7748;
592.5000;1.3553;1.7796;
592.8000;1.3578;1.7820;
593.1000;1.3545;1.7723;
593.4000;1.3561;1.7699;
593.7000;1.3553;1.7723;
594.0000;1.3561;1.7723;
594.3000;1.3545;1.7699;
594.6000;1.3512;1.7578;
594.9000;1.3553;1.7675;
595.2000;1.3553;1.7675;
595.5000;1.3521;1.7602;
595.8000;1.3537;1.7530;
596.1000;1.3545;1.7602;
596.4000;1.3569;1.7748;
596.7000;1.3561;1.7772;
597.0000;1.3488;1.7675;
597.3000;1.3553;1.7820;
597.6000;1.3529;1.7820;
597.9000;1.3586;1.7966;
598.2000;1.3537;1.7748;
598.5000;1.3561;1.7748;
598.8000;1.3569;1.7699;
599.1000;1.3569;1.7699;
599.4000;1.3545;1.7651;
599.7000;1.3561;1.7723;
600.0000;1.3586;1.7820;
600.3000;1.3553;1.7651;
600.6000;1.3545;1.7433;
600.9000;1.3439;1.7336;
601.2000;1.3341;1.7142;
601.5000;1.3260;1.6996;
601.8000;1.3130;1.6729;
602.1000;1.3016;1.6463;
602.4000;1.2853;1.6245;
602.7000;1.2747;1.6123;
603.0000;1.2593;1.5881;
603.3000;1.2519;1.5905;
603.6000;1.2397;1.5808;
603.9000;1.2308;1.5663;
604.2000;1.2186;1.5493;
604.5000;1.2112;1.5469;
604.8000;1.2072;1.5469;
605.1000;1.1950;1.5250;
605.4000;1.1868;1.5178;
605.7000;1.1787;1.5153;
606.0000;1.1705;1.5153;
606.3000;1.1648;1.4984;
606.6000;1.1567;1.4838;
606.9000;1.1502;1.4814;
607.2000;1.1420;1.4741;
607.5000;1.1372;1.4717;
607.8000;1.1298;1.4644;
608.1000;1.1249;1.4572;
608.4000;1.1193;1.4426;
608.7000;1.1136;1.4402;
609.0000;1.1087;1.4426;
609.3000;1.1038;1.4378;
609.6000;1.0956;1.4281;
609.9000;1.0899;1.4232;
610.2000;1.0867;1.4256;
610.5000;1.0769;1.4038;
610.8000;1.0745;1.3990;
611.1000;1.0639;1.3820;
611.4000;1.0655;1.4087;
611.7000;1.0615;1.4014;
612.0000;1.0558;1.3941;
612.3000;1.0501;1.3820;
612.6000;1.0395;1.3674;
612.9000;1.0411;1.3917;
613.2000;1.0354;1.3917;
613.5000;1.0305;1.3868;
613.8000;1.0281;1.4014;
614.1000;1.0240;1.4062;
614.4000;1.0199;1.4038;
614.7000;1.0167;1.3965;
615.0000;1.0126;1.3844;
615.3000;1.0085;1.3796;
615.6000;1.0045;1.3650;
615.9000;1.0004;1.3626;
616.2000;0.9963;1.3505;
616.5000;0.9923;1.3456;
616.8000;0.9906;1.3553;
617.1000;0.9841;1.3505;
617.4000;0.9809;1.3505;
617.7000;0.9801;1.3481;
618.0000;0.9776;1.3505;
618.3000;0.9735;1.3456;
618.6000;0.9695;1.3456;
618.9000;0.9662;1.3456;
619.2000;0.9654;1.3481;
619.5000;0.9621;1.3408;
619.8000;0.9573;1.3505;
620.1000;0.9540;1.3432;
620.4000;0.9532;1.3456;
620.7000;0.9508;1.3456;
621.0000;0.9475;1.3384;
621.3000;0.9426;1.3359;
621.6000;0.9394;1.3384;
621.9000;0.9394;1.3335;
622.2000;0.9361;1.3262;
622.5000;0.9337;1.3214;
622.8000;0.9304;1.3165;
623.1000;0.9271;1.3165;
623.4000;0.9231;1.3141;
623.7000;0.9206;1.3068;
624.0000;0.9174;1.3020;
624.3000;0.9166;1.3044;
624.6000;0.9133;1.3093;
624.9000;0.9125;1.3165;
625.2000;0.9109;1.3141;
625.5000;0.9092;1.3093;
625.8000;0.9052;1.3093;
626.1000;0.9035;1.3068;
626.4000;0.9027;1.3093;
626.7000;0.9003;1.3117;
627.0000;0.8970;1.3093;
627.3000;0.8946;1.3044;
627.6000;0.8921;1.3044;
627.9000;0.8913;1.2947;
628.2000;0.8897;1.2971;
628.5000;0.8840;1.2874;
628.8000;0.8856;1.2971;
629.1000;0.8840;1.3020;
629.4000;0.8864;1.3165;
629.7000;0.8816;1.3068;
630.0000;0.8783;1.3044;
630.3000;0.8775;1.3093;
630.6000;0.8751;1.2996;
630.9000;0.8734;1.2996;
631.2000;0.8726;1.2996;
631.5000;0.8742;1.3141;
631.8000;0.8685;1.2996;
632.1000;0.8669;1.3020;
632.4000;0.8669;1.3068;
632.7000;0.8637;1.3020;
633.0000;0.8620;1.2996;
633.3000;0.8596;1.2947;
633.6000;0.8596;1.2947;
633.9000;0.8580;1.2971;
634.2000;0.8547;1.2923;
634.5000;0.8482;1.2802;
634.8000;0.8482;1.2729;
635.1000;0.8523;1.2874;
635.4000;0.8490;1.2850;
635.7000;0.8482;1.2850;
636.0000;0.8449;1.2802;
636.3000;0.8449;1.2850;
636.6000;0.8433;1.2753;
636.9000;0.8433;1.2777;
637.2000;0.8368;1.2705;
637.5000;0.8466;1.2996;
637.8000;0.8400;1.2899;
638.1000;0.8352;1.2777;
638.4000;0.8352;1.2802;
638.7000;0.8335;1.2729;
639.0000;0.8327;1.2777;
639.3000;0.8327;1.2826;
639.6000;0.8376;1.2850;
639.9000;0.8303;1.2777;
640.2000;0.8295;1.2753;
640.5000;0.8287;1.2777;
640.8000;0.8262;1.2777;
641.1000;0.8262;1.2802;
641.4000;0.8238;1.2850;
641.7000;0.8221;1.2947;
642.0000;0.8213;1.2971;
642.3000;0.8213;1.3020;
642.6000;0.8197;1.2923;
642.9000;0.8173;1.2874;
643.2000;0.8173;1.2899;
643.5000;0.8173;1.2971;
643.8000;0.8148;1.3020;
644.1000;0.8140;1.3020;
644.4000;0.8124;1.2850;
644.7000;0.8132;1.2826;
645.0000;0.8124;1.2874;
645.3000;0.8124;1.2947;
645.6000;0.8107;1.2923;
645.9000;0.8083;1.2899;
646.2000;0.8091;1.2971;
646.5000;0.8067;1.3020;
646.8000;0.8050;1.2971;
647.1000;0.8067;1.2923;
647.4000;0.8050;1.2874;
647.7000;0.8026;1.2826;
648.0000;0.7969;1.2729;
648.3000;0.7937;1.2753;
648.6000;0.8002;1.2947;
648.9000;0.7993;1.2899;
649.2000;0.7985;1.2850;
649.5000;0.7985;1.2826;
649.8000;0.7945;1.2777;
650.1000;0.7920;1.2802;
650.4000;0.7977;1.2971;
650.7000;0.7953;1.2923;
651.0000;0.7937;1.2874;
651.3000;0.7953;1.2826;
651.6000;0.7920;1.2777;
651.9000;0.7904;1.2729;
652.2000;0.7912;1.2705;
652.5000;0.7904;1.2705;
652.8000;0.7896;1.2705;
653.1000;0.7888;1.2705;
653.4000;0.7855;1.2632;
653.7000;0.7880;1.2656;
654.0000;0.7855;1.2632;
654.3000;0.7831;1.2632;
654.6000;0.7831;1.2656;
654.9000;0.7831;1.2705;
655.2000;0.7855;1.2874;
655.5000;0.7847;1.2947;
655.8000;0.7814;1.2947;
656.1000;0.7814;1.2899;
656.4000;0.7790;1.2947;
656.7000;0.7790;1.2996;
657.0000;0.7782;1.2947;
657.3000;0.7782;1.2923;
657.6000;0.7774;1.2947;
657.9000;0.7774;1.2899;
658.2000;0.7700;1.2705;
658.5000;0.7741;1.2802;
658.8000;0.7684;1.2656;
659.1000;0.7717;1.2656;
659.4000;0.7725;1.2705;
659.7000;0.7717;1.2680;
660.0000;0.7725;1.2705;
660.3000;0.7717;1.2777;
660.6000;0.7709;1.2729;
660.9000;0.7700;1.2705;
661.2000;0.7692;1.2680;
661.5000;0.7692;1.2777;
661.8000;0.7684;1.2874;
662.1000;0.7684;1.2850;
662.4000;0.7668;1.2777;
662.7000;0.7676;1.2777;
663.0000;0.7652;1.2777;
663.3000;0.7619;1.2656;
663.6000;0.7643;1.2705;
663.9000;0.7643;1.2753;
664.2000;0.7660;1.2777;
664.5000;0.7611;1.2680;
664.8000;0.7619;1.2656;
665.1000;0.7595;1.2608;
665.4000;0.7619;1.2632;
665.7000;0.7619;1.2656;
666.0000;0.7643;1.2680;
666.3000;0.7611;1.2656;
666.6000;0.7611;1.2632;
666.9000;0.7611;1.2656;
667.2000;0.7595;1.2656;
667.5000;0.7586;1.2680;
667.8000;0.7586;1.2656;
668.1000;0.7570;1.2705;
668.4000;0.7538;1.2680;
668.7000;0.7554;1.2608;
669.0000;0.7521;1.2680;
669.3000;0.7530;1.2729;
669.6000;0.7505;1.2535;
669.9000;0.7530;1.2656;
670.2000;0.7562;1.2753;
670.5000;0.7538;1.2753;
670.8000;0.7521;1.2826;
671.1000;0.7513;1.2826;
671.4000;0.7513;1.2826;
671.7000;0.7521;1.2826;
672.0000;0.7456;1.2632;
672.3000;0.7473;1.2680;
672.6000;0.7481;1.2680;
672.9000;0.7513;1.2874;
673.2000;0.7440;1.2777;
673.5000;0.7464;1.2777;
673.8000;0.7456;1.2802;
674.1000;0.7464;1.2777;
674.4000;0.7481;1.2874;
674.7000;0.7416;1.2656;
675.0000;0.7464;1.2777;
675.3000;0.7464;1.2705;
675.6000;0.7497;1.2802;
675.9000;0.7448;1.2680;
676.2000;0.7440;1.2583;
676.5000;0.7399;1.2511;
676.8000;0.7448;1.2656;
677.1000;0.7432;1.2680;
677.4000;0.7424;1.2705;
677.7000;0.7432;1.2777;
678.0000;0.7407;1.2874;
678.3000;0.7399;1.2850;
678.6000;0.7416;1.2777;
678.9000;0.7391;1.2705;
679.2000;0.7391;1.2608;
679.5000;0.7383;1.2632;
679.8000;0.7391;1.2583;
680.1000;0.7391;1.2656;
680.4000;0.7391;1.2583;
680.7000;0.7391;1.2632;
681.0000;0.7375;1.2583;
681.3000;0.7367;1.2656;
681.6000;0.7367;1.2705;
681.9000;0.7367;1.2729;
682.2000;0.7359;1.2680;
682.5000;0.7359;1.2656;
682.8000;0.7342;1.2608;
683.1000;0.7350;1.2729;
683.4000;0.7350;1.2802;
683.7000;0.7334;1.2802;
684.0000;0.7342;1.2826;
684.3000;0.7334;1.2850;
684.6000;0.7326;1.2947;
684.9000;0.7318;1.2923;
685.2000;0.7302;1.2923;
685.5000;0.7310;1.2923;
685.8000;0.7318;1.2923;
686.1000;0.7285;1.2826;
686.4000;0.7293;1.2777;
686.7000;0.7302;1.2705;
687.0000;0.7293;1.2656;
687.3000;0.7310;1.2705;
687.6000;0.7285;1.2777;
687.9000;0.7302;1.2777;
688.2000;0.7293;1.2802;
688.5000;0.7318;1.2899;
688.8000;0.7277;1.2777;
689.1000;0.7277;1.2656;
689.4000;0.7269;1.2632;
689.7000;0.7261;1.2583;
690.0000;0.7285;1.2583;
690.3000;0.7293;1.2608;
690.6000;0.7326;1.2729;
690.9000;0.7269;1.2608;
691.2000;0.7245;1.2511;
691.5000;0.7269;1.2608;
691.8000;0.7269;1.2632;
692.1000;0.7253;1.2680;
692.4000;0.7253;1.2705;
692.7000;0.7253;1.2705;
693.0000;0.7253;1.2632;
693.3000;0.7236;1.2608;
693.6000;0.7236;1.2632;
693.9000;0.7155;1.2511;
694.2000;0.7188;1.2656;
694.5000;0.7236;1.2777;
694.8000;0.7228;1.2826;
695.1000;0.7220;1.2850;
695.4000;0.7236;1.2802;
695.7000;0.7196;1.2850;
696.0000;0.7220;1.2874;
696.3000;0.7179;1.2753;
696.6000;0.7212;1.2826;
696.9000;0.7196;1.2850;
697.2000;0.7196;1.2802;
697.5000;0.7204;1.2874;
697.8000;0.7212;1.2947;
698.1000;0.7179;1.2874;
698.4000;0.7179;1.2899;
698.7000;0.7179;1.2899;
699.0000;0.7236;1.2923;
699.3000;0.7179;1.2802;
699.6000;0.7171;1.2802;
699.9000;0.7179;1.2923;
700.2000;0.7171;1.2971;
700.5000;0.7188;1.3020;
700.8000;0.7155;1.2971;
701.1000;0.7155;1.2923;
701.4000;0.7155;1.2971;
701.7000;0.7147;1.3020;
702.0000;0.7155;1.3020;
702.3000;0.7147;1.2996;
702.6000;0.7147;1.3020;
702.9000;0.7155;1.3020;
703.2000;0.7155;1.2971;
703.5000;0.7147;1.2947;
703.8000;0.7171;1.2996;
704.1000;0.7123;1.2923;
704.4000;0.7147;1.2971;
704.7000;0.7098;1.2850;
705.0000;0.7147;1.2947;
705.3000;0.7106;1.2923;
705.6000;0.7131;1.2923;
705.9000;0.7179;1.3020;
706.2000;0.7155;1.2874;
706.5000;0.7114;1.2874;
706.8000;0.7123;1.2947;
707.1000;0.7106;1.2947;
707.4000;0.7106;1.2899;
707.7000;0.7098;1.2947;
708.0000;0.7114;1.2899;
708.3000;0.7098;1.2996;
708.6000;0.7106;1.2996;
708.9000;0.7106;1.2947;
709.2000;0.7098;1.2874;
709.5000;0.7098;1.2850;
709.8000;0.7090;1.2850;
710.1000;0.7082;1.2947;
710.4000;0.7082;1.2971;
710.7000;0.7074;1.2899;
711.0000;0.7082;1.2874;
711.3000;0.7098;1.2947;
711.6000;0.7090;1.3020;
711.9000;0.7074;1.2923;
712.2000;0.7066;1.2923;
712.5000;0.7147;1.2996;
712.8000;0.7049;1.2802;
713.1000;0.7106;1.2923;
713.4000;0.7057;1.2753;
713.7000;0.7057;1.2777;
714.0000;0.7041;1.2705;
714.3000;0.7049;1.2656;
714.6000;0.7049;1.2680;
714.9000;0.7090;1.2802;
715.2000;0.7057;1.2705;
715.5000;0.7057;1.2729;
715.8000;0.7049;1.2656;
716.1000;0.7025;1.2680;
716.4000;0.7049;1.2777;
716.7000;0.7041;1.2705;
717.0000;0.7074;1.2777;
717.3000;0.7033;1.2729;
717.6000;0.7025;1.2777;
717.9000;0.7090;1.2971;
718.2000;0.7025;1.2874;
718.5000;0.7009;1.2874;
718.8000;0.7049;1.2923;
719.1000;0.7106;1.3093;
719.4000;0.6976;1.2850;
719.7000;0.7000;1.2923;
720.0000;0.7017;1.2923;
720.3000;0.7000;1.2874;
720.6000;0.7033;1.2923;
720.9000;0.7009;1.2826;
721.2000;0.6992;1.2874;
721.5000;0.7000;1.2899;
721.8000;0.7009;1.2899;
722.1000;0.7017;1.2923;
722.4000;0.7000;1.2874;
722.7000;0.6976;1.2899;
723.0000;0.7009;1.2996;
723.3000;0.7017;1.3068;
723.6000;0.7000;1.3044;
723.9000;0.6992;1.2899;
724.2000;0.6992;1.2874;
724.5000;0.6976;1.2777;
724.8000;0.6976;1.2753;
725.1000;0.6976;1.2826;
725.4000;0.6984;1.2802;
725.7000;0.6911;1.2680;
726.0000;0.6968;1.2971;
726.3000;0.6976;1.3020;
726.6000;0.6968;1.2899;
726.9000;0.6968;1.2947;
727.2000;0.6927;1.2680;
727.5000;0.6968;1.2802;
727.8000;0.6976;1.2971;
728.1000;0.6935;1.2850;
728.4000;0.6984;1.2947;
728.7000;0.6935;1.2826;
729.0000;0.6968;1.2971;
729.3000;0.6952;1.2826;
729.6000;0.6992;1.2874;
729.9000;0.6984;1.2996;
730.2000;0.6960;1.2850;
730.5000;0.6960;1.2899;
730.8000;0.6960;1.2947;
731.1000;0.6943;1.2923;
731.4000;0.6919;1.2899;
731.7000;0.6952;1.2923;
732.0000;0.6943;1.2923;
732.3000;0.6943;1.2899;
732.6000;0.6943;1.2874;
732.9000;0.6968;1.2874;
733.2000;0.6960;1.2947;
733.5000;0.6935;1.2947;
733.8000;0.6935;1.3020;
734.1000;0.6927;1.3020;
734.4000;0.6919;1.2947;
734.7000;0.6927;1.2996;
735.0000;0.6911;1.2996;
735.3000;0.6935;1.2996;
735.6000;0.6927;1.3020;
735.9000;0.6919;1.3044;
736.2000;0.6927;1.2971;
736.5000;0.6927;1.3068;
736.8000;0.6919;1.3117;
737.1000;0.6927;1.3093;
737.4000;0.6919;1.3044;
737.7000;0.6895;1.3044;
738.0000;0.6919;1.3068;
738.3000;0.6895;1.3044;
738.6000;0.6911;1.3068;
738.9000;0.6903;1.3068;
739.2000;0.6903;1.3093;
739.5000;0.6919;1.3141;
739.8000;0.6911;1.3117;
740.1000;0.6895;1.3068;
740.4000;0.6895;1.3141;
740.7000;0.6895;1.3117;
741.0000;0.6903;1.3093;
741.3000;0.6878;1.3093;
741.6000;0.6886;1.3044;
741.9000;0.6886;1.3068;
742.2000;0.6886;1.3093;
742.5000;0.6878;1.3020;
742.8000;0.6903;1.3020;
743.1000;0.6878;1.2899;
743.4000;0.6870;1.2923;
743.7000;0.6886;1.2923;
744.0000;0.6870;1.2850;
744.3000;0.6886;1.2899;
744.6000;0.6903;1.2971;
744.9000;0.6886;1.3020;
745.2000;0.6903;1.3093;
745.5000;0.6878;1.2996;
745.8000;0.6886;1.2923;
746.1000;0.6878;1.2874;
746.4000;0.6862;1.2923;
746.7000;0.6862;1.2899;
747.0000;0.6870;1.2971;
747.3000;0.6870;1.3020;
747.6000;0.6878;1.3068;
747.9000;0.6870;1.2971;
748.2000;0.6878;1.2923;
748.5000;0.6927;1.3068;
748.8000;0.6862;1.2947;
749.1000;0.6878;1.2971;
749.4000;0.6886;1.2947;
749.7000;0.6862;1.2947;
750.0000;0.6870;1.2947;
750.3000;0.6862;1.2971;
750.6000;0.6854;1.2996;
750.9000;0.6862;1.2971;
751.2000;0.6829;1.2923;
751.5000;0.6829;1.2996;
751.8000;0.6878;1.3165;
752.1000;0.6797;1.2923;
752.4000;0.6838;1.2996;
752.7000;0.6829;1.2971;
753.0000;0.6838;1.2874;
753.3000;0.6846;1.2826;
753.6000;0.6862;1.2850;
753.9000;0.6854;1.2874;
754.2000;0.6854;1.2850;
754.5000;0.6821;1.2899;
754.8000;0.6854;1.2947;
755.1000;0.6846;1.2971;
755.4000;0.6846;1.2996;
755.7000;0.6838;1.2971;
756.0000;0.6838;1.3020;
756.3000;0.6829;1.3044;
756.6000;0.6821;1.3044;
756.9000;0.6838;1.3020;
757.2000;0.6821;1.2947;
757.5000;0.6821;1.2971;
757.8000;0.6821;1.3020;
758.1000;0.6846;1.3117;
758.4000;0.6838;1.3044;
758.7000;0.6854;1.3068;
759.0000;0.6813;1.2923;
759.3000;0.6821;1.2899;
759.6000;0.6813;1.2923;
759.9000;0.6805;1.2923;
760.2000;0.6821;1.2923;
760.5000;0.6829;1.2971;
760.8000;0.6821;1.3020;
761.1000;0.6821;1.3020;
761.4000;0.6829;1.3093;
761.7000;0.6813;1.3068;
762.0000;0.6805;1.3117;
762.3000;0.6805;1.3141;
762.6000;0.6805;1.3117;
762.9000;0.6764;1.2947;
763.2000;0.6797;1.3044;
763.5000;0.6797;1.3117;
763.8000;0.6821;1.3044;
764.1000;0.6789;1.3020;
764.4000;0.6805;1.2947;
764.7000;0.6797;1.2899;
765.0000;0.6805;1.2947;
765.3000;0.6821;1.3020;
765.6000;0.6781;1.2899;
765.9000;0.6797;1.2899;
766.2000;0.6732;1.2705;
766.5000;0.6789;1.2850;
766.8000;0.6772;1.2826;
767.1000;0.6805;1.2850;
767.4000;0.6740;1.2680;
767.7000;0.6797;1.2826;
768.0000;0.6797;1.2826;
768.3000;0.6789;1.2802;
768.6000;0.6789;1.2850;
768.9000;0.6813;1.2923;
769.2000;0.6732;1.2777;
769.5000;0.6789;1.2971;
769.8000;0.6789;1.2996;
770.1000;0.6789;1.2947;
770.4000;0.6805;1.3044;
770.7000;0.6781;1.3020;
771.0000;0.6772;1.2996;
771.3000;0.6724;1.2802;
771.6000;0.6781;1.2874;
771.9000;0.6756;1.2753;
772.2000;0.6764;1.2826;
772.5000;0.6781;1.2802;
772.8000;0.6781;1.2850;
773.1000;0.6781;1.2826;
773.4000;0.6772;1.2850;
773.7000;0.6772;1.2874;
774.0000;0.6781;1.2899;
774.3000;0.6764;1.2923;
774.6000;0.6756;1.2996;
774.9000;0.6764;1.2971;
775.2000;0.6772;1.2996;
775.5000;0.6764;1.2947;
775.8000;0.6764;1.2971;
776.1000;0.6789;1.3020;
776.4000;0.6772;1.2923;
776.7000;0.6772;1.2947;
777.0000;0.6756;1.2971;
777.3000;0.6772;1.2996;
777.6000;0.6764;1.3068;
777.9000;0.6781;1.3117;
778.2000;0.6748;1.3068;
778.5000;0.6764;1.3141;
778.8000;0.6764;1.3165;
779.1000;0.6764;1.3141;
779.4000;0.6764;1.3020;
779.7000;0.6756;1.2947;
780.0000;0.6740;1.2947;
780.3000;0.6764;1.3068;
780.6000;0.6756;1.3068;
780.9000;0.6732;1.3020;
781.2000;0.6764;1.3165;
781.5000;0.6764;1.3044;
781.8000;0.6740;1.2996;
782.1000;0.6732;1.3020;
782.4000;0.6732;1.2996;
782.7000;0.6748;1.2996;
783.0000;0.6740;1.2899;
783.3000;0.6781;1.3020;
783.6000;0.6740;1.3020;
783.9000;0.6748;1.3068;
784.2000;0.6764;1.2996;
784.5000;0.6756;1.3020;
784.8000;0.6781;1.3190;
785.1000;0.6732;1.3068;
785.4000;0.6748;1.3068;
785.7000;0.6740;1.2996;
786.0000;0.6740;1.3044;
786.3000;0.6724;1.2971;
786.6000;0.6748;1.2996;
786.9000;0.6724;1.2899;
787.2000;0.6732;1.2996;
787.5000;0.6724;1.3020;
787.8000;0.6732;1.3068;
788.1000;0.6740;1.3044;
788.4000;0.6724;1.2947;
788.7000;0.6716;1.2874;
789.0000;0.6732;1.2996;
789.3000;0.6691;1.2899;
789.6000;0.6724;1.2947;
789.9000;0.6724;1.2996;
790.2000;0.6740;1.3141;
790.5000;0.6724;1.3141;
790.8000;0.6724;1.3165;
791.1000;0.6724;1.3190;
791.4000;0.6724;1.3165;
791.7000;0.6732;1.3093;
792.0000;0.6716;1.3093;
792.3000;0.6707;1.2947;
792.6000;0.6716;1.2947;
792.9000;0.6716;1.2899;
793.2000;0.6691;1.2874;
793.5000;0.6707;1.2923;
793.8000;0.6716;1.2947;
794.1000;0.6724;1.2971;
794.4000;0.6740;1.2996;
794.7000;0.6724;1.2947;
795.0000;0.6716;1.2971;
795.3000;0.6699;1.2996;
795.6000;0.6716;1.2996;
795.9000;0.6716;1.2996;
796.2000;0.6732;1.3044;
796.5000;0.6716;1.3020;
796.8000;0.6716;1.2996;
797.1000;0.6707;1.2850;
797.4000;0.6699;1.2923;
797.7000;0.6716;1.2947;
798.0000;0.6699;1.2923;
798.3000;0.6716;1.2996;
798.6000;0.6707;1.3020;
798.9000;0.6699;1.3020;
799.2000;0.6716;1.3093;
799.5000;0.6707;1.3068;
799.8000;0.6707;1.2996;
800.1000;0.6707;1.2996;
800.4000;0.6691;1.2996;
800.7000;0.6707;1.2996;
801.0000;0.6691;1.2923;
801.3000;0.6683;1.2971;
801.6000;0.6699;1.3068;
801.9000;0.6691;1.3020;
802.2000;0.6683;1.3068;
802.5000;0.6707;1.3141;
802.8000;0.6683;1.3117;
803.1000;0.6675;1.3068;
803.4000;0.6667;1.3068;
803.7000;0.6683;1.3093;
804.0000;0.6675;1.3044;
804.3000;0.6707;1.3141;
804.6000;0.6764;1.3238;
804.9000;0.6683;1.2996;
805.2000;0.6675;1.2923;
805.5000;0.6675;1.2874;
805.8000;0.6691;1.2947;
806.1000;0.6699;1.2874;
806.4000;0.6642;1.2680;
806.7000;0.6667;1.2753;
807.0000;0.6691;1.2826;
807.3000;0.6699;1.2874;
807.6000;0.6683;1.2802;
807.9000;0.6740;1.2996;
808.2000;0.6691;1.2826;
808.5000;0.6699;1.2947;
808.8000;0.6675;1.2850;
809.1000;0.6691;1.2850;
809.4000;0.6667;1.2729;
809.7000;0.6683;1.2777;
810.0000;0.6707;1.2874;
810.3000;0.6683;1.2729;
810.6000;0.6675;1.2729;
810.9000;0.6675;1.2753;
811.2000;0.6650;1.2777;
811.5000;0.6659;1.2802;
811.8000;0.6675;1.2802;
812.1000;0.6675;1.2850;
812.4000;0.6659;1.2850;
812.7000;0.6659;1.2874;
813.0000;0.6675;1.2899;
813.3000;0.6675;1.2826;
813.6000;0.6659;1.2826;
813.9000;0.6675;1.2850;
814.2000;0.6618;1.2705;
814.5000;0.6659;1.2777;
814.8000;0.6675;1.2826;
815.1000;0.6667;1.2826;
815.4000;0.6667;1.2802;
815.7000;0.6659;1.2826;
816.0000;0.6667;1.2923;
816.3000;0.6675;1.2874;
816.6000;0.6659;1.2802;
816.9000;0.6650;1.2753;
817.2000;0.6683;1.2826;
817.5000;0.6650;1.2874;
817.8000;0.6667;1.2947;
818.1000;0.6642;1.2874;
818.4000;0.6650;1.2899;
818.7000;0.6650;1.2923;
819.0000;0.6667;1.3020;
819.3000;0.6650;1.3093;
819.6000;0.6659;1.3141;
819.9000;0.6667;1.3117;
820.2000;0.6659;1.3165;
820.5000;0.6650;1.3141;
820.8000;0.6659;1.3117;
821.1000;0.6642;1.3238;
821.4000;0.6667;1.3214;
821.7000;0.6650;1.3141;
822.0000;0.6659;1.3141;
822.3000;0.6650;1.3093;
822.6000;0.6659;1.3141;
822.9000;0.6626;1.3141;
823.2000;0.6634;1.3068;
823.5000;0.6642;1.3044;
823.8000;0.6699;1.3190;
824.1000;0.6618;1.3044;
824.4000;0.6642;1.3093;
824.7000;0.6642;1.3117;
825.0000;0.6650;1.3238;
825.3000;0.6707;1.3408;
825.6000;0.6659;1.3287;
825.9000;0.6634;1.3238;
826.2000;0.6650;1.3214;
826.5000;0.6618;1.3117;
826.8000;0.6618;1.3190;
827.1000;0.6634;1.3262;
827.4000;0.6650;1.3287;
827.7000;0.6650;1.3190;
828.0000;0.6716;1.3262;
828.3000;0.6634;1.2996;
828.6000;0.6626;1.2996;
828.9000;0.6642;1.2996;
829.2000;0.6626;1.2996;
829.5000;0.6610;1.3044;
829.8000;0.6618;1.3068;
830.1000;0.6642;1.3068;
830.4000;0.6650;1.3141;
830.7000;0.6618;1.3165;
831.0000;0.6634;1.3238;
831.3000;0.6626;1.3262;
831.6000;0.6626;1.3262;
831.9000;0.6618;1.3214;
832.2000;0.6626;1.3311;
832.5000;0.6626;1.3311;
832.8000;0.6618;1.3287;
833.1000;0.6553;1.3117;
833.4000;0.6642;1.3335;
833.7000;0.6650;1.3335;
834.0000;0.6626;1.3238;
834.3000;0.6642;1.3335;
834.6000;0.6610;1.3262;
834.9000;0.6634;1.3287;
835.2000;0.6610;1.3262;
835.5000;0.6610;1.3287;
835.8000;0.6626;1.3311;
836.1000;0.6610;1.3335;
836.4000;0.6593;1.3359;
836.7000;0.6602;1.3384;
837.0000;0.6610;1.3432;
837.3000;0.6610;1.3335;
837.6000;0.6618;1.3384;
837.9000;0.6618;1.3335;
838.2000;0.6618;1.3335;
838.5000;0.6602;1.3359;
838.8000;0.6618;1.3262;
839.1000;0.6626;1.3238;
839.4000;0.6626;1.3262;
839.7000;0.6610;1.3165;
840.0000;0.6610;1.3190;
840.3000;0.6618;1.3190;
840.6000;0.6593;1.3214;
840.9000;0.6610;1.3311;
841.2000;0.6602;1.3238;
841.5000;0.6610;1.3262;
841.8000;0.6626;1.3408;
842.1000;0.6642;1.3311;
842.4000;0.6577;1.3165;
842.7000;0.6610;1.3287;
843.0000;0.6626;1.3408;
843.3000;0.6699;1.3481;
843.6000;0.6602;1.3262;
843.9000;0.6610;1.3238;
844.2000;0.6634;1.3311;
844.5000;0.6634;1.3287;
844.8000;0.6602;1.3190;
845.1000;0.6602;1.3044;
845.4000;0.6675;1.3238;
845.7000;0.6610;1.3044;
846.0000;0.6602;1.3068;
846.3000;0.6593;1.3020;
846.6000;0.6610;1.3068;
846.9000;0.6602;1.3093;
847.2000;0.6593;1.3117;
847.5000;0.6602;1.3117;
847.8000;0.6642;1.3165;
848.1000;0.6626;1.3093;
848.4000;0.6585;1.3020;
848.7000;0.6593;1.3044;
849.0000;0.6593;1.3044;
849.3000;0.6618;1.3117;
849.6000;0.6593;1.3044;
849.9000;0.6593;1.3068;
850.2000;0.6593;1.3068;
850.5000;0.6593;1.3141;
850.8000;0.6593;1.3165;
851.1000;0.6593;1.3165;
851.4000;0.6602;1.3117;
851.7000;0.6593;1.3165;
852.0000;0.6626;1.3214;
852.3000;0.6593;1.3190;
852.6000;0.6634;1.3287;
852.9000;0.6602;1.3190;
853.2000;0.6593;1.3190;
853.5000;0.6602;1.3165;
853.8000;0.6593;1.3190;
854.1000;0.6593;1.3141;
854.4000;0.6593;1.3190;
854.7000;0.6585;1.3093;
855.0000;0.6577;1.3117;
855.3000;0.6577;1.3093;
855.6000;0.6577;1.3020;
855.9000;0.6618;1.3093;
856.2000;0.6585;1.3068;
856.5000;0.6585;1.3117;
856.8000;0.6585;1.3117;
857.1000;0.6593;1.3044;
857.4000;0.6585;1.2971;
857.7000;0.6585;1.3020;
858.0000;0.6602;1.3141;
858.3000;0.6602;1.3068;
858.6000;0.6553;1.2947;
858.9000;0.6593;1.3044;
859.2000;0.6577;1.3020;
859.5000;0.6585;1.3068;
859.8000;0.6577;1.3117;
860.1000;0.6553;1.3068;
860.4000;0.6553;1.3068;
860.7000;0.6561;1.3093;
861.0000;0.6528;1.2947;
861.3000;0.6634;1.3287;
861.6000;0.6569;1.3117;
861.9000;0.6577;1.3093;
862.2000;0.6585;1.3093;
862.5000;0.6577;1.3068;
862.8000;0.6577;1.3068;
863.1000;0.6577;1.3044;
863.4000;0.6585;1.2971;
863.7000;0.6585;1.2971;
864.0000;0.6553;1.2996;
864.3000;0.6577;1.3093;
864.6000;0.6569;1.3093;
864.9000;0.6577;1.3093;
865.2000;0.6553;1.3068;
865.5000;0.6561;1.3117;
865.8000;0.6569;1.3093;
866.1000;0.6577;1.3141;
866.4000;0.6577;1.3190;
866.7000;0.6569;1.3165;
867.0000;0.6569;1.3093;
867.3000;0.6569;1.3068;
867.6000;0.6561;1.3117;
867.9000;0.6545;1.3068;
868.2000;0.6585;1.3165;
868.5000;0.6569;1.3117;
868.8000;0.6593;1.3044;
869.1000;0.6569;1.2899;
869.4000;0.6520;1.2802;
869.7000;0.6577;1.2947;
870.0000;0.6585;1.3044;
870.3000;0.6553;1.3020;
870.6000;0.6561;1.2971;
870.9000;0.6561;1.3044;
871.2000;0.6561;1.2996;
871.5000;0.6553;1.2996;
871.8000;0.6545;1.2996;
872.1000;0.6553;1.3068;
872.4000;0.6569;1.3117;
872.7000;0.6569;1.3165;
873.0000;0.6553;1.3262;
873.3000;0.6553;1.3287;
873.6000;0.6569;1.3335;
873.9000;0.6561;1.3311;
874.2000;0.6545;1.3238;
874.5000;0.6553;1.3190;
874.8000;0.6545;1.3238;
875.1000;0.6561;1.3335;
875.4000;0.6545;1.3262;
875.7000;0.6553;1.3335;
876.0000;0.6561;1.3359;
876.3000;0.6561;1.3238;
876.6000;0.6569;1.3238;
876.9000;0.6577;1.3190;
877.2000;0.6569;1.3141;
877.5000;0.6577;1.3214;
877.8000;0.6545;1.3141;
878.1000;0.6561;1.3190;
878.4000;0.6569;1.3190;
878.7000;0.6569;1.3165;
879.0000;0.6626;1.3335;
879.3000;0.6536;1.3165;
879.6000;0.6512;1.3044;
879.9000;0.6553;1.3214;
880.2000;0.6553;1.3287;
880.5000;0.6536;1.3262;
880.8000;0.6545;1.3214;
881.1000;0.6528;1.3262;
881.4000;0.6553;1.3262;
881.7000;0.6545;1.3238;
882.0000;0.6634;1.3335;
882.3000;0.6569;1.3117;
882.6000;0.6569;1.3044;
882.9000;0.6545;1.2996;
883.2000;0.6536;1.3044;
883.5000;0.6545;1.3068;
883.8000;0.6561;1.3020;
884.1000;0.6602;1.3117;
884.4000;0.6553;1.2971;
884.7000;0.6553;1.3020;
885.0000;0.6577;1.3068;
885.3000;0.6561;1.3068;
885.6000;0.6553;1.3020;
885.9000;0.6536;1.3044;
886.2000;0.6569;1.3044;
886.5000;0.6545;1.2971;
886.8000;0.6545;1.2923;
887.1000;0.6536;1.2971;
887.4000;0.6553;1.3044;
887.7000;0.6561;1.3141;
888.0000;0.6569;1.3141;
888.3000;0.6512;1.3044;
888.6000;0.6520;1.3044;
888.9000;0.6569;1.3214;
889.2000;0.6585;1.3262;
889.5000;0.6528;1.3165;
889.8000;0.6528;1.3117;
890.1000;0.6545;1.3214;
890.4000;0.6520;1.3165;
890.7000;0.6545;1.3141;
891.0000;0.6536;1.3093;
891.3000;0.6528;1.3141;
891.6000;0.6545;1.3214;
891.9000;0.6528;1.3238;
892.2000;0.6528;1.3238;
892.5000;0.6536;1.3262;
892.8000;0.6536;1.3408;
893.1000;0.6553;1.3384;
893.4000;0.6528;1.3335;
893.7000;0.6528;1.3456;
894.0000;0.6528;1.3408;
894.3000;0.6545;1.3335;
894.6000;0.6528;1.3238;
894.9000;0.6553;1.3359;
895.2000;0.6536;1.3384;
895.5000;0.6553;1.3311;
895.8000;0.6536;1.3238;
896.1000;0.6528;1.3141;
896.4000;0.6528;1.3117;
896.7000;0.6536;1.3093;
897.0000;0.6553;1.3214;
897.3000;0.6528;1.3165;
897.6000;0.6520;1.3068;
897.9000;0.6536;1.3214;
898.2000;0.6536;1.3190;
898.5000;0.6512;1.3068;
898.8000;0.6545;1.3190;
899.1000;0.6536;1.3117;
899.4000;0.6528;1.3117;
899.7000;0.6512;1.3165;
900.0000;0.6528;1.3190;
900.3000;0.6545;1.3165;
900.6000;0.6536;1.3238;
900.9000;0.6520;1.3238;
901.2000;0.6528;1.3238;
901.5000;0.6528;1.3262;
901.8000;0.6553;1.3311;
902.1000;0.6520;1.3287;
902.4000;0.6545;1.3287;
902.7000;0.6536;1.3287;
903.0000;0.6545;1.3262;
903.3000;0.6528;1.3214;
903.6000;0.6545;1.3190;
903.9000;0.6528;1.3117;
904.2000;0.6504;1.3044;
904.5000;0.6528;1.3117;
904.8000;0.6545;1.3141;
905.1000;0.6528;1.3165;
905.4000;0.6528;1.3093;
905.7000;0.6536;1.3141;
906.0000;0.6488;1.3068;
906.3000;0.6504;1.3190;
906.6000;0.6528;1.3190;
906.9000;0.6520;1.3262;
907.2000;0.6463;1.3044;
907.5000;0.6512;1.3190;
907.8000;0.6520;1.3165;
908.1000;0.6520;1.3165;
908.4000;0.6528;1.3190;
908.7000;0.6545;1.3238;
909.0000;0.6528;1.3214;
909.3000;0.6536;1.3262;
909.6000;0.6504;1.3190;
909.9000;0.6520;1.3238;
910.2000;0.6528;1.3165;
910.5000;0.6536;1.3165;
910.8000;0.6512;1.3068;
911.1000;0.6512;1.2996;
911.4000;0.6512;1.2971;
911.7000;0.6520;1.3068;
912.0000;0.6528;1.3141;
912.3000;0.6553;1.3141;
912.6000;0.6512;1.3044;
912.9000;0.6520;1.3093;
913.2000;0.6536;1.3190;
913.5000;0.6512;1.3190;
913.8000;0.6545;1.3287;
914.1000;0.6528;1.3190;
914.4000;0.6504;1.3190;
914.7000;0.6520;1.3238;
915.0000;0.6520;1.3238;
915.3000;0.6496;1.3190;
915.6000;0.6512;1.3238;
915.9000;0.6504;1.3262;
916.2000;0.6504;1.3287;
916.5000;0.6496;1.3262;
916.8000;0.6520;1.3311;
917.1000;0.6512;1.3287;
917.4000;0.6504;1.3287;
917.7000;0.6504;1.3335;
918.0000;0.6512;1.3408;
918.3000;0.6520;1.3481;
918.6000;0.6520;1.3529;
918.9000;0.6512;1.3456;
919.2000;0.6512;1.3432;
919.5000;0.6536;1.3456;
919.8000;0.6520;1.3359;
920.1000;0.6512;1.3287;
920.4000;0.6512;1.3287;
920.7000;0.6520;1.3335;
921.0000;0.6504;1.3335;
921.3000;0.6504;1.3384;
921.6000;0.6512;1.3359;
921.9000;0.6512;1.3408;
922.2000;0.6504;1.3384;
922.5000;0.6488;1.3432;
922.8000;0.6496;1.3578;
923.1000;0.6520;1.3505;
923.4000;0.6520;1.3578;
923.7000;0.6512;1.3481;
924.0000;0.6488;1.3408;
924.3000;0.6504;1.3456;
924.6000;0.6512;1.3408;
924.9000;0.6512;1.3287;
925.2000;0.6496;1.3262;
925.5000;0.6504;1.3238;
925.8000;0.6488;1.3262;
926.1000;0.6496;1.3262;
926.4000;0.6512;1.3311;
926.7000;0.6488;1.3238;
927.0000;0.6496;1.3262;
927.3000;0.6496;1.3287;
927.6000;0.6496;1.3262;
927.9000;0.6439;1.3093;
928.2000;0.6471;1.3117;
928.5000;0.6512;1.3165;
928.8000;0.6496;1.3117;
929.1000;0.6496;1.3093;
929.4000;0.6496;1.3093;
929.7000;0.6520;1.3068;
930.0000;0.6520;1.3141;
930.3000;0.6536;1.3214;
930.6000;0.6488;1.3238;
930.9000;0.6504;1.3262;
931.2000;0.6504;1.3335;
931.5000;0.6512;1.3456;
931.8000;0.6488;1.3335;
932.1000;0.6496;1.3359;
932.4000;0.6479;1.3311;
932.7000;0.6504;1.3359;
933.0000;0.6504;1.3238;
933.3000;0.6504;1.3238;
933.6000;0.6496;1.3190;
933.9000;0.6504;1.3262;
934.2000;0.6504;1.3238;
934.5000;0.6520;1.3214;
934.8000;0.6504;1.3190;
935.1000;0.6504;1.3093;
935.4000;0.6520;1.3068;
935.7000;0.6488;1.3020;
936.0000;0.6496;1.3044;
936.3000;0.6512;1.3068;
936.6000;0.6479;1.2947;
936.9000;0.6479;1.3068;
937.2000;0.6479;1.3044;
937.5000;0.6496;1.3117;
937.8000;0.6479;1.3190;
938.1000;0.6488;1.3141;
938.4000;0.6447;1.3044;
938.7000;0.6496;1.3214;
939.0000;0.6520;1.3335;
939.3000;0.6496;1.3238;
939.6000;0.6479;1.3165;
939.9000;0.6496;1.3214;
940.2000;0.6488;1.3044;
940.5000;0.6479;1.3044;
940.8000;0.6471;1.3068;
941.1000;0.6479;1.3020;
941.4000;0.6488;1.2996;
941.7000;0.6488;1.2996;
942.0000;0.6488;1.3020;
942.3000;0.6488;1.2947;
942.6000;0.6471;1.3020;
942.9000;0.6479;1.3020;
943.2000;0.6479;1.3093;
943.5000;0.6512;1.3165;
943.8000;0.6488;1.3117;
944.1000;0.6496;1.3190;
944.4000;0.6479;1.3141;
944.7000;0.6479;1.3068;
945.0000;0.6496;1.3093;
945.3000;0.6479;1.3020;
945.6000;0.6479;1.3093;
945.9000;0.6504;1.3165;
946.2000;0.6496;1.3141;
946.5000;0.6479;1.3141;
946.8000;0.6471;1.3214;
947.1000;0.6471;1.3190;
947.4000;0.6488;1.3287;
947.7000;0.6479;1.3214;
948.0000;0.6520;1.3238;
948.3000;0.6471;1.3093;
948.6000;0.6471;1.3020;
948.9000;0.6463;1.3020;
949.2000;0.6561;1.3238;
949.5000;0.6496;1.3044;
949.8000;0.6504;1.3190;
950.1000;0.6479;1.3165;
950.4000;0.6463;1.3068;
950.7000;0.6479;1.3141;
951.0000;0.6488;1.3238;
951.3000;0.6479;1.3214;
951.6000;0.6496;1.3287;
951.9000;0.6536;1.3408;
952.2000;0.6471;1.3311;
952.5000;0.6463;1.3262;
952.8000;0.6471;1.3141;
953.1000;0.6488;1.3238;
953.4000;0.6479;1.3238;
953.7000;0.6488;1.3190;
954.0000;0.6496;1.3165;
954.3000;0.6488;1.3262;
954.6000;0.6471;1.3238;
954.9000;0.6479;1.3311;
955.2000;0.6479;1.3335;
955.5000;0.6471;1.3335;
955.8000;0.6471;1.3456;
956.1000;0.6471;1.3432;
956.4000;0.6471;1.3335;
956.7000;0.6471;1.3408;
957.0000;0.6414;1.3262;
957.3000;0.6406;1.3190;
957.6000;0.6471;1.3311;
957.9000;0.6504;1.3335;
958.2000;0.6488;1.3262;
958.5000;0.6504;1.3311;
958.8000;0.6471;1.3238;
959.1000;0.6479;1.3335;
959.4000;0.6471;1.3190;
959.7000;0.6471;1.3141;
960.0000;0.6479;1.3165;
960.3000;0.6479;1.3141;
960.6000;0.6463;1.3117;
960.9000;0.6463;1.3117;
961.2000;0.6455;1.3093;
961.5000;0.6479;1.3117;
961.8000;0.6488;1.3165;
962.1000;0.6471;1.3190;
962.4000;0.6471;1.3093;
962.7000;0.6479;1.3141;
963.0000;0.6471;1.3117;
963.3000;0.6471;1.3117;
963.6000;0.6471;1.3020;
963.9000;0.6455;1.2971;
964.2000;0.6479;1.3068;
964.5000;0.6463;1.3093;
964.8000;0.6439;1.3044;
965.1000;0.6455;1.2996;
965.4000;0.6479;1.2947;
965.7000;0.6471;1.2971;
966.0000;0.6488;1.3020;
966.3000;0.6471;1.3093;
966.6000;0.6439;1.3068;
966.9000;0.6479;1.3238;
967.2000;0.6471;1.3214;
967.5000;0.6447;1.3238;
967.8000;0.6496;1.3335;
968.1000;0.6520;1.3384;
968.4000;0.6479;1.3311;
968.7000;0.6471;1.3359;
969.0000;0.6463;1.3311;
969.3000;0.6471;1.3359;
969.6000;0.6471;1.3359;
969.9000;0.6471;1.3335;
970.2000;0.6479;1.3408;
970.5000;0.6488;1.3432;
970.8000;0.6479;1.3432;
971.1000;0.6471;1.3287;
971.4000;0.6471;1.3214;
971.7000;0.6439;1.3190;
972.0000;0.6512;1.3384;
972.3000;0.6471;1.3117;
972.6000;0.6455;1.3020;
972.9000;0.6520;1.3238;
973.2000;0.6496;1.3335;
973.5000;0.6463;1.3335;
973.8000;0.6447;1.3335;
974.1000;0.6455;1.3311;
974.4000;0.6455;1.3262;
974.7000;0.6463;1.3262;
975.0000;0.6455;1.3262;
975.3000;0.6414;1.3117;
975.6000;0.6463;1.3262;
975.9000;0.6471;1.3190;
976.2000;0.6463;1.3117;
976.5000;0.6471;1.3238;
976.8000;0.6455;1.3262;
977.1000;0.6496;1.3190;
977.4000;0.6504;1.3117;
977.7000;0.6447;1.2996;
978.0000;0.6455;1.2996;
978.3000;0.6496;1.2996;
978.6000;0.6479;1.2971;
978.9000;0.6471;1.3044;
979.2000;0.6479;1.3068;
979.5000;0.6479;1.3044;
979.8000;0.6471;1.3020;
980.1000;0.6463;1.2996;
980.4000;0.6471;1.3093;
980.7000;0.6471;1.3117;
981.0000;0.6463;1.3141;
981.3000;0.6455;1.3093;
981.6000;0.6447;1.3044;
981.9000;0.6455;1.3020;
982.2000;0.6471;1.3044;
982.5000;0.6455;1.3068;
982.8000;0.6431;1.3020;
983.1000;0.6439;1.3093;
983.4000;0.6414;1.2996;
983.7000;0.6447;1.3141;
984.0000;0.6455;1.3214;
984.3000;0.6439;1.3190;
984.6000;0.6463;1.3287;
984.9000;0.6471;1.3262;
985.2000;0.6463;1.3359;
985.5000;0.6439;1.3262;
985.8000;0.6447;1.3311;
986.1000;0.6471;1.3408;
986.4000;0.6504;1.3553;
986.7000;0.6455;1.3408;
987.0000;0.6471;1.3505;
987.3000;0.6447;1.3456;
987.6000;0.6471;1.3505;
987.9000;0.6455;1.3529;
988.2000;0.6479;1.3481;
988.5000;0.6447;1.3384;
988.8000;0.6455;1.3335;
989.1000;0.6463;1.3335;
989.4000;0.6439;1.3287;
989.7000;0.6447;1.3359;
990.0000;0.6455;1.3359;
990.3000;0.6431;1.3384;
990.6000;0.6439;1.3408;
990.9000;0.6463;1.3359;
991.2000;0.6431;1.3311;
991.5000;0.6447;1.3335;
991.8000;0.6406;1.3141;
992.1000;0.6463;1.3262;
992.4000;0.6455;1.3238;
992.7000;0.6455;1.3335;
993.0000;0.6431;1.3238;
993.3000;0.6471;1.3311;
993.6000;0.6455;1.3262;
993.9000;0.6439;1.3165;
994.2000;0.6447;1.3141;
994.5000;0.6455;1.3238;
994.8000;0.6447;1.3238;
995.1000;0.6447;1.3214;
995.4000;0.6431;1.3214;
995.7000;0.6447;1.3214;
996.0000;0.6455;1.3214;
996.3000;0.6447;1.3165;
996.6000;0.6447;1.3214;
996.9000;0.6447;1.3335;
997.2000;0.6479;1.3408;
997.5000;0.6471;1.3359;
997.8000;0.6455;1.3238;
998.1000;0.6439;1.3190;
998.4000;0.6447;1.3262;
998.7000;0.6439;1.3287;
999.0000;0.6447;1.3287;
999.3000;0.6447;1.3287;
999.6000;0.6422;1.3190;
999.9000;0.6455;1.3238;
1000.2000;0.6471;1.3262;
1000.5000;0.6455;1.3165;
1000.8000;0.6374;1.2971;
1001.1000;0.6471;1.3190;
1001.4000;0.6447;1.3165;
1001.7000;0.6463;1.3190;
1002.0000;0.6455;1.3141;
1002.3000;0.6471;1.3214;
1002.6000;0.6455;1.3238;
1002.9000;0.6455;1.3262;
1003.2000;0.6439;1.3262;
1003.5000;0.6455;1.3359;
1003.8000;0.6447;1.3408;
1004.1000;0.6447;1.3335;
1004.4000;0.6431;1.3287;
1004.7000;0.6439;1.3311;
1005.0000;0.6463;1.3359;
1005.3000;0.6455;1.3287;
1005.6000;0.6463;1.3287;
1005.9000;0.6422;1.3214;
1006.2000;0.6431;1.3238;
1006.5000;0.6439;1.3262;
1006.8000;0.6447;1.3311;
1007.1000;0.6439;1.3359;
1007.4000;0.6512;1.3578;
1007.7000;0.6455;1.3384;
1008.0000;0.6447;1.3287;
1008.3000;0.6414;1.3190;
1008.6000;0.6447;1.3262;
1008.9000;0.6431;1.3214;
1009.2000;0.6447;1.3214;
1009.5000;0.6422;1.3214;
1009.8000;0.6422;1.3214;
1010.1000;0.6439;1.3262;
1010.4000;0.6455;1.3335;
1010.7000;0.6439;1.3335;
1011.0000;0.6431;1.3432;
1011.3000;0.6422;1.3335;
1011.6000;0.6422;1.3287;
1011.9000;0.6447;1.3262;
1012.2000;0.6439;1.3238;
1012.5000;0.6455;1.3238;
1012.8000;0.6439;1.3165;
1013.1000;0.6463;1.3214;
1013.4000;0.6439;1.3117;
1013.7000;0.6488;1.3262;
1014.0000;0.6447;1.3238;
1014.3000;0.6414;1.3190;
1014.6000;0.6406;1.3311;
1014.9000;0.6431;1.3384;
1015.2000;0.6439;1.3408;
1015.5000;0.6447;1.3456;
1015.8000;0.6431;1.3408;
1016.1000;0.6439;1.3456;
1016.4000;0.6431;1.3359;
1016.7000;0.6422;1.3384;
1017.0000;0.6431;1.3359;
1017.3000;0.6431;1.3311;
1017.6000;0.6406;1.3311;
1017.9000;0.6406;1.3311;
1018.2000;0.6439;1.3359;
1018.5000;0.6431;1.3335;
1018.8000;0.6431;1.3262;
1019.1000;0.6390;1.3141;
1019.4000;0.6431;1.3238;
1019.7000;0.6431;1.3238;
1020.0000;0.6414;1.3238;
1020.3000;0.6414;1.3287;
1020.6000;0.6431;1.3359;
1020.9000;0.6422;1.3384;
1021.2000;0.6422;1.3311;
1021.5000;0.6471;1.3432;
1021.8000;0.6439;1.3311;
1022.1000;0.6414;1.3311;
1022.4000;0.6455;1.3481;
1022.7000;0.6471;1.3602;
1023.0000;0.6374;1.3408;
1023.3000;0.6455;1.3529;
1023.6000;0.6431;1.3456;
1023.9000;0.6414;1.3384;
1024.2000;0.6357;1.3238;
1024.5000;0.6439;1.3456;
1024.8000;0.6406;1.3481;
1025.1000;0.6414;1.3578;
1025.4000;0.6422;1.3602;
1025.7000;0.6439;1.3602;
1026.0000;0.6422;1.3529;
1026.3000;0.6422;1.3602;
1026.6000;0.6422;1.3529;
1026.9000;0.6447;1.3602;
1027.2000;0.6439;1.3674;
1027.5000;0.6439;1.3626;
1027.8000;0.6431;1.3602;
1028.1000;0.6439;1.3747;
1028.4000;0.6439;1.3674;
1028.7000;0.6431;1.3578;
1029.0000;0.6422;1.3578;
1029.3000;0.6431;1.3529;
1029.6000;0.6455;1.3626;
1029.9000;0.6431;1.3578;
1030.2000;0.6422;1.3529;
1030.5000;0.6422;1.3553;
1030.8000;0.6463;1.3602;
1031.1000;0.6439;1.3456;
1031.4000;0.6447;1.3456;
1031.7000;0.6439;1.3456;
1032.0000;0.6374;1.3311;
1032.3000;0.6422;1.3505;
1032.6000;0.6422;1.3481;
1032.9000;0.6447;1.3432;
1033.2000;0.6431;1.3432;
1033.5000;0.6431;1.3432;
1033.8000;0.6398;1.3335;
1034.1000;0.6406;1.3335;
1034.4000;0.6431;1.3359;
1034.7000;0.6431;1.3287;
1035.0000;0.6414;1.3262;
1035.3000;0.6414;1.3335;
1035.6000;0.6406;1.3384;
1035.9000;0.6471;1.3553;
1036.2000;0.6447;1.3505;
1036.5000;0.6414;1.3456;
1036.8000;0.6431;1.3456;
1037.1000;0.6431;1.3505;
1037.4000;0.6431;1.3456;
1037.7000;0.6431;1.3553;
1038.0000;0.6406;1.3553;
1038.3000;0.6455;1.3650;
1038.6000;0.6528;1.3796;
1038.9000;0.6431;1.3578;
1039.2000;0.6488;1.3771;
1039.5000;0.6447;1.3723;
1039.8000;0.6414;1.3650;
1040.1000;0.6431;1.3578;
1040.4000;0.6422;1.3602;
1040.7000;0.6422;1.3626;
1041.0000;0.6431;1.3674;
1041.3000;0.6496;1.3844;
1041.6000;0.6422;1.3650;
1041.9000;0.6431;1.3650;
1042.2000;0.6455;1.3602;
1042.5000;0.6414;1.3456;
1042.8000;0.6422;1.3456;
1043.1000;0.6431;1.3456;
1043.4000;0.6463;1.3553;
1043.7000;0.6422;1.3408;
1044.0000;0.6414;1.3262;
1044.3000;0.6431;1.3262;
1044.6000;0.6447;1.3359;
1044.9000;0.6431;1.3408;
1045.2000;0.6422;1.3359;
1045.5000;0.6406;1.3287;
1045.8000;0.6422;1.3311;
1046.1000;0.6504;1.3505;
1046.4000;0.6431;1.3359;
1046.7000;0.6414;1.3238;
1047.0000;0.6431;1.3287;
1047.3000;0.6414;1.3359;
1047.6000;0.6414;1.3335;
1047.9000;0.6406;1.3335;
1048.2000;0.6406;1.3384;
1048.5000;0.6414;1.3384;
1048.8000;0.6406;1.3408;
1049.1000;0.6406;1.3359;
1049.4000;0.6398;1.3335;
1049.7000;0.6422;1.3311;
1050.0000;0.6414;1.3335;
1050.3000;0.6422;1.3408;
1050.6000;0.6406;1.3359;
1050.9000;0.6422;1.3311;
1051.2000;0.6431;1.3359;
1051.5000;0.6455;1.3481;
1051.8000;0.6414;1.3359;
1052.1000;0.6431;1.3481;
1052.4000;0.6406;1.3456;
1052.7000;0.6414;1.3505;
1053.0000;0.6406;1.3456;
1053.3000;0.6414;1.3578;
1053.6000;0.6406;1.3602;
1053.9000;0.6406;1.3553;
1054.2000;0.6414;1.3650;
1054.5000;0.6422;1.3723;
1054.8000;0.6422;1.3771;
1055.1000;0.6414;1.3844;
1055.4000;0.6406;1.3796;
1055.7000;0.6390;1.3868;
1056.0000;0.6406;1.3796;
1056.3000;0.6439;1.3844;
1056.6000;0.6414;1.3699;
1056.9000;0.6406;1.3650;
1057.2000;0.6422;1.3650;
1057.5000;0.6422;1.3674;
1057.8000;0.6374;1.3578;
1058.1000;0.6414;1.3723;
1058.4000;0.6398;1.3602;
1058.7000;0.6414;1.3626;
1059.0000;0.6431;1.3674;
1059.3000;0.6390;1.3553;
1059.6000;0.6365;1.3481;
1059.9000;0.6414;1.3626;
1060.2000;0.6406;1.3578;
1060.5000;0.6365;1.3481;
1060.8000;0.6414;1.3505;
1061.1000;0.6406;1.3456;
1061.4000;0.6357;1.3287;
1061.7000;0.6431;1.3408;
1062.0000;0.6422;1.3384;
1062.3000;0.6406;1.3238;
1062.6000;0.6414;1.3238;
1062.9000;0.6422;1.3359;
1063.2000;0.6422;1.3384;
1063.5000;0.6406;1.3408;
1063.8000;0.6414;1.3456;
1064.1000;0.6431;1.3432;
1064.4000;0.6406;1.3481;
1064.7000;0.6406;1.3481;
1065.0000;0.6422;1.3505;
1065.3000;0.6390;1.3456;
1065.6000;0.6414;1.3505;
1065.9000;0.6406;1.3505;
1066.2000;0.6406;1.3481;
1066.5000;0.6398;1.3456;
1066.8000;0.6406;1.3456;
1067.1000;0.6398;1.3505;
1067.4000;0.6382;1.3432;
1067.7000;0.6414;1.3505;
1068.0000;0.6414;1.3456;
1068.3000;0.6398;1.3456;
1068.6000;0.6406;1.3529;
1068.9000;0.6414;1.3553;
1069.2000;0.6422;1.3602;
1069.5000;0.6414;1.3456;
1069.8000;0.6406;1.3505;
1070.1000;0.6414;1.3481;
1070.4000;0.6414;1.3529;
1070.7000;0.6382;1.3432;
1071.0000;0.6398;1.3529;
1071.3000;0.6406;1.3529;
1071.6000;0.6414;1.3602;
1071.9000;0.6422;1.3553;
1072.2000;0.6390;1.3481;
1072.5000;0.6390;1.3578;
1072.8000;0.6406;1.3481;
1073.1000;0.6390;1.3335;
1073.4000;0.6406;1.3335;
1073.7000;0.6414;1.3311;
1074.0000;0.6414;1.3432;
1074.3000;0.6406;1.3311;
1074.6000;0.6406;1.3311;
1074.9000;0.6414;1.3359;
1075.2000;0.6414;1.3335;
1075.5000;0.6422;1.3408;
1075.8000;0.6406;1.3359;
1076.1000;0.6406;1.3384;
1076.4000;0.6422;1.3408;
1076.7000;0.6422;1.3481;
1077.0000;0.6390;1.3481;
1077.3000;0.6390;1.3602;
1077.6000;0.6390;1.3602;
1077.9000;0.6471;1.3771;
1078.2000;0.6414;1.3626;
1078.5000;0.6414;1.3650;
1078.8000;0.6447;1.3723;
1079.1000;0.6406;1.3650;
1079.4000;0.6488;1.3796;
1079.7000;0.6398;1.3553;
1080.0000;0.6357;1.3505;
1080.3000;0.6390;1.3602;
1080.6000;0.6398;1.3650;
1080.9000;0.6471;1.3699;
1081.2000;0.6414;1.3626;
1081.5000;0.6414;1.3529;
1081.8000;0.6398;1.3578;
1082.1000;0.6390;1.3626;
1082.4000;0.6382;1.3650;
1082.7000;0.6382;1.3650;
1083.0000;0.6398;1.3650;
1083.3000;0.6431;1.3796;
1083.6000;0.6406;1.3723;
1083.9000;0.6406;1.3796;
1084.2000;0.6414;1.3796;
1084.5000;0.6398;1.3796;
1084.8000;0.6406;1.3747;
1085.1000;0.6422;1.3747;
1085.4000;0.6422;1.3747;
1085.7000;0.6414;1.3747;
1086.0000;0.6406;1.3674;
1086.3000;0.6406;1.3699;
1086.6000;0.6398;1.3674;
1086.9000;0.6431;1.3674;
1087.2000;0.6414;1.3578;
1087.5000;0.6406;1.3578;
1087.8000;0.6398;1.3529;
1088.1000;0.6439;1.3578;
1088.4000;0.6431;1.3602;
1088.7000;0.6414;1.3529;
1089.0000;0.6390;1.3602;
1089.3000;0.6398;1.3650;
1089.6000;0.6414;1.3674;
1089.9000;0.6455;1.3796;
1090.2000;0.6390;1.3650;
1090.5000;0.6406;1.3771;
1090.8000;0.6414;1.3820;
1091.1000;0.6390;1.3723;
1091.4000;0.6398;1.3626;
1091.7000;0.6406;1.3650;
1092.0000;0.6390;1.3602;
1092.3000;0.6357;1.3505;
1092.6000;0.6374;1.3553;
1092.9000;0.6398;1.3626;
1093.2000;0.6398;1.3505;
1093.5000;0.6414;1.3505;
1093.8000;0.6414;1.3481;
1094.1000;0.6422;1.3481;
1094.4000;0.6390;1.3432;
1094.7000;0.6414;1.3553;
1095.0000;0.6406;1.3505;
1095.3000;0.6398;1.3578;
1095.6000;0.6357;1.3481;
1095.9000;0.6406;1.3578;
1096.2000;0.6398;1.3505;
1096.5000;0.6382;1.3481;
1096.8000;0.6365;1.3481;
1097.1000;0.6398;1.3626;
1097.4000;0.6398;1.3699;
1097.7000;0.6382;1.3626;
1098.0000;0.6414;1.3674;
1098.3000;0.6431;1.3602;
1098.6000;0.6422;1.3553;
1098.9000;0.6398;1.3650;
1099.2000;0.6406;1.3674;
1099.5000;0.6398;1.3674;
1099.8000;0.6406;1.3674;
1100.1000;0.6390;1.3578;
1100.4000;0.6398;1.3602;
1100.7000;0.6398;1.3578;
1101.0000;0.6390;1.3529;
1101.3000;0.6398;1.3481;
1101.6000;0.6447;1.3626;
1101.9000;0.6390;1.3553;
1102.2000;0.6398;1.3553;
1102.5000;0.6374;1.3408;
1102.8000;0.6390;1.3505;
1103.1000;0.6398;1.3650;
1103.4000;0.6398;1.3699;
1103.7000;0.6390;1.3674;
1104.0000;0.6439;1.3747;
1104.3000;0.6382;1.3553;
1104.6000;0.6398;1.3602;
1104.9000;0.6390;1.3602;
1105.2000;0.6398;1.3674;
1105.5000;0.6390;1.3578;
1105.8000;0.6390;1.3602;
1106.1000;0.6398;1.3650;
1106.4000;0.6390;1.3505;
1106.7000;0.6447;1.3650;
1107.0000;0.6390;1.3602;
1107.3000;0.6390;1.3602;
1107.6000;0.6398;1.3578;
1107.9000;0.6390;1.3456;
1108.2000;0.6382;1.3432;
1108.5000;0.6374;1.3481;
1108.8000;0.6390;1.3481;
1109.1000;0.6406;1.3529;
1109.4000;0.6398;1.3553;
1109.7000;0.6422;1.3674;
1110.0000;0.6406;1.3650;
1110.3000;0.6398;1.3626;
1110.6000;0.6382;1.3529;
1110.9000;0.6398;1.3602;
1111.2000;0.6406;1.3650;
1111.5000;0.6390;1.3578;
1111.8000;0.6382;1.3578;
1112.1000;0.6422;1.3650;
1112.4000;0.6406;1.3553;
1112.7000;0.6398;1.3553;
1113.0000;0.6382;1.3481;
1113.3000;0.6406;1.3481;
1113.6000;0.6398;1.3384;
1113.9000;0.6365;1.3262;
1114.2000;0.6382;1.3384;
1114.5000;0.6406;1.3505;
1114.8000;0.6398;1.3553;
1115.1000;0.6357;1.3408;
1115.4000;0.6406;1.3481;
1115.7000;0.6390;1.3432;
1116.0000;0.6439;1.3578;
1116.3000;0.6398;1.3456;
1116.6000;0.6406;1.3529;
1116.9000;0.6398;1.3529;
1117.2000;0.6374;1.3529;
1117.5000;0.6406;1.3529;
1117.8000;0.6398;1.3505;
1118.1000;0.6398;1.3529;
1118.4000;0.6365;1.3505;
1118.7000;0.6374;1.3529;
1119.0000;0.6341;1.3384;
1119.3000;0.6382;1.3408;
1119.6000;0.6390;1.3359;
1119.9000;0.6374;1.3456;
1120.2000;0.6390;1.3505;
1120.5000;0.6406;1.3505;
1120.8000;0.6398;1.3456;
1121.1000;0.6390;1.3505;
1121.4000;0.6398;1.3626;
1121.7000;0.6365;1.3529;
1122.0000;0.6382;1.3529;
1122.3000;0.6374;1.3553;
1122.6000;0.6382;1.3674;
1122.9000;0.6382;1.3626;
1123.2000;0.6382;1.3674;
1123.5000;0.6382;1.3699;
1123.8000;0.6406;1.3723;
1124.1000;0.6398;1.3723;
1124.4000;0.6390;1.3796;
1124.7000;0.6390;1.3820;
1125.0000;0.6390;1.3796;
1125.3000;0.6398;1.3771;
1125.6000;0.6406;1.3771;
1125.9000;0.6398;1.3650;
1126.2000;0.6382;1.3650;
1126.5000;0.6398;1.3674;
1126.8000;0.6447;1.3893;
1127.1000;0.6382;1.3626;
1127.4000;0.6390;1.3650;
1127.7000;0.6390;1.3674;
1128.0000;0.6374;1.3602;
1128.3000;0.6406;1.3626;
1128.6000;0.6382;1.3602;
1128.9000;0.6382;1.3578;
1129.2000;0.6374;1.3529;
1129.5000;0.6357;1.3456;
1129.8000;0.6382;1.3529;
1130.1000;0.6390;1.3553;
1130.4000;0.6374;1.3505;
1130.7000;0.6390;1.3505;
1131.0000;0.6382;1.3505;
1131.3000;0.6374;1.3456;
1131.6000;0.6382;1.3505;
1131.9000;0.6382;1.3505;
1132.2000;0.6390;1.3481;
1132.5000;0.6365;1.3481;
1132.8000;0.6390;1.3529;
1133.1000;0.6390;1.3408;
1133.4000;0.6374;1.3408;
1133.7000;0.6390;1.3456;
1134.0000;0.6422;1.3529;
1134.3000;0.6349;1.3287;
1134.6000;0.6325;1.3214;
1134.9000;0.6382;1.3359;
1135.2000;0.6390;1.3456;
1135.5000;0.6414;1.3432;
1135.8000;0.6406;1.3456;
1136.1000;0.6390;1.3432;
1136.4000;0.6390;1.3456;
1136.7000;0.6390;1.3553;
1137.0000;0.6390;1.3602;
1137.3000;0.6365;1.3505;
1137.6000;0.6390;1.3529;
1137.9000;0.6398;1.3578;
1138.2000;0.6390;1.3602;
1138.5000;0.6374;1.3626;
1138.8000;0.6374;1.3650;
1139.1000;0.6349;1.3626;
1139.4000;0.6390;1.3578;
1139.7000;0.6382;1.3553;
1140.0000;0.6390;1.3578;
1140.3000;0.6349;1.3456;
1140.6000;0.6382;1.3408;
1140.9000;0.6390;1.3384;
1141.2000;0.6390;1.3359;
1141.5000;0.6390;1.3359;
1141.8000;0.6390;1.3359;
1142.1000;0.6390;1.3311;
1142.4000;0.6406;1.3529;
1142.7000;0.6382;1.3432;
1143.0000;0.6390;1.3529;
1143.3000;0.6390;1.3505;
1143.6000;0.6382;1.3456;
1143.9000;0.6374;1.3481;
1144.2000;0.6390;1.3602;
1144.5000;0.6398;1.3529;
1144.8000;0.6390;1.3578;
1145.1000;0.6382;1.3602;
1145.4000;0.6382;1.3626;
1145.7000;0.6390;1.3578;
1146.0000;0.6382;1.3505;
1146.3000;0.6398;1.3505;
1146.6000;0.6390;1.3529;
1146.9000;0.6398;1.3626;
1147.2000;0.6390;1.3674;
1147.5000;0.6341;1.3505;
1147.8000;0.6382;1.3553;
1148.1000;0.6398;1.3578;
1148.4000;0.6390;1.3578;
1148.7000;0.6390;1.3553;
1149.0000;0.6374;1.3456;
1149.3000;0.6398;1.3432;
1149.6000;0.6398;1.3384;
1149.9000;0.6357;1.3262;
1150.2000;0.6390;1.3359;
1150.5000;0.6398;1.3384;
1150.8000;0.6431;1.3408;
1151.1000;0.6398;1.3311;
1151.4000;0.6398;1.3287;
1151.7000;0.6390;1.3287;
1152.0000;0.6398;1.3408;
1152.3000;0.6422;1.3481;
1152.6000;0.6390;1.3505;
1152.9000;0.6365;1.3432;
1153.2000;0.6382;1.3408;
1153.5000;0.6390;1.3505;
1153.8000;0.6374;1.3481;
1154.1000;0.6382;1.3456;
1154.4000;0.6390;1.3408;
1154.7000;0.6341;1.3238;
1155.0000;0.6390;1.3456;
1155.3000;0.6382;1.3553;
1155.6000;0.6374;1.3578;
1155.9000;0.6390;1.3481;
1156.2000;0.6382;1.3384;
1156.5000;0.6390;1.3335;
1156.8000;0.6374;1.3359;
1157.1000;0.6374;1.3456;
1157.4000;0.6374;1.3408;
1157.7000;0.6349;1.3287;
1158.0000;0.6374;1.3408;
1158.3000;0.6374;1.3384;
1158.6000;0.6374;1.3311;
1158.9000;0.6374;1.3432;
1159.2000;0.6374;1.3456;
1159.5000;0.6390;1.3432;
1159.8000;0.6406;1.3359;
1160.1000;0.6390;1.3359;
1160.4000;0.6390;1.3408;
1160.7000;0.6390;1.3408;
1161.0000;0.6398;1.3481;
1161.3000;0.6382;1.3456;
1161.6000;0.6390;1.3456;
1161.9000;0.6398;1.3456;
1162.2000;0.6365;1.3335;
1162.5000;0.6390;1.3311;
1162.8000;0.6390;1.3384;
1163.1000;0.6374;1.3456;
1163.4000;0.6357;1.3384;
1163.7000;0.6341;1.3359;
1164.0000;0.6382;1.3505;
1164.3000;0.6374;1.3505;
1164.6000;0.6406;1.3602;
1164.9000;0.6390;1.3481;
1165.2000;0.6382;1.3456;
1165.5000;0.6382;1.3553;
1165.8000;0.6390;1.3529;
1166.1000;0.6390;1.3553;
1166.4000;0.6341;1.3456;
1166.7000;0.6382;1.3481;
1167.0000;0.6398;1.3529;
1167.3000;0.6382;1.3408;
1167.6000;0.6374;1.3359;
1167.9000;0.6390;1.3408;
1168.2000;0.6365;1.3432;
1168.5000;0.6374;1.3384;
1168.8000;0.6374;1.3408;
1169.1000;0.6365;1.3335;
1169.4000;0.6365;1.3311;
1169.7000;0.6382;1.3287;
1170.0000;0.6365;1.3214;
1170.3000;0.6357;1.3214;
1170.6000;0.6365;1.3262;
1170.9000;0.6374;1.3287;
1171.2000;0.6390;1.3359;
1171.5000;0.6365;1.3287;
1171.8000;0.6349;1.3238;
1172.1000;0.6365;1.3262;
1172.4000;0.6382;1.3359;
1172.7000;0.6390;1.3238;
1173.0000;0.6365;1.3165;
1173.3000;0.6374;1.3262;
1173.6000;0.6357;1.3190;
1173.9000;0.6333;1.3068;
1174.2000;0.6374;1.3190;
1174.5000;0.6398;1.3238;
1174.8000;0.6374;1.3214;
1175.1000;0.6374;1.3335;
1175.4000;0.6365;1.3287;
1175.7000;0.6374;1.3262;
1176.0000;0.6374;1.3238;
1176.3000;0.6382;1.3214;
1176.6000;0.6390;1.3311;
1176.9000;0.6390;1.3359;
1177.2000;0.6365;1.3384;
1177.5000;0.6374;1.3432;
1177.8000;0.6374;1.3408;
1178.1000;0.6406;1.3481;
1178.4000;0.6374;1.3384;
1178.7000;0.6382;1.3384;
1179.0000;0.6382;1.3384;
1179.3000;0.6365;1.3335;
1179.6000;0.6365;1.3384;
1179.9000;0.6365;1.3432;
1180.2000;0.6349;1.3359;
1180.5000;0.6365;1.3432;
1180.8000;0.6365;1.3456;
1181.1000;0.6382;1.3481;
1181.4000;0.6365;1.3456;
1181.7000;0.6349;1.3384;
1182.0000;0.6374;1.3384;
1182.3000;0.6374;1.3384;
1182.6000;0.6382;1.3432;
1182.9000;0.6382;1.3432;
1183.2000;0.6382;1.3432;
1183.5000;0.6382;1.3456;
1183.8000;0.6382;1.3384;
1184.1000;0.6390;1.3384;
1184.4000;0.6382;1.3456;
1184.7000;0.6357;1.3287;
1185.0000;0.6382;1.3384;
1185.3000;0.6365;1.3432;
1185.6000;0.6390;1.3359;
1185.9000;0.6349;1.3214;
1186.2000;0.6406;1.3408;
1186.5000;0.6414;1.3456;
1186.8000;0.6374;1.3335;
1187.1000;0.6357;1.3384;
1187.4000;0.6365;1.3432;
1187.7000;0.6382;1.3481;
1188.0000;0.6414;1.3578;
1188.3000;0.6357;1.3505;
1188.6000;0.6374;1.3384;
1188.9000;0.6365;1.3262;
1189.2000;0.6374;1.3287;
1189.5000;0.6374;1.3214;
1189.8000;0.6374;1.3165;
1190.1000;0.6374;1.3190;
1190.4000;0.6390;1.3262;
1190.7000;0.6365;1.3238;
1191.0000;0.6365;1.3190;
1191.3000;0.6374;1.3190;
1191.6000;0.6382;1.3190;
1191.9000;0.6374;1.3141;
1192.2000;0.6357;1.3093;
1192.5000;0.6357;1.3093;
1192.8000;0.6382;1.3214;
1193.1000;0.6365;1.3311;
1193.4000;0.6365;1.3287;
1193.7000;0.6374;1.3335;
1194.0000;0.6365;1.3287;
1194.3000;0.6398;1.3359;
1194.6000;0.6382;1.3359;
1194.9000;0.6357;1.3359;
1195.2000;0.6390;1.3384;
1195.5000;0.6365;1.3456;
1195.8000;0.6357;1.3529;
1196.1000;0.6374;1.3481;
1196.4000;0.6382;1.3553;
1196.7000;0.6382;1.3602;
1197.0000;0.6382;1.3553;
1197.3000;0.6374;1.3456;
1197.6000;0.6333;1.3359;
1197.9000;0.6374;1.3456;
1198.2000;0.6365;1.3432;
1198.5000;0.6374;1.3432;
1198.8000;0.6406;1.3529;
1199.1000;0.6357;1.3432;
1199.4000;0.6357;1.3384;
1199.7000;0.6390;1.3456;
1200.0000;0.6374;1.3529;
1200.3000;0.6357;1.3456;
1200.6000;0.6390;1.3553;
1200.9000;0.6390;1.3505;
1201.2000;0.6374;1.3432;
1201.5000;0.6309;1.3262;
1201.8000;0.6374;1.3456;
1202.1000;0.6374;1.3481;
1202.4000;0.6374;1.3456;
1202.7000;0.6374;1.3505;
1203.0000;0.6382;1.3602;
1203.3000;0.6333;1.3529;
1203.6000;0.6390;1.3578;
1203.9000;0.6357;1.3432;
1204.2000;0.6382;1.3384;
1204.5000;0.6390;1.3456;
1204.8000;0.6382;1.3529;
1205.1000;0.6406;1.3505;
1205.4000;0.6382;1.3456;
1205.7000;0.6357;1.3287;
1206.0000;0.6341;1.3214;
1206.3000;0.6414;1.3335;
1206.6000;0.6365;1.3190;
1206.9000;0.6357;1.3214;
1207.2000;0.6382;1.3335;
1207.5000;0.6357;1.3262;
1207.8000;0.6382;1.3311;
1208.1000;0.6414;1.3384;
1208.4000;0.6357;1.3262;
1208.7000;0.6382;1.3311;
1209.0000;0.6406;1.3335;
1209.3000;0.6365;1.3384;
1209.6000;0.6374;1.3456;
1209.9000;0.6365;1.3408;
1210.2000;0.6374;1.3553;
1210.5000;0.6349;1.3578;
1210.8000;0.6365;1.3553;
1211.1000;0.6382;1.3529;
1211.4000;0.6357;1.3553;
1211.7000;0.6365;1.3553;
1212.0000;0.6349;1.3529;
1212.3000;0.6325;1.3432;
1212.6000;0.6374;1.3432;
1212.9000;0.6374;1.3432;
1213.2000;0.6390;1.3456;
1213.5000;0.6374;1.3359;
1213.8000;0.6349;1.3384;
1214.1000;0.6365;1.3432;
1214.4000;0.6357;1.3359;
1214.7000;0.6365;1.3408;
1215.0000;0.6374;1.3432;
1215.3000;0.6357;1.3359;
1215.6000;0.6357;1.3311;
1215.9000;0.6349;1.3311;
1216.2000;0.6382;1.3432;
1216.5000;0.6365;1.3384;
1216.8000;0.6365;1.3359;
1217.1000;0.6374;1.3335;
1217.4000;0.6382;1.3384;
1217.7000;0.6365;1.3481;
1218.0000;0.6365;1.3553;
1218.3000;0.6365;1.3505;
1218.6000;0.6365;1.3529;
1218.9000;0.6357;1.3481;
1219.2000;0.6374;1.3481;
1219.5000;0.6365;1.3432;
1219.8000;0.6390;1.3578;
1220.1000;0.6357;1.3481;
1220.4000;0.6357;1.3481;
1220.7000;0.6357;1.3626;
1221.0000;0.6365;1.3650;
1221.3000;0.6357;1.3578;
1221.6000;0.6365;1.3553;
1221.9000;0.6349;1.3505;
1222.2000;0.6357;1.3456;
1222.5000;0.6374;1.3456;
1222.8000;0.6390;1.3578;
1223.1000;0.6365;1.3602;
1223.4000;0.6374;1.3602;
1223.7000;0.6365;1.3529;
1224.0000;0.6357;1.3553;
1224.3000;0.6365;1.3553;
1224.6000;0.6357;1.3505;
1224.9000;0.6365;1.3529;
1225.2000;0.6349;1.3553;
1225.5000;0.6341;1.3578;
1225.8000;0.6365;1.3650;
1226.1000;0.6365;1.3650;
1226.4000;0.6349;1.3626;
1226.7000;0.6357;1.3626;
1227.0000;0.6382;1.3529;
1227.3000;0.6349;1.3456;
1227.6000;0.6365;1.3408;
1227.9000;0.6374;1.3529;
1228.2000;0.6349;1.3481;
1228.5000;0.6374;1.3505;
1228.8000;0.6382;1.3505;
1229.1000;0.6374;1.3578;
1229.4000;0.6365;1.3602;
1229.7000;0.6365;1.3578;
1230.0000;0.6317;1.3456;
1230.3000;0.6374;1.3602;
1230.6000;0.6365;1.3626;
1230.9000;0.6382;1.3699;
1231.2000;0.6365;1.3674;
1231.5000;0.6374;1.3674;
1231.8000;0.6357;1.3674;
1232.1000;0.6309;1.3578;
1232.4000;0.6365;1.3674;
1232.7000;0.6365;1.3699;
1233.0000;0.6365;1.3699;
1233.3000;0.6357;1.3650;
1233.6000;0.6374;1.3650;
1233.9000;0.6382;1.3650;
1234.2000;0.6374;1.3626;
1234.5000;0.6365;1.3529;
1234.8000;0.6374;1.3505;
1235.1000;0.6382;1.3578;
1235.4000;0.6333;1.3456;
1235.7000;0.6374;1.3505;
1236.0000;0.6357;1.3529;
1236.3000;0.6365;1.3602;
1236.6000;0.6357;1.3529;
1236.9000;0.6357;1.3432;
1237.2000;0.6333;1.3311;
1237.5000;0.6357;1.3408;
1237.8000;0.6374;1.3456;
1238.1000;0.6382;1.3432;
1238.4000;0.6357;1.3408;
1238.7000;0.6382;1.3432;
1239.0000;0.6374;1.3481;
1239.3000;0.6357;1.3456;
1239.6000;0.6309;1.3384;
1239.9000;0.6349;1.3553;
1240.2000;0.6374;1.3650;
1240.5000;0.6390;1.3771;
1240.8000;0.6365;1.3699;
1241.1000;0.6365;1.3626;
1241.4000;0.6390;1.3723;
1241.7000;0.6374;1.3723;
1242.0000;0.6382;1.3747;
1242.3000;0.6349;1.3626;
1242.6000;0.6349;1.3578;
1242.9000;0.6357;1.3626;
1243.2000;0.6349;1.3602;
1243.5000;0.6325;1.3529;
1243.8000;0.6357;1.3699;
1244.1000;0.6382;1.3723;
1244.4000;0.6357;1.3650;
1244.7000;0.6382;1.3650;
1245.0000;0.6349;1.3505;
1245.3000;0.6357;1.3578;
1245.6000;0.6357;1.3626;
1245.9000;0.6357;1.3626;
1246.2000;0.6357;1.3578;
1246.5000;0.6325;1.3529;
1246.8000;0.6341;1.3650;
1247.1000;0.6357;1.3626;
1247.4000;0.6357;1.3602;
1247.7000;0.6349;1.3553;
1248.0000;0.6357;1.3529;
1248.3000;0.6365;1.3553;
1248.6000;0.6390;1.3578;
1248.9000;0.6365;1.3578;
1249.2000;0.6357;1.3650;
1249.5000;0.6365;1.3626;
1249.8000;0.6365;1.3602;
1250.1000;0.6357;1.3626;
1250.4000;0.6365;1.3674;
1250.7000;0.6309;1.3505;
1251.0000;0.6365;1.3578;
1251.3000;0.6333;1.3529;
1251.6000;0.6349;1.3602;
1251.9000;0.6357;1.3626;
1252.2000;0.6357;1.3578;
1252.5000;0.6349;1.3456;
1252.8000;0.6357;1.3456;
1253.1000;0.6390;1.3505;
1253.4000;0.6374;1.3481;
1253.7000;0.6349;1.3553;
1254.0000;0.6349;1.3505;
1254.3000;0.6374;1.3553;
1254.6000;0.6357;1.3602;
1254.9000;0.6357;1.3626;
1255.2000;0.6349;1.3650;
1255.5000;0.6357;1.3602;
1255.8000;0.6374;1.3578;
1256.1000;0.6349;1.3553;
1256.4000;0.6349;1.3505;
1256.7000;0.6349;1.3626;
1257.0000;0.6365;1.3723;
1257.3000;0.6365;1.3796;
1257.6000;0.6365;1.3771;
1257.9000;0.6349;1.3796;
1258.2000;0.6300;1.3578;
1258.5000;0.6333;1.3626;
1258.8000;0.6357;1.3626;
1259.1000;0.6357;1.3650;
1259.4000;0.6382;1.3796;
1259.7000;0.6357;1.3747;
1260.0000;0.6349;1.3771;
1260.3000;0.6357;1.3674;
1260.6000;0.6341;1.3602;
1260.9000;0.6365;1.3553;
1261.2000;0.6349;1.3578;
1261.5000;0.6341;1.3602;
1261.8000;0.6357;1.3602;
1262.1000;0.6374;1.3529;
1262.4000;0.6357;1.3335;
1262.7000;0.6374;1.3335;
1263.0000;0.6374;1.3335;
1263.3000;0.6398;1.3456;
1263.6000;0.6382;1.3432;
1263.9000;0.6398;1.3578;
1264.2000;0.6365;1.3529;
1264.5000;0.6422;1.3771;
1264.8000;0.6365;1.3650;
1265.1000;0.6357;1.3650;
1265.4000;0.6357;1.3674;
1265.7000;0.6398;1.3747;
1266.0000;0.6398;1.3699;
1266.3000;0.6357;1.3529;
1266.6000;0.6365;1.3578;
1266.9000;0.6341;1.3602;
1267.2000;0.6374;1.3650;
1267.5000;0.6357;1.3650;
1267.8000;0.6300;1.3481;
1268.1000;0.6341;1.3529;
1268.4000;0.6365;1.3456;
1268.7000;0.6349;1.3384;
1269.0000;0.6349;1.3262;
1269.3000;0.6349;1.3311;
1269.6000;0.6349;1.3384;
1269.9000;0.6357;1.3432;
1270.2000;0.6357;1.3529;
1270.5000;0.6357;1.3602;
1270.8000;0.6357;1.3529;
1271.1000;0.6365;1.3481;
1271.4000;0.6349;1.3578;
1271.7000;0.6349;1.3578;
1272.0000;0.6357;1.3602;
1272.3000;0.6357;1.3602;
1272.6000;0.6357;1.3578;
1272.9000;0.6341;1.3505;
1273.2000;0.6349;1.3432;
1273.5000;0.6349;1.3432;
1273.8000;0.6365;1.3481;
1274.1000;0.6406;1.3553;
1274.4000;0.6341;1.3408;
1274.7000;0.6357;1.3408;
1275.0000;0.6365;1.3384;
1275.3000;0.6365;1.3529;
1275.6000;0.6406;1.3602;
1275.9000;0.6365;1.3456;
1276.2000;0.6365;1.3481;
1276.5000;0.6341;1.3408;
1276.8000;0.6349;1.3359;
1277.1000;0.6325;1.3359;
1277.4000;0.6349;1.3408;
1277.7000;0.6341;1.3505;
1278.0000;0.6341;1.3529;
1278.3000;0.6349;1.3529;
1278.6000;0.6357;1.3553;
1278.9000;0.6365;1.3602;
1279.2000;0.6357;1.3602;
1279.5000;0.6390;1.3723;
1279.8000;0.6349;1.3626;
1280.1000;0.6349;1.3578;
1280.4000;0.6333;1.3626;
1280.7000;0.6341;1.3505;
1281.0000;0.6349;1.3456;
1281.3000;0.6349;1.3432;
1281.6000;0.6349;1.3456;
1281.9000;0.6349;1.3481;
1282.2000;0.6349;1.3578;
1282.5000;0.6357;1.3602;
1282.8000;0.6374;1.3650;
1283.1000;0.6357;1.3626;
1283.4000;0.6349;1.3650;
1283.7000;0.6357;1.3626;
1284.0000;0.6365;1.3626;
1284.3000;0.6365;1.3674;
1284.6000;0.6357;1.3674;
1284.9000;0.6357;1.3674;
1285.2000;0.6365;1.3771;
1285.5000;0.6374;1.3796;
1285.8000;0.6374;1.3820;
1286.1000;0.6357;1.3771;
1286.4000;0.6357;1.3796;
1286.7000;0.6349;1.3747;
1287.0000;0.6349;1.3771;
1287.3000;0.6365;1.3747;
1287.6000;0.6341;1.3626;
1287.9000;0.6349;1.3626;
1288.2000;0.6349;1.3626;
1288.5000;0.6357;1.3699;
1288.8000;0.6374;1.3723;
1289.1000;0.6382;1.3650;
1289.4000;0.6317;1.3529;
1289.7000;0.6325;1.3481;
1290.0000;0.6365;1.3505;
1290.3000;0.6357;1.3432;
1290.6000;0.6349;1.3408;
1290.9000;0.6333;1.3408;
1291.2000;0.6349;1.3481;
1291.5000;0.6357;1.3602;
1291.8000;0.6300;1.3529;
1292.1000;0.6341;1.3602;
1292.4000;0.6357;1.3602;
1292.7000;0.6341;1.3602;
1293.0000;0.6357;1.3602;
1293.3000;0.6349;1.3699;
1293.6000;0.6365;1.3771;
1293.9000;0.6349;1.3844;
1294.2000;0.6390;1.3893;
1294.5000;0.6325;1.3723;
1294.8000;0.6341;1.3747;
1295.1000;0.6365;1.3699;
1295.4000;0.6357;1.3747;
1295.7000;0.6357;1.3674;
1296.0000;0.6365;1.3650;
1296.3000;0.6365;1.3674;
1296.6000;0.6357;1.3626;
1296.9000;0.6349;1.3650;
1297.2000;0.6357;1.3578;
1297.5000;0.6365;1.3553;
1297.8000;0.6349;1.3481;
1298.1000;0.6341;1.3481;
1298.4000;0.6357;1.3408;
1298.7000;0.6341;1.3359;
1299.0000;0.6357;1.3456;
1299.3000;0.6349;1.3481;
1299.6000;0.6357;1.3432;
1299.9000;0.6333;1.3456;
1300.2000;0.6382;1.3553;
1300.5000;0.6357;1.3481;
1300.8000;0.6382;1.3626;
1301.1000;0.6357;1.3674;
1301.4000;0.6374;1.3674;
1301.7000;0.6365;1.3626;
1302.0000;0.6374;1.3650;
1302.3000;0.6349;1.3650;
1302.6000;0.6357;1.3699;
1302.9000;0.6382;1.3674;
1303.2000;0.6300;1.3481;
1303.5000;0.6349;1.3578;
1303.8000;0.6333;1.3578;
1304.1000;0.6341;1.3578;
1304.4000;0.6398;1.3626;
1304.7000;0.6365;1.3529;
1305.0000;0.6374;1.3650;
1305.3000;0.6349;1.3553;
1305.6000;0.6341;1.3553;
1305.9000;0.6357;1.3626;
1306.2000;0.6365;1.3602;
1306.5000;0.6357;1.3602;
1306.8000;0.6382;1.3699;
1307.1000;0.6357;1.3650;
1307.4000;0.6341;1.3529;
1307.7000;0.6341;1.3529;
1308.0000;0.6349;1.3505;
1308.3000;0.6374;1.3481;
1308.6000;0.6349;1.3432;
1308.9000;0.6349;1.3529;
1309.2000;0.6317;1.3456;
1309.5000;0.6349;1.3602;
1309.8000;0.6341;1.3529;
1310.1000;0.6333;1.3456;
1310.4000;0.6333;1.3553;
1310.7000;0.6374;1.3674;
1311.0000;0.6374;1.3699;
1311.3000;0.6341;1.3650;
1311.6000;0.6357;1.3771;
1311.9000;0.6349;1.3796;
1312.2000;0.6357;1.3820;
1312.5000;0.6341;1.3820;
1312.8000;0.6349;1.3771;
1313.1000;0.6349;1.3747;
1313.4000;0.6333;1.3723;
1313.7000;0.6349;1.3626;
1314.0000;0.6341;1.3602;
1314.3000;0.6357;1.3481;
1314.6000;0.6365;1.3602;
1314.9000;0.6357;1.3602;
1315.2000;0.6349;1.3553;
1315.5000;0.6349;1.3578;
1315.8000;0.6357;1.3602;
1316.1000;0.6325;1.3505;
1316.4000;0.6349;1.3505;
1316.7000;0.6349;1.3481;
1317.0000;0.6349;1.3553;
1317.3000;0.6357;1.3481;
1317.6000;0.6349;1.3456;
1317.9000;0.6349;1.3432;
1318.2000;0.6349;1.3481;
1318.5000;0.6341;1.3529;
1318.8000;0.6349;1.3505;
1319.1000;0.6422;1.3699;
1319.4000;0.6357;1.3553;
1319.7000;0.6349;1.3529;
1320.0000;0.6341;1.3456;
1320.3000;0.6333;1.3432;
1320.6000;0.6341;1.3408;
1320.9000;0.6357;1.3456;
1321.2000;0.6349;1.3456;
1321.5000;0.6300;1.3384;
1321.8000;0.6341;1.3456;
1322.1000;0.6349;1.3456;
1322.4000;0.6341;1.3481;
1322.7000;0.6349;1.3553;
1323.0000;0.6357;1.3578;
1323.3000;0.6333;1.3408;
1323.6000;0.6317;1.3384;
1323.9000;0.6398;1.3650;
1324.2000;0.6333;1.3529;
1324.5000;0.6357;1.3626;
1324.8000;0.6349;1.3674;
1325.1000;0.6349;1.3578;
1325.4000;0.6309;1.3529;
1325.7000;0.6341;1.3553;
1326.0000;0.6333;1.3408;
1326.3000;0.6365;1.3456;
1326.6000;0.6357;1.3456;
1326.9000;0.6333;1.3456;
1327.2000;0.6333;1.3529;
1327.5000;0.6357;1.3626;
1327.8000;0.6341;1.3505;
1328.1000;0.6357;1.3505;
1328.4000;0.6317;1.3481;
1328.7000;0.6341;1.3456;
1329.0000;0.6341;1.3456;
1329.3000;0.6349;1.3505;
1329.6000;0.6349;1.3529;
1329.9000;0.6357;1.3553;
1330.2000;0.6349;1.3553;
1330.5000;0.6349;1.3529;
1330.8000;0.6341;1.3626;
1331.1000;0.6365;1.3626;
1331.4000;0.6341;1.3505;
1331.7000;0.6349;1.3553;
1332.0000;0.6365;1.3553;
1332.3000;0.6357;1.3505;
1332.6000;0.6365;1.3505;
1332.9000;0.6357;1.3505;
1333.2000;0.6349;1.3384;
1333.5000;0.6349;1.3359;
1333.8000;0.6341;1.3384;
1334.1000;0.6341;1.3359;
1334.4000;0.6365;1.3481;
1334.7000;0.6349;1.3481;
1335.0000;0.6357;1.3456;
1335.3000;0.6341;1.3432;
1335.6000;0.6341;1.3481;
1335.9000;0.6365;1.3505;
1336.2000;0.6374;1.3456;
1336.5000;0.6357;1.3408;
1336.8000;0.6357;1.3384;
1337.1000;0.6357;1.3311;
1337.4000;0.6357;1.3311;
1337.7000;0.6365;1.3359;
1338.0000;0.6374;1.3335;
1338.3000;0.6341;1.3287;
1338.6000;0.6357;1.3262;
1338.9000;0.6398;1.3408;
1339.2000;0.6390;1.3432;
1339.5000;0.6349;1.3408;
1339.8000;0.6357;1.3481;
1340.1000;0.6309;1.3408;
1340.4000;0.6374;1.3505;
1340.7000;0.6341;1.3505;
1341.0000;0.6414;1.3723;
1341.3000;0.6382;1.3505;
1341.6000;0.6341;1.3456;
1341.9000;0.6341;1.3432;
1342.2000;0.6349;1.3529;
1342.5000;0.6349;1.3481;
1342.8000;0.6365;1.3505;
1343.1000;0.6357;1.3505;
1343.4000;0.6333;1.3432;
1343.7000;0.6309;1.3335;
1344.0000;0.6365;1.3432;
1344.3000;0.6349;1.3335;
1344.6000;0.6357;1.3287;
1344.9000;0.6357;1.3335;
1345.2000;0.6349;1.3311;
1345.5000;0.6357;1.3311;
1345.8000;0.6349;1.3311;
1346.1000;0.6357;1.3311;
1346.4000;0.6349;1.3238;
1346.7000;0.6333;1.3214;
1347.0000;0.6333;1.3262;
1347.3000;0.6357;1.3311;
1347.6000;0.6333;1.3287;
1347.9000;0.6349;1.3359;
1348.2000;0.6349;1.3311;
1348.5000;0.6365;1.3456;
1348.8000;0.6349;1.3432;
1349.1000;0.6349;1.3456;
1349.4000;0.6317;1.3384;
1349.7000;0.6333;1.3359;
1350.0000;0.6365;1.3481;
1350.3000;0.6365;1.3553;
1350.6000;0.6374;1.3626;
1350.9000;0.6341;1.3505;
1351.2000;0.6374;1.3578;
1351.5000;0.6349;1.3481;
1351.8000;0.6349;1.3529;
1352.1000;0.6333;1.3408;
1352.4000;0.6341;1.3481;
1352.7000;0.6357;1.3553;
1353.0000;0.6357;1.3626;
1353.3000;0.6333;1.3553;
1353.6000;0.6333;1.3553;
1353.9000;0.6333;1.3456;
1354.2000;0.6341;1.3408;
1354.5000;0.6325;1.3384;
1354.8000;0.6333;1.3311;
1355.1000;0.6333;1.3262;
1355.4000;0.6341;1.3311;
1355.7000;0.6341;1.3287;
1356.0000;0.6349;1.3287;
1356.3000;0.6357;1.3335;
1356.6000;0.6374;1.3384;
1356.9000;0.6349;1.3384;
1357.2000;0.6365;1.3432;
1357.5000;0.6357;1.3505;
1357.8000;0.6357;1.3578;
1358.1000;0.6349;1.3626;
1358.4000;0.6406;1.3723;
1358.7000;0.6341;1.3481;
1359.0000;0.6349;1.3456;
1359.3000;0.6349;1.3432;
1359.6000;0.6333;1.3311;
1359.9000;0.6341;1.3262;
1360.2000;0.6349;1.3287;
1360.5000;0.6365;1.3335;
1360.8000;0.6341;1.3335;
1361.1000;0.6317;1.3238;
1361.4000;0.6357;1.3359;
1361.7000;0.6357;1.3287;
1362.0000;0.6382;1.3287;
1362.3000;0.6325;1.3117;
1362.6000;0.6357;1.3262;
1362.9000;0.6341;1.3262;
1363.2000;0.6349;1.3359;
1363.5000;0.6349;1.3384;
1363.8000;0.6349;1.3432;
1364.1000;0.6341;1.3529;
1364.4000;0.6357;1.3529;
1364.7000;0.6349;1.3553;
1365.0000;0.6349;1.3481;
1365.3000;0.6357;1.3481;
1365.6000;0.6349;1.3408;
1365.9000;0.6357;1.3384;
1366.2000;0.6349;1.3311;
1366.5000;0.6349;1.3262;
1366.8000;0.6365;1.3335;
1367.1000;0.6390;1.3408;
1367.4000;0.6341;1.3238;
1367.7000;0.6374;1.3359;
1368.0000;0.6357;1.3287;
1368.3000;0.6349;1.3214;
1368.6000;0.6357;1.3190;
1368.9000;0.6365;1.3117;
1369.2000;0.6325;1.3093;
1369.5000;0.6349;1.3068;
1369.8000;0.6325;1.3044;
1370.1000;0.6341;1.3141;
1370.4000;0.6341;1.3238;
1370.7000;0.6333;1.3262;
1371.0000;0.6341;1.3238;
1371.3000;0.6341;1.3311;
1371.6000;0.6333;1.3311;
1371.9000;0.6341;1.3262;
1372.2000;0.6341;1.3262;
1372.5000;0.6333;1.3262;
1372.8000;0.6349;1.3287;
1373.1000;0.6349;1.3214;
1373.4000;0.6341;1.3190;
1373.7000;0.6341;1.3214;
1374.0000;0.6349;1.3262;
1374.3000;0.6349;1.3359;
1374.6000;0.6349;1.3359;
1374.9000;0.6341;1.3287;
1375.2000;0.6333;1.3262;
1375.5000;0.6325;1.3238;
1375.8000;0.6357;1.3287;
1376.1000;0.6341;1.3359;
1376.4000;0.6325;1.3408;
1376.7000;0.6349;1.3481;
1377.0000;0.6357;1.3529;
1377.3000;0.6349;1.3602;
1377.6000;0.6341;1.3578;
1377.9000;0.6349;1.3602;
1378.2000;0.6357;1.3602;
1378.5000;0.6349;1.3505;
1378.8000;0.6325;1.3408;
1379.1000;0.6349;1.3505;
1379.4000;0.6341;1.3481;
1379.7000;0.6357;1.3456;
1380.0000;0.6349;1.3408;
1380.3000;0.6325;1.3359;
1380.6000;0.6341;1.3408;
1380.9000;0.6357;1.3432;
1381.2000;0.6349;1.3408;
1381.5000;0.6349;1.3432;
1381.8000;0.6333;1.3578;
1382.1000;0.6357;1.3578;
1382.4000;0.6341;1.3456;
1382.7000;0.6341;1.3529;
1383.0000;0.6349;1.3553;
1383.3000;0.6341;1.3578;
1383.6000;0.6365;1.3674;
1383.9000;0.6357;1.3674;
1384.2000;0.6341;1.3602;
1384.5000;0.6341;1.3553;
1384.8000;0.6341;1.3456;
1385.1000;0.6341;1.3553;
1385.4000;0.6349;1.3626;
1385.7000;0.6325;1.3529;
1386.0000;0.6325;1.3553;
1386.3000;0.6349;1.3699;
1386.6000;0.6341;1.3674;
1386.9000;0.6341;1.3626;
1387.2000;0.6341;1.3553;
1387.5000;0.6349;1.3505;
1387.8000;0.6349;1.3456;
1388.1000;0.6357;1.3408;
1388.4000;0.6341;1.3432;
1388.7000;0.6333;1.3359;
1389.0000;0.6365;1.3432;
1389.3000;0.6325;1.3408;
1389.6000;0.6300;1.3384;
1389.9000;0.6382;1.3578;
1390.2000;0.6317;1.3529;
1390.5000;0.6333;1.3529;
1390.8000;0.6357;1.3481;
1391.1000;0.6374;1.3505;
1391.4000;0.6349;1.3432;
1391.7000;0.6349;1.3432;
1392.0000;0.6349;1.3408;
1392.3000;0.6325;1.3384;
1392.6000;0.6357;1.3456;
1392.9000;0.6325;1.3481;
1393.2000;0.6309;1.3432;
1393.5000;0.6341;1.3578;
1393.8000;0.6357;1.3602;
1394.1000;0.6341;1.3578;
1394.4000;0.6341;1.3578;
1394.7000;0.6333;1.3650;
1395.0000;0.6341;1.3578;
1395.3000;0.6357;1.3578;
1395.6000;0.6333;1.3529;
1395.9000;0.6333;1.3529;
1396.2000;0.6325;1.3432;
1396.5000;0.6341;1.3432;
1396.8000;0.6349;1.3481;
1397.1000;0.6341;1.3481;
1397.4000;0.6341;1.3553;
1397.7000;0.6349;1.3602;
1398.0000;0.6333;1.3553;
1398.3000;0.6333;1.3505;
1398.6000;0.6349;1.3456;
1398.9000;0.6349;1.3456;
1399.2000;0.6325;1.3335;
1399.5000;0.6333;1.3408;
1399.8000;0.6333;1.3432;
