time/ms;Fluo/V;P700 deltaI/I x10³;
-199.8000;0.2475;2.6532;
-199.5000;0.2483;2.6482;
-199.2000;0.2515;2.6557;
-198.9000;0.2475;2.6482;
-198.6000;0.2499;2.6632;
-198.3000;0.2507;2.6707;
-198.0000;0.2426;2.6482;
-197.7000;0.2483;2.6632;
-197.4000;0.2475;2.6582;
-197.1000;0.2507;2.6657;
-196.8000;0.2491;2.6632;
-196.5000;0.2483;2.6532;
-196.2000;0.2466;2.6607;
-195.9000;0.2523;2.6682;
-195.6000;0.2475;2.6507;
-195.3000;0.2507;2.6532;
-195.0000;0.2540;2.6507;
-194.7000;0.2499;2.6331;
-194.4000;0.2515;2.6507;
-194.1000;0.2458;2.6381;
-193.8000;0.2426;2.6256;
-193.5000;0.2523;2.6457;
-193.2000;0.2532;2.6582;
-192.9000;0.2491;2.6557;
-192.6000;0.2491;2.6532;
-192.3000;0.2475;2.6582;
-192.0000;0.2532;2.6807;
-191.7000;0.2532;2.6732;
-191.4000;0.2491;2.6557;
-191.1000;0.2475;2.6507;
-190.8000;0.2442;2.6356;
-190.5000;0.2475;2.6432;
-190.2000;0.2475;2.6482;
-189.9000;0.2450;2.6432;
-189.6000;0.2572;2.6757;
-189.3000;0.2475;2.6407;
-189.0000;0.2458;2.6331;
-188.7000;0.2499;2.6432;
-188.4000;0.2483;2.6557;
-188.1000;0.2515;2.6707;
-187.8000;0.2458;2.6507;
-187.5000;0.2499;2.6557;
-187.2000;0.2532;2.6607;
-186.9000;0.2483;2.6507;
-186.6000;0.2507;2.6557;
-186.3000;0.2499;2.6457;
-186.0000;0.2507;2.6607;
-185.7000;0.2499;2.6532;
-185.4000;0.2475;2.6407;
-185.1000;0.2475;2.6407;
-184.8000;0.2491;2.6457;
-184.5000;0.2515;2.6557;
-184.2000;0.2499;2.6632;
-183.9000;0.2523;2.6682;
-183.6000;0.2491;2.6557;
-183.3000;0.2515;2.6557;
-183.0000;0.2466;2.6482;
-182.7000;0.2491;2.6507;
-182.4000;0.2499;2.6607;
-182.1000;0.2491;2.6657;
-181.8000;0.2499;2.6682;
-181.5000;0.2418;2.6482;
-181.2000;0.2523;2.6832;
-180.9000;0.2483;2.6782;
-180.6000;0.2507;2.6732;
-180.3000;0.2499;2.6682;
-180.0000;0.2434;2.6482;
-179.7000;0.2507;2.6682;
-179.4000;0.2515;2.6582;
-179.1000;0.2450;2.6532;
-178.8000;0.2475;2.6507;
-178.5000;0.2434;2.6356;
-178.2000;0.2507;2.6607;
-177.9000;0.2483;2.6482;
-177.6000;0.2483;2.6457;
-177.3000;0.2475;2.6532;
-177.0000;0.2499;2.6557;
-176.7000;0.2426;2.6356;
-176.4000;0.2491;2.6407;
-176.1000;0.2491;2.6532;
-175.8000;0.2532;2.6682;
-175.5000;0.2466;2.6632;
-175.2000;0.2466;2.6657;
-174.9000;0.2507;2.6857;
-174.6000;0.2475;2.6757;
-174.3000;0.2515;2.6832;
-174.0000;0.2499;2.6757;
-173.7000;0.2483;2.6732;
-173.4000;0.2352;2.6331;
-173.1000;0.2499;2.6757;
-172.8000;0.2499;2.6707;
-172.5000;0.2458;2.6507;
-172.2000;0.2491;2.6582;
-171.9000;0.2507;2.6632;
-171.6000;0.2507;2.6632;
-171.3000;0.2475;2.6582;
-171.0000;0.2523;2.6757;
-170.7000;0.2499;2.6682;
-170.4000;0.2507;2.6607;
-170.1000;0.2515;2.6557;
-169.8000;0.2475;2.6457;
-169.5000;0.2499;2.6557;
-169.2000;0.2499;2.6632;
-168.9000;0.2491;2.6607;
-168.6000;0.2475;2.6657;
-168.3000;0.2491;2.6682;
-168.0000;0.2507;2.6732;
-167.7000;0.2491;2.6657;
-167.4000;0.2515;2.6732;
-167.1000;0.2458;2.6557;
-166.8000;0.2483;2.6632;
-166.5000;0.2483;2.6682;
-166.2000;0.2458;2.6632;
-165.9000;0.2515;2.6757;
-165.6000;0.2491;2.6707;
-165.3000;0.2507;2.6782;
-165.0000;0.2483;2.6707;
-164.7000;0.2491;2.6632;
-164.4000;0.2483;2.6707;
-164.1000;0.2491;2.6632;
-163.8000;0.2450;2.6507;
-163.5000;0.2475;2.6532;
-163.2000;0.2466;2.6482;
-162.9000;0.2491;2.6557;
-162.6000;0.2564;2.6782;
-162.3000;0.2548;2.6707;
-162.0000;0.2483;2.6557;
-161.7000;0.2548;2.6632;
-161.4000;0.2515;2.6632;
-161.1000;0.2466;2.6582;
-160.8000;0.2450;2.6457;
-160.5000;0.2499;2.6732;
-160.2000;0.2483;2.6682;
-159.9000;0.2515;2.6607;
-159.6000;0.2507;2.6632;
-159.3000;0.2532;2.6607;
-159.0000;0.2605;2.6807;
-158.7000;0.2466;2.6407;
-158.4000;0.2434;2.6306;
-158.1000;0.2507;2.6457;
-157.8000;0.2515;2.6532;
-157.5000;0.2507;2.6432;
-157.2000;0.2507;2.6457;
-156.9000;0.2369;2.6056;
-156.6000;0.2450;2.6231;
-156.3000;0.2475;2.6281;
-156.0000;0.2515;2.6331;
-155.7000;0.2515;2.6356;
-155.4000;0.2499;2.6356;
-155.1000;0.2532;2.6457;
-154.8000;0.2483;2.6331;
-154.5000;0.2466;2.6381;
-154.2000;0.2507;2.6557;
-153.9000;0.2507;2.6582;
-153.6000;0.2491;2.6432;
-153.3000;0.2475;2.6356;
-153.0000;0.2499;2.6482;
-152.7000;0.2499;2.6482;
-152.4000;0.2475;2.6407;
-152.1000;0.2515;2.6532;
-151.8000;0.2507;2.6507;
-151.5000;0.2507;2.6582;
-151.2000;0.2491;2.6657;
-150.9000;0.2499;2.6657;
-150.6000;0.2499;2.6582;
-150.3000;0.2483;2.6582;
-150.0000;0.2491;2.6682;
-149.7000;0.2483;2.6632;
-149.4000;0.2491;2.6607;
-149.1000;0.2491;2.6657;
-148.8000;0.2483;2.6532;
-148.5000;0.2483;2.6457;
-148.2000;0.2491;2.6507;
-147.9000;0.2499;2.6557;
-147.6000;0.2475;2.6482;
-147.3000;0.2532;2.6557;
-147.0000;0.2499;2.6582;
-146.7000;0.2483;2.6657;
-146.4000;0.2499;2.6607;
-146.1000;0.2442;2.6457;
-145.8000;0.2483;2.6507;
-145.5000;0.2483;2.6582;
-145.2000;0.2507;2.6582;
-144.9000;0.2475;2.6507;
-144.6000;0.2507;2.6582;
-144.3000;0.2483;2.6632;
-144.0000;0.2499;2.6657;
-143.7000;0.2466;2.6632;
-143.4000;0.2475;2.6557;
-143.1000;0.2491;2.6582;
-142.8000;0.2483;2.6632;
-142.5000;0.2483;2.6707;
-142.2000;0.2491;2.6682;
-141.9000;0.2475;2.6607;
-141.6000;0.2434;2.6557;
-141.3000;0.2491;2.6682;
-141.0000;0.2466;2.6632;
-140.7000;0.2418;2.6557;
-140.4000;0.2483;2.6807;
-140.1000;0.2475;2.6832;
-139.8000;0.2475;2.6732;
-139.5000;0.2499;2.6732;
-139.2000;0.2491;2.6682;
-138.9000;0.2507;2.6682;
-138.6000;0.2295;2.6181;
-138.3000;0.2491;2.6807;
-138.0000;0.2491;2.6732;
-137.7000;0.2540;2.6932;
-137.4000;0.2426;2.6532;
-137.1000;0.2491;2.6732;
-136.8000;0.2483;2.6757;
-136.5000;0.2523;2.6882;
-136.2000;0.2499;2.6807;
-135.9000;0.2483;2.6657;
-135.6000;0.2458;2.6532;
-135.3000;0.2540;2.6807;
-135.0000;0.2475;2.6582;
-134.7000;0.2491;2.6632;
-134.4000;0.2475;2.6607;
-134.1000;0.2458;2.6532;
-133.8000;0.2491;2.6632;
-133.5000;0.2507;2.6707;
-133.2000;0.2450;2.6582;
-132.9000;0.2475;2.6607;
-132.6000;0.2475;2.6582;
-132.3000;0.2564;2.6882;
-132.0000;0.2369;2.6407;
-131.7000;0.2352;2.6381;
-131.4000;0.2499;2.6857;
-131.1000;0.2507;2.6807;
-130.8000;0.2507;2.6732;
-130.5000;0.2499;2.6682;
-130.2000;0.2499;2.6607;
-129.9000;0.2499;2.6557;
-129.6000;0.2499;2.6657;
-129.3000;0.2409;2.6432;
-129.0000;0.2499;2.6632;
-128.7000;0.2507;2.6607;
-128.4000;0.2491;2.6657;
-128.1000;0.2499;2.6657;
-127.8000;0.2475;2.6482;
-127.5000;0.2499;2.6557;
-127.2000;0.2499;2.6457;
-126.9000;0.2507;2.6457;
-126.6000;0.2499;2.6532;
-126.3000;0.2483;2.6582;
-126.0000;0.2499;2.6582;
-125.7000;0.2491;2.6582;
-125.4000;0.2491;2.6582;
-125.1000;0.2507;2.6632;
-124.8000;0.2507;2.6682;
-124.5000;0.2507;2.6657;
-124.2000;0.2434;2.6507;
-123.9000;0.2499;2.6557;
-123.6000;0.2515;2.6582;
-123.3000;0.2491;2.6582;
-123.0000;0.2450;2.6482;
-122.7000;0.2499;2.6607;
-122.4000;0.2548;2.6707;
-122.1000;0.2499;2.6682;
-121.8000;0.2491;2.6732;
-121.5000;0.2515;2.6732;
-121.2000;0.2499;2.6732;
-120.9000;0.2475;2.6607;
-120.6000;0.2523;2.6732;
-120.3000;0.2466;2.6682;
-120.0000;0.2499;2.6782;
-119.7000;0.2491;2.6732;
-119.4000;0.2499;2.6732;
-119.1000;0.2475;2.6657;
-118.8000;0.2507;2.6732;
-118.5000;0.2499;2.6782;
-118.2000;0.2483;2.6857;
-117.9000;0.2499;2.6807;
-117.6000;0.2507;2.6882;
-117.3000;0.2483;2.6757;
-117.0000;0.2499;2.6757;
-116.7000;0.2491;2.6757;
-116.4000;0.2499;2.6732;
-116.1000;0.2491;2.6582;
-115.8000;0.2442;2.6457;
-115.5000;0.2450;2.6507;
-115.2000;0.2483;2.6657;
-114.9000;0.2507;2.6757;
-114.6000;0.2515;2.6807;
-114.3000;0.2458;2.6632;
-114.0000;0.2483;2.6807;
-113.7000;0.2532;2.7007;
-113.4000;0.2564;2.7032;
-113.1000;0.2491;2.6807;
-112.8000;0.2491;2.6832;
-112.5000;0.2499;2.6757;
-112.2000;0.2491;2.6732;
-111.9000;0.2409;2.6557;
-111.6000;0.2515;2.6757;
-111.3000;0.2540;2.6857;
-111.0000;0.2499;2.6682;
-110.7000;0.2507;2.6632;
-110.4000;0.2483;2.6607;
-110.1000;0.2499;2.6732;
-109.8000;0.2475;2.6707;
-109.5000;0.2499;2.6857;
-109.2000;0.2458;2.6807;
-108.9000;0.2499;2.6957;
-108.6000;0.2499;2.6907;
-108.3000;0.2523;2.6932;
-108.0000;0.2499;2.6932;
-107.7000;0.2523;2.6982;
-107.4000;0.2499;2.6857;
-107.1000;0.2548;2.7007;
-106.8000;0.2507;2.6907;
-106.5000;0.2515;2.6957;
-106.2000;0.2491;2.6832;
-105.9000;0.2491;2.6807;
-105.6000;0.2499;2.6782;
-105.3000;0.2377;2.6532;
-105.0000;0.2483;2.6732;
-104.7000;0.2442;2.6582;
-104.4000;0.2483;2.6657;
-104.1000;0.2458;2.6632;
-103.8000;0.2483;2.6682;
-103.5000;0.2483;2.6657;
-103.2000;0.2491;2.6682;
-102.9000;0.2466;2.6632;
-102.6000;0.2507;2.6757;
-102.3000;0.2499;2.6682;
-102.0000;0.2507;2.6632;
-101.7000;0.2466;2.6557;
-101.4000;0.2466;2.6532;
-101.1000;0.2491;2.6732;
-100.8000;0.2483;2.6657;
-100.5000;0.2491;2.6682;
-100.2000;0.2491;2.6732;
-99.9000;0.2491;2.6657;
-99.6000;0.2491;2.6657;
-99.3000;0.2491;2.6632;
-99.0000;0.2491;2.6632;
-98.7000;0.2466;2.6682;
-98.4000;0.2507;2.6732;
-98.1000;0.2442;2.6532;
-97.8000;0.2491;2.6657;
-97.5000;0.2483;2.6632;
-97.2000;0.2483;2.6682;
-96.9000;0.2515;2.6682;
-96.6000;0.2499;2.6682;
-96.3000;0.2507;2.6757;
-96.0000;0.2564;2.6832;
-95.7000;0.2499;2.6732;
-95.4000;0.2499;2.6807;
-95.1000;0.2475;2.6732;
-94.8000;0.2466;2.6732;
-94.5000;0.2515;2.6707;
-94.2000;0.2491;2.6682;
-93.9000;0.2491;2.6632;
-93.6000;0.2483;2.6657;
-93.3000;0.2491;2.6632;
-93.0000;0.2491;2.6707;
-92.7000;0.2507;2.6682;
-92.4000;0.2499;2.6632;
-92.1000;0.2499;2.6607;
-91.8000;0.2499;2.6657;
-91.5000;0.2475;2.6457;
-91.2000;0.2475;2.6457;
-90.9000;0.2483;2.6507;
-90.6000;0.2483;2.6532;
-90.3000;0.2499;2.6632;
-90.0000;0.2475;2.6532;
-89.7000;0.2491;2.6607;
-89.4000;0.2483;2.6582;
-89.1000;0.2499;2.6582;
-88.8000;0.2507;2.6732;
-88.5000;0.2491;2.6632;
-88.2000;0.2466;2.6582;
-87.9000;0.2499;2.6657;
-87.6000;0.2491;2.6532;
-87.3000;0.2491;2.6532;
-87.0000;0.2491;2.6582;
-86.7000;0.2491;2.6507;
-86.4000;0.2491;2.6557;
-86.1000;0.2491;2.6707;
-85.8000;0.2483;2.6732;
-85.5000;0.2491;2.6732;
-85.2000;0.2491;2.6657;
-84.9000;0.2491;2.6607;
-84.6000;0.2475;2.6607;
-84.3000;0.2507;2.6657;
-84.0000;0.2499;2.6707;
-83.7000;0.2458;2.6632;
-83.4000;0.2491;2.6782;
-83.1000;0.2491;2.6857;
-82.8000;0.2499;2.6932;
-82.5000;0.2499;2.6832;
-82.2000;0.2532;2.6907;
-81.9000;0.2491;2.6782;
-81.6000;0.2475;2.6782;
-81.3000;0.2499;2.6832;
-81.0000;0.2466;2.6757;
-80.7000;0.2491;2.6732;
-80.4000;0.2491;2.6707;
-80.1000;0.2523;2.6732;
-79.8000;0.2475;2.6632;
-79.5000;0.2491;2.6657;
-79.2000;0.2540;2.6782;
-78.9000;0.2491;2.6707;
-78.6000;0.2499;2.6707;
-78.3000;0.2523;2.6707;
-78.0000;0.2475;2.6707;
-77.7000;0.2499;2.6607;
-77.4000;0.2491;2.6532;
-77.1000;0.2548;2.6607;
-76.8000;0.2499;2.6532;
-76.5000;0.2515;2.6607;
-76.2000;0.2532;2.6707;
-75.9000;0.2499;2.6657;
-75.6000;0.2491;2.6632;
-75.3000;0.2540;2.6857;
-75.0000;0.2556;2.6882;
-74.7000;0.2475;2.6657;
-74.4000;0.2475;2.6707;
-74.1000;0.2458;2.6657;
-73.8000;0.2507;2.6707;
-73.5000;0.2491;2.6682;
-73.2000;0.2515;2.6757;
-72.9000;0.2499;2.6732;
-72.6000;0.2393;2.6256;
-72.3000;0.2499;2.6557;
-72.0000;0.2491;2.6607;
-71.7000;0.2458;2.6607;
-71.4000;0.2483;2.6607;
-71.1000;0.2499;2.6632;
-70.8000;0.2466;2.6557;
-70.5000;0.2483;2.6657;
-70.2000;0.2475;2.6632;
-69.9000;0.2483;2.6607;
-69.6000;0.2523;2.6607;
-69.3000;0.2475;2.6407;
-69.0000;0.2499;2.6507;
-68.7000;0.2483;2.6482;
-68.4000;0.2540;2.6632;
-68.1000;0.2466;2.6482;
-67.8000;0.2499;2.6557;
-67.5000;0.2597;2.6782;
-67.2000;0.2369;2.6156;
-66.9000;0.2540;2.6582;
-66.6000;0.2426;2.6381;
-66.3000;0.2515;2.6682;
-66.0000;0.2491;2.6582;
-65.7000;0.2483;2.6607;
-65.4000;0.2491;2.6607;
-65.1000;0.2580;2.6857;
-64.8000;0.2491;2.6607;
-64.5000;0.2475;2.6557;
-64.2000;0.2507;2.6657;
-63.9000;0.2507;2.6582;
-63.6000;0.2434;2.6331;
-63.3000;0.2507;2.6557;
-63.0000;0.2556;2.6757;
-62.7000;0.2507;2.6632;
-62.4000;0.2491;2.6532;
-62.1000;0.2523;2.6432;
-61.8000;0.2475;2.6407;
-61.5000;0.2483;2.6356;
-61.2000;0.2483;2.6407;
-60.9000;0.2491;2.6407;
-60.6000;0.2475;2.6457;
-60.3000;0.2483;2.6532;
-60.0000;0.2475;2.6532;
-59.7000;0.2491;2.6557;
-59.4000;0.2507;2.6557;
-59.1000;0.2409;2.6306;
-58.8000;0.2491;2.6532;
-58.5000;0.2507;2.6707;
-58.2000;0.2491;2.6757;
-57.9000;0.2491;2.6707;
-57.6000;0.2499;2.6782;
-57.3000;0.2499;2.6782;
-57.0000;0.2491;2.6707;
-56.7000;0.2491;2.6757;
-56.4000;0.2499;2.6757;
-56.1000;0.2532;2.6732;
-55.8000;0.2483;2.6632;
-55.5000;0.2491;2.6557;
-55.2000;0.2483;2.6582;
-54.9000;0.2515;2.6757;
-54.6000;0.2515;2.6707;
-54.3000;0.2483;2.6732;
-54.0000;0.2507;2.6757;
-53.7000;0.2483;2.6732;
-53.4000;0.2475;2.6682;
-53.1000;0.2515;2.6682;
-52.8000;0.2499;2.6632;
-52.5000;0.2483;2.6657;
-52.2000;0.2491;2.6732;
-51.9000;0.2491;2.6807;
-51.6000;0.2515;2.6857;
-51.3000;0.2409;2.6432;
-51.0000;0.2515;2.6757;
-50.7000;0.2499;2.6782;
-50.4000;0.2515;2.6757;
-50.1000;0.2523;2.6757;
-49.8000;0.2499;2.6782;
-49.5000;0.2548;2.6882;
-49.2000;0.2515;2.6757;
-48.9000;0.2483;2.6707;
-48.6000;0.2523;2.6857;
-48.3000;0.2564;2.6932;
-48.0000;0.2458;2.6582;
-47.7000;0.2483;2.6632;
-47.4000;0.2499;2.6707;
-47.1000;0.2499;2.6782;
-46.8000;0.2499;2.6732;
-46.5000;0.2483;2.6532;
-46.2000;0.2450;2.6381;
-45.9000;0.2507;2.6532;
-45.6000;0.2483;2.6482;
-45.3000;0.2442;2.6356;
-45.0000;0.2507;2.6557;
-44.7000;0.2515;2.6757;
-44.4000;0.2507;2.6757;
-44.1000;0.2466;2.6607;
-43.8000;0.2483;2.6682;
-43.5000;0.2540;2.6732;
-43.2000;0.2564;2.6957;
-42.9000;0.2475;2.6782;
-42.6000;0.2475;2.6782;
-42.3000;0.2532;2.6857;
-42.0000;0.2466;2.6632;
-41.7000;0.2491;2.6782;
-41.4000;0.2580;2.7032;
-41.1000;0.2507;2.6732;
-40.8000;0.2483;2.6707;
-40.5000;0.2556;2.6832;
-40.2000;0.2442;2.6507;
-39.9000;0.2507;2.6657;
-39.6000;0.2499;2.6682;
-39.3000;0.2483;2.6732;
-39.0000;0.2523;2.6807;
-38.7000;0.2475;2.6632;
-38.4000;0.2466;2.6657;
-38.1000;0.2499;2.6757;
-37.8000;0.2475;2.6682;
-37.5000;0.2491;2.6632;
-37.2000;0.2483;2.6632;
-36.9000;0.2491;2.6607;
-36.6000;0.2328;2.6131;
-36.3000;0.2499;2.6632;
-36.0000;0.2532;2.6782;
-35.7000;0.2523;2.6757;
-35.4000;0.2491;2.6657;
-35.1000;0.2434;2.6532;
-34.8000;0.2491;2.6582;
-34.5000;0.2483;2.6682;
-34.2000;0.2466;2.6632;
-33.9000;0.2475;2.6707;
-33.6000;0.2499;2.6707;
-33.3000;0.2532;2.6782;
-33.0000;0.2491;2.6707;
-32.7000;0.2475;2.6782;
-32.4000;0.2499;2.6732;
-32.1000;0.2418;2.6457;
-31.8000;0.2507;2.6657;
-31.5000;0.2507;2.6607;
-31.2000;0.2466;2.6381;
-30.9000;0.2515;2.6632;
-30.6000;0.2499;2.6557;
-30.3000;0.2507;2.6582;
-30.0000;0.2475;2.6482;
-29.7000;0.2483;2.6557;
-29.4000;0.2515;2.6632;
-29.1000;0.2483;2.6657;
-28.8000;0.2483;2.6707;
-28.5000;0.2491;2.6657;
-28.2000;0.2491;2.6682;
-27.9000;0.2475;2.6657;
-27.6000;0.2483;2.6707;
-27.3000;0.2499;2.6732;
-27.0000;0.2564;2.6932;
-26.7000;0.2499;2.6607;
-26.4000;0.2515;2.6707;
-26.1000;0.2507;2.6707;
-25.8000;0.2556;2.6882;
-25.5000;0.2434;2.6507;
-25.2000;0.2499;2.6607;
-24.9000;0.2483;2.6557;
-24.6000;0.2597;2.6857;
-24.3000;0.2483;2.6582;
-24.0000;0.2507;2.6607;
-23.7000;0.2564;2.6707;
-23.4000;0.2483;2.6457;
-23.1000;0.2475;2.6331;
-22.8000;0.2491;2.6407;
-22.5000;0.2466;2.6482;
-22.2000;0.2499;2.6557;
-21.9000;0.2523;2.6707;
-21.6000;0.2507;2.6657;
-21.3000;0.2548;2.6857;
-21.0000;0.2491;2.6707;
-20.7000;0.2475;2.6707;
-20.4000;0.2523;2.6857;
-20.1000;0.2507;2.6907;
-19.8000;0.2499;2.6907;
-19.5000;0.2434;2.6732;
-19.2000;0.2466;2.6807;
-18.9000;0.2507;2.6882;
-18.6000;0.2499;2.6832;
-18.3000;0.2515;2.6982;
-18.0000;0.2589;2.7207;
-17.7000;0.2515;2.7032;
-17.4000;0.2564;2.7082;
-17.1000;0.2499;2.6807;
-16.8000;0.2483;2.6657;
-16.5000;0.2507;2.6732;
-16.2000;0.2491;2.6757;
-15.9000;0.2491;2.6732;
-15.6000;0.2466;2.6657;
-15.3000;0.2499;2.6582;
-15.0000;0.2450;2.6557;
-14.7000;0.2499;2.6782;
-14.4000;0.2466;2.6682;
-14.1000;0.2475;2.6682;
-13.8000;0.2507;2.6807;
-13.5000;0.2507;2.6732;
-13.2000;0.2385;2.6206;
-12.9000;0.2483;2.6482;
-12.6000;0.2499;2.6532;
-12.3000;0.2491;2.6557;
-12.0000;0.2483;2.6482;
-11.7000;0.2499;2.6532;
-11.4000;0.2499;2.6582;
-11.1000;0.2483;2.6457;
-10.8000;0.2523;2.6507;
-10.5000;0.2523;2.6482;
-10.2000;0.2483;2.6407;
-9.9000;0.2507;2.6507;
-9.6000;0.2507;2.6482;
-9.3000;0.2491;2.6557;
-9.0000;0.2491;2.6607;
-8.7000;0.2458;2.6482;
-8.4000;0.2499;2.6582;
-8.1000;0.2409;2.6457;
-7.8000;0.2418;2.6532;
-7.5000;0.2491;2.6657;
-7.2000;0.2458;2.6657;
-6.9000;0.2499;2.6682;
-6.6000;0.2515;2.6682;
-6.3000;0.2540;2.6732;
-6.0000;0.2499;2.6632;
-5.7000;0.2491;2.6657;
-5.4000;0.2458;2.6657;
-5.1000;0.2442;2.6607;
-4.8000;0.2491;2.6757;
-4.5000;0.2483;2.6657;
-4.2000;0.2483;2.6682;
-3.9000;0.2491;2.6757;
-3.6000;0.2483;2.6782;
-3.3000;0.2426;2.6657;
-3.0000;0.2344;2.6407;
-2.7000;0.2507;2.6807;
-2.4000;0.2499;2.6857;
-2.1000;0.2580;2.7082;
-1.8000;0.2483;2.6832;
-1.5000;0.2491;2.6782;
-1.2000;0.2491;2.6707;
-0.9000;0.2483;2.6657;
-0.6000;0.2491;2.6682;
-0.3000;0.2515;2.6732;
0.0000;0.2515;2.6732;
0.3000;0.2499;2.6882;
0.6000;0.2515;2.6932;
0.9000;0.2499;2.7007;
1.2000;0.2507;2.7132;
1.5000;0.2491;2.7308;
1.8000;0.2475;2.7358;
2.1000;0.2491;2.7483;
2.4000;0.2426;2.7383;
2.7000;0.2466;2.7483;
3.0000;0.2475;2.7633;
3.3000;0.2507;2.7833;
3.6000;0.2515;2.7958;
3.9000;0.2605;2.8184;
4.2000;0.2523;2.7958;
4.5000;0.2515;2.8008;
4.8000;0.2540;2.8109;
5.1000;0.2532;2.8184;
5.4000;0.2499;2.8134;
5.7000;0.2532;2.8209;
6.0000;0.2523;2.8234;
6.3000;0.2523;2.8209;
6.6000;0.2523;2.8284;
6.9000;0.2507;2.8259;
7.2000;0.2532;2.8284;
7.5000;0.2572;2.8334;
7.8000;0.2572;2.8384;
8.1000;0.2507;2.8184;
8.4000;0.2540;2.8209;
8.7000;0.2499;2.8159;
9.0000;0.2491;2.8159;
9.3000;0.2515;2.8134;
9.6000;0.2507;2.8184;
9.9000;0.2426;2.7983;
10.2000;0.2540;2.8259;
10.5000;0.2523;2.8209;
10.8000;0.2483;2.8134;
11.1000;0.2409;2.7933;
11.4000;0.2507;2.8134;
11.7000;0.2507;2.8159;
12.0000;0.2523;2.8234;
12.3000;0.2507;2.8134;
12.6000;0.2532;2.8234;
12.9000;0.2564;2.8359;
13.2000;0.2499;2.8184;
13.5000;0.2523;2.8234;
13.8000;0.2515;2.8234;
14.1000;0.2515;2.8159;
14.4000;0.2532;2.8134;
14.7000;0.2499;2.8058;
15.0000;0.2548;2.8159;
15.3000;0.2515;2.8134;
15.6000;0.2515;2.8109;
15.9000;0.2491;2.8084;
16.2000;0.2499;2.8259;
16.5000;0.2532;2.8284;
16.8000;0.2540;2.8259;
17.1000;0.2540;2.8209;
17.4000;0.2532;2.8134;
17.7000;0.2483;2.8084;
18.0000;0.2515;2.8259;
18.3000;0.2499;2.8234;
18.6000;0.2580;2.8434;
18.9000;0.2589;2.8409;
19.2000;0.2548;2.8334;
19.5000;0.2475;2.8159;
19.8000;0.2491;2.8134;
20.1000;0.2532;2.8209;
20.4000;0.2491;2.8134;
20.7000;0.2523;2.8259;
21.0000;0.2515;2.8209;
21.3000;0.2532;2.8259;
21.6000;0.2515;2.8109;
21.9000;0.2532;2.8109;
22.2000;0.2491;2.8008;
22.5000;0.2564;2.8209;
22.8000;0.2499;2.8033;
23.1000;0.2515;2.8109;
23.4000;0.2523;2.8109;
23.7000;0.2483;2.8058;
24.0000;0.2532;2.8259;
24.3000;0.2523;2.8234;
24.6000;0.2491;2.8334;
24.9000;0.2515;2.8384;
25.2000;0.2483;2.8259;
25.5000;0.2507;2.8334;
25.8000;0.2491;2.8259;
26.1000;0.2491;2.8209;
26.4000;0.2491;2.8234;
26.7000;0.2515;2.8334;
27.0000;0.2523;2.8384;
27.3000;0.2499;2.8359;
27.6000;0.2532;2.8484;
27.9000;0.2450;2.8134;
28.2000;0.2499;2.8309;
28.5000;0.2589;2.8484;
28.8000;0.2491;2.8259;
29.1000;0.2613;2.8684;
29.4000;0.2483;2.8284;
29.7000;0.2491;2.8259;
30.0000;0.2515;2.8259;
30.3000;0.2507;2.8209;
30.6000;0.2515;2.8209;
30.9000;0.2499;2.8109;
31.2000;0.2507;2.8134;
31.5000;0.2556;2.8309;
31.8000;0.2515;2.8284;
32.1000;0.2491;2.8209;
32.4000;0.2507;2.8209;
32.7000;0.2532;2.8184;
33.0000;0.2532;2.8134;
33.3000;0.2507;2.8084;
33.6000;0.2491;2.8134;
33.9000;0.2548;2.8284;
34.2000;0.2491;2.8234;
34.5000;0.2507;2.8209;
34.8000;0.2515;2.8159;
35.1000;0.2523;2.8109;
35.4000;0.2540;2.8234;
35.7000;0.2499;2.8284;
36.0000;0.2515;2.8209;
36.3000;0.2523;2.8234;
36.6000;0.2523;2.8334;
36.9000;0.2515;2.8309;
37.2000;0.2507;2.8334;
37.5000;0.2499;2.8334;
37.8000;0.2499;2.8384;
38.1000;0.2499;2.8434;
38.4000;0.2548;2.8534;
38.7000;0.2507;2.8334;
39.0000;0.2532;2.8334;
39.3000;0.2523;2.8359;
39.6000;0.2548;2.8434;
39.9000;0.2515;2.8259;
40.2000;0.2515;2.8184;
40.5000;0.2491;2.8184;
40.8000;0.2442;2.8008;
41.1000;0.2507;2.8284;
41.4000;0.2532;2.8384;
41.7000;0.2515;2.8334;
42.0000;0.2621;2.8584;
42.3000;0.2491;2.8184;
42.6000;0.2499;2.8259;
42.9000;0.2434;2.7983;
43.2000;0.2564;2.8434;
43.5000;0.2637;2.8684;
43.8000;0.2515;2.8359;
44.1000;0.2507;2.8359;
44.4000;0.2491;2.8409;
44.7000;0.2401;2.8184;
45.0000;0.2532;2.8509;
45.3000;0.2434;2.8284;
45.6000;0.2507;2.8459;
45.9000;0.2523;2.8459;
46.2000;0.2491;2.8359;
46.5000;0.2654;2.8834;
46.8000;0.2499;2.8384;
47.1000;0.2523;2.8459;
47.4000;0.2458;2.8284;
47.7000;0.2507;2.8384;
48.0000;0.2515;2.8359;
48.3000;0.2426;2.8134;
48.6000;0.2361;2.8008;
48.9000;0.2409;2.8184;
49.2000;0.2670;2.8960;
49.5000;0.2597;2.8684;
49.8000;0.2515;2.8459;
50.1000;0.2458;2.8384;
50.4000;0.2385;2.8234;
50.7000;0.2540;2.8534;
51.0000;0.2556;2.8634;
51.3000;0.2523;2.8534;
51.6000;0.2442;2.8309;
51.9000;0.2532;2.8484;
52.2000;0.2532;2.8484;
52.5000;0.2523;2.8584;
52.8000;0.2637;2.8884;
53.1000;0.2507;2.8534;
53.4000;0.2532;2.8634;
53.7000;0.2499;2.8509;
54.0000;0.2499;2.8359;
54.3000;0.2556;2.8584;
54.6000;0.2548;2.8559;
54.9000;0.2491;2.8409;
55.2000;0.2515;2.8459;
55.5000;0.2418;2.8134;
55.8000;0.2515;2.8484;
56.1000;0.2466;2.8409;
56.4000;0.2442;2.8284;
56.7000;0.2540;2.8534;
57.0000;0.2532;2.8434;
57.3000;0.2515;2.8384;
57.6000;0.2507;2.8384;
57.9000;0.2523;2.8434;
58.2000;0.2507;2.8409;
58.5000;0.2548;2.8384;
58.8000;0.2523;2.8334;
59.1000;0.2548;2.8334;
59.4000;0.2499;2.8284;
59.7000;0.2507;2.8284;
60.0000;0.2475;2.8209;
60.3000;0.2499;2.8409;
60.6000;0.2532;2.8459;
60.9000;0.2523;2.8459;
61.2000;0.2507;2.8459;
61.5000;0.2540;2.8509;
61.8000;0.2507;2.8484;
62.1000;0.2491;2.8384;
62.4000;0.2499;2.8384;
62.7000;0.2491;2.8309;
63.0000;0.2523;2.8459;
63.3000;0.2523;2.8409;
63.6000;0.2532;2.8459;
63.9000;0.2523;2.8384;
64.2000;0.2507;2.8334;
64.5000;0.2434;2.8084;
64.8000;0.2426;2.8008;
65.1000;0.2491;2.8209;
65.4000;0.2483;2.8184;
65.7000;0.2523;2.8384;
66.0000;0.2548;2.8484;
66.3000;0.2499;2.8384;
66.6000;0.2515;2.8359;
66.9000;0.2556;2.8434;
67.2000;0.2515;2.8259;
67.5000;0.2523;2.8334;
67.8000;0.2499;2.8234;
68.1000;0.2491;2.8309;
68.4000;0.2475;2.8259;
68.7000;0.2491;2.8234;
69.0000;0.2491;2.8134;
69.3000;0.2475;2.8058;
69.6000;0.2515;2.8134;
69.9000;0.2523;2.8184;
70.2000;0.2483;2.8058;
70.5000;0.2515;2.8184;
70.8000;0.2515;2.8159;
71.1000;0.2523;2.8284;
71.4000;0.2589;2.8434;
71.7000;0.2491;2.8234;
72.0000;0.2458;2.8159;
72.3000;0.2515;2.8384;
72.6000;0.2515;2.8409;
72.9000;0.2491;2.8309;
73.2000;0.2499;2.8434;
73.5000;0.2491;2.8359;
73.8000;0.2515;2.8284;
74.1000;0.2523;2.8259;
74.4000;0.2523;2.8159;
74.7000;0.2515;2.7958;
75.0000;0.2475;2.7808;
75.3000;0.2499;2.7883;
75.6000;0.2491;2.7908;
75.9000;0.2499;2.7983;
76.2000;0.2475;2.7983;
76.5000;0.2515;2.8159;
76.8000;0.2475;2.8084;
77.1000;0.2499;2.8084;
77.4000;0.2499;2.8109;
77.7000;0.2540;2.8234;
78.0000;0.2491;2.8159;
78.3000;0.2523;2.8234;
78.6000;0.2491;2.8058;
78.9000;0.2475;2.8084;
79.2000;0.2491;2.8159;
79.5000;0.2499;2.8159;
79.8000;0.2434;2.7958;
80.1000;0.2515;2.8209;
80.4000;0.2499;2.8209;
80.7000;0.2507;2.8159;
81.0000;0.2491;2.8209;
81.3000;0.2483;2.8159;
81.6000;0.2483;2.8159;
81.9000;0.2466;2.8084;
82.2000;0.2499;2.8109;
82.5000;0.2491;2.8084;
82.8000;0.2532;2.8234;
83.1000;0.2491;2.8159;
83.4000;0.2466;2.8159;
83.7000;0.2621;2.8584;
84.0000;0.2450;2.8159;
84.3000;0.2491;2.8309;
84.6000;0.2523;2.8359;
84.9000;0.2507;2.8359;
85.2000;0.2523;2.8334;
85.5000;0.2532;2.8384;
85.8000;0.2507;2.8309;
86.1000;0.2515;2.8309;
86.4000;0.2515;2.8259;
86.7000;0.2458;2.8159;
87.0000;0.2466;2.8159;
87.3000;0.2507;2.8234;
87.6000;0.2491;2.8284;
87.9000;0.2499;2.8409;
88.2000;0.2434;2.8184;
88.5000;0.2475;2.8259;
88.8000;0.2515;2.8409;
89.1000;0.2507;2.8409;
89.4000;0.2499;2.8334;
89.7000;0.2499;2.8284;
90.0000;0.2475;2.8284;
90.3000;0.2475;2.8284;
90.6000;0.2491;2.8409;
90.9000;0.2458;2.8384;
91.2000;0.2499;2.8409;
91.5000;0.2483;2.8334;
91.8000;0.2491;2.8309;
92.1000;0.2491;2.8284;
92.4000;0.2532;2.8434;
92.7000;0.2515;2.8509;
93.0000;0.2499;2.8434;
93.3000;0.2491;2.8309;
93.6000;0.2475;2.8209;
93.9000;0.2540;2.8309;
94.2000;0.2475;2.8159;
94.5000;0.2515;2.8284;
94.8000;0.2523;2.8384;
95.1000;0.2491;2.8209;
95.4000;0.2499;2.8209;
95.7000;0.2483;2.8084;
96.0000;0.2499;2.8184;
96.3000;0.2507;2.8284;
96.6000;0.2466;2.8184;
96.9000;0.2458;2.8284;
97.2000;0.2499;2.8484;
97.5000;0.2507;2.8559;
97.8000;0.2466;2.8409;
98.1000;0.2515;2.8484;
98.4000;0.2426;2.8234;
98.7000;0.2589;2.8709;
99.0000;0.2532;2.8559;
99.3000;0.2491;2.8359;
99.6000;0.2597;2.8659;
99.9000;0.2548;2.8484;
100.2000;0.2515;2.8459;
100.5000;0.2475;2.8359;
100.8000;0.2515;2.8434;
101.1000;0.2515;2.8309;
101.4000;0.2515;2.8334;
101.7000;0.2515;2.8384;
102.0000;0.2515;2.8309;
102.3000;0.2491;2.8284;
102.6000;0.2499;2.8309;
102.9000;0.2540;2.8409;
103.2000;0.2515;2.8309;
103.5000;0.2475;2.8184;
103.8000;0.2483;2.8309;
104.1000;0.2507;2.8284;
104.4000;0.2499;2.8184;
104.7000;0.2418;2.7958;
105.0000;0.2393;2.7983;
105.3000;0.2491;2.8284;
105.6000;0.2491;2.8384;
105.9000;0.2466;2.8184;
106.2000;0.2605;2.8484;
106.5000;0.2499;2.8284;
106.8000;0.2515;2.8309;
107.1000;0.2540;2.8434;
107.4000;0.2499;2.8434;
107.7000;0.2499;2.8384;
108.0000;0.2483;2.8334;
108.3000;0.2523;2.8309;
108.6000;0.2499;2.8159;
108.9000;0.2532;2.8234;
109.2000;0.2515;2.8234;
109.5000;0.2491;2.8284;
109.8000;0.2515;2.8384;
110.1000;0.2499;2.8309;
110.4000;0.2499;2.8284;
110.7000;0.2499;2.8209;
111.0000;0.2507;2.8234;
111.3000;0.2515;2.8234;
111.6000;0.2556;2.8309;
111.9000;0.2507;2.8184;
112.2000;0.2409;2.7858;
112.5000;0.2507;2.8184;
112.8000;0.2507;2.8209;
113.1000;0.2499;2.8184;
113.4000;0.2507;2.8159;
113.7000;0.2442;2.7983;
114.0000;0.2499;2.8109;
114.3000;0.2491;2.8008;
114.6000;0.2515;2.8033;
114.9000;0.2483;2.7958;
115.2000;0.2515;2.7983;
115.5000;0.2450;2.7833;
115.8000;0.2507;2.8033;
116.1000;0.2507;2.8084;
116.4000;0.2515;2.8134;
116.7000;0.2507;2.8159;
117.0000;0.2499;2.8084;
117.3000;0.2540;2.8209;
117.6000;0.2507;2.8109;
117.9000;0.2491;2.8109;
118.2000;0.2523;2.8259;
118.5000;0.2499;2.8159;
118.8000;0.2515;2.8134;
119.1000;0.2507;2.8159;
119.4000;0.2515;2.8184;
119.7000;0.2491;2.8184;
120.0000;0.2499;2.8134;
120.3000;0.2499;2.8084;
120.6000;0.2434;2.7908;
120.9000;0.2515;2.8184;
121.2000;0.2507;2.8134;
121.5000;0.2507;2.8134;
121.8000;0.2523;2.8234;
122.1000;0.2409;2.7958;
122.4000;0.2491;2.8309;
122.7000;0.2572;2.8534;
123.0000;0.2515;2.8409;
123.3000;0.2540;2.8384;
123.6000;0.2572;2.8434;
123.9000;0.2499;2.8184;
124.2000;0.2540;2.8334;
124.5000;0.2499;2.8184;
124.8000;0.2466;2.8058;
125.1000;0.2483;2.8008;
125.4000;0.2491;2.8008;
125.7000;0.2491;2.7983;
126.0000;0.2466;2.7933;
126.3000;0.2499;2.7983;
126.6000;0.2458;2.7983;
126.9000;0.2532;2.8084;
127.2000;0.2523;2.8084;
127.5000;0.2515;2.8058;
127.8000;0.2507;2.8058;
128.1000;0.2507;2.8058;
128.4000;0.2515;2.8058;
128.7000;0.2532;2.8209;
129.0000;0.2548;2.8359;
129.3000;0.2532;2.8209;
129.6000;0.2532;2.8234;
129.9000;0.2556;2.8409;
130.2000;0.2499;2.8184;
130.5000;0.2499;2.8234;
130.8000;0.2483;2.8159;
131.1000;0.2499;2.8058;
131.4000;0.2499;2.8058;
131.7000;0.2483;2.8008;
132.0000;0.2507;2.7983;
132.3000;0.2523;2.8033;
132.6000;0.2523;2.8134;
132.9000;0.2507;2.8109;
133.2000;0.2499;2.7983;
133.5000;0.2515;2.8134;
133.8000;0.2483;2.8109;
134.1000;0.2532;2.8259;
134.4000;0.2507;2.8209;
134.7000;0.2564;2.8359;
135.0000;0.2507;2.8159;
135.3000;0.2491;2.8033;
135.6000;0.2515;2.8084;
135.9000;0.2564;2.8209;
136.2000;0.2475;2.7883;
136.5000;0.2409;2.7758;
136.8000;0.2475;2.7933;
137.1000;0.2515;2.8084;
137.4000;0.2499;2.8058;
137.7000;0.2499;2.8058;
138.0000;0.2548;2.8234;
138.3000;0.2499;2.8134;
138.6000;0.2564;2.8309;
138.9000;0.2475;2.7983;
139.2000;0.2499;2.8033;
139.5000;0.2556;2.8284;
139.8000;0.2515;2.8209;
140.1000;0.2564;2.8309;
140.4000;0.2572;2.8359;
140.7000;0.2499;2.8109;
141.0000;0.2507;2.8084;
141.3000;0.2515;2.8084;
141.6000;0.2548;2.8084;
141.9000;0.2507;2.8058;
142.2000;0.2515;2.8234;
142.5000;0.2589;2.8484;
142.8000;0.2507;2.8134;
143.1000;0.2499;2.8109;
143.4000;0.2515;2.8109;
143.7000;0.2466;2.8033;
144.0000;0.2499;2.8084;
144.3000;0.2491;2.8109;
144.6000;0.2344;2.7758;
144.9000;0.2515;2.8259;
145.2000;0.2515;2.8309;
145.5000;0.2369;2.7983;
145.8000;0.2515;2.8459;
146.1000;0.2532;2.8459;
146.4000;0.2507;2.8409;
146.7000;0.2507;2.8409;
147.0000;0.2426;2.8109;
147.3000;0.2499;2.8184;
147.6000;0.2466;2.8008;
147.9000;0.2491;2.7983;
148.2000;0.2499;2.8008;
148.5000;0.2491;2.8058;
148.8000;0.2507;2.8084;
149.1000;0.2483;2.7908;
149.4000;0.2491;2.7833;
149.7000;0.2532;2.7933;
150.0000;0.2532;2.7933;
150.3000;0.2507;2.7958;
150.6000;0.2507;2.7983;
150.9000;0.2564;2.8159;
151.2000;0.2515;2.8008;
151.5000;0.2491;2.7933;
151.8000;0.2434;2.7733;
152.1000;0.2450;2.7808;
152.4000;0.2491;2.7933;
152.7000;0.2426;2.7758;
153.0000;0.2426;2.7708;
153.3000;0.2523;2.7933;
153.6000;0.2532;2.7933;
153.9000;0.2515;2.7933;
154.2000;0.2507;2.7933;
154.5000;0.2499;2.7883;
154.8000;0.2515;2.8033;
155.1000;0.2515;2.8058;
155.4000;0.2605;2.8384;
155.7000;0.2507;2.8084;
156.0000;0.2637;2.8409;
156.3000;0.2466;2.7958;
156.6000;0.2466;2.7833;
156.9000;0.2483;2.7808;
157.2000;0.2491;2.7933;
157.5000;0.2499;2.8084;
157.8000;0.2580;2.8259;
158.1000;0.2499;2.8033;
158.4000;0.2523;2.8134;
158.7000;0.2515;2.8109;
159.0000;0.2458;2.7983;
159.3000;0.2580;2.8309;
159.6000;0.2475;2.8033;
159.9000;0.2507;2.8109;
160.2000;0.2507;2.8159;
160.5000;0.2450;2.8058;
160.8000;0.2507;2.8159;
161.1000;0.2515;2.8184;
161.4000;0.2499;2.8134;
161.7000;0.2491;2.8184;
162.0000;0.2483;2.8159;
162.3000;0.2515;2.8284;
162.6000;0.2523;2.8259;
162.9000;0.2523;2.8259;
163.2000;0.2491;2.8234;
163.5000;0.2466;2.8134;
163.8000;0.2540;2.8259;
164.1000;0.2515;2.8209;
164.4000;0.2466;2.8184;
164.7000;0.2499;2.8234;
165.0000;0.2548;2.8384;
165.3000;0.2589;2.8534;
165.6000;0.2589;2.8509;
165.9000;0.2515;2.8359;
166.2000;0.2507;2.8159;
166.5000;0.2466;2.8134;
166.8000;0.2450;2.8109;
167.1000;0.2491;2.8234;
167.4000;0.2483;2.8284;
167.7000;0.2548;2.8409;
168.0000;0.2483;2.8184;
168.3000;0.2499;2.8209;
168.6000;0.2605;2.8559;
168.9000;0.2434;2.8109;
169.2000;0.2507;2.8284;
169.5000;0.2580;2.8509;
169.8000;0.2499;2.8259;
170.1000;0.2491;2.8209;
170.4000;0.2499;2.8259;
170.7000;0.2507;2.8159;
171.0000;0.2483;2.8033;
171.3000;0.2507;2.8109;
171.6000;0.2523;2.8284;
171.9000;0.2475;2.8159;
172.2000;0.2507;2.8159;
172.5000;0.2532;2.8259;
172.8000;0.2507;2.8234;
173.1000;0.2507;2.8209;
173.4000;0.2540;2.8409;
173.7000;0.2507;2.8359;
174.0000;0.2507;2.8309;
174.3000;0.2515;2.8434;
174.6000;0.2507;2.8384;
174.9000;0.2499;2.8284;
175.2000;0.2540;2.8334;
175.5000;0.2515;2.8259;
175.8000;0.2515;2.8259;
176.1000;0.2499;2.8159;
176.4000;0.2540;2.8284;
176.7000;0.2499;2.8209;
177.0000;0.2507;2.8284;
177.3000;0.2507;2.8409;
177.6000;0.2532;2.8409;
177.9000;0.2564;2.8434;
178.2000;0.2507;2.8384;
178.5000;0.2491;2.8309;
178.8000;0.2507;2.8309;
179.1000;0.2532;2.8309;
179.4000;0.2499;2.8259;
179.7000;0.2507;2.8334;
180.0000;0.2491;2.8259;
180.3000;0.2507;2.8309;
180.6000;0.2515;2.8359;
180.9000;0.2515;2.8359;
181.2000;0.2491;2.8284;
181.5000;0.2466;2.8234;
181.8000;0.2483;2.8234;
182.1000;0.2491;2.8334;
182.4000;0.2491;2.8334;
182.7000;0.2475;2.8334;
183.0000;0.2491;2.8309;
183.3000;0.2548;2.8434;
183.6000;0.2532;2.8459;
183.9000;0.2491;2.8284;
184.2000;0.2515;2.8309;
184.5000;0.2491;2.8234;
184.8000;0.2499;2.8259;
185.1000;0.2499;2.8384;
185.4000;0.2466;2.8434;
185.7000;0.2507;2.8484;
186.0000;0.2483;2.8484;
186.3000;0.2491;2.8484;
186.6000;0.2507;2.8534;
186.9000;0.2499;2.8634;
187.2000;0.2523;2.8684;
187.5000;0.2499;2.8584;
187.8000;0.2556;2.8634;
188.1000;0.2515;2.8509;
188.4000;0.2540;2.8709;
188.7000;0.2466;2.8459;
189.0000;0.2515;2.8559;
189.3000;0.2499;2.8434;
189.6000;0.2491;2.8409;
189.9000;0.2491;2.8434;
190.2000;0.2507;2.8434;
190.5000;0.2580;2.8659;
190.8000;0.2499;2.8484;
191.1000;0.2499;2.8434;
191.4000;0.2475;2.8234;
191.7000;0.2491;2.8359;
192.0000;0.2483;2.8334;
192.3000;0.2491;2.8309;
192.6000;0.2523;2.8334;
192.9000;0.2507;2.8284;
193.2000;0.2499;2.8234;
193.5000;0.2475;2.8159;
193.8000;0.2515;2.8284;
194.1000;0.2515;2.8309;
194.4000;0.2515;2.8259;
194.7000;0.2532;2.8234;
195.0000;0.2499;2.8184;
195.3000;0.2523;2.8309;
195.6000;0.2491;2.8259;
195.9000;0.2466;2.8234;
196.2000;0.2491;2.8234;
196.5000;0.2491;2.8234;
196.8000;0.2475;2.8334;
197.1000;0.2507;2.8459;
197.4000;0.2523;2.8484;
197.7000;0.2515;2.8434;
198.0000;0.2523;2.8484;
198.3000;0.2515;2.8459;
198.6000;0.2499;2.8434;
198.9000;0.2466;2.8334;
199.2000;0.2629;2.8634;
199.5000;0.2507;2.8184;
199.8000;0.2491;2.8159;
200.1000;0.2483;2.8084;
200.4000;0.2377;2.7708;
200.7000;0.2483;2.8134;
201.0000;0.2499;2.8209;
201.3000;0.2491;2.8234;
201.6000;0.2515;2.8309;
201.9000;0.2646;2.8709;
202.2000;0.2507;2.8284;
202.5000;0.2434;2.8184;
202.8000;0.2515;2.8359;
203.1000;0.2499;2.8309;
203.4000;0.2499;2.8334;
203.7000;0.2491;2.8309;
204.0000;0.2532;2.8334;
204.3000;0.2532;2.8334;
204.6000;0.2540;2.8309;
204.9000;0.2532;2.8334;
205.2000;0.2499;2.8284;
205.5000;0.2507;2.8309;
205.8000;0.2580;2.8434;
206.1000;0.2483;2.8184;
206.4000;0.2499;2.8284;
206.7000;0.2475;2.8184;
207.0000;0.2491;2.8234;
207.3000;0.2499;2.8259;
207.6000;0.2491;2.8259;
207.9000;0.2491;2.8184;
208.2000;0.2532;2.8259;
208.5000;0.2475;2.8084;
208.8000;0.2434;2.7908;
209.1000;0.2483;2.8033;
209.4000;0.2507;2.8033;
209.7000;0.2483;2.8184;
210.0000;0.2532;2.8309;
210.3000;0.2499;2.8184;
210.6000;0.2483;2.8209;
210.9000;0.2515;2.8284;
211.2000;0.2564;2.8409;
211.5000;0.2499;2.8284;
211.8000;0.2499;2.8234;
212.1000;0.2540;2.8309;
212.4000;0.2515;2.8284;
212.7000;0.2409;2.7933;
213.0000;0.2499;2.8209;
213.3000;0.2515;2.8184;
213.6000;0.2523;2.8209;
213.9000;0.2523;2.8209;
214.2000;0.2532;2.8284;
214.5000;0.2515;2.8309;
214.8000;0.2499;2.8259;
215.1000;0.2499;2.8284;
215.4000;0.2491;2.8259;
215.7000;0.2564;2.8459;
216.0000;0.2507;2.8334;
216.3000;0.2507;2.8359;
216.6000;0.2499;2.8284;
216.9000;0.2491;2.8259;
217.2000;0.2483;2.8259;
217.5000;0.2491;2.8284;
217.8000;0.2507;2.8434;
218.1000;0.2507;2.8409;
218.4000;0.2532;2.8459;
218.7000;0.2458;2.8259;
219.0000;0.2499;2.8484;
219.3000;0.2499;2.8509;
219.6000;0.2507;2.8559;
219.9000;0.2507;2.8459;
220.2000;0.2564;2.8634;
220.5000;0.2556;2.8534;
220.8000;0.2507;2.8384;
221.1000;0.2515;2.8434;
221.4000;0.2499;2.8384;
221.7000;0.2540;2.8484;
222.0000;0.2491;2.8309;
222.3000;0.2580;2.8509;
222.6000;0.2491;2.8284;
222.9000;0.2475;2.8234;
223.2000;0.2540;2.8384;
223.5000;0.2499;2.8234;
223.8000;0.2540;2.8384;
224.1000;0.2499;2.8234;
224.4000;0.2515;2.8409;
224.7000;0.2523;2.8434;
225.0000;0.2450;2.8184;
225.3000;0.2564;2.8509;
225.6000;0.2507;2.8259;
225.9000;0.2523;2.8334;
226.2000;0.2499;2.8309;
226.5000;0.2523;2.8384;
226.8000;0.2491;2.8384;
227.1000;0.2491;2.8384;
227.4000;0.2589;2.8659;
227.7000;0.2515;2.8459;
228.0000;0.2491;2.8359;
228.3000;0.2515;2.8384;
228.6000;0.2499;2.8384;
228.9000;0.2507;2.8509;
229.2000;0.2491;2.8534;
229.5000;0.2442;2.8434;
229.8000;0.2507;2.8484;
230.1000;0.2515;2.8384;
230.4000;0.2523;2.8359;
230.7000;0.2499;2.8234;
231.0000;0.2434;2.8159;
231.3000;0.2507;2.8309;
231.6000;0.2532;2.8309;
231.9000;0.2483;2.8058;
232.2000;0.2507;2.8134;
232.5000;0.2499;2.8109;
232.8000;0.2499;2.8209;
233.1000;0.2499;2.8184;
233.4000;0.2507;2.8159;
233.7000;0.2458;2.8084;
234.0000;0.2507;2.8209;
234.3000;0.2475;2.8184;
234.6000;0.2507;2.8234;
234.9000;0.2523;2.8259;
235.2000;0.2499;2.8259;
235.5000;0.2491;2.8234;
235.8000;0.2499;2.8259;
236.1000;0.2491;2.8284;
236.4000;0.2483;2.8234;
236.7000;0.2540;2.8384;
237.0000;0.2499;2.8184;
237.3000;0.2499;2.8234;
237.6000;0.2491;2.8259;
237.9000;0.2515;2.8284;
238.2000;0.2475;2.8209;
238.5000;0.2499;2.8334;
238.8000;0.2523;2.8384;
239.1000;0.2523;2.8434;
239.4000;0.2507;2.8434;
239.7000;0.2499;2.8434;
240.0000;0.2646;2.8884;
240.3000;0.2507;2.8484;
240.6000;0.2475;2.8309;
240.9000;0.2507;2.8384;
241.2000;0.2548;2.8584;
241.5000;0.2507;2.8434;
241.8000;0.2507;2.8409;
242.1000;0.2491;2.8409;
242.4000;0.2507;2.8459;
242.7000;0.2507;2.8484;
243.0000;0.2515;2.8459;
243.3000;0.2491;2.8409;
243.6000;0.2491;2.8359;
243.9000;0.2515;2.8409;
244.2000;0.2507;2.8484;
244.5000;0.2499;2.8359;
244.8000;0.2548;2.8509;
245.1000;0.2499;2.8384;
245.4000;0.2442;2.8184;
245.7000;0.2499;2.8434;
246.0000;0.2499;2.8459;
246.3000;0.2540;2.8584;
246.6000;0.2515;2.8484;
246.9000;0.2499;2.8484;
247.2000;0.2475;2.8384;
247.5000;0.2483;2.8334;
247.8000;0.2532;2.8434;
248.1000;0.2491;2.8459;
248.4000;0.2393;2.8234;
248.7000;0.2483;2.8534;
249.0000;0.2515;2.8634;
249.3000;0.2499;2.8634;
249.6000;0.2491;2.8584;
249.9000;0.2491;2.8409;
250.2000;0.2515;2.8434;
250.5000;0.2466;2.8334;
250.8000;0.2507;2.8509;
251.1000;0.2499;2.8409;
251.4000;0.2475;2.8334;
251.7000;0.2515;2.8409;
252.0000;0.2662;2.8784;
252.3000;0.2491;2.8234;
252.6000;0.2466;2.8159;
252.9000;0.2475;2.8209;
253.2000;0.2442;2.8159;
253.5000;0.2515;2.8284;
253.8000;0.2491;2.8284;
254.1000;0.2507;2.8309;
254.4000;0.2442;2.8234;
254.7000;0.2458;2.8209;
255.0000;0.2523;2.8384;
255.3000;0.2499;2.8359;
255.6000;0.2491;2.8309;
255.9000;0.2499;2.8334;
256.2000;0.2475;2.8309;
256.5000;0.2499;2.8334;
256.8000;0.2491;2.8334;
257.1000;0.2491;2.8309;
257.4000;0.2393;2.8109;
257.7000;0.2523;2.8559;
258.0000;0.2507;2.8484;
258.3000;0.2523;2.8584;
258.6000;0.2483;2.8534;
258.9000;0.2483;2.8484;
259.2000;0.2483;2.8459;
259.5000;0.2515;2.8559;
259.8000;0.2532;2.8584;
260.1000;0.2499;2.8484;
260.4000;0.2499;2.8484;
260.7000;0.2450;2.8409;
261.0000;0.2483;2.8434;
261.3000;0.2507;2.8559;
261.6000;0.2580;2.8784;
261.9000;0.2507;2.8584;
262.2000;0.2507;2.8484;
262.5000;0.2499;2.8509;
262.8000;0.2499;2.8434;
263.1000;0.2491;2.8484;
263.4000;0.2507;2.8559;
263.7000;0.2507;2.8559;
264.0000;0.2515;2.8534;
264.3000;0.2515;2.8534;
264.6000;0.2532;2.8634;
264.9000;0.2483;2.8409;
265.2000;0.2507;2.8484;
265.5000;0.2507;2.8359;
265.8000;0.2523;2.8484;
266.1000;0.2523;2.8434;
266.4000;0.2491;2.8309;
266.7000;0.2515;2.8384;
267.0000;0.2466;2.8259;
267.3000;0.2515;2.8384;
267.6000;0.2475;2.8309;
267.9000;0.2483;2.8334;
268.2000;0.2605;2.8584;
268.5000;0.2515;2.8309;
268.8000;0.2475;2.8234;
269.1000;0.2475;2.8234;
269.4000;0.2507;2.8409;
269.7000;0.2532;2.8359;
270.0000;0.2548;2.8434;
270.3000;0.2499;2.8309;
270.6000;0.2491;2.8134;
270.9000;0.2491;2.8109;
271.2000;0.2491;2.8084;
271.5000;0.2499;2.8209;
271.8000;0.2442;2.8134;
272.1000;0.2491;2.8309;
272.4000;0.2564;2.8659;
272.7000;0.2483;2.8559;
273.0000;0.2515;2.8634;
273.3000;0.2507;2.8584;
273.6000;0.2540;2.8734;
273.9000;0.2491;2.8609;
274.2000;0.2499;2.8534;
274.5000;0.2499;2.8409;
274.8000;0.2442;2.8084;
275.1000;0.2491;2.8284;
275.4000;0.2515;2.8434;
275.7000;0.2523;2.8334;
276.0000;0.2507;2.8359;
276.3000;0.2507;2.8359;
276.6000;0.2434;2.8184;
276.9000;0.2540;2.8484;
277.2000;0.2499;2.8359;
277.5000;0.2466;2.8134;
277.8000;0.2564;2.8509;
278.1000;0.2491;2.8309;
278.4000;0.2507;2.8284;
278.7000;0.2466;2.8134;
279.0000;0.2507;2.8259;
279.3000;0.2475;2.8234;
279.6000;0.2507;2.8359;
279.9000;0.2369;2.7933;
280.2000;0.2532;2.8359;
280.5000;0.2434;2.8058;
280.8000;0.2548;2.8434;
281.1000;0.2491;2.8334;
281.4000;0.2532;2.8459;
281.7000;0.2499;2.8359;
282.0000;0.2515;2.8334;
282.3000;0.2491;2.8259;
282.6000;0.2564;2.8409;
282.9000;0.2491;2.8134;
283.2000;0.2499;2.8159;
283.5000;0.2523;2.8284;
283.8000;0.2499;2.8209;
284.1000;0.2491;2.8109;
284.4000;0.2475;2.8008;
284.7000;0.2491;2.7983;
285.0000;0.2507;2.8033;
285.3000;0.2507;2.8058;
285.6000;0.2483;2.7983;
285.9000;0.2515;2.8084;
286.2000;0.2499;2.8058;
286.5000;0.2515;2.8134;
286.8000;0.2515;2.8184;
287.1000;0.2507;2.8234;
287.4000;0.2475;2.8234;
287.7000;0.2483;2.8234;
288.0000;0.2466;2.8134;
288.3000;0.2507;2.8209;
288.6000;0.2483;2.8109;
288.9000;0.2507;2.8184;
289.2000;0.2499;2.8134;
289.5000;0.2515;2.8159;
289.8000;0.2507;2.8209;
290.1000;0.2450;2.8084;
290.4000;0.2483;2.8184;
290.7000;0.2507;2.8334;
291.0000;0.2515;2.8484;
291.3000;0.2507;2.8484;
291.6000;0.2475;2.8209;
291.9000;0.2540;2.8409;
292.2000;0.2442;2.8184;
292.5000;0.2491;2.8284;
292.8000;0.2515;2.8409;
293.1000;0.2499;2.8359;
293.4000;0.2377;2.8084;
293.7000;0.2491;2.8359;
294.0000;0.2499;2.8334;
294.3000;0.2475;2.8209;
294.6000;0.2491;2.8209;
294.9000;0.2540;2.8284;
295.2000;0.2499;2.8159;
295.5000;0.2434;2.7983;
295.8000;0.2483;2.8209;
296.1000;0.2507;2.8234;
296.4000;0.2393;2.8008;
296.7000;0.2483;2.8284;
297.0000;0.2426;2.8134;
297.3000;0.2483;2.8259;
297.6000;0.2483;2.8284;
297.9000;0.2605;2.8659;
298.2000;0.2499;2.8309;
298.5000;0.2540;2.8459;
298.8000;0.2564;2.8534;
299.1000;0.2499;2.8384;
299.4000;0.2483;2.8309;
299.7000;0.2507;2.8384;
300.0000;0.2532;2.8434;
300.3000;0.2515;2.8359;
300.6000;0.2426;2.8109;
300.9000;0.2564;2.8509;
301.2000;0.2523;2.8384;
301.5000;0.2556;2.8409;
301.8000;0.2523;2.8309;
302.1000;0.2499;2.8334;
302.4000;0.2523;2.8509;
302.7000;0.2499;2.8434;
303.0000;0.2475;2.8384;
303.3000;0.2499;2.8509;
303.6000;0.2499;2.8509;
303.9000;0.2507;2.8559;
304.2000;0.2515;2.8584;
304.5000;0.2515;2.8584;
304.8000;0.2507;2.8559;
305.1000;0.2507;2.8509;
305.4000;0.2466;2.8359;
305.7000;0.2499;2.8359;
306.0000;0.2499;2.8384;
306.3000;0.2515;2.8409;
306.6000;0.2483;2.8334;
306.9000;0.2466;2.8259;
307.2000;0.2515;2.8409;
307.5000;0.2507;2.8459;
307.8000;0.2483;2.8409;
308.1000;0.2491;2.8459;
308.4000;0.2491;2.8459;
308.7000;0.2491;2.8509;
309.0000;0.2523;2.8534;
309.3000;0.2499;2.8484;
309.6000;0.2458;2.8309;
309.9000;0.2540;2.8459;
310.2000;0.2629;2.8634;
310.5000;0.2491;2.8409;
310.8000;0.2499;2.8434;
311.1000;0.2491;2.8534;
311.4000;0.2483;2.8609;
311.7000;0.2515;2.8734;
312.0000;0.2483;2.8609;
312.3000;0.2483;2.8484;
312.6000;0.2507;2.8434;
312.9000;0.2499;2.8434;
313.2000;0.2475;2.8459;
313.5000;0.2450;2.8459;
313.8000;0.2401;2.8234;
314.1000;0.2532;2.8559;
314.4000;0.2532;2.8559;
314.7000;0.2548;2.8484;
315.0000;0.2483;2.8259;
315.3000;0.2499;2.8359;
315.6000;0.2499;2.8384;
315.9000;0.2523;2.8459;
316.2000;0.2475;2.8309;
316.5000;0.2499;2.8334;
316.8000;0.2450;2.8334;
317.1000;0.2491;2.8509;
317.4000;0.2605;2.8809;
317.7000;0.2515;2.8534;
318.0000;0.2523;2.8609;
318.3000;0.2483;2.8409;
318.6000;0.2548;2.8509;
318.9000;0.2580;2.8709;
319.2000;0.2491;2.8484;
319.5000;0.2491;2.8559;
319.8000;0.2458;2.8434;
320.1000;0.2515;2.8559;
320.4000;0.2483;2.8509;
320.7000;0.2589;2.8784;
321.0000;0.2507;2.8509;
321.3000;0.2507;2.8509;
321.6000;0.2515;2.8509;
321.9000;0.2613;2.8759;
322.2000;0.2515;2.8534;
322.5000;0.2548;2.8659;
322.8000;0.2483;2.8559;
323.1000;0.2499;2.8684;
323.4000;0.2483;2.8709;
323.7000;0.2466;2.8634;
324.0000;0.2475;2.8709;
324.3000;0.2491;2.8759;
324.6000;0.2499;2.8684;
324.9000;0.2499;2.8659;
325.2000;0.2483;2.8584;
325.5000;0.2483;2.8609;
325.8000;0.2483;2.8659;
326.1000;0.2483;2.8634;
326.4000;0.2491;2.8609;
326.7000;0.2475;2.8534;
327.0000;0.2499;2.8659;
327.3000;0.2491;2.8684;
327.6000;0.2515;2.8634;
327.9000;0.2507;2.8584;
328.2000;0.2499;2.8559;
328.5000;0.2483;2.8384;
328.8000;0.2475;2.8384;
329.1000;0.2491;2.8509;
329.4000;0.2507;2.8534;
329.7000;0.2483;2.8359;
330.0000;0.2499;2.8309;
330.3000;0.2532;2.8434;
330.6000;0.2491;2.8359;
330.9000;0.2450;2.8284;
331.2000;0.2458;2.8259;
331.5000;0.2499;2.8509;
331.8000;0.2499;2.8459;
332.1000;0.2523;2.8509;
332.4000;0.2491;2.8484;
332.7000;0.2532;2.8634;
333.0000;0.2483;2.8434;
333.3000;0.2491;2.8459;
333.6000;0.2426;2.8284;
333.9000;0.2515;2.8509;
334.2000;0.2548;2.8634;
334.5000;0.2515;2.8509;
334.8000;0.2483;2.8459;
335.1000;0.2499;2.8384;
335.4000;0.2491;2.8409;
335.7000;0.2523;2.8584;
336.0000;0.2491;2.8584;
336.3000;0.2491;2.8509;
336.6000;0.2491;2.8509;
336.9000;0.2572;2.8684;
337.2000;0.2532;2.8509;
337.5000;0.2483;2.8409;
337.8000;0.2507;2.8509;
338.1000;0.2507;2.8484;
338.4000;0.2499;2.8459;
338.7000;0.2507;2.8484;
339.0000;0.2499;2.8409;
339.3000;0.2507;2.8359;
339.6000;0.2515;2.8334;
339.9000;0.2483;2.8334;
340.2000;0.2589;2.8734;
340.5000;0.2523;2.8534;
340.8000;0.2572;2.8659;
341.1000;0.2499;2.8484;
341.4000;0.2466;2.8409;
341.7000;0.2515;2.8534;
342.0000;0.2483;2.8459;
342.3000;0.2491;2.8509;
342.6000;0.2564;2.8734;
342.9000;0.2499;2.8584;
343.2000;0.2499;2.8609;
343.5000;0.2483;2.8609;
343.8000;0.2491;2.8634;
344.1000;0.2540;2.8709;
344.4000;0.2523;2.8584;
344.7000;0.2564;2.8709;
345.0000;0.2507;2.8534;
345.3000;0.2507;2.8509;
345.6000;0.2491;2.8559;
345.9000;0.2491;2.8534;
346.2000;0.2483;2.8484;
346.5000;0.2475;2.8484;
346.8000;0.2515;2.8509;
347.1000;0.2515;2.8509;
347.4000;0.2442;2.8284;
347.7000;0.2499;2.8259;
348.0000;0.2507;2.8284;
348.3000;0.2523;2.8309;
348.6000;0.2499;2.8234;
348.9000;0.2507;2.8259;
349.2000;0.2483;2.8259;
349.5000;0.2532;2.8484;
349.8000;0.2483;2.8334;
350.1000;0.2507;2.8334;
350.4000;0.2491;2.8334;
350.7000;0.2491;2.8284;
351.0000;0.2491;2.8284;
351.3000;0.2491;2.8309;
351.6000;0.2466;2.8284;
351.9000;0.2515;2.8334;
352.2000;0.2475;2.8259;
352.5000;0.2458;2.8234;
352.8000;0.2491;2.8359;
353.1000;0.2564;2.8559;
353.4000;0.2499;2.8384;
353.7000;0.2491;2.8284;
354.0000;0.2499;2.8284;
354.3000;0.2507;2.8334;
354.6000;0.2515;2.8309;
354.9000;0.2507;2.8234;
355.2000;0.2491;2.8134;
355.5000;0.2483;2.8259;
355.8000;0.2499;2.8309;
356.1000;0.2418;2.8058;
356.4000;0.2458;2.8084;
356.7000;0.2491;2.8058;
357.0000;0.2507;2.8109;
357.3000;0.2499;2.8159;
357.6000;0.2491;2.8159;
357.9000;0.2491;2.8159;
358.2000;0.2475;2.8134;
358.5000;0.2499;2.8084;
358.8000;0.2515;2.8159;
359.1000;0.2523;2.8109;
359.4000;0.2499;2.8058;
359.7000;0.2483;2.8084;
360.0000;0.2507;2.8159;
360.3000;0.2580;2.8359;
360.6000;0.2515;2.8184;
360.9000;0.2540;2.8359;
361.2000;0.2515;2.8134;
361.5000;0.2491;2.8058;
361.8000;0.2491;2.8084;
362.1000;0.2483;2.8058;
362.4000;0.2507;2.8159;
362.7000;0.2499;2.8209;
363.0000;0.2483;2.8284;
363.3000;0.2515;2.8359;
363.6000;0.2499;2.8209;
363.9000;0.2515;2.8259;
364.2000;0.2491;2.8359;
364.5000;0.2499;2.8384;
364.8000;0.2548;2.8459;
365.1000;0.2507;2.8534;
365.4000;0.2515;2.8609;
365.7000;0.2466;2.8484;
366.0000;0.2540;2.8659;
366.3000;0.2499;2.8484;
366.6000;0.2442;2.8309;
366.9000;0.2499;2.8484;
367.2000;0.2499;2.8459;
367.5000;0.2483;2.8359;
367.8000;0.2523;2.8409;
368.1000;0.2499;2.8384;
368.4000;0.2507;2.8459;
368.7000;0.2483;2.8259;
369.0000;0.2483;2.8184;
369.3000;0.2499;2.8259;
369.6000;0.2523;2.8384;
369.9000;0.2418;2.8159;
370.2000;0.2499;2.8234;
370.5000;0.2483;2.8209;
370.8000;0.2572;2.8509;
371.1000;0.2499;2.8284;
371.4000;0.2507;2.8409;
371.7000;0.2466;2.8334;
372.0000;0.2491;2.8384;
372.3000;0.2556;2.8609;
372.6000;0.2523;2.8509;
372.9000;0.2483;2.8434;
373.2000;0.2499;2.8384;
373.5000;0.2540;2.8459;
373.8000;0.2532;2.8484;
374.1000;0.2491;2.8459;
374.4000;0.2442;2.8309;
374.7000;0.2532;2.8659;
375.0000;0.2499;2.8509;
375.3000;0.2450;2.8359;
375.6000;0.2499;2.8484;
375.9000;0.2491;2.8409;
376.2000;0.2499;2.8409;
376.5000;0.2458;2.8234;
376.8000;0.2507;2.8309;
377.1000;0.2361;2.8008;
377.4000;0.2515;2.8409;
377.7000;0.2507;2.8384;
378.0000;0.2483;2.8359;
378.3000;0.2483;2.8359;
378.6000;0.2491;2.8284;
378.9000;0.2515;2.8384;
379.2000;0.2507;2.8359;
379.5000;0.2491;2.8284;
379.8000;0.2483;2.8259;
380.1000;0.2507;2.8284;
380.4000;0.2515;2.8359;
380.7000;0.2507;2.8309;
381.0000;0.2507;2.8384;
381.3000;0.2483;2.8409;
381.6000;0.2491;2.8484;
381.9000;0.2491;2.8484;
382.2000;0.2507;2.8534;
382.5000;0.2491;2.8559;
382.8000;0.2499;2.8534;
383.1000;0.2418;2.8184;
383.4000;0.2532;2.8409;
383.7000;0.2515;2.8409;
384.0000;0.2434;2.8259;
384.3000;0.2483;2.8334;
384.6000;0.2499;2.8409;
384.9000;0.2377;2.8109;
385.2000;0.2507;2.8434;
385.5000;0.2507;2.8484;
385.8000;0.2499;2.8459;
386.1000;0.2515;2.8409;
386.4000;0.2532;2.8509;
386.7000;0.2515;2.8459;
387.0000;0.2458;2.8334;
387.3000;0.2491;2.8459;
387.6000;0.2523;2.8559;
387.9000;0.2499;2.8609;
388.2000;0.2515;2.8559;
388.5000;0.2613;2.8884;
388.8000;0.2507;2.8584;
389.1000;0.2507;2.8559;
389.4000;0.2556;2.8759;
389.7000;0.2434;2.8534;
390.0000;0.2507;2.8709;
390.3000;0.2507;2.8659;
390.6000;0.2352;2.8284;
390.9000;0.2475;2.8559;
391.2000;0.2507;2.8684;
391.5000;0.2515;2.8709;
391.8000;0.2499;2.8609;
392.1000;0.2499;2.8509;
392.4000;0.2515;2.8584;
392.7000;0.2515;2.8709;
393.0000;0.2507;2.8659;
393.3000;0.2475;2.8534;
393.6000;0.2499;2.8509;
393.9000;0.2491;2.8384;
394.2000;0.2507;2.8509;
394.5000;0.2605;2.8859;
394.8000;0.2491;2.8534;
395.1000;0.2515;2.8484;
395.4000;0.2499;2.8434;
395.7000;0.2483;2.8384;
396.0000;0.2507;2.8559;
396.3000;0.2491;2.8559;
396.6000;0.2491;2.8534;
396.9000;0.2499;2.8534;
397.2000;0.2491;2.8659;
397.5000;0.2548;2.8859;
397.8000;0.2483;2.8734;
398.1000;0.2515;2.8834;
398.4000;0.2556;2.8884;
398.7000;0.2491;2.8834;
399.0000;0.2483;2.8784;
399.3000;0.2507;2.8784;
399.6000;0.2499;2.8759;
399.9000;0.2499;2.8759;
400.2000;0.2507;2.8734;
400.5000;0.2515;2.8734;
400.8000;0.2483;2.8634;
401.1000;0.2483;2.8634;
401.4000;0.2483;2.8634;
401.7000;0.2475;2.8584;
402.0000;0.2491;2.8759;
402.3000;0.2491;2.8634;
402.6000;0.2507;2.8659;
402.9000;0.2466;2.8584;
403.2000;0.2507;2.8584;
403.5000;0.2499;2.8534;
403.8000;0.2507;2.8534;
404.1000;0.2548;2.8509;
404.4000;0.2507;2.8359;
404.7000;0.2515;2.8434;
405.0000;0.2507;2.8434;
405.3000;0.2507;2.8534;
405.6000;0.2507;2.8609;
405.9000;0.2540;2.8684;
406.2000;0.2466;2.8484;
406.5000;0.2523;2.8509;
406.8000;0.2556;2.8484;
407.1000;0.2499;2.8459;
407.4000;0.2507;2.8459;
407.7000;0.2523;2.8609;
408.0000;0.2507;2.8534;
408.3000;0.2483;2.8459;
408.6000;0.2499;2.8459;
408.9000;0.2507;2.8459;
409.2000;0.2491;2.8459;
409.5000;0.2475;2.8409;
409.8000;0.2548;2.8484;
410.1000;0.2499;2.8384;
410.4000;0.2613;2.8684;
410.7000;0.2483;2.8359;
411.0000;0.2491;2.8359;
411.3000;0.2515;2.8359;
411.6000;0.2548;2.8584;
411.9000;0.2523;2.8534;
412.2000;0.2483;2.8384;
412.5000;0.2483;2.8359;
412.8000;0.2483;2.8434;
413.1000;0.2483;2.8359;
413.4000;0.2564;2.8634;
413.7000;0.2507;2.8484;
414.0000;0.2499;2.8484;
414.3000;0.2507;2.8434;
414.6000;0.2426;2.8234;
414.9000;0.2499;2.8384;
415.2000;0.2491;2.8409;
415.5000;0.2515;2.8484;
415.8000;0.2491;2.8434;
416.1000;0.2507;2.8534;
416.4000;0.2475;2.8459;
416.7000;0.2507;2.8484;
417.0000;0.2507;2.8509;
417.3000;0.2507;2.8509;
417.6000;0.2515;2.8534;
417.9000;0.2515;2.8534;
418.2000;0.2499;2.8559;
418.5000;0.2507;2.8609;
418.8000;0.2475;2.8584;
419.1000;0.2515;2.8659;
419.4000;0.2532;2.8634;
419.7000;0.2515;2.8459;
420.0000;0.2507;2.8459;
420.3000;0.2499;2.8359;
420.6000;0.2540;2.8459;
420.9000;0.2523;2.8359;
421.2000;0.2491;2.8334;
421.5000;0.2458;2.8284;
421.8000;0.2499;2.8334;
422.1000;0.2450;2.8284;
422.4000;0.2466;2.8309;
422.7000;0.2475;2.8259;
423.0000;0.2507;2.8334;
423.3000;0.2507;2.8434;
423.6000;0.2475;2.8334;
423.9000;0.2491;2.8334;
424.2000;0.2507;2.8409;
424.5000;0.2491;2.8534;
424.8000;0.2605;2.8910;
425.1000;0.2507;2.8584;
425.4000;0.2499;2.8559;
425.7000;0.2491;2.8534;
426.0000;0.2499;2.8509;
426.3000;0.2483;2.8509;
426.6000;0.2523;2.8634;
426.9000;0.2491;2.8659;
427.2000;0.2507;2.8759;
427.5000;0.2483;2.8659;
427.8000;0.2466;2.8584;
428.1000;0.2507;2.8584;
428.4000;0.2515;2.8659;
428.7000;0.2491;2.8509;
429.0000;0.2499;2.8534;
429.3000;0.2540;2.8759;
429.6000;0.2483;2.8559;
429.9000;0.2483;2.8634;
430.2000;0.2556;2.8809;
430.5000;0.2499;2.8709;
430.8000;0.2466;2.8559;
431.1000;0.2499;2.8634;
431.4000;0.2507;2.8634;
431.7000;0.2475;2.8634;
432.0000;0.2475;2.8609;
432.3000;0.2450;2.8434;
432.6000;0.2507;2.8559;
432.9000;0.2418;2.8309;
433.2000;0.2385;2.8159;
433.5000;0.2515;2.8434;
433.8000;0.2475;2.8334;
434.1000;0.2556;2.8534;
434.4000;0.2458;2.8209;
434.7000;0.2491;2.8234;
435.0000;0.2499;2.8259;
435.3000;0.2507;2.8409;
435.6000;0.2442;2.8234;
435.9000;0.2523;2.8434;
436.2000;0.2540;2.8484;
436.5000;0.2491;2.8409;
436.8000;0.2507;2.8484;
437.1000;0.2483;2.8509;
437.4000;0.2515;2.8659;
437.7000;0.2499;2.8534;
438.0000;0.2442;2.8434;
438.3000;0.2515;2.8534;
438.6000;0.2523;2.8584;
438.9000;0.2483;2.8484;
439.2000;0.2491;2.8584;
439.5000;0.2572;2.8809;
439.8000;0.2475;2.8534;
440.1000;0.2499;2.8659;
440.4000;0.2499;2.8659;
440.7000;0.2450;2.8484;
441.0000;0.2507;2.8634;
441.3000;0.2491;2.8584;
441.6000;0.2605;2.8910;
441.9000;0.2507;2.8734;
442.2000;0.2491;2.8484;
442.5000;0.2499;2.8534;
442.8000;0.2475;2.8384;
443.1000;0.2523;2.8459;
443.4000;0.2336;2.7983;
443.7000;0.2523;2.8559;
444.0000;0.2523;2.8484;
444.3000;0.2491;2.8334;
444.6000;0.2483;2.8284;
444.9000;0.2499;2.8309;
445.2000;0.2507;2.8384;
445.5000;0.2491;2.8359;
445.8000;0.2442;2.8184;
446.1000;0.2548;2.8459;
446.4000;0.2507;2.8409;
446.7000;0.2491;2.8359;
447.0000;0.2507;2.8384;
447.3000;0.2515;2.8459;
447.6000;0.2483;2.8359;
447.9000;0.2499;2.8384;
448.2000;0.2483;2.8334;
448.5000;0.2515;2.8384;
448.8000;0.2475;2.8309;
449.1000;0.2499;2.8434;
449.4000;0.2499;2.8484;
449.7000;0.2507;2.8434;
450.0000;0.2458;2.8209;
450.3000;0.2515;2.8284;
450.6000;0.2483;2.8234;
450.9000;0.2491;2.8234;
451.2000;0.2507;2.8284;
451.5000;0.2507;2.8259;
451.8000;0.2540;2.8334;
452.1000;0.2475;2.8184;
452.4000;0.2515;2.8309;
452.7000;0.2515;2.8459;
453.0000;0.2499;2.8484;
453.3000;0.2499;2.8559;
453.6000;0.2515;2.8559;
453.9000;0.2458;2.8359;
454.2000;0.2499;2.8509;
454.5000;0.2475;2.8484;
454.8000;0.2532;2.8634;
455.1000;0.2499;2.8459;
455.4000;0.2491;2.8484;
455.7000;0.2532;2.8484;
456.0000;0.2466;2.8359;
456.3000;0.2393;2.8209;
456.6000;0.2507;2.8609;
456.9000;0.2572;2.8734;
457.2000;0.2523;2.8634;
457.5000;0.2491;2.8534;
457.8000;0.2507;2.8484;
458.1000;0.2491;2.8409;
458.4000;0.2491;2.8409;
458.7000;0.2515;2.8584;
459.0000;0.2515;2.8559;
459.3000;0.2434;2.8359;
459.6000;0.2450;2.8484;
459.9000;0.2475;2.8534;
460.2000;0.2499;2.8484;
460.5000;0.2442;2.8334;
460.8000;0.2548;2.8484;
461.1000;0.2475;2.8259;
461.4000;0.2580;2.8609;
461.7000;0.2532;2.8409;
462.0000;0.2401;2.8084;
462.3000;0.2499;2.8384;
462.6000;0.2556;2.8534;
462.9000;0.2483;2.8384;
463.2000;0.2491;2.8309;
463.5000;0.2458;2.8234;
463.8000;0.2499;2.8284;
464.1000;0.2491;2.8209;
464.4000;0.2466;2.8084;
464.7000;0.2499;2.8134;
465.0000;0.2556;2.8284;
465.3000;0.2491;2.8008;
465.6000;0.2475;2.7958;
465.9000;0.2483;2.7908;
466.2000;0.2499;2.7908;
466.5000;0.2426;2.7758;
466.8000;0.2523;2.8008;
467.1000;0.2466;2.7908;
467.4000;0.2475;2.7858;
467.7000;0.2458;2.7758;
468.0000;0.2491;2.7908;
468.3000;0.2483;2.7983;
468.6000;0.2483;2.7958;
468.9000;0.2507;2.8008;
469.2000;0.2499;2.8058;
469.5000;0.2499;2.8084;
469.8000;0.2369;2.7758;
470.1000;0.2426;2.7883;
470.4000;0.2491;2.8159;
470.7000;0.2475;2.8134;
471.0000;0.2523;2.8309;
471.3000;0.2523;2.8434;
471.6000;0.2532;2.8459;
471.9000;0.2515;2.8309;
472.2000;0.2466;2.8134;
472.5000;0.2491;2.8084;
472.8000;0.2515;2.8184;
473.1000;0.2499;2.8134;
473.4000;0.2491;2.8209;
473.7000;0.2507;2.8309;
474.0000;0.2515;2.8259;
474.3000;0.2483;2.8259;
474.6000;0.2507;2.8309;
474.9000;0.2507;2.8334;
475.2000;0.2523;2.8409;
475.5000;0.2491;2.8384;
475.8000;0.2466;2.8309;
476.1000;0.2507;2.8434;
476.4000;0.2515;2.8484;
476.7000;0.2450;2.8134;
477.0000;0.2499;2.8259;
477.3000;0.2466;2.8209;
477.6000;0.2499;2.8384;
477.9000;0.2637;2.8734;
478.2000;0.2466;2.8259;
478.5000;0.2491;2.8334;
478.8000;0.2499;2.8309;
479.1000;0.2483;2.8334;
479.4000;0.2515;2.8384;
479.7000;0.2499;2.8359;
480.0000;0.2597;2.8534;
480.3000;0.2499;2.8334;
480.6000;0.2466;2.8259;
480.9000;0.2491;2.8334;
481.2000;0.2491;2.8309;
481.5000;0.2491;2.8284;
481.8000;0.2499;2.8284;
482.1000;0.2491;2.8259;
482.4000;0.2515;2.8359;
482.7000;0.2483;2.8309;
483.0000;0.2523;2.8384;
483.3000;0.2491;2.8359;
483.6000;0.2499;2.8359;
483.9000;0.2532;2.8459;
484.2000;0.2491;2.8284;
484.5000;0.2483;2.8359;
484.8000;0.2426;2.8159;
485.1000;0.2483;2.8259;
485.4000;0.2491;2.8309;
485.7000;0.2613;2.8634;
486.0000;0.2499;2.8334;
486.3000;0.2507;2.8334;
486.6000;0.2515;2.8334;
486.9000;0.2515;2.8459;
487.2000;0.2523;2.8459;
487.5000;0.2475;2.8284;
487.8000;0.2499;2.8359;
488.1000;0.2499;2.8409;
488.4000;0.2515;2.8434;
488.7000;0.2499;2.8334;
489.0000;0.2564;2.8434;
489.3000;0.2532;2.8309;
489.6000;0.2491;2.8234;
489.9000;0.2515;2.8284;
490.2000;0.2507;2.8234;
490.5000;0.2434;2.8033;
490.8000;0.2523;2.8284;
491.1000;0.2507;2.8234;
491.4000;0.2515;2.8234;
491.7000;0.2540;2.8384;
492.0000;0.2491;2.8234;
492.3000;0.2499;2.8234;
492.6000;0.2548;2.8309;
492.9000;0.2499;2.8209;
493.2000;0.2499;2.8284;
493.5000;0.2491;2.8159;
493.8000;0.2499;2.8259;
494.1000;0.2523;2.8334;
494.4000;0.2515;2.8334;
494.7000;0.2532;2.8334;
495.0000;0.2483;2.8259;
495.3000;0.2499;2.8259;
495.6000;0.2515;2.8284;
495.9000;0.2507;2.8384;
496.2000;0.2491;2.8359;
496.5000;0.2515;2.8409;
496.8000;0.2507;2.8384;
497.1000;0.2499;2.8359;
497.4000;0.2491;2.8359;
497.7000;0.2515;2.8359;
498.0000;0.2483;2.8284;
498.3000;0.2483;2.8284;
498.6000;0.2466;2.8284;
498.9000;0.2499;2.8334;
499.2000;0.2523;2.8384;
499.5000;0.2491;2.8184;
499.8000;0.2491;2.8209;
500.1000;0.2491;2.8234;
500.4000;0.2483;2.8259;
500.7000;0.2556;2.8484;
501.0000;0.2515;2.8484;
501.3000;0.2637;2.8784;
501.6000;0.2491;2.8359;
501.9000;0.2401;2.8109;
502.2000;0.2507;2.8384;
502.5000;0.2499;2.8234;
502.8000;0.2499;2.8209;
503.1000;0.2475;2.8209;
503.4000;0.2613;2.8509;
503.7000;0.2409;2.7983;
504.0000;0.2532;2.8284;
504.3000;0.2646;2.8534;
504.6000;0.2458;2.8008;
504.9000;0.2507;2.8334;
505.2000;0.2377;2.8033;
505.5000;0.2466;2.8359;
505.8000;0.2507;2.8459;
506.1000;0.2532;2.8509;
506.4000;0.2491;2.8359;
506.7000;0.2426;2.8234;
507.0000;0.2409;2.8159;
507.3000;0.2491;2.8384;
507.6000;0.2483;2.8334;
507.9000;0.2475;2.8384;
508.2000;0.2483;2.8459;
508.5000;0.2499;2.8459;
508.8000;0.2515;2.8559;
509.1000;0.2499;2.8509;
509.4000;0.2499;2.8409;
509.7000;0.2589;2.8584;
510.0000;0.2515;2.8309;
510.3000;0.2475;2.8234;
510.6000;0.2515;2.8334;
510.9000;0.2499;2.8334;
511.2000;0.2491;2.8359;
511.5000;0.2499;2.8309;
511.8000;0.2499;2.8284;
512.1000;0.2540;2.8359;
512.4000;0.2499;2.8309;
512.7000;0.2491;2.8359;
513.0000;0.2483;2.8209;
513.3000;0.2540;2.8384;
513.6000;0.2491;2.8209;
513.9000;0.2515;2.8309;
514.2000;0.2499;2.8259;
514.5000;0.2515;2.8359;
514.8000;0.2466;2.8284;
515.1000;0.2442;2.8234;
515.4000;0.2491;2.8334;
515.7000;0.2475;2.8384;
516.0000;0.2483;2.8459;
516.3000;0.2507;2.8509;
516.6000;0.2507;2.8609;
516.9000;0.2499;2.8609;
517.2000;0.2475;2.8559;
517.5000;0.2483;2.8384;
517.8000;0.2523;2.8284;
518.1000;0.2483;2.8334;
518.4000;0.2499;2.8484;
518.7000;0.2483;2.8384;
519.0000;0.2491;2.8434;
519.3000;0.2507;2.8484;
519.6000;0.2523;2.8384;
519.9000;0.2515;2.8284;
520.2000;0.2483;2.8209;
520.5000;0.2515;2.8284;
520.8000;0.2466;2.8033;
521.1000;0.2515;2.8084;
521.4000;0.2483;2.8058;
521.7000;0.2466;2.8134;
522.0000;0.2515;2.8209;
522.3000;0.2540;2.8334;
522.6000;0.2458;2.8058;
522.9000;0.2540;2.8159;
523.2000;0.2515;2.8209;
523.5000;0.2499;2.8259;
523.8000;0.2515;2.8234;
524.1000;0.2483;2.8159;
524.4000;0.2572;2.8384;
524.7000;0.2499;2.8209;
525.0000;0.2491;2.8234;
525.3000;0.2401;2.7958;
525.6000;0.2523;2.8384;
525.9000;0.2409;2.8084;
526.2000;0.2458;2.8384;
526.5000;0.2499;2.8384;
526.8000;0.2483;2.8334;
527.1000;0.2515;2.8459;
527.4000;0.2450;2.8259;
527.7000;0.2499;2.8409;
528.0000;0.2466;2.8334;
528.3000;0.2466;2.8359;
528.6000;0.2597;2.8709;
528.9000;0.2483;2.8434;
529.2000;0.2548;2.8609;
529.5000;0.2532;2.8584;
529.8000;0.2483;2.8434;
530.1000;0.2475;2.8334;
530.4000;0.2499;2.8384;
530.7000;0.2572;2.8534;
531.0000;0.2499;2.8334;
531.3000;0.2507;2.8384;
531.6000;0.2523;2.8459;
531.9000;0.2515;2.8509;
532.2000;0.2532;2.8484;
532.5000;0.2491;2.8334;
532.8000;0.2499;2.8284;
533.1000;0.2515;2.8334;
533.4000;0.2499;2.8284;
533.7000;0.2507;2.8334;
534.0000;0.2515;2.8309;
534.3000;0.2499;2.8284;
534.6000;0.2499;2.8259;
534.9000;0.2507;2.8334;
535.2000;0.2458;2.8209;
535.5000;0.2507;2.8259;
535.8000;0.2523;2.8234;
536.1000;0.2491;2.8234;
536.4000;0.2483;2.8309;
536.7000;0.2515;2.8434;
537.0000;0.2499;2.8334;
537.3000;0.2515;2.8309;
537.6000;0.2507;2.8384;
537.9000;0.2499;2.8409;
538.2000;0.2491;2.8309;
538.5000;0.2483;2.8284;
538.8000;0.2499;2.8384;
539.1000;0.2499;2.8334;
539.4000;0.2507;2.8384;
539.7000;0.2434;2.8234;
540.0000;0.2450;2.8209;
540.3000;0.2475;2.8409;
540.6000;0.2523;2.8534;
540.9000;0.2491;2.8484;
541.2000;0.2475;2.8409;
541.5000;0.2491;2.8459;
541.8000;0.2507;2.8484;
542.1000;0.2507;2.8434;
542.4000;0.2523;2.8409;
542.7000;0.2580;2.8584;
543.0000;0.2377;2.8109;
543.3000;0.2515;2.8384;
543.6000;0.2409;2.8184;
543.9000;0.2515;2.8409;
544.2000;0.2507;2.8309;
544.5000;0.2483;2.8359;
544.8000;0.2483;2.8409;
545.1000;0.2515;2.8509;
545.4000;0.2466;2.8359;
545.7000;0.2450;2.8234;
546.0000;0.2475;2.8309;
546.3000;0.2458;2.8334;
546.6000;0.2515;2.8434;
546.9000;0.2491;2.8384;
547.2000;0.2442;2.8234;
547.5000;0.2499;2.8409;
547.8000;0.2548;2.8559;
548.1000;0.2483;2.8409;
548.4000;0.2418;2.8209;
548.7000;0.2426;2.8184;
549.0000;0.2523;2.8309;
549.3000;0.2629;2.8734;
549.6000;0.2466;2.8209;
549.9000;0.2434;2.8033;
550.2000;0.2515;2.8409;
550.5000;0.2499;2.8384;
550.8000;0.2491;2.8359;
551.1000;0.2491;2.8384;
551.4000;0.2499;2.8334;
551.7000;0.2507;2.8309;
552.0000;0.2475;2.8334;
552.3000;0.2515;2.8434;
552.6000;0.2434;2.8134;
552.9000;0.2499;2.8184;
553.2000;0.2507;2.8209;
553.5000;0.2466;2.8184;
553.8000;0.2499;2.8184;
554.1000;0.2442;2.8084;
554.4000;0.2475;2.8209;
554.7000;0.2491;2.8134;
555.0000;0.2515;2.8284;
555.3000;0.2499;2.8159;
555.6000;0.2491;2.8134;
555.9000;0.2515;2.8184;
556.2000;0.2532;2.8259;
556.5000;0.2515;2.8334;
556.8000;0.2466;2.8209;
557.1000;0.2491;2.8259;
557.4000;0.2491;2.8184;
557.7000;0.2458;2.8109;
558.0000;0.2499;2.8209;
558.3000;0.2483;2.8159;
558.6000;0.2491;2.8209;
558.9000;0.2515;2.8284;
559.2000;0.2483;2.8309;
559.5000;0.2491;2.8284;
559.8000;0.2507;2.8259;
560.1000;0.2532;2.8409;
560.4000;0.2483;2.8259;
560.7000;0.2507;2.8309;
561.0000;0.2491;2.8184;
561.3000;0.2483;2.8159;
561.6000;0.2491;2.8259;
561.9000;0.2475;2.8159;
562.2000;0.2475;2.8109;
562.5000;0.2507;2.8184;
562.8000;0.2523;2.8159;
563.1000;0.2475;2.7983;
563.4000;0.2491;2.8033;
563.7000;0.2491;2.8134;
564.0000;0.2491;2.8084;
564.3000;0.2507;2.8184;
564.6000;0.2450;2.8084;
564.9000;0.2393;2.7933;
565.2000;0.2507;2.8234;
565.5000;0.2499;2.8234;
565.8000;0.2483;2.8209;
566.1000;0.2475;2.8134;
566.4000;0.2507;2.8184;
566.7000;0.2491;2.8209;
567.0000;0.2507;2.8284;
567.3000;0.2499;2.8309;
567.6000;0.2499;2.8284;
567.9000;0.2483;2.8209;
568.2000;0.2475;2.8184;
568.5000;0.2475;2.8259;
568.8000;0.2515;2.8359;
569.1000;0.2523;2.8359;
569.4000;0.2507;2.8284;
569.7000;0.2499;2.8284;
570.0000;0.2475;2.8384;
570.3000;0.2483;2.8459;
570.6000;0.2507;2.8534;
570.9000;0.2393;2.8184;
571.2000;0.2499;2.8434;
571.5000;0.2466;2.8334;
571.8000;0.2491;2.8409;
572.1000;0.2499;2.8359;
572.4000;0.2507;2.8334;
572.7000;0.2442;2.8209;
573.0000;0.2499;2.8334;
573.3000;0.2572;2.8609;
573.6000;0.2483;2.8334;
573.9000;0.2483;2.8234;
574.2000;0.2369;2.7908;
574.5000;0.2499;2.8259;
574.8000;0.2507;2.8234;
575.1000;0.2483;2.8109;
575.4000;0.2507;2.8209;
575.7000;0.2507;2.8234;
576.0000;0.2475;2.8159;
576.3000;0.2499;2.8159;
576.6000;0.2426;2.7958;
576.9000;0.2499;2.8209;
577.2000;0.2499;2.8334;
577.5000;0.2458;2.8259;
577.8000;0.2458;2.8209;
578.1000;0.2499;2.8309;
578.4000;0.2491;2.8209;
578.7000;0.2491;2.8184;
579.0000;0.2556;2.8259;
579.3000;0.2532;2.8209;
579.6000;0.2409;2.7958;
579.9000;0.2450;2.8209;
580.2000;0.2507;2.8384;
580.5000;0.2507;2.8509;
580.8000;0.2499;2.8459;
581.1000;0.2507;2.8534;
581.4000;0.2491;2.8534;
581.7000;0.2499;2.8509;
582.0000;0.2475;2.8434;
582.3000;0.2499;2.8559;
582.6000;0.2515;2.8634;
582.9000;0.2499;2.8534;
583.2000;0.2589;2.8834;
583.5000;0.2532;2.8784;
583.8000;0.2515;2.8684;
584.1000;0.2515;2.8584;
584.4000;0.2499;2.8509;
584.7000;0.2540;2.8484;
585.0000;0.2507;2.8409;
585.3000;0.2532;2.8584;
585.6000;0.2491;2.8534;
585.9000;0.2515;2.8434;
586.2000;0.2450;2.8234;
586.5000;0.2499;2.8409;
586.8000;0.2458;2.8309;
587.1000;0.2507;2.8409;
587.4000;0.2483;2.8409;
587.7000;0.2523;2.8459;
588.0000;0.2466;2.8284;
588.3000;0.2369;2.8058;
588.6000;0.2499;2.8359;
588.9000;0.2483;2.8309;
589.2000;0.2475;2.8309;
589.5000;0.2483;2.8309;
589.8000;0.2475;2.8384;
590.1000;0.2507;2.8409;
590.4000;0.2499;2.8459;
590.7000;0.2458;2.8309;
591.0000;0.2515;2.8309;
591.3000;0.2507;2.8334;
591.6000;0.2483;2.8284;
591.9000;0.2418;2.8159;
592.2000;0.2483;2.8434;
592.5000;0.2475;2.8334;
592.8000;0.2491;2.8384;
593.1000;0.2458;2.8334;
593.4000;0.2507;2.8484;
593.7000;0.2491;2.8509;
594.0000;0.2466;2.8484;
594.3000;0.2491;2.8584;
594.6000;0.2491;2.8559;
594.9000;0.2483;2.8484;
595.2000;0.2483;2.8434;
595.5000;0.2442;2.8334;
595.8000;0.2418;2.8309;
596.1000;0.2507;2.8559;
596.4000;0.2507;2.8584;
596.7000;0.2458;2.8334;
597.0000;0.2499;2.8334;
597.3000;0.2532;2.8484;
597.6000;0.2450;2.8259;
597.9000;0.2491;2.8284;
598.2000;0.2499;2.8234;
598.5000;0.2564;2.8409;
598.8000;0.2483;2.8209;
599.1000;0.2475;2.8259;
599.4000;0.2515;2.8359;
599.7000;0.2515;2.8309;
600.0000;0.2475;2.8234;
600.3000;0.2475;2.8259;
600.6000;0.2426;2.8084;
600.9000;0.2491;2.8259;
601.2000;0.2491;2.8134;
601.5000;0.2556;2.8234;
601.8000;0.2499;2.7833;
602.1000;0.2483;2.7633;
602.4000;0.2466;2.7408;
602.7000;0.2409;2.7082;
603.0000;0.2475;2.7207;
603.3000;0.2450;2.7107;
603.6000;0.2515;2.7182;
603.9000;0.2369;2.6632;
604.2000;0.2466;2.6807;
604.5000;0.2532;2.6882;
604.8000;0.2458;2.6657;
605.1000;0.2458;2.6632;
605.4000;0.2475;2.6607;
605.7000;0.2458;2.6582;
606.0000;0.2450;2.6507;
606.3000;0.2450;2.6457;
606.6000;0.2450;2.6306;
606.9000;0.2434;2.6131;
607.2000;0.2401;2.5981;
607.5000;0.2434;2.6156;
607.8000;0.2442;2.6306;
608.1000;0.2466;2.6281;
608.4000;0.2458;2.6281;
608.7000;0.2434;2.6281;
609.0000;0.2466;2.6381;
609.3000;0.2458;2.6256;
609.6000;0.2458;2.6206;
609.9000;0.2483;2.6131;
610.2000;0.2442;2.5981;
610.5000;0.2442;2.6006;
610.8000;0.2458;2.6106;
611.1000;0.2475;2.6156;
611.4000;0.2434;2.6131;
611.7000;0.2458;2.6106;
612.0000;0.2450;2.6031;
612.3000;0.2442;2.6056;
612.6000;0.2466;2.6231;
612.9000;0.2434;2.6181;
613.2000;0.2450;2.6231;
613.5000;0.2475;2.6381;
613.8000;0.2475;2.6432;
614.1000;0.2450;2.6407;
614.4000;0.2426;2.6306;
614.7000;0.2450;2.6256;
615.0000;0.2458;2.6306;
615.3000;0.2442;2.6331;
615.6000;0.2458;2.6306;
615.9000;0.2434;2.6256;
616.2000;0.2458;2.6407;
616.5000;0.2466;2.6457;
616.8000;0.2450;2.6381;
617.1000;0.2450;2.6306;
617.4000;0.2336;2.5906;
617.7000;0.2548;2.6482;
618.0000;0.2458;2.6281;
618.3000;0.2491;2.6407;
618.6000;0.2393;2.6231;
618.9000;0.2377;2.6256;
619.2000;0.2352;2.6081;
619.5000;0.2377;2.6206;
619.8000;0.2621;2.6757;
620.1000;0.2442;2.6281;
620.4000;0.2328;2.5956;
620.7000;0.2426;2.6231;
621.0000;0.2442;2.6256;
621.3000;0.2475;2.6407;
621.6000;0.2507;2.6557;
621.9000;0.2450;2.6331;
622.2000;0.2532;2.6682;
622.5000;0.2450;2.6507;
622.8000;0.2442;2.6582;
623.1000;0.2515;2.6832;
623.4000;0.2434;2.6532;
623.7000;0.2434;2.6532;
624.0000;0.2458;2.6482;
624.3000;0.2458;2.6482;
624.6000;0.2499;2.6557;
624.9000;0.2442;2.6407;
625.2000;0.2450;2.6331;
625.5000;0.2442;2.6306;
625.8000;0.2434;2.6381;
626.1000;0.2450;2.6407;
626.4000;0.2450;2.6331;
626.7000;0.2344;2.6106;
627.0000;0.2450;2.6256;
627.3000;0.2426;2.6206;
627.6000;0.2361;2.6081;
627.9000;0.2434;2.6281;
628.2000;0.2450;2.6381;
628.5000;0.2418;2.6381;
628.8000;0.2450;2.6457;
629.1000;0.2442;2.6457;
629.4000;0.2442;2.6407;
629.7000;0.2434;2.6331;
630.0000;0.2483;2.6507;
630.3000;0.2409;2.6306;
630.6000;0.2475;2.6482;
630.9000;0.2458;2.6507;
631.2000;0.2426;2.6482;
631.5000;0.2442;2.6507;
631.8000;0.2426;2.6432;
632.1000;0.2418;2.6331;
632.4000;0.2385;2.6106;
632.7000;0.2344;2.5956;
633.0000;0.2385;2.6081;
633.3000;0.2434;2.6181;
633.6000;0.2361;2.5956;
633.9000;0.2466;2.6206;
634.2000;0.2434;2.6106;
634.5000;0.2523;2.6331;
634.8000;0.2450;2.6231;
635.1000;0.2418;2.6106;
635.4000;0.2450;2.6156;
635.7000;0.2401;2.6031;
636.0000;0.2458;2.6181;
636.3000;0.2548;2.6507;
636.6000;0.2475;2.6281;
636.9000;0.2442;2.6231;
637.2000;0.2304;2.5931;
637.5000;0.2458;2.6331;
637.8000;0.2458;2.6306;
638.1000;0.2434;2.6181;
638.4000;0.2450;2.6231;
638.7000;0.2491;2.6231;
639.0000;0.2426;2.6006;
639.3000;0.2442;2.6081;
639.6000;0.2426;2.6006;
639.9000;0.2458;2.6081;
640.2000;0.2466;2.6106;
640.5000;0.2458;2.6156;
640.8000;0.2450;2.6231;
641.1000;0.2434;2.6106;
641.4000;0.2393;2.5931;
641.7000;0.2458;2.6156;
642.0000;0.2434;2.6106;
642.3000;0.2523;2.6407;
642.6000;0.2442;2.6256;
642.9000;0.2580;2.6507;
643.2000;0.2475;2.6331;
643.5000;0.2458;2.6356;
643.8000;0.2442;2.6381;
644.1000;0.2458;2.6356;
644.4000;0.2532;2.6582;
644.7000;0.2458;2.6407;
645.0000;0.2320;2.6031;
645.3000;0.2409;2.6206;
645.6000;0.2450;2.6381;
645.9000;0.2466;2.6281;
646.2000;0.2409;2.6181;
646.5000;0.2434;2.6281;
646.8000;0.2426;2.6231;
647.1000;0.2434;2.6131;
647.4000;0.2434;2.6081;
647.7000;0.2450;2.6131;
648.0000;0.2458;2.6131;
648.3000;0.2466;2.6156;
648.6000;0.2475;2.6156;
648.9000;0.2442;2.6031;
649.2000;0.2442;2.6081;
649.5000;0.2466;2.6131;
649.8000;0.2442;2.5981;
650.1000;0.2442;2.5906;
650.4000;0.2475;2.5981;
650.7000;0.2458;2.5956;
651.0000;0.2418;2.5956;
651.3000;0.2401;2.5881;
651.6000;0.2442;2.5906;
651.9000;0.2466;2.5981;
652.2000;0.2475;2.6056;
652.5000;0.2426;2.6056;
652.8000;0.2466;2.6106;
653.1000;0.2442;2.6131;
653.4000;0.2475;2.6081;
653.7000;0.2434;2.5981;
654.0000;0.2434;2.5956;
654.3000;0.2466;2.6056;
654.6000;0.2442;2.5981;
654.9000;0.2532;2.6281;
655.2000;0.2466;2.6156;
655.5000;0.2442;2.6231;
655.8000;0.2466;2.6356;
656.1000;0.2458;2.6231;
656.4000;0.2393;2.6131;
656.7000;0.2426;2.6156;
657.0000;0.2491;2.6281;
657.3000;0.2450;2.6256;
657.6000;0.2434;2.6306;
657.9000;0.2450;2.6356;
658.2000;0.2450;2.6381;
658.5000;0.2418;2.6331;
658.8000;0.2450;2.6256;
659.1000;0.2434;2.6156;
659.4000;0.2409;2.6081;
659.7000;0.2409;2.6081;
660.0000;0.2458;2.6181;
660.3000;0.2475;2.6181;
660.6000;0.2458;2.6156;
660.9000;0.2483;2.6181;
661.2000;0.2442;2.6156;
661.5000;0.2450;2.6081;
661.8000;0.2491;2.6256;
662.1000;0.2466;2.6206;
662.4000;0.2475;2.6281;
662.7000;0.2458;2.6281;
663.0000;0.2483;2.6306;
663.3000;0.2450;2.6381;
663.6000;0.2434;2.6331;
663.9000;0.2434;2.6331;
664.2000;0.2450;2.6331;
664.5000;0.2450;2.6306;
664.8000;0.2401;2.6181;
665.1000;0.2515;2.6607;
665.4000;0.2466;2.6407;
665.7000;0.2540;2.6507;
666.0000;0.2426;2.6306;
666.3000;0.2426;2.6281;
666.6000;0.2418;2.6331;
666.9000;0.2466;2.6432;
667.2000;0.2442;2.6381;
667.5000;0.2434;2.6306;
667.8000;0.2442;2.6281;
668.1000;0.2401;2.6156;
668.4000;0.2458;2.6231;
668.7000;0.2426;2.6156;
669.0000;0.2442;2.6206;
669.3000;0.2442;2.6206;
669.6000;0.2442;2.6281;
669.9000;0.2532;2.6507;
670.2000;0.2450;2.6256;
670.5000;0.2336;2.5931;
670.8000;0.2434;2.6281;
671.1000;0.2483;2.6457;
671.4000;0.2450;2.6281;
671.7000;0.2458;2.6231;
672.0000;0.2458;2.6156;
672.3000;0.2458;2.6306;
672.6000;0.2475;2.6381;
672.9000;0.2597;2.6732;
673.2000;0.2475;2.6432;
673.5000;0.2336;2.5981;
673.8000;0.2369;2.6131;
674.1000;0.2466;2.6331;
674.4000;0.2450;2.6356;
674.7000;0.2458;2.6407;
675.0000;0.2491;2.6432;
675.3000;0.2483;2.6381;
675.6000;0.2418;2.6156;
675.9000;0.2466;2.6231;
676.2000;0.2377;2.6006;
676.5000;0.2466;2.6306;
676.8000;0.2442;2.6256;
677.1000;0.2466;2.6407;
677.4000;0.2499;2.6482;
677.7000;0.2466;2.6381;
678.0000;0.2442;2.6256;
678.3000;0.2426;2.6206;
678.6000;0.2450;2.6256;
678.9000;0.2523;2.6407;
679.2000;0.2426;2.6206;
679.5000;0.2442;2.6256;
679.8000;0.2450;2.6281;
680.1000;0.2466;2.6331;
680.4000;0.2409;2.6181;
680.7000;0.2483;2.6381;
681.0000;0.2418;2.6181;
681.3000;0.2336;2.5831;
681.6000;0.2483;2.6281;
681.9000;0.2483;2.6256;
682.2000;0.2450;2.6131;
682.5000;0.2450;2.6131;
682.8000;0.2458;2.6231;
683.1000;0.2369;2.5956;
683.4000;0.2377;2.5981;
683.7000;0.2361;2.6006;
684.0000;0.2450;2.6281;
684.3000;0.2426;2.6231;
684.6000;0.2458;2.6356;
684.9000;0.2475;2.6407;
685.2000;0.2450;2.6381;
685.5000;0.2450;2.6331;
685.8000;0.2434;2.6281;
686.1000;0.2475;2.6457;
686.4000;0.2475;2.6381;
686.7000;0.2442;2.6281;
687.0000;0.2475;2.6331;
687.3000;0.2483;2.6281;
687.6000;0.2409;2.6181;
687.9000;0.2458;2.6306;
688.2000;0.2426;2.6306;
688.5000;0.2434;2.6306;
688.8000;0.2580;2.6657;
689.1000;0.2434;2.6206;
689.4000;0.2442;2.6256;
689.7000;0.2434;2.6306;
690.0000;0.2328;2.6006;
690.3000;0.2426;2.6256;
690.6000;0.2442;2.6206;
690.9000;0.2475;2.6231;
691.2000;0.2442;2.6181;
691.5000;0.2491;2.6331;
691.8000;0.2426;2.6281;
692.1000;0.2450;2.6356;
692.4000;0.2548;2.6582;
692.7000;0.2475;2.6356;
693.0000;0.2450;2.6256;
693.3000;0.2442;2.6231;
693.6000;0.2409;2.6131;
693.9000;0.2458;2.6181;
694.2000;0.2466;2.6256;
694.5000;0.2466;2.6306;
694.8000;0.2450;2.6206;
695.1000;0.2475;2.6256;
695.4000;0.2475;2.6231;
695.7000;0.2475;2.6306;
696.0000;0.2385;2.6081;
696.3000;0.2458;2.6407;
696.6000;0.2458;2.6281;
696.9000;0.2458;2.6231;
697.2000;0.2434;2.6156;
697.5000;0.2532;2.6407;
697.8000;0.2401;2.6156;
698.1000;0.2426;2.6231;
698.4000;0.2442;2.6256;
698.7000;0.2434;2.6256;
699.0000;0.2442;2.6256;
699.3000;0.2466;2.6331;
699.6000;0.2523;2.6582;
699.9000;0.2450;2.6356;
700.2000;0.2409;2.6281;
700.5000;0.2483;2.6482;
700.8000;0.2458;2.6381;
701.1000;0.2401;2.6181;
701.4000;0.2466;2.6407;
701.7000;0.2442;2.6306;
702.0000;0.2426;2.6281;
702.3000;0.2434;2.6331;
702.6000;0.2450;2.6381;
702.9000;0.2450;2.6356;
703.2000;0.2450;2.6381;
703.5000;0.2450;2.6281;
703.8000;0.2442;2.6256;
704.1000;0.2450;2.6331;
704.4000;0.2466;2.6306;
704.7000;0.2426;2.6206;
705.0000;0.2426;2.6131;
705.3000;0.2450;2.6181;
705.6000;0.2418;2.6056;
705.9000;0.2401;2.5981;
706.2000;0.2458;2.6131;
706.5000;0.2458;2.6081;
706.8000;0.2450;2.5956;
707.1000;0.2499;2.6081;
707.4000;0.2409;2.5931;
707.7000;0.2426;2.6031;
708.0000;0.2442;2.6131;
708.3000;0.2450;2.6106;
708.6000;0.2475;2.6131;
708.9000;0.2434;2.6056;
709.2000;0.2466;2.6181;
709.5000;0.2442;2.6131;
709.8000;0.2458;2.6181;
710.1000;0.2434;2.6131;
710.4000;0.2458;2.6256;
710.7000;0.2458;2.6206;
711.0000;0.2442;2.6056;
711.3000;0.2393;2.5881;
711.6000;0.2450;2.6131;
711.9000;0.2450;2.6156;
712.2000;0.2434;2.6106;
712.5000;0.2418;2.6156;
712.8000;0.2499;2.6457;
713.1000;0.2442;2.6331;
713.4000;0.2475;2.6482;
713.7000;0.2442;2.6432;
714.0000;0.2466;2.6532;
714.3000;0.2352;2.6281;
714.6000;0.2450;2.6557;
714.9000;0.2466;2.6557;
715.2000;0.2409;2.6407;
715.5000;0.2475;2.6532;
715.8000;0.2458;2.6557;
716.1000;0.2434;2.6507;
716.4000;0.2475;2.6657;
716.7000;0.2450;2.6557;
717.0000;0.2450;2.6532;
717.3000;0.2450;2.6557;
717.6000;0.2426;2.6356;
717.9000;0.2483;2.6482;
718.2000;0.2458;2.6381;
718.5000;0.2418;2.6231;
718.8000;0.2442;2.6381;
719.1000;0.2491;2.6407;
719.4000;0.2434;2.6206;
719.7000;0.2450;2.6306;
720.0000;0.2458;2.6331;
720.3000;0.2434;2.6306;
720.6000;0.2458;2.6381;
720.9000;0.2466;2.6331;
721.2000;0.2458;2.6281;
721.5000;0.2458;2.6206;
721.8000;0.2450;2.6206;
722.1000;0.2458;2.6181;
722.4000;0.2434;2.6181;
722.7000;0.2409;2.6156;
723.0000;0.2475;2.6507;
723.3000;0.2458;2.6507;
723.6000;0.2483;2.6507;
723.9000;0.2458;2.6457;
724.2000;0.2426;2.6356;
724.5000;0.2491;2.6457;
724.8000;0.2458;2.6331;
725.1000;0.2442;2.6306;
725.4000;0.2450;2.6256;
725.7000;0.2466;2.6256;
726.0000;0.2442;2.6206;
726.3000;0.2450;2.6031;
726.6000;0.2442;2.5981;
726.9000;0.2466;2.6031;
727.2000;0.2442;2.5981;
727.5000;0.2442;2.5956;
727.8000;0.2450;2.6031;
728.1000;0.2491;2.6131;
728.4000;0.2450;2.6056;
728.7000;0.2458;2.6156;
729.0000;0.2450;2.6081;
729.3000;0.2450;2.6056;
729.6000;0.2442;2.6181;
729.9000;0.2483;2.6231;
730.2000;0.2426;2.6131;
730.5000;0.2466;2.6256;
730.8000;0.2361;2.6006;
731.1000;0.2442;2.6231;
731.4000;0.2466;2.6331;
731.7000;0.2450;2.6331;
732.0000;0.2589;2.6682;
732.3000;0.2548;2.6607;
732.6000;0.2442;2.6306;
732.9000;0.2450;2.6306;
733.2000;0.2336;2.5956;
733.5000;0.2450;2.6231;
733.8000;0.2483;2.6432;
734.1000;0.2426;2.6231;
734.4000;0.2426;2.6306;
734.7000;0.2450;2.6407;
735.0000;0.2450;2.6356;
735.3000;0.2434;2.6407;
735.6000;0.2393;2.6381;
735.9000;0.2507;2.6657;
736.2000;0.2483;2.6607;
736.5000;0.2458;2.6557;
736.8000;0.2523;2.6607;
737.1000;0.2434;2.6281;
737.4000;0.2401;2.6206;
737.7000;0.2450;2.6331;
738.0000;0.2442;2.6356;
738.3000;0.2426;2.6256;
738.6000;0.2393;2.6106;
738.9000;0.2466;2.6306;
739.2000;0.2393;2.6056;
739.5000;0.2475;2.6356;
739.8000;0.2336;2.5981;
740.1000;0.2523;2.6507;
740.4000;0.2475;2.6281;
740.7000;0.2458;2.6256;
741.0000;0.2466;2.6306;
741.3000;0.2458;2.6306;
741.6000;0.2475;2.6407;
741.9000;0.2458;2.6381;
742.2000;0.2475;2.6457;
742.5000;0.2491;2.6482;
742.8000;0.2442;2.6331;
743.1000;0.2393;2.6181;
743.4000;0.2475;2.6432;
743.7000;0.2434;2.6281;
744.0000;0.2393;2.6156;
744.3000;0.2450;2.6356;
744.6000;0.2458;2.6407;
744.9000;0.2475;2.6407;
745.2000;0.2475;2.6331;
745.5000;0.2458;2.6381;
745.8000;0.2434;2.6356;
746.1000;0.2442;2.6331;
746.4000;0.2450;2.6281;
746.7000;0.2491;2.6381;
747.0000;0.2499;2.6432;
747.3000;0.2466;2.6381;
747.6000;0.2458;2.6306;
747.9000;0.2442;2.6256;
748.2000;0.2450;2.6306;
748.5000;0.2483;2.6306;
748.8000;0.2466;2.6381;
749.1000;0.2450;2.6331;
749.4000;0.2499;2.6482;
749.7000;0.2507;2.6457;
750.0000;0.2450;2.6331;
750.3000;0.2450;2.6381;
750.6000;0.2507;2.6657;
750.9000;0.2475;2.6457;
751.2000;0.2434;2.6407;
751.5000;0.2450;2.6482;
751.8000;0.2564;2.6757;
752.1000;0.2418;2.6356;
752.4000;0.2475;2.6507;
752.7000;0.2409;2.6356;
753.0000;0.2450;2.6356;
753.3000;0.2418;2.6281;
753.6000;0.2475;2.6331;
753.9000;0.2450;2.6206;
754.2000;0.2450;2.6231;
754.5000;0.2458;2.6256;
754.8000;0.2450;2.6206;
755.1000;0.2458;2.6231;
755.4000;0.2426;2.6131;
755.7000;0.2458;2.6106;
756.0000;0.2458;2.6031;
756.3000;0.2491;2.6231;
756.6000;0.2450;2.6081;
756.9000;0.2361;2.5731;
757.2000;0.2426;2.5931;
757.5000;0.2466;2.6031;
757.8000;0.2483;2.6031;
758.1000;0.2499;2.6031;
758.4000;0.2540;2.6206;
758.7000;0.2450;2.6031;
759.0000;0.2458;2.6106;
759.3000;0.2483;2.6106;
759.6000;0.2458;2.6081;
759.9000;0.2409;2.5906;
760.2000;0.2434;2.6006;
760.5000;0.2458;2.5981;
760.8000;0.2442;2.5981;
761.1000;0.2458;2.6056;
761.4000;0.2393;2.5831;
761.7000;0.2401;2.5906;
762.0000;0.2426;2.5981;
762.3000;0.2450;2.6056;
762.6000;0.2426;2.6056;
762.9000;0.2450;2.6131;
763.2000;0.2442;2.6106;
763.5000;0.2450;2.6056;
763.8000;0.2369;2.5856;
764.1000;0.2450;2.6056;
764.4000;0.2458;2.5981;
764.7000;0.2523;2.6131;
765.0000;0.2361;2.5656;
765.3000;0.2466;2.5931;
765.6000;0.2483;2.6056;
765.9000;0.2442;2.5881;
766.2000;0.2442;2.5856;
766.5000;0.2466;2.5906;
766.8000;0.2507;2.6106;
767.1000;0.2450;2.5981;
767.4000;0.2483;2.6131;
767.7000;0.2466;2.5981;
768.0000;0.2442;2.5931;
768.3000;0.2442;2.5931;
768.6000;0.2466;2.6031;
768.9000;0.2450;2.6081;
769.2000;0.2466;2.6156;
769.5000;0.2426;2.6131;
769.8000;0.2458;2.6131;
770.1000;0.2466;2.6131;
770.4000;0.2458;2.6106;
770.7000;0.2434;2.6006;
771.0000;0.2418;2.5931;
771.3000;0.2572;2.6381;
771.6000;0.2434;2.6106;
771.9000;0.2466;2.6206;
772.2000;0.2475;2.6256;
772.5000;0.2523;2.6482;
772.8000;0.2458;2.6356;
773.1000;0.2458;2.6256;
773.4000;0.2466;2.6156;
773.7000;0.2515;2.6356;
774.0000;0.2475;2.6181;
774.3000;0.2491;2.6156;
774.6000;0.2556;2.6331;
774.9000;0.2458;2.6006;
775.2000;0.2491;2.6081;
775.5000;0.2466;2.5981;
775.8000;0.2377;2.5756;
776.1000;0.2409;2.5856;
776.4000;0.2475;2.6006;
776.7000;0.2466;2.6006;
777.0000;0.2475;2.6031;
777.3000;0.2458;2.6056;
777.6000;0.2466;2.6081;
777.9000;0.2409;2.5981;
778.2000;0.2458;2.6131;
778.5000;0.2458;2.6131;
778.8000;0.2442;2.6131;
779.1000;0.2466;2.6206;
779.4000;0.2450;2.6181;
779.7000;0.2409;2.6156;
780.0000;0.2466;2.6306;
780.3000;0.2442;2.6156;
780.6000;0.2434;2.6106;
780.9000;0.2426;2.6181;
781.2000;0.2458;2.6156;
781.5000;0.2442;2.6081;
781.8000;0.2426;2.6006;
782.1000;0.2458;2.6031;
782.4000;0.2450;2.5956;
782.7000;0.2458;2.6006;
783.0000;0.2442;2.6006;
783.3000;0.2442;2.6056;
783.6000;0.2507;2.6281;
783.9000;0.2450;2.6131;
784.2000;0.2458;2.6131;
784.5000;0.2393;2.5956;
784.8000;0.2450;2.6081;
785.1000;0.2458;2.6106;
785.4000;0.2540;2.6331;
785.7000;0.2450;2.6031;
786.0000;0.2442;2.6081;
786.3000;0.2442;2.6106;
786.6000;0.2458;2.6056;
786.9000;0.2450;2.6131;
787.2000;0.2418;2.6081;
787.5000;0.2450;2.6206;
787.8000;0.2450;2.6231;
788.1000;0.2515;2.6432;
788.4000;0.2458;2.6206;
788.7000;0.2442;2.6056;
789.0000;0.2352;2.5856;
789.3000;0.2450;2.6056;
789.6000;0.2450;2.6081;
789.9000;0.2442;2.6006;
790.2000;0.2434;2.5981;
790.5000;0.2499;2.6256;
790.8000;0.2475;2.6206;
791.1000;0.2442;2.6131;
791.4000;0.2466;2.6231;
791.7000;0.2450;2.6181;
792.0000;0.2458;2.6256;
792.3000;0.2426;2.6181;
792.6000;0.2458;2.6231;
792.9000;0.2475;2.6256;
793.2000;0.2442;2.6106;
793.5000;0.2475;2.6181;
793.8000;0.2466;2.6156;
794.1000;0.2426;2.6106;
794.4000;0.2426;2.6081;
794.7000;0.2458;2.6131;
795.0000;0.2458;2.6131;
795.3000;0.2483;2.6156;
795.6000;0.2483;2.6156;
795.9000;0.2466;2.6231;
796.2000;0.2442;2.6181;
796.5000;0.2483;2.6256;
796.8000;0.2401;2.5956;
797.1000;0.2442;2.6056;
797.4000;0.2475;2.6106;
797.7000;0.2458;2.6031;
798.0000;0.2466;2.6006;
798.3000;0.2483;2.6081;
798.6000;0.2434;2.5856;
798.9000;0.2426;2.5831;
799.2000;0.2458;2.5931;
799.5000;0.2491;2.6131;
799.8000;0.2450;2.6006;
800.1000;0.2499;2.6156;
800.4000;0.2450;2.6031;
800.7000;0.2458;2.6056;
801.0000;0.2434;2.6056;
801.3000;0.2475;2.6156;
801.6000;0.2450;2.6131;
801.9000;0.2491;2.6306;
802.2000;0.2483;2.6231;
802.5000;0.2466;2.6281;
802.8000;0.2491;2.6432;
803.1000;0.2507;2.6532;
803.4000;0.2483;2.6407;
803.7000;0.2442;2.6306;
804.0000;0.2466;2.6331;
804.3000;0.2466;2.6331;
804.6000;0.2434;2.6206;
804.9000;0.2466;2.6156;
805.2000;0.2450;2.6131;
805.5000;0.2475;2.6156;
805.8000;0.2466;2.6081;
806.1000;0.2434;2.5956;
806.4000;0.2442;2.6031;
806.7000;0.2377;2.5881;
807.0000;0.2434;2.6106;
807.3000;0.2466;2.6156;
807.6000;0.2401;2.6056;
807.9000;0.2442;2.6181;
808.2000;0.2458;2.6131;
808.5000;0.2589;2.6532;
808.8000;0.2295;2.5656;
809.1000;0.2532;2.6256;
809.4000;0.2442;2.6106;
809.7000;0.2483;2.6206;
810.0000;0.2352;2.5881;
810.3000;0.2426;2.6131;
810.6000;0.2426;2.6231;
810.9000;0.2548;2.6557;
811.2000;0.2450;2.6231;
811.5000;0.2442;2.6106;
811.8000;0.2458;2.6106;
812.1000;0.2475;2.6156;
812.4000;0.2458;2.6106;
812.7000;0.2483;2.6206;
813.0000;0.2434;2.6056;
813.3000;0.2466;2.6181;
813.6000;0.2515;2.6306;
813.9000;0.2475;2.6256;
814.2000;0.2475;2.6281;
814.5000;0.2540;2.6432;
814.8000;0.2434;2.6181;
815.1000;0.2466;2.6231;
815.4000;0.2409;2.6131;
815.7000;0.2475;2.6231;
816.0000;0.2491;2.6206;
816.3000;0.2475;2.6156;
816.6000;0.2466;2.6131;
816.9000;0.2475;2.6131;
817.2000;0.2466;2.6106;
817.5000;0.2450;2.6206;
817.8000;0.2458;2.6156;
818.1000;0.2466;2.6106;
818.4000;0.2458;2.6156;
818.7000;0.2458;2.6181;
819.0000;0.2450;2.6156;
819.3000;0.2442;2.6206;
819.6000;0.2328;2.5881;
819.9000;0.2458;2.6281;
820.2000;0.2475;2.6306;
820.5000;0.2409;2.6256;
820.8000;0.2442;2.6231;
821.1000;0.2450;2.6331;
821.4000;0.2450;2.6407;
821.7000;0.2450;2.6432;
822.0000;0.2475;2.6432;
822.3000;0.2466;2.6356;
822.6000;0.2499;2.6407;
822.9000;0.2458;2.6231;
823.2000;0.2483;2.6381;
823.5000;0.2499;2.6482;
823.8000;0.2458;2.6381;
824.1000;0.2475;2.6306;
824.4000;0.2426;2.6181;
824.7000;0.2450;2.6281;
825.0000;0.2475;2.6356;
825.3000;0.2483;2.6381;
825.6000;0.2475;2.6407;
825.9000;0.2466;2.6281;
826.2000;0.2475;2.6281;
826.5000;0.2434;2.6106;
826.8000;0.2458;2.6231;
827.1000;0.2458;2.6306;
827.4000;0.2475;2.6281;
827.7000;0.2475;2.6256;
828.0000;0.2450;2.6181;
828.3000;0.2466;2.6281;
828.6000;0.2458;2.6206;
828.9000;0.2507;2.6306;
829.2000;0.2434;2.6131;
829.5000;0.2491;2.6156;
829.8000;0.2523;2.6306;
830.1000;0.2418;2.5956;
830.4000;0.2564;2.6356;
830.7000;0.2442;2.6056;
831.0000;0.2483;2.6281;
831.3000;0.2507;2.6407;
831.6000;0.2442;2.6281;
831.9000;0.2377;2.6056;
832.2000;0.2515;2.6331;
832.5000;0.2515;2.6281;
832.8000;0.2540;2.6306;
833.1000;0.2466;2.6081;
833.4000;0.2442;2.6031;
833.7000;0.2507;2.6281;
834.0000;0.2369;2.5881;
834.3000;0.2475;2.6156;
834.6000;0.2507;2.6356;
834.9000;0.2442;2.6156;
835.2000;0.2466;2.6231;
835.5000;0.2434;2.6056;
835.8000;0.2475;2.6181;
836.1000;0.2466;2.6231;
836.4000;0.2450;2.6281;
836.7000;0.2458;2.6381;
837.0000;0.2483;2.6231;
837.3000;0.2475;2.6231;
837.6000;0.2450;2.6181;
837.9000;0.2458;2.6181;
838.2000;0.2483;2.6356;
838.5000;0.2475;2.6381;
838.8000;0.2556;2.6532;
839.1000;0.2466;2.6256;
839.4000;0.2450;2.6256;
839.7000;0.2409;2.6056;
840.0000;0.2466;2.6181;
840.3000;0.2458;2.6256;
840.6000;0.2434;2.6256;
840.9000;0.2442;2.6281;
841.2000;0.2458;2.6356;
841.5000;0.2409;2.6231;
841.8000;0.2499;2.6432;
842.1000;0.2434;2.6181;
842.4000;0.2483;2.6331;
842.7000;0.2466;2.6457;
843.0000;0.2442;2.6407;
843.3000;0.2475;2.6532;
843.6000;0.2393;2.6206;
843.9000;0.2450;2.6356;
844.2000;0.2475;2.6407;
844.5000;0.2409;2.6256;
844.8000;0.2442;2.6306;
845.1000;0.2442;2.6281;
845.4000;0.2515;2.6407;
845.7000;0.2450;2.6331;
846.0000;0.2499;2.6457;
846.3000;0.2491;2.6407;
846.6000;0.2466;2.6281;
846.9000;0.2442;2.6256;
847.2000;0.2466;2.6381;
847.5000;0.2556;2.6557;
847.8000;0.2466;2.6457;
848.1000;0.2458;2.6381;
848.4000;0.2458;2.6381;
848.7000;0.2450;2.6281;
849.0000;0.2466;2.6306;
849.3000;0.2458;2.6281;
849.6000;0.2450;2.6306;
849.9000;0.2450;2.6281;
850.2000;0.2466;2.6281;
850.5000;0.2458;2.6256;
850.8000;0.2450;2.6156;
851.1000;0.2450;2.6181;
851.4000;0.2450;2.6156;
851.7000;0.2483;2.6331;
852.0000;0.2458;2.6206;
852.3000;0.2426;2.6181;
852.6000;0.2458;2.6231;
852.9000;0.2483;2.6281;
853.2000;0.2507;2.6331;
853.5000;0.2458;2.6131;
853.8000;0.2442;2.6106;
854.1000;0.2548;2.6557;
854.4000;0.2507;2.6407;
854.7000;0.2458;2.6281;
855.0000;0.2442;2.6306;
855.3000;0.2377;2.6206;
855.6000;0.2458;2.6306;
855.9000;0.2458;2.6206;
856.2000;0.2466;2.6206;
856.5000;0.2426;2.6081;
856.8000;0.2466;2.6206;
857.1000;0.2434;2.6081;
857.4000;0.2466;2.6206;
857.7000;0.2458;2.6156;
858.0000;0.2475;2.6206;
858.3000;0.2418;2.6031;
858.6000;0.2458;2.6056;
858.9000;0.2450;2.6031;
859.2000;0.2466;2.6081;
859.5000;0.2458;2.5956;
859.8000;0.2458;2.5956;
860.1000;0.2458;2.6031;
860.4000;0.2499;2.6106;
860.7000;0.2475;2.6006;
861.0000;0.2450;2.5906;
861.3000;0.2483;2.5881;
861.6000;0.2491;2.5881;
861.9000;0.2458;2.5881;
862.2000;0.2466;2.5906;
862.5000;0.2450;2.5956;
862.8000;0.2475;2.6081;
863.1000;0.2466;2.6056;
863.4000;0.2483;2.6081;
863.7000;0.2450;2.5981;
864.0000;0.2458;2.5981;
864.3000;0.2418;2.6031;
864.6000;0.2458;2.6131;
864.9000;0.2434;2.6181;
865.2000;0.2450;2.6306;
865.5000;0.2466;2.6331;
865.8000;0.2515;2.6457;
866.1000;0.2450;2.6306;
866.4000;0.2434;2.6181;
866.7000;0.2385;2.6031;
867.0000;0.2483;2.6256;
867.3000;0.2483;2.6256;
867.6000;0.2409;2.6081;
867.9000;0.2466;2.6181;
868.2000;0.2434;2.6106;
868.5000;0.2458;2.6181;
868.8000;0.2466;2.6256;
869.1000;0.2426;2.6106;
869.4000;0.2499;2.6281;
869.7000;0.2450;2.6206;
870.0000;0.2393;2.5981;
870.3000;0.2450;2.6106;
870.6000;0.2475;2.6106;
870.9000;0.2450;2.6131;
871.2000;0.2450;2.6131;
871.5000;0.2442;2.6131;
871.8000;0.2491;2.6206;
872.1000;0.2475;2.6231;
872.4000;0.2475;2.6231;
872.7000;0.2483;2.6181;
873.0000;0.2466;2.6031;
873.3000;0.2483;2.6031;
873.6000;0.2458;2.5981;
873.9000;0.2458;2.6056;
874.2000;0.2475;2.6056;
874.5000;0.2466;2.6006;
874.8000;0.2442;2.6006;
875.1000;0.2434;2.6006;
875.4000;0.2483;2.6056;
875.7000;0.2466;2.5981;
876.0000;0.2483;2.6131;
876.3000;0.2393;2.6031;
876.6000;0.2458;2.6256;
876.9000;0.2564;2.6532;
877.2000;0.2515;2.6356;
877.5000;0.2458;2.6181;
877.8000;0.2466;2.6231;
878.1000;0.2442;2.6131;
878.4000;0.2466;2.6256;
878.7000;0.2450;2.6281;
879.0000;0.2475;2.6281;
879.3000;0.2515;2.6407;
879.6000;0.2450;2.6206;
879.9000;0.2442;2.6181;
880.2000;0.2450;2.6231;
880.5000;0.2450;2.6256;
880.8000;0.2385;2.6106;
881.1000;0.2466;2.6331;
881.4000;0.2491;2.6331;
881.7000;0.2442;2.6231;
882.0000;0.2442;2.6181;
882.3000;0.2458;2.6206;
882.6000;0.2475;2.6231;
882.9000;0.2377;2.5881;
883.2000;0.2475;2.6281;
883.5000;0.2458;2.6256;
883.8000;0.2515;2.6331;
884.1000;0.2328;2.5831;
884.4000;0.2442;2.6156;
884.7000;0.2475;2.6081;
885.0000;0.2458;2.6056;
885.3000;0.2483;2.6181;
885.6000;0.2450;2.6106;
885.9000;0.2466;2.6181;
886.2000;0.2450;2.6206;
886.5000;0.2442;2.6256;
886.8000;0.2418;2.6206;
887.1000;0.2466;2.6331;
887.4000;0.2450;2.6281;
887.7000;0.2466;2.6281;
888.0000;0.2483;2.6331;
888.3000;0.2409;2.6181;
888.6000;0.2434;2.6206;
888.9000;0.2466;2.6281;
889.2000;0.2491;2.6306;
889.5000;0.2409;2.6031;
889.8000;0.2458;2.6156;
890.1000;0.2475;2.6181;
890.4000;0.2385;2.5881;
890.7000;0.2450;2.6131;
891.0000;0.2458;2.6231;
891.3000;0.2442;2.6156;
891.6000;0.2450;2.6181;
891.9000;0.2458;2.6256;
892.2000;0.2434;2.6331;
892.5000;0.2418;2.6306;
892.8000;0.2450;2.6432;
893.1000;0.2499;2.6557;
893.4000;0.2434;2.6356;
893.7000;0.2483;2.6407;
894.0000;0.2499;2.6482;
894.3000;0.2466;2.6432;
894.6000;0.2466;2.6432;
894.9000;0.2442;2.6407;
895.2000;0.2466;2.6532;
895.5000;0.2450;2.6457;
895.8000;0.2450;2.6407;
896.1000;0.2450;2.6407;
896.4000;0.2442;2.6331;
896.7000;0.2450;2.6281;
897.0000;0.2401;2.6106;
897.3000;0.2458;2.6281;
897.6000;0.2466;2.6306;
897.9000;0.2499;2.6457;
898.2000;0.2434;2.6281;
898.5000;0.2442;2.6331;
898.8000;0.2458;2.6381;
899.1000;0.2418;2.6206;
899.4000;0.2475;2.6331;
899.7000;0.2450;2.6281;
900.0000;0.2434;2.6231;
900.3000;0.2434;2.6281;
900.6000;0.2458;2.6231;
900.9000;0.2475;2.6281;
901.2000;0.2442;2.6131;
901.5000;0.2458;2.6181;
901.8000;0.2434;2.6131;
902.1000;0.2434;2.6106;
902.4000;0.2458;2.6206;
902.7000;0.2475;2.6206;
903.0000;0.2466;2.6206;
903.3000;0.2434;2.6206;
903.6000;0.2450;2.6281;
903.9000;0.2458;2.6256;
904.2000;0.2426;2.6131;
904.5000;0.2409;2.6056;
904.8000;0.2458;2.6156;
905.1000;0.2540;2.6457;
905.4000;0.2475;2.6381;
905.7000;0.2507;2.6457;
906.0000;0.2580;2.6657;
906.3000;0.2442;2.6231;
906.6000;0.2377;2.6081;
906.9000;0.2393;2.6056;
907.2000;0.2475;2.6156;
907.5000;0.2523;2.6331;
907.8000;0.2458;2.6181;
908.1000;0.2483;2.6356;
908.4000;0.2458;2.6206;
908.7000;0.2458;2.6231;
909.0000;0.2369;2.5856;
909.3000;0.2458;2.6206;
909.6000;0.2458;2.6206;
909.9000;0.2458;2.6206;
910.2000;0.2466;2.6231;
910.5000;0.2450;2.6181;
910.8000;0.2483;2.6306;
911.1000;0.2450;2.6106;
911.4000;0.2458;2.6206;
911.7000;0.2434;2.6281;
912.0000;0.2458;2.6306;
912.3000;0.2491;2.6507;
912.6000;0.2450;2.6507;
912.9000;0.2361;2.6306;
913.2000;0.2418;2.6381;
913.5000;0.2475;2.6507;
913.8000;0.2491;2.6557;
914.1000;0.2483;2.6557;
914.4000;0.2475;2.6457;
914.7000;0.2515;2.6582;
915.0000;0.2483;2.6557;
915.3000;0.2401;2.6381;
915.6000;0.2458;2.6507;
915.9000;0.2458;2.6507;
916.2000;0.2458;2.6532;
916.5000;0.2475;2.6582;
916.8000;0.2442;2.6507;
917.1000;0.2475;2.6582;
917.4000;0.2475;2.6557;
917.7000;0.2475;2.6532;
918.0000;0.2434;2.6331;
918.3000;0.2483;2.6306;
918.6000;0.2483;2.6256;
918.9000;0.2442;2.6056;
919.2000;0.2466;2.6131;
919.5000;0.2426;2.6081;
919.8000;0.2475;2.6331;
920.1000;0.2458;2.6306;
920.4000;0.2475;2.6356;
920.7000;0.2458;2.6306;
921.0000;0.2515;2.6482;
921.3000;0.2434;2.6306;
921.6000;0.2466;2.6432;
921.9000;0.2442;2.6381;
922.2000;0.2475;2.6482;
922.5000;0.2426;2.6281;
922.8000;0.2458;2.6507;
923.1000;0.2458;2.6457;
923.4000;0.2442;2.6432;
923.7000;0.2475;2.6482;
924.0000;0.2466;2.6407;
924.3000;0.2442;2.6281;
924.6000;0.2393;2.6206;
924.9000;0.2458;2.6306;
925.2000;0.2475;2.6331;
925.5000;0.2507;2.6457;
925.8000;0.2475;2.6407;
926.1000;0.2458;2.6457;
926.4000;0.2434;2.6407;
926.7000;0.2450;2.6407;
927.0000;0.2458;2.6482;
927.3000;0.2458;2.6432;
927.6000;0.2466;2.6482;
927.9000;0.2475;2.6582;
928.2000;0.2458;2.6532;
928.5000;0.2442;2.6457;
928.8000;0.2458;2.6507;
929.1000;0.2385;2.6181;
929.4000;0.2442;2.6306;
929.7000;0.2532;2.6407;
930.0000;0.2418;2.6056;
930.3000;0.2475;2.6206;
930.6000;0.2442;2.6206;
930.9000;0.2458;2.6381;
931.2000;0.2466;2.6457;
931.5000;0.2523;2.6657;
931.8000;0.2466;2.6457;
932.1000;0.2442;2.6407;
932.4000;0.2434;2.6457;
932.7000;0.2426;2.6331;
933.0000;0.2458;2.6331;
933.3000;0.2458;2.6331;
933.6000;0.2458;2.6432;
933.9000;0.2491;2.6632;
934.2000;0.2458;2.6532;
934.5000;0.2458;2.6507;
934.8000;0.2466;2.6482;
935.1000;0.2434;2.6457;
935.4000;0.2466;2.6557;
935.7000;0.2450;2.6482;
936.0000;0.2442;2.6482;
936.3000;0.2475;2.6507;
936.6000;0.2507;2.6582;
936.9000;0.2442;2.6381;
937.2000;0.2450;2.6356;
937.5000;0.2442;2.6381;
937.8000;0.2466;2.6532;
938.1000;0.2458;2.6457;
938.4000;0.2475;2.6432;
938.7000;0.2466;2.6432;
939.0000;0.2442;2.6356;
939.3000;0.2540;2.6607;
939.6000;0.2377;2.6156;
939.9000;0.2556;2.6557;
940.2000;0.2466;2.6356;
940.5000;0.2418;2.6231;
940.8000;0.2507;2.6457;
941.1000;0.2418;2.6206;
941.4000;0.2491;2.6281;
941.7000;0.2458;2.6181;
942.0000;0.2483;2.6256;
942.3000;0.2458;2.6231;
942.6000;0.2442;2.6206;
942.9000;0.2483;2.6407;
943.2000;0.2458;2.6331;
943.5000;0.2564;2.6607;
943.8000;0.2458;2.6256;
944.1000;0.2401;2.6181;
944.4000;0.2491;2.6432;
944.7000;0.2458;2.6407;
945.0000;0.2475;2.6407;
945.3000;0.2361;2.6106;
945.6000;0.2401;2.6281;
945.9000;0.2434;2.6356;
946.2000;0.2450;2.6407;
946.5000;0.2450;2.6306;
946.8000;0.2580;2.6657;
947.1000;0.2450;2.6231;
947.4000;0.2466;2.6206;
947.7000;0.2434;2.6131;
948.0000;0.2466;2.6156;
948.3000;0.2491;2.6256;
948.6000;0.2442;2.6156;
948.9000;0.2458;2.6206;
949.2000;0.2450;2.6156;
949.5000;0.2491;2.6331;
949.8000;0.2515;2.6407;
950.1000;0.2450;2.6306;
950.4000;0.2515;2.6532;
950.7000;0.2450;2.6381;
951.0000;0.2434;2.6306;
951.3000;0.2475;2.6407;
951.6000;0.2442;2.6256;
951.9000;0.2418;2.6156;
952.2000;0.2475;2.6281;
952.5000;0.2409;2.6181;
952.8000;0.2458;2.6256;
953.1000;0.2466;2.6306;
953.4000;0.2483;2.6381;
953.7000;0.2450;2.6331;
954.0000;0.2466;2.6457;
954.3000;0.2491;2.6532;
954.6000;0.2466;2.6482;
954.9000;0.2458;2.6356;
955.2000;0.2475;2.6482;
955.5000;0.2450;2.6432;
955.8000;0.2458;2.6482;
956.1000;0.2466;2.6407;
956.4000;0.2426;2.6306;
956.7000;0.2450;2.6231;
957.0000;0.2475;2.6281;
957.3000;0.2442;2.6256;
957.6000;0.2450;2.6256;
957.9000;0.2409;2.6206;
958.2000;0.2466;2.6356;
958.5000;0.2458;2.6331;
958.8000;0.2466;2.6381;
959.1000;0.2442;2.6256;
959.4000;0.2450;2.6256;
959.7000;0.2475;2.6331;
960.0000;0.2475;2.6432;
960.3000;0.2401;2.6306;
960.6000;0.2442;2.6407;
960.9000;0.2458;2.6407;
961.2000;0.2475;2.6407;
961.5000;0.2393;2.6181;
961.8000;0.2442;2.6281;
962.1000;0.2475;2.6482;
962.4000;0.2458;2.6532;
962.7000;0.2475;2.6557;
963.0000;0.2466;2.6557;
963.3000;0.2475;2.6532;
963.6000;0.2418;2.6482;
963.9000;0.2507;2.6682;
964.2000;0.2466;2.6432;
964.5000;0.2450;2.6356;
964.8000;0.2466;2.6306;
965.1000;0.2450;2.6181;
965.4000;0.2466;2.6156;
965.7000;0.2458;2.6206;
966.0000;0.2483;2.6281;
966.3000;0.2458;2.6206;
966.6000;0.2434;2.6156;
966.9000;0.2475;2.6306;
967.2000;0.2450;2.6206;
967.5000;0.2442;2.6181;
967.8000;0.2466;2.6306;
968.1000;0.2499;2.6331;
968.4000;0.2483;2.6281;
968.7000;0.2491;2.6356;
969.0000;0.2434;2.6256;
969.3000;0.2393;2.6156;
969.6000;0.2458;2.6281;
969.9000;0.2466;2.6281;
970.2000;0.2548;2.6507;
970.5000;0.2450;2.6206;
970.8000;0.2450;2.6281;
971.1000;0.2491;2.6381;
971.4000;0.2312;2.5931;
971.7000;0.2344;2.6006;
972.0000;0.2475;2.6356;
972.3000;0.2458;2.6356;
972.6000;0.2507;2.6457;
972.9000;0.2418;2.6156;
973.2000;0.2491;2.6507;
973.5000;0.2499;2.6457;
973.8000;0.2458;2.6356;
974.1000;0.2483;2.6507;
974.4000;0.2532;2.6657;
974.7000;0.2442;2.6407;
975.0000;0.2483;2.6532;
975.3000;0.2466;2.6507;
975.6000;0.2458;2.6457;
975.9000;0.2450;2.6432;
976.2000;0.2377;2.6281;
976.5000;0.2548;2.6757;
976.8000;0.2450;2.6356;
977.1000;0.2466;2.6331;
977.4000;0.2458;2.6231;
977.7000;0.2442;2.6281;
978.0000;0.2458;2.6407;
978.3000;0.2458;2.6381;
978.6000;0.2475;2.6407;
978.9000;0.2458;2.6457;
979.2000;0.2458;2.6407;
979.5000;0.2450;2.6356;
979.8000;0.2466;2.6432;
980.1000;0.2475;2.6356;
980.4000;0.2466;2.6432;
980.7000;0.2450;2.6306;
981.0000;0.2491;2.6482;
981.3000;0.2426;2.6256;
981.6000;0.2418;2.6231;
981.9000;0.2450;2.6407;
982.2000;0.2458;2.6507;
982.5000;0.2466;2.6482;
982.8000;0.2442;2.6482;
983.1000;0.2442;2.6457;
983.4000;0.2426;2.6432;
983.7000;0.2515;2.6582;
984.0000;0.2466;2.6507;
984.3000;0.2458;2.6281;
984.6000;0.2458;2.6181;
984.9000;0.2442;2.6106;
985.2000;0.2466;2.6206;
985.5000;0.2442;2.6056;
985.8000;0.2442;2.6056;
986.1000;0.2434;2.6031;
986.4000;0.2475;2.6131;
986.7000;0.2515;2.6231;
987.0000;0.2458;2.6106;
987.3000;0.2475;2.6156;
987.6000;0.2466;2.6231;
987.9000;0.2450;2.6206;
988.2000;0.2466;2.6256;
988.5000;0.2458;2.6256;
988.8000;0.2515;2.6356;
989.1000;0.2475;2.6306;
989.4000;0.2483;2.6432;
989.7000;0.2442;2.6256;
990.0000;0.2458;2.6281;
990.3000;0.2466;2.6231;
990.6000;0.2475;2.6256;
990.9000;0.2426;2.6081;
991.2000;0.2458;2.6081;
991.5000;0.2548;2.6356;
991.8000;0.2466;2.6181;
992.1000;0.2475;2.6131;
992.4000;0.2475;2.6106;
992.7000;0.2442;2.6056;
993.0000;0.2442;2.6056;
993.3000;0.2515;2.6256;
993.6000;0.2466;2.6181;
993.9000;0.2475;2.6206;
994.2000;0.2475;2.6206;
994.5000;0.2442;2.6056;
994.8000;0.2475;2.6081;
995.1000;0.2458;2.5981;
995.4000;0.2401;2.5731;
995.7000;0.2442;2.5981;
996.0000;0.2466;2.6131;
996.3000;0.2466;2.6206;
996.6000;0.2442;2.6231;
996.9000;0.2442;2.6306;
997.2000;0.2418;2.6206;
997.5000;0.2483;2.6432;
997.8000;0.2450;2.6381;
998.1000;0.2458;2.6281;
998.4000;0.2483;2.6356;
998.7000;0.2450;2.6181;
999.0000;0.2540;2.6356;
999.3000;0.2458;2.6131;
999.6000;0.2466;2.6181;
999.9000;0.2434;2.6206;
1000.2000;0.2507;2.6381;
1000.5000;0.2491;2.6356;
1000.8000;0.2515;2.6381;
1001.1000;0.2450;2.6056;
1001.4000;0.2475;2.6031;
1001.7000;0.2475;2.6206;
1002.0000;0.2475;2.6206;
1002.3000;0.2458;2.6231;
1002.6000;0.2475;2.6281;
1002.9000;0.2466;2.6181;
1003.2000;0.2450;2.6156;
1003.5000;0.2426;2.6131;
1003.8000;0.2426;2.6156;
1004.1000;0.2458;2.6206;
1004.4000;0.2475;2.6231;
1004.7000;0.2426;2.6156;
1005.0000;0.2458;2.6256;
1005.3000;0.2426;2.6231;
1005.6000;0.2450;2.6306;
1005.9000;0.2450;2.6381;
1006.2000;0.2466;2.6407;
1006.5000;0.2320;2.6031;
1006.8000;0.2458;2.6482;
1007.1000;0.2475;2.6532;
1007.4000;0.2475;2.6507;
1007.7000;0.2475;2.6482;
1008.0000;0.2483;2.6457;
1008.3000;0.2483;2.6407;
1008.6000;0.2458;2.6356;
1008.9000;0.2458;2.6231;
1009.2000;0.2491;2.6407;
1009.5000;0.2434;2.6231;
1009.8000;0.2442;2.6306;
1010.1000;0.2450;2.6306;
1010.4000;0.2458;2.6256;
1010.7000;0.2442;2.6181;
1011.0000;0.2450;2.6181;
1011.3000;0.2491;2.6231;
1011.6000;0.2442;2.6181;
1011.9000;0.2580;2.6682;
1012.2000;0.2458;2.6256;
1012.5000;0.2458;2.6356;
1012.8000;0.2450;2.6306;
1013.1000;0.2475;2.6407;
1013.4000;0.2458;2.6181;
1013.7000;0.2434;2.6056;
1014.0000;0.2442;2.5981;
1014.3000;0.2475;2.6081;
1014.6000;0.2458;2.6006;
1014.9000;0.2572;2.6331;
1015.2000;0.2458;2.6131;
1015.5000;0.2361;2.5856;
1015.8000;0.2507;2.6331;
1016.1000;0.2515;2.6306;
1016.4000;0.2458;2.6106;
1016.7000;0.2466;2.6156;
1017.0000;0.2483;2.6281;
1017.3000;0.2458;2.6206;
1017.6000;0.2515;2.6407;
1017.9000;0.2475;2.6331;
1018.2000;0.2483;2.6281;
1018.5000;0.2483;2.6256;
1018.8000;0.2450;2.6206;
1019.1000;0.2458;2.6381;
1019.4000;0.2418;2.6256;
1019.7000;0.2450;2.6432;
1020.0000;0.2418;2.6206;
1020.3000;0.2450;2.6281;
1020.6000;0.2548;2.6632;
1020.9000;0.2475;2.6381;
1021.2000;0.2466;2.6381;
1021.5000;0.2491;2.6507;
1021.8000;0.2475;2.6507;
1022.1000;0.2475;2.6532;
1022.4000;0.2458;2.6507;
1022.7000;0.2483;2.6557;
1023.0000;0.2532;2.6682;
1023.3000;0.2466;2.6432;
1023.6000;0.2483;2.6381;
1023.9000;0.2499;2.6457;
1024.2000;0.2483;2.6381;
1024.5000;0.2458;2.6256;
1024.8000;0.2401;2.6131;
1025.1000;0.2450;2.6281;
1025.4000;0.2466;2.6356;
1025.7000;0.2458;2.6331;
1026.0000;0.2466;2.6306;
1026.3000;0.2434;2.6231;
1026.6000;0.2483;2.6356;
1026.9000;0.2475;2.6381;
1027.2000;0.2466;2.6281;
1027.5000;0.2287;2.5806;
1027.8000;0.2466;2.6256;
1028.1000;0.2458;2.6256;
1028.4000;0.2507;2.6356;
1028.7000;0.2450;2.6306;
1029.0000;0.2458;2.6432;
1029.3000;0.2418;2.6256;
1029.6000;0.2475;2.6407;
1029.9000;0.2442;2.6331;
1030.2000;0.2458;2.6356;
1030.5000;0.2483;2.6407;
1030.8000;0.2442;2.6356;
1031.1000;0.2483;2.6407;
1031.4000;0.2458;2.6407;
1031.7000;0.2458;2.6331;
1032.0000;0.2499;2.6356;
1032.3000;0.2491;2.6356;
1032.6000;0.2466;2.6256;
1032.9000;0.2483;2.6231;
1033.2000;0.2450;2.6181;
1033.5000;0.2442;2.6206;
1033.8000;0.2475;2.6281;
1034.1000;0.2491;2.6306;
1034.4000;0.2458;2.6231;
1034.7000;0.2475;2.6181;
1035.0000;0.2515;2.6281;
1035.3000;0.2450;2.6156;
1035.6000;0.2499;2.6356;
1035.9000;0.2450;2.6356;
1036.2000;0.2434;2.6281;
1036.5000;0.2450;2.6281;
1036.8000;0.2483;2.6381;
1037.1000;0.2475;2.6331;
1037.4000;0.2466;2.6356;
1037.7000;0.2458;2.6356;
1038.0000;0.2499;2.6457;
1038.3000;0.2483;2.6432;
1038.6000;0.2434;2.6306;
1038.9000;0.2515;2.6557;
1039.2000;0.2466;2.6507;
1039.5000;0.2442;2.6407;
1039.8000;0.2515;2.6482;
1040.1000;0.2418;2.6131;
1040.4000;0.2442;2.6131;
1040.7000;0.2491;2.6206;
1041.0000;0.2475;2.6081;
1041.3000;0.2377;2.5881;
1041.6000;0.2434;2.6056;
1041.9000;0.2401;2.6056;
1042.2000;0.2483;2.6231;
1042.5000;0.2442;2.6156;
1042.8000;0.2442;2.6156;
1043.1000;0.2442;2.6156;
1043.4000;0.2491;2.6231;
1043.7000;0.2507;2.6231;
1044.0000;0.2556;2.6356;
1044.3000;0.2458;2.6181;
1044.6000;0.2466;2.6231;
1044.9000;0.2450;2.6181;
1045.2000;0.2426;2.6056;
1045.5000;0.2458;2.6131;
1045.8000;0.2458;2.6181;
1046.1000;0.2475;2.6256;
1046.4000;0.2426;2.6131;
1046.7000;0.2426;2.6206;
1047.0000;0.2475;2.6356;
1047.3000;0.2458;2.6256;
1047.6000;0.2466;2.6231;
1047.9000;0.2442;2.6256;
1048.2000;0.2466;2.6281;
1048.5000;0.2483;2.6281;
1048.8000;0.2458;2.6181;
1049.1000;0.2466;2.6156;
1049.4000;0.2450;2.6206;
1049.7000;0.2442;2.6156;
1050.0000;0.2458;2.6181;
1050.3000;0.2458;2.6131;
1050.6000;0.2475;2.6181;
1050.9000;0.2434;2.6056;
1051.2000;0.2458;2.6231;
1051.5000;0.2475;2.6281;
1051.8000;0.2458;2.6306;
1052.1000;0.2475;2.6331;
1052.4000;0.2548;2.6532;
1052.7000;0.2434;2.6206;
1053.0000;0.2491;2.6356;
1053.3000;0.2564;2.6532;
1053.6000;0.2458;2.6306;
1053.9000;0.2475;2.6281;
1054.2000;0.2475;2.6231;
1054.5000;0.2434;2.6081;
1054.8000;0.2483;2.6306;
1055.1000;0.2491;2.6407;
1055.4000;0.2466;2.6281;
1055.7000;0.2458;2.6181;
1056.0000;0.2450;2.6206;
1056.3000;0.2523;2.6482;
1056.6000;0.2450;2.6381;
1056.9000;0.2475;2.6532;
1057.2000;0.2483;2.6457;
1057.5000;0.2491;2.6457;
1057.8000;0.2475;2.6407;
1058.1000;0.2483;2.6432;
1058.4000;0.2475;2.6457;
1058.7000;0.2458;2.6281;
1059.0000;0.2450;2.6256;
1059.3000;0.2450;2.6281;
1059.6000;0.2475;2.6281;
1059.9000;0.2499;2.6482;
1060.2000;0.2483;2.6381;
1060.5000;0.2450;2.6306;
1060.8000;0.2475;2.6432;
1061.1000;0.2475;2.6331;
1061.4000;0.2434;2.6231;
1061.7000;0.2475;2.6306;
1062.0000;0.2483;2.6331;
1062.3000;0.2523;2.6532;
1062.6000;0.2442;2.6281;
1062.9000;0.2507;2.6482;
1063.2000;0.2580;2.6657;
1063.5000;0.2458;2.6306;
1063.8000;0.2450;2.6256;
1064.1000;0.2328;2.5806;
1064.4000;0.2401;2.5906;
1064.7000;0.2466;2.6081;
1065.0000;0.2483;2.6281;
1065.3000;0.2491;2.6432;
1065.6000;0.2442;2.6281;
1065.9000;0.2450;2.6256;
1066.2000;0.2499;2.6381;
1066.5000;0.2458;2.6281;
1066.8000;0.2475;2.6256;
1067.1000;0.2458;2.6306;
1067.4000;0.2475;2.6281;
1067.7000;0.2385;2.6081;
1068.0000;0.2532;2.6507;
1068.3000;0.2450;2.6106;
1068.6000;0.2393;2.5956;
1068.9000;0.2483;2.6156;
1069.2000;0.2475;2.6181;
1069.5000;0.2466;2.6206;
1069.8000;0.2483;2.6181;
1070.1000;0.2434;2.6056;
1070.4000;0.2466;2.6131;
1070.7000;0.2483;2.6131;
1071.0000;0.2450;2.6006;
1071.3000;0.2515;2.6281;
1071.6000;0.2475;2.6131;
1071.9000;0.2458;2.6031;
1072.2000;0.2442;2.6031;
1072.5000;0.2499;2.6181;
1072.8000;0.2523;2.6331;
1073.1000;0.2458;2.6181;
1073.4000;0.2466;2.6256;
1073.7000;0.2450;2.6156;
1074.0000;0.2442;2.6131;
1074.3000;0.2377;2.5906;
1074.6000;0.2466;2.6256;
1074.9000;0.2458;2.6206;
1075.2000;0.2458;2.6206;
1075.5000;0.2475;2.6206;
1075.8000;0.2434;2.6131;
1076.1000;0.2466;2.6231;
1076.4000;0.2458;2.6156;
1076.7000;0.2409;2.5981;
1077.0000;0.2491;2.6181;
1077.3000;0.2377;2.5881;
1077.6000;0.2466;2.6106;
1077.9000;0.2475;2.6081;
1078.2000;0.2491;2.6156;
1078.5000;0.2466;2.6081;
1078.8000;0.2450;2.6081;
1079.1000;0.2450;2.6106;
1079.4000;0.2466;2.6181;
1079.7000;0.2442;2.6106;
1080.0000;0.2458;2.6106;
1080.3000;0.2466;2.5981;
1080.6000;0.2458;2.6056;
1080.9000;0.2458;2.6131;
1081.2000;0.2450;2.6206;
1081.5000;0.2483;2.6381;
1081.8000;0.2507;2.6356;
1082.1000;0.2466;2.6231;
1082.4000;0.2475;2.6306;
1082.7000;0.2466;2.6256;
1083.0000;0.2491;2.6281;
1083.3000;0.2450;2.6181;
1083.6000;0.2458;2.6131;
1083.9000;0.2491;2.6206;
1084.2000;0.2458;2.6181;
1084.5000;0.2434;2.6056;
1084.8000;0.2499;2.6231;
1085.1000;0.2450;2.6181;
1085.4000;0.2507;2.6256;
1085.7000;0.2466;2.6131;
1086.0000;0.2466;2.6081;
1086.3000;0.2523;2.6281;
1086.6000;0.2466;2.6031;
1086.9000;0.2475;2.6131;
1087.2000;0.2466;2.6081;
1087.5000;0.2466;2.6006;
1087.8000;0.2426;2.5856;
1088.1000;0.2434;2.5831;
1088.4000;0.2458;2.5981;
1088.7000;0.2450;2.5981;
1089.0000;0.2458;2.6131;
1089.3000;0.2458;2.6081;
1089.6000;0.2418;2.6031;
1089.9000;0.2450;2.6081;
1090.2000;0.2401;2.6006;
1090.5000;0.2475;2.6281;
1090.8000;0.2483;2.6306;
1091.1000;0.2393;2.6056;
1091.4000;0.2475;2.6231;
1091.7000;0.2393;2.5931;
1092.0000;0.2450;2.6156;
1092.3000;0.2450;2.6156;
1092.6000;0.2418;2.6056;
1092.9000;0.2491;2.6356;
1093.2000;0.2450;2.6281;
1093.5000;0.2450;2.6256;
1093.8000;0.2475;2.6407;
1094.1000;0.2458;2.6432;
1094.4000;0.2458;2.6356;
1094.7000;0.2475;2.6256;
1095.0000;0.2466;2.6256;
1095.3000;0.2475;2.6231;
1095.6000;0.2483;2.6206;
1095.9000;0.2458;2.6156;
1096.2000;0.2450;2.6106;
1096.5000;0.2475;2.6156;
1096.8000;0.2466;2.6206;
1097.1000;0.2475;2.6256;
1097.4000;0.2556;2.6457;
1097.7000;0.2475;2.6181;
1098.0000;0.2499;2.6206;
1098.3000;0.2466;2.6181;
1098.6000;0.2466;2.6231;
1098.9000;0.2352;2.5856;
1099.2000;0.2491;2.6231;
1099.5000;0.2466;2.6156;
1099.8000;0.2450;2.6106;
1100.1000;0.2442;2.6056;
1100.4000;0.2466;2.6156;
1100.7000;0.2475;2.6231;
1101.0000;0.2499;2.6331;
1101.3000;0.2442;2.6081;
1101.6000;0.2458;2.6081;
1101.9000;0.2475;2.6131;
1102.2000;0.2491;2.6231;
1102.5000;0.2442;2.6081;
1102.8000;0.2466;2.6156;
1103.1000;0.2499;2.6206;
1103.4000;0.2483;2.6106;
1103.7000;0.2458;2.6081;
1104.0000;0.2458;2.6006;
1104.3000;0.2483;2.6131;
1104.6000;0.2458;2.6106;
1104.9000;0.2442;2.6056;
1105.2000;0.2450;2.6081;
1105.5000;0.2475;2.6131;
1105.8000;0.2491;2.6156;
1106.1000;0.2499;2.6181;
1106.4000;0.2458;2.6106;
1106.7000;0.2466;2.6206;
1107.0000;0.2442;2.6156;
1107.3000;0.2426;2.6156;
1107.6000;0.2458;2.6131;
1107.9000;0.2426;2.6056;
1108.2000;0.2458;2.6181;
1108.5000;0.2483;2.6256;
1108.8000;0.2466;2.6106;
1109.1000;0.2475;2.5956;
1109.4000;0.2491;2.5931;
1109.7000;0.2466;2.5931;
1110.0000;0.2442;2.5931;
1110.3000;0.2483;2.6106;
1110.6000;0.2483;2.6131;
1110.9000;0.2475;2.6181;
1111.2000;0.2491;2.6156;
1111.5000;0.2434;2.5981;
1111.8000;0.2434;2.5931;
1112.1000;0.2450;2.6031;
1112.4000;0.2523;2.6181;
1112.7000;0.2475;2.6056;
1113.0000;0.2442;2.5931;
1113.3000;0.2475;2.5981;
1113.6000;0.2491;2.6081;
1113.9000;0.2466;2.5956;
1114.2000;0.2507;2.5981;
1114.5000;0.2475;2.5931;
1114.8000;0.2393;2.5731;
1115.1000;0.2442;2.5906;
1115.4000;0.2434;2.5856;
1115.7000;0.2572;2.6281;
1116.0000;0.2434;2.5881;
1116.3000;0.2466;2.6006;
1116.6000;0.2426;2.5956;
1116.9000;0.2450;2.5981;
1117.2000;0.2458;2.5931;
1117.5000;0.2442;2.5881;
1117.8000;0.2507;2.6106;
1118.1000;0.2458;2.5956;
1118.4000;0.2475;2.6031;
1118.7000;0.2483;2.6056;
1119.0000;0.2450;2.5981;
1119.3000;0.2483;2.6031;
1119.6000;0.2548;2.6206;
1119.9000;0.2458;2.5881;
1120.2000;0.2418;2.5756;
1120.5000;0.2475;2.5906;
1120.8000;0.2466;2.5981;
1121.1000;0.2483;2.6056;
1121.4000;0.2442;2.6081;
1121.7000;0.2475;2.6031;
1122.0000;0.2475;2.6106;
1122.3000;0.2450;2.6031;
1122.6000;0.2458;2.6031;
1122.9000;0.2532;2.6231;
1123.2000;0.2450;2.6081;
1123.5000;0.2426;2.6031;
1123.8000;0.2434;2.6006;
1124.1000;0.2458;2.6056;
1124.4000;0.2475;2.6206;
1124.7000;0.2466;2.6156;
1125.0000;0.2458;2.6056;
1125.3000;0.2475;2.6031;
1125.6000;0.2458;2.5956;
1125.9000;0.2523;2.6081;
1126.2000;0.2466;2.5906;
1126.5000;0.2483;2.5956;
1126.8000;0.2450;2.5981;
1127.1000;0.2458;2.5981;
1127.4000;0.2352;2.5731;
1127.7000;0.2466;2.5931;
1128.0000;0.2442;2.5856;
1128.3000;0.2442;2.5756;
1128.6000;0.2458;2.5781;
1128.9000;0.2466;2.5831;
1129.2000;0.2458;2.5806;
1129.5000;0.2434;2.5681;
1129.8000;0.2499;2.5806;
1130.1000;0.2369;2.5430;
1130.4000;0.2458;2.5731;
1130.7000;0.2458;2.5606;
1131.0000;0.2466;2.5606;
1131.3000;0.2450;2.5606;
1131.6000;0.2418;2.5581;
1131.9000;0.2393;2.5556;
1132.2000;0.2450;2.5631;
1132.5000;0.2483;2.5656;
1132.8000;0.2458;2.5556;
1133.1000;0.2466;2.5505;
1133.4000;0.2385;2.5455;
1133.7000;0.2491;2.5781;
1134.0000;0.2442;2.5706;
1134.3000;0.2458;2.5706;
1134.6000;0.2540;2.5931;
1134.9000;0.2466;2.5856;
1135.2000;0.2442;2.5906;
1135.5000;0.2458;2.5981;
1135.8000;0.2475;2.6031;
1136.1000;0.2466;2.6081;
1136.4000;0.2540;2.6281;
1136.7000;0.2458;2.5981;
1137.0000;0.2393;2.5806;
1137.3000;0.2450;2.5956;
1137.6000;0.2336;2.5556;
1137.9000;0.2466;2.5831;
1138.2000;0.2466;2.5881;
1138.5000;0.2523;2.6031;
1138.8000;0.2475;2.5881;
1139.1000;0.2475;2.5881;
1139.4000;0.2483;2.5956;
1139.7000;0.2393;2.5756;
1140.0000;0.2483;2.5931;
1140.3000;0.2475;2.5881;
1140.6000;0.2385;2.5530;
1140.9000;0.2466;2.5781;
1141.2000;0.2458;2.5756;
1141.5000;0.2475;2.5756;
1141.8000;0.2442;2.5756;
1142.1000;0.2466;2.5781;
1142.4000;0.2466;2.5731;
1142.7000;0.2483;2.5781;
1143.0000;0.2483;2.5681;
1143.3000;0.2466;2.5681;
1143.6000;0.2466;2.5656;
1143.9000;0.2466;2.5706;
1144.2000;0.2466;2.5656;
1144.5000;0.2458;2.5656;
1144.8000;0.2475;2.5631;
1145.1000;0.2466;2.5656;
1145.4000;0.2475;2.5731;
1145.7000;0.2426;2.5606;
1146.0000;0.2466;2.5581;
1146.3000;0.2466;2.5681;
1146.6000;0.2450;2.5606;
1146.9000;0.2450;2.5631;
1147.2000;0.2458;2.5656;
1147.5000;0.2442;2.5581;
1147.8000;0.2458;2.5631;
1148.1000;0.2458;2.5631;
1148.4000;0.2401;2.5581;
1148.7000;0.2523;2.5956;
1149.0000;0.2466;2.5756;
1149.3000;0.2458;2.5606;
1149.6000;0.2352;2.5380;
1149.9000;0.2401;2.5556;
1150.2000;0.2442;2.5631;
1150.5000;0.2483;2.5731;
1150.8000;0.2466;2.5706;
1151.1000;0.2491;2.5806;
1151.4000;0.2475;2.5681;
1151.7000;0.2442;2.5631;
1152.0000;0.2442;2.5731;
1152.3000;0.2466;2.5831;
1152.6000;0.2466;2.5881;
1152.9000;0.2515;2.6031;
1153.2000;0.2458;2.5856;
1153.5000;0.2466;2.5981;
1153.8000;0.2466;2.5956;
1154.1000;0.2442;2.5931;
1154.4000;0.2458;2.5881;
1154.7000;0.2466;2.5981;
1155.0000;0.2450;2.6081;
1155.3000;0.2499;2.6206;
1155.6000;0.2483;2.6106;
1155.9000;0.2458;2.6056;
1156.2000;0.2475;2.6131;
1156.5000;0.2442;2.6156;
1156.8000;0.2466;2.6156;
1157.1000;0.2491;2.6281;
1157.4000;0.2442;2.6081;
1157.7000;0.2458;2.6056;
1158.0000;0.2466;2.6031;
1158.3000;0.2597;2.6407;
1158.6000;0.2458;2.6056;
1158.9000;0.2466;2.6056;
1159.2000;0.2475;2.5956;
1159.5000;0.2458;2.5906;
1159.8000;0.2637;2.6381;
1160.1000;0.2507;2.6031;
1160.4000;0.2442;2.5781;
1160.7000;0.2499;2.5931;
1161.0000;0.2418;2.5756;
1161.3000;0.2458;2.5881;
1161.6000;0.2458;2.5906;
1161.9000;0.2466;2.5931;
1162.2000;0.2458;2.5906;
1162.5000;0.2466;2.5881;
1162.8000;0.2475;2.5931;
1163.1000;0.2507;2.5956;
1163.4000;0.2475;2.5856;
1163.7000;0.2466;2.5856;
1164.0000;0.2475;2.5931;
1164.3000;0.2466;2.5906;
1164.6000;0.2450;2.5956;
1164.9000;0.2450;2.5931;
1165.2000;0.2458;2.5981;
1165.5000;0.2475;2.5981;
1165.8000;0.2483;2.6031;
1166.1000;0.2458;2.6031;
1166.4000;0.2458;2.6031;
1166.7000;0.2483;2.5981;
1167.0000;0.2499;2.6081;
1167.3000;0.2458;2.6031;
1167.6000;0.2475;2.6056;
1167.9000;0.2483;2.6131;
1168.2000;0.2475;2.6056;
1168.5000;0.2540;2.6331;
1168.8000;0.2466;2.6056;
1169.1000;0.2458;2.6031;
1169.4000;0.2475;2.6006;
1169.7000;0.2523;2.6081;
1170.0000;0.2507;2.6031;
1170.3000;0.2426;2.5781;
1170.6000;0.2458;2.5831;
1170.9000;0.2450;2.5906;
1171.2000;0.2458;2.5931;
1171.5000;0.2475;2.5981;
1171.8000;0.2613;2.6407;
1172.1000;0.2466;2.6031;
1172.4000;0.2466;2.6131;
1172.7000;0.2458;2.6056;
1173.0000;0.2475;2.6081;
1173.3000;0.2515;2.6106;
1173.6000;0.2483;2.6031;
1173.9000;0.2491;2.6081;
1174.2000;0.2434;2.5856;
1174.5000;0.2483;2.6056;
1174.8000;0.2450;2.6006;
1175.1000;0.2409;2.5981;
1175.4000;0.2466;2.6031;
1175.7000;0.2483;2.6006;
1176.0000;0.2450;2.5931;
1176.3000;0.2466;2.5981;
1176.6000;0.2466;2.5981;
1176.9000;0.2532;2.6206;
1177.2000;0.2475;2.5931;
1177.5000;0.2458;2.5981;
1177.8000;0.2491;2.6081;
1178.1000;0.2507;2.6156;
1178.4000;0.2442;2.6031;
1178.7000;0.2540;2.6256;
1179.0000;0.2450;2.6031;
1179.3000;0.2483;2.6081;
1179.6000;0.2483;2.6131;
1179.9000;0.2507;2.6231;
1180.2000;0.2523;2.6231;
1180.5000;0.2434;2.5931;
1180.8000;0.2475;2.6106;
1181.1000;0.2409;2.5856;
1181.4000;0.2458;2.5906;
1181.7000;0.2466;2.6006;
1182.0000;0.2466;2.6106;
1182.3000;0.2450;2.6056;
1182.6000;0.2458;2.6106;
1182.9000;0.2466;2.6231;
1183.2000;0.2483;2.6206;
1183.5000;0.2393;2.5981;
1183.8000;0.2475;2.6156;
1184.1000;0.2580;2.6432;
1184.4000;0.2466;2.6131;
1184.7000;0.2466;2.6131;
1185.0000;0.2491;2.6131;
1185.3000;0.2450;2.6031;
1185.6000;0.2442;2.6031;
1185.9000;0.2483;2.6106;
1186.2000;0.2540;2.6206;
1186.5000;0.2475;2.5956;
1186.8000;0.2458;2.5981;
1187.1000;0.2466;2.6106;
1187.4000;0.2491;2.6181;
1187.7000;0.2450;2.5981;
1188.0000;0.2597;2.6432;
1188.3000;0.2475;2.6081;
1188.6000;0.2491;2.6081;
1188.9000;0.2483;2.6056;
1189.2000;0.2483;2.6006;
1189.5000;0.2450;2.5906;
1189.8000;0.2483;2.5906;
1190.1000;0.2483;2.5931;
1190.4000;0.2434;2.5856;
1190.7000;0.2458;2.5956;
1191.0000;0.2442;2.5906;
1191.3000;0.2458;2.5906;
1191.6000;0.2475;2.5906;
1191.9000;0.2483;2.5881;
1192.2000;0.2466;2.5831;
1192.5000;0.2458;2.5756;
1192.8000;0.2483;2.5806;
1193.1000;0.2483;2.5881;
1193.4000;0.2475;2.5881;
1193.7000;0.2458;2.5781;
1194.0000;0.2466;2.5906;
1194.3000;0.2418;2.5831;
1194.6000;0.2442;2.5931;
1194.9000;0.2475;2.5981;
1195.2000;0.2475;2.5931;
1195.5000;0.2450;2.5881;
1195.8000;0.2466;2.6031;
1196.1000;0.2458;2.6056;
1196.4000;0.2483;2.6181;
1196.7000;0.2458;2.6206;
1197.0000;0.2475;2.6181;
1197.3000;0.2466;2.6231;
1197.6000;0.2458;2.6281;
1197.9000;0.2442;2.6181;
1198.2000;0.2450;2.6106;
1198.5000;0.2475;2.6181;
1198.8000;0.2475;2.6206;
1199.1000;0.2466;2.6156;
1199.4000;0.2442;2.6081;
1199.7000;0.2458;2.6106;
1200.0000;0.2466;2.6156;
1200.3000;0.2466;2.6181;
1200.6000;0.2491;2.6156;
1200.9000;0.2458;2.6156;
1201.2000;0.2466;2.6131;
1201.5000;0.2466;2.6106;
1201.8000;0.2466;2.6106;
1202.1000;0.2426;2.6006;
1202.4000;0.2434;2.6031;
1202.7000;0.2491;2.6106;
1203.0000;0.2466;2.5906;
1203.3000;0.2458;2.6056;
1203.6000;0.2450;2.6081;
1203.9000;0.2499;2.6181;
1204.2000;0.2442;2.6106;
1204.5000;0.2515;2.6331;
1204.8000;0.2499;2.6231;
1205.1000;0.2458;2.6131;
1205.4000;0.2475;2.6181;
1205.7000;0.2466;2.6306;
1206.0000;0.2418;2.6281;
1206.3000;0.2458;2.6256;
1206.6000;0.2393;2.6081;
1206.9000;0.2564;2.6532;
1207.2000;0.2556;2.6557;
1207.5000;0.2491;2.6356;
1207.8000;0.2458;2.6231;
1208.1000;0.2418;2.6156;
1208.4000;0.2499;2.6457;
1208.7000;0.2466;2.6331;
1209.0000;0.2401;2.6106;
1209.3000;0.2483;2.6256;
1209.6000;0.2466;2.6106;
1209.9000;0.2475;2.6156;
1210.2000;0.2548;2.6432;
1210.5000;0.2475;2.6181;
1210.8000;0.2450;2.6156;
1211.1000;0.2475;2.6206;
1211.4000;0.2466;2.6181;
1211.7000;0.2475;2.6131;
1212.0000;0.2458;2.6006;
1212.3000;0.2442;2.5981;
1212.6000;0.2491;2.6031;
1212.9000;0.2483;2.6131;
1213.2000;0.2507;2.6106;
1213.5000;0.2499;2.6056;
1213.8000;0.2491;2.6056;
1214.1000;0.2466;2.6056;
1214.4000;0.2458;2.6031;
1214.7000;0.2466;2.6031;
1215.0000;0.2491;2.6156;
1215.3000;0.2475;2.6081;
1215.6000;0.2434;2.5931;
1215.9000;0.2475;2.5956;
1216.2000;0.2499;2.6006;
1216.5000;0.2434;2.5931;
1216.8000;0.2483;2.6106;
1217.1000;0.2434;2.5981;
1217.4000;0.2409;2.5856;
1217.7000;0.2491;2.6206;
1218.0000;0.2483;2.6181;
1218.3000;0.2450;2.6156;
1218.6000;0.2466;2.6281;
1218.9000;0.2475;2.6256;
1219.2000;0.2450;2.6231;
1219.5000;0.2401;2.6131;
1219.8000;0.2507;2.6381;
1220.1000;0.2483;2.6306;
1220.4000;0.2475;2.6331;
1220.7000;0.2466;2.6281;
1221.0000;0.2475;2.6256;
1221.3000;0.2466;2.6256;
1221.6000;0.2475;2.6156;
1221.9000;0.2540;2.6432;
1222.2000;0.2466;2.6231;
1222.5000;0.2466;2.6131;
1222.8000;0.2475;2.6181;
1223.1000;0.2458;2.6181;
1223.4000;0.2491;2.6156;
1223.7000;0.2466;2.6081;
1224.0000;0.2475;2.6056;
1224.3000;0.2458;2.5981;
1224.6000;0.2483;2.6106;
1224.9000;0.2499;2.6206;
1225.2000;0.2475;2.6181;
1225.5000;0.2466;2.6131;
1225.8000;0.2466;2.6156;
1226.1000;0.2475;2.6156;
1226.4000;0.2426;2.6006;
1226.7000;0.2466;2.6131;
1227.0000;0.2458;2.6056;
1227.3000;0.2466;2.6156;
1227.6000;0.2475;2.6181;
1227.9000;0.2409;2.5956;
1228.2000;0.2483;2.6056;
1228.5000;0.2458;2.6156;
1228.8000;0.2328;2.5756;
1229.1000;0.2499;2.6156;
1229.4000;0.2499;2.6231;
1229.7000;0.2434;2.6081;
1230.0000;0.2458;2.6081;
1230.3000;0.2450;2.6006;
1230.6000;0.2450;2.6106;
1230.9000;0.2458;2.6056;
1231.2000;0.2458;2.6031;
1231.5000;0.2466;2.6081;
1231.8000;0.2548;2.6356;
1232.1000;0.2475;2.6156;
1232.4000;0.2491;2.6231;
1232.7000;0.2499;2.6281;
1233.0000;0.2426;2.6081;
1233.3000;0.2475;2.6156;
1233.6000;0.2466;2.6206;
1233.9000;0.2491;2.6206;
1234.2000;0.2466;2.6056;
1234.5000;0.2450;2.6131;
1234.8000;0.2523;2.6356;
1235.1000;0.2483;2.6256;
1235.4000;0.2475;2.6106;
1235.7000;0.2450;2.6106;
1236.0000;0.2450;2.6131;
1236.3000;0.2483;2.6206;
1236.6000;0.2483;2.6231;
1236.9000;0.2450;2.6206;
1237.2000;0.2450;2.6181;
1237.5000;0.2385;2.6056;
1237.8000;0.2434;2.6231;
1238.1000;0.2458;2.6306;
1238.4000;0.2475;2.6306;
1238.7000;0.2450;2.6231;
1239.0000;0.2499;2.6331;
1239.3000;0.2458;2.6206;
1239.6000;0.2458;2.6206;
1239.9000;0.2409;2.6031;
1240.2000;0.2466;2.6181;
1240.5000;0.2548;2.6356;
1240.8000;0.2458;2.6081;
1241.1000;0.2312;2.5731;
1241.4000;0.2458;2.6206;
1241.7000;0.2450;2.6206;
1242.0000;0.2458;2.6231;
1242.3000;0.2442;2.6206;
1242.6000;0.2483;2.6281;
1242.9000;0.2442;2.6131;
1243.2000;0.2475;2.6256;
1243.5000;0.2499;2.6281;
1243.8000;0.2475;2.6156;
1244.1000;0.2475;2.6156;
1244.4000;0.2475;2.6156;
1244.7000;0.2450;2.5981;
1245.0000;0.2377;2.5806;
1245.3000;0.2475;2.6106;
1245.6000;0.2393;2.5831;
1245.9000;0.2532;2.6181;
1246.2000;0.2458;2.5881;
1246.5000;0.2434;2.5881;
1246.8000;0.2442;2.5931;
1247.1000;0.2466;2.6081;
1247.4000;0.2442;2.6131;
1247.7000;0.2458;2.6131;
1248.0000;0.2434;2.5981;
1248.3000;0.2466;2.5981;
1248.6000;0.2532;2.6106;
1248.9000;0.2483;2.5956;
1249.2000;0.2475;2.5906;
1249.5000;0.2515;2.6031;
1249.8000;0.2466;2.5981;
1250.1000;0.2483;2.6056;
1250.4000;0.2507;2.6231;
1250.7000;0.2458;2.6081;
1251.0000;0.2450;2.6156;
1251.3000;0.2458;2.6206;
1251.6000;0.2548;2.6432;
1251.9000;0.2475;2.6206;
1252.2000;0.2483;2.6081;
1252.5000;0.2466;2.6106;
1252.8000;0.2483;2.6206;
1253.1000;0.2475;2.6056;
1253.4000;0.2491;2.5981;
1253.7000;0.2393;2.5731;
1254.0000;0.2475;2.5981;
1254.3000;0.2483;2.6056;
1254.6000;0.2475;2.5956;
1254.9000;0.2483;2.5981;
1255.2000;0.2458;2.5956;
1255.5000;0.2450;2.6056;
1255.8000;0.2499;2.6206;
1256.1000;0.2466;2.6081;
1256.4000;0.2466;2.6006;
1256.7000;0.2434;2.5906;
1257.0000;0.2442;2.5931;
1257.3000;0.2466;2.5881;
1257.6000;0.2450;2.5856;
1257.9000;0.2491;2.5981;
1258.2000;0.2475;2.6006;
1258.5000;0.2475;2.6006;
1258.8000;0.2483;2.5981;
1259.1000;0.2450;2.5806;
1259.4000;0.2475;2.5881;
1259.7000;0.2475;2.5931;
1260.0000;0.2491;2.6006;
1260.3000;0.2475;2.6006;
1260.6000;0.2466;2.6031;
1260.9000;0.2572;2.6381;
1261.2000;0.2450;2.6006;
1261.5000;0.2540;2.6281;
1261.8000;0.2458;2.6156;
1262.1000;0.2458;2.6181;
1262.4000;0.2450;2.6081;
1262.7000;0.2483;2.6206;
1263.0000;0.2491;2.6181;
1263.3000;0.2450;2.6131;
1263.6000;0.2466;2.6206;
1263.9000;0.2475;2.6206;
1264.2000;0.2458;2.6156;
1264.5000;0.2466;2.6156;
1264.8000;0.2475;2.6206;
1265.1000;0.2475;2.6206;
1265.4000;0.2507;2.6306;
1265.7000;0.2483;2.6206;
1266.0000;0.2466;2.6331;
1266.3000;0.2466;2.6256;
1266.6000;0.2369;2.6031;
1266.9000;0.2491;2.6381;
1267.2000;0.2491;2.6281;
1267.5000;0.2458;2.6281;
1267.8000;0.2450;2.6306;
1268.1000;0.2475;2.6432;
1268.4000;0.2475;2.6582;
1268.7000;0.2450;2.6532;
1269.0000;0.2466;2.6482;
1269.3000;0.2491;2.6432;
1269.6000;0.2491;2.6432;
1269.9000;0.2466;2.6231;
1270.2000;0.2475;2.6256;
1270.5000;0.2466;2.6181;
1270.8000;0.2450;2.6131;
1271.1000;0.2352;2.5781;
1271.4000;0.2475;2.6131;
1271.7000;0.2515;2.6206;
1272.0000;0.2466;2.6106;
1272.3000;0.2466;2.6031;
1272.6000;0.2450;2.5956;
1272.9000;0.2458;2.6006;
1273.2000;0.2466;2.6056;
1273.5000;0.2515;2.6306;
1273.8000;0.2458;2.6156;
1274.1000;0.2434;2.6106;
1274.4000;0.2466;2.6156;
1274.7000;0.2466;2.6181;
1275.0000;0.2450;2.6181;
1275.3000;0.2458;2.6256;
1275.6000;0.2564;2.6507;
1275.9000;0.2483;2.6331;
1276.2000;0.2466;2.6306;
1276.5000;0.2458;2.6306;
1276.8000;0.2458;2.6231;
1277.1000;0.2483;2.6206;
1277.4000;0.2491;2.6206;
1277.7000;0.2450;2.6131;
1278.0000;0.2483;2.6281;
1278.3000;0.2466;2.6256;
1278.6000;0.2499;2.6306;
1278.9000;0.2483;2.6256;
1279.2000;0.2580;2.6607;
1279.5000;0.2491;2.6331;
1279.8000;0.2483;2.6407;
1280.1000;0.2466;2.6356;
1280.4000;0.2475;2.6381;
1280.7000;0.2491;2.6381;
1281.0000;0.2401;2.6156;
1281.3000;0.2475;2.6381;
1281.6000;0.2475;2.6281;
1281.9000;0.2507;2.6482;
1282.2000;0.2483;2.6281;
1282.5000;0.2523;2.6356;
1282.8000;0.2458;2.6031;
1283.1000;0.2450;2.6056;
1283.4000;0.2475;2.6131;
1283.7000;0.2507;2.6231;
1284.0000;0.2475;2.6156;
1284.3000;0.2466;2.6156;
1284.6000;0.2466;2.6106;
1284.9000;0.2466;2.6081;
1285.2000;0.2458;2.6131;
1285.5000;0.2434;2.5956;
1285.8000;0.2466;2.6181;
1286.1000;0.2458;2.6181;
1286.4000;0.2466;2.6156;
1286.7000;0.2466;2.5981;
1287.0000;0.2466;2.6081;
1287.3000;0.2556;2.6331;
1287.6000;0.2475;2.6156;
1287.9000;0.2491;2.6206;
1288.2000;0.2466;2.6106;
1288.5000;0.2409;2.6056;
1288.8000;0.2475;2.6156;
1289.1000;0.2450;2.6056;
1289.4000;0.2458;2.6106;
1289.7000;0.2491;2.6256;
1290.0000;0.2483;2.6256;
1290.3000;0.2450;2.6156;
1290.6000;0.2450;2.6056;
1290.9000;0.2475;2.6156;
1291.2000;0.2458;2.6106;
1291.5000;0.2483;2.6056;
1291.8000;0.2434;2.6006;
1292.1000;0.2458;2.6081;
1292.4000;0.2466;2.6081;
1292.7000;0.2466;2.6206;
1293.0000;0.2458;2.6156;
1293.3000;0.2434;2.6006;
1293.6000;0.2483;2.6131;
1293.9000;0.2523;2.6306;
1294.2000;0.2475;2.6156;
1294.5000;0.2499;2.6231;
1294.8000;0.2466;2.6181;
1295.1000;0.2475;2.6256;
1295.4000;0.2426;2.6106;
1295.7000;0.2483;2.6256;
1296.0000;0.2393;2.5956;
1296.3000;0.2483;2.6181;
1296.6000;0.2483;2.6256;
1296.9000;0.2450;2.6131;
1297.2000;0.2450;2.6106;
1297.5000;0.2548;2.6306;
1297.8000;0.2483;2.6206;
1298.1000;0.2450;2.6106;
1298.4000;0.2475;2.6281;
1298.7000;0.2450;2.6206;
1299.0000;0.2434;2.6081;
1299.3000;0.2483;2.6156;
1299.6000;0.2475;2.6156;
1299.9000;0.2466;2.6231;
1300.2000;0.2458;2.6256;
1300.5000;0.2466;2.6231;
1300.8000;0.2458;2.6231;
1301.1000;0.2393;2.6006;
1301.4000;0.2491;2.6331;
1301.7000;0.2450;2.6231;
1302.0000;0.2532;2.6582;
1302.3000;0.2483;2.6381;
1302.6000;0.2515;2.6457;
1302.9000;0.2499;2.6507;
1303.2000;0.2458;2.6407;
1303.5000;0.2483;2.6457;
1303.8000;0.2466;2.6306;
1304.1000;0.2475;2.6381;
1304.4000;0.2491;2.6306;
1304.7000;0.2458;2.6231;
1305.0000;0.2483;2.6281;
1305.3000;0.2475;2.6131;
1305.6000;0.2483;2.6156;
1305.9000;0.2458;2.6131;
1306.2000;0.2475;2.6206;
1306.5000;0.2499;2.6331;
1306.8000;0.2483;2.6281;
1307.1000;0.2458;2.6356;
1307.4000;0.2442;2.6306;
1307.7000;0.2507;2.6457;
1308.0000;0.2458;2.6331;
1308.3000;0.2361;2.6106;
1308.6000;0.2434;2.6306;
1308.9000;0.2475;2.6457;
1309.2000;0.2466;2.6331;
1309.5000;0.2491;2.6256;
1309.8000;0.2515;2.6407;
1310.1000;0.2450;2.6281;
1310.4000;0.2450;2.6281;
1310.7000;0.2442;2.6306;
1311.0000;0.2442;2.6256;
1311.3000;0.2475;2.6331;
1311.6000;0.2466;2.6356;
1311.9000;0.2458;2.6331;
1312.2000;0.2483;2.6507;
1312.5000;0.2475;2.6432;
1312.8000;0.2442;2.6256;
1313.1000;0.2458;2.6281;
1313.4000;0.2475;2.6306;
1313.7000;0.2499;2.6306;
1314.0000;0.2491;2.6356;
1314.3000;0.2475;2.6331;
1314.6000;0.2507;2.6507;
1314.9000;0.2466;2.6407;
1315.2000;0.2466;2.6407;
1315.5000;0.2450;2.6407;
1315.8000;0.2466;2.6381;
1316.1000;0.2426;2.6181;
1316.4000;0.2466;2.6381;
1316.7000;0.2523;2.6557;
1317.0000;0.2385;2.6081;
1317.3000;0.2458;2.6181;
1317.6000;0.2483;2.6306;
1317.9000;0.2442;2.6206;
1318.2000;0.2466;2.6181;
1318.5000;0.2458;2.6206;
1318.8000;0.2458;2.6256;
1319.1000;0.2507;2.6432;
1319.4000;0.2483;2.6407;
1319.7000;0.2475;2.6331;
1320.0000;0.2540;2.6507;
1320.3000;0.2466;2.6256;
1320.6000;0.2458;2.6206;
1320.9000;0.2483;2.6206;
1321.2000;0.2442;2.6081;
1321.5000;0.2401;2.5981;
1321.8000;0.2466;2.6206;
1322.1000;0.2499;2.6281;
1322.4000;0.2466;2.6206;
1322.7000;0.2458;2.6181;
1323.0000;0.2450;2.6131;
1323.3000;0.2475;2.6181;
1323.6000;0.2442;2.6131;
1323.9000;0.2450;2.6181;
1324.2000;0.2409;2.6056;
1324.5000;0.2483;2.6206;
1324.8000;0.2466;2.6131;
1325.1000;0.2483;2.6206;
1325.4000;0.2475;2.6206;
1325.7000;0.2450;2.6156;
1326.0000;0.2401;2.6006;
1326.3000;0.2450;2.6156;
1326.6000;0.2483;2.6231;
1326.9000;0.2475;2.6256;
1327.2000;0.2434;2.6131;
1327.5000;0.2483;2.6306;
1327.8000;0.2434;2.6206;
1328.1000;0.2434;2.6231;
1328.4000;0.2466;2.6231;
1328.7000;0.2401;2.5981;
1329.0000;0.2475;2.6081;
1329.3000;0.2450;2.6006;
1329.6000;0.2475;2.6006;
1329.9000;0.2418;2.5831;
1330.2000;0.2466;2.5931;
1330.5000;0.2507;2.6006;
1330.8000;0.2483;2.5981;
1331.1000;0.2475;2.5931;
1331.4000;0.2450;2.5856;
1331.7000;0.2499;2.5981;
1332.0000;0.2491;2.5981;
1332.3000;0.2475;2.5931;
1332.6000;0.2458;2.5881;
1332.9000;0.2475;2.5981;
1333.2000;0.2475;2.6031;
1333.5000;0.2491;2.6106;
1333.8000;0.2564;2.6281;
1334.1000;0.2475;2.5981;
1334.4000;0.2507;2.6181;
1334.7000;0.2548;2.6331;
1335.0000;0.2475;2.6056;
1335.3000;0.2466;2.5956;
1335.6000;0.2409;2.5756;
1335.9000;0.2458;2.5831;
1336.2000;0.2483;2.5881;
1336.5000;0.2458;2.5881;
1336.8000;0.2385;2.5556;
1337.1000;0.2523;2.6006;
1337.4000;0.2475;2.6006;
1337.7000;0.2483;2.6081;
1338.0000;0.2507;2.6156;
1338.3000;0.2466;2.6056;
1338.6000;0.2466;2.6106;
1338.9000;0.2450;2.6081;
1339.2000;0.2466;2.6081;
1339.5000;0.2507;2.6181;
1339.8000;0.2466;2.6131;
1340.1000;0.2483;2.6231;
1340.4000;0.2466;2.6056;
1340.7000;0.2442;2.5981;
1341.0000;0.2466;2.6081;
1341.3000;0.2466;2.6006;
1341.6000;0.2466;2.6031;
1341.9000;0.2507;2.6056;
1342.2000;0.2466;2.6056;
1342.5000;0.2426;2.5956;
1342.8000;0.2426;2.5931;
1343.1000;0.2483;2.6081;
1343.4000;0.2475;2.6106;
1343.7000;0.2434;2.6031;
1344.0000;0.2483;2.6156;
1344.3000;0.2466;2.6106;
1344.6000;0.2548;2.6356;
1344.9000;0.2483;2.6181;
1345.2000;0.2458;2.6031;
1345.5000;0.2320;2.5606;
1345.8000;0.2434;2.5931;
1346.1000;0.2450;2.6031;
1346.4000;0.2515;2.6231;
1346.7000;0.2426;2.6006;
1347.0000;0.2458;2.6106;
1347.3000;0.2450;2.6106;
1347.6000;0.2466;2.6256;
1347.9000;0.2458;2.6156;
1348.2000;0.2450;2.6181;
1348.5000;0.2466;2.6281;
1348.8000;0.2450;2.6306;
1349.1000;0.2532;2.6482;
1349.4000;0.2426;2.6081;
1349.7000;0.2466;2.6181;
1350.0000;0.2475;2.6181;
1350.3000;0.2458;2.6206;
1350.6000;0.2475;2.6231;
1350.9000;0.2458;2.6281;
1351.2000;0.2491;2.6256;
1351.5000;0.2466;2.6181;
1351.8000;0.2491;2.6256;
1352.1000;0.2442;2.6181;
1352.4000;0.2475;2.6281;
1352.7000;0.2491;2.6457;
1353.0000;0.2450;2.6356;
1353.3000;0.2475;2.6356;
1353.6000;0.2491;2.6331;
1353.9000;0.2475;2.6331;
1354.2000;0.2475;2.6281;
1354.5000;0.2434;2.6281;
1354.8000;0.2572;2.6507;
1355.1000;0.2458;2.6231;
1355.4000;0.2434;2.6131;
1355.7000;0.2369;2.5906;
1356.0000;0.2442;2.6081;
1356.3000;0.2483;2.6256;
1356.6000;0.2540;2.6457;
1356.9000;0.2295;2.5706;
1357.2000;0.2491;2.6181;
1357.5000;0.2515;2.6356;
1357.8000;0.2450;2.6156;
1358.1000;0.2442;2.6206;
1358.4000;0.2352;2.5931;
1358.7000;0.2450;2.6256;
1359.0000;0.2450;2.6181;
1359.3000;0.2450;2.6206;
1359.6000;0.2458;2.6056;
1359.9000;0.2499;2.6206;
1360.2000;0.2458;2.6131;
1360.5000;0.2475;2.6181;
1360.8000;0.2491;2.6256;
1361.1000;0.2499;2.6281;
1361.4000;0.2491;2.6306;
1361.7000;0.2483;2.6306;
1362.0000;0.2426;2.6131;
1362.3000;0.2458;2.6306;
1362.6000;0.2483;2.6331;
1362.9000;0.2548;2.6507;
1363.2000;0.2483;2.6231;
1363.5000;0.2458;2.6056;
1363.8000;0.2450;2.5981;
1364.1000;0.2491;2.6131;
1364.4000;0.2483;2.6081;
1364.7000;0.2491;2.6181;
1365.0000;0.2499;2.6256;
1365.3000;0.2475;2.6231;
1365.6000;0.2499;2.6206;
1365.9000;0.2336;2.5756;
1366.2000;0.2475;2.6156;
1366.5000;0.2466;2.6256;
1366.8000;0.2393;2.6106;
1367.1000;0.2458;2.6331;
1367.4000;0.2483;2.6381;
1367.7000;0.2475;2.6306;
1368.0000;0.2499;2.6331;
1368.3000;0.2466;2.6231;
1368.6000;0.2450;2.6181;
1368.9000;0.2458;2.6181;
1369.2000;0.2475;2.6281;
1369.5000;0.2483;2.6231;
1369.8000;0.2499;2.6156;
1370.1000;0.2466;2.6006;
1370.4000;0.2458;2.5981;
1370.7000;0.2605;2.6482;
1371.0000;0.2352;2.5806;
1371.3000;0.2475;2.6156;
1371.6000;0.2458;2.6056;
1371.9000;0.2458;2.6031;
1372.2000;0.2385;2.5781;
1372.5000;0.2466;2.6006;
1372.8000;0.2450;2.5931;
1373.1000;0.2491;2.6056;
1373.4000;0.2466;2.5981;
1373.7000;0.2466;2.5981;
1374.0000;0.2466;2.6031;
1374.3000;0.2475;2.6031;
1374.6000;0.2466;2.6056;
1374.9000;0.2475;2.5981;
1375.2000;0.2475;2.5956;
1375.5000;0.2475;2.5931;
1375.8000;0.2450;2.5731;
1376.1000;0.2466;2.5681;
1376.4000;0.2475;2.5831;
1376.7000;0.2523;2.6006;
1377.0000;0.2442;2.5756;
1377.3000;0.2491;2.5831;
1377.6000;0.2458;2.5731;
1377.9000;0.2475;2.5731;
1378.2000;0.2458;2.5806;
1378.5000;0.2442;2.5756;
1378.8000;0.2475;2.5956;
1379.1000;0.2475;2.6106;
1379.4000;0.2434;2.5931;
1379.7000;0.2475;2.6006;
1380.0000;0.2450;2.5881;
1380.3000;0.2434;2.5731;
1380.6000;0.2466;2.5931;
1380.9000;0.2499;2.6031;
1381.2000;0.2475;2.5981;
1381.5000;0.2515;2.6181;
1381.8000;0.2458;2.6081;
1382.1000;0.2466;2.6006;
1382.4000;0.2426;2.5881;
1382.7000;0.2442;2.6031;
1383.0000;0.2466;2.6056;
1383.3000;0.2466;2.6106;
1383.6000;0.2491;2.6081;
1383.9000;0.2475;2.6006;
1384.2000;0.2507;2.6106;
1384.5000;0.2426;2.5856;
1384.8000;0.2483;2.5931;
1385.1000;0.2475;2.5956;
1385.4000;0.2483;2.6106;
1385.7000;0.2491;2.6131;
1386.0000;0.2466;2.6106;
1386.3000;0.2483;2.6106;
1386.6000;0.2458;2.6031;
1386.9000;0.2483;2.6056;
1387.2000;0.2450;2.5906;
1387.5000;0.2475;2.6006;
1387.8000;0.2483;2.6056;
1388.1000;0.2393;2.5831;
1388.4000;0.2475;2.6106;
1388.7000;0.2434;2.5981;
1389.0000;0.2483;2.6031;
1389.3000;0.2499;2.6131;
1389.6000;0.2491;2.6131;
1389.9000;0.2466;2.5906;
1390.2000;0.2475;2.5931;
1390.5000;0.2475;2.5881;
1390.8000;0.2475;2.6031;
1391.1000;0.2491;2.6181;
1391.4000;0.2450;2.6031;
1391.7000;0.2475;2.6081;
1392.0000;0.2401;2.5906;
1392.3000;0.2458;2.6131;
1392.6000;0.2442;2.6081;
1392.9000;0.2483;2.6181;
1393.2000;0.2434;2.6031;
1393.5000;0.2597;2.6532;
1393.8000;0.2458;2.6156;
1394.1000;0.2458;2.6206;
1394.4000;0.2409;2.6206;
1394.7000;0.2450;2.6256;
1395.0000;0.2442;2.6281;
1395.3000;0.2483;2.6407;
1395.6000;0.2483;2.6381;
1395.9000;0.2466;2.6256;
1396.2000;0.2475;2.6231;
1396.5000;0.2458;2.6056;
1396.8000;0.2483;2.6031;
1397.1000;0.2409;2.5856;
1397.4000;0.2475;2.6106;
1397.7000;0.2466;2.5981;
1398.0000;0.2434;2.5856;
1398.3000;0.2507;2.5931;
1398.6000;0.2540;2.6006;
1398.9000;0.2515;2.6056;
1399.2000;0.2515;2.6006;
1399.5000;0.2418;2.5831;
1399.8000;0.2458;2.5931;
