time/ms;Fluo/V;P700 deltaI/I x10³;
-199.8000;0.2507;2.3653;
-199.5000;0.2597;2.3803;
-199.2000;0.2483;2.3528;
-198.9000;0.2507;2.3578;
-198.6000;0.2442;2.3353;
-198.3000;0.2499;2.3578;
-198.0000;0.2507;2.3603;
-197.7000;0.2491;2.3553;
-197.4000;0.2515;2.3628;
-197.1000;0.2532;2.3603;
-196.8000;0.2499;2.3478;
-196.5000;0.2523;2.3503;
-196.2000;0.2499;2.3478;
-195.9000;0.2507;2.3553;
-195.6000;0.2507;2.3553;
-195.3000;0.2475;2.3603;
-195.0000;0.2515;2.3753;
-194.7000;0.2515;2.3853;
-194.4000;0.2532;2.3879;
-194.1000;0.2475;2.3879;
-193.8000;0.2507;2.3879;
-193.5000;0.2507;2.3879;
-193.2000;0.2507;2.3979;
-192.9000;0.2475;2.3979;
-192.6000;0.2499;2.4029;
-192.3000;0.2499;2.4029;
-192.0000;0.2507;2.4079;
-191.7000;0.2491;2.4129;
-191.4000;0.2491;2.4104;
-191.1000;0.2499;2.4104;
-190.8000;0.2507;2.4129;
-190.5000;0.2523;2.4154;
-190.2000;0.2507;2.4079;
-189.9000;0.2507;2.4054;
-189.6000;0.2515;2.4129;
-189.3000;0.2434;2.3954;
-189.0000;0.2499;2.4054;
-188.7000;0.2483;2.3979;
-188.4000;0.2499;2.4004;
-188.1000;0.2515;2.3979;
-187.8000;0.2466;2.3954;
-187.5000;0.2499;2.4004;
-187.2000;0.2499;2.4029;
-186.9000;0.2499;2.4054;
-186.6000;0.2499;2.4079;
-186.3000;0.2499;2.4129;
-186.0000;0.2483;2.4104;
-185.7000;0.2499;2.4129;
-185.4000;0.2532;2.4179;
-185.1000;0.2499;2.4129;
-184.8000;0.2507;2.4104;
-184.5000;0.2507;2.4079;
-184.2000;0.2515;2.4179;
-183.9000;0.2507;2.4104;
-183.6000;0.2515;2.4129;
-183.3000;0.2499;2.4054;
-183.0000;0.2532;2.4154;
-182.7000;0.2499;2.4004;
-182.4000;0.2499;2.3929;
-182.1000;0.2507;2.4029;
-181.8000;0.2515;2.4004;
-181.5000;0.2491;2.3853;
-181.2000;0.2523;2.3979;
-180.9000;0.2507;2.3904;
-180.6000;0.2499;2.3879;
-180.3000;0.2589;2.4054;
-180.0000;0.2507;2.3853;
-179.7000;0.2515;2.3929;
-179.4000;0.2466;2.3803;
-179.1000;0.2515;2.3904;
-178.8000;0.2507;2.3828;
-178.5000;0.2507;2.3853;
-178.2000;0.2515;2.3853;
-177.9000;0.2491;2.3728;
-177.6000;0.2499;2.3728;
-177.3000;0.2491;2.3678;
-177.0000;0.2483;2.3578;
-176.7000;0.2523;2.3703;
-176.4000;0.2532;2.3728;
-176.1000;0.2507;2.3653;
-175.8000;0.2507;2.3828;
-175.5000;0.2540;2.3904;
-175.2000;0.2507;2.3853;
-174.9000;0.2507;2.3803;
-174.6000;0.2515;2.3879;
-174.3000;0.2523;2.4004;
-174.0000;0.2523;2.4004;
-173.7000;0.2507;2.3954;
-173.4000;0.2523;2.3904;
-173.1000;0.2515;2.3853;
-172.8000;0.2515;2.3904;
-172.5000;0.2499;2.3904;
-172.2000;0.2491;2.3853;
-171.9000;0.2491;2.3954;
-171.6000;0.2507;2.4029;
-171.3000;0.2499;2.4004;
-171.0000;0.2483;2.3904;
-170.7000;0.2507;2.3929;
-170.4000;0.2515;2.3979;
-170.1000;0.2499;2.3979;
-169.8000;0.2540;2.4079;
-169.5000;0.2475;2.3853;
-169.2000;0.2523;2.3904;
-168.9000;0.2515;2.3828;
-168.6000;0.2629;2.4354;
-168.3000;0.2507;2.3929;
-168.0000;0.2564;2.4179;
-167.7000;0.2483;2.3879;
-167.4000;0.2442;2.3828;
-167.1000;0.2515;2.3929;
-166.8000;0.2491;2.3879;
-166.5000;0.2523;2.4004;
-166.2000;0.2515;2.4029;
-165.9000;0.2483;2.3929;
-165.6000;0.2613;2.4279;
-165.3000;0.2580;2.4204;
-165.0000;0.2499;2.4054;
-164.7000;0.2499;2.4029;
-164.4000;0.2499;2.3979;
-164.1000;0.2654;2.4329;
-163.8000;0.2507;2.3954;
-163.5000;0.2507;2.3904;
-163.2000;0.2515;2.3904;
-162.9000;0.2499;2.3954;
-162.6000;0.2499;2.3853;
-162.3000;0.2466;2.3653;
-162.0000;0.2548;2.3979;
-161.7000;0.2499;2.3879;
-161.4000;0.2580;2.4004;
-161.1000;0.2499;2.3879;
-160.8000;0.2499;2.3803;
-160.5000;0.2491;2.3753;
-160.2000;0.2507;2.3778;
-159.9000;0.2532;2.3828;
-159.6000;0.2523;2.3778;
-159.3000;0.2499;2.3728;
-159.0000;0.2515;2.3853;
-158.7000;0.2515;2.3778;
-158.4000;0.2507;2.3703;
-158.1000;0.2523;2.3653;
-157.8000;0.2483;2.3653;
-157.5000;0.2507;2.3553;
-157.2000;0.2491;2.3553;
-156.9000;0.2499;2.3503;
-156.6000;0.2491;2.3578;
-156.3000;0.2556;2.3753;
-156.0000;0.2434;2.3503;
-155.7000;0.2491;2.3728;
-155.4000;0.2499;2.3803;
-155.1000;0.2491;2.3803;
-154.8000;0.2507;2.3853;
-154.5000;0.2499;2.3853;
-154.2000;0.2507;2.3904;
-153.9000;0.2491;2.3778;
-153.6000;0.2507;2.3803;
-153.3000;0.2499;2.3853;
-153.0000;0.2450;2.3753;
-152.7000;0.2515;2.3879;
-152.4000;0.2483;2.3853;
-152.1000;0.2523;2.3828;
-151.8000;0.2450;2.3603;
-151.5000;0.2523;2.3753;
-151.2000;0.2507;2.3653;
-150.9000;0.2507;2.3703;
-150.6000;0.2507;2.3778;
-150.3000;0.2507;2.3904;
-150.0000;0.2532;2.3853;
-149.7000;0.2507;2.3778;
-149.4000;0.2507;2.3778;
-149.1000;0.2523;2.3778;
-148.8000;0.2475;2.3628;
-148.5000;0.2499;2.3753;
-148.2000;0.2483;2.3803;
-147.9000;0.2532;2.3979;
-147.6000;0.2515;2.3954;
-147.3000;0.2426;2.3728;
-147.0000;0.2483;2.3879;
-146.7000;0.2605;2.4229;
-146.4000;0.2523;2.3929;
-146.1000;0.2475;2.3828;
-145.8000;0.2450;2.3728;
-145.5000;0.2491;2.3929;
-145.2000;0.2475;2.3853;
-144.9000;0.2491;2.3929;
-144.6000;0.2434;2.3678;
-144.3000;0.2507;2.3879;
-144.0000;0.2483;2.3803;
-143.7000;0.2540;2.3954;
-143.4000;0.2507;2.3778;
-143.1000;0.2499;2.3753;
-142.8000;0.2515;2.3728;
-142.5000;0.2491;2.3678;
-142.2000;0.2499;2.3728;
-141.9000;0.2483;2.3703;
-141.6000;0.2491;2.3778;
-141.3000;0.2523;2.3853;
-141.0000;0.2499;2.3828;
-140.7000;0.2499;2.3828;
-140.4000;0.2491;2.3879;
-140.1000;0.2499;2.3904;
-139.8000;0.2515;2.3979;
-139.5000;0.2491;2.3853;
-139.2000;0.2507;2.3853;
-138.9000;0.2475;2.3753;
-138.6000;0.2499;2.3828;
-138.3000;0.2507;2.3828;
-138.0000;0.2393;2.3603;
-137.7000;0.2491;2.3904;
-137.4000;0.2572;2.3979;
-137.1000;0.2483;2.3778;
-136.8000;0.2475;2.3803;
-136.5000;0.2491;2.3904;
-136.2000;0.2597;2.4129;
-135.9000;0.2491;2.3803;
-135.6000;0.2507;2.3904;
-135.3000;0.2499;2.3904;
-135.0000;0.2507;2.3904;
-134.7000;0.2515;2.3904;
-134.4000;0.2499;2.3929;
-134.1000;0.2491;2.3879;
-133.8000;0.2515;2.4004;
-133.5000;0.2523;2.4029;
-133.2000;0.2507;2.3979;
-132.9000;0.2507;2.3954;
-132.6000;0.2507;2.4029;
-132.3000;0.2466;2.3853;
-132.0000;0.2507;2.4004;
-131.7000;0.2483;2.3853;
-131.4000;0.2499;2.3853;
-131.1000;0.2491;2.3803;
-130.8000;0.2491;2.3879;
-130.5000;0.2532;2.4029;
-130.2000;0.2483;2.3954;
-129.9000;0.2507;2.4029;
-129.6000;0.2589;2.4229;
-129.3000;0.2507;2.4054;
-129.0000;0.2580;2.4354;
-128.7000;0.2523;2.4104;
-128.4000;0.2523;2.4029;
-128.1000;0.2442;2.3778;
-127.8000;0.2589;2.4179;
-127.5000;0.2515;2.3954;
-127.2000;0.2540;2.3904;
-126.9000;0.2466;2.3628;
-126.6000;0.2532;2.3803;
-126.3000;0.2564;2.3904;
-126.0000;0.2499;2.3753;
-125.7000;0.2466;2.3778;
-125.4000;0.2507;2.3803;
-125.1000;0.2515;2.3828;
-124.8000;0.2532;2.3954;
-124.5000;0.2507;2.3954;
-124.2000;0.2475;2.3879;
-123.9000;0.2572;2.4029;
-123.6000;0.2515;2.3929;
-123.3000;0.2499;2.3954;
-123.0000;0.2507;2.3853;
-122.7000;0.2507;2.3803;
-122.4000;0.2475;2.3678;
-122.1000;0.2515;2.3778;
-121.8000;0.2572;2.3879;
-121.5000;0.2499;2.3728;
-121.2000;0.2450;2.3578;
-120.9000;0.2499;2.3803;
-120.6000;0.2507;2.3904;
-120.3000;0.2499;2.3803;
-120.0000;0.2523;2.3778;
-119.7000;0.2507;2.3753;
-119.4000;0.2507;2.3778;
-119.1000;0.2548;2.3879;
-118.8000;0.2532;2.3904;
-118.5000;0.2523;2.3828;
-118.2000;0.2540;2.3778;
-117.9000;0.2507;2.3653;
-117.6000;0.2491;2.3628;
-117.3000;0.2507;2.3628;
-117.0000;0.2491;2.3603;
-116.7000;0.2532;2.3803;
-116.4000;0.2491;2.3703;
-116.1000;0.2507;2.3879;
-115.8000;0.2507;2.3904;
-115.5000;0.2572;2.4029;
-115.2000;0.2515;2.3828;
-114.9000;0.2515;2.3879;
-114.6000;0.2515;2.3803;
-114.3000;0.2434;2.3553;
-114.0000;0.2483;2.3628;
-113.7000;0.2483;2.3653;
-113.4000;0.2491;2.3678;
-113.1000;0.2385;2.3428;
-112.8000;0.2475;2.3703;
-112.5000;0.2499;2.3803;
-112.2000;0.2629;2.4104;
-111.9000;0.2499;2.3728;
-111.6000;0.2491;2.3728;
-111.3000;0.2507;2.3728;
-111.0000;0.2515;2.3879;
-110.7000;0.2499;2.3803;
-110.4000;0.2507;2.3828;
-110.1000;0.2491;2.3828;
-109.8000;0.2483;2.3853;
-109.5000;0.2515;2.3929;
-109.2000;0.2523;2.3954;
-108.9000;0.2532;2.3853;
-108.6000;0.2523;2.3828;
-108.3000;0.2515;2.3853;
-108.0000;0.2515;2.3778;
-107.7000;0.2515;2.3703;
-107.4000;0.2491;2.3703;
-107.1000;0.2532;2.3703;
-106.8000;0.2556;2.3828;
-106.5000;0.2507;2.3703;
-106.2000;0.2507;2.3728;
-105.9000;0.2523;2.3828;
-105.6000;0.2491;2.3853;
-105.3000;0.2523;2.3979;
-105.0000;0.2523;2.4004;
-104.7000;0.2580;2.4104;
-104.4000;0.2589;2.4104;
-104.1000;0.2507;2.3828;
-103.8000;0.2515;2.3853;
-103.5000;0.2491;2.3828;
-103.2000;0.2589;2.4129;
-102.9000;0.2483;2.3703;
-102.6000;0.2613;2.3979;
-102.3000;0.2532;2.3803;
-102.0000;0.2491;2.3628;
-101.7000;0.2483;2.3603;
-101.4000;0.2572;2.3778;
-101.1000;0.2515;2.3678;
-100.8000;0.2564;2.3803;
-100.5000;0.2532;2.3778;
-100.2000;0.2523;2.3753;
-99.9000;0.2475;2.3653;
-99.6000;0.2507;2.3803;
-99.3000;0.2418;2.3503;
-99.0000;0.2499;2.3753;
-98.7000;0.2499;2.3803;
-98.4000;0.2499;2.3778;
-98.1000;0.2523;2.3853;
-97.8000;0.2605;2.4079;
-97.5000;0.2491;2.3703;
-97.2000;0.2466;2.3678;
-96.9000;0.2483;2.3728;
-96.6000;0.2523;2.3954;
-96.3000;0.2475;2.3879;
-96.0000;0.2499;2.3904;
-95.7000;0.2499;2.3979;
-95.4000;0.2523;2.4204;
-95.1000;0.2491;2.4154;
-94.8000;0.2515;2.4104;
-94.5000;0.2523;2.4029;
-94.2000;0.2491;2.3853;
-93.9000;0.2523;2.3929;
-93.6000;0.2466;2.3753;
-93.3000;0.2564;2.3929;
-93.0000;0.2491;2.3678;
-92.7000;0.2499;2.3678;
-92.4000;0.2515;2.3803;
-92.1000;0.2499;2.3778;
-91.8000;0.2466;2.3728;
-91.5000;0.2475;2.3678;
-91.2000;0.2475;2.3678;
-90.9000;0.2523;2.3778;
-90.6000;0.2540;2.3803;
-90.3000;0.2483;2.3753;
-90.0000;0.2507;2.3828;
-89.7000;0.2491;2.3778;
-89.4000;0.2597;2.4129;
-89.1000;0.2523;2.3979;
-88.8000;0.2475;2.3929;
-88.5000;0.2507;2.4054;
-88.2000;0.2532;2.4129;
-87.9000;0.2507;2.4104;
-87.6000;0.2507;2.4029;
-87.3000;0.2499;2.3853;
-87.0000;0.2499;2.3828;
-86.7000;0.2466;2.3753;
-86.4000;0.2532;2.3954;
-86.1000;0.2507;2.4004;
-85.8000;0.2532;2.4104;
-85.5000;0.2507;2.4179;
-85.2000;0.2507;2.4104;
-84.9000;0.2450;2.3879;
-84.6000;0.2507;2.4054;
-84.3000;0.2515;2.4104;
-84.0000;0.2491;2.4054;
-83.7000;0.2491;2.4004;
-83.4000;0.2491;2.3954;
-83.1000;0.2499;2.4004;
-82.8000;0.2523;2.3979;
-82.5000;0.2491;2.3853;
-82.2000;0.2475;2.3728;
-81.9000;0.2548;2.3879;
-81.6000;0.2442;2.3653;
-81.3000;0.2491;2.3728;
-81.0000;0.2572;2.4004;
-80.7000;0.2532;2.3929;
-80.4000;0.2507;2.3904;
-80.1000;0.2523;2.3904;
-79.8000;0.2507;2.3904;
-79.5000;0.2515;2.3828;
-79.2000;0.2523;2.3778;
-78.9000;0.2499;2.3678;
-78.6000;0.2515;2.3678;
-78.3000;0.2499;2.3753;
-78.0000;0.2523;2.3828;
-77.7000;0.2499;2.3853;
-77.4000;0.2507;2.3753;
-77.1000;0.2532;2.3678;
-76.8000;0.2466;2.3603;
-76.5000;0.2515;2.3728;
-76.2000;0.2499;2.3678;
-75.9000;0.2475;2.3728;
-75.6000;0.2475;2.3703;
-75.3000;0.2515;2.3803;
-75.0000;0.2556;2.3853;
-74.7000;0.2418;2.3628;
-74.4000;0.2507;2.3828;
-74.1000;0.2515;2.3803;
-73.8000;0.2499;2.3778;
-73.5000;0.2499;2.3828;
-73.2000;0.2507;2.3753;
-72.9000;0.2475;2.3653;
-72.6000;0.2507;2.3678;
-72.3000;0.2483;2.3603;
-72.0000;0.2491;2.3728;
-71.7000;0.2475;2.3728;
-71.4000;0.2507;2.3753;
-71.1000;0.2507;2.3753;
-70.8000;0.2523;2.3728;
-70.5000;0.2483;2.3728;
-70.2000;0.2548;2.3979;
-69.9000;0.2646;2.4229;
-69.6000;0.2548;2.3979;
-69.3000;0.2507;2.3954;
-69.0000;0.2409;2.3678;
-68.7000;0.2507;2.3954;
-68.4000;0.2483;2.3904;
-68.1000;0.2466;2.3853;
-67.8000;0.2523;2.4079;
-67.5000;0.2401;2.3728;
-67.2000;0.2450;2.3904;
-66.9000;0.2523;2.4079;
-66.6000;0.2483;2.3954;
-66.3000;0.2450;2.3954;
-66.0000;0.2499;2.3929;
-65.7000;0.2475;2.3778;
-65.4000;0.2580;2.3979;
-65.1000;0.2597;2.4004;
-64.8000;0.2507;2.3753;
-64.5000;0.2597;2.3904;
-64.2000;0.2499;2.3703;
-63.9000;0.2515;2.3703;
-63.6000;0.2507;2.3753;
-63.3000;0.2507;2.3678;
-63.0000;0.2597;2.3929;
-62.7000;0.2515;2.3753;
-62.4000;0.2507;2.3803;
-62.1000;0.2491;2.3728;
-61.8000;0.2523;2.3828;
-61.5000;0.2507;2.3753;
-61.2000;0.2491;2.3728;
-60.9000;0.2523;2.3803;
-60.6000;0.2507;2.3803;
-60.3000;0.2483;2.3803;
-60.0000;0.2548;2.4004;
-59.7000;0.2523;2.4079;
-59.4000;0.2499;2.4004;
-59.1000;0.2426;2.3653;
-58.8000;0.2515;2.3879;
-58.5000;0.2523;2.3879;
-58.2000;0.2662;2.4279;
-57.9000;0.2507;2.3803;
-57.6000;0.2499;2.3753;
-57.3000;0.2589;2.3954;
-57.0000;0.2499;2.3703;
-56.7000;0.2532;2.3853;
-56.4000;0.2507;2.3828;
-56.1000;0.2507;2.3778;
-55.8000;0.2540;2.3904;
-55.5000;0.2475;2.3653;
-55.2000;0.2572;2.3979;
-54.9000;0.2499;2.3803;
-54.6000;0.2556;2.3904;
-54.3000;0.2515;2.3853;
-54.0000;0.2483;2.3753;
-53.7000;0.2515;2.3929;
-53.4000;0.2507;2.3828;
-53.1000;0.2418;2.3453;
-52.8000;0.2458;2.3603;
-52.5000;0.2515;2.3803;
-52.2000;0.2532;2.3879;
-51.9000;0.2483;2.3653;
-51.6000;0.2499;2.3703;
-51.3000;0.2515;2.3753;
-51.0000;0.2564;2.4029;
-50.7000;0.2418;2.3678;
-50.4000;0.2491;2.3954;
-50.1000;0.2523;2.3954;
-49.8000;0.2589;2.4204;
-49.5000;0.2523;2.4054;
-49.2000;0.2491;2.4029;
-48.9000;0.2466;2.3879;
-48.6000;0.2475;2.3929;
-48.3000;0.2450;2.3828;
-48.0000;0.2515;2.4029;
-47.7000;0.2491;2.4029;
-47.4000;0.2491;2.4054;
-47.1000;0.2507;2.4104;
-46.8000;0.2491;2.4054;
-46.5000;0.2499;2.4079;
-46.2000;0.2499;2.4029;
-45.9000;0.2507;2.4079;
-45.6000;0.2515;2.4054;
-45.3000;0.2483;2.4054;
-45.0000;0.2499;2.4104;
-44.7000;0.2515;2.4179;
-44.4000;0.2499;2.4079;
-44.1000;0.2499;2.4004;
-43.8000;0.2491;2.4004;
-43.5000;0.2540;2.4129;
-43.2000;0.2532;2.4229;
-42.9000;0.2540;2.4229;
-42.6000;0.2450;2.3979;
-42.3000;0.2507;2.4004;
-42.0000;0.2491;2.3954;
-41.7000;0.2499;2.3879;
-41.4000;0.2507;2.3979;
-41.1000;0.2491;2.3954;
-40.8000;0.2523;2.4029;
-40.5000;0.2507;2.3929;
-40.2000;0.2475;2.3778;
-39.9000;0.2507;2.3879;
-39.6000;0.2523;2.3979;
-39.3000;0.2491;2.3904;
-39.0000;0.2564;2.4104;
-38.7000;0.2466;2.3979;
-38.4000;0.2499;2.4129;
-38.1000;0.2507;2.4129;
-37.8000;0.2483;2.4104;
-37.5000;0.2507;2.4129;
-37.2000;0.2475;2.4054;
-36.9000;0.2466;2.4129;
-36.6000;0.2507;2.4154;
-36.3000;0.2507;2.4179;
-36.0000;0.2483;2.4079;
-35.7000;0.2507;2.4204;
-35.4000;0.2540;2.4329;
-35.1000;0.2532;2.4304;
-34.8000;0.2532;2.4379;
-34.5000;0.2507;2.4254;
-34.2000;0.2507;2.4279;
-33.9000;0.2507;2.4329;
-33.6000;0.2548;2.4429;
-33.3000;0.2662;2.4730;
-33.0000;0.2491;2.4254;
-32.7000;0.2548;2.4379;
-32.4000;0.2491;2.4179;
-32.1000;0.2532;2.4304;
-31.8000;0.2556;2.4304;
-31.5000;0.2483;2.4079;
-31.2000;0.2483;2.4004;
-30.9000;0.2515;2.4104;
-30.6000;0.2548;2.4179;
-30.3000;0.2491;2.4079;
-30.0000;0.2515;2.4154;
-29.7000;0.2507;2.4129;
-29.4000;0.2483;2.4104;
-29.1000;0.2442;2.3979;
-28.8000;0.2507;2.4104;
-28.5000;0.2507;2.4129;
-28.2000;0.2499;2.4129;
-27.9000;0.2507;2.4104;
-27.6000;0.2401;2.3853;
-27.3000;0.2572;2.4279;
-27.0000;0.2523;2.4154;
-26.7000;0.2507;2.4079;
-26.4000;0.2475;2.4029;
-26.1000;0.2491;2.4079;
-25.8000;0.2475;2.3979;
-25.5000;0.2499;2.4054;
-25.2000;0.2499;2.4054;
-24.9000;0.2523;2.4079;
-24.6000;0.2515;2.3979;
-24.3000;0.2515;2.4054;
-24.0000;0.2491;2.3929;
-23.7000;0.2556;2.4129;
-23.4000;0.2515;2.4004;
-23.1000;0.2507;2.4054;
-22.8000;0.2499;2.3929;
-22.5000;0.2466;2.3904;
-22.2000;0.2491;2.3879;
-21.9000;0.2532;2.3954;
-21.6000;0.2515;2.3929;
-21.3000;0.2491;2.3828;
-21.0000;0.2507;2.3879;
-20.7000;0.2507;2.3929;
-20.4000;0.2540;2.3979;
-20.1000;0.2466;2.3728;
-19.8000;0.2507;2.3904;
-19.5000;0.2466;2.3879;
-19.2000;0.2540;2.4054;
-18.9000;0.2483;2.3929;
-18.6000;0.2491;2.3879;
-18.3000;0.2507;2.3954;
-18.0000;0.2483;2.3879;
-17.7000;0.2532;2.4004;
-17.4000;0.2434;2.3753;
-17.1000;0.2523;2.4029;
-16.8000;0.2515;2.4029;
-16.5000;0.2491;2.4004;
-16.2000;0.2532;2.4004;
-15.9000;0.2532;2.4004;
-15.6000;0.2491;2.3904;
-15.3000;0.2515;2.3904;
-15.0000;0.2523;2.3979;
-14.7000;0.2483;2.3853;
-14.4000;0.2491;2.3954;
-14.1000;0.2499;2.4104;
-13.8000;0.2507;2.4079;
-13.5000;0.2491;2.4104;
-13.2000;0.2523;2.4104;
-12.9000;0.2507;2.4029;
-12.6000;0.2499;2.3979;
-12.3000;0.2483;2.3979;
-12.0000;0.2507;2.3979;
-11.7000;0.2548;2.4154;
-11.4000;0.2515;2.4079;
-11.1000;0.2499;2.4029;
-10.8000;0.2507;2.4004;
-10.5000;0.2507;2.4129;
-10.2000;0.2532;2.4204;
-9.9000;0.2491;2.4104;
-9.6000;0.2491;2.4079;
-9.3000;0.2507;2.4054;
-9.0000;0.2523;2.4004;
-8.7000;0.2418;2.3678;
-8.4000;0.2637;2.4204;
-8.1000;0.2523;2.3904;
-7.8000;0.2523;2.3929;
-7.5000;0.2483;2.3828;
-7.2000;0.2458;2.3803;
-6.9000;0.2499;2.3904;
-6.6000;0.2418;2.3628;
-6.3000;0.2548;2.4104;
-6.0000;0.2491;2.3853;
-5.7000;0.2499;2.3803;
-5.4000;0.2499;2.3803;
-5.1000;0.2475;2.3778;
-4.8000;0.2507;2.3828;
-4.5000;0.2507;2.3803;
-4.2000;0.2507;2.3828;
-3.9000;0.2491;2.3828;
-3.6000;0.2523;2.3929;
-3.3000;0.2483;2.3879;
-3.0000;0.2499;2.3879;
-2.7000;0.2507;2.3879;
-2.4000;0.2507;2.3929;
-2.1000;0.2475;2.3803;
-1.8000;0.2499;2.3879;
-1.5000;0.2507;2.3803;
-1.2000;0.2515;2.3828;
-0.9000;0.2532;2.3853;
-0.6000;0.2499;2.3703;
-0.3000;0.2491;2.3728;
0.0000;0.2491;2.3728;
0.3000;0.2483;2.3803;
0.6000;0.2499;2.4004;
0.9000;0.2515;2.4254;
1.2000;0.2532;2.4329;
1.5000;0.2548;2.4504;
1.8000;0.2548;2.4730;
2.1000;0.2466;2.4730;
2.4000;0.2548;2.5080;
2.7000;0.2589;2.5355;
3.0000;0.2572;2.5405;
3.3000;0.2532;2.5405;
3.6000;0.2556;2.5606;
3.9000;0.2515;2.5656;
4.2000;0.2556;2.5806;
4.5000;0.2621;2.5981;
4.8000;0.2572;2.5881;
5.1000;0.2556;2.5856;
5.4000;0.2556;2.5831;
5.7000;0.2637;2.6031;
6.0000;0.2580;2.5831;
6.3000;0.2564;2.5756;
6.6000;0.2564;2.5906;
6.9000;0.2589;2.5956;
7.2000;0.2605;2.6006;
7.5000;0.2572;2.5881;
7.8000;0.2556;2.5881;
8.1000;0.2556;2.5831;
8.4000;0.2589;2.5956;
8.7000;0.2589;2.5881;
9.0000;0.2564;2.5831;
9.3000;0.2580;2.5906;
9.6000;0.2572;2.5881;
9.9000;0.2572;2.5931;
10.2000;0.2564;2.5856;
10.5000;0.2605;2.5906;
10.8000;0.2605;2.6031;
11.1000;0.2580;2.6006;
11.4000;0.2629;2.6156;
11.7000;0.2580;2.6006;
12.0000;0.2572;2.6056;
12.3000;0.2491;2.5756;
12.6000;0.2540;2.5931;
12.9000;0.2580;2.6081;
13.2000;0.2580;2.6181;
13.5000;0.2637;2.6356;
13.8000;0.2572;2.6131;
14.1000;0.2532;2.6056;
14.4000;0.2564;2.6106;
14.7000;0.2580;2.6081;
15.0000;0.2572;2.6106;
15.3000;0.2613;2.6206;
15.6000;0.2597;2.6056;
15.9000;0.2589;2.6006;
16.2000;0.2499;2.5806;
16.5000;0.2580;2.6056;
16.8000;0.2580;2.6106;
17.1000;0.2572;2.6231;
17.4000;0.2564;2.6231;
17.7000;0.2580;2.6231;
18.0000;0.2564;2.6181;
18.3000;0.2564;2.6131;
18.6000;0.2564;2.6081;
18.9000;0.2613;2.6156;
19.2000;0.2597;2.6156;
19.5000;0.2589;2.6156;
19.8000;0.2605;2.6156;
20.1000;0.2589;2.6131;
20.4000;0.2458;2.5731;
20.7000;0.2572;2.6081;
21.0000;0.2580;2.6181;
21.3000;0.2605;2.6331;
21.6000;0.2589;2.6256;
21.9000;0.2548;2.6181;
22.2000;0.2540;2.6181;
22.5000;0.2580;2.6256;
22.8000;0.2564;2.6106;
23.1000;0.2564;2.6131;
23.4000;0.2556;2.6106;
23.7000;0.2564;2.6106;
24.0000;0.2572;2.6106;
24.3000;0.2580;2.6006;
24.6000;0.2507;2.5856;
24.9000;0.2564;2.6156;
25.2000;0.2556;2.6206;
25.5000;0.2589;2.6231;
25.8000;0.2572;2.6231;
26.1000;0.2548;2.6206;
26.4000;0.2564;2.6256;
26.7000;0.2597;2.6281;
27.0000;0.2556;2.6181;
27.3000;0.2548;2.6181;
27.6000;0.2727;2.6657;
27.9000;0.2589;2.6356;
28.2000;0.2580;2.6281;
28.5000;0.2548;2.6206;
28.8000;0.2556;2.6281;
29.1000;0.2686;2.6582;
29.4000;0.2564;2.6206;
29.7000;0.2589;2.6206;
30.0000;0.2597;2.6231;
30.3000;0.2597;2.6206;
30.6000;0.2589;2.6306;
30.9000;0.2589;2.6381;
31.2000;0.2564;2.6231;
31.5000;0.2580;2.6156;
31.8000;0.2548;2.6081;
32.1000;0.2572;2.6181;
32.4000;0.2605;2.6206;
32.7000;0.2605;2.6131;
33.0000;0.2589;2.6156;
33.3000;0.2532;2.6056;
33.6000;0.2580;2.6106;
33.9000;0.2580;2.6081;
34.2000;0.2548;2.5956;
34.5000;0.2532;2.5931;
34.8000;0.2580;2.6031;
35.1000;0.2589;2.6056;
35.4000;0.2580;2.6031;
35.7000;0.2597;2.6131;
36.0000;0.2556;2.6081;
36.3000;0.2540;2.6006;
36.6000;0.2572;2.6081;
36.9000;0.2580;2.6006;
37.2000;0.2540;2.5931;
37.5000;0.2556;2.5956;
37.8000;0.2580;2.5956;
38.1000;0.2589;2.6081;
38.4000;0.2556;2.5881;
38.7000;0.2580;2.6031;
39.0000;0.2564;2.5956;
39.3000;0.2540;2.5956;
39.6000;0.2540;2.5931;
39.9000;0.2572;2.6006;
40.2000;0.2548;2.5931;
40.5000;0.2572;2.6031;
40.8000;0.2556;2.6006;
41.1000;0.2564;2.5981;
41.4000;0.2507;2.5831;
41.7000;0.2418;2.5631;
42.0000;0.2580;2.6006;
42.3000;0.2580;2.5981;
42.6000;0.2580;2.5931;
42.9000;0.2556;2.5906;
43.2000;0.2564;2.5956;
43.5000;0.2564;2.5981;
43.8000;0.2564;2.6081;
44.1000;0.2572;2.6106;
44.4000;0.2507;2.5831;
44.7000;0.2572;2.6006;
45.0000;0.2605;2.6206;
45.3000;0.2589;2.6056;
45.6000;0.2580;2.6081;
45.9000;0.2572;2.6031;
46.2000;0.2564;2.5981;
46.5000;0.2589;2.6106;
46.8000;0.2556;2.6131;
47.1000;0.2597;2.6206;
47.4000;0.2572;2.6181;
47.7000;0.2556;2.6106;
48.0000;0.2564;2.6081;
48.3000;0.2572;2.6006;
48.6000;0.2556;2.5906;
48.9000;0.2491;2.5881;
49.2000;0.2507;2.5856;
49.5000;0.2572;2.6106;
49.8000;0.2589;2.6106;
50.1000;0.2613;2.6181;
50.4000;0.2605;2.6206;
50.7000;0.2556;2.6056;
51.0000;0.2597;2.6106;
51.3000;0.2572;2.6081;
51.6000;0.2589;2.6156;
51.9000;0.2580;2.6156;
52.2000;0.2548;2.6106;
52.5000;0.2580;2.6181;
52.8000;0.2572;2.6131;
53.1000;0.2523;2.6031;
53.4000;0.2556;2.6131;
53.7000;0.2564;2.6081;
54.0000;0.2589;2.6131;
54.3000;0.2540;2.5956;
54.6000;0.2580;2.5981;
54.9000;0.2613;2.6006;
55.2000;0.2605;2.6056;
55.5000;0.2572;2.5906;
55.8000;0.2564;2.5856;
56.1000;0.2637;2.6081;
56.4000;0.2572;2.5906;
56.7000;0.2580;2.5906;
57.0000;0.2564;2.5856;
57.3000;0.2646;2.5981;
57.6000;0.2556;2.5731;
57.9000;0.2605;2.5806;
58.2000;0.2637;2.6006;
58.5000;0.2564;2.5781;
58.8000;0.2548;2.5706;
59.1000;0.2589;2.5781;
59.4000;0.2589;2.5906;
59.7000;0.2629;2.6156;
60.0000;0.2597;2.6106;
60.3000;0.2556;2.6031;
60.6000;0.2564;2.6006;
60.9000;0.2597;2.6081;
61.2000;0.2572;2.6056;
61.5000;0.2564;2.6006;
61.8000;0.2629;2.6056;
62.1000;0.2597;2.5981;
62.4000;0.2580;2.5931;
62.7000;0.2662;2.6131;
63.0000;0.2556;2.5881;
63.3000;0.2727;2.6407;
63.6000;0.2589;2.5831;
63.9000;0.2670;2.6031;
64.2000;0.2507;2.5631;
64.5000;0.2589;2.5956;
64.8000;0.2548;2.5831;
65.1000;0.2613;2.5956;
65.4000;0.2556;2.5956;
65.7000;0.2564;2.6006;
66.0000;0.2572;2.6031;
66.3000;0.2580;2.6056;
66.6000;0.2580;2.5906;
66.9000;0.2694;2.6206;
67.2000;0.2540;2.5831;
67.5000;0.2564;2.5906;
67.8000;0.2556;2.5931;
68.1000;0.2564;2.5956;
68.4000;0.2572;2.5956;
68.7000;0.2548;2.5881;
69.0000;0.2564;2.5906;
69.3000;0.2580;2.5981;
69.6000;0.2597;2.6031;
69.9000;0.2499;2.5756;
70.2000;0.2556;2.5881;
70.5000;0.2540;2.5856;
70.8000;0.2605;2.6006;
71.1000;0.2572;2.6031;
71.4000;0.2548;2.6006;
71.7000;0.2572;2.6081;
72.0000;0.2548;2.6056;
72.3000;0.2564;2.6031;
72.6000;0.2548;2.5956;
72.9000;0.2532;2.5981;
73.2000;0.2540;2.5931;
73.5000;0.2589;2.6056;
73.8000;0.2564;2.6006;
74.1000;0.2556;2.6056;
74.4000;0.2572;2.6106;
74.7000;0.2564;2.5981;
75.0000;0.2556;2.5956;
75.3000;0.2564;2.5856;
75.6000;0.2523;2.5681;
75.9000;0.2580;2.5806;
76.2000;0.2532;2.5706;
76.5000;0.2572;2.5831;
76.8000;0.2572;2.5856;
77.1000;0.2532;2.5781;
77.4000;0.2564;2.5731;
77.7000;0.2589;2.5831;
78.0000;0.2564;2.5806;
78.3000;0.2564;2.5781;
78.6000;0.2564;2.5756;
78.9000;0.2540;2.5756;
79.2000;0.2515;2.5706;
79.5000;0.2564;2.5781;
79.8000;0.2589;2.5906;
80.1000;0.2597;2.5906;
80.4000;0.2523;2.5731;
80.7000;0.2580;2.5831;
81.0000;0.2540;2.5831;
81.3000;0.2564;2.5806;
81.6000;0.2605;2.5981;
81.9000;0.2564;2.5956;
82.2000;0.2556;2.5981;
82.5000;0.2556;2.6006;
82.8000;0.2515;2.5756;
83.1000;0.2548;2.5756;
83.4000;0.2532;2.5606;
83.7000;0.2589;2.5731;
84.0000;0.2580;2.5856;
84.3000;0.2589;2.5856;
84.6000;0.2572;2.5931;
84.9000;0.2589;2.6081;
85.2000;0.2556;2.5981;
85.5000;0.2564;2.6006;
85.8000;0.2564;2.6031;
86.1000;0.2556;2.5931;
86.4000;0.2564;2.5906;
86.7000;0.2572;2.5956;
87.0000;0.2662;2.6131;
87.3000;0.2564;2.5881;
87.6000;0.2556;2.6006;
87.9000;0.2572;2.6006;
88.2000;0.2613;2.6056;
88.5000;0.2564;2.5906;
88.8000;0.2589;2.6031;
89.1000;0.2564;2.6006;
89.4000;0.2532;2.5906;
89.7000;0.2532;2.5931;
90.0000;0.2548;2.5906;
90.3000;0.2556;2.5981;
90.6000;0.2556;2.6056;
90.9000;0.2597;2.6131;
91.2000;0.2589;2.6131;
91.5000;0.2540;2.6056;
91.8000;0.2548;2.5981;
92.1000;0.2507;2.5906;
92.4000;0.2572;2.6081;
92.7000;0.2532;2.5881;
93.0000;0.2564;2.6081;
93.3000;0.2540;2.6056;
93.6000;0.2540;2.6006;
93.9000;0.2572;2.6081;
94.2000;0.2540;2.5981;
94.5000;0.2556;2.5956;
94.8000;0.2564;2.5981;
95.1000;0.2572;2.6081;
95.4000;0.2556;2.6031;
95.7000;0.2605;2.6131;
96.0000;0.2523;2.6031;
96.3000;0.2572;2.6156;
96.6000;0.2662;2.6356;
96.9000;0.2629;2.6381;
97.2000;0.2572;2.6256;
97.5000;0.2515;2.6131;
97.8000;0.2515;2.6056;
98.1000;0.2580;2.6156;
98.4000;0.2540;2.6081;
98.7000;0.2621;2.6331;
99.0000;0.2597;2.6206;
99.3000;0.2564;2.6106;
99.6000;0.2637;2.6331;
99.9000;0.2589;2.6156;
100.2000;0.2556;2.6056;
100.5000;0.2564;2.6056;
100.8000;0.2580;2.6056;
101.1000;0.2629;2.6206;
101.4000;0.2589;2.6056;
101.7000;0.2589;2.6081;
102.0000;0.2548;2.5981;
102.3000;0.2580;2.5956;
102.6000;0.2556;2.5856;
102.9000;0.2564;2.5906;
103.2000;0.2556;2.5856;
103.5000;0.2556;2.5881;
103.8000;0.2564;2.6006;
104.1000;0.2540;2.5931;
104.4000;0.2540;2.5906;
104.7000;0.2597;2.6056;
105.0000;0.2540;2.5981;
105.3000;0.2458;2.5706;
105.6000;0.2580;2.6006;
105.9000;0.2589;2.5906;
106.2000;0.2564;2.5906;
106.5000;0.2450;2.5631;
106.8000;0.2540;2.5856;
107.1000;0.2572;2.5956;
107.4000;0.2475;2.5806;
107.7000;0.2556;2.6106;
108.0000;0.2605;2.6156;
108.3000;0.2475;2.5756;
108.6000;0.2515;2.5806;
108.9000;0.2572;2.5956;
109.2000;0.2564;2.5856;
109.5000;0.2572;2.5831;
109.8000;0.2605;2.5881;
110.1000;0.2540;2.5756;
110.4000;0.2572;2.5881;
110.7000;0.2548;2.5931;
111.0000;0.2589;2.6056;
111.3000;0.2564;2.6006;
111.6000;0.2564;2.6031;
111.9000;0.2646;2.6331;
112.2000;0.2401;2.5656;
112.5000;0.2532;2.6031;
112.8000;0.2564;2.6131;
113.1000;0.2605;2.6306;
113.4000;0.2556;2.6131;
113.7000;0.2540;2.6056;
114.0000;0.2556;2.6006;
114.3000;0.2556;2.5981;
114.6000;0.2548;2.5956;
114.9000;0.2540;2.5881;
115.2000;0.2580;2.5956;
115.5000;0.2564;2.5856;
115.8000;0.2540;2.5831;
116.1000;0.2548;2.5781;
116.4000;0.2580;2.5806;
116.7000;0.2589;2.5931;
117.0000;0.2556;2.5956;
117.3000;0.2556;2.6006;
117.6000;0.2564;2.6006;
117.9000;0.2515;2.5806;
118.2000;0.2580;2.6031;
118.5000;0.2540;2.5856;
118.8000;0.2548;2.5931;
119.1000;0.2589;2.6056;
119.4000;0.2540;2.5956;
119.7000;0.2613;2.6231;
120.0000;0.2580;2.6056;
120.3000;0.2540;2.5956;
120.6000;0.2491;2.5806;
120.9000;0.2589;2.5981;
121.2000;0.2556;2.5881;
121.5000;0.2458;2.5631;
121.8000;0.2556;2.5881;
122.1000;0.2572;2.5906;
122.4000;0.2564;2.5856;
122.7000;0.2572;2.5856;
123.0000;0.2589;2.5831;
123.3000;0.2564;2.5756;
123.6000;0.2556;2.5731;
123.9000;0.2483;2.5480;
124.2000;0.2572;2.5856;
124.5000;0.2580;2.5831;
124.8000;0.2572;2.5906;
125.1000;0.2621;2.6181;
125.4000;0.2564;2.6056;
125.7000;0.2556;2.6056;
126.0000;0.2613;2.6206;
126.3000;0.2532;2.6031;
126.6000;0.2564;2.6206;
126.9000;0.2572;2.6256;
127.2000;0.2637;2.6331;
127.5000;0.2589;2.6131;
127.8000;0.2556;2.6056;
128.1000;0.2556;2.6081;
128.4000;0.2515;2.6031;
128.7000;0.2548;2.6131;
129.0000;0.2548;2.6131;
129.3000;0.2597;2.6306;
129.6000;0.2564;2.6281;
129.9000;0.2564;2.6231;
130.2000;0.2540;2.6256;
130.5000;0.2556;2.6281;
130.8000;0.2572;2.6231;
131.1000;0.2564;2.6256;
131.4000;0.2515;2.6131;
131.7000;0.2629;2.6331;
132.0000;0.2556;2.6031;
132.3000;0.2548;2.6031;
132.6000;0.2556;2.6106;
132.9000;0.2564;2.6131;
133.2000;0.2654;2.6356;
133.5000;0.2597;2.6131;
133.8000;0.2711;2.6407;
134.1000;0.2605;2.6181;
134.4000;0.2556;2.6081;
134.7000;0.2580;2.6206;
135.0000;0.2450;2.5906;
135.3000;0.2564;2.6156;
135.6000;0.2572;2.6106;
135.9000;0.2434;2.5631;
136.2000;0.2597;2.6056;
136.5000;0.2564;2.6056;
136.8000;0.2564;2.6106;
137.1000;0.2572;2.6106;
137.4000;0.2580;2.6106;
137.7000;0.2564;2.6056;
138.0000;0.2564;2.6106;
138.3000;0.2580;2.6156;
138.6000;0.2597;2.6206;
138.9000;0.2564;2.6131;
139.2000;0.2580;2.6231;
139.5000;0.2556;2.6281;
139.8000;0.2580;2.6256;
140.1000;0.2540;2.6181;
140.4000;0.2556;2.6156;
140.7000;0.2548;2.6031;
141.0000;0.2580;2.6106;
141.3000;0.2572;2.6131;
141.6000;0.2580;2.6131;
141.9000;0.2589;2.6081;
142.2000;0.2556;2.6031;
142.5000;0.2548;2.5981;
142.8000;0.2556;2.5981;
143.1000;0.2564;2.6031;
143.4000;0.2580;2.6131;
143.7000;0.2572;2.6131;
144.0000;0.2564;2.6106;
144.3000;0.2556;2.6056;
144.6000;0.2572;2.6081;
144.9000;0.2548;2.6006;
145.2000;0.2523;2.5931;
145.5000;0.2556;2.5981;
145.8000;0.2556;2.6031;
146.1000;0.2540;2.6031;
146.4000;0.2564;2.6056;
146.7000;0.2564;2.6056;
147.0000;0.2564;2.6106;
147.3000;0.2572;2.6131;
147.6000;0.2548;2.6081;
147.9000;0.2540;2.6056;
148.2000;0.2556;2.6031;
148.5000;0.2572;2.6131;
148.8000;0.2564;2.6056;
149.1000;0.2662;2.6381;
149.4000;0.2523;2.6006;
149.7000;0.2532;2.6031;
150.0000;0.2548;2.6106;
150.3000;0.2540;2.6131;
150.6000;0.2532;2.6056;
150.9000;0.2556;2.6131;
151.2000;0.2564;2.6181;
151.5000;0.2572;2.6231;
151.8000;0.2564;2.6206;
152.1000;0.2523;2.6031;
152.4000;0.2564;2.6006;
152.7000;0.2629;2.6156;
153.0000;0.2507;2.5856;
153.3000;0.2572;2.6031;
153.6000;0.2637;2.6131;
153.9000;0.2548;2.5881;
154.2000;0.2540;2.5956;
154.5000;0.2556;2.6056;
154.8000;0.2532;2.6056;
155.1000;0.2556;2.6106;
155.4000;0.2548;2.6131;
155.7000;0.2540;2.6081;
156.0000;0.2507;2.5956;
156.3000;0.2540;2.6006;
156.6000;0.2597;2.6031;
156.9000;0.2572;2.6006;
157.2000;0.2532;2.5706;
157.5000;0.2556;2.5756;
157.8000;0.2686;2.6156;
158.1000;0.2613;2.6031;
158.4000;0.2515;2.5781;
158.7000;0.2458;2.5581;
159.0000;0.2572;2.5906;
159.3000;0.2483;2.5756;
159.6000;0.2564;2.5981;
159.9000;0.2613;2.6081;
160.2000;0.2507;2.5731;
160.5000;0.2572;2.5906;
160.8000;0.2548;2.5831;
161.1000;0.2613;2.5981;
161.4000;0.2564;2.5856;
161.7000;0.2556;2.5931;
162.0000;0.2564;2.6106;
162.3000;0.2580;2.6056;
162.6000;0.2556;2.6031;
162.9000;0.2540;2.6056;
163.2000;0.2580;2.6231;
163.5000;0.2589;2.6131;
163.8000;0.2589;2.6081;
164.1000;0.2548;2.6006;
164.4000;0.2580;2.6156;
164.7000;0.2589;2.6156;
165.0000;0.2556;2.6006;
165.3000;0.2572;2.5981;
165.6000;0.2540;2.5856;
165.9000;0.2540;2.5806;
166.2000;0.2597;2.6056;
166.5000;0.2564;2.6056;
166.8000;0.2572;2.6056;
167.1000;0.2532;2.5981;
167.4000;0.2589;2.6181;
167.7000;0.2491;2.5906;
168.0000;0.2418;2.5631;
168.3000;0.2523;2.5906;
168.6000;0.2523;2.5881;
168.9000;0.2564;2.5881;
169.2000;0.2572;2.6006;
169.5000;0.2556;2.5956;
169.8000;0.2572;2.5956;
170.1000;0.2556;2.5956;
170.4000;0.2556;2.6056;
170.7000;0.2564;2.6106;
171.0000;0.2475;2.5906;
171.3000;0.2523;2.5956;
171.6000;0.2507;2.5856;
171.9000;0.2556;2.5981;
172.2000;0.2540;2.5931;
172.5000;0.2564;2.5931;
172.8000;0.2556;2.5956;
173.1000;0.2637;2.6206;
173.4000;0.2564;2.6006;
173.7000;0.2564;2.6031;
174.0000;0.2515;2.5931;
174.3000;0.2556;2.5956;
174.6000;0.2580;2.6081;
174.9000;0.2556;2.6056;
175.2000;0.2572;2.6056;
175.5000;0.2572;2.6031;
175.8000;0.2540;2.5931;
176.1000;0.2572;2.6056;
176.4000;0.2564;2.6106;
176.7000;0.2540;2.6006;
177.0000;0.2572;2.6106;
177.3000;0.2556;2.6031;
177.6000;0.2572;2.5981;
177.9000;0.2548;2.5906;
178.2000;0.2564;2.5881;
178.5000;0.2556;2.5856;
178.8000;0.2670;2.6281;
179.1000;0.2564;2.6106;
179.4000;0.2491;2.5956;
179.7000;0.2580;2.6231;
180.0000;0.2556;2.6206;
180.3000;0.2556;2.6156;
180.6000;0.2580;2.6181;
180.9000;0.2540;2.6056;
181.2000;0.2556;2.6106;
181.5000;0.2572;2.6131;
181.8000;0.2597;2.6256;
182.1000;0.2556;2.6081;
182.4000;0.2564;2.6056;
182.7000;0.2572;2.6106;
183.0000;0.2556;2.5956;
183.3000;0.2613;2.6081;
183.6000;0.2540;2.5931;
183.9000;0.2556;2.5931;
184.2000;0.2556;2.5906;
184.5000;0.2548;2.5906;
184.8000;0.2523;2.5781;
185.1000;0.2564;2.5856;
185.4000;0.2556;2.5831;
185.7000;0.2532;2.5706;
186.0000;0.2605;2.5931;
186.3000;0.2564;2.5856;
186.6000;0.2589;2.6006;
186.9000;0.2548;2.5956;
187.2000;0.2572;2.5981;
187.5000;0.2580;2.6056;
187.8000;0.2442;2.5681;
188.1000;0.2580;2.6031;
188.4000;0.2564;2.6056;
188.7000;0.2564;2.6131;
189.0000;0.2564;2.6131;
189.3000;0.2556;2.6106;
189.6000;0.2499;2.5931;
189.9000;0.2556;2.6131;
190.2000;0.2580;2.6131;
190.5000;0.2564;2.6181;
190.8000;0.2646;2.6281;
191.1000;0.2654;2.6331;
191.4000;0.2572;2.6031;
191.7000;0.2564;2.5956;
192.0000;0.2532;2.5831;
192.3000;0.2548;2.5831;
192.6000;0.2556;2.5881;
192.9000;0.2556;2.5906;
193.2000;0.2580;2.6106;
193.5000;0.2564;2.6131;
193.8000;0.2572;2.6181;
194.1000;0.2629;2.6356;
194.4000;0.2580;2.6281;
194.7000;0.2572;2.6256;
195.0000;0.2556;2.6181;
195.3000;0.2556;2.6206;
195.6000;0.2564;2.6281;
195.9000;0.2580;2.6281;
196.2000;0.2548;2.6206;
196.5000;0.2523;2.6181;
196.8000;0.2572;2.6206;
197.1000;0.2523;2.6006;
197.4000;0.2523;2.6031;
197.7000;0.2589;2.6331;
198.0000;0.2678;2.6607;
198.3000;0.2678;2.6557;
198.6000;0.2548;2.6206;
198.9000;0.2532;2.6231;
199.2000;0.2580;2.6507;
199.5000;0.2580;2.6457;
199.8000;0.2491;2.6081;
200.1000;0.2637;2.6407;
200.4000;0.2540;2.6006;
200.7000;0.2572;2.6106;
201.0000;0.2589;2.6031;
201.3000;0.2556;2.5881;
201.6000;0.2597;2.6056;
201.9000;0.2540;2.6006;
202.2000;0.2589;2.6181;
202.5000;0.2548;2.6156;
202.8000;0.2589;2.6256;
203.1000;0.2540;2.6206;
203.4000;0.2564;2.6206;
203.7000;0.2434;2.5831;
204.0000;0.2572;2.6181;
204.3000;0.2629;2.6306;
204.6000;0.2564;2.6156;
204.9000;0.2564;2.6031;
205.2000;0.2556;2.5956;
205.5000;0.2540;2.5931;
205.8000;0.2523;2.5881;
206.1000;0.2580;2.6056;
206.4000;0.2572;2.6081;
206.7000;0.2556;2.6056;
207.0000;0.2580;2.6131;
207.3000;0.2548;2.6031;
207.6000;0.2564;2.6156;
207.9000;0.2515;2.5931;
208.2000;0.2572;2.6081;
208.5000;0.2580;2.6156;
208.8000;0.2532;2.6106;
209.1000;0.2515;2.6231;
209.4000;0.2540;2.6206;
209.7000;0.2556;2.6306;
210.0000;0.2580;2.6407;
210.3000;0.2564;2.6256;
210.6000;0.2475;2.5831;
210.9000;0.2580;2.6056;
211.2000;0.2589;2.5956;
211.5000;0.2540;2.5806;
211.8000;0.2580;2.5906;
212.1000;0.2580;2.5756;
212.4000;0.2572;2.5806;
212.7000;0.2580;2.5906;
213.0000;0.2532;2.5806;
213.3000;0.2589;2.5981;
213.6000;0.2548;2.5981;
213.9000;0.2532;2.5906;
214.2000;0.2532;2.5856;
214.5000;0.2556;2.5881;
214.8000;0.2556;2.5881;
215.1000;0.2564;2.5956;
215.4000;0.2540;2.5831;
215.7000;0.2556;2.6056;
216.0000;0.2572;2.6181;
216.3000;0.2548;2.6156;
216.6000;0.2548;2.6106;
216.9000;0.2523;2.6031;
217.2000;0.2564;2.6106;
217.5000;0.2572;2.6106;
217.8000;0.2556;2.6156;
218.1000;0.2654;2.6507;
218.4000;0.2572;2.6381;
218.7000;0.2548;2.6256;
219.0000;0.2572;2.6206;
219.3000;0.2564;2.6131;
219.6000;0.2580;2.6281;
219.9000;0.2556;2.6231;
220.2000;0.2564;2.6281;
220.5000;0.2523;2.6256;
220.8000;0.2556;2.6206;
221.1000;0.2572;2.6131;
221.4000;0.2580;2.6156;
221.7000;0.2556;2.6181;
222.0000;0.2540;2.6181;
222.3000;0.2523;2.6081;
222.6000;0.2629;2.6256;
222.9000;0.2580;2.6131;
223.2000;0.2564;2.6006;
223.5000;0.2540;2.5931;
223.8000;0.2548;2.5981;
224.1000;0.2556;2.6006;
224.4000;0.2532;2.5881;
224.7000;0.2564;2.6056;
225.0000;0.2556;2.6231;
225.3000;0.2580;2.6381;
225.6000;0.2548;2.6306;
225.9000;0.2548;2.6306;
226.2000;0.2564;2.6331;
226.5000;0.2564;2.6306;
226.8000;0.2507;2.6181;
227.1000;0.2532;2.6256;
227.4000;0.2572;2.6331;
227.7000;0.2597;2.6331;
228.0000;0.2572;2.6256;
228.3000;0.2540;2.6256;
228.6000;0.2540;2.6231;
228.9000;0.2556;2.6231;
229.2000;0.2434;2.5856;
229.5000;0.2564;2.6156;
229.8000;0.2556;2.6056;
230.1000;0.2523;2.6031;
230.4000;0.2556;2.6106;
230.7000;0.2564;2.6181;
231.0000;0.2556;2.6206;
231.3000;0.2572;2.6231;
231.6000;0.2540;2.6131;
231.9000;0.2548;2.6156;
232.2000;0.2589;2.6256;
232.5000;0.2580;2.6206;
232.8000;0.2556;2.6206;
233.1000;0.2532;2.6206;
233.4000;0.2548;2.6206;
233.7000;0.2532;2.6181;
234.0000;0.2556;2.6256;
234.3000;0.2564;2.6306;
234.6000;0.2564;2.6281;
234.9000;0.2564;2.6331;
235.2000;0.2556;2.6356;
235.5000;0.2548;2.6306;
235.8000;0.2556;2.6306;
236.1000;0.2580;2.6432;
236.4000;0.2572;2.6432;
236.7000;0.2580;2.6482;
237.0000;0.2580;2.6457;
237.3000;0.2580;2.6432;
237.6000;0.2572;2.6331;
237.9000;0.2548;2.6306;
238.2000;0.2556;2.6181;
238.5000;0.2572;2.6181;
238.8000;0.2597;2.6181;
239.1000;0.2572;2.6106;
239.4000;0.2564;2.6156;
239.7000;0.2580;2.6231;
240.0000;0.2572;2.6231;
240.3000;0.2556;2.6281;
240.6000;0.2548;2.6256;
240.9000;0.2548;2.6256;
241.2000;0.2564;2.6306;
241.5000;0.2589;2.6281;
241.8000;0.2580;2.6281;
242.1000;0.2572;2.6306;
242.4000;0.2532;2.6231;
242.7000;0.2548;2.6181;
243.0000;0.2580;2.6281;
243.3000;0.2548;2.6206;
243.6000;0.2564;2.6281;
243.9000;0.2572;2.6281;
244.2000;0.2548;2.6181;
244.5000;0.2564;2.6106;
244.8000;0.2532;2.6131;
245.1000;0.2523;2.6081;
245.4000;0.2572;2.6231;
245.7000;0.2629;2.6532;
246.0000;0.2564;2.6381;
246.3000;0.2556;2.6306;
246.6000;0.2556;2.6281;
246.9000;0.2556;2.6256;
247.2000;0.2515;2.6106;
247.5000;0.2548;2.6131;
247.8000;0.2621;2.6281;
248.1000;0.2483;2.5931;
248.4000;0.2564;2.6181;
248.7000;0.2556;2.6081;
249.0000;0.2686;2.6457;
249.3000;0.2654;2.6457;
249.6000;0.2711;2.6582;
249.9000;0.2515;2.6056;
250.2000;0.2483;2.6006;
250.5000;0.2532;2.6231;
250.8000;0.2564;2.6306;
251.1000;0.2556;2.6356;
251.4000;0.2589;2.6507;
251.7000;0.2564;2.6432;
252.0000;0.2572;2.6482;
252.3000;0.2564;2.6356;
252.6000;0.2548;2.6306;
252.9000;0.2572;2.6432;
253.2000;0.2572;2.6432;
253.5000;0.2564;2.6356;
253.8000;0.2483;2.6156;
254.1000;0.2572;2.6331;
254.4000;0.2548;2.6156;
254.7000;0.2491;2.5956;
255.0000;0.2564;2.6231;
255.3000;0.2572;2.6381;
255.6000;0.2548;2.6407;
255.9000;0.2548;2.6356;
256.2000;0.2654;2.6582;
256.5000;0.2556;2.6331;
256.8000;0.2580;2.6356;
257.1000;0.2548;2.6407;
257.4000;0.2564;2.6507;
257.7000;0.2572;2.6557;
258.0000;0.2621;2.6707;
258.3000;0.2540;2.6381;
258.6000;0.2556;2.6256;
258.9000;0.2548;2.6106;
259.2000;0.2548;2.6081;
259.5000;0.2580;2.6156;
259.8000;0.2564;2.6156;
260.1000;0.2532;2.6206;
260.4000;0.2556;2.6281;
260.7000;0.2605;2.6457;
261.0000;0.2548;2.6381;
261.3000;0.2540;2.6432;
261.6000;0.2564;2.6457;
261.9000;0.2572;2.6432;
262.2000;0.2597;2.6482;
262.5000;0.2540;2.6231;
262.8000;0.2605;2.6381;
263.1000;0.2589;2.6381;
263.4000;0.2556;2.6381;
263.7000;0.2564;2.6507;
264.0000;0.2532;2.6457;
264.3000;0.2540;2.6457;
264.6000;0.2548;2.6457;
264.9000;0.2532;2.6281;
265.2000;0.2580;2.6582;
265.5000;0.2548;2.6482;
265.8000;0.2548;2.6281;
266.1000;0.2589;2.6407;
266.4000;0.2564;2.6381;
266.7000;0.2556;2.6356;
267.0000;0.2548;2.6331;
267.3000;0.2507;2.6281;
267.6000;0.2597;2.6482;
267.9000;0.2556;2.6256;
268.2000;0.2580;2.6281;
268.5000;0.2556;2.6231;
268.8000;0.2564;2.6281;
269.1000;0.2523;2.6206;
269.4000;0.2556;2.6482;
269.7000;0.2589;2.6532;
270.0000;0.2564;2.6457;
270.3000;0.2564;2.6482;
270.6000;0.2613;2.6632;
270.9000;0.2597;2.6532;
271.2000;0.2572;2.6507;
271.5000;0.2540;2.6281;
271.8000;0.2564;2.6306;
272.1000;0.2686;2.6682;
272.4000;0.2556;2.6407;
272.7000;0.2491;2.6206;
273.0000;0.2556;2.6457;
273.3000;0.2646;2.6682;
273.6000;0.2540;2.6457;
273.9000;0.2564;2.6381;
274.2000;0.2540;2.6356;
274.5000;0.2572;2.6482;
274.8000;0.2548;2.6381;
275.1000;0.2564;2.6407;
275.4000;0.2548;2.6306;
275.7000;0.2548;2.6356;
276.0000;0.2556;2.6482;
276.3000;0.2532;2.6482;
276.6000;0.2556;2.6507;
276.9000;0.2589;2.6582;
277.2000;0.2540;2.6507;
277.5000;0.2548;2.6557;
277.8000;0.2564;2.6607;
278.1000;0.2401;2.6206;
278.4000;0.2564;2.6557;
278.7000;0.2556;2.6582;
279.0000;0.2548;2.6532;
279.3000;0.2564;2.6507;
279.6000;0.2556;2.6482;
279.9000;0.2556;2.6306;
280.2000;0.2523;2.6231;
280.5000;0.2564;2.6356;
280.8000;0.2580;2.6407;
281.1000;0.2548;2.6457;
281.4000;0.2548;2.6457;
281.7000;0.2523;2.6407;
282.0000;0.2548;2.6457;
282.3000;0.2556;2.6482;
282.6000;0.2540;2.6256;
282.9000;0.2523;2.6156;
283.2000;0.2548;2.6331;
283.5000;0.2466;2.6131;
283.8000;0.2540;2.6156;
284.1000;0.2491;2.6056;
284.4000;0.2532;2.6156;
284.7000;0.2540;2.6131;
285.0000;0.2564;2.6231;
285.3000;0.2556;2.6231;
285.6000;0.2548;2.6306;
285.9000;0.2548;2.6331;
286.2000;0.2564;2.6331;
286.5000;0.2556;2.6281;
286.8000;0.2548;2.6306;
287.1000;0.2605;2.6507;
287.4000;0.2564;2.6381;
287.7000;0.2532;2.6306;
288.0000;0.2556;2.6331;
288.3000;0.2580;2.6356;
288.6000;0.2548;2.6281;
288.9000;0.2466;2.6056;
289.2000;0.2580;2.6281;
289.5000;0.2556;2.6181;
289.8000;0.2523;2.6156;
290.1000;0.2670;2.6457;
290.4000;0.2540;2.6206;
290.7000;0.2564;2.6306;
291.0000;0.2540;2.6306;
291.3000;0.2662;2.6607;
291.6000;0.2540;2.6331;
291.9000;0.2572;2.6381;
292.2000;0.2564;2.6407;
292.5000;0.2556;2.6331;
292.8000;0.2434;2.5981;
293.1000;0.2572;2.6306;
293.4000;0.2540;2.6156;
293.7000;0.2572;2.6256;
294.0000;0.2515;2.6131;
294.3000;0.2532;2.6156;
294.6000;0.2556;2.6231;
294.9000;0.2548;2.6281;
295.2000;0.2564;2.6306;
295.5000;0.2556;2.6256;
295.8000;0.2556;2.6306;
296.1000;0.2548;2.6281;
296.4000;0.2548;2.6231;
296.7000;0.2548;2.6281;
297.0000;0.2572;2.6281;
297.3000;0.2605;2.6306;
297.6000;0.2572;2.6231;
297.9000;0.2572;2.6206;
298.2000;0.2564;2.6206;
298.5000;0.2548;2.6181;
298.8000;0.2548;2.6256;
299.1000;0.2564;2.6281;
299.4000;0.2572;2.6206;
299.7000;0.2540;2.6106;
300.0000;0.2589;2.6256;
300.3000;0.2548;2.6181;
300.6000;0.2548;2.6231;
300.9000;0.2556;2.6231;
301.2000;0.2572;2.6156;
301.5000;0.2580;2.6181;
301.8000;0.2556;2.6131;
302.1000;0.2580;2.6206;
302.4000;0.2580;2.6206;
302.7000;0.2572;2.6131;
303.0000;0.2572;2.6256;
303.3000;0.2556;2.6206;
303.6000;0.2548;2.6156;
303.9000;0.2556;2.6056;
304.2000;0.2572;2.6156;
304.5000;0.2556;2.6106;
304.8000;0.2515;2.6006;
305.1000;0.2466;2.5906;
305.4000;0.2564;2.6131;
305.7000;0.2597;2.6281;
306.0000;0.2540;2.6081;
306.3000;0.2572;2.6156;
306.6000;0.2556;2.6131;
306.9000;0.2556;2.6131;
307.2000;0.2564;2.6181;
307.5000;0.2548;2.6131;
307.8000;0.2556;2.6131;
308.1000;0.2564;2.6156;
308.4000;0.2556;2.6031;
308.7000;0.2572;2.6056;
309.0000;0.2523;2.5881;
309.3000;0.2532;2.5931;
309.6000;0.2548;2.5881;
309.9000;0.2540;2.5956;
310.2000;0.2572;2.6181;
310.5000;0.2548;2.6231;
310.8000;0.2483;2.6156;
311.1000;0.2532;2.6381;
311.4000;0.2556;2.6407;
311.7000;0.2540;2.6306;
312.0000;0.2556;2.6356;
312.3000;0.2589;2.6407;
312.6000;0.2572;2.6356;
312.9000;0.2564;2.6356;
313.2000;0.2572;2.6356;
313.5000;0.2556;2.6281;
313.8000;0.2548;2.6206;
314.1000;0.2548;2.6281;
314.4000;0.2548;2.6356;
314.7000;0.2548;2.6381;
315.0000;0.2523;2.6181;
315.3000;0.2629;2.6482;
315.6000;0.2523;2.6081;
315.9000;0.2450;2.6006;
316.2000;0.2564;2.6306;
316.5000;0.2564;2.6407;
316.8000;0.2564;2.6507;
317.1000;0.2556;2.6432;
317.4000;0.2556;2.6507;
317.7000;0.2597;2.6557;
318.0000;0.2548;2.6457;
318.3000;0.2540;2.6432;
318.6000;0.2597;2.6607;
318.9000;0.2540;2.6381;
319.2000;0.2523;2.6407;
319.5000;0.2548;2.6432;
319.8000;0.2564;2.6457;
320.1000;0.2556;2.6306;
320.4000;0.2556;2.6281;
320.7000;0.2523;2.6181;
321.0000;0.2556;2.6281;
321.3000;0.2621;2.6482;
321.6000;0.2540;2.6306;
321.9000;0.2564;2.6256;
322.2000;0.2556;2.6181;
322.5000;0.2572;2.6231;
322.8000;0.2556;2.6231;
323.1000;0.2540;2.6156;
323.4000;0.2556;2.6206;
323.7000;0.2564;2.6331;
324.0000;0.2548;2.6356;
324.3000;0.2637;2.6632;
324.6000;0.2572;2.6432;
324.9000;0.2556;2.6457;
325.2000;0.2556;2.6306;
325.5000;0.2548;2.6306;
325.8000;0.2499;2.6156;
326.1000;0.2548;2.6206;
326.4000;0.2548;2.6106;
326.7000;0.2597;2.6181;
327.0000;0.2589;2.6231;
327.3000;0.2548;2.6081;
327.6000;0.2540;2.6081;
327.9000;0.2548;2.6131;
328.2000;0.2564;2.6206;
328.5000;0.2572;2.6206;
328.8000;0.2572;2.6281;
329.1000;0.2548;2.6231;
329.4000;0.2523;2.6181;
329.7000;0.2556;2.6306;
330.0000;0.2670;2.6657;
330.3000;0.2548;2.6331;
330.6000;0.2515;2.6181;
330.9000;0.2556;2.6206;
331.2000;0.2483;2.5981;
331.5000;0.2572;2.6156;
331.8000;0.2556;2.6106;
332.1000;0.2523;2.5981;
332.4000;0.2540;2.6106;
332.7000;0.2548;2.6106;
333.0000;0.2548;2.6206;
333.3000;0.2564;2.6231;
333.6000;0.2564;2.6256;
333.9000;0.2605;2.6407;
334.2000;0.2556;2.6156;
334.5000;0.2662;2.6331;
334.8000;0.2548;2.6006;
335.1000;0.2564;2.6006;
335.4000;0.2548;2.6006;
335.7000;0.2556;2.6031;
336.0000;0.2548;2.6131;
336.3000;0.2580;2.6231;
336.6000;0.2572;2.6256;
336.9000;0.2580;2.6331;
337.2000;0.2540;2.6256;
337.5000;0.2564;2.6281;
337.8000;0.2719;2.6732;
338.1000;0.2572;2.6331;
338.4000;0.2556;2.6206;
338.7000;0.2523;2.6156;
339.0000;0.2564;2.6281;
339.3000;0.2548;2.6206;
339.6000;0.2580;2.6106;
339.9000;0.2523;2.5981;
340.2000;0.2556;2.6106;
340.5000;0.2532;2.6031;
340.8000;0.2694;2.6457;
341.1000;0.2548;2.6006;
341.4000;0.2515;2.5931;
341.7000;0.2572;2.6006;
342.0000;0.2556;2.6006;
342.3000;0.2580;2.6006;
342.6000;0.2540;2.5981;
342.9000;0.2556;2.6006;
343.2000;0.2613;2.6106;
343.5000;0.2540;2.6031;
343.8000;0.2523;2.5906;
344.1000;0.2466;2.5756;
344.4000;0.2629;2.6156;
344.7000;0.2548;2.5931;
345.0000;0.2564;2.6006;
345.3000;0.2564;2.6131;
345.6000;0.2548;2.6081;
345.9000;0.2556;2.6181;
346.2000;0.2556;2.6156;
346.5000;0.2556;2.6156;
346.8000;0.2548;2.6081;
347.1000;0.2564;2.6131;
347.4000;0.2556;2.6056;
347.7000;0.2564;2.6181;
348.0000;0.2556;2.6206;
348.3000;0.2589;2.6306;
348.6000;0.2556;2.6206;
348.9000;0.2564;2.6281;
349.2000;0.2564;2.6181;
349.5000;0.2515;2.6106;
349.8000;0.2523;2.6031;
350.1000;0.2515;2.6056;
350.4000;0.2548;2.6131;
350.7000;0.2564;2.6206;
351.0000;0.2540;2.6206;
351.3000;0.2589;2.6306;
351.6000;0.2556;2.6231;
351.9000;0.2572;2.6331;
352.2000;0.2548;2.6231;
352.5000;0.2572;2.6356;
352.8000;0.2572;2.6407;
353.1000;0.2556;2.6356;
353.4000;0.2548;2.6256;
353.7000;0.2507;2.6031;
354.0000;0.2523;2.6131;
354.3000;0.2572;2.6231;
354.6000;0.2523;2.5981;
354.9000;0.2556;2.6131;
355.2000;0.2540;2.6156;
355.5000;0.2621;2.6331;
355.8000;0.2556;2.6156;
356.1000;0.2540;2.6106;
356.4000;0.2548;2.6056;
356.7000;0.2589;2.6206;
357.0000;0.2540;2.6156;
357.3000;0.2475;2.5956;
357.6000;0.2564;2.6206;
357.9000;0.2572;2.6156;
358.2000;0.2646;2.6356;
358.5000;0.2540;2.6131;
358.8000;0.2532;2.6106;
359.1000;0.2556;2.6156;
359.4000;0.2564;2.6156;
359.7000;0.2507;2.5956;
360.0000;0.2548;2.6081;
360.3000;0.2556;2.6131;
360.6000;0.2556;2.6206;
360.9000;0.2572;2.6231;
361.2000;0.2572;2.6156;
361.5000;0.2556;2.6231;
361.8000;0.2548;2.6181;
362.1000;0.2564;2.6306;
362.4000;0.2556;2.6231;
362.7000;0.2654;2.6457;
363.0000;0.2556;2.6156;
363.3000;0.2605;2.6306;
363.6000;0.2556;2.6181;
363.9000;0.2564;2.6206;
364.2000;0.2556;2.6256;
364.5000;0.2556;2.6231;
364.8000;0.2532;2.6181;
365.1000;0.2580;2.6231;
365.4000;0.2564;2.6256;
365.7000;0.2548;2.6056;
366.0000;0.2564;2.6106;
366.3000;0.2637;2.6356;
366.6000;0.2564;2.6156;
366.9000;0.2556;2.6181;
367.2000;0.2491;2.6031;
367.5000;0.2548;2.6181;
367.8000;0.2532;2.6206;
368.1000;0.2564;2.6206;
368.4000;0.2556;2.6156;
368.7000;0.2523;2.6056;
369.0000;0.2548;2.6156;
369.3000;0.2572;2.6206;
369.6000;0.2540;2.6106;
369.9000;0.2556;2.6131;
370.2000;0.2532;2.6081;
370.5000;0.2572;2.6106;
370.8000;0.2564;2.6031;
371.1000;0.2499;2.5881;
371.4000;0.2572;2.6056;
371.7000;0.2580;2.6106;
372.0000;0.2597;2.6131;
372.3000;0.2589;2.6231;
372.6000;0.2580;2.6131;
372.9000;0.2556;2.6056;
373.2000;0.2548;2.6031;
373.5000;0.2564;2.6106;
373.8000;0.2532;2.6006;
374.1000;0.2548;2.5981;
374.4000;0.2540;2.5956;
374.7000;0.2540;2.6006;
375.0000;0.2458;2.5831;
375.3000;0.2540;2.6106;
375.6000;0.2450;2.5906;
375.9000;0.2556;2.6181;
376.2000;0.2523;2.6081;
376.5000;0.2556;2.6031;
376.8000;0.2523;2.5931;
377.1000;0.2540;2.5931;
377.4000;0.2548;2.5931;
377.7000;0.2548;2.5906;
378.0000;0.2540;2.5881;
378.3000;0.2540;2.5881;
378.6000;0.2572;2.5956;
378.9000;0.2548;2.5931;
379.2000;0.2532;2.5881;
379.5000;0.2678;2.6356;
379.8000;0.2629;2.6281;
380.1000;0.2483;2.5931;
380.4000;0.2556;2.6131;
380.7000;0.2540;2.5981;
381.0000;0.2564;2.5981;
381.3000;0.2637;2.6131;
381.6000;0.2564;2.5906;
381.9000;0.2572;2.5856;
382.2000;0.2670;2.6156;
382.5000;0.2564;2.5881;
382.8000;0.2556;2.5931;
383.1000;0.2515;2.5906;
383.4000;0.2589;2.6206;
383.7000;0.2564;2.6206;
384.0000;0.2532;2.6081;
384.3000;0.2499;2.5981;
384.6000;0.2540;2.6106;
384.9000;0.2540;2.6106;
385.2000;0.2499;2.6081;
385.5000;0.2564;2.6231;
385.8000;0.2548;2.6181;
386.1000;0.2564;2.6206;
386.4000;0.2556;2.6256;
386.7000;0.2580;2.6331;
387.0000;0.2556;2.6281;
387.3000;0.2548;2.6356;
387.6000;0.2589;2.6507;
387.9000;0.2548;2.6432;
388.2000;0.2548;2.6356;
388.5000;0.2548;2.6356;
388.8000;0.2662;2.6657;
389.1000;0.2572;2.6331;
389.4000;0.2540;2.6306;
389.7000;0.2556;2.6381;
390.0000;0.2507;2.6256;
390.3000;0.2564;2.6507;
390.6000;0.2564;2.6507;
390.9000;0.2580;2.6582;
391.2000;0.2580;2.6557;
391.5000;0.2564;2.6607;
391.8000;0.2532;2.6532;
392.1000;0.2523;2.6532;
392.4000;0.2564;2.6582;
392.7000;0.2589;2.6582;
393.0000;0.2556;2.6407;
393.3000;0.2540;2.6356;
393.6000;0.2564;2.6306;
393.9000;0.2523;2.6231;
394.2000;0.2515;2.6281;
394.5000;0.2515;2.6281;
394.8000;0.2548;2.6306;
395.1000;0.2572;2.6381;
395.4000;0.2572;2.6356;
395.7000;0.2564;2.6281;
396.0000;0.2523;2.6131;
396.3000;0.2515;2.6106;
396.6000;0.2540;2.6181;
396.9000;0.2548;2.6281;
397.2000;0.2589;2.6356;
397.5000;0.2564;2.6281;
397.8000;0.2564;2.6281;
398.1000;0.2564;2.6306;
398.4000;0.2532;2.6231;
398.7000;0.2491;2.6131;
399.0000;0.2515;2.6206;
399.3000;0.2556;2.6331;
399.6000;0.2564;2.6381;
399.9000;0.2556;2.6407;
400.2000;0.2589;2.6582;
400.5000;0.2564;2.6507;
400.8000;0.2507;2.6256;
401.1000;0.2548;2.6331;
401.4000;0.2564;2.6356;
401.7000;0.2597;2.6457;
402.0000;0.2523;2.6231;
402.3000;0.2564;2.6381;
402.6000;0.2548;2.6306;
402.9000;0.2572;2.6381;
403.2000;0.2564;2.6331;
403.5000;0.2515;2.6256;
403.8000;0.2564;2.6356;
404.1000;0.2556;2.6407;
404.4000;0.2532;2.6381;
404.7000;0.2548;2.6482;
405.0000;0.2523;2.6482;
405.3000;0.2646;2.6732;
405.6000;0.2540;2.6432;
405.9000;0.2564;2.6532;
406.2000;0.2540;2.6507;
406.5000;0.2613;2.6707;
406.8000;0.2532;2.6532;
407.1000;0.2418;2.6206;
407.4000;0.2548;2.6482;
407.7000;0.2556;2.6482;
408.0000;0.2556;2.6457;
408.3000;0.2515;2.6381;
408.6000;0.2540;2.6331;
408.9000;0.2507;2.6256;
409.2000;0.2556;2.6356;
409.5000;0.2540;2.6281;
409.8000;0.2597;2.6381;
410.1000;0.2589;2.6306;
410.4000;0.2548;2.6256;
410.7000;0.2564;2.6306;
411.0000;0.2548;2.6206;
411.3000;0.2523;2.6156;
411.6000;0.2532;2.6181;
411.9000;0.2548;2.6181;
412.2000;0.2548;2.6281;
412.5000;0.2548;2.6231;
412.8000;0.2556;2.6356;
413.1000;0.2532;2.6281;
413.4000;0.2523;2.6206;
413.7000;0.2540;2.6231;
414.0000;0.2548;2.6156;
414.3000;0.2556;2.6056;
414.6000;0.2523;2.6031;
414.9000;0.2483;2.5931;
415.2000;0.2540;2.6131;
415.5000;0.2572;2.6206;
415.8000;0.2605;2.6256;
416.1000;0.2564;2.6156;
416.4000;0.2393;2.5631;
416.7000;0.2597;2.6156;
417.0000;0.2540;2.6106;
417.3000;0.2523;2.6156;
417.6000;0.2532;2.6231;
417.9000;0.2597;2.6432;
418.2000;0.2540;2.6306;
418.5000;0.2572;2.6407;
418.8000;0.2515;2.6156;
419.1000;0.2572;2.6231;
419.4000;0.2548;2.6256;
419.7000;0.2540;2.6256;
420.0000;0.2629;2.6532;
420.3000;0.2556;2.6306;
420.6000;0.2499;2.6106;
420.9000;0.2418;2.5856;
421.2000;0.2548;2.6181;
421.5000;0.2475;2.5931;
421.8000;0.2507;2.6081;
422.1000;0.2499;2.6106;
422.4000;0.2548;2.6156;
422.7000;0.2418;2.5831;
423.0000;0.2580;2.6281;
423.3000;0.2548;2.6256;
423.6000;0.2613;2.6432;
423.9000;0.2548;2.6231;
424.2000;0.2572;2.6331;
424.5000;0.2556;2.6306;
424.8000;0.2572;2.6331;
425.1000;0.2540;2.6281;
425.4000;0.2572;2.6482;
425.7000;0.2548;2.6457;
426.0000;0.2532;2.6281;
426.3000;0.2532;2.6281;
426.6000;0.2556;2.6306;
426.9000;0.2580;2.6407;
427.2000;0.2532;2.6256;
427.5000;0.2564;2.6407;
427.8000;0.2597;2.6482;
428.1000;0.2556;2.6356;
428.4000;0.2499;2.6306;
428.7000;0.2450;2.6056;
429.0000;0.2548;2.6381;
429.3000;0.2621;2.6632;
429.6000;0.2556;2.6432;
429.9000;0.2572;2.6381;
430.2000;0.2532;2.6206;
430.5000;0.2540;2.6256;
430.8000;0.2564;2.6306;
431.1000;0.2556;2.6206;
431.4000;0.2523;2.6131;
431.7000;0.2613;2.6407;
432.0000;0.2572;2.6256;
432.3000;0.2556;2.6281;
432.6000;0.2540;2.6156;
432.9000;0.2540;2.6131;
433.2000;0.2548;2.6106;
433.5000;0.2564;2.6206;
433.8000;0.2670;2.6582;
434.1000;0.2532;2.6181;
434.4000;0.2556;2.6156;
434.7000;0.2548;2.6206;
435.0000;0.2564;2.6206;
435.3000;0.2515;2.6056;
435.6000;0.2580;2.6281;
435.9000;0.2605;2.6381;
436.2000;0.2532;2.6256;
436.5000;0.2540;2.6256;
436.8000;0.2629;2.6457;
437.1000;0.2564;2.6281;
437.4000;0.2548;2.6231;
437.7000;0.2450;2.6106;
438.0000;0.2556;2.6356;
438.3000;0.2548;2.6432;
438.6000;0.2548;2.6356;
438.9000;0.2540;2.6306;
439.2000;0.2540;2.6306;
439.5000;0.2532;2.6206;
439.8000;0.2548;2.6181;
440.1000;0.2548;2.6231;
440.4000;0.2621;2.6407;
440.7000;0.2532;2.6181;
441.0000;0.2548;2.6281;
441.3000;0.2532;2.6231;
441.6000;0.2564;2.6331;
441.9000;0.2629;2.6432;
442.2000;0.2548;2.6231;
442.5000;0.2589;2.6306;
442.8000;0.2572;2.6256;
443.1000;0.2572;2.6281;
443.4000;0.2556;2.6356;
443.7000;0.2515;2.6206;
444.0000;0.2540;2.6231;
444.3000;0.2556;2.6206;
444.6000;0.2556;2.6281;
444.9000;0.2589;2.6331;
445.2000;0.2637;2.6407;
445.5000;0.2491;2.5981;
445.8000;0.2564;2.6131;
446.1000;0.2540;2.6081;
446.4000;0.2556;2.6081;
446.7000;0.2548;2.6131;
447.0000;0.2548;2.6181;
447.3000;0.2572;2.6206;
447.6000;0.2556;2.6181;
447.9000;0.2548;2.6106;
448.2000;0.2572;2.6181;
448.5000;0.2572;2.6156;
448.8000;0.2564;2.6181;
449.1000;0.2548;2.6181;
449.4000;0.2556;2.6206;
449.7000;0.2556;2.6156;
450.0000;0.2580;2.6081;
450.3000;0.2548;2.6006;
450.6000;0.2556;2.6081;
450.9000;0.2548;2.6106;
451.2000;0.2548;2.6106;
451.5000;0.2540;2.6081;
451.8000;0.2556;2.6181;
452.1000;0.2564;2.6231;
452.4000;0.2589;2.6356;
452.7000;0.2540;2.6156;
453.0000;0.2564;2.6256;
453.3000;0.2483;2.6006;
453.6000;0.2564;2.6131;
453.9000;0.2556;2.6056;
454.2000;0.2515;2.6006;
454.5000;0.2540;2.5931;
454.8000;0.2540;2.6006;
455.1000;0.2442;2.5681;
455.4000;0.2491;2.5781;
455.7000;0.2564;2.5956;
456.0000;0.2572;2.5931;
456.3000;0.2532;2.5806;
456.6000;0.2548;2.5881;
456.9000;0.2540;2.5831;
457.2000;0.2540;2.5881;
457.5000;0.2532;2.5956;
457.8000;0.2572;2.6081;
458.1000;0.2523;2.5981;
458.4000;0.2540;2.6031;
458.7000;0.2556;2.6106;
459.0000;0.2548;2.6206;
459.3000;0.2515;2.6106;
459.6000;0.2540;2.6106;
459.9000;0.2556;2.6131;
460.2000;0.2589;2.6156;
460.5000;0.2556;2.6181;
460.8000;0.2564;2.6106;
461.1000;0.2556;2.6106;
461.4000;0.2499;2.5956;
461.7000;0.2548;2.6106;
462.0000;0.2499;2.5981;
462.3000;0.2605;2.6306;
462.6000;0.2580;2.6281;
462.9000;0.2613;2.6331;
463.2000;0.2564;2.6181;
463.5000;0.2548;2.6231;
463.8000;0.2523;2.6181;
464.1000;0.2540;2.6156;
464.4000;0.2540;2.6206;
464.7000;0.2556;2.6206;
465.0000;0.2499;2.6031;
465.3000;0.2532;2.6106;
465.6000;0.2540;2.6181;
465.9000;0.2572;2.6407;
466.2000;0.2523;2.6231;
466.5000;0.2548;2.6306;
466.8000;0.2540;2.6281;
467.1000;0.2532;2.6281;
467.4000;0.2540;2.6331;
467.7000;0.2540;2.6432;
468.0000;0.2548;2.6457;
468.3000;0.2556;2.6457;
468.6000;0.2540;2.6381;
468.9000;0.2532;2.6356;
469.2000;0.2564;2.6432;
469.5000;0.2564;2.6356;
469.8000;0.2564;2.6407;
470.1000;0.2564;2.6432;
470.4000;0.2556;2.6356;
470.7000;0.2548;2.6281;
471.0000;0.2548;2.6331;
471.3000;0.2564;2.6507;
471.6000;0.2597;2.6482;
471.9000;0.2564;2.6306;
472.2000;0.2418;2.5981;
472.5000;0.2548;2.6356;
472.8000;0.2572;2.6582;
473.1000;0.2605;2.6607;
473.4000;0.2548;2.6356;
473.7000;0.2540;2.6331;
474.0000;0.2532;2.6306;
474.3000;0.2564;2.6457;
474.6000;0.2540;2.6381;
474.9000;0.2597;2.6532;
475.2000;0.2556;2.6381;
475.5000;0.2466;2.6131;
475.8000;0.2662;2.6657;
476.1000;0.2532;2.6331;
476.4000;0.2491;2.6231;
476.7000;0.2523;2.6306;
477.0000;0.2540;2.6281;
477.3000;0.2580;2.6432;
477.6000;0.2548;2.6356;
477.9000;0.2564;2.6331;
478.2000;0.2523;2.6256;
478.5000;0.2532;2.6306;
478.8000;0.2532;2.6407;
479.1000;0.2515;2.6482;
479.4000;0.2548;2.6482;
479.7000;0.2629;2.6657;
480.0000;0.2564;2.6507;
480.3000;0.2499;2.6356;
480.6000;0.2556;2.6331;
480.9000;0.2670;2.6682;
481.2000;0.2532;2.6231;
481.5000;0.2564;2.6281;
481.8000;0.2418;2.5981;
482.1000;0.2556;2.6231;
482.4000;0.2564;2.6281;
482.7000;0.2434;2.5956;
483.0000;0.2654;2.6557;
483.3000;0.2589;2.6381;
483.6000;0.2540;2.6181;
483.9000;0.2548;2.6131;
484.2000;0.2540;2.6081;
484.5000;0.2548;2.6106;
484.8000;0.2507;2.6031;
485.1000;0.2572;2.6156;
485.4000;0.2548;2.6156;
485.7000;0.2572;2.6231;
486.0000;0.2556;2.6206;
486.3000;0.2507;2.6081;
486.6000;0.2556;2.6256;
486.9000;0.2580;2.6331;
487.2000;0.2556;2.6156;
487.5000;0.2580;2.6181;
487.8000;0.2556;2.6156;
488.1000;0.2540;2.6131;
488.4000;0.2556;2.6156;
488.7000;0.2532;2.6056;
489.0000;0.2572;2.6206;
489.3000;0.2548;2.6181;
489.6000;0.2523;2.6006;
489.9000;0.2662;2.6432;
490.2000;0.2548;2.6181;
490.5000;0.2548;2.6081;
490.8000;0.2556;2.6056;
491.1000;0.2450;2.5756;
491.4000;0.2540;2.6131;
491.7000;0.2572;2.6206;
492.0000;0.2458;2.5931;
492.3000;0.2556;2.6056;
492.6000;0.2548;2.6106;
492.9000;0.2572;2.6206;
493.2000;0.2499;2.6031;
493.5000;0.2556;2.6131;
493.8000;0.2556;2.6181;
494.1000;0.2572;2.6206;
494.4000;0.2564;2.6256;
494.7000;0.2572;2.6231;
495.0000;0.2532;2.6131;
495.3000;0.2540;2.6156;
495.6000;0.2556;2.6206;
495.9000;0.2532;2.6181;
496.2000;0.2507;2.6181;
496.5000;0.2548;2.6331;
496.8000;0.2540;2.6331;
497.1000;0.2548;2.6356;
497.4000;0.2613;2.6432;
497.7000;0.2540;2.6256;
498.0000;0.2540;2.6281;
498.3000;0.2646;2.6532;
498.6000;0.2540;2.6306;
498.9000;0.2540;2.6306;
499.2000;0.2515;2.6131;
499.5000;0.2597;2.6407;
499.8000;0.2548;2.6231;
500.1000;0.2507;2.6181;
500.4000;0.2409;2.5856;
500.7000;0.2556;2.6281;
501.0000;0.2523;2.6206;
501.3000;0.2613;2.6457;
501.6000;0.2548;2.6381;
501.9000;0.2556;2.6407;
502.2000;0.2466;2.6156;
502.5000;0.2556;2.6306;
502.8000;0.2572;2.6306;
503.1000;0.2548;2.6206;
503.4000;0.2523;2.6106;
503.7000;0.2564;2.6131;
504.0000;0.2548;2.6106;
504.3000;0.2556;2.6056;
504.6000;0.2678;2.6381;
504.9000;0.2556;2.6031;
505.2000;0.2523;2.6006;
505.5000;0.2564;2.6056;
505.8000;0.2532;2.6006;
506.1000;0.2556;2.5981;
506.4000;0.2540;2.6031;
506.7000;0.2564;2.6131;
507.0000;0.2637;2.6407;
507.3000;0.2548;2.6081;
507.6000;0.2540;2.5956;
507.9000;0.2613;2.6156;
508.2000;0.2548;2.5906;
508.5000;0.2540;2.5856;
508.8000;0.2523;2.5806;
509.1000;0.2540;2.5881;
509.4000;0.2564;2.5931;
509.7000;0.2556;2.5931;
510.0000;0.2548;2.5931;
510.3000;0.2507;2.5831;
510.6000;0.2540;2.6056;
510.9000;0.2556;2.6106;
511.2000;0.2556;2.6181;
511.5000;0.2540;2.6131;
511.8000;0.2532;2.6081;
512.1000;0.2532;2.6081;
512.4000;0.2548;2.6081;
512.7000;0.2572;2.6256;
513.0000;0.2564;2.6231;
513.3000;0.2548;2.6131;
513.6000;0.2540;2.6081;
513.9000;0.2548;2.6131;
514.2000;0.2532;2.6131;
514.5000;0.2540;2.6256;
514.8000;0.2532;2.6331;
515.1000;0.2532;2.6306;
515.4000;0.2540;2.6256;
515.7000;0.2548;2.6306;
516.0000;0.2540;2.6256;
516.3000;0.2532;2.6231;
516.6000;0.2483;2.6006;
516.9000;0.2475;2.6006;
517.2000;0.2556;2.6231;
517.5000;0.2564;2.6306;
517.8000;0.2532;2.6256;
518.1000;0.2532;2.6256;
518.4000;0.2548;2.6256;
518.7000;0.2532;2.6131;
519.0000;0.2548;2.6231;
519.3000;0.2548;2.6131;
519.6000;0.2548;2.6206;
519.9000;0.2540;2.6181;
520.2000;0.2621;2.6407;
520.5000;0.2515;2.6106;
520.8000;0.2556;2.6156;
521.1000;0.2548;2.6131;
521.4000;0.2572;2.6281;
521.7000;0.2548;2.6206;
522.0000;0.2523;2.6206;
522.3000;0.2637;2.6457;
522.6000;0.2564;2.6281;
522.9000;0.2613;2.6482;
523.2000;0.2540;2.6331;
523.5000;0.2548;2.6281;
523.8000;0.2580;2.6281;
524.1000;0.2540;2.6181;
524.4000;0.2548;2.6231;
524.7000;0.2548;2.6281;
525.0000;0.2564;2.6306;
525.3000;0.2548;2.6256;
525.6000;0.2548;2.6256;
525.9000;0.2548;2.6331;
526.2000;0.2548;2.6281;
526.5000;0.2507;2.6256;
526.8000;0.2548;2.6331;
527.1000;0.2556;2.6306;
527.4000;0.2548;2.6306;
527.7000;0.2523;2.6256;
528.0000;0.2548;2.6356;
528.3000;0.2564;2.6432;
528.6000;0.2572;2.6557;
528.9000;0.2523;2.6381;
529.2000;0.2548;2.6432;
529.5000;0.2532;2.6432;
529.8000;0.2556;2.6507;
530.1000;0.2515;2.6356;
530.4000;0.2556;2.6331;
530.7000;0.2556;2.6231;
531.0000;0.2580;2.6256;
531.3000;0.2499;2.6031;
531.6000;0.2540;2.6181;
531.9000;0.2515;2.6081;
532.2000;0.2499;2.6081;
532.5000;0.2523;2.6106;
532.8000;0.2548;2.6181;
533.1000;0.2540;2.6306;
533.4000;0.2548;2.6231;
533.7000;0.2442;2.5881;
534.0000;0.2548;2.6081;
534.3000;0.2540;2.6156;
534.6000;0.2434;2.6031;
534.9000;0.2564;2.6281;
535.2000;0.2572;2.6256;
535.5000;0.2540;2.6156;
535.8000;0.2540;2.6206;
536.1000;0.2597;2.6331;
536.4000;0.2532;2.6156;
536.7000;0.2507;2.6181;
537.0000;0.2483;2.6106;
537.3000;0.2540;2.6281;
537.6000;0.2564;2.6407;
537.9000;0.2548;2.6381;
538.2000;0.2426;2.6031;
538.5000;0.2515;2.6181;
538.8000;0.2572;2.6306;
539.1000;0.2507;2.6106;
539.4000;0.2540;2.6206;
539.7000;0.2548;2.6206;
540.0000;0.2572;2.6331;
540.3000;0.2540;2.6181;
540.6000;0.2572;2.6306;
540.9000;0.2515;2.6156;
541.2000;0.2540;2.6156;
541.5000;0.2580;2.6256;
541.8000;0.2564;2.6231;
542.1000;0.2523;2.6131;
542.4000;0.2548;2.6131;
542.7000;0.2548;2.6056;
543.0000;0.2532;2.6056;
543.3000;0.2499;2.6031;
543.6000;0.2540;2.6156;
543.9000;0.2572;2.6206;
544.2000;0.2532;2.6106;
544.5000;0.2499;2.5981;
544.8000;0.2548;2.6006;
545.1000;0.2540;2.6056;
545.4000;0.2540;2.6081;
545.7000;0.2540;2.6031;
546.0000;0.2523;2.5956;
546.3000;0.2621;2.6256;
546.6000;0.2532;2.6056;
546.9000;0.2540;2.6006;
547.2000;0.2540;2.6031;
547.5000;0.2540;2.6056;
547.8000;0.2507;2.5856;
548.1000;0.2450;2.5806;
548.4000;0.2442;2.5831;
548.7000;0.2572;2.6206;
549.0000;0.2523;2.6056;
549.3000;0.2580;2.6206;
549.6000;0.2548;2.6081;
549.9000;0.2532;2.5981;
550.2000;0.2540;2.6031;
550.5000;0.2556;2.6081;
550.8000;0.2564;2.6106;
551.1000;0.2564;2.6081;
551.4000;0.2507;2.6056;
551.7000;0.2556;2.6181;
552.0000;0.2629;2.6331;
552.3000;0.2507;2.6056;
552.6000;0.2589;2.6281;
552.9000;0.2540;2.6081;
553.2000;0.2711;2.6582;
553.5000;0.2532;2.6206;
553.8000;0.2434;2.5831;
554.1000;0.2458;2.5881;
554.4000;0.2540;2.6156;
554.7000;0.2507;2.6106;
555.0000;0.2548;2.6256;
555.3000;0.2523;2.6231;
555.6000;0.2523;2.6131;
555.9000;0.2548;2.6231;
556.2000;0.2499;2.6056;
556.5000;0.2548;2.6206;
556.8000;0.2540;2.6131;
557.1000;0.2548;2.6106;
557.4000;0.2556;2.6031;
557.7000;0.2540;2.5956;
558.0000;0.2466;2.5856;
558.3000;0.2556;2.6081;
558.6000;0.2523;2.6031;
558.9000;0.2548;2.6106;
559.2000;0.2548;2.6156;
559.5000;0.2548;2.6106;
559.8000;0.2532;2.6081;
560.1000;0.2556;2.6156;
560.4000;0.2556;2.6106;
560.7000;0.2572;2.6181;
561.0000;0.2483;2.5931;
561.3000;0.2523;2.6131;
561.6000;0.2540;2.6156;
561.9000;0.2532;2.6131;
562.2000;0.2540;2.6131;
562.5000;0.2548;2.6156;
562.8000;0.2556;2.6306;
563.1000;0.2548;2.6256;
563.4000;0.2548;2.6256;
563.7000;0.2556;2.6356;
564.0000;0.2540;2.6256;
564.3000;0.2540;2.6256;
564.6000;0.2572;2.6381;
564.9000;0.2532;2.6306;
565.2000;0.2540;2.6331;
565.5000;0.2556;2.6356;
565.8000;0.2532;2.6256;
566.1000;0.2515;2.6206;
566.4000;0.2540;2.6331;
566.7000;0.2540;2.6356;
567.0000;0.2556;2.6381;
567.3000;0.2507;2.6306;
567.6000;0.2532;2.6306;
567.9000;0.2637;2.6532;
568.2000;0.2572;2.6281;
568.5000;0.2540;2.6256;
568.8000;0.2548;2.6256;
569.1000;0.2540;2.6181;
569.4000;0.2548;2.6156;
569.7000;0.2540;2.6106;
570.0000;0.2540;2.6081;
570.3000;0.2662;2.6407;
570.6000;0.2548;2.6081;
570.9000;0.2540;2.5956;
571.2000;0.2507;2.5906;
571.5000;0.2540;2.5956;
571.8000;0.2499;2.5831;
572.1000;0.2523;2.5906;
572.4000;0.2548;2.5881;
572.7000;0.2532;2.5856;
573.0000;0.2548;2.5906;
573.3000;0.2556;2.6031;
573.6000;0.2572;2.5981;
573.9000;0.2532;2.5881;
574.2000;0.2564;2.6006;
574.5000;0.2572;2.5956;
574.8000;0.2540;2.5956;
575.1000;0.2532;2.5931;
575.4000;0.2507;2.5956;
575.7000;0.2580;2.6081;
576.0000;0.2564;2.6031;
576.3000;0.2499;2.5931;
576.6000;0.2556;2.6056;
576.9000;0.2466;2.5881;
577.2000;0.2515;2.5906;
577.5000;0.2540;2.6031;
577.8000;0.2556;2.6056;
578.1000;0.2540;2.5981;
578.4000;0.2613;2.6181;
578.7000;0.2548;2.6031;
579.0000;0.2540;2.6081;
579.3000;0.2499;2.6031;
579.6000;0.2540;2.6081;
579.9000;0.2572;2.6281;
580.2000;0.2515;2.6181;
580.5000;0.2523;2.6131;
580.8000;0.2548;2.6206;
581.1000;0.2523;2.6131;
581.4000;0.2540;2.6231;
581.7000;0.2540;2.6181;
582.0000;0.2515;2.6031;
582.3000;0.2540;2.6056;
582.6000;0.2548;2.6031;
582.9000;0.2523;2.6031;
583.2000;0.2540;2.6106;
583.5000;0.2572;2.6031;
583.8000;0.2515;2.5831;
584.1000;0.2564;2.5981;
584.4000;0.2540;2.6006;
584.7000;0.2564;2.6131;
585.0000;0.2483;2.5831;
585.3000;0.2540;2.5981;
585.6000;0.2532;2.6031;
585.9000;0.2532;2.6081;
586.2000;0.2564;2.6081;
586.5000;0.2540;2.5981;
586.8000;0.2548;2.6081;
587.1000;0.2564;2.6131;
587.4000;0.2532;2.6131;
587.7000;0.2556;2.6281;
588.0000;0.2548;2.6256;
588.3000;0.2532;2.6156;
588.6000;0.2548;2.6131;
588.9000;0.2580;2.6181;
589.2000;0.2548;2.6056;
589.5000;0.2572;2.6181;
589.8000;0.2540;2.6181;
590.1000;0.2564;2.6256;
590.4000;0.2564;2.6281;
590.7000;0.2540;2.6231;
591.0000;0.2678;2.6607;
591.3000;0.2458;2.5956;
591.6000;0.2556;2.6231;
591.9000;0.2523;2.6156;
592.2000;0.2548;2.6131;
592.5000;0.2556;2.6081;
592.8000;0.2515;2.6106;
593.1000;0.2515;2.6056;
593.4000;0.2564;2.6256;
593.7000;0.2564;2.6256;
594.0000;0.2532;2.6206;
594.3000;0.2629;2.6432;
594.6000;0.2548;2.6131;
594.9000;0.2532;2.6156;
595.2000;0.2540;2.6181;
595.5000;0.2532;2.6081;
595.8000;0.2580;2.6256;
596.1000;0.2540;2.6206;
596.4000;0.2515;2.6131;
596.7000;0.2523;2.6131;
597.0000;0.2515;2.6056;
597.3000;0.2515;2.6031;
597.6000;0.2523;2.6106;
597.9000;0.2589;2.6356;
598.2000;0.2540;2.6331;
598.5000;0.2556;2.6256;
598.8000;0.2532;2.6156;
599.1000;0.2556;2.6156;
599.4000;0.2548;2.6181;
599.7000;0.2523;2.6131;
600.0000;0.2507;2.6156;
600.3000;0.2548;2.6106;
600.6000;0.2540;2.5981;
600.9000;0.2540;2.5831;
601.2000;0.2548;2.5656;
601.5000;0.2540;2.5480;
601.8000;0.2564;2.5355;
602.1000;0.2540;2.5205;
602.4000;0.2515;2.5030;
602.7000;0.2507;2.4905;
603.0000;0.2491;2.4755;
603.3000;0.2515;2.4805;
603.6000;0.2523;2.4780;
603.9000;0.2475;2.4604;
604.2000;0.2483;2.4579;
604.5000;0.2483;2.4454;
604.8000;0.2491;2.4429;
605.1000;0.2491;2.4379;
605.4000;0.2458;2.4254;
605.7000;0.2491;2.4254;
606.0000;0.2491;2.4279;
606.3000;0.2491;2.4254;
606.6000;0.2458;2.4179;
606.9000;0.2499;2.4154;
607.2000;0.2532;2.4254;
607.5000;0.2483;2.4054;
607.8000;0.2475;2.4004;
608.1000;0.2491;2.4029;
608.4000;0.2491;2.3929;
608.7000;0.2475;2.3929;
609.0000;0.2475;2.3954;
609.3000;0.2483;2.4004;
609.6000;0.2466;2.3979;
609.9000;0.2507;2.4029;
610.2000;0.2499;2.4029;
610.5000;0.2458;2.3853;
610.8000;0.2434;2.3678;
611.1000;0.2458;2.3728;
611.4000;0.2442;2.3678;
611.7000;0.2450;2.3703;
612.0000;0.2491;2.3979;
612.3000;0.2483;2.3954;
612.6000;0.2483;2.4004;
612.9000;0.2450;2.3904;
613.2000;0.2475;2.3929;
613.5000;0.2466;2.3853;
613.8000;0.2491;2.3904;
614.1000;0.2483;2.3879;
614.4000;0.2556;2.4054;
614.7000;0.2475;2.3803;
615.0000;0.2475;2.3954;
615.3000;0.2426;2.3904;
615.6000;0.2458;2.3929;
615.9000;0.2442;2.3904;
616.2000;0.2466;2.3954;
616.5000;0.2393;2.3778;
616.8000;0.2458;2.3929;
617.1000;0.2466;2.3954;
617.4000;0.2466;2.3929;
617.7000;0.2458;2.3979;
618.0000;0.2442;2.3803;
618.3000;0.2540;2.4079;
618.6000;0.2466;2.3879;
618.9000;0.2450;2.3853;
619.2000;0.2450;2.3828;
619.5000;0.2466;2.3828;
619.8000;0.2458;2.3803;
620.1000;0.2466;2.3803;
620.4000;0.2434;2.3653;
620.7000;0.2466;2.3678;
621.0000;0.2409;2.3603;
621.3000;0.2466;2.3678;
621.6000;0.2475;2.3753;
621.9000;0.2336;2.3478;
622.2000;0.2491;2.3879;
622.5000;0.2475;2.3828;
622.8000;0.2458;2.3778;
623.1000;0.2466;2.3803;
623.4000;0.2475;2.3728;
623.7000;0.2466;2.3703;
624.0000;0.2450;2.3753;
624.3000;0.2458;2.3828;
624.6000;0.2450;2.3803;
624.9000;0.2483;2.3778;
625.2000;0.2450;2.3778;
625.5000;0.2458;2.3879;
625.8000;0.2466;2.3828;
626.1000;0.2483;2.3954;
626.4000;0.2491;2.3979;
626.7000;0.2458;2.3879;
627.0000;0.2475;2.3954;
627.3000;0.2458;2.3929;
627.6000;0.2458;2.3979;
627.9000;0.2483;2.4104;
628.2000;0.2475;2.4079;
628.5000;0.2442;2.3954;
628.8000;0.2458;2.4029;
629.1000;0.2515;2.4054;
629.4000;0.2450;2.3853;
629.7000;0.2458;2.3803;
630.0000;0.2393;2.3503;
630.3000;0.2418;2.3703;
630.6000;0.2442;2.3703;
630.9000;0.2458;2.3778;
631.2000;0.2466;2.3753;
631.5000;0.2442;2.3653;
631.8000;0.2483;2.3728;
632.1000;0.2426;2.3653;
632.4000;0.2450;2.3678;
632.7000;0.2385;2.3503;
633.0000;0.2564;2.3954;
633.3000;0.2458;2.3828;
633.6000;0.2418;2.3603;
633.9000;0.2450;2.3703;
634.2000;0.2466;2.3778;
634.5000;0.2475;2.3703;
634.8000;0.2426;2.3603;
635.1000;0.2491;2.3753;
635.4000;0.2466;2.3628;
635.7000;0.2442;2.3503;
636.0000;0.2458;2.3628;
636.3000;0.2466;2.3653;
636.6000;0.2442;2.3628;
636.9000;0.2442;2.3553;
637.2000;0.2450;2.3603;
637.5000;0.2597;2.4054;
637.8000;0.2385;2.3503;
638.1000;0.2458;2.3678;
638.4000;0.2450;2.3603;
638.7000;0.2442;2.3553;
639.0000;0.2475;2.3628;
639.3000;0.2466;2.3578;
639.6000;0.2450;2.3428;
639.9000;0.2466;2.3478;
640.2000;0.2475;2.3553;
640.5000;0.2466;2.3603;
640.8000;0.2450;2.3678;
641.1000;0.2483;2.3778;
641.4000;0.2442;2.3728;
641.7000;0.2450;2.3678;
642.0000;0.2442;2.3728;
642.3000;0.2434;2.3653;
642.6000;0.2418;2.3553;
642.9000;0.2475;2.3653;
643.2000;0.2466;2.3653;
643.5000;0.2442;2.3628;
643.8000;0.2458;2.3628;
644.1000;0.2491;2.3828;
644.4000;0.2466;2.3778;
644.7000;0.2466;2.3753;
645.0000;0.2442;2.3778;
645.3000;0.2458;2.3904;
645.6000;0.2458;2.3853;
645.9000;0.2442;2.3828;
646.2000;0.2442;2.3904;
646.5000;0.2458;2.3929;
646.8000;0.2466;2.3904;
647.1000;0.2450;2.3904;
647.4000;0.2483;2.3954;
647.7000;0.2475;2.3828;
648.0000;0.2466;2.3753;
648.3000;0.2475;2.3904;
648.6000;0.2450;2.3828;
648.9000;0.2442;2.3803;
649.2000;0.2483;2.3929;
649.5000;0.2475;2.3853;
649.8000;0.2442;2.3853;
650.1000;0.2483;2.3904;
650.4000;0.2450;2.3828;
650.7000;0.2483;2.3853;
651.0000;0.2458;2.3853;
651.3000;0.2466;2.3879;
651.6000;0.2475;2.3853;
651.9000;0.2426;2.3728;
652.2000;0.2483;2.3879;
652.5000;0.2450;2.3753;
652.8000;0.2523;2.4004;
653.1000;0.2523;2.4104;
653.4000;0.2548;2.4054;
653.7000;0.2483;2.3904;
654.0000;0.2540;2.4004;
654.3000;0.2475;2.3778;
654.6000;0.2401;2.3603;
654.9000;0.2466;2.3853;
655.2000;0.2458;2.3828;
655.5000;0.2499;2.3904;
655.8000;0.2475;2.3753;
656.1000;0.2450;2.3653;
656.4000;0.2434;2.3603;
656.7000;0.2458;2.3628;
657.0000;0.2434;2.3553;
657.3000;0.2466;2.3678;
657.6000;0.2532;2.3879;
657.9000;0.2483;2.3778;
658.2000;0.2475;2.3853;
658.5000;0.2491;2.3929;
658.8000;0.2458;2.3828;
659.1000;0.2475;2.3853;
659.4000;0.2466;2.3803;
659.7000;0.2466;2.3778;
660.0000;0.2409;2.3578;
660.3000;0.2491;2.3803;
660.6000;0.2442;2.3753;
660.9000;0.2507;2.4054;
661.2000;0.2515;2.3979;
661.5000;0.2475;2.3879;
661.8000;0.2483;2.3904;
662.1000;0.2605;2.4279;
662.4000;0.2401;2.3653;
662.7000;0.2499;2.3954;
663.0000;0.2458;2.3678;
663.3000;0.2483;2.3628;
663.6000;0.2483;2.3653;
663.9000;0.2450;2.3628;
664.2000;0.2450;2.3628;
664.5000;0.2475;2.3728;
664.8000;0.2466;2.3653;
665.1000;0.2426;2.3578;
665.4000;0.2458;2.3703;
665.7000;0.2450;2.3703;
666.0000;0.2475;2.3828;
666.3000;0.2466;2.3828;
666.6000;0.2483;2.3879;
666.9000;0.2491;2.3803;
667.2000;0.2491;2.3728;
667.5000;0.2532;2.3828;
667.8000;0.2442;2.3478;
668.1000;0.2580;2.3803;
668.4000;0.2483;2.3553;
668.7000;0.2466;2.3553;
669.0000;0.2491;2.3703;
669.3000;0.2564;2.3879;
669.6000;0.2475;2.3703;
669.9000;0.2483;2.3778;
670.2000;0.2475;2.3778;
670.5000;0.2434;2.3753;
670.8000;0.2466;2.3803;
671.1000;0.2466;2.3728;
671.4000;0.2475;2.3753;
671.7000;0.2442;2.3628;
672.0000;0.2458;2.3653;
672.3000;0.2450;2.3678;
672.6000;0.2466;2.3753;
672.9000;0.2499;2.3728;
673.2000;0.2475;2.3628;
673.5000;0.2466;2.3628;
673.8000;0.2458;2.3578;
674.1000;0.2475;2.3578;
674.4000;0.2475;2.3528;
674.7000;0.2491;2.3628;
675.0000;0.2475;2.3653;
675.3000;0.2466;2.3753;
675.6000;0.2475;2.3678;
675.9000;0.2458;2.3628;
676.2000;0.2466;2.3653;
676.5000;0.2450;2.3653;
676.8000;0.2442;2.3703;
677.1000;0.2434;2.3578;
677.4000;0.2458;2.3528;
677.7000;0.2475;2.3578;
678.0000;0.2450;2.3553;
678.3000;0.2475;2.3653;
678.6000;0.2483;2.3753;
678.9000;0.2434;2.3703;
679.2000;0.2499;2.3954;
679.5000;0.2475;2.3929;
679.8000;0.2466;2.3803;
680.1000;0.2377;2.3578;
680.4000;0.2458;2.3803;
680.7000;0.2393;2.3653;
681.0000;0.2475;2.3778;
681.3000;0.2450;2.3678;
681.6000;0.2442;2.3578;
681.9000;0.2466;2.3628;
682.2000;0.2458;2.3728;
682.5000;0.2483;2.3828;
682.8000;0.2458;2.3803;
683.1000;0.2450;2.3778;
683.4000;0.2475;2.3879;
683.7000;0.2434;2.3853;
684.0000;0.2499;2.3929;
684.3000;0.2426;2.3703;
684.6000;0.2466;2.3803;
684.9000;0.2475;2.3753;
685.2000;0.2499;2.3778;
685.5000;0.2458;2.3728;
685.8000;0.2458;2.3803;
686.1000;0.2507;2.3879;
686.4000;0.2466;2.3778;
686.7000;0.2491;2.3828;
687.0000;0.2458;2.3803;
687.3000;0.2483;2.3853;
687.6000;0.2475;2.3904;
687.9000;0.2483;2.3904;
688.2000;0.2532;2.4054;
688.5000;0.2458;2.3929;
688.8000;0.2483;2.4054;
689.1000;0.2434;2.3853;
689.4000;0.2475;2.3929;
689.7000;0.2483;2.3853;
690.0000;0.2466;2.3904;
690.3000;0.2475;2.3803;
690.6000;0.2450;2.3778;
690.9000;0.2491;2.3828;
691.2000;0.2450;2.3628;
691.5000;0.2458;2.3703;
691.8000;0.2450;2.3778;
692.1000;0.2442;2.3753;
692.4000;0.2491;2.3828;
692.7000;0.2442;2.3678;
693.0000;0.2466;2.3728;
693.3000;0.2515;2.3904;
693.6000;0.2499;2.3853;
693.9000;0.2466;2.3803;
694.2000;0.2434;2.3678;
694.5000;0.2466;2.3728;
694.8000;0.2475;2.3778;
695.1000;0.2515;2.3703;
695.4000;0.2466;2.3553;
695.7000;0.2312;2.3153;
696.0000;0.2475;2.3603;
696.3000;0.2458;2.3653;
696.6000;0.2475;2.3753;
696.9000;0.2450;2.3728;
697.2000;0.2466;2.3929;
697.5000;0.2466;2.3954;
697.8000;0.2475;2.3929;
698.1000;0.2499;2.4029;
698.4000;0.2466;2.3904;
698.7000;0.2466;2.3853;
699.0000;0.2475;2.3954;
699.3000;0.2426;2.3778;
699.6000;0.2475;2.3904;
699.9000;0.2458;2.3879;
700.2000;0.2475;2.3904;
700.5000;0.2532;2.3979;
700.8000;0.2491;2.3853;
701.1000;0.2466;2.3703;
701.4000;0.2385;2.3528;
701.7000;0.2548;2.4004;
702.0000;0.2458;2.3703;
702.3000;0.2450;2.3653;
702.6000;0.2621;2.4254;
702.9000;0.2466;2.3728;
703.2000;0.2654;2.4129;
703.5000;0.2475;2.3703;
703.8000;0.2409;2.3678;
704.1000;0.2499;2.3929;
704.4000;0.2499;2.3904;
704.7000;0.2564;2.3954;
705.0000;0.2483;2.3778;
705.3000;0.2515;2.3778;
705.6000;0.2466;2.3678;
705.9000;0.2475;2.3728;
706.2000;0.2483;2.3828;
706.5000;0.2409;2.3653;
706.8000;0.2385;2.3553;
707.1000;0.2385;2.3578;
707.4000;0.2426;2.3578;
707.7000;0.2507;2.3828;
708.0000;0.2426;2.3578;
708.3000;0.2475;2.3778;
708.6000;0.2458;2.3778;
708.9000;0.2475;2.3853;
709.2000;0.2426;2.3553;
709.5000;0.2483;2.3703;
709.8000;0.2483;2.3728;
710.1000;0.2475;2.3728;
710.4000;0.2442;2.3678;
710.7000;0.2483;2.3728;
711.0000;0.2466;2.3653;
711.3000;0.2475;2.3753;
711.6000;0.2483;2.3828;
711.9000;0.2605;2.4029;
712.2000;0.2523;2.3803;
712.5000;0.2458;2.3603;
712.8000;0.2450;2.3578;
713.1000;0.2458;2.3728;
713.4000;0.2475;2.3803;
713.7000;0.2434;2.3678;
714.0000;0.2458;2.3929;
714.3000;0.2458;2.3879;
714.6000;0.2466;2.3929;
714.9000;0.2499;2.3954;
715.2000;0.2475;2.3853;
715.5000;0.2475;2.3929;
715.8000;0.2597;2.4304;
716.1000;0.2450;2.3828;
716.4000;0.2466;2.3753;
716.7000;0.2450;2.3703;
717.0000;0.2483;2.3703;
717.3000;0.2450;2.3553;
717.6000;0.2475;2.3678;
717.9000;0.2361;2.3303;
718.2000;0.2483;2.3703;
718.5000;0.2458;2.3678;
718.8000;0.2483;2.3603;
719.1000;0.2475;2.3578;
719.4000;0.2475;2.3553;
719.7000;0.2458;2.3453;
720.0000;0.2475;2.3503;
720.3000;0.2491;2.3653;
720.6000;0.2442;2.3553;
720.9000;0.2458;2.3528;
721.2000;0.2466;2.3503;
721.5000;0.2483;2.3503;
721.8000;0.2475;2.3503;
722.1000;0.2426;2.3503;
722.4000;0.2409;2.3603;
722.7000;0.2442;2.3703;
723.0000;0.2548;2.3904;
723.3000;0.2475;2.3879;
723.6000;0.2475;2.3853;
723.9000;0.2475;2.3879;
724.2000;0.2466;2.3853;
724.5000;0.2523;2.3954;
724.8000;0.2466;2.3904;
725.1000;0.2401;2.3703;
725.4000;0.2540;2.4054;
725.7000;0.2499;2.3828;
726.0000;0.2580;2.4129;
726.3000;0.2450;2.3803;
726.6000;0.2466;2.3904;
726.9000;0.2450;2.3803;
727.2000;0.2458;2.3778;
727.5000;0.2466;2.3753;
727.8000;0.2483;2.3778;
728.1000;0.2426;2.3603;
728.4000;0.2475;2.3778;
728.7000;0.2466;2.3753;
729.0000;0.2499;2.3853;
729.3000;0.2523;2.3879;
729.6000;0.2483;2.3828;
729.9000;0.2491;2.3828;
730.2000;0.2426;2.3728;
730.5000;0.2466;2.3728;
730.8000;0.2491;2.3703;
731.1000;0.2515;2.3703;
731.4000;0.2466;2.3578;
731.7000;0.2450;2.3578;
732.0000;0.2466;2.3628;
732.3000;0.2434;2.3503;
732.6000;0.2466;2.3578;
732.9000;0.2475;2.3678;
733.2000;0.2483;2.3828;
733.5000;0.2483;2.3879;
733.8000;0.2475;2.3803;
734.1000;0.2499;2.3828;
734.4000;0.2507;2.3803;
734.7000;0.2475;2.3703;
735.0000;0.2483;2.3753;
735.3000;0.2466;2.3753;
735.6000;0.2475;2.3803;
735.9000;0.2466;2.3828;
736.2000;0.2466;2.3853;
736.5000;0.2458;2.3778;
736.8000;0.2491;2.3929;
737.1000;0.2491;2.3904;
737.4000;0.2475;2.3778;
737.7000;0.2483;2.3728;
738.0000;0.2475;2.3653;
738.3000;0.2475;2.3703;
738.6000;0.2483;2.3703;
738.9000;0.2458;2.3678;
739.2000;0.2466;2.3703;
739.5000;0.2466;2.3753;
739.8000;0.2466;2.3753;
740.1000;0.2475;2.3778;
740.4000;0.2483;2.3803;
740.7000;0.2458;2.3703;
741.0000;0.2475;2.3778;
741.3000;0.2450;2.3628;
741.6000;0.2483;2.3703;
741.9000;0.2466;2.3653;
742.2000;0.2442;2.3628;
742.5000;0.2458;2.3603;
742.8000;0.2466;2.3753;
743.1000;0.2475;2.3879;
743.4000;0.2466;2.3803;
743.7000;0.2466;2.3828;
744.0000;0.2466;2.3853;
744.3000;0.2507;2.3979;
744.6000;0.2483;2.3879;
744.9000;0.2458;2.3828;
745.2000;0.2499;2.3979;
745.5000;0.2483;2.3904;
745.8000;0.2466;2.3853;
746.1000;0.2491;2.4004;
746.4000;0.2475;2.3929;
746.7000;0.2466;2.3828;
747.0000;0.2401;2.3578;
747.3000;0.2426;2.3628;
747.6000;0.2491;2.3778;
747.9000;0.2450;2.3753;
748.2000;0.2450;2.3853;
748.5000;0.2466;2.3904;
748.8000;0.2475;2.3929;
749.1000;0.2475;2.3904;
749.4000;0.2523;2.3979;
749.7000;0.2499;2.3904;
750.0000;0.2450;2.3728;
750.3000;0.2458;2.3703;
750.6000;0.2442;2.3703;
750.9000;0.2442;2.3703;
751.2000;0.2466;2.3803;
751.5000;0.2352;2.3428;
751.8000;0.2475;2.3753;
752.1000;0.2458;2.3778;
752.4000;0.2401;2.3628;
752.7000;0.2409;2.3603;
753.0000;0.2458;2.3778;
753.3000;0.2458;2.3753;
753.6000;0.2409;2.3603;
753.9000;0.2442;2.3653;
754.2000;0.2458;2.3703;
754.5000;0.2499;2.3954;
754.8000;0.2540;2.4079;
755.1000;0.2450;2.3853;
755.4000;0.2458;2.3753;
755.7000;0.2475;2.3803;
756.0000;0.2515;2.3954;
756.3000;0.2532;2.4104;
756.6000;0.2475;2.3803;
756.9000;0.2458;2.3803;
757.2000;0.2426;2.3678;
757.5000;0.2426;2.3653;
757.8000;0.2466;2.3803;
758.1000;0.2450;2.3778;
758.4000;0.2466;2.3828;
758.7000;0.2507;2.3879;
759.0000;0.2450;2.3728;
759.3000;0.2483;2.3879;
759.6000;0.2450;2.3778;
759.9000;0.2450;2.3803;
760.2000;0.2466;2.3879;
760.5000;0.2466;2.3904;
760.8000;0.2401;2.3728;
761.1000;0.2491;2.3954;
761.4000;0.2458;2.3828;
761.7000;0.2466;2.3678;
762.0000;0.2458;2.3603;
762.3000;0.2475;2.3678;
762.6000;0.2491;2.3678;
762.9000;0.2491;2.3628;
763.2000;0.2475;2.3553;
763.5000;0.2475;2.3653;
763.8000;0.2483;2.3653;
764.1000;0.2466;2.3628;
764.4000;0.2483;2.3653;
764.7000;0.2418;2.3503;
765.0000;0.2515;2.3929;
765.3000;0.2483;2.3879;
765.6000;0.2442;2.3803;
765.9000;0.2466;2.3853;
766.2000;0.2450;2.3853;
766.5000;0.2491;2.3904;
766.8000;0.2475;2.3828;
767.1000;0.2483;2.3778;
767.4000;0.2475;2.3703;
767.7000;0.2458;2.3653;
768.0000;0.2475;2.3728;
768.3000;0.2475;2.3653;
768.6000;0.2491;2.3853;
768.9000;0.2466;2.3879;
769.2000;0.2409;2.3628;
769.5000;0.2483;2.3803;
769.8000;0.2483;2.3803;
770.1000;0.2483;2.3653;
770.4000;0.2483;2.3678;
770.7000;0.2475;2.3753;
771.0000;0.2475;2.3728;
771.3000;0.2532;2.3929;
771.6000;0.2466;2.3803;
771.9000;0.2466;2.3753;
772.2000;0.2515;2.3853;
772.5000;0.2458;2.3703;
772.8000;0.2466;2.3753;
773.1000;0.2475;2.3753;
773.4000;0.2475;2.3728;
773.7000;0.2491;2.3728;
774.0000;0.2483;2.3728;
774.3000;0.2458;2.3678;
774.6000;0.2458;2.3603;
774.9000;0.2597;2.4079;
775.2000;0.2466;2.3778;
775.5000;0.2483;2.3728;
775.8000;0.2434;2.3603;
776.1000;0.2442;2.3578;
776.4000;0.2507;2.3753;
776.7000;0.2458;2.3653;
777.0000;0.2483;2.3703;
777.3000;0.2458;2.3678;
777.6000;0.2499;2.3778;
777.9000;0.2466;2.3678;
778.2000;0.2466;2.3678;
778.5000;0.2466;2.3778;
778.8000;0.2515;2.3954;
779.1000;0.2523;2.3979;
779.4000;0.2344;2.3478;
779.7000;0.2458;2.3853;
780.0000;0.2466;2.3728;
780.3000;0.2532;2.3828;
780.6000;0.2475;2.3653;
780.9000;0.2466;2.3678;
781.2000;0.2344;2.3303;
781.5000;0.2458;2.3553;
781.8000;0.2548;2.3753;
782.1000;0.2507;2.3703;
782.4000;0.2475;2.3728;
782.7000;0.2491;2.3803;
783.0000;0.2491;2.3778;
783.3000;0.2458;2.3778;
783.6000;0.2483;2.3803;
783.9000;0.2466;2.3703;
784.2000;0.2499;2.3753;
784.5000;0.2458;2.3603;
784.8000;0.2499;2.3678;
785.1000;0.2540;2.3853;
785.4000;0.2458;2.3678;
785.7000;0.2466;2.3753;
786.0000;0.2466;2.3653;
786.3000;0.2442;2.3603;
786.6000;0.2483;2.3628;
786.9000;0.2434;2.3553;
787.2000;0.2466;2.3628;
787.5000;0.2458;2.3678;
787.8000;0.2491;2.3703;
788.1000;0.2483;2.3703;
788.4000;0.2491;2.3653;
788.7000;0.2466;2.3478;
789.0000;0.2491;2.3553;
789.3000;0.2483;2.3678;
789.6000;0.2475;2.3678;
789.9000;0.2475;2.3703;
790.2000;0.2442;2.3528;
790.5000;0.2466;2.3578;
790.8000;0.2532;2.3828;
791.1000;0.2466;2.3528;
791.4000;0.2499;2.3728;
791.7000;0.2450;2.3653;
792.0000;0.2499;2.3904;
792.3000;0.2466;2.3853;
792.6000;0.2475;2.3803;
792.9000;0.2466;2.3828;
793.2000;0.2466;2.3828;
793.5000;0.2450;2.3653;
793.8000;0.2450;2.3678;
794.1000;0.2450;2.3653;
794.4000;0.2475;2.3603;
794.7000;0.2491;2.3628;
795.0000;0.2466;2.3503;
795.3000;0.2483;2.3603;
795.6000;0.2466;2.3678;
795.9000;0.2491;2.3753;
796.2000;0.2523;2.3879;
796.5000;0.2483;2.3728;
796.8000;0.2450;2.3603;
797.1000;0.2418;2.3453;
797.4000;0.2491;2.3578;
797.7000;0.2466;2.3628;
798.0000;0.2450;2.3628;
798.3000;0.2507;2.3828;
798.6000;0.2450;2.3703;
798.9000;0.2475;2.3853;
799.2000;0.2475;2.3803;
799.5000;0.2483;2.3728;
799.8000;0.2352;2.3403;
800.1000;0.2491;2.3678;
800.4000;0.2458;2.3653;
800.7000;0.2491;2.3753;
801.0000;0.2475;2.3653;
801.3000;0.2344;2.3378;
801.6000;0.2475;2.3628;
801.9000;0.2450;2.3553;
802.2000;0.2483;2.3678;
802.5000;0.2597;2.4004;
802.8000;0.2442;2.3553;
803.1000;0.2483;2.3603;
803.4000;0.2450;2.3503;
803.7000;0.2442;2.3528;
804.0000;0.2483;2.3728;
804.3000;0.2385;2.3453;
804.6000;0.2475;2.3703;
804.9000;0.2483;2.3778;
805.2000;0.2475;2.3703;
805.5000;0.2491;2.3728;
805.8000;0.2475;2.3778;
806.1000;0.2450;2.3753;
806.4000;0.2499;2.3828;
806.7000;0.2475;2.3728;
807.0000;0.2507;2.3879;
807.3000;0.2491;2.3853;
807.6000;0.2483;2.3879;
807.9000;0.2515;2.3929;
808.2000;0.2491;2.3853;
808.5000;0.2491;2.3753;
808.8000;0.2442;2.3553;
809.1000;0.2458;2.3653;
809.4000;0.2483;2.3828;
809.7000;0.2613;2.4204;
810.0000;0.2466;2.3678;
810.3000;0.2475;2.3753;
810.6000;0.2483;2.3828;
810.9000;0.2491;2.3828;
811.2000;0.2458;2.3778;
811.5000;0.2458;2.3803;
811.8000;0.2515;2.4029;
812.1000;0.2401;2.3653;
812.4000;0.2458;2.3778;
812.7000;0.2499;2.3853;
813.0000;0.2499;2.3904;
813.3000;0.2515;2.3954;
813.6000;0.2475;2.3904;
813.9000;0.2295;2.3503;
814.2000;0.2475;2.3954;
814.5000;0.2491;2.3929;
814.8000;0.2483;2.3904;
815.1000;0.2466;2.3803;
815.4000;0.2466;2.3753;
815.7000;0.2442;2.3678;
816.0000;0.2507;2.3853;
816.3000;0.2499;2.3879;
816.6000;0.2458;2.3753;
816.9000;0.2483;2.3879;
817.2000;0.2548;2.4129;
817.5000;0.2450;2.3753;
817.8000;0.2475;2.3828;
818.1000;0.2564;2.4079;
818.4000;0.2483;2.3879;
818.7000;0.2466;2.3828;
819.0000;0.2491;2.3703;
819.3000;0.2564;2.3954;
819.6000;0.2491;2.3753;
819.9000;0.2491;2.3703;
820.2000;0.2475;2.3653;
820.5000;0.2450;2.3703;
820.8000;0.2637;2.4129;
821.1000;0.2401;2.3478;
821.4000;0.2458;2.3578;
821.7000;0.2483;2.3678;
822.0000;0.2475;2.3653;
822.3000;0.2450;2.3628;
822.6000;0.2377;2.3403;
822.9000;0.2483;2.3728;
823.2000;0.2450;2.3653;
823.5000;0.2483;2.3703;
823.8000;0.2434;2.3528;
824.1000;0.2409;2.3353;
824.4000;0.2466;2.3478;
824.7000;0.2491;2.3528;
825.0000;0.2458;2.3378;
825.3000;0.2328;2.2927;
825.6000;0.2483;2.3428;
825.9000;0.2475;2.3328;
826.2000;0.2491;2.3528;
826.5000;0.2548;2.3828;
826.8000;0.2483;2.3653;
827.1000;0.2507;2.3703;
827.4000;0.2475;2.3528;
827.7000;0.2483;2.3603;
828.0000;0.2483;2.3628;
828.3000;0.2515;2.3653;
828.6000;0.2466;2.3603;
828.9000;0.2466;2.3578;
829.2000;0.2491;2.3653;
829.5000;0.2450;2.3603;
829.8000;0.2458;2.3603;
830.1000;0.2442;2.3553;
830.4000;0.2483;2.3678;
830.7000;0.2426;2.3528;
831.0000;0.2475;2.3653;
831.3000;0.2475;2.3678;
831.6000;0.2483;2.3628;
831.9000;0.2499;2.3653;
832.2000;0.2466;2.3703;
832.5000;0.2483;2.3703;
832.8000;0.2466;2.3753;
833.1000;0.2450;2.3703;
833.4000;0.2450;2.3678;
833.7000;0.2532;2.3979;
834.0000;0.2475;2.3753;
834.3000;0.2475;2.3653;
834.6000;0.2458;2.3603;
834.9000;0.2507;2.3753;
835.2000;0.2483;2.3803;
835.5000;0.2499;2.3853;
835.8000;0.2491;2.3853;
836.1000;0.2475;2.3828;
836.4000;0.2475;2.3778;
836.7000;0.2466;2.3753;
837.0000;0.2466;2.3678;
837.3000;0.2491;2.3853;
837.6000;0.2434;2.3778;
837.9000;0.2466;2.3753;
838.2000;0.2499;2.3778;
838.5000;0.2483;2.3778;
838.8000;0.2450;2.3603;
839.1000;0.2475;2.3578;
839.4000;0.2491;2.3553;
839.7000;0.2499;2.3653;
840.0000;0.2418;2.3578;
840.3000;0.2483;2.3678;
840.6000;0.2401;2.3528;
840.9000;0.2515;2.3803;
841.2000;0.2572;2.3929;
841.5000;0.2466;2.3603;
841.8000;0.2589;2.4004;
842.1000;0.2548;2.3803;
842.4000;0.2475;2.3678;
842.7000;0.2434;2.3653;
843.0000;0.2564;2.3929;
843.3000;0.2483;2.3678;
843.6000;0.2409;2.3503;
843.9000;0.2499;2.3728;
844.2000;0.2409;2.3453;
844.5000;0.2336;2.3328;
844.8000;0.2466;2.3703;
845.1000;0.2475;2.3653;
845.4000;0.2515;2.3703;
845.7000;0.2475;2.3553;
846.0000;0.2483;2.3528;
846.3000;0.2466;2.3503;
846.6000;0.2548;2.3803;
846.9000;0.2466;2.3553;
847.2000;0.2466;2.3578;
847.5000;0.2475;2.3653;
847.8000;0.2475;2.3703;
848.1000;0.2466;2.3753;
848.4000;0.2450;2.3828;
848.7000;0.2466;2.3853;
849.0000;0.2466;2.3828;
849.3000;0.2409;2.3628;
849.6000;0.2450;2.3678;
849.9000;0.2475;2.3778;
850.2000;0.2466;2.3778;
850.5000;0.2507;2.3929;
850.8000;0.2458;2.3728;
851.1000;0.2458;2.3653;
851.4000;0.2450;2.3628;
851.7000;0.2458;2.3628;
852.0000;0.2475;2.3703;
852.3000;0.2450;2.3628;
852.6000;0.2450;2.3603;
852.9000;0.2491;2.3703;
853.2000;0.2466;2.3753;
853.5000;0.2458;2.3678;
853.8000;0.2491;2.3753;
854.1000;0.2507;2.3728;
854.4000;0.2442;2.3578;
854.7000;0.2466;2.3628;
855.0000;0.2458;2.3678;
855.3000;0.2475;2.3653;
855.6000;0.2483;2.3703;
855.9000;0.2499;2.3803;
856.2000;0.2515;2.3929;
856.5000;0.2540;2.4004;
856.8000;0.2426;2.3703;
857.1000;0.2393;2.3578;
857.4000;0.2442;2.3753;
857.7000;0.2491;2.3828;
858.0000;0.2515;2.3879;
858.3000;0.2491;2.3879;
858.6000;0.2458;2.3828;
858.9000;0.2483;2.3954;
859.2000;0.2475;2.3954;
859.5000;0.2466;2.3929;
859.8000;0.2450;2.3879;
860.1000;0.2556;2.4154;
860.4000;0.2483;2.3979;
860.7000;0.2426;2.3879;
861.0000;0.2483;2.3904;
861.3000;0.2540;2.3979;
861.6000;0.2483;2.3778;
861.9000;0.2475;2.3728;
862.2000;0.2499;2.3753;
862.5000;0.2450;2.3678;
862.8000;0.2483;2.3778;
863.1000;0.2466;2.3753;
863.4000;0.2483;2.3803;
863.7000;0.2475;2.3853;
864.0000;0.2466;2.3853;
864.3000;0.2507;2.3979;
864.6000;0.2499;2.3954;
864.9000;0.2475;2.3879;
865.2000;0.2466;2.3904;
865.5000;0.2589;2.4229;
865.8000;0.2466;2.3904;
866.1000;0.2499;2.3979;
866.4000;0.2377;2.3703;
866.7000;0.2564;2.4154;
867.0000;0.2491;2.4004;
867.3000;0.2458;2.3828;
867.6000;0.2515;2.3929;
867.9000;0.2499;2.3853;
868.2000;0.2475;2.3753;
868.5000;0.2458;2.3703;
868.8000;0.2466;2.3653;
869.1000;0.2466;2.3753;
869.4000;0.2491;2.3853;
869.7000;0.2336;2.3453;
870.0000;0.2466;2.3728;
870.3000;0.2564;2.4004;
870.6000;0.2483;2.3778;
870.9000;0.2442;2.3678;
871.2000;0.2466;2.3678;
871.5000;0.2605;2.4179;
871.8000;0.2458;2.3828;
872.1000;0.2491;2.3803;
872.4000;0.2393;2.3553;
872.7000;0.2466;2.3828;
873.0000;0.2426;2.3778;
873.3000;0.2564;2.4129;
873.6000;0.2475;2.3778;
873.9000;0.2450;2.3753;
874.2000;0.2475;2.3778;
874.5000;0.2483;2.3753;
874.8000;0.2466;2.3753;
875.1000;0.2475;2.3778;
875.4000;0.2426;2.3678;
875.7000;0.2475;2.3753;
876.0000;0.2475;2.3778;
876.3000;0.2515;2.3828;
876.6000;0.2499;2.3703;
876.9000;0.2466;2.3528;
877.2000;0.2442;2.3478;
877.5000;0.2466;2.3528;
877.8000;0.2475;2.3578;
878.1000;0.2491;2.3753;
878.4000;0.2483;2.3628;
878.7000;0.2475;2.3678;
879.0000;0.2434;2.3578;
879.3000;0.2475;2.3803;
879.6000;0.2483;2.3778;
879.9000;0.2320;2.3428;
880.2000;0.2458;2.3653;
880.5000;0.2499;2.3778;
880.8000;0.2458;2.3678;
881.1000;0.2491;2.3653;
881.4000;0.2475;2.3678;
881.7000;0.2466;2.3703;
882.0000;0.2442;2.3653;
882.3000;0.2475;2.3828;
882.6000;0.2458;2.3803;
882.9000;0.2475;2.3753;
883.2000;0.2475;2.3628;
883.5000;0.2483;2.3678;
883.8000;0.2458;2.3678;
884.1000;0.2466;2.3753;
884.4000;0.2515;2.3904;
884.7000;0.2475;2.3778;
885.0000;0.2483;2.3803;
885.3000;0.2458;2.3753;
885.6000;0.2483;2.3753;
885.9000;0.2507;2.3803;
886.2000;0.2466;2.3678;
886.5000;0.2475;2.3628;
886.8000;0.2483;2.3703;
887.1000;0.2450;2.3703;
887.4000;0.2418;2.3503;
887.7000;0.2475;2.3653;
888.0000;0.2458;2.3728;
888.3000;0.2499;2.3929;
888.6000;0.2475;2.3853;
888.9000;0.2483;2.3803;
889.2000;0.2409;2.3653;
889.5000;0.2483;2.3803;
889.8000;0.2466;2.3778;
890.1000;0.2475;2.3778;
890.4000;0.2475;2.3803;
890.7000;0.2434;2.3678;
891.0000;0.2637;2.4179;
891.3000;0.2491;2.3753;
891.6000;0.2466;2.3528;
891.9000;0.2475;2.3503;
892.2000;0.2572;2.3728;
892.5000;0.2540;2.3553;
892.8000;0.2499;2.3428;
893.1000;0.2466;2.3428;
893.4000;0.2499;2.3503;
893.7000;0.2515;2.3528;
894.0000;0.2475;2.3428;
894.3000;0.2475;2.3578;
894.6000;0.2491;2.3653;
894.9000;0.2491;2.3628;
895.2000;0.2499;2.3703;
895.5000;0.2523;2.3653;
895.8000;0.2483;2.3453;
896.1000;0.2483;2.3553;
896.4000;0.2426;2.3353;
896.7000;0.2499;2.3628;
897.0000;0.2499;2.3553;
897.3000;0.2401;2.3328;
897.6000;0.2450;2.3428;
897.9000;0.2475;2.3503;
898.2000;0.2458;2.3478;
898.5000;0.2475;2.3628;
898.8000;0.2475;2.3578;
899.1000;0.2450;2.3453;
899.4000;0.2466;2.3478;
899.7000;0.2491;2.3653;
900.0000;0.2442;2.3503;
900.3000;0.2377;2.3403;
900.6000;0.2483;2.3678;
900.9000;0.2491;2.3653;
901.2000;0.2466;2.3578;
901.5000;0.2450;2.3578;
901.8000;0.2466;2.3553;
902.1000;0.2507;2.3703;
902.4000;0.2450;2.3503;
902.7000;0.2450;2.3578;
903.0000;0.2466;2.3578;
903.3000;0.2491;2.3678;
903.6000;0.2442;2.3628;
903.9000;0.2507;2.3828;
904.2000;0.2483;2.3728;
904.5000;0.2499;2.3778;
904.8000;0.2499;2.3853;
905.1000;0.2556;2.4054;
905.4000;0.2458;2.3753;
905.7000;0.2458;2.3628;
906.0000;0.2466;2.3528;
906.3000;0.2515;2.3653;
906.6000;0.2483;2.3653;
906.9000;0.2458;2.3628;
907.2000;0.2507;2.3778;
907.5000;0.2475;2.3678;
907.8000;0.2426;2.3578;
908.1000;0.2499;2.3728;
908.4000;0.2499;2.3728;
908.7000;0.2483;2.3628;
909.0000;0.2491;2.3678;
909.3000;0.2483;2.3603;
909.6000;0.2475;2.3628;
909.9000;0.2442;2.3553;
910.2000;0.2491;2.3803;
910.5000;0.2466;2.3653;
910.8000;0.2475;2.3578;
911.1000;0.2401;2.3378;
911.4000;0.2458;2.3553;
911.7000;0.2442;2.3453;
912.0000;0.2475;2.3503;
912.3000;0.2515;2.3503;
912.6000;0.2483;2.3328;
912.9000;0.2450;2.3303;
913.2000;0.2491;2.3528;
913.5000;0.2401;2.3278;
913.8000;0.2466;2.3503;
914.1000;0.2523;2.3678;
914.4000;0.2475;2.3603;
914.7000;0.2475;2.3603;
915.0000;0.2491;2.3653;
915.3000;0.2458;2.3603;
915.6000;0.2499;2.3703;
915.9000;0.2401;2.3453;
916.2000;0.2523;2.3778;
916.5000;0.2401;2.3478;
916.8000;0.2393;2.3453;
917.1000;0.2507;2.3828;
917.4000;0.2483;2.3778;
917.7000;0.2475;2.3753;
918.0000;0.2466;2.3753;
918.3000;0.2426;2.3528;
918.6000;0.2483;2.3753;
918.9000;0.2523;2.3803;
919.2000;0.2442;2.3603;
919.5000;0.2515;2.3703;
919.8000;0.2466;2.3578;
920.1000;0.2499;2.3628;
920.4000;0.2434;2.3553;
920.7000;0.2458;2.3653;
921.0000;0.2483;2.3603;
921.3000;0.2564;2.3803;
921.6000;0.2458;2.3503;
921.9000;0.2483;2.3528;
922.2000;0.2466;2.3528;
922.5000;0.2450;2.3578;
922.8000;0.2458;2.3703;
923.1000;0.2466;2.3653;
923.4000;0.2483;2.3728;
923.7000;0.2507;2.3828;
924.0000;0.2466;2.3678;
924.3000;0.2540;2.3803;
924.6000;0.2491;2.3653;
924.9000;0.2458;2.3578;
925.2000;0.2458;2.3528;
925.5000;0.2475;2.3603;
925.8000;0.2491;2.3703;
926.1000;0.2466;2.3653;
926.4000;0.2475;2.3678;
926.7000;0.2507;2.3828;
927.0000;0.2466;2.3778;
927.3000;0.2499;2.3728;
927.6000;0.2458;2.3603;
927.9000;0.2369;2.3303;
928.2000;0.2466;2.3628;
928.5000;0.2499;2.3778;
928.8000;0.2491;2.3753;
929.1000;0.2475;2.3778;
929.4000;0.2466;2.3653;
929.7000;0.2523;2.3828;
930.0000;0.2483;2.3703;
930.3000;0.2466;2.3603;
930.6000;0.2466;2.3628;
930.9000;0.2458;2.3753;
931.2000;0.2483;2.3828;
931.5000;0.2475;2.3778;
931.8000;0.2466;2.3753;
932.1000;0.2450;2.3653;
932.4000;0.2458;2.3528;
932.7000;0.2450;2.3603;
933.0000;0.2572;2.3904;
933.3000;0.2409;2.3528;
933.6000;0.2515;2.3728;
933.9000;0.2409;2.3478;
934.2000;0.2499;2.3753;
934.5000;0.2475;2.3653;
934.8000;0.2393;2.3453;
935.1000;0.2320;2.3278;
935.4000;0.2548;2.3929;
935.7000;0.2475;2.3678;
936.0000;0.2385;2.3403;
936.3000;0.2466;2.3603;
936.6000;0.2475;2.3728;
936.9000;0.2491;2.3828;
937.2000;0.2434;2.3628;
937.5000;0.2540;2.3979;
937.8000;0.2507;2.3803;
938.1000;0.2458;2.3678;
938.4000;0.2466;2.3803;
938.7000;0.2483;2.3828;
939.0000;0.2475;2.3753;
939.3000;0.2507;2.3828;
939.6000;0.2491;2.3803;
939.9000;0.2475;2.3703;
940.2000;0.2491;2.3728;
940.5000;0.2458;2.3628;
940.8000;0.2491;2.3678;
941.1000;0.2466;2.3653;
941.4000;0.2466;2.3678;
941.7000;0.2418;2.3528;
942.0000;0.2540;2.3954;
942.3000;0.2475;2.3904;
942.6000;0.2483;2.3828;
942.9000;0.2434;2.3628;
943.2000;0.2450;2.3653;
943.5000;0.2475;2.3728;
943.8000;0.2475;2.3628;
944.1000;0.2466;2.3653;
944.4000;0.2466;2.3628;
944.7000;0.2491;2.3728;
945.0000;0.2401;2.3553;
945.3000;0.2475;2.3803;
945.6000;0.2483;2.3753;
945.9000;0.2442;2.3678;
946.2000;0.2426;2.3628;
946.5000;0.2475;2.3879;
946.8000;0.2491;2.3879;
947.1000;0.2491;2.3879;
947.4000;0.2475;2.3853;
947.7000;0.2475;2.3879;
948.0000;0.2475;2.3879;
948.3000;0.2499;2.3904;
948.6000;0.2466;2.3728;
948.9000;0.2507;2.3778;
949.2000;0.2499;2.3879;
949.5000;0.2523;2.4004;
949.8000;0.2475;2.3929;
950.1000;0.2475;2.3853;
950.4000;0.2499;2.3904;
950.7000;0.2483;2.3803;
951.0000;0.2475;2.3828;
951.3000;0.2523;2.3828;
951.6000;0.2499;2.3879;
951.9000;0.2426;2.3653;
952.2000;0.2499;2.3753;
952.5000;0.2499;2.3778;
952.8000;0.2483;2.3803;
953.1000;0.2475;2.3828;
953.4000;0.2483;2.3753;
953.7000;0.2475;2.3653;
954.0000;0.2491;2.3578;
954.3000;0.2507;2.3553;
954.6000;0.2499;2.3578;
954.9000;0.2466;2.3528;
955.2000;0.2548;2.3778;
955.5000;0.2450;2.3553;
955.8000;0.2491;2.3703;
956.1000;0.2499;2.3728;
956.4000;0.2442;2.3553;
956.7000;0.2499;2.3778;
957.0000;0.2466;2.3728;
957.3000;0.2336;2.3378;
957.6000;0.2466;2.3728;
957.9000;0.2523;2.3828;
958.2000;0.2499;2.3728;
958.5000;0.2377;2.3353;
958.8000;0.2499;2.3678;
959.1000;0.2458;2.3578;
959.4000;0.2426;2.3528;
959.7000;0.2491;2.3728;
960.0000;0.2491;2.3703;
960.3000;0.2483;2.3703;
960.6000;0.2499;2.3678;
960.9000;0.2475;2.3778;
961.2000;0.2483;2.3678;
961.5000;0.2564;2.3929;
961.8000;0.2507;2.3803;
962.1000;0.2483;2.3703;
962.4000;0.2515;2.3678;
962.7000;0.2466;2.3628;
963.0000;0.2466;2.3728;
963.3000;0.2483;2.3753;
963.6000;0.2426;2.3578;
963.9000;0.2475;2.3753;
964.2000;0.2475;2.3728;
964.5000;0.2475;2.3728;
964.8000;0.2475;2.3803;
965.1000;0.2491;2.3803;
965.4000;0.2377;2.3528;
965.7000;0.2491;2.3828;
966.0000;0.2507;2.3753;
966.3000;0.2336;2.3303;
966.6000;0.2466;2.3628;
966.9000;0.2499;2.3753;
967.2000;0.2515;2.3879;
967.5000;0.2434;2.3653;
967.8000;0.2475;2.3828;
968.1000;0.2483;2.3904;
968.4000;0.2491;2.3979;
968.7000;0.2466;2.3954;
969.0000;0.2507;2.3954;
969.3000;0.2507;2.3904;
969.6000;0.2515;2.3929;
969.9000;0.2466;2.3853;
970.2000;0.2483;2.3853;
970.5000;0.2491;2.3879;
970.8000;0.2483;2.3778;
971.1000;0.2450;2.3678;
971.4000;0.2475;2.3703;
971.7000;0.2466;2.3678;
972.0000;0.2491;2.3828;
972.3000;0.2442;2.3653;
972.6000;0.2499;2.3753;
972.9000;0.2458;2.3603;
973.2000;0.2475;2.3628;
973.5000;0.2475;2.3603;
973.8000;0.2466;2.3603;
974.1000;0.2491;2.3678;
974.4000;0.2483;2.3753;
974.7000;0.2491;2.3703;
975.0000;0.2409;2.3503;
975.3000;0.2466;2.3653;
975.6000;0.2475;2.3728;
975.9000;0.2483;2.3728;
976.2000;0.2475;2.3778;
976.5000;0.2450;2.3778;
976.8000;0.2466;2.3853;
977.1000;0.2466;2.3879;
977.4000;0.2483;2.3879;
977.7000;0.2483;2.3828;
978.0000;0.2466;2.3803;
978.3000;0.2466;2.3803;
978.6000;0.2483;2.3853;
978.9000;0.2499;2.3954;
979.2000;0.2475;2.3828;
979.5000;0.2507;2.3828;
979.8000;0.2475;2.3703;
980.1000;0.2450;2.3628;
980.4000;0.2507;2.3853;
980.7000;0.2507;2.3853;
981.0000;0.2483;2.3828;
981.3000;0.2499;2.3803;
981.6000;0.2466;2.3653;
981.9000;0.2491;2.3703;
982.2000;0.2442;2.3528;
982.5000;0.2418;2.3578;
982.8000;0.2483;2.3778;
983.1000;0.2401;2.3603;
983.4000;0.2491;2.3803;
983.7000;0.2491;2.3828;
984.0000;0.2450;2.3828;
984.3000;0.2385;2.3528;
984.6000;0.2475;2.3778;
984.9000;0.2458;2.3703;
985.2000;0.2458;2.3603;
985.5000;0.2434;2.3528;
985.8000;0.2483;2.3753;
986.1000;0.2483;2.3778;
986.4000;0.2491;2.3753;
986.7000;0.2483;2.3728;
987.0000;0.2466;2.3828;
987.3000;0.2580;2.4104;
987.6000;0.2580;2.4054;
987.9000;0.2491;2.3728;
988.2000;0.2483;2.3653;
988.5000;0.2556;2.3879;
988.8000;0.2491;2.3703;
989.1000;0.2475;2.3628;
989.4000;0.2450;2.3578;
989.7000;0.2499;2.3803;
990.0000;0.2483;2.3753;
990.3000;0.2361;2.3453;
990.6000;0.2475;2.3778;
990.9000;0.2491;2.3803;
991.2000;0.2458;2.3653;
991.5000;0.2483;2.3728;
991.8000;0.2523;2.3828;
992.1000;0.2475;2.3753;
992.4000;0.2458;2.3678;
992.7000;0.2475;2.3753;
993.0000;0.2418;2.3628;
993.3000;0.2466;2.3653;
993.6000;0.2491;2.3753;
993.9000;0.2483;2.3803;
994.2000;0.2442;2.3778;
994.5000;0.2458;2.3879;
994.8000;0.2507;2.4004;
995.1000;0.2409;2.3728;
995.4000;0.2458;2.3904;
995.7000;0.2475;2.3929;
996.0000;0.2458;2.3728;
996.3000;0.2523;2.3803;
996.6000;0.2507;2.3778;
996.9000;0.2466;2.3628;
997.2000;0.2483;2.3703;
997.5000;0.2475;2.3628;
997.8000;0.2475;2.3528;
998.1000;0.2523;2.3703;
998.4000;0.2458;2.3553;
998.7000;0.2466;2.3528;
999.0000;0.2475;2.3528;
999.3000;0.2483;2.3603;
999.6000;0.2450;2.3453;
999.9000;0.2515;2.3528;
1000.2000;0.2491;2.3503;
1000.5000;0.2434;2.3428;
1000.8000;0.2239;2.2927;
1001.1000;0.2491;2.3553;
1001.4000;0.2458;2.3428;
1001.7000;0.2475;2.3503;
1002.0000;0.2442;2.3428;
1002.3000;0.2458;2.3503;
1002.6000;0.2483;2.3628;
1002.9000;0.2466;2.3678;
1003.2000;0.2556;2.3929;
1003.5000;0.2475;2.3678;
1003.8000;0.2491;2.3653;
1004.1000;0.2507;2.3728;
1004.4000;0.2466;2.3528;
1004.7000;0.2475;2.3603;
1005.0000;0.2475;2.3628;
1005.3000;0.2483;2.3628;
1005.6000;0.2466;2.3553;
1005.9000;0.2426;2.3453;
1006.2000;0.2540;2.3678;
1006.5000;0.2483;2.3553;
1006.8000;0.2499;2.3603;
1007.1000;0.2483;2.3628;
1007.4000;0.2515;2.3703;
1007.7000;0.2401;2.3478;
1008.0000;0.2491;2.3728;
1008.3000;0.2475;2.3553;
1008.6000;0.2458;2.3503;
1008.9000;0.2491;2.3503;
1009.2000;0.2475;2.3378;
1009.5000;0.2475;2.3428;
1009.8000;0.2466;2.3403;
1010.1000;0.2475;2.3428;
1010.4000;0.2483;2.3453;
1010.7000;0.2475;2.3478;
1011.0000;0.2458;2.3378;
1011.3000;0.2532;2.3628;
1011.6000;0.2499;2.3528;
1011.9000;0.2499;2.3578;
1012.2000;0.2483;2.3553;
1012.5000;0.2613;2.4079;
1012.8000;0.2515;2.3904;
1013.1000;0.2466;2.3828;
1013.4000;0.2442;2.3778;
1013.7000;0.2466;2.3803;
1014.0000;0.2466;2.3803;
1014.3000;0.2458;2.3753;
1014.6000;0.2466;2.3828;
1014.9000;0.2540;2.4029;
1015.2000;0.2466;2.3828;
1015.5000;0.2475;2.3853;
1015.8000;0.2450;2.3753;
1016.1000;0.2458;2.3828;
1016.4000;0.2466;2.3954;
1016.7000;0.2491;2.3979;
1017.0000;0.2442;2.3853;
1017.3000;0.2450;2.3828;
1017.6000;0.2507;2.3879;
1017.9000;0.2523;2.3828;
1018.2000;0.2361;2.3428;
1018.5000;0.2442;2.3703;
1018.8000;0.2466;2.3728;
1019.1000;0.2621;2.4129;
1019.4000;0.2458;2.3778;
1019.7000;0.2507;2.3879;
1020.0000;0.2450;2.3703;
1020.3000;0.2466;2.3778;
1020.6000;0.2475;2.3753;
1020.9000;0.2483;2.3853;
1021.2000;0.2483;2.3904;
1021.5000;0.2475;2.3879;
1021.8000;0.2434;2.3778;
1022.1000;0.2475;2.3778;
1022.4000;0.2458;2.3753;
1022.7000;0.2483;2.3853;
1023.0000;0.2442;2.3753;
1023.3000;0.2507;2.4029;
1023.6000;0.2466;2.3904;
1023.9000;0.2442;2.3929;
1024.2000;0.2523;2.4079;
1024.5000;0.2507;2.3904;
1024.8000;0.2483;2.3879;
1025.1000;0.2499;2.3929;
1025.4000;0.2418;2.3628;
1025.7000;0.2548;2.3853;
1026.0000;0.2458;2.3578;
1026.3000;0.2483;2.3653;
1026.6000;0.2466;2.3678;
1026.9000;0.2466;2.3603;
1027.2000;0.2523;2.3703;
1027.5000;0.2458;2.3578;
1027.8000;0.2532;2.3803;
1028.1000;0.2499;2.3653;
1028.4000;0.2466;2.3628;
1028.7000;0.2475;2.3703;
1029.0000;0.2401;2.3528;
1029.3000;0.2475;2.3728;
1029.6000;0.2466;2.3753;
1029.9000;0.2491;2.3879;
1030.2000;0.2458;2.3728;
1030.5000;0.2483;2.3753;
1030.8000;0.2483;2.3728;
1031.1000;0.2475;2.3778;
1031.4000;0.2475;2.3728;
1031.7000;0.2458;2.3703;
1032.0000;0.2507;2.3853;
1032.3000;0.2426;2.3628;
1032.6000;0.2483;2.3828;
1032.9000;0.2483;2.3904;
1033.2000;0.2483;2.3853;
1033.5000;0.2418;2.3703;
1033.8000;0.2401;2.3628;
1034.1000;0.2491;2.3879;
1034.4000;0.2475;2.3853;
1034.7000;0.2507;2.3879;
1035.0000;0.2507;2.3929;
1035.3000;0.2320;2.3353;
1035.6000;0.2491;2.3753;
1035.9000;0.2499;2.3703;
1036.2000;0.2458;2.3653;
1036.5000;0.2483;2.3678;
1036.8000;0.2532;2.3803;
1037.1000;0.2442;2.3678;
1037.4000;0.2458;2.3628;
1037.7000;0.2466;2.3628;
1038.0000;0.2442;2.3503;
1038.3000;0.2475;2.3628;
1038.6000;0.2475;2.3653;
1038.9000;0.2450;2.3553;
1039.2000;0.2483;2.3703;
1039.5000;0.2491;2.3728;
1039.8000;0.2483;2.3678;
1040.1000;0.2515;2.3753;
1040.4000;0.2499;2.3728;
1040.7000;0.2483;2.3728;
1041.0000;0.2507;2.3753;
1041.3000;0.2450;2.3653;
1041.6000;0.2475;2.3628;
1041.9000;0.2466;2.3603;
1042.2000;0.2475;2.3653;
1042.5000;0.2475;2.3603;
1042.8000;0.2442;2.3653;
1043.1000;0.2499;2.3778;
1043.4000;0.2466;2.3778;
1043.7000;0.2450;2.3778;
1044.0000;0.2450;2.3879;
1044.3000;0.2483;2.3979;
1044.6000;0.2483;2.3904;
1044.9000;0.2507;2.3929;
1045.2000;0.2556;2.4054;
1045.5000;0.2466;2.3753;
1045.8000;0.2466;2.3778;
1046.1000;0.2491;2.3803;
1046.4000;0.2458;2.3753;
1046.7000;0.2515;2.3853;
1047.0000;0.2466;2.3728;
1047.3000;0.2450;2.3578;
1047.6000;0.2475;2.3628;
1047.9000;0.2637;2.4129;
1048.2000;0.2483;2.3728;
1048.5000;0.2491;2.3778;
1048.8000;0.2475;2.3728;
1049.1000;0.2426;2.3528;
1049.4000;0.2499;2.3678;
1049.7000;0.2466;2.3678;
1050.0000;0.2418;2.3628;
1050.3000;0.2458;2.3728;
1050.6000;0.2491;2.3879;
1050.9000;0.2466;2.3904;
1051.2000;0.2401;2.3728;
1051.5000;0.2475;2.3803;
1051.8000;0.2507;2.3879;
1052.1000;0.2475;2.3753;
1052.4000;0.2572;2.3904;
1052.7000;0.2466;2.3628;
1053.0000;0.2483;2.3678;
1053.3000;0.2475;2.3678;
1053.6000;0.2572;2.3979;
1053.9000;0.2483;2.3753;
1054.2000;0.2499;2.3828;
1054.5000;0.2434;2.3703;
1054.8000;0.2475;2.3728;
1055.1000;0.2483;2.3728;
1055.4000;0.2532;2.3828;
1055.7000;0.2450;2.3678;
1056.0000;0.2564;2.4004;
1056.3000;0.2483;2.3778;
1056.6000;0.2499;2.3879;
1056.9000;0.2475;2.3778;
1057.2000;0.2458;2.3678;
1057.5000;0.2475;2.3753;
1057.8000;0.2475;2.3778;
1058.1000;0.2475;2.3778;
1058.4000;0.2483;2.3753;
1058.7000;0.2450;2.3653;
1059.0000;0.2491;2.3753;
1059.3000;0.2572;2.3904;
1059.6000;0.2491;2.3653;
1059.9000;0.2499;2.3728;
1060.2000;0.2466;2.3678;
1060.5000;0.2491;2.3703;
1060.8000;0.2466;2.3728;
1061.1000;0.2483;2.3703;
1061.4000;0.2483;2.3678;
1061.7000;0.2336;2.3353;
1062.0000;0.2483;2.3803;
1062.3000;0.2475;2.3929;
1062.6000;0.2458;2.3853;
1062.9000;0.2458;2.3803;
1063.2000;0.2475;2.3778;
1063.5000;0.2475;2.3778;
1063.8000;0.2466;2.3753;
1064.1000;0.2483;2.3778;
1064.4000;0.2442;2.3728;
1064.7000;0.2483;2.3879;
1065.0000;0.2426;2.3678;
1065.3000;0.2507;2.3853;
1065.6000;0.2491;2.3803;
1065.9000;0.2426;2.3628;
1066.2000;0.2458;2.3753;
1066.5000;0.2466;2.3778;
1066.8000;0.2483;2.3828;
1067.1000;0.2556;2.3979;
1067.4000;0.2499;2.3703;
1067.7000;0.2466;2.3703;
1068.0000;0.2434;2.3553;
1068.3000;0.2475;2.3653;
1068.6000;0.2491;2.3678;
1068.9000;0.2418;2.3478;
1069.2000;0.2483;2.3653;
1069.5000;0.2475;2.3628;
1069.8000;0.2483;2.3728;
1070.1000;0.2458;2.3578;
1070.4000;0.2507;2.3728;
1070.7000;0.2466;2.3653;
1071.0000;0.2418;2.3553;
1071.3000;0.2491;2.3778;
1071.6000;0.2434;2.3578;
1071.9000;0.2515;2.3828;
1072.2000;0.2483;2.3653;
1072.5000;0.2466;2.3453;
1072.8000;0.2483;2.3553;
1073.1000;0.2483;2.3553;
1073.4000;0.2466;2.3628;
1073.7000;0.2483;2.3653;
1074.0000;0.2507;2.3653;
1074.3000;0.2418;2.3478;
1074.6000;0.2377;2.3403;
1074.9000;0.2475;2.3653;
1075.2000;0.2442;2.3528;
1075.5000;0.2483;2.3703;
1075.8000;0.2434;2.3578;
1076.1000;0.2483;2.3628;
1076.4000;0.2426;2.3503;
1076.7000;0.2483;2.3678;
1077.0000;0.2458;2.3653;
1077.3000;0.2483;2.3778;
1077.6000;0.2475;2.3728;
1077.9000;0.2515;2.3828;
1078.2000;0.2507;2.3803;
1078.5000;0.2515;2.3803;
1078.8000;0.2515;2.3828;
1079.1000;0.2450;2.3678;
1079.4000;0.2507;2.3753;
1079.7000;0.2523;2.3778;
1080.0000;0.2491;2.3578;
1080.3000;0.2458;2.3453;
1080.6000;0.2466;2.3478;
1080.9000;0.2491;2.3528;
1081.2000;0.2466;2.3653;
1081.5000;0.2475;2.3653;
1081.8000;0.2393;2.3503;
1082.1000;0.2466;2.3728;
1082.4000;0.2475;2.3678;
1082.7000;0.2491;2.3628;
1083.0000;0.2418;2.3453;
1083.3000;0.2483;2.3653;
1083.6000;0.2483;2.3578;
1083.9000;0.2548;2.3728;
1084.2000;0.2515;2.3653;
1084.5000;0.2393;2.3378;
1084.8000;0.2475;2.3628;
1085.1000;0.2475;2.3653;
1085.4000;0.2515;2.3728;
1085.7000;0.2507;2.3603;
1086.0000;0.2483;2.3578;
1086.3000;0.2450;2.3578;
1086.6000;0.2475;2.3603;
1086.9000;0.2466;2.3603;
1087.2000;0.2458;2.3578;
1087.5000;0.2475;2.3653;
1087.8000;0.2564;2.3778;
1088.1000;0.2458;2.3503;
1088.4000;0.2458;2.3528;
1088.7000;0.2466;2.3703;
1089.0000;0.2483;2.3778;
1089.3000;0.2475;2.3778;
1089.6000;0.2458;2.3678;
1089.9000;0.2532;2.3904;
1090.2000;0.2515;2.3778;
1090.5000;0.2499;2.3703;
1090.8000;0.2458;2.3703;
1091.1000;0.2491;2.3728;
1091.4000;0.2483;2.3753;
1091.7000;0.2483;2.3778;
1092.0000;0.2466;2.3578;
1092.3000;0.2548;2.3828;
1092.6000;0.2499;2.3603;
1092.9000;0.2483;2.3478;
1093.2000;0.2466;2.3378;
1093.5000;0.2450;2.3303;
1093.8000;0.2597;2.3703;
1094.1000;0.2450;2.3453;
1094.4000;0.2458;2.3478;
1094.7000;0.2491;2.3528;
1095.0000;0.2466;2.3603;
1095.3000;0.2483;2.3703;
1095.6000;0.2491;2.3728;
1095.9000;0.2499;2.3853;
1096.2000;0.2466;2.3803;
1096.5000;0.2507;2.3954;
1096.8000;0.2475;2.3979;
1097.1000;0.2483;2.4029;
1097.4000;0.2458;2.3828;
1097.7000;0.2450;2.3778;
1098.0000;0.2483;2.3904;
1098.3000;0.2564;2.4104;
1098.6000;0.2458;2.3828;
1098.9000;0.2475;2.3929;
1099.2000;0.2483;2.3954;
1099.5000;0.2564;2.4179;
1099.8000;0.2475;2.3879;
1100.1000;0.2507;2.3879;
1100.4000;0.2475;2.3778;
1100.7000;0.2458;2.3653;
1101.0000;0.2466;2.3578;
1101.3000;0.2466;2.3578;
1101.6000;0.2466;2.3578;
1101.9000;0.2507;2.3653;
1102.2000;0.2458;2.3578;
1102.5000;0.2458;2.3678;
1102.8000;0.2499;2.3803;
1103.1000;0.2466;2.3778;
1103.4000;0.2475;2.3803;
1103.7000;0.2442;2.3728;
1104.0000;0.2483;2.3803;
1104.3000;0.2483;2.3904;
1104.6000;0.2475;2.3778;
1104.9000;0.2475;2.3803;
1105.2000;0.2475;2.3703;
1105.5000;0.2475;2.3628;
1105.8000;0.2491;2.3678;
1106.1000;0.2475;2.3678;
1106.4000;0.2523;2.3828;
1106.7000;0.2458;2.3628;
1107.0000;0.2589;2.3879;
1107.3000;0.2564;2.3904;
1107.6000;0.2523;2.3778;
1107.9000;0.2556;2.3828;
1108.2000;0.2483;2.3678;
1108.5000;0.2475;2.3628;
1108.8000;0.2540;2.3778;
1109.1000;0.2491;2.3628;
1109.4000;0.2483;2.3578;
1109.7000;0.2483;2.3603;
1110.0000;0.2483;2.3628;
1110.3000;0.2466;2.3528;
1110.6000;0.2499;2.3578;
1110.9000;0.2491;2.3678;
1111.2000;0.2483;2.3703;
1111.5000;0.2515;2.3853;
1111.8000;0.2483;2.3703;
1112.1000;0.2491;2.3753;
1112.4000;0.2450;2.3728;
1112.7000;0.2385;2.3628;
1113.0000;0.2458;2.3728;
1113.3000;0.2499;2.3753;
1113.6000;0.2442;2.3553;
1113.9000;0.2491;2.3678;
1114.2000;0.2491;2.3628;
1114.5000;0.2499;2.3753;
1114.8000;0.2491;2.3778;
1115.1000;0.2475;2.3728;
1115.4000;0.2491;2.3803;
1115.7000;0.2499;2.3879;
1116.0000;0.2483;2.3879;
1116.3000;0.2450;2.3753;
1116.6000;0.2475;2.3803;
1116.9000;0.2475;2.3828;
1117.2000;0.2475;2.3753;
1117.5000;0.2475;2.3653;
1117.8000;0.2491;2.3778;
1118.1000;0.2491;2.3728;
1118.4000;0.2491;2.3703;
1118.7000;0.2475;2.3628;
1119.0000;0.2515;2.3753;
1119.3000;0.2499;2.3753;
1119.6000;0.2532;2.3879;
1119.9000;0.2483;2.3703;
1120.2000;0.2515;2.3728;
1120.5000;0.2507;2.3728;
1120.8000;0.2475;2.3603;
1121.1000;0.2475;2.3503;
1121.4000;0.2369;2.3203;
1121.7000;0.2515;2.3578;
1122.0000;0.2466;2.3478;
1122.3000;0.2483;2.3578;
1122.6000;0.2483;2.3603;
1122.9000;0.2475;2.3528;
1123.2000;0.2532;2.3603;
1123.5000;0.2466;2.3453;
1123.8000;0.2442;2.3478;
1124.1000;0.2548;2.3778;
1124.4000;0.2556;2.3904;
1124.7000;0.2483;2.3703;
1125.0000;0.2515;2.3803;
1125.3000;0.2475;2.3803;
1125.6000;0.2458;2.3753;
1125.9000;0.2458;2.3653;
1126.2000;0.2491;2.3678;
1126.5000;0.2385;2.3378;
1126.8000;0.2393;2.3428;
1127.1000;0.2475;2.3628;
1127.4000;0.2548;2.3753;
1127.7000;0.2491;2.3553;
1128.0000;0.2475;2.3478;
1128.3000;0.2458;2.3453;
1128.6000;0.2458;2.3528;
1128.9000;0.2475;2.3603;
1129.2000;0.2483;2.3603;
1129.5000;0.2450;2.3528;
1129.8000;0.2475;2.3553;
1130.1000;0.2483;2.3603;
1130.4000;0.2491;2.3553;
1130.7000;0.2483;2.3528;
1131.0000;0.2483;2.3603;
1131.3000;0.2491;2.3528;
1131.6000;0.2475;2.3578;
1131.9000;0.2532;2.3778;
1132.2000;0.2475;2.3653;
1132.5000;0.2540;2.3828;
1132.8000;0.2466;2.3678;
1133.1000;0.2458;2.3578;
1133.4000;0.2458;2.3603;
1133.7000;0.2458;2.3628;
1134.0000;0.2434;2.3603;
1134.3000;0.2475;2.3703;
1134.6000;0.2450;2.3628;
1134.9000;0.2491;2.3728;
1135.2000;0.2483;2.3703;
1135.5000;0.2483;2.3753;
1135.8000;0.2475;2.3879;
1136.1000;0.2475;2.3904;
1136.4000;0.2515;2.3879;
1136.7000;0.2475;2.3753;
1137.0000;0.2507;2.3778;
1137.3000;0.2401;2.3503;
1137.6000;0.2523;2.3803;
1137.9000;0.2458;2.3603;
1138.2000;0.2466;2.3553;
1138.5000;0.2491;2.3653;
1138.8000;0.2458;2.3678;
1139.1000;0.2466;2.3728;
1139.4000;0.2483;2.3828;
1139.7000;0.2483;2.3803;
1140.0000;0.2491;2.3904;
1140.3000;0.2507;2.3853;
1140.6000;0.2418;2.3578;
1140.9000;0.2483;2.3753;
1141.2000;0.2458;2.3603;
1141.5000;0.2393;2.3528;
1141.8000;0.2499;2.3853;
1142.1000;0.2475;2.3803;
1142.4000;0.2442;2.3703;
1142.7000;0.2499;2.3904;
1143.0000;0.2532;2.3929;
1143.3000;0.2426;2.3678;
1143.6000;0.2466;2.3778;
1143.9000;0.2458;2.3753;
1144.2000;0.2507;2.3929;
1144.5000;0.2507;2.3904;
1144.8000;0.2466;2.3753;
1145.1000;0.2532;2.4004;
1145.4000;0.2475;2.3778;
1145.7000;0.2450;2.3703;
1146.0000;0.2499;2.3703;
1146.3000;0.2466;2.3578;
1146.6000;0.2483;2.3628;
1146.9000;0.2483;2.3653;
1147.2000;0.2466;2.3628;
1147.5000;0.2475;2.3653;
1147.8000;0.2466;2.3678;
1148.1000;0.2450;2.3628;
1148.4000;0.2491;2.3778;
1148.7000;0.2458;2.3753;
1149.0000;0.2499;2.3879;
1149.3000;0.2458;2.3753;
1149.6000;0.2475;2.3803;
1149.9000;0.2507;2.3929;
1150.2000;0.2491;2.3954;
1150.5000;0.2475;2.3979;
1150.8000;0.2475;2.3979;
1151.1000;0.2466;2.3828;
1151.4000;0.2491;2.3929;
1151.7000;0.2507;2.3929;
1152.0000;0.2466;2.3853;
1152.3000;0.2499;2.3929;
1152.6000;0.2475;2.3879;
1152.9000;0.2466;2.3904;
1153.2000;0.2475;2.3828;
1153.5000;0.2475;2.3678;
1153.8000;0.2483;2.3678;
1154.1000;0.2483;2.3603;
1154.4000;0.2483;2.3578;
1154.7000;0.2475;2.3553;
1155.0000;0.2515;2.3728;
1155.3000;0.2475;2.3728;
1155.6000;0.2515;2.3853;
1155.9000;0.2475;2.3853;
1156.2000;0.2491;2.3828;
1156.5000;0.2475;2.3828;
1156.8000;0.2515;2.3879;
1157.1000;0.2426;2.3553;
1157.4000;0.2458;2.3528;
1157.7000;0.2466;2.3603;
1158.0000;0.2458;2.3653;
1158.3000;0.2475;2.3703;
1158.6000;0.2458;2.3628;
1158.9000;0.2523;2.3753;
1159.2000;0.2483;2.3628;
1159.5000;0.2499;2.3703;
1159.8000;0.2475;2.3678;
1160.1000;0.2426;2.3478;
1160.4000;0.2418;2.3428;
1160.7000;0.2475;2.3503;
1161.0000;0.2475;2.3603;
1161.3000;0.2466;2.3628;
1161.6000;0.2475;2.3703;
1161.9000;0.2475;2.3703;
1162.2000;0.2491;2.3753;
1162.5000;0.2475;2.3703;
1162.8000;0.2466;2.3653;
1163.1000;0.2491;2.3703;
1163.4000;0.2450;2.3603;
1163.7000;0.2483;2.3728;
1164.0000;0.2466;2.3728;
1164.3000;0.2523;2.3853;
1164.6000;0.2458;2.3803;
1164.9000;0.2450;2.3703;
1165.2000;0.2336;2.3378;
1165.5000;0.2499;2.3904;
1165.8000;0.2507;2.3879;
1166.1000;0.2475;2.3778;
1166.4000;0.2483;2.3778;
1166.7000;0.2450;2.3553;
1167.0000;0.2409;2.3453;
1167.3000;0.2475;2.3653;
1167.6000;0.2344;2.3303;
1167.9000;0.2491;2.3678;
1168.2000;0.2466;2.3603;
1168.5000;0.2597;2.4004;
1168.8000;0.2466;2.3628;
1169.1000;0.2434;2.3553;
1169.4000;0.2483;2.3678;
1169.7000;0.2466;2.3703;
1170.0000;0.2491;2.3753;
1170.3000;0.2491;2.3703;
1170.6000;0.2483;2.3703;
1170.9000;0.2475;2.3728;
1171.2000;0.2589;2.4079;
1171.5000;0.2466;2.3653;
1171.8000;0.2458;2.3728;
1172.1000;0.2426;2.3653;
1172.4000;0.2483;2.3828;
1172.7000;0.2499;2.3929;
1173.0000;0.2466;2.3828;
1173.3000;0.2434;2.3678;
1173.6000;0.2475;2.3879;
1173.9000;0.2466;2.3828;
1174.2000;0.2491;2.3929;
1174.5000;0.2483;2.3778;
1174.8000;0.2450;2.3553;
1175.1000;0.2475;2.3628;
1175.4000;0.2426;2.3453;
1175.7000;0.2466;2.3553;
1176.0000;0.2532;2.3653;
1176.3000;0.2491;2.3553;
1176.6000;0.2515;2.3653;
1176.9000;0.2702;2.4079;
1177.2000;0.2466;2.3378;
1177.5000;0.2572;2.3678;
1177.8000;0.2442;2.3328;
1178.1000;0.2507;2.3528;
1178.4000;0.2491;2.3503;
1178.7000;0.2458;2.3453;
1179.0000;0.2466;2.3528;
1179.3000;0.2466;2.3603;
1179.6000;0.2458;2.3603;
1179.9000;0.2466;2.3578;
1180.2000;0.2507;2.3703;
1180.5000;0.2499;2.3703;
1180.8000;0.2491;2.3678;
1181.1000;0.2523;2.3753;
1181.4000;0.2475;2.3628;
1181.7000;0.2475;2.3553;
1182.0000;0.2401;2.3478;
1182.3000;0.2483;2.3703;
1182.6000;0.2483;2.3703;
1182.9000;0.2450;2.3678;
1183.2000;0.2483;2.3853;
1183.5000;0.2466;2.3753;
1183.8000;0.2442;2.3728;
1184.1000;0.2475;2.3803;
1184.4000;0.2475;2.3803;
1184.7000;0.2491;2.3778;
1185.0000;0.2475;2.3728;
1185.3000;0.2507;2.3828;
1185.6000;0.2515;2.3929;
1185.9000;0.2483;2.3803;
1186.2000;0.2483;2.3678;
1186.5000;0.2499;2.3803;
1186.8000;0.2475;2.3703;
1187.1000;0.2466;2.3653;
1187.4000;0.2458;2.3603;
1187.7000;0.2450;2.3678;
1188.0000;0.2475;2.3728;
1188.3000;0.2507;2.3879;
1188.6000;0.2483;2.3904;
1188.9000;0.2450;2.3778;
1189.2000;0.2523;2.4029;
1189.5000;0.2491;2.3879;
1189.8000;0.2491;2.3853;
1190.1000;0.2466;2.3803;
1190.4000;0.2458;2.3678;
1190.7000;0.2499;2.3753;
1191.0000;0.2499;2.3728;
1191.3000;0.2523;2.3879;
1191.6000;0.2466;2.3653;
1191.9000;0.2483;2.3653;
1192.2000;0.2466;2.3653;
1192.5000;0.2450;2.3653;
1192.8000;0.2442;2.3603;
1193.1000;0.2515;2.3703;
1193.4000;0.2491;2.3603;
1193.7000;0.2491;2.3703;
1194.0000;0.2475;2.3678;
1194.3000;0.2491;2.3753;
1194.6000;0.2475;2.3703;
1194.9000;0.2466;2.3678;
1195.2000;0.2499;2.3778;
1195.5000;0.2450;2.3578;
1195.8000;0.2499;2.3653;
1196.1000;0.2499;2.3603;
1196.4000;0.2466;2.3428;
1196.7000;0.2475;2.3453;
1197.0000;0.2572;2.3778;
1197.3000;0.2580;2.3803;
1197.6000;0.2466;2.3528;
1197.9000;0.2532;2.3828;
1198.2000;0.2483;2.3678;
1198.5000;0.2475;2.3603;
1198.8000;0.2466;2.3528;
1199.1000;0.2475;2.3478;
1199.4000;0.2475;2.3478;
1199.7000;0.2483;2.3478;
1200.0000;0.2458;2.3428;
1200.3000;0.2475;2.3428;
1200.6000;0.2491;2.3478;
1200.9000;0.2515;2.3603;
1201.2000;0.2499;2.3578;
1201.5000;0.2507;2.3603;
1201.8000;0.2532;2.3728;
1202.1000;0.2475;2.3603;
1202.4000;0.2466;2.3578;
1202.7000;0.2475;2.3553;
1203.0000;0.2475;2.3528;
1203.3000;0.2434;2.3528;
1203.6000;0.2475;2.3653;
1203.9000;0.2475;2.3603;
1204.2000;0.2475;2.3553;
1204.5000;0.2450;2.3478;
1204.8000;0.2483;2.3653;
1205.1000;0.2442;2.3603;
1205.4000;0.2532;2.3853;
1205.7000;0.2572;2.3828;
1206.0000;0.2491;2.3603;
1206.3000;0.2540;2.3728;
1206.6000;0.2458;2.3553;
1206.9000;0.2458;2.3478;
1207.2000;0.2466;2.3528;
1207.5000;0.2499;2.3678;
1207.8000;0.2458;2.3503;
1208.1000;0.2499;2.3553;
1208.4000;0.2450;2.3553;
1208.7000;0.2450;2.3578;
1209.0000;0.2491;2.3653;
1209.3000;0.2466;2.3503;
1209.6000;0.2507;2.3553;
1209.9000;0.2515;2.3553;
1210.2000;0.2466;2.3428;
1210.5000;0.2499;2.3653;
1210.8000;0.2491;2.3703;
1211.1000;0.2475;2.3628;
1211.4000;0.2499;2.3678;
1211.7000;0.2491;2.3678;
1212.0000;0.2450;2.3603;
1212.3000;0.2475;2.3678;
1212.6000;0.2344;2.3353;
1212.9000;0.2483;2.3653;
1213.2000;0.2483;2.3678;
1213.5000;0.2466;2.3778;
1213.8000;0.2458;2.3728;
1214.1000;0.2483;2.3728;
1214.4000;0.2532;2.3778;
1214.7000;0.2507;2.3703;
1215.0000;0.2491;2.3778;
1215.3000;0.2523;2.3803;
1215.6000;0.2475;2.3653;
1215.9000;0.2483;2.3703;
1216.2000;0.2409;2.3378;
1216.5000;0.2483;2.3578;
1216.8000;0.2466;2.3628;
1217.1000;0.2450;2.3603;
1217.4000;0.2466;2.3528;
1217.7000;0.2475;2.3553;
1218.0000;0.2491;2.3628;
1218.3000;0.2466;2.3653;
1218.6000;0.2475;2.3653;
1218.9000;0.2499;2.3703;
1219.2000;0.2491;2.3703;
1219.5000;0.2491;2.3753;
1219.8000;0.2483;2.3728;
1220.1000;0.2475;2.3753;
1220.4000;0.2483;2.3828;
1220.7000;0.2564;2.3954;
1221.0000;0.2418;2.3528;
1221.3000;0.2377;2.3403;
1221.6000;0.2548;2.3879;
1221.9000;0.2483;2.3703;
1222.2000;0.2483;2.3678;
1222.5000;0.2483;2.3578;
1222.8000;0.2450;2.3503;
1223.1000;0.2499;2.3653;
1223.4000;0.2466;2.3653;
1223.7000;0.2483;2.3728;
1224.0000;0.2556;2.3853;
1224.3000;0.2466;2.3703;
1224.6000;0.2475;2.3778;
1224.9000;0.2401;2.3603;
1225.2000;0.2515;2.3954;
1225.5000;0.2483;2.3778;
1225.8000;0.2483;2.3753;
1226.1000;0.2475;2.3753;
1226.4000;0.2483;2.3803;
1226.7000;0.2491;2.3803;
1227.0000;0.2491;2.3728;
1227.3000;0.2523;2.3803;
1227.6000;0.2483;2.3728;
1227.9000;0.2458;2.3628;
1228.2000;0.2491;2.3753;
1228.5000;0.2499;2.3803;
1228.8000;0.2466;2.3753;
1229.1000;0.2483;2.3678;
1229.4000;0.2442;2.3478;
1229.7000;0.2466;2.3578;
1230.0000;0.2499;2.3778;
1230.3000;0.2491;2.3703;
1230.6000;0.2523;2.3853;
1230.9000;0.2466;2.3728;
1231.2000;0.2499;2.3803;
1231.5000;0.2483;2.3703;
1231.8000;0.2499;2.3703;
1232.1000;0.2548;2.3853;
1232.4000;0.2483;2.3603;
1232.7000;0.2483;2.3553;
1233.0000;0.2466;2.3578;
1233.3000;0.2442;2.3578;
1233.6000;0.2466;2.3753;
1233.9000;0.2466;2.3803;
1234.2000;0.2483;2.3753;
1234.5000;0.2409;2.3578;
1234.8000;0.2475;2.3753;
1235.1000;0.2523;2.3929;
1235.4000;0.2442;2.3703;
1235.7000;0.2466;2.3678;
1236.0000;0.2475;2.3753;
1236.3000;0.2475;2.3753;
1236.6000;0.2466;2.3828;
1236.9000;0.2483;2.3778;
1237.2000;0.2442;2.3628;
1237.5000;0.2556;2.3979;
1237.8000;0.2483;2.3828;
1238.1000;0.2312;2.3253;
1238.4000;0.2580;2.3853;
1238.7000;0.2515;2.3753;
1239.0000;0.2597;2.3954;
1239.3000;0.2507;2.3678;
1239.6000;0.2499;2.3603;
1239.9000;0.2483;2.3603;
1240.2000;0.2401;2.3378;
1240.5000;0.2450;2.3603;
1240.8000;0.2442;2.3578;
1241.1000;0.2475;2.3603;
1241.4000;0.2466;2.3603;
1241.7000;0.2483;2.3703;
1242.0000;0.2434;2.3603;
1242.3000;0.2483;2.3803;
1242.6000;0.2442;2.3703;
1242.9000;0.2458;2.3803;
1243.2000;0.2450;2.3703;
1243.5000;0.2475;2.3753;
1243.8000;0.2491;2.3853;
1244.1000;0.2442;2.3678;
1244.4000;0.2475;2.3778;
1244.7000;0.2483;2.3728;
1245.0000;0.2434;2.3703;
1245.3000;0.2483;2.3828;
1245.6000;0.2548;2.4029;
1245.9000;0.2466;2.3778;
1246.2000;0.2466;2.3728;
1246.5000;0.2475;2.3778;
1246.8000;0.2475;2.3853;
1247.1000;0.2466;2.3904;
1247.4000;0.2466;2.3954;
1247.7000;0.2458;2.3929;
1248.0000;0.2466;2.3979;
1248.3000;0.2475;2.4079;
1248.6000;0.2507;2.4104;
1248.9000;0.2483;2.3954;
1249.2000;0.2507;2.4079;
1249.5000;0.2491;2.3979;
1249.8000;0.2491;2.4029;
1250.1000;0.2450;2.3904;
1250.4000;0.2450;2.3954;
1250.7000;0.2515;2.4079;
1251.0000;0.2499;2.4029;
1251.3000;0.2466;2.3929;
1251.6000;0.2491;2.3879;
1251.9000;0.2466;2.3803;
1252.2000;0.2491;2.3778;
1252.5000;0.2491;2.3753;
1252.8000;0.2515;2.3879;
1253.1000;0.2475;2.3803;
1253.4000;0.2466;2.3753;
1253.7000;0.2442;2.3753;
1254.0000;0.2466;2.3904;
1254.3000;0.2515;2.4004;
1254.6000;0.2515;2.4054;
1254.9000;0.2491;2.3879;
1255.2000;0.2507;2.3879;
1255.5000;0.2556;2.4179;
1255.8000;0.2483;2.3979;
1256.1000;0.2279;2.3428;
1256.4000;0.2515;2.3979;
1256.7000;0.2523;2.3954;
1257.0000;0.2499;2.3904;
1257.3000;0.2458;2.3828;
1257.6000;0.2483;2.3904;
1257.9000;0.2483;2.3778;
1258.2000;0.2507;2.3803;
1258.5000;0.2491;2.3778;
1258.8000;0.2499;2.3853;
1259.1000;0.2401;2.3778;
1259.4000;0.2597;2.4354;
1259.7000;0.2507;2.4054;
1260.0000;0.2426;2.3879;
1260.3000;0.2483;2.3979;
1260.6000;0.2507;2.4029;
1260.9000;0.2499;2.4004;
1261.2000;0.2336;2.3553;
1261.5000;0.2483;2.3954;
1261.8000;0.2483;2.4004;
1262.1000;0.2548;2.4179;
1262.4000;0.2466;2.3904;
1262.7000;0.2491;2.4004;
1263.0000;0.2466;2.3904;
1263.3000;0.2491;2.3879;
1263.6000;0.2475;2.3803;
1263.9000;0.2548;2.3929;
1264.2000;0.2572;2.3979;
1264.5000;0.2491;2.3753;
1264.8000;0.2336;2.3378;
1265.1000;0.2466;2.3753;
1265.4000;0.2458;2.3653;
1265.7000;0.2507;2.3778;
1266.0000;0.2507;2.3853;
1266.3000;0.2450;2.3728;
1266.6000;0.2466;2.3879;
1266.9000;0.2483;2.4054;
1267.2000;0.2499;2.4154;
1267.5000;0.2466;2.4004;
1267.8000;0.2483;2.4154;
1268.1000;0.2483;2.4079;
1268.4000;0.2491;2.4079;
1268.7000;0.2450;2.4029;
1269.0000;0.2499;2.4104;
1269.3000;0.2475;2.4029;
1269.6000;0.2548;2.4104;
1269.9000;0.2483;2.4079;
1270.2000;0.2491;2.4029;
1270.5000;0.2499;2.4004;
1270.8000;0.2450;2.3979;
1271.1000;0.2483;2.4154;
1271.4000;0.2499;2.4204;
1271.7000;0.2434;2.4054;
1272.0000;0.2491;2.4254;
1272.3000;0.2532;2.4229;
1272.6000;0.2401;2.3954;
1272.9000;0.2466;2.4054;
1273.2000;0.2418;2.3904;
1273.5000;0.2499;2.4054;
1273.8000;0.2466;2.3954;
1274.1000;0.2548;2.4079;
1274.4000;0.2475;2.3828;
1274.7000;0.2401;2.3703;
1275.0000;0.2393;2.3628;
1275.3000;0.2491;2.3929;
1275.6000;0.2458;2.3828;
1275.9000;0.2515;2.4004;
1276.2000;0.2491;2.3979;
1276.5000;0.2499;2.3979;
1276.8000;0.2499;2.4004;
1277.1000;0.2466;2.3979;
1277.4000;0.2515;2.4129;
1277.7000;0.2491;2.4054;
1278.0000;0.2507;2.4079;
1278.3000;0.2458;2.3853;
1278.6000;0.2483;2.3929;
1278.9000;0.2458;2.3879;
1279.2000;0.2466;2.3879;
1279.5000;0.2515;2.3954;
1279.8000;0.2491;2.3929;
1280.1000;0.2532;2.4054;
1280.4000;0.2499;2.3979;
1280.7000;0.2483;2.3929;
1281.0000;0.2491;2.3929;
1281.3000;0.2466;2.3828;
1281.6000;0.2499;2.3929;
1281.9000;0.2466;2.3904;
1282.2000;0.2523;2.4054;
1282.5000;0.2483;2.3979;
1282.8000;0.2483;2.3979;
1283.1000;0.2475;2.3954;
1283.4000;0.2556;2.4204;
1283.7000;0.2475;2.3954;
1284.0000;0.2523;2.4079;
1284.3000;0.2483;2.4079;
1284.6000;0.2458;2.3979;
1284.9000;0.2483;2.4004;
1285.2000;0.2507;2.4129;
1285.5000;0.2483;2.4079;
1285.8000;0.2434;2.3879;
1286.1000;0.2515;2.4004;
1286.4000;0.2507;2.3879;
1286.7000;0.2483;2.3828;
1287.0000;0.2540;2.4029;
1287.3000;0.2483;2.3828;
1287.6000;0.2483;2.3879;
1287.9000;0.2385;2.3578;
1288.2000;0.2475;2.3904;
1288.5000;0.2483;2.3979;
1288.8000;0.2377;2.3628;
1289.1000;0.2499;2.3954;
1289.4000;0.2523;2.3979;
1289.7000;0.2483;2.3828;
1290.0000;0.2458;2.3853;
1290.3000;0.2409;2.3628;
1290.6000;0.2507;2.3954;
1290.9000;0.2475;2.3828;
1291.2000;0.2532;2.3929;
1291.5000;0.2556;2.4029;
1291.8000;0.2401;2.3678;
1292.1000;0.2483;2.3879;
1292.4000;0.2499;2.3929;
1292.7000;0.2507;2.4004;
1293.0000;0.2515;2.4029;
1293.3000;0.2458;2.3954;
1293.6000;0.2507;2.4129;
1293.9000;0.2507;2.4104;
1294.2000;0.2523;2.4179;
1294.5000;0.2458;2.3979;
1294.8000;0.2572;2.4154;
1295.1000;0.2483;2.3879;
1295.4000;0.2491;2.3954;
1295.7000;0.2475;2.3904;
1296.0000;0.2532;2.3954;
1296.3000;0.2483;2.3853;
1296.6000;0.2491;2.3853;
1296.9000;0.2442;2.3728;
1297.2000;0.2483;2.3853;
1297.5000;0.2466;2.3954;
1297.8000;0.2475;2.4029;
1298.1000;0.2442;2.3879;
1298.4000;0.2523;2.4079;
1298.7000;0.2499;2.4054;
1299.0000;0.2458;2.3929;
1299.3000;0.2475;2.3954;
1299.6000;0.2458;2.3828;
1299.9000;0.2450;2.3803;
1300.2000;0.2499;2.4029;
1300.5000;0.2540;2.4079;
1300.8000;0.2499;2.3979;
1301.1000;0.2499;2.3904;
1301.4000;0.2491;2.3979;
1301.7000;0.2466;2.3904;
1302.0000;0.2491;2.3929;
1302.3000;0.2491;2.4004;
1302.6000;0.2475;2.3954;
1302.9000;0.2458;2.4004;
1303.2000;0.2466;2.3954;
1303.5000;0.2475;2.3929;
1303.8000;0.2450;2.3803;
1304.1000;0.2426;2.3703;
1304.4000;0.2491;2.4054;
1304.7000;0.2491;2.4079;
1305.0000;0.2475;2.4054;
1305.3000;0.2483;2.4079;
1305.6000;0.2475;2.4104;
1305.9000;0.2475;2.4054;
1306.2000;0.2491;2.4154;
1306.5000;0.2491;2.4179;
1306.8000;0.2491;2.4179;
1307.1000;0.2450;2.4054;
1307.4000;0.2475;2.4104;
1307.7000;0.2532;2.4204;
1308.0000;0.2458;2.3954;
1308.3000;0.2523;2.4104;
1308.6000;0.2475;2.4004;
1308.9000;0.2483;2.4104;
1309.2000;0.2483;2.4154;
1309.5000;0.2475;2.4079;
1309.8000;0.2475;2.4054;
1310.1000;0.2466;2.4004;
1310.4000;0.2499;2.4179;
1310.7000;0.2434;2.4054;
1311.0000;0.2483;2.4129;
1311.3000;0.2507;2.4129;
1311.6000;0.2499;2.4129;
1311.9000;0.2532;2.4204;
1312.2000;0.2458;2.3954;
1312.5000;0.2523;2.4104;
1312.8000;0.2605;2.4279;
1313.1000;0.2499;2.4004;
1313.4000;0.2613;2.4229;
1313.7000;0.2548;2.4004;
1314.0000;0.2556;2.3979;
1314.3000;0.2515;2.3853;
1314.6000;0.2491;2.3879;
1314.9000;0.2540;2.4054;
1315.2000;0.2483;2.3853;
1315.5000;0.2499;2.3904;
1315.8000;0.2434;2.3728;
1316.1000;0.2466;2.3753;
1316.4000;0.2572;2.4029;
1316.7000;0.2475;2.3904;
1317.0000;0.2475;2.3979;
1317.3000;0.2466;2.4029;
1317.6000;0.2499;2.4004;
1317.9000;0.2475;2.4029;
1318.2000;0.2491;2.3979;
1318.5000;0.2466;2.3853;
1318.8000;0.2466;2.3879;
1319.1000;0.2523;2.3929;
1319.4000;0.2483;2.3879;
1319.7000;0.2426;2.3778;
1320.0000;0.2483;2.3879;
1320.3000;0.2491;2.3929;
1320.6000;0.2523;2.3979;
1320.9000;0.2507;2.3929;
1321.2000;0.2483;2.3803;
1321.5000;0.2483;2.3879;
1321.8000;0.2466;2.3853;
1322.1000;0.2426;2.3703;
1322.4000;0.2491;2.3803;
1322.7000;0.2507;2.3803;
1323.0000;0.2491;2.3879;
1323.3000;0.2491;2.3853;
1323.6000;0.2515;2.4004;
1323.9000;0.2491;2.3879;
1324.2000;0.2491;2.3879;
1324.5000;0.2475;2.3853;
1324.8000;0.2507;2.3904;
1325.1000;0.2507;2.3904;
1325.4000;0.2491;2.3778;
1325.7000;0.2483;2.3803;
1326.0000;0.2475;2.3828;
1326.3000;0.2475;2.3753;
1326.6000;0.2499;2.3853;
1326.9000;0.2475;2.3929;
1327.2000;0.2491;2.3904;
1327.5000;0.2483;2.3954;
1327.8000;0.2458;2.3853;
1328.1000;0.2475;2.3803;
1328.4000;0.2466;2.3678;
1328.7000;0.2466;2.3703;
1329.0000;0.2483;2.3828;
1329.3000;0.2491;2.3828;
1329.6000;0.2499;2.3879;
1329.9000;0.2483;2.3853;
1330.2000;0.2466;2.3853;
1330.5000;0.2483;2.3853;
1330.8000;0.2450;2.3753;
1331.1000;0.2458;2.3828;
1331.4000;0.2442;2.3728;
1331.7000;0.2466;2.3778;
1332.0000;0.2491;2.3853;
1332.3000;0.2450;2.3678;
1332.6000;0.2523;2.3879;
1332.9000;0.2475;2.3879;
1333.2000;0.2491;2.3904;
1333.5000;0.2466;2.3879;
1333.8000;0.2466;2.3929;
1334.1000;0.2466;2.3954;
1334.4000;0.2483;2.3853;
1334.7000;0.2418;2.3628;
1335.0000;0.2499;2.3803;
1335.3000;0.2483;2.3753;
1335.6000;0.2499;2.3853;
1335.9000;0.2491;2.3853;
1336.2000;0.2491;2.3879;
1336.5000;0.2434;2.3753;
1336.8000;0.2483;2.3853;
1337.1000;0.2458;2.3753;
1337.4000;0.2564;2.4029;
1337.7000;0.2572;2.4004;
1338.0000;0.2491;2.3778;
1338.3000;0.2499;2.3778;
1338.6000;0.2499;2.3753;
1338.9000;0.2491;2.3879;
1339.2000;0.2475;2.3828;
1339.5000;0.2466;2.3828;
1339.8000;0.2475;2.3879;
1340.1000;0.2491;2.3929;
1340.4000;0.2491;2.4054;
1340.7000;0.2507;2.4179;
1341.0000;0.2483;2.4079;
1341.3000;0.2491;2.4129;
1341.6000;0.2458;2.4054;
1341.9000;0.2507;2.4129;
1342.2000;0.2466;2.3979;
1342.5000;0.2507;2.4029;
1342.8000;0.2466;2.3979;
1343.1000;0.2458;2.3954;
1343.4000;0.2491;2.3904;
1343.7000;0.2475;2.3653;
1344.0000;0.2483;2.3703;
1344.3000;0.2483;2.3803;
1344.6000;0.2475;2.3778;
1344.9000;0.2564;2.4029;
1345.2000;0.2385;2.3453;
1345.5000;0.2491;2.3728;
1345.8000;0.2475;2.3753;
1346.1000;0.2483;2.3778;
1346.4000;0.2401;2.3578;
1346.7000;0.2491;2.3728;
1347.0000;0.2458;2.3628;
1347.3000;0.2491;2.3703;
1347.6000;0.2491;2.3653;
1347.9000;0.2401;2.3353;
1348.2000;0.2491;2.3603;
1348.5000;0.2483;2.3603;
1348.8000;0.2491;2.3703;
1349.1000;0.2483;2.3628;
1349.4000;0.2475;2.3653;
1349.7000;0.2483;2.3703;
1350.0000;0.2483;2.3678;
1350.3000;0.2450;2.3503;
1350.6000;0.2434;2.3503;
1350.9000;0.2491;2.3628;
1351.2000;0.2540;2.3753;
1351.5000;0.2499;2.3703;
1351.8000;0.2475;2.3628;
1352.1000;0.2483;2.3678;
1352.4000;0.2499;2.3703;
1352.7000;0.2450;2.3528;
1353.0000;0.2458;2.3678;
1353.3000;0.2499;2.3778;
1353.6000;0.2475;2.3828;
1353.9000;0.2491;2.3929;
1354.2000;0.2515;2.4029;
1354.5000;0.2491;2.3979;
1354.8000;0.2483;2.3929;
1355.1000;0.2483;2.3828;
1355.4000;0.2475;2.3803;
1355.7000;0.2556;2.4004;
1356.0000;0.2475;2.3778;
1356.3000;0.2499;2.3803;
1356.6000;0.2491;2.3778;
1356.9000;0.2499;2.3778;
1357.2000;0.2475;2.3778;
1357.5000;0.2418;2.3603;
1357.8000;0.2475;2.3703;
1358.1000;0.2466;2.3653;
1358.4000;0.2458;2.3628;
1358.7000;0.2466;2.3603;
1359.0000;0.2466;2.3578;
1359.3000;0.2523;2.3703;
1359.6000;0.2483;2.3678;
1359.9000;0.2450;2.3578;
1360.2000;0.2385;2.3278;
1360.5000;0.2466;2.3503;
1360.8000;0.2483;2.3578;
1361.1000;0.2515;2.3678;
1361.4000;0.2515;2.3653;
1361.7000;0.2483;2.3578;
1362.0000;0.2466;2.3553;
1362.3000;0.2466;2.3603;
1362.6000;0.2507;2.3778;
1362.9000;0.2491;2.3879;
1363.2000;0.2466;2.3803;
1363.5000;0.2475;2.3853;
1363.8000;0.2572;2.4079;
1364.1000;0.2466;2.3778;
1364.4000;0.2409;2.3528;
1364.7000;0.2450;2.3703;
1365.0000;0.2483;2.3778;
1365.3000;0.2499;2.3728;
1365.6000;0.2442;2.3553;
1365.9000;0.2458;2.3703;
1366.2000;0.2483;2.3703;
1366.5000;0.2483;2.3678;
1366.8000;0.2515;2.3753;
1367.1000;0.2515;2.3828;
1367.4000;0.2507;2.3703;
1367.7000;0.2515;2.3703;
1368.0000;0.2507;2.3603;
1368.3000;0.2483;2.3503;
1368.6000;0.2483;2.3553;
1368.9000;0.2556;2.3904;
1369.2000;0.2475;2.3803;
1369.5000;0.2475;2.3778;
1369.8000;0.2458;2.3803;
1370.1000;0.2491;2.3879;
1370.4000;0.2491;2.3904;
1370.7000;0.2466;2.3803;
1371.0000;0.2442;2.3753;
1371.3000;0.2475;2.3853;
1371.6000;0.2499;2.3853;
1371.9000;0.2491;2.3904;
1372.2000;0.2483;2.3879;
1372.5000;0.2515;2.3979;
1372.8000;0.2523;2.4054;
1373.1000;0.2483;2.3879;
1373.4000;0.2499;2.3929;
1373.7000;0.2507;2.4004;
1374.0000;0.2499;2.3979;
1374.3000;0.2466;2.3954;
1374.6000;0.2483;2.3954;
1374.9000;0.2466;2.3954;
1375.2000;0.2401;2.3703;
1375.5000;0.2491;2.3828;
1375.8000;0.2483;2.3728;
1376.1000;0.2466;2.3703;
1376.4000;0.2499;2.3803;
1376.7000;0.2475;2.3653;
1377.0000;0.2483;2.3628;
1377.3000;0.2564;2.3879;
1377.6000;0.2491;2.3603;
1377.9000;0.2491;2.3628;
1378.2000;0.2564;2.3853;
1378.5000;0.2556;2.3954;
1378.8000;0.2532;2.3904;
1379.1000;0.2458;2.3728;
1379.4000;0.2475;2.3828;
1379.7000;0.2491;2.3879;
1380.0000;0.2475;2.3803;
1380.3000;0.2491;2.3803;
1380.6000;0.2475;2.3803;
1380.9000;0.2499;2.3879;
1381.2000;0.2499;2.3828;
1381.5000;0.2491;2.3904;
1381.8000;0.2458;2.3753;
1382.1000;0.2491;2.3879;
1382.4000;0.2466;2.3828;
1382.7000;0.2491;2.3904;
1383.0000;0.2458;2.3929;
1383.3000;0.2499;2.4104;
1383.6000;0.2393;2.3828;
1383.9000;0.2491;2.4029;
1384.2000;0.2483;2.3979;
1384.5000;0.2466;2.3979;
1384.8000;0.2458;2.3879;
1385.1000;0.2491;2.3954;
1385.4000;0.2499;2.3904;
1385.7000;0.2507;2.3853;
1386.0000;0.2458;2.3828;
1386.3000;0.2483;2.3879;
1386.6000;0.2491;2.3929;
1386.9000;0.2515;2.3954;
1387.2000;0.2491;2.3929;
1387.5000;0.2491;2.4029;
1387.8000;0.2426;2.3778;
1388.1000;0.2475;2.3929;
1388.4000;0.2491;2.3879;
1388.7000;0.2491;2.3879;
1389.0000;0.2491;2.3929;
1389.3000;0.2491;2.3954;
1389.6000;0.2483;2.3879;
1389.9000;0.2475;2.3803;
1390.2000;0.2475;2.3828;
1390.5000;0.2483;2.3879;
1390.8000;0.2499;2.3904;
1391.1000;0.2491;2.3853;
1391.4000;0.2491;2.3803;
1391.7000;0.2515;2.4004;
1392.0000;0.2491;2.3954;
1392.3000;0.2499;2.3954;
1392.6000;0.2475;2.3954;
1392.9000;0.2499;2.4079;
1393.2000;0.2483;2.4029;
1393.5000;0.2483;2.4029;
1393.8000;0.2483;2.3979;
1394.1000;0.2483;2.3929;
1394.4000;0.2491;2.4054;
1394.7000;0.2491;2.4029;
1395.0000;0.2458;2.3929;
1395.3000;0.2475;2.3904;
1395.6000;0.2491;2.3904;
1395.9000;0.2483;2.3979;
1396.2000;0.2483;2.4029;
1396.5000;0.2491;2.4104;
1396.8000;0.2499;2.4054;
1397.1000;0.2483;2.4004;
1397.4000;0.2523;2.4054;
1397.7000;0.2507;2.4004;
1398.0000;0.2475;2.3904;
1398.3000;0.2515;2.4029;
1398.6000;0.2499;2.3904;
1398.9000;0.2475;2.3853;
1399.2000;0.2507;2.3904;
1399.5000;0.2491;2.3853;
1399.8000;0.2475;2.3803;
