time/ms;Fluo/V;P700 deltaI/I x10³;
-199.8000;0.2499;2.4654;
-199.5000;0.2483;2.4629;
-199.2000;0.2483;2.4679;
-198.9000;0.2532;2.4704;
-198.6000;0.2499;2.4604;
-198.3000;0.2507;2.4579;
-198.0000;0.2646;2.5005;
-197.7000;0.2483;2.4554;
-197.4000;0.2466;2.4554;
-197.1000;0.2475;2.4579;
-196.8000;0.2499;2.4704;
-196.5000;0.2515;2.4704;
-196.2000;0.2507;2.4604;
-195.9000;0.2450;2.4479;
-195.6000;0.2515;2.4554;
-195.3000;0.2507;2.4579;
-195.0000;0.2483;2.4404;
-194.7000;0.2483;2.4454;
-194.4000;0.2491;2.4429;
-194.1000;0.2507;2.4554;
-193.8000;0.2418;2.4404;
-193.5000;0.2499;2.4654;
-193.2000;0.2507;2.4704;
-192.9000;0.2507;2.4730;
-192.6000;0.2515;2.4805;
-192.3000;0.2507;2.4629;
-192.0000;0.2580;2.4830;
-191.7000;0.2499;2.4529;
-191.4000;0.2515;2.4479;
-191.1000;0.2466;2.4379;
-190.8000;0.2491;2.4504;
-190.5000;0.2507;2.4529;
-190.2000;0.2515;2.4579;
-189.9000;0.2491;2.4629;
-189.6000;0.2507;2.4654;
-189.3000;0.2515;2.4679;
-189.0000;0.2515;2.4679;
-188.7000;0.2507;2.4679;
-188.4000;0.2483;2.4604;
-188.1000;0.2499;2.4629;
-187.8000;0.2483;2.4504;
-187.5000;0.2523;2.4554;
-187.2000;0.2515;2.4554;
-186.9000;0.2491;2.4504;
-186.6000;0.2466;2.4354;
-186.3000;0.2418;2.4229;
-186.0000;0.2499;2.4454;
-185.7000;0.2613;2.4805;
-185.4000;0.2426;2.4404;
-185.1000;0.2515;2.4629;
-184.8000;0.2499;2.4654;
-184.5000;0.2507;2.4654;
-184.2000;0.2507;2.4679;
-183.9000;0.2483;2.4629;
-183.6000;0.2507;2.4629;
-183.3000;0.2491;2.4529;
-183.0000;0.2483;2.4504;
-182.7000;0.2523;2.4504;
-182.4000;0.2483;2.4479;
-182.1000;0.2532;2.4579;
-181.8000;0.2515;2.4504;
-181.5000;0.2499;2.4479;
-181.2000;0.2507;2.4504;
-180.9000;0.2540;2.4604;
-180.6000;0.2532;2.4679;
-180.3000;0.2507;2.4679;
-180.0000;0.2499;2.4730;
-179.7000;0.2483;2.4755;
-179.4000;0.2605;2.5030;
-179.1000;0.2499;2.4805;
-178.8000;0.2483;2.4830;
-178.5000;0.2458;2.4805;
-178.2000;0.2507;2.4955;
-177.9000;0.2499;2.4880;
-177.6000;0.2572;2.4955;
-177.3000;0.2507;2.4855;
-177.0000;0.2499;2.4805;
-176.7000;0.2499;2.4880;
-176.4000;0.2499;2.4905;
-176.1000;0.2466;2.4805;
-175.8000;0.2507;2.4855;
-175.5000;0.2499;2.4930;
-175.2000;0.2507;2.5005;
-174.9000;0.2523;2.5005;
-174.6000;0.2499;2.4980;
-174.3000;0.2515;2.4980;
-174.0000;0.2450;2.4730;
-173.7000;0.2532;2.4980;
-173.4000;0.2491;2.4805;
-173.1000;0.2426;2.4679;
-172.8000;0.2491;2.4855;
-172.5000;0.2491;2.4855;
-172.2000;0.2483;2.4780;
-171.9000;0.2499;2.4704;
-171.6000;0.2483;2.4579;
-171.3000;0.2499;2.4629;
-171.0000;0.2491;2.4654;
-170.7000;0.2580;2.5055;
-170.4000;0.2515;2.4930;
-170.1000;0.2523;2.4955;
-169.8000;0.2515;2.4930;
-169.5000;0.2515;2.4830;
-169.2000;0.2499;2.4755;
-168.9000;0.2426;2.4529;
-168.6000;0.2515;2.4855;
-168.3000;0.2589;2.5030;
-168.0000;0.2499;2.4755;
-167.7000;0.2491;2.4830;
-167.4000;0.2507;2.4830;
-167.1000;0.2507;2.4679;
-166.8000;0.2499;2.4730;
-166.5000;0.2475;2.4730;
-166.2000;0.2515;2.4830;
-165.9000;0.2564;2.4955;
-165.6000;0.2475;2.4679;
-165.3000;0.2377;2.4404;
-165.0000;0.2532;2.4905;
-164.7000;0.2491;2.4780;
-164.4000;0.2483;2.4704;
-164.1000;0.2507;2.4604;
-163.8000;0.2507;2.4704;
-163.5000;0.2507;2.4755;
-163.2000;0.2499;2.4679;
-162.9000;0.2475;2.4529;
-162.6000;0.2491;2.4529;
-162.3000;0.2499;2.4579;
-162.0000;0.2434;2.4354;
-161.7000;0.2507;2.4479;
-161.4000;0.2515;2.4579;
-161.1000;0.2515;2.4579;
-160.8000;0.2491;2.4604;
-160.5000;0.2540;2.4730;
-160.2000;0.2499;2.4579;
-159.9000;0.2515;2.4654;
-159.6000;0.2507;2.4704;
-159.3000;0.2499;2.4679;
-159.0000;0.2507;2.4730;
-158.7000;0.2686;2.5155;
-158.4000;0.2491;2.4805;
-158.1000;0.2499;2.4830;
-157.8000;0.2507;2.4830;
-157.5000;0.2491;2.4830;
-157.2000;0.2507;2.4780;
-156.9000;0.2507;2.4755;
-156.6000;0.2499;2.4704;
-156.3000;0.2491;2.4654;
-156.0000;0.2499;2.4679;
-155.7000;0.2507;2.4780;
-155.4000;0.2507;2.4855;
-155.1000;0.2491;2.4830;
-154.8000;0.2507;2.4955;
-154.5000;0.2515;2.4930;
-154.2000;0.2507;2.4780;
-153.9000;0.2523;2.4805;
-153.6000;0.2507;2.4855;
-153.3000;0.2507;2.4855;
-153.0000;0.2548;2.4905;
-152.7000;0.2442;2.4730;
-152.4000;0.2491;2.4980;
-152.1000;0.2499;2.4905;
-151.8000;0.2532;2.4930;
-151.5000;0.2507;2.4880;
-151.2000;0.2499;2.4830;
-150.9000;0.2475;2.4730;
-150.6000;0.2483;2.4805;
-150.3000;0.2507;2.4880;
-150.0000;0.2475;2.4755;
-149.7000;0.2499;2.4780;
-149.4000;0.2499;2.4730;
-149.1000;0.2499;2.4830;
-148.8000;0.2507;2.4980;
-148.5000;0.2499;2.4930;
-148.2000;0.2466;2.4855;
-147.9000;0.2491;2.4905;
-147.6000;0.2483;2.4830;
-147.3000;0.2426;2.4579;
-147.0000;0.2491;2.4654;
-146.7000;0.2483;2.4629;
-146.4000;0.2483;2.4679;
-146.1000;0.2499;2.4755;
-145.8000;0.2458;2.4629;
-145.5000;0.2523;2.4805;
-145.2000;0.2572;2.5055;
-144.9000;0.2507;2.4855;
-144.6000;0.2507;2.4930;
-144.3000;0.2556;2.5080;
-144.0000;0.2499;2.4905;
-143.7000;0.2483;2.4880;
-143.4000;0.2483;2.4730;
-143.1000;0.2491;2.4679;
-142.8000;0.2499;2.4629;
-142.5000;0.2491;2.4679;
-142.2000;0.2621;2.5005;
-141.9000;0.2613;2.4980;
-141.6000;0.2466;2.4504;
-141.3000;0.2491;2.4679;
-141.0000;0.2491;2.4730;
-140.7000;0.2515;2.4730;
-140.4000;0.2548;2.4780;
-140.1000;0.2515;2.4704;
-139.8000;0.2507;2.4704;
-139.5000;0.2507;2.4730;
-139.2000;0.2491;2.4755;
-138.9000;0.2515;2.4704;
-138.6000;0.2540;2.4955;
-138.3000;0.2499;2.4830;
-138.0000;0.2532;2.4855;
-137.7000;0.2556;2.5055;
-137.4000;0.2507;2.4880;
-137.1000;0.2629;2.5180;
-136.8000;0.2605;2.5080;
-136.5000;0.2426;2.4554;
-136.2000;0.2540;2.4955;
-135.9000;0.2515;2.4855;
-135.6000;0.2491;2.4880;
-135.3000;0.2515;2.5030;
-135.0000;0.2507;2.5030;
-134.7000;0.2336;2.4554;
-134.4000;0.2515;2.5055;
-134.1000;0.2507;2.4955;
-133.8000;0.2515;2.4880;
-133.5000;0.2515;2.4855;
-133.2000;0.2523;2.4830;
-132.9000;0.2491;2.4704;
-132.6000;0.2540;2.4830;
-132.3000;0.2523;2.4755;
-132.0000;0.2491;2.4654;
-131.7000;0.2523;2.4730;
-131.4000;0.2475;2.4629;
-131.1000;0.2491;2.4604;
-130.8000;0.2491;2.4579;
-130.5000;0.2466;2.4554;
-130.2000;0.2491;2.4629;
-129.9000;0.2483;2.4679;
-129.6000;0.2540;2.4905;
-129.3000;0.2532;2.4855;
-129.0000;0.2523;2.4679;
-128.7000;0.2532;2.4529;
-128.4000;0.2515;2.4479;
-128.1000;0.2523;2.4454;
-127.8000;0.2483;2.4404;
-127.5000;0.2475;2.4429;
-127.2000;0.2515;2.4579;
-126.9000;0.2483;2.4529;
-126.6000;0.2491;2.4629;
-126.3000;0.2515;2.4554;
-126.0000;0.2491;2.4554;
-125.7000;0.2409;2.4304;
-125.4000;0.2499;2.4554;
-125.1000;0.2548;2.4679;
-124.8000;0.2491;2.4479;
-124.5000;0.2507;2.4504;
-124.2000;0.2475;2.4529;
-123.9000;0.2515;2.4604;
-123.6000;0.2466;2.4579;
-123.3000;0.2532;2.4730;
-123.0000;0.2401;2.4429;
-122.7000;0.2491;2.4679;
-122.4000;0.2442;2.4654;
-122.1000;0.2523;2.4780;
-121.8000;0.2491;2.4679;
-121.5000;0.2483;2.4604;
-121.2000;0.2450;2.4454;
-120.9000;0.2515;2.4629;
-120.6000;0.2499;2.4654;
-120.3000;0.2523;2.4629;
-120.0000;0.2475;2.4604;
-119.7000;0.2499;2.4730;
-119.4000;0.2605;2.5105;
-119.1000;0.2532;2.4830;
-118.8000;0.2523;2.4905;
-118.5000;0.2532;2.4980;
-118.2000;0.2613;2.5155;
-117.9000;0.2556;2.4905;
-117.6000;0.2532;2.4880;
-117.3000;0.2515;2.4780;
-117.0000;0.2499;2.4679;
-116.7000;0.2491;2.4654;
-116.4000;0.2458;2.4579;
-116.1000;0.2515;2.4780;
-115.8000;0.2532;2.4780;
-115.5000;0.2466;2.4579;
-115.2000;0.2499;2.4679;
-114.9000;0.2491;2.4629;
-114.6000;0.2515;2.4704;
-114.3000;0.2483;2.4604;
-114.0000;0.2515;2.4755;
-113.7000;0.2344;2.4379;
-113.4000;0.2385;2.4404;
-113.1000;0.2515;2.4679;
-112.8000;0.2515;2.4704;
-112.5000;0.2434;2.4454;
-112.2000;0.2540;2.4679;
-111.9000;0.2483;2.4604;
-111.6000;0.2466;2.4604;
-111.3000;0.2450;2.4579;
-111.0000;0.2483;2.4704;
-110.7000;0.2483;2.4679;
-110.4000;0.2507;2.4730;
-110.1000;0.2491;2.4679;
-109.8000;0.2507;2.4755;
-109.5000;0.2523;2.4780;
-109.2000;0.2507;2.4780;
-108.9000;0.2515;2.4855;
-108.6000;0.2475;2.4654;
-108.3000;0.2475;2.4629;
-108.0000;0.2491;2.4629;
-107.7000;0.2499;2.4629;
-107.4000;0.2483;2.4604;
-107.1000;0.2605;2.4930;
-106.8000;0.2507;2.4554;
-106.5000;0.2475;2.4504;
-106.2000;0.2491;2.4654;
-105.9000;0.2491;2.4629;
-105.6000;0.2499;2.4604;
-105.3000;0.2466;2.4554;
-105.0000;0.2523;2.4755;
-104.7000;0.2507;2.4604;
-104.4000;0.2515;2.4679;
-104.1000;0.2491;2.4730;
-103.8000;0.2540;2.4855;
-103.5000;0.2499;2.4654;
-103.2000;0.2466;2.4579;
-102.9000;0.2507;2.4704;
-102.6000;0.2450;2.4554;
-102.3000;0.2475;2.4805;
-102.0000;0.2483;2.4855;
-101.7000;0.2475;2.4830;
-101.4000;0.2499;2.4880;
-101.1000;0.2507;2.4780;
-100.8000;0.2507;2.4780;
-100.5000;0.2491;2.4755;
-100.2000;0.2491;2.4730;
-99.9000;0.2515;2.4805;
-99.6000;0.2499;2.4780;
-99.3000;0.2654;2.5255;
-99.0000;0.2450;2.4755;
-98.7000;0.2523;2.4855;
-98.4000;0.2523;2.4805;
-98.1000;0.2499;2.4780;
-97.8000;0.2515;2.4805;
-97.5000;0.2483;2.4805;
-97.2000;0.2499;2.4805;
-96.9000;0.2483;2.4780;
-96.6000;0.2466;2.4730;
-96.3000;0.2507;2.4855;
-96.0000;0.2499;2.4805;
-95.7000;0.2540;2.4880;
-95.4000;0.2523;2.4780;
-95.1000;0.2515;2.4805;
-94.8000;0.2491;2.4880;
-94.5000;0.2475;2.4905;
-94.2000;0.2499;2.4905;
-93.9000;0.2499;2.4955;
-93.6000;0.2597;2.5305;
-93.3000;0.2499;2.5030;
-93.0000;0.2507;2.5030;
-92.7000;0.2507;2.5105;
-92.4000;0.2483;2.5005;
-92.1000;0.2466;2.5005;
-91.8000;0.2540;2.5230;
-91.5000;0.2540;2.5080;
-91.2000;0.2532;2.4955;
-90.9000;0.2507;2.4755;
-90.6000;0.2507;2.4855;
-90.3000;0.2523;2.4855;
-90.0000;0.2499;2.4780;
-89.7000;0.2507;2.4805;
-89.4000;0.2491;2.4830;
-89.1000;0.2450;2.4654;
-88.8000;0.2507;2.4830;
-88.5000;0.2475;2.4755;
-88.2000;0.2507;2.4830;
-87.9000;0.2548;2.4855;
-87.6000;0.2523;2.4805;
-87.3000;0.2483;2.4730;
-87.0000;0.2515;2.4704;
-86.7000;0.2499;2.4704;
-86.4000;0.2483;2.4704;
-86.1000;0.2515;2.4730;
-85.8000;0.2499;2.4704;
-85.5000;0.2499;2.4855;
-85.2000;0.2507;2.4855;
-84.9000;0.2507;2.4780;
-84.6000;0.2523;2.4780;
-84.3000;0.2499;2.4704;
-84.0000;0.2499;2.4704;
-83.7000;0.2507;2.4654;
-83.4000;0.2515;2.4629;
-83.1000;0.2483;2.4504;
-82.8000;0.2483;2.4529;
-82.5000;0.2483;2.4504;
-82.2000;0.2507;2.4604;
-81.9000;0.2491;2.4479;
-81.6000;0.2344;2.4154;
-81.3000;0.2523;2.4579;
-81.0000;0.2499;2.4529;
-80.7000;0.2499;2.4529;
-80.4000;0.2523;2.4529;
-80.1000;0.2556;2.4679;
-79.8000;0.2499;2.4604;
-79.5000;0.2507;2.4629;
-79.2000;0.2532;2.4805;
-78.9000;0.2450;2.4579;
-78.6000;0.2507;2.4755;
-78.3000;0.2515;2.4755;
-78.0000;0.2499;2.4679;
-77.7000;0.2507;2.4780;
-77.4000;0.2507;2.4780;
-77.1000;0.2523;2.4805;
-76.8000;0.2483;2.4780;
-76.5000;0.2434;2.4529;
-76.2000;0.2491;2.4704;
-75.9000;0.2483;2.4629;
-75.6000;0.2418;2.4404;
-75.3000;0.2491;2.4629;
-75.0000;0.2466;2.4629;
-74.7000;0.2499;2.4704;
-74.4000;0.2418;2.4454;
-74.1000;0.2540;2.4780;
-73.8000;0.2540;2.4755;
-73.5000;0.2556;2.4880;
-73.2000;0.2523;2.4955;
-72.9000;0.2515;2.4880;
-72.6000;0.2499;2.4780;
-72.3000;0.2499;2.4780;
-72.0000;0.2499;2.4830;
-71.7000;0.2515;2.4780;
-71.4000;0.2491;2.4629;
-71.1000;0.2499;2.4730;
-70.8000;0.2499;2.4654;
-70.5000;0.2515;2.4679;
-70.2000;0.2491;2.4529;
-69.9000;0.2523;2.4579;
-69.6000;0.2491;2.4479;
-69.3000;0.2515;2.4504;
-69.0000;0.2507;2.4579;
-68.7000;0.2458;2.4429;
-68.4000;0.2507;2.4504;
-68.1000;0.2499;2.4504;
-67.8000;0.2491;2.4504;
-67.5000;0.2507;2.4554;
-67.2000;0.2589;2.4905;
-66.9000;0.2499;2.4654;
-66.6000;0.2499;2.4629;
-66.3000;0.2491;2.4554;
-66.0000;0.2507;2.4629;
-65.7000;0.2515;2.4579;
-65.4000;0.2532;2.4679;
-65.1000;0.2491;2.4504;
-64.8000;0.2499;2.4579;
-64.5000;0.2515;2.4654;
-64.2000;0.2515;2.4604;
-63.9000;0.2499;2.4679;
-63.6000;0.2499;2.4730;
-63.3000;0.2515;2.4880;
-63.0000;0.2523;2.4830;
-62.7000;0.2515;2.4679;
-62.4000;0.2458;2.4604;
-62.1000;0.2532;2.4830;
-61.8000;0.2466;2.4629;
-61.5000;0.2450;2.4529;
-61.2000;0.2523;2.4780;
-60.9000;0.2499;2.4679;
-60.6000;0.2523;2.4730;
-60.3000;0.2507;2.4654;
-60.0000;0.2523;2.4755;
-59.7000;0.2597;2.4955;
-59.4000;0.2507;2.4780;
-59.1000;0.2475;2.4730;
-58.8000;0.2507;2.4830;
-58.5000;0.2523;2.4905;
-58.2000;0.2515;2.4880;
-57.9000;0.2515;2.4855;
-57.6000;0.2507;2.4780;
-57.3000;0.2507;2.4755;
-57.0000;0.2458;2.4679;
-56.7000;0.2540;2.4880;
-56.4000;0.2523;2.4880;
-56.1000;0.2491;2.4830;
-55.8000;0.2491;2.4805;
-55.5000;0.2483;2.4730;
-55.2000;0.2483;2.4780;
-54.9000;0.2475;2.4805;
-54.6000;0.2556;2.5005;
-54.3000;0.2507;2.4955;
-54.0000;0.2466;2.4780;
-53.7000;0.2466;2.4755;
-53.4000;0.2491;2.4730;
-53.1000;0.2499;2.4654;
-52.8000;0.2499;2.4629;
-52.5000;0.2507;2.4730;
-52.2000;0.2523;2.4805;
-51.9000;0.2499;2.4755;
-51.6000;0.2507;2.4805;
-51.3000;0.2572;2.4930;
-51.0000;0.2499;2.4679;
-50.7000;0.2515;2.4805;
-50.4000;0.2377;2.4404;
-50.1000;0.2523;2.4805;
-49.8000;0.2523;2.4905;
-49.5000;0.2475;2.4780;
-49.2000;0.2499;2.4855;
-48.9000;0.2491;2.4805;
-48.6000;0.2491;2.4755;
-48.3000;0.2491;2.4780;
-48.0000;0.2523;2.4805;
-47.7000;0.2507;2.4755;
-47.4000;0.2507;2.4654;
-47.1000;0.2491;2.4604;
-46.8000;0.2507;2.4704;
-46.5000;0.2499;2.4654;
-46.2000;0.2483;2.4604;
-45.9000;0.2483;2.4704;
-45.6000;0.2548;2.4930;
-45.3000;0.2605;2.5030;
-45.0000;0.2483;2.4679;
-44.7000;0.2475;2.4730;
-44.4000;0.2499;2.4730;
-44.1000;0.2499;2.4679;
-43.8000;0.2401;2.4454;
-43.5000;0.2499;2.4679;
-43.2000;0.2540;2.4704;
-42.9000;0.2491;2.4579;
-42.6000;0.2507;2.4654;
-42.3000;0.2540;2.4905;
-42.0000;0.2483;2.4780;
-41.7000;0.2507;2.4880;
-41.4000;0.2580;2.5005;
-41.1000;0.2483;2.4855;
-40.8000;0.2499;2.4880;
-40.5000;0.2483;2.4730;
-40.2000;0.2499;2.4755;
-39.9000;0.2532;2.4855;
-39.6000;0.2507;2.4805;
-39.3000;0.2499;2.4830;
-39.0000;0.2507;2.4805;
-38.7000;0.2418;2.4479;
-38.4000;0.2515;2.4679;
-38.1000;0.2507;2.4704;
-37.8000;0.2499;2.4730;
-37.5000;0.2532;2.4755;
-37.2000;0.2491;2.4604;
-36.9000;0.2523;2.4730;
-36.6000;0.2507;2.4579;
-36.3000;0.2491;2.4554;
-36.0000;0.2491;2.4629;
-35.7000;0.2515;2.4780;
-35.4000;0.2499;2.4780;
-35.1000;0.2515;2.4855;
-34.8000;0.2466;2.4780;
-34.5000;0.2507;2.4980;
-34.2000;0.2499;2.4930;
-33.9000;0.2426;2.4780;
-33.6000;0.2499;2.4955;
-33.3000;0.2483;2.4880;
-33.0000;0.2499;2.4830;
-32.7000;0.2499;2.4855;
-32.4000;0.2507;2.4855;
-32.1000;0.2483;2.4805;
-31.8000;0.2483;2.4730;
-31.5000;0.2499;2.4704;
-31.2000;0.2499;2.4704;
-30.9000;0.2499;2.4755;
-30.6000;0.2483;2.4755;
-30.3000;0.2491;2.4855;
-30.0000;0.2499;2.4855;
-29.7000;0.2515;2.4830;
-29.4000;0.2507;2.4780;
-29.1000;0.2523;2.4830;
-28.8000;0.2515;2.4780;
-28.5000;0.2507;2.4730;
-28.2000;0.2523;2.4780;
-27.9000;0.2515;2.4780;
-27.6000;0.2515;2.4805;
-27.3000;0.2475;2.4755;
-27.0000;0.2483;2.4780;
-26.7000;0.2491;2.4805;
-26.4000;0.2369;2.4504;
-26.1000;0.2499;2.4805;
-25.8000;0.2458;2.4654;
-25.5000;0.2483;2.4704;
-25.2000;0.2491;2.4730;
-24.9000;0.2515;2.4780;
-24.6000;0.2515;2.4780;
-24.3000;0.2499;2.4679;
-24.0000;0.2499;2.4704;
-23.7000;0.2532;2.4780;
-23.4000;0.2483;2.4704;
-23.1000;0.2507;2.4780;
-22.8000;0.2491;2.4755;
-22.5000;0.2491;2.4730;
-22.2000;0.2499;2.4755;
-21.9000;0.2499;2.4730;
-21.6000;0.2491;2.4755;
-21.3000;0.2556;2.5030;
-21.0000;0.2491;2.4780;
-20.7000;0.2483;2.4579;
-20.4000;0.2540;2.4654;
-20.1000;0.2532;2.4805;
-19.8000;0.2605;2.5005;
-19.5000;0.2499;2.4805;
-19.2000;0.2499;2.4780;
-18.9000;0.2491;2.4780;
-18.6000;0.2564;2.4930;
-18.3000;0.2523;2.4880;
-18.0000;0.2507;2.4880;
-17.7000;0.2409;2.4579;
-17.4000;0.2515;2.4955;
-17.1000;0.2491;2.4880;
-16.8000;0.2499;2.4755;
-16.5000;0.2499;2.4755;
-16.2000;0.2507;2.4805;
-15.9000;0.2418;2.4679;
-15.6000;0.2515;2.4855;
-15.3000;0.2523;2.4855;
-15.0000;0.2499;2.4805;
-14.7000;0.2475;2.4730;
-14.4000;0.2483;2.4755;
-14.1000;0.2523;2.4805;
-13.8000;0.2442;2.4629;
-13.5000;0.2507;2.4805;
-13.2000;0.2507;2.4830;
-12.9000;0.2483;2.4830;
-12.6000;0.2499;2.4930;
-12.3000;0.2491;2.4980;
-12.0000;0.2499;2.4980;
-11.7000;0.2491;2.4880;
-11.4000;0.2507;2.4855;
-11.1000;0.2515;2.4930;
-10.8000;0.2532;2.4855;
-10.5000;0.2491;2.4780;
-10.2000;0.2507;2.4855;
-9.9000;0.2507;2.4905;
-9.6000;0.2515;2.4955;
-9.3000;0.2523;2.4980;
-9.0000;0.2507;2.4905;
-8.7000;0.2523;2.4805;
-8.4000;0.2515;2.4704;
-8.1000;0.2483;2.4679;
-7.8000;0.2499;2.4629;
-7.5000;0.2475;2.4554;
-7.2000;0.2499;2.4604;
-6.9000;0.2385;2.4329;
-6.6000;0.2507;2.4704;
-6.3000;0.2499;2.4805;
-6.0000;0.2507;2.4830;
-5.7000;0.2491;2.4755;
-5.4000;0.2548;2.4830;
-5.1000;0.2483;2.4679;
-4.8000;0.2540;2.4905;
-4.5000;0.2540;2.4880;
-4.2000;0.2499;2.4755;
-3.9000;0.2515;2.4755;
-3.6000;0.2491;2.4704;
-3.3000;0.2499;2.4704;
-3.0000;0.2515;2.4730;
-2.7000;0.2491;2.4654;
-2.4000;0.2483;2.4604;
-2.1000;0.2491;2.4579;
-1.8000;0.2491;2.4604;
-1.5000;0.2515;2.4604;
-1.2000;0.2499;2.4554;
-0.9000;0.2515;2.4479;
-0.6000;0.2523;2.4454;
-0.3000;0.2515;2.4404;
0.0000;0.2515;2.4404;
0.3000;0.2475;2.4304;
0.6000;0.2515;2.4579;
0.9000;0.2499;2.4730;
1.2000;0.2507;2.5055;
1.5000;0.2523;2.5255;
1.8000;0.2548;2.5505;
2.1000;0.2507;2.5530;
2.4000;0.2621;2.6006;
2.7000;0.2540;2.5906;
3.0000;0.2580;2.6056;
3.3000;0.2556;2.6131;
3.6000;0.2507;2.6106;
3.9000;0.2556;2.6331;
4.2000;0.2540;2.6281;
4.5000;0.2629;2.6607;
4.8000;0.2564;2.6482;
5.1000;0.2515;2.6457;
5.4000;0.2556;2.6582;
5.7000;0.2556;2.6607;
6.0000;0.2572;2.6607;
6.3000;0.2572;2.6607;
6.6000;0.2548;2.6507;
6.9000;0.2564;2.6632;
7.2000;0.2556;2.6607;
7.5000;0.2564;2.6757;
7.8000;0.2556;2.6707;
8.1000;0.2540;2.6732;
8.4000;0.2523;2.6657;
8.7000;0.2548;2.6707;
9.0000;0.2532;2.6632;
9.3000;0.2589;2.6807;
9.6000;0.2572;2.6807;
9.9000;0.2556;2.6807;
10.2000;0.2515;2.6707;
10.5000;0.2548;2.6757;
10.8000;0.2556;2.6732;
11.1000;0.2515;2.6632;
11.4000;0.2580;2.6707;
11.7000;0.2589;2.6657;
12.0000;0.2556;2.6657;
12.3000;0.2556;2.6757;
12.6000;0.2532;2.6757;
12.9000;0.2548;2.6807;
13.2000;0.2556;2.6882;
13.5000;0.2491;2.6707;
13.8000;0.2556;2.6757;
14.1000;0.2564;2.6757;
14.4000;0.2564;2.6757;
14.7000;0.2515;2.6682;
15.0000;0.2540;2.6832;
15.3000;0.2540;2.6707;
15.6000;0.2613;2.6907;
15.9000;0.2540;2.6757;
16.2000;0.2523;2.6707;
16.5000;0.2475;2.6607;
16.8000;0.2515;2.6782;
17.1000;0.2540;2.6882;
17.4000;0.2523;2.6882;
17.7000;0.2556;2.6932;
18.0000;0.2556;2.6982;
18.3000;0.2523;2.6957;
18.6000;0.2491;2.6882;
18.9000;0.2548;2.6932;
19.2000;0.2556;2.7007;
19.5000;0.2548;2.7032;
19.8000;0.2466;2.6707;
20.1000;0.2556;2.6982;
20.4000;0.2532;2.6957;
20.7000;0.2540;2.6882;
21.0000;0.2580;2.6982;
21.3000;0.2597;2.7007;
21.6000;0.2532;2.6882;
21.9000;0.2540;2.6932;
22.2000;0.2434;2.6632;
22.5000;0.2548;2.6982;
22.8000;0.2556;2.6982;
23.1000;0.2548;2.6932;
23.4000;0.2515;2.6882;
23.7000;0.2540;2.6882;
24.0000;0.2523;2.6857;
24.3000;0.2597;2.6982;
24.6000;0.2564;2.6882;
24.9000;0.2556;2.6807;
25.2000;0.2556;2.6707;
25.5000;0.2580;2.6707;
25.8000;0.2564;2.6682;
26.1000;0.2564;2.6582;
26.4000;0.2580;2.6607;
26.7000;0.2548;2.6607;
27.0000;0.2580;2.6757;
27.3000;0.2597;2.6807;
27.6000;0.2532;2.6557;
27.9000;0.2556;2.6582;
28.2000;0.2540;2.6607;
28.5000;0.2572;2.6657;
28.8000;0.2580;2.6582;
29.1000;0.2540;2.6457;
29.4000;0.2499;2.6432;
29.7000;0.2556;2.6632;
30.0000;0.2540;2.6632;
30.3000;0.2548;2.6707;
30.6000;0.2532;2.6682;
30.9000;0.2564;2.6682;
31.2000;0.2564;2.6657;
31.5000;0.2515;2.6607;
31.8000;0.2532;2.6657;
32.1000;0.2556;2.6632;
32.4000;0.2572;2.6607;
32.7000;0.2532;2.6532;
33.0000;0.2564;2.6657;
33.3000;0.2548;2.6682;
33.6000;0.2564;2.6682;
33.9000;0.2597;2.6732;
34.2000;0.2532;2.6582;
34.5000;0.2540;2.6582;
34.8000;0.2483;2.6381;
35.1000;0.2548;2.6507;
35.4000;0.2556;2.6657;
35.7000;0.2548;2.6632;
36.0000;0.2621;2.6757;
36.3000;0.2548;2.6607;
36.6000;0.2556;2.6582;
36.9000;0.2548;2.6532;
37.2000;0.2548;2.6507;
37.5000;0.2483;2.6256;
37.8000;0.2548;2.6532;
38.1000;0.2532;2.6457;
38.4000;0.2564;2.6482;
38.7000;0.2515;2.6381;
39.0000;0.2556;2.6457;
39.3000;0.2540;2.6381;
39.6000;0.2532;2.6331;
39.9000;0.2458;2.6156;
40.2000;0.2580;2.6607;
40.5000;0.2548;2.6557;
40.8000;0.2540;2.6582;
41.1000;0.2556;2.6632;
41.4000;0.2515;2.6532;
41.7000;0.2556;2.6607;
42.0000;0.2572;2.6632;
42.3000;0.2572;2.6632;
42.6000;0.2483;2.6407;
42.9000;0.2499;2.6582;
43.2000;0.2564;2.6757;
43.5000;0.2556;2.6682;
43.8000;0.2515;2.6532;
44.1000;0.2483;2.6407;
44.4000;0.2686;2.7007;
44.7000;0.2556;2.6632;
45.0000;0.2556;2.6607;
45.3000;0.2548;2.6482;
45.6000;0.2556;2.6457;
45.9000;0.2613;2.6632;
46.2000;0.2532;2.6482;
46.5000;0.2532;2.6482;
46.8000;0.2564;2.6632;
47.1000;0.2572;2.6707;
47.4000;0.2548;2.6682;
47.7000;0.2556;2.6732;
48.0000;0.2564;2.6732;
48.3000;0.2548;2.6707;
48.6000;0.2556;2.6757;
48.9000;0.2548;2.6657;
49.2000;0.2540;2.6657;
49.5000;0.2605;2.6832;
49.8000;0.2540;2.6757;
50.1000;0.2556;2.6807;
50.4000;0.2515;2.6757;
50.7000;0.2507;2.6807;
51.0000;0.2580;2.6857;
51.3000;0.2556;2.6782;
51.6000;0.2564;2.6882;
51.9000;0.2540;2.6832;
52.2000;0.2548;2.6882;
52.5000;0.2515;2.6832;
52.8000;0.2556;2.6932;
53.1000;0.2540;2.6957;
53.4000;0.2523;2.6832;
53.7000;0.2548;2.6832;
54.0000;0.2548;2.6782;
54.3000;0.2532;2.6707;
54.6000;0.2540;2.6757;
54.9000;0.2556;2.6732;
55.2000;0.2548;2.6707;
55.5000;0.2523;2.6632;
55.8000;0.2589;2.6732;
56.1000;0.2532;2.6682;
56.4000;0.2580;2.6807;
56.7000;0.2556;2.6707;
57.0000;0.2475;2.6482;
57.3000;0.2556;2.6757;
57.6000;0.2540;2.6682;
57.9000;0.2540;2.6682;
58.2000;0.2556;2.6732;
58.5000;0.2597;2.6907;
58.8000;0.2564;2.6857;
59.1000;0.2548;2.6782;
59.4000;0.2556;2.6807;
59.7000;0.2532;2.6757;
60.0000;0.2507;2.6632;
60.3000;0.2556;2.6682;
60.6000;0.2548;2.6632;
60.9000;0.2548;2.6632;
61.2000;0.2540;2.6707;
61.5000;0.2499;2.6682;
61.8000;0.2572;2.6982;
62.1000;0.2556;2.7007;
62.4000;0.2556;2.6982;
62.7000;0.2548;2.6982;
63.0000;0.2589;2.7057;
63.3000;0.2548;2.6907;
63.6000;0.2580;2.7032;
63.9000;0.2532;2.6882;
64.2000;0.2523;2.6832;
64.5000;0.2532;2.6857;
64.8000;0.2540;2.6807;
65.1000;0.2556;2.6857;
65.4000;0.2548;2.6807;
65.7000;0.2556;2.6732;
66.0000;0.2580;2.6807;
66.3000;0.2523;2.6707;
66.6000;0.2556;2.6732;
66.9000;0.2548;2.6707;
67.2000;0.2621;2.6857;
67.5000;0.2540;2.6757;
67.8000;0.2548;2.6807;
68.1000;0.2532;2.6732;
68.4000;0.2548;2.6732;
68.7000;0.2556;2.6832;
69.0000;0.2572;2.6857;
69.3000;0.2548;2.6832;
69.6000;0.2483;2.6757;
69.9000;0.2540;2.6982;
70.2000;0.2532;2.6882;
70.5000;0.2597;2.6982;
70.8000;0.2564;2.6907;
71.1000;0.2556;2.6882;
71.4000;0.2670;2.7182;
71.7000;0.2523;2.6707;
72.0000;0.2548;2.6857;
72.3000;0.2475;2.6632;
72.6000;0.2580;2.6757;
72.9000;0.2556;2.6582;
73.2000;0.2483;2.6331;
73.5000;0.2450;2.6231;
73.8000;0.2556;2.6482;
74.1000;0.2556;2.6482;
74.4000;0.2580;2.6432;
74.7000;0.2580;2.6507;
75.0000;0.2654;2.6782;
75.3000;0.2540;2.6482;
75.6000;0.2548;2.6407;
75.9000;0.2556;2.6507;
76.2000;0.2572;2.6557;
76.5000;0.2532;2.6607;
76.8000;0.2564;2.6707;
77.1000;0.2532;2.6607;
77.4000;0.2548;2.6732;
77.7000;0.2540;2.6757;
78.0000;0.2532;2.6732;
78.3000;0.2523;2.6732;
78.6000;0.2548;2.6757;
78.9000;0.2556;2.6782;
79.2000;0.2564;2.6707;
79.5000;0.2548;2.6632;
79.8000;0.2523;2.6582;
80.1000;0.2556;2.6707;
80.4000;0.2532;2.6607;
80.7000;0.2532;2.6757;
81.0000;0.2572;2.6857;
81.3000;0.2548;2.6707;
81.6000;0.2540;2.6632;
81.9000;0.2572;2.6632;
82.2000;0.2556;2.6557;
82.5000;0.2532;2.6582;
82.8000;0.2540;2.6607;
83.1000;0.2556;2.6607;
83.4000;0.2515;2.6507;
83.7000;0.2523;2.6607;
84.0000;0.2540;2.6707;
84.3000;0.2556;2.6707;
84.6000;0.2532;2.6707;
84.9000;0.2556;2.6757;
85.2000;0.2532;2.6757;
85.5000;0.2572;2.6807;
85.8000;0.2556;2.6757;
86.1000;0.2532;2.6757;
86.4000;0.2646;2.7082;
86.7000;0.2556;2.6857;
87.0000;0.2572;2.6807;
87.3000;0.2532;2.6807;
87.6000;0.2572;2.6857;
87.9000;0.2548;2.6857;
88.2000;0.2507;2.6682;
88.5000;0.2532;2.6757;
88.8000;0.2548;2.6757;
89.1000;0.2580;2.6882;
89.4000;0.2523;2.6732;
89.7000;0.2564;2.6807;
90.0000;0.2523;2.6532;
90.3000;0.2540;2.6507;
90.6000;0.2589;2.6582;
90.9000;0.2548;2.6532;
91.2000;0.2475;2.6356;
91.5000;0.2523;2.6607;
91.8000;0.2548;2.6657;
92.1000;0.2458;2.6457;
92.4000;0.2556;2.6757;
92.7000;0.2540;2.6782;
93.0000;0.2548;2.6882;
93.3000;0.2564;2.6982;
93.6000;0.2483;2.6782;
93.9000;0.2556;2.6857;
94.2000;0.2556;2.6707;
94.5000;0.2613;2.6782;
94.8000;0.2548;2.6632;
95.1000;0.2507;2.6582;
95.4000;0.2564;2.6657;
95.7000;0.2483;2.6457;
96.0000;0.2564;2.6707;
96.3000;0.2589;2.6907;
96.6000;0.2515;2.6707;
96.9000;0.2564;2.6832;
97.2000;0.2597;2.6907;
97.5000;0.2613;2.6982;
97.8000;0.2540;2.6807;
98.1000;0.2532;2.6857;
98.4000;0.2548;2.6857;
98.7000;0.2499;2.6782;
99.0000;0.2523;2.6882;
99.3000;0.2613;2.7082;
99.6000;0.2540;2.6907;
99.9000;0.2540;2.6982;
100.2000;0.2564;2.7107;
100.5000;0.2564;2.7057;
100.8000;0.2540;2.6907;
101.1000;0.2548;2.6982;
101.4000;0.2523;2.6982;
101.7000;0.2580;2.7082;
102.0000;0.2556;2.7057;
102.3000;0.2475;2.6732;
102.6000;0.2556;2.6907;
102.9000;0.2540;2.6832;
103.2000;0.2523;2.6782;
103.5000;0.2548;2.6832;
103.8000;0.2540;2.6832;
104.1000;0.2556;2.6807;
104.4000;0.2442;2.6532;
104.7000;0.2540;2.6882;
105.0000;0.2548;2.6882;
105.3000;0.2694;2.7308;
105.6000;0.2556;2.6907;
105.9000;0.2548;2.6957;
106.2000;0.2556;2.6907;
106.5000;0.2507;2.6757;
106.8000;0.2564;2.6957;
107.1000;0.2556;2.6957;
107.4000;0.2564;2.6932;
107.7000;0.2540;2.6832;
108.0000;0.2540;2.6782;
108.3000;0.2540;2.6732;
108.6000;0.2523;2.6732;
108.9000;0.2532;2.6707;
109.2000;0.2401;2.6331;
109.5000;0.2532;2.6682;
109.8000;0.2507;2.6682;
110.1000;0.2515;2.6707;
110.4000;0.2499;2.6657;
110.7000;0.2507;2.6732;
111.0000;0.2548;2.6957;
111.3000;0.2450;2.6657;
111.6000;0.2491;2.6682;
111.9000;0.2548;2.6907;
112.2000;0.2556;2.6882;
112.5000;0.2646;2.7132;
112.8000;0.2483;2.6632;
113.1000;0.2523;2.6807;
113.4000;0.2556;2.6807;
113.7000;0.2540;2.6707;
114.0000;0.2548;2.6732;
114.3000;0.2532;2.6732;
114.6000;0.2548;2.6757;
114.9000;0.2548;2.6807;
115.2000;0.2532;2.6782;
115.5000;0.2564;2.6857;
115.8000;0.2572;2.6932;
116.1000;0.2556;2.6782;
116.4000;0.2523;2.6732;
116.7000;0.2515;2.6732;
117.0000;0.2483;2.6632;
117.3000;0.2621;2.6982;
117.6000;0.2507;2.6657;
117.9000;0.2589;2.6857;
118.2000;0.2597;2.6932;
118.5000;0.2523;2.6757;
118.8000;0.2540;2.6807;
119.1000;0.2532;2.6807;
119.4000;0.2458;2.6682;
119.7000;0.2540;2.6857;
120.0000;0.2532;2.6807;
120.3000;0.2548;2.6832;
120.6000;0.2532;2.6732;
120.9000;0.2523;2.6732;
121.2000;0.2548;2.6782;
121.5000;0.2548;2.6882;
121.8000;0.2540;2.6932;
122.1000;0.2523;2.6932;
122.4000;0.2621;2.7182;
122.7000;0.2564;2.6907;
123.0000;0.2523;2.6732;
123.3000;0.2540;2.6707;
123.6000;0.2540;2.6732;
123.9000;0.2548;2.6757;
124.2000;0.2572;2.6732;
124.5000;0.2589;2.6757;
124.8000;0.2475;2.6482;
125.1000;0.2548;2.6707;
125.4000;0.2580;2.6757;
125.7000;0.2540;2.6607;
126.0000;0.2523;2.6557;
126.3000;0.2678;2.6957;
126.6000;0.2548;2.6557;
126.9000;0.2613;2.6632;
127.2000;0.2548;2.6532;
127.5000;0.2556;2.6507;
127.8000;0.2540;2.6532;
128.1000;0.2532;2.6582;
128.4000;0.2540;2.6682;
128.7000;0.2564;2.6757;
129.0000;0.2589;2.6957;
129.3000;0.2532;2.6657;
129.6000;0.2507;2.6582;
129.9000;0.2523;2.6607;
130.2000;0.2515;2.6582;
130.5000;0.2548;2.6657;
130.8000;0.2523;2.6532;
131.1000;0.2556;2.6732;
131.4000;0.2548;2.6682;
131.7000;0.2466;2.6457;
132.0000;0.2564;2.6632;
132.3000;0.2532;2.6532;
132.6000;0.2491;2.6356;
132.9000;0.2589;2.6557;
133.2000;0.2572;2.6457;
133.5000;0.2572;2.6532;
133.8000;0.2564;2.6557;
134.1000;0.2532;2.6557;
134.4000;0.2548;2.6557;
134.7000;0.2523;2.6532;
135.0000;0.2540;2.6607;
135.3000;0.2523;2.6607;
135.6000;0.2540;2.6732;
135.9000;0.2523;2.6607;
136.2000;0.2548;2.6557;
136.5000;0.2515;2.6582;
136.8000;0.2523;2.6607;
137.1000;0.2523;2.6532;
137.4000;0.2629;2.6882;
137.7000;0.2532;2.6632;
138.0000;0.2515;2.6607;
138.3000;0.2548;2.6657;
138.6000;0.2507;2.6582;
138.9000;0.2564;2.6807;
139.2000;0.2556;2.6782;
139.5000;0.2515;2.6657;
139.8000;0.2564;2.6707;
140.1000;0.2548;2.6682;
140.4000;0.2597;2.6782;
140.7000;0.2540;2.6682;
141.0000;0.2532;2.6682;
141.3000;0.2540;2.6757;
141.6000;0.2548;2.6782;
141.9000;0.2540;2.6707;
142.2000;0.2532;2.6682;
142.5000;0.2580;2.6757;
142.8000;0.2572;2.6707;
143.1000;0.2540;2.6707;
143.4000;0.2540;2.6732;
143.7000;0.2515;2.6632;
144.0000;0.2556;2.6732;
144.3000;0.2515;2.6657;
144.6000;0.2532;2.6657;
144.9000;0.2532;2.6657;
145.2000;0.2523;2.6682;
145.5000;0.2548;2.6707;
145.8000;0.2556;2.6732;
146.1000;0.2548;2.6757;
146.4000;0.2556;2.6807;
146.7000;0.2540;2.6757;
147.0000;0.2532;2.6832;
147.3000;0.2523;2.6832;
147.6000;0.2540;2.6857;
147.9000;0.2540;2.6857;
148.2000;0.2532;2.6757;
148.5000;0.2540;2.6757;
148.8000;0.2450;2.6557;
149.1000;0.2548;2.6757;
149.4000;0.2523;2.6657;
149.7000;0.2532;2.6632;
150.0000;0.2532;2.6682;
150.3000;0.2540;2.6732;
150.6000;0.2523;2.6682;
150.9000;0.2548;2.6707;
151.2000;0.2532;2.6732;
151.5000;0.2662;2.7082;
151.8000;0.2556;2.6832;
152.1000;0.2556;2.6907;
152.4000;0.2540;2.6857;
152.7000;0.2548;2.6857;
153.0000;0.2540;2.6807;
153.3000;0.2540;2.6732;
153.6000;0.2523;2.6657;
153.9000;0.2540;2.6632;
154.2000;0.2491;2.6482;
154.5000;0.2548;2.6682;
154.8000;0.2556;2.6757;
155.1000;0.2491;2.6557;
155.4000;0.2540;2.6682;
155.7000;0.2523;2.6632;
156.0000;0.2540;2.6682;
156.3000;0.2540;2.6757;
156.6000;0.2589;2.6907;
156.9000;0.2564;2.6882;
157.2000;0.2540;2.6807;
157.5000;0.2556;2.6857;
157.8000;0.2548;2.6782;
158.1000;0.2540;2.6682;
158.4000;0.2515;2.6657;
158.7000;0.2540;2.6707;
159.0000;0.2532;2.6707;
159.3000;0.2564;2.6782;
159.6000;0.2523;2.6682;
159.9000;0.2532;2.6732;
160.2000;0.2475;2.6607;
160.5000;0.2499;2.6682;
160.8000;0.2532;2.6732;
161.1000;0.2605;2.6982;
161.4000;0.2458;2.6482;
161.7000;0.2548;2.6782;
162.0000;0.2540;2.6757;
162.3000;0.2532;2.6757;
162.6000;0.2540;2.6857;
162.9000;0.2532;2.6832;
163.2000;0.2540;2.6857;
163.5000;0.2523;2.6832;
163.8000;0.2532;2.6882;
164.1000;0.2515;2.6882;
164.4000;0.2572;2.6982;
164.7000;0.2532;2.6907;
165.0000;0.2597;2.7182;
165.3000;0.2564;2.6982;
165.6000;0.2548;2.6957;
165.9000;0.2523;2.6857;
166.2000;0.2572;2.6982;
166.5000;0.2572;2.6932;
166.8000;0.2523;2.6907;
167.1000;0.2589;2.7057;
167.4000;0.2646;2.7157;
167.7000;0.2548;2.6882;
168.0000;0.2507;2.6707;
168.3000;0.2540;2.6782;
168.6000;0.2532;2.6807;
168.9000;0.2523;2.6757;
169.2000;0.2434;2.6457;
169.5000;0.2580;2.6807;
169.8000;0.2499;2.6757;
170.1000;0.2548;2.6982;
170.4000;0.2523;2.6957;
170.7000;0.2540;2.6957;
171.0000;0.2548;2.6907;
171.3000;0.2613;2.7132;
171.6000;0.2548;2.6907;
171.9000;0.2548;2.6882;
172.2000;0.2523;2.6832;
172.5000;0.2475;2.6682;
172.8000;0.2548;2.6782;
173.1000;0.2548;2.6807;
173.4000;0.2548;2.6857;
173.7000;0.2556;2.6782;
174.0000;0.2523;2.6707;
174.3000;0.2556;2.6807;
174.6000;0.2540;2.6732;
174.9000;0.2532;2.6707;
175.2000;0.2548;2.6757;
175.5000;0.2621;2.6982;
175.8000;0.2540;2.6707;
176.1000;0.2532;2.6657;
176.4000;0.2532;2.6707;
176.7000;0.2532;2.6782;
177.0000;0.2540;2.6882;
177.3000;0.2678;2.7207;
177.6000;0.2499;2.6807;
177.9000;0.2540;2.6932;
178.2000;0.2556;2.6907;
178.5000;0.2572;2.6832;
178.8000;0.2523;2.6682;
179.1000;0.2515;2.6632;
179.4000;0.2564;2.6882;
179.7000;0.2540;2.6832;
180.0000;0.2540;2.6782;
180.3000;0.2548;2.6857;
180.6000;0.2637;2.7057;
180.9000;0.2548;2.6807;
181.2000;0.2507;2.6832;
181.5000;0.2540;2.6857;
181.8000;0.2507;2.6882;
182.1000;0.2548;2.6982;
182.4000;0.2515;2.6807;
182.7000;0.2613;2.7132;
183.0000;0.2540;2.6882;
183.3000;0.2540;2.6882;
183.6000;0.2548;2.6932;
183.9000;0.2540;2.6832;
184.2000;0.2532;2.6857;
184.5000;0.2523;2.6757;
184.8000;0.2515;2.6882;
185.1000;0.2523;2.6882;
185.4000;0.2475;2.6707;
185.7000;0.2540;2.6832;
186.0000;0.2540;2.6757;
186.3000;0.2532;2.6682;
186.6000;0.2532;2.6732;
186.9000;0.2540;2.6832;
187.2000;0.2564;2.6782;
187.5000;0.2564;2.6782;
187.8000;0.2540;2.6682;
188.1000;0.2572;2.6682;
188.4000;0.2572;2.6707;
188.7000;0.2548;2.6532;
189.0000;0.2540;2.6381;
189.3000;0.2499;2.6482;
189.6000;0.2515;2.6482;
189.9000;0.2548;2.6582;
190.2000;0.2548;2.6632;
190.5000;0.2532;2.6582;
190.8000;0.2548;2.6732;
191.1000;0.2548;2.6757;
191.4000;0.2532;2.6857;
191.7000;0.2515;2.6682;
192.0000;0.2532;2.6682;
192.3000;0.2540;2.6657;
192.6000;0.2540;2.6707;
192.9000;0.2572;2.6832;
193.2000;0.2409;2.6532;
193.5000;0.2532;2.6832;
193.8000;0.2523;2.6682;
194.1000;0.2515;2.6707;
194.4000;0.2540;2.6832;
194.7000;0.2589;2.6957;
195.0000;0.2597;2.7032;
195.3000;0.2532;2.6907;
195.6000;0.2532;2.6982;
195.9000;0.2532;2.7082;
196.2000;0.2523;2.7107;
196.5000;0.2499;2.6957;
196.8000;0.2515;2.7057;
197.1000;0.2540;2.7107;
197.4000;0.2523;2.7057;
197.7000;0.2548;2.7032;
198.0000;0.2678;2.7358;
198.3000;0.2548;2.6982;
198.6000;0.2515;2.6807;
198.9000;0.2532;2.6932;
199.2000;0.2548;2.6957;
199.5000;0.2523;2.6982;
199.8000;0.2556;2.7032;
200.1000;0.2556;2.6982;
200.4000;0.2540;2.6882;
200.7000;0.2556;2.6907;
201.0000;0.2556;2.6882;
201.3000;0.2507;2.6832;
201.6000;0.2483;2.6732;
201.9000;0.2532;2.6832;
202.2000;0.2442;2.6632;
202.5000;0.2540;2.6832;
202.8000;0.2385;2.6457;
203.1000;0.2523;2.6907;
203.4000;0.2532;2.6907;
203.7000;0.2548;2.7007;
204.0000;0.2572;2.7007;
204.3000;0.2523;2.6882;
204.6000;0.2507;2.6832;
204.9000;0.2540;2.7007;
205.2000;0.2507;2.6957;
205.5000;0.2507;2.6957;
205.8000;0.2548;2.7132;
206.1000;0.2532;2.7132;
206.4000;0.2556;2.7182;
206.7000;0.2548;2.7082;
207.0000;0.2564;2.7157;
207.3000;0.2515;2.6932;
207.6000;0.2540;2.6882;
207.9000;0.2466;2.6657;
208.2000;0.2499;2.6832;
208.5000;0.2548;2.6882;
208.8000;0.2548;2.6832;
209.1000;0.2515;2.6707;
209.4000;0.2450;2.6532;
209.7000;0.2532;2.6832;
210.0000;0.2540;2.6832;
210.3000;0.2532;2.6882;
210.6000;0.2523;2.6832;
210.9000;0.2572;2.6957;
211.2000;0.2540;2.6832;
211.5000;0.2532;2.6707;
211.8000;0.2523;2.6582;
212.1000;0.2556;2.6707;
212.4000;0.2540;2.6707;
212.7000;0.2548;2.6807;
213.0000;0.2450;2.6582;
213.3000;0.2540;2.6882;
213.6000;0.2556;2.6857;
213.9000;0.2540;2.6757;
214.2000;0.2532;2.6807;
214.5000;0.2532;2.6932;
214.8000;0.2523;2.6982;
215.1000;0.2532;2.6982;
215.4000;0.2564;2.7132;
215.7000;0.2523;2.7057;
216.0000;0.2548;2.7182;
216.3000;0.2548;2.7233;
216.6000;0.2564;2.7258;
216.9000;0.2556;2.7157;
217.2000;0.2523;2.7032;
217.5000;0.2523;2.6907;
217.8000;0.2580;2.7032;
218.1000;0.2580;2.7007;
218.4000;0.2515;2.6832;
218.7000;0.2499;2.6782;
219.0000;0.2515;2.6907;
219.3000;0.2564;2.6982;
219.6000;0.2540;2.6982;
219.9000;0.2523;2.6907;
220.2000;0.2532;2.6957;
220.5000;0.2540;2.6957;
220.8000;0.2532;2.6932;
221.1000;0.2564;2.7007;
221.4000;0.2556;2.7032;
221.7000;0.2605;2.7057;
222.0000;0.2532;2.6807;
222.3000;0.2564;2.6882;
222.6000;0.2540;2.6832;
222.9000;0.2540;2.6882;
223.2000;0.2580;2.7082;
223.5000;0.2532;2.6957;
223.8000;0.2475;2.6782;
224.1000;0.2523;2.6882;
224.4000;0.2532;2.6857;
224.7000;0.2507;2.6807;
225.0000;0.2540;2.6782;
225.3000;0.2515;2.6757;
225.6000;0.2540;2.6857;
225.9000;0.2556;2.6932;
226.2000;0.2548;2.7007;
226.5000;0.2434;2.6607;
226.8000;0.2548;2.6932;
227.1000;0.2540;2.6957;
227.4000;0.2475;2.6757;
227.7000;0.2523;2.6832;
228.0000;0.2540;2.6882;
228.3000;0.2540;2.6932;
228.6000;0.2523;2.6907;
228.9000;0.2532;2.6932;
229.2000;0.2466;2.6682;
229.5000;0.2515;2.6832;
229.8000;0.2523;2.6807;
230.1000;0.2523;2.6782;
230.4000;0.2597;2.7082;
230.7000;0.2515;2.6882;
231.0000;0.2532;2.6907;
231.3000;0.2532;2.6857;
231.6000;0.2532;2.6832;
231.9000;0.2532;2.6832;
232.2000;0.2548;2.6857;
232.5000;0.2515;2.6757;
232.8000;0.2523;2.6882;
233.1000;0.2532;2.6882;
233.4000;0.2515;2.6932;
233.7000;0.2515;2.7007;
234.0000;0.2540;2.7107;
234.3000;0.2605;2.7258;
234.6000;0.2556;2.7132;
234.9000;0.2515;2.6957;
235.2000;0.2654;2.7308;
235.5000;0.2548;2.7032;
235.8000;0.2532;2.6957;
236.1000;0.2540;2.7032;
236.4000;0.2540;2.6957;
236.7000;0.2548;2.7082;
237.0000;0.2548;2.7082;
237.3000;0.2532;2.7007;
237.6000;0.2564;2.7157;
237.9000;0.2532;2.7107;
238.2000;0.2540;2.7082;
238.5000;0.2523;2.7107;
238.8000;0.2507;2.7082;
239.1000;0.2556;2.7258;
239.4000;0.2507;2.7182;
239.7000;0.2532;2.7132;
240.0000;0.2515;2.7107;
240.3000;0.2515;2.7032;
240.6000;0.2540;2.7107;
240.9000;0.2540;2.7057;
241.2000;0.2589;2.7233;
241.5000;0.2507;2.7007;
241.8000;0.2515;2.7057;
242.1000;0.2580;2.7233;
242.4000;0.2556;2.7132;
242.7000;0.2580;2.7207;
243.0000;0.2523;2.7032;
243.3000;0.2483;2.6882;
243.6000;0.2540;2.7107;
243.9000;0.2523;2.7082;
244.2000;0.2564;2.7182;
244.5000;0.2613;2.7333;
244.8000;0.2458;2.6932;
245.1000;0.2532;2.7182;
245.4000;0.2458;2.6932;
245.7000;0.2507;2.7107;
246.0000;0.2589;2.7233;
246.3000;0.2548;2.7107;
246.6000;0.2507;2.6982;
246.9000;0.2548;2.7082;
247.2000;0.2523;2.6932;
247.5000;0.2523;2.6882;
247.8000;0.2483;2.6807;
248.1000;0.2532;2.6907;
248.4000;0.2523;2.6907;
248.7000;0.2540;2.6832;
249.0000;0.2540;2.6832;
249.3000;0.2499;2.6757;
249.6000;0.2540;2.6857;
249.9000;0.2515;2.6782;
250.2000;0.2532;2.6957;
250.5000;0.2532;2.7057;
250.8000;0.2515;2.6982;
251.1000;0.2564;2.7107;
251.4000;0.2532;2.6932;
251.7000;0.2475;2.6832;
252.0000;0.2523;2.7007;
252.3000;0.2548;2.7157;
252.6000;0.2466;2.6882;
252.9000;0.2507;2.6982;
253.2000;0.2556;2.7057;
253.5000;0.2523;2.6957;
253.8000;0.2515;2.6982;
254.1000;0.2532;2.6982;
254.4000;0.2540;2.7082;
254.7000;0.2548;2.7057;
255.0000;0.2540;2.7007;
255.3000;0.2523;2.6932;
255.6000;0.2540;2.7007;
255.9000;0.2540;2.7082;
256.2000;0.2540;2.6982;
256.5000;0.2556;2.7032;
256.8000;0.2532;2.6982;
257.1000;0.2540;2.7007;
257.4000;0.2532;2.6982;
257.7000;0.2548;2.7082;
258.0000;0.2540;2.7007;
258.3000;0.2540;2.6857;
258.6000;0.2548;2.6882;
258.9000;0.2532;2.6782;
259.2000;0.2515;2.6732;
259.5000;0.2475;2.6682;
259.8000;0.2548;2.6857;
260.1000;0.2556;2.6882;
260.4000;0.2564;2.6882;
260.7000;0.2540;2.6857;
261.0000;0.2556;2.6907;
261.3000;0.2548;2.6907;
261.6000;0.2540;2.6857;
261.9000;0.2532;2.6832;
262.2000;0.2532;2.6757;
262.5000;0.2540;2.6832;
262.8000;0.2532;2.6932;
263.1000;0.2507;2.6857;
263.4000;0.2523;2.6907;
263.7000;0.2564;2.6932;
264.0000;0.2532;2.6857;
264.3000;0.2515;2.6832;
264.6000;0.2466;2.6757;
264.9000;0.2532;2.6907;
265.2000;0.2523;2.6907;
265.5000;0.2515;2.6857;
265.8000;0.2515;2.6832;
266.1000;0.2548;2.6857;
266.4000;0.2548;2.6832;
266.7000;0.2580;2.6957;
267.0000;0.2540;2.6857;
267.3000;0.2540;2.6907;
267.6000;0.2523;2.6782;
267.9000;0.2540;2.6757;
268.2000;0.2523;2.6757;
268.5000;0.2523;2.6832;
268.8000;0.2515;2.6857;
269.1000;0.2556;2.6932;
269.4000;0.2466;2.6732;
269.7000;0.2532;2.6957;
270.0000;0.2629;2.7157;
270.3000;0.2572;2.6907;
270.6000;0.2548;2.6832;
270.9000;0.2532;2.6757;
271.2000;0.2483;2.6732;
271.5000;0.2523;2.6782;
271.8000;0.2532;2.6782;
272.1000;0.2507;2.6632;
272.4000;0.2532;2.6632;
272.7000;0.2523;2.6632;
273.0000;0.2515;2.6607;
273.3000;0.2548;2.6732;
273.6000;0.2523;2.6707;
273.9000;0.2515;2.6707;
274.2000;0.2564;2.6857;
274.5000;0.2540;2.6832;
274.8000;0.2540;2.6707;
275.1000;0.2548;2.6757;
275.4000;0.2556;2.6807;
275.7000;0.2532;2.6757;
276.0000;0.2548;2.6807;
276.3000;0.2556;2.6807;
276.6000;0.2589;2.6932;
276.9000;0.2540;2.6732;
277.2000;0.2507;2.6682;
277.5000;0.2564;2.6807;
277.8000;0.2532;2.6732;
278.1000;0.2523;2.6682;
278.4000;0.2556;2.6757;
278.7000;0.2532;2.6732;
279.0000;0.2450;2.6532;
279.3000;0.2507;2.6757;
279.6000;0.2523;2.6807;
279.9000;0.2540;2.6832;
280.2000;0.2523;2.6732;
280.5000;0.2548;2.6757;
280.8000;0.2523;2.6657;
281.1000;0.2515;2.6632;
281.4000;0.2540;2.6657;
281.7000;0.2475;2.6356;
282.0000;0.2532;2.6607;
282.3000;0.2418;2.6306;
282.6000;0.2532;2.6632;
282.9000;0.2540;2.6607;
283.2000;0.2409;2.6331;
283.5000;0.2540;2.6682;
283.8000;0.2564;2.6682;
284.1000;0.2532;2.6632;
284.4000;0.2507;2.6532;
284.7000;0.2515;2.6432;
285.0000;0.2556;2.6557;
285.3000;0.2532;2.6657;
285.6000;0.2540;2.6682;
285.9000;0.2523;2.6632;
286.2000;0.2629;2.6732;
286.5000;0.2523;2.6557;
286.8000;0.2532;2.6657;
287.1000;0.2499;2.6657;
287.4000;0.2589;2.6882;
287.7000;0.2548;2.6807;
288.0000;0.2548;2.6807;
288.3000;0.2540;2.6782;
288.6000;0.2499;2.6657;
288.9000;0.2556;2.6757;
289.2000;0.2532;2.6707;
289.5000;0.2523;2.6657;
289.8000;0.2532;2.6582;
290.1000;0.2548;2.6582;
290.4000;0.2507;2.6507;
290.7000;0.2523;2.6507;
291.0000;0.2556;2.6607;
291.3000;0.2532;2.6482;
291.6000;0.2540;2.6532;
291.9000;0.2548;2.6457;
292.2000;0.2515;2.6256;
292.5000;0.2532;2.6381;
292.8000;0.2556;2.6557;
293.1000;0.2548;2.6557;
293.4000;0.2532;2.6532;
293.7000;0.2491;2.6356;
294.0000;0.2540;2.6532;
294.3000;0.2523;2.6557;
294.6000;0.2499;2.6532;
294.9000;0.2597;2.6832;
295.2000;0.2540;2.6707;
295.5000;0.2532;2.6707;
295.8000;0.2540;2.6732;
296.1000;0.2564;2.6757;
296.4000;0.2426;2.6331;
296.7000;0.2686;2.7082;
297.0000;0.2515;2.6632;
297.3000;0.2564;2.6632;
297.6000;0.2523;2.6582;
297.9000;0.2548;2.6682;
298.2000;0.2540;2.6582;
298.5000;0.2605;2.6707;
298.8000;0.2409;2.6156;
299.1000;0.2564;2.6582;
299.4000;0.2401;2.6106;
299.7000;0.2515;2.6507;
300.0000;0.2499;2.6407;
300.3000;0.2466;2.6331;
300.6000;0.2499;2.6331;
300.9000;0.2499;2.6381;
301.2000;0.2426;2.6231;
301.5000;0.2458;2.6381;
301.8000;0.2548;2.6657;
302.1000;0.2393;2.6306;
302.4000;0.2556;2.6882;
302.7000;0.2532;2.6857;
303.0000;0.2532;2.6807;
303.3000;0.2523;2.6707;
303.6000;0.2532;2.6657;
303.9000;0.2515;2.6607;
304.2000;0.2532;2.6682;
304.5000;0.2532;2.6807;
304.8000;0.2532;2.6757;
305.1000;0.2523;2.6782;
305.4000;0.2515;2.6732;
305.7000;0.2523;2.6732;
306.0000;0.2532;2.6832;
306.3000;0.2532;2.6757;
306.6000;0.2532;2.6832;
306.9000;0.2548;2.6932;
307.2000;0.2589;2.7007;
307.5000;0.2548;2.6957;
307.8000;0.2548;2.7057;
308.1000;0.2523;2.6932;
308.4000;0.2515;2.6907;
308.7000;0.2532;2.6882;
309.0000;0.2515;2.6807;
309.3000;0.2540;2.6932;
309.6000;0.2523;2.6932;
309.9000;0.2548;2.6982;
310.2000;0.2580;2.7032;
310.5000;0.2532;2.6857;
310.8000;0.2548;2.6882;
311.1000;0.2515;2.6857;
311.4000;0.2523;2.6907;
311.7000;0.2540;2.6857;
312.0000;0.2523;2.6807;
312.3000;0.2540;2.6782;
312.6000;0.2450;2.6356;
312.9000;0.2532;2.6657;
313.2000;0.2507;2.6632;
313.5000;0.2515;2.6582;
313.8000;0.2523;2.6632;
314.1000;0.2556;2.6682;
314.4000;0.2523;2.6582;
314.7000;0.2507;2.6657;
315.0000;0.2548;2.6757;
315.3000;0.2548;2.6757;
315.6000;0.2523;2.6682;
315.9000;0.2540;2.6732;
316.2000;0.2499;2.6632;
316.5000;0.2540;2.6782;
316.8000;0.2523;2.6657;
317.1000;0.2540;2.6782;
317.4000;0.2418;2.6457;
317.7000;0.2548;2.6807;
318.0000;0.2532;2.6757;
318.3000;0.2548;2.6732;
318.6000;0.2499;2.6557;
318.9000;0.2532;2.6732;
319.2000;0.2483;2.6682;
319.5000;0.2450;2.6557;
319.8000;0.2523;2.6707;
320.1000;0.2483;2.6632;
320.4000;0.2589;2.6932;
320.7000;0.2540;2.6757;
321.0000;0.2532;2.6707;
321.3000;0.2540;2.6682;
321.6000;0.2540;2.6657;
321.9000;0.2532;2.6607;
322.2000;0.2589;2.6757;
322.5000;0.2409;2.6256;
322.8000;0.2523;2.6582;
323.1000;0.2597;2.6907;
323.4000;0.2532;2.6682;
323.7000;0.2532;2.6657;
324.0000;0.2580;2.6807;
324.3000;0.2523;2.6657;
324.6000;0.2556;2.6707;
324.9000;0.2523;2.6632;
325.2000;0.2532;2.6682;
325.5000;0.2523;2.6582;
325.8000;0.2523;2.6557;
326.1000;0.2540;2.6632;
326.4000;0.2515;2.6657;
326.7000;0.2507;2.6657;
327.0000;0.2515;2.6682;
327.3000;0.2499;2.6582;
327.6000;0.2499;2.6607;
327.9000;0.2556;2.6732;
328.2000;0.2532;2.6657;
328.5000;0.2532;2.6632;
328.8000;0.2523;2.6682;
329.1000;0.2532;2.6657;
329.4000;0.2556;2.6757;
329.7000;0.2548;2.6657;
330.0000;0.2507;2.6632;
330.3000;0.2483;2.6607;
330.6000;0.2532;2.6782;
330.9000;0.2523;2.6782;
331.2000;0.2507;2.6807;
331.5000;0.2523;2.6807;
331.8000;0.2548;2.6857;
332.1000;0.2540;2.6832;
332.4000;0.2548;2.6907;
332.7000;0.2540;2.6807;
333.0000;0.2532;2.6782;
333.3000;0.2475;2.6607;
333.6000;0.2532;2.6807;
333.9000;0.2515;2.6832;
334.2000;0.2515;2.6857;
334.5000;0.2507;2.6732;
334.8000;0.2556;2.6857;
335.1000;0.2548;2.6732;
335.4000;0.2523;2.6657;
335.7000;0.2540;2.6807;
336.0000;0.2523;2.6782;
336.3000;0.2532;2.6832;
336.6000;0.2572;2.6982;
336.9000;0.2532;2.6907;
337.2000;0.2507;2.6757;
337.5000;0.2572;2.6882;
337.8000;0.2507;2.6782;
338.1000;0.2540;2.6882;
338.4000;0.2401;2.6607;
338.7000;0.2532;2.6982;
339.0000;0.2629;2.7283;
339.3000;0.2540;2.6907;
339.6000;0.2540;2.6957;
339.9000;0.2499;2.6807;
340.2000;0.2540;2.6882;
340.5000;0.2507;2.6782;
340.8000;0.2540;2.6882;
341.1000;0.2491;2.6807;
341.4000;0.2523;2.6982;
341.7000;0.2532;2.6982;
342.0000;0.2401;2.6657;
342.3000;0.2507;2.6957;
342.6000;0.2548;2.6957;
342.9000;0.2523;2.6907;
343.2000;0.2613;2.7132;
343.5000;0.2540;2.6957;
343.8000;0.2540;2.6932;
344.1000;0.2523;2.6882;
344.4000;0.2540;2.6807;
344.7000;0.2597;2.7032;
345.0000;0.2540;2.6807;
345.3000;0.2483;2.6657;
345.6000;0.2523;2.6807;
345.9000;0.2540;2.6907;
346.2000;0.2556;2.6982;
346.5000;0.2523;2.6782;
346.8000;0.2532;2.6807;
347.1000;0.2556;2.6857;
347.4000;0.2556;2.6907;
347.7000;0.2556;2.6907;
348.0000;0.2523;2.6807;
348.3000;0.2564;2.6882;
348.6000;0.2572;2.6882;
348.9000;0.2556;2.6932;
349.2000;0.2499;2.6807;
349.5000;0.2556;2.6857;
349.8000;0.2556;2.6807;
350.1000;0.2540;2.6682;
350.4000;0.2532;2.6632;
350.7000;0.2556;2.6657;
351.0000;0.2532;2.6532;
351.3000;0.2540;2.6432;
351.6000;0.2532;2.6306;
351.9000;0.2523;2.6381;
352.2000;0.2572;2.6557;
352.5000;0.2523;2.6482;
352.8000;0.2540;2.6532;
353.1000;0.2572;2.6682;
353.4000;0.2475;2.6457;
353.7000;0.2540;2.6707;
354.0000;0.2548;2.6732;
354.3000;0.2523;2.6557;
354.6000;0.2580;2.6707;
354.9000;0.2532;2.6632;
355.2000;0.2540;2.6657;
355.5000;0.2515;2.6607;
355.8000;0.2556;2.6782;
356.1000;0.2548;2.6757;
356.4000;0.2564;2.6807;
356.7000;0.2556;2.6732;
357.0000;0.2434;2.6331;
357.3000;0.2532;2.6632;
357.6000;0.2564;2.6707;
357.9000;0.2540;2.6607;
358.2000;0.2532;2.6682;
358.5000;0.2523;2.6607;
358.8000;0.2532;2.6757;
359.1000;0.2540;2.6757;
359.4000;0.2532;2.6657;
359.7000;0.2515;2.6707;
360.0000;0.2548;2.6782;
360.3000;0.2540;2.6757;
360.6000;0.2442;2.6381;
360.9000;0.2532;2.6607;
361.2000;0.2556;2.6632;
361.5000;0.2532;2.6607;
361.8000;0.2532;2.6557;
362.1000;0.2499;2.6507;
362.4000;0.2442;2.6381;
362.7000;0.2548;2.6707;
363.0000;0.2515;2.6532;
363.3000;0.2540;2.6507;
363.6000;0.2532;2.6507;
363.9000;0.2515;2.6432;
364.2000;0.2532;2.6381;
364.5000;0.2556;2.6457;
364.8000;0.2556;2.6457;
365.1000;0.2532;2.6356;
365.4000;0.2548;2.6432;
365.7000;0.2532;2.6306;
366.0000;0.2532;2.6356;
366.3000;0.2532;2.6432;
366.6000;0.2540;2.6482;
366.9000;0.2523;2.6432;
367.2000;0.2515;2.6356;
367.5000;0.2540;2.6482;
367.8000;0.2523;2.6482;
368.1000;0.2597;2.6757;
368.4000;0.2540;2.6557;
368.7000;0.2540;2.6657;
369.0000;0.2637;2.6932;
369.3000;0.2532;2.6682;
369.6000;0.2532;2.6732;
369.9000;0.2515;2.6707;
370.2000;0.2532;2.6782;
370.5000;0.2491;2.6732;
370.8000;0.2523;2.6807;
371.1000;0.2556;2.6857;
371.4000;0.2564;2.6882;
371.7000;0.2540;2.6782;
372.0000;0.2515;2.6657;
372.3000;0.2507;2.6607;
372.6000;0.2532;2.6632;
372.9000;0.2515;2.6582;
373.2000;0.2499;2.6532;
373.5000;0.2507;2.6432;
373.8000;0.2532;2.6582;
374.1000;0.2523;2.6607;
374.4000;0.2515;2.6607;
374.7000;0.2556;2.6757;
375.0000;0.2540;2.6682;
375.3000;0.2499;2.6306;
375.6000;0.2532;2.6457;
375.9000;0.2540;2.6482;
376.2000;0.2629;2.6782;
376.5000;0.2540;2.6507;
376.8000;0.2532;2.6457;
377.1000;0.2523;2.6356;
377.4000;0.2491;2.6256;
377.7000;0.2540;2.6331;
378.0000;0.2540;2.6457;
378.3000;0.2507;2.6356;
378.6000;0.2556;2.6532;
378.9000;0.2540;2.6582;
379.2000;0.2540;2.6632;
379.5000;0.2540;2.6657;
379.8000;0.2548;2.6707;
380.1000;0.2507;2.6557;
380.4000;0.2515;2.6632;
380.7000;0.2475;2.6532;
381.0000;0.2532;2.6707;
381.3000;0.2475;2.6582;
381.6000;0.2426;2.6381;
381.9000;0.2548;2.6757;
382.2000;0.2507;2.6632;
382.5000;0.2540;2.6607;
382.8000;0.2556;2.6682;
383.1000;0.2523;2.6482;
383.4000;0.2491;2.6482;
383.7000;0.2515;2.6507;
384.0000;0.2523;2.6507;
384.3000;0.2540;2.6607;
384.6000;0.2540;2.6582;
384.9000;0.2548;2.6582;
385.2000;0.2532;2.6582;
385.5000;0.2532;2.6557;
385.8000;0.2515;2.6532;
386.1000;0.2523;2.6507;
386.4000;0.2540;2.6507;
386.7000;0.2548;2.6482;
387.0000;0.2629;2.6757;
387.3000;0.2548;2.6657;
387.6000;0.2515;2.6607;
387.9000;0.2540;2.6582;
388.2000;0.2540;2.6557;
388.5000;0.2515;2.6507;
388.8000;0.2523;2.6432;
389.1000;0.2556;2.6532;
389.4000;0.2532;2.6457;
389.7000;0.2548;2.6507;
390.0000;0.2540;2.6432;
390.3000;0.2466;2.6306;
390.6000;0.2523;2.6457;
390.9000;0.2523;2.6457;
391.2000;0.2450;2.6231;
391.5000;0.2548;2.6582;
391.8000;0.2532;2.6507;
392.1000;0.2540;2.6457;
392.4000;0.2548;2.6507;
392.7000;0.2523;2.6432;
393.0000;0.2605;2.6832;
393.3000;0.2540;2.6532;
393.6000;0.2532;2.6432;
393.9000;0.2483;2.6381;
394.2000;0.2523;2.6532;
394.5000;0.2515;2.6482;
394.8000;0.2515;2.6432;
395.1000;0.2662;2.6907;
395.4000;0.2532;2.6507;
395.7000;0.2540;2.6532;
396.0000;0.2532;2.6532;
396.3000;0.2540;2.6582;
396.6000;0.2499;2.6557;
396.9000;0.2548;2.6757;
397.2000;0.2515;2.6557;
397.5000;0.2523;2.6482;
397.8000;0.2540;2.6507;
398.1000;0.2548;2.6532;
398.4000;0.2540;2.6632;
398.7000;0.2548;2.6682;
399.0000;0.2532;2.6607;
399.3000;0.2483;2.6532;
399.6000;0.2556;2.6707;
399.9000;0.2515;2.6632;
400.2000;0.2450;2.6407;
400.5000;0.2556;2.6632;
400.8000;0.2540;2.6582;
401.1000;0.2548;2.6607;
401.4000;0.2523;2.6607;
401.7000;0.2540;2.6707;
402.0000;0.2507;2.6582;
402.3000;0.2507;2.6657;
402.6000;0.2532;2.6732;
402.9000;0.2532;2.6782;
403.2000;0.2540;2.6732;
403.5000;0.2532;2.6732;
403.8000;0.2532;2.6682;
404.1000;0.2556;2.6757;
404.4000;0.2548;2.6657;
404.7000;0.2548;2.6657;
405.0000;0.2548;2.6607;
405.3000;0.2507;2.6407;
405.6000;0.2540;2.6457;
405.9000;0.2523;2.6432;
406.2000;0.2499;2.6306;
406.5000;0.2466;2.6181;
406.8000;0.2540;2.6356;
407.1000;0.2548;2.6457;
407.4000;0.2507;2.6407;
407.7000;0.2572;2.6657;
408.0000;0.2540;2.6607;
408.3000;0.2564;2.6757;
408.6000;0.2629;2.6957;
408.9000;0.2597;2.6932;
409.2000;0.2540;2.6757;
409.5000;0.2548;2.6732;
409.8000;0.2540;2.6657;
410.1000;0.2507;2.6582;
410.4000;0.2532;2.6657;
410.7000;0.2548;2.6707;
411.0000;0.2532;2.6782;
411.3000;0.2515;2.6682;
411.6000;0.2532;2.6632;
411.9000;0.2499;2.6507;
412.2000;0.2499;2.6482;
412.5000;0.2515;2.6457;
412.8000;0.2458;2.6231;
413.1000;0.2515;2.6407;
413.4000;0.2540;2.6482;
413.7000;0.2580;2.6582;
414.0000;0.2507;2.6432;
414.3000;0.2540;2.6482;
414.6000;0.2434;2.6231;
414.9000;0.2540;2.6507;
415.2000;0.2515;2.6432;
415.5000;0.2532;2.6432;
415.8000;0.2605;2.6682;
416.1000;0.2532;2.6532;
416.4000;0.2556;2.6557;
416.7000;0.2580;2.6657;
417.0000;0.2548;2.6532;
417.3000;0.2532;2.6457;
417.6000;0.2523;2.6407;
417.9000;0.2523;2.6432;
418.2000;0.2548;2.6482;
418.5000;0.2548;2.6457;
418.8000;0.2532;2.6331;
419.1000;0.2621;2.6582;
419.4000;0.2523;2.6356;
419.7000;0.2540;2.6407;
420.0000;0.2556;2.6482;
420.3000;0.2548;2.6457;
420.6000;0.2532;2.6482;
420.9000;0.2507;2.6407;
421.2000;0.2491;2.6306;
421.5000;0.2523;2.6407;
421.8000;0.2523;2.6482;
422.1000;0.2548;2.6607;
422.4000;0.2507;2.6507;
422.7000;0.2532;2.6582;
423.0000;0.2564;2.6707;
423.3000;0.2548;2.6632;
423.6000;0.2564;2.6707;
423.9000;0.2556;2.6657;
424.2000;0.2564;2.6657;
424.5000;0.2523;2.6582;
424.8000;0.2540;2.6557;
425.1000;0.2532;2.6507;
425.4000;0.2564;2.6682;
425.7000;0.2507;2.6607;
426.0000;0.2540;2.6682;
426.3000;0.2556;2.6732;
426.6000;0.2523;2.6657;
426.9000;0.2499;2.6657;
427.2000;0.2523;2.6632;
427.5000;0.2548;2.6632;
427.8000;0.2523;2.6607;
428.1000;0.2556;2.6782;
428.4000;0.2548;2.6807;
428.7000;0.2572;2.6957;
429.0000;0.2532;2.6882;
429.3000;0.2532;2.6807;
429.6000;0.2515;2.6732;
429.9000;0.2418;2.6432;
430.2000;0.2532;2.6657;
430.5000;0.2540;2.6707;
430.8000;0.2556;2.6557;
431.1000;0.2540;2.6507;
431.4000;0.2540;2.6532;
431.7000;0.2580;2.6632;
432.0000;0.2499;2.6356;
432.3000;0.2556;2.6482;
432.6000;0.2532;2.6507;
432.9000;0.2556;2.6607;
433.2000;0.2523;2.6507;
433.5000;0.2491;2.6432;
433.8000;0.2532;2.6507;
434.1000;0.2589;2.6682;
434.4000;0.2507;2.6482;
434.7000;0.2515;2.6507;
435.0000;0.2637;2.6782;
435.3000;0.2572;2.6557;
435.6000;0.2548;2.6607;
435.9000;0.2523;2.6557;
436.2000;0.2556;2.6782;
436.5000;0.2523;2.6632;
436.8000;0.2507;2.6582;
437.1000;0.2507;2.6632;
437.4000;0.2556;2.6707;
437.7000;0.2597;2.6707;
438.0000;0.2572;2.6607;
438.3000;0.2523;2.6582;
438.6000;0.2507;2.6482;
438.9000;0.2523;2.6482;
439.2000;0.2605;2.6632;
439.5000;0.2564;2.6582;
439.8000;0.2589;2.6732;
440.1000;0.2532;2.6657;
440.4000;0.2515;2.6557;
440.7000;0.2564;2.6782;
441.0000;0.2556;2.6757;
441.3000;0.2605;2.6857;
441.6000;0.2572;2.6732;
441.9000;0.2499;2.6532;
442.2000;0.2475;2.6407;
442.5000;0.2540;2.6507;
442.8000;0.2523;2.6457;
443.1000;0.2548;2.6507;
443.4000;0.2523;2.6482;
443.7000;0.2548;2.6457;
444.0000;0.2540;2.6482;
444.3000;0.2556;2.6532;
444.6000;0.2532;2.6582;
444.9000;0.2532;2.6657;
445.2000;0.2540;2.6557;
445.5000;0.2515;2.6457;
445.8000;0.2605;2.6732;
446.1000;0.2572;2.6682;
446.4000;0.2532;2.6557;
446.7000;0.2548;2.6607;
447.0000;0.2515;2.6532;
447.3000;0.2556;2.6607;
447.6000;0.2475;2.6306;
447.9000;0.2532;2.6507;
448.2000;0.2515;2.6457;
448.5000;0.2515;2.6306;
448.8000;0.2491;2.6181;
449.1000;0.2523;2.6306;
449.4000;0.2523;2.6256;
449.7000;0.2523;2.6306;
450.0000;0.2532;2.6381;
450.3000;0.2483;2.6381;
450.6000;0.2499;2.6331;
450.9000;0.2491;2.6231;
451.2000;0.2483;2.6331;
451.5000;0.2597;2.6607;
451.8000;0.2556;2.6557;
452.1000;0.2532;2.6557;
452.4000;0.2442;2.6356;
452.7000;0.2499;2.6432;
453.0000;0.2540;2.6607;
453.3000;0.2499;2.6507;
453.6000;0.2507;2.6532;
453.9000;0.2507;2.6532;
454.2000;0.2499;2.6482;
454.5000;0.2523;2.6482;
454.8000;0.2540;2.6482;
455.1000;0.2523;2.6482;
455.4000;0.2597;2.6632;
455.7000;0.2540;2.6532;
456.0000;0.2548;2.6557;
456.3000;0.2540;2.6557;
456.6000;0.2540;2.6482;
456.9000;0.2589;2.6657;
457.2000;0.2523;2.6557;
457.5000;0.2556;2.6557;
457.8000;0.2548;2.6607;
458.1000;0.2580;2.6732;
458.4000;0.2540;2.6532;
458.7000;0.2507;2.6407;
459.0000;0.2589;2.6557;
459.3000;0.2556;2.6507;
459.6000;0.2548;2.6432;
459.9000;0.2532;2.6381;
460.2000;0.2605;2.6632;
460.5000;0.2532;2.6432;
460.8000;0.2523;2.6482;
461.1000;0.2548;2.6507;
461.4000;0.2540;2.6532;
461.7000;0.2540;2.6482;
462.0000;0.2507;2.6381;
462.3000;0.2548;2.6457;
462.6000;0.2540;2.6482;
462.9000;0.2548;2.6532;
463.2000;0.2532;2.6532;
463.5000;0.2523;2.6507;
463.8000;0.2556;2.6632;
464.1000;0.2532;2.6582;
464.4000;0.2548;2.6707;
464.7000;0.2491;2.6532;
465.0000;0.2532;2.6607;
465.3000;0.2475;2.6557;
465.6000;0.2540;2.6682;
465.9000;0.2523;2.6507;
466.2000;0.2556;2.6432;
466.5000;0.2540;2.6457;
466.8000;0.2540;2.6507;
467.1000;0.2499;2.6457;
467.4000;0.2548;2.6582;
467.7000;0.2523;2.6457;
468.0000;0.2556;2.6582;
468.3000;0.2515;2.6457;
468.6000;0.2548;2.6557;
468.9000;0.2532;2.6557;
469.2000;0.2548;2.6607;
469.5000;0.2499;2.6532;
469.8000;0.2532;2.6557;
470.1000;0.2548;2.6632;
470.4000;0.2532;2.6532;
470.7000;0.2556;2.6457;
471.0000;0.2540;2.6356;
471.3000;0.2532;2.6381;
471.6000;0.2523;2.6407;
471.9000;0.2532;2.6457;
472.2000;0.2515;2.6482;
472.5000;0.2532;2.6557;
472.8000;0.2499;2.6507;
473.1000;0.2540;2.6607;
473.4000;0.2540;2.6682;
473.7000;0.2515;2.6532;
474.0000;0.2532;2.6632;
474.3000;0.2515;2.6607;
474.6000;0.2507;2.6607;
474.9000;0.2515;2.6582;
475.2000;0.2548;2.6632;
475.5000;0.2499;2.6432;
475.8000;0.2540;2.6557;
476.1000;0.2540;2.6582;
476.4000;0.2507;2.6582;
476.7000;0.2466;2.6482;
477.0000;0.2556;2.6757;
477.3000;0.2532;2.6707;
477.6000;0.2532;2.6707;
477.9000;0.2532;2.6782;
478.2000;0.2532;2.6807;
478.5000;0.2532;2.6757;
478.8000;0.2523;2.6757;
479.1000;0.2613;2.7032;
479.4000;0.2515;2.6807;
479.7000;0.2507;2.6807;
480.0000;0.2589;2.6982;
480.3000;0.2523;2.6757;
480.6000;0.2540;2.6882;
480.9000;0.2540;2.6857;
481.2000;0.2523;2.6807;
481.5000;0.2589;2.6957;
481.8000;0.2499;2.6807;
482.1000;0.2515;2.6832;
482.4000;0.2540;2.6832;
482.7000;0.2515;2.6732;
483.0000;0.2515;2.6732;
483.3000;0.2532;2.6832;
483.6000;0.2540;2.6857;
483.9000;0.2548;2.6882;
484.2000;0.2589;2.6832;
484.5000;0.2564;2.6757;
484.8000;0.2548;2.6732;
485.1000;0.2540;2.6732;
485.4000;0.2523;2.6732;
485.7000;0.2540;2.6857;
486.0000;0.2499;2.6707;
486.3000;0.2523;2.6807;
486.6000;0.2523;2.6807;
486.9000;0.2540;2.6807;
487.2000;0.2548;2.6882;
487.5000;0.2556;2.6882;
487.8000;0.2532;2.6857;
488.1000;0.2532;2.6882;
488.4000;0.2523;2.6807;
488.7000;0.2548;2.6782;
489.0000;0.2515;2.6707;
489.3000;0.2654;2.7082;
489.6000;0.2540;2.6832;
489.9000;0.2523;2.6832;
490.2000;0.2426;2.6507;
490.5000;0.2523;2.6707;
490.8000;0.2532;2.6682;
491.1000;0.2532;2.6707;
491.4000;0.2515;2.6607;
491.7000;0.2515;2.6682;
492.0000;0.2507;2.6682;
492.3000;0.2548;2.6807;
492.6000;0.2540;2.6807;
492.9000;0.2532;2.6757;
493.2000;0.2605;2.6832;
493.5000;0.2564;2.6657;
493.8000;0.2548;2.6657;
494.1000;0.2540;2.6582;
494.4000;0.2507;2.6607;
494.7000;0.2556;2.6832;
495.0000;0.2540;2.6882;
495.3000;0.2540;2.6857;
495.6000;0.2523;2.6807;
495.9000;0.2540;2.6807;
496.2000;0.2515;2.6832;
496.5000;0.2572;2.6882;
496.8000;0.2532;2.6757;
497.1000;0.2532;2.6757;
497.4000;0.2548;2.6682;
497.7000;0.2532;2.6657;
498.0000;0.2523;2.6632;
498.3000;0.2548;2.6732;
498.6000;0.2540;2.6857;
498.9000;0.2532;2.6807;
499.2000;0.2523;2.6782;
499.5000;0.2409;2.6482;
499.8000;0.2548;2.6832;
500.1000;0.2523;2.6707;
500.4000;0.2515;2.6732;
500.7000;0.2523;2.6807;
501.0000;0.2564;2.6957;
501.3000;0.2466;2.6832;
501.6000;0.2523;2.6857;
501.9000;0.2507;2.6807;
502.2000;0.2515;2.6757;
502.5000;0.2532;2.6882;
502.8000;0.2532;2.6857;
503.1000;0.2629;2.7107;
503.4000;0.2548;2.6932;
503.7000;0.2548;2.6857;
504.0000;0.2548;2.6932;
504.3000;0.2564;2.6957;
504.6000;0.2532;2.6807;
504.9000;0.2532;2.6782;
505.2000;0.2548;2.6832;
505.5000;0.2434;2.6532;
505.8000;0.2515;2.6657;
506.1000;0.2540;2.6707;
506.4000;0.2532;2.6807;
506.7000;0.2442;2.6482;
507.0000;0.2540;2.6757;
507.3000;0.2564;2.6757;
507.6000;0.2540;2.6732;
507.9000;0.2548;2.6682;
508.2000;0.2393;2.6381;
508.5000;0.2540;2.6782;
508.8000;0.2556;2.6857;
509.1000;0.2499;2.6707;
509.4000;0.2523;2.6807;
509.7000;0.2532;2.6807;
510.0000;0.2548;2.6757;
510.3000;0.2532;2.6707;
510.6000;0.2532;2.6682;
510.9000;0.2442;2.6482;
511.2000;0.2523;2.6607;
511.5000;0.2556;2.6607;
511.8000;0.2507;2.6532;
512.1000;0.2515;2.6557;
512.4000;0.2523;2.6607;
512.7000;0.2540;2.6682;
513.0000;0.2532;2.6682;
513.3000;0.2475;2.6557;
513.6000;0.2548;2.6782;
513.9000;0.2523;2.6757;
514.2000;0.2532;2.6857;
514.5000;0.2540;2.6882;
514.8000;0.2515;2.6757;
515.1000;0.2532;2.6857;
515.4000;0.2540;2.6857;
515.7000;0.2523;2.6782;
516.0000;0.2523;2.6882;
516.3000;0.2507;2.6932;
516.6000;0.2589;2.7182;
516.9000;0.2515;2.7082;
517.2000;0.2515;2.7032;
517.5000;0.2523;2.7007;
517.8000;0.2540;2.6932;
518.1000;0.2515;2.6882;
518.4000;0.2515;2.6857;
518.7000;0.2548;2.6882;
519.0000;0.2548;2.6857;
519.3000;0.2523;2.6782;
519.6000;0.2499;2.6732;
519.9000;0.2540;2.6857;
520.2000;0.2515;2.6832;
520.5000;0.2556;2.6832;
520.8000;0.2556;2.6807;
521.1000;0.2499;2.6682;
521.4000;0.2523;2.6732;
521.7000;0.2540;2.6807;
522.0000;0.2532;2.6882;
522.3000;0.2523;2.6932;
522.6000;0.2629;2.7132;
522.9000;0.2548;2.6982;
523.2000;0.2523;2.6882;
523.5000;0.2523;2.6932;
523.8000;0.2540;2.6957;
524.1000;0.2540;2.6907;
524.4000;0.2523;2.6832;
524.7000;0.2540;2.6957;
525.0000;0.2523;2.6907;
525.3000;0.2507;2.6932;
525.6000;0.2548;2.7032;
525.9000;0.2523;2.6882;
526.2000;0.2499;2.6857;
526.5000;0.2532;2.6957;
526.8000;0.2523;2.6882;
527.1000;0.2540;2.6932;
527.4000;0.2523;2.6907;
527.7000;0.2523;2.6982;
528.0000;0.2564;2.7057;
528.3000;0.2515;2.6932;
528.6000;0.2483;2.6832;
528.9000;0.2540;2.6957;
529.2000;0.2540;2.7057;
529.5000;0.2499;2.6832;
529.8000;0.2532;2.6882;
530.1000;0.2499;2.6782;
530.4000;0.2532;2.6832;
530.7000;0.2532;2.6807;
531.0000;0.2523;2.6757;
531.3000;0.2475;2.6557;
531.6000;0.2523;2.6607;
531.9000;0.2523;2.6632;
532.2000;0.2491;2.6582;
532.5000;0.2507;2.6607;
532.8000;0.2564;2.6757;
533.1000;0.2523;2.6657;
533.4000;0.2515;2.6532;
533.7000;0.2540;2.6582;
534.0000;0.2540;2.6657;
534.3000;0.2540;2.6707;
534.6000;0.2499;2.6607;
534.9000;0.2515;2.6707;
535.2000;0.2491;2.6532;
535.5000;0.2556;2.6757;
535.8000;0.2515;2.6582;
536.1000;0.2532;2.6657;
536.4000;0.2507;2.6607;
536.7000;0.2442;2.6407;
537.0000;0.2540;2.6682;
537.3000;0.2548;2.6657;
537.6000;0.2491;2.6507;
537.9000;0.2515;2.6582;
538.2000;0.2540;2.6682;
538.5000;0.2507;2.6657;
538.8000;0.2523;2.6807;
539.1000;0.2532;2.6982;
539.4000;0.2515;2.6857;
539.7000;0.2605;2.7057;
540.0000;0.2548;2.6857;
540.3000;0.2515;2.6782;
540.6000;0.2523;2.6732;
540.9000;0.2532;2.6707;
541.2000;0.2491;2.6557;
541.5000;0.2532;2.6707;
541.8000;0.2507;2.6632;
542.1000;0.2523;2.6657;
542.4000;0.2532;2.6557;
542.7000;0.2483;2.6457;
543.0000;0.2556;2.6682;
543.3000;0.2540;2.6682;
543.6000;0.2580;2.6782;
543.9000;0.2499;2.6557;
544.2000;0.2556;2.6682;
544.5000;0.2499;2.6432;
544.8000;0.2540;2.6532;
545.1000;0.2507;2.6582;
545.4000;0.2548;2.6657;
545.7000;0.2507;2.6607;
546.0000;0.2491;2.6557;
546.3000;0.2523;2.6732;
546.6000;0.2532;2.6682;
546.9000;0.2580;2.6757;
547.2000;0.2507;2.6607;
547.5000;0.2499;2.6657;
547.8000;0.2434;2.6532;
548.1000;0.2523;2.6857;
548.4000;0.2491;2.6807;
548.7000;0.2548;2.6932;
549.0000;0.2540;2.6907;
549.3000;0.2556;2.6907;
549.6000;0.2556;2.6932;
549.9000;0.2491;2.6757;
550.2000;0.2646;2.7107;
550.5000;0.2532;2.6632;
550.8000;0.2548;2.6807;
551.1000;0.2646;2.7032;
551.4000;0.2507;2.6682;
551.7000;0.2523;2.6757;
552.0000;0.2532;2.6757;
552.3000;0.2491;2.6632;
552.6000;0.2515;2.6732;
552.9000;0.2540;2.6807;
553.2000;0.2556;2.6907;
553.5000;0.2483;2.6757;
553.8000;0.2597;2.6982;
554.1000;0.2572;2.6907;
554.4000;0.2523;2.6732;
554.7000;0.2532;2.6782;
555.0000;0.2548;2.6757;
555.3000;0.2605;2.6907;
555.6000;0.2548;2.6657;
555.9000;0.2564;2.6757;
556.2000;0.2532;2.6732;
556.5000;0.2532;2.6707;
556.8000;0.2540;2.6732;
557.1000;0.2507;2.6707;
557.4000;0.2540;2.6882;
557.7000;0.2532;2.6907;
558.0000;0.2515;2.6957;
558.3000;0.2523;2.6882;
558.6000;0.2515;2.6757;
558.9000;0.2548;2.6807;
559.2000;0.2515;2.6732;
559.5000;0.2434;2.6507;
559.8000;0.2532;2.6807;
560.1000;0.2564;2.6882;
560.4000;0.2499;2.6807;
560.7000;0.2532;2.6857;
561.0000;0.2523;2.6782;
561.3000;0.2556;2.6857;
561.6000;0.2523;2.6782;
561.9000;0.2540;2.6882;
562.2000;0.2475;2.6657;
562.5000;0.2523;2.6757;
562.8000;0.2540;2.6807;
563.1000;0.2523;2.6807;
563.4000;0.2548;2.6832;
563.7000;0.2523;2.6857;
564.0000;0.2499;2.6782;
564.3000;0.2515;2.6857;
564.6000;0.2523;2.6907;
564.9000;0.2515;2.6882;
565.2000;0.2515;2.6782;
565.5000;0.2442;2.6557;
565.8000;0.2523;2.6757;
566.1000;0.2540;2.6782;
566.4000;0.2556;2.6832;
566.7000;0.2515;2.6732;
567.0000;0.2450;2.6532;
567.3000;0.2564;2.6732;
567.6000;0.2540;2.6732;
567.9000;0.2434;2.6532;
568.2000;0.2532;2.6807;
568.5000;0.2580;2.6932;
568.8000;0.2532;2.6807;
569.1000;0.2532;2.6757;
569.4000;0.2548;2.6832;
569.7000;0.2548;2.6832;
570.0000;0.2548;2.6782;
570.3000;0.2507;2.6657;
570.6000;0.2540;2.6732;
570.9000;0.2499;2.6632;
571.2000;0.2540;2.6757;
571.5000;0.2523;2.6782;
571.8000;0.2491;2.6732;
572.1000;0.2483;2.6732;
572.4000;0.2491;2.6807;
572.7000;0.2540;2.6882;
573.0000;0.2654;2.7132;
573.3000;0.2523;2.6782;
573.6000;0.2580;2.6957;
573.9000;0.2491;2.6707;
574.2000;0.2499;2.6782;
574.5000;0.2507;2.6907;
574.8000;0.2515;2.6832;
575.1000;0.2426;2.6607;
575.4000;0.2532;2.6832;
575.7000;0.2442;2.6607;
576.0000;0.2548;2.6907;
576.3000;0.2532;2.6882;
576.6000;0.2523;2.6882;
576.9000;0.2507;2.6832;
577.2000;0.2515;2.6807;
577.5000;0.2515;2.6757;
577.8000;0.2507;2.6682;
578.1000;0.2499;2.6707;
578.4000;0.2532;2.6732;
578.7000;0.2532;2.6732;
579.0000;0.2540;2.6782;
579.3000;0.2564;2.6857;
579.6000;0.2499;2.6757;
579.9000;0.2499;2.6732;
580.2000;0.2523;2.6782;
580.5000;0.2523;2.6832;
580.8000;0.2572;2.6832;
581.1000;0.2605;2.6957;
581.4000;0.2532;2.6707;
581.7000;0.2523;2.6682;
582.0000;0.2507;2.6632;
582.3000;0.2556;2.6732;
582.6000;0.2532;2.6657;
582.9000;0.2515;2.6657;
583.2000;0.2523;2.6732;
583.5000;0.2450;2.6407;
583.8000;0.2540;2.6807;
584.1000;0.2515;2.6682;
584.4000;0.2540;2.6707;
584.7000;0.2507;2.6532;
585.0000;0.2540;2.6607;
585.3000;0.2523;2.6582;
585.6000;0.2507;2.6482;
585.9000;0.2507;2.6507;
586.2000;0.2637;2.6907;
586.5000;0.2580;2.6757;
586.8000;0.2532;2.6532;
587.1000;0.2491;2.6432;
587.4000;0.2532;2.6607;
587.7000;0.2515;2.6482;
588.0000;0.2523;2.6532;
588.3000;0.2532;2.6632;
588.6000;0.2523;2.6707;
588.9000;0.2605;2.6807;
589.2000;0.2540;2.6782;
589.5000;0.2499;2.6632;
589.8000;0.2548;2.6732;
590.1000;0.2548;2.6707;
590.4000;0.2532;2.6632;
590.7000;0.2572;2.6757;
591.0000;0.2523;2.6557;
591.3000;0.2597;2.6757;
591.6000;0.2548;2.6682;
591.9000;0.2540;2.6632;
592.2000;0.2523;2.6532;
592.5000;0.2491;2.6407;
592.8000;0.2523;2.6607;
593.1000;0.2523;2.6582;
593.4000;0.2540;2.6532;
593.7000;0.2523;2.6582;
594.0000;0.2548;2.6707;
594.3000;0.2621;2.6932;
594.6000;0.2523;2.6682;
594.9000;0.2483;2.6532;
595.2000;0.2564;2.6682;
595.5000;0.2548;2.6707;
595.8000;0.2491;2.6582;
596.1000;0.2523;2.6707;
596.4000;0.2523;2.6707;
596.7000;0.2515;2.6757;
597.0000;0.2564;2.6957;
597.3000;0.2532;2.6907;
597.6000;0.2532;2.6882;
597.9000;0.2515;2.6832;
598.2000;0.2434;2.6457;
598.5000;0.2548;2.6757;
598.8000;0.2540;2.6682;
599.1000;0.2434;2.6381;
599.4000;0.2523;2.6507;
599.7000;0.2499;2.6532;
600.0000;0.2499;2.6582;
600.3000;0.2523;2.6682;
600.6000;0.2564;2.6732;
600.9000;0.2507;2.6457;
601.2000;0.2450;2.6181;
601.5000;0.2499;2.6231;
601.8000;0.2507;2.6031;
602.1000;0.2466;2.5781;
602.4000;0.2515;2.5881;
602.7000;0.2548;2.5881;
603.0000;0.2450;2.5405;
603.3000;0.2580;2.5631;
603.6000;0.2369;2.4855;
603.9000;0.2491;2.5155;
604.2000;0.2491;2.5105;
604.5000;0.2499;2.4980;
604.8000;0.2475;2.4880;
605.1000;0.2466;2.4855;
605.4000;0.2499;2.4855;
605.7000;0.2499;2.4830;
606.0000;0.2483;2.4679;
606.3000;0.2507;2.4830;
606.6000;0.2580;2.5005;
606.9000;0.2458;2.4529;
607.2000;0.2434;2.4479;
607.5000;0.2458;2.4529;
607.8000;0.2458;2.4504;
608.1000;0.2466;2.4554;
608.4000;0.2499;2.4529;
608.7000;0.2442;2.4454;
609.0000;0.2458;2.4529;
609.3000;0.2483;2.4429;
609.6000;0.2491;2.4454;
609.9000;0.2434;2.4379;
610.2000;0.2401;2.4279;
610.5000;0.2450;2.4329;
610.8000;0.2475;2.4454;
611.1000;0.2458;2.4354;
611.4000;0.2450;2.4379;
611.7000;0.2442;2.4279;
612.0000;0.2466;2.4329;
612.3000;0.2434;2.4129;
612.6000;0.2499;2.4329;
612.9000;0.2450;2.4179;
613.2000;0.2532;2.4354;
613.5000;0.2401;2.3929;
613.8000;0.2450;2.4029;
614.1000;0.2442;2.3979;
614.4000;0.2466;2.4029;
614.7000;0.2458;2.4004;
615.0000;0.2475;2.4104;
615.3000;0.2450;2.4054;
615.6000;0.2442;2.4254;
615.9000;0.2320;2.3954;
616.2000;0.2450;2.4329;
616.5000;0.2434;2.4329;
616.8000;0.2466;2.4379;
617.1000;0.2466;2.4329;
617.4000;0.2458;2.4254;
617.7000;0.2483;2.4354;
618.0000;0.2409;2.4179;
618.3000;0.2483;2.4379;
618.6000;0.2450;2.4279;
618.9000;0.2475;2.4329;
619.2000;0.2442;2.4279;
619.5000;0.2458;2.4354;
619.8000;0.2475;2.4379;
620.1000;0.2475;2.4404;
620.4000;0.2458;2.4379;
620.7000;0.2450;2.4504;
621.0000;0.2442;2.4404;
621.3000;0.2548;2.4604;
621.6000;0.2597;2.4755;
621.9000;0.2450;2.4354;
622.2000;0.2475;2.4254;
622.5000;0.2434;2.4129;
622.8000;0.2401;2.4129;
623.1000;0.2458;2.4329;
623.4000;0.2442;2.4354;
623.7000;0.2475;2.4404;
624.0000;0.2393;2.4329;
624.3000;0.2466;2.4504;
624.6000;0.2442;2.4429;
624.9000;0.2450;2.4379;
625.2000;0.2377;2.4179;
625.5000;0.2458;2.4454;
625.8000;0.2458;2.4454;
626.1000;0.2483;2.4404;
626.4000;0.2458;2.4379;
626.7000;0.2393;2.4154;
627.0000;0.2450;2.4354;
627.3000;0.2442;2.4354;
627.6000;0.2458;2.4329;
627.9000;0.2434;2.4204;
628.2000;0.2458;2.4254;
628.5000;0.2491;2.4379;
628.8000;0.2499;2.4379;
629.1000;0.2312;2.3853;
629.4000;0.2466;2.4254;
629.7000;0.2548;2.4454;
630.0000;0.2442;2.4179;
630.3000;0.2450;2.4104;
630.6000;0.2507;2.4229;
630.9000;0.2442;2.4154;
631.2000;0.2426;2.4079;
631.5000;0.2458;2.4129;
631.8000;0.2466;2.4129;
632.1000;0.2434;2.4154;
632.4000;0.2507;2.4454;
632.7000;0.2418;2.4254;
633.0000;0.2458;2.4304;
633.3000;0.2475;2.4379;
633.6000;0.2548;2.4654;
633.9000;0.2458;2.4354;
634.2000;0.2434;2.4179;
634.5000;0.2426;2.4004;
634.8000;0.2458;2.4004;
635.1000;0.2458;2.4104;
635.4000;0.2434;2.4054;
635.7000;0.2458;2.4179;
636.0000;0.2466;2.4229;
636.3000;0.2458;2.4304;
636.6000;0.2483;2.4304;
636.9000;0.2426;2.4129;
637.2000;0.2450;2.4254;
637.5000;0.2458;2.4304;
637.8000;0.2426;2.4129;
638.1000;0.2458;2.4204;
638.4000;0.2515;2.4479;
638.7000;0.2466;2.4279;
639.0000;0.2434;2.4204;
639.3000;0.2409;2.4129;
639.6000;0.2434;2.4229;
639.9000;0.2466;2.4204;
640.2000;0.2426;2.4129;
640.5000;0.2377;2.4054;
640.8000;0.2450;2.4154;
641.1000;0.2458;2.4204;
641.4000;0.2475;2.4204;
641.7000;0.2515;2.4279;
642.0000;0.2466;2.4154;
642.3000;0.2458;2.4154;
642.6000;0.2475;2.4204;
642.9000;0.2434;2.4179;
643.2000;0.2418;2.4129;
643.5000;0.2458;2.4304;
643.8000;0.2377;2.4054;
644.1000;0.2442;2.4204;
644.4000;0.2475;2.4404;
644.7000;0.2434;2.4279;
645.0000;0.2466;2.4304;
645.3000;0.2548;2.4529;
645.6000;0.2458;2.4254;
645.9000;0.2540;2.4529;
646.2000;0.2393;2.4029;
646.5000;0.2434;2.4154;
646.8000;0.2450;2.4279;
647.1000;0.2458;2.4354;
647.4000;0.2442;2.4279;
647.7000;0.2434;2.4329;
648.0000;0.2418;2.4354;
648.3000;0.2434;2.4354;
648.6000;0.2450;2.4254;
648.9000;0.2466;2.4329;
649.2000;0.2450;2.4304;
649.5000;0.2475;2.4254;
649.8000;0.2466;2.4354;
650.1000;0.2483;2.4429;
650.4000;0.2458;2.4329;
650.7000;0.2450;2.4354;
651.0000;0.2466;2.4404;
651.3000;0.2450;2.4379;
651.6000;0.2466;2.4379;
651.9000;0.2466;2.4329;
652.2000;0.2458;2.4279;
652.5000;0.2483;2.4429;
652.8000;0.2458;2.4379;
653.1000;0.2458;2.4354;
653.4000;0.2434;2.4329;
653.7000;0.2458;2.4454;
654.0000;0.2458;2.4454;
654.3000;0.2466;2.4404;
654.6000;0.2434;2.4329;
654.9000;0.2450;2.4304;
655.2000;0.2442;2.4204;
655.5000;0.2458;2.4279;
655.8000;0.2491;2.4404;
656.1000;0.2450;2.4304;
656.4000;0.2377;2.4104;
656.7000;0.2442;2.4304;
657.0000;0.2466;2.4404;
657.3000;0.2491;2.4529;
657.6000;0.2434;2.4354;
657.9000;0.2475;2.4454;
658.2000;0.2434;2.4229;
658.5000;0.2475;2.4304;
658.8000;0.2475;2.4229;
659.1000;0.2483;2.4229;
659.4000;0.2483;2.4204;
659.7000;0.2434;2.4129;
660.0000;0.2450;2.4129;
660.3000;0.2426;2.4154;
660.6000;0.2466;2.4204;
660.9000;0.2466;2.4254;
661.2000;0.2442;2.4129;
661.5000;0.2409;2.4079;
661.8000;0.2377;2.4029;
662.1000;0.2483;2.4279;
662.4000;0.2393;2.4054;
662.7000;0.2401;2.3954;
663.0000;0.2344;2.3778;
663.3000;0.2409;2.3979;
663.6000;0.2564;2.4554;
663.9000;0.2466;2.4279;
664.2000;0.2475;2.4354;
664.5000;0.2507;2.4429;
664.8000;0.2466;2.4279;
665.1000;0.2483;2.4279;
665.4000;0.2458;2.4379;
665.7000;0.2442;2.4279;
666.0000;0.2491;2.4404;
666.3000;0.2450;2.4254;
666.6000;0.2369;2.3979;
666.9000;0.2442;2.4204;
667.2000;0.2385;2.4029;
667.5000;0.2434;2.4279;
667.8000;0.2418;2.4179;
668.1000;0.2499;2.4354;
668.4000;0.2450;2.4254;
668.7000;0.2442;2.4279;
669.0000;0.2475;2.4304;
669.3000;0.2450;2.4279;
669.6000;0.2491;2.4329;
669.9000;0.2377;2.4004;
670.2000;0.2466;2.4229;
670.5000;0.2442;2.4204;
670.8000;0.2450;2.4254;
671.1000;0.2466;2.4404;
671.4000;0.2466;2.4304;
671.7000;0.2475;2.4304;
672.0000;0.2377;2.4054;
672.3000;0.2442;2.4204;
672.6000;0.2442;2.4229;
672.9000;0.2426;2.4204;
673.2000;0.2458;2.4304;
673.5000;0.2442;2.4354;
673.8000;0.2458;2.4279;
674.1000;0.2393;2.4054;
674.4000;0.2409;2.4104;
674.7000;0.2483;2.4179;
675.0000;0.2458;2.4154;
675.3000;0.2483;2.4179;
675.6000;0.2450;2.4179;
675.9000;0.2434;2.4129;
676.2000;0.2442;2.4179;
676.5000;0.2523;2.4329;
676.8000;0.2483;2.4254;
677.1000;0.2458;2.4179;
677.4000;0.2458;2.4129;
677.7000;0.2450;2.4204;
678.0000;0.2466;2.4204;
678.3000;0.2401;2.4054;
678.6000;0.2369;2.3879;
678.9000;0.2442;2.3979;
679.2000;0.2450;2.3929;
679.5000;0.2426;2.3929;
679.8000;0.2450;2.4029;
680.1000;0.2458;2.4079;
680.4000;0.2377;2.3879;
680.7000;0.2499;2.4204;
681.0000;0.2434;2.4079;
681.3000;0.2483;2.4204;
681.6000;0.2434;2.4029;
681.9000;0.2475;2.4079;
682.2000;0.2450;2.3929;
682.5000;0.2434;2.3929;
682.8000;0.2418;2.3853;
683.1000;0.2458;2.3979;
683.4000;0.2442;2.3954;
683.7000;0.2442;2.3979;
684.0000;0.2523;2.4229;
684.3000;0.2499;2.4129;
684.6000;0.2442;2.3954;
684.9000;0.2393;2.3753;
685.2000;0.2450;2.3929;
685.5000;0.2434;2.3853;
685.8000;0.2393;2.3728;
686.1000;0.2458;2.3929;
686.4000;0.2523;2.4104;
686.7000;0.2515;2.4129;
687.0000;0.2466;2.4029;
687.3000;0.2450;2.3979;
687.6000;0.2589;2.4304;
687.9000;0.2442;2.3979;
688.2000;0.2466;2.4079;
688.5000;0.2466;2.4079;
688.8000;0.2483;2.4129;
689.1000;0.2434;2.4004;
689.4000;0.2466;2.4079;
689.7000;0.2466;2.4029;
690.0000;0.2466;2.3954;
690.3000;0.2450;2.3929;
690.6000;0.2483;2.3954;
690.9000;0.2409;2.3753;
691.2000;0.2466;2.3979;
691.5000;0.2458;2.3979;
691.8000;0.2458;2.3954;
692.1000;0.2458;2.3929;
692.4000;0.2434;2.3904;
692.7000;0.2450;2.3929;
693.0000;0.2491;2.4154;
693.3000;0.2426;2.3954;
693.6000;0.2483;2.3954;
693.9000;0.2434;2.3728;
694.2000;0.2548;2.4029;
694.5000;0.2466;2.3954;
694.8000;0.2434;2.3979;
695.1000;0.2352;2.3753;
695.4000;0.2491;2.4029;
695.7000;0.2483;2.4029;
696.0000;0.2458;2.4054;
696.3000;0.2483;2.4079;
696.6000;0.2458;2.3929;
696.9000;0.2458;2.3929;
697.2000;0.2523;2.4054;
697.5000;0.2499;2.3929;
697.8000;0.2401;2.3628;
698.1000;0.2499;2.3904;
698.4000;0.2483;2.3753;
698.7000;0.2434;2.3628;
699.0000;0.2369;2.3428;
699.3000;0.2532;2.3954;
699.6000;0.2491;2.3879;
699.9000;0.2507;2.4029;
700.2000;0.2442;2.3904;
700.5000;0.2442;2.4029;
700.8000;0.2450;2.4079;
701.1000;0.2434;2.4054;
701.4000;0.2442;2.4029;
701.7000;0.2475;2.4229;
702.0000;0.2458;2.4179;
702.3000;0.2499;2.4279;
702.6000;0.2369;2.3954;
702.9000;0.2466;2.4179;
703.2000;0.2523;2.4429;
703.5000;0.2401;2.4079;
703.8000;0.2475;2.4179;
704.1000;0.2434;2.4204;
704.4000;0.2475;2.4304;
704.7000;0.2475;2.4254;
705.0000;0.2556;2.4404;
705.3000;0.2450;2.4029;
705.6000;0.2401;2.3828;
705.9000;0.2483;2.4029;
706.2000;0.2450;2.3879;
706.5000;0.2466;2.3904;
706.8000;0.2466;2.3979;
707.1000;0.2483;2.4029;
707.4000;0.2442;2.3979;
707.7000;0.2458;2.4029;
708.0000;0.2442;2.4054;
708.3000;0.2458;2.4079;
708.6000;0.2466;2.4079;
708.9000;0.2466;2.4129;
709.2000;0.2483;2.4179;
709.5000;0.2475;2.4129;
709.8000;0.2475;2.4054;
710.1000;0.2475;2.4129;
710.4000;0.2483;2.4129;
710.7000;0.2491;2.4054;
711.0000;0.2450;2.3904;
711.3000;0.2434;2.3879;
711.6000;0.2418;2.3853;
711.9000;0.2450;2.3979;
712.2000;0.2475;2.3929;
712.5000;0.2491;2.3979;
712.8000;0.2466;2.4029;
713.1000;0.2450;2.4004;
713.4000;0.2475;2.4079;
713.7000;0.2450;2.4029;
714.0000;0.2458;2.4079;
714.3000;0.2401;2.3853;
714.6000;0.2458;2.4054;
714.9000;0.2385;2.3904;
715.2000;0.2458;2.4204;
715.5000;0.2475;2.4279;
715.8000;0.2475;2.4204;
716.1000;0.2491;2.4154;
716.4000;0.2458;2.3904;
716.7000;0.2426;2.3803;
717.0000;0.2466;2.3879;
717.3000;0.2426;2.3828;
717.6000;0.2475;2.3904;
717.9000;0.2450;2.3753;
718.2000;0.2352;2.3528;
718.5000;0.2458;2.3778;
718.8000;0.2434;2.3778;
719.1000;0.2458;2.3929;
719.4000;0.2442;2.3879;
719.7000;0.2442;2.3853;
720.0000;0.2450;2.3879;
720.3000;0.2458;2.3954;
720.6000;0.2466;2.3929;
720.9000;0.2369;2.3628;
721.2000;0.2426;2.3904;
721.5000;0.2475;2.4054;
721.8000;0.2540;2.4204;
722.1000;0.2532;2.4254;
722.4000;0.2466;2.4129;
722.7000;0.2475;2.4104;
723.0000;0.2466;2.4054;
723.3000;0.2442;2.3954;
723.6000;0.2458;2.3954;
723.9000;0.2491;2.3979;
724.2000;0.2442;2.3828;
724.5000;0.2418;2.3678;
724.8000;0.2393;2.3628;
725.1000;0.2385;2.3703;
725.4000;0.2466;2.3954;
725.7000;0.2458;2.3979;
726.0000;0.2466;2.3879;
726.3000;0.2401;2.3753;
726.6000;0.2483;2.4029;
726.9000;0.2352;2.3828;
727.2000;0.2466;2.4054;
727.5000;0.2475;2.4029;
727.8000;0.2442;2.3879;
728.1000;0.2450;2.3904;
728.4000;0.2499;2.3954;
728.7000;0.2377;2.3728;
729.0000;0.2442;2.3879;
729.3000;0.2483;2.4004;
729.6000;0.2450;2.3954;
729.9000;0.2434;2.3929;
730.2000;0.2450;2.3929;
730.5000;0.2442;2.3778;
730.8000;0.2483;2.3803;
731.1000;0.2475;2.3778;
731.4000;0.2434;2.3803;
731.7000;0.2450;2.3879;
732.0000;0.2450;2.3853;
732.3000;0.2450;2.3828;
732.6000;0.2475;2.3778;
732.9000;0.2458;2.3879;
733.2000;0.2450;2.3954;
733.5000;0.2426;2.3879;
733.8000;0.2450;2.3828;
734.1000;0.2458;2.3853;
734.4000;0.2466;2.3753;
734.7000;0.2466;2.3828;
735.0000;0.2475;2.3904;
735.3000;0.2475;2.3904;
735.6000;0.2466;2.3904;
735.9000;0.2450;2.3828;
736.2000;0.2377;2.3578;
736.5000;0.2466;2.3853;
736.8000;0.2483;2.3904;
737.1000;0.2418;2.3753;
737.4000;0.2475;2.3828;
737.7000;0.2475;2.3828;
738.0000;0.2580;2.4054;
738.3000;0.2483;2.3929;
738.6000;0.2466;2.3879;
738.9000;0.2450;2.3803;
739.2000;0.2401;2.3628;
739.5000;0.2466;2.3803;
739.8000;0.2483;2.3853;
740.1000;0.2450;2.3703;
740.4000;0.2483;2.3728;
740.7000;0.2564;2.3853;
741.0000;0.2458;2.3628;
741.3000;0.2491;2.3778;
741.6000;0.2475;2.3728;
741.9000;0.2458;2.3678;
742.2000;0.2458;2.3628;
742.5000;0.2466;2.3753;
742.8000;0.2466;2.3728;
743.1000;0.2450;2.3728;
743.4000;0.2466;2.3803;
743.7000;0.2442;2.3778;
744.0000;0.2556;2.4129;
744.3000;0.2475;2.3954;
744.6000;0.2475;2.3979;
744.9000;0.2491;2.4054;
745.2000;0.2458;2.3929;
745.5000;0.2475;2.4004;
745.8000;0.2532;2.4154;
746.1000;0.2458;2.3954;
746.4000;0.2458;2.3979;
746.7000;0.2475;2.3979;
747.0000;0.2483;2.4029;
747.3000;0.2466;2.4029;
747.6000;0.2450;2.3979;
747.9000;0.2466;2.4029;
748.2000;0.2466;2.4054;
748.5000;0.2450;2.3979;
748.8000;0.2466;2.4104;
749.1000;0.2491;2.4154;
749.4000;0.2450;2.4029;
749.7000;0.2377;2.3879;
750.0000;0.2483;2.4104;
750.3000;0.2352;2.3603;
750.6000;0.2483;2.3904;
750.9000;0.2466;2.3778;
751.2000;0.2450;2.3778;
751.5000;0.2483;2.3904;
751.8000;0.2458;2.3853;
752.1000;0.2450;2.3828;
752.4000;0.2475;2.3828;
752.7000;0.2475;2.3853;
753.0000;0.2466;2.3879;
753.3000;0.2475;2.3929;
753.6000;0.2418;2.3753;
753.9000;0.2434;2.3853;
754.2000;0.2475;2.3929;
754.5000;0.2361;2.3653;
754.8000;0.2483;2.3954;
755.1000;0.2491;2.4154;
755.4000;0.2572;2.4504;
755.7000;0.2564;2.4354;
756.0000;0.2304;2.3678;
756.3000;0.2475;2.4129;
756.6000;0.2466;2.4104;
756.9000;0.2499;2.4204;
757.2000;0.2442;2.3929;
757.5000;0.2434;2.3979;
757.8000;0.2450;2.4054;
758.1000;0.2466;2.4154;
758.4000;0.2491;2.4179;
758.7000;0.2458;2.4079;
759.0000;0.2499;2.4229;
759.3000;0.2475;2.4179;
759.6000;0.2475;2.4104;
759.9000;0.2466;2.4029;
760.2000;0.2621;2.4479;
760.5000;0.2450;2.3904;
760.8000;0.2466;2.3979;
761.1000;0.2532;2.4029;
761.4000;0.2523;2.3879;
761.7000;0.2466;2.3803;
762.0000;0.2434;2.3678;
762.3000;0.2377;2.3628;
762.6000;0.2475;2.3778;
762.9000;0.2466;2.3828;
763.2000;0.2564;2.4254;
763.5000;0.2466;2.3954;
763.8000;0.2491;2.4004;
764.1000;0.2475;2.4029;
764.4000;0.2483;2.4054;
764.7000;0.2466;2.4029;
765.0000;0.2450;2.4004;
765.3000;0.2466;2.4029;
765.6000;0.2442;2.4054;
765.9000;0.2450;2.4079;
766.2000;0.2442;2.4104;
766.5000;0.2458;2.4179;
766.8000;0.2450;2.4104;
767.1000;0.2466;2.3979;
767.4000;0.2434;2.3828;
767.7000;0.2426;2.3778;
768.0000;0.2491;2.3853;
768.3000;0.2458;2.3879;
768.6000;0.2450;2.3954;
768.9000;0.2450;2.3929;
769.2000;0.2458;2.3904;
769.5000;0.2499;2.4104;
769.8000;0.2483;2.4054;
770.1000;0.2483;2.4054;
770.4000;0.2572;2.4354;
770.7000;0.2377;2.3778;
771.0000;0.2450;2.4029;
771.3000;0.2564;2.4379;
771.6000;0.2532;2.4279;
771.9000;0.2434;2.4079;
772.2000;0.2458;2.4179;
772.5000;0.2466;2.4229;
772.8000;0.2466;2.4154;
773.1000;0.2483;2.4204;
773.4000;0.2426;2.4104;
773.7000;0.2450;2.4204;
774.0000;0.2426;2.4104;
774.3000;0.2426;2.4129;
774.6000;0.2483;2.4229;
774.9000;0.2475;2.4204;
775.2000;0.2442;2.4179;
775.5000;0.2466;2.4254;
775.8000;0.2442;2.4279;
776.1000;0.2458;2.4404;
776.4000;0.2466;2.4354;
776.7000;0.2458;2.4304;
777.0000;0.2483;2.4229;
777.3000;0.2434;2.4104;
777.6000;0.2523;2.4329;
777.9000;0.2458;2.4129;
778.2000;0.2475;2.4129;
778.5000;0.2540;2.4279;
778.8000;0.2409;2.4029;
779.1000;0.2458;2.4154;
779.4000;0.2523;2.4404;
779.7000;0.2475;2.4304;
780.0000;0.2442;2.4279;
780.3000;0.2499;2.4404;
780.6000;0.2589;2.4629;
780.9000;0.2450;2.4179;
781.2000;0.2466;2.4129;
781.5000;0.2475;2.4129;
781.8000;0.2434;2.4054;
782.1000;0.2450;2.4054;
782.4000;0.2442;2.3929;
782.7000;0.2466;2.3954;
783.0000;0.2442;2.3828;
783.3000;0.2458;2.3879;
783.6000;0.2499;2.3879;
783.9000;0.2491;2.3954;
784.2000;0.2434;2.3803;
784.5000;0.2491;2.4104;
784.8000;0.2532;2.4304;
785.1000;0.2466;2.4129;
785.4000;0.2475;2.4204;
785.7000;0.2401;2.3954;
786.0000;0.2548;2.4354;
786.3000;0.2475;2.4154;
786.6000;0.2491;2.4129;
786.9000;0.2434;2.3954;
787.2000;0.2401;2.3828;
787.5000;0.2466;2.4079;
787.8000;0.2589;2.4404;
788.1000;0.2548;2.4229;
788.4000;0.2475;2.4004;
788.7000;0.2466;2.4179;
789.0000;0.2466;2.4179;
789.3000;0.2483;2.4204;
789.6000;0.2499;2.4204;
789.9000;0.2466;2.4079;
790.2000;0.2466;2.4154;
790.5000;0.2483;2.4304;
790.8000;0.2458;2.4204;
791.1000;0.2475;2.4254;
791.4000;0.2483;2.4204;
791.7000;0.2458;2.4054;
792.0000;0.2491;2.4179;
792.3000;0.2426;2.4054;
792.6000;0.2491;2.4129;
792.9000;0.2426;2.4029;
793.2000;0.2466;2.4104;
793.5000;0.2458;2.4079;
793.8000;0.2426;2.3929;
794.1000;0.2475;2.4029;
794.4000;0.2458;2.4104;
794.7000;0.2458;2.4179;
795.0000;0.2499;2.4329;
795.3000;0.2336;2.3979;
795.6000;0.2434;2.4229;
795.9000;0.2475;2.4329;
796.2000;0.2328;2.3904;
796.5000;0.2466;2.4279;
796.8000;0.2442;2.4229;
797.1000;0.2556;2.4454;
797.4000;0.2377;2.4029;
797.7000;0.2458;2.4229;
798.0000;0.2483;2.4304;
798.3000;0.2515;2.4379;
798.6000;0.2466;2.4104;
798.9000;0.2483;2.4104;
799.2000;0.2442;2.3979;
799.5000;0.2450;2.4079;
799.8000;0.2483;2.4154;
800.1000;0.2499;2.4279;
800.4000;0.2475;2.4229;
800.7000;0.2475;2.4229;
801.0000;0.2450;2.4129;
801.3000;0.2434;2.4054;
801.6000;0.2458;2.4154;
801.9000;0.2458;2.4104;
802.2000;0.2475;2.4229;
802.5000;0.2458;2.4154;
802.8000;0.2475;2.4179;
803.1000;0.2466;2.4154;
803.4000;0.2466;2.4154;
803.7000;0.2499;2.4254;
804.0000;0.2475;2.4204;
804.3000;0.2532;2.4279;
804.6000;0.2491;2.4104;
804.9000;0.2450;2.4004;
805.2000;0.2385;2.3853;
805.5000;0.2450;2.4129;
805.8000;0.2466;2.4129;
806.1000;0.2401;2.3929;
806.4000;0.2499;2.4154;
806.7000;0.2475;2.4129;
807.0000;0.2393;2.3904;
807.3000;0.2458;2.4154;
807.6000;0.2466;2.4254;
807.9000;0.2475;2.4329;
808.2000;0.2450;2.4204;
808.5000;0.2491;2.4279;
808.8000;0.2458;2.4154;
809.1000;0.2507;2.4329;
809.4000;0.2475;2.4279;
809.7000;0.2475;2.4229;
810.0000;0.2475;2.4229;
810.3000;0.2475;2.4254;
810.6000;0.2458;2.4204;
810.9000;0.2491;2.4204;
811.2000;0.2458;2.4154;
811.5000;0.2483;2.4229;
811.8000;0.2434;2.4129;
812.1000;0.2556;2.4404;
812.4000;0.2483;2.4254;
812.7000;0.2466;2.4229;
813.0000;0.2466;2.4154;
813.3000;0.2409;2.4004;
813.6000;0.2442;2.4104;
813.9000;0.2458;2.4079;
814.2000;0.2458;2.4054;
814.5000;0.2475;2.4004;
814.8000;0.2401;2.3904;
815.1000;0.2475;2.4179;
815.4000;0.2450;2.4204;
815.7000;0.2418;2.4154;
816.0000;0.2483;2.4329;
816.3000;0.2458;2.4279;
816.6000;0.2426;2.4204;
816.9000;0.2442;2.4254;
817.2000;0.2458;2.4229;
817.5000;0.2442;2.4229;
817.8000;0.2507;2.4404;
818.1000;0.2475;2.4229;
818.4000;0.2532;2.4429;
818.7000;0.2466;2.4304;
819.0000;0.2418;2.4154;
819.3000;0.2450;2.4179;
819.6000;0.2507;2.4304;
819.9000;0.2475;2.4229;
820.2000;0.2523;2.4304;
820.5000;0.2466;2.4229;
820.8000;0.2377;2.4054;
821.1000;0.2458;2.4179;
821.4000;0.2466;2.4229;
821.7000;0.2458;2.4179;
822.0000;0.2442;2.4179;
822.3000;0.2475;2.4229;
822.6000;0.2418;2.4079;
822.9000;0.2458;2.4204;
823.2000;0.2434;2.4154;
823.5000;0.2483;2.4179;
823.8000;0.2466;2.4179;
824.1000;0.2483;2.4254;
824.4000;0.2475;2.4229;
824.7000;0.2466;2.4279;
825.0000;0.2458;2.4204;
825.3000;0.2483;2.4354;
825.6000;0.2466;2.4279;
825.9000;0.2475;2.4204;
826.2000;0.2434;2.4129;
826.5000;0.2475;2.4304;
826.8000;0.2418;2.4054;
827.1000;0.2442;2.4104;
827.4000;0.2434;2.4079;
827.7000;0.2458;2.4154;
828.0000;0.2458;2.4279;
828.3000;0.2458;2.4304;
828.6000;0.2442;2.4229;
828.9000;0.2450;2.4279;
829.2000;0.2475;2.4279;
829.5000;0.2523;2.4379;
829.8000;0.2450;2.4129;
830.1000;0.2483;2.4204;
830.4000;0.2475;2.4154;
830.7000;0.2475;2.4254;
831.0000;0.2466;2.4179;
831.3000;0.2475;2.4129;
831.6000;0.2556;2.4379;
831.9000;0.2491;2.4154;
832.2000;0.2466;2.4129;
832.5000;0.2483;2.4179;
832.8000;0.2401;2.3929;
833.1000;0.2458;2.4104;
833.4000;0.2458;2.4054;
833.7000;0.2450;2.4029;
834.0000;0.2458;2.4029;
834.3000;0.2450;2.4029;
834.6000;0.2458;2.4079;
834.9000;0.2466;2.4054;
835.2000;0.2458;2.4079;
835.5000;0.2466;2.4104;
835.8000;0.2475;2.4179;
836.1000;0.2450;2.4104;
836.4000;0.2458;2.4079;
836.7000;0.2483;2.4179;
837.0000;0.2483;2.4229;
837.3000;0.2385;2.4054;
837.6000;0.2418;2.4104;
837.9000;0.2507;2.4229;
838.2000;0.2434;2.4104;
838.5000;0.2458;2.4129;
838.8000;0.2483;2.4204;
839.1000;0.2458;2.4229;
839.4000;0.2483;2.4304;
839.7000;0.2352;2.3954;
840.0000;0.2458;2.4229;
840.3000;0.2466;2.4304;
840.6000;0.2466;2.4254;
840.9000;0.2458;2.4179;
841.2000;0.2450;2.4129;
841.5000;0.2466;2.4179;
841.8000;0.2458;2.4054;
842.1000;0.2466;2.4129;
842.4000;0.2466;2.4104;
842.7000;0.2483;2.4229;
843.0000;0.2491;2.4254;
843.3000;0.2466;2.4179;
843.6000;0.2458;2.4254;
843.9000;0.2458;2.4254;
844.2000;0.2442;2.4329;
844.5000;0.2466;2.4454;
844.8000;0.2458;2.4379;
845.1000;0.2491;2.4579;
845.4000;0.2483;2.4529;
845.7000;0.2572;2.4679;
846.0000;0.2450;2.4329;
846.3000;0.2458;2.4404;
846.6000;0.2483;2.4379;
846.9000;0.2556;2.4504;
847.2000;0.2466;2.4204;
847.5000;0.2466;2.4304;
847.8000;0.2466;2.4279;
848.1000;0.2475;2.4229;
848.4000;0.2483;2.4154;
848.7000;0.2540;2.4279;
849.0000;0.2287;2.3678;
849.3000;0.2491;2.4179;
849.6000;0.2442;2.4029;
849.9000;0.2483;2.4104;
850.2000;0.2475;2.4054;
850.5000;0.2450;2.3979;
850.8000;0.2385;2.3753;
851.1000;0.2483;2.4029;
851.4000;0.2466;2.4004;
851.7000;0.2458;2.4029;
852.0000;0.2499;2.4079;
852.3000;0.2458;2.3904;
852.6000;0.2532;2.4129;
852.9000;0.2450;2.3929;
853.2000;0.2352;2.3728;
853.5000;0.2450;2.3979;
853.8000;0.2483;2.4129;
854.1000;0.2450;2.4079;
854.4000;0.2450;2.4054;
854.7000;0.2475;2.4154;
855.0000;0.2466;2.4054;
855.3000;0.2475;2.4104;
855.6000;0.2491;2.4004;
855.9000;0.2450;2.3979;
856.2000;0.2304;2.3528;
856.5000;0.2548;2.4104;
856.8000;0.2466;2.3954;
857.1000;0.2491;2.4004;
857.4000;0.2491;2.3979;
857.7000;0.2458;2.3904;
858.0000;0.2458;2.3904;
858.3000;0.2466;2.3904;
858.6000;0.2475;2.3904;
858.9000;0.2442;2.3803;
859.2000;0.2458;2.3828;
859.5000;0.2442;2.3778;
859.8000;0.2466;2.3879;
860.1000;0.2466;2.3904;
860.4000;0.2450;2.3879;
860.7000;0.2483;2.4004;
861.0000;0.2499;2.3954;
861.3000;0.2450;2.3753;
861.6000;0.2475;2.3853;
861.9000;0.2466;2.3853;
862.2000;0.2434;2.3853;
862.5000;0.2499;2.3929;
862.8000;0.2466;2.3853;
863.1000;0.2442;2.3778;
863.4000;0.2377;2.3678;
863.7000;0.2483;2.3904;
864.0000;0.2475;2.3929;
864.3000;0.2450;2.3879;
864.6000;0.2466;2.3879;
864.9000;0.2483;2.3954;
865.2000;0.2466;2.3954;
865.5000;0.2442;2.3853;
865.8000;0.2450;2.3778;
866.1000;0.2507;2.3904;
866.4000;0.2475;2.3979;
866.7000;0.2361;2.3728;
867.0000;0.2475;2.4004;
867.3000;0.2466;2.3979;
867.6000;0.2458;2.4079;
867.9000;0.2515;2.4204;
868.2000;0.2426;2.4054;
868.5000;0.2475;2.4254;
868.8000;0.2466;2.4354;
869.1000;0.2442;2.4304;
869.4000;0.2515;2.4379;
869.7000;0.2409;2.4079;
870.0000;0.2466;2.4279;
870.3000;0.2458;2.4229;
870.6000;0.2418;2.4129;
870.9000;0.2450;2.4304;
871.2000;0.2466;2.4329;
871.5000;0.2515;2.4504;
871.8000;0.2466;2.4404;
872.1000;0.2475;2.4304;
872.4000;0.2475;2.4279;
872.7000;0.2377;2.3954;
873.0000;0.2458;2.4129;
873.3000;0.2442;2.4029;
873.6000;0.2523;2.4204;
873.9000;0.2458;2.4029;
874.2000;0.2483;2.4129;
874.5000;0.2475;2.4179;
874.8000;0.2458;2.4104;
875.1000;0.2483;2.4179;
875.4000;0.2466;2.4104;
875.7000;0.2466;2.4079;
876.0000;0.2442;2.3979;
876.3000;0.2466;2.4129;
876.6000;0.2507;2.4229;
876.9000;0.2434;2.4029;
877.2000;0.2458;2.4104;
877.5000;0.2466;2.4104;
877.8000;0.2466;2.4029;
878.1000;0.2458;2.3879;
878.4000;0.2450;2.3904;
878.7000;0.2458;2.3879;
879.0000;0.2466;2.3904;
879.3000;0.2442;2.3979;
879.6000;0.2458;2.4079;
879.9000;0.2434;2.4029;
880.2000;0.2401;2.4004;
880.5000;0.2475;2.4154;
880.8000;0.2475;2.4179;
881.1000;0.2507;2.4154;
881.4000;0.2393;2.3904;
881.7000;0.2442;2.4104;
882.0000;0.2458;2.4154;
882.3000;0.2426;2.4054;
882.6000;0.2442;2.4079;
882.9000;0.2434;2.4054;
883.2000;0.2393;2.3929;
883.5000;0.2434;2.4029;
883.8000;0.2499;2.4154;
884.1000;0.2450;2.4104;
884.4000;0.2458;2.4104;
884.7000;0.2442;2.4104;
885.0000;0.2483;2.4104;
885.3000;0.2336;2.3678;
885.6000;0.2418;2.3904;
885.9000;0.2466;2.3979;
886.2000;0.2434;2.3853;
886.5000;0.2507;2.4004;
886.8000;0.2450;2.3904;
887.1000;0.2515;2.4129;
887.4000;0.2426;2.3853;
887.7000;0.2434;2.3803;
888.0000;0.2548;2.4179;
888.3000;0.2434;2.3879;
888.6000;0.2491;2.4054;
888.9000;0.2491;2.4079;
889.2000;0.2450;2.4004;
889.5000;0.2458;2.4054;
889.8000;0.2491;2.4204;
890.1000;0.2589;2.4554;
890.4000;0.2597;2.4579;
890.7000;0.2475;2.4229;
891.0000;0.2458;2.4154;
891.3000;0.2434;2.4129;
891.6000;0.2483;2.4179;
891.9000;0.2450;2.4179;
892.2000;0.2475;2.4179;
892.5000;0.2483;2.4279;
892.8000;0.2458;2.4254;
893.1000;0.2475;2.4304;
893.4000;0.2466;2.4279;
893.7000;0.2475;2.4229;
894.0000;0.2475;2.4254;
894.3000;0.2499;2.4329;
894.6000;0.2499;2.4354;
894.9000;0.2483;2.4304;
895.2000;0.2507;2.4429;
895.5000;0.2556;2.4579;
895.8000;0.2475;2.4354;
896.1000;0.2458;2.4304;
896.4000;0.2466;2.4254;
896.7000;0.2483;2.4254;
897.0000;0.2499;2.4229;
897.3000;0.2483;2.4254;
897.6000;0.2491;2.4279;
897.9000;0.2442;2.4279;
898.2000;0.2458;2.4329;
898.5000;0.2499;2.4479;
898.8000;0.2450;2.4354;
899.1000;0.2491;2.4354;
899.4000;0.2483;2.4254;
899.7000;0.2475;2.4204;
900.0000;0.2475;2.4129;
900.3000;0.2499;2.4229;
900.6000;0.2458;2.4154;
900.9000;0.2450;2.4229;
901.2000;0.2483;2.4279;
901.5000;0.2499;2.4279;
901.8000;0.2434;2.4054;
902.1000;0.2450;2.4054;
902.4000;0.2409;2.3979;
902.7000;0.2458;2.4079;
903.0000;0.2483;2.4079;
903.3000;0.2499;2.4104;
903.6000;0.2450;2.3954;
903.9000;0.2426;2.3828;
904.2000;0.2458;2.3929;
904.5000;0.2458;2.3954;
904.8000;0.2393;2.3828;
905.1000;0.2450;2.4029;
905.4000;0.2442;2.4054;
905.7000;0.2336;2.3753;
906.0000;0.2450;2.4104;
906.3000;0.2475;2.4154;
906.6000;0.2458;2.4054;
906.9000;0.2458;2.4079;
907.2000;0.2491;2.4179;
907.5000;0.2475;2.4179;
907.8000;0.2475;2.4154;
908.1000;0.2483;2.4204;
908.4000;0.2458;2.4179;
908.7000;0.2564;2.4429;
909.0000;0.2483;2.4154;
909.3000;0.2466;2.4104;
909.6000;0.2483;2.4179;
909.9000;0.2475;2.4204;
910.2000;0.2515;2.4354;
910.5000;0.2475;2.4204;
910.8000;0.2556;2.4404;
911.1000;0.2483;2.4104;
911.4000;0.2450;2.4004;
911.7000;0.2499;2.4104;
912.0000;0.2466;2.4104;
912.3000;0.2401;2.3954;
912.6000;0.2466;2.4204;
912.9000;0.2475;2.4279;
913.2000;0.2523;2.4329;
913.5000;0.2483;2.4204;
913.8000;0.2475;2.4279;
914.1000;0.2401;2.4079;
914.4000;0.2475;2.4204;
914.7000;0.2466;2.4179;
915.0000;0.2466;2.4254;
915.3000;0.2458;2.4279;
915.6000;0.2458;2.4229;
915.9000;0.2442;2.4079;
916.2000;0.2466;2.4104;
916.5000;0.2475;2.4179;
916.8000;0.2466;2.4154;
917.1000;0.2499;2.4204;
917.4000;0.2507;2.4204;
917.7000;0.2401;2.3904;
918.0000;0.2458;2.4154;
918.3000;0.2466;2.4229;
918.6000;0.2369;2.3904;
918.9000;0.2466;2.4204;
919.2000;0.2475;2.4179;
919.5000;0.2475;2.4129;
919.8000;0.2491;2.4104;
920.1000;0.2475;2.4054;
920.4000;0.2475;2.4079;
920.7000;0.2483;2.4154;
921.0000;0.2450;2.4129;
921.3000;0.2466;2.4229;
921.6000;0.2475;2.4229;
921.9000;0.2483;2.4254;
922.2000;0.2483;2.4154;
922.5000;0.2450;2.4129;
922.8000;0.2475;2.4254;
923.1000;0.2499;2.4329;
923.4000;0.2450;2.4179;
923.7000;0.2483;2.4304;
924.0000;0.2580;2.4554;
924.3000;0.2466;2.4154;
924.6000;0.2458;2.4179;
924.9000;0.2434;2.4004;
925.2000;0.2450;2.4054;
925.5000;0.2491;2.4254;
925.8000;0.2466;2.4204;
926.1000;0.2491;2.4329;
926.4000;0.2466;2.4254;
926.7000;0.2458;2.4279;
927.0000;0.2466;2.4329;
927.3000;0.2361;2.4054;
927.6000;0.2450;2.4304;
927.9000;0.2466;2.4279;
928.2000;0.2466;2.4254;
928.5000;0.2344;2.3853;
928.8000;0.2466;2.4154;
929.1000;0.2450;2.4129;
929.4000;0.2475;2.4204;
929.7000;0.2475;2.4229;
930.0000;0.2483;2.4229;
930.3000;0.2491;2.4304;
930.6000;0.2475;2.4329;
930.9000;0.2475;2.4454;
931.2000;0.2483;2.4479;
931.5000;0.2458;2.4379;
931.8000;0.2458;2.4354;
932.1000;0.2483;2.4404;
932.4000;0.2434;2.4254;
932.7000;0.2458;2.4254;
933.0000;0.2483;2.4354;
933.3000;0.2483;2.4329;
933.6000;0.2475;2.4329;
933.9000;0.2458;2.4354;
934.2000;0.2466;2.4354;
934.5000;0.2442;2.4204;
934.8000;0.2475;2.4204;
935.1000;0.2475;2.4329;
935.4000;0.2499;2.4329;
935.7000;0.2507;2.4354;
936.0000;0.2507;2.4304;
936.3000;0.2409;2.4029;
936.6000;0.2540;2.4479;
936.9000;0.2475;2.4229;
937.2000;0.2450;2.4154;
937.5000;0.2450;2.4179;
937.8000;0.2483;2.4354;
938.1000;0.2475;2.4279;
938.4000;0.2483;2.4254;
938.7000;0.2491;2.4304;
939.0000;0.2458;2.4304;
939.3000;0.2483;2.4304;
939.6000;0.2458;2.4254;
939.9000;0.2475;2.4229;
940.2000;0.2475;2.4279;
940.5000;0.2458;2.4129;
940.8000;0.2450;2.4104;
941.1000;0.2450;2.4079;
941.4000;0.2466;2.4179;
941.7000;0.2458;2.4179;
942.0000;0.2475;2.4204;
942.3000;0.2434;2.4079;
942.6000;0.2377;2.3904;
942.9000;0.2458;2.4204;
943.2000;0.2458;2.4204;
943.5000;0.2466;2.4229;
943.8000;0.2458;2.4229;
944.1000;0.2458;2.4154;
944.4000;0.2458;2.4179;
944.7000;0.2466;2.4229;
945.0000;0.2475;2.4279;
945.3000;0.2466;2.4279;
945.6000;0.2483;2.4229;
945.9000;0.2475;2.4204;
946.2000;0.2491;2.4254;
946.5000;0.2483;2.4229;
946.8000;0.2466;2.4329;
947.1000;0.2532;2.4504;
947.4000;0.2523;2.4429;
947.7000;0.2458;2.4204;
948.0000;0.2491;2.4229;
948.3000;0.2515;2.4354;
948.6000;0.2556;2.4479;
948.9000;0.2458;2.4129;
949.2000;0.2475;2.4254;
949.5000;0.2483;2.4379;
949.8000;0.2458;2.4304;
950.1000;0.2442;2.4279;
950.4000;0.2491;2.4404;
950.7000;0.2466;2.4304;
951.0000;0.2475;2.4304;
951.3000;0.2385;2.3954;
951.6000;0.2393;2.3929;
951.9000;0.2450;2.4004;
952.2000;0.2458;2.4029;
952.5000;0.2475;2.4179;
952.8000;0.2458;2.4129;
953.1000;0.2409;2.3954;
953.4000;0.2295;2.3728;
953.7000;0.2458;2.4129;
954.0000;0.2466;2.4104;
954.3000;0.2458;2.4079;
954.6000;0.2475;2.4154;
954.9000;0.2483;2.4104;
955.2000;0.2491;2.4204;
955.5000;0.2475;2.4229;
955.8000;0.2466;2.4104;
956.1000;0.2442;2.4079;
956.4000;0.2540;2.4379;
956.7000;0.2466;2.4254;
957.0000;0.2491;2.4304;
957.3000;0.2499;2.4279;
957.6000;0.2450;2.4154;
957.9000;0.2466;2.4304;
958.2000;0.2466;2.4304;
958.5000;0.2426;2.4129;
958.8000;0.2466;2.4054;
959.1000;0.2483;2.4029;
959.4000;0.2491;2.4129;
959.7000;0.2401;2.3879;
960.0000;0.2491;2.4154;
960.3000;0.2450;2.4129;
960.6000;0.2475;2.4179;
960.9000;0.2475;2.4129;
961.2000;0.2499;2.4204;
961.5000;0.2434;2.4054;
961.8000;0.2515;2.4279;
962.1000;0.2458;2.4129;
962.4000;0.2475;2.4179;
962.7000;0.2418;2.4154;
963.0000;0.2458;2.4229;
963.3000;0.2475;2.4204;
963.6000;0.2613;2.4654;
963.9000;0.2523;2.4279;
964.2000;0.2475;2.4179;
964.5000;0.2458;2.4204;
964.8000;0.2556;2.4529;
965.1000;0.2499;2.4304;
965.4000;0.2483;2.4329;
965.7000;0.2475;2.4204;
966.0000;0.2491;2.4229;
966.3000;0.2499;2.4329;
966.6000;0.2507;2.4429;
966.9000;0.2475;2.4304;
967.2000;0.2450;2.4254;
967.5000;0.2507;2.4304;
967.8000;0.2483;2.4329;
968.1000;0.2442;2.4179;
968.4000;0.2434;2.4204;
968.7000;0.2458;2.4329;
969.0000;0.2483;2.4354;
969.3000;0.2466;2.4329;
969.6000;0.2483;2.4379;
969.9000;0.2475;2.4254;
970.2000;0.2483;2.4279;
970.5000;0.2475;2.4379;
970.8000;0.2483;2.4354;
971.1000;0.2458;2.4254;
971.4000;0.2499;2.4279;
971.7000;0.2393;2.3954;
972.0000;0.2442;2.4179;
972.3000;0.2458;2.4204;
972.6000;0.2442;2.4204;
972.9000;0.2450;2.4154;
973.2000;0.2475;2.4229;
973.5000;0.2418;2.4079;
973.8000;0.2450;2.4204;
974.1000;0.2475;2.4304;
974.4000;0.2466;2.4204;
974.7000;0.2483;2.4229;
975.0000;0.2466;2.4204;
975.3000;0.2556;2.4429;
975.6000;0.2475;2.4054;
975.9000;0.2491;2.4154;
976.2000;0.2434;2.4054;
976.5000;0.2475;2.4229;
976.8000;0.2466;2.4179;
977.1000;0.2507;2.4379;
977.4000;0.2450;2.4279;
977.7000;0.2434;2.4229;
978.0000;0.2491;2.4354;
978.3000;0.2475;2.4204;
978.6000;0.2475;2.4179;
978.9000;0.2426;2.4079;
979.2000;0.2442;2.4079;
979.5000;0.2491;2.4079;
979.8000;0.2466;2.4029;
980.1000;0.2442;2.3979;
980.4000;0.2466;2.4154;
980.7000;0.2499;2.4279;
981.0000;0.2450;2.4204;
981.3000;0.2491;2.4329;
981.6000;0.2475;2.4254;
981.9000;0.2532;2.4379;
982.2000;0.2450;2.4104;
982.5000;0.2483;2.4104;
982.8000;0.2426;2.4104;
983.1000;0.2466;2.4179;
983.4000;0.2442;2.4104;
983.7000;0.2523;2.4404;
984.0000;0.2483;2.4129;
984.3000;0.2442;2.4029;
984.6000;0.2466;2.4054;
984.9000;0.2466;2.4079;
985.2000;0.2507;2.4179;
985.5000;0.2475;2.4104;
985.8000;0.2499;2.4154;
986.1000;0.2458;2.3979;
986.4000;0.2458;2.3929;
986.7000;0.2491;2.3929;
987.0000;0.2475;2.3979;
987.3000;0.2475;2.3979;
987.6000;0.2442;2.3853;
987.9000;0.2450;2.3853;
988.2000;0.2483;2.3954;
988.5000;0.2458;2.3954;
988.8000;0.2458;2.3929;
989.1000;0.2450;2.3853;
989.4000;0.2458;2.4029;
989.7000;0.2320;2.3653;
990.0000;0.2491;2.4079;
990.3000;0.2466;2.4129;
990.6000;0.2475;2.4054;
990.9000;0.2458;2.4104;
991.2000;0.2458;2.4154;
991.5000;0.2466;2.4229;
991.8000;0.2466;2.4204;
992.1000;0.2458;2.4279;
992.4000;0.2458;2.4329;
992.7000;0.2466;2.4304;
993.0000;0.2466;2.4304;
993.3000;0.2466;2.4254;
993.6000;0.2442;2.4204;
993.9000;0.2491;2.4304;
994.2000;0.2434;2.4254;
994.5000;0.2458;2.4279;
994.8000;0.2483;2.4304;
995.1000;0.2466;2.4279;
995.4000;0.2483;2.4329;
995.7000;0.2515;2.4404;
996.0000;0.2450;2.4179;
996.3000;0.2466;2.4204;
996.6000;0.2442;2.4129;
996.9000;0.2377;2.3954;
997.2000;0.2475;2.4154;
997.5000;0.2483;2.4179;
997.8000;0.2483;2.4204;
998.1000;0.2450;2.4079;
998.4000;0.2466;2.4229;
998.7000;0.2418;2.4104;
999.0000;0.2458;2.4254;
999.3000;0.2483;2.4304;
999.6000;0.2466;2.4254;
999.9000;0.2442;2.4154;
1000.2000;0.2475;2.4329;
1000.5000;0.2491;2.4204;
1000.8000;0.2483;2.4104;
1001.1000;0.2564;2.4279;
1001.4000;0.2605;2.4279;
1001.7000;0.2458;2.3929;
1002.0000;0.2458;2.3828;
1002.3000;0.2483;2.4004;
1002.6000;0.2532;2.4104;
1002.9000;0.2442;2.3828;
1003.2000;0.2475;2.3828;
1003.5000;0.2515;2.4054;
1003.8000;0.2483;2.3954;
1004.1000;0.2466;2.3954;
1004.4000;0.2434;2.3904;
1004.7000;0.2466;2.3979;
1005.0000;0.2458;2.3979;
1005.3000;0.2532;2.4229;
1005.6000;0.2491;2.4204;
1005.9000;0.2458;2.4029;
1006.2000;0.2556;2.4379;
1006.5000;0.2401;2.4004;
1006.8000;0.2491;2.4254;
1007.1000;0.2507;2.4229;
1007.4000;0.2499;2.4229;
1007.7000;0.2336;2.3753;
1008.0000;0.2466;2.4079;
1008.3000;0.2434;2.4079;
1008.6000;0.2466;2.4154;
1008.9000;0.2401;2.3954;
1009.2000;0.2475;2.4104;
1009.5000;0.2450;2.4079;
1009.8000;0.2458;2.4104;
1010.1000;0.2458;2.4054;
1010.4000;0.2450;2.4029;
1010.7000;0.2466;2.4054;
1011.0000;0.2475;2.4079;
1011.3000;0.2475;2.4079;
1011.6000;0.2475;2.4054;
1011.9000;0.2475;2.4154;
1012.2000;0.2491;2.4179;
1012.5000;0.2475;2.4029;
1012.8000;0.2458;2.4004;
1013.1000;0.2458;2.4079;
1013.4000;0.2458;2.4004;
1013.7000;0.2442;2.4004;
1014.0000;0.2499;2.4179;
1014.3000;0.2483;2.4154;
1014.6000;0.2466;2.4129;
1014.9000;0.2483;2.4179;
1015.2000;0.2466;2.4229;
1015.5000;0.2515;2.4354;
1015.8000;0.2401;2.3954;
1016.1000;0.2572;2.4329;
1016.4000;0.2466;2.4079;
1016.7000;0.2475;2.4154;
1017.0000;0.2475;2.4154;
1017.3000;0.2483;2.4154;
1017.6000;0.2401;2.4004;
1017.9000;0.2491;2.4179;
1018.2000;0.2499;2.4104;
1018.5000;0.2475;2.4154;
1018.8000;0.2483;2.4229;
1019.1000;0.2401;2.4004;
1019.4000;0.2483;2.4104;
1019.7000;0.2507;2.4179;
1020.0000;0.2475;2.4079;
1020.3000;0.2532;2.4279;
1020.6000;0.2540;2.4254;
1020.9000;0.2426;2.3979;
1021.2000;0.2409;2.3879;
1021.5000;0.2393;2.3753;
1021.8000;0.2458;2.3979;
1022.1000;0.2483;2.4029;
1022.4000;0.2483;2.3929;
1022.7000;0.2466;2.3803;
1023.0000;0.2458;2.3828;
1023.3000;0.2475;2.3879;
1023.6000;0.2466;2.3828;
1023.9000;0.2483;2.3828;
1024.2000;0.2475;2.3803;
1024.5000;0.2442;2.3753;
1024.8000;0.2369;2.3503;
1025.1000;0.2605;2.4279;
1025.4000;0.2548;2.4179;
1025.7000;0.2466;2.3853;
1026.0000;0.2532;2.4054;
1026.3000;0.2458;2.3929;
1026.6000;0.2483;2.4054;
1026.9000;0.2466;2.4029;
1027.2000;0.2523;2.4179;
1027.5000;0.2475;2.4004;
1027.8000;0.2466;2.4029;
1028.1000;0.2483;2.4029;
1028.4000;0.2507;2.4054;
1028.7000;0.2507;2.4079;
1029.0000;0.2491;2.4079;
1029.3000;0.2450;2.4054;
1029.6000;0.2450;2.4079;
1029.9000;0.2475;2.4229;
1030.2000;0.2409;2.4079;
1030.5000;0.2458;2.4154;
1030.8000;0.2483;2.4204;
1031.1000;0.2450;2.4154;
1031.4000;0.2458;2.4029;
1031.7000;0.2475;2.4004;
1032.0000;0.2442;2.3929;
1032.3000;0.2466;2.4054;
1032.6000;0.2418;2.3904;
1032.9000;0.2418;2.3778;
1033.2000;0.2466;2.3954;
1033.5000;0.2450;2.3853;
1033.8000;0.2458;2.3929;
1034.1000;0.2426;2.3879;
1034.4000;0.2466;2.4029;
1034.7000;0.2466;2.4079;
1035.0000;0.2491;2.4279;
1035.3000;0.2466;2.4179;
1035.6000;0.2450;2.4029;
1035.9000;0.2491;2.4104;
1036.2000;0.2491;2.4104;
1036.5000;0.2499;2.4179;
1036.8000;0.2491;2.4154;
1037.1000;0.2466;2.4079;
1037.4000;0.2499;2.4079;
1037.7000;0.2458;2.3929;
1038.0000;0.2458;2.3904;
1038.3000;0.2458;2.3929;
1038.6000;0.2450;2.3904;
1038.9000;0.2450;2.3879;
1039.2000;0.2458;2.3904;
1039.5000;0.2507;2.4004;
1039.8000;0.2475;2.3954;
1040.1000;0.2442;2.3828;
1040.4000;0.2466;2.3879;
1040.7000;0.2466;2.3929;
1041.0000;0.2442;2.3904;
1041.3000;0.2483;2.3979;
1041.6000;0.2442;2.4004;
1041.9000;0.2458;2.4054;
1042.2000;0.2466;2.4129;
1042.5000;0.2369;2.3879;
1042.8000;0.2458;2.4154;
1043.1000;0.2483;2.4254;
1043.4000;0.2458;2.4129;
1043.7000;0.2458;2.4179;
1044.0000;0.2483;2.4254;
1044.3000;0.2409;2.3954;
1044.6000;0.2434;2.4029;
1044.9000;0.2442;2.4004;
1045.2000;0.2491;2.4129;
1045.5000;0.2401;2.3853;
1045.8000;0.2466;2.3954;
1046.1000;0.2458;2.3879;
1046.4000;0.2466;2.3879;
1046.7000;0.2434;2.3904;
1047.0000;0.2475;2.4029;
1047.3000;0.2434;2.3904;
1047.6000;0.2491;2.4079;
1047.9000;0.2458;2.4204;
1048.2000;0.2491;2.4179;
1048.5000;0.2304;2.3753;
1048.8000;0.2458;2.4254;
1049.1000;0.2418;2.4129;
1049.4000;0.2475;2.4279;
1049.7000;0.2442;2.4104;
1050.0000;0.2475;2.4204;
1050.3000;0.2450;2.4179;
1050.6000;0.2475;2.4204;
1050.9000;0.2458;2.4204;
1051.2000;0.2491;2.4329;
1051.5000;0.2475;2.4229;
1051.8000;0.2491;2.4304;
1052.1000;0.2442;2.4204;
1052.4000;0.2491;2.4229;
1052.7000;0.2466;2.4154;
1053.0000;0.2532;2.4329;
1053.3000;0.2450;2.4129;
1053.6000;0.2458;2.4129;
1053.9000;0.2466;2.4154;
1054.2000;0.2483;2.4279;
1054.5000;0.2475;2.4254;
1054.8000;0.2442;2.4054;
1055.1000;0.2475;2.4079;
1055.4000;0.2491;2.4204;
1055.7000;0.2507;2.4104;
1056.0000;0.2499;2.4029;
1056.3000;0.2491;2.4104;
1056.6000;0.2458;2.3954;
1056.9000;0.2540;2.4154;
1057.2000;0.2475;2.3979;
1057.5000;0.2442;2.3954;
1057.8000;0.2475;2.4104;
1058.1000;0.2458;2.4079;
1058.4000;0.2466;2.4104;
1058.7000;0.2434;2.3954;
1059.0000;0.2491;2.4029;
1059.3000;0.2466;2.4079;
1059.6000;0.2483;2.4204;
1059.9000;0.2466;2.4229;
1060.2000;0.2475;2.4179;
1060.5000;0.2483;2.4129;
1060.8000;0.2475;2.4079;
1061.1000;0.2466;2.4129;
1061.4000;0.2483;2.4129;
1061.7000;0.2491;2.4179;
1062.0000;0.2475;2.4054;
1062.3000;0.2483;2.4104;
1062.6000;0.2458;2.4054;
1062.9000;0.2499;2.4204;
1063.2000;0.2409;2.3853;
1063.5000;0.2458;2.4029;
1063.8000;0.2434;2.3979;
1064.1000;0.2589;2.4279;
1064.4000;0.2466;2.4004;
1064.7000;0.2491;2.4079;
1065.0000;0.2458;2.3954;
1065.3000;0.2499;2.4079;
1065.6000;0.2475;2.4104;
1065.9000;0.2475;2.4154;
1066.2000;0.2540;2.4329;
1066.5000;0.2434;2.4129;
1066.8000;0.2523;2.4329;
1067.1000;0.2483;2.4279;
1067.4000;0.2475;2.4254;
1067.7000;0.2377;2.3879;
1068.0000;0.2466;2.4179;
1068.3000;0.2450;2.4204;
1068.6000;0.2450;2.4129;
1068.9000;0.2475;2.4204;
1069.2000;0.2466;2.4179;
1069.5000;0.2442;2.4179;
1069.8000;0.2458;2.4204;
1070.1000;0.2466;2.4204;
1070.4000;0.2450;2.3979;
1070.7000;0.2483;2.4004;
1071.0000;0.2483;2.3979;
1071.3000;0.2483;2.4029;
1071.6000;0.2475;2.3979;
1071.9000;0.2499;2.4054;
1072.2000;0.2466;2.3879;
1072.5000;0.2466;2.3828;
1072.8000;0.2475;2.3803;
1073.1000;0.2483;2.3904;
1073.4000;0.2507;2.3904;
1073.7000;0.2483;2.3879;
1074.0000;0.2409;2.3678;
1074.3000;0.2475;2.3929;
1074.6000;0.2475;2.3929;
1074.9000;0.2458;2.3904;
1075.2000;0.2475;2.3879;
1075.5000;0.2515;2.3954;
1075.8000;0.2466;2.3853;
1076.1000;0.2532;2.4029;
1076.4000;0.2483;2.3853;
1076.7000;0.2475;2.3778;
1077.0000;0.2507;2.3853;
1077.3000;0.2475;2.3803;
1077.6000;0.2507;2.3979;
1077.9000;0.2629;2.4379;
1078.2000;0.2475;2.3879;
1078.5000;0.2491;2.3879;
1078.8000;0.2393;2.3628;
1079.1000;0.2434;2.3778;
1079.4000;0.2450;2.3853;
1079.7000;0.2564;2.4204;
1080.0000;0.2434;2.3803;
1080.3000;0.2458;2.3853;
1080.6000;0.2483;2.3904;
1080.9000;0.2475;2.3929;
1081.2000;0.2442;2.3778;
1081.5000;0.2483;2.3904;
1081.8000;0.2507;2.3954;
1082.1000;0.2491;2.3778;
1082.4000;0.2475;2.3703;
1082.7000;0.2491;2.3728;
1083.0000;0.2450;2.3603;
1083.3000;0.2491;2.3728;
1083.6000;0.2458;2.3678;
1083.9000;0.2475;2.3778;
1084.2000;0.2475;2.3778;
1084.5000;0.2475;2.3778;
1084.8000;0.2458;2.3728;
1085.1000;0.2475;2.3853;
1085.4000;0.2483;2.3929;
1085.7000;0.2491;2.3879;
1086.0000;0.2532;2.4079;
1086.3000;0.2466;2.3879;
1086.6000;0.2434;2.3803;
1086.9000;0.2483;2.3929;
1087.2000;0.2540;2.4129;
1087.5000;0.2442;2.3778;
1087.8000;0.2450;2.3803;
1088.1000;0.2499;2.3904;
1088.4000;0.2466;2.3904;
1088.7000;0.2466;2.3879;
1089.0000;0.2434;2.3753;
1089.3000;0.2466;2.3778;
1089.6000;0.2450;2.3753;
1089.9000;0.2450;2.3853;
1090.2000;0.2450;2.3803;
1090.5000;0.2458;2.3753;
1090.8000;0.2442;2.3703;
1091.1000;0.2450;2.3853;
1091.4000;0.2466;2.3929;
1091.7000;0.2475;2.3828;
1092.0000;0.2491;2.3828;
1092.3000;0.2483;2.3703;
1092.6000;0.2466;2.3678;
1092.9000;0.2466;2.3678;
1093.2000;0.2491;2.3728;
1093.5000;0.2450;2.3753;
1093.8000;0.2450;2.3753;
1094.1000;0.2483;2.3879;
1094.4000;0.2458;2.3803;
1094.7000;0.2475;2.3929;
1095.0000;0.2450;2.3803;
1095.3000;0.2434;2.3753;
1095.6000;0.2450;2.3778;
1095.9000;0.2483;2.3753;
1096.2000;0.2369;2.3353;
1096.5000;0.2475;2.3728;
1096.8000;0.2458;2.3628;
1097.1000;0.2515;2.3803;
1097.4000;0.2515;2.3828;
1097.7000;0.2458;2.3628;
1098.0000;0.2483;2.3678;
1098.3000;0.2312;2.3353;
1098.6000;0.2466;2.3753;
1098.9000;0.2483;2.3753;
1099.2000;0.2247;2.3128;
1099.5000;0.2401;2.3628;
1099.8000;0.2532;2.3929;
1100.1000;0.2491;2.3778;
1100.4000;0.2483;2.3778;
1100.7000;0.2475;2.3803;
1101.0000;0.2409;2.3528;
1101.3000;0.2450;2.3678;
1101.6000;0.2483;2.3803;
1101.9000;0.2401;2.3678;
1102.2000;0.2483;2.4004;
1102.5000;0.2466;2.4004;
1102.8000;0.2475;2.4004;
1103.1000;0.2475;2.4029;
1103.4000;0.2475;2.4054;
1103.7000;0.2475;2.4054;
1104.0000;0.2475;2.4179;
1104.3000;0.2475;2.4154;
1104.6000;0.2434;2.4079;
1104.9000;0.2483;2.4179;
1105.2000;0.2466;2.4179;
1105.5000;0.2483;2.4154;
1105.8000;0.2515;2.4204;
1106.1000;0.2466;2.4054;
1106.4000;0.2458;2.4054;
1106.7000;0.2475;2.4129;
1107.0000;0.2483;2.4154;
1107.3000;0.2507;2.4154;
1107.6000;0.2442;2.3879;
1107.9000;0.2523;2.4029;
1108.2000;0.2458;2.3778;
1108.5000;0.2507;2.3979;
1108.8000;0.2475;2.3904;
1109.1000;0.2466;2.3904;
1109.4000;0.2466;2.3904;
1109.7000;0.2540;2.4029;
1110.0000;0.2450;2.3853;
1110.3000;0.2450;2.3954;
1110.6000;0.2491;2.4079;
1110.9000;0.2418;2.3929;
1111.2000;0.2540;2.4204;
1111.5000;0.2458;2.4054;
1111.8000;0.2491;2.4079;
1112.1000;0.2279;2.3528;
1112.4000;0.2336;2.3628;
1112.7000;0.2483;2.4029;
1113.0000;0.2466;2.4004;
1113.3000;0.2458;2.3879;
1113.6000;0.2466;2.3979;
1113.9000;0.2458;2.3979;
1114.2000;0.2475;2.4079;
1114.5000;0.2458;2.4104;
1114.8000;0.2483;2.4129;
1115.1000;0.2621;2.4554;
1115.4000;0.2507;2.4129;
1115.7000;0.2475;2.3954;
1116.0000;0.2475;2.3979;
1116.3000;0.2491;2.4029;
1116.6000;0.2466;2.4029;
1116.9000;0.2466;2.4004;
1117.2000;0.2442;2.3954;
1117.5000;0.2475;2.3979;
1117.8000;0.2483;2.3929;
1118.1000;0.2466;2.3904;
1118.4000;0.2483;2.3929;
1118.7000;0.2450;2.3879;
1119.0000;0.2483;2.3954;
1119.3000;0.2491;2.4079;
1119.6000;0.2442;2.4054;
1119.9000;0.2523;2.4279;
1120.2000;0.2409;2.3904;
1120.5000;0.2475;2.4054;
1120.8000;0.2483;2.4104;
1121.1000;0.2483;2.4154;
1121.4000;0.2548;2.4329;
1121.7000;0.2491;2.4279;
1122.0000;0.2369;2.4004;
1122.3000;0.2434;2.4154;
1122.6000;0.2532;2.4454;
1122.9000;0.2466;2.4254;
1123.2000;0.2409;2.4004;
1123.5000;0.2442;2.3979;
1123.8000;0.2507;2.4104;
1124.1000;0.2483;2.3929;
1124.4000;0.2483;2.3954;
1124.7000;0.2466;2.3904;
1125.0000;0.2466;2.3929;
1125.3000;0.2450;2.3954;
1125.6000;0.2426;2.3853;
1125.9000;0.2483;2.3954;
1126.2000;0.2475;2.4004;
1126.5000;0.2491;2.4079;
1126.8000;0.2483;2.4054;
1127.1000;0.2491;2.4104;
1127.4000;0.2475;2.4104;
1127.7000;0.2499;2.4079;
1128.0000;0.2458;2.4004;
1128.3000;0.2458;2.4054;
1128.6000;0.2450;2.4129;
1128.9000;0.2475;2.4154;
1129.2000;0.2466;2.4104;
1129.5000;0.2475;2.4154;
1129.8000;0.2483;2.4154;
1130.1000;0.2491;2.4204;
1130.4000;0.2475;2.4204;
1130.7000;0.2483;2.4179;
1131.0000;0.2458;2.4179;
1131.3000;0.2466;2.4129;
1131.6000;0.2507;2.4254;
1131.9000;0.2466;2.4129;
1132.2000;0.2458;2.4004;
1132.5000;0.2450;2.3853;
1132.8000;0.2499;2.3979;
1133.1000;0.2532;2.4079;
1133.4000;0.2483;2.3954;
1133.7000;0.2523;2.3979;
1134.0000;0.2515;2.3979;
1134.3000;0.2532;2.4104;
1134.6000;0.2483;2.4029;
1134.9000;0.2466;2.4004;
1135.2000;0.2483;2.4004;
1135.5000;0.2418;2.3879;
1135.8000;0.2450;2.3904;
1136.1000;0.2409;2.3803;
1136.4000;0.2548;2.4254;
1136.7000;0.2491;2.4204;
1137.0000;0.2450;2.4054;
1137.3000;0.2458;2.4029;
1137.6000;0.2483;2.4104;
1137.9000;0.2483;2.4079;
1138.2000;0.2418;2.3879;
1138.5000;0.2458;2.3929;
1138.8000;0.2499;2.4079;
1139.1000;0.2466;2.4079;
1139.4000;0.2475;2.4079;
1139.7000;0.2475;2.4129;
1140.0000;0.2466;2.4054;
1140.3000;0.2458;2.4104;
1140.6000;0.2458;2.4054;
1140.9000;0.2483;2.4079;
1141.2000;0.2605;2.4404;
1141.5000;0.2507;2.4054;
1141.8000;0.2515;2.4154;
1142.1000;0.2466;2.4054;
1142.4000;0.2426;2.3954;
1142.7000;0.2466;2.4154;
1143.0000;0.2475;2.4204;
1143.3000;0.2458;2.4129;
1143.6000;0.2475;2.4129;
1143.9000;0.2466;2.4204;
1144.2000;0.2499;2.4229;
1144.5000;0.2466;2.4229;
1144.8000;0.2475;2.4204;
1145.1000;0.2475;2.4204;
1145.4000;0.2491;2.4129;
1145.7000;0.2434;2.4004;
1146.0000;0.2475;2.4129;
1146.3000;0.2466;2.4179;
1146.6000;0.2483;2.4254;
1146.9000;0.2483;2.4229;
1147.2000;0.2491;2.4254;
1147.5000;0.2450;2.4054;
1147.8000;0.2475;2.4079;
1148.1000;0.2475;2.4029;
1148.4000;0.2450;2.4004;
1148.7000;0.2458;2.4104;
1149.0000;0.2491;2.4204;
1149.3000;0.2466;2.4104;
1149.6000;0.2466;2.4029;
1149.9000;0.2458;2.4004;
1150.2000;0.2466;2.3979;
1150.5000;0.2458;2.3979;
1150.8000;0.2466;2.4004;
1151.1000;0.2466;2.4029;
1151.4000;0.2499;2.4104;
1151.7000;0.2491;2.4129;
1152.0000;0.2483;2.4279;
1152.3000;0.2491;2.4229;
1152.6000;0.2475;2.4254;
1152.9000;0.2475;2.4279;
1153.2000;0.2515;2.4404;
1153.5000;0.2491;2.4329;
1153.8000;0.2475;2.4254;
1154.1000;0.2434;2.4154;
1154.4000;0.2458;2.4154;
1154.7000;0.2466;2.4154;
1155.0000;0.2515;2.4279;
1155.3000;0.2499;2.4279;
1155.6000;0.2475;2.4204;
1155.9000;0.2491;2.4179;
1156.2000;0.2450;2.3979;
1156.5000;0.2450;2.4004;
1156.8000;0.2475;2.4079;
1157.1000;0.2475;2.4104;
1157.4000;0.2475;2.4079;
1157.7000;0.2475;2.4129;
1158.0000;0.2507;2.4179;
1158.3000;0.2475;2.4029;
1158.6000;0.2458;2.3954;
1158.9000;0.2475;2.4079;
1159.2000;0.2523;2.4254;
1159.5000;0.2491;2.4179;
1159.8000;0.2483;2.4229;
1160.1000;0.2458;2.4154;
1160.4000;0.2312;2.3753;
1160.7000;0.2483;2.4154;
1161.0000;0.2483;2.4154;
1161.3000;0.2475;2.4154;
1161.6000;0.2475;2.4179;
1161.9000;0.2483;2.4104;
1162.2000;0.2475;2.4204;
1162.5000;0.2475;2.4254;
1162.8000;0.2466;2.4254;
1163.1000;0.2483;2.4379;
1163.4000;0.2491;2.4354;
1163.7000;0.2466;2.4229;
1164.0000;0.2466;2.4179;
1164.3000;0.2475;2.4129;
1164.6000;0.2483;2.4129;
1164.9000;0.2458;2.4029;
1165.2000;0.2442;2.3979;
1165.5000;0.2426;2.3929;
1165.8000;0.2499;2.4129;
1166.1000;0.2499;2.4204;
1166.4000;0.2483;2.4304;
1166.7000;0.2466;2.4254;
1167.0000;0.2540;2.4304;
1167.3000;0.2450;2.3979;
1167.6000;0.2475;2.4029;
1167.9000;0.2466;2.4029;
1168.2000;0.2507;2.4104;
1168.5000;0.2458;2.4054;
1168.8000;0.2475;2.4179;
1169.1000;0.2434;2.4104;
1169.4000;0.2434;2.4079;
1169.7000;0.2491;2.4229;
1170.0000;0.2385;2.4004;
1170.3000;0.2458;2.4179;
1170.6000;0.2475;2.4129;
1170.9000;0.2483;2.4104;
1171.2000;0.2458;2.4029;
1171.5000;0.2491;2.4104;
1171.8000;0.2475;2.4079;
1172.1000;0.2507;2.4204;
1172.4000;0.2483;2.4154;
1172.7000;0.2466;2.4029;
1173.0000;0.2458;2.4129;
1173.3000;0.2483;2.4204;
1173.6000;0.2475;2.4079;
1173.9000;0.2475;2.4079;
1174.2000;0.2458;2.4104;
1174.5000;0.2540;2.4179;
1174.8000;0.2483;2.4129;
1175.1000;0.2507;2.4304;
1175.4000;0.2483;2.4254;
1175.7000;0.2475;2.4279;
1176.0000;0.2491;2.4229;
1176.3000;0.2483;2.4229;
1176.6000;0.2450;2.4104;
1176.9000;0.2483;2.4104;
1177.2000;0.2483;2.4154;
1177.5000;0.2572;2.4329;
1177.8000;0.2475;2.4104;
1178.1000;0.2499;2.4179;
1178.4000;0.2483;2.4204;
1178.7000;0.2483;2.4204;
1179.0000;0.2466;2.4254;
1179.3000;0.2475;2.4279;
1179.6000;0.2458;2.4179;
1179.9000;0.2466;2.4229;
1180.2000;0.2450;2.4179;
1180.5000;0.2409;2.4004;
1180.8000;0.2466;2.4079;
1181.1000;0.2475;2.4029;
1181.4000;0.2507;2.4079;
1181.7000;0.2483;2.4129;
1182.0000;0.2409;2.3954;
1182.3000;0.2475;2.4129;
1182.6000;0.2475;2.4154;
1182.9000;0.2475;2.4054;
1183.2000;0.2450;2.3979;
1183.5000;0.2466;2.4029;
1183.8000;0.2466;2.4104;
1184.1000;0.2466;2.4179;
1184.4000;0.2466;2.4179;
1184.7000;0.2499;2.4354;
1185.0000;0.2458;2.4279;
1185.3000;0.2466;2.4254;
1185.6000;0.2450;2.4004;
1185.9000;0.2475;2.4004;
1186.2000;0.2491;2.4079;
1186.5000;0.2548;2.4154;
1186.8000;0.2475;2.4029;
1187.1000;0.2434;2.3879;
1187.4000;0.2475;2.4029;
1187.7000;0.2475;2.4029;
1188.0000;0.2483;2.3979;
1188.3000;0.2475;2.3954;
1188.6000;0.2483;2.3828;
1188.9000;0.2475;2.3828;
1189.2000;0.2475;2.3879;
1189.5000;0.2475;2.3853;
1189.8000;0.2532;2.3979;
1190.1000;0.2450;2.3753;
1190.4000;0.2450;2.3703;
1190.7000;0.2458;2.3703;
1191.0000;0.2466;2.3803;
1191.3000;0.2483;2.3753;
1191.6000;0.2540;2.3879;
1191.9000;0.2483;2.3879;
1192.2000;0.2515;2.3979;
1192.5000;0.2491;2.3954;
1192.8000;0.2483;2.3954;
1193.1000;0.2466;2.3954;
1193.4000;0.2466;2.4004;
1193.7000;0.2499;2.4029;
1194.0000;0.2466;2.4004;
1194.3000;0.2491;2.3954;
1194.6000;0.2466;2.3929;
1194.9000;0.2458;2.3954;
1195.2000;0.2466;2.3954;
1195.5000;0.2483;2.3979;
1195.8000;0.2458;2.3954;
1196.1000;0.2515;2.4029;
1196.4000;0.2401;2.3753;
1196.7000;0.2548;2.4154;
1197.0000;0.2466;2.3979;
1197.3000;0.2442;2.3929;
1197.6000;0.2491;2.4079;
1197.9000;0.2475;2.4004;
1198.2000;0.2483;2.4079;
1198.5000;0.2499;2.4204;
1198.8000;0.2475;2.4104;
1199.1000;0.2466;2.4079;
1199.4000;0.2458;2.3979;
1199.7000;0.2426;2.3979;
1200.0000;0.2491;2.4204;
1200.3000;0.2466;2.3979;
1200.6000;0.2466;2.4004;
1200.9000;0.2466;2.4079;
1201.2000;0.2466;2.4079;
1201.5000;0.2458;2.4129;
1201.8000;0.2491;2.4129;
1202.1000;0.2556;2.4354;
1202.4000;0.2466;2.4104;
1202.7000;0.2507;2.4104;
1203.0000;0.2475;2.4104;
1203.3000;0.2491;2.4204;
1203.6000;0.2442;2.4104;
1203.9000;0.2466;2.4154;
1204.2000;0.2466;2.4154;
1204.5000;0.2458;2.4179;
1204.8000;0.2466;2.4154;
1205.1000;0.2475;2.4229;
1205.4000;0.2450;2.4129;
1205.7000;0.2458;2.4054;
1206.0000;0.2466;2.4054;
1206.3000;0.2426;2.3904;
1206.6000;0.2475;2.4079;
1206.9000;0.2475;2.4104;
1207.2000;0.2475;2.4104;
1207.5000;0.2475;2.4154;
1207.8000;0.2491;2.4204;
1208.1000;0.2483;2.4254;
1208.4000;0.2466;2.4204;
1208.7000;0.2466;2.4179;
1209.0000;0.2466;2.4204;
1209.3000;0.2401;2.3929;
1209.6000;0.2483;2.4254;
1209.9000;0.2450;2.4229;
1210.2000;0.2466;2.4254;
1210.5000;0.2499;2.4354;
1210.8000;0.2434;2.4129;
1211.1000;0.2458;2.4129;
1211.4000;0.2499;2.4204;
1211.7000;0.2491;2.4229;
1212.0000;0.2491;2.4229;
1212.3000;0.2466;2.4054;
1212.6000;0.2450;2.3954;
1212.9000;0.2466;2.4004;
1213.2000;0.2442;2.4004;
1213.5000;0.2458;2.3954;
1213.8000;0.2466;2.4029;
1214.1000;0.2450;2.4004;
1214.4000;0.2532;2.4304;
1214.7000;0.2466;2.4079;
1215.0000;0.2499;2.4104;
1215.3000;0.2466;2.3954;
1215.6000;0.2507;2.4079;
1215.9000;0.2475;2.4004;
1216.2000;0.2450;2.4004;
1216.5000;0.2483;2.4104;
1216.8000;0.2466;2.4054;
1217.1000;0.2483;2.4129;
1217.4000;0.2466;2.4154;
1217.7000;0.2418;2.4004;
1218.0000;0.2466;2.4204;
1218.3000;0.2507;2.4379;
1218.6000;0.2540;2.4429;
1218.9000;0.2442;2.4129;
1219.2000;0.2475;2.4104;
1219.5000;0.2499;2.4129;
1219.8000;0.2507;2.4154;
1220.1000;0.2442;2.3979;
1220.4000;0.2515;2.4204;
1220.7000;0.2499;2.4179;
1221.0000;0.2475;2.4104;
1221.3000;0.2483;2.4179;
1221.6000;0.2401;2.3853;
1221.9000;0.2491;2.4154;
1222.2000;0.2466;2.4179;
1222.5000;0.2442;2.4154;
1222.8000;0.2426;2.4104;
1223.1000;0.2466;2.4104;
1223.4000;0.2475;2.4054;
1223.7000;0.2458;2.3904;
1224.0000;0.2466;2.3904;
1224.3000;0.2483;2.4054;
1224.6000;0.2491;2.4004;
1224.9000;0.2507;2.3979;
1225.2000;0.2548;2.4179;
1225.5000;0.2434;2.4004;
1225.8000;0.2466;2.4029;
1226.1000;0.2466;2.4129;
1226.4000;0.2499;2.4179;
1226.7000;0.2491;2.4204;
1227.0000;0.2580;2.4379;
1227.3000;0.2442;2.4079;
1227.6000;0.2458;2.4229;
1227.9000;0.2475;2.4254;
1228.2000;0.2483;2.4354;
1228.5000;0.2409;2.4004;
1228.8000;0.2328;2.3904;
1229.1000;0.2458;2.4154;
1229.4000;0.2483;2.4279;
1229.7000;0.2450;2.4129;
1230.0000;0.2458;2.4054;
1230.3000;0.2475;2.4104;
1230.6000;0.2491;2.4229;
1230.9000;0.2377;2.4029;
1231.2000;0.2507;2.4429;
1231.5000;0.2515;2.4379;
1231.8000;0.2491;2.4254;
1232.1000;0.2475;2.4204;
1232.4000;0.2475;2.4254;
1232.7000;0.2475;2.4254;
1233.0000;0.2483;2.4304;
1233.3000;0.2385;2.4104;
1233.6000;0.2458;2.4179;
1233.9000;0.2515;2.4379;
1234.2000;0.2491;2.4379;
1234.5000;0.2491;2.4329;
1234.8000;0.2483;2.4304;
1235.1000;0.2442;2.4154;
1235.4000;0.2434;2.4079;
1235.7000;0.2491;2.4304;
1236.0000;0.2483;2.4154;
1236.3000;0.2458;2.4079;
1236.6000;0.2475;2.4129;
1236.9000;0.2532;2.4354;
1237.2000;0.2491;2.4279;
1237.5000;0.2466;2.4204;
1237.8000;0.2483;2.4229;
1238.1000;0.2491;2.4229;
1238.4000;0.2491;2.4229;
1238.7000;0.2499;2.4229;
1239.0000;0.2475;2.4254;
1239.3000;0.2475;2.4229;
1239.6000;0.2450;2.4154;
1239.9000;0.2475;2.4179;
1240.2000;0.2475;2.4229;
1240.5000;0.2475;2.4154;
1240.8000;0.2466;2.4079;
1241.1000;0.2532;2.4229;
1241.4000;0.2475;2.4129;
1241.7000;0.2523;2.4179;
1242.0000;0.2475;2.4129;
1242.3000;0.2491;2.4179;
1242.6000;0.2458;2.4104;
1242.9000;0.2475;2.4129;
1243.2000;0.2466;2.4079;
1243.5000;0.2466;2.4154;
1243.8000;0.2466;2.4154;
1244.1000;0.2475;2.4079;
1244.4000;0.2401;2.3853;
1244.7000;0.2466;2.4029;
1245.0000;0.2466;2.4004;
1245.3000;0.2507;2.4029;
1245.6000;0.2458;2.3904;
1245.9000;0.2475;2.3879;
1246.2000;0.2466;2.3853;
1246.5000;0.2475;2.3954;
1246.8000;0.2483;2.4029;
1247.1000;0.2434;2.4004;
1247.4000;0.2458;2.4104;
1247.7000;0.2458;2.4129;
1248.0000;0.2475;2.4129;
1248.3000;0.2466;2.4154;
1248.6000;0.2466;2.4154;
1248.9000;0.2475;2.4104;
1249.2000;0.2352;2.3778;
1249.5000;0.2475;2.3979;
1249.8000;0.2491;2.4029;
1250.1000;0.2393;2.3728;
1250.4000;0.2466;2.3979;
1250.7000;0.2475;2.3879;
1251.0000;0.2483;2.3929;
1251.3000;0.2523;2.4029;
1251.6000;0.2491;2.4029;
1251.9000;0.2450;2.3904;
1252.2000;0.2572;2.4304;
1252.5000;0.2458;2.3904;
1252.8000;0.2458;2.3879;
1253.1000;0.2491;2.4029;
1253.4000;0.2475;2.4054;
1253.7000;0.2466;2.3954;
1254.0000;0.2466;2.4004;
1254.3000;0.2426;2.3904;
1254.6000;0.2450;2.4054;
1254.9000;0.2466;2.4079;
1255.2000;0.2458;2.3979;
1255.5000;0.2466;2.3954;
1255.8000;0.2450;2.3954;
1256.1000;0.2466;2.3929;
1256.4000;0.2458;2.3879;
1256.7000;0.2458;2.3853;
1257.0000;0.2499;2.3979;
1257.3000;0.2572;2.4254;
1257.6000;0.2475;2.3904;
1257.9000;0.2475;2.3904;
1258.2000;0.2442;2.3778;
1258.5000;0.2466;2.3753;
1258.8000;0.2491;2.3803;
1259.1000;0.2466;2.3853;
1259.4000;0.2475;2.3929;
1259.7000;0.2499;2.3979;
1260.0000;0.2483;2.3904;
1260.3000;0.2483;2.3853;
1260.6000;0.2483;2.3828;
1260.9000;0.2450;2.3828;
1261.2000;0.2466;2.3904;
1261.5000;0.2507;2.3979;
1261.8000;0.2450;2.3954;
1262.1000;0.2499;2.4029;
1262.4000;0.2475;2.4054;
1262.7000;0.2466;2.4079;
1263.0000;0.2475;2.4029;
1263.3000;0.2475;2.4029;
1263.6000;0.2483;2.3929;
1263.9000;0.2475;2.3879;
1264.2000;0.2491;2.3904;
1264.5000;0.2442;2.3778;
1264.8000;0.2475;2.3828;
1265.1000;0.2450;2.3778;
1265.4000;0.2442;2.3803;
1265.7000;0.2491;2.3879;
1266.0000;0.2450;2.3753;
1266.3000;0.2475;2.3853;
1266.6000;0.2458;2.3904;
1266.9000;0.2483;2.4054;
1267.2000;0.2499;2.4129;
1267.5000;0.2442;2.3979;
1267.8000;0.2466;2.4029;
1268.1000;0.2475;2.4054;
1268.4000;0.2352;2.3703;
1268.7000;0.2442;2.3904;
1269.0000;0.2483;2.3853;
1269.3000;0.2458;2.3879;
1269.6000;0.2475;2.3853;
1269.9000;0.2491;2.3879;
1270.2000;0.2450;2.3828;
1270.5000;0.2466;2.3979;
1270.8000;0.2475;2.4029;
1271.1000;0.2450;2.3904;
1271.4000;0.2483;2.4029;
1271.7000;0.2491;2.4004;
1272.0000;0.2458;2.4029;
1272.3000;0.2434;2.3904;
1272.6000;0.2475;2.4054;
1272.9000;0.2466;2.4029;
1273.2000;0.2556;2.4354;
1273.5000;0.2475;2.4129;
1273.8000;0.2466;2.4129;
1274.1000;0.2393;2.3879;
1274.4000;0.2458;2.4029;
1274.7000;0.2483;2.4104;
1275.0000;0.2458;2.4079;
1275.3000;0.2580;2.4279;
1275.6000;0.2466;2.3979;
1275.9000;0.2426;2.3904;
1276.2000;0.2401;2.3803;
1276.5000;0.2450;2.3879;
1276.8000;0.2491;2.4054;
1277.1000;0.2475;2.4004;
1277.4000;0.2458;2.3828;
1277.7000;0.2483;2.3879;
1278.0000;0.2491;2.3904;
1278.3000;0.2515;2.3954;
1278.6000;0.2466;2.3929;
1278.9000;0.2483;2.4029;
1279.2000;0.2466;2.3879;
1279.5000;0.2475;2.3853;
1279.8000;0.2556;2.4029;
1280.1000;0.2483;2.3803;
1280.4000;0.2475;2.3728;
1280.7000;0.2483;2.3904;
1281.0000;0.2499;2.3954;
1281.3000;0.2475;2.3853;
1281.6000;0.2483;2.3904;
1281.9000;0.2483;2.3954;
1282.2000;0.2466;2.4004;
1282.5000;0.2409;2.3703;
1282.8000;0.2491;2.4004;
1283.1000;0.2475;2.3929;
1283.4000;0.2499;2.4004;
1283.7000;0.2483;2.3979;
1284.0000;0.2475;2.4029;
1284.3000;0.2483;2.4079;
1284.6000;0.2466;2.4054;
1284.9000;0.2483;2.4079;
1285.2000;0.2466;2.4029;
1285.5000;0.2434;2.3979;
1285.8000;0.2491;2.4154;
1286.1000;0.2466;2.4079;
1286.4000;0.2491;2.4154;
1286.7000;0.2483;2.4079;
1287.0000;0.2515;2.4054;
1287.3000;0.2499;2.3853;
1287.6000;0.2466;2.3803;
1287.9000;0.2491;2.3929;
1288.2000;0.2491;2.4029;
1288.5000;0.2450;2.3904;
1288.8000;0.2499;2.4004;
1289.1000;0.2499;2.4004;
1289.4000;0.2442;2.3778;
1289.7000;0.2491;2.3879;
1290.0000;0.2458;2.3828;
1290.3000;0.2434;2.3753;
1290.6000;0.2475;2.3879;
1290.9000;0.2491;2.3929;
1291.2000;0.2515;2.4154;
1291.5000;0.2475;2.4104;
1291.8000;0.2491;2.4129;
1292.1000;0.2466;2.4079;
1292.4000;0.2426;2.3879;
1292.7000;0.2483;2.3979;
1293.0000;0.2564;2.4304;
1293.3000;0.2499;2.4079;
1293.6000;0.2466;2.3954;
1293.9000;0.2491;2.3954;
1294.2000;0.2466;2.3979;
1294.5000;0.2483;2.4054;
1294.8000;0.2475;2.4104;
1295.1000;0.2491;2.4154;
1295.4000;0.2491;2.4104;
1295.7000;0.2491;2.4054;
1296.0000;0.2475;2.3979;
1296.3000;0.2442;2.3954;
1296.6000;0.2483;2.4054;
1296.9000;0.2491;2.4104;
1297.2000;0.2475;2.4079;
1297.5000;0.2466;2.4054;
1297.8000;0.2483;2.4054;
1298.1000;0.2499;2.4054;
1298.4000;0.2483;2.4104;
1298.7000;0.2491;2.4154;
1299.0000;0.2442;2.4054;
1299.3000;0.2491;2.4179;
1299.6000;0.2466;2.4154;
1299.9000;0.2483;2.4204;
1300.2000;0.2491;2.4254;
1300.5000;0.2320;2.3803;
1300.8000;0.2475;2.4254;
1301.1000;0.2450;2.4154;
1301.4000;0.2466;2.4054;
1301.7000;0.2499;2.4029;
1302.0000;0.2491;2.3954;
1302.3000;0.2483;2.3979;
1302.6000;0.2475;2.3954;
1302.9000;0.2475;2.3929;
1303.2000;0.2450;2.3904;
1303.5000;0.2491;2.4029;
1303.8000;0.2466;2.3879;
1304.1000;0.2483;2.3954;
1304.4000;0.2475;2.3979;
1304.7000;0.2466;2.3979;
1305.0000;0.2466;2.3929;
1305.3000;0.2434;2.3904;
1305.6000;0.2475;2.4004;
1305.9000;0.2507;2.4054;
1306.2000;0.2483;2.3929;
1306.5000;0.2458;2.3904;
1306.8000;0.2523;2.4104;
1307.1000;0.2564;2.4329;
1307.4000;0.2475;2.4129;
1307.7000;0.2458;2.4029;
1308.0000;0.2450;2.4004;
1308.3000;0.2515;2.4129;
1308.6000;0.2475;2.4029;
1308.9000;0.2442;2.3954;
1309.2000;0.2483;2.4079;
1309.5000;0.2475;2.4004;
1309.8000;0.2475;2.3979;
1310.1000;0.2532;2.4204;
1310.4000;0.2466;2.3979;
1310.7000;0.2458;2.3929;
1311.0000;0.2499;2.4054;
1311.3000;0.2507;2.4004;
1311.6000;0.2385;2.3728;
1311.9000;0.2499;2.4104;
1312.2000;0.2491;2.4029;
1312.5000;0.2491;2.4004;
1312.8000;0.2491;2.4029;
1313.1000;0.2491;2.4004;
1313.4000;0.2491;2.3979;
1313.7000;0.2483;2.3879;
1314.0000;0.2458;2.3904;
1314.3000;0.2328;2.3603;
1314.6000;0.2580;2.4304;
1314.9000;0.2466;2.4079;
1315.2000;0.2458;2.4029;
1315.5000;0.2466;2.4104;
1315.8000;0.2450;2.4004;
1316.1000;0.2475;2.4104;
1316.4000;0.2434;2.3954;
1316.7000;0.2271;2.3478;
1317.0000;0.2377;2.3803;
1317.3000;0.2352;2.3828;
1317.6000;0.2466;2.4104;
1317.9000;0.2499;2.4129;
1318.2000;0.2475;2.4079;
1318.5000;0.2499;2.4104;
1318.8000;0.2499;2.4029;
1319.1000;0.2377;2.3628;
1319.4000;0.2491;2.3954;
1319.7000;0.2483;2.3929;
1320.0000;0.2483;2.3879;
1320.3000;0.2483;2.3929;
1320.6000;0.2475;2.3904;
1320.9000;0.2466;2.3828;
1321.2000;0.2475;2.3904;
1321.5000;0.2458;2.3879;
1321.8000;0.2458;2.3828;
1322.1000;0.2475;2.3929;
1322.4000;0.2556;2.4129;
1322.7000;0.2523;2.4054;
1323.0000;0.2491;2.3929;
1323.3000;0.2548;2.4154;
1323.6000;0.2491;2.3954;
1323.9000;0.2466;2.3929;
1324.2000;0.2572;2.4279;
1324.5000;0.2466;2.3929;
1324.8000;0.2475;2.3879;
1325.1000;0.2409;2.3678;
1325.4000;0.2466;2.3753;
1325.7000;0.2475;2.3778;
1326.0000;0.2475;2.3803;
1326.3000;0.2491;2.3803;
1326.6000;0.2475;2.3803;
1326.9000;0.2466;2.3879;
1327.2000;0.2499;2.4004;
1327.5000;0.2491;2.4029;
1327.8000;0.2507;2.4104;
1328.1000;0.2483;2.4004;
1328.4000;0.2458;2.3979;
1328.7000;0.2450;2.3979;
1329.0000;0.2475;2.4154;
1329.3000;0.2458;2.4104;
1329.6000;0.2483;2.4129;
1329.9000;0.2466;2.4079;
1330.2000;0.2483;2.4029;
1330.5000;0.2475;2.3954;
1330.8000;0.2475;2.4004;
1331.1000;0.2540;2.4154;
1331.4000;0.2450;2.3879;
1331.7000;0.2418;2.3778;
1332.0000;0.2556;2.4254;
1332.3000;0.2491;2.3979;
1332.6000;0.2475;2.3979;
1332.9000;0.2458;2.3929;
1333.2000;0.2475;2.3904;
1333.5000;0.2458;2.3929;
1333.8000;0.2483;2.4004;
1334.1000;0.2458;2.3929;
1334.4000;0.2466;2.3979;
1334.7000;0.2475;2.4029;
1335.0000;0.2475;2.4004;
1335.3000;0.2466;2.3904;
1335.6000;0.2483;2.3954;
1335.9000;0.2458;2.3853;
1336.2000;0.2483;2.3979;
1336.5000;0.2475;2.3954;
1336.8000;0.2475;2.4004;
1337.1000;0.2507;2.4079;
1337.4000;0.2475;2.3904;
1337.7000;0.2426;2.3728;
1338.0000;0.2491;2.4004;
1338.3000;0.2483;2.4004;
1338.6000;0.2458;2.3929;
1338.9000;0.2483;2.3929;
1339.2000;0.2475;2.3853;
1339.5000;0.2450;2.3828;
1339.8000;0.2548;2.4104;
1340.1000;0.2491;2.3904;
1340.4000;0.2483;2.3853;
1340.7000;0.2466;2.3753;
1341.0000;0.2418;2.3678;
1341.3000;0.2507;2.4054;
1341.6000;0.2515;2.4054;
1341.9000;0.2458;2.3904;
1342.2000;0.2442;2.3828;
1342.5000;0.2515;2.4079;
1342.8000;0.2499;2.4054;
1343.1000;0.2466;2.4004;
1343.4000;0.2475;2.4104;
1343.7000;0.2483;2.4154;
1344.0000;0.2328;2.3728;
1344.3000;0.2458;2.4129;
1344.6000;0.2475;2.4054;
1344.9000;0.2458;2.4004;
1345.2000;0.2532;2.4204;
1345.5000;0.2499;2.4179;
1345.8000;0.2475;2.4129;
1346.1000;0.2580;2.4304;
1346.4000;0.2491;2.4004;
1346.7000;0.2499;2.4079;
1347.0000;0.2466;2.3904;
1347.3000;0.2418;2.3753;
1347.6000;0.2466;2.3954;
1347.9000;0.2475;2.3979;
1348.2000;0.2483;2.4104;
1348.5000;0.2458;2.4054;
1348.8000;0.2475;2.4129;
1349.1000;0.2515;2.4179;
1349.4000;0.2466;2.4079;
1349.7000;0.2483;2.4129;
1350.0000;0.2475;2.4204;
1350.3000;0.2499;2.4229;
1350.6000;0.2475;2.4154;
1350.9000;0.2483;2.4104;
1351.2000;0.2434;2.4029;
1351.5000;0.2458;2.4104;
1351.8000;0.2475;2.4029;
1352.1000;0.2458;2.3879;
1352.4000;0.2483;2.3954;
1352.7000;0.2434;2.3879;
1353.0000;0.2499;2.3979;
1353.3000;0.2475;2.3929;
1353.6000;0.2466;2.3929;
1353.9000;0.2499;2.4029;
1354.2000;0.2450;2.3879;
1354.5000;0.2450;2.3954;
1354.8000;0.2475;2.3954;
1355.1000;0.2385;2.3653;
1355.4000;0.2475;2.3879;
1355.7000;0.2450;2.3853;
1356.0000;0.2483;2.3954;
1356.3000;0.2499;2.4079;
1356.6000;0.2499;2.4029;
1356.9000;0.2548;2.4204;
1357.2000;0.2466;2.3929;
1357.5000;0.2458;2.4004;
1357.8000;0.2466;2.4029;
1358.1000;0.2491;2.4104;
1358.4000;0.2458;2.4004;
1358.7000;0.2466;2.4104;
1359.0000;0.2466;2.4129;
1359.3000;0.2483;2.4204;
1359.6000;0.2491;2.4079;
1359.9000;0.2475;2.3979;
1360.2000;0.2637;2.4429;
1360.5000;0.2426;2.3904;
1360.8000;0.2442;2.4004;
1361.1000;0.2450;2.4029;
1361.4000;0.2466;2.4104;
1361.7000;0.2475;2.4179;
1362.0000;0.2475;2.4154;
1362.3000;0.2458;2.4079;
1362.6000;0.2466;2.4079;
1362.9000;0.2483;2.4129;
1363.2000;0.2491;2.4154;
1363.5000;0.2450;2.4054;
1363.8000;0.2499;2.4104;
1364.1000;0.2442;2.4004;
1364.4000;0.2483;2.4129;
1364.7000;0.2450;2.4054;
1365.0000;0.2352;2.3803;
1365.3000;0.2450;2.4104;
1365.6000;0.2466;2.4104;
1365.9000;0.2450;2.4129;
1366.2000;0.2556;2.4379;
1366.5000;0.2475;2.4004;
1366.8000;0.2483;2.3979;
1367.1000;0.2450;2.3803;
1367.4000;0.2450;2.3803;
1367.7000;0.2418;2.3728;
1368.0000;0.2515;2.3954;
1368.3000;0.2466;2.3778;
1368.6000;0.2532;2.3979;
1368.9000;0.2499;2.3979;
1369.2000;0.2466;2.3904;
1369.5000;0.2466;2.3879;
1369.8000;0.2450;2.3828;
1370.1000;0.2466;2.3879;
1370.4000;0.2515;2.3904;
1370.7000;0.2426;2.3703;
1371.0000;0.2499;2.3853;
1371.3000;0.2483;2.3678;
1371.6000;0.2564;2.3929;
1371.9000;0.2499;2.3778;
1372.2000;0.2466;2.3678;
1372.5000;0.2475;2.3703;
1372.8000;0.2466;2.3803;
1373.1000;0.2491;2.3879;
1373.4000;0.2483;2.3879;
1373.7000;0.2466;2.3879;
1374.0000;0.2450;2.3853;
1374.3000;0.2507;2.3979;
1374.6000;0.2499;2.3954;
1374.9000;0.2450;2.3803;
1375.2000;0.2491;2.3853;
1375.5000;0.2483;2.3828;
1375.8000;0.2475;2.3879;
1376.1000;0.2401;2.3703;
1376.4000;0.2458;2.3703;
1376.7000;0.2458;2.3703;
1377.0000;0.2458;2.3703;
1377.3000;0.2466;2.3728;
1377.6000;0.2483;2.3653;
1377.9000;0.2483;2.3653;
1378.2000;0.2499;2.3628;
1378.5000;0.2450;2.3503;
1378.8000;0.2491;2.3628;
1379.1000;0.2548;2.3929;
1379.4000;0.2458;2.3753;
1379.7000;0.2466;2.3678;
1380.0000;0.2450;2.3678;
1380.3000;0.2507;2.3828;
1380.6000;0.2458;2.3753;
1380.9000;0.2475;2.3703;
1381.2000;0.2491;2.3703;
1381.5000;0.2499;2.3853;
1381.8000;0.2458;2.3778;
1382.1000;0.2458;2.3703;
1382.4000;0.2499;2.3879;
1382.7000;0.2475;2.3879;
1383.0000;0.2499;2.3879;
1383.3000;0.2475;2.3753;
1383.6000;0.2491;2.3828;
1383.9000;0.2466;2.3853;
1384.2000;0.2491;2.3904;
1384.5000;0.2507;2.3828;
1384.8000;0.2483;2.3678;
1385.1000;0.2572;2.3979;
1385.4000;0.2352;2.3353;
1385.7000;0.2499;2.3803;
1386.0000;0.2475;2.3828;
1386.3000;0.2540;2.4029;
1386.6000;0.2483;2.3853;
1386.9000;0.2466;2.3879;
1387.2000;0.2466;2.3853;
1387.5000;0.2466;2.3753;
1387.8000;0.2475;2.3728;
1388.1000;0.2483;2.3778;
1388.4000;0.2442;2.3803;
1388.7000;0.2475;2.3828;
1389.0000;0.2491;2.3904;
1389.3000;0.2483;2.3929;
1389.6000;0.2475;2.3778;
1389.9000;0.2572;2.4079;
1390.2000;0.2491;2.3778;
1390.5000;0.2483;2.3728;
1390.8000;0.2466;2.3728;
1391.1000;0.2491;2.3778;
1391.4000;0.2491;2.3828;
1391.7000;0.2483;2.3828;
1392.0000;0.2483;2.3853;
1392.3000;0.2475;2.3879;
1392.6000;0.2466;2.3879;
1392.9000;0.2450;2.3828;
1393.2000;0.2515;2.4004;
1393.5000;0.2475;2.3828;
1393.8000;0.2466;2.3853;
1394.1000;0.2450;2.3803;
1394.4000;0.2418;2.3603;
1394.7000;0.2466;2.3703;
1395.0000;0.2483;2.3803;
1395.3000;0.2377;2.3553;
1395.6000;0.2466;2.3778;
1395.9000;0.2483;2.3828;
1396.2000;0.2475;2.3803;
1396.5000;0.2475;2.3828;
1396.8000;0.2466;2.3628;
1397.1000;0.2483;2.3603;
1397.4000;0.2483;2.3653;
1397.7000;0.2483;2.3703;
1398.0000;0.2466;2.3728;
1398.3000;0.2483;2.3778;
1398.6000;0.2483;2.3753;
1398.9000;0.2475;2.3778;
1399.2000;0.2450;2.3753;
1399.5000;0.2401;2.3628;
1399.8000;0.2475;2.3904;
