time/ms;Fluo/V;P700 deltaI/I x10³;
-199.8000;0.2483;2.3103;
-199.5000;0.2344;2.2652;
-199.2000;0.2523;2.3278;
-198.9000;0.2515;2.3253;
-198.6000;0.2418;2.3027;
-198.3000;0.2532;2.3453;
-198.0000;0.2499;2.3378;
-197.7000;0.2580;2.3653;
-197.4000;0.2458;2.3428;
-197.1000;0.2532;2.3728;
-196.8000;0.2499;2.3603;
-196.5000;0.2654;2.3929;
-196.2000;0.2532;2.3628;
-195.9000;0.2532;2.3653;
-195.6000;0.2637;2.3753;
-195.3000;0.2589;2.3653;
-195.0000;0.2507;2.3378;
-194.7000;0.2491;2.3278;
-194.4000;0.2613;2.3628;
-194.1000;0.2605;2.3628;
-193.8000;0.2507;2.3328;
-193.5000;0.2515;2.3453;
-193.2000;0.2499;2.3328;
-192.9000;0.2475;2.3253;
-192.6000;0.2523;2.3378;
-192.3000;0.2475;2.3203;
-192.0000;0.2589;2.3378;
-191.7000;0.2523;2.3228;
-191.4000;0.2475;2.3178;
-191.1000;0.2483;2.3228;
-190.8000;0.2605;2.3603;
-190.5000;0.2589;2.3453;
-190.2000;0.2515;2.3153;
-189.9000;0.2450;2.2977;
-189.6000;0.2377;2.2702;
-189.3000;0.2523;2.3153;
-189.0000;0.2507;2.3153;
-188.7000;0.2491;2.3103;
-188.4000;0.2515;2.3178;
-188.1000;0.2548;2.3303;
-187.8000;0.2491;2.3203;
-187.5000;0.2532;2.3303;
-187.2000;0.2613;2.3578;
-186.9000;0.2458;2.3153;
-186.6000;0.2523;2.3353;
-186.3000;0.2507;2.3378;
-186.0000;0.2450;2.3228;
-185.7000;0.2523;2.3478;
-185.4000;0.2515;2.3453;
-185.1000;0.2499;2.3403;
-184.8000;0.2523;2.3503;
-184.5000;0.2523;2.3478;
-184.2000;0.2564;2.3478;
-183.9000;0.2572;2.3578;
-183.6000;0.2523;2.3453;
-183.3000;0.2450;2.3178;
-183.0000;0.2426;2.3153;
-182.7000;0.2515;2.3528;
-182.4000;0.2409;2.3103;
-182.1000;0.2515;2.3328;
-181.8000;0.2458;2.3228;
-181.5000;0.2621;2.3578;
-181.2000;0.2515;2.3278;
-180.9000;0.2499;2.3203;
-180.6000;0.2458;2.3128;
-180.3000;0.2515;2.3428;
-180.0000;0.2442;2.3303;
-179.7000;0.2515;2.3378;
-179.4000;0.2507;2.3253;
-179.1000;0.2515;2.3278;
-178.8000;0.2523;2.3278;
-178.5000;0.2523;2.3203;
-178.2000;0.2499;2.3153;
-177.9000;0.2515;2.3203;
-177.6000;0.2507;2.3278;
-177.3000;0.2499;2.3278;
-177.0000;0.2572;2.3453;
-176.7000;0.2532;2.3328;
-176.4000;0.2499;2.3253;
-176.1000;0.2499;2.3303;
-175.8000;0.2548;2.3478;
-175.5000;0.2523;2.3278;
-175.2000;0.2532;2.3353;
-174.9000;0.2483;2.3203;
-174.6000;0.2491;2.3278;
-174.3000;0.2499;2.3353;
-174.0000;0.2483;2.3303;
-173.7000;0.2523;2.3453;
-173.4000;0.2499;2.3378;
-173.1000;0.2515;2.3403;
-172.8000;0.2523;2.3428;
-172.5000;0.2532;2.3453;
-172.2000;0.2475;2.3278;
-171.9000;0.2515;2.3403;
-171.6000;0.2491;2.3428;
-171.3000;0.2532;2.3403;
-171.0000;0.2458;2.3253;
-170.7000;0.2442;2.3153;
-170.4000;0.2507;2.3153;
-170.1000;0.2434;2.2852;
-169.8000;0.2483;2.3128;
-169.5000;0.2548;2.3278;
-169.2000;0.2523;2.3153;
-168.9000;0.2507;2.3153;
-168.6000;0.2621;2.3453;
-168.3000;0.2523;2.3253;
-168.0000;0.2491;2.3128;
-167.7000;0.2662;2.3628;
-167.4000;0.2507;2.3228;
-167.1000;0.2515;2.3203;
-166.8000;0.2589;2.3428;
-166.5000;0.2523;2.3303;
-166.2000;0.2540;2.3353;
-165.9000;0.2613;2.3578;
-165.6000;0.2515;2.3353;
-165.3000;0.2483;2.3278;
-165.0000;0.2670;2.3753;
-164.7000;0.2507;2.3253;
-164.4000;0.2523;2.3303;
-164.1000;0.2515;2.3253;
-163.8000;0.2540;2.3203;
-163.5000;0.2540;2.3303;
-163.2000;0.2515;2.3278;
-162.9000;0.2523;2.3378;
-162.6000;0.2564;2.3603;
-162.3000;0.2442;2.3178;
-162.0000;0.2572;2.3503;
-161.7000;0.2515;2.3303;
-161.4000;0.2515;2.3328;
-161.1000;0.2507;2.3353;
-160.8000;0.2532;2.3428;
-160.5000;0.2483;2.3328;
-160.2000;0.2515;2.3353;
-159.9000;0.2458;2.3128;
-159.6000;0.2507;2.3153;
-159.3000;0.2532;2.3303;
-159.0000;0.2499;2.3278;
-158.7000;0.2523;2.3378;
-158.4000;0.2507;2.3278;
-158.1000;0.2491;2.3228;
-157.8000;0.2507;2.3228;
-157.5000;0.2515;2.3278;
-157.2000;0.2499;2.3178;
-156.9000;0.2523;2.3203;
-156.6000;0.2515;2.3253;
-156.3000;0.2507;2.3178;
-156.0000;0.2491;2.3203;
-155.7000;0.2532;2.3278;
-155.4000;0.2548;2.3303;
-155.1000;0.2426;2.3053;
-154.8000;0.2442;2.3078;
-154.5000;0.2597;2.3528;
-154.2000;0.2507;2.3303;
-153.9000;0.2523;2.3278;
-153.6000;0.2532;2.3178;
-153.3000;0.2458;2.2977;
-153.0000;0.2523;2.3178;
-152.7000;0.2540;2.3178;
-152.4000;0.2466;2.3053;
-152.1000;0.2515;2.3228;
-151.8000;0.2564;2.3428;
-151.5000;0.2499;2.3328;
-151.2000;0.2523;2.3378;
-150.9000;0.2556;2.3453;
-150.6000;0.2523;2.3378;
-150.3000;0.2466;2.3228;
-150.0000;0.2515;2.3328;
-149.7000;0.2515;2.3353;
-149.4000;0.2515;2.3278;
-149.1000;0.2466;2.3178;
-148.8000;0.2442;2.3078;
-148.5000;0.2483;2.3178;
-148.2000;0.2515;2.3278;
-147.9000;0.2491;2.3228;
-147.6000;0.2507;2.3228;
-147.3000;0.2499;2.3228;
-147.0000;0.2532;2.3278;
-146.7000;0.2507;2.3228;
-146.4000;0.2523;2.3203;
-146.1000;0.2523;2.3203;
-145.8000;0.2532;2.3328;
-145.5000;0.2597;2.3528;
-145.2000;0.2499;2.3303;
-144.9000;0.2491;2.3253;
-144.6000;0.2499;2.3278;
-144.3000;0.2523;2.3353;
-144.0000;0.2532;2.3303;
-143.7000;0.2523;2.3328;
-143.4000;0.2515;2.3353;
-143.1000;0.2499;2.3278;
-142.8000;0.2483;2.3128;
-142.5000;0.2491;2.3078;
-142.2000;0.2515;2.3228;
-141.9000;0.2515;2.3203;
-141.6000;0.2499;2.3053;
-141.3000;0.2515;2.3128;
-141.0000;0.2499;2.3002;
-140.7000;0.2507;2.3103;
-140.4000;0.2466;2.2952;
-140.1000;0.2515;2.3153;
-139.8000;0.2499;2.3103;
-139.5000;0.2532;2.3128;
-139.2000;0.2548;2.3203;
-138.9000;0.2523;2.3128;
-138.6000;0.2507;2.3128;
-138.3000;0.2466;2.3103;
-138.0000;0.2507;2.3203;
-137.7000;0.2515;2.3228;
-137.4000;0.2548;2.3303;
-137.1000;0.2523;2.3228;
-136.8000;0.2532;2.3178;
-136.5000;0.2483;2.2977;
-136.2000;0.2532;2.3153;
-135.9000;0.2491;2.2977;
-135.6000;0.2401;2.2677;
-135.3000;0.2523;2.3002;
-135.0000;0.2523;2.3002;
-134.7000;0.2507;2.3053;
-134.4000;0.2515;2.3027;
-134.1000;0.2499;2.3002;
-133.8000;0.2515;2.3078;
-133.5000;0.2515;2.3203;
-133.2000;0.2499;2.3178;
-132.9000;0.2507;2.3153;
-132.6000;0.2458;2.2927;
-132.3000;0.2515;2.3203;
-132.0000;0.2483;2.3027;
-131.7000;0.2540;2.3178;
-131.4000;0.2434;2.2952;
-131.1000;0.2483;2.3103;
-130.8000;0.2450;2.3053;
-130.5000;0.2564;2.3203;
-130.2000;0.2621;2.3403;
-129.9000;0.2515;2.3053;
-129.6000;0.2523;2.3078;
-129.3000;0.2548;2.3228;
-129.0000;0.2523;2.3128;
-128.7000;0.2466;2.3053;
-128.4000;0.2507;2.3103;
-128.1000;0.2507;2.3103;
-127.8000;0.2613;2.3453;
-127.5000;0.2499;2.3078;
-127.2000;0.2515;2.3228;
-126.9000;0.2523;2.3228;
-126.6000;0.2475;2.3178;
-126.3000;0.2491;2.3178;
-126.0000;0.2458;2.3078;
-125.7000;0.2515;2.3278;
-125.4000;0.2475;2.3103;
-125.1000;0.2499;2.3078;
-124.8000;0.2515;2.3053;
-124.5000;0.2499;2.3002;
-124.2000;0.2507;2.2977;
-123.9000;0.2515;2.2952;
-123.6000;0.2515;2.2977;
-123.3000;0.2499;2.2827;
-123.0000;0.2532;2.2902;
-122.7000;0.2507;2.2777;
-122.4000;0.2523;2.2752;
-122.1000;0.2515;2.2677;
-121.8000;0.2491;2.2777;
-121.5000;0.2426;2.2577;
-121.2000;0.2499;2.2802;
-120.9000;0.2532;2.2877;
-120.6000;0.2483;2.2777;
-120.3000;0.2499;2.2927;
-120.0000;0.2491;2.2852;
-119.7000;0.2532;2.2852;
-119.4000;0.2491;2.2802;
-119.1000;0.2523;2.2927;
-118.8000;0.2507;2.2877;
-118.5000;0.2523;2.2852;
-118.2000;0.2475;2.2802;
-117.9000;0.2499;2.2952;
-117.6000;0.2532;2.3078;
-117.3000;0.2580;2.3178;
-117.0000;0.2523;2.3128;
-116.7000;0.2483;2.3002;
-116.4000;0.2507;2.3027;
-116.1000;0.2499;2.3027;
-115.8000;0.2548;2.3178;
-115.5000;0.2483;2.3027;
-115.2000;0.2580;2.3353;
-114.9000;0.2491;2.3053;
-114.6000;0.2426;2.2827;
-114.3000;0.2483;2.3002;
-114.0000;0.2491;2.3078;
-113.7000;0.2540;2.3178;
-113.4000;0.2426;2.2827;
-113.1000;0.2507;2.3053;
-112.8000;0.2499;2.3027;
-112.5000;0.2507;2.3002;
-112.2000;0.2540;2.3203;
-111.9000;0.2507;2.3078;
-111.6000;0.2589;2.3278;
-111.3000;0.2507;2.2952;
-111.0000;0.2418;2.2777;
-110.7000;0.2491;2.3128;
-110.4000;0.2491;2.3078;
-110.1000;0.2499;2.3128;
-109.8000;0.2515;2.3128;
-109.5000;0.2532;2.3128;
-109.2000;0.2515;2.3002;
-108.9000;0.2491;2.2902;
-108.6000;0.2532;2.3027;
-108.3000;0.2507;2.2977;
-108.0000;0.2678;2.3528;
-107.7000;0.2499;2.3053;
-107.4000;0.2499;2.2952;
-107.1000;0.2515;2.3002;
-106.8000;0.2532;2.3078;
-106.5000;0.2523;2.3027;
-106.2000;0.2507;2.3103;
-105.9000;0.2532;2.3228;
-105.6000;0.2515;2.3178;
-105.3000;0.2507;2.3153;
-105.0000;0.2507;2.3103;
-104.7000;0.2344;2.2677;
-104.4000;0.2499;2.3178;
-104.1000;0.2491;2.3178;
-103.8000;0.2523;2.3203;
-103.5000;0.2499;2.3128;
-103.2000;0.2532;2.3178;
-102.9000;0.2499;2.3228;
-102.6000;0.2515;2.3128;
-102.3000;0.2523;2.3153;
-102.0000;0.2507;2.3128;
-101.7000;0.2597;2.3303;
-101.4000;0.2499;2.3002;
-101.1000;0.2499;2.3027;
-100.8000;0.2499;2.3002;
-100.5000;0.2491;2.3027;
-100.2000;0.2507;2.3053;
-99.9000;0.2499;2.3078;
-99.6000;0.2499;2.3053;
-99.3000;0.2507;2.3053;
-99.0000;0.2507;2.3078;
-98.7000;0.2523;2.3203;
-98.4000;0.2507;2.3228;
-98.1000;0.2515;2.3128;
-97.8000;0.2483;2.3027;
-97.5000;0.2532;2.3203;
-97.2000;0.2499;2.3053;
-96.9000;0.2507;2.3103;
-96.6000;0.2507;2.3027;
-96.3000;0.2499;2.3078;
-96.0000;0.2515;2.3153;
-95.7000;0.2475;2.3153;
-95.4000;0.2515;2.3353;
-95.1000;0.2589;2.3428;
-94.8000;0.2532;2.3278;
-94.5000;0.2466;2.3078;
-94.2000;0.2499;2.3153;
-93.9000;0.2491;2.3128;
-93.6000;0.2499;2.3078;
-93.3000;0.2475;2.2952;
-93.0000;0.2507;2.2977;
-92.7000;0.2523;2.3002;
-92.4000;0.2523;2.3103;
-92.1000;0.2507;2.3053;
-91.8000;0.2515;2.3053;
-91.5000;0.2515;2.3103;
-91.2000;0.2507;2.3053;
-90.9000;0.2491;2.3027;
-90.6000;0.2499;2.3153;
-90.3000;0.2499;2.3103;
-90.0000;0.2540;2.3228;
-89.7000;0.2556;2.3278;
-89.4000;0.2450;2.2977;
-89.1000;0.2491;2.3128;
-88.8000;0.2532;2.3153;
-88.5000;0.2532;2.3253;
-88.2000;0.2523;2.3303;
-87.9000;0.2499;2.3303;
-87.6000;0.2556;2.3428;
-87.3000;0.2515;2.3453;
-87.0000;0.2499;2.3453;
-86.7000;0.2523;2.3453;
-86.4000;0.2507;2.3403;
-86.1000;0.2507;2.3328;
-85.8000;0.2499;2.3303;
-85.5000;0.2523;2.3353;
-85.2000;0.2499;2.3228;
-84.9000;0.2491;2.3303;
-84.6000;0.2466;2.3253;
-84.3000;0.2507;2.3278;
-84.0000;0.2450;2.3103;
-83.7000;0.2523;2.3278;
-83.4000;0.2499;2.3103;
-83.1000;0.2507;2.3178;
-82.8000;0.2515;2.3228;
-82.5000;0.2507;2.3278;
-82.2000;0.2507;2.3103;
-81.9000;0.2523;2.3203;
-81.6000;0.2548;2.3253;
-81.3000;0.2507;2.3203;
-81.0000;0.2499;2.3153;
-80.7000;0.2564;2.3278;
-80.4000;0.2507;2.3027;
-80.1000;0.2523;2.3078;
-79.8000;0.2597;2.3353;
-79.5000;0.2491;2.3078;
-79.2000;0.2515;2.3153;
-78.9000;0.2499;2.3103;
-78.6000;0.2499;2.3053;
-78.3000;0.2548;2.3178;
-78.0000;0.2589;2.3428;
-77.7000;0.2507;2.3228;
-77.4000;0.2523;2.3328;
-77.1000;0.2515;2.3328;
-76.8000;0.2589;2.3428;
-76.5000;0.2483;2.3153;
-76.2000;0.2515;2.3228;
-75.9000;0.2491;2.3253;
-75.6000;0.2499;2.3253;
-75.3000;0.2491;2.3178;
-75.0000;0.2515;2.3303;
-74.7000;0.2564;2.3453;
-74.4000;0.2483;2.3278;
-74.1000;0.2499;2.3178;
-73.8000;0.2523;2.3203;
-73.5000;0.2556;2.3278;
-73.2000;0.2507;2.3053;
-72.9000;0.2532;2.3203;
-72.6000;0.2507;2.3153;
-72.3000;0.2507;2.3203;
-72.0000;0.2532;2.3303;
-71.7000;0.2499;2.3178;
-71.4000;0.2515;2.3203;
-71.1000;0.2507;2.3103;
-70.8000;0.2499;2.3128;
-70.5000;0.2483;2.3103;
-70.2000;0.2458;2.3053;
-69.9000;0.2523;2.3303;
-69.6000;0.2466;2.3228;
-69.3000;0.2491;2.3278;
-69.0000;0.2515;2.3203;
-68.7000;0.2507;2.3228;
-68.4000;0.2515;2.3278;
-68.1000;0.2499;2.3203;
-67.8000;0.2409;2.2977;
-67.5000;0.2540;2.3328;
-67.2000;0.2491;2.3278;
-66.9000;0.2491;2.3278;
-66.6000;0.2523;2.3328;
-66.3000;0.2523;2.3328;
-66.0000;0.2523;2.3253;
-65.7000;0.2499;2.3228;
-65.4000;0.2499;2.3203;
-65.1000;0.2499;2.3203;
-64.8000;0.2491;2.3103;
-64.5000;0.2491;2.3002;
-64.2000;0.2499;2.2952;
-63.9000;0.2507;2.3027;
-63.6000;0.2499;2.3002;
-63.3000;0.2540;2.3002;
-63.0000;0.2523;2.2927;
-62.7000;0.2475;2.2827;
-62.4000;0.2475;2.2802;
-62.1000;0.2532;2.3002;
-61.8000;0.2450;2.2877;
-61.5000;0.2393;2.2752;
-61.2000;0.2515;2.3228;
-60.9000;0.2540;2.3203;
-60.6000;0.2515;2.3228;
-60.3000;0.2475;2.3078;
-60.0000;0.2499;2.3078;
-59.7000;0.2515;2.3078;
-59.4000;0.2523;2.3078;
-59.1000;0.2491;2.2927;
-58.8000;0.2491;2.3002;
-58.5000;0.2491;2.2952;
-58.2000;0.2499;2.3027;
-57.9000;0.2491;2.3053;
-57.6000;0.2523;2.3178;
-57.3000;0.2515;2.3128;
-57.0000;0.2507;2.3103;
-56.7000;0.2507;2.3178;
-56.4000;0.2466;2.3078;
-56.1000;0.2507;2.3178;
-55.8000;0.2515;2.3203;
-55.5000;0.2532;2.3303;
-55.2000;0.2507;2.3178;
-54.9000;0.2515;2.3178;
-54.6000;0.2507;2.3203;
-54.3000;0.2499;2.3128;
-54.0000;0.2491;2.3103;
-53.7000;0.2597;2.3553;
-53.4000;0.2475;2.3278;
-53.1000;0.2401;2.3103;
-52.8000;0.2475;2.3303;
-52.5000;0.2540;2.3453;
-52.2000;0.2515;2.3353;
-51.9000;0.2515;2.3303;
-51.6000;0.2450;2.3178;
-51.3000;0.2499;2.3253;
-51.0000;0.2548;2.3303;
-50.7000;0.2605;2.3478;
-50.4000;0.2515;2.3303;
-50.1000;0.2499;2.3253;
-49.8000;0.2507;2.3303;
-49.5000;0.2523;2.3303;
-49.2000;0.2515;2.3278;
-48.9000;0.2491;2.3203;
-48.6000;0.2532;2.3228;
-48.3000;0.2540;2.3278;
-48.0000;0.2532;2.3203;
-47.7000;0.2491;2.3128;
-47.4000;0.2491;2.3178;
-47.1000;0.2523;2.3128;
-46.8000;0.2507;2.3128;
-46.5000;0.2532;2.3153;
-46.2000;0.2426;2.2877;
-45.9000;0.2483;2.3053;
-45.6000;0.2499;2.3228;
-45.3000;0.2523;2.3278;
-45.0000;0.2515;2.3328;
-44.7000;0.2491;2.3278;
-44.4000;0.2409;2.2977;
-44.1000;0.2499;2.3278;
-43.8000;0.2507;2.3253;
-43.5000;0.2515;2.3228;
-43.2000;0.2572;2.3403;
-42.9000;0.2458;2.3128;
-42.6000;0.2475;2.3128;
-42.3000;0.2507;2.3053;
-42.0000;0.2499;2.2952;
-41.7000;0.2507;2.3002;
-41.4000;0.2532;2.3153;
-41.1000;0.2515;2.3103;
-40.8000;0.2450;2.2952;
-40.5000;0.2556;2.3228;
-40.2000;0.2515;2.3153;
-39.9000;0.2548;2.3253;
-39.6000;0.2483;2.3078;
-39.3000;0.2491;2.3103;
-39.0000;0.2499;2.3128;
-38.7000;0.2507;2.3178;
-38.4000;0.2540;2.3353;
-38.1000;0.2515;2.3278;
-37.8000;0.2507;2.3228;
-37.5000;0.2450;2.3128;
-37.2000;0.2540;2.3378;
-36.9000;0.2523;2.3278;
-36.6000;0.2507;2.3328;
-36.3000;0.2515;2.3328;
-36.0000;0.2515;2.3178;
-35.7000;0.2556;2.3278;
-35.4000;0.2426;2.2902;
-35.1000;0.2515;2.3128;
-34.8000;0.2499;2.3078;
-34.5000;0.2450;2.2952;
-34.2000;0.2499;2.3128;
-33.9000;0.2523;2.3128;
-33.6000;0.2499;2.3078;
-33.3000;0.2515;2.3103;
-33.0000;0.2540;2.3203;
-32.7000;0.2499;2.3103;
-32.4000;0.2572;2.3328;
-32.1000;0.2515;2.3178;
-31.8000;0.2540;2.3278;
-31.5000;0.2523;2.3228;
-31.2000;0.2499;2.3078;
-30.9000;0.2507;2.3078;
-30.6000;0.2499;2.3103;
-30.3000;0.2515;2.3228;
-30.0000;0.2458;2.3103;
-29.7000;0.2450;2.3103;
-29.4000;0.2523;2.3328;
-29.1000;0.2523;2.3253;
-28.8000;0.2523;2.3303;
-28.5000;0.2491;2.3328;
-28.2000;0.2515;2.3428;
-27.9000;0.2507;2.3453;
-27.6000;0.2540;2.3553;
-27.3000;0.2507;2.3528;
-27.0000;0.2515;2.3428;
-26.7000;0.2499;2.3353;
-26.4000;0.2475;2.3303;
-26.1000;0.2515;2.3478;
-25.8000;0.2483;2.3403;
-25.5000;0.2523;2.3453;
-25.2000;0.2515;2.3478;
-24.9000;0.2515;2.3528;
-24.6000;0.2556;2.3653;
-24.3000;0.2507;2.3403;
-24.0000;0.2499;2.3353;
-23.7000;0.2523;2.3278;
-23.4000;0.2540;2.3328;
-23.1000;0.2483;2.3228;
-22.8000;0.2548;2.3428;
-22.5000;0.2540;2.3353;
-22.2000;0.2523;2.3353;
-21.9000;0.2515;2.3278;
-21.6000;0.2475;2.3203;
-21.3000;0.2475;2.3203;
-21.0000;0.2507;2.3353;
-20.7000;0.2466;2.3253;
-20.4000;0.2523;2.3328;
-20.1000;0.2556;2.3528;
-19.8000;0.2515;2.3353;
-19.5000;0.2580;2.3553;
-19.2000;0.2466;2.3103;
-18.9000;0.2475;2.3178;
-18.6000;0.2580;2.3378;
-18.3000;0.2515;2.3178;
-18.0000;0.2515;2.3278;
-17.7000;0.2499;2.3278;
-17.4000;0.2499;2.3278;
-17.1000;0.2515;2.3403;
-16.8000;0.2475;2.3253;
-16.5000;0.2523;2.3378;
-16.2000;0.2491;2.3278;
-15.9000;0.2475;2.3153;
-15.6000;0.2515;2.3278;
-15.3000;0.2515;2.3278;
-15.0000;0.2499;2.3178;
-14.7000;0.2475;2.3002;
-14.4000;0.2475;2.2927;
-14.1000;0.2499;2.3103;
-13.8000;0.2556;2.3278;
-13.5000;0.2507;2.3153;
-13.2000;0.2491;2.3128;
-12.9000;0.2523;2.3153;
-12.6000;0.2523;2.3153;
-12.3000;0.2515;2.3203;
-12.0000;0.2515;2.3253;
-11.7000;0.2458;2.3153;
-11.4000;0.2532;2.3503;
-11.1000;0.2491;2.3453;
-10.8000;0.2466;2.3378;
-10.5000;0.2491;2.3453;
-10.2000;0.2491;2.3428;
-9.9000;0.2523;2.3478;
-9.6000;0.2507;2.3353;
-9.3000;0.2523;2.3478;
-9.0000;0.2523;2.3553;
-8.7000;0.2450;2.3303;
-8.4000;0.2483;2.3303;
-8.1000;0.2499;2.3328;
-7.8000;0.2483;2.3278;
-7.5000;0.2499;2.3303;
-7.2000;0.2515;2.3228;
-6.9000;0.2515;2.3303;
-6.6000;0.2589;2.3478;
-6.3000;0.2515;2.3253;
-6.0000;0.2515;2.3253;
-5.7000;0.2499;2.3228;
-5.4000;0.2507;2.3253;
-5.1000;0.2515;2.3103;
-4.8000;0.2532;2.3128;
-4.5000;0.2515;2.3128;
-4.2000;0.2507;2.3053;
-3.9000;0.2499;2.3027;
-3.6000;0.2507;2.3002;
-3.3000;0.2483;2.2952;
-3.0000;0.2507;2.3053;
-2.7000;0.2515;2.3078;
-2.4000;0.2507;2.3053;
-2.1000;0.2515;2.2977;
-1.8000;0.2491;2.2952;
-1.5000;0.2540;2.3128;
-1.2000;0.2483;2.3027;
-0.9000;0.2507;2.3002;
-0.6000;0.2515;2.3078;
-0.3000;0.2515;2.3053;
0.0000;0.2515;2.3053;
0.3000;0.2475;2.2902;
0.6000;0.2532;2.3328;
0.9000;0.2523;2.3603;
1.2000;0.2532;2.3803;
1.5000;0.2589;2.4229;
1.8000;0.2564;2.4429;
2.1000;0.2548;2.4504;
2.4000;0.2491;2.4629;
2.7000;0.2613;2.5030;
3.0000;0.2580;2.5130;
3.3000;0.2580;2.5230;
3.6000;0.2605;2.5480;
3.9000;0.2613;2.5606;
4.2000;0.2613;2.5681;
4.5000;0.2686;2.5931;
4.8000;0.2613;2.5756;
5.1000;0.2670;2.5906;
5.4000;0.2646;2.5831;
5.7000;0.2621;2.5806;
6.0000;0.2605;2.5806;
6.3000;0.2629;2.5881;
6.6000;0.2605;2.5781;
6.9000;0.2629;2.5831;
7.2000;0.2572;2.5681;
7.5000;0.2629;2.5906;
7.8000;0.2637;2.5981;
8.1000;0.2646;2.5956;
8.4000;0.2564;2.5706;
8.7000;0.2629;2.5881;
9.0000;0.2646;2.6006;
9.3000;0.2621;2.5956;
9.6000;0.2629;2.5906;
9.9000;0.2629;2.5931;
10.2000;0.2629;2.6031;
10.5000;0.2605;2.5906;
10.8000;0.2621;2.5931;
11.1000;0.2637;2.6006;
11.4000;0.2670;2.6131;
11.7000;0.2629;2.6081;
12.0000;0.2491;2.5706;
12.3000;0.2621;2.6206;
12.6000;0.2605;2.6206;
12.9000;0.2507;2.5931;
13.2000;0.2637;2.6231;
13.5000;0.2646;2.6281;
13.8000;0.2637;2.6231;
14.1000;0.2646;2.6256;
14.4000;0.2629;2.6181;
14.7000;0.2613;2.6131;
15.0000;0.2605;2.6131;
15.3000;0.2646;2.6206;
15.6000;0.2637;2.6106;
15.9000;0.2621;2.6031;
16.2000;0.2613;2.5981;
16.5000;0.2564;2.5781;
16.8000;0.2597;2.5881;
17.1000;0.2646;2.6006;
17.4000;0.2629;2.6056;
17.7000;0.2629;2.6106;
18.0000;0.2637;2.6081;
18.3000;0.2589;2.5856;
18.6000;0.2605;2.5931;
18.9000;0.2605;2.5931;
19.2000;0.2605;2.5931;
19.5000;0.2621;2.5956;
19.8000;0.2621;2.5931;
20.1000;0.2629;2.5981;
20.4000;0.2629;2.5881;
20.7000;0.2621;2.5831;
21.0000;0.2483;2.5556;
21.3000;0.2646;2.5956;
21.6000;0.2637;2.5981;
21.9000;0.2605;2.6031;
22.2000;0.2613;2.5981;
22.5000;0.2580;2.5881;
22.8000;0.2637;2.6006;
23.1000;0.2629;2.6031;
23.4000;0.2629;2.6006;
23.7000;0.2629;2.5931;
24.0000;0.2784;2.6407;
24.3000;0.2613;2.6006;
24.6000;0.2621;2.6031;
24.9000;0.2605;2.6056;
25.2000;0.2646;2.6181;
25.5000;0.2621;2.6181;
25.8000;0.2621;2.6156;
26.1000;0.2621;2.6081;
26.4000;0.2613;2.6081;
26.7000;0.2629;2.6081;
27.0000;0.2613;2.5981;
27.3000;0.2613;2.5981;
27.6000;0.2662;2.6106;
27.9000;0.2605;2.5906;
28.2000;0.2621;2.5956;
28.5000;0.2637;2.6031;
28.8000;0.2629;2.5956;
29.1000;0.2605;2.5856;
29.4000;0.2662;2.5956;
29.7000;0.2597;2.5756;
30.0000;0.2605;2.5731;
30.3000;0.2646;2.5881;
30.6000;0.2621;2.5881;
30.9000;0.2605;2.5831;
31.2000;0.2589;2.5856;
31.5000;0.2621;2.5931;
31.8000;0.2629;2.5931;
32.1000;0.2597;2.5831;
32.4000;0.2548;2.5706;
32.7000;0.2637;2.5906;
33.0000;0.2646;2.5856;
33.3000;0.2613;2.5831;
33.6000;0.2605;2.5831;
33.9000;0.2564;2.5756;
34.2000;0.2727;2.6231;
34.5000;0.2621;2.5931;
34.8000;0.2613;2.5931;
35.1000;0.2646;2.6006;
35.4000;0.2629;2.5956;
35.7000;0.2621;2.5881;
36.0000;0.2621;2.5881;
36.3000;0.2621;2.5931;
36.6000;0.2621;2.5981;
36.9000;0.2629;2.5981;
37.2000;0.2613;2.5981;
37.5000;0.2629;2.6056;
37.8000;0.2621;2.6031;
38.1000;0.2499;2.5681;
38.4000;0.2629;2.6056;
38.7000;0.2646;2.6031;
39.0000;0.2637;2.5981;
39.3000;0.2605;2.5906;
39.6000;0.2637;2.6056;
39.9000;0.2621;2.5931;
40.2000;0.2629;2.5956;
40.5000;0.2613;2.5981;
40.8000;0.2629;2.6031;
41.1000;0.2629;2.5981;
41.4000;0.2605;2.5881;
41.7000;0.2621;2.6031;
42.0000;0.2621;2.5956;
42.3000;0.2613;2.5931;
42.6000;0.2637;2.5956;
42.9000;0.2605;2.5981;
43.2000;0.2629;2.5981;
43.5000;0.2629;2.5931;
43.8000;0.2621;2.5831;
44.1000;0.2621;2.5906;
44.4000;0.2597;2.5881;
44.7000;0.2637;2.6006;
45.0000;0.2605;2.6031;
45.3000;0.2605;2.6006;
45.6000;0.2621;2.6056;
45.9000;0.2637;2.6031;
46.2000;0.2580;2.5906;
46.5000;0.2621;2.5956;
46.8000;0.2613;2.5931;
47.1000;0.2646;2.5981;
47.4000;0.2662;2.5981;
47.7000;0.2629;2.5906;
48.0000;0.2613;2.5981;
48.3000;0.2564;2.5906;
48.6000;0.2629;2.6031;
48.9000;0.2629;2.6056;
49.2000;0.2678;2.6206;
49.5000;0.2613;2.6056;
49.8000;0.2589;2.6181;
50.1000;0.2564;2.6081;
50.4000;0.2580;2.6206;
50.7000;0.2629;2.6281;
51.0000;0.2621;2.6206;
51.3000;0.2605;2.6156;
51.6000;0.2629;2.6156;
51.9000;0.2621;2.6106;
52.2000;0.2637;2.6181;
52.5000;0.2629;2.6106;
52.8000;0.2702;2.6206;
53.1000;0.2654;2.6156;
53.4000;0.2654;2.6081;
53.7000;0.2613;2.5906;
54.0000;0.2548;2.5706;
54.3000;0.2686;2.6106;
54.6000;0.2621;2.5906;
54.9000;0.2719;2.6206;
55.2000;0.2629;2.5931;
55.5000;0.2621;2.5881;
55.8000;0.2613;2.5956;
56.1000;0.2613;2.5931;
56.4000;0.2613;2.5981;
56.7000;0.2621;2.5956;
57.0000;0.2621;2.5931;
57.3000;0.2556;2.5631;
57.6000;0.2613;2.5881;
57.9000;0.2621;2.5931;
58.2000;0.2597;2.5856;
58.5000;0.2629;2.6031;
58.8000;0.2621;2.6056;
59.1000;0.2605;2.5981;
59.4000;0.2621;2.5906;
59.7000;0.2621;2.6006;
60.0000;0.2613;2.6081;
60.3000;0.2613;2.5981;
60.6000;0.2613;2.6006;
60.9000;0.2637;2.6181;
61.2000;0.2605;2.6131;
61.5000;0.2589;2.6156;
61.8000;0.2637;2.6181;
62.1000;0.2589;2.6081;
62.4000;0.2694;2.6231;
62.7000;0.2637;2.6131;
63.0000;0.2629;2.6106;
63.3000;0.2621;2.6106;
63.6000;0.2613;2.6056;
63.9000;0.2621;2.6031;
64.2000;0.2605;2.5956;
64.5000;0.2629;2.6056;
64.8000;0.2629;2.6031;
65.1000;0.2613;2.5981;
65.4000;0.2621;2.5906;
65.7000;0.2621;2.5981;
66.0000;0.2589;2.5881;
66.3000;0.2613;2.5956;
66.6000;0.2637;2.6056;
66.9000;0.2621;2.6031;
67.2000;0.2629;2.6056;
67.5000;0.2564;2.5906;
67.8000;0.2589;2.5981;
68.1000;0.2637;2.6106;
68.4000;0.2613;2.5956;
68.7000;0.2613;2.5956;
69.0000;0.2621;2.5981;
69.3000;0.2597;2.5981;
69.6000;0.2605;2.6081;
69.9000;0.2605;2.6131;
70.2000;0.2646;2.6231;
70.5000;0.2572;2.6156;
70.8000;0.2613;2.6256;
71.1000;0.2605;2.6156;
71.4000;0.2621;2.6106;
71.7000;0.2597;2.6081;
72.0000;0.2515;2.5856;
72.3000;0.2605;2.6231;
72.6000;0.2580;2.6181;
72.9000;0.2605;2.6231;
73.2000;0.2605;2.6106;
73.5000;0.2637;2.6081;
73.8000;0.2613;2.5981;
74.1000;0.2597;2.6006;
74.4000;0.2678;2.6231;
74.7000;0.2605;2.6006;
75.0000;0.2613;2.6031;
75.3000;0.2580;2.5981;
75.6000;0.2629;2.6081;
75.9000;0.2686;2.6281;
76.2000;0.2589;2.6081;
76.5000;0.2613;2.6081;
76.8000;0.2605;2.6031;
77.1000;0.2515;2.5756;
77.4000;0.2621;2.6156;
77.7000;0.2613;2.6131;
78.0000;0.2613;2.6181;
78.3000;0.2597;2.6131;
78.6000;0.2637;2.6256;
78.9000;0.2605;2.6181;
79.2000;0.2589;2.6156;
79.5000;0.2621;2.6181;
79.8000;0.2613;2.6206;
80.1000;0.2621;2.6181;
80.4000;0.2670;2.6231;
80.7000;0.2621;2.6081;
81.0000;0.2613;2.6131;
81.3000;0.2629;2.6231;
81.6000;0.2613;2.6156;
81.9000;0.2613;2.6156;
82.2000;0.2589;2.6006;
82.5000;0.2613;2.6131;
82.8000;0.2621;2.6231;
83.1000;0.2605;2.6181;
83.4000;0.2629;2.6206;
83.7000;0.2597;2.6131;
84.0000;0.2597;2.6181;
84.3000;0.2605;2.6206;
84.6000;0.2597;2.6106;
84.9000;0.2589;2.6156;
85.2000;0.2597;2.6256;
85.5000;0.2637;2.6181;
85.8000;0.2621;2.6156;
86.1000;0.2629;2.6156;
86.4000;0.2507;2.5831;
86.7000;0.2646;2.6206;
87.0000;0.2613;2.6131;
87.3000;0.2589;2.6056;
87.6000;0.2580;2.5956;
87.9000;0.2621;2.6081;
88.2000;0.2605;2.6131;
88.5000;0.2613;2.6056;
88.8000;0.2629;2.6181;
89.1000;0.2637;2.6231;
89.4000;0.2719;2.6381;
89.7000;0.2580;2.5981;
90.0000;0.2605;2.6056;
90.3000;0.2621;2.6181;
90.6000;0.2621;2.6256;
90.9000;0.2605;2.6206;
91.2000;0.2613;2.6206;
91.5000;0.2637;2.6331;
91.8000;0.2597;2.6181;
92.1000;0.2597;2.6106;
92.4000;0.2597;2.6006;
92.7000;0.2605;2.5981;
93.0000;0.2605;2.6006;
93.3000;0.2621;2.6056;
93.6000;0.2654;2.6156;
93.9000;0.2605;2.6031;
94.2000;0.2686;2.6206;
94.5000;0.2621;2.6056;
94.8000;0.2637;2.6031;
95.1000;0.2662;2.6106;
95.4000;0.2580;2.5881;
95.7000;0.2621;2.6031;
96.0000;0.2613;2.6056;
96.3000;0.2654;2.6181;
96.6000;0.2605;2.6006;
96.9000;0.2621;2.6006;
97.2000;0.2621;2.5981;
97.5000;0.2621;2.6006;
97.8000;0.2613;2.5931;
98.1000;0.2613;2.6031;
98.4000;0.2629;2.6106;
98.7000;0.2613;2.6081;
99.0000;0.2629;2.6231;
99.3000;0.2654;2.6356;
99.6000;0.2629;2.6206;
99.9000;0.2589;2.5981;
100.2000;0.2605;2.6031;
100.5000;0.2605;2.6031;
100.8000;0.2629;2.6106;
101.1000;0.2580;2.6056;
101.4000;0.2605;2.6181;
101.7000;0.2621;2.6256;
102.0000;0.2605;2.6156;
102.3000;0.2605;2.6131;
102.6000;0.2621;2.6156;
102.9000;0.2621;2.6081;
103.2000;0.2613;2.6131;
103.5000;0.2637;2.6106;
103.8000;0.2613;2.6031;
104.1000;0.2589;2.5981;
104.4000;0.2597;2.6006;
104.7000;0.2621;2.6131;
105.0000;0.2646;2.6231;
105.3000;0.2613;2.6156;
105.6000;0.2629;2.6181;
105.9000;0.2605;2.6131;
106.2000;0.2605;2.6081;
106.5000;0.2572;2.5981;
106.8000;0.2605;2.6106;
107.1000;0.2580;2.6031;
107.4000;0.2629;2.6181;
107.7000;0.2605;2.6131;
108.0000;0.2605;2.6156;
108.3000;0.2580;2.6081;
108.6000;0.2613;2.6156;
108.9000;0.2613;2.6081;
109.2000;0.2597;2.6106;
109.5000;0.2662;2.6281;
109.8000;0.2572;2.6156;
110.1000;0.2621;2.6181;
110.4000;0.2621;2.6306;
110.7000;0.2605;2.6381;
111.0000;0.2597;2.6281;
111.3000;0.2637;2.6331;
111.6000;0.2605;2.6331;
111.9000;0.2637;2.6231;
112.2000;0.2613;2.6131;
112.5000;0.2597;2.6131;
112.8000;0.2589;2.6181;
113.1000;0.2637;2.6331;
113.4000;0.2613;2.6281;
113.7000;0.2646;2.6306;
114.0000;0.2621;2.6256;
114.3000;0.2629;2.6356;
114.6000;0.2621;2.6331;
114.9000;0.2605;2.6331;
115.2000;0.2637;2.6331;
115.5000;0.2646;2.6331;
115.8000;0.2605;2.6156;
116.1000;0.2580;2.6031;
116.4000;0.2572;2.5906;
116.7000;0.2605;2.6081;
117.0000;0.2646;2.6131;
117.3000;0.2507;2.5756;
117.6000;0.2597;2.6006;
117.9000;0.2621;2.6006;
118.2000;0.2654;2.6131;
118.5000;0.2670;2.6131;
118.8000;0.2670;2.6081;
119.1000;0.2589;2.5831;
119.4000;0.2621;2.5981;
119.7000;0.2605;2.6031;
120.0000;0.2629;2.6131;
120.3000;0.2597;2.6156;
120.6000;0.2540;2.6056;
120.9000;0.2613;2.6106;
121.2000;0.2589;2.5956;
121.5000;0.2597;2.5956;
121.8000;0.2629;2.6006;
122.1000;0.2621;2.5956;
122.4000;0.2597;2.5831;
122.7000;0.2646;2.5756;
123.0000;0.2507;2.5530;
123.3000;0.2735;2.6156;
123.6000;0.2646;2.5931;
123.9000;0.2613;2.5881;
124.2000;0.2597;2.5831;
124.5000;0.2621;2.5906;
124.8000;0.2597;2.5831;
125.1000;0.2589;2.5881;
125.4000;0.2613;2.5981;
125.7000;0.2605;2.5881;
126.0000;0.2572;2.5831;
126.3000;0.2597;2.5856;
126.6000;0.2580;2.5856;
126.9000;0.2605;2.5881;
127.2000;0.2597;2.5931;
127.5000;0.2597;2.5931;
127.8000;0.2613;2.6006;
128.1000;0.2613;2.6031;
128.4000;0.2621;2.6181;
128.7000;0.2605;2.6106;
129.0000;0.2580;2.5956;
129.3000;0.2597;2.5981;
129.6000;0.2605;2.6006;
129.9000;0.2605;2.6031;
130.2000;0.2621;2.6031;
130.5000;0.2597;2.5881;
130.8000;0.2605;2.6006;
131.1000;0.2613;2.6081;
131.4000;0.2743;2.6407;
131.7000;0.2605;2.6106;
132.0000;0.2605;2.6031;
132.3000;0.2686;2.6206;
132.6000;0.2605;2.5956;
132.9000;0.2605;2.5956;
133.2000;0.2637;2.6031;
133.5000;0.2629;2.6056;
133.8000;0.2629;2.6006;
134.1000;0.2621;2.5956;
134.4000;0.2491;2.5556;
134.7000;0.2613;2.5931;
135.0000;0.2605;2.5906;
135.3000;0.2572;2.5856;
135.6000;0.2556;2.5756;
135.9000;0.2613;2.6006;
136.2000;0.2597;2.5931;
136.5000;0.2629;2.5881;
136.8000;0.2589;2.5781;
137.1000;0.2589;2.5781;
137.4000;0.2580;2.5756;
137.7000;0.2589;2.5706;
138.0000;0.2629;2.5756;
138.3000;0.2580;2.5731;
138.6000;0.2629;2.6006;
138.9000;0.2597;2.5981;
139.2000;0.2768;2.6457;
139.5000;0.2613;2.6056;
139.8000;0.2621;2.6031;
140.1000;0.2572;2.5856;
140.4000;0.2629;2.6006;
140.7000;0.2637;2.5981;
141.0000;0.2597;2.5956;
141.3000;0.2605;2.6056;
141.6000;0.2475;2.5681;
141.9000;0.2580;2.5956;
142.2000;0.2597;2.5931;
142.5000;0.2637;2.6056;
142.8000;0.2605;2.6006;
143.1000;0.2540;2.5731;
143.4000;0.2564;2.5756;
143.7000;0.2605;2.5831;
144.0000;0.2613;2.5806;
144.3000;0.2564;2.5681;
144.6000;0.2621;2.5856;
144.9000;0.2613;2.5881;
145.2000;0.2605;2.5931;
145.5000;0.2613;2.5981;
145.8000;0.2572;2.5806;
146.1000;0.2597;2.5856;
146.4000;0.2629;2.5906;
146.7000;0.2621;2.5906;
147.0000;0.2572;2.5881;
147.3000;0.2589;2.5831;
147.6000;0.2621;2.5906;
147.9000;0.2605;2.5906;
148.2000;0.2711;2.6156;
148.5000;0.2621;2.6031;
148.8000;0.2613;2.6031;
149.1000;0.2613;2.5881;
149.4000;0.2678;2.6056;
149.7000;0.2613;2.5856;
150.0000;0.2621;2.5931;
150.3000;0.2580;2.5856;
150.6000;0.2572;2.5906;
150.9000;0.2605;2.5931;
151.2000;0.2678;2.6131;
151.5000;0.2621;2.6031;
151.8000;0.2605;2.6131;
152.1000;0.2589;2.6081;
152.4000;0.2613;2.6106;
152.7000;0.2605;2.6056;
153.0000;0.2548;2.5956;
153.3000;0.2597;2.6056;
153.6000;0.2597;2.5956;
153.9000;0.2613;2.5956;
154.2000;0.2597;2.5831;
154.5000;0.2605;2.5906;
154.8000;0.2613;2.5931;
155.1000;0.2597;2.5956;
155.4000;0.2646;2.6006;
155.7000;0.2589;2.5831;
156.0000;0.2580;2.5831;
156.3000;0.2621;2.5981;
156.6000;0.2621;2.6006;
156.9000;0.2564;2.5831;
157.2000;0.2597;2.5831;
157.5000;0.2589;2.5706;
157.8000;0.2613;2.5856;
158.1000;0.2605;2.5856;
158.4000;0.2702;2.6131;
158.7000;0.2597;2.5881;
159.0000;0.2629;2.6031;
159.3000;0.2597;2.5906;
159.6000;0.2662;2.6081;
159.9000;0.2605;2.5956;
160.2000;0.2597;2.5931;
160.5000;0.2621;2.5931;
160.8000;0.2597;2.5906;
161.1000;0.2637;2.6006;
161.4000;0.2613;2.5881;
161.7000;0.2597;2.5881;
162.0000;0.2580;2.5981;
162.3000;0.2580;2.5956;
162.6000;0.2597;2.5956;
162.9000;0.2613;2.5906;
163.2000;0.2613;2.5881;
163.5000;0.2597;2.5856;
163.8000;0.2605;2.5806;
164.1000;0.2580;2.5781;
164.4000;0.2768;2.6407;
164.7000;0.2605;2.5906;
165.0000;0.2597;2.5956;
165.3000;0.2564;2.5906;
165.6000;0.2613;2.6006;
165.9000;0.2597;2.6031;
166.2000;0.2564;2.5931;
166.5000;0.2637;2.6031;
166.8000;0.2605;2.5881;
167.1000;0.2532;2.5606;
167.4000;0.2507;2.5505;
167.7000;0.2621;2.5806;
168.0000;0.2646;2.5881;
168.3000;0.2605;2.5831;
168.6000;0.2621;2.5906;
168.9000;0.2613;2.5881;
169.2000;0.2654;2.6056;
169.5000;0.2605;2.6031;
169.8000;0.2580;2.6031;
170.1000;0.2483;2.5781;
170.4000;0.2556;2.6006;
170.7000;0.2597;2.6081;
171.0000;0.2589;2.6006;
171.3000;0.2589;2.5981;
171.6000;0.2686;2.6181;
171.9000;0.2735;2.6281;
172.2000;0.2580;2.5856;
172.5000;0.2589;2.5906;
172.8000;0.2613;2.5956;
173.1000;0.2572;2.5906;
173.4000;0.2523;2.5781;
173.7000;0.2605;2.5906;
174.0000;0.2637;2.5956;
174.3000;0.2605;2.5881;
174.6000;0.2589;2.5831;
174.9000;0.2589;2.5781;
175.2000;0.2556;2.5756;
175.5000;0.2580;2.5831;
175.8000;0.2605;2.5831;
176.1000;0.2589;2.5856;
176.4000;0.2613;2.5906;
176.7000;0.2589;2.5781;
177.0000;0.2523;2.5631;
177.3000;0.2637;2.6006;
177.6000;0.2621;2.5906;
177.9000;0.2475;2.5505;
178.2000;0.2613;2.5931;
178.5000;0.2589;2.5881;
178.8000;0.2605;2.5906;
179.1000;0.2621;2.5906;
179.4000;0.2589;2.5781;
179.7000;0.2597;2.5781;
180.0000;0.2629;2.5856;
180.3000;0.2613;2.5831;
180.6000;0.2613;2.5856;
180.9000;0.2597;2.5856;
181.2000;0.2572;2.5806;
181.5000;0.2572;2.5856;
181.8000;0.2589;2.5956;
182.1000;0.2605;2.6031;
182.4000;0.2589;2.5956;
182.7000;0.2605;2.5981;
183.0000;0.2613;2.6031;
183.3000;0.2523;2.5806;
183.6000;0.2605;2.6031;
183.9000;0.2621;2.6031;
184.2000;0.2589;2.5956;
184.5000;0.2629;2.6056;
184.8000;0.2613;2.5931;
185.1000;0.2597;2.5956;
185.4000;0.2589;2.5956;
185.7000;0.2646;2.6006;
186.0000;0.2589;2.5956;
186.3000;0.2580;2.5881;
186.6000;0.2629;2.6056;
186.9000;0.2613;2.5906;
187.2000;0.2605;2.5856;
187.5000;0.2597;2.6031;
187.8000;0.2597;2.6106;
188.1000;0.2556;2.5981;
188.4000;0.2564;2.5981;
188.7000;0.2556;2.5956;
189.0000;0.2597;2.6031;
189.3000;0.2605;2.5981;
189.6000;0.2507;2.5756;
189.9000;0.2597;2.6031;
190.2000;0.2670;2.6181;
190.5000;0.2605;2.6006;
190.8000;0.2605;2.6031;
191.1000;0.2646;2.6106;
191.4000;0.2613;2.5906;
191.7000;0.2589;2.5881;
192.0000;0.2597;2.5856;
192.3000;0.2605;2.6006;
192.6000;0.2580;2.6006;
192.9000;0.2605;2.6031;
193.2000;0.2589;2.6031;
193.5000;0.2629;2.6031;
193.8000;0.2605;2.5906;
194.1000;0.2613;2.5956;
194.4000;0.2621;2.5931;
194.7000;0.2621;2.5931;
195.0000;0.2589;2.5906;
195.3000;0.2605;2.6031;
195.6000;0.2605;2.6031;
195.9000;0.2597;2.6081;
196.2000;0.2670;2.6331;
196.5000;0.2589;2.6031;
196.8000;0.2556;2.6031;
197.1000;0.2597;2.6156;
197.4000;0.2580;2.6156;
197.7000;0.2629;2.6331;
198.0000;0.2646;2.6381;
198.3000;0.2605;2.6231;
198.6000;0.2613;2.6231;
198.9000;0.2605;2.6206;
199.2000;0.2605;2.6081;
199.5000;0.2637;2.6181;
199.8000;0.2637;2.6206;
200.1000;0.2613;2.6156;
200.4000;0.2613;2.6056;
200.7000;0.2613;2.6081;
201.0000;0.2532;2.5881;
201.3000;0.2605;2.6031;
201.6000;0.2589;2.6056;
201.9000;0.2589;2.6081;
202.2000;0.2605;2.6056;
202.5000;0.2597;2.6006;
202.8000;0.2556;2.5906;
203.1000;0.2621;2.6081;
203.4000;0.2589;2.5981;
203.7000;0.2621;2.6081;
204.0000;0.2572;2.6006;
204.3000;0.2629;2.6231;
204.6000;0.2621;2.6056;
204.9000;0.2613;2.6031;
205.2000;0.2564;2.5906;
205.5000;0.2589;2.5956;
205.8000;0.2621;2.6056;
206.1000;0.2580;2.6006;
206.4000;0.2589;2.6031;
206.7000;0.2580;2.6006;
207.0000;0.2589;2.6031;
207.3000;0.2646;2.6131;
207.6000;0.2702;2.6206;
207.9000;0.2613;2.5981;
208.2000;0.2572;2.5806;
208.5000;0.2572;2.5806;
208.8000;0.2597;2.5956;
209.1000;0.2605;2.5956;
209.4000;0.2572;2.5956;
209.7000;0.2629;2.6081;
210.0000;0.2580;2.5981;
210.3000;0.2523;2.5856;
210.6000;0.2523;2.5756;
210.9000;0.2507;2.5581;
211.2000;0.2637;2.5906;
211.5000;0.2613;2.5906;
211.8000;0.2654;2.6031;
212.1000;0.2466;2.5505;
212.4000;0.2597;2.5881;
212.7000;0.2597;2.5881;
213.0000;0.2621;2.5931;
213.3000;0.2589;2.6031;
213.6000;0.2580;2.6156;
213.9000;0.2621;2.6231;
214.2000;0.2580;2.6131;
214.5000;0.2629;2.6206;
214.8000;0.2605;2.6081;
215.1000;0.2580;2.6031;
215.4000;0.2597;2.6031;
215.7000;0.2564;2.5956;
216.0000;0.2564;2.5981;
216.3000;0.2613;2.6056;
216.6000;0.2637;2.6081;
216.9000;0.2597;2.5931;
217.2000;0.2670;2.6206;
217.5000;0.2605;2.6056;
217.8000;0.2597;2.6056;
218.1000;0.2613;2.6031;
218.4000;0.2597;2.6081;
218.7000;0.2613;2.6031;
219.0000;0.2629;2.6156;
219.3000;0.2613;2.6081;
219.6000;0.2605;2.6156;
219.9000;0.2621;2.6081;
220.2000;0.2686;2.6306;
220.5000;0.2597;2.6056;
220.8000;0.2589;2.6031;
221.1000;0.2621;2.6006;
221.4000;0.2605;2.6031;
221.7000;0.2605;2.6056;
222.0000;0.2580;2.6081;
222.3000;0.2564;2.6006;
222.6000;0.2597;2.6031;
222.9000;0.2597;2.6006;
223.2000;0.2589;2.6006;
223.5000;0.2605;2.5931;
223.8000;0.2613;2.5956;
224.1000;0.2580;2.5906;
224.4000;0.2572;2.5931;
224.7000;0.2605;2.6031;
225.0000;0.2572;2.5881;
225.3000;0.2629;2.6031;
225.6000;0.2532;2.5706;
225.9000;0.2605;2.5906;
226.2000;0.2589;2.5956;
226.5000;0.2515;2.5956;
226.8000;0.2589;2.6156;
227.1000;0.2646;2.6331;
227.4000;0.2556;2.6031;
227.7000;0.2556;2.6081;
228.0000;0.2548;2.6006;
228.3000;0.2605;2.6156;
228.6000;0.2629;2.6206;
228.9000;0.2605;2.6081;
229.2000;0.2613;2.6031;
229.5000;0.2605;2.6081;
229.8000;0.2605;2.6056;
230.1000;0.2597;2.6106;
230.4000;0.2654;2.6256;
230.7000;0.2597;2.6156;
231.0000;0.2605;2.6156;
231.3000;0.2597;2.6106;
231.6000;0.2597;2.6031;
231.9000;0.2605;2.5981;
232.2000;0.2605;2.6031;
232.5000;0.2621;2.6081;
232.8000;0.2621;2.6106;
233.1000;0.2613;2.6181;
233.4000;0.2572;2.6031;
233.7000;0.2605;2.6131;
234.0000;0.2605;2.6106;
234.3000;0.2589;2.6006;
234.6000;0.2556;2.5956;
234.9000;0.2735;2.6457;
235.2000;0.2589;2.6031;
235.5000;0.2605;2.6031;
235.8000;0.2629;2.6056;
236.1000;0.2589;2.6006;
236.4000;0.2605;2.6081;
236.7000;0.2589;2.6031;
237.0000;0.2442;2.5681;
237.3000;0.2572;2.6031;
237.6000;0.2597;2.6106;
237.9000;0.2556;2.6031;
238.2000;0.2597;2.6106;
238.5000;0.2613;2.6131;
238.8000;0.2621;2.6181;
239.1000;0.2580;2.6006;
239.4000;0.2605;2.6106;
239.7000;0.2605;2.6181;
240.0000;0.2613;2.6306;
240.3000;0.2597;2.6281;
240.6000;0.2613;2.6231;
240.9000;0.2580;2.6106;
241.2000;0.2556;2.6006;
241.5000;0.2637;2.6181;
241.8000;0.2589;2.6131;
242.1000;0.2670;2.6356;
242.4000;0.2629;2.6256;
242.7000;0.2556;2.6181;
243.0000;0.2605;2.6206;
243.3000;0.2605;2.6231;
243.6000;0.2605;2.6156;
243.9000;0.2613;2.6231;
244.2000;0.2597;2.6206;
244.5000;0.2605;2.6181;
244.8000;0.2670;2.6432;
245.1000;0.2605;2.6256;
245.4000;0.2605;2.6181;
245.7000;0.2605;2.6181;
246.0000;0.2605;2.6181;
246.3000;0.2613;2.6281;
246.6000;0.2572;2.6181;
246.9000;0.2605;2.6256;
247.2000;0.2719;2.6457;
247.5000;0.2597;2.6206;
247.8000;0.2572;2.6106;
248.1000;0.2572;2.6131;
248.4000;0.2580;2.6156;
248.7000;0.2605;2.6231;
249.0000;0.2589;2.6206;
249.3000;0.2637;2.6281;
249.6000;0.2670;2.6331;
249.9000;0.2735;2.6557;
250.2000;0.2605;2.6106;
250.5000;0.2727;2.6381;
250.8000;0.2491;2.5706;
251.1000;0.2556;2.5856;
251.4000;0.2613;2.6031;
251.7000;0.2580;2.6056;
252.0000;0.2572;2.6131;
252.3000;0.2597;2.6081;
252.6000;0.2597;2.6081;
252.9000;0.2605;2.6106;
253.2000;0.2654;2.6181;
253.5000;0.2572;2.5956;
253.8000;0.2597;2.6131;
254.1000;0.2613;2.6131;
254.4000;0.2629;2.6131;
254.7000;0.2613;2.6056;
255.0000;0.2605;2.5981;
255.3000;0.2597;2.5956;
255.6000;0.2597;2.5931;
255.9000;0.2637;2.6106;
256.2000;0.2646;2.6131;
256.5000;0.2613;2.6081;
256.8000;0.2605;2.6006;
257.1000;0.2613;2.5981;
257.4000;0.2589;2.5981;
257.7000;0.2662;2.6181;
258.0000;0.2694;2.6156;
258.3000;0.2580;2.5806;
258.6000;0.2580;2.5881;
258.9000;0.2621;2.6106;
259.2000;0.2637;2.6181;
259.5000;0.2572;2.5956;
259.8000;0.2572;2.5981;
260.1000;0.2629;2.6206;
260.4000;0.2589;2.6181;
260.7000;0.2580;2.6106;
261.0000;0.2646;2.6281;
261.3000;0.2605;2.6156;
261.6000;0.2605;2.6031;
261.9000;0.2613;2.5931;
262.2000;0.2621;2.5981;
262.5000;0.2605;2.5931;
262.8000;0.2613;2.5981;
263.1000;0.2629;2.6031;
263.4000;0.2532;2.5781;
263.7000;0.2605;2.5981;
264.0000;0.2523;2.5881;
264.3000;0.2613;2.6056;
264.6000;0.2621;2.6156;
264.9000;0.2637;2.6306;
265.2000;0.2597;2.6206;
265.5000;0.2605;2.6206;
265.8000;0.2548;2.6056;
266.1000;0.2629;2.6231;
266.4000;0.2564;2.6081;
266.7000;0.2605;2.6256;
267.0000;0.2613;2.6356;
267.3000;0.2662;2.6482;
267.6000;0.2564;2.6131;
267.9000;0.2523;2.5956;
268.2000;0.2605;2.6056;
268.5000;0.2605;2.6081;
268.8000;0.2605;2.5981;
269.1000;0.2597;2.5956;
269.4000;0.2637;2.6081;
269.7000;0.2613;2.6006;
270.0000;0.2597;2.6056;
270.3000;0.2580;2.6031;
270.6000;0.2629;2.6156;
270.9000;0.2621;2.6156;
271.2000;0.2694;2.6331;
271.5000;0.2589;2.6056;
271.8000;0.2613;2.6106;
272.1000;0.2637;2.6281;
272.4000;0.2597;2.6181;
272.7000;0.2532;2.5956;
273.0000;0.2646;2.6156;
273.3000;0.2572;2.6056;
273.6000;0.2589;2.6031;
273.9000;0.2613;2.6131;
274.2000;0.2580;2.6056;
274.5000;0.2548;2.5981;
274.8000;0.2605;2.6131;
275.1000;0.2564;2.6031;
275.4000;0.2646;2.6281;
275.7000;0.2629;2.6281;
276.0000;0.2605;2.6156;
276.3000;0.2597;2.6181;
276.6000;0.2580;2.6131;
276.9000;0.2605;2.6206;
277.2000;0.2580;2.6106;
277.5000;0.2621;2.6131;
277.8000;0.2605;2.6031;
278.1000;0.2629;2.6181;
278.4000;0.2613;2.6031;
278.7000;0.2621;2.6106;
279.0000;0.2597;2.5981;
279.3000;0.2540;2.5856;
279.6000;0.2597;2.6056;
279.9000;0.2589;2.6006;
280.2000;0.2743;2.6306;
280.5000;0.2637;2.6181;
280.8000;0.2540;2.5956;
281.1000;0.2564;2.5956;
281.4000;0.2629;2.6106;
281.7000;0.2556;2.5906;
282.0000;0.2556;2.5906;
282.3000;0.2621;2.6156;
282.6000;0.2532;2.5856;
282.9000;0.2597;2.6056;
283.2000;0.2605;2.6056;
283.5000;0.2613;2.6056;
283.8000;0.2654;2.6156;
284.1000;0.2621;2.6056;
284.4000;0.2605;2.6181;
284.7000;0.2702;2.6507;
285.0000;0.2589;2.6231;
285.3000;0.2597;2.6231;
285.6000;0.2613;2.6231;
285.9000;0.2686;2.6432;
286.2000;0.2621;2.6206;
286.5000;0.2629;2.6181;
286.8000;0.2580;2.6056;
287.1000;0.2686;2.6356;
287.4000;0.2621;2.6156;
287.7000;0.2613;2.6106;
288.0000;0.2540;2.5956;
288.3000;0.2589;2.6081;
288.6000;0.2572;2.6056;
288.9000;0.2613;2.6131;
289.2000;0.2597;2.6156;
289.5000;0.2556;2.6081;
289.8000;0.2637;2.6256;
290.1000;0.2597;2.6206;
290.4000;0.2646;2.6331;
290.7000;0.2597;2.6056;
291.0000;0.2589;2.6031;
291.3000;0.2605;2.6131;
291.6000;0.2580;2.6131;
291.9000;0.2605;2.6181;
292.2000;0.2556;2.5906;
292.5000;0.2597;2.5981;
292.8000;0.2572;2.5931;
293.1000;0.2613;2.6056;
293.4000;0.2613;2.6131;
293.7000;0.2572;2.6106;
294.0000;0.2613;2.6206;
294.3000;0.2605;2.6206;
294.6000;0.2613;2.6231;
294.9000;0.2629;2.6356;
295.2000;0.2589;2.6206;
295.5000;0.2556;2.6131;
295.8000;0.2580;2.6181;
296.1000;0.2629;2.6306;
296.4000;0.2605;2.6281;
296.7000;0.2572;2.6156;
297.0000;0.2564;2.6181;
297.3000;0.2646;2.6432;
297.6000;0.2597;2.6231;
297.9000;0.2556;2.6181;
298.2000;0.2564;2.6181;
298.5000;0.2613;2.6256;
298.8000;0.2613;2.6256;
299.1000;0.2605;2.6281;
299.4000;0.2548;2.6181;
299.7000;0.2621;2.6281;
300.0000;0.2580;2.6106;
300.3000;0.2605;2.6181;
300.6000;0.2613;2.6206;
300.9000;0.2629;2.6231;
301.2000;0.2564;2.6106;
301.5000;0.2605;2.6156;
301.8000;0.2580;2.6131;
302.1000;0.2597;2.6156;
302.4000;0.2629;2.6206;
302.7000;0.2580;2.6056;
303.0000;0.2597;2.6131;
303.3000;0.2670;2.6356;
303.6000;0.2613;2.6081;
303.9000;0.2589;2.6081;
304.2000;0.2597;2.5906;
304.5000;0.2532;2.5656;
304.8000;0.2499;2.5606;
305.1000;0.2556;2.5806;
305.4000;0.2637;2.6081;
305.7000;0.2637;2.6106;
306.0000;0.2613;2.6006;
306.3000;0.2556;2.5881;
306.6000;0.2515;2.5781;
306.9000;0.2613;2.6031;
307.2000;0.2515;2.5731;
307.5000;0.2597;2.6056;
307.8000;0.2572;2.5981;
308.1000;0.2572;2.6006;
308.4000;0.2580;2.5956;
308.7000;0.2629;2.6106;
309.0000;0.2597;2.6006;
309.3000;0.2605;2.6031;
309.6000;0.2564;2.5906;
309.9000;0.2613;2.6081;
310.2000;0.2589;2.6056;
310.5000;0.2556;2.5906;
310.8000;0.2621;2.6006;
311.1000;0.2597;2.5956;
311.4000;0.2597;2.6031;
311.7000;0.2589;2.6031;
312.0000;0.2548;2.5856;
312.3000;0.2621;2.6056;
312.6000;0.2621;2.6056;
312.9000;0.2670;2.6156;
313.2000;0.2589;2.5956;
313.5000;0.2572;2.5956;
313.8000;0.2605;2.6031;
314.1000;0.2629;2.6131;
314.4000;0.2613;2.6081;
314.7000;0.2580;2.6031;
315.0000;0.2589;2.6131;
315.3000;0.2605;2.6281;
315.6000;0.2605;2.6206;
315.9000;0.2605;2.6206;
316.2000;0.2589;2.6181;
316.5000;0.2629;2.6306;
316.8000;0.2597;2.6281;
317.1000;0.2580;2.6206;
317.4000;0.2572;2.6156;
317.7000;0.2572;2.6131;
318.0000;0.2605;2.6206;
318.3000;0.2589;2.6131;
318.6000;0.2580;2.6031;
318.9000;0.2605;2.6131;
319.2000;0.2597;2.6031;
319.5000;0.2629;2.6106;
319.8000;0.2613;2.6131;
320.1000;0.2589;2.6181;
320.4000;0.2646;2.6432;
320.7000;0.2646;2.6407;
321.0000;0.2613;2.6206;
321.3000;0.2589;2.6131;
321.6000;0.2572;2.6056;
321.9000;0.2589;2.6181;
322.2000;0.2589;2.6081;
322.5000;0.2646;2.6206;
322.8000;0.2589;2.6006;
323.1000;0.2605;2.6031;
323.4000;0.2540;2.5806;
323.7000;0.2605;2.6081;
324.0000;0.2572;2.6106;
324.3000;0.2621;2.6156;
324.6000;0.2548;2.5931;
324.9000;0.2572;2.5981;
325.2000;0.2589;2.6081;
325.5000;0.2597;2.6006;
325.8000;0.2589;2.5981;
326.1000;0.2605;2.6131;
326.4000;0.2572;2.6081;
326.7000;0.2613;2.6156;
327.0000;0.2589;2.6106;
327.3000;0.2564;2.5931;
327.6000;0.2597;2.6056;
327.9000;0.2621;2.6156;
328.2000;0.2523;2.5906;
328.5000;0.2597;2.6181;
328.8000;0.2629;2.6231;
329.1000;0.2686;2.6381;
329.4000;0.2613;2.6331;
329.7000;0.2637;2.6507;
330.0000;0.2629;2.6432;
330.3000;0.2613;2.6356;
330.6000;0.2629;2.6507;
330.9000;0.2597;2.6407;
331.2000;0.2580;2.6306;
331.5000;0.2589;2.6256;
331.8000;0.2580;2.6106;
332.1000;0.2597;2.6131;
332.4000;0.2621;2.6231;
332.7000;0.2605;2.6156;
333.0000;0.2597;2.6131;
333.3000;0.2613;2.6131;
333.6000;0.2629;2.6181;
333.9000;0.2597;2.6181;
334.2000;0.2572;2.6156;
334.5000;0.2597;2.6156;
334.8000;0.2613;2.6131;
335.1000;0.2605;2.6131;
335.4000;0.2613;2.6131;
335.7000;0.2637;2.6181;
336.0000;0.2605;2.6056;
336.3000;0.2662;2.6256;
336.6000;0.2629;2.6156;
336.9000;0.2523;2.5956;
337.2000;0.2621;2.6206;
337.5000;0.2532;2.6031;
337.8000;0.2621;2.6356;
338.1000;0.2605;2.6231;
338.4000;0.2540;2.6081;
338.7000;0.2621;2.6206;
339.0000;0.2605;2.6056;
339.3000;0.2613;2.6131;
339.6000;0.2597;2.6031;
339.9000;0.2589;2.6031;
340.2000;0.2613;2.6081;
340.5000;0.2597;2.6106;
340.8000;0.2613;2.6281;
341.1000;0.2580;2.6156;
341.4000;0.2597;2.6181;
341.7000;0.2580;2.6181;
342.0000;0.2597;2.6256;
342.3000;0.2580;2.6056;
342.6000;0.2515;2.5731;
342.9000;0.2597;2.5931;
343.2000;0.2597;2.5956;
343.5000;0.2564;2.5881;
343.8000;0.2572;2.5906;
344.1000;0.2589;2.5856;
344.4000;0.2605;2.5931;
344.7000;0.2564;2.5881;
345.0000;0.2572;2.5906;
345.3000;0.2662;2.6256;
345.6000;0.2613;2.6131;
345.9000;0.2597;2.6106;
346.2000;0.2589;2.6156;
346.5000;0.2589;2.6181;
346.8000;0.2589;2.6206;
347.1000;0.2613;2.6331;
347.4000;0.2597;2.6306;
347.7000;0.2580;2.6231;
348.0000;0.2597;2.6156;
348.3000;0.2597;2.6131;
348.6000;0.2613;2.6181;
348.9000;0.2654;2.6256;
349.2000;0.2597;2.6081;
349.5000;0.2629;2.6206;
349.8000;0.2589;2.6181;
350.1000;0.2499;2.5931;
350.4000;0.2597;2.6206;
350.7000;0.2613;2.6256;
351.0000;0.2621;2.6206;
351.3000;0.2605;2.6156;
351.6000;0.2589;2.6031;
351.9000;0.2597;2.6156;
352.2000;0.2540;2.6056;
352.5000;0.2580;2.6181;
352.8000;0.2580;2.6206;
353.1000;0.2499;2.6031;
353.4000;0.2597;2.6256;
353.7000;0.2597;2.6181;
354.0000;0.2605;2.6131;
354.3000;0.2613;2.6156;
354.6000;0.2605;2.6156;
354.9000;0.2613;2.6181;
355.2000;0.2564;2.5981;
355.5000;0.2572;2.6031;
355.8000;0.2564;2.6056;
356.1000;0.2629;2.6156;
356.4000;0.2597;2.6056;
356.7000;0.2589;2.6081;
357.0000;0.2540;2.6031;
357.3000;0.2621;2.6281;
357.6000;0.2605;2.6231;
357.9000;0.2499;2.5881;
358.2000;0.2580;2.6081;
358.5000;0.2613;2.6156;
358.8000;0.2589;2.6131;
359.1000;0.2580;2.6106;
359.4000;0.2613;2.6156;
359.7000;0.2613;2.6106;
360.0000;0.2597;2.6031;
360.3000;0.2662;2.6256;
360.6000;0.2597;2.6056;
360.9000;0.2589;2.6056;
361.2000;0.2589;2.6056;
361.5000;0.2597;2.6081;
361.8000;0.2605;2.6181;
362.1000;0.2589;2.6156;
362.4000;0.2589;2.6156;
362.7000;0.2589;2.6106;
363.0000;0.2532;2.5881;
363.3000;0.2580;2.6106;
363.6000;0.2597;2.6156;
363.9000;0.2580;2.6081;
364.2000;0.2605;2.6231;
364.5000;0.2605;2.6231;
364.8000;0.2499;2.5956;
365.1000;0.2613;2.6256;
365.4000;0.2589;2.6156;
365.7000;0.2597;2.6131;
366.0000;0.2597;2.6131;
366.3000;0.2605;2.6081;
366.6000;0.2621;2.6056;
366.9000;0.2589;2.5981;
367.2000;0.2589;2.6031;
367.5000;0.2589;2.6056;
367.8000;0.2613;2.6081;
368.1000;0.2580;2.5956;
368.4000;0.2597;2.5981;
368.7000;0.2605;2.6081;
369.0000;0.2589;2.6031;
369.3000;0.2605;2.6131;
369.6000;0.2605;2.6106;
369.9000;0.2589;2.6056;
370.2000;0.2564;2.5956;
370.5000;0.2597;2.6031;
370.8000;0.2654;2.6231;
371.1000;0.2597;2.6131;
371.4000;0.2589;2.6156;
371.7000;0.2507;2.5756;
372.0000;0.2597;2.6056;
372.3000;0.2621;2.6206;
372.6000;0.2580;2.6081;
372.9000;0.2572;2.6031;
373.2000;0.2613;2.6031;
373.5000;0.2597;2.6056;
373.8000;0.2735;2.6482;
374.1000;0.2629;2.6106;
374.4000;0.2605;2.6056;
374.7000;0.2629;2.6081;
375.0000;0.2572;2.5981;
375.3000;0.2621;2.6081;
375.6000;0.2662;2.6231;
375.9000;0.2613;2.6106;
376.2000;0.2702;2.6381;
376.5000;0.2580;2.6031;
376.8000;0.2646;2.6206;
377.1000;0.2654;2.6106;
377.4000;0.2605;2.5981;
377.7000;0.2629;2.6056;
378.0000;0.2580;2.5881;
378.3000;0.2580;2.5806;
378.6000;0.2605;2.5831;
378.9000;0.2589;2.5856;
379.2000;0.2564;2.5856;
379.5000;0.2580;2.5856;
379.8000;0.2646;2.5981;
380.1000;0.2629;2.6031;
380.4000;0.2589;2.5931;
380.7000;0.2597;2.5906;
381.0000;0.2597;2.5856;
381.3000;0.2613;2.5931;
381.6000;0.2580;2.5856;
381.9000;0.2597;2.5781;
382.2000;0.2613;2.5756;
382.5000;0.2589;2.5781;
382.8000;0.2605;2.5806;
383.1000;0.2613;2.5881;
383.4000;0.2572;2.5831;
383.7000;0.2597;2.5931;
384.0000;0.2597;2.5956;
384.3000;0.2580;2.5831;
384.6000;0.2597;2.5756;
384.9000;0.2605;2.5706;
385.2000;0.2605;2.5756;
385.5000;0.2597;2.5881;
385.8000;0.2589;2.5856;
386.1000;0.2580;2.5781;
386.4000;0.2572;2.5931;
386.7000;0.2605;2.6031;
387.0000;0.2702;2.6381;
387.3000;0.2580;2.6081;
387.6000;0.2589;2.6106;
387.9000;0.2589;2.6106;
388.2000;0.2613;2.6056;
388.5000;0.2556;2.5931;
388.8000;0.2597;2.5981;
389.1000;0.2621;2.6106;
389.4000;0.2605;2.6081;
389.7000;0.2605;2.6106;
390.0000;0.2613;2.6156;
390.3000;0.2613;2.6206;
390.6000;0.2621;2.6206;
390.9000;0.2580;2.6031;
391.2000;0.2580;2.5956;
391.5000;0.2597;2.5956;
391.8000;0.2605;2.5856;
392.1000;0.2613;2.5906;
392.4000;0.2605;2.5931;
392.7000;0.2629;2.5931;
393.0000;0.2605;2.5931;
393.3000;0.2605;2.5981;
393.6000;0.2597;2.6056;
393.9000;0.2580;2.6006;
394.2000;0.2605;2.6006;
394.5000;0.2589;2.5956;
394.8000;0.2523;2.5781;
395.1000;0.2589;2.5956;
395.4000;0.2564;2.5806;
395.7000;0.2564;2.5731;
396.0000;0.2580;2.5756;
396.3000;0.2580;2.5831;
396.6000;0.2580;2.5906;
396.9000;0.2589;2.5931;
397.2000;0.2613;2.6006;
397.5000;0.2597;2.5956;
397.8000;0.2572;2.5956;
398.1000;0.2613;2.6056;
398.4000;0.2589;2.6006;
398.7000;0.2605;2.6081;
399.0000;0.2589;2.6081;
399.3000;0.2597;2.6056;
399.6000;0.2597;2.5931;
399.9000;0.2597;2.5881;
400.2000;0.2580;2.5806;
400.5000;0.2605;2.5856;
400.8000;0.2686;2.5956;
401.1000;0.2597;2.5756;
401.4000;0.2597;2.5781;
401.7000;0.2597;2.5756;
402.0000;0.2589;2.5806;
402.3000;0.2637;2.5831;
402.6000;0.2572;2.5781;
402.9000;0.2613;2.5906;
403.2000;0.2637;2.5981;
403.5000;0.2613;2.5856;
403.8000;0.2580;2.5756;
404.1000;0.2589;2.5806;
404.4000;0.2580;2.5781;
404.7000;0.2605;2.5806;
405.0000;0.2589;2.5806;
405.3000;0.2597;2.5856;
405.6000;0.2589;2.5756;
405.9000;0.2605;2.5831;
406.2000;0.2589;2.5881;
406.5000;0.2597;2.5781;
406.8000;0.2605;2.5856;
407.1000;0.2613;2.5806;
407.4000;0.2629;2.5906;
407.7000;0.2613;2.5881;
408.0000;0.2597;2.5881;
408.3000;0.2589;2.5856;
408.6000;0.2605;2.5931;
408.9000;0.2629;2.6031;
409.2000;0.2597;2.5981;
409.5000;0.2597;2.6006;
409.8000;0.2597;2.5881;
410.1000;0.2597;2.6006;
410.4000;0.2597;2.5931;
410.7000;0.2621;2.6056;
411.0000;0.2597;2.6031;
411.3000;0.2572;2.5931;
411.6000;0.2589;2.6056;
411.9000;0.2613;2.6081;
412.2000;0.2605;2.6106;
412.5000;0.2556;2.5956;
412.8000;0.2580;2.5906;
413.1000;0.2629;2.5981;
413.4000;0.2637;2.6006;
413.7000;0.2597;2.5931;
414.0000;0.2523;2.5756;
414.3000;0.2572;2.5956;
414.6000;0.2548;2.5981;
414.9000;0.2605;2.6081;
415.2000;0.2556;2.5931;
415.5000;0.2572;2.5931;
415.8000;0.2597;2.6031;
416.1000;0.2637;2.6106;
416.4000;0.2605;2.6081;
416.7000;0.2613;2.6006;
417.0000;0.2597;2.5981;
417.3000;0.2597;2.6031;
417.6000;0.2548;2.5981;
417.9000;0.2662;2.6281;
418.2000;0.2580;2.5956;
418.5000;0.2597;2.6031;
418.8000;0.2580;2.5956;
419.1000;0.2605;2.6006;
419.4000;0.2532;2.5856;
419.7000;0.2678;2.6181;
420.0000;0.2580;2.5906;
420.3000;0.2662;2.6056;
420.6000;0.2621;2.5931;
420.9000;0.2670;2.6056;
421.2000;0.2597;2.5931;
421.5000;0.2580;2.5781;
421.8000;0.2621;2.5856;
422.1000;0.2613;2.5831;
422.4000;0.2580;2.5781;
422.7000;0.2589;2.5756;
423.0000;0.2597;2.5856;
423.3000;0.2589;2.5881;
423.6000;0.2556;2.5881;
423.9000;0.2621;2.6031;
424.2000;0.2572;2.5956;
424.5000;0.2605;2.6031;
424.8000;0.2580;2.5956;
425.1000;0.2597;2.5956;
425.4000;0.2597;2.6006;
425.7000;0.2621;2.6081;
426.0000;0.2589;2.5956;
426.3000;0.2597;2.6031;
426.6000;0.2589;2.5956;
426.9000;0.2572;2.5931;
427.2000;0.2589;2.5931;
427.5000;0.2605;2.6106;
427.8000;0.2556;2.5956;
428.1000;0.2580;2.6106;
428.4000;0.2654;2.6256;
428.7000;0.2548;2.5881;
429.0000;0.2556;2.5856;
429.3000;0.2540;2.5731;
429.6000;0.2719;2.6181;
429.9000;0.2556;2.5756;
430.2000;0.2597;2.5881;
430.5000;0.2605;2.5931;
430.8000;0.2629;2.6006;
431.1000;0.2613;2.6006;
431.4000;0.2686;2.6231;
431.7000;0.2532;2.5756;
432.0000;0.2580;2.5906;
432.3000;0.2605;2.6006;
432.6000;0.2589;2.6006;
432.9000;0.2589;2.5956;
433.2000;0.2629;2.6106;
433.5000;0.2589;2.6031;
433.8000;0.2597;2.6131;
434.1000;0.2580;2.6056;
434.4000;0.2613;2.6056;
434.7000;0.2605;2.6031;
435.0000;0.2589;2.5906;
435.3000;0.2605;2.6006;
435.6000;0.2597;2.6031;
435.9000;0.2686;2.6256;
436.2000;0.2629;2.6131;
436.5000;0.2580;2.5981;
436.8000;0.2580;2.6131;
437.1000;0.2580;2.6056;
437.4000;0.2605;2.6056;
437.7000;0.2532;2.5831;
438.0000;0.2629;2.6106;
438.3000;0.2727;2.6407;
438.6000;0.2621;2.6131;
438.9000;0.2776;2.6557;
439.2000;0.2589;2.6081;
439.5000;0.2654;2.6306;
439.8000;0.2572;2.6131;
440.1000;0.2564;2.6106;
440.4000;0.2572;2.6081;
440.7000;0.2572;2.6006;
441.0000;0.2629;2.6131;
441.3000;0.2621;2.6156;
441.6000;0.2613;2.6131;
441.9000;0.2646;2.6256;
442.2000;0.2605;2.6081;
442.5000;0.2613;2.6006;
442.8000;0.2589;2.6056;
443.1000;0.2548;2.6006;
443.4000;0.2572;2.5931;
443.7000;0.2580;2.6056;
444.0000;0.2727;2.6432;
444.3000;0.2589;2.6031;
444.6000;0.2605;2.6081;
444.9000;0.2589;2.6131;
445.2000;0.2589;2.6106;
445.5000;0.2605;2.6106;
445.8000;0.2597;2.6056;
446.1000;0.2589;2.6006;
446.4000;0.2580;2.6106;
446.7000;0.2613;2.6206;
447.0000;0.2580;2.6231;
447.3000;0.2605;2.6256;
447.6000;0.2572;2.6156;
447.9000;0.2629;2.6281;
448.2000;0.2597;2.6306;
448.5000;0.2597;2.6281;
448.8000;0.2629;2.6281;
449.1000;0.2605;2.6206;
449.4000;0.2564;2.6156;
449.7000;0.2589;2.6206;
450.0000;0.2580;2.6206;
450.3000;0.2572;2.6256;
450.6000;0.2589;2.6206;
450.9000;0.2613;2.6256;
451.2000;0.2605;2.6281;
451.5000;0.2613;2.6231;
451.8000;0.2532;2.6056;
452.1000;0.2589;2.6181;
452.4000;0.2499;2.5931;
452.7000;0.2532;2.6081;
453.0000;0.2605;2.6256;
453.3000;0.2532;2.5981;
453.6000;0.2613;2.6131;
453.9000;0.2572;2.6006;
454.2000;0.2572;2.5981;
454.5000;0.2580;2.5956;
454.8000;0.2613;2.5981;
455.1000;0.2605;2.6006;
455.4000;0.2646;2.6156;
455.7000;0.2597;2.5981;
456.0000;0.2605;2.6006;
456.3000;0.2597;2.5981;
456.6000;0.2605;2.6106;
456.9000;0.2532;2.5906;
457.2000;0.2613;2.6206;
457.5000;0.2605;2.6231;
457.8000;0.2605;2.6181;
458.1000;0.2589;2.6156;
458.4000;0.2580;2.6056;
458.7000;0.2572;2.6081;
459.0000;0.2613;2.6156;
459.3000;0.2564;2.6106;
459.6000;0.2597;2.6206;
459.9000;0.2597;2.6256;
460.2000;0.2613;2.6306;
460.5000;0.2515;2.6006;
460.8000;0.2589;2.6156;
461.1000;0.2589;2.6106;
461.4000;0.2605;2.6156;
461.7000;0.2629;2.6306;
462.0000;0.2597;2.6081;
462.3000;0.2605;2.6156;
462.6000;0.2589;2.6106;
462.9000;0.2605;2.6081;
463.2000;0.2613;2.6131;
463.5000;0.2572;2.6056;
463.8000;0.2613;2.6106;
464.1000;0.2589;2.6081;
464.4000;0.2589;2.6031;
464.7000;0.2597;2.6031;
465.0000;0.2556;2.5881;
465.3000;0.2605;2.6006;
465.6000;0.2580;2.5931;
465.9000;0.2597;2.6006;
466.2000;0.2637;2.6131;
466.5000;0.2597;2.6106;
466.8000;0.2580;2.6156;
467.1000;0.2491;2.5931;
467.4000;0.2605;2.6231;
467.7000;0.2589;2.6106;
468.0000;0.2613;2.6181;
468.3000;0.2629;2.6281;
468.6000;0.2613;2.6281;
468.9000;0.2556;2.6106;
469.2000;0.2613;2.6231;
469.5000;0.2597;2.6181;
469.8000;0.2564;2.6056;
470.1000;0.2735;2.6482;
470.4000;0.2580;2.6131;
470.7000;0.2597;2.6056;
471.0000;0.2523;2.5881;
471.3000;0.2613;2.6081;
471.6000;0.2597;2.6056;
471.9000;0.2580;2.6031;
472.2000;0.2605;2.6006;
472.5000;0.2629;2.6081;
472.8000;0.2605;2.6081;
473.1000;0.2613;2.6056;
473.4000;0.2646;2.6156;
473.7000;0.2556;2.5981;
474.0000;0.2580;2.6031;
474.3000;0.2580;2.6031;
474.6000;0.2572;2.5981;
474.9000;0.2613;2.6106;
475.2000;0.2564;2.6006;
475.5000;0.2605;2.6206;
475.8000;0.2532;2.5956;
476.1000;0.2491;2.5856;
476.4000;0.2597;2.6156;
476.7000;0.2597;2.6156;
477.0000;0.2621;2.6331;
477.3000;0.2540;2.6106;
477.6000;0.2678;2.6507;
477.9000;0.2556;2.6106;
478.2000;0.2637;2.6331;
478.5000;0.2580;2.6081;
478.8000;0.2605;2.6156;
479.1000;0.2589;2.6156;
479.4000;0.2418;2.5706;
479.7000;0.2572;2.6156;
480.0000;0.2621;2.6181;
480.3000;0.2572;2.6206;
480.6000;0.2605;2.6231;
480.9000;0.2556;2.6106;
481.2000;0.2597;2.6181;
481.5000;0.2589;2.6106;
481.8000;0.2580;2.6056;
482.1000;0.2613;2.6081;
482.4000;0.2572;2.5956;
482.7000;0.2605;2.6081;
483.0000;0.2654;2.6256;
483.3000;0.2580;2.6156;
483.6000;0.2580;2.6106;
483.9000;0.2572;2.6031;
484.2000;0.2605;2.6131;
484.5000;0.2580;2.6056;
484.8000;0.2589;2.6106;
485.1000;0.2589;2.6056;
485.4000;0.2613;2.6181;
485.7000;0.2597;2.6131;
486.0000;0.2605;2.6156;
486.3000;0.2556;2.6056;
486.6000;0.2597;2.6181;
486.9000;0.2580;2.6106;
487.2000;0.2572;2.6006;
487.5000;0.2564;2.5981;
487.8000;0.2629;2.6231;
488.1000;0.2597;2.6231;
488.4000;0.2580;2.6231;
488.7000;0.2621;2.6256;
489.0000;0.2572;2.6081;
489.3000;0.2572;2.6081;
489.6000;0.2621;2.6281;
489.9000;0.2597;2.6206;
490.2000;0.2605;2.6206;
490.5000;0.2613;2.6106;
490.8000;0.2654;2.6156;
491.1000;0.2662;2.6306;
491.4000;0.2572;2.6081;
491.7000;0.2597;2.6156;
492.0000;0.2605;2.6131;
492.3000;0.2613;2.6206;
492.6000;0.2605;2.6256;
492.9000;0.2613;2.6256;
493.2000;0.2654;2.6331;
493.5000;0.2613;2.6256;
493.8000;0.2589;2.6156;
494.1000;0.2621;2.6206;
494.4000;0.2613;2.6131;
494.7000;0.2605;2.6056;
495.0000;0.2629;2.6106;
495.3000;0.2589;2.5931;
495.6000;0.2580;2.5931;
495.9000;0.2580;2.5906;
496.2000;0.2597;2.6031;
496.5000;0.2605;2.6056;
496.8000;0.2572;2.6031;
497.1000;0.2572;2.6006;
497.4000;0.2637;2.6206;
497.7000;0.2515;2.5981;
498.0000;0.2589;2.6181;
498.3000;0.2580;2.6156;
498.6000;0.2597;2.6156;
498.9000;0.2605;2.6156;
499.2000;0.2589;2.6306;
499.5000;0.2580;2.6181;
499.8000;0.2580;2.6156;
500.1000;0.2662;2.6306;
500.4000;0.2540;2.5956;
500.7000;0.2548;2.5931;
501.0000;0.2613;2.6031;
501.3000;0.2589;2.6031;
501.6000;0.2589;2.5981;
501.9000;0.2572;2.6031;
502.2000;0.2580;2.6006;
502.5000;0.2580;2.5906;
502.8000;0.2572;2.5906;
503.1000;0.2580;2.5831;
503.4000;0.2499;2.5581;
503.7000;0.2564;2.5731;
504.0000;0.2580;2.5806;
504.3000;0.2605;2.5906;
504.6000;0.2605;2.5856;
504.9000;0.2589;2.5781;
505.2000;0.2589;2.5831;
505.5000;0.2613;2.5956;
505.8000;0.2662;2.5981;
506.1000;0.2564;2.5806;
506.4000;0.2597;2.5881;
506.7000;0.2580;2.5906;
507.0000;0.2670;2.6181;
507.3000;0.2548;2.5881;
507.6000;0.2564;2.5906;
507.9000;0.2572;2.5931;
508.2000;0.2580;2.5956;
508.5000;0.2605;2.6056;
508.8000;0.2580;2.5981;
509.1000;0.2564;2.5856;
509.4000;0.2597;2.5856;
509.7000;0.2597;2.5881;
510.0000;0.2580;2.5906;
510.3000;0.2580;2.5881;
510.6000;0.2572;2.5856;
510.9000;0.2589;2.5881;
511.2000;0.2719;2.6231;
511.5000;0.2540;2.5881;
511.8000;0.2646;2.6206;
512.1000;0.2589;2.6131;
512.4000;0.2613;2.6131;
512.7000;0.2597;2.6131;
513.0000;0.2637;2.6306;
513.3000;0.2499;2.5906;
513.6000;0.2637;2.6206;
513.9000;0.2589;2.6081;
514.2000;0.2580;2.6056;
514.5000;0.2580;2.5906;
514.8000;0.2572;2.5981;
515.1000;0.2580;2.6056;
515.4000;0.2597;2.6031;
515.7000;0.2564;2.5981;
516.0000;0.2589;2.6106;
516.3000;0.2678;2.6356;
516.6000;0.2589;2.6081;
516.9000;0.2580;2.6131;
517.2000;0.2589;2.6081;
517.5000;0.2605;2.6106;
517.8000;0.2572;2.6006;
518.1000;0.2564;2.5981;
518.4000;0.2597;2.5981;
518.7000;0.2621;2.6031;
519.0000;0.2613;2.5906;
519.3000;0.2507;2.5631;
519.6000;0.2637;2.6031;
519.9000;0.2556;2.5831;
520.2000;0.2621;2.5931;
520.5000;0.2491;2.5681;
520.8000;0.2572;2.5756;
521.1000;0.2613;2.5881;
521.4000;0.2605;2.5856;
521.7000;0.2515;2.5681;
522.0000;0.2556;2.5756;
522.3000;0.2572;2.5781;
522.6000;0.2613;2.5881;
522.9000;0.2589;2.5881;
523.2000;0.2605;2.6006;
523.5000;0.2605;2.5956;
523.8000;0.2580;2.5956;
524.1000;0.2621;2.6081;
524.4000;0.2597;2.6081;
524.7000;0.2483;2.5906;
525.0000;0.2589;2.6181;
525.3000;0.2605;2.6231;
525.6000;0.2605;2.6306;
525.9000;0.2580;2.6281;
526.2000;0.2621;2.6306;
526.5000;0.2613;2.6231;
526.8000;0.2621;2.6206;
527.1000;0.2572;2.6106;
527.4000;0.2670;2.6381;
527.7000;0.2621;2.6231;
528.0000;0.2621;2.6331;
528.3000;0.2499;2.6106;
528.6000;0.2662;2.6432;
528.9000;0.2532;2.5981;
529.2000;0.2572;2.6056;
529.5000;0.2580;2.5931;
529.8000;0.2637;2.6181;
530.1000;0.2629;2.6106;
530.4000;0.2597;2.6081;
530.7000;0.2613;2.6056;
531.0000;0.2589;2.5956;
531.3000;0.2613;2.5931;
531.6000;0.2621;2.6006;
531.9000;0.2572;2.5956;
532.2000;0.2580;2.6006;
532.5000;0.2483;2.5731;
532.8000;0.2580;2.6031;
533.1000;0.2711;2.6432;
533.4000;0.2613;2.6081;
533.7000;0.2556;2.5931;
534.0000;0.2523;2.5806;
534.3000;0.2605;2.5881;
534.6000;0.2580;2.5906;
534.9000;0.2597;2.5906;
535.2000;0.2678;2.6156;
535.5000;0.2629;2.6006;
535.8000;0.2564;2.5931;
536.1000;0.2646;2.6156;
536.4000;0.2572;2.5981;
536.7000;0.2613;2.6081;
537.0000;0.2621;2.6106;
537.3000;0.2670;2.6256;
537.6000;0.2621;2.6081;
537.9000;0.2637;2.6106;
538.2000;0.2589;2.6006;
538.5000;0.2564;2.5981;
538.8000;0.2589;2.6031;
539.1000;0.2654;2.6106;
539.4000;0.2556;2.5856;
539.7000;0.2564;2.5906;
540.0000;0.2589;2.5856;
540.3000;0.2532;2.5706;
540.6000;0.2556;2.5731;
540.9000;0.2597;2.5831;
541.2000;0.2613;2.5931;
541.5000;0.2597;2.6006;
541.8000;0.2580;2.5906;
542.1000;0.2580;2.5931;
542.4000;0.2589;2.5956;
542.7000;0.2597;2.5956;
543.0000;0.2646;2.6056;
543.3000;0.2580;2.5881;
543.6000;0.2597;2.5931;
543.9000;0.2613;2.6031;
544.2000;0.2589;2.5981;
544.5000;0.2629;2.6031;
544.8000;0.2589;2.5881;
545.1000;0.2637;2.6031;
545.4000;0.2507;2.5631;
545.7000;0.2597;2.5731;
546.0000;0.2556;2.5681;
546.3000;0.2483;2.5480;
546.6000;0.2523;2.5505;
546.9000;0.2580;2.5681;
547.2000;0.2548;2.5656;
547.5000;0.2589;2.5856;
547.8000;0.2572;2.5856;
548.1000;0.2613;2.6006;
548.4000;0.2597;2.5981;
548.7000;0.2572;2.5906;
549.0000;0.2759;2.6407;
549.3000;0.2580;2.5906;
549.6000;0.2580;2.5931;
549.9000;0.2662;2.6156;
550.2000;0.2572;2.5881;
550.5000;0.2589;2.5881;
550.8000;0.2589;2.5981;
551.1000;0.2589;2.5956;
551.4000;0.2580;2.5956;
551.7000;0.2613;2.6006;
552.0000;0.2637;2.6156;
552.3000;0.2564;2.6031;
552.6000;0.2580;2.6056;
552.9000;0.2621;2.6156;
553.2000;0.2597;2.6081;
553.5000;0.2532;2.5956;
553.8000;0.2532;2.6031;
554.1000;0.2589;2.6231;
554.4000;0.2646;2.6331;
554.7000;0.2646;2.6356;
555.0000;0.2743;2.6657;
555.3000;0.2605;2.6206;
555.6000;0.2605;2.6206;
555.9000;0.2572;2.6131;
556.2000;0.2572;2.6006;
556.5000;0.2589;2.5956;
556.8000;0.2621;2.6031;
557.1000;0.2605;2.6006;
557.4000;0.2613;2.5956;
557.7000;0.2580;2.5981;
558.0000;0.2458;2.5656;
558.3000;0.2580;2.6031;
558.6000;0.2580;2.5981;
558.9000;0.2597;2.6031;
559.2000;0.2613;2.6131;
559.5000;0.2589;2.6081;
559.8000;0.2597;2.6131;
560.1000;0.2662;2.6356;
560.4000;0.2605;2.6106;
560.7000;0.2597;2.6131;
561.0000;0.2580;2.6181;
561.3000;0.2564;2.6106;
561.6000;0.2613;2.6131;
561.9000;0.2621;2.6056;
562.2000;0.2605;2.6006;
562.5000;0.2597;2.5981;
562.8000;0.2735;2.6356;
563.1000;0.2475;2.5731;
563.4000;0.2597;2.6131;
563.7000;0.2580;2.6156;
564.0000;0.2580;2.6181;
564.3000;0.2564;2.6081;
564.6000;0.2589;2.6206;
564.9000;0.2572;2.6131;
565.2000;0.2621;2.6206;
565.5000;0.2629;2.6156;
565.8000;0.2597;2.6131;
566.1000;0.2613;2.6156;
566.4000;0.2597;2.6056;
566.7000;0.2589;2.5956;
567.0000;0.2597;2.5956;
567.3000;0.2597;2.6006;
567.6000;0.2629;2.5931;
567.9000;0.2694;2.6106;
568.2000;0.2515;2.5556;
568.5000;0.2629;2.5906;
568.8000;0.2540;2.5631;
569.1000;0.2589;2.5781;
569.4000;0.2597;2.5931;
569.7000;0.2605;2.5881;
570.0000;0.2621;2.5906;
570.3000;0.2662;2.6131;
570.6000;0.2654;2.6081;
570.9000;0.2637;2.6081;
571.2000;0.2597;2.5981;
571.5000;0.2580;2.6006;
571.8000;0.2589;2.6081;
572.1000;0.2613;2.6156;
572.4000;0.2580;2.6131;
572.7000;0.2597;2.6131;
573.0000;0.2572;2.6006;
573.3000;0.2629;2.6206;
573.6000;0.2589;2.6056;
573.9000;0.2597;2.6031;
574.2000;0.2572;2.5806;
574.5000;0.2646;2.5931;
574.8000;0.2613;2.5856;
575.1000;0.2629;2.5906;
575.4000;0.2589;2.5856;
575.7000;0.2605;2.5856;
576.0000;0.2580;2.5881;
576.3000;0.2580;2.5856;
576.6000;0.2572;2.5881;
576.9000;0.2580;2.5831;
577.2000;0.2572;2.5856;
577.5000;0.2556;2.5756;
577.8000;0.2580;2.5806;
578.1000;0.2597;2.5956;
578.4000;0.2621;2.6056;
578.7000;0.2589;2.6006;
579.0000;0.2499;2.5781;
579.3000;0.2597;2.6081;
579.6000;0.2580;2.6006;
579.9000;0.2597;2.6131;
580.2000;0.2532;2.5931;
580.5000;0.2580;2.6056;
580.8000;0.2597;2.6106;
581.1000;0.2580;2.6056;
581.4000;0.2597;2.6031;
581.7000;0.2597;2.6031;
582.0000;0.2613;2.6156;
582.3000;0.2597;2.6181;
582.6000;0.2613;2.6131;
582.9000;0.2589;2.6056;
583.2000;0.2564;2.5956;
583.5000;0.2597;2.5956;
583.8000;0.2605;2.5956;
584.1000;0.2605;2.6031;
584.4000;0.2556;2.5881;
584.7000;0.2523;2.5831;
585.0000;0.2597;2.5956;
585.3000;0.2589;2.5881;
585.6000;0.2580;2.5856;
585.9000;0.2589;2.5931;
586.2000;0.2589;2.6056;
586.5000;0.2597;2.6081;
586.8000;0.2572;2.6006;
587.1000;0.2580;2.5981;
587.4000;0.2613;2.6056;
587.7000;0.2589;2.6056;
588.0000;0.2580;2.5981;
588.3000;0.2589;2.5931;
588.6000;0.2637;2.6231;
588.9000;0.2564;2.5981;
589.2000;0.2597;2.6031;
589.5000;0.2564;2.5906;
589.8000;0.2597;2.5931;
590.1000;0.2613;2.6031;
590.4000;0.2589;2.5981;
590.7000;0.2580;2.6106;
591.0000;0.2589;2.6031;
591.3000;0.2572;2.5981;
591.6000;0.2580;2.6006;
591.9000;0.2532;2.5881;
592.2000;0.2532;2.5806;
592.5000;0.2605;2.5981;
592.8000;0.2589;2.6031;
593.1000;0.2589;2.6031;
593.4000;0.2629;2.6181;
593.7000;0.2597;2.6006;
594.0000;0.2597;2.5981;
594.3000;0.2548;2.5856;
594.6000;0.2589;2.6056;
594.9000;0.2556;2.5906;
595.2000;0.2589;2.6056;
595.5000;0.2597;2.6131;
595.8000;0.2597;2.6006;
596.1000;0.2556;2.5956;
596.4000;0.2589;2.5956;
596.7000;0.2580;2.5981;
597.0000;0.2556;2.5831;
597.3000;0.2572;2.5931;
597.6000;0.2597;2.5906;
597.9000;0.2589;2.5906;
598.2000;0.2605;2.5906;
598.5000;0.2613;2.5906;
598.8000;0.2605;2.5906;
599.1000;0.2589;2.5856;
599.4000;0.2613;2.6006;
599.7000;0.2597;2.5981;
600.0000;0.2564;2.6006;
600.3000;0.2589;2.6031;
600.6000;0.2580;2.5906;
600.9000;0.2572;2.5756;
601.2000;0.2621;2.5656;
601.5000;0.2605;2.5505;
601.8000;0.2548;2.5180;
602.1000;0.2572;2.5030;
602.4000;0.2540;2.4830;
602.7000;0.2540;2.4780;
603.0000;0.2540;2.4679;
603.3000;0.2523;2.4579;
603.6000;0.2564;2.4604;
603.9000;0.2532;2.4379;
604.2000;0.2426;2.4104;
604.5000;0.2499;2.4254;
604.8000;0.2499;2.4179;
605.1000;0.2434;2.3979;
605.4000;0.2483;2.4004;
605.7000;0.2499;2.3929;
606.0000;0.2523;2.3879;
606.3000;0.2580;2.4004;
606.6000;0.2499;2.3753;
606.9000;0.2483;2.3703;
607.2000;0.2507;2.3678;
607.5000;0.2475;2.3653;
607.8000;0.2499;2.3528;
608.1000;0.2540;2.3728;
608.4000;0.2491;2.3528;
608.7000;0.2475;2.3503;
609.0000;0.2515;2.3578;
609.3000;0.2483;2.3578;
609.6000;0.2483;2.3503;
609.9000;0.2475;2.3578;
610.2000;0.2475;2.3578;
610.5000;0.2483;2.3428;
610.8000;0.2491;2.3528;
611.1000;0.2515;2.3653;
611.4000;0.2442;2.3503;
611.7000;0.2491;2.3528;
612.0000;0.2475;2.3503;
612.3000;0.2483;2.3528;
612.6000;0.2483;2.3603;
612.9000;0.2507;2.3628;
613.2000;0.2475;2.3528;
613.5000;0.2466;2.3478;
613.8000;0.2499;2.3528;
614.1000;0.2483;2.3453;
614.4000;0.2466;2.3328;
614.7000;0.2466;2.3303;
615.0000;0.2483;2.3378;
615.3000;0.2507;2.3403;
615.6000;0.2499;2.3353;
615.9000;0.2418;2.3078;
616.2000;0.2475;2.3278;
616.5000;0.2491;2.3403;
616.8000;0.2475;2.3328;
617.1000;0.2483;2.3453;
617.4000;0.2491;2.3578;
617.7000;0.2491;2.3553;
618.0000;0.2491;2.3553;
618.3000;0.2475;2.3578;
618.6000;0.2491;2.3528;
618.9000;0.2475;2.3478;
619.2000;0.2483;2.3453;
619.5000;0.2523;2.3453;
619.8000;0.2523;2.3403;
620.1000;0.2458;2.3203;
620.4000;0.2483;2.3278;
620.7000;0.2507;2.3428;
621.0000;0.2499;2.3378;
621.3000;0.2523;2.3453;
621.6000;0.2646;2.3728;
621.9000;0.2491;2.3253;
622.2000;0.2466;2.3278;
622.5000;0.2491;2.3328;
622.8000;0.2475;2.3328;
623.1000;0.2507;2.3428;
623.4000;0.2466;2.3228;
623.7000;0.2442;2.3228;
624.0000;0.2507;2.3378;
624.3000;0.2385;2.3178;
624.6000;0.2450;2.3253;
624.9000;0.2442;2.3178;
625.2000;0.2499;2.3353;
625.5000;0.2507;2.3378;
625.8000;0.2507;2.3478;
626.1000;0.2491;2.3503;
626.4000;0.2475;2.3378;
626.7000;0.2499;2.3528;
627.0000;0.2409;2.3253;
627.3000;0.2475;2.3353;
627.6000;0.2483;2.3303;
627.9000;0.2532;2.3403;
628.2000;0.2475;2.3278;
628.5000;0.2483;2.3328;
628.8000;0.2466;2.3303;
629.1000;0.2466;2.3178;
629.4000;0.2466;2.3228;
629.7000;0.2426;2.3128;
630.0000;0.2491;2.3303;
630.3000;0.2442;2.3153;
630.6000;0.2458;2.3253;
630.9000;0.2442;2.3328;
631.2000;0.2499;2.3328;
631.5000;0.2483;2.3328;
631.8000;0.2491;2.3303;
632.1000;0.2475;2.3203;
632.4000;0.2458;2.3228;
632.7000;0.2491;2.3278;
633.0000;0.2466;2.3253;
633.3000;0.2466;2.3353;
633.6000;0.2466;2.3278;
633.9000;0.2466;2.3303;
634.2000;0.2483;2.3428;
634.5000;0.2466;2.3378;
634.8000;0.2499;2.3503;
635.1000;0.2483;2.3328;
635.4000;0.2507;2.3328;
635.7000;0.2434;2.3203;
636.0000;0.2466;2.3328;
636.3000;0.2483;2.3378;
636.6000;0.2483;2.3253;
636.9000;0.2491;2.3203;
637.2000;0.2499;2.3328;
637.5000;0.2418;2.3027;
637.8000;0.2442;2.3078;
638.1000;0.2458;2.3153;
638.4000;0.2605;2.3478;
638.7000;0.2466;2.3053;
639.0000;0.2466;2.3103;
639.3000;0.2475;2.3027;
639.6000;0.2515;2.3178;
639.9000;0.2466;2.3078;
640.2000;0.2320;2.2677;
640.5000;0.2475;2.3178;
640.8000;0.2458;2.3027;
641.1000;0.2475;2.3153;
641.4000;0.2475;2.3228;
641.7000;0.2507;2.3328;
642.0000;0.2475;2.3253;
642.3000;0.2499;2.3253;
642.6000;0.2483;2.3253;
642.9000;0.2475;2.3253;
643.2000;0.2458;2.3203;
643.5000;0.2466;2.3128;
643.8000;0.2458;2.3128;
644.1000;0.2466;2.3153;
644.4000;0.2491;2.3228;
644.7000;0.2377;2.2877;
645.0000;0.2458;2.3053;
645.3000;0.2434;2.3053;
645.6000;0.2540;2.3403;
645.9000;0.2523;2.3303;
646.2000;0.2491;2.3203;
646.5000;0.2499;2.3228;
646.8000;0.2475;2.3128;
647.1000;0.2475;2.3228;
647.4000;0.2475;2.3203;
647.7000;0.2466;2.3178;
648.0000;0.2475;2.3253;
648.3000;0.2556;2.3453;
648.6000;0.2466;2.3278;
648.9000;0.2336;2.2927;
649.2000;0.2401;2.3128;
649.5000;0.2426;2.3203;
649.8000;0.2385;2.3178;
650.1000;0.2597;2.3703;
650.4000;0.2475;2.3378;
650.7000;0.2409;2.3178;
651.0000;0.2499;2.3403;
651.3000;0.2483;2.3378;
651.6000;0.2556;2.3578;
651.9000;0.2483;2.3403;
652.2000;0.2491;2.3453;
652.5000;0.2475;2.3328;
652.8000;0.2540;2.3403;
653.1000;0.2328;2.2802;
653.4000;0.2499;2.3228;
653.7000;0.2499;2.3278;
654.0000;0.2475;2.3278;
654.3000;0.2458;2.3253;
654.6000;0.2475;2.3278;
654.9000;0.2532;2.3428;
655.2000;0.2466;2.3203;
655.5000;0.2450;2.3178;
655.8000;0.2475;2.3228;
656.1000;0.2442;2.3078;
656.4000;0.2507;2.3203;
656.7000;0.2458;2.3153;
657.0000;0.2499;2.3253;
657.3000;0.2475;2.3203;
657.6000;0.2491;2.3253;
657.9000;0.2450;2.3128;
658.2000;0.2450;2.3053;
658.5000;0.2499;2.3103;
658.8000;0.2491;2.3103;
659.1000;0.2466;2.3078;
659.4000;0.2499;2.3228;
659.7000;0.2483;2.3153;
660.0000;0.2475;2.3128;
660.3000;0.2491;2.3153;
660.6000;0.2385;2.2952;
660.9000;0.2499;2.3303;
661.2000;0.2450;2.3203;
661.5000;0.2409;2.3053;
661.8000;0.2483;2.3228;
662.1000;0.2483;2.3228;
662.4000;0.2483;2.3228;
662.7000;0.2483;2.3228;
663.0000;0.2442;2.3103;
663.3000;0.2466;2.3103;
663.6000;0.2637;2.3553;
663.9000;0.2491;2.3153;
664.2000;0.2466;2.3178;
664.5000;0.2483;2.3178;
664.8000;0.2401;2.2877;
665.1000;0.2450;2.2952;
665.4000;0.2483;2.2977;
665.7000;0.2483;2.2952;
666.0000;0.2499;2.3002;
666.3000;0.2475;2.2952;
666.6000;0.2450;2.2927;
666.9000;0.2499;2.3053;
667.2000;0.2393;2.2777;
667.5000;0.2507;2.3103;
667.8000;0.2458;2.2952;
668.1000;0.2483;2.3103;
668.4000;0.2450;2.2977;
668.7000;0.2548;2.3228;
669.0000;0.2483;2.3078;
669.3000;0.2466;2.3078;
669.6000;0.2466;2.3078;
669.9000;0.2426;2.3002;
670.2000;0.2466;2.3153;
670.5000;0.2483;2.3228;
670.8000;0.2483;2.3228;
671.1000;0.2466;2.3228;
671.4000;0.2483;2.3353;
671.7000;0.2507;2.3228;
672.0000;0.2483;2.3178;
672.3000;0.2491;2.3178;
672.6000;0.2499;2.3203;
672.9000;0.2491;2.3228;
673.2000;0.2491;2.3128;
673.5000;0.2483;2.3228;
673.8000;0.2475;2.3278;
674.1000;0.2483;2.3228;
674.4000;0.2491;2.3228;
674.7000;0.2458;2.3053;
675.0000;0.2483;2.3128;
675.3000;0.2466;2.3103;
675.6000;0.2475;2.3178;
675.9000;0.2491;2.3178;
676.2000;0.2434;2.2927;
676.5000;0.2475;2.3053;
676.8000;0.2475;2.3053;
677.1000;0.2450;2.2902;
677.4000;0.2491;2.3027;
677.7000;0.2483;2.3002;
678.0000;0.2483;2.3027;
678.3000;0.2458;2.2952;
678.6000;0.2491;2.3078;
678.9000;0.2491;2.3128;
679.2000;0.2475;2.3128;
679.5000;0.2491;2.3153;
679.8000;0.2458;2.3178;
680.1000;0.2475;2.3278;
680.4000;0.2466;2.3228;
680.7000;0.2466;2.3203;
681.0000;0.2466;2.3228;
681.3000;0.2475;2.3228;
681.6000;0.2515;2.3253;
681.9000;0.2491;2.3228;
682.2000;0.2475;2.3128;
682.5000;0.2515;2.3203;
682.8000;0.2491;2.3178;
683.1000;0.2466;2.3103;
683.4000;0.2491;2.3128;
683.7000;0.2450;2.3053;
684.0000;0.2442;2.3002;
684.3000;0.2540;2.3278;
684.6000;0.2483;2.3103;
684.9000;0.2532;2.3328;
685.2000;0.2466;2.3178;
685.5000;0.2442;2.2977;
685.8000;0.2426;2.3027;
686.1000;0.2475;2.3153;
686.4000;0.2458;2.3002;
686.7000;0.2483;2.2952;
687.0000;0.2434;2.2827;
687.3000;0.2483;2.2952;
687.6000;0.2483;2.3027;
687.9000;0.2442;2.2927;
688.2000;0.2466;2.2952;
688.5000;0.2475;2.2977;
688.8000;0.2491;2.3002;
689.1000;0.2466;2.2952;
689.4000;0.2507;2.3027;
689.7000;0.2483;2.3027;
690.0000;0.2475;2.3027;
690.3000;0.2491;2.3128;
690.6000;0.2507;2.3253;
690.9000;0.2483;2.3228;
691.2000;0.2475;2.3203;
691.5000;0.2515;2.3303;
691.8000;0.2491;2.3278;
692.1000;0.2483;2.3128;
692.4000;0.2491;2.3128;
692.7000;0.2491;2.3078;
693.0000;0.2483;2.3178;
693.3000;0.2475;2.3278;
693.6000;0.2336;2.2927;
693.9000;0.2475;2.3203;
694.2000;0.2507;2.3203;
694.5000;0.2450;2.3103;
694.8000;0.2499;2.3303;
695.1000;0.2393;2.2927;
695.4000;0.2491;2.3203;
695.7000;0.2483;2.3228;
696.0000;0.2523;2.3453;
696.3000;0.2507;2.3478;
696.6000;0.2499;2.3478;
696.9000;0.2507;2.3503;
697.2000;0.2475;2.3353;
697.5000;0.2483;2.3278;
697.8000;0.2515;2.3328;
698.1000;0.2499;2.3253;
698.4000;0.2483;2.3278;
698.7000;0.2515;2.3303;
699.0000;0.2466;2.3328;
699.3000;0.2475;2.3328;
699.6000;0.2458;2.3228;
699.9000;0.2466;2.3153;
700.2000;0.2515;2.3253;
700.5000;0.2515;2.3353;
700.8000;0.2491;2.3278;
701.1000;0.2483;2.3278;
701.4000;0.2491;2.3328;
701.7000;0.2507;2.3353;
702.0000;0.2499;2.3428;
702.3000;0.2426;2.3278;
702.6000;0.2499;2.3428;
702.9000;0.2483;2.3328;
703.2000;0.2548;2.3478;
703.5000;0.2483;2.3278;
703.8000;0.2475;2.3303;
704.1000;0.2491;2.3428;
704.4000;0.2475;2.3328;
704.7000;0.2458;2.3278;
705.0000;0.2491;2.3328;
705.3000;0.2499;2.3378;
705.6000;0.2499;2.3478;
705.9000;0.2499;2.3528;
706.2000;0.2499;2.3403;
706.5000;0.2483;2.3278;
706.8000;0.2475;2.3353;
707.1000;0.2483;2.3228;
707.4000;0.2442;2.3153;
707.7000;0.2442;2.3103;
708.0000;0.2475;2.3253;
708.3000;0.2483;2.3253;
708.6000;0.2499;2.3203;
708.9000;0.2466;2.3078;
709.2000;0.2483;2.3178;
709.5000;0.2458;2.3203;
709.8000;0.2483;2.3278;
710.1000;0.2499;2.3253;
710.4000;0.2499;2.3303;
710.7000;0.2532;2.3378;
711.0000;0.2507;2.3353;
711.3000;0.2483;2.3303;
711.6000;0.2605;2.3603;
711.9000;0.2483;2.3278;
712.2000;0.2483;2.3178;
712.5000;0.2458;2.3078;
712.8000;0.2475;2.3153;
713.1000;0.2483;2.3253;
713.4000;0.2515;2.3328;
713.7000;0.2499;2.3278;
714.0000;0.2483;2.3253;
714.3000;0.2491;2.3253;
714.6000;0.2442;2.3153;
714.9000;0.2466;2.3178;
715.2000;0.2491;2.3153;
715.5000;0.2491;2.3128;
715.8000;0.2499;2.3203;
716.1000;0.2499;2.3178;
716.4000;0.2507;2.3228;
716.7000;0.2434;2.2977;
717.0000;0.2475;2.3027;
717.3000;0.2507;2.3153;
717.6000;0.2483;2.3053;
717.9000;0.2418;2.2877;
718.2000;0.2466;2.3128;
718.5000;0.2450;2.3128;
718.8000;0.2409;2.3053;
719.1000;0.2458;2.3228;
719.4000;0.2458;2.3253;
719.7000;0.2434;2.3203;
720.0000;0.2458;2.3278;
720.3000;0.2475;2.3128;
720.6000;0.2466;2.3027;
720.9000;0.2532;2.3153;
721.2000;0.2450;2.3002;
721.5000;0.2466;2.3027;
721.8000;0.2499;2.3153;
722.1000;0.2499;2.3203;
722.4000;0.2442;2.3027;
722.7000;0.2532;2.3353;
723.0000;0.2450;2.3103;
723.3000;0.2475;2.3128;
723.6000;0.2483;2.3178;
723.9000;0.2475;2.3178;
724.2000;0.2475;2.3278;
724.5000;0.2466;2.3228;
724.8000;0.2434;2.3027;
725.1000;0.2466;2.3178;
725.4000;0.2475;2.3228;
725.7000;0.2507;2.3303;
726.0000;0.2491;2.3203;
726.3000;0.2409;2.2977;
726.6000;0.2418;2.3053;
726.9000;0.2556;2.3428;
727.2000;0.2532;2.3478;
727.5000;0.2483;2.3278;
727.8000;0.2483;2.3303;
728.1000;0.2491;2.3378;
728.4000;0.2483;2.3453;
728.7000;0.2523;2.3353;
729.0000;0.2475;2.3303;
729.3000;0.2491;2.3328;
729.6000;0.2556;2.3428;
729.9000;0.2507;2.3328;
730.2000;0.2458;2.3203;
730.5000;0.2507;2.3328;
730.8000;0.2507;2.3378;
731.1000;0.2499;2.3328;
731.4000;0.2475;2.3328;
731.7000;0.2483;2.3328;
732.0000;0.2507;2.3503;
732.3000;0.2483;2.3378;
732.6000;0.2475;2.3203;
732.9000;0.2499;2.3303;
733.2000;0.2483;2.3303;
733.5000;0.2483;2.3328;
733.8000;0.2556;2.3503;
734.1000;0.2491;2.3353;
734.4000;0.2361;2.2952;
734.7000;0.2434;2.3203;
735.0000;0.2483;2.3303;
735.3000;0.2572;2.3528;
735.6000;0.2491;2.3278;
735.9000;0.2597;2.3553;
736.2000;0.2475;2.3203;
736.5000;0.2483;2.3278;
736.8000;0.2491;2.3278;
737.1000;0.2483;2.3253;
737.4000;0.2491;2.3303;
737.7000;0.2491;2.3378;
738.0000;0.2483;2.3328;
738.3000;0.2475;2.3353;
738.6000;0.2491;2.3403;
738.9000;0.2483;2.3303;
739.2000;0.2450;2.3278;
739.5000;0.2507;2.3428;
739.8000;0.2442;2.3303;
740.1000;0.2540;2.3553;
740.4000;0.2507;2.3353;
740.7000;0.2418;2.3153;
741.0000;0.2475;2.3203;
741.3000;0.2475;2.3178;
741.6000;0.2491;2.3203;
741.9000;0.2491;2.3228;
742.2000;0.2483;2.3278;
742.5000;0.2483;2.3303;
742.8000;0.2450;2.3178;
743.1000;0.2540;2.3403;
743.4000;0.2466;2.3128;
743.7000;0.2483;2.3228;
744.0000;0.2483;2.3278;
744.3000;0.2483;2.3253;
744.6000;0.2515;2.3403;
744.9000;0.2483;2.3403;
745.2000;0.2418;2.3203;
745.5000;0.2507;2.3503;
745.8000;0.2540;2.3603;
746.1000;0.2450;2.3228;
746.4000;0.2507;2.3328;
746.7000;0.2499;2.3303;
747.0000;0.2491;2.3328;
747.3000;0.2507;2.3403;
747.6000;0.2499;2.3353;
747.9000;0.2475;2.3278;
748.2000;0.2507;2.3403;
748.5000;0.2475;2.3328;
748.8000;0.2499;2.3303;
749.1000;0.2491;2.3278;
749.4000;0.2491;2.3278;
749.7000;0.2475;2.3228;
750.0000;0.2475;2.3228;
750.3000;0.2621;2.3578;
750.6000;0.2458;2.3203;
750.9000;0.2499;2.3378;
751.2000;0.2507;2.3328;
751.5000;0.2540;2.3278;
751.8000;0.2499;2.3128;
752.1000;0.2507;2.3228;
752.4000;0.2491;2.3203;
752.7000;0.2466;2.3078;
753.0000;0.2401;2.3002;
753.3000;0.2466;2.3228;
753.6000;0.2499;2.3278;
753.9000;0.2475;2.3228;
754.2000;0.2475;2.3153;
754.5000;0.2442;2.3128;
754.8000;0.2458;2.3128;
755.1000;0.2507;2.3253;
755.4000;0.2532;2.3303;
755.7000;0.2580;2.3453;
756.0000;0.2491;2.3278;
756.3000;0.2572;2.3478;
756.6000;0.2466;2.3303;
756.9000;0.2483;2.3353;
757.2000;0.2483;2.3378;
757.5000;0.2466;2.3353;
757.8000;0.2426;2.3253;
758.1000;0.2491;2.3278;
758.4000;0.2475;2.3253;
758.7000;0.2515;2.3353;
759.0000;0.2491;2.3203;
759.3000;0.2564;2.3378;
759.6000;0.2548;2.3378;
759.9000;0.2475;2.3103;
760.2000;0.2507;2.3178;
760.5000;0.2499;2.3178;
760.8000;0.2499;2.3153;
761.1000;0.2466;2.3078;
761.4000;0.2491;2.3153;
761.7000;0.2483;2.3178;
762.0000;0.2352;2.2852;
762.3000;0.2483;2.3228;
762.6000;0.2483;2.3178;
762.9000;0.2491;2.3228;
763.2000;0.2458;2.3203;
763.5000;0.2491;2.3403;
763.8000;0.2352;2.3128;
764.1000;0.2483;2.3353;
764.4000;0.2466;2.3228;
764.7000;0.2450;2.3203;
765.0000;0.2475;2.3178;
765.3000;0.2499;2.3303;
765.6000;0.2491;2.3328;
765.9000;0.2483;2.3303;
766.2000;0.2507;2.3428;
766.5000;0.2458;2.3278;
766.8000;0.2491;2.3278;
767.1000;0.2393;2.3078;
767.4000;0.2458;2.3203;
767.7000;0.2540;2.3378;
768.0000;0.2597;2.3528;
768.3000;0.2475;2.3203;
768.6000;0.2499;2.3228;
768.9000;0.2646;2.3753;
769.2000;0.2458;2.3203;
769.5000;0.2466;2.3303;
769.8000;0.2483;2.3428;
770.1000;0.2548;2.3503;
770.4000;0.2475;2.3353;
770.7000;0.2556;2.3578;
771.0000;0.2483;2.3378;
771.3000;0.2540;2.3453;
771.6000;0.2491;2.3378;
771.9000;0.2475;2.3328;
772.2000;0.2589;2.3728;
772.5000;0.2377;2.3128;
772.8000;0.2483;2.3453;
773.1000;0.2540;2.3503;
773.4000;0.2475;2.3328;
773.7000;0.2475;2.3228;
774.0000;0.2491;2.3303;
774.3000;0.2475;2.3203;
774.6000;0.2483;2.3203;
774.9000;0.2491;2.3203;
775.2000;0.2605;2.3528;
775.5000;0.2352;2.2852;
775.8000;0.2483;2.3203;
776.1000;0.2458;2.3153;
776.4000;0.2507;2.3328;
776.7000;0.2466;2.3178;
777.0000;0.2499;2.3203;
777.3000;0.2515;2.3253;
777.6000;0.2548;2.3428;
777.9000;0.2499;2.3228;
778.2000;0.2458;2.3128;
778.5000;0.2475;2.3253;
778.8000;0.2466;2.3203;
779.1000;0.2491;2.3203;
779.4000;0.2491;2.3203;
779.7000;0.2475;2.3203;
780.0000;0.2483;2.3178;
780.3000;0.2491;2.3128;
780.6000;0.2475;2.3002;
780.9000;0.2483;2.3053;
781.2000;0.2450;2.2977;
781.5000;0.2458;2.3128;
781.8000;0.2491;2.3253;
782.1000;0.2483;2.3228;
782.4000;0.2483;2.3228;
782.7000;0.2499;2.3303;
783.0000;0.2491;2.3278;
783.3000;0.2442;2.2977;
783.6000;0.2458;2.3053;
783.9000;0.2458;2.3053;
784.2000;0.2466;2.3027;
784.5000;0.2450;2.2927;
784.8000;0.2475;2.3078;
785.1000;0.2450;2.3027;
785.4000;0.2483;2.3153;
785.7000;0.2483;2.3203;
786.0000;0.2483;2.3253;
786.3000;0.2483;2.3253;
786.6000;0.2475;2.3228;
786.9000;0.2491;2.3153;
787.2000;0.2475;2.3053;
787.5000;0.2613;2.3478;
787.8000;0.2475;2.3178;
788.1000;0.2646;2.3753;
788.4000;0.2475;2.3253;
788.7000;0.2442;2.3078;
789.0000;0.2475;2.3128;
789.3000;0.2499;2.3178;
789.6000;0.2491;2.3103;
789.9000;0.2475;2.3103;
790.2000;0.2564;2.3353;
790.5000;0.2483;2.3153;
790.8000;0.2491;2.3078;
791.1000;0.2540;2.3228;
791.4000;0.2466;2.3027;
791.7000;0.2491;2.3103;
792.0000;0.2507;2.3078;
792.3000;0.2532;2.3153;
792.6000;0.2458;2.3053;
792.9000;0.2483;2.3178;
793.2000;0.2589;2.3478;
793.5000;0.2532;2.3378;
793.8000;0.2483;2.3178;
794.1000;0.2523;2.3303;
794.4000;0.2475;2.3253;
794.7000;0.2491;2.3353;
795.0000;0.2458;2.3278;
795.3000;0.2442;2.3228;
795.6000;0.2475;2.3303;
795.9000;0.2483;2.3278;
796.2000;0.2450;2.3303;
796.5000;0.2458;2.3303;
796.8000;0.2491;2.3303;
797.1000;0.2483;2.3303;
797.4000;0.2491;2.3378;
797.7000;0.2483;2.3353;
798.0000;0.2491;2.3303;
798.3000;0.2483;2.3303;
798.6000;0.2475;2.3253;
798.9000;0.2466;2.3203;
799.2000;0.2532;2.3303;
799.5000;0.2491;2.3303;
799.8000;0.2483;2.3278;
800.1000;0.2483;2.3228;
800.4000;0.2475;2.3228;
800.7000;0.2475;2.3203;
801.0000;0.2491;2.3303;
801.3000;0.2418;2.3078;
801.6000;0.2507;2.3128;
801.9000;0.2475;2.3053;
802.2000;0.2548;2.3203;
802.5000;0.2434;2.2952;
802.8000;0.2475;2.2927;
803.1000;0.2475;2.2927;
803.4000;0.2475;2.2877;
803.7000;0.2621;2.3278;
804.0000;0.2499;2.2977;
804.3000;0.2475;2.3027;
804.6000;0.2491;2.3078;
804.9000;0.2475;2.3128;
805.2000;0.2507;2.3253;
805.5000;0.2483;2.3228;
805.8000;0.2507;2.3353;
806.1000;0.2507;2.3328;
806.4000;0.2499;2.3328;
806.7000;0.2483;2.3303;
807.0000;0.2475;2.3253;
807.3000;0.2483;2.3253;
807.6000;0.2491;2.3328;
807.9000;0.2458;2.3128;
808.2000;0.2507;2.3228;
808.5000;0.2483;2.3078;
808.8000;0.2499;2.3178;
809.1000;0.2507;2.3203;
809.4000;0.2466;2.3178;
809.7000;0.2483;2.3278;
810.0000;0.2491;2.3278;
810.3000;0.2483;2.3178;
810.6000;0.2475;2.3053;
810.9000;0.2507;2.3203;
811.2000;0.2466;2.3078;
811.5000;0.2434;2.2952;
811.8000;0.2475;2.3103;
812.1000;0.2483;2.3053;
812.4000;0.2532;2.3128;
812.7000;0.2523;2.3203;
813.0000;0.2336;2.2727;
813.3000;0.2491;2.3153;
813.6000;0.2483;2.3078;
813.9000;0.2499;2.3128;
814.2000;0.2418;2.3027;
814.5000;0.2515;2.3203;
814.8000;0.2483;2.3153;
815.1000;0.2483;2.3178;
815.4000;0.2466;2.3053;
815.7000;0.2507;2.3228;
816.0000;0.2491;2.3178;
816.3000;0.2393;2.2927;
816.6000;0.2458;2.3103;
816.9000;0.2499;2.3153;
817.2000;0.2499;2.3128;
817.5000;0.2434;2.2952;
817.8000;0.2491;2.3078;
818.1000;0.2507;2.3128;
818.4000;0.2507;2.3002;
818.7000;0.2507;2.3053;
819.0000;0.2515;2.3178;
819.3000;0.2377;2.2727;
819.6000;0.2458;2.3078;
819.9000;0.2450;2.3027;
820.2000;0.2491;2.3178;
820.5000;0.2458;2.3103;
820.8000;0.2458;2.3103;
821.1000;0.2458;2.3027;
821.4000;0.2499;2.3128;
821.7000;0.2483;2.3078;
822.0000;0.2475;2.3078;
822.3000;0.2499;2.3153;
822.6000;0.2523;2.3228;
822.9000;0.2499;2.3103;
823.2000;0.2507;2.3128;
823.5000;0.2475;2.3053;
823.8000;0.2483;2.3053;
824.1000;0.2491;2.3078;
824.4000;0.2475;2.3103;
824.7000;0.2475;2.2977;
825.0000;0.2483;2.3053;
825.3000;0.2515;2.3228;
825.6000;0.2426;2.2902;
825.9000;0.2589;2.3303;
826.2000;0.2499;2.3153;
826.5000;0.2589;2.3453;
826.8000;0.2491;2.3228;
827.1000;0.2491;2.3178;
827.4000;0.2418;2.2877;
827.7000;0.2426;2.2827;
828.0000;0.2491;2.2977;
828.3000;0.2483;2.2977;
828.6000;0.2491;2.3128;
828.9000;0.2491;2.3153;
829.2000;0.2442;2.3027;
829.5000;0.2499;2.3253;
829.8000;0.2475;2.3203;
830.1000;0.2507;2.3178;
830.4000;0.2475;2.3103;
830.7000;0.2523;2.3153;
831.0000;0.2507;2.3078;
831.3000;0.2475;2.3027;
831.6000;0.2450;2.3027;
831.9000;0.2426;2.2977;
832.2000;0.2442;2.3027;
832.5000;0.2458;2.3203;
832.8000;0.2483;2.3253;
833.1000;0.2466;2.3228;
833.4000;0.2507;2.3303;
833.7000;0.2532;2.3453;
834.0000;0.2507;2.3453;
834.3000;0.2515;2.3453;
834.6000;0.2475;2.3303;
834.9000;0.2483;2.3278;
835.2000;0.2491;2.3328;
835.5000;0.2393;2.3078;
835.8000;0.2458;2.3253;
836.1000;0.2483;2.3253;
836.4000;0.2491;2.3303;
836.7000;0.2499;2.3303;
837.0000;0.2507;2.3378;
837.3000;0.2491;2.3403;
837.6000;0.2515;2.3453;
837.9000;0.2491;2.3353;
838.2000;0.2491;2.3428;
838.5000;0.2442;2.3228;
838.8000;0.2491;2.3378;
839.1000;0.2491;2.3328;
839.4000;0.2491;2.3253;
839.7000;0.2466;2.3253;
840.0000;0.2466;2.3078;
840.3000;0.2491;2.3253;
840.6000;0.2475;2.3128;
840.9000;0.2499;2.3228;
841.2000;0.2475;2.3253;
841.5000;0.2572;2.3428;
841.8000;0.2491;2.3278;
842.1000;0.2532;2.3328;
842.4000;0.2475;2.3103;
842.7000;0.2483;2.3078;
843.0000;0.2491;2.3078;
843.3000;0.2442;2.2952;
843.6000;0.2629;2.3453;
843.9000;0.2475;2.3027;
844.2000;0.2491;2.3128;
844.5000;0.2475;2.3103;
844.8000;0.2499;2.3178;
845.1000;0.2515;2.3178;
845.4000;0.2491;2.3178;
845.7000;0.2475;2.3153;
846.0000;0.2491;2.3278;
846.3000;0.2499;2.3378;
846.6000;0.2491;2.3303;
846.9000;0.2491;2.3228;
847.2000;0.2507;2.3303;
847.5000;0.2483;2.3278;
847.8000;0.2548;2.3428;
848.1000;0.2507;2.3253;
848.4000;0.2532;2.3253;
848.7000;0.2475;2.3128;
849.0000;0.2483;2.3228;
849.3000;0.2483;2.3228;
849.6000;0.2426;2.3053;
849.9000;0.2532;2.3353;
850.2000;0.2475;2.3128;
850.5000;0.2499;2.3128;
850.8000;0.2475;2.3078;
851.1000;0.2556;2.3203;
851.4000;0.2450;2.3002;
851.7000;0.2515;2.3278;
852.0000;0.2466;2.3178;
852.3000;0.2483;2.3278;
852.6000;0.2491;2.3128;
852.9000;0.2426;2.2852;
853.2000;0.2483;2.2977;
853.5000;0.2458;2.2977;
853.8000;0.2483;2.3078;
854.1000;0.2491;2.3128;
854.4000;0.2499;2.3128;
854.7000;0.2491;2.3053;
855.0000;0.2483;2.3078;
855.3000;0.2475;2.3053;
855.6000;0.2458;2.3078;
855.9000;0.2491;2.3178;
856.2000;0.2491;2.3128;
856.5000;0.2491;2.3153;
856.8000;0.2491;2.3128;
857.1000;0.2475;2.3103;
857.4000;0.2515;2.3153;
857.7000;0.2475;2.3078;
858.0000;0.2499;2.3203;
858.3000;0.2507;2.3253;
858.6000;0.2507;2.3253;
858.9000;0.2491;2.3253;
859.2000;0.2475;2.3278;
859.5000;0.2409;2.3053;
859.8000;0.2483;2.3228;
860.1000;0.2442;2.3203;
860.4000;0.2483;2.3303;
860.7000;0.2491;2.3328;
861.0000;0.2483;2.3253;
861.3000;0.2491;2.3303;
861.6000;0.2491;2.3278;
861.9000;0.2491;2.3203;
862.2000;0.2442;2.3053;
862.5000;0.2491;2.3178;
862.8000;0.2458;2.3103;
863.1000;0.2491;2.3228;
863.4000;0.2491;2.3303;
863.7000;0.2458;2.3078;
864.0000;0.2483;2.3178;
864.3000;0.2499;2.3203;
864.6000;0.2515;2.3278;
864.9000;0.2475;2.3178;
865.2000;0.2483;2.3178;
865.5000;0.2475;2.3253;
865.8000;0.2483;2.3303;
866.1000;0.2499;2.3153;
866.4000;0.2483;2.2977;
866.7000;0.2483;2.3053;
867.0000;0.2491;2.3053;
867.3000;0.2523;2.3178;
867.6000;0.2475;2.3078;
867.9000;0.2507;2.3178;
868.2000;0.2499;2.3128;
868.5000;0.2507;2.3203;
868.8000;0.2466;2.3178;
869.1000;0.2466;2.3153;
869.4000;0.2491;2.3278;
869.7000;0.2483;2.3178;
870.0000;0.2458;2.3002;
870.3000;0.2475;2.3027;
870.6000;0.2475;2.2952;
870.9000;0.2475;2.2927;
871.2000;0.2507;2.3053;
871.5000;0.2475;2.3002;
871.8000;0.2483;2.3103;
872.1000;0.2507;2.3228;
872.4000;0.2442;2.3178;
872.7000;0.2483;2.3203;
873.0000;0.2434;2.3078;
873.3000;0.2499;2.3253;
873.6000;0.2491;2.3203;
873.9000;0.2458;2.3178;
874.2000;0.2523;2.3403;
874.5000;0.2491;2.3353;
874.8000;0.2483;2.3378;
875.1000;0.2475;2.3378;
875.4000;0.2458;2.3303;
875.7000;0.2483;2.3478;
876.0000;0.2499;2.3503;
876.3000;0.2466;2.3353;
876.6000;0.2523;2.3428;
876.9000;0.2491;2.3403;
877.2000;0.2507;2.3428;
877.5000;0.2491;2.3328;
877.8000;0.2483;2.3328;
878.1000;0.2475;2.3303;
878.4000;0.2491;2.3328;
878.7000;0.2499;2.3303;
879.0000;0.2466;2.3178;
879.3000;0.2523;2.3278;
879.6000;0.2499;2.3228;
879.9000;0.2475;2.3153;
880.2000;0.2475;2.3153;
880.5000;0.2483;2.3178;
880.8000;0.2458;2.3078;
881.1000;0.2515;2.3203;
881.4000;0.2507;2.3228;
881.7000;0.2483;2.3128;
882.0000;0.2507;2.3253;
882.3000;0.2466;2.3153;
882.6000;0.2483;2.3178;
882.9000;0.2491;2.3053;
883.2000;0.2458;2.2927;
883.5000;0.2515;2.3153;
883.8000;0.2483;2.3027;
884.1000;0.2393;2.2852;
884.4000;0.2499;2.3002;
884.7000;0.2483;2.3103;
885.0000;0.2515;2.3203;
885.3000;0.2393;2.2952;
885.6000;0.2499;2.3228;
885.9000;0.2499;2.3328;
886.2000;0.2466;2.3253;
886.5000;0.2491;2.3328;
886.8000;0.2475;2.3328;
887.1000;0.2483;2.3428;
887.4000;0.2499;2.3478;
887.7000;0.2491;2.3428;
888.0000;0.2483;2.3453;
888.3000;0.2344;2.3078;
888.6000;0.2499;2.3428;
888.9000;0.2491;2.3428;
889.2000;0.2523;2.3403;
889.5000;0.2491;2.3478;
889.8000;0.2499;2.3503;
890.1000;0.2491;2.3578;
890.4000;0.2458;2.3428;
890.7000;0.2458;2.3403;
891.0000;0.2507;2.3553;
891.3000;0.2385;2.3253;
891.6000;0.2483;2.3453;
891.9000;0.2491;2.3403;
892.2000;0.2483;2.3303;
892.5000;0.2483;2.3303;
892.8000;0.2491;2.3278;
893.1000;0.2499;2.3328;
893.4000;0.2556;2.3503;
893.7000;0.2507;2.3278;
894.0000;0.2466;2.3153;
894.3000;0.2466;2.3103;
894.6000;0.2475;2.3103;
894.9000;0.2475;2.3153;
895.2000;0.2499;2.3203;
895.5000;0.2499;2.3203;
895.8000;0.2458;2.3103;
896.1000;0.2515;2.3228;
896.4000;0.2426;2.2952;
896.7000;0.2499;2.3053;
897.0000;0.2491;2.3078;
897.3000;0.2442;2.3053;
897.6000;0.2499;2.3253;
897.9000;0.2418;2.3128;
898.2000;0.2483;2.3278;
898.5000;0.2515;2.3378;
898.8000;0.2491;2.3328;
899.1000;0.2540;2.3403;
899.4000;0.2442;2.3103;
899.7000;0.2491;2.3228;
900.0000;0.2466;2.3128;
900.3000;0.2483;2.3228;
900.6000;0.2450;2.3153;
900.9000;0.2466;2.3203;
901.2000;0.2475;2.3228;
901.5000;0.2499;2.3253;
901.8000;0.2491;2.3203;
902.1000;0.2491;2.3203;
902.4000;0.2499;2.3253;
902.7000;0.2499;2.3203;
903.0000;0.2532;2.3353;
903.3000;0.2507;2.3203;
903.6000;0.2499;2.3128;
903.9000;0.2507;2.3178;
904.2000;0.2475;2.3103;
904.5000;0.2385;2.2902;
904.8000;0.2483;2.3278;
905.1000;0.2458;2.3228;
905.4000;0.2515;2.3378;
905.7000;0.2507;2.3403;
906.0000;0.2564;2.3478;
906.3000;0.2491;2.3178;
906.6000;0.2507;2.3278;
906.9000;0.2475;2.3303;
907.2000;0.2426;2.3203;
907.5000;0.2483;2.3428;
907.8000;0.2507;2.3478;
908.1000;0.2515;2.3428;
908.4000;0.2458;2.3128;
908.7000;0.2491;2.3153;
909.0000;0.2499;2.3203;
909.3000;0.2515;2.3278;
909.6000;0.2491;2.3228;
909.9000;0.2507;2.3253;
910.2000;0.2483;2.3228;
910.5000;0.2483;2.3228;
910.8000;0.2491;2.3253;
911.1000;0.2458;2.3153;
911.4000;0.2491;2.3253;
911.7000;0.2499;2.3203;
912.0000;0.2515;2.3278;
912.3000;0.2385;2.2927;
912.6000;0.2499;2.3228;
912.9000;0.2483;2.3153;
913.2000;0.2475;2.3128;
913.5000;0.2483;2.3153;
913.8000;0.2491;2.3078;
914.1000;0.2491;2.3053;
914.4000;0.2483;2.3053;
914.7000;0.2523;2.3153;
915.0000;0.2466;2.3002;
915.3000;0.2499;2.3078;
915.6000;0.2450;2.3103;
915.9000;0.2466;2.3002;
916.2000;0.2491;2.2902;
916.5000;0.2458;2.2802;
916.8000;0.2491;2.2927;
917.1000;0.2507;2.3103;
917.4000;0.2466;2.3053;
917.7000;0.2507;2.3053;
918.0000;0.2483;2.3027;
918.3000;0.2491;2.3103;
918.6000;0.2499;2.3103;
918.9000;0.2499;2.3128;
919.2000;0.2515;2.3153;
919.5000;0.2475;2.3078;
919.8000;0.2475;2.3078;
920.1000;0.2540;2.3253;
920.4000;0.2483;2.3103;
920.7000;0.2475;2.3078;
921.0000;0.2475;2.3103;
921.3000;0.2450;2.3053;
921.6000;0.2483;2.3078;
921.9000;0.2507;2.3178;
922.2000;0.2450;2.3053;
922.5000;0.2483;2.3103;
922.8000;0.2499;2.3303;
923.1000;0.2613;2.3628;
923.4000;0.2426;2.3178;
923.7000;0.2491;2.3303;
924.0000;0.2491;2.3228;
924.3000;0.2475;2.3178;
924.6000;0.2466;2.3153;
924.9000;0.2466;2.3178;
925.2000;0.2491;2.3178;
925.5000;0.2589;2.3328;
925.8000;0.2475;2.2977;
926.1000;0.2483;2.3002;
926.4000;0.2491;2.2977;
926.7000;0.2540;2.3027;
927.0000;0.2483;2.2927;
927.3000;0.2450;2.2852;
927.6000;0.2475;2.2952;
927.9000;0.2507;2.3027;
928.2000;0.2507;2.3027;
928.5000;0.2475;2.2952;
928.8000;0.2532;2.3128;
929.1000;0.2499;2.2977;
929.4000;0.2450;2.2902;
929.7000;0.2499;2.2877;
930.0000;0.2523;2.2902;
930.3000;0.2466;2.2827;
930.6000;0.2515;2.2952;
930.9000;0.2491;2.2952;
931.2000;0.2483;2.2902;
931.5000;0.2499;2.3002;
931.8000;0.2499;2.3053;
932.1000;0.2507;2.3078;
932.4000;0.2418;2.2877;
932.7000;0.2491;2.3153;
933.0000;0.2507;2.3153;
933.3000;0.2548;2.3428;
933.6000;0.2491;2.3253;
933.9000;0.2458;2.3178;
934.2000;0.2491;2.3253;
934.5000;0.2401;2.2977;
934.8000;0.2483;2.3103;
935.1000;0.2499;2.3153;
935.4000;0.2458;2.2977;
935.7000;0.2483;2.3027;
936.0000;0.2483;2.3027;
936.3000;0.2499;2.3103;
936.6000;0.2499;2.3128;
936.9000;0.2507;2.3178;
937.2000;0.2507;2.3203;
937.5000;0.2507;2.3178;
937.8000;0.2499;2.3253;
938.1000;0.2499;2.3278;
938.4000;0.2499;2.3353;
938.7000;0.2499;2.3353;
939.0000;0.2475;2.3278;
939.3000;0.2491;2.3353;
939.6000;0.2475;2.3353;
939.9000;0.2507;2.3478;
940.2000;0.2450;2.3378;
940.5000;0.2483;2.3453;
940.8000;0.2499;2.3453;
941.1000;0.2491;2.3328;
941.4000;0.2418;2.3178;
941.7000;0.2483;2.3253;
942.0000;0.2475;2.3228;
942.3000;0.2458;2.3178;
942.6000;0.2475;2.3278;
942.9000;0.2466;2.3378;
943.2000;0.2491;2.3428;
943.5000;0.2580;2.3678;
943.8000;0.2483;2.3328;
944.1000;0.2621;2.3578;
944.4000;0.2483;2.3253;
944.7000;0.2499;2.3153;
945.0000;0.2483;2.3103;
945.3000;0.2491;2.3203;
945.6000;0.2458;2.3027;
945.9000;0.2483;2.3103;
946.2000;0.2483;2.3053;
946.5000;0.2483;2.3027;
946.8000;0.2540;2.3228;
947.1000;0.2475;2.3027;
947.4000;0.2491;2.3128;
947.7000;0.2377;2.2777;
948.0000;0.2499;2.3103;
948.3000;0.2499;2.3153;
948.6000;0.2507;2.3128;
948.9000;0.2491;2.3253;
949.2000;0.2491;2.3203;
949.5000;0.2499;2.3203;
949.8000;0.2401;2.2877;
950.1000;0.2515;2.3103;
950.4000;0.2483;2.3027;
950.7000;0.2507;2.3153;
951.0000;0.2483;2.3078;
951.3000;0.2483;2.3078;
951.6000;0.2507;2.3103;
951.9000;0.2458;2.2952;
952.2000;0.2475;2.3053;
952.5000;0.2491;2.3128;
952.8000;0.2499;2.3203;
953.1000;0.2483;2.3178;
953.4000;0.2458;2.3053;
953.7000;0.2483;2.3178;
954.0000;0.2540;2.3378;
954.3000;0.2475;2.3128;
954.6000;0.2507;2.3278;
954.9000;0.2483;2.3253;
955.2000;0.2466;2.3178;
955.5000;0.2499;2.3228;
955.8000;0.2483;2.3203;
956.1000;0.2491;2.3253;
956.4000;0.2483;2.3203;
956.7000;0.2466;2.3178;
957.0000;0.2483;2.3278;
957.3000;0.2499;2.3253;
957.6000;0.2418;2.3027;
957.9000;0.2491;2.3228;
958.2000;0.2442;2.3103;
958.5000;0.2475;2.3178;
958.8000;0.2483;2.3253;
959.1000;0.2572;2.3578;
959.4000;0.2426;2.3103;
959.7000;0.2483;2.3228;
960.0000;0.2483;2.3228;
960.3000;0.2434;2.3078;
960.6000;0.2466;2.3153;
960.9000;0.2491;2.3253;
961.2000;0.2475;2.3128;
961.5000;0.2483;2.3153;
961.8000;0.2483;2.3153;
962.1000;0.2491;2.3253;
962.4000;0.2507;2.3328;
962.7000;0.2499;2.3353;
963.0000;0.2458;2.3178;
963.3000;0.2499;2.3203;
963.6000;0.2515;2.3278;
963.9000;0.2564;2.3303;
964.2000;0.2409;2.2952;
964.5000;0.2401;2.2952;
964.8000;0.2491;2.3278;
965.1000;0.2409;2.3128;
965.4000;0.2637;2.3628;
965.7000;0.2483;2.3253;
966.0000;0.2491;2.3253;
966.3000;0.2361;2.2852;
966.6000;0.2442;2.3027;
966.9000;0.2483;2.3178;
967.2000;0.2646;2.3603;
967.5000;0.2507;2.3153;
967.8000;0.2499;2.3128;
968.1000;0.2483;2.3078;
968.4000;0.2499;2.3002;
968.7000;0.2426;2.2702;
969.0000;0.2532;2.2977;
969.3000;0.2475;2.2902;
969.6000;0.2450;2.2727;
969.9000;0.2466;2.2952;
970.2000;0.2475;2.3002;
970.5000;0.2450;2.3027;
970.8000;0.2491;2.3128;
971.1000;0.2491;2.3128;
971.4000;0.2515;2.3178;
971.7000;0.2475;2.3053;
972.0000;0.2491;2.3128;
972.3000;0.2483;2.3078;
972.6000;0.2499;2.3178;
972.9000;0.2466;2.3053;
973.2000;0.2466;2.3027;
973.5000;0.2507;2.3178;
973.8000;0.2475;2.3103;
974.1000;0.2499;2.3103;
974.4000;0.2483;2.2952;
974.7000;0.2564;2.3253;
975.0000;0.2475;2.2952;
975.3000;0.2491;2.3027;
975.6000;0.2475;2.3078;
975.9000;0.2458;2.3078;
976.2000;0.2426;2.2927;
976.5000;0.2507;2.3228;
976.8000;0.2466;2.3153;
977.1000;0.2401;2.2977;
977.4000;0.2507;2.3303;
977.7000;0.2515;2.3303;
978.0000;0.2605;2.3503;
978.3000;0.2646;2.3653;
978.6000;0.2507;2.3303;
978.9000;0.2499;2.3328;
979.2000;0.2491;2.3178;
979.5000;0.2515;2.3253;
979.8000;0.2491;2.3253;
980.1000;0.2475;2.3228;
980.4000;0.2499;2.3178;
980.7000;0.2483;2.3203;
981.0000;0.2499;2.3228;
981.3000;0.2507;2.3328;
981.6000;0.2515;2.3253;
981.9000;0.2499;2.3228;
982.2000;0.2499;2.3228;
982.5000;0.2458;2.3203;
982.8000;0.2507;2.3328;
983.1000;0.2385;2.2977;
983.4000;0.2499;2.3253;
983.7000;0.2507;2.3178;
984.0000;0.2507;2.3203;
984.3000;0.2483;2.3178;
984.6000;0.2442;2.3002;
984.9000;0.2458;2.3027;
985.2000;0.2475;2.2927;
985.5000;0.2483;2.2977;
985.8000;0.2475;2.2877;
986.1000;0.2532;2.3027;
986.4000;0.2475;2.3002;
986.7000;0.2515;2.3103;
987.0000;0.2491;2.3103;
987.3000;0.2483;2.3002;
987.6000;0.2450;2.2977;
987.9000;0.2483;2.2977;
988.2000;0.2426;2.2852;
988.5000;0.2613;2.3378;
988.8000;0.2483;2.2927;
989.1000;0.2426;2.2777;
989.4000;0.2466;2.2927;
989.7000;0.2466;2.3002;
990.0000;0.2629;2.3478;
990.3000;0.2458;2.3027;
990.6000;0.2483;2.3053;
990.9000;0.2483;2.3002;
991.2000;0.2515;2.3078;
991.5000;0.2458;2.2977;
991.8000;0.2466;2.3027;
992.1000;0.2499;2.3153;
992.4000;0.2491;2.3027;
992.7000;0.2491;2.3002;
993.0000;0.2499;2.2952;
993.3000;0.2466;2.2852;
993.6000;0.2499;2.2977;
993.9000;0.2475;2.2852;
994.2000;0.2491;2.2877;
994.5000;0.2450;2.2827;
994.8000;0.2475;2.2902;
995.1000;0.2499;2.2977;
995.4000;0.2483;2.2902;
995.7000;0.2475;2.3002;
996.0000;0.2466;2.3178;
996.3000;0.2507;2.3253;
996.6000;0.2409;2.2952;
996.9000;0.2491;2.3253;
997.2000;0.2475;2.3278;
997.5000;0.2483;2.3178;
997.8000;0.2491;2.3203;
998.1000;0.2483;2.3253;
998.4000;0.2532;2.3303;
998.7000;0.2515;2.3253;
999.0000;0.2605;2.3453;
999.3000;0.2483;2.3153;
999.6000;0.2475;2.3078;
999.9000;0.2499;2.3128;
1000.2000;0.2475;2.3153;
1000.5000;0.2507;2.3178;
1000.8000;0.2466;2.3128;
1001.1000;0.2466;2.3103;
1001.4000;0.2523;2.3253;
1001.7000;0.2507;2.3128;
1002.0000;0.2475;2.2977;
1002.3000;0.2580;2.3278;
1002.6000;0.2475;2.3002;
1002.9000;0.2491;2.3128;
1003.2000;0.2491;2.3128;
1003.5000;0.2507;2.3203;
1003.8000;0.2466;2.3203;
1004.1000;0.2499;2.3178;
1004.4000;0.2548;2.3303;
1004.7000;0.2475;2.3002;
1005.0000;0.2507;2.3178;
1005.3000;0.2483;2.3078;
1005.6000;0.2483;2.3103;
1005.9000;0.2507;2.3178;
1006.2000;0.2466;2.3027;
1006.5000;0.2491;2.3002;
1006.8000;0.2483;2.3128;
1007.1000;0.2589;2.3353;
1007.4000;0.2491;2.3128;
1007.7000;0.2499;2.3153;
1008.0000;0.2507;2.3203;
1008.3000;0.2499;2.3153;
1008.6000;0.2442;2.2977;
1008.9000;0.2483;2.3178;
1009.2000;0.2523;2.3303;
1009.5000;0.2450;2.3228;
1009.8000;0.2466;2.3303;
1010.1000;0.2515;2.3378;
1010.4000;0.2491;2.3278;
1010.7000;0.2483;2.3278;
1011.0000;0.2458;2.3153;
1011.3000;0.2434;2.3153;
1011.6000;0.2507;2.3278;
1011.9000;0.2499;2.3353;
1012.2000;0.2499;2.3353;
1012.5000;0.2450;2.3178;
1012.8000;0.2499;2.3303;
1013.1000;0.2475;2.3178;
1013.4000;0.2475;2.3153;
1013.7000;0.2475;2.3153;
1014.0000;0.2475;2.3128;
1014.3000;0.2483;2.3228;
1014.6000;0.2483;2.3253;
1014.9000;0.2483;2.3253;
1015.2000;0.2515;2.3303;
1015.5000;0.2458;2.3103;
1015.8000;0.2475;2.3078;
1016.1000;0.2491;2.3103;
1016.4000;0.2499;2.3027;
1016.7000;0.2523;2.3128;
1017.0000;0.2483;2.2952;
1017.3000;0.2491;2.3002;
1017.6000;0.2491;2.3053;
1017.9000;0.2499;2.3078;
1018.2000;0.2507;2.3128;
1018.5000;0.2483;2.3078;
1018.8000;0.2491;2.3078;
1019.1000;0.2499;2.3128;
1019.4000;0.2523;2.3203;
1019.7000;0.2483;2.3103;
1020.0000;0.2507;2.3128;
1020.3000;0.2499;2.3178;
1020.6000;0.2483;2.3253;
1020.9000;0.2507;2.3378;
1021.2000;0.2483;2.3278;
1021.5000;0.2466;2.3278;
1021.8000;0.2491;2.3328;
1022.1000;0.2491;2.3353;
1022.4000;0.2499;2.3303;
1022.7000;0.2572;2.3428;
1023.0000;0.2483;2.3153;
1023.3000;0.2499;2.3103;
1023.6000;0.2466;2.2977;
1023.9000;0.2483;2.2952;
1024.2000;0.2409;2.2702;
1024.5000;0.2458;2.2877;
1024.8000;0.2491;2.2927;
1025.1000;0.2458;2.2902;
1025.4000;0.2515;2.3027;
1025.7000;0.2540;2.3103;
1026.0000;0.2532;2.3078;
1026.3000;0.2540;2.3153;
1026.6000;0.2491;2.3027;
1026.9000;0.2499;2.3078;
1027.2000;0.2483;2.3027;
1027.5000;0.2475;2.3002;
1027.8000;0.2491;2.3027;
1028.1000;0.2450;2.3002;
1028.4000;0.2548;2.3278;
1028.7000;0.2499;2.3128;
1029.0000;0.2483;2.3103;
1029.3000;0.2499;2.3128;
1029.6000;0.2507;2.3153;
1029.9000;0.2491;2.3153;
1030.2000;0.2499;2.3178;
1030.5000;0.2515;2.3178;
1030.8000;0.2491;2.3053;
1031.1000;0.2580;2.3228;
1031.4000;0.2491;2.3027;
1031.7000;0.2523;2.3178;
1032.0000;0.2540;2.3228;
1032.3000;0.2475;2.3078;
1032.6000;0.2515;2.3103;
1032.9000;0.2491;2.3053;
1033.2000;0.2499;2.3078;
1033.5000;0.2499;2.3053;
1033.8000;0.2491;2.3053;
1034.1000;0.2540;2.3178;
1034.4000;0.2483;2.3103;
1034.7000;0.2483;2.3053;
1035.0000;0.2491;2.3078;
1035.3000;0.2483;2.3002;
1035.6000;0.2483;2.3027;
1035.9000;0.2483;2.2977;
1036.2000;0.2515;2.2977;
1036.5000;0.2491;2.2977;
1036.8000;0.2491;2.3002;
1037.1000;0.2499;2.3053;
1037.4000;0.2475;2.2977;
1037.7000;0.2491;2.3002;
1038.0000;0.2507;2.2977;
1038.3000;0.2491;2.2902;
1038.6000;0.2507;2.2977;
1038.9000;0.2418;2.2777;
1039.2000;0.2499;2.3203;
1039.5000;0.2515;2.3253;
1039.8000;0.2507;2.3203;
1040.1000;0.2532;2.3253;
1040.4000;0.2491;2.3203;
1040.7000;0.2491;2.3228;
1041.0000;0.2499;2.3178;
1041.3000;0.2491;2.3203;
1041.6000;0.2483;2.3153;
1041.9000;0.2491;2.3203;
1042.2000;0.2491;2.3128;
1042.5000;0.2507;2.3153;
1042.8000;0.2483;2.3103;
1043.1000;0.2548;2.3278;
1043.4000;0.2491;2.3027;
1043.7000;0.2499;2.3078;
1044.0000;0.2491;2.3027;
1044.3000;0.2507;2.3153;
1044.6000;0.2458;2.3078;
1044.9000;0.2507;2.3278;
1045.2000;0.2434;2.3053;
1045.5000;0.2475;2.3053;
1045.8000;0.2491;2.3103;
1046.1000;0.2507;2.3128;
1046.4000;0.2491;2.3027;
1046.7000;0.2491;2.2927;
1047.0000;0.2466;2.2902;
1047.3000;0.2507;2.3053;
1047.6000;0.2418;2.2902;
1047.9000;0.2483;2.3053;
1048.2000;0.2499;2.3002;
1048.5000;0.2580;2.3178;
1048.8000;0.2491;2.3002;
1049.1000;0.2499;2.2952;
1049.4000;0.2483;2.2902;
1049.7000;0.2466;2.2977;
1050.0000;0.2507;2.3078;
1050.3000;0.2483;2.3053;
1050.6000;0.2458;2.3002;
1050.9000;0.2507;2.3078;
1051.2000;0.2483;2.3053;
1051.5000;0.2466;2.3078;
1051.8000;0.2483;2.3128;
1052.1000;0.2507;2.3128;
1052.4000;0.2507;2.3027;
1052.7000;0.2507;2.2952;
1053.0000;0.2515;2.2902;
1053.3000;0.2426;2.2727;
1053.6000;0.2597;2.3228;
1053.9000;0.2507;2.3053;
1054.2000;0.2491;2.3053;
1054.5000;0.2491;2.3027;
1054.8000;0.2483;2.3078;
1055.1000;0.2475;2.3128;
1055.4000;0.2483;2.3053;
1055.7000;0.2458;2.3002;
1056.0000;0.2450;2.2902;
1056.3000;0.2499;2.3002;
1056.6000;0.2475;2.2877;
1056.9000;0.2491;2.2877;
1057.2000;0.2499;2.2827;
1057.5000;0.2605;2.3128;
1057.8000;0.2491;2.2952;
1058.1000;0.2450;2.2877;
1058.4000;0.2499;2.2927;
1058.7000;0.2499;2.2902;
1059.0000;0.2491;2.2902;
1059.3000;0.2491;2.2802;
1059.6000;0.2499;2.2727;
1059.9000;0.2515;2.2752;
1060.2000;0.2515;2.2727;
1060.5000;0.2466;2.2577;
1060.8000;0.2491;2.2627;
1061.1000;0.2491;2.2677;
1061.4000;0.2483;2.2702;
1061.7000;0.2483;2.2727;
1062.0000;0.2475;2.2652;
1062.3000;0.2507;2.2752;
1062.6000;0.2507;2.2852;
1062.9000;0.2499;2.2827;
1063.2000;0.2515;2.2902;
1063.5000;0.2515;2.2852;
1063.8000;0.2507;2.2852;
1064.1000;0.2499;2.2827;
1064.4000;0.2491;2.2777;
1064.7000;0.2540;2.2952;
1065.0000;0.2483;2.2852;
1065.3000;0.2621;2.3253;
1065.6000;0.2401;2.2727;
1065.9000;0.2483;2.2952;
1066.2000;0.2499;2.3053;
1066.5000;0.2540;2.3178;
1066.8000;0.2418;2.2802;
1067.1000;0.2572;2.3103;
1067.4000;0.2483;2.2827;
1067.7000;0.2499;2.2877;
1068.0000;0.2515;2.2902;
1068.3000;0.2483;2.2702;
1068.6000;0.2491;2.2777;
1068.9000;0.2499;2.2852;
1069.2000;0.2475;2.2777;
1069.5000;0.2491;2.2877;
1069.8000;0.2352;2.2502;
1070.1000;0.2507;2.2977;
1070.4000;0.2548;2.3178;
1070.7000;0.2499;2.3027;
1071.0000;0.2483;2.3027;
1071.3000;0.2483;2.3027;
1071.6000;0.2499;2.3078;
1071.9000;0.2475;2.2977;
1072.2000;0.2475;2.2952;
1072.5000;0.2507;2.3027;
1072.8000;0.2605;2.3253;
1073.1000;0.2466;2.2852;
1073.4000;0.2483;2.2802;
1073.7000;0.2483;2.2877;
1074.0000;0.2483;2.2877;
1074.3000;0.2369;2.2652;
1074.6000;0.2499;2.3002;
1074.9000;0.2466;2.2952;
1075.2000;0.2515;2.3078;
1075.5000;0.2483;2.3053;
1075.8000;0.2491;2.3053;
1076.1000;0.2491;2.2902;
1076.4000;0.2507;2.3053;
1076.7000;0.2483;2.2977;
1077.0000;0.2515;2.2977;
1077.3000;0.2507;2.2877;
1077.6000;0.2532;2.2902;
1077.9000;0.2499;2.2852;
1078.2000;0.2491;2.2852;
1078.5000;0.2515;2.2852;
1078.8000;0.2499;2.2952;
1079.1000;0.2491;2.2952;
1079.4000;0.2491;2.2902;
1079.7000;0.2515;2.2977;
1080.0000;0.2418;2.2827;
1080.3000;0.2499;2.3002;
1080.6000;0.2483;2.2952;
1080.9000;0.2475;2.2902;
1081.2000;0.2483;2.2802;
1081.5000;0.2328;2.2427;
1081.8000;0.2491;2.2902;
1082.1000;0.2523;2.3002;
1082.4000;0.2483;2.2927;
1082.7000;0.2507;2.3078;
1083.0000;0.2507;2.3128;
1083.3000;0.2466;2.3078;
1083.6000;0.2491;2.3103;
1083.9000;0.2491;2.3078;
1084.2000;0.2483;2.3027;
1084.5000;0.2515;2.3053;
1084.8000;0.2491;2.2952;
1085.1000;0.2499;2.2952;
1085.4000;0.2491;2.2952;
1085.7000;0.2499;2.2927;
1086.0000;0.2466;2.2902;
1086.3000;0.2475;2.2977;
1086.6000;0.2491;2.3053;
1086.9000;0.2401;2.2777;
1087.2000;0.2475;2.3002;
1087.5000;0.2548;2.3253;
1087.8000;0.2483;2.3078;
1088.1000;0.2491;2.3103;
1088.4000;0.2580;2.3228;
1088.7000;0.2572;2.3103;
1089.0000;0.2499;2.2877;
1089.3000;0.2523;2.3002;
1089.6000;0.2556;2.3053;
1089.9000;0.2475;2.2852;
1090.2000;0.2491;2.2902;
1090.5000;0.2580;2.3203;
1090.8000;0.2491;2.2952;
1091.1000;0.2483;2.2777;
1091.4000;0.2491;2.2877;
1091.7000;0.2475;2.2852;
1092.0000;0.2483;2.2877;
1092.3000;0.2483;2.2927;
1092.6000;0.2442;2.2827;
1092.9000;0.2507;2.3027;
1093.2000;0.2491;2.3103;
1093.5000;0.2483;2.2977;
1093.8000;0.2458;2.2977;
1094.1000;0.2336;2.2527;
1094.4000;0.2507;2.2977;
1094.7000;0.2483;2.2977;
1095.0000;0.2483;2.2902;
1095.3000;0.2523;2.3078;
1095.6000;0.2507;2.2977;
1095.9000;0.2483;2.2952;
1096.2000;0.2369;2.2602;
1096.5000;0.2466;2.2927;
1096.8000;0.2491;2.3027;
1097.1000;0.2491;2.3053;
1097.4000;0.2483;2.2977;
1097.7000;0.2523;2.3078;
1098.0000;0.2499;2.2902;
1098.3000;0.2523;2.3053;
1098.6000;0.2507;2.2977;
1098.9000;0.2491;2.2852;
1099.2000;0.2548;2.2952;
1099.5000;0.2523;2.3078;
1099.8000;0.2499;2.2977;
1100.1000;0.2507;2.2952;
1100.4000;0.2491;2.2877;
1100.7000;0.2499;2.2902;
1101.0000;0.2475;2.2877;
1101.3000;0.2507;2.2977;
1101.6000;0.2483;2.2952;
1101.9000;0.2475;2.2852;
1102.2000;0.2515;2.2877;
1102.5000;0.2442;2.2727;
1102.8000;0.2491;2.2777;
1103.1000;0.2491;2.2727;
1103.4000;0.2507;2.2777;
1103.7000;0.2515;2.2852;
1104.0000;0.2475;2.2677;
1104.3000;0.2491;2.2777;
1104.6000;0.2361;2.2477;
1104.9000;0.2499;2.2927;
1105.2000;0.2483;2.3027;
1105.5000;0.2507;2.3078;
1105.8000;0.2523;2.3103;
1106.1000;0.2523;2.3053;
1106.4000;0.2466;2.2802;
1106.7000;0.2491;2.2902;
1107.0000;0.2540;2.3078;
1107.3000;0.2507;2.3027;
1107.6000;0.2377;2.2627;
1107.9000;0.2458;2.2827;
1108.2000;0.2475;2.2827;
1108.5000;0.2491;2.2752;
1108.8000;0.2515;2.2852;
1109.1000;0.2507;2.2852;
1109.4000;0.2466;2.2827;
1109.7000;0.2475;2.2752;
1110.0000;0.2499;2.2877;
1110.3000;0.2475;2.2902;
1110.6000;0.2532;2.3103;
1110.9000;0.2556;2.3128;
1111.2000;0.2515;2.3053;
1111.5000;0.2475;2.2977;
1111.8000;0.2491;2.3053;
1112.1000;0.2499;2.3153;
1112.4000;0.2475;2.3078;
1112.7000;0.2491;2.3078;
1113.0000;0.2507;2.3002;
1113.3000;0.2418;2.2702;
1113.6000;0.2499;2.2927;
1113.9000;0.2499;2.2927;
1114.2000;0.2491;2.2877;
1114.5000;0.2499;2.2927;
1114.8000;0.2499;2.2977;
1115.1000;0.2507;2.3053;
1115.4000;0.2499;2.3027;
1115.7000;0.2475;2.2902;
1116.0000;0.2499;2.2952;
1116.3000;0.2475;2.2852;
1116.6000;0.2532;2.3027;
1116.9000;0.2483;2.2927;
1117.2000;0.2475;2.2952;
1117.5000;0.2499;2.2977;
1117.8000;0.2442;2.2827;
1118.1000;0.2491;2.2952;
1118.4000;0.2491;2.2977;
1118.7000;0.2507;2.3128;
1119.0000;0.2483;2.3053;
1119.3000;0.2515;2.3128;
1119.6000;0.2483;2.3053;
1119.9000;0.2515;2.3103;
1120.2000;0.2279;2.2452;
1120.5000;0.2475;2.3078;
1120.8000;0.2466;2.3002;
1121.1000;0.2499;2.3078;
1121.4000;0.2450;2.2927;
1121.7000;0.2450;2.2902;
1122.0000;0.2483;2.2927;
1122.3000;0.2450;2.2802;
1122.6000;0.2515;2.2952;
1122.9000;0.2499;2.2852;
1123.2000;0.2385;2.2502;
1123.5000;0.2507;2.2927;
1123.8000;0.2499;2.2827;
1124.1000;0.2483;2.2677;
1124.4000;0.2491;2.2627;
1124.7000;0.2515;2.2602;
1125.0000;0.2491;2.2627;
1125.3000;0.2458;2.2627;
1125.6000;0.2499;2.2702;
1125.9000;0.2491;2.2602;
1126.2000;0.2491;2.2652;
1126.5000;0.2515;2.2702;
1126.8000;0.2499;2.2702;
1127.1000;0.2458;2.2777;
1127.4000;0.2507;2.2777;
1127.7000;0.2466;2.2727;
1128.0000;0.2499;2.2827;
1128.3000;0.2442;2.2752;
1128.6000;0.2475;2.2902;
1128.9000;0.2491;2.2927;
1129.2000;0.2499;2.2852;
1129.5000;0.2499;2.2852;
1129.8000;0.2491;2.2877;
1130.1000;0.2515;2.2902;
1130.4000;0.2450;2.2752;
1130.7000;0.2475;2.2902;
1131.0000;0.2475;2.2977;
1131.3000;0.2507;2.3027;
1131.6000;0.2401;2.2727;
1131.9000;0.2499;2.2977;
1132.2000;0.2483;2.2827;
1132.5000;0.2483;2.2827;
1132.8000;0.2483;2.2802;
1133.1000;0.2466;2.2777;
1133.4000;0.2475;2.2752;
1133.7000;0.2450;2.2852;
1134.0000;0.2483;2.2852;
1134.3000;0.2458;2.2702;
1134.6000;0.2572;2.3002;
1134.9000;0.2580;2.2977;
1135.2000;0.2483;2.2877;
1135.5000;0.2507;2.3027;
1135.8000;0.2507;2.3002;
1136.1000;0.2475;2.2902;
1136.4000;0.2515;2.2952;
1136.7000;0.2491;2.2802;
1137.0000;0.2475;2.2777;
1137.3000;0.2483;2.2727;
1137.6000;0.2523;2.2902;
1137.9000;0.2499;2.2877;
1138.2000;0.2564;2.3078;
1138.5000;0.2515;2.2927;
1138.8000;0.2507;2.2877;
1139.1000;0.2483;2.2802;
1139.4000;0.2466;2.2752;
1139.7000;0.2499;2.2777;
1140.0000;0.2483;2.2777;
1140.3000;0.2483;2.2752;
1140.6000;0.2507;2.2927;
1140.9000;0.2466;2.2827;
1141.2000;0.2393;2.2752;
1141.5000;0.2523;2.2952;
1141.8000;0.2523;2.2852;
1142.1000;0.2491;2.2752;
1142.4000;0.2499;2.2802;
1142.7000;0.2515;2.2852;
1143.0000;0.2475;2.2727;
1143.3000;0.2491;2.2777;
1143.6000;0.2515;2.2877;
1143.9000;0.2491;2.2827;
1144.2000;0.2507;2.2802;
1144.5000;0.2483;2.2752;
1144.8000;0.2442;2.2727;
1145.1000;0.2491;2.2902;
1145.4000;0.2466;2.2927;
1145.7000;0.2466;2.2902;
1146.0000;0.2507;2.3002;
1146.3000;0.2499;2.2952;
1146.6000;0.2499;2.3053;
1146.9000;0.2450;2.2902;
1147.2000;0.2515;2.3053;
1147.5000;0.2442;2.2852;
1147.8000;0.2507;2.2902;
1148.1000;0.2507;2.2952;
1148.4000;0.2483;2.2852;
1148.7000;0.2483;2.2927;
1149.0000;0.2475;2.2952;
1149.3000;0.2491;2.3128;
1149.6000;0.2475;2.3103;
1149.9000;0.2483;2.3203;
1150.2000;0.2491;2.3203;
1150.5000;0.2532;2.3328;
1150.8000;0.2491;2.3278;
1151.1000;0.2499;2.3328;
1151.4000;0.2532;2.3403;
1151.7000;0.2483;2.3253;
1152.0000;0.2426;2.3078;
1152.3000;0.2475;2.3203;
1152.6000;0.2491;2.3278;
1152.9000;0.2450;2.3103;
1153.2000;0.2532;2.3303;
1153.5000;0.2466;2.3103;
1153.8000;0.2540;2.3278;
1154.1000;0.2499;2.3128;
1154.4000;0.2507;2.3128;
1154.7000;0.2548;2.3178;
1155.0000;0.2491;2.3053;
1155.3000;0.2483;2.3002;
1155.6000;0.2572;2.3228;
1155.9000;0.2466;2.2977;
1156.2000;0.2458;2.2927;
1156.5000;0.2475;2.2952;
1156.8000;0.2483;2.3002;
1157.1000;0.2491;2.3053;
1157.4000;0.2442;2.2927;
1157.7000;0.2499;2.3078;
1158.0000;0.2491;2.3027;
1158.3000;0.2377;2.2752;
1158.6000;0.2507;2.3153;
1158.9000;0.2491;2.3078;
1159.2000;0.2540;2.3253;
1159.5000;0.2507;2.3178;
1159.8000;0.2475;2.3053;
1160.1000;0.2450;2.2952;
1160.4000;0.2466;2.3027;
1160.7000;0.2515;2.3078;
1161.0000;0.2475;2.3103;
1161.3000;0.2548;2.3353;
1161.6000;0.2499;2.3178;
1161.9000;0.2491;2.3128;
1162.2000;0.2515;2.3178;
1162.5000;0.2475;2.3103;
1162.8000;0.2499;2.3178;
1163.1000;0.2434;2.2927;
1163.4000;0.2580;2.3253;
1163.7000;0.2507;2.3103;
1164.0000;0.2491;2.3027;
1164.3000;0.2483;2.3103;
1164.6000;0.2466;2.3002;
1164.9000;0.2483;2.3027;
1165.2000;0.2442;2.2852;
1165.5000;0.2475;2.3002;
1165.8000;0.2466;2.3053;
1166.1000;0.2491;2.3027;
1166.4000;0.2483;2.2952;
1166.7000;0.2491;2.3078;
1167.0000;0.2507;2.3178;
1167.3000;0.2499;2.3153;
1167.6000;0.2483;2.3203;
1167.9000;0.2466;2.3153;
1168.2000;0.2507;2.3278;
1168.5000;0.2532;2.3328;
1168.8000;0.2458;2.3153;
1169.1000;0.2483;2.3228;
1169.4000;0.2458;2.3178;
1169.7000;0.2426;2.2977;
1170.0000;0.2483;2.3153;
1170.3000;0.2499;2.3078;
1170.6000;0.2491;2.3053;
1170.9000;0.2483;2.2952;
1171.2000;0.2483;2.2977;
1171.5000;0.2499;2.3002;
1171.8000;0.2475;2.2977;
1172.1000;0.2483;2.3053;
1172.4000;0.2499;2.3178;
1172.7000;0.2499;2.3027;
1173.0000;0.2483;2.2952;
1173.3000;0.2483;2.2977;
1173.6000;0.2499;2.2927;
1173.9000;0.2475;2.2902;
1174.2000;0.2434;2.2802;
1174.5000;0.2556;2.3203;
1174.8000;0.2499;2.2952;
1175.1000;0.2491;2.2877;
1175.4000;0.2507;2.2952;
1175.7000;0.2475;2.2877;
1176.0000;0.2580;2.3153;
1176.3000;0.2450;2.2802;
1176.6000;0.2483;2.2877;
1176.9000;0.2515;2.2977;
1177.2000;0.2475;2.2902;
1177.5000;0.2580;2.3103;
1177.8000;0.2475;2.2702;
1178.1000;0.2499;2.2777;
1178.4000;0.2507;2.2877;
1178.7000;0.2458;2.2777;
1179.0000;0.2483;2.2827;
1179.3000;0.2450;2.2677;
1179.6000;0.2475;2.2827;
1179.9000;0.2491;2.2802;
1180.2000;0.2556;2.3027;
1180.5000;0.2450;2.2702;
1180.8000;0.2450;2.2677;
1181.1000;0.2491;2.2752;
1181.4000;0.2466;2.2702;
1181.7000;0.2499;2.2927;
1182.0000;0.2426;2.2677;
1182.3000;0.2483;2.2852;
1182.6000;0.2418;2.2777;
1182.9000;0.2491;2.2927;
1183.2000;0.2580;2.3128;
1183.5000;0.2507;2.2877;
1183.8000;0.2499;2.2827;
1184.1000;0.2483;2.2777;
1184.4000;0.2491;2.2802;
1184.7000;0.2483;2.2927;
1185.0000;0.2491;2.2927;
1185.3000;0.2491;2.2902;
1185.6000;0.2499;2.2852;
1185.9000;0.2532;2.2952;
1186.2000;0.2499;2.2852;
1186.5000;0.2483;2.2827;
1186.8000;0.2475;2.2777;
1187.1000;0.2507;2.2827;
1187.4000;0.2483;2.2702;
1187.7000;0.2466;2.2627;
1188.0000;0.2483;2.2652;
1188.3000;0.2409;2.2427;
1188.6000;0.2515;2.2752;
1188.9000;0.2507;2.2777;
1189.2000;0.2523;2.2852;
1189.5000;0.2475;2.2702;
1189.8000;0.2491;2.2877;
1190.1000;0.2483;2.2877;
1190.4000;0.2491;2.2902;
1190.7000;0.2475;2.2852;
1191.0000;0.2491;2.2902;
1191.3000;0.2507;2.2977;
1191.6000;0.2483;2.2877;
1191.9000;0.2483;2.2877;
1192.2000;0.2507;2.2902;
1192.5000;0.2523;2.2977;
1192.8000;0.2491;2.2802;
1193.1000;0.2491;2.2877;
1193.4000;0.2499;2.2902;
1193.7000;0.2523;2.2902;
1194.0000;0.2499;2.2827;
1194.3000;0.2499;2.2852;
1194.6000;0.2475;2.2827;
1194.9000;0.2499;2.2927;
1195.2000;0.2532;2.2977;
1195.5000;0.2507;2.2877;
1195.8000;0.2499;2.2802;
1196.1000;0.2515;2.2827;
1196.4000;0.2556;2.2952;
1196.7000;0.2491;2.2777;
1197.0000;0.2507;2.2852;
1197.3000;0.2499;2.2827;
1197.6000;0.2515;2.2877;
1197.9000;0.2499;2.2902;
1198.2000;0.2491;2.2877;
1198.5000;0.2515;2.2902;
1198.8000;0.2499;2.2877;
1199.1000;0.2507;2.2952;
1199.4000;0.2499;2.2877;
1199.7000;0.2556;2.3027;
1200.0000;0.2613;2.3228;
1200.3000;0.2491;2.2927;
1200.6000;0.2458;2.2777;
1200.9000;0.2499;2.2827;
1201.2000;0.2466;2.2802;
1201.5000;0.2507;2.2952;
1201.8000;0.2499;2.2827;
1202.1000;0.2491;2.2777;
1202.4000;0.2458;2.2727;
1202.7000;0.2507;2.2777;
1203.0000;0.2580;2.2977;
1203.3000;0.2515;2.2727;
1203.6000;0.2499;2.2677;
1203.9000;0.2491;2.2652;
1204.2000;0.2499;2.2602;
1204.5000;0.2499;2.2602;
1204.8000;0.2515;2.2577;
1205.1000;0.2499;2.2652;
1205.4000;0.2507;2.2752;
1205.7000;0.2483;2.2652;
1206.0000;0.2499;2.2777;
1206.3000;0.2491;2.2802;
1206.6000;0.2483;2.2777;
1206.9000;0.2491;2.2752;
1207.2000;0.2540;2.2777;
1207.5000;0.2499;2.2627;
1207.8000;0.2483;2.2702;
1208.1000;0.2515;2.2802;
1208.4000;0.2507;2.2927;
1208.7000;0.2515;2.2902;
1209.0000;0.2507;2.2877;
1209.3000;0.2483;2.2802;
1209.6000;0.2523;2.2877;
1209.9000;0.2491;2.2777;
1210.2000;0.2491;2.2902;
1210.5000;0.2523;2.2877;
1210.8000;0.2491;2.2952;
1211.1000;0.2523;2.3027;
1211.4000;0.2515;2.3002;
1211.7000;0.2483;2.2952;
1212.0000;0.2450;2.2852;
1212.3000;0.2426;2.2627;
1212.6000;0.2483;2.2802;
1212.9000;0.2523;2.2977;
1213.2000;0.2393;2.2727;
1213.5000;0.2409;2.2677;
1213.8000;0.2556;2.3002;
1214.1000;0.2466;2.2752;
1214.4000;0.2491;2.2802;
1214.7000;0.2491;2.2702;
1215.0000;0.2515;2.2777;
1215.3000;0.2507;2.2802;
1215.6000;0.2507;2.2802;
1215.9000;0.2499;2.2752;
1216.2000;0.2491;2.2802;
1216.5000;0.2507;2.2877;
1216.8000;0.2483;2.2902;
1217.1000;0.2499;2.2902;
1217.4000;0.2499;2.2902;
1217.7000;0.2491;2.2852;
1218.0000;0.2466;2.2777;
1218.3000;0.2523;2.2902;
1218.6000;0.2483;2.2777;
1218.9000;0.2499;2.2827;
1219.2000;0.2475;2.2802;
1219.5000;0.2564;2.3027;
1219.8000;0.2475;2.2802;
1220.1000;0.2466;2.2752;
1220.4000;0.2499;2.2827;
1220.7000;0.2491;2.2727;
1221.0000;0.2475;2.2627;
1221.3000;0.2475;2.2552;
1221.6000;0.2369;2.2302;
1221.9000;0.2499;2.2652;
1222.2000;0.2515;2.2602;
1222.5000;0.2532;2.2627;
1222.8000;0.2499;2.2577;
1223.1000;0.2532;2.2702;
1223.4000;0.2515;2.2627;
1223.7000;0.2483;2.2477;
1224.0000;0.2499;2.2602;
1224.3000;0.2475;2.2627;
1224.6000;0.2499;2.2577;
1224.9000;0.2491;2.2577;
1225.2000;0.2507;2.2627;
1225.5000;0.2523;2.2777;
1225.8000;0.2507;2.2802;
1226.1000;0.2483;2.2727;
1226.4000;0.2629;2.3128;
1226.7000;0.2491;2.2752;
1227.0000;0.2580;2.3027;
1227.3000;0.2515;2.2802;
1227.6000;0.2491;2.2852;
1227.9000;0.2507;2.3002;
1228.2000;0.2499;2.3053;
1228.5000;0.2499;2.3053;
1228.8000;0.2483;2.2952;
1229.1000;0.2515;2.2952;
1229.4000;0.2507;2.2902;
1229.7000;0.2589;2.3103;
1230.0000;0.2483;2.2827;
1230.3000;0.2507;2.2777;
1230.6000;0.2499;2.2802;
1230.9000;0.2475;2.2777;
1231.2000;0.2605;2.3002;
1231.5000;0.2507;2.2827;
1231.8000;0.2507;2.2777;
1232.1000;0.2515;2.2802;
1232.4000;0.2458;2.2652;
1232.7000;0.2532;2.2802;
1233.0000;0.2580;2.2902;
1233.3000;0.2507;2.2727;
1233.6000;0.2466;2.2677;
1233.9000;0.2491;2.2802;
1234.2000;0.2483;2.2827;
1234.5000;0.2556;2.2952;
1234.8000;0.2491;2.2752;
1235.1000;0.2499;2.2827;
1235.4000;0.2491;2.2752;
1235.7000;0.2475;2.2627;
1236.0000;0.2491;2.2652;
1236.3000;0.2548;2.2852;
1236.6000;0.2499;2.2752;
1236.9000;0.2499;2.2777;
1237.2000;0.2540;2.2952;
1237.5000;0.2556;2.3128;
1237.8000;0.2442;2.2777;
1238.1000;0.2507;2.2877;
1238.4000;0.2450;2.2702;
1238.7000;0.2499;2.2852;
1239.0000;0.2491;2.2902;
1239.3000;0.2491;2.2902;
1239.6000;0.2483;2.2877;
1239.9000;0.2483;2.2852;
1240.2000;0.2523;2.3002;
1240.5000;0.2491;2.2927;
1240.8000;0.2483;2.2877;
1241.1000;0.2475;2.2777;
1241.4000;0.2515;2.2802;
1241.7000;0.2491;2.2752;
1242.0000;0.2507;2.2802;
1242.3000;0.2483;2.2727;
1242.6000;0.2483;2.2777;
1242.9000;0.2499;2.2752;
1243.2000;0.2499;2.2752;
1243.5000;0.2515;2.2927;
1243.8000;0.2483;2.2827;
1244.1000;0.2548;2.3078;
1244.4000;0.2580;2.3178;
1244.7000;0.2491;2.2877;
1245.0000;0.2499;2.2902;
1245.3000;0.2507;2.3027;
1245.6000;0.2475;2.2877;
1245.9000;0.2499;2.2927;
1246.2000;0.2515;2.2902;
1246.5000;0.2475;2.2827;
1246.8000;0.2499;2.2977;
1247.1000;0.2483;2.2952;
1247.4000;0.2499;2.2902;
1247.7000;0.2466;2.2852;
1248.0000;0.2523;2.3053;
1248.3000;0.2532;2.3128;
1248.6000;0.2499;2.3002;
1248.9000;0.2532;2.3078;
1249.2000;0.2458;2.2827;
1249.5000;0.2507;2.2902;
1249.8000;0.2458;2.2827;
1250.1000;0.2475;2.2827;
1250.4000;0.2385;2.2677;
1250.7000;0.2491;2.3002;
1251.0000;0.2434;2.2852;
1251.3000;0.2507;2.3027;
1251.6000;0.2491;2.2952;
1251.9000;0.2491;2.2977;
1252.2000;0.2483;2.2877;
1252.5000;0.2491;2.2852;
1252.8000;0.2491;2.2877;
1253.1000;0.2515;2.2952;
1253.4000;0.2442;2.2752;
1253.7000;0.2491;2.2827;
1254.0000;0.2523;2.2827;
1254.3000;0.2483;2.2777;
1254.6000;0.2483;2.2877;
1254.9000;0.2491;2.2927;
1255.2000;0.2475;2.2902;
1255.5000;0.2532;2.3053;
1255.8000;0.2475;2.3027;
1256.1000;0.2532;2.3203;
1256.4000;0.2499;2.3103;
1256.7000;0.2491;2.3078;
1257.0000;0.2515;2.3103;
1257.3000;0.2483;2.2927;
1257.6000;0.2507;2.3002;
1257.9000;0.2483;2.2927;
1258.2000;0.2409;2.2727;
1258.5000;0.2499;2.3053;
1258.8000;0.2483;2.2952;
1259.1000;0.2475;2.2927;
1259.4000;0.2450;2.2902;
1259.7000;0.2475;2.2877;
1260.0000;0.2491;2.2927;
1260.3000;0.2507;2.3027;
1260.6000;0.2499;2.2927;
1260.9000;0.2483;2.2852;
1261.2000;0.2515;2.2852;
1261.5000;0.2499;2.2777;
1261.8000;0.2466;2.2752;
1262.1000;0.2499;2.2902;
1262.4000;0.2507;2.3027;
1262.7000;0.2499;2.2977;
1263.0000;0.2491;2.2877;
1263.3000;0.2385;2.2652;
1263.6000;0.2499;2.2952;
1263.9000;0.2483;2.2927;
1264.2000;0.2499;2.3027;
1264.5000;0.2483;2.2927;
1264.8000;0.2507;2.2902;
1265.1000;0.2523;2.3002;
1265.4000;0.2475;2.2802;
1265.7000;0.2515;2.2902;
1266.0000;0.2532;2.2927;
1266.3000;0.2499;2.2777;
1266.6000;0.2434;2.2527;
1266.9000;0.2491;2.2702;
1267.2000;0.2491;2.2677;
1267.5000;0.2434;2.2552;
1267.8000;0.2499;2.2677;
1268.1000;0.2540;2.2802;
1268.4000;0.2499;2.2752;
1268.7000;0.2475;2.2702;
1269.0000;0.2377;2.2427;
1269.3000;0.2499;2.2727;
1269.6000;0.2507;2.2827;
1269.9000;0.2621;2.3103;
1270.2000;0.2483;2.2702;
1270.5000;0.2483;2.2602;
1270.8000;0.2515;2.2652;
1271.1000;0.2491;2.2577;
1271.4000;0.2466;2.2627;
1271.7000;0.2401;2.2477;
1272.0000;0.2499;2.2777;
1272.3000;0.2483;2.2752;
1272.6000;0.2491;2.2902;
1272.9000;0.2499;2.2902;
1273.2000;0.2418;2.2627;
1273.5000;0.2515;2.2877;
1273.8000;0.2507;2.2877;
1274.1000;0.2499;2.2852;
1274.4000;0.2483;2.2777;
1274.7000;0.2401;2.2477;
1275.0000;0.2458;2.2777;
1275.3000;0.2515;2.2852;
1275.6000;0.2499;2.2802;
1275.9000;0.2499;2.2802;
1276.2000;0.2515;2.2727;
1276.5000;0.2499;2.2727;
1276.8000;0.2483;2.2677;
1277.1000;0.2499;2.2802;
1277.4000;0.2523;2.2827;
1277.7000;0.2483;2.2652;
1278.0000;0.2442;2.2652;
1278.3000;0.2515;2.2877;
1278.6000;0.2507;2.2852;
1278.9000;0.2499;2.2827;
1279.2000;0.2475;2.2727;
1279.5000;0.2507;2.2852;
1279.8000;0.2515;2.2977;
1280.1000;0.2507;2.2977;
1280.4000;0.2458;2.2852;
1280.7000;0.2621;2.3253;
1281.0000;0.2491;2.2777;
1281.3000;0.2491;2.2802;
1281.6000;0.2475;2.2777;
1281.9000;0.2458;2.2677;
1282.2000;0.2515;2.2727;
1282.5000;0.2426;2.2577;
1282.8000;0.2475;2.2802;
1283.1000;0.2450;2.2677;
1283.4000;0.2483;2.2777;
1283.7000;0.2483;2.2702;
1284.0000;0.2523;2.2827;
1284.3000;0.2540;2.2802;
1284.6000;0.2491;2.2702;
1284.9000;0.2507;2.2777;
1285.2000;0.2532;2.2702;
1285.5000;0.2483;2.2577;
1285.8000;0.2483;2.2552;
1286.1000;0.2491;2.2627;
1286.4000;0.2507;2.2702;
1286.7000;0.2491;2.2627;
1287.0000;0.2491;2.2627;
1287.3000;0.2548;2.2877;
1287.6000;0.2499;2.2802;
1287.9000;0.2532;2.2827;
1288.2000;0.2507;2.2777;
1288.5000;0.2466;2.2652;
1288.8000;0.2507;2.2852;
1289.1000;0.2523;2.2802;
1289.4000;0.2499;2.2727;
1289.7000;0.2507;2.2777;
1290.0000;0.2621;2.3078;
1290.3000;0.2523;2.2802;
1290.6000;0.2580;2.3027;
1290.9000;0.2532;2.2977;
1291.2000;0.2515;2.3027;
1291.5000;0.2515;2.2952;
1291.8000;0.2426;2.2702;
1292.1000;0.2540;2.3053;
1292.4000;0.2515;2.3002;
1292.7000;0.2475;2.2877;
1293.0000;0.2572;2.3153;
1293.3000;0.2499;2.2877;
1293.6000;0.2523;2.3027;
1293.9000;0.2426;2.2727;
1294.2000;0.2507;2.2977;
1294.5000;0.2515;2.3053;
1294.8000;0.2466;2.2927;
1295.1000;0.2523;2.3078;
1295.4000;0.2483;2.2952;
1295.7000;0.2491;2.2927;
1296.0000;0.2491;2.2952;
1296.3000;0.2483;2.2952;
1296.6000;0.2491;2.3027;
1296.9000;0.2507;2.2977;
1297.2000;0.2466;2.2852;
1297.5000;0.2442;2.2702;
1297.8000;0.2548;2.2877;
1298.1000;0.2499;2.2852;
1298.4000;0.2352;2.2377;
1298.7000;0.2548;2.2952;
1299.0000;0.2507;2.2752;
1299.3000;0.2491;2.2602;
1299.6000;0.2499;2.2652;
1299.9000;0.2491;2.2727;
1300.2000;0.2491;2.2827;
1300.5000;0.2499;2.2877;
1300.8000;0.2548;2.3002;
1301.1000;0.2483;2.2827;
1301.4000;0.2523;2.2902;
1301.7000;0.2450;2.2727;
1302.0000;0.2499;2.2827;
1302.3000;0.2450;2.2777;
1302.6000;0.2491;2.2902;
1302.9000;0.2491;2.2827;
1303.2000;0.2434;2.2727;
1303.5000;0.2475;2.2777;
1303.8000;0.2491;2.2777;
1304.1000;0.2515;2.2852;
1304.4000;0.2385;2.2452;
1304.7000;0.2532;2.2902;
1305.0000;0.2466;2.2702;
1305.3000;0.2491;2.2827;
1305.6000;0.2483;2.2852;
1305.9000;0.2572;2.3002;
1306.2000;0.2442;2.2627;
1306.5000;0.2409;2.2477;
1306.8000;0.2499;2.2777;
1307.1000;0.2515;2.2727;
1307.4000;0.2475;2.2702;
1307.7000;0.2491;2.2702;
1308.0000;0.2507;2.2727;
1308.3000;0.2483;2.2802;
1308.6000;0.2491;2.2802;
1308.9000;0.2483;2.2852;
1309.2000;0.2499;2.2927;
1309.5000;0.2515;2.2952;
1309.8000;0.2483;2.2802;
1310.1000;0.2515;2.2877;
1310.4000;0.2475;2.2852;
1310.7000;0.2540;2.3027;
1311.0000;0.2499;2.2977;
1311.3000;0.2654;2.3453;
1311.6000;0.2580;2.3253;
1311.9000;0.2515;2.3128;
1312.2000;0.2483;2.3128;
1312.5000;0.2483;2.2977;
1312.8000;0.2499;2.2977;
1313.1000;0.2426;2.2802;
1313.4000;0.2507;2.3002;
1313.7000;0.2499;2.3053;
1314.0000;0.2491;2.3053;
1314.3000;0.2499;2.3027;
1314.6000;0.2580;2.3203;
1314.9000;0.2523;2.2952;
1315.2000;0.2466;2.2827;
1315.5000;0.2491;2.2877;
1315.8000;0.2507;2.2802;
1316.1000;0.2466;2.2752;
1316.4000;0.2466;2.2802;
1316.7000;0.2491;2.2777;
1317.0000;0.2491;2.2802;
1317.3000;0.2499;2.2852;
1317.6000;0.2393;2.2577;
1317.9000;0.2491;2.2852;
1318.2000;0.2499;2.2702;
1318.5000;0.2466;2.2602;
1318.8000;0.2466;2.2677;
1319.1000;0.2393;2.2502;
1319.4000;0.2491;2.2802;
1319.7000;0.2491;2.2777;
1320.0000;0.2499;2.2852;
1320.3000;0.2491;2.2777;
1320.6000;0.2540;2.2952;
1320.9000;0.2483;2.2777;
1321.2000;0.2442;2.2652;
1321.5000;0.2507;2.2852;
1321.8000;0.2540;2.2977;
1322.1000;0.2475;2.2827;
1322.4000;0.2507;2.2902;
1322.7000;0.2540;2.3053;
1323.0000;0.2548;2.3053;
1323.3000;0.2499;2.2852;
1323.6000;0.2515;2.2802;
1323.9000;0.2499;2.2827;
1324.2000;0.2532;2.2877;
1324.5000;0.2532;2.2977;
1324.8000;0.2426;2.2752;
1325.1000;0.2499;2.2852;
1325.4000;0.2499;2.2827;
1325.7000;0.2580;2.3053;
1326.0000;0.2515;2.2727;
1326.3000;0.2507;2.2777;
1326.6000;0.2491;2.2752;
1326.9000;0.2483;2.2802;
1327.2000;0.2515;2.2952;
1327.5000;0.2507;2.2877;
1327.8000;0.2458;2.2752;
1328.1000;0.2409;2.2627;
1328.4000;0.2434;2.2702;
1328.7000;0.2507;2.2852;
1329.0000;0.2426;2.2627;
1329.3000;0.2507;2.2852;
1329.6000;0.2532;2.2877;
1329.9000;0.2491;2.2802;
1330.2000;0.2540;2.2952;
1330.5000;0.2507;2.2802;
1330.8000;0.2499;2.2827;
1331.1000;0.2475;2.2752;
1331.4000;0.2491;2.2702;
1331.7000;0.2466;2.2702;
1332.0000;0.2483;2.2777;
1332.3000;0.2385;2.2527;
1332.6000;0.2483;2.2827;
1332.9000;0.2499;2.2802;
1333.2000;0.2483;2.2752;
1333.5000;0.2483;2.2677;
1333.8000;0.2532;2.2852;
1334.1000;0.2515;2.2777;
1334.4000;0.2466;2.2552;
1334.7000;0.2532;2.2677;
1335.0000;0.2499;2.2502;
1335.3000;0.2499;2.2552;
1335.6000;0.2450;2.2427;
1335.9000;0.2466;2.2552;
1336.2000;0.2507;2.2702;
1336.5000;0.2475;2.2602;
1336.8000;0.2458;2.2527;
1337.1000;0.2466;2.2552;
1337.4000;0.2491;2.2652;
1337.7000;0.2466;2.2702;
1338.0000;0.2499;2.2777;
1338.3000;0.2532;2.2777;
1338.6000;0.2499;2.2727;
1338.9000;0.2483;2.2727;
1339.2000;0.2491;2.2802;
1339.5000;0.2507;2.2827;
1339.8000;0.2491;2.2702;
1340.1000;0.2499;2.2877;
1340.4000;0.2507;2.3027;
1340.7000;0.2491;2.2852;
1341.0000;0.2475;2.2677;
1341.3000;0.2532;2.2802;
1341.6000;0.2475;2.2727;
1341.9000;0.2507;2.2852;
1342.2000;0.2483;2.2827;
1342.5000;0.2475;2.2777;
1342.8000;0.2458;2.2677;
1343.1000;0.2458;2.2702;
1343.4000;0.2483;2.2727;
1343.7000;0.2564;2.2852;
1344.0000;0.2491;2.2702;
1344.3000;0.2491;2.2677;
1344.6000;0.2499;2.2752;
1344.9000;0.2523;2.2802;
1345.2000;0.2393;2.2502;
1345.5000;0.2491;2.2852;
1345.8000;0.2491;2.2952;
1346.1000;0.2507;2.3027;
1346.4000;0.2523;2.3078;
1346.7000;0.2434;2.2902;
1347.0000;0.2483;2.3027;
1347.3000;0.2507;2.3002;
1347.6000;0.2483;2.2902;
1347.9000;0.2466;2.2827;
1348.2000;0.2491;2.2852;
1348.5000;0.2499;2.2827;
1348.8000;0.2458;2.2802;
1349.1000;0.2418;2.2777;
1349.4000;0.2507;2.2952;
1349.7000;0.2548;2.3078;
1350.0000;0.2483;2.2852;
1350.3000;0.2507;2.2902;
1350.6000;0.2483;2.2802;
1350.9000;0.2491;2.2677;
1351.2000;0.2523;2.2777;
1351.5000;0.2466;2.2727;
1351.8000;0.2629;2.3253;
1352.1000;0.2515;2.2927;
1352.4000;0.2491;2.2902;
1352.7000;0.2483;2.2877;
1353.0000;0.2475;2.2752;
1353.3000;0.2466;2.2602;
1353.6000;0.2507;2.2677;
1353.9000;0.2499;2.2627;
1354.2000;0.2499;2.2577;
1354.5000;0.2515;2.2727;
1354.8000;0.2629;2.3078;
1355.1000;0.2507;2.2777;
1355.4000;0.2491;2.2777;
1355.7000;0.2564;2.3078;
1356.0000;0.2491;2.2902;
1356.3000;0.2483;2.2902;
1356.6000;0.2507;2.2977;
1356.9000;0.2475;2.2777;
1357.2000;0.2466;2.2702;
1357.5000;0.2499;2.2827;
1357.8000;0.2507;2.2852;
1358.1000;0.2483;2.2677;
1358.4000;0.2499;2.2777;
1358.7000;0.2523;2.2902;
1359.0000;0.2491;2.2927;
1359.3000;0.2483;2.2827;
1359.6000;0.2499;2.2802;
1359.9000;0.2491;2.2777;
1360.2000;0.2483;2.2727;
1360.5000;0.2491;2.2777;
1360.8000;0.2507;2.2827;
1361.1000;0.2483;2.2727;
1361.4000;0.2483;2.2752;
1361.7000;0.2483;2.2752;
1362.0000;0.2458;2.2677;
1362.3000;0.2483;2.2652;
1362.6000;0.2515;2.2752;
1362.9000;0.2434;2.2502;
1363.2000;0.2483;2.2702;
1363.5000;0.2515;2.2777;
1363.8000;0.2515;2.2752;
1364.1000;0.2458;2.2602;
1364.4000;0.2556;2.2752;
1364.7000;0.2515;2.2727;
1365.0000;0.2491;2.2777;
1365.3000;0.2515;2.3002;
1365.6000;0.2507;2.3002;
1365.9000;0.2515;2.3002;
1366.2000;0.2458;2.2802;
1366.5000;0.2532;2.2977;
1366.8000;0.2499;2.2827;
1367.1000;0.2475;2.2752;
1367.4000;0.2515;2.2877;
1367.7000;0.2483;2.2877;
1368.0000;0.2507;2.2902;
1368.3000;0.2499;2.2877;
1368.6000;0.2491;2.2827;
1368.9000;0.2491;2.2927;
1369.2000;0.2393;2.2677;
1369.5000;0.2499;2.2977;
1369.8000;0.2532;2.3078;
1370.1000;0.2475;2.2877;
1370.4000;0.2507;2.2902;
1370.7000;0.2499;2.2877;
1371.0000;0.2434;2.2777;
1371.3000;0.2556;2.3253;
1371.6000;0.2483;2.2877;
1371.9000;0.2507;2.3053;
1372.2000;0.2475;2.3027;
1372.5000;0.2491;2.3078;
1372.8000;0.2491;2.3053;
1373.1000;0.2491;2.3128;
1373.4000;0.2507;2.3178;
1373.7000;0.2515;2.3128;
1374.0000;0.2491;2.3128;
1374.3000;0.2523;2.3178;
1374.6000;0.2483;2.3103;
1374.9000;0.2499;2.3128;
1375.2000;0.2491;2.3203;
1375.5000;0.2523;2.3253;
1375.8000;0.2491;2.3128;
1376.1000;0.2491;2.3103;
1376.4000;0.2523;2.3253;
1376.7000;0.2580;2.3328;
1377.0000;0.2466;2.2927;
1377.3000;0.2475;2.2952;
1377.6000;0.2483;2.3078;
1377.9000;0.2483;2.3103;
1378.2000;0.2491;2.3053;
1378.5000;0.2499;2.3128;
1378.8000;0.2499;2.3128;
1379.1000;0.2483;2.3153;
1379.4000;0.2548;2.3278;
1379.7000;0.2458;2.3027;
1380.0000;0.2499;2.3078;
1380.3000;0.2483;2.3053;
1380.6000;0.2499;2.3103;
1380.9000;0.2499;2.3153;
1381.2000;0.2491;2.3128;
1381.5000;0.2491;2.3078;
1381.8000;0.2515;2.3128;
1382.1000;0.2450;2.3002;
1382.4000;0.2475;2.3053;
1382.7000;0.2499;2.3178;
1383.0000;0.2499;2.3228;
1383.3000;0.2475;2.3153;
1383.6000;0.2499;2.3253;
1383.9000;0.2507;2.3153;
1384.2000;0.2499;2.3053;
1384.5000;0.2499;2.3078;
1384.8000;0.2499;2.3078;
1385.1000;0.2491;2.3053;
1385.4000;0.2483;2.3053;
1385.7000;0.2499;2.3053;
1386.0000;0.2499;2.3002;
1386.3000;0.2393;2.2802;
1386.6000;0.2507;2.3103;
1386.9000;0.2507;2.3128;
1387.2000;0.2475;2.3027;
1387.5000;0.2491;2.3027;
1387.8000;0.2442;2.2927;
1388.1000;0.2605;2.3353;
1388.4000;0.2475;2.3053;
1388.7000;0.2507;2.3178;
1389.0000;0.2401;2.2777;
1389.3000;0.2442;2.2877;
1389.6000;0.2475;2.2927;
1389.9000;0.2491;2.2977;
1390.2000;0.2523;2.3027;
1390.5000;0.2515;2.3078;
1390.8000;0.2499;2.3078;
1391.1000;0.2483;2.3078;
1391.4000;0.2426;2.2902;
1391.7000;0.2483;2.2977;
1392.0000;0.2499;2.3027;
1392.3000;0.2499;2.3053;
1392.6000;0.2491;2.3078;
1392.9000;0.2515;2.3103;
1393.2000;0.2507;2.3203;
1393.5000;0.2491;2.3078;
1393.8000;0.2483;2.3002;
1394.1000;0.2483;2.3078;
1394.4000;0.2491;2.3103;
1394.7000;0.2515;2.3253;
1395.0000;0.2589;2.3528;
1395.3000;0.2499;2.3178;
1395.6000;0.2304;2.2627;
1395.9000;0.2491;2.3203;
1396.2000;0.2491;2.3228;
1396.5000;0.2589;2.3503;
1396.8000;0.2523;2.3353;
1397.1000;0.2507;2.3228;
1397.4000;0.2515;2.3178;
1397.7000;0.2466;2.3027;
1398.0000;0.2483;2.3178;
1398.3000;0.2515;2.3303;
1398.6000;0.2491;2.3178;
1398.9000;0.2418;2.2977;
1399.2000;0.2483;2.3303;
1399.5000;0.2597;2.3578;
1399.8000;0.2515;2.3378;
