time/ms;Fluo/V;P700 deltaI/I x10³;
-199.8000;0.2532;2.3803;
-199.5000;0.2515;2.3753;
-199.2000;0.2466;2.3553;
-198.9000;0.2515;2.3653;
-198.6000;0.2499;2.3603;
-198.3000;0.2458;2.3528;
-198.0000;0.2507;2.3703;
-197.7000;0.2515;2.3578;
-197.4000;0.2507;2.3578;
-197.1000;0.2507;2.3603;
-196.8000;0.2532;2.3653;
-196.5000;0.2515;2.3478;
-196.2000;0.2540;2.3578;
-195.9000;0.2507;2.3553;
-195.6000;0.2499;2.3453;
-195.3000;0.2523;2.3503;
-195.0000;0.2507;2.3453;
-194.7000;0.2483;2.3378;
-194.4000;0.2499;2.3453;
-194.1000;0.2483;2.3428;
-193.8000;0.2499;2.3528;
-193.5000;0.2499;2.3553;
-193.2000;0.2515;2.3678;
-192.9000;0.2499;2.3678;
-192.6000;0.2532;2.3778;
-192.3000;0.2507;2.3753;
-192.0000;0.2515;2.3778;
-191.7000;0.2499;2.3828;
-191.4000;0.2540;2.3853;
-191.1000;0.2515;2.3828;
-190.8000;0.2589;2.3954;
-190.5000;0.2515;2.3703;
-190.2000;0.2523;2.3678;
-189.9000;0.2507;2.3678;
-189.6000;0.2556;2.3728;
-189.3000;0.2499;2.3503;
-189.0000;0.2507;2.3503;
-188.7000;0.2507;2.3503;
-188.4000;0.2507;2.3653;
-188.1000;0.2523;2.3653;
-187.8000;0.2515;2.3703;
-187.5000;0.2491;2.3578;
-187.2000;0.2491;2.3653;
-186.9000;0.2499;2.3653;
-186.6000;0.2499;2.3603;
-186.3000;0.2507;2.3753;
-186.0000;0.2507;2.3828;
-185.7000;0.2532;2.3803;
-185.4000;0.2507;2.3703;
-185.1000;0.2532;2.3753;
-184.8000;0.2515;2.3678;
-184.5000;0.2426;2.3478;
-184.2000;0.2491;2.3628;
-183.9000;0.2507;2.3628;
-183.6000;0.2507;2.3603;
-183.3000;0.2475;2.3428;
-183.0000;0.2483;2.3478;
-182.7000;0.2483;2.3428;
-182.4000;0.2491;2.3428;
-182.1000;0.2483;2.3378;
-181.8000;0.2491;2.3353;
-181.5000;0.2499;2.3378;
-181.2000;0.2515;2.3503;
-180.9000;0.2491;2.3528;
-180.6000;0.2507;2.3628;
-180.3000;0.2507;2.3628;
-180.0000;0.2515;2.3628;
-179.7000;0.2540;2.3628;
-179.4000;0.2434;2.3353;
-179.1000;0.2499;2.3503;
-178.8000;0.2532;2.3503;
-178.5000;0.2507;2.3428;
-178.2000;0.2507;2.3378;
-177.9000;0.2507;2.3478;
-177.6000;0.2507;2.3478;
-177.3000;0.2499;2.3428;
-177.0000;0.2491;2.3453;
-176.7000;0.2483;2.3453;
-176.4000;0.2507;2.3503;
-176.1000;0.2507;2.3453;
-175.8000;0.2491;2.3453;
-175.5000;0.2499;2.3503;
-175.2000;0.2507;2.3578;
-174.9000;0.2515;2.3603;
-174.6000;0.2532;2.3628;
-174.3000;0.2515;2.3578;
-174.0000;0.2499;2.3503;
-173.7000;0.2523;2.3553;
-173.4000;0.2491;2.3503;
-173.1000;0.2499;2.3603;
-172.8000;0.2507;2.3578;
-172.5000;0.2532;2.3653;
-172.2000;0.2499;2.3528;
-171.9000;0.2515;2.3578;
-171.6000;0.2466;2.3403;
-171.3000;0.2523;2.3578;
-171.0000;0.2515;2.3628;
-170.7000;0.2515;2.3603;
-170.4000;0.2523;2.3678;
-170.1000;0.2491;2.3578;
-169.8000;0.2532;2.3628;
-169.5000;0.2548;2.3653;
-169.2000;0.2540;2.3703;
-168.9000;0.2548;2.3653;
-168.6000;0.2532;2.3503;
-168.3000;0.2515;2.3478;
-168.0000;0.2499;2.3478;
-167.7000;0.2507;2.3503;
-167.4000;0.2532;2.3478;
-167.1000;0.2523;2.3453;
-166.8000;0.2499;2.3503;
-166.5000;0.2507;2.3503;
-166.2000;0.2532;2.3603;
-165.9000;0.2515;2.3553;
-165.6000;0.2499;2.3503;
-165.3000;0.2523;2.3553;
-165.0000;0.2491;2.3453;
-164.7000;0.2499;2.3528;
-164.4000;0.2483;2.3378;
-164.1000;0.2499;2.3328;
-163.8000;0.2491;2.3403;
-163.5000;0.2499;2.3453;
-163.2000;0.2507;2.3478;
-162.9000;0.2499;2.3428;
-162.6000;0.2466;2.3453;
-162.3000;0.2507;2.3528;
-162.0000;0.2507;2.3503;
-161.7000;0.2523;2.3453;
-161.4000;0.2507;2.3403;
-161.1000;0.2499;2.3353;
-160.8000;0.2515;2.3303;
-160.5000;0.2507;2.3303;
-160.2000;0.2515;2.3278;
-159.9000;0.2515;2.3253;
-159.6000;0.2515;2.3228;
-159.3000;0.2515;2.3278;
-159.0000;0.2507;2.3278;
-158.7000;0.2499;2.3228;
-158.4000;0.2499;2.3253;
-158.1000;0.2499;2.3303;
-157.8000;0.2532;2.3403;
-157.5000;0.2483;2.3303;
-157.2000;0.2499;2.3303;
-156.9000;0.2483;2.3203;
-156.6000;0.2507;2.3353;
-156.3000;0.2499;2.3428;
-156.0000;0.2532;2.3528;
-155.7000;0.2540;2.3403;
-155.4000;0.2523;2.3403;
-155.1000;0.2491;2.3328;
-154.8000;0.2499;2.3403;
-154.5000;0.2499;2.3403;
-154.2000;0.2507;2.3428;
-153.9000;0.2466;2.3328;
-153.6000;0.2532;2.3453;
-153.3000;0.2515;2.3353;
-153.0000;0.2523;2.3253;
-152.7000;0.2499;2.3153;
-152.4000;0.2540;2.3328;
-152.1000;0.2523;2.3353;
-151.8000;0.2613;2.3628;
-151.5000;0.2507;2.3303;
-151.2000;0.2540;2.3428;
-150.9000;0.2580;2.3403;
-150.6000;0.2523;2.3353;
-150.3000;0.2515;2.3428;
-150.0000;0.2507;2.3403;
-149.7000;0.2507;2.3403;
-149.4000;0.2499;2.3478;
-149.1000;0.2507;2.3478;
-148.8000;0.2483;2.3428;
-148.5000;0.2507;2.3353;
-148.2000;0.2515;2.3453;
-147.9000;0.2491;2.3353;
-147.6000;0.2556;2.3553;
-147.3000;0.2556;2.3428;
-147.0000;0.2532;2.3378;
-146.7000;0.2499;2.3378;
-146.4000;0.2532;2.3428;
-146.1000;0.2491;2.3353;
-145.8000;0.2377;2.3078;
-145.5000;0.2572;2.3503;
-145.2000;0.2491;2.3203;
-144.9000;0.2597;2.3478;
-144.6000;0.2483;2.3253;
-144.3000;0.2369;2.3002;
-144.0000;0.2499;2.3353;
-143.7000;0.2507;2.3303;
-143.4000;0.2475;2.3278;
-143.1000;0.2507;2.3403;
-142.8000;0.2523;2.3603;
-142.5000;0.2483;2.3553;
-142.2000;0.2483;2.3478;
-141.9000;0.2523;2.3578;
-141.6000;0.2491;2.3528;
-141.3000;0.2556;2.3753;
-141.0000;0.2523;2.3678;
-140.7000;0.2532;2.3728;
-140.4000;0.2499;2.3728;
-140.1000;0.2491;2.3703;
-139.8000;0.2515;2.3653;
-139.5000;0.2564;2.3879;
-139.2000;0.2532;2.3778;
-138.9000;0.2491;2.3653;
-138.6000;0.2426;2.3428;
-138.3000;0.2499;2.3653;
-138.0000;0.2507;2.3653;
-137.7000;0.2475;2.3578;
-137.4000;0.2377;2.3378;
-137.1000;0.2507;2.3553;
-136.8000;0.2515;2.3628;
-136.5000;0.2515;2.3553;
-136.2000;0.2409;2.3178;
-135.9000;0.2458;2.3378;
-135.6000;0.2515;2.3553;
-135.3000;0.2515;2.3578;
-135.0000;0.2507;2.3603;
-134.7000;0.2507;2.3553;
-134.4000;0.2572;2.3728;
-134.1000;0.2523;2.3628;
-133.8000;0.2589;2.3753;
-133.5000;0.2401;2.3278;
-133.2000;0.2507;2.3528;
-132.9000;0.2507;2.3603;
-132.6000;0.2499;2.3553;
-132.3000;0.2507;2.3553;
-132.0000;0.2491;2.3453;
-131.7000;0.2507;2.3503;
-131.4000;0.2483;2.3403;
-131.1000;0.2499;2.3353;
-130.8000;0.2507;2.3353;
-130.5000;0.2507;2.3353;
-130.2000;0.2507;2.3253;
-129.9000;0.2499;2.3303;
-129.6000;0.2491;2.3353;
-129.3000;0.2507;2.3328;
-129.0000;0.2523;2.3403;
-128.7000;0.2532;2.3453;
-128.4000;0.2491;2.3378;
-128.1000;0.2483;2.3403;
-127.8000;0.2483;2.3478;
-127.5000;0.2499;2.3578;
-127.2000;0.2458;2.3503;
-126.9000;0.2556;2.3803;
-126.6000;0.2499;2.3578;
-126.3000;0.2499;2.3503;
-126.0000;0.2442;2.3453;
-125.7000;0.2572;2.3803;
-125.4000;0.2507;2.3653;
-125.1000;0.2483;2.3678;
-124.8000;0.2483;2.3603;
-124.5000;0.2483;2.3628;
-124.2000;0.2507;2.3653;
-123.9000;0.2499;2.3678;
-123.6000;0.2491;2.3678;
-123.3000;0.2475;2.3653;
-123.0000;0.2491;2.3778;
-122.7000;0.2515;2.3803;
-122.4000;0.2483;2.3628;
-122.1000;0.2491;2.3678;
-121.8000;0.2458;2.3553;
-121.5000;0.2507;2.3778;
-121.2000;0.2483;2.3703;
-120.9000;0.2499;2.3678;
-120.6000;0.2499;2.3703;
-120.3000;0.2491;2.3678;
-120.0000;0.2515;2.3653;
-119.7000;0.2491;2.3578;
-119.4000;0.2499;2.3628;
-119.1000;0.2605;2.3929;
-118.8000;0.2548;2.3778;
-118.5000;0.2499;2.3728;
-118.2000;0.2466;2.3678;
-117.9000;0.2491;2.3778;
-117.6000;0.2548;2.3778;
-117.3000;0.2605;2.3929;
-117.0000;0.2507;2.3678;
-116.7000;0.2458;2.3478;
-116.4000;0.2475;2.3578;
-116.1000;0.2580;2.3879;
-115.8000;0.2564;2.3828;
-115.5000;0.2540;2.3778;
-115.2000;0.2499;2.3678;
-114.9000;0.2629;2.4054;
-114.6000;0.2450;2.3478;
-114.3000;0.2532;2.3653;
-114.0000;0.2507;2.3603;
-113.7000;0.2580;2.3753;
-113.4000;0.2491;2.3503;
-113.1000;0.2523;2.3603;
-112.8000;0.2475;2.3503;
-112.5000;0.2532;2.3678;
-112.2000;0.2491;2.3653;
-111.9000;0.2499;2.3628;
-111.6000;0.2515;2.3728;
-111.3000;0.2515;2.3703;
-111.0000;0.2523;2.3728;
-110.7000;0.2507;2.3653;
-110.4000;0.2401;2.3328;
-110.1000;0.2499;2.3603;
-109.8000;0.2515;2.3678;
-109.5000;0.2491;2.3628;
-109.2000;0.2499;2.3778;
-108.9000;0.2499;2.3728;
-108.6000;0.2483;2.3678;
-108.3000;0.2499;2.3678;
-108.0000;0.2499;2.3628;
-107.7000;0.2499;2.3603;
-107.4000;0.2483;2.3578;
-107.1000;0.2507;2.3678;
-106.8000;0.2499;2.3628;
-106.5000;0.2515;2.3628;
-106.2000;0.2523;2.3653;
-105.9000;0.2523;2.3628;
-105.6000;0.2475;2.3578;
-105.3000;0.2491;2.3628;
-105.0000;0.2523;2.3753;
-104.7000;0.2434;2.3478;
-104.4000;0.2523;2.3703;
-104.1000;0.2491;2.3603;
-103.8000;0.2491;2.3628;
-103.5000;0.2499;2.3528;
-103.2000;0.2507;2.3428;
-102.9000;0.2532;2.3478;
-102.6000;0.2523;2.3478;
-102.3000;0.2589;2.3628;
-102.0000;0.2304;2.2877;
-101.7000;0.2507;2.3428;
-101.4000;0.2540;2.3553;
-101.1000;0.2572;2.3578;
-100.8000;0.2483;2.3378;
-100.5000;0.2491;2.3378;
-100.2000;0.2393;2.3178;
-99.9000;0.2515;2.3603;
-99.6000;0.2491;2.3528;
-99.3000;0.2491;2.3603;
-99.0000;0.2523;2.3678;
-98.7000;0.2507;2.3628;
-98.4000;0.2507;2.3478;
-98.1000;0.2548;2.3528;
-97.8000;0.2466;2.3253;
-97.5000;0.2499;2.3328;
-97.2000;0.2515;2.3328;
-96.9000;0.2491;2.3378;
-96.6000;0.2434;2.3278;
-96.3000;0.2515;2.3578;
-96.0000;0.2532;2.3653;
-95.7000;0.2499;2.3603;
-95.4000;0.2515;2.3603;
-95.1000;0.2442;2.3453;
-94.8000;0.2507;2.3553;
-94.5000;0.2499;2.3578;
-94.2000;0.2540;2.3628;
-93.9000;0.2515;2.3728;
-93.6000;0.2426;2.3528;
-93.3000;0.2654;2.4029;
-93.0000;0.2483;2.3578;
-92.7000;0.2483;2.3553;
-92.4000;0.2540;2.3628;
-92.1000;0.2515;2.3578;
-91.8000;0.2589;2.3828;
-91.5000;0.2515;2.3628;
-91.2000;0.2483;2.3678;
-90.9000;0.2532;2.3728;
-90.6000;0.2507;2.3703;
-90.3000;0.2515;2.3703;
-90.0000;0.2515;2.3703;
-89.7000;0.2499;2.3503;
-89.4000;0.2580;2.3753;
-89.1000;0.2507;2.3578;
-88.8000;0.2483;2.3578;
-88.5000;0.2507;2.3653;
-88.2000;0.2491;2.3603;
-87.9000;0.2491;2.3653;
-87.6000;0.2491;2.3603;
-87.3000;0.2515;2.3628;
-87.0000;0.2499;2.3628;
-86.7000;0.2499;2.3553;
-86.4000;0.2491;2.3603;
-86.1000;0.2556;2.3753;
-85.8000;0.2507;2.3653;
-85.5000;0.2515;2.3628;
-85.2000;0.2491;2.3528;
-84.9000;0.2540;2.3653;
-84.6000;0.2515;2.3578;
-84.3000;0.2475;2.3403;
-84.0000;0.2515;2.3553;
-83.7000;0.2491;2.3428;
-83.4000;0.2499;2.3503;
-83.1000;0.2540;2.3528;
-82.8000;0.2499;2.3578;
-82.5000;0.2507;2.3703;
-82.2000;0.2475;2.3553;
-81.9000;0.2499;2.3653;
-81.6000;0.2523;2.3628;
-81.3000;0.2434;2.3378;
-81.0000;0.2548;2.3703;
-80.7000;0.2507;2.3603;
-80.4000;0.2483;2.3503;
-80.1000;0.2483;2.3478;
-79.8000;0.2499;2.3528;
-79.5000;0.2580;2.3728;
-79.2000;0.2466;2.3378;
-78.9000;0.2499;2.3478;
-78.6000;0.2393;2.3253;
-78.3000;0.2507;2.3628;
-78.0000;0.2507;2.3503;
-77.7000;0.2491;2.3428;
-77.4000;0.2532;2.3553;
-77.1000;0.2515;2.3578;
-76.8000;0.2515;2.3603;
-76.5000;0.2483;2.3478;
-76.2000;0.2507;2.3578;
-75.9000;0.2548;2.3678;
-75.6000;0.2580;2.3778;
-75.3000;0.2499;2.3528;
-75.0000;0.2507;2.3553;
-74.7000;0.2507;2.3553;
-74.4000;0.2507;2.3478;
-74.1000;0.2507;2.3428;
-73.8000;0.2507;2.3528;
-73.5000;0.2499;2.3553;
-73.2000;0.2532;2.3578;
-72.9000;0.2483;2.3403;
-72.6000;0.2507;2.3453;
-72.3000;0.2507;2.3478;
-72.0000;0.2515;2.3503;
-71.7000;0.2483;2.3553;
-71.4000;0.2466;2.3503;
-71.1000;0.2507;2.3628;
-70.8000;0.2580;2.3778;
-70.5000;0.2532;2.3678;
-70.2000;0.2507;2.3578;
-69.9000;0.2523;2.3578;
-69.6000;0.2499;2.3553;
-69.3000;0.2515;2.3628;
-69.0000;0.2629;2.4029;
-68.7000;0.2499;2.3603;
-68.4000;0.2483;2.3578;
-68.1000;0.2499;2.3528;
-67.8000;0.2491;2.3503;
-67.5000;0.2491;2.3528;
-67.2000;0.2475;2.3553;
-66.9000;0.2670;2.4079;
-66.6000;0.2499;2.3578;
-66.3000;0.2475;2.3478;
-66.0000;0.2499;2.3528;
-65.7000;0.2515;2.3603;
-65.4000;0.2564;2.3853;
-65.1000;0.2475;2.3603;
-64.8000;0.2515;2.3703;
-64.5000;0.2523;2.3703;
-64.2000;0.2532;2.3628;
-63.9000;0.2483;2.3428;
-63.6000;0.2499;2.3478;
-63.3000;0.2369;2.3203;
-63.0000;0.2491;2.3578;
-62.7000;0.2499;2.3678;
-62.4000;0.2491;2.3678;
-62.1000;0.2532;2.3728;
-61.8000;0.2515;2.3578;
-61.5000;0.2515;2.3578;
-61.2000;0.2532;2.3603;
-60.9000;0.2556;2.3653;
-60.6000;0.2483;2.3453;
-60.3000;0.2499;2.3503;
-60.0000;0.2515;2.3553;
-59.7000;0.2475;2.3478;
-59.4000;0.2507;2.3578;
-59.1000;0.2523;2.3578;
-58.8000;0.2580;2.3628;
-58.5000;0.2499;2.3453;
-58.2000;0.2637;2.3904;
-57.9000;0.2491;2.3478;
-57.6000;0.2434;2.3303;
-57.3000;0.2580;2.3703;
-57.0000;0.2499;2.3478;
-56.7000;0.2515;2.3528;
-56.4000;0.2523;2.3553;
-56.1000;0.2483;2.3428;
-55.8000;0.2450;2.3353;
-55.5000;0.2523;2.3528;
-55.2000;0.2442;2.3353;
-54.9000;0.2532;2.3628;
-54.6000;0.2621;2.3853;
-54.3000;0.2540;2.3578;
-54.0000;0.2499;2.3403;
-53.7000;0.2393;2.3078;
-53.4000;0.2523;2.3453;
-53.1000;0.2483;2.3403;
-52.8000;0.2613;2.3728;
-52.5000;0.2515;2.3478;
-52.2000;0.2409;2.3228;
-51.9000;0.2483;2.3403;
-51.6000;0.2523;2.3528;
-51.3000;0.2507;2.3403;
-51.0000;0.2499;2.3328;
-50.7000;0.2491;2.3253;
-50.4000;0.2507;2.3378;
-50.1000;0.2523;2.3428;
-49.8000;0.2491;2.3353;
-49.5000;0.2515;2.3278;
-49.2000;0.2483;2.3453;
-48.9000;0.2499;2.3578;
-48.6000;0.2548;2.3653;
-48.3000;0.2523;2.3753;
-48.0000;0.2532;2.3728;
-47.7000;0.2499;2.3628;
-47.4000;0.2499;2.3578;
-47.1000;0.2475;2.3653;
-46.8000;0.2540;2.3803;
-46.5000;0.2515;2.3753;
-46.2000;0.2507;2.3703;
-45.9000;0.2532;2.3728;
-45.6000;0.2523;2.3728;
-45.3000;0.2499;2.3753;
-45.0000;0.2548;2.3853;
-44.7000;0.2499;2.3728;
-44.4000;0.2491;2.3653;
-44.1000;0.2507;2.3728;
-43.8000;0.2515;2.3703;
-43.5000;0.2491;2.3528;
-43.2000;0.2507;2.3578;
-42.9000;0.2499;2.3603;
-42.6000;0.2475;2.3428;
-42.3000;0.2401;2.3228;
-42.0000;0.2499;2.3578;
-41.7000;0.2483;2.3603;
-41.4000;0.2540;2.3778;
-41.1000;0.2466;2.3553;
-40.8000;0.2426;2.3378;
-40.5000;0.2499;2.3678;
-40.2000;0.2523;2.3653;
-39.9000;0.2499;2.3553;
-39.6000;0.2523;2.3603;
-39.3000;0.2361;2.3228;
-39.0000;0.2515;2.3678;
-38.7000;0.2515;2.3778;
-38.4000;0.2532;2.3879;
-38.1000;0.2499;2.3828;
-37.8000;0.2507;2.3803;
-37.5000;0.2491;2.3753;
-37.2000;0.2507;2.3653;
-36.9000;0.2377;2.3278;
-36.6000;0.2483;2.3503;
-36.3000;0.2507;2.3478;
-36.0000;0.2507;2.3503;
-35.7000;0.2507;2.3428;
-35.4000;0.2515;2.3378;
-35.1000;0.2507;2.3328;
-34.8000;0.2475;2.3328;
-34.5000;0.2491;2.3428;
-34.2000;0.2491;2.3478;
-33.9000;0.2515;2.3578;
-33.6000;0.2491;2.3503;
-33.3000;0.2418;2.3228;
-33.0000;0.2491;2.3403;
-32.7000;0.2515;2.3578;
-32.4000;0.2499;2.3453;
-32.1000;0.2499;2.3478;
-31.8000;0.2475;2.3303;
-31.5000;0.2483;2.3328;
-31.2000;0.2483;2.3353;
-30.9000;0.2401;2.3128;
-30.6000;0.2580;2.3653;
-30.3000;0.2507;2.3353;
-30.0000;0.2548;2.3478;
-29.7000;0.2499;2.3403;
-29.4000;0.2499;2.3453;
-29.1000;0.2507;2.3528;
-28.8000;0.2523;2.3603;
-28.5000;0.2466;2.3553;
-28.2000;0.2475;2.3503;
-27.9000;0.2491;2.3453;
-27.6000;0.2507;2.3453;
-27.3000;0.2475;2.3453;
-27.0000;0.2556;2.3728;
-26.7000;0.2499;2.3528;
-26.4000;0.2515;2.3603;
-26.1000;0.2515;2.3553;
-25.8000;0.2499;2.3328;
-25.5000;0.2499;2.3203;
-25.2000;0.2572;2.3353;
-24.9000;0.2507;2.3253;
-24.6000;0.2483;2.3253;
-24.3000;0.2483;2.3203;
-24.0000;0.2572;2.3378;
-23.7000;0.2515;2.3228;
-23.4000;0.2515;2.3203;
-23.1000;0.2491;2.3228;
-22.8000;0.2507;2.3303;
-22.5000;0.2483;2.3103;
-22.2000;0.2483;2.3153;
-21.9000;0.2523;2.3253;
-21.6000;0.2605;2.3603;
-21.3000;0.2491;2.3278;
-21.0000;0.2532;2.3328;
-20.7000;0.2532;2.3353;
-20.4000;0.2589;2.3628;
-20.1000;0.2532;2.3353;
-19.8000;0.2523;2.3278;
-19.5000;0.2426;2.3053;
-19.2000;0.2507;2.3353;
-18.9000;0.2515;2.3378;
-18.6000;0.2564;2.3578;
-18.3000;0.2466;2.3178;
-18.0000;0.2540;2.3428;
-17.7000;0.2507;2.3378;
-17.4000;0.2515;2.3503;
-17.1000;0.2450;2.3403;
-16.8000;0.2499;2.3503;
-16.5000;0.2515;2.3428;
-16.2000;0.2491;2.3378;
-15.9000;0.2564;2.3478;
-15.6000;0.2532;2.3378;
-15.3000;0.2491;2.3303;
-15.0000;0.2523;2.3453;
-14.7000;0.2515;2.3528;
-14.4000;0.2507;2.3403;
-14.1000;0.2515;2.3378;
-13.8000;0.2507;2.3353;
-13.5000;0.2499;2.3403;
-13.2000;0.2499;2.3378;
-12.9000;0.2491;2.3403;
-12.6000;0.2491;2.3503;
-12.3000;0.2523;2.3653;
-12.0000;0.2523;2.3603;
-11.7000;0.2491;2.3503;
-11.4000;0.2515;2.3528;
-11.1000;0.2483;2.3378;
-10.8000;0.2499;2.3428;
-10.5000;0.2466;2.3278;
-10.2000;0.2499;2.3203;
-9.9000;0.2532;2.3303;
-9.6000;0.2523;2.3253;
-9.3000;0.2499;2.3178;
-9.0000;0.2475;2.3103;
-8.7000;0.2491;2.3128;
-8.4000;0.2523;2.3278;
-8.1000;0.2507;2.3328;
-7.8000;0.2523;2.3503;
-7.5000;0.2491;2.3478;
-7.2000;0.2499;2.3478;
-6.9000;0.2556;2.3578;
-6.6000;0.2523;2.3453;
-6.3000;0.2532;2.3453;
-6.0000;0.2507;2.3428;
-5.7000;0.2515;2.3528;
-5.4000;0.2532;2.3603;
-5.1000;0.2507;2.3603;
-4.8000;0.2523;2.3678;
-4.5000;0.2499;2.3653;
-4.2000;0.2491;2.3478;
-3.9000;0.2523;2.3603;
-3.6000;0.2523;2.3553;
-3.3000;0.2483;2.3428;
-3.0000;0.2466;2.3428;
-2.7000;0.2491;2.3553;
-2.4000;0.2491;2.3553;
-2.1000;0.2507;2.3578;
-1.8000;0.2523;2.3553;
-1.5000;0.2475;2.3403;
-1.2000;0.2507;2.3428;
-0.9000;0.2499;2.3428;
-0.6000;0.2523;2.3503;
-0.3000;0.2540;2.3503;
0.0000;0.2540;2.3503;
0.3000;0.2499;2.3228;
0.6000;0.2483;2.3478;
0.9000;0.2515;2.3753;
1.2000;0.2597;2.4179;
1.5000;0.2589;2.4479;
1.8000;0.2548;2.4504;
2.1000;0.2491;2.4454;
2.4000;0.2629;2.4980;
2.7000;0.2548;2.5005;
3.0000;0.2532;2.5080;
3.3000;0.2556;2.5255;
3.6000;0.2564;2.5455;
3.9000;0.2670;2.5781;
4.2000;0.2580;2.5556;
4.5000;0.2564;2.5556;
4.8000;0.2523;2.5430;
5.1000;0.2597;2.5656;
5.4000;0.2548;2.5505;
5.7000;0.2532;2.5480;
6.0000;0.2589;2.5731;
6.3000;0.2564;2.5631;
6.6000;0.2589;2.5731;
6.9000;0.2597;2.5831;
7.2000;0.2589;2.5831;
7.5000;0.2580;2.5906;
7.8000;0.2654;2.6106;
8.1000;0.2589;2.5856;
8.4000;0.2597;2.5906;
8.7000;0.2597;2.6006;
9.0000;0.2605;2.6031;
9.3000;0.2605;2.5981;
9.6000;0.2597;2.5931;
9.9000;0.2580;2.5956;
10.2000;0.2589;2.5981;
10.5000;0.2613;2.5956;
10.8000;0.2589;2.5856;
11.1000;0.2597;2.5931;
11.4000;0.2580;2.5906;
11.7000;0.2597;2.5981;
12.0000;0.2621;2.6031;
12.3000;0.2572;2.5956;
12.6000;0.2523;2.5906;
12.9000;0.2580;2.5981;
13.2000;0.2597;2.6056;
13.5000;0.2589;2.6031;
13.8000;0.2515;2.5756;
14.1000;0.2597;2.5906;
14.4000;0.2523;2.5706;
14.7000;0.2605;2.5906;
15.0000;0.2613;2.5856;
15.3000;0.2580;2.5856;
15.6000;0.2523;2.5606;
15.9000;0.2605;2.5881;
16.2000;0.2572;2.5806;
16.5000;0.2540;2.5706;
16.8000;0.2589;2.5806;
17.1000;0.2589;2.5806;
17.4000;0.2621;2.6006;
17.7000;0.2556;2.5831;
18.0000;0.2580;2.6031;
18.3000;0.2450;2.5656;
18.6000;0.2597;2.5981;
18.9000;0.2580;2.5881;
19.2000;0.2597;2.5731;
19.5000;0.2564;2.5731;
19.8000;0.2523;2.5731;
20.1000;0.2580;2.5781;
20.4000;0.2572;2.5806;
20.7000;0.2646;2.5981;
21.0000;0.2580;2.5881;
21.3000;0.2548;2.5881;
21.6000;0.2572;2.5981;
21.9000;0.2621;2.6056;
22.2000;0.2564;2.5881;
22.5000;0.2580;2.5906;
22.8000;0.2589;2.5931;
23.1000;0.2605;2.6031;
23.4000;0.2572;2.6006;
23.7000;0.2580;2.6006;
24.0000;0.2605;2.6081;
24.3000;0.2654;2.6231;
24.6000;0.2564;2.6006;
24.9000;0.2621;2.6106;
25.2000;0.2621;2.6106;
25.5000;0.2597;2.5931;
25.8000;0.2597;2.5931;
26.1000;0.2532;2.5806;
26.4000;0.2613;2.6056;
26.7000;0.2621;2.6031;
27.0000;0.2589;2.6031;
27.3000;0.2580;2.5981;
27.6000;0.2564;2.5881;
27.9000;0.2613;2.5956;
28.2000;0.2589;2.5856;
28.5000;0.2605;2.5931;
28.8000;0.2572;2.5981;
29.1000;0.2589;2.6106;
29.4000;0.2580;2.6081;
29.7000;0.2597;2.6156;
30.0000;0.2589;2.6056;
30.3000;0.2572;2.6056;
30.6000;0.2540;2.6006;
30.9000;0.2637;2.6256;
31.2000;0.2605;2.6181;
31.5000;0.2597;2.6206;
31.8000;0.2580;2.6206;
32.1000;0.2548;2.6131;
32.4000;0.2580;2.6231;
32.7000;0.2613;2.6306;
33.0000;0.2580;2.6256;
33.3000;0.2589;2.6256;
33.6000;0.2605;2.6206;
33.9000;0.2589;2.6206;
34.2000;0.2572;2.6081;
34.5000;0.2564;2.5981;
34.8000;0.2580;2.6031;
35.1000;0.2629;2.6156;
35.4000;0.2589;2.6056;
35.7000;0.2621;2.6131;
36.0000;0.2605;2.6006;
36.3000;0.2621;2.6231;
36.6000;0.2556;2.6031;
36.9000;0.2556;2.6031;
37.2000;0.2589;2.6231;
37.5000;0.2580;2.6206;
37.8000;0.2548;2.6156;
38.1000;0.2605;2.6281;
38.4000;0.2572;2.6131;
38.7000;0.2678;2.6432;
39.0000;0.2589;2.6081;
39.3000;0.2589;2.6006;
39.6000;0.2572;2.6006;
39.9000;0.2589;2.6081;
40.2000;0.2572;2.5981;
40.5000;0.2564;2.6006;
40.8000;0.2589;2.6081;
41.1000;0.2580;2.6181;
41.4000;0.2597;2.6281;
41.7000;0.2572;2.6106;
42.0000;0.2605;2.6056;
42.3000;0.2580;2.5931;
42.6000;0.2589;2.6031;
42.9000;0.2556;2.6031;
43.2000;0.2580;2.6056;
43.5000;0.2580;2.6081;
43.8000;0.2556;2.6006;
44.1000;0.2556;2.5981;
44.4000;0.2564;2.5981;
44.7000;0.2580;2.6056;
45.0000;0.2597;2.6081;
45.3000;0.2589;2.6031;
45.6000;0.2556;2.5881;
45.9000;0.2580;2.5981;
46.2000;0.2564;2.5906;
46.5000;0.2580;2.6031;
46.8000;0.2556;2.5981;
47.1000;0.2597;2.6206;
47.4000;0.2580;2.6156;
47.7000;0.2597;2.6256;
48.0000;0.2580;2.6156;
48.3000;0.2548;2.6106;
48.6000;0.2605;2.6306;
48.9000;0.2589;2.6206;
49.2000;0.2564;2.6181;
49.5000;0.2548;2.6206;
49.8000;0.2654;2.6457;
50.1000;0.2605;2.6256;
50.4000;0.2597;2.6231;
50.7000;0.2646;2.6331;
51.0000;0.2580;2.6106;
51.3000;0.2507;2.5781;
51.6000;0.2580;2.6056;
51.9000;0.2564;2.5981;
52.2000;0.2597;2.6031;
52.5000;0.2597;2.6031;
52.8000;0.2605;2.6106;
53.1000;0.2564;2.5981;
53.4000;0.2589;2.5956;
53.7000;0.2572;2.5856;
54.0000;0.2597;2.5906;
54.3000;0.2597;2.5956;
54.6000;0.2564;2.5856;
54.9000;0.2605;2.5931;
55.2000;0.2589;2.5881;
55.5000;0.2523;2.5631;
55.8000;0.2580;2.5806;
56.1000;0.2556;2.5806;
56.4000;0.2580;2.5856;
56.7000;0.2613;2.5881;
57.0000;0.2572;2.5781;
57.3000;0.2572;2.5931;
57.6000;0.2605;2.6056;
57.9000;0.2540;2.5881;
58.2000;0.2580;2.5906;
58.5000;0.2556;2.5856;
58.8000;0.2572;2.5931;
59.1000;0.2491;2.5756;
59.4000;0.2597;2.5931;
59.7000;0.2605;2.6031;
60.0000;0.2564;2.5881;
60.3000;0.2621;2.5981;
60.6000;0.2613;2.5981;
60.9000;0.2580;2.5881;
61.2000;0.2597;2.5881;
61.5000;0.2564;2.5731;
61.8000;0.2564;2.5731;
62.1000;0.2572;2.5806;
62.4000;0.2589;2.5906;
62.7000;0.2556;2.5831;
63.0000;0.2589;2.5856;
63.3000;0.2548;2.5756;
63.6000;0.2564;2.5756;
63.9000;0.2637;2.5856;
64.2000;0.2548;2.5681;
64.5000;0.2580;2.5781;
64.8000;0.2564;2.5731;
65.1000;0.2605;2.5831;
65.4000;0.2589;2.5756;
65.7000;0.2572;2.5681;
66.0000;0.2556;2.5631;
66.3000;0.2589;2.5731;
66.6000;0.2572;2.5831;
66.9000;0.2572;2.5856;
67.2000;0.2580;2.5981;
67.5000;0.2589;2.5881;
67.8000;0.2605;2.5881;
68.1000;0.2548;2.5756;
68.4000;0.2572;2.5881;
68.7000;0.2605;2.6031;
69.0000;0.2580;2.5956;
69.3000;0.2532;2.5856;
69.6000;0.2605;2.6131;
69.9000;0.2589;2.6056;
70.2000;0.2548;2.6006;
70.5000;0.2589;2.6081;
70.8000;0.2572;2.5981;
71.1000;0.2572;2.5931;
71.4000;0.2613;2.6081;
71.7000;0.2580;2.5956;
72.0000;0.2572;2.5906;
72.3000;0.2564;2.5881;
72.6000;0.2621;2.6031;
72.9000;0.2597;2.5881;
73.2000;0.2572;2.5781;
73.5000;0.2621;2.5956;
73.8000;0.2597;2.5931;
74.1000;0.2540;2.5906;
74.4000;0.2646;2.6131;
74.7000;0.2580;2.5931;
75.0000;0.2556;2.5906;
75.3000;0.2572;2.5981;
75.6000;0.2597;2.6056;
75.9000;0.2564;2.5906;
76.2000;0.2572;2.5856;
76.5000;0.2580;2.5931;
76.8000;0.2507;2.5706;
77.1000;0.2572;2.5881;
77.4000;0.2564;2.5881;
77.7000;0.2686;2.6206;
78.0000;0.2580;2.5956;
78.3000;0.2580;2.5956;
78.6000;0.2589;2.5956;
78.9000;0.2572;2.5931;
79.2000;0.2564;2.5881;
79.5000;0.2548;2.5756;
79.8000;0.2597;2.5856;
80.1000;0.2572;2.5731;
80.4000;0.2580;2.5781;
80.7000;0.2548;2.5731;
81.0000;0.2564;2.5756;
81.3000;0.2572;2.5831;
81.6000;0.2564;2.5881;
81.9000;0.2589;2.6031;
82.2000;0.2532;2.6031;
82.5000;0.2572;2.6081;
82.8000;0.2572;2.6081;
83.1000;0.2580;2.6106;
83.4000;0.2580;2.6131;
83.7000;0.2564;2.6131;
84.0000;0.2589;2.6131;
84.3000;0.2580;2.6206;
84.6000;0.2613;2.6206;
84.9000;0.2564;2.6031;
85.2000;0.2589;2.6106;
85.5000;0.2597;2.6131;
85.8000;0.2589;2.6156;
86.1000;0.2556;2.6131;
86.4000;0.2580;2.6231;
86.7000;0.2564;2.6156;
87.0000;0.2532;2.6006;
87.3000;0.2605;2.6156;
87.6000;0.2532;2.6031;
87.9000;0.2605;2.6181;
88.2000;0.2572;2.6056;
88.5000;0.2564;2.5931;
88.8000;0.2556;2.5931;
89.1000;0.2556;2.5906;
89.4000;0.2589;2.5956;
89.7000;0.2589;2.5881;
90.0000;0.2458;2.5606;
90.3000;0.2589;2.6031;
90.6000;0.2580;2.6081;
90.9000;0.2597;2.6106;
91.2000;0.2589;2.6056;
91.5000;0.2548;2.5931;
91.8000;0.2572;2.5881;
92.1000;0.2597;2.5906;
92.4000;0.2589;2.5806;
92.7000;0.2613;2.5881;
93.0000;0.2589;2.5981;
93.3000;0.2548;2.5956;
93.6000;0.2580;2.6031;
93.9000;0.2564;2.5981;
94.2000;0.2597;2.6006;
94.5000;0.2613;2.6031;
94.8000;0.2597;2.6031;
95.1000;0.2572;2.5981;
95.4000;0.2564;2.5881;
95.7000;0.2564;2.5881;
96.0000;0.2580;2.5931;
96.3000;0.2589;2.5906;
96.6000;0.2572;2.5856;
96.9000;0.2580;2.5906;
97.2000;0.2589;2.5831;
97.5000;0.2532;2.5706;
97.8000;0.2572;2.5881;
98.1000;0.2556;2.5856;
98.4000;0.2572;2.5931;
98.7000;0.2572;2.5931;
99.0000;0.2589;2.5956;
99.3000;0.2572;2.5981;
99.6000;0.2572;2.5956;
99.9000;0.2597;2.6006;
100.2000;0.2597;2.5906;
100.5000;0.2613;2.6056;
100.8000;0.2580;2.6081;
101.1000;0.2662;2.6281;
101.4000;0.2564;2.6031;
101.7000;0.2572;2.6081;
102.0000;0.2556;2.6031;
102.3000;0.2572;2.6081;
102.6000;0.2572;2.6081;
102.9000;0.2572;2.6031;
103.2000;0.2580;2.6056;
103.5000;0.2678;2.6281;
103.8000;0.2580;2.6031;
104.1000;0.2580;2.6031;
104.4000;0.2589;2.6031;
104.7000;0.2597;2.6031;
105.0000;0.2572;2.5956;
105.3000;0.2580;2.5956;
105.6000;0.2564;2.5881;
105.9000;0.2597;2.6081;
106.2000;0.2564;2.6031;
106.5000;0.2556;2.5881;
106.8000;0.2564;2.5981;
107.1000;0.2597;2.6056;
107.4000;0.2556;2.5931;
107.7000;0.2548;2.5856;
108.0000;0.2556;2.5856;
108.3000;0.2564;2.5906;
108.6000;0.2711;2.6407;
108.9000;0.2605;2.6106;
109.2000;0.2572;2.5956;
109.5000;0.2637;2.6156;
109.8000;0.2580;2.5906;
110.1000;0.2580;2.5906;
110.4000;0.2597;2.5906;
110.7000;0.2605;2.5881;
111.0000;0.2572;2.5806;
111.3000;0.2580;2.5706;
111.6000;0.2678;2.5931;
111.9000;0.2580;2.5731;
112.2000;0.2556;2.5581;
112.5000;0.2556;2.5530;
112.8000;0.2564;2.5581;
113.1000;0.2572;2.5656;
113.4000;0.2564;2.5756;
113.7000;0.2564;2.5731;
114.0000;0.2589;2.5781;
114.3000;0.2572;2.5781;
114.6000;0.2564;2.5756;
114.9000;0.2589;2.5806;
115.2000;0.2572;2.5831;
115.5000;0.2564;2.5781;
115.8000;0.2572;2.5856;
116.1000;0.2532;2.5756;
116.4000;0.2572;2.5781;
116.7000;0.2572;2.5731;
117.0000;0.2580;2.5731;
117.3000;0.2515;2.5606;
117.6000;0.2589;2.5856;
117.9000;0.2556;2.5806;
118.2000;0.2637;2.6081;
118.5000;0.2548;2.5956;
118.8000;0.2564;2.5931;
119.1000;0.2621;2.6056;
119.4000;0.2572;2.5856;
119.7000;0.2605;2.5931;
120.0000;0.2564;2.5881;
120.3000;0.2654;2.6081;
120.6000;0.2662;2.6006;
120.9000;0.2572;2.5706;
121.2000;0.2580;2.5731;
121.5000;0.2523;2.5681;
121.8000;0.2564;2.5856;
122.1000;0.2523;2.5731;
122.4000;0.2589;2.5931;
122.7000;0.2564;2.5906;
123.0000;0.2605;2.5806;
123.3000;0.2572;2.5656;
123.6000;0.2597;2.5606;
123.9000;0.2613;2.5731;
124.2000;0.2572;2.5706;
124.5000;0.2605;2.5781;
124.8000;0.2564;2.5731;
125.1000;0.2580;2.5756;
125.4000;0.2580;2.5806;
125.7000;0.2597;2.5831;
126.0000;0.2589;2.5906;
126.3000;0.2548;2.5781;
126.6000;0.2605;2.5881;
126.9000;0.2589;2.5756;
127.2000;0.2523;2.5581;
127.5000;0.2564;2.5806;
127.8000;0.2564;2.5806;
128.1000;0.2580;2.5856;
128.4000;0.2564;2.5806;
128.7000;0.2605;2.5906;
129.0000;0.2589;2.5831;
129.3000;0.2499;2.5455;
129.6000;0.2556;2.5606;
129.9000;0.2572;2.5706;
130.2000;0.2515;2.5606;
130.5000;0.2556;2.5781;
130.8000;0.2515;2.5631;
131.1000;0.2556;2.5756;
131.4000;0.2605;2.5831;
131.7000;0.2564;2.5731;
132.0000;0.2572;2.5631;
132.3000;0.2654;2.5831;
132.6000;0.2572;2.5581;
132.9000;0.2507;2.5480;
133.2000;0.2564;2.5556;
133.5000;0.2580;2.5606;
133.8000;0.2580;2.5530;
134.1000;0.2572;2.5530;
134.4000;0.2564;2.5455;
134.7000;0.2589;2.5505;
135.0000;0.2589;2.5480;
135.3000;0.2580;2.5556;
135.6000;0.2589;2.5656;
135.9000;0.2580;2.5631;
136.2000;0.2580;2.5631;
136.5000;0.2580;2.5706;
136.8000;0.2637;2.5881;
137.1000;0.2548;2.5581;
137.4000;0.2589;2.5656;
137.7000;0.2597;2.5656;
138.0000;0.2580;2.5681;
138.3000;0.2564;2.5706;
138.6000;0.2556;2.5756;
138.9000;0.2597;2.5781;
139.2000;0.2589;2.5756;
139.5000;0.2572;2.5706;
139.8000;0.2564;2.5581;
140.1000;0.2532;2.5480;
140.4000;0.2572;2.5606;
140.7000;0.2572;2.5706;
141.0000;0.2613;2.5781;
141.3000;0.2589;2.5656;
141.6000;0.2654;2.5906;
141.9000;0.2580;2.5756;
142.2000;0.2589;2.5756;
142.5000;0.2686;2.6031;
142.8000;0.2548;2.5681;
143.1000;0.2572;2.5756;
143.4000;0.2580;2.5781;
143.7000;0.2572;2.5856;
144.0000;0.2605;2.5956;
144.3000;0.2532;2.5981;
144.6000;0.2589;2.6181;
144.9000;0.2556;2.6081;
145.2000;0.2572;2.6081;
145.5000;0.2515;2.5906;
145.8000;0.2572;2.6006;
146.1000;0.2564;2.5906;
146.4000;0.2580;2.5881;
146.7000;0.2613;2.5956;
147.0000;0.2564;2.5831;
147.3000;0.2564;2.5906;
147.6000;0.2637;2.6181;
147.9000;0.2605;2.6106;
148.2000;0.2564;2.5931;
148.5000;0.2572;2.5906;
148.8000;0.2540;2.5681;
149.1000;0.2589;2.5881;
149.4000;0.2597;2.5831;
149.7000;0.2556;2.5781;
150.0000;0.2572;2.5806;
150.3000;0.2564;2.5931;
150.6000;0.2564;2.5906;
150.9000;0.2572;2.5981;
151.2000;0.2556;2.5931;
151.5000;0.2605;2.5981;
151.8000;0.2564;2.5856;
152.1000;0.2556;2.5856;
152.4000;0.2556;2.5881;
152.7000;0.2548;2.5781;
153.0000;0.2572;2.5806;
153.3000;0.2556;2.5856;
153.6000;0.2580;2.5856;
153.9000;0.2548;2.5781;
154.2000;0.2572;2.5906;
154.5000;0.2589;2.5981;
154.8000;0.2556;2.5806;
155.1000;0.2597;2.5981;
155.4000;0.2605;2.6081;
155.7000;0.2564;2.5931;
156.0000;0.2540;2.5856;
156.3000;0.2572;2.5906;
156.6000;0.2556;2.5831;
156.9000;0.2597;2.5881;
157.2000;0.2589;2.5906;
157.5000;0.2589;2.5881;
157.8000;0.2572;2.5756;
158.1000;0.2597;2.5906;
158.4000;0.2564;2.5831;
158.7000;0.2605;2.5931;
159.0000;0.2589;2.5931;
159.3000;0.2564;2.5856;
159.6000;0.2556;2.5856;
159.9000;0.2572;2.5781;
160.2000;0.2580;2.5831;
160.5000;0.2589;2.5856;
160.8000;0.2572;2.5806;
161.1000;0.2613;2.5956;
161.4000;0.2572;2.5881;
161.7000;0.2580;2.5856;
162.0000;0.2580;2.5831;
162.3000;0.2597;2.5856;
162.6000;0.2597;2.5881;
162.9000;0.2564;2.5856;
163.2000;0.2580;2.5881;
163.5000;0.2556;2.5806;
163.8000;0.2589;2.5881;
164.1000;0.2548;2.5831;
164.4000;0.2613;2.6106;
164.7000;0.2621;2.6081;
165.0000;0.2564;2.5856;
165.3000;0.2589;2.6056;
165.6000;0.2678;2.6356;
165.9000;0.2556;2.6056;
166.2000;0.2580;2.6206;
166.5000;0.2556;2.6131;
166.8000;0.2580;2.6206;
167.1000;0.2548;2.6106;
167.4000;0.2572;2.6056;
167.7000;0.2572;2.6081;
168.0000;0.2564;2.6081;
168.3000;0.2564;2.6056;
168.6000;0.2499;2.5906;
168.9000;0.2491;2.5956;
169.2000;0.2580;2.6231;
169.5000;0.2613;2.6231;
169.8000;0.2662;2.6331;
170.1000;0.2564;2.6106;
170.4000;0.2572;2.5956;
170.7000;0.2597;2.6006;
171.0000;0.2580;2.5981;
171.3000;0.2572;2.5956;
171.6000;0.2532;2.5731;
171.9000;0.2597;2.6031;
172.2000;0.2564;2.5981;
172.5000;0.2597;2.6031;
172.8000;0.2580;2.6031;
173.1000;0.2572;2.6031;
173.4000;0.2580;2.6031;
173.7000;0.2564;2.5956;
174.0000;0.2580;2.6106;
174.3000;0.2564;2.6106;
174.6000;0.2556;2.6156;
174.9000;0.2572;2.6181;
175.2000;0.2564;2.6181;
175.5000;0.2564;2.6281;
175.8000;0.2621;2.6482;
176.1000;0.2589;2.6407;
176.4000;0.2515;2.6056;
176.7000;0.2572;2.6206;
177.0000;0.2532;2.6156;
177.3000;0.2564;2.6131;
177.6000;0.2556;2.6056;
177.9000;0.2564;2.6106;
178.2000;0.2540;2.6056;
178.5000;0.2580;2.6106;
178.8000;0.2589;2.6131;
179.1000;0.2540;2.6031;
179.4000;0.2654;2.6331;
179.7000;0.2589;2.6156;
180.0000;0.2564;2.6056;
180.3000;0.2532;2.5906;
180.6000;0.2564;2.6006;
180.9000;0.2580;2.6156;
181.2000;0.2580;2.6256;
181.5000;0.2564;2.6231;
181.8000;0.2572;2.6206;
182.1000;0.2589;2.6281;
182.4000;0.2580;2.6331;
182.7000;0.2532;2.6231;
183.0000;0.2564;2.6281;
183.3000;0.2532;2.6156;
183.6000;0.2556;2.6231;
183.9000;0.2564;2.6231;
184.2000;0.2556;2.6206;
184.5000;0.2564;2.6231;
184.8000;0.2580;2.6206;
185.1000;0.2580;2.6106;
185.4000;0.2580;2.6106;
185.7000;0.2564;2.6106;
186.0000;0.2572;2.6231;
186.3000;0.2564;2.6131;
186.6000;0.2572;2.6131;
186.9000;0.2572;2.6056;
187.2000;0.2540;2.6031;
187.5000;0.2564;2.6081;
187.8000;0.2548;2.6006;
188.1000;0.2556;2.5956;
188.4000;0.2548;2.5881;
188.7000;0.2507;2.5756;
189.0000;0.2556;2.5881;
189.3000;0.2540;2.5831;
189.6000;0.2450;2.5631;
189.9000;0.2556;2.5856;
190.2000;0.2564;2.5906;
190.5000;0.2580;2.6006;
190.8000;0.2523;2.5931;
191.1000;0.2556;2.5981;
191.4000;0.2589;2.6081;
191.7000;0.2580;2.6056;
192.0000;0.2572;2.6031;
192.3000;0.2564;2.6006;
192.6000;0.2572;2.6056;
192.9000;0.2605;2.6056;
193.2000;0.2548;2.5856;
193.5000;0.2580;2.6006;
193.8000;0.2572;2.5881;
194.1000;0.2483;2.5631;
194.4000;0.2572;2.5956;
194.7000;0.2564;2.5956;
195.0000;0.2564;2.6006;
195.3000;0.2597;2.6056;
195.6000;0.2572;2.6056;
195.9000;0.2670;2.6281;
196.2000;0.2580;2.6056;
196.5000;0.2597;2.6031;
196.8000;0.2556;2.5931;
197.1000;0.2572;2.5931;
197.4000;0.2580;2.6006;
197.7000;0.2580;2.5981;
198.0000;0.2507;2.5856;
198.3000;0.2556;2.5931;
198.6000;0.2556;2.5931;
198.9000;0.2572;2.6031;
199.2000;0.2564;2.6081;
199.5000;0.2564;2.6131;
199.8000;0.2589;2.6231;
200.1000;0.2629;2.6381;
200.4000;0.2556;2.6156;
200.7000;0.2556;2.6181;
201.0000;0.2572;2.6156;
201.3000;0.2564;2.6181;
201.6000;0.2589;2.6181;
201.9000;0.2564;2.5981;
202.2000;0.2572;2.6031;
202.5000;0.2564;2.6056;
202.8000;0.2572;2.6056;
203.1000;0.2629;2.6231;
203.4000;0.2548;2.5981;
203.7000;0.2572;2.5981;
204.0000;0.2548;2.5831;
204.3000;0.2572;2.5856;
204.6000;0.2475;2.5530;
204.9000;0.2572;2.5881;
205.2000;0.2580;2.5931;
205.5000;0.2589;2.5981;
205.8000;0.2572;2.5931;
206.1000;0.2556;2.5956;
206.4000;0.2564;2.5906;
206.7000;0.2564;2.5831;
207.0000;0.2548;2.5806;
207.3000;0.2507;2.5656;
207.6000;0.2597;2.5856;
207.9000;0.2556;2.5856;
208.2000;0.2597;2.5931;
208.5000;0.2597;2.5956;
208.8000;0.2564;2.5956;
209.1000;0.2589;2.6006;
209.4000;0.2556;2.5981;
209.7000;0.2564;2.6006;
210.0000;0.2515;2.5931;
210.3000;0.2564;2.6006;
210.6000;0.2613;2.6156;
210.9000;0.2548;2.6006;
211.2000;0.2564;2.6056;
211.5000;0.2580;2.6106;
211.8000;0.2548;2.6056;
212.1000;0.2483;2.5906;
212.4000;0.2580;2.6131;
212.7000;0.2580;2.6131;
213.0000;0.2580;2.6006;
213.3000;0.2572;2.5956;
213.6000;0.2580;2.5956;
213.9000;0.2572;2.5931;
214.2000;0.2597;2.6031;
214.5000;0.2540;2.5856;
214.8000;0.2556;2.5831;
215.1000;0.2589;2.6056;
215.4000;0.2589;2.6131;
215.7000;0.2580;2.6056;
216.0000;0.2572;2.6106;
216.3000;0.2580;2.6131;
216.6000;0.2556;2.6056;
216.9000;0.2507;2.5956;
217.2000;0.2548;2.6131;
217.5000;0.2580;2.6381;
217.8000;0.2629;2.6532;
218.1000;0.2564;2.6306;
218.4000;0.2572;2.6206;
218.7000;0.2589;2.6106;
219.0000;0.2532;2.6056;
219.3000;0.2556;2.6206;
219.6000;0.2483;2.5956;
219.9000;0.2580;2.6231;
220.2000;0.2564;2.6081;
220.5000;0.2589;2.6131;
220.8000;0.2572;2.6006;
221.1000;0.2654;2.6281;
221.4000;0.2523;2.5931;
221.7000;0.2646;2.6331;
222.0000;0.2532;2.5981;
222.3000;0.2670;2.6407;
222.6000;0.2540;2.5981;
222.9000;0.2654;2.6306;
223.2000;0.2548;2.6006;
223.5000;0.2572;2.6006;
223.8000;0.2540;2.5856;
224.1000;0.2548;2.5856;
224.4000;0.2572;2.6006;
224.7000;0.2540;2.5856;
225.0000;0.2556;2.5831;
225.3000;0.2597;2.5856;
225.6000;0.2580;2.5856;
225.9000;0.2589;2.6031;
226.2000;0.2605;2.6056;
226.5000;0.2589;2.6081;
226.8000;0.2556;2.5956;
227.1000;0.2589;2.5956;
227.4000;0.2580;2.5906;
227.7000;0.2491;2.5656;
228.0000;0.2556;2.5831;
228.3000;0.2564;2.5781;
228.6000;0.2564;2.5731;
228.9000;0.2572;2.5806;
229.2000;0.2540;2.5856;
229.5000;0.2580;2.5981;
229.8000;0.2556;2.5931;
230.1000;0.2572;2.6106;
230.4000;0.2564;2.6181;
230.7000;0.2548;2.6081;
231.0000;0.2589;2.6156;
231.3000;0.2580;2.6106;
231.6000;0.2532;2.6106;
231.9000;0.2540;2.6031;
232.2000;0.2605;2.6131;
232.5000;0.2580;2.5981;
232.8000;0.2548;2.5856;
233.1000;0.2491;2.5706;
233.4000;0.2572;2.5931;
233.7000;0.2556;2.5831;
234.0000;0.2548;2.5781;
234.3000;0.2605;2.5906;
234.6000;0.2589;2.5856;
234.9000;0.2548;2.5806;
235.2000;0.2572;2.5781;
235.5000;0.2572;2.5756;
235.8000;0.2580;2.5731;
236.1000;0.2654;2.5931;
236.4000;0.2572;2.5831;
236.7000;0.2540;2.5756;
237.0000;0.2515;2.5631;
237.3000;0.2564;2.5806;
237.6000;0.2450;2.5505;
237.9000;0.2556;2.5831;
238.2000;0.2532;2.5681;
238.5000;0.2540;2.5781;
238.8000;0.2564;2.5831;
239.1000;0.2605;2.5856;
239.4000;0.2564;2.5756;
239.7000;0.2580;2.5881;
240.0000;0.2597;2.6031;
240.3000;0.2540;2.5756;
240.6000;0.2637;2.6031;
240.9000;0.2548;2.5656;
241.2000;0.2572;2.5781;
241.5000;0.2572;2.5831;
241.8000;0.2580;2.5831;
242.1000;0.2564;2.5831;
242.4000;0.2572;2.5856;
242.7000;0.2597;2.5806;
243.0000;0.2580;2.5781;
243.3000;0.2580;2.5781;
243.6000;0.2580;2.5731;
243.9000;0.2589;2.5806;
244.2000;0.2548;2.5656;
244.5000;0.2605;2.5881;
244.8000;0.2621;2.5906;
245.1000;0.2540;2.5806;
245.4000;0.2637;2.6131;
245.7000;0.2646;2.6131;
246.0000;0.2572;2.5956;
246.3000;0.2450;2.5556;
246.6000;0.2589;2.5906;
246.9000;0.2580;2.5981;
247.2000;0.2589;2.6056;
247.5000;0.2580;2.6031;
247.8000;0.2450;2.5656;
248.1000;0.2540;2.5856;
248.4000;0.2597;2.5831;
248.7000;0.2491;2.5480;
249.0000;0.2564;2.5756;
249.3000;0.2589;2.5856;
249.6000;0.2556;2.5856;
249.9000;0.2589;2.5981;
250.2000;0.2548;2.5856;
250.5000;0.2580;2.5956;
250.8000;0.2597;2.5956;
251.1000;0.2548;2.5781;
251.4000;0.2580;2.5931;
251.7000;0.2548;2.5931;
252.0000;0.2597;2.6056;
252.3000;0.2580;2.5981;
252.6000;0.2564;2.5881;
252.9000;0.2532;2.5831;
253.2000;0.2540;2.5881;
253.5000;0.2556;2.5831;
253.8000;0.2572;2.5831;
254.1000;0.2532;2.5681;
254.4000;0.2564;2.5681;
254.7000;0.2540;2.5631;
255.0000;0.2572;2.5731;
255.3000;0.2580;2.5856;
255.6000;0.2556;2.5731;
255.9000;0.2580;2.5856;
256.2000;0.2580;2.5906;
256.5000;0.2564;2.5806;
256.8000;0.2548;2.5731;
257.1000;0.2556;2.5756;
257.4000;0.2540;2.5706;
257.7000;0.2597;2.5881;
258.0000;0.2548;2.5806;
258.3000;0.2564;2.5956;
258.6000;0.2572;2.6056;
258.9000;0.2572;2.6006;
259.2000;0.2515;2.5906;
259.5000;0.2515;2.5856;
259.8000;0.2605;2.5981;
260.1000;0.2580;2.5906;
260.4000;0.2556;2.5881;
260.7000;0.2564;2.5906;
261.0000;0.2637;2.6081;
261.3000;0.2564;2.5906;
261.6000;0.2548;2.5806;
261.9000;0.2548;2.5781;
262.2000;0.2580;2.5881;
262.5000;0.2491;2.5681;
262.8000;0.2556;2.5906;
263.1000;0.2572;2.5906;
263.4000;0.2580;2.5906;
263.7000;0.2548;2.5881;
264.0000;0.2589;2.6106;
264.3000;0.2556;2.5981;
264.6000;0.2556;2.5956;
264.9000;0.2556;2.5931;
265.2000;0.2589;2.5881;
265.5000;0.2564;2.5706;
265.8000;0.2564;2.5856;
266.1000;0.2564;2.5781;
266.4000;0.2605;2.5981;
266.7000;0.2548;2.5931;
267.0000;0.2540;2.5881;
267.3000;0.2572;2.5981;
267.6000;0.2556;2.5956;
267.9000;0.2564;2.6056;
268.2000;0.2548;2.5906;
268.5000;0.2580;2.5906;
268.8000;0.2572;2.5856;
269.1000;0.2556;2.5806;
269.4000;0.2540;2.5731;
269.7000;0.2597;2.5956;
270.0000;0.2580;2.6006;
270.3000;0.2540;2.5931;
270.6000;0.2548;2.5906;
270.9000;0.2548;2.5831;
271.2000;0.2548;2.5931;
271.5000;0.2499;2.5756;
271.8000;0.2572;2.5906;
272.1000;0.2540;2.5731;
272.4000;0.2589;2.5881;
272.7000;0.2572;2.5831;
273.0000;0.2540;2.5681;
273.3000;0.2564;2.5656;
273.6000;0.2572;2.5731;
273.9000;0.2564;2.5706;
274.2000;0.2564;2.5706;
274.5000;0.2572;2.5831;
274.8000;0.2523;2.5781;
275.1000;0.2589;2.5856;
275.4000;0.2572;2.5806;
275.7000;0.2572;2.5831;
276.0000;0.2556;2.5806;
276.3000;0.2572;2.5806;
276.6000;0.2580;2.5856;
276.9000;0.2654;2.6131;
277.2000;0.2540;2.5906;
277.5000;0.2556;2.6056;
277.8000;0.2507;2.5806;
278.1000;0.2556;2.5806;
278.4000;0.2564;2.5881;
278.7000;0.2572;2.5956;
279.0000;0.2507;2.5906;
279.3000;0.2564;2.6081;
279.6000;0.2564;2.6006;
279.9000;0.2580;2.6031;
280.2000;0.2540;2.5956;
280.5000;0.2523;2.5881;
280.8000;0.2548;2.5981;
281.1000;0.2564;2.5906;
281.4000;0.2572;2.5956;
281.7000;0.2564;2.5881;
282.0000;0.2556;2.5906;
282.3000;0.2572;2.5956;
282.6000;0.2597;2.5956;
282.9000;0.2564;2.5931;
283.2000;0.2532;2.5856;
283.5000;0.2678;2.6381;
283.8000;0.2572;2.6006;
284.1000;0.2572;2.5931;
284.4000;0.2637;2.6181;
284.7000;0.2564;2.5956;
285.0000;0.2564;2.5981;
285.3000;0.2597;2.6056;
285.6000;0.2434;2.5606;
285.9000;0.2564;2.6006;
286.2000;0.2670;2.6356;
286.5000;0.2580;2.6056;
286.8000;0.2572;2.6081;
287.1000;0.2572;2.6106;
287.4000;0.2556;2.6081;
287.7000;0.2613;2.6131;
288.0000;0.2540;2.6031;
288.3000;0.2548;2.5981;
288.6000;0.2548;2.5856;
288.9000;0.2556;2.5956;
289.2000;0.2556;2.5931;
289.5000;0.2548;2.5931;
289.8000;0.2548;2.5956;
290.1000;0.2572;2.6106;
290.4000;0.2589;2.6131;
290.7000;0.2548;2.6106;
291.0000;0.2556;2.6156;
291.3000;0.2572;2.6206;
291.6000;0.2418;2.5756;
291.9000;0.2637;2.6381;
292.2000;0.2556;2.6056;
292.5000;0.2621;2.6131;
292.8000;0.2572;2.6081;
293.1000;0.2556;2.5981;
293.4000;0.2540;2.5806;
293.7000;0.2556;2.5881;
294.0000;0.2515;2.5606;
294.3000;0.2556;2.5731;
294.6000;0.2572;2.5881;
294.9000;0.2572;2.5831;
295.2000;0.2540;2.5881;
295.5000;0.2491;2.5731;
295.8000;0.2580;2.6031;
296.1000;0.2564;2.6056;
296.4000;0.2580;2.6156;
296.7000;0.2564;2.6056;
297.0000;0.2564;2.6056;
297.3000;0.2556;2.6056;
297.6000;0.2572;2.6081;
297.9000;0.2564;2.6031;
298.2000;0.2572;2.6106;
298.5000;0.2580;2.6056;
298.8000;0.2589;2.6081;
299.1000;0.2556;2.6056;
299.4000;0.2572;2.6131;
299.7000;0.2572;2.6081;
300.0000;0.2621;2.6206;
300.3000;0.2580;2.6056;
300.6000;0.2589;2.6131;
300.9000;0.2507;2.6031;
301.2000;0.2564;2.6081;
301.5000;0.2556;2.6106;
301.8000;0.2515;2.5956;
302.1000;0.2572;2.6106;
302.4000;0.2564;2.6006;
302.7000;0.2572;2.6081;
303.0000;0.2556;2.6031;
303.3000;0.2564;2.6031;
303.6000;0.2556;2.5906;
303.9000;0.2629;2.6156;
304.2000;0.2564;2.5906;
304.5000;0.2564;2.5881;
304.8000;0.2548;2.5956;
305.1000;0.2589;2.6131;
305.4000;0.2564;2.6156;
305.7000;0.2589;2.6231;
306.0000;0.2646;2.6231;
306.3000;0.2548;2.5956;
306.6000;0.2613;2.6031;
306.9000;0.2564;2.5856;
307.2000;0.2572;2.5806;
307.5000;0.2564;2.5756;
307.8000;0.2564;2.5731;
308.1000;0.2580;2.5756;
308.4000;0.2589;2.5806;
308.7000;0.2483;2.5581;
309.0000;0.2613;2.5881;
309.3000;0.2572;2.5756;
309.6000;0.2613;2.5881;
309.9000;0.2556;2.5731;
310.2000;0.2564;2.5831;
310.5000;0.2646;2.5981;
310.8000;0.2589;2.5806;
311.1000;0.2580;2.5906;
311.4000;0.2597;2.5981;
311.7000;0.2556;2.5881;
312.0000;0.2564;2.5981;
312.3000;0.2572;2.5881;
312.6000;0.2589;2.5956;
312.9000;0.2580;2.5981;
313.2000;0.2556;2.6031;
313.5000;0.2580;2.6181;
313.8000;0.2564;2.6056;
314.1000;0.2597;2.6056;
314.4000;0.2572;2.5981;
314.7000;0.2564;2.5956;
315.0000;0.2597;2.5956;
315.3000;0.2564;2.5931;
315.6000;0.2507;2.5881;
315.9000;0.2589;2.6056;
316.2000;0.2564;2.6081;
316.5000;0.2662;2.6281;
316.8000;0.2548;2.5931;
317.1000;0.2572;2.6131;
317.4000;0.2629;2.6231;
317.7000;0.2540;2.5956;
318.0000;0.2556;2.6006;
318.3000;0.2564;2.6081;
318.6000;0.2548;2.6031;
318.9000;0.2548;2.6056;
319.2000;0.2540;2.5956;
319.5000;0.2393;2.5480;
319.8000;0.2507;2.5806;
320.1000;0.2556;2.5956;
320.4000;0.2670;2.6181;
320.7000;0.2572;2.6031;
321.0000;0.2589;2.6156;
321.3000;0.2572;2.6131;
321.6000;0.2589;2.6131;
321.9000;0.2523;2.5956;
322.2000;0.2580;2.6131;
322.5000;0.2572;2.6081;
322.8000;0.2564;2.6106;
323.1000;0.2580;2.6106;
323.4000;0.2564;2.6031;
323.7000;0.2597;2.6131;
324.0000;0.2572;2.6106;
324.3000;0.2564;2.6006;
324.6000;0.2572;2.6081;
324.9000;0.2678;2.6457;
325.2000;0.2572;2.6156;
325.5000;0.2540;2.6081;
325.8000;0.2442;2.5856;
326.1000;0.2580;2.6081;
326.4000;0.2548;2.5981;
326.7000;0.2564;2.6006;
327.0000;0.2564;2.5906;
327.3000;0.2580;2.6031;
327.6000;0.2548;2.6006;
327.9000;0.2499;2.5806;
328.2000;0.2548;2.6006;
328.5000;0.2564;2.5931;
328.8000;0.2564;2.6006;
329.1000;0.2564;2.6056;
329.4000;0.2580;2.6081;
329.7000;0.2548;2.6106;
330.0000;0.2515;2.5956;
330.3000;0.2556;2.6006;
330.6000;0.2564;2.6081;
330.9000;0.2613;2.6256;
331.2000;0.2556;2.6081;
331.5000;0.2556;2.6131;
331.8000;0.2556;2.6106;
332.1000;0.2597;2.6181;
332.4000;0.2564;2.6081;
332.7000;0.2572;2.6106;
333.0000;0.2548;2.6056;
333.3000;0.2564;2.6156;
333.6000;0.2580;2.6081;
333.9000;0.2523;2.6006;
334.2000;0.2580;2.6106;
334.5000;0.2564;2.6056;
334.8000;0.2556;2.6031;
335.1000;0.2580;2.6131;
335.4000;0.2548;2.6081;
335.7000;0.2523;2.5931;
336.0000;0.2499;2.5806;
336.3000;0.2564;2.6081;
336.6000;0.2556;2.6006;
336.9000;0.2548;2.6056;
337.2000;0.2564;2.6156;
337.5000;0.2564;2.6206;
337.8000;0.2532;2.6106;
338.1000;0.2548;2.6131;
338.4000;0.2556;2.6156;
338.7000;0.2556;2.6156;
339.0000;0.2548;2.6106;
339.3000;0.2564;2.6181;
339.6000;0.2564;2.6256;
339.9000;0.2564;2.6256;
340.2000;0.2556;2.6106;
340.5000;0.2564;2.6031;
340.8000;0.2499;2.5831;
341.1000;0.2589;2.6006;
341.4000;0.2572;2.5931;
341.7000;0.2548;2.5806;
342.0000;0.2580;2.5881;
342.3000;0.2564;2.5831;
342.6000;0.2637;2.6056;
342.9000;0.2589;2.5881;
343.2000;0.2556;2.5756;
343.5000;0.2548;2.5806;
343.8000;0.2532;2.5856;
344.1000;0.2491;2.5781;
344.4000;0.2540;2.5856;
344.7000;0.2564;2.5806;
345.0000;0.2556;2.5856;
345.3000;0.2556;2.5831;
345.6000;0.2556;2.5831;
345.9000;0.2605;2.6006;
346.2000;0.2580;2.6006;
346.5000;0.2556;2.5931;
346.8000;0.2475;2.5631;
347.1000;0.2580;2.5906;
347.4000;0.2548;2.5881;
347.7000;0.2483;2.5556;
348.0000;0.2572;2.5781;
348.3000;0.2556;2.5806;
348.6000;0.2466;2.5556;
348.9000;0.2670;2.6131;
349.2000;0.2711;2.6206;
349.5000;0.2580;2.5881;
349.8000;0.2556;2.5831;
350.1000;0.2556;2.5781;
350.4000;0.2540;2.5681;
350.7000;0.2572;2.5781;
351.0000;0.2556;2.5756;
351.3000;0.2564;2.5806;
351.6000;0.2523;2.5731;
351.9000;0.2556;2.5756;
352.2000;0.2580;2.5806;
352.5000;0.2515;2.5606;
352.8000;0.2580;2.5831;
353.1000;0.2613;2.5906;
353.4000;0.2564;2.5831;
353.7000;0.2564;2.5856;
354.0000;0.2621;2.6106;
354.3000;0.2523;2.5856;
354.6000;0.2629;2.6156;
354.9000;0.2540;2.5981;
355.2000;0.2556;2.6081;
355.5000;0.2572;2.6131;
355.8000;0.2491;2.5881;
356.1000;0.2654;2.6306;
356.4000;0.2540;2.5981;
356.7000;0.2548;2.5906;
357.0000;0.2515;2.5831;
357.3000;0.2564;2.5906;
357.6000;0.2580;2.5956;
357.9000;0.2548;2.5856;
358.2000;0.2548;2.5906;
358.5000;0.2532;2.5831;
358.8000;0.2548;2.5981;
359.1000;0.2540;2.5981;
359.4000;0.2540;2.5931;
359.7000;0.2572;2.5981;
360.0000;0.2556;2.5956;
360.3000;0.2597;2.5981;
360.6000;0.2548;2.5906;
360.9000;0.2580;2.6056;
361.2000;0.2548;2.5956;
361.5000;0.2564;2.6056;
361.8000;0.2564;2.6031;
362.1000;0.2556;2.5981;
362.4000;0.2540;2.5856;
362.7000;0.2556;2.5881;
363.0000;0.2646;2.6156;
363.3000;0.2589;2.5981;
363.6000;0.2580;2.5931;
363.9000;0.2556;2.5856;
364.2000;0.2548;2.5981;
364.5000;0.2629;2.6306;
364.8000;0.2613;2.6106;
365.1000;0.2532;2.5881;
365.4000;0.2580;2.6056;
365.7000;0.2572;2.6106;
366.0000;0.2605;2.6056;
366.3000;0.2564;2.5906;
366.6000;0.2540;2.5881;
366.9000;0.2564;2.5956;
367.2000;0.2580;2.5981;
367.5000;0.2605;2.6006;
367.8000;0.2556;2.5806;
368.1000;0.2564;2.5906;
368.4000;0.2556;2.5881;
368.7000;0.2597;2.5906;
369.0000;0.2572;2.5906;
369.3000;0.2556;2.5956;
369.6000;0.2556;2.5931;
369.9000;0.2580;2.6006;
370.2000;0.2613;2.6181;
370.5000;0.2548;2.6056;
370.8000;0.2572;2.6156;
371.1000;0.2556;2.6006;
371.4000;0.2589;2.6006;
371.7000;0.2556;2.5906;
372.0000;0.2572;2.5956;
372.3000;0.2564;2.5856;
372.6000;0.2556;2.5806;
372.9000;0.2564;2.5856;
373.2000;0.2556;2.5806;
373.5000;0.2605;2.5931;
373.8000;0.2621;2.6106;
374.1000;0.2589;2.6056;
374.4000;0.2507;2.5831;
374.7000;0.2572;2.5981;
375.0000;0.2572;2.5931;
375.3000;0.2564;2.5881;
375.6000;0.2654;2.6181;
375.9000;0.2564;2.5956;
376.2000;0.2564;2.5906;
376.5000;0.2564;2.5856;
376.8000;0.2564;2.5881;
377.1000;0.2589;2.5981;
377.4000;0.2548;2.5931;
377.7000;0.2523;2.5906;
378.0000;0.2556;2.5906;
378.3000;0.2564;2.5856;
378.6000;0.2613;2.6031;
378.9000;0.2532;2.5931;
379.2000;0.2523;2.5881;
379.5000;0.2556;2.6031;
379.8000;0.2548;2.5931;
380.1000;0.2523;2.5906;
380.4000;0.2540;2.5856;
380.7000;0.2556;2.5756;
381.0000;0.2637;2.5981;
381.3000;0.2556;2.5731;
381.6000;0.2540;2.5731;
381.9000;0.2572;2.5806;
382.2000;0.2564;2.5831;
382.5000;0.2556;2.5806;
382.8000;0.2556;2.5881;
383.1000;0.2556;2.5856;
383.4000;0.2605;2.6031;
383.7000;0.2548;2.5881;
384.0000;0.2556;2.6056;
384.3000;0.2556;2.5981;
384.6000;0.2621;2.6181;
384.9000;0.2548;2.6006;
385.2000;0.2556;2.6056;
385.5000;0.2580;2.6156;
385.8000;0.2556;2.6056;
386.1000;0.2540;2.6131;
386.4000;0.2556;2.6081;
386.7000;0.2556;2.6131;
387.0000;0.2572;2.6131;
387.3000;0.2515;2.6081;
387.6000;0.2572;2.6181;
387.9000;0.2507;2.6056;
388.2000;0.2580;2.6181;
388.5000;0.2564;2.6231;
388.8000;0.2556;2.6206;
389.1000;0.2540;2.6156;
389.4000;0.2564;2.6181;
389.7000;0.2548;2.6056;
390.0000;0.2523;2.5956;
390.3000;0.2564;2.6056;
390.6000;0.2515;2.5906;
390.9000;0.2564;2.6031;
391.2000;0.2621;2.6031;
391.5000;0.2605;2.6081;
391.8000;0.2564;2.5981;
392.1000;0.2564;2.5931;
392.4000;0.2548;2.5881;
392.7000;0.2589;2.5956;
393.0000;0.2621;2.6056;
393.3000;0.2548;2.5931;
393.6000;0.2572;2.5906;
393.9000;0.2572;2.5881;
394.2000;0.2556;2.5906;
394.5000;0.2548;2.5881;
394.8000;0.2548;2.5931;
395.1000;0.2548;2.5931;
395.4000;0.2556;2.5906;
395.7000;0.2499;2.5806;
396.0000;0.2564;2.5906;
396.3000;0.2646;2.6131;
396.6000;0.2540;2.5831;
396.9000;0.2572;2.5906;
397.2000;0.2564;2.5806;
397.5000;0.2515;2.5581;
397.8000;0.2548;2.5656;
398.1000;0.2580;2.5806;
398.4000;0.2605;2.5956;
398.7000;0.2564;2.5856;
399.0000;0.2597;2.5856;
399.3000;0.2564;2.5856;
399.6000;0.2605;2.5956;
399.9000;0.2564;2.5956;
400.2000;0.2556;2.5981;
400.5000;0.2564;2.5931;
400.8000;0.2556;2.5906;
401.1000;0.2646;2.6131;
401.4000;0.2548;2.5906;
401.7000;0.2572;2.5931;
402.0000;0.2491;2.5681;
402.3000;0.2564;2.5856;
402.6000;0.2540;2.5731;
402.9000;0.2589;2.5831;
403.2000;0.2572;2.5756;
403.5000;0.2572;2.5806;
403.8000;0.2564;2.5681;
404.1000;0.2556;2.5731;
404.4000;0.2564;2.5706;
404.7000;0.2556;2.5681;
405.0000;0.2556;2.5530;
405.3000;0.2548;2.5455;
405.6000;0.2548;2.5430;
405.9000;0.2572;2.5556;
406.2000;0.2556;2.5581;
406.5000;0.2556;2.5556;
406.8000;0.2580;2.5606;
407.1000;0.2589;2.5606;
407.4000;0.2572;2.5681;
407.7000;0.2564;2.5681;
408.0000;0.2540;2.5656;
408.3000;0.2532;2.5656;
408.6000;0.2572;2.5706;
408.9000;0.2556;2.5731;
409.2000;0.2556;2.5806;
409.5000;0.2548;2.5806;
409.8000;0.2580;2.5806;
410.1000;0.2572;2.5731;
410.4000;0.2629;2.5931;
410.7000;0.2556;2.5806;
411.0000;0.2654;2.5981;
411.3000;0.2580;2.5781;
411.6000;0.2556;2.5731;
411.9000;0.2556;2.5731;
412.2000;0.2564;2.5806;
412.5000;0.2589;2.5856;
412.8000;0.2548;2.5881;
413.1000;0.2597;2.5906;
413.4000;0.2564;2.5806;
413.7000;0.2556;2.5806;
414.0000;0.2572;2.5931;
414.3000;0.2540;2.5981;
414.6000;0.2597;2.6106;
414.9000;0.2556;2.5856;
415.2000;0.2589;2.5931;
415.5000;0.2523;2.5806;
415.8000;0.2564;2.5806;
416.1000;0.2597;2.5981;
416.4000;0.2556;2.5931;
416.7000;0.2654;2.6181;
417.0000;0.2532;2.6006;
417.3000;0.2556;2.6081;
417.6000;0.2589;2.6206;
417.9000;0.2548;2.6181;
418.2000;0.2442;2.5806;
418.5000;0.2564;2.5981;
418.8000;0.2523;2.5906;
419.1000;0.2556;2.5956;
419.4000;0.2564;2.5906;
419.7000;0.2572;2.5956;
420.0000;0.2589;2.5981;
420.3000;0.2548;2.5856;
420.6000;0.2475;2.5606;
420.9000;0.2589;2.5931;
421.2000;0.2556;2.5856;
421.5000;0.2580;2.5981;
421.8000;0.2572;2.6056;
422.1000;0.2548;2.5981;
422.4000;0.2540;2.6031;
422.7000;0.2589;2.6106;
423.0000;0.2580;2.6081;
423.3000;0.2556;2.6031;
423.6000;0.2564;2.5981;
423.9000;0.2548;2.5881;
424.2000;0.2564;2.5856;
424.5000;0.2572;2.5931;
424.8000;0.2564;2.6031;
425.1000;0.2564;2.5981;
425.4000;0.2556;2.6006;
425.7000;0.2597;2.6056;
426.0000;0.2572;2.6106;
426.3000;0.2589;2.6081;
426.6000;0.2540;2.5956;
426.9000;0.2589;2.6006;
427.2000;0.2597;2.5981;
427.5000;0.2572;2.5956;
427.8000;0.2507;2.5831;
428.1000;0.2548;2.5856;
428.4000;0.2580;2.5831;
428.7000;0.2548;2.5831;
429.0000;0.2556;2.5881;
429.3000;0.2540;2.5906;
429.6000;0.2532;2.5831;
429.9000;0.2654;2.6181;
430.2000;0.2572;2.6031;
430.5000;0.2532;2.5956;
430.8000;0.2499;2.5831;
431.1000;0.2572;2.6031;
431.4000;0.2580;2.6006;
431.7000;0.2597;2.6006;
432.0000;0.2491;2.5631;
432.3000;0.2605;2.5956;
432.6000;0.2564;2.5881;
432.9000;0.2580;2.5881;
433.2000;0.2564;2.5856;
433.5000;0.2572;2.5906;
433.8000;0.2540;2.5881;
434.1000;0.2564;2.5881;
434.4000;0.2466;2.5706;
434.7000;0.2597;2.6081;
435.0000;0.2548;2.5956;
435.3000;0.2564;2.5931;
435.6000;0.2556;2.5831;
435.9000;0.2572;2.5856;
436.2000;0.2548;2.5906;
436.5000;0.2532;2.5881;
436.8000;0.2523;2.5706;
437.1000;0.2483;2.5430;
437.4000;0.2572;2.5831;
437.7000;0.2572;2.5906;
438.0000;0.2572;2.5906;
438.3000;0.2556;2.5956;
438.6000;0.2572;2.5981;
438.9000;0.2564;2.5931;
439.2000;0.2564;2.5831;
439.5000;0.2572;2.5806;
439.8000;0.2540;2.5681;
440.1000;0.2564;2.5731;
440.4000;0.2572;2.5756;
440.7000;0.2515;2.5606;
441.0000;0.2548;2.5756;
441.3000;0.2548;2.5781;
441.6000;0.2540;2.5781;
441.9000;0.2597;2.5956;
442.2000;0.2507;2.5681;
442.5000;0.2548;2.5831;
442.8000;0.2572;2.5806;
443.1000;0.2556;2.5756;
443.4000;0.2605;2.5981;
443.7000;0.2523;2.5806;
444.0000;0.2637;2.6106;
444.3000;0.2556;2.5881;
444.6000;0.2532;2.5731;
444.9000;0.2629;2.5931;
445.2000;0.2556;2.5831;
445.5000;0.2589;2.6006;
445.8000;0.2540;2.5856;
446.1000;0.2556;2.5931;
446.4000;0.2556;2.5881;
446.7000;0.2572;2.5931;
447.0000;0.2532;2.5831;
447.3000;0.2556;2.5956;
447.6000;0.2580;2.6081;
447.9000;0.2589;2.6106;
448.2000;0.2580;2.6031;
448.5000;0.2548;2.5906;
448.8000;0.2572;2.5931;
449.1000;0.2458;2.5656;
449.4000;0.2564;2.5881;
449.7000;0.2621;2.6056;
450.0000;0.2678;2.6181;
450.3000;0.2564;2.5856;
450.6000;0.2564;2.5831;
450.9000;0.2572;2.5831;
451.2000;0.2532;2.5681;
451.5000;0.2523;2.5706;
451.8000;0.2613;2.6006;
452.1000;0.2548;2.5856;
452.4000;0.2556;2.5856;
452.7000;0.2572;2.5981;
453.0000;0.2572;2.6106;
453.3000;0.2556;2.6156;
453.6000;0.2564;2.6156;
453.9000;0.2523;2.5981;
454.2000;0.2564;2.6181;
454.5000;0.2499;2.5931;
454.8000;0.2572;2.6156;
455.1000;0.2564;2.6131;
455.4000;0.2572;2.6106;
455.7000;0.2564;2.6106;
456.0000;0.2564;2.6006;
456.3000;0.2548;2.5956;
456.6000;0.2540;2.5881;
456.9000;0.2548;2.6006;
457.2000;0.2556;2.6106;
457.5000;0.2475;2.5781;
457.8000;0.2556;2.5981;
458.1000;0.2548;2.5831;
458.4000;0.2629;2.6006;
458.7000;0.2548;2.5631;
459.0000;0.2564;2.5681;
459.3000;0.2532;2.5656;
459.6000;0.2507;2.5656;
459.9000;0.2540;2.5781;
460.2000;0.2532;2.5906;
460.5000;0.2540;2.6006;
460.8000;0.2564;2.5956;
461.1000;0.2580;2.6081;
461.4000;0.2564;2.5981;
461.7000;0.2564;2.6031;
462.0000;0.2572;2.6056;
462.3000;0.2572;2.6131;
462.6000;0.2556;2.6031;
462.9000;0.2548;2.6006;
463.2000;0.2580;2.6131;
463.5000;0.2564;2.6181;
463.8000;0.2564;2.6156;
464.1000;0.2629;2.6281;
464.4000;0.2580;2.6031;
464.7000;0.2483;2.5706;
465.0000;0.2548;2.5881;
465.3000;0.2556;2.5981;
465.6000;0.2654;2.6206;
465.9000;0.2580;2.6031;
466.2000;0.2556;2.6006;
466.5000;0.2572;2.6106;
466.8000;0.2572;2.6031;
467.1000;0.2580;2.6081;
467.4000;0.2629;2.6281;
467.7000;0.2662;2.6331;
468.0000;0.2548;2.6031;
468.3000;0.2597;2.6156;
468.6000;0.2483;2.5956;
468.9000;0.2597;2.6281;
469.2000;0.2532;2.6056;
469.5000;0.2556;2.6106;
469.8000;0.2540;2.6081;
470.1000;0.2548;2.6031;
470.4000;0.2548;2.6031;
470.7000;0.2507;2.5881;
471.0000;0.2564;2.5981;
471.3000;0.2572;2.6081;
471.6000;0.2548;2.6056;
471.9000;0.2515;2.6006;
472.2000;0.2564;2.6056;
472.5000;0.2491;2.5906;
472.8000;0.2597;2.6156;
473.1000;0.2580;2.6181;
473.4000;0.2564;2.6081;
473.7000;0.2605;2.6281;
474.0000;0.2540;2.6056;
474.3000;0.2564;2.6106;
474.6000;0.2564;2.6106;
474.9000;0.2613;2.6156;
475.2000;0.2548;2.5981;
475.5000;0.2556;2.5981;
475.8000;0.2548;2.5931;
476.1000;0.2556;2.6031;
476.4000;0.2564;2.5931;
476.7000;0.2556;2.5856;
477.0000;0.2564;2.5931;
477.3000;0.2540;2.5856;
477.6000;0.2532;2.5906;
477.9000;0.2556;2.6056;
478.2000;0.2580;2.6206;
478.5000;0.2556;2.6181;
478.8000;0.2540;2.6106;
479.1000;0.2556;2.6081;
479.4000;0.2556;2.6031;
479.7000;0.2548;2.6131;
480.0000;0.2564;2.6256;
480.3000;0.2556;2.6331;
480.6000;0.2548;2.6432;
480.9000;0.2564;2.6482;
481.2000;0.2572;2.6582;
481.5000;0.2564;2.6582;
481.8000;0.2556;2.6532;
482.1000;0.2580;2.6507;
482.4000;0.2694;2.6757;
482.7000;0.2556;2.6356;
483.0000;0.2523;2.6231;
483.3000;0.2556;2.6356;
483.6000;0.2597;2.6381;
483.9000;0.2564;2.6256;
484.2000;0.2589;2.6331;
484.5000;0.2548;2.6256;
484.8000;0.2532;2.6256;
485.1000;0.2507;2.6031;
485.4000;0.2564;2.6256;
485.7000;0.2532;2.6181;
486.0000;0.2564;2.6281;
486.3000;0.2564;2.6281;
486.6000;0.2589;2.6306;
486.9000;0.2556;2.6231;
487.2000;0.2597;2.6407;
487.5000;0.2580;2.6331;
487.8000;0.2621;2.6381;
488.1000;0.2475;2.6056;
488.4000;0.2548;2.6256;
488.7000;0.2564;2.6156;
489.0000;0.2580;2.6181;
489.3000;0.2556;2.6231;
489.6000;0.2564;2.6356;
489.9000;0.2605;2.6256;
490.2000;0.2556;2.6156;
490.5000;0.2499;2.5906;
490.8000;0.2540;2.6056;
491.1000;0.2580;2.6306;
491.4000;0.2637;2.6532;
491.7000;0.2564;2.6181;
492.0000;0.2515;2.6006;
492.3000;0.2564;2.6131;
492.6000;0.2670;2.6507;
492.9000;0.2556;2.6131;
493.2000;0.2548;2.6031;
493.5000;0.2629;2.6281;
493.8000;0.2548;2.6181;
494.1000;0.2540;2.6256;
494.4000;0.2564;2.6356;
494.7000;0.2532;2.6381;
495.0000;0.2572;2.6482;
495.3000;0.2540;2.6356;
495.6000;0.2515;2.6156;
495.9000;0.2564;2.6281;
496.2000;0.2564;2.6256;
496.5000;0.2491;2.6081;
496.8000;0.2548;2.6206;
497.1000;0.2548;2.6156;
497.4000;0.2540;2.6081;
497.7000;0.2572;2.6181;
498.0000;0.2580;2.6356;
498.3000;0.2556;2.6331;
498.6000;0.2564;2.6281;
498.9000;0.2637;2.6407;
499.2000;0.2589;2.6181;
499.5000;0.2532;2.6081;
499.8000;0.2564;2.6206;
500.1000;0.2564;2.6256;
500.4000;0.2564;2.6306;
500.7000;0.2532;2.6206;
501.0000;0.2572;2.6231;
501.3000;0.2572;2.6181;
501.6000;0.2597;2.6206;
501.9000;0.2580;2.6281;
502.2000;0.2564;2.6256;
502.5000;0.2548;2.6306;
502.8000;0.2572;2.6432;
503.1000;0.2564;2.6356;
503.4000;0.2556;2.6331;
503.7000;0.2564;2.6381;
504.0000;0.2605;2.6507;
504.3000;0.2556;2.6381;
504.6000;0.2564;2.6457;
504.9000;0.2556;2.6407;
505.2000;0.2580;2.6407;
505.5000;0.2540;2.6256;
505.8000;0.2572;2.6331;
506.1000;0.2548;2.6306;
506.4000;0.2589;2.6381;
506.7000;0.2483;2.6106;
507.0000;0.2605;2.6407;
507.3000;0.2548;2.6231;
507.6000;0.2556;2.6206;
507.9000;0.2572;2.6256;
508.2000;0.2564;2.6206;
508.5000;0.2548;2.6181;
508.8000;0.2580;2.6106;
509.1000;0.2556;2.5981;
509.4000;0.2564;2.6081;
509.7000;0.2589;2.6156;
510.0000;0.2621;2.6256;
510.3000;0.2580;2.6131;
510.6000;0.2597;2.6206;
510.9000;0.2589;2.6206;
511.2000;0.2572;2.6181;
511.5000;0.2548;2.6206;
511.8000;0.2564;2.6231;
512.1000;0.2613;2.6381;
512.4000;0.2556;2.6206;
512.7000;0.2564;2.6206;
513.0000;0.2507;2.6006;
513.3000;0.2556;2.6106;
513.6000;0.2523;2.5981;
513.9000;0.2629;2.6356;
514.2000;0.2580;2.6181;
514.5000;0.2613;2.6381;
514.8000;0.2523;2.6131;
515.1000;0.2532;2.6156;
515.4000;0.2572;2.6231;
515.7000;0.2556;2.6156;
516.0000;0.2621;2.6407;
516.3000;0.2556;2.6131;
516.6000;0.2556;2.6181;
516.9000;0.2556;2.6081;
517.2000;0.2540;2.6056;
517.5000;0.2556;2.6006;
517.8000;0.2572;2.6006;
518.1000;0.2556;2.5981;
518.4000;0.2556;2.6031;
518.7000;0.2572;2.6056;
519.0000;0.2548;2.6006;
519.3000;0.2556;2.5956;
519.6000;0.2564;2.5931;
519.9000;0.2507;2.5806;
520.2000;0.2548;2.5856;
520.5000;0.2572;2.5881;
520.8000;0.2556;2.5906;
521.1000;0.2556;2.5931;
521.4000;0.2556;2.5906;
521.7000;0.2564;2.5881;
522.0000;0.2540;2.5881;
522.3000;0.2572;2.6056;
522.6000;0.2548;2.6031;
522.9000;0.2532;2.6031;
523.2000;0.2564;2.6131;
523.5000;0.2532;2.6056;
523.8000;0.2580;2.6231;
524.1000;0.2556;2.6156;
524.4000;0.2564;2.6056;
524.7000;0.2523;2.5881;
525.0000;0.2540;2.6006;
525.3000;0.2499;2.5906;
525.6000;0.2556;2.6056;
525.9000;0.2564;2.6156;
526.2000;0.2556;2.6206;
526.5000;0.2597;2.6256;
526.8000;0.2597;2.6206;
527.1000;0.2589;2.6131;
527.4000;0.2572;2.6056;
527.7000;0.2572;2.6081;
528.0000;0.2540;2.5956;
528.3000;0.2532;2.5881;
528.6000;0.2605;2.6081;
528.9000;0.2572;2.5956;
529.2000;0.2548;2.5831;
529.5000;0.2556;2.5856;
529.8000;0.2572;2.5931;
530.1000;0.2572;2.5981;
530.4000;0.2548;2.6006;
530.7000;0.2580;2.6131;
531.0000;0.2548;2.6081;
531.3000;0.2564;2.6131;
531.6000;0.2564;2.6131;
531.9000;0.2572;2.6131;
532.2000;0.2670;2.6356;
532.5000;0.2589;2.6081;
532.8000;0.2572;2.6031;
533.1000;0.2580;2.6081;
533.4000;0.2580;2.6031;
533.7000;0.2613;2.6156;
534.0000;0.2532;2.5906;
534.3000;0.2702;2.6331;
534.6000;0.2564;2.6006;
534.9000;0.2548;2.6006;
535.2000;0.2515;2.5956;
535.5000;0.2548;2.6056;
535.8000;0.2572;2.6206;
536.1000;0.2507;2.6056;
536.4000;0.2556;2.6131;
536.7000;0.2548;2.6181;
537.0000;0.2589;2.6356;
537.3000;0.2540;2.6206;
537.6000;0.2483;2.6106;
537.9000;0.2613;2.6407;
538.2000;0.2556;2.6231;
538.5000;0.2556;2.6256;
538.8000;0.2532;2.6156;
539.1000;0.2564;2.6256;
539.4000;0.2572;2.6181;
539.7000;0.2589;2.6156;
540.0000;0.2499;2.5931;
540.3000;0.2540;2.5981;
540.6000;0.2548;2.5956;
540.9000;0.2548;2.5981;
541.2000;0.2556;2.6056;
541.5000;0.2556;2.6106;
541.8000;0.2556;2.6131;
542.1000;0.2556;2.6156;
542.4000;0.2540;2.6131;
542.7000;0.2556;2.6256;
543.0000;0.2564;2.6306;
543.3000;0.2580;2.6381;
543.6000;0.2556;2.6256;
543.9000;0.2556;2.6231;
544.2000;0.2613;2.6457;
544.5000;0.2572;2.6331;
544.8000;0.2637;2.6507;
545.1000;0.2523;2.6231;
545.4000;0.2572;2.6407;
545.7000;0.2548;2.6356;
546.0000;0.2572;2.6306;
546.3000;0.2589;2.6331;
546.6000;0.2548;2.6256;
546.9000;0.2556;2.6206;
547.2000;0.2580;2.6206;
547.5000;0.2564;2.6181;
547.8000;0.2540;2.6081;
548.1000;0.2556;2.6181;
548.4000;0.2507;2.6081;
548.7000;0.2589;2.6306;
549.0000;0.2548;2.6306;
549.3000;0.2589;2.6407;
549.6000;0.2548;2.6306;
549.9000;0.2548;2.6306;
550.2000;0.2556;2.6281;
550.5000;0.2540;2.6306;
550.8000;0.2491;2.5981;
551.1000;0.2564;2.6081;
551.4000;0.2523;2.5931;
551.7000;0.2540;2.5981;
552.0000;0.2556;2.6031;
552.3000;0.2483;2.5831;
552.6000;0.2515;2.5956;
552.9000;0.2540;2.6031;
553.2000;0.2556;2.6056;
553.5000;0.2556;2.6031;
553.8000;0.2597;2.6131;
554.1000;0.2564;2.6031;
554.4000;0.2532;2.6006;
554.7000;0.2540;2.6181;
555.0000;0.2540;2.6256;
555.3000;0.2532;2.6206;
555.6000;0.2572;2.6231;
555.9000;0.2564;2.6281;
556.2000;0.2548;2.6256;
556.5000;0.2572;2.6306;
556.8000;0.2556;2.6331;
557.1000;0.2556;2.6181;
557.4000;0.2548;2.6356;
557.7000;0.2556;2.6407;
558.0000;0.2540;2.6306;
558.3000;0.2532;2.6206;
558.6000;0.2556;2.6256;
558.9000;0.2564;2.6331;
559.2000;0.2556;2.6432;
559.5000;0.2580;2.6507;
559.8000;0.2572;2.6457;
560.1000;0.2523;2.6156;
560.4000;0.2605;2.6331;
560.7000;0.2621;2.6281;
561.0000;0.2597;2.6156;
561.3000;0.2548;2.6056;
561.6000;0.2572;2.6081;
561.9000;0.2523;2.5931;
562.2000;0.2564;2.6156;
562.5000;0.2540;2.6031;
562.8000;0.2589;2.6281;
563.1000;0.2589;2.6306;
563.4000;0.2548;2.6156;
563.7000;0.2556;2.6256;
564.0000;0.2556;2.6231;
564.3000;0.2548;2.6231;
564.6000;0.2589;2.6457;
564.9000;0.2483;2.6156;
565.2000;0.2483;2.6156;
565.5000;0.2613;2.6482;
565.8000;0.2556;2.6331;
566.1000;0.2491;2.6206;
566.4000;0.2556;2.6306;
566.7000;0.2466;2.5981;
567.0000;0.2589;2.6281;
567.3000;0.2548;2.6081;
567.6000;0.2483;2.5906;
567.9000;0.2499;2.5956;
568.2000;0.2613;2.6331;
568.5000;0.2572;2.6256;
568.8000;0.2556;2.6256;
569.1000;0.2605;2.6331;
569.4000;0.2580;2.6231;
569.7000;0.2548;2.6056;
570.0000;0.2556;2.6156;
570.3000;0.2564;2.6231;
570.6000;0.2540;2.6206;
570.9000;0.2605;2.6432;
571.2000;0.2564;2.6331;
571.5000;0.2491;2.6031;
571.8000;0.2523;2.6181;
572.1000;0.2572;2.6281;
572.4000;0.2556;2.6231;
572.7000;0.2613;2.6381;
573.0000;0.2556;2.6231;
573.3000;0.2532;2.6206;
573.6000;0.2540;2.6206;
573.9000;0.2597;2.6156;
574.2000;0.2556;2.6006;
574.5000;0.2556;2.6056;
574.8000;0.2580;2.6206;
575.1000;0.2548;2.6156;
575.4000;0.2580;2.6281;
575.7000;0.2556;2.6256;
576.0000;0.2548;2.6231;
576.3000;0.2556;2.6256;
576.6000;0.2548;2.6281;
576.9000;0.2515;2.6206;
577.2000;0.2507;2.6156;
577.5000;0.2540;2.6256;
577.8000;0.2540;2.6156;
578.1000;0.2564;2.6231;
578.4000;0.2556;2.6281;
578.7000;0.2540;2.6281;
579.0000;0.2556;2.6381;
579.3000;0.2548;2.6231;
579.6000;0.2589;2.6381;
579.9000;0.2523;2.6181;
580.2000;0.2605;2.6381;
580.5000;0.2532;2.6231;
580.8000;0.2548;2.6231;
581.1000;0.2418;2.5956;
581.4000;0.2564;2.6281;
581.7000;0.2564;2.6281;
582.0000;0.2556;2.6181;
582.3000;0.2564;2.6231;
582.6000;0.2564;2.6206;
582.9000;0.2556;2.6131;
583.2000;0.2556;2.6081;
583.5000;0.2556;2.6206;
583.8000;0.2540;2.6231;
584.1000;0.2491;2.6056;
584.4000;0.2589;2.6482;
584.7000;0.2515;2.6281;
585.0000;0.2564;2.6356;
585.3000;0.2580;2.6356;
585.6000;0.2637;2.6457;
585.9000;0.2556;2.6256;
586.2000;0.2564;2.6231;
586.5000;0.2532;2.6106;
586.8000;0.2580;2.6181;
587.1000;0.2507;2.5981;
587.4000;0.2556;2.6106;
587.7000;0.2540;2.6106;
588.0000;0.2629;2.6281;
588.3000;0.2564;2.5981;
588.6000;0.2597;2.6131;
588.9000;0.2523;2.5956;
589.2000;0.2605;2.6206;
589.5000;0.2605;2.6156;
589.8000;0.2540;2.5931;
590.1000;0.2523;2.5806;
590.4000;0.2548;2.5931;
590.7000;0.2613;2.6106;
591.0000;0.2613;2.6131;
591.3000;0.2556;2.5956;
591.6000;0.2515;2.5806;
591.9000;0.2523;2.5906;
592.2000;0.2580;2.6006;
592.5000;0.2556;2.5981;
592.8000;0.2540;2.5881;
593.1000;0.2605;2.6081;
593.4000;0.2556;2.5881;
593.7000;0.2548;2.5856;
594.0000;0.2540;2.5856;
594.3000;0.2556;2.5981;
594.6000;0.2564;2.6056;
594.9000;0.2540;2.6056;
595.2000;0.2564;2.6006;
595.5000;0.2548;2.6006;
595.8000;0.2556;2.6031;
596.1000;0.2564;2.6106;
596.4000;0.2532;2.6106;
596.7000;0.2556;2.6106;
597.0000;0.2548;2.6006;
597.3000;0.2556;2.6081;
597.6000;0.2556;2.6056;
597.9000;0.2572;2.6081;
598.2000;0.2589;2.6181;
598.5000;0.2523;2.6006;
598.8000;0.2564;2.6006;
599.1000;0.2589;2.6106;
599.4000;0.2572;2.6081;
599.7000;0.2621;2.6256;
600.0000;0.2523;2.6031;
600.3000;0.2540;2.5956;
600.6000;0.2548;2.5806;
600.9000;0.2621;2.5906;
601.2000;0.2556;2.5556;
601.5000;0.2548;2.5455;
601.8000;0.2491;2.5155;
602.1000;0.2540;2.5180;
602.4000;0.2540;2.5080;
602.7000;0.2491;2.4755;
603.0000;0.2409;2.4354;
603.3000;0.2523;2.4629;
603.6000;0.2523;2.4529;
603.9000;0.2572;2.4579;
604.2000;0.2540;2.4329;
604.5000;0.2507;2.4254;
604.8000;0.2523;2.4254;
605.1000;0.2540;2.4304;
605.4000;0.2499;2.4179;
605.7000;0.2499;2.4179;
606.0000;0.2483;2.4154;
606.3000;0.2523;2.4204;
606.6000;0.2475;2.4004;
606.9000;0.2475;2.3979;
607.2000;0.2483;2.3904;
607.5000;0.2507;2.3954;
607.8000;0.2458;2.3778;
608.1000;0.2426;2.3653;
608.4000;0.2499;2.3879;
608.7000;0.2499;2.3753;
609.0000;0.2580;2.3929;
609.3000;0.2507;2.3728;
609.6000;0.2475;2.3728;
609.9000;0.2475;2.3803;
610.2000;0.2450;2.3653;
610.5000;0.2483;2.3778;
610.8000;0.2458;2.3778;
611.1000;0.2475;2.3778;
611.4000;0.2450;2.3803;
611.7000;0.2458;2.3828;
612.0000;0.2466;2.3853;
612.3000;0.2483;2.3879;
612.6000;0.2483;2.3703;
612.9000;0.2475;2.3703;
613.2000;0.2491;2.3778;
613.5000;0.2475;2.3753;
613.8000;0.2499;2.3828;
614.1000;0.2458;2.3703;
614.4000;0.2458;2.3678;
614.7000;0.2491;2.3728;
615.0000;0.2475;2.3728;
615.3000;0.2466;2.3803;
615.6000;0.2491;2.3929;
615.9000;0.2450;2.3778;
616.2000;0.2466;2.3803;
616.5000;0.2475;2.3853;
616.8000;0.2336;2.3503;
617.1000;0.2442;2.3753;
617.4000;0.2483;2.3778;
617.7000;0.2434;2.3628;
618.0000;0.2466;2.3703;
618.3000;0.2515;2.3853;
618.6000;0.2491;2.3778;
618.9000;0.2466;2.3703;
619.2000;0.2491;2.3678;
619.5000;0.2507;2.3803;
619.8000;0.2483;2.3778;
620.1000;0.2491;2.3728;
620.4000;0.2515;2.3778;
620.7000;0.2507;2.3828;
621.0000;0.2442;2.3678;
621.3000;0.2458;2.3703;
621.6000;0.2475;2.3703;
621.9000;0.2426;2.3553;
622.2000;0.2499;2.3753;
622.5000;0.2418;2.3553;
622.8000;0.2491;2.3653;
623.1000;0.2499;2.3603;
623.4000;0.2515;2.3628;
623.7000;0.2483;2.3603;
624.0000;0.2483;2.3653;
624.3000;0.2483;2.3678;
624.6000;0.2450;2.3678;
624.9000;0.2450;2.3753;
625.2000;0.2426;2.3828;
625.5000;0.2442;2.3853;
625.8000;0.2483;2.3879;
626.1000;0.2540;2.4079;
626.4000;0.2450;2.3753;
626.7000;0.2499;2.3828;
627.0000;0.2532;2.3879;
627.3000;0.2483;2.3678;
627.6000;0.2475;2.3553;
627.9000;0.2442;2.3403;
628.2000;0.2564;2.3778;
628.5000;0.2499;2.3603;
628.8000;0.2458;2.3478;
629.1000;0.2409;2.3453;
629.4000;0.2491;2.3653;
629.7000;0.2483;2.3578;
630.0000;0.2450;2.3503;
630.3000;0.2442;2.3553;
630.6000;0.2458;2.3678;
630.9000;0.2466;2.3678;
631.2000;0.2466;2.3653;
631.5000;0.2458;2.3703;
631.8000;0.2458;2.3703;
632.1000;0.2483;2.3753;
632.4000;0.2401;2.3528;
632.7000;0.2466;2.3628;
633.0000;0.2450;2.3653;
633.3000;0.2483;2.3728;
633.6000;0.2409;2.3478;
633.9000;0.2483;2.3578;
634.2000;0.2450;2.3528;
634.5000;0.2475;2.3503;
634.8000;0.2483;2.3553;
635.1000;0.2483;2.3528;
635.4000;0.2434;2.3478;
635.7000;0.2442;2.3378;
636.0000;0.2475;2.3403;
636.3000;0.2466;2.3378;
636.6000;0.2466;2.3278;
636.9000;0.2434;2.3128;
637.2000;0.2475;2.3203;
637.5000;0.2475;2.3278;
637.8000;0.2466;2.3253;
638.1000;0.2475;2.3403;
638.4000;0.2491;2.3453;
638.7000;0.2483;2.3403;
639.0000;0.2483;2.3428;
639.3000;0.2442;2.3253;
639.6000;0.2434;2.3303;
639.9000;0.2409;2.3153;
640.2000;0.2475;2.3253;
640.5000;0.2466;2.3278;
640.8000;0.2458;2.3178;
641.1000;0.2458;2.3353;
641.4000;0.2458;2.3378;
641.7000;0.2475;2.3553;
642.0000;0.2450;2.3478;
642.3000;0.2491;2.3628;
642.6000;0.2483;2.3578;
642.9000;0.2475;2.3503;
643.2000;0.2450;2.3478;
643.5000;0.2458;2.3478;
643.8000;0.2507;2.3653;
644.1000;0.2450;2.3528;
644.4000;0.2426;2.3378;
644.7000;0.2434;2.3478;
645.0000;0.2466;2.3403;
645.3000;0.2589;2.3678;
645.6000;0.2458;2.3328;
645.9000;0.2507;2.3478;
646.2000;0.2475;2.3428;
646.5000;0.2466;2.3453;
646.8000;0.2491;2.3503;
647.1000;0.2434;2.3403;
647.4000;0.2450;2.3428;
647.7000;0.2475;2.3528;
648.0000;0.2458;2.3478;
648.3000;0.2442;2.3378;
648.6000;0.2491;2.3503;
648.9000;0.2466;2.3403;
649.2000;0.2458;2.3353;
649.5000;0.2450;2.3253;
649.8000;0.2466;2.3303;
650.1000;0.2507;2.3528;
650.4000;0.2475;2.3453;
650.7000;0.2458;2.3403;
651.0000;0.2475;2.3453;
651.3000;0.2475;2.3503;
651.6000;0.2532;2.3678;
651.9000;0.2466;2.3478;
652.2000;0.2499;2.3628;
652.5000;0.2466;2.3653;
652.8000;0.2548;2.3853;
653.1000;0.2426;2.3503;
653.4000;0.2491;2.3628;
653.7000;0.2458;2.3453;
654.0000;0.2475;2.3553;
654.3000;0.2442;2.3528;
654.6000;0.2466;2.3478;
654.9000;0.2499;2.3553;
655.2000;0.2483;2.3453;
655.5000;0.2450;2.3378;
655.8000;0.2458;2.3328;
656.1000;0.2458;2.3403;
656.4000;0.2475;2.3553;
656.7000;0.2361;2.3178;
657.0000;0.2483;2.3503;
657.3000;0.2475;2.3428;
657.6000;0.2491;2.3478;
657.9000;0.2442;2.3303;
658.2000;0.2475;2.3428;
658.5000;0.2483;2.3453;
658.8000;0.2475;2.3553;
659.1000;0.2491;2.3653;
659.4000;0.2491;2.3528;
659.7000;0.2466;2.3503;
660.0000;0.2466;2.3528;
660.3000;0.2458;2.3553;
660.6000;0.2507;2.3678;
660.9000;0.2418;2.3328;
661.2000;0.2475;2.3478;
661.5000;0.2483;2.3403;
661.8000;0.2450;2.3253;
662.1000;0.2450;2.3303;
662.4000;0.2475;2.3353;
662.7000;0.2475;2.3403;
663.0000;0.2450;2.3503;
663.3000;0.2450;2.3478;
663.6000;0.2458;2.3528;
663.9000;0.2532;2.3703;
664.2000;0.2483;2.3653;
664.5000;0.2491;2.3778;
664.8000;0.2475;2.3703;
665.1000;0.2491;2.3703;
665.4000;0.2466;2.3678;
665.7000;0.2491;2.3678;
666.0000;0.2466;2.3603;
666.3000;0.2475;2.3653;
666.6000;0.2499;2.3728;
666.9000;0.2540;2.3853;
667.2000;0.2458;2.3528;
667.5000;0.2434;2.3478;
667.8000;0.2475;2.3628;
668.1000;0.2475;2.3628;
668.4000;0.2475;2.3603;
668.7000;0.2629;2.4029;
669.0000;0.2466;2.3578;
669.3000;0.2458;2.3653;
669.6000;0.2483;2.3653;
669.9000;0.2466;2.3653;
670.2000;0.2483;2.3678;
670.5000;0.2450;2.3603;
670.8000;0.2458;2.3628;
671.1000;0.2450;2.3528;
671.4000;0.2483;2.3578;
671.7000;0.2475;2.3678;
672.0000;0.2466;2.3728;
672.3000;0.2466;2.3603;
672.6000;0.2466;2.3653;
672.9000;0.2499;2.3753;
673.2000;0.2483;2.3803;
673.5000;0.2483;2.3678;
673.8000;0.2466;2.3603;
674.1000;0.2491;2.3603;
674.4000;0.2475;2.3603;
674.7000;0.2499;2.3728;
675.0000;0.2475;2.3603;
675.3000;0.2401;2.3428;
675.6000;0.2483;2.3678;
675.9000;0.2475;2.3778;
676.2000;0.2466;2.3653;
676.5000;0.2458;2.3528;
676.8000;0.2344;2.3203;
677.1000;0.2483;2.3403;
677.4000;0.2409;2.3203;
677.7000;0.2499;2.3403;
678.0000;0.2475;2.3353;
678.3000;0.2491;2.3453;
678.6000;0.2532;2.3503;
678.9000;0.2450;2.3328;
679.2000;0.2466;2.3328;
679.5000;0.2483;2.3428;
679.8000;0.2458;2.3403;
680.1000;0.2532;2.3553;
680.4000;0.2532;2.3628;
680.7000;0.2401;2.3228;
681.0000;0.2466;2.3303;
681.3000;0.2442;2.3353;
681.6000;0.2458;2.3378;
681.9000;0.2475;2.3328;
682.2000;0.2458;2.3328;
682.5000;0.2499;2.3478;
682.8000;0.2475;2.3478;
683.1000;0.2458;2.3528;
683.4000;0.2540;2.3778;
683.7000;0.2491;2.3678;
684.0000;0.2556;2.3753;
684.3000;0.2507;2.3678;
684.6000;0.2450;2.3578;
684.9000;0.2466;2.3653;
685.2000;0.2475;2.3603;
685.5000;0.2466;2.3553;
685.8000;0.2458;2.3528;
686.1000;0.2458;2.3403;
686.4000;0.2466;2.3503;
686.7000;0.2491;2.3503;
687.0000;0.2475;2.3528;
687.3000;0.2466;2.3478;
687.6000;0.2466;2.3553;
687.9000;0.2475;2.3578;
688.2000;0.2458;2.3553;
688.5000;0.2483;2.3553;
688.8000;0.2475;2.3528;
689.1000;0.2483;2.3528;
689.4000;0.2483;2.3478;
689.7000;0.2491;2.3403;
690.0000;0.2483;2.3453;
690.3000;0.2426;2.3303;
690.6000;0.2458;2.3453;
690.9000;0.2540;2.3628;
691.2000;0.2466;2.3503;
691.5000;0.2401;2.3453;
691.8000;0.2483;2.3678;
692.1000;0.2450;2.3653;
692.4000;0.2458;2.3678;
692.7000;0.2491;2.3753;
693.0000;0.2515;2.3628;
693.3000;0.2483;2.3503;
693.6000;0.2475;2.3478;
693.9000;0.2401;2.3278;
694.2000;0.2515;2.3428;
694.5000;0.2507;2.3453;
694.8000;0.2475;2.3353;
695.1000;0.2450;2.3278;
695.4000;0.2507;2.3378;
695.7000;0.2572;2.3678;
696.0000;0.2491;2.3428;
696.3000;0.2418;2.3303;
696.6000;0.2475;2.3503;
696.9000;0.2483;2.3703;
697.2000;0.2564;2.3803;
697.5000;0.2475;2.3553;
697.8000;0.2475;2.3528;
698.1000;0.2540;2.3653;
698.4000;0.2475;2.3478;
698.7000;0.2475;2.3453;
699.0000;0.2540;2.3603;
699.3000;0.2491;2.3553;
699.6000;0.2540;2.3728;
699.9000;0.2540;2.3778;
700.2000;0.2466;2.3603;
700.5000;0.2483;2.3653;
700.8000;0.2475;2.3603;
701.1000;0.2450;2.3578;
701.4000;0.2483;2.3628;
701.7000;0.2475;2.3628;
702.0000;0.2475;2.3653;
702.3000;0.2491;2.3653;
702.6000;0.2328;2.3353;
702.9000;0.2466;2.3728;
703.2000;0.2483;2.3678;
703.5000;0.2466;2.3653;
703.8000;0.2475;2.3603;
704.1000;0.2475;2.3678;
704.4000;0.2393;2.3403;
704.7000;0.2483;2.3678;
705.0000;0.2466;2.3753;
705.3000;0.2483;2.3753;
705.6000;0.2475;2.3778;
705.9000;0.2532;2.3778;
706.2000;0.2475;2.3628;
706.5000;0.2442;2.3478;
706.8000;0.2475;2.3578;
707.1000;0.2491;2.3678;
707.4000;0.2466;2.3578;
707.7000;0.2475;2.3553;
708.0000;0.2466;2.3553;
708.3000;0.2434;2.3428;
708.6000;0.2475;2.3603;
708.9000;0.2483;2.3653;
709.2000;0.2466;2.3628;
709.5000;0.2499;2.3753;
709.8000;0.2483;2.3703;
710.1000;0.2475;2.3653;
710.4000;0.2491;2.3628;
710.7000;0.2466;2.3553;
711.0000;0.2491;2.3653;
711.3000;0.2458;2.3478;
711.6000;0.2385;2.3353;
711.9000;0.2475;2.3578;
712.2000;0.2475;2.3503;
712.5000;0.2401;2.3278;
712.8000;0.2466;2.3503;
713.1000;0.2507;2.3578;
713.4000;0.2532;2.3653;
713.7000;0.2515;2.3578;
714.0000;0.2515;2.3478;
714.3000;0.2434;2.3403;
714.6000;0.2450;2.3403;
714.9000;0.2483;2.3453;
715.2000;0.2466;2.3453;
715.5000;0.2532;2.3553;
715.8000;0.2491;2.3478;
716.1000;0.2556;2.3653;
716.4000;0.2450;2.3428;
716.7000;0.2361;2.3203;
717.0000;0.2515;2.3578;
717.3000;0.2458;2.3528;
717.6000;0.2523;2.3678;
717.9000;0.2532;2.3578;
718.2000;0.2393;2.3203;
718.5000;0.2458;2.3353;
718.8000;0.2466;2.3453;
719.1000;0.2475;2.3353;
719.4000;0.2475;2.3303;
719.7000;0.2475;2.3328;
720.0000;0.2466;2.3328;
720.3000;0.2458;2.3253;
720.6000;0.2466;2.3303;
720.9000;0.2491;2.3428;
721.2000;0.2475;2.3353;
721.5000;0.2466;2.3378;
721.8000;0.2466;2.3378;
722.1000;0.2450;2.3378;
722.4000;0.2483;2.3453;
722.7000;0.2466;2.3378;
723.0000;0.2418;2.3228;
723.3000;0.2458;2.3328;
723.6000;0.2499;2.3453;
723.9000;0.2523;2.3528;
724.2000;0.2466;2.3528;
724.5000;0.2475;2.3603;
724.8000;0.2475;2.3578;
725.1000;0.2491;2.3553;
725.4000;0.2491;2.3528;
725.7000;0.2450;2.3453;
726.0000;0.2450;2.3403;
726.3000;0.2483;2.3478;
726.6000;0.2450;2.3378;
726.9000;0.2491;2.3503;
727.2000;0.2475;2.3428;
727.5000;0.2458;2.3328;
727.8000;0.2491;2.3403;
728.1000;0.2491;2.3553;
728.4000;0.2483;2.3528;
728.7000;0.2475;2.3453;
729.0000;0.2499;2.3453;
729.3000;0.2458;2.3378;
729.6000;0.2442;2.3328;
729.9000;0.2499;2.3453;
730.2000;0.2466;2.3403;
730.5000;0.2450;2.3328;
730.8000;0.2442;2.3178;
731.1000;0.2475;2.3153;
731.4000;0.2458;2.3128;
731.7000;0.2450;2.3153;
732.0000;0.2458;2.3328;
732.3000;0.2458;2.3328;
732.6000;0.2458;2.3278;
732.9000;0.2532;2.3453;
733.2000;0.2475;2.3353;
733.5000;0.2475;2.3403;
733.8000;0.2556;2.3678;
734.1000;0.2458;2.3328;
734.4000;0.2442;2.3153;
734.7000;0.2458;2.3203;
735.0000;0.2532;2.3528;
735.3000;0.2475;2.3353;
735.6000;0.2475;2.3353;
735.9000;0.2475;2.3253;
736.2000;0.2418;2.3078;
736.5000;0.2352;2.2927;
736.8000;0.2515;2.3403;
737.1000;0.2409;2.3178;
737.4000;0.2369;2.2977;
737.7000;0.2499;2.3428;
738.0000;0.2548;2.3528;
738.3000;0.2466;2.3253;
738.6000;0.2491;2.3253;
738.9000;0.2475;2.3203;
739.2000;0.2483;2.3278;
739.5000;0.2475;2.3253;
739.8000;0.2442;2.3328;
740.1000;0.2483;2.3428;
740.4000;0.2491;2.3478;
740.7000;0.2426;2.3328;
741.0000;0.2491;2.3478;
741.3000;0.2499;2.3503;
741.6000;0.2466;2.3303;
741.9000;0.2320;2.2852;
742.2000;0.2466;2.3353;
742.5000;0.2475;2.3278;
742.8000;0.2491;2.3303;
743.1000;0.2475;2.3203;
743.4000;0.2466;2.3203;
743.7000;0.2491;2.3203;
744.0000;0.2540;2.3453;
744.3000;0.2491;2.3303;
744.6000;0.2483;2.3303;
744.9000;0.2540;2.3453;
745.2000;0.2434;2.3203;
745.5000;0.2450;2.3353;
745.8000;0.2507;2.3453;
746.1000;0.2507;2.3528;
746.4000;0.2483;2.3378;
746.7000;0.2475;2.3303;
747.0000;0.2450;2.3228;
747.3000;0.2475;2.3153;
747.6000;0.2458;2.3253;
747.9000;0.2483;2.3253;
748.2000;0.2458;2.3253;
748.5000;0.2466;2.3303;
748.8000;0.2450;2.3228;
749.1000;0.2491;2.3353;
749.4000;0.2475;2.3303;
749.7000;0.2442;2.3228;
750.0000;0.2491;2.3278;
750.3000;0.2475;2.3253;
750.6000;0.2483;2.3328;
750.9000;0.2475;2.3303;
751.2000;0.2450;2.3203;
751.5000;0.2466;2.3203;
751.8000;0.2483;2.3303;
752.1000;0.2466;2.3153;
752.4000;0.2491;2.3228;
752.7000;0.2491;2.3253;
753.0000;0.2475;2.3328;
753.3000;0.2507;2.3428;
753.6000;0.2401;2.3253;
753.9000;0.2483;2.3528;
754.2000;0.2483;2.3603;
754.5000;0.2475;2.3553;
754.8000;0.2483;2.3578;
755.1000;0.2458;2.3478;
755.4000;0.2466;2.3478;
755.7000;0.2466;2.3503;
756.0000;0.2475;2.3528;
756.3000;0.2491;2.3553;
756.6000;0.2475;2.3403;
756.9000;0.2499;2.3378;
757.2000;0.2532;2.3553;
757.5000;0.2426;2.3253;
757.8000;0.2458;2.3328;
758.1000;0.2507;2.3378;
758.4000;0.2564;2.3553;
758.7000;0.2475;2.3278;
759.0000;0.2540;2.3453;
759.3000;0.2491;2.3278;
759.6000;0.2458;2.3253;
759.9000;0.2442;2.3228;
760.2000;0.2466;2.3253;
760.5000;0.2393;2.3053;
760.8000;0.2548;2.3453;
761.1000;0.2475;2.3278;
761.4000;0.2499;2.3353;
761.7000;0.2393;2.2977;
762.0000;0.2458;2.3153;
762.3000;0.2466;2.3103;
762.6000;0.2483;2.3203;
762.9000;0.2491;2.3303;
763.2000;0.2491;2.3403;
763.5000;0.2475;2.3328;
763.8000;0.2483;2.3303;
764.1000;0.2450;2.3253;
764.4000;0.2475;2.3278;
764.7000;0.2507;2.3353;
765.0000;0.2466;2.3303;
765.3000;0.2475;2.3328;
765.6000;0.2475;2.3428;
765.9000;0.2458;2.3453;
766.2000;0.2466;2.3503;
766.5000;0.2458;2.3478;
766.8000;0.2458;2.3428;
767.1000;0.2475;2.3503;
767.4000;0.2409;2.3403;
767.7000;0.2499;2.3553;
768.0000;0.2483;2.3403;
768.3000;0.2515;2.3503;
768.6000;0.2475;2.3478;
768.9000;0.2499;2.3478;
769.2000;0.2483;2.3453;
769.5000;0.2483;2.3503;
769.8000;0.2483;2.3428;
770.1000;0.2450;2.3278;
770.4000;0.2572;2.3603;
770.7000;0.2458;2.3303;
771.0000;0.2458;2.3203;
771.3000;0.2458;2.3178;
771.6000;0.2466;2.3253;
771.9000;0.2450;2.3303;
772.2000;0.2491;2.3478;
772.5000;0.2499;2.3503;
772.8000;0.2483;2.3453;
773.1000;0.2483;2.3503;
773.4000;0.2507;2.3528;
773.7000;0.2450;2.3328;
774.0000;0.2491;2.3328;
774.3000;0.2491;2.3303;
774.6000;0.2483;2.3303;
774.9000;0.2483;2.3303;
775.2000;0.2475;2.3278;
775.5000;0.2466;2.3328;
775.8000;0.2483;2.3403;
776.1000;0.2475;2.3403;
776.4000;0.2458;2.3478;
776.7000;0.2483;2.3628;
777.0000;0.2507;2.3678;
777.3000;0.2491;2.3603;
777.6000;0.2491;2.3478;
777.9000;0.2458;2.3428;
778.2000;0.2507;2.3553;
778.5000;0.2483;2.3478;
778.8000;0.2458;2.3453;
779.1000;0.2434;2.3303;
779.4000;0.2483;2.3478;
779.7000;0.2393;2.3278;
780.0000;0.2499;2.3478;
780.3000;0.2507;2.3503;
780.6000;0.2507;2.3478;
780.9000;0.2475;2.3378;
781.2000;0.2475;2.3378;
781.5000;0.2491;2.3403;
781.8000;0.2507;2.3603;
782.1000;0.2491;2.3528;
782.4000;0.2458;2.3478;
782.7000;0.2491;2.3603;
783.0000;0.2564;2.3853;
783.3000;0.2491;2.3653;
783.6000;0.2507;2.3728;
783.9000;0.2475;2.3653;
784.2000;0.2450;2.3603;
784.5000;0.2475;2.3678;
784.8000;0.2450;2.3678;
785.1000;0.2483;2.3703;
785.4000;0.2458;2.3653;
785.7000;0.2466;2.3653;
786.0000;0.2491;2.3678;
786.3000;0.2458;2.3653;
786.6000;0.2483;2.3703;
786.9000;0.2491;2.3678;
787.2000;0.2507;2.3778;
787.5000;0.2442;2.3703;
787.8000;0.2458;2.3753;
788.1000;0.2475;2.3728;
788.4000;0.2499;2.3828;
788.7000;0.2483;2.3803;
789.0000;0.2491;2.3803;
789.3000;0.2491;2.3753;
789.6000;0.2491;2.3753;
789.9000;0.2418;2.3428;
790.2000;0.2466;2.3678;
790.5000;0.2466;2.3778;
790.8000;0.2564;2.4004;
791.1000;0.2426;2.3603;
791.4000;0.2499;2.3778;
791.7000;0.2475;2.3703;
792.0000;0.2491;2.3703;
792.3000;0.2483;2.3678;
792.6000;0.2499;2.3678;
792.9000;0.2426;2.3453;
793.2000;0.2491;2.3628;
793.5000;0.2515;2.3653;
793.8000;0.2483;2.3553;
794.1000;0.2450;2.3578;
794.4000;0.2385;2.3353;
794.7000;0.2499;2.3728;
795.0000;0.2475;2.3728;
795.3000;0.2466;2.3728;
795.6000;0.2466;2.3803;
795.9000;0.2466;2.3828;
796.2000;0.2475;2.3879;
796.5000;0.2352;2.3578;
796.8000;0.2434;2.3728;
797.1000;0.2483;2.3803;
797.4000;0.2532;2.3828;
797.7000;0.2475;2.3678;
798.0000;0.2483;2.3603;
798.3000;0.2491;2.3603;
798.6000;0.2515;2.3703;
798.9000;0.2483;2.3628;
799.2000;0.2499;2.3753;
799.5000;0.2483;2.3703;
799.8000;0.2458;2.3628;
800.1000;0.2483;2.3753;
800.4000;0.2483;2.3728;
800.7000;0.2450;2.3653;
801.0000;0.2491;2.3653;
801.3000;0.2491;2.3703;
801.6000;0.2458;2.3678;
801.9000;0.2475;2.3603;
802.2000;0.2458;2.3528;
802.5000;0.2466;2.3453;
802.8000;0.2466;2.3503;
803.1000;0.2483;2.3453;
803.4000;0.2475;2.3453;
803.7000;0.2466;2.3478;
804.0000;0.2466;2.3528;
804.3000;0.2483;2.3653;
804.6000;0.2458;2.3653;
804.9000;0.2499;2.3778;
805.2000;0.2458;2.3703;
805.5000;0.2507;2.3828;
805.8000;0.2540;2.3904;
806.1000;0.2499;2.3628;
806.4000;0.2564;2.3753;
806.7000;0.2418;2.3453;
807.0000;0.2483;2.3703;
807.3000;0.2483;2.3678;
807.6000;0.2499;2.3653;
807.9000;0.2483;2.3603;
808.2000;0.2475;2.3628;
808.5000;0.2499;2.3653;
808.8000;0.2499;2.3578;
809.1000;0.2507;2.3553;
809.4000;0.2483;2.3503;
809.7000;0.2458;2.3503;
810.0000;0.2499;2.3553;
810.3000;0.2515;2.3578;
810.6000;0.2475;2.3528;
810.9000;0.2466;2.3403;
811.2000;0.2409;2.3228;
811.5000;0.2466;2.3378;
811.8000;0.2483;2.3328;
812.1000;0.2458;2.3228;
812.4000;0.2475;2.3228;
812.7000;0.2475;2.3253;
813.0000;0.2418;2.3228;
813.3000;0.2483;2.3603;
813.6000;0.2450;2.3528;
813.9000;0.2499;2.3653;
814.2000;0.2523;2.3728;
814.5000;0.2442;2.3503;
814.8000;0.2344;2.3203;
815.1000;0.2418;2.3303;
815.4000;0.2523;2.3578;
815.7000;0.2361;2.3078;
816.0000;0.2401;2.3253;
816.3000;0.2385;2.3178;
816.6000;0.2532;2.3478;
816.9000;0.2466;2.3328;
817.2000;0.2450;2.3353;
817.5000;0.2637;2.3803;
817.8000;0.2483;2.3353;
818.1000;0.2499;2.3453;
818.4000;0.2515;2.3553;
818.7000;0.2564;2.3628;
819.0000;0.2491;2.3578;
819.3000;0.2466;2.3553;
819.6000;0.2491;2.3678;
819.9000;0.2483;2.3728;
820.2000;0.2475;2.3653;
820.5000;0.2621;2.4029;
820.8000;0.2491;2.3703;
821.1000;0.2466;2.3628;
821.4000;0.2475;2.3728;
821.7000;0.2491;2.3678;
822.0000;0.2475;2.3603;
822.3000;0.2466;2.3653;
822.6000;0.2499;2.3728;
822.9000;0.2483;2.3678;
823.2000;0.2491;2.3653;
823.5000;0.2483;2.3553;
823.8000;0.2499;2.3578;
824.1000;0.2491;2.3553;
824.4000;0.2475;2.3478;
824.7000;0.2499;2.3503;
825.0000;0.2483;2.3403;
825.3000;0.2491;2.3453;
825.6000;0.2499;2.3453;
825.9000;0.2491;2.3428;
826.2000;0.2450;2.3403;
826.5000;0.2483;2.3553;
826.8000;0.2507;2.3653;
827.1000;0.2466;2.3528;
827.4000;0.2491;2.3553;
827.7000;0.2483;2.3553;
828.0000;0.2475;2.3578;
828.3000;0.2523;2.3703;
828.6000;0.2507;2.3603;
828.9000;0.2483;2.3478;
829.2000;0.2361;2.3203;
829.5000;0.2499;2.3578;
829.8000;0.2466;2.3528;
830.1000;0.2434;2.3453;
830.4000;0.2532;2.3703;
830.7000;0.2483;2.3453;
831.0000;0.2564;2.3653;
831.3000;0.2483;2.3428;
831.6000;0.2458;2.3453;
831.9000;0.2499;2.3528;
832.2000;0.2409;2.3328;
832.5000;0.2409;2.3253;
832.8000;0.2499;2.3528;
833.1000;0.2466;2.3478;
833.4000;0.2499;2.3603;
833.7000;0.2483;2.3553;
834.0000;0.2475;2.3553;
834.3000;0.2475;2.3578;
834.6000;0.2475;2.3553;
834.9000;0.2491;2.3653;
835.2000;0.2491;2.3678;
835.5000;0.2515;2.3753;
835.8000;0.2475;2.3528;
836.1000;0.2369;2.3203;
836.4000;0.2458;2.3478;
836.7000;0.2507;2.3578;
837.0000;0.2499;2.3553;
837.3000;0.2475;2.3528;
837.6000;0.2458;2.3428;
837.9000;0.2475;2.3478;
838.2000;0.2458;2.3478;
838.5000;0.2483;2.3553;
838.8000;0.2499;2.3453;
839.1000;0.2458;2.3428;
839.4000;0.2475;2.3503;
839.7000;0.2572;2.3778;
840.0000;0.2475;2.3478;
840.3000;0.2466;2.3503;
840.6000;0.2483;2.3503;
840.9000;0.2491;2.3553;
841.2000;0.2483;2.3603;
841.5000;0.2483;2.3653;
841.8000;0.2483;2.3678;
842.1000;0.2499;2.3653;
842.4000;0.2483;2.3578;
842.7000;0.2491;2.3553;
843.0000;0.2466;2.3603;
843.3000;0.2499;2.3728;
843.6000;0.2491;2.3728;
843.9000;0.2458;2.3653;
844.2000;0.2491;2.3703;
844.5000;0.2515;2.3803;
844.8000;0.2475;2.3803;
845.1000;0.2499;2.3728;
845.4000;0.2483;2.3578;
845.7000;0.2458;2.3528;
846.0000;0.2475;2.3528;
846.3000;0.2507;2.3653;
846.6000;0.2483;2.3678;
846.9000;0.2401;2.3428;
847.2000;0.2491;2.3503;
847.5000;0.2483;2.3478;
847.8000;0.2426;2.3328;
848.1000;0.2475;2.3553;
848.4000;0.2483;2.3478;
848.7000;0.2475;2.3453;
849.0000;0.2532;2.3578;
849.3000;0.2499;2.3528;
849.6000;0.2483;2.3553;
849.9000;0.2499;2.3578;
850.2000;0.2483;2.3503;
850.5000;0.2458;2.3328;
850.8000;0.2556;2.3628;
851.1000;0.2475;2.3478;
851.4000;0.2491;2.3428;
851.7000;0.2466;2.3353;
852.0000;0.2475;2.3303;
852.3000;0.2458;2.3378;
852.6000;0.2466;2.3528;
852.9000;0.2458;2.3553;
853.2000;0.2483;2.3653;
853.5000;0.2532;2.3853;
853.8000;0.2532;2.3803;
854.1000;0.2458;2.3553;
854.4000;0.2458;2.3553;
854.7000;0.2483;2.3653;
855.0000;0.2499;2.3728;
855.3000;0.2475;2.3728;
855.6000;0.2483;2.3753;
855.9000;0.2409;2.3478;
856.2000;0.2475;2.3603;
856.5000;0.2466;2.3578;
856.8000;0.2491;2.3578;
857.1000;0.2515;2.3653;
857.4000;0.2483;2.3528;
857.7000;0.2507;2.3628;
858.0000;0.2491;2.3728;
858.3000;0.2491;2.3803;
858.6000;0.2483;2.3703;
858.9000;0.2491;2.3678;
859.2000;0.2548;2.3853;
859.5000;0.2515;2.3653;
859.8000;0.2466;2.3553;
860.1000;0.2499;2.3578;
860.4000;0.2483;2.3578;
860.7000;0.2507;2.3653;
861.0000;0.2458;2.3478;
861.3000;0.2458;2.3428;
861.6000;0.2434;2.3453;
861.9000;0.2450;2.3528;
862.2000;0.2491;2.3603;
862.5000;0.2483;2.3553;
862.8000;0.2556;2.3728;
863.1000;0.2475;2.3453;
863.4000;0.2418;2.3328;
863.7000;0.2515;2.3628;
864.0000;0.2475;2.3578;
864.3000;0.2466;2.3503;
864.6000;0.2466;2.3503;
864.9000;0.2507;2.3603;
865.2000;0.2483;2.3528;
865.5000;0.2458;2.3403;
865.8000;0.2475;2.3428;
866.1000;0.2450;2.3303;
866.4000;0.2475;2.3453;
866.7000;0.2491;2.3503;
867.0000;0.2475;2.3478;
867.3000;0.2483;2.3478;
867.6000;0.2532;2.3628;
867.9000;0.2491;2.3528;
868.2000;0.2458;2.3478;
868.5000;0.2466;2.3453;
868.8000;0.2458;2.3378;
869.1000;0.2499;2.3528;
869.4000;0.2483;2.3478;
869.7000;0.2475;2.3528;
870.0000;0.2483;2.3528;
870.3000;0.2483;2.3478;
870.6000;0.2475;2.3428;
870.9000;0.2483;2.3478;
871.2000;0.2475;2.3503;
871.5000;0.2483;2.3453;
871.8000;0.2475;2.3478;
872.1000;0.2475;2.3453;
872.4000;0.2491;2.3503;
872.7000;0.2458;2.3428;
873.0000;0.2491;2.3528;
873.3000;0.2475;2.3528;
873.6000;0.2483;2.3503;
873.9000;0.2499;2.3528;
874.2000;0.2458;2.3478;
874.5000;0.2491;2.3528;
874.8000;0.2499;2.3528;
875.1000;0.2483;2.3528;
875.4000;0.2515;2.3678;
875.7000;0.2491;2.3603;
876.0000;0.2458;2.3478;
876.3000;0.2483;2.3478;
876.6000;0.2483;2.3503;
876.9000;0.2475;2.3553;
877.2000;0.2483;2.3503;
877.5000;0.2540;2.3578;
877.8000;0.2491;2.3403;
878.1000;0.2483;2.3378;
878.4000;0.2434;2.3253;
878.7000;0.2491;2.3453;
879.0000;0.2499;2.3453;
879.3000;0.2499;2.3378;
879.6000;0.2499;2.3378;
879.9000;0.2499;2.3503;
880.2000;0.2361;2.3178;
880.5000;0.2466;2.3528;
880.8000;0.2442;2.3453;
881.1000;0.2532;2.3653;
881.4000;0.2491;2.3553;
881.7000;0.2556;2.3753;
882.0000;0.2475;2.3553;
882.3000;0.2515;2.3678;
882.6000;0.2450;2.3478;
882.9000;0.2491;2.3653;
883.2000;0.2629;2.4029;
883.5000;0.2475;2.3678;
883.8000;0.2418;2.3503;
884.1000;0.2426;2.3553;
884.4000;0.2475;2.3553;
884.7000;0.2458;2.3528;
885.0000;0.2475;2.3578;
885.3000;0.2532;2.3778;
885.6000;0.2442;2.3553;
885.9000;0.2499;2.3678;
886.2000;0.2491;2.3603;
886.5000;0.2442;2.3478;
886.8000;0.2507;2.3628;
887.1000;0.2483;2.3553;
887.4000;0.2442;2.3453;
887.7000;0.2458;2.3528;
888.0000;0.2377;2.3303;
888.3000;0.2475;2.3528;
888.6000;0.2589;2.3828;
888.9000;0.2491;2.3653;
889.2000;0.2483;2.3578;
889.5000;0.2320;2.3153;
889.8000;0.2466;2.3578;
890.1000;0.2499;2.3628;
890.4000;0.2499;2.3603;
890.7000;0.2523;2.3703;
891.0000;0.2475;2.3503;
891.3000;0.2515;2.3628;
891.6000;0.2499;2.3503;
891.9000;0.2507;2.3603;
892.2000;0.2475;2.3553;
892.5000;0.2466;2.3528;
892.8000;0.2475;2.3603;
893.1000;0.2515;2.3628;
893.4000;0.2458;2.3403;
893.7000;0.2491;2.3528;
894.0000;0.2507;2.3553;
894.3000;0.2491;2.3553;
894.6000;0.2491;2.3503;
894.9000;0.2483;2.3478;
895.2000;0.2507;2.3628;
895.5000;0.2466;2.3578;
895.8000;0.2491;2.3528;
896.1000;0.2475;2.3528;
896.4000;0.2483;2.3478;
896.7000;0.2475;2.3528;
897.0000;0.2523;2.3703;
897.3000;0.2475;2.3578;
897.6000;0.2466;2.3553;
897.9000;0.2483;2.3678;
898.2000;0.2523;2.3853;
898.5000;0.2466;2.3778;
898.8000;0.2523;2.3904;
899.1000;0.2483;2.3803;
899.4000;0.2475;2.3853;
899.7000;0.2385;2.3478;
900.0000;0.2475;2.3553;
900.3000;0.2523;2.3728;
900.6000;0.2507;2.3703;
900.9000;0.2475;2.3578;
901.2000;0.2483;2.3578;
901.5000;0.2475;2.3503;
901.8000;0.2483;2.3528;
902.1000;0.2491;2.3728;
902.4000;0.2466;2.3628;
902.7000;0.2483;2.3628;
903.0000;0.2483;2.3628;
903.3000;0.2369;2.3378;
903.6000;0.2483;2.3603;
903.9000;0.2369;2.3228;
904.2000;0.2450;2.3478;
904.5000;0.2491;2.3578;
904.8000;0.2483;2.3553;
905.1000;0.2401;2.3278;
905.4000;0.2475;2.3428;
905.7000;0.2491;2.3428;
906.0000;0.2613;2.3828;
906.3000;0.2450;2.3428;
906.6000;0.2491;2.3603;
906.9000;0.2401;2.3303;
907.2000;0.2483;2.3428;
907.5000;0.2466;2.3453;
907.8000;0.2442;2.3403;
908.1000;0.2540;2.3703;
908.4000;0.2499;2.3578;
908.7000;0.2580;2.3828;
909.0000;0.2499;2.3603;
909.3000;0.2466;2.3553;
909.6000;0.2442;2.3453;
909.9000;0.2483;2.3528;
910.2000;0.2458;2.3478;
910.5000;0.2385;2.3378;
910.8000;0.2466;2.3578;
911.1000;0.2499;2.3653;
911.4000;0.2540;2.3803;
911.7000;0.2475;2.3678;
912.0000;0.2548;2.3929;
912.3000;0.2475;2.3778;
912.6000;0.2515;2.3879;
912.9000;0.2458;2.3728;
913.2000;0.2483;2.3753;
913.5000;0.2409;2.3453;
913.8000;0.2548;2.3828;
914.1000;0.2499;2.3728;
914.4000;0.2507;2.3753;
914.7000;0.2523;2.3678;
915.0000;0.2442;2.3503;
915.3000;0.2475;2.3678;
915.6000;0.2466;2.3728;
915.9000;0.2475;2.3753;
916.2000;0.2466;2.3628;
916.5000;0.2499;2.3728;
916.8000;0.2483;2.3653;
917.1000;0.2458;2.3653;
917.4000;0.2475;2.3553;
917.7000;0.2458;2.3453;
918.0000;0.2475;2.3578;
918.3000;0.2475;2.3478;
918.6000;0.2499;2.3503;
918.9000;0.2483;2.3303;
919.2000;0.2466;2.3328;
919.5000;0.2483;2.3428;
919.8000;0.2483;2.3378;
920.1000;0.2450;2.3303;
920.4000;0.2466;2.3353;
920.7000;0.2515;2.3428;
921.0000;0.2507;2.3403;
921.3000;0.2540;2.3553;
921.6000;0.2409;2.3203;
921.9000;0.2483;2.3453;
922.2000;0.2466;2.3478;
922.5000;0.2483;2.3578;
922.8000;0.2475;2.3578;
923.1000;0.2450;2.3428;
923.4000;0.2523;2.3603;
923.7000;0.2450;2.3378;
924.0000;0.2507;2.3553;
924.3000;0.2523;2.3553;
924.6000;0.2507;2.3528;
924.9000;0.2442;2.3328;
925.2000;0.2475;2.3428;
925.5000;0.2572;2.3753;
925.8000;0.2491;2.3403;
926.1000;0.2532;2.3578;
926.4000;0.2507;2.3553;
926.7000;0.2499;2.3428;
927.0000;0.2499;2.3478;
927.3000;0.2426;2.3278;
927.6000;0.2475;2.3403;
927.9000;0.2466;2.3403;
928.2000;0.2491;2.3453;
928.5000;0.2450;2.3353;
928.8000;0.2515;2.3553;
929.1000;0.2572;2.3828;
929.4000;0.2491;2.3728;
929.7000;0.2483;2.3678;
930.0000;0.2540;2.3803;
930.3000;0.2580;2.3904;
930.6000;0.2483;2.3578;
930.9000;0.2532;2.3653;
931.2000;0.2491;2.3503;
931.5000;0.2475;2.3528;
931.8000;0.2409;2.3403;
932.1000;0.2499;2.3703;
932.4000;0.2483;2.3653;
932.7000;0.2515;2.3728;
933.0000;0.2475;2.3578;
933.3000;0.2499;2.3553;
933.6000;0.2523;2.3703;
933.9000;0.2499;2.3703;
934.2000;0.2483;2.3703;
934.5000;0.2507;2.3703;
934.8000;0.2491;2.3703;
935.1000;0.2491;2.3653;
935.4000;0.2483;2.3628;
935.7000;0.2499;2.3603;
936.0000;0.2466;2.3553;
936.3000;0.2475;2.3578;
936.6000;0.2475;2.3628;
936.9000;0.2491;2.3703;
937.2000;0.2491;2.3728;
937.5000;0.2483;2.3753;
937.8000;0.2466;2.3753;
938.1000;0.2475;2.3828;
938.4000;0.2475;2.3879;
938.7000;0.2450;2.3803;
939.0000;0.2507;2.3929;
939.3000;0.2491;2.3778;
939.6000;0.2483;2.3753;
939.9000;0.2466;2.3678;
940.2000;0.2483;2.3653;
940.5000;0.2491;2.3678;
940.8000;0.2491;2.3678;
941.1000;0.2491;2.3753;
941.4000;0.2458;2.3703;
941.7000;0.2450;2.3603;
942.0000;0.2507;2.3653;
942.3000;0.2507;2.3603;
942.6000;0.2483;2.3528;
942.9000;0.2434;2.3428;
943.2000;0.2450;2.3528;
943.5000;0.2450;2.3503;
943.8000;0.2475;2.3528;
944.1000;0.2483;2.3528;
944.4000;0.2466;2.3478;
944.7000;0.2483;2.3503;
945.0000;0.2450;2.3453;
945.3000;0.2515;2.3678;
945.6000;0.2466;2.3553;
945.9000;0.2320;2.3203;
946.2000;0.2540;2.3904;
946.5000;0.2589;2.4004;
946.8000;0.2475;2.3753;
947.1000;0.2434;2.3528;
947.4000;0.2523;2.3853;
947.7000;0.2548;2.3929;
948.0000;0.2532;2.3828;
948.3000;0.2564;2.3828;
948.6000;0.2466;2.3528;
948.9000;0.2483;2.3553;
949.2000;0.2409;2.3478;
949.5000;0.2418;2.3603;
949.8000;0.2483;2.3678;
950.1000;0.2499;2.3678;
950.4000;0.2304;2.3078;
950.7000;0.2475;2.3553;
951.0000;0.2499;2.3628;
951.3000;0.2475;2.3603;
951.6000;0.2466;2.3553;
951.9000;0.2483;2.3553;
952.2000;0.2483;2.3678;
952.5000;0.2491;2.3728;
952.8000;0.2507;2.3753;
953.1000;0.2483;2.3603;
953.4000;0.2499;2.3653;
953.7000;0.2409;2.3503;
954.0000;0.2507;2.3678;
954.3000;0.2475;2.3578;
954.6000;0.2475;2.3503;
954.9000;0.2475;2.3528;
955.2000;0.2483;2.3503;
955.5000;0.2491;2.3578;
955.8000;0.2491;2.3603;
956.1000;0.2507;2.3728;
956.4000;0.2475;2.3703;
956.7000;0.2491;2.3703;
957.0000;0.2475;2.3703;
957.3000;0.2458;2.3678;
957.6000;0.2483;2.3803;
957.9000;0.2491;2.3753;
958.2000;0.2491;2.3728;
958.5000;0.2491;2.3653;
958.8000;0.2507;2.3603;
959.1000;0.2475;2.3403;
959.4000;0.2515;2.3628;
959.7000;0.2483;2.3603;
960.0000;0.2523;2.3628;
960.3000;0.2458;2.3478;
960.6000;0.2483;2.3553;
960.9000;0.2483;2.3528;
961.2000;0.2507;2.3653;
961.5000;0.2458;2.3578;
961.8000;0.2466;2.3553;
962.1000;0.2475;2.3628;
962.4000;0.2458;2.3678;
962.7000;0.2483;2.3778;
963.0000;0.2523;2.3929;
963.3000;0.2491;2.3728;
963.6000;0.2458;2.3603;
963.9000;0.2483;2.3653;
964.2000;0.2466;2.3653;
964.5000;0.2475;2.3628;
964.8000;0.2515;2.3678;
965.1000;0.2475;2.3653;
965.4000;0.2458;2.3528;
965.7000;0.2418;2.3453;
966.0000;0.2475;2.3578;
966.3000;0.2475;2.3553;
966.6000;0.2491;2.3603;
966.9000;0.2442;2.3478;
967.2000;0.2499;2.3578;
967.5000;0.2418;2.3428;
967.8000;0.2499;2.3603;
968.1000;0.2483;2.3603;
968.4000;0.2491;2.3628;
968.7000;0.2491;2.3653;
969.0000;0.2385;2.3478;
969.3000;0.2393;2.3478;
969.6000;0.2466;2.3703;
969.9000;0.2458;2.3753;
970.2000;0.2507;2.3904;
970.5000;0.2458;2.3753;
970.8000;0.2515;2.3778;
971.1000;0.2442;2.3578;
971.4000;0.2434;2.3528;
971.7000;0.2483;2.3703;
972.0000;0.2393;2.3428;
972.3000;0.2434;2.3478;
972.6000;0.2475;2.3528;
972.9000;0.2483;2.3503;
973.2000;0.2548;2.3703;
973.5000;0.2466;2.3528;
973.8000;0.2597;2.4004;
974.1000;0.2483;2.3653;
974.4000;0.2499;2.3528;
974.7000;0.2499;2.3428;
975.0000;0.2483;2.3428;
975.3000;0.2458;2.3353;
975.6000;0.2418;2.3253;
975.9000;0.2466;2.3378;
976.2000;0.2499;2.3453;
976.5000;0.2499;2.3478;
976.8000;0.2483;2.3503;
977.1000;0.2426;2.3403;
977.4000;0.2475;2.3503;
977.7000;0.2409;2.3228;
978.0000;0.2515;2.3503;
978.3000;0.2466;2.3403;
978.6000;0.2475;2.3528;
978.9000;0.2475;2.3528;
979.2000;0.2475;2.3528;
979.5000;0.2507;2.3628;
979.8000;0.2515;2.3578;
980.1000;0.2483;2.3553;
980.4000;0.2458;2.3578;
980.7000;0.2572;2.3853;
981.0000;0.2475;2.3603;
981.3000;0.2450;2.3503;
981.6000;0.2475;2.3578;
981.9000;0.2499;2.3603;
982.2000;0.2475;2.3578;
982.5000;0.2483;2.3603;
982.8000;0.2499;2.3703;
983.1000;0.2499;2.3753;
983.4000;0.2523;2.3753;
983.7000;0.2499;2.3703;
984.0000;0.2466;2.3728;
984.3000;0.2532;2.3904;
984.6000;0.2499;2.3803;
984.9000;0.2466;2.3628;
985.2000;0.2491;2.3703;
985.5000;0.2475;2.3753;
985.8000;0.2475;2.3828;
986.1000;0.2475;2.3803;
986.4000;0.2475;2.3828;
986.7000;0.2491;2.3879;
987.0000;0.2475;2.3803;
987.3000;0.2458;2.3778;
987.6000;0.2483;2.3803;
987.9000;0.2499;2.3803;
988.2000;0.2466;2.3728;
988.5000;0.2613;2.4179;
988.8000;0.2515;2.3979;
989.1000;0.2450;2.3778;
989.4000;0.2483;2.3853;
989.7000;0.2483;2.3803;
990.0000;0.2458;2.3803;
990.3000;0.2515;2.3904;
990.6000;0.2426;2.3603;
990.9000;0.2442;2.3653;
991.2000;0.2475;2.3678;
991.5000;0.2475;2.3678;
991.8000;0.2491;2.3778;
992.1000;0.2483;2.3803;
992.4000;0.2401;2.3553;
992.7000;0.2475;2.3753;
993.0000;0.2491;2.3803;
993.3000;0.2466;2.3703;
993.6000;0.2483;2.3703;
993.9000;0.2475;2.3678;
994.2000;0.2499;2.3803;
994.5000;0.2491;2.3703;
994.8000;0.2475;2.3578;
995.1000;0.2458;2.3528;
995.4000;0.2572;2.3753;
995.7000;0.2491;2.3478;
996.0000;0.2483;2.3353;
996.3000;0.2572;2.3703;
996.6000;0.2499;2.3578;
996.9000;0.2491;2.3603;
997.2000;0.2466;2.3578;
997.5000;0.2499;2.3528;
997.8000;0.2466;2.3403;
998.1000;0.2483;2.3453;
998.4000;0.2491;2.3528;
998.7000;0.2475;2.3503;
999.0000;0.2475;2.3478;
999.3000;0.2483;2.3478;
999.6000;0.2483;2.3478;
999.9000;0.2466;2.3453;
1000.2000;0.2523;2.3628;
1000.5000;0.2483;2.3503;
1000.8000;0.2475;2.3553;
1001.1000;0.2564;2.3753;
1001.4000;0.2499;2.3528;
1001.7000;0.2458;2.3328;
1002.0000;0.2442;2.3278;
1002.3000;0.2483;2.3403;
1002.6000;0.2450;2.3428;
1002.9000;0.2491;2.3578;
1003.2000;0.2475;2.3503;
1003.5000;0.2556;2.3753;
1003.8000;0.2483;2.3628;
1004.1000;0.2515;2.3678;
1004.4000;0.2540;2.3778;
1004.7000;0.2418;2.3428;
1005.0000;0.2499;2.3728;
1005.3000;0.2458;2.3553;
1005.6000;0.2507;2.3603;
1005.9000;0.2515;2.3653;
1006.2000;0.2491;2.3703;
1006.5000;0.2458;2.3678;
1006.8000;0.2564;2.3929;
1007.1000;0.2483;2.3653;
1007.4000;0.2466;2.3528;
1007.7000;0.2442;2.3428;
1008.0000;0.2483;2.3503;
1008.3000;0.2475;2.3653;
1008.6000;0.2515;2.3778;
1008.9000;0.2499;2.3778;
1009.2000;0.2483;2.3753;
1009.5000;0.2483;2.3728;
1009.8000;0.2483;2.3653;
1010.1000;0.2466;2.3528;
1010.4000;0.2466;2.3528;
1010.7000;0.2499;2.3603;
1011.0000;0.2442;2.3428;
1011.3000;0.2507;2.3603;
1011.6000;0.2475;2.3478;
1011.9000;0.2483;2.3628;
1012.2000;0.2483;2.3653;
1012.5000;0.2483;2.3478;
1012.8000;0.2450;2.3328;
1013.1000;0.2491;2.3453;
1013.4000;0.2475;2.3453;
1013.7000;0.2499;2.3428;
1014.0000;0.2475;2.3428;
1014.3000;0.2458;2.3453;
1014.6000;0.2466;2.3478;
1014.9000;0.2426;2.3303;
1015.2000;0.2507;2.3528;
1015.5000;0.2450;2.3328;
1015.8000;0.2491;2.3453;
1016.1000;0.2507;2.3453;
1016.4000;0.2483;2.3328;
1016.7000;0.2434;2.3228;
1017.0000;0.2336;2.3053;
1017.3000;0.2418;2.3278;
1017.6000;0.2491;2.3478;
1017.9000;0.2483;2.3428;
1018.2000;0.2466;2.3403;
1018.5000;0.2491;2.3528;
1018.8000;0.2458;2.3453;
1019.1000;0.2475;2.3478;
1019.4000;0.2491;2.3703;
1019.7000;0.2458;2.3553;
1020.0000;0.2344;2.3153;
1020.3000;0.2507;2.3553;
1020.6000;0.2475;2.3453;
1020.9000;0.2483;2.3353;
1021.2000;0.2548;2.3503;
1021.5000;0.2491;2.3453;
1021.8000;0.2475;2.3403;
1022.1000;0.2523;2.3553;
1022.4000;0.2475;2.3428;
1022.7000;0.2475;2.3478;
1023.0000;0.2450;2.3353;
1023.3000;0.2499;2.3428;
1023.6000;0.2491;2.3403;
1023.9000;0.2499;2.3278;
1024.2000;0.2629;2.3703;
1024.5000;0.2491;2.3278;
1024.8000;0.2507;2.3403;
1025.1000;0.2475;2.3353;
1025.4000;0.2491;2.3428;
1025.7000;0.2475;2.3378;
1026.0000;0.2466;2.3453;
1026.3000;0.2515;2.3603;
1026.6000;0.2450;2.3453;
1026.9000;0.2483;2.3553;
1027.2000;0.2499;2.3628;
1027.5000;0.2450;2.3453;
1027.8000;0.2556;2.3703;
1028.1000;0.2475;2.3378;
1028.4000;0.2491;2.3403;
1028.7000;0.2507;2.3503;
1029.0000;0.2442;2.3328;
1029.3000;0.2483;2.3378;
1029.6000;0.2466;2.3428;
1029.9000;0.2654;2.3979;
1030.2000;0.2466;2.3428;
1030.5000;0.2499;2.3478;
1030.8000;0.2466;2.3428;
1031.1000;0.2483;2.3478;
1031.4000;0.2491;2.3378;
1031.7000;0.2475;2.3378;
1032.0000;0.2393;2.3203;
1032.3000;0.2483;2.3328;
1032.6000;0.2475;2.3428;
1032.9000;0.2458;2.3328;
1033.2000;0.2475;2.3353;
1033.5000;0.2491;2.3403;
1033.8000;0.2466;2.3278;
1034.1000;0.2515;2.3403;
1034.4000;0.2466;2.3278;
1034.7000;0.2483;2.3403;
1035.0000;0.2499;2.3478;
1035.3000;0.2483;2.3528;
1035.6000;0.2475;2.3553;
1035.9000;0.2483;2.3578;
1036.2000;0.2483;2.3628;
1036.5000;0.2515;2.3703;
1036.8000;0.2393;2.3428;
1037.1000;0.2483;2.3678;
1037.4000;0.2426;2.3428;
1037.7000;0.2466;2.3478;
1038.0000;0.2475;2.3503;
1038.3000;0.2548;2.3678;
1038.6000;0.2418;2.3303;
1038.9000;0.2418;2.3253;
1039.2000;0.2580;2.3653;
1039.5000;0.2491;2.3428;
1039.8000;0.2532;2.3528;
1040.1000;0.2442;2.3353;
1040.4000;0.2377;2.3178;
1040.7000;0.2507;2.3428;
1041.0000;0.2466;2.3228;
1041.3000;0.2320;2.2852;
1041.6000;0.2466;2.3278;
1041.9000;0.2483;2.3303;
1042.2000;0.2466;2.3153;
1042.5000;0.2556;2.3328;
1042.8000;0.2507;2.3153;
1043.1000;0.2475;2.3103;
1043.4000;0.2491;2.3203;
1043.7000;0.2442;2.3053;
1044.0000;0.2458;2.3128;
1044.3000;0.2483;2.3178;
1044.6000;0.2499;2.3203;
1044.9000;0.2523;2.3278;
1045.2000;0.2475;2.3253;
1045.5000;0.2475;2.3403;
1045.8000;0.2532;2.3528;
1046.1000;0.2475;2.3403;
1046.4000;0.2475;2.3453;
1046.7000;0.2507;2.3653;
1047.0000;0.2499;2.3578;
1047.3000;0.2483;2.3428;
1047.6000;0.2320;2.2977;
1047.9000;0.2483;2.3453;
1048.2000;0.2491;2.3453;
1048.5000;0.2532;2.3578;
1048.8000;0.2466;2.3403;
1049.1000;0.2499;2.3428;
1049.4000;0.2483;2.3328;
1049.7000;0.2499;2.3303;
1050.0000;0.2483;2.3378;
1050.3000;0.2466;2.3328;
1050.6000;0.2466;2.3378;
1050.9000;0.2458;2.3353;
1051.2000;0.2475;2.3328;
1051.5000;0.2483;2.3328;
1051.8000;0.2458;2.3203;
1052.1000;0.2499;2.3328;
1052.4000;0.2507;2.3303;
1052.7000;0.2499;2.3378;
1053.0000;0.2499;2.3403;
1053.3000;0.2466;2.3278;
1053.6000;0.2483;2.3353;
1053.9000;0.2475;2.3178;
1054.2000;0.2466;2.3002;
1054.5000;0.2475;2.3053;
1054.8000;0.2475;2.3178;
1055.1000;0.2523;2.3203;
1055.4000;0.2491;2.3178;
1055.7000;0.2475;2.3228;
1056.0000;0.2401;2.3053;
1056.3000;0.2466;2.3153;
1056.6000;0.2458;2.3153;
1056.9000;0.2499;2.3378;
1057.2000;0.2466;2.3253;
1057.5000;0.2466;2.3228;
1057.8000;0.2483;2.3178;
1058.1000;0.2499;2.3278;
1058.4000;0.2361;2.2902;
1058.7000;0.2475;2.3203;
1059.0000;0.2540;2.3353;
1059.3000;0.2475;2.3253;
1059.6000;0.2483;2.3303;
1059.9000;0.2507;2.3328;
1060.2000;0.2483;2.3303;
1060.5000;0.2491;2.3453;
1060.8000;0.2426;2.3253;
1061.1000;0.2507;2.3453;
1061.4000;0.2507;2.3403;
1061.7000;0.2499;2.3403;
1062.0000;0.2499;2.3453;
1062.3000;0.2564;2.3628;
1062.6000;0.2483;2.3453;
1062.9000;0.2499;2.3553;
1063.2000;0.2475;2.3478;
1063.5000;0.2475;2.3503;
1063.8000;0.2401;2.3253;
1064.1000;0.2556;2.3603;
1064.4000;0.2426;2.3328;
1064.7000;0.2670;2.3954;
1065.0000;0.2450;2.3378;
1065.3000;0.2523;2.3478;
1065.6000;0.2491;2.3403;
1065.9000;0.2532;2.3403;
1066.2000;0.2580;2.3528;
1066.5000;0.2475;2.3253;
1066.8000;0.2483;2.3328;
1067.1000;0.2458;2.3253;
1067.4000;0.2491;2.3328;
1067.7000;0.2450;2.3228;
1068.0000;0.2523;2.3378;
1068.3000;0.2475;2.3253;
1068.6000;0.2483;2.3303;
1068.9000;0.2507;2.3403;
1069.2000;0.2475;2.3253;
1069.5000;0.2499;2.3378;
1069.8000;0.2450;2.3328;
1070.1000;0.2450;2.3278;
1070.4000;0.2442;2.3353;
1070.7000;0.2491;2.3428;
1071.0000;0.2475;2.3203;
1071.3000;0.2532;2.3403;
1071.6000;0.2475;2.3203;
1071.9000;0.2507;2.3378;
1072.2000;0.2564;2.3628;
1072.5000;0.2491;2.3428;
1072.8000;0.2458;2.3278;
1073.1000;0.2450;2.3353;
1073.4000;0.2499;2.3403;
1073.7000;0.2385;2.3078;
1074.0000;0.2483;2.3303;
1074.3000;0.2475;2.3303;
1074.6000;0.2466;2.3353;
1074.9000;0.2426;2.3228;
1075.2000;0.2466;2.3303;
1075.5000;0.2475;2.3328;
1075.8000;0.2458;2.3228;
1076.1000;0.2483;2.3303;
1076.4000;0.2450;2.3203;
1076.7000;0.2507;2.3303;
1077.0000;0.2483;2.3203;
1077.3000;0.2483;2.3178;
1077.6000;0.2450;2.3203;
1077.9000;0.2393;2.3103;
1078.2000;0.2491;2.3353;
1078.5000;0.2466;2.3428;
1078.8000;0.2507;2.3553;
1079.1000;0.2475;2.3503;
1079.4000;0.2491;2.3528;
1079.7000;0.2466;2.3428;
1080.0000;0.2426;2.3303;
1080.3000;0.2466;2.3428;
1080.6000;0.2483;2.3528;
1080.9000;0.2515;2.3603;
1081.2000;0.2499;2.3578;
1081.5000;0.2458;2.3528;
1081.8000;0.2483;2.3553;
1082.1000;0.2483;2.3578;
1082.4000;0.2507;2.3653;
1082.7000;0.2491;2.3553;
1083.0000;0.2491;2.3478;
1083.3000;0.2466;2.3478;
1083.6000;0.2466;2.3478;
1083.9000;0.2483;2.3528;
1084.2000;0.2483;2.3578;
1084.5000;0.2507;2.3628;
1084.8000;0.2491;2.3603;
1085.1000;0.2483;2.3653;
1085.4000;0.2507;2.3653;
1085.7000;0.2483;2.3678;
1086.0000;0.2491;2.3653;
1086.3000;0.2393;2.3303;
1086.6000;0.2491;2.3528;
1086.9000;0.2434;2.3453;
1087.2000;0.2499;2.3553;
1087.5000;0.2515;2.3578;
1087.8000;0.2466;2.3503;
1088.1000;0.2458;2.3528;
1088.4000;0.2483;2.3678;
1088.7000;0.2466;2.3603;
1089.0000;0.2499;2.3728;
1089.3000;0.2491;2.3603;
1089.6000;0.2475;2.3578;
1089.9000;0.2491;2.3528;
1090.2000;0.2442;2.3378;
1090.5000;0.2532;2.3703;
1090.8000;0.2483;2.3603;
1091.1000;0.2491;2.3703;
1091.4000;0.2483;2.3578;
1091.7000;0.2466;2.3503;
1092.0000;0.2466;2.3453;
1092.3000;0.2475;2.3503;
1092.6000;0.2507;2.3603;
1092.9000;0.2466;2.3428;
1093.2000;0.2475;2.3428;
1093.5000;0.2434;2.3378;
1093.8000;0.2483;2.3453;
1094.1000;0.2418;2.3253;
1094.4000;0.2442;2.3328;
1094.7000;0.2491;2.3428;
1095.0000;0.2491;2.3528;
1095.3000;0.2491;2.3478;
1095.6000;0.2475;2.3428;
1095.9000;0.2483;2.3428;
1096.2000;0.2458;2.3303;
1096.5000;0.2450;2.3253;
1096.8000;0.2475;2.3353;
1097.1000;0.2491;2.3478;
1097.4000;0.2466;2.3528;
1097.7000;0.2442;2.3478;
1098.0000;0.2466;2.3528;
1098.3000;0.2458;2.3478;
1098.6000;0.2475;2.3503;
1098.9000;0.2475;2.3478;
1099.2000;0.2466;2.3403;
1099.5000;0.2458;2.3353;
1099.8000;0.2483;2.3353;
1100.1000;0.2466;2.3353;
1100.4000;0.2483;2.3378;
1100.7000;0.2507;2.3528;
1101.0000;0.2523;2.3603;
1101.3000;0.2507;2.3653;
1101.6000;0.2442;2.3428;
1101.9000;0.2499;2.3553;
1102.2000;0.2475;2.3503;
1102.5000;0.2499;2.3553;
1102.8000;0.2540;2.3753;
1103.1000;0.2475;2.3653;
1103.4000;0.2515;2.3703;
1103.7000;0.2483;2.3628;
1104.0000;0.2475;2.3653;
1104.3000;0.2483;2.3653;
1104.6000;0.2466;2.3528;
1104.9000;0.2483;2.3578;
1105.2000;0.2499;2.3553;
1105.5000;0.2483;2.3478;
1105.8000;0.2491;2.3478;
1106.1000;0.2491;2.3403;
1106.4000;0.2466;2.3278;
1106.7000;0.2450;2.3328;
1107.0000;0.2483;2.3403;
1107.3000;0.2466;2.3378;
1107.6000;0.2458;2.3503;
1107.9000;0.2466;2.3528;
1108.2000;0.2458;2.3503;
1108.5000;0.2466;2.3528;
1108.8000;0.2466;2.3553;
1109.1000;0.2369;2.3328;
1109.4000;0.2483;2.3603;
1109.7000;0.2450;2.3478;
1110.0000;0.2483;2.3653;
1110.3000;0.2483;2.3603;
1110.6000;0.2466;2.3503;
1110.9000;0.2466;2.3453;
1111.2000;0.2491;2.3453;
1111.5000;0.2458;2.3428;
1111.8000;0.2532;2.3628;
1112.1000;0.2466;2.3428;
1112.4000;0.2475;2.3478;
1112.7000;0.2466;2.3503;
1113.0000;0.2483;2.3528;
1113.3000;0.2556;2.3703;
1113.6000;0.2540;2.3753;
1113.9000;0.2475;2.3503;
1114.2000;0.2458;2.3378;
1114.5000;0.2483;2.3403;
1114.8000;0.2458;2.3328;
1115.1000;0.2458;2.3353;
1115.4000;0.2466;2.3478;
1115.7000;0.2466;2.3403;
1116.0000;0.2475;2.3353;
1116.3000;0.2507;2.3428;
1116.6000;0.2483;2.3403;
1116.9000;0.2466;2.3353;
1117.2000;0.2507;2.3553;
1117.5000;0.2499;2.3503;
1117.8000;0.2377;2.3153;
1118.1000;0.2548;2.3553;
1118.4000;0.2475;2.3328;
1118.7000;0.2458;2.3328;
1119.0000;0.2466;2.3353;
1119.3000;0.2491;2.3428;
1119.6000;0.2475;2.3403;
1119.9000;0.2491;2.3478;
1120.2000;0.2507;2.3403;
1120.5000;0.2483;2.3428;
1120.8000;0.2458;2.3478;
1121.1000;0.2507;2.3628;
1121.4000;0.2523;2.3603;
1121.7000;0.2532;2.3678;
1122.0000;0.2434;2.3278;
1122.3000;0.2466;2.3428;
1122.6000;0.2466;2.3478;
1122.9000;0.2483;2.3553;
1123.2000;0.2507;2.3503;
1123.5000;0.2556;2.3578;
1123.8000;0.2466;2.3328;
1124.1000;0.2491;2.3453;
1124.4000;0.2475;2.3303;
1124.7000;0.2507;2.3353;
1125.0000;0.2466;2.3328;
1125.3000;0.2458;2.3303;
1125.6000;0.2458;2.3228;
1125.9000;0.2466;2.3278;
1126.2000;0.2475;2.3278;
1126.5000;0.2491;2.3353;
1126.8000;0.2475;2.3403;
1127.1000;0.2499;2.3503;
1127.4000;0.2475;2.3453;
1127.7000;0.2458;2.3353;
1128.0000;0.2475;2.3453;
1128.3000;0.2466;2.3478;
1128.6000;0.2475;2.3503;
1128.9000;0.2475;2.3528;
1129.2000;0.2475;2.3528;
1129.5000;0.2499;2.3553;
1129.8000;0.2580;2.3728;
1130.1000;0.2393;2.3228;
1130.4000;0.2515;2.3703;
1130.7000;0.2499;2.3678;
1131.0000;0.2385;2.3328;
1131.3000;0.2491;2.3528;
1131.6000;0.2491;2.3528;
1131.9000;0.2499;2.3503;
1132.2000;0.2475;2.3453;
1132.5000;0.2483;2.3453;
1132.8000;0.2556;2.3728;
1133.1000;0.2548;2.3728;
1133.4000;0.2491;2.3553;
1133.7000;0.2507;2.3503;
1134.0000;0.2507;2.3553;
1134.3000;0.2483;2.3528;
1134.6000;0.2475;2.3453;
1134.9000;0.2475;2.3378;
1135.2000;0.2491;2.3428;
1135.5000;0.2491;2.3428;
1135.8000;0.2361;2.3153;
1136.1000;0.2491;2.3478;
1136.4000;0.2466;2.3428;
1136.7000;0.2491;2.3553;
1137.0000;0.2475;2.3553;
1137.3000;0.2483;2.3503;
1137.6000;0.2475;2.3428;
1137.9000;0.2475;2.3428;
1138.2000;0.2475;2.3353;
1138.5000;0.2540;2.3578;
1138.8000;0.2523;2.3503;
1139.1000;0.2466;2.3378;
1139.4000;0.2483;2.3428;
1139.7000;0.2483;2.3428;
1140.0000;0.2442;2.3428;
1140.3000;0.2393;2.3203;
1140.6000;0.2483;2.3503;
1140.9000;0.2483;2.3578;
1141.2000;0.2483;2.3503;
1141.5000;0.2475;2.3553;
1141.8000;0.2458;2.3578;
1142.1000;0.2491;2.3553;
1142.4000;0.2466;2.3453;
1142.7000;0.2491;2.3453;
1143.0000;0.2475;2.3453;
1143.3000;0.2491;2.3453;
1143.6000;0.2523;2.3703;
1143.9000;0.2499;2.3603;
1144.2000;0.2483;2.3503;
1144.5000;0.2540;2.3778;
1144.8000;0.2475;2.3528;
1145.1000;0.2475;2.3503;
1145.4000;0.2466;2.3453;
1145.7000;0.2434;2.3428;
1146.0000;0.2491;2.3678;
1146.3000;0.2507;2.3753;
1146.6000;0.2483;2.3703;
1146.9000;0.2483;2.3703;
1147.2000;0.2466;2.3578;
1147.5000;0.2475;2.3553;
1147.8000;0.2458;2.3478;
1148.1000;0.2491;2.3453;
1148.4000;0.2442;2.3328;
1148.7000;0.2393;2.3103;
1149.0000;0.2532;2.3503;
1149.3000;0.2491;2.3428;
1149.6000;0.2483;2.3428;
1149.9000;0.2475;2.3303;
1150.2000;0.2466;2.3228;
1150.5000;0.2523;2.3403;
1150.8000;0.2483;2.3403;
1151.1000;0.2523;2.3403;
1151.4000;0.2466;2.3303;
1151.7000;0.2491;2.3453;
1152.0000;0.2483;2.3403;
1152.3000;0.2499;2.3528;
1152.6000;0.2466;2.3503;
1152.9000;0.2491;2.3503;
1153.2000;0.2491;2.3478;
1153.5000;0.2409;2.3128;
1153.8000;0.2458;2.3253;
1154.1000;0.2442;2.3078;
1154.4000;0.2344;2.2852;
1154.7000;0.2499;2.3203;
1155.0000;0.2466;2.3103;
1155.3000;0.2491;2.3328;
1155.6000;0.2466;2.3303;
1155.9000;0.2458;2.3328;
1156.2000;0.2523;2.3428;
1156.5000;0.2491;2.3303;
1156.8000;0.2670;2.3803;
1157.1000;0.2556;2.3428;
1157.4000;0.2483;2.3253;
1157.7000;0.2475;2.3203;
1158.0000;0.2442;2.3128;
1158.3000;0.2475;2.3253;
1158.6000;0.2515;2.3478;
1158.9000;0.2499;2.3453;
1159.2000;0.2483;2.3453;
1159.5000;0.2483;2.3503;
1159.8000;0.2515;2.3403;
1160.1000;0.2491;2.3328;
1160.4000;0.2426;2.3128;
1160.7000;0.2466;2.3278;
1161.0000;0.2466;2.3303;
1161.3000;0.2466;2.3278;
1161.6000;0.2540;2.3478;
1161.9000;0.2466;2.3328;
1162.2000;0.2515;2.3378;
1162.5000;0.2507;2.3353;
1162.8000;0.2491;2.3428;
1163.1000;0.2466;2.3328;
1163.4000;0.2499;2.3328;
1163.7000;0.2466;2.3228;
1164.0000;0.2475;2.3203;
1164.3000;0.2507;2.3203;
1164.6000;0.2507;2.3078;
1164.9000;0.2499;2.3153;
1165.2000;0.2475;2.3203;
1165.5000;0.2483;2.3178;
1165.8000;0.2458;2.3053;
1166.1000;0.2475;2.3027;
1166.4000;0.2466;2.2977;
1166.7000;0.2466;2.3027;
1167.0000;0.2523;2.3178;
1167.3000;0.2491;2.3078;
1167.6000;0.2466;2.3153;
1167.9000;0.2507;2.3228;
1168.2000;0.2466;2.3128;
1168.5000;0.2475;2.3078;
1168.8000;0.2466;2.3103;
1169.1000;0.2491;2.3178;
1169.4000;0.2507;2.3103;
1169.7000;0.2499;2.3053;
1170.0000;0.2466;2.2927;
1170.3000;0.2491;2.2977;
1170.6000;0.2515;2.3078;
1170.9000;0.2548;2.3103;
1171.2000;0.2499;2.2952;
1171.5000;0.2466;2.2977;
1171.8000;0.2515;2.3153;
1172.1000;0.2483;2.3103;
1172.4000;0.2491;2.3303;
1172.7000;0.2483;2.3228;
1173.0000;0.2466;2.3178;
1173.3000;0.2499;2.3253;
1173.6000;0.2483;2.3303;
1173.9000;0.2458;2.3328;
1174.2000;0.2507;2.3528;
1174.5000;0.2483;2.3428;
1174.8000;0.2507;2.3503;
1175.1000;0.2483;2.3428;
1175.4000;0.2466;2.3353;
1175.7000;0.2426;2.3228;
1176.0000;0.2499;2.3428;
1176.3000;0.2466;2.3303;
1176.6000;0.2458;2.3353;
1176.9000;0.2491;2.3428;
1177.2000;0.2507;2.3428;
1177.5000;0.2499;2.3328;
1177.8000;0.2475;2.3253;
1178.1000;0.2352;2.2902;
1178.4000;0.2564;2.3428;
1178.7000;0.2483;2.3178;
1179.0000;0.2418;2.3002;
1179.3000;0.2475;2.3153;
1179.6000;0.2466;2.3153;
1179.9000;0.2483;2.3203;
1180.2000;0.2532;2.3403;
1180.5000;0.2499;2.3378;
1180.8000;0.2483;2.3403;
1181.1000;0.2540;2.3653;
1181.4000;0.2515;2.3653;
1181.7000;0.2458;2.3428;
1182.0000;0.2483;2.3453;
1182.3000;0.2409;2.3353;
1182.6000;0.2507;2.3578;
1182.9000;0.2483;2.3578;
1183.2000;0.2369;2.3253;
1183.5000;0.2434;2.3328;
1183.8000;0.2507;2.3503;
1184.1000;0.2507;2.3528;
1184.4000;0.2483;2.3378;
1184.7000;0.2466;2.3378;
1185.0000;0.2475;2.3453;
1185.3000;0.2475;2.3478;
1185.6000;0.2483;2.3478;
1185.9000;0.2491;2.3403;
1186.2000;0.2442;2.3253;
1186.5000;0.2499;2.3428;
1186.8000;0.2466;2.3328;
1187.1000;0.2540;2.3478;
1187.4000;0.2491;2.3403;
1187.7000;0.2475;2.3428;
1188.0000;0.2466;2.3403;
1188.3000;0.2548;2.3603;
1188.6000;0.2475;2.3453;
1188.9000;0.2466;2.3378;
1189.2000;0.2450;2.3303;
1189.5000;0.2499;2.3353;
1189.8000;0.2491;2.3378;
1190.1000;0.2499;2.3378;
1190.4000;0.2483;2.3403;
1190.7000;0.2540;2.3603;
1191.0000;0.2434;2.3378;
1191.3000;0.2393;2.3178;
1191.6000;0.2491;2.3428;
1191.9000;0.2483;2.3428;
1192.2000;0.2483;2.3428;
1192.5000;0.2507;2.3428;
1192.8000;0.2499;2.3303;
1193.1000;0.2483;2.3178;
1193.4000;0.2499;2.3253;
1193.7000;0.2361;2.2927;
1194.0000;0.2466;2.3328;
1194.3000;0.2499;2.3453;
1194.6000;0.2418;2.3328;
1194.9000;0.2466;2.3528;
1195.2000;0.2483;2.3603;
1195.5000;0.2499;2.3628;
1195.8000;0.2475;2.3478;
1196.1000;0.2532;2.3553;
1196.4000;0.2458;2.3403;
1196.7000;0.2523;2.3528;
1197.0000;0.2491;2.3353;
1197.3000;0.2475;2.3403;
1197.6000;0.2523;2.3428;
1197.9000;0.2475;2.3328;
1198.2000;0.2458;2.3278;
1198.5000;0.2475;2.3278;
1198.8000;0.2499;2.3378;
1199.1000;0.2491;2.3403;
1199.4000;0.2483;2.3378;
1199.7000;0.2442;2.3278;
1200.0000;0.2483;2.3328;
1200.3000;0.2507;2.3428;
1200.6000;0.2499;2.3453;
1200.9000;0.2483;2.3303;
1201.2000;0.2507;2.3303;
1201.5000;0.2475;2.3378;
1201.8000;0.2475;2.3478;
1202.1000;0.2466;2.3403;
1202.4000;0.2499;2.3453;
1202.7000;0.2515;2.3553;
1203.0000;0.2401;2.3253;
1203.3000;0.2458;2.3428;
1203.6000;0.2475;2.3603;
1203.9000;0.2491;2.3528;
1204.2000;0.2475;2.3503;
1204.5000;0.2499;2.3553;
1204.8000;0.2458;2.3478;
1205.1000;0.2483;2.3603;
1205.4000;0.2499;2.3578;
1205.7000;0.2475;2.3553;
1206.0000;0.2491;2.3653;
1206.3000;0.2466;2.3503;
1206.6000;0.2499;2.3653;
1206.9000;0.2483;2.3628;
1207.2000;0.2475;2.3553;
1207.5000;0.2475;2.3553;
1207.8000;0.2499;2.3628;
1208.1000;0.2491;2.3603;
1208.4000;0.2491;2.3603;
1208.7000;0.2532;2.3653;
1209.0000;0.2491;2.3528;
1209.3000;0.2466;2.3378;
1209.6000;0.2532;2.3603;
1209.9000;0.2475;2.3428;
1210.2000;0.2491;2.3528;
1210.5000;0.2523;2.3553;
1210.8000;0.2499;2.3453;
1211.1000;0.2499;2.3503;
1211.4000;0.2475;2.3478;
1211.7000;0.2491;2.3603;
1212.0000;0.2483;2.3603;
1212.3000;0.2393;2.3328;
1212.6000;0.2483;2.3528;
1212.9000;0.2458;2.3428;
1213.2000;0.2491;2.3478;
1213.5000;0.2450;2.3453;
1213.8000;0.2548;2.3578;
1214.1000;0.2475;2.3278;
1214.4000;0.2466;2.3228;
1214.7000;0.2491;2.3278;
1215.0000;0.2458;2.3278;
1215.3000;0.2466;2.3253;
1215.6000;0.2499;2.3353;
1215.9000;0.2491;2.3428;
1216.2000;0.2483;2.3428;
1216.5000;0.2409;2.3178;
1216.8000;0.2499;2.3403;
1217.1000;0.2629;2.3853;
1217.4000;0.2491;2.3503;
1217.7000;0.2458;2.3453;
1218.0000;0.2426;2.3403;
1218.3000;0.2491;2.3553;
1218.6000;0.2361;2.3178;
1218.9000;0.2483;2.3478;
1219.2000;0.2499;2.3478;
1219.5000;0.2515;2.3553;
1219.8000;0.2491;2.3503;
1220.1000;0.2499;2.3553;
1220.4000;0.2475;2.3428;
1220.7000;0.2540;2.3453;
1221.0000;0.2499;2.3378;
1221.3000;0.2491;2.3253;
1221.6000;0.2499;2.3253;
1221.9000;0.2475;2.3178;
1222.2000;0.2475;2.3228;
1222.5000;0.2475;2.3228;
1222.8000;0.2491;2.3353;
1223.1000;0.2483;2.3353;
1223.4000;0.2507;2.3503;
1223.7000;0.2532;2.3678;
1224.0000;0.2491;2.3528;
1224.3000;0.2475;2.3453;
1224.6000;0.2458;2.3478;
1224.9000;0.2491;2.3628;
1225.2000;0.2458;2.3628;
1225.5000;0.2458;2.3628;
1225.8000;0.2483;2.3703;
1226.1000;0.2466;2.3603;
1226.4000;0.2434;2.3478;
1226.7000;0.2475;2.3453;
1227.0000;0.2515;2.3553;
1227.3000;0.2483;2.3528;
1227.6000;0.2483;2.3528;
1227.9000;0.2466;2.3503;
1228.2000;0.2556;2.3728;
1228.5000;0.2515;2.3553;
1228.8000;0.2483;2.3503;
1229.1000;0.2458;2.3403;
1229.4000;0.2475;2.3503;
1229.7000;0.2532;2.3553;
1230.0000;0.2523;2.3603;
1230.3000;0.2507;2.3603;
1230.6000;0.2499;2.3578;
1230.9000;0.2491;2.3653;
1231.2000;0.2418;2.3453;
1231.5000;0.2499;2.3728;
1231.8000;0.2483;2.3653;
1232.1000;0.2499;2.3603;
1232.4000;0.2491;2.3453;
1232.7000;0.2515;2.3553;
1233.0000;0.2491;2.3503;
1233.3000;0.2483;2.3528;
1233.6000;0.2483;2.3628;
1233.9000;0.2491;2.3628;
1234.2000;0.2458;2.3628;
1234.5000;0.2426;2.3553;
1234.8000;0.2483;2.3703;
1235.1000;0.2548;2.3803;
1235.4000;0.2499;2.3528;
1235.7000;0.2475;2.3403;
1236.0000;0.2499;2.3503;
1236.3000;0.2475;2.3478;
1236.6000;0.2491;2.3528;
1236.9000;0.2491;2.3503;
1237.2000;0.2475;2.3553;
1237.5000;0.2458;2.3453;
1237.8000;0.2491;2.3453;
1238.1000;0.2491;2.3478;
1238.4000;0.2499;2.3353;
1238.7000;0.2499;2.3453;
1239.0000;0.2409;2.3328;
1239.3000;0.2499;2.3503;
1239.6000;0.2483;2.3528;
1239.9000;0.2507;2.3628;
1240.2000;0.2483;2.3503;
1240.5000;0.2507;2.3553;
1240.8000;0.2466;2.3453;
1241.1000;0.2475;2.3453;
1241.4000;0.2483;2.3453;
1241.7000;0.2483;2.3428;
1242.0000;0.2499;2.3403;
1242.3000;0.2483;2.3403;
1242.6000;0.2523;2.3478;
1242.9000;0.2450;2.3303;
1243.2000;0.2483;2.3428;
1243.5000;0.2507;2.3503;
1243.8000;0.2629;2.3904;
1244.1000;0.2466;2.3528;
1244.4000;0.2556;2.3803;
1244.7000;0.2426;2.3478;
1245.0000;0.2491;2.3678;
1245.3000;0.2483;2.3653;
1245.6000;0.2466;2.3653;
1245.9000;0.2466;2.3703;
1246.2000;0.2507;2.3778;
1246.5000;0.2458;2.3628;
1246.8000;0.2475;2.3728;
1247.1000;0.2466;2.3678;
1247.4000;0.2499;2.3653;
1247.7000;0.2475;2.3553;
1248.0000;0.2499;2.3628;
1248.3000;0.2458;2.3553;
1248.6000;0.2426;2.3428;
1248.9000;0.2409;2.3353;
1249.2000;0.2491;2.3553;
1249.5000;0.2475;2.3553;
1249.8000;0.2369;2.3253;
1250.1000;0.2458;2.3528;
1250.4000;0.2491;2.3578;
1250.7000;0.2580;2.3803;
1251.0000;0.2483;2.3578;
1251.3000;0.2532;2.3703;
1251.6000;0.2466;2.3553;
1251.9000;0.2434;2.3478;
1252.2000;0.2499;2.3728;
1252.5000;0.2483;2.3678;
1252.8000;0.2458;2.3603;
1253.1000;0.2483;2.3753;
1253.4000;0.2466;2.3753;
1253.7000;0.2475;2.3728;
1254.0000;0.2507;2.3778;
1254.3000;0.2491;2.3678;
1254.6000;0.2507;2.3653;
1254.9000;0.2499;2.3678;
1255.2000;0.2491;2.3653;
1255.5000;0.2491;2.3578;
1255.8000;0.2483;2.3478;
1256.1000;0.2507;2.3478;
1256.4000;0.2507;2.3603;
1256.7000;0.2475;2.3528;
1257.0000;0.2491;2.3428;
1257.3000;0.2483;2.3428;
1257.6000;0.2507;2.3578;
1257.9000;0.2483;2.3603;
1258.2000;0.2499;2.3703;
1258.5000;0.2613;2.4054;
1258.8000;0.2450;2.3628;
1259.1000;0.2499;2.3703;
1259.4000;0.2450;2.3578;
1259.7000;0.2475;2.3553;
1260.0000;0.2491;2.3728;
1260.3000;0.2483;2.3653;
1260.6000;0.2499;2.3678;
1260.9000;0.2507;2.3753;
1261.2000;0.2466;2.3628;
1261.5000;0.2401;2.3478;
1261.8000;0.2483;2.3703;
1262.1000;0.2491;2.3828;
1262.4000;0.2499;2.3803;
1262.7000;0.2499;2.3728;
1263.0000;0.2491;2.3703;
1263.3000;0.2458;2.3553;
1263.6000;0.2483;2.3603;
1263.9000;0.2589;2.3828;
1264.2000;0.2483;2.3553;
1264.5000;0.2466;2.3603;
1264.8000;0.2442;2.3528;
1265.1000;0.2507;2.3703;
1265.4000;0.2515;2.3728;
1265.7000;0.2499;2.3703;
1266.0000;0.2491;2.3653;
1266.3000;0.2491;2.3603;
1266.6000;0.2491;2.3578;
1266.9000;0.2483;2.3603;
1267.2000;0.2418;2.3503;
1267.5000;0.2442;2.3603;
1267.8000;0.2540;2.3954;
1268.1000;0.2491;2.3803;
1268.4000;0.2483;2.3753;
1268.7000;0.2466;2.3753;
1269.0000;0.2483;2.3778;
1269.3000;0.2491;2.3728;
1269.6000;0.2499;2.3753;
1269.9000;0.2532;2.3778;
1270.2000;0.2564;2.3929;
1270.5000;0.2483;2.3703;
1270.8000;0.2507;2.3778;
1271.1000;0.2458;2.3628;
1271.4000;0.2515;2.3828;
1271.7000;0.2483;2.3728;
1272.0000;0.2466;2.3553;
1272.3000;0.2475;2.3578;
1272.6000;0.2540;2.3728;
1272.9000;0.2426;2.3478;
1273.2000;0.2572;2.3904;
1273.5000;0.2483;2.3578;
1273.8000;0.2352;2.3153;
1274.1000;0.2475;2.3528;
1274.4000;0.2466;2.3578;
1274.7000;0.2523;2.3753;
1275.0000;0.2483;2.3653;
1275.3000;0.2499;2.3653;
1275.6000;0.2499;2.3653;
1275.9000;0.2515;2.3653;
1276.2000;0.2466;2.3628;
1276.5000;0.2475;2.3603;
1276.8000;0.2475;2.3528;
1277.1000;0.2507;2.3553;
1277.4000;0.2491;2.3428;
1277.7000;0.2466;2.3503;
1278.0000;0.2491;2.3553;
1278.3000;0.2442;2.3478;
1278.6000;0.2450;2.3578;
1278.9000;0.2475;2.3553;
1279.2000;0.2458;2.3553;
1279.5000;0.2491;2.3578;
1279.8000;0.2515;2.3678;
1280.1000;0.2483;2.3578;
1280.4000;0.2475;2.3553;
1280.7000;0.2475;2.3553;
1281.0000;0.2475;2.3603;
1281.3000;0.2491;2.3578;
1281.6000;0.2475;2.3528;
1281.9000;0.2499;2.3653;
1282.2000;0.2458;2.3578;
1282.5000;0.2491;2.3678;
1282.8000;0.2483;2.3653;
1283.1000;0.2483;2.3678;
1283.4000;0.2499;2.3778;
1283.7000;0.2475;2.3653;
1284.0000;0.2475;2.3603;
1284.3000;0.2483;2.3653;
1284.6000;0.2499;2.3678;
1284.9000;0.2458;2.3553;
1285.2000;0.2491;2.3728;
1285.5000;0.2499;2.3803;
1285.8000;0.2572;2.4029;
1286.1000;0.2483;2.3678;
1286.4000;0.2515;2.3828;
1286.7000;0.2442;2.3553;
1287.0000;0.2507;2.3728;
1287.3000;0.2475;2.3603;
1287.6000;0.2491;2.3578;
1287.9000;0.2418;2.3428;
1288.2000;0.2507;2.3753;
1288.5000;0.2499;2.3628;
1288.8000;0.2458;2.3403;
1289.1000;0.2491;2.3578;
1289.4000;0.2483;2.3678;
1289.7000;0.2523;2.3828;
1290.0000;0.2491;2.3628;
1290.3000;0.2507;2.3628;
1290.6000;0.2475;2.3528;
1290.9000;0.2523;2.3528;
1291.2000;0.2450;2.3178;
1291.5000;0.2475;2.3203;
1291.8000;0.2450;2.3128;
1292.1000;0.2450;2.3128;
1292.4000;0.2499;2.3378;
1292.7000;0.2483;2.3378;
1293.0000;0.2483;2.3403;
1293.3000;0.2499;2.3478;
1293.6000;0.2499;2.3503;
1293.9000;0.2491;2.3428;
1294.2000;0.2515;2.3478;
1294.5000;0.2491;2.3478;
1294.8000;0.2515;2.3453;
1295.1000;0.2434;2.3153;
1295.4000;0.2507;2.3303;
1295.7000;0.2507;2.3228;
1296.0000;0.2491;2.3203;
1296.3000;0.2483;2.3253;
1296.6000;0.2499;2.3378;
1296.9000;0.2507;2.3328;
1297.2000;0.2507;2.3303;
1297.5000;0.2466;2.3228;
1297.8000;0.2499;2.3353;
1298.1000;0.2515;2.3453;
1298.4000;0.2483;2.3378;
1298.7000;0.2458;2.3378;
1299.0000;0.2466;2.3378;
1299.3000;0.2507;2.3503;
1299.6000;0.2532;2.3728;
1299.9000;0.2466;2.3528;
1300.2000;0.2393;2.3353;
1300.5000;0.2483;2.3628;
1300.8000;0.2475;2.3678;
1301.1000;0.2491;2.3728;
1301.4000;0.2572;2.3929;
1301.7000;0.2491;2.3678;
1302.0000;0.2491;2.3553;
1302.3000;0.2556;2.3703;
1302.6000;0.2589;2.3728;
1302.9000;0.2466;2.3428;
1303.2000;0.2499;2.3503;
1303.5000;0.2483;2.3553;
1303.8000;0.2450;2.3528;
1304.1000;0.2393;2.3328;
1304.4000;0.2507;2.3653;
1304.7000;0.2475;2.3553;
1305.0000;0.2483;2.3528;
1305.3000;0.2483;2.3428;
1305.6000;0.2564;2.3578;
1305.9000;0.2491;2.3478;
1306.2000;0.2515;2.3578;
1306.5000;0.2466;2.3378;
1306.8000;0.2597;2.3703;
1307.1000;0.2515;2.3553;
1307.4000;0.2499;2.3578;
1307.7000;0.2491;2.3453;
1308.0000;0.2475;2.3478;
1308.3000;0.2515;2.3528;
1308.6000;0.2458;2.3328;
1308.9000;0.2572;2.3578;
1309.2000;0.2483;2.3203;
1309.5000;0.2483;2.3153;
1309.8000;0.2434;2.2952;
1310.1000;0.2491;2.3228;
1310.4000;0.2458;2.3203;
1310.7000;0.2426;2.3153;
1311.0000;0.2499;2.3303;
1311.3000;0.2450;2.3228;
1311.6000;0.2466;2.3228;
1311.9000;0.2434;2.3153;
1312.2000;0.2515;2.3378;
1312.5000;0.2523;2.3353;
1312.8000;0.2483;2.3253;
1313.1000;0.2499;2.3278;
1313.4000;0.2442;2.3053;
1313.7000;0.2523;2.3328;
1314.0000;0.2491;2.3353;
1314.3000;0.2491;2.3453;
1314.6000;0.2532;2.3578;
1314.9000;0.2458;2.3328;
1315.2000;0.2458;2.3278;
1315.5000;0.2499;2.3378;
1315.8000;0.2507;2.3453;
1316.1000;0.2499;2.3428;
1316.4000;0.2532;2.3478;
1316.7000;0.2507;2.3428;
1317.0000;0.2491;2.3328;
1317.3000;0.2483;2.3253;
1317.6000;0.2507;2.3328;
1317.9000;0.2466;2.3303;
1318.2000;0.2466;2.3353;
1318.5000;0.2499;2.3428;
1318.8000;0.2475;2.3353;
1319.1000;0.2589;2.3703;
1319.4000;0.2483;2.3453;
1319.7000;0.2475;2.3453;
1320.0000;0.2466;2.3428;
1320.3000;0.2442;2.3328;
1320.6000;0.2434;2.3253;
1320.9000;0.2483;2.3353;
1321.2000;0.2515;2.3428;
1321.5000;0.2475;2.3403;
1321.8000;0.2475;2.3403;
1322.1000;0.2466;2.3353;
1322.4000;0.2515;2.3428;
1322.7000;0.2507;2.3503;
1323.0000;0.2466;2.3428;
1323.3000;0.2548;2.3678;
1323.6000;0.2483;2.3478;
1323.9000;0.2499;2.3428;
1324.2000;0.2597;2.3678;
1324.5000;0.2475;2.3303;
1324.8000;0.2475;2.3253;
1325.1000;0.2475;2.3103;
1325.4000;0.2466;2.3002;
1325.7000;0.2499;2.3078;
1326.0000;0.2483;2.3128;
1326.3000;0.2483;2.3128;
1326.6000;0.2466;2.3128;
1326.9000;0.2491;2.3153;
1327.2000;0.2491;2.3128;
1327.5000;0.2491;2.3178;
1327.8000;0.2515;2.3153;
1328.1000;0.2621;2.3478;
1328.4000;0.2426;2.3027;
1328.7000;0.2523;2.3253;
1329.0000;0.2499;2.3153;
1329.3000;0.2475;2.3053;
1329.6000;0.2499;2.3178;
1329.9000;0.2483;2.3203;
1330.2000;0.2499;2.3203;
1330.5000;0.2491;2.3053;
1330.8000;0.2515;2.2977;
1331.1000;0.2499;2.2977;
1331.4000;0.2475;2.2877;
1331.7000;0.2483;2.2877;
1332.0000;0.2483;2.2952;
1332.3000;0.2507;2.3053;
1332.6000;0.2450;2.2977;
1332.9000;0.2491;2.3002;
1333.2000;0.2491;2.3103;
1333.5000;0.2507;2.3253;
1333.8000;0.2475;2.3178;
1334.1000;0.2491;2.3278;
1334.4000;0.2475;2.3153;
1334.7000;0.2613;2.3603;
1335.0000;0.2572;2.3578;
1335.3000;0.2491;2.3403;
1335.6000;0.2491;2.3353;
1335.9000;0.2418;2.3128;
1336.2000;0.2475;2.3253;
1336.5000;0.2523;2.3403;
1336.8000;0.2466;2.3303;
1337.1000;0.2483;2.3303;
1337.4000;0.2499;2.3378;
1337.7000;0.2515;2.3328;
1338.0000;0.2466;2.3178;
1338.3000;0.2523;2.3328;
1338.6000;0.2515;2.3303;
1338.9000;0.2507;2.3303;
1339.2000;0.2466;2.3278;
1339.5000;0.2483;2.3253;
1339.8000;0.2491;2.3253;
1340.1000;0.2475;2.3253;
1340.4000;0.2483;2.3278;
1340.7000;0.2475;2.3228;
1341.0000;0.2491;2.3253;
1341.3000;0.2483;2.3303;
1341.6000;0.2475;2.3178;
1341.9000;0.2458;2.3153;
1342.2000;0.2475;2.3228;
1342.5000;0.2515;2.3353;
1342.8000;0.2507;2.3453;
1343.1000;0.2507;2.3503;
1343.4000;0.2466;2.3303;
1343.7000;0.2466;2.3378;
1344.0000;0.2548;2.3553;
1344.3000;0.2532;2.3478;
1344.6000;0.2475;2.3353;
1344.9000;0.2466;2.3278;
1345.2000;0.2515;2.3328;
1345.5000;0.2483;2.3253;
1345.8000;0.2491;2.3328;
1346.1000;0.2499;2.3278;
1346.4000;0.2458;2.3178;
1346.7000;0.2507;2.3178;
1347.0000;0.2507;2.3128;
1347.3000;0.2523;2.3128;
1347.6000;0.2385;2.2777;
1347.9000;0.2515;2.3027;
1348.2000;0.2499;2.3002;
1348.5000;0.2475;2.2977;
1348.8000;0.2483;2.3078;
1349.1000;0.2499;2.3153;
1349.4000;0.2499;2.3178;
1349.7000;0.2523;2.3253;
1350.0000;0.2312;2.2827;
1350.3000;0.2491;2.3328;
1350.6000;0.2426;2.3027;
1350.9000;0.2491;2.3203;
1351.2000;0.2564;2.3453;
1351.5000;0.2507;2.3303;
1351.8000;0.2507;2.3328;
1352.1000;0.2507;2.3378;
1352.4000;0.2491;2.3303;
1352.7000;0.2507;2.3253;
1353.0000;0.2507;2.3328;
1353.3000;0.2499;2.3403;
1353.6000;0.2458;2.3403;
1353.9000;0.2475;2.3403;
1354.2000;0.2483;2.3478;
1354.5000;0.2475;2.3428;
1354.8000;0.2475;2.3453;
1355.1000;0.2523;2.3503;
1355.4000;0.2507;2.3428;
1355.7000;0.2458;2.3203;
1356.0000;0.2491;2.3353;
1356.3000;0.2483;2.3278;
1356.6000;0.2483;2.3253;
1356.9000;0.2450;2.3253;
1357.2000;0.2483;2.3303;
1357.5000;0.2507;2.3378;
1357.8000;0.2483;2.3353;
1358.1000;0.2409;2.3303;
1358.4000;0.2491;2.3503;
1358.7000;0.2589;2.3803;
1359.0000;0.2499;2.3478;
1359.3000;0.2458;2.3403;
1359.6000;0.2491;2.3353;
1359.9000;0.2279;2.2777;
1360.2000;0.2475;2.3253;
1360.5000;0.2507;2.3328;
1360.8000;0.2466;2.3328;
1361.1000;0.2442;2.3303;
1361.4000;0.2499;2.3403;
1361.7000;0.2466;2.3353;
1362.0000;0.2442;2.3353;
1362.3000;0.2475;2.3478;
1362.6000;0.2450;2.3428;
1362.9000;0.2483;2.3503;
1363.2000;0.2458;2.3578;
1363.5000;0.2491;2.3728;
1363.8000;0.2458;2.3578;
1364.1000;0.2491;2.3703;
1364.4000;0.2491;2.3728;
1364.7000;0.2483;2.3678;
1365.0000;0.2491;2.3728;
1365.3000;0.2466;2.3753;
1365.6000;0.2466;2.3678;
1365.9000;0.2507;2.3803;
1366.2000;0.2483;2.3828;
1366.5000;0.2475;2.3778;
1366.8000;0.2491;2.3778;
1367.1000;0.2442;2.3503;
1367.4000;0.2491;2.3603;
1367.7000;0.2483;2.3578;
1368.0000;0.2466;2.3503;
1368.3000;0.2475;2.3528;
1368.6000;0.2499;2.3628;
1368.9000;0.2475;2.3478;
1369.2000;0.2523;2.3653;
1369.5000;0.2507;2.3653;
1369.8000;0.2515;2.3678;
1370.1000;0.2483;2.3603;
1370.4000;0.2499;2.3678;
1370.7000;0.2377;2.3303;
1371.0000;0.2450;2.3553;
1371.3000;0.2491;2.3653;
1371.6000;0.2483;2.3578;
1371.9000;0.2507;2.3578;
1372.2000;0.2483;2.3453;
1372.5000;0.2499;2.3403;
1372.8000;0.2483;2.3378;
1373.1000;0.2523;2.3503;
1373.4000;0.2466;2.3428;
1373.7000;0.2483;2.3428;
1374.0000;0.2475;2.3403;
1374.3000;0.2499;2.3528;
1374.6000;0.2475;2.3478;
1374.9000;0.2483;2.3428;
1375.2000;0.2475;2.3278;
1375.5000;0.2483;2.3328;
1375.8000;0.2483;2.3303;
1376.1000;0.2515;2.3503;
1376.4000;0.2491;2.3528;
1376.7000;0.2515;2.3628;
1377.0000;0.2499;2.3553;
1377.3000;0.2483;2.3478;
1377.6000;0.2491;2.3528;
1377.9000;0.2475;2.3528;
1378.2000;0.2458;2.3478;
1378.5000;0.2483;2.3503;
1378.8000;0.2491;2.3503;
1379.1000;0.2499;2.3553;
1379.4000;0.2499;2.3628;
1379.7000;0.2483;2.3603;
1380.0000;0.2483;2.3528;
1380.3000;0.2475;2.3503;
1380.6000;0.2458;2.3503;
1380.9000;0.2556;2.3778;
1381.2000;0.2483;2.3603;
1381.5000;0.2483;2.3503;
1381.8000;0.2418;2.3303;
1382.1000;0.2361;2.3103;
1382.4000;0.2491;2.3453;
1382.7000;0.2491;2.3478;
1383.0000;0.2507;2.3478;
1383.3000;0.2507;2.3528;
1383.6000;0.2499;2.3578;
1383.9000;0.2442;2.3403;
1384.2000;0.2499;2.3578;
1384.5000;0.2483;2.3528;
1384.8000;0.2466;2.3503;
1385.1000;0.2491;2.3628;
1385.4000;0.2491;2.3553;
1385.7000;0.2491;2.3553;
1386.0000;0.2466;2.3503;
1386.3000;0.2491;2.3528;
1386.6000;0.2466;2.3378;
1386.9000;0.2466;2.3328;
1387.2000;0.2507;2.3378;
1387.5000;0.2499;2.3403;
1387.8000;0.2466;2.3353;
1388.1000;0.2475;2.3353;
1388.4000;0.2499;2.3428;
1388.7000;0.2475;2.3428;
1389.0000;0.2491;2.3528;
1389.3000;0.2515;2.3553;
1389.6000;0.2475;2.3453;
1389.9000;0.2507;2.3528;
1390.2000;0.2499;2.3528;
1390.5000;0.2491;2.3528;
1390.8000;0.2523;2.3678;
1391.1000;0.2499;2.3678;
1391.4000;0.2483;2.3703;
1391.7000;0.2466;2.3528;
1392.0000;0.2483;2.3628;
1392.3000;0.2507;2.3653;
1392.6000;0.2466;2.3478;
1392.9000;0.2483;2.3428;
1393.2000;0.2491;2.3428;
1393.5000;0.2475;2.3403;
1393.8000;0.2483;2.3478;
1394.1000;0.2507;2.3628;
1394.4000;0.2491;2.3603;
1394.7000;0.2466;2.3578;
1395.0000;0.2499;2.3653;
1395.3000;0.2515;2.3653;
1395.6000;0.2491;2.3528;
1395.9000;0.2491;2.3478;
1396.2000;0.2491;2.3478;
1396.5000;0.2499;2.3453;
1396.8000;0.2515;2.3553;
1397.1000;0.2499;2.3528;
1397.4000;0.2507;2.3528;
1397.7000;0.2499;2.3503;
1398.0000;0.2483;2.3428;
1398.3000;0.2491;2.3528;
1398.6000;0.2499;2.3703;
1398.9000;0.2491;2.3728;
1399.2000;0.2475;2.3678;
1399.5000;0.2483;2.3528;
1399.8000;0.2483;2.3453;
