time/ms;Fluo/V;P700 deltaI/I x10³;
-199.8000;0.2475;2.7508;
-199.5000;0.2483;2.7483;
-199.2000;0.2458;2.7308;
-198.9000;0.2483;2.7308;
-198.6000;0.2483;2.7383;
-198.3000;0.2548;2.7658;
-198.0000;0.2483;2.7358;
-197.7000;0.2483;2.7333;
-197.4000;0.2475;2.7283;
-197.1000;0.2466;2.7308;
-196.8000;0.2483;2.7358;
-196.5000;0.2458;2.7333;
-196.2000;0.2532;2.7583;
-195.9000;0.2491;2.7508;
-195.6000;0.2499;2.7533;
-195.3000;0.2483;2.7433;
-195.0000;0.2475;2.7408;
-194.7000;0.2475;2.7383;
-194.4000;0.2475;2.7408;
-194.1000;0.2499;2.7533;
-193.8000;0.2483;2.7483;
-193.5000;0.2466;2.7558;
-193.2000;0.2434;2.7408;
-192.9000;0.2483;2.7583;
-192.6000;0.2475;2.7533;
-192.3000;0.2499;2.7558;
-192.0000;0.2507;2.7608;
-191.7000;0.2475;2.7533;
-191.4000;0.2483;2.7483;
-191.1000;0.2450;2.7333;
-190.8000;0.2475;2.7333;
-190.5000;0.2499;2.7383;
-190.2000;0.2466;2.7308;
-189.9000;0.2483;2.7383;
-189.6000;0.2499;2.7433;
-189.3000;0.2466;2.7258;
-189.0000;0.2483;2.7258;
-188.7000;0.2483;2.7358;
-188.4000;0.2483;2.7308;
-188.1000;0.2491;2.7358;
-187.8000;0.2491;2.7483;
-187.5000;0.2491;2.7383;
-187.2000;0.2483;2.7358;
-186.9000;0.2499;2.7333;
-186.6000;0.2475;2.7308;
-186.3000;0.2475;2.7308;
-186.0000;0.2483;2.7433;
-185.7000;0.2499;2.7458;
-185.4000;0.2491;2.7408;
-185.1000;0.2507;2.7458;
-184.8000;0.2515;2.7458;
-184.5000;0.2483;2.7308;
-184.2000;0.2418;2.7082;
-183.9000;0.2515;2.7308;
-183.6000;0.2491;2.7308;
-183.3000;0.2491;2.7283;
-183.0000;0.2491;2.7308;
-182.7000;0.2507;2.7308;
-182.4000;0.2491;2.7207;
-182.1000;0.2515;2.7233;
-181.8000;0.2532;2.7258;
-181.5000;0.2475;2.7082;
-181.2000;0.2507;2.7207;
-180.9000;0.2491;2.7107;
-180.6000;0.2466;2.7007;
-180.3000;0.2475;2.7057;
-180.0000;0.2466;2.7032;
-179.7000;0.2483;2.7157;
-179.4000;0.2491;2.7207;
-179.1000;0.2491;2.7182;
-178.8000;0.2466;2.7082;
-178.5000;0.2515;2.7233;
-178.2000;0.2475;2.7233;
-177.9000;0.2475;2.7182;
-177.6000;0.2499;2.7283;
-177.3000;0.2491;2.7233;
-177.0000;0.2499;2.7182;
-176.7000;0.2475;2.7333;
-176.4000;0.2499;2.7358;
-176.1000;0.2515;2.7358;
-175.8000;0.2491;2.7308;
-175.5000;0.2491;2.7233;
-175.2000;0.2491;2.7233;
-174.9000;0.2491;2.7182;
-174.6000;0.2491;2.7207;
-174.3000;0.2499;2.7283;
-174.0000;0.2491;2.7308;
-173.7000;0.2483;2.7283;
-173.4000;0.2483;2.7258;
-173.1000;0.2483;2.7207;
-172.8000;0.2475;2.7132;
-172.5000;0.2475;2.7057;
-172.2000;0.2491;2.7157;
-171.9000;0.2491;2.7132;
-171.6000;0.2491;2.7258;
-171.3000;0.2475;2.7308;
-171.0000;0.2466;2.7283;
-170.7000;0.2483;2.7258;
-170.4000;0.2491;2.7258;
-170.1000;0.2466;2.7207;
-169.8000;0.2450;2.7207;
-169.5000;0.2483;2.7283;
-169.2000;0.2466;2.7408;
-168.9000;0.2523;2.7458;
-168.6000;0.2483;2.7233;
-168.3000;0.2491;2.7182;
-168.0000;0.2442;2.7082;
-167.7000;0.2491;2.7207;
-167.4000;0.2491;2.7258;
-167.1000;0.2483;2.7283;
-166.8000;0.2499;2.7308;
-166.5000;0.2613;2.7608;
-166.2000;0.2491;2.7258;
-165.9000;0.2377;2.6932;
-165.6000;0.2475;2.7283;
-165.3000;0.2491;2.7283;
-165.0000;0.2475;2.7283;
-164.7000;0.2483;2.7433;
-164.4000;0.2426;2.7258;
-164.1000;0.2466;2.7358;
-163.8000;0.2507;2.7433;
-163.5000;0.2499;2.7383;
-163.2000;0.2475;2.7383;
-162.9000;0.2499;2.7408;
-162.6000;0.2483;2.7358;
-162.3000;0.2483;2.7333;
-162.0000;0.2483;2.7233;
-161.7000;0.2499;2.7233;
-161.4000;0.2491;2.7107;
-161.1000;0.2507;2.7132;
-160.8000;0.2475;2.7057;
-160.5000;0.2540;2.7207;
-160.2000;0.2466;2.6957;
-159.9000;0.2483;2.6957;
-159.6000;0.2556;2.7182;
-159.3000;0.2491;2.7132;
-159.0000;0.2491;2.7157;
-158.7000;0.2466;2.7132;
-158.4000;0.2499;2.7182;
-158.1000;0.2483;2.7057;
-157.8000;0.2491;2.6982;
-157.5000;0.2548;2.7233;
-157.2000;0.2499;2.7082;
-156.9000;0.2491;2.7082;
-156.6000;0.2572;2.7283;
-156.3000;0.2499;2.7132;
-156.0000;0.2483;2.7157;
-155.7000;0.2475;2.7057;
-155.4000;0.2418;2.6857;
-155.1000;0.2475;2.7057;
-154.8000;0.2466;2.7107;
-154.5000;0.2442;2.6982;
-154.2000;0.2466;2.7107;
-153.9000;0.2483;2.7207;
-153.6000;0.2491;2.7233;
-153.3000;0.2475;2.7233;
-153.0000;0.2458;2.7157;
-152.7000;0.2483;2.7283;
-152.4000;0.2491;2.7358;
-152.1000;0.2491;2.7283;
-151.8000;0.2483;2.7258;
-151.5000;0.2483;2.7157;
-151.2000;0.2523;2.7157;
-150.9000;0.2483;2.7132;
-150.6000;0.2499;2.7157;
-150.3000;0.2597;2.7433;
-150.0000;0.2499;2.7132;
-149.7000;0.2434;2.7057;
-149.4000;0.2475;2.7207;
-149.1000;0.2515;2.7233;
-148.8000;0.2466;2.7082;
-148.5000;0.2523;2.7182;
-148.2000;0.2491;2.7182;
-147.9000;0.2450;2.7082;
-147.6000;0.2483;2.7157;
-147.3000;0.2352;2.6857;
-147.0000;0.2475;2.7233;
-146.7000;0.2491;2.7283;
-146.4000;0.2475;2.7207;
-146.1000;0.2605;2.7508;
-145.8000;0.2491;2.7207;
-145.5000;0.2426;2.7182;
-145.2000;0.2597;2.7608;
-144.9000;0.2475;2.7333;
-144.6000;0.2450;2.7358;
-144.3000;0.2458;2.7308;
-144.0000;0.2499;2.7308;
-143.7000;0.2491;2.7207;
-143.4000;0.2499;2.7157;
-143.1000;0.2507;2.7157;
-142.8000;0.2491;2.7032;
-142.5000;0.2491;2.7082;
-142.2000;0.2532;2.7132;
-141.9000;0.2466;2.7032;
-141.6000;0.2556;2.7333;
-141.3000;0.2458;2.7057;
-141.0000;0.2475;2.7107;
-140.7000;0.2483;2.7107;
-140.4000;0.2475;2.7082;
-140.1000;0.2466;2.7032;
-139.8000;0.2499;2.7157;
-139.5000;0.2466;2.7082;
-139.2000;0.2491;2.7082;
-138.9000;0.2483;2.7082;
-138.6000;0.2483;2.7057;
-138.3000;0.2491;2.7032;
-138.0000;0.2491;2.7082;
-137.7000;0.2515;2.7283;
-137.4000;0.2409;2.7007;
-137.1000;0.2491;2.7157;
-136.8000;0.2483;2.7157;
-136.5000;0.2499;2.7233;
-136.2000;0.2507;2.7258;
-135.9000;0.2483;2.7207;
-135.6000;0.2483;2.7157;
-135.3000;0.2491;2.7057;
-135.0000;0.2507;2.6957;
-134.7000;0.2507;2.6832;
-134.4000;0.2491;2.6807;
-134.1000;0.2475;2.6832;
-133.8000;0.2483;2.6882;
-133.5000;0.2483;2.6957;
-133.2000;0.2450;2.6982;
-132.9000;0.2475;2.7207;
-132.6000;0.2483;2.7283;
-132.3000;0.2523;2.7383;
-132.0000;0.2450;2.7258;
-131.7000;0.2491;2.7283;
-131.4000;0.2532;2.7283;
-131.1000;0.2491;2.7157;
-130.8000;0.2458;2.7157;
-130.5000;0.2458;2.7132;
-130.2000;0.2450;2.7082;
-129.9000;0.2475;2.7182;
-129.6000;0.2393;2.6957;
-129.3000;0.2466;2.7233;
-129.0000;0.2483;2.7258;
-128.7000;0.2475;2.7283;
-128.4000;0.2475;2.7157;
-128.1000;0.2458;2.7082;
-127.8000;0.2466;2.7233;
-127.5000;0.2483;2.7283;
-127.2000;0.2450;2.7157;
-126.9000;0.2483;2.7207;
-126.6000;0.2475;2.7207;
-126.3000;0.2483;2.7233;
-126.0000;0.2491;2.7308;
-125.7000;0.2475;2.7383;
-125.4000;0.2540;2.7533;
-125.1000;0.2450;2.7258;
-124.8000;0.2532;2.7558;
-124.5000;0.2450;2.7308;
-124.2000;0.2442;2.7283;
-123.9000;0.2475;2.7308;
-123.6000;0.2475;2.7358;
-123.3000;0.2507;2.7383;
-123.0000;0.2499;2.7308;
-122.7000;0.2491;2.7182;
-122.4000;0.2458;2.7157;
-122.1000;0.2507;2.7258;
-121.8000;0.2475;2.7233;
-121.5000;0.2532;2.7308;
-121.2000;0.2491;2.7258;
-120.9000;0.2499;2.7258;
-120.6000;0.2475;2.7233;
-120.3000;0.2458;2.7233;
-120.0000;0.2507;2.7458;
-119.7000;0.2499;2.7308;
-119.4000;0.2499;2.7333;
-119.1000;0.2483;2.7233;
-118.8000;0.2466;2.7308;
-118.5000;0.2475;2.7383;
-118.2000;0.2507;2.7408;
-117.9000;0.2556;2.7558;
-117.6000;0.2483;2.7383;
-117.3000;0.2483;2.7333;
-117.0000;0.2483;2.7308;
-116.7000;0.2483;2.7333;
-116.4000;0.2475;2.7283;
-116.1000;0.2499;2.7408;
-115.8000;0.2499;2.7308;
-115.5000;0.2491;2.7283;
-115.2000;0.2352;2.6957;
-114.9000;0.2491;2.7258;
-114.6000;0.2499;2.7258;
-114.3000;0.2442;2.7157;
-114.0000;0.2466;2.7283;
-113.7000;0.2458;2.7308;
-113.4000;0.2499;2.7458;
-113.1000;0.2475;2.7383;
-112.8000;0.2483;2.7333;
-112.5000;0.2637;2.7783;
-112.2000;0.2483;2.7308;
-111.9000;0.2499;2.7308;
-111.6000;0.2426;2.7233;
-111.3000;0.2369;2.6982;
-111.0000;0.2483;2.7233;
-110.7000;0.2450;2.7057;
-110.4000;0.2540;2.7408;
-110.1000;0.2450;2.7107;
-109.8000;0.2499;2.7233;
-109.5000;0.2483;2.7157;
-109.2000;0.2475;2.7157;
-108.9000;0.2491;2.7207;
-108.6000;0.2499;2.7207;
-108.3000;0.2507;2.7233;
-108.0000;0.2475;2.7233;
-107.7000;0.2434;2.7107;
-107.4000;0.2580;2.7383;
-107.1000;0.2458;2.7057;
-106.8000;0.2499;2.7157;
-106.5000;0.2450;2.7032;
-106.2000;0.2491;2.7107;
-105.9000;0.2483;2.7082;
-105.6000;0.2499;2.7233;
-105.3000;0.2483;2.7258;
-105.0000;0.2483;2.7182;
-104.7000;0.2491;2.7233;
-104.4000;0.2523;2.7383;
-104.1000;0.2450;2.7182;
-103.8000;0.2491;2.7233;
-103.5000;0.2361;2.6857;
-103.2000;0.2475;2.7057;
-102.9000;0.2523;2.7283;
-102.6000;0.2483;2.7157;
-102.3000;0.2475;2.7157;
-102.0000;0.2499;2.7233;
-101.7000;0.2475;2.7283;
-101.4000;0.2507;2.7333;
-101.1000;0.2491;2.7157;
-100.8000;0.2483;2.7157;
-100.5000;0.2483;2.7107;
-100.2000;0.2499;2.7157;
-99.9000;0.2483;2.7258;
-99.6000;0.2515;2.7283;
-99.3000;0.2483;2.7182;
-99.0000;0.2499;2.7308;
-98.7000;0.2483;2.7283;
-98.4000;0.2466;2.7283;
-98.1000;0.2466;2.7458;
-97.8000;0.2499;2.7508;
-97.5000;0.2491;2.7433;
-97.2000;0.2483;2.7408;
-96.9000;0.2458;2.7383;
-96.6000;0.2409;2.7132;
-96.3000;0.2466;2.7182;
-96.0000;0.2466;2.7182;
-95.7000;0.2507;2.7308;
-95.4000;0.2450;2.7057;
-95.1000;0.2442;2.7007;
-94.8000;0.2475;2.7157;
-94.5000;0.2475;2.7182;
-94.2000;0.2532;2.7433;
-93.9000;0.2483;2.7258;
-93.6000;0.2458;2.7107;
-93.3000;0.2483;2.7157;
-93.0000;0.2483;2.7258;
-92.7000;0.2466;2.7258;
-92.4000;0.2499;2.7182;
-92.1000;0.2483;2.7182;
-91.8000;0.2499;2.7233;
-91.5000;0.2507;2.7233;
-91.2000;0.2491;2.7057;
-90.9000;0.2532;2.7032;
-90.6000;0.2458;2.6882;
-90.3000;0.2654;2.7383;
-90.0000;0.2515;2.7132;
-89.7000;0.2515;2.7233;
-89.4000;0.2475;2.7132;
-89.1000;0.2572;2.7433;
-88.8000;0.2458;2.7132;
-88.5000;0.2548;2.7383;
-88.2000;0.2589;2.7608;
-87.9000;0.2523;2.7483;
-87.6000;0.2515;2.7358;
-87.3000;0.2613;2.7558;
-87.0000;0.2483;2.7283;
-86.7000;0.2532;2.7408;
-86.4000;0.2418;2.7132;
-86.1000;0.2466;2.7258;
-85.8000;0.2458;2.7207;
-85.5000;0.2466;2.7207;
-85.2000;0.2483;2.7182;
-84.9000;0.2515;2.7283;
-84.6000;0.2450;2.7107;
-84.3000;0.2418;2.7032;
-84.0000;0.2491;2.7207;
-83.7000;0.2523;2.7283;
-83.4000;0.2483;2.7132;
-83.1000;0.2499;2.7258;
-82.8000;0.2491;2.7233;
-82.5000;0.2483;2.7207;
-82.2000;0.2491;2.7233;
-81.9000;0.2450;2.7182;
-81.6000;0.2475;2.7233;
-81.3000;0.2483;2.7283;
-81.0000;0.2466;2.7258;
-80.7000;0.2475;2.7258;
-80.4000;0.2491;2.7258;
-80.1000;0.2499;2.7333;
-79.8000;0.2483;2.7258;
-79.5000;0.2475;2.7157;
-79.2000;0.2491;2.7258;
-78.9000;0.2491;2.7233;
-78.6000;0.2458;2.7082;
-78.3000;0.2475;2.7182;
-78.0000;0.2458;2.7157;
-77.7000;0.2466;2.7132;
-77.4000;0.2499;2.7283;
-77.1000;0.2483;2.7207;
-76.8000;0.2483;2.7032;
-76.5000;0.2483;2.7032;
-76.2000;0.2499;2.7057;
-75.9000;0.2507;2.7082;
-75.6000;0.2458;2.6982;
-75.3000;0.2499;2.7032;
-75.0000;0.2450;2.6857;
-74.7000;0.2491;2.6982;
-74.4000;0.2483;2.6957;
-74.1000;0.2572;2.7258;
-73.8000;0.2475;2.6857;
-73.5000;0.2466;2.6832;
-73.2000;0.2401;2.6657;
-72.9000;0.2499;2.6957;
-72.6000;0.2466;2.6857;
-72.3000;0.2418;2.6657;
-72.0000;0.2499;2.7007;
-71.7000;0.2515;2.7157;
-71.4000;0.2466;2.7057;
-71.1000;0.2515;2.7207;
-70.8000;0.2426;2.6882;
-70.5000;0.2466;2.7057;
-70.2000;0.2499;2.7157;
-69.9000;0.2483;2.7057;
-69.6000;0.2491;2.7107;
-69.3000;0.2507;2.7082;
-69.0000;0.2499;2.7032;
-68.7000;0.2475;2.6957;
-68.4000;0.2475;2.6932;
-68.1000;0.2442;2.6982;
-67.8000;0.2475;2.7082;
-67.5000;0.2483;2.7132;
-67.2000;0.2491;2.7132;
-66.9000;0.2499;2.7082;
-66.6000;0.2548;2.7308;
-66.3000;0.2499;2.7182;
-66.0000;0.2564;2.7358;
-65.7000;0.2499;2.7207;
-65.4000;0.2499;2.7132;
-65.1000;0.2483;2.7007;
-64.8000;0.2491;2.6982;
-64.5000;0.2532;2.7057;
-64.2000;0.2466;2.6882;
-63.9000;0.2491;2.6932;
-63.6000;0.2491;2.6882;
-63.3000;0.2475;2.6832;
-63.0000;0.2466;2.6857;
-62.7000;0.2499;2.6932;
-62.4000;0.2523;2.7032;
-62.1000;0.2466;2.6932;
-61.8000;0.2491;2.7057;
-61.5000;0.2515;2.7233;
-61.2000;0.2483;2.7132;
-60.9000;0.2483;2.7157;
-60.6000;0.2466;2.7157;
-60.3000;0.2483;2.7258;
-60.0000;0.2483;2.7283;
-59.7000;0.2499;2.7383;
-59.4000;0.2483;2.7258;
-59.1000;0.2426;2.7107;
-58.8000;0.2483;2.7107;
-58.5000;0.2483;2.7082;
-58.2000;0.2613;2.7508;
-57.9000;0.2491;2.7132;
-57.6000;0.2499;2.7132;
-57.3000;0.2475;2.6957;
-57.0000;0.2466;2.6982;
-56.7000;0.2491;2.7107;
-56.4000;0.2507;2.7258;
-56.1000;0.2523;2.7333;
-55.8000;0.2532;2.7383;
-55.5000;0.2475;2.7207;
-55.2000;0.2466;2.7132;
-54.9000;0.2466;2.7032;
-54.6000;0.2491;2.7057;
-54.3000;0.2499;2.6957;
-54.0000;0.2458;2.6882;
-53.7000;0.2499;2.6982;
-53.4000;0.2475;2.6957;
-53.1000;0.2466;2.6907;
-52.8000;0.2491;2.7132;
-52.5000;0.2532;2.7283;
-52.2000;0.2507;2.7233;
-51.9000;0.2499;2.7233;
-51.6000;0.2475;2.7207;
-51.3000;0.2475;2.7157;
-51.0000;0.2483;2.7157;
-50.7000;0.2483;2.7157;
-50.4000;0.2483;2.7132;
-50.1000;0.2499;2.7157;
-49.8000;0.2491;2.7182;
-49.5000;0.2507;2.7233;
-49.2000;0.2483;2.7082;
-48.9000;0.2491;2.7032;
-48.6000;0.2475;2.7082;
-48.3000;0.2466;2.7107;
-48.0000;0.2491;2.7182;
-47.7000;0.2475;2.7233;
-47.4000;0.2491;2.7283;
-47.1000;0.2499;2.7258;
-46.8000;0.2483;2.7182;
-46.5000;0.2466;2.7207;
-46.2000;0.2491;2.7258;
-45.9000;0.2507;2.7333;
-45.6000;0.2483;2.7283;
-45.3000;0.2491;2.7283;
-45.0000;0.2499;2.7258;
-44.7000;0.2491;2.7358;
-44.4000;0.2483;2.7383;
-44.1000;0.2458;2.7233;
-43.8000;0.2491;2.7283;
-43.5000;0.2548;2.7508;
-43.2000;0.2515;2.7483;
-42.9000;0.2466;2.7333;
-42.6000;0.2499;2.7458;
-42.3000;0.2499;2.7408;
-42.0000;0.2491;2.7283;
-41.7000;0.2499;2.7283;
-41.4000;0.2393;2.7057;
-41.1000;0.2450;2.7182;
-40.8000;0.2491;2.7233;
-40.5000;0.2491;2.7258;
-40.2000;0.2475;2.7233;
-39.9000;0.2483;2.7283;
-39.6000;0.2475;2.7383;
-39.3000;0.2458;2.7358;
-39.0000;0.2458;2.7308;
-38.7000;0.2491;2.7383;
-38.4000;0.2475;2.7333;
-38.1000;0.2491;2.7308;
-37.8000;0.2507;2.7258;
-37.5000;0.2483;2.7207;
-37.2000;0.2458;2.7082;
-36.9000;0.2491;2.7082;
-36.6000;0.2499;2.7182;
-36.3000;0.2499;2.7258;
-36.0000;0.2507;2.7258;
-35.7000;0.2466;2.7132;
-35.4000;0.2483;2.7182;
-35.1000;0.2507;2.7283;
-34.8000;0.2507;2.7333;
-34.5000;0.2532;2.7383;
-34.2000;0.2320;2.6882;
-33.9000;0.2450;2.7233;
-33.6000;0.2466;2.7258;
-33.3000;0.2466;2.7233;
-33.0000;0.2515;2.7408;
-32.7000;0.2377;2.7057;
-32.4000;0.2499;2.7283;
-32.1000;0.2426;2.7082;
-31.8000;0.2458;2.7207;
-31.5000;0.2483;2.7258;
-31.2000;0.2458;2.7157;
-30.9000;0.2499;2.7308;
-30.6000;0.2450;2.7182;
-30.3000;0.2483;2.7107;
-30.0000;0.2483;2.7057;
-29.7000;0.2458;2.6957;
-29.4000;0.2458;2.6882;
-29.1000;0.2483;2.6957;
-28.8000;0.2466;2.6907;
-28.5000;0.2475;2.7007;
-28.2000;0.2532;2.7182;
-27.9000;0.2548;2.7283;
-27.6000;0.2491;2.7157;
-27.3000;0.2483;2.7132;
-27.0000;0.2475;2.7207;
-26.7000;0.2491;2.7207;
-26.4000;0.2409;2.6982;
-26.1000;0.2361;2.6857;
-25.8000;0.2499;2.7182;
-25.5000;0.2540;2.7207;
-25.2000;0.2483;2.7032;
-24.9000;0.2483;2.6932;
-24.6000;0.2507;2.6957;
-24.3000;0.2475;2.6882;
-24.0000;0.2491;2.7007;
-23.7000;0.2491;2.7032;
-23.4000;0.2418;2.6882;
-23.1000;0.2418;2.6857;
-22.8000;0.2491;2.7082;
-22.5000;0.2491;2.7182;
-22.2000;0.2491;2.7207;
-21.9000;0.2572;2.7383;
-21.6000;0.2491;2.7258;
-21.3000;0.2483;2.7182;
-21.0000;0.2499;2.7258;
-20.7000;0.2507;2.7207;
-20.4000;0.2475;2.7233;
-20.1000;0.2491;2.7182;
-19.8000;0.2466;2.7057;
-19.5000;0.2475;2.7207;
-19.2000;0.2572;2.7483;
-18.9000;0.2572;2.7508;
-18.6000;0.2483;2.7207;
-18.3000;0.2548;2.7408;
-18.0000;0.2491;2.7258;
-17.7000;0.2491;2.7308;
-17.4000;0.2491;2.7207;
-17.1000;0.2483;2.7233;
-16.8000;0.2499;2.7333;
-16.5000;0.2499;2.7233;
-16.2000;0.2475;2.7132;
-15.9000;0.2491;2.7182;
-15.6000;0.2491;2.7283;
-15.3000;0.2491;2.7207;
-15.0000;0.2475;2.7233;
-14.7000;0.2458;2.7207;
-14.4000;0.2475;2.7182;
-14.1000;0.2507;2.7233;
-13.8000;0.2450;2.7132;
-13.5000;0.2475;2.7107;
-13.2000;0.2605;2.7433;
-12.9000;0.2466;2.7007;
-12.6000;0.2483;2.6957;
-12.3000;0.2580;2.7157;
-12.0000;0.2491;2.6907;
-11.7000;0.2499;2.7007;
-11.4000;0.2491;2.7057;
-11.1000;0.2458;2.7057;
-10.8000;0.2483;2.7207;
-10.5000;0.2491;2.7258;
-10.2000;0.2483;2.7283;
-9.9000;0.2458;2.7258;
-9.6000;0.2466;2.7233;
-9.3000;0.2507;2.7207;
-9.0000;0.2475;2.7157;
-8.7000;0.2466;2.7233;
-8.4000;0.2475;2.7182;
-8.1000;0.2466;2.7258;
-7.8000;0.2483;2.7458;
-7.5000;0.2475;2.7358;
-7.2000;0.2401;2.7107;
-6.9000;0.2491;2.7308;
-6.6000;0.2483;2.7383;
-6.3000;0.2483;2.7408;
-6.0000;0.2491;2.7458;
-5.7000;0.2507;2.7533;
-5.4000;0.2523;2.7558;
-5.1000;0.2458;2.7408;
-4.8000;0.2491;2.7433;
-4.5000;0.2483;2.7408;
-4.2000;0.2499;2.7533;
-3.9000;0.2483;2.7483;
-3.6000;0.2475;2.7483;
-3.3000;0.2466;2.7408;
-3.0000;0.2491;2.7383;
-2.7000;0.2475;2.7383;
-2.4000;0.2466;2.7408;
-2.1000;0.2523;2.7483;
-1.8000;0.2548;2.7608;
-1.5000;0.2475;2.7408;
-1.2000;0.2491;2.7383;
-0.9000;0.2483;2.7333;
-0.6000;0.2491;2.7408;
-0.3000;0.2466;2.7333;
0.0000;0.2466;2.7333;
0.3000;0.2466;2.7182;
0.6000;0.2450;2.7233;
0.9000;0.2532;2.7533;
1.2000;0.2458;2.7458;
1.5000;0.2507;2.7658;
1.8000;0.2499;2.7733;
2.1000;0.2491;2.7883;
2.4000;0.2499;2.8058;
2.7000;0.2515;2.8259;
3.0000;0.2434;2.8184;
3.3000;0.2499;2.8359;
3.6000;0.2540;2.8584;
3.9000;0.2540;2.8609;
4.2000;0.2507;2.8534;
4.5000;0.2491;2.8584;
4.8000;0.2507;2.8534;
5.1000;0.2499;2.8634;
5.4000;0.2580;2.8809;
5.7000;0.2499;2.8534;
6.0000;0.2361;2.8184;
6.3000;0.2507;2.8559;
6.6000;0.2548;2.8784;
6.9000;0.2475;2.8609;
7.2000;0.2523;2.8759;
7.5000;0.2499;2.8684;
7.8000;0.2466;2.8634;
8.1000;0.2499;2.8809;
8.4000;0.2507;2.8784;
8.7000;0.2589;2.9060;
9.0000;0.2515;2.8910;
9.3000;0.2515;2.8910;
9.6000;0.2548;2.8910;
9.9000;0.2523;2.8834;
10.2000;0.2532;2.8834;
10.5000;0.2515;2.8809;
10.8000;0.2564;2.8910;
11.1000;0.2507;2.8809;
11.4000;0.2507;2.8734;
11.7000;0.2507;2.8759;
12.0000;0.2523;2.8759;
12.3000;0.2507;2.8684;
12.6000;0.2499;2.8609;
12.9000;0.2418;2.8259;
13.2000;0.2499;2.8559;
13.5000;0.2523;2.8534;
13.8000;0.2613;2.8834;
14.1000;0.2499;2.8559;
14.4000;0.2483;2.8434;
14.7000;0.2540;2.8634;
15.0000;0.2483;2.8509;
15.3000;0.2507;2.8559;
15.6000;0.2499;2.8609;
15.9000;0.2491;2.8684;
16.2000;0.2499;2.8784;
16.5000;0.2466;2.8784;
16.8000;0.2458;2.8709;
17.1000;0.2483;2.8784;
17.4000;0.2499;2.8784;
17.7000;0.2499;2.8759;
18.0000;0.2499;2.8709;
18.3000;0.2491;2.8559;
18.6000;0.2532;2.8734;
18.9000;0.2507;2.8759;
19.2000;0.2523;2.8809;
19.5000;0.2548;2.8884;
19.8000;0.2507;2.8709;
20.1000;0.2499;2.8684;
20.4000;0.2426;2.8559;
20.7000;0.2507;2.8784;
21.0000;0.2499;2.8910;
21.3000;0.2483;2.8910;
21.6000;0.2540;2.8960;
21.9000;0.2507;2.8809;
22.2000;0.2540;2.8884;
22.5000;0.2507;2.8809;
22.8000;0.2515;2.8809;
23.1000;0.2507;2.8634;
23.4000;0.2621;2.8935;
23.7000;0.2532;2.8659;
24.0000;0.2507;2.8609;
24.3000;0.2507;2.8559;
24.6000;0.2523;2.8609;
24.9000;0.2515;2.8659;
25.2000;0.2426;2.8459;
25.5000;0.2466;2.8584;
25.8000;0.2523;2.8659;
26.1000;0.2491;2.8609;
26.4000;0.2540;2.8709;
26.7000;0.2450;2.8409;
27.0000;0.2491;2.8559;
27.3000;0.2564;2.8734;
27.6000;0.2499;2.8559;
27.9000;0.2434;2.8434;
28.2000;0.2491;2.8609;
28.5000;0.2499;2.8534;
28.8000;0.2515;2.8684;
29.1000;0.2442;2.8409;
29.4000;0.2385;2.8209;
29.7000;0.2483;2.8484;
30.0000;0.2564;2.8684;
30.3000;0.2507;2.8584;
30.6000;0.2483;2.8509;
30.9000;0.2507;2.8509;
31.2000;0.2499;2.8484;
31.5000;0.2523;2.8634;
31.8000;0.2466;2.8534;
32.1000;0.2491;2.8584;
32.4000;0.2499;2.8584;
32.7000;0.2532;2.8634;
33.0000;0.2491;2.8584;
33.3000;0.2580;2.8859;
33.6000;0.2475;2.8634;
33.9000;0.2507;2.8709;
34.2000;0.2540;2.8734;
34.5000;0.2499;2.8759;
34.8000;0.2499;2.8709;
35.1000;0.2507;2.8809;
35.4000;0.2523;2.8935;
35.7000;0.2499;2.8834;
36.0000;0.2483;2.8784;
36.3000;0.2458;2.8709;
36.6000;0.2426;2.8709;
36.9000;0.2491;2.8759;
37.2000;0.2499;2.8809;
37.5000;0.2540;2.8910;
37.8000;0.2507;2.8834;
38.1000;0.2491;2.8834;
38.4000;0.2515;2.8809;
38.7000;0.2507;2.8859;
39.0000;0.2532;2.8935;
39.3000;0.2507;2.8709;
39.6000;0.2499;2.8684;
39.9000;0.2507;2.8709;
40.2000;0.2540;2.8784;
40.5000;0.2507;2.8734;
40.8000;0.2483;2.8809;
41.1000;0.2491;2.8884;
41.4000;0.2475;2.8809;
41.7000;0.2499;2.8960;
42.0000;0.2507;2.8960;
42.3000;0.2458;2.8834;
42.6000;0.2499;2.8910;
42.9000;0.2532;2.8960;
43.2000;0.2475;2.8784;
43.5000;0.2466;2.8834;
43.8000;0.2507;2.8910;
44.1000;0.2507;2.8910;
44.4000;0.2466;2.8684;
44.7000;0.2483;2.8734;
45.0000;0.2523;2.8935;
45.3000;0.2475;2.8809;
45.6000;0.2564;2.9010;
45.9000;0.2426;2.8559;
46.2000;0.2466;2.8784;
46.5000;0.2499;2.8859;
46.8000;0.2515;2.8859;
47.1000;0.2475;2.8734;
47.4000;0.2540;2.8935;
47.7000;0.2499;2.8910;
48.0000;0.2475;2.8809;
48.3000;0.2483;2.8809;
48.6000;0.2483;2.8834;
48.9000;0.2491;2.8834;
49.2000;0.2499;2.8834;
49.5000;0.2523;2.8834;
49.8000;0.2483;2.8734;
50.1000;0.2466;2.8684;
50.4000;0.2499;2.8734;
50.7000;0.2507;2.8734;
51.0000;0.2491;2.8634;
51.3000;0.2450;2.8634;
51.6000;0.2499;2.8784;
51.9000;0.2499;2.8809;
52.2000;0.2499;2.8734;
52.5000;0.2475;2.8684;
52.8000;0.2499;2.8734;
53.1000;0.2491;2.8659;
53.4000;0.2564;2.8834;
53.7000;0.2450;2.8559;
54.0000;0.2499;2.8684;
54.3000;0.2523;2.8634;
54.6000;0.2532;2.8634;
54.9000;0.2499;2.8509;
55.2000;0.2475;2.8409;
55.5000;0.2475;2.8434;
55.8000;0.2507;2.8459;
56.1000;0.2491;2.8434;
56.4000;0.2499;2.8384;
56.7000;0.2515;2.8459;
57.0000;0.2499;2.8359;
57.3000;0.2483;2.8434;
57.6000;0.2491;2.8509;
57.9000;0.2523;2.8684;
58.2000;0.2540;2.8684;
58.5000;0.2483;2.8659;
58.8000;0.2515;2.8709;
59.1000;0.2475;2.8659;
59.4000;0.2491;2.8734;
59.7000;0.2507;2.8684;
60.0000;0.2499;2.8659;
60.3000;0.2515;2.8734;
60.6000;0.2450;2.8684;
60.9000;0.2491;2.8784;
61.2000;0.2507;2.8784;
61.5000;0.2466;2.8734;
61.8000;0.2507;2.8834;
62.1000;0.2483;2.8734;
62.4000;0.2507;2.8859;
62.7000;0.2483;2.8834;
63.0000;0.2475;2.8734;
63.3000;0.2507;2.8809;
63.6000;0.2475;2.8834;
63.9000;0.2442;2.8709;
64.2000;0.2483;2.8884;
64.5000;0.2499;2.8884;
64.8000;0.2499;2.8960;
65.1000;0.2483;2.9035;
65.4000;0.2418;2.8809;
65.7000;0.2507;2.9010;
66.0000;0.2499;2.8884;
66.3000;0.2491;2.8935;
66.6000;0.2523;2.8960;
66.9000;0.2475;2.8859;
67.2000;0.2523;2.8910;
67.5000;0.2483;2.8759;
67.8000;0.2556;2.8859;
68.1000;0.2515;2.8709;
68.4000;0.2491;2.8734;
68.7000;0.2491;2.8709;
69.0000;0.2507;2.8684;
69.3000;0.2564;2.8834;
69.6000;0.2507;2.8784;
69.9000;0.2491;2.8734;
70.2000;0.2499;2.8759;
70.5000;0.2507;2.8759;
70.8000;0.2499;2.8709;
71.1000;0.2507;2.8734;
71.4000;0.2507;2.8659;
71.7000;0.2491;2.8584;
72.0000;0.2491;2.8484;
72.3000;0.2523;2.8509;
72.6000;0.2515;2.8584;
72.9000;0.2507;2.8559;
73.2000;0.2507;2.8559;
73.5000;0.2450;2.8409;
73.8000;0.2483;2.8609;
74.1000;0.2556;2.8734;
74.4000;0.2499;2.8584;
74.7000;0.2409;2.8384;
75.0000;0.2515;2.8734;
75.3000;0.2491;2.8659;
75.6000;0.2507;2.8659;
75.9000;0.2491;2.8734;
76.2000;0.2515;2.8684;
76.5000;0.2491;2.8584;
76.8000;0.2483;2.8509;
77.1000;0.2499;2.8509;
77.4000;0.2499;2.8559;
77.7000;0.2491;2.8534;
78.0000;0.2499;2.8534;
78.3000;0.2491;2.8509;
78.6000;0.2507;2.8484;
78.9000;0.2491;2.8484;
79.2000;0.2499;2.8609;
79.5000;0.2491;2.8559;
79.8000;0.2499;2.8609;
80.1000;0.2507;2.8584;
80.4000;0.2483;2.8459;
80.7000;0.2491;2.8584;
81.0000;0.2499;2.8659;
81.3000;0.2491;2.8734;
81.6000;0.2605;2.8935;
81.9000;0.2491;2.8684;
82.2000;0.2507;2.8759;
82.5000;0.2499;2.8709;
82.8000;0.2483;2.8584;
83.1000;0.2483;2.8634;
83.4000;0.2507;2.8709;
83.7000;0.2515;2.8684;
84.0000;0.2483;2.8659;
84.3000;0.2483;2.8709;
84.6000;0.2507;2.8709;
84.9000;0.2523;2.8834;
85.2000;0.2475;2.8684;
85.5000;0.2483;2.8709;
85.8000;0.2491;2.8734;
86.1000;0.2507;2.8809;
86.4000;0.2507;2.8884;
86.7000;0.2466;2.8809;
87.0000;0.2483;2.8884;
87.3000;0.2458;2.8759;
87.6000;0.2499;2.8859;
87.9000;0.2475;2.8734;
88.2000;0.2515;2.8734;
88.5000;0.2515;2.8759;
88.8000;0.2426;2.8409;
89.1000;0.2499;2.8659;
89.4000;0.2491;2.8684;
89.7000;0.2507;2.8734;
90.0000;0.2507;2.8709;
90.3000;0.2637;2.9135;
90.6000;0.2491;2.8709;
90.9000;0.2475;2.8609;
91.2000;0.2491;2.8684;
91.5000;0.2491;2.8684;
91.8000;0.2475;2.8609;
92.1000;0.2621;2.8960;
92.4000;0.2466;2.8484;
92.7000;0.2499;2.8459;
93.0000;0.2483;2.8434;
93.3000;0.2483;2.8534;
93.6000;0.2499;2.8559;
93.9000;0.2475;2.8509;
94.2000;0.2483;2.8509;
94.5000;0.2491;2.8559;
94.8000;0.2483;2.8509;
95.1000;0.2507;2.8534;
95.4000;0.2540;2.8634;
95.7000;0.2499;2.8609;
96.0000;0.2491;2.8534;
96.3000;0.2491;2.8534;
96.6000;0.2523;2.8609;
96.9000;0.2491;2.8509;
97.2000;0.2475;2.8459;
97.5000;0.2564;2.8659;
97.8000;0.2466;2.8334;
98.1000;0.2507;2.8484;
98.4000;0.2507;2.8434;
98.7000;0.2475;2.8284;
99.0000;0.2499;2.8359;
99.3000;0.2475;2.8359;
99.6000;0.2475;2.8359;
99.9000;0.2499;2.8484;
100.2000;0.2491;2.8609;
100.5000;0.2442;2.8409;
100.8000;0.2491;2.8684;
101.1000;0.2475;2.8584;
101.4000;0.2499;2.8734;
101.7000;0.2458;2.8659;
102.0000;0.2491;2.8759;
102.3000;0.2548;2.8809;
102.6000;0.2532;2.8709;
102.9000;0.2475;2.8634;
103.2000;0.2499;2.8709;
103.5000;0.2499;2.8659;
103.8000;0.2499;2.8709;
104.1000;0.2532;2.8884;
104.4000;0.2483;2.8759;
104.7000;0.2499;2.8834;
105.0000;0.2532;2.9035;
105.3000;0.2466;2.8784;
105.6000;0.2491;2.8784;
105.9000;0.2279;2.8159;
106.2000;0.2491;2.8809;
106.5000;0.2507;2.8834;
106.8000;0.2483;2.8759;
107.1000;0.2499;2.8809;
107.4000;0.2475;2.8759;
107.7000;0.2507;2.8809;
108.0000;0.2499;2.8834;
108.3000;0.2507;2.8784;
108.6000;0.2475;2.8634;
108.9000;0.2491;2.8609;
109.2000;0.2499;2.8584;
109.5000;0.2515;2.8609;
109.8000;0.2475;2.8609;
110.1000;0.2499;2.8609;
110.4000;0.2442;2.8584;
110.7000;0.2491;2.8659;
111.0000;0.2483;2.8609;
111.3000;0.2401;2.8359;
111.6000;0.2507;2.8609;
111.9000;0.2491;2.8609;
112.2000;0.2572;2.8759;
112.5000;0.2483;2.8584;
112.8000;0.2507;2.8559;
113.1000;0.2515;2.8559;
113.4000;0.2475;2.8509;
113.7000;0.2532;2.8559;
114.0000;0.2572;2.8734;
114.3000;0.2483;2.8484;
114.6000;0.2646;2.8910;
114.9000;0.2418;2.8384;
115.2000;0.2466;2.8584;
115.5000;0.2491;2.8609;
115.8000;0.2491;2.8709;
116.1000;0.2475;2.8634;
116.4000;0.2564;2.8985;
116.7000;0.2515;2.8910;
117.0000;0.2491;2.8884;
117.3000;0.2434;2.8659;
117.6000;0.2483;2.8759;
117.9000;0.2483;2.8809;
118.2000;0.2564;2.9010;
118.5000;0.2483;2.8809;
118.8000;0.2491;2.8759;
119.1000;0.2483;2.8709;
119.4000;0.2385;2.8409;
119.7000;0.2507;2.8784;
120.0000;0.2491;2.8709;
120.3000;0.2499;2.8759;
120.6000;0.2507;2.8884;
120.9000;0.2507;2.8960;
121.2000;0.2499;2.8985;
121.5000;0.2499;2.8884;
121.8000;0.2483;2.8809;
122.1000;0.2475;2.8884;
122.4000;0.2491;2.8935;
122.7000;0.2483;2.8910;
123.0000;0.2491;2.8834;
123.3000;0.2532;2.8759;
123.6000;0.2507;2.8809;
123.9000;0.2515;2.8910;
124.2000;0.2475;2.8759;
124.5000;0.2507;2.8784;
124.8000;0.2507;2.8809;
125.1000;0.2499;2.8784;
125.4000;0.2491;2.8759;
125.7000;0.2515;2.8834;
126.0000;0.2499;2.8784;
126.3000;0.2589;2.9060;
126.6000;0.2483;2.8834;
126.9000;0.2499;2.8910;
127.2000;0.2458;2.8935;
127.5000;0.2483;2.8935;
127.8000;0.2426;2.8734;
128.1000;0.2475;2.8834;
128.4000;0.2491;2.8834;
128.7000;0.2491;2.8734;
129.0000;0.2491;2.8684;
129.3000;0.2483;2.8659;
129.6000;0.2475;2.8684;
129.9000;0.2499;2.8759;
130.2000;0.2507;2.8684;
130.5000;0.2483;2.8659;
130.8000;0.2475;2.8684;
131.1000;0.2466;2.8734;
131.4000;0.2450;2.8734;
131.7000;0.2499;2.8809;
132.0000;0.2466;2.8709;
132.3000;0.2466;2.8659;
132.6000;0.2507;2.8734;
132.9000;0.2491;2.8684;
133.2000;0.2515;2.8784;
133.5000;0.2466;2.8609;
133.8000;0.2499;2.8709;
134.1000;0.2507;2.8709;
134.4000;0.2515;2.8684;
134.7000;0.2507;2.8559;
135.0000;0.2491;2.8509;
135.3000;0.2483;2.8584;
135.6000;0.2499;2.8684;
135.9000;0.2409;2.8509;
136.2000;0.2466;2.8684;
136.5000;0.2442;2.8609;
136.8000;0.2475;2.8659;
137.1000;0.2483;2.8684;
137.4000;0.2483;2.8734;
137.7000;0.2475;2.8659;
138.0000;0.2499;2.8684;
138.3000;0.2580;2.8834;
138.6000;0.2491;2.8734;
138.9000;0.2450;2.8559;
139.2000;0.2532;2.8734;
139.5000;0.2523;2.8734;
139.8000;0.2499;2.8609;
140.1000;0.2483;2.8584;
140.4000;0.2466;2.8384;
140.7000;0.2499;2.8434;
141.0000;0.2523;2.8534;
141.3000;0.2491;2.8409;
141.6000;0.2409;2.8234;
141.9000;0.2499;2.8509;
142.2000;0.2418;2.8309;
142.5000;0.2442;2.8309;
142.8000;0.2483;2.8434;
143.1000;0.2507;2.8584;
143.4000;0.2442;2.8409;
143.7000;0.2442;2.8409;
144.0000;0.2483;2.8459;
144.3000;0.2491;2.8534;
144.6000;0.2369;2.8309;
144.9000;0.2483;2.8584;
145.2000;0.2499;2.8484;
145.5000;0.2507;2.8509;
145.8000;0.2507;2.8434;
146.1000;0.2491;2.8384;
146.4000;0.2491;2.8484;
146.7000;0.2523;2.8659;
147.0000;0.2483;2.8634;
147.3000;0.2499;2.8609;
147.6000;0.2515;2.8584;
147.9000;0.2491;2.8509;
148.2000;0.2491;2.8484;
148.5000;0.2458;2.8384;
148.8000;0.2515;2.8509;
149.1000;0.2442;2.8259;
149.4000;0.2475;2.8409;
149.7000;0.2491;2.8534;
150.0000;0.2532;2.8509;
150.3000;0.2466;2.8434;
150.6000;0.2491;2.8634;
150.9000;0.2507;2.8634;
151.2000;0.2483;2.8559;
151.5000;0.2491;2.8609;
151.8000;0.2548;2.8734;
152.1000;0.2499;2.8659;
152.4000;0.2515;2.8584;
152.7000;0.2475;2.8509;
153.0000;0.2426;2.8309;
153.3000;0.2434;2.8384;
153.6000;0.2491;2.8609;
153.9000;0.2426;2.8484;
154.2000;0.2523;2.8759;
154.5000;0.2556;2.8884;
154.8000;0.2499;2.8709;
155.1000;0.2499;2.8884;
155.4000;0.2499;2.8834;
155.7000;0.2523;2.8910;
156.0000;0.2483;2.8709;
156.3000;0.2442;2.8559;
156.6000;0.2458;2.8634;
156.9000;0.2475;2.8709;
157.2000;0.2515;2.8759;
157.5000;0.2466;2.8584;
157.8000;0.2466;2.8509;
158.1000;0.2434;2.8359;
158.4000;0.2637;2.8960;
158.7000;0.2450;2.8409;
159.0000;0.2483;2.8459;
159.3000;0.2491;2.8484;
159.6000;0.2426;2.8334;
159.9000;0.2466;2.8234;
160.2000;0.2491;2.8409;
160.5000;0.2491;2.8334;
160.8000;0.2475;2.8409;
161.1000;0.2475;2.8409;
161.4000;0.2458;2.8309;
161.7000;0.2605;2.8759;
162.0000;0.2458;2.8509;
162.3000;0.2507;2.8634;
162.6000;0.2515;2.8684;
162.9000;0.2483;2.8634;
163.2000;0.2483;2.8659;
163.5000;0.2475;2.8609;
163.8000;0.2507;2.8734;
164.1000;0.2491;2.8809;
164.4000;0.2499;2.8910;
164.7000;0.2491;2.8809;
165.0000;0.2491;2.8684;
165.3000;0.2523;2.8784;
165.6000;0.2507;2.8759;
165.9000;0.2491;2.8634;
166.2000;0.2499;2.8659;
166.5000;0.2458;2.8634;
166.8000;0.2499;2.8609;
167.1000;0.2491;2.8509;
167.4000;0.2499;2.8609;
167.7000;0.2499;2.8659;
168.0000;0.2483;2.8684;
168.3000;0.2466;2.8559;
168.6000;0.2483;2.8609;
168.9000;0.2523;2.8734;
169.2000;0.2499;2.8659;
169.5000;0.2475;2.8534;
169.8000;0.2499;2.8609;
170.1000;0.2507;2.8634;
170.4000;0.2515;2.8734;
170.7000;0.2475;2.8609;
171.0000;0.2499;2.8684;
171.3000;0.2499;2.8734;
171.6000;0.2499;2.8709;
171.9000;0.2507;2.8809;
172.2000;0.2491;2.8859;
172.5000;0.2507;2.8834;
172.8000;0.2499;2.8759;
173.1000;0.2491;2.8709;
173.4000;0.2515;2.8759;
173.7000;0.2450;2.8534;
174.0000;0.2523;2.8784;
174.3000;0.2523;2.8709;
174.6000;0.2409;2.8359;
174.9000;0.2499;2.8734;
175.2000;0.2483;2.8734;
175.5000;0.2491;2.8684;
175.8000;0.2532;2.8809;
176.1000;0.2483;2.8709;
176.4000;0.2491;2.8759;
176.7000;0.2491;2.8734;
177.0000;0.2507;2.8584;
177.3000;0.2564;2.8659;
177.6000;0.2483;2.8459;
177.9000;0.2483;2.8459;
178.2000;0.2507;2.8509;
178.5000;0.2475;2.8409;
178.8000;0.2499;2.8434;
179.1000;0.2483;2.8434;
179.4000;0.2499;2.8534;
179.7000;0.2491;2.8509;
180.0000;0.2523;2.8534;
180.3000;0.2605;2.8759;
180.6000;0.2466;2.8359;
180.9000;0.2426;2.8234;
181.2000;0.2491;2.8409;
181.5000;0.2385;2.8058;
181.8000;0.2450;2.8284;
182.1000;0.2475;2.8359;
182.4000;0.2532;2.8534;
182.7000;0.2532;2.8359;
183.0000;0.2491;2.8284;
183.3000;0.2466;2.8284;
183.6000;0.2499;2.8359;
183.9000;0.2475;2.8334;
184.2000;0.2491;2.8384;
184.5000;0.2540;2.8459;
184.8000;0.2483;2.8309;
185.1000;0.2483;2.8434;
185.4000;0.2515;2.8584;
185.7000;0.2540;2.8609;
186.0000;0.2491;2.8484;
186.3000;0.2475;2.8484;
186.6000;0.2523;2.8709;
186.9000;0.2483;2.8659;
187.2000;0.2483;2.8634;
187.5000;0.2458;2.8584;
187.8000;0.2532;2.8784;
188.1000;0.2515;2.8559;
188.4000;0.2483;2.8509;
188.7000;0.2450;2.8459;
189.0000;0.2491;2.8534;
189.3000;0.2564;2.8659;
189.6000;0.2540;2.8584;
189.9000;0.2491;2.8534;
190.2000;0.2483;2.8609;
190.5000;0.2434;2.8459;
190.8000;0.2491;2.8634;
191.1000;0.2434;2.8434;
191.4000;0.2491;2.8634;
191.7000;0.2418;2.8384;
192.0000;0.2483;2.8634;
192.3000;0.2450;2.8559;
192.6000;0.2499;2.8659;
192.9000;0.2466;2.8484;
193.2000;0.2491;2.8584;
193.5000;0.2507;2.8509;
193.8000;0.2491;2.8384;
194.1000;0.2491;2.8484;
194.4000;0.2491;2.8509;
194.7000;0.2483;2.8584;
195.0000;0.2491;2.8684;
195.3000;0.2491;2.8609;
195.6000;0.2458;2.8509;
195.9000;0.2507;2.8634;
196.2000;0.2483;2.8609;
196.5000;0.2491;2.8609;
196.8000;0.2491;2.8559;
197.1000;0.2483;2.8559;
197.4000;0.2491;2.8434;
197.7000;0.2540;2.8584;
198.0000;0.2507;2.8559;
198.3000;0.2483;2.8459;
198.6000;0.2483;2.8409;
198.9000;0.2499;2.8434;
199.2000;0.2499;2.8484;
199.5000;0.2532;2.8509;
199.8000;0.2483;2.8434;
200.1000;0.2491;2.8634;
200.4000;0.2507;2.8709;
200.7000;0.2499;2.8659;
201.0000;0.2491;2.8659;
201.3000;0.2458;2.8534;
201.6000;0.2483;2.8609;
201.9000;0.2491;2.8634;
202.2000;0.2499;2.8634;
202.5000;0.2458;2.8534;
202.8000;0.2515;2.8759;
203.1000;0.2499;2.8709;
203.4000;0.2507;2.8759;
203.7000;0.2483;2.8634;
204.0000;0.2629;2.9035;
204.3000;0.2499;2.8709;
204.6000;0.2483;2.8584;
204.9000;0.2483;2.8534;
205.2000;0.2491;2.8534;
205.5000;0.2499;2.8534;
205.8000;0.2499;2.8584;
206.1000;0.2426;2.8359;
206.4000;0.2466;2.8534;
206.7000;0.2515;2.8709;
207.0000;0.2475;2.8559;
207.3000;0.2507;2.8559;
207.6000;0.2434;2.8434;
207.9000;0.2499;2.8609;
208.2000;0.2466;2.8509;
208.5000;0.2458;2.8484;
208.8000;0.2515;2.8709;
209.1000;0.2491;2.8709;
209.4000;0.2548;2.8834;
209.7000;0.2491;2.8659;
210.0000;0.2491;2.8509;
210.3000;0.2483;2.8334;
210.6000;0.2548;2.8509;
210.9000;0.2475;2.8434;
211.2000;0.2458;2.8434;
211.5000;0.2466;2.8559;
211.8000;0.2507;2.8584;
212.1000;0.2499;2.8534;
212.4000;0.2507;2.8584;
212.7000;0.2458;2.8534;
213.0000;0.2483;2.8609;
213.3000;0.2491;2.8659;
213.6000;0.2532;2.8809;
213.9000;0.2491;2.8634;
214.2000;0.2499;2.8559;
214.5000;0.2450;2.8509;
214.8000;0.2507;2.8709;
215.1000;0.2491;2.8709;
215.4000;0.2507;2.8684;
215.7000;0.2613;2.8910;
216.0000;0.2475;2.8534;
216.3000;0.2483;2.8509;
216.6000;0.2442;2.8384;
216.9000;0.2483;2.8584;
217.2000;0.2483;2.8509;
217.5000;0.2499;2.8584;
217.8000;0.2466;2.8559;
218.1000;0.2483;2.8559;
218.4000;0.2532;2.8634;
218.7000;0.2483;2.8509;
219.0000;0.2475;2.8359;
219.3000;0.2540;2.8534;
219.6000;0.2466;2.8409;
219.9000;0.2483;2.8584;
220.2000;0.2491;2.8609;
220.5000;0.2499;2.8509;
220.8000;0.2442;2.8384;
221.1000;0.2499;2.8509;
221.4000;0.2483;2.8434;
221.7000;0.2450;2.8409;
222.0000;0.2361;2.8184;
222.3000;0.2466;2.8434;
222.6000;0.2483;2.8459;
222.9000;0.2515;2.8609;
223.2000;0.2475;2.8459;
223.5000;0.2466;2.8409;
223.8000;0.2483;2.8459;
224.1000;0.2491;2.8484;
224.4000;0.2475;2.8509;
224.7000;0.2507;2.8484;
225.0000;0.2401;2.8134;
225.3000;0.2491;2.8484;
225.6000;0.2450;2.8409;
225.9000;0.2499;2.8634;
226.2000;0.2564;2.8809;
226.5000;0.2475;2.8509;
226.8000;0.2491;2.8434;
227.1000;0.2491;2.8434;
227.4000;0.2442;2.8309;
227.7000;0.2483;2.8434;
228.0000;0.2515;2.8484;
228.3000;0.2466;2.8334;
228.6000;0.2491;2.8409;
228.9000;0.2515;2.8534;
229.2000;0.2515;2.8534;
229.5000;0.2540;2.8709;
229.8000;0.2466;2.8659;
230.1000;0.2515;2.8734;
230.4000;0.2589;2.8834;
230.7000;0.2466;2.8559;
231.0000;0.2507;2.8559;
231.3000;0.2458;2.8384;
231.6000;0.2483;2.8334;
231.9000;0.2458;2.8309;
232.2000;0.2418;2.8184;
232.5000;0.2426;2.8184;
232.8000;0.2450;2.8234;
233.1000;0.2466;2.8209;
233.4000;0.2572;2.8534;
233.7000;0.2491;2.8359;
234.0000;0.2491;2.8334;
234.3000;0.2475;2.8334;
234.6000;0.2466;2.8309;
234.9000;0.2483;2.8334;
235.2000;0.2491;2.8434;
235.5000;0.2450;2.8334;
235.8000;0.2499;2.8509;
236.1000;0.2466;2.8459;
236.4000;0.2491;2.8459;
236.7000;0.2458;2.8359;
237.0000;0.2499;2.8334;
237.3000;0.2442;2.8234;
237.6000;0.2491;2.8334;
237.9000;0.2499;2.8309;
238.2000;0.2499;2.8284;
238.5000;0.2523;2.8359;
238.8000;0.2491;2.8284;
239.1000;0.2483;2.8359;
239.4000;0.2475;2.8334;
239.7000;0.2434;2.8309;
240.0000;0.2507;2.8509;
240.3000;0.2499;2.8409;
240.6000;0.2523;2.8434;
240.9000;0.2507;2.8259;
241.2000;0.2523;2.8309;
241.5000;0.2523;2.8359;
241.8000;0.2499;2.8409;
242.1000;0.2515;2.8409;
242.4000;0.2483;2.8334;
242.7000;0.2466;2.8284;
243.0000;0.2491;2.8409;
243.3000;0.2499;2.8459;
243.6000;0.2491;2.8459;
243.9000;0.2548;2.8684;
244.2000;0.2491;2.8584;
244.5000;0.2499;2.8609;
244.8000;0.2483;2.8484;
245.1000;0.2515;2.8559;
245.4000;0.2491;2.8509;
245.7000;0.2532;2.8609;
246.0000;0.2418;2.8384;
246.3000;0.2475;2.8609;
246.6000;0.2442;2.8559;
246.9000;0.2483;2.8684;
247.2000;0.2491;2.8659;
247.5000;0.2491;2.8684;
247.8000;0.2621;2.8884;
248.1000;0.2483;2.8384;
248.4000;0.2475;2.8359;
248.7000;0.2491;2.8459;
249.0000;0.2491;2.8484;
249.3000;0.2532;2.8534;
249.6000;0.2523;2.8609;
249.9000;0.2491;2.8534;
250.2000;0.2491;2.8509;
250.5000;0.2605;2.8809;
250.8000;0.2401;2.8209;
251.1000;0.2491;2.8459;
251.4000;0.2401;2.8234;
251.7000;0.2466;2.8359;
252.0000;0.2483;2.8434;
252.3000;0.2556;2.8709;
252.6000;0.2475;2.8459;
252.9000;0.2499;2.8459;
253.2000;0.2499;2.8409;
253.5000;0.2466;2.8184;
253.8000;0.2515;2.8359;
254.1000;0.2475;2.8359;
254.4000;0.2491;2.8434;
254.7000;0.2491;2.8359;
255.0000;0.2499;2.8309;
255.3000;0.2458;2.8259;
255.6000;0.2466;2.8309;
255.9000;0.2442;2.8234;
256.2000;0.2507;2.8434;
256.5000;0.2499;2.8334;
256.8000;0.2466;2.8284;
257.1000;0.2475;2.8209;
257.4000;0.2499;2.8234;
257.7000;0.2483;2.8234;
258.0000;0.2499;2.8309;
258.3000;0.2483;2.8259;
258.6000;0.2491;2.8359;
258.9000;0.2491;2.8509;
259.2000;0.2426;2.8284;
259.5000;0.2515;2.8409;
259.8000;0.2499;2.8259;
260.1000;0.2499;2.8259;
260.4000;0.2499;2.8209;
260.7000;0.2499;2.8159;
261.0000;0.2491;2.8109;
261.3000;0.2499;2.8134;
261.6000;0.2507;2.8134;
261.9000;0.2483;2.8109;
262.2000;0.2507;2.8159;
262.5000;0.2475;2.8134;
262.8000;0.2507;2.8159;
263.1000;0.2491;2.8159;
263.4000;0.2483;2.8134;
263.7000;0.2466;2.8209;
264.0000;0.2475;2.8359;
264.3000;0.2523;2.8459;
264.6000;0.2491;2.8309;
264.9000;0.2483;2.8309;
265.2000;0.2475;2.8309;
265.5000;0.2483;2.8234;
265.8000;0.2491;2.8259;
266.1000;0.2491;2.8309;
266.4000;0.2483;2.8284;
266.7000;0.2458;2.8159;
267.0000;0.2499;2.8209;
267.3000;0.2507;2.8259;
267.6000;0.2409;2.8084;
267.9000;0.2507;2.8259;
268.2000;0.2483;2.8184;
268.5000;0.2466;2.8109;
268.8000;0.2475;2.8184;
269.1000;0.2483;2.8234;
269.4000;0.2483;2.8234;
269.7000;0.2556;2.8484;
270.0000;0.2491;2.8309;
270.3000;0.2483;2.8309;
270.6000;0.2483;2.8359;
270.9000;0.2523;2.8434;
271.2000;0.2491;2.8459;
271.5000;0.2385;2.7983;
271.8000;0.2548;2.8434;
272.1000;0.2499;2.8284;
272.4000;0.2450;2.8234;
272.7000;0.2580;2.8584;
273.0000;0.2499;2.8309;
273.3000;0.2499;2.8359;
273.6000;0.2483;2.8334;
273.9000;0.2507;2.8434;
274.2000;0.2491;2.8434;
274.5000;0.2483;2.8359;
274.8000;0.2475;2.8309;
275.1000;0.2499;2.8434;
275.4000;0.2475;2.8334;
275.7000;0.2564;2.8634;
276.0000;0.2491;2.8409;
276.3000;0.2483;2.8459;
276.6000;0.2475;2.8434;
276.9000;0.2515;2.8509;
277.2000;0.2458;2.8359;
277.5000;0.2515;2.8359;
277.8000;0.2499;2.8334;
278.1000;0.2483;2.8409;
278.4000;0.2507;2.8409;
278.7000;0.2466;2.8334;
279.0000;0.2483;2.8384;
279.3000;0.2507;2.8459;
279.6000;0.2507;2.8409;
279.9000;0.2548;2.8609;
280.2000;0.2491;2.8459;
280.5000;0.2393;2.8259;
280.8000;0.2466;2.8384;
281.1000;0.2483;2.8559;
281.4000;0.2499;2.8659;
281.7000;0.2499;2.8734;
282.0000;0.2621;2.9010;
282.3000;0.2507;2.8709;
282.6000;0.2499;2.8759;
282.9000;0.2491;2.8759;
283.2000;0.2483;2.8734;
283.5000;0.2491;2.8659;
283.8000;0.2475;2.8609;
284.1000;0.2475;2.8559;
284.4000;0.2491;2.8559;
284.7000;0.2507;2.8509;
285.0000;0.2491;2.8434;
285.3000;0.2499;2.8434;
285.6000;0.2507;2.8534;
285.9000;0.2491;2.8434;
286.2000;0.2483;2.8384;
286.5000;0.2483;2.8359;
286.8000;0.2515;2.8409;
287.1000;0.2409;2.8159;
287.4000;0.2499;2.8359;
287.7000;0.2483;2.8409;
288.0000;0.2483;2.8559;
288.3000;0.2483;2.8584;
288.6000;0.2475;2.8559;
288.9000;0.2483;2.8659;
289.2000;0.2466;2.8659;
289.5000;0.2475;2.8684;
289.8000;0.2409;2.8509;
290.1000;0.2466;2.8684;
290.4000;0.2491;2.8759;
290.7000;0.2458;2.8659;
291.0000;0.2515;2.8684;
291.3000;0.2515;2.8609;
291.6000;0.2483;2.8509;
291.9000;0.2515;2.8684;
292.2000;0.2483;2.8609;
292.5000;0.2491;2.8634;
292.8000;0.2499;2.8609;
293.1000;0.2499;2.8634;
293.4000;0.2491;2.8634;
293.7000;0.2556;2.8784;
294.0000;0.2312;2.8058;
294.3000;0.2580;2.8784;
294.6000;0.2491;2.8584;
294.9000;0.2523;2.8734;
295.2000;0.2491;2.8584;
295.5000;0.2491;2.8584;
295.8000;0.2458;2.8509;
296.1000;0.2483;2.8659;
296.4000;0.2499;2.8634;
296.7000;0.2475;2.8634;
297.0000;0.2483;2.8634;
297.3000;0.2532;2.8734;
297.6000;0.2483;2.8709;
297.9000;0.2483;2.8759;
298.2000;0.2483;2.8884;
298.5000;0.2458;2.8784;
298.8000;0.2491;2.8809;
299.1000;0.2475;2.8834;
299.4000;0.2483;2.8910;
299.7000;0.2483;2.8859;
300.0000;0.2548;2.8960;
300.3000;0.2491;2.8809;
300.6000;0.2409;2.8609;
300.9000;0.2483;2.8784;
301.2000;0.2491;2.8834;
301.5000;0.2475;2.8784;
301.8000;0.2507;2.8859;
302.1000;0.2491;2.8809;
302.4000;0.2589;2.9010;
302.7000;0.2466;2.8559;
303.0000;0.2491;2.8659;
303.3000;0.2483;2.8559;
303.6000;0.2491;2.8609;
303.9000;0.2515;2.8634;
304.2000;0.2613;2.8859;
304.5000;0.2466;2.8409;
304.8000;0.2556;2.8634;
305.1000;0.2491;2.8434;
305.4000;0.2507;2.8509;
305.7000;0.2548;2.8584;
306.0000;0.2458;2.8384;
306.3000;0.2491;2.8484;
306.6000;0.2409;2.8209;
306.9000;0.2491;2.8459;
307.2000;0.2491;2.8459;
307.5000;0.2564;2.8734;
307.8000;0.2515;2.8509;
308.1000;0.2483;2.8359;
308.4000;0.2523;2.8359;
308.7000;0.2475;2.8284;
309.0000;0.2507;2.8434;
309.3000;0.2483;2.8334;
309.6000;0.2458;2.8309;
309.9000;0.2491;2.8434;
310.2000;0.2499;2.8534;
310.5000;0.2442;2.8359;
310.8000;0.2491;2.8609;
311.1000;0.2491;2.8659;
311.4000;0.2483;2.8609;
311.7000;0.2466;2.8534;
312.0000;0.2450;2.8484;
312.3000;0.2507;2.8684;
312.6000;0.2475;2.8509;
312.9000;0.2483;2.8534;
313.2000;0.2483;2.8484;
313.5000;0.2466;2.8384;
313.8000;0.2483;2.8434;
314.1000;0.2499;2.8459;
314.4000;0.2475;2.8359;
314.7000;0.2426;2.8209;
315.0000;0.2483;2.8434;
315.3000;0.2475;2.8334;
315.6000;0.2548;2.8559;
315.9000;0.2507;2.8409;
316.2000;0.2475;2.8334;
316.5000;0.2491;2.8384;
316.8000;0.2483;2.8434;
317.1000;0.2483;2.8384;
317.4000;0.2491;2.8409;
317.7000;0.2523;2.8509;
318.0000;0.2312;2.7883;
318.3000;0.2475;2.8434;
318.6000;0.2491;2.8359;
318.9000;0.2499;2.8359;
319.2000;0.2507;2.8384;
319.5000;0.2458;2.8384;
319.8000;0.2491;2.8384;
320.1000;0.2458;2.8359;
320.4000;0.2507;2.8534;
320.7000;0.2466;2.8334;
321.0000;0.2499;2.8334;
321.3000;0.2621;2.8634;
321.6000;0.2556;2.8484;
321.9000;0.2483;2.8409;
322.2000;0.2491;2.8434;
322.5000;0.2418;2.8284;
322.8000;0.2475;2.8409;
323.1000;0.2491;2.8384;
323.4000;0.2426;2.8134;
323.7000;0.2523;2.8434;
324.0000;0.2507;2.8309;
324.3000;0.2466;2.8234;
324.6000;0.2491;2.8334;
324.9000;0.2507;2.8309;
325.2000;0.2442;2.8184;
325.5000;0.2483;2.8359;
325.8000;0.2475;2.8459;
326.1000;0.2483;2.8484;
326.4000;0.2491;2.8659;
326.7000;0.2499;2.8634;
327.0000;0.2466;2.8484;
327.3000;0.2499;2.8534;
327.6000;0.2491;2.8484;
327.9000;0.2483;2.8384;
328.2000;0.2475;2.8284;
328.5000;0.2409;2.8134;
328.8000;0.2491;2.8359;
329.1000;0.2491;2.8334;
329.4000;0.2597;2.8559;
329.7000;0.2450;2.8109;
330.0000;0.2540;2.8234;
330.3000;0.2483;2.8033;
330.6000;0.2507;2.8184;
330.9000;0.2483;2.8334;
331.2000;0.2475;2.8384;
331.5000;0.2483;2.8484;
331.8000;0.2483;2.8534;
332.1000;0.2483;2.8509;
332.4000;0.2458;2.8459;
332.7000;0.2418;2.8309;
333.0000;0.2475;2.8534;
333.3000;0.2475;2.8534;
333.6000;0.2458;2.8434;
333.9000;0.2483;2.8434;
334.2000;0.2507;2.8559;
334.5000;0.2466;2.8359;
334.8000;0.2523;2.8459;
335.1000;0.2491;2.8484;
335.4000;0.2499;2.8434;
335.7000;0.2475;2.8359;
336.0000;0.2483;2.8384;
336.3000;0.2507;2.8484;
336.6000;0.2483;2.8484;
336.9000;0.2483;2.8459;
337.2000;0.2507;2.8509;
337.5000;0.2515;2.8609;
337.8000;0.2409;2.8434;
338.1000;0.2491;2.8684;
338.4000;0.2450;2.8534;
338.7000;0.2475;2.8584;
339.0000;0.2491;2.8709;
339.3000;0.2483;2.8734;
339.6000;0.2483;2.8659;
339.9000;0.2434;2.8459;
340.2000;0.2523;2.8659;
340.5000;0.2532;2.8684;
340.8000;0.2523;2.8659;
341.1000;0.2393;2.8284;
341.4000;0.2499;2.8659;
341.7000;0.2475;2.8609;
342.0000;0.2499;2.8634;
342.3000;0.2532;2.8684;
342.6000;0.2491;2.8559;
342.9000;0.2507;2.8584;
343.2000;0.2483;2.8634;
343.5000;0.2523;2.8759;
343.8000;0.2450;2.8534;
344.1000;0.2580;2.8859;
344.4000;0.2491;2.8659;
344.7000;0.2442;2.8434;
345.0000;0.2450;2.8459;
345.3000;0.2352;2.8259;
345.6000;0.2507;2.8734;
345.9000;0.2507;2.8784;
346.2000;0.2475;2.8709;
346.5000;0.2515;2.8784;
346.8000;0.2515;2.8784;
347.1000;0.2483;2.8659;
347.4000;0.2475;2.8634;
347.7000;0.2409;2.8509;
348.0000;0.2442;2.8809;
348.3000;0.2540;2.9035;
348.6000;0.2507;2.8759;
348.9000;0.2523;2.8734;
349.2000;0.2523;2.8659;
349.5000;0.2466;2.8559;
349.8000;0.2466;2.8559;
350.1000;0.2499;2.8584;
350.4000;0.2572;2.8759;
350.7000;0.2466;2.8509;
351.0000;0.2491;2.8584;
351.3000;0.2515;2.8609;
351.6000;0.2483;2.8409;
351.9000;0.2532;2.8534;
352.2000;0.2507;2.8409;
352.5000;0.2475;2.8284;
352.8000;0.2499;2.8459;
353.1000;0.2507;2.8509;
353.4000;0.2426;2.8334;
353.7000;0.2499;2.8634;
354.0000;0.2475;2.8609;
354.3000;0.2499;2.8684;
354.6000;0.2491;2.8734;
354.9000;0.2507;2.8809;
355.2000;0.2475;2.8784;
355.5000;0.2507;2.8759;
355.8000;0.2458;2.8609;
356.1000;0.2499;2.8634;
356.4000;0.2507;2.8634;
356.7000;0.2409;2.8334;
357.0000;0.2515;2.8584;
357.3000;0.2450;2.8334;
357.6000;0.2491;2.8434;
357.9000;0.2466;2.8409;
358.2000;0.2572;2.8734;
358.5000;0.2458;2.8459;
358.8000;0.2466;2.8409;
359.1000;0.2556;2.8634;
359.4000;0.2499;2.8434;
359.7000;0.2491;2.8459;
360.0000;0.2499;2.8484;
360.3000;0.2466;2.8484;
360.6000;0.2491;2.8609;
360.9000;0.2499;2.8659;
361.2000;0.2605;2.9035;
361.5000;0.2475;2.8659;
361.8000;0.2532;2.8784;
362.1000;0.2499;2.8734;
362.4000;0.2475;2.8609;
362.7000;0.2491;2.8534;
363.0000;0.2458;2.8384;
363.3000;0.2499;2.8459;
363.6000;0.2450;2.8359;
363.9000;0.2491;2.8459;
364.2000;0.2466;2.8384;
364.5000;0.2466;2.8434;
364.8000;0.2507;2.8484;
365.1000;0.2483;2.8359;
365.4000;0.2418;2.8159;
365.7000;0.2483;2.8409;
366.0000;0.2499;2.8409;
366.3000;0.2523;2.8509;
366.6000;0.2475;2.8409;
366.9000;0.2491;2.8509;
367.2000;0.2426;2.8409;
367.5000;0.2540;2.8709;
367.8000;0.2458;2.8484;
368.1000;0.2491;2.8459;
368.4000;0.2475;2.8484;
368.7000;0.2466;2.8509;
369.0000;0.2475;2.8584;
369.3000;0.2475;2.8709;
369.6000;0.2491;2.8809;
369.9000;0.2393;2.8509;
370.2000;0.2466;2.8659;
370.5000;0.2475;2.8634;
370.8000;0.2532;2.8784;
371.1000;0.2499;2.8659;
371.4000;0.2426;2.8434;
371.7000;0.2507;2.8534;
372.0000;0.2475;2.8609;
372.3000;0.2499;2.8584;
372.6000;0.2491;2.8584;
372.9000;0.2434;2.8459;
373.2000;0.2499;2.8609;
373.5000;0.2515;2.8659;
373.8000;0.2491;2.8534;
374.1000;0.2466;2.8459;
374.4000;0.2515;2.8584;
374.7000;0.2499;2.8584;
375.0000;0.2466;2.8434;
375.3000;0.2475;2.8484;
375.6000;0.2475;2.8434;
375.9000;0.2466;2.8234;
376.2000;0.2515;2.8409;
376.5000;0.2466;2.8359;
376.8000;0.2572;2.8634;
377.1000;0.2499;2.8384;
377.4000;0.2499;2.8309;
377.7000;0.2483;2.8209;
378.0000;0.2483;2.8259;
378.3000;0.2458;2.8284;
378.6000;0.2499;2.8309;
378.9000;0.2491;2.8359;
379.2000;0.2491;2.8409;
379.5000;0.2491;2.8334;
379.8000;0.2458;2.8209;
380.1000;0.2499;2.8384;
380.4000;0.2499;2.8384;
380.7000;0.2393;2.8209;
381.0000;0.2418;2.8259;
381.3000;0.2483;2.8359;
381.6000;0.2475;2.8359;
381.9000;0.2499;2.8359;
382.2000;0.2483;2.8384;
382.5000;0.2483;2.8209;
382.8000;0.2491;2.8259;
383.1000;0.2499;2.8084;
383.4000;0.2499;2.8109;
383.7000;0.2466;2.7983;
384.0000;0.2515;2.8008;
384.3000;0.2499;2.8084;
384.6000;0.2507;2.8184;
384.9000;0.2466;2.8084;
385.2000;0.2515;2.8309;
385.5000;0.2458;2.8234;
385.8000;0.2458;2.8234;
386.1000;0.2507;2.8384;
386.4000;0.2523;2.8334;
386.7000;0.2548;2.8359;
387.0000;0.2483;2.8084;
387.3000;0.2450;2.8033;
387.6000;0.2499;2.8284;
387.9000;0.2466;2.8234;
388.2000;0.2466;2.8209;
388.5000;0.2401;2.7983;
388.8000;0.2499;2.8209;
389.1000;0.2483;2.8284;
389.4000;0.2450;2.8159;
389.7000;0.2475;2.8309;
390.0000;0.2475;2.8384;
390.3000;0.2393;2.8184;
390.6000;0.2458;2.8384;
390.9000;0.2507;2.8484;
391.2000;0.2483;2.8434;
391.5000;0.2629;2.8859;
391.8000;0.2458;2.8334;
392.1000;0.2483;2.8409;
392.4000;0.2458;2.8384;
392.7000;0.2491;2.8459;
393.0000;0.2637;2.8834;
393.3000;0.2507;2.8509;
393.6000;0.2491;2.8384;
393.9000;0.2499;2.8359;
394.2000;0.2475;2.8434;
394.5000;0.2458;2.8434;
394.8000;0.2483;2.8434;
395.1000;0.2491;2.8534;
395.4000;0.2499;2.8609;
395.7000;0.2499;2.8634;
396.0000;0.2507;2.8709;
396.3000;0.2499;2.8709;
396.6000;0.2418;2.8534;
396.9000;0.2483;2.8734;
397.2000;0.2491;2.8734;
397.5000;0.2483;2.8659;
397.8000;0.2483;2.8659;
398.1000;0.2499;2.8734;
398.4000;0.2458;2.8684;
398.7000;0.2475;2.8659;
399.0000;0.2491;2.8684;
399.3000;0.2483;2.8659;
399.6000;0.2466;2.8634;
399.9000;0.2491;2.8684;
400.2000;0.2499;2.8734;
400.5000;0.2475;2.8734;
400.8000;0.2507;2.8910;
401.1000;0.2475;2.8734;
401.4000;0.2499;2.8734;
401.7000;0.2466;2.8609;
402.0000;0.2491;2.8584;
402.3000;0.2475;2.8484;
402.6000;0.2483;2.8534;
402.9000;0.2499;2.8659;
403.2000;0.2499;2.8584;
403.5000;0.2450;2.8409;
403.8000;0.2491;2.8484;
404.1000;0.2483;2.8434;
404.4000;0.2483;2.8484;
404.7000;0.2352;2.8184;
405.0000;0.2466;2.8459;
405.3000;0.2491;2.8509;
405.6000;0.2466;2.8434;
405.9000;0.2475;2.8409;
406.2000;0.2491;2.8409;
406.5000;0.2515;2.8434;
406.8000;0.2597;2.8584;
407.1000;0.2475;2.8234;
407.4000;0.2483;2.8284;
407.7000;0.2532;2.8409;
408.0000;0.2540;2.8509;
408.3000;0.2483;2.8259;
408.6000;0.2564;2.8534;
408.9000;0.2475;2.8309;
409.2000;0.2499;2.8259;
409.5000;0.2466;2.8134;
409.8000;0.2450;2.8084;
410.1000;0.2466;2.8259;
410.4000;0.2491;2.8484;
410.7000;0.2475;2.8384;
411.0000;0.2491;2.8384;
411.3000;0.2621;2.8809;
411.6000;0.2499;2.8609;
411.9000;0.2499;2.8609;
412.2000;0.2483;2.8559;
412.5000;0.2475;2.8634;
412.8000;0.2458;2.8509;
413.1000;0.2572;2.8709;
413.4000;0.2475;2.8484;
413.7000;0.2499;2.8484;
414.0000;0.2491;2.8484;
414.3000;0.2548;2.8634;
414.6000;0.2523;2.8734;
414.9000;0.2491;2.8634;
415.2000;0.2491;2.8609;
415.5000;0.2483;2.8609;
415.8000;0.2458;2.8534;
416.1000;0.2491;2.8509;
416.4000;0.2491;2.8434;
416.7000;0.2499;2.8459;
417.0000;0.2499;2.8459;
417.3000;0.2483;2.8409;
417.6000;0.2475;2.8409;
417.9000;0.2466;2.8359;
418.2000;0.2475;2.8309;
418.5000;0.2491;2.8359;
418.8000;0.2475;2.8334;
419.1000;0.2434;2.8259;
419.4000;0.2491;2.8359;
419.7000;0.2450;2.8334;
420.0000;0.2572;2.8759;
420.3000;0.2507;2.8534;
420.6000;0.2499;2.8484;
420.9000;0.2483;2.8509;
421.2000;0.2515;2.8584;
421.5000;0.2475;2.8459;
421.8000;0.2491;2.8609;
422.1000;0.2450;2.8459;
422.4000;0.2466;2.8484;
422.7000;0.2548;2.8734;
423.0000;0.2483;2.8584;
423.3000;0.2458;2.8559;
423.6000;0.2483;2.8659;
423.9000;0.2499;2.8684;
424.2000;0.2466;2.8684;
424.5000;0.2507;2.8734;
424.8000;0.2483;2.8709;
425.1000;0.2499;2.8784;
425.4000;0.2499;2.8684;
425.7000;0.2572;2.8834;
426.0000;0.2361;2.8234;
426.3000;0.2499;2.8684;
426.6000;0.2442;2.8609;
426.9000;0.2483;2.8834;
427.2000;0.2475;2.8784;
427.5000;0.2466;2.8809;
427.8000;0.2491;2.8859;
428.1000;0.2483;2.8834;
428.4000;0.2458;2.8759;
428.7000;0.2475;2.8834;
429.0000;0.2548;2.9060;
429.3000;0.2475;2.8910;
429.6000;0.2458;2.8834;
429.9000;0.2483;2.8809;
430.2000;0.2475;2.8759;
430.5000;0.2499;2.8834;
430.8000;0.2336;2.8334;
431.1000;0.2499;2.8784;
431.4000;0.2483;2.8809;
431.7000;0.2483;2.8784;
432.0000;0.2491;2.8834;
432.3000;0.2499;2.8884;
432.6000;0.2434;2.8734;
432.9000;0.2507;2.8834;
433.2000;0.2434;2.8634;
433.5000;0.2499;2.8884;
433.8000;0.2532;2.8960;
434.1000;0.2475;2.8734;
434.4000;0.2499;2.8809;
434.7000;0.2483;2.8634;
435.0000;0.2475;2.8559;
435.3000;0.2466;2.8484;
435.6000;0.2499;2.8634;
435.9000;0.2401;2.8359;
436.2000;0.2418;2.8359;
436.5000;0.2475;2.8584;
436.8000;0.2499;2.8684;
437.1000;0.2483;2.8759;
437.4000;0.2450;2.8734;
437.7000;0.2466;2.8759;
438.0000;0.2515;2.8985;
438.3000;0.2499;2.8859;
438.6000;0.2507;2.8859;
438.9000;0.2483;2.8759;
439.2000;0.2491;2.8784;
439.5000;0.2507;2.8859;
439.8000;0.2458;2.8734;
440.1000;0.2475;2.8834;
440.4000;0.2523;2.9035;
440.7000;0.2491;2.8884;
441.0000;0.2499;2.8985;
441.3000;0.2491;2.8910;
441.6000;0.2515;2.8960;
441.9000;0.2499;2.8834;
442.2000;0.2499;2.8809;
442.5000;0.2475;2.8809;
442.8000;0.2483;2.8784;
443.1000;0.2458;2.8709;
443.4000;0.2499;2.8859;
443.7000;0.2475;2.8759;
444.0000;0.2483;2.8734;
444.3000;0.2499;2.8784;
444.6000;0.2499;2.8784;
444.9000;0.2491;2.8734;
445.2000;0.2499;2.8759;
445.5000;0.2458;2.8734;
445.8000;0.2385;2.8434;
446.1000;0.2540;2.8935;
446.4000;0.2491;2.8834;
446.7000;0.2475;2.8809;
447.0000;0.2434;2.8659;
447.3000;0.2483;2.8910;
447.6000;0.2483;2.8834;
447.9000;0.2515;2.8910;
448.2000;0.2483;2.8809;
448.5000;0.2499;2.8884;
448.8000;0.2491;2.8910;
449.1000;0.2483;2.8910;
449.4000;0.2540;2.9060;
449.7000;0.2475;2.8960;
450.0000;0.2475;2.8859;
450.3000;0.2483;2.8859;
450.6000;0.2499;2.8834;
450.9000;0.2475;2.8709;
451.2000;0.2499;2.8809;
451.5000;0.2491;2.8859;
451.8000;0.2483;2.8859;
452.1000;0.2466;2.8935;
452.4000;0.2475;2.8935;
452.7000;0.2483;2.8859;
453.0000;0.2483;2.8759;
453.3000;0.2499;2.8734;
453.6000;0.2483;2.8634;
453.9000;0.2515;2.8734;
454.2000;0.2475;2.8584;
454.5000;0.2450;2.8559;
454.8000;0.2507;2.8834;
455.1000;0.2442;2.8759;
455.4000;0.2483;2.8859;
455.7000;0.2491;2.8834;
456.0000;0.2450;2.8784;
456.3000;0.2499;2.8884;
456.6000;0.2450;2.8709;
456.9000;0.2491;2.8834;
457.2000;0.2426;2.8734;
457.5000;0.2466;2.8734;
457.8000;0.2466;2.8684;
458.1000;0.2589;2.8985;
458.4000;0.2564;2.8884;
458.7000;0.2466;2.8659;
459.0000;0.2523;2.8759;
459.3000;0.2523;2.8834;
459.6000;0.2491;2.8684;
459.9000;0.2499;2.8709;
460.2000;0.2475;2.8609;
460.5000;0.2458;2.8559;
460.8000;0.2491;2.8584;
461.1000;0.2491;2.8509;
461.4000;0.2401;2.8184;
461.7000;0.2483;2.8459;
462.0000;0.2548;2.8634;
462.3000;0.2507;2.8609;
462.6000;0.2483;2.8609;
462.9000;0.2450;2.8459;
463.2000;0.2458;2.8509;
463.5000;0.2475;2.8634;
463.8000;0.2499;2.8709;
464.1000;0.2499;2.8759;
464.4000;0.2491;2.8709;
464.7000;0.2483;2.8659;
465.0000;0.2548;2.8834;
465.3000;0.2491;2.8734;
465.6000;0.2491;2.8684;
465.9000;0.2450;2.8534;
466.2000;0.2491;2.8659;
466.5000;0.2491;2.8709;
466.8000;0.2491;2.8634;
467.1000;0.2499;2.8609;
467.4000;0.2475;2.8559;
467.7000;0.2499;2.8634;
468.0000;0.2466;2.8584;
468.3000;0.2475;2.8534;
468.6000;0.2475;2.8509;
468.9000;0.2458;2.8459;
469.2000;0.2377;2.8209;
469.5000;0.2442;2.8434;
469.8000;0.2475;2.8559;
470.1000;0.2507;2.8634;
470.4000;0.2475;2.8609;
470.7000;0.2646;2.9035;
471.0000;0.2475;2.8609;
471.3000;0.2499;2.8584;
471.6000;0.2515;2.8584;
471.9000;0.2475;2.8434;
472.2000;0.2475;2.8484;
472.5000;0.2483;2.8459;
472.8000;0.2483;2.8484;
473.1000;0.2483;2.8484;
473.4000;0.2466;2.8359;
473.7000;0.2475;2.8459;
474.0000;0.2483;2.8459;
474.3000;0.2475;2.8459;
474.6000;0.2499;2.8534;
474.9000;0.2466;2.8459;
475.2000;0.2507;2.8609;
475.5000;0.2507;2.8634;
475.8000;0.2483;2.8609;
476.1000;0.2426;2.8384;
476.4000;0.2499;2.8659;
476.7000;0.2491;2.8584;
477.0000;0.2475;2.8559;
477.3000;0.2393;2.8284;
477.6000;0.2475;2.8559;
477.9000;0.2483;2.8534;
478.2000;0.2475;2.8484;
478.5000;0.2483;2.8559;
478.8000;0.2491;2.8659;
479.1000;0.2401;2.8434;
479.4000;0.2458;2.8709;
479.7000;0.2466;2.8584;
480.0000;0.2483;2.8659;
480.3000;0.2564;2.8910;
480.6000;0.2483;2.8609;
480.9000;0.2499;2.8659;
481.2000;0.2507;2.8759;
481.5000;0.2483;2.8684;
481.8000;0.2466;2.8759;
482.1000;0.2450;2.8659;
482.4000;0.2540;2.8859;
482.7000;0.2499;2.8759;
483.0000;0.2475;2.8709;
483.3000;0.2426;2.8609;
483.6000;0.2393;2.8459;
483.9000;0.2426;2.8584;
484.2000;0.2572;2.9010;
484.5000;0.2450;2.8759;
484.8000;0.2491;2.8809;
485.1000;0.2458;2.8809;
485.4000;0.2523;2.8935;
485.7000;0.2475;2.8684;
486.0000;0.2499;2.8734;
486.3000;0.2499;2.8809;
486.6000;0.2523;2.8834;
486.9000;0.2499;2.8709;
487.2000;0.2507;2.8784;
487.5000;0.2532;2.8809;
487.8000;0.2491;2.8609;
488.1000;0.2475;2.8559;
488.4000;0.2475;2.8634;
488.7000;0.2491;2.8659;
489.0000;0.2507;2.8734;
489.3000;0.2466;2.8684;
489.6000;0.2483;2.8784;
489.9000;0.2450;2.8734;
490.2000;0.2507;2.8834;
490.5000;0.2507;2.8809;
490.8000;0.2475;2.8734;
491.1000;0.2491;2.8709;
491.4000;0.2515;2.8709;
491.7000;0.2442;2.8509;
492.0000;0.2499;2.8684;
492.3000;0.2491;2.8659;
492.6000;0.2434;2.8484;
492.9000;0.2483;2.8609;
493.2000;0.2491;2.8584;
493.5000;0.2458;2.8484;
493.8000;0.2466;2.8409;
494.1000;0.2491;2.8484;
494.4000;0.2572;2.8784;
494.7000;0.2483;2.8559;
495.0000;0.2442;2.8434;
495.3000;0.2483;2.8509;
495.6000;0.2475;2.8509;
495.9000;0.2483;2.8559;
496.2000;0.2515;2.8609;
496.5000;0.2483;2.8559;
496.8000;0.2483;2.8459;
497.1000;0.2580;2.8709;
497.4000;0.2458;2.8359;
497.7000;0.2475;2.8334;
498.0000;0.2507;2.8484;
498.3000;0.2507;2.8434;
498.6000;0.2475;2.8359;
498.9000;0.2483;2.8409;
499.2000;0.2483;2.8459;
499.5000;0.2466;2.8409;
499.8000;0.2450;2.8359;
500.1000;0.2483;2.8459;
500.4000;0.2475;2.8459;
500.7000;0.2507;2.8584;
501.0000;0.2475;2.8584;
501.3000;0.2466;2.8609;
501.6000;0.2442;2.8559;
501.9000;0.2491;2.8659;
502.2000;0.2409;2.8409;
502.5000;0.2409;2.8459;
502.8000;0.2352;2.8159;
503.1000;0.2540;2.8634;
503.4000;0.2466;2.8434;
503.7000;0.2499;2.8434;
504.0000;0.2458;2.8459;
504.3000;0.2377;2.8284;
504.6000;0.2458;2.8534;
504.9000;0.2491;2.8509;
505.2000;0.2434;2.8434;
505.5000;0.2483;2.8609;
505.8000;0.2548;2.8834;
506.1000;0.2491;2.8634;
506.4000;0.2475;2.8559;
506.7000;0.2466;2.8509;
507.0000;0.2491;2.8609;
507.3000;0.2491;2.8559;
507.6000;0.2466;2.8409;
507.9000;0.2475;2.8484;
508.2000;0.2475;2.8409;
508.5000;0.2434;2.8409;
508.8000;0.2483;2.8559;
509.1000;0.2442;2.8409;
509.4000;0.2369;2.8184;
509.7000;0.2507;2.8609;
510.0000;0.2466;2.8434;
510.3000;0.2475;2.8459;
510.6000;0.2515;2.8509;
510.9000;0.2483;2.8484;
511.2000;0.2450;2.8459;
511.5000;0.2507;2.8609;
511.8000;0.2458;2.8509;
512.1000;0.2499;2.8609;
512.4000;0.2515;2.8759;
512.7000;0.2491;2.8734;
513.0000;0.2458;2.8609;
513.3000;0.2483;2.8559;
513.6000;0.2499;2.8609;
513.9000;0.2475;2.8659;
514.2000;0.2466;2.8634;
514.5000;0.2475;2.8659;
514.8000;0.2483;2.8659;
515.1000;0.2466;2.8609;
515.4000;0.2466;2.8559;
515.7000;0.2385;2.8334;
516.0000;0.2491;2.8559;
516.3000;0.2589;2.8784;
516.6000;0.2483;2.8459;
516.9000;0.2532;2.8459;
517.2000;0.2491;2.8484;
517.5000;0.2393;2.8259;
517.8000;0.2458;2.8409;
518.1000;0.2491;2.8559;
518.4000;0.2556;2.8759;
518.7000;0.2499;2.8634;
519.0000;0.2540;2.8734;
519.3000;0.2507;2.8709;
519.6000;0.2426;2.8534;
519.9000;0.2556;2.8884;
520.2000;0.2491;2.8734;
520.5000;0.2483;2.8559;
520.8000;0.2523;2.8634;
521.1000;0.2523;2.8609;
521.4000;0.2491;2.8484;
521.7000;0.2466;2.8384;
522.0000;0.2466;2.8309;
522.3000;0.2515;2.8484;
522.6000;0.2515;2.8584;
522.9000;0.2621;2.8884;
523.2000;0.2499;2.8584;
523.5000;0.2475;2.8459;
523.8000;0.2409;2.8334;
524.1000;0.2475;2.8509;
524.4000;0.2483;2.8509;
524.7000;0.2483;2.8484;
525.0000;0.2515;2.8684;
525.3000;0.2466;2.8534;
525.6000;0.2499;2.8584;
525.9000;0.2491;2.8659;
526.2000;0.2483;2.8609;
526.5000;0.2589;2.8834;
526.8000;0.2466;2.8534;
527.1000;0.2507;2.8684;
527.4000;0.2499;2.8634;
527.7000;0.2475;2.8534;
528.0000;0.2491;2.8509;
528.3000;0.2540;2.8684;
528.6000;0.2483;2.8559;
528.9000;0.2426;2.8509;
529.2000;0.2466;2.8509;
529.5000;0.2475;2.8584;
529.8000;0.2491;2.8634;
530.1000;0.2491;2.8634;
530.4000;0.2401;2.8409;
530.7000;0.2491;2.8584;
531.0000;0.2507;2.8584;
531.3000;0.2475;2.8509;
531.6000;0.2434;2.8309;
531.9000;0.2483;2.8434;
532.2000;0.2491;2.8434;
532.5000;0.2483;2.8409;
532.8000;0.2466;2.8284;
533.1000;0.2458;2.8234;
533.4000;0.2523;2.8459;
533.7000;0.2491;2.8434;
534.0000;0.2540;2.8534;
534.3000;0.2466;2.8359;
534.6000;0.2483;2.8459;
534.9000;0.2499;2.8534;
535.2000;0.2507;2.8534;
535.5000;0.2483;2.8534;
535.8000;0.2483;2.8534;
536.1000;0.2491;2.8584;
536.4000;0.2458;2.8459;
536.7000;0.2491;2.8484;
537.0000;0.2491;2.8434;
537.3000;0.2458;2.8384;
537.6000;0.2458;2.8384;
537.9000;0.2450;2.8334;
538.2000;0.2483;2.8409;
538.5000;0.2483;2.8409;
538.8000;0.2491;2.8484;
539.1000;0.2507;2.8634;
539.4000;0.2499;2.8534;
539.7000;0.2483;2.8484;
540.0000;0.2491;2.8534;
540.3000;0.2589;2.8659;
540.6000;0.2499;2.8409;
540.9000;0.2475;2.8384;
541.2000;0.2409;2.8284;
541.5000;0.2475;2.8484;
541.8000;0.2475;2.8459;
542.1000;0.2475;2.8509;
542.4000;0.2507;2.8584;
542.7000;0.2450;2.8409;
543.0000;0.2572;2.8609;
543.3000;0.2458;2.8284;
543.6000;0.2466;2.8334;
543.9000;0.2532;2.8534;
544.2000;0.2475;2.8459;
544.5000;0.2418;2.8309;
544.8000;0.2523;2.8609;
545.1000;0.2458;2.8459;
545.4000;0.2483;2.8484;
545.7000;0.2475;2.8359;
546.0000;0.2458;2.8459;
546.3000;0.2499;2.8584;
546.6000;0.2515;2.8709;
546.9000;0.2491;2.8709;
547.2000;0.2466;2.8584;
547.5000;0.2483;2.8534;
547.8000;0.2491;2.8559;
548.1000;0.2475;2.8509;
548.4000;0.2548;2.8659;
548.7000;0.2475;2.8459;
549.0000;0.2475;2.8459;
549.3000;0.2491;2.8484;
549.6000;0.2491;2.8459;
549.9000;0.2491;2.8459;
550.2000;0.2475;2.8459;
550.5000;0.2458;2.8359;
550.8000;0.2475;2.8409;
551.1000;0.2491;2.8359;
551.4000;0.2426;2.8284;
551.7000;0.2515;2.8534;
552.0000;0.2409;2.8259;
552.3000;0.2483;2.8434;
552.6000;0.2377;2.8084;
552.9000;0.2507;2.8459;
553.2000;0.2515;2.8384;
553.5000;0.2483;2.8384;
553.8000;0.2483;2.8459;
554.1000;0.2475;2.8509;
554.4000;0.2491;2.8409;
554.7000;0.2466;2.8384;
555.0000;0.2458;2.8384;
555.3000;0.2491;2.8434;
555.6000;0.2393;2.8284;
555.9000;0.2491;2.8534;
556.2000;0.2515;2.8634;
556.5000;0.2475;2.8559;
556.8000;0.2507;2.8584;
557.1000;0.2507;2.8584;
557.4000;0.2483;2.8609;
557.7000;0.2483;2.8559;
558.0000;0.2540;2.8709;
558.3000;0.2475;2.8509;
558.6000;0.2466;2.8484;
558.9000;0.2483;2.8509;
559.2000;0.2466;2.8559;
559.5000;0.2491;2.8559;
559.8000;0.2475;2.8534;
560.1000;0.2483;2.8609;
560.4000;0.2458;2.8584;
560.7000;0.2491;2.8684;
561.0000;0.2458;2.8534;
561.3000;0.2491;2.8659;
561.6000;0.2442;2.8459;
561.9000;0.2466;2.8534;
562.2000;0.2483;2.8534;
562.5000;0.2458;2.8484;
562.8000;0.2483;2.8559;
563.1000;0.2483;2.8584;
563.4000;0.2532;2.8759;
563.7000;0.2426;2.8509;
564.0000;0.2491;2.8734;
564.3000;0.2515;2.8834;
564.6000;0.2491;2.8734;
564.9000;0.2540;2.8910;
565.2000;0.2491;2.8784;
565.5000;0.2491;2.8884;
565.8000;0.2442;2.8784;
566.1000;0.2466;2.8784;
566.4000;0.2483;2.8809;
566.7000;0.2499;2.8884;
567.0000;0.2426;2.8684;
567.3000;0.2491;2.8709;
567.6000;0.2458;2.8559;
567.9000;0.2507;2.8684;
568.2000;0.2475;2.8734;
568.5000;0.2466;2.8634;
568.8000;0.2475;2.8584;
569.1000;0.2532;2.8684;
569.4000;0.2483;2.8609;
569.7000;0.2540;2.8734;
570.0000;0.2507;2.8759;
570.3000;0.2475;2.8709;
570.6000;0.2491;2.8784;
570.9000;0.2483;2.8834;
571.2000;0.2483;2.8759;
571.5000;0.2466;2.8684;
571.8000;0.2515;2.8884;
572.1000;0.2621;2.9085;
572.4000;0.2458;2.8709;
572.7000;0.2450;2.8709;
573.0000;0.2523;2.8859;
573.3000;0.2491;2.8784;
573.6000;0.2466;2.8659;
573.9000;0.2458;2.8684;
574.2000;0.2499;2.8759;
574.5000;0.2466;2.8659;
574.8000;0.2475;2.8734;
575.1000;0.2475;2.8684;
575.4000;0.2401;2.8534;
575.7000;0.2483;2.8734;
576.0000;0.2450;2.8559;
576.3000;0.2475;2.8559;
576.6000;0.2540;2.8734;
576.9000;0.2491;2.8584;
577.2000;0.2483;2.8559;
577.5000;0.2434;2.8509;
577.8000;0.2507;2.8684;
578.1000;0.2475;2.8659;
578.4000;0.2475;2.8584;
578.7000;0.2466;2.8509;
579.0000;0.2483;2.8609;
579.3000;0.2491;2.8684;
579.6000;0.2523;2.8784;
579.9000;0.2483;2.8734;
580.2000;0.2466;2.8684;
580.5000;0.2483;2.8634;
580.8000;0.2491;2.8659;
581.1000;0.2483;2.8584;
581.4000;0.2523;2.8759;
581.7000;0.2499;2.8709;
582.0000;0.2491;2.8659;
582.3000;0.2475;2.8634;
582.6000;0.2507;2.8709;
582.9000;0.2483;2.8584;
583.2000;0.2499;2.8609;
583.5000;0.2450;2.8534;
583.8000;0.2483;2.8584;
584.1000;0.2475;2.8609;
584.4000;0.2499;2.8659;
584.7000;0.2458;2.8559;
585.0000;0.2499;2.8709;
585.3000;0.2507;2.8659;
585.6000;0.2483;2.8559;
585.9000;0.2491;2.8559;
586.2000;0.2475;2.8534;
586.5000;0.2491;2.8584;
586.8000;0.2499;2.8684;
587.1000;0.2475;2.8559;
587.4000;0.2621;2.8935;
587.7000;0.2507;2.8584;
588.0000;0.2499;2.8534;
588.3000;0.2458;2.8534;
588.6000;0.2426;2.8434;
588.9000;0.2629;2.9035;
589.2000;0.2475;2.8634;
589.5000;0.2491;2.8634;
589.8000;0.2483;2.8684;
590.1000;0.2483;2.8684;
590.4000;0.2589;2.9010;
590.7000;0.2475;2.8684;
591.0000;0.2483;2.8809;
591.3000;0.2458;2.8709;
591.6000;0.2475;2.8784;
591.9000;0.2483;2.8709;
592.2000;0.2475;2.8709;
592.5000;0.2499;2.8734;
592.8000;0.2466;2.8709;
593.1000;0.2597;2.9110;
593.4000;0.2442;2.8709;
593.7000;0.2499;2.8910;
594.0000;0.2491;2.8809;
594.3000;0.2475;2.8684;
594.6000;0.2458;2.8684;
594.9000;0.2483;2.8684;
595.2000;0.2426;2.8509;
595.5000;0.2466;2.8584;
595.8000;0.2548;2.8809;
596.1000;0.2475;2.8609;
596.4000;0.2491;2.8634;
596.7000;0.2475;2.8584;
597.0000;0.2475;2.8584;
597.3000;0.2483;2.8609;
597.6000;0.2515;2.8584;
597.9000;0.2491;2.8409;
598.2000;0.2409;2.8209;
598.5000;0.2499;2.8609;
598.8000;0.2491;2.8559;
599.1000;0.2475;2.8484;
599.4000;0.2483;2.8584;
599.7000;0.2491;2.8609;
600.0000;0.2491;2.8534;
600.3000;0.2466;2.8484;
600.6000;0.2450;2.8409;
600.9000;0.2475;2.8459;
601.2000;0.2491;2.8334;
601.5000;0.2393;2.7908;
601.8000;0.2466;2.8008;
602.1000;0.2450;2.7833;
602.4000;0.2491;2.7808;
602.7000;0.2450;2.7633;
603.0000;0.2442;2.7483;
603.3000;0.2458;2.7483;
603.6000;0.2409;2.7283;
603.9000;0.2434;2.7258;
604.2000;0.2450;2.7182;
604.5000;0.2466;2.7207;
604.8000;0.2450;2.7057;
605.1000;0.2442;2.6982;
605.4000;0.2434;2.6932;
605.7000;0.2426;2.6932;
606.0000;0.2466;2.7007;
606.3000;0.2458;2.7107;
606.6000;0.2466;2.7057;
606.9000;0.2507;2.7132;
607.2000;0.2434;2.6982;
607.5000;0.2475;2.7082;
607.8000;0.2434;2.6857;
608.1000;0.2442;2.6732;
608.4000;0.2450;2.6757;
608.7000;0.2458;2.6782;
609.0000;0.2426;2.6707;
609.3000;0.2409;2.6632;
609.6000;0.2426;2.6632;
609.9000;0.2369;2.6457;
610.2000;0.2385;2.6507;
610.5000;0.2434;2.6632;
610.8000;0.2532;2.6932;
611.1000;0.2466;2.6757;
611.4000;0.2499;2.6832;
611.7000;0.2385;2.6482;
612.0000;0.2426;2.6607;
612.3000;0.2499;2.6882;
612.6000;0.2491;2.6882;
612.9000;0.2426;2.6707;
613.2000;0.2491;2.6932;
613.5000;0.2401;2.6757;
613.8000;0.2450;2.6807;
614.1000;0.2434;2.6782;
614.4000;0.2442;2.6757;
614.7000;0.2458;2.6707;
615.0000;0.2442;2.6657;
615.3000;0.2409;2.6532;
615.6000;0.2434;2.6607;
615.9000;0.2442;2.6682;
616.2000;0.2442;2.6657;
616.5000;0.2442;2.6632;
616.8000;0.2426;2.6607;
617.1000;0.2418;2.6607;
617.4000;0.2450;2.6682;
617.7000;0.2434;2.6582;
618.0000;0.2434;2.6657;
618.3000;0.2295;2.6331;
618.6000;0.2434;2.6732;
618.9000;0.2434;2.6607;
619.2000;0.2442;2.6457;
619.5000;0.2401;2.6256;
619.8000;0.2409;2.6156;
620.1000;0.2418;2.6181;
620.4000;0.2426;2.6231;
620.7000;0.2442;2.6356;
621.0000;0.2483;2.6432;
621.3000;0.2418;2.6281;
621.6000;0.2450;2.6407;
621.9000;0.2418;2.6356;
622.2000;0.2426;2.6306;
622.5000;0.2466;2.6407;
622.8000;0.2450;2.6482;
623.1000;0.2450;2.6532;
623.4000;0.2442;2.6507;
623.7000;0.2426;2.6507;
624.0000;0.2434;2.6607;
624.3000;0.2418;2.6632;
624.6000;0.2450;2.6707;
624.9000;0.2458;2.6682;
625.2000;0.2418;2.6582;
625.5000;0.2434;2.6582;
625.8000;0.2523;2.6782;
626.1000;0.2418;2.6557;
626.4000;0.2434;2.6582;
626.7000;0.2466;2.6657;
627.0000;0.2426;2.6507;
627.3000;0.2442;2.6557;
627.6000;0.2466;2.6557;
627.9000;0.2442;2.6507;
628.2000;0.2458;2.6657;
628.5000;0.2434;2.6557;
628.8000;0.2434;2.6507;
629.1000;0.2434;2.6457;
629.4000;0.2442;2.6532;
629.7000;0.2434;2.6557;
630.0000;0.2426;2.6532;
630.3000;0.2458;2.6507;
630.6000;0.2426;2.6281;
630.9000;0.2426;2.6256;
631.2000;0.2418;2.6256;
631.5000;0.2434;2.6381;
631.8000;0.2458;2.6557;
632.1000;0.2442;2.6457;
632.4000;0.2466;2.6482;
632.7000;0.2458;2.6457;
633.0000;0.2458;2.6507;
633.3000;0.2418;2.6432;
633.6000;0.2442;2.6407;
633.9000;0.2523;2.6657;
634.2000;0.2434;2.6482;
634.5000;0.2393;2.6331;
634.8000;0.2426;2.6381;
635.1000;0.2409;2.6381;
635.4000;0.2475;2.6482;
635.7000;0.2434;2.6356;
636.0000;0.2418;2.6281;
636.3000;0.2344;2.6231;
636.6000;0.2507;2.6607;
636.9000;0.2580;2.6732;
637.2000;0.2483;2.6457;
637.5000;0.2434;2.6256;
637.8000;0.2458;2.6281;
638.1000;0.2483;2.6381;
638.4000;0.2442;2.6256;
638.7000;0.2426;2.6281;
639.0000;0.2426;2.6356;
639.3000;0.2466;2.6432;
639.6000;0.2426;2.6381;
639.9000;0.2385;2.6306;
640.2000;0.2418;2.6381;
640.5000;0.2442;2.6482;
640.8000;0.2434;2.6482;
641.1000;0.2426;2.6432;
641.4000;0.2434;2.6457;
641.7000;0.2458;2.6356;
642.0000;0.2475;2.6407;
642.3000;0.2426;2.6206;
642.6000;0.2450;2.6356;
642.9000;0.2475;2.6407;
643.2000;0.2475;2.6381;
643.5000;0.2434;2.6407;
643.8000;0.2426;2.6432;
644.1000;0.2450;2.6532;
644.4000;0.2336;2.6306;
644.7000;0.2442;2.6457;
645.0000;0.2418;2.6432;
645.3000;0.2450;2.6532;
645.6000;0.2434;2.6482;
645.9000;0.2434;2.6582;
646.2000;0.2450;2.6607;
646.5000;0.2434;2.6632;
646.8000;0.2434;2.6557;
647.1000;0.2589;2.6957;
647.4000;0.2426;2.6381;
647.7000;0.2426;2.6457;
648.0000;0.2442;2.6482;
648.3000;0.2450;2.6507;
648.6000;0.2466;2.6607;
648.9000;0.2336;2.6281;
649.2000;0.2450;2.6607;
649.5000;0.2442;2.6532;
649.8000;0.2418;2.6532;
650.1000;0.2442;2.6557;
650.4000;0.2483;2.6807;
650.7000;0.2442;2.6657;
651.0000;0.2434;2.6557;
651.3000;0.2442;2.6482;
651.6000;0.2458;2.6607;
651.9000;0.2418;2.6482;
652.2000;0.2426;2.6432;
652.5000;0.2344;2.6156;
652.8000;0.2564;2.6807;
653.1000;0.2466;2.6682;
653.4000;0.2442;2.6632;
653.7000;0.2426;2.6582;
654.0000;0.2434;2.6682;
654.3000;0.2466;2.6807;
654.6000;0.2409;2.6682;
654.9000;0.2418;2.6607;
655.2000;0.2458;2.6707;
655.5000;0.2458;2.6757;
655.8000;0.2442;2.6657;
656.1000;0.2426;2.6607;
656.4000;0.2393;2.6532;
656.7000;0.2434;2.6657;
657.0000;0.2409;2.6607;
657.3000;0.2434;2.6657;
657.6000;0.2466;2.6782;
657.9000;0.2393;2.6557;
658.2000;0.2426;2.6632;
658.5000;0.2515;2.6932;
658.8000;0.2450;2.6682;
659.1000;0.2442;2.6657;
659.4000;0.2466;2.6807;
659.7000;0.2450;2.6782;
660.0000;0.2426;2.6632;
660.3000;0.2336;2.6331;
660.6000;0.2344;2.6381;
660.9000;0.2450;2.6682;
661.2000;0.2466;2.6757;
661.5000;0.2434;2.6757;
661.8000;0.2442;2.6732;
662.1000;0.2434;2.6632;
662.4000;0.2450;2.6607;
662.7000;0.2442;2.6632;
663.0000;0.2442;2.6632;
663.3000;0.2434;2.6707;
663.6000;0.2458;2.6832;
663.9000;0.2426;2.6682;
664.2000;0.2434;2.6607;
664.5000;0.2442;2.6507;
664.8000;0.2401;2.6331;
665.1000;0.2418;2.6432;
665.4000;0.2450;2.6507;
665.7000;0.2475;2.6582;
666.0000;0.2458;2.6632;
666.3000;0.2458;2.6657;
666.6000;0.2401;2.6532;
666.9000;0.2385;2.6407;
667.2000;0.2369;2.6281;
667.5000;0.2434;2.6457;
667.8000;0.2458;2.6532;
668.1000;0.2442;2.6457;
668.4000;0.2458;2.6432;
668.7000;0.2466;2.6432;
669.0000;0.2434;2.6507;
669.3000;0.2434;2.6557;
669.6000;0.2442;2.6732;
669.9000;0.2450;2.6882;
670.2000;0.2450;2.6832;
670.5000;0.2377;2.6732;
670.8000;0.2426;2.6907;
671.1000;0.2442;2.6957;
671.4000;0.2426;2.6957;
671.7000;0.2418;2.6832;
672.0000;0.2369;2.6707;
672.3000;0.2483;2.6907;
672.6000;0.2491;2.6882;
672.9000;0.2426;2.6732;
673.2000;0.2483;2.6832;
673.5000;0.2458;2.6757;
673.8000;0.2458;2.6732;
674.1000;0.2434;2.6607;
674.4000;0.2450;2.6657;
674.7000;0.2466;2.6682;
675.0000;0.2450;2.6707;
675.3000;0.2442;2.6682;
675.6000;0.2450;2.6707;
675.9000;0.2466;2.6632;
676.2000;0.2442;2.6532;
676.5000;0.2304;2.6056;
676.8000;0.2450;2.6532;
677.1000;0.2450;2.6507;
677.4000;0.2418;2.6482;
677.7000;0.2442;2.6532;
678.0000;0.2466;2.6732;
678.3000;0.2450;2.6632;
678.6000;0.2466;2.6607;
678.9000;0.2418;2.6356;
679.2000;0.2426;2.6281;
679.5000;0.2409;2.6306;
679.8000;0.2466;2.6482;
680.1000;0.2491;2.6607;
680.4000;0.2450;2.6532;
680.7000;0.2434;2.6532;
681.0000;0.2450;2.6632;
681.3000;0.2434;2.6607;
681.6000;0.2418;2.6607;
681.9000;0.2442;2.6532;
682.2000;0.2442;2.6557;
682.5000;0.2450;2.6582;
682.8000;0.2450;2.6507;
683.1000;0.2426;2.6457;
683.4000;0.2458;2.6632;
683.7000;0.2466;2.6632;
684.0000;0.2483;2.6732;
684.3000;0.2450;2.6707;
684.6000;0.2442;2.6607;
684.9000;0.2450;2.6682;
685.2000;0.2426;2.6632;
685.5000;0.2458;2.6757;
685.8000;0.2442;2.6657;
686.1000;0.2475;2.6707;
686.4000;0.2491;2.6632;
686.7000;0.2507;2.6807;
687.0000;0.2434;2.6582;
687.3000;0.2458;2.6682;
687.6000;0.2393;2.6432;
687.9000;0.2491;2.6632;
688.2000;0.2450;2.6532;
688.5000;0.2466;2.6682;
688.8000;0.2450;2.6632;
689.1000;0.2483;2.6607;
689.4000;0.2458;2.6632;
689.7000;0.2377;2.6432;
690.0000;0.2434;2.6582;
690.3000;0.2556;2.6982;
690.6000;0.2458;2.6557;
690.9000;0.2312;2.6206;
691.2000;0.2442;2.6632;
691.5000;0.2458;2.6707;
691.8000;0.2442;2.6582;
692.1000;0.2556;2.6932;
692.4000;0.2418;2.6532;
692.7000;0.2385;2.6507;
693.0000;0.2434;2.6582;
693.3000;0.2361;2.6356;
693.6000;0.2426;2.6532;
693.9000;0.2458;2.6632;
694.2000;0.2426;2.6582;
694.5000;0.2458;2.6557;
694.8000;0.2426;2.6607;
695.1000;0.2458;2.6707;
695.4000;0.2385;2.6557;
695.7000;0.2458;2.6782;
696.0000;0.2442;2.6707;
696.3000;0.2458;2.6682;
696.6000;0.2507;2.6682;
696.9000;0.2426;2.6432;
697.2000;0.2434;2.6507;
697.5000;0.2434;2.6507;
697.8000;0.2483;2.6607;
698.1000;0.2466;2.6557;
698.4000;0.2450;2.6532;
698.7000;0.2434;2.6532;
699.0000;0.2466;2.6607;
699.3000;0.2442;2.6532;
699.6000;0.2426;2.6532;
699.9000;0.2434;2.6507;
700.2000;0.2475;2.6682;
700.5000;0.2434;2.6532;
700.8000;0.2442;2.6532;
701.1000;0.2450;2.6532;
701.4000;0.2450;2.6557;
701.7000;0.2426;2.6532;
702.0000;0.2450;2.6557;
702.3000;0.2450;2.6632;
702.6000;0.2450;2.6682;
702.9000;0.2426;2.6582;
703.2000;0.2466;2.6707;
703.5000;0.2434;2.6557;
703.8000;0.2434;2.6607;
704.1000;0.2450;2.6657;
704.4000;0.2466;2.6707;
704.7000;0.2409;2.6482;
705.0000;0.2409;2.6557;
705.3000;0.2499;2.6857;
705.6000;0.2450;2.6657;
705.9000;0.2418;2.6532;
706.2000;0.2466;2.6707;
706.5000;0.2418;2.6607;
706.8000;0.2328;2.6331;
707.1000;0.2426;2.6732;
707.4000;0.2434;2.6782;
707.7000;0.2507;2.6907;
708.0000;0.2450;2.6732;
708.3000;0.2434;2.6757;
708.6000;0.2442;2.6707;
708.9000;0.2434;2.6657;
709.2000;0.2442;2.6632;
709.5000;0.2426;2.6657;
709.8000;0.2409;2.6632;
710.1000;0.2450;2.6707;
710.4000;0.2442;2.6707;
710.7000;0.2515;2.6957;
711.0000;0.2466;2.6607;
711.3000;0.2450;2.6582;
711.6000;0.2466;2.6582;
711.9000;0.2466;2.6457;
712.2000;0.2352;2.6131;
712.5000;0.2466;2.6432;
712.8000;0.2466;2.6557;
713.1000;0.2458;2.6582;
713.4000;0.2442;2.6582;
713.7000;0.2491;2.6707;
714.0000;0.2458;2.6657;
714.3000;0.2328;2.6181;
714.6000;0.2458;2.6557;
714.9000;0.2418;2.6457;
715.2000;0.2458;2.6557;
715.5000;0.2352;2.6331;
715.8000;0.2458;2.6582;
716.1000;0.2434;2.6507;
716.4000;0.2507;2.6732;
716.7000;0.2426;2.6607;
717.0000;0.2434;2.6532;
717.3000;0.2458;2.6582;
717.6000;0.2418;2.6582;
717.9000;0.2442;2.6632;
718.2000;0.2426;2.6532;
718.5000;0.2442;2.6532;
718.8000;0.2442;2.6507;
719.1000;0.2434;2.6407;
719.4000;0.2434;2.6381;
719.7000;0.2442;2.6331;
720.0000;0.2426;2.6256;
720.3000;0.2434;2.6407;
720.6000;0.2434;2.6356;
720.9000;0.2515;2.6557;
721.2000;0.2434;2.6306;
721.5000;0.2466;2.6356;
721.8000;0.2491;2.6432;
722.1000;0.2418;2.6281;
722.4000;0.2434;2.6331;
722.7000;0.2450;2.6231;
723.0000;0.2458;2.6206;
723.3000;0.2418;2.6081;
723.6000;0.2442;2.6156;
723.9000;0.2418;2.6056;
724.2000;0.2369;2.5731;
724.5000;0.2532;2.6206;
724.8000;0.2475;2.6031;
725.1000;0.2393;2.6056;
725.4000;0.2418;2.6206;
725.7000;0.2499;2.6532;
726.0000;0.2466;2.6407;
726.3000;0.2491;2.6632;
726.6000;0.2434;2.6407;
726.9000;0.2450;2.6582;
727.2000;0.2475;2.6657;
727.5000;0.2442;2.6532;
727.8000;0.2458;2.6507;
728.1000;0.2426;2.6381;
728.4000;0.2418;2.6432;
728.7000;0.2442;2.6381;
729.0000;0.2491;2.6582;
729.3000;0.2475;2.6607;
729.6000;0.2385;2.6331;
729.9000;0.2450;2.6457;
730.2000;0.2442;2.6507;
730.5000;0.2434;2.6457;
730.8000;0.2426;2.6381;
731.1000;0.2466;2.6507;
731.4000;0.2442;2.6457;
731.7000;0.2434;2.6407;
732.0000;0.2426;2.6532;
732.3000;0.2295;2.6231;
732.6000;0.2450;2.6582;
732.9000;0.2442;2.6657;
733.2000;0.2458;2.6732;
733.5000;0.2434;2.6682;
733.8000;0.2458;2.6682;
734.1000;0.2458;2.6707;
734.4000;0.2466;2.6707;
734.7000;0.2450;2.6582;
735.0000;0.2475;2.6557;
735.3000;0.2434;2.6507;
735.6000;0.2466;2.6632;
735.9000;0.2442;2.6682;
736.2000;0.2499;2.6807;
736.5000;0.2475;2.6732;
736.8000;0.2426;2.6632;
737.1000;0.2409;2.6532;
737.4000;0.2426;2.6582;
737.7000;0.2418;2.6482;
738.0000;0.2401;2.6432;
738.3000;0.2491;2.6757;
738.6000;0.2434;2.6457;
738.9000;0.2434;2.6507;
739.2000;0.2426;2.6507;
739.5000;0.2458;2.6582;
739.8000;0.2458;2.6482;
740.1000;0.2483;2.6532;
740.4000;0.2409;2.6407;
740.7000;0.2418;2.6432;
741.0000;0.2434;2.6432;
741.3000;0.2458;2.6482;
741.6000;0.2369;2.6181;
741.9000;0.2434;2.6407;
742.2000;0.2458;2.6557;
742.5000;0.2409;2.6432;
742.8000;0.2442;2.6482;
743.1000;0.2418;2.6432;
743.4000;0.2442;2.6407;
743.7000;0.2442;2.6482;
744.0000;0.2458;2.6457;
744.3000;0.2442;2.6457;
744.6000;0.2442;2.6532;
744.9000;0.2483;2.6582;
745.2000;0.2434;2.6407;
745.5000;0.2434;2.6507;
745.8000;0.2466;2.6632;
746.1000;0.2442;2.6582;
746.4000;0.2450;2.6607;
746.7000;0.2580;2.7007;
747.0000;0.2434;2.6557;
747.3000;0.2426;2.6482;
747.6000;0.2466;2.6582;
747.9000;0.2385;2.6356;
748.2000;0.2418;2.6482;
748.5000;0.2442;2.6507;
748.8000;0.2409;2.6532;
749.1000;0.2507;2.6732;
749.4000;0.2466;2.6582;
749.7000;0.2540;2.6807;
750.0000;0.2442;2.6557;
750.3000;0.2352;2.6231;
750.6000;0.2418;2.6381;
750.9000;0.2426;2.6432;
751.2000;0.2499;2.6557;
751.5000;0.2450;2.6381;
751.8000;0.2466;2.6507;
752.1000;0.2409;2.6356;
752.4000;0.2434;2.6407;
752.7000;0.2540;2.6732;
753.0000;0.2434;2.6457;
753.3000;0.2458;2.6557;
753.6000;0.2450;2.6532;
753.9000;0.2458;2.6507;
754.2000;0.2418;2.6356;
754.5000;0.2458;2.6331;
754.8000;0.2466;2.6457;
755.1000;0.2442;2.6407;
755.4000;0.2499;2.6607;
755.7000;0.2450;2.6532;
756.0000;0.2458;2.6507;
756.3000;0.2466;2.6407;
756.6000;0.2434;2.6407;
756.9000;0.2450;2.6381;
757.2000;0.2458;2.6381;
757.5000;0.2442;2.6407;
757.8000;0.2434;2.6356;
758.1000;0.2458;2.6381;
758.4000;0.2434;2.6306;
758.7000;0.2483;2.6381;
759.0000;0.2401;2.6156;
759.3000;0.2409;2.6206;
759.6000;0.2466;2.6356;
759.9000;0.2385;2.6281;
760.2000;0.2434;2.6407;
760.5000;0.2491;2.6582;
760.8000;0.2418;2.6407;
761.1000;0.2426;2.6482;
761.4000;0.2458;2.6557;
761.7000;0.2434;2.6432;
762.0000;0.2418;2.6507;
762.3000;0.2442;2.6507;
762.6000;0.2458;2.6507;
762.9000;0.2458;2.6482;
763.2000;0.2442;2.6582;
763.5000;0.2304;2.6156;
763.8000;0.2434;2.6607;
764.1000;0.2458;2.6607;
764.4000;0.2442;2.6557;
764.7000;0.2450;2.6532;
765.0000;0.2393;2.6356;
765.3000;0.2466;2.6507;
765.6000;0.2361;2.6181;
765.9000;0.2450;2.6407;
766.2000;0.2442;2.6306;
766.5000;0.2385;2.6206;
766.8000;0.2466;2.6482;
767.1000;0.2450;2.6432;
767.4000;0.2385;2.6281;
767.7000;0.2475;2.6532;
768.0000;0.2458;2.6507;
768.3000;0.2442;2.6457;
768.6000;0.2312;2.6131;
768.9000;0.2491;2.6657;
769.2000;0.2475;2.6582;
769.5000;0.2442;2.6407;
769.8000;0.2466;2.6482;
770.1000;0.2475;2.6507;
770.4000;0.2434;2.6256;
770.7000;0.2434;2.6181;
771.0000;0.2475;2.6381;
771.3000;0.2418;2.6281;
771.6000;0.2442;2.6281;
771.9000;0.2483;2.6356;
772.2000;0.2409;2.6231;
772.5000;0.2442;2.6331;
772.8000;0.2442;2.6306;
773.1000;0.2442;2.6156;
773.4000;0.2442;2.6106;
773.7000;0.2458;2.6106;
774.0000;0.2401;2.6131;
774.3000;0.2483;2.6356;
774.6000;0.2426;2.6281;
774.9000;0.2499;2.6432;
775.2000;0.2458;2.6331;
775.5000;0.2515;2.6507;
775.8000;0.2426;2.6331;
776.1000;0.2458;2.6457;
776.4000;0.2450;2.6381;
776.7000;0.2491;2.6381;
777.0000;0.2434;2.6181;
777.3000;0.2450;2.6281;
777.6000;0.2442;2.6281;
777.9000;0.2458;2.6331;
778.2000;0.2458;2.6306;
778.5000;0.2458;2.6381;
778.8000;0.2466;2.6507;
779.1000;0.2466;2.6482;
779.4000;0.2450;2.6306;
779.7000;0.2450;2.6381;
780.0000;0.2613;2.6857;
780.3000;0.2426;2.6306;
780.6000;0.2450;2.6331;
780.9000;0.2442;2.6356;
781.2000;0.2475;2.6356;
781.5000;0.2483;2.6507;
781.8000;0.2458;2.6407;
782.1000;0.2475;2.6407;
782.4000;0.2442;2.6281;
782.7000;0.2475;2.6331;
783.0000;0.2548;2.6657;
783.3000;0.2483;2.6582;
783.6000;0.2442;2.6457;
783.9000;0.2426;2.6306;
784.2000;0.2434;2.6281;
784.5000;0.2385;2.6206;
784.8000;0.2442;2.6256;
785.1000;0.2475;2.6407;
785.4000;0.2450;2.6507;
785.7000;0.2458;2.6557;
786.0000;0.2458;2.6381;
786.3000;0.2450;2.6432;
786.6000;0.2450;2.6407;
786.9000;0.2450;2.6482;
787.2000;0.2434;2.6432;
787.5000;0.2434;2.6482;
787.8000;0.2458;2.6482;
788.1000;0.2483;2.6482;
788.4000;0.2458;2.6457;
788.7000;0.2434;2.6356;
789.0000;0.2532;2.6632;
789.3000;0.2458;2.6407;
789.6000;0.2401;2.6256;
789.9000;0.2409;2.6331;
790.2000;0.2450;2.6381;
790.5000;0.2434;2.6356;
790.8000;0.2426;2.6356;
791.1000;0.2442;2.6381;
791.4000;0.2450;2.6331;
791.7000;0.2483;2.6432;
792.0000;0.2466;2.6331;
792.3000;0.2442;2.6306;
792.6000;0.2466;2.6557;
792.9000;0.2442;2.6432;
793.2000;0.2458;2.6457;
793.5000;0.2458;2.6482;
793.8000;0.2466;2.6532;
794.1000;0.2466;2.6507;
794.4000;0.2475;2.6457;
794.7000;0.2418;2.6281;
795.0000;0.2466;2.6432;
795.3000;0.2442;2.6407;
795.6000;0.2450;2.6432;
795.9000;0.2458;2.6432;
796.2000;0.2458;2.6457;
796.5000;0.2458;2.6407;
796.8000;0.2442;2.6407;
797.1000;0.2442;2.6432;
797.4000;0.2523;2.6682;
797.7000;0.2450;2.6331;
798.0000;0.2418;2.6181;
798.3000;0.2434;2.6156;
798.6000;0.2458;2.6206;
798.9000;0.2401;2.6031;
799.2000;0.2475;2.6181;
799.5000;0.2434;2.6056;
799.8000;0.2426;2.6056;
800.1000;0.2450;2.6106;
800.4000;0.2418;2.6081;
800.7000;0.2442;2.6131;
801.0000;0.2450;2.6231;
801.3000;0.2442;2.6281;
801.6000;0.2442;2.6381;
801.9000;0.2450;2.6507;
802.2000;0.2450;2.6507;
802.5000;0.2466;2.6507;
802.8000;0.2483;2.6482;
803.1000;0.2483;2.6482;
803.4000;0.2458;2.6381;
803.7000;0.2434;2.6381;
804.0000;0.2466;2.6381;
804.3000;0.2442;2.6281;
804.6000;0.2418;2.6156;
804.9000;0.2409;2.6156;
805.2000;0.2418;2.6231;
805.5000;0.2458;2.6281;
805.8000;0.2426;2.6181;
806.1000;0.2385;2.5981;
806.4000;0.2450;2.6231;
806.7000;0.2458;2.6306;
807.0000;0.2418;2.6281;
807.3000;0.2580;2.6757;
807.6000;0.2434;2.6256;
807.9000;0.2458;2.6381;
808.2000;0.2475;2.6381;
808.5000;0.2523;2.6532;
808.8000;0.2442;2.6432;
809.1000;0.2434;2.6407;
809.4000;0.2515;2.6607;
809.7000;0.2458;2.6432;
810.0000;0.2532;2.6507;
810.3000;0.2418;2.6231;
810.6000;0.2442;2.6331;
810.9000;0.2426;2.6281;
811.2000;0.2450;2.6331;
811.5000;0.2426;2.6306;
811.8000;0.2442;2.6331;
812.1000;0.2475;2.6381;
812.4000;0.2466;2.6457;
812.7000;0.2434;2.6356;
813.0000;0.2442;2.6432;
813.3000;0.2475;2.6582;
813.6000;0.2442;2.6507;
813.9000;0.2442;2.6432;
814.2000;0.2434;2.6356;
814.5000;0.2475;2.6306;
814.8000;0.2401;2.6156;
815.1000;0.2466;2.6331;
815.4000;0.2458;2.6306;
815.7000;0.2442;2.6331;
816.0000;0.2401;2.6281;
816.3000;0.2409;2.6306;
816.6000;0.2450;2.6356;
816.9000;0.2450;2.6381;
817.2000;0.2442;2.6407;
817.5000;0.2434;2.6331;
817.8000;0.2442;2.6356;
818.1000;0.2466;2.6407;
818.4000;0.2434;2.6381;
818.7000;0.2409;2.6331;
819.0000;0.2409;2.6381;
819.3000;0.2458;2.6482;
819.6000;0.2491;2.6582;
819.9000;0.2442;2.6482;
820.2000;0.2434;2.6457;
820.5000;0.2450;2.6482;
820.8000;0.2458;2.6457;
821.1000;0.2442;2.6356;
821.4000;0.2466;2.6407;
821.7000;0.2450;2.6281;
822.0000;0.2442;2.6256;
822.3000;0.2491;2.6306;
822.6000;0.2466;2.6356;
822.9000;0.2458;2.6306;
823.2000;0.2442;2.6331;
823.5000;0.2426;2.6356;
823.8000;0.2409;2.6281;
824.1000;0.2434;2.6306;
824.4000;0.2434;2.6281;
824.7000;0.2466;2.6281;
825.0000;0.2458;2.6306;
825.3000;0.2450;2.6231;
825.6000;0.2442;2.6281;
825.9000;0.2458;2.6281;
826.2000;0.2466;2.6306;
826.5000;0.2434;2.6281;
826.8000;0.2499;2.6381;
827.1000;0.2458;2.6306;
827.4000;0.2475;2.6381;
827.7000;0.2426;2.6331;
828.0000;0.2352;2.6181;
828.3000;0.2426;2.6381;
828.6000;0.2393;2.6281;
828.9000;0.2450;2.6482;
829.2000;0.2540;2.6707;
829.5000;0.2442;2.6432;
829.8000;0.2442;2.6557;
830.1000;0.2450;2.6582;
830.4000;0.2450;2.6482;
830.7000;0.2409;2.6407;
831.0000;0.2369;2.6306;
831.3000;0.2434;2.6407;
831.6000;0.2450;2.6532;
831.9000;0.2532;2.6682;
832.2000;0.2458;2.6532;
832.5000;0.2450;2.6507;
832.8000;0.2450;2.6507;
833.1000;0.2466;2.6507;
833.4000;0.2458;2.6507;
833.7000;0.2458;2.6407;
834.0000;0.2442;2.6356;
834.3000;0.2450;2.6407;
834.6000;0.2475;2.6482;
834.9000;0.2450;2.6281;
835.2000;0.2450;2.6281;
835.5000;0.2385;2.6156;
835.8000;0.2434;2.6256;
836.1000;0.2458;2.6381;
836.4000;0.2401;2.6256;
836.7000;0.2442;2.6256;
837.0000;0.2450;2.6331;
837.3000;0.2483;2.6407;
837.6000;0.2540;2.6657;
837.9000;0.2434;2.6381;
838.2000;0.2466;2.6457;
838.5000;0.2442;2.6381;
838.8000;0.2466;2.6482;
839.1000;0.2450;2.6432;
839.4000;0.2434;2.6281;
839.7000;0.2434;2.6256;
840.0000;0.2458;2.6306;
840.3000;0.2458;2.6281;
840.6000;0.2515;2.6331;
840.9000;0.2450;2.6306;
841.2000;0.2377;2.6156;
841.5000;0.2450;2.6457;
841.8000;0.2466;2.6507;
842.1000;0.2442;2.6356;
842.4000;0.2450;2.6407;
842.7000;0.2532;2.6757;
843.0000;0.2466;2.6432;
843.3000;0.2450;2.6381;
843.6000;0.2377;2.6206;
843.9000;0.2466;2.6331;
844.2000;0.2450;2.6256;
844.5000;0.2458;2.6306;
844.8000;0.2442;2.6256;
845.1000;0.2466;2.6356;
845.4000;0.2466;2.6457;
845.7000;0.2442;2.6407;
846.0000;0.2409;2.6281;
846.3000;0.2377;2.6181;
846.6000;0.2426;2.6432;
846.9000;0.2450;2.6532;
847.2000;0.2418;2.6381;
847.5000;0.2475;2.6532;
847.8000;0.2458;2.6532;
848.1000;0.2475;2.6457;
848.4000;0.2450;2.6432;
848.7000;0.2466;2.6457;
849.0000;0.2450;2.6482;
849.3000;0.2458;2.6482;
849.6000;0.2450;2.6482;
849.9000;0.2466;2.6532;
850.2000;0.2458;2.6457;
850.5000;0.2458;2.6432;
850.8000;0.2532;2.6657;
851.1000;0.2466;2.6457;
851.4000;0.2475;2.6507;
851.7000;0.2458;2.6407;
852.0000;0.2475;2.6432;
852.3000;0.2369;2.6231;
852.6000;0.2450;2.6532;
852.9000;0.2475;2.6682;
853.2000;0.2450;2.6557;
853.5000;0.2401;2.6356;
853.8000;0.2475;2.6632;
854.1000;0.2466;2.6632;
854.4000;0.2507;2.6632;
854.7000;0.2458;2.6507;
855.0000;0.2466;2.6657;
855.3000;0.2475;2.6582;
855.6000;0.2458;2.6632;
855.9000;0.2458;2.6632;
856.2000;0.2450;2.6682;
856.5000;0.2466;2.6657;
856.8000;0.2426;2.6557;
857.1000;0.2442;2.6482;
857.4000;0.2629;2.6932;
857.7000;0.2450;2.6381;
858.0000;0.2450;2.6407;
858.3000;0.2466;2.6407;
858.6000;0.2426;2.6356;
858.9000;0.2466;2.6432;
859.2000;0.2458;2.6356;
859.5000;0.2532;2.6582;
859.8000;0.2450;2.6381;
860.1000;0.2434;2.6356;
860.4000;0.2475;2.6532;
860.7000;0.2426;2.6381;
861.0000;0.2450;2.6381;
861.3000;0.2442;2.6407;
861.6000;0.2369;2.6131;
861.9000;0.2442;2.6381;
862.2000;0.2426;2.6256;
862.5000;0.2466;2.6306;
862.8000;0.2320;2.5956;
863.1000;0.2450;2.6331;
863.4000;0.2450;2.6407;
863.7000;0.2450;2.6381;
864.0000;0.2312;2.5981;
864.3000;0.2442;2.6331;
864.6000;0.2442;2.6281;
864.9000;0.2409;2.6231;
865.2000;0.2401;2.6081;
865.5000;0.2540;2.6507;
865.8000;0.2466;2.6407;
866.1000;0.2442;2.6256;
866.4000;0.2450;2.6432;
866.7000;0.2369;2.6281;
867.0000;0.2336;2.6106;
867.3000;0.2442;2.6482;
867.6000;0.2450;2.6432;
867.9000;0.2450;2.6507;
868.2000;0.2499;2.6482;
868.5000;0.2369;2.6131;
868.8000;0.2434;2.6331;
869.1000;0.2466;2.6306;
869.4000;0.2572;2.6557;
869.7000;0.2466;2.6256;
870.0000;0.2442;2.6256;
870.3000;0.2450;2.6256;
870.6000;0.2507;2.6306;
870.9000;0.2401;2.6081;
871.2000;0.2418;2.6106;
871.5000;0.2466;2.6306;
871.8000;0.2442;2.6181;
872.1000;0.2450;2.6256;
872.4000;0.2458;2.6156;
872.7000;0.2548;2.6457;
873.0000;0.2466;2.6206;
873.3000;0.2458;2.6206;
873.6000;0.2466;2.6306;
873.9000;0.2450;2.6256;
874.2000;0.2458;2.6206;
874.5000;0.2458;2.6331;
874.8000;0.2483;2.6482;
875.1000;0.2426;2.6407;
875.4000;0.2483;2.6482;
875.7000;0.2426;2.6256;
876.0000;0.2434;2.6331;
876.3000;0.2442;2.6432;
876.6000;0.2466;2.6281;
876.9000;0.2442;2.6206;
877.2000;0.2442;2.6256;
877.5000;0.2426;2.6256;
877.8000;0.2458;2.6331;
878.1000;0.2450;2.6407;
878.4000;0.2442;2.6432;
878.7000;0.2442;2.6281;
879.0000;0.2434;2.6181;
879.3000;0.2491;2.6331;
879.6000;0.2426;2.6181;
879.9000;0.2458;2.6381;
880.2000;0.2434;2.6231;
880.5000;0.2499;2.6432;
880.8000;0.2475;2.6331;
881.1000;0.2442;2.6231;
881.4000;0.2475;2.6381;
881.7000;0.2312;2.5956;
882.0000;0.2466;2.6432;
882.3000;0.2450;2.6381;
882.6000;0.2483;2.6482;
882.9000;0.2442;2.6356;
883.2000;0.2458;2.6482;
883.5000;0.2426;2.6306;
883.8000;0.2458;2.6457;
884.1000;0.2458;2.6432;
884.4000;0.2483;2.6482;
884.7000;0.2434;2.6356;
885.0000;0.2442;2.6331;
885.3000;0.2450;2.6407;
885.6000;0.2450;2.6381;
885.9000;0.2458;2.6331;
886.2000;0.2450;2.6306;
886.5000;0.2458;2.6356;
886.8000;0.2418;2.6281;
887.1000;0.2450;2.6331;
887.4000;0.2475;2.6457;
887.7000;0.2450;2.6532;
888.0000;0.2393;2.6507;
888.3000;0.2442;2.6557;
888.6000;0.2426;2.6582;
888.9000;0.2458;2.6632;
889.2000;0.2466;2.6632;
889.5000;0.2458;2.6557;
889.8000;0.2401;2.6331;
890.1000;0.2450;2.6432;
890.4000;0.2450;2.6407;
890.7000;0.2475;2.6407;
891.0000;0.2442;2.6231;
891.3000;0.2450;2.6206;
891.6000;0.2450;2.6231;
891.9000;0.2458;2.6306;
892.2000;0.2450;2.6281;
892.5000;0.2458;2.6306;
892.8000;0.2442;2.6206;
893.1000;0.2466;2.6256;
893.4000;0.2515;2.6482;
893.7000;0.2434;2.6281;
894.0000;0.2475;2.6482;
894.3000;0.2450;2.6482;
894.6000;0.2466;2.6457;
894.9000;0.2466;2.6407;
895.2000;0.2458;2.6356;
895.5000;0.2434;2.6231;
895.8000;0.2466;2.6381;
896.1000;0.2450;2.6306;
896.4000;0.2475;2.6457;
896.7000;0.2556;2.6732;
897.0000;0.2458;2.6331;
897.3000;0.2442;2.6281;
897.6000;0.2434;2.6256;
897.9000;0.2499;2.6281;
898.2000;0.2475;2.6306;
898.5000;0.2491;2.6356;
898.8000;0.2450;2.6206;
899.1000;0.2442;2.6206;
899.4000;0.2491;2.6306;
899.7000;0.2483;2.6331;
900.0000;0.2483;2.6381;
900.3000;0.2418;2.6231;
900.6000;0.2458;2.6457;
900.9000;0.2466;2.6607;
901.2000;0.2540;2.6782;
901.5000;0.2466;2.6557;
901.8000;0.2450;2.6432;
902.1000;0.2475;2.6457;
902.4000;0.2499;2.6532;
902.7000;0.2409;2.6407;
903.0000;0.2507;2.6707;
903.3000;0.2450;2.6607;
903.6000;0.2458;2.6657;
903.9000;0.2442;2.6582;
904.2000;0.2450;2.6582;
904.5000;0.2450;2.6607;
904.8000;0.2475;2.6632;
905.1000;0.2458;2.6507;
905.4000;0.2434;2.6457;
905.7000;0.2442;2.6457;
906.0000;0.2523;2.6682;
906.3000;0.2442;2.6432;
906.6000;0.2450;2.6482;
906.9000;0.2483;2.6557;
907.2000;0.2466;2.6557;
907.5000;0.2401;2.6331;
907.8000;0.2491;2.6582;
908.1000;0.2450;2.6532;
908.4000;0.2442;2.6482;
908.7000;0.2499;2.6657;
909.0000;0.2442;2.6432;
909.3000;0.2458;2.6457;
909.6000;0.2466;2.6482;
909.9000;0.2458;2.6507;
910.2000;0.2458;2.6407;
910.5000;0.2442;2.6381;
910.8000;0.2458;2.6381;
911.1000;0.2450;2.6407;
911.4000;0.2442;2.6432;
911.7000;0.2409;2.6407;
912.0000;0.2442;2.6457;
912.3000;0.2483;2.6557;
912.6000;0.2466;2.6532;
912.9000;0.2434;2.6457;
913.2000;0.2466;2.6482;
913.5000;0.2458;2.6432;
913.8000;0.2475;2.6482;
914.1000;0.2450;2.6407;
914.4000;0.2458;2.6381;
914.7000;0.2409;2.6306;
915.0000;0.2450;2.6482;
915.3000;0.2450;2.6432;
915.6000;0.2418;2.6356;
915.9000;0.2442;2.6457;
916.2000;0.2450;2.6482;
916.5000;0.2450;2.6432;
916.8000;0.2442;2.6432;
917.1000;0.2442;2.6432;
917.4000;0.2475;2.6532;
917.7000;0.2483;2.6532;
918.0000;0.2466;2.6432;
918.3000;0.2466;2.6557;
918.6000;0.2483;2.6582;
918.9000;0.2466;2.6457;
919.2000;0.2450;2.6482;
919.5000;0.2450;2.6432;
919.8000;0.2442;2.6457;
920.1000;0.2466;2.6557;
920.4000;0.2434;2.6482;
920.7000;0.2466;2.6632;
921.0000;0.2426;2.6407;
921.3000;0.2458;2.6407;
921.6000;0.2442;2.6331;
921.9000;0.2466;2.6356;
922.2000;0.2515;2.6482;
922.5000;0.2458;2.6407;
922.8000;0.2458;2.6482;
923.1000;0.2515;2.6682;
923.4000;0.2466;2.6557;
923.7000;0.2466;2.6482;
924.0000;0.2426;2.6331;
924.3000;0.2295;2.5956;
924.6000;0.2458;2.6432;
924.9000;0.2450;2.6356;
925.2000;0.2393;2.6131;
925.5000;0.2483;2.6432;
925.8000;0.2434;2.6432;
926.1000;0.2450;2.6532;
926.4000;0.2458;2.6582;
926.7000;0.2458;2.6532;
927.0000;0.2450;2.6457;
927.3000;0.2483;2.6507;
927.6000;0.2450;2.6482;
927.9000;0.2450;2.6432;
928.2000;0.2466;2.6381;
928.5000;0.2466;2.6557;
928.8000;0.2466;2.6507;
929.1000;0.2475;2.6507;
929.4000;0.2466;2.6457;
929.7000;0.2458;2.6432;
930.0000;0.2385;2.6281;
930.3000;0.2458;2.6507;
930.6000;0.2458;2.6507;
930.9000;0.2450;2.6457;
931.2000;0.2434;2.6381;
931.5000;0.2442;2.6381;
931.8000;0.2458;2.6432;
932.1000;0.2369;2.6156;
932.4000;0.2434;2.6306;
932.7000;0.2442;2.6206;
933.0000;0.2507;2.6457;
933.3000;0.2426;2.6306;
933.6000;0.2450;2.6532;
933.9000;0.2499;2.6582;
934.2000;0.2466;2.6482;
934.5000;0.2434;2.6407;
934.8000;0.2426;2.6331;
935.1000;0.2434;2.6482;
935.4000;0.2499;2.6582;
935.7000;0.2475;2.6507;
936.0000;0.2466;2.6507;
936.3000;0.2450;2.6407;
936.6000;0.2507;2.6682;
936.9000;0.2458;2.6532;
937.2000;0.2377;2.6206;
937.5000;0.2320;2.6056;
937.8000;0.2458;2.6306;
938.1000;0.2475;2.6407;
938.4000;0.2442;2.6356;
938.7000;0.2458;2.6381;
939.0000;0.2458;2.6356;
939.3000;0.2499;2.6507;
939.6000;0.2442;2.6331;
939.9000;0.2450;2.6432;
940.2000;0.2442;2.6306;
940.5000;0.2450;2.6331;
940.8000;0.2572;2.6532;
941.1000;0.2434;2.6231;
941.4000;0.2418;2.6131;
941.7000;0.2458;2.6231;
942.0000;0.2442;2.6231;
942.3000;0.2458;2.6381;
942.6000;0.2450;2.6281;
942.9000;0.2458;2.6256;
943.2000;0.2442;2.6231;
943.5000;0.2466;2.6356;
943.8000;0.2442;2.6356;
944.1000;0.2466;2.6482;
944.4000;0.2458;2.6457;
944.7000;0.2499;2.6632;
945.0000;0.2491;2.6682;
945.3000;0.2475;2.6632;
945.6000;0.2450;2.6557;
945.9000;0.2458;2.6532;
946.2000;0.2434;2.6507;
946.5000;0.2475;2.6532;
946.8000;0.2458;2.6482;
947.1000;0.2523;2.6732;
947.4000;0.2466;2.6507;
947.7000;0.2450;2.6432;
948.0000;0.2475;2.6457;
948.3000;0.2466;2.6507;
948.6000;0.2458;2.6407;
948.9000;0.2442;2.6281;
949.2000;0.2426;2.6106;
949.5000;0.2369;2.5906;
949.8000;0.2418;2.6081;
950.1000;0.2409;2.6031;
950.4000;0.2434;2.6106;
950.7000;0.2466;2.6156;
951.0000;0.2352;2.5881;
951.3000;0.2418;2.6131;
951.6000;0.2483;2.6381;
951.9000;0.2450;2.6331;
952.2000;0.2466;2.6331;
952.5000;0.2458;2.6256;
952.8000;0.2458;2.6281;
953.1000;0.2458;2.6306;
953.4000;0.2450;2.6356;
953.7000;0.2475;2.6432;
954.0000;0.2418;2.6181;
954.3000;0.2466;2.6356;
954.6000;0.2450;2.6407;
954.9000;0.2458;2.6507;
955.2000;0.2450;2.6482;
955.5000;0.2450;2.6507;
955.8000;0.2442;2.6281;
956.1000;0.2442;2.6356;
956.4000;0.2450;2.6356;
956.7000;0.2507;2.6507;
957.0000;0.2442;2.6407;
957.3000;0.2450;2.6457;
957.6000;0.2450;2.6432;
957.9000;0.2475;2.6482;
958.2000;0.2507;2.6607;
958.5000;0.2385;2.6381;
958.8000;0.2442;2.6507;
959.1000;0.2450;2.6532;
959.4000;0.2426;2.6482;
959.7000;0.2442;2.6482;
960.0000;0.2515;2.6632;
960.3000;0.2442;2.6432;
960.6000;0.2426;2.6482;
960.9000;0.2458;2.6507;
961.2000;0.2466;2.6482;
961.5000;0.2442;2.6281;
961.8000;0.2434;2.6281;
962.1000;0.2458;2.6356;
962.4000;0.2442;2.6331;
962.7000;0.2466;2.6356;
963.0000;0.2475;2.6356;
963.3000;0.2434;2.6231;
963.6000;0.2483;2.6407;
963.9000;0.2475;2.6432;
964.2000;0.2434;2.6457;
964.5000;0.2442;2.6407;
964.8000;0.2483;2.6432;
965.1000;0.2450;2.6381;
965.4000;0.2475;2.6381;
965.7000;0.2434;2.6181;
966.0000;0.2450;2.6231;
966.3000;0.2442;2.6131;
966.6000;0.2466;2.6231;
966.9000;0.2523;2.6482;
967.2000;0.2483;2.6432;
967.5000;0.2450;2.6306;
967.8000;0.2458;2.6432;
968.1000;0.2458;2.6356;
968.4000;0.2523;2.6557;
968.7000;0.2458;2.6356;
969.0000;0.2458;2.6281;
969.3000;0.2442;2.6281;
969.6000;0.2483;2.6306;
969.9000;0.2442;2.6181;
970.2000;0.2426;2.6106;
970.5000;0.2499;2.6306;
970.8000;0.2458;2.6106;
971.1000;0.2458;2.6156;
971.4000;0.2466;2.6156;
971.7000;0.2418;2.6006;
972.0000;0.2483;2.6131;
972.3000;0.2491;2.6006;
972.6000;0.2458;2.6006;
972.9000;0.2507;2.6006;
973.2000;0.2466;2.6006;
973.5000;0.2466;2.6031;
973.8000;0.2442;2.6006;
974.1000;0.2515;2.6331;
974.4000;0.2442;2.6131;
974.7000;0.2475;2.6231;
975.0000;0.2458;2.6106;
975.3000;0.2466;2.6156;
975.6000;0.2450;2.6131;
975.9000;0.2426;2.6056;
976.2000;0.2466;2.6281;
976.5000;0.2418;2.6106;
976.8000;0.2442;2.6131;
977.1000;0.2458;2.6156;
977.4000;0.2442;2.6106;
977.7000;0.2450;2.6206;
978.0000;0.2442;2.6231;
978.3000;0.2434;2.6281;
978.6000;0.2458;2.6482;
978.9000;0.2458;2.6407;
979.2000;0.2434;2.6331;
979.5000;0.2466;2.6331;
979.8000;0.2401;2.6056;
980.1000;0.2450;2.6206;
980.4000;0.2450;2.6206;
980.7000;0.2442;2.6206;
981.0000;0.2483;2.6206;
981.3000;0.2450;2.6081;
981.6000;0.2450;2.6106;
981.9000;0.2483;2.6206;
982.2000;0.2458;2.6181;
982.5000;0.2458;2.6156;
982.8000;0.2450;2.6181;
983.1000;0.2466;2.6131;
983.4000;0.2442;2.6081;
983.7000;0.2491;2.6281;
984.0000;0.2450;2.6231;
984.3000;0.2458;2.6206;
984.6000;0.2483;2.6281;
984.9000;0.2434;2.6106;
985.2000;0.2466;2.6156;
985.5000;0.2450;2.6181;
985.8000;0.2442;2.6256;
986.1000;0.2450;2.6256;
986.4000;0.2450;2.6156;
986.7000;0.2352;2.5956;
987.0000;0.2499;2.6381;
987.3000;0.2499;2.6432;
987.6000;0.2483;2.6407;
987.9000;0.2458;2.6331;
988.2000;0.2483;2.6432;
988.5000;0.2450;2.6256;
988.8000;0.2466;2.6331;
989.1000;0.2450;2.6331;
989.4000;0.2434;2.6306;
989.7000;0.2442;2.6306;
990.0000;0.2475;2.6407;
990.3000;0.2458;2.6356;
990.6000;0.2442;2.6206;
990.9000;0.2450;2.6231;
991.2000;0.2458;2.6256;
991.5000;0.2426;2.6306;
991.8000;0.2442;2.6331;
992.1000;0.2450;2.6231;
992.4000;0.2499;2.6407;
992.7000;0.2458;2.6231;
993.0000;0.2458;2.6156;
993.3000;0.2442;2.6106;
993.6000;0.2426;2.6081;
993.9000;0.2385;2.5931;
994.2000;0.2458;2.6206;
994.5000;0.2466;2.6281;
994.8000;0.2426;2.6181;
995.1000;0.2442;2.6281;
995.4000;0.2434;2.6231;
995.7000;0.2466;2.6231;
996.0000;0.2458;2.6281;
996.3000;0.2442;2.6281;
996.6000;0.2450;2.6231;
996.9000;0.2450;2.6256;
997.2000;0.2442;2.6256;
997.5000;0.2336;2.5881;
997.8000;0.2450;2.6131;
998.1000;0.2450;2.6106;
998.4000;0.2466;2.6106;
998.7000;0.2475;2.6131;
999.0000;0.2385;2.5906;
999.3000;0.2458;2.6106;
999.6000;0.2466;2.6081;
999.9000;0.2466;2.6156;
1000.2000;0.2458;2.6206;
1000.5000;0.2450;2.6256;
1000.8000;0.2426;2.6156;
1001.1000;0.2458;2.6231;
1001.4000;0.2466;2.6356;
1001.7000;0.2466;2.6306;
1002.0000;0.2442;2.6206;
1002.3000;0.2450;2.6281;
1002.6000;0.2483;2.6381;
1002.9000;0.2458;2.6231;
1003.2000;0.2466;2.6156;
1003.5000;0.2434;2.6156;
1003.8000;0.2393;2.6031;
1004.1000;0.2450;2.6131;
1004.4000;0.2442;2.6156;
1004.7000;0.2442;2.6156;
1005.0000;0.2458;2.6281;
1005.3000;0.2450;2.6256;
1005.6000;0.2434;2.6256;
1005.9000;0.2458;2.6356;
1006.2000;0.2450;2.6306;
1006.5000;0.2434;2.6256;
1006.8000;0.2450;2.6381;
1007.1000;0.2426;2.6306;
1007.4000;0.2466;2.6281;
1007.7000;0.2483;2.6331;
1008.0000;0.2483;2.6381;
1008.3000;0.2458;2.6356;
1008.6000;0.2409;2.6181;
1008.9000;0.2466;2.6281;
1009.2000;0.2409;2.6106;
1009.5000;0.2491;2.6281;
1009.8000;0.2450;2.6156;
1010.1000;0.2442;2.6056;
1010.4000;0.2475;2.6156;
1010.7000;0.2409;2.6031;
1011.0000;0.2442;2.6106;
1011.3000;0.2475;2.6181;
1011.6000;0.2450;2.6206;
1011.9000;0.2458;2.6181;
1012.2000;0.2483;2.6231;
1012.5000;0.2475;2.6206;
1012.8000;0.2442;2.6256;
1013.1000;0.2458;2.6281;
1013.4000;0.2475;2.6256;
1013.7000;0.2466;2.6306;
1014.0000;0.2466;2.6256;
1014.3000;0.2466;2.6281;
1014.6000;0.2458;2.6231;
1014.9000;0.2458;2.6231;
1015.2000;0.2377;2.6031;
1015.5000;0.2475;2.6256;
1015.8000;0.2434;2.6156;
1016.1000;0.2458;2.6256;
1016.4000;0.2475;2.6306;
1016.7000;0.2450;2.6256;
1017.0000;0.2466;2.6381;
1017.3000;0.2466;2.6331;
1017.6000;0.2442;2.6281;
1017.9000;0.2491;2.6281;
1018.2000;0.2564;2.6432;
1018.5000;0.2450;2.6056;
1018.8000;0.2442;2.5981;
1019.1000;0.2466;2.6106;
1019.4000;0.2491;2.6256;
1019.7000;0.2418;2.6156;
1020.0000;0.2475;2.6331;
1020.3000;0.2418;2.6131;
1020.6000;0.2458;2.6256;
1020.9000;0.2409;2.6156;
1021.2000;0.2442;2.6181;
1021.5000;0.2466;2.6181;
1021.8000;0.2450;2.6056;
1022.1000;0.2442;2.6006;
1022.4000;0.2369;2.5881;
1022.7000;0.2450;2.6156;
1023.0000;0.2442;2.6206;
1023.3000;0.2458;2.6231;
1023.6000;0.2499;2.6381;
1023.9000;0.2434;2.6231;
1024.2000;0.2434;2.6306;
1024.5000;0.2466;2.6331;
1024.8000;0.2426;2.6131;
1025.1000;0.2442;2.6131;
1025.4000;0.2466;2.6231;
1025.7000;0.2442;2.6206;
1026.0000;0.2442;2.6256;
1026.3000;0.2466;2.6381;
1026.6000;0.2434;2.6306;
1026.9000;0.2442;2.6256;
1027.2000;0.2466;2.6281;
1027.5000;0.2499;2.6331;
1027.8000;0.2483;2.6331;
1028.1000;0.2483;2.6306;
1028.4000;0.2466;2.6206;
1028.7000;0.2466;2.6181;
1029.0000;0.2450;2.6106;
1029.3000;0.2507;2.6256;
1029.6000;0.2426;2.6081;
1029.9000;0.2442;2.6131;
1030.2000;0.2442;2.6131;
1030.5000;0.2336;2.5906;
1030.8000;0.2426;2.6206;
1031.1000;0.2466;2.6281;
1031.4000;0.2409;2.6031;
1031.7000;0.2589;2.6582;
1032.0000;0.2393;2.6056;
1032.3000;0.2442;2.6256;
1032.6000;0.2483;2.6407;
1032.9000;0.2450;2.6231;
1033.2000;0.2475;2.6256;
1033.5000;0.2475;2.6306;
1033.8000;0.2466;2.6306;
1034.1000;0.2475;2.6381;
1034.4000;0.2450;2.6206;
1034.7000;0.2434;2.6181;
1035.0000;0.2442;2.6181;
1035.3000;0.2475;2.6381;
1035.6000;0.2434;2.6206;
1035.9000;0.2458;2.6206;
1036.2000;0.2450;2.6206;
1036.5000;0.2442;2.6181;
1036.8000;0.2450;2.6281;
1037.1000;0.2466;2.6206;
1037.4000;0.2475;2.6131;
1037.7000;0.2450;2.5981;
1038.0000;0.2515;2.6131;
1038.3000;0.2491;2.6081;
1038.6000;0.2458;2.5981;
1038.9000;0.2458;2.5956;
1039.2000;0.2540;2.6256;
1039.5000;0.2475;2.6156;
1039.8000;0.2442;2.6106;
1040.1000;0.2458;2.6156;
1040.4000;0.2442;2.6131;
1040.7000;0.2466;2.6131;
1041.0000;0.2515;2.6356;
1041.3000;0.2466;2.6206;
1041.6000;0.2466;2.6206;
1041.9000;0.2385;2.5956;
1042.2000;0.2540;2.6306;
1042.5000;0.2450;2.6156;
1042.8000;0.2450;2.6156;
1043.1000;0.2483;2.6331;
1043.4000;0.2466;2.6181;
1043.7000;0.2442;2.6106;
1044.0000;0.2475;2.6256;
1044.3000;0.2475;2.6281;
1044.6000;0.2483;2.6331;
1044.9000;0.2466;2.6331;
1045.2000;0.2434;2.6306;
1045.5000;0.2442;2.6331;
1045.8000;0.2393;2.6256;
1046.1000;0.2475;2.6407;
1046.4000;0.2450;2.6256;
1046.7000;0.2483;2.6407;
1047.0000;0.2320;2.5981;
1047.3000;0.2442;2.6381;
1047.6000;0.2442;2.6306;
1047.9000;0.2491;2.6356;
1048.2000;0.2450;2.6281;
1048.5000;0.2434;2.6181;
1048.8000;0.2458;2.6256;
1049.1000;0.2475;2.6256;
1049.4000;0.2458;2.6306;
1049.7000;0.2466;2.6181;
1050.0000;0.2475;2.6206;
1050.3000;0.2466;2.6256;
1050.6000;0.2450;2.6156;
1050.9000;0.2434;2.6156;
1051.2000;0.2442;2.6181;
1051.5000;0.2491;2.6256;
1051.8000;0.2361;2.5881;
1052.1000;0.2458;2.6256;
1052.4000;0.2385;2.6081;
1052.7000;0.2450;2.6281;
1053.0000;0.2442;2.6156;
1053.3000;0.2458;2.6081;
1053.6000;0.2483;2.6256;
1053.9000;0.2483;2.6331;
1054.2000;0.2483;2.6331;
1054.5000;0.2466;2.6231;
1054.8000;0.2458;2.6181;
1055.1000;0.2458;2.6256;
1055.4000;0.2483;2.6281;
1055.7000;0.2499;2.6331;
1056.0000;0.2458;2.6206;
1056.3000;0.2458;2.6256;
1056.6000;0.2320;2.5906;
1056.9000;0.2458;2.6356;
1057.2000;0.2434;2.6181;
1057.5000;0.2466;2.6281;
1057.8000;0.2515;2.6407;
1058.1000;0.2483;2.6306;
1058.4000;0.2483;2.6306;
1058.7000;0.2450;2.6156;
1059.0000;0.2483;2.6281;
1059.3000;0.2450;2.6206;
1059.6000;0.2450;2.6256;
1059.9000;0.2458;2.6356;
1060.2000;0.2466;2.6331;
1060.5000;0.2450;2.6306;
1060.8000;0.2458;2.6131;
1061.1000;0.2466;2.6056;
1061.4000;0.2458;2.6081;
1061.7000;0.2409;2.5981;
1062.0000;0.2466;2.6156;
1062.3000;0.2450;2.6181;
1062.6000;0.2458;2.6306;
1062.9000;0.2475;2.6281;
1063.2000;0.2458;2.6181;
1063.5000;0.2458;2.6131;
1063.8000;0.2442;2.6156;
1064.1000;0.2458;2.6256;
1064.4000;0.2523;2.6482;
1064.7000;0.2483;2.6432;
1065.0000;0.2450;2.6331;
1065.3000;0.2466;2.6356;
1065.6000;0.2369;2.5981;
1065.9000;0.2491;2.6306;
1066.2000;0.2450;2.6181;
1066.5000;0.2458;2.6306;
1066.8000;0.2515;2.6457;
1067.1000;0.2466;2.6331;
1067.4000;0.2450;2.6231;
1067.7000;0.2475;2.6331;
1068.0000;0.2434;2.6306;
1068.3000;0.2466;2.6407;
1068.6000;0.2450;2.6356;
1068.9000;0.2442;2.6306;
1069.2000;0.2450;2.6356;
1069.5000;0.2426;2.6256;
1069.8000;0.2442;2.6231;
1070.1000;0.2409;2.6106;
1070.4000;0.2483;2.6331;
1070.7000;0.2450;2.6156;
1071.0000;0.2458;2.6231;
1071.3000;0.2475;2.6306;
1071.6000;0.2450;2.6256;
1071.9000;0.2442;2.6131;
1072.2000;0.2466;2.6256;
1072.5000;0.2458;2.6281;
1072.8000;0.2466;2.6356;
1073.1000;0.2491;2.6457;
1073.4000;0.2458;2.6356;
1073.7000;0.2507;2.6432;
1074.0000;0.2442;2.6256;
1074.3000;0.2458;2.6231;
1074.6000;0.2442;2.6231;
1074.9000;0.2434;2.6231;
1075.2000;0.2442;2.6281;
1075.5000;0.2458;2.6331;
1075.8000;0.2450;2.6231;
1076.1000;0.2458;2.6281;
1076.4000;0.2442;2.6281;
1076.7000;0.2458;2.6181;
1077.0000;0.2466;2.6131;
1077.3000;0.2475;2.6131;
1077.6000;0.2499;2.6281;
1077.9000;0.2442;2.6231;
1078.2000;0.2466;2.6356;
1078.5000;0.2475;2.6532;
1078.8000;0.2475;2.6507;
1079.1000;0.2466;2.6432;
1079.4000;0.2589;2.6732;
1079.7000;0.2491;2.6482;
1080.0000;0.2450;2.6457;
1080.3000;0.2548;2.6757;
1080.6000;0.2466;2.6532;
1080.9000;0.2434;2.6432;
1081.2000;0.2442;2.6482;
1081.5000;0.2450;2.6482;
1081.8000;0.2466;2.6507;
1082.1000;0.2450;2.6407;
1082.4000;0.2483;2.6457;
1082.7000;0.2466;2.6281;
1083.0000;0.2475;2.6256;
1083.3000;0.2466;2.6181;
1083.6000;0.2483;2.6156;
1083.9000;0.2418;2.6031;
1084.2000;0.2450;2.6081;
1084.5000;0.2491;2.6156;
1084.8000;0.2458;2.6106;
1085.1000;0.2450;2.6156;
1085.4000;0.2466;2.6156;
1085.7000;0.2401;2.6056;
1086.0000;0.2450;2.6181;
1086.3000;0.2507;2.6356;
1086.6000;0.2458;2.6256;
1086.9000;0.2466;2.6256;
1087.2000;0.2466;2.6256;
1087.5000;0.2483;2.6356;
1087.8000;0.2483;2.6432;
1088.1000;0.2491;2.6331;
1088.4000;0.2475;2.6256;
1088.7000;0.2475;2.6181;
1089.0000;0.2483;2.6206;
1089.3000;0.2523;2.6432;
1089.6000;0.2418;2.6181;
1089.9000;0.2426;2.6106;
1090.2000;0.2466;2.6156;
1090.5000;0.2548;2.6432;
1090.8000;0.2450;2.6156;
1091.1000;0.2458;2.6206;
1091.4000;0.2385;2.6006;
1091.7000;0.2450;2.6181;
1092.0000;0.2507;2.6356;
1092.3000;0.2475;2.6206;
1092.6000;0.2450;2.6181;
1092.9000;0.2442;2.6156;
1093.2000;0.2458;2.6156;
1093.5000;0.2548;2.6306;
1093.8000;0.2540;2.6331;
1094.1000;0.2515;2.6181;
1094.4000;0.2409;2.5981;
1094.7000;0.2475;2.6056;
1095.0000;0.2466;2.6031;
1095.3000;0.2466;2.6106;
1095.6000;0.2466;2.6156;
1095.9000;0.2458;2.6181;
1096.2000;0.2475;2.6281;
1096.5000;0.2483;2.6206;
1096.8000;0.2475;2.6181;
1097.1000;0.2466;2.6131;
1097.4000;0.2418;2.5981;
1097.7000;0.2450;2.6031;
1098.0000;0.2483;2.6181;
1098.3000;0.2434;2.6081;
1098.6000;0.2450;2.6106;
1098.9000;0.2515;2.6306;
1099.2000;0.2466;2.6181;
1099.5000;0.2458;2.6156;
1099.8000;0.2466;2.6106;
1100.1000;0.2442;2.6056;
1100.4000;0.2393;2.5856;
1100.7000;0.2458;2.6106;
1101.0000;0.2475;2.6106;
1101.3000;0.2352;2.5956;
1101.6000;0.2491;2.6381;
1101.9000;0.2475;2.6432;
1102.2000;0.2458;2.6407;
1102.5000;0.2475;2.6381;
1102.8000;0.2532;2.6532;
1103.1000;0.2450;2.6256;
1103.4000;0.2466;2.6256;
1103.7000;0.2466;2.6206;
1104.0000;0.2458;2.6281;
1104.3000;0.2483;2.6356;
1104.6000;0.2450;2.6281;
1104.9000;0.2442;2.6331;
1105.2000;0.2466;2.6306;
1105.5000;0.2483;2.6256;
1105.8000;0.2442;2.6131;
1106.1000;0.2466;2.6256;
1106.4000;0.2466;2.6281;
1106.7000;0.2442;2.6181;
1107.0000;0.2458;2.6206;
1107.3000;0.2458;2.6256;
1107.6000;0.2426;2.6206;
1107.9000;0.2458;2.6407;
1108.2000;0.2466;2.6457;
1108.5000;0.2491;2.6432;
1108.8000;0.2442;2.6331;
1109.1000;0.2458;2.6306;
1109.4000;0.2434;2.6256;
1109.7000;0.2475;2.6356;
1110.0000;0.2466;2.6331;
1110.3000;0.2450;2.6306;
1110.6000;0.2466;2.6231;
1110.9000;0.2434;2.6131;
1111.2000;0.2491;2.6306;
1111.5000;0.2352;2.5956;
1111.8000;0.2483;2.6281;
1112.1000;0.2442;2.6231;
1112.4000;0.2475;2.6381;
1112.7000;0.2450;2.6331;
1113.0000;0.2466;2.6432;
1113.3000;0.2450;2.6482;
1113.6000;0.2475;2.6532;
1113.9000;0.2385;2.6181;
1114.2000;0.2458;2.6256;
1114.5000;0.2450;2.6356;
1114.8000;0.2458;2.6331;
1115.1000;0.2458;2.6356;
1115.4000;0.2507;2.6432;
1115.7000;0.2499;2.6432;
1116.0000;0.2458;2.6381;
1116.3000;0.2442;2.6331;
1116.6000;0.2475;2.6356;
1116.9000;0.2450;2.6306;
1117.2000;0.2475;2.6306;
1117.5000;0.2475;2.6231;
1117.8000;0.2466;2.6231;
1118.1000;0.2483;2.6231;
1118.4000;0.2483;2.6181;
1118.7000;0.2450;2.6056;
1119.0000;0.2442;2.6056;
1119.3000;0.2450;2.6131;
1119.6000;0.2458;2.6181;
1119.9000;0.2475;2.6281;
1120.2000;0.2450;2.6231;
1120.5000;0.2434;2.6206;
1120.8000;0.2418;2.6206;
1121.1000;0.2458;2.6231;
1121.4000;0.2434;2.6231;
1121.7000;0.2466;2.6256;
1122.0000;0.2458;2.6206;
1122.3000;0.2475;2.6356;
1122.6000;0.2458;2.6407;
1122.9000;0.2466;2.6407;
1123.2000;0.2475;2.6331;
1123.5000;0.2483;2.6381;
1123.8000;0.2507;2.6457;
1124.1000;0.2466;2.6507;
1124.4000;0.2483;2.6557;
1124.7000;0.2434;2.6356;
1125.0000;0.2442;2.6457;
1125.3000;0.2532;2.6607;
1125.6000;0.2434;2.6457;
1125.9000;0.2475;2.6482;
1126.2000;0.2466;2.6407;
1126.5000;0.2466;2.6331;
1126.8000;0.2466;2.6331;
1127.1000;0.2475;2.6407;
1127.4000;0.2458;2.6356;
1127.7000;0.2442;2.6356;
1128.0000;0.2646;2.6932;
1128.3000;0.2450;2.6381;
1128.6000;0.2458;2.6381;
1128.9000;0.2450;2.6407;
1129.2000;0.2450;2.6432;
1129.5000;0.2466;2.6381;
1129.8000;0.2361;2.6131;
1130.1000;0.2458;2.6356;
1130.4000;0.2458;2.6306;
1130.7000;0.2483;2.6407;
1131.0000;0.2466;2.6407;
1131.3000;0.2475;2.6407;
1131.6000;0.2458;2.6331;
1131.9000;0.2458;2.6356;
1132.2000;0.2458;2.6206;
1132.5000;0.2409;2.6106;
1132.8000;0.2483;2.6206;
1133.1000;0.2475;2.6206;
1133.4000;0.2466;2.6181;
1133.7000;0.2491;2.6281;
1134.0000;0.2548;2.6381;
1134.3000;0.2450;2.6256;
1134.6000;0.2442;2.6306;
1134.9000;0.2475;2.6281;
1135.2000;0.2458;2.6306;
1135.5000;0.2442;2.6181;
1135.8000;0.2475;2.6181;
1136.1000;0.2466;2.6181;
1136.4000;0.2426;2.6106;
1136.7000;0.2442;2.6156;
1137.0000;0.2426;2.6156;
1137.3000;0.2466;2.6131;
1137.6000;0.2385;2.5906;
1137.9000;0.2491;2.6006;
1138.2000;0.2434;2.5956;
1138.5000;0.2475;2.6031;
1138.8000;0.2475;2.5981;
1139.1000;0.2442;2.5931;
1139.4000;0.2328;2.5606;
1139.7000;0.2507;2.6056;
1140.0000;0.2515;2.6006;
1140.3000;0.2442;2.5781;
1140.6000;0.2442;2.5806;
1140.9000;0.2466;2.5931;
1141.2000;0.2458;2.6031;
1141.5000;0.2442;2.6081;
1141.8000;0.2475;2.6131;
1142.1000;0.2450;2.6231;
1142.4000;0.2458;2.6231;
1142.7000;0.2450;2.6181;
1143.0000;0.2466;2.6331;
1143.3000;0.2418;2.6231;
1143.6000;0.2450;2.6331;
1143.9000;0.2450;2.6281;
1144.2000;0.2466;2.6306;
1144.5000;0.2475;2.6281;
1144.8000;0.2458;2.6306;
1145.1000;0.2458;2.6331;
1145.4000;0.2450;2.6306;
1145.7000;0.2458;2.6306;
1146.0000;0.2409;2.6181;
1146.3000;0.2532;2.6532;
1146.6000;0.2450;2.6256;
1146.9000;0.2450;2.6306;
1147.2000;0.2466;2.6331;
1147.5000;0.2458;2.6381;
1147.8000;0.2483;2.6432;
1148.1000;0.2458;2.6482;
1148.4000;0.2434;2.6407;
1148.7000;0.2466;2.6532;
1149.0000;0.2466;2.6482;
1149.3000;0.2483;2.6457;
1149.6000;0.2466;2.6432;
1149.9000;0.2418;2.6331;
1150.2000;0.2483;2.6482;
1150.5000;0.2483;2.6482;
1150.8000;0.2418;2.6256;
1151.1000;0.2475;2.6331;
1151.4000;0.2475;2.6306;
1151.7000;0.2450;2.6181;
1152.0000;0.2385;2.6006;
1152.3000;0.2466;2.6206;
1152.6000;0.2475;2.6231;
1152.9000;0.2475;2.6256;
1153.2000;0.2475;2.6281;
1153.5000;0.2450;2.6231;
1153.8000;0.2532;2.6432;
1154.1000;0.2393;2.6106;
1154.4000;0.2450;2.6231;
1154.7000;0.2450;2.6281;
1155.0000;0.2458;2.6256;
1155.3000;0.2475;2.6281;
1155.6000;0.2434;2.6181;
1155.9000;0.2450;2.6256;
1156.2000;0.2385;2.6031;
1156.5000;0.2426;2.6131;
1156.8000;0.2466;2.6306;
1157.1000;0.2458;2.6256;
1157.4000;0.2466;2.6256;
1157.7000;0.2475;2.6306;
1158.0000;0.2458;2.6306;
1158.3000;0.2409;2.6156;
1158.6000;0.2458;2.6231;
1158.9000;0.2434;2.6256;
1159.2000;0.2475;2.6356;
1159.5000;0.2344;2.6131;
1159.8000;0.2466;2.6356;
1160.1000;0.2523;2.6507;
1160.4000;0.2450;2.6231;
1160.7000;0.2466;2.6281;
1161.0000;0.2450;2.6106;
1161.3000;0.2458;2.6156;
1161.6000;0.2548;2.6507;
1161.9000;0.2377;2.6081;
1162.2000;0.2450;2.6231;
1162.5000;0.2320;2.6031;
1162.8000;0.2442;2.6331;
1163.1000;0.2556;2.6682;
1163.4000;0.2434;2.6381;
1163.7000;0.2466;2.6457;
1164.0000;0.2466;2.6381;
1164.3000;0.2458;2.6356;
1164.6000;0.2499;2.6507;
1164.9000;0.2418;2.6331;
1165.2000;0.2483;2.6532;
1165.5000;0.2475;2.6381;
1165.8000;0.2466;2.6407;
1166.1000;0.2475;2.6457;
1166.4000;0.2475;2.6457;
1166.7000;0.2475;2.6432;
1167.0000;0.2491;2.6381;
1167.3000;0.2458;2.6281;
1167.6000;0.2466;2.6256;
1167.9000;0.2434;2.6056;
1168.2000;0.2450;2.6031;
1168.5000;0.2426;2.5956;
1168.8000;0.2442;2.6006;
1169.1000;0.2466;2.6131;
1169.4000;0.2450;2.6181;
1169.7000;0.2475;2.6356;
1170.0000;0.2442;2.6331;
1170.3000;0.2450;2.6281;
1170.6000;0.2426;2.6281;
1170.9000;0.2450;2.6356;
1171.2000;0.2393;2.6156;
1171.5000;0.2475;2.6356;
1171.8000;0.2483;2.6231;
1172.1000;0.2450;2.6156;
1172.4000;0.2556;2.6407;
1172.7000;0.2442;2.6031;
1173.0000;0.2499;2.6156;
1173.3000;0.2450;2.6081;
1173.6000;0.2483;2.6181;
1173.9000;0.2458;2.6156;
1174.2000;0.2507;2.6331;
1174.5000;0.2434;2.6231;
1174.8000;0.2442;2.6256;
1175.1000;0.2491;2.6407;
1175.4000;0.2458;2.6331;
1175.7000;0.2491;2.6432;
1176.0000;0.2483;2.6381;
1176.3000;0.2450;2.6206;
1176.6000;0.2466;2.6256;
1176.9000;0.2458;2.6281;
1177.2000;0.2409;2.6081;
1177.5000;0.2450;2.6256;
1177.8000;0.2475;2.6331;
1178.1000;0.2458;2.6256;
1178.4000;0.2475;2.6306;
1178.7000;0.2434;2.6156;
1179.0000;0.2466;2.6231;
1179.3000;0.2458;2.6106;
1179.6000;0.2466;2.6081;
1179.9000;0.2458;2.6031;
1180.2000;0.2475;2.6056;
1180.5000;0.2507;2.6231;
1180.8000;0.2458;2.5956;
1181.1000;0.2442;2.5881;
1181.4000;0.2507;2.6031;
1181.7000;0.2466;2.5981;
1182.0000;0.2466;2.5981;
1182.3000;0.2450;2.6081;
1182.6000;0.2418;2.5981;
1182.9000;0.2491;2.6256;
1183.2000;0.2466;2.6281;
1183.5000;0.2385;2.6031;
1183.8000;0.2507;2.6432;
1184.1000;0.2540;2.6557;
1184.4000;0.2475;2.6331;
1184.7000;0.2450;2.6231;
1185.0000;0.2450;2.6281;
1185.3000;0.2491;2.6407;
1185.6000;0.2540;2.6557;
1185.9000;0.2491;2.6381;
1186.2000;0.2483;2.6407;
1186.5000;0.2450;2.6306;
1186.8000;0.2442;2.6206;
1187.1000;0.2491;2.6306;
1187.4000;0.2385;2.6006;
1187.7000;0.2466;2.6256;
1188.0000;0.2458;2.6281;
1188.3000;0.2483;2.6306;
1188.6000;0.2483;2.6306;
1188.9000;0.2442;2.6281;
1189.2000;0.2450;2.6356;
1189.5000;0.2450;2.6306;
1189.8000;0.2475;2.6331;
1190.1000;0.2450;2.6256;
1190.4000;0.2466;2.6281;
1190.7000;0.2442;2.6206;
1191.0000;0.2442;2.6181;
1191.3000;0.2450;2.6231;
1191.6000;0.2442;2.6131;
1191.9000;0.2466;2.6006;
1192.2000;0.2442;2.5956;
1192.5000;0.2458;2.5956;
1192.8000;0.2393;2.5831;
1193.1000;0.2458;2.5981;
1193.4000;0.2442;2.6056;
1193.7000;0.2442;2.6006;
1194.0000;0.2458;2.5981;
1194.3000;0.2483;2.6056;
1194.6000;0.2483;2.6081;
1194.9000;0.2491;2.6081;
1195.2000;0.2475;2.6106;
1195.5000;0.2475;2.6281;
1195.8000;0.2458;2.6306;
1196.1000;0.2450;2.6281;
1196.4000;0.2483;2.6356;
1196.7000;0.2442;2.6281;
1197.0000;0.2450;2.6281;
1197.3000;0.2458;2.6306;
1197.6000;0.2426;2.6231;
1197.9000;0.2426;2.6156;
1198.2000;0.2458;2.6256;
1198.5000;0.2483;2.6281;
1198.8000;0.2418;2.5956;
1199.1000;0.2418;2.6056;
1199.4000;0.2483;2.6131;
1199.7000;0.2434;2.6006;
1200.0000;0.2507;2.6181;
1200.3000;0.2466;2.6031;
1200.6000;0.2475;2.6081;
1200.9000;0.2434;2.6131;
1201.2000;0.2475;2.6206;
1201.5000;0.2450;2.6131;
1201.8000;0.2442;2.6106;
1202.1000;0.2466;2.6131;
1202.4000;0.2426;2.6031;
1202.7000;0.2450;2.6156;
1203.0000;0.2458;2.6206;
1203.3000;0.2409;2.6156;
1203.6000;0.2532;2.6432;
1203.9000;0.2450;2.6181;
1204.2000;0.2442;2.6106;
1204.5000;0.2450;2.6231;
1204.8000;0.2450;2.6306;
1205.1000;0.2409;2.6231;
1205.4000;0.2548;2.6457;
1205.7000;0.2475;2.6281;
1206.0000;0.2475;2.6256;
1206.3000;0.2393;2.6056;
1206.6000;0.2442;2.6231;
1206.9000;0.2401;2.6131;
1207.2000;0.2458;2.6256;
1207.5000;0.2458;2.6231;
1207.8000;0.2450;2.6206;
1208.1000;0.2458;2.6181;
1208.4000;0.2483;2.6231;
1208.7000;0.2466;2.6231;
1209.0000;0.2458;2.6256;
1209.3000;0.2442;2.6231;
1209.6000;0.2385;2.6081;
1209.9000;0.2458;2.6256;
1210.2000;0.2466;2.6281;
1210.5000;0.2418;2.6131;
1210.8000;0.2434;2.6131;
1211.1000;0.2458;2.6206;
1211.4000;0.2458;2.6281;
1211.7000;0.2450;2.6181;
1212.0000;0.2434;2.6056;
1212.3000;0.2475;2.6231;
1212.6000;0.2483;2.6206;
1212.9000;0.2442;2.6131;
1213.2000;0.2475;2.6181;
1213.5000;0.2450;2.6081;
1213.8000;0.2483;2.6156;
1214.1000;0.2499;2.6281;
1214.4000;0.2434;2.6131;
1214.7000;0.2466;2.6256;
1215.0000;0.2442;2.6256;
1215.3000;0.2507;2.6407;
1215.6000;0.2515;2.6482;
1215.9000;0.2458;2.6356;
1216.2000;0.2483;2.6557;
1216.5000;0.2401;2.6331;
1216.8000;0.2458;2.6407;
1217.1000;0.2442;2.6231;
1217.4000;0.2377;2.6106;
1217.7000;0.2434;2.6106;
1218.0000;0.2458;2.6106;
1218.3000;0.2458;2.6081;
1218.6000;0.2458;2.6131;
1218.9000;0.2450;2.6106;
1219.2000;0.2458;2.6181;
1219.5000;0.2434;2.6131;
1219.8000;0.2466;2.6181;
1220.1000;0.2475;2.6231;
1220.4000;0.2466;2.6181;
1220.7000;0.2483;2.6206;
1221.0000;0.2475;2.6231;
1221.3000;0.2491;2.6156;
1221.6000;0.2458;2.6156;
1221.9000;0.2491;2.6231;
1222.2000;0.2458;2.6106;
1222.5000;0.2450;2.6131;
1222.8000;0.2442;2.6081;
1223.1000;0.2466;2.6106;
1223.4000;0.2458;2.6081;
1223.7000;0.2491;2.6156;
1224.0000;0.2434;2.6006;
1224.3000;0.2458;2.6106;
1224.6000;0.2466;2.6106;
1224.9000;0.2491;2.6156;
1225.2000;0.2466;2.6081;
1225.5000;0.2475;2.6081;
1225.8000;0.2466;2.6106;
1226.1000;0.2483;2.6156;
1226.4000;0.2499;2.6156;
1226.7000;0.2466;2.6081;
1227.0000;0.2572;2.6331;
1227.3000;0.2466;2.6081;
1227.6000;0.2442;2.6031;
1227.9000;0.2458;2.6156;
1228.2000;0.2450;2.6081;
1228.5000;0.2369;2.5906;
1228.8000;0.2629;2.6632;
1229.1000;0.2466;2.6231;
1229.4000;0.2442;2.6106;
1229.7000;0.2458;2.6056;
1230.0000;0.2475;2.6131;
1230.3000;0.2458;2.6131;
1230.6000;0.2426;2.6031;
1230.9000;0.2466;2.6156;
1231.2000;0.2466;2.6231;
1231.5000;0.2483;2.6231;
1231.8000;0.2450;2.6206;
1232.1000;0.2466;2.6281;
1232.4000;0.2458;2.6231;
1232.7000;0.2483;2.6331;
1233.0000;0.2442;2.6156;
1233.3000;0.2466;2.6081;
1233.6000;0.2458;2.6156;
1233.9000;0.2466;2.6156;
1234.2000;0.2458;2.6281;
1234.5000;0.2450;2.6306;
1234.8000;0.2409;2.6156;
1235.1000;0.2466;2.6281;
1235.4000;0.2499;2.6381;
1235.7000;0.2442;2.6231;
1236.0000;0.2458;2.6206;
1236.3000;0.2450;2.6131;
1236.6000;0.2442;2.6031;
1236.9000;0.2466;2.6131;
1237.2000;0.2458;2.6106;
1237.5000;0.2442;2.6081;
1237.8000;0.2491;2.6256;
1238.1000;0.2466;2.6206;
1238.4000;0.2458;2.6106;
1238.7000;0.2458;2.6131;
1239.0000;0.2442;2.6156;
1239.3000;0.2466;2.6156;
1239.6000;0.2434;2.6106;
1239.9000;0.2442;2.6181;
1240.2000;0.2483;2.6206;
1240.5000;0.2499;2.6281;
1240.8000;0.2442;2.6181;
1241.1000;0.2458;2.6156;
1241.4000;0.2491;2.6306;
1241.7000;0.2466;2.6231;
1242.0000;0.2458;2.6281;
1242.3000;0.2475;2.6457;
1242.6000;0.2442;2.6432;
1242.9000;0.2466;2.6532;
1243.2000;0.2450;2.6507;
1243.5000;0.2434;2.6457;
1243.8000;0.2409;2.6356;
1244.1000;0.2523;2.6657;
1244.4000;0.2458;2.6557;
1244.7000;0.2442;2.6507;
1245.0000;0.2442;2.6507;
1245.3000;0.2466;2.6557;
1245.6000;0.2458;2.6482;
1245.9000;0.2426;2.6457;
1246.2000;0.2507;2.6607;
1246.5000;0.2466;2.6432;
1246.8000;0.2483;2.6356;
1247.1000;0.2556;2.6507;
1247.4000;0.2475;2.6281;
1247.7000;0.2426;2.6231;
1248.0000;0.2548;2.6507;
1248.3000;0.2483;2.6256;
1248.6000;0.2458;2.6256;
1248.9000;0.2475;2.6256;
1249.2000;0.2475;2.6331;
1249.5000;0.2466;2.6381;
1249.8000;0.2466;2.6507;
1250.1000;0.2475;2.6457;
1250.4000;0.2426;2.6482;
1250.7000;0.2475;2.6632;
1251.0000;0.2491;2.6657;
1251.3000;0.2532;2.6832;
1251.6000;0.2483;2.6682;
1251.9000;0.2466;2.6582;
1252.2000;0.2466;2.6507;
1252.5000;0.2442;2.6507;
1252.8000;0.2458;2.6507;
1253.1000;0.2466;2.6507;
1253.4000;0.2426;2.6331;
1253.7000;0.2458;2.6356;
1254.0000;0.2418;2.6331;
1254.3000;0.2466;2.6482;
1254.6000;0.2475;2.6532;
1254.9000;0.2466;2.6432;
1255.2000;0.2450;2.6407;
1255.5000;0.2499;2.6507;
1255.8000;0.2572;2.6657;
1256.1000;0.2450;2.6331;
1256.4000;0.2287;2.5931;
1256.7000;0.2499;2.6457;
1257.0000;0.2532;2.6532;
1257.3000;0.2483;2.6356;
1257.6000;0.2458;2.6331;
1257.9000;0.2458;2.6306;
1258.2000;0.2589;2.6532;
1258.5000;0.2458;2.6306;
1258.8000;0.2475;2.6331;
1259.1000;0.2483;2.6381;
1259.4000;0.2483;2.6432;
1259.7000;0.2523;2.6582;
1260.0000;0.2491;2.6457;
1260.3000;0.2475;2.6231;
1260.6000;0.2483;2.6331;
1260.9000;0.2450;2.6281;
1261.2000;0.2426;2.6256;
1261.5000;0.2450;2.6306;
1261.8000;0.2466;2.6306;
1262.1000;0.2491;2.6432;
1262.4000;0.2507;2.6557;
1262.7000;0.2450;2.6432;
1263.0000;0.2499;2.6482;
1263.3000;0.2466;2.6432;
1263.6000;0.2491;2.6482;
1263.9000;0.2442;2.6432;
1264.2000;0.2466;2.6557;
1264.5000;0.2523;2.6657;
1264.8000;0.2491;2.6657;
1265.1000;0.2442;2.6457;
1265.4000;0.2442;2.6432;
1265.7000;0.2475;2.6507;
1266.0000;0.2466;2.6532;
1266.3000;0.2466;2.6507;
1266.6000;0.2466;2.6407;
1266.9000;0.2483;2.6457;
1267.2000;0.2466;2.6381;
1267.5000;0.2458;2.6356;
1267.8000;0.2475;2.6457;
1268.1000;0.2466;2.6432;
1268.4000;0.2532;2.6607;
1268.7000;0.2466;2.6331;
1269.0000;0.2434;2.6206;
1269.3000;0.2475;2.6281;
1269.6000;0.2475;2.6281;
1269.9000;0.2564;2.6532;
1270.2000;0.2491;2.6231;
1270.5000;0.2483;2.6181;
1270.8000;0.2450;2.6156;
1271.1000;0.2458;2.6156;
1271.4000;0.2458;2.6181;
1271.7000;0.2458;2.6206;
1272.0000;0.2466;2.6206;
1272.3000;0.2466;2.6231;
1272.6000;0.2548;2.6482;
1272.9000;0.2523;2.6457;
1273.2000;0.2450;2.6356;
1273.5000;0.2369;2.6106;
1273.8000;0.2483;2.6356;
1274.1000;0.2450;2.6256;
1274.4000;0.2466;2.6306;
1274.7000;0.2450;2.6231;
1275.0000;0.2458;2.6306;
1275.3000;0.2499;2.6457;
1275.6000;0.2458;2.6381;
1275.9000;0.2418;2.6081;
1276.2000;0.2466;2.6131;
1276.5000;0.2475;2.6206;
1276.8000;0.2466;2.6256;
1277.1000;0.2475;2.6281;
1277.4000;0.2540;2.6507;
1277.7000;0.2434;2.6331;
1278.0000;0.2491;2.6482;
1278.3000;0.2450;2.6507;
1278.6000;0.2434;2.6482;
1278.9000;0.2589;2.6907;
1279.2000;0.2458;2.6432;
1279.5000;0.2361;2.6231;
1279.8000;0.2507;2.6682;
1280.1000;0.2442;2.6407;
1280.4000;0.2434;2.6331;
1280.7000;0.2499;2.6432;
1281.0000;0.2434;2.6256;
1281.3000;0.2450;2.6206;
1281.6000;0.2450;2.6156;
1281.9000;0.2475;2.6206;
1282.2000;0.2483;2.6231;
1282.5000;0.2483;2.6256;
1282.8000;0.2442;2.6181;
1283.1000;0.2442;2.6206;
1283.4000;0.2458;2.6256;
1283.7000;0.2491;2.6306;
1284.0000;0.2466;2.6181;
1284.3000;0.2466;2.6206;
1284.6000;0.2418;2.6056;
1284.9000;0.2458;2.6231;
1285.2000;0.2458;2.6131;
1285.5000;0.2491;2.6231;
1285.8000;0.2466;2.6156;
1286.1000;0.2466;2.6181;
1286.4000;0.2475;2.6231;
1286.7000;0.2466;2.6181;
1287.0000;0.2458;2.6181;
1287.3000;0.2466;2.6056;
1287.6000;0.2466;2.6181;
1287.9000;0.2458;2.6206;
1288.2000;0.2458;2.6356;
1288.5000;0.2426;2.6331;
1288.8000;0.2458;2.6407;
1289.1000;0.2466;2.6482;
1289.4000;0.2466;2.6507;
1289.7000;0.2466;2.6507;
1290.0000;0.2491;2.6532;
1290.3000;0.2483;2.6432;
1290.6000;0.2458;2.6432;
1290.9000;0.2491;2.6457;
1291.2000;0.2442;2.6231;
1291.5000;0.2483;2.6381;
1291.8000;0.2499;2.6331;
1292.1000;0.2466;2.6231;
1292.4000;0.2466;2.6231;
1292.7000;0.2483;2.6206;
1293.0000;0.2475;2.6181;
1293.3000;0.2466;2.6181;
1293.6000;0.2475;2.6256;
1293.9000;0.2450;2.6256;
1294.2000;0.2466;2.6306;
1294.5000;0.2483;2.6381;
1294.8000;0.2458;2.6231;
1295.1000;0.2458;2.6231;
1295.4000;0.2483;2.6432;
1295.7000;0.2434;2.6306;
1296.0000;0.2458;2.6231;
1296.3000;0.2466;2.6331;
1296.6000;0.2426;2.6306;
1296.9000;0.2491;2.6532;
1297.2000;0.2458;2.6457;
1297.5000;0.2255;2.5831;
1297.8000;0.2458;2.6482;
1298.1000;0.2458;2.6381;
1298.4000;0.2515;2.6507;
1298.7000;0.2458;2.6306;
1299.0000;0.2491;2.6407;
1299.3000;0.2336;2.6006;
1299.6000;0.2450;2.6256;
1299.9000;0.2393;2.6231;
1300.2000;0.2475;2.6381;
1300.5000;0.2466;2.6407;
1300.8000;0.2426;2.6306;
1301.1000;0.2499;2.6457;
1301.4000;0.2466;2.6306;
1301.7000;0.2466;2.6331;
1302.0000;0.2458;2.6331;
1302.3000;0.2483;2.6381;
1302.6000;0.2491;2.6457;
1302.9000;0.2523;2.6507;
1303.2000;0.2475;2.6507;
1303.5000;0.2450;2.6507;
1303.8000;0.2450;2.6457;
1304.1000;0.2418;2.6231;
1304.4000;0.2434;2.6231;
1304.7000;0.2450;2.6306;
1305.0000;0.2483;2.6482;
1305.3000;0.2450;2.6281;
1305.6000;0.2475;2.6356;
1305.9000;0.2434;2.6081;
1306.2000;0.2466;2.6281;
1306.5000;0.2458;2.6281;
1306.8000;0.2458;2.6331;
1307.1000;0.2466;2.6407;
1307.4000;0.2466;2.6432;
1307.7000;0.2491;2.6482;
1308.0000;0.2393;2.6256;
1308.3000;0.2458;2.6457;
1308.6000;0.2507;2.6632;
1308.9000;0.2377;2.6281;
1309.2000;0.2434;2.6381;
1309.5000;0.2458;2.6407;
1309.8000;0.2418;2.6256;
1310.1000;0.2491;2.6557;
1310.4000;0.2491;2.6557;
1310.7000;0.2458;2.6457;
1311.0000;0.2466;2.6482;
1311.3000;0.2475;2.6482;
1311.6000;0.2483;2.6582;
1311.9000;0.2458;2.6432;
1312.2000;0.2393;2.6256;
1312.5000;0.2458;2.6457;
1312.8000;0.2483;2.6582;
1313.1000;0.2458;2.6532;
1313.4000;0.2475;2.6732;
1313.7000;0.2475;2.6757;
1314.0000;0.2385;2.6507;
1314.3000;0.2450;2.6632;
1314.6000;0.2409;2.6557;
1314.9000;0.2483;2.6682;
1315.2000;0.2499;2.6682;
1315.5000;0.2483;2.6557;
1315.8000;0.2507;2.6632;
1316.1000;0.2466;2.6507;
1316.4000;0.2450;2.6507;
1316.7000;0.2442;2.6432;
1317.0000;0.2393;2.6256;
1317.3000;0.2458;2.6306;
1317.6000;0.2466;2.6331;
1317.9000;0.2352;2.5981;
1318.2000;0.2450;2.6331;
1318.5000;0.2450;2.6356;
1318.8000;0.2556;2.6757;
1319.1000;0.2426;2.6306;
1319.4000;0.2475;2.6432;
1319.7000;0.2466;2.6432;
1320.0000;0.2458;2.6482;
1320.3000;0.2483;2.6532;
1320.6000;0.2458;2.6582;
1320.9000;0.2523;2.6707;
1321.2000;0.2458;2.6507;
1321.5000;0.2466;2.6557;
1321.8000;0.2483;2.6632;
1322.1000;0.2491;2.6607;
1322.4000;0.2475;2.6607;
1322.7000;0.2483;2.6582;
1323.0000;0.2458;2.6482;
1323.3000;0.2499;2.6532;
1323.6000;0.2466;2.6507;
1323.9000;0.2491;2.6557;
1324.2000;0.2450;2.6407;
1324.5000;0.2475;2.6432;
1324.8000;0.2475;2.6356;
1325.1000;0.2458;2.6407;
1325.4000;0.2491;2.6507;
1325.7000;0.2466;2.6356;
1326.0000;0.2409;2.6181;
1326.3000;0.2434;2.6206;
1326.6000;0.2475;2.6407;
1326.9000;0.2475;2.6407;
1327.2000;0.2450;2.6256;
1327.5000;0.2466;2.6206;
1327.8000;0.2475;2.6256;
1328.1000;0.2442;2.6231;
1328.4000;0.2442;2.6256;
1328.7000;0.2475;2.6306;
1329.0000;0.2442;2.6281;
1329.3000;0.2499;2.6381;
1329.6000;0.2475;2.6281;
1329.9000;0.2458;2.6281;
1330.2000;0.2475;2.6356;
1330.5000;0.2426;2.6231;
1330.8000;0.2491;2.6482;
1331.1000;0.2458;2.6356;
1331.4000;0.2409;2.6256;
1331.7000;0.2475;2.6381;
1332.0000;0.2466;2.6381;
1332.3000;0.2458;2.6331;
1332.6000;0.2458;2.6356;
1332.9000;0.2491;2.6507;
1333.2000;0.2523;2.6507;
1333.5000;0.2466;2.6457;
1333.8000;0.2434;2.6356;
1334.1000;0.2475;2.6432;
1334.4000;0.2458;2.6432;
1334.7000;0.2475;2.6507;
1335.0000;0.2491;2.6557;
1335.3000;0.2580;2.6707;
1335.6000;0.2475;2.6432;
1335.9000;0.2475;2.6407;
1336.2000;0.2475;2.6407;
1336.5000;0.2458;2.6331;
1336.8000;0.2450;2.6331;
1337.1000;0.2475;2.6432;
1337.4000;0.2434;2.6306;
1337.7000;0.2344;2.6206;
1338.0000;0.2483;2.6557;
1338.3000;0.2458;2.6507;
1338.6000;0.2491;2.6507;
1338.9000;0.2523;2.6557;
1339.2000;0.2491;2.6381;
1339.5000;0.2515;2.6507;
1339.8000;0.2540;2.6557;
1340.1000;0.2540;2.6607;
1340.4000;0.2409;2.6181;
1340.7000;0.2548;2.6507;
1341.0000;0.2475;2.6206;
1341.3000;0.2442;2.6106;
1341.6000;0.2418;2.6081;
1341.9000;0.2401;2.6056;
1342.2000;0.2377;2.5956;
1342.5000;0.2442;2.6131;
1342.8000;0.2491;2.6331;
1343.1000;0.2466;2.6356;
1343.4000;0.2483;2.6381;
1343.7000;0.2507;2.6557;
1344.0000;0.2450;2.6381;
1344.3000;0.2458;2.6407;
1344.6000;0.2458;2.6381;
1344.9000;0.2548;2.6657;
1345.2000;0.2466;2.6381;
1345.5000;0.2483;2.6281;
1345.8000;0.2418;2.6081;
1346.1000;0.2475;2.6231;
1346.4000;0.2458;2.6206;
1346.7000;0.2491;2.6356;
1347.0000;0.2450;2.6381;
1347.3000;0.2475;2.6457;
1347.6000;0.2442;2.6381;
1347.9000;0.2466;2.6482;
1348.2000;0.2458;2.6457;
1348.5000;0.2466;2.6381;
1348.8000;0.2458;2.6407;
1349.1000;0.2409;2.6181;
1349.4000;0.2475;2.6457;
1349.7000;0.2491;2.6457;
1350.0000;0.2507;2.6432;
1350.3000;0.2458;2.6356;
1350.6000;0.2475;2.6507;
1350.9000;0.2483;2.6707;
1351.2000;0.2442;2.6557;
1351.5000;0.2491;2.6657;
1351.8000;0.2450;2.6532;
1352.1000;0.2458;2.6507;
1352.4000;0.2450;2.6457;
1352.7000;0.2450;2.6407;
1353.0000;0.2450;2.6432;
1353.3000;0.2466;2.6432;
1353.6000;0.2580;2.6832;
1353.9000;0.2418;2.6457;
1354.2000;0.2442;2.6482;
1354.5000;0.2499;2.6707;
1354.8000;0.2466;2.6582;
1355.1000;0.2483;2.6507;
1355.4000;0.2377;2.6106;
1355.7000;0.2556;2.6657;
1356.0000;0.2483;2.6432;
1356.3000;0.2507;2.6507;
1356.6000;0.2483;2.6432;
1356.9000;0.2344;2.6181;
1357.2000;0.2466;2.6482;
1357.5000;0.2458;2.6507;
1357.8000;0.2458;2.6432;
1358.1000;0.2450;2.6457;
1358.4000;0.2515;2.6632;
1358.7000;0.2466;2.6557;
1359.0000;0.2466;2.6457;
1359.3000;0.2450;2.6457;
1359.6000;0.2466;2.6507;
1359.9000;0.2483;2.6482;
1360.2000;0.2458;2.6356;
1360.5000;0.2466;2.6381;
1360.8000;0.2458;2.6457;
1361.1000;0.2475;2.6482;
1361.4000;0.2450;2.6407;
1361.7000;0.2466;2.6532;
1362.0000;0.2466;2.6507;
1362.3000;0.2458;2.6557;
1362.6000;0.2458;2.6532;
1362.9000;0.2466;2.6507;
1363.2000;0.2458;2.6557;
1363.5000;0.2475;2.6632;
1363.8000;0.2556;2.6857;
1364.1000;0.2466;2.6532;
1364.4000;0.2385;2.6356;
1364.7000;0.2361;2.6281;
1365.0000;0.2466;2.6507;
1365.3000;0.2483;2.6432;
1365.6000;0.2475;2.6432;
1365.9000;0.2442;2.6331;
1366.2000;0.2483;2.6407;
1366.5000;0.2418;2.6231;
1366.8000;0.2434;2.6156;
1367.1000;0.2491;2.6331;
1367.4000;0.2556;2.6457;
1367.7000;0.2466;2.6231;
1368.0000;0.2426;2.6131;
1368.3000;0.2434;2.6156;
1368.6000;0.2515;2.6407;
1368.9000;0.2344;2.5881;
1369.2000;0.2450;2.6106;
1369.5000;0.2507;2.6256;
1369.8000;0.2499;2.6356;
1370.1000;0.2564;2.6482;
1370.4000;0.2344;2.5806;
1370.7000;0.2475;2.6206;
1371.0000;0.2621;2.6757;
1371.3000;0.2483;2.6331;
1371.6000;0.2499;2.6331;
1371.9000;0.2548;2.6457;
1372.2000;0.2450;2.6256;
1372.5000;0.2597;2.6607;
1372.8000;0.2458;2.6256;
1373.1000;0.2532;2.6407;
1373.4000;0.2442;2.6206;
1373.7000;0.2466;2.6231;
1374.0000;0.2426;2.6106;
1374.3000;0.2458;2.6281;
1374.6000;0.2450;2.6256;
1374.9000;0.2540;2.6532;
1375.2000;0.2475;2.6407;
1375.5000;0.2466;2.6432;
1375.8000;0.2458;2.6306;
1376.1000;0.2491;2.6532;
1376.4000;0.2466;2.6432;
1376.7000;0.2450;2.6482;
1377.0000;0.2483;2.6507;
1377.3000;0.2442;2.6381;
1377.6000;0.2458;2.6457;
1377.9000;0.2483;2.6457;
1378.2000;0.2466;2.6306;
1378.5000;0.2475;2.6407;
1378.8000;0.2466;2.6381;
1379.1000;0.2458;2.6331;
1379.4000;0.2450;2.6281;
1379.7000;0.2450;2.6281;
1380.0000;0.2458;2.6181;
1380.3000;0.2466;2.6281;
1380.6000;0.2434;2.6206;
1380.9000;0.2434;2.6106;
1381.2000;0.2491;2.6306;
1381.5000;0.2458;2.6206;
1381.8000;0.2475;2.6231;
1382.1000;0.2434;2.6156;
1382.4000;0.2434;2.6131;
1382.7000;0.2499;2.6356;
1383.0000;0.2483;2.6381;
1383.3000;0.2466;2.6256;
1383.6000;0.2458;2.6206;
1383.9000;0.2418;2.6156;
1384.2000;0.2507;2.6432;
1384.5000;0.2483;2.6381;
1384.8000;0.2450;2.6331;
1385.1000;0.2466;2.6356;
1385.4000;0.2442;2.6381;
1385.7000;0.2442;2.6432;
1386.0000;0.2466;2.6557;
1386.3000;0.2458;2.6532;
1386.6000;0.2499;2.6682;
1386.9000;0.2483;2.6682;
1387.2000;0.2450;2.6582;
1387.5000;0.2491;2.6607;
1387.8000;0.2548;2.6682;
1388.1000;0.2466;2.6432;
1388.4000;0.2491;2.6457;
1388.7000;0.2458;2.6356;
1389.0000;0.2401;2.6231;
1389.3000;0.2475;2.6457;
1389.6000;0.2458;2.6407;
1389.9000;0.2483;2.6407;
1390.2000;0.2491;2.6306;
1390.5000;0.2466;2.6181;
1390.8000;0.2475;2.6256;
1391.1000;0.2458;2.6231;
1391.4000;0.2499;2.6482;
1391.7000;0.2483;2.6306;
1392.0000;0.2466;2.6206;
1392.3000;0.2434;2.6106;
1392.6000;0.2418;2.6081;
1392.9000;0.2523;2.6407;
1393.2000;0.2450;2.6231;
1393.5000;0.2507;2.6331;
1393.8000;0.2507;2.6356;
1394.1000;0.2532;2.6507;
1394.4000;0.2426;2.6281;
1394.7000;0.2515;2.6532;
1395.0000;0.2458;2.6432;
1395.3000;0.2458;2.6432;
1395.6000;0.2507;2.6607;
1395.9000;0.2263;2.5831;
1396.2000;0.2450;2.6356;
1396.5000;0.2475;2.6331;
1396.8000;0.2434;2.6256;
1397.1000;0.2426;2.6206;
1397.4000;0.2475;2.6306;
1397.7000;0.2483;2.6381;
1398.0000;0.2450;2.6331;
1398.3000;0.2426;2.6331;
1398.6000;0.2450;2.6181;
1398.9000;0.2475;2.6206;
1399.2000;0.2491;2.6231;
1399.5000;0.2475;2.6206;
1399.8000;0.2458;2.6156;
