time/ms;Fluo/V;P700 deltaI/I x10³;
-199.8000;0.2523;2.2026;
-199.5000;0.2499;2.1951;
-199.2000;0.2515;2.1926;
-198.9000;0.2523;2.2001;
-198.6000;0.2523;2.2051;
-198.3000;0.2523;2.2026;
-198.0000;0.2523;2.2001;
-197.7000;0.2532;2.2076;
-197.4000;0.2523;2.2151;
-197.1000;0.2523;2.2202;
-196.8000;0.2564;2.2302;
-196.5000;0.2523;2.2227;
-196.2000;0.2515;2.2327;
-195.9000;0.2540;2.2352;
-195.6000;0.2515;2.2327;
-195.3000;0.2515;2.2302;
-195.0000;0.2556;2.2302;
-194.7000;0.2507;2.2151;
-194.4000;0.2515;2.2202;
-194.1000;0.2540;2.2252;
-193.8000;0.2491;2.2151;
-193.5000;0.2548;2.2302;
-193.2000;0.2523;2.2277;
-192.9000;0.2499;2.2202;
-192.6000;0.2548;2.2277;
-192.3000;0.2523;2.2227;
-192.0000;0.2532;2.2252;
-191.7000;0.2515;2.2327;
-191.4000;0.2507;2.2352;
-191.1000;0.2499;2.2277;
-190.8000;0.2491;2.2302;
-190.5000;0.2515;2.2377;
-190.2000;0.2523;2.2402;
-189.9000;0.2499;2.2252;
-189.6000;0.2523;2.2302;
-189.3000;0.2515;2.2277;
-189.0000;0.2515;2.2327;
-188.7000;0.2499;2.2302;
-188.4000;0.2523;2.2427;
-188.1000;0.2491;2.2277;
-187.8000;0.2499;2.2277;
-187.5000;0.2507;2.2227;
-187.2000;0.2507;2.2202;
-186.9000;0.2499;2.2227;
-186.6000;0.2507;2.2277;
-186.3000;0.2523;2.2252;
-186.0000;0.2507;2.2202;
-185.7000;0.2523;2.2176;
-185.4000;0.2523;2.2202;
-185.1000;0.2507;2.2176;
-184.8000;0.2499;2.2176;
-184.5000;0.2507;2.2176;
-184.2000;0.2515;2.2252;
-183.9000;0.2532;2.2302;
-183.6000;0.2507;2.2327;
-183.3000;0.2515;2.2327;
-183.0000;0.2540;2.2227;
-182.7000;0.2515;2.2151;
-182.4000;0.2532;2.2202;
-182.1000;0.2540;2.2227;
-181.8000;0.2564;2.2327;
-181.5000;0.2499;2.2126;
-181.2000;0.2515;2.2151;
-180.9000;0.2507;2.2151;
-180.6000;0.2548;2.2252;
-180.3000;0.2532;2.2176;
-180.0000;0.2491;2.2126;
-179.7000;0.2548;2.2252;
-179.4000;0.2670;2.2602;
-179.1000;0.2515;2.2176;
-178.8000;0.2507;2.2101;
-178.5000;0.2532;2.2126;
-178.2000;0.2532;2.2202;
-177.9000;0.2515;2.2101;
-177.6000;0.2605;2.2377;
-177.3000;0.2515;2.2302;
-177.0000;0.2499;2.2101;
-176.7000;0.2532;2.2227;
-176.4000;0.2434;2.1926;
-176.1000;0.2507;2.2101;
-175.8000;0.2507;2.2051;
-175.5000;0.2499;2.2076;
-175.2000;0.2507;2.2026;
-174.9000;0.2507;2.2126;
-174.6000;0.2499;2.2202;
-174.3000;0.2507;2.2277;
-174.0000;0.2515;2.2252;
-173.7000;0.2515;2.2327;
-173.4000;0.2426;2.2151;
-173.1000;0.2507;2.2327;
-172.8000;0.2515;2.2427;
-172.5000;0.2589;2.2577;
-172.2000;0.2523;2.2302;
-171.9000;0.2523;2.2202;
-171.6000;0.2369;2.1801;
-171.3000;0.2523;2.2126;
-171.0000;0.2483;2.2076;
-170.7000;0.2515;2.2101;
-170.4000;0.2507;2.2176;
-170.1000;0.2491;2.2126;
-169.8000;0.2532;2.2252;
-169.5000;0.2515;2.2176;
-169.2000;0.2523;2.2277;
-168.9000;0.2532;2.2477;
-168.6000;0.2523;2.2377;
-168.3000;0.2532;2.2352;
-168.0000;0.2532;2.2427;
-167.7000;0.2515;2.2377;
-167.4000;0.2507;2.2302;
-167.1000;0.2515;2.2302;
-166.8000;0.2507;2.2277;
-166.5000;0.2515;2.2277;
-166.2000;0.2515;2.2202;
-165.9000;0.2483;2.2101;
-165.6000;0.2515;2.2176;
-165.3000;0.2491;2.2151;
-165.0000;0.2499;2.2252;
-164.7000;0.2507;2.2252;
-164.4000;0.2466;2.2151;
-164.1000;0.2523;2.2327;
-163.8000;0.2499;2.2327;
-163.5000;0.2532;2.2402;
-163.2000;0.2515;2.2327;
-162.9000;0.2515;2.2377;
-162.6000;0.2523;2.2277;
-162.3000;0.2499;2.2176;
-162.0000;0.2532;2.2176;
-161.7000;0.2613;2.2427;
-161.4000;0.2523;2.2126;
-161.1000;0.2499;2.2001;
-160.8000;0.2515;2.2076;
-160.5000;0.2483;2.2076;
-160.2000;0.2523;2.2176;
-159.9000;0.2483;2.2076;
-159.6000;0.2532;2.2101;
-159.3000;0.2515;2.2076;
-159.0000;0.2523;2.2151;
-158.7000;0.2507;2.2151;
-158.4000;0.2515;2.2176;
-158.1000;0.2515;2.2101;
-157.8000;0.2515;2.2051;
-157.5000;0.2532;2.2026;
-157.2000;0.2499;2.1951;
-156.9000;0.2523;2.2026;
-156.6000;0.2621;2.2327;
-156.3000;0.2507;2.2026;
-156.0000;0.2523;2.2051;
-155.7000;0.2523;2.2001;
-155.4000;0.2540;2.1951;
-155.1000;0.2523;2.1926;
-154.8000;0.2491;2.2026;
-154.5000;0.2548;2.2252;
-154.2000;0.2556;2.2302;
-153.9000;0.2523;2.2151;
-153.6000;0.2540;2.2176;
-153.3000;0.2507;2.2126;
-153.0000;0.2532;2.2227;
-152.7000;0.2515;2.2252;
-152.4000;0.2466;2.2252;
-152.1000;0.2499;2.2202;
-151.8000;0.2507;2.2327;
-151.5000;0.2507;2.2427;
-151.2000;0.2475;2.2327;
-150.9000;0.2507;2.2377;
-150.6000;0.2499;2.2402;
-150.3000;0.2499;2.2452;
-150.0000;0.2572;2.2627;
-149.7000;0.2499;2.2352;
-149.4000;0.2515;2.2402;
-149.1000;0.2475;2.2176;
-148.8000;0.2499;2.2202;
-148.5000;0.2507;2.2327;
-148.2000;0.2597;2.2627;
-147.9000;0.2637;2.2627;
-147.6000;0.2540;2.2327;
-147.3000;0.2507;2.2176;
-147.0000;0.2515;2.2126;
-146.7000;0.2475;2.2026;
-146.4000;0.2523;2.2151;
-146.1000;0.2523;2.2151;
-145.8000;0.2499;2.2026;
-145.5000;0.2491;2.1976;
-145.2000;0.2589;2.2252;
-144.9000;0.2523;2.2076;
-144.6000;0.2507;2.2101;
-144.3000;0.2499;2.2051;
-144.0000;0.2515;2.2076;
-143.7000;0.2523;2.2202;
-143.4000;0.2483;2.2176;
-143.1000;0.2499;2.2202;
-142.8000;0.2499;2.2202;
-142.5000;0.2515;2.2176;
-142.2000;0.2491;2.2026;
-141.9000;0.2515;2.2126;
-141.6000;0.2523;2.2202;
-141.3000;0.2532;2.2227;
-141.0000;0.2515;2.2151;
-140.7000;0.2491;2.2151;
-140.4000;0.2589;2.2452;
-140.1000;0.2523;2.2277;
-139.8000;0.2523;2.2227;
-139.5000;0.2515;2.2252;
-139.2000;0.2499;2.2227;
-138.9000;0.2515;2.2151;
-138.6000;0.2499;2.2051;
-138.3000;0.2572;2.2277;
-138.0000;0.2409;2.1801;
-137.7000;0.2507;2.2176;
-137.4000;0.2605;2.2477;
-137.1000;0.2523;2.2227;
-136.8000;0.2515;2.2151;
-136.5000;0.2499;2.2101;
-136.2000;0.2572;2.2327;
-135.9000;0.2515;2.2202;
-135.6000;0.2605;2.2552;
-135.3000;0.2532;2.2477;
-135.0000;0.2466;2.2352;
-134.7000;0.2523;2.2452;
-134.4000;0.2442;2.2227;
-134.1000;0.2507;2.2427;
-133.8000;0.2532;2.2502;
-133.5000;0.2532;2.2502;
-133.2000;0.2499;2.2327;
-132.9000;0.2515;2.2327;
-132.6000;0.2442;2.2176;
-132.3000;0.2613;2.2702;
-132.0000;0.2507;2.2377;
-131.7000;0.2556;2.2502;
-131.4000;0.2499;2.2427;
-131.1000;0.2532;2.2502;
-130.8000;0.2540;2.2427;
-130.5000;0.2499;2.2252;
-130.2000;0.2548;2.2352;
-129.9000;0.2515;2.2252;
-129.6000;0.2523;2.2302;
-129.3000;0.2475;2.2252;
-129.0000;0.2499;2.2352;
-128.7000;0.2507;2.2302;
-128.4000;0.2540;2.2327;
-128.1000;0.2532;2.2377;
-127.8000;0.2499;2.2302;
-127.5000;0.2532;2.2427;
-127.2000;0.2483;2.2227;
-126.9000;0.2507;2.2151;
-126.6000;0.2507;2.2151;
-126.3000;0.2515;2.2126;
-126.0000;0.2483;2.2101;
-125.7000;0.2475;2.2126;
-125.4000;0.2548;2.2327;
-125.1000;0.2548;2.2327;
-124.8000;0.2523;2.2277;
-124.5000;0.2523;2.2377;
-124.2000;0.2515;2.2402;
-123.9000;0.2523;2.2477;
-123.6000;0.2507;2.2452;
-123.3000;0.2515;2.2377;
-123.0000;0.2507;2.2252;
-122.7000;0.2499;2.2202;
-122.4000;0.2532;2.2252;
-122.1000;0.2458;2.2051;
-121.8000;0.2507;2.2151;
-121.5000;0.2523;2.2151;
-121.2000;0.2515;2.2202;
-120.9000;0.2515;2.2126;
-120.6000;0.2589;2.2377;
-120.3000;0.2523;2.2227;
-120.0000;0.2523;2.2126;
-119.7000;0.2540;2.2227;
-119.4000;0.2491;2.2176;
-119.1000;0.2515;2.2252;
-118.8000;0.2548;2.2327;
-118.5000;0.2523;2.2202;
-118.2000;0.2499;2.2076;
-117.9000;0.2515;2.2126;
-117.6000;0.2515;2.2126;
-117.3000;0.2532;2.2202;
-117.0000;0.2507;2.2101;
-116.7000;0.2662;2.2602;
-116.4000;0.2507;2.2126;
-116.1000;0.2499;2.2101;
-115.8000;0.2507;2.2151;
-115.5000;0.2426;2.1976;
-115.2000;0.2507;2.2151;
-114.9000;0.2532;2.2252;
-114.6000;0.2434;2.1951;
-114.3000;0.2507;2.2252;
-114.0000;0.2442;2.2051;
-113.7000;0.2434;2.2051;
-113.4000;0.2548;2.2352;
-113.1000;0.2556;2.2302;
-112.8000;0.2523;2.2202;
-112.5000;0.2515;2.2101;
-112.2000;0.2589;2.2402;
-111.9000;0.2450;2.1976;
-111.6000;0.2523;2.2202;
-111.3000;0.2507;2.2101;
-111.0000;0.2507;2.2076;
-110.7000;0.2523;2.2176;
-110.4000;0.2540;2.2151;
-110.1000;0.2556;2.2202;
-109.8000;0.2523;2.2101;
-109.5000;0.2515;2.2151;
-109.2000;0.2507;2.2227;
-108.9000;0.2515;2.2252;
-108.6000;0.2548;2.2227;
-108.3000;0.2515;2.2101;
-108.0000;0.2515;2.2126;
-107.7000;0.2523;2.2151;
-107.4000;0.2523;2.2176;
-107.1000;0.2532;2.2227;
-106.8000;0.2523;2.2151;
-106.5000;0.2483;2.2151;
-106.2000;0.2507;2.2277;
-105.9000;0.2662;2.2677;
-105.6000;0.2523;2.2277;
-105.3000;0.2532;2.2277;
-105.0000;0.2532;2.2377;
-104.7000;0.2515;2.2352;
-104.4000;0.2523;2.2377;
-104.1000;0.2515;2.2227;
-103.8000;0.2507;2.2227;
-103.5000;0.2532;2.2252;
-103.2000;0.2523;2.2277;
-102.9000;0.2499;2.2151;
-102.6000;0.2532;2.2227;
-102.3000;0.2507;2.2252;
-102.0000;0.2532;2.2277;
-101.7000;0.2597;2.2502;
-101.4000;0.2515;2.2227;
-101.1000;0.2507;2.2126;
-100.8000;0.2532;2.2151;
-100.5000;0.2515;2.2151;
-100.2000;0.2548;2.2227;
-99.9000;0.2523;2.2126;
-99.6000;0.2540;2.2101;
-99.3000;0.2540;2.2126;
-99.0000;0.2491;2.2026;
-98.7000;0.2515;2.2076;
-98.4000;0.2548;2.2151;
-98.1000;0.2540;2.2176;
-97.8000;0.2523;2.2126;
-97.5000;0.2515;2.2101;
-97.2000;0.2491;2.2051;
-96.9000;0.2572;2.2277;
-96.6000;0.2491;2.2151;
-96.3000;0.2523;2.2126;
-96.0000;0.2499;2.2076;
-95.7000;0.2523;2.2227;
-95.4000;0.2507;2.2176;
-95.1000;0.2532;2.2126;
-94.8000;0.2597;2.2402;
-94.5000;0.2540;2.2227;
-94.2000;0.2540;2.2202;
-93.9000;0.2540;2.2202;
-93.6000;0.2515;2.2101;
-93.3000;0.2507;2.2126;
-93.0000;0.2564;2.2302;
-92.7000;0.2507;2.2227;
-92.4000;0.2499;2.2327;
-92.1000;0.2483;2.2202;
-91.8000;0.2540;2.2252;
-91.5000;0.2418;2.1951;
-91.2000;0.2507;2.2176;
-90.9000;0.2548;2.2227;
-90.6000;0.2589;2.2377;
-90.3000;0.2515;2.2202;
-90.0000;0.2466;2.2202;
-89.7000;0.2564;2.2527;
-89.4000;0.2499;2.2377;
-89.1000;0.2564;2.2577;
-88.8000;0.2523;2.2427;
-88.5000;0.2515;2.2402;
-88.2000;0.2515;2.2352;
-87.9000;0.2499;2.2327;
-87.6000;0.2556;2.2402;
-87.3000;0.2499;2.2302;
-87.0000;0.2507;2.2277;
-86.7000;0.2507;2.2252;
-86.4000;0.2475;2.2101;
-86.1000;0.2483;2.2176;
-85.8000;0.2523;2.2302;
-85.5000;0.2507;2.2202;
-85.2000;0.2540;2.2302;
-84.9000;0.2523;2.2252;
-84.6000;0.2515;2.2277;
-84.3000;0.2483;2.2202;
-84.0000;0.2532;2.2352;
-83.7000;0.2434;2.2227;
-83.4000;0.2556;2.2452;
-83.1000;0.2523;2.2327;
-82.8000;0.2540;2.2427;
-82.5000;0.2491;2.2252;
-82.2000;0.2515;2.2327;
-81.9000;0.2466;2.2151;
-81.6000;0.2515;2.2352;
-81.3000;0.2532;2.2277;
-81.0000;0.2515;2.2327;
-80.7000;0.2507;2.2302;
-80.4000;0.2515;2.2277;
-80.1000;0.2515;2.2277;
-79.8000;0.2523;2.2302;
-79.5000;0.2483;2.2202;
-79.2000;0.2507;2.2202;
-78.9000;0.2515;2.2202;
-78.6000;0.2507;2.2227;
-78.3000;0.2515;2.2227;
-78.0000;0.2532;2.2327;
-77.7000;0.2483;2.2252;
-77.4000;0.2507;2.2352;
-77.1000;0.2556;2.2352;
-76.8000;0.2523;2.2377;
-76.5000;0.2499;2.2427;
-76.2000;0.2491;2.2302;
-75.9000;0.2515;2.2352;
-75.6000;0.2523;2.2377;
-75.3000;0.2507;2.2277;
-75.0000;0.2629;2.2477;
-74.7000;0.2491;2.2176;
-74.4000;0.2515;2.2302;
-74.1000;0.2589;2.2502;
-73.8000;0.2532;2.2327;
-73.5000;0.2377;2.1976;
-73.2000;0.2613;2.2602;
-72.9000;0.2523;2.2327;
-72.6000;0.2540;2.2427;
-72.3000;0.2556;2.2402;
-72.0000;0.2515;2.2302;
-71.7000;0.2523;2.2277;
-71.4000;0.2515;2.2327;
-71.1000;0.2540;2.2352;
-70.8000;0.2434;2.2076;
-70.5000;0.2507;2.2252;
-70.2000;0.2523;2.2302;
-69.9000;0.2515;2.2302;
-69.6000;0.2507;2.2352;
-69.3000;0.2556;2.2477;
-69.0000;0.2548;2.2377;
-68.7000;0.2507;2.2277;
-68.4000;0.2523;2.2327;
-68.1000;0.2483;2.2252;
-67.8000;0.2491;2.2277;
-67.5000;0.2540;2.2377;
-67.2000;0.2515;2.2277;
-66.9000;0.2507;2.2302;
-66.6000;0.2499;2.2252;
-66.3000;0.2580;2.2477;
-66.0000;0.2532;2.2176;
-65.7000;0.2499;2.2076;
-65.4000;0.2409;2.1826;
-65.1000;0.2515;2.2126;
-64.8000;0.2507;2.2051;
-64.5000;0.2499;2.2026;
-64.2000;0.2515;2.2076;
-63.9000;0.2515;2.2001;
-63.6000;0.2523;2.2026;
-63.3000;0.2532;2.1976;
-63.0000;0.2507;2.1901;
-62.7000;0.2483;2.1851;
-62.4000;0.2507;2.2026;
-62.1000;0.2491;2.2001;
-61.8000;0.2523;2.2176;
-61.5000;0.2523;2.2126;
-61.2000;0.2507;2.2026;
-60.9000;0.2523;2.2101;
-60.6000;0.2499;2.2026;
-60.3000;0.2556;2.2101;
-60.0000;0.2507;2.2026;
-59.7000;0.2507;2.2051;
-59.4000;0.2532;2.2151;
-59.1000;0.2507;2.2076;
-58.8000;0.2580;2.2202;
-58.5000;0.2540;2.2151;
-58.2000;0.2523;2.2101;
-57.9000;0.2621;2.2427;
-57.6000;0.2499;2.2101;
-57.3000;0.2499;2.2101;
-57.0000;0.2523;2.2126;
-56.7000;0.2515;2.2101;
-56.4000;0.2515;2.2151;
-56.1000;0.2515;2.2302;
-55.8000;0.2499;2.2252;
-55.5000;0.2523;2.2402;
-55.2000;0.2507;2.2302;
-54.9000;0.2540;2.2377;
-54.6000;0.2491;2.2202;
-54.3000;0.2499;2.2202;
-54.0000;0.2523;2.2176;
-53.7000;0.2523;2.2202;
-53.4000;0.2523;2.2302;
-53.1000;0.2515;2.2252;
-52.8000;0.2515;2.2227;
-52.5000;0.2507;2.2277;
-52.2000;0.2515;2.2352;
-51.9000;0.2515;2.2352;
-51.6000;0.2580;2.2577;
-51.3000;0.2532;2.2402;
-51.0000;0.2515;2.2227;
-50.7000;0.2515;2.2176;
-50.4000;0.2515;2.2352;
-50.1000;0.2523;2.2402;
-49.8000;0.2532;2.2452;
-49.5000;0.2515;2.2402;
-49.2000;0.2523;2.2402;
-48.9000;0.2515;2.2176;
-48.6000;0.2426;2.1826;
-48.3000;0.2483;2.2101;
-48.0000;0.2491;2.2126;
-47.7000;0.2523;2.2202;
-47.4000;0.2532;2.2227;
-47.1000;0.2515;2.2252;
-46.8000;0.2540;2.2252;
-46.5000;0.2507;2.2176;
-46.2000;0.2515;2.2202;
-45.9000;0.2523;2.2151;
-45.6000;0.2532;2.2126;
-45.3000;0.2434;2.1926;
-45.0000;0.2523;2.2151;
-44.7000;0.2499;2.2202;
-44.4000;0.2523;2.2277;
-44.1000;0.2491;2.2101;
-43.8000;0.2507;2.2176;
-43.5000;0.2532;2.2252;
-43.2000;0.2507;2.2227;
-42.9000;0.2515;2.2202;
-42.6000;0.2532;2.2176;
-42.3000;0.2556;2.2277;
-42.0000;0.2523;2.2101;
-41.7000;0.2507;2.2076;
-41.4000;0.2564;2.2176;
-41.1000;0.2507;2.2026;
-40.8000;0.2515;2.2126;
-40.5000;0.2320;2.1601;
-40.2000;0.2532;2.2076;
-39.9000;0.2515;2.2176;
-39.6000;0.2507;2.2202;
-39.3000;0.2580;2.2327;
-39.0000;0.2507;2.2126;
-38.7000;0.2515;2.2051;
-38.4000;0.2564;2.2277;
-38.1000;0.2507;2.2101;
-37.8000;0.2499;2.2026;
-37.5000;0.2507;2.2001;
-37.2000;0.2556;2.2051;
-36.9000;0.2523;2.2001;
-36.6000;0.2523;2.2026;
-36.3000;0.2523;2.2101;
-36.0000;0.2523;2.2151;
-35.7000;0.2548;2.2352;
-35.4000;0.2466;2.2202;
-35.1000;0.2523;2.2327;
-34.8000;0.2548;2.2402;
-34.5000;0.2491;2.2227;
-34.2000;0.2499;2.2252;
-33.9000;0.2491;2.2252;
-33.6000;0.2532;2.2377;
-33.3000;0.2466;2.2126;
-33.0000;0.2515;2.2227;
-32.7000;0.2483;2.2202;
-32.4000;0.2499;2.2277;
-32.1000;0.2515;2.2252;
-31.8000;0.2523;2.2176;
-31.5000;0.2515;2.2126;
-31.2000;0.2499;2.2026;
-30.9000;0.2523;2.2176;
-30.6000;0.2523;2.2227;
-30.3000;0.2499;2.2227;
-30.0000;0.2507;2.2227;
-29.7000;0.2532;2.2252;
-29.4000;0.2540;2.2227;
-29.1000;0.2507;2.2076;
-28.8000;0.2499;2.2051;
-28.5000;0.2491;2.2076;
-28.2000;0.2515;2.2051;
-27.9000;0.2507;2.2051;
-27.6000;0.2499;2.2026;
-27.3000;0.2499;2.2026;
-27.0000;0.2532;2.2126;
-26.7000;0.2515;2.2176;
-26.4000;0.2499;2.2202;
-26.1000;0.2515;2.2327;
-25.8000;0.2475;2.2202;
-25.5000;0.2540;2.2327;
-25.2000;0.2515;2.2202;
-24.9000;0.2483;2.2026;
-24.6000;0.2458;2.2001;
-24.3000;0.2532;2.2302;
-24.0000;0.2507;2.2076;
-23.7000;0.2475;2.1901;
-23.4000;0.2466;2.1951;
-23.1000;0.2491;2.2076;
-22.8000;0.2540;2.2151;
-22.5000;0.2540;2.2151;
-22.2000;0.2597;2.2302;
-21.9000;0.2523;2.2051;
-21.6000;0.2515;2.2076;
-21.3000;0.2499;2.2051;
-21.0000;0.2540;2.2227;
-20.7000;0.2523;2.2151;
-20.4000;0.2507;2.2202;
-20.1000;0.2523;2.2302;
-19.8000;0.2499;2.2202;
-19.5000;0.2719;2.2677;
-19.2000;0.2466;2.1951;
-18.9000;0.2523;2.2051;
-18.6000;0.2507;2.2076;
-18.3000;0.2507;2.2076;
-18.0000;0.2507;2.1976;
-17.7000;0.2515;2.1951;
-17.4000;0.2540;2.2076;
-17.1000;0.2572;2.2076;
-16.8000;0.2523;2.1951;
-16.5000;0.2564;2.2126;
-16.2000;0.2515;2.2051;
-15.9000;0.2523;2.2101;
-15.6000;0.2507;2.2051;
-15.3000;0.2532;2.1976;
-15.0000;0.2564;2.2101;
-14.7000;0.2507;2.1951;
-14.4000;0.2442;2.1801;
-14.1000;0.2458;2.1826;
-13.8000;0.2507;2.1976;
-13.5000;0.2499;2.1951;
-13.2000;0.2499;2.1976;
-12.9000;0.2515;2.2151;
-12.6000;0.2540;2.2302;
-12.3000;0.2540;2.2176;
-12.0000;0.2532;2.2151;
-11.7000;0.2540;2.2176;
-11.4000;0.2491;2.2051;
-11.1000;0.2515;2.2076;
-10.8000;0.2532;2.2101;
-10.5000;0.2499;2.2051;
-10.2000;0.2499;2.1976;
-9.9000;0.2475;2.1926;
-9.6000;0.2483;2.1851;
-9.3000;0.2499;2.1926;
-9.0000;0.2475;2.1826;
-8.7000;0.2499;2.1826;
-8.4000;0.2613;2.2151;
-8.1000;0.2523;2.1876;
-7.8000;0.2523;2.1826;
-7.5000;0.2499;2.1801;
-7.2000;0.2523;2.1826;
-6.9000;0.2532;2.1901;
-6.6000;0.2589;2.2076;
-6.3000;0.2580;2.2076;
-6.0000;0.2532;2.1976;
-5.7000;0.2613;2.2327;
-5.4000;0.2540;2.2051;
-5.1000;0.2515;2.2051;
-4.8000;0.2523;2.2051;
-4.5000;0.2515;2.2001;
-4.2000;0.2507;2.1926;
-3.9000;0.2507;2.1901;
-3.6000;0.2515;2.1976;
-3.3000;0.2532;2.2026;
-3.0000;0.2515;2.2026;
-2.7000;0.2564;2.2202;
-2.4000;0.2532;2.2126;
-2.1000;0.2515;2.2126;
-1.8000;0.2523;2.2101;
-1.5000;0.2491;2.2151;
-1.2000;0.2523;2.2202;
-0.9000;0.2507;2.2151;
-0.6000;0.2564;2.2277;
-0.3000;0.2613;2.2302;
0.0000;0.2613;2.2302;
0.3000;0.2572;2.2151;
0.6000;0.2483;2.2227;
0.9000;0.2597;2.2827;
1.2000;0.2686;2.3303;
1.5000;0.2475;2.3027;
1.8000;0.2507;2.3328;
2.1000;0.2597;2.3828;
2.4000;0.2694;2.4329;
2.7000;0.2654;2.4454;
3.0000;0.2662;2.4579;
3.3000;0.2646;2.4529;
3.6000;0.2637;2.4629;
3.9000;0.2629;2.4629;
4.2000;0.2646;2.4730;
4.5000;0.2719;2.4955;
4.8000;0.2711;2.4905;
5.1000;0.2637;2.4704;
5.4000;0.2637;2.4880;
5.7000;0.2637;2.4830;
6.0000;0.2654;2.4855;
6.3000;0.2637;2.4855;
6.6000;0.2646;2.4905;
6.9000;0.2654;2.4955;
7.2000;0.2662;2.5080;
7.5000;0.2719;2.5255;
7.8000;0.2678;2.5155;
8.1000;0.2654;2.5005;
8.4000;0.2646;2.5005;
8.7000;0.2662;2.5105;
9.0000;0.2735;2.5330;
9.3000;0.2613;2.5030;
9.6000;0.2646;2.5080;
9.9000;0.2646;2.5055;
10.2000;0.2646;2.5005;
10.5000;0.2621;2.4930;
10.8000;0.2637;2.4980;
11.1000;0.2589;2.4830;
11.4000;0.2670;2.4955;
11.7000;0.2580;2.4805;
12.0000;0.2637;2.4905;
12.3000;0.2670;2.5055;
12.6000;0.2670;2.5105;
12.9000;0.2678;2.5130;
13.2000;0.2678;2.5155;
13.5000;0.2654;2.5080;
13.8000;0.2662;2.5105;
14.1000;0.2662;2.5105;
14.4000;0.2637;2.5030;
14.7000;0.2646;2.5080;
15.0000;0.2662;2.5155;
15.3000;0.2654;2.5255;
15.6000;0.2556;2.4980;
15.9000;0.2629;2.5180;
16.2000;0.2662;2.5280;
16.5000;0.2654;2.5255;
16.8000;0.2548;2.5105;
17.1000;0.2654;2.5355;
17.4000;0.2597;2.5180;
17.7000;0.2646;2.5380;
18.0000;0.2662;2.5380;
18.3000;0.2629;2.5255;
18.6000;0.2662;2.5330;
18.9000;0.2621;2.5305;
19.2000;0.2670;2.5405;
19.5000;0.2654;2.5255;
19.8000;0.2670;2.5355;
20.1000;0.2637;2.5280;
20.4000;0.2662;2.5255;
20.7000;0.2694;2.5355;
21.0000;0.2678;2.5355;
21.3000;0.2597;2.5030;
21.6000;0.2654;2.5180;
21.9000;0.2686;2.5280;
22.2000;0.2670;2.5280;
22.5000;0.2646;2.5205;
22.8000;0.2654;2.5255;
23.1000;0.2654;2.5255;
23.4000;0.2654;2.5255;
23.7000;0.2637;2.5280;
24.0000;0.2621;2.5280;
24.3000;0.2646;2.5305;
24.6000;0.2597;2.5105;
24.9000;0.2637;2.5205;
25.2000;0.2646;2.5255;
25.5000;0.2605;2.5280;
25.8000;0.2646;2.5380;
26.1000;0.2662;2.5305;
26.4000;0.2613;2.5180;
26.7000;0.2637;2.5105;
27.0000;0.2670;2.5155;
27.3000;0.2678;2.5205;
27.6000;0.2670;2.5130;
27.9000;0.2637;2.5155;
28.2000;0.2629;2.5105;
28.5000;0.2637;2.5180;
28.8000;0.2621;2.5130;
29.1000;0.2629;2.5030;
29.4000;0.2654;2.5055;
29.7000;0.2629;2.5155;
30.0000;0.2662;2.5230;
30.3000;0.2637;2.5080;
30.6000;0.2572;2.5005;
30.9000;0.2662;2.5255;
31.2000;0.2637;2.5255;
31.5000;0.2654;2.5255;
31.8000;0.2646;2.5180;
32.1000;0.2670;2.5280;
32.4000;0.2654;2.5305;
32.7000;0.2678;2.5355;
33.0000;0.2580;2.5030;
33.3000;0.2637;2.5255;
33.6000;0.2686;2.5380;
33.9000;0.2646;2.5230;
34.2000;0.2670;2.5305;
34.5000;0.2646;2.5230;
34.8000;0.2629;2.5105;
35.1000;0.2637;2.5030;
35.4000;0.2670;2.5130;
35.7000;0.2613;2.4955;
36.0000;0.2597;2.4980;
36.3000;0.2629;2.5030;
36.6000;0.2597;2.4930;
36.9000;0.2646;2.5155;
37.2000;0.2621;2.5205;
37.5000;0.2621;2.5205;
37.8000;0.2670;2.5255;
38.1000;0.2621;2.5155;
38.4000;0.2613;2.5180;
38.7000;0.2605;2.5080;
39.0000;0.2637;2.5080;
39.3000;0.2654;2.5205;
39.6000;0.2654;2.5205;
39.9000;0.2662;2.5255;
40.2000;0.2613;2.5130;
40.5000;0.2572;2.5005;
40.8000;0.2646;2.5205;
41.1000;0.2605;2.5105;
41.4000;0.2719;2.5355;
41.7000;0.2572;2.5005;
42.0000;0.2629;2.5055;
42.3000;0.2613;2.5055;
42.6000;0.2654;2.5280;
42.9000;0.2637;2.5155;
43.2000;0.2654;2.5205;
43.5000;0.2711;2.5355;
43.8000;0.2564;2.4955;
44.1000;0.2670;2.5330;
44.4000;0.2654;2.5280;
44.7000;0.2629;2.5130;
45.0000;0.2646;2.5180;
45.3000;0.2646;2.5080;
45.6000;0.2629;2.5030;
45.9000;0.2621;2.5030;
46.2000;0.2637;2.5180;
46.5000;0.2662;2.5205;
46.8000;0.2637;2.5105;
47.1000;0.2654;2.5205;
47.4000;0.2646;2.5155;
47.7000;0.2670;2.5205;
48.0000;0.2662;2.5155;
48.3000;0.2597;2.4955;
48.6000;0.2654;2.5130;
48.9000;0.2662;2.5205;
49.2000;0.2637;2.5080;
49.5000;0.2670;2.5280;
49.8000;0.2629;2.5205;
50.1000;0.2637;2.5255;
50.4000;0.2670;2.5355;
50.7000;0.2637;2.5255;
51.0000;0.2621;2.5105;
51.3000;0.2629;2.5205;
51.6000;0.2637;2.5280;
51.9000;0.2646;2.5355;
52.2000;0.2621;2.5280;
52.5000;0.2646;2.5255;
52.8000;0.2670;2.5330;
53.1000;0.2621;2.5255;
53.4000;0.2629;2.5205;
53.7000;0.2621;2.5280;
54.0000;0.2646;2.5405;
54.3000;0.2572;2.5155;
54.6000;0.2597;2.5280;
54.9000;0.2646;2.5405;
55.2000;0.2637;2.5180;
55.5000;0.2637;2.5155;
55.8000;0.2613;2.5080;
56.1000;0.2613;2.5055;
56.4000;0.2637;2.5130;
56.7000;0.2572;2.5005;
57.0000;0.2646;2.5130;
57.3000;0.2572;2.4905;
57.6000;0.2654;2.5155;
57.9000;0.2637;2.5105;
58.2000;0.2589;2.5080;
58.5000;0.2637;2.5255;
58.8000;0.2646;2.5355;
59.1000;0.2637;2.5405;
59.4000;0.2662;2.5505;
59.7000;0.2629;2.5455;
60.0000;0.2621;2.5455;
60.3000;0.2637;2.5455;
60.6000;0.2637;2.5405;
60.9000;0.2646;2.5455;
61.2000;0.2556;2.5130;
61.5000;0.2605;2.5230;
61.8000;0.2629;2.5280;
62.1000;0.2637;2.5255;
62.4000;0.2629;2.5230;
62.7000;0.2711;2.5355;
63.0000;0.2646;2.5130;
63.3000;0.2678;2.5280;
63.6000;0.2597;2.5080;
63.9000;0.2613;2.5130;
64.2000;0.2629;2.5205;
64.5000;0.2621;2.5205;
64.8000;0.2629;2.5255;
65.1000;0.2556;2.5005;
65.4000;0.2629;2.5330;
65.7000;0.2637;2.5380;
66.0000;0.2637;2.5430;
66.3000;0.2637;2.5280;
66.6000;0.2637;2.5180;
66.9000;0.2637;2.5130;
67.2000;0.2646;2.5130;
67.5000;0.2629;2.5080;
67.8000;0.2646;2.5105;
68.1000;0.2629;2.5230;
68.4000;0.2637;2.5280;
68.7000;0.2678;2.5405;
69.0000;0.2637;2.5180;
69.3000;0.2597;2.5005;
69.6000;0.2637;2.5105;
69.9000;0.2654;2.5080;
70.2000;0.2621;2.5030;
70.5000;0.2605;2.4930;
70.8000;0.2621;2.5080;
71.1000;0.2629;2.5080;
71.4000;0.2629;2.5080;
71.7000;0.2662;2.5180;
72.0000;0.2646;2.5080;
72.3000;0.2646;2.5105;
72.6000;0.2654;2.5230;
72.9000;0.2637;2.5330;
73.2000;0.2629;2.5330;
73.5000;0.2719;2.5556;
73.8000;0.2670;2.5355;
74.1000;0.2654;2.5305;
74.4000;0.2646;2.5280;
74.7000;0.2621;2.5255;
75.0000;0.2646;2.5230;
75.3000;0.2637;2.5180;
75.6000;0.2507;2.4880;
75.9000;0.2637;2.5230;
76.2000;0.2629;2.5205;
76.5000;0.2637;2.5255;
76.8000;0.2605;2.5205;
77.1000;0.2556;2.5105;
77.4000;0.2621;2.5330;
77.7000;0.2629;2.5280;
78.0000;0.2589;2.5180;
78.3000;0.2629;2.5205;
78.6000;0.2637;2.5205;
78.9000;0.2613;2.5105;
79.2000;0.2629;2.5230;
79.5000;0.2629;2.5255;
79.8000;0.2662;2.5355;
80.1000;0.2613;2.5180;
80.4000;0.2621;2.5205;
80.7000;0.2613;2.5155;
81.0000;0.2646;2.5280;
81.3000;0.2646;2.5280;
81.6000;0.2654;2.5305;
81.9000;0.2646;2.5205;
82.2000;0.2572;2.5080;
82.5000;0.2629;2.5230;
82.8000;0.2629;2.5280;
83.1000;0.2637;2.5230;
83.4000;0.2637;2.5330;
83.7000;0.2556;2.5030;
84.0000;0.2637;2.5305;
84.3000;0.2654;2.5305;
84.6000;0.2654;2.5355;
84.9000;0.2646;2.5405;
85.2000;0.2637;2.5330;
85.5000;0.2613;2.5280;
85.8000;0.2654;2.5305;
86.1000;0.2646;2.5280;
86.4000;0.2654;2.5330;
86.7000;0.2613;2.5255;
87.0000;0.2654;2.5380;
87.3000;0.2670;2.5480;
87.6000;0.2646;2.5455;
87.9000;0.2646;2.5480;
88.2000;0.2637;2.5430;
88.5000;0.2589;2.5330;
88.8000;0.2727;2.5681;
89.1000;0.2654;2.5455;
89.4000;0.2646;2.5405;
89.7000;0.2646;2.5455;
90.0000;0.2637;2.5455;
90.3000;0.2637;2.5455;
90.6000;0.2605;2.5455;
90.9000;0.2654;2.5631;
91.2000;0.2605;2.5455;
91.5000;0.2686;2.5731;
91.8000;0.2662;2.5631;
92.1000;0.2629;2.5606;
92.4000;0.2670;2.5731;
92.7000;0.2646;2.5606;
93.0000;0.2637;2.5606;
93.3000;0.2556;2.5355;
93.6000;0.2629;2.5606;
93.9000;0.2646;2.5606;
94.2000;0.2686;2.5606;
94.5000;0.2654;2.5556;
94.8000;0.2605;2.5355;
95.1000;0.2637;2.5355;
95.4000;0.2637;2.5355;
95.7000;0.2646;2.5355;
96.0000;0.2621;2.5355;
96.3000;0.2629;2.5430;
96.6000;0.2719;2.5631;
96.9000;0.2629;2.5380;
97.2000;0.2621;2.5280;
97.5000;0.2629;2.5305;
97.8000;0.2629;2.5280;
98.1000;0.2654;2.5230;
98.4000;0.2646;2.5230;
98.7000;0.2629;2.5205;
99.0000;0.2646;2.5230;
99.3000;0.2597;2.5230;
99.6000;0.2694;2.5455;
99.9000;0.2637;2.5330;
100.2000;0.2637;2.5355;
100.5000;0.2629;2.5305;
100.8000;0.2589;2.5155;
101.1000;0.2621;2.5155;
101.4000;0.2613;2.5280;
101.7000;0.2629;2.5330;
102.0000;0.2597;2.5205;
102.3000;0.2637;2.5280;
102.6000;0.2621;2.5355;
102.9000;0.2670;2.5480;
103.2000;0.2654;2.5530;
103.5000;0.2605;2.5380;
103.8000;0.2646;2.5480;
104.1000;0.2646;2.5530;
104.4000;0.2605;2.5330;
104.7000;0.2637;2.5480;
105.0000;0.2637;2.5530;
105.3000;0.2637;2.5530;
105.6000;0.2629;2.5530;
105.9000;0.2613;2.5455;
106.2000;0.2629;2.5530;
106.5000;0.2637;2.5430;
106.8000;0.2646;2.5430;
107.1000;0.2646;2.5455;
107.4000;0.2629;2.5430;
107.7000;0.2629;2.5430;
108.0000;0.2629;2.5430;
108.3000;0.2621;2.5430;
108.6000;0.2637;2.5480;
108.9000;0.2662;2.5530;
109.2000;0.2646;2.5455;
109.5000;0.2646;2.5505;
109.8000;0.2564;2.5280;
110.1000;0.2646;2.5430;
110.4000;0.2662;2.5430;
110.7000;0.2637;2.5330;
111.0000;0.2629;2.5280;
111.3000;0.2629;2.5205;
111.6000;0.2621;2.5205;
111.9000;0.2621;2.5280;
112.2000;0.2646;2.5280;
112.5000;0.2637;2.5255;
112.8000;0.2686;2.5330;
113.1000;0.2637;2.5105;
113.4000;0.2580;2.5030;
113.7000;0.2637;2.5205;
114.0000;0.2646;2.5330;
114.3000;0.2532;2.4930;
114.6000;0.2646;2.5230;
114.9000;0.2637;2.5080;
115.2000;0.2637;2.5130;
115.5000;0.2719;2.5330;
115.8000;0.2613;2.5055;
116.1000;0.2613;2.5180;
116.4000;0.2564;2.5055;
116.7000;0.2621;2.5155;
117.0000;0.2629;2.5080;
117.3000;0.2621;2.5155;
117.6000;0.2556;2.5005;
117.9000;0.2646;2.5330;
118.2000;0.2629;2.5205;
118.5000;0.2556;2.5005;
118.8000;0.2637;2.5280;
119.1000;0.2646;2.5205;
119.4000;0.2662;2.5305;
119.7000;0.2654;2.5330;
120.0000;0.2637;2.5280;
120.3000;0.2670;2.5480;
120.6000;0.2711;2.5556;
120.9000;0.2646;2.5430;
121.2000;0.2654;2.5355;
121.5000;0.2605;2.5230;
121.8000;0.2646;2.5255;
122.1000;0.2686;2.5330;
122.4000;0.2646;2.5255;
122.7000;0.2654;2.5230;
123.0000;0.2654;2.5130;
123.3000;0.2686;2.5255;
123.6000;0.2629;2.5180;
123.9000;0.2670;2.5355;
124.2000;0.2654;2.5355;
124.5000;0.2637;2.5305;
124.8000;0.2629;2.5330;
125.1000;0.2637;2.5455;
125.4000;0.2646;2.5556;
125.7000;0.2686;2.5631;
126.0000;0.2548;2.5180;
126.3000;0.2572;2.5355;
126.6000;0.2646;2.5430;
126.9000;0.2605;2.5255;
127.2000;0.2629;2.5255;
127.5000;0.2613;2.5180;
127.8000;0.2646;2.5355;
128.1000;0.2637;2.5280;
128.4000;0.2678;2.5480;
128.7000;0.2719;2.5530;
129.0000;0.2646;2.5380;
129.3000;0.2621;2.5380;
129.6000;0.2637;2.5280;
129.9000;0.2597;2.5155;
130.2000;0.2629;2.5330;
130.5000;0.2613;2.5330;
130.8000;0.2613;2.5330;
131.1000;0.2548;2.5255;
131.4000;0.2646;2.5430;
131.7000;0.2743;2.5681;
132.0000;0.2605;2.5255;
132.3000;0.2572;2.5180;
132.6000;0.2613;2.5205;
132.9000;0.2727;2.5606;
133.2000;0.2654;2.5455;
133.5000;0.2654;2.5480;
133.8000;0.2719;2.5606;
134.1000;0.2654;2.5455;
134.4000;0.2515;2.5055;
134.7000;0.2548;2.5180;
135.0000;0.2621;2.5405;
135.3000;0.2654;2.5430;
135.6000;0.2580;2.5255;
135.9000;0.2629;2.5305;
136.2000;0.2637;2.5405;
136.5000;0.2597;2.5355;
136.8000;0.2646;2.5480;
137.1000;0.2637;2.5330;
137.4000;0.2637;2.5455;
137.7000;0.2613;2.5480;
138.0000;0.2646;2.5556;
138.3000;0.2637;2.5530;
138.6000;0.2654;2.5556;
138.9000;0.2646;2.5480;
139.2000;0.2637;2.5480;
139.5000;0.2646;2.5480;
139.8000;0.2743;2.5731;
140.1000;0.2613;2.5405;
140.4000;0.2646;2.5355;
140.7000;0.2646;2.5330;
141.0000;0.2637;2.5305;
141.3000;0.2702;2.5530;
141.6000;0.2637;2.5305;
141.9000;0.2646;2.5305;
142.2000;0.2654;2.5355;
142.5000;0.2637;2.5330;
142.8000;0.2621;2.5330;
143.1000;0.2646;2.5430;
143.4000;0.2605;2.5355;
143.7000;0.2646;2.5430;
144.0000;0.2637;2.5355;
144.3000;0.2670;2.5330;
144.6000;0.2637;2.5330;
144.9000;0.2629;2.5230;
145.2000;0.2646;2.5305;
145.5000;0.2646;2.5255;
145.8000;0.2629;2.5255;
146.1000;0.2629;2.5230;
146.4000;0.2621;2.5280;
146.7000;0.2589;2.5105;
147.0000;0.2654;2.5280;
147.3000;0.2637;2.5230;
147.6000;0.2637;2.5080;
147.9000;0.2629;2.5080;
148.2000;0.2646;2.5180;
148.5000;0.2654;2.5330;
148.8000;0.2605;2.5280;
149.1000;0.2629;2.5280;
149.4000;0.2646;2.5355;
149.7000;0.2637;2.5255;
150.0000;0.2605;2.5205;
150.3000;0.2629;2.5305;
150.6000;0.2507;2.4955;
150.9000;0.2662;2.5405;
151.2000;0.2605;2.5305;
151.5000;0.2621;2.5380;
151.8000;0.2637;2.5430;
152.1000;0.2637;2.5405;
152.4000;0.2646;2.5380;
152.7000;0.2694;2.5556;
153.0000;0.2637;2.5305;
153.3000;0.2580;2.5205;
153.6000;0.2637;2.5330;
153.9000;0.2621;2.5355;
154.2000;0.2613;2.5330;
154.5000;0.2629;2.5430;
154.8000;0.2621;2.5380;
155.1000;0.2629;2.5405;
155.4000;0.2613;2.5380;
155.7000;0.2646;2.5330;
156.0000;0.2621;2.5305;
156.3000;0.2727;2.5530;
156.6000;0.2621;2.5355;
156.9000;0.2629;2.5380;
157.2000;0.2621;2.5330;
157.5000;0.2621;2.5280;
157.8000;0.2629;2.5180;
158.1000;0.2613;2.5105;
158.4000;0.2637;2.5105;
158.7000;0.2654;2.5180;
159.0000;0.2637;2.5180;
159.3000;0.2613;2.5130;
159.6000;0.2646;2.5130;
159.9000;0.2646;2.5180;
160.2000;0.2621;2.5155;
160.5000;0.2613;2.5155;
160.8000;0.2613;2.5205;
161.1000;0.2564;2.5030;
161.4000;0.2613;2.5280;
161.7000;0.2613;2.5255;
162.0000;0.2629;2.5280;
162.3000;0.2654;2.5280;
162.6000;0.2629;2.5230;
162.9000;0.2621;2.5230;
163.2000;0.2597;2.5255;
163.5000;0.2646;2.5455;
163.8000;0.2637;2.5430;
164.1000;0.2629;2.5355;
164.4000;0.2646;2.5455;
164.7000;0.2637;2.5430;
165.0000;0.2646;2.5430;
165.3000;0.2613;2.5355;
165.6000;0.2637;2.5455;
165.9000;0.2646;2.5480;
166.2000;0.2621;2.5380;
166.5000;0.2613;2.5405;
166.8000;0.2637;2.5455;
167.1000;0.2621;2.5330;
167.4000;0.2629;2.5380;
167.7000;0.2605;2.5280;
168.0000;0.2629;2.5330;
168.3000;0.2629;2.5330;
168.6000;0.2629;2.5305;
168.9000;0.2629;2.5405;
169.2000;0.2629;2.5430;
169.5000;0.2629;2.5480;
169.8000;0.2605;2.5430;
170.1000;0.2637;2.5505;
170.4000;0.2621;2.5455;
170.7000;0.2613;2.5405;
171.0000;0.2686;2.5581;
171.3000;0.2621;2.5355;
171.6000;0.2597;2.5255;
171.9000;0.2613;2.5330;
172.2000;0.2613;2.5330;
172.5000;0.2629;2.5405;
172.8000;0.2637;2.5405;
173.1000;0.2629;2.5330;
173.4000;0.2605;2.5305;
173.7000;0.2629;2.5405;
174.0000;0.2613;2.5505;
174.3000;0.2629;2.5455;
174.6000;0.2572;2.5205;
174.9000;0.2621;2.5405;
175.2000;0.2621;2.5355;
175.5000;0.2548;2.5205;
175.8000;0.2597;2.5330;
176.1000;0.2646;2.5405;
176.4000;0.2646;2.5430;
176.7000;0.2637;2.5455;
177.0000;0.2605;2.5405;
177.3000;0.2605;2.5405;
177.6000;0.2597;2.5380;
177.9000;0.2621;2.5380;
178.2000;0.2629;2.5455;
178.5000;0.2654;2.5556;
178.8000;0.2629;2.5430;
179.1000;0.2637;2.5405;
179.4000;0.2621;2.5380;
179.7000;0.2621;2.5455;
180.0000;0.2613;2.5455;
180.3000;0.2694;2.5706;
180.6000;0.2613;2.5480;
180.9000;0.2613;2.5505;
181.2000;0.2613;2.5380;
181.5000;0.2491;2.5080;
181.8000;0.2605;2.5455;
182.1000;0.2621;2.5556;
182.4000;0.2629;2.5556;
182.7000;0.2637;2.5581;
183.0000;0.2621;2.5530;
183.3000;0.2751;2.5956;
183.6000;0.2678;2.5631;
183.9000;0.2637;2.5581;
184.2000;0.2621;2.5581;
184.5000;0.2605;2.5455;
184.8000;0.2637;2.5505;
185.1000;0.2621;2.5405;
185.4000;0.2564;2.5255;
185.7000;0.2613;2.5455;
186.0000;0.2605;2.5355;
186.3000;0.2580;2.5330;
186.6000;0.2637;2.5556;
186.9000;0.2605;2.5556;
187.2000;0.2621;2.5556;
187.5000;0.2597;2.5505;
187.8000;0.2621;2.5505;
188.1000;0.2621;2.5455;
188.4000;0.2629;2.5430;
188.7000;0.2556;2.5230;
189.0000;0.2637;2.5405;
189.3000;0.2629;2.5280;
189.6000;0.2580;2.5230;
189.9000;0.2629;2.5455;
190.2000;0.2646;2.5480;
190.5000;0.2678;2.5556;
190.8000;0.2621;2.5480;
191.1000;0.2719;2.5756;
191.4000;0.2597;2.5455;
191.7000;0.2580;2.5255;
192.0000;0.2646;2.5455;
192.3000;0.2613;2.5355;
192.6000;0.2605;2.5405;
192.9000;0.2629;2.5530;
193.2000;0.2646;2.5631;
193.5000;0.2646;2.5681;
193.8000;0.2646;2.5756;
194.1000;0.2629;2.5656;
194.4000;0.2613;2.5530;
194.7000;0.2621;2.5505;
195.0000;0.2556;2.5205;
195.3000;0.2646;2.5505;
195.6000;0.2589;2.5355;
195.9000;0.2629;2.5380;
196.2000;0.2621;2.5305;
196.5000;0.2597;2.5055;
196.8000;0.2654;2.5205;
197.1000;0.2629;2.5255;
197.4000;0.2621;2.5230;
197.7000;0.2637;2.5330;
198.0000;0.2629;2.5380;
198.3000;0.2589;2.5280;
198.6000;0.2621;2.5380;
198.9000;0.2637;2.5455;
199.2000;0.2654;2.5505;
199.5000;0.2515;2.5155;
199.8000;0.2629;2.5430;
200.1000;0.2678;2.5556;
200.4000;0.2621;2.5581;
200.7000;0.2670;2.5656;
201.0000;0.2629;2.5556;
201.3000;0.2597;2.5505;
201.6000;0.2605;2.5405;
201.9000;0.2580;2.5305;
202.2000;0.2646;2.5405;
202.5000;0.2523;2.5080;
202.8000;0.2621;2.5355;
203.1000;0.2637;2.5330;
203.4000;0.2613;2.5230;
203.7000;0.2646;2.5280;
204.0000;0.2629;2.5280;
204.3000;0.2613;2.5305;
204.6000;0.2646;2.5280;
204.9000;0.2572;2.4980;
205.2000;0.2637;2.5180;
205.5000;0.2719;2.5380;
205.8000;0.2629;2.5205;
206.1000;0.2621;2.5230;
206.4000;0.2637;2.5380;
206.7000;0.2629;2.5330;
207.0000;0.2613;2.5380;
207.3000;0.2621;2.5405;
207.6000;0.2605;2.5380;
207.9000;0.2556;2.5305;
208.2000;0.2694;2.5530;
208.5000;0.2629;2.5455;
208.8000;0.2613;2.5330;
209.1000;0.2613;2.5305;
209.4000;0.2621;2.5230;
209.7000;0.2646;2.5205;
210.0000;0.2637;2.5155;
210.3000;0.2532;2.4980;
210.6000;0.2637;2.5330;
210.9000;0.2637;2.5330;
211.2000;0.2621;2.5280;
211.5000;0.2605;2.5280;
211.8000;0.2629;2.5305;
212.1000;0.2589;2.5155;
212.4000;0.2711;2.5530;
212.7000;0.2629;2.5255;
213.0000;0.2629;2.5305;
213.3000;0.2646;2.5305;
213.6000;0.2735;2.5505;
213.9000;0.2768;2.5631;
214.2000;0.2678;2.5380;
214.5000;0.2637;2.5255;
214.8000;0.2637;2.5380;
215.1000;0.2621;2.5330;
215.4000;0.2629;2.5455;
215.7000;0.2629;2.5505;
216.0000;0.2629;2.5455;
216.3000;0.2629;2.5405;
216.6000;0.2580;2.5355;
216.9000;0.2621;2.5405;
217.2000;0.2686;2.5530;
217.5000;0.2621;2.5430;
217.8000;0.2621;2.5455;
218.1000;0.2629;2.5430;
218.4000;0.2637;2.5455;
218.7000;0.2646;2.5355;
219.0000;0.2670;2.5455;
219.3000;0.2621;2.5355;
219.6000;0.2605;2.5280;
219.9000;0.2637;2.5305;
220.2000;0.2621;2.5230;
220.5000;0.2637;2.5330;
220.8000;0.2613;2.5330;
221.1000;0.2678;2.5455;
221.4000;0.2621;2.5330;
221.7000;0.2613;2.5355;
222.0000;0.2662;2.5480;
222.3000;0.2613;2.5430;
222.6000;0.2654;2.5480;
222.9000;0.2580;2.5255;
223.2000;0.2621;2.5380;
223.5000;0.2597;2.5405;
223.8000;0.2605;2.5405;
224.1000;0.2613;2.5480;
224.4000;0.2605;2.5556;
224.7000;0.2621;2.5606;
225.0000;0.2621;2.5656;
225.3000;0.2621;2.5681;
225.6000;0.2670;2.5706;
225.9000;0.2499;2.5180;
226.2000;0.2629;2.5405;
226.5000;0.2637;2.5305;
226.8000;0.2686;2.5505;
227.1000;0.2637;2.5330;
227.4000;0.2646;2.5280;
227.7000;0.2605;2.5205;
228.0000;0.2637;2.5255;
228.3000;0.2605;2.5080;
228.6000;0.2646;2.5205;
228.9000;0.2727;2.5581;
229.2000;0.2637;2.5305;
229.5000;0.2621;2.5255;
229.8000;0.2589;2.5230;
230.1000;0.2613;2.5380;
230.4000;0.2629;2.5355;
230.7000;0.2629;2.5280;
231.0000;0.2621;2.5205;
231.3000;0.2654;2.5280;
231.6000;0.2621;2.5230;
231.9000;0.2613;2.5230;
232.2000;0.2686;2.5455;
232.5000;0.2613;2.5280;
232.8000;0.2589;2.5255;
233.1000;0.2629;2.5405;
233.4000;0.2572;2.5255;
233.7000;0.2589;2.5305;
234.0000;0.2597;2.5230;
234.3000;0.2597;2.5105;
234.6000;0.2621;2.5130;
234.9000;0.2719;2.5430;
235.2000;0.2637;2.5280;
235.5000;0.2629;2.5330;
235.8000;0.2613;2.5305;
236.1000;0.2605;2.5155;
236.4000;0.2629;2.5180;
236.7000;0.2613;2.5080;
237.0000;0.2613;2.5005;
237.3000;0.2613;2.4980;
237.6000;0.2637;2.5030;
237.9000;0.2629;2.5030;
238.2000;0.2613;2.5030;
238.5000;0.2613;2.5005;
238.8000;0.2629;2.4955;
239.1000;0.2613;2.4980;
239.4000;0.2621;2.5030;
239.7000;0.2654;2.5105;
240.0000;0.2629;2.5005;
240.3000;0.2711;2.5305;
240.6000;0.2621;2.5080;
240.9000;0.2654;2.5155;
241.2000;0.2580;2.5030;
241.5000;0.2613;2.5055;
241.8000;0.2637;2.5080;
242.1000;0.2548;2.4880;
242.4000;0.2605;2.5105;
242.7000;0.2637;2.5180;
243.0000;0.2629;2.5230;
243.3000;0.2629;2.5255;
243.6000;0.2605;2.5255;
243.9000;0.2646;2.5305;
244.2000;0.2621;2.5230;
244.5000;0.2629;2.5130;
244.8000;0.2548;2.4955;
245.1000;0.2621;2.5180;
245.4000;0.2621;2.5205;
245.7000;0.2654;2.5205;
246.0000;0.2597;2.5080;
246.3000;0.2597;2.5155;
246.6000;0.2613;2.5230;
246.9000;0.2637;2.5305;
247.2000;0.2637;2.5330;
247.5000;0.2637;2.5380;
247.8000;0.2759;2.5756;
248.1000;0.2621;2.5280;
248.4000;0.2670;2.5405;
248.7000;0.2621;2.5305;
249.0000;0.2646;2.5330;
249.3000;0.2589;2.5205;
249.6000;0.2605;2.5280;
249.9000;0.2613;2.5255;
250.2000;0.2613;2.5305;
250.5000;0.2670;2.5430;
250.8000;0.2702;2.5505;
251.1000;0.2621;2.5305;
251.4000;0.2605;2.5280;
251.7000;0.2597;2.5180;
252.0000;0.2629;2.5280;
252.3000;0.2662;2.5380;
252.6000;0.2629;2.5405;
252.9000;0.2711;2.5581;
253.2000;0.2654;2.5480;
253.5000;0.2637;2.5380;
253.8000;0.2613;2.5280;
254.1000;0.2654;2.5380;
254.4000;0.2589;2.5305;
254.7000;0.2613;2.5430;
255.0000;0.2629;2.5405;
255.3000;0.2621;2.5355;
255.6000;0.2637;2.5405;
255.9000;0.2605;2.5330;
256.2000;0.2613;2.5305;
256.5000;0.2589;2.5305;
256.8000;0.2605;2.5255;
257.1000;0.2605;2.5255;
257.4000;0.2621;2.5305;
257.7000;0.2784;2.5806;
258.0000;0.2621;2.5280;
258.3000;0.2605;2.5255;
258.6000;0.2613;2.5280;
258.9000;0.2589;2.5205;
259.2000;0.2629;2.5330;
259.5000;0.2613;2.5305;
259.8000;0.2597;2.5205;
260.1000;0.2629;2.5330;
260.4000;0.2646;2.5330;
260.7000;0.2719;2.5530;
261.0000;0.2621;2.5280;
261.3000;0.2621;2.5355;
261.6000;0.2662;2.5455;
261.9000;0.2637;2.5430;
262.2000;0.2597;2.5380;
262.5000;0.2605;2.5330;
262.8000;0.2589;2.5280;
263.1000;0.2621;2.5380;
263.4000;0.2637;2.5380;
263.7000;0.2597;2.5255;
264.0000;0.2694;2.5480;
264.3000;0.2621;2.5255;
264.6000;0.2711;2.5581;
264.9000;0.2637;2.5430;
265.2000;0.2646;2.5480;
265.5000;0.2629;2.5430;
265.8000;0.2556;2.5230;
266.1000;0.2523;2.5055;
266.4000;0.2637;2.5330;
266.7000;0.2613;2.5305;
267.0000;0.2621;2.5330;
267.3000;0.2548;2.5080;
267.6000;0.2605;2.5255;
267.9000;0.2646;2.5380;
268.2000;0.2548;2.5205;
268.5000;0.2597;2.5355;
268.8000;0.2629;2.5305;
269.1000;0.2548;2.5130;
269.4000;0.2629;2.5205;
269.7000;0.2621;2.5305;
270.0000;0.2605;2.5455;
270.3000;0.2629;2.5505;
270.6000;0.2629;2.5480;
270.9000;0.2621;2.5455;
271.2000;0.2613;2.5430;
271.5000;0.2654;2.5530;
271.8000;0.2597;2.5305;
272.1000;0.2580;2.5355;
272.4000;0.2515;2.5105;
272.7000;0.2605;2.5330;
273.0000;0.2475;2.4980;
273.3000;0.2580;2.5180;
273.6000;0.2564;2.5155;
273.9000;0.2629;2.5380;
274.2000;0.2646;2.5405;
274.5000;0.2621;2.5505;
274.8000;0.2629;2.5480;
275.1000;0.2605;2.5405;
275.4000;0.2711;2.5656;
275.7000;0.2637;2.5530;
276.0000;0.2589;2.5380;
276.3000;0.2629;2.5556;
276.6000;0.2572;2.5355;
276.9000;0.2621;2.5405;
277.2000;0.2629;2.5305;
277.5000;0.2597;2.5305;
277.8000;0.2621;2.5405;
278.1000;0.2646;2.5530;
278.4000;0.2613;2.5405;
278.7000;0.2597;2.5405;
279.0000;0.2613;2.5480;
279.3000;0.2621;2.5556;
279.6000;0.2605;2.5455;
279.9000;0.2637;2.5505;
280.2000;0.2629;2.5405;
280.5000;0.2597;2.5355;
280.8000;0.2613;2.5380;
281.1000;0.2613;2.5355;
281.4000;0.2605;2.5455;
281.7000;0.2613;2.5380;
282.0000;0.2621;2.5480;
282.3000;0.2589;2.5480;
282.6000;0.2637;2.5556;
282.9000;0.2621;2.5530;
283.2000;0.2629;2.5581;
283.5000;0.2743;2.5956;
283.8000;0.2629;2.5556;
284.1000;0.2646;2.5581;
284.4000;0.2597;2.5480;
284.7000;0.2629;2.5581;
285.0000;0.2556;2.5430;
285.3000;0.2646;2.5656;
285.6000;0.2629;2.5530;
285.9000;0.2621;2.5505;
286.2000;0.2613;2.5405;
286.5000;0.2629;2.5455;
286.8000;0.2589;2.5405;
287.1000;0.2646;2.5505;
287.4000;0.2580;2.5380;
287.7000;0.2711;2.5756;
288.0000;0.2621;2.5556;
288.3000;0.2613;2.5606;
288.6000;0.2540;2.5430;
288.9000;0.2629;2.5581;
289.2000;0.2613;2.5581;
289.5000;0.2605;2.5631;
289.8000;0.2597;2.5631;
290.1000;0.2605;2.5556;
290.4000;0.2613;2.5606;
290.7000;0.2613;2.5556;
291.0000;0.2629;2.5480;
291.3000;0.2621;2.5480;
291.6000;0.2613;2.5455;
291.9000;0.2646;2.5480;
292.2000;0.2613;2.5380;
292.5000;0.2637;2.5330;
292.8000;0.2605;2.5280;
293.1000;0.2613;2.5280;
293.4000;0.2564;2.5180;
293.7000;0.2637;2.5330;
294.0000;0.2743;2.5505;
294.3000;0.2629;2.5180;
294.6000;0.2605;2.5055;
294.9000;0.2629;2.5130;
295.2000;0.2621;2.5180;
295.5000;0.2597;2.5180;
295.8000;0.2637;2.5305;
296.1000;0.2637;2.5330;
296.4000;0.2686;2.5556;
296.7000;0.2629;2.5430;
297.0000;0.2654;2.5480;
297.3000;0.2597;2.5280;
297.6000;0.2597;2.5255;
297.9000;0.2654;2.5530;
298.2000;0.2654;2.5405;
298.5000;0.2613;2.5255;
298.8000;0.2605;2.5280;
299.1000;0.2629;2.5405;
299.4000;0.2678;2.5606;
299.7000;0.2597;2.5330;
300.0000;0.2646;2.5380;
300.3000;0.2637;2.5405;
300.6000;0.2580;2.5230;
300.9000;0.2605;2.5305;
301.2000;0.2670;2.5480;
301.5000;0.2621;2.5330;
301.8000;0.2629;2.5355;
302.1000;0.2613;2.5305;
302.4000;0.2637;2.5380;
302.7000;0.2589;2.5230;
303.0000;0.2572;2.5205;
303.3000;0.2564;2.5280;
303.6000;0.2572;2.5355;
303.9000;0.2564;2.5355;
304.2000;0.2637;2.5505;
304.5000;0.2540;2.5180;
304.8000;0.2621;2.5405;
305.1000;0.2597;2.5180;
305.4000;0.2605;2.5255;
305.7000;0.2613;2.5380;
306.0000;0.2613;2.5455;
306.3000;0.2613;2.5355;
306.6000;0.2613;2.5255;
306.9000;0.2605;2.5255;
307.2000;0.2597;2.5380;
307.5000;0.2654;2.5581;
307.8000;0.2613;2.5380;
308.1000;0.2580;2.5280;
308.4000;0.2629;2.5430;
308.7000;0.2613;2.5430;
309.0000;0.2621;2.5430;
309.3000;0.2613;2.5305;
309.6000;0.2621;2.5205;
309.9000;0.2654;2.5280;
310.2000;0.2629;2.5155;
310.5000;0.2637;2.5205;
310.8000;0.2637;2.5305;
311.1000;0.2605;2.5255;
311.4000;0.2613;2.5280;
311.7000;0.2629;2.5205;
312.0000;0.2629;2.5205;
312.3000;0.2605;2.5205;
312.6000;0.2646;2.5280;
312.9000;0.2686;2.5355;
313.2000;0.2613;2.5305;
313.5000;0.2629;2.5355;
313.8000;0.2629;2.5330;
314.1000;0.2605;2.5355;
314.4000;0.2597;2.5405;
314.7000;0.2621;2.5480;
315.0000;0.2629;2.5581;
315.3000;0.2589;2.5581;
315.6000;0.2637;2.5706;
315.9000;0.2629;2.5556;
316.2000;0.2589;2.5430;
316.5000;0.2597;2.5355;
316.8000;0.2637;2.5430;
317.1000;0.2613;2.5305;
317.4000;0.2670;2.5480;
317.7000;0.2605;2.5380;
318.0000;0.2621;2.5305;
318.3000;0.2597;2.5205;
318.6000;0.2678;2.5380;
318.9000;0.2548;2.5080;
319.2000;0.2629;2.5255;
319.5000;0.2637;2.5255;
319.8000;0.2613;2.5130;
320.1000;0.2637;2.5230;
320.4000;0.2629;2.5280;
320.7000;0.2670;2.5405;
321.0000;0.2621;2.5280;
321.3000;0.2646;2.5305;
321.6000;0.2662;2.5430;
321.9000;0.2564;2.5105;
322.2000;0.2637;2.5355;
322.5000;0.2629;2.5430;
322.8000;0.2678;2.5631;
323.1000;0.2605;2.5455;
323.4000;0.2613;2.5430;
323.7000;0.2686;2.5656;
324.0000;0.2637;2.5530;
324.3000;0.2580;2.5330;
324.6000;0.2564;2.5330;
324.9000;0.2629;2.5480;
325.2000;0.2597;2.5330;
325.5000;0.2613;2.5330;
325.8000;0.2613;2.5405;
326.1000;0.2637;2.5480;
326.4000;0.2686;2.5530;
326.7000;0.2613;2.5330;
327.0000;0.2646;2.5330;
327.3000;0.2678;2.5405;
327.6000;0.2629;2.5280;
327.9000;0.2629;2.5280;
328.2000;0.2613;2.5330;
328.5000;0.2646;2.5455;
328.8000;0.2629;2.5480;
329.1000;0.2646;2.5530;
329.4000;0.2613;2.5455;
329.7000;0.2637;2.5505;
330.0000;0.2654;2.5530;
330.3000;0.2621;2.5505;
330.6000;0.2678;2.5656;
330.9000;0.2621;2.5455;
331.2000;0.2646;2.5455;
331.5000;0.2556;2.5205;
331.8000;0.2605;2.5330;
332.1000;0.2605;2.5305;
332.4000;0.2613;2.5280;
332.7000;0.2629;2.5305;
333.0000;0.2629;2.5280;
333.3000;0.2621;2.5280;
333.6000;0.2629;2.5280;
333.9000;0.2597;2.5280;
334.2000;0.2613;2.5355;
334.5000;0.2597;2.5380;
334.8000;0.2694;2.5606;
335.1000;0.2662;2.5455;
335.4000;0.2670;2.5556;
335.7000;0.2629;2.5581;
336.0000;0.2605;2.5505;
336.3000;0.2483;2.5130;
336.6000;0.2629;2.5430;
336.9000;0.2572;2.5180;
337.2000;0.2597;2.5130;
337.5000;0.2605;2.5205;
337.8000;0.2499;2.4930;
338.1000;0.2605;2.5105;
338.4000;0.2654;2.5230;
338.7000;0.2670;2.5205;
339.0000;0.2629;2.5180;
339.3000;0.2483;2.4805;
339.6000;0.2662;2.5230;
339.9000;0.2572;2.4955;
340.2000;0.2646;2.5305;
340.5000;0.2629;2.5205;
340.8000;0.2605;2.5080;
341.1000;0.2605;2.5055;
341.4000;0.2629;2.5080;
341.7000;0.2670;2.5180;
342.0000;0.2613;2.5130;
342.3000;0.2589;2.5055;
342.6000;0.2654;2.5155;
342.9000;0.2556;2.4855;
343.2000;0.2613;2.5055;
343.5000;0.2621;2.5030;
343.8000;0.2605;2.4955;
344.1000;0.2637;2.5055;
344.4000;0.2694;2.5230;
344.7000;0.2605;2.5105;
345.0000;0.2613;2.5130;
345.3000;0.2605;2.5105;
345.6000;0.2629;2.5130;
345.9000;0.2670;2.5205;
346.2000;0.2613;2.5055;
346.5000;0.2629;2.5130;
346.8000;0.2556;2.5055;
347.1000;0.2621;2.5180;
347.4000;0.2532;2.4980;
347.7000;0.2637;2.5280;
348.0000;0.2605;2.5255;
348.3000;0.2621;2.5330;
348.6000;0.2637;2.5330;
348.9000;0.2597;2.5305;
349.2000;0.2637;2.5405;
349.5000;0.2637;2.5455;
349.8000;0.2629;2.5380;
350.1000;0.2589;2.5405;
350.4000;0.2637;2.5556;
350.7000;0.2621;2.5455;
351.0000;0.2613;2.5455;
351.3000;0.2637;2.5480;
351.6000;0.2637;2.5455;
351.9000;0.2613;2.5430;
352.2000;0.2637;2.5505;
352.5000;0.2556;2.5330;
352.8000;0.2654;2.5556;
353.1000;0.2613;2.5430;
353.4000;0.2605;2.5405;
353.7000;0.2580;2.5355;
354.0000;0.2637;2.5405;
354.3000;0.2621;2.5330;
354.6000;0.2637;2.5455;
354.9000;0.2605;2.5280;
355.2000;0.2637;2.5380;
355.5000;0.2572;2.5230;
355.8000;0.2605;2.5230;
356.1000;0.2605;2.5155;
356.4000;0.2646;2.5255;
356.7000;0.2613;2.5180;
357.0000;0.2629;2.5205;
357.3000;0.2589;2.5155;
357.6000;0.2613;2.5205;
357.9000;0.2523;2.4955;
358.2000;0.2646;2.5205;
358.5000;0.2613;2.5155;
358.8000;0.2621;2.5280;
359.1000;0.2629;2.5380;
359.4000;0.2654;2.5505;
359.7000;0.2637;2.5430;
360.0000;0.2613;2.5330;
360.3000;0.2654;2.5380;
360.6000;0.2637;2.5380;
360.9000;0.2637;2.5330;
361.2000;0.2654;2.5505;
361.5000;0.2605;2.5355;
361.8000;0.2637;2.5330;
362.1000;0.2654;2.5330;
362.4000;0.2580;2.5205;
362.7000;0.2621;2.5305;
363.0000;0.2613;2.5255;
363.3000;0.2686;2.5380;
363.6000;0.2662;2.5380;
363.9000;0.2629;2.5280;
364.2000;0.2605;2.5230;
364.5000;0.2564;2.5155;
364.8000;0.2589;2.5355;
365.1000;0.2621;2.5430;
365.4000;0.2597;2.5330;
365.7000;0.2629;2.5330;
366.0000;0.2621;2.5305;
366.3000;0.2637;2.5255;
366.6000;0.2580;2.5155;
366.9000;0.2621;2.5380;
367.2000;0.2621;2.5430;
367.5000;0.2613;2.5380;
367.8000;0.2613;2.5430;
368.1000;0.2662;2.5581;
368.4000;0.2621;2.5505;
368.7000;0.2629;2.5455;
369.0000;0.2621;2.5455;
369.3000;0.2629;2.5530;
369.6000;0.2613;2.5480;
369.9000;0.2613;2.5405;
370.2000;0.2637;2.5505;
370.5000;0.2670;2.5631;
370.8000;0.2662;2.5581;
371.1000;0.2629;2.5505;
371.4000;0.2637;2.5530;
371.7000;0.2613;2.5505;
372.0000;0.2483;2.5030;
372.3000;0.2613;2.5430;
372.6000;0.2613;2.5480;
372.9000;0.2613;2.5505;
373.2000;0.2597;2.5455;
373.5000;0.2654;2.5631;
373.8000;0.2613;2.5556;
374.1000;0.2605;2.5556;
374.4000;0.2637;2.5656;
374.7000;0.2776;2.6081;
375.0000;0.2597;2.5581;
375.3000;0.2589;2.5505;
375.6000;0.2621;2.5581;
375.9000;0.2654;2.5681;
376.2000;0.2605;2.5530;
376.5000;0.2646;2.5631;
376.8000;0.2637;2.5656;
377.1000;0.2613;2.5581;
377.4000;0.2629;2.5631;
377.7000;0.2646;2.5606;
378.0000;0.2613;2.5505;
378.3000;0.2613;2.5505;
378.6000;0.2662;2.5581;
378.9000;0.2597;2.5455;
379.2000;0.2580;2.5380;
379.5000;0.2646;2.5480;
379.8000;0.2613;2.5355;
380.1000;0.2629;2.5430;
380.4000;0.2629;2.5455;
380.7000;0.2613;2.5455;
381.0000;0.2621;2.5505;
381.3000;0.2621;2.5530;
381.6000;0.2678;2.5556;
381.9000;0.2637;2.5430;
382.2000;0.2605;2.5330;
382.5000;0.2605;2.5380;
382.8000;0.2629;2.5581;
383.1000;0.2629;2.5556;
383.4000;0.2597;2.5556;
383.7000;0.2580;2.5480;
384.0000;0.2572;2.5455;
384.3000;0.2572;2.5405;
384.6000;0.2613;2.5455;
384.9000;0.2646;2.5480;
385.2000;0.2605;2.5430;
385.5000;0.2629;2.5480;
385.8000;0.2637;2.5480;
386.1000;0.2629;2.5505;
386.4000;0.2564;2.5305;
386.7000;0.2621;2.5405;
387.0000;0.2589;2.5255;
387.3000;0.2523;2.5005;
387.6000;0.2605;2.5330;
387.9000;0.2621;2.5330;
388.2000;0.2580;2.5205;
388.5000;0.2621;2.5380;
388.8000;0.2629;2.5455;
389.1000;0.2646;2.5480;
389.4000;0.2646;2.5430;
389.7000;0.2613;2.5330;
390.0000;0.2613;2.5355;
390.3000;0.2605;2.5330;
390.6000;0.2605;2.5355;
390.9000;0.2735;2.5656;
391.2000;0.2605;2.5355;
391.5000;0.2621;2.5480;
391.8000;0.2597;2.5405;
392.1000;0.2597;2.5480;
392.4000;0.2621;2.5455;
392.7000;0.2589;2.5405;
393.0000;0.2621;2.5530;
393.3000;0.2621;2.5480;
393.6000;0.2621;2.5455;
393.9000;0.2751;2.5756;
394.2000;0.2589;2.5280;
394.5000;0.2629;2.5405;
394.8000;0.2654;2.5480;
395.1000;0.2597;2.5330;
395.4000;0.2686;2.5606;
395.7000;0.2589;2.5430;
396.0000;0.2556;2.5280;
396.3000;0.2637;2.5455;
396.6000;0.2572;2.5230;
396.9000;0.2605;2.5280;
397.2000;0.2637;2.5355;
397.5000;0.2662;2.5405;
397.8000;0.2580;2.5180;
398.1000;0.2613;2.5180;
398.4000;0.2597;2.5155;
398.7000;0.2605;2.5205;
399.0000;0.2637;2.5330;
399.3000;0.2613;2.5330;
399.6000;0.2556;2.5255;
399.9000;0.2637;2.5405;
400.2000;0.2629;2.5380;
400.5000;0.2719;2.5556;
400.8000;0.2621;2.5330;
401.1000;0.2621;2.5405;
401.4000;0.2646;2.5480;
401.7000;0.2629;2.5355;
402.0000;0.2556;2.5130;
402.3000;0.2613;2.5280;
402.6000;0.2629;2.5330;
402.9000;0.2597;2.5280;
403.2000;0.2597;2.5330;
403.5000;0.2621;2.5330;
403.8000;0.2605;2.5280;
404.1000;0.2597;2.5230;
404.4000;0.2637;2.5280;
404.7000;0.2597;2.5230;
405.0000;0.2621;2.5305;
405.3000;0.2613;2.5380;
405.6000;0.2605;2.5380;
405.9000;0.2670;2.5530;
406.2000;0.2621;2.5430;
406.5000;0.2621;2.5455;
406.8000;0.2621;2.5480;
407.1000;0.2629;2.5430;
407.4000;0.2597;2.5255;
407.7000;0.2621;2.5305;
408.0000;0.2523;2.5055;
408.3000;0.2605;2.5305;
408.6000;0.2597;2.5205;
408.9000;0.2637;2.5280;
409.2000;0.2621;2.5230;
409.5000;0.2702;2.5530;
409.8000;0.2556;2.5230;
410.1000;0.2637;2.5505;
410.4000;0.2629;2.5430;
410.7000;0.2629;2.5430;
411.0000;0.2613;2.5455;
411.3000;0.2613;2.5455;
411.6000;0.2597;2.5380;
411.9000;0.2621;2.5405;
412.2000;0.2589;2.5405;
412.5000;0.2605;2.5355;
412.8000;0.2605;2.5430;
413.1000;0.2597;2.5380;
413.4000;0.2613;2.5380;
413.7000;0.2613;2.5405;
414.0000;0.2629;2.5380;
414.3000;0.2613;2.5330;
414.6000;0.2646;2.5430;
414.9000;0.2605;2.5280;
415.2000;0.2605;2.5305;
415.5000;0.2686;2.5656;
415.8000;0.2605;2.5455;
416.1000;0.2629;2.5530;
416.4000;0.2491;2.5080;
416.7000;0.2629;2.5455;
417.0000;0.2613;2.5430;
417.3000;0.2629;2.5430;
417.6000;0.2662;2.5405;
417.9000;0.2637;2.5305;
418.2000;0.2605;2.5305;
418.5000;0.2637;2.5380;
418.8000;0.2613;2.5305;
419.1000;0.2637;2.5330;
419.4000;0.2572;2.5130;
419.7000;0.2613;2.5280;
420.0000;0.2605;2.5280;
420.3000;0.2597;2.5205;
420.6000;0.2678;2.5305;
420.9000;0.2621;2.5080;
421.2000;0.2597;2.5080;
421.5000;0.2621;2.5130;
421.8000;0.2605;2.5130;
422.1000;0.2597;2.5130;
422.4000;0.2605;2.5280;
422.7000;0.2605;2.5330;
423.0000;0.2605;2.5280;
423.3000;0.2629;2.5355;
423.6000;0.2613;2.5305;
423.9000;0.2613;2.5330;
424.2000;0.2621;2.5430;
424.5000;0.2605;2.5380;
424.8000;0.2597;2.5205;
425.1000;0.2605;2.5205;
425.4000;0.2613;2.5205;
425.7000;0.2646;2.5280;
426.0000;0.2597;2.5230;
426.3000;0.2613;2.5280;
426.6000;0.2613;2.5355;
426.9000;0.2605;2.5255;
427.2000;0.2613;2.5230;
427.5000;0.2597;2.5180;
427.8000;0.2597;2.5230;
428.1000;0.2613;2.5305;
428.4000;0.2605;2.5380;
428.7000;0.2621;2.5330;
429.0000;0.2605;2.5280;
429.3000;0.2654;2.5430;
429.6000;0.2605;2.5305;
429.9000;0.2597;2.5280;
430.2000;0.2605;2.5280;
430.5000;0.2589;2.5305;
430.8000;0.2597;2.5355;
431.1000;0.2637;2.5455;
431.4000;0.2572;2.5255;
431.7000;0.2686;2.5480;
432.0000;0.2621;2.5355;
432.3000;0.2589;2.5255;
432.6000;0.2589;2.5180;
432.9000;0.2613;2.5230;
433.2000;0.2621;2.5205;
433.5000;0.2540;2.4905;
433.8000;0.2605;2.5030;
434.1000;0.2589;2.4905;
434.4000;0.2621;2.5055;
434.7000;0.2613;2.5055;
435.0000;0.2613;2.4955;
435.3000;0.2621;2.5055;
435.6000;0.2613;2.4980;
435.9000;0.2613;2.5055;
436.2000;0.2605;2.5155;
436.5000;0.2605;2.5105;
436.8000;0.2621;2.5255;
437.1000;0.2629;2.5230;
437.4000;0.2548;2.5130;
437.7000;0.2605;2.5255;
438.0000;0.2605;2.5305;
438.3000;0.2605;2.5305;
438.6000;0.2605;2.5280;
438.9000;0.2621;2.5355;
439.2000;0.2589;2.5255;
439.5000;0.2564;2.5130;
439.8000;0.2637;2.5330;
440.1000;0.2572;2.5130;
440.4000;0.2605;2.5255;
440.7000;0.2597;2.5205;
441.0000;0.2621;2.5280;
441.3000;0.2605;2.5130;
441.6000;0.2597;2.5130;
441.9000;0.2637;2.5155;
442.2000;0.2556;2.4980;
442.5000;0.2597;2.5155;
442.8000;0.2597;2.5180;
443.1000;0.2613;2.5305;
443.4000;0.2613;2.5305;
443.7000;0.2629;2.5380;
444.0000;0.2605;2.5305;
444.3000;0.2735;2.5706;
444.6000;0.2613;2.5305;
444.9000;0.2613;2.5230;
445.2000;0.2678;2.5455;
445.5000;0.2613;2.5230;
445.8000;0.2678;2.5480;
446.1000;0.2613;2.5280;
446.4000;0.2613;2.5305;
446.7000;0.2621;2.5305;
447.0000;0.2613;2.5305;
447.3000;0.2523;2.4855;
447.6000;0.2613;2.5155;
447.9000;0.2613;2.5155;
448.2000;0.2613;2.5230;
448.5000;0.2621;2.5230;
448.8000;0.2605;2.5080;
449.1000;0.2580;2.5030;
449.4000;0.2613;2.5005;
449.7000;0.2589;2.4955;
450.0000;0.2597;2.5005;
450.3000;0.2629;2.5155;
450.6000;0.2654;2.5255;
450.9000;0.2637;2.5205;
451.2000;0.2548;2.4855;
451.5000;0.2605;2.5005;
451.8000;0.2613;2.4930;
452.1000;0.2483;2.4654;
452.4000;0.2621;2.5055;
452.7000;0.2637;2.5105;
453.0000;0.2629;2.5055;
453.3000;0.2556;2.4980;
453.6000;0.2507;2.4805;
453.9000;0.2605;2.4905;
454.2000;0.2678;2.5130;
454.5000;0.2637;2.5080;
454.8000;0.2580;2.4930;
455.1000;0.2580;2.4930;
455.4000;0.2613;2.4980;
455.7000;0.2605;2.5005;
456.0000;0.2621;2.5105;
456.3000;0.2637;2.5280;
456.6000;0.2646;2.5330;
456.9000;0.2654;2.5330;
457.2000;0.2605;2.5155;
457.5000;0.2564;2.4980;
457.8000;0.2637;2.5205;
458.1000;0.2621;2.5180;
458.4000;0.2629;2.5305;
458.7000;0.2613;2.5155;
459.0000;0.2629;2.5105;
459.3000;0.2613;2.5030;
459.6000;0.2613;2.5080;
459.9000;0.2621;2.5155;
460.2000;0.2580;2.5155;
460.5000;0.2580;2.5180;
460.8000;0.2605;2.5230;
461.1000;0.2621;2.5305;
461.4000;0.2589;2.5180;
461.7000;0.2613;2.5255;
462.0000;0.2621;2.5305;
462.3000;0.2597;2.5255;
462.6000;0.2613;2.5405;
462.9000;0.2597;2.5455;
463.2000;0.2589;2.5280;
463.5000;0.2637;2.5430;
463.8000;0.2605;2.5280;
464.1000;0.2621;2.5355;
464.4000;0.2580;2.5230;
464.7000;0.2629;2.5405;
465.0000;0.2613;2.5380;
465.3000;0.2621;2.5330;
465.6000;0.2629;2.5330;
465.9000;0.2629;2.5355;
466.2000;0.2637;2.5380;
466.5000;0.2621;2.5280;
466.8000;0.2629;2.5255;
467.1000;0.2621;2.5280;
467.4000;0.2621;2.5330;
467.7000;0.2629;2.5305;
468.0000;0.2646;2.5355;
468.3000;0.2597;2.5205;
468.6000;0.2597;2.5230;
468.9000;0.2605;2.5280;
469.2000;0.2605;2.5330;
469.5000;0.2629;2.5380;
469.8000;0.2613;2.5330;
470.1000;0.2621;2.5330;
470.4000;0.2613;2.5355;
470.7000;0.2662;2.5480;
471.0000;0.2605;2.5380;
471.3000;0.2597;2.5355;
471.6000;0.2597;2.5330;
471.9000;0.2572;2.5255;
472.2000;0.2605;2.5280;
472.5000;0.2572;2.5230;
472.8000;0.2629;2.5455;
473.1000;0.2605;2.5380;
473.4000;0.2621;2.5455;
473.7000;0.2532;2.5205;
474.0000;0.2613;2.5230;
474.3000;0.2580;2.5180;
474.6000;0.2515;2.4930;
474.9000;0.2605;2.5280;
475.2000;0.2540;2.5055;
475.5000;0.2613;2.5255;
475.8000;0.2637;2.5330;
476.1000;0.2605;2.5230;
476.4000;0.2605;2.5230;
476.7000;0.2613;2.5255;
477.0000;0.2613;2.5255;
477.3000;0.2629;2.5305;
477.6000;0.2719;2.5480;
477.9000;0.2597;2.5305;
478.2000;0.2654;2.5455;
478.5000;0.2572;2.5255;
478.8000;0.2621;2.5380;
479.1000;0.2629;2.5280;
479.4000;0.2613;2.5230;
479.7000;0.2637;2.5380;
480.0000;0.2621;2.5255;
480.3000;0.2613;2.5180;
480.6000;0.2605;2.5080;
480.9000;0.2613;2.5055;
481.2000;0.2629;2.5155;
481.5000;0.2523;2.4905;
481.8000;0.2597;2.5105;
482.1000;0.2621;2.5105;
482.4000;0.2613;2.5230;
482.7000;0.2605;2.5230;
483.0000;0.2613;2.5230;
483.3000;0.2556;2.5030;
483.6000;0.2613;2.5155;
483.9000;0.2613;2.5130;
484.2000;0.2597;2.5105;
484.5000;0.2597;2.5155;
484.8000;0.2605;2.5055;
485.1000;0.2589;2.5080;
485.4000;0.2629;2.5180;
485.7000;0.2613;2.5155;
486.0000;0.2597;2.5105;
486.3000;0.2621;2.5105;
486.6000;0.2629;2.5130;
486.9000;0.2613;2.5130;
487.2000;0.2613;2.5180;
487.5000;0.2662;2.5255;
487.8000;0.2605;2.5105;
488.1000;0.2621;2.5105;
488.4000;0.2613;2.5080;
488.7000;0.2613;2.5105;
489.0000;0.2621;2.5130;
489.3000;0.2597;2.5055;
489.6000;0.2605;2.5080;
489.9000;0.2564;2.5005;
490.2000;0.2540;2.4980;
490.5000;0.2686;2.5330;
490.8000;0.2589;2.4980;
491.1000;0.2589;2.4980;
491.4000;0.2613;2.5080;
491.7000;0.2654;2.5180;
492.0000;0.2589;2.5055;
492.3000;0.2580;2.5005;
492.6000;0.2678;2.5305;
492.9000;0.2613;2.5105;
493.2000;0.2621;2.5105;
493.5000;0.2597;2.5105;
493.8000;0.2613;2.5105;
494.1000;0.2605;2.5155;
494.4000;0.2621;2.5180;
494.7000;0.2580;2.5080;
495.0000;0.2605;2.5105;
495.3000;0.2532;2.4855;
495.6000;0.2751;2.5405;
495.9000;0.2580;2.5005;
496.2000;0.2629;2.5230;
496.5000;0.2597;2.5055;
496.8000;0.2613;2.5155;
497.1000;0.2621;2.5230;
497.4000;0.2589;2.5130;
497.7000;0.2686;2.5480;
498.0000;0.2564;2.5155;
498.3000;0.2597;2.5255;
498.6000;0.2597;2.5255;
498.9000;0.2589;2.5180;
499.2000;0.2548;2.5055;
499.5000;0.2605;2.5230;
499.8000;0.2605;2.5305;
500.1000;0.2719;2.5480;
500.4000;0.2629;2.5305;
500.7000;0.2580;2.5155;
501.0000;0.2621;2.5330;
501.3000;0.2621;2.5480;
501.6000;0.2629;2.5480;
501.9000;0.2605;2.5355;
502.2000;0.2597;2.5305;
502.5000;0.2629;2.5330;
502.8000;0.2597;2.5205;
503.1000;0.2613;2.5205;
503.4000;0.2613;2.5205;
503.7000;0.2597;2.5230;
504.0000;0.2613;2.5355;
504.3000;0.2580;2.5280;
504.6000;0.2613;2.5305;
504.9000;0.2572;2.5255;
505.2000;0.2564;2.5230;
505.5000;0.2597;2.5280;
505.8000;0.2629;2.5355;
506.1000;0.2605;2.5355;
506.4000;0.2499;2.5055;
506.7000;0.2597;2.5305;
507.0000;0.2613;2.5255;
507.3000;0.2613;2.5230;
507.6000;0.2621;2.5230;
507.9000;0.2605;2.5205;
508.2000;0.2580;2.5180;
508.5000;0.2605;2.5355;
508.8000;0.2605;2.5455;
509.1000;0.2605;2.5480;
509.4000;0.2613;2.5480;
509.7000;0.2605;2.5455;
510.0000;0.2442;2.5005;
510.3000;0.2621;2.5380;
510.6000;0.2621;2.5355;
510.9000;0.2613;2.5255;
511.2000;0.2621;2.5355;
511.5000;0.2621;2.5330;
511.8000;0.2646;2.5405;
512.1000;0.2572;2.5205;
512.4000;0.2621;2.5255;
512.7000;0.2580;2.5130;
513.0000;0.2597;2.5105;
513.3000;0.2637;2.5155;
513.6000;0.2719;2.5405;
513.9000;0.2621;2.5055;
514.2000;0.2515;2.4905;
514.5000;0.2605;2.5130;
514.8000;0.2654;2.5355;
515.1000;0.2605;2.5180;
515.4000;0.2637;2.5230;
515.7000;0.2637;2.5280;
516.0000;0.2629;2.5330;
516.3000;0.2629;2.5255;
516.6000;0.2613;2.5305;
516.9000;0.2613;2.5305;
517.2000;0.2589;2.5205;
517.5000;0.2621;2.5255;
517.8000;0.2613;2.5280;
518.1000;0.2621;2.5330;
518.4000;0.2605;2.5305;
518.7000;0.2564;2.5180;
519.0000;0.2686;2.5656;
519.3000;0.2548;2.5255;
519.6000;0.2556;2.5255;
519.9000;0.2613;2.5455;
520.2000;0.2589;2.5505;
520.5000;0.2629;2.5581;
520.8000;0.2613;2.5581;
521.1000;0.2605;2.5581;
521.4000;0.2621;2.5556;
521.7000;0.2621;2.5480;
522.0000;0.2597;2.5480;
522.3000;0.2605;2.5405;
522.6000;0.2621;2.5505;
522.9000;0.2605;2.5355;
523.2000;0.2613;2.5405;
523.5000;0.2621;2.5455;
523.8000;0.2613;2.5380;
524.1000;0.2597;2.5330;
524.4000;0.2613;2.5355;
524.7000;0.2589;2.5305;
525.0000;0.2605;2.5255;
525.3000;0.2532;2.5080;
525.6000;0.2629;2.5380;
525.9000;0.2605;2.5330;
526.2000;0.2613;2.5380;
526.5000;0.2613;2.5455;
526.8000;0.2629;2.5480;
527.1000;0.2702;2.5656;
527.4000;0.2613;2.5480;
527.7000;0.2621;2.5556;
528.0000;0.2613;2.5631;
528.3000;0.2613;2.5556;
528.6000;0.2605;2.5505;
528.9000;0.2613;2.5480;
529.2000;0.2597;2.5455;
529.5000;0.2548;2.5380;
529.8000;0.2637;2.5505;
530.1000;0.2605;2.5480;
530.4000;0.2532;2.5205;
530.7000;0.2637;2.5505;
531.0000;0.2605;2.5430;
531.3000;0.2597;2.5355;
531.6000;0.2621;2.5330;
531.9000;0.2589;2.5230;
532.2000;0.2637;2.5430;
532.5000;0.2629;2.5530;
532.8000;0.2589;2.5405;
533.1000;0.2629;2.5556;
533.4000;0.2646;2.5556;
533.7000;0.2580;2.5480;
534.0000;0.2621;2.5606;
534.3000;0.2580;2.5455;
534.6000;0.2613;2.5505;
534.9000;0.2540;2.5405;
535.2000;0.2572;2.5530;
535.5000;0.2637;2.5781;
535.8000;0.2621;2.5706;
536.1000;0.2613;2.5656;
536.4000;0.2589;2.5530;
536.7000;0.2580;2.5480;
537.0000;0.2523;2.5355;
537.3000;0.2629;2.5631;
537.6000;0.2621;2.5606;
537.9000;0.2670;2.5756;
538.2000;0.2605;2.5631;
538.5000;0.2556;2.5405;
538.8000;0.2702;2.5706;
539.1000;0.2580;2.5455;
539.4000;0.2605;2.5581;
539.7000;0.2589;2.5530;
540.0000;0.2613;2.5530;
540.3000;0.2605;2.5455;
540.6000;0.2580;2.5455;
540.9000;0.2597;2.5556;
541.2000;0.2597;2.5505;
541.5000;0.2613;2.5530;
541.8000;0.2621;2.5430;
542.1000;0.2613;2.5480;
542.4000;0.2589;2.5430;
542.7000;0.2589;2.5405;
543.0000;0.2564;2.5330;
543.3000;0.2613;2.5380;
543.6000;0.2613;2.5405;
543.9000;0.2629;2.5480;
544.2000;0.2605;2.5405;
544.5000;0.2597;2.5305;
544.8000;0.2605;2.5405;
545.1000;0.2605;2.5355;
545.4000;0.2597;2.5280;
545.7000;0.2613;2.5430;
546.0000;0.2637;2.5505;
546.3000;0.2621;2.5606;
546.6000;0.2589;2.5556;
546.9000;0.2589;2.5556;
547.2000;0.2629;2.5681;
547.5000;0.2589;2.5606;
547.8000;0.2629;2.5681;
548.1000;0.2629;2.5631;
548.4000;0.2621;2.5581;
548.7000;0.2621;2.5556;
549.0000;0.2629;2.5656;
549.3000;0.2589;2.5631;
549.6000;0.2629;2.5756;
549.9000;0.2637;2.5781;
550.2000;0.2572;2.5581;
550.5000;0.2515;2.5305;
550.8000;0.2605;2.5505;
551.1000;0.2589;2.5455;
551.4000;0.2629;2.5631;
551.7000;0.2605;2.5480;
552.0000;0.2507;2.5230;
552.3000;0.2580;2.5530;
552.6000;0.2670;2.5631;
552.9000;0.2589;2.5530;
553.2000;0.2646;2.5656;
553.5000;0.2605;2.5530;
553.8000;0.2597;2.5430;
554.1000;0.2605;2.5480;
554.4000;0.2605;2.5480;
554.7000;0.2605;2.5455;
555.0000;0.2621;2.5455;
555.3000;0.2646;2.5556;
555.6000;0.2613;2.5480;
555.9000;0.2605;2.5480;
556.2000;0.2605;2.5530;
556.5000;0.2605;2.5581;
556.8000;0.2580;2.5556;
557.1000;0.2605;2.5606;
557.4000;0.2613;2.5606;
557.7000;0.2621;2.5556;
558.0000;0.2719;2.5756;
558.3000;0.2629;2.5530;
558.6000;0.2589;2.5405;
558.9000;0.2629;2.5556;
559.2000;0.2613;2.5455;
559.5000;0.2621;2.5380;
559.8000;0.2613;2.5280;
560.1000;0.2605;2.5280;
560.4000;0.2613;2.5280;
560.7000;0.2670;2.5355;
561.0000;0.2629;2.5230;
561.3000;0.2589;2.5055;
561.6000;0.2613;2.5205;
561.9000;0.2556;2.5030;
562.2000;0.2686;2.5480;
562.5000;0.2629;2.5430;
562.8000;0.2727;2.5731;
563.1000;0.2572;2.5380;
563.4000;0.2605;2.5556;
563.7000;0.2637;2.5606;
564.0000;0.2621;2.5606;
564.3000;0.2621;2.5681;
564.6000;0.2621;2.5631;
564.9000;0.2564;2.5430;
565.2000;0.2564;2.5480;
565.5000;0.2629;2.5530;
565.8000;0.2605;2.5380;
566.1000;0.2637;2.5581;
566.4000;0.2621;2.5430;
566.7000;0.2605;2.5355;
567.0000;0.2597;2.5305;
567.3000;0.2523;2.4980;
567.6000;0.2637;2.5330;
567.9000;0.2621;2.5205;
568.2000;0.2629;2.5255;
568.5000;0.2597;2.5130;
568.8000;0.2564;2.5105;
569.1000;0.2556;2.5130;
569.4000;0.2605;2.5405;
569.7000;0.2605;2.5480;
570.0000;0.2613;2.5505;
570.3000;0.2629;2.5405;
570.6000;0.2637;2.5405;
570.9000;0.2613;2.5455;
571.2000;0.2629;2.5556;
571.5000;0.2678;2.5681;
571.8000;0.2491;2.5130;
572.1000;0.2597;2.5380;
572.4000;0.2654;2.5530;
572.7000;0.2589;2.5305;
573.0000;0.2621;2.5405;
573.3000;0.2646;2.5380;
573.6000;0.2580;2.5180;
573.9000;0.2580;2.5155;
574.2000;0.2613;2.5280;
574.5000;0.2605;2.5330;
574.8000;0.2572;2.5255;
575.1000;0.2621;2.5480;
575.4000;0.2605;2.5355;
575.7000;0.2589;2.5330;
576.0000;0.2621;2.5355;
576.3000;0.2605;2.5305;
576.6000;0.2621;2.5430;
576.9000;0.2605;2.5430;
577.2000;0.2613;2.5380;
577.5000;0.2597;2.5280;
577.8000;0.2621;2.5205;
578.1000;0.2621;2.5305;
578.4000;0.2646;2.5380;
578.7000;0.2621;2.5355;
579.0000;0.2621;2.5455;
579.3000;0.2621;2.5480;
579.6000;0.2597;2.5380;
579.9000;0.2572;2.5330;
580.2000;0.2597;2.5330;
580.5000;0.2613;2.5355;
580.8000;0.2613;2.5330;
581.1000;0.2580;2.5230;
581.4000;0.2621;2.5305;
581.7000;0.2605;2.5405;
582.0000;0.2654;2.5530;
582.3000;0.2597;2.5355;
582.6000;0.2548;2.5255;
582.9000;0.2621;2.5455;
583.2000;0.2613;2.5405;
583.5000;0.2629;2.5380;
583.8000;0.2564;2.5205;
584.1000;0.2597;2.5280;
584.4000;0.2670;2.5556;
584.7000;0.2719;2.5581;
585.0000;0.2727;2.5556;
585.3000;0.2605;2.5205;
585.6000;0.2589;2.5205;
585.9000;0.2621;2.5305;
586.2000;0.2589;2.5205;
586.5000;0.2621;2.5330;
586.8000;0.2613;2.5355;
587.1000;0.2621;2.5455;
587.4000;0.2646;2.5505;
587.7000;0.2597;2.5380;
588.0000;0.2621;2.5430;
588.3000;0.2613;2.5480;
588.6000;0.2621;2.5505;
588.9000;0.2646;2.5631;
589.2000;0.2548;2.5455;
589.5000;0.2597;2.5581;
589.8000;0.2605;2.5530;
590.1000;0.2637;2.5606;
590.4000;0.2605;2.5530;
590.7000;0.2613;2.5455;
591.0000;0.2621;2.5480;
591.3000;0.2646;2.5480;
591.6000;0.2605;2.5380;
591.9000;0.2597;2.5405;
592.2000;0.2532;2.5330;
592.5000;0.2613;2.5530;
592.8000;0.2605;2.5405;
593.1000;0.2694;2.5606;
593.4000;0.2621;2.5280;
593.7000;0.2597;2.5280;
594.0000;0.2686;2.5505;
594.3000;0.2589;2.5180;
594.6000;0.2621;2.5255;
594.9000;0.2597;2.5155;
595.2000;0.2613;2.5255;
595.5000;0.2580;2.5205;
595.8000;0.2597;2.5255;
596.1000;0.2597;2.5330;
596.4000;0.2597;2.5230;
596.7000;0.2621;2.5305;
597.0000;0.2629;2.5455;
597.3000;0.2605;2.5305;
597.6000;0.2597;2.5305;
597.9000;0.2597;2.5180;
598.2000;0.2629;2.5230;
598.5000;0.2564;2.5030;
598.8000;0.2597;2.5180;
599.1000;0.2589;2.5180;
599.4000;0.2597;2.5280;
599.7000;0.2597;2.5180;
600.0000;0.2613;2.5305;
600.3000;0.2564;2.5180;
600.6000;0.2605;2.5230;
600.9000;0.2637;2.5155;
601.2000;0.2580;2.4880;
601.5000;0.2621;2.4880;
601.8000;0.2556;2.4579;
602.1000;0.2572;2.4454;
602.4000;0.2540;2.4229;
602.7000;0.2540;2.4204;
603.0000;0.2564;2.4104;
603.3000;0.2540;2.3828;
603.6000;0.2556;2.3753;
603.9000;0.2507;2.3628;
604.2000;0.2491;2.3478;
604.5000;0.2515;2.3453;
604.8000;0.2523;2.3378;
605.1000;0.2499;2.3228;
605.4000;0.2499;2.3103;
605.7000;0.2458;2.2952;
606.0000;0.2523;2.3078;
606.3000;0.2499;2.2977;
606.6000;0.2540;2.3053;
606.9000;0.2532;2.3027;
607.2000;0.2515;2.2902;
607.5000;0.2507;2.2877;
607.8000;0.2532;2.2902;
608.1000;0.2483;2.2752;
608.4000;0.2475;2.2702;
608.7000;0.2532;2.2852;
609.0000;0.2572;2.2952;
609.3000;0.2483;2.2727;
609.6000;0.2564;2.2902;
609.9000;0.2515;2.2727;
610.2000;0.2466;2.2602;
610.5000;0.2434;2.2477;
610.8000;0.2491;2.2702;
611.1000;0.2507;2.2777;
611.4000;0.2491;2.2677;
611.7000;0.2491;2.2752;
612.0000;0.2499;2.2777;
612.3000;0.2483;2.2777;
612.6000;0.2507;2.2902;
612.9000;0.2507;2.2852;
613.2000;0.2466;2.2702;
613.5000;0.2475;2.2727;
613.8000;0.2483;2.2727;
614.1000;0.2499;2.2677;
614.4000;0.2458;2.2627;
614.7000;0.2507;2.2752;
615.0000;0.2499;2.2702;
615.3000;0.2491;2.2727;
615.6000;0.2475;2.2652;
615.9000;0.2499;2.2602;
616.2000;0.2491;2.2577;
616.5000;0.2507;2.2677;
616.8000;0.2491;2.2677;
617.1000;0.2605;2.3002;
617.4000;0.2491;2.2552;
617.7000;0.2475;2.2527;
618.0000;0.2475;2.2502;
618.3000;0.2450;2.2502;
618.6000;0.2458;2.2527;
618.9000;0.2475;2.2577;
619.2000;0.2475;2.2602;
619.5000;0.2491;2.2652;
619.8000;0.2499;2.2702;
620.1000;0.2548;2.2877;
620.4000;0.2491;2.2577;
620.7000;0.2458;2.2402;
621.0000;0.2475;2.2402;
621.3000;0.2385;2.2176;
621.6000;0.2499;2.2402;
621.9000;0.2483;2.2452;
622.2000;0.2499;2.2427;
622.5000;0.2540;2.2502;
622.8000;0.2466;2.2277;
623.1000;0.2499;2.2427;
623.4000;0.2491;2.2402;
623.7000;0.2491;2.2502;
624.0000;0.2442;2.2352;
624.3000;0.2442;2.2427;
624.6000;0.2426;2.2402;
624.9000;0.2491;2.2552;
625.2000;0.2466;2.2427;
625.5000;0.2466;2.2402;
625.8000;0.2515;2.2552;
626.1000;0.2475;2.2452;
626.4000;0.2483;2.2477;
626.7000;0.2483;2.2527;
627.0000;0.2483;2.2502;
627.3000;0.2499;2.2602;
627.6000;0.2483;2.2577;
627.9000;0.2491;2.2477;
628.2000;0.2523;2.2577;
628.5000;0.2483;2.2452;
628.8000;0.2491;2.2502;
629.1000;0.2589;2.2677;
629.4000;0.2475;2.2427;
629.7000;0.2458;2.2402;
630.0000;0.2458;2.2402;
630.3000;0.2483;2.2427;
630.6000;0.2483;2.2552;
630.9000;0.2458;2.2502;
631.2000;0.2483;2.2552;
631.5000;0.2475;2.2502;
631.8000;0.2491;2.2527;
632.1000;0.2475;2.2452;
632.4000;0.2597;2.2802;
632.7000;0.2491;2.2502;
633.0000;0.2499;2.2577;
633.3000;0.2475;2.2452;
633.6000;0.2515;2.2477;
633.9000;0.2409;2.2176;
634.2000;0.2483;2.2402;
634.5000;0.2507;2.2327;
634.8000;0.2466;2.2202;
635.1000;0.2483;2.2302;
635.4000;0.2475;2.2277;
635.7000;0.2499;2.2302;
636.0000;0.2597;2.2577;
636.3000;0.2483;2.2252;
636.6000;0.2483;2.2302;
636.9000;0.2483;2.2277;
637.2000;0.2458;2.2202;
637.5000;0.2483;2.2227;
637.8000;0.2507;2.2252;
638.1000;0.2466;2.2202;
638.4000;0.2491;2.2352;
638.7000;0.2483;2.2427;
639.0000;0.2483;2.2352;
639.3000;0.2491;2.2477;
639.6000;0.2491;2.2527;
639.9000;0.2483;2.2427;
640.2000;0.2466;2.2452;
640.5000;0.2507;2.2502;
640.8000;0.2483;2.2452;
641.1000;0.2499;2.2402;
641.4000;0.2483;2.2377;
641.7000;0.2475;2.2402;
642.0000;0.2458;2.2402;
642.3000;0.2450;2.2327;
642.6000;0.2442;2.2402;
642.9000;0.2475;2.2427;
643.2000;0.2483;2.2452;
643.5000;0.2483;2.2352;
643.8000;0.2369;2.2051;
644.1000;0.2515;2.2502;
644.4000;0.2401;2.2176;
644.7000;0.2466;2.2327;
645.0000;0.2458;2.2302;
645.3000;0.2523;2.2477;
645.6000;0.2475;2.2377;
645.9000;0.2491;2.2377;
646.2000;0.2483;2.2302;
646.5000;0.2434;2.2227;
646.8000;0.2507;2.2477;
647.1000;0.2507;2.2502;
647.4000;0.2499;2.2427;
647.7000;0.2507;2.2502;
648.0000;0.2483;2.2427;
648.3000;0.2483;2.2402;
648.6000;0.2475;2.2402;
648.9000;0.2499;2.2452;
649.2000;0.2483;2.2327;
649.5000;0.2442;2.2202;
649.8000;0.2466;2.2151;
650.1000;0.2499;2.2227;
650.4000;0.2499;2.2202;
650.7000;0.2483;2.2126;
651.0000;0.2499;2.2277;
651.3000;0.2483;2.2277;
651.6000;0.2491;2.2277;
651.9000;0.2515;2.2277;
652.2000;0.2491;2.2101;
652.5000;0.2466;2.2051;
652.8000;0.2589;2.2427;
653.1000;0.2499;2.2151;
653.4000;0.2491;2.2151;
653.7000;0.2475;2.2026;
654.0000;0.2409;2.1726;
654.3000;0.2499;2.2026;
654.6000;0.2483;2.2101;
654.9000;0.2475;2.2176;
655.2000;0.2515;2.2352;
655.5000;0.2483;2.2252;
655.8000;0.2491;2.2352;
656.1000;0.2491;2.2327;
656.4000;0.2483;2.2176;
656.7000;0.2483;2.2202;
657.0000;0.2548;2.2427;
657.3000;0.2499;2.2302;
657.6000;0.2475;2.2277;
657.9000;0.2418;2.2101;
658.2000;0.2483;2.2277;
658.5000;0.2483;2.2302;
658.8000;0.2491;2.2352;
659.1000;0.2475;2.2327;
659.4000;0.2426;2.2101;
659.7000;0.2475;2.2227;
660.0000;0.2483;2.2252;
660.3000;0.2475;2.2176;
660.6000;0.2434;2.2151;
660.9000;0.2426;2.2176;
661.2000;0.2466;2.2352;
661.5000;0.2475;2.2377;
661.8000;0.2499;2.2402;
662.1000;0.2605;2.2652;
662.4000;0.2466;2.2227;
662.7000;0.2556;2.2377;
663.0000;0.2499;2.2277;
663.3000;0.2434;2.2151;
663.6000;0.2499;2.2302;
663.9000;0.2629;2.2702;
664.2000;0.2556;2.2527;
664.5000;0.2491;2.2427;
664.8000;0.2499;2.2402;
665.1000;0.2442;2.2227;
665.4000;0.2548;2.2577;
665.7000;0.2450;2.2151;
666.0000;0.2499;2.2252;
666.3000;0.2597;2.2627;
666.6000;0.2458;2.2176;
666.9000;0.2475;2.2151;
667.2000;0.2491;2.2227;
667.5000;0.2466;2.2151;
667.8000;0.2499;2.2277;
668.1000;0.2499;2.2277;
668.4000;0.2515;2.2277;
668.7000;0.2475;2.2076;
669.0000;0.2483;2.2126;
669.3000;0.2466;2.2076;
669.6000;0.2507;2.2151;
669.9000;0.2564;2.2352;
670.2000;0.2483;2.2202;
670.5000;0.2475;2.2252;
670.8000;0.2499;2.2377;
671.1000;0.2458;2.2227;
671.4000;0.2515;2.2327;
671.7000;0.2466;2.2352;
672.0000;0.2515;2.2477;
672.3000;0.2507;2.2477;
672.6000;0.2507;2.2352;
672.9000;0.2466;2.2252;
673.2000;0.2491;2.2327;
673.5000;0.2499;2.2377;
673.8000;0.2475;2.2227;
674.1000;0.2450;2.2151;
674.4000;0.2499;2.2126;
674.7000;0.2499;2.2202;
675.0000;0.2523;2.2227;
675.3000;0.2475;2.2202;
675.6000;0.2491;2.2277;
675.9000;0.2475;2.2227;
676.2000;0.2507;2.2277;
676.5000;0.2589;2.2502;
676.8000;0.2434;2.2026;
677.1000;0.2475;2.2151;
677.4000;0.2409;2.2026;
677.7000;0.2483;2.2151;
678.0000;0.2458;2.2252;
678.3000;0.2540;2.2427;
678.6000;0.2491;2.2377;
678.9000;0.2499;2.2402;
679.2000;0.2442;2.2227;
679.5000;0.2466;2.2202;
679.8000;0.2491;2.2176;
680.1000;0.2499;2.2252;
680.4000;0.2475;2.2227;
680.7000;0.2475;2.2151;
681.0000;0.2499;2.2277;
681.3000;0.2515;2.2327;
681.6000;0.2507;2.2302;
681.9000;0.2507;2.2327;
682.2000;0.2507;2.2302;
682.5000;0.2532;2.2502;
682.8000;0.2491;2.2402;
683.1000;0.2466;2.2302;
683.4000;0.2515;2.2502;
683.7000;0.2507;2.2527;
684.0000;0.2499;2.2527;
684.3000;0.2507;2.2502;
684.6000;0.2426;2.2202;
684.9000;0.2499;2.2377;
685.2000;0.2475;2.2377;
685.5000;0.2491;2.2427;
685.8000;0.2491;2.2452;
686.1000;0.2532;2.2552;
686.4000;0.2483;2.2327;
686.7000;0.2532;2.2477;
687.0000;0.2523;2.2477;
687.3000;0.2450;2.2252;
687.6000;0.2491;2.2352;
687.9000;0.2507;2.2402;
688.2000;0.2507;2.2427;
688.5000;0.2450;2.2252;
688.8000;0.2499;2.2452;
689.1000;0.2523;2.2477;
689.4000;0.2475;2.2327;
689.7000;0.2483;2.2402;
690.0000;0.2483;2.2402;
690.3000;0.2483;2.2352;
690.6000;0.2483;2.2227;
690.9000;0.2483;2.2202;
691.2000;0.2491;2.2202;
691.5000;0.2475;2.2252;
691.8000;0.2458;2.2202;
692.1000;0.2475;2.2227;
692.4000;0.2589;2.2577;
692.7000;0.2475;2.2151;
693.0000;0.2507;2.2202;
693.3000;0.2466;2.2202;
693.6000;0.2499;2.2227;
693.9000;0.2499;2.2277;
694.2000;0.2491;2.2176;
694.5000;0.2352;2.1801;
694.8000;0.2466;2.2101;
695.1000;0.2466;2.2126;
695.4000;0.2483;2.2076;
695.7000;0.2475;2.1976;
696.0000;0.2426;2.1826;
696.3000;0.2475;2.2001;
696.6000;0.2499;2.2051;
696.9000;0.2491;2.2051;
697.2000;0.2507;2.2126;
697.5000;0.2499;2.2051;
697.8000;0.2483;2.2001;
698.1000;0.2491;2.2051;
698.4000;0.2483;2.2076;
698.7000;0.2466;2.2026;
699.0000;0.2515;2.2101;
699.3000;0.2466;2.1926;
699.6000;0.2483;2.2051;
699.9000;0.2483;2.2176;
700.2000;0.2637;2.2727;
700.5000;0.2515;2.2327;
700.8000;0.2532;2.2402;
701.1000;0.2442;2.2076;
701.4000;0.2491;2.2202;
701.7000;0.2442;2.2026;
702.0000;0.2499;2.2176;
702.3000;0.2426;2.2026;
702.6000;0.2434;2.2176;
702.9000;0.2450;2.2227;
703.2000;0.2483;2.2327;
703.5000;0.2491;2.2277;
703.8000;0.2507;2.2352;
704.1000;0.2515;2.2402;
704.4000;0.2507;2.2427;
704.7000;0.2466;2.2277;
705.0000;0.2507;2.2402;
705.3000;0.2491;2.2302;
705.6000;0.2515;2.2377;
705.9000;0.2491;2.2327;
706.2000;0.2475;2.2302;
706.5000;0.2491;2.2402;
706.8000;0.2483;2.2402;
707.1000;0.2491;2.2327;
707.4000;0.2491;2.2302;
707.7000;0.2499;2.2377;
708.0000;0.2475;2.2302;
708.3000;0.2466;2.2252;
708.6000;0.2499;2.2302;
708.9000;0.2499;2.2302;
709.2000;0.2458;2.2051;
709.5000;0.2475;2.2126;
709.8000;0.2483;2.2076;
710.1000;0.2532;2.2227;
710.4000;0.2507;2.2151;
710.7000;0.2409;2.1851;
711.0000;0.2499;2.2176;
711.3000;0.2532;2.2252;
711.6000;0.2523;2.2151;
711.9000;0.2377;2.1776;
712.2000;0.2450;2.1951;
712.5000;0.2483;2.2051;
712.8000;0.2475;2.1951;
713.1000;0.2483;2.2001;
713.4000;0.2523;2.2176;
713.7000;0.2491;2.2151;
714.0000;0.2507;2.2227;
714.3000;0.2491;2.2176;
714.6000;0.2499;2.2176;
714.9000;0.2466;2.2026;
715.2000;0.2491;2.2051;
715.5000;0.2466;2.1926;
715.8000;0.2458;2.2026;
716.1000;0.2483;2.2151;
716.4000;0.2466;2.2151;
716.7000;0.2491;2.2227;
717.0000;0.2507;2.2302;
717.3000;0.2499;2.2352;
717.6000;0.2377;2.2001;
717.9000;0.2352;2.1851;
718.2000;0.2491;2.2151;
718.5000;0.2483;2.2101;
718.8000;0.2426;2.1801;
719.1000;0.2450;2.2001;
719.4000;0.2572;2.2302;
719.7000;0.2515;2.2176;
720.0000;0.2499;2.2151;
720.3000;0.2499;2.2176;
720.6000;0.2532;2.2277;
720.9000;0.2483;2.2151;
721.2000;0.2491;2.2151;
721.5000;0.2499;2.2277;
721.8000;0.2515;2.2302;
722.1000;0.2458;2.2202;
722.4000;0.2523;2.2302;
722.7000;0.2523;2.2352;
723.0000;0.2418;2.2076;
723.3000;0.2458;2.2151;
723.6000;0.2483;2.2202;
723.9000;0.2483;2.2227;
724.2000;0.2434;2.1976;
724.5000;0.2418;2.1926;
724.8000;0.2466;2.2126;
725.1000;0.2507;2.2327;
725.4000;0.2532;2.2402;
725.7000;0.2466;2.2277;
726.0000;0.2483;2.2327;
726.3000;0.2393;2.2001;
726.6000;0.2507;2.2277;
726.9000;0.2483;2.2126;
727.2000;0.2393;2.1901;
727.5000;0.2499;2.2227;
727.8000;0.2499;2.2302;
728.1000;0.2483;2.2302;
728.4000;0.2499;2.2327;
728.7000;0.2475;2.2302;
729.0000;0.2483;2.2352;
729.3000;0.2491;2.2302;
729.6000;0.2475;2.2227;
729.9000;0.2475;2.2101;
730.2000;0.2483;2.2151;
730.5000;0.2475;2.2101;
730.8000;0.2507;2.2227;
731.1000;0.2483;2.2252;
731.4000;0.2475;2.2377;
731.7000;0.2475;2.2402;
732.0000;0.2483;2.2302;
732.3000;0.2499;2.2402;
732.6000;0.2507;2.2427;
732.9000;0.2491;2.2427;
733.2000;0.2499;2.2402;
733.5000;0.2466;2.2377;
733.8000;0.2483;2.2327;
734.1000;0.2475;2.2202;
734.4000;0.2507;2.2252;
734.7000;0.2450;2.2101;
735.0000;0.2483;2.2126;
735.3000;0.2580;2.2352;
735.6000;0.2515;2.2126;
735.9000;0.2491;2.2001;
736.2000;0.2491;2.2026;
736.5000;0.2499;2.2126;
736.8000;0.2483;2.2151;
737.1000;0.2523;2.2277;
737.4000;0.2442;2.2176;
737.7000;0.2499;2.2277;
738.0000;0.2483;2.2151;
738.3000;0.2589;2.2477;
738.6000;0.2532;2.2302;
738.9000;0.2491;2.2277;
739.2000;0.2515;2.2402;
739.5000;0.2507;2.2402;
739.8000;0.2572;2.2577;
740.1000;0.2475;2.2277;
740.4000;0.2475;2.2176;
740.7000;0.2515;2.2302;
741.0000;0.2499;2.2202;
741.3000;0.2475;2.2076;
741.6000;0.2442;2.2001;
741.9000;0.2515;2.2101;
742.2000;0.2499;2.2051;
742.5000;0.2556;2.2126;
742.8000;0.2483;2.1976;
743.1000;0.2483;2.1976;
743.4000;0.2515;2.2001;
743.7000;0.2491;2.2001;
744.0000;0.2621;2.2377;
744.3000;0.2475;2.2001;
744.6000;0.2483;2.2101;
744.9000;0.2491;2.2202;
745.2000;0.2483;2.2202;
745.5000;0.2491;2.2227;
745.8000;0.2523;2.2176;
746.1000;0.2483;2.2026;
746.4000;0.2523;2.2126;
746.7000;0.2475;2.2026;
747.0000;0.2426;2.1951;
747.3000;0.2475;2.2151;
747.6000;0.2507;2.2277;
747.9000;0.2483;2.2202;
748.2000;0.2556;2.2427;
748.5000;0.2483;2.2327;
748.8000;0.2483;2.2252;
749.1000;0.2458;2.2151;
749.4000;0.2515;2.2277;
749.7000;0.2483;2.2252;
750.0000;0.2475;2.2227;
750.3000;0.2483;2.2202;
750.6000;0.2466;2.2202;
750.9000;0.2523;2.2302;
751.2000;0.2458;2.2202;
751.5000;0.2491;2.2227;
751.8000;0.2483;2.2151;
752.1000;0.2523;2.2176;
752.4000;0.2483;2.2026;
752.7000;0.2483;2.2001;
753.0000;0.2491;2.2001;
753.3000;0.2475;2.2001;
753.6000;0.2515;2.2126;
753.9000;0.2483;2.2076;
754.2000;0.2483;2.1926;
754.5000;0.2475;2.1926;
754.8000;0.2499;2.1976;
755.1000;0.2475;2.1976;
755.4000;0.2572;2.2277;
755.7000;0.2475;2.1951;
756.0000;0.2491;2.2051;
756.3000;0.2483;2.2026;
756.6000;0.2499;2.2051;
756.9000;0.2491;2.2051;
757.2000;0.2499;2.2076;
757.5000;0.2491;2.2076;
757.8000;0.2458;2.2051;
758.1000;0.2483;2.2101;
758.4000;0.2426;2.1876;
758.7000;0.2483;2.2001;
759.0000;0.2507;2.2076;
759.3000;0.2532;2.2051;
759.6000;0.2491;2.1976;
759.9000;0.2515;2.2051;
760.2000;0.2466;2.1901;
760.5000;0.2515;2.2076;
760.8000;0.2475;2.1951;
761.1000;0.2491;2.1851;
761.4000;0.2491;2.1851;
761.7000;0.2466;2.1776;
762.0000;0.2466;2.1776;
762.3000;0.2483;2.1826;
762.6000;0.2491;2.1901;
762.9000;0.2442;2.1826;
763.2000;0.2491;2.1976;
763.5000;0.2580;2.2252;
763.8000;0.2475;2.2101;
764.1000;0.2466;2.2176;
764.4000;0.2418;2.2051;
764.7000;0.2466;2.2101;
765.0000;0.2491;2.2101;
765.3000;0.2499;2.2101;
765.6000;0.2475;2.2001;
765.9000;0.2491;2.2101;
766.2000;0.2499;2.2126;
766.5000;0.2499;2.2202;
766.8000;0.2491;2.2202;
767.1000;0.2507;2.2227;
767.4000;0.2523;2.2352;
767.7000;0.2532;2.2327;
768.0000;0.2499;2.2302;
768.3000;0.2466;2.2151;
768.6000;0.2499;2.2151;
768.9000;0.2499;2.2227;
769.2000;0.2458;2.2151;
769.5000;0.2499;2.2252;
769.8000;0.2475;2.2051;
770.1000;0.2475;2.1876;
770.4000;0.2466;2.1826;
770.7000;0.2483;2.2001;
771.0000;0.2483;2.2026;
771.3000;0.2507;2.2151;
771.6000;0.2507;2.2151;
771.9000;0.2523;2.2227;
772.2000;0.2564;2.2302;
772.5000;0.2499;2.2101;
772.8000;0.2491;2.2076;
773.1000;0.2491;2.2126;
773.4000;0.2409;2.1876;
773.7000;0.2499;2.2151;
774.0000;0.2507;2.2176;
774.3000;0.2507;2.2227;
774.6000;0.2475;2.2176;
774.9000;0.2499;2.2252;
775.2000;0.2426;2.2001;
775.5000;0.2491;2.2252;
775.8000;0.2491;2.2327;
776.1000;0.2475;2.2277;
776.4000;0.2507;2.2277;
776.7000;0.2532;2.2302;
777.0000;0.2491;2.2227;
777.3000;0.2491;2.2252;
777.6000;0.2507;2.2402;
777.9000;0.2499;2.2377;
778.2000;0.2491;2.2427;
778.5000;0.2450;2.2402;
778.8000;0.2499;2.2552;
779.1000;0.2466;2.2427;
779.4000;0.2491;2.2552;
779.7000;0.2418;2.2302;
780.0000;0.2352;2.2151;
780.3000;0.2491;2.2677;
780.6000;0.2475;2.2652;
780.9000;0.2483;2.2552;
781.2000;0.2499;2.2477;
781.5000;0.2369;2.2126;
781.8000;0.2491;2.2452;
782.1000;0.2499;2.2452;
782.4000;0.2483;2.2402;
782.7000;0.2491;2.2427;
783.0000;0.2491;2.2377;
783.3000;0.2491;2.2527;
783.6000;0.2475;2.2477;
783.9000;0.2491;2.2477;
784.2000;0.2491;2.2452;
784.5000;0.2426;2.2302;
784.8000;0.2450;2.2502;
785.1000;0.2483;2.2527;
785.4000;0.2507;2.2477;
785.7000;0.2475;2.2427;
786.0000;0.2499;2.2402;
786.3000;0.2515;2.2427;
786.6000;0.2409;2.2126;
786.9000;0.2507;2.2427;
787.2000;0.2507;2.2377;
787.5000;0.2499;2.2402;
787.8000;0.2589;2.2552;
788.1000;0.2475;2.2352;
788.4000;0.2434;2.2327;
788.7000;0.2499;2.2477;
789.0000;0.2499;2.2427;
789.3000;0.2483;2.2352;
789.6000;0.2483;2.2477;
789.9000;0.2466;2.2452;
790.2000;0.2499;2.2527;
790.5000;0.2491;2.2502;
790.8000;0.2401;2.2302;
791.1000;0.2442;2.2352;
791.4000;0.2483;2.2477;
791.7000;0.2499;2.2452;
792.0000;0.2491;2.2502;
792.3000;0.2523;2.2477;
792.6000;0.2418;2.2126;
792.9000;0.2507;2.2402;
793.2000;0.2507;2.2327;
793.5000;0.2483;2.2252;
793.8000;0.2491;2.2277;
794.1000;0.2491;2.2176;
794.4000;0.2352;2.1851;
794.7000;0.2483;2.2202;
795.0000;0.2499;2.2227;
795.3000;0.2491;2.2252;
795.6000;0.2515;2.2402;
795.9000;0.2466;2.2277;
796.2000;0.2328;2.1926;
796.5000;0.2556;2.2502;
796.8000;0.2483;2.2252;
797.1000;0.2483;2.2252;
797.4000;0.2466;2.2377;
797.7000;0.2491;2.2327;
798.0000;0.2483;2.2327;
798.3000;0.2475;2.2327;
798.6000;0.2507;2.2427;
798.9000;0.2466;2.2402;
799.2000;0.2491;2.2427;
799.5000;0.2475;2.2327;
799.8000;0.2483;2.2427;
800.1000;0.2475;2.2377;
800.4000;0.2491;2.2377;
800.7000;0.2515;2.2402;
801.0000;0.2499;2.2302;
801.3000;0.2491;2.2227;
801.6000;0.2499;2.2227;
801.9000;0.2442;2.2001;
802.2000;0.2499;2.2151;
802.5000;0.2491;2.2151;
802.8000;0.2515;2.2302;
803.1000;0.2499;2.2327;
803.4000;0.2613;2.2702;
803.7000;0.2515;2.2477;
804.0000;0.2442;2.2252;
804.3000;0.2515;2.2602;
804.6000;0.2491;2.2452;
804.9000;0.2466;2.2377;
805.2000;0.2540;2.2527;
805.5000;0.2515;2.2377;
805.8000;0.2499;2.2302;
806.1000;0.2499;2.2227;
806.4000;0.2507;2.2252;
806.7000;0.2515;2.2277;
807.0000;0.2401;2.1926;
807.3000;0.2483;2.2227;
807.6000;0.2491;2.2126;
807.9000;0.2532;2.2327;
808.2000;0.2523;2.2302;
808.5000;0.2605;2.2577;
808.8000;0.2499;2.2352;
809.1000;0.2450;2.2151;
809.4000;0.2491;2.2202;
809.7000;0.2532;2.2377;
810.0000;0.2491;2.2327;
810.3000;0.2499;2.2352;
810.6000;0.2491;2.2402;
810.9000;0.2499;2.2377;
811.2000;0.2491;2.2427;
811.5000;0.2466;2.2327;
811.8000;0.2491;2.2352;
812.1000;0.2507;2.2452;
812.4000;0.2507;2.2377;
812.7000;0.2507;2.2327;
813.0000;0.2515;2.2327;
813.3000;0.2499;2.2327;
813.6000;0.2483;2.2327;
813.9000;0.2491;2.2327;
814.2000;0.2507;2.2452;
814.5000;0.2507;2.2502;
814.8000;0.2491;2.2552;
815.1000;0.2523;2.2627;
815.4000;0.2499;2.2527;
815.7000;0.2548;2.2652;
816.0000;0.2499;2.2627;
816.3000;0.2483;2.2552;
816.6000;0.2499;2.2502;
816.9000;0.2491;2.2527;
817.2000;0.2442;2.2176;
817.5000;0.2466;2.2176;
817.8000;0.2475;2.2126;
818.1000;0.2532;2.2402;
818.4000;0.2491;2.2302;
818.7000;0.2458;2.2252;
819.0000;0.2475;2.2302;
819.3000;0.2483;2.2252;
819.6000;0.2491;2.2227;
819.9000;0.2483;2.2101;
820.2000;0.2540;2.2302;
820.5000;0.2483;2.2227;
820.8000;0.2499;2.2277;
821.1000;0.2458;2.2227;
821.4000;0.2466;2.2227;
821.7000;0.2483;2.2277;
822.0000;0.2491;2.2377;
822.3000;0.2499;2.2302;
822.6000;0.2523;2.2377;
822.9000;0.2499;2.2302;
823.2000;0.2499;2.2327;
823.5000;0.2499;2.2277;
823.8000;0.2466;2.2202;
824.1000;0.2483;2.2227;
824.4000;0.2499;2.2176;
824.7000;0.2418;2.2026;
825.0000;0.2466;2.2076;
825.3000;0.2491;2.2227;
825.6000;0.2458;2.2076;
825.9000;0.2499;2.2176;
826.2000;0.2475;2.2151;
826.5000;0.2507;2.2227;
826.8000;0.2523;2.2352;
827.1000;0.2507;2.2327;
827.4000;0.2401;2.1976;
827.7000;0.2515;2.2377;
828.0000;0.2515;2.2377;
828.3000;0.2499;2.2427;
828.6000;0.2466;2.2352;
828.9000;0.2483;2.2327;
829.2000;0.2499;2.2327;
829.5000;0.2491;2.2302;
829.8000;0.2515;2.2327;
830.1000;0.2483;2.2252;
830.4000;0.2466;2.2252;
830.7000;0.2434;2.2151;
831.0000;0.2507;2.2327;
831.3000;0.2491;2.2302;
831.6000;0.2483;2.2327;
831.9000;0.2499;2.2427;
832.2000;0.2450;2.2252;
832.5000;0.2483;2.2302;
832.8000;0.2499;2.2277;
833.1000;0.2466;2.2151;
833.4000;0.2515;2.2277;
833.7000;0.2475;2.2176;
834.0000;0.2499;2.2302;
834.3000;0.2483;2.2377;
834.6000;0.2409;2.2151;
834.9000;0.2572;2.2602;
835.2000;0.2483;2.2352;
835.5000;0.2572;2.2602;
835.8000;0.2434;2.2176;
836.1000;0.2475;2.2302;
836.4000;0.2475;2.2252;
836.7000;0.2475;2.2252;
837.0000;0.2499;2.2452;
837.3000;0.2499;2.2402;
837.6000;0.2491;2.2352;
837.9000;0.2499;2.2352;
838.2000;0.2491;2.2327;
838.5000;0.2475;2.2227;
838.8000;0.2483;2.2252;
839.1000;0.2475;2.2252;
839.4000;0.2483;2.2252;
839.7000;0.2523;2.2377;
840.0000;0.2483;2.2352;
840.3000;0.2466;2.2302;
840.6000;0.2483;2.2202;
840.9000;0.2483;2.2252;
841.2000;0.2532;2.2502;
841.5000;0.2540;2.2452;
841.8000;0.2361;2.1926;
842.1000;0.2499;2.2227;
842.4000;0.2515;2.2252;
842.7000;0.2491;2.2227;
843.0000;0.2491;2.2227;
843.3000;0.2499;2.2202;
843.6000;0.2483;2.2076;
843.9000;0.2499;2.2227;
844.2000;0.2483;2.2302;
844.5000;0.2483;2.2252;
844.8000;0.2499;2.2402;
845.1000;0.2475;2.2352;
845.4000;0.2475;2.2302;
845.7000;0.2475;2.2302;
846.0000;0.2507;2.2377;
846.3000;0.2491;2.2377;
846.6000;0.2475;2.2402;
846.9000;0.2475;2.2452;
847.2000;0.2515;2.2577;
847.5000;0.2515;2.2577;
847.8000;0.2532;2.2502;
848.1000;0.2466;2.2352;
848.4000;0.2499;2.2427;
848.7000;0.2499;2.2477;
849.0000;0.2523;2.2502;
849.3000;0.2483;2.2427;
849.6000;0.2491;2.2402;
849.9000;0.2515;2.2502;
850.2000;0.2483;2.2502;
850.5000;0.2426;2.2352;
850.8000;0.2458;2.2552;
851.1000;0.2507;2.2677;
851.4000;0.2507;2.2702;
851.7000;0.2507;2.2677;
852.0000;0.2499;2.2627;
852.3000;0.2589;2.2902;
852.6000;0.2515;2.2677;
852.9000;0.2377;2.2302;
853.2000;0.2507;2.2602;
853.5000;0.2540;2.2602;
853.8000;0.2499;2.2452;
854.1000;0.2515;2.2502;
854.4000;0.2540;2.2652;
854.7000;0.2361;2.2076;
855.0000;0.2418;2.2277;
855.3000;0.2523;2.2602;
855.6000;0.2491;2.2452;
855.9000;0.2475;2.2377;
856.2000;0.2483;2.2402;
856.5000;0.2450;2.2352;
856.8000;0.2483;2.2352;
857.1000;0.2491;2.2427;
857.4000;0.2605;2.2777;
857.7000;0.2580;2.2677;
858.0000;0.2409;2.2202;
858.3000;0.2515;2.2452;
858.6000;0.2483;2.2402;
858.9000;0.2499;2.2427;
859.2000;0.2515;2.2577;
859.5000;0.2442;2.2402;
859.8000;0.2507;2.2577;
860.1000;0.2483;2.2552;
860.4000;0.2466;2.2502;
860.7000;0.2483;2.2577;
861.0000;0.2491;2.2677;
861.3000;0.2491;2.2727;
861.6000;0.2523;2.2802;
861.9000;0.2515;2.2652;
862.2000;0.2491;2.2602;
862.5000;0.2491;2.2652;
862.8000;0.2523;2.2702;
863.1000;0.2556;2.2777;
863.4000;0.2507;2.2702;
863.7000;0.2507;2.2677;
864.0000;0.2499;2.2627;
864.3000;0.2507;2.2677;
864.6000;0.2499;2.2552;
864.9000;0.2523;2.2627;
865.2000;0.2491;2.2552;
865.5000;0.2491;2.2502;
865.8000;0.2491;2.2477;
866.1000;0.2507;2.2502;
866.4000;0.2466;2.2427;
866.7000;0.2385;2.2076;
867.0000;0.2507;2.2427;
867.3000;0.2483;2.2402;
867.6000;0.2491;2.2352;
867.9000;0.2499;2.2302;
868.2000;0.2556;2.2552;
868.5000;0.2491;2.2377;
868.8000;0.2499;2.2427;
869.1000;0.2483;2.2377;
869.4000;0.2507;2.2452;
869.7000;0.2507;2.2502;
870.0000;0.2605;2.2777;
870.3000;0.2491;2.2477;
870.6000;0.2499;2.2452;
870.9000;0.2507;2.2477;
871.2000;0.2499;2.2427;
871.5000;0.2507;2.2427;
871.8000;0.2499;2.2402;
872.1000;0.2532;2.2452;
872.4000;0.2483;2.2402;
872.7000;0.2491;2.2427;
873.0000;0.2499;2.2452;
873.3000;0.2515;2.2477;
873.6000;0.2483;2.2427;
873.9000;0.2507;2.2452;
874.2000;0.2491;2.2402;
874.5000;0.2491;2.2402;
874.8000;0.2580;2.2702;
875.1000;0.2458;2.2352;
875.4000;0.2483;2.2352;
875.7000;0.2491;2.2227;
876.0000;0.2458;2.2151;
876.3000;0.2499;2.2327;
876.6000;0.2483;2.2352;
876.9000;0.2556;2.2577;
877.2000;0.2499;2.2402;
877.5000;0.2475;2.2252;
877.8000;0.2377;2.2001;
878.1000;0.2515;2.2452;
878.4000;0.2466;2.2377;
878.7000;0.2475;2.2427;
879.0000;0.2491;2.2477;
879.3000;0.2523;2.2702;
879.6000;0.2491;2.2577;
879.9000;0.2466;2.2402;
880.2000;0.2483;2.2352;
880.5000;0.2475;2.2402;
880.8000;0.2483;2.2452;
881.1000;0.2475;2.2477;
881.4000;0.2483;2.2527;
881.7000;0.2580;2.2777;
882.0000;0.2523;2.2627;
882.3000;0.2499;2.2527;
882.6000;0.2475;2.2452;
882.9000;0.2515;2.2527;
883.2000;0.2499;2.2527;
883.5000;0.2434;2.2302;
883.8000;0.2499;2.2502;
884.1000;0.2483;2.2452;
884.4000;0.2475;2.2452;
884.7000;0.2499;2.2527;
885.0000;0.2466;2.2427;
885.3000;0.2491;2.2477;
885.6000;0.2385;2.2126;
885.9000;0.2515;2.2452;
886.2000;0.2540;2.2602;
886.5000;0.2483;2.2502;
886.8000;0.2589;2.2677;
887.1000;0.2491;2.2452;
887.4000;0.2491;2.2527;
887.7000;0.2483;2.2577;
888.0000;0.2523;2.2652;
888.3000;0.2532;2.2702;
888.6000;0.2491;2.2552;
888.9000;0.2515;2.2577;
889.2000;0.2483;2.2502;
889.5000;0.2515;2.2577;
889.8000;0.2491;2.2477;
890.1000;0.2458;2.2327;
890.4000;0.2507;2.2427;
890.7000;0.2466;2.2327;
891.0000;0.2475;2.2377;
891.3000;0.2499;2.2452;
891.6000;0.2352;2.2001;
891.9000;0.2507;2.2477;
892.2000;0.2483;2.2277;
892.5000;0.2507;2.2377;
892.8000;0.2491;2.2377;
893.1000;0.2515;2.2552;
893.4000;0.2507;2.2502;
893.7000;0.2491;2.2402;
894.0000;0.2475;2.2327;
894.3000;0.2483;2.2402;
894.6000;0.2458;2.2352;
894.9000;0.2491;2.2452;
895.2000;0.2491;2.2377;
895.5000;0.2491;2.2377;
895.8000;0.2475;2.2302;
896.1000;0.2466;2.2227;
896.4000;0.2450;2.2252;
896.7000;0.2491;2.2352;
897.0000;0.2466;2.2252;
897.3000;0.2507;2.2402;
897.6000;0.2499;2.2352;
897.9000;0.2491;2.2377;
898.2000;0.2564;2.2602;
898.5000;0.2556;2.2577;
898.8000;0.2475;2.2402;
899.1000;0.2499;2.2377;
899.4000;0.2491;2.2327;
899.7000;0.2515;2.2402;
900.0000;0.2572;2.2577;
900.3000;0.2499;2.2352;
900.6000;0.2466;2.2202;
900.9000;0.2507;2.2277;
901.2000;0.2475;2.2252;
901.5000;0.2507;2.2327;
901.8000;0.2491;2.2327;
902.1000;0.2483;2.2352;
902.4000;0.2434;2.2227;
902.7000;0.2475;2.2327;
903.0000;0.2475;2.2227;
903.3000;0.2515;2.2377;
903.6000;0.2499;2.2302;
903.9000;0.2483;2.2252;
904.2000;0.2499;2.2327;
904.5000;0.2491;2.2427;
904.8000;0.2540;2.2452;
905.1000;0.2442;2.2176;
905.4000;0.2499;2.2477;
905.7000;0.2442;2.2327;
906.0000;0.2523;2.2527;
906.3000;0.2532;2.2452;
906.6000;0.2499;2.2377;
906.9000;0.2515;2.2427;
907.2000;0.2426;2.2176;
907.5000;0.2507;2.2452;
907.8000;0.2491;2.2477;
908.1000;0.2450;2.2277;
908.4000;0.2507;2.2452;
908.7000;0.2442;2.2352;
909.0000;0.2540;2.2602;
909.3000;0.2499;2.2502;
909.6000;0.2532;2.2527;
909.9000;0.2499;2.2227;
910.2000;0.2466;2.2176;
910.5000;0.2450;2.2126;
910.8000;0.2507;2.2327;
911.1000;0.2499;2.2302;
911.4000;0.2499;2.2402;
911.7000;0.2507;2.2452;
912.0000;0.2491;2.2277;
912.3000;0.2515;2.2402;
912.6000;0.2491;2.2377;
912.9000;0.2491;2.2502;
913.2000;0.2499;2.2527;
913.5000;0.2499;2.2527;
913.8000;0.2426;2.2302;
914.1000;0.2483;2.2402;
914.4000;0.2466;2.2327;
914.7000;0.2450;2.2302;
915.0000;0.2523;2.2402;
915.3000;0.2434;2.2126;
915.6000;0.2540;2.2277;
915.9000;0.2499;2.2151;
916.2000;0.2491;2.2176;
916.5000;0.2483;2.2252;
916.8000;0.2466;2.2377;
917.1000;0.2475;2.2452;
917.4000;0.2515;2.2602;
917.7000;0.2532;2.2602;
918.0000;0.2483;2.2502;
918.3000;0.2499;2.2552;
918.6000;0.2491;2.2402;
918.9000;0.2507;2.2427;
919.2000;0.2466;2.2452;
919.5000;0.2491;2.2552;
919.8000;0.2475;2.2402;
920.1000;0.2499;2.2427;
920.4000;0.2483;2.2352;
920.7000;0.2499;2.2302;
921.0000;0.2491;2.2352;
921.3000;0.2426;2.2277;
921.6000;0.2466;2.2252;
921.9000;0.2515;2.2277;
922.2000;0.2580;2.2502;
922.5000;0.2532;2.2352;
922.8000;0.2499;2.2377;
923.1000;0.2483;2.2277;
923.4000;0.2507;2.2352;
923.7000;0.2523;2.2427;
924.0000;0.2507;2.2427;
924.3000;0.2458;2.2352;
924.6000;0.2344;2.2026;
924.9000;0.2515;2.2527;
925.2000;0.2475;2.2502;
925.5000;0.2532;2.2602;
925.8000;0.2458;2.2302;
926.1000;0.2507;2.2452;
926.4000;0.2475;2.2277;
926.7000;0.2418;2.2126;
927.0000;0.2507;2.2327;
927.3000;0.2491;2.2327;
927.6000;0.2483;2.2252;
927.9000;0.2491;2.2277;
928.2000;0.2491;2.2227;
928.5000;0.2507;2.2352;
928.8000;0.2475;2.2252;
929.1000;0.2475;2.2176;
929.4000;0.2450;2.2151;
929.7000;0.2507;2.2427;
930.0000;0.2491;2.2327;
930.3000;0.2507;2.2427;
930.6000;0.2532;2.2452;
930.9000;0.2483;2.2377;
931.2000;0.2442;2.2202;
931.5000;0.2499;2.2427;
931.8000;0.2532;2.2502;
932.1000;0.2515;2.2352;
932.4000;0.2499;2.2352;
932.7000;0.2442;2.2151;
933.0000;0.2499;2.2176;
933.3000;0.2475;2.2126;
933.6000;0.2458;2.2101;
933.9000;0.2499;2.2277;
934.2000;0.2572;2.2452;
934.5000;0.2434;2.2076;
934.8000;0.2458;2.2101;
935.1000;0.2475;2.2202;
935.4000;0.2450;2.2227;
935.7000;0.2475;2.2327;
936.0000;0.2466;2.2377;
936.3000;0.2499;2.2452;
936.6000;0.2483;2.2377;
936.9000;0.2507;2.2427;
937.2000;0.2475;2.2377;
937.5000;0.2499;2.2402;
937.8000;0.2540;2.2552;
938.1000;0.2483;2.2402;
938.4000;0.2466;2.2252;
938.7000;0.2499;2.2377;
939.0000;0.2491;2.2377;
939.3000;0.2434;2.2252;
939.6000;0.2458;2.2277;
939.9000;0.2540;2.2452;
940.2000;0.2475;2.2302;
940.5000;0.2491;2.2302;
940.8000;0.2491;2.2427;
941.1000;0.2499;2.2327;
941.4000;0.2499;2.2277;
941.7000;0.2507;2.2452;
942.0000;0.2491;2.2352;
942.3000;0.2491;2.2302;
942.6000;0.2466;2.2277;
942.9000;0.2532;2.2452;
943.2000;0.2483;2.2377;
943.5000;0.2442;2.2176;
943.8000;0.2458;2.2101;
944.1000;0.2564;2.2402;
944.4000;0.2491;2.2252;
944.7000;0.2499;2.2252;
945.0000;0.2491;2.2227;
945.3000;0.2523;2.2302;
945.6000;0.2458;2.2352;
945.9000;0.2483;2.2402;
946.2000;0.2499;2.2452;
946.5000;0.2499;2.2502;
946.8000;0.2629;2.2877;
947.1000;0.2450;2.2427;
947.4000;0.2483;2.2502;
947.7000;0.2483;2.2477;
948.0000;0.2483;2.2477;
948.3000;0.2491;2.2427;
948.6000;0.2507;2.2452;
948.9000;0.2426;2.2202;
949.2000;0.2499;2.2352;
949.5000;0.2523;2.2477;
949.8000;0.2409;2.2176;
950.1000;0.2532;2.2452;
950.4000;0.2475;2.2277;
950.7000;0.2475;2.2327;
951.0000;0.2491;2.2252;
951.3000;0.2507;2.2352;
951.6000;0.2491;2.2402;
951.9000;0.2507;2.2477;
952.2000;0.2523;2.2427;
952.5000;0.2499;2.2352;
952.8000;0.2352;2.1951;
953.1000;0.2491;2.2402;
953.4000;0.2499;2.2452;
953.7000;0.2499;2.2502;
954.0000;0.2507;2.2427;
954.3000;0.2507;2.2427;
954.6000;0.2523;2.2477;
954.9000;0.2426;2.2327;
955.2000;0.2483;2.2477;
955.5000;0.2491;2.2577;
955.8000;0.2532;2.2652;
956.1000;0.2507;2.2527;
956.4000;0.2572;2.2677;
956.7000;0.2458;2.2352;
957.0000;0.2523;2.2527;
957.3000;0.2499;2.2352;
957.6000;0.2491;2.2327;
957.9000;0.2483;2.2277;
958.2000;0.2499;2.2277;
958.5000;0.2507;2.2227;
958.8000;0.2491;2.2126;
959.1000;0.2507;2.2277;
959.4000;0.2629;2.2627;
959.7000;0.2483;2.2252;
960.0000;0.2507;2.2427;
960.3000;0.2491;2.2452;
960.6000;0.2499;2.2402;
960.9000;0.2499;2.2452;
961.2000;0.2491;2.2402;
961.5000;0.2491;2.2402;
961.8000;0.2499;2.2352;
962.1000;0.2491;2.2377;
962.4000;0.2483;2.2352;
962.7000;0.2491;2.2377;
963.0000;0.2491;2.2377;
963.3000;0.2523;2.2452;
963.6000;0.2507;2.2402;
963.9000;0.2499;2.2377;
964.2000;0.2499;2.2452;
964.5000;0.2515;2.2377;
964.8000;0.2483;2.2427;
965.1000;0.2483;2.2452;
965.4000;0.2491;2.2377;
965.7000;0.2418;2.2101;
966.0000;0.2507;2.2452;
966.3000;0.2409;2.2101;
966.6000;0.2507;2.2352;
966.9000;0.2515;2.2327;
967.2000;0.2499;2.2352;
967.5000;0.2523;2.2427;
967.8000;0.2515;2.2502;
968.1000;0.2515;2.2477;
968.4000;0.2556;2.2577;
968.7000;0.2499;2.2327;
969.0000;0.2450;2.2202;
969.3000;0.2515;2.2302;
969.6000;0.2491;2.2277;
969.9000;0.2458;2.2151;
970.2000;0.2499;2.2252;
970.5000;0.2507;2.2277;
970.8000;0.2507;2.2377;
971.1000;0.2507;2.2502;
971.4000;0.2499;2.2377;
971.7000;0.2491;2.2327;
972.0000;0.2475;2.2277;
972.3000;0.2507;2.2327;
972.6000;0.2426;2.2101;
972.9000;0.2466;2.2252;
973.2000;0.2491;2.2302;
973.5000;0.2515;2.2377;
973.8000;0.2312;2.1901;
974.1000;0.2556;2.2502;
974.4000;0.2499;2.2402;
974.7000;0.2491;2.2427;
975.0000;0.2450;2.2302;
975.3000;0.2507;2.2402;
975.6000;0.2483;2.2302;
975.9000;0.2515;2.2402;
976.2000;0.2515;2.2352;
976.5000;0.2475;2.2302;
976.8000;0.2515;2.2552;
977.1000;0.2483;2.2352;
977.4000;0.2466;2.2302;
977.7000;0.2483;2.2302;
978.0000;0.2499;2.2352;
978.3000;0.2515;2.2327;
978.6000;0.2499;2.2277;
978.9000;0.2499;2.2327;
979.2000;0.2507;2.2302;
979.5000;0.2491;2.2302;
979.8000;0.2483;2.2302;
980.1000;0.2483;2.2352;
980.4000;0.2523;2.2502;
980.7000;0.2475;2.2502;
981.0000;0.2499;2.2452;
981.3000;0.2499;2.2477;
981.6000;0.2475;2.2302;
981.9000;0.2483;2.2202;
982.2000;0.2629;2.2527;
982.5000;0.2532;2.2402;
982.8000;0.2580;2.2552;
983.1000;0.2515;2.2327;
983.4000;0.2483;2.2176;
983.7000;0.2475;2.2176;
984.0000;0.2580;2.2552;
984.3000;0.2499;2.2227;
984.6000;0.2491;2.2252;
984.9000;0.2483;2.2227;
985.2000;0.2507;2.2252;
985.5000;0.2475;2.2227;
985.8000;0.2523;2.2402;
986.1000;0.2515;2.2402;
986.4000;0.2507;2.2427;
986.7000;0.2491;2.2327;
987.0000;0.2515;2.2327;
987.3000;0.2507;2.2277;
987.6000;0.2515;2.2302;
987.9000;0.2507;2.2402;
988.2000;0.2564;2.2602;
988.5000;0.2499;2.2402;
988.8000;0.2491;2.2377;
989.1000;0.2499;2.2377;
989.4000;0.2491;2.2452;
989.7000;0.2499;2.2452;
990.0000;0.2475;2.2352;
990.3000;0.2466;2.2302;
990.6000;0.2491;2.2352;
990.9000;0.2409;2.2126;
991.2000;0.2491;2.2352;
991.5000;0.2466;2.2302;
991.8000;0.2507;2.2452;
992.1000;0.2442;2.2227;
992.4000;0.2491;2.2377;
992.7000;0.2507;2.2452;
993.0000;0.2450;2.2252;
993.3000;0.2499;2.2402;
993.6000;0.2499;2.2527;
993.9000;0.2491;2.2527;
994.2000;0.2499;2.2552;
994.5000;0.2491;2.2577;
994.8000;0.2418;2.2527;
995.1000;0.2491;2.2677;
995.4000;0.2491;2.2677;
995.7000;0.2515;2.2702;
996.0000;0.2483;2.2552;
996.3000;0.2499;2.2602;
996.6000;0.2499;2.2527;
996.9000;0.2515;2.2552;
997.2000;0.2523;2.2577;
997.5000;0.2523;2.2502;
997.8000;0.2548;2.2552;
998.1000;0.2515;2.2452;
998.4000;0.2507;2.2402;
998.7000;0.2507;2.2527;
999.0000;0.2442;2.2352;
999.3000;0.2507;2.2627;
999.6000;0.2523;2.2577;
999.9000;0.2491;2.2477;
1000.2000;0.2507;2.2502;
1000.5000;0.2523;2.2577;
1000.8000;0.2475;2.2327;
1001.1000;0.2499;2.2402;
1001.4000;0.2499;2.2377;
1001.7000;0.2499;2.2427;
1002.0000;0.2450;2.2302;
1002.3000;0.2540;2.2552;
1002.6000;0.2556;2.2627;
1002.9000;0.2499;2.2527;
1003.2000;0.2475;2.2477;
1003.5000;0.2589;2.2877;
1003.8000;0.2475;2.2602;
1004.1000;0.2499;2.2652;
1004.4000;0.2597;2.2902;
1004.7000;0.2393;2.2377;
1005.0000;0.2491;2.2577;
1005.3000;0.2532;2.2677;
1005.6000;0.2475;2.2427;
1005.9000;0.2483;2.2477;
1006.2000;0.2466;2.2427;
1006.5000;0.2532;2.2627;
1006.8000;0.2475;2.2427;
1007.1000;0.2475;2.2477;
1007.4000;0.2499;2.2602;
1007.7000;0.2507;2.2602;
1008.0000;0.2491;2.2652;
1008.3000;0.2499;2.2702;
1008.6000;0.2499;2.2677;
1008.9000;0.2466;2.2602;
1009.2000;0.2532;2.2727;
1009.5000;0.2499;2.2627;
1009.8000;0.2499;2.2602;
1010.1000;0.2507;2.2527;
1010.4000;0.2515;2.2477;
1010.7000;0.2483;2.2477;
1011.0000;0.2401;2.2302;
1011.3000;0.2523;2.2627;
1011.6000;0.2499;2.2602;
1011.9000;0.2466;2.2452;
1012.2000;0.2466;2.2452;
1012.5000;0.2491;2.2477;
1012.8000;0.2523;2.2602;
1013.1000;0.2515;2.2652;
1013.4000;0.2507;2.2552;
1013.7000;0.2491;2.2577;
1014.0000;0.2532;2.2702;
1014.3000;0.2491;2.2552;
1014.6000;0.2507;2.2602;
1014.9000;0.2483;2.2527;
1015.2000;0.2499;2.2652;
1015.5000;0.2507;2.2627;
1015.8000;0.2507;2.2602;
1016.1000;0.2499;2.2552;
1016.4000;0.2491;2.2452;
1016.7000;0.2507;2.2502;
1017.0000;0.2564;2.2777;
1017.3000;0.2434;2.2402;
1017.6000;0.2515;2.2527;
1017.9000;0.2401;2.2176;
1018.2000;0.2499;2.2552;
1018.5000;0.2507;2.2577;
1018.8000;0.2548;2.2652;
1019.1000;0.2507;2.2502;
1019.4000;0.2491;2.2377;
1019.7000;0.2499;2.2377;
1020.0000;0.2548;2.2527;
1020.3000;0.2466;2.2352;
1020.6000;0.2532;2.2477;
1020.9000;0.2491;2.2477;
1021.2000;0.2475;2.2477;
1021.5000;0.2499;2.2452;
1021.8000;0.2483;2.2302;
1022.1000;0.2475;2.2327;
1022.4000;0.2483;2.2427;
1022.7000;0.2491;2.2427;
1023.0000;0.2491;2.2402;
1023.3000;0.2499;2.2527;
1023.6000;0.2499;2.2427;
1023.9000;0.2491;2.2427;
1024.2000;0.2515;2.2577;
1024.5000;0.2515;2.2502;
1024.8000;0.2507;2.2552;
1025.1000;0.2507;2.2652;
1025.4000;0.2499;2.2577;
1025.7000;0.2426;2.2302;
1026.0000;0.2491;2.2402;
1026.3000;0.2507;2.2527;
1026.6000;0.2450;2.2427;
1026.9000;0.2434;2.2377;
1027.2000;0.2491;2.2477;
1027.5000;0.2466;2.2377;
1027.8000;0.2523;2.2527;
1028.1000;0.2475;2.2427;
1028.4000;0.2450;2.2377;
1028.7000;0.2548;2.2652;
1029.0000;0.2523;2.2627;
1029.3000;0.2426;2.2352;
1029.6000;0.2426;2.2327;
1029.9000;0.2450;2.2502;
1030.2000;0.2523;2.2652;
1030.5000;0.2458;2.2452;
1030.8000;0.2475;2.2477;
1031.1000;0.2499;2.2502;
1031.4000;0.2499;2.2577;
1031.7000;0.2507;2.2602;
1032.0000;0.2499;2.2552;
1032.3000;0.2458;2.2402;
1032.6000;0.2491;2.2452;
1032.9000;0.2515;2.2552;
1033.2000;0.2507;2.2477;
1033.5000;0.2483;2.2352;
1033.8000;0.2491;2.2402;
1034.1000;0.2483;2.2402;
1034.4000;0.2507;2.2527;
1034.7000;0.2507;2.2552;
1035.0000;0.2507;2.2427;
1035.3000;0.2491;2.2527;
1035.6000;0.2499;2.2602;
1035.9000;0.2499;2.2627;
1036.2000;0.2532;2.2602;
1036.5000;0.2466;2.2352;
1036.8000;0.2483;2.2377;
1037.1000;0.2499;2.2352;
1037.4000;0.2483;2.2302;
1037.7000;0.2499;2.2352;
1038.0000;0.2540;2.2552;
1038.3000;0.2466;2.2252;
1038.6000;0.2515;2.2502;
1038.9000;0.2499;2.2402;
1039.2000;0.2515;2.2477;
1039.5000;0.2499;2.2477;
1039.8000;0.2523;2.2502;
1040.1000;0.2491;2.2477;
1040.4000;0.2499;2.2527;
1040.7000;0.2507;2.2527;
1041.0000;0.2556;2.2602;
1041.3000;0.2548;2.2552;
1041.6000;0.2483;2.2352;
1041.9000;0.2491;2.2402;
1042.2000;0.2491;2.2402;
1042.5000;0.2450;2.2252;
1042.8000;0.2483;2.2302;
1043.1000;0.2491;2.2352;
1043.4000;0.2442;2.2227;
1043.7000;0.2507;2.2352;
1044.0000;0.2523;2.2402;
1044.3000;0.2466;2.2277;
1044.6000;0.2556;2.2502;
1044.9000;0.2450;2.2227;
1045.2000;0.2515;2.2452;
1045.5000;0.2483;2.2427;
1045.8000;0.2507;2.2527;
1046.1000;0.2491;2.2577;
1046.4000;0.2458;2.2502;
1046.7000;0.2564;2.2652;
1047.0000;0.2507;2.2502;
1047.3000;0.2515;2.2527;
1047.6000;0.2499;2.2552;
1047.9000;0.2507;2.2602;
1048.2000;0.2515;2.2652;
1048.5000;0.2515;2.2602;
1048.8000;0.2491;2.2502;
1049.1000;0.2515;2.2627;
1049.4000;0.2507;2.2552;
1049.7000;0.2499;2.2477;
1050.0000;0.2491;2.2452;
1050.3000;0.2491;2.2477;
1050.6000;0.2466;2.2352;
1050.9000;0.2499;2.2427;
1051.2000;0.2532;2.2477;
1051.5000;0.2466;2.2252;
1051.8000;0.2491;2.2302;
1052.1000;0.2532;2.2477;
1052.4000;0.2483;2.2327;
1052.7000;0.2491;2.2327;
1053.0000;0.2466;2.2252;
1053.3000;0.2499;2.2352;
1053.6000;0.2483;2.2302;
1053.9000;0.2499;2.2402;
1054.2000;0.2491;2.2402;
1054.5000;0.2499;2.2352;
1054.8000;0.2483;2.2302;
1055.1000;0.2491;2.2402;
1055.4000;0.2491;2.2352;
1055.7000;0.2507;2.2377;
1056.0000;0.2499;2.2302;
1056.3000;0.2483;2.2202;
1056.6000;0.2491;2.2252;
1056.9000;0.2475;2.2227;
1057.2000;0.2499;2.2277;
1057.5000;0.2466;2.2151;
1057.8000;0.2548;2.2427;
1058.1000;0.2523;2.2427;
1058.4000;0.2556;2.2477;
1058.7000;0.2450;2.2176;
1059.0000;0.2499;2.2327;
1059.3000;0.2580;2.2577;
1059.6000;0.2507;2.2352;
1059.9000;0.2499;2.2327;
1060.2000;0.2499;2.2477;
1060.5000;0.2385;2.2101;
1060.8000;0.2499;2.2402;
1061.1000;0.2499;2.2452;
1061.4000;0.2483;2.2402;
1061.7000;0.2475;2.2402;
1062.0000;0.2458;2.2402;
1062.3000;0.2515;2.2552;
1062.6000;0.2458;2.2352;
1062.9000;0.2491;2.2327;
1063.2000;0.2499;2.2527;
1063.5000;0.2483;2.2502;
1063.8000;0.2515;2.2552;
1064.1000;0.2507;2.2552;
1064.4000;0.2532;2.2602;
1064.7000;0.2523;2.2627;
1065.0000;0.2499;2.2502;
1065.3000;0.2523;2.2602;
1065.6000;0.2466;2.2552;
1065.9000;0.2491;2.2552;
1066.2000;0.2499;2.2602;
1066.5000;0.2483;2.2527;
1066.8000;0.2475;2.2527;
1067.1000;0.2491;2.2627;
1067.4000;0.2515;2.2627;
1067.7000;0.2499;2.2677;
1068.0000;0.2491;2.2677;
1068.3000;0.2491;2.2727;
1068.6000;0.2572;2.2902;
1068.9000;0.2499;2.2627;
1069.2000;0.2483;2.2677;
1069.5000;0.2466;2.2602;
1069.8000;0.2515;2.2802;
1070.1000;0.2499;2.2577;
1070.4000;0.2466;2.2502;
1070.7000;0.2352;2.2151;
1071.0000;0.2491;2.2577;
1071.3000;0.2491;2.2552;
1071.6000;0.2483;2.2452;
1071.9000;0.2483;2.2427;
1072.2000;0.2409;2.2227;
1072.5000;0.2515;2.2452;
1072.8000;0.2499;2.2352;
1073.1000;0.2507;2.2427;
1073.4000;0.2556;2.2577;
1073.7000;0.2499;2.2377;
1074.0000;0.2523;2.2402;
1074.3000;0.2426;2.2176;
1074.6000;0.2483;2.2302;
1074.9000;0.2458;2.2252;
1075.2000;0.2475;2.2277;
1075.5000;0.2507;2.2502;
1075.8000;0.2475;2.2477;
1076.1000;0.2491;2.2377;
1076.4000;0.2466;2.2352;
1076.7000;0.2491;2.2477;
1077.0000;0.2499;2.2577;
1077.3000;0.2507;2.2702;
1077.6000;0.2499;2.2527;
1077.9000;0.2483;2.2427;
1078.2000;0.2499;2.2352;
1078.5000;0.2523;2.2302;
1078.8000;0.2507;2.2202;
1079.1000;0.2491;2.2227;
1079.4000;0.2475;2.2126;
1079.7000;0.2532;2.2277;
1080.0000;0.2499;2.2302;
1080.3000;0.2491;2.2302;
1080.6000;0.2515;2.2402;
1080.9000;0.2491;2.2302;
1081.2000;0.2483;2.2227;
1081.5000;0.2483;2.2202;
1081.8000;0.2499;2.2151;
1082.1000;0.2491;2.2151;
1082.4000;0.2475;2.2151;
1082.7000;0.2499;2.2202;
1083.0000;0.2499;2.2252;
1083.3000;0.2540;2.2427;
1083.6000;0.2491;2.2277;
1083.9000;0.2491;2.2302;
1084.2000;0.2499;2.2302;
1084.5000;0.2475;2.2227;
1084.8000;0.2466;2.2227;
1085.1000;0.2499;2.2352;
1085.4000;0.2377;2.2026;
1085.7000;0.2491;2.2352;
1086.0000;0.2475;2.2302;
1086.3000;0.2426;2.2176;
1086.6000;0.2507;2.2402;
1086.9000;0.2401;2.2176;
1087.2000;0.2491;2.2377;
1087.5000;0.2499;2.2352;
1087.8000;0.2548;2.2577;
1088.1000;0.2491;2.2377;
1088.4000;0.2475;2.2252;
1088.7000;0.2507;2.2377;
1089.0000;0.2483;2.2302;
1089.3000;0.2458;2.2252;
1089.6000;0.2499;2.2302;
1089.9000;0.2515;2.2252;
1090.2000;0.2491;2.2327;
1090.5000;0.2483;2.2227;
1090.8000;0.2499;2.2151;
1091.1000;0.2475;2.2151;
1091.4000;0.2475;2.2151;
1091.7000;0.2491;2.2327;
1092.0000;0.2515;2.2377;
1092.3000;0.2491;2.2502;
1092.6000;0.2523;2.2602;
1092.9000;0.2507;2.2552;
1093.2000;0.2491;2.2452;
1093.5000;0.2491;2.2377;
1093.8000;0.2515;2.2427;
1094.1000;0.2499;2.2452;
1094.4000;0.2483;2.2452;
1094.7000;0.2466;2.2352;
1095.0000;0.2499;2.2427;
1095.3000;0.2483;2.2327;
1095.6000;0.2499;2.2302;
1095.9000;0.2475;2.2227;
1096.2000;0.2491;2.2202;
1096.5000;0.2491;2.2202;
1096.8000;0.2491;2.2151;
1097.1000;0.2499;2.2227;
1097.4000;0.2466;2.2377;
1097.7000;0.2507;2.2552;
1098.0000;0.2523;2.2427;
1098.3000;0.2385;2.2101;
1098.6000;0.2499;2.2477;
1098.9000;0.2540;2.2652;
1099.2000;0.2507;2.2502;
1099.5000;0.2499;2.2527;
1099.8000;0.2483;2.2402;
1100.1000;0.2499;2.2427;
1100.4000;0.2499;2.2452;
1100.7000;0.2499;2.2502;
1101.0000;0.2483;2.2502;
1101.3000;0.2507;2.2552;
1101.6000;0.2515;2.2652;
1101.9000;0.2475;2.2427;
1102.2000;0.2499;2.2477;
1102.5000;0.2499;2.2452;
1102.8000;0.2540;2.2427;
1103.1000;0.2393;2.2051;
1103.4000;0.2466;2.2202;
1103.7000;0.2532;2.2452;
1104.0000;0.2418;2.2126;
1104.3000;0.2491;2.2302;
1104.6000;0.2499;2.2202;
1104.9000;0.2458;2.2001;
1105.2000;0.2515;2.2126;
1105.5000;0.2507;2.2176;
1105.8000;0.2523;2.2227;
1106.1000;0.2499;2.2151;
1106.4000;0.2507;2.2252;
1106.7000;0.2458;2.2126;
1107.0000;0.2499;2.2277;
1107.3000;0.2483;2.2202;
1107.6000;0.2507;2.2252;
1107.9000;0.2483;2.2252;
1108.2000;0.2491;2.2377;
1108.5000;0.2499;2.2327;
1108.8000;0.2483;2.2377;
1109.1000;0.2507;2.2552;
1109.4000;0.2515;2.2502;
1109.7000;0.2434;2.2277;
1110.0000;0.2491;2.2402;
1110.3000;0.2491;2.2377;
1110.6000;0.2450;2.2277;
1110.9000;0.2540;2.2552;
1111.2000;0.2483;2.2477;
1111.5000;0.2385;2.2227;
1111.8000;0.2515;2.2602;
1112.1000;0.2637;2.2977;
1112.4000;0.2483;2.2502;
1112.7000;0.2507;2.2527;
1113.0000;0.2499;2.2452;
1113.3000;0.2499;2.2452;
1113.6000;0.2507;2.2402;
1113.9000;0.2515;2.2377;
1114.2000;0.2507;2.2277;
1114.5000;0.2499;2.2227;
1114.8000;0.2475;2.2176;
1115.1000;0.2499;2.2327;
1115.4000;0.2483;2.2352;
1115.7000;0.2483;2.2402;
1116.0000;0.2499;2.2402;
1116.3000;0.2499;2.2427;
1116.6000;0.2483;2.2352;
1116.9000;0.2499;2.2377;
1117.2000;0.2499;2.2327;
1117.5000;0.2483;2.2277;
1117.8000;0.2491;2.2252;
1118.1000;0.2499;2.2277;
1118.4000;0.2597;2.2502;
1118.7000;0.2483;2.2126;
1119.0000;0.2475;2.2126;
1119.3000;0.2483;2.2252;
1119.6000;0.2491;2.2302;
1119.9000;0.2507;2.2402;
1120.2000;0.2475;2.2277;
1120.5000;0.2491;2.2302;
1120.8000;0.2507;2.2327;
1121.1000;0.2499;2.2252;
1121.4000;0.2597;2.2502;
1121.7000;0.2491;2.2202;
1122.0000;0.2483;2.2302;
1122.3000;0.2597;2.2552;
1122.6000;0.2499;2.2227;
1122.9000;0.2475;2.2126;
1123.2000;0.2507;2.2227;
1123.5000;0.2491;2.2176;
1123.8000;0.2515;2.2227;
1124.1000;0.2548;2.2302;
1124.4000;0.2491;2.2227;
1124.7000;0.2515;2.2302;
1125.0000;0.2491;2.2227;
1125.3000;0.2483;2.2227;
1125.6000;0.2483;2.2202;
1125.9000;0.2491;2.2352;
1126.2000;0.2434;2.2076;
1126.5000;0.2540;2.2252;
1126.8000;0.2540;2.2277;
1127.1000;0.2515;2.2252;
1127.4000;0.2532;2.2227;
1127.7000;0.2491;2.2076;
1128.0000;0.2450;2.2051;
1128.3000;0.2532;2.2327;
1128.6000;0.2507;2.2277;
1128.9000;0.2491;2.2202;
1129.2000;0.2515;2.2227;
1129.5000;0.2523;2.2302;
1129.8000;0.2515;2.2277;
1130.1000;0.2499;2.2277;
1130.4000;0.2475;2.2252;
1130.7000;0.2507;2.2227;
1131.0000;0.2507;2.2126;
1131.3000;0.2540;2.2277;
1131.6000;0.2491;2.2252;
1131.9000;0.2564;2.2427;
1132.2000;0.2499;2.2327;
1132.5000;0.2507;2.2427;
1132.8000;0.2483;2.2327;
1133.1000;0.2499;2.2352;
1133.4000;0.2507;2.2277;
1133.7000;0.2515;2.2402;
1134.0000;0.2475;2.2277;
1134.3000;0.2499;2.2302;
1134.6000;0.2475;2.2227;
1134.9000;0.2499;2.2277;
1135.2000;0.2515;2.2302;
1135.5000;0.2499;2.2227;
1135.8000;0.2434;2.2051;
1136.1000;0.2458;2.2126;
1136.4000;0.2442;2.2051;
1136.7000;0.2507;2.2277;
1137.0000;0.2572;2.2377;
1137.3000;0.2507;2.2126;
1137.6000;0.2450;2.1901;
1137.9000;0.2515;2.2126;
1138.2000;0.2515;2.2151;
1138.5000;0.2515;2.2227;
1138.8000;0.2507;2.2277;
1139.1000;0.2532;2.2352;
1139.4000;0.2499;2.2277;
1139.7000;0.2507;2.2327;
1140.0000;0.2491;2.2327;
1140.3000;0.2515;2.2302;
1140.6000;0.2499;2.2252;
1140.9000;0.2483;2.2101;
1141.2000;0.2507;2.2151;
1141.5000;0.2491;2.2126;
1141.8000;0.2515;2.2227;
1142.1000;0.2499;2.2202;
1142.4000;0.2483;2.2176;
1142.7000;0.2499;2.2227;
1143.0000;0.2499;2.2151;
1143.3000;0.2450;2.1976;
1143.6000;0.2499;2.2026;
1143.9000;0.2491;2.2051;
1144.2000;0.2458;2.2001;
1144.5000;0.2523;2.2051;
1144.8000;0.2491;2.2051;
1145.1000;0.2499;2.2101;
1145.4000;0.2458;2.1926;
1145.7000;0.2499;2.2076;
1146.0000;0.2483;2.2151;
1146.3000;0.2491;2.2151;
1146.6000;0.2466;2.2051;
1146.9000;0.2515;2.2176;
1147.2000;0.2393;2.1901;
1147.5000;0.2499;2.2076;
1147.8000;0.2491;2.2051;
1148.1000;0.2409;2.1951;
1148.4000;0.2499;2.2277;
1148.7000;0.2491;2.2277;
1149.0000;0.2483;2.2327;
1149.3000;0.2507;2.2402;
1149.6000;0.2491;2.2377;
1149.9000;0.2532;2.2502;
1150.2000;0.2572;2.2577;
1150.5000;0.2475;2.2277;
1150.8000;0.2499;2.2352;
1151.1000;0.2466;2.2252;
1151.4000;0.2458;2.2277;
1151.7000;0.2426;2.2151;
1152.0000;0.2548;2.2527;
1152.3000;0.2515;2.2477;
1152.6000;0.2523;2.2452;
1152.9000;0.2491;2.2352;
1153.2000;0.2491;2.2327;
1153.5000;0.2523;2.2377;
1153.8000;0.2515;2.2377;
1154.1000;0.2515;2.2452;
1154.4000;0.2369;2.2026;
1154.7000;0.2499;2.2352;
1155.0000;0.2507;2.2402;
1155.3000;0.2491;2.2352;
1155.6000;0.2491;2.2252;
1155.9000;0.2589;2.2527;
1156.2000;0.2507;2.2402;
1156.5000;0.2418;2.2252;
1156.8000;0.2475;2.2427;
1157.1000;0.2458;2.2352;
1157.4000;0.2556;2.2552;
1157.7000;0.2483;2.2352;
1158.0000;0.2418;2.2227;
1158.3000;0.2483;2.2452;
1158.6000;0.2418;2.2227;
1158.9000;0.2548;2.2502;
1159.2000;0.2475;2.2277;
1159.5000;0.2564;2.2602;
1159.8000;0.2515;2.2452;
1160.1000;0.2532;2.2552;
1160.4000;0.2483;2.2402;
1160.7000;0.2483;2.2452;
1161.0000;0.2483;2.2477;
1161.3000;0.2507;2.2502;
1161.6000;0.2499;2.2452;
1161.9000;0.2499;2.2427;
1162.2000;0.2483;2.2352;
1162.5000;0.2523;2.2427;
1162.8000;0.2499;2.2327;
1163.1000;0.2507;2.2327;
1163.4000;0.2483;2.2302;
1163.7000;0.2507;2.2352;
1164.0000;0.2523;2.2352;
1164.3000;0.2466;2.2227;
1164.6000;0.2483;2.2377;
1164.9000;0.2499;2.2427;
1165.2000;0.2507;2.2352;
1165.5000;0.2483;2.2277;
1165.8000;0.2523;2.2402;
1166.1000;0.2491;2.2327;
1166.4000;0.2515;2.2477;
1166.7000;0.2499;2.2452;
1167.0000;0.2466;2.2402;
1167.3000;0.2515;2.2502;
1167.6000;0.2507;2.2452;
1167.9000;0.2483;2.2352;
1168.2000;0.2491;2.2377;
1168.5000;0.2507;2.2502;
1168.8000;0.2540;2.2577;
1169.1000;0.2532;2.2577;
1169.4000;0.2515;2.2527;
1169.7000;0.2483;2.2452;
1170.0000;0.2491;2.2402;
1170.3000;0.2491;2.2477;
1170.6000;0.2523;2.2427;
1170.9000;0.2483;2.2277;
1171.2000;0.2466;2.2227;
1171.5000;0.2483;2.2352;
1171.8000;0.2507;2.2352;
1172.1000;0.2507;2.2352;
1172.4000;0.2515;2.2327;
1172.7000;0.2507;2.2377;
1173.0000;0.2548;2.2477;
1173.3000;0.2499;2.2176;
1173.6000;0.2361;2.1851;
1173.9000;0.2483;2.2202;
1174.2000;0.2491;2.2252;
1174.5000;0.2458;2.2227;
1174.8000;0.2499;2.2302;
1175.1000;0.2466;2.2302;
1175.4000;0.2556;2.2552;
1175.7000;0.2507;2.2427;
1176.0000;0.2499;2.2327;
1176.3000;0.2483;2.2277;
1176.6000;0.2507;2.2302;
1176.9000;0.2597;2.2577;
1177.2000;0.2499;2.2402;
1177.5000;0.2515;2.2352;
1177.8000;0.2499;2.2402;
1178.1000;0.2507;2.2427;
1178.4000;0.2515;2.2477;
1178.7000;0.2646;2.2877;
1179.0000;0.2483;2.2477;
1179.3000;0.2532;2.2652;
1179.6000;0.2499;2.2677;
1179.9000;0.2442;2.2627;
1180.2000;0.2491;2.2727;
1180.5000;0.2499;2.2777;
1180.8000;0.2499;2.2727;
1181.1000;0.2491;2.2502;
1181.4000;0.2466;2.2377;
1181.7000;0.2507;2.2427;
1182.0000;0.2515;2.2452;
1182.3000;0.2466;2.2277;
1182.6000;0.2499;2.2377;
1182.9000;0.2434;2.2151;
1183.2000;0.2540;2.2527;
1183.5000;0.2507;2.2427;
1183.8000;0.2499;2.2477;
1184.1000;0.2499;2.2502;
1184.4000;0.2507;2.2452;
1184.7000;0.2507;2.2427;
1185.0000;0.2475;2.2252;
1185.3000;0.2507;2.2202;
1185.6000;0.2499;2.2227;
1185.9000;0.2466;2.2252;
1186.2000;0.2483;2.2327;
1186.5000;0.2475;2.2302;
1186.8000;0.2491;2.2352;
1187.1000;0.2507;2.2402;
1187.4000;0.2491;2.2402;
1187.7000;0.2523;2.2527;
1188.0000;0.2507;2.2552;
1188.3000;0.2483;2.2502;
1188.6000;0.2475;2.2502;
1188.9000;0.2491;2.2477;
1189.2000;0.2507;2.2602;
1189.5000;0.2491;2.2602;
1189.8000;0.2532;2.2627;
1190.1000;0.2507;2.2577;
1190.4000;0.2466;2.2452;
1190.7000;0.2442;2.2327;
1191.0000;0.2499;2.2502;
1191.3000;0.2507;2.2652;
1191.6000;0.2507;2.2677;
1191.9000;0.2491;2.2652;
1192.2000;0.2499;2.2577;
1192.5000;0.2491;2.2602;
1192.8000;0.2491;2.2577;
1193.1000;0.2532;2.2677;
1193.4000;0.2483;2.2477;
1193.7000;0.2458;2.2327;
1194.0000;0.2466;2.2302;
1194.3000;0.2491;2.2352;
1194.6000;0.2564;2.2627;
1194.9000;0.2466;2.2352;
1195.2000;0.2548;2.2527;
1195.5000;0.2515;2.2427;
1195.8000;0.2483;2.2352;
1196.1000;0.2507;2.2377;
1196.4000;0.2475;2.2302;
1196.7000;0.2499;2.2377;
1197.0000;0.2426;2.2151;
1197.3000;0.2491;2.2377;
1197.6000;0.2491;2.2427;
1197.9000;0.2507;2.2502;
1198.2000;0.2515;2.2477;
1198.5000;0.2507;2.2552;
1198.8000;0.2499;2.2602;
1199.1000;0.2499;2.2527;
1199.4000;0.2515;2.2552;
1199.7000;0.2475;2.2452;
1200.0000;0.2589;2.2802;
1200.3000;0.2483;2.2577;
1200.6000;0.2475;2.2527;
1200.9000;0.2499;2.2502;
1201.2000;0.2475;2.2402;
1201.5000;0.2491;2.2302;
1201.8000;0.2491;2.2402;
1202.1000;0.2515;2.2477;
1202.4000;0.2499;2.2327;
1202.7000;0.2491;2.2302;
1203.0000;0.2540;2.2352;
1203.3000;0.2483;2.2252;
1203.6000;0.2515;2.2327;
1203.9000;0.2507;2.2327;
1204.2000;0.2499;2.2252;
1204.5000;0.2442;2.2176;
1204.8000;0.2491;2.2202;
1205.1000;0.2507;2.2302;
1205.4000;0.2483;2.2227;
1205.7000;0.2483;2.2302;
1206.0000;0.2491;2.2352;
1206.3000;0.2499;2.2277;
1206.6000;0.2475;2.2352;
1206.9000;0.2450;2.2252;
1207.2000;0.2499;2.2377;
1207.5000;0.2523;2.2427;
1207.8000;0.2491;2.2327;
1208.1000;0.2377;2.2001;
1208.4000;0.2523;2.2377;
1208.7000;0.2409;2.2051;
1209.0000;0.2499;2.2277;
1209.3000;0.2507;2.2252;
1209.6000;0.2499;2.2151;
1209.9000;0.2499;2.2151;
1210.2000;0.2499;2.2202;
1210.5000;0.2491;2.2151;
1210.8000;0.2499;2.2227;
1211.1000;0.2515;2.2176;
1211.4000;0.2491;2.2126;
1211.7000;0.2499;2.2176;
1212.0000;0.2523;2.2252;
1212.3000;0.2621;2.2477;
1212.6000;0.2507;2.2176;
1212.9000;0.2450;2.2051;
1213.2000;0.2491;2.2176;
1213.5000;0.2491;2.2302;
1213.8000;0.2499;2.2352;
1214.1000;0.2475;2.2277;
1214.4000;0.2491;2.2327;
1214.7000;0.2499;2.2302;
1215.0000;0.2532;2.2352;
1215.3000;0.2491;2.2277;
1215.6000;0.2499;2.2352;
1215.9000;0.2499;2.2277;
1216.2000;0.2483;2.2176;
1216.5000;0.2548;2.2402;
1216.8000;0.2483;2.2151;
1217.1000;0.2540;2.2277;
1217.4000;0.2532;2.2302;
1217.7000;0.2434;2.2176;
1218.0000;0.2523;2.2327;
1218.3000;0.2507;2.2377;
1218.6000;0.2515;2.2452;
1218.9000;0.2499;2.2377;
1219.2000;0.2499;2.2377;
1219.5000;0.2499;2.2402;
1219.8000;0.2515;2.2452;
1220.1000;0.2548;2.2552;
1220.4000;0.2499;2.2402;
1220.7000;0.2523;2.2427;
1221.0000;0.2548;2.2527;
1221.3000;0.2507;2.2252;
1221.6000;0.2475;2.2252;
1221.9000;0.2491;2.2327;
1222.2000;0.2483;2.2377;
1222.5000;0.2523;2.2502;
1222.8000;0.2491;2.2527;
1223.1000;0.2475;2.2552;
1223.4000;0.2499;2.2577;
1223.7000;0.2507;2.2552;
1224.0000;0.2418;2.2252;
1224.3000;0.2605;2.2702;
1224.6000;0.2499;2.2402;
1224.9000;0.2483;2.2352;
1225.2000;0.2515;2.2352;
1225.5000;0.2483;2.2252;
1225.8000;0.2491;2.2176;
1226.1000;0.2507;2.2227;
1226.4000;0.2466;2.2202;
1226.7000;0.2483;2.2176;
1227.0000;0.2458;2.2126;
1227.3000;0.2491;2.2227;
1227.6000;0.2597;2.2477;
1227.9000;0.2499;2.2176;
1228.2000;0.2507;2.2151;
1228.5000;0.2532;2.2352;
1228.8000;0.2523;2.2327;
1229.1000;0.2409;2.1976;
1229.4000;0.2540;2.2402;
1229.7000;0.2466;2.2202;
1230.0000;0.2556;2.2477;
1230.3000;0.2507;2.2202;
1230.6000;0.2654;2.2477;
1230.9000;0.2499;2.1976;
1231.2000;0.2507;2.1951;
1231.5000;0.2515;2.2051;
1231.8000;0.2499;2.2051;
1232.1000;0.2491;2.2126;
1232.4000;0.2491;2.2227;
1232.7000;0.2523;2.2126;
1233.0000;0.2515;2.2101;
1233.3000;0.2483;2.2101;
1233.6000;0.2499;2.2227;
1233.9000;0.2434;2.1976;
1234.2000;0.2491;2.2126;
1234.5000;0.2483;2.2176;
1234.8000;0.2548;2.2302;
1235.1000;0.2499;2.2277;
1235.4000;0.2515;2.2277;
1235.7000;0.2491;2.2126;
1236.0000;0.2491;2.2126;
1236.3000;0.2507;2.2126;
1236.6000;0.2491;2.2051;
1236.9000;0.2605;2.2352;
1237.2000;0.2499;2.2026;
1237.5000;0.2540;2.2026;
1237.8000;0.2499;2.1951;
1238.1000;0.2515;2.2026;
1238.4000;0.2523;2.2101;
1238.7000;0.2515;2.2101;
1239.0000;0.2507;2.2176;
1239.3000;0.2434;2.2051;
1239.6000;0.2548;2.2402;
1239.9000;0.2507;2.2277;
1240.2000;0.2507;2.2352;
1240.5000;0.2483;2.2227;
1240.8000;0.2507;2.2327;
1241.1000;0.2515;2.2327;
1241.4000;0.2491;2.2227;
1241.7000;0.2491;2.2227;
1242.0000;0.2491;2.2176;
1242.3000;0.2523;2.2277;
1242.6000;0.2499;2.2252;
1242.9000;0.2393;2.1976;
1243.2000;0.2491;2.2101;
1243.5000;0.2442;2.1976;
1243.8000;0.2507;2.2051;
1244.1000;0.2499;2.2051;
1244.4000;0.2499;2.2076;
1244.7000;0.2499;2.2001;
1245.0000;0.2491;2.2051;
1245.3000;0.2499;2.2176;
1245.6000;0.2499;2.2202;
1245.9000;0.2491;2.2302;
1246.2000;0.2532;2.2427;
1246.5000;0.2515;2.2402;
1246.8000;0.2515;2.2302;
1247.1000;0.2483;2.2227;
1247.4000;0.2589;2.2552;
1247.7000;0.2483;2.2327;
1248.0000;0.2483;2.2427;
1248.3000;0.2507;2.2502;
1248.6000;0.2515;2.2577;
1248.9000;0.2499;2.2552;
1249.2000;0.2499;2.2577;
1249.5000;0.2540;2.2677;
1249.8000;0.2483;2.2477;
1250.1000;0.2491;2.2377;
1250.4000;0.2491;2.2327;
1250.7000;0.2483;2.2327;
1251.0000;0.2458;2.2277;
1251.3000;0.2499;2.2402;
1251.6000;0.2499;2.2402;
1251.9000;0.2499;2.2427;
1252.2000;0.2523;2.2427;
1252.5000;0.2572;2.2577;
1252.8000;0.2523;2.2252;
1253.1000;0.2418;2.2001;
1253.4000;0.2491;2.2202;
1253.7000;0.2475;2.2126;
1254.0000;0.2532;2.2277;
1254.3000;0.2483;2.2227;
1254.6000;0.2499;2.2327;
1254.9000;0.2483;2.2227;
1255.2000;0.2515;2.2252;
1255.5000;0.2483;2.2252;
1255.8000;0.2523;2.2427;
1256.1000;0.2491;2.2502;
1256.4000;0.2491;2.2502;
1256.7000;0.2483;2.2427;
1257.0000;0.2523;2.2552;
1257.3000;0.2491;2.2302;
1257.6000;0.2499;2.2252;
1257.9000;0.2532;2.2352;
1258.2000;0.2507;2.2327;
1258.5000;0.2491;2.2176;
1258.8000;0.2515;2.2302;
1259.1000;0.2499;2.2302;
1259.4000;0.2507;2.2377;
1259.7000;0.2523;2.2402;
1260.0000;0.2499;2.2277;
1260.3000;0.2507;2.2227;
1260.6000;0.2499;2.2277;
1260.9000;0.2507;2.2352;
1261.2000;0.2491;2.2452;
1261.5000;0.2475;2.2352;
1261.8000;0.2523;2.2477;
1262.1000;0.2475;2.2427;
1262.4000;0.2426;2.2252;
1262.7000;0.2483;2.2452;
1263.0000;0.2532;2.2652;
1263.3000;0.2523;2.2602;
1263.6000;0.2491;2.2452;
1263.9000;0.2499;2.2502;
1264.2000;0.2523;2.2552;
1264.5000;0.2466;2.2377;
1264.8000;0.2491;2.2452;
1265.1000;0.2507;2.2377;
1265.4000;0.2475;2.2302;
1265.7000;0.2475;2.2327;
1266.0000;0.2589;2.2702;
1266.3000;0.2483;2.2302;
1266.6000;0.2548;2.2452;
1266.9000;0.2499;2.2277;
1267.2000;0.2434;2.2101;
1267.5000;0.2572;2.2452;
1267.8000;0.2507;2.2252;
1268.1000;0.2532;2.2377;
1268.4000;0.2475;2.2227;
1268.7000;0.2507;2.2151;
1269.0000;0.2564;2.2327;
1269.3000;0.2475;2.2126;
1269.6000;0.2507;2.2076;
1269.9000;0.2507;2.2051;
1270.2000;0.2499;2.2101;
1270.5000;0.2377;2.1801;
1270.8000;0.2483;2.2176;
1271.1000;0.2499;2.2227;
1271.4000;0.2515;2.2302;
1271.7000;0.2491;2.2151;
1272.0000;0.2507;2.2202;
1272.3000;0.2556;2.2352;
1272.6000;0.2507;2.2302;
1272.9000;0.2532;2.2327;
1273.2000;0.2523;2.2252;
1273.5000;0.2515;2.2227;
1273.8000;0.2507;2.2277;
1274.1000;0.2426;2.2076;
1274.4000;0.2491;2.2252;
1274.7000;0.2523;2.2377;
1275.0000;0.2556;2.2502;
1275.3000;0.2499;2.2402;
1275.6000;0.2605;2.2602;
1275.9000;0.2523;2.2377;
1276.2000;0.2507;2.2327;
1276.5000;0.2597;2.2677;
1276.8000;0.2515;2.2527;
1277.1000;0.2475;2.2402;
1277.4000;0.2540;2.2477;
1277.7000;0.2499;2.2452;
1278.0000;0.2507;2.2452;
1278.3000;0.2507;2.2402;
1278.6000;0.2434;2.2176;
1278.9000;0.2540;2.2527;
1279.2000;0.2515;2.2377;
1279.5000;0.2483;2.2227;
1279.8000;0.2515;2.2327;
1280.1000;0.2515;2.2252;
1280.4000;0.2491;2.2202;
1280.7000;0.2507;2.2202;
1281.0000;0.2515;2.2227;
1281.3000;0.2491;2.2277;
1281.6000;0.2483;2.2252;
1281.9000;0.2491;2.2277;
1282.2000;0.2515;2.2402;
1282.5000;0.2515;2.2402;
1282.8000;0.2466;2.2302;
1283.1000;0.2491;2.2352;
1283.4000;0.2499;2.2377;
1283.7000;0.2491;2.2302;
1284.0000;0.2515;2.2352;
1284.3000;0.2434;2.2202;
1284.6000;0.2515;2.2352;
1284.9000;0.2499;2.2252;
1285.2000;0.2515;2.2277;
1285.5000;0.2523;2.2277;
1285.8000;0.2540;2.2377;
1286.1000;0.2483;2.2151;
1286.4000;0.2507;2.2277;
1286.7000;0.2409;2.2026;
1287.0000;0.2523;2.2352;
1287.3000;0.2532;2.2352;
1287.6000;0.2499;2.2352;
1287.9000;0.2515;2.2327;
1288.2000;0.2540;2.2452;
1288.5000;0.2507;2.2402;
1288.8000;0.2507;2.2427;
1289.1000;0.2491;2.2377;
1289.4000;0.2507;2.2477;
1289.7000;0.2597;2.2652;
1290.0000;0.2523;2.2377;
1290.3000;0.2499;2.2302;
1290.6000;0.2621;2.2677;
1290.9000;0.2515;2.2352;
1291.2000;0.2475;2.2176;
1291.5000;0.2483;2.2227;
1291.8000;0.2458;2.2151;
1292.1000;0.2507;2.2277;
1292.4000;0.2532;2.2277;
1292.7000;0.2458;2.2076;
1293.0000;0.2491;2.2126;
1293.3000;0.2475;2.2001;
1293.6000;0.2515;2.2126;
1293.9000;0.2499;2.2051;
1294.2000;0.2466;2.1951;
1294.5000;0.2458;2.2001;
1294.8000;0.2491;2.2001;
1295.1000;0.2507;2.2001;
1295.4000;0.2499;2.2001;
1295.7000;0.2499;2.2051;
1296.0000;0.2491;2.2051;
1296.3000;0.2442;2.2001;
1296.6000;0.2556;2.2352;
1296.9000;0.2475;2.2101;
1297.2000;0.2515;2.2126;
1297.5000;0.2507;2.2151;
1297.8000;0.2491;2.2076;
1298.1000;0.2507;2.2126;
1298.4000;0.2491;2.2126;
1298.7000;0.2499;2.2026;
1299.0000;0.2523;2.2051;
1299.3000;0.2507;2.2026;
1299.6000;0.2515;2.2026;
1299.9000;0.2507;2.1951;
1300.2000;0.2507;2.2001;
1300.5000;0.2499;2.2051;
1300.8000;0.2548;2.2202;
1301.1000;0.2499;2.2202;
1301.4000;0.2491;2.2101;
1301.7000;0.2499;2.2076;
1302.0000;0.2418;2.1976;
1302.3000;0.2475;2.2202;
1302.6000;0.2499;2.2277;
1302.9000;0.2523;2.2377;
1303.2000;0.2499;2.2327;
1303.5000;0.2507;2.2277;
1303.8000;0.2499;2.2176;
1304.1000;0.2523;2.2151;
1304.4000;0.2507;2.2101;
1304.7000;0.2515;2.2202;
1305.0000;0.2523;2.2126;
1305.3000;0.2499;2.2076;
1305.6000;0.2532;2.2202;
1305.9000;0.2499;2.2026;
1306.2000;0.2540;2.2202;
1306.5000;0.2466;2.1926;
1306.8000;0.2499;2.2051;
1307.1000;0.2499;2.2026;
1307.4000;0.2483;2.2051;
1307.7000;0.2499;2.2126;
1308.0000;0.2523;2.2176;
1308.3000;0.2491;2.2051;
1308.6000;0.2507;2.2051;
1308.9000;0.2483;2.1976;
1309.2000;0.2499;2.2076;
1309.5000;0.2491;2.2026;
1309.8000;0.2491;2.2076;
1310.1000;0.2507;2.2076;
1310.4000;0.2475;2.2001;
1310.7000;0.2507;2.2126;
1311.0000;0.2466;2.1951;
1311.3000;0.2507;2.2151;
1311.6000;0.2499;2.2076;
1311.9000;0.2515;2.2076;
1312.2000;0.2491;2.2001;
1312.5000;0.2483;2.1951;
1312.8000;0.2532;2.2076;
1313.1000;0.2475;2.1951;
1313.4000;0.2499;2.1976;
1313.7000;0.2499;2.2001;
1314.0000;0.2336;2.1601;
1314.3000;0.2499;2.2051;
1314.6000;0.2507;2.2051;
1314.9000;0.2499;2.2026;
1315.2000;0.2434;2.1776;
1315.5000;0.2499;2.2001;
1315.8000;0.2491;2.1976;
1316.1000;0.2491;2.1976;
1316.4000;0.2491;2.1926;
1316.7000;0.2507;2.2001;
1317.0000;0.2499;2.1926;
1317.3000;0.2491;2.1951;
1317.6000;0.2491;2.1901;
1317.9000;0.2523;2.2026;
1318.2000;0.2466;2.1876;
1318.5000;0.2507;2.1876;
1318.8000;0.2532;2.1976;
1319.1000;0.2499;2.1876;
1319.4000;0.2475;2.1776;
1319.7000;0.2499;2.1801;
1320.0000;0.2515;2.1926;
1320.3000;0.2491;2.1876;
1320.6000;0.2418;2.1651;
1320.9000;0.2515;2.1901;
1321.2000;0.2507;2.1976;
1321.5000;0.2483;2.1901;
1321.8000;0.2466;2.1926;
1322.1000;0.2491;2.2001;
1322.4000;0.2483;2.2026;
1322.7000;0.2507;2.2051;
1323.0000;0.2483;2.1951;
1323.3000;0.2515;2.2051;
1323.6000;0.2409;2.1876;
1323.9000;0.2515;2.2076;
1324.2000;0.2523;2.2126;
1324.5000;0.2491;2.2026;
1324.8000;0.2523;2.2126;
1325.1000;0.2507;2.2001;
1325.4000;0.2523;2.2101;
1325.7000;0.2499;2.2026;
1326.0000;0.2507;2.2051;
1326.3000;0.2507;2.2051;
1326.6000;0.2499;2.2126;
1326.9000;0.2507;2.2076;
1327.2000;0.2507;2.2076;
1327.5000;0.2515;2.2151;
1327.8000;0.2507;2.2101;
1328.1000;0.2499;2.2101;
1328.4000;0.2475;2.2051;
1328.7000;0.2515;2.2202;
1329.0000;0.2491;2.2227;
1329.3000;0.2532;2.2252;
1329.6000;0.2523;2.2377;
1329.9000;0.2491;2.2252;
1330.2000;0.2483;2.2227;
1330.5000;0.2523;2.2277;
1330.8000;0.2507;2.2151;
1331.1000;0.2523;2.2101;
1331.4000;0.2515;2.2076;
1331.7000;0.2613;2.2377;
1332.0000;0.2523;2.2151;
1332.3000;0.2548;2.2252;
1332.6000;0.2523;2.2227;
1332.9000;0.2491;2.2126;
1333.2000;0.2483;2.2176;
1333.5000;0.2483;2.2151;
1333.8000;0.2515;2.2227;
1334.1000;0.2499;2.2151;
1334.4000;0.2499;2.2151;
1334.7000;0.2475;2.2176;
1335.0000;0.2507;2.2327;
1335.3000;0.2507;2.2377;
1335.6000;0.2532;2.2327;
1335.9000;0.2499;2.2101;
1336.2000;0.2491;2.2051;
1336.5000;0.2499;2.2101;
1336.8000;0.2515;2.2101;
1337.1000;0.2434;2.1901;
1337.4000;0.2523;2.2151;
1337.7000;0.2483;2.2051;
1338.0000;0.2515;2.2101;
1338.3000;0.2515;2.2076;
1338.6000;0.2483;2.2051;
1338.9000;0.2507;2.2076;
1339.2000;0.2499;2.2176;
1339.5000;0.2515;2.2227;
1339.8000;0.2523;2.2252;
1340.1000;0.2499;2.2176;
1340.4000;0.2442;2.2051;
1340.7000;0.2637;2.2627;
1341.0000;0.2499;2.2202;
1341.3000;0.2499;2.2126;
1341.6000;0.2499;2.2101;
1341.9000;0.2499;2.2076;
1342.2000;0.2507;2.2051;
1342.5000;0.2499;2.2076;
1342.8000;0.2491;2.2126;
1343.1000;0.2548;2.2277;
1343.4000;0.2515;2.2126;
1343.7000;0.2377;2.1776;
1344.0000;0.2540;2.2176;
1344.3000;0.2491;2.2076;
1344.6000;0.2523;2.2202;
1344.9000;0.2564;2.2277;
1345.2000;0.2458;2.2051;
1345.5000;0.2548;2.2277;
1345.8000;0.2491;2.2202;
1346.1000;0.2393;2.1951;
1346.4000;0.2613;2.2552;
1346.7000;0.2499;2.2227;
1347.0000;0.2466;2.2151;
1347.3000;0.2475;2.2101;
1347.6000;0.2605;2.2427;
1347.9000;0.2483;2.2151;
1348.2000;0.2515;2.2151;
1348.5000;0.2483;2.2051;
1348.8000;0.2507;2.2126;
1349.1000;0.2483;2.2151;
1349.4000;0.2515;2.2202;
1349.7000;0.2515;2.2202;
1350.0000;0.2499;2.2101;
1350.3000;0.2556;2.2202;
1350.6000;0.2483;2.2076;
1350.9000;0.2515;2.2202;
1351.2000;0.2499;2.2101;
1351.5000;0.2491;2.2051;
1351.8000;0.2466;2.2001;
1352.1000;0.2499;2.2101;
1352.4000;0.2466;2.2026;
1352.7000;0.2466;2.2026;
1353.0000;0.2466;2.2051;
1353.3000;0.2507;2.2227;
1353.6000;0.2523;2.2227;
1353.9000;0.2523;2.2302;
1354.2000;0.2515;2.2327;
1354.5000;0.2507;2.2377;
1354.8000;0.2515;2.2402;
1355.1000;0.2491;2.2327;
1355.4000;0.2499;2.2352;
1355.7000;0.2426;2.2076;
1356.0000;0.2491;2.2202;
1356.3000;0.2499;2.2151;
1356.6000;0.2491;2.2227;
1356.9000;0.2499;2.2352;
1357.2000;0.2483;2.2126;
1357.5000;0.2483;2.2126;
1357.8000;0.2483;2.2202;
1358.1000;0.2491;2.2126;
1358.4000;0.2483;2.2101;
1358.7000;0.2507;2.2126;
1359.0000;0.2548;2.2302;
1359.3000;0.2491;2.2126;
1359.6000;0.2499;2.2101;
1359.9000;0.2507;2.2151;
1360.2000;0.2515;2.2176;
1360.5000;0.2499;2.2126;
1360.8000;0.2580;2.2352;
1361.1000;0.2507;2.2202;
1361.4000;0.2466;2.2051;
1361.7000;0.2491;2.2076;
1362.0000;0.2491;2.2076;
1362.3000;0.2466;2.2001;
1362.6000;0.2499;2.2051;
1362.9000;0.2475;2.2001;
1363.2000;0.2499;2.2126;
1363.5000;0.2475;2.2151;
1363.8000;0.2589;2.2502;
1364.1000;0.2491;2.2227;
1364.4000;0.2483;2.2277;
1364.7000;0.2483;2.2352;
1365.0000;0.2507;2.2327;
1365.3000;0.2523;2.2327;
1365.6000;0.2466;2.2352;
1365.9000;0.2515;2.2352;
1366.2000;0.2475;2.2202;
1366.5000;0.2629;2.2552;
1366.8000;0.2483;2.2202;
1367.1000;0.2540;2.2402;
1367.4000;0.2515;2.2352;
1367.7000;0.2491;2.2277;
1368.0000;0.2475;2.2252;
1368.3000;0.2491;2.2202;
1368.6000;0.2597;2.2377;
1368.9000;0.2532;2.2277;
1369.2000;0.2483;2.2101;
1369.5000;0.2613;2.2527;
1369.8000;0.2483;2.2227;
1370.1000;0.2475;2.2202;
1370.4000;0.2499;2.2352;
1370.7000;0.2475;2.2252;
1371.0000;0.2507;2.2302;
1371.3000;0.2499;2.2202;
1371.6000;0.2507;2.2327;
1371.9000;0.2328;2.1851;
1372.2000;0.2507;2.2377;
1372.5000;0.2475;2.2277;
1372.8000;0.2491;2.2427;
1373.1000;0.2491;2.2427;
1373.4000;0.2507;2.2452;
1373.7000;0.2483;2.2377;
1374.0000;0.2491;2.2352;
1374.3000;0.2499;2.2377;
1374.6000;0.2515;2.2452;
1374.9000;0.2507;2.2452;
1375.2000;0.2483;2.2302;
1375.5000;0.2507;2.2377;
1375.8000;0.2491;2.2427;
1376.1000;0.2499;2.2452;
1376.4000;0.2466;2.2302;
1376.7000;0.2507;2.2352;
1377.0000;0.2458;2.2227;
1377.3000;0.2507;2.2377;
1377.6000;0.2499;2.2352;
1377.9000;0.2491;2.2352;
1378.2000;0.2475;2.2352;
1378.5000;0.2507;2.2502;
1378.8000;0.2475;2.2502;
1379.1000;0.2491;2.2502;
1379.4000;0.2589;2.2777;
1379.7000;0.2499;2.2552;
1380.0000;0.2499;2.2452;
1380.3000;0.2499;2.2402;
1380.6000;0.2507;2.2427;
1380.9000;0.2483;2.2402;
1381.2000;0.2572;2.2602;
1381.5000;0.2483;2.2402;
1381.8000;0.2629;2.2852;
1382.1000;0.2483;2.2377;
1382.4000;0.2507;2.2452;
1382.7000;0.2548;2.2502;
1383.0000;0.2507;2.2452;
1383.3000;0.2532;2.2477;
1383.6000;0.2450;2.2227;
1383.9000;0.2475;2.2176;
1384.2000;0.2564;2.2477;
1384.5000;0.2450;2.2202;
1384.8000;0.2409;2.2101;
1385.1000;0.2540;2.2427;
1385.4000;0.2523;2.2377;
1385.7000;0.2491;2.2477;
1386.0000;0.2507;2.2477;
1386.3000;0.2523;2.2577;
1386.6000;0.2377;2.2227;
1386.9000;0.2532;2.2602;
1387.2000;0.2483;2.2552;
1387.5000;0.2515;2.2527;
1387.8000;0.2458;2.2277;
1388.1000;0.2515;2.2402;
1388.4000;0.2475;2.2202;
1388.7000;0.2483;2.2302;
1389.0000;0.2540;2.2452;
1389.3000;0.2475;2.2176;
1389.6000;0.2515;2.2252;
1389.9000;0.2483;2.2176;
1390.2000;0.2491;2.2176;
1390.5000;0.2556;2.2352;
1390.8000;0.2483;2.2202;
1391.1000;0.2499;2.2302;
1391.4000;0.2483;2.2252;
1391.7000;0.2442;2.2227;
1392.0000;0.2491;2.2377;
1392.3000;0.2499;2.2377;
1392.6000;0.2515;2.2477;
1392.9000;0.2450;2.2327;
1393.2000;0.2507;2.2502;
1393.5000;0.2426;2.2277;
1393.8000;0.2450;2.2402;
1394.1000;0.2507;2.2577;
1394.4000;0.2483;2.2477;
1394.7000;0.2499;2.2402;
1395.0000;0.2491;2.2377;
1395.3000;0.2523;2.2502;
1395.6000;0.2523;2.2427;
1395.9000;0.2507;2.2277;
1396.2000;0.2491;2.2302;
1396.5000;0.2523;2.2327;
1396.8000;0.2499;2.2202;
1397.1000;0.2475;2.2126;
1397.4000;0.2483;2.2126;
1397.7000;0.2491;2.2126;
1398.0000;0.2532;2.2151;
1398.3000;0.2491;2.2051;
1398.6000;0.2450;2.1951;
1398.9000;0.2491;2.2051;
1399.2000;0.2548;2.2252;
1399.5000;0.2507;2.2202;
1399.8000;0.2491;2.2227;
