time/ms;Fluo/V;P700 deltaI/I x10³;
-199.8000;0.2548;2.1901;
-199.5000;0.2523;2.1776;
-199.2000;0.2532;2.1801;
-198.9000;0.2523;2.1751;
-198.6000;0.2564;2.1951;
-198.3000;0.2548;2.1901;
-198.0000;0.2564;2.1876;
-197.7000;0.2434;2.1451;
-197.4000;0.2507;2.1826;
-197.1000;0.2540;2.1951;
-196.8000;0.2523;2.1826;
-196.5000;0.2532;2.1876;
-196.2000;0.2515;2.1801;
-195.9000;0.2540;2.1776;
-195.6000;0.2605;2.1901;
-195.3000;0.2532;2.1801;
-195.0000;0.2629;2.2001;
-194.7000;0.2540;2.1801;
-194.4000;0.2532;2.1726;
-194.1000;0.2556;2.1826;
-193.8000;0.2532;2.1776;
-193.5000;0.2540;2.1851;
-193.2000;0.2540;2.1876;
-192.9000;0.2532;2.1901;
-192.6000;0.2523;2.1876;
-192.3000;0.2556;2.1901;
-192.0000;0.2548;2.1876;
-191.7000;0.2523;2.1851;
-191.4000;0.2540;2.1876;
-191.1000;0.2532;2.1876;
-190.8000;0.2548;2.1876;
-190.5000;0.2491;2.1676;
-190.2000;0.2523;2.1726;
-189.9000;0.2540;2.1676;
-189.6000;0.2548;2.1801;
-189.3000;0.2556;2.1901;
-189.0000;0.2548;2.1926;
-188.7000;0.2515;2.1951;
-188.4000;0.2532;2.1951;
-188.1000;0.2548;2.1901;
-187.8000;0.2515;2.1801;
-187.5000;0.2507;2.1801;
-187.2000;0.2540;2.2001;
-186.9000;0.2532;2.2051;
-186.6000;0.2515;2.1976;
-186.3000;0.2556;2.1926;
-186.0000;0.2548;2.1926;
-185.7000;0.2548;2.1951;
-185.4000;0.2523;2.1876;
-185.1000;0.2515;2.1876;
-184.8000;0.2532;2.1926;
-184.5000;0.2621;2.2101;
-184.2000;0.2540;2.1876;
-183.9000;0.2507;2.1801;
-183.6000;0.2540;2.1726;
-183.3000;0.2564;2.1801;
-183.0000;0.2548;2.1701;
-182.7000;0.2532;2.1826;
-182.4000;0.2564;2.1901;
-182.1000;0.2564;2.1876;
-181.8000;0.2532;2.1876;
-181.5000;0.2499;2.1826;
-181.2000;0.2532;2.1876;
-180.9000;0.2532;2.1926;
-180.6000;0.2580;2.2001;
-180.3000;0.2556;2.2051;
-180.0000;0.2532;2.1976;
-179.7000;0.2548;2.2001;
-179.4000;0.2540;2.1976;
-179.1000;0.2515;2.1901;
-178.8000;0.2532;2.1901;
-178.5000;0.2523;2.1951;
-178.2000;0.2540;2.2076;
-177.9000;0.2540;2.1976;
-177.6000;0.2540;2.1951;
-177.3000;0.2548;2.2001;
-177.0000;0.2548;2.2051;
-176.7000;0.2515;2.1926;
-176.4000;0.2564;2.1951;
-176.1000;0.2532;2.1876;
-175.8000;0.2597;2.1976;
-175.5000;0.2515;2.1751;
-175.2000;0.2556;2.1851;
-174.9000;0.2523;2.1751;
-174.6000;0.2458;2.1726;
-174.3000;0.2540;2.1901;
-174.0000;0.2532;2.1901;
-173.7000;0.2475;2.1676;
-173.4000;0.2532;2.1851;
-173.1000;0.2523;2.1801;
-172.8000;0.2409;2.1426;
-172.5000;0.2507;2.1701;
-172.2000;0.2532;2.1726;
-171.9000;0.2540;2.1726;
-171.6000;0.2475;2.1651;
-171.3000;0.2523;2.1876;
-171.0000;0.2540;2.1951;
-170.7000;0.2540;2.1926;
-170.4000;0.2515;2.1851;
-170.1000;0.2515;2.1876;
-169.8000;0.2548;2.1951;
-169.5000;0.2540;2.1951;
-169.2000;0.2580;2.1976;
-168.9000;0.2540;2.1976;
-168.6000;0.2548;2.2051;
-168.3000;0.2556;2.1976;
-168.0000;0.2662;2.2277;
-167.7000;0.2523;2.1826;
-167.4000;0.2532;2.1851;
-167.1000;0.2564;2.1901;
-166.8000;0.2540;2.1876;
-166.5000;0.2540;2.1776;
-166.2000;0.2548;2.1851;
-165.9000;0.2532;2.1851;
-165.6000;0.2532;2.1851;
-165.3000;0.2532;2.1851;
-165.0000;0.2523;2.1776;
-164.7000;0.2540;2.1851;
-164.4000;0.2532;2.1851;
-164.1000;0.2532;2.1901;
-163.8000;0.2532;2.1901;
-163.5000;0.2540;2.1951;
-163.2000;0.2532;2.1951;
-162.9000;0.2580;2.2126;
-162.6000;0.2548;2.1901;
-162.3000;0.2540;2.1951;
-162.0000;0.2532;2.1951;
-161.7000;0.2556;2.1976;
-161.4000;0.2523;2.1976;
-161.1000;0.2540;2.1976;
-160.8000;0.2523;2.1901;
-160.5000;0.2597;2.2076;
-160.2000;0.2532;2.1876;
-159.9000;0.2540;2.1851;
-159.6000;0.2523;2.1826;
-159.3000;0.2532;2.1826;
-159.0000;0.2532;2.1801;
-158.7000;0.2507;2.1751;
-158.4000;0.2523;2.1876;
-158.1000;0.2621;2.2176;
-157.8000;0.2540;2.1951;
-157.5000;0.2564;2.2001;
-157.2000;0.2532;2.1876;
-156.9000;0.2466;2.1826;
-156.6000;0.2515;2.1951;
-156.3000;0.2556;2.1976;
-156.0000;0.2532;2.1876;
-155.7000;0.2515;2.1826;
-155.4000;0.2483;2.1726;
-155.1000;0.2369;2.1476;
-154.8000;0.2499;2.1826;
-154.5000;0.2515;2.1876;
-154.2000;0.2523;2.2051;
-153.9000;0.2540;2.2026;
-153.6000;0.2507;2.1951;
-153.3000;0.2548;2.2051;
-153.0000;0.2523;2.2051;
-152.7000;0.2532;2.2076;
-152.4000;0.2540;2.2076;
-152.1000;0.2556;2.2051;
-151.8000;0.2466;2.1801;
-151.5000;0.2523;2.1901;
-151.2000;0.2515;2.1851;
-150.9000;0.2564;2.1976;
-150.6000;0.2540;2.1876;
-150.3000;0.2540;2.1826;
-150.0000;0.2515;2.1826;
-149.7000;0.2532;2.1876;
-149.4000;0.2532;2.1926;
-149.1000;0.2515;2.1876;
-148.8000;0.2491;2.1826;
-148.5000;0.2572;2.1976;
-148.2000;0.2515;2.1851;
-147.9000;0.2548;2.1951;
-147.6000;0.2523;2.1876;
-147.3000;0.2532;2.1851;
-147.0000;0.2515;2.1776;
-146.7000;0.2540;2.1826;
-146.4000;0.2548;2.1901;
-146.1000;0.2572;2.1926;
-145.8000;0.2556;2.1851;
-145.5000;0.2523;2.1751;
-145.2000;0.2532;2.1801;
-144.9000;0.2499;2.1776;
-144.6000;0.2515;2.1776;
-144.3000;0.2580;2.1926;
-144.0000;0.2540;2.1851;
-143.7000;0.2532;2.1851;
-143.4000;0.2499;2.1801;
-143.1000;0.2515;2.1901;
-142.8000;0.2540;2.1851;
-142.5000;0.2515;2.1751;
-142.2000;0.2499;2.1701;
-141.9000;0.2540;2.1876;
-141.6000;0.2564;2.2051;
-141.3000;0.2434;2.1726;
-141.0000;0.2515;2.1926;
-140.7000;0.2515;2.1976;
-140.4000;0.2548;2.1926;
-140.1000;0.2540;2.1976;
-139.8000;0.2523;2.1901;
-139.5000;0.2540;2.1951;
-139.2000;0.2646;2.2327;
-138.9000;0.2556;2.2001;
-138.6000;0.2548;2.1901;
-138.3000;0.2532;2.1851;
-138.0000;0.2515;2.1851;
-137.7000;0.2605;2.2051;
-137.4000;0.2532;2.1826;
-137.1000;0.2523;2.1751;
-136.8000;0.2523;2.1851;
-136.5000;0.2532;2.1826;
-136.2000;0.2523;2.1726;
-135.9000;0.2532;2.1751;
-135.6000;0.2515;2.1676;
-135.3000;0.2507;2.1626;
-135.0000;0.2515;2.1626;
-134.7000;0.2426;2.1275;
-134.4000;0.2621;2.1851;
-134.1000;0.2548;2.1651;
-133.8000;0.2540;2.1751;
-133.5000;0.2540;2.1826;
-133.2000;0.2523;2.1776;
-132.9000;0.2434;2.1476;
-132.6000;0.2532;2.1751;
-132.3000;0.2475;2.1701;
-132.0000;0.2458;2.1576;
-131.7000;0.2532;2.1801;
-131.4000;0.2507;2.1726;
-131.1000;0.2589;2.2001;
-130.8000;0.2605;2.2126;
-130.5000;0.2540;2.1976;
-130.2000;0.2507;2.1876;
-129.9000;0.2515;2.1876;
-129.6000;0.2523;2.1876;
-129.3000;0.2532;2.1826;
-129.0000;0.2515;2.1726;
-128.7000;0.2589;2.1901;
-128.4000;0.2523;2.1701;
-128.1000;0.2532;2.1801;
-127.8000;0.2540;2.1776;
-127.5000;0.2532;2.1851;
-127.2000;0.2515;2.1851;
-126.9000;0.2572;2.1951;
-126.6000;0.2507;2.1851;
-126.3000;0.2523;2.1826;
-126.0000;0.2564;2.1826;
-125.7000;0.2434;2.1401;
-125.4000;0.2523;2.1626;
-125.1000;0.2523;2.1701;
-124.8000;0.2580;2.1926;
-124.5000;0.2507;2.1726;
-124.2000;0.2523;2.1751;
-123.9000;0.2548;2.1776;
-123.6000;0.2515;2.1751;
-123.3000;0.2548;2.1876;
-123.0000;0.2556;2.1801;
-122.7000;0.2507;2.1701;
-122.4000;0.2556;2.1851;
-122.1000;0.2556;2.1926;
-121.8000;0.2475;2.1701;
-121.5000;0.2442;2.1651;
-121.2000;0.2523;2.1926;
-120.9000;0.2580;2.1976;
-120.6000;0.2532;2.1901;
-120.3000;0.2523;2.1851;
-120.0000;0.2515;2.1826;
-119.7000;0.2548;2.2026;
-119.4000;0.2621;2.2151;
-119.1000;0.2540;2.1926;
-118.8000;0.2548;2.1926;
-118.5000;0.2532;2.1826;
-118.2000;0.2523;2.1776;
-117.9000;0.2483;2.1601;
-117.6000;0.2556;2.1776;
-117.3000;0.2515;2.1726;
-117.0000;0.2540;2.1751;
-116.7000;0.2532;2.1751;
-116.4000;0.2483;2.1626;
-116.1000;0.2532;2.1726;
-115.8000;0.2548;2.1801;
-115.5000;0.2532;2.1776;
-115.2000;0.2532;2.1851;
-114.9000;0.2523;2.1876;
-114.6000;0.2532;2.1801;
-114.3000;0.2532;2.1901;
-114.0000;0.2515;2.1801;
-113.7000;0.2540;2.1876;
-113.4000;0.2515;2.1826;
-113.1000;0.2548;2.1801;
-112.8000;0.2491;2.1726;
-112.5000;0.2523;2.1876;
-112.2000;0.2540;2.1876;
-111.9000;0.2540;2.1876;
-111.6000;0.2515;2.1726;
-111.3000;0.2515;2.1701;
-111.0000;0.2564;2.1826;
-110.7000;0.2556;2.1801;
-110.4000;0.2532;2.1751;
-110.1000;0.2540;2.1651;
-109.8000;0.2401;2.1376;
-109.5000;0.2515;2.1776;
-109.2000;0.2499;2.1851;
-108.9000;0.2532;2.1976;
-108.6000;0.2532;2.2001;
-108.3000;0.2532;2.2026;
-108.0000;0.2662;2.2402;
-107.7000;0.2515;2.1926;
-107.4000;0.2556;2.1976;
-107.1000;0.2532;2.1876;
-106.8000;0.2499;2.1851;
-106.5000;0.2532;2.1876;
-106.2000;0.2556;2.1876;
-105.9000;0.2515;2.1651;
-105.6000;0.2532;2.1601;
-105.3000;0.2532;2.1701;
-105.0000;0.2523;2.1676;
-104.7000;0.2532;2.1626;
-104.4000;0.2580;2.1751;
-104.1000;0.2540;2.1626;
-103.8000;0.2491;2.1576;
-103.5000;0.2523;2.1701;
-103.2000;0.2572;2.1826;
-102.9000;0.2483;2.1526;
-102.6000;0.2572;2.1951;
-102.3000;0.2548;2.1951;
-102.0000;0.2507;2.1801;
-101.7000;0.2483;2.1676;
-101.4000;0.2540;2.1876;
-101.1000;0.2434;2.1601;
-100.8000;0.2532;2.1876;
-100.5000;0.2523;2.1876;
-100.2000;0.2580;2.2026;
-99.9000;0.2507;2.1901;
-99.6000;0.2499;2.1876;
-99.3000;0.2532;2.1951;
-99.0000;0.2564;2.2026;
-98.7000;0.2589;2.2151;
-98.4000;0.2507;2.2001;
-98.1000;0.2532;2.2026;
-97.8000;0.2605;2.2252;
-97.5000;0.2564;2.2176;
-97.2000;0.2597;2.2151;
-96.9000;0.2540;2.2001;
-96.6000;0.2564;2.2126;
-96.3000;0.2540;2.2001;
-96.0000;0.2540;2.1901;
-95.7000;0.2515;2.1776;
-95.4000;0.2483;2.1701;
-95.1000;0.2515;2.1801;
-94.8000;0.2548;2.1926;
-94.5000;0.2523;2.1876;
-94.2000;0.2507;2.1901;
-93.9000;0.2532;2.2026;
-93.6000;0.2532;2.1951;
-93.3000;0.2515;2.1901;
-93.0000;0.2548;2.1976;
-92.7000;0.2548;2.1876;
-92.4000;0.2532;2.1826;
-92.1000;0.2540;2.1801;
-91.8000;0.2523;2.1801;
-91.5000;0.2548;2.1901;
-91.2000;0.2499;2.1801;
-90.9000;0.2548;2.1951;
-90.6000;0.2515;2.1801;
-90.3000;0.2548;2.1751;
-90.0000;0.2540;2.1776;
-89.7000;0.2523;2.1726;
-89.4000;0.2556;2.1826;
-89.1000;0.2491;2.1726;
-88.8000;0.2442;2.1626;
-88.5000;0.2499;2.1876;
-88.2000;0.2450;2.1776;
-87.9000;0.2491;2.1851;
-87.6000;0.2556;2.2026;
-87.3000;0.2605;2.2126;
-87.0000;0.2540;2.1926;
-86.7000;0.2540;2.1926;
-86.4000;0.2409;2.1501;
-86.1000;0.2540;2.1901;
-85.8000;0.2532;2.1751;
-85.5000;0.2548;2.1826;
-85.2000;0.2409;2.1401;
-84.9000;0.2507;2.1676;
-84.6000;0.2523;2.1701;
-84.3000;0.2466;2.1551;
-84.0000;0.2540;2.1826;
-83.7000;0.2540;2.1901;
-83.4000;0.2523;2.1901;
-83.1000;0.2556;2.1901;
-82.8000;0.2515;2.1826;
-82.5000;0.2548;2.1901;
-82.2000;0.2556;2.2001;
-81.9000;0.2540;2.2026;
-81.6000;0.2532;2.1901;
-81.3000;0.2564;2.1926;
-81.0000;0.2564;2.1876;
-80.7000;0.2556;2.1801;
-80.4000;0.2540;2.1801;
-80.1000;0.2548;2.1826;
-79.8000;0.2548;2.1801;
-79.5000;0.2556;2.1751;
-79.2000;0.2589;2.1901;
-78.9000;0.2532;2.1726;
-78.6000;0.2540;2.1676;
-78.3000;0.2532;2.1576;
-78.0000;0.2344;2.1175;
-77.7000;0.2540;2.1801;
-77.4000;0.2548;2.1851;
-77.1000;0.2589;2.1951;
-76.8000;0.2523;2.1651;
-76.5000;0.2548;2.1726;
-76.2000;0.2458;2.1551;
-75.9000;0.2507;2.1676;
-75.6000;0.2532;2.1801;
-75.3000;0.2540;2.1801;
-75.0000;0.2532;2.1826;
-74.7000;0.2556;2.1826;
-74.4000;0.2572;2.2001;
-74.1000;0.2556;2.1976;
-73.8000;0.2540;2.1851;
-73.5000;0.2532;2.1851;
-73.2000;0.2556;2.1876;
-72.9000;0.2548;2.1801;
-72.6000;0.2572;2.1826;
-72.3000;0.2515;2.1751;
-72.0000;0.2540;2.1801;
-71.7000;0.2564;2.1801;
-71.4000;0.2548;2.1801;
-71.1000;0.2523;2.1676;
-70.8000;0.2507;2.1601;
-70.5000;0.2548;2.1726;
-70.2000;0.2532;2.1726;
-69.9000;0.2532;2.1751;
-69.6000;0.2580;2.2026;
-69.3000;0.2458;2.1801;
-69.0000;0.2532;2.1876;
-68.7000;0.2548;2.1876;
-68.4000;0.2491;2.1576;
-68.1000;0.2532;2.1726;
-67.8000;0.2540;2.1751;
-67.5000;0.2507;2.1801;
-67.2000;0.2556;2.1926;
-66.9000;0.2540;2.1901;
-66.6000;0.2523;2.1826;
-66.3000;0.2499;2.1751;
-66.0000;0.2564;2.1851;
-65.7000;0.2548;2.1851;
-65.4000;0.2540;2.1851;
-65.1000;0.2466;2.1676;
-64.8000;0.2532;2.1751;
-64.5000;0.2523;2.1701;
-64.2000;0.2564;2.1801;
-63.9000;0.2532;2.1726;
-63.6000;0.2418;2.1300;
-63.3000;0.2442;2.1300;
-63.0000;0.2458;2.1451;
-62.7000;0.2564;2.1801;
-62.4000;0.2589;2.2001;
-62.1000;0.2458;2.1751;
-61.8000;0.2523;2.1951;
-61.5000;0.2532;2.1876;
-61.2000;0.2597;2.2001;
-60.9000;0.2532;2.1751;
-60.6000;0.2499;2.1626;
-60.3000;0.2515;2.1601;
-60.0000;0.2556;2.1776;
-59.7000;0.2523;2.1726;
-59.4000;0.2548;2.1876;
-59.1000;0.2548;2.1826;
-58.8000;0.2540;2.1726;
-58.5000;0.2548;2.1651;
-58.2000;0.2499;2.1576;
-57.9000;0.2475;2.1401;
-57.6000;0.2548;2.1651;
-57.3000;0.2540;2.1626;
-57.0000;0.2532;2.1526;
-56.7000;0.2548;2.1701;
-56.4000;0.2556;2.1776;
-56.1000;0.2564;2.1751;
-55.8000;0.2499;2.1676;
-55.5000;0.2515;2.1751;
-55.2000;0.2515;2.1701;
-54.9000;0.2523;2.1701;
-54.6000;0.2532;2.1726;
-54.3000;0.2532;2.1726;
-54.0000;0.2548;2.1801;
-53.7000;0.2556;2.1726;
-53.4000;0.2532;2.1751;
-53.1000;0.2523;2.1751;
-52.8000;0.2564;2.1876;
-52.5000;0.2507;2.1826;
-52.2000;0.2507;2.1801;
-51.9000;0.2564;2.1901;
-51.6000;0.2540;2.1876;
-51.3000;0.2540;2.1876;
-51.0000;0.2532;2.1801;
-50.7000;0.2540;2.1776;
-50.4000;0.2523;2.1601;
-50.1000;0.2556;2.1676;
-49.8000;0.2540;2.1601;
-49.5000;0.2515;2.1576;
-49.2000;0.2475;2.1476;
-48.9000;0.2532;2.1726;
-48.6000;0.2540;2.1751;
-48.3000;0.2540;2.1726;
-48.0000;0.2499;2.1651;
-47.7000;0.2475;2.1726;
-47.4000;0.2556;2.2026;
-47.1000;0.2507;2.1901;
-46.8000;0.2458;2.1676;
-46.5000;0.2523;2.1876;
-46.2000;0.2532;2.1951;
-45.9000;0.2507;2.1851;
-45.6000;0.2499;2.1751;
-45.3000;0.2507;2.1776;
-45.0000;0.2475;2.1701;
-44.7000;0.2564;2.1876;
-44.4000;0.2523;2.1776;
-44.1000;0.2532;2.1826;
-43.8000;0.2523;2.1801;
-43.5000;0.2532;2.1826;
-43.2000;0.2540;2.1801;
-42.9000;0.2499;2.1801;
-42.6000;0.2507;2.1876;
-42.3000;0.2515;2.1851;
-42.0000;0.2532;2.1826;
-41.7000;0.2491;2.1801;
-41.4000;0.2532;2.1851;
-41.1000;0.2491;2.1726;
-40.8000;0.2548;2.1876;
-40.5000;0.2580;2.2001;
-40.2000;0.2523;2.1851;
-39.9000;0.2532;2.1826;
-39.6000;0.2515;2.1726;
-39.3000;0.2458;2.1626;
-39.0000;0.2540;2.1851;
-38.7000;0.2572;2.1876;
-38.4000;0.2450;2.1401;
-38.1000;0.2572;2.1726;
-37.8000;0.2523;2.1576;
-37.5000;0.2466;2.1325;
-37.2000;0.2523;2.1551;
-36.9000;0.2548;2.1601;
-36.6000;0.2548;2.1651;
-36.3000;0.2532;2.1701;
-36.0000;0.2418;2.1376;
-35.7000;0.2540;2.1726;
-35.4000;0.2540;2.1726;
-35.1000;0.2548;2.1776;
-34.8000;0.2499;2.1701;
-34.5000;0.2532;2.1776;
-34.2000;0.2532;2.1726;
-33.9000;0.2532;2.1751;
-33.6000;0.2613;2.1951;
-33.3000;0.2523;2.1551;
-33.0000;0.2548;2.1576;
-32.7000;0.2507;2.1601;
-32.4000;0.2540;2.1701;
-32.1000;0.2556;2.1726;
-31.8000;0.2572;2.1826;
-31.5000;0.2548;2.1801;
-31.2000;0.2548;2.1776;
-30.9000;0.2540;2.1826;
-30.6000;0.2491;2.1701;
-30.3000;0.2532;2.1776;
-30.0000;0.2507;2.1751;
-29.7000;0.2499;2.1751;
-29.4000;0.2499;2.1701;
-29.1000;0.2540;2.1851;
-28.8000;0.2540;2.1851;
-28.5000;0.2678;2.2227;
-28.2000;0.2540;2.1876;
-27.9000;0.2597;2.2001;
-27.6000;0.2548;2.1926;
-27.3000;0.2613;2.2101;
-27.0000;0.2556;2.1926;
-26.7000;0.2532;2.1951;
-26.4000;0.2572;2.2076;
-26.1000;0.2507;2.1851;
-25.8000;0.2458;2.1701;
-25.5000;0.2491;2.1726;
-25.2000;0.2483;2.1726;
-24.9000;0.2507;2.1826;
-24.6000;0.2523;2.1876;
-24.3000;0.2532;2.1851;
-24.0000;0.2564;2.1826;
-23.7000;0.2515;2.1776;
-23.4000;0.2409;2.1526;
-23.1000;0.2523;2.1851;
-22.8000;0.2572;2.1851;
-22.5000;0.2540;2.1801;
-22.2000;0.2507;2.1701;
-21.9000;0.2507;2.1651;
-21.6000;0.2556;2.1801;
-21.3000;0.2556;2.1826;
-21.0000;0.2532;2.1776;
-20.7000;0.2434;2.1551;
-20.4000;0.2548;2.1851;
-20.1000;0.2523;2.1851;
-19.8000;0.2499;2.1801;
-19.5000;0.2548;2.1876;
-19.2000;0.2540;2.1851;
-18.9000;0.2507;2.1676;
-18.6000;0.2589;2.1976;
-18.3000;0.2515;2.1801;
-18.0000;0.2475;2.1651;
-17.7000;0.2548;2.1851;
-17.4000;0.2580;2.1926;
-17.1000;0.2532;2.1851;
-16.8000;0.2540;2.1926;
-16.5000;0.2564;2.1926;
-16.2000;0.2540;2.1926;
-15.9000;0.2507;2.1776;
-15.6000;0.2564;2.2001;
-15.3000;0.2548;2.1901;
-15.0000;0.2523;2.1851;
-14.7000;0.2515;2.1801;
-14.4000;0.2523;2.1801;
-14.1000;0.2393;2.1476;
-13.8000;0.2523;2.1851;
-13.5000;0.2548;2.1901;
-13.2000;0.2515;2.1776;
-12.9000;0.2540;2.1901;
-12.6000;0.2475;2.1726;
-12.3000;0.2532;2.1826;
-12.0000;0.2540;2.1801;
-11.7000;0.2515;2.1826;
-11.4000;0.2556;2.1951;
-11.1000;0.2515;2.1876;
-10.8000;0.2540;2.2001;
-10.5000;0.2515;2.1926;
-10.2000;0.2548;2.2001;
-9.9000;0.2523;2.2051;
-9.6000;0.2532;2.2151;
-9.3000;0.2532;2.2126;
-9.0000;0.2491;2.2176;
-8.7000;0.2475;2.2101;
-8.4000;0.2507;2.2227;
-8.1000;0.2532;2.2202;
-7.8000;0.2507;2.2101;
-7.5000;0.2556;2.2126;
-7.2000;0.2507;2.1926;
-6.9000;0.2523;2.1951;
-6.6000;0.2540;2.1926;
-6.3000;0.2523;2.1826;
-6.0000;0.2556;2.2001;
-5.7000;0.2515;2.1826;
-5.4000;0.2694;2.2352;
-5.1000;0.2515;2.1851;
-4.8000;0.2597;2.2076;
-4.5000;0.2621;2.2101;
-4.2000;0.2540;2.1876;
-3.9000;0.2507;2.1776;
-3.6000;0.2540;2.1876;
-3.3000;0.2507;2.1951;
-3.0000;0.2523;2.1976;
-2.7000;0.2483;2.1801;
-2.4000;0.2532;2.2001;
-2.1000;0.2540;2.2026;
-1.8000;0.2540;2.1976;
-1.5000;0.2548;2.2101;
-1.2000;0.2540;2.2126;
-0.9000;0.2515;2.2076;
-0.6000;0.2507;2.2001;
-0.3000;0.2540;2.2076;
0.0000;0.2540;2.2076;
0.3000;0.2483;2.1851;
0.6000;0.2491;2.2076;
0.9000;0.2548;2.2502;
1.2000;0.2564;2.2852;
1.5000;0.2580;2.3128;
1.8000;0.2564;2.3303;
2.1000;0.2589;2.3478;
2.4000;0.2637;2.3753;
2.7000;0.2621;2.3853;
3.0000;0.2613;2.3904;
3.3000;0.2621;2.4004;
3.6000;0.2637;2.4129;
3.9000;0.2637;2.4179;
4.2000;0.2646;2.4304;
4.5000;0.2613;2.4204;
4.8000;0.2629;2.4304;
5.1000;0.2629;2.4404;
5.4000;0.2637;2.4454;
5.7000;0.2621;2.4429;
6.0000;0.2572;2.4354;
6.3000;0.2637;2.4554;
6.6000;0.2670;2.4654;
6.9000;0.2654;2.4554;
7.2000;0.2637;2.4554;
7.5000;0.2662;2.4604;
7.8000;0.2751;2.4880;
8.1000;0.2605;2.4429;
8.4000;0.2654;2.4604;
8.7000;0.2686;2.4629;
9.0000;0.2646;2.4504;
9.3000;0.2646;2.4479;
9.6000;0.2654;2.4529;
9.9000;0.2646;2.4529;
10.2000;0.2629;2.4479;
10.5000;0.2613;2.4454;
10.8000;0.2654;2.4504;
11.1000;0.2646;2.4529;
11.4000;0.2654;2.4579;
11.7000;0.2621;2.4554;
12.0000;0.2654;2.4604;
12.3000;0.2686;2.4679;
12.6000;0.2637;2.4579;
12.9000;0.2646;2.4679;
13.2000;0.2670;2.4780;
13.5000;0.2670;2.4855;
13.8000;0.2670;2.4805;
14.1000;0.2670;2.4704;
14.4000;0.2654;2.4604;
14.7000;0.2670;2.4629;
15.0000;0.2654;2.4604;
15.3000;0.2702;2.4679;
15.6000;0.2694;2.4679;
15.9000;0.2646;2.4554;
16.2000;0.2654;2.4554;
16.5000;0.2654;2.4629;
16.8000;0.2621;2.4479;
17.1000;0.2784;2.4980;
17.4000;0.2654;2.4679;
17.7000;0.2589;2.4479;
18.0000;0.2654;2.4654;
18.3000;0.2629;2.4629;
18.6000;0.2662;2.4704;
18.9000;0.2662;2.4679;
19.2000;0.2654;2.4679;
19.5000;0.2784;2.5005;
19.8000;0.2629;2.4604;
20.1000;0.2654;2.4604;
20.4000;0.2654;2.4604;
20.7000;0.2743;2.4930;
21.0000;0.2646;2.4780;
21.3000;0.2629;2.4805;
21.6000;0.2637;2.4905;
21.9000;0.2670;2.4955;
22.2000;0.2662;2.4980;
22.5000;0.2654;2.5005;
22.8000;0.2572;2.4805;
23.1000;0.2637;2.4955;
23.4000;0.2629;2.4855;
23.7000;0.2662;2.4830;
24.0000;0.2654;2.4780;
24.3000;0.2646;2.4830;
24.6000;0.2646;2.4855;
24.9000;0.2646;2.4730;
25.2000;0.2662;2.4780;
25.5000;0.2646;2.4805;
25.8000;0.2662;2.4905;
26.1000;0.2654;2.4830;
26.4000;0.2662;2.4855;
26.7000;0.2621;2.4704;
27.0000;0.2629;2.4654;
27.3000;0.2670;2.4755;
27.6000;0.2654;2.4730;
27.9000;0.2670;2.4755;
28.2000;0.2654;2.4704;
28.5000;0.2702;2.4905;
28.8000;0.2654;2.4855;
29.1000;0.2654;2.4805;
29.4000;0.2540;2.4504;
29.7000;0.2621;2.4730;
30.0000;0.2727;2.5030;
30.3000;0.2646;2.4704;
30.6000;0.2670;2.4654;
30.9000;0.2466;2.4129;
31.2000;0.2654;2.4805;
31.5000;0.2662;2.4805;
31.8000;0.2808;2.5180;
32.1000;0.2759;2.5105;
32.4000;0.2654;2.4830;
32.7000;0.2678;2.4780;
33.0000;0.2629;2.4629;
33.3000;0.2662;2.4654;
33.6000;0.2580;2.4404;
33.9000;0.2670;2.4604;
34.2000;0.2637;2.4479;
34.5000;0.2654;2.4529;
34.8000;0.2637;2.4629;
35.1000;0.2654;2.4805;
35.4000;0.2637;2.4780;
35.7000;0.2670;2.4855;
36.0000;0.2678;2.4955;
36.3000;0.2637;2.4855;
36.6000;0.2662;2.4830;
36.9000;0.2694;2.4855;
37.2000;0.2654;2.4629;
37.5000;0.2646;2.4679;
37.8000;0.2662;2.4679;
38.1000;0.2662;2.4629;
38.4000;0.2654;2.4704;
38.7000;0.2646;2.4730;
39.0000;0.2637;2.4755;
39.3000;0.2654;2.4805;
39.6000;0.2637;2.4730;
39.9000;0.2646;2.4704;
40.2000;0.2654;2.4554;
40.5000;0.2646;2.4504;
40.8000;0.2637;2.4554;
41.1000;0.2621;2.4554;
41.4000;0.2662;2.4629;
41.7000;0.2727;2.4930;
42.0000;0.2694;2.4855;
42.3000;0.2686;2.4855;
42.6000;0.2597;2.4579;
42.9000;0.2670;2.4855;
43.2000;0.2637;2.4629;
43.5000;0.2654;2.4629;
43.8000;0.2637;2.4579;
44.1000;0.2662;2.4704;
44.4000;0.2654;2.4755;
44.7000;0.2646;2.4704;
45.0000;0.2629;2.4654;
45.3000;0.2629;2.4554;
45.6000;0.2686;2.4654;
45.9000;0.2694;2.4730;
46.2000;0.2629;2.4504;
46.5000;0.2629;2.4504;
46.8000;0.2629;2.4504;
47.1000;0.2702;2.4579;
47.4000;0.2678;2.4604;
47.7000;0.2646;2.4429;
48.0000;0.2743;2.4780;
48.3000;0.2735;2.4880;
48.6000;0.2605;2.4604;
48.9000;0.2654;2.4679;
49.2000;0.2702;2.4730;
49.5000;0.2670;2.4679;
49.8000;0.2654;2.4654;
50.1000;0.2646;2.4679;
50.4000;0.2654;2.4704;
50.7000;0.2629;2.4704;
51.0000;0.2646;2.4755;
51.3000;0.2629;2.4730;
51.6000;0.2654;2.4805;
51.9000;0.2654;2.4830;
52.2000;0.2670;2.4780;
52.5000;0.2670;2.4780;
52.8000;0.2580;2.4629;
53.1000;0.2646;2.4780;
53.4000;0.2637;2.4679;
53.7000;0.2751;2.5030;
54.0000;0.2621;2.4704;
54.3000;0.2629;2.4805;
54.6000;0.2637;2.4830;
54.9000;0.2637;2.4805;
55.2000;0.2613;2.4830;
55.5000;0.2629;2.4880;
55.8000;0.2654;2.4830;
56.1000;0.2646;2.4780;
56.4000;0.2637;2.4755;
56.7000;0.2637;2.4880;
57.0000;0.2670;2.4855;
57.3000;0.2646;2.4780;
57.6000;0.2629;2.4780;
57.9000;0.2629;2.4730;
58.2000;0.2654;2.4805;
58.5000;0.2654;2.4880;
58.8000;0.2613;2.4755;
59.1000;0.2670;2.4880;
59.4000;0.2654;2.4830;
59.7000;0.2637;2.4830;
60.0000;0.2670;2.4855;
60.3000;0.2662;2.4730;
60.6000;0.2654;2.4755;
60.9000;0.2662;2.4830;
61.2000;0.2654;2.4880;
61.5000;0.2654;2.4830;
61.8000;0.2637;2.4805;
62.1000;0.2589;2.4780;
62.4000;0.2646;2.4855;
62.7000;0.2678;2.4955;
63.0000;0.2564;2.4629;
63.3000;0.2654;2.4880;
63.6000;0.2621;2.4755;
63.9000;0.2629;2.4704;
64.2000;0.2670;2.4755;
64.5000;0.2637;2.4730;
64.8000;0.2662;2.4780;
65.1000;0.2572;2.4629;
65.4000;0.2646;2.4755;
65.7000;0.2621;2.4730;
66.0000;0.2662;2.4855;
66.3000;0.2629;2.4755;
66.6000;0.2637;2.4780;
66.9000;0.2759;2.5080;
67.2000;0.2678;2.4855;
67.5000;0.2646;2.4730;
67.8000;0.2646;2.4780;
68.1000;0.2629;2.4654;
68.4000;0.2662;2.4805;
68.7000;0.2670;2.4755;
69.0000;0.2597;2.4529;
69.3000;0.2646;2.4629;
69.6000;0.2662;2.4654;
69.9000;0.2613;2.4554;
70.2000;0.2613;2.4579;
70.5000;0.2646;2.4604;
70.8000;0.2540;2.4329;
71.1000;0.2686;2.4679;
71.4000;0.2662;2.4579;
71.7000;0.2654;2.4579;
72.0000;0.2572;2.4454;
72.3000;0.2654;2.4805;
72.6000;0.2646;2.4780;
72.9000;0.2670;2.4855;
73.2000;0.2686;2.4930;
73.5000;0.2654;2.4805;
73.8000;0.2654;2.4730;
74.1000;0.2654;2.4654;
74.4000;0.2654;2.4755;
74.7000;0.2580;2.4654;
75.0000;0.2637;2.4880;
75.3000;0.2637;2.4930;
75.6000;0.2646;2.4905;
75.9000;0.2646;2.4980;
76.2000;0.2646;2.4930;
76.5000;0.2637;2.4880;
76.8000;0.2654;2.4805;
77.1000;0.2662;2.4880;
77.4000;0.2662;2.4830;
77.7000;0.2654;2.4830;
78.0000;0.2637;2.4755;
78.3000;0.2702;2.4905;
78.6000;0.2678;2.4755;
78.9000;0.2654;2.4704;
79.2000;0.2637;2.4755;
79.5000;0.2564;2.4704;
79.8000;0.2637;2.4930;
80.1000;0.2637;2.4855;
80.4000;0.2613;2.4805;
80.7000;0.2605;2.4755;
81.0000;0.2629;2.4830;
81.3000;0.2654;2.4830;
81.6000;0.2654;2.4855;
81.9000;0.2646;2.4780;
82.2000;0.2637;2.4805;
82.5000;0.2646;2.4855;
82.8000;0.2637;2.4905;
83.1000;0.2792;2.5355;
83.4000;0.2597;2.4755;
83.7000;0.2670;2.5055;
84.0000;0.2646;2.5030;
84.3000;0.2637;2.4980;
84.6000;0.2654;2.5055;
84.9000;0.2646;2.5030;
85.2000;0.2654;2.5030;
85.5000;0.2621;2.4905;
85.8000;0.2646;2.4955;
86.1000;0.2670;2.4980;
86.4000;0.2670;2.4955;
86.7000;0.2605;2.4704;
87.0000;0.2646;2.4880;
87.3000;0.2629;2.4855;
87.6000;0.2523;2.4504;
87.9000;0.2646;2.4955;
88.2000;0.2646;2.4980;
88.5000;0.2580;2.4830;
88.8000;0.2646;2.5030;
89.1000;0.2646;2.5030;
89.4000;0.2637;2.4930;
89.7000;0.2580;2.4830;
90.0000;0.2629;2.4880;
90.3000;0.2629;2.4905;
90.6000;0.2556;2.4704;
90.9000;0.2629;2.4830;
91.2000;0.2629;2.4780;
91.5000;0.2646;2.4780;
91.8000;0.2613;2.4704;
92.1000;0.2646;2.4780;
92.4000;0.2654;2.4905;
92.7000;0.2654;2.4930;
93.0000;0.2597;2.4654;
93.3000;0.2629;2.4755;
93.6000;0.2654;2.4905;
93.9000;0.2629;2.4830;
94.2000;0.2678;2.4930;
94.5000;0.2646;2.4780;
94.8000;0.2654;2.4855;
95.1000;0.2580;2.4679;
95.4000;0.2670;2.4755;
95.7000;0.2613;2.4629;
96.0000;0.2613;2.4679;
96.3000;0.2662;2.4755;
96.6000;0.2654;2.4679;
96.9000;0.2678;2.4704;
97.2000;0.2646;2.4730;
97.5000;0.2629;2.4730;
97.8000;0.2629;2.4704;
98.1000;0.2694;2.4830;
98.4000;0.2637;2.4704;
98.7000;0.2646;2.4730;
99.0000;0.2654;2.4704;
99.3000;0.2637;2.4704;
99.6000;0.2654;2.4780;
99.9000;0.2629;2.4755;
100.2000;0.2637;2.4755;
100.5000;0.2654;2.4805;
100.8000;0.2589;2.4704;
101.1000;0.2654;2.4930;
101.4000;0.2629;2.4855;
101.7000;0.2646;2.4955;
102.0000;0.2646;2.4855;
102.3000;0.2629;2.4880;
102.6000;0.2670;2.4930;
102.9000;0.2646;2.4955;
103.2000;0.2637;2.4855;
103.5000;0.2662;2.4880;
103.8000;0.2654;2.4780;
104.1000;0.2637;2.4704;
104.4000;0.2646;2.4679;
104.7000;0.2621;2.4604;
105.0000;0.2637;2.4654;
105.3000;0.2678;2.4755;
105.6000;0.2597;2.4529;
105.9000;0.2621;2.4554;
106.2000;0.2637;2.4629;
106.5000;0.2646;2.4755;
106.8000;0.2646;2.4730;
107.1000;0.2646;2.4780;
107.4000;0.2621;2.4654;
107.7000;0.2678;2.4730;
108.0000;0.2629;2.4654;
108.3000;0.2654;2.4704;
108.6000;0.2629;2.4554;
108.9000;0.2662;2.4629;
109.2000;0.2637;2.4629;
109.5000;0.2686;2.4730;
109.8000;0.2637;2.4704;
110.1000;0.2646;2.4679;
110.4000;0.2670;2.4830;
110.7000;0.2646;2.4780;
111.0000;0.2637;2.4830;
111.3000;0.2637;2.4780;
111.6000;0.2629;2.4730;
111.9000;0.2646;2.4830;
112.2000;0.2646;2.4855;
112.5000;0.2637;2.4905;
112.8000;0.2621;2.4930;
113.1000;0.2613;2.4880;
113.4000;0.2621;2.4880;
113.7000;0.2646;2.4980;
114.0000;0.2702;2.5005;
114.3000;0.2646;2.4855;
114.6000;0.2646;2.4780;
114.9000;0.2662;2.4654;
115.2000;0.2637;2.4679;
115.5000;0.2629;2.4654;
115.8000;0.2670;2.4704;
116.1000;0.2662;2.4755;
116.4000;0.2637;2.4704;
116.7000;0.2686;2.4905;
117.0000;0.2637;2.4679;
117.3000;0.2637;2.4579;
117.6000;0.2662;2.4805;
117.9000;0.2646;2.4755;
118.2000;0.2637;2.4805;
118.5000;0.2654;2.4805;
118.8000;0.2646;2.4805;
119.1000;0.2613;2.4780;
119.4000;0.2637;2.4905;
119.7000;0.2629;2.4855;
120.0000;0.2637;2.4930;
120.3000;0.2637;2.5030;
120.6000;0.2654;2.5030;
120.9000;0.2597;2.4755;
121.2000;0.2646;2.4805;
121.5000;0.2637;2.4830;
121.8000;0.2540;2.4529;
122.1000;0.2686;2.4980;
122.4000;0.2727;2.5105;
122.7000;0.2637;2.4855;
123.0000;0.2694;2.4980;
123.3000;0.2662;2.4905;
123.6000;0.2637;2.4805;
123.9000;0.2605;2.4755;
124.2000;0.2646;2.4855;
124.5000;0.2719;2.5030;
124.8000;0.2654;2.4880;
125.1000;0.2613;2.4855;
125.4000;0.2605;2.4830;
125.7000;0.2629;2.4805;
126.0000;0.2629;2.4755;
126.3000;0.2646;2.4805;
126.6000;0.2646;2.4930;
126.9000;0.2613;2.4755;
127.2000;0.2654;2.4930;
127.5000;0.2637;2.4855;
127.8000;0.2629;2.4805;
128.1000;0.2776;2.5180;
128.4000;0.2637;2.4855;
128.7000;0.2646;2.4880;
129.0000;0.2646;2.4704;
129.3000;0.2646;2.4704;
129.6000;0.2670;2.4755;
129.9000;0.2605;2.4654;
130.2000;0.2589;2.4679;
130.5000;0.2637;2.4805;
130.8000;0.2654;2.4805;
131.1000;0.2597;2.4679;
131.4000;0.2637;2.4805;
131.7000;0.2629;2.4830;
132.0000;0.2646;2.4805;
132.3000;0.2654;2.4730;
132.6000;0.2654;2.4654;
132.9000;0.2646;2.4554;
133.2000;0.2686;2.4629;
133.5000;0.2654;2.4504;
133.8000;0.2646;2.4554;
134.1000;0.2670;2.4755;
134.4000;0.2621;2.4629;
134.7000;0.2646;2.4730;
135.0000;0.2654;2.4704;
135.3000;0.2621;2.4604;
135.6000;0.2646;2.4629;
135.9000;0.2646;2.4679;
136.2000;0.2629;2.4654;
136.5000;0.2702;2.4880;
136.8000;0.2686;2.4830;
137.1000;0.2605;2.4679;
137.4000;0.2637;2.4755;
137.7000;0.2621;2.4704;
138.0000;0.2613;2.4654;
138.3000;0.2654;2.4730;
138.6000;0.2597;2.4554;
138.9000;0.2670;2.4830;
139.2000;0.2556;2.4479;
139.5000;0.2637;2.4730;
139.8000;0.2637;2.4780;
140.1000;0.2678;2.4905;
140.4000;0.2629;2.4755;
140.7000;0.2629;2.4755;
141.0000;0.2646;2.4805;
141.3000;0.2637;2.4780;
141.6000;0.2637;2.4780;
141.9000;0.2654;2.4780;
142.2000;0.2637;2.4704;
142.5000;0.2621;2.4704;
142.8000;0.2629;2.4755;
143.1000;0.2678;2.4880;
143.4000;0.2654;2.4880;
143.7000;0.2654;2.4955;
144.0000;0.2621;2.4830;
144.3000;0.2637;2.4855;
144.6000;0.2694;2.4980;
144.9000;0.2711;2.5080;
145.2000;0.2629;2.4780;
145.5000;0.2662;2.4780;
145.8000;0.2678;2.4880;
146.1000;0.2735;2.4930;
146.4000;0.2589;2.4579;
146.7000;0.2589;2.4504;
147.0000;0.2548;2.4454;
147.3000;0.2654;2.4755;
147.6000;0.2613;2.4629;
147.9000;0.2654;2.4755;
148.2000;0.2629;2.4679;
148.5000;0.2719;2.4955;
148.8000;0.2572;2.4579;
149.1000;0.2637;2.4704;
149.4000;0.2637;2.4654;
149.7000;0.2637;2.4679;
150.0000;0.2637;2.4730;
150.3000;0.2629;2.4730;
150.6000;0.2605;2.4529;
150.9000;0.2629;2.4529;
151.2000;0.2613;2.4504;
151.5000;0.2637;2.4629;
151.8000;0.2678;2.4679;
152.1000;0.2662;2.4654;
152.4000;0.2646;2.4755;
152.7000;0.2629;2.4780;
153.0000;0.2662;2.4780;
153.3000;0.2629;2.4805;
153.6000;0.2629;2.4805;
153.9000;0.2654;2.4755;
154.2000;0.2629;2.4679;
154.5000;0.2629;2.4704;
154.8000;0.2654;2.4730;
155.1000;0.2637;2.4654;
155.4000;0.2629;2.4654;
155.7000;0.2548;2.4404;
156.0000;0.2621;2.4604;
156.3000;0.2629;2.4604;
156.6000;0.2678;2.4679;
156.9000;0.2621;2.4479;
157.2000;0.2621;2.4454;
157.5000;0.2637;2.4629;
157.8000;0.2637;2.4704;
158.1000;0.2605;2.4529;
158.4000;0.2654;2.4755;
158.7000;0.2702;2.4930;
159.0000;0.2654;2.4830;
159.3000;0.2613;2.4704;
159.6000;0.2678;2.4805;
159.9000;0.2597;2.4554;
160.2000;0.2654;2.4730;
160.5000;0.2637;2.4654;
160.8000;0.2621;2.4604;
161.1000;0.2605;2.4504;
161.4000;0.2629;2.4679;
161.7000;0.2556;2.4554;
162.0000;0.2694;2.4955;
162.3000;0.2629;2.4755;
162.6000;0.2646;2.4830;
162.9000;0.2646;2.4780;
163.2000;0.2499;2.4404;
163.5000;0.2613;2.4604;
163.8000;0.2654;2.4704;
164.1000;0.2637;2.4780;
164.4000;0.2629;2.4780;
164.7000;0.2564;2.4554;
165.0000;0.2646;2.4780;
165.3000;0.2637;2.4805;
165.6000;0.2646;2.4830;
165.9000;0.2629;2.4730;
166.2000;0.2613;2.4755;
166.5000;0.2613;2.4730;
166.8000;0.2629;2.4805;
167.1000;0.2662;2.4780;
167.4000;0.2637;2.4780;
167.7000;0.2654;2.4780;
168.0000;0.2629;2.4704;
168.3000;0.2646;2.4730;
168.6000;0.2637;2.4604;
168.9000;0.2662;2.4579;
169.2000;0.2613;2.4529;
169.5000;0.2613;2.4579;
169.8000;0.2637;2.4654;
170.1000;0.2621;2.4604;
170.4000;0.2727;2.4905;
170.7000;0.2605;2.4604;
171.0000;0.2686;2.4930;
171.3000;0.2646;2.4855;
171.6000;0.2654;2.4830;
171.9000;0.2629;2.4730;
172.2000;0.2621;2.4730;
172.5000;0.2637;2.4830;
172.8000;0.2670;2.4955;
173.1000;0.2662;2.4930;
173.4000;0.2629;2.4930;
173.7000;0.2637;2.5030;
174.0000;0.2637;2.5005;
174.3000;0.2621;2.4880;
174.6000;0.2654;2.5005;
174.9000;0.2637;2.4980;
175.2000;0.2621;2.4930;
175.5000;0.2613;2.4855;
175.8000;0.2629;2.4880;
176.1000;0.2621;2.4805;
176.4000;0.2654;2.4755;
176.7000;0.2629;2.4830;
177.0000;0.2637;2.4855;
177.3000;0.2654;2.4905;
177.6000;0.2621;2.4905;
177.9000;0.2637;2.4905;
178.2000;0.2654;2.4830;
178.5000;0.2654;2.4905;
178.8000;0.2629;2.4880;
179.1000;0.2646;2.4955;
179.4000;0.2646;2.4980;
179.7000;0.2654;2.5005;
180.0000;0.2613;2.4855;
180.3000;0.2646;2.4930;
180.6000;0.2621;2.4880;
180.9000;0.2621;2.4880;
181.2000;0.2678;2.4980;
181.5000;0.2702;2.5105;
181.8000;0.2646;2.4980;
182.1000;0.2637;2.5030;
182.4000;0.2621;2.4905;
182.7000;0.2662;2.5005;
183.0000;0.2613;2.4905;
183.3000;0.2629;2.5005;
183.6000;0.2629;2.5055;
183.9000;0.2597;2.4980;
184.2000;0.2629;2.5030;
184.5000;0.2637;2.5080;
184.8000;0.2678;2.5155;
185.1000;0.2637;2.4980;
185.4000;0.2646;2.4980;
185.7000;0.2564;2.4730;
186.0000;0.2654;2.4930;
186.3000;0.2637;2.4930;
186.6000;0.2751;2.5280;
186.9000;0.2629;2.4930;
187.2000;0.2629;2.4880;
187.5000;0.2662;2.4930;
187.8000;0.2572;2.4654;
188.1000;0.2629;2.4880;
188.4000;0.2646;2.4980;
188.7000;0.2670;2.5030;
189.0000;0.2629;2.4955;
189.3000;0.2654;2.5005;
189.6000;0.2646;2.5030;
189.9000;0.2629;2.4930;
190.2000;0.2613;2.4880;
190.5000;0.2654;2.4980;
190.8000;0.2621;2.4955;
191.1000;0.2654;2.4980;
191.4000;0.2613;2.4955;
191.7000;0.2654;2.5055;
192.0000;0.2621;2.4930;
192.3000;0.2646;2.4980;
192.6000;0.2654;2.4955;
192.9000;0.2678;2.5030;
193.2000;0.2629;2.4980;
193.5000;0.2629;2.4955;
193.8000;0.2629;2.4905;
194.1000;0.2637;2.4905;
194.4000;0.2629;2.4855;
194.7000;0.2670;2.4930;
195.0000;0.2637;2.4830;
195.3000;0.2727;2.5080;
195.6000;0.2670;2.4930;
195.9000;0.2637;2.4805;
196.2000;0.2629;2.4805;
196.5000;0.2613;2.4830;
196.8000;0.2637;2.4805;
197.1000;0.2613;2.4679;
197.4000;0.2629;2.4805;
197.7000;0.2654;2.4730;
198.0000;0.2629;2.4629;
198.3000;0.2646;2.4830;
198.6000;0.2654;2.4930;
198.9000;0.2637;2.4930;
199.2000;0.2613;2.4930;
199.5000;0.2613;2.4980;
199.8000;0.2629;2.4980;
200.1000;0.2694;2.5155;
200.4000;0.2646;2.4905;
200.7000;0.2637;2.4905;
201.0000;0.2637;2.4955;
201.3000;0.2629;2.4830;
201.6000;0.2654;2.4880;
201.9000;0.2637;2.4830;
202.2000;0.2556;2.4654;
202.5000;0.2637;2.4855;
202.8000;0.2629;2.4805;
203.1000;0.2629;2.4780;
203.4000;0.2629;2.4755;
203.7000;0.2646;2.4880;
204.0000;0.2646;2.4955;
204.3000;0.2646;2.5005;
204.6000;0.2621;2.4880;
204.9000;0.2580;2.4704;
205.2000;0.2629;2.4855;
205.5000;0.2654;2.4905;
205.8000;0.2589;2.4730;
206.1000;0.2670;2.4905;
206.4000;0.2621;2.4704;
206.7000;0.2621;2.4704;
207.0000;0.2548;2.4579;
207.3000;0.2621;2.4855;
207.6000;0.2646;2.5005;
207.9000;0.2654;2.4980;
208.2000;0.2646;2.4880;
208.5000;0.2613;2.4805;
208.8000;0.2637;2.4930;
209.1000;0.2654;2.4930;
209.4000;0.2629;2.4855;
209.7000;0.2572;2.4679;
210.0000;0.2646;2.4780;
210.3000;0.2629;2.4679;
210.6000;0.2662;2.4780;
210.9000;0.2613;2.4629;
211.2000;0.2556;2.4529;
211.5000;0.2597;2.4730;
211.8000;0.2613;2.4730;
212.1000;0.2662;2.4805;
212.4000;0.2613;2.4704;
212.7000;0.2654;2.4830;
213.0000;0.2662;2.4880;
213.3000;0.2629;2.4830;
213.6000;0.2670;2.4955;
213.9000;0.2564;2.4730;
214.2000;0.2621;2.4830;
214.5000;0.2637;2.4855;
214.8000;0.2637;2.4704;
215.1000;0.2507;2.4354;
215.4000;0.2613;2.4654;
215.7000;0.2629;2.4830;
216.0000;0.2646;2.4880;
216.3000;0.2613;2.4930;
216.6000;0.2580;2.4930;
216.9000;0.2621;2.5030;
217.2000;0.2637;2.5155;
217.5000;0.2678;2.5280;
217.8000;0.2621;2.5030;
218.1000;0.2621;2.4905;
218.4000;0.2637;2.4955;
218.7000;0.2621;2.4880;
219.0000;0.2629;2.4880;
219.3000;0.2637;2.4980;
219.6000;0.2597;2.4855;
219.9000;0.2540;2.4755;
220.2000;0.2580;2.4780;
220.5000;0.2629;2.4830;
220.8000;0.2637;2.4805;
221.1000;0.2654;2.4855;
221.4000;0.2629;2.4780;
221.7000;0.2637;2.4704;
222.0000;0.2727;2.4905;
222.3000;0.2646;2.4654;
222.6000;0.2637;2.4654;
222.9000;0.2629;2.4679;
223.2000;0.2637;2.4730;
223.5000;0.2637;2.4905;
223.8000;0.2646;2.4905;
224.1000;0.2637;2.4980;
224.4000;0.2654;2.5030;
224.7000;0.2621;2.4930;
225.0000;0.2646;2.4980;
225.3000;0.2613;2.4880;
225.6000;0.2597;2.4805;
225.9000;0.2580;2.4730;
226.2000;0.2694;2.5030;
226.5000;0.2776;2.5205;
226.8000;0.2629;2.4880;
227.1000;0.2670;2.4980;
227.4000;0.2629;2.4880;
227.7000;0.2637;2.4855;
228.0000;0.2719;2.5080;
228.3000;0.2735;2.5105;
228.6000;0.2654;2.4905;
228.9000;0.2637;2.4855;
229.2000;0.2646;2.4880;
229.5000;0.2637;2.4930;
229.8000;0.2564;2.4704;
230.1000;0.2637;2.4905;
230.4000;0.2613;2.4855;
230.7000;0.2629;2.4930;
231.0000;0.2646;2.4980;
231.3000;0.2629;2.4955;
231.6000;0.2597;2.4805;
231.9000;0.2637;2.4905;
232.2000;0.2646;2.4930;
232.5000;0.2613;2.4930;
232.8000;0.2637;2.4980;
233.1000;0.2637;2.5030;
233.4000;0.2637;2.5080;
233.7000;0.2694;2.5330;
234.0000;0.2580;2.5105;
234.3000;0.2605;2.5155;
234.6000;0.2629;2.5255;
234.9000;0.2646;2.5330;
235.2000;0.2605;2.5255;
235.5000;0.2621;2.5205;
235.8000;0.2621;2.5155;
236.1000;0.2686;2.5280;
236.4000;0.2629;2.5055;
236.7000;0.2589;2.4980;
237.0000;0.2613;2.5105;
237.3000;0.2637;2.5180;
237.6000;0.2654;2.5205;
237.9000;0.2743;2.5480;
238.2000;0.2646;2.5180;
238.5000;0.2637;2.5080;
238.8000;0.2605;2.4955;
239.1000;0.2589;2.4905;
239.4000;0.2646;2.5080;
239.7000;0.2605;2.5005;
240.0000;0.2678;2.5080;
240.3000;0.2629;2.5030;
240.6000;0.2678;2.5080;
240.9000;0.2743;2.5280;
241.2000;0.2613;2.5005;
241.5000;0.2637;2.5005;
241.8000;0.2580;2.4930;
242.1000;0.2629;2.5080;
242.4000;0.2637;2.5030;
242.7000;0.2637;2.5055;
243.0000;0.2532;2.4730;
243.3000;0.2629;2.5005;
243.6000;0.2646;2.5080;
243.9000;0.2711;2.5230;
244.2000;0.2637;2.5055;
244.5000;0.2629;2.5130;
244.8000;0.2621;2.5030;
245.1000;0.2605;2.4955;
245.4000;0.2621;2.4930;
245.7000;0.2613;2.4905;
246.0000;0.2605;2.4780;
246.3000;0.2629;2.4930;
246.6000;0.2629;2.5055;
246.9000;0.2589;2.5005;
247.2000;0.2637;2.5105;
247.5000;0.2654;2.5030;
247.8000;0.2629;2.4905;
248.1000;0.2686;2.5055;
248.4000;0.2605;2.4805;
248.7000;0.2662;2.4880;
249.0000;0.2670;2.4855;
249.3000;0.2572;2.4604;
249.6000;0.2621;2.4780;
249.9000;0.2605;2.4679;
250.2000;0.2621;2.4654;
250.5000;0.2605;2.4704;
250.8000;0.2621;2.4730;
251.1000;0.2629;2.4805;
251.4000;0.2621;2.4780;
251.7000;0.2694;2.5030;
252.0000;0.2621;2.4855;
252.3000;0.2589;2.4730;
252.6000;0.2532;2.4654;
252.9000;0.2613;2.4730;
253.2000;0.2654;2.4755;
253.5000;0.2613;2.4679;
253.8000;0.2776;2.5105;
254.1000;0.2629;2.4780;
254.4000;0.2646;2.4955;
254.7000;0.2613;2.4980;
255.0000;0.2629;2.5030;
255.3000;0.2629;2.5080;
255.6000;0.2548;2.4855;
255.9000;0.2613;2.4980;
256.2000;0.2629;2.4980;
256.5000;0.2637;2.4955;
256.8000;0.2654;2.5080;
257.1000;0.2613;2.5055;
257.4000;0.2605;2.5005;
257.7000;0.2629;2.5055;
258.0000;0.2637;2.5005;
258.3000;0.2597;2.5030;
258.6000;0.2646;2.5080;
258.9000;0.2621;2.4880;
259.2000;0.2621;2.4855;
259.5000;0.2629;2.4905;
259.8000;0.2629;2.5005;
260.1000;0.2646;2.4980;
260.4000;0.2637;2.4980;
260.7000;0.2694;2.5180;
261.0000;0.2597;2.4955;
261.3000;0.2629;2.4980;
261.6000;0.2621;2.5005;
261.9000;0.2694;2.5130;
262.2000;0.2613;2.4905;
262.5000;0.2629;2.4905;
262.8000;0.2548;2.4730;
263.1000;0.2637;2.5005;
263.4000;0.2646;2.5030;
263.7000;0.2613;2.4905;
264.0000;0.2637;2.5055;
264.3000;0.2613;2.4955;
264.6000;0.2556;2.4730;
264.9000;0.2670;2.4980;
265.2000;0.2621;2.4780;
265.5000;0.2613;2.4780;
265.8000;0.2629;2.4855;
266.1000;0.2629;2.4780;
266.4000;0.2621;2.4805;
266.7000;0.2654;2.4905;
267.0000;0.2654;2.4930;
267.3000;0.2621;2.4830;
267.6000;0.2572;2.4730;
267.9000;0.2580;2.4830;
268.2000;0.2629;2.4905;
268.5000;0.2637;2.4880;
268.8000;0.2637;2.4830;
269.1000;0.2654;2.4830;
269.4000;0.2637;2.4704;
269.7000;0.2629;2.4704;
270.0000;0.2613;2.4730;
270.3000;0.2629;2.4730;
270.6000;0.2654;2.4730;
270.9000;0.2654;2.4755;
271.2000;0.2629;2.4604;
271.5000;0.2629;2.4629;
271.8000;0.2621;2.4704;
272.1000;0.2646;2.4755;
272.4000;0.2654;2.4654;
272.7000;0.2580;2.4554;
273.0000;0.2621;2.4579;
273.3000;0.2637;2.4554;
273.6000;0.2637;2.4554;
273.9000;0.2621;2.4604;
274.2000;0.2564;2.4454;
274.5000;0.2629;2.4579;
274.8000;0.2613;2.4479;
275.1000;0.2629;2.4479;
275.4000;0.2629;2.4454;
275.7000;0.2678;2.4629;
276.0000;0.2621;2.4429;
276.3000;0.2637;2.4529;
276.6000;0.2702;2.4730;
276.9000;0.2597;2.4479;
277.2000;0.2605;2.4479;
277.5000;0.2613;2.4554;
277.8000;0.2629;2.4579;
278.1000;0.2621;2.4604;
278.4000;0.2662;2.4704;
278.7000;0.2572;2.4504;
279.0000;0.2637;2.4704;
279.3000;0.2654;2.4805;
279.6000;0.2589;2.4579;
279.9000;0.2548;2.4479;
280.2000;0.2597;2.4629;
280.5000;0.2621;2.4704;
280.8000;0.2621;2.4730;
281.1000;0.2654;2.4805;
281.4000;0.2637;2.4805;
281.7000;0.2662;2.4880;
282.0000;0.2621;2.4755;
282.3000;0.2605;2.4755;
282.6000;0.2646;2.4780;
282.9000;0.2629;2.4755;
283.2000;0.2654;2.4855;
283.5000;0.2613;2.4780;
283.8000;0.2621;2.4805;
284.1000;0.2629;2.4730;
284.4000;0.2621;2.4805;
284.7000;0.2613;2.4780;
285.0000;0.2654;2.4830;
285.3000;0.2613;2.4679;
285.6000;0.2491;2.4404;
285.9000;0.2702;2.4980;
286.2000;0.2613;2.4755;
286.5000;0.2719;2.5080;
286.8000;0.2637;2.4755;
287.1000;0.2637;2.4755;
287.4000;0.2637;2.4679;
287.7000;0.2629;2.4704;
288.0000;0.2629;2.4679;
288.3000;0.2670;2.4730;
288.6000;0.2637;2.4554;
288.9000;0.2637;2.4604;
289.2000;0.2646;2.4629;
289.5000;0.2613;2.4704;
289.8000;0.2613;2.4730;
290.1000;0.2629;2.4704;
290.4000;0.2613;2.4704;
290.7000;0.2646;2.4704;
291.0000;0.2621;2.4704;
291.3000;0.2637;2.4730;
291.6000;0.2589;2.4755;
291.9000;0.2613;2.4830;
292.2000;0.2637;2.4930;
292.5000;0.2605;2.4880;
292.8000;0.2637;2.4830;
293.1000;0.2629;2.4805;
293.4000;0.2629;2.4830;
293.7000;0.2613;2.4755;
294.0000;0.2629;2.4855;
294.3000;0.2613;2.4805;
294.6000;0.2621;2.4830;
294.9000;0.2605;2.4805;
295.2000;0.2646;2.4855;
295.5000;0.2621;2.4805;
295.8000;0.2637;2.4780;
296.1000;0.2589;2.4704;
296.4000;0.2605;2.4805;
296.7000;0.2743;2.5230;
297.0000;0.2637;2.4780;
297.3000;0.2605;2.4755;
297.6000;0.2646;2.4830;
297.9000;0.2646;2.4880;
298.2000;0.2637;2.4780;
298.5000;0.2646;2.4805;
298.8000;0.2646;2.4704;
299.1000;0.2646;2.4654;
299.4000;0.2613;2.4579;
299.7000;0.2654;2.4579;
300.0000;0.2637;2.4579;
300.3000;0.2646;2.4554;
300.6000;0.2629;2.4604;
300.9000;0.2670;2.4730;
301.2000;0.2629;2.4679;
301.5000;0.2605;2.4654;
301.8000;0.2483;2.4354;
302.1000;0.2637;2.4654;
302.4000;0.2637;2.4704;
302.7000;0.2629;2.4730;
303.0000;0.2629;2.4704;
303.3000;0.2637;2.4755;
303.6000;0.2556;2.4529;
303.9000;0.2597;2.4629;
304.2000;0.2629;2.4704;
304.5000;0.2629;2.4730;
304.8000;0.2629;2.4704;
305.1000;0.2605;2.4730;
305.4000;0.2637;2.4780;
305.7000;0.2646;2.4755;
306.0000;0.2605;2.4579;
306.3000;0.2589;2.4504;
306.6000;0.2629;2.4579;
306.9000;0.2589;2.4479;
307.2000;0.2564;2.4404;
307.5000;0.2605;2.4654;
307.8000;0.2621;2.4629;
308.1000;0.2629;2.4629;
308.4000;0.2580;2.4629;
308.7000;0.2613;2.4780;
309.0000;0.2605;2.4755;
309.3000;0.2515;2.4429;
309.6000;0.2621;2.4654;
309.9000;0.2646;2.4730;
310.2000;0.2605;2.4604;
310.5000;0.2605;2.4529;
310.8000;0.2597;2.4554;
311.1000;0.2572;2.4504;
311.4000;0.2629;2.4679;
311.7000;0.2629;2.4730;
312.0000;0.2621;2.4679;
312.3000;0.2646;2.4755;
312.6000;0.2629;2.4679;
312.9000;0.2629;2.4704;
313.2000;0.2637;2.4679;
313.5000;0.2629;2.4579;
313.8000;0.2613;2.4554;
314.1000;0.2792;2.5005;
314.4000;0.2629;2.4629;
314.7000;0.2629;2.4654;
315.0000;0.2507;2.4354;
315.3000;0.2637;2.4679;
315.6000;0.2605;2.4579;
315.9000;0.2629;2.4604;
316.2000;0.2646;2.4629;
316.5000;0.2621;2.4604;
316.8000;0.2597;2.4554;
317.1000;0.2646;2.4654;
317.4000;0.2629;2.4730;
317.7000;0.2621;2.4730;
318.0000;0.2589;2.4755;
318.3000;0.2637;2.4855;
318.6000;0.2637;2.4855;
318.9000;0.2637;2.4880;
319.2000;0.2637;2.4930;
319.5000;0.2613;2.4880;
319.8000;0.2629;2.4905;
320.1000;0.2654;2.4955;
320.4000;0.2629;2.4905;
320.7000;0.2629;2.4755;
321.0000;0.2597;2.4704;
321.3000;0.2605;2.4704;
321.6000;0.2686;2.4955;
321.9000;0.2589;2.4679;
322.2000;0.2621;2.4629;
322.5000;0.2629;2.4730;
322.8000;0.2580;2.4604;
323.1000;0.2646;2.4679;
323.4000;0.2621;2.4604;
323.7000;0.2646;2.4730;
324.0000;0.2580;2.4629;
324.3000;0.2613;2.4679;
324.6000;0.2548;2.4529;
324.9000;0.2662;2.4855;
325.2000;0.2702;2.4955;
325.5000;0.2597;2.4579;
325.8000;0.2629;2.4780;
326.1000;0.2613;2.4805;
326.4000;0.2637;2.4780;
326.7000;0.2621;2.4704;
327.0000;0.2523;2.4404;
327.3000;0.2605;2.4704;
327.6000;0.2629;2.4704;
327.9000;0.2572;2.4579;
328.2000;0.2637;2.4755;
328.5000;0.2637;2.4704;
328.8000;0.2605;2.4629;
329.1000;0.2597;2.4629;
329.4000;0.2637;2.4730;
329.7000;0.2621;2.4730;
330.0000;0.2572;2.4579;
330.3000;0.2621;2.4679;
330.6000;0.2637;2.4755;
330.9000;0.2621;2.4755;
331.2000;0.2523;2.4579;
331.5000;0.2646;2.4855;
331.8000;0.2637;2.4805;
332.1000;0.2637;2.4730;
332.4000;0.2621;2.4529;
332.7000;0.2637;2.4579;
333.0000;0.2629;2.4579;
333.3000;0.2629;2.4504;
333.6000;0.2499;2.4129;
333.9000;0.2629;2.4454;
334.2000;0.2637;2.4504;
334.5000;0.2711;2.4679;
334.8000;0.2629;2.4479;
335.1000;0.2646;2.4504;
335.4000;0.2646;2.4429;
335.7000;0.2629;2.4379;
336.0000;0.2597;2.4304;
336.3000;0.2605;2.4304;
336.6000;0.2621;2.4404;
336.9000;0.2629;2.4404;
337.2000;0.2580;2.4429;
337.5000;0.2621;2.4504;
337.8000;0.2629;2.4479;
338.1000;0.2613;2.4479;
338.4000;0.2629;2.4579;
338.7000;0.2621;2.4529;
339.0000;0.2621;2.4554;
339.3000;0.2646;2.4579;
339.6000;0.2654;2.4629;
339.9000;0.2629;2.4604;
340.2000;0.2637;2.4654;
340.5000;0.2654;2.4579;
340.8000;0.2580;2.4354;
341.1000;0.2621;2.4554;
341.4000;0.2646;2.4554;
341.7000;0.2605;2.4529;
342.0000;0.2629;2.4704;
342.3000;0.2637;2.4679;
342.6000;0.2621;2.4629;
342.9000;0.2613;2.4554;
343.2000;0.2637;2.4730;
343.5000;0.2637;2.4755;
343.8000;0.2621;2.4629;
344.1000;0.2621;2.4755;
344.4000;0.2646;2.4704;
344.7000;0.2621;2.4704;
345.0000;0.2605;2.4654;
345.3000;0.2605;2.4805;
345.6000;0.2711;2.5055;
345.9000;0.2621;2.4780;
346.2000;0.2613;2.4755;
346.5000;0.2621;2.4654;
346.8000;0.2694;2.4830;
347.1000;0.2621;2.4730;
347.4000;0.2613;2.4704;
347.7000;0.2629;2.4730;
348.0000;0.2637;2.4805;
348.3000;0.2621;2.4755;
348.6000;0.2597;2.4629;
348.9000;0.2589;2.4704;
349.2000;0.2629;2.4855;
349.5000;0.2637;2.4980;
349.8000;0.2629;2.4905;
350.1000;0.2686;2.5030;
350.4000;0.2719;2.4980;
350.7000;0.2637;2.4730;
351.0000;0.2670;2.4830;
351.3000;0.2629;2.4780;
351.6000;0.2654;2.4830;
351.9000;0.2694;2.4905;
352.2000;0.2605;2.4654;
352.5000;0.2646;2.4780;
352.8000;0.2621;2.4730;
353.1000;0.2605;2.4629;
353.4000;0.2637;2.4805;
353.7000;0.2605;2.4730;
354.0000;0.2694;2.5005;
354.3000;0.2629;2.4855;
354.6000;0.2613;2.4780;
354.9000;0.2629;2.4805;
355.2000;0.2629;2.4880;
355.5000;0.2613;2.4905;
355.8000;0.2621;2.4830;
356.1000;0.2629;2.4905;
356.4000;0.2556;2.4604;
356.7000;0.2605;2.4755;
357.0000;0.2621;2.4755;
357.3000;0.2621;2.4830;
357.6000;0.2637;2.4880;
357.9000;0.2597;2.4780;
358.2000;0.2646;2.5005;
358.5000;0.2629;2.4980;
358.8000;0.2621;2.4980;
359.1000;0.2646;2.5005;
359.4000;0.2621;2.4905;
359.7000;0.2629;2.4905;
360.0000;0.2621;2.4855;
360.3000;0.2629;2.4830;
360.6000;0.2613;2.4830;
360.9000;0.2572;2.4755;
361.2000;0.2605;2.4805;
361.5000;0.2621;2.4930;
361.8000;0.2637;2.4855;
362.1000;0.2629;2.4755;
362.4000;0.2621;2.4704;
362.7000;0.2613;2.4730;
363.0000;0.2629;2.4679;
363.3000;0.2629;2.4704;
363.6000;0.2572;2.4604;
363.9000;0.2654;2.4730;
364.2000;0.2637;2.4679;
364.5000;0.2654;2.4780;
364.8000;0.2637;2.4679;
365.1000;0.2637;2.4704;
365.4000;0.2637;2.4780;
365.7000;0.2621;2.4755;
366.0000;0.2637;2.4780;
366.3000;0.2621;2.4730;
366.6000;0.2621;2.4654;
366.9000;0.2646;2.4679;
367.2000;0.2646;2.4679;
367.5000;0.2621;2.4629;
367.8000;0.2629;2.4579;
368.1000;0.2613;2.4604;
368.4000;0.2621;2.4629;
368.7000;0.2629;2.4629;
369.0000;0.2629;2.4679;
369.3000;0.2613;2.4679;
369.6000;0.2572;2.4504;
369.9000;0.2540;2.4404;
370.2000;0.2629;2.4679;
370.5000;0.2629;2.4679;
370.8000;0.2646;2.4654;
371.1000;0.2605;2.4404;
371.4000;0.2629;2.4554;
371.7000;0.2605;2.4504;
372.0000;0.2646;2.4604;
372.3000;0.2621;2.4529;
372.6000;0.2629;2.4654;
372.9000;0.2743;2.4855;
373.2000;0.2629;2.4579;
373.5000;0.2629;2.4579;
373.8000;0.2629;2.4554;
374.1000;0.2621;2.4604;
374.4000;0.2629;2.4479;
374.7000;0.2621;2.4429;
375.0000;0.2621;2.4379;
375.3000;0.2654;2.4329;
375.6000;0.2475;2.3904;
375.9000;0.2580;2.4229;
376.2000;0.2629;2.4404;
376.5000;0.2637;2.4454;
376.8000;0.2637;2.4429;
377.1000;0.2605;2.4379;
377.4000;0.2621;2.4479;
377.7000;0.2621;2.4404;
378.0000;0.2613;2.4329;
378.3000;0.2613;2.4304;
378.6000;0.2605;2.4254;
378.9000;0.2613;2.4329;
379.2000;0.2629;2.4379;
379.5000;0.2621;2.4404;
379.8000;0.2637;2.4429;
380.1000;0.2621;2.4404;
380.4000;0.2629;2.4479;
380.7000;0.2629;2.4479;
381.0000;0.2613;2.4454;
381.3000;0.2613;2.4504;
381.6000;0.2548;2.4279;
381.9000;0.2646;2.4529;
382.2000;0.2629;2.4579;
382.5000;0.2589;2.4479;
382.8000;0.2637;2.4529;
383.1000;0.2613;2.4404;
383.4000;0.2589;2.4279;
383.7000;0.2646;2.4554;
384.0000;0.2751;2.4880;
384.3000;0.2621;2.4554;
384.6000;0.2613;2.4529;
384.9000;0.2629;2.4629;
385.2000;0.2654;2.4730;
385.5000;0.2613;2.4629;
385.8000;0.2597;2.4479;
386.1000;0.2629;2.4579;
386.4000;0.2621;2.4629;
386.7000;0.2735;2.4955;
387.0000;0.2613;2.4529;
387.3000;0.2572;2.4429;
387.6000;0.2605;2.4454;
387.9000;0.2719;2.4830;
388.2000;0.2564;2.4379;
388.5000;0.2572;2.4429;
388.8000;0.2621;2.4654;
389.1000;0.2629;2.4704;
389.4000;0.2662;2.4755;
389.7000;0.2637;2.4805;
390.0000;0.2637;2.4855;
390.3000;0.2637;2.4855;
390.6000;0.2784;2.5205;
390.9000;0.2629;2.4679;
391.2000;0.2629;2.4654;
391.5000;0.2613;2.4654;
391.8000;0.2621;2.4654;
392.1000;0.2597;2.4629;
392.4000;0.2646;2.4704;
392.7000;0.2605;2.4579;
393.0000;0.2597;2.4604;
393.3000;0.2580;2.4429;
393.6000;0.2556;2.4429;
393.9000;0.2605;2.4730;
394.2000;0.2613;2.4654;
394.5000;0.2621;2.4629;
394.8000;0.2580;2.4504;
395.1000;0.2548;2.4404;
395.4000;0.2605;2.4604;
395.7000;0.2646;2.4780;
396.0000;0.2613;2.4654;
396.3000;0.2613;2.4704;
396.6000;0.2654;2.4755;
396.9000;0.2621;2.4604;
397.2000;0.2613;2.4654;
397.5000;0.2621;2.4604;
397.8000;0.2629;2.4554;
398.1000;0.2629;2.4579;
398.4000;0.2629;2.4529;
398.7000;0.2597;2.4429;
399.0000;0.2629;2.4479;
399.3000;0.2621;2.4479;
399.6000;0.2662;2.4504;
399.9000;0.2637;2.4479;
400.2000;0.2629;2.4579;
400.5000;0.2613;2.4504;
400.8000;0.2629;2.4529;
401.1000;0.2621;2.4504;
401.4000;0.2694;2.4755;
401.7000;0.2629;2.4654;
402.0000;0.2621;2.4629;
402.3000;0.2637;2.4805;
402.6000;0.2475;2.4379;
402.9000;0.2646;2.4805;
403.2000;0.2662;2.4780;
403.5000;0.2621;2.4704;
403.8000;0.2621;2.4629;
404.1000;0.2646;2.4679;
404.4000;0.2637;2.4704;
404.7000;0.2621;2.4654;
405.0000;0.2646;2.4654;
405.3000;0.2613;2.4579;
405.6000;0.2637;2.4529;
405.9000;0.2613;2.4429;
406.2000;0.2605;2.4429;
406.5000;0.2605;2.4454;
406.8000;0.2580;2.4404;
407.1000;0.2613;2.4529;
407.4000;0.2621;2.4629;
407.7000;0.2629;2.4654;
408.0000;0.2621;2.4654;
408.3000;0.2613;2.4579;
408.6000;0.2589;2.4454;
408.9000;0.2564;2.4354;
409.2000;0.2621;2.4479;
409.5000;0.2637;2.4554;
409.8000;0.2646;2.4604;
410.1000;0.2646;2.4629;
410.4000;0.2646;2.4629;
410.7000;0.2532;2.4379;
411.0000;0.2629;2.4730;
411.3000;0.2637;2.4780;
411.6000;0.2532;2.4479;
411.9000;0.2654;2.4880;
412.2000;0.2572;2.4654;
412.5000;0.2702;2.4955;
412.8000;0.2637;2.4730;
413.1000;0.2613;2.4654;
413.4000;0.2654;2.4654;
413.7000;0.2670;2.4805;
414.0000;0.2654;2.4704;
414.3000;0.2662;2.4679;
414.6000;0.2613;2.4579;
414.9000;0.2678;2.4654;
415.2000;0.2637;2.4704;
415.5000;0.2621;2.4604;
415.8000;0.2605;2.4629;
416.1000;0.2637;2.4654;
416.4000;0.2621;2.4554;
416.7000;0.2580;2.4454;
417.0000;0.2613;2.4579;
417.3000;0.2678;2.4679;
417.6000;0.2564;2.4429;
417.9000;0.2548;2.4404;
418.2000;0.2654;2.4629;
418.5000;0.2629;2.4529;
418.8000;0.2621;2.4554;
419.1000;0.2686;2.4855;
419.4000;0.2629;2.4604;
419.7000;0.2621;2.4629;
420.0000;0.2621;2.4654;
420.3000;0.2654;2.4730;
420.6000;0.2621;2.4629;
420.9000;0.2637;2.4604;
421.2000;0.2605;2.4579;
421.5000;0.2621;2.4479;
421.8000;0.2605;2.4404;
422.1000;0.2621;2.4479;
422.4000;0.2605;2.4479;
422.7000;0.2629;2.4479;
423.0000;0.2646;2.4504;
423.3000;0.2613;2.4404;
423.6000;0.2613;2.4479;
423.9000;0.2613;2.4579;
424.2000;0.2613;2.4755;
424.5000;0.2629;2.4755;
424.8000;0.2629;2.4780;
425.1000;0.2605;2.4704;
425.4000;0.2621;2.4805;
425.7000;0.2637;2.4855;
426.0000;0.2637;2.4930;
426.3000;0.2621;2.4880;
426.6000;0.2523;2.4654;
426.9000;0.2613;2.4855;
427.2000;0.2613;2.4930;
427.5000;0.2654;2.4955;
427.8000;0.2629;2.4805;
428.1000;0.2572;2.4529;
428.4000;0.2621;2.4579;
428.7000;0.2621;2.4579;
429.0000;0.2629;2.4579;
429.3000;0.2621;2.4604;
429.6000;0.2613;2.4629;
429.9000;0.2637;2.4755;
430.2000;0.2589;2.4629;
430.5000;0.2613;2.4704;
430.8000;0.2580;2.4730;
431.1000;0.2605;2.4855;
431.4000;0.2597;2.4780;
431.7000;0.2605;2.4830;
432.0000;0.2621;2.4830;
432.3000;0.2621;2.4855;
432.6000;0.2629;2.4855;
432.9000;0.2621;2.4855;
433.2000;0.2621;2.4780;
433.5000;0.2646;2.4805;
433.8000;0.2564;2.4504;
434.1000;0.2686;2.4830;
434.4000;0.2735;2.4955;
434.7000;0.2613;2.4654;
435.0000;0.2523;2.4429;
435.3000;0.2637;2.4604;
435.6000;0.2597;2.4504;
435.9000;0.2515;2.4329;
436.2000;0.2637;2.4679;
436.5000;0.2646;2.4704;
436.8000;0.2629;2.4654;
437.1000;0.2621;2.4629;
437.4000;0.2613;2.4604;
437.7000;0.2629;2.4579;
438.0000;0.2621;2.4604;
438.3000;0.2621;2.4629;
438.6000;0.2646;2.4654;
438.9000;0.2572;2.4579;
439.2000;0.2589;2.4629;
439.5000;0.2654;2.4704;
439.8000;0.2629;2.4554;
440.1000;0.2605;2.4579;
440.4000;0.2613;2.4554;
440.7000;0.2621;2.4704;
441.0000;0.2621;2.4704;
441.3000;0.2629;2.4704;
441.6000;0.2621;2.4704;
441.9000;0.2629;2.4654;
442.2000;0.2507;2.4354;
442.5000;0.2637;2.4780;
442.8000;0.2605;2.4654;
443.1000;0.2637;2.4629;
443.4000;0.2629;2.4604;
443.7000;0.2605;2.4504;
444.0000;0.2637;2.4679;
444.3000;0.2686;2.4780;
444.6000;0.2605;2.4629;
444.9000;0.2637;2.4629;
445.2000;0.2654;2.4755;
445.5000;0.2637;2.4730;
445.8000;0.2605;2.4679;
446.1000;0.2654;2.4830;
446.4000;0.2686;2.4830;
446.7000;0.2646;2.4830;
447.0000;0.2621;2.4679;
447.3000;0.2629;2.4755;
447.6000;0.2613;2.4780;
447.9000;0.2613;2.4805;
448.2000;0.2637;2.4905;
448.5000;0.2629;2.4955;
448.8000;0.2621;2.4955;
449.1000;0.2662;2.5005;
449.4000;0.2589;2.4880;
449.7000;0.2597;2.4855;
450.0000;0.2499;2.4604;
450.3000;0.2629;2.4855;
450.6000;0.2662;2.4955;
450.9000;0.2646;2.4830;
451.2000;0.2629;2.4780;
451.5000;0.2621;2.4755;
451.8000;0.2589;2.4679;
452.1000;0.2621;2.4830;
452.4000;0.2605;2.4679;
452.7000;0.2621;2.4730;
453.0000;0.2670;2.4980;
453.3000;0.2613;2.4780;
453.6000;0.2597;2.4654;
453.9000;0.2597;2.4704;
454.2000;0.2605;2.4704;
454.5000;0.2605;2.4679;
454.8000;0.2670;2.4730;
455.1000;0.2637;2.4604;
455.4000;0.2637;2.4579;
455.7000;0.2637;2.4654;
456.0000;0.2637;2.4780;
456.3000;0.2621;2.4629;
456.6000;0.2605;2.4604;
456.9000;0.2556;2.4479;
457.2000;0.2589;2.4579;
457.5000;0.2629;2.4654;
457.8000;0.2621;2.4604;
458.1000;0.2629;2.4704;
458.4000;0.2637;2.4730;
458.7000;0.2605;2.4604;
459.0000;0.2637;2.4679;
459.3000;0.2613;2.4679;
459.6000;0.2613;2.4604;
459.9000;0.2654;2.4654;
460.2000;0.2654;2.4679;
460.5000;0.2646;2.4629;
460.8000;0.2646;2.4654;
461.1000;0.2589;2.4604;
461.4000;0.2637;2.4755;
461.7000;0.2646;2.4855;
462.0000;0.2621;2.4780;
462.3000;0.2613;2.4780;
462.6000;0.2670;2.5030;
462.9000;0.2646;2.4855;
463.2000;0.2613;2.4780;
463.5000;0.2589;2.4679;
463.8000;0.2580;2.4629;
464.1000;0.2637;2.4654;
464.4000;0.2613;2.4654;
464.7000;0.2629;2.4780;
465.0000;0.2646;2.4930;
465.3000;0.2613;2.4880;
465.6000;0.2580;2.4855;
465.9000;0.2605;2.4805;
466.2000;0.2629;2.4780;
466.5000;0.2646;2.4930;
466.8000;0.2597;2.4855;
467.1000;0.2597;2.4905;
467.4000;0.2589;2.4830;
467.7000;0.2605;2.4880;
468.0000;0.2646;2.4880;
468.3000;0.2613;2.4805;
468.6000;0.2629;2.4855;
468.9000;0.2629;2.4905;
469.2000;0.2621;2.4880;
469.5000;0.2637;2.4905;
469.8000;0.2629;2.5005;
470.1000;0.2637;2.5105;
470.4000;0.2686;2.5155;
470.7000;0.2621;2.4880;
471.0000;0.2621;2.4930;
471.3000;0.2613;2.4930;
471.6000;0.2637;2.4980;
471.9000;0.2605;2.4905;
472.2000;0.2621;2.5030;
472.5000;0.2702;2.5255;
472.8000;0.2629;2.5055;
473.1000;0.2605;2.4930;
473.4000;0.2540;2.4604;
473.7000;0.2637;2.4830;
474.0000;0.2629;2.4905;
474.3000;0.2629;2.4955;
474.6000;0.2654;2.5005;
474.9000;0.2589;2.4830;
475.2000;0.2654;2.5005;
475.5000;0.2637;2.4930;
475.8000;0.2629;2.4830;
476.1000;0.2637;2.4755;
476.4000;0.2654;2.4830;
476.7000;0.2613;2.4780;
477.0000;0.2605;2.4780;
477.3000;0.2629;2.4830;
477.6000;0.2613;2.4905;
477.9000;0.2515;2.4629;
478.2000;0.2556;2.4679;
478.5000;0.2605;2.4780;
478.8000;0.2662;2.4955;
479.1000;0.2621;2.4955;
479.4000;0.2629;2.4905;
479.7000;0.2523;2.4554;
480.0000;0.2629;2.4930;
480.3000;0.2621;2.4930;
480.6000;0.2621;2.4905;
480.9000;0.2621;2.5005;
481.2000;0.2629;2.5055;
481.5000;0.2637;2.5030;
481.8000;0.2629;2.4905;
482.1000;0.2605;2.4880;
482.4000;0.2613;2.4905;
482.7000;0.2613;2.4805;
483.0000;0.2629;2.4855;
483.3000;0.2605;2.4805;
483.6000;0.2523;2.4604;
483.9000;0.2564;2.4755;
484.2000;0.2629;2.4805;
484.5000;0.2646;2.4780;
484.8000;0.2605;2.4604;
485.1000;0.2605;2.4529;
485.4000;0.2662;2.4604;
485.7000;0.2686;2.4805;
486.0000;0.2776;2.5030;
486.3000;0.2670;2.4805;
486.6000;0.2727;2.4955;
486.9000;0.2694;2.4880;
487.2000;0.2654;2.4704;
487.5000;0.2637;2.4629;
487.8000;0.2662;2.4704;
488.1000;0.2694;2.4880;
488.4000;0.2605;2.4579;
488.7000;0.2556;2.4404;
489.0000;0.2646;2.4780;
489.3000;0.2719;2.4955;
489.6000;0.2605;2.4679;
489.9000;0.2662;2.4805;
490.2000;0.2629;2.4730;
490.5000;0.2629;2.4755;
490.8000;0.2613;2.4629;
491.1000;0.2621;2.4755;
491.4000;0.2613;2.4755;
491.7000;0.2597;2.4704;
492.0000;0.2621;2.4805;
492.3000;0.2597;2.4755;
492.6000;0.2605;2.4755;
492.9000;0.2613;2.4780;
493.2000;0.2629;2.4780;
493.5000;0.2637;2.4755;
493.8000;0.2637;2.4830;
494.1000;0.2654;2.4880;
494.4000;0.2654;2.4955;
494.7000;0.2605;2.4805;
495.0000;0.2621;2.4830;
495.3000;0.2646;2.4880;
495.6000;0.2580;2.4704;
495.9000;0.2605;2.4755;
496.2000;0.2605;2.4730;
496.5000;0.2637;2.4755;
496.8000;0.2646;2.4805;
497.1000;0.2613;2.4805;
497.4000;0.2613;2.4805;
497.7000;0.2597;2.4730;
498.0000;0.2613;2.4830;
498.3000;0.2621;2.4855;
498.6000;0.2605;2.4704;
498.9000;0.2605;2.4755;
499.2000;0.2637;2.4880;
499.5000;0.2727;2.5155;
499.8000;0.2654;2.5055;
500.1000;0.2605;2.4930;
500.4000;0.2605;2.4930;
500.7000;0.2621;2.4955;
501.0000;0.2597;2.4780;
501.3000;0.2613;2.4704;
501.6000;0.2637;2.4780;
501.9000;0.2597;2.4654;
502.2000;0.2613;2.4730;
502.5000;0.2605;2.4780;
502.8000;0.2670;2.5005;
503.1000;0.2605;2.4755;
503.4000;0.2515;2.4529;
503.7000;0.2589;2.4805;
504.0000;0.2621;2.4855;
504.3000;0.2605;2.4830;
504.6000;0.2621;2.4930;
504.9000;0.2621;2.4855;
505.2000;0.2621;2.4830;
505.5000;0.2637;2.4805;
505.8000;0.2662;2.4955;
506.1000;0.2621;2.4855;
506.4000;0.2629;2.4955;
506.7000;0.2662;2.5130;
507.0000;0.2654;2.5155;
507.3000;0.2629;2.5055;
507.6000;0.2711;2.5180;
507.9000;0.2597;2.4855;
508.2000;0.2621;2.4805;
508.5000;0.2662;2.4955;
508.8000;0.2646;2.4830;
509.1000;0.2572;2.4554;
509.4000;0.2637;2.4529;
509.7000;0.2613;2.4504;
510.0000;0.2572;2.4429;
510.3000;0.2629;2.4704;
510.6000;0.2564;2.4479;
510.9000;0.2637;2.4679;
511.2000;0.2597;2.4579;
511.5000;0.2589;2.4604;
511.8000;0.2613;2.4604;
512.1000;0.2646;2.4654;
512.4000;0.2637;2.4604;
512.7000;0.2572;2.4429;
513.0000;0.2613;2.4529;
513.3000;0.2621;2.4629;
513.6000;0.2629;2.4730;
513.9000;0.2637;2.4704;
514.2000;0.2621;2.4805;
514.5000;0.2629;2.4855;
514.8000;0.2597;2.4704;
515.1000;0.2621;2.4780;
515.4000;0.2613;2.4704;
515.7000;0.2637;2.4805;
516.0000;0.2613;2.4805;
516.3000;0.2613;2.4780;
516.6000;0.2646;2.4805;
516.9000;0.2621;2.4805;
517.2000;0.2597;2.4704;
517.5000;0.2605;2.4679;
517.8000;0.2605;2.4554;
518.1000;0.2637;2.4529;
518.4000;0.2662;2.4654;
518.7000;0.2629;2.4629;
519.0000;0.2637;2.4579;
519.3000;0.2605;2.4579;
519.6000;0.2637;2.4679;
519.9000;0.2646;2.4679;
520.2000;0.2605;2.4679;
520.5000;0.2621;2.4679;
520.8000;0.2613;2.4704;
521.1000;0.2646;2.4704;
521.4000;0.2597;2.4654;
521.7000;0.2637;2.4730;
522.0000;0.2564;2.4604;
522.3000;0.2621;2.4755;
522.6000;0.2605;2.4730;
522.9000;0.2589;2.4679;
523.2000;0.2678;2.4855;
523.5000;0.2670;2.4880;
523.8000;0.2637;2.4805;
524.1000;0.2629;2.4755;
524.4000;0.2613;2.4704;
524.7000;0.2540;2.4504;
525.0000;0.2613;2.4730;
525.3000;0.2629;2.4679;
525.6000;0.2662;2.4704;
525.9000;0.2678;2.4805;
526.2000;0.2597;2.4629;
526.5000;0.2637;2.4654;
526.8000;0.2605;2.4604;
527.1000;0.2621;2.4629;
527.4000;0.2686;2.4880;
527.7000;0.2589;2.4579;
528.0000;0.2678;2.4780;
528.3000;0.2613;2.4604;
528.6000;0.2613;2.4604;
528.9000;0.2646;2.4629;
529.2000;0.2621;2.4579;
529.5000;0.2694;2.4780;
529.8000;0.2613;2.4554;
530.1000;0.2662;2.4629;
530.4000;0.2621;2.4529;
530.7000;0.2621;2.4454;
531.0000;0.2637;2.4529;
531.3000;0.2629;2.4429;
531.6000;0.2637;2.4429;
531.9000;0.2646;2.4354;
532.2000;0.2646;2.4404;
532.5000;0.2613;2.4479;
532.8000;0.2613;2.4529;
533.1000;0.2605;2.4579;
533.4000;0.2613;2.4629;
533.7000;0.2646;2.4679;
534.0000;0.2556;2.4554;
534.3000;0.2613;2.4679;
534.6000;0.2637;2.4755;
534.9000;0.2654;2.4805;
535.2000;0.2646;2.4780;
535.5000;0.2621;2.4579;
535.8000;0.2605;2.4479;
536.1000;0.2670;2.4679;
536.4000;0.2629;2.4604;
536.7000;0.2629;2.4579;
537.0000;0.2605;2.4529;
537.3000;0.2613;2.4629;
537.6000;0.2646;2.4704;
537.9000;0.2654;2.4654;
538.2000;0.2605;2.4579;
538.5000;0.2629;2.4704;
538.8000;0.2654;2.4905;
539.1000;0.2540;2.4604;
539.4000;0.2613;2.4780;
539.7000;0.2662;2.4805;
540.0000;0.2605;2.4604;
540.3000;0.2621;2.4654;
540.6000;0.2580;2.4604;
540.9000;0.2646;2.4780;
541.2000;0.2629;2.4830;
541.5000;0.2800;2.5380;
541.8000;0.2613;2.4855;
542.1000;0.2564;2.4755;
542.4000;0.2646;2.4980;
542.7000;0.2621;2.4830;
543.0000;0.2646;2.4955;
543.3000;0.2613;2.4780;
543.6000;0.2621;2.4805;
543.9000;0.2629;2.4780;
544.2000;0.2629;2.4780;
544.5000;0.2597;2.4704;
544.8000;0.2637;2.4755;
545.1000;0.2629;2.4805;
545.4000;0.2711;2.4955;
545.7000;0.2621;2.4679;
546.0000;0.2629;2.4654;
546.3000;0.2654;2.4730;
546.6000;0.2646;2.4579;
546.9000;0.2646;2.4504;
547.2000;0.2629;2.4504;
547.5000;0.2629;2.4554;
547.8000;0.2580;2.4429;
548.1000;0.2532;2.4329;
548.4000;0.2613;2.4604;
548.7000;0.2629;2.4730;
549.0000;0.2694;2.4855;
549.3000;0.2670;2.4830;
549.6000;0.2597;2.4679;
549.9000;0.2621;2.4654;
550.2000;0.2613;2.4604;
550.5000;0.2646;2.4679;
550.8000;0.2662;2.4755;
551.1000;0.2621;2.4629;
551.4000;0.2621;2.4654;
551.7000;0.2694;2.4780;
552.0000;0.2564;2.4379;
552.3000;0.2613;2.4404;
552.6000;0.2597;2.4429;
552.9000;0.2637;2.4579;
553.2000;0.2629;2.4579;
553.5000;0.2605;2.4429;
553.8000;0.2613;2.4379;
554.1000;0.2613;2.4429;
554.4000;0.2621;2.4404;
554.7000;0.2532;2.4229;
555.0000;0.2605;2.4354;
555.3000;0.2629;2.4429;
555.6000;0.2597;2.4479;
555.9000;0.2629;2.4479;
556.2000;0.2613;2.4479;
556.5000;0.2629;2.4579;
556.8000;0.2629;2.4579;
557.1000;0.2621;2.4454;
557.4000;0.2613;2.4304;
557.7000;0.2637;2.4404;
558.0000;0.2646;2.4529;
558.3000;0.2613;2.4479;
558.6000;0.2613;2.4504;
558.9000;0.2613;2.4504;
559.2000;0.2637;2.4579;
559.5000;0.2629;2.4604;
559.8000;0.2719;2.4930;
560.1000;0.2637;2.4654;
560.4000;0.2637;2.4604;
560.7000;0.2621;2.4529;
561.0000;0.2670;2.4629;
561.3000;0.2629;2.4454;
561.6000;0.2597;2.4354;
561.9000;0.2605;2.4429;
562.2000;0.2621;2.4354;
562.5000;0.2605;2.4254;
562.8000;0.2629;2.4254;
563.1000;0.2646;2.4304;
563.4000;0.2613;2.4204;
563.7000;0.2572;2.4129;
564.0000;0.2597;2.4204;
564.3000;0.2613;2.4279;
564.6000;0.2711;2.4579;
564.9000;0.2629;2.4504;
565.2000;0.2646;2.4504;
565.5000;0.2646;2.4479;
565.8000;0.2613;2.4329;
566.1000;0.2637;2.4404;
566.4000;0.2613;2.4304;
566.7000;0.2654;2.4404;
567.0000;0.2621;2.4454;
567.3000;0.2597;2.4379;
567.6000;0.2613;2.4429;
567.9000;0.2621;2.4579;
568.2000;0.2637;2.4629;
568.5000;0.2572;2.4429;
568.8000;0.2621;2.4604;
569.1000;0.2605;2.4529;
569.4000;0.2605;2.4579;
569.7000;0.2637;2.4654;
570.0000;0.2597;2.4554;
570.3000;0.2621;2.4604;
570.6000;0.2580;2.4479;
570.9000;0.2613;2.4479;
571.2000;0.2654;2.4579;
571.5000;0.2621;2.4404;
571.8000;0.2613;2.4379;
572.1000;0.2605;2.4354;
572.4000;0.2589;2.4304;
572.7000;0.2589;2.4254;
573.0000;0.2613;2.4254;
573.3000;0.2556;2.4029;
573.6000;0.2637;2.4179;
573.9000;0.2589;2.4104;
574.2000;0.2564;2.4004;
574.5000;0.2621;2.4254;
574.8000;0.2580;2.4179;
575.1000;0.2597;2.4304;
575.4000;0.2613;2.4229;
575.7000;0.2646;2.4354;
576.0000;0.2637;2.4354;
576.3000;0.2629;2.4329;
576.6000;0.2613;2.4179;
576.9000;0.2646;2.4254;
577.2000;0.2621;2.4279;
577.5000;0.2613;2.4204;
577.8000;0.2637;2.4379;
578.1000;0.2532;2.4029;
578.4000;0.2621;2.4254;
578.7000;0.2540;2.4029;
579.0000;0.2613;2.4154;
579.3000;0.2711;2.4429;
579.6000;0.2621;2.4204;
579.9000;0.2629;2.4279;
580.2000;0.2751;2.4755;
580.5000;0.2621;2.4454;
580.8000;0.2564;2.4304;
581.1000;0.2670;2.4554;
581.4000;0.2589;2.4279;
581.7000;0.2711;2.4629;
582.0000;0.2776;2.4730;
582.3000;0.2466;2.3929;
582.6000;0.2605;2.4279;
582.9000;0.2637;2.4304;
583.2000;0.2694;2.4554;
583.5000;0.2613;2.4354;
583.8000;0.2580;2.4279;
584.1000;0.2621;2.4304;
584.4000;0.2654;2.4404;
584.7000;0.2637;2.4479;
585.0000;0.2589;2.4404;
585.3000;0.2605;2.4354;
585.6000;0.2621;2.4304;
585.9000;0.2597;2.4229;
586.2000;0.2629;2.4379;
586.5000;0.2613;2.4454;
586.8000;0.2605;2.4479;
587.1000;0.2605;2.4429;
587.4000;0.2605;2.4404;
587.7000;0.2613;2.4379;
588.0000;0.2629;2.4379;
588.3000;0.2629;2.4404;
588.6000;0.2637;2.4379;
588.9000;0.2589;2.4229;
589.2000;0.2613;2.4229;
589.5000;0.2532;2.3979;
589.8000;0.2613;2.4204;
590.1000;0.2605;2.4229;
590.4000;0.2637;2.4504;
590.7000;0.2613;2.4479;
591.0000;0.2637;2.4579;
591.3000;0.2597;2.4529;
591.6000;0.2670;2.4755;
591.9000;0.2589;2.4579;
592.2000;0.2621;2.4604;
592.5000;0.2637;2.4679;
592.8000;0.2621;2.4654;
593.1000;0.2637;2.4579;
593.4000;0.2621;2.4579;
593.7000;0.2597;2.4579;
594.0000;0.2637;2.4654;
594.3000;0.2646;2.4679;
594.6000;0.2621;2.4679;
594.9000;0.2629;2.4730;
595.2000;0.2621;2.4704;
595.5000;0.2532;2.4354;
595.8000;0.2629;2.4629;
596.1000;0.2621;2.4554;
596.4000;0.2646;2.4704;
596.7000;0.2532;2.4479;
597.0000;0.2637;2.4679;
597.3000;0.2613;2.4604;
597.6000;0.2637;2.4730;
597.9000;0.2580;2.4604;
598.2000;0.2678;2.4905;
598.5000;0.2597;2.4730;
598.8000;0.2637;2.4805;
599.1000;0.2597;2.4654;
599.4000;0.2621;2.4755;
599.7000;0.2629;2.4905;
600.0000;0.2580;2.4805;
600.3000;0.2613;2.4730;
600.6000;0.2580;2.4629;
600.9000;0.2597;2.4479;
601.2000;0.2629;2.4379;
601.5000;0.2678;2.4379;
601.8000;0.2564;2.3979;
602.1000;0.2572;2.3778;
602.4000;0.2572;2.3678;
602.7000;0.2466;2.3203;
603.0000;0.2532;2.3328;
603.3000;0.2499;2.3078;
603.6000;0.2556;2.3128;
603.9000;0.2572;2.3027;
604.2000;0.2540;2.2927;
604.5000;0.2540;2.2902;
604.8000;0.2499;2.2802;
605.1000;0.2458;2.2677;
605.4000;0.2548;2.2827;
605.7000;0.2548;2.2727;
606.0000;0.2556;2.2677;
606.3000;0.2450;2.2327;
606.6000;0.2491;2.2452;
606.9000;0.2548;2.2552;
607.2000;0.2491;2.2377;
607.5000;0.2507;2.2452;
607.8000;0.2540;2.2477;
608.1000;0.2499;2.2377;
608.4000;0.2532;2.2327;
608.7000;0.2532;2.2302;
609.0000;0.2515;2.2327;
609.3000;0.2523;2.2302;
609.6000;0.2523;2.2277;
609.9000;0.2515;2.2302;
610.2000;0.2507;2.2202;
610.5000;0.2532;2.2176;
610.8000;0.2523;2.2176;
611.1000;0.2523;2.2227;
611.4000;0.2499;2.2076;
611.7000;0.2507;2.2051;
612.0000;0.2515;2.2076;
612.3000;0.2515;2.2101;
612.6000;0.2540;2.2202;
612.9000;0.2515;2.2126;
613.2000;0.2475;2.2076;
613.5000;0.2523;2.2227;
613.8000;0.2515;2.2227;
614.1000;0.2523;2.2151;
614.4000;0.2523;2.2101;
614.7000;0.2523;2.2126;
615.0000;0.2491;2.2076;
615.3000;0.2491;2.2101;
615.6000;0.2532;2.2227;
615.9000;0.2499;2.2126;
616.2000;0.2548;2.2252;
616.5000;0.2507;2.2151;
616.8000;0.2491;2.2101;
617.1000;0.2515;2.2202;
617.4000;0.2434;2.1901;
617.7000;0.2499;2.2076;
618.0000;0.2515;2.2101;
618.3000;0.2483;2.2076;
618.6000;0.2515;2.2252;
618.9000;0.2507;2.2202;
619.2000;0.2507;2.2076;
619.5000;0.2442;2.1851;
619.8000;0.2515;2.2076;
620.1000;0.2507;2.2101;
620.4000;0.2491;2.2076;
620.7000;0.2499;2.2101;
621.0000;0.2491;2.2076;
621.3000;0.2572;2.2302;
621.6000;0.2507;2.2151;
621.9000;0.2499;2.2076;
622.2000;0.2483;2.2126;
622.5000;0.2442;2.2051;
622.8000;0.2466;2.2051;
623.1000;0.2466;2.1951;
623.4000;0.2491;2.1951;
623.7000;0.2483;2.1951;
624.0000;0.2475;2.2026;
624.3000;0.2491;2.2076;
624.6000;0.2499;2.2126;
624.9000;0.2466;2.1976;
625.2000;0.2491;2.2026;
625.5000;0.2507;2.2051;
625.8000;0.2418;2.1751;
626.1000;0.2426;2.1726;
626.4000;0.2499;2.1976;
626.7000;0.2491;2.1951;
627.0000;0.2589;2.2227;
627.3000;0.2507;2.2001;
627.6000;0.2483;2.1976;
627.9000;0.2515;2.2051;
628.2000;0.2475;2.1926;
628.5000;0.2475;2.1926;
628.8000;0.2483;2.1901;
629.1000;0.2507;2.1926;
629.4000;0.2499;2.1876;
629.7000;0.2458;2.1776;
630.0000;0.2507;2.1851;
630.3000;0.2515;2.1826;
630.6000;0.2515;2.1851;
630.9000;0.2483;2.1801;
631.2000;0.2507;2.1826;
631.5000;0.2515;2.1826;
631.8000;0.2458;2.1676;
632.1000;0.2499;2.1876;
632.4000;0.2483;2.1826;
632.7000;0.2532;2.1926;
633.0000;0.2491;2.1876;
633.3000;0.2483;2.1826;
633.6000;0.2483;2.1751;
633.9000;0.2515;2.2001;
634.2000;0.2507;2.2001;
634.5000;0.2466;2.1876;
634.8000;0.2491;2.1951;
635.1000;0.2499;2.2001;
635.4000;0.2483;2.1976;
635.7000;0.2483;2.2001;
636.0000;0.2515;2.2026;
636.3000;0.2491;2.2051;
636.6000;0.2466;2.1976;
636.9000;0.2499;2.1951;
637.2000;0.2475;2.2001;
637.5000;0.2483;2.2051;
637.8000;0.2499;2.2076;
638.1000;0.2483;2.2026;
638.4000;0.2483;2.2001;
638.7000;0.2483;2.2026;
639.0000;0.2499;2.2101;
639.3000;0.2483;2.2176;
639.6000;0.2499;2.2176;
639.9000;0.2515;2.2176;
640.2000;0.2466;2.2126;
640.5000;0.2507;2.2151;
640.8000;0.2515;2.2126;
641.1000;0.2491;2.2076;
641.4000;0.2442;2.2001;
641.7000;0.2556;2.2402;
642.0000;0.2499;2.2227;
642.3000;0.2483;2.2126;
642.6000;0.2491;2.2126;
642.9000;0.2491;2.2151;
643.2000;0.2507;2.2202;
643.5000;0.2491;2.2101;
643.8000;0.2352;2.1701;
644.1000;0.2507;2.2101;
644.4000;0.2426;2.1851;
644.7000;0.2515;2.2227;
645.0000;0.2491;2.2076;
645.3000;0.2434;2.1801;
645.6000;0.2499;2.2051;
645.9000;0.2499;2.2101;
646.2000;0.2475;2.2026;
646.5000;0.2483;2.2101;
646.8000;0.2499;2.2176;
647.1000;0.2515;2.2076;
647.4000;0.2475;2.1926;
647.7000;0.2475;2.1901;
648.0000;0.2499;2.2051;
648.3000;0.2483;2.1926;
648.6000;0.2491;2.1901;
648.9000;0.2483;2.1976;
649.2000;0.2507;2.1976;
649.5000;0.2475;2.1876;
649.8000;0.2499;2.1951;
650.1000;0.2475;2.1826;
650.4000;0.2515;2.1926;
650.7000;0.2507;2.1851;
651.0000;0.2483;2.1801;
651.3000;0.2515;2.1826;
651.6000;0.2458;2.1801;
651.9000;0.2507;2.2001;
652.2000;0.2483;2.1926;
652.5000;0.2499;2.1926;
652.8000;0.2499;2.1876;
653.1000;0.2515;2.1851;
653.4000;0.2491;2.1776;
653.7000;0.2475;2.1726;
654.0000;0.2499;2.1851;
654.3000;0.2523;2.1851;
654.6000;0.2515;2.1876;
654.9000;0.2499;2.1801;
655.2000;0.2491;2.1876;
655.5000;0.2491;2.1951;
655.8000;0.2515;2.2151;
656.1000;0.2515;2.2151;
656.4000;0.2466;2.2076;
656.7000;0.2499;2.2151;
657.0000;0.2483;2.2001;
657.3000;0.2483;2.2051;
657.6000;0.2401;2.1751;
657.9000;0.2499;2.2051;
658.2000;0.2532;2.1951;
658.5000;0.2434;2.1751;
658.8000;0.2475;2.1876;
659.1000;0.2507;2.1976;
659.4000;0.2491;2.1976;
659.7000;0.2491;2.1876;
660.0000;0.2491;2.1851;
660.3000;0.2515;2.1776;
660.6000;0.2491;2.1776;
660.9000;0.2523;2.1701;
661.2000;0.2507;2.1601;
661.5000;0.2475;2.1451;
661.8000;0.2483;2.1526;
662.1000;0.2475;2.1526;
662.4000;0.2515;2.1676;
662.7000;0.2491;2.1701;
663.0000;0.2491;2.1751;
663.3000;0.2507;2.1751;
663.6000;0.2507;2.1801;
663.9000;0.2458;2.1726;
664.2000;0.2507;2.1876;
664.5000;0.2499;2.1826;
664.8000;0.2491;2.1826;
665.1000;0.2540;2.1951;
665.4000;0.2483;2.1851;
665.7000;0.2499;2.1901;
666.0000;0.2515;2.1951;
666.3000;0.2466;2.1776;
666.6000;0.2507;2.1801;
666.9000;0.2523;2.1901;
667.2000;0.2515;2.1926;
667.5000;0.2515;2.1951;
667.8000;0.2499;2.1951;
668.1000;0.2589;2.2126;
668.4000;0.2483;2.1901;
668.7000;0.2442;2.1876;
669.0000;0.2328;2.1526;
669.3000;0.2491;2.1901;
669.6000;0.2483;2.1876;
669.9000;0.2499;2.1951;
670.2000;0.2491;2.1901;
670.5000;0.2491;2.1926;
670.8000;0.2491;2.1976;
671.1000;0.2499;2.2051;
671.4000;0.2491;2.1876;
671.7000;0.2515;2.1976;
672.0000;0.2507;2.2001;
672.3000;0.2507;2.2026;
672.6000;0.2621;2.2277;
672.9000;0.2499;2.2001;
673.2000;0.2483;2.1976;
673.5000;0.2499;2.1951;
673.8000;0.2475;2.1851;
674.1000;0.2499;2.2026;
674.4000;0.2491;2.2101;
674.7000;0.2499;2.2126;
675.0000;0.2540;2.2202;
675.3000;0.2491;2.2151;
675.6000;0.2499;2.2227;
675.9000;0.2499;2.2151;
676.2000;0.2515;2.2202;
676.5000;0.2507;2.2202;
676.8000;0.2491;2.2227;
677.1000;0.2556;2.2377;
677.4000;0.2491;2.2202;
677.7000;0.2515;2.2176;
678.0000;0.2499;2.2151;
678.3000;0.2483;2.2151;
678.6000;0.2523;2.2176;
678.9000;0.2499;2.2101;
679.2000;0.2483;2.2026;
679.5000;0.2507;2.2076;
679.8000;0.2483;2.2001;
680.1000;0.2597;2.2352;
680.4000;0.2393;2.1826;
680.7000;0.2491;2.2026;
681.0000;0.2532;2.2227;
681.3000;0.2499;2.2126;
681.6000;0.2499;2.2076;
681.9000;0.2523;2.2101;
682.2000;0.2515;2.2076;
682.5000;0.2515;2.2001;
682.8000;0.2499;2.1901;
683.1000;0.2523;2.1951;
683.4000;0.2491;2.1901;
683.7000;0.2491;2.1776;
684.0000;0.2426;2.1626;
684.3000;0.2483;2.1801;
684.6000;0.2491;2.1951;
684.9000;0.2507;2.2001;
685.2000;0.2499;2.1951;
685.5000;0.2507;2.1951;
685.8000;0.2466;2.1751;
686.1000;0.2507;2.1976;
686.4000;0.2466;2.1851;
686.7000;0.2499;2.1876;
687.0000;0.2507;2.1926;
687.3000;0.2499;2.1851;
687.6000;0.2499;2.1801;
687.9000;0.2491;2.1851;
688.2000;0.2491;2.1851;
688.5000;0.2491;2.1926;
688.8000;0.2450;2.1801;
689.1000;0.2475;2.1876;
689.4000;0.2580;2.2176;
689.7000;0.2589;2.2227;
690.0000;0.2483;2.2101;
690.3000;0.2499;2.2202;
690.6000;0.2523;2.2277;
690.9000;0.2491;2.2227;
691.2000;0.2523;2.2176;
691.5000;0.2426;2.1801;
691.8000;0.2450;2.1851;
692.1000;0.2507;2.1976;
692.4000;0.2466;2.1951;
692.7000;0.2483;2.1926;
693.0000;0.2491;2.2026;
693.3000;0.2491;2.2001;
693.6000;0.2515;2.2126;
693.9000;0.2515;2.2101;
694.2000;0.2499;2.2076;
694.5000;0.2589;2.2302;
694.8000;0.2483;2.2051;
695.1000;0.2540;2.2151;
695.4000;0.2499;2.2176;
695.7000;0.2499;2.2202;
696.0000;0.2515;2.2227;
696.3000;0.2466;2.2151;
696.6000;0.2499;2.2327;
696.9000;0.2491;2.2202;
697.2000;0.2483;2.2151;
697.5000;0.2499;2.2202;
697.8000;0.2507;2.2101;
698.1000;0.2507;2.2001;
698.4000;0.2475;2.1901;
698.7000;0.2491;2.1926;
699.0000;0.2540;2.1976;
699.3000;0.2491;2.1851;
699.6000;0.2491;2.1901;
699.9000;0.2491;2.1876;
700.2000;0.2507;2.2001;
700.5000;0.2483;2.2076;
700.8000;0.2523;2.2151;
701.1000;0.2491;2.2076;
701.4000;0.2515;2.2126;
701.7000;0.2507;2.2076;
702.0000;0.2507;2.2126;
702.3000;0.2499;2.2176;
702.6000;0.2491;2.2051;
702.9000;0.2475;2.2001;
703.2000;0.2499;2.2026;
703.5000;0.2507;2.1901;
703.8000;0.2483;2.1751;
704.1000;0.2507;2.1876;
704.4000;0.2426;2.1626;
704.7000;0.2507;2.1926;
705.0000;0.2499;2.1901;
705.3000;0.2540;2.1926;
705.6000;0.2491;2.1751;
705.9000;0.2499;2.1826;
706.2000;0.2483;2.1851;
706.5000;0.2507;2.1901;
706.8000;0.2507;2.1826;
707.1000;0.2507;2.1751;
707.4000;0.2458;2.1601;
707.7000;0.2507;2.1676;
708.0000;0.2515;2.1676;
708.3000;0.2507;2.1851;
708.6000;0.2515;2.1851;
708.9000;0.2491;2.1751;
709.2000;0.2499;2.1701;
709.5000;0.2499;2.1701;
709.8000;0.2385;2.1401;
710.1000;0.2523;2.1801;
710.4000;0.2507;2.1776;
710.7000;0.2515;2.1826;
711.0000;0.2466;2.1776;
711.3000;0.2507;2.1926;
711.6000;0.2523;2.2051;
711.9000;0.2426;2.1701;
712.2000;0.2401;2.1626;
712.5000;0.2475;2.1901;
712.8000;0.2507;2.1976;
713.1000;0.2499;2.2001;
713.4000;0.2491;2.2001;
713.7000;0.2548;2.2176;
714.0000;0.2491;2.1951;
714.3000;0.2483;2.1876;
714.6000;0.2515;2.1901;
714.9000;0.2499;2.1776;
715.2000;0.2491;2.1851;
715.5000;0.2499;2.1876;
715.8000;0.2491;2.1851;
716.1000;0.2499;2.1876;
716.4000;0.2442;2.1901;
716.7000;0.2418;2.1726;
717.0000;0.2499;2.1901;
717.3000;0.2491;2.1926;
717.6000;0.2499;2.1976;
717.9000;0.2491;2.2126;
718.2000;0.2499;2.2126;
718.5000;0.2499;2.2126;
718.8000;0.2475;2.1901;
719.1000;0.2507;2.2001;
719.4000;0.2532;2.2001;
719.7000;0.2483;2.1926;
720.0000;0.2515;2.1876;
720.3000;0.2515;2.1901;
720.6000;0.2556;2.2126;
720.9000;0.2483;2.2026;
721.2000;0.2507;2.2026;
721.5000;0.2507;2.2001;
721.8000;0.2499;2.2001;
722.1000;0.2580;2.2227;
722.4000;0.2507;2.2001;
722.7000;0.2523;2.2051;
723.0000;0.2532;2.2076;
723.3000;0.2491;2.1976;
723.6000;0.2450;2.1901;
723.9000;0.2491;2.2026;
724.2000;0.2483;2.2026;
724.5000;0.2499;2.2076;
724.8000;0.2499;2.1951;
725.1000;0.2499;2.1926;
725.4000;0.2507;2.1926;
725.7000;0.2491;2.1876;
726.0000;0.2499;2.1851;
726.3000;0.2499;2.1751;
726.6000;0.2483;2.1726;
726.9000;0.2466;2.1676;
727.2000;0.2507;2.1876;
727.5000;0.2483;2.1751;
727.8000;0.2434;2.1701;
728.1000;0.2523;2.1901;
728.4000;0.2491;2.1826;
728.7000;0.2475;2.1926;
729.0000;0.2483;2.2026;
729.3000;0.2483;2.2026;
729.6000;0.2515;2.2151;
729.9000;0.2515;2.2101;
730.2000;0.2499;2.2101;
730.5000;0.2629;2.2327;
730.8000;0.2491;2.1901;
731.1000;0.2515;2.1901;
731.4000;0.2523;2.1926;
731.7000;0.2507;2.1976;
732.0000;0.2515;2.2076;
732.3000;0.2507;2.2126;
732.6000;0.2523;2.2151;
732.9000;0.2556;2.2202;
733.2000;0.2523;2.2126;
733.5000;0.2475;2.1926;
733.8000;0.2605;2.2277;
734.1000;0.2491;2.1951;
734.4000;0.2483;2.2026;
734.7000;0.2385;2.1751;
735.0000;0.2499;2.1976;
735.3000;0.2613;2.2252;
735.6000;0.2499;2.2001;
735.9000;0.2507;2.2076;
736.2000;0.2499;2.2101;
736.5000;0.2466;2.2051;
736.8000;0.2491;2.2126;
737.1000;0.2523;2.2051;
737.4000;0.2491;2.1926;
737.7000;0.2369;2.1576;
738.0000;0.2507;2.1851;
738.3000;0.2491;2.1851;
738.6000;0.2507;2.1876;
738.9000;0.2483;2.1851;
739.2000;0.2515;2.1951;
739.5000;0.2499;2.1951;
739.8000;0.2483;2.1926;
740.1000;0.2499;2.2001;
740.4000;0.2499;2.1976;
740.7000;0.2507;2.2051;
741.0000;0.2523;2.2001;
741.3000;0.2499;2.1901;
741.6000;0.2515;2.1901;
741.9000;0.2491;2.1926;
742.2000;0.2515;2.2001;
742.5000;0.2589;2.2277;
742.8000;0.2491;2.2026;
743.1000;0.2523;2.2076;
743.4000;0.2507;2.2051;
743.7000;0.2491;2.2026;
744.0000;0.2483;2.1926;
744.3000;0.2507;2.1976;
744.6000;0.2507;2.1926;
744.9000;0.2483;2.1826;
745.2000;0.2499;2.1951;
745.5000;0.2491;2.1976;
745.8000;0.2507;2.1976;
746.1000;0.2499;2.1976;
746.4000;0.2491;2.1926;
746.7000;0.2507;2.2001;
747.0000;0.2491;2.2026;
747.3000;0.2491;2.1976;
747.6000;0.2540;2.2076;
747.9000;0.2442;2.1826;
748.2000;0.2515;2.2001;
748.5000;0.2483;2.1876;
748.8000;0.2458;2.1926;
749.1000;0.2507;2.2076;
749.4000;0.2507;2.2026;
749.7000;0.2507;2.2051;
750.0000;0.2515;2.2076;
750.3000;0.2491;2.2076;
750.6000;0.2466;2.1951;
750.9000;0.2491;2.2051;
751.2000;0.2499;2.2051;
751.5000;0.2572;2.2151;
751.8000;0.2548;2.2176;
752.1000;0.2499;2.1926;
752.4000;0.2401;2.1726;
752.7000;0.2515;2.1976;
753.0000;0.2499;2.2001;
753.3000;0.2491;2.1976;
753.6000;0.2369;2.1626;
753.9000;0.2491;2.1851;
754.2000;0.2491;2.1876;
754.5000;0.2434;2.1751;
754.8000;0.2499;2.2076;
755.1000;0.2475;2.1901;
755.4000;0.2515;2.2026;
755.7000;0.2532;2.1976;
756.0000;0.2523;2.2001;
756.3000;0.2540;2.2076;
756.6000;0.2499;2.2001;
756.9000;0.2499;2.2001;
757.2000;0.2475;2.1976;
757.5000;0.2499;2.2026;
757.8000;0.2532;2.2076;
758.1000;0.2491;2.1876;
758.4000;0.2499;2.1876;
758.7000;0.2475;2.1826;
759.0000;0.2475;2.1751;
759.3000;0.2475;2.1651;
759.6000;0.2499;2.1801;
759.9000;0.2466;2.1776;
760.2000;0.2532;2.1976;
760.5000;0.2499;2.1901;
760.8000;0.2483;2.1926;
761.1000;0.2491;2.2026;
761.4000;0.2507;2.2101;
761.7000;0.2499;2.2001;
762.0000;0.2491;2.1876;
762.3000;0.2532;2.2001;
762.6000;0.2499;2.1876;
762.9000;0.2499;2.1751;
763.2000;0.2499;2.1776;
763.5000;0.2499;2.1851;
763.8000;0.2491;2.1851;
764.1000;0.2466;2.1776;
764.4000;0.2491;2.1801;
764.7000;0.2507;2.1826;
765.0000;0.2499;2.1726;
765.3000;0.2499;2.1851;
765.6000;0.2491;2.1801;
765.9000;0.2499;2.1851;
766.2000;0.2523;2.1976;
766.5000;0.2499;2.1851;
766.8000;0.2507;2.1951;
767.1000;0.2491;2.1826;
767.4000;0.2507;2.1851;
767.7000;0.2499;2.1851;
768.0000;0.2491;2.1776;
768.3000;0.2491;2.1776;
768.6000;0.2475;2.1801;
768.9000;0.2515;2.1851;
769.2000;0.2499;2.1826;
769.5000;0.2458;2.1826;
769.8000;0.2483;2.1826;
770.1000;0.2458;2.1901;
770.4000;0.2515;2.1951;
770.7000;0.2507;2.1976;
771.0000;0.2491;2.1926;
771.3000;0.2532;2.2051;
771.6000;0.2523;2.2051;
771.9000;0.2483;2.1951;
772.2000;0.2507;2.2001;
772.5000;0.2458;2.1926;
772.8000;0.2475;2.1976;
773.1000;0.2605;2.2377;
773.4000;0.2475;2.1951;
773.7000;0.2523;2.2076;
774.0000;0.2491;2.1926;
774.3000;0.2499;2.2001;
774.6000;0.2507;2.2076;
774.9000;0.2548;2.2126;
775.2000;0.2491;2.2026;
775.5000;0.2523;2.2076;
775.8000;0.2475;2.2026;
776.1000;0.2597;2.2427;
776.4000;0.2466;2.1976;
776.7000;0.2515;2.2026;
777.0000;0.2483;2.1951;
777.3000;0.2564;2.2126;
777.6000;0.2483;2.1876;
777.9000;0.2507;2.1951;
778.2000;0.2491;2.1976;
778.5000;0.2499;2.2101;
778.8000;0.2491;2.2001;
779.1000;0.2515;2.2176;
779.4000;0.2507;2.2227;
779.7000;0.2491;2.2151;
780.0000;0.2507;2.2277;
780.3000;0.2597;2.2527;
780.6000;0.2483;2.2202;
780.9000;0.2483;2.2227;
781.2000;0.2499;2.2227;
781.5000;0.2499;2.2252;
781.8000;0.2369;2.1776;
782.1000;0.2523;2.2227;
782.4000;0.2483;2.2176;
782.7000;0.2507;2.2202;
783.0000;0.2352;2.1801;
783.3000;0.2515;2.2202;
783.6000;0.2434;2.1876;
783.9000;0.2564;2.2227;
784.2000;0.2507;2.2126;
784.5000;0.2491;2.2101;
784.8000;0.2499;2.2026;
785.1000;0.2515;2.2026;
785.4000;0.2483;2.1951;
785.7000;0.2515;2.2026;
786.0000;0.2499;2.2051;
786.3000;0.2491;2.1926;
786.6000;0.2515;2.1926;
786.9000;0.2458;2.1751;
787.2000;0.2515;2.1876;
787.5000;0.2580;2.2151;
787.8000;0.2515;2.2051;
788.1000;0.2491;2.1901;
788.4000;0.2499;2.1976;
788.7000;0.2418;2.1876;
789.0000;0.2491;2.2126;
789.3000;0.2507;2.2101;
789.6000;0.2507;2.2101;
789.9000;0.2475;2.1926;
790.2000;0.2523;2.2076;
790.5000;0.2499;2.2001;
790.8000;0.2499;2.2101;
791.1000;0.2491;2.2151;
791.4000;0.2507;2.2051;
791.7000;0.2507;2.2051;
792.0000;0.2507;2.2026;
792.3000;0.2515;2.2026;
792.6000;0.2507;2.2001;
792.9000;0.2523;2.2076;
793.2000;0.2491;2.1951;
793.5000;0.2515;2.1976;
793.8000;0.2483;2.1851;
794.1000;0.2418;2.1676;
794.4000;0.2507;2.1926;
794.7000;0.2466;2.1926;
795.0000;0.2499;2.2076;
795.3000;0.2548;2.2252;
795.6000;0.2515;2.2227;
795.9000;0.2483;2.2176;
796.2000;0.2475;2.2227;
796.5000;0.2507;2.2327;
796.8000;0.2507;2.2352;
797.1000;0.2605;2.2627;
797.4000;0.2483;2.2277;
797.7000;0.2507;2.2202;
798.0000;0.2491;2.2101;
798.3000;0.2507;2.2151;
798.6000;0.2491;2.2101;
798.9000;0.2515;2.2176;
799.2000;0.2507;2.2151;
799.5000;0.2491;2.2076;
799.8000;0.2556;2.2202;
800.1000;0.2507;2.2101;
800.4000;0.2475;2.2202;
800.7000;0.2450;2.2076;
801.0000;0.2491;2.2126;
801.3000;0.2515;2.2101;
801.6000;0.2507;2.2176;
801.9000;0.2491;2.2151;
802.2000;0.2523;2.2302;
802.5000;0.2491;2.2252;
802.8000;0.2442;2.2026;
803.1000;0.2466;2.2101;
803.4000;0.2499;2.2176;
803.7000;0.2515;2.2227;
804.0000;0.2458;2.2126;
804.3000;0.2507;2.2252;
804.6000;0.2499;2.2151;
804.9000;0.2491;2.2101;
805.2000;0.2483;2.2026;
805.5000;0.2491;2.2126;
805.8000;0.2466;2.2026;
806.1000;0.2499;2.2101;
806.4000;0.2597;2.2327;
806.7000;0.2507;2.2076;
807.0000;0.2532;2.2176;
807.3000;0.2499;2.2076;
807.6000;0.2401;2.1801;
807.9000;0.2442;2.1876;
808.2000;0.2499;2.2026;
808.5000;0.2515;2.2076;
808.8000;0.2507;2.1951;
809.1000;0.2491;2.1901;
809.4000;0.2466;2.1826;
809.7000;0.2442;2.1601;
810.0000;0.2491;2.1851;
810.3000;0.2499;2.1876;
810.6000;0.2629;2.2252;
810.9000;0.2483;2.1976;
811.2000;0.2507;2.1976;
811.5000;0.2499;2.1926;
811.8000;0.2515;2.1901;
812.1000;0.2646;2.2327;
812.4000;0.2523;2.1951;
812.7000;0.2589;2.2051;
813.0000;0.2548;2.1901;
813.3000;0.2483;2.1876;
813.6000;0.2507;2.1926;
813.9000;0.2523;2.1976;
814.2000;0.2475;2.1876;
814.5000;0.2491;2.1926;
814.8000;0.2507;2.1926;
815.1000;0.2434;2.1751;
815.4000;0.2515;2.2026;
815.7000;0.2507;2.2001;
816.0000;0.2532;2.2101;
816.3000;0.2483;2.2101;
816.6000;0.2507;2.2151;
816.9000;0.2515;2.2151;
817.2000;0.2523;2.2126;
817.5000;0.2491;2.2076;
817.8000;0.2523;2.2151;
818.1000;0.2515;2.2176;
818.4000;0.2515;2.2076;
818.7000;0.2483;2.1976;
819.0000;0.2475;2.2076;
819.3000;0.2475;2.2101;
819.6000;0.2475;2.2001;
819.9000;0.2507;2.2076;
820.2000;0.2491;2.2026;
820.5000;0.2491;2.1976;
820.8000;0.2507;2.2001;
821.1000;0.2499;2.2001;
821.4000;0.2515;2.1976;
821.7000;0.2515;2.1926;
822.0000;0.2499;2.1901;
822.3000;0.2507;2.1876;
822.6000;0.2532;2.1976;
822.9000;0.2540;2.1901;
823.2000;0.2491;2.1801;
823.5000;0.2515;2.1826;
823.8000;0.2507;2.1776;
824.1000;0.2532;2.1901;
824.4000;0.2515;2.1851;
824.7000;0.2385;2.1451;
825.0000;0.2523;2.2026;
825.3000;0.2483;2.1951;
825.6000;0.2352;2.1576;
825.9000;0.2548;2.2151;
826.2000;0.2491;2.2026;
826.5000;0.2515;2.2001;
826.8000;0.2499;2.2001;
827.1000;0.2564;2.2101;
827.4000;0.2548;2.2026;
827.7000;0.2507;2.1901;
828.0000;0.2499;2.1901;
828.3000;0.2499;2.1976;
828.6000;0.2499;2.1901;
828.9000;0.2483;2.1851;
829.2000;0.2475;2.1851;
829.5000;0.2466;2.1876;
829.8000;0.2491;2.1951;
830.1000;0.2532;2.2151;
830.4000;0.2483;2.2051;
830.7000;0.2540;2.2277;
831.0000;0.2442;2.1976;
831.3000;0.2491;2.2101;
831.6000;0.2499;2.2076;
831.9000;0.2483;2.2001;
832.2000;0.2491;2.2076;
832.5000;0.2532;2.2126;
832.8000;0.2515;2.2126;
833.1000;0.2483;2.2126;
833.4000;0.2483;2.2076;
833.7000;0.2523;2.2101;
834.0000;0.2491;2.1951;
834.3000;0.2475;2.1751;
834.6000;0.2475;2.1776;
834.9000;0.2491;2.1701;
835.2000;0.2515;2.1726;
835.5000;0.2499;2.1651;
835.8000;0.2523;2.1776;
836.1000;0.2515;2.1826;
836.4000;0.2499;2.1776;
836.7000;0.2580;2.2001;
837.0000;0.2491;2.1801;
837.3000;0.2499;2.1776;
837.6000;0.2540;2.1776;
837.9000;0.2532;2.1826;
838.2000;0.2491;2.1801;
838.5000;0.2515;2.1976;
838.8000;0.2540;2.2076;
839.1000;0.2483;2.2026;
839.4000;0.2499;2.2101;
839.7000;0.2458;2.1951;
840.0000;0.2507;2.1951;
840.3000;0.2507;2.2026;
840.6000;0.2515;2.2026;
840.9000;0.2499;2.1976;
841.2000;0.2523;2.2076;
841.5000;0.2515;2.2101;
841.8000;0.2507;2.2101;
842.1000;0.2483;2.2026;
842.4000;0.2507;2.2026;
842.7000;0.2491;2.2001;
843.0000;0.2515;2.2051;
843.3000;0.2499;2.2076;
843.6000;0.2483;2.2051;
843.9000;0.2532;2.2176;
844.2000;0.2499;2.2126;
844.5000;0.2458;2.2076;
844.8000;0.2507;2.2202;
845.1000;0.2426;2.1876;
845.4000;0.2515;2.2076;
845.7000;0.2523;2.2001;
846.0000;0.2491;2.2026;
846.3000;0.2507;2.2076;
846.6000;0.2475;2.1876;
846.9000;0.2499;2.1926;
847.2000;0.2499;2.2051;
847.5000;0.2499;2.2001;
847.8000;0.2483;2.1976;
848.1000;0.2589;2.2327;
848.4000;0.2499;2.2051;
848.7000;0.2523;2.2227;
849.0000;0.2523;2.2202;
849.3000;0.2409;2.1801;
849.6000;0.2418;2.1826;
849.9000;0.2442;2.1926;
850.2000;0.2523;2.2176;
850.5000;0.2491;2.2176;
850.8000;0.2564;2.2327;
851.1000;0.2475;2.2101;
851.4000;0.2499;2.2151;
851.7000;0.2507;2.2051;
852.0000;0.2499;2.1976;
852.3000;0.2450;2.1676;
852.6000;0.2491;2.1876;
852.9000;0.2532;2.1926;
853.2000;0.2499;2.1901;
853.5000;0.2515;2.1976;
853.8000;0.2507;2.1926;
854.1000;0.2499;2.1976;
854.4000;0.2507;2.2076;
854.7000;0.2475;2.2026;
855.0000;0.2540;2.2227;
855.3000;0.2507;2.2076;
855.6000;0.2499;2.1951;
855.9000;0.2483;2.1851;
856.2000;0.2491;2.1751;
856.5000;0.2532;2.1826;
856.8000;0.2491;2.1726;
857.1000;0.2515;2.1901;
857.4000;0.2491;2.1851;
857.7000;0.2491;2.1851;
858.0000;0.2532;2.1976;
858.3000;0.2507;2.1901;
858.6000;0.2507;2.1876;
858.9000;0.2499;2.1926;
859.2000;0.2507;2.1976;
859.5000;0.2491;2.1851;
859.8000;0.2418;2.1676;
860.1000;0.2491;2.1876;
860.4000;0.2499;2.1951;
860.7000;0.2491;2.1951;
861.0000;0.2564;2.2176;
861.3000;0.2499;2.1976;
861.6000;0.2507;2.2001;
861.9000;0.2499;2.1976;
862.2000;0.2532;2.2026;
862.5000;0.2499;2.2051;
862.8000;0.2491;2.1976;
863.1000;0.2491;2.1951;
863.4000;0.2442;2.1751;
863.7000;0.2491;2.1951;
864.0000;0.2491;2.2001;
864.3000;0.2491;2.2101;
864.6000;0.2475;2.2026;
864.9000;0.2564;2.2302;
865.2000;0.2507;2.2076;
865.5000;0.2507;2.2151;
865.8000;0.2532;2.2202;
866.1000;0.2499;2.2151;
866.4000;0.2507;2.2252;
866.7000;0.2491;2.2101;
867.0000;0.2507;2.2051;
867.3000;0.2434;2.1901;
867.6000;0.2499;2.2151;
867.9000;0.2548;2.2277;
868.2000;0.2564;2.2302;
868.5000;0.2580;2.2352;
868.8000;0.2507;2.2202;
869.1000;0.2442;2.1976;
869.4000;0.2580;2.2352;
869.7000;0.2523;2.2126;
870.0000;0.2507;2.2101;
870.3000;0.2450;2.1951;
870.6000;0.2507;2.2076;
870.9000;0.2507;2.1976;
871.2000;0.2507;2.1901;
871.5000;0.2515;2.1976;
871.8000;0.2523;2.2051;
872.1000;0.2499;2.2001;
872.4000;0.2491;2.1926;
872.7000;0.2564;2.2026;
873.0000;0.2377;2.1576;
873.3000;0.2515;2.1926;
873.6000;0.2475;2.1851;
873.9000;0.2491;2.1876;
874.2000;0.2499;2.1976;
874.5000;0.2499;2.1876;
874.8000;0.2401;2.1476;
875.1000;0.2499;2.1751;
875.4000;0.2515;2.1826;
875.7000;0.2515;2.1701;
876.0000;0.2499;2.1776;
876.3000;0.2515;2.1751;
876.6000;0.2540;2.1801;
876.9000;0.2442;2.1676;
877.2000;0.2597;2.2026;
877.5000;0.2483;2.1826;
877.8000;0.2507;2.1851;
878.1000;0.2507;2.1826;
878.4000;0.2605;2.2126;
878.7000;0.2491;2.1776;
879.0000;0.2499;2.1801;
879.3000;0.2483;2.1826;
879.6000;0.2491;2.1851;
879.9000;0.2475;2.1826;
880.2000;0.2491;2.1951;
880.5000;0.2475;2.1976;
880.8000;0.2483;2.2001;
881.1000;0.2515;2.2051;
881.4000;0.2499;2.1926;
881.7000;0.2499;2.1976;
882.0000;0.2564;2.2051;
882.3000;0.2532;2.1951;
882.6000;0.2475;2.1726;
882.9000;0.2491;2.1776;
883.2000;0.2523;2.1901;
883.5000;0.2507;2.1901;
883.8000;0.2523;2.1926;
884.1000;0.2523;2.1851;
884.4000;0.2523;2.1801;
884.7000;0.2499;2.1701;
885.0000;0.2401;2.1526;
885.3000;0.2483;2.1826;
885.6000;0.2523;2.1851;
885.9000;0.2385;2.1451;
886.2000;0.2491;2.1801;
886.5000;0.2507;2.1851;
886.8000;0.2507;2.1851;
887.1000;0.2442;2.1776;
887.4000;0.2507;2.1926;
887.7000;0.2532;2.1951;
888.0000;0.2507;2.1926;
888.3000;0.2515;2.2001;
888.6000;0.2466;2.1851;
888.9000;0.2499;2.2001;
889.2000;0.2507;2.1976;
889.5000;0.2466;2.1951;
889.8000;0.2401;2.1726;
890.1000;0.2401;2.1801;
890.4000;0.2466;2.1876;
890.7000;0.2507;2.2026;
891.0000;0.2483;2.2001;
891.3000;0.2442;2.1976;
891.6000;0.2491;2.2151;
891.9000;0.2426;2.2076;
892.2000;0.2491;2.2076;
892.5000;0.2507;2.2101;
892.8000;0.2418;2.1876;
893.1000;0.2572;2.2252;
893.4000;0.2507;2.2051;
893.7000;0.2507;2.2076;
894.0000;0.2442;2.1976;
894.3000;0.2418;2.1901;
894.6000;0.2507;2.2202;
894.9000;0.2450;2.1951;
895.2000;0.2491;2.2051;
895.5000;0.2483;2.2051;
895.8000;0.2507;2.2101;
896.1000;0.2523;2.2151;
896.4000;0.2499;2.2076;
896.7000;0.2483;2.1876;
897.0000;0.2548;2.1976;
897.3000;0.2621;2.2202;
897.6000;0.2515;2.1901;
897.9000;0.2466;2.1926;
898.2000;0.2507;2.2051;
898.5000;0.2515;2.1976;
898.8000;0.2491;2.1976;
899.1000;0.2499;2.2026;
899.4000;0.2499;2.2026;
899.7000;0.2442;2.1851;
900.0000;0.2515;2.1976;
900.3000;0.2499;2.1851;
900.6000;0.2515;2.1851;
900.9000;0.2572;2.2026;
901.2000;0.2523;2.1776;
901.5000;0.2450;2.1551;
901.8000;0.2532;2.1776;
902.1000;0.2523;2.1726;
902.4000;0.2491;2.1726;
902.7000;0.2507;2.1826;
903.0000;0.2491;2.1851;
903.3000;0.2475;2.1826;
903.6000;0.2515;2.1901;
903.9000;0.2483;2.1826;
904.2000;0.2540;2.1976;
904.5000;0.2507;2.1901;
904.8000;0.2515;2.1976;
905.1000;0.2369;2.1626;
905.4000;0.2507;2.2001;
905.7000;0.2483;2.1926;
906.0000;0.2499;2.1926;
906.3000;0.2499;2.1926;
906.6000;0.2507;2.1976;
906.9000;0.2458;2.1926;
907.2000;0.2515;2.2001;
907.5000;0.2507;2.1901;
907.8000;0.2507;2.1926;
908.1000;0.2483;2.2001;
908.4000;0.2515;2.2126;
908.7000;0.2499;2.2076;
909.0000;0.2532;2.2202;
909.3000;0.2475;2.2026;
909.6000;0.2483;2.1976;
909.9000;0.2507;2.2001;
910.2000;0.2483;2.1926;
910.5000;0.2475;2.1826;
910.8000;0.2491;2.1876;
911.1000;0.2532;2.2001;
911.4000;0.2499;2.1926;
911.7000;0.2491;2.1901;
912.0000;0.2499;2.1926;
912.3000;0.2499;2.1876;
912.6000;0.2499;2.1851;
912.9000;0.2507;2.2026;
913.2000;0.2491;2.2001;
913.5000;0.2483;2.2001;
913.8000;0.2475;2.1926;
914.1000;0.2491;2.1976;
914.4000;0.2589;2.2252;
914.7000;0.2515;2.1976;
915.0000;0.2499;2.1951;
915.3000;0.2499;2.1926;
915.6000;0.2483;2.1901;
915.9000;0.2507;2.2001;
916.2000;0.2515;2.2026;
916.5000;0.2499;2.2026;
916.8000;0.2507;2.2051;
917.1000;0.2515;2.2026;
917.4000;0.2491;2.2051;
917.7000;0.2507;2.2051;
918.0000;0.2483;2.1876;
918.3000;0.2491;2.1926;
918.6000;0.2507;2.1926;
918.9000;0.2491;2.1876;
919.2000;0.2458;2.1801;
919.5000;0.2523;2.1926;
919.8000;0.2515;2.1901;
920.1000;0.2483;2.1801;
920.4000;0.2499;2.1826;
920.7000;0.2491;2.1901;
921.0000;0.2540;2.2126;
921.3000;0.2507;2.2051;
921.6000;0.2499;2.2026;
921.9000;0.2507;2.1926;
922.2000;0.2629;2.2202;
922.5000;0.2507;2.1926;
922.8000;0.2450;2.1751;
923.1000;0.2548;2.1976;
923.4000;0.2507;2.1826;
923.7000;0.2572;2.2026;
924.0000;0.2418;2.1651;
924.3000;0.2483;2.1901;
924.6000;0.2499;2.1976;
924.9000;0.2605;2.2327;
925.2000;0.2507;2.2076;
925.5000;0.2442;2.1926;
925.8000;0.2515;2.2101;
926.1000;0.2507;2.2026;
926.4000;0.2491;2.2001;
926.7000;0.2475;2.1901;
927.0000;0.2491;2.1901;
927.3000;0.2499;2.1926;
927.6000;0.2523;2.2051;
927.9000;0.2491;2.1976;
928.2000;0.2475;2.1826;
928.5000;0.2458;2.1851;
928.8000;0.2483;2.1851;
929.1000;0.2491;2.1951;
929.4000;0.2515;2.2101;
929.7000;0.2475;2.2076;
930.0000;0.2491;2.2051;
930.3000;0.2523;2.2101;
930.6000;0.2483;2.2101;
930.9000;0.2466;2.2126;
931.2000;0.2515;2.2352;
931.5000;0.2515;2.2277;
931.8000;0.2515;2.2252;
932.1000;0.2499;2.2252;
932.4000;0.2507;2.2277;
932.7000;0.2507;2.2227;
933.0000;0.2515;2.2202;
933.3000;0.2515;2.2202;
933.6000;0.2515;2.2176;
933.9000;0.2523;2.2126;
934.2000;0.2540;2.2227;
934.5000;0.2540;2.2202;
934.8000;0.2507;2.2051;
935.1000;0.2523;2.2001;
935.4000;0.2507;2.1976;
935.7000;0.2491;2.2076;
936.0000;0.2466;2.2026;
936.3000;0.2507;2.2151;
936.6000;0.2491;2.2101;
936.9000;0.2434;2.1926;
937.2000;0.2409;2.1826;
937.5000;0.2491;2.2076;
937.8000;0.2499;2.2126;
938.1000;0.2523;2.2176;
938.4000;0.2475;2.2076;
938.7000;0.2507;2.2176;
939.0000;0.2499;2.2076;
939.3000;0.2499;2.2202;
939.6000;0.2540;2.2277;
939.9000;0.2515;2.2151;
940.2000;0.2450;2.1926;
940.5000;0.2589;2.2277;
940.8000;0.2499;2.2076;
941.1000;0.2491;2.2176;
941.4000;0.2507;2.2176;
941.7000;0.2532;2.2227;
942.0000;0.2523;2.2126;
942.3000;0.2564;2.2277;
942.6000;0.2572;2.2377;
942.9000;0.2507;2.2227;
943.2000;0.2540;2.2452;
943.5000;0.2515;2.2352;
943.8000;0.2499;2.2227;
944.1000;0.2507;2.2202;
944.4000;0.2556;2.2252;
944.7000;0.2507;2.2101;
945.0000;0.2556;2.2277;
945.3000;0.2491;2.1976;
945.6000;0.2507;2.2001;
945.9000;0.2515;2.1901;
946.2000;0.2564;2.2101;
946.5000;0.2499;2.1851;
946.8000;0.2515;2.1851;
947.1000;0.2589;2.2101;
947.4000;0.2515;2.1876;
947.7000;0.2515;2.1901;
948.0000;0.2523;2.1951;
948.3000;0.2507;2.1851;
948.6000;0.2515;2.1926;
948.9000;0.2499;2.1951;
949.2000;0.2507;2.2051;
949.5000;0.2483;2.2076;
949.8000;0.2499;2.2101;
950.1000;0.2515;2.2126;
950.4000;0.2507;2.2151;
950.7000;0.2507;2.2026;
951.0000;0.2499;2.2001;
951.3000;0.2483;2.1951;
951.6000;0.2499;2.1926;
951.9000;0.2523;2.1976;
952.2000;0.2523;2.1951;
952.5000;0.2515;2.1976;
952.8000;0.2483;2.1901;
953.1000;0.2483;2.1926;
953.4000;0.2466;2.1926;
953.7000;0.2507;2.2101;
954.0000;0.2507;2.2051;
954.3000;0.2483;2.1976;
954.6000;0.2507;2.1976;
954.9000;0.2532;2.2026;
955.2000;0.2499;2.2026;
955.5000;0.2499;2.2051;
955.8000;0.2515;2.2076;
956.1000;0.2483;2.2076;
956.4000;0.2475;2.2101;
956.7000;0.2483;2.2202;
957.0000;0.2499;2.2176;
957.3000;0.2499;2.2176;
957.6000;0.2475;2.2076;
957.9000;0.2540;2.2277;
958.2000;0.2491;2.2051;
958.5000;0.2475;2.2051;
958.8000;0.2491;2.2076;
959.1000;0.2475;2.2151;
959.4000;0.2515;2.2227;
959.7000;0.2499;2.2151;
960.0000;0.2458;2.1976;
960.3000;0.2491;2.2076;
960.6000;0.2475;2.2001;
960.9000;0.2450;2.1976;
961.2000;0.2475;2.1976;
961.5000;0.2450;2.1926;
961.8000;0.2548;2.2151;
962.1000;0.2564;2.2151;
962.4000;0.2515;2.2051;
962.7000;0.2475;2.1976;
963.0000;0.2580;2.2277;
963.3000;0.2589;2.2277;
963.6000;0.2532;2.2076;
963.9000;0.2515;2.1951;
964.2000;0.2377;2.1526;
964.5000;0.2532;2.1926;
964.8000;0.2532;2.1976;
965.1000;0.2475;2.1801;
965.4000;0.2572;2.1951;
965.7000;0.2442;2.1576;
966.0000;0.2466;2.1726;
966.3000;0.2499;2.1851;
966.6000;0.2523;2.1876;
966.9000;0.2499;2.1801;
967.2000;0.2483;2.1851;
967.5000;0.2499;2.1901;
967.8000;0.2499;2.1926;
968.1000;0.2515;2.1926;
968.4000;0.2401;2.1626;
968.7000;0.2540;2.2076;
969.0000;0.2483;2.2001;
969.3000;0.2475;2.1976;
969.6000;0.2507;2.2001;
969.9000;0.2507;2.2026;
970.2000;0.2515;2.2026;
970.5000;0.2507;2.2051;
970.8000;0.2491;2.2001;
971.1000;0.2532;2.1951;
971.4000;0.2499;2.1851;
971.7000;0.2475;2.1901;
972.0000;0.2523;2.2051;
972.3000;0.2523;2.2051;
972.6000;0.2499;2.1976;
972.9000;0.2507;2.1951;
973.2000;0.2523;2.2001;
973.5000;0.2540;2.2101;
973.8000;0.2491;2.1901;
974.1000;0.2523;2.1976;
974.4000;0.2515;2.1951;
974.7000;0.2523;2.2001;
975.0000;0.2499;2.2001;
975.3000;0.2523;2.2126;
975.6000;0.2491;2.2026;
975.9000;0.2491;2.2001;
976.2000;0.2507;2.2001;
976.5000;0.2507;2.2026;
976.8000;0.2523;2.2151;
977.1000;0.2466;2.2026;
977.4000;0.2515;2.2101;
977.7000;0.2491;2.2126;
978.0000;0.2515;2.2202;
978.3000;0.2523;2.2176;
978.6000;0.2475;2.2026;
978.9000;0.2515;2.2051;
979.2000;0.2483;2.2026;
979.5000;0.2499;2.2026;
979.8000;0.2507;2.1926;
980.1000;0.2523;2.1951;
980.4000;0.2515;2.1976;
980.7000;0.2515;2.1976;
981.0000;0.2523;2.1876;
981.3000;0.2499;2.1826;
981.6000;0.2515;2.1851;
981.9000;0.2540;2.1901;
982.2000;0.2564;2.2076;
982.5000;0.2475;2.1801;
982.8000;0.2515;2.2051;
983.1000;0.2515;2.1976;
983.4000;0.2540;2.2051;
983.7000;0.2499;2.1876;
984.0000;0.2507;2.1851;
984.3000;0.2556;2.1901;
984.6000;0.2515;2.1801;
984.9000;0.2532;2.1751;
985.2000;0.2507;2.1676;
985.5000;0.2418;2.1476;
985.8000;0.2572;2.1926;
986.1000;0.2515;2.1776;
986.4000;0.2515;2.1776;
986.7000;0.2507;2.1751;
987.0000;0.2515;2.1776;
987.3000;0.2450;2.1626;
987.6000;0.2458;2.1701;
987.9000;0.2515;2.1876;
988.2000;0.2483;2.1876;
988.5000;0.2523;2.1951;
988.8000;0.2556;2.2126;
989.1000;0.2515;2.2026;
989.4000;0.2466;2.1826;
989.7000;0.2580;2.2101;
990.0000;0.2442;2.1751;
990.3000;0.2507;2.1901;
990.6000;0.2491;2.1801;
990.9000;0.2483;2.1751;
991.2000;0.2523;2.1876;
991.5000;0.2491;2.1801;
991.8000;0.2442;2.1701;
992.1000;0.2507;2.1826;
992.4000;0.2589;2.1976;
992.7000;0.2515;2.1851;
993.0000;0.2515;2.1801;
993.3000;0.2515;2.1901;
993.6000;0.2507;2.1876;
993.9000;0.2491;2.1776;
994.2000;0.2499;2.1976;
994.5000;0.2491;2.2001;
994.8000;0.2499;2.2051;
995.1000;0.2523;2.2051;
995.4000;0.2483;2.1876;
995.7000;0.2499;2.1926;
996.0000;0.2499;2.1901;
996.3000;0.2499;2.1826;
996.6000;0.2483;2.1876;
996.9000;0.2515;2.2001;
997.2000;0.2483;2.1926;
997.5000;0.2532;2.2101;
997.8000;0.2385;2.1776;
998.1000;0.2442;2.1976;
998.4000;0.2466;2.2026;
998.7000;0.2515;2.2126;
999.0000;0.2483;2.1951;
999.3000;0.2466;2.1851;
999.6000;0.2507;2.1951;
999.9000;0.2507;2.2001;
1000.2000;0.2523;2.2051;
1000.5000;0.2499;2.1976;
1000.8000;0.2515;2.1976;
1001.1000;0.2507;2.1976;
1001.4000;0.2483;2.1976;
1001.7000;0.2499;2.2126;
1002.0000;0.2499;2.2126;
1002.3000;0.2507;2.2151;
1002.6000;0.2491;2.2026;
1002.9000;0.2532;2.2126;
1003.2000;0.2515;2.2076;
1003.5000;0.2507;2.2001;
1003.8000;0.2491;2.1851;
1004.1000;0.2483;2.1876;
1004.4000;0.2507;2.1926;
1004.7000;0.2580;2.2076;
1005.0000;0.2523;2.1951;
1005.3000;0.2515;2.1951;
1005.6000;0.2491;2.1926;
1005.9000;0.2450;2.1776;
1006.2000;0.2499;2.1876;
1006.5000;0.2507;2.1926;
1006.8000;0.2483;2.1901;
1007.1000;0.2426;2.1701;
1007.4000;0.2515;2.1876;
1007.7000;0.2499;2.1801;
1008.0000;0.2491;2.1826;
1008.3000;0.2548;2.1951;
1008.6000;0.2499;2.1701;
1008.9000;0.2605;2.1951;
1009.2000;0.2507;2.1776;
1009.5000;0.2434;2.1651;
1009.8000;0.2450;2.1826;
1010.1000;0.2499;2.2001;
1010.4000;0.2483;2.1951;
1010.7000;0.2507;2.2026;
1011.0000;0.2491;2.1976;
1011.3000;0.2499;2.1951;
1011.6000;0.2564;2.2176;
1011.9000;0.2450;2.1876;
1012.2000;0.2572;2.2101;
1012.5000;0.2507;2.1976;
1012.8000;0.2507;2.1926;
1013.1000;0.2507;2.2026;
1013.4000;0.2572;2.2227;
1013.7000;0.2483;2.2051;
1014.0000;0.2475;2.1951;
1014.3000;0.2491;2.1976;
1014.6000;0.2491;2.1851;
1014.9000;0.2475;2.1701;
1015.2000;0.2613;2.2051;
1015.5000;0.2475;2.1751;
1015.8000;0.2515;2.2001;
1016.1000;0.2507;2.1926;
1016.4000;0.2556;2.2026;
1016.7000;0.2507;2.1876;
1017.0000;0.2515;2.1776;
1017.3000;0.2507;2.1826;
1017.6000;0.2507;2.1851;
1017.9000;0.2540;2.2026;
1018.2000;0.2523;2.1951;
1018.5000;0.2499;2.1926;
1018.8000;0.2507;2.1951;
1019.1000;0.2556;2.2101;
1019.4000;0.2409;2.1826;
1019.7000;0.2515;2.2126;
1020.0000;0.2532;2.2202;
1020.3000;0.2458;2.2051;
1020.6000;0.2548;2.2277;
1020.9000;0.2507;2.2126;
1021.2000;0.2507;2.2202;
1021.5000;0.2605;2.2427;
1021.8000;0.2515;2.2126;
1022.1000;0.2499;2.2126;
1022.4000;0.2483;2.2026;
1022.7000;0.2507;2.2001;
1023.0000;0.2466;2.1851;
1023.3000;0.2483;2.1951;
1023.6000;0.2466;2.1876;
1023.9000;0.2450;2.1801;
1024.2000;0.2499;2.1926;
1024.5000;0.2507;2.1851;
1024.8000;0.2491;2.1801;
1025.1000;0.2475;2.1776;
1025.4000;0.2507;2.1926;
1025.7000;0.2532;2.2026;
1026.0000;0.2499;2.1976;
1026.3000;0.2532;2.1951;
1026.6000;0.2515;2.1851;
1026.9000;0.2491;2.1876;
1027.2000;0.2532;2.1976;
1027.5000;0.2507;2.1951;
1027.8000;0.2532;2.2001;
1028.1000;0.2483;2.1976;
1028.4000;0.2532;2.2176;
1028.7000;0.2507;2.2126;
1029.0000;0.2499;2.2126;
1029.3000;0.2491;2.2076;
1029.6000;0.2507;2.2126;
1029.9000;0.2507;2.2026;
1030.2000;0.2426;2.1826;
1030.5000;0.2507;2.2126;
1030.8000;0.2466;2.2051;
1031.1000;0.2499;2.2026;
1031.4000;0.2515;2.1976;
1031.7000;0.2515;2.2051;
1032.0000;0.2515;2.2126;
1032.3000;0.2507;2.2101;
1032.6000;0.2556;2.2277;
1032.9000;0.2491;2.2001;
1033.2000;0.2466;2.2001;
1033.5000;0.2499;2.2051;
1033.8000;0.2442;2.1976;
1034.1000;0.2483;2.2026;
1034.4000;0.2523;2.2126;
1034.7000;0.2499;2.2051;
1035.0000;0.2507;2.2001;
1035.3000;0.2548;2.2076;
1035.6000;0.2491;2.1901;
1035.9000;0.2475;2.1826;
1036.2000;0.2532;2.1851;
1036.5000;0.2491;2.1776;
1036.8000;0.2507;2.1876;
1037.1000;0.2491;2.1926;
1037.4000;0.2491;2.1976;
1037.7000;0.2507;2.2126;
1038.0000;0.2515;2.2202;
1038.3000;0.2466;2.2051;
1038.6000;0.2507;2.2051;
1038.9000;0.2491;2.2026;
1039.2000;0.2605;2.2327;
1039.5000;0.2515;2.2026;
1039.8000;0.2572;2.2176;
1040.1000;0.2499;2.1976;
1040.4000;0.2597;2.2327;
1040.7000;0.2507;2.2001;
1041.0000;0.2507;2.2151;
1041.3000;0.2507;2.2151;
1041.6000;0.2523;2.2277;
1041.9000;0.2499;2.2327;
1042.2000;0.2507;2.2277;
1042.5000;0.2507;2.2202;
1042.8000;0.2483;2.2126;
1043.1000;0.2507;2.2151;
1043.4000;0.2532;2.2202;
1043.7000;0.2491;2.1951;
1044.0000;0.2515;2.2026;
1044.3000;0.2532;2.2001;
1044.6000;0.2507;2.2001;
1044.9000;0.2499;2.2151;
1045.2000;0.2483;2.2202;
1045.5000;0.2532;2.2227;
1045.8000;0.2507;2.2176;
1046.1000;0.2483;2.2101;
1046.4000;0.2491;2.2076;
1046.7000;0.2507;2.2126;
1047.0000;0.2507;2.2176;
1047.3000;0.2540;2.2252;
1047.6000;0.2507;2.2101;
1047.9000;0.2540;2.2101;
1048.2000;0.2491;2.1926;
1048.5000;0.2515;2.2001;
1048.8000;0.2523;2.2026;
1049.1000;0.2613;2.2302;
1049.4000;0.2466;2.1951;
1049.7000;0.2507;2.2076;
1050.0000;0.2507;2.2051;
1050.3000;0.2515;2.2151;
1050.6000;0.2499;2.2202;
1050.9000;0.2483;2.2126;
1051.2000;0.2491;2.2176;
1051.5000;0.2605;2.2327;
1051.8000;0.2491;2.2051;
1052.1000;0.2409;2.1901;
1052.4000;0.2507;2.2277;
1052.7000;0.2515;2.2252;
1053.0000;0.2475;2.2202;
1053.3000;0.2499;2.2277;
1053.6000;0.2613;2.2527;
1053.9000;0.2507;2.2277;
1054.2000;0.2458;2.2051;
1054.5000;0.2507;2.2202;
1054.8000;0.2532;2.2252;
1055.1000;0.2507;2.2151;
1055.4000;0.2499;2.2151;
1055.7000;0.2499;2.2202;
1056.0000;0.2499;2.2227;
1056.3000;0.2450;2.2126;
1056.6000;0.2483;2.2252;
1056.9000;0.2532;2.2252;
1057.2000;0.2523;2.2302;
1057.5000;0.2532;2.2352;
1057.8000;0.2369;2.1901;
1058.1000;0.2523;2.2202;
1058.4000;0.2475;2.2101;
1058.7000;0.2556;2.2327;
1059.0000;0.2515;2.2151;
1059.3000;0.2515;2.2101;
1059.6000;0.2523;2.2051;
1059.9000;0.2523;2.2001;
1060.2000;0.2491;2.1951;
1060.5000;0.2491;2.1926;
1060.8000;0.2507;2.1926;
1061.1000;0.2507;2.1901;
1061.4000;0.2483;2.1826;
1061.7000;0.2507;2.1926;
1062.0000;0.2483;2.1851;
1062.3000;0.2515;2.1976;
1062.6000;0.2483;2.1901;
1062.9000;0.2532;2.2026;
1063.2000;0.2507;2.1976;
1063.5000;0.2507;2.1976;
1063.8000;0.2523;2.2051;
1064.1000;0.2458;2.1901;
1064.4000;0.2499;2.1976;
1064.7000;0.2499;2.1876;
1065.0000;0.2499;2.1951;
1065.3000;0.2523;2.1976;
1065.6000;0.2483;2.1951;
1065.9000;0.2523;2.2051;
1066.2000;0.2515;2.2001;
1066.5000;0.2499;2.2026;
1066.8000;0.2515;2.1976;
1067.1000;0.2507;2.1976;
1067.4000;0.2532;2.2026;
1067.7000;0.2491;2.1801;
1068.0000;0.2515;2.1926;
1068.3000;0.2499;2.1901;
1068.6000;0.2515;2.1901;
1068.9000;0.2540;2.2001;
1069.2000;0.2401;2.1601;
1069.5000;0.2646;2.2377;
1069.8000;0.2507;2.1901;
1070.1000;0.2507;2.1951;
1070.4000;0.2466;2.1901;
1070.7000;0.2507;2.2001;
1071.0000;0.2507;2.2051;
1071.3000;0.2532;2.2252;
1071.6000;0.2507;2.2151;
1071.9000;0.2540;2.2176;
1072.2000;0.2466;2.2001;
1072.5000;0.2515;2.2076;
1072.8000;0.2532;2.2227;
1073.1000;0.2532;2.2252;
1073.4000;0.2507;2.2126;
1073.7000;0.2507;2.2151;
1074.0000;0.2442;2.1951;
1074.3000;0.2507;2.2101;
1074.6000;0.2507;2.2026;
1074.9000;0.2507;2.2151;
1075.2000;0.2499;2.2151;
1075.5000;0.2507;2.2151;
1075.8000;0.2523;2.2176;
1076.1000;0.2507;2.2202;
1076.4000;0.2483;2.2051;
1076.7000;0.2532;2.2126;
1077.0000;0.2507;2.2076;
1077.3000;0.2532;2.2101;
1077.6000;0.2564;2.2252;
1077.9000;0.2515;2.2101;
1078.2000;0.2564;2.2202;
1078.5000;0.2450;2.1926;
1078.8000;0.2499;2.2051;
1079.1000;0.2369;2.1626;
1079.4000;0.2499;2.1976;
1079.7000;0.2426;2.1776;
1080.0000;0.2532;2.2051;
1080.3000;0.2532;2.2076;
1080.6000;0.2401;2.1676;
1080.9000;0.2499;2.2001;
1081.2000;0.2507;2.2076;
1081.5000;0.2556;2.2252;
1081.8000;0.2507;2.2176;
1082.1000;0.2499;2.2227;
1082.4000;0.2442;2.2176;
1082.7000;0.2499;2.2252;
1083.0000;0.2540;2.2352;
1083.3000;0.2507;2.2176;
1083.6000;0.2532;2.2202;
1083.9000;0.2515;2.2176;
1084.2000;0.2491;2.2101;
1084.5000;0.2507;2.2076;
1084.8000;0.2491;2.2101;
1085.1000;0.2597;2.2302;
1085.4000;0.2515;2.2001;
1085.7000;0.2523;2.2051;
1086.0000;0.2475;2.1951;
1086.3000;0.2418;2.1676;
1086.6000;0.2515;2.1901;
1086.9000;0.2532;2.1951;
1087.2000;0.2491;2.1776;
1087.5000;0.2507;2.1851;
1087.8000;0.2548;2.1976;
1088.1000;0.2515;2.2001;
1088.4000;0.2515;2.2076;
1088.7000;0.2491;2.2076;
1089.0000;0.2515;2.2176;
1089.3000;0.2523;2.2252;
1089.6000;0.2491;2.2202;
1089.9000;0.2532;2.2252;
1090.2000;0.2572;2.2327;
1090.5000;0.2523;2.2176;
1090.8000;0.2564;2.2277;
1091.1000;0.2572;2.2202;
1091.4000;0.2540;2.2101;
1091.7000;0.2540;2.2051;
1092.0000;0.2442;2.1801;
1092.3000;0.2507;2.2026;
1092.6000;0.2483;2.2051;
1092.9000;0.2523;2.2051;
1093.2000;0.2548;2.2176;
1093.5000;0.2450;2.1951;
1093.8000;0.2499;2.2126;
1094.1000;0.2507;2.2101;
1094.4000;0.2483;2.2001;
1094.7000;0.2483;2.2051;
1095.0000;0.2483;2.2026;
1095.3000;0.2515;2.2001;
1095.6000;0.2654;2.2402;
1095.9000;0.2491;2.1901;
1096.2000;0.2426;2.1726;
1096.5000;0.2523;2.1951;
1096.8000;0.2523;2.2051;
1097.1000;0.2515;2.2076;
1097.4000;0.2507;2.2151;
1097.7000;0.2540;2.2176;
1098.0000;0.2499;2.2026;
1098.3000;0.2507;2.1976;
1098.6000;0.2491;2.2001;
1098.9000;0.2409;2.1851;
1099.2000;0.2507;2.2277;
1099.5000;0.2507;2.2151;
1099.8000;0.2483;2.2051;
1100.1000;0.2475;2.2001;
1100.4000;0.2548;2.2227;
1100.7000;0.2507;2.2176;
1101.0000;0.2507;2.2252;
1101.3000;0.2499;2.2151;
1101.6000;0.2515;2.2101;
1101.9000;0.2499;2.2051;
1102.2000;0.2507;2.2001;
1102.5000;0.2507;2.2001;
1102.8000;0.2515;2.2051;
1103.1000;0.2532;2.2151;
1103.4000;0.2515;2.2076;
1103.7000;0.2507;2.2051;
1104.0000;0.2491;2.2051;
1104.3000;0.2466;2.2051;
1104.6000;0.2523;2.2252;
1104.9000;0.2483;2.2101;
1105.2000;0.2499;2.2101;
1105.5000;0.2442;2.1926;
1105.8000;0.2475;2.2001;
1106.1000;0.2491;2.2076;
1106.4000;0.2523;2.2026;
1106.7000;0.2572;2.2176;
1107.0000;0.2483;2.1951;
1107.3000;0.2548;2.2101;
1107.6000;0.2532;2.2026;
1107.9000;0.2515;2.2026;
1108.2000;0.2605;2.2277;
1108.5000;0.2523;2.2101;
1108.8000;0.2499;2.2051;
1109.1000;0.2548;2.2202;
1109.4000;0.2515;2.2101;
1109.7000;0.2532;2.2126;
1110.0000;0.2491;2.2076;
1110.3000;0.2483;2.2176;
1110.6000;0.2507;2.2151;
1110.9000;0.2532;2.2126;
1111.2000;0.2499;2.2051;
1111.5000;0.2532;2.2026;
1111.8000;0.2507;2.1951;
1112.1000;0.2499;2.2001;
1112.4000;0.2458;2.1926;
1112.7000;0.2523;2.2076;
1113.0000;0.2556;2.2001;
1113.3000;0.2548;2.2026;
1113.6000;0.2523;2.2051;
1113.9000;0.2483;2.1976;
1114.2000;0.2499;2.2001;
1114.5000;0.2507;2.1976;
1114.8000;0.2483;2.1901;
1115.1000;0.2491;2.1951;
1115.4000;0.2499;2.2001;
1115.7000;0.2507;2.2051;
1116.0000;0.2466;2.2101;
1116.3000;0.2532;2.2252;
1116.6000;0.2507;2.2101;
1116.9000;0.2540;2.2277;
1117.2000;0.2475;2.2051;
1117.5000;0.2466;2.1976;
1117.8000;0.2434;2.1976;
1118.1000;0.2556;2.2227;
1118.4000;0.2515;2.2126;
1118.7000;0.2532;2.2202;
1119.0000;0.2515;2.2227;
1119.3000;0.2515;2.2252;
1119.6000;0.2466;2.2001;
1119.9000;0.2499;2.2126;
1120.2000;0.2499;2.2101;
1120.5000;0.2499;2.2126;
1120.8000;0.2483;2.2076;
1121.1000;0.2499;2.2126;
1121.4000;0.2491;2.2051;
1121.7000;0.2491;2.2026;
1122.0000;0.2523;2.2126;
1122.3000;0.2556;2.2327;
1122.6000;0.2532;2.2227;
1122.9000;0.2499;2.2151;
1123.2000;0.2507;2.2252;
1123.5000;0.2499;2.2151;
1123.8000;0.2540;2.2277;
1124.1000;0.2483;2.2101;
1124.4000;0.2548;2.2252;
1124.7000;0.2458;2.2001;
1125.0000;0.2532;2.2126;
1125.3000;0.2499;2.2076;
1125.6000;0.2491;2.2026;
1125.9000;0.2556;2.2126;
1126.2000;0.2515;2.2026;
1126.5000;0.2499;2.1976;
1126.8000;0.2483;2.1926;
1127.1000;0.2523;2.2051;
1127.4000;0.2515;2.2001;
1127.7000;0.2646;2.2277;
1128.0000;0.2605;2.2176;
1128.3000;0.2548;2.2151;
1128.6000;0.2589;2.2277;
1128.9000;0.2532;2.2202;
1129.2000;0.2466;2.2076;
1129.5000;0.2491;2.2151;
1129.8000;0.2499;2.2126;
1130.1000;0.2475;2.2051;
1130.4000;0.2491;2.2076;
1130.7000;0.2515;2.2076;
1131.0000;0.2499;2.2051;
1131.3000;0.2548;2.2252;
1131.6000;0.2515;2.2176;
1131.9000;0.2499;2.2126;
1132.2000;0.2556;2.2277;
1132.5000;0.2515;2.2076;
1132.8000;0.2499;2.2001;
1133.1000;0.2515;2.2076;
1133.4000;0.2621;2.2327;
1133.7000;0.2515;2.2176;
1134.0000;0.2523;2.2101;
1134.3000;0.2515;2.2101;
1134.6000;0.2483;2.2026;
1134.9000;0.2515;2.2076;
1135.2000;0.2523;2.2076;
1135.5000;0.2450;2.1876;
1135.8000;0.2483;2.1926;
1136.1000;0.2532;2.2126;
1136.4000;0.2515;2.2076;
1136.7000;0.2499;2.2026;
1137.0000;0.2491;2.2076;
1137.3000;0.2507;2.2076;
1137.6000;0.2515;2.2051;
1137.9000;0.2564;2.2202;
1138.2000;0.2532;2.2126;
1138.5000;0.2515;2.2101;
1138.8000;0.2418;2.1751;
1139.1000;0.2442;2.1801;
1139.4000;0.2483;2.1976;
1139.7000;0.2515;2.2051;
1140.0000;0.2523;2.1951;
1140.3000;0.2515;2.1951;
1140.6000;0.2491;2.1951;
1140.9000;0.2507;2.1976;
1141.2000;0.2491;2.1801;
1141.5000;0.2515;2.1901;
1141.8000;0.2605;2.2151;
1142.1000;0.2499;2.1801;
1142.4000;0.2532;2.1826;
1142.7000;0.2491;2.1676;
1143.0000;0.2499;2.1776;
1143.3000;0.2589;2.2101;
1143.6000;0.2475;2.1851;
1143.9000;0.2523;2.2001;
1144.2000;0.2515;2.1951;
1144.5000;0.2499;2.1926;
1144.8000;0.2499;2.1851;
1145.1000;0.2515;2.1826;
1145.4000;0.2515;2.1826;
1145.7000;0.2580;2.2001;
1146.0000;0.2507;2.1776;
1146.3000;0.2426;2.1626;
1146.6000;0.2507;2.1801;
1146.9000;0.2475;2.1626;
1147.2000;0.2483;2.1651;
1147.5000;0.2507;2.1826;
1147.8000;0.2572;2.1951;
1148.1000;0.2499;2.1801;
1148.4000;0.2507;2.1826;
1148.7000;0.2491;2.1776;
1149.0000;0.2540;2.1901;
1149.3000;0.2507;2.1776;
1149.6000;0.2523;2.1726;
1149.9000;0.2507;2.1776;
1150.2000;0.2515;2.1876;
1150.5000;0.2515;2.1926;
1150.8000;0.2597;2.2202;
1151.1000;0.2507;2.1926;
1151.4000;0.2515;2.1901;
1151.7000;0.2450;2.1801;
1152.0000;0.2507;2.1976;
1152.3000;0.2385;2.1651;
1152.6000;0.2466;2.1901;
1152.9000;0.2523;2.2026;
1153.2000;0.2507;2.2076;
1153.5000;0.2523;2.2277;
1153.8000;0.2580;2.2477;
1154.1000;0.2532;2.2427;
1154.4000;0.2580;2.2502;
1154.7000;0.2475;2.2126;
1155.0000;0.2507;2.2227;
1155.3000;0.2629;2.2477;
1155.6000;0.2450;2.1976;
1155.9000;0.2491;2.2051;
1156.2000;0.2491;2.2026;
1156.5000;0.2507;2.2051;
1156.8000;0.2499;2.1951;
1157.1000;0.2483;2.2051;
1157.4000;0.2532;2.2151;
1157.7000;0.2409;2.1776;
1158.0000;0.2532;2.2026;
1158.3000;0.2564;2.2176;
1158.6000;0.2540;2.2051;
1158.9000;0.2523;2.2001;
1159.2000;0.2507;2.1976;
1159.5000;0.2458;2.1851;
1159.8000;0.2466;2.1876;
1160.1000;0.2499;2.1901;
1160.4000;0.2515;2.1876;
1160.7000;0.2507;2.1926;
1161.0000;0.2572;2.2051;
1161.3000;0.2491;2.1851;
1161.6000;0.2507;2.1851;
1161.9000;0.2540;2.1901;
1162.2000;0.2434;2.1626;
1162.5000;0.2523;2.1976;
1162.8000;0.2499;2.1851;
1163.1000;0.2515;2.1851;
1163.4000;0.2491;2.1876;
1163.7000;0.2589;2.2202;
1164.0000;0.2515;2.2026;
1164.3000;0.2491;2.2026;
1164.6000;0.2483;2.2151;
1164.9000;0.2499;2.2202;
1165.2000;0.2532;2.2252;
1165.5000;0.2491;2.2227;
1165.8000;0.2507;2.2202;
1166.1000;0.2523;2.2176;
1166.4000;0.2458;2.1976;
1166.7000;0.2515;2.2227;
1167.0000;0.2532;2.2227;
1167.3000;0.2564;2.2402;
1167.6000;0.2580;2.2327;
1167.9000;0.2499;2.2126;
1168.2000;0.2491;2.2126;
1168.5000;0.2466;2.2026;
1168.8000;0.2515;2.2076;
1169.1000;0.2491;2.1976;
1169.4000;0.2499;2.2026;
1169.7000;0.2507;2.2101;
1170.0000;0.2580;2.2302;
1170.3000;0.2507;2.2001;
1170.6000;0.2377;2.1701;
1170.9000;0.2401;2.1776;
1171.2000;0.2499;2.2051;
1171.5000;0.2515;2.2076;
1171.8000;0.2499;2.2076;
1172.1000;0.2523;2.2227;
1172.4000;0.2491;2.2151;
1172.7000;0.2507;2.2026;
1173.0000;0.2515;2.1926;
1173.3000;0.2515;2.1926;
1173.6000;0.2515;2.1876;
1173.9000;0.2540;2.2026;
1174.2000;0.2523;2.1951;
1174.5000;0.2466;2.1801;
1174.8000;0.2507;2.1926;
1175.1000;0.2507;2.1976;
1175.4000;0.2523;2.1926;
1175.7000;0.2532;2.2051;
1176.0000;0.2483;2.1976;
1176.3000;0.2491;2.1976;
1176.6000;0.2499;2.2026;
1176.9000;0.2523;2.2126;
1177.2000;0.2515;2.2202;
1177.5000;0.2483;2.2151;
1177.8000;0.2507;2.2101;
1178.1000;0.2515;2.2176;
1178.4000;0.2605;2.2277;
1178.7000;0.2523;2.2026;
1179.0000;0.2507;2.1851;
1179.3000;0.2523;2.1851;
1179.6000;0.2450;2.1676;
1179.9000;0.2499;2.1751;
1180.2000;0.2499;2.1876;
1180.5000;0.2523;2.1876;
1180.8000;0.2458;2.1726;
1181.1000;0.2507;2.1951;
1181.4000;0.2507;2.1976;
1181.7000;0.2548;2.2126;
1182.0000;0.2466;2.1926;
1182.3000;0.2515;2.2051;
1182.6000;0.2515;2.2026;
1182.9000;0.2548;2.2076;
1183.2000;0.2532;2.2076;
1183.5000;0.2491;2.1951;
1183.8000;0.2491;2.1926;
1184.1000;0.2499;2.1901;
1184.4000;0.2515;2.2001;
1184.7000;0.2483;2.1901;
1185.0000;0.2523;2.1976;
1185.3000;0.2532;2.1976;
1185.6000;0.2532;2.1976;
1185.9000;0.2483;2.1826;
1186.2000;0.2491;2.1851;
1186.5000;0.2532;2.1926;
1186.8000;0.2564;2.2126;
1187.1000;0.2483;2.1851;
1187.4000;0.2515;2.1926;
1187.7000;0.2507;2.1901;
1188.0000;0.2540;2.1976;
1188.3000;0.2475;2.1751;
1188.6000;0.2491;2.1826;
1188.9000;0.2507;2.1901;
1189.2000;0.2499;2.1851;
1189.5000;0.2491;2.1851;
1189.8000;0.2491;2.1876;
1190.1000;0.2515;2.1976;
1190.4000;0.2491;2.1901;
1190.7000;0.2483;2.1851;
1191.0000;0.2426;2.1776;
1191.3000;0.2532;2.2101;
1191.6000;0.2556;2.2126;
1191.9000;0.2491;2.2101;
1192.2000;0.2499;2.2051;
1192.5000;0.2548;2.2176;
1192.8000;0.2515;2.2076;
1193.1000;0.2491;2.2101;
1193.4000;0.2507;2.2126;
1193.7000;0.2540;2.2252;
1194.0000;0.2491;2.2076;
1194.3000;0.2532;2.2202;
1194.6000;0.2426;2.1901;
1194.9000;0.2499;2.2001;
1195.2000;0.2466;2.1926;
1195.5000;0.2499;2.2026;
1195.8000;0.2507;2.2026;
1196.1000;0.2475;2.2001;
1196.4000;0.2540;2.2126;
1196.7000;0.2499;2.2026;
1197.0000;0.2499;2.2126;
1197.3000;0.2507;2.2202;
1197.6000;0.2515;2.2202;
1197.9000;0.2499;2.2202;
1198.2000;0.2515;2.2227;
1198.5000;0.2499;2.2227;
1198.8000;0.2491;2.2101;
1199.1000;0.2523;2.2126;
1199.4000;0.2589;2.2252;
1199.7000;0.2499;2.2001;
1200.0000;0.2523;2.2101;
1200.3000;0.2523;2.2176;
1200.6000;0.2499;2.2076;
1200.9000;0.2499;2.2026;
1201.2000;0.2515;2.2001;
1201.5000;0.2507;2.2026;
1201.8000;0.2515;2.2026;
1202.1000;0.2507;2.1976;
1202.4000;0.2475;2.1926;
1202.7000;0.2507;2.2101;
1203.0000;0.2507;2.2051;
1203.3000;0.2515;2.1951;
1203.6000;0.2442;2.1751;
1203.9000;0.2507;2.1826;
1204.2000;0.2499;2.1801;
1204.5000;0.2475;2.1701;
1204.8000;0.2491;2.1751;
1205.1000;0.2532;2.1801;
1205.4000;0.2548;2.1901;
1205.7000;0.2572;2.1926;
1206.0000;0.2434;2.1601;
1206.3000;0.2499;2.1851;
1206.6000;0.2466;2.1701;
1206.9000;0.2491;2.1776;
1207.2000;0.2613;2.2001;
1207.5000;0.2523;2.1651;
1207.8000;0.2499;2.1651;
1208.1000;0.2515;2.1676;
1208.4000;0.2507;2.1726;
1208.7000;0.2532;2.1851;
1209.0000;0.2507;2.1851;
1209.3000;0.2483;2.1876;
1209.6000;0.2450;2.1751;
1209.9000;0.2523;2.1976;
1210.2000;0.2515;2.1901;
1210.5000;0.2458;2.1801;
1210.8000;0.2499;2.1926;
1211.1000;0.2515;2.1951;
1211.4000;0.2532;2.1976;
1211.7000;0.2434;2.1751;
1212.0000;0.2491;2.1851;
1212.3000;0.2483;2.1801;
1212.6000;0.2515;2.1801;
1212.9000;0.2507;2.1751;
1213.2000;0.2523;2.1876;
1213.5000;0.2523;2.1901;
1213.8000;0.2499;2.1926;
1214.1000;0.2507;2.1976;
1214.4000;0.2491;2.2026;
1214.7000;0.2515;2.2101;
1215.0000;0.2491;2.2026;
1215.3000;0.2475;2.2001;
1215.6000;0.2491;2.2001;
1215.9000;0.2507;2.2051;
1216.2000;0.2499;2.2001;
1216.5000;0.2507;2.1926;
1216.8000;0.2434;2.1776;
1217.1000;0.2450;2.1851;
1217.4000;0.2491;2.1851;
1217.7000;0.2475;2.1801;
1218.0000;0.2532;2.1976;
1218.3000;0.2434;2.1676;
1218.6000;0.2507;2.1776;
1218.9000;0.2540;2.1851;
1219.2000;0.2491;2.1776;
1219.5000;0.2564;2.2026;
1219.8000;0.2499;2.1876;
1220.1000;0.2450;2.1776;
1220.4000;0.2507;2.1826;
1220.7000;0.2499;2.1776;
1221.0000;0.2540;2.1876;
1221.3000;0.2515;2.1876;
1221.6000;0.2523;2.1976;
1221.9000;0.2507;2.1876;
1222.2000;0.2507;2.1951;
1222.5000;0.2499;2.1926;
1222.8000;0.2499;2.1776;
1223.1000;0.2523;2.1801;
1223.4000;0.2499;2.1826;
1223.7000;0.2540;2.2001;
1224.0000;0.2507;2.1926;
1224.3000;0.2523;2.1876;
1224.6000;0.2483;2.1826;
1224.9000;0.2515;2.1876;
1225.2000;0.2597;2.2151;
1225.5000;0.2589;2.2026;
1225.8000;0.2507;2.1826;
1226.1000;0.2564;2.2076;
1226.4000;0.2507;2.1976;
1226.7000;0.2515;2.2001;
1227.0000;0.2507;2.2126;
1227.3000;0.2507;2.2101;
1227.6000;0.2523;2.2101;
1227.9000;0.2434;2.1801;
1228.2000;0.2507;2.1951;
1228.5000;0.2515;2.2051;
1228.8000;0.2450;2.1926;
1229.1000;0.2540;2.2202;
1229.4000;0.2523;2.2227;
1229.7000;0.2507;2.2151;
1230.0000;0.2499;2.2176;
1230.3000;0.2491;2.2101;
1230.6000;0.2499;2.2101;
1230.9000;0.2515;2.2176;
1231.2000;0.2548;2.2176;
1231.5000;0.2475;2.1926;
1231.8000;0.2499;2.1926;
1232.1000;0.2507;2.1826;
1232.4000;0.2515;2.1851;
1232.7000;0.2613;2.2227;
1233.0000;0.2475;2.1976;
1233.3000;0.2466;2.1976;
1233.6000;0.2564;2.2202;
1233.9000;0.2507;2.2026;
1234.2000;0.2515;2.2001;
1234.5000;0.2442;2.1726;
1234.8000;0.2548;2.2026;
1235.1000;0.2532;2.1976;
1235.4000;0.2483;2.1851;
1235.7000;0.2499;2.1926;
1236.0000;0.2499;2.2026;
1236.3000;0.2515;2.2126;
1236.6000;0.2580;2.2327;
1236.9000;0.2491;2.2076;
1237.2000;0.2499;2.2101;
1237.5000;0.2515;2.2101;
1237.8000;0.2532;2.2252;
1238.1000;0.2523;2.2227;
1238.4000;0.2515;2.2302;
1238.7000;0.2507;2.2252;
1239.0000;0.2515;2.2202;
1239.3000;0.2499;2.2227;
1239.6000;0.2491;2.2202;
1239.9000;0.2450;2.1951;
1240.2000;0.2523;2.2151;
1240.5000;0.2540;2.2202;
1240.8000;0.2483;2.2101;
1241.1000;0.2491;2.2202;
1241.4000;0.2483;2.2227;
1241.7000;0.2572;2.2352;
1242.0000;0.2401;2.1851;
1242.3000;0.2556;2.2302;
1242.6000;0.2515;2.2277;
1242.9000;0.2483;2.2202;
1243.2000;0.2523;2.2202;
1243.5000;0.2515;2.2252;
1243.8000;0.2483;2.2176;
1244.1000;0.2507;2.2252;
1244.4000;0.2507;2.2252;
1244.7000;0.2507;2.2176;
1245.0000;0.2369;2.1776;
1245.3000;0.2556;2.2277;
1245.6000;0.2572;2.2327;
1245.9000;0.2507;2.2126;
1246.2000;0.2442;2.2051;
1246.5000;0.2523;2.2252;
1246.8000;0.2507;2.2176;
1247.1000;0.2507;2.2151;
1247.4000;0.2499;2.2176;
1247.7000;0.2499;2.2202;
1248.0000;0.2499;2.2227;
1248.3000;0.2499;2.2252;
1248.6000;0.2499;2.2277;
1248.9000;0.2515;2.2327;
1249.2000;0.2621;2.2552;
1249.5000;0.2515;2.2302;
1249.8000;0.2491;2.2277;
1250.1000;0.2540;2.2252;
1250.4000;0.2499;2.2051;
1250.7000;0.2475;2.1976;
1251.0000;0.2499;2.2101;
1251.3000;0.2507;2.2176;
1251.6000;0.2499;2.2051;
1251.9000;0.2507;2.2101;
1252.2000;0.2515;2.2126;
1252.5000;0.2515;2.2101;
1252.8000;0.2532;2.2101;
1253.1000;0.2532;2.2076;
1253.4000;0.2523;2.2026;
1253.7000;0.2507;2.1951;
1254.0000;0.2426;2.1826;
1254.3000;0.2515;2.2076;
1254.6000;0.2523;2.2076;
1254.9000;0.2491;2.2051;
1255.2000;0.2515;2.2076;
1255.5000;0.2426;2.1926;
1255.8000;0.2434;2.1926;
1256.1000;0.2450;2.1926;
1256.4000;0.2515;2.1976;
1256.7000;0.2597;2.2176;
1257.0000;0.2621;2.2151;
1257.3000;0.2491;2.1826;
1257.6000;0.2426;2.1676;
1257.9000;0.2507;2.1926;
1258.2000;0.2507;2.1901;
1258.5000;0.2483;2.1801;
1258.8000;0.2532;2.1926;
1259.1000;0.2515;2.1926;
1259.4000;0.2515;2.1926;
1259.7000;0.2564;2.2051;
1260.0000;0.2483;2.1876;
1260.3000;0.2483;2.1951;
1260.6000;0.2515;2.1976;
1260.9000;0.2401;2.1701;
1261.2000;0.2483;2.1776;
1261.5000;0.2491;2.1876;
1261.8000;0.2507;2.1901;
1262.1000;0.2532;2.2101;
1262.4000;0.2442;2.1726;
1262.7000;0.2491;2.1876;
1263.0000;0.2515;2.2076;
1263.3000;0.2483;2.2051;
1263.6000;0.2523;2.2101;
1263.9000;0.2564;2.2277;
1264.2000;0.2515;2.2126;
1264.5000;0.2605;2.2427;
1264.8000;0.2556;2.2202;
1265.1000;0.2613;2.2327;
1265.4000;0.2597;2.2302;
1265.7000;0.2499;2.2076;
1266.0000;0.2499;2.2101;
1266.3000;0.2491;2.2076;
1266.6000;0.2483;2.2126;
1266.9000;0.2580;2.2352;
1267.2000;0.2540;2.2101;
1267.5000;0.2515;2.2026;
1267.8000;0.2532;2.2126;
1268.1000;0.2515;2.2101;
1268.4000;0.2532;2.2151;
1268.7000;0.2523;2.2126;
1269.0000;0.2450;2.1926;
1269.3000;0.2532;2.2151;
1269.6000;0.2523;2.2227;
1269.9000;0.2442;2.2026;
1270.2000;0.2466;2.2026;
1270.5000;0.2507;2.2202;
1270.8000;0.2548;2.2277;
1271.1000;0.2483;2.2126;
1271.4000;0.2523;2.2126;
1271.7000;0.2507;2.2126;
1272.0000;0.2540;2.2227;
1272.3000;0.2629;2.2377;
1272.6000;0.2532;2.2101;
1272.9000;0.2450;2.1901;
1273.2000;0.2515;2.2051;
1273.5000;0.2532;2.2051;
1273.8000;0.2523;2.2051;
1274.1000;0.2515;2.2051;
1274.4000;0.2515;2.2101;
1274.7000;0.2499;2.2051;
1275.0000;0.2532;2.2126;
1275.3000;0.2499;2.2126;
1275.6000;0.2532;2.2227;
1275.9000;0.2515;2.2277;
1276.2000;0.2499;2.2151;
1276.5000;0.2515;2.2151;
1276.8000;0.2450;2.2026;
1277.1000;0.2523;2.2202;
1277.4000;0.2499;2.2101;
1277.7000;0.2515;2.2101;
1278.0000;0.2442;2.1901;
1278.3000;0.2483;2.1976;
1278.6000;0.2418;2.1751;
1278.9000;0.2499;2.1926;
1279.2000;0.2515;2.1951;
1279.5000;0.2548;2.1951;
1279.8000;0.2499;2.1901;
1280.1000;0.2499;2.1951;
1280.4000;0.2483;2.2001;
1280.7000;0.2499;2.2026;
1281.0000;0.2515;2.2026;
1281.3000;0.2483;2.2026;
1281.6000;0.2572;2.2252;
1281.9000;0.2499;2.1976;
1282.2000;0.2507;2.2076;
1282.5000;0.2532;2.2202;
1282.8000;0.2523;2.2076;
1283.1000;0.2483;2.1876;
1283.4000;0.2507;2.2001;
1283.7000;0.2507;2.1951;
1284.0000;0.2466;2.1851;
1284.3000;0.2523;2.1951;
1284.6000;0.2532;2.2001;
1284.9000;0.2556;2.2176;
1285.2000;0.2483;2.2101;
1285.5000;0.2523;2.2202;
1285.8000;0.2532;2.2151;
1286.1000;0.2466;2.2001;
1286.4000;0.2523;2.2126;
1286.7000;0.2507;2.2176;
1287.0000;0.2507;2.2202;
1287.3000;0.2523;2.2252;
1287.6000;0.2483;2.2101;
1287.9000;0.2523;2.2227;
1288.2000;0.2499;2.2151;
1288.5000;0.2475;2.2001;
1288.8000;0.2523;2.2101;
1289.1000;0.2540;2.2126;
1289.4000;0.2515;2.2051;
1289.7000;0.2499;2.2051;
1290.0000;0.2523;2.2151;
1290.3000;0.2507;2.2176;
1290.6000;0.2491;2.2076;
1290.9000;0.2483;2.2026;
1291.2000;0.2499;2.2076;
1291.5000;0.2499;2.2026;
1291.8000;0.2515;2.2126;
1292.1000;0.2507;2.2101;
1292.4000;0.2483;2.2051;
1292.7000;0.2515;2.2126;
1293.0000;0.2475;2.2076;
1293.3000;0.2499;2.2151;
1293.6000;0.2515;2.2202;
1293.9000;0.2515;2.2227;
1294.2000;0.2548;2.2277;
1294.5000;0.2507;2.2176;
1294.8000;0.2507;2.2101;
1295.1000;0.2532;2.2202;
1295.4000;0.2385;2.1801;
1295.7000;0.2515;2.2202;
1296.0000;0.2515;2.2176;
1296.3000;0.2499;2.2227;
1296.6000;0.2523;2.2202;
1296.9000;0.2589;2.2302;
1297.2000;0.2483;2.2101;
1297.5000;0.2515;2.2076;
1297.8000;0.2654;2.2452;
1298.1000;0.2523;2.2076;
1298.4000;0.2466;2.1976;
1298.7000;0.2532;2.2101;
1299.0000;0.2515;2.2001;
1299.3000;0.2499;2.1976;
1299.6000;0.2507;2.2026;
1299.9000;0.2515;2.2026;
1300.2000;0.2532;2.1976;
1300.5000;0.2532;2.2026;
1300.8000;0.2523;2.2026;
1301.1000;0.2556;2.2076;
1301.4000;0.2499;2.1851;
1301.7000;0.2523;2.1926;
1302.0000;0.2507;2.1776;
1302.3000;0.2491;2.1851;
1302.6000;0.2540;2.2026;
1302.9000;0.2507;2.1901;
1303.2000;0.2515;2.2001;
1303.5000;0.2532;2.2026;
1303.8000;0.2515;2.1951;
1304.1000;0.2491;2.1876;
1304.4000;0.2491;2.2001;
1304.7000;0.2589;2.2227;
1305.0000;0.2556;2.2076;
1305.3000;0.2515;2.1876;
1305.6000;0.2515;2.1876;
1305.9000;0.2523;2.1951;
1306.2000;0.2540;2.2026;
1306.5000;0.2515;2.2101;
1306.8000;0.2507;2.2051;
1307.1000;0.2491;2.2001;
1307.4000;0.2532;2.2051;
1307.7000;0.2523;2.1951;
1308.0000;0.2499;2.1901;
1308.3000;0.2491;2.1901;
1308.6000;0.2532;2.1851;
1308.9000;0.2507;2.1776;
1309.2000;0.2458;2.1676;
1309.5000;0.2491;2.1876;
1309.8000;0.2507;2.1901;
1310.1000;0.2393;2.1601;
1310.4000;0.2499;2.1926;
1310.7000;0.2499;2.1926;
1311.0000;0.2499;2.1926;
1311.3000;0.2556;2.2101;
1311.6000;0.2507;2.2076;
1311.9000;0.2515;2.2101;
1312.2000;0.2532;2.2076;
1312.5000;0.2491;2.1951;
1312.8000;0.2540;2.2051;
1313.1000;0.2507;2.2026;
1313.4000;0.2393;2.1876;
1313.7000;0.2515;2.2176;
1314.0000;0.2532;2.2227;
1314.3000;0.2458;2.2026;
1314.6000;0.2507;2.2101;
1314.9000;0.2532;2.2151;
1315.2000;0.2475;2.2051;
1315.5000;0.2515;2.2151;
1315.8000;0.2564;2.2202;
1316.1000;0.2499;2.2026;
1316.4000;0.2475;2.2001;
1316.7000;0.2507;2.2151;
1317.0000;0.2507;2.2101;
1317.3000;0.2491;2.2076;
1317.6000;0.2532;2.2126;
1317.9000;0.2515;2.2126;
1318.2000;0.2377;2.1726;
1318.5000;0.2532;2.2101;
1318.8000;0.2507;2.2151;
1319.1000;0.2499;2.2151;
1319.4000;0.2361;2.1826;
1319.7000;0.2523;2.2101;
1320.0000;0.2523;2.2026;
1320.3000;0.2532;2.2026;
1320.6000;0.2515;2.2151;
1320.9000;0.2499;2.2202;
1321.2000;0.2475;2.2176;
1321.5000;0.2507;2.2302;
1321.8000;0.2499;2.2302;
1322.1000;0.2523;2.2377;
1322.4000;0.2507;2.2427;
1322.7000;0.2515;2.2427;
1323.0000;0.2499;2.2302;
1323.3000;0.2548;2.2452;
1323.6000;0.2515;2.2302;
1323.9000;0.2491;2.2176;
1324.2000;0.2507;2.2227;
1324.5000;0.2499;2.2202;
1324.8000;0.2499;2.2202;
1325.1000;0.2499;2.2151;
1325.4000;0.2589;2.2352;
1325.7000;0.2523;2.2176;
1326.0000;0.2442;2.1876;
1326.3000;0.2466;2.1876;
1326.6000;0.2491;2.1926;
1326.9000;0.2515;2.2001;
1327.2000;0.2483;2.2126;
1327.5000;0.2418;2.2076;
1327.8000;0.2523;2.2377;
1328.1000;0.2515;2.2402;
1328.4000;0.2523;2.2427;
1328.7000;0.2450;2.2327;
1329.0000;0.2507;2.2452;
1329.3000;0.2507;2.2477;
1329.6000;0.2532;2.2502;
1329.9000;0.2523;2.2477;
1330.2000;0.2523;2.2427;
1330.5000;0.2507;2.2176;
1330.8000;0.2523;2.2227;
1331.1000;0.2499;2.2151;
1331.4000;0.2515;2.2176;
1331.7000;0.2515;2.2252;
1332.0000;0.2499;2.2252;
1332.3000;0.2540;2.2227;
1332.6000;0.2507;2.2277;
1332.9000;0.2507;2.2302;
1333.2000;0.2499;2.2327;
1333.5000;0.2540;2.2452;
1333.8000;0.2475;2.2302;
1334.1000;0.2491;2.2252;
1334.4000;0.2491;2.2277;
1334.7000;0.2532;2.2302;
1335.0000;0.2499;2.2151;
1335.3000;0.2491;2.2151;
1335.6000;0.2499;2.2277;
1335.9000;0.2515;2.2327;
1336.2000;0.2507;2.2302;
1336.5000;0.2507;2.2252;
1336.8000;0.2515;2.2151;
1337.1000;0.2540;2.2151;
1337.4000;0.2515;2.2101;
1337.7000;0.2548;2.2227;
1338.0000;0.2499;2.2202;
1338.3000;0.2523;2.2252;
1338.6000;0.2499;2.2227;
1338.9000;0.2523;2.2377;
1339.2000;0.2597;2.2527;
1339.5000;0.2499;2.2277;
1339.8000;0.2523;2.2277;
1340.1000;0.2523;2.2277;
1340.4000;0.2540;2.2277;
1340.7000;0.2507;2.2202;
1341.0000;0.2507;2.2202;
1341.3000;0.2507;2.2227;
1341.6000;0.2523;2.2151;
1341.9000;0.2491;2.2101;
1342.2000;0.2475;2.2101;
1342.5000;0.2483;2.2151;
1342.8000;0.2491;2.2176;
1343.1000;0.2523;2.2277;
1343.4000;0.2515;2.2327;
1343.7000;0.2515;2.2377;
1344.0000;0.2523;2.2252;
1344.3000;0.2499;2.2227;
1344.6000;0.2515;2.2227;
1344.9000;0.2499;2.2151;
1345.2000;0.2499;2.2101;
1345.5000;0.2466;2.1976;
1345.8000;0.2523;2.2101;
1346.1000;0.2491;2.2026;
1346.4000;0.2507;2.2001;
1346.7000;0.2466;2.2001;
1347.0000;0.2523;2.2151;
1347.3000;0.2434;2.1901;
1347.6000;0.2491;2.2051;
1347.9000;0.2532;2.2051;
1348.2000;0.2540;2.2126;
1348.5000;0.2515;2.2051;
1348.8000;0.2499;2.2101;
1349.1000;0.2515;2.2151;
1349.4000;0.2475;2.2076;
1349.7000;0.2499;2.2202;
1350.0000;0.2450;2.2076;
1350.3000;0.2613;2.2502;
1350.6000;0.2523;2.2202;
1350.9000;0.2515;2.2076;
1351.2000;0.2491;2.2026;
1351.5000;0.2483;2.2051;
1351.8000;0.2507;2.2001;
1352.1000;0.2662;2.2577;
1352.4000;0.2507;2.2252;
1352.7000;0.2458;2.2252;
1353.0000;0.2532;2.2377;
1353.3000;0.2523;2.2252;
1353.6000;0.2483;2.2176;
1353.9000;0.2507;2.2151;
1354.2000;0.2515;2.2101;
1354.5000;0.2499;2.2101;
1354.8000;0.2589;2.2402;
1355.1000;0.2426;2.1901;
1355.4000;0.2491;2.2176;
1355.7000;0.2466;2.2126;
1356.0000;0.2507;2.2176;
1356.3000;0.2540;2.2202;
1356.6000;0.2491;2.1976;
1356.9000;0.2515;2.2051;
1357.2000;0.2507;2.2026;
1357.5000;0.2515;2.2026;
1357.8000;0.2540;2.2051;
1358.1000;0.2491;2.1951;
1358.4000;0.2523;2.2076;
1358.7000;0.2491;2.1951;
1359.0000;0.2475;2.1851;
1359.3000;0.2523;2.2076;
1359.6000;0.2491;2.2026;
1359.9000;0.2564;2.2252;
1360.2000;0.2426;2.1851;
1360.5000;0.2515;2.2101;
1360.8000;0.2597;2.2352;
1361.1000;0.2523;2.2202;
1361.4000;0.2540;2.2252;
1361.7000;0.2507;2.2227;
1362.0000;0.2491;2.2252;
1362.3000;0.2466;2.2176;
1362.6000;0.2491;2.2202;
1362.9000;0.2540;2.2352;
1363.2000;0.2450;2.2151;
1363.5000;0.2523;2.2252;
1363.8000;0.2532;2.2252;
1364.1000;0.2572;2.2427;
1364.4000;0.2515;2.2252;
1364.7000;0.2499;2.2302;
1365.0000;0.2515;2.2427;
1365.3000;0.2507;2.2352;
1365.6000;0.2515;2.2402;
1365.9000;0.2523;2.2527;
1366.2000;0.2532;2.2477;
1366.5000;0.2523;2.2452;
1366.8000;0.2507;2.2377;
1367.1000;0.2523;2.2327;
1367.4000;0.2515;2.2277;
1367.7000;0.2523;2.2352;
1368.0000;0.2515;2.2327;
1368.3000;0.2515;2.2302;
1368.6000;0.2540;2.2327;
1368.9000;0.2532;2.2327;
1369.2000;0.2523;2.2202;
1369.5000;0.2548;2.2176;
1369.8000;0.2515;2.2126;
1370.1000;0.2523;2.2227;
1370.4000;0.2450;2.2151;
1370.7000;0.2483;2.2277;
1371.0000;0.2507;2.2402;
1371.3000;0.2499;2.2327;
1371.6000;0.2507;2.2402;
1371.9000;0.2434;2.2101;
1372.2000;0.2450;2.2176;
1372.5000;0.2532;2.2352;
1372.8000;0.2434;2.2076;
1373.1000;0.2589;2.2402;
1373.4000;0.2499;2.2227;
1373.7000;0.2540;2.2302;
1374.0000;0.2507;2.2202;
1374.3000;0.2515;2.2252;
1374.6000;0.2523;2.2252;
1374.9000;0.2532;2.2352;
1375.2000;0.2507;2.2252;
1375.5000;0.2499;2.2277;
1375.8000;0.2548;2.2452;
1376.1000;0.2507;2.2302;
1376.4000;0.2523;2.2252;
1376.7000;0.2466;2.2176;
1377.0000;0.2515;2.2327;
1377.3000;0.2515;2.2302;
1377.6000;0.2523;2.2327;
1377.9000;0.2499;2.2252;
1378.2000;0.2654;2.2677;
1378.5000;0.2507;2.2252;
1378.8000;0.2458;2.2176;
1379.1000;0.2556;2.2477;
1379.4000;0.2572;2.2427;
1379.7000;0.2523;2.2277;
1380.0000;0.2523;2.2302;
1380.3000;0.2491;2.2252;
1380.6000;0.2499;2.2277;
1380.9000;0.2515;2.2377;
1381.2000;0.2621;2.2752;
1381.5000;0.2475;2.2277;
1381.8000;0.2540;2.2477;
1382.1000;0.2507;2.2402;
1382.4000;0.2523;2.2377;
1382.7000;0.2361;2.1876;
1383.0000;0.2483;2.2252;
1383.3000;0.2507;2.2252;
1383.6000;0.2499;2.2252;
1383.9000;0.2532;2.2402;
1384.2000;0.2483;2.2176;
1384.5000;0.2499;2.2126;
1384.8000;0.2499;2.2101;
1385.1000;0.2499;2.2151;
1385.4000;0.2523;2.2126;
1385.7000;0.2483;2.1951;
1386.0000;0.2491;2.1901;
1386.3000;0.2442;2.1801;
1386.6000;0.2515;2.1976;
1386.9000;0.2499;2.1926;
1387.2000;0.2483;2.1776;
1387.5000;0.2507;2.1951;
1387.8000;0.2523;2.2126;
1388.1000;0.2532;2.2151;
1388.4000;0.2605;2.2377;
1388.7000;0.2491;2.2126;
1389.0000;0.2515;2.2302;
1389.3000;0.2483;2.2227;
1389.6000;0.2523;2.2327;
1389.9000;0.2515;2.2327;
1390.2000;0.2507;2.2302;
1390.5000;0.2507;2.2277;
1390.8000;0.2515;2.2252;
1391.1000;0.2483;2.2176;
1391.4000;0.2515;2.2227;
1391.7000;0.2515;2.2252;
1392.0000;0.2507;2.2151;
1392.3000;0.2483;2.2026;
1392.6000;0.2499;2.2126;
1392.9000;0.2532;2.2076;
1393.2000;0.2532;2.2277;
1393.5000;0.2499;2.2202;
1393.8000;0.2556;2.2352;
1394.1000;0.2515;2.2277;
1394.4000;0.2475;2.2176;
1394.7000;0.2515;2.2277;
1395.0000;0.2532;2.2227;
1395.3000;0.2548;2.2327;
1395.6000;0.2515;2.2302;
1395.9000;0.2523;2.2176;
1396.2000;0.2507;2.2126;
1396.5000;0.2507;2.2227;
1396.8000;0.2499;2.2126;
1397.1000;0.2507;2.2227;
1397.4000;0.2491;2.2101;
1397.7000;0.2507;2.2101;
1398.0000;0.2515;2.2151;
1398.3000;0.2475;2.2076;
1398.6000;0.2499;2.2151;
1398.9000;0.2491;2.2126;
1399.2000;0.2507;2.2101;
1399.5000;0.2491;2.2051;
1399.8000;0.2499;2.1926;
