time/ms;Fluo/V;P700 deltaI/I x10³;
-199.8000;0.2491;2.5731;
-199.5000;0.2499;2.5806;
-199.2000;0.2540;2.5881;
-198.9000;0.2507;2.5831;
-198.6000;0.2515;2.5806;
-198.3000;0.2491;2.5756;
-198.0000;0.2523;2.5781;
-197.7000;0.2507;2.5731;
-197.4000;0.2507;2.5731;
-197.1000;0.2507;2.5806;
-196.8000;0.2507;2.5731;
-196.5000;0.2507;2.5806;
-196.2000;0.2507;2.5806;
-195.9000;0.2532;2.5856;
-195.6000;0.2637;2.6256;
-195.3000;0.2499;2.5781;
-195.0000;0.2507;2.5806;
-194.7000;0.2475;2.5731;
-194.4000;0.2491;2.5731;
-194.1000;0.2499;2.5731;
-193.8000;0.2499;2.5681;
-193.5000;0.2483;2.5631;
-193.2000;0.2523;2.5831;
-192.9000;0.2507;2.5756;
-192.6000;0.2507;2.5806;
-192.3000;0.2523;2.5781;
-192.0000;0.2499;2.5731;
-191.7000;0.2523;2.5806;
-191.4000;0.2523;2.5881;
-191.1000;0.2523;2.5806;
-190.8000;0.2499;2.5606;
-190.5000;0.2458;2.5556;
-190.2000;0.2426;2.5455;
-189.9000;0.2507;2.5681;
-189.6000;0.2491;2.5581;
-189.3000;0.2499;2.5556;
-189.0000;0.2491;2.5480;
-188.7000;0.2507;2.5581;
-188.4000;0.2515;2.5530;
-188.1000;0.2450;2.5355;
-187.8000;0.2597;2.5781;
-187.5000;0.2507;2.5556;
-187.2000;0.2466;2.5455;
-186.9000;0.2458;2.5455;
-186.6000;0.2491;2.5556;
-186.3000;0.2499;2.5430;
-186.0000;0.2491;2.5505;
-185.7000;0.2475;2.5505;
-185.4000;0.2491;2.5530;
-185.1000;0.2507;2.5681;
-184.8000;0.2572;2.5881;
-184.5000;0.2499;2.5756;
-184.2000;0.2466;2.5731;
-183.9000;0.2483;2.5806;
-183.6000;0.2491;2.5806;
-183.3000;0.2499;2.5706;
-183.0000;0.2491;2.5706;
-182.7000;0.2515;2.5706;
-182.4000;0.2507;2.5781;
-182.1000;0.2499;2.5731;
-181.8000;0.2499;2.5681;
-181.5000;0.2523;2.5781;
-181.2000;0.2507;2.5706;
-180.9000;0.2491;2.5631;
-180.6000;0.2491;2.5681;
-180.3000;0.2499;2.5706;
-180.0000;0.2548;2.5756;
-179.7000;0.2564;2.5731;
-179.4000;0.2556;2.5706;
-179.1000;0.2532;2.5756;
-178.8000;0.2548;2.5831;
-178.5000;0.2499;2.5656;
-178.2000;0.2499;2.5656;
-177.9000;0.2466;2.5480;
-177.6000;0.2532;2.5656;
-177.3000;0.2621;2.5981;
-177.0000;0.2483;2.5455;
-176.7000;0.2507;2.5631;
-176.4000;0.2475;2.5556;
-176.1000;0.2523;2.5656;
-175.8000;0.2507;2.5556;
-175.5000;0.2491;2.5606;
-175.2000;0.2523;2.5706;
-174.9000;0.2475;2.5505;
-174.6000;0.2532;2.5606;
-174.3000;0.2491;2.5455;
-174.0000;0.2499;2.5455;
-173.7000;0.2507;2.5556;
-173.4000;0.2491;2.5455;
-173.1000;0.2499;2.5581;
-172.8000;0.2475;2.5530;
-172.5000;0.2507;2.5606;
-172.2000;0.2491;2.5480;
-171.9000;0.2475;2.5405;
-171.6000;0.2458;2.5355;
-171.3000;0.2499;2.5581;
-171.0000;0.2540;2.5631;
-170.7000;0.2466;2.5505;
-170.4000;0.2572;2.5706;
-170.1000;0.2515;2.5505;
-169.8000;0.2418;2.5205;
-169.5000;0.2499;2.5380;
-169.2000;0.2475;2.5430;
-168.9000;0.2483;2.5405;
-168.6000;0.2515;2.5505;
-168.3000;0.2540;2.5581;
-168.0000;0.2418;2.5330;
-167.7000;0.2491;2.5581;
-167.4000;0.2377;2.5380;
-167.1000;0.2589;2.5906;
-166.8000;0.2629;2.5956;
-166.5000;0.2458;2.5480;
-166.2000;0.2597;2.5831;
-165.9000;0.2507;2.5581;
-165.6000;0.2507;2.5556;
-165.3000;0.2507;2.5581;
-165.0000;0.2515;2.5706;
-164.7000;0.2499;2.5656;
-164.4000;0.2499;2.5631;
-164.1000;0.2491;2.5606;
-163.8000;0.2532;2.5631;
-163.5000;0.2548;2.5656;
-163.2000;0.2523;2.5631;
-162.9000;0.2507;2.5556;
-162.6000;0.2507;2.5530;
-162.3000;0.2540;2.5656;
-162.0000;0.2507;2.5556;
-161.7000;0.2507;2.5530;
-161.4000;0.2499;2.5581;
-161.1000;0.2523;2.5806;
-160.8000;0.2475;2.5656;
-160.5000;0.2483;2.5656;
-160.2000;0.2507;2.5656;
-159.9000;0.2483;2.5706;
-159.6000;0.2450;2.5556;
-159.3000;0.2523;2.5806;
-159.0000;0.2548;2.5931;
-158.7000;0.2442;2.5581;
-158.4000;0.2507;2.5806;
-158.1000;0.2426;2.5581;
-157.8000;0.2507;2.5731;
-157.5000;0.2507;2.5756;
-157.2000;0.2499;2.5756;
-156.9000;0.2507;2.5856;
-156.6000;0.2507;2.5906;
-156.3000;0.2515;2.5931;
-156.0000;0.2507;2.5881;
-155.7000;0.2393;2.5505;
-155.4000;0.2507;2.5706;
-155.1000;0.2499;2.5656;
-154.8000;0.2499;2.5681;
-154.5000;0.2491;2.5656;
-154.2000;0.2564;2.5906;
-153.9000;0.2499;2.5731;
-153.6000;0.2499;2.5656;
-153.3000;0.2548;2.5606;
-153.0000;0.2515;2.5505;
-152.7000;0.2499;2.5480;
-152.4000;0.2523;2.5530;
-152.1000;0.2491;2.5430;
-151.8000;0.2515;2.5505;
-151.5000;0.2540;2.5530;
-151.2000;0.2499;2.5455;
-150.9000;0.2523;2.5581;
-150.6000;0.2515;2.5556;
-150.3000;0.2475;2.5505;
-150.0000;0.2499;2.5581;
-149.7000;0.2491;2.5581;
-149.4000;0.2491;2.5606;
-149.1000;0.2466;2.5581;
-148.8000;0.2491;2.5631;
-148.5000;0.2507;2.5631;
-148.2000;0.2499;2.5530;
-147.9000;0.2548;2.5681;
-147.6000;0.2491;2.5556;
-147.3000;0.2491;2.5556;
-147.0000;0.2589;2.5806;
-146.7000;0.2499;2.5606;
-146.4000;0.2572;2.5756;
-146.1000;0.2515;2.5581;
-145.8000;0.2556;2.5756;
-145.5000;0.2499;2.5556;
-145.2000;0.2499;2.5631;
-144.9000;0.2523;2.5681;
-144.6000;0.2548;2.5756;
-144.3000;0.2523;2.5756;
-144.0000;0.2466;2.5581;
-143.7000;0.2483;2.5631;
-143.4000;0.2540;2.5781;
-143.1000;0.2532;2.5681;
-142.8000;0.2589;2.5806;
-142.5000;0.2475;2.5455;
-142.2000;0.2532;2.5606;
-141.9000;0.2491;2.5530;
-141.6000;0.2523;2.5606;
-141.3000;0.2556;2.5681;
-141.0000;0.2507;2.5530;
-140.7000;0.2515;2.5656;
-140.4000;0.2450;2.5405;
-140.1000;0.2515;2.5631;
-139.8000;0.2621;2.5981;
-139.5000;0.2434;2.5455;
-139.2000;0.2409;2.5405;
-138.9000;0.2483;2.5631;
-138.6000;0.2523;2.5756;
-138.3000;0.2515;2.5681;
-138.0000;0.2540;2.5706;
-137.7000;0.2499;2.5556;
-137.4000;0.2499;2.5455;
-137.1000;0.2499;2.5405;
-136.8000;0.2507;2.5455;
-136.5000;0.2540;2.5556;
-136.2000;0.2483;2.5305;
-135.9000;0.2483;2.5280;
-135.6000;0.2532;2.5505;
-135.3000;0.2515;2.5606;
-135.0000;0.2540;2.5656;
-134.7000;0.2507;2.5430;
-134.4000;0.2540;2.5455;
-134.1000;0.2515;2.5380;
-133.8000;0.2491;2.5355;
-133.5000;0.2466;2.5230;
-133.2000;0.2499;2.5305;
-132.9000;0.2532;2.5505;
-132.6000;0.2499;2.5355;
-132.3000;0.2507;2.5405;
-132.0000;0.2499;2.5480;
-131.7000;0.2515;2.5581;
-131.4000;0.2523;2.5656;
-131.1000;0.2483;2.5480;
-130.8000;0.2515;2.5556;
-130.5000;0.2491;2.5455;
-130.2000;0.2499;2.5455;
-129.9000;0.2532;2.5530;
-129.6000;0.2491;2.5455;
-129.3000;0.2515;2.5606;
-129.0000;0.2523;2.5556;
-128.7000;0.2434;2.5380;
-128.4000;0.2532;2.5581;
-128.1000;0.2475;2.5455;
-127.8000;0.2515;2.5606;
-127.5000;0.2483;2.5505;
-127.2000;0.2499;2.5455;
-126.9000;0.2515;2.5530;
-126.6000;0.2507;2.5581;
-126.3000;0.2532;2.5631;
-126.0000;0.2507;2.5505;
-125.7000;0.2507;2.5556;
-125.4000;0.2523;2.5706;
-125.1000;0.2499;2.5606;
-124.8000;0.2491;2.5606;
-124.5000;0.2475;2.5606;
-124.2000;0.2523;2.5756;
-123.9000;0.2499;2.5706;
-123.6000;0.2499;2.5656;
-123.3000;0.2515;2.5681;
-123.0000;0.2515;2.5681;
-122.7000;0.2507;2.5731;
-122.4000;0.2450;2.5505;
-122.1000;0.2540;2.5731;
-121.8000;0.2483;2.5606;
-121.5000;0.2499;2.5781;
-121.2000;0.2540;2.5956;
-120.9000;0.2458;2.5681;
-120.6000;0.2515;2.5731;
-120.3000;0.2466;2.5505;
-120.0000;0.2540;2.5606;
-119.7000;0.2523;2.5581;
-119.4000;0.2523;2.5631;
-119.1000;0.2515;2.5656;
-118.8000;0.2491;2.5631;
-118.5000;0.2556;2.5681;
-118.2000;0.2548;2.5731;
-117.9000;0.2499;2.5530;
-117.6000;0.2491;2.5581;
-117.3000;0.2499;2.5656;
-117.0000;0.2507;2.5530;
-116.7000;0.2515;2.5581;
-116.4000;0.2458;2.5505;
-116.1000;0.2515;2.5706;
-115.8000;0.2507;2.5631;
-115.5000;0.2507;2.5556;
-115.2000;0.2377;2.5255;
-114.9000;0.2507;2.5581;
-114.6000;0.2515;2.5656;
-114.3000;0.2507;2.5581;
-114.0000;0.2499;2.5556;
-113.7000;0.2499;2.5505;
-113.4000;0.2491;2.5556;
-113.1000;0.2483;2.5430;
-112.8000;0.2515;2.5505;
-112.5000;0.2466;2.5380;
-112.2000;0.2499;2.5455;
-111.9000;0.2523;2.5530;
-111.6000;0.2523;2.5606;
-111.3000;0.2507;2.5556;
-111.0000;0.2475;2.5480;
-110.7000;0.2491;2.5530;
-110.4000;0.2475;2.5480;
-110.1000;0.2515;2.5480;
-109.8000;0.2483;2.5405;
-109.5000;0.2475;2.5355;
-109.2000;0.2507;2.5505;
-108.9000;0.2483;2.5556;
-108.6000;0.2532;2.5706;
-108.3000;0.2507;2.5656;
-108.0000;0.2499;2.5631;
-107.7000;0.2540;2.5681;
-107.4000;0.2532;2.5656;
-107.1000;0.2523;2.5606;
-106.8000;0.2507;2.5606;
-106.5000;0.2369;2.5305;
-106.2000;0.2523;2.5756;
-105.9000;0.2515;2.5731;
-105.6000;0.2442;2.5480;
-105.3000;0.2507;2.5656;
-105.0000;0.2466;2.5505;
-104.7000;0.2475;2.5581;
-104.4000;0.2483;2.5581;
-104.1000;0.2507;2.5606;
-103.8000;0.2532;2.5581;
-103.5000;0.2491;2.5556;
-103.2000;0.2523;2.5606;
-102.9000;0.2507;2.5581;
-102.6000;0.2523;2.5681;
-102.3000;0.2385;2.5330;
-102.0000;0.2499;2.5706;
-101.7000;0.2483;2.5706;
-101.4000;0.2515;2.5881;
-101.1000;0.2458;2.5781;
-100.8000;0.2499;2.5856;
-100.5000;0.2515;2.5931;
-100.2000;0.2507;2.5756;
-99.9000;0.2491;2.5681;
-99.6000;0.2523;2.5806;
-99.3000;0.2532;2.5781;
-99.0000;0.2515;2.5706;
-98.7000;0.2491;2.5606;
-98.4000;0.2483;2.5556;
-98.1000;0.2491;2.5656;
-97.8000;0.2515;2.5681;
-97.5000;0.2491;2.5681;
-97.2000;0.2483;2.5681;
-96.9000;0.2515;2.5706;
-96.6000;0.2507;2.5606;
-96.3000;0.2532;2.5656;
-96.0000;0.2507;2.5556;
-95.7000;0.2523;2.5581;
-95.4000;0.2499;2.5505;
-95.1000;0.2475;2.5430;
-94.8000;0.2475;2.5380;
-94.5000;0.2499;2.5480;
-94.2000;0.2540;2.5606;
-93.9000;0.2491;2.5480;
-93.6000;0.2515;2.5556;
-93.3000;0.2491;2.5530;
-93.0000;0.2507;2.5606;
-92.7000;0.2507;2.5480;
-92.4000;0.2499;2.5405;
-92.1000;0.2499;2.5480;
-91.8000;0.2515;2.5556;
-91.5000;0.2507;2.5556;
-91.2000;0.2589;2.5781;
-90.9000;0.2491;2.5530;
-90.6000;0.2499;2.5505;
-90.3000;0.2532;2.5581;
-90.0000;0.2499;2.5480;
-89.7000;0.2491;2.5480;
-89.4000;0.2499;2.5455;
-89.1000;0.2556;2.5581;
-88.8000;0.2515;2.5530;
-88.5000;0.2507;2.5505;
-88.2000;0.2475;2.5505;
-87.9000;0.2613;2.5906;
-87.6000;0.2499;2.5656;
-87.3000;0.2499;2.5556;
-87.0000;0.2434;2.5280;
-86.7000;0.2540;2.5606;
-86.4000;0.2523;2.5505;
-86.1000;0.2499;2.5380;
-85.8000;0.2515;2.5455;
-85.5000;0.2507;2.5530;
-85.2000;0.2515;2.5505;
-84.9000;0.2499;2.5380;
-84.6000;0.2426;2.5205;
-84.3000;0.2491;2.5305;
-84.0000;0.2483;2.5430;
-83.7000;0.2499;2.5530;
-83.4000;0.2532;2.5606;
-83.1000;0.2475;2.5505;
-82.8000;0.2483;2.5556;
-82.5000;0.2515;2.5581;
-82.2000;0.2523;2.5606;
-81.9000;0.2515;2.5505;
-81.6000;0.2515;2.5455;
-81.3000;0.2483;2.5280;
-81.0000;0.2515;2.5280;
-80.7000;0.2515;2.5205;
-80.4000;0.2507;2.5280;
-80.1000;0.2523;2.5305;
-79.8000;0.2540;2.5355;
-79.5000;0.2515;2.5330;
-79.2000;0.2499;2.5280;
-78.9000;0.2499;2.5205;
-78.6000;0.2483;2.5205;
-78.3000;0.2523;2.5405;
-78.0000;0.2507;2.5480;
-77.7000;0.2475;2.5455;
-77.4000;0.2515;2.5505;
-77.1000;0.2532;2.5581;
-76.8000;0.2532;2.5606;
-76.5000;0.2515;2.5656;
-76.2000;0.2515;2.5656;
-75.9000;0.2507;2.5505;
-75.6000;0.2475;2.5405;
-75.3000;0.2483;2.5505;
-75.0000;0.2507;2.5430;
-74.7000;0.2450;2.5280;
-74.4000;0.2442;2.5280;
-74.1000;0.2597;2.5606;
-73.8000;0.2515;2.5330;
-73.5000;0.2572;2.5556;
-73.2000;0.2515;2.5405;
-72.9000;0.2483;2.5280;
-72.6000;0.2491;2.5380;
-72.3000;0.2499;2.5330;
-72.0000;0.2523;2.5480;
-71.7000;0.2515;2.5480;
-71.4000;0.2507;2.5430;
-71.1000;0.2548;2.5606;
-70.8000;0.2515;2.5455;
-70.5000;0.2613;2.5681;
-70.2000;0.2466;2.5405;
-69.9000;0.2499;2.5530;
-69.6000;0.2507;2.5480;
-69.3000;0.2442;2.5280;
-69.0000;0.2507;2.5530;
-68.7000;0.2507;2.5430;
-68.4000;0.2515;2.5480;
-68.1000;0.2458;2.5380;
-67.8000;0.2540;2.5530;
-67.5000;0.2499;2.5305;
-67.2000;0.2564;2.5455;
-66.9000;0.2442;2.5155;
-66.6000;0.2523;2.5355;
-66.3000;0.2507;2.5405;
-66.0000;0.2507;2.5455;
-65.7000;0.2515;2.5505;
-65.4000;0.2532;2.5556;
-65.1000;0.2483;2.5405;
-64.8000;0.2507;2.5380;
-64.5000;0.2523;2.5305;
-64.2000;0.2499;2.5280;
-63.9000;0.2507;2.5205;
-63.6000;0.2507;2.5205;
-63.3000;0.2515;2.5430;
-63.0000;0.2458;2.5355;
-62.7000;0.2466;2.5405;
-62.4000;0.2515;2.5581;
-62.1000;0.2532;2.5581;
-61.8000;0.2515;2.5505;
-61.5000;0.2466;2.5355;
-61.2000;0.2532;2.5455;
-60.9000;0.2507;2.5455;
-60.6000;0.2515;2.5530;
-60.3000;0.2523;2.5530;
-60.0000;0.2515;2.5480;
-59.7000;0.2483;2.5405;
-59.4000;0.2515;2.5455;
-59.1000;0.2637;2.5781;
-58.8000;0.2507;2.5380;
-58.5000;0.2507;2.5430;
-58.2000;0.2491;2.5480;
-57.9000;0.2515;2.5556;
-57.6000;0.2507;2.5530;
-57.3000;0.2352;2.5205;
-57.0000;0.2515;2.5581;
-56.7000;0.2532;2.5656;
-56.4000;0.2466;2.5380;
-56.1000;0.2499;2.5405;
-55.8000;0.2515;2.5355;
-55.5000;0.2515;2.5355;
-55.2000;0.2564;2.5430;
-54.9000;0.2515;2.5205;
-54.6000;0.2507;2.5255;
-54.3000;0.2499;2.5255;
-54.0000;0.2483;2.5255;
-53.7000;0.2483;2.5230;
-53.4000;0.2523;2.5355;
-53.1000;0.2507;2.5205;
-52.8000;0.2507;2.5230;
-52.5000;0.2523;2.5280;
-52.2000;0.2499;2.5230;
-51.9000;0.2548;2.5405;
-51.6000;0.2532;2.5380;
-51.3000;0.2515;2.5380;
-51.0000;0.2483;2.5380;
-50.7000;0.2523;2.5505;
-50.4000;0.2507;2.5380;
-50.1000;0.2450;2.5205;
-49.8000;0.2483;2.5280;
-49.5000;0.2483;2.5355;
-49.2000;0.2507;2.5430;
-48.9000;0.2458;2.5330;
-48.6000;0.2597;2.5706;
-48.3000;0.2548;2.5530;
-48.0000;0.2499;2.5480;
-47.7000;0.2532;2.5631;
-47.4000;0.2548;2.5781;
-47.1000;0.2458;2.5530;
-46.8000;0.2515;2.5631;
-46.5000;0.2540;2.5606;
-46.2000;0.2466;2.5355;
-45.9000;0.2507;2.5405;
-45.6000;0.2499;2.5430;
-45.3000;0.2556;2.5631;
-45.0000;0.2532;2.5480;
-44.7000;0.2523;2.5405;
-44.4000;0.2491;2.5405;
-44.1000;0.2442;2.5230;
-43.8000;0.2491;2.5380;
-43.5000;0.2499;2.5380;
-43.2000;0.2548;2.5505;
-42.9000;0.2499;2.5380;
-42.6000;0.2532;2.5330;
-42.3000;0.2532;2.5430;
-42.0000;0.2491;2.5405;
-41.7000;0.2564;2.5656;
-41.4000;0.2499;2.5405;
-41.1000;0.2458;2.5355;
-40.8000;0.2523;2.5505;
-40.5000;0.2532;2.5480;
-40.2000;0.2515;2.5505;
-39.9000;0.2515;2.5455;
-39.6000;0.2491;2.5455;
-39.3000;0.2523;2.5556;
-39.0000;0.2613;2.5831;
-38.7000;0.2515;2.5656;
-38.4000;0.2515;2.5656;
-38.1000;0.2523;2.5656;
-37.8000;0.2499;2.5530;
-37.5000;0.2466;2.5455;
-37.2000;0.2515;2.5606;
-36.9000;0.2523;2.5706;
-36.6000;0.2491;2.5631;
-36.3000;0.2532;2.5731;
-36.0000;0.2499;2.5656;
-35.7000;0.2507;2.5631;
-35.4000;0.2499;2.5556;
-35.1000;0.2540;2.5556;
-34.8000;0.2507;2.5355;
-34.5000;0.2515;2.5405;
-34.2000;0.2507;2.5405;
-33.9000;0.2523;2.5455;
-33.6000;0.2556;2.5631;
-33.3000;0.2507;2.5505;
-33.0000;0.2483;2.5405;
-32.7000;0.2515;2.5556;
-32.4000;0.2548;2.5606;
-32.1000;0.2499;2.5505;
-31.8000;0.2532;2.5556;
-31.5000;0.2499;2.5455;
-31.2000;0.2499;2.5405;
-30.9000;0.2483;2.5455;
-30.6000;0.2515;2.5405;
-30.3000;0.2532;2.5530;
-30.0000;0.2466;2.5280;
-29.7000;0.2442;2.5255;
-29.4000;0.2499;2.5430;
-29.1000;0.2491;2.5405;
-28.8000;0.2491;2.5480;
-28.5000;0.2409;2.5155;
-28.2000;0.2491;2.5355;
-27.9000;0.2491;2.5230;
-27.6000;0.2548;2.5330;
-27.3000;0.2442;2.5080;
-27.0000;0.2466;2.5155;
-26.7000;0.2507;2.5255;
-26.4000;0.2499;2.5305;
-26.1000;0.2515;2.5330;
-25.8000;0.2507;2.5405;
-25.5000;0.2532;2.5480;
-25.2000;0.2483;2.5355;
-24.9000;0.2523;2.5430;
-24.6000;0.2564;2.5606;
-24.3000;0.2499;2.5430;
-24.0000;0.2515;2.5405;
-23.7000;0.2499;2.5355;
-23.4000;0.2418;2.5080;
-23.1000;0.2491;2.5230;
-22.8000;0.2507;2.5280;
-22.5000;0.2532;2.5205;
-22.2000;0.2507;2.5080;
-21.9000;0.2515;2.5080;
-21.6000;0.2515;2.5130;
-21.3000;0.2515;2.5155;
-21.0000;0.2556;2.5405;
-20.7000;0.2515;2.5155;
-20.4000;0.2507;2.5080;
-20.1000;0.2507;2.5130;
-19.8000;0.2499;2.5080;
-19.5000;0.2491;2.5080;
-19.2000;0.2491;2.4930;
-18.9000;0.2532;2.5005;
-18.6000;0.2483;2.4905;
-18.3000;0.2532;2.5180;
-18.0000;0.2515;2.5180;
-17.7000;0.2515;2.5180;
-17.4000;0.2515;2.5180;
-17.1000;0.2475;2.5230;
-16.8000;0.2483;2.5230;
-16.5000;0.2491;2.5230;
-16.2000;0.2515;2.5280;
-15.9000;0.2475;2.5255;
-15.6000;0.2483;2.5280;
-15.3000;0.2499;2.5230;
-15.0000;0.2580;2.5455;
-14.7000;0.2483;2.5155;
-14.4000;0.2450;2.5105;
-14.1000;0.2434;2.5030;
-13.8000;0.2499;2.5180;
-13.5000;0.2580;2.5455;
-13.2000;0.2418;2.4955;
-12.9000;0.2548;2.5355;
-12.6000;0.2523;2.5230;
-12.3000;0.2499;2.5205;
-12.0000;0.2377;2.4830;
-11.7000;0.2523;2.5330;
-11.4000;0.2507;2.5280;
-11.1000;0.2507;2.5280;
-10.8000;0.2491;2.5430;
-10.5000;0.2483;2.5355;
-10.2000;0.2556;2.5455;
-9.9000;0.2499;2.5330;
-9.6000;0.2491;2.5205;
-9.3000;0.2475;2.5105;
-9.0000;0.2499;2.5230;
-8.7000;0.2515;2.5255;
-8.4000;0.2540;2.5330;
-8.1000;0.2491;2.5355;
-7.8000;0.2523;2.5380;
-7.5000;0.2499;2.5355;
-7.2000;0.2499;2.5380;
-6.9000;0.2523;2.5505;
-6.6000;0.2507;2.5430;
-6.3000;0.2523;2.5480;
-6.0000;0.2515;2.5430;
-5.7000;0.2523;2.5380;
-5.4000;0.2515;2.5330;
-5.1000;0.2499;2.5305;
-4.8000;0.2515;2.5280;
-4.5000;0.2507;2.5405;
-4.2000;0.2499;2.5405;
-3.9000;0.2491;2.5405;
-3.6000;0.2499;2.5405;
-3.3000;0.2458;2.5255;
-3.0000;0.2491;2.5330;
-2.7000;0.2507;2.5430;
-2.4000;0.2491;2.5355;
-2.1000;0.2507;2.5430;
-1.8000;0.2515;2.5455;
-1.5000;0.2523;2.5405;
-1.2000;0.2548;2.5355;
-0.9000;0.2564;2.5430;
-0.6000;0.2523;2.5230;
-0.3000;0.2491;2.5155;
0.0000;0.2491;2.5155;
0.3000;0.2523;2.4880;
0.6000;0.2507;2.5030;
0.9000;0.2475;2.5005;
1.2000;0.2532;2.5330;
1.5000;0.2491;2.5530;
1.8000;0.2523;2.5831;
2.1000;0.2540;2.6056;
2.4000;0.2523;2.6156;
2.7000;0.2540;2.6306;
3.0000;0.2564;2.6557;
3.3000;0.2532;2.6532;
3.6000;0.2540;2.6582;
3.9000;0.2556;2.6732;
4.2000;0.2556;2.6882;
4.5000;0.2556;2.6907;
4.8000;0.2580;2.6932;
5.1000;0.2556;2.6882;
5.4000;0.2572;2.6982;
5.7000;0.2572;2.7032;
6.0000;0.2580;2.7082;
6.3000;0.2548;2.7032;
6.6000;0.2556;2.7082;
6.9000;0.2556;2.7107;
7.2000;0.2564;2.7132;
7.5000;0.2483;2.6982;
7.8000;0.2548;2.7207;
8.1000;0.2491;2.6982;
8.4000;0.2507;2.7007;
8.7000;0.2564;2.7283;
9.0000;0.2572;2.7308;
9.3000;0.2540;2.7132;
9.6000;0.2580;2.7283;
9.9000;0.2548;2.7283;
10.2000;0.2540;2.7233;
10.5000;0.2564;2.7283;
10.8000;0.2515;2.7207;
11.1000;0.2548;2.7233;
11.4000;0.2556;2.7333;
11.7000;0.2532;2.7308;
12.0000;0.2629;2.7483;
12.3000;0.2434;2.7007;
12.6000;0.2662;2.7658;
12.9000;0.2540;2.7258;
13.2000;0.2548;2.7358;
13.5000;0.2564;2.7433;
13.8000;0.2572;2.7383;
14.1000;0.2548;2.7358;
14.4000;0.2572;2.7383;
14.7000;0.2507;2.7157;
15.0000;0.2532;2.7182;
15.3000;0.2540;2.7258;
15.6000;0.2532;2.7233;
15.9000;0.2556;2.7283;
16.2000;0.2580;2.7308;
16.5000;0.2556;2.7283;
16.8000;0.2556;2.7233;
17.1000;0.2556;2.7207;
17.4000;0.2564;2.7258;
17.7000;0.2556;2.7383;
18.0000;0.2621;2.7533;
18.3000;0.2548;2.7258;
18.6000;0.2548;2.7233;
18.9000;0.2589;2.7333;
19.2000;0.2532;2.7132;
19.5000;0.2572;2.7233;
19.8000;0.2523;2.7107;
20.1000;0.2540;2.7032;
20.4000;0.2556;2.7032;
20.7000;0.2450;2.6832;
21.0000;0.2572;2.7157;
21.3000;0.2564;2.7132;
21.6000;0.2540;2.7107;
21.9000;0.2556;2.7157;
22.2000;0.2483;2.6957;
22.5000;0.2515;2.7007;
22.8000;0.2523;2.7057;
23.1000;0.2532;2.7157;
23.4000;0.2556;2.7258;
23.7000;0.2426;2.6957;
24.0000;0.2564;2.7283;
24.3000;0.2540;2.7182;
24.6000;0.2597;2.7383;
24.9000;0.2532;2.7233;
25.2000;0.2548;2.7333;
25.5000;0.2556;2.7358;
25.8000;0.2556;2.7383;
26.1000;0.2548;2.7308;
26.4000;0.2540;2.7333;
26.7000;0.2556;2.7358;
27.0000;0.2548;2.7333;
27.3000;0.2507;2.7308;
27.6000;0.2540;2.7283;
27.9000;0.2540;2.7233;
28.2000;0.2532;2.7132;
28.5000;0.2540;2.7107;
28.8000;0.2556;2.7082;
29.1000;0.2483;2.6857;
29.4000;0.2572;2.7157;
29.7000;0.2564;2.7182;
30.0000;0.2564;2.7182;
30.3000;0.2556;2.7233;
30.6000;0.2540;2.7283;
30.9000;0.2548;2.7258;
31.2000;0.2548;2.7233;
31.5000;0.2483;2.7132;
31.8000;0.2515;2.7258;
32.1000;0.2548;2.7258;
32.4000;0.2572;2.7283;
32.7000;0.2564;2.7258;
33.0000;0.2515;2.7132;
33.3000;0.2589;2.7233;
33.6000;0.2548;2.7107;
33.9000;0.2556;2.7082;
34.2000;0.2532;2.7007;
34.5000;0.2580;2.7132;
34.8000;0.2564;2.7032;
35.1000;0.2523;2.6907;
35.4000;0.2556;2.6957;
35.7000;0.2548;2.7032;
36.0000;0.2556;2.7032;
36.3000;0.2523;2.7007;
36.6000;0.2564;2.7107;
36.9000;0.2589;2.7157;
37.2000;0.2564;2.7057;
37.5000;0.2556;2.7132;
37.8000;0.2564;2.7132;
38.1000;0.2580;2.7157;
38.4000;0.2662;2.7308;
38.7000;0.2548;2.6932;
39.0000;0.2556;2.7032;
39.3000;0.2548;2.7082;
39.6000;0.2523;2.6982;
39.9000;0.2564;2.7182;
40.2000;0.2572;2.7182;
40.5000;0.2540;2.6982;
40.8000;0.2556;2.7057;
41.1000;0.2540;2.7007;
41.4000;0.2507;2.6957;
41.7000;0.2540;2.7032;
42.0000;0.2532;2.6907;
42.3000;0.2556;2.6907;
42.6000;0.2507;2.6807;
42.9000;0.2540;2.6907;
43.2000;0.2540;2.6982;
43.5000;0.2442;2.6707;
43.8000;0.2580;2.7132;
44.1000;0.2532;2.6957;
44.4000;0.2572;2.7132;
44.7000;0.2589;2.7032;
45.0000;0.2572;2.7032;
45.3000;0.2548;2.6957;
45.6000;0.2548;2.6957;
45.9000;0.2556;2.7032;
46.2000;0.2532;2.7032;
46.5000;0.2540;2.7057;
46.8000;0.2491;2.6957;
47.1000;0.2418;2.6757;
47.4000;0.2548;2.7157;
47.7000;0.2597;2.7333;
48.0000;0.2523;2.7182;
48.3000;0.2548;2.7157;
48.6000;0.2548;2.7233;
48.9000;0.2564;2.7258;
49.2000;0.2564;2.7233;
49.5000;0.2540;2.7157;
49.8000;0.2564;2.7233;
50.1000;0.2613;2.7383;
50.4000;0.2540;2.7157;
50.7000;0.2597;2.7333;
51.0000;0.2548;2.7182;
51.3000;0.2548;2.7258;
51.6000;0.2532;2.7182;
51.9000;0.2515;2.7057;
52.2000;0.2532;2.7107;
52.5000;0.2548;2.7157;
52.8000;0.2540;2.7182;
53.1000;0.2548;2.7157;
53.4000;0.2564;2.7157;
53.7000;0.2556;2.7182;
54.0000;0.2523;2.7132;
54.3000;0.2532;2.7132;
54.6000;0.2475;2.6932;
54.9000;0.2580;2.7308;
55.2000;0.2532;2.7233;
55.5000;0.2483;2.7082;
55.8000;0.2523;2.7333;
56.1000;0.2515;2.7333;
56.4000;0.2556;2.7308;
56.7000;0.2548;2.7383;
57.0000;0.2597;2.7458;
57.3000;0.2540;2.7358;
57.6000;0.2507;2.7308;
57.9000;0.2475;2.7283;
58.2000;0.2532;2.7408;
58.5000;0.2532;2.7308;
58.8000;0.2548;2.7333;
59.1000;0.2540;2.7408;
59.4000;0.2540;2.7383;
59.7000;0.2556;2.7458;
60.0000;0.2572;2.7533;
60.3000;0.2532;2.7358;
60.6000;0.2523;2.7283;
60.9000;0.2694;2.7683;
61.2000;0.2564;2.7308;
61.5000;0.2515;2.7207;
61.8000;0.2621;2.7408;
62.1000;0.2540;2.7182;
62.4000;0.2564;2.7308;
62.7000;0.2532;2.7082;
63.0000;0.2548;2.7057;
63.3000;0.2540;2.7032;
63.6000;0.2540;2.7107;
63.9000;0.2523;2.7032;
64.2000;0.2564;2.7157;
64.5000;0.2548;2.7157;
64.8000;0.2564;2.7207;
65.1000;0.2540;2.7207;
65.4000;0.2540;2.7157;
65.7000;0.2532;2.7157;
66.0000;0.2556;2.7233;
66.3000;0.2548;2.7258;
66.6000;0.2540;2.7132;
66.9000;0.2629;2.7408;
67.2000;0.2532;2.7157;
67.5000;0.2548;2.7258;
67.8000;0.2548;2.7333;
68.1000;0.2532;2.7207;
68.4000;0.2409;2.6907;
68.7000;0.2572;2.7383;
69.0000;0.2556;2.7433;
69.3000;0.2540;2.7308;
69.6000;0.2556;2.7358;
69.9000;0.2523;2.7283;
70.2000;0.2556;2.7408;
70.5000;0.2507;2.7207;
70.8000;0.2532;2.7358;
71.1000;0.2564;2.7433;
71.4000;0.2580;2.7533;
71.7000;0.2458;2.7258;
72.0000;0.2515;2.7358;
72.3000;0.2523;2.7383;
72.6000;0.2540;2.7458;
72.9000;0.2548;2.7383;
73.2000;0.2556;2.7383;
73.5000;0.2532;2.7283;
73.8000;0.2564;2.7258;
74.1000;0.2572;2.7283;
74.4000;0.2564;2.7308;
74.7000;0.2532;2.7333;
75.0000;0.2572;2.7383;
75.3000;0.2556;2.7383;
75.6000;0.2564;2.7358;
75.9000;0.2540;2.7207;
76.2000;0.2540;2.7182;
76.5000;0.2556;2.7283;
76.8000;0.2564;2.7333;
77.1000;0.2523;2.7283;
77.4000;0.2589;2.7383;
77.7000;0.2556;2.7383;
78.0000;0.2548;2.7333;
78.3000;0.2532;2.7333;
78.6000;0.2499;2.7308;
78.9000;0.2556;2.7483;
79.2000;0.2548;2.7483;
79.5000;0.2556;2.7483;
79.8000;0.2532;2.7333;
80.1000;0.2686;2.7633;
80.4000;0.2572;2.7383;
80.7000;0.2483;2.7157;
81.0000;0.2515;2.7157;
81.3000;0.2589;2.7333;
81.6000;0.2523;2.7157;
81.9000;0.2540;2.7207;
82.2000;0.2483;2.7007;
82.5000;0.2532;2.7182;
82.8000;0.2572;2.7308;
83.1000;0.2540;2.7258;
83.4000;0.2548;2.7283;
83.7000;0.2548;2.7433;
84.0000;0.2540;2.7433;
84.3000;0.2548;2.7483;
84.6000;0.2694;2.7858;
84.9000;0.2548;2.7358;
85.2000;0.2556;2.7383;
85.5000;0.2580;2.7408;
85.8000;0.2556;2.7458;
86.1000;0.2515;2.7433;
86.4000;0.2515;2.7433;
86.7000;0.2548;2.7608;
87.0000;0.2532;2.7533;
87.3000;0.2540;2.7533;
87.6000;0.2556;2.7533;
87.9000;0.2548;2.7508;
88.2000;0.2532;2.7433;
88.5000;0.2532;2.7408;
88.8000;0.2532;2.7358;
89.1000;0.2540;2.7383;
89.4000;0.2499;2.7283;
89.7000;0.2515;2.7383;
90.0000;0.2548;2.7308;
90.3000;0.2572;2.7308;
90.6000;0.2499;2.7157;
90.9000;0.2523;2.7308;
91.2000;0.2548;2.7207;
91.5000;0.2523;2.7107;
91.8000;0.2532;2.7107;
92.1000;0.2401;2.6807;
92.4000;0.2523;2.7107;
92.7000;0.2523;2.7107;
93.0000;0.2523;2.7107;
93.3000;0.2556;2.7182;
93.6000;0.2507;2.7107;
93.9000;0.2540;2.7207;
94.2000;0.2548;2.7258;
94.5000;0.2515;2.7157;
94.8000;0.2532;2.7182;
95.1000;0.2532;2.7207;
95.4000;0.2572;2.7283;
95.7000;0.2540;2.7233;
96.0000;0.2515;2.7182;
96.3000;0.2637;2.7533;
96.6000;0.2523;2.7283;
96.9000;0.2540;2.7283;
97.2000;0.2564;2.7333;
97.5000;0.2556;2.7233;
97.8000;0.2540;2.7157;
98.1000;0.2548;2.7157;
98.4000;0.2589;2.7258;
98.7000;0.2515;2.7082;
99.0000;0.2515;2.7107;
99.3000;0.2515;2.7207;
99.6000;0.2564;2.7283;
99.9000;0.2556;2.7207;
100.2000;0.2540;2.7132;
100.5000;0.2532;2.7107;
100.8000;0.2564;2.7107;
101.1000;0.2548;2.7032;
101.4000;0.2556;2.6982;
101.7000;0.2532;2.6982;
102.0000;0.2548;2.7032;
102.3000;0.2540;2.7057;
102.6000;0.2532;2.6982;
102.9000;0.2548;2.7107;
103.2000;0.2523;2.6932;
103.5000;0.2605;2.7182;
103.8000;0.2540;2.7032;
104.1000;0.2515;2.6982;
104.4000;0.2523;2.6982;
104.7000;0.2548;2.6907;
105.0000;0.2475;2.6682;
105.3000;0.2532;2.6957;
105.6000;0.2540;2.7007;
105.9000;0.2564;2.7132;
106.2000;0.2564;2.7157;
106.5000;0.2548;2.7132;
106.8000;0.2515;2.7132;
107.1000;0.2532;2.7233;
107.4000;0.2548;2.7258;
107.7000;0.2548;2.7308;
108.0000;0.2564;2.7333;
108.3000;0.2515;2.7308;
108.6000;0.2475;2.7182;
108.9000;0.2556;2.7408;
109.2000;0.2523;2.7283;
109.5000;0.2532;2.7207;
109.8000;0.2532;2.7107;
110.1000;0.2564;2.7207;
110.4000;0.2507;2.7057;
110.7000;0.2515;2.6982;
111.0000;0.2540;2.7107;
111.3000;0.2523;2.7057;
111.6000;0.2540;2.7057;
111.9000;0.2507;2.7107;
112.2000;0.2556;2.7233;
112.5000;0.2540;2.7233;
112.8000;0.2507;2.7057;
113.1000;0.2548;2.7207;
113.4000;0.2540;2.7157;
113.7000;0.2532;2.7182;
114.0000;0.2523;2.7157;
114.3000;0.2540;2.7182;
114.6000;0.2532;2.7157;
114.9000;0.2540;2.7207;
115.2000;0.2532;2.7132;
115.5000;0.2540;2.7107;
115.8000;0.2540;2.7057;
116.1000;0.2515;2.7057;
116.4000;0.2532;2.7057;
116.7000;0.2409;2.6882;
117.0000;0.2523;2.7132;
117.3000;0.2532;2.7107;
117.6000;0.2556;2.7233;
117.9000;0.2458;2.6932;
118.2000;0.2532;2.7182;
118.5000;0.2515;2.7182;
118.8000;0.2515;2.7157;
119.1000;0.2499;2.7057;
119.4000;0.2540;2.7182;
119.7000;0.2532;2.7082;
120.0000;0.2532;2.7107;
120.3000;0.2532;2.7132;
120.6000;0.2548;2.7157;
120.9000;0.2523;2.7107;
121.2000;0.2523;2.7107;
121.5000;0.2523;2.7233;
121.8000;0.2507;2.7182;
122.1000;0.2532;2.7233;
122.4000;0.2523;2.7233;
122.7000;0.2523;2.7233;
123.0000;0.2515;2.7283;
123.3000;0.2540;2.7308;
123.6000;0.2507;2.7233;
123.9000;0.2540;2.7283;
124.2000;0.2523;2.7132;
124.5000;0.2458;2.7032;
124.8000;0.2532;2.7233;
125.1000;0.2540;2.7132;
125.4000;0.2499;2.7132;
125.7000;0.2556;2.7182;
126.0000;0.2556;2.7157;
126.3000;0.2540;2.7057;
126.6000;0.2523;2.6982;
126.9000;0.2523;2.6982;
127.2000;0.2507;2.6957;
127.5000;0.2491;2.6882;
127.8000;0.2548;2.6932;
128.1000;0.2450;2.6657;
128.4000;0.2377;2.6457;
128.7000;0.2515;2.6807;
129.0000;0.2515;2.6882;
129.3000;0.2564;2.7082;
129.6000;0.2548;2.7007;
129.9000;0.2532;2.6882;
130.2000;0.2556;2.6957;
130.5000;0.2548;2.6957;
130.8000;0.2515;2.6907;
131.1000;0.2564;2.7057;
131.4000;0.2548;2.7057;
131.7000;0.2532;2.6957;
132.0000;0.2458;2.6832;
132.3000;0.2532;2.7107;
132.6000;0.2540;2.7082;
132.9000;0.2532;2.7157;
133.2000;0.2548;2.7182;
133.5000;0.2515;2.7157;
133.8000;0.2540;2.7333;
134.1000;0.2532;2.7258;
134.4000;0.2475;2.7082;
134.7000;0.2515;2.7258;
135.0000;0.2523;2.7207;
135.3000;0.2540;2.7233;
135.6000;0.2548;2.7258;
135.9000;0.2532;2.7157;
136.2000;0.2572;2.7233;
136.5000;0.2507;2.7182;
136.8000;0.2540;2.7107;
137.1000;0.2540;2.7132;
137.4000;0.2523;2.7132;
137.7000;0.2466;2.7032;
138.0000;0.2532;2.7082;
138.3000;0.2377;2.6732;
138.6000;0.2532;2.7157;
138.9000;0.2548;2.7132;
139.2000;0.2540;2.7107;
139.5000;0.2548;2.7157;
139.8000;0.2540;2.7233;
140.1000;0.2548;2.7157;
140.4000;0.2564;2.7182;
140.7000;0.2458;2.6882;
141.0000;0.2515;2.7057;
141.3000;0.2523;2.7082;
141.6000;0.2564;2.7207;
141.9000;0.2532;2.7107;
142.2000;0.2532;2.7107;
142.5000;0.2523;2.7107;
142.8000;0.2499;2.7057;
143.1000;0.2556;2.7182;
143.4000;0.2540;2.7107;
143.7000;0.2540;2.7082;
144.0000;0.2556;2.7057;
144.3000;0.2564;2.7032;
144.6000;0.2548;2.6932;
144.9000;0.2540;2.6882;
145.2000;0.2556;2.6857;
145.5000;0.2564;2.6907;
145.8000;0.2523;2.6882;
146.1000;0.2532;2.6907;
146.4000;0.2532;2.6882;
146.7000;0.2540;2.6907;
147.0000;0.2670;2.7358;
147.3000;0.2613;2.7258;
147.6000;0.2532;2.7057;
147.9000;0.2532;2.6982;
148.2000;0.2540;2.7007;
148.5000;0.2540;2.7082;
148.8000;0.2540;2.7182;
149.1000;0.2515;2.7157;
149.4000;0.2605;2.7483;
149.7000;0.2499;2.7207;
150.0000;0.2540;2.7333;
150.3000;0.2499;2.7182;
150.6000;0.2597;2.7408;
150.9000;0.2662;2.7583;
151.2000;0.2564;2.7132;
151.5000;0.2540;2.7157;
151.8000;0.2556;2.7107;
152.1000;0.2523;2.7107;
152.4000;0.2532;2.7182;
152.7000;0.2540;2.7308;
153.0000;0.2523;2.7283;
153.3000;0.2597;2.7433;
153.6000;0.2450;2.7032;
153.9000;0.2589;2.7358;
154.2000;0.2540;2.7132;
154.5000;0.2540;2.7207;
154.8000;0.2564;2.7157;
155.1000;0.2556;2.7207;
155.4000;0.2515;2.6982;
155.7000;0.2532;2.7032;
156.0000;0.2523;2.7007;
156.3000;0.2548;2.7032;
156.6000;0.2507;2.6907;
156.9000;0.2532;2.7057;
157.2000;0.2515;2.7032;
157.5000;0.2548;2.7082;
157.8000;0.2523;2.7007;
158.1000;0.2523;2.7007;
158.4000;0.2466;2.6707;
158.7000;0.2540;2.7007;
159.0000;0.2491;2.6882;
159.3000;0.2556;2.6957;
159.6000;0.2694;2.7383;
159.9000;0.2564;2.7032;
160.2000;0.2580;2.7057;
160.5000;0.2564;2.7107;
160.8000;0.2564;2.7182;
161.1000;0.2523;2.7032;
161.4000;0.2621;2.7233;
161.7000;0.2564;2.7057;
162.0000;0.2507;2.6932;
162.3000;0.2523;2.7007;
162.6000;0.2507;2.7007;
162.9000;0.2540;2.7007;
163.2000;0.2458;2.6707;
163.5000;0.2548;2.6907;
163.8000;0.2540;2.7032;
164.1000;0.2556;2.7032;
164.4000;0.2515;2.7032;
164.7000;0.2540;2.7107;
165.0000;0.2523;2.7132;
165.3000;0.2532;2.7157;
165.6000;0.2540;2.7157;
165.9000;0.2491;2.6957;
166.2000;0.2540;2.7057;
166.5000;0.2548;2.7057;
166.8000;0.2572;2.7032;
167.1000;0.2532;2.6932;
167.4000;0.2548;2.7007;
167.7000;0.2556;2.7057;
168.0000;0.2580;2.7082;
168.3000;0.2540;2.7032;
168.6000;0.2564;2.7032;
168.9000;0.2548;2.7007;
169.2000;0.2532;2.7082;
169.5000;0.2556;2.7132;
169.8000;0.2564;2.7132;
170.1000;0.2523;2.7082;
170.4000;0.2532;2.7032;
170.7000;0.2572;2.7107;
171.0000;0.2515;2.7007;
171.3000;0.2523;2.7082;
171.6000;0.2540;2.7057;
171.9000;0.2548;2.7107;
172.2000;0.2532;2.7032;
172.5000;0.2523;2.6982;
172.8000;0.2491;2.6907;
173.1000;0.2621;2.7308;
173.4000;0.2540;2.6982;
173.7000;0.2499;2.6982;
174.0000;0.2499;2.6982;
174.3000;0.2572;2.7132;
174.6000;0.2580;2.7107;
174.9000;0.2540;2.7082;
175.2000;0.2515;2.7082;
175.5000;0.2556;2.7207;
175.8000;0.2540;2.7233;
176.1000;0.2548;2.7283;
176.4000;0.2613;2.7508;
176.7000;0.2515;2.7157;
177.0000;0.2515;2.7207;
177.3000;0.2548;2.7283;
177.6000;0.2491;2.7233;
177.9000;0.2532;2.7383;
178.2000;0.2515;2.7408;
178.5000;0.2572;2.7533;
178.8000;0.2613;2.7683;
179.1000;0.2540;2.7483;
179.4000;0.2572;2.7383;
179.7000;0.2532;2.7283;
180.0000;0.2466;2.7082;
180.3000;0.2532;2.7283;
180.6000;0.2540;2.7258;
180.9000;0.2621;2.7408;
181.2000;0.2540;2.7157;
181.5000;0.2499;2.7107;
181.8000;0.2532;2.7207;
182.1000;0.2605;2.7433;
182.4000;0.2507;2.7207;
182.7000;0.2499;2.7157;
183.0000;0.2507;2.7182;
183.3000;0.2556;2.7207;
183.6000;0.2458;2.7032;
183.9000;0.2540;2.7207;
184.2000;0.2532;2.7182;
184.5000;0.2605;2.7408;
184.8000;0.2564;2.7483;
185.1000;0.2572;2.7483;
185.4000;0.2564;2.7508;
185.7000;0.2532;2.7333;
186.0000;0.2491;2.7107;
186.3000;0.2515;2.7082;
186.6000;0.2523;2.7182;
186.9000;0.2532;2.7283;
187.2000;0.2515;2.7283;
187.5000;0.2515;2.7308;
187.8000;0.2589;2.7533;
188.1000;0.2556;2.7508;
188.4000;0.2515;2.7483;
188.7000;0.2507;2.7408;
189.0000;0.2491;2.7333;
189.3000;0.2564;2.7483;
189.6000;0.2540;2.7408;
189.9000;0.2572;2.7408;
190.2000;0.2548;2.7458;
190.5000;0.2548;2.7358;
190.8000;0.2532;2.7258;
191.1000;0.2556;2.7333;
191.4000;0.2556;2.7333;
191.7000;0.2548;2.7358;
192.0000;0.2532;2.7358;
192.3000;0.2515;2.7233;
192.6000;0.2540;2.7182;
192.9000;0.2540;2.7157;
193.2000;0.2548;2.7132;
193.5000;0.2589;2.7233;
193.8000;0.2564;2.7258;
194.1000;0.2515;2.7157;
194.4000;0.2580;2.7333;
194.7000;0.2572;2.7383;
195.0000;0.2678;2.7708;
195.3000;0.2564;2.7358;
195.6000;0.2523;2.7333;
195.9000;0.2564;2.7458;
196.2000;0.2532;2.7358;
196.5000;0.2678;2.7783;
196.8000;0.2507;2.7433;
197.1000;0.2466;2.7383;
197.4000;0.2507;2.7458;
197.7000;0.2507;2.7533;
198.0000;0.2556;2.7608;
198.3000;0.2532;2.7483;
198.6000;0.2556;2.7508;
198.9000;0.2564;2.7383;
199.2000;0.2499;2.7207;
199.5000;0.2556;2.7383;
199.8000;0.2523;2.7358;
200.1000;0.2572;2.7508;
200.4000;0.2548;2.7483;
200.7000;0.2475;2.7283;
201.0000;0.2523;2.7533;
201.3000;0.2540;2.7508;
201.6000;0.2540;2.7458;
201.9000;0.2532;2.7333;
202.2000;0.2466;2.7082;
202.5000;0.2540;2.7233;
202.8000;0.2548;2.7308;
203.1000;0.2393;2.7007;
203.4000;0.2564;2.7458;
203.7000;0.2532;2.7333;
204.0000;0.2556;2.7308;
204.3000;0.2548;2.7283;
204.6000;0.2589;2.7408;
204.9000;0.2548;2.7308;
205.2000;0.2515;2.7207;
205.5000;0.2515;2.7233;
205.8000;0.2515;2.7182;
206.1000;0.2564;2.7283;
206.4000;0.2548;2.7233;
206.7000;0.2532;2.7157;
207.0000;0.2507;2.7132;
207.3000;0.2564;2.7258;
207.6000;0.2548;2.7132;
207.9000;0.2523;2.7057;
208.2000;0.2532;2.7032;
208.5000;0.2532;2.7057;
208.8000;0.2523;2.7157;
209.1000;0.2548;2.7207;
209.4000;0.2532;2.7132;
209.7000;0.2523;2.7182;
210.0000;0.2572;2.7258;
210.3000;0.2523;2.7107;
210.6000;0.2523;2.7258;
210.9000;0.2613;2.7533;
211.2000;0.2548;2.7458;
211.5000;0.2540;2.7458;
211.8000;0.2523;2.7383;
212.1000;0.2515;2.7408;
212.4000;0.2548;2.7458;
212.7000;0.2515;2.7433;
213.0000;0.2572;2.7533;
213.3000;0.2540;2.7333;
213.6000;0.2540;2.7408;
213.9000;0.2540;2.7433;
214.2000;0.2532;2.7333;
214.5000;0.2556;2.7333;
214.8000;0.2523;2.7132;
215.1000;0.2532;2.7233;
215.4000;0.2572;2.7358;
215.7000;0.2548;2.7358;
216.0000;0.2532;2.7283;
216.3000;0.2491;2.7233;
216.6000;0.2548;2.7333;
216.9000;0.2523;2.7207;
217.2000;0.2450;2.7032;
217.5000;0.2548;2.7358;
217.8000;0.2515;2.7258;
218.1000;0.2523;2.7283;
218.4000;0.2532;2.7408;
218.7000;0.2540;2.7433;
219.0000;0.2556;2.7458;
219.3000;0.2523;2.7233;
219.6000;0.2572;2.7383;
219.9000;0.2548;2.7258;
220.2000;0.2564;2.7233;
220.5000;0.2466;2.6907;
220.8000;0.2540;2.7082;
221.1000;0.2540;2.7132;
221.4000;0.2548;2.7182;
221.7000;0.2515;2.7082;
222.0000;0.2532;2.7182;
222.3000;0.2523;2.7207;
222.6000;0.2507;2.7283;
222.9000;0.2540;2.7358;
223.2000;0.2515;2.7333;
223.5000;0.2515;2.7258;
223.8000;0.2515;2.7233;
224.1000;0.2515;2.7258;
224.4000;0.2515;2.7308;
224.7000;0.2532;2.7283;
225.0000;0.2515;2.7333;
225.3000;0.2556;2.7433;
225.6000;0.2540;2.7383;
225.9000;0.2523;2.7358;
226.2000;0.2605;2.7583;
226.5000;0.2523;2.7358;
226.8000;0.2532;2.7408;
227.1000;0.2532;2.7258;
227.4000;0.2515;2.7207;
227.7000;0.2499;2.7207;
228.0000;0.2507;2.7207;
228.3000;0.2515;2.7258;
228.6000;0.2548;2.7283;
228.9000;0.2564;2.7358;
229.2000;0.2540;2.7182;
229.5000;0.2532;2.7182;
229.8000;0.2499;2.7132;
230.1000;0.2556;2.7283;
230.4000;0.2548;2.7333;
230.7000;0.2556;2.7283;
231.0000;0.2523;2.7233;
231.3000;0.2540;2.7383;
231.6000;0.2548;2.7408;
231.9000;0.2621;2.7558;
232.2000;0.2523;2.7358;
232.5000;0.2532;2.7433;
232.8000;0.2548;2.7483;
233.1000;0.2515;2.7408;
233.4000;0.2515;2.7358;
233.7000;0.2572;2.7508;
234.0000;0.2499;2.7408;
234.3000;0.2523;2.7408;
234.6000;0.2540;2.7433;
234.9000;0.2589;2.7483;
235.2000;0.2564;2.7483;
235.5000;0.2532;2.7458;
235.8000;0.2556;2.7433;
236.1000;0.2523;2.7308;
236.4000;0.2515;2.7283;
236.7000;0.2532;2.7383;
237.0000;0.2515;2.7383;
237.3000;0.2507;2.7408;
237.6000;0.2532;2.7458;
237.9000;0.2580;2.7508;
238.2000;0.2540;2.7458;
238.5000;0.2532;2.7458;
238.8000;0.2523;2.7458;
239.1000;0.2540;2.7558;
239.4000;0.2523;2.7483;
239.7000;0.2540;2.7483;
240.0000;0.2597;2.7583;
240.3000;0.2548;2.7483;
240.6000;0.2540;2.7508;
240.9000;0.2523;2.7483;
241.2000;0.2523;2.7483;
241.5000;0.2540;2.7483;
241.8000;0.2515;2.7433;
242.1000;0.2540;2.7458;
242.4000;0.2507;2.7283;
242.7000;0.2572;2.7433;
243.0000;0.2523;2.7308;
243.3000;0.2548;2.7383;
243.6000;0.2523;2.7308;
243.9000;0.2515;2.7308;
244.2000;0.2515;2.7283;
244.5000;0.2515;2.7333;
244.8000;0.2540;2.7508;
245.1000;0.2507;2.7408;
245.4000;0.2426;2.7107;
245.7000;0.2491;2.7207;
246.0000;0.2564;2.7383;
246.3000;0.2507;2.7233;
246.6000;0.2523;2.7283;
246.9000;0.2540;2.7333;
247.2000;0.2515;2.7333;
247.5000;0.2507;2.7308;
247.8000;0.2523;2.7433;
248.1000;0.2540;2.7483;
248.4000;0.2548;2.7508;
248.7000;0.2450;2.7258;
249.0000;0.2442;2.7233;
249.3000;0.2523;2.7408;
249.6000;0.2532;2.7458;
249.9000;0.2532;2.7483;
250.2000;0.2523;2.7508;
250.5000;0.2548;2.7583;
250.8000;0.2532;2.7533;
251.1000;0.2621;2.7858;
251.4000;0.2515;2.7483;
251.7000;0.2523;2.7408;
252.0000;0.2548;2.7508;
252.3000;0.2515;2.7383;
252.6000;0.2523;2.7408;
252.9000;0.2499;2.7258;
253.2000;0.2540;2.7433;
253.5000;0.2507;2.7383;
253.8000;0.2507;2.7358;
254.1000;0.2540;2.7458;
254.4000;0.2515;2.7408;
254.7000;0.2499;2.7358;
255.0000;0.2540;2.7533;
255.3000;0.2564;2.7608;
255.6000;0.2540;2.7483;
255.9000;0.2540;2.7408;
256.2000;0.2548;2.7483;
256.5000;0.2540;2.7508;
256.8000;0.2515;2.7458;
257.1000;0.2556;2.7558;
257.4000;0.2532;2.7583;
257.7000;0.2475;2.7483;
258.0000;0.2515;2.7533;
258.3000;0.2515;2.7533;
258.6000;0.2532;2.7583;
258.9000;0.2523;2.7458;
259.2000;0.2515;2.7533;
259.5000;0.2532;2.7533;
259.8000;0.2548;2.7583;
260.1000;0.2532;2.7558;
260.4000;0.2540;2.7533;
260.7000;0.2564;2.7608;
261.0000;0.2621;2.7658;
261.3000;0.2556;2.7458;
261.6000;0.2540;2.7408;
261.9000;0.2564;2.7483;
262.2000;0.2532;2.7433;
262.5000;0.2556;2.7558;
262.8000;0.2515;2.7458;
263.1000;0.2564;2.7508;
263.4000;0.2540;2.7508;
263.7000;0.2572;2.7508;
264.0000;0.2523;2.7358;
264.3000;0.2572;2.7458;
264.6000;0.2523;2.7458;
264.9000;0.2572;2.7508;
265.2000;0.2532;2.7283;
265.5000;0.2532;2.7157;
265.8000;0.2458;2.7007;
266.1000;0.2532;2.7182;
266.4000;0.2532;2.7207;
266.7000;0.2540;2.7157;
267.0000;0.2532;2.7308;
267.3000;0.2532;2.7383;
267.6000;0.2507;2.7333;
267.9000;0.2515;2.7408;
268.2000;0.2540;2.7508;
268.5000;0.2483;2.7358;
268.8000;0.2548;2.7633;
269.1000;0.2548;2.7608;
269.4000;0.2540;2.7608;
269.7000;0.2605;2.7833;
270.0000;0.2564;2.7683;
270.3000;0.2540;2.7558;
270.6000;0.2540;2.7533;
270.9000;0.2556;2.7608;
271.2000;0.2458;2.7308;
271.5000;0.2523;2.7333;
271.8000;0.2540;2.7383;
272.1000;0.2491;2.7308;
272.4000;0.2564;2.7383;
272.7000;0.2507;2.7333;
273.0000;0.2532;2.7358;
273.3000;0.2646;2.7733;
273.6000;0.2540;2.7483;
273.9000;0.2426;2.7157;
274.2000;0.2507;2.7383;
274.5000;0.2532;2.7458;
274.8000;0.2523;2.7433;
275.1000;0.2548;2.7508;
275.4000;0.2548;2.7458;
275.7000;0.2507;2.7333;
276.0000;0.2548;2.7433;
276.3000;0.2523;2.7533;
276.6000;0.2540;2.7583;
276.9000;0.2548;2.7533;
277.2000;0.2523;2.7433;
277.5000;0.2548;2.7433;
277.8000;0.2515;2.7408;
278.1000;0.2515;2.7333;
278.4000;0.2515;2.7207;
278.7000;0.2523;2.7258;
279.0000;0.2532;2.7233;
279.3000;0.2507;2.7233;
279.6000;0.2523;2.7308;
279.9000;0.2540;2.7383;
280.2000;0.2499;2.7308;
280.5000;0.2540;2.7483;
280.8000;0.2605;2.7533;
281.1000;0.2556;2.7358;
281.4000;0.2540;2.7383;
281.7000;0.2475;2.7258;
282.0000;0.2540;2.7308;
282.3000;0.2540;2.7358;
282.6000;0.2540;2.7408;
282.9000;0.2499;2.7333;
283.2000;0.2507;2.7308;
283.5000;0.2458;2.7233;
283.8000;0.2540;2.7433;
284.1000;0.2540;2.7483;
284.4000;0.2540;2.7458;
284.7000;0.2540;2.7558;
285.0000;0.2523;2.7458;
285.3000;0.2523;2.7533;
285.6000;0.2532;2.7633;
285.9000;0.2532;2.7533;
286.2000;0.2564;2.7658;
286.5000;0.2564;2.7658;
286.8000;0.2532;2.7508;
287.1000;0.2491;2.7483;
287.4000;0.2515;2.7533;
287.7000;0.2540;2.7558;
288.0000;0.2540;2.7583;
288.3000;0.2515;2.7533;
288.6000;0.2540;2.7608;
288.9000;0.2564;2.7658;
289.2000;0.2548;2.7633;
289.5000;0.2532;2.7583;
289.8000;0.2523;2.7483;
290.1000;0.2548;2.7433;
290.4000;0.2540;2.7333;
290.7000;0.2556;2.7358;
291.0000;0.2523;2.7283;
291.3000;0.2532;2.7383;
291.6000;0.2605;2.7533;
291.9000;0.2523;2.7408;
292.2000;0.2548;2.7483;
292.5000;0.2491;2.7333;
292.8000;0.2499;2.7358;
293.1000;0.2442;2.7233;
293.4000;0.2532;2.7458;
293.7000;0.2491;2.7408;
294.0000;0.2548;2.7483;
294.3000;0.2597;2.7608;
294.6000;0.2532;2.7408;
294.9000;0.2491;2.7383;
295.2000;0.2548;2.7433;
295.5000;0.2540;2.7458;
295.8000;0.2572;2.7433;
296.1000;0.2637;2.7558;
296.4000;0.2540;2.7333;
296.7000;0.2646;2.7683;
297.0000;0.2515;2.7383;
297.3000;0.2507;2.7308;
297.6000;0.2532;2.7358;
297.9000;0.2540;2.7358;
298.2000;0.2532;2.7383;
298.5000;0.2515;2.7308;
298.8000;0.2580;2.7433;
299.1000;0.2540;2.7358;
299.4000;0.2540;2.7258;
299.7000;0.2523;2.7258;
300.0000;0.2523;2.7233;
300.3000;0.2515;2.7258;
300.6000;0.2556;2.7358;
300.9000;0.2523;2.7233;
301.2000;0.2523;2.7233;
301.5000;0.2540;2.7408;
301.8000;0.2540;2.7433;
302.1000;0.2548;2.7533;
302.4000;0.2475;2.7308;
302.7000;0.2515;2.7408;
303.0000;0.2483;2.7283;
303.3000;0.2523;2.7283;
303.6000;0.2523;2.7358;
303.9000;0.2540;2.7433;
304.2000;0.2548;2.7508;
304.5000;0.2393;2.7132;
304.8000;0.2515;2.7408;
305.1000;0.2523;2.7458;
305.4000;0.2580;2.7558;
305.7000;0.2532;2.7308;
306.0000;0.2564;2.7333;
306.3000;0.2564;2.7383;
306.6000;0.2426;2.7032;
306.9000;0.2532;2.7207;
307.2000;0.2491;2.7157;
307.5000;0.2532;2.7233;
307.8000;0.2499;2.7132;
308.1000;0.2523;2.7132;
308.4000;0.2523;2.7157;
308.7000;0.2507;2.7082;
309.0000;0.2523;2.7182;
309.3000;0.2515;2.7132;
309.6000;0.2507;2.7132;
309.9000;0.2532;2.7233;
310.2000;0.2556;2.7308;
310.5000;0.2532;2.7258;
310.8000;0.2515;2.7258;
311.1000;0.2515;2.7182;
311.4000;0.2515;2.7082;
311.7000;0.2540;2.7283;
312.0000;0.2523;2.7283;
312.3000;0.2426;2.7057;
312.6000;0.2507;2.7283;
312.9000;0.2515;2.7283;
313.2000;0.2499;2.7157;
313.5000;0.2483;2.7132;
313.8000;0.2523;2.7132;
314.1000;0.2532;2.7258;
314.4000;0.2548;2.7283;
314.7000;0.2548;2.7283;
315.0000;0.2629;2.7608;
315.3000;0.2540;2.7433;
315.6000;0.2475;2.7333;
315.9000;0.2515;2.7333;
316.2000;0.2523;2.7358;
316.5000;0.2523;2.7308;
316.8000;0.2450;2.7132;
317.1000;0.2515;2.7258;
317.4000;0.2556;2.7408;
317.7000;0.2589;2.7533;
318.0000;0.2523;2.7333;
318.3000;0.2532;2.7433;
318.6000;0.2515;2.7358;
318.9000;0.2507;2.7283;
319.2000;0.2532;2.7333;
319.5000;0.2548;2.7358;
319.8000;0.2450;2.7157;
320.1000;0.2613;2.7483;
320.4000;0.2540;2.7258;
320.7000;0.2466;2.7032;
321.0000;0.2532;2.7308;
321.3000;0.2572;2.7483;
321.6000;0.2523;2.7408;
321.9000;0.2507;2.7358;
322.2000;0.2548;2.7483;
322.5000;0.2532;2.7433;
322.8000;0.2515;2.7333;
323.1000;0.2613;2.7508;
323.4000;0.2532;2.7358;
323.7000;0.2540;2.7333;
324.0000;0.2523;2.7333;
324.3000;0.2507;2.7358;
324.6000;0.2507;2.7358;
324.9000;0.2523;2.7483;
325.2000;0.2515;2.7483;
325.5000;0.2523;2.7533;
325.8000;0.2556;2.7708;
326.1000;0.2532;2.7608;
326.4000;0.2523;2.7508;
326.7000;0.2499;2.7508;
327.0000;0.2540;2.7558;
327.3000;0.2515;2.7508;
327.6000;0.2572;2.7733;
327.9000;0.2507;2.7608;
328.2000;0.2548;2.7708;
328.5000;0.2540;2.7683;
328.8000;0.2540;2.7683;
329.1000;0.2532;2.7658;
329.4000;0.2532;2.7658;
329.7000;0.2523;2.7708;
330.0000;0.2540;2.7833;
330.3000;0.2548;2.7708;
330.6000;0.2532;2.7633;
330.9000;0.2507;2.7433;
331.2000;0.2540;2.7483;
331.5000;0.2532;2.7483;
331.8000;0.2523;2.7458;
332.1000;0.2532;2.7458;
332.4000;0.2540;2.7458;
332.7000;0.2515;2.7483;
333.0000;0.2532;2.7533;
333.3000;0.2605;2.7658;
333.6000;0.2523;2.7383;
333.9000;0.2507;2.7233;
334.2000;0.2507;2.7057;
334.5000;0.2580;2.7283;
334.8000;0.2548;2.7308;
335.1000;0.2515;2.7132;
335.4000;0.2523;2.7132;
335.7000;0.2548;2.7233;
336.0000;0.2523;2.7157;
336.3000;0.2556;2.7258;
336.6000;0.2532;2.7182;
336.9000;0.2556;2.7258;
337.2000;0.2621;2.7533;
337.5000;0.2523;2.7258;
337.8000;0.2613;2.7583;
338.1000;0.2532;2.7358;
338.4000;0.2450;2.7157;
338.7000;0.2409;2.6957;
339.0000;0.2548;2.7408;
339.3000;0.2589;2.7483;
339.6000;0.2580;2.7608;
339.9000;0.2491;2.7433;
340.2000;0.2434;2.7283;
340.5000;0.2548;2.7508;
340.8000;0.2515;2.7483;
341.1000;0.2564;2.7583;
341.4000;0.2523;2.7458;
341.7000;0.2515;2.7308;
342.0000;0.2507;2.7207;
342.3000;0.2458;2.7057;
342.6000;0.2605;2.7458;
342.9000;0.2523;2.7283;
343.2000;0.2548;2.7533;
343.5000;0.2548;2.7533;
343.8000;0.2556;2.7533;
344.1000;0.2515;2.7508;
344.4000;0.2548;2.7508;
344.7000;0.2507;2.7383;
345.0000;0.2532;2.7383;
345.3000;0.2548;2.7458;
345.6000;0.2532;2.7358;
345.9000;0.2532;2.7308;
346.2000;0.2458;2.7007;
346.5000;0.2556;2.7258;
346.8000;0.2548;2.7258;
347.1000;0.2515;2.7283;
347.4000;0.2540;2.7358;
347.7000;0.2515;2.7233;
348.0000;0.2532;2.7308;
348.3000;0.2540;2.7408;
348.6000;0.2540;2.7433;
348.9000;0.2499;2.7408;
349.2000;0.2540;2.7458;
349.5000;0.2491;2.7458;
349.8000;0.2515;2.7533;
350.1000;0.2532;2.7508;
350.4000;0.2613;2.7633;
350.7000;0.2434;2.7132;
351.0000;0.2532;2.7358;
351.3000;0.2515;2.7308;
351.6000;0.2491;2.7333;
351.9000;0.2613;2.7683;
352.2000;0.2548;2.7508;
352.5000;0.2523;2.7433;
352.8000;0.2515;2.7458;
353.1000;0.2646;2.7808;
353.4000;0.2540;2.7583;
353.7000;0.2499;2.7458;
354.0000;0.2532;2.7458;
354.3000;0.2540;2.7433;
354.6000;0.2450;2.7207;
354.9000;0.2523;2.7383;
355.2000;0.2515;2.7358;
355.5000;0.2499;2.7207;
355.8000;0.2540;2.7258;
356.1000;0.2564;2.7358;
356.4000;0.2548;2.7383;
356.7000;0.2548;2.7433;
357.0000;0.2556;2.7433;
357.3000;0.2499;2.7333;
357.6000;0.2532;2.7358;
357.9000;0.2564;2.7358;
358.2000;0.2532;2.7333;
358.5000;0.2540;2.7358;
358.8000;0.2532;2.7333;
359.1000;0.2540;2.7358;
359.4000;0.2491;2.7258;
359.7000;0.2483;2.7283;
360.0000;0.2450;2.7157;
360.3000;0.2523;2.7383;
360.6000;0.2499;2.7408;
360.9000;0.2401;2.7132;
361.2000;0.2572;2.7608;
361.5000;0.2507;2.7383;
361.8000;0.2532;2.7458;
362.1000;0.2507;2.7408;
362.4000;0.2597;2.7658;
362.7000;0.2523;2.7408;
363.0000;0.2515;2.7333;
363.3000;0.2540;2.7383;
363.6000;0.2507;2.7333;
363.9000;0.2532;2.7433;
364.2000;0.2434;2.7283;
364.5000;0.2556;2.7608;
364.8000;0.2564;2.7683;
365.1000;0.2556;2.7658;
365.4000;0.2532;2.7508;
365.7000;0.2613;2.7758;
366.0000;0.2605;2.7758;
366.3000;0.2532;2.7558;
366.6000;0.2548;2.7583;
366.9000;0.2572;2.7683;
367.2000;0.2532;2.7508;
367.5000;0.2523;2.7458;
367.8000;0.2499;2.7383;
368.1000;0.2515;2.7408;
368.4000;0.2532;2.7383;
368.7000;0.2483;2.7233;
369.0000;0.2572;2.7533;
369.3000;0.2507;2.7408;
369.6000;0.2523;2.7433;
369.9000;0.2532;2.7533;
370.2000;0.2523;2.7383;
370.5000;0.2532;2.7333;
370.8000;0.2540;2.7458;
371.1000;0.2507;2.7333;
371.4000;0.2540;2.7408;
371.7000;0.2564;2.7458;
372.0000;0.2548;2.7458;
372.3000;0.2523;2.7333;
372.6000;0.2532;2.7358;
372.9000;0.2548;2.7383;
373.2000;0.2515;2.7233;
373.5000;0.2556;2.7283;
373.8000;0.2556;2.7308;
374.1000;0.2589;2.7433;
374.4000;0.2499;2.7283;
374.7000;0.2515;2.7358;
375.0000;0.2483;2.7233;
375.3000;0.2532;2.7308;
375.6000;0.2475;2.7107;
375.9000;0.2548;2.7408;
376.2000;0.2540;2.7408;
376.5000;0.2523;2.7408;
376.8000;0.2523;2.7483;
377.1000;0.2540;2.7558;
377.4000;0.2523;2.7483;
377.7000;0.2507;2.7358;
378.0000;0.2540;2.7408;
378.3000;0.2507;2.7283;
378.6000;0.2523;2.7308;
378.9000;0.2540;2.7358;
379.2000;0.2507;2.7333;
379.5000;0.2540;2.7458;
379.8000;0.2532;2.7483;
380.1000;0.2499;2.7433;
380.4000;0.2540;2.7508;
380.7000;0.2532;2.7458;
381.0000;0.2523;2.7333;
381.3000;0.2418;2.7032;
381.6000;0.2548;2.7383;
381.9000;0.2548;2.7358;
382.2000;0.2499;2.7207;
382.5000;0.2613;2.7383;
382.8000;0.2556;2.7258;
383.1000;0.2532;2.7233;
383.4000;0.2483;2.7157;
383.7000;0.2532;2.7308;
384.0000;0.2532;2.7258;
384.3000;0.2523;2.7233;
384.6000;0.2475;2.7132;
384.9000;0.2532;2.7258;
385.2000;0.2532;2.7308;
385.5000;0.2629;2.7558;
385.8000;0.2556;2.7283;
386.1000;0.2515;2.7157;
386.4000;0.2548;2.7132;
386.7000;0.2483;2.7007;
387.0000;0.2458;2.7157;
387.3000;0.2499;2.7358;
387.6000;0.2515;2.7383;
387.9000;0.2532;2.7433;
388.2000;0.2589;2.7683;
388.5000;0.2548;2.7483;
388.8000;0.2597;2.7608;
389.1000;0.2499;2.7333;
389.4000;0.2532;2.7408;
389.7000;0.2507;2.7308;
390.0000;0.2597;2.7533;
390.3000;0.2532;2.7433;
390.6000;0.2548;2.7433;
390.9000;0.2523;2.7333;
391.2000;0.2532;2.7383;
391.5000;0.2532;2.7308;
391.8000;0.2548;2.7458;
392.1000;0.2523;2.7408;
392.4000;0.2491;2.7433;
392.7000;0.2532;2.7433;
393.0000;0.2556;2.7533;
393.3000;0.2540;2.7533;
393.6000;0.2556;2.7583;
393.9000;0.2540;2.7458;
394.2000;0.2523;2.7383;
394.5000;0.2548;2.7458;
394.8000;0.2540;2.7458;
395.1000;0.2678;2.7808;
395.4000;0.2548;2.7483;
395.7000;0.2532;2.7483;
396.0000;0.2442;2.7333;
396.3000;0.2523;2.7583;
396.6000;0.2548;2.7658;
396.9000;0.2523;2.7608;
397.2000;0.2548;2.7608;
397.5000;0.2686;2.8008;
397.8000;0.2515;2.7508;
398.1000;0.2523;2.7558;
398.4000;0.2540;2.7583;
398.7000;0.2532;2.7583;
399.0000;0.2548;2.7633;
399.3000;0.2507;2.7508;
399.6000;0.2532;2.7533;
399.9000;0.2548;2.7483;
400.2000;0.2523;2.7333;
400.5000;0.2532;2.7333;
400.8000;0.2556;2.7483;
401.1000;0.2540;2.7458;
401.4000;0.2540;2.7383;
401.7000;0.2523;2.7308;
402.0000;0.2507;2.7308;
402.3000;0.2548;2.7483;
402.6000;0.2540;2.7558;
402.9000;0.2515;2.7608;
403.2000;0.2507;2.7558;
403.5000;0.2523;2.7508;
403.8000;0.2678;2.7908;
404.1000;0.2532;2.7433;
404.4000;0.2523;2.7358;
404.7000;0.2515;2.7333;
405.0000;0.2515;2.7383;
405.3000;0.2515;2.7333;
405.6000;0.2556;2.7458;
405.9000;0.2483;2.7258;
406.2000;0.2540;2.7383;
406.5000;0.2475;2.7258;
406.8000;0.2564;2.7583;
407.1000;0.2564;2.7633;
407.4000;0.2532;2.7558;
407.7000;0.2515;2.7508;
408.0000;0.2548;2.7683;
408.3000;0.2548;2.7708;
408.6000;0.2515;2.7583;
408.9000;0.2572;2.7708;
409.2000;0.2491;2.7433;
409.5000;0.2475;2.7408;
409.8000;0.2589;2.7583;
410.1000;0.2580;2.7583;
410.4000;0.2523;2.7433;
410.7000;0.2523;2.7483;
411.0000;0.2556;2.7558;
411.3000;0.2621;2.7708;
411.6000;0.2409;2.7182;
411.9000;0.2564;2.7608;
412.2000;0.2556;2.7583;
412.5000;0.2515;2.7433;
412.8000;0.2532;2.7408;
413.1000;0.2556;2.7408;
413.4000;0.2523;2.7358;
413.7000;0.2540;2.7358;
414.0000;0.2556;2.7383;
414.3000;0.2532;2.7308;
414.6000;0.2670;2.7683;
414.9000;0.2597;2.7483;
415.2000;0.2515;2.7383;
415.5000;0.2532;2.7483;
415.8000;0.2523;2.7433;
416.1000;0.2523;2.7433;
416.4000;0.2515;2.7358;
416.7000;0.2532;2.7383;
417.0000;0.2515;2.7258;
417.3000;0.2532;2.7333;
417.6000;0.2532;2.7258;
417.9000;0.2499;2.7182;
418.2000;0.2523;2.7258;
418.5000;0.2532;2.7258;
418.8000;0.2532;2.7258;
419.1000;0.2540;2.7308;
419.4000;0.2515;2.7283;
419.7000;0.2532;2.7283;
420.0000;0.2532;2.7258;
420.3000;0.2532;2.7182;
420.6000;0.2532;2.7233;
420.9000;0.2499;2.7233;
421.2000;0.2572;2.7433;
421.5000;0.2556;2.7483;
421.8000;0.2523;2.7483;
422.1000;0.2532;2.7458;
422.4000;0.2532;2.7383;
422.7000;0.2507;2.7308;
423.0000;0.2515;2.7308;
423.3000;0.2532;2.7358;
423.6000;0.2515;2.7358;
423.9000;0.2532;2.7508;
424.2000;0.2540;2.7608;
424.5000;0.2597;2.7783;
424.8000;0.2523;2.7633;
425.1000;0.2540;2.7558;
425.4000;0.2434;2.7157;
425.7000;0.2548;2.7533;
426.0000;0.2515;2.7508;
426.3000;0.2507;2.7583;
426.6000;0.2532;2.7558;
426.9000;0.2515;2.7433;
427.2000;0.2556;2.7483;
427.5000;0.2426;2.7107;
427.8000;0.2548;2.7483;
428.1000;0.2499;2.7358;
428.4000;0.2662;2.7733;
428.7000;0.2556;2.7583;
429.0000;0.2523;2.7558;
429.3000;0.2523;2.7483;
429.6000;0.2540;2.7483;
429.9000;0.2507;2.7483;
430.2000;0.2507;2.7533;
430.5000;0.2548;2.7733;
430.8000;0.2548;2.7683;
431.1000;0.2540;2.7633;
431.4000;0.2540;2.7583;
431.7000;0.2621;2.7908;
432.0000;0.2499;2.7583;
432.3000;0.2532;2.7708;
432.6000;0.2532;2.7583;
432.9000;0.2523;2.7433;
433.2000;0.2483;2.7383;
433.5000;0.2548;2.7558;
433.8000;0.2597;2.7708;
434.1000;0.2523;2.7583;
434.4000;0.2507;2.7458;
434.7000;0.2523;2.7508;
435.0000;0.2540;2.7558;
435.3000;0.2532;2.7558;
435.6000;0.2523;2.7508;
435.9000;0.2532;2.7508;
436.2000;0.2540;2.7558;
436.5000;0.2548;2.7658;
436.8000;0.2499;2.7533;
437.1000;0.2629;2.7783;
437.4000;0.2499;2.7408;
437.7000;0.2532;2.7358;
438.0000;0.2532;2.7233;
438.3000;0.2523;2.7157;
438.6000;0.2532;2.7182;
438.9000;0.2532;2.7207;
439.2000;0.2540;2.7283;
439.5000;0.2523;2.7258;
439.8000;0.2532;2.7207;
440.1000;0.2532;2.7233;
440.4000;0.2540;2.7207;
440.7000;0.2532;2.7258;
441.0000;0.2548;2.7308;
441.3000;0.2523;2.7258;
441.6000;0.2540;2.7233;
441.9000;0.2515;2.7132;
442.2000;0.2515;2.7132;
442.5000;0.2515;2.7157;
442.8000;0.2523;2.7182;
443.1000;0.2523;2.7233;
443.4000;0.2507;2.7283;
443.7000;0.2507;2.7358;
444.0000;0.2507;2.7333;
444.3000;0.2540;2.7358;
444.6000;0.2564;2.7458;
444.9000;0.2515;2.7308;
445.2000;0.2532;2.7358;
445.5000;0.2613;2.7508;
445.8000;0.2540;2.7458;
446.1000;0.2548;2.7483;
446.4000;0.2515;2.7433;
446.7000;0.2507;2.7358;
447.0000;0.2515;2.7383;
447.3000;0.2540;2.7458;
447.6000;0.2523;2.7433;
447.9000;0.2442;2.7107;
448.2000;0.2515;2.7283;
448.5000;0.2491;2.7233;
448.8000;0.2499;2.7308;
449.1000;0.2556;2.7383;
449.4000;0.2515;2.7283;
449.7000;0.2523;2.7308;
450.0000;0.2572;2.7533;
450.3000;0.2540;2.7458;
450.6000;0.2532;2.7508;
450.9000;0.2499;2.7408;
451.2000;0.2491;2.7358;
451.5000;0.2499;2.7383;
451.8000;0.2548;2.7508;
452.1000;0.2507;2.7408;
452.4000;0.2654;2.7708;
452.7000;0.2532;2.7207;
453.0000;0.2475;2.7057;
453.3000;0.2450;2.6982;
453.6000;0.2580;2.7408;
453.9000;0.2540;2.7358;
454.2000;0.2442;2.7007;
454.5000;0.2572;2.7358;
454.8000;0.2556;2.7233;
455.1000;0.2540;2.7207;
455.4000;0.2523;2.7233;
455.7000;0.2523;2.7308;
456.0000;0.2491;2.7283;
456.3000;0.2523;2.7283;
456.6000;0.2377;2.6907;
456.9000;0.2507;2.7383;
457.2000;0.2556;2.7633;
457.5000;0.2540;2.7633;
457.8000;0.2548;2.7658;
458.1000;0.2540;2.7583;
458.4000;0.2532;2.7608;
458.7000;0.2532;2.7533;
459.0000;0.2523;2.7583;
459.3000;0.2523;2.7583;
459.6000;0.2491;2.7533;
459.9000;0.2580;2.7708;
460.2000;0.2523;2.7608;
460.5000;0.2564;2.7683;
460.8000;0.2540;2.7633;
461.1000;0.2507;2.7483;
461.4000;0.2532;2.7558;
461.7000;0.2523;2.7508;
462.0000;0.2532;2.7383;
462.3000;0.2475;2.7283;
462.6000;0.2597;2.7483;
462.9000;0.2523;2.7308;
463.2000;0.2507;2.7408;
463.5000;0.2523;2.7558;
463.8000;0.2532;2.7508;
464.1000;0.2532;2.7533;
464.4000;0.2499;2.7383;
464.7000;0.2523;2.7383;
465.0000;0.2532;2.7333;
465.3000;0.2532;2.7383;
465.6000;0.2499;2.7383;
465.9000;0.2523;2.7433;
466.2000;0.2532;2.7483;
466.5000;0.2548;2.7408;
466.8000;0.2523;2.7283;
467.1000;0.2580;2.7508;
467.4000;0.2548;2.7433;
467.7000;0.2532;2.7383;
468.0000;0.2540;2.7458;
468.3000;0.2548;2.7433;
468.6000;0.2548;2.7383;
468.9000;0.2532;2.7308;
469.2000;0.2507;2.7233;
469.5000;0.2499;2.7258;
469.8000;0.2499;2.7258;
470.1000;0.2556;2.7333;
470.4000;0.2540;2.7283;
470.7000;0.2540;2.7358;
471.0000;0.2532;2.7333;
471.3000;0.2491;2.7233;
471.6000;0.2532;2.7258;
471.9000;0.2532;2.7308;
472.2000;0.2523;2.7308;
472.5000;0.2523;2.7358;
472.8000;0.2532;2.7358;
473.1000;0.2580;2.7558;
473.4000;0.2540;2.7308;
473.7000;0.2532;2.7207;
474.0000;0.2613;2.7458;
474.3000;0.2564;2.7358;
474.6000;0.2532;2.7258;
474.9000;0.2523;2.7333;
475.2000;0.2483;2.7258;
475.5000;0.2532;2.7358;
475.8000;0.2540;2.7308;
476.1000;0.2507;2.7233;
476.4000;0.2556;2.7458;
476.7000;0.2540;2.7483;
477.0000;0.2532;2.7533;
477.3000;0.2418;2.7258;
477.6000;0.2548;2.7583;
477.9000;0.2515;2.7483;
478.2000;0.2475;2.7433;
478.5000;0.2556;2.7683;
478.8000;0.2499;2.7533;
479.1000;0.2523;2.7608;
479.4000;0.2532;2.7683;
479.7000;0.2532;2.7708;
480.0000;0.2532;2.7683;
480.3000;0.2515;2.7533;
480.6000;0.2426;2.7207;
480.9000;0.2532;2.7483;
481.2000;0.2483;2.7408;
481.5000;0.2556;2.7683;
481.8000;0.2548;2.7658;
482.1000;0.2434;2.7358;
482.4000;0.2548;2.7708;
482.7000;0.2572;2.7758;
483.0000;0.2434;2.7258;
483.3000;0.2564;2.7658;
483.6000;0.2646;2.7808;
483.9000;0.2556;2.7583;
484.2000;0.2556;2.7533;
484.5000;0.2523;2.7408;
484.8000;0.2548;2.7358;
485.1000;0.2532;2.7458;
485.4000;0.2515;2.7508;
485.7000;0.2540;2.7558;
486.0000;0.2548;2.7383;
486.3000;0.2515;2.7283;
486.6000;0.2556;2.7433;
486.9000;0.2523;2.7333;
487.2000;0.2532;2.7358;
487.5000;0.2556;2.7458;
487.8000;0.2532;2.7358;
488.1000;0.2523;2.7358;
488.4000;0.2483;2.7333;
488.7000;0.2532;2.7433;
489.0000;0.2491;2.7383;
489.3000;0.2540;2.7483;
489.6000;0.2605;2.7758;
489.9000;0.2532;2.7658;
490.2000;0.2564;2.7733;
490.5000;0.2523;2.7658;
490.8000;0.2532;2.7608;
491.1000;0.2515;2.7558;
491.4000;0.2532;2.7558;
491.7000;0.2515;2.7558;
492.0000;0.2556;2.7633;
492.3000;0.2540;2.7608;
492.6000;0.2532;2.7508;
492.9000;0.2532;2.7558;
493.2000;0.2515;2.7558;
493.5000;0.2532;2.7533;
493.8000;0.2523;2.7433;
494.1000;0.2548;2.7408;
494.4000;0.2532;2.7308;
494.7000;0.2523;2.7258;
495.0000;0.2523;2.7283;
495.3000;0.2548;2.7358;
495.6000;0.2532;2.7308;
495.9000;0.2572;2.7508;
496.2000;0.2532;2.7333;
496.5000;0.2523;2.7308;
496.8000;0.2540;2.7383;
497.1000;0.2605;2.7633;
497.4000;0.2523;2.7433;
497.7000;0.2491;2.7383;
498.0000;0.2450;2.7283;
498.3000;0.2507;2.7383;
498.6000;0.2540;2.7358;
498.9000;0.2523;2.7383;
499.2000;0.2499;2.7258;
499.5000;0.2548;2.7358;
499.8000;0.2499;2.7258;
500.1000;0.2507;2.7333;
500.4000;0.2523;2.7458;
500.7000;0.2540;2.7658;
501.0000;0.2515;2.7608;
501.3000;0.2532;2.7658;
501.6000;0.2523;2.7583;
501.9000;0.2434;2.7383;
502.2000;0.2515;2.7608;
502.5000;0.2572;2.7833;
502.8000;0.2540;2.7683;
503.1000;0.2589;2.7808;
503.4000;0.2523;2.7633;
503.7000;0.2336;2.7207;
504.0000;0.2532;2.7658;
504.3000;0.2450;2.7383;
504.6000;0.2483;2.7358;
504.9000;0.2450;2.7333;
505.2000;0.2499;2.7408;
505.5000;0.2507;2.7383;
505.8000;0.2540;2.7508;
506.1000;0.2532;2.7458;
506.4000;0.2540;2.7508;
506.7000;0.2475;2.7383;
507.0000;0.2515;2.7558;
507.3000;0.2483;2.7483;
507.6000;0.2548;2.7583;
507.9000;0.2491;2.7383;
508.2000;0.2523;2.7433;
508.5000;0.2515;2.7483;
508.8000;0.2532;2.7583;
509.1000;0.2532;2.7558;
509.4000;0.2523;2.7633;
509.7000;0.2499;2.7608;
510.0000;0.2475;2.7558;
510.3000;0.2515;2.7608;
510.6000;0.2475;2.7433;
510.9000;0.2548;2.7633;
511.2000;0.2548;2.7633;
511.5000;0.2515;2.7608;
511.8000;0.2450;2.7408;
512.1000;0.2523;2.7608;
512.4000;0.2589;2.7683;
512.7000;0.2629;2.7808;
513.0000;0.2515;2.7583;
513.3000;0.2515;2.7633;
513.6000;0.2540;2.7758;
513.9000;0.2597;2.7858;
514.2000;0.2532;2.7658;
514.5000;0.2580;2.7758;
514.8000;0.2507;2.7608;
515.1000;0.2515;2.7633;
515.4000;0.2532;2.7583;
515.7000;0.2523;2.7433;
516.0000;0.2532;2.7408;
516.3000;0.2540;2.7458;
516.6000;0.2499;2.7358;
516.9000;0.2629;2.7708;
517.2000;0.2532;2.7458;
517.5000;0.2532;2.7483;
517.8000;0.2523;2.7408;
518.1000;0.2564;2.7458;
518.4000;0.2515;2.7358;
518.7000;0.2507;2.7333;
519.0000;0.2515;2.7433;
519.3000;0.2507;2.7433;
519.6000;0.2515;2.7458;
519.9000;0.2507;2.7383;
520.2000;0.2556;2.7458;
520.5000;0.2515;2.7333;
520.8000;0.2515;2.7182;
521.1000;0.2548;2.7358;
521.4000;0.2532;2.7358;
521.7000;0.2548;2.7458;
522.0000;0.2556;2.7483;
522.3000;0.2515;2.7408;
522.6000;0.2507;2.7433;
522.9000;0.2523;2.7483;
523.2000;0.2646;2.7808;
523.5000;0.2572;2.7583;
523.8000;0.2532;2.7408;
524.1000;0.2556;2.7558;
524.4000;0.2466;2.7308;
524.7000;0.2515;2.7358;
525.0000;0.2532;2.7383;
525.3000;0.2621;2.7558;
525.6000;0.2523;2.7308;
525.9000;0.2540;2.7383;
526.2000;0.2654;2.7658;
526.5000;0.2589;2.7483;
526.8000;0.2548;2.7458;
527.1000;0.2523;2.7383;
527.4000;0.2532;2.7308;
527.7000;0.2646;2.7583;
528.0000;0.2523;2.7408;
528.3000;0.2523;2.7383;
528.6000;0.2483;2.7233;
528.9000;0.2523;2.7308;
529.2000;0.2532;2.7433;
529.5000;0.2548;2.7533;
529.8000;0.2507;2.7383;
530.1000;0.2475;2.7233;
530.4000;0.2523;2.7433;
530.7000;0.2540;2.7408;
531.0000;0.2580;2.7583;
531.3000;0.2532;2.7458;
531.6000;0.2515;2.7433;
531.9000;0.2548;2.7533;
532.2000;0.2475;2.7458;
532.5000;0.2515;2.7558;
532.8000;0.2532;2.7608;
533.1000;0.2532;2.7533;
533.4000;0.2507;2.7433;
533.7000;0.2540;2.7458;
534.0000;0.2572;2.7558;
534.3000;0.2548;2.7408;
534.6000;0.2515;2.7333;
534.9000;0.2507;2.7308;
535.2000;0.2523;2.7433;
535.5000;0.2491;2.7308;
535.8000;0.2556;2.7408;
536.1000;0.2572;2.7433;
536.4000;0.2523;2.7358;
536.7000;0.2556;2.7458;
537.0000;0.2491;2.7358;
537.3000;0.2507;2.7358;
537.6000;0.2507;2.7358;
537.9000;0.2597;2.7583;
538.2000;0.2507;2.7283;
538.5000;0.2483;2.7308;
538.8000;0.2515;2.7358;
539.1000;0.2515;2.7333;
539.4000;0.2572;2.7483;
539.7000;0.2523;2.7333;
540.0000;0.2556;2.7533;
540.3000;0.2556;2.7533;
540.6000;0.2637;2.7708;
540.9000;0.2532;2.7383;
541.2000;0.2540;2.7358;
541.5000;0.2523;2.7308;
541.8000;0.2523;2.7308;
542.1000;0.2540;2.7308;
542.4000;0.2515;2.7207;
542.7000;0.2369;2.6782;
543.0000;0.2523;2.7207;
543.3000;0.2532;2.7283;
543.6000;0.2515;2.7283;
543.9000;0.2613;2.7683;
544.2000;0.2540;2.7483;
544.5000;0.2515;2.7408;
544.8000;0.2515;2.7458;
545.1000;0.2515;2.7483;
545.4000;0.2532;2.7533;
545.7000;0.2548;2.7558;
546.0000;0.2426;2.7258;
546.3000;0.2532;2.7658;
546.6000;0.2540;2.7733;
546.9000;0.2515;2.7633;
547.2000;0.2491;2.7633;
547.5000;0.2548;2.7858;
547.8000;0.2556;2.7883;
548.1000;0.2532;2.7708;
548.4000;0.2580;2.7833;
548.7000;0.2597;2.7858;
549.0000;0.2556;2.7833;
549.3000;0.2548;2.7783;
549.6000;0.2499;2.7658;
549.9000;0.2532;2.7708;
550.2000;0.2483;2.7558;
550.5000;0.2540;2.7808;
550.8000;0.2654;2.8109;
551.1000;0.2548;2.7758;
551.4000;0.2507;2.7683;
551.7000;0.2491;2.7608;
552.0000;0.2540;2.7683;
552.3000;0.2548;2.7733;
552.6000;0.2458;2.7433;
552.9000;0.2637;2.7933;
553.2000;0.2515;2.7558;
553.5000;0.2523;2.7533;
553.8000;0.2515;2.7558;
554.1000;0.2572;2.7633;
554.4000;0.2507;2.7433;
554.7000;0.2556;2.7433;
555.0000;0.2548;2.7408;
555.3000;0.2507;2.7358;
555.6000;0.2532;2.7483;
555.9000;0.2507;2.7408;
556.2000;0.2523;2.7458;
556.5000;0.2540;2.7533;
556.8000;0.2548;2.7433;
557.1000;0.2540;2.7408;
557.4000;0.2483;2.7308;
557.7000;0.2507;2.7458;
558.0000;0.2507;2.7458;
558.3000;0.2532;2.7483;
558.6000;0.2572;2.7633;
558.9000;0.2523;2.7483;
559.2000;0.2532;2.7558;
559.5000;0.2426;2.7258;
559.8000;0.2532;2.7558;
560.1000;0.2556;2.7683;
560.4000;0.2548;2.7533;
560.7000;0.2532;2.7483;
561.0000;0.2523;2.7533;
561.3000;0.2499;2.7433;
561.6000;0.2532;2.7533;
561.9000;0.2499;2.7408;
562.2000;0.2532;2.7483;
562.5000;0.2564;2.7533;
562.8000;0.2523;2.7333;
563.1000;0.2556;2.7483;
563.4000;0.2548;2.7383;
563.7000;0.2507;2.7308;
564.0000;0.2532;2.7383;
564.3000;0.2532;2.7408;
564.6000;0.2548;2.7433;
564.9000;0.2556;2.7433;
565.2000;0.2532;2.7408;
565.5000;0.2532;2.7408;
565.8000;0.2499;2.7333;
566.1000;0.2540;2.7433;
566.4000;0.2540;2.7433;
566.7000;0.2556;2.7408;
567.0000;0.2523;2.7383;
567.3000;0.2540;2.7433;
567.6000;0.2523;2.7408;
567.9000;0.2540;2.7483;
568.2000;0.2589;2.7608;
568.5000;0.2580;2.7558;
568.8000;0.2532;2.7458;
569.1000;0.2523;2.7383;
569.4000;0.2491;2.7308;
569.7000;0.2540;2.7308;
570.0000;0.2499;2.7032;
570.3000;0.2540;2.7157;
570.6000;0.2532;2.7207;
570.9000;0.2548;2.7258;
571.2000;0.2597;2.7383;
571.5000;0.2523;2.7132;
571.8000;0.2548;2.7207;
572.1000;0.2540;2.7258;
572.4000;0.2458;2.7032;
572.7000;0.2523;2.7233;
573.0000;0.2499;2.7207;
573.3000;0.2515;2.7333;
573.6000;0.2621;2.7558;
573.9000;0.2499;2.7258;
574.2000;0.2654;2.7733;
574.5000;0.2523;2.7408;
574.8000;0.2532;2.7483;
575.1000;0.2393;2.7157;
575.4000;0.2523;2.7508;
575.7000;0.2499;2.7433;
576.0000;0.2515;2.7433;
576.3000;0.2532;2.7433;
576.6000;0.2409;2.7032;
576.9000;0.2532;2.7358;
577.2000;0.2507;2.7283;
577.5000;0.2540;2.7408;
577.8000;0.2556;2.7358;
578.1000;0.2532;2.7333;
578.4000;0.2523;2.7408;
578.7000;0.2540;2.7408;
579.0000;0.2532;2.7383;
579.3000;0.2540;2.7383;
579.6000;0.2515;2.7358;
579.9000;0.2523;2.7333;
580.2000;0.2523;2.7233;
580.5000;0.2466;2.7132;
580.8000;0.2523;2.7333;
581.1000;0.2540;2.7408;
581.4000;0.2572;2.7533;
581.7000;0.2532;2.7383;
582.0000;0.2523;2.7433;
582.3000;0.2564;2.7558;
582.6000;0.2409;2.7107;
582.9000;0.2475;2.7258;
583.2000;0.2532;2.7408;
583.5000;0.2532;2.7458;
583.8000;0.2532;2.7308;
584.1000;0.2523;2.7333;
584.4000;0.2637;2.7633;
584.7000;0.2515;2.7358;
585.0000;0.2532;2.7483;
585.3000;0.2491;2.7358;
585.6000;0.2515;2.7433;
585.9000;0.2515;2.7383;
586.2000;0.2556;2.7508;
586.5000;0.2523;2.7383;
586.8000;0.2507;2.7283;
587.1000;0.2589;2.7558;
587.4000;0.2507;2.7333;
587.7000;0.2532;2.7383;
588.0000;0.2515;2.7308;
588.3000;0.2523;2.7383;
588.6000;0.2540;2.7508;
588.9000;0.2532;2.7533;
589.2000;0.2450;2.7333;
589.5000;0.2515;2.7458;
589.8000;0.2540;2.7558;
590.1000;0.2515;2.7508;
590.4000;0.2540;2.7608;
590.7000;0.2442;2.7408;
591.0000;0.2556;2.7608;
591.3000;0.2515;2.7533;
591.6000;0.2540;2.7608;
591.9000;0.2532;2.7458;
592.2000;0.2548;2.7583;
592.5000;0.2507;2.7483;
592.8000;0.2532;2.7483;
593.1000;0.2499;2.7358;
593.4000;0.2532;2.7383;
593.7000;0.2540;2.7333;
594.0000;0.2532;2.7233;
594.3000;0.2515;2.7358;
594.6000;0.2613;2.7683;
594.9000;0.2466;2.7333;
595.2000;0.2475;2.7408;
595.5000;0.2442;2.7258;
595.8000;0.2532;2.7583;
596.1000;0.2532;2.7533;
596.4000;0.2523;2.7533;
596.7000;0.2548;2.7583;
597.0000;0.2532;2.7483;
597.3000;0.2532;2.7483;
597.6000;0.2532;2.7458;
597.9000;0.2515;2.7358;
598.2000;0.2466;2.7233;
598.5000;0.2613;2.7608;
598.8000;0.2499;2.7358;
599.1000;0.2450;2.7182;
599.4000;0.2507;2.7358;
599.7000;0.2507;2.7333;
600.0000;0.2499;2.7383;
600.3000;0.2629;2.7733;
600.6000;0.2515;2.7408;
600.9000;0.2515;2.7333;
601.2000;0.2458;2.7132;
601.5000;0.2548;2.7233;
601.8000;0.2507;2.6882;
602.1000;0.2475;2.6632;
602.4000;0.2491;2.6607;
602.7000;0.2483;2.6507;
603.0000;0.2466;2.6331;
603.3000;0.2499;2.6306;
603.6000;0.2499;2.6256;
603.9000;0.2483;2.6131;
604.2000;0.2466;2.6156;
604.5000;0.2499;2.6231;
604.8000;0.2466;2.6056;
605.1000;0.2483;2.5981;
605.4000;0.2483;2.5981;
605.7000;0.2442;2.5756;
606.0000;0.2491;2.5856;
606.3000;0.2491;2.5731;
606.6000;0.2491;2.5681;
606.9000;0.2466;2.5556;
607.2000;0.2442;2.5330;
607.5000;0.2491;2.5405;
607.8000;0.2466;2.5280;
608.1000;0.2507;2.5355;
608.4000;0.2491;2.5355;
608.7000;0.2385;2.5205;
609.0000;0.2466;2.5305;
609.3000;0.2450;2.5255;
609.6000;0.2466;2.5255;
609.9000;0.2458;2.5155;
610.2000;0.2458;2.5180;
610.5000;0.2532;2.5405;
610.8000;0.2466;2.5230;
611.1000;0.2475;2.5255;
611.4000;0.2434;2.5155;
611.7000;0.2475;2.5305;
612.0000;0.2491;2.5230;
612.3000;0.2442;2.5130;
612.6000;0.2450;2.5155;
612.9000;0.2597;2.5480;
613.2000;0.2458;2.5105;
613.5000;0.2466;2.5155;
613.8000;0.2499;2.5230;
614.1000;0.2434;2.5055;
614.4000;0.2442;2.5080;
614.7000;0.2548;2.5355;
615.0000;0.2466;2.5105;
615.3000;0.2458;2.5280;
615.6000;0.2466;2.5380;
615.9000;0.2466;2.5330;
616.2000;0.2426;2.5255;
616.5000;0.2507;2.5380;
616.8000;0.2458;2.5205;
617.1000;0.2466;2.5230;
617.4000;0.2369;2.4930;
617.7000;0.2450;2.5055;
618.0000;0.2475;2.5205;
618.3000;0.2450;2.5130;
618.6000;0.2450;2.5155;
618.9000;0.2434;2.5005;
619.2000;0.2442;2.5080;
619.5000;0.2483;2.5180;
619.8000;0.2475;2.5180;
620.1000;0.2434;2.5130;
620.4000;0.2434;2.5205;
620.7000;0.2548;2.5581;
621.0000;0.2442;2.5305;
621.3000;0.2426;2.5355;
621.6000;0.2434;2.5380;
621.9000;0.2450;2.5405;
622.2000;0.2475;2.5430;
622.5000;0.2385;2.5180;
622.8000;0.2491;2.5480;
623.1000;0.2475;2.5330;
623.4000;0.2458;2.5330;
623.7000;0.2450;2.5330;
624.0000;0.2442;2.5255;
624.3000;0.2377;2.5055;
624.6000;0.2458;2.5230;
624.9000;0.2491;2.5205;
625.2000;0.2426;2.5080;
625.5000;0.2442;2.5105;
625.8000;0.2483;2.5230;
626.1000;0.2491;2.5305;
626.4000;0.2450;2.5130;
626.7000;0.2475;2.5305;
627.0000;0.2442;2.5330;
627.3000;0.2466;2.5330;
627.6000;0.2385;2.5080;
627.9000;0.2434;2.5180;
628.2000;0.2475;2.5305;
628.5000;0.2450;2.5205;
628.8000;0.2320;2.4830;
629.1000;0.2499;2.5330;
629.4000;0.2466;2.5255;
629.7000;0.2499;2.5305;
630.0000;0.2458;2.5130;
630.3000;0.2450;2.5055;
630.6000;0.2515;2.5205;
630.9000;0.2450;2.4980;
631.2000;0.2475;2.5030;
631.5000;0.2409;2.4855;
631.8000;0.2532;2.5180;
632.1000;0.2515;2.5155;
632.4000;0.2450;2.4955;
632.7000;0.2442;2.4955;
633.0000;0.2475;2.5080;
633.3000;0.2426;2.5030;
633.6000;0.2466;2.5080;
633.9000;0.2450;2.5055;
634.2000;0.2450;2.5030;
634.5000;0.2507;2.5130;
634.8000;0.2434;2.4880;
635.1000;0.2450;2.4930;
635.4000;0.2466;2.5030;
635.7000;0.2483;2.5055;
636.0000;0.2450;2.4980;
636.3000;0.2483;2.5130;
636.6000;0.2483;2.5080;
636.9000;0.2475;2.5030;
637.2000;0.2426;2.4980;
637.5000;0.2450;2.5080;
637.8000;0.2434;2.5080;
638.1000;0.2483;2.5255;
638.4000;0.2483;2.5230;
638.7000;0.2434;2.5055;
639.0000;0.2442;2.5030;
639.3000;0.2450;2.4980;
639.6000;0.2491;2.5080;
639.9000;0.2458;2.5105;
640.2000;0.2507;2.5280;
640.5000;0.2466;2.5180;
640.8000;0.2458;2.5130;
641.1000;0.2458;2.5105;
641.4000;0.2483;2.5030;
641.7000;0.2361;2.4730;
642.0000;0.2450;2.4980;
642.3000;0.2466;2.5055;
642.6000;0.2450;2.5155;
642.9000;0.2466;2.5380;
643.2000;0.2450;2.5405;
643.5000;0.2475;2.5505;
643.8000;0.2466;2.5505;
644.1000;0.2442;2.5405;
644.4000;0.2434;2.5355;
644.7000;0.2450;2.5305;
645.0000;0.2442;2.5305;
645.3000;0.2434;2.5280;
645.6000;0.2450;2.5280;
645.9000;0.2401;2.5130;
646.2000;0.2466;2.5255;
646.5000;0.2442;2.5155;
646.8000;0.2458;2.5230;
647.1000;0.2442;2.5180;
647.4000;0.2458;2.5305;
647.7000;0.2450;2.5280;
648.0000;0.2442;2.5155;
648.3000;0.2466;2.5155;
648.6000;0.2475;2.5230;
648.9000;0.2442;2.5055;
649.2000;0.2434;2.4980;
649.5000;0.2466;2.5030;
649.8000;0.2458;2.5055;
650.1000;0.2434;2.5030;
650.4000;0.2450;2.5005;
650.7000;0.2450;2.4955;
651.0000;0.2442;2.4880;
651.3000;0.2483;2.5030;
651.6000;0.2532;2.5105;
651.9000;0.2442;2.4930;
652.2000;0.2466;2.5055;
652.5000;0.2434;2.4955;
652.8000;0.2458;2.5055;
653.1000;0.2442;2.5055;
653.4000;0.2515;2.5230;
653.7000;0.2450;2.5030;
654.0000;0.2466;2.5055;
654.3000;0.2450;2.5005;
654.6000;0.2450;2.5005;
654.9000;0.2458;2.5005;
655.2000;0.2475;2.5055;
655.5000;0.2409;2.4880;
655.8000;0.2466;2.5080;
656.1000;0.2475;2.5155;
656.4000;0.2434;2.5030;
656.7000;0.2483;2.5255;
657.0000;0.2450;2.5105;
657.3000;0.2466;2.5105;
657.6000;0.2442;2.5130;
657.9000;0.2458;2.5205;
658.2000;0.2572;2.5455;
658.5000;0.2483;2.5105;
658.8000;0.2466;2.5055;
659.1000;0.2475;2.4980;
659.4000;0.2450;2.4780;
659.7000;0.2572;2.5130;
660.0000;0.2532;2.5005;
660.3000;0.2450;2.4955;
660.6000;0.2475;2.5055;
660.9000;0.2475;2.5030;
661.2000;0.2491;2.5130;
661.5000;0.2475;2.5130;
661.8000;0.2475;2.5005;
662.1000;0.2442;2.4955;
662.4000;0.2434;2.4880;
662.7000;0.2426;2.4880;
663.0000;0.2491;2.5030;
663.3000;0.2458;2.4930;
663.6000;0.2458;2.5030;
663.9000;0.2523;2.5055;
664.2000;0.2401;2.4654;
664.5000;0.2450;2.4780;
664.8000;0.2450;2.4805;
665.1000;0.2483;2.4955;
665.4000;0.2466;2.5005;
665.7000;0.2344;2.4679;
666.0000;0.2466;2.4955;
666.3000;0.2483;2.4980;
666.6000;0.2458;2.4930;
666.9000;0.2450;2.4905;
667.2000;0.2458;2.4905;
667.5000;0.2515;2.5155;
667.8000;0.2475;2.4930;
668.1000;0.2385;2.4704;
668.4000;0.2450;2.4930;
668.7000;0.2458;2.4955;
669.0000;0.2442;2.4855;
669.3000;0.2450;2.4880;
669.6000;0.2426;2.4830;
669.9000;0.2458;2.4930;
670.2000;0.2458;2.4955;
670.5000;0.2450;2.4980;
670.8000;0.2409;2.4855;
671.1000;0.2442;2.4855;
671.4000;0.2458;2.4905;
671.7000;0.2458;2.4905;
672.0000;0.2450;2.4955;
672.3000;0.2442;2.5030;
672.6000;0.2434;2.4980;
672.9000;0.2426;2.4905;
673.2000;0.2475;2.5030;
673.5000;0.2418;2.4830;
673.8000;0.2442;2.4930;
674.1000;0.2442;2.4880;
674.4000;0.2458;2.4980;
674.7000;0.2442;2.4880;
675.0000;0.2458;2.4930;
675.3000;0.2450;2.4880;
675.6000;0.2475;2.4930;
675.9000;0.2466;2.4930;
676.2000;0.2499;2.5080;
676.5000;0.2442;2.4905;
676.8000;0.2499;2.5080;
677.1000;0.2491;2.5105;
677.4000;0.2466;2.5155;
677.7000;0.2442;2.5105;
678.0000;0.2458;2.5130;
678.3000;0.2434;2.5055;
678.6000;0.2466;2.5005;
678.9000;0.2450;2.4930;
679.2000;0.2442;2.4955;
679.5000;0.2483;2.4980;
679.8000;0.2475;2.4980;
680.1000;0.2466;2.4980;
680.4000;0.2442;2.4930;
680.7000;0.2458;2.4980;
681.0000;0.2475;2.5080;
681.3000;0.2458;2.5055;
681.6000;0.2466;2.5130;
681.9000;0.2442;2.5005;
682.2000;0.2442;2.4930;
682.5000;0.2475;2.5005;
682.8000;0.2401;2.4855;
683.1000;0.2450;2.4880;
683.4000;0.2466;2.4930;
683.7000;0.2426;2.4905;
684.0000;0.2548;2.5130;
684.3000;0.2450;2.4830;
684.6000;0.2458;2.4805;
684.9000;0.2450;2.4780;
685.2000;0.2442;2.4780;
685.5000;0.2434;2.4730;
685.8000;0.2466;2.4830;
686.1000;0.2548;2.4980;
686.4000;0.2507;2.4955;
686.7000;0.2458;2.4955;
687.0000;0.2450;2.5005;
687.3000;0.2434;2.4855;
687.6000;0.2450;2.4980;
687.9000;0.2442;2.4930;
688.2000;0.2466;2.5005;
688.5000;0.2466;2.4930;
688.8000;0.2450;2.4880;
689.1000;0.2515;2.5005;
689.4000;0.2442;2.4830;
689.7000;0.2377;2.4604;
690.0000;0.2450;2.4755;
690.3000;0.2548;2.5030;
690.6000;0.2475;2.4805;
690.9000;0.2418;2.4730;
691.2000;0.2434;2.4805;
691.5000;0.2466;2.4905;
691.8000;0.2458;2.5005;
692.1000;0.2532;2.5280;
692.4000;0.2458;2.5180;
692.7000;0.2458;2.5205;
693.0000;0.2466;2.5080;
693.3000;0.2458;2.5030;
693.6000;0.2336;2.4629;
693.9000;0.2458;2.4930;
694.2000;0.2466;2.4880;
694.5000;0.2466;2.4905;
694.8000;0.2458;2.4805;
695.1000;0.2507;2.4955;
695.4000;0.2442;2.4805;
695.7000;0.2442;2.4805;
696.0000;0.2458;2.4855;
696.3000;0.2442;2.4855;
696.6000;0.2466;2.4980;
696.9000;0.2442;2.4955;
697.2000;0.2483;2.5005;
697.5000;0.2458;2.5055;
697.8000;0.2475;2.5130;
698.1000;0.2442;2.5030;
698.4000;0.2418;2.4830;
698.7000;0.2426;2.4730;
699.0000;0.2434;2.4830;
699.3000;0.2458;2.4880;
699.6000;0.2458;2.5005;
699.9000;0.2466;2.5055;
700.2000;0.2434;2.5005;
700.5000;0.2458;2.5055;
700.8000;0.2434;2.5130;
701.1000;0.2450;2.5180;
701.4000;0.2426;2.5155;
701.7000;0.2450;2.5180;
702.0000;0.2458;2.5180;
702.3000;0.2442;2.5055;
702.6000;0.2458;2.5055;
702.9000;0.2450;2.5055;
703.2000;0.2466;2.5055;
703.5000;0.2491;2.5105;
703.8000;0.2491;2.5130;
704.1000;0.2442;2.5005;
704.4000;0.2442;2.5030;
704.7000;0.2458;2.5030;
705.0000;0.2426;2.5030;
705.3000;0.2442;2.5005;
705.6000;0.2458;2.4980;
705.9000;0.2491;2.5030;
706.2000;0.2434;2.4980;
706.5000;0.2458;2.5005;
706.8000;0.2434;2.4930;
707.1000;0.2483;2.5055;
707.4000;0.2483;2.5055;
707.7000;0.2442;2.4955;
708.0000;0.2540;2.5230;
708.3000;0.2466;2.5130;
708.6000;0.2466;2.5055;
708.9000;0.2475;2.5105;
709.2000;0.2458;2.5105;
709.5000;0.2475;2.5055;
709.8000;0.2450;2.4980;
710.1000;0.2483;2.5080;
710.4000;0.2475;2.5030;
710.7000;0.2418;2.4930;
711.0000;0.2613;2.5455;
711.3000;0.2483;2.5130;
711.6000;0.2540;2.5330;
711.9000;0.2434;2.5030;
712.2000;0.2466;2.5005;
712.5000;0.2515;2.5230;
712.8000;0.2458;2.5155;
713.1000;0.2540;2.5355;
713.4000;0.2450;2.5205;
713.7000;0.2466;2.5255;
714.0000;0.2466;2.5230;
714.3000;0.2401;2.5080;
714.6000;0.2515;2.5280;
714.9000;0.2466;2.5155;
715.2000;0.2491;2.5330;
715.5000;0.2475;2.5155;
715.8000;0.2532;2.5305;
716.1000;0.2491;2.5230;
716.4000;0.2475;2.5205;
716.7000;0.2466;2.5205;
717.0000;0.2434;2.5130;
717.3000;0.2458;2.5305;
717.6000;0.2475;2.5330;
717.9000;0.2442;2.5355;
718.2000;0.2450;2.5430;
718.5000;0.2475;2.5480;
718.8000;0.2442;2.5305;
719.1000;0.2409;2.5155;
719.4000;0.2475;2.5230;
719.7000;0.2483;2.5280;
720.0000;0.2499;2.5330;
720.3000;0.2450;2.5355;
720.6000;0.2475;2.5330;
720.9000;0.2458;2.5255;
721.2000;0.2466;2.5255;
721.5000;0.2458;2.5255;
721.8000;0.2442;2.5155;
722.1000;0.2475;2.5205;
722.4000;0.2475;2.5155;
722.7000;0.2458;2.5155;
723.0000;0.2450;2.5155;
723.3000;0.2458;2.5230;
723.6000;0.2475;2.5230;
723.9000;0.2434;2.5130;
724.2000;0.2466;2.5155;
724.5000;0.2483;2.5230;
724.8000;0.2458;2.5155;
725.1000;0.2475;2.5280;
725.4000;0.2475;2.5255;
725.7000;0.2466;2.5280;
726.0000;0.2466;2.5230;
726.3000;0.2466;2.5230;
726.6000;0.2458;2.5205;
726.9000;0.2434;2.5080;
727.2000;0.2491;2.5230;
727.5000;0.2475;2.5205;
727.8000;0.2434;2.5130;
728.1000;0.2361;2.4980;
728.4000;0.2475;2.5230;
728.7000;0.2605;2.5606;
729.0000;0.2491;2.5230;
729.3000;0.2475;2.5155;
729.6000;0.2434;2.5155;
729.9000;0.2540;2.5505;
730.2000;0.2458;2.5280;
730.5000;0.2458;2.5155;
730.8000;0.2458;2.5105;
731.1000;0.2385;2.4930;
731.4000;0.2540;2.5280;
731.7000;0.2426;2.4955;
732.0000;0.2491;2.5130;
732.3000;0.2605;2.5606;
732.6000;0.2466;2.5205;
732.9000;0.2491;2.5230;
733.2000;0.2466;2.5080;
733.5000;0.2442;2.5080;
733.8000;0.2418;2.4905;
734.1000;0.2466;2.5055;
734.4000;0.2458;2.5080;
734.7000;0.2540;2.5330;
735.0000;0.2466;2.5155;
735.3000;0.2466;2.5130;
735.6000;0.2491;2.5205;
735.9000;0.2466;2.5130;
736.2000;0.2483;2.5180;
736.5000;0.2556;2.5330;
736.8000;0.2475;2.5180;
737.1000;0.2466;2.5130;
737.4000;0.2466;2.5255;
737.7000;0.2450;2.5330;
738.0000;0.2466;2.5380;
738.3000;0.2491;2.5530;
738.6000;0.2450;2.5405;
738.9000;0.2466;2.5455;
739.2000;0.2466;2.5505;
739.5000;0.2442;2.5405;
739.8000;0.2475;2.5480;
740.1000;0.2483;2.5455;
740.4000;0.2458;2.5380;
740.7000;0.2450;2.5305;
741.0000;0.2475;2.5505;
741.3000;0.2475;2.5581;
741.6000;0.2442;2.5405;
741.9000;0.2475;2.5505;
742.2000;0.2434;2.5355;
742.5000;0.2483;2.5455;
742.8000;0.2458;2.5280;
743.1000;0.2418;2.5330;
743.4000;0.2475;2.5480;
743.7000;0.2442;2.5405;
744.0000;0.2458;2.5430;
744.3000;0.2466;2.5430;
744.6000;0.2409;2.5205;
744.9000;0.2450;2.5205;
745.2000;0.2458;2.5180;
745.5000;0.2458;2.5180;
745.8000;0.2434;2.5130;
746.1000;0.2450;2.5180;
746.4000;0.2458;2.5230;
746.7000;0.2458;2.5180;
747.0000;0.2540;2.5455;
747.3000;0.2442;2.5280;
747.6000;0.2475;2.5480;
747.9000;0.2466;2.5455;
748.2000;0.2475;2.5355;
748.5000;0.2442;2.5205;
748.8000;0.2458;2.5255;
749.1000;0.2466;2.5280;
749.4000;0.2458;2.5280;
749.7000;0.2442;2.5230;
750.0000;0.2475;2.5380;
750.3000;0.2458;2.5355;
750.6000;0.2458;2.5305;
750.9000;0.2466;2.5330;
751.2000;0.2450;2.5230;
751.5000;0.2483;2.5180;
751.8000;0.2466;2.5080;
752.1000;0.2613;2.5455;
752.4000;0.2483;2.5105;
752.7000;0.2426;2.4830;
753.0000;0.2491;2.4955;
753.3000;0.2458;2.4830;
753.6000;0.2458;2.4780;
753.9000;0.2491;2.5030;
754.2000;0.2499;2.5130;
754.5000;0.2507;2.5205;
754.8000;0.2466;2.5155;
755.1000;0.2466;2.5205;
755.4000;0.2466;2.5130;
755.7000;0.2540;2.5305;
756.0000;0.2475;2.5080;
756.3000;0.2442;2.5080;
756.6000;0.2442;2.5080;
756.9000;0.2458;2.5080;
757.2000;0.2320;2.4704;
757.5000;0.2466;2.5130;
757.8000;0.2450;2.5030;
758.1000;0.2450;2.5030;
758.4000;0.2499;2.5180;
758.7000;0.2540;2.5355;
759.0000;0.2434;2.5255;
759.3000;0.2483;2.5380;
759.6000;0.2450;2.5305;
759.9000;0.2466;2.5305;
760.2000;0.2458;2.5330;
760.5000;0.2475;2.5380;
760.8000;0.2540;2.5505;
761.1000;0.2475;2.5355;
761.4000;0.2466;2.5305;
761.7000;0.2450;2.5305;
762.0000;0.2491;2.5330;
762.3000;0.2466;2.5305;
762.6000;0.2483;2.5455;
762.9000;0.2458;2.5405;
763.2000;0.2548;2.5631;
763.5000;0.2466;2.5455;
763.8000;0.2523;2.5556;
764.1000;0.2434;2.5305;
764.4000;0.2475;2.5455;
764.7000;0.2499;2.5455;
765.0000;0.2466;2.5405;
765.3000;0.2458;2.5355;
765.6000;0.2475;2.5305;
765.9000;0.2434;2.5105;
766.2000;0.2499;2.5230;
766.5000;0.2475;2.5105;
766.8000;0.2491;2.5130;
767.1000;0.2450;2.5105;
767.4000;0.2458;2.5155;
767.7000;0.2483;2.5255;
768.0000;0.2499;2.5355;
768.3000;0.2466;2.5180;
768.6000;0.2393;2.4980;
768.9000;0.2450;2.5255;
769.2000;0.2450;2.5330;
769.5000;0.2426;2.5305;
769.8000;0.2475;2.5305;
770.1000;0.2442;2.5130;
770.4000;0.2434;2.5130;
770.7000;0.2466;2.5080;
771.0000;0.2434;2.5030;
771.3000;0.2450;2.5030;
771.6000;0.2515;2.5155;
771.9000;0.2475;2.5105;
772.2000;0.2458;2.5105;
772.5000;0.2458;2.5080;
772.8000;0.2418;2.5080;
773.1000;0.2450;2.5180;
773.4000;0.2458;2.5305;
773.7000;0.2466;2.5380;
774.0000;0.2483;2.5430;
774.3000;0.2450;2.5405;
774.6000;0.2466;2.5455;
774.9000;0.2499;2.5530;
775.2000;0.2458;2.5530;
775.5000;0.2466;2.5606;
775.8000;0.2450;2.5530;
776.1000;0.2450;2.5380;
776.4000;0.2499;2.5380;
776.7000;0.2466;2.5305;
777.0000;0.2458;2.5280;
777.3000;0.2499;2.5330;
777.6000;0.2450;2.5205;
777.9000;0.2475;2.5130;
778.2000;0.2312;2.4704;
778.5000;0.2458;2.5155;
778.8000;0.2507;2.5305;
779.1000;0.2450;2.5205;
779.4000;0.2450;2.5230;
779.7000;0.2483;2.5355;
780.0000;0.2442;2.5230;
780.3000;0.2434;2.5330;
780.6000;0.2483;2.5430;
780.9000;0.2491;2.5430;
781.2000;0.2442;2.5205;
781.5000;0.2499;2.5380;
781.8000;0.2458;2.5280;
782.1000;0.2507;2.5455;
782.4000;0.2475;2.5330;
782.7000;0.2466;2.5205;
783.0000;0.2466;2.5280;
783.3000;0.2434;2.5230;
783.6000;0.2385;2.5055;
783.9000;0.2483;2.5380;
784.2000;0.2491;2.5355;
784.5000;0.2475;2.5380;
784.8000;0.2466;2.5430;
785.1000;0.2483;2.5480;
785.4000;0.2466;2.5455;
785.7000;0.2475;2.5455;
786.0000;0.2475;2.5380;
786.3000;0.2393;2.5080;
786.6000;0.2475;2.5205;
786.9000;0.2523;2.5330;
787.2000;0.2466;2.5280;
787.5000;0.2491;2.5380;
787.8000;0.2475;2.5330;
788.1000;0.2442;2.5330;
788.4000;0.2458;2.5380;
788.7000;0.2450;2.5405;
789.0000;0.2442;2.5355;
789.3000;0.2483;2.5380;
789.6000;0.2450;2.5280;
789.9000;0.2589;2.5556;
790.2000;0.2491;2.5280;
790.5000;0.2515;2.5230;
790.8000;0.2418;2.4955;
791.1000;0.2499;2.5255;
791.4000;0.2483;2.5105;
791.7000;0.2491;2.5080;
792.0000;0.2475;2.5005;
792.3000;0.2499;2.5080;
792.6000;0.2450;2.5030;
792.9000;0.2466;2.5030;
793.2000;0.2491;2.5130;
793.5000;0.2450;2.5130;
793.8000;0.2475;2.5230;
794.1000;0.2458;2.5305;
794.4000;0.2466;2.5280;
794.7000;0.2475;2.5180;
795.0000;0.2540;2.5330;
795.3000;0.2483;2.5205;
795.6000;0.2458;2.5105;
795.9000;0.2483;2.5205;
796.2000;0.2491;2.5305;
796.5000;0.2466;2.5255;
796.8000;0.2466;2.5180;
797.1000;0.2434;2.5105;
797.4000;0.2458;2.5205;
797.7000;0.2483;2.5230;
798.0000;0.2377;2.4930;
798.3000;0.2475;2.5180;
798.6000;0.2475;2.5130;
798.9000;0.2475;2.5180;
799.2000;0.2491;2.5230;
799.5000;0.2458;2.5230;
799.8000;0.2491;2.5305;
800.1000;0.2515;2.5380;
800.4000;0.2499;2.5355;
800.7000;0.2458;2.5255;
801.0000;0.2312;2.4905;
801.3000;0.2483;2.5380;
801.6000;0.2466;2.5280;
801.9000;0.2483;2.5330;
802.2000;0.2458;2.5230;
802.5000;0.2572;2.5455;
802.8000;0.2475;2.5205;
803.1000;0.2409;2.5005;
803.4000;0.2475;2.5255;
803.7000;0.2515;2.5230;
804.0000;0.2491;2.5305;
804.3000;0.2442;2.5305;
804.6000;0.2540;2.5480;
804.9000;0.2466;2.5205;
805.2000;0.2442;2.5230;
805.5000;0.2466;2.5280;
805.8000;0.2450;2.5180;
806.1000;0.2548;2.5505;
806.4000;0.2475;2.5230;
806.7000;0.2426;2.5055;
807.0000;0.2458;2.5130;
807.3000;0.2564;2.5380;
807.6000;0.2491;2.5205;
807.9000;0.2450;2.5080;
808.2000;0.2450;2.5055;
808.5000;0.2466;2.5080;
808.8000;0.2499;2.5155;
809.1000;0.2491;2.5155;
809.4000;0.2475;2.5105;
809.7000;0.2483;2.5105;
810.0000;0.2483;2.5155;
810.3000;0.2450;2.5105;
810.6000;0.2466;2.5155;
810.9000;0.2458;2.5080;
811.2000;0.2523;2.5230;
811.5000;0.2475;2.5205;
811.8000;0.2475;2.5205;
812.1000;0.2499;2.5230;
812.4000;0.2499;2.5255;
812.7000;0.2458;2.5180;
813.0000;0.2458;2.5255;
813.3000;0.2466;2.5280;
813.6000;0.2466;2.5255;
813.9000;0.2458;2.5180;
814.2000;0.2491;2.5180;
814.5000;0.2401;2.4980;
814.8000;0.2515;2.5380;
815.1000;0.2483;2.5305;
815.4000;0.2491;2.5230;
815.7000;0.2442;2.5180;
816.0000;0.2466;2.5280;
816.3000;0.2483;2.5380;
816.6000;0.2458;2.5355;
816.9000;0.2450;2.5330;
817.2000;0.2483;2.5330;
817.5000;0.2466;2.5255;
817.8000;0.2458;2.5230;
818.1000;0.2409;2.5130;
818.4000;0.2450;2.5205;
818.7000;0.2442;2.5180;
819.0000;0.2466;2.5330;
819.3000;0.2450;2.5330;
819.6000;0.2450;2.5355;
819.9000;0.2483;2.5355;
820.2000;0.2491;2.5330;
820.5000;0.2466;2.5205;
820.8000;0.2450;2.5155;
821.1000;0.2450;2.5105;
821.4000;0.2483;2.5180;
821.7000;0.2475;2.5255;
822.0000;0.2491;2.5430;
822.3000;0.2483;2.5380;
822.6000;0.2466;2.5355;
822.9000;0.2458;2.5255;
823.2000;0.2466;2.5230;
823.5000;0.2466;2.5230;
823.8000;0.2466;2.5280;
824.1000;0.2507;2.5380;
824.4000;0.2458;2.5280;
824.7000;0.2458;2.5330;
825.0000;0.2580;2.5631;
825.3000;0.2475;2.5355;
825.6000;0.2548;2.5556;
825.9000;0.2450;2.5230;
826.2000;0.2483;2.5255;
826.5000;0.2450;2.5130;
826.8000;0.2491;2.5255;
827.1000;0.2450;2.5205;
827.4000;0.2450;2.5180;
827.7000;0.2466;2.5330;
828.0000;0.2466;2.5305;
828.3000;0.2483;2.5280;
828.6000;0.2442;2.5130;
828.9000;0.2458;2.5230;
829.2000;0.2523;2.5380;
829.5000;0.2483;2.5255;
829.8000;0.2475;2.5205;
830.1000;0.2426;2.5130;
830.4000;0.2475;2.5230;
830.7000;0.2458;2.5230;
831.0000;0.2458;2.5230;
831.3000;0.2442;2.5180;
831.6000;0.2466;2.5305;
831.9000;0.2466;2.5255;
832.2000;0.2458;2.5180;
832.5000;0.2466;2.5130;
832.8000;0.2466;2.5080;
833.1000;0.2483;2.5155;
833.4000;0.2475;2.5230;
833.7000;0.2466;2.5180;
834.0000;0.2466;2.5180;
834.3000;0.2483;2.5230;
834.6000;0.2491;2.5230;
834.9000;0.2491;2.5230;
835.2000;0.2442;2.5030;
835.5000;0.2458;2.5130;
835.8000;0.2523;2.5330;
836.1000;0.2475;2.5330;
836.4000;0.2466;2.5305;
836.7000;0.2499;2.5380;
837.0000;0.2483;2.5355;
837.3000;0.2458;2.5280;
837.6000;0.2409;2.5230;
837.9000;0.2475;2.5355;
838.2000;0.2475;2.5455;
838.5000;0.2466;2.5355;
838.8000;0.2450;2.5280;
839.1000;0.2475;2.5430;
839.4000;0.2483;2.5455;
839.7000;0.2466;2.5355;
840.0000;0.2515;2.5305;
840.3000;0.2466;2.5205;
840.6000;0.2475;2.5255;
840.9000;0.2475;2.5255;
841.2000;0.2450;2.5305;
841.5000;0.2458;2.5380;
841.8000;0.2458;2.5380;
842.1000;0.2458;2.5355;
842.4000;0.2499;2.5480;
842.7000;0.2483;2.5430;
843.0000;0.2475;2.5430;
843.3000;0.2483;2.5505;
843.6000;0.2475;2.5355;
843.9000;0.2483;2.5355;
844.2000;0.2450;2.5205;
844.5000;0.2483;2.5305;
844.8000;0.2466;2.5255;
845.1000;0.2466;2.5255;
845.4000;0.2442;2.5230;
845.7000;0.2491;2.5380;
846.0000;0.2450;2.5255;
846.3000;0.2475;2.5255;
846.6000;0.2458;2.5280;
846.9000;0.2458;2.5230;
847.2000;0.2458;2.5205;
847.5000;0.2458;2.5130;
847.8000;0.2491;2.5330;
848.1000;0.2507;2.5380;
848.4000;0.2491;2.5330;
848.7000;0.2483;2.5280;
849.0000;0.2491;2.5380;
849.3000;0.2523;2.5480;
849.6000;0.2597;2.5706;
849.9000;0.2426;2.5180;
850.2000;0.2426;2.5205;
850.5000;0.2483;2.5280;
850.8000;0.2475;2.5305;
851.1000;0.2426;2.5205;
851.4000;0.2450;2.5305;
851.7000;0.2499;2.5355;
852.0000;0.2409;2.5105;
852.3000;0.2475;2.5230;
852.6000;0.2466;2.5255;
852.9000;0.2483;2.5255;
853.2000;0.2475;2.5155;
853.5000;0.2466;2.5105;
853.8000;0.2466;2.5205;
854.1000;0.2475;2.5255;
854.4000;0.2466;2.5330;
854.7000;0.2475;2.5355;
855.0000;0.2491;2.5280;
855.3000;0.2466;2.5080;
855.6000;0.2466;2.5080;
855.9000;0.2556;2.5280;
856.2000;0.2450;2.5005;
856.5000;0.2475;2.5155;
856.8000;0.2556;2.5405;
857.1000;0.2450;2.5155;
857.4000;0.2483;2.5180;
857.7000;0.2523;2.5305;
858.0000;0.2466;2.5205;
858.3000;0.2483;2.5305;
858.6000;0.2458;2.5330;
858.9000;0.2475;2.5405;
859.2000;0.2491;2.5480;
859.5000;0.2475;2.5430;
859.8000;0.2450;2.5280;
860.1000;0.2450;2.5355;
860.4000;0.2458;2.5305;
860.7000;0.2458;2.5355;
861.0000;0.2426;2.5080;
861.3000;0.2491;2.5305;
861.6000;0.2499;2.5355;
861.9000;0.2475;2.5205;
862.2000;0.2491;2.5205;
862.5000;0.2442;2.5155;
862.8000;0.2450;2.5205;
863.1000;0.2466;2.5305;
863.4000;0.2499;2.5405;
863.7000;0.2442;2.5330;
864.0000;0.2589;2.5631;
864.3000;0.2475;2.5305;
864.6000;0.2580;2.5606;
864.9000;0.2458;2.5205;
865.2000;0.2475;2.5255;
865.5000;0.2426;2.5130;
865.8000;0.2475;2.5280;
866.1000;0.2515;2.5430;
866.4000;0.2475;2.5380;
866.7000;0.2475;2.5380;
867.0000;0.2499;2.5405;
867.3000;0.2475;2.5255;
867.6000;0.2523;2.5330;
867.9000;0.2458;2.5130;
868.2000;0.2458;2.5305;
868.5000;0.2483;2.5230;
868.8000;0.2483;2.5280;
869.1000;0.2450;2.5205;
869.4000;0.2483;2.5330;
869.7000;0.2450;2.5130;
870.0000;0.2540;2.5305;
870.3000;0.2458;2.5155;
870.6000;0.2458;2.5180;
870.9000;0.2556;2.5480;
871.2000;0.2450;2.5130;
871.5000;0.2458;2.5005;
871.8000;0.2418;2.4955;
872.1000;0.2499;2.5180;
872.4000;0.2401;2.4980;
872.7000;0.2475;2.5105;
873.0000;0.2499;2.5255;
873.3000;0.2532;2.5405;
873.6000;0.2450;2.5305;
873.9000;0.2548;2.5606;
874.2000;0.2434;2.5255;
874.5000;0.2491;2.5380;
874.8000;0.2483;2.5530;
875.1000;0.2450;2.5455;
875.4000;0.2548;2.5756;
875.7000;0.2466;2.5480;
876.0000;0.2483;2.5505;
876.3000;0.2483;2.5455;
876.6000;0.2450;2.5405;
876.9000;0.2499;2.5581;
877.2000;0.2475;2.5480;
877.5000;0.2483;2.5480;
877.8000;0.2434;2.5305;
878.1000;0.2369;2.5030;
878.4000;0.2466;2.5380;
878.7000;0.2475;2.5405;
879.0000;0.2466;2.5405;
879.3000;0.2385;2.5180;
879.6000;0.2483;2.5455;
879.9000;0.2409;2.5180;
880.2000;0.2377;2.5080;
880.5000;0.2475;2.5355;
880.8000;0.2434;2.5330;
881.1000;0.2491;2.5556;
881.4000;0.2475;2.5581;
881.7000;0.2548;2.5681;
882.0000;0.2475;2.5556;
882.3000;0.2483;2.5530;
882.6000;0.2507;2.5530;
882.9000;0.2475;2.5380;
883.2000;0.2483;2.5405;
883.5000;0.2458;2.5230;
883.8000;0.2442;2.5230;
884.1000;0.2483;2.5255;
884.4000;0.2475;2.5155;
884.7000;0.2466;2.5205;
885.0000;0.2572;2.5631;
885.3000;0.2491;2.5380;
885.6000;0.2409;2.5205;
885.9000;0.2458;2.5380;
886.2000;0.2475;2.5405;
886.5000;0.2409;2.5330;
886.8000;0.2475;2.5505;
887.1000;0.2466;2.5430;
887.4000;0.2483;2.5505;
887.7000;0.2499;2.5556;
888.0000;0.2418;2.5355;
888.3000;0.2491;2.5581;
888.6000;0.2564;2.5681;
888.9000;0.2515;2.5480;
889.2000;0.2483;2.5330;
889.5000;0.2466;2.5380;
889.8000;0.2475;2.5430;
890.1000;0.2491;2.5430;
890.4000;0.2466;2.5380;
890.7000;0.2393;2.5105;
891.0000;0.2434;2.5180;
891.3000;0.2499;2.5430;
891.6000;0.2499;2.5530;
891.9000;0.2442;2.5430;
892.2000;0.2483;2.5505;
892.5000;0.2491;2.5480;
892.8000;0.2564;2.5656;
893.1000;0.2491;2.5556;
893.4000;0.2491;2.5556;
893.7000;0.2499;2.5480;
894.0000;0.2483;2.5405;
894.3000;0.2475;2.5405;
894.6000;0.2458;2.5480;
894.9000;0.2466;2.5455;
895.2000;0.2442;2.5355;
895.5000;0.2458;2.5380;
895.8000;0.2483;2.5480;
896.1000;0.2483;2.5505;
896.4000;0.2499;2.5505;
896.7000;0.2483;2.5530;
897.0000;0.2507;2.5581;
897.3000;0.2458;2.5505;
897.6000;0.2475;2.5505;
897.9000;0.2540;2.5681;
898.2000;0.2475;2.5530;
898.5000;0.2475;2.5430;
898.8000;0.2426;2.5255;
899.1000;0.2483;2.5405;
899.4000;0.2450;2.5355;
899.7000;0.2450;2.5380;
900.0000;0.2475;2.5505;
900.3000;0.2458;2.5355;
900.6000;0.2450;2.5255;
900.9000;0.2475;2.5330;
901.2000;0.2434;2.5130;
901.5000;0.2483;2.5155;
901.8000;0.2475;2.5130;
902.1000;0.2393;2.4905;
902.4000;0.2466;2.5155;
902.7000;0.2466;2.5255;
903.0000;0.2475;2.5330;
903.3000;0.2409;2.5105;
903.6000;0.2466;2.5205;
903.9000;0.2475;2.5305;
904.2000;0.2466;2.5380;
904.5000;0.2491;2.5380;
904.8000;0.2466;2.5280;
905.1000;0.2483;2.5205;
905.4000;0.2475;2.5180;
905.7000;0.2491;2.5255;
906.0000;0.2475;2.5180;
906.3000;0.2483;2.5255;
906.6000;0.2499;2.5355;
906.9000;0.2442;2.5230;
907.2000;0.2507;2.5330;
907.5000;0.2507;2.5280;
907.8000;0.2434;2.5230;
908.1000;0.2483;2.5330;
908.4000;0.2466;2.5230;
908.7000;0.2491;2.5280;
909.0000;0.2507;2.5455;
909.3000;0.2483;2.5330;
909.6000;0.2466;2.5280;
909.9000;0.2458;2.5305;
910.2000;0.2475;2.5380;
910.5000;0.2572;2.5656;
910.8000;0.2393;2.5180;
911.1000;0.2466;2.5380;
911.4000;0.2491;2.5380;
911.7000;0.2450;2.5230;
912.0000;0.2483;2.5280;
912.3000;0.2450;2.5180;
912.6000;0.2475;2.5305;
912.9000;0.2475;2.5330;
913.2000;0.2491;2.5405;
913.5000;0.2475;2.5355;
913.8000;0.2475;2.5455;
914.1000;0.2475;2.5505;
914.4000;0.2491;2.5505;
914.7000;0.2491;2.5505;
915.0000;0.2475;2.5405;
915.3000;0.2466;2.5455;
915.6000;0.2466;2.5405;
915.9000;0.2475;2.5305;
916.2000;0.2458;2.5305;
916.5000;0.2475;2.5430;
916.8000;0.2507;2.5556;
917.1000;0.2499;2.5505;
917.4000;0.2483;2.5330;
917.7000;0.2475;2.5330;
918.0000;0.2483;2.5480;
918.3000;0.2475;2.5505;
918.6000;0.2483;2.5530;
918.9000;0.2483;2.5505;
919.2000;0.2589;2.5781;
919.5000;0.2483;2.5455;
919.8000;0.2499;2.5505;
920.1000;0.2483;2.5380;
920.4000;0.2483;2.5355;
920.7000;0.2475;2.5305;
921.0000;0.2475;2.5280;
921.3000;0.2475;2.5280;
921.6000;0.2458;2.5305;
921.9000;0.2499;2.5380;
922.2000;0.2466;2.5280;
922.5000;0.2491;2.5405;
922.8000;0.2483;2.5405;
923.1000;0.2483;2.5480;
923.4000;0.2466;2.5280;
923.7000;0.2475;2.5280;
924.0000;0.2466;2.5255;
924.3000;0.2475;2.5355;
924.6000;0.2483;2.5380;
924.9000;0.2458;2.5330;
925.2000;0.2483;2.5330;
925.5000;0.2466;2.5230;
925.8000;0.2434;2.5180;
926.1000;0.2523;2.5505;
926.4000;0.2475;2.5330;
926.7000;0.2483;2.5305;
927.0000;0.2475;2.5255;
927.3000;0.2475;2.5255;
927.6000;0.2475;2.5280;
927.9000;0.2499;2.5455;
928.2000;0.2475;2.5455;
928.5000;0.2450;2.5480;
928.8000;0.2483;2.5480;
929.1000;0.2499;2.5405;
929.4000;0.2475;2.5430;
929.7000;0.2466;2.5455;
930.0000;0.2434;2.5330;
930.3000;0.2450;2.5380;
930.6000;0.2483;2.5430;
930.9000;0.2483;2.5405;
931.2000;0.2483;2.5355;
931.5000;0.2515;2.5405;
931.8000;0.2458;2.5280;
932.1000;0.2458;2.5305;
932.4000;0.2491;2.5405;
932.7000;0.2499;2.5355;
933.0000;0.2434;2.5105;
933.3000;0.2499;2.5330;
933.6000;0.2523;2.5405;
933.9000;0.2589;2.5530;
934.2000;0.2450;2.5155;
934.5000;0.2434;2.5155;
934.8000;0.2450;2.5280;
935.1000;0.2491;2.5330;
935.4000;0.2458;2.5230;
935.7000;0.2507;2.5330;
936.0000;0.2458;2.5155;
936.3000;0.2483;2.5205;
936.6000;0.2475;2.5280;
936.9000;0.2442;2.5255;
937.2000;0.2491;2.5355;
937.5000;0.2475;2.5280;
937.8000;0.2491;2.5255;
938.1000;0.2597;2.5505;
938.4000;0.2491;2.5205;
938.7000;0.2483;2.5155;
939.0000;0.2434;2.4980;
939.3000;0.2466;2.5005;
939.6000;0.2475;2.5155;
939.9000;0.2499;2.5280;
940.2000;0.2475;2.5255;
940.5000;0.2475;2.5155;
940.8000;0.2475;2.5105;
941.1000;0.2572;2.5405;
941.4000;0.2466;2.5105;
941.7000;0.2434;2.4980;
942.0000;0.2483;2.5180;
942.3000;0.2466;2.5180;
942.6000;0.2475;2.5255;
942.9000;0.2466;2.5230;
943.2000;0.2483;2.5280;
943.5000;0.2515;2.5430;
943.8000;0.2442;2.5280;
944.1000;0.2458;2.5205;
944.4000;0.2475;2.5205;
944.7000;0.2475;2.5180;
945.0000;0.2507;2.5305;
945.3000;0.2466;2.5230;
945.6000;0.2475;2.5305;
945.9000;0.2458;2.5280;
946.2000;0.2523;2.5405;
946.5000;0.2450;2.5330;
946.8000;0.2466;2.5380;
947.1000;0.2483;2.5405;
947.4000;0.2475;2.5330;
947.7000;0.2466;2.5230;
948.0000;0.2458;2.5205;
948.3000;0.2483;2.5255;
948.6000;0.2466;2.5280;
948.9000;0.2466;2.5430;
949.2000;0.2475;2.5480;
949.5000;0.2466;2.5355;
949.8000;0.2507;2.5455;
950.1000;0.2483;2.5430;
950.4000;0.2466;2.5455;
950.7000;0.2483;2.5455;
951.0000;0.2532;2.5581;
951.3000;0.2475;2.5405;
951.6000;0.2458;2.5305;
951.9000;0.2475;2.5255;
952.2000;0.2466;2.5230;
952.5000;0.2483;2.5355;
952.8000;0.2491;2.5355;
953.1000;0.2475;2.5205;
953.4000;0.2523;2.5280;
953.7000;0.2466;2.5230;
954.0000;0.2491;2.5205;
954.3000;0.2466;2.5105;
954.6000;0.2475;2.5155;
954.9000;0.2409;2.5080;
955.2000;0.2491;2.5305;
955.5000;0.2361;2.5030;
955.8000;0.2597;2.5756;
956.1000;0.2548;2.5606;
956.4000;0.2475;2.5556;
956.7000;0.2605;2.5956;
957.0000;0.2458;2.5556;
957.3000;0.2483;2.5530;
957.6000;0.2613;2.5881;
957.9000;0.2475;2.5556;
958.2000;0.2507;2.5606;
958.5000;0.2491;2.5581;
958.8000;0.2466;2.5505;
959.1000;0.2507;2.5581;
959.4000;0.2458;2.5556;
959.7000;0.2466;2.5631;
960.0000;0.2466;2.5631;
960.3000;0.2491;2.5606;
960.6000;0.2475;2.5656;
960.9000;0.2458;2.5631;
961.2000;0.2532;2.5756;
961.5000;0.2466;2.5480;
961.8000;0.2483;2.5530;
962.1000;0.2385;2.5255;
962.4000;0.2483;2.5556;
962.7000;0.2491;2.5606;
963.0000;0.2450;2.5480;
963.3000;0.2450;2.5405;
963.6000;0.2475;2.5455;
963.9000;0.2491;2.5455;
964.2000;0.2458;2.5405;
964.5000;0.2458;2.5480;
964.8000;0.2540;2.5656;
965.1000;0.2466;2.5430;
965.4000;0.2540;2.5455;
965.7000;0.2491;2.5330;
966.0000;0.2466;2.5280;
966.3000;0.2466;2.5330;
966.6000;0.2475;2.5355;
966.9000;0.2458;2.5305;
967.2000;0.2466;2.5280;
967.5000;0.2499;2.5355;
967.8000;0.2589;2.5631;
968.1000;0.2458;2.5355;
968.4000;0.2475;2.5380;
968.7000;0.2450;2.5430;
969.0000;0.2556;2.5806;
969.3000;0.2458;2.5631;
969.6000;0.2507;2.5756;
969.9000;0.2409;2.5505;
970.2000;0.2466;2.5656;
970.5000;0.2475;2.5505;
970.8000;0.2466;2.5455;
971.1000;0.2523;2.5606;
971.4000;0.2491;2.5505;
971.7000;0.2491;2.5530;
972.0000;0.2450;2.5380;
972.3000;0.2458;2.5330;
972.6000;0.2483;2.5380;
972.9000;0.2491;2.5330;
973.2000;0.2458;2.5205;
973.5000;0.2483;2.5230;
973.8000;0.2442;2.5130;
974.1000;0.2475;2.5280;
974.4000;0.2466;2.5205;
974.7000;0.2466;2.5155;
975.0000;0.2409;2.5030;
975.3000;0.2475;2.5155;
975.6000;0.2458;2.5030;
975.9000;0.2450;2.5055;
976.2000;0.2475;2.5180;
976.5000;0.2491;2.5230;
976.8000;0.2475;2.5255;
977.1000;0.2466;2.5230;
977.4000;0.2475;2.5180;
977.7000;0.2483;2.5255;
978.0000;0.2515;2.5280;
978.3000;0.2466;2.4980;
978.6000;0.2483;2.5005;
978.9000;0.2515;2.5155;
979.2000;0.2507;2.5280;
979.5000;0.2475;2.5130;
979.8000;0.2466;2.5055;
980.1000;0.2491;2.5230;
980.4000;0.2434;2.5105;
980.7000;0.2466;2.5205;
981.0000;0.2491;2.5230;
981.3000;0.2475;2.5205;
981.6000;0.2556;2.5430;
981.9000;0.2483;2.5230;
982.2000;0.2458;2.5180;
982.5000;0.2491;2.5205;
982.8000;0.2483;2.5205;
983.1000;0.2458;2.5205;
983.4000;0.2458;2.5280;
983.7000;0.2466;2.5280;
984.0000;0.2426;2.5105;
984.3000;0.2458;2.5180;
984.6000;0.2450;2.5180;
984.9000;0.2458;2.5130;
985.2000;0.2475;2.5205;
985.5000;0.2475;2.5330;
985.8000;0.2466;2.5305;
986.1000;0.2466;2.5355;
986.4000;0.2377;2.5055;
986.7000;0.2475;2.5305;
987.0000;0.2458;2.5155;
987.3000;0.2483;2.5230;
987.6000;0.2475;2.5280;
987.9000;0.2499;2.5455;
988.2000;0.2475;2.5480;
988.5000;0.2475;2.5455;
988.8000;0.2483;2.5405;
989.1000;0.2475;2.5430;
989.4000;0.2499;2.5505;
989.7000;0.2466;2.5405;
990.0000;0.2475;2.5330;
990.3000;0.2499;2.5305;
990.6000;0.2483;2.5205;
990.9000;0.2483;2.5105;
991.2000;0.2475;2.5155;
991.5000;0.2491;2.5280;
991.8000;0.2466;2.5255;
992.1000;0.2458;2.5255;
992.4000;0.2483;2.5305;
992.7000;0.2475;2.5230;
993.0000;0.2491;2.5305;
993.3000;0.2532;2.5405;
993.6000;0.2507;2.5430;
993.9000;0.2483;2.5305;
994.2000;0.2507;2.5330;
994.5000;0.2491;2.5305;
994.8000;0.2475;2.5355;
995.1000;0.2523;2.5556;
995.4000;0.2499;2.5430;
995.7000;0.2442;2.5280;
996.0000;0.2458;2.5405;
996.3000;0.2564;2.5731;
996.6000;0.2491;2.5581;
996.9000;0.2466;2.5480;
997.2000;0.2483;2.5480;
997.5000;0.2458;2.5355;
997.8000;0.2450;2.5355;
998.1000;0.2466;2.5455;
998.4000;0.2483;2.5505;
998.7000;0.2475;2.5505;
999.0000;0.2475;2.5480;
999.3000;0.2466;2.5430;
999.6000;0.2475;2.5430;
999.9000;0.2466;2.5455;
1000.2000;0.2409;2.5280;
1000.5000;0.2466;2.5405;
1000.8000;0.2499;2.5430;
1001.1000;0.2580;2.5656;
1001.4000;0.2458;2.5430;
1001.7000;0.2483;2.5556;
1002.0000;0.2475;2.5505;
1002.3000;0.2475;2.5505;
1002.6000;0.2434;2.5380;
1002.9000;0.2507;2.5530;
1003.2000;0.2466;2.5405;
1003.5000;0.2426;2.5280;
1003.8000;0.2515;2.5530;
1004.1000;0.2499;2.5405;
1004.4000;0.2458;2.5230;
1004.7000;0.2483;2.5230;
1005.0000;0.2475;2.5230;
1005.3000;0.2458;2.5205;
1005.6000;0.2483;2.5180;
1005.9000;0.2621;2.5606;
1006.2000;0.2475;2.5205;
1006.5000;0.2475;2.5205;
1006.8000;0.2434;2.5030;
1007.1000;0.2507;2.5205;
1007.4000;0.2458;2.5005;
1007.7000;0.2450;2.5080;
1008.0000;0.2466;2.5230;
1008.3000;0.2483;2.5230;
1008.6000;0.2475;2.5205;
1008.9000;0.2515;2.5380;
1009.2000;0.2385;2.5105;
1009.5000;0.2458;2.5305;
1009.8000;0.2491;2.5305;
1010.1000;0.2605;2.5631;
1010.4000;0.2483;2.5255;
1010.7000;0.2483;2.5230;
1011.0000;0.2466;2.5180;
1011.3000;0.2336;2.4805;
1011.6000;0.2491;2.5255;
1011.9000;0.2426;2.5005;
1012.2000;0.2523;2.5255;
1012.5000;0.2466;2.5155;
1012.8000;0.2466;2.5180;
1013.1000;0.2450;2.5230;
1013.4000;0.2491;2.5330;
1013.7000;0.2466;2.5230;
1014.0000;0.2499;2.5280;
1014.3000;0.2450;2.5255;
1014.6000;0.2491;2.5330;
1014.9000;0.2475;2.5280;
1015.2000;0.2344;2.4805;
1015.5000;0.2385;2.5080;
1015.8000;0.2491;2.5355;
1016.1000;0.2409;2.5230;
1016.4000;0.2483;2.5430;
1016.7000;0.2466;2.5430;
1017.0000;0.2507;2.5505;
1017.3000;0.2483;2.5505;
1017.6000;0.2458;2.5380;
1017.9000;0.2491;2.5380;
1018.2000;0.2426;2.5230;
1018.5000;0.2475;2.5355;
1018.8000;0.2475;2.5330;
1019.1000;0.2491;2.5430;
1019.4000;0.2483;2.5430;
1019.7000;0.2377;2.5180;
1020.0000;0.2475;2.5505;
1020.3000;0.2483;2.5455;
1020.6000;0.2515;2.5556;
1020.9000;0.2491;2.5430;
1021.2000;0.2483;2.5380;
1021.5000;0.2483;2.5505;
1021.8000;0.2466;2.5530;
1022.1000;0.2466;2.5530;
1022.4000;0.2458;2.5530;
1022.7000;0.2491;2.5505;
1023.0000;0.2458;2.5430;
1023.3000;0.2491;2.5430;
1023.6000;0.2515;2.5530;
1023.9000;0.2466;2.5430;
1024.2000;0.2483;2.5455;
1024.5000;0.2466;2.5380;
1024.8000;0.2499;2.5480;
1025.1000;0.2475;2.5430;
1025.4000;0.2466;2.5355;
1025.7000;0.2466;2.5330;
1026.0000;0.2483;2.5305;
1026.3000;0.2475;2.5180;
1026.6000;0.2466;2.5155;
1026.9000;0.2475;2.5155;
1027.2000;0.2466;2.5205;
1027.5000;0.2475;2.5280;
1027.8000;0.2466;2.5330;
1028.1000;0.2450;2.5180;
1028.4000;0.2475;2.5230;
1028.7000;0.2426;2.5080;
1029.0000;0.2475;2.5180;
1029.3000;0.2466;2.5105;
1029.6000;0.2475;2.5155;
1029.9000;0.2483;2.5130;
1030.2000;0.2499;2.5255;
1030.5000;0.2450;2.5030;
1030.8000;0.2466;2.4980;
1031.1000;0.2483;2.5005;
1031.4000;0.2483;2.5080;
1031.7000;0.2450;2.5030;
1032.0000;0.2548;2.5355;
1032.3000;0.2532;2.5280;
1032.6000;0.2491;2.5105;
1032.9000;0.2483;2.5130;
1033.2000;0.2483;2.5180;
1033.5000;0.2418;2.5030;
1033.8000;0.2458;2.5005;
1034.1000;0.2475;2.5030;
1034.4000;0.2458;2.5005;
1034.7000;0.2483;2.5180;
1035.0000;0.2475;2.5155;
1035.3000;0.2548;2.5405;
1035.6000;0.2458;2.5055;
1035.9000;0.2475;2.5155;
1036.2000;0.2442;2.5080;
1036.5000;0.2466;2.5105;
1036.8000;0.2466;2.5080;
1037.1000;0.2442;2.4980;
1037.4000;0.2483;2.5130;
1037.7000;0.2540;2.5280;
1038.0000;0.2361;2.4880;
1038.3000;0.2515;2.5205;
1038.6000;0.2466;2.5130;
1038.9000;0.2499;2.5255;
1039.2000;0.2466;2.5205;
1039.5000;0.2466;2.5205;
1039.8000;0.2483;2.5255;
1040.1000;0.2483;2.5155;
1040.4000;0.2507;2.5305;
1040.7000;0.2483;2.5205;
1041.0000;0.2409;2.5030;
1041.3000;0.2491;2.5305;
1041.6000;0.2475;2.5130;
1041.9000;0.2532;2.5255;
1042.2000;0.2426;2.5005;
1042.5000;0.2475;2.5130;
1042.8000;0.2475;2.5230;
1043.1000;0.2442;2.5055;
1043.4000;0.2458;2.5180;
1043.7000;0.2483;2.5180;
1044.0000;0.2483;2.5180;
1044.3000;0.2466;2.5105;
1044.6000;0.2442;2.5105;
1044.9000;0.2450;2.5055;
1045.2000;0.2475;2.5280;
1045.5000;0.2483;2.5255;
1045.8000;0.2450;2.5105;
1046.1000;0.2491;2.5105;
1046.4000;0.2491;2.5180;
1046.7000;0.2466;2.5130;
1047.0000;0.2475;2.5130;
1047.3000;0.2458;2.5105;
1047.6000;0.2483;2.5130;
1047.9000;0.2540;2.5305;
1048.2000;0.2466;2.5205;
1048.5000;0.2483;2.5155;
1048.8000;0.2483;2.5080;
1049.1000;0.2499;2.5130;
1049.4000;0.2483;2.5080;
1049.7000;0.2483;2.5080;
1050.0000;0.2507;2.5130;
1050.3000;0.2442;2.4930;
1050.6000;0.2475;2.4980;
1050.9000;0.2385;2.4704;
1051.2000;0.2475;2.4930;
1051.5000;0.2466;2.5005;
1051.8000;0.2442;2.4980;
1052.1000;0.2466;2.5055;
1052.4000;0.2442;2.5105;
1052.7000;0.2458;2.5205;
1053.0000;0.2507;2.5305;
1053.3000;0.2466;2.5205;
1053.6000;0.2475;2.5155;
1053.9000;0.2491;2.5080;
1054.2000;0.2499;2.5130;
1054.5000;0.2483;2.5055;
1054.8000;0.2491;2.5130;
1055.1000;0.2475;2.5255;
1055.4000;0.2491;2.5330;
1055.7000;0.2442;2.5230;
1056.0000;0.2499;2.5405;
1056.3000;0.2475;2.5355;
1056.6000;0.2458;2.5255;
1056.9000;0.2466;2.5305;
1057.2000;0.2434;2.5205;
1057.5000;0.2475;2.5155;
1057.8000;0.2499;2.5255;
1058.1000;0.2458;2.5080;
1058.4000;0.2491;2.5230;
1058.7000;0.2597;2.5455;
1059.0000;0.2491;2.5130;
1059.3000;0.2475;2.5005;
1059.6000;0.2450;2.5055;
1059.9000;0.2458;2.5080;
1060.2000;0.2556;2.5355;
1060.5000;0.2475;2.5155;
1060.8000;0.2491;2.5180;
1061.1000;0.2483;2.5180;
1061.4000;0.2499;2.5155;
1061.7000;0.2483;2.5105;
1062.0000;0.2475;2.5105;
1062.3000;0.2466;2.5030;
1062.6000;0.2466;2.5030;
1062.9000;0.2523;2.5280;
1063.2000;0.2450;2.5055;
1063.5000;0.2507;2.5280;
1063.8000;0.2409;2.5080;
1064.1000;0.2475;2.5380;
1064.4000;0.2499;2.5380;
1064.7000;0.2491;2.5380;
1065.0000;0.2450;2.5305;
1065.3000;0.2491;2.5430;
1065.6000;0.2491;2.5380;
1065.9000;0.2434;2.5230;
1066.2000;0.2458;2.5180;
1066.5000;0.2499;2.5330;
1066.8000;0.2507;2.5280;
1067.1000;0.2344;2.4855;
1067.4000;0.2458;2.5205;
1067.7000;0.2458;2.5080;
1068.0000;0.2491;2.5180;
1068.3000;0.2466;2.5080;
1068.6000;0.2475;2.5080;
1068.9000;0.2491;2.5105;
1069.2000;0.2466;2.4980;
1069.5000;0.2344;2.4629;
1069.8000;0.2475;2.4905;
1070.1000;0.2466;2.4830;
1070.4000;0.2458;2.4755;
1070.7000;0.2499;2.4905;
1071.0000;0.2491;2.4980;
1071.3000;0.2458;2.4930;
1071.6000;0.2409;2.4930;
1071.9000;0.2491;2.5230;
1072.2000;0.2475;2.5130;
1072.5000;0.2466;2.5130;
1072.8000;0.2450;2.5030;
1073.1000;0.2515;2.5255;
1073.4000;0.2483;2.5205;
1073.7000;0.2491;2.5230;
1074.0000;0.2491;2.5280;
1074.3000;0.2491;2.5305;
1074.6000;0.2491;2.5205;
1074.9000;0.2458;2.5030;
1075.2000;0.2483;2.5005;
1075.5000;0.2483;2.5030;
1075.8000;0.2393;2.4955;
1076.1000;0.2450;2.5030;
1076.4000;0.2458;2.5130;
1076.7000;0.2507;2.5430;
1077.0000;0.2458;2.5255;
1077.3000;0.2483;2.5305;
1077.6000;0.2442;2.5155;
1077.9000;0.2483;2.5105;
1078.2000;0.2450;2.4980;
1078.5000;0.2475;2.5105;
1078.8000;0.2491;2.5055;
1079.1000;0.2475;2.4905;
1079.4000;0.2491;2.5005;
1079.7000;0.2450;2.4855;
1080.0000;0.2466;2.4930;
1080.3000;0.2540;2.5205;
1080.6000;0.2475;2.4955;
1080.9000;0.2475;2.4930;
1081.2000;0.2580;2.5280;
1081.5000;0.2475;2.4905;
1081.8000;0.2418;2.4805;
1082.1000;0.2475;2.4955;
1082.4000;0.2483;2.4955;
1082.7000;0.2483;2.4930;
1083.0000;0.2475;2.4855;
1083.3000;0.2466;2.4930;
1083.6000;0.2515;2.5105;
1083.9000;0.2483;2.5005;
1084.2000;0.2491;2.5080;
1084.5000;0.2483;2.5155;
1084.8000;0.2491;2.5205;
1085.1000;0.2483;2.5155;
1085.4000;0.2491;2.5155;
1085.7000;0.2483;2.5230;
1086.0000;0.2442;2.5230;
1086.3000;0.2475;2.5355;
1086.6000;0.2475;2.5330;
1086.9000;0.2450;2.5230;
1087.2000;0.2442;2.5130;
1087.5000;0.2475;2.5230;
1087.8000;0.2523;2.5480;
1088.1000;0.2580;2.5631;
1088.4000;0.2458;2.5255;
1088.7000;0.2491;2.5230;
1089.0000;0.2499;2.5280;
1089.3000;0.2466;2.5280;
1089.6000;0.2466;2.5280;
1089.9000;0.2401;2.5105;
1090.2000;0.2475;2.5255;
1090.5000;0.2475;2.5230;
1090.8000;0.2499;2.5280;
1091.1000;0.2556;2.5480;
1091.4000;0.2491;2.5255;
1091.7000;0.2507;2.5330;
1092.0000;0.2458;2.5305;
1092.3000;0.2442;2.5155;
1092.6000;0.2466;2.5105;
1092.9000;0.2475;2.5030;
1093.2000;0.2466;2.4905;
1093.5000;0.2491;2.4930;
1093.8000;0.2450;2.4830;
1094.1000;0.2450;2.4805;
1094.4000;0.2491;2.4955;
1094.7000;0.2458;2.4880;
1095.0000;0.2466;2.4955;
1095.3000;0.2466;2.4905;
1095.6000;0.2507;2.5080;
1095.9000;0.2418;2.4855;
1096.2000;0.2483;2.4930;
1096.5000;0.2491;2.4905;
1096.8000;0.2442;2.4880;
1097.1000;0.2409;2.4855;
1097.4000;0.2475;2.5055;
1097.7000;0.2491;2.5155;
1098.0000;0.2483;2.5055;
1098.3000;0.2491;2.5005;
1098.6000;0.2475;2.4905;
1098.9000;0.2507;2.4930;
1099.2000;0.2466;2.4855;
1099.5000;0.2491;2.4980;
1099.8000;0.2515;2.5055;
1100.1000;0.2458;2.4980;
1100.4000;0.2418;2.4830;
1100.7000;0.2491;2.4955;
1101.0000;0.2491;2.4955;
1101.3000;0.2540;2.4955;
1101.6000;0.2466;2.4730;
1101.9000;0.2458;2.4730;
1102.2000;0.2491;2.4780;
1102.5000;0.2548;2.4855;
1102.8000;0.2515;2.4805;
1103.1000;0.2515;2.4704;
1103.4000;0.2540;2.4805;
1103.7000;0.2499;2.4830;
1104.0000;0.2409;2.4704;
1104.3000;0.2491;2.4905;
1104.6000;0.2434;2.4679;
1104.9000;0.2491;2.4955;
1105.2000;0.2483;2.4980;
1105.5000;0.2475;2.4955;
1105.8000;0.2548;2.5155;
1106.1000;0.2458;2.4930;
1106.4000;0.2483;2.4905;
1106.7000;0.2450;2.4880;
1107.0000;0.2401;2.4679;
1107.3000;0.2466;2.4855;
1107.6000;0.2483;2.4905;
1107.9000;0.2507;2.4930;
1108.2000;0.2475;2.4780;
1108.5000;0.2483;2.4880;
1108.8000;0.2442;2.4805;
1109.1000;0.2450;2.4830;
1109.4000;0.2475;2.4930;
1109.7000;0.2499;2.4980;
1110.0000;0.2483;2.4980;
1110.3000;0.2458;2.4855;
1110.6000;0.2491;2.5055;
1110.9000;0.2499;2.5080;
1111.2000;0.2507;2.5055;
1111.5000;0.2483;2.5030;
1111.8000;0.2328;2.4579;
1112.1000;0.2418;2.4805;
1112.4000;0.2458;2.4930;
1112.7000;0.2458;2.4955;
1113.0000;0.2418;2.4755;
1113.3000;0.2483;2.4855;
1113.6000;0.2507;2.4980;
1113.9000;0.2507;2.5055;
1114.2000;0.2458;2.4905;
1114.5000;0.2458;2.4980;
1114.8000;0.2475;2.5005;
1115.1000;0.2483;2.5030;
1115.4000;0.2491;2.4955;
1115.7000;0.2483;2.4905;
1116.0000;0.2450;2.4880;
1116.3000;0.2532;2.5080;
1116.6000;0.2450;2.4855;
1116.9000;0.2475;2.4905;
1117.2000;0.2466;2.5030;
1117.5000;0.2483;2.5080;
1117.8000;0.2491;2.5080;
1118.1000;0.2466;2.5005;
1118.4000;0.2434;2.4880;
1118.7000;0.2564;2.5155;
1119.0000;0.2499;2.4980;
1119.3000;0.2466;2.4930;
1119.6000;0.2507;2.5105;
1119.9000;0.2483;2.4980;
1120.2000;0.2475;2.5005;
1120.5000;0.2458;2.4930;
1120.8000;0.2450;2.4880;
1121.1000;0.2475;2.5030;
1121.4000;0.2466;2.4955;
1121.7000;0.2483;2.5005;
1122.0000;0.2483;2.5105;
1122.3000;0.2507;2.5155;
1122.6000;0.2499;2.5155;
1122.9000;0.2515;2.5155;
1123.2000;0.2458;2.4880;
1123.5000;0.2458;2.4930;
1123.8000;0.2442;2.4855;
1124.1000;0.2426;2.4830;
1124.4000;0.2426;2.4855;
1124.7000;0.2466;2.5030;
1125.0000;0.2491;2.5155;
1125.3000;0.2458;2.4955;
1125.6000;0.2458;2.4930;
1125.9000;0.2442;2.4780;
1126.2000;0.2409;2.4755;
1126.5000;0.2475;2.4905;
1126.8000;0.2475;2.4880;
1127.1000;0.2458;2.4805;
1127.4000;0.2475;2.4805;
1127.7000;0.2499;2.4855;
1128.0000;0.2458;2.4679;
1128.3000;0.2466;2.4704;
1128.6000;0.2458;2.4679;
1128.9000;0.2491;2.4780;
1129.2000;0.2475;2.4704;
1129.5000;0.2483;2.4654;
1129.8000;0.2475;2.4604;
1130.1000;0.2483;2.4679;
1130.4000;0.2466;2.4679;
1130.7000;0.2507;2.4905;
1131.0000;0.2483;2.4880;
1131.3000;0.2491;2.4880;
1131.6000;0.2491;2.4905;
1131.9000;0.2409;2.4654;
1132.2000;0.2442;2.4755;
1132.5000;0.2483;2.4905;
1132.8000;0.2629;2.5280;
1133.1000;0.2418;2.4730;
1133.4000;0.2466;2.4780;
1133.7000;0.2491;2.4704;
1134.0000;0.2507;2.4780;
1134.3000;0.2483;2.4780;
1134.6000;0.2458;2.4755;
1134.9000;0.2475;2.4805;
1135.2000;0.2409;2.4604;
1135.5000;0.2483;2.4905;
1135.8000;0.2442;2.4855;
1136.1000;0.2483;2.5005;
1136.4000;0.2475;2.5005;
1136.7000;0.2369;2.4629;
1137.0000;0.2475;2.4955;
1137.3000;0.2483;2.5055;
1137.6000;0.2491;2.5080;
1137.9000;0.2499;2.5030;
1138.2000;0.2491;2.4955;
1138.5000;0.2466;2.4955;
1138.8000;0.2409;2.4905;
1139.1000;0.2499;2.5155;
1139.4000;0.2491;2.5155;
1139.7000;0.2475;2.5230;
1140.0000;0.2458;2.5055;
1140.3000;0.2483;2.5080;
1140.6000;0.2466;2.4930;
1140.9000;0.2483;2.4855;
1141.2000;0.2499;2.5005;
1141.5000;0.2491;2.4955;
1141.8000;0.2401;2.4755;
1142.1000;0.2458;2.4930;
1142.4000;0.2458;2.4905;
1142.7000;0.2466;2.4930;
1143.0000;0.2475;2.4930;
1143.3000;0.2466;2.4955;
1143.6000;0.2466;2.4955;
1143.9000;0.2613;2.5255;
1144.2000;0.2515;2.5005;
1144.5000;0.2475;2.4930;
1144.8000;0.2442;2.4855;
1145.1000;0.2475;2.4905;
1145.4000;0.2450;2.4930;
1145.7000;0.2466;2.4955;
1146.0000;0.2434;2.4905;
1146.3000;0.2491;2.4880;
1146.6000;0.2393;2.4554;
1146.9000;0.2572;2.5155;
1147.2000;0.2475;2.4905;
1147.5000;0.2475;2.4930;
1147.8000;0.2491;2.4930;
1148.1000;0.2466;2.4805;
1148.4000;0.2540;2.5030;
1148.7000;0.2499;2.4955;
1149.0000;0.2458;2.4855;
1149.3000;0.2434;2.4880;
1149.6000;0.2434;2.4930;
1149.9000;0.2483;2.4980;
1150.2000;0.2458;2.4980;
1150.5000;0.2548;2.5230;
1150.8000;0.2475;2.5030;
1151.1000;0.2507;2.5080;
1151.4000;0.2450;2.5105;
1151.7000;0.2540;2.5405;
1152.0000;0.2515;2.5255;
1152.3000;0.2466;2.5080;
1152.6000;0.2475;2.5130;
1152.9000;0.2507;2.5230;
1153.2000;0.2483;2.5180;
1153.5000;0.2475;2.5180;
1153.8000;0.2466;2.5080;
1154.1000;0.2442;2.5055;
1154.4000;0.2458;2.5155;
1154.7000;0.2483;2.5230;
1155.0000;0.2475;2.5205;
1155.3000;0.2442;2.5105;
1155.6000;0.2499;2.5230;
1155.9000;0.2458;2.5155;
1156.2000;0.2442;2.5105;
1156.5000;0.2450;2.5130;
1156.8000;0.2523;2.5305;
1157.1000;0.2475;2.5180;
1157.4000;0.2458;2.5080;
1157.7000;0.2475;2.5005;
1158.0000;0.2426;2.4880;
1158.3000;0.2499;2.5080;
1158.6000;0.2483;2.5005;
1158.9000;0.2475;2.5005;
1159.2000;0.2466;2.5030;
1159.5000;0.2621;2.5380;
1159.8000;0.2426;2.4855;
1160.1000;0.2475;2.5030;
1160.4000;0.2483;2.5055;
1160.7000;0.2540;2.5105;
1161.0000;0.2475;2.4855;
1161.3000;0.2466;2.4805;
1161.6000;0.2466;2.4830;
1161.9000;0.2580;2.5155;
1162.2000;0.2483;2.4905;
1162.5000;0.2466;2.4855;
1162.8000;0.2475;2.4905;
1163.1000;0.2483;2.4955;
1163.4000;0.2483;2.4905;
1163.7000;0.2475;2.4780;
1164.0000;0.2491;2.4805;
1164.3000;0.2491;2.4930;
1164.6000;0.2401;2.4730;
1164.9000;0.2409;2.4704;
1165.2000;0.2491;2.4880;
1165.5000;0.2491;2.4930;
1165.8000;0.2491;2.4980;
1166.1000;0.2507;2.5005;
1166.4000;0.2483;2.4930;
1166.7000;0.2466;2.4880;
1167.0000;0.2499;2.4855;
1167.3000;0.2475;2.4830;
1167.6000;0.2458;2.4830;
1167.9000;0.2466;2.4905;
1168.2000;0.2458;2.4980;
1168.5000;0.2466;2.5155;
1168.8000;0.2466;2.5130;
1169.1000;0.2491;2.5180;
1169.4000;0.2483;2.5180;
1169.7000;0.2483;2.5180;
1170.0000;0.2442;2.5105;
1170.3000;0.2507;2.5180;
1170.6000;0.2475;2.5005;
1170.9000;0.2434;2.4855;
1171.2000;0.2483;2.4980;
1171.5000;0.2466;2.4980;
1171.8000;0.2491;2.4955;
1172.1000;0.2483;2.4855;
1172.4000;0.2450;2.4730;
1172.7000;0.2475;2.4830;
1173.0000;0.2475;2.4830;
1173.3000;0.2483;2.4855;
1173.6000;0.2466;2.4855;
1173.9000;0.2499;2.4955;
1174.2000;0.2540;2.5080;
1174.5000;0.2491;2.4980;
1174.8000;0.2483;2.4980;
1175.1000;0.2483;2.4855;
1175.4000;0.2377;2.4554;
1175.7000;0.2556;2.5155;
1176.0000;0.2483;2.4930;
1176.3000;0.2450;2.4855;
1176.6000;0.2499;2.4980;
1176.9000;0.2458;2.4880;
1177.2000;0.2466;2.4955;
1177.5000;0.2458;2.5080;
1177.8000;0.2483;2.5105;
1178.1000;0.2507;2.5155;
1178.4000;0.2507;2.5080;
1178.7000;0.2499;2.5055;
1179.0000;0.2483;2.5005;
1179.3000;0.2458;2.4930;
1179.6000;0.2499;2.5030;
1179.9000;0.2434;2.4855;
1180.2000;0.2483;2.5005;
1180.5000;0.2466;2.4980;
1180.8000;0.2540;2.5230;
1181.1000;0.2466;2.5130;
1181.4000;0.2450;2.5180;
1181.7000;0.2475;2.5205;
1182.0000;0.2475;2.5130;
1182.3000;0.2483;2.5055;
1182.6000;0.2483;2.5130;
1182.9000;0.2483;2.5105;
1183.2000;0.2336;2.4730;
1183.5000;0.2540;2.5280;
1183.8000;0.2475;2.5180;
1184.1000;0.2466;2.5155;
1184.4000;0.2499;2.5280;
1184.7000;0.2646;2.5656;
1185.0000;0.2507;2.5130;
1185.3000;0.2466;2.5105;
1185.6000;0.2475;2.5030;
1185.9000;0.2466;2.5030;
1186.2000;0.2491;2.5080;
1186.5000;0.2475;2.4980;
1186.8000;0.2532;2.5030;
1187.1000;0.2466;2.4880;
1187.4000;0.2491;2.4930;
1187.7000;0.2466;2.5005;
1188.0000;0.2483;2.5055;
1188.3000;0.2507;2.5105;
1188.6000;0.2475;2.5055;
1188.9000;0.2466;2.5030;
1189.2000;0.2491;2.5030;
1189.5000;0.2637;2.5455;
1189.8000;0.2523;2.5180;
1190.1000;0.2475;2.5005;
1190.4000;0.2491;2.5055;
1190.7000;0.2605;2.5405;
1191.0000;0.2466;2.5030;
1191.3000;0.2491;2.5205;
1191.6000;0.2491;2.5155;
1191.9000;0.2458;2.4980;
1192.2000;0.2458;2.4905;
1192.5000;0.2491;2.5055;
1192.8000;0.2499;2.5155;
1193.1000;0.2483;2.5205;
1193.4000;0.2483;2.5205;
1193.7000;0.2507;2.5230;
1194.0000;0.2434;2.5080;
1194.3000;0.2418;2.4905;
1194.6000;0.2475;2.5030;
1194.9000;0.2491;2.5105;
1195.2000;0.2483;2.5155;
1195.5000;0.2475;2.5055;
1195.8000;0.2458;2.5005;
1196.1000;0.2483;2.5005;
1196.4000;0.2475;2.5030;
1196.7000;0.2393;2.4855;
1197.0000;0.2466;2.5080;
1197.3000;0.2491;2.5080;
1197.6000;0.2418;2.4780;
1197.9000;0.2499;2.5030;
1198.2000;0.2491;2.5055;
1198.5000;0.2515;2.5155;
1198.8000;0.2515;2.5155;
1199.1000;0.2491;2.5105;
1199.4000;0.2629;2.5380;
1199.7000;0.2344;2.4604;
1200.0000;0.2515;2.5080;
1200.3000;0.2499;2.5005;
1200.6000;0.2491;2.4930;
1200.9000;0.2515;2.5030;
1201.2000;0.2475;2.4980;
1201.5000;0.2466;2.5030;
1201.8000;0.2401;2.4905;
1202.1000;0.2369;2.4830;
1202.4000;0.2483;2.5105;
1202.7000;0.2475;2.5055;
1203.0000;0.2491;2.5205;
1203.3000;0.2442;2.5105;
1203.6000;0.2483;2.5105;
1203.9000;0.2523;2.5205;
1204.2000;0.2393;2.4955;
1204.5000;0.2483;2.5105;
1204.8000;0.2597;2.5530;
1205.1000;0.2572;2.5530;
1205.4000;0.2369;2.4955;
1205.7000;0.2483;2.5205;
1206.0000;0.2466;2.5055;
1206.3000;0.2458;2.5005;
1206.6000;0.2418;2.4830;
1206.9000;0.2434;2.4930;
1207.2000;0.2377;2.4805;
1207.5000;0.2466;2.5105;
1207.8000;0.2483;2.5105;
1208.1000;0.2475;2.5155;
1208.4000;0.2483;2.5130;
1208.7000;0.2475;2.5055;
1209.0000;0.2483;2.5080;
1209.3000;0.2466;2.5055;
1209.6000;0.2491;2.5055;
1209.9000;0.2450;2.4880;
1210.2000;0.2466;2.4830;
1210.5000;0.2597;2.5230;
1210.8000;0.2507;2.5005;
1211.1000;0.2466;2.5080;
1211.4000;0.2442;2.4955;
1211.7000;0.2475;2.5080;
1212.0000;0.2458;2.5005;
1212.3000;0.2491;2.5105;
1212.6000;0.2466;2.5055;
1212.9000;0.2385;2.4880;
1213.2000;0.2475;2.5030;
1213.5000;0.2475;2.4980;
1213.8000;0.2483;2.5080;
1214.1000;0.2556;2.5280;
1214.4000;0.2475;2.5155;
1214.7000;0.2523;2.5330;
1215.0000;0.2409;2.4955;
1215.3000;0.2483;2.5180;
1215.6000;0.2483;2.5105;
1215.9000;0.2491;2.5030;
1216.2000;0.2499;2.5055;
1216.5000;0.2483;2.5030;
1216.8000;0.2483;2.5080;
1217.1000;0.2450;2.5030;
1217.4000;0.2466;2.5055;
1217.7000;0.2466;2.5055;
1218.0000;0.2466;2.5055;
1218.3000;0.2475;2.5030;
1218.6000;0.2475;2.5005;
1218.9000;0.2483;2.5005;
1219.2000;0.2483;2.4980;
1219.5000;0.2499;2.5080;
1219.8000;0.2532;2.5180;
1220.1000;0.2483;2.5055;
1220.4000;0.2466;2.5105;
1220.7000;0.2491;2.5130;
1221.0000;0.2466;2.5055;
1221.3000;0.2466;2.5030;
1221.6000;0.2491;2.5080;
1221.9000;0.2507;2.5230;
1222.2000;0.2515;2.5205;
1222.5000;0.2483;2.5080;
1222.8000;0.2458;2.5055;
1223.1000;0.2475;2.5080;
1223.4000;0.2499;2.5180;
1223.7000;0.2434;2.4980;
1224.0000;0.2507;2.5130;
1224.3000;0.2450;2.4930;
1224.6000;0.2483;2.5055;
1224.9000;0.2475;2.5105;
1225.2000;0.2458;2.5055;
1225.5000;0.2499;2.5155;
1225.8000;0.2483;2.5180;
1226.1000;0.2499;2.5230;
1226.4000;0.2442;2.5130;
1226.7000;0.2450;2.5155;
1227.0000;0.2483;2.5280;
1227.3000;0.2418;2.5105;
1227.6000;0.2450;2.5205;
1227.9000;0.2466;2.5280;
1228.2000;0.2442;2.5155;
1228.5000;0.2491;2.5255;
1228.8000;0.2418;2.5080;
1229.1000;0.2564;2.5505;
1229.4000;0.2458;2.5255;
1229.7000;0.2483;2.5280;
1230.0000;0.2475;2.5230;
1230.3000;0.2491;2.5205;
1230.6000;0.2523;2.5305;
1230.9000;0.2483;2.5180;
1231.2000;0.2475;2.5255;
1231.5000;0.2458;2.5230;
1231.8000;0.2466;2.5230;
1232.1000;0.2450;2.5255;
1232.4000;0.2475;2.5305;
1232.7000;0.2491;2.5280;
1233.0000;0.2458;2.5080;
1233.3000;0.2483;2.5305;
1233.6000;0.2475;2.5305;
1233.9000;0.2499;2.5380;
1234.2000;0.2483;2.5405;
1234.5000;0.2507;2.5480;
1234.8000;0.2475;2.5380;
1235.1000;0.2499;2.5380;
1235.4000;0.2491;2.5305;
1235.7000;0.2475;2.5180;
1236.0000;0.2466;2.5105;
1236.3000;0.2499;2.5180;
1236.6000;0.2483;2.5055;
1236.9000;0.2491;2.5030;
1237.2000;0.2515;2.5180;
1237.5000;0.2483;2.5155;
1237.8000;0.2507;2.5255;
1238.1000;0.2458;2.5180;
1238.4000;0.2475;2.5255;
1238.7000;0.2523;2.5355;
1239.0000;0.2483;2.5280;
1239.3000;0.2491;2.5280;
1239.6000;0.2515;2.5280;
1239.9000;0.2491;2.5230;
1240.2000;0.2458;2.5080;
1240.5000;0.2491;2.5155;
1240.8000;0.2483;2.5130;
1241.1000;0.2507;2.5180;
1241.4000;0.2556;2.5255;
1241.7000;0.2515;2.5155;
1242.0000;0.2483;2.5080;
1242.3000;0.2458;2.4980;
1242.6000;0.2507;2.5105;
1242.9000;0.2466;2.4905;
1243.2000;0.2483;2.4980;
1243.5000;0.2466;2.4980;
1243.8000;0.2483;2.5055;
1244.1000;0.2540;2.5180;
1244.4000;0.2523;2.5155;
1244.7000;0.2483;2.5105;
1245.0000;0.2483;2.5080;
1245.3000;0.2466;2.4980;
1245.6000;0.2532;2.5205;
1245.9000;0.2523;2.5205;
1246.2000;0.2499;2.5155;
1246.5000;0.2418;2.4930;
1246.8000;0.2475;2.5180;
1247.1000;0.2401;2.5005;
1247.4000;0.2483;2.5280;
1247.7000;0.2450;2.5105;
1248.0000;0.2491;2.5205;
1248.3000;0.2475;2.5130;
1248.6000;0.2466;2.5055;
1248.9000;0.2458;2.5030;
1249.2000;0.2499;2.5130;
1249.5000;0.2475;2.5005;
1249.8000;0.2548;2.5180;
1250.1000;0.2458;2.4930;
1250.4000;0.2499;2.4905;
1250.7000;0.2466;2.4855;
1251.0000;0.2483;2.5055;
1251.3000;0.2466;2.5055;
1251.6000;0.2458;2.5005;
1251.9000;0.2491;2.5005;
1252.2000;0.2523;2.5155;
1252.5000;0.2458;2.5030;
1252.8000;0.2450;2.5005;
1253.1000;0.2499;2.5080;
1253.4000;0.2507;2.5130;
1253.7000;0.2442;2.5030;
1254.0000;0.2450;2.5030;
1254.3000;0.2466;2.4980;
1254.6000;0.2466;2.4955;
1254.9000;0.2466;2.4955;
1255.2000;0.2483;2.4955;
1255.5000;0.2499;2.5005;
1255.8000;0.2450;2.4955;
1256.1000;0.2475;2.5030;
1256.4000;0.2491;2.5030;
1256.7000;0.2458;2.5030;
1257.0000;0.2572;2.5305;
1257.3000;0.2475;2.5080;
1257.6000;0.2499;2.5105;
1257.9000;0.2491;2.5055;
1258.2000;0.2475;2.5155;
1258.5000;0.2483;2.5180;
1258.8000;0.2458;2.5130;
1259.1000;0.2458;2.5130;
1259.4000;0.2458;2.5130;
1259.7000;0.2483;2.5280;
1260.0000;0.2483;2.5230;
1260.3000;0.2499;2.5355;
1260.6000;0.2458;2.5305;
1260.9000;0.2466;2.5330;
1261.2000;0.2450;2.5380;
1261.5000;0.2434;2.5305;
1261.8000;0.2483;2.5380;
1262.1000;0.2491;2.5505;
1262.4000;0.2458;2.5480;
1262.7000;0.2458;2.5455;
1263.0000;0.2458;2.5430;
1263.3000;0.2475;2.5330;
1263.6000;0.2450;2.5405;
1263.9000;0.2475;2.5380;
1264.2000;0.2466;2.5355;
1264.5000;0.2458;2.5305;
1264.8000;0.2450;2.5280;
1265.1000;0.2369;2.4980;
1265.4000;0.2450;2.5155;
1265.7000;0.2475;2.5230;
1266.0000;0.2532;2.5330;
1266.3000;0.2466;2.4980;
1266.6000;0.2458;2.4905;
1266.9000;0.2434;2.4805;
1267.2000;0.2499;2.4905;
1267.5000;0.2409;2.4704;
1267.8000;0.2458;2.4830;
1268.1000;0.2458;2.4805;
1268.4000;0.2450;2.4955;
1268.7000;0.2483;2.5105;
1269.0000;0.2466;2.5080;
1269.3000;0.2491;2.5130;
1269.6000;0.2523;2.5155;
1269.9000;0.2483;2.5030;
1270.2000;0.2466;2.5005;
1270.5000;0.2475;2.4980;
1270.8000;0.2540;2.5205;
1271.1000;0.2466;2.4905;
1271.4000;0.2483;2.4980;
1271.7000;0.2352;2.4654;
1272.0000;0.2483;2.5080;
1272.3000;0.2483;2.5155;
1272.6000;0.2483;2.5180;
1272.9000;0.2556;2.5380;
1273.2000;0.2483;2.5105;
1273.5000;0.2483;2.5180;
1273.8000;0.2483;2.5205;
1274.1000;0.2466;2.5180;
1274.4000;0.2515;2.5280;
1274.7000;0.2483;2.5180;
1275.0000;0.2475;2.5255;
1275.3000;0.2491;2.5255;
1275.6000;0.2483;2.5230;
1275.9000;0.2491;2.5205;
1276.2000;0.2475;2.5130;
1276.5000;0.2491;2.5105;
1276.8000;0.2466;2.5055;
1277.1000;0.2475;2.5130;
1277.4000;0.2475;2.5180;
1277.7000;0.2491;2.5180;
1278.0000;0.2491;2.5230;
1278.3000;0.2475;2.5230;
1278.6000;0.2393;2.4955;
1278.9000;0.2361;2.4930;
1279.2000;0.2515;2.5405;
1279.5000;0.2556;2.5430;
1279.8000;0.2475;2.5280;
1280.1000;0.2483;2.5230;
1280.4000;0.2483;2.5255;
1280.7000;0.2458;2.5205;
1281.0000;0.2556;2.5355;
1281.3000;0.2475;2.5105;
1281.6000;0.2466;2.5130;
1281.9000;0.2515;2.5355;
1282.2000;0.2483;2.5255;
1282.5000;0.2483;2.5230;
1282.8000;0.2507;2.5305;
1283.1000;0.2434;2.5130;
1283.4000;0.2475;2.5230;
1283.7000;0.2466;2.5180;
1284.0000;0.2491;2.5255;
1284.3000;0.2491;2.5180;
1284.6000;0.2491;2.5180;
1284.9000;0.2507;2.5155;
1285.2000;0.2466;2.5030;
1285.5000;0.2483;2.4980;
1285.8000;0.2450;2.4905;
1286.1000;0.2466;2.5030;
1286.4000;0.2483;2.5080;
1286.7000;0.2458;2.4980;
1287.0000;0.2491;2.5105;
1287.3000;0.2475;2.5055;
1287.6000;0.2475;2.5030;
1287.9000;0.2499;2.5130;
1288.2000;0.2483;2.5080;
1288.5000;0.2458;2.5030;
1288.8000;0.2483;2.5105;
1289.1000;0.2491;2.5130;
1289.4000;0.2418;2.5080;
1289.7000;0.2483;2.5280;
1290.0000;0.2507;2.5230;
1290.3000;0.2409;2.4955;
1290.6000;0.2466;2.5105;
1290.9000;0.2540;2.5380;
1291.2000;0.2483;2.5255;
1291.5000;0.2532;2.5430;
1291.8000;0.2466;2.5255;
1292.1000;0.2507;2.5280;
1292.4000;0.2540;2.5380;
1292.7000;0.2475;2.5280;
1293.0000;0.2483;2.5230;
1293.3000;0.2491;2.5330;
1293.6000;0.2450;2.5305;
1293.9000;0.2507;2.5380;
1294.2000;0.2491;2.5405;
1294.5000;0.2507;2.5530;
1294.8000;0.2352;2.5030;
1295.1000;0.2466;2.5280;
1295.4000;0.2507;2.5355;
1295.7000;0.2483;2.5330;
1296.0000;0.2458;2.5305;
1296.3000;0.2507;2.5430;
1296.6000;0.2458;2.5430;
1296.9000;0.2483;2.5480;
1297.2000;0.2450;2.5355;
1297.5000;0.2475;2.5355;
1297.8000;0.2475;2.5255;
1298.1000;0.2475;2.5155;
1298.4000;0.2507;2.5155;
1298.7000;0.2475;2.5230;
1299.0000;0.2491;2.5280;
1299.3000;0.2499;2.5380;
1299.6000;0.2507;2.5380;
1299.9000;0.2499;2.5280;
1300.2000;0.2483;2.5155;
1300.5000;0.2491;2.5230;
1300.8000;0.2483;2.5180;
1301.1000;0.2466;2.5155;
1301.4000;0.2499;2.5155;
1301.7000;0.2401;2.4855;
1302.0000;0.2507;2.5080;
1302.3000;0.2483;2.5105;
1302.6000;0.2483;2.5180;
1302.9000;0.2475;2.5205;
1303.2000;0.2458;2.5180;
1303.5000;0.2540;2.5305;
1303.8000;0.2491;2.5105;
1304.1000;0.2483;2.5180;
1304.4000;0.2499;2.5255;
1304.7000;0.2491;2.5155;
1305.0000;0.2466;2.5130;
1305.3000;0.2491;2.5205;
1305.6000;0.2483;2.5180;
1305.9000;0.2483;2.5155;
1306.2000;0.2475;2.5155;
1306.5000;0.2483;2.5280;
1306.8000;0.2491;2.5230;
1307.1000;0.2499;2.5205;
1307.4000;0.2483;2.5155;
1307.7000;0.2515;2.5355;
1308.0000;0.2499;2.5355;
1308.3000;0.2499;2.5380;
1308.6000;0.2450;2.5305;
1308.9000;0.2450;2.5255;
1309.2000;0.2450;2.5230;
1309.5000;0.2466;2.5180;
1309.8000;0.2491;2.5130;
1310.1000;0.2483;2.5205;
1310.4000;0.2475;2.5180;
1310.7000;0.2491;2.5155;
1311.0000;0.2475;2.5155;
1311.3000;0.2450;2.5130;
1311.6000;0.2483;2.5080;
1311.9000;0.2507;2.5130;
1312.2000;0.2499;2.5080;
1312.5000;0.2507;2.5155;
1312.8000;0.2483;2.5230;
1313.1000;0.2499;2.5255;
1313.4000;0.2499;2.5305;
1313.7000;0.2458;2.5305;
1314.0000;0.2466;2.5380;
1314.3000;0.2466;2.5480;
1314.6000;0.2564;2.5656;
1314.9000;0.2499;2.5430;
1315.2000;0.2483;2.5330;
1315.5000;0.2491;2.5430;
1315.8000;0.2475;2.5405;
1316.1000;0.2491;2.5455;
1316.4000;0.2458;2.5405;
1316.7000;0.2475;2.5505;
1317.0000;0.2491;2.5455;
1317.3000;0.2466;2.5430;
1317.6000;0.2499;2.5530;
1317.9000;0.2393;2.5155;
1318.2000;0.2483;2.5380;
1318.5000;0.2475;2.5305;
1318.8000;0.2475;2.5230;
1319.1000;0.2475;2.5180;
1319.4000;0.2523;2.5355;
1319.7000;0.2564;2.5480;
1320.0000;0.2466;2.5255;
1320.3000;0.2458;2.5155;
1320.6000;0.2483;2.5130;
1320.9000;0.2515;2.5180;
1321.2000;0.2475;2.5105;
1321.5000;0.2426;2.5030;
1321.8000;0.2548;2.5380;
1322.1000;0.2483;2.5205;
1322.4000;0.2491;2.5230;
1322.7000;0.2491;2.5155;
1323.0000;0.2418;2.4930;
1323.3000;0.2507;2.5080;
1323.6000;0.2499;2.5130;
1323.9000;0.2475;2.5080;
1324.2000;0.2491;2.5105;
1324.5000;0.2458;2.5080;
1324.8000;0.2475;2.5080;
1325.1000;0.2466;2.5080;
1325.4000;0.2466;2.5080;
1325.7000;0.2458;2.5105;
1326.0000;0.2466;2.5155;
1326.3000;0.2483;2.5205;
1326.6000;0.2475;2.5180;
1326.9000;0.2499;2.5230;
1327.2000;0.2483;2.5205;
1327.5000;0.2458;2.5130;
1327.8000;0.2491;2.5205;
1328.1000;0.2483;2.5205;
1328.4000;0.2491;2.5255;
1328.7000;0.2507;2.5405;
1329.0000;0.2475;2.5280;
1329.3000;0.2483;2.5330;
1329.6000;0.2564;2.5631;
1329.9000;0.2483;2.5380;
1330.2000;0.2475;2.5255;
1330.5000;0.2475;2.5205;
1330.8000;0.2499;2.5355;
1331.1000;0.2466;2.5280;
1331.4000;0.2499;2.5455;
1331.7000;0.2499;2.5405;
1332.0000;0.2483;2.5355;
1332.3000;0.2491;2.5330;
1332.6000;0.2499;2.5305;
1332.9000;0.2507;2.5255;
1333.2000;0.2483;2.5305;
1333.5000;0.2572;2.5581;
1333.8000;0.2515;2.5380;
1334.1000;0.2426;2.5205;
1334.4000;0.2548;2.5530;
1334.7000;0.2532;2.5380;
1335.0000;0.2483;2.5355;
1335.3000;0.2491;2.5330;
1335.6000;0.2475;2.5330;
1335.9000;0.2491;2.5380;
1336.2000;0.2507;2.5330;
1336.5000;0.2475;2.5180;
1336.8000;0.2466;2.5105;
1337.1000;0.2564;2.5405;
1337.4000;0.2499;2.5280;
1337.7000;0.2499;2.5305;
1338.0000;0.2491;2.5230;
1338.3000;0.2491;2.5305;
1338.6000;0.2475;2.5305;
1338.9000;0.2483;2.5280;
1339.2000;0.2491;2.5355;
1339.5000;0.2491;2.5380;
1339.8000;0.2458;2.5330;
1340.1000;0.2491;2.5305;
1340.4000;0.2458;2.5155;
1340.7000;0.2475;2.5180;
1341.0000;0.2499;2.5230;
1341.3000;0.2483;2.5180;
1341.6000;0.2491;2.5230;
1341.9000;0.2523;2.5305;
1342.2000;0.2475;2.5230;
1342.5000;0.2499;2.5305;
1342.8000;0.2409;2.5055;
1343.1000;0.2491;2.5330;
1343.4000;0.2475;2.5230;
1343.7000;0.2426;2.5080;
1344.0000;0.2458;2.5230;
1344.3000;0.2458;2.5255;
1344.6000;0.2491;2.5380;
1344.9000;0.2475;2.5355;
1345.2000;0.2491;2.5280;
1345.5000;0.2499;2.5205;
1345.8000;0.2361;2.4855;
1346.1000;0.2483;2.5130;
1346.4000;0.2499;2.5080;
1346.7000;0.2540;2.5205;
1347.0000;0.2491;2.5080;
1347.3000;0.2483;2.5105;
1347.6000;0.2483;2.5155;
1347.9000;0.2466;2.5080;
1348.2000;0.2450;2.5105;
1348.5000;0.2475;2.5255;
1348.8000;0.2483;2.5255;
1349.1000;0.2475;2.5205;
1349.4000;0.2507;2.5255;
1349.7000;0.2458;2.5180;
1350.0000;0.2523;2.5330;
1350.3000;0.2499;2.5280;
1350.6000;0.2483;2.5255;
1350.9000;0.2483;2.5255;
1351.2000;0.2499;2.5230;
1351.5000;0.2483;2.5080;
1351.8000;0.2450;2.5055;
1352.1000;0.2458;2.5105;
1352.4000;0.2499;2.5155;
1352.7000;0.2499;2.5130;
1353.0000;0.2572;2.5355;
1353.3000;0.2466;2.5030;
1353.6000;0.2491;2.5105;
1353.9000;0.2491;2.5205;
1354.2000;0.2507;2.5280;
1354.5000;0.2458;2.5155;
1354.8000;0.2475;2.5230;
1355.1000;0.2491;2.5380;
1355.4000;0.2483;2.5380;
1355.7000;0.2466;2.5305;
1356.0000;0.2491;2.5280;
1356.3000;0.2466;2.5180;
1356.6000;0.2499;2.5305;
1356.9000;0.2475;2.5255;
1357.2000;0.2483;2.5305;
1357.5000;0.2572;2.5455;
1357.8000;0.2507;2.5255;
1358.1000;0.2532;2.5330;
1358.4000;0.2401;2.4880;
1358.7000;0.2515;2.5180;
1359.0000;0.2523;2.5255;
1359.3000;0.2385;2.4930;
1359.6000;0.2475;2.5230;
1359.9000;0.2475;2.5255;
1360.2000;0.2458;2.5180;
1360.5000;0.2466;2.5130;
1360.8000;0.2515;2.5255;
1361.1000;0.2507;2.5180;
1361.4000;0.2507;2.5230;
1361.7000;0.2507;2.5230;
1362.0000;0.2483;2.5205;
1362.3000;0.2499;2.5180;
1362.6000;0.2507;2.5155;
1362.9000;0.2483;2.5105;
1363.2000;0.2450;2.4980;
1363.5000;0.2483;2.5105;
1363.8000;0.2466;2.5055;
1364.1000;0.2499;2.5155;
1364.4000;0.2483;2.5080;
1364.7000;0.2466;2.5080;
1365.0000;0.2483;2.5255;
1365.3000;0.2515;2.5280;
1365.6000;0.2483;2.5180;
1365.9000;0.2499;2.5205;
1366.2000;0.2499;2.5255;
1366.5000;0.2483;2.5280;
1366.8000;0.2377;2.5030;
1367.1000;0.2475;2.5255;
1367.4000;0.2466;2.5230;
1367.7000;0.2450;2.5105;
1368.0000;0.2564;2.5330;
1368.3000;0.2475;2.4980;
1368.6000;0.2483;2.5005;
1368.9000;0.2589;2.5255;
1369.2000;0.2499;2.5055;
1369.5000;0.2491;2.4930;
1369.8000;0.2466;2.4905;
1370.1000;0.2483;2.4980;
1370.4000;0.2491;2.5080;
1370.7000;0.2466;2.4955;
1371.0000;0.2507;2.5105;
1371.3000;0.2475;2.5105;
1371.6000;0.2483;2.5230;
1371.9000;0.2491;2.5305;
1372.2000;0.2458;2.5180;
1372.5000;0.2491;2.5205;
1372.8000;0.2491;2.5130;
1373.1000;0.2515;2.5205;
1373.4000;0.2507;2.5105;
1373.7000;0.2475;2.5030;
1374.0000;0.2483;2.5055;
1374.3000;0.2483;2.5005;
1374.6000;0.2466;2.5105;
1374.9000;0.2491;2.5130;
1375.2000;0.2491;2.5155;
1375.5000;0.2491;2.5180;
1375.8000;0.2442;2.4955;
1376.1000;0.2548;2.5255;
1376.4000;0.2483;2.5055;
1376.7000;0.2483;2.4980;
1377.0000;0.2589;2.5230;
1377.3000;0.2491;2.5055;
1377.6000;0.2466;2.5005;
1377.9000;0.2499;2.5080;
1378.2000;0.2491;2.4955;
1378.5000;0.2458;2.4955;
1378.8000;0.2483;2.5005;
1379.1000;0.2483;2.4980;
1379.4000;0.2491;2.4955;
1379.7000;0.2450;2.4955;
1380.0000;0.2491;2.5055;
1380.3000;0.2491;2.5030;
1380.6000;0.2483;2.5055;
1380.9000;0.2483;2.5080;
1381.2000;0.2483;2.4980;
1381.5000;0.2483;2.5030;
1381.8000;0.2466;2.5030;
1382.1000;0.2483;2.5005;
1382.4000;0.2466;2.5080;
1382.7000;0.2532;2.5405;
1383.0000;0.2483;2.5380;
1383.3000;0.2515;2.5355;
1383.6000;0.2491;2.5280;
1383.9000;0.2475;2.5230;
1384.2000;0.2483;2.5230;
1384.5000;0.2515;2.5230;
1384.8000;0.2426;2.4955;
1385.1000;0.2475;2.5080;
1385.4000;0.2507;2.5155;
1385.7000;0.2499;2.5180;
1386.0000;0.2483;2.5030;
1386.3000;0.2491;2.5080;
1386.6000;0.2466;2.5080;
1386.9000;0.2580;2.5405;
1387.2000;0.2450;2.5080;
1387.5000;0.2491;2.5205;
1387.8000;0.2458;2.5105;
1388.1000;0.2475;2.5130;
1388.4000;0.2483;2.5155;
1388.7000;0.2483;2.5130;
1389.0000;0.2491;2.5205;
1389.3000;0.2532;2.5280;
1389.6000;0.2499;2.5080;
1389.9000;0.2483;2.5080;
1390.2000;0.2483;2.5155;
1390.5000;0.2532;2.5330;
1390.8000;0.2499;2.5330;
1391.1000;0.2499;2.5255;
1391.4000;0.2491;2.5255;
1391.7000;0.2344;2.4880;
1392.0000;0.2491;2.5205;
1392.3000;0.2475;2.5105;
1392.6000;0.2483;2.5205;
1392.9000;0.2361;2.4905;
1393.2000;0.2556;2.5355;
1393.5000;0.2491;2.5180;
1393.8000;0.2499;2.5255;
1394.1000;0.2475;2.5005;
1394.4000;0.2483;2.5030;
1394.7000;0.2475;2.5030;
1395.0000;0.2475;2.4980;
1395.3000;0.2564;2.5280;
1395.6000;0.2499;2.5030;
1395.9000;0.2523;2.5105;
1396.2000;0.2466;2.4955;
1396.5000;0.2475;2.4980;
1396.8000;0.2678;2.5606;
1397.1000;0.2483;2.5055;
1397.4000;0.2507;2.5080;
1397.7000;0.2475;2.5030;
1398.0000;0.2426;2.4955;
1398.3000;0.2523;2.5330;
1398.6000;0.2491;2.5180;
1398.9000;0.2515;2.5230;
1399.2000;0.2475;2.5055;
1399.5000;0.2499;2.5080;
1399.8000;0.2532;2.5155;
