time/ms;Fluo/V;P700 deltaI/I x10³;
-199.8000;0.3972;0.8405;
-199.5000;0.3989;0.8380;
-199.2000;0.3948;0.8305;
-198.9000;0.3989;0.8405;
-198.6000;0.3972;0.8405;
-198.3000;0.3980;0.8504;
-198.0000;0.3980;0.8479;
-197.7000;0.3972;0.8454;
-197.4000;0.3972;0.8554;
-197.1000;0.3997;0.8554;
-196.8000;0.3989;0.8479;
-196.5000;0.3980;0.8430;
-196.2000;0.3989;0.8479;
-195.9000;0.3989;0.8454;
-195.6000;0.3989;0.8380;
-195.3000;0.3997;0.8355;
-195.0000;0.3989;0.8405;
-194.7000;0.4005;0.8529;
-194.4000;0.3989;0.8405;
-194.1000;0.4005;0.8430;
-193.8000;0.3980;0.8330;
-193.5000;0.3997;0.8231;
-193.2000;0.3972;0.8181;
-192.9000;0.3997;0.8156;
-192.6000;0.4078;0.8454;
-192.3000;0.4005;0.8256;
-192.0000;0.3972;0.8256;
-191.7000;0.3964;0.8256;
-191.4000;0.3980;0.8380;
-191.1000;0.3980;0.8380;
-190.8000;0.3980;0.8355;
-190.5000;0.3980;0.8405;
-190.2000;0.3972;0.8330;
-189.9000;0.3989;0.8305;
-189.6000;0.3980;0.8256;
-189.3000;0.3980;0.8256;
-189.0000;0.3989;0.8280;
-188.7000;0.3989;0.8305;
-188.4000;0.3972;0.8256;
-188.1000;0.3972;0.8206;
-187.8000;0.3989;0.8280;
-187.5000;0.3980;0.8355;
-187.2000;0.3972;0.8280;
-186.9000;0.3989;0.8380;
-186.6000;0.3964;0.8405;
-186.3000;0.3989;0.8430;
-186.0000;0.3989;0.8380;
-185.7000;0.4062;0.8479;
-185.4000;0.3989;0.8380;
-185.1000;0.4013;0.8504;
-184.8000;0.3997;0.8504;
-184.5000;0.3972;0.8380;
-184.2000;0.4054;0.8504;
-183.9000;0.4005;0.8430;
-183.6000;0.3989;0.8355;
-183.3000;0.4005;0.8355;
-183.0000;0.3989;0.8280;
-182.7000;0.3940;0.8206;
-182.4000;0.3972;0.8256;
-182.1000;0.3972;0.8280;
-181.8000;0.3989;0.8405;
-181.5000;0.4005;0.8405;
-181.2000;0.4005;0.8330;
-180.9000;0.3997;0.8280;
-180.6000;0.3940;0.8131;
-180.3000;0.3980;0.8206;
-180.0000;0.3989;0.8231;
-179.7000;0.3980;0.8256;
-179.4000;0.3997;0.8305;
-179.1000;0.3989;0.8330;
-178.8000;0.3923;0.8156;
-178.5000;0.4029;0.8479;
-178.2000;0.3980;0.8454;
-177.9000;0.3972;0.8454;
-177.6000;0.3997;0.8355;
-177.3000;0.4037;0.8305;
-177.0000;0.3980;0.8231;
-176.7000;0.3997;0.8256;
-176.4000;0.3989;0.8256;
-176.1000;0.3989;0.8231;
-175.8000;0.3997;0.8280;
-175.5000;0.4013;0.8330;
-175.2000;0.3989;0.8355;
-174.9000;0.3989;0.8256;
-174.6000;0.3997;0.8305;
-174.3000;0.3956;0.8330;
-174.0000;0.3980;0.8430;
-173.7000;0.4021;0.8554;
-173.4000;0.4013;0.8579;
-173.1000;0.3989;0.8653;
-172.8000;0.3980;0.8554;
-172.5000;0.3989;0.8504;
-172.2000;0.4037;0.8678;
-171.9000;0.3997;0.8554;
-171.6000;0.3964;0.8529;
-171.3000;0.3972;0.8529;
-171.0000;0.3989;0.8504;
-170.7000;0.3989;0.8529;
-170.4000;0.3989;0.8504;
-170.1000;0.3923;0.8380;
-169.8000;0.3964;0.8554;
-169.5000;0.3989;0.8604;
-169.2000;0.3997;0.8554;
-168.9000;0.3997;0.8554;
-168.6000;0.4013;0.8579;
-168.3000;0.3989;0.8504;
-168.0000;0.3989;0.8529;
-167.7000;0.4013;0.8653;
-167.4000;0.3980;0.8504;
-167.1000;0.4021;0.8579;
-166.8000;0.3980;0.8305;
-166.5000;0.3972;0.8305;
-166.2000;0.4086;0.8579;
-165.9000;0.3997;0.8280;
-165.6000;0.4013;0.8280;
-165.3000;0.3997;0.8156;
-165.0000;0.4005;0.8131;
-164.7000;0.4005;0.8156;
-164.4000;0.3997;0.8131;
-164.1000;0.3997;0.8106;
-163.8000;0.3989;0.8231;
-163.5000;0.3997;0.8256;
-163.2000;0.3997;0.8305;
-162.9000;0.3997;0.8280;
-162.6000;0.4005;0.8305;
-162.3000;0.3997;0.8330;
-162.0000;0.3989;0.8256;
-161.7000;0.3915;0.8007;
-161.4000;0.3997;0.8131;
-161.1000;0.4013;0.8206;
-160.8000;0.3989;0.8081;
-160.5000;0.3989;0.8106;
-160.2000;0.3997;0.8206;
-159.9000;0.3997;0.8181;
-159.6000;0.4013;0.8206;
-159.3000;0.3980;0.8231;
-159.0000;0.3989;0.8280;
-158.7000;0.4021;0.8355;
-158.4000;0.3989;0.8280;
-158.1000;0.4046;0.8479;
-157.8000;0.3972;0.8355;
-157.5000;0.3989;0.8355;
-157.2000;0.4021;0.8454;
-156.9000;0.4005;0.8479;
-156.6000;0.3980;0.8479;
-156.3000;0.3980;0.8529;
-156.0000;0.3980;0.8554;
-155.7000;0.3980;0.8579;
-155.4000;0.3980;0.8604;
-155.1000;0.3980;0.8629;
-154.8000;0.3997;0.8629;
-154.5000;0.3956;0.8579;
-154.2000;0.3980;0.8529;
-153.9000;0.3980;0.8430;
-153.6000;0.3997;0.8479;
-153.3000;0.3980;0.8405;
-153.0000;0.3989;0.8355;
-152.7000;0.3972;0.8280;
-152.4000;0.3997;0.8380;
-152.1000;0.3972;0.8380;
-151.8000;0.3980;0.8355;
-151.5000;0.3989;0.8430;
-151.2000;0.4005;0.8479;
-150.9000;0.3997;0.8454;
-150.6000;0.3989;0.8479;
-150.3000;0.3980;0.8430;
-150.0000;0.4005;0.8554;
-149.7000;0.4013;0.8653;
-149.4000;0.4005;0.8504;
-149.1000;0.3989;0.8479;
-148.8000;0.3989;0.8405;
-148.5000;0.3948;0.8330;
-148.2000;0.4005;0.8479;
-147.9000;0.3989;0.8305;
-147.6000;0.3964;0.8280;
-147.3000;0.3989;0.8280;
-147.0000;0.3989;0.8280;
-146.7000;0.3989;0.8280;
-146.4000;0.4013;0.8355;
-146.1000;0.3964;0.8405;
-145.8000;0.3989;0.8405;
-145.5000;0.3989;0.8405;
-145.2000;0.3989;0.8231;
-144.9000;0.3989;0.8181;
-144.6000;0.3997;0.8280;
-144.3000;0.4005;0.8355;
-144.0000;0.3989;0.8330;
-143.7000;0.3997;0.8305;
-143.4000;0.3997;0.8305;
-143.1000;0.3980;0.8355;
-142.8000;0.4111;0.8703;
-142.5000;0.4005;0.8330;
-142.2000;0.3997;0.8280;
-141.9000;0.3972;0.8305;
-141.6000;0.3972;0.8430;
-141.3000;0.3989;0.8430;
-141.0000;0.3980;0.8430;
-140.7000;0.4005;0.8579;
-140.4000;0.4005;0.8629;
-140.1000;0.4005;0.8678;
-139.8000;0.4005;0.8653;
-139.5000;0.4005;0.8629;
-139.2000;0.4005;0.8529;
-138.9000;0.3997;0.8529;
-138.6000;0.3997;0.8504;
-138.3000;0.4005;0.8430;
-138.0000;0.3997;0.8330;
-137.7000;0.4013;0.8330;
-137.4000;0.3997;0.8355;
-137.1000;0.3997;0.8554;
-136.8000;0.3980;0.8554;
-136.5000;0.3980;0.8579;
-136.2000;0.3980;0.8579;
-135.9000;0.4005;0.8629;
-135.6000;0.3980;0.8579;
-135.3000;0.3972;0.8554;
-135.0000;0.3907;0.8156;
-134.7000;0.4005;0.8256;
-134.4000;0.4005;0.8256;
-134.1000;0.3980;0.8181;
-133.8000;0.3989;0.8256;
-133.5000;0.3997;0.8355;
-133.2000;0.3997;0.8330;
-132.9000;0.4005;0.8256;
-132.6000;0.4086;0.8454;
-132.3000;0.3980;0.8206;
-132.0000;0.3997;0.8231;
-131.7000;0.3972;0.8231;
-131.4000;0.3980;0.8231;
-131.1000;0.3997;0.8231;
-130.8000;0.3997;0.8206;
-130.5000;0.3989;0.8231;
-130.2000;0.3997;0.8280;
-129.9000;0.3989;0.8355;
-129.6000;0.3989;0.8430;
-129.3000;0.3989;0.8330;
-129.0000;0.4005;0.8305;
-128.7000;0.4005;0.8256;
-128.4000;0.3972;0.8206;
-128.1000;0.4029;0.8405;
-127.8000;0.3989;0.8305;
-127.5000;0.3940;0.8156;
-127.2000;0.4005;0.8330;
-126.9000;0.4013;0.8430;
-126.6000;0.3997;0.8430;
-126.3000;0.4005;0.8405;
-126.0000;0.4021;0.8529;
-125.7000;0.4005;0.8529;
-125.4000;0.4021;0.8554;
-125.1000;0.3989;0.8504;
-124.8000;0.3989;0.8579;
-124.5000;0.3997;0.8703;
-124.2000;0.3989;0.8678;
-123.9000;0.3980;0.8529;
-123.6000;0.4070;0.8678;
-123.3000;0.3980;0.8405;
-123.0000;0.4013;0.8479;
-122.7000;0.3972;0.8330;
-122.4000;0.4005;0.8355;
-122.1000;0.3972;0.8330;
-121.8000;0.3997;0.8380;
-121.5000;0.3997;0.8430;
-121.2000;0.3997;0.8405;
-120.9000;0.3980;0.8380;
-120.6000;0.4005;0.8454;
-120.3000;0.4005;0.8405;
-120.0000;0.3980;0.8330;
-119.7000;0.3997;0.8380;
-119.4000;0.4013;0.8479;
-119.1000;0.3989;0.8256;
-118.8000;0.3972;0.8280;
-118.5000;0.3989;0.8454;
-118.2000;0.3964;0.8430;
-117.9000;0.3948;0.8330;
-117.6000;0.4021;0.8554;
-117.3000;0.3997;0.8454;
-117.0000;0.3883;0.8181;
-116.7000;0.3972;0.8405;
-116.4000;0.3980;0.8504;
-116.1000;0.3964;0.8479;
-115.8000;0.3989;0.8454;
-115.5000;0.4013;0.8504;
-115.2000;0.3989;0.8380;
-114.9000;0.3980;0.8355;
-114.6000;0.3980;0.8305;
-114.3000;0.4021;0.8405;
-114.0000;0.3989;0.8355;
-113.7000;0.3997;0.8280;
-113.4000;0.3980;0.8280;
-113.1000;0.3972;0.8280;
-112.8000;0.3980;0.8330;
-112.5000;0.3972;0.8355;
-112.2000;0.3980;0.8355;
-111.9000;0.3980;0.8355;
-111.6000;0.3989;0.8380;
-111.3000;0.3972;0.8380;
-111.0000;0.3980;0.8380;
-110.7000;0.3964;0.8305;
-110.4000;0.3989;0.8355;
-110.1000;0.3980;0.8305;
-109.8000;0.3997;0.8355;
-109.5000;0.3989;0.8380;
-109.2000;0.4029;0.8430;
-108.9000;0.4005;0.8305;
-108.6000;0.3997;0.8256;
-108.3000;0.3989;0.8231;
-108.0000;0.3989;0.8256;
-107.7000;0.4005;0.8231;
-107.4000;0.3980;0.8206;
-107.1000;0.3980;0.8256;
-106.8000;0.4005;0.8355;
-106.5000;0.3997;0.8405;
-106.2000;0.4005;0.8405;
-105.9000;0.3989;0.8430;
-105.6000;0.3980;0.8504;
-105.3000;0.3997;0.8529;
-105.0000;0.3989;0.8504;
-104.7000;0.3989;0.8430;
-104.4000;0.3997;0.8380;
-104.1000;0.4013;0.8430;
-103.8000;0.3989;0.8430;
-103.5000;0.3964;0.8430;
-103.2000;0.3997;0.8430;
-102.9000;0.4005;0.8380;
-102.6000;0.4005;0.8380;
-102.3000;0.3940;0.8156;
-102.0000;0.3980;0.8330;
-101.7000;0.3997;0.8430;
-101.4000;0.3997;0.8405;
-101.1000;0.3940;0.8330;
-100.8000;0.4005;0.8454;
-100.5000;0.3980;0.8430;
-100.2000;0.3980;0.8454;
-99.9000;0.4005;0.8430;
-99.6000;0.3972;0.8430;
-99.3000;0.3980;0.8430;
-99.0000;0.3964;0.8355;
-98.7000;0.4005;0.8405;
-98.4000;0.3972;0.8430;
-98.1000;0.4054;0.8629;
-97.8000;0.3980;0.8405;
-97.5000;0.3972;0.8479;
-97.2000;0.3980;0.8554;
-96.9000;0.3972;0.8529;
-96.6000;0.4005;0.8653;
-96.3000;0.3980;0.8579;
-96.0000;0.3997;0.8629;
-95.7000;0.3980;0.8629;
-95.4000;0.3997;0.8703;
-95.1000;0.4013;0.8753;
-94.8000;0.3980;0.8678;
-94.5000;0.3989;0.8753;
-94.2000;0.4005;0.8703;
-93.9000;0.4021;0.8629;
-93.6000;0.3997;0.8479;
-93.3000;0.3972;0.8430;
-93.0000;0.3997;0.8504;
-92.7000;0.4005;0.8529;
-92.4000;0.3997;0.8479;
-92.1000;0.3980;0.8355;
-91.8000;0.4013;0.8430;
-91.5000;0.3989;0.8380;
-91.2000;0.3989;0.8355;
-90.9000;0.3980;0.8280;
-90.6000;0.4005;0.8380;
-90.3000;0.3997;0.8405;
-90.0000;0.4005;0.8380;
-89.7000;0.3997;0.8430;
-89.4000;0.3997;0.8355;
-89.1000;0.4005;0.8305;
-88.8000;0.3989;0.8305;
-88.5000;0.3980;0.8256;
-88.2000;0.3972;0.8305;
-87.9000;0.3956;0.8231;
-87.6000;0.3989;0.8330;
-87.3000;0.3989;0.8305;
-87.0000;0.4054;0.8454;
-86.7000;0.3972;0.8330;
-86.4000;0.3972;0.8305;
-86.1000;0.3972;0.8330;
-85.8000;0.4021;0.8454;
-85.5000;0.3980;0.8280;
-85.2000;0.3980;0.8380;
-84.9000;0.3980;0.8430;
-84.6000;0.3989;0.8405;
-84.3000;0.3932;0.8355;
-84.0000;0.3980;0.8405;
-83.7000;0.4005;0.8479;
-83.4000;0.3989;0.8504;
-83.1000;0.3980;0.8454;
-82.8000;0.3980;0.8405;
-82.5000;0.3997;0.8454;
-82.2000;0.4005;0.8454;
-81.9000;0.3980;0.8405;
-81.6000;0.3997;0.8479;
-81.3000;0.3932;0.8454;
-81.0000;0.3989;0.8504;
-80.7000;0.3989;0.8529;
-80.4000;0.3972;0.8479;
-80.1000;0.3964;0.8454;
-79.8000;0.4013;0.8504;
-79.5000;0.4005;0.8504;
-79.2000;0.4005;0.8479;
-78.9000;0.3989;0.8529;
-78.6000;0.4005;0.8504;
-78.3000;0.3997;0.8430;
-78.0000;0.3997;0.8430;
-77.7000;0.3972;0.8330;
-77.4000;0.3997;0.8479;
-77.1000;0.3980;0.8305;
-76.8000;0.3980;0.8330;
-76.5000;0.3980;0.8355;
-76.2000;0.3980;0.8380;
-75.9000;0.3980;0.8380;
-75.6000;0.3980;0.8380;
-75.3000;0.3964;0.8305;
-75.0000;0.3940;0.8106;
-74.7000;0.4029;0.8355;
-74.4000;0.3980;0.8280;
-74.1000;0.3980;0.8305;
-73.8000;0.3989;0.8355;
-73.5000;0.3972;0.8355;
-73.2000;0.3948;0.8305;
-72.9000;0.3972;0.8256;
-72.6000;0.3923;0.8206;
-72.3000;0.4005;0.8380;
-72.0000;0.3980;0.8305;
-71.7000;0.3980;0.8280;
-71.4000;0.3956;0.8305;
-71.1000;0.3980;0.8330;
-70.8000;0.3997;0.8355;
-70.5000;0.3989;0.8405;
-70.2000;0.3997;0.8355;
-69.9000;0.3989;0.8256;
-69.6000;0.3989;0.8256;
-69.3000;0.3980;0.8280;
-69.0000;0.3989;0.8256;
-68.7000;0.3956;0.8181;
-68.4000;0.3989;0.8280;
-68.1000;0.3980;0.8256;
-67.8000;0.3997;0.8305;
-67.5000;0.3997;0.8280;
-67.2000;0.4046;0.8405;
-66.9000;0.3997;0.8330;
-66.6000;0.3989;0.8280;
-66.3000;0.3997;0.8355;
-66.0000;0.3989;0.8355;
-65.7000;0.4005;0.8231;
-65.4000;0.3997;0.8156;
-65.1000;0.3980;0.8131;
-64.8000;0.4021;0.8231;
-64.5000;0.3997;0.8280;
-64.2000;0.4046;0.8430;
-63.9000;0.3980;0.8256;
-63.6000;0.3989;0.8380;
-63.3000;0.3989;0.8430;
-63.0000;0.3964;0.8355;
-62.7000;0.3932;0.8206;
-62.4000;0.3980;0.8280;
-62.1000;0.4062;0.8479;
-61.8000;0.3989;0.8156;
-61.5000;0.3972;0.8206;
-61.2000;0.3964;0.8181;
-60.9000;0.3980;0.8206;
-60.6000;0.3956;0.8131;
-60.3000;0.3972;0.8156;
-60.0000;0.3997;0.8231;
-59.7000;0.4005;0.8231;
-59.4000;0.3997;0.8181;
-59.1000;0.3980;0.8206;
-58.8000;0.3989;0.8181;
-58.5000;0.4005;0.8231;
-58.2000;0.3989;0.8231;
-57.9000;0.3989;0.8156;
-57.6000;0.3997;0.8206;
-57.3000;0.3997;0.8156;
-57.0000;0.3980;0.8231;
-56.7000;0.3980;0.8156;
-56.4000;0.3980;0.8156;
-56.1000;0.3980;0.8181;
-55.8000;0.4029;0.8280;
-55.5000;0.4029;0.8380;
-55.2000;0.3989;0.8231;
-54.9000;0.3980;0.8156;
-54.6000;0.4005;0.8181;
-54.3000;0.4013;0.8156;
-54.0000;0.3997;0.8181;
-53.7000;0.3948;0.8181;
-53.4000;0.3997;0.8330;
-53.1000;0.3989;0.8305;
-52.8000;0.3980;0.8280;
-52.5000;0.3980;0.8256;
-52.2000;0.4086;0.8479;
-51.9000;0.4021;0.8380;
-51.6000;0.3989;0.8280;
-51.3000;0.3997;0.8231;
-51.0000;0.4021;0.8231;
-50.7000;0.4029;0.8231;
-50.4000;0.3980;0.8081;
-50.1000;0.3989;0.8032;
-49.8000;0.4013;0.8106;
-49.5000;0.3972;0.8081;
-49.2000;0.4005;0.8106;
-48.9000;0.3907;0.7808;
-48.6000;0.3972;0.8081;
-48.3000;0.3989;0.8181;
-48.0000;0.3932;0.8131;
-47.7000;0.3948;0.8206;
-47.4000;0.3972;0.8256;
-47.1000;0.3972;0.8231;
-46.8000;0.3980;0.8280;
-46.5000;0.3980;0.8256;
-46.2000;0.3972;0.8280;
-45.9000;0.3980;0.8330;
-45.6000;0.3997;0.8405;
-45.3000;0.4013;0.8380;
-45.0000;0.4029;0.8479;
-44.7000;0.3989;0.8380;
-44.4000;0.3997;0.8355;
-44.1000;0.4013;0.8330;
-43.8000;0.3989;0.8256;
-43.5000;0.3989;0.8305;
-43.2000;0.3997;0.8280;
-42.9000;0.3989;0.8330;
-42.6000;0.3964;0.8256;
-42.3000;0.3989;0.8256;
-42.0000;0.4046;0.8380;
-41.7000;0.3997;0.8280;
-41.4000;0.3972;0.8280;
-41.1000;0.3948;0.8231;
-40.8000;0.3980;0.8355;
-40.5000;0.3980;0.8380;
-40.2000;0.3980;0.8380;
-39.9000;0.4005;0.8504;
-39.6000;0.3907;0.8280;
-39.3000;0.3997;0.8405;
-39.0000;0.3997;0.8330;
-38.7000;0.3997;0.8330;
-38.4000;0.4005;0.8380;
-38.1000;0.4005;0.8405;
-37.8000;0.3891;0.8131;
-37.5000;0.3997;0.8330;
-37.2000;0.3997;0.8231;
-36.9000;0.3980;0.8131;
-36.6000;0.4005;0.8256;
-36.3000;0.3980;0.8256;
-36.0000;0.3997;0.8256;
-35.7000;0.4029;0.8330;
-35.4000;0.4013;0.8405;
-35.1000;0.3989;0.8355;
-34.8000;0.3956;0.8181;
-34.5000;0.3980;0.8231;
-34.2000;0.4029;0.8280;
-33.9000;0.4046;0.8305;
-33.6000;0.3964;0.8156;
-33.3000;0.3997;0.8181;
-33.0000;0.4021;0.8231;
-32.7000;0.3980;0.8131;
-32.4000;0.4005;0.8231;
-32.1000;0.4005;0.8305;
-31.8000;0.3997;0.8206;
-31.5000;0.4054;0.8430;
-31.2000;0.4029;0.8330;
-30.9000;0.3989;0.8256;
-30.6000;0.3948;0.8256;
-30.3000;0.3989;0.8405;
-30.0000;0.3932;0.8305;
-29.7000;0.4005;0.8479;
-29.4000;0.3989;0.8454;
-29.1000;0.4021;0.8479;
-28.8000;0.3989;0.8380;
-28.5000;0.3980;0.8256;
-28.2000;0.3997;0.8231;
-27.9000;0.3997;0.8231;
-27.6000;0.3989;0.8231;
-27.3000;0.3964;0.8256;
-27.0000;0.3964;0.8305;
-26.7000;0.3923;0.8131;
-26.4000;0.3980;0.8231;
-26.1000;0.3997;0.8256;
-25.8000;0.3972;0.8256;
-25.5000;0.3997;0.8305;
-25.2000;0.3964;0.8231;
-24.9000;0.3989;0.8305;
-24.6000;0.4037;0.8380;
-24.3000;0.3980;0.8181;
-24.0000;0.3997;0.8280;
-23.7000;0.3972;0.8206;
-23.4000;0.3980;0.8256;
-23.1000;0.3989;0.8280;
-22.8000;0.3997;0.8256;
-22.5000;0.3980;0.8231;
-22.2000;0.4013;0.8330;
-21.9000;0.3972;0.8206;
-21.6000;0.4029;0.8280;
-21.3000;0.3980;0.8231;
-21.0000;0.3980;0.8256;
-20.7000;0.3972;0.8231;
-20.4000;0.3964;0.8206;
-20.1000;0.3997;0.8405;
-19.8000;0.3972;0.8330;
-19.5000;0.3989;0.8305;
-19.2000;0.3964;0.8280;
-18.9000;0.3948;0.8231;
-18.6000;0.3972;0.8305;
-18.3000;0.4029;0.8430;
-18.0000;0.3923;0.8106;
-17.7000;0.4013;0.8305;
-17.4000;0.4013;0.8305;
-17.1000;0.3980;0.8256;
-16.8000;0.4062;0.8479;
-16.5000;0.3989;0.8280;
-16.2000;0.3980;0.8106;
-15.9000;0.3964;0.8081;
-15.6000;0.3997;0.8181;
-15.3000;0.3980;0.8231;
-15.0000;0.3989;0.8206;
-14.7000;0.3932;0.8081;
-14.4000;0.3980;0.8181;
-14.1000;0.3980;0.8156;
-13.8000;0.3972;0.8057;
-13.5000;0.3980;0.8032;
-13.2000;0.3989;0.8106;
-12.9000;0.3997;0.8131;
-12.6000;0.4037;0.8206;
-12.3000;0.3980;0.8131;
-12.0000;0.3997;0.8181;
-11.7000;0.3980;0.8206;
-11.4000;0.4013;0.8231;
-11.1000;0.3997;0.8057;
-10.8000;0.3989;0.8181;
-10.5000;0.4013;0.8256;
-10.2000;0.3989;0.8231;
-9.9000;0.3972;0.8106;
-9.6000;0.4013;0.8305;
-9.3000;0.3899;0.7982;
-9.0000;0.4005;0.8206;
-8.7000;0.4021;0.8355;
-8.4000;0.3980;0.8330;
-8.1000;0.3989;0.8430;
-7.8000;0.3972;0.8405;
-7.5000;0.3989;0.8405;
-7.2000;0.3972;0.8405;
-6.9000;0.4005;0.8454;
-6.6000;0.4037;0.8579;
-6.3000;0.3980;0.8405;
-6.0000;0.3972;0.8355;
-5.7000;0.3964;0.8305;
-5.4000;0.3980;0.8380;
-5.1000;0.3997;0.8380;
-4.8000;0.3997;0.8355;
-4.5000;0.3997;0.8479;
-4.2000;0.3989;0.8405;
-3.9000;0.3980;0.8454;
-3.6000;0.3989;0.8454;
-3.3000;0.3980;0.8405;
-3.0000;0.3989;0.8479;
-2.7000;0.3956;0.8355;
-2.4000;0.3997;0.8380;
-2.1000;0.3989;0.8380;
-1.8000;0.3989;0.8305;
-1.5000;0.4005;0.8355;
-1.2000;0.3989;0.8330;
-0.9000;0.4005;0.8330;
-0.6000;0.3997;0.8330;
-0.3000;0.3980;0.8280;
0.0000;0.3980;0.8280;
0.3000;0.4054;0.8057;
0.6000;0.4143;0.8330;
0.9000;0.4184;0.8629;
1.2000;0.4257;0.8902;
1.5000;0.4274;0.8977;
1.8000;0.4355;0.9375;
2.1000;0.4330;0.9449;
2.4000;0.4355;0.9598;
2.7000;0.4404;0.9673;
3.0000;0.4404;0.9723;
3.3000;0.4404;0.9946;
3.6000;0.4355;0.9971;
3.9000;0.4420;1.0145;
4.2000;0.4420;1.0220;
4.5000;0.4412;1.0295;
4.8000;0.4428;1.0469;
5.1000;0.4420;1.0369;
5.4000;0.4444;1.0469;
5.7000;0.4396;1.0419;
6.0000;0.4510;1.0668;
6.3000;0.4444;1.0444;
6.6000;0.4510;1.0543;
6.9000;0.4461;1.0444;
7.2000;0.4453;1.0394;
7.5000;0.4453;1.0369;
7.8000;0.4461;1.0419;
8.1000;0.4453;1.0444;
8.4000;0.4469;1.0444;
8.7000;0.4485;1.0394;
9.0000;0.4453;1.0319;
9.3000;0.4493;1.0469;
9.6000;0.4485;1.0469;
9.9000;0.4485;1.0618;
10.2000;0.4591;1.0792;
10.5000;0.4501;1.0518;
10.8000;0.4493;1.0469;
11.1000;0.4493;1.0493;
11.4000;0.4518;1.0444;
11.7000;0.4518;1.0419;
12.0000;0.4518;1.0369;
12.3000;0.4526;1.0369;
12.6000;0.4518;1.0419;
12.9000;0.4518;1.0369;
13.2000;0.4526;1.0270;
13.5000;0.4510;1.0195;
13.8000;0.4485;1.0096;
14.1000;0.4550;1.0220;
14.4000;0.4510;1.0096;
14.7000;0.4583;1.0319;
15.0000;0.4550;1.0170;
15.3000;0.4558;1.0220;
15.6000;0.4542;1.0270;
15.9000;0.4501;1.0145;
16.2000;0.4558;1.0245;
16.5000;0.4526;1.0170;
16.8000;0.4558;1.0220;
17.1000;0.4534;1.0170;
17.4000;0.4550;1.0245;
17.7000;0.4534;1.0245;
18.0000;0.4558;1.0295;
18.3000;0.4591;1.0369;
18.6000;0.4550;1.0319;
18.9000;0.4550;1.0295;
19.2000;0.4558;1.0319;
19.5000;0.4591;1.0419;
19.8000;0.4567;1.0245;
20.1000;0.4567;1.0170;
20.4000;0.4567;1.0220;
20.7000;0.4558;1.0220;
21.0000;0.4567;1.0295;
21.3000;0.4567;1.0344;
21.6000;0.4591;1.0344;
21.9000;0.4591;1.0493;
22.2000;0.4575;1.0444;
22.5000;0.4575;1.0444;
22.8000;0.4583;1.0394;
23.1000;0.4575;1.0319;
23.4000;0.4583;1.0319;
23.7000;0.4575;1.0245;
24.0000;0.4583;1.0270;
24.3000;0.4599;1.0295;
24.6000;0.4542;1.0245;
24.9000;0.4615;1.0394;
25.2000;0.4599;1.0344;
25.5000;0.4607;1.0295;
25.8000;0.4599;1.0295;
26.1000;0.4607;1.0344;
26.4000;0.4591;1.0295;
26.7000;0.4615;1.0270;
27.0000;0.4615;1.0319;
27.3000;0.4607;1.0270;
27.6000;0.4591;1.0220;
27.9000;0.4591;1.0170;
28.2000;0.4615;1.0220;
28.5000;0.4599;1.0120;
28.8000;0.4599;1.0096;
29.1000;0.4591;1.0071;
29.4000;0.4615;1.0170;
29.7000;0.4615;1.0220;
30.0000;0.4607;1.0145;
30.3000;0.4599;1.0120;
30.6000;0.4632;1.0195;
30.9000;0.4607;1.0120;
31.2000;0.4591;1.0120;
31.5000;0.4591;1.0145;
31.8000;0.4607;1.0245;
32.1000;0.4607;1.0245;
32.4000;0.4607;1.0245;
32.7000;0.4599;1.0295;
33.0000;0.4615;1.0344;
33.3000;0.4705;1.0618;
33.6000;0.4607;1.0295;
33.9000;0.4615;1.0319;
34.2000;0.4615;1.0444;
34.5000;0.4632;1.0568;
34.8000;0.4591;1.0543;
35.1000;0.4697;1.0767;
35.4000;0.4607;1.0493;
35.7000;0.4656;1.0568;
36.0000;0.4624;1.0493;
36.3000;0.4624;1.0469;
36.6000;0.4632;1.0543;
36.9000;0.4624;1.0568;
37.2000;0.4615;1.0568;
37.5000;0.4599;1.0394;
37.8000;0.4632;1.0469;
38.1000;0.4656;1.0469;
38.4000;0.4615;1.0344;
38.7000;0.4640;1.0394;
39.0000;0.4615;1.0369;
39.3000;0.4615;1.0295;
39.6000;0.4632;1.0344;
39.9000;0.4558;1.0096;
40.2000;0.4615;1.0145;
40.5000;0.4632;1.0120;
40.8000;0.4607;1.0021;
41.1000;0.4624;1.0096;
41.4000;0.4624;1.0145;
41.7000;0.4607;1.0071;
42.0000;0.4656;1.0195;
42.3000;0.4640;1.0170;
42.6000;0.4615;1.0046;
42.9000;0.4632;1.0046;
43.2000;0.4632;1.0071;
43.5000;0.4632;1.0046;
43.8000;0.4632;1.0046;
44.1000;0.4624;0.9996;
44.4000;0.4615;1.0071;
44.7000;0.4624;1.0071;
45.0000;0.4632;1.0021;
45.3000;0.4656;1.0096;
45.6000;0.4624;0.9996;
45.9000;0.4615;0.9922;
46.2000;0.4591;0.9797;
46.5000;0.4632;0.9922;
46.8000;0.4640;0.9996;
47.1000;0.4648;0.9996;
47.4000;0.4632;1.0021;
47.7000;0.4640;1.0046;
48.0000;0.4640;0.9996;
48.3000;0.4648;1.0071;
48.6000;0.4615;1.0096;
48.9000;0.4640;1.0071;
49.2000;0.4615;0.9971;
49.5000;0.4640;1.0096;
49.8000;0.4640;1.0170;
50.1000;0.4640;1.0096;
50.4000;0.4640;1.0021;
50.7000;0.4681;1.0220;
51.0000;0.4624;1.0120;
51.3000;0.4624;1.0071;
51.6000;0.4656;1.0170;
51.9000;0.4632;1.0096;
52.2000;0.4583;0.9971;
52.5000;0.4640;1.0120;
52.8000;0.4615;1.0021;
53.1000;0.4624;0.9971;
53.4000;0.4697;1.0195;
53.7000;0.4729;1.0220;
54.0000;0.4624;1.0046;
54.3000;0.4632;1.0046;
54.6000;0.4542;0.9872;
54.9000;0.4648;1.0245;
55.2000;0.4632;1.0170;
55.5000;0.4640;1.0319;
55.8000;0.4648;1.0369;
56.1000;0.4607;1.0120;
56.4000;0.4640;1.0220;
56.7000;0.4640;1.0245;
57.0000;0.4632;1.0195;
57.3000;0.4656;1.0245;
57.6000;0.4648;1.0319;
57.9000;0.4591;1.0170;
58.2000;0.4591;1.0071;
58.5000;0.4640;1.0195;
58.8000;0.4640;1.0245;
59.1000;0.4664;1.0245;
59.4000;0.4681;1.0319;
59.7000;0.4640;1.0295;
60.0000;0.4656;1.0394;
60.3000;0.4615;1.0270;
60.6000;0.4632;1.0270;
60.9000;0.4656;1.0543;
61.2000;0.4632;1.0543;
61.5000;0.4664;1.0518;
61.8000;0.4705;1.0568;
62.1000;0.4656;1.0444;
62.4000;0.4656;1.0493;
62.7000;0.4648;1.0543;
63.0000;0.4656;1.0568;
63.3000;0.4648;1.0518;
63.6000;0.4615;1.0394;
63.9000;0.4648;1.0469;
64.2000;0.4640;1.0419;
64.5000;0.4656;1.0493;
64.8000;0.4648;1.0518;
65.1000;0.4648;1.0543;
65.4000;0.4624;1.0469;
65.7000;0.4697;1.0618;
66.0000;0.4648;1.0444;
66.3000;0.4632;1.0319;
66.6000;0.4648;1.0394;
66.9000;0.4632;1.0295;
67.2000;0.4640;1.0319;
67.5000;0.4648;1.0270;
67.8000;0.4648;1.0220;
68.1000;0.4648;1.0270;
68.4000;0.4640;1.0319;
68.7000;0.4664;1.0319;
69.0000;0.4648;1.0245;
69.3000;0.4672;1.0245;
69.6000;0.4656;1.0245;
69.9000;0.4648;1.0295;
70.2000;0.4689;1.0394;
70.5000;0.4664;1.0344;
70.8000;0.4648;1.0270;
71.1000;0.4664;1.0295;
71.4000;0.4656;1.0245;
71.7000;0.4656;1.0245;
72.0000;0.4681;1.0319;
72.3000;0.4648;1.0270;
72.6000;0.4705;1.0394;
72.9000;0.4615;1.0096;
73.2000;0.4664;1.0245;
73.5000;0.4664;1.0245;
73.8000;0.4664;1.0195;
74.1000;0.4648;1.0170;
74.4000;0.4648;1.0170;
74.7000;0.4656;1.0195;
75.0000;0.4705;1.0170;
75.3000;0.4664;1.0021;
75.6000;0.4681;1.0145;
75.9000;0.4737;1.0270;
76.2000;0.4664;1.0046;
76.5000;0.4664;1.0021;
76.8000;0.4664;0.9996;
77.1000;0.4664;1.0170;
77.4000;0.4656;1.0195;
77.7000;0.4664;1.0120;
78.0000;0.4705;1.0145;
78.3000;0.4656;1.0096;
78.6000;0.4640;1.0071;
78.9000;0.4648;1.0120;
79.2000;0.4656;1.0071;
79.5000;0.4664;1.0096;
79.8000;0.4656;1.0096;
80.1000;0.4672;1.0096;
80.4000;0.4672;1.0096;
80.7000;0.4672;1.0120;
81.0000;0.4656;1.0071;
81.3000;0.4672;1.0096;
81.6000;0.4705;1.0319;
81.9000;0.4664;1.0270;
82.2000;0.4640;1.0220;
82.5000;0.4672;1.0344;
82.8000;0.4664;1.0220;
83.1000;0.4664;1.0170;
83.4000;0.4648;1.0170;
83.7000;0.4656;1.0195;
84.0000;0.4672;1.0245;
84.3000;0.4681;1.0195;
84.6000;0.4689;1.0245;
84.9000;0.4664;1.0046;
85.2000;0.4705;1.0195;
85.5000;0.4656;1.0096;
85.8000;0.4664;1.0046;
86.1000;0.4664;0.9946;
86.4000;0.4672;0.9971;
86.7000;0.4672;0.9971;
87.0000;0.4672;1.0046;
87.3000;0.4672;1.0096;
87.6000;0.4648;1.0120;
87.9000;0.4697;1.0120;
88.2000;0.4672;1.0046;
88.5000;0.4656;1.0071;
88.8000;0.4672;1.0195;
89.1000;0.4672;1.0245;
89.4000;0.4656;1.0046;
89.7000;0.4672;1.0021;
90.0000;0.4648;0.9946;
90.3000;0.4664;1.0021;
90.6000;0.4672;1.0071;
90.9000;0.4672;1.0046;
91.2000;0.4664;0.9971;
91.5000;0.4689;0.9996;
91.8000;0.4681;0.9996;
92.1000;0.4664;0.9922;
92.4000;0.4672;0.9847;
92.7000;0.4681;0.9847;
93.0000;0.4632;0.9822;
93.3000;0.4664;0.9922;
93.6000;0.4681;0.9946;
93.9000;0.4689;1.0096;
94.2000;0.4681;1.0071;
94.5000;0.4681;1.0046;
94.8000;0.4664;1.0046;
95.1000;0.4664;1.0021;
95.4000;0.4664;1.0046;
95.7000;0.4689;1.0120;
96.0000;0.4697;1.0145;
96.3000;0.4681;1.0170;
96.6000;0.4697;1.0145;
96.9000;0.4713;1.0170;
97.2000;0.4664;1.0021;
97.5000;0.4689;1.0096;
97.8000;0.4681;1.0046;
98.1000;0.4672;1.0120;
98.4000;0.4689;1.0220;
98.7000;0.4656;1.0071;
99.0000;0.4697;1.0295;
99.3000;0.4713;1.0344;
99.6000;0.4664;1.0170;
99.9000;0.4729;1.0270;
100.2000;0.4689;1.0170;
100.5000;0.4713;1.0145;
100.8000;0.4737;1.0319;
101.1000;0.4681;1.0245;
101.4000;0.4664;1.0220;
101.7000;0.4689;1.0245;
102.0000;0.4697;1.0220;
102.3000;0.4656;1.0071;
102.6000;0.4672;1.0170;
102.9000;0.4672;1.0220;
103.2000;0.4672;1.0220;
103.5000;0.4664;1.0145;
103.8000;0.4672;1.0170;
104.1000;0.4681;1.0195;
104.4000;0.4681;1.0120;
104.7000;0.4689;1.0071;
105.0000;0.4672;0.9996;
105.3000;0.4664;0.9971;
105.6000;0.4697;1.0145;
105.9000;0.4664;1.0145;
106.2000;0.4672;1.0096;
106.5000;0.4681;1.0195;
106.8000;0.4770;1.0419;
107.1000;0.4689;1.0145;
107.4000;0.4689;1.0170;
107.7000;0.4681;1.0220;
108.0000;0.4672;1.0319;
108.3000;0.4689;1.0270;
108.6000;0.4689;1.0096;
108.9000;0.4729;1.0145;
109.2000;0.4697;1.0120;
109.5000;0.4681;1.0046;
109.8000;0.4689;0.9996;
110.1000;0.4705;1.0071;
110.4000;0.4681;0.9971;
110.7000;0.4697;0.9971;
111.0000;0.4689;0.9996;
111.3000;0.4672;0.9922;
111.6000;0.4681;0.9971;
111.9000;0.4689;1.0021;
112.2000;0.4656;0.9996;
112.5000;0.4721;1.0195;
112.8000;0.4672;1.0071;
113.1000;0.4656;0.9946;
113.4000;0.4689;1.0021;
113.7000;0.4681;0.9946;
114.0000;0.4803;1.0270;
114.3000;0.4705;0.9996;
114.6000;0.4681;1.0021;
114.9000;0.4689;1.0021;
115.2000;0.4705;0.9946;
115.5000;0.4648;0.9897;
115.8000;0.4705;1.0021;
116.1000;0.4656;0.9971;
116.4000;0.4672;1.0021;
116.7000;0.4689;1.0096;
117.0000;0.4697;1.0046;
117.3000;0.4689;1.0120;
117.6000;0.4681;1.0046;
117.9000;0.4689;0.9971;
118.2000;0.4689;0.9971;
118.5000;0.4681;0.9847;
118.8000;0.4672;0.9897;
119.1000;0.4681;0.9847;
119.4000;0.4672;0.9946;
119.7000;0.4689;1.0071;
120.0000;0.4697;1.0170;
120.3000;0.4689;1.0195;
120.6000;0.4705;1.0245;
120.9000;0.4705;1.0145;
121.2000;0.4705;1.0145;
121.5000;0.4705;1.0195;
121.8000;0.4713;1.0245;
122.1000;0.4689;1.0220;
122.4000;0.4697;1.0220;
122.7000;0.4697;1.0145;
123.0000;0.4656;1.0046;
123.3000;0.4656;1.0096;
123.6000;0.4681;1.0195;
123.9000;0.4697;1.0220;
124.2000;0.4681;1.0195;
124.5000;0.4689;1.0195;
124.8000;0.4689;1.0245;
125.1000;0.4664;1.0270;
125.4000;0.4713;1.0394;
125.7000;0.4705;1.0369;
126.0000;0.4689;1.0319;
126.3000;0.4697;1.0369;
126.6000;0.4705;1.0295;
126.9000;0.4721;1.0369;
127.2000;0.4681;1.0145;
127.5000;0.4689;1.0195;
127.8000;0.4681;1.0120;
128.1000;0.4689;1.0145;
128.4000;0.4681;1.0120;
128.7000;0.4681;1.0145;
129.0000;0.4656;0.9971;
129.3000;0.4672;1.0046;
129.6000;0.4672;1.0021;
129.9000;0.4713;1.0096;
130.2000;0.4689;1.0071;
130.5000;0.4689;1.0096;
130.8000;0.4754;1.0295;
131.1000;0.4697;1.0145;
131.4000;0.4697;1.0071;
131.7000;0.4729;1.0096;
132.0000;0.4705;1.0096;
132.3000;0.4721;1.0220;
132.6000;0.4689;1.0120;
132.9000;0.4689;1.0071;
133.2000;0.4697;1.0096;
133.5000;0.4681;1.0096;
133.8000;0.4672;1.0120;
134.1000;0.4697;1.0096;
134.4000;0.4689;1.0145;
134.7000;0.4672;1.0120;
135.0000;0.4697;1.0071;
135.3000;0.4705;1.0145;
135.6000;0.4681;1.0071;
135.9000;0.4729;1.0170;
136.2000;0.4713;1.0096;
136.5000;0.4729;1.0120;
136.8000;0.4672;0.9996;
137.1000;0.4697;1.0071;
137.4000;0.4664;0.9847;
137.7000;0.4689;0.9922;
138.0000;0.4705;0.9946;
138.3000;0.4705;0.9847;
138.6000;0.4689;0.9797;
138.9000;0.4762;0.9872;
139.2000;0.4632;0.9598;
139.5000;0.4697;0.9872;
139.8000;0.4697;0.9872;
140.1000;0.4697;0.9872;
140.4000;0.4705;0.9971;
140.7000;0.4705;0.9996;
141.0000;0.4697;1.0021;
141.3000;0.4762;1.0220;
141.6000;0.4697;1.0021;
141.9000;0.4689;0.9922;
142.2000;0.4664;0.9872;
142.5000;0.4697;1.0046;
142.8000;0.4689;1.0145;
143.1000;0.4697;1.0145;
143.4000;0.4705;1.0170;
143.7000;0.4681;1.0145;
144.0000;0.4705;1.0220;
144.3000;0.4721;1.0270;
144.6000;0.4697;1.0220;
144.9000;0.4705;1.0195;
145.2000;0.4689;1.0195;
145.5000;0.4689;1.0319;
145.8000;0.4681;1.0344;
146.1000;0.4713;1.0394;
146.4000;0.4713;1.0394;
146.7000;0.4697;1.0319;
147.0000;0.4689;1.0295;
147.3000;0.4770;1.0518;
147.6000;0.4713;1.0270;
147.9000;0.4697;1.0195;
148.2000;0.4697;1.0170;
148.5000;0.4697;1.0220;
148.8000;0.4705;1.0270;
149.1000;0.4778;1.0419;
149.4000;0.4697;1.0195;
149.7000;0.4697;1.0270;
150.0000;0.4713;1.0270;
150.3000;0.4705;1.0270;
150.6000;0.4697;1.0220;
150.9000;0.4721;1.0220;
151.2000;0.4689;1.0220;
151.5000;0.4697;1.0270;
151.8000;0.4664;1.0096;
152.1000;0.4689;1.0120;
152.4000;0.4689;1.0096;
152.7000;0.4737;1.0170;
153.0000;0.4697;0.9946;
153.3000;0.4705;1.0021;
153.6000;0.4705;1.0046;
153.9000;0.4713;1.0071;
154.2000;0.4705;1.0046;
154.5000;0.4713;1.0071;
154.8000;0.4664;0.9971;
155.1000;0.4705;1.0096;
155.4000;0.4697;1.0096;
155.7000;0.4713;1.0120;
156.0000;0.4689;1.0096;
156.3000;0.4721;1.0220;
156.6000;0.4705;1.0145;
156.9000;0.4672;1.0046;
157.2000;0.4689;1.0021;
157.5000;0.4705;1.0096;
157.8000;0.4640;0.9946;
158.1000;0.4697;1.0145;
158.4000;0.4672;1.0120;
158.7000;0.4681;1.0120;
159.0000;0.4697;1.0195;
159.3000;0.4729;1.0270;
159.6000;0.4689;1.0220;
159.9000;0.4754;1.0295;
160.2000;0.4770;1.0319;
160.5000;0.4705;1.0120;
160.8000;0.4656;0.9996;
161.1000;0.4681;1.0096;
161.4000;0.4697;1.0096;
161.7000;0.4697;1.0096;
162.0000;0.4737;1.0170;
162.3000;0.4672;0.9946;
162.6000;0.4681;0.9872;
162.9000;0.4689;0.9996;
163.2000;0.4689;0.9922;
163.5000;0.4681;0.9897;
163.8000;0.4689;0.9996;
164.1000;0.4689;0.9971;
164.4000;0.4681;0.9922;
164.7000;0.4689;0.9946;
165.0000;0.4689;0.9922;
165.3000;0.4689;1.0021;
165.6000;0.4681;0.9971;
165.9000;0.4697;1.0021;
166.2000;0.4705;1.0096;
166.5000;0.4697;1.0145;
166.8000;0.4705;1.0071;
167.1000;0.4672;1.0021;
167.4000;0.4705;1.0021;
167.7000;0.4729;1.0046;
168.0000;0.4689;0.9996;
168.3000;0.4721;1.0096;
168.6000;0.4705;1.0096;
168.9000;0.4697;1.0046;
169.2000;0.4697;1.0046;
169.5000;0.4697;1.0071;
169.8000;0.4697;1.0071;
170.1000;0.4705;1.0120;
170.4000;0.4705;1.0170;
170.7000;0.4697;1.0220;
171.0000;0.4689;1.0145;
171.3000;0.4705;1.0046;
171.6000;0.4705;1.0046;
171.9000;0.4689;0.9996;
172.2000;0.4697;0.9971;
172.5000;0.4689;1.0021;
172.8000;0.4697;1.0021;
173.1000;0.4721;1.0071;
173.4000;0.4705;1.0071;
173.7000;0.4689;1.0145;
174.0000;0.4697;1.0295;
174.3000;0.4705;1.0220;
174.6000;0.4697;1.0145;
174.9000;0.4664;1.0071;
175.2000;0.4721;1.0220;
175.5000;0.4689;1.0170;
175.8000;0.4713;1.0245;
176.1000;0.4664;1.0145;
176.4000;0.4689;1.0170;
176.7000;0.4697;1.0220;
177.0000;0.4705;1.0270;
177.3000;0.4721;1.0120;
177.6000;0.4762;1.0270;
177.9000;0.4705;1.0046;
178.2000;0.4713;1.0046;
178.5000;0.4762;1.0195;
178.8000;0.4697;1.0071;
179.1000;0.4632;0.9872;
179.4000;0.4697;1.0145;
179.7000;0.4672;0.9996;
180.0000;0.4689;1.0120;
180.3000;0.4689;1.0120;
180.6000;0.4697;1.0195;
180.9000;0.4705;1.0295;
181.2000;0.4705;1.0220;
181.5000;0.4705;1.0220;
181.8000;0.4713;1.0220;
182.1000;0.4697;1.0145;
182.4000;0.4705;1.0071;
182.7000;0.4705;1.0096;
183.0000;0.4737;1.0096;
183.3000;0.4689;0.9971;
183.6000;0.4705;1.0046;
183.9000;0.4681;0.9971;
184.2000;0.4681;1.0046;
184.5000;0.4697;1.0245;
184.8000;0.4689;1.0295;
185.1000;0.4664;1.0344;
185.4000;0.4681;1.0419;
185.7000;0.4713;1.0469;
186.0000;0.4713;1.0444;
186.3000;0.4705;1.0195;
186.6000;0.4697;1.0195;
186.9000;0.4705;1.0220;
187.2000;0.4713;1.0220;
187.5000;0.4729;1.0245;
187.8000;0.4721;1.0295;
188.1000;0.4705;1.0270;
188.4000;0.4697;1.0319;
188.7000;0.4689;1.0270;
189.0000;0.4697;1.0245;
189.3000;0.4705;1.0245;
189.6000;0.4672;1.0046;
189.9000;0.4705;1.0096;
190.2000;0.4729;1.0170;
190.5000;0.4697;1.0096;
190.8000;0.4713;1.0220;
191.1000;0.4721;1.0270;
191.4000;0.4713;1.0270;
191.7000;0.4681;1.0195;
192.0000;0.4721;1.0245;
192.3000;0.4689;1.0170;
192.6000;0.4705;1.0145;
192.9000;0.4713;1.0145;
193.2000;0.4697;1.0145;
193.5000;0.4697;1.0195;
193.8000;0.4681;1.0220;
194.1000;0.4681;1.0220;
194.4000;0.4697;1.0245;
194.7000;0.4705;1.0270;
195.0000;0.4689;1.0145;
195.3000;0.4721;1.0245;
195.6000;0.4681;1.0170;
195.9000;0.4705;1.0170;
196.2000;0.4697;1.0220;
196.5000;0.4697;1.0245;
196.8000;0.4689;1.0270;
197.1000;0.4697;1.0295;
197.4000;0.4697;1.0319;
197.7000;0.4681;1.0295;
198.0000;0.4713;1.0369;
198.3000;0.4689;1.0369;
198.6000;0.4681;1.0295;
198.9000;0.4664;1.0270;
199.2000;0.4689;1.0195;
199.5000;0.4697;1.0220;
199.8000;0.4689;1.0220;
200.1000;0.4721;1.0220;
200.4000;0.4697;1.0145;
200.7000;0.4689;1.0096;
201.0000;0.4705;1.0245;
201.3000;0.4697;1.0220;
201.6000;0.4672;1.0145;
201.9000;0.4681;1.0170;
202.2000;0.4697;1.0245;
202.5000;0.4689;1.0245;
202.8000;0.4713;1.0195;
203.1000;0.4648;0.9971;
203.4000;0.4681;1.0071;
203.7000;0.4632;1.0021;
204.0000;0.4672;1.0096;
204.3000;0.4681;1.0120;
204.6000;0.4705;1.0195;
204.9000;0.4762;1.0394;
205.2000;0.4697;1.0220;
205.5000;0.4648;1.0120;
205.8000;0.4713;1.0245;
206.1000;0.4697;1.0195;
206.4000;0.4640;0.9922;
206.7000;0.4697;1.0170;
207.0000;0.4803;1.0493;
207.3000;0.4713;1.0319;
207.6000;0.4705;1.0245;
207.9000;0.4713;1.0270;
208.2000;0.4746;1.0394;
208.5000;0.4705;1.0394;
208.8000;0.4697;1.0220;
209.1000;0.4697;1.0270;
209.4000;0.4697;1.0295;
209.7000;0.4689;1.0369;
210.0000;0.4713;1.0444;
210.3000;0.4705;1.0419;
210.6000;0.4681;1.0295;
210.9000;0.4705;1.0394;
211.2000;0.4689;1.0444;
211.5000;0.4697;1.0394;
211.8000;0.4681;1.0295;
212.1000;0.4697;1.0319;
212.4000;0.4705;1.0369;
212.7000;0.4697;1.0344;
213.0000;0.4689;1.0295;
213.3000;0.4689;1.0295;
213.6000;0.4713;1.0369;
213.9000;0.4697;1.0245;
214.2000;0.4754;1.0419;
214.5000;0.4681;1.0270;
214.8000;0.4697;1.0220;
215.1000;0.4713;1.0270;
215.4000;0.4681;1.0170;
215.7000;0.4681;1.0046;
216.0000;0.4697;1.0071;
216.3000;0.4697;1.0046;
216.6000;0.4681;1.0071;
216.9000;0.4713;1.0145;
217.2000;0.4681;1.0170;
217.5000;0.4689;1.0195;
217.8000;0.4681;1.0220;
218.1000;0.4672;1.0195;
218.4000;0.4681;1.0245;
218.7000;0.4681;1.0220;
219.0000;0.4664;1.0245;
219.3000;0.4672;1.0245;
219.6000;0.4681;1.0295;
219.9000;0.4681;1.0319;
220.2000;0.4689;1.0319;
220.5000;0.4681;1.0245;
220.8000;0.4672;1.0270;
221.1000;0.4689;1.0295;
221.4000;0.4705;1.0295;
221.7000;0.4689;1.0295;
222.0000;0.4681;1.0270;
222.3000;0.4697;1.0369;
222.6000;0.4697;1.0369;
222.9000;0.4697;1.0444;
223.2000;0.4664;1.0394;
223.5000;0.4681;1.0419;
223.8000;0.4689;1.0518;
224.1000;0.4681;1.0444;
224.4000;0.4672;1.0394;
224.7000;0.4648;1.0245;
225.0000;0.4681;1.0270;
225.3000;0.4689;1.0295;
225.6000;0.4689;1.0295;
225.9000;0.4705;1.0295;
226.2000;0.4689;1.0170;
226.5000;0.4713;1.0245;
226.8000;0.4689;1.0220;
227.1000;0.4713;1.0195;
227.4000;0.4721;1.0245;
227.7000;0.4672;1.0096;
228.0000;0.4689;1.0120;
228.3000;0.4656;0.9996;
228.6000;0.4672;1.0071;
228.9000;0.4615;0.9922;
229.2000;0.4681;1.0145;
229.5000;0.4721;1.0295;
229.8000;0.4672;1.0245;
230.1000;0.4672;1.0270;
230.4000;0.4656;1.0195;
230.7000;0.4672;1.0220;
231.0000;0.4697;1.0195;
231.3000;0.4705;1.0195;
231.6000;0.4705;1.0220;
231.9000;0.4656;1.0220;
232.2000;0.4664;1.0220;
232.5000;0.4648;1.0145;
232.8000;0.4705;1.0220;
233.1000;0.4689;1.0170;
233.4000;0.4705;1.0170;
233.7000;0.4664;1.0021;
234.0000;0.4681;1.0046;
234.3000;0.4681;1.0021;
234.6000;0.4705;1.0145;
234.9000;0.4664;1.0071;
235.2000;0.4681;1.0071;
235.5000;0.4697;1.0120;
235.8000;0.4640;0.9946;
236.1000;0.4689;1.0071;
236.4000;0.4689;1.0071;
236.7000;0.4697;1.0096;
237.0000;0.4672;0.9971;
237.3000;0.4689;0.9971;
237.6000;0.4672;0.9946;
237.9000;0.4689;0.9996;
238.2000;0.4705;1.0120;
238.5000;0.4697;1.0145;
238.8000;0.4681;1.0170;
239.1000;0.4697;1.0220;
239.4000;0.4705;1.0295;
239.7000;0.4689;1.0344;
240.0000;0.4697;1.0245;
240.3000;0.4689;1.0245;
240.6000;0.4697;1.0270;
240.9000;0.4689;1.0344;
241.2000;0.4656;1.0270;
241.5000;0.4697;1.0369;
241.8000;0.4681;1.0344;
242.1000;0.4664;1.0270;
242.4000;0.4697;1.0369;
242.7000;0.4689;1.0394;
243.0000;0.4697;1.0394;
243.3000;0.4681;1.0369;
243.6000;0.4672;1.0295;
243.9000;0.4681;1.0270;
244.2000;0.4770;1.0518;
244.5000;0.4689;1.0344;
244.8000;0.4689;1.0369;
245.1000;0.4681;1.0270;
245.4000;0.4713;1.0369;
245.7000;0.4672;1.0270;
246.0000;0.4664;1.0295;
246.3000;0.4697;1.0319;
246.6000;0.4672;1.0270;
246.9000;0.4729;1.0369;
247.2000;0.4656;1.0096;
247.5000;0.4624;0.9897;
247.8000;0.4681;1.0046;
248.1000;0.4689;1.0046;
248.4000;0.4664;0.9971;
248.7000;0.4664;0.9971;
249.0000;0.4648;1.0021;
249.3000;0.4778;1.0369;
249.6000;0.4664;1.0071;
249.9000;0.4681;1.0145;
250.2000;0.4705;1.0319;
250.5000;0.4689;1.0295;
250.8000;0.4697;1.0245;
251.1000;0.4721;1.0220;
251.4000;0.4664;1.0170;
251.7000;0.4697;1.0270;
252.0000;0.4697;1.0319;
252.3000;0.4786;1.0518;
252.6000;0.4681;1.0195;
252.9000;0.4697;1.0245;
253.2000;0.4681;1.0195;
253.5000;0.4672;1.0145;
253.8000;0.4672;1.0145;
254.1000;0.4648;0.9946;
254.4000;0.4729;1.0270;
254.7000;0.4697;1.0220;
255.0000;0.4729;1.0419;
255.3000;0.4664;1.0270;
255.6000;0.4689;1.0270;
255.9000;0.4664;1.0120;
256.2000;0.4697;1.0245;
256.5000;0.4689;1.0245;
256.8000;0.4689;1.0295;
257.1000;0.4656;1.0145;
257.4000;0.4681;1.0245;
257.7000;0.4656;1.0145;
258.0000;0.4656;1.0120;
258.3000;0.4681;1.0120;
258.6000;0.4664;1.0145;
258.9000;0.4672;1.0145;
259.2000;0.4664;1.0220;
259.5000;0.4664;1.0145;
259.8000;0.4640;1.0046;
260.1000;0.4672;1.0145;
260.4000;0.4681;1.0170;
260.7000;0.4713;1.0220;
261.0000;0.4672;1.0220;
261.3000;0.4664;1.0195;
261.6000;0.4729;1.0270;
261.9000;0.4672;1.0220;
262.2000;0.4648;1.0120;
262.5000;0.4697;1.0220;
262.8000;0.4681;1.0120;
263.1000;0.4689;1.0245;
263.4000;0.4697;1.0220;
263.7000;0.4681;1.0170;
264.0000;0.4681;1.0170;
264.3000;0.4656;1.0170;
264.6000;0.4681;1.0195;
264.9000;0.4681;1.0170;
265.2000;0.4713;1.0270;
265.5000;0.4664;1.0120;
265.8000;0.4689;1.0195;
266.1000;0.4664;1.0145;
266.4000;0.4672;1.0145;
266.7000;0.4681;1.0145;
267.0000;0.4672;1.0145;
267.3000;0.4672;1.0170;
267.6000;0.4729;1.0295;
267.9000;0.4632;0.9971;
268.2000;0.4762;1.0245;
268.5000;0.4697;1.0195;
268.8000;0.4664;1.0145;
269.1000;0.4689;1.0145;
269.4000;0.4672;1.0021;
269.7000;0.4681;0.9996;
270.0000;0.4681;1.0120;
270.3000;0.4640;1.0021;
270.6000;0.4664;1.0046;
270.9000;0.4664;1.0145;
271.2000;0.4713;1.0270;
271.5000;0.4664;1.0220;
271.8000;0.4672;1.0245;
272.1000;0.4672;1.0245;
272.4000;0.4672;1.0270;
272.7000;0.4681;1.0145;
273.0000;0.4672;1.0021;
273.3000;0.4681;1.0096;
273.6000;0.4664;1.0021;
273.9000;0.4664;0.9996;
274.2000;0.4656;0.9971;
274.5000;0.4689;1.0120;
274.8000;0.4681;1.0170;
275.1000;0.4672;1.0096;
275.4000;0.4672;1.0120;
275.7000;0.4681;1.0071;
276.0000;0.4672;1.0120;
276.3000;0.4689;1.0120;
276.6000;0.4672;1.0120;
276.9000;0.4648;1.0096;
277.2000;0.4664;1.0120;
277.5000;0.4689;1.0195;
277.8000;0.4681;1.0195;
278.1000;0.4664;1.0170;
278.4000;0.4664;1.0170;
278.7000;0.4681;1.0220;
279.0000;0.4754;1.0344;
279.3000;0.4583;0.9946;
279.6000;0.4672;1.0295;
279.9000;0.4664;1.0369;
280.2000;0.4664;1.0245;
280.5000;0.4656;1.0220;
280.8000;0.4681;1.0220;
281.1000;0.4681;1.0220;
281.4000;0.4672;1.0220;
281.7000;0.4664;1.0195;
282.0000;0.4681;1.0195;
282.3000;0.4681;1.0245;
282.6000;0.4672;1.0319;
282.9000;0.4672;1.0220;
283.2000;0.4681;1.0220;
283.5000;0.4713;1.0270;
283.8000;0.4656;1.0096;
284.1000;0.4689;1.0170;
284.4000;0.4656;1.0096;
284.7000;0.4664;1.0120;
285.0000;0.4681;1.0120;
285.3000;0.4648;1.0170;
285.6000;0.4664;1.0145;
285.9000;0.4664;1.0145;
286.2000;0.4681;1.0220;
286.5000;0.4672;1.0170;
286.8000;0.4681;1.0220;
287.1000;0.4713;1.0319;
287.4000;0.4664;1.0220;
287.7000;0.4689;1.0344;
288.0000;0.4664;1.0270;
288.3000;0.4681;1.0369;
288.6000;0.4681;1.0493;
288.9000;0.4681;1.0394;
289.2000;0.4648;1.0295;
289.5000;0.4664;1.0319;
289.8000;0.4681;1.0369;
290.1000;0.4640;1.0245;
290.4000;0.4664;1.0245;
290.7000;0.4656;1.0145;
291.0000;0.4672;1.0145;
291.3000;0.4672;1.0145;
291.6000;0.4664;1.0245;
291.9000;0.4664;1.0270;
292.2000;0.4656;1.0270;
292.5000;0.4632;1.0170;
292.8000;0.4672;1.0220;
293.1000;0.4607;1.0096;
293.4000;0.4656;1.0245;
293.7000;0.4681;1.0369;
294.0000;0.4672;1.0245;
294.3000;0.4575;0.9922;
294.6000;0.4762;1.0419;
294.9000;0.4672;1.0245;
295.2000;0.4664;1.0220;
295.5000;0.4672;1.0245;
295.8000;0.4672;1.0295;
296.1000;0.4664;1.0295;
296.4000;0.4672;1.0369;
296.7000;0.4721;1.0518;
297.0000;0.4681;1.0394;
297.3000;0.4664;1.0394;
297.6000;0.4681;1.0344;
297.9000;0.4664;1.0369;
298.2000;0.4640;1.0394;
298.5000;0.4664;1.0419;
298.8000;0.4721;1.0369;
299.1000;0.4624;1.0096;
299.4000;0.4640;1.0120;
299.7000;0.4656;1.0295;
300.0000;0.4664;1.0369;
300.3000;0.4656;1.0220;
300.6000;0.4648;1.0220;
300.9000;0.4656;1.0145;
301.2000;0.4664;1.0096;
301.5000;0.4624;1.0046;
301.8000;0.4648;1.0195;
302.1000;0.4672;1.0295;
302.4000;0.4672;1.0369;
302.7000;0.4672;1.0419;
303.0000;0.4632;1.0369;
303.3000;0.4656;1.0419;
303.6000;0.4648;1.0344;
303.9000;0.4681;1.0369;
304.2000;0.4648;1.0245;
304.5000;0.4664;1.0220;
304.8000;0.4656;1.0270;
305.1000;0.4672;1.0170;
305.4000;0.4664;1.0120;
305.7000;0.4656;1.0145;
306.0000;0.4656;1.0170;
306.3000;0.4672;1.0195;
306.6000;0.4664;1.0195;
306.9000;0.4656;1.0120;
307.2000;0.4648;1.0096;
307.5000;0.4648;1.0170;
307.8000;0.4664;1.0195;
308.1000;0.4664;1.0220;
308.4000;0.4656;1.0220;
308.7000;0.4721;1.0394;
309.0000;0.4672;1.0369;
309.3000;0.4664;1.0270;
309.6000;0.4656;1.0245;
309.9000;0.4664;1.0270;
310.2000;0.4656;1.0220;
310.5000;0.4664;1.0145;
310.8000;0.4664;1.0145;
311.1000;0.4664;1.0071;
311.4000;0.4656;1.0096;
311.7000;0.4664;1.0046;
312.0000;0.4664;1.0021;
312.3000;0.4656;0.9996;
312.6000;0.4672;0.9996;
312.9000;0.4648;0.9946;
313.2000;0.4632;0.9971;
313.5000;0.4656;1.0021;
313.8000;0.4656;0.9897;
314.1000;0.4672;0.9996;
314.4000;0.4648;0.9971;
314.7000;0.4664;0.9996;
315.0000;0.4656;0.9971;
315.3000;0.4664;1.0071;
315.6000;0.4729;1.0220;
315.9000;0.4648;1.0071;
316.2000;0.4648;1.0120;
316.5000;0.4689;1.0220;
316.8000;0.4664;1.0145;
317.1000;0.4648;1.0120;
317.4000;0.4583;0.9946;
317.7000;0.4648;1.0096;
318.0000;0.4697;1.0170;
318.3000;0.4599;0.9971;
318.6000;0.4648;1.0071;
318.9000;0.4656;1.0046;
319.2000;0.4697;1.0170;
319.5000;0.4640;1.0071;
319.8000;0.4705;1.0195;
320.1000;0.4648;1.0096;
320.4000;0.4656;1.0096;
320.7000;0.4689;1.0270;
321.0000;0.4640;1.0170;
321.3000;0.4640;1.0145;
321.6000;0.4672;1.0096;
321.9000;0.4664;1.0096;
322.2000;0.4656;1.0021;
322.5000;0.4607;0.9897;
322.8000;0.4746;1.0270;
323.1000;0.4689;1.0071;
323.4000;0.4664;1.0046;
323.7000;0.4648;1.0046;
324.0000;0.4615;0.9872;
324.3000;0.4591;0.9872;
324.6000;0.4656;1.0120;
324.9000;0.4648;1.0170;
325.2000;0.4664;1.0195;
325.5000;0.4672;1.0145;
325.8000;0.4656;1.0046;
326.1000;0.4664;1.0071;
326.4000;0.4656;1.0096;
326.7000;0.4656;1.0170;
327.0000;0.4729;1.0295;
327.3000;0.4697;1.0170;
327.6000;0.4664;1.0096;
327.9000;0.4721;1.0270;
328.2000;0.4640;1.0145;
328.5000;0.4648;1.0170;
328.8000;0.4672;1.0170;
329.1000;0.4664;1.0120;
329.4000;0.4681;1.0096;
329.7000;0.4664;1.0021;
330.0000;0.4656;1.0021;
330.3000;0.4640;1.0021;
330.6000;0.4648;1.0021;
330.9000;0.4664;1.0096;
331.2000;0.4656;0.9996;
331.5000;0.4689;1.0021;
331.8000;0.4664;0.9922;
332.1000;0.4664;0.9971;
332.4000;0.4656;1.0046;
332.7000;0.4656;1.0071;
333.0000;0.4672;0.9996;
333.3000;0.4664;0.9897;
333.6000;0.4664;0.9847;
333.9000;0.4681;0.9897;
334.2000;0.4664;0.9922;
334.5000;0.4672;1.0021;
334.8000;0.4681;1.0046;
335.1000;0.4705;1.0120;
335.4000;0.4672;0.9946;
335.7000;0.4664;0.9897;
336.0000;0.4648;0.9971;
336.3000;0.4648;0.9971;
336.6000;0.4664;1.0021;
336.9000;0.4672;1.0120;
337.2000;0.4648;1.0046;
337.5000;0.4648;1.0071;
337.8000;0.4656;1.0096;
338.1000;0.4713;1.0220;
338.4000;0.4721;1.0170;
338.7000;0.4648;1.0071;
339.0000;0.4648;1.0046;
339.3000;0.4664;1.0046;
339.6000;0.4705;1.0220;
339.9000;0.4648;1.0071;
340.2000;0.4648;1.0071;
340.5000;0.4615;1.0046;
340.8000;0.4664;1.0270;
341.1000;0.4656;1.0270;
341.4000;0.4615;1.0170;
341.7000;0.4672;1.0319;
342.0000;0.4656;1.0295;
342.3000;0.4664;1.0245;
342.6000;0.4640;1.0220;
342.9000;0.4672;1.0270;
343.2000;0.4754;1.0344;
343.5000;0.4664;1.0145;
343.8000;0.4681;1.0245;
344.1000;0.4656;1.0170;
344.4000;0.4672;1.0220;
344.7000;0.4664;1.0319;
345.0000;0.4591;1.0145;
345.3000;0.4672;1.0295;
345.6000;0.4656;1.0295;
345.9000;0.4664;1.0369;
346.2000;0.4664;1.0270;
346.5000;0.4689;1.0245;
346.8000;0.4672;1.0096;
347.1000;0.4664;1.0145;
347.4000;0.4672;1.0170;
347.7000;0.4648;1.0145;
348.0000;0.4624;1.0120;
348.3000;0.4640;1.0245;
348.6000;0.4648;1.0170;
348.9000;0.4656;1.0170;
349.2000;0.4583;1.0046;
349.5000;0.4656;1.0270;
349.8000;0.4656;1.0195;
350.1000;0.4640;1.0170;
350.4000;0.4632;1.0120;
350.7000;0.4648;1.0170;
351.0000;0.4640;1.0120;
351.3000;0.4648;1.0120;
351.6000;0.4648;1.0220;
351.9000;0.4640;1.0120;
352.2000;0.4656;1.0220;
352.5000;0.4664;1.0295;
352.8000;0.4648;1.0245;
353.1000;0.4656;1.0220;
353.4000;0.4656;1.0120;
353.7000;0.4664;1.0096;
354.0000;0.4648;1.0096;
354.3000;0.4656;1.0170;
354.6000;0.4672;1.0170;
354.9000;0.4664;1.0096;
355.2000;0.4664;1.0046;
355.5000;0.4664;1.0120;
355.8000;0.4664;1.0245;
356.1000;0.4656;1.0295;
356.4000;0.4656;1.0295;
356.7000;0.4664;1.0319;
357.0000;0.4681;1.0419;
357.3000;0.4681;1.0518;
357.6000;0.4664;1.0493;
357.9000;0.4656;1.0469;
358.2000;0.4648;1.0419;
358.5000;0.4648;1.0593;
358.8000;0.4689;1.0668;
359.1000;0.4648;1.0543;
359.4000;0.4615;1.0344;
359.7000;0.4648;1.0394;
360.0000;0.4672;1.0469;
360.3000;0.4664;1.0493;
360.6000;0.4656;1.0419;
360.9000;0.4640;1.0394;
361.2000;0.4656;1.0344;
361.5000;0.4664;1.0344;
361.8000;0.4648;1.0295;
362.1000;0.4648;1.0170;
362.4000;0.4721;1.0344;
362.7000;0.4681;1.0419;
363.0000;0.4656;1.0295;
363.3000;0.4648;1.0245;
363.6000;0.4656;1.0295;
363.9000;0.4664;1.0344;
364.2000;0.4624;1.0270;
364.5000;0.4615;1.0295;
364.8000;0.4615;1.0369;
365.1000;0.4656;1.0518;
365.4000;0.4697;1.0668;
365.7000;0.4705;1.0668;
366.0000;0.4664;1.0518;
366.3000;0.4648;1.0444;
366.6000;0.4656;1.0444;
366.9000;0.4672;1.0444;
367.2000;0.4648;1.0344;
367.5000;0.4681;1.0394;
367.8000;0.4672;1.0344;
368.1000;0.4599;1.0195;
368.4000;0.4656;1.0369;
368.7000;0.4656;1.0394;
369.0000;0.4664;1.0394;
369.3000;0.4656;1.0369;
369.6000;0.4648;1.0369;
369.9000;0.4721;1.0469;
370.2000;0.4672;1.0270;
370.5000;0.4648;1.0270;
370.8000;0.4648;1.0295;
371.1000;0.4648;1.0270;
371.4000;0.4648;1.0220;
371.7000;0.4656;1.0369;
372.0000;0.4664;1.0295;
372.3000;0.4656;1.0493;
372.6000;0.4681;1.0493;
372.9000;0.4648;1.0419;
373.2000;0.4640;1.0394;
373.5000;0.4656;1.0444;
373.8000;0.4640;1.0394;
374.1000;0.4664;1.0444;
374.4000;0.4648;1.0319;
374.7000;0.4640;1.0344;
375.0000;0.4640;1.0295;
375.3000;0.4648;1.0319;
375.6000;0.4648;1.0245;
375.9000;0.4632;1.0120;
376.2000;0.4689;1.0245;
376.5000;0.4648;1.0220;
376.8000;0.4624;1.0145;
377.1000;0.4648;1.0220;
377.4000;0.4656;1.0170;
377.7000;0.4607;0.9996;
378.0000;0.4656;1.0145;
378.3000;0.4648;1.0071;
378.6000;0.4640;1.0120;
378.9000;0.4664;1.0071;
379.2000;0.4648;1.0021;
379.5000;0.4648;1.0120;
379.8000;0.4681;1.0245;
380.1000;0.4656;1.0170;
380.4000;0.4672;1.0245;
380.7000;0.4607;1.0120;
381.0000;0.4656;1.0319;
381.3000;0.4664;1.0369;
381.6000;0.4656;1.0295;
381.9000;0.4672;1.0245;
382.2000;0.4583;1.0170;
382.5000;0.4648;1.0419;
382.8000;0.4656;1.0493;
383.1000;0.4624;1.0369;
383.4000;0.4648;1.0344;
383.7000;0.4664;1.0319;
384.0000;0.4640;1.0170;
384.3000;0.4697;1.0319;
384.6000;0.4648;1.0295;
384.9000;0.4656;1.0245;
385.2000;0.4648;1.0220;
385.5000;0.4648;1.0344;
385.8000;0.4648;1.0344;
386.1000;0.4664;1.0394;
386.4000;0.4624;1.0369;
386.7000;0.4648;1.0444;
387.0000;0.4648;1.0419;
387.3000;0.4640;1.0419;
387.6000;0.4648;1.0295;
387.9000;0.4656;1.0344;
388.2000;0.4681;1.0493;
388.5000;0.4640;1.0419;
388.8000;0.4599;1.0319;
389.1000;0.4664;1.0493;
389.4000;0.4656;1.0394;
389.7000;0.4648;1.0369;
390.0000;0.4656;1.0394;
390.3000;0.4640;1.0419;
390.6000;0.4664;1.0469;
390.9000;0.4583;1.0195;
391.2000;0.4672;1.0394;
391.5000;0.4664;1.0319;
391.8000;0.4656;1.0394;
392.1000;0.4615;1.0344;
392.4000;0.4648;1.0518;
392.7000;0.4705;1.0668;
393.0000;0.4648;1.0618;
393.3000;0.4640;1.0568;
393.6000;0.4648;1.0568;
393.9000;0.4648;1.0543;
394.2000;0.4681;1.0668;
394.5000;0.4640;1.0568;
394.8000;0.4656;1.0643;
395.1000;0.4615;1.0419;
395.4000;0.4607;1.0394;
395.7000;0.4656;1.0394;
396.0000;0.4640;1.0444;
396.3000;0.4648;1.0493;
396.6000;0.4648;1.0493;
396.9000;0.4672;1.0518;
397.2000;0.4632;1.0319;
397.5000;0.4640;1.0295;
397.8000;0.4648;1.0295;
398.1000;0.4697;1.0369;
398.4000;0.4648;1.0170;
398.7000;0.4632;1.0220;
399.0000;0.4640;1.0295;
399.3000;0.4697;1.0469;
399.6000;0.4632;1.0270;
399.9000;0.4640;1.0295;
400.2000;0.4632;1.0369;
400.5000;0.4640;1.0444;
400.8000;0.4632;1.0394;
401.1000;0.4632;1.0419;
401.4000;0.4640;1.0444;
401.7000;0.4664;1.0518;
402.0000;0.4640;1.0593;
402.3000;0.4672;1.0643;
402.6000;0.4624;1.0493;
402.9000;0.4615;1.0469;
403.2000;0.4648;1.0493;
403.5000;0.4656;1.0493;
403.8000;0.4615;1.0419;
404.1000;0.4640;1.0394;
404.4000;0.4648;1.0319;
404.7000;0.4648;1.0220;
405.0000;0.4632;1.0145;
405.3000;0.4648;1.0270;
405.6000;0.4664;1.0394;
405.9000;0.4664;1.0394;
406.2000;0.4640;1.0444;
406.5000;0.4656;1.0419;
406.8000;0.4640;1.0344;
407.1000;0.4672;1.0419;
407.4000;0.4615;1.0344;
407.7000;0.4640;1.0369;
408.0000;0.4697;1.0518;
408.3000;0.4664;1.0344;
408.6000;0.4656;1.0270;
408.9000;0.4648;1.0220;
409.2000;0.4640;1.0220;
409.5000;0.4648;1.0220;
409.8000;0.4656;1.0295;
410.1000;0.4632;1.0096;
410.4000;0.4640;1.0145;
410.7000;0.4656;1.0145;
411.0000;0.4648;1.0145;
411.3000;0.4648;1.0170;
411.6000;0.4656;1.0245;
411.9000;0.4648;1.0245;
412.2000;0.4640;1.0145;
412.5000;0.4656;1.0195;
412.8000;0.4648;1.0170;
413.1000;0.4664;1.0145;
413.4000;0.4672;1.0245;
413.7000;0.4640;1.0220;
414.0000;0.4648;1.0245;
414.3000;0.4624;1.0220;
414.6000;0.4640;1.0319;
414.9000;0.4648;1.0220;
415.2000;0.4729;1.0469;
415.5000;0.4632;1.0220;
415.8000;0.4697;1.0344;
416.1000;0.4575;1.0046;
416.4000;0.4737;1.0568;
416.7000;0.4664;1.0245;
417.0000;0.4713;1.0344;
417.3000;0.4664;1.0195;
417.6000;0.4648;1.0170;
417.9000;0.4632;1.0071;
418.2000;0.4615;1.0071;
418.5000;0.4583;0.9946;
418.8000;0.4607;0.9996;
419.1000;0.4640;1.0120;
419.4000;0.4615;1.0046;
419.7000;0.4640;1.0096;
420.0000;0.4640;1.0170;
420.3000;0.4648;1.0120;
420.6000;0.4640;1.0046;
420.9000;0.4648;1.0021;
421.2000;0.4664;1.0046;
421.5000;0.4656;1.0071;
421.8000;0.4640;1.0120;
422.1000;0.4656;1.0170;
422.4000;0.4624;1.0220;
422.7000;0.4640;1.0220;
423.0000;0.4648;1.0170;
423.3000;0.4672;1.0245;
423.6000;0.4615;1.0145;
423.9000;0.4648;1.0145;
424.2000;0.4648;1.0120;
424.5000;0.4640;1.0145;
424.8000;0.4648;1.0295;
425.1000;0.4746;1.0668;
425.4000;0.4640;1.0270;
425.7000;0.4648;1.0295;
426.0000;0.4656;1.0344;
426.3000;0.4632;1.0344;
426.6000;0.4615;1.0270;
426.9000;0.4632;1.0369;
427.2000;0.4664;1.0344;
427.5000;0.4640;1.0394;
427.8000;0.4607;1.0295;
428.1000;0.4615;1.0344;
428.4000;0.4656;1.0518;
428.7000;0.4640;1.0444;
429.0000;0.4624;1.0419;
429.3000;0.4632;1.0444;
429.6000;0.4648;1.0444;
429.9000;0.4615;1.0444;
430.2000;0.4648;1.0493;
430.5000;0.4624;1.0419;
430.8000;0.4632;1.0344;
431.1000;0.4648;1.0295;
431.4000;0.4656;1.0344;
431.7000;0.4632;1.0369;
432.0000;0.4656;1.0444;
432.3000;0.4697;1.0543;
432.6000;0.4632;1.0344;
432.9000;0.4615;1.0270;
433.2000;0.4681;1.0543;
433.5000;0.4681;1.0643;
433.8000;0.4656;1.0593;
434.1000;0.4640;1.0543;
434.4000;0.4648;1.0493;
434.7000;0.4632;1.0543;
435.0000;0.4624;1.0568;
435.3000;0.4632;1.0493;
435.6000;0.4624;1.0419;
435.9000;0.4591;1.0369;
436.2000;0.4640;1.0518;
436.5000;0.4689;1.0643;
436.8000;0.4681;1.0618;
437.1000;0.4721;1.0792;
437.4000;0.4656;1.0568;
437.7000;0.4583;1.0369;
438.0000;0.4648;1.0518;
438.3000;0.4640;1.0444;
438.6000;0.4640;1.0444;
438.9000;0.4648;1.0444;
439.2000;0.4672;1.0469;
439.5000;0.4648;1.0444;
439.8000;0.4648;1.0394;
440.1000;0.4640;1.0295;
440.4000;0.4656;1.0369;
440.7000;0.4640;1.0344;
441.0000;0.4624;1.0319;
441.3000;0.4640;1.0419;
441.6000;0.4624;1.0493;
441.9000;0.4583;1.0319;
442.2000;0.4656;1.0444;
442.5000;0.4648;1.0469;
442.8000;0.4632;1.0344;
443.1000;0.4648;1.0344;
443.4000;0.4640;1.0319;
443.7000;0.4632;1.0270;
444.0000;0.4624;1.0245;
444.3000;0.4648;1.0245;
444.6000;0.4632;1.0195;
444.9000;0.4640;1.0270;
445.2000;0.4624;1.0170;
445.5000;0.4624;1.0071;
445.8000;0.4640;1.0096;
446.1000;0.4648;1.0195;
446.4000;0.4640;1.0245;
446.7000;0.4648;1.0270;
447.0000;0.4640;1.0344;
447.3000;0.4534;1.0071;
447.6000;0.4640;1.0394;
447.9000;0.4640;1.0419;
448.2000;0.4632;1.0319;
448.5000;0.4632;1.0220;
448.8000;0.4648;1.0220;
449.1000;0.4640;1.0245;
449.4000;0.4632;1.0270;
449.7000;0.4656;1.0319;
450.0000;0.4640;1.0419;
450.3000;0.4632;1.0469;
450.6000;0.4705;1.0593;
450.9000;0.4624;1.0344;
451.2000;0.4648;1.0444;
451.5000;0.4640;1.0493;
451.8000;0.4615;1.0419;
452.1000;0.4640;1.0344;
452.4000;0.4632;1.0369;
452.7000;0.4640;1.0270;
453.0000;0.4599;1.0245;
453.3000;0.4624;1.0344;
453.6000;0.4640;1.0394;
453.9000;0.4648;1.0394;
454.2000;0.4615;1.0344;
454.5000;0.4656;1.0394;
454.8000;0.4648;1.0344;
455.1000;0.4632;1.0295;
455.4000;0.4640;1.0369;
455.7000;0.4640;1.0195;
456.0000;0.4640;1.0145;
456.3000;0.4640;1.0170;
456.6000;0.4656;1.0195;
456.9000;0.4640;1.0170;
457.2000;0.4640;1.0170;
457.5000;0.4640;1.0195;
457.8000;0.4664;1.0170;
458.1000;0.4648;1.0145;
458.4000;0.4705;1.0295;
458.7000;0.4640;1.0195;
459.0000;0.4640;1.0245;
459.3000;0.4640;1.0245;
459.6000;0.4640;1.0220;
459.9000;0.4648;1.0220;
460.2000;0.4656;1.0220;
460.5000;0.4648;1.0145;
460.8000;0.4640;1.0195;
461.1000;0.4648;1.0220;
461.4000;0.4648;1.0170;
461.7000;0.4664;1.0245;
462.0000;0.4640;1.0170;
462.3000;0.4640;1.0270;
462.6000;0.4632;1.0344;
462.9000;0.4624;1.0394;
463.2000;0.4640;1.0369;
463.5000;0.4632;1.0270;
463.8000;0.4648;1.0245;
464.1000;0.4656;1.0195;
464.4000;0.4648;1.0220;
464.7000;0.4640;1.0145;
465.0000;0.4624;1.0220;
465.3000;0.4648;1.0344;
465.6000;0.4640;1.0469;
465.9000;0.4599;1.0394;
466.2000;0.4648;1.0518;
466.5000;0.4648;1.0568;
466.8000;0.4640;1.0593;
467.1000;0.4640;1.0518;
467.4000;0.4640;1.0518;
467.7000;0.4640;1.0518;
468.0000;0.4656;1.0568;
468.3000;0.4656;1.0543;
468.6000;0.4640;1.0319;
468.9000;0.4640;1.0295;
469.2000;0.4640;1.0270;
469.5000;0.4648;1.0220;
469.8000;0.4648;1.0245;
470.1000;0.4672;1.0394;
470.4000;0.4648;1.0344;
470.7000;0.4640;1.0319;
471.0000;0.4656;1.0319;
471.3000;0.4632;1.0220;
471.6000;0.4640;1.0245;
471.9000;0.4648;1.0319;
472.2000;0.4599;1.0270;
472.5000;0.4640;1.0444;
472.8000;0.4648;1.0469;
473.1000;0.4648;1.0493;
473.4000;0.4632;1.0444;
473.7000;0.4607;1.0394;
474.0000;0.4640;1.0518;
474.3000;0.4615;1.0419;
474.6000;0.4648;1.0518;
474.9000;0.4632;1.0444;
475.2000;0.4648;1.0469;
475.5000;0.4648;1.0493;
475.8000;0.4648;1.0469;
476.1000;0.4591;1.0295;
476.4000;0.4624;1.0419;
476.7000;0.4640;1.0469;
477.0000;0.4640;1.0419;
477.3000;0.4640;1.0319;
477.6000;0.4607;1.0270;
477.9000;0.4632;1.0369;
478.2000;0.4632;1.0344;
478.5000;0.4575;1.0120;
478.8000;0.4632;1.0295;
479.1000;0.4640;1.0394;
479.4000;0.4632;1.0444;
479.7000;0.4615;1.0444;
480.0000;0.4624;1.0444;
480.3000;0.4615;1.0319;
480.6000;0.4648;1.0469;
480.9000;0.4632;1.0319;
481.2000;0.4640;1.0245;
481.5000;0.4648;1.0270;
481.8000;0.4664;1.0295;
482.1000;0.4640;1.0145;
482.4000;0.4632;1.0071;
482.7000;0.4648;1.0096;
483.0000;0.4648;1.0071;
483.3000;0.4681;1.0195;
483.6000;0.4648;1.0195;
483.9000;0.4632;1.0120;
484.2000;0.4624;1.0096;
484.5000;0.4656;1.0120;
484.8000;0.4624;0.9971;
485.1000;0.4615;0.9946;
485.4000;0.4632;1.0071;
485.7000;0.4640;1.0145;
486.0000;0.4640;1.0245;
486.3000;0.4632;1.0220;
486.6000;0.4640;1.0220;
486.9000;0.4640;1.0270;
487.2000;0.4632;1.0220;
487.5000;0.4624;1.0145;
487.8000;0.4624;1.0220;
488.1000;0.4640;1.0270;
488.4000;0.4640;1.0319;
488.7000;0.4624;1.0344;
489.0000;0.4615;1.0270;
489.3000;0.4615;1.0344;
489.6000;0.4656;1.0394;
489.9000;0.4624;1.0369;
490.2000;0.4648;1.0319;
490.5000;0.4632;1.0245;
490.8000;0.4632;1.0295;
491.1000;0.4648;1.0295;
491.4000;0.4640;1.0319;
491.7000;0.4599;1.0220;
492.0000;0.4656;1.0319;
492.3000;0.4656;1.0394;
492.6000;0.4632;1.0344;
492.9000;0.4632;1.0344;
493.2000;0.4640;1.0319;
493.5000;0.4640;1.0195;
493.8000;0.4632;1.0145;
494.1000;0.4672;1.0270;
494.4000;0.4640;1.0295;
494.7000;0.4640;1.0394;
495.0000;0.4632;1.0419;
495.3000;0.4640;1.0369;
495.6000;0.4624;1.0419;
495.9000;0.4632;1.0469;
496.2000;0.4583;1.0369;
496.5000;0.4624;1.0518;
496.8000;0.4567;1.0369;
497.1000;0.4624;1.0344;
497.4000;0.4632;1.0444;
497.7000;0.4615;1.0518;
498.0000;0.4632;1.0643;
498.3000;0.4640;1.0568;
498.6000;0.4640;1.0593;
498.9000;0.4624;1.0568;
499.2000;0.4640;1.0568;
499.5000;0.4640;1.0543;
499.8000;0.4624;1.0444;
500.1000;0.4640;1.0518;
500.4000;0.4599;1.0593;
500.7000;0.4640;1.0668;
501.0000;0.4632;1.0643;
501.3000;0.4624;1.0668;
501.6000;0.4640;1.0668;
501.9000;0.4615;1.0543;
502.2000;0.4640;1.0568;
502.5000;0.4648;1.0543;
502.8000;0.4640;1.0493;
503.1000;0.4648;1.0469;
503.4000;0.4632;1.0469;
503.7000;0.4656;1.0518;
504.0000;0.4624;1.0444;
504.3000;0.4640;1.0444;
504.6000;0.4632;1.0319;
504.9000;0.4615;1.0344;
505.2000;0.4648;1.0444;
505.5000;0.4615;1.0469;
505.8000;0.4615;1.0493;
506.1000;0.4640;1.0469;
506.4000;0.4640;1.0419;
506.7000;0.4640;1.0369;
507.0000;0.4640;1.0319;
507.3000;0.4640;1.0394;
507.6000;0.4632;1.0419;
507.9000;0.4648;1.0419;
508.2000;0.4640;1.0543;
508.5000;0.4632;1.0543;
508.8000;0.4648;1.0593;
509.1000;0.4624;1.0469;
509.4000;0.4624;1.0469;
509.7000;0.4640;1.0444;
510.0000;0.4624;1.0444;
510.3000;0.4624;1.0394;
510.6000;0.4640;1.0369;
510.9000;0.4632;1.0369;
511.2000;0.4632;1.0444;
511.5000;0.4615;1.0444;
511.8000;0.4624;1.0369;
512.1000;0.4640;1.0493;
512.4000;0.4640;1.0444;
512.7000;0.4632;1.0419;
513.0000;0.4624;1.0369;
513.3000;0.4632;1.0419;
513.6000;0.4640;1.0394;
513.9000;0.4648;1.0319;
514.2000;0.4607;1.0220;
514.5000;0.4624;1.0369;
514.8000;0.4615;1.0419;
515.1000;0.4624;1.0444;
515.4000;0.4624;1.0344;
515.7000;0.4632;1.0493;
516.0000;0.4632;1.0543;
516.3000;0.4615;1.0469;
516.6000;0.4632;1.0469;
516.9000;0.4624;1.0543;
517.2000;0.4632;1.0469;
517.5000;0.4640;1.0518;
517.8000;0.4632;1.0543;
518.1000;0.4640;1.0469;
518.4000;0.4656;1.0518;
518.7000;0.4632;1.0493;
519.0000;0.4640;1.0518;
519.3000;0.4624;1.0493;
519.6000;0.4624;1.0444;
519.9000;0.4624;1.0344;
520.2000;0.4624;1.0444;
520.5000;0.4624;1.0444;
520.8000;0.4583;1.0344;
521.1000;0.4624;1.0543;
521.4000;0.4607;1.0518;
521.7000;0.4607;1.0518;
522.0000;0.4624;1.0469;
522.3000;0.4640;1.0394;
522.6000;0.4624;1.0319;
522.9000;0.4624;1.0270;
523.2000;0.4624;1.0270;
523.5000;0.4640;1.0394;
523.8000;0.4648;1.0444;
524.1000;0.4640;1.0419;
524.4000;0.4615;1.0344;
524.7000;0.4632;1.0369;
525.0000;0.4648;1.0469;
525.3000;0.4689;1.0493;
525.6000;0.4632;1.0295;
525.9000;0.4632;1.0344;
526.2000;0.4632;1.0493;
526.5000;0.4615;1.0369;
526.8000;0.4607;1.0319;
527.1000;0.4640;1.0295;
527.4000;0.4624;1.0319;
527.7000;0.4664;1.0344;
528.0000;0.4607;1.0145;
528.3000;0.4640;1.0369;
528.6000;0.4550;1.0071;
528.9000;0.4648;1.0419;
529.2000;0.4632;1.0295;
529.5000;0.4632;1.0195;
529.8000;0.4615;1.0220;
530.1000;0.4591;1.0195;
530.4000;0.4624;1.0270;
530.7000;0.4632;1.0319;
531.0000;0.4624;1.0344;
531.3000;0.4640;1.0369;
531.6000;0.4640;1.0344;
531.9000;0.4632;1.0419;
532.2000;0.4624;1.0493;
532.5000;0.4632;1.0493;
532.8000;0.4640;1.0493;
533.1000;0.4624;1.0493;
533.4000;0.4632;1.0618;
533.7000;0.4624;1.0593;
534.0000;0.4640;1.0692;
534.3000;0.4640;1.0692;
534.6000;0.4607;1.0593;
534.9000;0.4632;1.0618;
535.2000;0.4640;1.0643;
535.5000;0.4632;1.0568;
535.8000;0.4624;1.0568;
536.1000;0.4615;1.0543;
536.4000;0.4640;1.0593;
536.7000;0.4640;1.0568;
537.0000;0.4640;1.0643;
537.3000;0.4591;1.0568;
537.6000;0.4624;1.0593;
537.9000;0.4640;1.0568;
538.2000;0.4632;1.0469;
538.5000;0.4640;1.0444;
538.8000;0.4615;1.0319;
539.1000;0.4640;1.0444;
539.4000;0.4624;1.0419;
539.7000;0.4624;1.0419;
540.0000;0.4656;1.0493;
540.3000;0.4640;1.0493;
540.6000;0.4624;1.0518;
540.9000;0.4624;1.0568;
541.2000;0.4632;1.0618;
541.5000;0.4624;1.0593;
541.8000;0.4640;1.0618;
542.1000;0.4624;1.0568;
542.4000;0.4624;1.0568;
542.7000;0.4640;1.0543;
543.0000;0.4624;1.0444;
543.3000;0.4632;1.0419;
543.6000;0.4615;1.0444;
543.9000;0.4624;1.0469;
544.2000;0.4624;1.0444;
544.5000;0.4640;1.0419;
544.8000;0.4624;1.0394;
545.1000;0.4632;1.0469;
545.4000;0.4640;1.0518;
545.7000;0.4640;1.0543;
546.0000;0.4624;1.0543;
546.3000;0.4607;1.0618;
546.6000;0.4632;1.0668;
546.9000;0.4615;1.0643;
547.2000;0.4640;1.0717;
547.5000;0.4632;1.0668;
547.8000;0.4632;1.0668;
548.1000;0.4632;1.0618;
548.4000;0.4615;1.0618;
548.7000;0.4624;1.0568;
549.0000;0.4640;1.0593;
549.3000;0.4599;1.0444;
549.6000;0.4640;1.0593;
549.9000;0.4599;1.0543;
550.2000;0.4632;1.0518;
550.5000;0.4632;1.0493;
550.8000;0.4624;1.0469;
551.1000;0.4607;1.0419;
551.4000;0.4624;1.0444;
551.7000;0.4615;1.0419;
552.0000;0.4640;1.0444;
552.3000;0.4632;1.0419;
552.6000;0.4632;1.0344;
552.9000;0.4640;1.0469;
553.2000;0.4689;1.0593;
553.5000;0.4615;1.0444;
553.8000;0.4664;1.0568;
554.1000;0.4640;1.0493;
554.4000;0.4640;1.0518;
554.7000;0.4624;1.0493;
555.0000;0.4607;1.0469;
555.3000;0.4632;1.0419;
555.6000;0.4624;1.0369;
555.9000;0.4632;1.0369;
556.2000;0.4615;1.0419;
556.5000;0.4632;1.0493;
556.8000;0.4607;1.0444;
557.1000;0.4624;1.0618;
557.4000;0.4632;1.0593;
557.7000;0.4624;1.0643;
558.0000;0.4632;1.0593;
558.3000;0.4640;1.0593;
558.6000;0.4615;1.0394;
558.9000;0.4607;1.0369;
559.2000;0.4624;1.0444;
559.5000;0.4624;1.0444;
559.8000;0.4615;1.0369;
560.1000;0.4632;1.0444;
560.4000;0.4624;1.0444;
560.7000;0.4624;1.0319;
561.0000;0.4624;1.0394;
561.3000;0.4632;1.0394;
561.6000;0.4640;1.0444;
561.9000;0.4624;1.0444;
562.2000;0.4632;1.0444;
562.5000;0.4632;1.0444;
562.8000;0.4615;1.0518;
563.1000;0.4632;1.0444;
563.4000;0.4656;1.0444;
563.7000;0.4640;1.0469;
564.0000;0.4648;1.0469;
564.3000;0.4640;1.0444;
564.6000;0.4632;1.0518;
564.9000;0.4599;1.0444;
565.2000;0.4591;1.0444;
565.5000;0.4615;1.0444;
565.8000;0.4640;1.0568;
566.1000;0.4632;1.0543;
566.4000;0.4599;1.0518;
566.7000;0.4607;1.0518;
567.0000;0.4640;1.0568;
567.3000;0.4640;1.0493;
567.6000;0.4640;1.0518;
567.9000;0.4640;1.0493;
568.2000;0.4624;1.0469;
568.5000;0.4632;1.0518;
568.8000;0.4615;1.0444;
569.1000;0.4640;1.0493;
569.4000;0.4624;1.0469;
569.7000;0.4615;1.0419;
570.0000;0.4615;1.0369;
570.3000;0.4624;1.0419;
570.6000;0.4624;1.0419;
570.9000;0.4624;1.0319;
571.2000;0.4591;1.0220;
571.5000;0.4607;1.0295;
571.8000;0.4632;1.0344;
572.1000;0.4640;1.0220;
572.4000;0.4672;1.0319;
572.7000;0.4615;1.0195;
573.0000;0.4591;1.0096;
573.3000;0.4656;1.0270;
573.6000;0.4640;1.0319;
573.9000;0.4632;1.0394;
574.2000;0.4615;1.0419;
574.5000;0.4567;1.0319;
574.8000;0.4632;1.0493;
575.1000;0.4632;1.0543;
575.4000;0.4640;1.0568;
575.7000;0.4624;1.0493;
576.0000;0.4624;1.0568;
576.3000;0.4632;1.0643;
576.6000;0.4640;1.0618;
576.9000;0.4624;1.0668;
577.2000;0.4624;1.0692;
577.5000;0.4632;1.0643;
577.8000;0.4624;1.0568;
578.1000;0.4632;1.0543;
578.4000;0.4632;1.0469;
578.7000;0.4648;1.0543;
579.0000;0.4632;1.0568;
579.3000;0.4632;1.0543;
579.6000;0.4632;1.0568;
579.9000;0.4632;1.0543;
580.2000;0.4624;1.0543;
580.5000;0.4615;1.0593;
580.8000;0.4624;1.0618;
581.1000;0.4615;1.0668;
581.4000;0.4615;1.0668;
581.7000;0.4632;1.0717;
582.0000;0.4648;1.0767;
582.3000;0.4624;1.0717;
582.6000;0.4624;1.0643;
582.9000;0.4615;1.0543;
583.2000;0.4632;1.0518;
583.5000;0.4624;1.0518;
583.8000;0.4624;1.0518;
584.1000;0.4615;1.0543;
584.4000;0.4615;1.0643;
584.7000;0.4632;1.0668;
585.0000;0.4640;1.0643;
585.3000;0.4648;1.0668;
585.6000;0.4624;1.0568;
585.9000;0.4615;1.0518;
586.2000;0.4632;1.0593;
586.5000;0.4624;1.0518;
586.8000;0.4624;1.0493;
587.1000;0.4624;1.0543;
587.4000;0.4640;1.0543;
587.7000;0.4632;1.0543;
588.0000;0.4624;1.0568;
588.3000;0.4632;1.0643;
588.6000;0.4640;1.0643;
588.9000;0.4632;1.0593;
589.2000;0.4640;1.0543;
589.5000;0.4624;1.0593;
589.8000;0.4648;1.0568;
590.1000;0.4624;1.0518;
590.4000;0.4558;1.0444;
590.7000;0.4607;1.0568;
591.0000;0.4607;1.0543;
591.3000;0.4672;1.0518;
591.6000;0.4624;1.0394;
591.9000;0.4615;1.0270;
592.2000;0.4713;1.0668;
592.5000;0.4624;1.0369;
592.8000;0.4624;1.0295;
593.1000;0.4599;1.0319;
593.4000;0.4599;1.0369;
593.7000;0.4624;1.0444;
594.0000;0.4624;1.0369;
594.3000;0.4624;1.0369;
594.6000;0.4648;1.0469;
594.9000;0.4624;1.0493;
595.2000;0.4640;1.0518;
595.5000;0.4632;1.0493;
595.8000;0.4624;1.0469;
596.1000;0.4632;1.0419;
596.4000;0.4591;1.0319;
596.7000;0.4624;1.0518;
597.0000;0.4624;1.0493;
597.3000;0.4624;1.0543;
597.6000;0.4640;1.0469;
597.9000;0.4624;1.0493;
598.2000;0.4624;1.0493;
598.5000;0.4624;1.0444;
598.8000;0.4640;1.0444;
599.1000;0.4640;1.0444;
599.4000;0.4648;1.0394;
599.7000;0.4632;1.0419;
600.0000;0.4624;1.0518;
600.3000;0.4615;1.0444;
600.6000;0.4607;1.0319;
600.9000;0.4575;1.0145;
601.2000;0.4518;0.9946;
601.5000;0.4453;0.9772;
601.8000;0.4396;0.9598;
602.1000;0.4322;0.9424;
602.4000;0.4257;0.9325;
602.7000;0.4217;0.9126;
603.0000;0.4176;0.8977;
603.3000;0.4127;0.8902;
603.6000;0.4070;0.8703;
603.9000;0.4021;0.8554;
604.2000;0.3989;0.8504;
604.5000;0.3956;0.8355;
604.8000;0.3956;0.8305;
605.1000;0.3907;0.8231;
605.4000;0.3907;0.8156;
605.7000;0.3875;0.8131;
606.0000;0.3867;0.8106;
606.3000;0.3842;0.7932;
606.6000;0.3834;0.7957;
606.9000;0.3785;0.7733;
607.2000;0.3793;0.7833;
607.5000;0.3793;0.7883;
607.8000;0.3744;0.7758;
608.1000;0.3753;0.7733;
608.4000;0.3761;0.7783;
608.7000;0.3704;0.7659;
609.0000;0.3728;0.7733;
609.3000;0.3761;0.7708;
609.6000;0.3679;0.7485;
609.9000;0.3671;0.7360;
610.2000;0.3630;0.7335;
610.5000;0.3679;0.7510;
610.8000;0.3663;0.7460;
611.1000;0.3647;0.7435;
611.4000;0.3655;0.7485;
611.7000;0.3639;0.7385;
612.0000;0.3639;0.7410;
612.3000;0.3647;0.7460;
612.6000;0.3630;0.7460;
612.9000;0.3590;0.7435;
613.2000;0.3655;0.7609;
613.5000;0.3614;0.7510;
613.8000;0.3582;0.7435;
614.1000;0.3582;0.7435;
614.4000;0.3590;0.7410;
614.7000;0.3582;0.7410;
615.0000;0.3565;0.7335;
615.3000;0.3606;0.7385;
615.6000;0.3557;0.7236;
615.9000;0.3573;0.7311;
616.2000;0.3582;0.7385;
616.5000;0.3582;0.7410;
616.8000;0.3573;0.7360;
617.1000;0.3582;0.7311;
617.4000;0.3541;0.7236;
617.7000;0.3549;0.7311;
618.0000;0.3557;0.7261;
618.3000;0.3557;0.7261;
618.6000;0.3557;0.7211;
618.9000;0.3516;0.7186;
619.2000;0.3565;0.7311;
619.5000;0.3533;0.7261;
619.8000;0.3516;0.7311;
620.1000;0.3508;0.7311;
620.4000;0.3516;0.7286;
620.7000;0.3525;0.7286;
621.0000;0.3525;0.7236;
621.3000;0.3525;0.7286;
621.6000;0.3500;0.7335;
621.9000;0.3525;0.7360;
622.2000;0.3533;0.7311;
622.5000;0.3500;0.7286;
622.8000;0.3484;0.7186;
623.1000;0.3525;0.7311;
623.4000;0.3565;0.7510;
623.7000;0.3500;0.7335;
624.0000;0.3492;0.7410;
624.3000;0.3468;0.7335;
624.6000;0.3484;0.7460;
624.9000;0.3484;0.7435;
625.2000;0.3484;0.7435;
625.5000;0.3460;0.7385;
625.8000;0.3476;0.7534;
626.1000;0.3468;0.7485;
626.4000;0.3460;0.7460;
626.7000;0.3484;0.7485;
627.0000;0.3468;0.7360;
627.3000;0.3468;0.7261;
627.6000;0.3476;0.7286;
627.9000;0.3508;0.7435;
628.2000;0.3443;0.7360;
628.5000;0.3468;0.7360;
628.8000;0.3435;0.7360;
629.1000;0.3451;0.7410;
629.4000;0.3468;0.7311;
629.7000;0.3451;0.7261;
630.0000;0.3443;0.7186;
630.3000;0.3443;0.7211;
630.6000;0.3460;0.7211;
630.9000;0.3419;0.7062;
631.2000;0.3443;0.7137;
631.5000;0.3443;0.7236;
631.8000;0.3443;0.7161;
632.1000;0.3460;0.7261;
632.4000;0.3443;0.7161;
632.7000;0.3435;0.7062;
633.0000;0.3443;0.7112;
633.3000;0.3403;0.6987;
633.6000;0.3451;0.7211;
633.9000;0.3435;0.7286;
634.2000;0.3460;0.7460;
634.5000;0.3451;0.7485;
634.8000;0.3394;0.7385;
635.1000;0.3435;0.7460;
635.4000;0.3435;0.7510;
635.7000;0.3435;0.7534;
636.0000;0.3435;0.7460;
636.3000;0.3370;0.7186;
636.6000;0.3411;0.7286;
636.9000;0.3435;0.7261;
637.2000;0.3460;0.7335;
637.5000;0.3419;0.7137;
637.8000;0.3411;0.7062;
638.1000;0.3516;0.7410;
638.4000;0.3427;0.7161;
638.7000;0.3403;0.7161;
639.0000;0.3403;0.7211;
639.3000;0.3476;0.7360;
639.6000;0.3403;0.7261;
639.9000;0.3403;0.7261;
640.2000;0.3403;0.7161;
640.5000;0.3411;0.7137;
640.8000;0.3403;0.7161;
641.1000;0.3394;0.7186;
641.4000;0.3403;0.7186;
641.7000;0.3386;0.7112;
642.0000;0.3394;0.7161;
642.3000;0.3394;0.7161;
642.6000;0.3476;0.7435;
642.9000;0.3403;0.7161;
643.2000;0.3394;0.7112;
643.5000;0.3354;0.6938;
643.8000;0.3411;0.7186;
644.1000;0.3394;0.7161;
644.4000;0.3403;0.7112;
644.7000;0.3394;0.7137;
645.0000;0.3419;0.7311;
645.3000;0.3484;0.7659;
645.6000;0.3427;0.7534;
645.9000;0.3378;0.7360;
646.2000;0.3378;0.7311;
646.5000;0.3411;0.7335;
646.8000;0.3394;0.7311;
647.1000;0.3427;0.7311;
647.4000;0.3435;0.7385;
647.7000;0.3419;0.7335;
648.0000;0.3419;0.7385;
648.3000;0.3394;0.7311;
648.6000;0.3394;0.7286;
648.9000;0.3419;0.7335;
649.2000;0.3378;0.7286;
649.5000;0.3386;0.7410;
649.8000;0.3403;0.7410;
650.1000;0.3370;0.7261;
650.4000;0.3370;0.7236;
650.7000;0.3394;0.7261;
651.0000;0.3394;0.7311;
651.3000;0.3378;0.7335;
651.6000;0.3370;0.7311;
651.9000;0.3370;0.7311;
652.2000;0.3362;0.7261;
652.5000;0.3337;0.7261;
652.8000;0.3362;0.7385;
653.1000;0.3362;0.7460;
653.4000;0.3394;0.7385;
653.7000;0.3362;0.7311;
654.0000;0.3354;0.7211;
654.3000;0.3362;0.7137;
654.6000;0.3362;0.7286;
654.9000;0.3370;0.7286;
655.2000;0.3378;0.7211;
655.5000;0.3346;0.7236;
655.8000;0.3362;0.7286;
656.1000;0.3337;0.7236;
656.4000;0.3362;0.7261;
656.7000;0.3362;0.7335;
657.0000;0.3370;0.7385;
657.3000;0.3419;0.7460;
657.6000;0.3362;0.7385;
657.9000;0.3370;0.7460;
658.2000;0.3386;0.7410;
658.5000;0.3370;0.7385;
658.8000;0.3370;0.7435;
659.1000;0.3337;0.7360;
659.4000;0.3362;0.7435;
659.7000;0.3346;0.7335;
660.0000;0.3386;0.7435;
660.3000;0.3370;0.7460;
660.6000;0.3362;0.7460;
660.9000;0.3362;0.7460;
661.2000;0.3354;0.7460;
661.5000;0.3337;0.7385;
661.8000;0.3337;0.7410;
662.1000;0.3329;0.7335;
662.4000;0.3378;0.7435;
662.7000;0.3337;0.7385;
663.0000;0.3297;0.7286;
663.3000;0.3378;0.7584;
663.6000;0.3346;0.7485;
663.9000;0.3337;0.7534;
664.2000;0.3321;0.7435;
664.5000;0.3354;0.7510;
664.8000;0.3346;0.7510;
665.1000;0.3313;0.7360;
665.4000;0.3354;0.7460;
665.7000;0.3346;0.7410;
666.0000;0.3354;0.7410;
666.3000;0.3354;0.7460;
666.6000;0.3378;0.7510;
666.9000;0.3346;0.7410;
667.2000;0.3329;0.7286;
667.5000;0.3272;0.7211;
667.8000;0.3346;0.7385;
668.1000;0.3256;0.7012;
668.4000;0.3289;0.7186;
668.7000;0.3329;0.7236;
669.0000;0.3337;0.7236;
669.3000;0.3321;0.7112;
669.6000;0.3337;0.7112;
669.9000;0.3329;0.7112;
670.2000;0.3329;0.7112;
670.5000;0.3321;0.7137;
670.8000;0.3329;0.7186;
671.1000;0.3329;0.7261;
671.4000;0.3337;0.7286;
671.7000;0.3362;0.7311;
672.0000;0.3329;0.7211;
672.3000;0.3329;0.7286;
672.6000;0.3329;0.7360;
672.9000;0.3272;0.7261;
673.2000;0.3321;0.7335;
673.5000;0.3329;0.7335;
673.8000;0.3321;0.7286;
674.1000;0.3321;0.7311;
674.4000;0.3313;0.7286;
674.7000;0.3321;0.7311;
675.0000;0.3337;0.7335;
675.3000;0.3346;0.7360;
675.6000;0.3321;0.7261;
675.9000;0.3321;0.7236;
676.2000;0.3354;0.7311;
676.5000;0.3337;0.7261;
676.8000;0.3329;0.7385;
677.1000;0.3305;0.7286;
677.4000;0.3329;0.7385;
677.7000;0.3329;0.7311;
678.0000;0.3321;0.7286;
678.3000;0.3329;0.7286;
678.6000;0.3329;0.7335;
678.9000;0.3329;0.7311;
679.2000;0.3321;0.7236;
679.5000;0.3321;0.7261;
679.8000;0.3248;0.7112;
680.1000;0.3321;0.7335;
680.4000;0.3305;0.7286;
680.7000;0.3289;0.7286;
681.0000;0.3313;0.7385;
681.3000;0.3297;0.7311;
681.6000;0.3329;0.7360;
681.9000;0.3313;0.7261;
682.2000;0.3305;0.7311;
682.5000;0.3264;0.7186;
682.8000;0.3305;0.7311;
683.1000;0.3305;0.7311;
683.4000;0.3289;0.7311;
683.7000;0.3289;0.7385;
684.0000;0.3305;0.7311;
684.3000;0.3199;0.7112;
684.6000;0.3297;0.7335;
684.9000;0.3305;0.7311;
685.2000;0.3289;0.7261;
685.5000;0.3305;0.7186;
685.8000;0.3272;0.7062;
686.1000;0.3297;0.7112;
686.4000;0.3313;0.7261;
686.7000;0.3297;0.7137;
687.0000;0.3305;0.7112;
687.3000;0.3256;0.6963;
687.6000;0.3297;0.7062;
687.9000;0.3321;0.7087;
688.2000;0.3256;0.6888;
688.5000;0.3289;0.7037;
688.8000;0.3215;0.6888;
689.1000;0.3280;0.7062;
689.4000;0.3297;0.7186;
689.7000;0.3305;0.7236;
690.0000;0.3297;0.7236;
690.3000;0.3313;0.7261;
690.6000;0.3232;0.6963;
690.9000;0.3305;0.7186;
691.2000;0.3354;0.7261;
691.5000;0.3321;0.7161;
691.8000;0.3313;0.7087;
692.1000;0.3289;0.7112;
692.4000;0.3297;0.7137;
692.7000;0.3280;0.7137;
693.0000;0.3305;0.7261;
693.3000;0.3289;0.7236;
693.6000;0.3297;0.7211;
693.9000;0.3297;0.7161;
694.2000;0.3370;0.7360;
694.5000;0.3313;0.7335;
694.8000;0.3289;0.7311;
695.1000;0.3305;0.7435;
695.4000;0.3248;0.7311;
695.7000;0.3297;0.7286;
696.0000;0.3280;0.7286;
696.3000;0.3289;0.7261;
696.6000;0.3280;0.7236;
696.9000;0.3280;0.7236;
697.2000;0.3272;0.7137;
697.5000;0.3280;0.7112;
697.8000;0.3289;0.7236;
698.1000;0.3305;0.7261;
698.4000;0.3272;0.7137;
698.7000;0.3297;0.7236;
699.0000;0.3305;0.7286;
699.3000;0.3280;0.7186;
699.6000;0.3297;0.7261;
699.9000;0.3386;0.7609;
700.2000;0.3305;0.7360;
700.5000;0.3280;0.7261;
700.8000;0.3264;0.7286;
701.1000;0.3248;0.7211;
701.4000;0.3280;0.7236;
701.7000;0.3297;0.7261;
702.0000;0.3297;0.7137;
702.3000;0.3321;0.7211;
702.6000;0.3280;0.7137;
702.9000;0.3297;0.7261;
703.2000;0.3280;0.7286;
703.5000;0.3280;0.7286;
703.8000;0.3305;0.7311;
704.1000;0.3297;0.7161;
704.4000;0.3272;0.7186;
704.7000;0.3280;0.7211;
705.0000;0.3223;0.7037;
705.3000;0.3386;0.7460;
705.6000;0.3280;0.7161;
705.9000;0.3280;0.7087;
706.2000;0.3280;0.7087;
706.5000;0.3313;0.7137;
706.8000;0.3370;0.7360;
707.1000;0.3264;0.7186;
707.4000;0.3289;0.7087;
707.7000;0.3256;0.6938;
708.0000;0.3272;0.6987;
708.3000;0.3223;0.6838;
708.6000;0.3240;0.6913;
708.9000;0.3289;0.7087;
709.2000;0.3264;0.7211;
709.5000;0.3289;0.7261;
709.8000;0.3272;0.7186;
710.1000;0.3256;0.7037;
710.4000;0.3256;0.7012;
710.7000;0.3240;0.6938;
711.0000;0.3305;0.7137;
711.3000;0.3248;0.7012;
711.6000;0.3289;0.7236;
711.9000;0.3223;0.7062;
712.2000;0.3289;0.7236;
712.5000;0.3305;0.7286;
712.8000;0.3199;0.7112;
713.1000;0.3280;0.7286;
713.4000;0.3264;0.7186;
713.7000;0.3272;0.7286;
714.0000;0.3280;0.7261;
714.3000;0.3280;0.7236;
714.6000;0.3280;0.7286;
714.9000;0.3264;0.7261;
715.2000;0.3256;0.7286;
715.5000;0.3272;0.7211;
715.8000;0.3272;0.7112;
716.1000;0.3264;0.7186;
716.4000;0.3256;0.7137;
716.7000;0.3272;0.7137;
717.0000;0.3264;0.7062;
717.3000;0.3256;0.7112;
717.6000;0.3264;0.7137;
717.9000;0.3272;0.7161;
718.2000;0.3264;0.7161;
718.5000;0.3289;0.7236;
718.8000;0.3256;0.7137;
719.1000;0.3272;0.7161;
719.4000;0.3272;0.7261;
719.7000;0.3280;0.7261;
720.0000;0.3264;0.7087;
720.3000;0.3264;0.7112;
720.6000;0.3256;0.7211;
720.9000;0.3256;0.7211;
721.2000;0.3256;0.7261;
721.5000;0.3240;0.7236;
721.8000;0.3256;0.7211;
722.1000;0.3256;0.7236;
722.4000;0.3256;0.7087;
722.7000;0.3256;0.7161;
723.0000;0.3256;0.7186;
723.3000;0.3280;0.7211;
723.6000;0.3272;0.7286;
723.9000;0.3264;0.7236;
724.2000;0.3264;0.7335;
724.5000;0.3248;0.7311;
724.8000;0.3232;0.7261;
725.1000;0.3256;0.7360;
725.4000;0.3223;0.7311;
725.7000;0.3248;0.7410;
726.0000;0.3191;0.7236;
726.3000;0.3240;0.7360;
726.6000;0.3272;0.7435;
726.9000;0.3248;0.7360;
727.2000;0.3240;0.7311;
727.5000;0.3248;0.7311;
727.8000;0.3256;0.7311;
728.1000;0.3256;0.7236;
728.4000;0.3256;0.7211;
728.7000;0.3272;0.7286;
729.0000;0.3215;0.7062;
729.3000;0.3297;0.7385;
729.6000;0.3289;0.7261;
729.9000;0.3256;0.7211;
730.2000;0.3248;0.7161;
730.5000;0.3191;0.7087;
730.8000;0.3248;0.7112;
731.1000;0.3240;0.7211;
731.4000;0.3248;0.7161;
731.7000;0.3280;0.7236;
732.0000;0.3248;0.7211;
732.3000;0.3248;0.7186;
732.6000;0.3207;0.7062;
732.9000;0.3150;0.6987;
733.2000;0.3248;0.7286;
733.5000;0.3175;0.7087;
733.8000;0.3240;0.7286;
734.1000;0.3248;0.7186;
734.4000;0.3272;0.7286;
734.7000;0.3264;0.7137;
735.0000;0.3240;0.7087;
735.3000;0.3280;0.7236;
735.6000;0.3232;0.7161;
735.9000;0.3264;0.7261;
736.2000;0.3264;0.7236;
736.5000;0.3248;0.7161;
736.8000;0.3232;0.7137;
737.1000;0.3256;0.7137;
737.4000;0.3256;0.7211;
737.7000;0.3240;0.7112;
738.0000;0.3248;0.7236;
738.3000;0.3240;0.7137;
738.6000;0.3248;0.7161;
738.9000;0.3264;0.7286;
739.2000;0.3305;0.7385;
739.5000;0.3264;0.7261;
739.8000;0.3240;0.7186;
740.1000;0.3256;0.7261;
740.4000;0.3240;0.7311;
740.7000;0.3248;0.7460;
741.0000;0.3272;0.7510;
741.3000;0.3248;0.7435;
741.6000;0.3223;0.7311;
741.9000;0.3240;0.7286;
742.2000;0.3248;0.7410;
742.5000;0.3256;0.7435;
742.8000;0.3248;0.7485;
743.1000;0.3240;0.7559;
743.4000;0.3232;0.7485;
743.7000;0.3232;0.7360;
744.0000;0.3264;0.7510;
744.3000;0.3248;0.7534;
744.6000;0.3256;0.7534;
744.9000;0.3248;0.7460;
745.2000;0.3248;0.7485;
745.5000;0.3240;0.7460;
745.8000;0.3264;0.7460;
746.1000;0.3240;0.7435;
746.4000;0.3248;0.7534;
746.7000;0.3232;0.7485;
747.0000;0.3207;0.7460;
747.3000;0.3248;0.7559;
747.6000;0.3232;0.7435;
747.9000;0.3248;0.7584;
748.2000;0.3232;0.7584;
748.5000;0.3248;0.7684;
748.8000;0.3248;0.7659;
749.1000;0.3232;0.7609;
749.4000;0.3240;0.7584;
749.7000;0.3256;0.7485;
750.0000;0.3240;0.7435;
750.3000;0.3166;0.7286;
750.6000;0.3240;0.7510;
750.9000;0.3215;0.7460;
751.2000;0.3199;0.7510;
751.5000;0.3232;0.7584;
751.8000;0.3223;0.7659;
752.1000;0.3215;0.7609;
752.4000;0.3223;0.7634;
752.7000;0.3232;0.7684;
753.0000;0.3232;0.7758;
753.3000;0.3223;0.7758;
753.6000;0.3232;0.7659;
753.9000;0.3240;0.7634;
754.2000;0.3248;0.7659;
754.5000;0.3248;0.7684;
754.8000;0.3248;0.7659;
755.1000;0.3240;0.7684;
755.4000;0.3223;0.7708;
755.7000;0.3232;0.7808;
756.0000;0.3240;0.7808;
756.3000;0.3223;0.7783;
756.6000;0.3207;0.7783;
756.9000;0.3215;0.7833;
757.2000;0.3199;0.7758;
757.5000;0.3223;0.7708;
757.8000;0.3240;0.7659;
758.1000;0.3240;0.7684;
758.4000;0.3215;0.7609;
758.7000;0.3264;0.7708;
759.0000;0.3256;0.7708;
759.3000;0.3223;0.7584;
759.6000;0.3240;0.7684;
759.9000;0.3248;0.7733;
760.2000;0.3175;0.7609;
760.5000;0.3256;0.7833;
760.8000;0.3248;0.7883;
761.1000;0.3232;0.7758;
761.4000;0.3337;0.8057;
761.7000;0.3240;0.7733;
762.0000;0.3232;0.7708;
762.3000;0.3297;0.7932;
762.6000;0.3248;0.7883;
762.9000;0.3256;0.7907;
763.2000;0.3289;0.7883;
763.5000;0.3150;0.7460;
763.8000;0.3240;0.7659;
764.1000;0.3248;0.7659;
764.4000;0.3248;0.7684;
764.7000;0.3240;0.7684;
765.0000;0.3240;0.7733;
765.3000;0.3248;0.7733;
765.6000;0.3240;0.7758;
765.9000;0.3183;0.7534;
766.2000;0.3248;0.7584;
766.5000;0.3248;0.7584;
766.8000;0.3240;0.7534;
767.1000;0.3223;0.7510;
767.4000;0.3248;0.7559;
767.7000;0.3248;0.7584;
768.0000;0.3223;0.7534;
768.3000;0.3248;0.7559;
768.6000;0.3232;0.7485;
768.9000;0.3240;0.7510;
769.2000;0.3240;0.7559;
769.5000;0.3232;0.7584;
769.8000;0.3223;0.7559;
770.1000;0.3232;0.7510;
770.4000;0.3240;0.7485;
770.7000;0.3256;0.7485;
771.0000;0.3248;0.7435;
771.3000;0.3240;0.7485;
771.6000;0.3256;0.7510;
771.9000;0.3223;0.7460;
772.2000;0.3215;0.7435;
772.5000;0.3215;0.7510;
772.8000;0.3232;0.7609;
773.1000;0.3232;0.7584;
773.4000;0.3240;0.7485;
773.7000;0.3232;0.7510;
774.0000;0.3215;0.7510;
774.3000;0.3240;0.7659;
774.6000;0.3240;0.7634;
774.9000;0.3232;0.7684;
775.2000;0.3232;0.7733;
775.5000;0.3248;0.7684;
775.8000;0.3321;0.7833;
776.1000;0.3256;0.7684;
776.4000;0.3191;0.7584;
776.7000;0.3305;0.7858;
777.0000;0.3223;0.7634;
777.3000;0.3223;0.7584;
777.6000;0.3215;0.7510;
777.9000;0.3240;0.7609;
778.2000;0.3232;0.7559;
778.5000;0.3240;0.7584;
778.8000;0.3223;0.7559;
779.1000;0.3240;0.7634;
779.4000;0.3248;0.7609;
779.7000;0.3240;0.7584;
780.0000;0.3232;0.7534;
780.3000;0.3240;0.7559;
780.6000;0.3223;0.7534;
780.9000;0.3207;0.7485;
781.2000;0.3240;0.7534;
781.5000;0.3207;0.7485;
781.8000;0.3215;0.7559;
782.1000;0.3207;0.7584;
782.4000;0.3199;0.7510;
782.7000;0.3215;0.7559;
783.0000;0.3232;0.7534;
783.3000;0.3215;0.7510;
783.6000;0.3232;0.7559;
783.9000;0.3215;0.7684;
784.2000;0.3248;0.7808;
784.5000;0.3248;0.7833;
784.8000;0.3240;0.7783;
785.1000;0.3215;0.7758;
785.4000;0.3126;0.7659;
785.7000;0.3215;0.7883;
786.0000;0.3215;0.7858;
786.3000;0.3232;0.7932;
786.6000;0.3232;0.7982;
786.9000;0.3240;0.7858;
787.2000;0.3256;0.7858;
787.5000;0.3232;0.7783;
787.8000;0.3232;0.7733;
788.1000;0.3223;0.7609;
788.4000;0.3223;0.7584;
788.7000;0.3240;0.7559;
789.0000;0.3346;0.7883;
789.3000;0.3240;0.7510;
789.6000;0.3232;0.7559;
789.9000;0.3240;0.7559;
790.2000;0.3264;0.7659;
790.5000;0.3232;0.7659;
790.8000;0.3240;0.7634;
791.1000;0.3240;0.7684;
791.4000;0.3215;0.7559;
791.7000;0.3207;0.7609;
792.0000;0.3215;0.7609;
792.3000;0.3207;0.7584;
792.6000;0.3223;0.7684;
792.9000;0.3232;0.7708;
793.2000;0.3240;0.7733;
793.5000;0.3240;0.7758;
793.8000;0.3191;0.7609;
794.1000;0.3223;0.7708;
794.4000;0.3215;0.7684;
794.7000;0.3215;0.7584;
795.0000;0.3199;0.7460;
795.3000;0.3215;0.7609;
795.6000;0.3199;0.7584;
795.9000;0.3207;0.7584;
796.2000;0.3199;0.7634;
796.5000;0.3199;0.7733;
796.8000;0.3232;0.7833;
797.1000;0.3215;0.7858;
797.4000;0.3240;0.7808;
797.7000;0.3256;0.7808;
798.0000;0.3232;0.7783;
798.3000;0.3240;0.7858;
798.6000;0.3256;0.7932;
798.9000;0.3199;0.7783;
799.2000;0.3207;0.7833;
799.5000;0.3240;0.7932;
799.8000;0.3223;0.7758;
800.1000;0.3142;0.7485;
800.4000;0.3280;0.7858;
800.7000;0.3199;0.7684;
801.0000;0.3215;0.7733;
801.3000;0.3199;0.7634;
801.6000;0.3183;0.7584;
801.9000;0.3207;0.7684;
802.2000;0.3199;0.7684;
802.5000;0.3215;0.7659;
802.8000;0.3199;0.7609;
803.1000;0.3215;0.7708;
803.4000;0.3223;0.7708;
803.7000;0.3280;0.7808;
804.0000;0.3207;0.7609;
804.3000;0.3223;0.7485;
804.6000;0.3215;0.7460;
804.9000;0.3223;0.7609;
805.2000;0.3207;0.7584;
805.5000;0.3199;0.7534;
805.8000;0.3199;0.7485;
806.1000;0.3199;0.7559;
806.4000;0.3199;0.7559;
806.7000;0.3223;0.7559;
807.0000;0.3207;0.7584;
807.3000;0.3215;0.7584;
807.6000;0.3215;0.7609;
807.9000;0.3207;0.7684;
808.2000;0.3240;0.7733;
808.5000;0.3232;0.7708;
808.8000;0.3215;0.7659;
809.1000;0.3232;0.7783;
809.4000;0.3215;0.7783;
809.7000;0.3223;0.7883;
810.0000;0.3223;0.7932;
810.3000;0.3175;0.7883;
810.6000;0.3207;0.7907;
810.9000;0.3191;0.7808;
811.2000;0.3199;0.7758;
811.5000;0.3232;0.7659;
811.8000;0.3199;0.7559;
812.1000;0.3199;0.7534;
812.4000;0.3215;0.7584;
812.7000;0.3199;0.7559;
813.0000;0.3215;0.7634;
813.3000;0.3223;0.7659;
813.6000;0.3215;0.7659;
813.9000;0.3223;0.7659;
814.2000;0.3223;0.7733;
814.5000;0.3199;0.7758;
814.8000;0.3207;0.7659;
815.1000;0.3199;0.7634;
815.4000;0.3199;0.7634;
815.7000;0.3232;0.7758;
816.0000;0.3207;0.7733;
816.3000;0.3175;0.7684;
816.6000;0.3175;0.7559;
816.9000;0.3207;0.7634;
817.2000;0.3166;0.7634;
817.5000;0.3199;0.7733;
817.8000;0.3207;0.7808;
818.1000;0.3223;0.7883;
818.4000;0.3207;0.7858;
818.7000;0.3215;0.7808;
819.0000;0.3223;0.7783;
819.3000;0.3223;0.7808;
819.6000;0.3199;0.7733;
819.9000;0.3232;0.7833;
820.2000;0.3199;0.7733;
820.5000;0.3175;0.7559;
820.8000;0.3199;0.7684;
821.1000;0.3223;0.7684;
821.4000;0.3248;0.7708;
821.7000;0.3207;0.7684;
822.0000;0.3215;0.7708;
822.3000;0.3223;0.7733;
822.6000;0.3215;0.7783;
822.9000;0.3207;0.7808;
823.2000;0.3223;0.7858;
823.5000;0.3232;0.7932;
823.8000;0.3207;0.7833;
824.1000;0.3215;0.7833;
824.4000;0.3215;0.7883;
824.7000;0.3199;0.7907;
825.0000;0.3207;0.7883;
825.3000;0.3272;0.8131;
825.6000;0.3199;0.7858;
825.9000;0.3223;0.7907;
826.2000;0.3199;0.7907;
826.5000;0.3215;0.7982;
826.8000;0.3215;0.7932;
827.1000;0.3223;0.8007;
827.4000;0.3215;0.7982;
827.7000;0.3313;0.8231;
828.0000;0.3207;0.7808;
828.3000;0.3207;0.7708;
828.6000;0.3223;0.7733;
828.9000;0.3223;0.7833;
829.2000;0.3199;0.7733;
829.5000;0.3207;0.7659;
829.8000;0.3207;0.7609;
830.1000;0.3207;0.7609;
830.4000;0.3215;0.7634;
830.7000;0.3256;0.7783;
831.0000;0.3199;0.7733;
831.3000;0.3175;0.7684;
831.6000;0.3207;0.7733;
831.9000;0.3199;0.7758;
832.2000;0.3215;0.7858;
832.5000;0.3223;0.7808;
832.8000;0.3191;0.7733;
833.1000;0.3223;0.7858;
833.4000;0.3256;0.8007;
833.7000;0.3207;0.7858;
834.0000;0.3166;0.7783;
834.3000;0.3207;0.7808;
834.6000;0.3191;0.7708;
834.9000;0.3223;0.7808;
835.2000;0.3215;0.7708;
835.5000;0.3248;0.7708;
835.8000;0.3207;0.7609;
836.1000;0.3199;0.7609;
836.4000;0.3215;0.7634;
836.7000;0.3199;0.7584;
837.0000;0.3215;0.7659;
837.3000;0.3199;0.7609;
837.6000;0.3207;0.7708;
837.9000;0.3142;0.7485;
838.2000;0.3232;0.7733;
838.5000;0.3199;0.7758;
838.8000;0.3215;0.7758;
839.1000;0.3175;0.7684;
839.4000;0.3199;0.7758;
839.7000;0.3215;0.7783;
840.0000;0.3223;0.7783;
840.3000;0.3175;0.7758;
840.6000;0.3199;0.7733;
840.9000;0.3183;0.7733;
841.2000;0.3207;0.7708;
841.5000;0.3207;0.7858;
841.8000;0.3223;0.7883;
842.1000;0.3207;0.7808;
842.4000;0.3207;0.7708;
842.7000;0.3223;0.7684;
843.0000;0.3207;0.7684;
843.3000;0.3207;0.7758;
843.6000;0.3207;0.7808;
843.9000;0.3215;0.7858;
844.2000;0.3207;0.7684;
844.5000;0.3223;0.7808;
844.8000;0.3215;0.7783;
845.1000;0.3183;0.7758;
845.4000;0.3223;0.7833;
845.7000;0.3207;0.7758;
846.0000;0.3183;0.7708;
846.3000;0.3183;0.7808;
846.6000;0.3199;0.7858;
846.9000;0.3199;0.7858;
847.2000;0.3207;0.7883;
847.5000;0.3240;0.7907;
847.8000;0.3215;0.7783;
848.1000;0.3215;0.7808;
848.4000;0.3199;0.7733;
848.7000;0.3207;0.7733;
849.0000;0.3207;0.7708;
849.3000;0.3215;0.7708;
849.6000;0.3199;0.7708;
849.9000;0.3183;0.7634;
850.2000;0.3191;0.7708;
850.5000;0.3199;0.7733;
850.8000;0.3223;0.7783;
851.1000;0.3183;0.7634;
851.4000;0.3199;0.7559;
851.7000;0.3199;0.7534;
852.0000;0.3191;0.7435;
852.3000;0.3191;0.7335;
852.6000;0.3199;0.7410;
852.9000;0.3207;0.7410;
853.2000;0.3207;0.7360;
853.5000;0.3215;0.7410;
853.8000;0.3183;0.7385;
854.1000;0.3199;0.7410;
854.4000;0.3175;0.7261;
854.7000;0.3207;0.7385;
855.0000;0.3207;0.7534;
855.3000;0.3199;0.7485;
855.6000;0.3183;0.7485;
855.9000;0.3183;0.7410;
856.2000;0.3199;0.7534;
856.5000;0.3297;0.7808;
856.8000;0.3207;0.7584;
857.1000;0.3207;0.7510;
857.4000;0.3223;0.7584;
857.7000;0.3199;0.7684;
858.0000;0.3207;0.7659;
858.3000;0.3215;0.7733;
858.6000;0.3223;0.7783;
858.9000;0.3223;0.7758;
859.2000;0.3199;0.7733;
859.5000;0.3207;0.7758;
859.8000;0.3215;0.7758;
860.1000;0.3199;0.7684;
860.4000;0.3199;0.7733;
860.7000;0.3199;0.7708;
861.0000;0.3199;0.7634;
861.3000;0.3183;0.7634;
861.6000;0.3215;0.7659;
861.9000;0.3199;0.7684;
862.2000;0.3199;0.7733;
862.5000;0.3191;0.7708;
862.8000;0.3199;0.7708;
863.1000;0.3215;0.7659;
863.4000;0.3183;0.7609;
863.7000;0.3191;0.7659;
864.0000;0.3199;0.7559;
864.3000;0.3207;0.7510;
864.6000;0.3183;0.7510;
864.9000;0.3207;0.7559;
865.2000;0.3191;0.7435;
865.5000;0.3183;0.7410;
865.8000;0.3289;0.7659;
866.1000;0.3183;0.7460;
866.4000;0.3207;0.7485;
866.7000;0.3199;0.7460;
867.0000;0.3191;0.7559;
867.3000;0.3199;0.7510;
867.6000;0.3199;0.7360;
867.9000;0.3199;0.7385;
868.2000;0.3207;0.7385;
868.5000;0.3199;0.7435;
868.8000;0.3199;0.7360;
869.1000;0.3248;0.7559;
869.4000;0.3215;0.7534;
869.7000;0.3199;0.7559;
870.0000;0.3256;0.7684;
870.3000;0.3199;0.7534;
870.6000;0.3183;0.7559;
870.9000;0.3183;0.7510;
871.2000;0.3183;0.7485;
871.5000;0.3199;0.7510;
871.8000;0.3199;0.7485;
872.1000;0.3183;0.7485;
872.4000;0.3199;0.7559;
872.7000;0.3199;0.7584;
873.0000;0.3150;0.7460;
873.3000;0.3199;0.7609;
873.6000;0.3191;0.7609;
873.9000;0.3207;0.7609;
874.2000;0.3191;0.7634;
874.5000;0.3199;0.7609;
874.8000;0.3191;0.7609;
875.1000;0.3207;0.7684;
875.4000;0.3175;0.7559;
875.7000;0.3191;0.7584;
876.0000;0.3166;0.7485;
876.3000;0.3183;0.7559;
876.6000;0.3158;0.7584;
876.9000;0.3166;0.7559;
877.2000;0.3191;0.7584;
877.5000;0.3166;0.7634;
877.8000;0.3207;0.7659;
878.1000;0.3175;0.7584;
878.4000;0.3207;0.7584;
878.7000;0.3215;0.7510;
879.0000;0.3150;0.7335;
879.3000;0.3191;0.7410;
879.6000;0.3215;0.7460;
879.9000;0.3207;0.7485;
880.2000;0.3191;0.7609;
880.5000;0.3199;0.7634;
880.8000;0.3215;0.7659;
881.1000;0.3109;0.7385;
881.4000;0.3207;0.7485;
881.7000;0.3183;0.7485;
882.0000;0.3207;0.7584;
882.3000;0.3199;0.7584;
882.6000;0.3191;0.7584;
882.9000;0.3191;0.7634;
883.2000;0.3199;0.7659;
883.5000;0.3199;0.7609;
883.8000;0.3191;0.7534;
884.1000;0.3191;0.7460;
884.4000;0.3183;0.7435;
884.7000;0.3207;0.7410;
885.0000;0.3199;0.7460;
885.3000;0.3183;0.7410;
885.6000;0.3183;0.7311;
885.9000;0.3191;0.7360;
886.2000;0.3175;0.7335;
886.5000;0.3183;0.7186;
886.8000;0.3191;0.7236;
887.1000;0.3223;0.7261;
887.4000;0.3256;0.7360;
887.7000;0.3207;0.7286;
888.0000;0.3199;0.7335;
888.3000;0.3166;0.7186;
888.6000;0.3183;0.7261;
888.9000;0.3199;0.7261;
889.2000;0.3191;0.7186;
889.5000;0.3207;0.7311;
889.8000;0.3191;0.7335;
890.1000;0.3215;0.7385;
890.4000;0.3207;0.7385;
890.7000;0.3199;0.7311;
891.0000;0.3215;0.7311;
891.3000;0.3199;0.7385;
891.6000;0.3191;0.7335;
891.9000;0.3191;0.7311;
892.2000;0.3191;0.7335;
892.5000;0.3223;0.7460;
892.8000;0.3191;0.7360;
893.1000;0.3191;0.7360;
893.4000;0.3183;0.7410;
893.7000;0.3223;0.7485;
894.0000;0.3199;0.7385;
894.3000;0.3191;0.7460;
894.6000;0.3207;0.7485;
894.9000;0.3199;0.7485;
895.2000;0.3207;0.7510;
895.5000;0.3183;0.7510;
895.8000;0.3232;0.7609;
896.1000;0.3223;0.7609;
896.4000;0.3215;0.7659;
896.7000;0.3166;0.7708;
897.0000;0.3183;0.7659;
897.3000;0.3183;0.7609;
897.6000;0.3175;0.7609;
897.9000;0.3191;0.7659;
898.2000;0.3199;0.7609;
898.5000;0.3093;0.7311;
898.8000;0.3264;0.7733;
899.1000;0.3272;0.7783;
899.4000;0.3191;0.7659;
899.7000;0.3191;0.7708;
900.0000;0.3191;0.7684;
900.3000;0.3183;0.7684;
900.6000;0.3207;0.7634;
900.9000;0.3191;0.7609;
901.2000;0.3175;0.7609;
901.5000;0.3191;0.7659;
901.8000;0.3183;0.7634;
902.1000;0.3191;0.7708;
902.4000;0.3191;0.7659;
902.7000;0.3101;0.7460;
903.0000;0.3207;0.7684;
903.3000;0.3183;0.7708;
903.6000;0.3191;0.7684;
903.9000;0.3191;0.7684;
904.2000;0.3199;0.7684;
904.5000;0.3183;0.7659;
904.8000;0.3207;0.7758;
905.1000;0.3199;0.7783;
905.4000;0.3232;0.7808;
905.7000;0.3215;0.7684;
906.0000;0.3191;0.7708;
906.3000;0.3191;0.7634;
906.6000;0.3175;0.7634;
906.9000;0.3199;0.7609;
907.2000;0.3183;0.7485;
907.5000;0.3215;0.7485;
907.8000;0.3166;0.7510;
908.1000;0.3158;0.7510;
908.4000;0.3175;0.7510;
908.7000;0.3175;0.7609;
909.0000;0.3158;0.7559;
909.3000;0.3207;0.7534;
909.6000;0.3175;0.7534;
909.9000;0.3207;0.7609;
910.2000;0.3191;0.7559;
910.5000;0.3183;0.7534;
910.8000;0.3191;0.7559;
911.1000;0.3215;0.7684;
911.4000;0.3175;0.7634;
911.7000;0.3175;0.7684;
912.0000;0.3183;0.7708;
912.3000;0.3191;0.7708;
912.6000;0.3215;0.7708;
912.9000;0.3166;0.7534;
913.2000;0.3191;0.7634;
913.5000;0.3175;0.7684;
913.8000;0.3191;0.7758;
914.1000;0.3166;0.7659;
914.4000;0.3150;0.7584;
914.7000;0.3191;0.7634;
915.0000;0.3199;0.7708;
915.3000;0.3199;0.7758;
915.6000;0.3215;0.7833;
915.9000;0.3199;0.7783;
916.2000;0.3166;0.7708;
916.5000;0.3199;0.7758;
916.8000;0.3215;0.7932;
917.1000;0.3199;0.7932;
917.4000;0.3191;0.7858;
917.7000;0.3158;0.7758;
918.0000;0.3183;0.7733;
918.3000;0.3207;0.7783;
918.6000;0.3191;0.7758;
918.9000;0.3126;0.7659;
919.2000;0.3191;0.7858;
919.5000;0.3134;0.7634;
919.8000;0.3183;0.7783;
920.1000;0.3191;0.7808;
920.4000;0.3183;0.7808;
920.7000;0.3191;0.7783;
921.0000;0.3175;0.7684;
921.3000;0.3199;0.7684;
921.6000;0.3223;0.7758;
921.9000;0.3191;0.7733;
922.2000;0.3191;0.7684;
922.5000;0.3191;0.7684;
922.8000;0.3191;0.7708;
923.1000;0.3199;0.7783;
923.4000;0.3191;0.7733;
923.7000;0.3183;0.7684;
924.0000;0.3207;0.7659;
924.3000;0.3199;0.7659;
924.6000;0.3183;0.7634;
924.9000;0.3191;0.7708;
925.2000;0.3191;0.7708;
925.5000;0.3215;0.7708;
925.8000;0.3183;0.7733;
926.1000;0.3199;0.7808;
926.4000;0.3183;0.7808;
926.7000;0.3191;0.7733;
927.0000;0.3191;0.7708;
927.3000;0.3191;0.7659;
927.6000;0.3248;0.7858;
927.9000;0.3191;0.7783;
928.2000;0.3191;0.7733;
928.5000;0.3199;0.7708;
928.8000;0.3175;0.7510;
929.1000;0.3183;0.7534;
929.4000;0.3183;0.7634;
929.7000;0.3158;0.7609;
930.0000;0.3175;0.7708;
930.3000;0.3175;0.7758;
930.6000;0.3191;0.7883;
930.9000;0.3166;0.7808;
931.2000;0.3191;0.7758;
931.5000;0.3199;0.7684;
931.8000;0.3191;0.7659;
932.1000;0.3199;0.7659;
932.4000;0.3183;0.7609;
932.7000;0.3191;0.7684;
933.0000;0.3215;0.7833;
933.3000;0.3175;0.7708;
933.6000;0.3207;0.7708;
933.9000;0.3183;0.7733;
934.2000;0.3264;0.7833;
934.5000;0.3199;0.7758;
934.8000;0.3199;0.7708;
935.1000;0.3150;0.7684;
935.4000;0.3191;0.7758;
935.7000;0.3183;0.7684;
936.0000;0.3175;0.7708;
936.3000;0.3183;0.7733;
936.6000;0.3191;0.7708;
936.9000;0.3183;0.7634;
937.2000;0.3158;0.7634;
937.5000;0.3207;0.7808;
937.8000;0.3199;0.7808;
938.1000;0.3223;0.7932;
938.4000;0.3256;0.8007;
938.7000;0.3199;0.7957;
939.0000;0.3191;0.7833;
939.3000;0.3175;0.7783;
939.6000;0.3223;0.7833;
939.9000;0.3150;0.7634;
940.2000;0.3191;0.7684;
940.5000;0.3134;0.7559;
940.8000;0.3175;0.7659;
941.1000;0.3183;0.7684;
941.4000;0.3183;0.7708;
941.7000;0.3215;0.7708;
942.0000;0.3191;0.7659;
942.3000;0.3240;0.7733;
942.6000;0.3166;0.7684;
942.9000;0.3183;0.7708;
943.2000;0.3207;0.7708;
943.5000;0.3289;0.7883;
943.8000;0.3199;0.7659;
944.1000;0.3175;0.7584;
944.4000;0.3199;0.7634;
944.7000;0.3183;0.7584;
945.0000;0.3199;0.7609;
945.3000;0.3166;0.7485;
945.6000;0.3199;0.7584;
945.9000;0.3183;0.7634;
946.2000;0.3191;0.7733;
946.5000;0.3150;0.7758;
946.8000;0.3183;0.7858;
947.1000;0.3175;0.7907;
947.4000;0.3126;0.7783;
947.7000;0.3183;0.8007;
948.0000;0.3183;0.8007;
948.3000;0.3183;0.8007;
948.6000;0.3232;0.8081;
948.9000;0.3199;0.7957;
949.2000;0.3207;0.7982;
949.5000;0.3175;0.7907;
949.8000;0.3199;0.7858;
950.1000;0.3175;0.7833;
950.4000;0.3240;0.8032;
950.7000;0.3199;0.7907;
951.0000;0.3199;0.7808;
951.3000;0.3191;0.7808;
951.6000;0.3191;0.7808;
951.9000;0.3199;0.7883;
952.2000;0.3175;0.7783;
952.5000;0.3183;0.7783;
952.8000;0.3191;0.7733;
953.1000;0.3191;0.7758;
953.4000;0.3175;0.7684;
953.7000;0.3166;0.7634;
954.0000;0.3175;0.7733;
954.3000;0.3175;0.7783;
954.6000;0.3199;0.7833;
954.9000;0.3175;0.7708;
955.2000;0.3166;0.7634;
955.5000;0.3191;0.7684;
955.8000;0.3175;0.7708;
956.1000;0.3183;0.7684;
956.4000;0.3183;0.7758;
956.7000;0.3175;0.7758;
957.0000;0.3191;0.7858;
957.3000;0.3183;0.7758;
957.6000;0.3150;0.7684;
957.9000;0.3166;0.7684;
958.2000;0.3191;0.7758;
958.5000;0.3183;0.7708;
958.8000;0.3191;0.7684;
959.1000;0.3158;0.7634;
959.4000;0.3199;0.7783;
959.7000;0.3191;0.7733;
960.0000;0.3166;0.7659;
960.3000;0.3126;0.7609;
960.6000;0.3199;0.7808;
960.9000;0.3183;0.7833;
961.2000;0.3183;0.7758;
961.5000;0.3175;0.7659;
961.8000;0.3191;0.7733;
962.1000;0.3166;0.7733;
962.4000;0.3191;0.7758;
962.7000;0.3175;0.7733;
963.0000;0.3191;0.7808;
963.3000;0.3207;0.7858;
963.6000;0.3183;0.7758;
963.9000;0.3175;0.7758;
964.2000;0.3175;0.7733;
964.5000;0.3175;0.7684;
964.8000;0.3191;0.7684;
965.1000;0.3199;0.7684;
965.4000;0.3183;0.7758;
965.7000;0.3183;0.7783;
966.0000;0.3199;0.7708;
966.3000;0.3166;0.7559;
966.6000;0.3175;0.7559;
966.9000;0.3175;0.7534;
967.2000;0.3199;0.7609;
967.5000;0.3183;0.7609;
967.8000;0.3191;0.7659;
968.1000;0.3199;0.7634;
968.4000;0.3175;0.7609;
968.7000;0.3183;0.7584;
969.0000;0.3183;0.7584;
969.3000;0.3175;0.7659;
969.6000;0.3191;0.7684;
969.9000;0.3175;0.7659;
970.2000;0.3183;0.7659;
970.5000;0.3199;0.7708;
970.8000;0.3191;0.7733;
971.1000;0.3175;0.7708;
971.4000;0.3166;0.7609;
971.7000;0.3158;0.7584;
972.0000;0.3191;0.7758;
972.3000;0.3183;0.7708;
972.6000;0.3101;0.7435;
972.9000;0.3166;0.7609;
973.2000;0.3183;0.7733;
973.5000;0.3158;0.7758;
973.8000;0.3183;0.7808;
974.1000;0.3199;0.7758;
974.4000;0.3191;0.7609;
974.7000;0.3191;0.7634;
975.0000;0.3183;0.7609;
975.3000;0.3183;0.7584;
975.6000;0.3183;0.7609;
975.9000;0.3191;0.7783;
976.2000;0.3142;0.7609;
976.5000;0.3175;0.7609;
976.8000;0.3175;0.7684;
977.1000;0.3158;0.7634;
977.4000;0.3166;0.7584;
977.7000;0.3199;0.7559;
978.0000;0.3183;0.7510;
978.3000;0.3191;0.7510;
978.6000;0.3166;0.7385;
978.9000;0.3142;0.7360;
979.2000;0.3183;0.7435;
979.5000;0.3207;0.7609;
979.8000;0.3191;0.7559;
980.1000;0.3175;0.7534;
980.4000;0.3175;0.7559;
980.7000;0.3175;0.7584;
981.0000;0.3191;0.7609;
981.3000;0.3175;0.7609;
981.6000;0.3191;0.7584;
981.9000;0.3183;0.7634;
982.2000;0.3183;0.7684;
982.5000;0.3166;0.7684;
982.8000;0.3166;0.7659;
983.1000;0.3175;0.7609;
983.4000;0.3109;0.7385;
983.7000;0.3175;0.7534;
984.0000;0.3207;0.7559;
984.3000;0.3166;0.7485;
984.6000;0.3183;0.7485;
984.9000;0.3166;0.7460;
985.2000;0.3175;0.7485;
985.5000;0.3158;0.7435;
985.8000;0.3166;0.7485;
986.1000;0.3183;0.7584;
986.4000;0.3166;0.7684;
986.7000;0.3175;0.7733;
987.0000;0.3183;0.7708;
987.3000;0.3183;0.7758;
987.6000;0.3175;0.7733;
987.9000;0.3183;0.7758;
988.2000;0.3085;0.7410;
988.5000;0.3175;0.7609;
988.8000;0.3191;0.7609;
989.1000;0.3175;0.7609;
989.4000;0.3175;0.7559;
989.7000;0.3175;0.7559;
990.0000;0.3142;0.7609;
990.3000;0.3191;0.7808;
990.6000;0.3191;0.7733;
990.9000;0.3199;0.7684;
991.2000;0.3118;0.7485;
991.5000;0.3109;0.7559;
991.8000;0.3183;0.7708;
992.1000;0.3166;0.7609;
992.4000;0.3175;0.7584;
992.7000;0.3199;0.7634;
993.0000;0.3199;0.7634;
993.3000;0.3175;0.7634;
993.6000;0.3183;0.7659;
993.9000;0.3085;0.7435;
994.2000;0.3199;0.7659;
994.5000;0.3158;0.7584;
994.8000;0.3166;0.7584;
995.1000;0.3175;0.7659;
995.4000;0.3166;0.7684;
995.7000;0.3166;0.7559;
996.0000;0.3158;0.7584;
996.3000;0.3191;0.7684;
996.6000;0.3175;0.7659;
996.9000;0.3166;0.7584;
997.2000;0.3183;0.7584;
997.5000;0.3191;0.7609;
997.8000;0.3199;0.7584;
998.1000;0.3150;0.7460;
998.4000;0.3183;0.7460;
998.7000;0.3183;0.7559;
999.0000;0.3191;0.7634;
999.3000;0.3199;0.7659;
999.6000;0.3199;0.7708;
999.9000;0.3191;0.7758;
1000.2000;0.3215;0.7808;
1000.5000;0.3183;0.7758;
1000.8000;0.3183;0.7733;
1001.1000;0.3183;0.7659;
1001.4000;0.3175;0.7659;
1001.7000;0.3175;0.7634;
1002.0000;0.3166;0.7659;
1002.3000;0.3166;0.7659;
1002.6000;0.3142;0.7584;
1002.9000;0.3191;0.7708;
1003.2000;0.3142;0.7659;
1003.5000;0.3175;0.7659;
1003.8000;0.3183;0.7708;
1004.1000;0.3183;0.7659;
1004.4000;0.3175;0.7559;
1004.7000;0.3175;0.7584;
1005.0000;0.3175;0.7684;
1005.3000;0.3142;0.7584;
1005.6000;0.3166;0.7609;
1005.9000;0.3191;0.7708;
1006.2000;0.3175;0.7684;
1006.5000;0.3175;0.7684;
1006.8000;0.3166;0.7584;
1007.1000;0.3109;0.7485;
1007.4000;0.3166;0.7708;
1007.7000;0.3183;0.7808;
1008.0000;0.3183;0.7783;
1008.3000;0.3166;0.7758;
1008.6000;0.3183;0.7783;
1008.9000;0.3158;0.7758;
1009.2000;0.3191;0.7758;
1009.5000;0.3158;0.7708;
1009.8000;0.3175;0.7733;
1010.1000;0.3183;0.7758;
1010.4000;0.3142;0.7684;
1010.7000;0.3191;0.7733;
1011.0000;0.3183;0.7758;
1011.3000;0.3183;0.7783;
1011.6000;0.3166;0.7684;
1011.9000;0.3175;0.7708;
1012.2000;0.3175;0.7659;
1012.5000;0.3175;0.7584;
1012.8000;0.3207;0.7684;
1013.1000;0.3183;0.7634;
1013.4000;0.3223;0.7808;
1013.7000;0.3166;0.7684;
1014.0000;0.3166;0.7708;
1014.3000;0.3175;0.7634;
1014.6000;0.3126;0.7485;
1014.9000;0.3166;0.7510;
1015.2000;0.3158;0.7460;
1015.5000;0.3166;0.7460;
1015.8000;0.3199;0.7485;
1016.1000;0.3158;0.7435;
1016.4000;0.3207;0.7510;
1016.7000;0.3183;0.7485;
1017.0000;0.3175;0.7435;
1017.3000;0.3175;0.7460;
1017.6000;0.3109;0.7360;
1017.9000;0.3150;0.7510;
1018.2000;0.3142;0.7460;
1018.5000;0.3142;0.7485;
1018.8000;0.3150;0.7559;
1019.1000;0.3150;0.7485;
1019.4000;0.3118;0.7435;
1019.7000;0.3175;0.7609;
1020.0000;0.3158;0.7584;
1020.3000;0.3191;0.7708;
1020.6000;0.3158;0.7733;
1020.9000;0.3150;0.7684;
1021.2000;0.3158;0.7684;
1021.5000;0.3175;0.7708;
1021.8000;0.3175;0.7733;
1022.1000;0.3158;0.7733;
1022.4000;0.3175;0.7733;
1022.7000;0.3199;0.7783;
1023.0000;0.3183;0.7833;
1023.3000;0.3191;0.7783;
1023.6000;0.3166;0.7708;
1023.9000;0.3158;0.7708;
1024.2000;0.3207;0.7833;
1024.5000;0.3207;0.7833;
1024.8000;0.3150;0.7758;
1025.1000;0.3166;0.7783;
1025.4000;0.3158;0.7708;
1025.7000;0.3191;0.7783;
1026.0000;0.3223;0.7982;
1026.3000;0.3207;0.7907;
1026.6000;0.3061;0.7410;
1026.9000;0.3134;0.7659;
1027.2000;0.3313;0.8057;
1027.5000;0.3199;0.7708;
1027.8000;0.3199;0.7833;
1028.1000;0.3150;0.7833;
1028.4000;0.3175;0.7858;
1028.7000;0.3199;0.7783;
1029.0000;0.3093;0.7410;
1029.3000;0.3199;0.7758;
1029.6000;0.3150;0.7659;
1029.9000;0.3183;0.7858;
1030.2000;0.3166;0.7858;
1030.5000;0.3183;0.7808;
1030.8000;0.3150;0.7708;
1031.1000;0.3175;0.7783;
1031.4000;0.3150;0.7758;
1031.7000;0.3191;0.7783;
1032.0000;0.3199;0.7733;
1032.3000;0.3166;0.7684;
1032.6000;0.3175;0.7833;
1032.9000;0.3223;0.7982;
1033.2000;0.3191;0.8032;
1033.5000;0.3166;0.7957;
1033.8000;0.3232;0.8032;
1034.1000;0.3134;0.7783;
1034.4000;0.3191;0.8032;
1034.7000;0.3191;0.7957;
1035.0000;0.3191;0.8007;
1035.3000;0.3264;0.8181;
1035.6000;0.3199;0.7982;
1035.9000;0.3223;0.7957;
1036.2000;0.3183;0.7858;
1036.5000;0.3158;0.7758;
1036.8000;0.3175;0.7733;
1037.1000;0.3175;0.7783;
1037.4000;0.3175;0.7783;
1037.7000;0.3166;0.7659;
1038.0000;0.3191;0.7634;
1038.3000;0.3272;0.7932;
1038.6000;0.3207;0.7733;
1038.9000;0.3118;0.7609;
1039.2000;0.3166;0.7708;
1039.5000;0.3166;0.7708;
1039.8000;0.3166;0.7684;
1040.1000;0.3166;0.7684;
1040.4000;0.3183;0.7733;
1040.7000;0.3183;0.7708;
1041.0000;0.3199;0.7708;
1041.3000;0.3150;0.7609;
1041.6000;0.3158;0.7559;
1041.9000;0.3207;0.7708;
1042.2000;0.3166;0.7634;
1042.5000;0.3191;0.7659;
1042.8000;0.3191;0.7684;
1043.1000;0.3199;0.7808;
1043.4000;0.3183;0.7858;
1043.7000;0.3191;0.7858;
1044.0000;0.3175;0.7808;
1044.3000;0.3158;0.7833;
1044.6000;0.3199;0.7883;
1044.9000;0.3175;0.7858;
1045.2000;0.3215;0.7982;
1045.5000;0.3183;0.7932;
1045.8000;0.3183;0.7858;
1046.1000;0.3215;0.7808;
1046.4000;0.3183;0.7708;
1046.7000;0.3175;0.7659;
1047.0000;0.3150;0.7684;
1047.3000;0.3175;0.7758;
1047.6000;0.3175;0.7783;
1047.9000;0.3175;0.7733;
1048.2000;0.3183;0.7758;
1048.5000;0.3166;0.7808;
1048.8000;0.3183;0.7858;
1049.1000;0.3166;0.7758;
1049.4000;0.3272;0.7957;
1049.7000;0.3191;0.7733;
1050.0000;0.3223;0.7858;
1050.3000;0.3150;0.7808;
1050.6000;0.3166;0.7833;
1050.9000;0.3158;0.7808;
1051.2000;0.3175;0.7833;
1051.5000;0.3134;0.7758;
1051.8000;0.3183;0.7932;
1052.1000;0.3183;0.7808;
1052.4000;0.3191;0.7684;
1052.7000;0.3199;0.7684;
1053.0000;0.3166;0.7659;
1053.3000;0.3158;0.7584;
1053.6000;0.3166;0.7609;
1053.9000;0.3175;0.7559;
1054.2000;0.3166;0.7510;
1054.5000;0.3183;0.7510;
1054.8000;0.3183;0.7485;
1055.1000;0.3191;0.7584;
1055.4000;0.3191;0.7609;
1055.7000;0.3166;0.7460;
1056.0000;0.3175;0.7510;
1056.3000;0.3158;0.7460;
1056.6000;0.3183;0.7559;
1056.9000;0.3175;0.7634;
1057.2000;0.3183;0.7684;
1057.5000;0.3175;0.7659;
1057.8000;0.3166;0.7659;
1058.1000;0.3158;0.7708;
1058.4000;0.3175;0.7783;
1058.7000;0.3207;0.7808;
1059.0000;0.3183;0.7634;
1059.3000;0.3199;0.7634;
1059.6000;0.3175;0.7485;
1059.9000;0.3240;0.7708;
1060.2000;0.3150;0.7485;
1060.5000;0.3134;0.7435;
1060.8000;0.3158;0.7460;
1061.1000;0.3158;0.7410;
1061.4000;0.3158;0.7385;
1061.7000;0.3150;0.7286;
1062.0000;0.3166;0.7360;
1062.3000;0.3183;0.7385;
1062.6000;0.3183;0.7460;
1062.9000;0.3150;0.7360;
1063.2000;0.3150;0.7410;
1063.5000;0.3183;0.7584;
1063.8000;0.3150;0.7534;
1064.1000;0.3199;0.7634;
1064.4000;0.3175;0.7609;
1064.7000;0.3175;0.7534;
1065.0000;0.3183;0.7609;
1065.3000;0.3158;0.7584;
1065.6000;0.3175;0.7510;
1065.9000;0.3175;0.7534;
1066.2000;0.3199;0.7485;
1066.5000;0.3175;0.7385;
1066.8000;0.3158;0.7435;
1067.1000;0.3166;0.7410;
1067.4000;0.3150;0.7410;
1067.7000;0.3150;0.7360;
1068.0000;0.3158;0.7460;
1068.3000;0.3207;0.7584;
1068.6000;0.3166;0.7534;
1068.9000;0.3183;0.7659;
1069.2000;0.3191;0.7684;
1069.5000;0.3166;0.7708;
1069.8000;0.3175;0.7733;
1070.1000;0.3183;0.7659;
1070.4000;0.3191;0.7733;
1070.7000;0.3175;0.7708;
1071.0000;0.3166;0.7634;
1071.3000;0.3191;0.7684;
1071.6000;0.3175;0.7559;
1071.9000;0.3166;0.7559;
1072.2000;0.3150;0.7559;
1072.5000;0.3175;0.7584;
1072.8000;0.3175;0.7684;
1073.1000;0.3183;0.7634;
1073.4000;0.3150;0.7559;
1073.7000;0.3183;0.7534;
1074.0000;0.3077;0.7261;
1074.3000;0.3166;0.7460;
1074.6000;0.3166;0.7460;
1074.9000;0.3183;0.7534;
1075.2000;0.3183;0.7559;
1075.5000;0.3175;0.7534;
1075.8000;0.3150;0.7485;
1076.1000;0.3175;0.7510;
1076.4000;0.3183;0.7584;
1076.7000;0.3183;0.7460;
1077.0000;0.3183;0.7460;
1077.3000;0.3166;0.7460;
1077.6000;0.3175;0.7584;
1077.9000;0.3166;0.7534;
1078.2000;0.3166;0.7534;
1078.5000;0.3175;0.7584;
1078.8000;0.3175;0.7559;
1079.1000;0.3158;0.7510;
1079.4000;0.3199;0.7659;
1079.7000;0.3166;0.7659;
1080.0000;0.3183;0.7659;
1080.3000;0.3191;0.7733;
1080.6000;0.3183;0.7609;
1080.9000;0.3166;0.7659;
1081.2000;0.3158;0.7659;
1081.5000;0.3142;0.7609;
1081.8000;0.3175;0.7708;
1082.1000;0.3166;0.7684;
1082.4000;0.3158;0.7659;
1082.7000;0.3175;0.7758;
1083.0000;0.3183;0.7733;
1083.3000;0.3069;0.7460;
1083.6000;0.3175;0.7634;
1083.9000;0.3183;0.7609;
1084.2000;0.3191;0.7684;
1084.5000;0.3175;0.7684;
1084.8000;0.3183;0.7684;
1085.1000;0.3175;0.7659;
1085.4000;0.3166;0.7659;
1085.7000;0.3166;0.7659;
1086.0000;0.3166;0.7733;
1086.3000;0.3158;0.7733;
1086.6000;0.3183;0.7733;
1086.9000;0.3166;0.7684;
1087.2000;0.3175;0.7733;
1087.5000;0.3158;0.7808;
1087.8000;0.3166;0.7833;
1088.1000;0.3183;0.7907;
1088.4000;0.3101;0.7733;
1088.7000;0.3150;0.7883;
1089.0000;0.3158;0.7883;
1089.3000;0.3191;0.7907;
1089.6000;0.3191;0.7858;
1089.9000;0.3183;0.7783;
1090.2000;0.3183;0.7783;
1090.5000;0.3240;0.7932;
1090.8000;0.3183;0.7659;
1091.1000;0.3166;0.7609;
1091.4000;0.3166;0.7684;
1091.7000;0.3175;0.7684;
1092.0000;0.3126;0.7534;
1092.3000;0.3175;0.7684;
1092.6000;0.3199;0.7758;
1092.9000;0.3175;0.7783;
1093.2000;0.3175;0.7708;
1093.5000;0.3158;0.7708;
1093.8000;0.3158;0.7708;
1094.1000;0.3175;0.7708;
1094.4000;0.3158;0.7584;
1094.7000;0.3158;0.7609;
1095.0000;0.3166;0.7634;
1095.3000;0.3191;0.7609;
1095.6000;0.3175;0.7559;
1095.9000;0.3142;0.7485;
1096.2000;0.3166;0.7634;
1096.5000;0.3191;0.7634;
1096.8000;0.3109;0.7385;
1097.1000;0.3175;0.7609;
1097.4000;0.3191;0.7684;
1097.7000;0.3158;0.7559;
1098.0000;0.3175;0.7410;
1098.3000;0.3150;0.7460;
1098.6000;0.3175;0.7534;
1098.9000;0.3134;0.7410;
1099.2000;0.3199;0.7684;
1099.5000;0.3183;0.7584;
1099.8000;0.3175;0.7584;
1100.1000;0.3166;0.7634;
1100.4000;0.3199;0.7758;
1100.7000;0.3142;0.7609;
1101.0000;0.3134;0.7584;
1101.3000;0.3150;0.7534;
1101.6000;0.3191;0.7485;
1101.9000;0.3142;0.7460;
1102.2000;0.3175;0.7435;
1102.5000;0.3199;0.7510;
1102.8000;0.3199;0.7485;
1103.1000;0.3183;0.7435;
1103.4000;0.3158;0.7385;
1103.7000;0.3142;0.7286;
1104.0000;0.3183;0.7485;
1104.3000;0.3183;0.7435;
1104.6000;0.3183;0.7385;
1104.9000;0.3166;0.7385;
1105.2000;0.3142;0.7335;
1105.5000;0.3199;0.7510;
1105.8000;0.3183;0.7435;
1106.1000;0.3166;0.7410;
1106.4000;0.3158;0.7385;
1106.7000;0.3134;0.7335;
1107.0000;0.3183;0.7460;
1107.3000;0.3175;0.7485;
1107.6000;0.3069;0.7186;
1107.9000;0.3183;0.7435;
1108.2000;0.3166;0.7510;
1108.5000;0.3175;0.7485;
1108.8000;0.3175;0.7584;
1109.1000;0.3158;0.7485;
1109.4000;0.3150;0.7485;
1109.7000;0.3166;0.7510;
1110.0000;0.3126;0.7435;
1110.3000;0.3150;0.7460;
1110.6000;0.3175;0.7435;
1110.9000;0.3175;0.7410;
1111.2000;0.3166;0.7311;
1111.5000;0.3166;0.7311;
1111.8000;0.3191;0.7311;
1112.1000;0.3175;0.7335;
1112.4000;0.3158;0.7360;
1112.7000;0.3166;0.7360;
1113.0000;0.3166;0.7335;
1113.3000;0.3183;0.7360;
1113.6000;0.3175;0.7360;
1113.9000;0.3175;0.7435;
1114.2000;0.3166;0.7460;
1114.5000;0.3191;0.7534;
1114.8000;0.3166;0.7534;
1115.1000;0.3166;0.7510;
1115.4000;0.3175;0.7460;
1115.7000;0.3134;0.7360;
1116.0000;0.3150;0.7435;
1116.3000;0.3191;0.7534;
1116.6000;0.3158;0.7460;
1116.9000;0.3183;0.7460;
1117.2000;0.3158;0.7435;
1117.5000;0.3158;0.7460;
1117.8000;0.3109;0.7385;
1118.1000;0.3256;0.7808;
1118.4000;0.3166;0.7485;
1118.7000;0.3175;0.7385;
1119.0000;0.3166;0.7385;
1119.3000;0.3158;0.7410;
1119.6000;0.3183;0.7510;
1119.9000;0.3240;0.7659;
1120.2000;0.3207;0.7634;
1120.5000;0.3166;0.7559;
1120.8000;0.3158;0.7584;
1121.1000;0.3175;0.7634;
1121.4000;0.3158;0.7510;
1121.7000;0.3166;0.7510;
1122.0000;0.3118;0.7335;
1122.3000;0.3158;0.7435;
1122.6000;0.3166;0.7559;
1122.9000;0.3166;0.7584;
1123.2000;0.3166;0.7609;
1123.5000;0.3166;0.7634;
1123.8000;0.3166;0.7659;
1124.1000;0.3158;0.7609;
1124.4000;0.3150;0.7584;
1124.7000;0.3183;0.7584;
1125.0000;0.3166;0.7584;
1125.3000;0.3142;0.7534;
1125.6000;0.3175;0.7634;
1125.9000;0.3232;0.7758;
1126.2000;0.3199;0.7609;
1126.5000;0.3191;0.7485;
1126.8000;0.3158;0.7410;
1127.1000;0.3183;0.7460;
1127.4000;0.3183;0.7460;
1127.7000;0.3150;0.7485;
1128.0000;0.3134;0.7534;
1128.3000;0.3077;0.7460;
1128.6000;0.3256;0.7932;
1128.9000;0.3199;0.7783;
1129.2000;0.3158;0.7684;
1129.5000;0.3175;0.7783;
1129.8000;0.3175;0.7708;
1130.1000;0.3158;0.7584;
1130.4000;0.3158;0.7559;
1130.7000;0.3150;0.7634;
1131.0000;0.3183;0.7733;
1131.3000;0.3175;0.7708;
1131.6000;0.3166;0.7684;
1131.9000;0.3175;0.7708;
1132.2000;0.3183;0.7758;
1132.5000;0.3183;0.7733;
1132.8000;0.3158;0.7659;
1133.1000;0.3166;0.7659;
1133.4000;0.3158;0.7733;
1133.7000;0.3175;0.7808;
1134.0000;0.3175;0.7783;
1134.3000;0.3166;0.7783;
1134.6000;0.3175;0.7708;
1134.9000;0.3142;0.7634;
1135.2000;0.3166;0.7659;
1135.5000;0.3191;0.7584;
1135.8000;0.3142;0.7410;
1136.1000;0.3207;0.7559;
1136.4000;0.3175;0.7584;
1136.7000;0.3191;0.7708;
1137.0000;0.3183;0.7684;
1137.3000;0.3158;0.7684;
1137.6000;0.3158;0.7733;
1137.9000;0.3191;0.7758;
1138.2000;0.3175;0.7659;
1138.5000;0.3166;0.7485;
1138.8000;0.3158;0.7460;
1139.1000;0.3175;0.7485;
1139.4000;0.3166;0.7385;
1139.7000;0.3166;0.7360;
1140.0000;0.3183;0.7360;
1140.3000;0.3183;0.7385;
1140.6000;0.3166;0.7360;
1140.9000;0.3158;0.7385;
1141.2000;0.3175;0.7485;
1141.5000;0.3166;0.7485;
1141.8000;0.3175;0.7485;
1142.1000;0.3215;0.7634;
1142.4000;0.3150;0.7485;
1142.7000;0.3150;0.7584;
1143.0000;0.3175;0.7659;
1143.3000;0.3142;0.7609;
1143.6000;0.3142;0.7559;
1143.9000;0.3142;0.7609;
1144.2000;0.3150;0.7684;
1144.5000;0.3175;0.7634;
1144.8000;0.3166;0.7609;
1145.1000;0.3207;0.7684;
1145.4000;0.3183;0.7559;
1145.7000;0.3175;0.7559;
1146.0000;0.3158;0.7559;
1146.3000;0.3158;0.7634;
1146.6000;0.3183;0.7733;
1146.9000;0.3191;0.7708;
1147.2000;0.3118;0.7435;
1147.5000;0.3142;0.7410;
1147.8000;0.3166;0.7534;
1148.1000;0.3175;0.7584;
1148.4000;0.3150;0.7659;
1148.7000;0.3134;0.7609;
1149.0000;0.3175;0.7584;
1149.3000;0.3199;0.7584;
1149.6000;0.3158;0.7534;
1149.9000;0.3175;0.7584;
1150.2000;0.3175;0.7584;
1150.5000;0.3183;0.7609;
1150.8000;0.3150;0.7534;
1151.1000;0.3150;0.7485;
1151.4000;0.3191;0.7534;
1151.7000;0.3158;0.7485;
1152.0000;0.3150;0.7559;
1152.3000;0.3175;0.7684;
1152.6000;0.3175;0.7783;
1152.9000;0.3158;0.7708;
1153.2000;0.3166;0.7708;
1153.5000;0.3142;0.7634;
1153.8000;0.3158;0.7758;
1154.1000;0.3158;0.7733;
1154.4000;0.3158;0.7708;
1154.7000;0.3118;0.7559;
1155.0000;0.3183;0.7684;
1155.3000;0.3158;0.7733;
1155.6000;0.3223;0.7907;
1155.9000;0.3150;0.7634;
1156.2000;0.3158;0.7559;
1156.5000;0.3158;0.7584;
1156.8000;0.3175;0.7584;
1157.1000;0.3158;0.7534;
1157.4000;0.3158;0.7460;
1157.7000;0.3166;0.7510;
1158.0000;0.3150;0.7534;
1158.3000;0.3150;0.7559;
1158.6000;0.3158;0.7659;
1158.9000;0.3175;0.7708;
1159.2000;0.3150;0.7634;
1159.5000;0.3158;0.7659;
1159.8000;0.3183;0.7634;
1160.1000;0.3191;0.7758;
1160.4000;0.3158;0.7659;
1160.7000;0.3158;0.7708;
1161.0000;0.3166;0.7634;
1161.3000;0.3183;0.7559;
1161.6000;0.3158;0.7485;
1161.9000;0.3150;0.7435;
1162.2000;0.3191;0.7510;
1162.5000;0.3134;0.7485;
1162.8000;0.3166;0.7534;
1163.1000;0.3166;0.7559;
1163.4000;0.3118;0.7485;
1163.7000;0.3118;0.7510;
1164.0000;0.3175;0.7559;
1164.3000;0.3183;0.7584;
1164.6000;0.3215;0.7708;
1164.9000;0.3175;0.7609;
1165.2000;0.3232;0.7634;
1165.5000;0.3175;0.7534;
1165.8000;0.3150;0.7485;
1166.1000;0.3191;0.7708;
1166.4000;0.3150;0.7609;
1166.7000;0.3134;0.7559;
1167.0000;0.3150;0.7659;
1167.3000;0.3158;0.7684;
1167.6000;0.3158;0.7634;
1167.9000;0.3175;0.7733;
1168.2000;0.3150;0.7758;
1168.5000;0.3175;0.7808;
1168.8000;0.3175;0.7808;
1169.1000;0.3175;0.7758;
1169.4000;0.3150;0.7708;
1169.7000;0.3166;0.7758;
1170.0000;0.3166;0.7684;
1170.3000;0.3175;0.7733;
1170.6000;0.3175;0.7808;
1170.9000;0.3175;0.7833;
1171.2000;0.3166;0.7833;
1171.5000;0.3175;0.7858;
1171.8000;0.3175;0.7833;
1172.1000;0.3166;0.7783;
1172.4000;0.3199;0.7783;
1172.7000;0.3191;0.7808;
1173.0000;0.3109;0.7584;
1173.3000;0.3175;0.7833;
1173.6000;0.3158;0.7708;
1173.9000;0.3175;0.7733;
1174.2000;0.3166;0.7708;
1174.5000;0.3166;0.7758;
1174.8000;0.3158;0.7659;
1175.1000;0.3158;0.7659;
1175.4000;0.3183;0.7758;
1175.7000;0.3175;0.7883;
1176.0000;0.3150;0.7858;
1176.3000;0.3158;0.7808;
1176.6000;0.3142;0.7833;
1176.9000;0.3183;0.7957;
1177.2000;0.3166;0.7907;
1177.5000;0.3150;0.7833;
1177.8000;0.3166;0.7808;
1178.1000;0.3199;0.7858;
1178.4000;0.3166;0.7808;
1178.7000;0.3158;0.7758;
1179.0000;0.3142;0.7758;
1179.3000;0.3166;0.7833;
1179.6000;0.3175;0.7833;
1179.9000;0.3175;0.7783;
1180.2000;0.3158;0.7758;
1180.5000;0.3183;0.7758;
1180.8000;0.3183;0.7783;
1181.1000;0.3150;0.7783;
1181.4000;0.3142;0.7808;
1181.7000;0.3166;0.7783;
1182.0000;0.3093;0.7460;
1182.3000;0.3166;0.7684;
1182.6000;0.3175;0.7634;
1182.9000;0.3207;0.7708;
1183.2000;0.3183;0.7659;
1183.5000;0.3175;0.7684;
1183.8000;0.3158;0.7659;
1184.1000;0.3150;0.7609;
1184.4000;0.3158;0.7684;
1184.7000;0.3175;0.7684;
1185.0000;0.3191;0.7708;
1185.3000;0.3175;0.7634;
1185.6000;0.3183;0.7659;
1185.9000;0.3183;0.7684;
1186.2000;0.3158;0.7659;
1186.5000;0.3191;0.7758;
1186.8000;0.3183;0.7758;
1187.1000;0.3175;0.7733;
1187.4000;0.3183;0.7783;
1187.7000;0.3166;0.7758;
1188.0000;0.3183;0.7833;
1188.3000;0.3175;0.7833;
1188.6000;0.3199;0.7808;
1188.9000;0.3183;0.7733;
1189.2000;0.3150;0.7708;
1189.5000;0.3183;0.7783;
1189.8000;0.3175;0.7783;
1190.1000;0.3175;0.7808;
1190.4000;0.3150;0.7708;
1190.7000;0.3183;0.7708;
1191.0000;0.3215;0.7659;
1191.3000;0.3183;0.7634;
1191.6000;0.3142;0.7659;
1191.9000;0.3158;0.7659;
1192.2000;0.3150;0.7684;
1192.5000;0.3150;0.7708;
1192.8000;0.3126;0.7758;
1193.1000;0.3166;0.7758;
1193.4000;0.3183;0.7758;
1193.7000;0.3158;0.7733;
1194.0000;0.3158;0.7684;
1194.3000;0.3166;0.7609;
1194.6000;0.3175;0.7684;
1194.9000;0.3183;0.7634;
1195.2000;0.3166;0.7584;
1195.5000;0.3142;0.7634;
1195.8000;0.3150;0.7708;
1196.1000;0.3093;0.7609;
1196.4000;0.3183;0.7808;
1196.7000;0.3166;0.7758;
1197.0000;0.3150;0.7733;
1197.3000;0.3158;0.7708;
1197.6000;0.3134;0.7708;
1197.9000;0.3150;0.7659;
1198.2000;0.3150;0.7659;
1198.5000;0.3183;0.7684;
1198.8000;0.3175;0.7659;
1199.1000;0.3166;0.7634;
1199.4000;0.3175;0.7684;
1199.7000;0.3183;0.7510;
1200.0000;0.3166;0.7559;
1200.3000;0.3166;0.7634;
1200.6000;0.3175;0.7659;
1200.9000;0.3166;0.7684;
1201.2000;0.3166;0.7609;
1201.5000;0.3142;0.7584;
1201.8000;0.3175;0.7609;
1202.1000;0.3158;0.7634;
1202.4000;0.3199;0.7733;
1202.7000;0.3142;0.7659;
1203.0000;0.3150;0.7634;
1203.3000;0.3183;0.7684;
1203.6000;0.3175;0.7634;
1203.9000;0.3207;0.7584;
1204.2000;0.3118;0.7286;
1204.5000;0.3199;0.7510;
1204.8000;0.3166;0.7385;
1205.1000;0.3166;0.7261;
1205.4000;0.3158;0.7236;
1205.7000;0.3142;0.7286;
1206.0000;0.3166;0.7410;
1206.3000;0.3166;0.7410;
1206.6000;0.3158;0.7460;
1206.9000;0.3248;0.7684;
1207.2000;0.3150;0.7460;
1207.5000;0.3150;0.7435;
1207.8000;0.3101;0.7186;
1208.1000;0.3175;0.7286;
1208.4000;0.3166;0.7261;
1208.7000;0.3183;0.7335;
1209.0000;0.3175;0.7311;
1209.3000;0.3166;0.7410;
1209.6000;0.3166;0.7534;
1209.9000;0.3093;0.7435;
1210.2000;0.3175;0.7584;
1210.5000;0.3166;0.7659;
1210.8000;0.3166;0.7708;
1211.1000;0.3191;0.7758;
1211.4000;0.3166;0.7684;
1211.7000;0.3175;0.7609;
1212.0000;0.3248;0.7758;
1212.3000;0.3166;0.7510;
1212.6000;0.3175;0.7559;
1212.9000;0.3142;0.7435;
1213.2000;0.3158;0.7385;
1213.5000;0.3166;0.7435;
1213.8000;0.3175;0.7510;
1214.1000;0.3166;0.7609;
1214.4000;0.3150;0.7559;
1214.7000;0.3118;0.7385;
1215.0000;0.3175;0.7634;
1215.3000;0.3142;0.7510;
1215.6000;0.3150;0.7659;
1215.9000;0.3158;0.7659;
1216.2000;0.3166;0.7659;
1216.5000;0.3158;0.7634;
1216.8000;0.3158;0.7534;
1217.1000;0.3158;0.7460;
1217.4000;0.3175;0.7584;
1217.7000;0.3183;0.7559;
1218.0000;0.3175;0.7534;
1218.3000;0.3166;0.7584;
1218.6000;0.3175;0.7659;
1218.9000;0.3126;0.7510;
1219.2000;0.3175;0.7684;
1219.5000;0.3166;0.7684;
1219.8000;0.3166;0.7684;
1220.1000;0.3175;0.7758;
1220.4000;0.3150;0.7783;
1220.7000;0.3142;0.7858;
1221.0000;0.3134;0.7808;
1221.3000;0.3109;0.7708;
1221.6000;0.3134;0.7783;
1221.9000;0.3150;0.7833;
1222.2000;0.3150;0.7833;
1222.5000;0.3199;0.7932;
1222.8000;0.3150;0.7783;
1223.1000;0.3142;0.7733;
1223.4000;0.3158;0.7708;
1223.7000;0.3109;0.7634;
1224.0000;0.3175;0.7833;
1224.3000;0.3158;0.7758;
1224.6000;0.3142;0.7808;
1224.9000;0.3166;0.7883;
1225.2000;0.3118;0.7634;
1225.5000;0.3183;0.7659;
1225.8000;0.3158;0.7634;
1226.1000;0.3191;0.7758;
1226.4000;0.3175;0.7708;
1226.7000;0.3158;0.7758;
1227.0000;0.3142;0.7634;
1227.3000;0.3150;0.7634;
1227.6000;0.3118;0.7559;
1227.9000;0.3158;0.7659;
1228.2000;0.3150;0.7485;
1228.5000;0.3150;0.7485;
1228.8000;0.3150;0.7609;
1229.1000;0.3150;0.7758;
1229.4000;0.3166;0.7808;
1229.7000;0.3183;0.7758;
1230.0000;0.3175;0.7733;
1230.3000;0.3158;0.7684;
1230.6000;0.3175;0.7733;
1230.9000;0.3166;0.7708;
1231.2000;0.3175;0.7659;
1231.5000;0.3166;0.7758;
1231.8000;0.3134;0.7609;
1232.1000;0.3142;0.7609;
1232.4000;0.3191;0.7733;
1232.7000;0.3158;0.7684;
1233.0000;0.3166;0.7659;
1233.3000;0.3158;0.7609;
1233.6000;0.3175;0.7708;
1233.9000;0.3175;0.7708;
1234.2000;0.3166;0.7708;
1234.5000;0.3158;0.7584;
1234.8000;0.3175;0.7584;
1235.1000;0.3158;0.7584;
1235.4000;0.3166;0.7708;
1235.7000;0.3150;0.7634;
1236.0000;0.3142;0.7609;
1236.3000;0.3158;0.7659;
1236.6000;0.3166;0.7659;
1236.9000;0.3183;0.7783;
1237.2000;0.3142;0.7783;
1237.5000;0.3150;0.7708;
1237.8000;0.3118;0.7609;
1238.1000;0.3158;0.7708;
1238.4000;0.3150;0.7634;
1238.7000;0.3150;0.7659;
1239.0000;0.3191;0.7733;
1239.3000;0.3199;0.7758;
1239.6000;0.3175;0.7659;
1239.9000;0.3175;0.7659;
1240.2000;0.3183;0.7708;
1240.5000;0.3158;0.7733;
1240.8000;0.3183;0.7783;
1241.1000;0.3175;0.7858;
1241.4000;0.3158;0.7833;
1241.7000;0.3183;0.7883;
1242.0000;0.3166;0.7907;
1242.3000;0.3158;0.7858;
1242.6000;0.3166;0.7833;
1242.9000;0.3166;0.7808;
1243.2000;0.3158;0.7833;
1243.5000;0.3158;0.7808;
1243.8000;0.3175;0.7783;
1244.1000;0.3166;0.7708;
1244.4000;0.3166;0.7609;
1244.7000;0.3085;0.7559;
1245.0000;0.3158;0.7708;
1245.3000;0.3175;0.7733;
1245.6000;0.3223;0.7808;
1245.9000;0.3175;0.7733;
1246.2000;0.3142;0.7634;
1246.5000;0.3183;0.7708;
1246.8000;0.3150;0.7659;
1247.1000;0.3175;0.7634;
1247.4000;0.3166;0.7584;
1247.7000;0.3085;0.7435;
1248.0000;0.3166;0.7559;
1248.3000;0.3166;0.7609;
1248.6000;0.3215;0.7708;
1248.9000;0.3166;0.7733;
1249.2000;0.3126;0.7510;
1249.5000;0.3175;0.7659;
1249.8000;0.3150;0.7659;
1250.1000;0.3118;0.7609;
1250.4000;0.3175;0.7684;
1250.7000;0.3150;0.7634;
1251.0000;0.3166;0.7659;
1251.3000;0.3166;0.7584;
1251.6000;0.3158;0.7559;
1251.9000;0.3142;0.7510;
1252.2000;0.3158;0.7559;
1252.5000;0.3150;0.7510;
1252.8000;0.3150;0.7609;
1253.1000;0.3175;0.7634;
1253.4000;0.3158;0.7559;
1253.7000;0.3150;0.7584;
1254.0000;0.3142;0.7609;
1254.3000;0.3175;0.7733;
1254.6000;0.3158;0.7708;
1254.9000;0.3126;0.7708;
1255.2000;0.3134;0.7758;
1255.5000;0.3158;0.7883;
1255.8000;0.3150;0.7883;
1256.1000;0.3134;0.7808;
1256.4000;0.3175;0.7758;
1256.7000;0.3158;0.7708;
1257.0000;0.3142;0.7634;
1257.3000;0.3175;0.7659;
1257.6000;0.3150;0.7659;
1257.9000;0.3166;0.7634;
1258.2000;0.3215;0.7684;
1258.5000;0.3175;0.7609;
1258.8000;0.3150;0.7534;
1259.1000;0.3158;0.7534;
1259.4000;0.3150;0.7510;
1259.7000;0.3166;0.7510;
1260.0000;0.3183;0.7559;
1260.3000;0.3166;0.7609;
1260.6000;0.3183;0.7659;
1260.9000;0.3183;0.7584;
1261.2000;0.3158;0.7510;
1261.5000;0.3191;0.7609;
1261.8000;0.3166;0.7559;
1262.1000;0.3175;0.7634;
1262.4000;0.3158;0.7708;
1262.7000;0.3175;0.7833;
1263.0000;0.3166;0.7883;
1263.3000;0.3215;0.7907;
1263.6000;0.3183;0.7783;
1263.9000;0.3191;0.7808;
1264.2000;0.3150;0.7659;
1264.5000;0.3199;0.7684;
1264.8000;0.3175;0.7733;
1265.1000;0.3150;0.7708;
1265.4000;0.3175;0.7783;
1265.7000;0.3158;0.7733;
1266.0000;0.3150;0.7659;
1266.3000;0.3166;0.7684;
1266.6000;0.3183;0.7634;
1266.9000;0.3183;0.7708;
1267.2000;0.3175;0.7684;
1267.5000;0.3118;0.7559;
1267.8000;0.3158;0.7684;
1268.1000;0.3158;0.7758;
1268.4000;0.3175;0.7808;
1268.7000;0.3158;0.7758;
1269.0000;0.3150;0.7833;
1269.3000;0.3166;0.7833;
1269.6000;0.3183;0.7883;
1269.9000;0.3191;0.7932;
1270.2000;0.3175;0.7783;
1270.5000;0.3158;0.7659;
1270.8000;0.3183;0.7758;
1271.1000;0.3175;0.7783;
1271.4000;0.3175;0.7708;
1271.7000;0.3158;0.7659;
1272.0000;0.3166;0.7684;
1272.3000;0.3183;0.7634;
1272.6000;0.3166;0.7634;
1272.9000;0.3166;0.7684;
1273.2000;0.3166;0.7684;
1273.5000;0.3158;0.7684;
1273.8000;0.3175;0.7733;
1274.1000;0.3166;0.7758;
1274.4000;0.3142;0.7708;
1274.7000;0.3126;0.7684;
1275.0000;0.3191;0.7808;
1275.3000;0.3183;0.7684;
1275.6000;0.3248;0.7833;
1275.9000;0.3142;0.7584;
1276.2000;0.3166;0.7733;
1276.5000;0.3175;0.7733;
1276.8000;0.3150;0.7684;
1277.1000;0.3166;0.7684;
1277.4000;0.3215;0.7808;
1277.7000;0.3142;0.7659;
1278.0000;0.3183;0.7783;
1278.3000;0.3150;0.7808;
1278.6000;0.3093;0.7733;
1278.9000;0.3093;0.7634;
1279.2000;0.3142;0.7733;
1279.5000;0.3061;0.7534;
1279.8000;0.3166;0.7808;
1280.1000;0.3150;0.7758;
1280.4000;0.3175;0.7808;
1280.7000;0.3256;0.8106;
1281.0000;0.3166;0.7883;
1281.3000;0.3166;0.7858;
1281.6000;0.3150;0.7883;
1281.9000;0.3150;0.7808;
1282.2000;0.3142;0.7858;
1282.5000;0.3183;0.7932;
1282.8000;0.3142;0.7808;
1283.1000;0.3183;0.7907;
1283.4000;0.3175;0.7883;
1283.7000;0.3166;0.7833;
1284.0000;0.3158;0.7758;
1284.3000;0.3199;0.7907;
1284.6000;0.3142;0.7684;
1284.9000;0.3183;0.7758;
1285.2000;0.3142;0.7708;
1285.5000;0.3158;0.7758;
1285.8000;0.3166;0.7808;
1286.1000;0.3166;0.7783;
1286.4000;0.3142;0.7684;
1286.7000;0.3166;0.7708;
1287.0000;0.3150;0.7708;
1287.3000;0.3150;0.7758;
1287.6000;0.3150;0.7783;
1287.9000;0.3142;0.7733;
1288.2000;0.3158;0.7733;
1288.5000;0.3158;0.7733;
1288.8000;0.3166;0.7758;
1289.1000;0.3183;0.7808;
1289.4000;0.3183;0.7932;
1289.7000;0.3166;0.7957;
1290.0000;0.3191;0.8007;
1290.3000;0.3199;0.7957;
1290.6000;0.3166;0.7858;
1290.9000;0.3191;0.7858;
1291.2000;0.3158;0.7708;
1291.5000;0.3142;0.7684;
1291.8000;0.3175;0.7684;
1292.1000;0.3175;0.7634;
1292.4000;0.3175;0.7584;
1292.7000;0.3166;0.7510;
1293.0000;0.3134;0.7485;
1293.3000;0.3158;0.7534;
1293.6000;0.3166;0.7534;
1293.9000;0.3150;0.7559;
1294.2000;0.3175;0.7659;
1294.5000;0.3191;0.7708;
1294.8000;0.3166;0.7659;
1295.1000;0.3175;0.7783;
1295.4000;0.3223;0.7932;
1295.7000;0.3158;0.7684;
1296.0000;0.3158;0.7733;
1296.3000;0.3150;0.7783;
1296.6000;0.3158;0.7858;
1296.9000;0.3158;0.7808;
1297.2000;0.3158;0.7758;
1297.5000;0.3134;0.7758;
1297.8000;0.3158;0.7733;
1298.1000;0.3134;0.7634;
1298.4000;0.3158;0.7684;
1298.7000;0.3175;0.7659;
1299.0000;0.3175;0.7634;
1299.3000;0.3166;0.7659;
1299.6000;0.3158;0.7584;
1299.9000;0.3069;0.7360;
1300.2000;0.3166;0.7609;
1300.5000;0.3142;0.7510;
1300.8000;0.3150;0.7510;
1301.1000;0.3166;0.7584;
1301.4000;0.3166;0.7584;
1301.7000;0.3158;0.7559;
1302.0000;0.3142;0.7584;
1302.3000;0.3158;0.7733;
1302.6000;0.3158;0.7758;
1302.9000;0.3158;0.7833;
1303.2000;0.3118;0.7758;
1303.5000;0.3150;0.7808;
1303.8000;0.3142;0.7808;
1304.1000;0.3166;0.7833;
1304.4000;0.3150;0.7733;
1304.7000;0.3158;0.7783;
1305.0000;0.3175;0.7833;
1305.3000;0.3175;0.7783;
1305.6000;0.3166;0.7758;
1305.9000;0.3158;0.7733;
1306.2000;0.3183;0.7708;
1306.5000;0.3134;0.7559;
1306.8000;0.3150;0.7559;
1307.1000;0.3142;0.7609;
1307.4000;0.3134;0.7534;
1307.7000;0.3158;0.7584;
1308.0000;0.3166;0.7609;
1308.3000;0.3158;0.7634;
1308.6000;0.3166;0.7659;
1308.9000;0.3150;0.7659;
1309.2000;0.3142;0.7659;
1309.5000;0.3158;0.7659;
1309.8000;0.3150;0.7659;
1310.1000;0.3158;0.7684;
1310.4000;0.3199;0.7758;
1310.7000;0.3166;0.7684;
1311.0000;0.3166;0.7659;
1311.3000;0.3166;0.7659;
1311.6000;0.3150;0.7559;
1311.9000;0.3142;0.7584;
1312.2000;0.3166;0.7708;
1312.5000;0.3150;0.7584;
1312.8000;0.3150;0.7609;
1313.1000;0.3158;0.7659;
1313.4000;0.3134;0.7559;
1313.7000;0.3158;0.7609;
1314.0000;0.3175;0.7708;
1314.3000;0.3150;0.7708;
1314.6000;0.3150;0.7733;
1314.9000;0.3264;0.7982;
1315.2000;0.3158;0.7684;
1315.5000;0.3166;0.7659;
1315.8000;0.3158;0.7684;
1316.1000;0.3150;0.7609;
1316.4000;0.3183;0.7684;
1316.7000;0.3166;0.7659;
1317.0000;0.3175;0.7733;
1317.3000;0.3166;0.7733;
1317.6000;0.3166;0.7733;
1317.9000;0.3215;0.7858;
1318.2000;0.3166;0.7733;
1318.5000;0.3166;0.7833;
1318.8000;0.3158;0.7907;
1319.1000;0.3175;0.7932;
1319.4000;0.3191;0.7982;
1319.7000;0.3158;0.7883;
1320.0000;0.3166;0.7907;
1320.3000;0.3158;0.7932;
1320.6000;0.3199;0.8007;
1320.9000;0.3126;0.7833;
1321.2000;0.3166;0.7932;
1321.5000;0.3158;0.7932;
1321.8000;0.3150;0.7858;
1322.1000;0.3134;0.7733;
1322.4000;0.3126;0.7758;
1322.7000;0.3134;0.7684;
1323.0000;0.3150;0.7684;
1323.3000;0.3183;0.7833;
1323.6000;0.3134;0.7708;
1323.9000;0.3150;0.7659;
1324.2000;0.3223;0.7858;
1324.5000;0.3166;0.7634;
1324.8000;0.3150;0.7584;
1325.1000;0.3166;0.7559;
1325.4000;0.3158;0.7559;
1325.7000;0.3158;0.7460;
1326.0000;0.3150;0.7510;
1326.3000;0.3158;0.7534;
1326.6000;0.3166;0.7534;
1326.9000;0.3166;0.7609;
1327.2000;0.3142;0.7758;
1327.5000;0.3158;0.7833;
1327.8000;0.3150;0.7808;
1328.1000;0.3175;0.7858;
1328.4000;0.3150;0.7783;
1328.7000;0.3150;0.7783;
1329.0000;0.3118;0.7684;
1329.3000;0.3175;0.7708;
1329.6000;0.3166;0.7708;
1329.9000;0.3150;0.7783;
1330.2000;0.3166;0.7733;
1330.5000;0.3191;0.7758;
1330.8000;0.3166;0.7783;
1331.1000;0.3207;0.7883;
1331.4000;0.3158;0.7758;
1331.7000;0.3183;0.7758;
1332.0000;0.3158;0.7708;
1332.3000;0.3150;0.7833;
1332.6000;0.3158;0.7833;
1332.9000;0.3158;0.7858;
1333.2000;0.3166;0.7858;
1333.5000;0.3183;0.7858;
1333.8000;0.3166;0.7758;
1334.1000;0.3142;0.7783;
1334.4000;0.3134;0.7858;
1334.7000;0.3150;0.7932;
1335.0000;0.3223;0.8032;
1335.3000;0.3134;0.7783;
1335.6000;0.3150;0.7833;
1335.9000;0.3166;0.7833;
1336.2000;0.3150;0.7758;
1336.5000;0.3118;0.7609;
1336.8000;0.3158;0.7684;
1337.1000;0.3150;0.7659;
1337.4000;0.3158;0.7684;
1337.7000;0.3199;0.7659;
1338.0000;0.3150;0.7534;
1338.3000;0.3240;0.7783;
1338.6000;0.3166;0.7609;
1338.9000;0.3183;0.7634;
1339.2000;0.3166;0.7559;
1339.5000;0.3166;0.7510;
1339.8000;0.3158;0.7460;
1340.1000;0.3158;0.7559;
1340.4000;0.3158;0.7584;
1340.7000;0.3166;0.7634;
1341.0000;0.3134;0.7584;
1341.3000;0.3166;0.7684;
1341.6000;0.3150;0.7634;
1341.9000;0.3158;0.7659;
1342.2000;0.3175;0.7708;
1342.5000;0.3150;0.7684;
1342.8000;0.3175;0.7758;
1343.1000;0.3150;0.7833;
1343.4000;0.3166;0.7758;
1343.7000;0.3175;0.7783;
1344.0000;0.3158;0.7708;
1344.3000;0.3175;0.7708;
1344.6000;0.3158;0.7808;
1344.9000;0.3166;0.7808;
1345.2000;0.3069;0.7584;
1345.5000;0.3175;0.7858;
1345.8000;0.3166;0.7783;
1346.1000;0.3223;0.7883;
1346.4000;0.3183;0.7758;
1346.7000;0.3175;0.7758;
1347.0000;0.3175;0.7833;
1347.3000;0.3166;0.7808;
1347.6000;0.3207;0.7883;
1347.9000;0.3118;0.7733;
1348.2000;0.3175;0.7982;
1348.5000;0.3158;0.7907;
1348.8000;0.3134;0.7808;
1349.1000;0.3142;0.7858;
1349.4000;0.3150;0.7957;
1349.7000;0.3142;0.7907;
1350.0000;0.3158;0.7833;
1350.3000;0.3150;0.7758;
1350.6000;0.3158;0.7634;
1350.9000;0.3142;0.7609;
1351.2000;0.3158;0.7584;
1351.5000;0.3175;0.7659;
1351.8000;0.3166;0.7559;
1352.1000;0.3118;0.7510;
1352.4000;0.3207;0.7733;
1352.7000;0.3158;0.7609;
1353.0000;0.3069;0.7410;
1353.3000;0.3085;0.7435;
1353.6000;0.3175;0.7584;
1353.9000;0.3158;0.7559;
1354.2000;0.3109;0.7435;
1354.5000;0.3150;0.7534;
1354.8000;0.3166;0.7584;
1355.1000;0.3166;0.7634;
1355.4000;0.3158;0.7659;
1355.7000;0.3134;0.7559;
1356.0000;0.3166;0.7659;
1356.3000;0.3158;0.7659;
1356.6000;0.3158;0.7708;
1356.9000;0.3158;0.7733;
1357.2000;0.3183;0.7833;
1357.5000;0.3158;0.7833;
1357.8000;0.3166;0.7858;
1358.1000;0.3158;0.7808;
1358.4000;0.3150;0.7783;
1358.7000;0.3175;0.7808;
1359.0000;0.3158;0.7833;
1359.3000;0.3134;0.7858;
1359.6000;0.3142;0.7932;
1359.9000;0.3150;0.7932;
1360.2000;0.3158;0.7957;
1360.5000;0.3175;0.7957;
1360.8000;0.3150;0.7957;
1361.1000;0.3158;0.7957;
1361.4000;0.3191;0.7932;
1361.7000;0.3158;0.7808;
1362.0000;0.3101;0.7634;
1362.3000;0.3166;0.7733;
1362.6000;0.3150;0.7758;
1362.9000;0.3126;0.7783;
1363.2000;0.3158;0.7883;
1363.5000;0.3134;0.7758;
1363.8000;0.3207;0.7883;
1364.1000;0.3150;0.7733;
1364.4000;0.3158;0.7684;
1364.7000;0.3166;0.7708;
1365.0000;0.3134;0.7634;
1365.3000;0.3183;0.7758;
1365.6000;0.3118;0.7708;
1365.9000;0.3150;0.7733;
1366.2000;0.3166;0.7783;
1366.5000;0.3150;0.7733;
1366.8000;0.3166;0.7733;
1367.1000;0.3150;0.7684;
1367.4000;0.3142;0.7684;
1367.7000;0.3207;0.7808;
1368.0000;0.3223;0.7932;
1368.3000;0.3142;0.7733;
1368.6000;0.3134;0.7783;
1368.9000;0.3183;0.7883;
1369.2000;0.3158;0.7833;
1369.5000;0.3232;0.8007;
1369.8000;0.3175;0.7808;
1370.1000;0.3069;0.7510;
1370.4000;0.3175;0.7808;
1370.7000;0.3175;0.7783;
1371.0000;0.3166;0.7758;
1371.3000;0.3183;0.7833;
1371.6000;0.3150;0.7758;
1371.9000;0.3134;0.7758;
1372.2000;0.3158;0.7783;
1372.5000;0.3134;0.7783;
1372.8000;0.3183;0.7858;
1373.1000;0.3150;0.7783;
1373.4000;0.3150;0.7783;
1373.7000;0.3150;0.7883;
1374.0000;0.3175;0.7957;
1374.3000;0.3118;0.7808;
1374.6000;0.3158;0.7858;
1374.9000;0.3158;0.7858;
1375.2000;0.3150;0.7783;
1375.5000;0.3150;0.7808;
1375.8000;0.3166;0.7932;
1376.1000;0.3150;0.7932;
1376.4000;0.3134;0.7858;
1376.7000;0.3150;0.7883;
1377.0000;0.3118;0.7833;
1377.3000;0.3158;0.7932;
1377.6000;0.3166;0.7932;
1377.9000;0.3158;0.7808;
1378.2000;0.3175;0.7907;
1378.5000;0.3166;0.7907;
1378.8000;0.3166;0.7982;
1379.1000;0.3158;0.7982;
1379.4000;0.3158;0.8057;
1379.7000;0.3158;0.8057;
1380.0000;0.3166;0.8057;
1380.3000;0.3158;0.8057;
1380.6000;0.3175;0.8057;
1380.9000;0.3142;0.7907;
1381.2000;0.3150;0.7932;
1381.5000;0.3166;0.7957;
1381.8000;0.3166;0.7883;
1382.1000;0.3166;0.7883;
1382.4000;0.3150;0.7808;
1382.7000;0.3142;0.7783;
1383.0000;0.3158;0.7808;
1383.3000;0.3150;0.7883;
1383.6000;0.3150;0.7957;
1383.9000;0.3150;0.7907;
1384.2000;0.3166;0.7957;
1384.5000;0.3093;0.7733;
1384.8000;0.3142;0.7833;
1385.1000;0.3134;0.7982;
1385.4000;0.3166;0.8057;
1385.7000;0.3158;0.8032;
1386.0000;0.3142;0.7932;
1386.3000;0.3166;0.8032;
1386.6000;0.3166;0.8007;
1386.9000;0.3118;0.7907;
1387.2000;0.3158;0.8007;
1387.5000;0.3158;0.7932;
1387.8000;0.3175;0.8007;
1388.1000;0.3207;0.8106;
1388.4000;0.3166;0.7957;
1388.7000;0.3150;0.7858;
1389.0000;0.3150;0.7833;
1389.3000;0.3158;0.7883;
1389.6000;0.3175;0.7932;
1389.9000;0.3158;0.7883;
1390.2000;0.3207;0.7957;
1390.5000;0.3166;0.7883;
1390.8000;0.3191;0.7957;
1391.1000;0.3069;0.7684;
1391.4000;0.3158;0.7833;
1391.7000;0.3175;0.7907;
1392.0000;0.3150;0.7907;
1392.3000;0.3142;0.7907;
1392.6000;0.3142;0.7932;
1392.9000;0.3150;0.7957;
1393.2000;0.3150;0.7957;
1393.5000;0.3158;0.7932;
1393.8000;0.3150;0.7833;
1394.1000;0.3158;0.7907;
1394.4000;0.3166;0.7883;
1394.7000;0.3223;0.8007;
1395.0000;0.3134;0.7808;
1395.3000;0.3264;0.8131;
1395.6000;0.3166;0.7883;
1395.9000;0.3158;0.7883;
1396.2000;0.3158;0.7932;
1396.5000;0.3166;0.7982;
1396.8000;0.3166;0.8057;
1397.1000;0.3134;0.7957;
1397.4000;0.3150;0.7982;
1397.7000;0.3158;0.7982;
1398.0000;0.3175;0.8007;
1398.3000;0.3321;0.8380;
1398.6000;0.3158;0.7982;
1398.9000;0.3134;0.7883;
1399.2000;0.3175;0.7932;
1399.5000;0.3166;0.7833;
1399.8000;0.3158;0.7858;
