time/ms;Fluo/V;P700 deltaI/I x10³;
-199.8000;0.6081;1.6295;
-199.5000;0.6081;1.6249;
-199.2000;0.6089;1.6319;
-198.9000;0.6064;1.6272;
-198.6000;0.6105;1.6436;
-198.3000;0.6064;1.6389;
-198.0000;0.6064;1.6366;
-197.7000;0.6040;1.6202;
-197.4000;0.6056;1.6202;
-197.1000;0.6024;1.6225;
-196.8000;0.6056;1.6249;
-196.5000;0.6089;1.6249;
-196.2000;0.6097;1.6225;
-195.9000;0.6081;1.6202;
-195.6000;0.6081;1.6249;
-195.3000;0.6081;1.6272;
-195.0000;0.6072;1.6178;
-194.7000;0.6121;1.6272;
-194.4000;0.6072;1.6178;
-194.1000;0.6072;1.6131;
-193.8000;0.6072;1.6131;
-193.5000;0.6081;1.6131;
-193.2000;0.6072;1.6131;
-192.9000;0.6072;1.6108;
-192.6000;0.6064;1.6131;
-192.3000;0.6081;1.6131;
-192.0000;0.6121;1.6202;
-191.7000;0.6089;1.6084;
-191.4000;0.6154;1.6295;
-191.1000;0.6056;1.6061;
-190.8000;0.6056;1.6131;
-190.5000;0.6064;1.6131;
-190.2000;0.6072;1.6155;
-189.9000;0.6064;1.6131;
-189.6000;0.6089;1.6061;
-189.3000;0.6064;1.6108;
-189.0000;0.6072;1.6225;
-188.7000;0.6056;1.6225;
-188.4000;0.6097;1.6342;
-188.1000;0.6040;1.6295;
-187.8000;0.6064;1.6225;
-187.5000;0.6048;1.6249;
-187.2000;0.6064;1.6249;
-186.9000;0.6097;1.6295;
-186.6000;0.6064;1.6155;
-186.3000;0.6072;1.6155;
-186.0000;0.6072;1.6155;
-185.7000;0.6081;1.6178;
-185.4000;0.6048;1.6038;
-185.1000;0.6056;1.5967;
-184.8000;0.6064;1.6014;
-184.5000;0.6048;1.5944;
-184.2000;0.6097;1.6061;
-183.9000;0.6162;1.6178;
-183.6000;0.6056;1.6014;
-183.3000;0.6072;1.5991;
-183.0000;0.6081;1.5991;
-182.7000;0.6081;1.5967;
-182.4000;0.6056;1.5850;
-182.1000;0.6081;1.5897;
-181.8000;0.6056;1.5967;
-181.5000;0.6064;1.5991;
-181.2000;0.6056;1.5944;
-180.9000;0.6072;1.6038;
-180.6000;0.6072;1.5967;
-180.3000;0.6129;1.6061;
-180.0000;0.6072;1.5944;
-179.7000;0.6064;1.5991;
-179.4000;0.6081;1.6038;
-179.1000;0.6089;1.6155;
-178.8000;0.6081;1.6155;
-178.5000;0.6089;1.6061;
-178.2000;0.6089;1.6014;
-177.9000;0.6097;1.6084;
-177.6000;0.6064;1.6014;
-177.3000;0.6081;1.6038;
-177.0000;0.6056;1.5991;
-176.7000;0.6081;1.6061;
-176.4000;0.6081;1.6038;
-176.1000;0.6064;1.6038;
-175.8000;0.6040;1.6014;
-175.5000;0.6064;1.6084;
-175.2000;0.6064;1.6178;
-174.9000;0.6056;1.6131;
-174.6000;0.6064;1.6202;
-174.3000;0.6072;1.6249;
-174.0000;0.6089;1.6272;
-173.7000;0.6064;1.6295;
-173.4000;0.6072;1.6225;
-173.1000;0.6056;1.6225;
-172.8000;0.6081;1.6272;
-172.5000;0.6081;1.6225;
-172.2000;0.6089;1.6249;
-171.9000;0.6064;1.6249;
-171.6000;0.6064;1.6342;
-171.3000;0.6081;1.6389;
-171.0000;0.6089;1.6389;
-170.7000;0.6064;1.6249;
-170.4000;0.6072;1.6319;
-170.1000;0.6081;1.6295;
-169.8000;0.6081;1.6319;
-169.5000;0.6072;1.6319;
-169.2000;0.6089;1.6389;
-168.9000;0.6064;1.6319;
-168.6000;0.6064;1.6272;
-168.3000;0.6081;1.6295;
-168.0000;0.6064;1.6202;
-167.7000;0.6089;1.6178;
-167.4000;0.6089;1.6131;
-167.1000;0.6072;1.6131;
-166.8000;0.6048;1.6155;
-166.5000;0.6081;1.6202;
-166.2000;0.6081;1.6178;
-165.9000;0.6072;1.6178;
-165.6000;0.6064;1.6131;
-165.3000;0.6064;1.6178;
-165.0000;0.6121;1.6319;
-164.7000;0.6072;1.6155;
-164.4000;0.6072;1.6108;
-164.1000;0.6081;1.6108;
-163.8000;0.6081;1.6061;
-163.5000;0.6081;1.6108;
-163.2000;0.6072;1.6202;
-162.9000;0.6056;1.6202;
-162.6000;0.6081;1.6249;
-162.3000;0.6089;1.6249;
-162.0000;0.6081;1.6249;
-161.7000;0.6081;1.6295;
-161.4000;0.6064;1.6319;
-161.1000;0.6081;1.6272;
-160.8000;0.6040;1.6084;
-160.5000;0.6089;1.6178;
-160.2000;0.6089;1.6108;
-159.9000;0.6081;1.6061;
-159.6000;0.6064;1.6108;
-159.3000;0.6056;1.6084;
-159.0000;0.6081;1.6178;
-158.7000;0.6040;1.6202;
-158.4000;0.6113;1.6389;
-158.1000;0.6056;1.6249;
-157.8000;0.6064;1.6178;
-157.5000;0.6064;1.6155;
-157.2000;0.6048;1.6131;
-156.9000;0.6089;1.6178;
-156.6000;0.6064;1.6131;
-156.3000;0.6064;1.6202;
-156.0000;0.6081;1.6178;
-155.7000;0.6032;1.6061;
-155.4000;0.6081;1.6249;
-155.1000;0.6081;1.6272;
-154.8000;0.6072;1.6319;
-154.5000;0.6129;1.6366;
-154.2000;0.6146;1.6413;
-153.9000;0.6056;1.6225;
-153.6000;0.6032;1.6202;
-153.3000;0.6064;1.6249;
-153.0000;0.6089;1.6202;
-152.7000;0.6015;1.5991;
-152.4000;0.6089;1.6178;
-152.1000;0.6081;1.6225;
-151.8000;0.6072;1.6202;
-151.5000;0.6064;1.6225;
-151.2000;0.6097;1.6272;
-150.9000;0.6072;1.6295;
-150.6000;0.6064;1.6342;
-150.3000;0.6064;1.6319;
-150.0000;0.6089;1.6272;
-149.7000;0.6081;1.6319;
-149.4000;0.6097;1.6366;
-149.1000;0.6072;1.6389;
-148.8000;0.6081;1.6366;
-148.5000;0.6081;1.6389;
-148.2000;0.6064;1.6366;
-147.9000;0.6081;1.6319;
-147.6000;0.6072;1.6319;
-147.3000;0.6089;1.6342;
-147.0000;0.6072;1.6342;
-146.7000;0.6072;1.6295;
-146.4000;0.6072;1.6319;
-146.1000;0.6064;1.6249;
-145.8000;0.6089;1.6389;
-145.5000;0.6072;1.6389;
-145.2000;0.6081;1.6413;
-144.9000;0.6072;1.6483;
-144.6000;0.6089;1.6577;
-144.3000;0.6072;1.6553;
-144.0000;0.6072;1.6436;
-143.7000;0.6089;1.6507;
-143.4000;0.6089;1.6460;
-143.1000;0.6081;1.6483;
-142.8000;0.6089;1.6436;
-142.5000;0.6081;1.6483;
-142.2000;0.6064;1.6553;
-141.9000;0.6064;1.6553;
-141.6000;0.6081;1.6553;
-141.3000;0.6072;1.6553;
-141.0000;0.6048;1.6483;
-140.7000;0.6064;1.6389;
-140.4000;0.6048;1.6319;
-140.1000;0.6089;1.6366;
-139.8000;0.6081;1.6319;
-139.5000;0.6064;1.6342;
-139.2000;0.6040;1.6342;
-138.9000;0.6064;1.6436;
-138.6000;0.6081;1.6483;
-138.3000;0.6089;1.6483;
-138.0000;0.6056;1.6342;
-137.7000;0.6072;1.6389;
-137.4000;0.6097;1.6366;
-137.1000;0.6089;1.6342;
-136.8000;0.6089;1.6460;
-136.5000;0.6089;1.6507;
-136.2000;0.6072;1.6413;
-135.9000;0.6081;1.6413;
-135.6000;0.6081;1.6507;
-135.3000;0.6040;1.6389;
-135.0000;0.6072;1.6389;
-134.7000;0.6064;1.6436;
-134.4000;0.6056;1.6389;
-134.1000;0.6064;1.6460;
-133.8000;0.5999;1.6319;
-133.5000;0.6064;1.6460;
-133.2000;0.6072;1.6436;
-132.9000;0.6072;1.6436;
-132.6000;0.6048;1.6460;
-132.3000;0.6113;1.6600;
-132.0000;0.6056;1.6460;
-131.7000;0.6081;1.6507;
-131.4000;0.6089;1.6436;
-131.1000;0.6064;1.6389;
-130.8000;0.6081;1.6319;
-130.5000;0.6081;1.6249;
-130.2000;0.6032;1.6178;
-129.9000;0.6072;1.6272;
-129.6000;0.6064;1.6249;
-129.3000;0.6113;1.6436;
-129.0000;0.6081;1.6272;
-128.7000;0.6064;1.6249;
-128.4000;0.6048;1.6225;
-128.1000;0.6048;1.6225;
-127.8000;0.6056;1.6389;
-127.5000;0.6064;1.6389;
-127.2000;0.6081;1.6460;
-126.9000;0.6064;1.6483;
-126.6000;0.6072;1.6553;
-126.3000;0.6064;1.6577;
-126.0000;0.6072;1.6530;
-125.7000;0.6064;1.6577;
-125.4000;0.6064;1.6530;
-125.1000;0.6064;1.6460;
-124.8000;0.6138;1.6530;
-124.5000;0.6072;1.6319;
-124.2000;0.6105;1.6389;
-123.9000;0.6072;1.6366;
-123.6000;0.6072;1.6366;
-123.3000;0.6064;1.6389;
-123.0000;0.6072;1.6413;
-122.7000;0.6081;1.6389;
-122.4000;0.6072;1.6389;
-122.1000;0.6056;1.6319;
-121.8000;0.6064;1.6319;
-121.5000;0.6072;1.6460;
-121.2000;0.6048;1.6436;
-120.9000;0.6089;1.6436;
-120.6000;0.6081;1.6460;
-120.3000;0.6089;1.6483;
-120.0000;0.6089;1.6530;
-119.7000;0.6072;1.6460;
-119.4000;0.6072;1.6460;
-119.1000;0.6081;1.6436;
-118.8000;0.6064;1.6389;
-118.5000;0.6072;1.6436;
-118.2000;0.6064;1.6460;
-117.9000;0.6056;1.6436;
-117.6000;0.6056;1.6366;
-117.3000;0.6072;1.6413;
-117.0000;0.6064;1.6436;
-116.7000;0.6056;1.6389;
-116.4000;0.6064;1.6413;
-116.1000;0.6089;1.6436;
-115.8000;0.6089;1.6389;
-115.5000;0.6072;1.6389;
-115.2000;0.6064;1.6436;
-114.9000;0.6072;1.6436;
-114.6000;0.6072;1.6366;
-114.3000;0.6064;1.6319;
-114.0000;0.6032;1.6272;
-113.7000;0.6072;1.6413;
-113.4000;0.6089;1.6366;
-113.1000;0.6072;1.6249;
-112.8000;0.6064;1.6295;
-112.5000;0.6081;1.6460;
-112.2000;0.6064;1.6460;
-111.9000;0.6064;1.6483;
-111.6000;0.6056;1.6530;
-111.3000;0.6048;1.6577;
-111.0000;0.6081;1.6577;
-110.7000;0.6064;1.6553;
-110.4000;0.6072;1.6483;
-110.1000;0.6105;1.6530;
-109.8000;0.6081;1.6530;
-109.5000;0.6121;1.6577;
-109.2000;0.6072;1.6460;
-108.9000;0.6072;1.6366;
-108.6000;0.6072;1.6389;
-108.3000;0.6146;1.6483;
-108.0000;0.6089;1.6342;
-107.7000;0.6072;1.6436;
-107.4000;0.6097;1.6483;
-107.1000;0.6064;1.6366;
-106.8000;0.6113;1.6460;
-106.5000;0.6072;1.6483;
-106.2000;0.6081;1.6507;
-105.9000;0.6064;1.6483;
-105.6000;0.6081;1.6436;
-105.3000;0.6064;1.6295;
-105.0000;0.6064;1.6295;
-104.7000;0.6072;1.6483;
-104.4000;0.6064;1.6413;
-104.1000;0.6056;1.6319;
-103.8000;0.6064;1.6319;
-103.5000;0.6064;1.6319;
-103.2000;0.6129;1.6342;
-102.9000;0.6064;1.6178;
-102.6000;0.6056;1.6202;
-102.3000;0.6081;1.6389;
-102.0000;0.6072;1.6225;
-101.7000;0.6056;1.6108;
-101.4000;0.6056;1.6202;
-101.1000;0.6056;1.6225;
-100.8000;0.6081;1.6202;
-100.5000;0.6072;1.6225;
-100.2000;0.6056;1.6061;
-99.9000;0.6064;1.6108;
-99.6000;0.6072;1.6202;
-99.3000;0.6097;1.6342;
-99.0000;0.6056;1.6225;
-98.7000;0.6064;1.6319;
-98.4000;0.6064;1.6249;
-98.1000;0.5983;1.6155;
-97.8000;0.6064;1.6413;
-97.5000;0.5975;1.6155;
-97.2000;0.6081;1.6342;
-96.9000;0.6007;1.6108;
-96.6000;0.6056;1.6272;
-96.3000;0.6048;1.6155;
-96.0000;0.6064;1.6131;
-95.7000;0.6089;1.6084;
-95.4000;0.6081;1.6061;
-95.1000;0.5975;1.5803;
-94.8000;0.6072;1.6131;
-94.5000;0.6072;1.6038;
-94.2000;0.6081;1.6131;
-93.9000;0.6081;1.6249;
-93.6000;0.6064;1.6249;
-93.3000;0.6064;1.6389;
-93.0000;0.6081;1.6389;
-92.7000;0.6097;1.6413;
-92.4000;0.6040;1.6202;
-92.1000;0.6072;1.6249;
-91.8000;0.6064;1.6225;
-91.5000;0.6089;1.6295;
-91.2000;0.6007;1.6084;
-90.9000;0.6056;1.6295;
-90.6000;0.6072;1.6295;
-90.3000;0.6064;1.6342;
-90.0000;0.6081;1.6319;
-89.7000;0.6105;1.6366;
-89.4000;0.6072;1.6366;
-89.1000;0.6072;1.6389;
-88.8000;0.6089;1.6366;
-88.5000;0.6064;1.6319;
-88.2000;0.6056;1.6295;
-87.9000;0.6072;1.6483;
-87.6000;0.6081;1.6483;
-87.3000;0.6064;1.6413;
-87.0000;0.6089;1.6460;
-86.7000;0.6097;1.6460;
-86.4000;0.6048;1.6413;
-86.1000;0.6056;1.6413;
-85.8000;0.6064;1.6483;
-85.5000;0.6056;1.6460;
-85.2000;0.6064;1.6483;
-84.9000;0.6081;1.6530;
-84.6000;0.6146;1.6741;
-84.3000;0.6097;1.6624;
-84.0000;0.6081;1.6483;
-83.7000;0.6064;1.6413;
-83.4000;0.6048;1.6483;
-83.1000;0.6056;1.6342;
-82.8000;0.6064;1.6295;
-82.5000;0.6048;1.6225;
-82.2000;0.6081;1.6295;
-81.9000;0.6081;1.6319;
-81.6000;0.6072;1.6272;
-81.3000;0.6089;1.6319;
-81.0000;0.6064;1.6202;
-80.7000;0.6089;1.6319;
-80.4000;0.6056;1.6342;
-80.1000;0.6056;1.6483;
-79.8000;0.6056;1.6413;
-79.5000;0.6048;1.6342;
-79.2000;0.6040;1.6366;
-78.9000;0.6081;1.6366;
-78.6000;0.6105;1.6342;
-78.3000;0.6089;1.6295;
-78.0000;0.6048;1.6131;
-77.7000;0.6081;1.6202;
-77.4000;0.6089;1.6225;
-77.1000;0.6081;1.6342;
-76.8000;0.6056;1.6272;
-76.5000;0.6154;1.6436;
-76.2000;0.6081;1.6295;
-75.9000;0.6072;1.6295;
-75.6000;0.6064;1.6342;
-75.3000;0.6072;1.6319;
-75.0000;0.6072;1.6225;
-74.7000;0.6072;1.6108;
-74.4000;0.6089;1.6155;
-74.1000;0.6048;1.6084;
-73.8000;0.6081;1.6225;
-73.5000;0.6072;1.6202;
-73.2000;0.6129;1.6249;
-72.9000;0.6056;1.6131;
-72.6000;0.6081;1.6295;
-72.3000;0.6056;1.6249;
-72.0000;0.6081;1.6295;
-71.7000;0.6081;1.6225;
-71.4000;0.6072;1.6178;
-71.1000;0.6097;1.6202;
-70.8000;0.6072;1.6202;
-70.5000;0.6072;1.6178;
-70.2000;0.6064;1.6038;
-69.9000;0.6072;1.6084;
-69.6000;0.6072;1.6014;
-69.3000;0.6056;1.6038;
-69.0000;0.6064;1.6084;
-68.7000;0.6056;1.5967;
-68.4000;0.6081;1.6131;
-68.1000;0.6024;1.5920;
-67.8000;0.6081;1.5991;
-67.5000;0.6072;1.6014;
-67.2000;0.6089;1.6061;
-66.9000;0.6048;1.5991;
-66.6000;0.6105;1.6108;
-66.3000;0.6105;1.6155;
-66.0000;0.6081;1.6108;
-65.7000;0.6048;1.6155;
-65.4000;0.6089;1.6249;
-65.1000;0.6089;1.6178;
-64.8000;0.6072;1.6178;
-64.5000;0.6072;1.6272;
-64.2000;0.6072;1.6202;
-63.9000;0.6064;1.6131;
-63.6000;0.6056;1.6084;
-63.3000;0.6081;1.6061;
-63.0000;0.6089;1.6061;
-62.7000;0.6064;1.5944;
-62.4000;0.6154;1.6155;
-62.1000;0.6081;1.5991;
-61.8000;0.6056;1.5897;
-61.5000;0.6064;1.5991;
-61.2000;0.6146;1.6272;
-60.9000;0.6056;1.6108;
-60.6000;0.6089;1.6155;
-60.3000;0.6089;1.6178;
-60.0000;0.6081;1.6061;
-59.7000;0.6040;1.6038;
-59.4000;0.6072;1.6178;
-59.1000;0.6040;1.6108;
-58.8000;0.6064;1.6178;
-58.5000;0.5999;1.5967;
-58.2000;0.6056;1.6131;
-57.9000;0.6056;1.6084;
-57.6000;0.6056;1.6038;
-57.3000;0.6032;1.5991;
-57.0000;0.6072;1.6155;
-56.7000;0.6072;1.6131;
-56.4000;0.6048;1.6131;
-56.1000;0.6056;1.6202;
-55.8000;0.6064;1.6225;
-55.5000;0.6064;1.6108;
-55.2000;0.6024;1.6084;
-54.9000;0.6072;1.6131;
-54.6000;0.6056;1.6038;
-54.3000;0.6056;1.6061;
-54.0000;0.6064;1.6038;
-53.7000;0.6064;1.6061;
-53.4000;0.6056;1.6038;
-53.1000;0.6064;1.5967;
-52.8000;0.6072;1.5991;
-52.5000;0.6064;1.5944;
-52.2000;0.6072;1.5944;
-51.9000;0.6089;1.5944;
-51.6000;0.6072;1.5991;
-51.3000;0.6081;1.6131;
-51.0000;0.6089;1.6202;
-50.7000;0.6072;1.6178;
-50.4000;0.6097;1.6131;
-50.1000;0.6072;1.6202;
-49.8000;0.6064;1.6178;
-49.5000;0.6081;1.6084;
-49.2000;0.6089;1.6061;
-48.9000;0.6081;1.6131;
-48.6000;0.6072;1.6249;
-48.3000;0.6081;1.6295;
-48.0000;0.6081;1.6413;
-47.7000;0.6081;1.6460;
-47.4000;0.6081;1.6483;
-47.1000;0.6040;1.6295;
-46.8000;0.6081;1.6319;
-46.5000;0.6040;1.6225;
-46.2000;0.6032;1.6131;
-45.9000;0.6064;1.6202;
-45.6000;0.6186;1.6553;
-45.3000;0.6048;1.6249;
-45.0000;0.6072;1.6272;
-44.7000;0.6081;1.6342;
-44.4000;0.6081;1.6342;
-44.1000;0.6097;1.6389;
-43.8000;0.6113;1.6389;
-43.5000;0.6024;1.6178;
-43.2000;0.6048;1.6155;
-42.9000;0.6072;1.6202;
-42.6000;0.6072;1.6295;
-42.3000;0.6056;1.6202;
-42.0000;0.6113;1.6249;
-41.7000;0.6056;1.6155;
-41.4000;0.6089;1.6295;
-41.1000;0.6081;1.6319;
-40.8000;0.6072;1.6413;
-40.5000;0.6072;1.6530;
-40.2000;0.6064;1.6530;
-39.9000;0.6081;1.6413;
-39.6000;0.6072;1.6225;
-39.3000;0.6105;1.6249;
-39.0000;0.6064;1.6178;
-38.7000;0.6081;1.6319;
-38.4000;0.6089;1.6413;
-38.1000;0.6056;1.6319;
-37.8000;0.6081;1.6319;
-37.5000;0.6064;1.6342;
-37.2000;0.6072;1.6389;
-36.9000;0.6064;1.6366;
-36.6000;0.6064;1.6389;
-36.3000;0.6072;1.6413;
-36.0000;0.6072;1.6366;
-35.7000;0.6064;1.6272;
-35.4000;0.6072;1.6272;
-35.1000;0.6081;1.6272;
-34.8000;0.6064;1.6342;
-34.5000;0.6072;1.6436;
-34.2000;0.6064;1.6460;
-33.9000;0.6064;1.6460;
-33.6000;0.6072;1.6507;
-33.3000;0.6081;1.6530;
-33.0000;0.6064;1.6366;
-32.7000;0.6072;1.6366;
-32.4000;0.6064;1.6366;
-32.1000;0.6081;1.6413;
-31.8000;0.6072;1.6483;
-31.5000;0.6064;1.6483;
-31.2000;0.6024;1.6342;
-30.9000;0.6081;1.6413;
-30.6000;0.6064;1.6366;
-30.3000;0.6056;1.6413;
-30.0000;0.6081;1.6436;
-29.7000;0.6081;1.6460;
-29.4000;0.6072;1.6436;
-29.1000;0.6032;1.6436;
-28.8000;0.6081;1.6624;
-28.5000;0.6081;1.6647;
-28.2000;0.6048;1.6553;
-27.9000;0.6048;1.6553;
-27.6000;0.6064;1.6577;
-27.3000;0.6064;1.6507;
-27.0000;0.6072;1.6553;
-26.7000;0.6048;1.6553;
-26.4000;0.6064;1.6530;
-26.1000;0.6048;1.6366;
-25.8000;0.6081;1.6413;
-25.5000;0.6064;1.6413;
-25.2000;0.6081;1.6460;
-24.9000;0.6089;1.6600;
-24.6000;0.6064;1.6530;
-24.3000;0.6064;1.6460;
-24.0000;0.6089;1.6413;
-23.7000;0.6064;1.6295;
-23.4000;0.6089;1.6319;
-23.1000;0.6089;1.6319;
-22.8000;0.6056;1.6319;
-22.5000;0.6129;1.6483;
-22.2000;0.6081;1.6366;
-21.9000;0.6056;1.6366;
-21.6000;0.6121;1.6577;
-21.3000;0.6129;1.6600;
-21.0000;0.6064;1.6342;
-20.7000;0.6072;1.6389;
-20.4000;0.5958;1.6061;
-20.1000;0.6056;1.6342;
-19.8000;0.6081;1.6389;
-19.5000;0.6064;1.6295;
-19.2000;0.6056;1.6319;
-18.9000;0.6064;1.6366;
-18.6000;0.6072;1.6366;
-18.3000;0.6097;1.6366;
-18.0000;0.6097;1.6249;
-17.7000;0.6081;1.6178;
-17.4000;0.6081;1.6202;
-17.1000;0.6064;1.6225;
-16.8000;0.6089;1.6225;
-16.5000;0.6081;1.6249;
-16.2000;0.6081;1.6319;
-15.9000;0.6154;1.6507;
-15.6000;0.6089;1.6389;
-15.3000;0.6072;1.6272;
-15.0000;0.6081;1.6249;
-14.7000;0.6081;1.6202;
-14.4000;0.6072;1.6155;
-14.1000;0.6081;1.6178;
-13.8000;0.6072;1.6155;
-13.5000;0.6064;1.6178;
-13.2000;0.6081;1.6342;
-12.9000;0.6072;1.6272;
-12.6000;0.6064;1.6295;
-12.3000;0.6081;1.6413;
-12.0000;0.6072;1.6436;
-11.7000;0.6072;1.6366;
-11.4000;0.6113;1.6553;
-11.1000;0.6072;1.6483;
-10.8000;0.6064;1.6647;
-10.5000;0.6089;1.6624;
-10.2000;0.6056;1.6389;
-9.9000;0.6056;1.6413;
-9.6000;0.6072;1.6460;
-9.3000;0.6081;1.6483;
-9.0000;0.6081;1.6483;
-8.7000;0.6056;1.6389;
-8.4000;0.6064;1.6366;
-8.1000;0.6081;1.6366;
-7.8000;0.6072;1.6389;
-7.5000;0.6064;1.6436;
-7.2000;0.6056;1.6413;
-6.9000;0.6089;1.6413;
-6.6000;0.6072;1.6295;
-6.3000;0.6162;1.6624;
-6.0000;0.6072;1.6342;
-5.7000;0.6081;1.6436;
-5.4000;0.6097;1.6413;
-5.1000;0.6081;1.6272;
-4.8000;0.6064;1.6272;
-4.5000;0.6081;1.6319;
-4.2000;0.6072;1.6319;
-3.9000;0.6072;1.6295;
-3.6000;0.6064;1.6249;
-3.3000;0.6072;1.6249;
-3.0000;0.6064;1.6202;
-2.7000;0.6056;1.6225;
-2.4000;0.6081;1.6366;
-2.1000;0.6072;1.6342;
-1.8000;0.6081;1.6295;
-1.5000;0.6081;1.6225;
-1.2000;0.6048;1.6131;
-0.9000;0.6072;1.6225;
-0.6000;0.6064;1.6225;
-0.3000;0.6056;1.6249;
0.0000;0.6056;1.6249;
0.3000;0.6072;1.5873;
0.6000;0.6129;1.6249;
0.9000;0.6178;1.6577;
1.2000;0.6211;1.6929;
1.5000;0.6219;1.7257;
1.8000;0.6219;1.7468;
2.1000;0.6260;1.7726;
2.4000;0.6260;1.7866;
2.7000;0.6243;1.7913;
3.0000;0.6292;1.8171;
3.3000;0.6300;1.8242;
3.6000;0.6309;1.8288;
3.9000;0.6317;1.8288;
4.2000;0.6317;1.8288;
4.5000;0.6317;1.8312;
4.8000;0.6325;1.8288;
5.1000;0.6349;1.8382;
5.4000;0.6325;1.8453;
5.7000;0.6349;1.8593;
6.0000;0.6341;1.8687;
6.3000;0.6349;1.8734;
6.6000;0.6341;1.8757;
6.9000;0.6365;1.8711;
7.2000;0.6333;1.8711;
7.5000;0.6365;1.8757;
7.8000;0.6374;1.8781;
8.1000;0.6357;1.8757;
8.4000;0.6374;1.8781;
8.7000;0.6382;1.8781;
9.0000;0.6382;1.8664;
9.3000;0.6374;1.8711;
9.6000;0.6365;1.8687;
9.9000;0.6365;1.8640;
10.2000;0.6382;1.8781;
10.5000;0.6398;1.8804;
10.8000;0.6374;1.8687;
11.1000;0.6390;1.8687;
11.4000;0.6382;1.8640;
11.7000;0.6357;1.8640;
12.0000;0.6398;1.8687;
12.3000;0.6398;1.8711;
12.6000;0.6374;1.8640;
12.9000;0.6390;1.8687;
13.2000;0.6398;1.8617;
13.5000;0.6390;1.8734;
13.8000;0.6398;1.8828;
14.1000;0.6406;1.8757;
14.4000;0.6398;1.8757;
14.7000;0.6406;1.8757;
15.0000;0.6398;1.8664;
15.3000;0.6406;1.8593;
15.6000;0.6422;1.8687;
15.9000;0.6398;1.8687;
16.2000;0.6390;1.8593;
16.5000;0.6414;1.8593;
16.8000;0.6414;1.8664;
17.1000;0.6414;1.8593;
17.4000;0.6390;1.8711;
17.7000;0.6382;1.8711;
18.0000;0.6414;1.8781;
18.3000;0.6528;1.8968;
18.6000;0.6422;1.8687;
18.9000;0.6422;1.8687;
19.2000;0.6414;1.8640;
19.5000;0.6406;1.8617;
19.8000;0.6422;1.8617;
20.1000;0.6414;1.8617;
20.4000;0.6488;1.8828;
20.7000;0.6406;1.8617;
21.0000;0.6414;1.8640;
21.3000;0.6422;1.8640;
21.6000;0.6422;1.8711;
21.9000;0.6414;1.8687;
22.2000;0.6422;1.8711;
22.5000;0.6406;1.8734;
22.8000;0.6422;1.8734;
23.1000;0.6545;1.9015;
23.4000;0.6406;1.8664;
23.7000;0.6414;1.8664;
24.0000;0.6422;1.8757;
24.3000;0.6439;1.8734;
24.6000;0.6439;1.8711;
24.9000;0.6447;1.8781;
25.2000;0.6431;1.8711;
25.5000;0.6431;1.8757;
25.8000;0.6488;1.8968;
26.1000;0.6414;1.8687;
26.4000;0.6422;1.8687;
26.7000;0.6382;1.8617;
27.0000;0.6422;1.8664;
27.3000;0.6496;1.8945;
27.6000;0.6414;1.8781;
27.9000;0.6414;1.8804;
28.2000;0.6439;1.8898;
28.5000;0.6422;1.8828;
28.8000;0.6439;1.8945;
29.1000;0.6479;1.9133;
29.4000;0.6431;1.8992;
29.7000;0.6447;1.8992;
30.0000;0.6431;1.8992;
30.3000;0.6431;1.8922;
30.6000;0.6471;1.8922;
30.9000;0.6455;1.8898;
31.2000;0.6431;1.8828;
31.5000;0.6422;1.8804;
31.8000;0.6471;1.8922;
32.1000;0.6439;1.8781;
32.4000;0.6414;1.8828;
32.7000;0.6439;1.8875;
33.0000;0.6439;1.8781;
33.3000;0.6447;1.8828;
33.6000;0.6398;1.8711;
33.9000;0.6431;1.8922;
34.2000;0.6431;1.8945;
34.5000;0.6455;1.8945;
34.8000;0.6406;1.8851;
35.1000;0.6414;1.8711;
35.4000;0.6439;1.8617;
35.7000;0.6520;1.8734;
36.0000;0.6431;1.8499;
36.3000;0.6455;1.8499;
36.6000;0.6463;1.8499;
36.9000;0.6447;1.8453;
37.2000;0.6512;1.8523;
37.5000;0.6463;1.8476;
37.8000;0.6439;1.8499;
38.1000;0.6431;1.8546;
38.4000;0.6455;1.8664;
38.7000;0.6422;1.8570;
39.0000;0.6447;1.8570;
39.3000;0.6471;1.8640;
39.6000;0.6439;1.8664;
39.9000;0.6439;1.8757;
40.2000;0.6447;1.8851;
40.5000;0.6414;1.8757;
40.8000;0.6455;1.8804;
41.1000;0.6479;1.8898;
41.4000;0.6463;1.8875;
41.7000;0.6431;1.8804;
42.0000;0.6447;1.8781;
42.3000;0.6414;1.8664;
42.6000;0.6439;1.8640;
42.9000;0.6414;1.8593;
43.2000;0.6398;1.8523;
43.5000;0.6447;1.8664;
43.8000;0.6439;1.8640;
44.1000;0.6479;1.8828;
44.4000;0.6447;1.8781;
44.7000;0.6496;1.8898;
45.0000;0.6455;1.8851;
45.3000;0.6406;1.8757;
45.6000;0.6431;1.8875;
45.9000;0.6447;1.8781;
46.2000;0.6431;1.8828;
46.5000;0.6431;1.8828;
46.8000;0.6406;1.8711;
47.1000;0.6455;1.8781;
47.4000;0.6422;1.8757;
47.7000;0.6455;1.8757;
48.0000;0.6398;1.8664;
48.3000;0.6463;1.8828;
48.6000;0.6439;1.8828;
48.9000;0.6447;1.8898;
49.2000;0.6439;1.8875;
49.5000;0.6471;1.8945;
49.8000;0.6479;1.9039;
50.1000;0.6463;1.8945;
50.4000;0.6447;1.8968;
50.7000;0.6374;1.8781;
51.0000;0.6439;1.8781;
51.3000;0.6414;1.8617;
51.6000;0.6439;1.8664;
51.9000;0.6496;1.8781;
52.2000;0.6455;1.8734;
52.5000;0.6463;1.8757;
52.8000;0.6406;1.8617;
53.1000;0.6414;1.8734;
53.4000;0.6447;1.8781;
53.7000;0.6439;1.8734;
54.0000;0.6431;1.8734;
54.3000;0.6447;1.8734;
54.6000;0.6431;1.8711;
54.9000;0.6439;1.8804;
55.2000;0.6431;1.8687;
55.5000;0.6447;1.8664;
55.8000;0.6504;1.8828;
56.1000;0.6463;1.8804;
56.4000;0.6463;1.8711;
56.7000;0.6455;1.8711;
57.0000;0.6431;1.8687;
57.3000;0.6439;1.8687;
57.6000;0.6455;1.8875;
57.9000;0.6439;1.8992;
58.2000;0.6447;1.8992;
58.5000;0.6447;1.9039;
58.8000;0.6439;1.9039;
59.1000;0.6431;1.8992;
59.4000;0.6447;1.8992;
59.7000;0.6447;1.8992;
60.0000;0.6447;1.8922;
60.3000;0.6447;1.9039;
60.6000;0.6455;1.9015;
60.9000;0.6439;1.8968;
61.2000;0.6422;1.8922;
61.5000;0.6447;1.9062;
61.8000;0.6439;1.9062;
62.1000;0.6431;1.9086;
62.4000;0.6447;1.9039;
62.7000;0.6439;1.8968;
63.0000;0.6439;1.8922;
63.3000;0.6439;1.8992;
63.6000;0.6488;1.9015;
63.9000;0.6463;1.8898;
64.2000;0.6455;1.8828;
64.5000;0.6422;1.8664;
64.8000;0.6439;1.8664;
65.1000;0.6439;1.8711;
65.4000;0.6488;1.8828;
65.7000;0.6447;1.8640;
66.0000;0.6422;1.8711;
66.3000;0.6455;1.8734;
66.6000;0.6447;1.8664;
66.9000;0.6439;1.8664;
67.2000;0.6447;1.8711;
67.5000;0.6431;1.8828;
67.8000;0.6439;1.8898;
68.1000;0.6447;1.9062;
68.4000;0.6414;1.8945;
68.7000;0.6471;1.9109;
69.0000;0.6439;1.8992;
69.3000;0.6471;1.9062;
69.6000;0.6422;1.8922;
69.9000;0.6431;1.8851;
70.2000;0.6414;1.8804;
70.5000;0.6422;1.8828;
70.8000;0.6431;1.8828;
71.1000;0.6439;1.8875;
71.4000;0.6406;1.8851;
71.7000;0.6431;1.8992;
72.0000;0.6471;1.9109;
72.3000;0.6471;1.9133;
72.6000;0.6455;1.9086;
72.9000;0.6528;1.9273;
73.2000;0.6447;1.9109;
73.5000;0.6414;1.8922;
73.8000;0.6422;1.8898;
74.1000;0.6447;1.8945;
74.4000;0.6455;1.8945;
74.7000;0.6447;1.9015;
75.0000;0.6431;1.8992;
75.3000;0.6422;1.8922;
75.6000;0.6439;1.8945;
75.9000;0.6439;1.8875;
76.2000;0.6439;1.8757;
76.5000;0.6439;1.8711;
76.8000;0.6471;1.8851;
77.1000;0.6447;1.8828;
77.4000;0.6414;1.8781;
77.7000;0.6414;1.8757;
78.0000;0.6439;1.8687;
78.3000;0.6455;1.8804;
78.6000;0.6439;1.8875;
78.9000;0.6447;1.8898;
79.2000;0.6422;1.8875;
79.5000;0.6455;1.8898;
79.8000;0.6422;1.8851;
80.1000;0.6431;1.8804;
80.4000;0.6447;1.8828;
80.7000;0.6463;1.8875;
81.0000;0.6325;1.8593;
81.3000;0.6447;1.8945;
81.6000;0.6455;1.9039;
81.9000;0.6488;1.9156;
82.2000;0.6455;1.9086;
82.5000;0.6463;1.8992;
82.8000;0.6455;1.8922;
83.1000;0.6447;1.8922;
83.4000;0.6455;1.8898;
83.7000;0.6447;1.8875;
84.0000;0.6447;1.8828;
84.3000;0.6447;1.8781;
84.6000;0.6439;1.8781;
84.9000;0.6447;1.8828;
85.2000;0.6439;1.8781;
85.5000;0.6447;1.8757;
85.8000;0.6463;1.8757;
86.1000;0.6414;1.8640;
86.4000;0.6488;1.8781;
86.7000;0.6414;1.8734;
87.0000;0.6447;1.8828;
87.3000;0.6439;1.8898;
87.6000;0.6447;1.8945;
87.9000;0.6504;1.9109;
88.2000;0.6455;1.9039;
88.5000;0.6422;1.9062;
88.8000;0.6455;1.9062;
89.1000;0.6463;1.9015;
89.4000;0.6463;1.8968;
89.7000;0.6504;1.8945;
90.0000;0.6463;1.8875;
90.3000;0.6414;1.8828;
90.6000;0.6471;1.8922;
90.9000;0.6447;1.8875;
91.2000;0.6439;1.8757;
91.5000;0.6406;1.8640;
91.8000;0.6439;1.8757;
92.1000;0.6422;1.8711;
92.4000;0.6390;1.8687;
92.7000;0.6455;1.8851;
93.0000;0.6382;1.8781;
93.3000;0.6414;1.8851;
93.6000;0.6439;1.8781;
93.9000;0.6422;1.8687;
94.2000;0.6439;1.8687;
94.5000;0.6406;1.8664;
94.8000;0.6455;1.8711;
95.1000;0.6447;1.8734;
95.4000;0.6496;1.8851;
95.7000;0.6471;1.8781;
96.0000;0.6455;1.8711;
96.3000;0.6439;1.8804;
96.6000;0.6455;1.8828;
96.9000;0.6431;1.8734;
97.2000;0.6422;1.8781;
97.5000;0.6447;1.8851;
97.8000;0.6382;1.8781;
98.1000;0.6431;1.8898;
98.4000;0.6439;1.8851;
98.7000;0.6439;1.8828;
99.0000;0.6447;1.8757;
99.3000;0.6471;1.8875;
99.6000;0.6447;1.8804;
99.9000;0.6431;1.8875;
100.2000;0.6447;1.8851;
100.5000;0.6447;1.8804;
100.8000;0.6447;1.8757;
101.1000;0.6439;1.8734;
101.4000;0.6439;1.8781;
101.7000;0.6439;1.8734;
102.0000;0.6447;1.8711;
102.3000;0.6439;1.8687;
102.6000;0.6455;1.8664;
102.9000;0.6439;1.8757;
103.2000;0.6439;1.8734;
103.5000;0.6431;1.8640;
103.8000;0.6455;1.8781;
104.1000;0.6447;1.8734;
104.4000;0.6431;1.8711;
104.7000;0.6455;1.8711;
105.0000;0.6439;1.8640;
105.3000;0.6447;1.8640;
105.6000;0.6455;1.8734;
105.9000;0.6479;1.8711;
106.2000;0.6439;1.8687;
106.5000;0.6439;1.8687;
106.8000;0.6439;1.8640;
107.1000;0.6431;1.8734;
107.4000;0.6431;1.8757;
107.7000;0.6406;1.8734;
108.0000;0.6447;1.8828;
108.3000;0.6447;1.8828;
108.6000;0.6447;1.8804;
108.9000;0.6431;1.8711;
109.2000;0.6439;1.8781;
109.5000;0.6447;1.8875;
109.8000;0.6414;1.8851;
110.1000;0.6422;1.8851;
110.4000;0.6431;1.8875;
110.7000;0.6382;1.8664;
111.0000;0.6504;1.9039;
111.3000;0.6463;1.8945;
111.6000;0.6488;1.9109;
111.9000;0.6431;1.8968;
112.2000;0.6447;1.9015;
112.5000;0.6431;1.8968;
112.8000;0.6414;1.8875;
113.1000;0.6422;1.8922;
113.4000;0.6406;1.8898;
113.7000;0.6439;1.8992;
114.0000;0.6414;1.8851;
114.3000;0.6431;1.8804;
114.6000;0.6431;1.8757;
114.9000;0.6406;1.8664;
115.2000;0.6439;1.8734;
115.5000;0.6422;1.8711;
115.8000;0.6455;1.8781;
116.1000;0.6439;1.8804;
116.4000;0.6447;1.8828;
116.7000;0.6431;1.8828;
117.0000;0.6447;1.8875;
117.3000;0.6431;1.8828;
117.6000;0.6431;1.8922;
117.9000;0.6431;1.8968;
118.2000;0.6431;1.8875;
118.5000;0.6447;1.8875;
118.8000;0.6431;1.8828;
119.1000;0.6439;1.8757;
119.4000;0.6439;1.8687;
119.7000;0.6439;1.8687;
120.0000;0.6431;1.8757;
120.3000;0.6422;1.8757;
120.6000;0.6447;1.8851;
120.9000;0.6447;1.8898;
121.2000;0.6431;1.8898;
121.5000;0.6431;1.8851;
121.8000;0.6431;1.8875;
122.1000;0.6439;1.8898;
122.4000;0.6447;1.8945;
122.7000;0.6431;1.8922;
123.0000;0.6414;1.8898;
123.3000;0.6422;1.8875;
123.6000;0.6439;1.8804;
123.9000;0.6422;1.8687;
124.2000;0.6422;1.8664;
124.5000;0.6439;1.8617;
124.8000;0.6406;1.8570;
125.1000;0.6406;1.8523;
125.4000;0.6439;1.8523;
125.7000;0.6447;1.8593;
126.0000;0.6439;1.8546;
126.3000;0.6439;1.8617;
126.6000;0.6422;1.8640;
126.9000;0.6439;1.8687;
127.2000;0.6455;1.8664;
127.5000;0.6447;1.8781;
127.8000;0.6390;1.8640;
128.1000;0.6431;1.8781;
128.4000;0.6447;1.8828;
128.7000;0.6447;1.8828;
129.0000;0.6414;1.8851;
129.3000;0.6422;1.8851;
129.6000;0.6390;1.8640;
129.9000;0.6431;1.8757;
130.2000;0.6447;1.8757;
130.5000;0.6439;1.8734;
130.8000;0.6431;1.8617;
131.1000;0.6439;1.8640;
131.4000;0.6439;1.8687;
131.7000;0.6422;1.8640;
132.0000;0.6447;1.8711;
132.3000;0.6439;1.8687;
132.6000;0.6325;1.8382;
132.9000;0.6422;1.8640;
133.2000;0.6414;1.8593;
133.5000;0.6422;1.8687;
133.8000;0.6431;1.8640;
134.1000;0.6422;1.8664;
134.4000;0.6471;1.8734;
134.7000;0.6439;1.8711;
135.0000;0.6447;1.8664;
135.3000;0.6341;1.8429;
135.6000;0.6422;1.8499;
135.9000;0.6414;1.8476;
136.2000;0.6431;1.8546;
136.5000;0.6447;1.8523;
136.8000;0.6439;1.8523;
137.1000;0.6333;1.8312;
137.4000;0.6439;1.8523;
137.7000;0.6455;1.8570;
138.0000;0.6447;1.8546;
138.3000;0.6447;1.8546;
138.6000;0.6471;1.8593;
138.9000;0.6455;1.8546;
139.2000;0.6455;1.8523;
139.5000;0.6463;1.8499;
139.8000;0.6455;1.8546;
140.1000;0.6447;1.8499;
140.4000;0.6463;1.8523;
140.7000;0.6439;1.8523;
141.0000;0.6455;1.8570;
141.3000;0.6439;1.8570;
141.6000;0.6455;1.8546;
141.9000;0.6479;1.8593;
142.2000;0.6447;1.8476;
142.5000;0.6382;1.8382;
142.8000;0.6496;1.8617;
143.1000;0.6439;1.8499;
143.4000;0.6422;1.8617;
143.7000;0.6431;1.8687;
144.0000;0.6439;1.8804;
144.3000;0.6390;1.8687;
144.6000;0.6431;1.8711;
144.9000;0.6455;1.8664;
145.2000;0.6447;1.8593;
145.5000;0.6325;1.8359;
145.8000;0.6536;1.8968;
146.1000;0.6431;1.8734;
146.4000;0.6414;1.8781;
146.7000;0.6439;1.8828;
147.0000;0.6439;1.8757;
147.3000;0.6374;1.8593;
147.6000;0.6447;1.8687;
147.9000;0.6431;1.8617;
148.2000;0.6431;1.8664;
148.5000;0.6374;1.8546;
148.8000;0.6447;1.8828;
149.1000;0.6431;1.8828;
149.4000;0.6431;1.8828;
149.7000;0.6406;1.8757;
150.0000;0.6422;1.8711;
150.3000;0.6431;1.8711;
150.6000;0.6439;1.8711;
150.9000;0.6439;1.8687;
151.2000;0.6414;1.8640;
151.5000;0.6431;1.8687;
151.8000;0.6431;1.8734;
152.1000;0.6431;1.8711;
152.4000;0.6439;1.8711;
152.7000;0.6431;1.8711;
153.0000;0.6439;1.8804;
153.3000;0.6431;1.8898;
153.6000;0.6447;1.8922;
153.9000;0.6439;1.8922;
154.2000;0.6447;1.8898;
154.5000;0.6455;1.8898;
154.8000;0.6382;1.8711;
155.1000;0.6431;1.8781;
155.4000;0.6431;1.8757;
155.7000;0.6439;1.8804;
156.0000;0.6422;1.8757;
156.3000;0.6439;1.8711;
156.6000;0.6431;1.8734;
156.9000;0.6431;1.8711;
157.2000;0.6447;1.8804;
157.5000;0.6422;1.8781;
157.8000;0.6431;1.8781;
158.1000;0.6447;1.8734;
158.4000;0.6431;1.8640;
158.7000;0.6447;1.8617;
159.0000;0.6431;1.8523;
159.3000;0.6447;1.8593;
159.6000;0.6431;1.8593;
159.9000;0.6406;1.8429;
160.2000;0.6496;1.8687;
160.5000;0.6447;1.8664;
160.8000;0.6414;1.8570;
161.1000;0.6431;1.8593;
161.4000;0.6439;1.8570;
161.7000;0.6422;1.8546;
162.0000;0.6431;1.8523;
162.3000;0.6382;1.8429;
162.6000;0.6422;1.8546;
162.9000;0.6439;1.8593;
163.2000;0.6488;1.8757;
163.5000;0.6447;1.8757;
163.8000;0.6455;1.8734;
164.1000;0.6455;1.8781;
164.4000;0.6479;1.8968;
164.7000;0.6455;1.8898;
165.0000;0.6439;1.8875;
165.3000;0.6365;1.8687;
165.6000;0.6414;1.8734;
165.9000;0.6422;1.8804;
166.2000;0.6455;1.8828;
166.5000;0.6341;1.8523;
166.8000;0.6406;1.8711;
167.1000;0.6447;1.8851;
167.4000;0.6471;1.8851;
167.7000;0.6422;1.8664;
168.0000;0.6349;1.8499;
168.3000;0.6439;1.8757;
168.6000;0.6422;1.8687;
168.9000;0.6398;1.8593;
169.2000;0.6463;1.8781;
169.5000;0.6422;1.8617;
169.8000;0.6439;1.8546;
170.1000;0.6422;1.8617;
170.4000;0.6422;1.8570;
170.7000;0.6447;1.8664;
171.0000;0.6447;1.8757;
171.3000;0.6431;1.8687;
171.6000;0.6414;1.8570;
171.9000;0.6422;1.8570;
172.2000;0.6439;1.8593;
172.5000;0.6422;1.8664;
172.8000;0.6422;1.8687;
173.1000;0.6422;1.8664;
173.4000;0.6414;1.8640;
173.7000;0.6431;1.8711;
174.0000;0.6431;1.8781;
174.3000;0.6422;1.8711;
174.6000;0.6431;1.8687;
174.9000;0.6431;1.8664;
175.2000;0.6447;1.8640;
175.5000;0.6406;1.8687;
175.8000;0.6422;1.8757;
176.1000;0.6422;1.8851;
176.4000;0.6431;1.8851;
176.7000;0.6479;1.8898;
177.0000;0.6422;1.8734;
177.3000;0.6431;1.8711;
177.6000;0.6536;1.8898;
177.9000;0.6439;1.8734;
178.2000;0.6431;1.8640;
178.5000;0.6439;1.8640;
178.8000;0.6439;1.8711;
179.1000;0.6431;1.8734;
179.4000;0.6447;1.8757;
179.7000;0.6431;1.8687;
180.0000;0.6439;1.8757;
180.3000;0.6439;1.8734;
180.6000;0.6431;1.8757;
180.9000;0.6431;1.8664;
181.2000;0.6431;1.8664;
181.5000;0.6431;1.8617;
181.8000;0.6398;1.8664;
182.1000;0.6414;1.8640;
182.4000;0.6398;1.8664;
182.7000;0.6414;1.8757;
183.0000;0.6447;1.8734;
183.3000;0.6414;1.8640;
183.6000;0.6422;1.8711;
183.9000;0.6504;1.8992;
184.2000;0.6422;1.8804;
184.5000;0.6398;1.8804;
184.8000;0.6414;1.8804;
185.1000;0.6431;1.8757;
185.4000;0.6414;1.8664;
185.7000;0.6553;1.8968;
186.0000;0.6439;1.8617;
186.3000;0.6463;1.8711;
186.6000;0.6439;1.8640;
186.9000;0.6463;1.8687;
187.2000;0.6431;1.8546;
187.5000;0.6455;1.8546;
187.8000;0.6431;1.8476;
188.1000;0.6431;1.8617;
188.4000;0.6496;1.8828;
188.7000;0.6422;1.8687;
189.0000;0.6431;1.8664;
189.3000;0.6398;1.8570;
189.6000;0.6431;1.8640;
189.9000;0.6431;1.8664;
190.2000;0.6431;1.8734;
190.5000;0.6488;1.8922;
190.8000;0.6382;1.8734;
191.1000;0.6374;1.8711;
191.4000;0.6414;1.8851;
191.7000;0.6398;1.8804;
192.0000;0.6431;1.8828;
192.3000;0.6414;1.8828;
192.6000;0.6406;1.8898;
192.9000;0.6414;1.8851;
193.2000;0.6382;1.8711;
193.5000;0.6431;1.8734;
193.8000;0.6382;1.8734;
194.1000;0.6414;1.8734;
194.4000;0.6431;1.8617;
194.7000;0.6414;1.8570;
195.0000;0.6422;1.8593;
195.3000;0.6422;1.8640;
195.6000;0.6439;1.8640;
195.9000;0.6431;1.8664;
196.2000;0.6431;1.8687;
196.5000;0.6422;1.8640;
196.8000;0.6390;1.8546;
197.1000;0.6447;1.8617;
197.4000;0.6422;1.8593;
197.7000;0.6447;1.8546;
198.0000;0.6414;1.8570;
198.3000;0.6439;1.8617;
198.6000;0.6414;1.8546;
198.9000;0.6406;1.8640;
199.2000;0.6431;1.8781;
199.5000;0.6414;1.8757;
199.8000;0.6439;1.8711;
200.1000;0.6422;1.8640;
200.4000;0.6439;1.8617;
200.7000;0.6447;1.8640;
201.0000;0.6422;1.8499;
201.3000;0.6439;1.8570;
201.6000;0.6422;1.8546;
201.9000;0.6431;1.8711;
202.2000;0.6439;1.8781;
202.5000;0.6431;1.8757;
202.8000;0.6414;1.8711;
203.1000;0.6422;1.8687;
203.4000;0.6455;1.8898;
203.7000;0.6439;1.8898;
204.0000;0.6406;1.8898;
204.3000;0.6422;1.8851;
204.6000;0.6455;1.8968;
204.9000;0.6447;1.8898;
205.2000;0.6414;1.8781;
205.5000;0.6406;1.8734;
205.8000;0.6341;1.8476;
206.1000;0.6431;1.8664;
206.4000;0.6431;1.8687;
206.7000;0.6398;1.8664;
207.0000;0.6422;1.8781;
207.3000;0.6455;1.8945;
207.6000;0.6447;1.8922;
207.9000;0.6398;1.8828;
208.2000;0.6431;1.8875;
208.5000;0.6471;1.8968;
208.8000;0.6439;1.9015;
209.1000;0.6414;1.8992;
209.4000;0.6382;1.8898;
209.7000;0.6414;1.8945;
210.0000;0.6414;1.8992;
210.3000;0.6431;1.9015;
210.6000;0.6447;1.8992;
210.9000;0.6431;1.8945;
211.2000;0.6496;1.9109;
211.5000;0.6439;1.9039;
211.8000;0.6431;1.9015;
212.1000;0.6422;1.9062;
212.4000;0.6431;1.9109;
212.7000;0.6431;1.8992;
213.0000;0.6439;1.8968;
213.3000;0.6431;1.8968;
213.6000;0.6479;1.9086;
213.9000;0.6439;1.8968;
214.2000;0.6439;1.8968;
214.5000;0.6439;1.8968;
214.8000;0.6422;1.8922;
215.1000;0.6439;1.8945;
215.4000;0.6422;1.8898;
215.7000;0.6439;1.8898;
216.0000;0.6439;1.8851;
216.3000;0.6447;1.8851;
216.6000;0.6479;1.8875;
216.9000;0.6422;1.8734;
217.2000;0.6439;1.8757;
217.5000;0.6431;1.8711;
217.8000;0.6406;1.8640;
218.1000;0.6414;1.8711;
218.4000;0.6422;1.8711;
218.7000;0.6455;1.8734;
219.0000;0.6431;1.8664;
219.3000;0.6422;1.8734;
219.6000;0.6422;1.8711;
219.9000;0.6431;1.8734;
220.2000;0.6431;1.8687;
220.5000;0.6414;1.8711;
220.8000;0.6398;1.8546;
221.1000;0.6414;1.8546;
221.4000;0.6431;1.8546;
221.7000;0.6520;1.8804;
222.0000;0.6439;1.8570;
222.3000;0.6422;1.8523;
222.6000;0.6414;1.8570;
222.9000;0.6439;1.8593;
223.2000;0.6431;1.8617;
223.5000;0.6431;1.8617;
223.8000;0.6414;1.8687;
224.1000;0.6398;1.8711;
224.4000;0.6414;1.8711;
224.7000;0.6357;1.8593;
225.0000;0.6357;1.8617;
225.3000;0.6414;1.8711;
225.6000;0.6439;1.8687;
225.9000;0.6422;1.8757;
226.2000;0.6431;1.8875;
226.5000;0.6414;1.8828;
226.8000;0.6390;1.8757;
227.1000;0.6406;1.8757;
227.4000;0.6406;1.8757;
227.7000;0.6398;1.8781;
228.0000;0.6422;1.8898;
228.3000;0.6422;1.8875;
228.6000;0.6422;1.8875;
228.9000;0.6406;1.8875;
229.2000;0.6447;1.8968;
229.5000;0.6439;1.8968;
229.8000;0.6390;1.8945;
230.1000;0.6414;1.8992;
230.4000;0.6382;1.8804;
230.7000;0.6406;1.8875;
231.0000;0.6390;1.8757;
231.3000;0.6414;1.8711;
231.6000;0.6398;1.8687;
231.9000;0.6431;1.8828;
232.2000;0.6422;1.8781;
232.5000;0.6422;1.8804;
232.8000;0.6471;1.8828;
233.1000;0.6431;1.8734;
233.4000;0.6422;1.8687;
233.7000;0.6431;1.8687;
234.0000;0.6431;1.8711;
234.3000;0.6439;1.8734;
234.6000;0.6414;1.8734;
234.9000;0.6406;1.8711;
235.2000;0.6414;1.8757;
235.5000;0.6439;1.8875;
235.8000;0.6422;1.8851;
236.1000;0.6414;1.8757;
236.4000;0.6406;1.8804;
236.7000;0.6439;1.8804;
237.0000;0.6431;1.8851;
237.3000;0.6406;1.8781;
237.6000;0.6422;1.8851;
237.9000;0.6422;1.8828;
238.2000;0.6422;1.8828;
238.5000;0.6431;1.8781;
238.8000;0.6431;1.8781;
239.1000;0.6447;1.8945;
239.4000;0.6447;1.8875;
239.7000;0.6439;1.8851;
240.0000;0.6414;1.8757;
240.3000;0.6431;1.8781;
240.6000;0.6406;1.8734;
240.9000;0.6512;1.8968;
241.2000;0.6422;1.8664;
241.5000;0.6422;1.8593;
241.8000;0.6422;1.8617;
242.1000;0.6414;1.8664;
242.4000;0.6422;1.8640;
242.7000;0.6398;1.8757;
243.0000;0.6406;1.8898;
243.3000;0.6431;1.8992;
243.6000;0.6422;1.8898;
243.9000;0.6431;1.8757;
244.2000;0.6422;1.8781;
244.5000;0.6431;1.8734;
244.8000;0.6422;1.8851;
245.1000;0.6431;1.8898;
245.4000;0.6439;1.8922;
245.7000;0.6463;1.8922;
246.0000;0.6439;1.8828;
246.3000;0.6422;1.8781;
246.6000;0.6300;1.8523;
246.9000;0.6390;1.8851;
247.2000;0.6414;1.8851;
247.5000;0.6414;1.8757;
247.8000;0.6422;1.8687;
248.1000;0.6422;1.8640;
248.4000;0.6422;1.8664;
248.7000;0.6431;1.8687;
249.0000;0.6414;1.8617;
249.3000;0.6414;1.8711;
249.6000;0.6414;1.8711;
249.9000;0.6422;1.8734;
250.2000;0.6414;1.8828;
250.5000;0.6382;1.8734;
250.8000;0.6414;1.8875;
251.1000;0.6422;1.8992;
251.4000;0.6422;1.8968;
251.7000;0.6414;1.8992;
252.0000;0.6406;1.8968;
252.3000;0.6431;1.9015;
252.6000;0.6422;1.8898;
252.9000;0.6414;1.8922;
253.2000;0.6414;1.8922;
253.5000;0.6406;1.8898;
253.8000;0.6382;1.8711;
254.1000;0.6471;1.8945;
254.4000;0.6406;1.8851;
254.7000;0.6406;1.8804;
255.0000;0.6431;1.8804;
255.3000;0.6390;1.8640;
255.6000;0.6422;1.8687;
255.9000;0.6422;1.8664;
256.2000;0.6374;1.8617;
256.5000;0.6431;1.8570;
256.8000;0.6422;1.8617;
257.1000;0.6422;1.8640;
257.4000;0.6439;1.8757;
257.7000;0.6414;1.8734;
258.0000;0.6431;1.8804;
258.3000;0.6414;1.8828;
258.6000;0.6406;1.8734;
258.9000;0.6406;1.8757;
259.2000;0.6365;1.8523;
259.5000;0.6406;1.8687;
259.8000;0.6463;1.8781;
260.1000;0.6414;1.8781;
260.4000;0.6439;1.8828;
260.7000;0.6439;1.8804;
261.0000;0.6422;1.8875;
261.3000;0.6447;1.8898;
261.6000;0.6414;1.8828;
261.9000;0.6471;1.8922;
262.2000;0.6406;1.8781;
262.5000;0.6333;1.8593;
262.8000;0.6471;1.8922;
263.1000;0.6414;1.8711;
263.4000;0.6325;1.8359;
263.7000;0.6431;1.8523;
264.0000;0.6414;1.8476;
264.3000;0.6431;1.8499;
264.6000;0.6431;1.8476;
264.9000;0.6414;1.8546;
265.2000;0.6504;1.8828;
265.5000;0.6431;1.8687;
265.8000;0.6447;1.8757;
266.1000;0.6414;1.8734;
266.4000;0.6422;1.8781;
266.7000;0.6439;1.8711;
267.0000;0.6447;1.8687;
267.3000;0.6382;1.8617;
267.6000;0.6439;1.8734;
267.9000;0.6422;1.8711;
268.2000;0.6431;1.8664;
268.5000;0.6406;1.8664;
268.8000;0.6422;1.8664;
269.1000;0.6414;1.8570;
269.4000;0.6447;1.8593;
269.7000;0.6422;1.8617;
270.0000;0.6422;1.8593;
270.3000;0.6455;1.8687;
270.6000;0.6431;1.8523;
270.9000;0.6447;1.8593;
271.2000;0.6422;1.8546;
271.5000;0.6414;1.8617;
271.8000;0.6406;1.8664;
272.1000;0.6431;1.8640;
272.4000;0.6422;1.8593;
272.7000;0.6422;1.8499;
273.0000;0.6422;1.8499;
273.3000;0.6422;1.8476;
273.6000;0.6414;1.8570;
273.9000;0.6422;1.8617;
274.2000;0.6422;1.8570;
274.5000;0.6406;1.8453;
274.8000;0.6422;1.8523;
275.1000;0.6422;1.8640;
275.4000;0.6406;1.8664;
275.7000;0.6422;1.8711;
276.0000;0.6439;1.8711;
276.3000;0.6463;1.8781;
276.6000;0.6431;1.8687;
276.9000;0.6422;1.8617;
277.2000;0.6422;1.8687;
277.5000;0.6341;1.8499;
277.8000;0.6414;1.8617;
278.1000;0.6414;1.8593;
278.4000;0.6414;1.8499;
278.7000;0.6414;1.8617;
279.0000;0.6455;1.8664;
279.3000;0.6439;1.8664;
279.6000;0.6357;1.8382;
279.9000;0.6398;1.8476;
280.2000;0.6374;1.8429;
280.5000;0.6463;1.8687;
280.8000;0.6431;1.8523;
281.1000;0.6431;1.8570;
281.4000;0.6553;1.8945;
281.7000;0.6414;1.8640;
282.0000;0.6447;1.8711;
282.3000;0.6439;1.8734;
282.6000;0.6406;1.8523;
282.9000;0.6390;1.8476;
283.2000;0.6374;1.8546;
283.5000;0.6422;1.8617;
283.8000;0.6447;1.8734;
284.1000;0.6414;1.8570;
284.4000;0.6406;1.8499;
284.7000;0.6431;1.8570;
285.0000;0.6479;1.8664;
285.3000;0.6406;1.8617;
285.6000;0.6463;1.8687;
285.9000;0.6398;1.8570;
286.2000;0.6431;1.8570;
286.5000;0.6390;1.8593;
286.8000;0.6422;1.8687;
287.1000;0.6431;1.8757;
287.4000;0.6488;1.8851;
287.7000;0.6422;1.8687;
288.0000;0.6447;1.8781;
288.3000;0.6414;1.8757;
288.6000;0.6300;1.8453;
288.9000;0.6431;1.8734;
289.2000;0.6431;1.8851;
289.5000;0.6414;1.8711;
289.8000;0.6422;1.8664;
290.1000;0.6414;1.8640;
290.4000;0.6406;1.8617;
290.7000;0.6504;1.8828;
291.0000;0.6439;1.8523;
291.3000;0.6431;1.8499;
291.6000;0.6414;1.8406;
291.9000;0.6406;1.8406;
292.2000;0.6398;1.8453;
292.5000;0.6414;1.8570;
292.8000;0.6414;1.8617;
293.1000;0.6431;1.8570;
293.4000;0.6406;1.8546;
293.7000;0.6455;1.8664;
294.0000;0.6414;1.8640;
294.3000;0.6398;1.8570;
294.6000;0.6504;1.8804;
294.9000;0.6422;1.8593;
295.2000;0.6406;1.8499;
295.5000;0.6431;1.8664;
295.8000;0.6374;1.8570;
296.1000;0.6414;1.8711;
296.4000;0.6414;1.8640;
296.7000;0.6406;1.8687;
297.0000;0.6471;1.8781;
297.3000;0.6422;1.8640;
297.6000;0.6398;1.8664;
297.9000;0.6414;1.8757;
298.2000;0.6398;1.8734;
298.5000;0.6406;1.8828;
298.8000;0.6463;1.8922;
299.1000;0.6414;1.8711;
299.4000;0.6431;1.8711;
299.7000;0.6463;1.8781;
300.0000;0.6431;1.8757;
300.3000;0.6471;1.8851;
300.6000;0.6406;1.8711;
300.9000;0.6398;1.8687;
301.2000;0.6414;1.8640;
301.5000;0.6374;1.8546;
301.8000;0.6406;1.8546;
302.1000;0.6414;1.8570;
302.4000;0.6390;1.8570;
302.7000;0.6471;1.8898;
303.0000;0.6422;1.8757;
303.3000;0.6414;1.8804;
303.6000;0.6422;1.8828;
303.9000;0.6439;1.8828;
304.2000;0.6431;1.8711;
304.5000;0.6488;1.8922;
304.8000;0.6431;1.8757;
305.1000;0.6479;1.8968;
305.4000;0.6422;1.8875;
305.7000;0.6422;1.8922;
306.0000;0.6382;1.8734;
306.3000;0.6414;1.8687;
306.6000;0.6422;1.8757;
306.9000;0.6406;1.8711;
307.2000;0.6414;1.8757;
307.5000;0.6406;1.8711;
307.8000;0.6439;1.8734;
308.1000;0.6406;1.8711;
308.4000;0.6422;1.8757;
308.7000;0.6439;1.8804;
309.0000;0.6422;1.8757;
309.3000;0.6422;1.8664;
309.6000;0.6431;1.8617;
309.9000;0.6431;1.8640;
310.2000;0.6414;1.8593;
310.5000;0.6414;1.8617;
310.8000;0.6422;1.8640;
311.1000;0.6414;1.8593;
311.4000;0.6414;1.8617;
311.7000;0.6414;1.8781;
312.0000;0.6422;1.8828;
312.3000;0.6414;1.8898;
312.6000;0.6422;1.8898;
312.9000;0.6414;1.8875;
313.2000;0.6422;1.8804;
313.5000;0.6439;1.8804;
313.8000;0.6422;1.8804;
314.1000;0.6431;1.8687;
314.4000;0.6431;1.8617;
314.7000;0.6422;1.8687;
315.0000;0.6439;1.8757;
315.3000;0.6406;1.8711;
315.6000;0.6414;1.8734;
315.9000;0.6422;1.8781;
316.2000;0.6406;1.8711;
316.5000;0.6422;1.8781;
316.8000;0.6414;1.8711;
317.1000;0.6414;1.8711;
317.4000;0.6406;1.8734;
317.7000;0.6414;1.8781;
318.0000;0.6406;1.8781;
318.3000;0.6406;1.8781;
318.6000;0.6414;1.8804;
318.9000;0.6398;1.8757;
319.2000;0.6414;1.8711;
319.5000;0.6422;1.8757;
319.8000;0.6406;1.8711;
320.1000;0.6406;1.8734;
320.4000;0.6406;1.8781;
320.7000;0.6422;1.8664;
321.0000;0.6414;1.8617;
321.3000;0.6406;1.8640;
321.6000;0.6398;1.8687;
321.9000;0.6390;1.8640;
322.2000;0.6406;1.8687;
322.5000;0.6398;1.8664;
322.8000;0.6439;1.8640;
323.1000;0.6422;1.8546;
323.4000;0.6447;1.8640;
323.7000;0.6463;1.8711;
324.0000;0.6455;1.8711;
324.3000;0.6414;1.8664;
324.6000;0.6390;1.8617;
324.9000;0.6422;1.8640;
325.2000;0.6414;1.8617;
325.5000;0.6414;1.8640;
325.8000;0.6398;1.8617;
326.1000;0.6414;1.8593;
326.4000;0.6479;1.8734;
326.7000;0.6463;1.8687;
327.0000;0.6414;1.8593;
327.3000;0.6439;1.8687;
327.6000;0.6422;1.8640;
327.9000;0.6414;1.8640;
328.2000;0.6414;1.8664;
328.5000;0.6447;1.8687;
328.8000;0.6422;1.8664;
329.1000;0.6414;1.8617;
329.4000;0.6431;1.8617;
329.7000;0.6406;1.8640;
330.0000;0.6504;1.8922;
330.3000;0.6414;1.8640;
330.6000;0.6398;1.8664;
330.9000;0.6406;1.8734;
331.2000;0.6414;1.8734;
331.5000;0.6406;1.8804;
331.8000;0.6431;1.8757;
332.1000;0.6414;1.8781;
332.4000;0.6422;1.8804;
332.7000;0.6406;1.8757;
333.0000;0.6406;1.8851;
333.3000;0.6414;1.8804;
333.6000;0.6422;1.8757;
333.9000;0.6422;1.8687;
334.2000;0.6406;1.8546;
334.5000;0.6414;1.8546;
334.8000;0.6439;1.8664;
335.1000;0.6414;1.8687;
335.4000;0.6414;1.8664;
335.7000;0.6439;1.8711;
336.0000;0.6422;1.8711;
336.3000;0.6414;1.8734;
336.6000;0.6439;1.8781;
336.9000;0.6414;1.8593;
337.2000;0.6406;1.8617;
337.5000;0.6414;1.8617;
337.8000;0.6422;1.8570;
338.1000;0.6414;1.8523;
338.4000;0.6431;1.8640;
338.7000;0.6488;1.8781;
339.0000;0.6422;1.8570;
339.3000;0.6398;1.8453;
339.6000;0.6422;1.8476;
339.9000;0.6431;1.8523;
340.2000;0.6406;1.8453;
340.5000;0.6422;1.8499;
340.8000;0.6422;1.8640;
341.1000;0.6439;1.8617;
341.4000;0.6422;1.8664;
341.7000;0.6431;1.8757;
342.0000;0.6414;1.8781;
342.3000;0.6431;1.8781;
342.6000;0.6439;1.8687;
342.9000;0.6422;1.8617;
343.2000;0.6431;1.8664;
343.5000;0.6431;1.8640;
343.8000;0.6414;1.8640;
344.1000;0.6390;1.8617;
344.4000;0.6422;1.8593;
344.7000;0.6382;1.8570;
345.0000;0.6406;1.8711;
345.3000;0.6414;1.8617;
345.6000;0.6414;1.8640;
345.9000;0.6357;1.8546;
346.2000;0.6406;1.8804;
346.5000;0.6414;1.8781;
346.8000;0.6414;1.8664;
347.1000;0.6398;1.8664;
347.4000;0.6390;1.8617;
347.7000;0.6414;1.8664;
348.0000;0.6414;1.8711;
348.3000;0.6406;1.8617;
348.6000;0.6422;1.8640;
348.9000;0.6431;1.8664;
349.2000;0.6422;1.8617;
349.5000;0.6422;1.8570;
349.8000;0.6406;1.8546;
350.1000;0.6431;1.8617;
350.4000;0.6422;1.8664;
350.7000;0.6398;1.8687;
351.0000;0.6414;1.8570;
351.3000;0.6374;1.8476;
351.6000;0.6447;1.8593;
351.9000;0.6422;1.8593;
352.2000;0.6422;1.8593;
352.5000;0.6422;1.8593;
352.8000;0.6496;1.8781;
353.1000;0.6398;1.8593;
353.4000;0.6455;1.8757;
353.7000;0.6398;1.8664;
354.0000;0.6390;1.8781;
354.3000;0.6406;1.8851;
354.6000;0.6414;1.8804;
354.9000;0.6406;1.8757;
355.2000;0.6406;1.8734;
355.5000;0.6422;1.8828;
355.8000;0.6414;1.8781;
356.1000;0.6398;1.8734;
356.4000;0.6439;1.8781;
356.7000;0.6431;1.8851;
357.0000;0.6431;1.8851;
357.3000;0.6406;1.8875;
357.6000;0.6414;1.8898;
357.9000;0.6431;1.8851;
358.2000;0.6422;1.8711;
358.5000;0.6406;1.8640;
358.8000;0.6406;1.8640;
359.1000;0.6406;1.8640;
359.4000;0.6398;1.8617;
359.7000;0.6398;1.8546;
360.0000;0.6406;1.8523;
360.3000;0.6398;1.8523;
360.6000;0.6357;1.8499;
360.9000;0.6398;1.8499;
361.2000;0.6488;1.8711;
361.5000;0.6398;1.8476;
361.8000;0.6455;1.8499;
362.1000;0.6422;1.8453;
362.4000;0.6447;1.8593;
362.7000;0.6414;1.8499;
363.0000;0.6439;1.8570;
363.3000;0.6431;1.8476;
363.6000;0.6422;1.8453;
363.9000;0.6414;1.8499;
364.2000;0.6422;1.8617;
364.5000;0.6406;1.8640;
364.8000;0.6414;1.8640;
365.1000;0.6406;1.8617;
365.4000;0.6414;1.8523;
365.7000;0.6382;1.8406;
366.0000;0.6422;1.8523;
366.3000;0.6422;1.8499;
366.6000;0.6431;1.8453;
366.9000;0.6422;1.8523;
367.2000;0.6431;1.8593;
367.5000;0.6431;1.8617;
367.8000;0.6431;1.8640;
368.1000;0.6431;1.8640;
368.4000;0.6528;1.8898;
368.7000;0.6406;1.8617;
369.0000;0.6414;1.8640;
369.3000;0.6422;1.8546;
369.6000;0.6431;1.8570;
369.9000;0.6422;1.8617;
370.2000;0.6431;1.8593;
370.5000;0.6561;1.8922;
370.8000;0.6422;1.8570;
371.1000;0.6422;1.8546;
371.4000;0.6365;1.8570;
371.7000;0.6414;1.8734;
372.0000;0.6333;1.8499;
372.3000;0.6422;1.8640;
372.6000;0.6431;1.8617;
372.9000;0.6398;1.8570;
373.2000;0.6398;1.8593;
373.5000;0.6382;1.8523;
373.8000;0.6398;1.8523;
374.1000;0.6414;1.8429;
374.4000;0.6398;1.8429;
374.7000;0.6414;1.8429;
375.0000;0.6414;1.8335;
375.3000;0.6382;1.8195;
375.6000;0.6398;1.8429;
375.9000;0.6406;1.8546;
376.2000;0.6414;1.8570;
376.5000;0.6390;1.8453;
376.8000;0.6422;1.8523;
377.1000;0.6422;1.8476;
377.4000;0.6390;1.8429;
377.7000;0.6520;1.8687;
378.0000;0.6374;1.8429;
378.3000;0.6406;1.8523;
378.6000;0.6422;1.8570;
378.9000;0.6422;1.8499;
379.2000;0.6447;1.8523;
379.5000;0.6325;1.8242;
379.8000;0.6414;1.8476;
380.1000;0.6406;1.8453;
380.4000;0.6398;1.8476;
380.7000;0.6390;1.8429;
381.0000;0.6455;1.8546;
381.3000;0.6406;1.8593;
381.6000;0.6390;1.8570;
381.9000;0.6406;1.8570;
382.2000;0.6390;1.8523;
382.5000;0.6398;1.8429;
382.8000;0.6422;1.8429;
383.1000;0.6406;1.8476;
383.4000;0.6406;1.8453;
383.7000;0.6431;1.8523;
384.0000;0.6414;1.8617;
384.3000;0.6406;1.8593;
384.6000;0.6414;1.8664;
384.9000;0.6406;1.8687;
385.2000;0.6390;1.8664;
385.5000;0.6398;1.8664;
385.8000;0.6374;1.8499;
386.1000;0.6406;1.8593;
386.4000;0.6406;1.8523;
386.7000;0.6406;1.8476;
387.0000;0.6398;1.8453;
387.3000;0.6414;1.8523;
387.6000;0.6406;1.8476;
387.9000;0.6455;1.8617;
388.2000;0.6414;1.8499;
388.5000;0.6406;1.8570;
388.8000;0.6398;1.8593;
389.1000;0.6390;1.8570;
389.4000;0.6422;1.8687;
389.7000;0.6414;1.8687;
390.0000;0.6414;1.8687;
390.3000;0.6414;1.8617;
390.6000;0.6398;1.8640;
390.9000;0.6471;1.8804;
391.2000;0.6414;1.8687;
391.5000;0.6390;1.8617;
391.8000;0.6398;1.8640;
392.1000;0.6422;1.8640;
392.4000;0.6414;1.8593;
392.7000;0.6414;1.8570;
393.0000;0.6398;1.8546;
393.3000;0.6390;1.8546;
393.6000;0.6414;1.8640;
393.9000;0.6406;1.8664;
394.2000;0.6398;1.8664;
394.5000;0.6406;1.8640;
394.8000;0.6431;1.8687;
395.1000;0.6422;1.8687;
395.4000;0.6333;1.8499;
395.7000;0.6463;1.8781;
396.0000;0.6422;1.8593;
396.3000;0.6406;1.8570;
396.6000;0.6463;1.8711;
396.9000;0.6414;1.8640;
397.2000;0.6414;1.8570;
397.5000;0.6479;1.8734;
397.8000;0.6414;1.8523;
398.1000;0.6439;1.8546;
398.4000;0.6357;1.8453;
398.7000;0.6439;1.8640;
399.0000;0.6398;1.8546;
399.3000;0.6349;1.8476;
399.6000;0.6398;1.8593;
399.9000;0.6398;1.8570;
400.2000;0.6398;1.8523;
400.5000;0.6398;1.8546;
400.8000;0.6463;1.8640;
401.1000;0.6479;1.8640;
401.4000;0.6414;1.8523;
401.7000;0.6447;1.8687;
402.0000;0.6357;1.8476;
402.3000;0.6422;1.8570;
402.6000;0.6317;1.8359;
402.9000;0.6406;1.8546;
403.2000;0.6317;1.8312;
403.5000;0.6406;1.8406;
403.8000;0.6406;1.8382;
404.1000;0.6414;1.8359;
404.4000;0.6414;1.8312;
404.7000;0.6398;1.8288;
405.0000;0.6382;1.8288;
405.3000;0.6406;1.8265;
405.6000;0.6414;1.8171;
405.9000;0.6439;1.8335;
406.2000;0.6431;1.8335;
406.5000;0.6422;1.8382;
406.8000;0.6431;1.8406;
407.1000;0.6431;1.8406;
407.4000;0.6422;1.8406;
407.7000;0.6406;1.8312;
408.0000;0.6431;1.8453;
408.3000;0.6431;1.8523;
408.6000;0.6431;1.8476;
408.9000;0.6406;1.8476;
409.2000;0.6406;1.8476;
409.5000;0.6406;1.8523;
409.8000;0.6422;1.8593;
410.1000;0.6406;1.8687;
410.4000;0.6414;1.8664;
410.7000;0.6422;1.8828;
411.0000;0.6406;1.8875;
411.3000;0.6422;1.8828;
411.6000;0.6349;1.8640;
411.9000;0.6382;1.8687;
412.2000;0.6422;1.8711;
412.5000;0.6406;1.8687;
412.8000;0.6528;1.9015;
413.1000;0.6422;1.8757;
413.4000;0.6431;1.8875;
413.7000;0.6406;1.8804;
414.0000;0.6414;1.8804;
414.3000;0.6406;1.8828;
414.6000;0.6431;1.8851;
414.9000;0.6406;1.8781;
415.2000;0.6398;1.8711;
415.5000;0.6398;1.8757;
415.8000;0.6390;1.8734;
416.1000;0.6406;1.8711;
416.4000;0.6390;1.8687;
416.7000;0.6414;1.8687;
417.0000;0.6414;1.8664;
417.3000;0.6406;1.8640;
417.6000;0.6455;1.8664;
417.9000;0.6422;1.8593;
418.2000;0.6406;1.8546;
418.5000;0.6414;1.8523;
418.8000;0.6455;1.8711;
419.1000;0.6398;1.8593;
419.4000;0.6414;1.8734;
419.7000;0.6349;1.8570;
420.0000;0.6406;1.8687;
420.3000;0.6406;1.8711;
420.6000;0.6488;1.8945;
420.9000;0.6406;1.8664;
421.2000;0.6447;1.8781;
421.5000;0.6406;1.8711;
421.8000;0.6382;1.8593;
422.1000;0.6414;1.8757;
422.4000;0.6414;1.8734;
422.7000;0.6422;1.8640;
423.0000;0.6406;1.8523;
423.3000;0.6406;1.8593;
423.6000;0.6390;1.8640;
423.9000;0.6406;1.8781;
424.2000;0.6398;1.8781;
424.5000;0.6398;1.8734;
424.8000;0.6406;1.8781;
425.1000;0.6406;1.8734;
425.4000;0.6398;1.8711;
425.7000;0.6398;1.8734;
426.0000;0.6398;1.8664;
426.3000;0.6398;1.8617;
426.6000;0.6414;1.8570;
426.9000;0.6398;1.8546;
427.2000;0.6406;1.8570;
427.5000;0.6382;1.8570;
427.8000;0.6398;1.8570;
428.1000;0.6374;1.8476;
428.4000;0.6406;1.8570;
428.7000;0.6406;1.8640;
429.0000;0.6422;1.8664;
429.3000;0.6406;1.8617;
429.6000;0.6398;1.8570;
429.9000;0.6406;1.8640;
430.2000;0.6414;1.8664;
430.5000;0.6390;1.8617;
430.8000;0.6406;1.8570;
431.1000;0.6406;1.8640;
431.4000;0.6422;1.8687;
431.7000;0.6439;1.8664;
432.0000;0.6414;1.8687;
432.3000;0.6431;1.8734;
432.6000;0.6431;1.8757;
432.9000;0.6422;1.8734;
433.2000;0.6414;1.8734;
433.5000;0.6382;1.8711;
433.8000;0.6422;1.8757;
434.1000;0.6382;1.8617;
434.4000;0.6406;1.8523;
434.7000;0.6406;1.8429;
435.0000;0.6398;1.8359;
435.3000;0.6398;1.8312;
435.6000;0.6512;1.8453;
435.9000;0.6471;1.8359;
436.2000;0.6398;1.8312;
436.5000;0.6414;1.8499;
436.8000;0.6406;1.8499;
437.1000;0.6463;1.8593;
437.4000;0.6406;1.8523;
437.7000;0.6414;1.8499;
438.0000;0.6414;1.8570;
438.3000;0.6382;1.8429;
438.6000;0.6422;1.8546;
438.9000;0.6431;1.8546;
439.2000;0.6414;1.8640;
439.5000;0.6422;1.8640;
439.8000;0.6374;1.8570;
440.1000;0.6406;1.8687;
440.4000;0.6414;1.8734;
440.7000;0.6422;1.8617;
441.0000;0.6382;1.8546;
441.3000;0.6406;1.8570;
441.6000;0.6414;1.8640;
441.9000;0.6390;1.8570;
442.2000;0.6398;1.8687;
442.5000;0.6406;1.8664;
442.8000;0.6414;1.8711;
443.1000;0.6398;1.8640;
443.4000;0.6406;1.8617;
443.7000;0.6414;1.8593;
444.0000;0.6398;1.8523;
444.3000;0.6528;1.8875;
444.6000;0.6414;1.8546;
444.9000;0.6422;1.8570;
445.2000;0.6390;1.8476;
445.5000;0.6414;1.8499;
445.8000;0.6398;1.8453;
446.1000;0.6398;1.8523;
446.4000;0.6406;1.8546;
446.7000;0.6414;1.8523;
447.0000;0.6398;1.8429;
447.3000;0.6406;1.8429;
447.6000;0.6406;1.8453;
447.9000;0.6431;1.8523;
448.2000;0.6406;1.8546;
448.5000;0.6398;1.8499;
448.8000;0.6382;1.8476;
449.1000;0.6406;1.8593;
449.4000;0.6398;1.8570;
449.7000;0.6406;1.8617;
450.0000;0.6398;1.8570;
450.3000;0.6414;1.8664;
450.6000;0.6414;1.8687;
450.9000;0.6406;1.8711;
451.2000;0.6406;1.8640;
451.5000;0.6479;1.8828;
451.8000;0.6406;1.8593;
452.1000;0.6398;1.8523;
452.4000;0.6414;1.8546;
452.7000;0.6422;1.8546;
453.0000;0.6398;1.8476;
453.3000;0.6414;1.8640;
453.6000;0.6390;1.8640;
453.9000;0.6398;1.8570;
454.2000;0.6406;1.8570;
454.5000;0.6406;1.8593;
454.8000;0.6422;1.8687;
455.1000;0.6390;1.8734;
455.4000;0.6382;1.8711;
455.7000;0.6341;1.8523;
456.0000;0.6390;1.8570;
456.3000;0.6382;1.8593;
456.6000;0.6390;1.8617;
456.9000;0.6463;1.8804;
457.2000;0.6357;1.8523;
457.5000;0.6406;1.8664;
457.8000;0.6349;1.8593;
458.1000;0.6390;1.8640;
458.4000;0.6398;1.8757;
458.7000;0.6341;1.8640;
459.0000;0.6357;1.8734;
459.3000;0.6390;1.8875;
459.6000;0.6390;1.8945;
459.9000;0.6398;1.9039;
460.2000;0.6398;1.8945;
460.5000;0.6520;1.9226;
460.8000;0.6398;1.8945;
461.1000;0.6406;1.8968;
461.4000;0.6414;1.8968;
461.7000;0.6398;1.9015;
462.0000;0.6390;1.8945;
462.3000;0.6414;1.8898;
462.6000;0.6414;1.8898;
462.9000;0.6398;1.8804;
463.2000;0.6414;1.8757;
463.5000;0.6390;1.8711;
463.8000;0.6406;1.8804;
464.1000;0.6422;1.8804;
464.4000;0.6414;1.8828;
464.7000;0.6398;1.8828;
465.0000;0.6431;1.8945;
465.3000;0.6398;1.8851;
465.6000;0.6406;1.8851;
465.9000;0.6398;1.8922;
466.2000;0.6406;1.8968;
466.5000;0.6422;1.8968;
466.8000;0.6390;1.8922;
467.1000;0.6406;1.8922;
467.4000;0.6398;1.8875;
467.7000;0.6398;1.8851;
468.0000;0.6422;1.9039;
468.3000;0.6406;1.8922;
468.6000;0.6406;1.8922;
468.9000;0.6414;1.8898;
469.2000;0.6439;1.8992;
469.5000;0.6398;1.8922;
469.8000;0.6414;1.8922;
470.1000;0.6374;1.8828;
470.4000;0.6414;1.8851;
470.7000;0.6439;1.8828;
471.0000;0.6414;1.8851;
471.3000;0.6406;1.8945;
471.6000;0.6455;1.9015;
471.9000;0.6406;1.8945;
472.2000;0.6398;1.8898;
472.5000;0.6422;1.8968;
472.8000;0.6496;1.9203;
473.1000;0.6382;1.8922;
473.4000;0.6382;1.8898;
473.7000;0.6406;1.8875;
474.0000;0.6398;1.8968;
474.3000;0.6390;1.8992;
474.6000;0.6398;1.8875;
474.9000;0.6390;1.8875;
475.2000;0.6414;1.8968;
475.5000;0.6382;1.8851;
475.8000;0.6374;1.8828;
476.1000;0.6398;1.8828;
476.4000;0.6422;1.8851;
476.7000;0.6398;1.8828;
477.0000;0.6398;1.8851;
477.3000;0.6414;1.8922;
477.6000;0.6414;1.9015;
477.9000;0.6406;1.8968;
478.2000;0.6414;1.8875;
478.5000;0.6398;1.8851;
478.8000;0.6309;1.8640;
479.1000;0.6406;1.8804;
479.4000;0.6374;1.8781;
479.7000;0.6431;1.8757;
480.0000;0.6439;1.8734;
480.3000;0.6398;1.8640;
480.6000;0.6398;1.8711;
480.9000;0.6414;1.8711;
481.2000;0.6406;1.8687;
481.5000;0.6390;1.8711;
481.8000;0.6471;1.8804;
482.1000;0.6406;1.8711;
482.4000;0.6414;1.8687;
482.7000;0.6398;1.8664;
483.0000;0.6406;1.8734;
483.3000;0.6390;1.8711;
483.6000;0.6390;1.8851;
483.9000;0.6390;1.8875;
484.2000;0.6390;1.8922;
484.5000;0.6390;1.8922;
484.8000;0.6398;1.8898;
485.1000;0.6406;1.8875;
485.4000;0.6406;1.8851;
485.7000;0.6414;1.8828;
486.0000;0.6398;1.8851;
486.3000;0.6390;1.8828;
486.6000;0.6406;1.8851;
486.9000;0.6390;1.8828;
487.2000;0.6398;1.8875;
487.5000;0.6357;1.8875;
487.8000;0.6406;1.8992;
488.1000;0.6406;1.8875;
488.4000;0.6422;1.8945;
488.7000;0.6414;1.8945;
489.0000;0.6398;1.8804;
489.3000;0.6439;1.8898;
489.6000;0.6406;1.8828;
489.9000;0.6390;1.8922;
490.2000;0.6398;1.8945;
490.5000;0.6406;1.8922;
490.8000;0.6520;1.9203;
491.1000;0.6414;1.8875;
491.4000;0.6365;1.8734;
491.7000;0.6390;1.8711;
492.0000;0.6390;1.8757;
492.3000;0.6406;1.8828;
492.6000;0.6365;1.8757;
492.9000;0.6406;1.8757;
493.2000;0.6390;1.8757;
493.5000;0.6406;1.8734;
493.8000;0.6398;1.8875;
494.1000;0.6382;1.8804;
494.4000;0.6365;1.8875;
494.7000;0.6414;1.8922;
495.0000;0.6390;1.8922;
495.3000;0.6512;1.9133;
495.6000;0.6398;1.8898;
495.9000;0.6398;1.8828;
496.2000;0.6382;1.8734;
496.5000;0.6390;1.8734;
496.8000;0.6414;1.8757;
497.1000;0.6406;1.8851;
497.4000;0.6390;1.8851;
497.7000;0.6390;1.8757;
498.0000;0.6398;1.8781;
498.3000;0.6422;1.8804;
498.6000;0.6406;1.8757;
498.9000;0.6406;1.8804;
499.2000;0.6447;1.8922;
499.5000;0.6390;1.8851;
499.8000;0.6422;1.8828;
500.1000;0.6398;1.8828;
500.4000;0.6382;1.8711;
500.7000;0.6390;1.8687;
501.0000;0.6414;1.8664;
501.3000;0.6422;1.8734;
501.6000;0.6406;1.8687;
501.9000;0.6382;1.8617;
502.2000;0.6398;1.8687;
502.5000;0.6414;1.8687;
502.8000;0.6374;1.8593;
503.1000;0.6422;1.8640;
503.4000;0.6414;1.8546;
503.7000;0.6341;1.8476;
504.0000;0.6398;1.8640;
504.3000;0.6382;1.8711;
504.6000;0.6390;1.8757;
504.9000;0.6365;1.8734;
505.2000;0.6390;1.8687;
505.5000;0.6374;1.8711;
505.8000;0.6414;1.8757;
506.1000;0.6390;1.8734;
506.4000;0.6374;1.8640;
506.7000;0.6382;1.8593;
507.0000;0.6398;1.8664;
507.3000;0.6398;1.8711;
507.6000;0.6382;1.8734;
507.9000;0.6374;1.8734;
508.2000;0.6390;1.8828;
508.5000;0.6390;1.8828;
508.8000;0.6406;1.8968;
509.1000;0.6390;1.8992;
509.4000;0.6382;1.8898;
509.7000;0.6374;1.8898;
510.0000;0.6406;1.8851;
510.3000;0.6382;1.8734;
510.6000;0.6390;1.8898;
510.9000;0.6398;1.8898;
511.2000;0.6414;1.9015;
511.5000;0.6414;1.9015;
511.8000;0.6488;1.9273;
512.1000;0.6406;1.9062;
512.4000;0.6414;1.8945;
512.7000;0.6382;1.8828;
513.0000;0.6398;1.8851;
513.3000;0.6398;1.8875;
513.6000;0.6414;1.8898;
513.9000;0.6398;1.8875;
514.2000;0.6398;1.8945;
514.5000;0.6406;1.8922;
514.8000;0.6390;1.8898;
515.1000;0.6414;1.8875;
515.4000;0.6390;1.8687;
515.7000;0.6390;1.8593;
516.0000;0.6398;1.8546;
516.3000;0.6398;1.8499;
516.6000;0.6398;1.8476;
516.9000;0.6390;1.8499;
517.2000;0.6374;1.8429;
517.5000;0.6390;1.8499;
517.8000;0.6422;1.8499;
518.1000;0.6414;1.8523;
518.4000;0.6390;1.8593;
518.7000;0.6398;1.8687;
519.0000;0.6414;1.8757;
519.3000;0.6422;1.8851;
519.6000;0.6317;1.8570;
519.9000;0.6398;1.8734;
520.2000;0.6398;1.8757;
520.5000;0.6382;1.8828;
520.8000;0.6406;1.8968;
521.1000;0.6390;1.8922;
521.4000;0.6390;1.8945;
521.7000;0.6390;1.8922;
522.0000;0.6365;1.8781;
522.3000;0.6398;1.8851;
522.6000;0.6398;1.8875;
522.9000;0.6439;1.8968;
523.2000;0.6398;1.8804;
523.5000;0.6398;1.8804;
523.8000;0.6382;1.8804;
524.1000;0.6414;1.8945;
524.4000;0.6414;1.8922;
524.7000;0.6414;1.8875;
525.0000;0.6398;1.8828;
525.3000;0.6406;1.8922;
525.6000;0.6398;1.8828;
525.9000;0.6406;1.8875;
526.2000;0.6398;1.8875;
526.5000;0.6406;1.8992;
526.8000;0.6398;1.8851;
527.1000;0.6398;1.8898;
527.4000;0.6349;1.8757;
527.7000;0.6439;1.8945;
528.0000;0.6390;1.8828;
528.3000;0.6406;1.8898;
528.6000;0.6406;1.8898;
528.9000;0.6398;1.8875;
529.2000;0.6398;1.8851;
529.5000;0.6414;1.8945;
529.8000;0.6349;1.8757;
530.1000;0.6398;1.8781;
530.4000;0.6374;1.8617;
530.7000;0.6414;1.8640;
531.0000;0.6406;1.8640;
531.3000;0.6390;1.8687;
531.6000;0.6398;1.8804;
531.9000;0.6390;1.8828;
532.2000;0.6390;1.8781;
532.5000;0.6390;1.8734;
532.8000;0.6398;1.8711;
533.1000;0.6390;1.8664;
533.4000;0.6382;1.8757;
533.7000;0.6357;1.8640;
534.0000;0.6390;1.8617;
534.3000;0.6382;1.8617;
534.6000;0.6447;1.8664;
534.9000;0.6398;1.8570;
535.2000;0.6390;1.8570;
535.5000;0.6414;1.8664;
535.8000;0.6414;1.8687;
536.1000;0.6390;1.8781;
536.4000;0.6422;1.8875;
536.7000;0.6414;1.8898;
537.0000;0.6398;1.8898;
537.3000;0.6398;1.8945;
537.6000;0.6374;1.9015;
537.9000;0.6333;1.8851;
538.2000;0.6398;1.8851;
538.5000;0.6365;1.8757;
538.8000;0.6406;1.8734;
539.1000;0.6390;1.8687;
539.4000;0.6398;1.8664;
539.7000;0.6414;1.8617;
540.0000;0.6406;1.8640;
540.3000;0.6390;1.8711;
540.6000;0.6374;1.8711;
540.9000;0.6398;1.8804;
541.2000;0.6390;1.8828;
541.5000;0.6382;1.8828;
541.8000;0.6398;1.8757;
542.1000;0.6398;1.8664;
542.4000;0.6406;1.8617;
542.7000;0.6390;1.8570;
543.0000;0.6390;1.8570;
543.3000;0.6398;1.8546;
543.6000;0.6398;1.8664;
543.9000;0.6390;1.8664;
544.2000;0.6406;1.8711;
544.5000;0.6390;1.8664;
544.8000;0.6406;1.8593;
545.1000;0.6398;1.8593;
545.4000;0.6390;1.8687;
545.7000;0.6374;1.8687;
546.0000;0.6390;1.8734;
546.3000;0.6406;1.8734;
546.6000;0.6390;1.8757;
546.9000;0.6398;1.8851;
547.2000;0.6398;1.8875;
547.5000;0.6398;1.8898;
547.8000;0.6398;1.8828;
548.1000;0.6390;1.8781;
548.4000;0.6406;1.8851;
548.7000;0.6317;1.8570;
549.0000;0.6390;1.8687;
549.3000;0.6390;1.8664;
549.6000;0.6414;1.8687;
549.9000;0.6512;1.8945;
550.2000;0.6414;1.8664;
550.5000;0.6398;1.8664;
550.8000;0.6439;1.8757;
551.1000;0.6398;1.8687;
551.4000;0.6414;1.8711;
551.7000;0.6431;1.8804;
552.0000;0.6357;1.8570;
552.3000;0.6398;1.8640;
552.6000;0.6390;1.8664;
552.9000;0.6390;1.8711;
553.2000;0.6390;1.8734;
553.5000;0.6374;1.8687;
553.8000;0.6390;1.8711;
554.1000;0.6390;1.8640;
554.4000;0.6382;1.8570;
554.7000;0.6414;1.8617;
555.0000;0.6398;1.8711;
555.3000;0.6349;1.8593;
555.6000;0.6422;1.8734;
555.9000;0.6406;1.8687;
556.2000;0.6398;1.8711;
556.5000;0.6414;1.8711;
556.8000;0.6398;1.8757;
557.1000;0.6406;1.8757;
557.4000;0.6341;1.8687;
557.7000;0.6406;1.8828;
558.0000;0.6414;1.8757;
558.3000;0.6390;1.8711;
558.6000;0.6382;1.8664;
558.9000;0.6398;1.8687;
559.2000;0.6390;1.8711;
559.5000;0.6390;1.8734;
559.8000;0.6382;1.8711;
560.1000;0.6398;1.8734;
560.4000;0.6398;1.8851;
560.7000;0.6398;1.8851;
561.0000;0.6390;1.8757;
561.3000;0.6390;1.8781;
561.6000;0.6406;1.8781;
561.9000;0.6406;1.8687;
562.2000;0.6390;1.8664;
562.5000;0.6406;1.8757;
562.8000;0.6406;1.8687;
563.1000;0.6398;1.8664;
563.4000;0.6406;1.8711;
563.7000;0.6398;1.8711;
564.0000;0.6398;1.8711;
564.3000;0.6374;1.8617;
564.6000;0.6406;1.8734;
564.9000;0.6382;1.8828;
565.2000;0.6390;1.8828;
565.5000;0.6431;1.8851;
565.8000;0.6374;1.8640;
566.1000;0.6398;1.8734;
566.4000;0.6406;1.8687;
566.7000;0.6414;1.8664;
567.0000;0.6398;1.8687;
567.3000;0.6390;1.8711;
567.6000;0.6398;1.8781;
567.9000;0.6398;1.8804;
568.2000;0.6333;1.8617;
568.5000;0.6414;1.8875;
568.8000;0.6406;1.8851;
569.1000;0.6365;1.8781;
569.4000;0.6382;1.8828;
569.7000;0.6390;1.8922;
570.0000;0.6390;1.8781;
570.3000;0.6398;1.8757;
570.6000;0.6414;1.8804;
570.9000;0.6398;1.8734;
571.2000;0.6382;1.8711;
571.5000;0.6406;1.8757;
571.8000;0.6365;1.8687;
572.1000;0.6390;1.8781;
572.4000;0.6390;1.8757;
572.7000;0.6382;1.8640;
573.0000;0.6382;1.8640;
573.3000;0.6398;1.8640;
573.6000;0.6390;1.8687;
573.9000;0.6390;1.8664;
574.2000;0.6398;1.8734;
574.5000;0.6382;1.8804;
574.8000;0.6398;1.8804;
575.1000;0.6390;1.8804;
575.4000;0.6414;1.8922;
575.7000;0.6382;1.8734;
576.0000;0.6300;1.8570;
576.3000;0.6390;1.8875;
576.6000;0.6382;1.8851;
576.9000;0.6406;1.8828;
577.2000;0.6422;1.8734;
577.5000;0.6365;1.8593;
577.8000;0.6382;1.8711;
578.1000;0.6349;1.8664;
578.4000;0.6390;1.8734;
578.7000;0.6374;1.8664;
579.0000;0.6398;1.8734;
579.3000;0.6447;1.8968;
579.6000;0.6390;1.8804;
579.9000;0.6390;1.8757;
580.2000;0.6390;1.8828;
580.5000;0.6374;1.8757;
580.8000;0.6398;1.8757;
581.1000;0.6382;1.8757;
581.4000;0.6398;1.8875;
581.7000;0.6382;1.8828;
582.0000;0.6382;1.8945;
582.3000;0.6406;1.8992;
582.6000;0.6357;1.8922;
582.9000;0.6390;1.8898;
583.2000;0.6390;1.8828;
583.5000;0.6390;1.8757;
583.8000;0.6398;1.8757;
584.1000;0.6390;1.8687;
584.4000;0.6357;1.8617;
584.7000;0.6422;1.8711;
585.0000;0.6406;1.8687;
585.3000;0.6374;1.8593;
585.6000;0.6390;1.8593;
585.9000;0.6390;1.8687;
586.2000;0.6439;1.8757;
586.5000;0.6390;1.8664;
586.8000;0.6390;1.8711;
587.1000;0.6382;1.8734;
587.4000;0.6504;1.9015;
587.7000;0.6374;1.8734;
588.0000;0.6382;1.8711;
588.3000;0.6406;1.8781;
588.6000;0.6390;1.8757;
588.9000;0.6390;1.8711;
589.2000;0.6447;1.8828;
589.5000;0.6398;1.8664;
589.8000;0.6382;1.8640;
590.1000;0.6398;1.8687;
590.4000;0.6365;1.8664;
590.7000;0.6398;1.8757;
591.0000;0.6382;1.8734;
591.3000;0.6390;1.8804;
591.6000;0.6374;1.8711;
591.9000;0.6390;1.8757;
592.2000;0.6365;1.8804;
592.5000;0.6374;1.8851;
592.8000;0.6390;1.8875;
593.1000;0.6382;1.8851;
593.4000;0.6390;1.8968;
593.7000;0.6398;1.8945;
594.0000;0.6382;1.8992;
594.3000;0.6390;1.8945;
594.6000;0.6374;1.8781;
594.9000;0.6390;1.8687;
595.2000;0.6406;1.8757;
595.5000;0.6390;1.8828;
595.8000;0.6382;1.8851;
596.1000;0.6390;1.8875;
596.4000;0.6390;1.8898;
596.7000;0.6382;1.8922;
597.0000;0.6390;1.8922;
597.3000;0.6390;1.8875;
597.6000;0.6382;1.8898;
597.9000;0.6422;1.8875;
598.2000;0.6406;1.8757;
598.5000;0.6382;1.8804;
598.8000;0.6406;1.8968;
599.1000;0.6406;1.9086;
599.4000;0.6406;1.9062;
599.7000;0.6390;1.8945;
600.0000;0.6406;1.8898;
600.3000;0.6406;1.8875;
600.6000;0.6414;1.8711;
600.9000;0.6374;1.8523;
601.2000;0.6333;1.8359;
601.5000;0.6268;1.8077;
601.8000;0.6252;1.7937;
602.1000;0.6195;1.7679;
602.4000;0.6162;1.7538;
602.7000;0.6097;1.7304;
603.0000;0.6072;1.7140;
603.3000;0.6015;1.6835;
603.6000;0.6007;1.6647;
603.9000;0.5934;1.6507;
604.2000;0.5918;1.6436;
604.5000;0.5902;1.6389;
604.8000;0.5820;1.6225;
605.1000;0.5779;1.6155;
605.4000;0.5796;1.6202;
605.7000;0.5804;1.6319;
606.0000;0.5714;1.6155;
606.3000;0.5690;1.6108;
606.6000;0.5706;1.6131;
606.9000;0.5625;1.5967;
607.2000;0.5617;1.5967;
607.5000;0.5600;1.5920;
607.8000;0.5551;1.5897;
608.1000;0.5543;1.5897;
608.4000;0.5503;1.5756;
608.7000;0.5511;1.5709;
609.0000;0.5495;1.5662;
609.3000;0.5470;1.5662;
609.6000;0.5446;1.5709;
609.9000;0.5429;1.5592;
610.2000;0.5356;1.5381;
610.5000;0.5421;1.5428;
610.8000;0.5332;1.5240;
611.1000;0.5356;1.5381;
611.4000;0.5372;1.5451;
611.7000;0.5356;1.5522;
612.0000;0.5340;1.5428;
612.3000;0.5275;1.5358;
612.6000;0.5275;1.5358;
612.9000;0.5291;1.5334;
613.2000;0.5242;1.5287;
613.5000;0.5226;1.5147;
613.8000;0.5210;1.5100;
614.1000;0.5332;1.5405;
614.4000;0.5161;1.5029;
614.7000;0.5161;1.4982;
615.0000;0.5153;1.5053;
615.3000;0.5161;1.5076;
615.6000;0.5153;1.5076;
615.9000;0.5120;1.5100;
616.2000;0.5104;1.4982;
616.5000;0.5104;1.5053;
616.8000;0.5104;1.5029;
617.1000;0.5063;1.4959;
617.4000;0.5039;1.4936;
617.7000;0.5047;1.4936;
618.0000;0.5071;1.5029;
618.3000;0.5031;1.4982;
618.6000;0.5006;1.4865;
618.9000;0.5006;1.4912;
619.2000;0.4982;1.4842;
619.5000;0.4998;1.4889;
619.8000;0.4974;1.4865;
620.1000;0.4965;1.4936;
620.4000;0.4957;1.4959;
620.7000;0.4941;1.4936;
621.0000;0.5022;1.5123;
621.3000;0.4917;1.4818;
621.6000;0.4933;1.4795;
621.9000;0.4933;1.4865;
622.2000;0.4908;1.4936;
622.5000;0.4933;1.5053;
622.8000;0.4908;1.4959;
623.1000;0.4860;1.4889;
623.4000;0.4876;1.4982;
623.7000;0.4917;1.5053;
624.0000;0.4851;1.4912;
624.3000;0.4868;1.4936;
624.6000;0.4851;1.4959;
624.9000;0.4827;1.4936;
625.2000;0.4819;1.4959;
625.5000;0.4811;1.5029;
625.8000;0.4851;1.5170;
626.1000;0.4786;1.5100;
626.4000;0.4786;1.5123;
626.7000;0.4794;1.5100;
627.0000;0.4770;1.5029;
627.3000;0.4819;1.5123;
627.6000;0.4786;1.5006;
627.9000;0.4746;1.4865;
628.2000;0.4746;1.4982;
628.5000;0.4729;1.4982;
628.8000;0.4746;1.4982;
629.1000;0.4721;1.4959;
629.4000;0.4729;1.4982;
629.7000;0.4754;1.4982;
630.0000;0.4737;1.4959;
630.3000;0.4729;1.4982;
630.6000;0.4721;1.5006;
630.9000;0.4729;1.5170;
631.2000;0.4697;1.5100;
631.5000;0.4681;1.5170;
631.8000;0.4624;1.5029;
632.1000;0.4672;1.5100;
632.4000;0.4746;1.5217;
632.7000;0.4681;1.5076;
633.0000;0.4656;1.4982;
633.3000;0.4656;1.5006;
633.6000;0.4640;1.5006;
633.9000;0.4640;1.4982;
634.2000;0.4656;1.5076;
634.5000;0.4632;1.5029;
634.8000;0.4656;1.5147;
635.1000;0.4640;1.5147;
635.4000;0.4624;1.5006;
635.7000;0.4624;1.4982;
636.0000;0.4615;1.5029;
636.3000;0.4615;1.5053;
636.6000;0.4607;1.5076;
636.9000;0.4583;1.4982;
637.2000;0.4624;1.5194;
637.5000;0.4607;1.5123;
637.8000;0.4607;1.5076;
638.1000;0.4607;1.5170;
638.4000;0.4526;1.4889;
638.7000;0.4591;1.5100;
639.0000;0.4591;1.5147;
639.3000;0.4583;1.5100;
639.6000;0.4583;1.5123;
639.9000;0.4591;1.5076;
640.2000;0.4583;1.5053;
640.5000;0.4575;1.5029;
640.8000;0.4575;1.5029;
641.1000;0.4607;1.5029;
641.4000;0.4550;1.4936;
641.7000;0.4550;1.4959;
642.0000;0.4558;1.5029;
642.3000;0.4550;1.5006;
642.6000;0.4542;1.5076;
642.9000;0.4567;1.5170;
643.2000;0.4534;1.5147;
643.5000;0.4534;1.5123;
643.8000;0.4518;1.5123;
644.1000;0.4518;1.5029;
644.4000;0.4526;1.5006;
644.7000;0.4510;1.4959;
645.0000;0.4518;1.4912;
645.3000;0.4542;1.4982;
645.6000;0.4510;1.4889;
645.9000;0.4501;1.4865;
646.2000;0.4469;1.4865;
646.5000;0.4493;1.4889;
646.8000;0.4444;1.4795;
647.1000;0.4469;1.4889;
647.4000;0.4444;1.4889;
647.7000;0.4575;1.5334;
648.0000;0.4493;1.5123;
648.3000;0.4493;1.5147;
648.6000;0.4404;1.4842;
648.9000;0.4469;1.5123;
649.2000;0.4461;1.5170;
649.5000;0.4510;1.5311;
649.8000;0.4461;1.5170;
650.1000;0.4477;1.5217;
650.4000;0.4461;1.5100;
650.7000;0.4461;1.5194;
651.0000;0.4469;1.5287;
651.3000;0.4412;1.5100;
651.6000;0.4436;1.5170;
651.9000;0.4444;1.5147;
652.2000;0.4453;1.5123;
652.5000;0.4428;1.5123;
652.8000;0.4428;1.5123;
653.1000;0.4436;1.5123;
653.4000;0.4444;1.5053;
653.7000;0.4453;1.5029;
654.0000;0.4436;1.4936;
654.3000;0.4420;1.4889;
654.6000;0.4412;1.4842;
654.9000;0.4461;1.4959;
655.2000;0.4428;1.4889;
655.5000;0.4428;1.4889;
655.8000;0.4428;1.4889;
656.1000;0.4420;1.4818;
656.4000;0.4404;1.4818;
656.7000;0.4420;1.4818;
657.0000;0.4420;1.4842;
657.3000;0.4404;1.4795;
657.6000;0.4387;1.4748;
657.9000;0.4404;1.4865;
658.2000;0.4404;1.4912;
658.5000;0.4412;1.4959;
658.8000;0.4428;1.5029;
659.1000;0.4355;1.4936;
659.4000;0.4412;1.5076;
659.7000;0.4387;1.4912;
660.0000;0.4420;1.4936;
660.3000;0.4404;1.4982;
660.6000;0.4387;1.5053;
660.9000;0.4355;1.4889;
661.2000;0.4282;1.4678;
661.5000;0.4379;1.4842;
661.8000;0.4387;1.4842;
662.1000;0.4379;1.4795;
662.4000;0.4379;1.4771;
662.7000;0.4379;1.4701;
663.0000;0.4396;1.4818;
663.3000;0.4387;1.4912;
663.6000;0.4387;1.5006;
663.9000;0.4396;1.5076;
664.2000;0.4379;1.4959;
664.5000;0.4396;1.4912;
664.8000;0.4387;1.4959;
665.1000;0.4355;1.4982;
665.4000;0.4387;1.5147;
665.7000;0.4387;1.5147;
666.0000;0.4371;1.5100;
666.3000;0.4371;1.4912;
666.6000;0.4347;1.4842;
666.9000;0.4355;1.4771;
667.2000;0.4363;1.4865;
667.5000;0.4355;1.4889;
667.8000;0.4306;1.4795;
668.1000;0.4339;1.4842;
668.4000;0.4387;1.4936;
668.7000;0.4347;1.4912;
669.0000;0.4322;1.4889;
669.3000;0.4339;1.4865;
669.6000;0.4314;1.4678;
669.9000;0.4249;1.4584;
670.2000;0.4322;1.4795;
670.5000;0.4330;1.4912;
670.8000;0.4225;1.4654;
671.1000;0.4322;1.4865;
671.4000;0.4330;1.4818;
671.7000;0.4339;1.4795;
672.0000;0.4322;1.4795;
672.3000;0.4257;1.4678;
672.6000;0.4322;1.4748;
672.9000;0.4322;1.4771;
673.2000;0.4330;1.4771;
673.5000;0.4387;1.4936;
673.8000;0.4330;1.4795;
674.1000;0.4322;1.4795;
674.4000;0.4322;1.4748;
674.7000;0.4339;1.4725;
675.0000;0.4330;1.4842;
675.3000;0.4330;1.4865;
675.6000;0.4314;1.4818;
675.9000;0.4322;1.4865;
676.2000;0.4314;1.4912;
676.5000;0.4306;1.4982;
676.8000;0.4322;1.4936;
677.1000;0.4298;1.4982;
677.4000;0.4298;1.4959;
677.7000;0.4298;1.4912;
678.0000;0.4282;1.4842;
678.3000;0.4314;1.4889;
678.6000;0.4355;1.5029;
678.9000;0.4306;1.4936;
679.2000;0.4306;1.4842;
679.5000;0.4306;1.4889;
679.8000;0.4314;1.4912;
680.1000;0.4322;1.4936;
680.4000;0.4339;1.5006;
680.7000;0.4330;1.4936;
681.0000;0.4298;1.4842;
681.3000;0.4298;1.4842;
681.6000;0.4265;1.4795;
681.9000;0.4298;1.4701;
682.2000;0.4290;1.4607;
682.5000;0.4274;1.4560;
682.8000;0.4298;1.4607;
683.1000;0.4282;1.4771;
683.4000;0.4274;1.4865;
683.7000;0.4314;1.5053;
684.0000;0.4257;1.4889;
684.3000;0.4298;1.4912;
684.6000;0.4274;1.4982;
684.9000;0.4290;1.4936;
685.2000;0.4282;1.4889;
685.5000;0.4330;1.4959;
685.8000;0.4282;1.4795;
686.1000;0.4265;1.4748;
686.4000;0.4282;1.4771;
686.7000;0.4208;1.4725;
687.0000;0.4298;1.4912;
687.3000;0.4274;1.4842;
687.6000;0.4306;1.4959;
687.9000;0.4274;1.4936;
688.2000;0.4265;1.5053;
688.5000;0.4274;1.4982;
688.8000;0.4274;1.4982;
689.1000;0.4274;1.4912;
689.4000;0.4290;1.4959;
689.7000;0.4298;1.4982;
690.0000;0.4274;1.5006;
690.3000;0.4249;1.5006;
690.6000;0.4265;1.5029;
690.9000;0.4241;1.4936;
691.2000;0.4265;1.4959;
691.5000;0.4282;1.4959;
691.8000;0.4265;1.4865;
692.1000;0.4257;1.4865;
692.4000;0.4265;1.4889;
692.7000;0.4265;1.4818;
693.0000;0.4192;1.4560;
693.3000;0.4249;1.4678;
693.6000;0.4241;1.4725;
693.9000;0.4265;1.4842;
694.2000;0.4274;1.4865;
694.5000;0.4265;1.4865;
694.8000;0.4265;1.5006;
695.1000;0.4274;1.5029;
695.4000;0.4290;1.5076;
695.7000;0.4265;1.5006;
696.0000;0.4265;1.4959;
696.3000;0.4249;1.4912;
696.6000;0.4257;1.4982;
696.9000;0.4265;1.4959;
697.2000;0.4282;1.4865;
697.5000;0.4282;1.4842;
697.8000;0.4265;1.4748;
698.1000;0.4265;1.4725;
698.4000;0.4274;1.4748;
698.7000;0.4249;1.4748;
699.0000;0.4265;1.4795;
699.3000;0.4257;1.4771;
699.6000;0.4233;1.4771;
699.9000;0.4184;1.4701;
700.2000;0.4233;1.4795;
700.5000;0.4225;1.4771;
700.8000;0.4233;1.4748;
701.1000;0.4257;1.4889;
701.4000;0.4274;1.4936;
701.7000;0.4249;1.4842;
702.0000;0.4233;1.4818;
702.3000;0.4241;1.4889;
702.6000;0.4249;1.4912;
702.9000;0.4241;1.4865;
703.2000;0.4233;1.4889;
703.5000;0.4217;1.4865;
703.8000;0.4217;1.4842;
704.1000;0.4233;1.4982;
704.4000;0.4176;1.4912;
704.7000;0.4322;1.5194;
705.0000;0.4184;1.4936;
705.3000;0.4225;1.5076;
705.6000;0.4265;1.5170;
705.9000;0.4241;1.5100;
706.2000;0.4233;1.5076;
706.5000;0.4233;1.5029;
706.8000;0.4151;1.4795;
707.1000;0.4233;1.4959;
707.4000;0.4233;1.4982;
707.7000;0.4217;1.4936;
708.0000;0.4208;1.4889;
708.3000;0.4225;1.4818;
708.6000;0.4233;1.4795;
708.9000;0.4192;1.4771;
709.2000;0.4225;1.4795;
709.5000;0.4217;1.4748;
709.8000;0.4225;1.4748;
710.1000;0.4249;1.4889;
710.4000;0.4217;1.4889;
710.7000;0.4282;1.5076;
711.0000;0.4233;1.4912;
711.3000;0.4225;1.4982;
711.6000;0.4233;1.5029;
711.9000;0.4233;1.5029;
712.2000;0.4249;1.5147;
712.5000;0.4233;1.5053;
712.8000;0.4241;1.5147;
713.1000;0.4225;1.5147;
713.4000;0.4233;1.5194;
713.7000;0.4225;1.5170;
714.0000;0.4290;1.5264;
714.3000;0.4208;1.5006;
714.6000;0.4225;1.5076;
714.9000;0.4225;1.4982;
715.2000;0.4233;1.5076;
715.5000;0.4217;1.5006;
715.8000;0.4208;1.5029;
716.1000;0.4225;1.5029;
716.4000;0.4274;1.5194;
716.7000;0.4225;1.5006;
717.0000;0.4217;1.4936;
717.3000;0.4225;1.4771;
717.6000;0.4233;1.4748;
717.9000;0.4233;1.4771;
718.2000;0.4217;1.4795;
718.5000;0.4217;1.4889;
718.8000;0.4217;1.4818;
719.1000;0.4217;1.4725;
719.4000;0.4200;1.4771;
719.7000;0.4200;1.4842;
720.0000;0.4143;1.4842;
720.3000;0.4306;1.5240;
720.6000;0.4208;1.4982;
720.9000;0.4217;1.4936;
721.2000;0.4151;1.4771;
721.5000;0.4225;1.4865;
721.8000;0.4192;1.4842;
722.1000;0.4208;1.4889;
722.4000;0.4314;1.5170;
722.7000;0.4208;1.4889;
723.0000;0.4192;1.4818;
723.3000;0.4200;1.4771;
723.6000;0.4176;1.4678;
723.9000;0.4192;1.4748;
724.2000;0.4192;1.4842;
724.5000;0.4200;1.4818;
724.8000;0.4192;1.4771;
725.1000;0.4241;1.4936;
725.4000;0.4257;1.4982;
725.7000;0.4176;1.4842;
726.0000;0.4176;1.4818;
726.3000;0.4225;1.5029;
726.6000;0.4208;1.5076;
726.9000;0.4208;1.5076;
727.2000;0.4208;1.5170;
727.5000;0.4208;1.5147;
727.8000;0.4208;1.5170;
728.1000;0.4208;1.5123;
728.4000;0.4192;1.5100;
728.7000;0.4208;1.5123;
729.0000;0.4200;1.5100;
729.3000;0.4192;1.5123;
729.6000;0.4176;1.5076;
729.9000;0.4192;1.5217;
730.2000;0.4192;1.5240;
730.5000;0.4192;1.5194;
730.8000;0.4168;1.5053;
731.1000;0.4184;1.5076;
731.4000;0.4200;1.5053;
731.7000;0.4241;1.5170;
732.0000;0.4184;1.5076;
732.3000;0.4200;1.5053;
732.6000;0.4200;1.5029;
732.9000;0.4200;1.5100;
733.2000;0.4184;1.5076;
733.5000;0.4217;1.5053;
733.8000;0.4200;1.5147;
734.1000;0.4184;1.5076;
734.4000;0.4241;1.5194;
734.7000;0.4192;1.5123;
735.0000;0.4208;1.5123;
735.3000;0.4192;1.5147;
735.6000;0.4184;1.5006;
735.9000;0.4168;1.4889;
736.2000;0.4192;1.4959;
736.5000;0.4184;1.4982;
736.8000;0.4184;1.5029;
737.1000;0.4160;1.4912;
737.4000;0.4176;1.4889;
737.7000;0.4208;1.4982;
738.0000;0.4200;1.5029;
738.3000;0.4160;1.4842;
738.6000;0.4119;1.4725;
738.9000;0.4192;1.4912;
739.2000;0.4233;1.5006;
739.5000;0.4176;1.4842;
739.8000;0.4184;1.4889;
740.1000;0.4192;1.4959;
740.4000;0.4265;1.5123;
740.7000;0.4176;1.4818;
741.0000;0.4225;1.5029;
741.3000;0.4127;1.4725;
741.6000;0.4111;1.4678;
741.9000;0.4233;1.4912;
742.2000;0.4249;1.5006;
742.5000;0.4168;1.4771;
742.8000;0.4208;1.4795;
743.1000;0.4233;1.4959;
743.4000;0.4241;1.5100;
743.7000;0.4192;1.4982;
744.0000;0.4282;1.5217;
744.3000;0.4184;1.5029;
744.6000;0.4176;1.5029;
744.9000;0.4176;1.4936;
745.2000;0.4160;1.4889;
745.5000;0.4176;1.4912;
745.8000;0.4184;1.4982;
746.1000;0.4192;1.5123;
746.4000;0.4086;1.4959;
746.7000;0.4176;1.5147;
747.0000;0.4233;1.5264;
747.3000;0.4168;1.5123;
747.6000;0.4184;1.5100;
747.9000;0.4168;1.5076;
748.2000;0.4184;1.5029;
748.5000;0.4184;1.4936;
748.8000;0.4176;1.4889;
749.1000;0.4184;1.4982;
749.4000;0.4208;1.4959;
749.7000;0.4184;1.4912;
750.0000;0.4176;1.4865;
750.3000;0.4184;1.4982;
750.6000;0.4160;1.5029;
750.9000;0.4184;1.4959;
751.2000;0.4192;1.5006;
751.5000;0.4176;1.4982;
751.8000;0.4192;1.4982;
752.1000;0.4200;1.5029;
752.4000;0.4184;1.5076;
752.7000;0.4184;1.4982;
753.0000;0.4176;1.4889;
753.3000;0.4192;1.4912;
753.6000;0.4176;1.4818;
753.9000;0.4192;1.4889;
754.2000;0.4184;1.4795;
754.5000;0.4192;1.4818;
754.8000;0.4200;1.4818;
755.1000;0.4184;1.4889;
755.4000;0.4176;1.4936;
755.7000;0.4176;1.4959;
756.0000;0.4184;1.4912;
756.3000;0.4160;1.4865;
756.6000;0.4151;1.4795;
756.9000;0.4135;1.4771;
757.2000;0.4103;1.4701;
757.5000;0.4168;1.4818;
757.8000;0.4176;1.4818;
758.1000;0.4176;1.4795;
758.4000;0.4176;1.4818;
758.7000;0.4176;1.4795;
759.0000;0.4160;1.4865;
759.3000;0.4143;1.4748;
759.6000;0.4160;1.4771;
759.9000;0.4176;1.4842;
760.2000;0.4168;1.4865;
760.5000;0.4168;1.4818;
760.8000;0.4176;1.4936;
761.1000;0.4184;1.4959;
761.4000;0.4176;1.4936;
761.7000;0.4168;1.5053;
762.0000;0.4168;1.5053;
762.3000;0.4160;1.5053;
762.6000;0.4176;1.5194;
762.9000;0.4151;1.5029;
763.2000;0.4192;1.5006;
763.5000;0.4176;1.4912;
763.8000;0.4184;1.5076;
764.1000;0.4168;1.5147;
764.4000;0.4160;1.5170;
764.7000;0.4176;1.5264;
765.0000;0.4265;1.5522;
765.3000;0.4111;1.5100;
765.6000;0.4160;1.5217;
765.9000;0.4176;1.5264;
766.2000;0.4176;1.5287;
766.5000;0.4168;1.5264;
766.8000;0.4168;1.5194;
767.1000;0.4184;1.5264;
767.4000;0.4143;1.5147;
767.7000;0.4143;1.5076;
768.0000;0.4160;1.5053;
768.3000;0.4143;1.4982;
768.6000;0.4160;1.5100;
768.9000;0.4151;1.5123;
769.2000;0.4176;1.5170;
769.5000;0.4094;1.5006;
769.8000;0.4168;1.5264;
770.1000;0.4135;1.5240;
770.4000;0.4192;1.5264;
770.7000;0.4168;1.5123;
771.0000;0.4168;1.5240;
771.3000;0.4176;1.5311;
771.6000;0.4143;1.5287;
771.9000;0.4184;1.5311;
772.2000;0.4151;1.5147;
772.5000;0.4168;1.5123;
772.8000;0.4176;1.5076;
773.1000;0.4135;1.4982;
773.4000;0.4143;1.4982;
773.7000;0.4160;1.5029;
774.0000;0.4176;1.5053;
774.3000;0.4176;1.5100;
774.6000;0.4119;1.4959;
774.9000;0.4151;1.5006;
775.2000;0.4135;1.4936;
775.5000;0.4151;1.4982;
775.8000;0.4160;1.4982;
776.1000;0.4151;1.4959;
776.4000;0.4111;1.4889;
776.7000;0.4168;1.4982;
777.0000;0.4176;1.4959;
777.3000;0.4176;1.5053;
777.6000;0.4143;1.5006;
777.9000;0.4168;1.5100;
778.2000;0.4192;1.5100;
778.5000;0.4151;1.4936;
778.8000;0.4168;1.4865;
779.1000;0.4168;1.4912;
779.4000;0.4135;1.4818;
779.7000;0.4160;1.4889;
780.0000;0.4168;1.4912;
780.3000;0.4160;1.4818;
780.6000;0.4176;1.4865;
780.9000;0.4143;1.4818;
781.2000;0.4143;1.4865;
781.5000;0.4135;1.4865;
781.8000;0.4151;1.4889;
782.1000;0.4168;1.5006;
782.4000;0.4151;1.4982;
782.7000;0.4168;1.4936;
783.0000;0.4176;1.4936;
783.3000;0.4160;1.4936;
783.6000;0.4143;1.4959;
783.9000;0.4151;1.4959;
784.2000;0.4070;1.4725;
784.5000;0.4168;1.4889;
784.8000;0.4151;1.4912;
785.1000;0.4160;1.4982;
785.4000;0.4151;1.4936;
785.7000;0.4135;1.4936;
786.0000;0.4143;1.5029;
786.3000;0.4135;1.4982;
786.6000;0.4151;1.4982;
786.9000;0.4151;1.5053;
787.2000;0.4160;1.5076;
787.5000;0.4160;1.5076;
787.8000;0.4127;1.5100;
788.1000;0.4160;1.5194;
788.4000;0.4143;1.5147;
788.7000;0.4176;1.5194;
789.0000;0.4135;1.5123;
789.3000;0.4143;1.5100;
789.6000;0.4168;1.5100;
789.9000;0.4103;1.4889;
790.2000;0.4143;1.5029;
790.5000;0.4160;1.5053;
790.8000;0.4151;1.5053;
791.1000;0.4119;1.5006;
791.4000;0.4160;1.5053;
791.7000;0.4160;1.4936;
792.0000;0.4168;1.4936;
792.3000;0.4160;1.4865;
792.6000;0.4135;1.4865;
792.9000;0.4160;1.4959;
793.2000;0.4168;1.5100;
793.5000;0.4176;1.5100;
793.8000;0.4143;1.5076;
794.1000;0.4160;1.5123;
794.4000;0.4127;1.5006;
794.7000;0.4168;1.5123;
795.0000;0.4160;1.5123;
795.3000;0.4151;1.5194;
795.6000;0.4103;1.5217;
795.9000;0.4135;1.5311;
796.2000;0.4151;1.5358;
796.5000;0.4135;1.5194;
796.8000;0.4135;1.5006;
797.1000;0.4184;1.5029;
797.4000;0.4143;1.5076;
797.7000;0.4151;1.5053;
798.0000;0.4160;1.5076;
798.3000;0.4168;1.5006;
798.6000;0.4151;1.5006;
798.9000;0.4168;1.5053;
799.2000;0.4160;1.5006;
799.5000;0.4143;1.5006;
799.8000;0.4192;1.5100;
800.1000;0.4160;1.5053;
800.4000;0.4160;1.5076;
800.7000;0.4127;1.5029;
801.0000;0.4208;1.5170;
801.3000;0.4176;1.5147;
801.6000;0.4127;1.5076;
801.9000;0.4119;1.5029;
802.2000;0.4168;1.5123;
802.5000;0.4143;1.5147;
802.8000;0.4135;1.5076;
803.1000;0.4151;1.5053;
803.4000;0.4127;1.5006;
803.7000;0.4143;1.5006;
804.0000;0.4143;1.4936;
804.3000;0.4160;1.5006;
804.6000;0.4151;1.4959;
804.9000;0.4127;1.4982;
805.2000;0.4143;1.5053;
805.5000;0.4127;1.4982;
805.8000;0.4135;1.5123;
806.1000;0.4127;1.5217;
806.4000;0.4135;1.5264;
806.7000;0.4160;1.5311;
807.0000;0.4086;1.5123;
807.3000;0.4135;1.5240;
807.6000;0.4143;1.5240;
807.9000;0.4111;1.5194;
808.2000;0.4143;1.5240;
808.5000;0.4127;1.5287;
808.8000;0.4119;1.5217;
809.1000;0.4241;1.5522;
809.4000;0.4127;1.5217;
809.7000;0.4143;1.5217;
810.0000;0.4119;1.5076;
810.3000;0.4135;1.5123;
810.6000;0.4143;1.5123;
810.9000;0.4135;1.5123;
811.2000;0.4151;1.5076;
811.5000;0.4143;1.5029;
811.8000;0.4151;1.5100;
812.1000;0.4119;1.5029;
812.4000;0.4249;1.5405;
812.7000;0.4143;1.5076;
813.0000;0.4151;1.5194;
813.3000;0.4135;1.5147;
813.6000;0.4143;1.5100;
813.9000;0.4151;1.5100;
814.2000;0.4176;1.5194;
814.5000;0.4160;1.5217;
814.8000;0.4143;1.5264;
815.1000;0.4094;1.5147;
815.4000;0.4176;1.5311;
815.7000;0.4151;1.5147;
816.0000;0.4103;1.4982;
816.3000;0.4143;1.5006;
816.6000;0.4151;1.4912;
816.9000;0.4160;1.4959;
817.2000;0.4111;1.4795;
817.5000;0.4233;1.5076;
817.8000;0.4127;1.4842;
818.1000;0.4160;1.4912;
818.4000;0.4143;1.4912;
818.7000;0.4151;1.4982;
819.0000;0.4127;1.4842;
819.3000;0.4151;1.4959;
819.6000;0.4037;1.4678;
819.9000;0.4135;1.4818;
820.2000;0.4143;1.4842;
820.5000;0.4135;1.4771;
820.8000;0.4143;1.4795;
821.1000;0.4127;1.4771;
821.4000;0.4111;1.4725;
821.7000;0.4176;1.4865;
822.0000;0.4127;1.4795;
822.3000;0.4127;1.4865;
822.6000;0.4160;1.4936;
822.9000;0.4151;1.4936;
823.2000;0.4127;1.4842;
823.5000;0.4160;1.4889;
823.8000;0.4184;1.5100;
824.1000;0.4143;1.4982;
824.4000;0.4119;1.4936;
824.7000;0.4127;1.4959;
825.0000;0.4151;1.4936;
825.3000;0.4135;1.4912;
825.6000;0.4151;1.5029;
825.9000;0.4143;1.4912;
826.2000;0.4160;1.4959;
826.5000;0.4094;1.4842;
826.8000;0.4111;1.4889;
827.1000;0.4127;1.4912;
827.4000;0.4062;1.4654;
827.7000;0.4127;1.4795;
828.0000;0.4135;1.4889;
828.3000;0.4151;1.4865;
828.6000;0.4135;1.4818;
828.9000;0.4135;1.4865;
829.2000;0.4143;1.4912;
829.5000;0.4160;1.4936;
829.8000;0.4143;1.4865;
830.1000;0.4111;1.4795;
830.4000;0.4143;1.4865;
830.7000;0.4151;1.4818;
831.0000;0.4070;1.4560;
831.3000;0.4143;1.4701;
831.6000;0.4119;1.4678;
831.9000;0.4135;1.4725;
832.2000;0.4103;1.4654;
832.5000;0.4135;1.4771;
832.8000;0.4127;1.4795;
833.1000;0.4143;1.4842;
833.4000;0.4135;1.4912;
833.7000;0.4127;1.4818;
834.0000;0.4119;1.4889;
834.3000;0.4135;1.4982;
834.6000;0.4143;1.4982;
834.9000;0.4143;1.4959;
835.2000;0.4119;1.4912;
835.5000;0.4143;1.4936;
835.8000;0.4127;1.4865;
836.1000;0.4143;1.4912;
836.4000;0.4127;1.4818;
836.7000;0.4143;1.4842;
837.0000;0.4135;1.4818;
837.3000;0.4151;1.4912;
837.6000;0.4135;1.4936;
837.9000;0.4119;1.4936;
838.2000;0.4111;1.4936;
838.5000;0.4127;1.5006;
838.8000;0.4119;1.4889;
839.1000;0.4127;1.4865;
839.4000;0.4062;1.4631;
839.7000;0.4119;1.4725;
840.0000;0.4127;1.4842;
840.3000;0.4127;1.4936;
840.6000;0.4135;1.4889;
840.9000;0.4143;1.5006;
841.2000;0.4151;1.5006;
841.5000;0.4200;1.5053;
841.8000;0.4168;1.4865;
842.1000;0.4143;1.4842;
842.4000;0.4143;1.4818;
842.7000;0.4151;1.4936;
843.0000;0.4119;1.4865;
843.3000;0.4135;1.4795;
843.6000;0.4127;1.4748;
843.9000;0.4135;1.4795;
844.2000;0.4111;1.4818;
844.5000;0.4127;1.4889;
844.8000;0.4135;1.4912;
845.1000;0.4143;1.4865;
845.4000;0.4119;1.4795;
845.7000;0.4135;1.4842;
846.0000;0.4135;1.4818;
846.3000;0.4135;1.4818;
846.6000;0.4160;1.4889;
846.9000;0.4135;1.4771;
847.2000;0.4135;1.4818;
847.5000;0.4127;1.4818;
847.8000;0.4135;1.4936;
848.1000;0.4111;1.4865;
848.4000;0.4135;1.4889;
848.7000;0.4111;1.4912;
849.0000;0.4127;1.5006;
849.3000;0.4127;1.5076;
849.6000;0.4127;1.5029;
849.9000;0.4119;1.4959;
850.2000;0.4127;1.4959;
850.5000;0.4119;1.4889;
850.8000;0.4103;1.4842;
851.1000;0.4119;1.4889;
851.4000;0.4127;1.4912;
851.7000;0.4086;1.4936;
852.0000;0.4119;1.5029;
852.3000;0.4135;1.5076;
852.6000;0.4257;1.5475;
852.9000;0.4127;1.5170;
853.2000;0.4151;1.5170;
853.5000;0.4111;1.5076;
853.8000;0.4143;1.5076;
854.1000;0.4119;1.5053;
854.4000;0.4143;1.5076;
854.7000;0.4135;1.5029;
855.0000;0.4127;1.4982;
855.3000;0.4143;1.5076;
855.6000;0.4168;1.5076;
855.9000;0.4127;1.4936;
856.2000;0.4225;1.5217;
856.5000;0.4127;1.4982;
856.8000;0.4127;1.4982;
857.1000;0.4119;1.4936;
857.4000;0.4127;1.5076;
857.7000;0.4151;1.5076;
858.0000;0.4135;1.5006;
858.3000;0.4111;1.4959;
858.6000;0.4086;1.4865;
858.9000;0.4111;1.5006;
859.2000;0.4086;1.5006;
859.5000;0.4111;1.5006;
859.8000;0.4135;1.5006;
860.1000;0.4111;1.5053;
860.4000;0.4135;1.5076;
860.7000;0.4103;1.5076;
861.0000;0.4103;1.5076;
861.3000;0.4078;1.5029;
861.6000;0.4119;1.5147;
861.9000;0.4119;1.5100;
862.2000;0.4127;1.5100;
862.5000;0.4094;1.5123;
862.8000;0.4135;1.5194;
863.1000;0.4111;1.5029;
863.4000;0.4217;1.5334;
863.7000;0.4119;1.5076;
864.0000;0.4127;1.5123;
864.3000;0.4119;1.5147;
864.6000;0.4151;1.5170;
864.9000;0.4103;1.5123;
865.2000;0.4119;1.5170;
865.5000;0.4111;1.5123;
865.8000;0.4119;1.5170;
866.1000;0.4135;1.5217;
866.4000;0.4119;1.5100;
866.7000;0.4111;1.5170;
867.0000;0.4119;1.5240;
867.3000;0.4127;1.5240;
867.6000;0.4135;1.5194;
867.9000;0.4135;1.5217;
868.2000;0.4151;1.5264;
868.5000;0.4127;1.5287;
868.8000;0.4127;1.5264;
869.1000;0.4119;1.5264;
869.4000;0.4127;1.5334;
869.7000;0.4127;1.5287;
870.0000;0.4127;1.5264;
870.3000;0.4103;1.5194;
870.6000;0.4127;1.5217;
870.9000;0.4151;1.5240;
871.2000;0.4127;1.5217;
871.5000;0.4151;1.5240;
871.8000;0.4184;1.5381;
872.1000;0.4119;1.5170;
872.4000;0.4103;1.4982;
872.7000;0.4127;1.4936;
873.0000;0.4119;1.4959;
873.3000;0.4119;1.4912;
873.6000;0.4062;1.4771;
873.9000;0.4086;1.4865;
874.2000;0.4135;1.4959;
874.5000;0.4119;1.4912;
874.8000;0.4127;1.4912;
875.1000;0.4143;1.4959;
875.4000;0.4119;1.4842;
875.7000;0.4127;1.4818;
876.0000;0.4119;1.4842;
876.3000;0.4135;1.4912;
876.6000;0.4119;1.4912;
876.9000;0.4111;1.5006;
877.2000;0.4094;1.4889;
877.5000;0.4119;1.4889;
877.8000;0.4111;1.4842;
878.1000;0.4184;1.5006;
878.4000;0.4143;1.5029;
878.7000;0.4135;1.5100;
879.0000;0.4127;1.5123;
879.3000;0.4184;1.5123;
879.6000;0.4200;1.5147;
879.9000;0.4127;1.4959;
880.2000;0.4119;1.4959;
880.5000;0.4127;1.5029;
880.8000;0.4111;1.4959;
881.1000;0.4103;1.4865;
881.4000;0.4127;1.4912;
881.7000;0.4127;1.4936;
882.0000;0.4119;1.4889;
882.3000;0.4135;1.4912;
882.6000;0.4135;1.4865;
882.9000;0.4160;1.4936;
883.2000;0.4119;1.4912;
883.5000;0.4111;1.4912;
883.8000;0.4094;1.4959;
884.1000;0.4127;1.5076;
884.4000;0.4143;1.5147;
884.7000;0.4127;1.5006;
885.0000;0.4143;1.5053;
885.3000;0.4151;1.5053;
885.6000;0.4127;1.4865;
885.9000;0.4111;1.4912;
886.2000;0.4111;1.4889;
886.5000;0.4127;1.4912;
886.8000;0.4111;1.4959;
887.1000;0.4127;1.4982;
887.4000;0.4127;1.5006;
887.7000;0.4094;1.4982;
888.0000;0.4127;1.5029;
888.3000;0.4086;1.4982;
888.6000;0.4184;1.5170;
888.9000;0.4127;1.5053;
889.2000;0.4127;1.5053;
889.5000;0.4127;1.4936;
889.8000;0.4135;1.4889;
890.1000;0.4135;1.4936;
890.4000;0.4135;1.4959;
890.7000;0.4135;1.4982;
891.0000;0.4111;1.5029;
891.3000;0.4119;1.5006;
891.6000;0.4119;1.4982;
891.9000;0.4103;1.4936;
892.2000;0.4103;1.4795;
892.5000;0.4143;1.4842;
892.8000;0.4119;1.4889;
893.1000;0.4127;1.5006;
893.4000;0.4127;1.5076;
893.7000;0.4135;1.5029;
894.0000;0.4119;1.5029;
894.3000;0.4094;1.4912;
894.6000;0.4119;1.4959;
894.9000;0.4119;1.4959;
895.2000;0.4054;1.4865;
895.5000;0.4054;1.4889;
895.8000;0.4054;1.4795;
896.1000;0.4103;1.4912;
896.4000;0.4103;1.4936;
896.7000;0.4111;1.4982;
897.0000;0.4094;1.4959;
897.3000;0.4086;1.4982;
897.6000;0.4086;1.4912;
897.9000;0.4094;1.4889;
898.2000;0.4086;1.4865;
898.5000;0.4111;1.4959;
898.8000;0.4094;1.4936;
899.1000;0.4119;1.5053;
899.4000;0.4119;1.5006;
899.7000;0.4127;1.5053;
900.0000;0.4103;1.5006;
900.3000;0.4119;1.4912;
900.6000;0.4103;1.4936;
900.9000;0.4127;1.4959;
901.2000;0.4103;1.4842;
901.5000;0.4135;1.4912;
901.8000;0.4127;1.4912;
902.1000;0.4111;1.4795;
902.4000;0.4103;1.4771;
902.7000;0.4119;1.4818;
903.0000;0.4111;1.4842;
903.3000;0.4127;1.4865;
903.6000;0.4119;1.4889;
903.9000;0.4119;1.4795;
904.2000;0.4111;1.4865;
904.5000;0.4094;1.4842;
904.8000;0.4094;1.4865;
905.1000;0.4176;1.5076;
905.4000;0.4119;1.4982;
905.7000;0.4127;1.4959;
906.0000;0.4103;1.4889;
906.3000;0.4111;1.4936;
906.6000;0.4135;1.4936;
906.9000;0.4111;1.4795;
907.2000;0.4119;1.4842;
907.5000;0.4103;1.4842;
907.8000;0.4111;1.4912;
908.1000;0.4111;1.5006;
908.4000;0.4127;1.5076;
908.7000;0.4086;1.4959;
909.0000;0.4127;1.4982;
909.3000;0.4143;1.5006;
909.6000;0.4119;1.4912;
909.9000;0.4111;1.4912;
910.2000;0.4127;1.4936;
910.5000;0.4176;1.5147;
910.8000;0.4127;1.4982;
911.1000;0.4111;1.4936;
911.4000;0.4103;1.4912;
911.7000;0.4127;1.5006;
912.0000;0.4111;1.5076;
912.3000;0.4119;1.5029;
912.6000;0.4086;1.4982;
912.9000;0.4119;1.5029;
913.2000;0.4119;1.5029;
913.5000;0.4127;1.5029;
913.8000;0.4168;1.5123;
914.1000;0.4127;1.5053;
914.4000;0.4143;1.5147;
914.7000;0.4111;1.5029;
915.0000;0.4029;1.4842;
915.3000;0.4111;1.5123;
915.6000;0.4119;1.5100;
915.9000;0.4119;1.5123;
916.2000;0.4127;1.5194;
916.5000;0.4127;1.5100;
916.8000;0.4119;1.5147;
917.1000;0.4127;1.5170;
917.4000;0.4119;1.4982;
917.7000;0.4135;1.5006;
918.0000;0.4103;1.4936;
918.3000;0.4135;1.5076;
918.6000;0.4111;1.5006;
918.9000;0.4168;1.5053;
919.2000;0.4103;1.4818;
919.5000;0.4119;1.4818;
919.8000;0.4127;1.4889;
920.1000;0.4103;1.4889;
920.4000;0.4127;1.5006;
920.7000;0.4111;1.4959;
921.0000;0.4200;1.5217;
921.3000;0.4094;1.4936;
921.6000;0.4119;1.5029;
921.9000;0.4054;1.4818;
922.2000;0.4192;1.5240;
922.5000;0.4103;1.4912;
922.8000;0.4094;1.4842;
923.1000;0.4103;1.4912;
923.4000;0.4127;1.4982;
923.7000;0.4111;1.4912;
924.0000;0.4111;1.5006;
924.3000;0.4046;1.4771;
924.6000;0.4046;1.4795;
924.9000;0.4135;1.4912;
925.2000;0.4127;1.4889;
925.5000;0.4111;1.4889;
925.8000;0.4111;1.4889;
926.1000;0.4119;1.4936;
926.4000;0.4111;1.4959;
926.7000;0.4111;1.4982;
927.0000;0.4103;1.5029;
927.3000;0.4127;1.5076;
927.6000;0.4127;1.5029;
927.9000;0.4078;1.4818;
928.2000;0.4119;1.4842;
928.5000;0.4135;1.4936;
928.8000;0.4103;1.4818;
929.1000;0.4119;1.4889;
929.4000;0.4135;1.5029;
929.7000;0.4119;1.4982;
930.0000;0.4135;1.5053;
930.3000;0.4094;1.5029;
930.6000;0.4086;1.4959;
930.9000;0.4127;1.5240;
931.2000;0.4111;1.5217;
931.5000;0.4029;1.4959;
931.8000;0.4103;1.5029;
932.1000;0.4094;1.4959;
932.4000;0.4094;1.4959;
932.7000;0.4119;1.5076;
933.0000;0.4111;1.5053;
933.3000;0.4078;1.4959;
933.6000;0.4103;1.4936;
933.9000;0.4119;1.4912;
934.2000;0.4103;1.4889;
934.5000;0.4086;1.4865;
934.8000;0.4111;1.5029;
935.1000;0.4143;1.5076;
935.4000;0.4151;1.5076;
935.7000;0.4103;1.5006;
936.0000;0.4111;1.5006;
936.3000;0.4111;1.4912;
936.6000;0.4119;1.4959;
936.9000;0.4127;1.4982;
937.2000;0.4103;1.4959;
937.5000;0.4160;1.5170;
937.8000;0.4127;1.5006;
938.1000;0.4127;1.5029;
938.4000;0.4111;1.5053;
938.7000;0.4135;1.5123;
939.0000;0.4119;1.5170;
939.3000;0.4103;1.5217;
939.6000;0.4103;1.5170;
939.9000;0.4119;1.5194;
940.2000;0.4119;1.5264;
940.5000;0.4054;1.5147;
940.8000;0.4111;1.5287;
941.1000;0.4103;1.5287;
941.4000;0.4111;1.5287;
941.7000;0.4111;1.5264;
942.0000;0.4111;1.5194;
942.3000;0.4127;1.5100;
942.6000;0.4103;1.5123;
942.9000;0.4127;1.5194;
943.2000;0.4119;1.5147;
943.5000;0.4111;1.5123;
943.8000;0.4119;1.5194;
944.1000;0.4127;1.5240;
944.4000;0.4103;1.5194;
944.7000;0.4103;1.5194;
945.0000;0.4127;1.5264;
945.3000;0.4119;1.5123;
945.6000;0.4127;1.5264;
945.9000;0.4119;1.5170;
946.2000;0.4086;1.5147;
946.5000;0.4103;1.5217;
946.8000;0.4103;1.5123;
947.1000;0.4094;1.5147;
947.4000;0.4111;1.5240;
947.7000;0.4143;1.5240;
948.0000;0.4062;1.5029;
948.3000;0.4103;1.5194;
948.6000;0.4111;1.5170;
948.9000;0.4119;1.5100;
949.2000;0.4094;1.5100;
949.5000;0.4086;1.5147;
949.8000;0.4103;1.5147;
950.1000;0.4086;1.5053;
950.4000;0.4111;1.5123;
950.7000;0.4160;1.5170;
951.0000;0.4111;1.5147;
951.3000;0.4103;1.5123;
951.6000;0.4135;1.5170;
951.9000;0.4127;1.5123;
952.2000;0.4135;1.5053;
952.5000;0.4127;1.4982;
952.8000;0.4103;1.4936;
953.1000;0.4151;1.5147;
953.4000;0.4094;1.5006;
953.7000;0.4127;1.5053;
954.0000;0.4111;1.5006;
954.3000;0.4078;1.4912;
954.6000;0.4111;1.5029;
954.9000;0.4094;1.4936;
955.2000;0.4070;1.4912;
955.5000;0.4094;1.4982;
955.8000;0.4111;1.5053;
956.1000;0.4127;1.5100;
956.4000;0.4111;1.5053;
956.7000;0.4111;1.5076;
957.0000;0.4127;1.5147;
957.3000;0.4103;1.5147;
957.6000;0.4103;1.5240;
957.9000;0.4127;1.5240;
958.2000;0.4103;1.5170;
958.5000;0.4111;1.5123;
958.8000;0.4103;1.5076;
959.1000;0.4094;1.5123;
959.4000;0.4151;1.5240;
959.7000;0.4094;1.5240;
960.0000;0.4127;1.5358;
960.3000;0.4094;1.5311;
960.6000;0.4119;1.5287;
960.9000;0.4151;1.5381;
961.2000;0.4103;1.5405;
961.5000;0.4094;1.5358;
961.8000;0.4094;1.5311;
962.1000;0.4086;1.5311;
962.4000;0.4111;1.5405;
962.7000;0.4103;1.5405;
963.0000;0.4103;1.5475;
963.3000;0.4094;1.5475;
963.6000;0.4119;1.5522;
963.9000;0.4094;1.5405;
964.2000;0.4094;1.5381;
964.5000;0.4086;1.5334;
964.8000;0.4078;1.5381;
965.1000;0.4119;1.5358;
965.4000;0.4086;1.5334;
965.7000;0.4013;1.5147;
966.0000;0.4103;1.5287;
966.3000;0.4103;1.5217;
966.6000;0.4111;1.5217;
966.9000;0.4119;1.5100;
967.2000;0.4103;1.5170;
967.5000;0.4103;1.5194;
967.8000;0.4103;1.5217;
968.1000;0.4119;1.5170;
968.4000;0.4103;1.5029;
968.7000;0.4119;1.5029;
969.0000;0.4094;1.5076;
969.3000;0.4005;1.4842;
969.6000;0.4111;1.5029;
969.9000;0.4119;1.5006;
970.2000;0.4143;1.5029;
970.5000;0.4119;1.5053;
970.8000;0.4103;1.5053;
971.1000;0.4127;1.5100;
971.4000;0.4127;1.5123;
971.7000;0.4135;1.5194;
972.0000;0.4103;1.5029;
972.3000;0.4111;1.5006;
972.6000;0.4062;1.4889;
972.9000;0.4184;1.5147;
973.2000;0.4103;1.5029;
973.5000;0.4094;1.4982;
973.8000;0.4127;1.5147;
974.1000;0.4168;1.5217;
974.4000;0.4103;1.5029;
974.7000;0.4151;1.5076;
975.0000;0.4111;1.5053;
975.3000;0.4111;1.5100;
975.6000;0.4094;1.5029;
975.9000;0.4111;1.5076;
976.2000;0.4111;1.5053;
976.5000;0.4160;1.5194;
976.8000;0.4119;1.5123;
977.1000;0.4103;1.5100;
977.4000;0.4127;1.5123;
977.7000;0.4160;1.5194;
978.0000;0.3997;1.4771;
978.3000;0.4103;1.4959;
978.6000;0.4094;1.4959;
978.9000;0.4094;1.4982;
979.2000;0.4013;1.4842;
979.5000;0.4111;1.4959;
979.8000;0.4103;1.4936;
980.1000;0.4127;1.5029;
980.4000;0.4127;1.5006;
980.7000;0.4119;1.5076;
981.0000;0.4103;1.5029;
981.3000;0.4111;1.5076;
981.6000;0.4111;1.5123;
981.9000;0.4103;1.5100;
982.2000;0.4103;1.5053;
982.5000;0.4111;1.5147;
982.8000;0.4103;1.5123;
983.1000;0.4103;1.5100;
983.4000;0.4086;1.5076;
983.7000;0.4103;1.5076;
984.0000;0.4119;1.5170;
984.3000;0.4103;1.5100;
984.6000;0.4143;1.5287;
984.9000;0.4143;1.5264;
985.2000;0.4127;1.5287;
985.5000;0.4119;1.5240;
985.8000;0.4103;1.5240;
986.1000;0.4086;1.5217;
986.4000;0.4111;1.5264;
986.7000;0.4119;1.5217;
987.0000;0.4094;1.5217;
987.3000;0.4078;1.5123;
987.6000;0.4103;1.5123;
987.9000;0.4086;1.5123;
988.2000;0.4119;1.5194;
988.5000;0.4160;1.5287;
988.8000;0.4127;1.5240;
989.1000;0.4103;1.5240;
989.4000;0.4103;1.5264;
989.7000;0.4176;1.5358;
990.0000;0.4111;1.5147;
990.3000;0.4119;1.5170;
990.6000;0.4119;1.5053;
990.9000;0.4103;1.4982;
991.2000;0.4086;1.4912;
991.5000;0.4094;1.4959;
991.8000;0.4086;1.4982;
992.1000;0.4111;1.5006;
992.4000;0.4094;1.5006;
992.7000;0.4135;1.5029;
993.0000;0.4176;1.5264;
993.3000;0.4094;1.5147;
993.6000;0.4111;1.5194;
993.9000;0.4111;1.5217;
994.2000;0.4111;1.5194;
994.5000;0.4127;1.5264;
994.8000;0.4111;1.5194;
995.1000;0.4103;1.5217;
995.4000;0.4094;1.5264;
995.7000;0.4086;1.5217;
996.0000;0.4103;1.5240;
996.3000;0.4111;1.5194;
996.6000;0.4086;1.5147;
996.9000;0.4094;1.5170;
997.2000;0.4119;1.5170;
997.5000;0.4103;1.5194;
997.8000;0.4078;1.5123;
998.1000;0.4094;1.5240;
998.4000;0.4094;1.5240;
998.7000;0.4094;1.5240;
999.0000;0.4135;1.5264;
999.3000;0.4111;1.5123;
999.6000;0.4119;1.5170;
999.9000;0.4070;1.4959;
1000.2000;0.4094;1.5006;
1000.5000;0.4111;1.5006;
1000.8000;0.4135;1.5100;
1001.1000;0.4103;1.5053;
1001.4000;0.4111;1.5100;
1001.7000;0.4111;1.5053;
1002.0000;0.4103;1.5029;
1002.3000;0.4111;1.5123;
1002.6000;0.4094;1.5123;
1002.9000;0.4111;1.5264;
1003.2000;0.4086;1.5264;
1003.5000;0.4078;1.5240;
1003.8000;0.4103;1.5311;
1004.1000;0.4103;1.5405;
1004.4000;0.4103;1.5475;
1004.7000;0.4127;1.5498;
1005.0000;0.4086;1.5405;
1005.3000;0.4168;1.5733;
1005.6000;0.4143;1.5639;
1005.9000;0.4119;1.5639;
1006.2000;0.4111;1.5569;
1006.5000;0.4111;1.5616;
1006.8000;0.4094;1.5592;
1007.1000;0.4103;1.5662;
1007.4000;0.4111;1.5545;
1007.7000;0.4103;1.5381;
1008.0000;0.4111;1.5405;
1008.3000;0.4119;1.5522;
1008.6000;0.4086;1.5334;
1008.9000;0.4103;1.5334;
1009.2000;0.4078;1.5287;
1009.5000;0.4111;1.5264;
1009.8000;0.4103;1.5240;
1010.1000;0.4127;1.5311;
1010.4000;0.4094;1.5194;
1010.7000;0.4111;1.5170;
1011.0000;0.4127;1.5217;
1011.3000;0.4111;1.5217;
1011.6000;0.4111;1.5240;
1011.9000;0.4094;1.5123;
1012.2000;0.4111;1.5147;
1012.5000;0.4111;1.5264;
1012.8000;0.4094;1.5100;
1013.1000;0.4143;1.5123;
1013.4000;0.4070;1.4889;
1013.7000;0.4046;1.4748;
1014.0000;0.4103;1.4842;
1014.3000;0.4070;1.4748;
1014.6000;0.4111;1.4771;
1014.9000;0.4103;1.4842;
1015.2000;0.4070;1.4889;
1015.5000;0.4037;1.4912;
1015.8000;0.4094;1.5076;
1016.1000;0.4103;1.5076;
1016.4000;0.4103;1.5170;
1016.7000;0.4103;1.5170;
1017.0000;0.4103;1.5217;
1017.3000;0.4103;1.5170;
1017.6000;0.4103;1.5147;
1017.9000;0.4103;1.5123;
1018.2000;0.4168;1.5311;
1018.5000;0.4103;1.5100;
1018.8000;0.4119;1.5170;
1019.1000;0.4103;1.5194;
1019.4000;0.4094;1.5170;
1019.7000;0.4103;1.5123;
1020.0000;0.4094;1.5123;
1020.3000;0.4135;1.5217;
1020.6000;0.4094;1.4959;
1020.9000;0.4168;1.5147;
1021.2000;0.4086;1.5053;
1021.5000;0.4119;1.5100;
1021.8000;0.4070;1.5100;
1022.1000;0.4111;1.5123;
1022.4000;0.4103;1.5123;
1022.7000;0.4103;1.5194;
1023.0000;0.4176;1.5264;
1023.3000;0.4111;1.5076;
1023.6000;0.4103;1.5100;
1023.9000;0.4021;1.4889;
1024.2000;0.4094;1.5029;
1024.5000;0.4151;1.5170;
1024.8000;0.4094;1.5029;
1025.1000;0.4094;1.5100;
1025.4000;0.4094;1.5100;
1025.7000;0.4103;1.5147;
1026.0000;0.4135;1.5217;
1026.3000;0.4094;1.5100;
1026.6000;0.4086;1.5100;
1026.9000;0.4127;1.5194;
1027.2000;0.4119;1.5170;
1027.5000;0.4103;1.5123;
1027.8000;0.4062;1.5006;
1028.1000;0.4103;1.5100;
1028.4000;0.4094;1.5029;
1028.7000;0.4094;1.4982;
1029.0000;0.4086;1.5053;
1029.3000;0.4103;1.5053;
1029.6000;0.4078;1.4912;
1029.9000;0.4094;1.4912;
1030.2000;0.4094;1.5006;
1030.5000;0.4103;1.5076;
1030.8000;0.4086;1.5053;
1031.1000;0.4078;1.5029;
1031.4000;0.4094;1.5100;
1031.7000;0.4094;1.5100;
1032.0000;0.4119;1.5123;
1032.3000;0.4111;1.5076;
1032.6000;0.4111;1.5029;
1032.9000;0.4070;1.4982;
1033.2000;0.4111;1.5100;
1033.5000;0.4103;1.5170;
1033.8000;0.4103;1.5170;
1034.1000;0.4086;1.5123;
1034.4000;0.4111;1.5147;
1034.7000;0.4103;1.5100;
1035.0000;0.4086;1.5053;
1035.3000;0.4111;1.5123;
1035.6000;0.4119;1.5076;
1035.9000;0.4111;1.5123;
1036.2000;0.4054;1.4912;
1036.5000;0.4086;1.4982;
1036.8000;0.4103;1.4842;
1037.1000;0.4086;1.4818;
1037.4000;0.4135;1.4912;
1037.7000;0.4086;1.4795;
1038.0000;0.4070;1.4725;
1038.3000;0.4103;1.4795;
1038.6000;0.4078;1.4795;
1038.9000;0.4135;1.4889;
1039.2000;0.4094;1.4865;
1039.5000;0.4094;1.4842;
1039.8000;0.4054;1.4725;
1040.1000;0.4111;1.4818;
1040.4000;0.4151;1.4959;
1040.7000;0.4119;1.4912;
1041.0000;0.4103;1.4936;
1041.3000;0.4103;1.4936;
1041.6000;0.4094;1.4936;
1041.9000;0.4103;1.4865;
1042.2000;0.4078;1.4842;
1042.5000;0.4111;1.4889;
1042.8000;0.3956;1.4514;
1043.1000;0.4103;1.4889;
1043.4000;0.4078;1.4818;
1043.7000;0.4119;1.4912;
1044.0000;0.4103;1.4959;
1044.3000;0.4184;1.5147;
1044.6000;0.4103;1.5029;
1044.9000;0.4086;1.5006;
1045.2000;0.4119;1.5100;
1045.5000;0.4119;1.5076;
1045.8000;0.4086;1.5100;
1046.1000;0.4111;1.5029;
1046.4000;0.4111;1.4936;
1046.7000;0.4094;1.4959;
1047.0000;0.4086;1.4889;
1047.3000;0.4046;1.4818;
1047.6000;0.4086;1.5053;
1047.9000;0.4094;1.5100;
1048.2000;0.4094;1.5100;
1048.5000;0.4070;1.5006;
1048.8000;0.4103;1.5123;
1049.1000;0.4078;1.5123;
1049.4000;0.4070;1.5147;
1049.7000;0.4103;1.5170;
1050.0000;0.4111;1.5264;
1050.3000;0.4103;1.5194;
1050.6000;0.4094;1.5123;
1050.9000;0.4078;1.5123;
1051.2000;0.4086;1.5100;
1051.5000;0.4070;1.5100;
1051.8000;0.4070;1.5100;
1052.1000;0.4094;1.5123;
1052.4000;0.4094;1.5217;
1052.7000;0.4160;1.5405;
1053.0000;0.4111;1.5287;
1053.3000;0.4176;1.5381;
1053.6000;0.4103;1.5100;
1053.9000;0.4119;1.5147;
1054.2000;0.4094;1.5076;
1054.5000;0.4086;1.5053;
1054.8000;0.4103;1.5076;
1055.1000;0.4103;1.5100;
1055.4000;0.4111;1.5123;
1055.7000;0.4111;1.5006;
1056.0000;0.4094;1.5076;
1056.3000;0.4119;1.5147;
1056.6000;0.4111;1.5170;
1056.9000;0.4094;1.5194;
1057.2000;0.4111;1.5217;
1057.5000;0.4111;1.5194;
1057.8000;0.4094;1.5147;
1058.1000;0.4111;1.5147;
1058.4000;0.4103;1.5194;
1058.7000;0.4119;1.5194;
1059.0000;0.4086;1.5194;
1059.3000;0.4103;1.5194;
1059.6000;0.4086;1.5123;
1059.9000;0.4094;1.5194;
1060.2000;0.4062;1.5100;
1060.5000;0.4070;1.5100;
1060.8000;0.4086;1.5076;
1061.1000;0.4094;1.5147;
1061.4000;0.4086;1.5100;
1061.7000;0.4103;1.5170;
1062.0000;0.4135;1.5287;
1062.3000;0.4094;1.5240;
1062.6000;0.4086;1.5311;
1062.9000;0.4103;1.5311;
1063.2000;0.4094;1.5217;
1063.5000;0.4086;1.5194;
1063.8000;0.4094;1.5123;
1064.1000;0.4094;1.5123;
1064.4000;0.4103;1.5264;
1064.7000;0.4078;1.5123;
1065.0000;0.4103;1.5170;
1065.3000;0.4103;1.5170;
1065.6000;0.4111;1.5240;
1065.9000;0.4103;1.5287;
1066.2000;0.4103;1.5264;
1066.5000;0.4135;1.5334;
1066.8000;0.4103;1.5264;
1067.1000;0.4103;1.5240;
1067.4000;0.4094;1.5217;
1067.7000;0.4086;1.5264;
1068.0000;0.4094;1.5147;
1068.3000;0.4062;1.5147;
1068.6000;0.4103;1.5170;
1068.9000;0.4176;1.5405;
1069.2000;0.4103;1.5194;
1069.5000;0.4086;1.5123;
1069.8000;0.4086;1.5076;
1070.1000;0.4160;1.5240;
1070.4000;0.4103;1.5029;
1070.7000;0.4103;1.5053;
1071.0000;0.4143;1.5217;
1071.3000;0.4111;1.5147;
1071.6000;0.4111;1.5076;
1071.9000;0.4119;1.5100;
1072.2000;0.4094;1.5100;
1072.5000;0.4070;1.5029;
1072.8000;0.4111;1.5217;
1073.1000;0.4070;1.5100;
1073.4000;0.4094;1.5029;
1073.7000;0.4078;1.4959;
1074.0000;0.4192;1.5287;
1074.3000;0.4103;1.5053;
1074.6000;0.4086;1.5029;
1074.9000;0.4103;1.4959;
1075.2000;0.4086;1.5006;
1075.5000;0.4086;1.5006;
1075.8000;0.4094;1.5006;
1076.1000;0.4094;1.4982;
1076.4000;0.4070;1.5006;
1076.7000;0.4094;1.5076;
1077.0000;0.4103;1.4982;
1077.3000;0.4094;1.4959;
1077.6000;0.4160;1.5217;
1077.9000;0.4094;1.5100;
1078.2000;0.4111;1.5029;
1078.5000;0.4094;1.4912;
1078.8000;0.4078;1.4842;
1079.1000;0.4094;1.4889;
1079.4000;0.4111;1.4912;
1079.7000;0.4094;1.4889;
1080.0000;0.4086;1.4842;
1080.3000;0.4103;1.4936;
1080.6000;0.3997;1.4725;
1080.9000;0.4094;1.5006;
1081.2000;0.4078;1.5053;
1081.5000;0.4103;1.5147;
1081.8000;0.4119;1.5147;
1082.1000;0.4111;1.5147;
1082.4000;0.4103;1.5076;
1082.7000;0.4070;1.5006;
1083.0000;0.4103;1.5100;
1083.3000;0.4119;1.5100;
1083.6000;0.4184;1.5311;
1083.9000;0.4103;1.5100;
1084.2000;0.4200;1.5334;
1084.5000;0.4127;1.5217;
1084.8000;0.4103;1.5170;
1085.1000;0.4078;1.5123;
1085.4000;0.4103;1.5170;
1085.7000;0.4103;1.5147;
1086.0000;0.4078;1.5029;
1086.3000;0.4127;1.5123;
1086.6000;0.4013;1.4818;
1086.9000;0.4094;1.4982;
1087.2000;0.4103;1.5076;
1087.5000;0.4086;1.4959;
1087.8000;0.4103;1.5076;
1088.1000;0.4062;1.4959;
1088.4000;0.4078;1.4912;
1088.7000;0.4103;1.5006;
1089.0000;0.4078;1.5100;
1089.3000;0.4094;1.5147;
1089.6000;0.4094;1.5076;
1089.9000;0.4111;1.5076;
1090.2000;0.4078;1.4982;
1090.5000;0.4103;1.5029;
1090.8000;0.4094;1.5006;
1091.1000;0.4119;1.5100;
1091.4000;0.4119;1.5170;
1091.7000;0.4103;1.5123;
1092.0000;0.4094;1.5076;
1092.3000;0.4111;1.5123;
1092.6000;0.4103;1.5076;
1092.9000;0.4103;1.4959;
1093.2000;0.4094;1.4959;
1093.5000;0.4103;1.5006;
1093.8000;0.4103;1.5006;
1094.1000;0.4111;1.5029;
1094.4000;0.4111;1.5076;
1094.7000;0.4111;1.5076;
1095.0000;0.4151;1.5311;
1095.3000;0.4111;1.5264;
1095.6000;0.4078;1.5123;
1095.9000;0.4119;1.5147;
1096.2000;0.4086;1.5170;
1096.5000;0.4143;1.5428;
1096.8000;0.4086;1.5240;
1097.1000;0.4119;1.5240;
1097.4000;0.4086;1.5100;
1097.7000;0.4086;1.5100;
1098.0000;0.4103;1.5147;
1098.3000;0.4094;1.5076;
1098.6000;0.4103;1.5076;
1098.9000;0.4127;1.4959;
1099.2000;0.4103;1.4912;
1099.5000;0.4094;1.4982;
1099.8000;0.4094;1.5029;
1100.1000;0.4078;1.4982;
1100.4000;0.4094;1.5029;
1100.7000;0.4086;1.5053;
1101.0000;0.4078;1.5100;
1101.3000;0.4094;1.5100;
1101.6000;0.4037;1.5029;
1101.9000;0.4111;1.5194;
1102.2000;0.4103;1.5123;
1102.5000;0.4111;1.5053;
1102.8000;0.4111;1.5123;
1103.1000;0.4086;1.5217;
1103.4000;0.4119;1.5264;
1103.7000;0.4103;1.5311;
1104.0000;0.4046;1.5194;
1104.3000;0.4094;1.5311;
1104.6000;0.4160;1.5428;
1104.9000;0.4103;1.5217;
1105.2000;0.4103;1.5123;
1105.5000;0.4078;1.4936;
1105.8000;0.4094;1.4959;
1106.1000;0.4094;1.5029;
1106.4000;0.4062;1.5100;
1106.7000;0.4111;1.5264;
1107.0000;0.4111;1.5217;
1107.3000;0.4094;1.5170;
1107.6000;0.4029;1.5006;
1107.9000;0.4103;1.5194;
1108.2000;0.4062;1.5194;
1108.5000;0.4078;1.5194;
1108.8000;0.4094;1.5240;
1109.1000;0.4078;1.5240;
1109.4000;0.4103;1.5287;
1109.7000;0.4094;1.5240;
1110.0000;0.4086;1.5217;
1110.3000;0.4111;1.5240;
1110.6000;0.4094;1.5170;
1110.9000;0.4062;1.5076;
1111.2000;0.4021;1.4936;
1111.5000;0.4086;1.5217;
1111.8000;0.4086;1.5194;
1112.1000;0.4103;1.5170;
1112.4000;0.4103;1.5170;
1112.7000;0.4086;1.5240;
1113.0000;0.4111;1.5194;
1113.3000;0.4086;1.5076;
1113.6000;0.4086;1.5217;
1113.9000;0.4103;1.5170;
1114.2000;0.4103;1.5123;
1114.5000;0.4086;1.5147;
1114.8000;0.4086;1.5076;
1115.1000;0.4119;1.5053;
1115.4000;0.4103;1.5053;
1115.7000;0.4094;1.5076;
1116.0000;0.4103;1.5053;
1116.3000;0.4119;1.5029;
1116.6000;0.4111;1.5006;
1116.9000;0.4151;1.5123;
1117.2000;0.4103;1.5006;
1117.5000;0.4094;1.4936;
1117.8000;0.4086;1.4936;
1118.1000;0.4103;1.4982;
1118.4000;0.4078;1.5006;
1118.7000;0.4078;1.5100;
1119.0000;0.4111;1.5217;
1119.3000;0.4094;1.5194;
1119.6000;0.4078;1.5147;
1119.9000;0.4094;1.5217;
1120.2000;0.4103;1.5240;
1120.5000;0.4094;1.5217;
1120.8000;0.4062;1.5076;
1121.1000;0.4103;1.5100;
1121.4000;0.4135;1.5287;
1121.7000;0.4111;1.5217;
1122.0000;0.4086;1.5170;
1122.3000;0.4094;1.5123;
1122.6000;0.4094;1.5240;
1122.9000;0.4094;1.5194;
1123.2000;0.4070;1.5147;
1123.5000;0.4135;1.5264;
1123.8000;0.4143;1.5287;
1124.1000;0.4103;1.5217;
1124.4000;0.4111;1.5240;
1124.7000;0.4103;1.5287;
1125.0000;0.4111;1.5217;
1125.3000;0.4078;1.5053;
1125.6000;0.4078;1.5053;
1125.9000;0.4103;1.5123;
1126.2000;0.4111;1.5029;
1126.5000;0.4103;1.5100;
1126.8000;0.4103;1.5147;
1127.1000;0.4119;1.5170;
1127.4000;0.4111;1.5076;
1127.7000;0.4103;1.5100;
1128.0000;0.4160;1.5194;
1128.3000;0.4094;1.5076;
1128.6000;0.4119;1.5170;
1128.9000;0.4103;1.5100;
1129.2000;0.4127;1.5217;
1129.5000;0.4111;1.5147;
1129.8000;0.4094;1.5076;
1130.1000;0.4127;1.5170;
1130.4000;0.4094;1.5123;
1130.7000;0.4094;1.5147;
1131.0000;0.4111;1.5123;
1131.3000;0.4070;1.5006;
1131.6000;0.4094;1.4982;
1131.9000;0.4111;1.5076;
1132.2000;0.4103;1.5170;
1132.5000;0.4103;1.5170;
1132.8000;0.4119;1.5170;
1133.1000;0.4094;1.5147;
1133.4000;0.4103;1.5147;
1133.7000;0.4078;1.5076;
1134.0000;0.4029;1.4959;
1134.3000;0.4192;1.5358;
1134.6000;0.4094;1.5217;
1134.9000;0.4021;1.5006;
1135.2000;0.4086;1.5264;
1135.5000;0.4103;1.5264;
1135.8000;0.4168;1.5358;
1136.1000;0.4094;1.5194;
1136.4000;0.4086;1.5123;
1136.7000;0.4094;1.5240;
1137.0000;0.4103;1.5311;
1137.3000;0.4111;1.5334;
1137.6000;0.4119;1.5451;
1137.9000;0.4094;1.5334;
1138.2000;0.4103;1.5217;
1138.5000;0.4127;1.5240;
1138.8000;0.4094;1.5311;
1139.1000;0.4094;1.5311;
1139.4000;0.4070;1.5287;
1139.7000;0.4103;1.5311;
1140.0000;0.4111;1.5334;
1140.3000;0.4111;1.5405;
1140.6000;0.4103;1.5475;
1140.9000;0.4086;1.5381;
1141.2000;0.4078;1.5358;
1141.5000;0.4103;1.5264;
1141.8000;0.4086;1.5217;
1142.1000;0.4111;1.5217;
1142.4000;0.4094;1.5264;
1142.7000;0.4086;1.5264;
1143.0000;0.4103;1.5287;
1143.3000;0.4119;1.5311;
1143.6000;0.4094;1.5217;
1143.9000;0.4094;1.5217;
1144.2000;0.4103;1.5170;
1144.5000;0.4135;1.5264;
1144.8000;0.4086;1.5147;
1145.1000;0.4094;1.5194;
1145.4000;0.4070;1.5170;
1145.7000;0.4054;1.5170;
1146.0000;0.4111;1.5240;
1146.3000;0.4078;1.5217;
1146.6000;0.4086;1.5240;
1146.9000;0.4062;1.5217;
1147.2000;0.4094;1.5358;
1147.5000;0.4111;1.5475;
1147.8000;0.4037;1.5334;
1148.1000;0.4103;1.5428;
1148.4000;0.4103;1.5358;
1148.7000;0.4103;1.5240;
1149.0000;0.4127;1.5264;
1149.3000;0.4103;1.5287;
1149.6000;0.4176;1.5475;
1149.9000;0.4094;1.5264;
1150.2000;0.4103;1.5217;
1150.5000;0.4103;1.5240;
1150.8000;0.4119;1.5217;
1151.1000;0.4078;1.5170;
1151.4000;0.4103;1.5240;
1151.7000;0.4086;1.5170;
1152.0000;0.4111;1.5287;
1152.3000;0.4094;1.5311;
1152.6000;0.4086;1.5287;
1152.9000;0.4094;1.5311;
1153.2000;0.4070;1.5334;
1153.5000;0.4103;1.5311;
1153.8000;0.4086;1.5264;
1154.1000;0.4078;1.5194;
1154.4000;0.4086;1.5170;
1154.7000;0.4103;1.5240;
1155.0000;0.4070;1.5170;
1155.3000;0.4086;1.5170;
1155.6000;0.4094;1.5123;
1155.9000;0.4094;1.5100;
1156.2000;0.4094;1.5147;
1156.5000;0.4103;1.5194;
1156.8000;0.4094;1.5170;
1157.1000;0.4103;1.5240;
1157.4000;0.4094;1.5170;
1157.7000;0.4094;1.5100;
1158.0000;0.4103;1.5123;
1158.3000;0.4086;1.5170;
1158.6000;0.4094;1.5217;
1158.9000;0.4160;1.5264;
1159.2000;0.4103;1.5170;
1159.5000;0.4086;1.5194;
1159.8000;0.4103;1.5240;
1160.1000;0.4070;1.5217;
1160.4000;0.4062;1.5287;
1160.7000;0.4111;1.5358;
1161.0000;0.4103;1.5170;
1161.3000;0.4078;1.5147;
1161.6000;0.4070;1.5123;
1161.9000;0.4111;1.5334;
1162.2000;0.4111;1.5287;
1162.5000;0.4111;1.5287;
1162.8000;0.4062;1.5217;
1163.1000;0.4086;1.5287;
1163.4000;0.4119;1.5358;
1163.7000;0.4094;1.5287;
1164.0000;0.4094;1.5287;
1164.3000;0.4111;1.5381;
1164.6000;0.4103;1.5334;
1164.9000;0.4111;1.5334;
1165.2000;0.4029;1.5100;
1165.5000;0.4070;1.5240;
1165.8000;0.4119;1.5358;
1166.1000;0.4086;1.5240;
1166.4000;0.4070;1.5194;
1166.7000;0.4005;1.4982;
1167.0000;0.4094;1.5100;
1167.3000;0.4103;1.5100;
1167.6000;0.4086;1.5076;
1167.9000;0.4086;1.5029;
1168.2000;0.4111;1.4982;
1168.5000;0.4094;1.4959;
1168.8000;0.4078;1.4889;
1169.1000;0.4103;1.4936;
1169.4000;0.4086;1.4936;
1169.7000;0.4094;1.5053;
1170.0000;0.4078;1.4982;
1170.3000;0.4103;1.5100;
1170.6000;0.4029;1.4959;
1170.9000;0.4054;1.5053;
1171.2000;0.4086;1.5053;
1171.5000;0.4070;1.5029;
1171.8000;0.4094;1.5076;
1172.1000;0.4103;1.5076;
1172.4000;0.4086;1.4982;
1172.7000;0.4078;1.5076;
1173.0000;0.4086;1.5194;
1173.3000;0.4078;1.5217;
1173.6000;0.4054;1.5123;
1173.9000;0.4151;1.5287;
1174.2000;0.4070;1.5029;
1174.5000;0.4086;1.4982;
1174.8000;0.4086;1.4959;
1175.1000;0.4103;1.5006;
1175.4000;0.4094;1.4982;
1175.7000;0.4103;1.5006;
1176.0000;0.4119;1.5006;
1176.3000;0.4086;1.5006;
1176.6000;0.4094;1.4959;
1176.9000;0.4078;1.5029;
1177.2000;0.4086;1.5053;
1177.5000;0.4103;1.5170;
1177.8000;0.4078;1.5006;
1178.1000;0.4078;1.5076;
1178.4000;0.4021;1.4912;
1178.7000;0.4037;1.5006;
1179.0000;0.4111;1.5170;
1179.3000;0.4119;1.5217;
1179.6000;0.3980;1.4889;
1179.9000;0.4103;1.5194;
1180.2000;0.4094;1.5240;
1180.5000;0.4094;1.5170;
1180.8000;0.4127;1.5287;
1181.1000;0.4103;1.5217;
1181.4000;0.4086;1.5217;
1181.7000;0.4111;1.5217;
1182.0000;0.4151;1.5287;
1182.3000;0.4103;1.5147;
1182.6000;0.4094;1.5123;
1182.9000;0.4078;1.5053;
1183.2000;0.4094;1.5194;
1183.5000;0.4086;1.5147;
1183.8000;0.4062;1.5076;
1184.1000;0.4094;1.5217;
1184.4000;0.4111;1.5240;
1184.7000;0.4103;1.5217;
1185.0000;0.4094;1.5194;
1185.3000;0.4094;1.5264;
1185.6000;0.4086;1.5264;
1185.9000;0.4103;1.5311;
1186.2000;0.4119;1.5311;
1186.5000;0.4078;1.5194;
1186.8000;0.4103;1.5287;
1187.1000;0.4103;1.5311;
1187.4000;0.4086;1.5264;
1187.7000;0.4111;1.5311;
1188.0000;0.4086;1.5287;
1188.3000;0.4094;1.5311;
1188.6000;0.4086;1.5264;
1188.9000;0.4094;1.5287;
1189.2000;0.4046;1.5123;
1189.5000;0.4078;1.5240;
1189.8000;0.4119;1.5264;
1190.1000;0.4046;1.5029;
1190.4000;0.4103;1.5170;
1190.7000;0.4103;1.5147;
1191.0000;0.4070;1.5076;
1191.3000;0.4151;1.5287;
1191.6000;0.4070;1.5170;
1191.9000;0.4086;1.5123;
1192.2000;0.4078;1.5100;
1192.5000;0.4143;1.5264;
1192.8000;0.4086;1.5147;
1193.1000;0.4078;1.5123;
1193.4000;0.4086;1.5147;
1193.7000;0.4094;1.5147;
1194.0000;0.4078;1.5100;
1194.3000;0.4086;1.5076;
1194.6000;0.4086;1.5123;
1194.9000;0.4094;1.5076;
1195.2000;0.4078;1.4982;
1195.5000;0.4070;1.5006;
1195.8000;0.4046;1.4912;
1196.1000;0.4086;1.4982;
1196.4000;0.4103;1.5100;
1196.7000;0.4103;1.5123;
1197.0000;0.4078;1.5029;
1197.3000;0.4086;1.4982;
1197.6000;0.4078;1.5029;
1197.9000;0.4094;1.5076;
1198.2000;0.4086;1.5053;
1198.5000;0.4086;1.5053;
1198.8000;0.4094;1.5100;
1199.1000;0.4086;1.5006;
1199.4000;0.4078;1.5029;
1199.7000;0.4086;1.5053;
1200.0000;0.4046;1.4959;
1200.3000;0.4103;1.5194;
1200.6000;0.4078;1.5147;
1200.9000;0.4086;1.5170;
1201.2000;0.4070;1.5100;
1201.5000;0.4111;1.5147;
1201.8000;0.4086;1.5100;
1202.1000;0.4111;1.5147;
1202.4000;0.4103;1.5194;
1202.7000;0.4054;1.4982;
1203.0000;0.4070;1.4959;
1203.3000;0.4078;1.5053;
1203.6000;0.4062;1.5029;
1203.9000;0.4070;1.5100;
1204.2000;0.4078;1.5100;
1204.5000;0.4086;1.5123;
1204.8000;0.4103;1.5194;
1205.1000;0.4094;1.5240;
1205.4000;0.4094;1.5217;
1205.7000;0.4086;1.5217;
1206.0000;0.4111;1.5264;
1206.3000;0.4111;1.5240;
1206.6000;0.4094;1.5264;
1206.9000;0.4094;1.5311;
1207.2000;0.4094;1.5264;
1207.5000;0.4127;1.5334;
1207.8000;0.4103;1.5264;
1208.1000;0.4111;1.5311;
1208.4000;0.4127;1.5358;
1208.7000;0.4103;1.5217;
1209.0000;0.4086;1.5100;
1209.3000;0.4111;1.5076;
1209.6000;0.4094;1.5076;
1209.9000;0.4070;1.5053;
1210.2000;0.4094;1.5170;
1210.5000;0.4086;1.5170;
1210.8000;0.4103;1.5147;
1211.1000;0.4103;1.5147;
1211.4000;0.4094;1.5147;
1211.7000;0.4094;1.5147;
1212.0000;0.4119;1.5170;
1212.3000;0.4103;1.5194;
1212.6000;0.4094;1.5194;
1212.9000;0.4078;1.5240;
1213.2000;0.4151;1.5451;
1213.5000;0.4103;1.5381;
1213.8000;0.4094;1.5405;
1214.1000;0.4029;1.5147;
1214.4000;0.4168;1.5522;
1214.7000;0.4086;1.5287;
1215.0000;0.4119;1.5405;
1215.3000;0.4078;1.5334;
1215.6000;0.4062;1.5240;
1215.9000;0.4094;1.5287;
1216.2000;0.4078;1.5287;
1216.5000;0.4119;1.5451;
1216.8000;0.4094;1.5405;
1217.1000;0.4103;1.5405;
1217.4000;0.4094;1.5358;
1217.7000;0.4103;1.5287;
1218.0000;0.4094;1.5311;
1218.3000;0.4103;1.5311;
1218.6000;0.4094;1.5358;
1218.9000;0.4086;1.5264;
1219.2000;0.4103;1.5287;
1219.5000;0.4103;1.5264;
1219.8000;0.4086;1.5240;
1220.1000;0.4111;1.5217;
1220.4000;0.4094;1.5264;
1220.7000;0.4127;1.5311;
1221.0000;0.4078;1.5170;
1221.3000;0.4103;1.5264;
1221.6000;0.4111;1.5311;
1221.9000;0.4103;1.5287;
1222.2000;0.4078;1.5334;
1222.5000;0.4086;1.5451;
1222.8000;0.4111;1.5428;
1223.1000;0.4103;1.5405;
1223.4000;0.4070;1.5358;
1223.7000;0.4111;1.5358;
1224.0000;0.3989;1.5170;
1224.3000;0.4086;1.5405;
1224.6000;0.4062;1.5358;
1224.9000;0.4078;1.5334;
1225.2000;0.4119;1.5451;
1225.5000;0.4070;1.5405;
1225.8000;0.4086;1.5381;
1226.1000;0.4078;1.5287;
1226.4000;0.4037;1.5123;
1226.7000;0.3972;1.4982;
1227.0000;0.4086;1.5264;
1227.3000;0.4103;1.5334;
1227.6000;0.4070;1.5194;
1227.9000;0.4086;1.5240;
1228.2000;0.4111;1.5240;
1228.5000;0.4103;1.5264;
1228.8000;0.4103;1.5170;
1229.1000;0.4094;1.5240;
1229.4000;0.4086;1.5264;
1229.7000;0.4094;1.5240;
1230.0000;0.4094;1.5194;
1230.3000;0.4086;1.5217;
1230.6000;0.4070;1.5217;
1230.9000;0.4143;1.5358;
1231.2000;0.4094;1.5217;
1231.5000;0.4086;1.5170;
1231.8000;0.4086;1.5123;
1232.1000;0.4078;1.5170;
1232.4000;0.4184;1.5428;
1232.7000;0.4086;1.5217;
1233.0000;0.4086;1.5194;
1233.3000;0.4086;1.5100;
1233.6000;0.4103;1.5076;
1233.9000;0.4103;1.5123;
1234.2000;0.4094;1.5123;
1234.5000;0.4111;1.5123;
1234.8000;0.4111;1.5076;
1235.1000;0.4094;1.5217;
1235.4000;0.4103;1.5264;
1235.7000;0.4086;1.5217;
1236.0000;0.4111;1.5170;
1236.3000;0.4078;1.5194;
1236.6000;0.4086;1.5240;
1236.9000;0.4094;1.5147;
1237.2000;0.4054;1.5053;
1237.5000;0.4086;1.5147;
1237.8000;0.4070;1.5123;
1238.1000;0.4086;1.5287;
1238.4000;0.4037;1.5147;
1238.7000;0.4070;1.5147;
1239.0000;0.4070;1.5147;
1239.3000;0.4103;1.5217;
1239.6000;0.4046;1.5147;
1239.9000;0.4103;1.5311;
1240.2000;0.4086;1.5287;
1240.5000;0.4078;1.5240;
1240.8000;0.4086;1.5264;
1241.1000;0.4078;1.5240;
1241.4000;0.4119;1.5358;
1241.7000;0.4029;1.5170;
1242.0000;0.4078;1.5240;
1242.3000;0.4078;1.5240;
1242.6000;0.4103;1.5334;
1242.9000;0.4094;1.5264;
1243.2000;0.4119;1.5264;
1243.5000;0.4103;1.5194;
1243.8000;0.4086;1.5217;
1244.1000;0.4111;1.5264;
1244.4000;0.4119;1.5311;
1244.7000;0.4103;1.5264;
1245.0000;0.4094;1.5264;
1245.3000;0.4078;1.5217;
1245.6000;0.4111;1.5147;
1245.9000;0.4046;1.5006;
1246.2000;0.4094;1.5123;
1246.5000;0.4086;1.5240;
1246.8000;0.4086;1.5311;
1247.1000;0.4078;1.5311;
1247.4000;0.4070;1.5287;
1247.7000;0.4078;1.5311;
1248.0000;0.4127;1.5428;
1248.3000;0.4078;1.5311;
1248.6000;0.4094;1.5287;
1248.9000;0.4078;1.5264;
1249.2000;0.4086;1.5287;
1249.5000;0.4086;1.5217;
1249.8000;0.4078;1.5147;
1250.1000;0.4062;1.5194;
1250.4000;0.4086;1.5123;
1250.7000;0.4103;1.5123;
1251.0000;0.4094;1.5029;
1251.3000;0.4094;1.4959;
1251.6000;0.4070;1.4936;
1251.9000;0.4078;1.4982;
1252.2000;0.4070;1.4936;
1252.5000;0.4070;1.4982;
1252.8000;0.4029;1.4842;
1253.1000;0.4103;1.4982;
1253.4000;0.4094;1.4982;
1253.7000;0.4086;1.4936;
1254.0000;0.4094;1.5029;
1254.3000;0.4103;1.5123;
1254.6000;0.4094;1.5170;
1254.9000;0.4217;1.5498;
1255.2000;0.4111;1.5240;
1255.5000;0.4103;1.5217;
1255.8000;0.4119;1.5287;
1256.1000;0.4070;1.5264;
1256.4000;0.4103;1.5358;
1256.7000;0.4119;1.5311;
1257.0000;0.4070;1.5287;
1257.3000;0.4111;1.5381;
1257.6000;0.4086;1.5405;
1257.9000;0.4086;1.5358;
1258.2000;0.4103;1.5358;
1258.5000;0.4070;1.5240;
1258.8000;0.4086;1.5264;
1259.1000;0.4094;1.5264;
1259.4000;0.4119;1.5264;
1259.7000;0.4111;1.5264;
1260.0000;0.4151;1.5428;
1260.3000;0.4029;1.5194;
1260.6000;0.4111;1.5334;
1260.9000;0.4086;1.5264;
1261.2000;0.4086;1.5217;
1261.5000;0.4086;1.5100;
1261.8000;0.4062;1.5100;
1262.1000;0.4054;1.5076;
1262.4000;0.4070;1.5100;
1262.7000;0.4078;1.5100;
1263.0000;0.4037;1.4982;
1263.3000;0.4062;1.5006;
1263.6000;0.4103;1.5076;
1263.9000;0.4086;1.5100;
1264.2000;0.4078;1.5029;
1264.5000;0.4086;1.5100;
1264.8000;0.4094;1.5170;
1265.1000;0.4054;1.5170;
1265.4000;0.3997;1.5100;
1265.7000;0.4086;1.5358;
1266.0000;0.4094;1.5358;
1266.3000;0.4094;1.5287;
1266.6000;0.4111;1.5264;
1266.9000;0.4119;1.5194;
1267.2000;0.4086;1.5123;
1267.5000;0.4094;1.5194;
1267.8000;0.4086;1.5123;
1268.1000;0.4086;1.5194;
1268.4000;0.4111;1.5311;
1268.7000;0.4086;1.5334;
1269.0000;0.4111;1.5381;
1269.3000;0.4062;1.5170;
1269.6000;0.4086;1.5100;
1269.9000;0.4103;1.5053;
1270.2000;0.4094;1.4959;
1270.5000;0.4094;1.4936;
1270.8000;0.4054;1.4865;
1271.1000;0.4103;1.5006;
1271.4000;0.4078;1.5076;
1271.7000;0.4103;1.5076;
1272.0000;0.4094;1.5053;
1272.3000;0.4078;1.5123;
1272.6000;0.4094;1.5194;
1272.9000;0.4070;1.5100;
1273.2000;0.4094;1.5170;
1273.5000;0.4070;1.5029;
1273.8000;0.4094;1.5100;
1274.1000;0.4086;1.5053;
1274.4000;0.4062;1.5029;
1274.7000;0.4094;1.5006;
1275.0000;0.4094;1.5029;
1275.3000;0.4127;1.5100;
1275.6000;0.4086;1.4959;
1275.9000;0.4078;1.5053;
1276.2000;0.4094;1.5147;
1276.5000;0.4094;1.5170;
1276.8000;0.4078;1.5100;
1277.1000;0.4070;1.5170;
1277.4000;0.4078;1.5194;
1277.7000;0.4086;1.5217;
1278.0000;0.4078;1.5170;
1278.3000;0.4086;1.5217;
1278.6000;0.4086;1.5217;
1278.9000;0.4070;1.5123;
1279.2000;0.4086;1.5194;
1279.5000;0.4094;1.5217;
1279.8000;0.4086;1.5240;
1280.1000;0.4086;1.5194;
1280.4000;0.4103;1.5217;
1280.7000;0.4086;1.5194;
1281.0000;0.4086;1.5123;
1281.3000;0.4119;1.5194;
1281.6000;0.4103;1.5076;
1281.9000;0.4094;1.5123;
1282.2000;0.4135;1.5147;
1282.5000;0.4086;1.5076;
1282.8000;0.4094;1.5100;
1283.1000;0.4078;1.5006;
1283.4000;0.4062;1.4936;
1283.7000;0.4070;1.5006;
1284.0000;0.4111;1.5029;
1284.3000;0.4054;1.4959;
1284.6000;0.4086;1.5006;
1284.9000;0.4078;1.5100;
1285.2000;0.4094;1.5170;
1285.5000;0.4086;1.5100;
1285.8000;0.4086;1.5076;
1286.1000;0.4094;1.5076;
1286.4000;0.4094;1.5100;
1286.7000;0.4086;1.5076;
1287.0000;0.4086;1.5100;
1287.3000;0.4103;1.5123;
1287.6000;0.4078;1.5194;
1287.9000;0.4070;1.5170;
1288.2000;0.4062;1.5147;
1288.5000;0.4086;1.5076;
1288.8000;0.4086;1.5147;
1289.1000;0.4029;1.5053;
1289.4000;0.4086;1.5217;
1289.7000;0.4094;1.5240;
1290.0000;0.4070;1.5170;
1290.3000;0.4103;1.5147;
1290.6000;0.4111;1.5217;
1290.9000;0.4070;1.5123;
1291.2000;0.4078;1.5123;
1291.5000;0.4094;1.5170;
1291.8000;0.4103;1.5147;
1292.1000;0.4086;1.5170;
1292.4000;0.4103;1.5194;
1292.7000;0.4070;1.5123;
1293.0000;0.4111;1.5240;
1293.3000;0.4119;1.5287;
1293.6000;0.4070;1.5287;
1293.9000;0.4078;1.5358;
1294.2000;0.4070;1.5287;
1294.5000;0.4111;1.5311;
1294.8000;0.4086;1.5240;
1295.1000;0.4070;1.5170;
1295.4000;0.4111;1.5217;
1295.7000;0.4200;1.5381;
1296.0000;0.4094;1.4982;
1296.3000;0.4078;1.4936;
1296.6000;0.4111;1.5006;
1296.9000;0.4078;1.4936;
1297.2000;0.4094;1.4959;
1297.5000;0.4143;1.5076;
1297.8000;0.4070;1.5076;
1298.1000;0.4086;1.5100;
1298.4000;0.4062;1.5006;
1298.7000;0.4135;1.5123;
1299.0000;0.4103;1.5053;
1299.3000;0.4168;1.5217;
1299.6000;0.4070;1.5053;
1299.9000;0.4070;1.5123;
1300.2000;0.4078;1.5264;
1300.5000;0.4078;1.5240;
1300.8000;0.4078;1.5170;
1301.1000;0.4111;1.5287;
1301.4000;0.4086;1.5264;
1301.7000;0.4103;1.5311;
1302.0000;0.4086;1.5264;
1302.3000;0.4094;1.5264;
1302.6000;0.4086;1.5194;
1302.9000;0.4103;1.5194;
1303.2000;0.4094;1.5147;
1303.5000;0.4086;1.5006;
1303.8000;0.4103;1.5123;
1304.1000;0.4086;1.5147;
1304.4000;0.4086;1.5147;
1304.7000;0.4103;1.5076;
1305.0000;0.4078;1.5006;
1305.3000;0.4062;1.4959;
1305.6000;0.4086;1.5170;
1305.9000;0.4078;1.5264;
1306.2000;0.4151;1.5475;
1306.5000;0.4094;1.5358;
1306.8000;0.4070;1.5264;
1307.1000;0.4078;1.5194;
1307.4000;0.4119;1.5311;
1307.7000;0.4094;1.5264;
1308.0000;0.4086;1.5123;
1308.3000;0.4062;1.5123;
1308.6000;0.4086;1.5240;
1308.9000;0.4200;1.5428;
1309.2000;0.4062;1.5076;
1309.5000;0.4070;1.5170;
1309.8000;0.4070;1.5311;
1310.1000;0.4094;1.5334;
1310.4000;0.4070;1.5287;
1310.7000;0.4094;1.5381;
1311.0000;0.4046;1.5287;
1311.3000;0.4094;1.5334;
1311.6000;0.4103;1.5358;
1311.9000;0.4078;1.5287;
1312.2000;0.4103;1.5334;
1312.5000;0.4094;1.5287;
1312.8000;0.4094;1.5287;
1313.1000;0.4086;1.5287;
1313.4000;0.4094;1.5311;
1313.7000;0.4103;1.5381;
1314.0000;0.4176;1.5451;
1314.3000;0.4078;1.5194;
1314.6000;0.4094;1.5264;
1314.9000;0.4086;1.5217;
1315.2000;0.4094;1.5147;
1315.5000;0.4078;1.5194;
1315.8000;0.4086;1.5194;
1316.1000;0.4086;1.5170;
1316.4000;0.4094;1.5240;
1316.7000;0.4078;1.5217;
1317.0000;0.4094;1.5217;
1317.3000;0.4111;1.5287;
1317.6000;0.4078;1.5264;
1317.9000;0.4086;1.5311;
1318.2000;0.4103;1.5334;
1318.5000;0.4094;1.5194;
1318.8000;0.4168;1.5287;
1319.1000;0.4086;1.5194;
1319.4000;0.4070;1.5147;
1319.7000;0.4151;1.5334;
1320.0000;0.4086;1.5194;
1320.3000;0.4021;1.5006;
1320.6000;0.4070;1.5170;
1320.9000;0.4070;1.5194;
1321.2000;0.4086;1.5194;
1321.5000;0.4037;1.5029;
1321.8000;0.4054;1.5076;
1322.1000;0.4094;1.5123;
1322.4000;0.3997;1.4889;
1322.7000;0.4143;1.5287;
1323.0000;0.4070;1.5076;
1323.3000;0.4086;1.5053;
1323.6000;0.4086;1.5053;
1323.9000;0.4103;1.4959;
1324.2000;0.4086;1.4959;
1324.5000;0.4094;1.4912;
1324.8000;0.4094;1.4936;
1325.1000;0.4094;1.4936;
1325.4000;0.4094;1.4889;
1325.7000;0.4103;1.4936;
1326.0000;0.4054;1.4865;
1326.3000;0.4094;1.4959;
1326.6000;0.4094;1.4982;
1326.9000;0.4078;1.5029;
1327.2000;0.4062;1.5006;
1327.5000;0.4078;1.4982;
1327.8000;0.4103;1.4982;
1328.1000;0.4094;1.4982;
1328.4000;0.4062;1.4982;
1328.7000;0.4086;1.5123;
1329.0000;0.4070;1.5123;
1329.3000;0.4111;1.5123;
1329.6000;0.4103;1.5170;
1329.9000;0.4078;1.5123;
1330.2000;0.4094;1.5100;
1330.5000;0.4070;1.5029;
1330.8000;0.4054;1.4982;
1331.1000;0.4054;1.5029;
1331.4000;0.4184;1.5358;
1331.7000;0.4143;1.5240;
1332.0000;0.4021;1.4842;
1332.3000;0.4143;1.5076;
1332.6000;0.4078;1.5006;
1332.9000;0.4062;1.4936;
1333.2000;0.4143;1.5100;
1333.5000;0.4086;1.4936;
1333.8000;0.4070;1.4936;
1334.1000;0.4078;1.5029;
1334.4000;0.4086;1.5100;
1334.7000;0.4086;1.5123;
1335.0000;0.4062;1.5123;
1335.3000;0.4086;1.5147;
1335.6000;0.4094;1.5264;
1335.9000;0.4111;1.5311;
1336.2000;0.4086;1.5147;
1336.5000;0.4127;1.5123;
1336.8000;0.4103;1.5029;
1337.1000;0.4086;1.4936;
1337.4000;0.4160;1.5147;
1337.7000;0.4086;1.4982;
1338.0000;0.4119;1.5076;
1338.3000;0.4094;1.5100;
1338.6000;0.4103;1.5100;
1338.9000;0.4086;1.5123;
1339.2000;0.4086;1.5053;
1339.5000;0.4094;1.4982;
1339.8000;0.4094;1.4982;
1340.1000;0.4086;1.4982;
1340.4000;0.4103;1.4982;
1340.7000;0.4103;1.4936;
1341.0000;0.4111;1.4912;
1341.3000;0.4111;1.5006;
1341.6000;0.4086;1.4982;
1341.9000;0.4046;1.4865;
1342.2000;0.4078;1.4936;
1342.5000;0.4062;1.4912;
1342.8000;0.4078;1.4982;
1343.1000;0.4103;1.5029;
1343.4000;0.4078;1.4865;
1343.7000;0.4062;1.4889;
1344.0000;0.4094;1.4865;
1344.3000;0.4046;1.4842;
1344.6000;0.4086;1.5029;
1344.9000;0.4086;1.5053;
1345.2000;0.4086;1.4936;
1345.5000;0.4078;1.4936;
1345.8000;0.4078;1.4842;
1346.1000;0.4086;1.4865;
1346.4000;0.4078;1.4771;
1346.7000;0.4086;1.4771;
1347.0000;0.4070;1.4748;
1347.3000;0.4111;1.4818;
1347.6000;0.4086;1.4795;
1347.9000;0.4086;1.4771;
1348.2000;0.4046;1.4607;
1348.5000;0.4078;1.4795;
1348.8000;0.4086;1.4771;
1349.1000;0.4094;1.4889;
1349.4000;0.4054;1.4865;
1349.7000;0.4103;1.5006;
1350.0000;0.4119;1.5029;
1350.3000;0.4094;1.5029;
1350.6000;0.4111;1.5100;
1350.9000;0.4078;1.5053;
1351.2000;0.4103;1.5147;
1351.5000;0.4111;1.5147;
1351.8000;0.4078;1.5147;
1352.1000;0.4070;1.5076;
1352.4000;0.4046;1.5076;
1352.7000;0.4111;1.5240;
1353.0000;0.4094;1.5170;
1353.3000;0.4111;1.5217;
1353.6000;0.4127;1.5240;
1353.9000;0.4094;1.5147;
1354.2000;0.4078;1.5100;
1354.5000;0.4111;1.5194;
1354.8000;0.4103;1.5194;
1355.1000;0.4103;1.5194;
1355.4000;0.4094;1.5194;
1355.7000;0.4078;1.5217;
1356.0000;0.4086;1.5194;
1356.3000;0.4111;1.5264;
1356.6000;0.4078;1.5217;
1356.9000;0.4070;1.5194;
1357.2000;0.4086;1.5311;
1357.5000;0.4111;1.5522;
1357.8000;0.4078;1.5428;
1358.1000;0.4151;1.5569;
1358.4000;0.4078;1.5264;
1358.7000;0.4086;1.5194;
1359.0000;0.4078;1.5147;
1359.3000;0.4086;1.5170;
1359.6000;0.4037;1.5100;
1359.9000;0.4070;1.5100;
1360.2000;0.4086;1.5170;
1360.5000;0.4078;1.5147;
1360.8000;0.4078;1.5194;
1361.1000;0.4094;1.5170;
1361.4000;0.4078;1.5194;
1361.7000;0.4103;1.5334;
1362.0000;0.4086;1.5240;
1362.3000;0.4078;1.5264;
1362.6000;0.4103;1.5358;
1362.9000;0.4086;1.5287;
1363.2000;0.4086;1.5240;
1363.5000;0.4103;1.5264;
1363.8000;0.4111;1.5311;
1364.1000;0.4103;1.5334;
1364.4000;0.4078;1.5311;
1364.7000;0.4086;1.5287;
1365.0000;0.4086;1.5287;
1365.3000;0.4078;1.5287;
1365.6000;0.4086;1.5287;
1365.9000;0.4078;1.5147;
1366.2000;0.4094;1.5240;
1366.5000;0.4086;1.5334;
1366.8000;0.4094;1.5358;
1367.1000;0.4094;1.5334;
1367.4000;0.4078;1.5381;
1367.7000;0.4037;1.5240;
1368.0000;0.4086;1.5264;
1368.3000;0.4086;1.5334;
1368.6000;0.4094;1.5334;
1368.9000;0.4078;1.5287;
1369.2000;0.4086;1.5264;
1369.5000;0.4078;1.5264;
1369.8000;0.4103;1.5264;
1370.1000;0.4094;1.5264;
1370.4000;0.4078;1.5287;
1370.7000;0.4111;1.5405;
1371.0000;0.4078;1.5264;
1371.3000;0.4070;1.5217;
1371.6000;0.4094;1.5217;
1371.9000;0.4078;1.5194;
1372.2000;0.4086;1.5170;
1372.5000;0.4094;1.5170;
1372.8000;0.4086;1.5053;
1373.1000;0.4094;1.5100;
1373.4000;0.4103;1.5100;
1373.7000;0.4103;1.5147;
1374.0000;0.4111;1.5053;
1374.3000;0.4086;1.4912;
1374.6000;0.4111;1.5053;
1374.9000;0.4127;1.5170;
1375.2000;0.4086;1.4982;
1375.5000;0.4086;1.4982;
1375.8000;0.4094;1.4936;
1376.1000;0.4078;1.4959;
1376.4000;0.4078;1.4936;
1376.7000;0.4094;1.5076;
1377.0000;0.4086;1.5029;
1377.3000;0.4078;1.4959;
1377.6000;0.4103;1.4982;
1377.9000;0.4086;1.5053;
1378.2000;0.4086;1.5123;
1378.5000;0.4086;1.5053;
1378.8000;0.4070;1.4959;
1379.1000;0.4062;1.4912;
1379.4000;0.4078;1.4912;
1379.7000;0.4094;1.4936;
1380.0000;0.4046;1.4795;
1380.3000;0.4086;1.4889;
1380.6000;0.4086;1.4936;
1380.9000;0.4094;1.4912;
1381.2000;0.4094;1.4865;
1381.5000;0.4070;1.4865;
1381.8000;0.4070;1.4842;
1382.1000;0.4094;1.4912;
1382.4000;0.4103;1.4842;
1382.7000;0.4086;1.4795;
1383.0000;0.4094;1.4701;
1383.3000;0.4094;1.4748;
1383.6000;0.4029;1.4631;
1383.9000;0.4046;1.4725;
1384.2000;0.4070;1.4842;
1384.5000;0.4086;1.4936;
1384.8000;0.4078;1.4959;
1385.1000;0.4094;1.5053;
1385.4000;0.4103;1.4982;
1385.7000;0.4078;1.5006;
1386.0000;0.4103;1.5029;
1386.3000;0.4094;1.5006;
1386.6000;0.4078;1.4912;
1386.9000;0.4037;1.4865;
1387.2000;0.4103;1.5100;
1387.5000;0.4086;1.5006;
1387.8000;0.4086;1.5006;
1388.1000;0.4103;1.5100;
1388.4000;0.4143;1.5264;
1388.7000;0.4054;1.5029;
1389.0000;0.4062;1.5123;
1389.3000;0.4094;1.5194;
1389.6000;0.4094;1.5217;
1389.9000;0.4078;1.5217;
1390.2000;0.4094;1.5217;
1390.5000;0.4086;1.5194;
1390.8000;0.4078;1.5194;
1391.1000;0.4046;1.5076;
1391.4000;0.4013;1.5006;
1391.7000;0.4046;1.5100;
1392.0000;0.4103;1.5170;
1392.3000;0.4094;1.5170;
1392.6000;0.4103;1.5123;
1392.9000;0.4062;1.5029;
1393.2000;0.4078;1.5053;
1393.5000;0.4111;1.5147;
1393.8000;0.4086;1.5100;
1394.1000;0.4078;1.5053;
1394.4000;0.3997;1.4795;
1394.7000;0.4103;1.5029;
1395.0000;0.4062;1.4982;
1395.3000;0.4054;1.4982;
1395.6000;0.4094;1.4982;
1395.9000;0.4062;1.5006;
1396.2000;0.4103;1.5076;
1396.5000;0.4070;1.5029;
1396.8000;0.4062;1.5029;
1397.1000;0.4070;1.5076;
1397.4000;0.4119;1.5240;
1397.7000;0.4062;1.5170;
1398.0000;0.4070;1.5217;
1398.3000;0.4070;1.5264;
1398.6000;0.4086;1.5264;
1398.9000;0.4062;1.5194;
1399.2000;0.4062;1.5123;
1399.5000;0.4135;1.5170;
1399.8000;0.4070;1.4959;
