time/ms;Fluo/V;P700 deltaI/I x10³;
-199.8000;0.4892;1.3669;
-199.5000;0.4746;1.3247;
-199.2000;0.4819;1.3482;
-198.9000;0.4697;1.3247;
-198.6000;0.4811;1.3505;
-198.3000;0.4811;1.3623;
-198.0000;0.4819;1.3646;
-197.7000;0.4835;1.3693;
-197.4000;0.4827;1.3693;
-197.1000;0.4819;1.3646;
-196.8000;0.4827;1.3693;
-196.5000;0.4843;1.3669;
-196.2000;0.4827;1.3552;
-195.9000;0.4827;1.3599;
-195.6000;0.4827;1.3576;
-195.3000;0.4794;1.3505;
-195.0000;0.4835;1.3576;
-194.7000;0.4803;1.3458;
-194.4000;0.4803;1.3435;
-194.1000;0.4827;1.3458;
-193.8000;0.4811;1.3412;
-193.5000;0.4819;1.3318;
-193.2000;0.4811;1.3271;
-192.9000;0.4786;1.3130;
-192.6000;0.4835;1.3224;
-192.3000;0.4803;1.3201;
-192.0000;0.4827;1.3365;
-191.7000;0.4827;1.3412;
-191.4000;0.4843;1.3482;
-191.1000;0.4819;1.3505;
-190.8000;0.4811;1.3412;
-190.5000;0.4811;1.3482;
-190.2000;0.4851;1.3552;
-189.9000;0.4819;1.3458;
-189.6000;0.4811;1.3458;
-189.3000;0.4827;1.3505;
-189.0000;0.4819;1.3435;
-188.7000;0.4827;1.3435;
-188.4000;0.4705;1.3130;
-188.1000;0.4868;1.3646;
-187.8000;0.4803;1.3529;
-187.5000;0.4819;1.3505;
-187.2000;0.4811;1.3482;
-186.9000;0.4811;1.3505;
-186.6000;0.4811;1.3552;
-186.3000;0.4835;1.3646;
-186.0000;0.4827;1.3599;
-185.7000;0.4827;1.3599;
-185.4000;0.4827;1.3646;
-185.1000;0.4786;1.3458;
-184.8000;0.4868;1.3646;
-184.5000;0.4819;1.3529;
-184.2000;0.4843;1.3646;
-183.9000;0.4803;1.3599;
-183.6000;0.4835;1.3623;
-183.3000;0.4876;1.3669;
-183.0000;0.4827;1.3458;
-182.7000;0.4819;1.3552;
-182.4000;0.4843;1.3599;
-182.1000;0.4819;1.3599;
-181.8000;0.4794;1.3529;
-181.5000;0.4835;1.3669;
-181.2000;0.4835;1.3599;
-180.9000;0.4819;1.3529;
-180.6000;0.4884;1.3576;
-180.3000;0.4811;1.3412;
-180.0000;0.4835;1.3435;
-179.7000;0.4990;1.3904;
-179.4000;0.4811;1.3552;
-179.1000;0.4803;1.3552;
-178.8000;0.4803;1.3552;
-178.5000;0.4965;1.3951;
-178.2000;0.4843;1.3576;
-177.9000;0.4811;1.3388;
-177.6000;0.4811;1.3458;
-177.3000;0.4819;1.3505;
-177.0000;0.4811;1.3482;
-176.7000;0.4933;1.3693;
-176.4000;0.4819;1.3482;
-176.1000;0.4827;1.3623;
-175.8000;0.4827;1.3576;
-175.5000;0.4819;1.3458;
-175.2000;0.4827;1.3505;
-174.9000;0.4819;1.3576;
-174.6000;0.4827;1.3576;
-174.3000;0.4811;1.3529;
-174.0000;0.4811;1.3505;
-173.7000;0.4835;1.3529;
-173.4000;0.4827;1.3529;
-173.1000;0.4819;1.3412;
-172.8000;0.4811;1.3458;
-172.5000;0.4876;1.3576;
-172.2000;0.4835;1.3458;
-171.9000;0.4827;1.3435;
-171.6000;0.4860;1.3505;
-171.3000;0.4843;1.3388;
-171.0000;0.4819;1.3388;
-170.7000;0.4811;1.3435;
-170.4000;0.4819;1.3365;
-170.1000;0.4819;1.3365;
-169.8000;0.4803;1.3318;
-169.5000;0.4827;1.3412;
-169.2000;0.4819;1.3412;
-168.9000;0.4819;1.3412;
-168.6000;0.4819;1.3435;
-168.3000;0.4811;1.3435;
-168.0000;0.4811;1.3505;
-167.7000;0.4770;1.3435;
-167.4000;0.4908;1.3763;
-167.1000;0.4786;1.3529;
-166.8000;0.4803;1.3482;
-166.5000;0.4786;1.3458;
-166.2000;0.4811;1.3552;
-165.9000;0.4811;1.3552;
-165.6000;0.4794;1.3505;
-165.3000;0.4803;1.3529;
-165.0000;0.4819;1.3458;
-164.7000;0.4835;1.3435;
-164.4000;0.4827;1.3435;
-164.1000;0.4835;1.3458;
-163.8000;0.4827;1.3435;
-163.5000;0.4827;1.3341;
-163.2000;0.4835;1.3341;
-162.9000;0.4835;1.3412;
-162.6000;0.4827;1.3341;
-162.3000;0.4868;1.3435;
-162.0000;0.4835;1.3318;
-161.7000;0.4819;1.3341;
-161.4000;0.4835;1.3365;
-161.1000;0.4819;1.3412;
-160.8000;0.4811;1.3412;
-160.5000;0.4811;1.3412;
-160.2000;0.4835;1.3576;
-159.9000;0.4811;1.3576;
-159.6000;0.4827;1.3623;
-159.3000;0.4843;1.3763;
-159.0000;0.4835;1.3857;
-158.7000;0.4827;1.3693;
-158.4000;0.4819;1.3623;
-158.1000;0.4827;1.3693;
-157.8000;0.4851;1.3834;
-157.5000;0.4843;1.3716;
-157.2000;0.4811;1.3599;
-156.9000;0.4884;1.3740;
-156.6000;0.4835;1.3646;
-156.3000;0.4811;1.3529;
-156.0000;0.4794;1.3458;
-155.7000;0.4786;1.3365;
-155.4000;0.4827;1.3529;
-155.1000;0.4794;1.3529;
-154.8000;0.4827;1.3505;
-154.5000;0.4933;1.3810;
-154.2000;0.4827;1.3599;
-153.9000;0.4819;1.3623;
-153.6000;0.4811;1.3599;
-153.3000;0.4868;1.3716;
-153.0000;0.4835;1.3693;
-152.7000;0.4827;1.3646;
-152.4000;0.4754;1.3412;
-152.1000;0.4827;1.3646;
-151.8000;0.4827;1.3646;
-151.5000;0.4892;1.3716;
-151.2000;0.4819;1.3482;
-150.9000;0.4827;1.3435;
-150.6000;0.4843;1.3458;
-150.3000;0.4819;1.3412;
-150.0000;0.4835;1.3552;
-149.7000;0.4827;1.3552;
-149.4000;0.4819;1.3599;
-149.1000;0.4835;1.3669;
-148.8000;0.4819;1.3669;
-148.5000;0.4827;1.3669;
-148.2000;0.4835;1.3669;
-147.9000;0.4835;1.3669;
-147.6000;0.4835;1.3623;
-147.3000;0.4843;1.3646;
-147.0000;0.4811;1.3552;
-146.7000;0.4827;1.3623;
-146.4000;0.4835;1.3552;
-146.1000;0.4827;1.3552;
-145.8000;0.4860;1.3552;
-145.5000;0.4811;1.3435;
-145.2000;0.4827;1.3482;
-144.9000;0.4827;1.3435;
-144.6000;0.4819;1.3458;
-144.3000;0.4827;1.3388;
-144.0000;0.4835;1.3412;
-143.7000;0.4794;1.3247;
-143.4000;0.4827;1.3435;
-143.1000;0.4868;1.3599;
-142.8000;0.4811;1.3529;
-142.5000;0.4811;1.3576;
-142.2000;0.4713;1.3341;
-141.9000;0.4819;1.3482;
-141.6000;0.4819;1.3482;
-141.3000;0.4851;1.3576;
-141.0000;0.4827;1.3458;
-140.7000;0.4819;1.3435;
-140.4000;0.4786;1.3318;
-140.1000;0.4811;1.3458;
-139.8000;0.4811;1.3552;
-139.5000;0.4811;1.3505;
-139.2000;0.4819;1.3482;
-138.9000;0.4827;1.3435;
-138.6000;0.4827;1.3458;
-138.3000;0.4827;1.3412;
-138.0000;0.4819;1.3435;
-137.7000;0.4811;1.3388;
-137.4000;0.4827;1.3365;
-137.1000;0.4827;1.3318;
-136.8000;0.4819;1.3318;
-136.5000;0.4770;1.3201;
-136.2000;0.4811;1.3388;
-135.9000;0.4811;1.3388;
-135.6000;0.4811;1.3388;
-135.3000;0.4794;1.3388;
-135.0000;0.4803;1.3458;
-134.7000;0.4811;1.3529;
-134.4000;0.4811;1.3482;
-134.1000;0.4811;1.3505;
-133.8000;0.4827;1.3576;
-133.5000;0.4819;1.3529;
-133.2000;0.4819;1.3458;
-132.9000;0.4803;1.3412;
-132.6000;0.4811;1.3341;
-132.3000;0.4794;1.3318;
-132.0000;0.4819;1.3412;
-131.7000;0.4868;1.3458;
-131.4000;0.4803;1.3388;
-131.1000;0.4827;1.3412;
-130.8000;0.4803;1.3365;
-130.5000;0.4827;1.3412;
-130.2000;0.4819;1.3318;
-129.9000;0.4811;1.3224;
-129.6000;0.4827;1.3294;
-129.3000;0.4786;1.3294;
-129.0000;0.4835;1.3365;
-128.7000;0.4827;1.3458;
-128.4000;0.4827;1.3435;
-128.1000;0.4835;1.3482;
-127.8000;0.4827;1.3365;
-127.5000;0.4835;1.3341;
-127.2000;0.4827;1.3388;
-126.9000;0.4835;1.3388;
-126.6000;0.4827;1.3294;
-126.3000;0.4819;1.3341;
-126.0000;0.4843;1.3412;
-125.7000;0.4827;1.3435;
-125.4000;0.4811;1.3341;
-125.1000;0.4778;1.3318;
-124.8000;0.4819;1.3365;
-124.5000;0.4803;1.3341;
-124.2000;0.4843;1.3482;
-123.9000;0.4803;1.3388;
-123.6000;0.4843;1.3576;
-123.3000;0.4770;1.3412;
-123.0000;0.4811;1.3412;
-122.7000;0.4819;1.3482;
-122.4000;0.4827;1.3529;
-122.1000;0.4851;1.3646;
-121.8000;0.4811;1.3623;
-121.5000;0.4811;1.3623;
-121.2000;0.4819;1.3787;
-120.9000;0.4827;1.3693;
-120.6000;0.4819;1.3623;
-120.3000;0.4835;1.3646;
-120.0000;0.4811;1.3599;
-119.7000;0.4835;1.3646;
-119.4000;0.4819;1.3669;
-119.1000;0.4794;1.3599;
-118.8000;0.4803;1.3599;
-118.5000;0.4843;1.3693;
-118.2000;0.4900;1.3810;
-117.9000;0.4843;1.3716;
-117.6000;0.4819;1.3740;
-117.3000;0.4843;1.3763;
-117.0000;0.4827;1.3787;
-116.7000;0.4835;1.3857;
-116.4000;0.4803;1.3693;
-116.1000;0.4811;1.3693;
-115.8000;0.4827;1.3810;
-115.5000;0.4827;1.3763;
-115.2000;0.4933;1.4092;
-114.9000;0.4819;1.3763;
-114.6000;0.4794;1.3740;
-114.3000;0.4811;1.3669;
-114.0000;0.4827;1.3716;
-113.7000;0.4819;1.3646;
-113.4000;0.4827;1.3623;
-113.1000;0.4737;1.3388;
-112.8000;0.4819;1.3576;
-112.5000;0.4811;1.3552;
-112.2000;0.4819;1.3529;
-111.9000;0.4827;1.3505;
-111.6000;0.4786;1.3505;
-111.3000;0.4827;1.3693;
-111.0000;0.4803;1.3763;
-110.7000;0.4851;1.3857;
-110.4000;0.4843;1.3857;
-110.1000;0.4819;1.3857;
-109.8000;0.4819;1.3787;
-109.5000;0.4819;1.3740;
-109.2000;0.4778;1.3669;
-108.9000;0.4819;1.3693;
-108.6000;0.4819;1.3669;
-108.3000;0.4811;1.3669;
-108.0000;0.4819;1.3669;
-107.7000;0.4762;1.3435;
-107.4000;0.4803;1.3599;
-107.1000;0.4835;1.3740;
-106.8000;0.4819;1.3693;
-106.5000;0.4778;1.3669;
-106.2000;0.4811;1.3763;
-105.9000;0.4811;1.3834;
-105.6000;0.4819;1.3810;
-105.3000;0.4803;1.3787;
-105.0000;0.4819;1.3810;
-104.7000;0.4819;1.3716;
-104.4000;0.4819;1.3669;
-104.1000;0.4835;1.3623;
-103.8000;0.4835;1.3576;
-103.5000;0.4827;1.3552;
-103.2000;0.4803;1.3576;
-102.9000;0.4827;1.3623;
-102.6000;0.4819;1.3529;
-102.3000;0.4819;1.3552;
-102.0000;0.4819;1.3482;
-101.7000;0.4819;1.3576;
-101.4000;0.4835;1.3599;
-101.1000;0.4827;1.3599;
-100.8000;0.4794;1.3576;
-100.5000;0.4819;1.3740;
-100.2000;0.4819;1.3810;
-99.9000;0.4811;1.3716;
-99.6000;0.4803;1.3693;
-99.3000;0.4851;1.3763;
-99.0000;0.4827;1.3693;
-98.7000;0.4827;1.3716;
-98.4000;0.4819;1.3716;
-98.1000;0.4803;1.3693;
-97.8000;0.4803;1.3693;
-97.5000;0.4835;1.3740;
-97.2000;0.4819;1.3646;
-96.9000;0.4819;1.3740;
-96.6000;0.4794;1.3763;
-96.3000;0.4827;1.3880;
-96.0000;0.4786;1.3834;
-95.7000;0.4803;1.3857;
-95.4000;0.4811;1.3834;
-95.1000;0.4803;1.3693;
-94.8000;0.4843;1.3740;
-94.5000;0.4803;1.3669;
-94.2000;0.4819;1.3623;
-93.9000;0.4803;1.3552;
-93.6000;0.4827;1.3552;
-93.3000;0.4819;1.3458;
-93.0000;0.4811;1.3435;
-92.7000;0.4868;1.3599;
-92.4000;0.4827;1.3529;
-92.1000;0.4803;1.3505;
-91.8000;0.4794;1.3482;
-91.5000;0.4819;1.3669;
-91.2000;0.4827;1.3669;
-90.9000;0.4827;1.3576;
-90.6000;0.4794;1.3529;
-90.3000;0.4835;1.3646;
-90.0000;0.4827;1.3693;
-89.7000;0.4827;1.3716;
-89.4000;0.4827;1.3740;
-89.1000;0.4827;1.3646;
-88.8000;0.4811;1.3669;
-88.5000;0.4835;1.3787;
-88.2000;0.4827;1.3646;
-87.9000;0.4803;1.3646;
-87.6000;0.4835;1.3787;
-87.3000;0.4843;1.3810;
-87.0000;0.4827;1.3787;
-86.7000;0.4811;1.3763;
-86.4000;0.4811;1.3880;
-86.1000;0.4819;1.3951;
-85.8000;0.4819;1.3904;
-85.5000;0.4786;1.3716;
-85.2000;0.4794;1.3669;
-84.9000;0.4843;1.3693;
-84.6000;0.4819;1.3716;
-84.3000;0.4827;1.3740;
-84.0000;0.4778;1.3599;
-83.7000;0.4794;1.3763;
-83.4000;0.4941;1.3998;
-83.1000;0.4827;1.3669;
-82.8000;0.4794;1.3716;
-82.5000;0.4819;1.3740;
-82.2000;0.4819;1.3693;
-81.9000;0.4843;1.3740;
-81.6000;0.4851;1.3740;
-81.3000;0.4835;1.3763;
-81.0000;0.4819;1.3669;
-80.7000;0.4819;1.3576;
-80.4000;0.4827;1.3599;
-80.1000;0.4811;1.3599;
-79.8000;0.4827;1.3646;
-79.5000;0.4827;1.3740;
-79.2000;0.4843;1.3740;
-78.9000;0.4835;1.3669;
-78.6000;0.4819;1.3740;
-78.3000;0.4803;1.3693;
-78.0000;0.4835;1.3740;
-77.7000;0.4811;1.3623;
-77.4000;0.4811;1.3693;
-77.1000;0.4819;1.3740;
-76.8000;0.4819;1.3740;
-76.5000;0.4827;1.3716;
-76.2000;0.4811;1.3646;
-75.9000;0.4746;1.3599;
-75.6000;0.4819;1.3810;
-75.3000;0.4819;1.3716;
-75.0000;0.4811;1.3763;
-74.7000;0.4811;1.3787;
-74.4000;0.4811;1.3693;
-74.1000;0.4827;1.3623;
-73.8000;0.4819;1.3623;
-73.5000;0.4803;1.3576;
-73.2000;0.4892;1.3740;
-72.9000;0.4835;1.3552;
-72.6000;0.4811;1.3482;
-72.3000;0.4835;1.3599;
-72.0000;0.4827;1.3576;
-71.7000;0.4819;1.3576;
-71.4000;0.4803;1.3599;
-71.1000;0.4827;1.3599;
-70.8000;0.4819;1.3552;
-70.5000;0.4835;1.3529;
-70.2000;0.4827;1.3505;
-69.9000;0.4803;1.3458;
-69.6000;0.4811;1.3458;
-69.3000;0.4819;1.3529;
-69.0000;0.4819;1.3482;
-68.7000;0.4786;1.3529;
-68.4000;0.4811;1.3576;
-68.1000;0.4819;1.3435;
-67.8000;0.4843;1.3435;
-67.5000;0.4746;1.3294;
-67.2000;0.4803;1.3482;
-66.9000;0.4819;1.3505;
-66.6000;0.4827;1.3576;
-66.3000;0.4925;1.3810;
-66.0000;0.4811;1.3529;
-65.7000;0.4819;1.3458;
-65.4000;0.4827;1.3435;
-65.1000;0.4835;1.3552;
-64.8000;0.4819;1.3505;
-64.5000;0.4794;1.3505;
-64.2000;0.4811;1.3505;
-63.9000;0.4868;1.3740;
-63.6000;0.4811;1.3599;
-63.3000;0.4803;1.3505;
-63.0000;0.4835;1.3435;
-62.7000;0.4876;1.3623;
-62.4000;0.4843;1.3599;
-62.1000;0.4811;1.3458;
-61.8000;0.4811;1.3435;
-61.5000;0.4819;1.3458;
-61.2000;0.4819;1.3412;
-60.9000;0.4819;1.3435;
-60.6000;0.4811;1.3529;
-60.3000;0.4811;1.3505;
-60.0000;0.4835;1.3552;
-59.7000;0.4827;1.3576;
-59.4000;0.4737;1.3412;
-59.1000;0.4835;1.3646;
-58.8000;0.4819;1.3669;
-58.5000;0.4786;1.3482;
-58.2000;0.4819;1.3529;
-57.9000;0.4786;1.3435;
-57.6000;0.4827;1.3529;
-57.3000;0.4835;1.3552;
-57.0000;0.4835;1.3552;
-56.7000;0.4819;1.3505;
-56.4000;0.4835;1.3599;
-56.1000;0.4811;1.3552;
-55.8000;0.4843;1.3623;
-55.5000;0.4811;1.3552;
-55.2000;0.4827;1.3646;
-54.9000;0.4827;1.3646;
-54.6000;0.4827;1.3623;
-54.3000;0.4778;1.3576;
-54.0000;0.4868;1.3787;
-53.7000;0.4811;1.3646;
-53.4000;0.4827;1.3740;
-53.1000;0.4827;1.3763;
-52.8000;0.4811;1.3716;
-52.5000;0.4835;1.3810;
-52.2000;0.4835;1.3927;
-51.9000;0.4835;1.3880;
-51.6000;0.4819;1.3857;
-51.3000;0.4860;1.3834;
-51.0000;0.4786;1.3576;
-50.7000;0.4819;1.3623;
-50.4000;0.4819;1.3623;
-50.1000;0.4819;1.3623;
-49.8000;0.4811;1.3576;
-49.5000;0.4811;1.3623;
-49.2000;0.4811;1.3552;
-48.9000;0.4803;1.3552;
-48.6000;0.4811;1.3529;
-48.3000;0.4827;1.3623;
-48.0000;0.4721;1.3318;
-47.7000;0.4811;1.3576;
-47.4000;0.4827;1.3623;
-47.1000;0.4819;1.3693;
-46.8000;0.4827;1.3669;
-46.5000;0.4827;1.3646;
-46.2000;0.4827;1.3693;
-45.9000;0.4827;1.3623;
-45.6000;0.4811;1.3505;
-45.3000;0.4835;1.3552;
-45.0000;0.4811;1.3576;
-44.7000;0.4827;1.3669;
-44.4000;0.4819;1.3623;
-44.1000;0.4827;1.3623;
-43.8000;0.4811;1.3646;
-43.5000;0.4803;1.3716;
-43.2000;0.4811;1.3740;
-42.9000;0.4827;1.3834;
-42.6000;0.4803;1.3716;
-42.3000;0.4819;1.3787;
-42.0000;0.4819;1.3693;
-41.7000;0.4803;1.3669;
-41.4000;0.4794;1.3763;
-41.1000;0.4811;1.3810;
-40.8000;0.4811;1.3787;
-40.5000;0.4860;1.3904;
-40.2000;0.4819;1.3834;
-39.9000;0.4811;1.3834;
-39.6000;0.4819;1.3763;
-39.3000;0.4835;1.3763;
-39.0000;0.4835;1.3810;
-38.7000;0.4827;1.3834;
-38.4000;0.4827;1.3834;
-38.1000;0.4819;1.3716;
-37.8000;0.4794;1.3716;
-37.5000;0.4851;1.3927;
-37.2000;0.4786;1.3740;
-36.9000;0.4803;1.3740;
-36.6000;0.4819;1.3763;
-36.3000;0.4794;1.3740;
-36.0000;0.4819;1.3787;
-35.7000;0.4835;1.3810;
-35.4000;0.4900;1.3974;
-35.1000;0.4827;1.3787;
-34.8000;0.4803;1.3693;
-34.5000;0.4843;1.3740;
-34.2000;0.4835;1.3599;
-33.9000;0.4835;1.3552;
-33.6000;0.4819;1.3435;
-33.3000;0.4860;1.3646;
-33.0000;0.4835;1.3599;
-32.7000;0.4729;1.3388;
-32.4000;0.4811;1.3529;
-32.1000;0.4819;1.3505;
-31.8000;0.4835;1.3529;
-31.5000;0.4819;1.3576;
-31.2000;0.4811;1.3505;
-30.9000;0.4819;1.3458;
-30.6000;0.4819;1.3505;
-30.3000;0.4827;1.3552;
-30.0000;0.4803;1.3529;
-29.7000;0.4803;1.3482;
-29.4000;0.4843;1.3623;
-29.1000;0.4835;1.3623;
-28.8000;0.4819;1.3623;
-28.5000;0.4803;1.3599;
-28.2000;0.4786;1.3482;
-27.9000;0.4835;1.3552;
-27.6000;0.4827;1.3552;
-27.3000;0.4811;1.3505;
-27.0000;0.4786;1.3365;
-26.7000;0.4933;1.3763;
-26.4000;0.4827;1.3458;
-26.1000;0.4827;1.3412;
-25.8000;0.4827;1.3458;
-25.5000;0.4819;1.3482;
-25.2000;0.4778;1.3412;
-24.9000;0.4835;1.3529;
-24.6000;0.4803;1.3482;
-24.3000;0.4876;1.3669;
-24.0000;0.4786;1.3552;
-23.7000;0.4835;1.3646;
-23.4000;0.4835;1.3623;
-23.1000;0.4860;1.3693;
-22.8000;0.4819;1.3599;
-22.5000;0.4786;1.3458;
-22.2000;0.4803;1.3482;
-21.9000;0.4803;1.3458;
-21.6000;0.4827;1.3529;
-21.3000;0.4819;1.3552;
-21.0000;0.4843;1.3576;
-20.7000;0.4843;1.3623;
-20.4000;0.4827;1.3599;
-20.1000;0.4827;1.3599;
-19.8000;0.4794;1.3576;
-19.5000;0.4900;1.3810;
-19.2000;0.4827;1.3576;
-18.9000;0.4851;1.3693;
-18.6000;0.4811;1.3576;
-18.3000;0.4941;1.3904;
-18.0000;0.4819;1.3646;
-17.7000;0.4794;1.3623;
-17.4000;0.4811;1.3693;
-17.1000;0.4827;1.3763;
-16.8000;0.4803;1.3716;
-16.5000;0.4811;1.3787;
-16.2000;0.4819;1.3763;
-15.9000;0.4803;1.3740;
-15.6000;0.4811;1.3740;
-15.3000;0.4819;1.3787;
-15.0000;0.4778;1.3552;
-14.7000;0.4819;1.3716;
-14.4000;0.4811;1.3716;
-14.1000;0.4819;1.3646;
-13.8000;0.4819;1.3623;
-13.5000;0.4876;1.3810;
-13.2000;0.4811;1.3646;
-12.9000;0.4803;1.3646;
-12.6000;0.4827;1.3693;
-12.3000;0.4819;1.3623;
-12.0000;0.4811;1.3552;
-11.7000;0.4713;1.3318;
-11.4000;0.4811;1.3623;
-11.1000;0.4843;1.3740;
-10.8000;0.4827;1.3693;
-10.5000;0.4811;1.3693;
-10.2000;0.4819;1.3669;
-9.9000;0.4819;1.3669;
-9.6000;0.4892;1.3951;
-9.3000;0.4827;1.3763;
-9.0000;0.4819;1.3740;
-8.7000;0.4827;1.3693;
-8.4000;0.4819;1.3716;
-8.1000;0.4811;1.3740;
-7.8000;0.4835;1.3763;
-7.5000;0.4819;1.3576;
-7.2000;0.4794;1.3552;
-6.9000;0.4819;1.3599;
-6.6000;0.4860;1.3669;
-6.3000;0.4835;1.3576;
-6.0000;0.4803;1.3552;
-5.7000;0.4827;1.3576;
-5.4000;0.4811;1.3482;
-5.1000;0.4794;1.3388;
-4.8000;0.4803;1.3341;
-4.5000;0.4811;1.3365;
-4.2000;0.4876;1.3552;
-3.9000;0.4803;1.3482;
-3.6000;0.4843;1.3599;
-3.3000;0.4819;1.3623;
-3.0000;0.4803;1.3623;
-2.7000;0.4819;1.3623;
-2.4000;0.4811;1.3576;
-2.1000;0.4803;1.3576;
-1.8000;0.4819;1.3576;
-1.5000;0.4811;1.3505;
-1.2000;0.4811;1.3529;
-0.9000;0.4794;1.3458;
-0.6000;0.4819;1.3505;
-0.3000;0.4811;1.3505;
0.0000;0.4811;1.3505;
0.3000;0.4974;1.3482;
0.6000;0.5218;1.4021;
0.9000;0.5381;1.4373;
1.2000;0.5486;1.4654;
1.5000;0.5665;1.5194;
1.8000;0.5812;1.5475;
2.1000;0.5845;1.5498;
2.4000;0.5836;1.5545;
2.7000;0.5983;1.6061;
3.0000;0.5983;1.6061;
3.3000;0.6024;1.6131;
3.6000;0.6064;1.6295;
3.9000;0.6113;1.6413;
4.2000;0.6138;1.6460;
4.5000;0.6170;1.6507;
4.8000;0.6162;1.6553;
5.1000;0.6186;1.6624;
5.4000;0.6235;1.6764;
5.7000;0.6227;1.6741;
6.0000;0.6252;1.6835;
6.3000;0.6268;1.6835;
6.6000;0.6276;1.6788;
6.9000;0.6317;1.6788;
7.2000;0.6300;1.6718;
7.5000;0.6276;1.6624;
7.8000;0.6365;1.6741;
8.1000;0.6382;1.6811;
8.4000;0.6390;1.6882;
8.7000;0.6390;1.6764;
9.0000;0.6406;1.6718;
9.3000;0.6398;1.6647;
9.6000;0.6431;1.6741;
9.9000;0.6414;1.6741;
10.2000;0.6439;1.6741;
10.5000;0.6479;1.6835;
10.8000;0.6463;1.6647;
11.1000;0.6471;1.6600;
11.4000;0.6479;1.6694;
11.7000;0.6455;1.6694;
12.0000;0.6488;1.6764;
12.3000;0.6488;1.6764;
12.6000;0.6504;1.6764;
12.9000;0.6520;1.6741;
13.2000;0.6577;1.6858;
13.5000;0.6610;1.6975;
13.8000;0.6528;1.6671;
14.1000;0.6528;1.6671;
14.4000;0.6545;1.6671;
14.7000;0.6553;1.6718;
15.0000;0.6553;1.6764;
15.3000;0.6528;1.6647;
15.6000;0.6553;1.6671;
15.9000;0.6561;1.6647;
16.2000;0.6561;1.6811;
16.5000;0.6569;1.6858;
16.8000;0.6593;1.6835;
17.1000;0.6585;1.6858;
17.4000;0.6577;1.6788;
17.7000;0.6691;1.7022;
18.0000;0.6610;1.6764;
18.3000;0.6602;1.6694;
18.6000;0.6577;1.6718;
18.9000;0.6593;1.6718;
19.2000;0.6602;1.6718;
19.5000;0.6634;1.6811;
19.8000;0.6618;1.6811;
20.1000;0.6618;1.6811;
20.4000;0.6610;1.6858;
20.7000;0.6650;1.6882;
21.0000;0.6634;1.6905;
21.3000;0.6610;1.6811;
21.6000;0.6618;1.6764;
21.9000;0.6642;1.6718;
22.2000;0.6642;1.6647;
22.5000;0.6650;1.6694;
22.8000;0.6642;1.6694;
23.1000;0.6650;1.6764;
23.4000;0.6659;1.6835;
23.7000;0.6675;1.6975;
24.0000;0.6667;1.6929;
24.3000;0.6659;1.6835;
24.6000;0.6642;1.6694;
24.9000;0.6699;1.6811;
25.2000;0.6683;1.6811;
25.5000;0.6707;1.6858;
25.8000;0.6634;1.6764;
26.1000;0.6691;1.6929;
26.4000;0.6740;1.7022;
26.7000;0.6691;1.6975;
27.0000;0.6675;1.6975;
27.3000;0.6699;1.6975;
27.6000;0.6805;1.7233;
27.9000;0.6667;1.6882;
28.2000;0.6707;1.6905;
28.5000;0.6707;1.6952;
28.8000;0.6716;1.7022;
29.1000;0.6716;1.6975;
29.4000;0.6707;1.6929;
29.7000;0.6732;1.6952;
30.0000;0.6716;1.6835;
30.3000;0.6716;1.6905;
30.6000;0.6716;1.6858;
30.9000;0.6707;1.6858;
31.2000;0.6772;1.7140;
31.5000;0.6732;1.7233;
31.8000;0.6716;1.7257;
32.1000;0.6716;1.7163;
32.4000;0.6724;1.7280;
32.7000;0.6748;1.7233;
33.0000;0.6724;1.7163;
33.3000;0.6716;1.7069;
33.6000;0.6699;1.6905;
33.9000;0.6740;1.6929;
34.2000;0.6740;1.6835;
34.5000;0.6748;1.6811;
34.8000;0.6724;1.6741;
35.1000;0.6740;1.6811;
35.4000;0.6748;1.6858;
35.7000;0.6732;1.6882;
36.0000;0.6732;1.6975;
36.3000;0.6716;1.6929;
36.6000;0.6724;1.6952;
36.9000;0.6740;1.6858;
37.2000;0.6732;1.6858;
37.5000;0.6740;1.6811;
37.8000;0.6740;1.6764;
38.1000;0.6732;1.6788;
38.4000;0.6740;1.6905;
38.7000;0.6740;1.6811;
39.0000;0.6740;1.6858;
39.3000;0.6748;1.6952;
39.6000;0.6724;1.6975;
39.9000;0.6732;1.6999;
40.2000;0.6740;1.7022;
40.5000;0.6756;1.7093;
40.8000;0.6740;1.7116;
41.1000;0.6748;1.7186;
41.4000;0.6748;1.7163;
41.7000;0.6805;1.7233;
42.0000;0.6748;1.7140;
42.3000;0.6740;1.7046;
42.6000;0.6740;1.6975;
42.9000;0.6756;1.6905;
43.2000;0.6756;1.6882;
43.5000;0.6748;1.6905;
43.8000;0.6748;1.6929;
44.1000;0.6764;1.6999;
44.4000;0.6724;1.6905;
44.7000;0.6772;1.6999;
45.0000;0.6756;1.6975;
45.3000;0.6764;1.6952;
45.6000;0.6764;1.6999;
45.9000;0.6756;1.6999;
46.2000;0.6772;1.7069;
46.5000;0.6772;1.7046;
46.8000;0.6756;1.7046;
47.1000;0.6764;1.7069;
47.4000;0.6764;1.6999;
47.7000;0.6805;1.7046;
48.0000;0.6772;1.7022;
48.3000;0.6797;1.7069;
48.6000;0.6756;1.6929;
48.9000;0.6797;1.6952;
49.2000;0.6716;1.6835;
49.5000;0.6772;1.6882;
49.8000;0.6724;1.6718;
50.1000;0.6764;1.6858;
50.4000;0.6886;1.7093;
50.7000;0.6716;1.6694;
51.0000;0.6789;1.6952;
51.3000;0.6764;1.6952;
51.6000;0.6772;1.6975;
51.9000;0.6772;1.6952;
52.2000;0.6748;1.6905;
52.5000;0.6772;1.6905;
52.8000;0.6756;1.6882;
53.1000;0.6789;1.6999;
53.4000;0.6781;1.6952;
53.7000;0.6756;1.6858;
54.0000;0.6781;1.6858;
54.3000;0.6781;1.6835;
54.6000;0.6691;1.6647;
54.9000;0.6789;1.6929;
55.2000;0.6772;1.6882;
55.5000;0.6781;1.6905;
55.8000;0.6789;1.6929;
56.1000;0.6805;1.6975;
56.4000;0.6789;1.6999;
56.7000;0.6797;1.7116;
57.0000;0.6789;1.7046;
57.3000;0.6789;1.6999;
57.6000;0.6764;1.6905;
57.9000;0.6772;1.6905;
58.2000;0.6748;1.6952;
58.5000;0.6789;1.6929;
58.8000;0.6789;1.6882;
59.1000;0.6764;1.6905;
59.4000;0.6838;1.6999;
59.7000;0.6748;1.6788;
60.0000;0.6781;1.6741;
60.3000;0.6781;1.6741;
60.6000;0.6781;1.6741;
60.9000;0.6781;1.6718;
61.2000;0.6772;1.6694;
61.5000;0.6789;1.6718;
61.8000;0.6797;1.6764;
62.1000;0.6789;1.6764;
62.4000;0.6797;1.6788;
62.7000;0.6789;1.6811;
63.0000;0.6772;1.6694;
63.3000;0.6699;1.6553;
63.6000;0.6797;1.6905;
63.9000;0.6813;1.6905;
64.2000;0.6781;1.6811;
64.5000;0.6789;1.6835;
64.8000;0.6781;1.6788;
65.1000;0.6789;1.6811;
65.4000;0.6772;1.6788;
65.7000;0.6772;1.6788;
66.0000;0.6805;1.6882;
66.3000;0.6797;1.6835;
66.6000;0.6789;1.6764;
66.9000;0.6789;1.6882;
67.2000;0.6772;1.6905;
67.5000;0.6789;1.6882;
67.8000;0.6764;1.6858;
68.1000;0.6789;1.6858;
68.4000;0.6772;1.6788;
68.7000;0.6789;1.6811;
69.0000;0.6716;1.6647;
69.3000;0.6756;1.6858;
69.6000;0.6764;1.6835;
69.9000;0.6886;1.7069;
70.2000;0.6797;1.6882;
70.5000;0.6781;1.6835;
70.8000;0.6781;1.6811;
71.1000;0.6789;1.6835;
71.4000;0.6772;1.6835;
71.7000;0.6740;1.6671;
72.0000;0.6772;1.6764;
72.3000;0.6716;1.6647;
72.6000;0.6789;1.6835;
72.9000;0.6781;1.6788;
73.2000;0.6789;1.6905;
73.5000;0.6781;1.6929;
73.8000;0.6764;1.6929;
74.1000;0.6797;1.7046;
74.4000;0.6781;1.6905;
74.7000;0.6805;1.6975;
75.0000;0.6789;1.6975;
75.3000;0.6797;1.6975;
75.6000;0.6732;1.6811;
75.9000;0.6789;1.6929;
76.2000;0.6797;1.6952;
76.5000;0.6813;1.6905;
76.8000;0.6813;1.6905;
77.1000;0.6797;1.6811;
77.4000;0.6821;1.6905;
77.7000;0.6813;1.6764;
78.0000;0.6740;1.6600;
78.3000;0.6797;1.6741;
78.6000;0.6813;1.6835;
78.9000;0.6805;1.6835;
79.2000;0.6805;1.6858;
79.5000;0.6797;1.6741;
79.8000;0.6805;1.6764;
80.1000;0.6805;1.6764;
80.4000;0.6838;1.6858;
80.7000;0.6789;1.6788;
81.0000;0.6797;1.6741;
81.3000;0.6821;1.6764;
81.6000;0.6789;1.6694;
81.9000;0.6789;1.6718;
82.2000;0.6829;1.6764;
82.5000;0.6781;1.6624;
82.8000;0.6789;1.6624;
83.1000;0.6797;1.6647;
83.4000;0.6797;1.6694;
83.7000;0.6846;1.6764;
84.0000;0.6772;1.6624;
84.3000;0.6846;1.6671;
84.6000;0.6781;1.6483;
84.9000;0.6764;1.6483;
85.2000;0.6805;1.6600;
85.5000;0.6781;1.6577;
85.8000;0.6781;1.6553;
86.1000;0.6764;1.6483;
86.4000;0.6764;1.6460;
86.7000;0.6805;1.6553;
87.0000;0.6797;1.6530;
87.3000;0.6781;1.6553;
87.6000;0.6781;1.6507;
87.9000;0.6805;1.6460;
88.2000;0.6813;1.6460;
88.5000;0.6805;1.6600;
88.8000;0.6805;1.6671;
89.1000;0.6813;1.6553;
89.4000;0.6805;1.6671;
89.7000;0.6797;1.6671;
90.0000;0.6756;1.6553;
90.3000;0.6813;1.6694;
90.6000;0.6805;1.6718;
90.9000;0.6797;1.6718;
91.2000;0.6789;1.6671;
91.5000;0.6789;1.6600;
91.8000;0.6846;1.6741;
92.1000;0.6789;1.6530;
92.4000;0.6797;1.6577;
92.7000;0.6789;1.6577;
93.0000;0.6781;1.6460;
93.3000;0.6805;1.6553;
93.6000;0.6772;1.6413;
93.9000;0.6805;1.6483;
94.2000;0.6781;1.6413;
94.5000;0.6797;1.6436;
94.8000;0.6813;1.6389;
95.1000;0.6756;1.6272;
95.4000;0.6797;1.6389;
95.7000;0.6797;1.6389;
96.0000;0.6732;1.6366;
96.3000;0.6797;1.6460;
96.6000;0.6772;1.6366;
96.9000;0.6805;1.6389;
97.2000;0.6829;1.6530;
97.5000;0.6781;1.6413;
97.8000;0.6781;1.6319;
98.1000;0.6772;1.6272;
98.4000;0.6813;1.6436;
98.7000;0.6805;1.6460;
99.0000;0.6789;1.6460;
99.3000;0.6805;1.6436;
99.6000;0.6732;1.6202;
99.9000;0.6789;1.6460;
100.2000;0.6797;1.6436;
100.5000;0.6813;1.6436;
100.8000;0.6797;1.6483;
101.1000;0.6789;1.6413;
101.4000;0.6789;1.6413;
101.7000;0.6797;1.6507;
102.0000;0.6789;1.6483;
102.3000;0.6781;1.6366;
102.6000;0.6797;1.6366;
102.9000;0.6797;1.6295;
103.2000;0.6797;1.6319;
103.5000;0.6781;1.6342;
103.8000;0.6805;1.6389;
104.1000;0.6772;1.6295;
104.4000;0.6821;1.6342;
104.7000;0.6707;1.6038;
105.0000;0.6805;1.6178;
105.3000;0.6789;1.6202;
105.6000;0.6805;1.6389;
105.9000;0.6797;1.6342;
106.2000;0.6870;1.6553;
106.5000;0.6854;1.6624;
106.8000;0.6789;1.6413;
107.1000;0.6797;1.6483;
107.4000;0.6797;1.6483;
107.7000;0.6821;1.6530;
108.0000;0.6821;1.6507;
108.3000;0.6805;1.6530;
108.6000;0.6805;1.6507;
108.9000;0.6805;1.6483;
109.2000;0.6797;1.6483;
109.5000;0.6781;1.6530;
109.8000;0.6781;1.6483;
110.1000;0.6797;1.6530;
110.4000;0.6797;1.6460;
110.7000;0.6805;1.6436;
111.0000;0.6813;1.6460;
111.3000;0.6813;1.6436;
111.6000;0.6821;1.6483;
111.9000;0.6789;1.6413;
112.2000;0.6813;1.6483;
112.5000;0.6813;1.6553;
112.8000;0.6813;1.6530;
113.1000;0.6781;1.6436;
113.4000;0.6789;1.6507;
113.7000;0.6797;1.6483;
114.0000;0.6789;1.6530;
114.3000;0.6813;1.6483;
114.6000;0.6781;1.6413;
114.9000;0.6805;1.6413;
115.2000;0.6821;1.6483;
115.5000;0.6813;1.6483;
115.8000;0.6854;1.6600;
116.1000;0.6805;1.6553;
116.4000;0.6797;1.6600;
116.7000;0.6821;1.6577;
117.0000;0.6789;1.6483;
117.3000;0.6821;1.6436;
117.6000;0.6789;1.6436;
117.9000;0.6781;1.6342;
118.2000;0.6797;1.6225;
118.5000;0.6854;1.6342;
118.8000;0.6854;1.6295;
119.1000;0.6838;1.6108;
119.4000;0.6805;1.6108;
119.7000;0.6805;1.6108;
120.0000;0.6797;1.6225;
120.3000;0.6821;1.6319;
120.6000;0.6797;1.6249;
120.9000;0.6854;1.6413;
121.2000;0.6781;1.6342;
121.5000;0.6797;1.6507;
121.8000;0.6829;1.6577;
122.1000;0.6789;1.6413;
122.4000;0.6748;1.6366;
122.7000;0.6821;1.6436;
123.0000;0.6846;1.6507;
123.3000;0.6781;1.6272;
123.6000;0.6797;1.6249;
123.9000;0.6797;1.6155;
124.2000;0.6797;1.6249;
124.5000;0.6781;1.6225;
124.8000;0.6789;1.6272;
125.1000;0.6789;1.6272;
125.4000;0.6797;1.6295;
125.7000;0.6797;1.6202;
126.0000;0.6797;1.6155;
126.3000;0.6797;1.6155;
126.6000;0.6829;1.6295;
126.9000;0.6813;1.6249;
127.2000;0.6805;1.6178;
127.5000;0.6797;1.6108;
127.8000;0.6854;1.6319;
128.1000;0.6805;1.6178;
128.4000;0.6805;1.6225;
128.7000;0.6789;1.6178;
129.0000;0.6789;1.6249;
129.3000;0.6805;1.6366;
129.6000;0.6797;1.6389;
129.9000;0.6797;1.6319;
130.2000;0.6797;1.6342;
130.5000;0.6772;1.6202;
130.8000;0.6797;1.6202;
131.1000;0.6756;1.6155;
131.4000;0.6789;1.6202;
131.7000;0.6797;1.6319;
132.0000;0.6821;1.6319;
132.3000;0.6805;1.6272;
132.6000;0.6797;1.6225;
132.9000;0.6813;1.6319;
133.2000;0.6805;1.6366;
133.5000;0.6805;1.6460;
133.8000;0.6797;1.6366;
134.1000;0.6805;1.6413;
134.4000;0.6797;1.6436;
134.7000;0.6781;1.6366;
135.0000;0.6797;1.6413;
135.3000;0.6797;1.6319;
135.6000;0.6813;1.6295;
135.9000;0.6797;1.6272;
136.2000;0.6813;1.6272;
136.5000;0.6821;1.6319;
136.8000;0.6797;1.6319;
137.1000;0.6813;1.6389;
137.4000;0.6813;1.6389;
137.7000;0.6878;1.6577;
138.0000;0.6813;1.6366;
138.3000;0.6829;1.6483;
138.6000;0.6797;1.6553;
138.9000;0.6789;1.6647;
139.2000;0.6789;1.6671;
139.5000;0.6813;1.6694;
139.8000;0.6805;1.6694;
140.1000;0.6805;1.6647;
140.4000;0.6756;1.6553;
140.7000;0.6797;1.6600;
141.0000;0.6813;1.6694;
141.3000;0.6821;1.6741;
141.6000;0.6797;1.6694;
141.9000;0.6821;1.6671;
142.2000;0.6870;1.6764;
142.5000;0.6805;1.6530;
142.8000;0.6829;1.6577;
143.1000;0.6813;1.6530;
143.4000;0.6813;1.6483;
143.7000;0.6821;1.6553;
144.0000;0.6797;1.6577;
144.3000;0.6805;1.6624;
144.6000;0.6797;1.6530;
144.9000;0.6805;1.6413;
145.2000;0.6772;1.6413;
145.5000;0.6781;1.6507;
145.8000;0.6805;1.6530;
146.1000;0.6846;1.6600;
146.4000;0.6805;1.6460;
146.7000;0.6805;1.6436;
147.0000;0.6805;1.6389;
147.3000;0.6813;1.6366;
147.6000;0.6797;1.6366;
147.9000;0.6789;1.6460;
148.2000;0.6805;1.6624;
148.5000;0.6821;1.6671;
148.8000;0.6813;1.6553;
149.1000;0.6797;1.6483;
149.4000;0.6797;1.6507;
149.7000;0.6805;1.6460;
150.0000;0.6789;1.6272;
150.3000;0.6805;1.6319;
150.6000;0.6797;1.6272;
150.9000;0.6797;1.6436;
151.2000;0.6813;1.6507;
151.5000;0.6797;1.6507;
151.8000;0.6805;1.6577;
152.1000;0.6797;1.6530;
152.4000;0.6797;1.6483;
152.7000;0.6821;1.6483;
153.0000;0.6821;1.6460;
153.3000;0.6789;1.6436;
153.6000;0.6821;1.6483;
153.9000;0.6829;1.6600;
154.2000;0.6797;1.6647;
154.5000;0.6805;1.6741;
154.8000;0.6797;1.6741;
155.1000;0.6797;1.6718;
155.4000;0.6781;1.6647;
155.7000;0.6789;1.6600;
156.0000;0.6797;1.6577;
156.3000;0.6813;1.6647;
156.6000;0.6789;1.6507;
156.9000;0.6789;1.6577;
157.2000;0.6805;1.6553;
157.5000;0.6797;1.6553;
157.8000;0.6797;1.6577;
158.1000;0.6805;1.6624;
158.4000;0.6805;1.6694;
158.7000;0.6821;1.6764;
159.0000;0.6829;1.6811;
159.3000;0.6813;1.6905;
159.6000;0.6813;1.6905;
159.9000;0.6821;1.6811;
160.2000;0.6821;1.6694;
160.5000;0.6805;1.6671;
160.8000;0.6813;1.6647;
161.1000;0.6813;1.6694;
161.4000;0.6805;1.6764;
161.7000;0.6813;1.6741;
162.0000;0.6797;1.6741;
162.3000;0.6838;1.6858;
162.6000;0.6797;1.6694;
162.9000;0.6797;1.6718;
163.2000;0.6789;1.6835;
163.5000;0.6805;1.6905;
163.8000;0.6805;1.6905;
164.1000;0.6805;1.6975;
164.4000;0.6813;1.7022;
164.7000;0.6797;1.6999;
165.0000;0.6797;1.6999;
165.3000;0.6781;1.6952;
165.6000;0.6805;1.6999;
165.9000;0.6781;1.6882;
166.2000;0.6789;1.6788;
166.5000;0.6789;1.6718;
166.8000;0.6789;1.6694;
167.1000;0.6805;1.6624;
167.4000;0.6789;1.6600;
167.7000;0.6805;1.6694;
168.0000;0.6854;1.6835;
168.3000;0.6781;1.6718;
168.6000;0.6707;1.6553;
168.9000;0.6805;1.6788;
169.2000;0.6805;1.6882;
169.5000;0.6805;1.6882;
169.8000;0.6805;1.6905;
170.1000;0.6813;1.6811;
170.4000;0.6805;1.6741;
170.7000;0.6813;1.6788;
171.0000;0.6789;1.6741;
171.3000;0.6789;1.6694;
171.6000;0.6797;1.6718;
171.9000;0.6829;1.6741;
172.2000;0.6805;1.6694;
172.5000;0.6813;1.6577;
172.8000;0.6805;1.6553;
173.1000;0.6821;1.6483;
173.4000;0.6813;1.6460;
173.7000;0.6797;1.6413;
174.0000;0.6797;1.6436;
174.3000;0.6813;1.6553;
174.6000;0.6805;1.6530;
174.9000;0.6805;1.6553;
175.2000;0.6789;1.6460;
175.5000;0.6805;1.6483;
175.8000;0.6797;1.6600;
176.1000;0.6797;1.6600;
176.4000;0.6797;1.6718;
176.7000;0.6772;1.6647;
177.0000;0.6805;1.6694;
177.3000;0.6813;1.6694;
177.6000;0.6789;1.6718;
177.9000;0.6781;1.6835;
178.2000;0.6797;1.6882;
178.5000;0.6805;1.6858;
178.8000;0.6805;1.6882;
179.1000;0.6797;1.6718;
179.4000;0.6805;1.6671;
179.7000;0.6829;1.6741;
180.0000;0.6821;1.6741;
180.3000;0.6805;1.6647;
180.6000;0.6813;1.6764;
180.9000;0.6805;1.6718;
181.2000;0.6797;1.6577;
181.5000;0.6797;1.6577;
181.8000;0.6797;1.6577;
182.1000;0.6813;1.6530;
182.4000;0.6797;1.6460;
182.7000;0.6821;1.6530;
183.0000;0.6805;1.6507;
183.3000;0.6813;1.6530;
183.6000;0.6789;1.6553;
183.9000;0.6805;1.6647;
184.2000;0.6846;1.6741;
184.5000;0.6797;1.6600;
184.8000;0.6813;1.6718;
185.1000;0.6821;1.6788;
185.4000;0.6813;1.6858;
185.7000;0.6797;1.6718;
186.0000;0.6821;1.6671;
186.3000;0.6797;1.6647;
186.6000;0.6789;1.6741;
186.9000;0.6789;1.6788;
187.2000;0.6797;1.6764;
187.5000;0.6813;1.6741;
187.8000;0.6805;1.6788;
188.1000;0.6756;1.6741;
188.4000;0.6772;1.6741;
188.7000;0.6789;1.6788;
189.0000;0.6805;1.6811;
189.3000;0.6797;1.6858;
189.6000;0.6805;1.6905;
189.9000;0.6813;1.6882;
190.2000;0.6813;1.6905;
190.5000;0.6919;1.7257;
190.8000;0.6813;1.6975;
191.1000;0.6805;1.6905;
191.4000;0.6813;1.6835;
191.7000;0.6789;1.6741;
192.0000;0.6813;1.6694;
192.3000;0.6838;1.6694;
192.6000;0.6854;1.6741;
192.9000;0.6797;1.6577;
193.2000;0.6797;1.6577;
193.5000;0.6813;1.6694;
193.8000;0.6805;1.6764;
194.1000;0.6813;1.6835;
194.4000;0.6797;1.6835;
194.7000;0.6789;1.6764;
195.0000;0.6805;1.6811;
195.3000;0.6805;1.6764;
195.6000;0.6813;1.6718;
195.9000;0.6813;1.6624;
196.2000;0.6813;1.6553;
196.5000;0.6813;1.6553;
196.8000;0.6821;1.6553;
197.1000;0.6805;1.6553;
197.4000;0.6805;1.6553;
197.7000;0.6805;1.6507;
198.0000;0.6813;1.6553;
198.3000;0.6797;1.6483;
198.6000;0.6821;1.6530;
198.9000;0.6789;1.6577;
199.2000;0.6789;1.6530;
199.5000;0.6781;1.6507;
199.8000;0.6789;1.6553;
200.1000;0.6805;1.6600;
200.4000;0.6813;1.6577;
200.7000;0.6772;1.6507;
201.0000;0.6805;1.6624;
201.3000;0.6805;1.6694;
201.6000;0.6772;1.6600;
201.9000;0.6805;1.6624;
202.2000;0.6813;1.6694;
202.5000;0.6838;1.6741;
202.8000;0.6813;1.6741;
203.1000;0.6805;1.6741;
203.4000;0.6781;1.6694;
203.7000;0.6764;1.6647;
204.0000;0.6797;1.6671;
204.3000;0.6805;1.6600;
204.6000;0.6813;1.6553;
204.9000;0.6781;1.6483;
205.2000;0.6805;1.6577;
205.5000;0.6813;1.6600;
205.8000;0.6797;1.6624;
206.1000;0.6781;1.6647;
206.4000;0.6813;1.6647;
206.7000;0.6813;1.6647;
207.0000;0.6821;1.6718;
207.3000;0.6789;1.6600;
207.6000;0.6797;1.6624;
207.9000;0.6821;1.6764;
208.2000;0.6821;1.6835;
208.5000;0.6789;1.6718;
208.8000;0.6805;1.6741;
209.1000;0.6805;1.6741;
209.4000;0.6797;1.6718;
209.7000;0.6789;1.6741;
210.0000;0.6789;1.6741;
210.3000;0.6789;1.6764;
210.6000;0.6797;1.6788;
210.9000;0.6789;1.6788;
211.2000;0.6683;1.6530;
211.5000;0.6813;1.6858;
211.8000;0.6829;1.6835;
212.1000;0.6813;1.6764;
212.4000;0.6764;1.6718;
212.7000;0.6805;1.6741;
213.0000;0.6813;1.6694;
213.3000;0.6764;1.6577;
213.6000;0.6805;1.6647;
213.9000;0.6732;1.6507;
214.2000;0.6789;1.6694;
214.5000;0.6805;1.6718;
214.8000;0.6789;1.6647;
215.1000;0.6797;1.6553;
215.4000;0.6781;1.6507;
215.7000;0.6732;1.6413;
216.0000;0.6805;1.6600;
216.3000;0.6789;1.6553;
216.6000;0.6813;1.6553;
216.9000;0.6797;1.6577;
217.2000;0.6797;1.6647;
217.5000;0.6813;1.6671;
217.8000;0.6789;1.6553;
218.1000;0.6805;1.6600;
218.4000;0.6805;1.6577;
218.7000;0.6805;1.6600;
219.0000;0.6781;1.6624;
219.3000;0.6789;1.6694;
219.6000;0.6813;1.6788;
219.9000;0.6789;1.6811;
220.2000;0.6805;1.6835;
220.5000;0.6789;1.6858;
220.8000;0.6805;1.6835;
221.1000;0.6797;1.6882;
221.4000;0.6797;1.6905;
221.7000;0.6797;1.6858;
222.0000;0.6805;1.6882;
222.3000;0.6797;1.6882;
222.6000;0.6797;1.6929;
222.9000;0.6789;1.6975;
223.2000;0.6805;1.7069;
223.5000;0.6797;1.6975;
223.8000;0.6805;1.6882;
224.1000;0.6805;1.6905;
224.4000;0.6797;1.6882;
224.7000;0.6878;1.7210;
225.0000;0.6821;1.7093;
225.3000;0.6797;1.6929;
225.6000;0.6781;1.6952;
225.9000;0.6789;1.6975;
226.2000;0.6781;1.6929;
226.5000;0.6789;1.6905;
226.8000;0.6797;1.6929;
227.1000;0.6797;1.6835;
227.4000;0.6813;1.6952;
227.7000;0.6821;1.6999;
228.0000;0.6789;1.6905;
228.3000;0.6805;1.6999;
228.6000;0.6805;1.6999;
228.9000;0.6797;1.6975;
229.2000;0.6789;1.6882;
229.5000;0.6927;1.7257;
229.8000;0.6813;1.7022;
230.1000;0.6805;1.7022;
230.4000;0.6805;1.7046;
230.7000;0.6813;1.7093;
231.0000;0.6829;1.6952;
231.3000;0.6805;1.6952;
231.6000;0.6805;1.6975;
231.9000;0.6797;1.6999;
232.2000;0.6813;1.6999;
232.5000;0.6789;1.6858;
232.8000;0.6805;1.6858;
233.1000;0.6838;1.6882;
233.4000;0.6789;1.6788;
233.7000;0.6813;1.6882;
234.0000;0.6797;1.6811;
234.3000;0.6805;1.6858;
234.6000;0.6805;1.6858;
234.9000;0.6797;1.6835;
235.2000;0.6764;1.6718;
235.5000;0.6813;1.6811;
235.8000;0.6781;1.6835;
236.1000;0.6797;1.6882;
236.4000;0.6854;1.7022;
236.7000;0.6797;1.6788;
237.0000;0.6789;1.6741;
237.3000;0.6740;1.6600;
237.6000;0.6805;1.6718;
237.9000;0.6805;1.6718;
238.2000;0.6764;1.6647;
238.5000;0.6886;1.6905;
238.8000;0.6805;1.6835;
239.1000;0.6829;1.6811;
239.4000;0.6813;1.6835;
239.7000;0.6764;1.6788;
240.0000;0.6821;1.6905;
240.3000;0.6813;1.6905;
240.6000;0.6805;1.6975;
240.9000;0.6813;1.7046;
241.2000;0.6870;1.7186;
241.5000;0.6805;1.7069;
241.8000;0.6789;1.7022;
242.1000;0.6789;1.6999;
242.4000;0.6813;1.7022;
242.7000;0.6813;1.6975;
243.0000;0.6789;1.6858;
243.3000;0.6805;1.6788;
243.6000;0.6911;1.7069;
243.9000;0.6805;1.6835;
244.2000;0.6805;1.6882;
244.5000;0.6789;1.6811;
244.8000;0.6805;1.6764;
245.1000;0.6797;1.6718;
245.4000;0.6789;1.6694;
245.7000;0.6724;1.6483;
246.0000;0.6781;1.6671;
246.3000;0.6805;1.6811;
246.6000;0.6821;1.6788;
246.9000;0.6789;1.6741;
247.2000;0.6797;1.6764;
247.5000;0.6846;1.6905;
247.8000;0.6797;1.6741;
248.1000;0.6797;1.6764;
248.4000;0.6797;1.6858;
248.7000;0.6772;1.6718;
249.0000;0.6797;1.6788;
249.3000;0.6789;1.6811;
249.6000;0.6797;1.6764;
249.9000;0.6764;1.6624;
250.2000;0.6805;1.6741;
250.5000;0.6821;1.6764;
250.8000;0.6813;1.6671;
251.1000;0.6797;1.6671;
251.4000;0.6813;1.6694;
251.7000;0.6805;1.6671;
252.0000;0.6797;1.6671;
252.3000;0.6797;1.6647;
252.6000;0.6732;1.6366;
252.9000;0.6789;1.6577;
253.2000;0.6805;1.6600;
253.5000;0.6813;1.6647;
253.8000;0.6846;1.6741;
254.1000;0.6805;1.6694;
254.4000;0.6781;1.6741;
254.7000;0.6805;1.6788;
255.0000;0.6813;1.6811;
255.3000;0.6805;1.6835;
255.6000;0.6805;1.6882;
255.9000;0.6797;1.6788;
256.2000;0.6805;1.6858;
256.5000;0.6797;1.6858;
256.8000;0.6838;1.6905;
257.1000;0.6821;1.6835;
257.4000;0.6797;1.6741;
257.7000;0.6805;1.6764;
258.0000;0.6789;1.6811;
258.3000;0.6805;1.6788;
258.6000;0.6805;1.6741;
258.9000;0.6805;1.6741;
259.2000;0.6805;1.6788;
259.5000;0.6805;1.6811;
259.8000;0.6805;1.6835;
260.1000;0.6797;1.6811;
260.4000;0.6846;1.6835;
260.7000;0.6821;1.6788;
261.0000;0.6805;1.6718;
261.3000;0.6805;1.6741;
261.6000;0.6805;1.6811;
261.9000;0.6805;1.6835;
262.2000;0.6813;1.6788;
262.5000;0.6805;1.6764;
262.8000;0.6805;1.6694;
263.1000;0.6772;1.6741;
263.4000;0.6789;1.6764;
263.7000;0.6805;1.6741;
264.0000;0.6789;1.6671;
264.3000;0.6805;1.6600;
264.6000;0.6813;1.6600;
264.9000;0.6797;1.6718;
265.2000;0.6797;1.6835;
265.5000;0.6821;1.6882;
265.8000;0.6805;1.6952;
266.1000;0.6821;1.6952;
266.4000;0.6797;1.6788;
266.7000;0.6789;1.6764;
267.0000;0.6789;1.6788;
267.3000;0.6805;1.6858;
267.6000;0.6813;1.6835;
267.9000;0.6813;1.6764;
268.2000;0.6772;1.6671;
268.5000;0.6781;1.6811;
268.8000;0.6772;1.6718;
269.1000;0.6781;1.6694;
269.4000;0.6797;1.6647;
269.7000;0.6797;1.6624;
270.0000;0.6781;1.6600;
270.3000;0.6797;1.6647;
270.6000;0.6821;1.6671;
270.9000;0.6789;1.6600;
271.2000;0.6805;1.6694;
271.5000;0.6781;1.6788;
271.8000;0.6821;1.6741;
272.1000;0.6789;1.6647;
272.4000;0.6781;1.6647;
272.7000;0.6781;1.6647;
273.0000;0.6789;1.6718;
273.3000;0.6821;1.6764;
273.6000;0.6789;1.6718;
273.9000;0.6797;1.6858;
274.2000;0.6789;1.6811;
274.5000;0.6764;1.6764;
274.8000;0.6789;1.6882;
275.1000;0.6797;1.6835;
275.4000;0.6789;1.6741;
275.7000;0.6789;1.6694;
276.0000;0.6797;1.6694;
276.3000;0.6813;1.6694;
276.6000;0.6797;1.6553;
276.9000;0.6805;1.6577;
277.2000;0.6805;1.6577;
277.5000;0.6805;1.6624;
277.8000;0.6805;1.6624;
278.1000;0.6797;1.6553;
278.4000;0.6805;1.6553;
278.7000;0.6846;1.6718;
279.0000;0.6789;1.6647;
279.3000;0.6797;1.6694;
279.6000;0.6805;1.6718;
279.9000;0.6781;1.6694;
280.2000;0.6797;1.6694;
280.5000;0.6805;1.6741;
280.8000;0.6781;1.6718;
281.1000;0.6797;1.6741;
281.4000;0.6797;1.6764;
281.7000;0.6821;1.6718;
282.0000;0.6813;1.6647;
282.3000;0.6805;1.6718;
282.6000;0.6813;1.6718;
282.9000;0.6805;1.6741;
283.2000;0.6797;1.6671;
283.5000;0.6781;1.6647;
283.8000;0.6789;1.6764;
284.1000;0.6805;1.6788;
284.4000;0.6805;1.6882;
284.7000;0.6797;1.6858;
285.0000;0.6748;1.6764;
285.3000;0.6805;1.6905;
285.6000;0.6740;1.6811;
285.9000;0.6797;1.6952;
286.2000;0.6789;1.6882;
286.5000;0.6805;1.6811;
286.8000;0.6813;1.6764;
287.1000;0.6805;1.6811;
287.4000;0.6805;1.6788;
287.7000;0.6772;1.6647;
288.0000;0.6797;1.6718;
288.3000;0.6789;1.6647;
288.6000;0.6772;1.6624;
288.9000;0.6797;1.6624;
289.2000;0.6772;1.6553;
289.5000;0.6789;1.6577;
289.8000;0.6797;1.6647;
290.1000;0.6789;1.6741;
290.4000;0.6781;1.6718;
290.7000;0.6805;1.6788;
291.0000;0.6781;1.6788;
291.3000;0.6781;1.6741;
291.6000;0.6797;1.6764;
291.9000;0.6821;1.6811;
292.2000;0.6797;1.6788;
292.5000;0.6772;1.6741;
292.8000;0.6789;1.6811;
293.1000;0.6797;1.6835;
293.4000;0.6789;1.6811;
293.7000;0.6789;1.6741;
294.0000;0.6789;1.6811;
294.3000;0.6805;1.6764;
294.6000;0.6821;1.6764;
294.9000;0.6764;1.6764;
295.2000;0.6797;1.6858;
295.5000;0.6781;1.6882;
295.8000;0.6772;1.6858;
296.1000;0.6797;1.6929;
296.4000;0.6813;1.6905;
296.7000;0.6797;1.6811;
297.0000;0.6789;1.6741;
297.3000;0.6797;1.6694;
297.6000;0.6789;1.6741;
297.9000;0.6789;1.6788;
298.2000;0.6821;1.6858;
298.5000;0.6797;1.6788;
298.8000;0.6797;1.6788;
299.1000;0.6805;1.6811;
299.4000;0.6797;1.6788;
299.7000;0.6813;1.6764;
300.0000;0.6789;1.6694;
300.3000;0.6829;1.6718;
300.6000;0.6813;1.6718;
300.9000;0.6813;1.6764;
301.2000;0.6797;1.6811;
301.5000;0.6789;1.6811;
301.8000;0.6805;1.6788;
302.1000;0.6813;1.6811;
302.4000;0.6805;1.6764;
302.7000;0.6878;1.6929;
303.0000;0.6797;1.6718;
303.3000;0.6805;1.6811;
303.6000;0.6797;1.6835;
303.9000;0.6821;1.6835;
304.2000;0.6805;1.6835;
304.5000;0.6789;1.6905;
304.8000;0.6813;1.7046;
305.1000;0.6797;1.6952;
305.4000;0.6789;1.6952;
305.7000;0.6805;1.6905;
306.0000;0.6805;1.6952;
306.3000;0.6829;1.6999;
306.6000;0.6748;1.6835;
306.9000;0.6797;1.6882;
307.2000;0.6821;1.6929;
307.5000;0.6862;1.7022;
307.8000;0.6797;1.6835;
308.1000;0.6797;1.6858;
308.4000;0.6805;1.6905;
308.7000;0.6805;1.6882;
309.0000;0.6797;1.6811;
309.3000;0.6732;1.6553;
309.6000;0.6846;1.6764;
309.9000;0.6772;1.6624;
310.2000;0.6797;1.6718;
310.5000;0.6781;1.6764;
310.8000;0.6781;1.6671;
311.1000;0.6797;1.6671;
311.4000;0.6797;1.6553;
311.7000;0.6805;1.6553;
312.0000;0.6789;1.6507;
312.3000;0.6805;1.6530;
312.6000;0.6781;1.6460;
312.9000;0.6789;1.6366;
313.2000;0.6805;1.6389;
313.5000;0.6781;1.6460;
313.8000;0.6813;1.6624;
314.1000;0.6797;1.6624;
314.4000;0.6805;1.6647;
314.7000;0.6732;1.6460;
315.0000;0.6805;1.6671;
315.3000;0.6789;1.6624;
315.6000;0.6813;1.6694;
315.9000;0.6813;1.6671;
316.2000;0.6829;1.6647;
316.5000;0.6805;1.6577;
316.8000;0.6789;1.6530;
317.1000;0.6805;1.6624;
317.4000;0.6789;1.6671;
317.7000;0.6789;1.6600;
318.0000;0.6789;1.6694;
318.3000;0.6797;1.6718;
318.6000;0.6829;1.6788;
318.9000;0.6805;1.6811;
319.2000;0.6789;1.6788;
319.5000;0.6789;1.6811;
319.8000;0.6789;1.6882;
320.1000;0.6813;1.6975;
320.4000;0.6789;1.6929;
320.7000;0.6813;1.6882;
321.0000;0.6797;1.6929;
321.3000;0.6797;1.6952;
321.6000;0.6813;1.7046;
321.9000;0.6805;1.7022;
322.2000;0.6789;1.7069;
322.5000;0.6805;1.7093;
322.8000;0.6805;1.7116;
323.1000;0.6813;1.7163;
323.4000;0.6805;1.7140;
323.7000;0.6821;1.7116;
324.0000;0.6813;1.7186;
324.3000;0.6805;1.7186;
324.6000;0.6805;1.7163;
324.9000;0.6821;1.7069;
325.2000;0.6797;1.7069;
325.5000;0.6829;1.6999;
325.8000;0.6740;1.6811;
326.1000;0.6829;1.7069;
326.4000;0.6813;1.7022;
326.7000;0.6805;1.6999;
327.0000;0.6797;1.6929;
327.3000;0.6805;1.6999;
327.6000;0.6789;1.6952;
327.9000;0.6805;1.6999;
328.2000;0.6829;1.7116;
328.5000;0.6789;1.7022;
328.8000;0.6813;1.7069;
329.1000;0.6821;1.7116;
329.4000;0.6781;1.6905;
329.7000;0.6789;1.6952;
330.0000;0.6878;1.7093;
330.3000;0.6821;1.7069;
330.6000;0.6732;1.6811;
330.9000;0.6854;1.7093;
331.2000;0.6805;1.6905;
331.5000;0.6813;1.6882;
331.8000;0.6813;1.6811;
332.1000;0.6813;1.6858;
332.4000;0.6756;1.6858;
332.7000;0.6789;1.7046;
333.0000;0.6797;1.6999;
333.3000;0.6789;1.6952;
333.6000;0.6797;1.6929;
333.9000;0.6675;1.6671;
334.2000;0.6903;1.7233;
334.5000;0.6781;1.6952;
334.8000;0.6805;1.6999;
335.1000;0.6805;1.6999;
335.4000;0.6821;1.7140;
335.7000;0.6805;1.7116;
336.0000;0.6797;1.7116;
336.3000;0.6789;1.7093;
336.6000;0.6813;1.7163;
336.9000;0.6772;1.6999;
337.2000;0.6805;1.7022;
337.5000;0.6797;1.7046;
337.8000;0.6789;1.7093;
338.1000;0.6821;1.7116;
338.4000;0.6789;1.7140;
338.7000;0.6772;1.7186;
339.0000;0.6789;1.7257;
339.3000;0.6805;1.7210;
339.6000;0.6805;1.7210;
339.9000;0.6805;1.7257;
340.2000;0.6797;1.7351;
340.5000;0.6821;1.7444;
340.8000;0.6805;1.7351;
341.1000;0.6805;1.7304;
341.4000;0.6797;1.7210;
341.7000;0.6797;1.7233;
342.0000;0.6797;1.7140;
342.3000;0.6772;1.7069;
342.6000;0.6797;1.7233;
342.9000;0.6789;1.7140;
343.2000;0.6895;1.7374;
343.5000;0.6707;1.6882;
343.8000;0.6781;1.6999;
344.1000;0.6789;1.6929;
344.4000;0.6797;1.6952;
344.7000;0.6781;1.6975;
345.0000;0.6781;1.6952;
345.3000;0.6772;1.6858;
345.6000;0.6797;1.6905;
345.9000;0.6805;1.6952;
346.2000;0.6797;1.6858;
346.5000;0.6805;1.6835;
346.8000;0.6797;1.6858;
347.1000;0.6919;1.7140;
347.4000;0.6781;1.6905;
347.7000;0.6805;1.6929;
348.0000;0.6789;1.6858;
348.3000;0.6813;1.6882;
348.6000;0.6764;1.6764;
348.9000;0.6772;1.6764;
349.2000;0.6756;1.6764;
349.5000;0.6789;1.6858;
349.8000;0.6797;1.6882;
350.1000;0.6789;1.6811;
350.4000;0.6821;1.6929;
350.7000;0.6805;1.6882;
351.0000;0.6821;1.6929;
351.3000;0.6829;1.6999;
351.6000;0.6740;1.6882;
351.9000;0.6772;1.6975;
352.2000;0.6805;1.6952;
352.5000;0.6821;1.7093;
352.8000;0.6813;1.7069;
353.1000;0.6716;1.6788;
353.4000;0.6821;1.7069;
353.7000;0.6805;1.6952;
354.0000;0.6797;1.6952;
354.3000;0.6781;1.6882;
354.6000;0.6838;1.7093;
354.9000;0.6821;1.7163;
355.2000;0.6772;1.7022;
355.5000;0.6797;1.7093;
355.8000;0.6821;1.7116;
356.1000;0.6821;1.7046;
356.4000;0.6707;1.6929;
356.7000;0.6772;1.7093;
357.0000;0.6789;1.7069;
357.3000;0.6789;1.7093;
357.6000;0.6911;1.7397;
357.9000;0.6797;1.7163;
358.2000;0.6870;1.7233;
358.5000;0.6797;1.7022;
358.8000;0.6797;1.6929;
359.1000;0.6805;1.6882;
359.4000;0.6789;1.6905;
359.7000;0.6805;1.6858;
360.0000;0.6781;1.6741;
360.3000;0.6781;1.6718;
360.6000;0.6813;1.6694;
360.9000;0.6797;1.6764;
361.2000;0.6797;1.6882;
361.5000;0.6789;1.6811;
361.8000;0.6797;1.6811;
362.1000;0.6740;1.6671;
362.4000;0.6805;1.6835;
362.7000;0.6772;1.6764;
363.0000;0.6805;1.6905;
363.3000;0.6805;1.6858;
363.6000;0.6805;1.6858;
363.9000;0.6805;1.6811;
364.2000;0.6797;1.6811;
364.5000;0.6781;1.6788;
364.8000;0.6789;1.6858;
365.1000;0.6813;1.6882;
365.4000;0.6797;1.6835;
365.7000;0.6911;1.7116;
366.0000;0.6789;1.6788;
366.3000;0.6813;1.6788;
366.6000;0.6821;1.6811;
366.9000;0.6789;1.6718;
367.2000;0.6797;1.6718;
367.5000;0.6821;1.6811;
367.8000;0.6821;1.6788;
368.1000;0.6805;1.6764;
368.4000;0.6805;1.6811;
368.7000;0.6797;1.6788;
369.0000;0.6805;1.6929;
369.3000;0.6789;1.6952;
369.6000;0.6805;1.6952;
369.9000;0.6781;1.6858;
370.2000;0.6789;1.6858;
370.5000;0.6716;1.6718;
370.8000;0.6772;1.6764;
371.1000;0.6797;1.6882;
371.4000;0.6797;1.6882;
371.7000;0.6781;1.6882;
372.0000;0.6789;1.6835;
372.3000;0.6797;1.6788;
372.6000;0.6748;1.6718;
372.9000;0.6797;1.6882;
373.2000;0.6805;1.6882;
373.5000;0.6797;1.6905;
373.8000;0.6797;1.6882;
374.1000;0.6862;1.7116;
374.4000;0.6789;1.6952;
374.7000;0.6797;1.6952;
375.0000;0.6781;1.6835;
375.3000;0.6813;1.6929;
375.6000;0.6797;1.6905;
375.9000;0.6797;1.6905;
376.2000;0.6829;1.6975;
376.5000;0.6805;1.6858;
376.8000;0.6789;1.6882;
377.1000;0.6805;1.6929;
377.4000;0.6797;1.6882;
377.7000;0.6789;1.6858;
378.0000;0.6789;1.6905;
378.3000;0.6878;1.7046;
378.6000;0.6829;1.6882;
378.9000;0.6797;1.6858;
379.2000;0.6813;1.6905;
379.5000;0.6821;1.6858;
379.8000;0.6805;1.6811;
380.1000;0.6821;1.6952;
380.4000;0.6829;1.6999;
380.7000;0.6797;1.6929;
381.0000;0.6797;1.6858;
381.3000;0.6805;1.6929;
381.6000;0.6675;1.6671;
381.9000;0.6805;1.6929;
382.2000;0.6789;1.6929;
382.5000;0.6797;1.6952;
382.8000;0.6797;1.6952;
383.1000;0.6805;1.6975;
383.4000;0.6821;1.7046;
383.7000;0.6781;1.6882;
384.0000;0.6781;1.6835;
384.3000;0.6805;1.6882;
384.6000;0.6797;1.6835;
384.9000;0.6797;1.6811;
385.2000;0.6789;1.6788;
385.5000;0.6764;1.6741;
385.8000;0.6805;1.6764;
386.1000;0.6797;1.6694;
386.4000;0.6781;1.6718;
386.7000;0.6903;1.6975;
387.0000;0.6797;1.6718;
387.3000;0.6797;1.6718;
387.6000;0.6813;1.6764;
387.9000;0.6789;1.6788;
388.2000;0.6789;1.6788;
388.5000;0.6797;1.6858;
388.8000;0.6797;1.6999;
389.1000;0.6797;1.6905;
389.4000;0.6781;1.6905;
389.7000;0.6854;1.7093;
390.0000;0.6813;1.6905;
390.3000;0.6781;1.6835;
390.6000;0.6789;1.6952;
390.9000;0.6797;1.6975;
391.2000;0.6797;1.7022;
391.5000;0.6772;1.6999;
391.8000;0.6789;1.6952;
392.1000;0.6789;1.6952;
392.4000;0.6772;1.6952;
392.7000;0.6756;1.6952;
393.0000;0.6789;1.7046;
393.3000;0.6789;1.6975;
393.6000;0.6772;1.6975;
393.9000;0.6781;1.7069;
394.2000;0.6789;1.7022;
394.5000;0.6829;1.7069;
394.8000;0.6797;1.6975;
395.1000;0.6805;1.6999;
395.4000;0.6764;1.6835;
395.7000;0.6781;1.6835;
396.0000;0.6805;1.6882;
396.3000;0.6781;1.6835;
396.6000;0.6854;1.6952;
396.9000;0.6789;1.6788;
397.2000;0.6789;1.6835;
397.5000;0.6797;1.6858;
397.8000;0.6797;1.6858;
398.1000;0.6724;1.6788;
398.4000;0.6789;1.6952;
398.7000;0.6789;1.6929;
399.0000;0.6789;1.6905;
399.3000;0.6764;1.6882;
399.6000;0.6789;1.6811;
399.9000;0.6789;1.6764;
400.2000;0.6789;1.6811;
400.5000;0.6781;1.6835;
400.8000;0.6781;1.6811;
401.1000;0.6789;1.6835;
401.4000;0.6813;1.6858;
401.7000;0.6789;1.6811;
402.0000;0.6789;1.6811;
402.3000;0.6789;1.6811;
402.6000;0.6740;1.6741;
402.9000;0.6789;1.6858;
403.2000;0.6789;1.6811;
403.5000;0.6797;1.6764;
403.8000;0.6772;1.6811;
404.1000;0.6789;1.6858;
404.4000;0.6781;1.6929;
404.7000;0.6789;1.7069;
405.0000;0.6797;1.6999;
405.3000;0.6789;1.6999;
405.6000;0.6772;1.7022;
405.9000;0.6805;1.7163;
406.2000;0.6797;1.7116;
406.5000;0.6805;1.6999;
406.8000;0.6813;1.7069;
407.1000;0.6789;1.7022;
407.4000;0.6764;1.6952;
407.7000;0.6813;1.7069;
408.0000;0.6781;1.6975;
408.3000;0.6772;1.6975;
408.6000;0.6764;1.6905;
408.9000;0.6781;1.6952;
409.2000;0.6789;1.6975;
409.5000;0.6797;1.6905;
409.8000;0.6789;1.6788;
410.1000;0.6781;1.6647;
410.4000;0.6789;1.6600;
410.7000;0.6764;1.6600;
411.0000;0.6797;1.6764;
411.3000;0.6781;1.6788;
411.6000;0.6805;1.6811;
411.9000;0.6789;1.6694;
412.2000;0.6797;1.6811;
412.5000;0.6740;1.6764;
412.8000;0.6797;1.6905;
413.1000;0.6789;1.6882;
413.4000;0.6789;1.6835;
413.7000;0.6781;1.6811;
414.0000;0.6797;1.6882;
414.3000;0.6781;1.6811;
414.6000;0.6781;1.6764;
414.9000;0.6789;1.6811;
415.2000;0.6789;1.6882;
415.5000;0.6797;1.6788;
415.8000;0.6789;1.6788;
416.1000;0.6781;1.6811;
416.4000;0.6813;1.6905;
416.7000;0.6789;1.6929;
417.0000;0.6789;1.6975;
417.3000;0.6789;1.6999;
417.6000;0.6846;1.7069;
417.9000;0.6797;1.6952;
418.2000;0.6797;1.6929;
418.5000;0.6846;1.7116;
418.8000;0.6805;1.6905;
419.1000;0.6805;1.6882;
419.4000;0.6797;1.6835;
419.7000;0.6781;1.6811;
420.0000;0.6797;1.6835;
420.3000;0.6789;1.6764;
420.6000;0.6838;1.6905;
420.9000;0.6781;1.6835;
421.2000;0.6772;1.6741;
421.5000;0.6797;1.6764;
421.8000;0.6813;1.6811;
422.1000;0.6854;1.6975;
422.4000;0.6789;1.6882;
422.7000;0.6789;1.6882;
423.0000;0.6805;1.6882;
423.3000;0.6911;1.7140;
423.6000;0.6789;1.6952;
423.9000;0.6797;1.6999;
424.2000;0.6797;1.6975;
424.5000;0.6797;1.6811;
424.8000;0.6805;1.6788;
425.1000;0.6846;1.6858;
425.4000;0.6772;1.6600;
425.7000;0.6838;1.6788;
426.0000;0.6789;1.6718;
426.3000;0.6805;1.6741;
426.6000;0.6756;1.6694;
426.9000;0.6781;1.6600;
427.2000;0.6797;1.6624;
427.5000;0.6821;1.6718;
427.8000;0.6772;1.6647;
428.1000;0.6838;1.6835;
428.4000;0.6813;1.6811;
428.7000;0.6813;1.6764;
429.0000;0.6805;1.6764;
429.3000;0.6789;1.6741;
429.6000;0.6789;1.6858;
429.9000;0.6789;1.6718;
430.2000;0.6846;1.6835;
430.5000;0.6797;1.6788;
430.8000;0.6805;1.6835;
431.1000;0.6797;1.6764;
431.4000;0.6756;1.6694;
431.7000;0.6813;1.6811;
432.0000;0.6797;1.6647;
432.3000;0.6797;1.6647;
432.6000;0.6797;1.6624;
432.9000;0.6789;1.6530;
433.2000;0.6797;1.6624;
433.5000;0.6805;1.6647;
433.8000;0.6797;1.6600;
434.1000;0.6805;1.6600;
434.4000;0.6797;1.6577;
434.7000;0.6797;1.6694;
435.0000;0.6805;1.6764;
435.3000;0.6772;1.6694;
435.6000;0.6789;1.6835;
435.9000;0.6797;1.6858;
436.2000;0.6797;1.6788;
436.5000;0.6862;1.6952;
436.8000;0.6781;1.6811;
437.1000;0.6789;1.6905;
437.4000;0.6789;1.6999;
437.7000;0.6797;1.7046;
438.0000;0.6781;1.6999;
438.3000;0.6789;1.6929;
438.6000;0.6797;1.6858;
438.9000;0.6789;1.6835;
439.2000;0.6724;1.6671;
439.5000;0.6797;1.6905;
439.8000;0.6797;1.6929;
440.1000;0.6805;1.6858;
440.4000;0.6797;1.6975;
440.7000;0.6789;1.6905;
441.0000;0.6805;1.6999;
441.3000;0.6772;1.6975;
441.6000;0.6797;1.6999;
441.9000;0.6789;1.6905;
442.2000;0.6789;1.6882;
442.5000;0.6772;1.6835;
442.8000;0.6772;1.6811;
443.1000;0.6789;1.6811;
443.4000;0.6862;1.6975;
443.7000;0.6756;1.6600;
444.0000;0.6789;1.6764;
444.3000;0.6805;1.6858;
444.6000;0.6789;1.6858;
444.9000;0.6805;1.6835;
445.2000;0.6772;1.6835;
445.5000;0.6781;1.6858;
445.8000;0.6797;1.6741;
446.1000;0.6781;1.6600;
446.4000;0.6797;1.6694;
446.7000;0.6764;1.6647;
447.0000;0.6756;1.6647;
447.3000;0.6789;1.6764;
447.6000;0.6789;1.6811;
447.9000;0.6789;1.6835;
448.2000;0.6846;1.6905;
448.5000;0.6813;1.6882;
448.8000;0.6789;1.6905;
449.1000;0.6854;1.6999;
449.4000;0.6821;1.6929;
449.7000;0.6805;1.6788;
450.0000;0.6797;1.6671;
450.3000;0.6813;1.6788;
450.6000;0.6683;1.6483;
450.9000;0.6805;1.6764;
451.2000;0.6813;1.6788;
451.5000;0.6789;1.6694;
451.8000;0.6797;1.6694;
452.1000;0.6781;1.6718;
452.4000;0.6797;1.6788;
452.7000;0.6764;1.6811;
453.0000;0.6789;1.6952;
453.3000;0.6789;1.6882;
453.6000;0.6797;1.6858;
453.9000;0.6797;1.6788;
454.2000;0.6797;1.6788;
454.5000;0.6789;1.6694;
454.8000;0.6789;1.6788;
455.1000;0.6813;1.6882;
455.4000;0.6813;1.6975;
455.7000;0.6781;1.6999;
456.0000;0.6797;1.7093;
456.3000;0.6813;1.7163;
456.6000;0.6781;1.7093;
456.9000;0.6797;1.7210;
457.2000;0.6789;1.7233;
457.5000;0.6895;1.7421;
457.8000;0.6789;1.7069;
458.1000;0.6797;1.7116;
458.4000;0.6789;1.6975;
458.7000;0.6789;1.7022;
459.0000;0.6797;1.7093;
459.3000;0.6797;1.7093;
459.6000;0.6789;1.7069;
459.9000;0.6789;1.6975;
460.2000;0.6781;1.6975;
460.5000;0.6781;1.6929;
460.8000;0.6813;1.6929;
461.1000;0.6813;1.6952;
461.4000;0.6797;1.6905;
461.7000;0.6789;1.6952;
462.0000;0.6805;1.6999;
462.3000;0.6789;1.6975;
462.6000;0.6789;1.6905;
462.9000;0.6789;1.6811;
463.2000;0.6805;1.6788;
463.5000;0.6789;1.6764;
463.8000;0.6772;1.6788;
464.1000;0.6772;1.6835;
464.4000;0.6781;1.6905;
464.7000;0.6797;1.6929;
465.0000;0.6781;1.6999;
465.3000;0.6789;1.7093;
465.6000;0.6821;1.7163;
465.9000;0.6789;1.7069;
466.2000;0.6781;1.6975;
466.5000;0.6797;1.6905;
466.8000;0.6781;1.6835;
467.1000;0.6838;1.6952;
467.4000;0.6748;1.6694;
467.7000;0.6772;1.6858;
468.0000;0.6805;1.6929;
468.3000;0.6781;1.6882;
468.6000;0.6854;1.7116;
468.9000;0.6903;1.7280;
469.2000;0.6838;1.7093;
469.5000;0.6805;1.7046;
469.8000;0.6797;1.7046;
470.1000;0.6797;1.7116;
470.4000;0.6764;1.6952;
470.7000;0.6797;1.6952;
471.0000;0.6789;1.6975;
471.3000;0.6772;1.6999;
471.6000;0.6797;1.7022;
471.9000;0.6846;1.7163;
472.2000;0.6903;1.7210;
472.5000;0.6821;1.6999;
472.8000;0.6781;1.6952;
473.1000;0.6789;1.6975;
473.4000;0.6903;1.7397;
473.7000;0.6789;1.7140;
474.0000;0.6789;1.7022;
474.3000;0.6789;1.6999;
474.6000;0.6748;1.6929;
474.9000;0.6797;1.7022;
475.2000;0.6789;1.7022;
475.5000;0.6781;1.6999;
475.8000;0.6797;1.6975;
476.1000;0.6797;1.6905;
476.4000;0.6862;1.6999;
476.7000;0.6789;1.6882;
477.0000;0.6805;1.6858;
477.3000;0.6781;1.6835;
477.6000;0.6813;1.6835;
477.9000;0.6789;1.6764;
478.2000;0.6797;1.6764;
478.5000;0.6813;1.6741;
478.8000;0.6797;1.6694;
479.1000;0.6805;1.6671;
479.4000;0.6789;1.6577;
479.7000;0.6797;1.6577;
480.0000;0.6797;1.6507;
480.3000;0.6797;1.6553;
480.6000;0.6789;1.6600;
480.9000;0.6789;1.6694;
481.2000;0.6797;1.6741;
481.5000;0.6772;1.6741;
481.8000;0.6772;1.6671;
482.1000;0.6772;1.6718;
482.4000;0.6781;1.6811;
482.7000;0.6789;1.6835;
483.0000;0.6772;1.6858;
483.3000;0.6797;1.6952;
483.6000;0.6789;1.6905;
483.9000;0.6789;1.7022;
484.2000;0.6772;1.7046;
484.5000;0.6764;1.7093;
484.8000;0.6772;1.7093;
485.1000;0.6797;1.7022;
485.4000;0.6781;1.6952;
485.7000;0.6772;1.6929;
486.0000;0.6781;1.6952;
486.3000;0.6789;1.6952;
486.6000;0.6789;1.6952;
486.9000;0.6797;1.6905;
487.2000;0.6789;1.6905;
487.5000;0.6838;1.7022;
487.8000;0.6789;1.6905;
488.1000;0.6789;1.6858;
488.4000;0.6797;1.6741;
488.7000;0.6813;1.6718;
489.0000;0.6789;1.6694;
489.3000;0.6797;1.6811;
489.6000;0.6748;1.6764;
489.9000;0.6805;1.6952;
490.2000;0.6805;1.6929;
490.5000;0.6813;1.6929;
490.8000;0.6789;1.6905;
491.1000;0.6789;1.6905;
491.4000;0.6829;1.7069;
491.7000;0.6789;1.6975;
492.0000;0.6781;1.6999;
492.3000;0.6797;1.7163;
492.6000;0.6797;1.7093;
492.9000;0.6797;1.7069;
493.2000;0.6789;1.7022;
493.5000;0.6797;1.6929;
493.8000;0.6797;1.6882;
494.1000;0.6805;1.6905;
494.4000;0.6789;1.6858;
494.7000;0.6772;1.6952;
495.0000;0.6789;1.7069;
495.3000;0.6781;1.7116;
495.6000;0.6781;1.6999;
495.9000;0.6764;1.6929;
496.2000;0.6846;1.7140;
496.5000;0.6797;1.7022;
496.8000;0.6781;1.6929;
497.1000;0.6805;1.6975;
497.4000;0.6789;1.6975;
497.7000;0.6781;1.7069;
498.0000;0.6805;1.7210;
498.3000;0.6797;1.7140;
498.6000;0.6789;1.7116;
498.9000;0.6781;1.7046;
499.2000;0.6797;1.7022;
499.5000;0.6797;1.7022;
499.8000;0.6797;1.6975;
500.1000;0.6781;1.6905;
500.4000;0.6805;1.6952;
500.7000;0.6781;1.7022;
501.0000;0.6781;1.6999;
501.3000;0.6781;1.6999;
501.6000;0.6789;1.7046;
501.9000;0.6797;1.7069;
502.2000;0.6789;1.7022;
502.5000;0.6789;1.7069;
502.8000;0.6797;1.6929;
503.1000;0.6781;1.6835;
503.4000;0.6781;1.6718;
503.7000;0.6764;1.6718;
504.0000;0.6797;1.6811;
504.3000;0.6805;1.6835;
504.6000;0.6838;1.6999;
504.9000;0.6789;1.6952;
505.2000;0.6781;1.6835;
505.5000;0.6805;1.6882;
505.8000;0.6797;1.6811;
506.1000;0.6781;1.6718;
506.4000;0.6781;1.6741;
506.7000;0.6789;1.6835;
507.0000;0.6781;1.6858;
507.3000;0.6805;1.6929;
507.6000;0.6797;1.6905;
507.9000;0.6797;1.6905;
508.2000;0.6813;1.7022;
508.5000;0.6789;1.6999;
508.8000;0.6789;1.7022;
509.1000;0.6789;1.7069;
509.4000;0.6789;1.7093;
509.7000;0.6781;1.7140;
510.0000;0.6797;1.7046;
510.3000;0.6772;1.6929;
510.6000;0.6781;1.6975;
510.9000;0.6781;1.6975;
511.2000;0.6772;1.7046;
511.5000;0.6764;1.6952;
511.8000;0.6781;1.7046;
512.1000;0.6781;1.7046;
512.4000;0.6895;1.7186;
512.7000;0.6797;1.6858;
513.0000;0.6805;1.6811;
513.3000;0.6781;1.6764;
513.6000;0.6789;1.6647;
513.9000;0.6789;1.6671;
514.2000;0.6797;1.6811;
514.5000;0.6772;1.6882;
514.8000;0.6789;1.6975;
515.1000;0.6813;1.6999;
515.4000;0.6756;1.6835;
515.7000;0.6789;1.7069;
516.0000;0.6854;1.7116;
516.3000;0.6797;1.6999;
516.6000;0.6789;1.6975;
516.9000;0.6789;1.6952;
517.2000;0.6797;1.6975;
517.5000;0.6797;1.7046;
517.8000;0.6781;1.7046;
518.1000;0.6772;1.6999;
518.4000;0.6781;1.6952;
518.7000;0.6781;1.6929;
519.0000;0.6781;1.6929;
519.3000;0.6781;1.6835;
519.6000;0.6789;1.6952;
519.9000;0.6789;1.7022;
520.2000;0.6724;1.6835;
520.5000;0.6764;1.6929;
520.8000;0.6781;1.7069;
521.1000;0.6781;1.6975;
521.4000;0.6748;1.6882;
521.7000;0.6772;1.6929;
522.0000;0.6797;1.6952;
522.3000;0.6797;1.6952;
522.6000;0.6740;1.6764;
522.9000;0.6772;1.6905;
523.2000;0.6772;1.6905;
523.5000;0.6846;1.7093;
523.8000;0.6797;1.6905;
524.1000;0.6789;1.6858;
524.4000;0.6789;1.6835;
524.7000;0.6781;1.6741;
525.0000;0.6821;1.6788;
525.3000;0.6789;1.6741;
525.6000;0.6789;1.6741;
525.9000;0.6789;1.6788;
526.2000;0.6707;1.6718;
526.5000;0.6789;1.6929;
526.8000;0.6797;1.6999;
527.1000;0.6789;1.6975;
527.4000;0.6781;1.6975;
527.7000;0.6797;1.6999;
528.0000;0.6797;1.6975;
528.3000;0.6789;1.6929;
528.6000;0.6789;1.6882;
528.9000;0.6797;1.6905;
529.2000;0.6805;1.6905;
529.5000;0.6797;1.6975;
529.8000;0.6797;1.7069;
530.1000;0.6813;1.7140;
530.4000;0.6805;1.7116;
530.7000;0.6756;1.6952;
531.0000;0.6781;1.7046;
531.3000;0.6781;1.7163;
531.6000;0.6789;1.7140;
531.9000;0.6772;1.7140;
532.2000;0.6781;1.6975;
532.5000;0.6789;1.6975;
532.8000;0.6797;1.6929;
533.1000;0.6781;1.6952;
533.4000;0.6797;1.7022;
533.7000;0.6789;1.7022;
534.0000;0.6789;1.7069;
534.3000;0.6813;1.7116;
534.6000;0.6797;1.6929;
534.9000;0.6781;1.6929;
535.2000;0.6789;1.6999;
535.5000;0.6797;1.7022;
535.8000;0.6772;1.6858;
536.1000;0.6781;1.6764;
536.4000;0.6789;1.6835;
536.7000;0.6797;1.6858;
537.0000;0.6781;1.6929;
537.3000;0.6789;1.6929;
537.6000;0.6789;1.6975;
537.9000;0.6813;1.6952;
538.2000;0.6789;1.6929;
538.5000;0.6772;1.6929;
538.8000;0.6781;1.6999;
539.1000;0.6740;1.6929;
539.4000;0.6838;1.7186;
539.7000;0.6764;1.7069;
540.0000;0.6772;1.7069;
540.3000;0.6805;1.7116;
540.6000;0.6821;1.7140;
540.9000;0.6789;1.7022;
541.2000;0.6781;1.7046;
541.5000;0.6789;1.6929;
541.8000;0.6805;1.6952;
542.1000;0.6781;1.6975;
542.4000;0.6789;1.6835;
542.7000;0.6789;1.6811;
543.0000;0.6797;1.6858;
543.3000;0.6805;1.6882;
543.6000;0.6781;1.6835;
543.9000;0.6797;1.6858;
544.2000;0.6805;1.7022;
544.5000;0.6838;1.7069;
544.8000;0.6789;1.7046;
545.1000;0.6781;1.6975;
545.4000;0.6813;1.7022;
545.7000;0.6805;1.7116;
546.0000;0.6781;1.7116;
546.3000;0.6781;1.7093;
546.6000;0.6781;1.7233;
546.9000;0.6781;1.7210;
547.2000;0.6781;1.7140;
547.5000;0.6764;1.7140;
547.8000;0.6805;1.7163;
548.1000;0.6781;1.7046;
548.4000;0.6797;1.7069;
548.7000;0.6789;1.7046;
549.0000;0.6781;1.7022;
549.3000;0.6772;1.6999;
549.6000;0.6797;1.6929;
549.9000;0.6716;1.6671;
550.2000;0.6781;1.6929;
550.5000;0.6789;1.6858;
550.8000;0.6870;1.7140;
551.1000;0.6781;1.6929;
551.4000;0.6781;1.6975;
551.7000;0.6789;1.6999;
552.0000;0.6781;1.6952;
552.3000;0.6789;1.7046;
552.6000;0.6781;1.6999;
552.9000;0.6724;1.6952;
553.2000;0.6797;1.7069;
553.5000;0.6789;1.7046;
553.8000;0.6764;1.6952;
554.1000;0.6781;1.6952;
554.4000;0.6764;1.6952;
554.7000;0.6764;1.6999;
555.0000;0.6772;1.6952;
555.3000;0.6821;1.7046;
555.6000;0.6781;1.7069;
555.9000;0.6732;1.6975;
556.2000;0.6797;1.7233;
556.5000;0.6772;1.7163;
556.8000;0.6797;1.7116;
557.1000;0.6781;1.7163;
557.4000;0.6772;1.7163;
557.7000;0.6789;1.7140;
558.0000;0.6789;1.7093;
558.3000;0.6813;1.7257;
558.6000;0.6838;1.7280;
558.9000;0.6789;1.7022;
559.2000;0.6764;1.6905;
559.5000;0.6789;1.6929;
559.8000;0.6781;1.6952;
560.1000;0.6789;1.6975;
560.4000;0.6764;1.6882;
560.7000;0.6797;1.6975;
561.0000;0.6797;1.6975;
561.3000;0.6797;1.7022;
561.6000;0.6781;1.7046;
561.9000;0.6797;1.7093;
562.2000;0.6772;1.7069;
562.5000;0.6797;1.7093;
562.8000;0.6789;1.7163;
563.1000;0.6797;1.7186;
563.4000;0.6789;1.7093;
563.7000;0.6756;1.7069;
564.0000;0.6829;1.7186;
564.3000;0.6813;1.7163;
564.6000;0.6789;1.7069;
564.9000;0.6789;1.7163;
565.2000;0.6838;1.7257;
565.5000;0.6764;1.7116;
565.8000;0.6781;1.7069;
566.1000;0.6781;1.6975;
566.4000;0.6789;1.6999;
566.7000;0.6772;1.6929;
567.0000;0.6789;1.6929;
567.3000;0.6789;1.6929;
567.6000;0.6781;1.6929;
567.9000;0.6772;1.6929;
568.2000;0.6781;1.6929;
568.5000;0.6683;1.6788;
568.8000;0.6789;1.6999;
569.1000;0.6764;1.6975;
569.4000;0.6781;1.7022;
569.7000;0.6789;1.6975;
570.0000;0.6781;1.6975;
570.3000;0.6772;1.7022;
570.6000;0.6772;1.7163;
570.9000;0.6781;1.7140;
571.2000;0.6789;1.7069;
571.5000;0.6813;1.7116;
571.8000;0.6772;1.6999;
572.1000;0.6781;1.6975;
572.4000;0.6781;1.6975;
572.7000;0.6805;1.6975;
573.0000;0.6764;1.6905;
573.3000;0.6781;1.6999;
573.6000;0.6805;1.7022;
573.9000;0.6789;1.6905;
574.2000;0.6789;1.6999;
574.5000;0.6772;1.6835;
574.8000;0.6789;1.6811;
575.1000;0.6797;1.6858;
575.4000;0.6789;1.6882;
575.7000;0.6789;1.6975;
576.0000;0.6789;1.6929;
576.3000;0.6797;1.6975;
576.6000;0.6781;1.6905;
576.9000;0.6659;1.6671;
577.2000;0.6789;1.6952;
577.5000;0.6781;1.6952;
577.8000;0.6772;1.6952;
578.1000;0.6797;1.6999;
578.4000;0.6797;1.7022;
578.7000;0.6805;1.7140;
579.0000;0.6789;1.7069;
579.3000;0.6781;1.6999;
579.6000;0.6821;1.7163;
579.9000;0.6772;1.7046;
580.2000;0.6764;1.7093;
580.5000;0.6781;1.7116;
580.8000;0.6772;1.7022;
581.1000;0.6756;1.6952;
581.4000;0.6772;1.7046;
581.7000;0.6772;1.7022;
582.0000;0.6772;1.7022;
582.3000;0.6789;1.7022;
582.6000;0.6789;1.7022;
582.9000;0.6781;1.7093;
583.2000;0.6789;1.7116;
583.5000;0.6789;1.7116;
583.8000;0.6789;1.7069;
584.1000;0.6805;1.7163;
584.4000;0.6781;1.7140;
584.7000;0.6724;1.7046;
585.0000;0.6772;1.7186;
585.3000;0.6789;1.7163;
585.6000;0.6699;1.6975;
585.9000;0.6781;1.7140;
586.2000;0.6797;1.7233;
586.5000;0.6789;1.7163;
586.8000;0.6781;1.7186;
587.1000;0.6781;1.7116;
587.4000;0.6772;1.7069;
587.7000;0.6772;1.7046;
588.0000;0.6797;1.7093;
588.3000;0.6789;1.7022;
588.6000;0.6772;1.6999;
588.9000;0.6789;1.7069;
589.2000;0.6781;1.6975;
589.5000;0.6797;1.6952;
589.8000;0.6781;1.6858;
590.1000;0.6789;1.6905;
590.4000;0.6764;1.6858;
590.7000;0.6781;1.6835;
591.0000;0.6789;1.6718;
591.3000;0.6789;1.6694;
591.6000;0.6772;1.6694;
591.9000;0.6789;1.6835;
592.2000;0.6772;1.6882;
592.5000;0.6789;1.7022;
592.8000;0.6789;1.7046;
593.1000;0.6789;1.7046;
593.4000;0.6789;1.7093;
593.7000;0.6797;1.7069;
594.0000;0.6789;1.7022;
594.3000;0.6772;1.6952;
594.6000;0.6789;1.6999;
594.9000;0.6789;1.7022;
595.2000;0.6789;1.6999;
595.5000;0.6846;1.7116;
595.8000;0.6886;1.7163;
596.1000;0.6781;1.7046;
596.4000;0.6797;1.7163;
596.7000;0.6789;1.7116;
597.0000;0.6789;1.7163;
597.3000;0.6797;1.7116;
597.6000;0.6732;1.6999;
597.9000;0.6797;1.7163;
598.2000;0.6781;1.7116;
598.5000;0.6854;1.7210;
598.8000;0.6707;1.6905;
599.1000;0.6781;1.7116;
599.4000;0.6838;1.7257;
599.7000;0.6878;1.7327;
600.0000;0.6789;1.7163;
600.3000;0.6821;1.7140;
600.6000;0.6895;1.7140;
600.9000;0.6789;1.6835;
601.2000;0.6764;1.6647;
601.5000;0.6764;1.6553;
601.8000;0.6667;1.6155;
602.1000;0.6610;1.5967;
602.4000;0.6488;1.5545;
602.7000;0.6504;1.5569;
603.0000;0.6471;1.5428;
603.3000;0.6414;1.5311;
603.6000;0.6390;1.5311;
603.9000;0.6341;1.5100;
604.2000;0.6309;1.4936;
604.5000;0.6268;1.4771;
604.8000;0.6243;1.4678;
605.1000;0.6211;1.4607;
605.4000;0.6170;1.4560;
605.7000;0.6113;1.4396;
606.0000;0.6138;1.4514;
606.3000;0.6113;1.4420;
606.6000;0.6064;1.4256;
606.9000;0.6024;1.4162;
607.2000;0.6007;1.4162;
607.5000;0.5983;1.4162;
607.8000;0.5950;1.4115;
608.1000;0.5934;1.4138;
608.4000;0.5902;1.4209;
608.7000;0.5869;1.4209;
609.0000;0.5853;1.4162;
609.3000;0.5828;1.4115;
609.6000;0.5812;1.4138;
609.9000;0.5779;1.4185;
610.2000;0.5763;1.4209;
610.5000;0.5739;1.4092;
610.8000;0.5722;1.4021;
611.1000;0.5600;1.3763;
611.4000;0.5755;1.4138;
611.7000;0.5665;1.3834;
612.0000;0.5641;1.3787;
612.3000;0.5633;1.3763;
612.6000;0.5625;1.3810;
612.9000;0.5592;1.3763;
613.2000;0.5568;1.3716;
613.5000;0.5551;1.3646;
613.8000;0.5560;1.3576;
614.1000;0.5535;1.3529;
614.4000;0.5486;1.3388;
614.7000;0.5478;1.3341;
615.0000;0.5478;1.3458;
615.3000;0.5478;1.3552;
615.6000;0.5454;1.3599;
615.9000;0.5454;1.3623;
616.2000;0.5429;1.3623;
616.5000;0.5421;1.3552;
616.8000;0.5413;1.3482;
617.1000;0.5397;1.3412;
617.4000;0.5381;1.3412;
617.7000;0.5381;1.3458;
618.0000;0.5364;1.3458;
618.3000;0.5332;1.3388;
618.6000;0.5315;1.3458;
618.9000;0.5299;1.3482;
619.2000;0.5291;1.3482;
619.5000;0.5299;1.3435;
619.8000;0.5307;1.3529;
620.1000;0.5258;1.3529;
620.4000;0.5258;1.3458;
620.7000;0.5267;1.3505;
621.0000;0.5275;1.3552;
621.3000;0.5226;1.3552;
621.6000;0.5218;1.3552;
621.9000;0.5201;1.3529;
622.2000;0.5185;1.3458;
622.5000;0.5169;1.3412;
622.8000;0.5096;1.3341;
623.1000;0.5169;1.3529;
623.4000;0.5144;1.3529;
623.7000;0.5144;1.3576;
624.0000;0.5112;1.3599;
624.3000;0.5120;1.3552;
624.6000;0.5079;1.3529;
624.9000;0.5096;1.3576;
625.2000;0.5079;1.3599;
625.5000;0.5055;1.3576;
625.8000;0.5063;1.3552;
626.1000;0.5055;1.3576;
626.4000;0.5031;1.3435;
626.7000;0.5055;1.3435;
627.0000;0.5055;1.3576;
627.3000;0.5039;1.3599;
627.6000;0.5039;1.3623;
627.9000;0.5022;1.3576;
628.2000;0.4990;1.3529;
628.5000;0.4998;1.3505;
628.8000;0.4982;1.3388;
629.1000;0.4990;1.3365;
629.4000;0.5071;1.3599;
629.7000;0.4990;1.3341;
630.0000;0.4974;1.3224;
630.3000;0.4933;1.3201;
630.6000;0.4941;1.3247;
630.9000;0.4957;1.3341;
631.2000;0.4925;1.3412;
631.5000;0.4917;1.3388;
631.8000;0.4941;1.3482;
632.1000;0.4925;1.3435;
632.4000;0.4908;1.3458;
632.7000;0.4892;1.3505;
633.0000;0.4908;1.3576;
633.3000;0.4892;1.3529;
633.6000;0.4884;1.3505;
633.9000;0.4876;1.3529;
634.2000;0.4868;1.3482;
634.5000;0.4868;1.3341;
634.8000;0.4851;1.3294;
635.1000;0.4851;1.3271;
635.4000;0.4827;1.3271;
635.7000;0.4892;1.3505;
636.0000;0.4843;1.3365;
636.3000;0.4835;1.3341;
636.6000;0.4827;1.3365;
636.9000;0.4827;1.3412;
637.2000;0.4868;1.3482;
637.5000;0.4819;1.3294;
637.8000;0.4811;1.3294;
638.1000;0.4851;1.3247;
638.4000;0.4762;1.2943;
638.7000;0.4786;1.2966;
639.0000;0.4778;1.2919;
639.3000;0.4697;1.2778;
639.6000;0.4827;1.3107;
639.9000;0.4762;1.2943;
640.2000;0.4746;1.2919;
640.5000;0.4786;1.3060;
640.8000;0.4770;1.3036;
641.1000;0.4746;1.3060;
641.4000;0.4705;1.2919;
641.7000;0.4737;1.3083;
642.0000;0.4762;1.3224;
642.3000;0.4729;1.3201;
642.6000;0.4721;1.3294;
642.9000;0.4705;1.3318;
643.2000;0.4705;1.3294;
643.5000;0.4689;1.3154;
643.8000;0.4689;1.3177;
644.1000;0.4697;1.3247;
644.4000;0.4705;1.3271;
644.7000;0.4754;1.3341;
645.0000;0.4689;1.3201;
645.3000;0.4697;1.3177;
645.6000;0.4689;1.3177;
645.9000;0.4681;1.3247;
646.2000;0.4689;1.3365;
646.5000;0.4689;1.3412;
646.8000;0.4648;1.3271;
647.1000;0.4672;1.3365;
647.4000;0.4786;1.3716;
647.7000;0.4664;1.3412;
648.0000;0.4672;1.3341;
648.3000;0.4672;1.3271;
648.6000;0.4656;1.3341;
648.9000;0.4656;1.3365;
649.2000;0.4664;1.3318;
649.5000;0.4632;1.3318;
649.8000;0.4656;1.3365;
650.1000;0.4648;1.3271;
650.4000;0.4681;1.3412;
650.7000;0.4640;1.3318;
651.0000;0.4648;1.3294;
651.3000;0.4632;1.3247;
651.6000;0.4640;1.3435;
651.9000;0.4624;1.3365;
652.2000;0.4624;1.3341;
652.5000;0.4624;1.3458;
652.8000;0.4672;1.3576;
653.1000;0.4615;1.3435;
653.4000;0.4599;1.3294;
653.7000;0.4607;1.3318;
654.0000;0.4615;1.3224;
654.3000;0.4558;1.3013;
654.6000;0.4518;1.2943;
654.9000;0.4599;1.3177;
655.2000;0.4599;1.3177;
655.5000;0.4624;1.3271;
655.8000;0.4575;1.3294;
656.1000;0.4575;1.3365;
656.4000;0.4607;1.3388;
656.7000;0.4477;1.3013;
657.0000;0.4567;1.3201;
657.3000;0.4624;1.3341;
657.6000;0.4575;1.3294;
657.9000;0.4575;1.3341;
658.2000;0.4567;1.3294;
658.5000;0.4575;1.3318;
658.8000;0.4575;1.3294;
659.1000;0.4575;1.3318;
659.4000;0.4558;1.3224;
659.7000;0.4550;1.3294;
660.0000;0.4583;1.3458;
660.3000;0.4624;1.3669;
660.6000;0.4526;1.3435;
660.9000;0.4526;1.3458;
661.2000;0.4542;1.3435;
661.5000;0.4477;1.3247;
661.8000;0.4550;1.3318;
662.1000;0.4542;1.3388;
662.4000;0.4542;1.3388;
662.7000;0.4542;1.3318;
663.0000;0.4558;1.3388;
663.3000;0.4534;1.3365;
663.6000;0.4534;1.3458;
663.9000;0.4534;1.3482;
664.2000;0.4583;1.3599;
664.5000;0.4534;1.3458;
664.8000;0.4542;1.3412;
665.1000;0.4518;1.3412;
665.4000;0.4526;1.3388;
665.7000;0.4510;1.3294;
666.0000;0.4526;1.3341;
666.3000;0.4518;1.3412;
666.6000;0.4501;1.3388;
666.9000;0.4453;1.3177;
667.2000;0.4526;1.3318;
667.5000;0.4510;1.3224;
667.8000;0.4501;1.3294;
668.1000;0.4501;1.3294;
668.4000;0.4493;1.3247;
668.7000;0.4526;1.3224;
669.0000;0.4485;1.3154;
669.3000;0.4518;1.3271;
669.6000;0.4510;1.3294;
669.9000;0.4550;1.3458;
670.2000;0.4501;1.3365;
670.5000;0.4485;1.3294;
670.8000;0.4567;1.3482;
671.1000;0.4477;1.3294;
671.4000;0.4493;1.3271;
671.7000;0.4493;1.3201;
672.0000;0.4485;1.3177;
672.3000;0.4461;1.3177;
672.6000;0.4477;1.3083;
672.9000;0.4469;1.3013;
673.2000;0.4575;1.3271;
673.5000;0.4461;1.3060;
673.8000;0.4485;1.3154;
674.1000;0.4469;1.3130;
674.4000;0.4501;1.3224;
674.7000;0.4436;1.3107;
675.0000;0.4412;1.3130;
675.3000;0.4469;1.3341;
675.6000;0.4469;1.3271;
675.9000;0.4477;1.3271;
676.2000;0.4510;1.3341;
676.5000;0.4453;1.3341;
676.8000;0.4444;1.3318;
677.1000;0.4436;1.3294;
677.4000;0.4469;1.3412;
677.7000;0.4485;1.3505;
678.0000;0.4428;1.3341;
678.3000;0.4461;1.3388;
678.6000;0.4436;1.3318;
678.9000;0.4444;1.3412;
679.2000;0.4444;1.3505;
679.5000;0.4371;1.3318;
679.8000;0.4453;1.3458;
680.1000;0.4428;1.3341;
680.4000;0.4436;1.3294;
680.7000;0.4436;1.3294;
681.0000;0.4510;1.3529;
681.3000;0.4379;1.3224;
681.6000;0.4428;1.3294;
681.9000;0.4436;1.3201;
682.2000;0.4404;1.3177;
682.5000;0.4420;1.3224;
682.8000;0.4444;1.3294;
683.1000;0.4420;1.3294;
683.4000;0.4436;1.3294;
683.7000;0.4420;1.3224;
684.0000;0.4412;1.3201;
684.3000;0.4412;1.3224;
684.6000;0.4428;1.3271;
684.9000;0.4420;1.3294;
685.2000;0.4387;1.3271;
685.5000;0.4420;1.3341;
685.8000;0.4428;1.3365;
686.1000;0.4428;1.3388;
686.4000;0.4428;1.3271;
686.7000;0.4420;1.3271;
687.0000;0.4428;1.3271;
687.3000;0.4436;1.3224;
687.6000;0.4412;1.3107;
687.9000;0.4420;1.3060;
688.2000;0.4387;1.2966;
688.5000;0.4412;1.3083;
688.8000;0.4371;1.2943;
689.1000;0.4396;1.2990;
689.4000;0.4404;1.2990;
689.7000;0.4404;1.3060;
690.0000;0.4404;1.3036;
690.3000;0.4420;1.3107;
690.6000;0.4404;1.3036;
690.9000;0.4404;1.3060;
691.2000;0.4412;1.3083;
691.5000;0.4396;1.3083;
691.8000;0.4404;1.3154;
692.1000;0.4396;1.3201;
692.4000;0.4412;1.3271;
692.7000;0.4404;1.3224;
693.0000;0.4387;1.3154;
693.3000;0.4396;1.3201;
693.6000;0.4363;1.3154;
693.9000;0.4387;1.3224;
694.2000;0.4387;1.3224;
694.5000;0.4404;1.3365;
694.8000;0.4396;1.3388;
695.1000;0.4387;1.3388;
695.4000;0.4371;1.3318;
695.7000;0.4379;1.3341;
696.0000;0.4404;1.3365;
696.3000;0.4379;1.3341;
696.6000;0.4371;1.3435;
696.9000;0.4387;1.3482;
697.2000;0.4355;1.3435;
697.5000;0.4387;1.3505;
697.8000;0.4404;1.3646;
698.1000;0.4355;1.3458;
698.4000;0.4387;1.3388;
698.7000;0.4371;1.3388;
699.0000;0.4379;1.3341;
699.3000;0.4371;1.3341;
699.6000;0.4371;1.3365;
699.9000;0.4371;1.3365;
700.2000;0.4371;1.3412;
700.5000;0.4412;1.3482;
700.8000;0.4379;1.3388;
701.1000;0.4379;1.3435;
701.4000;0.4298;1.3177;
701.7000;0.4347;1.3294;
702.0000;0.4371;1.3341;
702.3000;0.4387;1.3341;
702.6000;0.4371;1.3318;
702.9000;0.4379;1.3388;
703.2000;0.4363;1.3388;
703.5000;0.4387;1.3412;
703.8000;0.4371;1.3318;
704.1000;0.4363;1.3341;
704.4000;0.4347;1.3388;
704.7000;0.4379;1.3365;
705.0000;0.4371;1.3365;
705.3000;0.4371;1.3365;
705.6000;0.4363;1.3341;
705.9000;0.4371;1.3388;
706.2000;0.4347;1.3388;
706.5000;0.4330;1.3294;
706.8000;0.4347;1.3294;
707.1000;0.4355;1.3318;
707.4000;0.4347;1.3154;
707.7000;0.4355;1.3154;
708.0000;0.4363;1.3107;
708.3000;0.4347;1.3154;
708.6000;0.4355;1.3107;
708.9000;0.4363;1.3013;
709.2000;0.4371;1.3013;
709.5000;0.4363;1.2919;
709.8000;0.4339;1.2849;
710.1000;0.4355;1.2802;
710.4000;0.4347;1.2802;
710.7000;0.4347;1.2849;
711.0000;0.4330;1.2825;
711.3000;0.4347;1.2849;
711.6000;0.4306;1.2825;
711.9000;0.4355;1.2872;
712.2000;0.4330;1.2825;
712.5000;0.4347;1.2943;
712.8000;0.4330;1.3036;
713.1000;0.4347;1.3130;
713.4000;0.4330;1.3201;
713.7000;0.4330;1.3177;
714.0000;0.4330;1.3224;
714.3000;0.4355;1.3294;
714.6000;0.4314;1.3177;
714.9000;0.4322;1.3177;
715.2000;0.4339;1.3201;
715.5000;0.4330;1.3271;
715.8000;0.4322;1.3271;
716.1000;0.4322;1.3154;
716.4000;0.4322;1.3154;
716.7000;0.4387;1.3365;
717.0000;0.4363;1.3388;
717.3000;0.4330;1.3318;
717.6000;0.4225;1.3060;
717.9000;0.4330;1.3271;
718.2000;0.4355;1.3412;
718.5000;0.4428;1.3482;
718.8000;0.4330;1.3177;
719.1000;0.4322;1.3201;
719.4000;0.4330;1.3247;
719.7000;0.4322;1.3271;
720.0000;0.4330;1.3341;
720.3000;0.4322;1.3388;
720.6000;0.4290;1.3247;
720.9000;0.4347;1.3412;
721.2000;0.4298;1.3247;
721.5000;0.4298;1.3318;
721.8000;0.4330;1.3482;
722.1000;0.4330;1.3365;
722.4000;0.4241;1.3177;
722.7000;0.4330;1.3365;
723.0000;0.4355;1.3458;
723.3000;0.4330;1.3318;
723.6000;0.4322;1.3247;
723.9000;0.4330;1.3247;
724.2000;0.4314;1.3224;
724.5000;0.4298;1.3247;
724.8000;0.4322;1.3318;
725.1000;0.4322;1.3341;
725.4000;0.4314;1.3388;
725.7000;0.4306;1.3458;
726.0000;0.4330;1.3482;
726.3000;0.4322;1.3458;
726.6000;0.4322;1.3458;
726.9000;0.4322;1.3435;
727.2000;0.4330;1.3529;
727.5000;0.4306;1.3435;
727.8000;0.4306;1.3458;
728.1000;0.4306;1.3271;
728.4000;0.4298;1.3247;
728.7000;0.4330;1.3388;
729.0000;0.4298;1.3412;
729.3000;0.4314;1.3482;
729.6000;0.4306;1.3435;
729.9000;0.4322;1.3482;
730.2000;0.4322;1.3505;
730.5000;0.4322;1.3482;
730.8000;0.4306;1.3435;
731.1000;0.4330;1.3458;
731.4000;0.4322;1.3412;
731.7000;0.4298;1.3318;
732.0000;0.4306;1.3341;
732.3000;0.4322;1.3412;
732.6000;0.4306;1.3435;
732.9000;0.4306;1.3482;
733.2000;0.4298;1.3529;
733.5000;0.4371;1.3763;
733.8000;0.4314;1.3599;
734.1000;0.4330;1.3529;
734.4000;0.4265;1.3388;
734.7000;0.4339;1.3576;
735.0000;0.4314;1.3435;
735.3000;0.4314;1.3412;
735.6000;0.4314;1.3365;
735.9000;0.4314;1.3435;
736.2000;0.4306;1.3458;
736.5000;0.4347;1.3505;
736.8000;0.4306;1.3482;
737.1000;0.4314;1.3505;
737.4000;0.4282;1.3435;
737.7000;0.4322;1.3576;
738.0000;0.4306;1.3576;
738.3000;0.4314;1.3552;
738.6000;0.4314;1.3482;
738.9000;0.4330;1.3505;
739.2000;0.4290;1.3412;
739.5000;0.4290;1.3365;
739.8000;0.4322;1.3388;
740.1000;0.4314;1.3388;
740.4000;0.4306;1.3435;
740.7000;0.4339;1.3482;
741.0000;0.4282;1.3388;
741.3000;0.4298;1.3435;
741.6000;0.4274;1.3318;
741.9000;0.4290;1.3294;
742.2000;0.4298;1.3271;
742.5000;0.4322;1.3271;
742.8000;0.4322;1.3247;
743.1000;0.4290;1.3201;
743.4000;0.4330;1.3294;
743.7000;0.4290;1.3271;
744.0000;0.4306;1.3271;
744.3000;0.4314;1.3412;
744.6000;0.4298;1.3365;
744.9000;0.4306;1.3365;
745.2000;0.4257;1.3224;
745.5000;0.4306;1.3318;
745.8000;0.4306;1.3318;
746.1000;0.4290;1.3271;
746.4000;0.4249;1.3224;
746.7000;0.4314;1.3412;
747.0000;0.4265;1.3294;
747.3000;0.4282;1.3388;
747.6000;0.4298;1.3458;
747.9000;0.4290;1.3482;
748.2000;0.4290;1.3505;
748.5000;0.4306;1.3505;
748.8000;0.4290;1.3458;
749.1000;0.4298;1.3412;
749.4000;0.4306;1.3505;
749.7000;0.4290;1.3576;
750.0000;0.4298;1.3482;
750.3000;0.4282;1.3552;
750.6000;0.4282;1.3646;
750.9000;0.4290;1.3646;
751.2000;0.4282;1.3552;
751.5000;0.4339;1.3646;
751.8000;0.4257;1.3412;
752.1000;0.4347;1.3646;
752.4000;0.4282;1.3458;
752.7000;0.4290;1.3435;
753.0000;0.4290;1.3365;
753.3000;0.4330;1.3435;
753.6000;0.4274;1.3271;
753.9000;0.4257;1.3271;
754.2000;0.4184;1.3036;
754.5000;0.4387;1.3599;
754.8000;0.4282;1.3412;
755.1000;0.4282;1.3365;
755.4000;0.4274;1.3294;
755.7000;0.4290;1.3271;
756.0000;0.4217;1.3107;
756.3000;0.4298;1.3318;
756.6000;0.4298;1.3318;
756.9000;0.4274;1.3294;
757.2000;0.4290;1.3365;
757.5000;0.4339;1.3482;
757.8000;0.4290;1.3365;
758.1000;0.4217;1.3294;
758.4000;0.4322;1.3576;
758.7000;0.4274;1.3412;
759.0000;0.4265;1.3388;
759.3000;0.4274;1.3412;
759.6000;0.4387;1.3669;
759.9000;0.4282;1.3458;
760.2000;0.4282;1.3412;
760.5000;0.4282;1.3435;
760.8000;0.4274;1.3435;
761.1000;0.4282;1.3599;
761.4000;0.4306;1.3599;
761.7000;0.4290;1.3505;
762.0000;0.4265;1.3412;
762.3000;0.4322;1.3576;
762.6000;0.4282;1.3529;
762.9000;0.4274;1.3435;
763.2000;0.4306;1.3482;
763.5000;0.4290;1.3435;
763.8000;0.4274;1.3318;
764.1000;0.4257;1.3201;
764.4000;0.4265;1.3201;
764.7000;0.4282;1.3177;
765.0000;0.4282;1.3154;
765.3000;0.4282;1.3154;
765.6000;0.4290;1.3201;
765.9000;0.4314;1.3247;
766.2000;0.4274;1.3201;
766.5000;0.4290;1.3271;
766.8000;0.4298;1.3271;
767.1000;0.4274;1.3294;
767.4000;0.4274;1.3247;
767.7000;0.4298;1.3247;
768.0000;0.4274;1.3294;
768.3000;0.4339;1.3435;
768.6000;0.4265;1.3247;
768.9000;0.4274;1.3271;
769.2000;0.4233;1.3177;
769.5000;0.4274;1.3247;
769.8000;0.4298;1.3341;
770.1000;0.4290;1.3294;
770.4000;0.4282;1.3294;
770.7000;0.4379;1.3623;
771.0000;0.4282;1.3318;
771.3000;0.4265;1.3271;
771.6000;0.4274;1.3294;
771.9000;0.4249;1.3224;
772.2000;0.4282;1.3294;
772.5000;0.4274;1.3247;
772.8000;0.4396;1.3552;
773.1000;0.4274;1.3294;
773.4000;0.4274;1.3247;
773.7000;0.4379;1.3529;
774.0000;0.4274;1.3294;
774.3000;0.4200;1.3224;
774.6000;0.4282;1.3412;
774.9000;0.4265;1.3341;
775.2000;0.4290;1.3435;
775.5000;0.4265;1.3458;
775.8000;0.4217;1.3294;
776.1000;0.4290;1.3482;
776.4000;0.4257;1.3505;
776.7000;0.4274;1.3552;
777.0000;0.4274;1.3505;
777.3000;0.4249;1.3576;
777.6000;0.4274;1.3716;
777.9000;0.4265;1.3669;
778.2000;0.4249;1.3552;
778.5000;0.4274;1.3576;
778.8000;0.4282;1.3552;
779.1000;0.4274;1.3552;
779.4000;0.4274;1.3623;
779.7000;0.4265;1.3552;
780.0000;0.4282;1.3505;
780.3000;0.4274;1.3505;
780.6000;0.4249;1.3388;
780.9000;0.4282;1.3576;
781.2000;0.4282;1.3623;
781.5000;0.4274;1.3599;
781.8000;0.4282;1.3599;
782.1000;0.4265;1.3552;
782.4000;0.4265;1.3529;
782.7000;0.4282;1.3623;
783.0000;0.4265;1.3505;
783.3000;0.4257;1.3505;
783.6000;0.4282;1.3482;
783.9000;0.4306;1.3482;
784.2000;0.4282;1.3435;
784.5000;0.4265;1.3435;
784.8000;0.4274;1.3505;
785.1000;0.4290;1.3529;
785.4000;0.4282;1.3365;
785.7000;0.4241;1.3224;
786.0000;0.4217;1.3154;
786.3000;0.4249;1.3224;
786.6000;0.4257;1.3341;
786.9000;0.4249;1.3271;
787.2000;0.4274;1.3294;
787.5000;0.4274;1.3388;
787.8000;0.4265;1.3458;
788.1000;0.4274;1.3529;
788.4000;0.4274;1.3576;
788.7000;0.4200;1.3388;
789.0000;0.4249;1.3529;
789.3000;0.4274;1.3505;
789.6000;0.4274;1.3552;
789.9000;0.4274;1.3576;
790.2000;0.4241;1.3482;
790.5000;0.4274;1.3576;
790.8000;0.4257;1.3529;
791.1000;0.4282;1.3552;
791.4000;0.4257;1.3552;
791.7000;0.4257;1.3552;
792.0000;0.4274;1.3669;
792.3000;0.4257;1.3669;
792.6000;0.4265;1.3787;
792.9000;0.4265;1.3693;
793.2000;0.4339;1.3834;
793.5000;0.4265;1.3599;
793.8000;0.4241;1.3599;
794.1000;0.4290;1.3669;
794.4000;0.4249;1.3529;
794.7000;0.4314;1.3623;
795.0000;0.4265;1.3505;
795.3000;0.4274;1.3529;
795.6000;0.4274;1.3552;
795.9000;0.4282;1.3458;
796.2000;0.4233;1.3341;
796.5000;0.4257;1.3482;
796.8000;0.4208;1.3318;
797.1000;0.4257;1.3388;
797.4000;0.4225;1.3271;
797.7000;0.4274;1.3412;
798.0000;0.4265;1.3412;
798.3000;0.4249;1.3318;
798.6000;0.4257;1.3318;
798.9000;0.4249;1.3318;
799.2000;0.4265;1.3412;
799.5000;0.4257;1.3435;
799.8000;0.4265;1.3458;
800.1000;0.4274;1.3552;
800.4000;0.4249;1.3458;
800.7000;0.4249;1.3458;
801.0000;0.4265;1.3435;
801.3000;0.4257;1.3458;
801.6000;0.4249;1.3458;
801.9000;0.4265;1.3529;
802.2000;0.4265;1.3529;
802.5000;0.4257;1.3552;
802.8000;0.4265;1.3505;
803.1000;0.4274;1.3576;
803.4000;0.4298;1.3576;
803.7000;0.4233;1.3412;
804.0000;0.4257;1.3505;
804.3000;0.4257;1.3435;
804.6000;0.4274;1.3458;
804.9000;0.4282;1.3646;
805.2000;0.4282;1.3740;
805.5000;0.4282;1.3763;
805.8000;0.4265;1.3693;
806.1000;0.4241;1.3552;
806.4000;0.4265;1.3552;
806.7000;0.4257;1.3576;
807.0000;0.4257;1.3599;
807.3000;0.4241;1.3505;
807.6000;0.4257;1.3458;
807.9000;0.4282;1.3576;
808.2000;0.4265;1.3458;
808.5000;0.4265;1.3435;
808.8000;0.4257;1.3458;
809.1000;0.4233;1.3412;
809.4000;0.4249;1.3388;
809.7000;0.4469;1.3857;
810.0000;0.4322;1.3505;
810.3000;0.4241;1.3365;
810.6000;0.4208;1.3271;
810.9000;0.4257;1.3318;
811.2000;0.4257;1.3318;
811.5000;0.4265;1.3412;
811.8000;0.4249;1.3388;
812.1000;0.4298;1.3435;
812.4000;0.4249;1.3365;
812.7000;0.4322;1.3576;
813.0000;0.4184;1.3247;
813.3000;0.4265;1.3482;
813.6000;0.4290;1.3458;
813.9000;0.4217;1.3294;
814.2000;0.4363;1.3693;
814.5000;0.4241;1.3435;
814.8000;0.4257;1.3365;
815.1000;0.4274;1.3388;
815.4000;0.4257;1.3365;
815.7000;0.4257;1.3388;
816.0000;0.4208;1.3318;
816.3000;0.4233;1.3388;
816.6000;0.4249;1.3388;
816.9000;0.4241;1.3365;
817.2000;0.4265;1.3388;
817.5000;0.4249;1.3365;
817.8000;0.4249;1.3318;
818.1000;0.4249;1.3294;
818.4000;0.4249;1.3294;
818.7000;0.4314;1.3412;
819.0000;0.4274;1.3341;
819.3000;0.4225;1.3247;
819.6000;0.4249;1.3365;
819.9000;0.4160;1.3154;
820.2000;0.4257;1.3341;
820.5000;0.4274;1.3294;
820.8000;0.4265;1.3294;
821.1000;0.4265;1.3365;
821.4000;0.4233;1.3294;
821.7000;0.4257;1.3365;
822.0000;0.4225;1.3294;
822.3000;0.4257;1.3365;
822.6000;0.4249;1.3412;
822.9000;0.4257;1.3458;
823.2000;0.4241;1.3435;
823.5000;0.4265;1.3505;
823.8000;0.4249;1.3435;
824.1000;0.4265;1.3412;
824.4000;0.4233;1.3388;
824.7000;0.4249;1.3412;
825.0000;0.4241;1.3388;
825.3000;0.4249;1.3388;
825.6000;0.4290;1.3505;
825.9000;0.4298;1.3576;
826.2000;0.4274;1.3482;
826.5000;0.4257;1.3341;
826.8000;0.4249;1.3341;
827.1000;0.4241;1.3341;
827.4000;0.4257;1.3365;
827.7000;0.4257;1.3365;
828.0000;0.4265;1.3271;
828.3000;0.4249;1.3224;
828.6000;0.4265;1.3294;
828.9000;0.4265;1.3388;
829.2000;0.4257;1.3388;
829.5000;0.4257;1.3365;
829.8000;0.4241;1.3271;
830.1000;0.4233;1.3365;
830.4000;0.4265;1.3412;
830.7000;0.4257;1.3365;
831.0000;0.4282;1.3412;
831.3000;0.4249;1.3365;
831.6000;0.4363;1.3646;
831.9000;0.4249;1.3365;
832.2000;0.4233;1.3271;
832.5000;0.4241;1.3247;
832.8000;0.4306;1.3341;
833.1000;0.4249;1.3294;
833.4000;0.4241;1.3294;
833.7000;0.4241;1.3318;
834.0000;0.4396;1.3740;
834.3000;0.4241;1.3365;
834.6000;0.4217;1.3294;
834.9000;0.4225;1.3388;
835.2000;0.4233;1.3388;
835.5000;0.4257;1.3412;
835.8000;0.4249;1.3458;
836.1000;0.4217;1.3552;
836.4000;0.4233;1.3576;
836.7000;0.4249;1.3505;
837.0000;0.4225;1.3435;
837.3000;0.4225;1.3412;
837.6000;0.4241;1.3435;
837.9000;0.4298;1.3482;
838.2000;0.4290;1.3435;
838.5000;0.4241;1.3388;
838.8000;0.4257;1.3458;
839.1000;0.4241;1.3435;
839.4000;0.4249;1.3435;
839.7000;0.4257;1.3388;
840.0000;0.4241;1.3341;
840.3000;0.4143;1.3083;
840.6000;0.4249;1.3435;
840.9000;0.4257;1.3412;
841.2000;0.4265;1.3529;
841.5000;0.4298;1.3646;
841.8000;0.4233;1.3529;
842.1000;0.4257;1.3576;
842.4000;0.4265;1.3599;
842.7000;0.4241;1.3576;
843.0000;0.4249;1.3529;
843.3000;0.4249;1.3552;
843.6000;0.4249;1.3529;
843.9000;0.4257;1.3505;
844.2000;0.4241;1.3505;
844.5000;0.4257;1.3529;
844.8000;0.4233;1.3458;
845.1000;0.4233;1.3435;
845.4000;0.4241;1.3505;
845.7000;0.4241;1.3482;
846.0000;0.4249;1.3458;
846.3000;0.4241;1.3482;
846.6000;0.4233;1.3435;
846.9000;0.4265;1.3458;
847.2000;0.4249;1.3458;
847.5000;0.4265;1.3482;
847.8000;0.4241;1.3529;
848.1000;0.4241;1.3482;
848.4000;0.4249;1.3365;
848.7000;0.4233;1.3294;
849.0000;0.4241;1.3271;
849.3000;0.4241;1.3365;
849.6000;0.4249;1.3482;
849.9000;0.4176;1.3341;
850.2000;0.4217;1.3458;
850.5000;0.4241;1.3552;
850.8000;0.4241;1.3599;
851.1000;0.4257;1.3646;
851.4000;0.4290;1.3716;
851.7000;0.4233;1.3576;
852.0000;0.4249;1.3646;
852.3000;0.4249;1.3623;
852.6000;0.4249;1.3576;
852.9000;0.4265;1.3552;
853.2000;0.4257;1.3576;
853.5000;0.4249;1.3623;
853.8000;0.4265;1.3599;
854.1000;0.4257;1.3552;
854.4000;0.4249;1.3599;
854.7000;0.4241;1.3646;
855.0000;0.4257;1.3693;
855.3000;0.4233;1.3646;
855.6000;0.4249;1.3599;
855.9000;0.4257;1.3646;
856.2000;0.4241;1.3623;
856.5000;0.4241;1.3623;
856.8000;0.4265;1.3669;
857.1000;0.4233;1.3669;
857.4000;0.4249;1.3669;
857.7000;0.4225;1.3646;
858.0000;0.4225;1.3623;
858.3000;0.4249;1.3599;
858.6000;0.4233;1.3482;
858.9000;0.4249;1.3576;
859.2000;0.4290;1.3599;
859.5000;0.4249;1.3482;
859.8000;0.4249;1.3552;
860.1000;0.4257;1.3576;
860.4000;0.4233;1.3529;
860.7000;0.4233;1.3435;
861.0000;0.4241;1.3341;
861.3000;0.4249;1.3435;
861.6000;0.4233;1.3435;
861.9000;0.4265;1.3505;
862.2000;0.4241;1.3482;
862.5000;0.4257;1.3599;
862.8000;0.4257;1.3669;
863.1000;0.4241;1.3623;
863.4000;0.4241;1.3623;
863.7000;0.4257;1.3576;
864.0000;0.4200;1.3365;
864.3000;0.4184;1.3341;
864.6000;0.4249;1.3552;
864.9000;0.4241;1.3458;
865.2000;0.4249;1.3505;
865.5000;0.4257;1.3552;
865.8000;0.4249;1.3576;
866.1000;0.4241;1.3576;
866.4000;0.4233;1.3646;
866.7000;0.4233;1.3763;
867.0000;0.4249;1.3834;
867.3000;0.4274;1.3857;
867.6000;0.4347;1.3904;
867.9000;0.4274;1.3623;
868.2000;0.4249;1.3505;
868.5000;0.4233;1.3412;
868.8000;0.4241;1.3365;
869.1000;0.4241;1.3294;
869.4000;0.4257;1.3341;
869.7000;0.4241;1.3271;
870.0000;0.4208;1.3224;
870.3000;0.4241;1.3271;
870.6000;0.4249;1.3294;
870.9000;0.4249;1.3318;
871.2000;0.4233;1.3294;
871.5000;0.4241;1.3247;
871.8000;0.4249;1.3365;
872.1000;0.4241;1.3388;
872.4000;0.4233;1.3388;
872.7000;0.4241;1.3435;
873.0000;0.4249;1.3365;
873.3000;0.4241;1.3365;
873.6000;0.4233;1.3412;
873.9000;0.4225;1.3365;
874.2000;0.4257;1.3318;
874.5000;0.4225;1.3271;
874.8000;0.4241;1.3388;
875.1000;0.4225;1.3412;
875.4000;0.4233;1.3552;
875.7000;0.4249;1.3529;
876.0000;0.4257;1.3529;
876.3000;0.4241;1.3482;
876.6000;0.4241;1.3529;
876.9000;0.4265;1.3552;
877.2000;0.4249;1.3458;
877.5000;0.4225;1.3388;
877.8000;0.4241;1.3388;
878.1000;0.4208;1.3435;
878.4000;0.4225;1.3529;
878.7000;0.4241;1.3576;
879.0000;0.4265;1.3669;
879.3000;0.4200;1.3552;
879.6000;0.4217;1.3599;
879.9000;0.4241;1.3693;
880.2000;0.4225;1.3623;
880.5000;0.4257;1.3669;
880.8000;0.4241;1.3646;
881.1000;0.4233;1.3646;
881.4000;0.4233;1.3623;
881.7000;0.4249;1.3646;
882.0000;0.4217;1.3552;
882.3000;0.4241;1.3599;
882.6000;0.4241;1.3623;
882.9000;0.4168;1.3435;
883.2000;0.4249;1.3669;
883.5000;0.4176;1.3412;
883.8000;0.4233;1.3458;
884.1000;0.4249;1.3482;
884.4000;0.4241;1.3365;
884.7000;0.4241;1.3365;
885.0000;0.4249;1.3365;
885.3000;0.4233;1.3412;
885.6000;0.4249;1.3529;
885.9000;0.4249;1.3529;
886.2000;0.4233;1.3435;
886.5000;0.4241;1.3458;
886.8000;0.4249;1.3458;
887.1000;0.4257;1.3576;
887.4000;0.4225;1.3623;
887.7000;0.4298;1.3716;
888.0000;0.4241;1.3529;
888.3000;0.4241;1.3599;
888.6000;0.4249;1.3576;
888.9000;0.4233;1.3458;
889.2000;0.4225;1.3435;
889.5000;0.4241;1.3341;
889.8000;0.4233;1.3388;
890.1000;0.4249;1.3412;
890.4000;0.4347;1.3763;
890.7000;0.4249;1.3435;
891.0000;0.4217;1.3365;
891.3000;0.4192;1.3365;
891.6000;0.4249;1.3458;
891.9000;0.4257;1.3576;
892.2000;0.4241;1.3576;
892.5000;0.4217;1.3529;
892.8000;0.4217;1.3482;
893.1000;0.4233;1.3599;
893.4000;0.4249;1.3646;
893.7000;0.4241;1.3669;
894.0000;0.4249;1.3646;
894.3000;0.4249;1.3623;
894.6000;0.4290;1.3716;
894.9000;0.4249;1.3646;
895.2000;0.4241;1.3669;
895.5000;0.4249;1.3763;
895.8000;0.4233;1.3693;
896.1000;0.4241;1.3529;
896.4000;0.4233;1.3505;
896.7000;0.4249;1.3552;
897.0000;0.4249;1.3552;
897.3000;0.4249;1.3529;
897.6000;0.4241;1.3458;
897.9000;0.4249;1.3529;
898.2000;0.4249;1.3623;
898.5000;0.4249;1.3623;
898.8000;0.4249;1.3669;
899.1000;0.4192;1.3505;
899.4000;0.4160;1.3388;
899.7000;0.4225;1.3576;
900.0000;0.4233;1.3529;
900.3000;0.4233;1.3529;
900.6000;0.4208;1.3388;
900.9000;0.4217;1.3365;
901.2000;0.4233;1.3388;
901.5000;0.4217;1.3341;
901.8000;0.4233;1.3318;
902.1000;0.4241;1.3365;
902.4000;0.4225;1.3365;
902.7000;0.4265;1.3482;
903.0000;0.4257;1.3365;
903.3000;0.4233;1.3341;
903.6000;0.4241;1.3435;
903.9000;0.4233;1.3435;
904.2000;0.4274;1.3576;
904.5000;0.4233;1.3458;
904.8000;0.4241;1.3458;
905.1000;0.4314;1.3669;
905.4000;0.4217;1.3388;
905.7000;0.4265;1.3576;
906.0000;0.4249;1.3482;
906.3000;0.4233;1.3482;
906.6000;0.4176;1.3412;
906.9000;0.4241;1.3505;
907.2000;0.4233;1.3599;
907.5000;0.4241;1.3693;
907.8000;0.4192;1.3646;
908.1000;0.4233;1.3740;
908.4000;0.4265;1.3787;
908.7000;0.4151;1.3365;
909.0000;0.4225;1.3552;
909.3000;0.4217;1.3693;
909.6000;0.4225;1.3716;
909.9000;0.4241;1.3763;
910.2000;0.4274;1.3951;
910.5000;0.4233;1.3787;
910.8000;0.4225;1.3740;
911.1000;0.4208;1.3740;
911.4000;0.4200;1.3693;
911.7000;0.4233;1.3716;
912.0000;0.4249;1.3669;
912.3000;0.4151;1.3388;
912.6000;0.4225;1.3458;
912.9000;0.4233;1.3388;
913.2000;0.4249;1.3388;
913.5000;0.4225;1.3365;
913.8000;0.4225;1.3412;
914.1000;0.4217;1.3412;
914.4000;0.4233;1.3412;
914.7000;0.4225;1.3318;
915.0000;0.4233;1.3341;
915.3000;0.4241;1.3388;
915.6000;0.4217;1.3341;
915.9000;0.4233;1.3341;
916.2000;0.4217;1.3341;
916.5000;0.4233;1.3388;
916.8000;0.4241;1.3482;
917.1000;0.4233;1.3458;
917.4000;0.4233;1.3458;
917.7000;0.4241;1.3529;
918.0000;0.4233;1.3552;
918.3000;0.4217;1.3599;
918.6000;0.4225;1.3646;
918.9000;0.4233;1.3623;
919.2000;0.4241;1.3669;
919.5000;0.4241;1.3740;
919.8000;0.4225;1.3669;
920.1000;0.4200;1.3669;
920.4000;0.4176;1.3505;
920.7000;0.4111;1.3318;
921.0000;0.4233;1.3576;
921.3000;0.4208;1.3505;
921.6000;0.4249;1.3552;
921.9000;0.4233;1.3388;
922.2000;0.4217;1.3341;
922.5000;0.4143;1.3107;
922.8000;0.4127;1.3154;
923.1000;0.4225;1.3412;
923.4000;0.4225;1.3388;
923.7000;0.4241;1.3435;
924.0000;0.4217;1.3341;
924.3000;0.4217;1.3271;
924.6000;0.4233;1.3247;
924.9000;0.4225;1.3201;
925.2000;0.4217;1.3177;
925.5000;0.4225;1.3177;
925.8000;0.4225;1.3341;
926.1000;0.4233;1.3412;
926.4000;0.4225;1.3458;
926.7000;0.4241;1.3482;
927.0000;0.4225;1.3458;
927.3000;0.4257;1.3599;
927.6000;0.4233;1.3716;
927.9000;0.4249;1.3740;
928.2000;0.4265;1.3740;
928.5000;0.4225;1.3646;
928.8000;0.4208;1.3576;
929.1000;0.4265;1.3763;
929.4000;0.4241;1.3716;
929.7000;0.4160;1.3505;
930.0000;0.4217;1.3669;
930.3000;0.4233;1.3787;
930.6000;0.4233;1.3787;
930.9000;0.4274;1.3857;
931.2000;0.4225;1.3693;
931.5000;0.4192;1.3623;
931.8000;0.4257;1.3716;
932.1000;0.4200;1.3529;
932.4000;0.4257;1.3669;
932.7000;0.4225;1.3576;
933.0000;0.4225;1.3576;
933.3000;0.4265;1.3693;
933.6000;0.4217;1.3623;
933.9000;0.4233;1.3716;
934.2000;0.4249;1.3740;
934.5000;0.4225;1.3623;
934.8000;0.4249;1.3646;
935.1000;0.4249;1.3623;
935.4000;0.4241;1.3458;
935.7000;0.4225;1.3529;
936.0000;0.4233;1.3458;
936.3000;0.4217;1.3388;
936.6000;0.4225;1.3365;
936.9000;0.4241;1.3365;
937.2000;0.4233;1.3412;
937.5000;0.4249;1.3482;
937.8000;0.4217;1.3458;
938.1000;0.4233;1.3552;
938.4000;0.4233;1.3646;
938.7000;0.4265;1.3693;
939.0000;0.4233;1.3576;
939.3000;0.4233;1.3623;
939.6000;0.4217;1.3505;
939.9000;0.4241;1.3576;
940.2000;0.4241;1.3552;
940.5000;0.4217;1.3435;
940.8000;0.4208;1.3412;
941.1000;0.4241;1.3599;
941.4000;0.4241;1.3646;
941.7000;0.4200;1.3552;
942.0000;0.4233;1.3599;
942.3000;0.4249;1.3599;
942.6000;0.4241;1.3552;
942.9000;0.4233;1.3505;
943.2000;0.4225;1.3552;
943.5000;0.4217;1.3576;
943.8000;0.4225;1.3693;
944.1000;0.4233;1.3623;
944.4000;0.4274;1.3763;
944.7000;0.4200;1.3552;
945.0000;0.4217;1.3552;
945.3000;0.4217;1.3529;
945.6000;0.4070;1.3130;
945.9000;0.4200;1.3412;
946.2000;0.4233;1.3458;
946.5000;0.4225;1.3412;
946.8000;0.4241;1.3435;
947.1000;0.4274;1.3435;
947.4000;0.4282;1.3576;
947.7000;0.4265;1.3505;
948.0000;0.4217;1.3458;
948.3000;0.4233;1.3552;
948.6000;0.4217;1.3623;
948.9000;0.4225;1.3646;
949.2000;0.4241;1.3716;
949.5000;0.4257;1.3693;
949.8000;0.4241;1.3669;
950.1000;0.4249;1.3623;
950.4000;0.4233;1.3599;
950.7000;0.4225;1.3599;
951.0000;0.4225;1.3505;
951.3000;0.4241;1.3599;
951.6000;0.4233;1.3552;
951.9000;0.4233;1.3576;
952.2000;0.4217;1.3529;
952.5000;0.4200;1.3505;
952.8000;0.4314;1.3810;
953.1000;0.4233;1.3576;
953.4000;0.4233;1.3552;
953.7000;0.4249;1.3669;
954.0000;0.4225;1.3623;
954.3000;0.4233;1.3599;
954.6000;0.4241;1.3646;
954.9000;0.4208;1.3552;
955.2000;0.4233;1.3669;
955.5000;0.4241;1.3669;
955.8000;0.4233;1.3646;
956.1000;0.4217;1.3576;
956.4000;0.4233;1.3623;
956.7000;0.4233;1.3669;
957.0000;0.4233;1.3646;
957.3000;0.4241;1.3646;
957.6000;0.4225;1.3552;
957.9000;0.4217;1.3599;
958.2000;0.4225;1.3623;
958.5000;0.4249;1.3669;
958.8000;0.4257;1.3623;
959.1000;0.4225;1.3458;
959.4000;0.4225;1.3435;
959.7000;0.4257;1.3552;
960.0000;0.4225;1.3388;
960.3000;0.4208;1.3318;
960.6000;0.4192;1.3388;
960.9000;0.4225;1.3412;
961.2000;0.4225;1.3365;
961.5000;0.4249;1.3482;
961.8000;0.4241;1.3482;
962.1000;0.4233;1.3505;
962.4000;0.4217;1.3505;
962.7000;0.4208;1.3505;
963.0000;0.4225;1.3599;
963.3000;0.4208;1.3482;
963.6000;0.4208;1.3435;
963.9000;0.4225;1.3458;
964.2000;0.4225;1.3435;
964.5000;0.4233;1.3505;
964.8000;0.4217;1.3505;
965.1000;0.4225;1.3435;
965.4000;0.4225;1.3388;
965.7000;0.4290;1.3505;
966.0000;0.4233;1.3341;
966.3000;0.4355;1.3693;
966.6000;0.4208;1.3365;
966.9000;0.4225;1.3412;
967.2000;0.4241;1.3435;
967.5000;0.4241;1.3458;
967.8000;0.4233;1.3505;
968.1000;0.4233;1.3458;
968.4000;0.4225;1.3435;
968.7000;0.4233;1.3529;
969.0000;0.4282;1.3669;
969.3000;0.4233;1.3623;
969.6000;0.4241;1.3576;
969.9000;0.4192;1.3365;
970.2000;0.4208;1.3482;
970.5000;0.4225;1.3458;
970.8000;0.4217;1.3388;
971.1000;0.4249;1.3505;
971.4000;0.4265;1.3576;
971.7000;0.4225;1.3552;
972.0000;0.4322;1.3740;
972.3000;0.4233;1.3435;
972.6000;0.4225;1.3435;
972.9000;0.4241;1.3341;
973.2000;0.4225;1.3341;
973.5000;0.4225;1.3412;
973.8000;0.4217;1.3318;
974.1000;0.4208;1.3318;
974.4000;0.4225;1.3365;
974.7000;0.4225;1.3365;
975.0000;0.4151;1.3177;
975.3000;0.4225;1.3341;
975.6000;0.4241;1.3271;
975.9000;0.4233;1.3247;
976.2000;0.4233;1.3224;
976.5000;0.4233;1.3107;
976.8000;0.4200;1.3107;
977.1000;0.4217;1.3224;
977.4000;0.4233;1.3201;
977.7000;0.4225;1.3154;
978.0000;0.4233;1.3154;
978.3000;0.4208;1.3154;
978.6000;0.4241;1.3224;
978.9000;0.4208;1.3201;
979.2000;0.4200;1.3177;
979.5000;0.4225;1.3294;
979.8000;0.4233;1.3365;
980.1000;0.4233;1.3318;
980.4000;0.4217;1.3365;
980.7000;0.4241;1.3458;
981.0000;0.4282;1.3458;
981.3000;0.4225;1.3365;
981.6000;0.4208;1.3341;
981.9000;0.4225;1.3435;
982.2000;0.4249;1.3365;
982.5000;0.4208;1.3271;
982.8000;0.4241;1.3318;
983.1000;0.4225;1.3271;
983.4000;0.4217;1.3247;
983.7000;0.4249;1.3294;
984.0000;0.4233;1.3271;
984.3000;0.4330;1.3623;
984.6000;0.4233;1.3435;
984.9000;0.4249;1.3552;
985.2000;0.4217;1.3482;
985.5000;0.4208;1.3599;
985.8000;0.4233;1.3763;
986.1000;0.4241;1.3693;
986.4000;0.4233;1.3716;
986.7000;0.4225;1.3646;
987.0000;0.4225;1.3576;
987.3000;0.4241;1.3599;
987.6000;0.4225;1.3552;
987.9000;0.4233;1.3505;
988.2000;0.4208;1.3412;
988.5000;0.4225;1.3365;
988.8000;0.4225;1.3294;
989.1000;0.4249;1.3271;
989.4000;0.4265;1.3365;
989.7000;0.4225;1.3341;
990.0000;0.4241;1.3271;
990.3000;0.4290;1.3412;
990.6000;0.4241;1.3294;
990.9000;0.4217;1.3247;
991.2000;0.4233;1.3294;
991.5000;0.4249;1.3318;
991.8000;0.4233;1.3341;
992.1000;0.4225;1.3247;
992.4000;0.4241;1.3271;
992.7000;0.4249;1.3412;
993.0000;0.4241;1.3412;
993.3000;0.4135;1.3013;
993.6000;0.4298;1.3505;
993.9000;0.4241;1.3458;
994.2000;0.4241;1.3412;
994.5000;0.4217;1.3435;
994.8000;0.4176;1.3365;
995.1000;0.4233;1.3552;
995.4000;0.4233;1.3552;
995.7000;0.4233;1.3529;
996.0000;0.4233;1.3412;
996.3000;0.4217;1.3435;
996.6000;0.4233;1.3435;
996.9000;0.4217;1.3458;
997.2000;0.4217;1.3412;
997.5000;0.4265;1.3482;
997.8000;0.4274;1.3482;
998.1000;0.4233;1.3388;
998.4000;0.4233;1.3365;
998.7000;0.4160;1.3247;
999.0000;0.4208;1.3435;
999.3000;0.4249;1.3458;
999.6000;0.4233;1.3482;
999.9000;0.4208;1.3388;
1000.2000;0.4225;1.3435;
1000.5000;0.4225;1.3458;
1000.8000;0.4200;1.3388;
1001.1000;0.4330;1.3810;
1001.4000;0.4208;1.3388;
1001.7000;0.4200;1.3388;
1002.0000;0.4217;1.3412;
1002.3000;0.4225;1.3435;
1002.6000;0.4208;1.3458;
1002.9000;0.4217;1.3435;
1003.2000;0.4217;1.3412;
1003.5000;0.4160;1.3224;
1003.8000;0.4225;1.3365;
1004.1000;0.4225;1.3388;
1004.4000;0.4208;1.3505;
1004.7000;0.4208;1.3388;
1005.0000;0.4217;1.3318;
1005.3000;0.4274;1.3412;
1005.6000;0.4241;1.3365;
1005.9000;0.4217;1.3388;
1006.2000;0.4233;1.3365;
1006.5000;0.4217;1.3341;
1006.8000;0.4233;1.3388;
1007.1000;0.4241;1.3294;
1007.4000;0.4208;1.3271;
1007.7000;0.4241;1.3318;
1008.0000;0.4225;1.3294;
1008.3000;0.4282;1.3318;
1008.6000;0.4241;1.3294;
1008.9000;0.4225;1.3294;
1009.2000;0.4233;1.3435;
1009.5000;0.4225;1.3365;
1009.8000;0.4233;1.3365;
1010.1000;0.4208;1.3318;
1010.4000;0.4225;1.3412;
1010.7000;0.4225;1.3412;
1011.0000;0.4208;1.3412;
1011.3000;0.4241;1.3458;
1011.6000;0.4208;1.3365;
1011.9000;0.4208;1.3271;
1012.2000;0.4225;1.3247;
1012.5000;0.4208;1.3201;
1012.8000;0.4225;1.3271;
1013.1000;0.4233;1.3247;
1013.4000;0.4290;1.3365;
1013.7000;0.4233;1.3318;
1014.0000;0.4257;1.3458;
1014.3000;0.4184;1.3294;
1014.6000;0.4282;1.3599;
1014.9000;0.4217;1.3412;
1015.2000;0.4208;1.3388;
1015.5000;0.4257;1.3435;
1015.8000;0.4257;1.3435;
1016.1000;0.4217;1.3365;
1016.4000;0.4217;1.3318;
1016.7000;0.4225;1.3365;
1017.0000;0.4265;1.3412;
1017.3000;0.4233;1.3388;
1017.6000;0.4135;1.3224;
1017.9000;0.4208;1.3412;
1018.2000;0.4233;1.3482;
1018.5000;0.4241;1.3576;
1018.8000;0.4225;1.3482;
1019.1000;0.4274;1.3576;
1019.4000;0.4200;1.3412;
1019.7000;0.4225;1.3365;
1020.0000;0.4241;1.3365;
1020.3000;0.4217;1.3412;
1020.6000;0.4208;1.3341;
1020.9000;0.4233;1.3365;
1021.2000;0.4290;1.3505;
1021.5000;0.4282;1.3552;
1021.8000;0.4151;1.3341;
1022.1000;0.4103;1.3294;
1022.4000;0.4217;1.3412;
1022.7000;0.4274;1.3505;
1023.0000;0.4200;1.3435;
1023.3000;0.4176;1.3365;
1023.6000;0.4217;1.3412;
1023.9000;0.4217;1.3482;
1024.2000;0.4241;1.3505;
1024.5000;0.4208;1.3412;
1024.8000;0.4217;1.3458;
1025.1000;0.4241;1.3458;
1025.4000;0.4257;1.3482;
1025.7000;0.4225;1.3412;
1026.0000;0.4233;1.3552;
1026.3000;0.4241;1.3529;
1026.6000;0.4233;1.3599;
1026.9000;0.4225;1.3505;
1027.2000;0.4249;1.3435;
1027.5000;0.4265;1.3482;
1027.8000;0.4208;1.3412;
1028.1000;0.4233;1.3458;
1028.4000;0.4225;1.3552;
1028.7000;0.4225;1.3412;
1029.0000;0.4208;1.3412;
1029.3000;0.4217;1.3482;
1029.6000;0.4225;1.3482;
1029.9000;0.4217;1.3458;
1030.2000;0.4233;1.3458;
1030.5000;0.4200;1.3318;
1030.8000;0.4225;1.3505;
1031.1000;0.4225;1.3482;
1031.4000;0.4241;1.3505;
1031.7000;0.4233;1.3505;
1032.0000;0.4217;1.3412;
1032.3000;0.4233;1.3458;
1032.6000;0.4241;1.3458;
1032.9000;0.4217;1.3365;
1033.2000;0.4208;1.3341;
1033.5000;0.4217;1.3294;
1033.8000;0.4192;1.3318;
1034.1000;0.4217;1.3365;
1034.4000;0.4208;1.3318;
1034.7000;0.4200;1.3318;
1035.0000;0.4265;1.3458;
1035.3000;0.4233;1.3412;
1035.6000;0.4225;1.3388;
1035.9000;0.4217;1.3458;
1036.2000;0.4217;1.3505;
1036.5000;0.4176;1.3365;
1036.8000;0.4225;1.3365;
1037.1000;0.4208;1.3318;
1037.4000;0.4200;1.3318;
1037.7000;0.4217;1.3247;
1038.0000;0.4217;1.3224;
1038.3000;0.4143;1.3060;
1038.6000;0.4265;1.3388;
1038.9000;0.4225;1.3294;
1039.2000;0.4225;1.3271;
1039.5000;0.4225;1.3318;
1039.8000;0.4208;1.3412;
1040.1000;0.4225;1.3458;
1040.4000;0.4217;1.3482;
1040.7000;0.4217;1.3482;
1041.0000;0.4217;1.3412;
1041.3000;0.4225;1.3412;
1041.6000;0.4233;1.3482;
1041.9000;0.4225;1.3552;
1042.2000;0.4241;1.3529;
1042.5000;0.4241;1.3505;
1042.8000;0.4200;1.3435;
1043.1000;0.4274;1.3599;
1043.4000;0.4208;1.3458;
1043.7000;0.4217;1.3412;
1044.0000;0.4192;1.3341;
1044.3000;0.4225;1.3505;
1044.6000;0.4200;1.3458;
1044.9000;0.4225;1.3529;
1045.2000;0.4184;1.3388;
1045.5000;0.4257;1.3529;
1045.8000;0.4379;1.3763;
1046.1000;0.4184;1.3247;
1046.4000;0.4225;1.3294;
1046.7000;0.4233;1.3294;
1047.0000;0.4208;1.3318;
1047.3000;0.4200;1.3412;
1047.6000;0.4217;1.3388;
1047.9000;0.4241;1.3412;
1048.2000;0.4225;1.3341;
1048.5000;0.4265;1.3412;
1048.8000;0.4192;1.3435;
1049.1000;0.4265;1.3599;
1049.4000;0.4217;1.3435;
1049.7000;0.4217;1.3412;
1050.0000;0.4217;1.3435;
1050.3000;0.4225;1.3458;
1050.6000;0.4241;1.3458;
1050.9000;0.4208;1.3412;
1051.2000;0.4225;1.3412;
1051.5000;0.4225;1.3458;
1051.8000;0.4249;1.3505;
1052.1000;0.4241;1.3505;
1052.4000;0.4274;1.3599;
1052.7000;0.4241;1.3576;
1053.0000;0.4225;1.3576;
1053.3000;0.4241;1.3482;
1053.6000;0.4233;1.3435;
1053.9000;0.4225;1.3388;
1054.2000;0.4233;1.3435;
1054.5000;0.4249;1.3458;
1054.8000;0.4217;1.3412;
1055.1000;0.4208;1.3435;
1055.4000;0.4225;1.3435;
1055.7000;0.4217;1.3435;
1056.0000;0.4233;1.3365;
1056.3000;0.4208;1.3271;
1056.6000;0.4217;1.3318;
1056.9000;0.4233;1.3341;
1057.2000;0.4233;1.3341;
1057.5000;0.4225;1.3388;
1057.8000;0.4192;1.3388;
1058.1000;0.4208;1.3341;
1058.4000;0.4217;1.3365;
1058.7000;0.4225;1.3365;
1059.0000;0.4249;1.3388;
1059.3000;0.4217;1.3294;
1059.6000;0.4200;1.3271;
1059.9000;0.4225;1.3294;
1060.2000;0.4225;1.3365;
1060.5000;0.4225;1.3435;
1060.8000;0.4225;1.3412;
1061.1000;0.4184;1.3318;
1061.4000;0.4274;1.3435;
1061.7000;0.4314;1.3435;
1062.0000;0.4225;1.3224;
1062.3000;0.4233;1.3271;
1062.6000;0.4233;1.3271;
1062.9000;0.4225;1.3177;
1063.2000;0.4249;1.3201;
1063.5000;0.4233;1.3224;
1063.8000;0.4241;1.3271;
1064.1000;0.4200;1.3247;
1064.4000;0.4225;1.3365;
1064.7000;0.4225;1.3365;
1065.0000;0.4241;1.3365;
1065.3000;0.4192;1.3247;
1065.6000;0.4241;1.3341;
1065.9000;0.4225;1.3271;
1066.2000;0.4225;1.3224;
1066.5000;0.4225;1.3201;
1066.8000;0.4225;1.3271;
1067.1000;0.4225;1.3318;
1067.4000;0.4200;1.3294;
1067.7000;0.4217;1.3294;
1068.0000;0.4225;1.3365;
1068.3000;0.4233;1.3412;
1068.6000;0.4225;1.3412;
1068.9000;0.4233;1.3435;
1069.2000;0.4208;1.3318;
1069.5000;0.4217;1.3318;
1069.8000;0.4233;1.3365;
1070.1000;0.4217;1.3294;
1070.4000;0.4225;1.3365;
1070.7000;0.4298;1.3576;
1071.0000;0.4217;1.3318;
1071.3000;0.4225;1.3271;
1071.6000;0.4233;1.3271;
1071.9000;0.4208;1.3154;
1072.2000;0.4135;1.3036;
1072.5000;0.4225;1.3271;
1072.8000;0.4225;1.3365;
1073.1000;0.4217;1.3318;
1073.4000;0.4217;1.3341;
1073.7000;0.4217;1.3271;
1074.0000;0.4217;1.3318;
1074.3000;0.4225;1.3247;
1074.6000;0.4200;1.3247;
1074.9000;0.4200;1.3271;
1075.2000;0.4217;1.3224;
1075.5000;0.4208;1.3177;
1075.8000;0.4225;1.3318;
1076.1000;0.4225;1.3318;
1076.4000;0.4160;1.3201;
1076.7000;0.4225;1.3294;
1077.0000;0.4233;1.3341;
1077.3000;0.4200;1.3318;
1077.6000;0.4233;1.3435;
1077.9000;0.4257;1.3505;
1078.2000;0.4241;1.3458;
1078.5000;0.4217;1.3412;
1078.8000;0.4233;1.3365;
1079.1000;0.4225;1.3294;
1079.4000;0.4160;1.3130;
1079.7000;0.4225;1.3271;
1080.0000;0.4233;1.3341;
1080.3000;0.4217;1.3294;
1080.6000;0.4225;1.3318;
1080.9000;0.4225;1.3318;
1081.2000;0.4200;1.3365;
1081.5000;0.4233;1.3435;
1081.8000;0.4225;1.3365;
1082.1000;0.4217;1.3294;
1082.4000;0.4225;1.3318;
1082.7000;0.4225;1.3388;
1083.0000;0.4217;1.3412;
1083.3000;0.4217;1.3435;
1083.6000;0.4192;1.3247;
1083.9000;0.4208;1.3224;
1084.2000;0.4217;1.3271;
1084.5000;0.4208;1.3365;
1084.8000;0.4200;1.3365;
1085.1000;0.4265;1.3482;
1085.4000;0.4208;1.3341;
1085.7000;0.4200;1.3365;
1086.0000;0.4208;1.3341;
1086.3000;0.4208;1.3294;
1086.6000;0.4233;1.3247;
1086.9000;0.4233;1.3271;
1087.2000;0.4217;1.3294;
1087.5000;0.4208;1.3318;
1087.8000;0.4265;1.3482;
1088.1000;0.4217;1.3435;
1088.4000;0.4225;1.3365;
1088.7000;0.4217;1.3318;
1089.0000;0.4151;1.3130;
1089.3000;0.4225;1.3271;
1089.6000;0.4241;1.3318;
1089.9000;0.4225;1.3294;
1090.2000;0.4241;1.3294;
1090.5000;0.4217;1.3294;
1090.8000;0.4233;1.3341;
1091.1000;0.4225;1.3294;
1091.4000;0.4208;1.3224;
1091.7000;0.4217;1.3201;
1092.0000;0.4217;1.3130;
1092.3000;0.4208;1.3130;
1092.6000;0.4208;1.3083;
1092.9000;0.4290;1.3294;
1093.2000;0.4217;1.3224;
1093.5000;0.4208;1.3201;
1093.8000;0.4208;1.3294;
1094.1000;0.4208;1.3388;
1094.4000;0.4241;1.3412;
1094.7000;0.4225;1.3318;
1095.0000;0.4274;1.3529;
1095.3000;0.4233;1.3318;
1095.6000;0.4143;1.3060;
1095.9000;0.4233;1.3271;
1096.2000;0.4233;1.3341;
1096.5000;0.4225;1.3388;
1096.8000;0.4217;1.3412;
1097.1000;0.4225;1.3458;
1097.4000;0.4200;1.3482;
1097.7000;0.4225;1.3482;
1098.0000;0.4241;1.3482;
1098.3000;0.4241;1.3482;
1098.6000;0.4225;1.3435;
1098.9000;0.4233;1.3365;
1099.2000;0.4192;1.3271;
1099.5000;0.4257;1.3388;
1099.8000;0.4160;1.3107;
1100.1000;0.4233;1.3341;
1100.4000;0.4208;1.3318;
1100.7000;0.4225;1.3294;
1101.0000;0.4208;1.3294;
1101.3000;0.4143;1.3083;
1101.6000;0.4217;1.3271;
1101.9000;0.4225;1.3271;
1102.2000;0.4217;1.3224;
1102.5000;0.4257;1.3318;
1102.8000;0.4200;1.3083;
1103.1000;0.4225;1.3154;
1103.4000;0.4208;1.3154;
1103.7000;0.4217;1.3177;
1104.0000;0.4208;1.3177;
1104.3000;0.4217;1.3318;
1104.6000;0.4217;1.3365;
1104.9000;0.4233;1.3388;
1105.2000;0.4217;1.3271;
1105.5000;0.4217;1.3201;
1105.8000;0.4217;1.3247;
1106.1000;0.4208;1.3247;
1106.4000;0.4208;1.3247;
1106.7000;0.4208;1.3341;
1107.0000;0.4217;1.3271;
1107.3000;0.4208;1.3294;
1107.6000;0.4184;1.3271;
1107.9000;0.4233;1.3365;
1108.2000;0.4265;1.3341;
1108.5000;0.4225;1.3247;
1108.8000;0.4208;1.3107;
1109.1000;0.4233;1.3130;
1109.4000;0.4200;1.3154;
1109.7000;0.4225;1.3201;
1110.0000;0.4225;1.3224;
1110.3000;0.4217;1.3107;
1110.6000;0.4208;1.3083;
1110.9000;0.4217;1.3177;
1111.2000;0.4200;1.3294;
1111.5000;0.4200;1.3271;
1111.8000;0.4233;1.3294;
1112.1000;0.4225;1.3201;
1112.4000;0.4208;1.3177;
1112.7000;0.4225;1.3154;
1113.0000;0.4200;1.3107;
1113.3000;0.4233;1.3130;
1113.6000;0.4217;1.3083;
1113.9000;0.4225;1.3083;
1114.2000;0.4208;1.3130;
1114.5000;0.4200;1.3060;
1114.8000;0.4233;1.3060;
1115.1000;0.4233;1.3224;
1115.4000;0.4225;1.3083;
1115.7000;0.4225;1.2990;
1116.0000;0.4265;1.3130;
1116.3000;0.4249;1.3201;
1116.6000;0.4184;1.3083;
1116.9000;0.4217;1.3271;
1117.2000;0.4217;1.3388;
1117.5000;0.4192;1.3341;
1117.8000;0.4208;1.3271;
1118.1000;0.4225;1.3318;
1118.4000;0.4200;1.3318;
1118.7000;0.4192;1.3294;
1119.0000;0.4225;1.3435;
1119.3000;0.4151;1.3271;
1119.6000;0.4176;1.3318;
1119.9000;0.4103;1.3060;
1120.2000;0.4184;1.3201;
1120.5000;0.4217;1.3271;
1120.8000;0.4111;1.3083;
1121.1000;0.4290;1.3552;
1121.4000;0.4208;1.3341;
1121.7000;0.4233;1.3365;
1122.0000;0.4233;1.3341;
1122.3000;0.4160;1.3083;
1122.6000;0.4217;1.3271;
1122.9000;0.4241;1.3365;
1123.2000;0.4217;1.3388;
1123.5000;0.4217;1.3388;
1123.8000;0.4233;1.3458;
1124.1000;0.4225;1.3412;
1124.4000;0.4233;1.3435;
1124.7000;0.4233;1.3365;
1125.0000;0.4217;1.3365;
1125.3000;0.4217;1.3388;
1125.6000;0.4208;1.3365;
1125.9000;0.4200;1.3318;
1126.2000;0.4208;1.3247;
1126.5000;0.4233;1.3294;
1126.8000;0.4225;1.3365;
1127.1000;0.4225;1.3365;
1127.4000;0.4200;1.3341;
1127.7000;0.4225;1.3341;
1128.0000;0.4233;1.3412;
1128.3000;0.4217;1.3365;
1128.6000;0.4217;1.3318;
1128.9000;0.4208;1.3294;
1129.2000;0.4208;1.3247;
1129.5000;0.4217;1.3271;
1129.8000;0.4208;1.3294;
1130.1000;0.4208;1.3412;
1130.4000;0.4249;1.3505;
1130.7000;0.4233;1.3365;
1131.0000;0.4151;1.3107;
1131.3000;0.4225;1.3318;
1131.6000;0.4217;1.3365;
1131.9000;0.4217;1.3365;
1132.2000;0.4233;1.3365;
1132.5000;0.4192;1.3224;
1132.8000;0.4225;1.3365;
1133.1000;0.4200;1.3341;
1133.4000;0.4192;1.3365;
1133.7000;0.4225;1.3482;
1134.0000;0.4192;1.3482;
1134.3000;0.4208;1.3529;
1134.6000;0.4192;1.3482;
1134.9000;0.4217;1.3482;
1135.2000;0.4208;1.3576;
1135.5000;0.4225;1.3529;
1135.8000;0.4217;1.3505;
1136.1000;0.4217;1.3576;
1136.4000;0.4225;1.3552;
1136.7000;0.4241;1.3623;
1137.0000;0.4225;1.3576;
1137.3000;0.4200;1.3505;
1137.6000;0.4233;1.3529;
1137.9000;0.4225;1.3482;
1138.2000;0.4233;1.3482;
1138.5000;0.4282;1.3552;
1138.8000;0.4233;1.3458;
1139.1000;0.4217;1.3412;
1139.4000;0.4208;1.3388;
1139.7000;0.4225;1.3341;
1140.0000;0.4208;1.3318;
1140.3000;0.4208;1.3294;
1140.6000;0.4233;1.3341;
1140.9000;0.4200;1.3388;
1141.2000;0.4200;1.3458;
1141.5000;0.4176;1.3365;
1141.8000;0.4208;1.3482;
1142.1000;0.4168;1.3318;
1142.4000;0.4225;1.3552;
1142.7000;0.4200;1.3458;
1143.0000;0.4217;1.3482;
1143.3000;0.4241;1.3458;
1143.6000;0.4233;1.3435;
1143.9000;0.4168;1.3318;
1144.2000;0.4225;1.3412;
1144.5000;0.4249;1.3505;
1144.8000;0.4200;1.3341;
1145.1000;0.4257;1.3458;
1145.4000;0.4225;1.3458;
1145.7000;0.4208;1.3435;
1146.0000;0.4217;1.3458;
1146.3000;0.4217;1.3482;
1146.6000;0.4208;1.3412;
1146.9000;0.4225;1.3482;
1147.2000;0.4249;1.3552;
1147.5000;0.4233;1.3529;
1147.8000;0.4217;1.3458;
1148.1000;0.4225;1.3388;
1148.4000;0.4184;1.3388;
1148.7000;0.4225;1.3576;
1149.0000;0.4208;1.3623;
1149.3000;0.4217;1.3576;
1149.6000;0.4233;1.3740;
1149.9000;0.4249;1.3810;
1150.2000;0.4233;1.3810;
1150.5000;0.4217;1.3646;
1150.8000;0.4217;1.3599;
1151.1000;0.4208;1.3529;
1151.4000;0.4176;1.3505;
1151.7000;0.4208;1.3505;
1152.0000;0.4233;1.3529;
1152.3000;0.4217;1.3529;
1152.6000;0.4208;1.3505;
1152.9000;0.4225;1.3412;
1153.2000;0.4176;1.3388;
1153.5000;0.4225;1.3435;
1153.8000;0.4241;1.3529;
1154.1000;0.4225;1.3576;
1154.4000;0.4265;1.3693;
1154.7000;0.4241;1.3693;
1155.0000;0.4208;1.3646;
1155.3000;0.4217;1.3529;
1155.6000;0.4249;1.3482;
1155.9000;0.4208;1.3341;
1156.2000;0.4225;1.3341;
1156.5000;0.4192;1.3318;
1156.8000;0.4225;1.3365;
1157.1000;0.4233;1.3435;
1157.4000;0.4249;1.3388;
1157.7000;0.4217;1.3318;
1158.0000;0.4225;1.3294;
1158.3000;0.4241;1.3294;
1158.6000;0.4241;1.3271;
1158.9000;0.4282;1.3365;
1159.2000;0.4208;1.3271;
1159.5000;0.4217;1.3247;
1159.8000;0.4192;1.3177;
1160.1000;0.4225;1.3201;
1160.4000;0.4225;1.3177;
1160.7000;0.4208;1.3060;
1161.0000;0.4225;1.3107;
1161.3000;0.4217;1.3083;
1161.6000;0.4233;1.3154;
1161.9000;0.4217;1.3083;
1162.2000;0.4217;1.3060;
1162.5000;0.4217;1.3154;
1162.8000;0.4176;1.3013;
1163.1000;0.4225;1.3083;
1163.4000;0.4200;1.3130;
1163.7000;0.4200;1.3177;
1164.0000;0.4233;1.3294;
1164.3000;0.4208;1.3224;
1164.6000;0.4200;1.3154;
1164.9000;0.4160;1.2943;
1165.2000;0.4208;1.3013;
1165.5000;0.4225;1.2943;
1165.8000;0.4217;1.2872;
1166.1000;0.4208;1.2732;
1166.4000;0.4200;1.2708;
1166.7000;0.4217;1.2732;
1167.0000;0.4200;1.2755;
1167.3000;0.4208;1.2849;
1167.6000;0.4225;1.2849;
1167.9000;0.4233;1.2896;
1168.2000;0.4184;1.2872;
1168.5000;0.4200;1.2990;
1168.8000;0.4217;1.2990;
1169.1000;0.4217;1.2872;
1169.4000;0.4241;1.2943;
1169.7000;0.4208;1.2943;
1170.0000;0.4217;1.3013;
1170.3000;0.4249;1.3083;
1170.6000;0.4233;1.3107;
1170.9000;0.4225;1.3107;
1171.2000;0.4208;1.3201;
1171.5000;0.4208;1.3201;
1171.8000;0.4233;1.3177;
1172.1000;0.4225;1.3083;
1172.4000;0.4217;1.3013;
1172.7000;0.4217;1.2919;
1173.0000;0.4225;1.2943;
1173.3000;0.4225;1.2990;
1173.6000;0.4225;1.2990;
1173.9000;0.4217;1.3060;
1174.2000;0.4225;1.3130;
1174.5000;0.4200;1.3201;
1174.8000;0.4265;1.3341;
1175.1000;0.4233;1.3201;
1175.4000;0.4241;1.3318;
1175.7000;0.4217;1.3271;
1176.0000;0.4217;1.3294;
1176.3000;0.4217;1.3365;
1176.6000;0.4217;1.3341;
1176.9000;0.4217;1.3388;
1177.2000;0.4241;1.3435;
1177.5000;0.4225;1.3341;
1177.8000;0.4217;1.3388;
1178.1000;0.4241;1.3505;
1178.4000;0.4208;1.3482;
1178.7000;0.4208;1.3412;
1179.0000;0.4192;1.3341;
1179.3000;0.4233;1.3458;
1179.6000;0.4225;1.3435;
1179.9000;0.4217;1.3482;
1180.2000;0.4151;1.3388;
1180.5000;0.4208;1.3482;
1180.8000;0.4168;1.3247;
1181.1000;0.4233;1.3365;
1181.4000;0.4217;1.3365;
1181.7000;0.4217;1.3388;
1182.0000;0.4217;1.3388;
1182.3000;0.4233;1.3388;
1182.6000;0.4225;1.3318;
1182.9000;0.4225;1.3318;
1183.2000;0.4233;1.3412;
1183.5000;0.4217;1.3318;
1183.8000;0.4225;1.3318;
1184.1000;0.4225;1.3294;
1184.4000;0.4225;1.3271;
1184.7000;0.4225;1.3271;
1185.0000;0.4233;1.3341;
1185.3000;0.4200;1.3318;
1185.6000;0.4225;1.3435;
1185.9000;0.4241;1.3412;
1186.2000;0.4241;1.3412;
1186.5000;0.4233;1.3388;
1186.8000;0.4233;1.3412;
1187.1000;0.4208;1.3365;
1187.4000;0.4274;1.3529;
1187.7000;0.4208;1.3412;
1188.0000;0.4192;1.3341;
1188.3000;0.4200;1.3318;
1188.6000;0.4208;1.3341;
1188.9000;0.4217;1.3365;
1189.2000;0.4208;1.3247;
1189.5000;0.4233;1.3318;
1189.8000;0.4233;1.3365;
1190.1000;0.4225;1.3388;
1190.4000;0.4249;1.3458;
1190.7000;0.4217;1.3341;
1191.0000;0.4208;1.3271;
1191.3000;0.4217;1.3341;
1191.6000;0.4217;1.3341;
1191.9000;0.4225;1.3412;
1192.2000;0.4217;1.3458;
1192.5000;0.4225;1.3576;
1192.8000;0.4249;1.3623;
1193.1000;0.4200;1.3458;
1193.4000;0.4151;1.3294;
1193.7000;0.4200;1.3482;
1194.0000;0.4225;1.3505;
1194.3000;0.4225;1.3388;
1194.6000;0.4217;1.3412;
1194.9000;0.4233;1.3294;
1195.2000;0.4233;1.3318;
1195.5000;0.4241;1.3271;
1195.8000;0.4192;1.3130;
1196.1000;0.4217;1.3224;
1196.4000;0.4233;1.3247;
1196.7000;0.4225;1.3247;
1197.0000;0.4225;1.3247;
1197.3000;0.4306;1.3412;
1197.6000;0.4233;1.3224;
1197.9000;0.4200;1.3177;
1198.2000;0.4225;1.3294;
1198.5000;0.4217;1.3247;
1198.8000;0.4200;1.3154;
1199.1000;0.4233;1.3247;
1199.4000;0.4208;1.3224;
1199.7000;0.4200;1.3271;
1200.0000;0.4200;1.3247;
1200.3000;0.4217;1.3365;
1200.6000;0.4217;1.3318;
1200.9000;0.4217;1.3365;
1201.2000;0.4208;1.3341;
1201.5000;0.4225;1.3365;
1201.8000;0.4200;1.3271;
1202.1000;0.4339;1.3552;
1202.4000;0.4233;1.3365;
1202.7000;0.4249;1.3412;
1203.0000;0.4282;1.3529;
1203.3000;0.4208;1.3412;
1203.6000;0.4225;1.3505;
1203.9000;0.4225;1.3412;
1204.2000;0.4200;1.3388;
1204.5000;0.4241;1.3482;
1204.8000;0.4217;1.3412;
1205.1000;0.4208;1.3458;
1205.4000;0.4225;1.3482;
1205.7000;0.4200;1.3458;
1206.0000;0.4265;1.3576;
1206.3000;0.4225;1.3458;
1206.6000;0.4233;1.3458;
1206.9000;0.4225;1.3435;
1207.2000;0.4217;1.3271;
1207.5000;0.4192;1.3201;
1207.8000;0.4208;1.3224;
1208.1000;0.4217;1.3271;
1208.4000;0.4200;1.3224;
1208.7000;0.4208;1.3177;
1209.0000;0.4257;1.3271;
1209.3000;0.4208;1.3107;
1209.6000;0.4225;1.3201;
1209.9000;0.4217;1.3177;
1210.2000;0.4217;1.3177;
1210.5000;0.4217;1.3247;
1210.8000;0.4225;1.3271;
1211.1000;0.4208;1.3247;
1211.4000;0.4160;1.3083;
1211.7000;0.4225;1.3294;
1212.0000;0.4217;1.3271;
1212.3000;0.4208;1.3271;
1212.6000;0.4225;1.3271;
1212.9000;0.4225;1.3318;
1213.2000;0.4176;1.3224;
1213.5000;0.4217;1.3247;
1213.8000;0.4176;1.3154;
1214.1000;0.4208;1.3271;
1214.4000;0.4274;1.3388;
1214.7000;0.4208;1.3247;
1215.0000;0.4217;1.3294;
1215.3000;0.4208;1.3341;
1215.6000;0.4217;1.3341;
1215.9000;0.4208;1.3388;
1216.2000;0.4151;1.3224;
1216.5000;0.4192;1.3365;
1216.8000;0.4233;1.3318;
1217.1000;0.4233;1.3435;
1217.4000;0.4225;1.3435;
1217.7000;0.4192;1.3318;
1218.0000;0.4217;1.3294;
1218.3000;0.4274;1.3482;
1218.6000;0.4208;1.3294;
1218.9000;0.4208;1.3294;
1219.2000;0.4233;1.3365;
1219.5000;0.4233;1.3388;
1219.8000;0.4184;1.3294;
1220.1000;0.4225;1.3341;
1220.4000;0.4217;1.3458;
1220.7000;0.4225;1.3529;
1221.0000;0.4225;1.3505;
1221.3000;0.4208;1.3435;
1221.6000;0.4225;1.3482;
1221.9000;0.4249;1.3435;
1222.2000;0.4208;1.3341;
1222.5000;0.4217;1.3294;
1222.8000;0.4217;1.3271;
1223.1000;0.4225;1.3365;
1223.4000;0.4225;1.3341;
1223.7000;0.4330;1.3599;
1224.0000;0.4233;1.3388;
1224.3000;0.4225;1.3435;
1224.6000;0.4241;1.3435;
1224.9000;0.4208;1.3388;
1225.2000;0.4208;1.3388;
1225.5000;0.4225;1.3412;
1225.8000;0.4225;1.3482;
1226.1000;0.4225;1.3458;
1226.4000;0.4160;1.3365;
1226.7000;0.4208;1.3435;
1227.0000;0.4217;1.3341;
1227.3000;0.4208;1.3365;
1227.6000;0.4225;1.3365;
1227.9000;0.4282;1.3505;
1228.2000;0.4233;1.3294;
1228.5000;0.4233;1.3341;
1228.8000;0.4225;1.3294;
1229.1000;0.4135;1.3177;
1229.4000;0.4233;1.3458;
1229.7000;0.4225;1.3412;
1230.0000;0.4184;1.3271;
1230.3000;0.4208;1.3341;
1230.6000;0.4225;1.3388;
1230.9000;0.4225;1.3365;
1231.2000;0.4265;1.3529;
1231.5000;0.4225;1.3412;
1231.8000;0.4208;1.3365;
1232.1000;0.4208;1.3294;
1232.4000;0.4217;1.3154;
1232.7000;0.4135;1.2943;
1233.0000;0.4265;1.3107;
1233.3000;0.4208;1.3083;
1233.6000;0.4241;1.3294;
1233.9000;0.4208;1.3271;
1234.2000;0.4233;1.3318;
1234.5000;0.4225;1.3318;
1234.8000;0.4200;1.3294;
1235.1000;0.4233;1.3365;
1235.4000;0.4233;1.3365;
1235.7000;0.4200;1.3247;
1236.0000;0.4314;1.3529;
1236.3000;0.4225;1.3341;
1236.6000;0.4094;1.3013;
1236.9000;0.4086;1.3013;
1237.2000;0.4306;1.3623;
1237.5000;0.4200;1.3412;
1237.8000;0.4217;1.3341;
1238.1000;0.4184;1.3271;
1238.4000;0.4306;1.3552;
1238.7000;0.4184;1.3201;
1239.0000;0.4225;1.3294;
1239.3000;0.4241;1.3341;
1239.6000;0.4217;1.3294;
1239.9000;0.4217;1.3294;
1240.2000;0.4208;1.3224;
1240.5000;0.4217;1.3318;
1240.8000;0.4233;1.3412;
1241.1000;0.4217;1.3482;
1241.4000;0.4225;1.3552;
1241.7000;0.4225;1.3552;
1242.0000;0.4225;1.3505;
1242.3000;0.4208;1.3435;
1242.6000;0.4217;1.3505;
1242.9000;0.4143;1.3341;
1243.2000;0.4208;1.3482;
1243.5000;0.4217;1.3412;
1243.8000;0.4249;1.3388;
1244.1000;0.4217;1.3271;
1244.4000;0.4192;1.3154;
1244.7000;0.4208;1.3201;
1245.0000;0.4225;1.3201;
1245.3000;0.4217;1.3107;
1245.6000;0.4233;1.3177;
1245.9000;0.4241;1.3224;
1246.2000;0.4192;1.3201;
1246.5000;0.4249;1.3412;
1246.8000;0.4233;1.3318;
1247.1000;0.4225;1.3318;
1247.4000;0.4192;1.3201;
1247.7000;0.4217;1.3224;
1248.0000;0.4233;1.3224;
1248.3000;0.4217;1.3318;
1248.6000;0.4192;1.3271;
1248.9000;0.4225;1.3318;
1249.2000;0.4225;1.3294;
1249.5000;0.4184;1.3036;
1249.8000;0.4233;1.3107;
1250.1000;0.4233;1.3201;
1250.4000;0.4208;1.3294;
1250.7000;0.4225;1.3341;
1251.0000;0.4225;1.3294;
1251.3000;0.4249;1.3412;
1251.6000;0.4225;1.3365;
1251.9000;0.4233;1.3318;
1252.2000;0.4217;1.3341;
1252.5000;0.4265;1.3435;
1252.8000;0.4176;1.3154;
1253.1000;0.4225;1.3247;
1253.4000;0.4217;1.3341;
1253.7000;0.4217;1.3435;
1254.0000;0.4217;1.3412;
1254.3000;0.4217;1.3482;
1254.6000;0.4225;1.3388;
1254.9000;0.4217;1.3341;
1255.2000;0.4217;1.3294;
1255.5000;0.4225;1.3224;
1255.8000;0.4217;1.3224;
1256.1000;0.4225;1.3247;
1256.4000;0.4225;1.3247;
1256.7000;0.4282;1.3388;
1257.0000;0.4217;1.3224;
1257.3000;0.4217;1.3224;
1257.6000;0.4241;1.3224;
1257.9000;0.4217;1.3201;
1258.2000;0.4225;1.3294;
1258.5000;0.4217;1.3224;
1258.8000;0.4217;1.3201;
1259.1000;0.4233;1.3271;
1259.4000;0.4233;1.3271;
1259.7000;0.4249;1.3365;
1260.0000;0.4217;1.3271;
1260.3000;0.4192;1.3294;
1260.6000;0.4217;1.3341;
1260.9000;0.4168;1.3177;
1261.2000;0.4208;1.3271;
1261.5000;0.4208;1.3224;
1261.8000;0.4225;1.3201;
1262.1000;0.4322;1.3412;
1262.4000;0.4241;1.3177;
1262.7000;0.4192;1.3177;
1263.0000;0.4233;1.3247;
1263.3000;0.4208;1.3154;
1263.6000;0.4217;1.3154;
1263.9000;0.4217;1.3201;
1264.2000;0.4217;1.3224;
1264.5000;0.4217;1.3247;
1264.8000;0.4217;1.3154;
1265.1000;0.4217;1.3130;
1265.4000;0.4217;1.3154;
1265.7000;0.4233;1.3247;
1266.0000;0.4225;1.3271;
1266.3000;0.4208;1.3224;
1266.6000;0.4225;1.3294;
1266.9000;0.4217;1.3271;
1267.2000;0.4225;1.3247;
1267.5000;0.4225;1.3224;
1267.8000;0.4233;1.3224;
1268.1000;0.4225;1.3201;
1268.4000;0.4298;1.3388;
1268.7000;0.4225;1.3224;
1269.0000;0.4217;1.3224;
1269.3000;0.4233;1.3318;
1269.6000;0.4233;1.3318;
1269.9000;0.4208;1.3294;
1270.2000;0.4208;1.3318;
1270.5000;0.4233;1.3341;
1270.8000;0.4225;1.3341;
1271.1000;0.4225;1.3365;
1271.4000;0.4241;1.3388;
1271.7000;0.4208;1.3341;
1272.0000;0.4208;1.3365;
1272.3000;0.4225;1.3365;
1272.6000;0.4200;1.3435;
1272.9000;0.4192;1.3271;
1273.2000;0.4208;1.3224;
1273.5000;0.4233;1.3294;
1273.8000;0.4217;1.3341;
1274.1000;0.4217;1.3341;
1274.4000;0.4151;1.3107;
1274.7000;0.4208;1.3247;
1275.0000;0.4200;1.3318;
1275.3000;0.4225;1.3388;
1275.6000;0.4217;1.3365;
1275.9000;0.4225;1.3458;
1276.2000;0.4257;1.3552;
1276.5000;0.4225;1.3576;
1276.8000;0.4208;1.3482;
1277.1000;0.4217;1.3529;
1277.4000;0.4249;1.3576;
1277.7000;0.4225;1.3529;
1278.0000;0.4200;1.3412;
1278.3000;0.4217;1.3388;
1278.6000;0.4233;1.3341;
1278.9000;0.4225;1.3271;
1279.2000;0.4217;1.3341;
1279.5000;0.4225;1.3271;
1279.8000;0.4217;1.3271;
1280.1000;0.4233;1.3318;
1280.4000;0.4208;1.3318;
1280.7000;0.4217;1.3318;
1281.0000;0.4241;1.3388;
1281.3000;0.4217;1.3388;
1281.6000;0.4225;1.3318;
1281.9000;0.4233;1.3341;
1282.2000;0.4208;1.3341;
1282.5000;0.4217;1.3341;
1282.8000;0.4274;1.3599;
1283.1000;0.4233;1.3529;
1283.4000;0.4200;1.3458;
1283.7000;0.4208;1.3388;
1284.0000;0.4176;1.3224;
1284.3000;0.4200;1.3247;
1284.6000;0.4200;1.3224;
1284.9000;0.4208;1.3294;
1285.2000;0.4225;1.3365;
1285.5000;0.4200;1.3341;
1285.8000;0.4208;1.3435;
1286.1000;0.4225;1.3505;
1286.4000;0.4217;1.3412;
1286.7000;0.4233;1.3458;
1287.0000;0.4233;1.3458;
1287.3000;0.4225;1.3482;
1287.6000;0.4208;1.3388;
1287.9000;0.4217;1.3341;
1288.2000;0.4274;1.3482;
1288.5000;0.4225;1.3412;
1288.8000;0.4184;1.3271;
1289.1000;0.4225;1.3435;
1289.4000;0.4225;1.3388;
1289.7000;0.4208;1.3388;
1290.0000;0.4225;1.3294;
1290.3000;0.4225;1.3294;
1290.6000;0.4265;1.3412;
1290.9000;0.4184;1.3247;
1291.2000;0.4225;1.3271;
1291.5000;0.4233;1.3294;
1291.8000;0.4200;1.3154;
1292.1000;0.4225;1.3201;
1292.4000;0.4217;1.3224;
1292.7000;0.4233;1.3294;
1293.0000;0.4217;1.3271;
1293.3000;0.4217;1.3201;
1293.6000;0.4208;1.3060;
1293.9000;0.4233;1.3130;
1294.2000;0.4217;1.3154;
1294.5000;0.4217;1.3201;
1294.8000;0.4217;1.3341;
1295.1000;0.4192;1.3365;
1295.4000;0.4208;1.3224;
1295.7000;0.4168;1.3154;
1296.0000;0.4208;1.3247;
1296.3000;0.4217;1.3294;
1296.6000;0.4217;1.3294;
1296.9000;0.4225;1.3388;
1297.2000;0.4208;1.3294;
1297.5000;0.4184;1.3177;
1297.8000;0.4225;1.3271;
1298.1000;0.4200;1.3247;
1298.4000;0.4282;1.3599;
1298.7000;0.4217;1.3388;
1299.0000;0.4233;1.3505;
1299.3000;0.4241;1.3529;
1299.6000;0.4225;1.3505;
1299.9000;0.4233;1.3529;
1300.2000;0.4241;1.3552;
1300.5000;0.4208;1.3458;
1300.8000;0.4225;1.3505;
1301.1000;0.4208;1.3482;
1301.4000;0.4225;1.3482;
1301.7000;0.4225;1.3482;
1302.0000;0.4208;1.3365;
1302.3000;0.4208;1.3224;
1302.6000;0.4176;1.3107;
1302.9000;0.4217;1.3154;
1303.2000;0.4241;1.3201;
1303.5000;0.4225;1.3177;
1303.8000;0.4119;1.2872;
1304.1000;0.4217;1.3177;
1304.4000;0.4200;1.3201;
1304.7000;0.4192;1.3224;
1305.0000;0.4225;1.3224;
1305.3000;0.4225;1.3271;
1305.6000;0.4192;1.3318;
1305.9000;0.4208;1.3388;
1306.2000;0.4192;1.3341;
1306.5000;0.4217;1.3294;
1306.8000;0.4217;1.3341;
1307.1000;0.4217;1.3341;
1307.4000;0.4208;1.3388;
1307.7000;0.4192;1.3412;
1308.0000;0.4208;1.3412;
1308.3000;0.4233;1.3365;
1308.6000;0.4208;1.3294;
1308.9000;0.4225;1.3365;
1309.2000;0.4217;1.3482;
1309.5000;0.4217;1.3458;
1309.8000;0.4257;1.3482;
1310.1000;0.4225;1.3458;
1310.4000;0.4151;1.3318;
1310.7000;0.4217;1.3482;
1311.0000;0.4241;1.3529;
1311.3000;0.4217;1.3341;
1311.6000;0.4217;1.3341;
1311.9000;0.4217;1.3388;
1312.2000;0.4208;1.3458;
1312.5000;0.4225;1.3482;
1312.8000;0.4290;1.3623;
1313.1000;0.4225;1.3435;
1313.4000;0.4233;1.3458;
1313.7000;0.4241;1.3435;
1314.0000;0.4225;1.3482;
1314.3000;0.4217;1.3529;
1314.6000;0.4225;1.3435;
1314.9000;0.4241;1.3505;
1315.2000;0.4217;1.3435;
1315.5000;0.4208;1.3458;
1315.8000;0.4192;1.3458;
1316.1000;0.4217;1.3529;
1316.4000;0.4217;1.3576;
1316.7000;0.4241;1.3552;
1317.0000;0.4208;1.3435;
1317.3000;0.4208;1.3388;
1317.6000;0.4200;1.3341;
1317.9000;0.4192;1.3365;
1318.2000;0.4208;1.3341;
1318.5000;0.4200;1.3388;
1318.8000;0.4200;1.3435;
1319.1000;0.4217;1.3482;
1319.4000;0.4217;1.3529;
1319.7000;0.4208;1.3482;
1320.0000;0.4217;1.3482;
1320.3000;0.4339;1.3810;
1320.6000;0.4257;1.3623;
1320.9000;0.4217;1.3505;
1321.2000;0.4200;1.3388;
1321.5000;0.4217;1.3412;
1321.8000;0.4233;1.3341;
1322.1000;0.4290;1.3505;
1322.4000;0.4217;1.3318;
1322.7000;0.4200;1.3388;
1323.0000;0.4217;1.3458;
1323.3000;0.4233;1.3458;
1323.6000;0.4347;1.3716;
1323.9000;0.4241;1.3435;
1324.2000;0.4225;1.3388;
1324.5000;0.4225;1.3412;
1324.8000;0.4233;1.3435;
1325.1000;0.4241;1.3482;
1325.4000;0.4233;1.3458;
1325.7000;0.4225;1.3482;
1326.0000;0.4225;1.3412;
1326.3000;0.4225;1.3412;
1326.6000;0.4217;1.3341;
1326.9000;0.4225;1.3318;
1327.2000;0.4208;1.3341;
1327.5000;0.4225;1.3412;
1327.8000;0.4241;1.3388;
1328.1000;0.4225;1.3294;
1328.4000;0.4217;1.3224;
1328.7000;0.4225;1.3224;
1329.0000;0.4208;1.3201;
1329.3000;0.4233;1.3341;
1329.6000;0.4225;1.3388;
1329.9000;0.4265;1.3458;
1330.2000;0.4225;1.3294;
1330.5000;0.4184;1.3177;
1330.8000;0.4217;1.3318;
1331.1000;0.4192;1.3271;
1331.4000;0.4225;1.3294;
1331.7000;0.4094;1.2966;
1332.0000;0.4208;1.3177;
1332.3000;0.4151;1.2966;
1332.6000;0.4208;1.3060;
1332.9000;0.4200;1.3130;
1333.2000;0.4184;1.3130;
1333.5000;0.4208;1.3201;
1333.8000;0.4192;1.3247;
1334.1000;0.4241;1.3294;
1334.4000;0.4217;1.3318;
1334.7000;0.4208;1.3341;
1335.0000;0.4208;1.3341;
1335.3000;0.4200;1.3201;
1335.6000;0.4233;1.3271;
1335.9000;0.4217;1.3341;
1336.2000;0.4225;1.3365;
1336.5000;0.4176;1.3247;
1336.8000;0.4225;1.3341;
1337.1000;0.4225;1.3318;
1337.4000;0.4208;1.3341;
1337.7000;0.4217;1.3388;
1338.0000;0.4217;1.3247;
1338.3000;0.4233;1.3341;
1338.6000;0.4217;1.3388;
1338.9000;0.4217;1.3412;
1339.2000;0.4233;1.3482;
1339.5000;0.4225;1.3529;
1339.8000;0.4217;1.3576;
1340.1000;0.4225;1.3576;
1340.4000;0.4200;1.3482;
1340.7000;0.4208;1.3482;
1341.0000;0.4233;1.3482;
1341.3000;0.4217;1.3482;
1341.6000;0.4233;1.3529;
1341.9000;0.4217;1.3458;
1342.2000;0.4192;1.3482;
1342.5000;0.4200;1.3458;
1342.8000;0.4225;1.3529;
1343.1000;0.4225;1.3505;
1343.4000;0.4200;1.3435;
1343.7000;0.4208;1.3412;
1344.0000;0.4200;1.3365;
1344.3000;0.4249;1.3529;
1344.6000;0.4249;1.3552;
1344.9000;0.4200;1.3365;
1345.2000;0.4274;1.3576;
1345.5000;0.4217;1.3435;
1345.8000;0.4200;1.3388;
1346.1000;0.4208;1.3388;
1346.4000;0.4184;1.3294;
1346.7000;0.4233;1.3318;
1347.0000;0.4217;1.3341;
1347.3000;0.4208;1.3341;
1347.6000;0.4208;1.3318;
1347.9000;0.4208;1.3247;
1348.2000;0.4217;1.3177;
1348.5000;0.4217;1.3294;
1348.8000;0.4176;1.3247;
1349.1000;0.4200;1.3341;
1349.4000;0.4208;1.3318;
1349.7000;0.4233;1.3271;
1350.0000;0.4208;1.3294;
1350.3000;0.4225;1.3294;
1350.6000;0.4217;1.3341;
1350.9000;0.4225;1.3318;
1351.2000;0.4225;1.3294;
1351.5000;0.4217;1.3365;
1351.8000;0.4217;1.3482;
1352.1000;0.4200;1.3505;
1352.4000;0.4233;1.3482;
1352.7000;0.4249;1.3412;
1353.0000;0.4257;1.3412;
1353.3000;0.4233;1.3341;
1353.6000;0.4200;1.3271;
1353.9000;0.4160;1.3130;
1354.2000;0.4208;1.3341;
1354.5000;0.4208;1.3412;
1354.8000;0.4217;1.3412;
1355.1000;0.4192;1.3412;
1355.4000;0.4143;1.3224;
1355.7000;0.4192;1.3365;
1356.0000;0.4322;1.3646;
1356.3000;0.4265;1.3435;
1356.6000;0.4225;1.3318;
1356.9000;0.4208;1.3388;
1357.2000;0.4225;1.3365;
1357.5000;0.4217;1.3271;
1357.8000;0.4217;1.3154;
1358.1000;0.4200;1.3154;
1358.4000;0.4225;1.3271;
1358.7000;0.4225;1.3365;
1359.0000;0.4200;1.3341;
1359.3000;0.4322;1.3623;
1359.6000;0.4225;1.3318;
1359.9000;0.4225;1.3365;
1360.2000;0.4208;1.3318;
1360.5000;0.4192;1.3154;
1360.8000;0.4208;1.3154;
1361.1000;0.4192;1.3201;
1361.4000;0.4225;1.3247;
1361.7000;0.4200;1.3224;
1362.0000;0.4208;1.3201;
1362.3000;0.4217;1.3107;
1362.6000;0.4233;1.3083;
1362.9000;0.4208;1.3013;
1363.2000;0.4225;1.2966;
1363.5000;0.4217;1.3083;
1363.8000;0.4265;1.3201;
1364.1000;0.4225;1.3177;
1364.4000;0.4200;1.3130;
1364.7000;0.4192;1.3271;
1365.0000;0.4208;1.3294;
1365.3000;0.4192;1.3318;
1365.6000;0.4184;1.3318;
1365.9000;0.4217;1.3388;
1366.2000;0.4176;1.3224;
1366.5000;0.4184;1.3271;
1366.8000;0.4208;1.3294;
1367.1000;0.4217;1.3294;
1367.4000;0.4217;1.3318;
1367.7000;0.4233;1.3388;
1368.0000;0.4200;1.3341;
1368.3000;0.4184;1.3247;
1368.6000;0.4265;1.3505;
1368.9000;0.4249;1.3318;
1369.2000;0.4225;1.3271;
1369.5000;0.4265;1.3435;
1369.8000;0.4208;1.3271;
1370.1000;0.4192;1.3224;
1370.4000;0.4225;1.3365;
1370.7000;0.4200;1.3341;
1371.0000;0.4208;1.3341;
1371.3000;0.4200;1.3341;
1371.6000;0.4225;1.3341;
1371.9000;0.4200;1.3271;
1372.2000;0.4200;1.3107;
1372.5000;0.4200;1.3107;
1372.8000;0.4217;1.3177;
1373.1000;0.4225;1.3201;
1373.4000;0.4241;1.3201;
1373.7000;0.4241;1.3247;
1374.0000;0.4233;1.3247;
1374.3000;0.4225;1.3318;
1374.6000;0.4241;1.3365;
1374.9000;0.4184;1.3247;
1375.2000;0.4217;1.3341;
1375.5000;0.4217;1.3412;
1375.8000;0.4200;1.3365;
1376.1000;0.4200;1.3412;
1376.4000;0.4225;1.3458;
1376.7000;0.4217;1.3435;
1377.0000;0.4225;1.3412;
1377.3000;0.4192;1.3318;
1377.6000;0.4217;1.3365;
1377.9000;0.4208;1.3365;
1378.2000;0.4257;1.3435;
1378.5000;0.4208;1.3388;
1378.8000;0.4200;1.3318;
1379.1000;0.4225;1.3388;
1379.4000;0.4168;1.3271;
1379.7000;0.4208;1.3435;
1380.0000;0.4225;1.3458;
1380.3000;0.4200;1.3435;
1380.6000;0.4200;1.3458;
1380.9000;0.4217;1.3482;
1381.2000;0.4208;1.3435;
1381.5000;0.4208;1.3458;
1381.8000;0.4200;1.3529;
1382.1000;0.4200;1.3458;
1382.4000;0.4200;1.3576;
1382.7000;0.4151;1.3318;
1383.0000;0.4168;1.3505;
1383.3000;0.4217;1.3552;
1383.6000;0.4184;1.3412;
1383.9000;0.4233;1.3505;
1384.2000;0.4225;1.3529;
1384.5000;0.4233;1.3482;
1384.8000;0.4233;1.3482;
1385.1000;0.4225;1.3435;
1385.4000;0.4233;1.3388;
1385.7000;0.4233;1.3365;
1386.0000;0.4208;1.3247;
1386.3000;0.4208;1.3224;
1386.6000;0.4192;1.3154;
1386.9000;0.4217;1.3107;
1387.2000;0.4217;1.3154;
1387.5000;0.4217;1.3154;
1387.8000;0.4208;1.3130;
1388.1000;0.4217;1.3154;
1388.4000;0.4217;1.3177;
1388.7000;0.4160;1.3036;
1389.0000;0.4217;1.3247;
1389.3000;0.4241;1.3271;
1389.6000;0.4233;1.3247;
1389.9000;0.4217;1.3247;
1390.2000;0.4208;1.3224;
1390.5000;0.4233;1.3271;
1390.8000;0.4233;1.3294;
1391.1000;0.4200;1.3224;
1391.4000;0.4217;1.3271;
1391.7000;0.4208;1.3224;
1392.0000;0.4225;1.3271;
1392.3000;0.4200;1.3271;
1392.6000;0.4160;1.3247;
1392.9000;0.4192;1.3388;
1393.2000;0.4208;1.3365;
1393.5000;0.4217;1.3365;
1393.8000;0.4208;1.3365;
1394.1000;0.4208;1.3294;
1394.4000;0.4200;1.3271;
1394.7000;0.4208;1.3294;
1395.0000;0.4225;1.3365;
1395.3000;0.4184;1.3318;
1395.6000;0.4217;1.3412;
1395.9000;0.4225;1.3458;
1396.2000;0.4217;1.3458;
1396.5000;0.4208;1.3458;
1396.8000;0.4200;1.3388;
1397.1000;0.4217;1.3412;
1397.4000;0.4225;1.3482;
1397.7000;0.4217;1.3529;
1398.0000;0.4200;1.3552;
1398.3000;0.4200;1.3482;
1398.6000;0.4225;1.3552;
1398.9000;0.4217;1.3435;
1399.2000;0.4200;1.3365;
1399.5000;0.4217;1.3365;
1399.8000;0.4217;1.3388;
