time/ms;Fluo/V;P700 deltaI/I x10³;
-199.8000;0.4208;1.1700;
-199.5000;0.4208;1.1747;
-199.2000;0.4184;1.1747;
-198.9000;0.4200;1.1747;
-198.6000;0.4192;1.1747;
-198.3000;0.4200;1.1747;
-198.0000;0.4192;1.1770;
-197.7000;0.4192;1.1841;
-197.4000;0.4217;1.1864;
-197.1000;0.4208;1.1911;
-196.8000;0.4208;1.1864;
-196.5000;0.4200;1.1794;
-196.2000;0.4208;1.1676;
-195.9000;0.4192;1.1630;
-195.6000;0.4192;1.1630;
-195.3000;0.4184;1.1630;
-195.0000;0.4192;1.1747;
-194.7000;0.4208;1.1817;
-194.4000;0.4217;1.1841;
-194.1000;0.4192;1.1864;
-193.8000;0.4192;1.1934;
-193.5000;0.4217;1.1934;
-193.2000;0.4217;1.1817;
-192.9000;0.4192;1.1723;
-192.6000;0.4208;1.1747;
-192.3000;0.4200;1.1747;
-192.0000;0.4200;1.1723;
-191.7000;0.4200;1.1700;
-191.4000;0.4192;1.1676;
-191.1000;0.4176;1.1583;
-190.8000;0.4200;1.1700;
-190.5000;0.4200;1.1794;
-190.2000;0.4200;1.1747;
-189.9000;0.4200;1.1747;
-189.6000;0.4208;1.1770;
-189.3000;0.4200;1.1700;
-189.0000;0.4208;1.1770;
-188.7000;0.4200;1.1747;
-188.4000;0.4184;1.1794;
-188.1000;0.4217;1.1794;
-187.8000;0.4200;1.1841;
-187.5000;0.4200;1.1794;
-187.2000;0.4217;1.1841;
-186.9000;0.4225;1.1841;
-186.6000;0.4208;1.1841;
-186.3000;0.4200;1.1794;
-186.0000;0.4176;1.1747;
-185.7000;0.4200;1.1723;
-185.4000;0.4192;1.1723;
-185.1000;0.4241;1.1934;
-184.8000;0.4192;1.1770;
-184.5000;0.4200;1.1864;
-184.2000;0.4200;1.1864;
-183.9000;0.4217;1.1841;
-183.6000;0.4200;1.1794;
-183.3000;0.4200;1.1723;
-183.0000;0.4225;1.1934;
-182.7000;0.4217;1.1958;
-182.4000;0.4208;1.1934;
-182.1000;0.4208;1.1981;
-181.8000;0.4208;1.1934;
-181.5000;0.4094;1.1747;
-181.2000;0.4208;1.2028;
-180.9000;0.4241;1.2005;
-180.6000;0.4192;1.2005;
-180.3000;0.4265;1.2145;
-180.0000;0.4217;1.2052;
-179.7000;0.4208;1.2028;
-179.4000;0.4200;1.1981;
-179.1000;0.4241;1.1958;
-178.8000;0.4233;1.1934;
-178.5000;0.4225;1.1888;
-178.2000;0.4217;1.1817;
-177.9000;0.4217;1.1841;
-177.6000;0.4225;1.1864;
-177.3000;0.4208;1.1864;
-177.0000;0.4208;1.1817;
-176.7000;0.4111;1.1630;
-176.4000;0.4208;1.1888;
-176.1000;0.4217;1.1841;
-175.8000;0.4208;1.1723;
-175.5000;0.4208;1.1676;
-175.2000;0.4217;1.1747;
-174.9000;0.4217;1.1723;
-174.6000;0.4192;1.1630;
-174.3000;0.4265;1.1817;
-174.0000;0.4217;1.1723;
-173.7000;0.4208;1.1723;
-173.4000;0.4184;1.1700;
-173.1000;0.4208;1.1700;
-172.8000;0.4208;1.1700;
-172.5000;0.4217;1.1747;
-172.2000;0.4208;1.1653;
-171.9000;0.4208;1.1630;
-171.6000;0.4217;1.1630;
-171.3000;0.4217;1.1676;
-171.0000;0.4200;1.1700;
-170.7000;0.4225;1.1723;
-170.4000;0.4200;1.1676;
-170.1000;0.4217;1.1630;
-169.8000;0.4217;1.1583;
-169.5000;0.4200;1.1606;
-169.2000;0.4233;1.1653;
-168.9000;0.4208;1.1606;
-168.6000;0.4200;1.1676;
-168.3000;0.4192;1.1700;
-168.0000;0.4208;1.1794;
-167.7000;0.4225;1.1794;
-167.4000;0.4290;1.1981;
-167.1000;0.4135;1.1676;
-166.8000;0.4103;1.1583;
-166.5000;0.4217;1.1888;
-166.2000;0.4225;1.1934;
-165.9000;0.4225;1.1841;
-165.6000;0.4208;1.1723;
-165.3000;0.4249;1.1888;
-165.0000;0.4217;1.1817;
-164.7000;0.4225;1.1864;
-164.4000;0.4208;1.1747;
-164.1000;0.4208;1.1747;
-163.8000;0.4208;1.1794;
-163.5000;0.4208;1.1841;
-163.2000;0.4217;1.1794;
-162.9000;0.4208;1.1770;
-162.6000;0.4241;1.1841;
-162.3000;0.4233;1.1700;
-162.0000;0.4200;1.1583;
-161.7000;0.4192;1.1700;
-161.4000;0.4225;1.1747;
-161.1000;0.4200;1.1723;
-160.8000;0.4208;1.1770;
-160.5000;0.4217;1.1817;
-160.2000;0.4225;1.1911;
-159.9000;0.4233;1.1911;
-159.6000;0.4225;1.1817;
-159.3000;0.4208;1.1747;
-159.0000;0.4208;1.1747;
-158.7000;0.4200;1.1630;
-158.4000;0.4208;1.1700;
-158.1000;0.4233;1.1841;
-157.8000;0.4249;1.1841;
-157.5000;0.4225;1.1723;
-157.2000;0.4249;1.1770;
-156.9000;0.4176;1.1559;
-156.6000;0.4233;1.1747;
-156.3000;0.4225;1.1700;
-156.0000;0.4151;1.1559;
-155.7000;0.4217;1.1770;
-155.4000;0.4151;1.1583;
-155.1000;0.4208;1.1723;
-154.8000;0.4225;1.1770;
-154.5000;0.4217;1.1794;
-154.2000;0.4225;1.1723;
-153.9000;0.4217;1.1747;
-153.6000;0.4225;1.1841;
-153.3000;0.4225;1.1747;
-153.0000;0.4217;1.1676;
-152.7000;0.4217;1.1653;
-152.4000;0.4208;1.1630;
-152.1000;0.4241;1.1606;
-151.8000;0.4168;1.1348;
-151.5000;0.4217;1.1442;
-151.2000;0.4200;1.1325;
-150.9000;0.4233;1.1419;
-150.6000;0.4233;1.1372;
-150.3000;0.4233;1.1348;
-150.0000;0.4208;1.1325;
-149.7000;0.4217;1.1395;
-149.4000;0.4241;1.1489;
-149.1000;0.4225;1.1419;
-148.8000;0.4233;1.1512;
-148.5000;0.4208;1.1442;
-148.2000;0.4217;1.1489;
-147.9000;0.4208;1.1512;
-147.6000;0.4225;1.1606;
-147.3000;0.4233;1.1606;
-147.0000;0.4241;1.1606;
-146.7000;0.4339;1.1794;
-146.4000;0.4225;1.1512;
-146.1000;0.4241;1.1559;
-145.8000;0.4225;1.1512;
-145.5000;0.4241;1.1512;
-145.2000;0.4241;1.1512;
-144.9000;0.4241;1.1536;
-144.6000;0.4151;1.1348;
-144.3000;0.4241;1.1606;
-144.0000;0.4306;1.1747;
-143.7000;0.4249;1.1559;
-143.4000;0.4233;1.1559;
-143.1000;0.4241;1.1630;
-142.8000;0.4208;1.1630;
-142.5000;0.4217;1.1583;
-142.2000;0.4217;1.1559;
-141.9000;0.4274;1.1653;
-141.6000;0.4225;1.1606;
-141.3000;0.4200;1.1536;
-141.0000;0.4217;1.1606;
-140.7000;0.4225;1.1700;
-140.4000;0.4225;1.1653;
-140.1000;0.4217;1.1606;
-139.8000;0.4225;1.1583;
-139.5000;0.4241;1.1630;
-139.2000;0.4241;1.1630;
-138.9000;0.4241;1.1559;
-138.6000;0.4225;1.1489;
-138.3000;0.4233;1.1465;
-138.0000;0.4233;1.1489;
-137.7000;0.4241;1.1512;
-137.4000;0.4274;1.1630;
-137.1000;0.4249;1.1606;
-136.8000;0.4233;1.1559;
-136.5000;0.4233;1.1465;
-136.2000;0.4233;1.1559;
-135.9000;0.4192;1.1465;
-135.6000;0.4192;1.1419;
-135.3000;0.4257;1.1489;
-135.0000;0.4282;1.1536;
-134.7000;0.4225;1.1419;
-134.4000;0.4241;1.1442;
-134.1000;0.4176;1.1254;
-133.8000;0.4233;1.1372;
-133.5000;0.4257;1.1419;
-133.2000;0.4241;1.1395;
-132.9000;0.4241;1.1489;
-132.6000;0.4241;1.1465;
-132.3000;0.4249;1.1419;
-132.0000;0.4217;1.1348;
-131.7000;0.4233;1.1348;
-131.4000;0.4233;1.1301;
-131.1000;0.4233;1.1419;
-130.8000;0.4257;1.1489;
-130.5000;0.4241;1.1442;
-130.2000;0.4160;1.1161;
-129.9000;0.4233;1.1395;
-129.6000;0.4257;1.1465;
-129.3000;0.4233;1.1372;
-129.0000;0.4241;1.1442;
-128.7000;0.4233;1.1442;
-128.4000;0.4257;1.1442;
-128.1000;0.4233;1.1489;
-127.8000;0.4233;1.1583;
-127.5000;0.4233;1.1465;
-127.2000;0.4241;1.1419;
-126.9000;0.4241;1.1465;
-126.6000;0.4249;1.1442;
-126.3000;0.4241;1.1442;
-126.0000;0.4249;1.1372;
-125.7000;0.4274;1.1419;
-125.4000;0.4233;1.1301;
-125.1000;0.4249;1.1348;
-124.8000;0.4233;1.1301;
-124.5000;0.4265;1.1325;
-124.2000;0.4265;1.1231;
-123.9000;0.4282;1.1348;
-123.6000;0.4274;1.1442;
-123.3000;0.4274;1.1419;
-123.0000;0.4265;1.1395;
-122.7000;0.4257;1.1395;
-122.4000;0.4282;1.1489;
-122.1000;0.4322;1.1653;
-121.8000;0.4249;1.1465;
-121.5000;0.4249;1.1465;
-121.2000;0.4265;1.1395;
-120.9000;0.4428;1.1864;
-120.6000;0.4135;1.1090;
-120.3000;0.4265;1.1348;
-120.0000;0.4265;1.1325;
-119.7000;0.4249;1.1419;
-119.4000;0.4265;1.1489;
-119.1000;0.4257;1.1348;
-118.8000;0.4249;1.1372;
-118.5000;0.4265;1.1372;
-118.2000;0.4290;1.1301;
-117.9000;0.4257;1.1254;
-117.6000;0.4257;1.1208;
-117.3000;0.4265;1.1231;
-117.0000;0.4282;1.1184;
-116.7000;0.4282;1.1231;
-116.4000;0.4249;1.1231;
-116.1000;0.4225;1.1278;
-115.8000;0.4265;1.1372;
-115.5000;0.4298;1.1583;
-115.2000;0.4176;1.1208;
-114.9000;0.4265;1.1395;
-114.6000;0.4168;1.1114;
-114.3000;0.4339;1.1512;
-114.0000;0.4322;1.1372;
-113.7000;0.4282;1.1278;
-113.4000;0.4265;1.1278;
-113.1000;0.4282;1.1325;
-112.8000;0.4265;1.1325;
-112.5000;0.4265;1.1395;
-112.2000;0.4265;1.1395;
-111.9000;0.4249;1.1442;
-111.6000;0.4282;1.1536;
-111.3000;0.4249;1.1536;
-111.0000;0.4274;1.1606;
-110.7000;0.4249;1.1653;
-110.4000;0.4249;1.1583;
-110.1000;0.4265;1.1583;
-109.8000;0.4257;1.1583;
-109.5000;0.4274;1.1676;
-109.2000;0.4241;1.1512;
-108.9000;0.4241;1.1512;
-108.6000;0.4249;1.1512;
-108.3000;0.4257;1.1489;
-108.0000;0.4290;1.1536;
-107.7000;0.4265;1.1442;
-107.4000;0.4257;1.1512;
-107.1000;0.4282;1.1559;
-106.8000;0.4257;1.1489;
-106.5000;0.4290;1.1559;
-106.2000;0.4249;1.1465;
-105.9000;0.4274;1.1536;
-105.6000;0.4265;1.1606;
-105.3000;0.4249;1.1559;
-105.0000;0.4265;1.1583;
-104.7000;0.4282;1.1583;
-104.4000;0.4290;1.1536;
-104.1000;0.4257;1.1512;
-103.8000;0.4274;1.1465;
-103.5000;0.4290;1.1442;
-103.2000;0.4274;1.1465;
-102.9000;0.4282;1.1419;
-102.6000;0.4290;1.1442;
-102.3000;0.4282;1.1442;
-102.0000;0.4257;1.1301;
-101.7000;0.4282;1.1348;
-101.4000;0.4282;1.1372;
-101.1000;0.4298;1.1465;
-100.8000;0.4290;1.1512;
-100.5000;0.4290;1.1630;
-100.2000;0.4282;1.1700;
-99.9000;0.4265;1.1606;
-99.6000;0.4274;1.1583;
-99.3000;0.4274;1.1536;
-99.0000;0.4282;1.1653;
-98.7000;0.4282;1.1676;
-98.4000;0.4257;1.1559;
-98.1000;0.4298;1.1606;
-97.8000;0.4282;1.1606;
-97.5000;0.4282;1.1676;
-97.2000;0.4265;1.1676;
-96.9000;0.4282;1.1747;
-96.6000;0.4330;1.1817;
-96.3000;0.4282;1.1653;
-96.0000;0.4298;1.1653;
-95.7000;0.4282;1.1723;
-95.4000;0.4290;1.1841;
-95.1000;0.4282;1.1770;
-94.8000;0.4290;1.1747;
-94.5000;0.4290;1.1723;
-94.2000;0.4265;1.1676;
-93.9000;0.4282;1.1676;
-93.6000;0.4282;1.1723;
-93.3000;0.4298;1.1747;
-93.0000;0.4298;1.1700;
-92.7000;0.4306;1.1770;
-92.4000;0.4290;1.1747;
-92.1000;0.4257;1.1653;
-91.8000;0.4282;1.1700;
-91.5000;0.4274;1.1630;
-91.2000;0.4314;1.1794;
-90.9000;0.4274;1.1700;
-90.6000;0.4290;1.1770;
-90.3000;0.4282;1.1700;
-90.0000;0.4282;1.1676;
-89.7000;0.4290;1.1630;
-89.4000;0.4306;1.1630;
-89.1000;0.4225;1.1419;
-88.8000;0.4298;1.1630;
-88.5000;0.4249;1.1536;
-88.2000;0.4168;1.1278;
-87.9000;0.4298;1.1606;
-87.6000;0.4314;1.1559;
-87.3000;0.4282;1.1536;
-87.0000;0.4274;1.1489;
-86.7000;0.4306;1.1512;
-86.4000;0.4282;1.1395;
-86.1000;0.4282;1.1395;
-85.8000;0.4339;1.1489;
-85.5000;0.4282;1.1395;
-85.2000;0.4298;1.1395;
-84.9000;0.4298;1.1419;
-84.6000;0.4298;1.1372;
-84.3000;0.4290;1.1372;
-84.0000;0.4290;1.1301;
-83.7000;0.4298;1.1465;
-83.4000;0.4290;1.1419;
-83.1000;0.4290;1.1442;
-82.8000;0.4298;1.1442;
-82.5000;0.4330;1.1536;
-82.2000;0.4217;1.1254;
-81.9000;0.4306;1.1372;
-81.6000;0.4314;1.1395;
-81.3000;0.4314;1.1465;
-81.0000;0.4314;1.1512;
-80.7000;0.4314;1.1442;
-80.4000;0.4290;1.1395;
-80.1000;0.4306;1.1536;
-79.8000;0.4306;1.1630;
-79.5000;0.4306;1.1653;
-79.2000;0.4306;1.1653;
-78.9000;0.4290;1.1630;
-78.6000;0.4306;1.1512;
-78.3000;0.4306;1.1442;
-78.0000;0.4314;1.1489;
-77.7000;0.4330;1.1465;
-77.4000;0.4314;1.1489;
-77.1000;0.4322;1.1512;
-76.8000;0.4282;1.1419;
-76.5000;0.4290;1.1559;
-76.2000;0.4306;1.1700;
-75.9000;0.4298;1.1606;
-75.6000;0.4282;1.1512;
-75.3000;0.4298;1.1536;
-75.0000;0.4314;1.1606;
-74.7000;0.4298;1.1559;
-74.4000;0.4306;1.1559;
-74.1000;0.4314;1.1583;
-73.8000;0.4306;1.1606;
-73.5000;0.4314;1.1512;
-73.2000;0.4282;1.1465;
-72.9000;0.4322;1.1559;
-72.6000;0.4314;1.1653;
-72.3000;0.4322;1.1653;
-72.0000;0.4355;1.1700;
-71.7000;0.4306;1.1536;
-71.4000;0.4314;1.1442;
-71.1000;0.4306;1.1419;
-70.8000;0.4314;1.1419;
-70.5000;0.4322;1.1348;
-70.2000;0.4339;1.1278;
-69.9000;0.4330;1.1278;
-69.6000;0.4330;1.1372;
-69.3000;0.4274;1.1325;
-69.0000;0.4314;1.1325;
-68.7000;0.4322;1.1489;
-68.4000;0.4330;1.1536;
-68.1000;0.4330;1.1559;
-67.8000;0.4330;1.1559;
-67.5000;0.4347;1.1606;
-67.2000;0.4298;1.1442;
-66.9000;0.4314;1.1395;
-66.6000;0.4282;1.1372;
-66.3000;0.4339;1.1489;
-66.0000;0.4404;1.1606;
-65.7000;0.4330;1.1325;
-65.4000;0.4330;1.1348;
-65.1000;0.4330;1.1325;
-64.8000;0.4339;1.1372;
-64.5000;0.4363;1.1348;
-64.2000;0.4298;1.1184;
-63.9000;0.4322;1.1254;
-63.6000;0.4330;1.1301;
-63.3000;0.4363;1.1395;
-63.0000;0.4322;1.1325;
-62.7000;0.4330;1.1419;
-62.4000;0.4387;1.1583;
-62.1000;0.4322;1.1419;
-61.8000;0.4355;1.1489;
-61.5000;0.4330;1.1536;
-61.2000;0.4322;1.1536;
-60.9000;0.4339;1.1512;
-60.6000;0.4330;1.1512;
-60.3000;0.4347;1.1583;
-60.0000;0.4241;1.1301;
-59.7000;0.4314;1.1512;
-59.4000;0.4339;1.1653;
-59.1000;0.4339;1.1653;
-58.8000;0.4330;1.1559;
-58.5000;0.4330;1.1583;
-58.2000;0.4330;1.1536;
-57.9000;0.4363;1.1536;
-57.6000;0.4339;1.1489;
-57.3000;0.4322;1.1583;
-57.0000;0.4322;1.1583;
-56.7000;0.4363;1.1583;
-56.4000;0.4339;1.1559;
-56.1000;0.4322;1.1559;
-55.8000;0.4339;1.1630;
-55.5000;0.4339;1.1512;
-55.2000;0.4339;1.1489;
-54.9000;0.4339;1.1465;
-54.6000;0.4282;1.1325;
-54.3000;0.4330;1.1465;
-54.0000;0.4339;1.1419;
-53.7000;0.4387;1.1512;
-53.4000;0.4371;1.1536;
-53.1000;0.4347;1.1395;
-52.8000;0.4339;1.1372;
-52.5000;0.4322;1.1395;
-52.2000;0.4347;1.1372;
-51.9000;0.4355;1.1489;
-51.6000;0.4339;1.1442;
-51.3000;0.4322;1.1442;
-51.0000;0.4322;1.1465;
-50.7000;0.4322;1.1395;
-50.4000;0.4339;1.1419;
-50.1000;0.4355;1.1419;
-49.8000;0.4355;1.1395;
-49.5000;0.4355;1.1372;
-49.2000;0.4314;1.1278;
-48.9000;0.4355;1.1372;
-48.6000;0.4298;1.1301;
-48.3000;0.4347;1.1489;
-48.0000;0.4339;1.1583;
-47.7000;0.4347;1.1559;
-47.4000;0.4347;1.1512;
-47.1000;0.4355;1.1559;
-46.8000;0.4347;1.1395;
-46.5000;0.4347;1.1348;
-46.2000;0.4339;1.1325;
-45.9000;0.4290;1.1184;
-45.6000;0.4322;1.1348;
-45.3000;0.4347;1.1301;
-45.0000;0.4363;1.1325;
-44.7000;0.4371;1.1442;
-44.4000;0.4330;1.1419;
-44.1000;0.4371;1.1512;
-43.8000;0.4387;1.1606;
-43.5000;0.4363;1.1630;
-43.2000;0.4363;1.1606;
-42.9000;0.4355;1.1630;
-42.6000;0.4371;1.1676;
-42.3000;0.4379;1.1630;
-42.0000;0.4355;1.1536;
-41.7000;0.4347;1.1536;
-41.4000;0.4371;1.1512;
-41.1000;0.4371;1.1512;
-40.8000;0.4355;1.1419;
-40.5000;0.4363;1.1442;
-40.2000;0.4355;1.1512;
-39.9000;0.4347;1.1536;
-39.6000;0.4363;1.1606;
-39.3000;0.4371;1.1606;
-39.0000;0.4371;1.1536;
-38.7000;0.4355;1.1536;
-38.4000;0.4469;1.1770;
-38.1000;0.4371;1.1442;
-37.8000;0.4387;1.1465;
-37.5000;0.4379;1.1442;
-37.2000;0.4379;1.1419;
-36.9000;0.4371;1.1395;
-36.6000;0.4371;1.1372;
-36.3000;0.4379;1.1348;
-36.0000;0.4396;1.1372;
-35.7000;0.4363;1.1254;
-35.4000;0.4314;1.1043;
-35.1000;0.4363;1.1184;
-34.8000;0.4363;1.1254;
-34.5000;0.4371;1.1395;
-34.2000;0.4355;1.1395;
-33.9000;0.4355;1.1372;
-33.6000;0.4371;1.1395;
-33.3000;0.4363;1.1442;
-33.0000;0.4379;1.1348;
-32.7000;0.4347;1.1325;
-32.4000;0.4363;1.1372;
-32.1000;0.4379;1.1465;
-31.8000;0.4387;1.1442;
-31.5000;0.4347;1.1372;
-31.2000;0.4355;1.1348;
-30.9000;0.4371;1.1348;
-30.6000;0.4363;1.1395;
-30.3000;0.4347;1.1325;
-30.0000;0.4363;1.1372;
-29.7000;0.4363;1.1395;
-29.4000;0.4363;1.1348;
-29.1000;0.4371;1.1465;
-28.8000;0.4379;1.1348;
-28.5000;0.4379;1.1348;
-28.2000;0.4379;1.1231;
-27.9000;0.4355;1.1278;
-27.6000;0.4371;1.1325;
-27.3000;0.4404;1.1465;
-27.0000;0.4379;1.1348;
-26.7000;0.4371;1.1395;
-26.4000;0.4379;1.1372;
-26.1000;0.4363;1.1348;
-25.8000;0.4322;1.1254;
-25.5000;0.4363;1.1372;
-25.2000;0.4371;1.1395;
-24.9000;0.4363;1.1372;
-24.6000;0.4387;1.1465;
-24.3000;0.4347;1.1348;
-24.0000;0.4371;1.1395;
-23.7000;0.4347;1.1325;
-23.4000;0.4314;1.1278;
-23.1000;0.4363;1.1442;
-22.8000;0.4363;1.1465;
-22.5000;0.4371;1.1536;
-22.2000;0.4363;1.1583;
-21.9000;0.4363;1.1583;
-21.6000;0.4363;1.1606;
-21.3000;0.4371;1.1653;
-21.0000;0.4379;1.1747;
-20.7000;0.4363;1.1676;
-20.4000;0.4404;1.1606;
-20.1000;0.4387;1.1465;
-19.8000;0.4387;1.1512;
-19.5000;0.4387;1.1489;
-19.2000;0.4347;1.1372;
-18.9000;0.4444;1.1700;
-18.6000;0.4396;1.1489;
-18.3000;0.4436;1.1630;
-18.0000;0.4387;1.1512;
-17.7000;0.4387;1.1419;
-17.4000;0.4371;1.1489;
-17.1000;0.4363;1.1583;
-16.8000;0.4387;1.1700;
-16.5000;0.4404;1.1653;
-16.2000;0.4379;1.1583;
-15.9000;0.4387;1.1536;
-15.6000;0.4371;1.1348;
-15.3000;0.4396;1.1395;
-15.0000;0.4371;1.1325;
-14.7000;0.4371;1.1301;
-14.4000;0.4412;1.1372;
-14.1000;0.4379;1.1348;
-13.8000;0.4396;1.1395;
-13.5000;0.4371;1.1348;
-13.2000;0.4379;1.1395;
-12.9000;0.4396;1.1512;
-12.6000;0.4404;1.1583;
-12.3000;0.4396;1.1465;
-12.0000;0.4444;1.1512;
-11.7000;0.4396;1.1372;
-11.4000;0.4461;1.1512;
-11.1000;0.4379;1.1301;
-10.8000;0.4371;1.1325;
-10.5000;0.4379;1.1254;
-10.2000;0.4387;1.1348;
-9.9000;0.4387;1.1278;
-9.6000;0.4363;1.1161;
-9.3000;0.4387;1.1184;
-9.0000;0.4290;1.0973;
-8.7000;0.4379;1.1137;
-8.4000;0.4387;1.1254;
-8.1000;0.4404;1.1231;
-7.8000;0.4387;1.1208;
-7.5000;0.4363;1.1231;
-7.2000;0.4387;1.1348;
-6.9000;0.4379;1.1254;
-6.6000;0.4396;1.1348;
-6.3000;0.4396;1.1395;
-6.0000;0.4396;1.1395;
-5.7000;0.4387;1.1372;
-5.4000;0.4387;1.1465;
-5.1000;0.4396;1.1512;
-4.8000;0.4387;1.1442;
-4.5000;0.4371;1.1419;
-4.2000;0.4387;1.1512;
-3.9000;0.4396;1.1536;
-3.6000;0.4404;1.1489;
-3.3000;0.4387;1.1419;
-3.0000;0.4379;1.1372;
-2.7000;0.4412;1.1512;
-2.4000;0.4404;1.1442;
-2.1000;0.4387;1.1325;
-1.8000;0.4387;1.1325;
-1.5000;0.4428;1.1442;
-1.2000;0.4396;1.1419;
-0.9000;0.4404;1.1395;
-0.6000;0.4396;1.1419;
-0.3000;0.4371;1.1325;
0.0000;0.4371;1.1325;
0.3000;0.4591;1.1301;
0.6000;0.5006;1.2145;
0.9000;0.5185;1.2403;
1.2000;0.5315;1.2802;
1.5000;0.5543;1.3201;
1.8000;0.5535;1.3154;
2.1000;0.5698;1.3435;
2.4000;0.5747;1.3505;
2.7000;0.5861;1.3693;
3.0000;0.5926;1.3787;
3.3000;0.5958;1.3834;
3.6000;0.6032;1.4045;
3.9000;0.5999;1.3927;
4.2000;0.6097;1.4232;
4.5000;0.6105;1.4256;
4.8000;0.6154;1.4373;
5.1000;0.6170;1.4420;
5.4000;0.6203;1.4443;
5.7000;0.6211;1.4490;
6.0000;0.6260;1.4490;
6.3000;0.6268;1.4537;
6.6000;0.6292;1.4560;
6.9000;0.6292;1.4607;
7.2000;0.6325;1.4654;
7.5000;0.6268;1.4490;
7.8000;0.6349;1.4607;
8.1000;0.6333;1.4490;
8.4000;0.6390;1.4584;
8.7000;0.6455;1.4748;
9.0000;0.6431;1.4701;
9.3000;0.6422;1.4678;
9.6000;0.6439;1.4631;
9.9000;0.6439;1.4607;
10.2000;0.6463;1.4654;
10.5000;0.6463;1.4701;
10.8000;0.6447;1.4631;
11.1000;0.6471;1.4748;
11.4000;0.6496;1.4771;
11.7000;0.6512;1.4631;
12.0000;0.6512;1.4584;
12.3000;0.6504;1.4514;
12.6000;0.6536;1.4631;
12.9000;0.6536;1.4631;
13.2000;0.6553;1.4607;
13.5000;0.6553;1.4584;
13.8000;0.6545;1.4560;
14.1000;0.6561;1.4560;
14.4000;0.6585;1.4607;
14.7000;0.6593;1.4607;
15.0000;0.6520;1.4396;
15.3000;0.6561;1.4514;
15.6000;0.6602;1.4584;
15.9000;0.6610;1.4607;
16.2000;0.6626;1.4560;
16.5000;0.6642;1.4537;
16.8000;0.6642;1.4490;
17.1000;0.6610;1.4349;
17.4000;0.6699;1.4537;
17.7000;0.6642;1.4326;
18.0000;0.6650;1.4303;
18.3000;0.6626;1.4162;
18.6000;0.6699;1.4303;
18.9000;0.6659;1.4185;
19.2000;0.6593;1.3998;
19.5000;0.6675;1.4185;
19.8000;0.6691;1.4209;
20.1000;0.6675;1.4326;
20.4000;0.6772;1.4560;
20.7000;0.6691;1.4420;
21.0000;0.6691;1.4396;
21.3000;0.6732;1.4443;
21.6000;0.6724;1.4537;
21.9000;0.6732;1.4514;
22.2000;0.6724;1.4514;
22.5000;0.6724;1.4443;
22.8000;0.6756;1.4654;
23.1000;0.6740;1.4584;
23.4000;0.6740;1.4584;
23.7000;0.6732;1.4420;
24.0000;0.6683;1.4279;
24.3000;0.6732;1.4420;
24.6000;0.6748;1.4467;
24.9000;0.6781;1.4607;
25.2000;0.6740;1.4490;
25.5000;0.6756;1.4490;
25.8000;0.6724;1.4490;
26.1000;0.6846;1.4842;
26.4000;0.6772;1.4560;
26.7000;0.6764;1.4584;
27.0000;0.6781;1.4631;
27.3000;0.6789;1.4560;
27.6000;0.6781;1.4537;
27.9000;0.6813;1.4490;
28.2000;0.6789;1.4443;
28.5000;0.6797;1.4537;
28.8000;0.6789;1.4560;
29.1000;0.6789;1.4560;
29.4000;0.6805;1.4607;
29.7000;0.6821;1.4631;
30.0000;0.6789;1.4537;
30.3000;0.6699;1.4420;
30.6000;0.6813;1.4678;
30.9000;0.6716;1.4420;
31.2000;0.6813;1.4631;
31.5000;0.6813;1.4654;
31.8000;0.6797;1.4631;
32.1000;0.6838;1.4748;
32.4000;0.6813;1.4631;
32.7000;0.6821;1.4537;
33.0000;0.6813;1.4443;
33.3000;0.6821;1.4349;
33.6000;0.6838;1.4420;
33.9000;0.6854;1.4443;
34.2000;0.6838;1.4373;
34.5000;0.6838;1.4537;
34.8000;0.6764;1.4373;
35.1000;0.6797;1.4443;
35.4000;0.6838;1.4560;
35.7000;0.6699;1.4303;
36.0000;0.6838;1.4584;
36.3000;0.6838;1.4678;
36.6000;0.6846;1.4654;
36.9000;0.6854;1.4701;
37.2000;0.6846;1.4678;
37.5000;0.6846;1.4725;
37.8000;0.6862;1.4725;
38.1000;0.6829;1.4725;
38.4000;0.6838;1.4748;
38.7000;0.6838;1.4818;
39.0000;0.6829;1.4818;
39.3000;0.6846;1.4842;
39.6000;0.6846;1.4842;
39.9000;0.6854;1.4795;
40.2000;0.6838;1.4771;
40.5000;0.6829;1.4748;
40.8000;0.6846;1.4701;
41.1000;0.6854;1.4654;
41.4000;0.6886;1.4725;
41.7000;0.6870;1.4701;
42.0000;0.6862;1.4748;
42.3000;0.6862;1.4748;
42.6000;0.6878;1.4842;
42.9000;0.6870;1.4771;
43.2000;0.6878;1.4631;
43.5000;0.6878;1.4631;
43.8000;0.6740;1.4232;
44.1000;0.6878;1.4490;
44.4000;0.6870;1.4443;
44.7000;0.6878;1.4490;
45.0000;0.6943;1.4678;
45.3000;0.6862;1.4490;
45.6000;0.6878;1.4443;
45.9000;0.6854;1.4396;
46.2000;0.6862;1.4420;
46.5000;0.6878;1.4467;
46.8000;0.6862;1.4373;
47.1000;0.6862;1.4373;
47.4000;0.6870;1.4303;
47.7000;0.6878;1.4232;
48.0000;0.6870;1.4162;
48.3000;0.6895;1.4209;
48.6000;0.6854;1.4138;
48.9000;0.6886;1.4232;
49.2000;0.6878;1.4303;
49.5000;0.6895;1.4373;
49.8000;0.6895;1.4420;
50.1000;0.6903;1.4490;
50.4000;0.6903;1.4490;
50.7000;0.6903;1.4514;
51.0000;0.6895;1.4584;
51.3000;0.6895;1.4654;
51.6000;0.6886;1.4560;
51.9000;0.6895;1.4631;
52.2000;0.6838;1.4490;
52.5000;0.6895;1.4631;
52.8000;0.6895;1.4584;
53.1000;0.6911;1.4560;
53.4000;0.6903;1.4584;
53.7000;0.6903;1.4490;
54.0000;0.6903;1.4443;
54.3000;0.6919;1.4396;
54.6000;0.6903;1.4396;
54.9000;0.6903;1.4467;
55.2000;0.6903;1.4490;
55.5000;0.6911;1.4467;
55.8000;0.6911;1.4537;
56.1000;0.6903;1.4514;
56.4000;0.6903;1.4373;
56.7000;0.7017;1.4631;
57.0000;0.6903;1.4373;
57.3000;0.6903;1.4303;
57.6000;0.6886;1.4232;
57.9000;0.6911;1.4349;
58.2000;0.6911;1.4373;
58.5000;0.6927;1.4514;
58.8000;0.6919;1.4584;
59.1000;0.6911;1.4631;
59.4000;0.6935;1.4701;
59.7000;0.7017;1.4842;
60.0000;0.6919;1.4560;
60.3000;0.6911;1.4514;
60.6000;0.6919;1.4537;
60.9000;0.6895;1.4443;
61.2000;0.6911;1.4467;
61.5000;0.6911;1.4490;
61.8000;0.6903;1.4467;
62.1000;0.6927;1.4584;
62.4000;0.6903;1.4514;
62.7000;0.6919;1.4467;
63.0000;0.6927;1.4396;
63.3000;0.6919;1.4443;
63.6000;0.6919;1.4490;
63.9000;0.6919;1.4490;
64.2000;0.6984;1.4725;
64.5000;0.6943;1.4631;
64.8000;0.6935;1.4678;
65.1000;0.6927;1.4654;
65.4000;0.6927;1.4631;
65.7000;0.6919;1.4537;
66.0000;0.6927;1.4514;
66.3000;0.6895;1.4420;
66.6000;0.6935;1.4560;
66.9000;0.6911;1.4537;
67.2000;0.6935;1.4560;
67.5000;0.6952;1.4607;
67.8000;0.6927;1.4560;
68.1000;0.6911;1.4584;
68.4000;0.6935;1.4607;
68.7000;0.6919;1.4490;
69.0000;0.6895;1.4420;
69.3000;0.6927;1.4537;
69.6000;0.6943;1.4514;
69.9000;0.6943;1.4584;
70.2000;0.6927;1.4654;
70.5000;0.6943;1.4631;
70.8000;0.6935;1.4420;
71.1000;0.6943;1.4490;
71.4000;0.6935;1.4537;
71.7000;0.6943;1.4467;
72.0000;0.6927;1.4467;
72.3000;0.6935;1.4560;
72.6000;0.6960;1.4607;
72.9000;0.6943;1.4514;
73.2000;0.6943;1.4560;
73.5000;0.6935;1.4560;
73.8000;0.6935;1.4514;
74.1000;0.6886;1.4396;
74.4000;0.6927;1.4490;
74.7000;0.6919;1.4537;
75.0000;0.6927;1.4560;
75.3000;0.6911;1.4467;
75.6000;0.6919;1.4396;
75.9000;0.6935;1.4467;
76.2000;0.6927;1.4443;
76.5000;0.6935;1.4467;
76.8000;0.6935;1.4467;
77.1000;0.6927;1.4443;
77.4000;0.6952;1.4467;
77.7000;0.6935;1.4326;
78.0000;0.6935;1.4349;
78.3000;0.6943;1.4420;
78.6000;0.6935;1.4467;
78.9000;0.6960;1.4420;
79.2000;0.6927;1.4349;
79.5000;0.6935;1.4349;
79.8000;0.6984;1.4514;
80.1000;0.6943;1.4396;
80.4000;0.6960;1.4396;
80.7000;0.6984;1.4467;
81.0000;0.6952;1.4349;
81.3000;0.6943;1.4326;
81.6000;0.6952;1.4373;
81.9000;0.6952;1.4349;
82.2000;0.6935;1.4467;
82.5000;0.6943;1.4443;
82.8000;0.7000;1.4607;
83.1000;0.6943;1.4443;
83.4000;0.6935;1.4443;
83.7000;0.6943;1.4537;
84.0000;0.6935;1.4514;
84.3000;0.6952;1.4490;
84.6000;0.6935;1.4443;
84.9000;0.6935;1.4490;
85.2000;0.6911;1.4349;
85.5000;0.6943;1.4467;
85.8000;0.6935;1.4514;
86.1000;0.7000;1.4654;
86.4000;0.6854;1.4303;
86.7000;0.6935;1.4514;
87.0000;0.6927;1.4514;
87.3000;0.6943;1.4490;
87.6000;0.6968;1.4537;
87.9000;0.6952;1.4490;
88.2000;0.6919;1.4396;
88.5000;0.6943;1.4349;
88.8000;0.6952;1.4443;
89.1000;0.6935;1.4349;
89.4000;0.6943;1.4349;
89.7000;0.6935;1.4279;
90.0000;0.6943;1.4256;
90.3000;0.6968;1.4303;
90.6000;0.6927;1.4256;
90.9000;0.6935;1.4303;
91.2000;0.6895;1.4185;
91.5000;0.6862;1.4138;
91.8000;0.6960;1.4396;
92.1000;0.6952;1.4443;
92.4000;0.6960;1.4490;
92.7000;0.6952;1.4373;
93.0000;0.6943;1.4443;
93.3000;0.6927;1.4396;
93.6000;0.6903;1.4303;
93.9000;0.6968;1.4443;
94.2000;0.6968;1.4396;
94.5000;0.6976;1.4514;
94.8000;0.6960;1.4443;
95.1000;0.6952;1.4467;
95.4000;0.6976;1.4514;
95.7000;0.6960;1.4560;
96.0000;0.6943;1.4654;
96.3000;0.6952;1.4607;
96.6000;0.6960;1.4560;
96.9000;0.6992;1.4631;
97.2000;0.6911;1.4303;
97.5000;0.6838;1.4092;
97.8000;0.6943;1.4349;
98.1000;0.6943;1.4303;
98.4000;0.6919;1.4279;
98.7000;0.6952;1.4396;
99.0000;0.6960;1.4420;
99.3000;0.6952;1.4467;
99.6000;0.6943;1.4420;
99.9000;0.6886;1.4279;
100.2000;0.6943;1.4467;
100.5000;0.6960;1.4584;
100.8000;0.7066;1.4795;
101.1000;0.6960;1.4584;
101.4000;0.6952;1.4514;
101.7000;0.6960;1.4467;
102.0000;0.6952;1.4396;
102.3000;0.6952;1.4326;
102.6000;0.6992;1.4420;
102.9000;0.6943;1.4349;
103.2000;0.6960;1.4326;
103.5000;0.6960;1.4232;
103.8000;0.6968;1.4326;
104.1000;0.6960;1.4256;
104.4000;0.6952;1.4373;
104.7000;0.6911;1.4256;
105.0000;0.6943;1.4373;
105.3000;0.6960;1.4349;
105.6000;0.6943;1.4256;
105.9000;0.6927;1.4185;
106.2000;0.6952;1.4303;
106.5000;0.6943;1.4279;
106.8000;0.6952;1.4256;
107.1000;0.6960;1.4232;
107.4000;0.6960;1.4232;
107.7000;0.6960;1.4279;
108.0000;0.6976;1.4349;
108.3000;0.6960;1.4326;
108.6000;0.6968;1.4279;
108.9000;0.6968;1.4303;
109.2000;0.6952;1.4303;
109.5000;0.6968;1.4303;
109.8000;0.6952;1.4326;
110.1000;0.6960;1.4279;
110.4000;0.6960;1.4303;
110.7000;0.6943;1.4185;
111.0000;0.6976;1.4209;
111.3000;0.6960;1.4021;
111.6000;0.6960;1.4068;
111.9000;0.6984;1.4092;
112.2000;0.6992;1.4232;
112.5000;0.6952;1.4185;
112.8000;0.6968;1.4185;
113.1000;0.6968;1.4185;
113.4000;0.6952;1.4115;
113.7000;0.6952;1.4045;
114.0000;0.6943;1.3998;
114.3000;0.6952;1.4068;
114.6000;0.6960;1.3998;
114.9000;0.6968;1.3974;
115.2000;0.7082;1.4326;
115.5000;0.6960;1.4021;
115.8000;0.6984;1.4138;
116.1000;0.6960;1.4138;
116.4000;0.6960;1.4185;
116.7000;0.6984;1.4279;
117.0000;0.6960;1.4349;
117.3000;0.6952;1.4279;
117.6000;0.6976;1.4303;
117.9000;0.6943;1.4185;
118.2000;0.6992;1.4396;
118.5000;0.6919;1.4092;
118.8000;0.6960;1.4185;
119.1000;0.6968;1.4209;
119.4000;0.6943;1.4162;
119.7000;0.6984;1.4279;
120.0000;0.6968;1.4279;
120.3000;0.6976;1.4256;
120.6000;0.6968;1.4162;
120.9000;0.6984;1.4138;
121.2000;0.6976;1.4162;
121.5000;0.6919;1.4092;
121.8000;0.6992;1.4279;
122.1000;0.6976;1.4326;
122.4000;0.7025;1.4443;
122.7000;0.6984;1.4303;
123.0000;0.6935;1.4232;
123.3000;0.6960;1.4303;
123.6000;0.6984;1.4326;
123.9000;0.6895;1.4115;
124.2000;0.6960;1.4373;
124.5000;0.6984;1.4443;
124.8000;0.6968;1.4443;
125.1000;0.6976;1.4349;
125.4000;0.6976;1.4349;
125.7000;0.6968;1.4373;
126.0000;0.6992;1.4443;
126.3000;0.7009;1.4490;
126.6000;0.6984;1.4443;
126.9000;0.6976;1.4373;
127.2000;0.6976;1.4420;
127.5000;0.6984;1.4443;
127.8000;0.6992;1.4537;
128.1000;0.6960;1.4443;
128.4000;0.6976;1.4443;
128.7000;0.6976;1.4373;
129.0000;0.7114;1.4701;
129.3000;0.6984;1.4467;
129.6000;0.6960;1.4420;
129.9000;0.6968;1.4443;
130.2000;0.6968;1.4514;
130.5000;0.6976;1.4443;
130.8000;0.6960;1.4326;
131.1000;0.6968;1.4256;
131.4000;0.6968;1.4232;
131.7000;0.6976;1.4373;
132.0000;0.6976;1.4396;
132.3000;0.6952;1.4373;
132.6000;0.6968;1.4373;
132.9000;0.6976;1.4349;
133.2000;0.7000;1.4396;
133.5000;0.7025;1.4467;
133.8000;0.6984;1.4326;
134.1000;0.6976;1.4185;
134.4000;0.6984;1.4232;
134.7000;0.6952;1.4256;
135.0000;0.6968;1.4232;
135.3000;0.6968;1.4256;
135.6000;0.6968;1.4256;
135.9000;0.6952;1.4279;
136.2000;0.6960;1.4326;
136.5000;0.6968;1.4209;
136.8000;0.6992;1.4326;
137.1000;0.6960;1.4256;
137.4000;0.6919;1.4303;
137.7000;0.6968;1.4420;
138.0000;0.6968;1.4396;
138.3000;0.6976;1.4396;
138.6000;0.6976;1.4443;
138.9000;0.7009;1.4584;
139.2000;0.6968;1.4443;
139.5000;0.6960;1.4467;
139.8000;0.6984;1.4560;
140.1000;0.6960;1.4490;
140.4000;0.6976;1.4490;
140.7000;0.6927;1.4326;
141.0000;0.6976;1.4420;
141.3000;0.6976;1.4443;
141.6000;0.6992;1.4396;
141.9000;0.6984;1.4373;
142.2000;0.6960;1.4373;
142.5000;0.6960;1.4303;
142.8000;0.6968;1.4232;
143.1000;0.6976;1.4256;
143.4000;0.6960;1.4209;
143.7000;0.6952;1.4138;
144.0000;0.6976;1.4256;
144.3000;0.6968;1.4326;
144.6000;0.6976;1.4279;
144.9000;0.6976;1.4256;
145.2000;0.6968;1.4256;
145.5000;0.6968;1.4209;
145.8000;0.6935;1.4092;
146.1000;0.6968;1.4209;
146.4000;0.6960;1.4185;
146.7000;0.7033;1.4256;
147.0000;0.6952;1.4115;
147.3000;0.6976;1.4185;
147.6000;0.6911;1.3974;
147.9000;0.6968;1.4162;
148.2000;0.6992;1.4209;
148.5000;0.6984;1.4232;
148.8000;0.6968;1.4256;
149.1000;0.7041;1.4467;
149.4000;0.6984;1.4396;
149.7000;0.6952;1.4373;
150.0000;0.6976;1.4443;
150.3000;0.6976;1.4420;
150.6000;0.6968;1.4467;
150.9000;0.6984;1.4467;
151.2000;0.6984;1.4514;
151.5000;0.6984;1.4396;
151.8000;0.7041;1.4654;
152.1000;0.6976;1.4420;
152.4000;0.6976;1.4373;
152.7000;0.6968;1.4396;
153.0000;0.6935;1.4232;
153.3000;0.6992;1.4373;
153.6000;0.6984;1.4373;
153.9000;0.6976;1.4303;
154.2000;0.6976;1.4256;
154.5000;0.6968;1.4232;
154.8000;0.6984;1.4373;
155.1000;0.7033;1.4607;
155.4000;0.6984;1.4467;
155.7000;0.6992;1.4514;
156.0000;0.6952;1.4349;
156.3000;0.6992;1.4443;
156.6000;0.6960;1.4326;
156.9000;0.6968;1.4303;
157.2000;0.7009;1.4443;
157.5000;0.6976;1.4537;
157.8000;0.6935;1.4560;
158.1000;0.6976;1.4631;
158.4000;0.6984;1.4560;
158.7000;0.6984;1.4490;
159.0000;0.6960;1.4467;
159.3000;0.6968;1.4514;
159.6000;0.6984;1.4514;
159.9000;0.6952;1.4490;
160.2000;0.6976;1.4490;
160.5000;0.6968;1.4467;
160.8000;0.6943;1.4303;
161.1000;0.6992;1.4373;
161.4000;0.6960;1.4256;
161.7000;0.6976;1.4232;
162.0000;0.6992;1.4232;
162.3000;0.6976;1.4256;
162.6000;0.6984;1.4326;
162.9000;0.6976;1.4420;
163.2000;0.6960;1.4373;
163.5000;0.7098;1.4748;
163.8000;0.6960;1.4420;
164.1000;0.6976;1.4490;
164.4000;0.6984;1.4514;
164.7000;0.6968;1.4537;
165.0000;0.7000;1.4584;
165.3000;0.6976;1.4607;
165.6000;0.6976;1.4560;
165.9000;0.6984;1.4607;
166.2000;0.6984;1.4701;
166.5000;0.6984;1.4748;
166.8000;0.6984;1.4748;
167.1000;0.6976;1.4725;
167.4000;0.6984;1.4678;
167.7000;0.6984;1.4701;
168.0000;0.6976;1.4607;
168.3000;0.6976;1.4584;
168.6000;0.6992;1.4560;
168.9000;0.6992;1.4514;
169.2000;0.6984;1.4490;
169.5000;0.6968;1.4467;
169.8000;0.6976;1.4490;
170.1000;0.7098;1.4795;
170.4000;0.6968;1.4443;
170.7000;0.6984;1.4396;
171.0000;0.6976;1.4396;
171.3000;0.6984;1.4349;
171.6000;0.6927;1.4209;
171.9000;0.6984;1.4349;
172.2000;0.6984;1.4373;
172.5000;0.6984;1.4396;
172.8000;0.7009;1.4443;
173.1000;0.6935;1.4256;
173.4000;0.6968;1.4373;
173.7000;0.7074;1.4678;
174.0000;0.6992;1.4514;
174.3000;0.6976;1.4490;
174.6000;0.6976;1.4490;
174.9000;0.6886;1.4185;
175.2000;0.6976;1.4467;
175.5000;0.6968;1.4467;
175.8000;0.6968;1.4490;
176.1000;0.7009;1.4560;
176.4000;0.6968;1.4490;
176.7000;0.6976;1.4490;
177.0000;0.6984;1.4420;
177.3000;0.6976;1.4396;
177.6000;0.6984;1.4349;
177.9000;0.6976;1.4326;
178.2000;0.6976;1.4349;
178.5000;0.6968;1.4467;
178.8000;0.6976;1.4443;
179.1000;0.7000;1.4490;
179.4000;0.6976;1.4467;
179.7000;0.6968;1.4303;
180.0000;0.6968;1.4256;
180.3000;0.6976;1.4279;
180.6000;0.6976;1.4373;
180.9000;0.6984;1.4396;
181.2000;0.6870;1.4209;
181.5000;0.6943;1.4467;
181.8000;0.6976;1.4584;
182.1000;0.6984;1.4584;
182.4000;0.6968;1.4584;
182.7000;0.6976;1.4607;
183.0000;0.6984;1.4701;
183.3000;0.7000;1.4678;
183.6000;0.6943;1.4514;
183.9000;0.6976;1.4514;
184.2000;0.6927;1.4349;
184.5000;0.7057;1.4631;
184.8000;0.6984;1.4514;
185.1000;0.6992;1.4514;
185.4000;0.6984;1.4537;
185.7000;0.6984;1.4514;
186.0000;0.6984;1.4443;
186.3000;0.6960;1.4349;
186.6000;0.6968;1.4349;
186.9000;0.6984;1.4467;
187.2000;0.6984;1.4514;
187.5000;0.6992;1.4560;
187.8000;0.6984;1.4514;
188.1000;0.6984;1.4490;
188.4000;0.6976;1.4514;
188.7000;0.6976;1.4537;
189.0000;0.6968;1.4607;
189.3000;0.6984;1.4631;
189.6000;0.6895;1.4420;
189.9000;0.6968;1.4584;
190.2000;0.6992;1.4584;
190.5000;0.6992;1.4560;
190.8000;0.6976;1.4396;
191.1000;0.6968;1.4373;
191.4000;0.6976;1.4349;
191.7000;0.6943;1.4303;
192.0000;0.6984;1.4443;
192.3000;0.6960;1.4467;
192.6000;0.6984;1.4514;
192.9000;0.6968;1.4443;
193.2000;0.6992;1.4560;
193.5000;0.6968;1.4607;
193.8000;0.6960;1.4537;
194.1000;0.6984;1.4537;
194.4000;0.6976;1.4396;
194.7000;0.6992;1.4373;
195.0000;0.6992;1.4396;
195.3000;0.6984;1.4349;
195.6000;0.6968;1.4373;
195.9000;0.6984;1.4396;
196.2000;0.6968;1.4256;
196.5000;0.6976;1.4279;
196.8000;0.6935;1.4209;
197.1000;0.6976;1.4396;
197.4000;0.6968;1.4420;
197.7000;0.6976;1.4420;
198.0000;0.6976;1.4443;
198.3000;0.6984;1.4560;
198.6000;0.6976;1.4514;
198.9000;0.6976;1.4584;
199.2000;0.6960;1.4560;
199.5000;0.6919;1.4467;
199.8000;0.6976;1.4560;
200.1000;0.6984;1.4560;
200.4000;0.6984;1.4490;
200.7000;0.6984;1.4467;
201.0000;0.6976;1.4420;
201.3000;0.6984;1.4467;
201.6000;0.6968;1.4443;
201.9000;0.6992;1.4467;
202.2000;0.6984;1.4467;
202.5000;0.6976;1.4396;
202.8000;0.6960;1.4467;
203.1000;0.6960;1.4490;
203.4000;0.6984;1.4537;
203.7000;0.6976;1.4537;
204.0000;0.6968;1.4537;
204.3000;0.6984;1.4607;
204.6000;0.6992;1.4725;
204.9000;0.6992;1.4678;
205.2000;0.6984;1.4584;
205.5000;0.6960;1.4420;
205.8000;0.6984;1.4443;
206.1000;0.6992;1.4467;
206.4000;0.6968;1.4396;
206.7000;0.6984;1.4349;
207.0000;0.6968;1.4326;
207.3000;0.6943;1.4349;
207.6000;0.7000;1.4560;
207.9000;0.6984;1.4537;
208.2000;0.7098;1.4818;
208.5000;0.6968;1.4537;
208.8000;0.6968;1.4537;
209.1000;0.7025;1.4607;
209.4000;0.6976;1.4420;
209.7000;0.6976;1.4467;
210.0000;0.6992;1.4514;
210.3000;0.7057;1.4584;
210.6000;0.6992;1.4467;
210.9000;0.6976;1.4420;
211.2000;0.6781;1.3998;
211.5000;0.7000;1.4607;
211.8000;0.6976;1.4560;
212.1000;0.6960;1.4490;
212.4000;0.6992;1.4537;
212.7000;0.6984;1.4607;
213.0000;0.6968;1.4584;
213.3000;0.6968;1.4490;
213.6000;0.6952;1.4467;
213.9000;0.6968;1.4514;
214.2000;0.6984;1.4560;
214.5000;0.7057;1.4678;
214.8000;0.6984;1.4514;
215.1000;0.6992;1.4560;
215.4000;0.6976;1.4514;
215.7000;0.6976;1.4560;
216.0000;0.6992;1.4514;
216.3000;0.7009;1.4584;
216.6000;0.6960;1.4443;
216.9000;0.6935;1.4420;
217.2000;0.7066;1.4631;
217.5000;0.6952;1.4396;
217.8000;0.6862;1.4115;
218.1000;0.6976;1.4396;
218.4000;0.6968;1.4396;
218.7000;0.6976;1.4443;
219.0000;0.6976;1.4584;
219.3000;0.7000;1.4701;
219.6000;0.6968;1.4701;
219.9000;0.6968;1.4678;
220.2000;0.6960;1.4701;
220.5000;0.6984;1.4701;
220.8000;0.6935;1.4584;
221.1000;0.6968;1.4701;
221.4000;0.6960;1.4654;
221.7000;0.6870;1.4373;
222.0000;0.6984;1.4631;
222.3000;0.6984;1.4560;
222.6000;0.6968;1.4373;
222.9000;0.6976;1.4420;
223.2000;0.6968;1.4396;
223.5000;0.6927;1.4349;
223.8000;0.6870;1.4209;
224.1000;0.6952;1.4467;
224.4000;0.6968;1.4467;
224.7000;0.6960;1.4467;
225.0000;0.6960;1.4490;
225.3000;0.6968;1.4631;
225.6000;0.6984;1.4725;
225.9000;0.6960;1.4654;
226.2000;0.6984;1.4560;
226.5000;0.6943;1.4584;
226.8000;0.6976;1.4678;
227.1000;0.7000;1.4771;
227.4000;0.6976;1.4771;
227.7000;0.6992;1.4842;
228.0000;0.6878;1.4631;
228.3000;0.6960;1.4842;
228.6000;0.7017;1.4912;
228.9000;0.6984;1.4771;
229.2000;0.7009;1.4818;
229.5000;0.6992;1.4748;
229.8000;0.6968;1.4654;
230.1000;0.6968;1.4701;
230.4000;0.6878;1.4420;
230.7000;0.6943;1.4514;
231.0000;0.6968;1.4584;
231.3000;0.7000;1.4560;
231.6000;0.6992;1.4467;
231.9000;0.6976;1.4514;
232.2000;0.6992;1.4537;
232.5000;0.6952;1.4514;
232.8000;0.6984;1.4631;
233.1000;0.6927;1.4560;
233.4000;0.6976;1.4607;
233.7000;0.6976;1.4607;
234.0000;0.6984;1.4725;
234.3000;0.6968;1.4771;
234.6000;0.6968;1.4842;
234.9000;0.7000;1.4865;
235.2000;0.7057;1.5076;
235.5000;0.6976;1.4889;
235.8000;0.6984;1.4818;
236.1000;0.6968;1.4748;
236.4000;0.6984;1.4795;
236.7000;0.6992;1.4771;
237.0000;0.6976;1.4725;
237.3000;0.6976;1.4818;
237.6000;0.6976;1.4818;
237.9000;0.6960;1.4771;
238.2000;0.6984;1.4865;
238.5000;0.6984;1.4795;
238.8000;0.6984;1.4725;
239.1000;0.6984;1.4725;
239.4000;0.6976;1.4701;
239.7000;0.7033;1.4865;
240.0000;0.6976;1.4748;
240.3000;0.6976;1.4748;
240.6000;0.6960;1.4678;
240.9000;0.6960;1.4654;
241.2000;0.6992;1.4771;
241.5000;0.6992;1.4701;
241.8000;0.6968;1.4678;
242.1000;0.6960;1.4725;
242.4000;0.6976;1.4771;
242.7000;0.6984;1.4795;
243.0000;0.6976;1.4865;
243.3000;0.6976;1.4818;
243.6000;0.6968;1.4818;
243.9000;0.6976;1.4701;
244.2000;0.6976;1.4701;
244.5000;0.6976;1.4701;
244.8000;0.6927;1.4631;
245.1000;0.6976;1.4678;
245.4000;0.6984;1.4654;
245.7000;0.6960;1.4631;
246.0000;0.6984;1.4725;
246.3000;0.6992;1.4748;
246.6000;0.6976;1.4771;
246.9000;0.6960;1.4701;
247.2000;0.6984;1.4725;
247.5000;0.7123;1.5147;
247.8000;0.6943;1.4725;
248.1000;0.6976;1.4795;
248.4000;0.6984;1.4889;
248.7000;0.6992;1.4912;
249.0000;0.6976;1.4818;
249.3000;0.6992;1.4889;
249.6000;0.6968;1.4818;
249.9000;0.6968;1.4889;
250.2000;0.6952;1.4889;
250.5000;0.6968;1.4982;
250.8000;0.6976;1.5029;
251.1000;0.6968;1.4959;
251.4000;0.7000;1.4959;
251.7000;0.6984;1.4865;
252.0000;0.6960;1.4771;
252.3000;0.6943;1.4748;
252.6000;0.7041;1.4959;
252.9000;0.6984;1.4818;
253.2000;0.7000;1.4842;
253.5000;0.6984;1.4771;
253.8000;0.6992;1.4818;
254.1000;0.7025;1.4936;
254.4000;0.7090;1.5076;
254.7000;0.6984;1.4912;
255.0000;0.6984;1.4865;
255.3000;0.6968;1.4842;
255.6000;0.6976;1.4889;
255.9000;0.6984;1.4818;
256.2000;0.6968;1.4818;
256.5000;0.6968;1.4818;
256.8000;0.6952;1.4795;
257.1000;0.6968;1.4842;
257.4000;0.6976;1.4912;
257.7000;0.6976;1.4889;
258.0000;0.6992;1.4936;
258.3000;0.6984;1.4912;
258.6000;0.6960;1.4818;
258.9000;0.6976;1.4771;
259.2000;0.6976;1.4748;
259.5000;0.6976;1.4771;
259.8000;0.6952;1.4818;
260.1000;0.6968;1.4818;
260.4000;0.6984;1.4865;
260.7000;0.6976;1.4842;
261.0000;0.6976;1.4818;
261.3000;0.6968;1.4842;
261.6000;0.6976;1.4842;
261.9000;0.6968;1.4959;
262.2000;0.6960;1.4936;
262.5000;0.6943;1.4912;
262.8000;0.6976;1.4912;
263.1000;0.7017;1.5076;
263.4000;0.6976;1.4936;
263.7000;0.6935;1.4865;
264.0000;0.7041;1.5100;
264.3000;0.6968;1.5006;
264.6000;0.6960;1.5029;
264.9000;0.6968;1.5029;
265.2000;0.6968;1.5076;
265.5000;0.6952;1.5029;
265.8000;0.7000;1.5147;
266.1000;0.6862;1.4701;
266.4000;0.6984;1.4982;
266.7000;0.6984;1.4936;
267.0000;0.6968;1.4889;
267.3000;0.6968;1.4818;
267.6000;0.6992;1.4889;
267.9000;0.6984;1.4889;
268.2000;0.6984;1.4912;
268.5000;0.6968;1.4936;
268.8000;0.6984;1.4889;
269.1000;0.6976;1.4912;
269.4000;0.6960;1.4771;
269.7000;0.6992;1.4795;
270.0000;0.6984;1.4678;
270.3000;0.6960;1.4607;
270.6000;0.6984;1.4725;
270.9000;0.6992;1.4771;
271.2000;0.6976;1.4748;
271.5000;0.6984;1.4771;
271.8000;0.6984;1.4748;
272.1000;0.6984;1.4842;
272.4000;0.6976;1.4889;
272.7000;0.6968;1.4842;
273.0000;0.6976;1.4842;
273.3000;0.6976;1.4912;
273.6000;0.6976;1.4959;
273.9000;0.7009;1.5006;
274.2000;0.6968;1.4912;
274.5000;0.6968;1.4982;
274.8000;0.6984;1.4959;
275.1000;0.6976;1.4865;
275.4000;0.6968;1.4795;
275.7000;0.6968;1.4818;
276.0000;0.6976;1.4865;
276.3000;0.6952;1.4818;
276.6000;0.7041;1.4936;
276.9000;0.6968;1.4678;
277.2000;0.6968;1.4771;
277.5000;0.6919;1.4701;
277.8000;0.6976;1.4842;
278.1000;0.6976;1.4912;
278.4000;0.6976;1.4936;
278.7000;0.6984;1.4936;
279.0000;0.6968;1.4795;
279.3000;0.6968;1.4748;
279.6000;0.6984;1.4865;
279.9000;0.6960;1.4865;
280.2000;0.6960;1.4889;
280.5000;0.6968;1.4865;
280.8000;0.6976;1.4865;
281.1000;0.6968;1.4865;
281.4000;0.6952;1.4842;
281.7000;0.6960;1.4771;
282.0000;0.6976;1.4795;
282.3000;0.6968;1.4795;
282.6000;0.7033;1.4959;
282.9000;0.6968;1.4771;
283.2000;0.6984;1.4865;
283.5000;0.6960;1.4795;
283.8000;0.6968;1.4771;
284.1000;0.6976;1.4795;
284.4000;0.6976;1.4818;
284.7000;0.6943;1.4748;
285.0000;0.6976;1.4818;
285.3000;0.6960;1.4725;
285.6000;0.6960;1.4654;
285.9000;0.6968;1.4631;
286.2000;0.6984;1.4560;
286.5000;0.6976;1.4584;
286.8000;0.6952;1.4420;
287.1000;0.6976;1.4490;
287.4000;0.6976;1.4560;
287.7000;0.6984;1.4607;
288.0000;0.6935;1.4373;
288.3000;0.6984;1.4514;
288.6000;0.6976;1.4490;
288.9000;0.6984;1.4490;
289.2000;0.6984;1.4490;
289.5000;0.6960;1.4514;
289.8000;0.6968;1.4537;
290.1000;0.6968;1.4584;
290.4000;0.7017;1.4725;
290.7000;0.6976;1.4631;
291.0000;0.6960;1.4654;
291.3000;0.6984;1.4795;
291.6000;0.6935;1.4701;
291.9000;0.6943;1.4725;
292.2000;0.6984;1.4701;
292.5000;0.6984;1.4725;
292.8000;0.6960;1.4725;
293.1000;0.6976;1.4701;
293.4000;0.6943;1.4560;
293.7000;0.6968;1.4514;
294.0000;0.6968;1.4490;
294.3000;0.6952;1.4490;
294.6000;0.6952;1.4560;
294.9000;0.6952;1.4537;
295.2000;0.6968;1.4537;
295.5000;0.6960;1.4560;
295.8000;0.6960;1.4584;
296.1000;0.6952;1.4560;
296.4000;0.6984;1.4607;
296.7000;0.6968;1.4701;
297.0000;0.6952;1.4560;
297.3000;0.6960;1.4584;
297.6000;0.6976;1.4584;
297.9000;0.6976;1.4654;
298.2000;0.6992;1.4725;
298.5000;0.6968;1.4678;
298.8000;0.6976;1.4748;
299.1000;0.6976;1.4771;
299.4000;0.6968;1.4725;
299.7000;0.6952;1.4701;
300.0000;0.6952;1.4725;
300.3000;0.6943;1.4725;
300.6000;0.6984;1.4748;
300.9000;0.6968;1.4725;
301.2000;0.6984;1.4748;
301.5000;0.6976;1.4701;
301.8000;0.6976;1.4701;
302.1000;0.6976;1.4631;
302.4000;0.6992;1.4560;
302.7000;0.6984;1.4560;
303.0000;0.6984;1.4560;
303.3000;0.7000;1.4654;
303.6000;0.6968;1.4514;
303.9000;0.6968;1.4490;
304.2000;0.6968;1.4537;
304.5000;0.6968;1.4537;
304.8000;0.6943;1.4490;
305.1000;0.6976;1.4537;
305.4000;0.6960;1.4631;
305.7000;0.6960;1.4560;
306.0000;0.6960;1.4514;
306.3000;0.6952;1.4584;
306.6000;0.6976;1.4701;
306.9000;0.7009;1.4842;
307.2000;0.6952;1.4771;
307.5000;0.6960;1.4889;
307.8000;0.6984;1.4912;
308.1000;0.7000;1.4936;
308.4000;0.6984;1.4771;
308.7000;0.6968;1.4725;
309.0000;0.6984;1.4607;
309.3000;0.6976;1.4654;
309.6000;0.6952;1.4584;
309.9000;0.6952;1.4607;
310.2000;0.6976;1.4607;
310.5000;0.6992;1.4584;
310.8000;0.6968;1.4560;
311.1000;0.6976;1.4560;
311.4000;0.6943;1.4467;
311.7000;0.6927;1.4396;
312.0000;0.6976;1.4560;
312.3000;0.6952;1.4560;
312.6000;0.6943;1.4584;
312.9000;0.6992;1.4654;
313.2000;0.6984;1.4748;
313.5000;0.6976;1.4748;
313.8000;0.6960;1.4795;
314.1000;0.6968;1.4748;
314.4000;0.6952;1.4795;
314.7000;0.6976;1.4889;
315.0000;0.6976;1.4865;
315.3000;0.6976;1.4865;
315.6000;0.6984;1.4912;
315.9000;0.6976;1.4842;
316.2000;0.6960;1.4795;
316.5000;0.6984;1.4818;
316.8000;0.6935;1.4701;
317.1000;0.6984;1.4865;
317.4000;0.6976;1.4842;
317.7000;0.6952;1.4818;
318.0000;0.6927;1.4795;
318.3000;0.6960;1.4889;
318.6000;0.6984;1.4936;
318.9000;0.6960;1.4936;
319.2000;0.6935;1.4701;
319.5000;0.6943;1.4678;
319.8000;0.6935;1.4654;
320.1000;0.6960;1.4842;
320.4000;0.6960;1.4865;
320.7000;0.6976;1.4889;
321.0000;0.6968;1.4818;
321.3000;0.6952;1.4865;
321.6000;0.6960;1.4912;
321.9000;0.6984;1.4982;
322.2000;0.7033;1.5100;
322.5000;0.6976;1.4936;
322.8000;0.6960;1.4842;
323.1000;0.6960;1.4771;
323.4000;0.6968;1.4771;
323.7000;0.6968;1.4771;
324.0000;0.6968;1.4795;
324.3000;0.6976;1.4865;
324.6000;0.6968;1.4865;
324.9000;0.6968;1.4795;
325.2000;0.6976;1.4771;
325.5000;0.6984;1.4748;
325.8000;0.6976;1.4678;
326.1000;0.6976;1.4795;
326.4000;0.6919;1.4631;
326.7000;0.6952;1.4725;
327.0000;0.6976;1.4771;
327.3000;0.6976;1.4818;
327.6000;0.6960;1.4818;
327.9000;0.6960;1.4771;
328.2000;0.6960;1.4748;
328.5000;0.6984;1.4725;
328.8000;0.6992;1.4795;
329.1000;0.6960;1.4701;
329.4000;0.6960;1.4725;
329.7000;0.6903;1.4560;
330.0000;0.6968;1.4795;
330.3000;0.6984;1.4818;
330.6000;0.6968;1.4842;
330.9000;0.6968;1.4865;
331.2000;0.6984;1.4912;
331.5000;0.6952;1.4818;
331.8000;0.6952;1.4795;
332.1000;0.6968;1.4795;
332.4000;0.6960;1.4748;
332.7000;0.6976;1.4678;
333.0000;0.6952;1.4654;
333.3000;0.6960;1.4631;
333.6000;0.6984;1.4678;
333.9000;0.7009;1.4725;
334.2000;0.6976;1.4584;
334.5000;0.6960;1.4607;
334.8000;0.6935;1.4514;
335.1000;0.6992;1.4631;
335.4000;0.6984;1.4654;
335.7000;0.6943;1.4560;
336.0000;0.6992;1.4748;
336.3000;0.6960;1.4678;
336.6000;0.6976;1.4654;
336.9000;0.7033;1.4795;
337.2000;0.6952;1.4631;
337.5000;0.6968;1.4725;
337.8000;0.6984;1.4865;
338.1000;0.6968;1.4842;
338.4000;0.6968;1.4818;
338.7000;0.6968;1.4818;
339.0000;0.7025;1.4912;
339.3000;0.6984;1.4842;
339.6000;0.6968;1.4912;
339.9000;0.6960;1.4936;
340.2000;0.6976;1.5029;
340.5000;0.6968;1.4982;
340.8000;0.6976;1.5053;
341.1000;0.6960;1.5076;
341.4000;0.6968;1.5076;
341.7000;0.6960;1.5076;
342.0000;0.6960;1.5076;
342.3000;0.6984;1.5100;
342.6000;0.6968;1.5006;
342.9000;0.6984;1.4936;
343.2000;0.6984;1.4936;
343.5000;0.6911;1.4725;
343.8000;0.6952;1.4865;
344.1000;0.6984;1.4959;
344.4000;0.6976;1.4795;
344.7000;0.6984;1.4818;
345.0000;0.6976;1.4795;
345.3000;0.6984;1.4842;
345.6000;0.6984;1.4912;
345.9000;0.6935;1.4725;
346.2000;0.6927;1.4584;
346.5000;0.6960;1.4795;
346.8000;0.6960;1.4795;
347.1000;0.6968;1.4748;
347.4000;0.6960;1.4607;
347.7000;0.6960;1.4678;
348.0000;0.7000;1.4842;
348.3000;0.6976;1.4842;
348.6000;0.6960;1.4865;
348.9000;0.6984;1.4936;
349.2000;0.6984;1.4982;
349.5000;0.6935;1.4865;
349.8000;0.6943;1.4889;
350.1000;0.6878;1.4654;
350.4000;0.6968;1.4936;
350.7000;0.6960;1.4889;
351.0000;0.6960;1.4959;
351.3000;0.6968;1.4912;
351.6000;0.6976;1.4936;
351.9000;0.6878;1.4725;
352.2000;0.6960;1.5076;
352.5000;0.6952;1.5006;
352.8000;0.6952;1.5076;
353.1000;0.6968;1.5170;
353.4000;0.6952;1.5100;
353.7000;0.6919;1.5053;
354.0000;0.6960;1.5100;
354.3000;0.6976;1.5100;
354.6000;0.6960;1.5006;
354.9000;0.6984;1.5029;
355.2000;0.6960;1.4982;
355.5000;0.6960;1.4959;
355.8000;0.6984;1.4936;
356.1000;0.6960;1.4936;
356.4000;0.6984;1.4936;
356.7000;0.7009;1.5029;
357.0000;0.6952;1.4818;
357.3000;0.6968;1.4865;
357.6000;0.6968;1.4842;
357.9000;0.6960;1.4865;
358.2000;0.6968;1.4771;
358.5000;0.6952;1.4701;
358.8000;0.6911;1.4631;
359.1000;0.6968;1.4771;
359.4000;0.6968;1.4725;
359.7000;0.7000;1.4865;
360.0000;0.7000;1.4889;
360.3000;0.6984;1.4818;
360.6000;0.6952;1.4842;
360.9000;0.6984;1.4842;
361.2000;0.6984;1.4912;
361.5000;0.6984;1.4889;
361.8000;0.6976;1.5006;
362.1000;0.7000;1.5053;
362.4000;0.6919;1.4889;
362.7000;0.6935;1.4842;
363.0000;0.6968;1.4865;
363.3000;0.6927;1.4748;
363.6000;0.6968;1.4889;
363.9000;0.6960;1.4889;
364.2000;0.6952;1.4865;
364.5000;0.6968;1.4912;
364.8000;0.6968;1.4889;
365.1000;0.6976;1.4889;
365.4000;0.6968;1.4936;
365.7000;0.6960;1.4912;
366.0000;0.6968;1.4982;
366.3000;0.6976;1.4982;
366.6000;0.6943;1.4818;
366.9000;0.6960;1.4865;
367.2000;0.7057;1.5123;
367.5000;0.6960;1.4912;
367.8000;0.6968;1.4959;
368.1000;0.6952;1.4959;
368.4000;0.6935;1.4865;
368.7000;0.6968;1.4795;
369.0000;0.6976;1.4771;
369.3000;0.6984;1.4865;
369.6000;0.6984;1.4982;
369.9000;0.6960;1.4982;
370.2000;0.6976;1.4936;
370.5000;0.6960;1.4959;
370.8000;0.6968;1.5006;
371.1000;0.6976;1.5076;
371.4000;0.6903;1.4842;
371.7000;0.6943;1.4912;
372.0000;0.6976;1.4959;
372.3000;0.6968;1.4959;
372.6000;0.6984;1.5029;
372.9000;0.6960;1.4912;
373.2000;0.6952;1.4912;
373.5000;0.6984;1.5006;
373.8000;0.6976;1.4982;
374.1000;0.6976;1.4982;
374.4000;0.6943;1.4889;
374.7000;0.6976;1.4842;
375.0000;0.6952;1.4725;
375.3000;0.6984;1.4889;
375.6000;0.7009;1.4936;
375.9000;0.6968;1.4818;
376.2000;0.6984;1.4889;
376.5000;0.6976;1.4889;
376.8000;0.6976;1.4889;
377.1000;0.6968;1.4889;
377.4000;0.6968;1.4865;
377.7000;0.6976;1.4842;
378.0000;0.6960;1.4889;
378.3000;0.6968;1.4982;
378.6000;0.6952;1.5053;
378.9000;0.6952;1.5100;
379.2000;0.6960;1.5029;
379.5000;0.6968;1.5006;
379.8000;0.6968;1.4912;
380.1000;0.6960;1.4842;
380.4000;0.6960;1.4818;
380.7000;0.6919;1.4725;
381.0000;0.6960;1.4842;
381.3000;0.6976;1.4842;
381.6000;0.6968;1.4865;
381.9000;0.6968;1.4748;
382.2000;0.6976;1.4678;
382.5000;0.6968;1.4678;
382.8000;0.6976;1.4725;
383.1000;0.6935;1.4654;
383.4000;0.6960;1.4607;
383.7000;0.6984;1.4584;
384.0000;0.6976;1.4560;
384.3000;0.6968;1.4560;
384.6000;0.6895;1.4373;
384.9000;0.6968;1.4584;
385.2000;0.6927;1.4490;
385.5000;0.6968;1.4631;
385.8000;0.6960;1.4748;
386.1000;0.6903;1.4678;
386.4000;0.6976;1.4889;
386.7000;0.7000;1.5006;
387.0000;0.6984;1.4982;
387.3000;0.6960;1.4889;
387.6000;0.6952;1.4818;
387.9000;0.6968;1.4865;
388.2000;0.6968;1.4865;
388.5000;0.6968;1.4818;
388.8000;0.6960;1.4725;
389.1000;0.6976;1.4725;
389.4000;0.6984;1.4748;
389.7000;0.6960;1.4654;
390.0000;0.6968;1.4584;
390.3000;0.6968;1.4560;
390.6000;0.6976;1.4537;
390.9000;0.6960;1.4584;
391.2000;0.6952;1.4584;
391.5000;0.6960;1.4654;
391.8000;0.6960;1.4748;
392.1000;0.6960;1.4748;
392.4000;0.6960;1.4701;
392.7000;0.6968;1.4678;
393.0000;0.6976;1.4701;
393.3000;0.6968;1.4725;
393.6000;0.6960;1.4701;
393.9000;0.6960;1.4725;
394.2000;0.6960;1.4795;
394.5000;0.6960;1.4771;
394.8000;0.6960;1.4654;
395.1000;0.6960;1.4584;
395.4000;0.6984;1.4678;
395.7000;0.6968;1.4678;
396.0000;0.6960;1.4631;
396.3000;0.6968;1.4678;
396.6000;0.6952;1.4678;
396.9000;0.6976;1.4771;
397.2000;0.6968;1.4771;
397.5000;0.6976;1.4795;
397.8000;0.6952;1.4748;
398.1000;0.6968;1.4842;
398.4000;0.6992;1.4842;
398.7000;0.6992;1.4795;
399.0000;0.6976;1.4771;
399.3000;0.6984;1.4889;
399.6000;0.6968;1.4842;
399.9000;0.6968;1.4795;
400.2000;0.6952;1.4795;
400.5000;0.6968;1.4936;
400.8000;0.6968;1.4936;
401.1000;0.6960;1.4889;
401.4000;0.6960;1.4959;
401.7000;0.6960;1.5006;
402.0000;0.6968;1.4936;
402.3000;0.6968;1.4936;
402.6000;0.6976;1.4936;
402.9000;0.6968;1.4889;
403.2000;0.6968;1.4912;
403.5000;0.6960;1.4959;
403.8000;0.6960;1.4936;
404.1000;0.6960;1.4982;
404.4000;0.6992;1.5100;
404.7000;0.6976;1.5076;
405.0000;0.6976;1.5029;
405.3000;0.6976;1.4959;
405.6000;0.6968;1.4936;
405.9000;0.6984;1.4936;
406.2000;0.6976;1.4865;
406.5000;0.6960;1.4865;
406.8000;0.6984;1.4936;
407.1000;0.6976;1.4959;
407.4000;0.6976;1.4936;
407.7000;0.6878;1.4701;
408.0000;0.6960;1.4818;
408.3000;0.6968;1.4842;
408.6000;0.6984;1.4936;
408.9000;0.6968;1.5006;
409.2000;0.6927;1.4842;
409.5000;0.6976;1.4912;
409.8000;0.6984;1.4982;
410.1000;0.6976;1.5006;
410.4000;0.6976;1.5006;
410.7000;0.6968;1.5006;
411.0000;0.6976;1.4982;
411.3000;0.6976;1.5029;
411.6000;0.6976;1.5029;
411.9000;0.6968;1.4936;
412.2000;0.7041;1.5147;
412.5000;0.6935;1.4912;
412.8000;0.6976;1.4982;
413.1000;0.6976;1.4959;
413.4000;0.6976;1.5029;
413.7000;0.6976;1.5076;
414.0000;0.6976;1.5123;
414.3000;0.6976;1.5194;
414.6000;0.6952;1.5123;
414.9000;0.6976;1.5147;
415.2000;0.7066;1.5358;
415.5000;0.7000;1.5123;
415.8000;0.6976;1.5123;
416.1000;0.6976;1.5123;
416.4000;0.7017;1.5287;
416.7000;0.6992;1.5217;
417.0000;0.6984;1.5240;
417.3000;0.6968;1.5194;
417.6000;0.6943;1.5147;
417.9000;0.6952;1.5100;
418.2000;0.7025;1.5194;
418.5000;0.6911;1.4936;
418.8000;0.6960;1.5006;
419.1000;0.6952;1.5029;
419.4000;0.6919;1.5029;
419.7000;0.6960;1.5147;
420.0000;0.6960;1.5100;
420.3000;0.6960;1.5147;
420.6000;0.6960;1.5076;
420.9000;0.6952;1.5006;
421.2000;0.6968;1.5100;
421.5000;0.6992;1.5147;
421.8000;0.6984;1.5006;
422.1000;0.6960;1.4982;
422.4000;0.6952;1.4912;
422.7000;0.6960;1.4865;
423.0000;0.6976;1.4959;
423.3000;0.6984;1.5029;
423.6000;0.6976;1.4982;
423.9000;0.6960;1.5029;
424.2000;0.6976;1.5076;
424.5000;0.6968;1.5123;
424.8000;0.6984;1.5100;
425.1000;0.7000;1.5147;
425.4000;0.6976;1.5170;
425.7000;0.6952;1.5194;
426.0000;0.6992;1.5264;
426.3000;0.6984;1.5240;
426.6000;0.6878;1.4936;
426.9000;0.6992;1.5123;
427.2000;0.7025;1.5217;
427.5000;0.7000;1.5170;
427.8000;0.6911;1.4959;
428.1000;0.6960;1.5076;
428.4000;0.6960;1.5076;
428.7000;0.7009;1.5170;
429.0000;0.6976;1.5147;
429.3000;0.6976;1.5170;
429.6000;0.6952;1.5147;
429.9000;0.6854;1.4959;
430.2000;0.6943;1.5217;
430.5000;0.6984;1.5334;
430.8000;0.6968;1.5311;
431.1000;0.6968;1.5217;
431.4000;0.6984;1.5194;
431.7000;0.7009;1.5264;
432.0000;0.6960;1.5217;
432.3000;0.7033;1.5381;
432.6000;0.6976;1.5287;
432.9000;0.6960;1.5170;
433.2000;0.6968;1.5240;
433.5000;0.6976;1.5287;
433.8000;0.6968;1.5287;
434.1000;0.7025;1.5451;
434.4000;0.6976;1.5358;
434.7000;0.6976;1.5264;
435.0000;0.6976;1.5240;
435.3000;0.7025;1.5240;
435.6000;0.6968;1.5194;
435.9000;0.6968;1.5194;
436.2000;0.6952;1.5217;
436.5000;0.6960;1.5123;
436.8000;0.6992;1.5147;
437.1000;0.6968;1.5147;
437.4000;0.6984;1.5147;
437.7000;0.6976;1.5240;
438.0000;0.6968;1.5240;
438.3000;0.6952;1.5217;
438.6000;0.6952;1.5170;
438.9000;0.6968;1.5147;
439.2000;0.6976;1.5170;
439.5000;0.6984;1.5100;
439.8000;0.6960;1.5076;
440.1000;0.6968;1.5100;
440.4000;0.6952;1.5029;
440.7000;0.6984;1.5217;
441.0000;0.6943;1.5123;
441.3000;0.6935;1.5053;
441.6000;0.6976;1.5100;
441.9000;0.6968;1.5147;
442.2000;0.7017;1.5264;
442.5000;0.6976;1.5100;
442.8000;0.6968;1.5076;
443.1000;0.6960;1.5006;
443.4000;0.6992;1.5123;
443.7000;0.6984;1.5147;
444.0000;0.6960;1.5100;
444.3000;0.6960;1.5194;
444.6000;0.6960;1.5100;
444.9000;0.6976;1.5147;
445.2000;0.6984;1.5170;
445.5000;0.6984;1.5194;
445.8000;0.7000;1.5217;
446.1000;0.6984;1.5194;
446.4000;0.6984;1.5170;
446.7000;0.6960;1.5194;
447.0000;0.6984;1.5170;
447.3000;0.6935;1.5123;
447.6000;0.6960;1.5217;
447.9000;0.6976;1.5240;
448.2000;0.6976;1.5194;
448.5000;0.6935;1.5147;
448.8000;0.6976;1.5170;
449.1000;0.6976;1.5147;
449.4000;0.6976;1.5123;
449.7000;0.6943;1.5053;
450.0000;0.7049;1.5194;
450.3000;0.6968;1.5006;
450.6000;0.6968;1.4936;
450.9000;0.6992;1.5053;
451.2000;0.6992;1.5076;
451.5000;0.6968;1.5053;
451.8000;0.6943;1.5053;
452.1000;0.6984;1.5100;
452.4000;0.6976;1.5123;
452.7000;0.6976;1.5240;
453.0000;0.6984;1.5194;
453.3000;0.6968;1.5194;
453.6000;0.6968;1.5240;
453.9000;0.6952;1.5194;
454.2000;0.6943;1.5217;
454.5000;0.6968;1.5194;
454.8000;0.6968;1.5240;
455.1000;0.6984;1.5147;
455.4000;0.6952;1.5053;
455.7000;0.7009;1.5264;
456.0000;0.6854;1.4818;
456.3000;0.6927;1.5029;
456.6000;0.7000;1.5240;
456.9000;0.6984;1.5147;
457.2000;0.6903;1.4936;
457.5000;0.6984;1.5147;
457.8000;0.6886;1.4982;
458.1000;0.6960;1.5123;
458.4000;0.6968;1.5076;
458.7000;0.6976;1.5100;
459.0000;0.6992;1.5217;
459.3000;0.7041;1.5381;
459.6000;0.6952;1.5147;
459.9000;0.6968;1.5170;
460.2000;0.6984;1.5194;
460.5000;0.6976;1.5217;
460.8000;0.6968;1.5240;
461.1000;0.6984;1.5334;
461.4000;0.6960;1.5240;
461.7000;0.6992;1.5240;
462.0000;0.6992;1.5240;
462.3000;0.6952;1.5147;
462.6000;0.7000;1.5217;
462.9000;0.6976;1.5029;
463.2000;0.6968;1.5076;
463.5000;0.6984;1.5076;
463.8000;0.6976;1.5076;
464.1000;0.7000;1.5170;
464.4000;0.7009;1.5170;
464.7000;0.6976;1.5147;
465.0000;0.6968;1.5194;
465.3000;0.6992;1.5217;
465.6000;0.6854;1.4842;
465.9000;0.6968;1.5170;
466.2000;0.6919;1.5076;
466.5000;0.6984;1.5170;
466.8000;0.6976;1.5123;
467.1000;0.6984;1.5170;
467.4000;0.6935;1.5006;
467.7000;0.6968;1.5053;
468.0000;0.6976;1.5076;
468.3000;0.6952;1.5006;
468.6000;0.6960;1.4982;
468.9000;0.6976;1.5029;
469.2000;0.6976;1.5076;
469.5000;0.6968;1.5053;
469.8000;0.6976;1.5053;
470.1000;0.7049;1.5217;
470.4000;0.6976;1.5100;
470.7000;0.7000;1.5194;
471.0000;0.6984;1.5123;
471.3000;0.6968;1.5076;
471.6000;0.7000;1.5147;
471.9000;0.6976;1.5053;
472.2000;0.6984;1.5100;
472.5000;0.6976;1.5076;
472.8000;0.6984;1.4982;
473.1000;0.6984;1.5029;
473.4000;0.6992;1.5006;
473.7000;0.6976;1.4982;
474.0000;0.6984;1.5053;
474.3000;0.7000;1.5123;
474.6000;0.6984;1.5076;
474.9000;0.6968;1.5100;
475.2000;0.6903;1.4936;
475.5000;0.6984;1.5100;
475.8000;0.6984;1.5240;
476.1000;0.6968;1.5194;
476.4000;0.6968;1.5100;
476.7000;0.6992;1.5194;
477.0000;0.7000;1.5123;
477.3000;0.7009;1.5100;
477.6000;0.6968;1.5029;
477.9000;0.6976;1.5170;
478.2000;0.6960;1.5147;
478.5000;0.6976;1.5170;
478.8000;0.6992;1.5264;
479.1000;0.6984;1.5381;
479.4000;0.6984;1.5311;
479.7000;0.6968;1.5264;
480.0000;0.6976;1.5170;
480.3000;0.6943;1.5100;
480.6000;0.6992;1.5076;
480.9000;0.6984;1.5053;
481.2000;0.6992;1.5100;
481.5000;0.7025;1.5217;
481.8000;0.6992;1.5147;
482.1000;0.6895;1.4818;
482.4000;0.6943;1.5029;
482.7000;0.6968;1.5147;
483.0000;0.6984;1.5217;
483.3000;0.6968;1.5147;
483.6000;0.6976;1.5123;
483.9000;0.7000;1.5147;
484.2000;0.6960;1.5006;
484.5000;0.6992;1.5100;
484.8000;0.6976;1.5100;
485.1000;0.6968;1.5100;
485.4000;0.6968;1.5100;
485.7000;0.6968;1.5123;
486.0000;0.6984;1.5147;
486.3000;0.6968;1.5217;
486.6000;0.6976;1.5311;
486.9000;0.6968;1.5334;
487.2000;0.6984;1.5334;
487.5000;0.6968;1.5287;
487.8000;0.6960;1.5194;
488.1000;0.6976;1.5240;
488.4000;0.6976;1.5264;
488.7000;0.6968;1.5170;
489.0000;0.6976;1.5100;
489.3000;0.6984;1.5100;
489.6000;0.6952;1.4982;
489.9000;0.6984;1.5100;
490.2000;0.6984;1.5100;
490.5000;0.6976;1.5076;
490.8000;0.6984;1.5100;
491.1000;0.6968;1.5100;
491.4000;0.6968;1.5123;
491.7000;0.6968;1.5123;
492.0000;0.6952;1.5264;
492.3000;0.6976;1.5358;
492.6000;0.6984;1.5287;
492.9000;0.6976;1.5240;
493.2000;0.7009;1.5334;
493.5000;0.6984;1.5264;
493.8000;0.6968;1.5217;
494.1000;0.6976;1.5194;
494.4000;0.6952;1.5076;
494.7000;0.6976;1.5147;
495.0000;0.6984;1.5240;
495.3000;0.6984;1.5194;
495.6000;0.6968;1.5076;
495.9000;0.6984;1.5100;
496.2000;0.6992;1.5123;
496.5000;0.6960;1.5053;
496.8000;0.6984;1.5147;
497.1000;0.6992;1.5123;
497.4000;0.6968;1.5006;
497.7000;0.6984;1.5029;
498.0000;0.6984;1.4912;
498.3000;0.6976;1.4865;
498.6000;0.6984;1.4889;
498.9000;0.6992;1.5006;
499.2000;0.6992;1.5100;
499.5000;0.6976;1.5076;
499.8000;0.6984;1.5100;
500.1000;0.6992;1.5076;
500.4000;0.7000;1.5006;
500.7000;0.6984;1.4936;
501.0000;0.6976;1.4912;
501.3000;0.6903;1.4701;
501.6000;0.6976;1.4678;
501.9000;0.6943;1.4631;
502.2000;0.7025;1.4795;
502.5000;0.7009;1.4865;
502.8000;0.6984;1.4748;
503.1000;0.6960;1.4725;
503.4000;0.6968;1.4748;
503.7000;0.6976;1.4818;
504.0000;0.6984;1.4889;
504.3000;0.7025;1.4982;
504.6000;0.6943;1.4865;
504.9000;0.6984;1.4959;
505.2000;0.6992;1.4982;
505.5000;0.6992;1.5076;
505.8000;0.6968;1.5006;
506.1000;0.6968;1.4959;
506.4000;0.7025;1.5076;
506.7000;0.6984;1.4912;
507.0000;0.6984;1.4959;
507.3000;0.6992;1.5053;
507.6000;0.6976;1.5029;
507.9000;0.7000;1.5053;
508.2000;0.7000;1.5100;
508.5000;0.6976;1.4982;
508.8000;0.6984;1.5053;
509.1000;0.6976;1.5053;
509.4000;0.6984;1.5076;
509.7000;0.6976;1.5100;
510.0000;0.6984;1.5217;
510.3000;0.6992;1.5264;
510.6000;0.6984;1.5264;
510.9000;0.6984;1.5217;
511.2000;0.6992;1.5076;
511.5000;0.6992;1.4936;
511.8000;0.7000;1.4959;
512.1000;0.6984;1.4959;
512.4000;0.6976;1.4912;
512.7000;0.6976;1.4842;
513.0000;0.6984;1.4818;
513.3000;0.6968;1.4842;
513.6000;0.6935;1.4701;
513.9000;0.6984;1.4818;
514.2000;0.6976;1.4842;
514.5000;0.6976;1.4936;
514.8000;0.6960;1.4865;
515.1000;0.6968;1.4795;
515.4000;0.7000;1.4865;
515.7000;0.6960;1.4842;
516.0000;0.6976;1.4889;
516.3000;0.6968;1.4982;
516.6000;0.6968;1.5053;
516.9000;0.6984;1.5100;
517.2000;0.6992;1.5076;
517.5000;0.6976;1.5029;
517.8000;0.6984;1.5006;
518.1000;0.7009;1.5100;
518.4000;0.6992;1.5100;
518.7000;0.7017;1.5123;
519.0000;0.6984;1.4959;
519.3000;0.6992;1.5006;
519.6000;0.6976;1.4959;
519.9000;0.6935;1.4889;
520.2000;0.6960;1.4982;
520.5000;0.6952;1.4959;
520.8000;0.6992;1.5053;
521.1000;0.7009;1.5194;
521.4000;0.6968;1.5123;
521.7000;0.6960;1.5053;
522.0000;0.6968;1.5053;
522.3000;0.6976;1.5100;
522.6000;0.6968;1.5053;
522.9000;0.6960;1.5006;
523.2000;0.7098;1.5381;
523.5000;0.6984;1.5076;
523.8000;0.6968;1.5076;
524.1000;0.6984;1.5076;
524.4000;0.6960;1.4982;
524.7000;0.6960;1.5006;
525.0000;0.6960;1.5029;
525.3000;0.7017;1.5170;
525.6000;0.7000;1.5053;
525.9000;0.6984;1.4982;
526.2000;0.6960;1.4936;
526.5000;0.6984;1.5053;
526.8000;0.6984;1.5100;
527.1000;0.7000;1.5123;
527.4000;0.6984;1.5147;
527.7000;0.7025;1.5311;
528.0000;0.6992;1.5170;
528.3000;0.6992;1.5170;
528.6000;0.6976;1.5123;
528.9000;0.6976;1.5147;
529.2000;0.6968;1.5217;
529.5000;0.6976;1.5194;
529.8000;0.6984;1.5123;
530.1000;0.6968;1.5123;
530.4000;0.6968;1.5194;
530.7000;0.6968;1.5123;
531.0000;0.6976;1.5217;
531.3000;0.6976;1.5170;
531.6000;0.6984;1.5123;
531.9000;0.6984;1.5100;
532.2000;0.6992;1.5147;
532.5000;0.6992;1.5123;
532.8000;0.6984;1.5076;
533.1000;0.6976;1.5053;
533.4000;0.6984;1.5076;
533.7000;0.6992;1.5053;
534.0000;0.6992;1.5006;
534.3000;0.6984;1.4982;
534.6000;0.7106;1.5358;
534.9000;0.6984;1.5006;
535.2000;0.6992;1.5053;
535.5000;0.6992;1.5076;
535.8000;0.6984;1.5053;
536.1000;0.6976;1.5029;
536.4000;0.7033;1.5029;
536.7000;0.6984;1.4842;
537.0000;0.6976;1.4818;
537.3000;0.6984;1.4959;
537.6000;0.6984;1.4959;
537.9000;0.6976;1.4959;
538.2000;0.6992;1.4959;
538.5000;0.6992;1.4889;
538.8000;0.6984;1.4818;
539.1000;0.6968;1.4795;
539.4000;0.7000;1.4865;
539.7000;0.6992;1.4959;
540.0000;0.6992;1.5029;
540.3000;0.6984;1.5053;
540.6000;0.6960;1.5053;
540.9000;0.6968;1.5029;
541.2000;0.6984;1.5076;
541.5000;0.7114;1.5428;
541.8000;0.6984;1.5076;
542.1000;0.6984;1.5053;
542.4000;0.6927;1.4982;
542.7000;0.6976;1.5123;
543.0000;0.7000;1.5147;
543.3000;0.6992;1.5170;
543.6000;0.6992;1.5264;
543.9000;0.6984;1.5170;
544.2000;0.6992;1.5170;
544.5000;0.7057;1.5358;
544.8000;0.7114;1.5428;
545.1000;0.6984;1.4959;
545.4000;0.7000;1.5076;
545.7000;0.6992;1.5076;
546.0000;0.6976;1.5029;
546.3000;0.6992;1.5147;
546.6000;0.6992;1.5170;
546.9000;0.6984;1.5123;
547.2000;0.6943;1.5053;
547.5000;0.6968;1.5147;
547.8000;0.6992;1.5147;
548.1000;0.6984;1.5123;
548.4000;0.6984;1.5100;
548.7000;0.6976;1.5100;
549.0000;0.6984;1.5123;
549.3000;0.6984;1.5029;
549.6000;0.6984;1.4982;
549.9000;0.6976;1.5006;
550.2000;0.6992;1.5100;
550.5000;0.6992;1.5264;
550.8000;0.6992;1.5217;
551.1000;0.6984;1.5123;
551.4000;0.6976;1.5053;
551.7000;0.6943;1.4912;
552.0000;0.6984;1.5029;
552.3000;0.6976;1.4959;
552.6000;0.6952;1.5053;
552.9000;0.6903;1.4959;
553.2000;0.6992;1.5053;
553.5000;0.6976;1.5076;
553.8000;0.6943;1.5029;
554.1000;0.6984;1.5100;
554.4000;0.6984;1.5170;
554.7000;0.6984;1.5123;
555.0000;0.7000;1.5147;
555.3000;0.6919;1.4982;
555.6000;0.6984;1.5170;
555.9000;0.6992;1.5147;
556.2000;0.6968;1.5053;
556.5000;0.6984;1.5076;
556.8000;0.6984;1.5076;
557.1000;0.7000;1.5006;
557.4000;0.7009;1.5123;
557.7000;0.6984;1.5100;
558.0000;0.6976;1.5006;
558.3000;0.6992;1.5006;
558.6000;0.7041;1.5076;
558.9000;0.6984;1.4912;
559.2000;0.6984;1.4912;
559.5000;0.6984;1.5006;
559.8000;0.6976;1.5053;
560.1000;0.6984;1.5053;
560.4000;0.7009;1.5147;
560.7000;0.7000;1.5194;
561.0000;0.6976;1.5170;
561.3000;0.7000;1.5194;
561.6000;0.6984;1.5029;
561.9000;0.6976;1.4912;
562.2000;0.6960;1.4959;
562.5000;0.6976;1.5029;
562.8000;0.6976;1.5100;
563.1000;0.6984;1.5076;
563.4000;0.6992;1.4982;
563.7000;0.6984;1.5029;
564.0000;0.6976;1.5029;
564.3000;0.6976;1.5053;
564.6000;0.7000;1.5170;
564.9000;0.6984;1.5170;
565.2000;0.6976;1.5100;
565.5000;0.7000;1.5217;
565.8000;0.6984;1.5194;
566.1000;0.7000;1.5217;
566.4000;0.7025;1.5311;
566.7000;0.6992;1.5147;
567.0000;0.6976;1.5053;
567.3000;0.7009;1.5076;
567.6000;0.6943;1.4842;
567.9000;0.6992;1.4865;
568.2000;0.6984;1.4912;
568.5000;0.7074;1.5147;
568.8000;0.6984;1.4982;
569.1000;0.6935;1.4818;
569.4000;0.6984;1.4936;
569.7000;0.6984;1.4936;
570.0000;0.6960;1.4818;
570.3000;0.6992;1.4795;
570.6000;0.6992;1.4865;
570.9000;0.6992;1.4889;
571.2000;0.6935;1.4748;
571.5000;0.6984;1.4889;
571.8000;0.7000;1.4936;
572.1000;0.6984;1.4936;
572.4000;0.6984;1.4959;
572.7000;0.6992;1.4982;
573.0000;0.6984;1.4959;
573.3000;0.7000;1.5006;
573.6000;0.7000;1.5053;
573.9000;0.6976;1.5147;
574.2000;0.6976;1.5147;
574.5000;0.6919;1.4982;
574.8000;0.7009;1.5264;
575.1000;0.6976;1.5076;
575.4000;0.6984;1.5100;
575.7000;0.6927;1.5029;
576.0000;0.7017;1.5264;
576.3000;0.7066;1.5287;
576.6000;0.6968;1.5053;
576.9000;0.7017;1.5147;
577.2000;0.6984;1.5029;
577.5000;0.7025;1.5170;
577.8000;0.7009;1.5123;
578.1000;0.6984;1.5053;
578.4000;0.7000;1.5053;
578.7000;0.7017;1.5147;
579.0000;0.6992;1.5217;
579.3000;0.6903;1.5029;
579.6000;0.6984;1.5123;
579.9000;0.6992;1.5147;
580.2000;0.7000;1.5217;
580.5000;0.6992;1.5123;
580.8000;0.6968;1.5123;
581.1000;0.6976;1.5217;
581.4000;0.6935;1.5053;
581.7000;0.6984;1.5217;
582.0000;0.7009;1.5287;
582.3000;0.6984;1.5170;
582.6000;0.7000;1.5287;
582.9000;0.7025;1.5334;
583.2000;0.6984;1.5194;
583.5000;0.7009;1.5311;
583.8000;0.6976;1.5147;
584.1000;0.6992;1.5217;
584.4000;0.6984;1.5287;
584.7000;0.6976;1.5287;
585.0000;0.6976;1.5194;
585.3000;0.6976;1.5240;
585.6000;0.6976;1.5264;
585.9000;0.6984;1.5170;
586.2000;0.7000;1.5217;
586.5000;0.7000;1.5217;
586.8000;0.6976;1.5100;
587.1000;0.6976;1.5147;
587.4000;0.6992;1.5217;
587.7000;0.6992;1.5170;
588.0000;0.6992;1.5147;
588.3000;0.6984;1.5170;
588.6000;0.6992;1.5240;
588.9000;0.7000;1.5240;
589.2000;0.6952;1.5123;
589.5000;0.6984;1.5240;
589.8000;0.6968;1.5240;
590.1000;0.6976;1.5194;
590.4000;0.6992;1.5217;
590.7000;0.6992;1.5240;
591.0000;0.7033;1.5287;
591.3000;0.7017;1.5334;
591.6000;0.7000;1.5405;
591.9000;0.6992;1.5358;
592.2000;0.7000;1.5358;
592.5000;0.6968;1.5194;
592.8000;0.6992;1.5264;
593.1000;0.6968;1.5170;
593.4000;0.6927;1.5006;
593.7000;0.6976;1.5217;
594.0000;0.6984;1.5194;
594.3000;0.7000;1.5100;
594.6000;0.6992;1.5123;
594.9000;0.7000;1.5100;
595.2000;0.6984;1.5053;
595.5000;0.6992;1.4982;
595.8000;0.6976;1.4865;
596.1000;0.6984;1.4912;
596.4000;0.6984;1.4889;
596.7000;0.7017;1.4912;
597.0000;0.6984;1.4936;
597.3000;0.7017;1.5029;
597.6000;0.6992;1.5029;
597.9000;0.7000;1.5123;
598.2000;0.7082;1.5334;
598.5000;0.6927;1.4982;
598.8000;0.6984;1.5217;
599.1000;0.7033;1.5334;
599.4000;0.7017;1.5194;
599.7000;0.6984;1.5123;
600.0000;0.7009;1.5147;
600.3000;0.6992;1.5006;
600.6000;0.7033;1.4912;
600.9000;0.6911;1.4537;
601.2000;0.6886;1.4443;
601.5000;0.6886;1.4396;
601.8000;0.6846;1.4303;
602.1000;0.6781;1.4162;
602.4000;0.6724;1.3974;
602.7000;0.6675;1.3974;
603.0000;0.6642;1.3927;
603.3000;0.6561;1.3716;
603.6000;0.6553;1.3693;
603.9000;0.6504;1.3529;
604.2000;0.6471;1.3412;
604.5000;0.6414;1.3294;
604.8000;0.6398;1.3318;
605.1000;0.6390;1.3271;
605.4000;0.6333;1.3177;
605.7000;0.6292;1.3060;
606.0000;0.6252;1.2919;
606.3000;0.6211;1.2919;
606.6000;0.6178;1.2872;
606.9000;0.6170;1.2778;
607.2000;0.6129;1.2755;
607.5000;0.6105;1.2778;
607.8000;0.6072;1.2755;
608.1000;0.6064;1.2778;
608.4000;0.6024;1.2755;
608.7000;0.5991;1.2708;
609.0000;0.5975;1.2708;
609.3000;0.5958;1.2802;
609.6000;0.5942;1.2872;
609.9000;0.5918;1.2872;
610.2000;0.5885;1.2802;
610.5000;0.5885;1.2802;
610.8000;0.5869;1.2755;
611.1000;0.5804;1.2567;
611.4000;0.5796;1.2567;
611.7000;0.5796;1.2591;
612.0000;0.5771;1.2544;
612.3000;0.5747;1.2544;
612.6000;0.5747;1.2661;
612.9000;0.5714;1.2591;
613.2000;0.5698;1.2521;
613.5000;0.5690;1.2403;
613.8000;0.5665;1.2380;
614.1000;0.5649;1.2286;
614.4000;0.5625;1.2216;
614.7000;0.5551;1.2005;
615.0000;0.5641;1.2286;
615.3000;0.5600;1.2286;
615.6000;0.5560;1.2263;
615.9000;0.5551;1.2356;
616.2000;0.5551;1.2427;
616.5000;0.5527;1.2356;
616.8000;0.5503;1.2310;
617.1000;0.5478;1.2356;
617.4000;0.5462;1.2239;
617.7000;0.5454;1.2286;
618.0000;0.5413;1.2286;
618.3000;0.5446;1.2356;
618.6000;0.5438;1.2356;
618.9000;0.5405;1.2286;
619.2000;0.5364;1.2239;
619.5000;0.5364;1.2239;
619.8000;0.5381;1.2310;
620.1000;0.5348;1.2192;
620.4000;0.5495;1.2567;
620.7000;0.5438;1.2403;
621.0000;0.5332;1.2192;
621.3000;0.5299;1.2122;
621.6000;0.5299;1.2169;
621.9000;0.5283;1.2286;
622.2000;0.5258;1.2216;
622.5000;0.5381;1.2497;
622.8000;0.5193;1.2122;
623.1000;0.5250;1.2310;
623.4000;0.5242;1.2263;
623.7000;0.5234;1.2286;
624.0000;0.5226;1.2263;
624.3000;0.5226;1.2216;
624.6000;0.5193;1.2216;
624.9000;0.5185;1.2286;
625.2000;0.5201;1.2286;
625.5000;0.5193;1.2192;
625.8000;0.5169;1.2169;
626.1000;0.5153;1.2145;
626.4000;0.5169;1.2145;
626.7000;0.5161;1.2075;
627.0000;0.5136;1.2075;
627.3000;0.5120;1.2075;
627.6000;0.5120;1.2122;
627.9000;0.5112;1.2052;
628.2000;0.5079;1.1981;
628.5000;0.5088;1.1864;
628.8000;0.5112;1.2099;
629.1000;0.5096;1.2099;
629.4000;0.5014;1.1911;
629.7000;0.5039;1.2122;
630.0000;0.5055;1.2192;
630.3000;0.5047;1.2099;
630.6000;0.4982;1.2005;
630.9000;0.5047;1.2192;
631.2000;0.4998;1.2145;
631.5000;0.5144;1.2567;
631.8000;0.5014;1.2192;
632.1000;0.5006;1.2192;
632.4000;0.4974;1.2052;
632.7000;0.4982;1.2099;
633.0000;0.4982;1.2192;
633.3000;0.4941;1.2169;
633.6000;0.4957;1.2075;
633.9000;0.4957;1.2005;
634.2000;0.4933;1.1934;
634.5000;0.4908;1.1911;
634.8000;0.4933;1.2099;
635.1000;0.4933;1.2169;
635.4000;0.4949;1.2145;
635.7000;0.4917;1.2169;
636.0000;0.4908;1.2192;
636.3000;0.4835;1.1911;
636.6000;0.4851;1.2028;
636.9000;0.4900;1.2099;
637.2000;0.4892;1.2052;
637.5000;0.4819;1.1981;
637.8000;0.4860;1.2122;
638.1000;0.4876;1.2263;
638.4000;0.4868;1.2310;
638.7000;0.4860;1.2286;
639.0000;0.4884;1.2380;
639.3000;0.4908;1.2333;
639.6000;0.4851;1.2310;
639.9000;0.4843;1.2333;
640.2000;0.4851;1.2239;
640.5000;0.4843;1.2333;
640.8000;0.4819;1.2263;
641.1000;0.4843;1.2333;
641.4000;0.4794;1.2239;
641.7000;0.4835;1.2263;
642.0000;0.4770;1.2145;
642.3000;0.4803;1.2239;
642.6000;0.4811;1.2239;
642.9000;0.4803;1.2216;
643.2000;0.4803;1.2169;
643.5000;0.4778;1.2145;
643.8000;0.4770;1.2145;
644.1000;0.4762;1.2145;
644.4000;0.4737;1.2169;
644.7000;0.4762;1.2263;
645.0000;0.4762;1.2263;
645.3000;0.4746;1.2239;
645.6000;0.4762;1.2216;
645.9000;0.4762;1.2192;
646.2000;0.4746;1.2099;
646.5000;0.4754;1.2052;
646.8000;0.4762;1.1958;
647.1000;0.4746;1.2005;
647.4000;0.4729;1.1981;
647.7000;0.4729;1.2005;
648.0000;0.4729;1.2052;
648.3000;0.4729;1.2122;
648.6000;0.4746;1.2099;
648.9000;0.4729;1.2099;
649.2000;0.4729;1.2099;
649.5000;0.4705;1.2052;
649.8000;0.4721;1.2122;
650.1000;0.4713;1.2099;
650.4000;0.4656;1.2052;
650.7000;0.4713;1.2099;
651.0000;0.4689;1.2122;
651.3000;0.4689;1.2122;
651.6000;0.4681;1.2099;
651.9000;0.4689;1.2075;
652.2000;0.4697;1.2192;
652.5000;0.4681;1.2145;
652.8000;0.4664;1.2122;
653.1000;0.4697;1.2239;
653.4000;0.4689;1.2145;
653.7000;0.4697;1.2192;
654.0000;0.4648;1.2028;
654.3000;0.4664;1.2075;
654.6000;0.4632;1.2075;
654.9000;0.4656;1.2192;
655.2000;0.4648;1.2263;
655.5000;0.4640;1.2263;
655.8000;0.4648;1.2263;
656.1000;0.4672;1.2310;
656.4000;0.4624;1.2169;
656.7000;0.4624;1.2099;
657.0000;0.4632;1.2099;
657.3000;0.4640;1.2145;
657.6000;0.4632;1.2169;
657.9000;0.4632;1.2169;
658.2000;0.4632;1.2122;
658.5000;0.4640;1.2122;
658.8000;0.4632;1.2099;
659.1000;0.4624;1.2028;
659.4000;0.4607;1.1981;
659.7000;0.4624;1.2052;
660.0000;0.4632;1.2028;
660.3000;0.4607;1.1981;
660.6000;0.4624;1.2075;
660.9000;0.4721;1.2333;
661.2000;0.4624;1.2075;
661.5000;0.4591;1.2028;
661.8000;0.4607;1.2075;
662.1000;0.4615;1.2052;
662.4000;0.4624;1.2145;
662.7000;0.4591;1.2052;
663.0000;0.4591;1.2122;
663.3000;0.4599;1.2122;
663.6000;0.4599;1.2099;
663.9000;0.4599;1.2075;
664.2000;0.4550;1.1981;
664.5000;0.4591;1.2052;
664.8000;0.4575;1.2052;
665.1000;0.4583;1.2145;
665.4000;0.4583;1.2216;
665.7000;0.4575;1.2216;
666.0000;0.4583;1.2145;
666.3000;0.4567;1.2052;
666.6000;0.4567;1.2145;
666.9000;0.4550;1.2122;
667.2000;0.4567;1.2192;
667.5000;0.4542;1.2169;
667.8000;0.4575;1.2239;
668.1000;0.4624;1.2286;
668.4000;0.4550;1.2075;
668.7000;0.4550;1.2145;
669.0000;0.4550;1.2145;
669.3000;0.4534;1.2122;
669.6000;0.4558;1.2145;
669.9000;0.4534;1.2052;
670.2000;0.4550;1.2075;
670.5000;0.4558;1.2052;
670.8000;0.4542;1.1958;
671.1000;0.4542;1.1888;
671.4000;0.4542;1.1911;
671.7000;0.4444;1.1700;
672.0000;0.4550;1.2005;
672.3000;0.4542;1.2099;
672.6000;0.4558;1.2192;
672.9000;0.4550;1.2192;
673.2000;0.4534;1.2145;
673.5000;0.4526;1.2145;
673.8000;0.4542;1.2192;
674.1000;0.4534;1.2216;
674.4000;0.4526;1.2192;
674.7000;0.4518;1.2099;
675.0000;0.4510;1.2075;
675.3000;0.4518;1.2028;
675.6000;0.4567;1.2169;
675.9000;0.4518;1.2028;
676.2000;0.4501;1.2052;
676.5000;0.4518;1.2099;
676.8000;0.4583;1.2310;
677.1000;0.4501;1.2192;
677.4000;0.4404;1.1934;
677.7000;0.4501;1.2263;
678.0000;0.4518;1.2380;
678.3000;0.4518;1.2403;
678.6000;0.4510;1.2450;
678.9000;0.4501;1.2450;
679.2000;0.4518;1.2450;
679.5000;0.4501;1.2403;
679.8000;0.4493;1.2356;
680.1000;0.4493;1.2169;
680.4000;0.4493;1.2122;
680.7000;0.4493;1.2075;
681.0000;0.4493;1.2122;
681.3000;0.4493;1.2122;
681.6000;0.4510;1.2099;
681.9000;0.4501;1.2052;
682.2000;0.4485;1.1958;
682.5000;0.4493;1.2005;
682.8000;0.4485;1.1981;
683.1000;0.4501;1.1958;
683.4000;0.4477;1.1934;
683.7000;0.4485;1.1958;
684.0000;0.4485;1.1888;
684.3000;0.4510;1.2028;
684.6000;0.4412;1.1794;
684.9000;0.4485;1.1958;
685.2000;0.4477;1.1981;
685.5000;0.4469;1.2052;
685.8000;0.4493;1.2075;
686.1000;0.4469;1.1958;
686.4000;0.4550;1.2239;
686.7000;0.4469;1.2145;
687.0000;0.4469;1.2192;
687.3000;0.4363;1.1958;
687.6000;0.4436;1.2005;
687.9000;0.4477;1.2028;
688.2000;0.4477;1.2052;
688.5000;0.4453;1.2028;
688.8000;0.4461;1.1958;
689.1000;0.4461;1.1981;
689.4000;0.4469;1.2005;
689.7000;0.4453;1.2052;
690.0000;0.4404;1.2028;
690.3000;0.4444;1.2169;
690.6000;0.4428;1.2169;
690.9000;0.4477;1.2310;
691.2000;0.4461;1.2310;
691.5000;0.4444;1.2356;
691.8000;0.4436;1.2239;
692.1000;0.4453;1.2286;
692.4000;0.4461;1.2216;
692.7000;0.4379;1.2028;
693.0000;0.4444;1.2263;
693.3000;0.4330;1.1981;
693.6000;0.4412;1.2169;
693.9000;0.4444;1.2239;
694.2000;0.4542;1.2567;
694.5000;0.4436;1.2216;
694.8000;0.4412;1.2145;
695.1000;0.4444;1.2310;
695.4000;0.4444;1.2356;
695.7000;0.4428;1.2427;
696.0000;0.4453;1.2474;
696.3000;0.4444;1.2474;
696.6000;0.4453;1.2450;
696.9000;0.4420;1.2380;
697.2000;0.4428;1.2403;
697.5000;0.4436;1.2450;
697.8000;0.4412;1.2356;
698.1000;0.4428;1.2263;
698.4000;0.4469;1.2310;
698.7000;0.4444;1.2216;
699.0000;0.4444;1.2169;
699.3000;0.4428;1.2145;
699.6000;0.4420;1.2286;
699.9000;0.4404;1.2263;
700.2000;0.4428;1.2356;
700.5000;0.4412;1.2380;
700.8000;0.4420;1.2403;
701.1000;0.4436;1.2333;
701.4000;0.4444;1.2286;
701.7000;0.4420;1.2239;
702.0000;0.4412;1.2239;
702.3000;0.4428;1.2310;
702.6000;0.4428;1.2427;
702.9000;0.4412;1.2310;
703.2000;0.4404;1.2239;
703.5000;0.4420;1.2239;
703.8000;0.4412;1.2145;
704.1000;0.4420;1.2192;
704.4000;0.4420;1.2286;
704.7000;0.4404;1.2286;
705.0000;0.4404;1.2263;
705.3000;0.4469;1.2474;
705.6000;0.4404;1.2239;
705.9000;0.4404;1.2239;
706.2000;0.4412;1.2310;
706.5000;0.4469;1.2380;
706.8000;0.4371;1.2145;
707.1000;0.4396;1.2169;
707.4000;0.4412;1.2145;
707.7000;0.4412;1.2122;
708.0000;0.4396;1.2052;
708.3000;0.4363;1.1888;
708.6000;0.4387;1.2005;
708.9000;0.4379;1.2005;
709.2000;0.4420;1.2028;
709.5000;0.4420;1.2005;
709.8000;0.4420;1.1981;
710.1000;0.4404;1.2052;
710.4000;0.4412;1.2052;
710.7000;0.4420;1.2122;
711.0000;0.4371;1.1981;
711.3000;0.4404;1.2075;
711.6000;0.4322;1.1841;
711.9000;0.4412;1.1981;
712.2000;0.4371;1.1911;
712.5000;0.4404;1.1981;
712.8000;0.4379;1.1958;
713.1000;0.4363;1.1911;
713.4000;0.4396;1.2145;
713.7000;0.4387;1.2145;
714.0000;0.4371;1.2169;
714.3000;0.4371;1.2192;
714.6000;0.4396;1.2310;
714.9000;0.4396;1.2333;
715.2000;0.4387;1.2333;
715.5000;0.4379;1.2310;
715.8000;0.4396;1.2356;
716.1000;0.4396;1.2286;
716.4000;0.4510;1.2567;
716.7000;0.4404;1.2239;
717.0000;0.4387;1.2239;
717.3000;0.4420;1.2310;
717.6000;0.4396;1.2192;
717.9000;0.4412;1.2192;
718.2000;0.4396;1.2075;
718.5000;0.4404;1.2099;
718.8000;0.4387;1.2005;
719.1000;0.4396;1.2052;
719.4000;0.4339;1.1934;
719.7000;0.4387;1.2075;
720.0000;0.4387;1.2028;
720.3000;0.4396;1.2028;
720.6000;0.4404;1.2145;
720.9000;0.4387;1.2075;
721.2000;0.4379;1.2052;
721.5000;0.4379;1.2052;
721.8000;0.4396;1.2122;
722.1000;0.4404;1.2122;
722.4000;0.4379;1.2028;
722.7000;0.4371;1.2005;
723.0000;0.4379;1.2052;
723.3000;0.4387;1.2099;
723.6000;0.4387;1.2028;
723.9000;0.4347;1.2052;
724.2000;0.4363;1.2169;
724.5000;0.4314;1.2099;
724.8000;0.4363;1.2263;
725.1000;0.4363;1.2192;
725.4000;0.4387;1.2169;
725.7000;0.4363;1.2192;
726.0000;0.4379;1.2310;
726.3000;0.4371;1.2286;
726.6000;0.4371;1.2286;
726.9000;0.4371;1.2286;
727.2000;0.4363;1.2216;
727.5000;0.4371;1.2192;
727.8000;0.4371;1.2216;
728.1000;0.4387;1.2239;
728.4000;0.4371;1.2192;
728.7000;0.4355;1.2145;
729.0000;0.4371;1.2122;
729.3000;0.4339;1.2052;
729.6000;0.4379;1.2075;
729.9000;0.4371;1.2099;
730.2000;0.4371;1.2216;
730.5000;0.4404;1.2239;
730.8000;0.4404;1.2286;
731.1000;0.4371;1.2122;
731.4000;0.4371;1.2028;
731.7000;0.4347;1.2028;
732.0000;0.4387;1.2052;
732.3000;0.4371;1.2075;
732.6000;0.4371;1.2099;
732.9000;0.4347;1.2145;
733.2000;0.4363;1.2239;
733.5000;0.4436;1.2286;
733.8000;0.4363;1.2145;
734.1000;0.4347;1.2122;
734.4000;0.4347;1.2216;
734.7000;0.4363;1.2216;
735.0000;0.4371;1.2192;
735.3000;0.4339;1.2216;
735.6000;0.4249;1.1934;
735.9000;0.4371;1.2239;
736.2000;0.4330;1.2216;
736.5000;0.4339;1.2310;
736.8000;0.4347;1.2286;
737.1000;0.4363;1.2239;
737.4000;0.4371;1.2286;
737.7000;0.4363;1.2216;
738.0000;0.4363;1.2333;
738.3000;0.4363;1.2263;
738.6000;0.4371;1.2310;
738.9000;0.4355;1.2263;
739.2000;0.4371;1.2239;
739.5000;0.4371;1.2192;
739.8000;0.4371;1.2145;
740.1000;0.4306;1.1911;
740.4000;0.4412;1.2145;
740.7000;0.4444;1.2263;
741.0000;0.4379;1.2075;
741.3000;0.4371;1.1934;
741.6000;0.4355;1.1958;
741.9000;0.4330;1.1841;
742.2000;0.4363;1.1888;
742.5000;0.4339;1.1864;
742.8000;0.4355;1.1911;
743.1000;0.4363;1.1958;
743.4000;0.4347;1.1911;
743.7000;0.4379;1.1958;
744.0000;0.4363;1.2052;
744.3000;0.4355;1.2028;
744.6000;0.4330;1.2005;
744.9000;0.4379;1.2052;
745.2000;0.4371;1.2216;
745.5000;0.4339;1.2052;
745.8000;0.4339;1.2052;
746.1000;0.4355;1.2099;
746.4000;0.4363;1.2122;
746.7000;0.4363;1.2192;
747.0000;0.4347;1.2169;
747.3000;0.4371;1.2169;
747.6000;0.4363;1.2099;
747.9000;0.4371;1.2052;
748.2000;0.4347;1.1981;
748.5000;0.4363;1.2075;
748.8000;0.4355;1.2122;
749.1000;0.4355;1.2145;
749.4000;0.4363;1.2122;
749.7000;0.4355;1.2052;
750.0000;0.4355;1.2052;
750.3000;0.4355;1.2075;
750.6000;0.4330;1.2005;
750.9000;0.4330;1.2052;
751.2000;0.4347;1.2075;
751.5000;0.4355;1.2099;
751.8000;0.4347;1.2052;
752.1000;0.4355;1.2075;
752.4000;0.4330;1.2052;
752.7000;0.4330;1.2099;
753.0000;0.4339;1.2005;
753.3000;0.4363;1.2052;
753.6000;0.4330;1.1934;
753.9000;0.4347;1.1958;
754.2000;0.4396;1.2122;
754.5000;0.4355;1.1981;
754.8000;0.4363;1.2028;
755.1000;0.4355;1.2028;
755.4000;0.4290;1.1888;
755.7000;0.4322;1.2028;
756.0000;0.4322;1.2028;
756.3000;0.4339;1.2099;
756.6000;0.4347;1.2075;
756.9000;0.4347;1.2075;
757.2000;0.4339;1.2075;
757.5000;0.4347;1.2075;
757.8000;0.4339;1.2169;
758.1000;0.4339;1.2286;
758.4000;0.4347;1.2310;
758.7000;0.4347;1.2356;
759.0000;0.4339;1.2333;
759.3000;0.4257;1.2145;
759.6000;0.4355;1.2380;
759.9000;0.4339;1.2333;
760.2000;0.4363;1.2333;
760.5000;0.4347;1.2239;
760.8000;0.4339;1.2239;
761.1000;0.4347;1.2216;
761.4000;0.4347;1.2333;
761.7000;0.4330;1.2286;
762.0000;0.4347;1.2216;
762.3000;0.4322;1.2286;
762.6000;0.4314;1.2192;
762.9000;0.4322;1.2333;
763.2000;0.4314;1.2403;
763.5000;0.4330;1.2356;
763.8000;0.4339;1.2403;
764.1000;0.4339;1.2380;
764.4000;0.4355;1.2356;
764.7000;0.4330;1.2239;
765.0000;0.4282;1.2099;
765.3000;0.4347;1.2333;
765.6000;0.4347;1.2380;
765.9000;0.4363;1.2333;
766.2000;0.4330;1.2263;
766.5000;0.4339;1.2169;
766.8000;0.4339;1.2192;
767.1000;0.4257;1.1981;
767.4000;0.4339;1.2145;
767.7000;0.4322;1.2075;
768.0000;0.4339;1.2122;
768.3000;0.4339;1.2122;
768.6000;0.4330;1.2099;
768.9000;0.4322;1.2099;
769.2000;0.4347;1.2216;
769.5000;0.4396;1.2310;
769.8000;0.4330;1.2145;
770.1000;0.4339;1.2239;
770.4000;0.4314;1.2145;
770.7000;0.4339;1.2216;
771.0000;0.4339;1.2122;
771.3000;0.4363;1.2145;
771.6000;0.4379;1.2169;
771.9000;0.4322;1.2052;
772.2000;0.4330;1.2145;
772.5000;0.4314;1.2169;
772.8000;0.4314;1.2239;
773.1000;0.4371;1.2356;
773.4000;0.4339;1.2239;
773.7000;0.4339;1.2239;
774.0000;0.4330;1.2122;
774.3000;0.4363;1.2192;
774.6000;0.4347;1.2192;
774.9000;0.4339;1.2239;
775.2000;0.4347;1.2239;
775.5000;0.4314;1.2286;
775.8000;0.4347;1.2356;
776.1000;0.4322;1.2310;
776.4000;0.4330;1.2239;
776.7000;0.4306;1.2122;
777.0000;0.4322;1.2169;
777.3000;0.4339;1.2239;
777.6000;0.4322;1.2169;
777.9000;0.4412;1.2450;
778.2000;0.4339;1.2286;
778.5000;0.4347;1.2263;
778.8000;0.4339;1.2216;
779.1000;0.4347;1.2263;
779.4000;0.4339;1.2169;
779.7000;0.4330;1.2192;
780.0000;0.4371;1.2427;
780.3000;0.4355;1.2403;
780.6000;0.4298;1.2380;
780.9000;0.4290;1.2380;
781.2000;0.4330;1.2497;
781.5000;0.4339;1.2450;
781.8000;0.4322;1.2450;
782.1000;0.4363;1.2567;
782.4000;0.4314;1.2474;
782.7000;0.4322;1.2427;
783.0000;0.4347;1.2521;
783.3000;0.4330;1.2544;
783.6000;0.4339;1.2474;
783.9000;0.4306;1.2310;
784.2000;0.4330;1.2380;
784.5000;0.4314;1.2310;
784.8000;0.4379;1.2450;
785.1000;0.4420;1.2638;
785.4000;0.4314;1.2310;
785.7000;0.4241;1.2075;
786.0000;0.4330;1.2310;
786.3000;0.4339;1.2239;
786.6000;0.4363;1.2333;
786.9000;0.4314;1.2286;
787.2000;0.4355;1.2356;
787.5000;0.4330;1.2310;
787.8000;0.4314;1.2216;
788.1000;0.4534;1.2802;
788.4000;0.4322;1.2239;
788.7000;0.4322;1.2310;
789.0000;0.4330;1.2356;
789.3000;0.4298;1.2239;
789.6000;0.4330;1.2310;
789.9000;0.4274;1.2122;
790.2000;0.4314;1.2310;
790.5000;0.4298;1.2286;
790.8000;0.4314;1.2286;
791.1000;0.4355;1.2380;
791.4000;0.4330;1.2380;
791.7000;0.4314;1.2263;
792.0000;0.4306;1.2192;
792.3000;0.4322;1.2192;
792.6000;0.4339;1.2239;
792.9000;0.4322;1.2286;
793.2000;0.4330;1.2333;
793.5000;0.4322;1.2356;
793.8000;0.4298;1.2427;
794.1000;0.4306;1.2474;
794.4000;0.4306;1.2356;
794.7000;0.4322;1.2450;
795.0000;0.4241;1.2263;
795.3000;0.4306;1.2450;
795.6000;0.4290;1.2427;
795.9000;0.4298;1.2474;
796.2000;0.4306;1.2474;
796.5000;0.4314;1.2474;
796.8000;0.4314;1.2450;
797.1000;0.4290;1.2427;
797.4000;0.4322;1.2474;
797.7000;0.4322;1.2544;
798.0000;0.4322;1.2450;
798.3000;0.4330;1.2450;
798.6000;0.4330;1.2521;
798.9000;0.4387;1.2614;
799.2000;0.4330;1.2450;
799.5000;0.4314;1.2450;
799.8000;0.4322;1.2521;
800.1000;0.4322;1.2497;
800.4000;0.4322;1.2427;
800.7000;0.4306;1.2333;
801.0000;0.4314;1.2310;
801.3000;0.4322;1.2263;
801.6000;0.4314;1.2216;
801.9000;0.4314;1.2122;
802.2000;0.4208;1.1864;
802.5000;0.4347;1.2122;
802.8000;0.4347;1.2122;
803.1000;0.4371;1.2239;
803.4000;0.4322;1.2169;
803.7000;0.4306;1.2052;
804.0000;0.4330;1.2099;
804.3000;0.4306;1.2028;
804.6000;0.4298;1.2122;
804.9000;0.4322;1.2122;
805.2000;0.4339;1.2169;
805.5000;0.4330;1.2052;
805.8000;0.4314;1.2099;
806.1000;0.4371;1.2263;
806.4000;0.4298;1.2075;
806.7000;0.4379;1.2216;
807.0000;0.4330;1.2122;
807.3000;0.4322;1.2122;
807.6000;0.4306;1.2099;
807.9000;0.4322;1.2169;
808.2000;0.4274;1.2075;
808.5000;0.4412;1.2521;
808.8000;0.4339;1.2263;
809.1000;0.4363;1.2263;
809.4000;0.4322;1.2169;
809.7000;0.4274;1.2052;
810.0000;0.4298;1.2145;
810.3000;0.4249;1.1981;
810.6000;0.4298;1.2099;
810.9000;0.4306;1.2099;
811.2000;0.4330;1.2216;
811.5000;0.4257;1.2052;
811.8000;0.4322;1.2263;
812.1000;0.4404;1.2497;
812.4000;0.4322;1.2263;
812.7000;0.4314;1.2192;
813.0000;0.4330;1.2239;
813.3000;0.4339;1.2333;
813.6000;0.4314;1.2239;
813.9000;0.4322;1.2216;
814.2000;0.4330;1.2192;
814.5000;0.4347;1.2216;
814.8000;0.4339;1.2263;
815.1000;0.4322;1.2216;
815.4000;0.4306;1.2239;
815.7000;0.4347;1.2427;
816.0000;0.4339;1.2356;
816.3000;0.4314;1.2310;
816.6000;0.4314;1.2310;
816.9000;0.4306;1.2380;
817.2000;0.4322;1.2333;
817.5000;0.4298;1.2333;
817.8000;0.4306;1.2450;
818.1000;0.4314;1.2474;
818.4000;0.4298;1.2497;
818.7000;0.4322;1.2544;
819.0000;0.4306;1.2427;
819.3000;0.4322;1.2474;
819.6000;0.4314;1.2567;
819.9000;0.4322;1.2497;
820.2000;0.4290;1.2380;
820.5000;0.4306;1.2450;
820.8000;0.4314;1.2474;
821.1000;0.4290;1.2310;
821.4000;0.4330;1.2286;
821.7000;0.4330;1.2263;
822.0000;0.4306;1.2286;
822.3000;0.4306;1.2356;
822.6000;0.4306;1.2403;
822.9000;0.4306;1.2450;
823.2000;0.4330;1.2544;
823.5000;0.4306;1.2521;
823.8000;0.4306;1.2427;
824.1000;0.4322;1.2474;
824.4000;0.4314;1.2356;
824.7000;0.4306;1.2427;
825.0000;0.4322;1.2403;
825.3000;0.4282;1.2403;
825.6000;0.4371;1.2614;
825.9000;0.4322;1.2427;
826.2000;0.4298;1.2380;
826.5000;0.4208;1.2169;
826.8000;0.4306;1.2427;
827.1000;0.4274;1.2239;
827.4000;0.4314;1.2333;
827.7000;0.4298;1.2239;
828.0000;0.4314;1.2239;
828.3000;0.4306;1.2333;
828.6000;0.4322;1.2427;
828.9000;0.4314;1.2380;
829.2000;0.4347;1.2450;
829.5000;0.4322;1.2450;
829.8000;0.4306;1.2333;
830.1000;0.4306;1.2286;
830.4000;0.4298;1.2286;
830.7000;0.4314;1.2286;
831.0000;0.4314;1.2450;
831.3000;0.4314;1.2380;
831.6000;0.4306;1.2380;
831.9000;0.4298;1.2474;
832.2000;0.4306;1.2544;
832.5000;0.4412;1.2825;
832.8000;0.4314;1.2497;
833.1000;0.4282;1.2474;
833.4000;0.4339;1.2591;
833.7000;0.4322;1.2474;
834.0000;0.4322;1.2403;
834.3000;0.4314;1.2286;
834.6000;0.4306;1.2356;
834.9000;0.4322;1.2450;
835.2000;0.4322;1.2521;
835.5000;0.4298;1.2544;
835.8000;0.4298;1.2450;
836.1000;0.4339;1.2497;
836.4000;0.4306;1.2450;
836.7000;0.4306;1.2380;
837.0000;0.4314;1.2427;
837.3000;0.4314;1.2450;
837.6000;0.4322;1.2497;
837.9000;0.4314;1.2567;
838.2000;0.4339;1.2614;
838.5000;0.4330;1.2614;
838.8000;0.4249;1.2380;
839.1000;0.4322;1.2544;
839.4000;0.4314;1.2427;
839.7000;0.4322;1.2427;
840.0000;0.4330;1.2427;
840.3000;0.4330;1.2474;
840.6000;0.4306;1.2474;
840.9000;0.4306;1.2544;
841.2000;0.4306;1.2474;
841.5000;0.4274;1.2333;
841.8000;0.4306;1.2380;
842.1000;0.4306;1.2333;
842.4000;0.4347;1.2521;
842.7000;0.4306;1.2380;
843.0000;0.4314;1.2450;
843.3000;0.4306;1.2403;
843.6000;0.4363;1.2427;
843.9000;0.4306;1.2380;
844.2000;0.4355;1.2567;
844.5000;0.4314;1.2521;
844.8000;0.4322;1.2521;
845.1000;0.4347;1.2591;
845.4000;0.4330;1.2497;
845.7000;0.4330;1.2544;
846.0000;0.4306;1.2497;
846.3000;0.4314;1.2614;
846.6000;0.4306;1.2521;
846.9000;0.4314;1.2591;
847.2000;0.4322;1.2567;
847.5000;0.4314;1.2591;
847.8000;0.4314;1.2591;
848.1000;0.4314;1.2638;
848.4000;0.4306;1.2567;
848.7000;0.4330;1.2497;
849.0000;0.4314;1.2403;
849.3000;0.4314;1.2450;
849.6000;0.4282;1.2380;
849.9000;0.4314;1.2380;
850.2000;0.4314;1.2380;
850.5000;0.4330;1.2497;
850.8000;0.4322;1.2403;
851.1000;0.4322;1.2286;
851.4000;0.4306;1.2239;
851.7000;0.4306;1.2169;
852.0000;0.4298;1.2145;
852.3000;0.4314;1.2122;
852.6000;0.4306;1.2169;
852.9000;0.4306;1.2239;
853.2000;0.4314;1.2310;
853.5000;0.4322;1.2333;
853.8000;0.4282;1.2239;
854.1000;0.4314;1.2286;
854.4000;0.4282;1.2263;
854.7000;0.4306;1.2427;
855.0000;0.4314;1.2521;
855.3000;0.4322;1.2497;
855.6000;0.4314;1.2427;
855.9000;0.4306;1.2474;
856.2000;0.4306;1.2450;
856.5000;0.4298;1.2474;
856.8000;0.4306;1.2591;
857.1000;0.4306;1.2521;
857.4000;0.4274;1.2403;
857.7000;0.4322;1.2427;
858.0000;0.4306;1.2356;
858.3000;0.4274;1.2145;
858.6000;0.4322;1.2356;
858.9000;0.4298;1.2192;
859.2000;0.4314;1.2192;
859.5000;0.4306;1.2239;
859.8000;0.4306;1.2216;
860.1000;0.4306;1.2310;
860.4000;0.4298;1.2286;
860.7000;0.4330;1.2356;
861.0000;0.4314;1.2216;
861.3000;0.4322;1.2263;
861.6000;0.4306;1.2286;
861.9000;0.4330;1.2310;
862.2000;0.4306;1.2286;
862.5000;0.4306;1.2216;
862.8000;0.4306;1.2263;
863.1000;0.4290;1.2356;
863.4000;0.4306;1.2450;
863.7000;0.4322;1.2427;
864.0000;0.4314;1.2380;
864.3000;0.4306;1.2403;
864.6000;0.4322;1.2310;
864.9000;0.4306;1.2216;
865.2000;0.4290;1.2192;
865.5000;0.4306;1.2169;
865.8000;0.4314;1.2145;
866.1000;0.4322;1.2145;
866.4000;0.4306;1.2052;
866.7000;0.4314;1.1981;
867.0000;0.4306;1.2075;
867.3000;0.4314;1.2099;
867.6000;0.4265;1.2028;
867.9000;0.4306;1.2216;
868.2000;0.4298;1.2192;
868.5000;0.4314;1.2286;
868.8000;0.4322;1.2286;
869.1000;0.4306;1.2286;
869.4000;0.4282;1.2356;
869.7000;0.4306;1.2403;
870.0000;0.4314;1.2333;
870.3000;0.4330;1.2310;
870.6000;0.4306;1.2310;
870.9000;0.4298;1.2286;
871.2000;0.4322;1.2356;
871.5000;0.4322;1.2263;
871.8000;0.4314;1.2356;
872.1000;0.4265;1.2263;
872.4000;0.4249;1.2216;
872.7000;0.4322;1.2380;
873.0000;0.4306;1.2286;
873.3000;0.4298;1.2216;
873.6000;0.4322;1.2356;
873.9000;0.4322;1.2380;
874.2000;0.4330;1.2333;
874.5000;0.4298;1.2310;
874.8000;0.4314;1.2356;
875.1000;0.4290;1.2192;
875.4000;0.4347;1.2310;
875.7000;0.4298;1.2239;
876.0000;0.4330;1.2192;
876.3000;0.4322;1.2216;
876.6000;0.4306;1.2192;
876.9000;0.4306;1.2192;
877.2000;0.4330;1.2356;
877.5000;0.4314;1.2333;
877.8000;0.4322;1.2427;
878.1000;0.4404;1.2614;
878.4000;0.4314;1.2450;
878.7000;0.4330;1.2521;
879.0000;0.4306;1.2427;
879.3000;0.4339;1.2474;
879.6000;0.4306;1.2380;
879.9000;0.4290;1.2403;
880.2000;0.4298;1.2427;
880.5000;0.4257;1.2263;
880.8000;0.4290;1.2356;
881.1000;0.4274;1.2286;
881.4000;0.4298;1.2403;
881.7000;0.4290;1.2380;
882.0000;0.4282;1.2333;
882.3000;0.4298;1.2380;
882.6000;0.4282;1.2403;
882.9000;0.4330;1.2591;
883.2000;0.4306;1.2521;
883.5000;0.4298;1.2450;
883.8000;0.4314;1.2474;
884.1000;0.4387;1.2755;
884.4000;0.4306;1.2567;
884.7000;0.4282;1.2450;
885.0000;0.4306;1.2591;
885.3000;0.4298;1.2591;
885.6000;0.4282;1.2497;
885.9000;0.4314;1.2591;
886.2000;0.4306;1.2614;
886.5000;0.4282;1.2521;
886.8000;0.4298;1.2474;
887.1000;0.4322;1.2521;
887.4000;0.4314;1.2567;
887.7000;0.4420;1.2755;
888.0000;0.4306;1.2427;
888.3000;0.4314;1.2427;
888.6000;0.4257;1.2333;
888.9000;0.4298;1.2380;
889.2000;0.4306;1.2427;
889.5000;0.4306;1.2450;
889.8000;0.4298;1.2450;
890.1000;0.4355;1.2544;
890.4000;0.4314;1.2427;
890.7000;0.4306;1.2403;
891.0000;0.4298;1.2427;
891.3000;0.4298;1.2403;
891.6000;0.4306;1.2380;
891.9000;0.4306;1.2450;
892.2000;0.4322;1.2474;
892.5000;0.4298;1.2474;
892.8000;0.4306;1.2521;
893.1000;0.4314;1.2544;
893.4000;0.4306;1.2450;
893.7000;0.4306;1.2474;
894.0000;0.4298;1.2427;
894.3000;0.4314;1.2380;
894.6000;0.4355;1.2403;
894.9000;0.4314;1.2286;
895.2000;0.4290;1.2333;
895.5000;0.4282;1.2310;
895.8000;0.4298;1.2474;
896.1000;0.4330;1.2474;
896.4000;0.4290;1.2286;
896.7000;0.4314;1.2239;
897.0000;0.4322;1.2286;
897.3000;0.4298;1.2333;
897.6000;0.4347;1.2544;
897.9000;0.4355;1.2544;
898.2000;0.4306;1.2450;
898.5000;0.4306;1.2403;
898.8000;0.4314;1.2450;
899.1000;0.4322;1.2497;
899.4000;0.4371;1.2567;
899.7000;0.4363;1.2497;
900.0000;0.4241;1.2145;
900.3000;0.4298;1.2380;
900.6000;0.4314;1.2403;
900.9000;0.4306;1.2380;
901.2000;0.4257;1.2239;
901.5000;0.4314;1.2286;
901.8000;0.4347;1.2380;
902.1000;0.4192;1.2122;
902.4000;0.4290;1.2263;
902.7000;0.4290;1.2263;
903.0000;0.4274;1.2216;
903.3000;0.4298;1.2263;
903.6000;0.4314;1.2310;
903.9000;0.4314;1.2403;
904.2000;0.4298;1.2333;
904.5000;0.4322;1.2427;
904.8000;0.4322;1.2380;
905.1000;0.4298;1.2333;
905.4000;0.4412;1.2614;
905.7000;0.4306;1.2286;
906.0000;0.4298;1.2310;
906.3000;0.4314;1.2310;
906.6000;0.4330;1.2310;
906.9000;0.4274;1.2145;
907.2000;0.4290;1.2286;
907.5000;0.4298;1.2380;
907.8000;0.4298;1.2333;
908.1000;0.4306;1.2333;
908.4000;0.4347;1.2427;
908.7000;0.4322;1.2333;
909.0000;0.4314;1.2497;
909.3000;0.4322;1.2638;
909.6000;0.4330;1.2661;
909.9000;0.4314;1.2661;
910.2000;0.4314;1.2567;
910.5000;0.4322;1.2521;
910.8000;0.4322;1.2521;
911.1000;0.4339;1.2521;
911.4000;0.4306;1.2380;
911.7000;0.4314;1.2403;
912.0000;0.4298;1.2310;
912.3000;0.4282;1.2239;
912.6000;0.4314;1.2192;
912.9000;0.4322;1.2169;
913.2000;0.4306;1.2192;
913.5000;0.4322;1.2333;
913.8000;0.4306;1.2380;
914.1000;0.4306;1.2310;
914.4000;0.4306;1.2263;
914.7000;0.4306;1.2263;
915.0000;0.4298;1.2239;
915.3000;0.4290;1.2286;
915.6000;0.4265;1.2216;
915.9000;0.4306;1.2286;
916.2000;0.4298;1.2380;
916.5000;0.4314;1.2474;
916.8000;0.4306;1.2450;
917.1000;0.4298;1.2403;
917.4000;0.4314;1.2380;
917.7000;0.4306;1.2286;
918.0000;0.4314;1.2286;
918.3000;0.4306;1.2356;
918.6000;0.4298;1.2403;
918.9000;0.4290;1.2474;
919.2000;0.4314;1.2591;
919.5000;0.4306;1.2544;
919.8000;0.4306;1.2544;
920.1000;0.4322;1.2474;
920.4000;0.4314;1.2427;
920.7000;0.4339;1.2591;
921.0000;0.4290;1.2521;
921.3000;0.4306;1.2661;
921.6000;0.4347;1.2849;
921.9000;0.4306;1.2732;
922.2000;0.4290;1.2708;
922.5000;0.4314;1.2685;
922.8000;0.4314;1.2685;
923.1000;0.4314;1.2638;
923.4000;0.4306;1.2685;
923.7000;0.4274;1.2638;
924.0000;0.4347;1.2732;
924.3000;0.4290;1.2614;
924.6000;0.4290;1.2567;
924.9000;0.4274;1.2450;
925.2000;0.4306;1.2591;
925.5000;0.4298;1.2521;
925.8000;0.4241;1.2403;
926.1000;0.4298;1.2450;
926.4000;0.4339;1.2474;
926.7000;0.4314;1.2356;
927.0000;0.4306;1.2403;
927.3000;0.4298;1.2356;
927.6000;0.4314;1.2427;
927.9000;0.4314;1.2521;
928.2000;0.4314;1.2521;
928.5000;0.4298;1.2474;
928.8000;0.4298;1.2497;
929.1000;0.4290;1.2333;
929.4000;0.4371;1.2544;
929.7000;0.4314;1.2356;
930.0000;0.4298;1.2356;
930.3000;0.4314;1.2450;
930.6000;0.4314;1.2427;
930.9000;0.4314;1.2544;
931.2000;0.4306;1.2567;
931.5000;0.4306;1.2544;
931.8000;0.4314;1.2497;
932.1000;0.4355;1.2591;
932.4000;0.4282;1.2427;
932.7000;0.4282;1.2474;
933.0000;0.4314;1.2474;
933.3000;0.4298;1.2450;
933.6000;0.4298;1.2427;
933.9000;0.4290;1.2450;
934.2000;0.4330;1.2521;
934.5000;0.4314;1.2474;
934.8000;0.4298;1.2474;
935.1000;0.4347;1.2614;
935.4000;0.4282;1.2450;
935.7000;0.4306;1.2450;
936.0000;0.4314;1.2497;
936.3000;0.4290;1.2380;
936.6000;0.4306;1.2450;
936.9000;0.4200;1.2169;
937.2000;0.4290;1.2427;
937.5000;0.4298;1.2427;
937.8000;0.4298;1.2403;
938.1000;0.4314;1.2474;
938.4000;0.4314;1.2403;
938.7000;0.4298;1.2263;
939.0000;0.4306;1.2263;
939.3000;0.4257;1.2263;
939.6000;0.4306;1.2333;
939.9000;0.4298;1.2310;
940.2000;0.4306;1.2333;
940.5000;0.4257;1.2263;
940.8000;0.4314;1.2380;
941.1000;0.4322;1.2427;
941.4000;0.4420;1.2825;
941.7000;0.4298;1.2450;
942.0000;0.4322;1.2521;
942.3000;0.4290;1.2333;
942.6000;0.4330;1.2497;
942.9000;0.4306;1.2427;
943.2000;0.4298;1.2427;
943.5000;0.4298;1.2427;
943.8000;0.4274;1.2310;
944.1000;0.4314;1.2427;
944.4000;0.4314;1.2427;
944.7000;0.4322;1.2356;
945.0000;0.4314;1.2356;
945.3000;0.4387;1.2521;
945.6000;0.4306;1.2310;
945.9000;0.4314;1.2380;
946.2000;0.4322;1.2427;
946.5000;0.4298;1.2333;
946.8000;0.4322;1.2427;
947.1000;0.4282;1.2403;
947.4000;0.4306;1.2497;
947.7000;0.4322;1.2450;
948.0000;0.4314;1.2310;
948.3000;0.4298;1.2239;
948.6000;0.4306;1.2192;
948.9000;0.4306;1.2169;
949.2000;0.4274;1.1981;
949.5000;0.4298;1.2052;
949.8000;0.4306;1.2075;
950.1000;0.4290;1.2052;
950.4000;0.4249;1.1888;
950.7000;0.4314;1.2099;
951.0000;0.4306;1.2028;
951.3000;0.4322;1.2052;
951.6000;0.4233;1.1770;
951.9000;0.4314;1.2075;
952.2000;0.4314;1.2005;
952.5000;0.4314;1.2005;
952.8000;0.4298;1.2028;
953.1000;0.4298;1.2028;
953.4000;0.4339;1.2239;
953.7000;0.4322;1.2192;
954.0000;0.4298;1.2216;
954.3000;0.4290;1.2216;
954.6000;0.4306;1.2192;
954.9000;0.4314;1.2099;
955.2000;0.4298;1.2052;
955.5000;0.4241;1.1888;
955.8000;0.4290;1.2075;
956.1000;0.4306;1.2169;
956.4000;0.4330;1.2145;
956.7000;0.4306;1.2099;
957.0000;0.4314;1.2099;
957.3000;0.4314;1.2099;
957.6000;0.4322;1.2216;
957.9000;0.4322;1.2216;
958.2000;0.4330;1.2239;
958.5000;0.4290;1.2216;
958.8000;0.4347;1.2356;
959.1000;0.4298;1.2333;
959.4000;0.4314;1.2333;
959.7000;0.4314;1.2216;
960.0000;0.4322;1.2192;
960.3000;0.4322;1.2145;
960.6000;0.4314;1.2169;
960.9000;0.4265;1.2122;
961.2000;0.4306;1.2216;
961.5000;0.4306;1.2239;
961.8000;0.4306;1.2263;
962.1000;0.4200;1.2052;
962.4000;0.4330;1.2310;
962.7000;0.4330;1.2356;
963.0000;0.4306;1.2356;
963.3000;0.4298;1.2380;
963.6000;0.4282;1.2333;
963.9000;0.4314;1.2403;
964.2000;0.4355;1.2544;
964.5000;0.4306;1.2310;
964.8000;0.4314;1.2263;
965.1000;0.4314;1.2310;
965.4000;0.4298;1.2310;
965.7000;0.4306;1.2356;
966.0000;0.4306;1.2333;
966.3000;0.4274;1.2216;
966.6000;0.4314;1.2286;
966.9000;0.4306;1.2286;
967.2000;0.4274;1.2263;
967.5000;0.4314;1.2310;
967.8000;0.4314;1.2310;
968.1000;0.4314;1.2403;
968.4000;0.4330;1.2427;
968.7000;0.4339;1.2474;
969.0000;0.4290;1.2427;
969.3000;0.4306;1.2427;
969.6000;0.4330;1.2497;
969.9000;0.4314;1.2474;
970.2000;0.4314;1.2450;
970.5000;0.4314;1.2450;
970.8000;0.4306;1.2497;
971.1000;0.4290;1.2356;
971.4000;0.4306;1.2333;
971.7000;0.4298;1.2286;
972.0000;0.4306;1.2333;
972.3000;0.4339;1.2427;
972.6000;0.4290;1.2356;
972.9000;0.4290;1.2474;
973.2000;0.4298;1.2474;
973.5000;0.4298;1.2450;
973.8000;0.4339;1.2567;
974.1000;0.4322;1.2474;
974.4000;0.4322;1.2474;
974.7000;0.4314;1.2380;
975.0000;0.4306;1.2356;
975.3000;0.4298;1.2333;
975.6000;0.4306;1.2403;
975.9000;0.4322;1.2497;
976.2000;0.4298;1.2450;
976.5000;0.4314;1.2474;
976.8000;0.4274;1.2333;
977.1000;0.4314;1.2380;
977.4000;0.4298;1.2310;
977.7000;0.4322;1.2239;
978.0000;0.4322;1.2216;
978.3000;0.4322;1.2216;
978.6000;0.4314;1.2216;
978.9000;0.4306;1.2192;
979.2000;0.4339;1.2263;
979.5000;0.4339;1.2333;
979.8000;0.4290;1.2263;
980.1000;0.4290;1.2263;
980.4000;0.4314;1.2286;
980.7000;0.4322;1.2286;
981.0000;0.4306;1.2286;
981.3000;0.4322;1.2333;
981.6000;0.4330;1.2450;
981.9000;0.4314;1.2310;
982.2000;0.4322;1.2403;
982.5000;0.4298;1.2356;
982.8000;0.4282;1.2356;
983.1000;0.4290;1.2403;
983.4000;0.4314;1.2403;
983.7000;0.4265;1.2263;
984.0000;0.4306;1.2403;
984.3000;0.4249;1.2216;
984.6000;0.4314;1.2380;
984.9000;0.4249;1.2216;
985.2000;0.4298;1.2286;
985.5000;0.4306;1.2333;
985.8000;0.4322;1.2356;
986.1000;0.4322;1.2356;
986.4000;0.4306;1.2333;
986.7000;0.4322;1.2356;
987.0000;0.4314;1.2356;
987.3000;0.4314;1.2286;
987.6000;0.4290;1.2239;
987.9000;0.4298;1.2333;
988.2000;0.4249;1.2122;
988.5000;0.4322;1.2263;
988.8000;0.4314;1.2239;
989.1000;0.4306;1.2145;
989.4000;0.4330;1.2192;
989.7000;0.4322;1.2169;
990.0000;0.4314;1.2169;
990.3000;0.4322;1.2145;
990.6000;0.4322;1.2075;
990.9000;0.4322;1.2099;
991.2000;0.4387;1.2310;
991.5000;0.4330;1.2192;
991.8000;0.4322;1.2192;
992.1000;0.4322;1.2145;
992.4000;0.4314;1.2099;
992.7000;0.4306;1.2122;
993.0000;0.4306;1.2099;
993.3000;0.4306;1.2099;
993.6000;0.4298;1.2075;
993.9000;0.4314;1.2099;
994.2000;0.4314;1.2075;
994.5000;0.4298;1.2122;
994.8000;0.4298;1.2192;
995.1000;0.4306;1.2192;
995.4000;0.4322;1.2333;
995.7000;0.4314;1.2356;
996.0000;0.4396;1.2497;
996.3000;0.4355;1.2356;
996.6000;0.4314;1.2263;
996.9000;0.4314;1.2145;
997.2000;0.4298;1.2192;
997.5000;0.4274;1.2075;
997.8000;0.4314;1.2169;
998.1000;0.4208;1.1958;
998.4000;0.4314;1.2263;
998.7000;0.4314;1.2216;
999.0000;0.4306;1.2192;
999.3000;0.4306;1.2263;
999.6000;0.4298;1.2310;
999.9000;0.4306;1.2239;
1000.2000;0.4330;1.2192;
1000.5000;0.4306;1.2192;
1000.8000;0.4322;1.2169;
1001.1000;0.4306;1.2145;
1001.4000;0.4339;1.2263;
1001.7000;0.4322;1.2192;
1002.0000;0.4314;1.2145;
1002.3000;0.4322;1.2239;
1002.6000;0.4330;1.2239;
1002.9000;0.4306;1.2333;
1003.2000;0.4306;1.2263;
1003.5000;0.4330;1.2356;
1003.8000;0.4330;1.2403;
1004.1000;0.4306;1.2263;
1004.4000;0.4314;1.2216;
1004.7000;0.4306;1.2263;
1005.0000;0.4306;1.2333;
1005.3000;0.4306;1.2333;
1005.6000;0.4306;1.2380;
1005.9000;0.4306;1.2356;
1006.2000;0.4330;1.2403;
1006.5000;0.4314;1.2356;
1006.8000;0.4330;1.2286;
1007.1000;0.4322;1.2356;
1007.4000;0.4355;1.2427;
1007.7000;0.4314;1.2286;
1008.0000;0.4298;1.2286;
1008.3000;0.4249;1.2169;
1008.6000;0.4298;1.2216;
1008.9000;0.4322;1.2192;
1009.2000;0.4241;1.1958;
1009.5000;0.4330;1.2169;
1009.8000;0.4306;1.2169;
1010.1000;0.4306;1.2192;
1010.4000;0.4306;1.2310;
1010.7000;0.4322;1.2403;
1011.0000;0.4314;1.2380;
1011.3000;0.4298;1.2286;
1011.6000;0.4306;1.2239;
1011.9000;0.4322;1.2239;
1012.2000;0.4322;1.2310;
1012.5000;0.4412;1.2614;
1012.8000;0.4314;1.2450;
1013.1000;0.4314;1.2427;
1013.4000;0.4274;1.2239;
1013.7000;0.4330;1.2356;
1014.0000;0.4306;1.2403;
1014.3000;0.4314;1.2403;
1014.6000;0.4387;1.2544;
1014.9000;0.4298;1.2356;
1015.2000;0.4298;1.2450;
1015.5000;0.4298;1.2403;
1015.8000;0.4306;1.2403;
1016.1000;0.4306;1.2356;
1016.4000;0.4306;1.2333;
1016.7000;0.4314;1.2356;
1017.0000;0.4339;1.2403;
1017.3000;0.4306;1.2286;
1017.6000;0.4322;1.2216;
1017.9000;0.4314;1.2192;
1018.2000;0.4355;1.2216;
1018.5000;0.4314;1.2052;
1018.8000;0.4298;1.2075;
1019.1000;0.4290;1.2052;
1019.4000;0.4298;1.2099;
1019.7000;0.4339;1.2216;
1020.0000;0.4412;1.2544;
1020.3000;0.4314;1.2380;
1020.6000;0.4322;1.2403;
1020.9000;0.4330;1.2403;
1021.2000;0.4322;1.2356;
1021.5000;0.4314;1.2286;
1021.8000;0.4322;1.2310;
1022.1000;0.4314;1.2310;
1022.4000;0.4314;1.2286;
1022.7000;0.4314;1.2216;
1023.0000;0.4314;1.2216;
1023.3000;0.4314;1.2310;
1023.6000;0.4339;1.2380;
1023.9000;0.4306;1.2263;
1024.2000;0.4306;1.2239;
1024.5000;0.4330;1.2310;
1024.8000;0.4314;1.2216;
1025.1000;0.4282;1.2169;
1025.4000;0.4298;1.2192;
1025.7000;0.4290;1.2169;
1026.0000;0.4217;1.2005;
1026.3000;0.4306;1.2099;
1026.6000;0.4290;1.2052;
1026.9000;0.4298;1.2169;
1027.2000;0.4298;1.2239;
1027.5000;0.4314;1.2263;
1027.8000;0.4298;1.2286;
1028.1000;0.4298;1.2263;
1028.4000;0.4314;1.2192;
1028.7000;0.4322;1.2263;
1029.0000;0.4314;1.2356;
1029.3000;0.4330;1.2403;
1029.6000;0.4314;1.2310;
1029.9000;0.4314;1.2263;
1030.2000;0.4298;1.2239;
1030.5000;0.4306;1.2310;
1030.8000;0.4330;1.2356;
1031.1000;0.4314;1.2333;
1031.4000;0.4306;1.2356;
1031.7000;0.4339;1.2497;
1032.0000;0.4322;1.2380;
1032.3000;0.4257;1.2192;
1032.6000;0.4330;1.2427;
1032.9000;0.4314;1.2403;
1033.2000;0.4330;1.2403;
1033.5000;0.4355;1.2474;
1033.8000;0.4322;1.2450;
1034.1000;0.4314;1.2380;
1034.4000;0.4387;1.2474;
1034.7000;0.4314;1.2169;
1035.0000;0.4322;1.2192;
1035.3000;0.4314;1.2216;
1035.6000;0.4298;1.2169;
1035.9000;0.4314;1.2286;
1036.2000;0.4314;1.2286;
1036.5000;0.4347;1.2403;
1036.8000;0.4298;1.2333;
1037.1000;0.4306;1.2310;
1037.4000;0.4322;1.2333;
1037.7000;0.4298;1.2380;
1038.0000;0.4322;1.2450;
1038.3000;0.4339;1.2497;
1038.6000;0.4347;1.2521;
1038.9000;0.4322;1.2474;
1039.2000;0.4290;1.2356;
1039.5000;0.4322;1.2403;
1039.8000;0.4298;1.2310;
1040.1000;0.4298;1.2380;
1040.4000;0.4322;1.2380;
1040.7000;0.4306;1.2356;
1041.0000;0.4306;1.2263;
1041.3000;0.4322;1.2380;
1041.6000;0.4306;1.2427;
1041.9000;0.4298;1.2497;
1042.2000;0.4274;1.2427;
1042.5000;0.4298;1.2427;
1042.8000;0.4314;1.2403;
1043.1000;0.4314;1.2356;
1043.4000;0.4314;1.2380;
1043.7000;0.4339;1.2356;
1044.0000;0.4330;1.2286;
1044.3000;0.4314;1.2239;
1044.6000;0.4339;1.2310;
1044.9000;0.4314;1.2263;
1045.2000;0.4322;1.2403;
1045.5000;0.4298;1.2403;
1045.8000;0.4322;1.2450;
1046.1000;0.4314;1.2474;
1046.4000;0.4387;1.2638;
1046.7000;0.4314;1.2474;
1047.0000;0.4306;1.2450;
1047.3000;0.4274;1.2310;
1047.6000;0.4306;1.2356;
1047.9000;0.4322;1.2356;
1048.2000;0.4330;1.2403;
1048.5000;0.4322;1.2356;
1048.8000;0.4314;1.2403;
1049.1000;0.4322;1.2544;
1049.4000;0.4314;1.2474;
1049.7000;0.4396;1.2567;
1050.0000;0.4330;1.2333;
1050.3000;0.4330;1.2310;
1050.6000;0.4290;1.2192;
1050.9000;0.4322;1.2216;
1051.2000;0.4306;1.2145;
1051.5000;0.4314;1.2169;
1051.8000;0.4265;1.1981;
1052.1000;0.4298;1.2169;
1052.4000;0.4282;1.2169;
1052.7000;0.4306;1.2310;
1053.0000;0.4306;1.2286;
1053.3000;0.4306;1.2310;
1053.6000;0.4420;1.2567;
1053.9000;0.4306;1.2239;
1054.2000;0.4330;1.2263;
1054.5000;0.4314;1.2192;
1054.8000;0.4298;1.2145;
1055.1000;0.4330;1.2310;
1055.4000;0.4314;1.2380;
1055.7000;0.4387;1.2521;
1056.0000;0.4306;1.2333;
1056.3000;0.4298;1.2333;
1056.6000;0.4322;1.2403;
1056.9000;0.4322;1.2356;
1057.2000;0.4208;1.2052;
1057.5000;0.4306;1.2450;
1057.8000;0.4322;1.2497;
1058.1000;0.4330;1.2474;
1058.4000;0.4298;1.2310;
1058.7000;0.4314;1.2286;
1059.0000;0.4314;1.2286;
1059.3000;0.4290;1.2192;
1059.6000;0.4306;1.2169;
1059.9000;0.4298;1.2216;
1060.2000;0.4306;1.2263;
1060.5000;0.4322;1.2286;
1060.8000;0.4322;1.2310;
1061.1000;0.4314;1.2216;
1061.4000;0.4347;1.2239;
1061.7000;0.4314;1.2169;
1062.0000;0.4322;1.2099;
1062.3000;0.4322;1.2122;
1062.6000;0.4306;1.2169;
1062.9000;0.4322;1.2239;
1063.2000;0.4322;1.2216;
1063.5000;0.4314;1.2169;
1063.8000;0.4306;1.2192;
1064.1000;0.4314;1.2216;
1064.4000;0.4322;1.2216;
1064.7000;0.4322;1.2239;
1065.0000;0.4322;1.2356;
1065.3000;0.4322;1.2263;
1065.6000;0.4314;1.2239;
1065.9000;0.4306;1.2286;
1066.2000;0.4314;1.2333;
1066.5000;0.4306;1.2263;
1066.8000;0.4314;1.2192;
1067.1000;0.4322;1.2192;
1067.4000;0.4306;1.2169;
1067.7000;0.4306;1.2145;
1068.0000;0.4314;1.2099;
1068.3000;0.4330;1.2075;
1068.6000;0.4322;1.2145;
1068.9000;0.4306;1.2122;
1069.2000;0.4298;1.2099;
1069.5000;0.4371;1.2286;
1069.8000;0.4314;1.2169;
1070.1000;0.4322;1.2286;
1070.4000;0.4322;1.2286;
1070.7000;0.4298;1.2216;
1071.0000;0.4330;1.2263;
1071.3000;0.4412;1.2544;
1071.6000;0.4322;1.2239;
1071.9000;0.4306;1.2145;
1072.2000;0.4298;1.2099;
1072.5000;0.4314;1.2122;
1072.8000;0.4298;1.2028;
1073.1000;0.4322;1.2122;
1073.4000;0.4330;1.2028;
1073.7000;0.4322;1.2052;
1074.0000;0.4322;1.2052;
1074.3000;0.4322;1.2099;
1074.6000;0.4339;1.2216;
1074.9000;0.4306;1.2145;
1075.2000;0.4306;1.2169;
1075.5000;0.4330;1.2145;
1075.8000;0.4322;1.2145;
1076.1000;0.4330;1.2169;
1076.4000;0.4314;1.2192;
1076.7000;0.4314;1.2239;
1077.0000;0.4314;1.2216;
1077.3000;0.4322;1.2192;
1077.6000;0.4274;1.2005;
1077.9000;0.4290;1.2005;
1078.2000;0.4339;1.2239;
1078.5000;0.4396;1.2403;
1078.8000;0.4347;1.2380;
1079.1000;0.4265;1.2192;
1079.4000;0.4314;1.2310;
1079.7000;0.4306;1.2310;
1080.0000;0.4322;1.2286;
1080.3000;0.4330;1.2286;
1080.6000;0.4290;1.2122;
1080.9000;0.4314;1.2169;
1081.2000;0.4282;1.2145;
1081.5000;0.4322;1.2263;
1081.8000;0.4306;1.2263;
1082.1000;0.4330;1.2263;
1082.4000;0.4249;1.2028;
1082.7000;0.4290;1.2122;
1083.0000;0.4322;1.2145;
1083.3000;0.4322;1.2122;
1083.6000;0.4314;1.2075;
1083.9000;0.4322;1.2028;
1084.2000;0.4306;1.2075;
1084.5000;0.4306;1.2145;
1084.8000;0.4298;1.2169;
1085.1000;0.4306;1.2122;
1085.4000;0.4330;1.2192;
1085.7000;0.4322;1.2192;
1086.0000;0.4330;1.2216;
1086.3000;0.4339;1.2286;
1086.6000;0.4314;1.2145;
1086.9000;0.4347;1.2216;
1087.2000;0.4306;1.2099;
1087.5000;0.4339;1.2145;
1087.8000;0.4290;1.2028;
1088.1000;0.4322;1.2075;
1088.4000;0.4314;1.2099;
1088.7000;0.4306;1.2075;
1089.0000;0.4306;1.2169;
1089.3000;0.4306;1.2122;
1089.6000;0.4298;1.2192;
1089.9000;0.4298;1.2286;
1090.2000;0.4314;1.2263;
1090.5000;0.4282;1.2145;
1090.8000;0.4298;1.2239;
1091.1000;0.4306;1.2216;
1091.4000;0.4339;1.2286;
1091.7000;0.4339;1.2427;
1092.0000;0.4314;1.2427;
1092.3000;0.4379;1.2497;
1092.6000;0.4314;1.2356;
1092.9000;0.4339;1.2403;
1093.2000;0.4306;1.2310;
1093.5000;0.4306;1.2356;
1093.8000;0.4217;1.2099;
1094.1000;0.4322;1.2427;
1094.4000;0.4322;1.2380;
1094.7000;0.4314;1.2403;
1095.0000;0.4306;1.2380;
1095.3000;0.4322;1.2333;
1095.6000;0.4330;1.2450;
1095.9000;0.4306;1.2403;
1096.2000;0.4314;1.2474;
1096.5000;0.4306;1.2474;
1096.8000;0.4322;1.2521;
1097.1000;0.4314;1.2403;
1097.4000;0.4282;1.2310;
1097.7000;0.4322;1.2521;
1098.0000;0.4322;1.2474;
1098.3000;0.4322;1.2403;
1098.6000;0.4314;1.2380;
1098.9000;0.4282;1.2192;
1099.2000;0.4330;1.2263;
1099.5000;0.4322;1.2286;
1099.8000;0.4322;1.2239;
1100.1000;0.4282;1.2145;
1100.4000;0.4322;1.2263;
1100.7000;0.4257;1.2099;
1101.0000;0.4265;1.2122;
1101.3000;0.4306;1.2263;
1101.6000;0.4314;1.2263;
1101.9000;0.4306;1.2333;
1102.2000;0.4298;1.2310;
1102.5000;0.4282;1.2192;
1102.8000;0.4298;1.2333;
1103.1000;0.4355;1.2450;
1103.4000;0.4306;1.2356;
1103.7000;0.4330;1.2356;
1104.0000;0.4314;1.2286;
1104.3000;0.4290;1.2263;
1104.6000;0.4314;1.2333;
1104.9000;0.4322;1.2333;
1105.2000;0.4290;1.2356;
1105.5000;0.4314;1.2427;
1105.8000;0.4339;1.2403;
1106.1000;0.4314;1.2286;
1106.4000;0.4314;1.2333;
1106.7000;0.4322;1.2356;
1107.0000;0.4339;1.2310;
1107.3000;0.4306;1.2263;
1107.6000;0.4306;1.2263;
1107.9000;0.4314;1.2263;
1108.2000;0.4330;1.2239;
1108.5000;0.4306;1.2075;
1108.8000;0.4314;1.2169;
1109.1000;0.4306;1.2169;
1109.4000;0.4396;1.2450;
1109.7000;0.4314;1.2286;
1110.0000;0.4298;1.2263;
1110.3000;0.4314;1.2263;
1110.6000;0.4306;1.2122;
1110.9000;0.4314;1.2145;
1111.2000;0.4298;1.2099;
1111.5000;0.4314;1.2145;
1111.8000;0.4282;1.2028;
1112.1000;0.4282;1.2075;
1112.4000;0.4306;1.2192;
1112.7000;0.4306;1.2169;
1113.0000;0.4371;1.2310;
1113.3000;0.4306;1.2169;
1113.6000;0.4298;1.2145;
1113.9000;0.4314;1.2192;
1114.2000;0.4420;1.2497;
1114.5000;0.4298;1.2192;
1114.8000;0.4330;1.2310;
1115.1000;0.4306;1.2216;
1115.4000;0.4298;1.2122;
1115.7000;0.4322;1.2169;
1116.0000;0.4306;1.2122;
1116.3000;0.4322;1.2169;
1116.6000;0.4314;1.2216;
1116.9000;0.4330;1.2216;
1117.2000;0.4322;1.2239;
1117.5000;0.4322;1.2333;
1117.8000;0.4314;1.2286;
1118.1000;0.4306;1.2286;
1118.4000;0.4314;1.2286;
1118.7000;0.4330;1.2263;
1119.0000;0.4339;1.2286;
1119.3000;0.4347;1.2263;
1119.6000;0.4322;1.2239;
1119.9000;0.4314;1.2192;
1120.2000;0.4330;1.2192;
1120.5000;0.4314;1.2192;
1120.8000;0.4379;1.2356;
1121.1000;0.4322;1.2239;
1121.4000;0.4330;1.2239;
1121.7000;0.4314;1.2239;
1122.0000;0.4330;1.2263;
1122.3000;0.4322;1.2333;
1122.6000;0.4322;1.2286;
1122.9000;0.4290;1.2286;
1123.2000;0.4322;1.2380;
1123.5000;0.4314;1.2356;
1123.8000;0.4379;1.2450;
1124.1000;0.4330;1.2310;
1124.4000;0.4322;1.2380;
1124.7000;0.4379;1.2474;
1125.0000;0.4322;1.2310;
1125.3000;0.4314;1.2310;
1125.6000;0.4322;1.2356;
1125.9000;0.4290;1.2333;
1126.2000;0.4314;1.2497;
1126.5000;0.4330;1.2521;
1126.8000;0.4306;1.2450;
1127.1000;0.4274;1.2403;
1127.4000;0.4314;1.2427;
1127.7000;0.4363;1.2567;
1128.0000;0.4298;1.2356;
1128.3000;0.4306;1.2356;
1128.6000;0.4322;1.2427;
1128.9000;0.4322;1.2427;
1129.2000;0.4322;1.2450;
1129.5000;0.4371;1.2567;
1129.8000;0.4322;1.2497;
1130.1000;0.4322;1.2567;
1130.4000;0.4322;1.2521;
1130.7000;0.4339;1.2497;
1131.0000;0.4314;1.2427;
1131.3000;0.4330;1.2333;
1131.6000;0.4347;1.2286;
1131.9000;0.4306;1.2052;
1132.2000;0.4322;1.2122;
1132.5000;0.4404;1.2356;
1132.8000;0.4322;1.2028;
1133.1000;0.4330;1.2122;
1133.4000;0.4314;1.2099;
1133.7000;0.4322;1.2216;
1134.0000;0.4298;1.2122;
1134.3000;0.4322;1.2169;
1134.6000;0.4322;1.2052;
1134.9000;0.4298;1.2005;
1135.2000;0.4322;1.2122;
1135.5000;0.4330;1.2145;
1135.8000;0.4322;1.2216;
1136.1000;0.4314;1.2239;
1136.4000;0.4339;1.2239;
1136.7000;0.4330;1.2286;
1137.0000;0.4306;1.2145;
1137.3000;0.4306;1.2099;
1137.6000;0.4322;1.2239;
1137.9000;0.4322;1.2356;
1138.2000;0.4347;1.2403;
1138.5000;0.4314;1.2380;
1138.8000;0.4274;1.2216;
1139.1000;0.4314;1.2310;
1139.4000;0.4322;1.2263;
1139.7000;0.4322;1.2192;
1140.0000;0.4306;1.2192;
1140.3000;0.4322;1.2216;
1140.6000;0.4314;1.2169;
1140.9000;0.4339;1.2239;
1141.2000;0.4314;1.2192;
1141.5000;0.4330;1.2169;
1141.8000;0.4314;1.2169;
1142.1000;0.4322;1.2145;
1142.4000;0.4298;1.2169;
1142.7000;0.4339;1.2263;
1143.0000;0.4330;1.2286;
1143.3000;0.4314;1.2310;
1143.6000;0.4290;1.2192;
1143.9000;0.4314;1.2310;
1144.2000;0.4306;1.2333;
1144.5000;0.4274;1.2239;
1144.8000;0.4290;1.2286;
1145.1000;0.4322;1.2286;
1145.4000;0.4265;1.2145;
1145.7000;0.4322;1.2286;
1146.0000;0.4233;1.2052;
1146.3000;0.4322;1.2239;
1146.6000;0.4330;1.2263;
1146.9000;0.4404;1.2474;
1147.2000;0.4290;1.2122;
1147.5000;0.4330;1.2145;
1147.8000;0.4314;1.2075;
1148.1000;0.4306;1.2099;
1148.4000;0.4314;1.2145;
1148.7000;0.4282;1.2075;
1149.0000;0.4306;1.2192;
1149.3000;0.4314;1.2169;
1149.6000;0.4306;1.2169;
1149.9000;0.4314;1.2145;
1150.2000;0.4322;1.2239;
1150.5000;0.4347;1.2310;
1150.8000;0.4387;1.2380;
1151.1000;0.4428;1.2497;
1151.4000;0.4314;1.2192;
1151.7000;0.4314;1.2169;
1152.0000;0.4314;1.2145;
1152.3000;0.4347;1.2169;
1152.6000;0.4347;1.2145;
1152.9000;0.4314;1.2052;
1153.2000;0.4436;1.2333;
1153.5000;0.4371;1.2122;
1153.8000;0.4322;1.2028;
1154.1000;0.4314;1.2052;
1154.4000;0.4290;1.1888;
1154.7000;0.4290;1.1841;
1155.0000;0.4330;1.2028;
1155.3000;0.4322;1.2028;
1155.6000;0.4330;1.2099;
1155.9000;0.4322;1.2145;
1156.2000;0.4322;1.2075;
1156.5000;0.4379;1.2075;
1156.8000;0.4298;1.1864;
1157.1000;0.4322;1.1888;
1157.4000;0.4322;1.1934;
1157.7000;0.4322;1.1864;
1158.0000;0.4322;1.1864;
1158.3000;0.4330;1.1888;
1158.6000;0.4322;1.1958;
1158.9000;0.4314;1.1911;
1159.2000;0.4306;1.1841;
1159.5000;0.4322;1.1911;
1159.8000;0.4322;1.1958;
1160.1000;0.4306;1.1888;
1160.4000;0.4298;1.1888;
1160.7000;0.4314;1.1864;
1161.0000;0.4314;1.1864;
1161.3000;0.4314;1.1934;
1161.6000;0.4339;1.1981;
1161.9000;0.4322;1.1934;
1162.2000;0.4322;1.1981;
1162.5000;0.4314;1.1958;
1162.8000;0.4322;1.1958;
1163.1000;0.4314;1.1958;
1163.4000;0.4339;1.2028;
1163.7000;0.4330;1.2005;
1164.0000;0.4330;1.2028;
1164.3000;0.4379;1.2169;
1164.6000;0.4322;1.1981;
1164.9000;0.4339;1.1888;
1165.2000;0.4322;1.1794;
1165.5000;0.4298;1.1817;
1165.8000;0.4322;1.1888;
1166.1000;0.4306;1.1841;
1166.4000;0.4347;1.1934;
1166.7000;0.4322;1.1911;
1167.0000;0.4314;1.1911;
1167.3000;0.4282;1.1911;
1167.6000;0.4298;1.1958;
1167.9000;0.4339;1.1981;
1168.2000;0.4306;1.1911;
1168.5000;0.4363;1.2099;
1168.8000;0.4322;1.2075;
1169.1000;0.4339;1.2169;
1169.4000;0.4322;1.2122;
1169.7000;0.4314;1.2216;
1170.0000;0.4298;1.2169;
1170.3000;0.4298;1.2192;
1170.6000;0.4208;1.2052;
1170.9000;0.4298;1.2263;
1171.2000;0.4306;1.2333;
1171.5000;0.4306;1.2310;
1171.8000;0.4306;1.2310;
1172.1000;0.4225;1.2099;
1172.4000;0.4314;1.2263;
1172.7000;0.4339;1.2286;
1173.0000;0.4330;1.2216;
1173.3000;0.4330;1.2192;
1173.6000;0.4322;1.2192;
1173.9000;0.4347;1.2239;
1174.2000;0.4355;1.2286;
1174.5000;0.4322;1.2263;
1174.8000;0.4339;1.2286;
1175.1000;0.4217;1.2028;
1175.4000;0.4330;1.2356;
1175.7000;0.4330;1.2403;
1176.0000;0.4339;1.2450;
1176.3000;0.4306;1.2380;
1176.6000;0.4322;1.2450;
1176.9000;0.4314;1.2310;
1177.2000;0.4306;1.2192;
1177.5000;0.4314;1.2239;
1177.8000;0.4322;1.2216;
1178.1000;0.4322;1.2099;
1178.4000;0.4265;1.1911;
1178.7000;0.4322;1.2005;
1179.0000;0.4339;1.2075;
1179.3000;0.4347;1.2145;
1179.6000;0.4306;1.2169;
1179.9000;0.4290;1.2169;
1180.2000;0.4387;1.2497;
1180.5000;0.4347;1.2380;
1180.8000;0.4314;1.2286;
1181.1000;0.4322;1.2263;
1181.4000;0.4298;1.2192;
1181.7000;0.4306;1.2263;
1182.0000;0.4306;1.2286;
1182.3000;0.4314;1.2333;
1182.6000;0.4387;1.2474;
1182.9000;0.4314;1.2192;
1183.2000;0.4314;1.2192;
1183.5000;0.4314;1.2169;
1183.8000;0.4306;1.2169;
1184.1000;0.4347;1.2192;
1184.4000;0.4330;1.2169;
1184.7000;0.4314;1.2169;
1185.0000;0.4339;1.2263;
1185.3000;0.4330;1.2239;
1185.6000;0.4330;1.2145;
1185.9000;0.4330;1.2099;
1186.2000;0.4306;1.2145;
1186.5000;0.4339;1.2263;
1186.8000;0.4347;1.2286;
1187.1000;0.4339;1.2356;
1187.4000;0.4347;1.2356;
1187.7000;0.4298;1.2075;
1188.0000;0.4330;1.2216;
1188.3000;0.4339;1.2169;
1188.6000;0.4330;1.2075;
1188.9000;0.4290;1.2052;
1189.2000;0.4347;1.2145;
1189.5000;0.4347;1.2169;
1189.8000;0.4347;1.2239;
1190.1000;0.4322;1.2310;
1190.4000;0.4339;1.2310;
1190.7000;0.4347;1.2403;
1191.0000;0.4330;1.2403;
1191.3000;0.4314;1.2310;
1191.6000;0.4322;1.2263;
1191.9000;0.4339;1.2286;
1192.2000;0.4322;1.2192;
1192.5000;0.4322;1.2239;
1192.8000;0.4322;1.2075;
1193.1000;0.4314;1.2122;
1193.4000;0.4330;1.2239;
1193.7000;0.4314;1.2239;
1194.0000;0.4314;1.2239;
1194.3000;0.4306;1.2263;
1194.6000;0.4330;1.2310;
1194.9000;0.4330;1.2356;
1195.2000;0.4314;1.2192;
1195.5000;0.4314;1.2122;
1195.8000;0.4290;1.2052;
1196.1000;0.4339;1.2169;
1196.4000;0.4322;1.2216;
1196.7000;0.4322;1.2216;
1197.0000;0.4371;1.2333;
1197.3000;0.4330;1.2286;
1197.6000;0.4306;1.2263;
1197.9000;0.4355;1.2380;
1198.2000;0.4322;1.2286;
1198.5000;0.4306;1.2216;
1198.8000;0.4339;1.2216;
1199.1000;0.4355;1.2333;
1199.4000;0.4330;1.2216;
1199.7000;0.4339;1.2310;
1200.0000;0.4347;1.2263;
1200.3000;0.4257;1.2028;
1200.6000;0.4339;1.2192;
1200.9000;0.4339;1.2099;
1201.2000;0.4330;1.2075;
1201.5000;0.4322;1.2122;
1201.8000;0.4330;1.2169;
1202.1000;0.4306;1.2075;
1202.4000;0.4306;1.2052;
1202.7000;0.4322;1.2005;
1203.0000;0.4322;1.2005;
1203.3000;0.4428;1.2310;
1203.6000;0.4322;1.1981;
1203.9000;0.4322;1.2028;
1204.2000;0.4314;1.2122;
1204.5000;0.4298;1.2052;
1204.8000;0.4322;1.2052;
1205.1000;0.4322;1.2052;
1205.4000;0.4322;1.2099;
1205.7000;0.4306;1.2052;
1206.0000;0.4330;1.2122;
1206.3000;0.4339;1.2075;
1206.6000;0.4339;1.2216;
1206.9000;0.4314;1.2169;
1207.2000;0.4322;1.2239;
1207.5000;0.4233;1.1958;
1207.8000;0.4339;1.2169;
1208.1000;0.4314;1.2122;
1208.4000;0.4347;1.2145;
1208.7000;0.4330;1.2099;
1209.0000;0.4322;1.2099;
1209.3000;0.4314;1.2075;
1209.6000;0.4322;1.2099;
1209.9000;0.4314;1.2075;
1210.2000;0.4314;1.2052;
1210.5000;0.4314;1.2122;
1210.8000;0.4322;1.2052;
1211.1000;0.4322;1.2052;
1211.4000;0.4330;1.2099;
1211.7000;0.4306;1.2052;
1212.0000;0.4322;1.2075;
1212.3000;0.4322;1.2122;
1212.6000;0.4322;1.2099;
1212.9000;0.4314;1.2075;
1213.2000;0.4314;1.2028;
1213.5000;0.4298;1.1958;
1213.8000;0.4306;1.1958;
1214.1000;0.4314;1.2075;
1214.4000;0.4339;1.2122;
1214.7000;0.4339;1.2052;
1215.0000;0.4322;1.2005;
1215.3000;0.4306;1.1888;
1215.6000;0.4314;1.1911;
1215.9000;0.4322;1.1958;
1216.2000;0.4306;1.2028;
1216.5000;0.4322;1.2099;
1216.8000;0.4330;1.2122;
1217.1000;0.4322;1.2099;
1217.4000;0.4298;1.2075;
1217.7000;0.4314;1.2052;
1218.0000;0.4330;1.2052;
1218.3000;0.4298;1.2028;
1218.6000;0.4290;1.2052;
1218.9000;0.4330;1.2099;
1219.2000;0.4322;1.2052;
1219.5000;0.4322;1.2075;
1219.8000;0.4330;1.2075;
1220.1000;0.4330;1.2216;
1220.4000;0.4314;1.2145;
1220.7000;0.4322;1.2145;
1221.0000;0.4322;1.2122;
1221.3000;0.4339;1.2239;
1221.6000;0.4314;1.2122;
1221.9000;0.4387;1.2356;
1222.2000;0.4371;1.2263;
1222.5000;0.4322;1.2239;
1222.8000;0.4322;1.2380;
1223.1000;0.4314;1.2192;
1223.4000;0.4314;1.2169;
1223.7000;0.4314;1.2122;
1224.0000;0.4322;1.2122;
1224.3000;0.4347;1.2239;
1224.6000;0.4339;1.2192;
1224.9000;0.4306;1.2169;
1225.2000;0.4339;1.2310;
1225.5000;0.4330;1.2263;
1225.8000;0.4314;1.2169;
1226.1000;0.4347;1.2216;
1226.4000;0.4330;1.2169;
1226.7000;0.4339;1.2239;
1227.0000;0.4355;1.2216;
1227.3000;0.4355;1.2333;
1227.6000;0.4322;1.2192;
1227.9000;0.4330;1.2192;
1228.2000;0.4330;1.2169;
1228.5000;0.4330;1.2122;
1228.8000;0.4330;1.2052;
1229.1000;0.4314;1.1981;
1229.4000;0.4355;1.2028;
1229.7000;0.4339;1.2005;
1230.0000;0.4314;1.1958;
1230.3000;0.4314;1.1981;
1230.6000;0.4436;1.2403;
1230.9000;0.4306;1.2028;
1231.2000;0.4298;1.1958;
1231.5000;0.4314;1.1958;
1231.8000;0.4322;1.1934;
1232.1000;0.4339;1.1981;
1232.4000;0.4379;1.2122;
1232.7000;0.4322;1.2099;
1233.0000;0.4306;1.2122;
1233.3000;0.4249;1.2028;
1233.6000;0.4257;1.2099;
1233.9000;0.4339;1.2286;
1234.2000;0.4322;1.2192;
1234.5000;0.4339;1.2192;
1234.8000;0.4314;1.2239;
1235.1000;0.4322;1.2145;
1235.4000;0.4314;1.2122;
1235.7000;0.4330;1.2122;
1236.0000;0.4387;1.2239;
1236.3000;0.4290;1.1958;
1236.6000;0.4322;1.2005;
1236.9000;0.4347;1.2005;
1237.2000;0.4330;1.1934;
1237.5000;0.4339;1.1981;
1237.8000;0.4347;1.1958;
1238.1000;0.4339;1.1981;
1238.4000;0.4330;1.1934;
1238.7000;0.4314;1.1958;
1239.0000;0.4314;1.1934;
1239.3000;0.4306;1.1911;
1239.6000;0.4363;1.2075;
1239.9000;0.4339;1.2028;
1240.2000;0.4306;1.1958;
1240.5000;0.4330;1.2052;
1240.8000;0.4330;1.2028;
1241.1000;0.4322;1.1958;
1241.4000;0.4322;1.1888;
1241.7000;0.4330;1.2028;
1242.0000;0.4330;1.2005;
1242.3000;0.4339;1.2075;
1242.6000;0.4330;1.2075;
1242.9000;0.4306;1.2052;
1243.2000;0.4436;1.2380;
1243.5000;0.4330;1.2028;
1243.8000;0.4314;1.2028;
1244.1000;0.4322;1.2005;
1244.4000;0.4322;1.1958;
1244.7000;0.4330;1.2052;
1245.0000;0.4330;1.2052;
1245.3000;0.4322;1.2122;
1245.6000;0.4314;1.2169;
1245.9000;0.4314;1.2169;
1246.2000;0.4306;1.2122;
1246.5000;0.4322;1.2169;
1246.8000;0.4322;1.2192;
1247.1000;0.4314;1.2169;
1247.4000;0.4330;1.2169;
1247.7000;0.4322;1.2192;
1248.0000;0.4314;1.2169;
1248.3000;0.4339;1.2169;
1248.6000;0.4339;1.2099;
1248.9000;0.4306;1.2052;
1249.2000;0.4379;1.2216;
1249.5000;0.4306;1.2052;
1249.8000;0.4330;1.2122;
1250.1000;0.4314;1.2099;
1250.4000;0.4314;1.2028;
1250.7000;0.4339;1.2028;
1251.0000;0.4322;1.1981;
1251.3000;0.4371;1.2075;
1251.6000;0.4306;1.1934;
1251.9000;0.4314;1.1934;
1252.2000;0.4314;1.1981;
1252.5000;0.4314;1.2075;
1252.8000;0.4347;1.2099;
1253.1000;0.4322;1.2028;
1253.4000;0.4306;1.1958;
1253.7000;0.4322;1.2099;
1254.0000;0.4322;1.2028;
1254.3000;0.4330;1.2028;
1254.6000;0.4290;1.1958;
1254.9000;0.4339;1.2169;
1255.2000;0.4306;1.2169;
1255.5000;0.4314;1.2122;
1255.8000;0.4330;1.2052;
1256.1000;0.4290;1.1934;
1256.4000;0.4330;1.2099;
1256.7000;0.4306;1.2028;
1257.0000;0.4339;1.2075;
1257.3000;0.4347;1.2005;
1257.6000;0.4355;1.1911;
1257.9000;0.4330;1.1888;
1258.2000;0.4290;1.1864;
1258.5000;0.4330;1.1934;
1258.8000;0.4339;1.1958;
1259.1000;0.4322;1.1934;
1259.4000;0.4298;1.1958;
1259.7000;0.4322;1.2028;
1260.0000;0.4322;1.2122;
1260.3000;0.4347;1.2075;
1260.6000;0.4347;1.2145;
1260.9000;0.4339;1.2122;
1261.2000;0.4322;1.2052;
1261.5000;0.4306;1.2075;
1261.8000;0.4339;1.2169;
1262.1000;0.4306;1.2145;
1262.4000;0.4322;1.2099;
1262.7000;0.4322;1.2145;
1263.0000;0.4314;1.2122;
1263.3000;0.4322;1.2169;
1263.6000;0.4314;1.2169;
1263.9000;0.4379;1.2403;
1264.2000;0.4314;1.2286;
1264.5000;0.4249;1.2075;
1264.8000;0.4322;1.2216;
1265.1000;0.4298;1.2099;
1265.4000;0.4330;1.2263;
1265.7000;0.4330;1.2192;
1266.0000;0.4225;1.1770;
1266.3000;0.4306;1.2028;
1266.6000;0.4330;1.2075;
1266.9000;0.4339;1.2145;
1267.2000;0.4322;1.2122;
1267.5000;0.4339;1.2099;
1267.8000;0.4306;1.2075;
1268.1000;0.4314;1.2075;
1268.4000;0.4330;1.2122;
1268.7000;0.4330;1.2099;
1269.0000;0.4314;1.2099;
1269.3000;0.4379;1.2192;
1269.6000;0.4298;1.2028;
1269.9000;0.4339;1.1981;
1270.2000;0.4314;1.1934;
1270.5000;0.4322;1.1841;
1270.8000;0.4339;1.1888;
1271.1000;0.4322;1.1864;
1271.4000;0.4314;1.1794;
1271.7000;0.4322;1.1841;
1272.0000;0.4347;1.1958;
1272.3000;0.4306;1.2028;
1272.6000;0.4355;1.2192;
1272.9000;0.4306;1.2099;
1273.2000;0.4322;1.2099;
1273.5000;0.4314;1.2005;
1273.8000;0.4314;1.1958;
1274.1000;0.4290;1.1911;
1274.4000;0.4330;1.1934;
1274.7000;0.4306;1.1888;
1275.0000;0.4290;1.1888;
1275.3000;0.4282;1.1911;
1275.6000;0.4330;1.2099;
1275.9000;0.4330;1.2145;
1276.2000;0.4330;1.2099;
1276.5000;0.4322;1.2216;
1276.8000;0.4330;1.2169;
1277.1000;0.4306;1.2099;
1277.4000;0.4322;1.2005;
1277.7000;0.4363;1.2075;
1278.0000;0.4322;1.1958;
1278.3000;0.4314;1.1934;
1278.6000;0.4339;1.1981;
1278.9000;0.4298;1.1864;
1279.2000;0.4306;1.1911;
1279.5000;0.4322;1.1958;
1279.8000;0.4314;1.2028;
1280.1000;0.4371;1.2122;
1280.4000;0.4330;1.2169;
1280.7000;0.4314;1.2145;
1281.0000;0.4290;1.2145;
1281.3000;0.4330;1.2216;
1281.6000;0.4322;1.2263;
1281.9000;0.4396;1.2521;
1282.2000;0.4347;1.2380;
1282.5000;0.4322;1.2216;
1282.8000;0.4314;1.2145;
1283.1000;0.4330;1.2145;
1283.4000;0.4339;1.2169;
1283.7000;0.4420;1.2427;
1284.0000;0.4330;1.2122;
1284.3000;0.4322;1.2075;
1284.6000;0.4330;1.2122;
1284.9000;0.4339;1.2169;
1285.2000;0.4339;1.2192;
1285.5000;0.4347;1.2122;
1285.8000;0.4322;1.2122;
1286.1000;0.4347;1.2169;
1286.4000;0.4347;1.2122;
1286.7000;0.4330;1.2028;
1287.0000;0.4339;1.2099;
1287.3000;0.4322;1.2005;
1287.6000;0.4330;1.2005;
1287.9000;0.4355;1.1981;
1288.2000;0.4322;1.2028;
1288.5000;0.4322;1.2145;
1288.8000;0.4339;1.2075;
1289.1000;0.4282;1.1958;
1289.4000;0.4330;1.2145;
1289.7000;0.4314;1.2099;
1290.0000;0.4306;1.2122;
1290.3000;0.4347;1.2145;
1290.6000;0.4330;1.2145;
1290.9000;0.4330;1.2099;
1291.2000;0.4314;1.2122;
1291.5000;0.4330;1.2192;
1291.8000;0.4322;1.2122;
1292.1000;0.4339;1.2145;
1292.4000;0.4330;1.2169;
1292.7000;0.4355;1.2239;
1293.0000;0.4330;1.2192;
1293.3000;0.4330;1.2145;
1293.6000;0.4322;1.2145;
1293.9000;0.4314;1.2239;
1294.2000;0.4330;1.2216;
1294.5000;0.4322;1.2192;
1294.8000;0.4322;1.2122;
1295.1000;0.4322;1.2239;
1295.4000;0.4322;1.2192;
1295.7000;0.4339;1.2192;
1296.0000;0.4322;1.2169;
1296.3000;0.4322;1.2169;
1296.6000;0.4339;1.2239;
1296.9000;0.4330;1.2192;
1297.2000;0.4330;1.2216;
1297.5000;0.4314;1.2239;
1297.8000;0.4330;1.2216;
1298.1000;0.4314;1.2169;
1298.4000;0.4314;1.2122;
1298.7000;0.4330;1.2145;
1299.0000;0.4306;1.2122;
1299.3000;0.4330;1.2122;
1299.6000;0.4322;1.2075;
1299.9000;0.4347;1.2028;
1300.2000;0.4314;1.2075;
1300.5000;0.4314;1.1981;
1300.8000;0.4330;1.2052;
1301.1000;0.4339;1.2052;
1301.4000;0.4339;1.2099;
1301.7000;0.4330;1.2052;
1302.0000;0.4339;1.2028;
1302.3000;0.4355;1.2169;
1302.6000;0.4363;1.2192;
1302.9000;0.4412;1.2356;
1303.2000;0.4306;1.2075;
1303.5000;0.4330;1.2145;
1303.8000;0.4339;1.2263;
1304.1000;0.4339;1.2286;
1304.4000;0.4347;1.2286;
1304.7000;0.4298;1.2192;
1305.0000;0.4387;1.2333;
1305.3000;0.4322;1.2192;
1305.6000;0.4347;1.2169;
1305.9000;0.4322;1.2192;
1306.2000;0.4314;1.2145;
1306.5000;0.4314;1.2099;
1306.8000;0.4347;1.2145;
1307.1000;0.4322;1.2075;
1307.4000;0.4298;1.1981;
1307.7000;0.4379;1.2192;
1308.0000;0.4330;1.2028;
1308.3000;0.4314;1.1958;
1308.6000;0.4339;1.2075;
1308.9000;0.4347;1.2239;
1309.2000;0.4347;1.2286;
1309.5000;0.4322;1.2239;
1309.8000;0.4322;1.2263;
1310.1000;0.4306;1.2099;
1310.4000;0.4314;1.2075;
1310.7000;0.4355;1.2192;
1311.0000;0.4298;1.2122;
1311.3000;0.4330;1.2216;
1311.6000;0.4314;1.2239;
1311.9000;0.4330;1.2310;
1312.2000;0.4322;1.2333;
1312.5000;0.4330;1.2216;
1312.8000;0.4257;1.1934;
1313.1000;0.4314;1.2028;
1313.4000;0.4330;1.1958;
1313.7000;0.4363;1.2145;
1314.0000;0.4322;1.2075;
1314.3000;0.4249;1.1934;
1314.6000;0.4314;1.2122;
1314.9000;0.4330;1.2099;
1315.2000;0.4330;1.2052;
1315.5000;0.4314;1.1934;
1315.8000;0.4322;1.1981;
1316.1000;0.4322;1.1981;
1316.4000;0.4330;1.2028;
1316.7000;0.4314;1.2005;
1317.0000;0.4322;1.2028;
1317.3000;0.4265;1.1888;
1317.6000;0.4322;1.1934;
1317.9000;0.4330;1.1934;
1318.2000;0.4314;1.1934;
1318.5000;0.4322;1.2075;
1318.8000;0.4330;1.2005;
1319.1000;0.4330;1.1888;
1319.4000;0.4306;1.1841;
1319.7000;0.4347;1.1958;
1320.0000;0.4322;1.1864;
1320.3000;0.4330;1.1911;
1320.6000;0.4339;1.2005;
1320.9000;0.4257;1.1747;
1321.2000;0.4330;1.2028;
1321.5000;0.4347;1.2028;
1321.8000;0.4322;1.2028;
1322.1000;0.4339;1.2028;
1322.4000;0.4322;1.2028;
1322.7000;0.4330;1.2122;
1323.0000;0.4306;1.2122;
1323.3000;0.4282;1.2005;
1323.6000;0.4322;1.2169;
1323.9000;0.4314;1.2145;
1324.2000;0.4339;1.2169;
1324.5000;0.4412;1.2356;
1324.8000;0.4339;1.2169;
1325.1000;0.4339;1.2286;
1325.4000;0.4428;1.2544;
1325.7000;0.4208;1.1864;
1326.0000;0.4314;1.2075;
1326.3000;0.4339;1.2028;
1326.6000;0.4347;1.2075;
1326.9000;0.4363;1.2052;
1327.2000;0.4339;1.1888;
1327.5000;0.4339;1.1864;
1327.8000;0.4290;1.1747;
1328.1000;0.4330;1.1864;
1328.4000;0.4339;1.1864;
1328.7000;0.4339;1.1911;
1329.0000;0.4265;1.1747;
1329.3000;0.4339;1.1934;
1329.6000;0.4330;1.1911;
1329.9000;0.4339;1.1934;
1330.2000;0.4339;1.1911;
1330.5000;0.4322;1.1981;
1330.8000;0.4298;1.1888;
1331.1000;0.4339;1.2005;
1331.4000;0.4314;1.2005;
1331.7000;0.4322;1.2075;
1332.0000;0.4306;1.2099;
1332.3000;0.4298;1.2169;
1332.6000;0.4314;1.2192;
1332.9000;0.4314;1.2192;
1333.2000;0.4314;1.2169;
1333.5000;0.4298;1.2122;
1333.8000;0.4330;1.2192;
1334.1000;0.4314;1.2310;
1334.4000;0.4306;1.2286;
1334.7000;0.4330;1.2310;
1335.0000;0.4322;1.2263;
1335.3000;0.4330;1.2286;
1335.6000;0.4322;1.2286;
1335.9000;0.4339;1.2310;
1336.2000;0.4339;1.2427;
1336.5000;0.4330;1.2497;
1336.8000;0.4339;1.2497;
1337.1000;0.4298;1.2380;
1337.4000;0.4322;1.2497;
1337.7000;0.4322;1.2450;
1338.0000;0.4314;1.2356;
1338.3000;0.4241;1.2075;
1338.6000;0.4330;1.2333;
1338.9000;0.4314;1.2286;
1339.2000;0.4330;1.2286;
1339.5000;0.4322;1.2333;
1339.8000;0.4322;1.2263;
1340.1000;0.4208;1.1958;
1340.4000;0.4249;1.2075;
1340.7000;0.4339;1.2380;
1341.0000;0.4306;1.2333;
1341.3000;0.4322;1.2380;
1341.6000;0.4330;1.2474;
1341.9000;0.4347;1.2450;
1342.2000;0.4314;1.2310;
1342.5000;0.4330;1.2333;
1342.8000;0.4322;1.2286;
1343.1000;0.4306;1.2239;
1343.4000;0.4298;1.2145;
1343.7000;0.4314;1.2216;
1344.0000;0.4306;1.2145;
1344.3000;0.4330;1.2216;
1344.6000;0.4314;1.2122;
1344.9000;0.4314;1.2099;
1345.2000;0.4330;1.2052;
1345.5000;0.4339;1.2099;
1345.8000;0.4330;1.2028;
1346.1000;0.4347;1.2075;
1346.4000;0.4371;1.2075;
1346.7000;0.4330;1.2005;
1347.0000;0.4347;1.2169;
1347.3000;0.4339;1.2099;
1347.6000;0.4330;1.2005;
1347.9000;0.4330;1.1981;
1348.2000;0.4330;1.1934;
1348.5000;0.4322;1.1817;
1348.8000;0.4339;1.1817;
1349.1000;0.4314;1.1817;
1349.4000;0.4379;1.2075;
1349.7000;0.4322;1.2005;
1350.0000;0.4330;1.2005;
1350.3000;0.4330;1.2075;
1350.6000;0.4330;1.2145;
1350.9000;0.4347;1.2145;
1351.2000;0.4298;1.2122;
1351.5000;0.4347;1.2356;
1351.8000;0.4339;1.2333;
1352.1000;0.4339;1.2286;
1352.4000;0.4322;1.2169;
1352.7000;0.4339;1.2263;
1353.0000;0.4363;1.2286;
1353.3000;0.4330;1.2263;
1353.6000;0.4330;1.2192;
1353.9000;0.4330;1.2216;
1354.2000;0.4330;1.2216;
1354.5000;0.4330;1.2169;
1354.8000;0.4322;1.2239;
1355.1000;0.4339;1.2263;
1355.4000;0.4330;1.2239;
1355.7000;0.4322;1.2216;
1356.0000;0.4412;1.2286;
1356.3000;0.4339;1.2052;
1356.6000;0.4330;1.2052;
1356.9000;0.4322;1.1981;
1357.2000;0.4330;1.2028;
1357.5000;0.4363;1.2052;
1357.8000;0.4339;1.1958;
1358.1000;0.4339;1.2099;
1358.4000;0.4314;1.2052;
1358.7000;0.4330;1.2052;
1359.0000;0.4339;1.2075;
1359.3000;0.4330;1.2075;
1359.6000;0.4330;1.2099;
1359.9000;0.4322;1.2145;
1360.2000;0.4330;1.2099;
1360.5000;0.4339;1.2075;
1360.8000;0.4322;1.2005;
1361.1000;0.4371;1.2122;
1361.4000;0.4306;1.1934;
1361.7000;0.4322;1.2028;
1362.0000;0.4330;1.2169;
1362.3000;0.4330;1.2145;
1362.6000;0.4339;1.2145;
1362.9000;0.4379;1.2239;
1363.2000;0.4322;1.2075;
1363.5000;0.4347;1.2052;
1363.8000;0.4330;1.2028;
1364.1000;0.4314;1.1934;
1364.4000;0.4298;1.1911;
1364.7000;0.4347;1.2005;
1365.0000;0.4314;1.2028;
1365.3000;0.4396;1.2169;
1365.6000;0.4330;1.2052;
1365.9000;0.4339;1.2239;
1366.2000;0.4322;1.2075;
1366.5000;0.4339;1.2145;
1366.8000;0.4330;1.2052;
1367.1000;0.4330;1.2169;
1367.4000;0.4347;1.2122;
1367.7000;0.4363;1.2216;
1368.0000;0.4330;1.2192;
1368.3000;0.4322;1.2169;
1368.6000;0.4330;1.2122;
1368.9000;0.4314;1.2005;
1369.2000;0.4314;1.2075;
1369.5000;0.4330;1.2075;
1369.8000;0.4298;1.2052;
1370.1000;0.4322;1.2099;
1370.4000;0.4339;1.1981;
1370.7000;0.4314;1.2028;
1371.0000;0.4347;1.2099;
1371.3000;0.4330;1.2075;
1371.6000;0.4339;1.2075;
1371.9000;0.4330;1.2052;
1372.2000;0.4330;1.2122;
1372.5000;0.4322;1.2122;
1372.8000;0.4330;1.2145;
1373.1000;0.4314;1.2145;
1373.4000;0.4322;1.2169;
1373.7000;0.4330;1.2239;
1374.0000;0.4322;1.2216;
1374.3000;0.4233;1.1911;
1374.6000;0.4330;1.2028;
1374.9000;0.4330;1.1981;
1375.2000;0.4330;1.2028;
1375.5000;0.4306;1.2005;
1375.8000;0.4322;1.2005;
1376.1000;0.4322;1.1958;
1376.4000;0.4347;1.1958;
1376.7000;0.4339;1.1981;
1377.0000;0.4290;1.1794;
1377.3000;0.4363;1.2052;
1377.6000;0.4322;1.2075;
1377.9000;0.4339;1.2052;
1378.2000;0.4314;1.2052;
1378.5000;0.4339;1.2122;
1378.8000;0.4339;1.2145;
1379.1000;0.4339;1.2192;
1379.4000;0.4322;1.2192;
1379.7000;0.4314;1.2169;
1380.0000;0.4371;1.2169;
1380.3000;0.4339;1.2099;
1380.6000;0.4444;1.2333;
1380.9000;0.4225;1.1817;
1381.2000;0.4314;1.2122;
1381.5000;0.4387;1.2286;
1381.8000;0.4306;1.2075;
1382.1000;0.4322;1.2075;
1382.4000;0.4339;1.2099;
1382.7000;0.4314;1.2169;
1383.0000;0.4314;1.2192;
1383.3000;0.4282;1.2099;
1383.6000;0.4330;1.2169;
1383.9000;0.4306;1.2122;
1384.2000;0.4347;1.2192;
1384.5000;0.4322;1.2145;
1384.8000;0.4322;1.2122;
1385.1000;0.4330;1.2122;
1385.4000;0.4330;1.2192;
1385.7000;0.4339;1.2145;
1386.0000;0.4330;1.2122;
1386.3000;0.4330;1.2145;
1386.6000;0.4339;1.2192;
1386.9000;0.4347;1.2122;
1387.2000;0.4330;1.2075;
1387.5000;0.4339;1.2075;
1387.8000;0.4339;1.2099;
1388.1000;0.4330;1.2075;
1388.4000;0.4330;1.2075;
1388.7000;0.4322;1.2028;
1389.0000;0.4347;1.2028;
1389.3000;0.4371;1.2075;
1389.6000;0.4322;1.2028;
1389.9000;0.4330;1.2075;
1390.2000;0.4347;1.2122;
1390.5000;0.4379;1.2216;
1390.8000;0.4322;1.2145;
1391.1000;0.4322;1.2169;
1391.4000;0.4330;1.2145;
1391.7000;0.4330;1.2169;
1392.0000;0.4339;1.2145;
1392.3000;0.4330;1.2169;
1392.6000;0.4314;1.2052;
1392.9000;0.4330;1.2122;
1393.2000;0.4322;1.2052;
1393.5000;0.4322;1.2028;
1393.8000;0.4355;1.2052;
1394.1000;0.4330;1.2075;
1394.4000;0.4355;1.2145;
1394.7000;0.4363;1.2122;
1395.0000;0.4322;1.2099;
1395.3000;0.4371;1.2216;
1395.6000;0.4355;1.2169;
1395.9000;0.4339;1.2075;
1396.2000;0.4330;1.2028;
1396.5000;0.4330;1.2052;
1396.8000;0.4339;1.2028;
1397.1000;0.4339;1.2052;
1397.4000;0.4314;1.2005;
1397.7000;0.4347;1.2145;
1398.0000;0.4355;1.2192;
1398.3000;0.4339;1.2099;
1398.6000;0.4330;1.2005;
1398.9000;0.4355;1.2169;
1399.2000;0.4339;1.2122;
1399.5000;0.4355;1.2122;
1399.8000;0.4371;1.2192;
