time/ms;Fluo/V;P700 deltaI/I x10³;
-199.8000;0.5747;1.4631;
-199.5000;0.5747;1.4560;
-199.2000;0.5706;1.4514;
-198.9000;0.5755;1.4678;
-198.6000;0.5747;1.4678;
-198.3000;0.5747;1.4631;
-198.0000;0.5796;1.4725;
-197.7000;0.5706;1.4537;
-197.4000;0.5731;1.4631;
-197.1000;0.5771;1.4771;
-196.8000;0.5771;1.4771;
-196.5000;0.5763;1.4748;
-196.2000;0.5763;1.4678;
-195.9000;0.5722;1.4631;
-195.6000;0.5788;1.4865;
-195.3000;0.5771;1.4818;
-195.0000;0.5682;1.4631;
-194.7000;0.5722;1.4771;
-194.4000;0.5747;1.4842;
-194.1000;0.5763;1.4748;
-193.8000;0.5747;1.4654;
-193.5000;0.5747;1.4748;
-193.2000;0.5722;1.4654;
-192.9000;0.5714;1.4560;
-192.6000;0.5788;1.4795;
-192.3000;0.5747;1.4771;
-192.0000;0.5755;1.4865;
-191.7000;0.5763;1.4889;
-191.4000;0.5747;1.4982;
-191.1000;0.5739;1.4936;
-190.8000;0.5779;1.5029;
-190.5000;0.5763;1.4936;
-190.2000;0.5722;1.4725;
-189.9000;0.5747;1.4678;
-189.6000;0.5820;1.4818;
-189.3000;0.5820;1.4936;
-189.0000;0.5771;1.4748;
-188.7000;0.5771;1.4795;
-188.4000;0.5722;1.4748;
-188.1000;0.5755;1.4889;
-187.8000;0.5739;1.4818;
-187.5000;0.5755;1.4842;
-187.2000;0.5731;1.4842;
-186.9000;0.5690;1.4725;
-186.6000;0.5763;1.4959;
-186.3000;0.5755;1.4936;
-186.0000;0.5763;1.4842;
-185.7000;0.5747;1.4865;
-185.4000;0.5747;1.4865;
-185.1000;0.5665;1.4584;
-184.8000;0.5747;1.4771;
-184.5000;0.5739;1.4748;
-184.2000;0.5755;1.4701;
-183.9000;0.5763;1.4678;
-183.6000;0.5755;1.4654;
-183.3000;0.5739;1.4631;
-183.0000;0.5763;1.4701;
-182.7000;0.5731;1.4607;
-182.4000;0.5739;1.4654;
-182.1000;0.5739;1.4654;
-181.8000;0.5722;1.4560;
-181.5000;0.5747;1.4654;
-181.2000;0.5763;1.4654;
-180.9000;0.5747;1.4678;
-180.6000;0.5747;1.4607;
-180.3000;0.5755;1.4701;
-180.0000;0.5755;1.4654;
-179.7000;0.5747;1.4631;
-179.4000;0.5747;1.4607;
-179.1000;0.5739;1.4560;
-178.8000;0.5763;1.4560;
-178.5000;0.5755;1.4584;
-178.2000;0.5755;1.4537;
-177.9000;0.5763;1.4537;
-177.6000;0.5755;1.4467;
-177.3000;0.5755;1.4349;
-177.0000;0.5706;1.4326;
-176.7000;0.5682;1.4420;
-176.4000;0.5747;1.4537;
-176.1000;0.5731;1.4654;
-175.8000;0.5755;1.4631;
-175.5000;0.5755;1.4584;
-175.2000;0.5755;1.4631;
-174.9000;0.5747;1.4631;
-174.6000;0.5763;1.4818;
-174.3000;0.5722;1.4795;
-174.0000;0.5747;1.4748;
-173.7000;0.5739;1.4771;
-173.4000;0.5747;1.4701;
-173.1000;0.5739;1.4631;
-172.8000;0.5755;1.4748;
-172.5000;0.5755;1.4701;
-172.2000;0.5763;1.4725;
-171.9000;0.5763;1.4701;
-171.6000;0.5771;1.4725;
-171.3000;0.5665;1.4396;
-171.0000;0.5747;1.4678;
-170.7000;0.5763;1.4748;
-170.4000;0.5755;1.4771;
-170.1000;0.5763;1.4842;
-169.8000;0.5763;1.4842;
-169.5000;0.5771;1.4865;
-169.2000;0.5771;1.4818;
-168.9000;0.5747;1.4889;
-168.6000;0.5763;1.4889;
-168.3000;0.5763;1.4865;
-168.0000;0.5763;1.4889;
-167.7000;0.5747;1.4865;
-167.4000;0.5747;1.4842;
-167.1000;0.5739;1.4842;
-166.8000;0.5763;1.4818;
-166.5000;0.5763;1.4818;
-166.2000;0.5747;1.4842;
-165.9000;0.5747;1.4818;
-165.6000;0.5747;1.4771;
-165.3000;0.5755;1.4725;
-165.0000;0.5755;1.4725;
-164.7000;0.5755;1.4701;
-164.4000;0.5763;1.4795;
-164.1000;0.5755;1.4865;
-163.8000;0.5755;1.4795;
-163.5000;0.5747;1.4795;
-163.2000;0.5763;1.4818;
-162.9000;0.5714;1.4678;
-162.6000;0.5755;1.4701;
-162.3000;0.5747;1.4678;
-162.0000;0.5731;1.4678;
-161.7000;0.5763;1.4748;
-161.4000;0.5739;1.4748;
-161.1000;0.5731;1.4771;
-160.8000;0.5739;1.4818;
-160.5000;0.5755;1.4889;
-160.2000;0.5739;1.4865;
-159.9000;0.5755;1.4865;
-159.6000;0.5747;1.4748;
-159.3000;0.5747;1.4748;
-159.0000;0.5763;1.4748;
-158.7000;0.5812;1.4795;
-158.4000;0.5771;1.4654;
-158.1000;0.5747;1.4584;
-157.8000;0.5706;1.4560;
-157.5000;0.5755;1.4678;
-157.2000;0.5747;1.4678;
-156.9000;0.5763;1.4748;
-156.6000;0.5747;1.4701;
-156.3000;0.5755;1.4818;
-156.0000;0.5747;1.4748;
-155.7000;0.5771;1.4842;
-155.4000;0.5763;1.4818;
-155.1000;0.5763;1.4771;
-154.8000;0.5755;1.4748;
-154.5000;0.5755;1.4771;
-154.2000;0.5739;1.4701;
-153.9000;0.5755;1.4631;
-153.6000;0.5731;1.4631;
-153.3000;0.5747;1.4701;
-153.0000;0.5747;1.4818;
-152.7000;0.5771;1.4865;
-152.4000;0.5755;1.4818;
-152.1000;0.5861;1.5053;
-151.8000;0.5820;1.4936;
-151.5000;0.5755;1.4771;
-151.2000;0.5763;1.4795;
-150.9000;0.5739;1.4701;
-150.6000;0.5763;1.4725;
-150.3000;0.5755;1.4678;
-150.0000;0.5739;1.4678;
-149.7000;0.5739;1.4701;
-149.4000;0.5747;1.4771;
-149.1000;0.5747;1.4818;
-148.8000;0.5714;1.4725;
-148.5000;0.5747;1.4795;
-148.2000;0.5739;1.4795;
-147.9000;0.5739;1.4725;
-147.6000;0.5690;1.4631;
-147.3000;0.5747;1.4795;
-147.0000;0.5722;1.4725;
-146.7000;0.5739;1.4725;
-146.4000;0.5739;1.4607;
-146.1000;0.5755;1.4560;
-145.8000;0.5747;1.4514;
-145.5000;0.5747;1.4420;
-145.2000;0.5755;1.4420;
-144.9000;0.5747;1.4373;
-144.6000;0.5755;1.4326;
-144.3000;0.5763;1.4420;
-144.0000;0.5763;1.4443;
-143.7000;0.5747;1.4490;
-143.4000;0.5763;1.4701;
-143.1000;0.5747;1.4631;
-142.8000;0.5755;1.4678;
-142.5000;0.5853;1.4959;
-142.2000;0.5812;1.4936;
-141.9000;0.5747;1.4771;
-141.6000;0.5763;1.4725;
-141.3000;0.5755;1.4631;
-141.0000;0.5788;1.4818;
-140.7000;0.5747;1.4631;
-140.4000;0.5755;1.4607;
-140.1000;0.5739;1.4678;
-139.8000;0.5771;1.4678;
-139.5000;0.5706;1.4514;
-139.2000;0.5755;1.4654;
-138.9000;0.5763;1.4725;
-138.6000;0.5755;1.4701;
-138.3000;0.5763;1.4842;
-138.0000;0.5747;1.4889;
-137.7000;0.5755;1.4959;
-137.4000;0.5771;1.4982;
-137.1000;0.5739;1.4842;
-136.8000;0.5731;1.4795;
-136.5000;0.5747;1.4865;
-136.2000;0.5755;1.4889;
-135.9000;0.5731;1.4748;
-135.6000;0.5739;1.4818;
-135.3000;0.5739;1.4795;
-135.0000;0.5706;1.4725;
-134.7000;0.5763;1.4771;
-134.4000;0.5763;1.4725;
-134.1000;0.5763;1.4795;
-133.8000;0.5763;1.4818;
-133.5000;0.5755;1.4701;
-133.2000;0.5763;1.4771;
-132.9000;0.5804;1.4936;
-132.6000;0.5763;1.4818;
-132.3000;0.5763;1.4795;
-132.0000;0.5747;1.4818;
-131.7000;0.5771;1.4795;
-131.4000;0.5779;1.4865;
-131.1000;0.5763;1.4865;
-130.8000;0.5739;1.4748;
-130.5000;0.5747;1.4748;
-130.2000;0.5747;1.4842;
-129.9000;0.5771;1.4912;
-129.6000;0.5739;1.4748;
-129.3000;0.5755;1.4771;
-129.0000;0.5763;1.4771;
-128.7000;0.5747;1.4795;
-128.4000;0.5763;1.4771;
-128.1000;0.5763;1.4795;
-127.8000;0.5779;1.4842;
-127.5000;0.5755;1.4818;
-127.2000;0.5739;1.4795;
-126.9000;0.5763;1.4795;
-126.6000;0.5763;1.4936;
-126.3000;0.5763;1.5006;
-126.0000;0.5771;1.5029;
-125.7000;0.5771;1.5029;
-125.4000;0.5739;1.4936;
-125.1000;0.5739;1.4818;
-124.8000;0.5747;1.4795;
-124.5000;0.5747;1.4912;
-124.2000;0.5763;1.4936;
-123.9000;0.5731;1.4842;
-123.6000;0.5739;1.4842;
-123.3000;0.5755;1.4748;
-123.0000;0.5739;1.4678;
-122.7000;0.5739;1.4631;
-122.4000;0.5714;1.4514;
-122.1000;0.5755;1.4584;
-121.8000;0.5698;1.4467;
-121.5000;0.5804;1.4654;
-121.2000;0.5763;1.4514;
-120.9000;0.5747;1.4560;
-120.6000;0.5804;1.4748;
-120.3000;0.5706;1.4584;
-120.0000;0.5739;1.4654;
-119.7000;0.5755;1.4748;
-119.4000;0.5714;1.4678;
-119.1000;0.5747;1.4725;
-118.8000;0.5747;1.4771;
-118.5000;0.5796;1.4795;
-118.2000;0.5747;1.4725;
-117.9000;0.5739;1.4771;
-117.6000;0.5747;1.4842;
-117.3000;0.5739;1.4818;
-117.0000;0.5796;1.5029;
-116.7000;0.5747;1.4912;
-116.4000;0.5747;1.4795;
-116.1000;0.5747;1.4725;
-115.8000;0.5779;1.4889;
-115.5000;0.5747;1.4795;
-115.2000;0.5739;1.4771;
-114.9000;0.5747;1.4795;
-114.6000;0.5739;1.4818;
-114.3000;0.5755;1.4865;
-114.0000;0.5747;1.4865;
-113.7000;0.5722;1.4701;
-113.4000;0.5714;1.4584;
-113.1000;0.5755;1.4701;
-112.8000;0.5755;1.4748;
-112.5000;0.5739;1.4748;
-112.2000;0.5755;1.4748;
-111.9000;0.5763;1.4818;
-111.6000;0.5755;1.4818;
-111.3000;0.5755;1.4725;
-111.0000;0.5763;1.4654;
-110.7000;0.5747;1.4584;
-110.4000;0.5771;1.4654;
-110.1000;0.5755;1.4607;
-109.8000;0.5771;1.4654;
-109.5000;0.5763;1.4678;
-109.2000;0.5779;1.4771;
-108.9000;0.5771;1.4795;
-108.6000;0.5771;1.4795;
-108.3000;0.5755;1.4748;
-108.0000;0.5747;1.4748;
-107.7000;0.5755;1.4748;
-107.4000;0.5731;1.4654;
-107.1000;0.5739;1.4748;
-106.8000;0.5755;1.4725;
-106.5000;0.5820;1.4865;
-106.2000;0.5763;1.4725;
-105.9000;0.5779;1.4725;
-105.6000;0.5828;1.4889;
-105.3000;0.5714;1.4560;
-105.0000;0.5763;1.4701;
-104.7000;0.5739;1.4701;
-104.4000;0.5731;1.4584;
-104.1000;0.5747;1.4631;
-103.8000;0.5739;1.4631;
-103.5000;0.5747;1.4701;
-103.2000;0.5722;1.4701;
-102.9000;0.5755;1.4725;
-102.6000;0.5747;1.4654;
-102.3000;0.5755;1.4654;
-102.0000;0.5739;1.4560;
-101.7000;0.5755;1.4514;
-101.4000;0.5779;1.4631;
-101.1000;0.5755;1.4607;
-100.8000;0.5739;1.4631;
-100.5000;0.5722;1.4725;
-100.2000;0.5755;1.4842;
-99.9000;0.5771;1.4889;
-99.6000;0.5739;1.4771;
-99.3000;0.5722;1.4771;
-99.0000;0.5763;1.4795;
-98.7000;0.5755;1.4842;
-98.4000;0.5820;1.5006;
-98.1000;0.5747;1.4748;
-97.8000;0.5747;1.4725;
-97.5000;0.5755;1.4725;
-97.2000;0.5804;1.4842;
-96.9000;0.5804;1.4748;
-96.6000;0.5763;1.4584;
-96.3000;0.5812;1.4678;
-96.0000;0.5755;1.4490;
-95.7000;0.5747;1.4490;
-95.4000;0.5747;1.4514;
-95.1000;0.5763;1.4537;
-94.8000;0.5763;1.4584;
-94.5000;0.5771;1.4537;
-94.2000;0.5763;1.4514;
-93.9000;0.5771;1.4514;
-93.6000;0.5722;1.4560;
-93.3000;0.5722;1.4537;
-93.0000;0.5722;1.4560;
-92.7000;0.5739;1.4560;
-92.4000;0.5722;1.4560;
-92.1000;0.5747;1.4584;
-91.8000;0.5747;1.4631;
-91.5000;0.5755;1.4654;
-91.2000;0.5771;1.4654;
-90.9000;0.5706;1.4514;
-90.6000;0.5747;1.4607;
-90.3000;0.5763;1.4584;
-90.0000;0.5739;1.4514;
-89.7000;0.5747;1.4631;
-89.4000;0.5755;1.4701;
-89.1000;0.5739;1.4701;
-88.8000;0.5747;1.4678;
-88.5000;0.5771;1.4678;
-88.2000;0.5747;1.4678;
-87.9000;0.5747;1.4725;
-87.6000;0.5731;1.4795;
-87.3000;0.5747;1.4701;
-87.0000;0.5755;1.4678;
-86.7000;0.5739;1.4678;
-86.4000;0.5755;1.4560;
-86.1000;0.5763;1.4584;
-85.8000;0.5755;1.4631;
-85.5000;0.5763;1.4678;
-85.2000;0.5731;1.4631;
-84.9000;0.5796;1.4842;
-84.6000;0.5747;1.4678;
-84.3000;0.5747;1.4678;
-84.0000;0.5747;1.4771;
-83.7000;0.5747;1.4701;
-83.4000;0.5788;1.4725;
-83.1000;0.5755;1.4654;
-82.8000;0.5698;1.4560;
-82.5000;0.5722;1.4725;
-82.2000;0.5763;1.4889;
-81.9000;0.5779;1.4865;
-81.6000;0.5714;1.4748;
-81.3000;0.5763;1.4889;
-81.0000;0.5747;1.4889;
-80.7000;0.5763;1.4936;
-80.4000;0.5755;1.4959;
-80.1000;0.5739;1.4982;
-79.8000;0.5828;1.5194;
-79.5000;0.5755;1.4959;
-79.2000;0.5771;1.5006;
-78.9000;0.5771;1.4982;
-78.6000;0.5755;1.4982;
-78.3000;0.5779;1.5006;
-78.0000;0.5771;1.4982;
-77.7000;0.5755;1.4936;
-77.4000;0.5755;1.4936;
-77.1000;0.5763;1.4912;
-76.8000;0.5755;1.4818;
-76.5000;0.5763;1.4912;
-76.2000;0.5747;1.4889;
-75.9000;0.5755;1.4889;
-75.6000;0.5763;1.4912;
-75.3000;0.5739;1.4795;
-75.0000;0.5739;1.4771;
-74.7000;0.5747;1.4818;
-74.4000;0.5763;1.4818;
-74.1000;0.5747;1.4795;
-73.8000;0.5747;1.4748;
-73.5000;0.5747;1.4771;
-73.2000;0.5804;1.4818;
-72.9000;0.5755;1.4701;
-72.6000;0.5755;1.4748;
-72.3000;0.5722;1.4701;
-72.0000;0.5747;1.4795;
-71.7000;0.5731;1.4701;
-71.4000;0.5747;1.4678;
-71.1000;0.5739;1.4725;
-70.8000;0.5755;1.4842;
-70.5000;0.5763;1.4795;
-70.2000;0.5755;1.4795;
-69.9000;0.5739;1.4771;
-69.6000;0.5763;1.4795;
-69.3000;0.5763;1.4701;
-69.0000;0.5747;1.4678;
-68.7000;0.5755;1.4795;
-68.4000;0.5755;1.4701;
-68.1000;0.5763;1.4725;
-67.8000;0.5763;1.4678;
-67.5000;0.5755;1.4537;
-67.2000;0.5763;1.4584;
-66.9000;0.5763;1.4631;
-66.6000;0.5755;1.4560;
-66.3000;0.5755;1.4584;
-66.0000;0.5755;1.4537;
-65.7000;0.5788;1.4584;
-65.4000;0.5755;1.4514;
-65.1000;0.5755;1.4537;
-64.8000;0.5763;1.4560;
-64.5000;0.5755;1.4560;
-64.2000;0.5763;1.4631;
-63.9000;0.5796;1.4725;
-63.6000;0.5755;1.4771;
-63.3000;0.5755;1.4795;
-63.0000;0.5779;1.4889;
-62.7000;0.5804;1.4889;
-62.4000;0.5731;1.4725;
-62.1000;0.5755;1.4771;
-61.8000;0.5771;1.4818;
-61.5000;0.5771;1.4818;
-61.2000;0.5755;1.4818;
-60.9000;0.5763;1.4912;
-60.6000;0.5755;1.4936;
-60.3000;0.5771;1.5076;
-60.0000;0.5755;1.5053;
-59.7000;0.5747;1.4842;
-59.4000;0.5763;1.4725;
-59.1000;0.5755;1.4607;
-58.8000;0.5763;1.4748;
-58.5000;0.5747;1.4678;
-58.2000;0.5722;1.4607;
-57.9000;0.5755;1.4678;
-57.6000;0.5779;1.4748;
-57.3000;0.5755;1.4701;
-57.0000;0.5755;1.4748;
-56.7000;0.5763;1.4701;
-56.4000;0.5755;1.4748;
-56.1000;0.5755;1.4771;
-55.8000;0.5763;1.4795;
-55.5000;0.5747;1.4795;
-55.2000;0.5763;1.4795;
-54.9000;0.5722;1.4701;
-54.6000;0.5706;1.4631;
-54.3000;0.5747;1.4725;
-54.0000;0.5755;1.4701;
-53.7000;0.5657;1.4514;
-53.4000;0.5747;1.4795;
-53.1000;0.5747;1.4889;
-52.8000;0.5755;1.5006;
-52.5000;0.5739;1.4889;
-52.2000;0.5763;1.4889;
-51.9000;0.5747;1.4865;
-51.6000;0.5755;1.4771;
-51.3000;0.5788;1.4818;
-51.0000;0.5755;1.4818;
-50.7000;0.5755;1.4889;
-50.4000;0.5812;1.5076;
-50.1000;0.5739;1.4818;
-49.8000;0.5731;1.4818;
-49.5000;0.5731;1.4748;
-49.2000;0.5714;1.4678;
-48.9000;0.5755;1.4771;
-48.6000;0.5739;1.4771;
-48.3000;0.5747;1.4748;
-48.0000;0.5747;1.4795;
-47.7000;0.5682;1.4607;
-47.4000;0.5722;1.4701;
-47.1000;0.5739;1.4795;
-46.8000;0.5674;1.4748;
-46.5000;0.5755;1.4865;
-46.2000;0.5755;1.4936;
-45.9000;0.5779;1.4959;
-45.6000;0.5763;1.4912;
-45.3000;0.5747;1.4865;
-45.0000;0.5747;1.4912;
-44.7000;0.5714;1.4889;
-44.4000;0.5755;1.4912;
-44.1000;0.5755;1.4936;
-43.8000;0.5763;1.4818;
-43.5000;0.5739;1.4818;
-43.2000;0.5739;1.4842;
-42.9000;0.5812;1.4936;
-42.6000;0.5755;1.4842;
-42.3000;0.5763;1.4936;
-42.0000;0.5690;1.4725;
-41.7000;0.5755;1.4795;
-41.4000;0.5771;1.4795;
-41.1000;0.5771;1.4795;
-40.8000;0.5755;1.4748;
-40.5000;0.5755;1.4748;
-40.2000;0.5739;1.4678;
-39.9000;0.5739;1.4584;
-39.6000;0.5771;1.4701;
-39.3000;0.5771;1.4725;
-39.0000;0.5755;1.4771;
-38.7000;0.5763;1.4842;
-38.4000;0.5714;1.4771;
-38.1000;0.5747;1.4748;
-37.8000;0.5747;1.4725;
-37.5000;0.5755;1.4795;
-37.2000;0.5763;1.4795;
-36.9000;0.5763;1.4771;
-36.6000;0.5739;1.4701;
-36.3000;0.5739;1.4748;
-36.0000;0.5747;1.4795;
-35.7000;0.5747;1.4842;
-35.4000;0.5739;1.4889;
-35.1000;0.5739;1.4842;
-34.8000;0.5747;1.4818;
-34.5000;0.5747;1.4842;
-34.2000;0.5747;1.4818;
-33.9000;0.5739;1.4701;
-33.6000;0.5763;1.4725;
-33.3000;0.5796;1.4771;
-33.0000;0.5739;1.4678;
-32.7000;0.5739;1.4701;
-32.4000;0.5739;1.4654;
-32.1000;0.5698;1.4607;
-31.8000;0.5763;1.4842;
-31.5000;0.5706;1.4701;
-31.2000;0.5739;1.4771;
-30.9000;0.5747;1.4842;
-30.6000;0.5739;1.4818;
-30.3000;0.5739;1.4771;
-30.0000;0.5714;1.4795;
-29.7000;0.5747;1.4912;
-29.4000;0.5779;1.5006;
-29.1000;0.5763;1.5006;
-28.8000;0.5747;1.4936;
-28.5000;0.5739;1.4865;
-28.2000;0.5747;1.4842;
-27.9000;0.5747;1.4748;
-27.6000;0.5747;1.4748;
-27.3000;0.5747;1.4889;
-27.0000;0.5731;1.4818;
-26.7000;0.5755;1.4889;
-26.4000;0.5722;1.4842;
-26.1000;0.5739;1.4912;
-25.8000;0.5731;1.4889;
-25.5000;0.5731;1.4912;
-25.2000;0.5649;1.4654;
-24.9000;0.5771;1.4959;
-24.6000;0.5682;1.4725;
-24.3000;0.5755;1.4936;
-24.0000;0.5731;1.4889;
-23.7000;0.5739;1.4936;
-23.4000;0.5788;1.4982;
-23.1000;0.5747;1.4795;
-22.8000;0.5763;1.4818;
-22.5000;0.5763;1.4889;
-22.2000;0.5747;1.4771;
-21.9000;0.5771;1.4748;
-21.6000;0.5779;1.4818;
-21.3000;0.5755;1.4771;
-21.0000;0.5755;1.4865;
-20.7000;0.5771;1.4982;
-20.4000;0.5755;1.5006;
-20.1000;0.5755;1.5053;
-19.8000;0.5763;1.5029;
-19.5000;0.5747;1.4959;
-19.2000;0.5771;1.5006;
-18.9000;0.5796;1.5006;
-18.6000;0.5665;1.4678;
-18.3000;0.5747;1.4842;
-18.0000;0.5755;1.4936;
-17.7000;0.5747;1.4865;
-17.4000;0.5771;1.4865;
-17.1000;0.5755;1.4818;
-16.8000;0.5747;1.4865;
-16.5000;0.5739;1.4889;
-16.2000;0.5755;1.4982;
-15.9000;0.5747;1.5006;
-15.6000;0.5763;1.5029;
-15.3000;0.5788;1.5053;
-15.0000;0.5763;1.4936;
-14.7000;0.5747;1.4842;
-14.4000;0.5739;1.4865;
-14.1000;0.5747;1.4842;
-13.8000;0.5739;1.4936;
-13.5000;0.5739;1.4865;
-13.2000;0.5714;1.4842;
-12.9000;0.5674;1.4678;
-12.6000;0.5747;1.4748;
-12.3000;0.5739;1.4725;
-12.0000;0.5755;1.4748;
-11.7000;0.5739;1.4701;
-11.4000;0.5788;1.4654;
-11.1000;0.5788;1.4678;
-10.8000;0.5804;1.4607;
-10.5000;0.5747;1.4537;
-10.2000;0.5796;1.4654;
-9.9000;0.5755;1.4490;
-9.6000;0.5674;1.4303;
-9.3000;0.5657;1.4326;
-9.0000;0.5836;1.4842;
-8.7000;0.5755;1.4748;
-8.4000;0.5771;1.4865;
-8.1000;0.5804;1.4959;
-7.8000;0.5731;1.4865;
-7.5000;0.5812;1.5029;
-7.2000;0.5731;1.4865;
-6.9000;0.5755;1.4818;
-6.6000;0.5755;1.4959;
-6.3000;0.5755;1.4982;
-6.0000;0.5747;1.4982;
-5.7000;0.5698;1.4842;
-5.4000;0.5747;1.4982;
-5.1000;0.5804;1.5100;
-4.8000;0.5755;1.5006;
-4.5000;0.5731;1.4865;
-4.2000;0.5771;1.4936;
-3.9000;0.5714;1.4678;
-3.6000;0.5763;1.4842;
-3.3000;0.5722;1.4725;
-3.0000;0.5755;1.4865;
-2.7000;0.5739;1.4842;
-2.4000;0.5763;1.4771;
-2.1000;0.5747;1.4795;
-1.8000;0.5747;1.4795;
-1.5000;0.5739;1.4771;
-1.2000;0.5763;1.4795;
-0.9000;0.5739;1.4725;
-0.6000;0.5828;1.4842;
-0.3000;0.5934;1.5053;
0.0000;0.5934;1.5053;
0.3000;0.5836;1.4982;
0.6000;0.5926;1.5170;
0.9000;0.5991;1.5451;
1.2000;0.6032;1.5709;
1.5000;0.6105;1.6061;
1.8000;0.6162;1.6342;
2.1000;0.6195;1.6553;
2.4000;0.6243;1.6788;
2.7000;0.6252;1.6929;
3.0000;0.6276;1.7116;
3.3000;0.6292;1.7280;
3.6000;0.6284;1.7257;
3.9000;0.6317;1.7374;
4.2000;0.6325;1.7397;
4.5000;0.6341;1.7351;
4.8000;0.6333;1.7444;
5.1000;0.6357;1.7444;
5.4000;0.6333;1.7444;
5.7000;0.6382;1.7515;
6.0000;0.6398;1.7538;
6.3000;0.6390;1.7538;
6.6000;0.6414;1.7655;
6.9000;0.6357;1.7397;
7.2000;0.6406;1.7515;
7.5000;0.6447;1.7538;
7.8000;0.6431;1.7515;
8.1000;0.6414;1.7351;
8.4000;0.6447;1.7421;
8.7000;0.6431;1.7304;
9.0000;0.6447;1.7421;
9.3000;0.6439;1.7397;
9.6000;0.6463;1.7491;
9.9000;0.6431;1.7585;
10.2000;0.6471;1.7702;
10.5000;0.6520;1.7702;
10.8000;0.6471;1.7468;
11.1000;0.6463;1.7468;
11.4000;0.6479;1.7538;
11.7000;0.6488;1.7585;
12.0000;0.6479;1.7562;
12.3000;0.6504;1.7585;
12.6000;0.6488;1.7515;
12.9000;0.6496;1.7538;
13.2000;0.6504;1.7491;
13.5000;0.6553;1.7538;
13.8000;0.6536;1.7515;
14.1000;0.6520;1.7374;
14.4000;0.6602;1.7585;
14.7000;0.6504;1.7468;
15.0000;0.6520;1.7515;
15.3000;0.6569;1.7655;
15.6000;0.6520;1.7538;
15.9000;0.6536;1.7632;
16.2000;0.6512;1.7655;
16.5000;0.6520;1.7749;
16.8000;0.6536;1.7773;
17.1000;0.6593;1.7890;
17.4000;0.6528;1.7726;
17.7000;0.6536;1.7726;
18.0000;0.6528;1.7702;
18.3000;0.6545;1.7679;
18.6000;0.6545;1.7655;
18.9000;0.6545;1.7562;
19.2000;0.6561;1.7444;
19.5000;0.6553;1.7374;
19.8000;0.6545;1.7397;
20.1000;0.6553;1.7515;
20.4000;0.6553;1.7538;
20.7000;0.6561;1.7562;
21.0000;0.6528;1.7515;
21.3000;0.6545;1.7562;
21.6000;0.6553;1.7468;
21.9000;0.6561;1.7397;
22.2000;0.6585;1.7374;
22.5000;0.6585;1.7351;
22.8000;0.6561;1.7257;
23.1000;0.6553;1.7304;
23.4000;0.6577;1.7421;
23.7000;0.6561;1.7468;
24.0000;0.6561;1.7397;
24.3000;0.6561;1.7468;
24.6000;0.6569;1.7515;
24.9000;0.6561;1.7468;
25.2000;0.6561;1.7397;
25.5000;0.6561;1.7421;
25.8000;0.6569;1.7468;
26.1000;0.6602;1.7679;
26.4000;0.6577;1.7679;
26.7000;0.6561;1.7538;
27.0000;0.6561;1.7491;
27.3000;0.6626;1.7609;
27.6000;0.6577;1.7655;
27.9000;0.6569;1.7585;
28.2000;0.6585;1.7726;
28.5000;0.6585;1.7726;
28.8000;0.6577;1.7562;
29.1000;0.6585;1.7562;
29.4000;0.6561;1.7421;
29.7000;0.6585;1.7444;
30.0000;0.6585;1.7374;
30.3000;0.6561;1.7304;
30.6000;0.6577;1.7257;
30.9000;0.6585;1.7351;
31.2000;0.6626;1.7374;
31.5000;0.6561;1.7140;
31.8000;0.6577;1.7163;
32.1000;0.6577;1.7257;
32.4000;0.6528;1.7257;
32.7000;0.6602;1.7351;
33.0000;0.6585;1.7351;
33.3000;0.6577;1.7397;
33.6000;0.6561;1.7280;
33.9000;0.6577;1.7304;
34.2000;0.6602;1.7374;
34.5000;0.6642;1.7491;
34.8000;0.6610;1.7421;
35.1000;0.6618;1.7374;
35.4000;0.6618;1.7327;
35.7000;0.6610;1.7374;
36.0000;0.6593;1.7397;
36.3000;0.6585;1.7397;
36.6000;0.6602;1.7397;
36.9000;0.6593;1.7351;
37.2000;0.6585;1.7280;
37.5000;0.6602;1.7374;
37.8000;0.6642;1.7468;
38.1000;0.6618;1.7374;
38.4000;0.6593;1.7304;
38.7000;0.6553;1.7186;
39.0000;0.6593;1.7351;
39.3000;0.6610;1.7327;
39.6000;0.6602;1.7351;
39.9000;0.6593;1.7257;
40.2000;0.6610;1.7351;
40.5000;0.6626;1.7351;
40.8000;0.6610;1.7210;
41.1000;0.6610;1.7257;
41.4000;0.6593;1.7351;
41.7000;0.6618;1.7351;
42.0000;0.6593;1.7327;
42.3000;0.6593;1.7327;
42.6000;0.6602;1.7304;
42.9000;0.6602;1.7233;
43.2000;0.6610;1.7233;
43.5000;0.6593;1.7163;
43.8000;0.6618;1.7186;
44.1000;0.6699;1.7374;
44.4000;0.6618;1.7140;
44.7000;0.6585;1.7116;
45.0000;0.6593;1.7186;
45.3000;0.6602;1.7186;
45.6000;0.6602;1.7233;
45.9000;0.6610;1.7304;
46.2000;0.6585;1.7233;
46.5000;0.6602;1.7421;
46.8000;0.6602;1.7374;
47.1000;0.6610;1.7351;
47.4000;0.6593;1.7397;
47.7000;0.6602;1.7491;
48.0000;0.6602;1.7421;
48.3000;0.6593;1.7397;
48.6000;0.6577;1.7351;
48.9000;0.6610;1.7374;
49.2000;0.6659;1.7562;
49.5000;0.6585;1.7351;
49.8000;0.6610;1.7304;
50.1000;0.6602;1.7304;
50.4000;0.6561;1.7233;
50.7000;0.6610;1.7374;
51.0000;0.6569;1.7351;
51.3000;0.6626;1.7515;
51.6000;0.6602;1.7515;
51.9000;0.6602;1.7444;
52.2000;0.6593;1.7397;
52.5000;0.6610;1.7397;
52.8000;0.6602;1.7397;
53.1000;0.6602;1.7374;
53.4000;0.6618;1.7397;
53.7000;0.6602;1.7421;
54.0000;0.6585;1.7421;
54.3000;0.6659;1.7562;
54.6000;0.6602;1.7351;
54.9000;0.6593;1.7374;
55.2000;0.6561;1.7280;
55.5000;0.6602;1.7421;
55.8000;0.6602;1.7351;
56.1000;0.6602;1.7374;
56.4000;0.6593;1.7468;
56.7000;0.6593;1.7515;
57.0000;0.6610;1.7562;
57.3000;0.6585;1.7538;
57.6000;0.6602;1.7609;
57.9000;0.6610;1.7538;
58.2000;0.6642;1.7562;
58.5000;0.6602;1.7468;
58.8000;0.6593;1.7468;
59.1000;0.6626;1.7515;
59.4000;0.6610;1.7444;
59.7000;0.6504;1.7186;
60.0000;0.6602;1.7444;
60.3000;0.6585;1.7421;
60.6000;0.6626;1.7585;
60.9000;0.6585;1.7468;
61.2000;0.6659;1.7632;
61.5000;0.6602;1.7562;
61.8000;0.6618;1.7585;
62.1000;0.6618;1.7609;
62.4000;0.6593;1.7468;
62.7000;0.6602;1.7468;
63.0000;0.6642;1.7515;
63.3000;0.6602;1.7421;
63.6000;0.6610;1.7491;
63.9000;0.6650;1.7632;
64.2000;0.6602;1.7468;
64.5000;0.6496;1.7233;
64.8000;0.6602;1.7444;
65.1000;0.6593;1.7421;
65.4000;0.6626;1.7397;
65.7000;0.6618;1.7351;
66.0000;0.6610;1.7468;
66.3000;0.6618;1.7444;
66.6000;0.6593;1.7327;
66.9000;0.6610;1.7397;
67.2000;0.6634;1.7491;
67.5000;0.6610;1.7491;
67.8000;0.6626;1.7562;
68.1000;0.6634;1.7562;
68.4000;0.6593;1.7562;
68.7000;0.6610;1.7609;
69.0000;0.6585;1.7609;
69.3000;0.6602;1.7702;
69.6000;0.6699;1.7726;
69.9000;0.6610;1.7421;
70.2000;0.6561;1.7257;
70.5000;0.6610;1.7327;
70.8000;0.6626;1.7397;
71.1000;0.6626;1.7374;
71.4000;0.6610;1.7374;
71.7000;0.6626;1.7421;
72.0000;0.6610;1.7374;
72.3000;0.6610;1.7468;
72.6000;0.6667;1.7702;
72.9000;0.6602;1.7609;
73.2000;0.6626;1.7585;
73.5000;0.6602;1.7585;
73.8000;0.6618;1.7609;
74.1000;0.6602;1.7585;
74.4000;0.6585;1.7538;
74.7000;0.6610;1.7515;
75.0000;0.6618;1.7491;
75.3000;0.6610;1.7491;
75.6000;0.6626;1.7562;
75.9000;0.6602;1.7468;
76.2000;0.6585;1.7421;
76.5000;0.6593;1.7468;
76.8000;0.6610;1.7585;
77.1000;0.6634;1.7749;
77.4000;0.6618;1.7655;
77.7000;0.6618;1.7562;
78.0000;0.6618;1.7632;
78.3000;0.6610;1.7655;
78.6000;0.6602;1.7702;
78.9000;0.6610;1.7726;
79.2000;0.6593;1.7679;
79.5000;0.6602;1.7562;
79.8000;0.6496;1.7327;
80.1000;0.6610;1.7609;
80.4000;0.6626;1.7655;
80.7000;0.6618;1.7609;
81.0000;0.6602;1.7491;
81.3000;0.6618;1.7397;
81.6000;0.6585;1.7327;
81.9000;0.6618;1.7374;
82.2000;0.6602;1.7421;
82.5000;0.6618;1.7515;
82.8000;0.6585;1.7468;
83.1000;0.6593;1.7421;
83.4000;0.6602;1.7421;
83.7000;0.6602;1.7468;
84.0000;0.6593;1.7444;
84.3000;0.6561;1.7351;
84.6000;0.6577;1.7351;
84.9000;0.6610;1.7468;
85.2000;0.6593;1.7538;
85.5000;0.6642;1.7562;
85.8000;0.6512;1.7304;
86.1000;0.6577;1.7468;
86.4000;0.6593;1.7585;
86.7000;0.6602;1.7655;
87.0000;0.6593;1.7679;
87.3000;0.6618;1.7679;
87.6000;0.6618;1.7773;
87.9000;0.6634;1.7773;
88.2000;0.6610;1.7702;
88.5000;0.6691;1.7866;
88.8000;0.6602;1.7679;
89.1000;0.6650;1.7726;
89.4000;0.6626;1.7702;
89.7000;0.6602;1.7609;
90.0000;0.6610;1.7538;
90.3000;0.6618;1.7515;
90.6000;0.6642;1.7562;
90.9000;0.6593;1.7632;
91.2000;0.6593;1.7538;
91.5000;0.6577;1.7444;
91.8000;0.6618;1.7538;
92.1000;0.6545;1.7374;
92.4000;0.6610;1.7515;
92.7000;0.6602;1.7491;
93.0000;0.6602;1.7421;
93.3000;0.6585;1.7374;
93.6000;0.6634;1.7491;
93.9000;0.6593;1.7421;
94.2000;0.6593;1.7468;
94.5000;0.6602;1.7491;
94.8000;0.6593;1.7468;
95.1000;0.6602;1.7397;
95.4000;0.6610;1.7444;
95.7000;0.6626;1.7515;
96.0000;0.6602;1.7421;
96.3000;0.6610;1.7585;
96.6000;0.6626;1.7609;
96.9000;0.6618;1.7609;
97.2000;0.6585;1.7585;
97.5000;0.6610;1.7562;
97.8000;0.6626;1.7585;
98.1000;0.6585;1.7562;
98.4000;0.6683;1.7820;
98.7000;0.6610;1.7585;
99.0000;0.6618;1.7679;
99.3000;0.6610;1.7632;
99.6000;0.6610;1.7585;
99.9000;0.6610;1.7444;
100.2000;0.6650;1.7538;
100.5000;0.6618;1.7444;
100.8000;0.6626;1.7397;
101.1000;0.6602;1.7444;
101.4000;0.6561;1.7397;
101.7000;0.6593;1.7444;
102.0000;0.6618;1.7538;
102.3000;0.6626;1.7562;
102.6000;0.6577;1.7374;
102.9000;0.6569;1.7444;
103.2000;0.6602;1.7444;
103.5000;0.6585;1.7491;
103.8000;0.6618;1.7468;
104.1000;0.6650;1.7515;
104.4000;0.6610;1.7444;
104.7000;0.6618;1.7491;
105.0000;0.6602;1.7468;
105.3000;0.6569;1.7468;
105.6000;0.6610;1.7562;
105.9000;0.6634;1.7632;
106.2000;0.6691;1.7655;
106.5000;0.6675;1.7515;
106.8000;0.6585;1.7374;
107.1000;0.6626;1.7397;
107.4000;0.6536;1.7163;
107.7000;0.6634;1.7491;
108.0000;0.6577;1.7304;
108.3000;0.6626;1.7421;
108.6000;0.6618;1.7397;
108.9000;0.6577;1.7280;
109.2000;0.6610;1.7351;
109.5000;0.6610;1.7327;
109.8000;0.6618;1.7280;
110.1000;0.6610;1.7116;
110.4000;0.6618;1.7069;
110.7000;0.6593;1.7163;
111.0000;0.6634;1.7280;
111.3000;0.6618;1.7280;
111.6000;0.6602;1.7304;
111.9000;0.6585;1.7304;
112.2000;0.6634;1.7397;
112.5000;0.6683;1.7609;
112.8000;0.6602;1.7374;
113.1000;0.6610;1.7421;
113.4000;0.6602;1.7421;
113.7000;0.6626;1.7421;
114.0000;0.6618;1.7397;
114.3000;0.6610;1.7374;
114.6000;0.6626;1.7421;
114.9000;0.6626;1.7374;
115.2000;0.6577;1.7233;
115.5000;0.6610;1.7304;
115.8000;0.6626;1.7491;
116.1000;0.6626;1.7491;
116.4000;0.6610;1.7397;
116.7000;0.6610;1.7374;
117.0000;0.6602;1.7280;
117.3000;0.6602;1.7304;
117.6000;0.6618;1.7374;
117.9000;0.6602;1.7351;
118.2000;0.6593;1.7397;
118.5000;0.6602;1.7421;
118.8000;0.6618;1.7397;
119.1000;0.6642;1.7444;
119.4000;0.6610;1.7491;
119.7000;0.6610;1.7421;
120.0000;0.6618;1.7421;
120.3000;0.6618;1.7397;
120.6000;0.6593;1.7257;
120.9000;0.6593;1.7257;
121.2000;0.6610;1.7280;
121.5000;0.6610;1.7233;
121.8000;0.6610;1.7280;
122.1000;0.6585;1.7140;
122.4000;0.6610;1.7186;
122.7000;0.6610;1.7257;
123.0000;0.6618;1.7304;
123.3000;0.6593;1.7186;
123.6000;0.6602;1.7186;
123.9000;0.6602;1.7257;
124.2000;0.6536;1.7116;
124.5000;0.6618;1.7421;
124.8000;0.6577;1.7327;
125.1000;0.6748;1.7632;
125.4000;0.6610;1.7351;
125.7000;0.6618;1.7374;
126.0000;0.6593;1.7351;
126.3000;0.6602;1.7351;
126.6000;0.6618;1.7444;
126.9000;0.6618;1.7397;
127.2000;0.6626;1.7374;
127.5000;0.6593;1.7233;
127.8000;0.6626;1.7257;
128.1000;0.6610;1.7280;
128.4000;0.6610;1.7280;
128.7000;0.6618;1.7280;
129.0000;0.6610;1.7304;
129.3000;0.6610;1.7210;
129.6000;0.6545;1.7022;
129.9000;0.6650;1.7327;
130.2000;0.6626;1.7257;
130.5000;0.6650;1.7280;
130.8000;0.6569;1.7022;
131.1000;0.6602;1.7093;
131.4000;0.6561;1.7022;
131.7000;0.6650;1.7210;
132.0000;0.6593;1.7046;
132.3000;0.6610;1.7163;
132.6000;0.6634;1.7257;
132.9000;0.6691;1.7468;
133.2000;0.6602;1.7233;
133.5000;0.6602;1.7116;
133.8000;0.6602;1.7069;
134.1000;0.6610;1.7116;
134.4000;0.6618;1.7069;
134.7000;0.6593;1.7069;
135.0000;0.6593;1.7093;
135.3000;0.6593;1.7163;
135.6000;0.6642;1.7327;
135.9000;0.6618;1.7304;
136.2000;0.6602;1.7280;
136.5000;0.6602;1.7351;
136.8000;0.6585;1.7304;
137.1000;0.6602;1.7327;
137.4000;0.6610;1.7327;
137.7000;0.6602;1.7280;
138.0000;0.6618;1.7233;
138.3000;0.6626;1.7327;
138.6000;0.6610;1.7257;
138.9000;0.6610;1.7140;
139.2000;0.6602;1.7069;
139.5000;0.6610;1.7140;
139.8000;0.6602;1.7210;
140.1000;0.6602;1.7210;
140.4000;0.6602;1.7210;
140.7000;0.6602;1.7186;
141.0000;0.6593;1.7046;
141.3000;0.6610;1.7069;
141.6000;0.6618;1.6975;
141.9000;0.6593;1.6975;
142.2000;0.6642;1.7093;
142.5000;0.6626;1.7069;
142.8000;0.6610;1.7069;
143.1000;0.6626;1.7163;
143.4000;0.6561;1.7022;
143.7000;0.6618;1.7163;
144.0000;0.6602;1.7069;
144.3000;0.6602;1.7069;
144.6000;0.6602;1.7116;
144.9000;0.6610;1.7046;
145.2000;0.6528;1.6858;
145.5000;0.6593;1.6999;
145.8000;0.6626;1.7186;
146.1000;0.6593;1.7140;
146.4000;0.6561;1.7093;
146.7000;0.6626;1.7257;
147.0000;0.6618;1.7186;
147.3000;0.6610;1.7210;
147.6000;0.6569;1.7186;
147.9000;0.6618;1.7140;
148.2000;0.6610;1.7163;
148.5000;0.6610;1.7163;
148.8000;0.6618;1.7163;
149.1000;0.6691;1.7397;
149.4000;0.6593;1.7093;
149.7000;0.6618;1.7163;
150.0000;0.6602;1.7093;
150.3000;0.6577;1.7069;
150.6000;0.6610;1.7210;
150.9000;0.6593;1.7257;
151.2000;0.6602;1.7280;
151.5000;0.6610;1.7186;
151.8000;0.6610;1.7140;
152.1000;0.6593;1.7163;
152.4000;0.6602;1.7140;
152.7000;0.6585;1.7069;
153.0000;0.6593;1.6929;
153.3000;0.6602;1.6999;
153.6000;0.6561;1.6999;
153.9000;0.6593;1.7116;
154.2000;0.6585;1.7116;
154.5000;0.6610;1.7210;
154.8000;0.6675;1.7327;
155.1000;0.6610;1.7186;
155.4000;0.6602;1.7093;
155.7000;0.6593;1.7116;
156.0000;0.6602;1.7069;
156.3000;0.6618;1.7140;
156.6000;0.6593;1.7140;
156.9000;0.6675;1.7351;
157.2000;0.6602;1.7233;
157.5000;0.6618;1.7304;
157.8000;0.6561;1.7210;
158.1000;0.6585;1.7233;
158.4000;0.6610;1.7280;
158.7000;0.6610;1.7233;
159.0000;0.6585;1.7210;
159.3000;0.6585;1.7280;
159.6000;0.6602;1.7210;
159.9000;0.6593;1.7233;
160.2000;0.6667;1.7304;
160.5000;0.6602;1.7163;
160.8000;0.6602;1.7163;
161.1000;0.6610;1.7093;
161.4000;0.6626;1.7233;
161.7000;0.6520;1.7093;
162.0000;0.6610;1.7304;
162.3000;0.6593;1.7280;
162.6000;0.6610;1.7280;
162.9000;0.6602;1.7233;
163.2000;0.6610;1.7163;
163.5000;0.6618;1.7210;
163.8000;0.6724;1.7468;
164.1000;0.6602;1.7233;
164.4000;0.6610;1.7304;
164.7000;0.6593;1.7233;
165.0000;0.6667;1.7374;
165.3000;0.6602;1.7140;
165.6000;0.6593;1.7140;
165.9000;0.6561;1.6975;
166.2000;0.6610;1.7140;
166.5000;0.6610;1.7140;
166.8000;0.6593;1.7163;
167.1000;0.6561;1.6975;
167.4000;0.6602;1.7069;
167.7000;0.6593;1.7046;
168.0000;0.6602;1.7046;
168.3000;0.6577;1.6999;
168.6000;0.6593;1.7093;
168.9000;0.6602;1.7046;
169.2000;0.6650;1.7233;
169.5000;0.6610;1.7093;
169.8000;0.6593;1.7022;
170.1000;0.6618;1.7046;
170.4000;0.6602;1.7046;
170.7000;0.6610;1.7022;
171.0000;0.6618;1.7140;
171.3000;0.6585;1.7163;
171.6000;0.6602;1.7304;
171.9000;0.6602;1.7280;
172.2000;0.6602;1.7327;
172.5000;0.6618;1.7304;
172.8000;0.6602;1.7257;
173.1000;0.6650;1.7304;
173.4000;0.6618;1.7233;
173.7000;0.6618;1.7233;
174.0000;0.6610;1.7233;
174.3000;0.6634;1.7304;
174.6000;0.6602;1.7210;
174.9000;0.6602;1.7233;
175.2000;0.6610;1.7257;
175.5000;0.6602;1.7233;
175.8000;0.6602;1.7210;
176.1000;0.6618;1.7280;
176.4000;0.6602;1.7374;
176.7000;0.6602;1.7444;
177.0000;0.6626;1.7421;
177.3000;0.6602;1.7280;
177.6000;0.6610;1.7257;
177.9000;0.6577;1.7186;
178.2000;0.6593;1.7257;
178.5000;0.6602;1.7304;
178.8000;0.6610;1.7304;
179.1000;0.6618;1.7351;
179.4000;0.6610;1.7280;
179.7000;0.6618;1.7327;
180.0000;0.6602;1.7351;
180.3000;0.6618;1.7374;
180.6000;0.6593;1.7280;
180.9000;0.6610;1.7304;
181.2000;0.6610;1.7233;
181.5000;0.6610;1.7186;
181.8000;0.6610;1.7304;
182.1000;0.6520;1.7093;
182.4000;0.6602;1.7210;
182.7000;0.6602;1.7140;
183.0000;0.6593;1.7163;
183.3000;0.6593;1.7210;
183.6000;0.6585;1.7163;
183.9000;0.6593;1.7186;
184.2000;0.6626;1.7210;
184.5000;0.6618;1.7257;
184.8000;0.6585;1.7280;
185.1000;0.6602;1.7304;
185.4000;0.6602;1.7210;
185.7000;0.6585;1.7210;
186.0000;0.6602;1.7210;
186.3000;0.6618;1.7257;
186.6000;0.6569;1.7186;
186.9000;0.6593;1.7257;
187.2000;0.6610;1.7163;
187.5000;0.6593;1.7140;
187.8000;0.6602;1.7210;
188.1000;0.6577;1.7140;
188.4000;0.6593;1.7233;
188.7000;0.6626;1.7374;
189.0000;0.6577;1.7351;
189.3000;0.6593;1.7374;
189.6000;0.6626;1.7444;
189.9000;0.6610;1.7444;
190.2000;0.6618;1.7444;
190.5000;0.6602;1.7515;
190.8000;0.6602;1.7562;
191.1000;0.6618;1.7515;
191.4000;0.6602;1.7515;
191.7000;0.6602;1.7562;
192.0000;0.6618;1.7515;
192.3000;0.6602;1.7421;
192.6000;0.6577;1.7397;
192.9000;0.6585;1.7374;
193.2000;0.6593;1.7374;
193.5000;0.6569;1.7304;
193.8000;0.6602;1.7374;
194.1000;0.6545;1.7186;
194.4000;0.6561;1.7304;
194.7000;0.6610;1.7374;
195.0000;0.6602;1.7421;
195.3000;0.6553;1.7233;
195.6000;0.6569;1.7304;
195.9000;0.6602;1.7374;
196.2000;0.6602;1.7374;
196.5000;0.6593;1.7351;
196.8000;0.6602;1.7374;
197.1000;0.6602;1.7351;
197.4000;0.6618;1.7327;
197.7000;0.6626;1.7374;
198.0000;0.6593;1.7351;
198.3000;0.6602;1.7351;
198.6000;0.6659;1.7468;
198.9000;0.6585;1.7327;
199.2000;0.6561;1.7163;
199.5000;0.6536;1.7093;
199.8000;0.6577;1.7280;
200.1000;0.6577;1.7280;
200.4000;0.6593;1.7257;
200.7000;0.6593;1.7304;
201.0000;0.6602;1.7351;
201.3000;0.6626;1.7397;
201.6000;0.6642;1.7444;
201.9000;0.6610;1.7304;
202.2000;0.6610;1.7186;
202.5000;0.6520;1.6882;
202.8000;0.6577;1.7046;
203.1000;0.6593;1.7210;
203.4000;0.6593;1.7257;
203.7000;0.6593;1.7304;
204.0000;0.6569;1.7304;
204.3000;0.6585;1.7397;
204.6000;0.6577;1.7397;
204.9000;0.6610;1.7515;
205.2000;0.6585;1.7444;
205.5000;0.6610;1.7491;
205.8000;0.6577;1.7374;
206.1000;0.6593;1.7491;
206.4000;0.6593;1.7491;
206.7000;0.6593;1.7491;
207.0000;0.6585;1.7491;
207.3000;0.6602;1.7468;
207.6000;0.6593;1.7374;
207.9000;0.6593;1.7280;
208.2000;0.6585;1.7233;
208.5000;0.6585;1.7280;
208.8000;0.6610;1.7351;
209.1000;0.6593;1.7327;
209.4000;0.6585;1.7374;
209.7000;0.6577;1.7397;
210.0000;0.6593;1.7468;
210.3000;0.6602;1.7538;
210.6000;0.6610;1.7562;
210.9000;0.6618;1.7491;
211.2000;0.6610;1.7585;
211.5000;0.6593;1.7491;
211.8000;0.6585;1.7515;
212.1000;0.6593;1.7421;
212.4000;0.6610;1.7397;
212.7000;0.6610;1.7397;
213.0000;0.6593;1.7327;
213.3000;0.6602;1.7421;
213.6000;0.6699;1.7749;
213.9000;0.6593;1.7655;
214.2000;0.6585;1.7702;
214.5000;0.6610;1.7726;
214.8000;0.6593;1.7655;
215.1000;0.6610;1.7609;
215.4000;0.6553;1.7397;
215.7000;0.6585;1.7515;
216.0000;0.6618;1.7538;
216.3000;0.6536;1.7374;
216.6000;0.6602;1.7491;
216.9000;0.6593;1.7397;
217.2000;0.6593;1.7186;
217.5000;0.6593;1.7163;
217.8000;0.6593;1.7186;
218.1000;0.6593;1.7304;
218.4000;0.6577;1.7257;
218.7000;0.6585;1.7304;
219.0000;0.6610;1.7397;
219.3000;0.6610;1.7491;
219.6000;0.6602;1.7421;
219.9000;0.6618;1.7444;
220.2000;0.6618;1.7515;
220.5000;0.6545;1.7374;
220.8000;0.6610;1.7538;
221.1000;0.6610;1.7515;
221.4000;0.6593;1.7374;
221.7000;0.6593;1.7421;
222.0000;0.6577;1.7491;
222.3000;0.6569;1.7397;
222.6000;0.6610;1.7421;
222.9000;0.6618;1.7397;
223.2000;0.6602;1.7444;
223.5000;0.6699;1.7702;
223.8000;0.6618;1.7468;
224.1000;0.6618;1.7515;
224.4000;0.6602;1.7397;
224.7000;0.6577;1.7351;
225.0000;0.6602;1.7351;
225.3000;0.6569;1.7280;
225.6000;0.6545;1.7280;
225.9000;0.6593;1.7562;
226.2000;0.6585;1.7538;
226.5000;0.6650;1.7562;
226.8000;0.6602;1.7515;
227.1000;0.6610;1.7538;
227.4000;0.6593;1.7468;
227.7000;0.6610;1.7421;
228.0000;0.6593;1.7280;
228.3000;0.6602;1.7280;
228.6000;0.6593;1.7233;
228.9000;0.6593;1.7210;
229.2000;0.6602;1.7233;
229.5000;0.6610;1.7304;
229.8000;0.6585;1.7210;
230.1000;0.6593;1.7280;
230.4000;0.6585;1.7233;
230.7000;0.6650;1.7374;
231.0000;0.6602;1.7327;
231.3000;0.6602;1.7397;
231.6000;0.6577;1.7327;
231.9000;0.6602;1.7327;
232.2000;0.6593;1.7327;
232.5000;0.6593;1.7374;
232.8000;0.6650;1.7491;
233.1000;0.6610;1.7444;
233.4000;0.6593;1.7444;
233.7000;0.6585;1.7444;
234.0000;0.6585;1.7421;
234.3000;0.6593;1.7374;
234.6000;0.6610;1.7374;
234.9000;0.6602;1.7351;
235.2000;0.6602;1.7280;
235.5000;0.6577;1.7233;
235.8000;0.6593;1.7304;
236.1000;0.6602;1.7397;
236.4000;0.6585;1.7374;
236.7000;0.6602;1.7421;
237.0000;0.6610;1.7491;
237.3000;0.6618;1.7491;
237.6000;0.6626;1.7538;
237.9000;0.6610;1.7538;
238.2000;0.6593;1.7538;
238.5000;0.6585;1.7491;
238.8000;0.6626;1.7609;
239.1000;0.6626;1.7562;
239.4000;0.6593;1.7515;
239.7000;0.6610;1.7538;
240.0000;0.6602;1.7515;
240.3000;0.6626;1.7585;
240.6000;0.6593;1.7562;
240.9000;0.6593;1.7491;
241.2000;0.6667;1.7726;
241.5000;0.6610;1.7609;
241.8000;0.6602;1.7655;
242.1000;0.6593;1.7585;
242.4000;0.6585;1.7562;
242.7000;0.6602;1.7562;
243.0000;0.6593;1.7538;
243.3000;0.6610;1.7421;
243.6000;0.6610;1.7397;
243.9000;0.6610;1.7374;
244.2000;0.6585;1.7257;
244.5000;0.6593;1.7351;
244.8000;0.6593;1.7444;
245.1000;0.6602;1.7585;
245.4000;0.6602;1.7585;
245.7000;0.6585;1.7538;
246.0000;0.6602;1.7515;
246.3000;0.6618;1.7468;
246.6000;0.6610;1.7515;
246.9000;0.6577;1.7491;
247.2000;0.6536;1.7374;
247.5000;0.6618;1.7538;
247.8000;0.6593;1.7538;
248.1000;0.6593;1.7491;
248.4000;0.6585;1.7585;
248.7000;0.6626;1.7632;
249.0000;0.6634;1.7562;
249.3000;0.6618;1.7515;
249.6000;0.6585;1.7421;
249.9000;0.6667;1.7609;
250.2000;0.6545;1.7280;
250.5000;0.6593;1.7444;
250.8000;0.6626;1.7538;
251.1000;0.6585;1.7444;
251.4000;0.6585;1.7421;
251.7000;0.6585;1.7397;
252.0000;0.6585;1.7444;
252.3000;0.6585;1.7491;
252.6000;0.6602;1.7585;
252.9000;0.6618;1.7702;
253.2000;0.6602;1.7679;
253.5000;0.6593;1.7655;
253.8000;0.6650;1.7702;
254.1000;0.6569;1.7468;
254.4000;0.6593;1.7468;
254.7000;0.6724;1.7890;
255.0000;0.6553;1.7538;
255.3000;0.6593;1.7585;
255.6000;0.6602;1.7585;
255.9000;0.6634;1.7655;
256.2000;0.6577;1.7515;
256.5000;0.6553;1.7468;
256.8000;0.6593;1.7562;
257.1000;0.6585;1.7538;
257.4000;0.6593;1.7609;
257.7000;0.6707;1.7890;
258.0000;0.6585;1.7585;
258.3000;0.6626;1.7562;
258.6000;0.6602;1.7538;
258.9000;0.6618;1.7562;
259.2000;0.6626;1.7655;
259.5000;0.6602;1.7585;
259.8000;0.6610;1.7538;
260.1000;0.6577;1.7491;
260.4000;0.6618;1.7468;
260.7000;0.6585;1.7444;
261.0000;0.6610;1.7491;
261.3000;0.6585;1.7468;
261.6000;0.6585;1.7421;
261.9000;0.6618;1.7491;
262.2000;0.6602;1.7585;
262.5000;0.6585;1.7562;
262.8000;0.6593;1.7538;
263.1000;0.6610;1.7515;
263.4000;0.6553;1.7397;
263.7000;0.6593;1.7515;
264.0000;0.6585;1.7515;
264.3000;0.6593;1.7562;
264.6000;0.6659;1.7655;
264.9000;0.6602;1.7585;
265.2000;0.6585;1.7515;
265.5000;0.6602;1.7538;
265.8000;0.6593;1.7444;
266.1000;0.6585;1.7444;
266.4000;0.6610;1.7421;
266.7000;0.6593;1.7491;
267.0000;0.6610;1.7444;
267.3000;0.6577;1.7444;
267.6000;0.6593;1.7397;
267.9000;0.6602;1.7304;
268.2000;0.6610;1.7374;
268.5000;0.6585;1.7397;
268.8000;0.6610;1.7444;
269.1000;0.6610;1.7444;
269.4000;0.6610;1.7374;
269.7000;0.6610;1.7397;
270.0000;0.6593;1.7304;
270.3000;0.6667;1.7538;
270.6000;0.6618;1.7421;
270.9000;0.6602;1.7444;
271.2000;0.6602;1.7444;
271.5000;0.6602;1.7538;
271.8000;0.6585;1.7491;
272.1000;0.6593;1.7538;
272.4000;0.6585;1.7515;
272.7000;0.6593;1.7491;
273.0000;0.6593;1.7562;
273.3000;0.6610;1.7609;
273.6000;0.6585;1.7562;
273.9000;0.6610;1.7585;
274.2000;0.6602;1.7562;
274.5000;0.6610;1.7585;
274.8000;0.6618;1.7609;
275.1000;0.6602;1.7562;
275.4000;0.6585;1.7585;
275.7000;0.6610;1.7655;
276.0000;0.6602;1.7679;
276.3000;0.6593;1.7679;
276.6000;0.6618;1.7679;
276.9000;0.6593;1.7632;
277.2000;0.6602;1.7609;
277.5000;0.6602;1.7562;
277.8000;0.6553;1.7327;
278.1000;0.6610;1.7515;
278.4000;0.6602;1.7515;
278.7000;0.6593;1.7491;
279.0000;0.6585;1.7515;
279.3000;0.6585;1.7515;
279.6000;0.6634;1.7679;
279.9000;0.6585;1.7515;
280.2000;0.6577;1.7421;
280.5000;0.6593;1.7468;
280.8000;0.6553;1.7280;
281.1000;0.6593;1.7374;
281.4000;0.6593;1.7351;
281.7000;0.6650;1.7515;
282.0000;0.6593;1.7327;
282.3000;0.6602;1.7351;
282.6000;0.6618;1.7444;
282.9000;0.6610;1.7491;
283.2000;0.6618;1.7515;
283.5000;0.6618;1.7444;
283.8000;0.6602;1.7351;
284.1000;0.6545;1.7257;
284.4000;0.6610;1.7421;
284.7000;0.6610;1.7468;
285.0000;0.6602;1.7562;
285.3000;0.6593;1.7491;
285.6000;0.6602;1.7444;
285.9000;0.6593;1.7397;
286.2000;0.6602;1.7351;
286.5000;0.6610;1.7374;
286.8000;0.6610;1.7351;
287.1000;0.6610;1.7257;
287.4000;0.6536;1.7116;
287.7000;0.6593;1.7233;
288.0000;0.6602;1.7257;
288.3000;0.6585;1.7304;
288.6000;0.6585;1.7327;
288.9000;0.6593;1.7374;
289.2000;0.6496;1.7140;
289.5000;0.6585;1.7421;
289.8000;0.6593;1.7468;
290.1000;0.6618;1.7538;
290.4000;0.6593;1.7491;
290.7000;0.6618;1.7491;
291.0000;0.6610;1.7538;
291.3000;0.6602;1.7538;
291.6000;0.6593;1.7538;
291.9000;0.6602;1.7585;
292.2000;0.6593;1.7515;
292.5000;0.6593;1.7468;
292.8000;0.6602;1.7421;
293.1000;0.6593;1.7374;
293.4000;0.6593;1.7304;
293.7000;0.6585;1.7280;
294.0000;0.6610;1.7280;
294.3000;0.6536;1.7093;
294.6000;0.6585;1.7233;
294.9000;0.6610;1.7280;
295.2000;0.6602;1.7351;
295.5000;0.6593;1.7304;
295.8000;0.6585;1.7280;
296.1000;0.6659;1.7421;
296.4000;0.6593;1.7210;
296.7000;0.6585;1.7257;
297.0000;0.6585;1.7280;
297.3000;0.6618;1.7491;
297.6000;0.6610;1.7421;
297.9000;0.6610;1.7538;
298.2000;0.6585;1.7491;
298.5000;0.6602;1.7491;
298.8000;0.6463;1.7116;
299.1000;0.6602;1.7421;
299.4000;0.6602;1.7468;
299.7000;0.6585;1.7468;
300.0000;0.6593;1.7491;
300.3000;0.6650;1.7609;
300.6000;0.6585;1.7468;
300.9000;0.6585;1.7327;
301.2000;0.6593;1.7280;
301.5000;0.6585;1.7304;
301.8000;0.6642;1.7538;
302.1000;0.6585;1.7468;
302.4000;0.6593;1.7468;
302.7000;0.6593;1.7327;
303.0000;0.6610;1.7351;
303.3000;0.6577;1.7374;
303.6000;0.6569;1.7304;
303.9000;0.6602;1.7351;
304.2000;0.6618;1.7397;
304.5000;0.6593;1.7491;
304.8000;0.6593;1.7585;
305.1000;0.6593;1.7655;
305.4000;0.6577;1.7632;
305.7000;0.6593;1.7468;
306.0000;0.6593;1.7327;
306.3000;0.6593;1.7280;
306.6000;0.6593;1.7257;
306.9000;0.6602;1.7280;
307.2000;0.6618;1.7304;
307.5000;0.6585;1.7186;
307.8000;0.6610;1.7210;
308.1000;0.6585;1.7210;
308.4000;0.6602;1.7304;
308.7000;0.6610;1.7233;
309.0000;0.6602;1.7304;
309.3000;0.6593;1.7163;
309.6000;0.6593;1.7210;
309.9000;0.6569;1.7233;
310.2000;0.6602;1.7233;
310.5000;0.6577;1.7116;
310.8000;0.6593;1.7163;
311.1000;0.6577;1.7186;
311.4000;0.6577;1.7257;
311.7000;0.6593;1.7327;
312.0000;0.6593;1.7351;
312.3000;0.6553;1.7257;
312.6000;0.6577;1.7186;
312.9000;0.6585;1.7280;
313.2000;0.6602;1.7304;
313.5000;0.6593;1.7327;
313.8000;0.6585;1.7304;
314.1000;0.6512;1.7186;
314.4000;0.6602;1.7374;
314.7000;0.6618;1.7491;
315.0000;0.6593;1.7233;
315.3000;0.6618;1.7444;
315.6000;0.6593;1.7468;
315.9000;0.6593;1.7515;
316.2000;0.6593;1.7515;
316.5000;0.6585;1.7468;
316.8000;0.6593;1.7609;
317.1000;0.6577;1.7538;
317.4000;0.6602;1.7538;
317.7000;0.6618;1.7515;
318.0000;0.6593;1.7468;
318.3000;0.6593;1.7538;
318.6000;0.6593;1.7468;
318.9000;0.6618;1.7421;
319.2000;0.6585;1.7210;
319.5000;0.6585;1.7327;
319.8000;0.6593;1.7421;
320.1000;0.6610;1.7468;
320.4000;0.6585;1.7515;
320.7000;0.6659;1.7609;
321.0000;0.6610;1.7491;
321.3000;0.6585;1.7444;
321.6000;0.6577;1.7515;
321.9000;0.6610;1.7515;
322.2000;0.6593;1.7444;
322.5000;0.6585;1.7397;
322.8000;0.6593;1.7280;
323.1000;0.6561;1.7186;
323.4000;0.6602;1.7327;
323.7000;0.6585;1.7351;
324.0000;0.6593;1.7397;
324.3000;0.6577;1.7374;
324.6000;0.6675;1.7655;
324.9000;0.6561;1.7421;
325.2000;0.6610;1.7609;
325.5000;0.6602;1.7609;
325.8000;0.6585;1.7562;
326.1000;0.6610;1.7515;
326.4000;0.6593;1.7491;
326.7000;0.6593;1.7538;
327.0000;0.6602;1.7515;
327.3000;0.6577;1.7444;
327.6000;0.6618;1.7444;
327.9000;0.6610;1.7421;
328.2000;0.6536;1.7374;
328.5000;0.6585;1.7491;
328.8000;0.6618;1.7444;
329.1000;0.6593;1.7421;
329.4000;0.6618;1.7491;
329.7000;0.6602;1.7421;
330.0000;0.6593;1.7468;
330.3000;0.6602;1.7444;
330.6000;0.6618;1.7468;
330.9000;0.6610;1.7397;
331.2000;0.6593;1.7327;
331.5000;0.6585;1.7327;
331.8000;0.6577;1.7327;
332.1000;0.6536;1.7257;
332.4000;0.6593;1.7374;
332.7000;0.6593;1.7374;
333.0000;0.6585;1.7280;
333.3000;0.6593;1.7374;
333.6000;0.6602;1.7397;
333.9000;0.6618;1.7421;
334.2000;0.6585;1.7257;
334.5000;0.6602;1.7257;
334.8000;0.6593;1.7327;
335.1000;0.6659;1.7585;
335.4000;0.6618;1.7609;
335.7000;0.6585;1.7515;
336.0000;0.6569;1.7374;
336.3000;0.6569;1.7444;
336.6000;0.6585;1.7491;
336.9000;0.6618;1.7632;
337.2000;0.6634;1.7679;
337.5000;0.6577;1.7609;
337.8000;0.6602;1.7655;
338.1000;0.6667;1.7773;
338.4000;0.6593;1.7562;
338.7000;0.6602;1.7562;
339.0000;0.6593;1.7468;
339.3000;0.6610;1.7444;
339.6000;0.6585;1.7280;
339.9000;0.6569;1.7304;
340.2000;0.6585;1.7444;
340.5000;0.6602;1.7421;
340.8000;0.6577;1.7397;
341.1000;0.6585;1.7397;
341.4000;0.6593;1.7444;
341.7000;0.6610;1.7468;
342.0000;0.6561;1.7351;
342.3000;0.6569;1.7351;
342.6000;0.6602;1.7444;
342.9000;0.6593;1.7421;
343.2000;0.6593;1.7351;
343.5000;0.6602;1.7421;
343.8000;0.6593;1.7491;
344.1000;0.6585;1.7421;
344.4000;0.6610;1.7562;
344.7000;0.6585;1.7585;
345.0000;0.6569;1.7538;
345.3000;0.6610;1.7609;
345.6000;0.6618;1.7679;
345.9000;0.6585;1.7679;
346.2000;0.6618;1.7726;
346.5000;0.6610;1.7679;
346.8000;0.6610;1.7702;
347.1000;0.6610;1.7585;
347.4000;0.6585;1.7515;
347.7000;0.6593;1.7562;
348.0000;0.6618;1.7632;
348.3000;0.6602;1.7679;
348.6000;0.6610;1.7679;
348.9000;0.6610;1.7609;
349.2000;0.6569;1.7585;
349.5000;0.6618;1.7632;
349.8000;0.6602;1.7538;
350.1000;0.6593;1.7515;
350.4000;0.6593;1.7515;
350.7000;0.6602;1.7585;
351.0000;0.6602;1.7632;
351.3000;0.6602;1.7609;
351.6000;0.6602;1.7562;
351.9000;0.6602;1.7585;
352.2000;0.6610;1.7491;
352.5000;0.6610;1.7515;
352.8000;0.6593;1.7444;
353.1000;0.6593;1.7491;
353.4000;0.6602;1.7515;
353.7000;0.6602;1.7562;
354.0000;0.6585;1.7515;
354.3000;0.6602;1.7515;
354.6000;0.6618;1.7585;
354.9000;0.6593;1.7562;
355.2000;0.6585;1.7585;
355.5000;0.6602;1.7585;
355.8000;0.6618;1.7585;
356.1000;0.6602;1.7515;
356.4000;0.6577;1.7421;
356.7000;0.6610;1.7444;
357.0000;0.6593;1.7421;
357.3000;0.6732;1.7796;
357.6000;0.6585;1.7468;
357.9000;0.6585;1.7444;
358.2000;0.6577;1.7515;
358.5000;0.6577;1.7468;
358.8000;0.6585;1.7468;
359.1000;0.6602;1.7468;
359.4000;0.6536;1.7374;
359.7000;0.6569;1.7444;
360.0000;0.6585;1.7351;
360.3000;0.6585;1.7257;
360.6000;0.6585;1.7163;
360.9000;0.6585;1.7186;
361.2000;0.6634;1.7351;
361.5000;0.6593;1.7351;
361.8000;0.6593;1.7374;
362.1000;0.6593;1.7444;
362.4000;0.6593;1.7468;
362.7000;0.6585;1.7421;
363.0000;0.6585;1.7397;
363.3000;0.6585;1.7444;
363.6000;0.6561;1.7397;
363.9000;0.6585;1.7468;
364.2000;0.6593;1.7421;
364.5000;0.6626;1.7468;
364.8000;0.6577;1.7327;
365.1000;0.6593;1.7327;
365.4000;0.6569;1.7280;
365.7000;0.6561;1.7186;
366.0000;0.6585;1.7304;
366.3000;0.6585;1.7280;
366.6000;0.6528;1.7069;
366.9000;0.6545;1.7022;
367.2000;0.6593;1.7186;
367.5000;0.6610;1.7233;
367.8000;0.6585;1.7351;
368.1000;0.6585;1.7397;
368.4000;0.6593;1.7515;
368.7000;0.6593;1.7655;
369.0000;0.6593;1.7655;
369.3000;0.6577;1.7585;
369.6000;0.6593;1.7444;
369.9000;0.6553;1.7327;
370.2000;0.6585;1.7351;
370.5000;0.6602;1.7304;
370.8000;0.6585;1.7351;
371.1000;0.6577;1.7468;
371.4000;0.6593;1.7538;
371.7000;0.6610;1.7491;
372.0000;0.6585;1.7397;
372.3000;0.6602;1.7491;
372.6000;0.6593;1.7562;
372.9000;0.6593;1.7562;
373.2000;0.6610;1.7655;
373.5000;0.6593;1.7609;
373.8000;0.6512;1.7468;
374.1000;0.6536;1.7468;
374.4000;0.6593;1.7562;
374.7000;0.6545;1.7421;
375.0000;0.6593;1.7538;
375.3000;0.6593;1.7491;
375.6000;0.6561;1.7327;
375.9000;0.6593;1.7327;
376.2000;0.6618;1.7351;
376.5000;0.6553;1.7210;
376.8000;0.6593;1.7280;
377.1000;0.6602;1.7374;
377.4000;0.6610;1.7327;
377.7000;0.6593;1.7374;
378.0000;0.6577;1.7327;
378.3000;0.6585;1.7304;
378.6000;0.6585;1.7304;
378.9000;0.6610;1.7374;
379.2000;0.6593;1.7421;
379.5000;0.6569;1.7397;
379.8000;0.6585;1.7397;
380.1000;0.6585;1.7538;
380.4000;0.6585;1.7515;
380.7000;0.6593;1.7491;
381.0000;0.6593;1.7468;
381.3000;0.6626;1.7562;
381.6000;0.6602;1.7538;
381.9000;0.6593;1.7515;
382.2000;0.6642;1.7585;
382.5000;0.6593;1.7397;
382.8000;0.6577;1.7374;
383.1000;0.6585;1.7351;
383.4000;0.6569;1.7421;
383.7000;0.6569;1.7468;
384.0000;0.6593;1.7538;
384.3000;0.6602;1.7491;
384.6000;0.6569;1.7444;
384.9000;0.6593;1.7562;
385.2000;0.6569;1.7468;
385.5000;0.6593;1.7562;
385.8000;0.6585;1.7491;
386.1000;0.6577;1.7491;
386.4000;0.6585;1.7562;
386.7000;0.6593;1.7491;
387.0000;0.6618;1.7538;
387.3000;0.6585;1.7515;
387.6000;0.6585;1.7491;
387.9000;0.6593;1.7515;
388.2000;0.6479;1.7210;
388.5000;0.6585;1.7491;
388.8000;0.6585;1.7444;
389.1000;0.6593;1.7468;
389.4000;0.6610;1.7444;
389.7000;0.6602;1.7444;
390.0000;0.6593;1.7444;
390.3000;0.6569;1.7374;
390.6000;0.6585;1.7444;
390.9000;0.6577;1.7491;
391.2000;0.6585;1.7468;
391.5000;0.6634;1.7679;
391.8000;0.6585;1.7655;
392.1000;0.6577;1.7679;
392.4000;0.6569;1.7655;
392.7000;0.6553;1.7632;
393.0000;0.6585;1.7679;
393.3000;0.6585;1.7702;
393.6000;0.6577;1.7655;
393.9000;0.6585;1.7702;
394.2000;0.6593;1.7655;
394.5000;0.6602;1.7609;
394.8000;0.6585;1.7609;
395.1000;0.6585;1.7585;
395.4000;0.6577;1.7609;
395.7000;0.6593;1.7585;
396.0000;0.6585;1.7632;
396.3000;0.6577;1.7632;
396.6000;0.6585;1.7585;
396.9000;0.6593;1.7585;
397.2000;0.6618;1.7538;
397.5000;0.6602;1.7468;
397.8000;0.6545;1.7444;
398.1000;0.6577;1.7515;
398.4000;0.6569;1.7585;
398.7000;0.6585;1.7585;
399.0000;0.6569;1.7585;
399.3000;0.6593;1.7538;
399.6000;0.6577;1.7538;
399.9000;0.6602;1.7538;
400.2000;0.6577;1.7538;
400.5000;0.6593;1.7538;
400.8000;0.6593;1.7491;
401.1000;0.6593;1.7632;
401.4000;0.6577;1.7562;
401.7000;0.6585;1.7444;
402.0000;0.6593;1.7397;
402.3000;0.6585;1.7468;
402.6000;0.6569;1.7397;
402.9000;0.6536;1.7280;
403.2000;0.6569;1.7374;
403.5000;0.6585;1.7421;
403.8000;0.6585;1.7351;
404.1000;0.6561;1.7280;
404.4000;0.6626;1.7491;
404.7000;0.6602;1.7491;
405.0000;0.6545;1.7351;
405.3000;0.6593;1.7397;
405.6000;0.6577;1.7421;
405.9000;0.6577;1.7468;
406.2000;0.6618;1.7538;
406.5000;0.6610;1.7515;
406.8000;0.6593;1.7468;
407.1000;0.6610;1.7491;
407.4000;0.6585;1.7374;
407.7000;0.6577;1.7468;
408.0000;0.6577;1.7444;
408.3000;0.6577;1.7421;
408.6000;0.6618;1.7491;
408.9000;0.6585;1.7491;
409.2000;0.6585;1.7444;
409.5000;0.6569;1.7421;
409.8000;0.6602;1.7444;
410.1000;0.6593;1.7327;
410.4000;0.6593;1.7444;
410.7000;0.6569;1.7304;
411.0000;0.6610;1.7397;
411.3000;0.6512;1.7304;
411.6000;0.6585;1.7468;
411.9000;0.6585;1.7444;
412.2000;0.6593;1.7468;
412.5000;0.6610;1.7538;
412.8000;0.6545;1.7444;
413.1000;0.6577;1.7515;
413.4000;0.6504;1.7280;
413.7000;0.6650;1.7655;
414.0000;0.6618;1.7538;
414.3000;0.6463;1.7280;
414.6000;0.6561;1.7585;
414.9000;0.6642;1.7913;
415.2000;0.6585;1.7679;
415.5000;0.6593;1.7632;
415.8000;0.6667;1.7913;
416.1000;0.6585;1.7726;
416.4000;0.6610;1.7702;
416.7000;0.6569;1.7515;
417.0000;0.6585;1.7585;
417.3000;0.6561;1.7515;
417.6000;0.6618;1.7585;
417.9000;0.6577;1.7515;
418.2000;0.6593;1.7655;
418.5000;0.6610;1.7749;
418.8000;0.6545;1.7609;
419.1000;0.6593;1.7726;
419.4000;0.6585;1.7679;
419.7000;0.6585;1.7655;
420.0000;0.6618;1.7820;
420.3000;0.6577;1.7702;
420.6000;0.6602;1.7702;
420.9000;0.6602;1.7702;
421.2000;0.6577;1.7609;
421.5000;0.6593;1.7562;
421.8000;0.6602;1.7585;
422.1000;0.6610;1.7585;
422.4000;0.6585;1.7609;
422.7000;0.6561;1.7515;
423.0000;0.6593;1.7491;
423.3000;0.6585;1.7491;
423.6000;0.6577;1.7491;
423.9000;0.6593;1.7632;
424.2000;0.6593;1.7538;
424.5000;0.6577;1.7491;
424.8000;0.6561;1.7397;
425.1000;0.6585;1.7491;
425.4000;0.6610;1.7585;
425.7000;0.6602;1.7585;
426.0000;0.6585;1.7515;
426.3000;0.6569;1.7468;
426.6000;0.6577;1.7515;
426.9000;0.6585;1.7585;
427.2000;0.6504;1.7304;
427.5000;0.6593;1.7538;
427.8000;0.6707;1.7796;
428.1000;0.6585;1.7468;
428.4000;0.6593;1.7491;
428.7000;0.6577;1.7538;
429.0000;0.6569;1.7585;
429.3000;0.6602;1.7585;
429.6000;0.6585;1.7585;
429.9000;0.6561;1.7585;
430.2000;0.6585;1.7538;
430.5000;0.6593;1.7468;
430.8000;0.6585;1.7562;
431.1000;0.6577;1.7585;
431.4000;0.6561;1.7538;
431.7000;0.6593;1.7702;
432.0000;0.6585;1.7585;
432.3000;0.6504;1.7327;
432.6000;0.6585;1.7515;
432.9000;0.6593;1.7562;
433.2000;0.6593;1.7609;
433.5000;0.6659;1.7749;
433.8000;0.6577;1.7538;
434.1000;0.6585;1.7515;
434.4000;0.6545;1.7374;
434.7000;0.6602;1.7538;
435.0000;0.6553;1.7468;
435.3000;0.6610;1.7609;
435.6000;0.6569;1.7491;
435.9000;0.6593;1.7515;
436.2000;0.6553;1.7491;
436.5000;0.6593;1.7562;
436.8000;0.6569;1.7515;
437.1000;0.6602;1.7609;
437.4000;0.6561;1.7538;
437.7000;0.6667;1.7820;
438.0000;0.6602;1.7538;
438.3000;0.6569;1.7421;
438.6000;0.6569;1.7374;
438.9000;0.6585;1.7491;
439.2000;0.6569;1.7515;
439.5000;0.6561;1.7515;
439.8000;0.6577;1.7468;
440.1000;0.6561;1.7468;
440.4000;0.6561;1.7538;
440.7000;0.6585;1.7515;
441.0000;0.6585;1.7585;
441.3000;0.6577;1.7515;
441.6000;0.6569;1.7515;
441.9000;0.6593;1.7515;
442.2000;0.6618;1.7491;
442.5000;0.6593;1.7491;
442.8000;0.6593;1.7538;
443.1000;0.6585;1.7538;
443.4000;0.6602;1.7585;
443.7000;0.6610;1.7585;
444.0000;0.6593;1.7562;
444.3000;0.6593;1.7609;
444.6000;0.6585;1.7585;
444.9000;0.6585;1.7632;
445.2000;0.6569;1.7491;
445.5000;0.6585;1.7491;
445.8000;0.6585;1.7397;
446.1000;0.6585;1.7397;
446.4000;0.6593;1.7444;
446.7000;0.6577;1.7444;
447.0000;0.6585;1.7444;
447.3000;0.6593;1.7468;
447.6000;0.6593;1.7491;
447.9000;0.6626;1.7585;
448.2000;0.6585;1.7468;
448.5000;0.6593;1.7397;
448.8000;0.6593;1.7468;
449.1000;0.6602;1.7421;
449.4000;0.6585;1.7397;
449.7000;0.6593;1.7491;
450.0000;0.6610;1.7491;
450.3000;0.6585;1.7421;
450.6000;0.6585;1.7374;
450.9000;0.6602;1.7397;
451.2000;0.6528;1.7304;
451.5000;0.6618;1.7491;
451.8000;0.6585;1.7397;
452.1000;0.6577;1.7397;
452.4000;0.6577;1.7327;
452.7000;0.6585;1.7351;
453.0000;0.6569;1.7374;
453.3000;0.6545;1.7421;
453.6000;0.6577;1.7655;
453.9000;0.6602;1.7679;
454.2000;0.6585;1.7585;
454.5000;0.6634;1.7585;
454.8000;0.6610;1.7444;
455.1000;0.6577;1.7397;
455.4000;0.6602;1.7374;
455.7000;0.6602;1.7374;
456.0000;0.6602;1.7397;
456.3000;0.6528;1.7233;
456.6000;0.6610;1.7280;
456.9000;0.6585;1.7186;
457.2000;0.6577;1.7116;
457.5000;0.6577;1.7140;
457.8000;0.6488;1.6975;
458.1000;0.6577;1.7210;
458.4000;0.6585;1.7257;
458.7000;0.6520;1.7140;
459.0000;0.6577;1.7374;
459.3000;0.6602;1.7397;
459.6000;0.6520;1.7257;
459.9000;0.6577;1.7327;
460.2000;0.6602;1.7327;
460.5000;0.6602;1.7351;
460.8000;0.6585;1.7351;
461.1000;0.6610;1.7444;
461.4000;0.6593;1.7421;
461.7000;0.6593;1.7374;
462.0000;0.6585;1.7280;
462.3000;0.6577;1.7280;
462.6000;0.6577;1.7327;
462.9000;0.6577;1.7397;
463.2000;0.6569;1.7468;
463.5000;0.6577;1.7468;
463.8000;0.6602;1.7444;
464.1000;0.6602;1.7468;
464.4000;0.6593;1.7304;
464.7000;0.6561;1.7163;
465.0000;0.6569;1.7233;
465.3000;0.6577;1.7186;
465.6000;0.6585;1.7140;
465.9000;0.6585;1.7210;
466.2000;0.6642;1.7351;
466.5000;0.6577;1.7233;
466.8000;0.6626;1.7304;
467.1000;0.6585;1.7233;
467.4000;0.6577;1.7233;
467.7000;0.6561;1.7257;
468.0000;0.6585;1.7327;
468.3000;0.6553;1.7233;
468.6000;0.6593;1.7280;
468.9000;0.6618;1.7327;
469.2000;0.6618;1.7397;
469.5000;0.6585;1.7327;
469.8000;0.6561;1.7186;
470.1000;0.6602;1.7280;
470.4000;0.6626;1.7233;
470.7000;0.6577;1.7186;
471.0000;0.6577;1.7233;
471.3000;0.6577;1.7210;
471.6000;0.6577;1.7116;
471.9000;0.6593;1.7186;
472.2000;0.6545;1.7069;
472.5000;0.6577;1.7210;
472.8000;0.6553;1.7163;
473.1000;0.6585;1.7210;
473.4000;0.6569;1.7210;
473.7000;0.6585;1.7186;
474.0000;0.6659;1.7280;
474.3000;0.6691;1.7421;
474.6000;0.6593;1.7116;
474.9000;0.6593;1.7140;
475.2000;0.6585;1.7233;
475.5000;0.6577;1.7304;
475.8000;0.6618;1.7421;
476.1000;0.6602;1.7491;
476.4000;0.6577;1.7468;
476.7000;0.6577;1.7491;
477.0000;0.6545;1.7327;
477.3000;0.6577;1.7468;
477.6000;0.6577;1.7397;
477.9000;0.6642;1.7468;
478.2000;0.6585;1.7351;
478.5000;0.6626;1.7468;
478.8000;0.6577;1.7351;
479.1000;0.6593;1.7421;
479.4000;0.6585;1.7444;
479.7000;0.6585;1.7304;
480.0000;0.6602;1.7374;
480.3000;0.6553;1.7257;
480.6000;0.6602;1.7421;
480.9000;0.6585;1.7444;
481.2000;0.6577;1.7468;
481.5000;0.6569;1.7444;
481.8000;0.6602;1.7515;
482.1000;0.6569;1.7444;
482.4000;0.6593;1.7491;
482.7000;0.6585;1.7374;
483.0000;0.6602;1.7351;
483.3000;0.6593;1.7280;
483.6000;0.6610;1.7351;
483.9000;0.6585;1.7257;
484.2000;0.6602;1.7304;
484.5000;0.6585;1.7304;
484.8000;0.6577;1.7280;
485.1000;0.6585;1.7257;
485.4000;0.6585;1.7304;
485.7000;0.6602;1.7351;
486.0000;0.6593;1.7351;
486.3000;0.6577;1.7327;
486.6000;0.6569;1.7304;
486.9000;0.6577;1.7257;
487.2000;0.6593;1.7374;
487.5000;0.6569;1.7280;
487.8000;0.6577;1.7257;
488.1000;0.6577;1.7327;
488.4000;0.6593;1.7374;
488.7000;0.6634;1.7609;
489.0000;0.6585;1.7538;
489.3000;0.6577;1.7468;
489.6000;0.6569;1.7421;
489.9000;0.6585;1.7468;
490.2000;0.6577;1.7421;
490.5000;0.6577;1.7374;
490.8000;0.6593;1.7397;
491.1000;0.6593;1.7374;
491.4000;0.6593;1.7397;
491.7000;0.6610;1.7397;
492.0000;0.6577;1.7304;
492.3000;0.6520;1.7280;
492.6000;0.6585;1.7468;
492.9000;0.6577;1.7444;
493.2000;0.6577;1.7374;
493.5000;0.6593;1.7351;
493.8000;0.6602;1.7397;
494.1000;0.6577;1.7374;
494.4000;0.6593;1.7374;
494.7000;0.6577;1.7444;
495.0000;0.6561;1.7397;
495.3000;0.6593;1.7444;
495.6000;0.6569;1.7397;
495.9000;0.6577;1.7327;
496.2000;0.6569;1.7304;
496.5000;0.6602;1.7304;
496.8000;0.6569;1.7233;
497.1000;0.6577;1.7210;
497.4000;0.6569;1.7210;
497.7000;0.6593;1.7374;
498.0000;0.6585;1.7351;
498.3000;0.6577;1.7257;
498.6000;0.6569;1.7257;
498.9000;0.6585;1.7351;
499.2000;0.6577;1.7397;
499.5000;0.6569;1.7374;
499.8000;0.6569;1.7421;
500.1000;0.6553;1.7351;
500.4000;0.6577;1.7351;
500.7000;0.6561;1.7280;
501.0000;0.6577;1.7186;
501.3000;0.6577;1.7093;
501.6000;0.6577;1.7116;
501.9000;0.6585;1.7140;
502.2000;0.6569;1.7140;
502.5000;0.6569;1.7163;
502.8000;0.6561;1.7116;
503.1000;0.6561;1.7233;
503.4000;0.6569;1.7210;
503.7000;0.6561;1.7093;
504.0000;0.6569;1.7140;
504.3000;0.6577;1.7163;
504.6000;0.6520;1.7022;
504.9000;0.6577;1.7163;
505.2000;0.6553;1.7163;
505.5000;0.6585;1.7257;
505.8000;0.6577;1.7210;
506.1000;0.6593;1.7257;
506.4000;0.6577;1.7304;
506.7000;0.6602;1.7327;
507.0000;0.6585;1.7257;
507.3000;0.6585;1.7186;
507.6000;0.6602;1.7351;
507.9000;0.6585;1.7444;
508.2000;0.6585;1.7468;
508.5000;0.6602;1.7444;
508.8000;0.6577;1.7351;
509.1000;0.6593;1.7351;
509.4000;0.6593;1.7374;
509.7000;0.6585;1.7468;
510.0000;0.6577;1.7444;
510.3000;0.6602;1.7444;
510.6000;0.6602;1.7304;
510.9000;0.6561;1.7186;
511.2000;0.6610;1.7327;
511.5000;0.6585;1.7327;
511.8000;0.6577;1.7397;
512.1000;0.6593;1.7491;
512.4000;0.6569;1.7468;
512.7000;0.6577;1.7468;
513.0000;0.6602;1.7562;
513.3000;0.6569;1.7468;
513.6000;0.6577;1.7515;
513.9000;0.6569;1.7491;
514.2000;0.6577;1.7491;
514.5000;0.6593;1.7538;
514.8000;0.6536;1.7468;
515.1000;0.6561;1.7515;
515.4000;0.6569;1.7468;
515.7000;0.6561;1.7421;
516.0000;0.6569;1.7491;
516.3000;0.6512;1.7351;
516.6000;0.6569;1.7562;
516.9000;0.6626;1.7632;
517.2000;0.6577;1.7491;
517.5000;0.6561;1.7515;
517.8000;0.6577;1.7562;
518.1000;0.6569;1.7562;
518.4000;0.6602;1.7632;
518.7000;0.6593;1.7515;
519.0000;0.6577;1.7397;
519.3000;0.6585;1.7421;
519.6000;0.6569;1.7351;
519.9000;0.6593;1.7468;
520.2000;0.6561;1.7538;
520.5000;0.6553;1.7562;
520.8000;0.6585;1.7515;
521.1000;0.6561;1.7468;
521.4000;0.6585;1.7538;
521.7000;0.6569;1.7468;
522.0000;0.6577;1.7515;
522.3000;0.6504;1.7304;
522.6000;0.6593;1.7538;
522.9000;0.6553;1.7515;
523.2000;0.6561;1.7515;
523.5000;0.6496;1.7351;
523.8000;0.6577;1.7538;
524.1000;0.6561;1.7491;
524.4000;0.6618;1.7468;
524.7000;0.6561;1.7351;
525.0000;0.6585;1.7397;
525.3000;0.6569;1.7397;
525.6000;0.6569;1.7468;
525.9000;0.6585;1.7538;
526.2000;0.6561;1.7421;
526.5000;0.6577;1.7538;
526.8000;0.6561;1.7421;
527.1000;0.6561;1.7421;
527.4000;0.6585;1.7515;
527.7000;0.6602;1.7515;
528.0000;0.6577;1.7421;
528.3000;0.6585;1.7374;
528.6000;0.6585;1.7444;
528.9000;0.6577;1.7397;
529.2000;0.6577;1.7397;
529.5000;0.6602;1.7491;
529.8000;0.6585;1.7491;
530.1000;0.6593;1.7491;
530.4000;0.6569;1.7515;
530.7000;0.6593;1.7538;
531.0000;0.6577;1.7444;
531.3000;0.6569;1.7444;
531.6000;0.6561;1.7397;
531.9000;0.6585;1.7444;
532.2000;0.6593;1.7444;
532.5000;0.6593;1.7374;
532.8000;0.6569;1.7327;
533.1000;0.6577;1.7351;
533.4000;0.6577;1.7397;
533.7000;0.6520;1.7210;
534.0000;0.6569;1.7374;
534.3000;0.6585;1.7444;
534.6000;0.6577;1.7444;
534.9000;0.6577;1.7444;
535.2000;0.6585;1.7491;
535.5000;0.6569;1.7491;
535.8000;0.6553;1.7515;
536.1000;0.6569;1.7491;
536.4000;0.6569;1.7468;
536.7000;0.6650;1.7655;
537.0000;0.6602;1.7585;
537.3000;0.6585;1.7468;
537.6000;0.6602;1.7421;
537.9000;0.6577;1.7327;
538.2000;0.6561;1.7163;
538.5000;0.6577;1.7280;
538.8000;0.6593;1.7444;
539.1000;0.6577;1.7444;
539.4000;0.6561;1.7421;
539.7000;0.6569;1.7397;
540.0000;0.6561;1.7374;
540.3000;0.6699;1.7773;
540.6000;0.6577;1.7491;
540.9000;0.6561;1.7374;
541.2000;0.6553;1.7374;
541.5000;0.6561;1.7397;
541.8000;0.6561;1.7351;
542.1000;0.6545;1.7444;
542.4000;0.6569;1.7374;
542.7000;0.6569;1.7444;
543.0000;0.6577;1.7468;
543.3000;0.6593;1.7444;
543.6000;0.6577;1.7397;
543.9000;0.6553;1.7351;
544.2000;0.6577;1.7468;
544.5000;0.6593;1.7397;
544.8000;0.6569;1.7374;
545.1000;0.6585;1.7374;
545.4000;0.6512;1.7280;
545.7000;0.6569;1.7538;
546.0000;0.6561;1.7468;
546.3000;0.6634;1.7726;
546.6000;0.6585;1.7538;
546.9000;0.6593;1.7585;
547.2000;0.6577;1.7538;
547.5000;0.6577;1.7468;
547.8000;0.6585;1.7491;
548.1000;0.6577;1.7515;
548.4000;0.6626;1.7585;
548.7000;0.6561;1.7444;
549.0000;0.6577;1.7397;
549.3000;0.6577;1.7397;
549.6000;0.6593;1.7374;
549.9000;0.6536;1.7257;
550.2000;0.6577;1.7257;
550.5000;0.6569;1.7304;
550.8000;0.6585;1.7351;
551.1000;0.6463;1.7046;
551.4000;0.6577;1.7374;
551.7000;0.6634;1.7491;
552.0000;0.6577;1.7421;
552.3000;0.6561;1.7491;
552.6000;0.6561;1.7327;
552.9000;0.6577;1.7233;
553.2000;0.6659;1.7444;
553.5000;0.6536;1.7116;
553.8000;0.6577;1.7140;
554.1000;0.6545;1.7116;
554.4000;0.6593;1.7233;
554.7000;0.6561;1.7116;
555.0000;0.6577;1.7140;
555.3000;0.6585;1.7257;
555.6000;0.6577;1.7351;
555.9000;0.6585;1.7397;
556.2000;0.6553;1.7421;
556.5000;0.6618;1.7515;
556.8000;0.6569;1.7468;
557.1000;0.6569;1.7397;
557.4000;0.6561;1.7397;
557.7000;0.6553;1.7327;
558.0000;0.6577;1.7374;
558.3000;0.6585;1.7421;
558.6000;0.6577;1.7444;
558.9000;0.6569;1.7444;
559.2000;0.6593;1.7468;
559.5000;0.6577;1.7468;
559.8000;0.6593;1.7538;
560.1000;0.6585;1.7515;
560.4000;0.6585;1.7491;
560.7000;0.6553;1.7374;
561.0000;0.6528;1.7210;
561.3000;0.6602;1.7304;
561.6000;0.6561;1.7163;
561.9000;0.6479;1.7022;
562.2000;0.6577;1.7280;
562.5000;0.6561;1.7351;
562.8000;0.6577;1.7421;
563.1000;0.6569;1.7397;
563.4000;0.6585;1.7491;
563.7000;0.6577;1.7468;
564.0000;0.6569;1.7444;
564.3000;0.6577;1.7468;
564.6000;0.6569;1.7444;
564.9000;0.6569;1.7515;
565.2000;0.6577;1.7538;
565.5000;0.6577;1.7609;
565.8000;0.6593;1.7726;
566.1000;0.6577;1.7679;
566.4000;0.6553;1.7655;
566.7000;0.6561;1.7632;
567.0000;0.6496;1.7421;
567.3000;0.6536;1.7585;
567.6000;0.6561;1.7491;
567.9000;0.6577;1.7538;
568.2000;0.6569;1.7491;
568.5000;0.6577;1.7491;
568.8000;0.6569;1.7374;
569.1000;0.6577;1.7304;
569.4000;0.6602;1.7351;
569.7000;0.6569;1.7257;
570.0000;0.6577;1.7327;
570.3000;0.6577;1.7327;
570.6000;0.6569;1.7374;
570.9000;0.6585;1.7468;
571.2000;0.6602;1.7397;
571.5000;0.6593;1.7421;
571.8000;0.6585;1.7351;
572.1000;0.6577;1.7374;
572.4000;0.6602;1.7515;
572.7000;0.6536;1.7327;
573.0000;0.6593;1.7491;
573.3000;0.6569;1.7491;
573.6000;0.6585;1.7538;
573.9000;0.6577;1.7468;
574.2000;0.6569;1.7421;
574.5000;0.6561;1.7327;
574.8000;0.6561;1.7304;
575.1000;0.6569;1.7210;
575.4000;0.6553;1.7280;
575.7000;0.6561;1.7304;
576.0000;0.6585;1.7374;
576.3000;0.6577;1.7327;
576.6000;0.6528;1.7351;
576.9000;0.6585;1.7562;
577.2000;0.6569;1.7585;
577.5000;0.6569;1.7468;
577.8000;0.6577;1.7397;
578.1000;0.6569;1.7351;
578.4000;0.6553;1.7374;
578.7000;0.6577;1.7351;
579.0000;0.6569;1.7304;
579.3000;0.6593;1.7351;
579.6000;0.6585;1.7280;
579.9000;0.6602;1.7304;
580.2000;0.6618;1.7327;
580.5000;0.6585;1.7233;
580.8000;0.6593;1.7233;
581.1000;0.6569;1.7233;
581.4000;0.6585;1.7186;
581.7000;0.6610;1.7304;
582.0000;0.6610;1.7397;
582.3000;0.6569;1.7421;
582.6000;0.6585;1.7515;
582.9000;0.6610;1.7538;
583.2000;0.6561;1.7327;
583.5000;0.6528;1.7186;
583.8000;0.6545;1.7257;
584.1000;0.6577;1.7374;
584.4000;0.6569;1.7397;
584.7000;0.6577;1.7468;
585.0000;0.6650;1.7609;
585.3000;0.6520;1.7233;
585.6000;0.6634;1.7468;
585.9000;0.6569;1.7374;
586.2000;0.6561;1.7374;
586.5000;0.6634;1.7562;
586.8000;0.6569;1.7515;
587.1000;0.6545;1.7515;
587.4000;0.6577;1.7538;
587.7000;0.6569;1.7491;
588.0000;0.6569;1.7562;
588.3000;0.6585;1.7585;
588.6000;0.6618;1.7655;
588.9000;0.6561;1.7421;
589.2000;0.6585;1.7421;
589.5000;0.6561;1.7397;
589.8000;0.6561;1.7421;
590.1000;0.6569;1.7515;
590.4000;0.6569;1.7562;
590.7000;0.6569;1.7515;
591.0000;0.6577;1.7468;
591.3000;0.6569;1.7468;
591.6000;0.6634;1.7609;
591.9000;0.6545;1.7444;
592.2000;0.6545;1.7468;
592.5000;0.6577;1.7609;
592.8000;0.6561;1.7585;
593.1000;0.6569;1.7632;
593.4000;0.6593;1.7632;
593.7000;0.6569;1.7562;
594.0000;0.6585;1.7632;
594.3000;0.6569;1.7609;
594.6000;0.6553;1.7538;
594.9000;0.6650;1.7749;
595.2000;0.6650;1.7702;
595.5000;0.6642;1.7632;
595.8000;0.6569;1.7491;
596.1000;0.6569;1.7444;
596.4000;0.6577;1.7468;
596.7000;0.6569;1.7515;
597.0000;0.6593;1.7515;
597.3000;0.6585;1.7421;
597.6000;0.6561;1.7374;
597.9000;0.6585;1.7397;
598.2000;0.6585;1.7421;
598.5000;0.6569;1.7491;
598.8000;0.6585;1.7515;
599.1000;0.6577;1.7444;
599.4000;0.6585;1.7468;
599.7000;0.6667;1.7679;
600.0000;0.6569;1.7374;
600.3000;0.6569;1.7257;
600.6000;0.6569;1.7163;
600.9000;0.6569;1.6952;
601.2000;0.6512;1.6788;
601.5000;0.6471;1.6624;
601.8000;0.6431;1.6483;
602.1000;0.6390;1.6342;
602.4000;0.6374;1.6155;
602.7000;0.6325;1.5991;
603.0000;0.6162;1.5592;
603.3000;0.6227;1.5616;
603.6000;0.6178;1.5428;
603.9000;0.6121;1.5287;
604.2000;0.6089;1.5123;
604.5000;0.6048;1.5123;
604.8000;0.6015;1.4959;
605.1000;0.5983;1.4795;
605.4000;0.5950;1.4771;
605.7000;0.5910;1.4748;
606.0000;0.5893;1.4795;
606.3000;0.5836;1.4678;
606.6000;0.5820;1.4631;
606.9000;0.5820;1.4701;
607.2000;0.5698;1.4349;
607.5000;0.5788;1.4584;
607.8000;0.5722;1.4396;
608.1000;0.5722;1.4396;
608.4000;0.5682;1.4303;
608.7000;0.5665;1.4326;
609.0000;0.5657;1.4443;
609.3000;0.5625;1.4396;
609.6000;0.5608;1.4326;
609.9000;0.5608;1.4420;
610.2000;0.5560;1.4279;
610.5000;0.5511;1.4185;
610.8000;0.5560;1.4326;
611.1000;0.5495;1.4185;
611.4000;0.5478;1.4162;
611.7000;0.5454;1.4138;
612.0000;0.5462;1.4209;
612.3000;0.5429;1.4138;
612.6000;0.5413;1.4209;
612.9000;0.5397;1.4209;
613.2000;0.5372;1.4303;
613.5000;0.5381;1.4232;
613.8000;0.5356;1.4209;
614.1000;0.5332;1.4138;
614.4000;0.5315;1.4115;
614.7000;0.5315;1.4045;
615.0000;0.5299;1.3974;
615.3000;0.5291;1.4045;
615.6000;0.5275;1.4162;
615.9000;0.5258;1.4021;
616.2000;0.5275;1.4115;
616.5000;0.5226;1.4068;
616.8000;0.5234;1.3998;
617.1000;0.5193;1.3927;
617.4000;0.5210;1.3880;
617.7000;0.5185;1.3880;
618.0000;0.5169;1.3810;
618.3000;0.5185;1.3904;
618.6000;0.5096;1.3716;
618.9000;0.5128;1.3810;
619.2000;0.5112;1.3810;
619.5000;0.5120;1.3857;
619.8000;0.5079;1.3834;
620.1000;0.5104;1.3880;
620.4000;0.5022;1.3740;
620.7000;0.5039;1.3716;
621.0000;0.5088;1.3787;
621.3000;0.5047;1.3740;
621.6000;0.5039;1.3646;
621.9000;0.5039;1.3646;
622.2000;0.5022;1.3599;
622.5000;0.5014;1.3669;
622.8000;0.4990;1.3669;
623.1000;0.4998;1.3669;
623.4000;0.4990;1.3623;
623.7000;0.4990;1.3599;
624.0000;0.4949;1.3599;
624.3000;0.4965;1.3623;
624.6000;0.4941;1.3693;
624.9000;0.4941;1.3693;
625.2000;0.4941;1.3716;
625.5000;0.4884;1.3623;
625.8000;0.4917;1.3623;
626.1000;0.4892;1.3599;
626.4000;0.4892;1.3693;
626.7000;0.5031;1.4068;
627.0000;0.4949;1.3951;
627.3000;0.4884;1.3787;
627.6000;0.4851;1.3693;
627.9000;0.4884;1.3787;
628.2000;0.4843;1.3716;
628.5000;0.4860;1.3787;
628.8000;0.4851;1.3857;
629.1000;0.4827;1.3740;
629.4000;0.4827;1.3763;
629.7000;0.4835;1.3740;
630.0000;0.4827;1.3740;
630.3000;0.4827;1.3669;
630.6000;0.4819;1.3529;
630.9000;0.4794;1.3482;
631.2000;0.4737;1.3482;
631.5000;0.4794;1.3529;
631.8000;0.4786;1.3482;
632.1000;0.4786;1.3458;
632.4000;0.4794;1.3458;
632.7000;0.4811;1.3552;
633.0000;0.4762;1.3482;
633.3000;0.4746;1.3482;
633.6000;0.4746;1.3482;
633.9000;0.4762;1.3505;
634.2000;0.4737;1.3482;
634.5000;0.4737;1.3552;
634.8000;0.4721;1.3623;
635.1000;0.4754;1.3646;
635.4000;0.4729;1.3576;
635.7000;0.4697;1.3529;
636.0000;0.4713;1.3529;
636.3000;0.4705;1.3529;
636.6000;0.4705;1.3552;
636.9000;0.4697;1.3552;
637.2000;0.4664;1.3576;
637.5000;0.4689;1.3576;
637.8000;0.4681;1.3529;
638.1000;0.4664;1.3576;
638.4000;0.4648;1.3576;
638.7000;0.4640;1.3740;
639.0000;0.4656;1.3810;
639.3000;0.4656;1.3834;
639.6000;0.4648;1.3810;
639.9000;0.4648;1.3834;
640.2000;0.4640;1.3810;
640.5000;0.4632;1.3810;
640.8000;0.4656;1.3834;
641.1000;0.4632;1.3810;
641.4000;0.4664;1.3763;
641.7000;0.4640;1.3599;
642.0000;0.4632;1.3576;
642.3000;0.4737;1.3904;
642.6000;0.4615;1.3576;
642.9000;0.4599;1.3552;
643.2000;0.4607;1.3599;
643.5000;0.4607;1.3529;
643.8000;0.4567;1.3599;
644.1000;0.4607;1.3669;
644.4000;0.4648;1.3763;
644.7000;0.4599;1.3646;
645.0000;0.4607;1.3623;
645.3000;0.4591;1.3599;
645.6000;0.4567;1.3552;
645.9000;0.4583;1.3599;
646.2000;0.4591;1.3623;
646.5000;0.4583;1.3599;
646.8000;0.4583;1.3623;
647.1000;0.4591;1.3599;
647.4000;0.4591;1.3552;
647.7000;0.4607;1.3529;
648.0000;0.4575;1.3388;
648.3000;0.4567;1.3388;
648.6000;0.4591;1.3365;
648.9000;0.4550;1.3318;
649.2000;0.4567;1.3388;
649.5000;0.4542;1.3365;
649.8000;0.4534;1.3435;
650.1000;0.4607;1.3552;
650.4000;0.4542;1.3412;
650.7000;0.4550;1.3482;
651.0000;0.4558;1.3505;
651.3000;0.4534;1.3505;
651.6000;0.4534;1.3412;
651.9000;0.4526;1.3482;
652.2000;0.4518;1.3458;
652.5000;0.4501;1.3388;
652.8000;0.4526;1.3482;
653.1000;0.4477;1.3365;
653.4000;0.4510;1.3529;
653.7000;0.4510;1.3623;
654.0000;0.4510;1.3669;
654.3000;0.4477;1.3646;
654.6000;0.4501;1.3669;
654.9000;0.4510;1.3740;
655.2000;0.4485;1.3623;
655.5000;0.4493;1.3552;
655.8000;0.4477;1.3529;
656.1000;0.4485;1.3482;
656.4000;0.4493;1.3435;
656.7000;0.4526;1.3576;
657.0000;0.4477;1.3505;
657.3000;0.4534;1.3693;
657.6000;0.4469;1.3623;
657.9000;0.4469;1.3646;
658.2000;0.4453;1.3693;
658.5000;0.4461;1.3787;
658.8000;0.4469;1.3740;
659.1000;0.4469;1.3646;
659.4000;0.4469;1.3693;
659.7000;0.4461;1.3646;
660.0000;0.4461;1.3646;
660.3000;0.4453;1.3646;
660.6000;0.4461;1.3693;
660.9000;0.4436;1.3623;
661.2000;0.4469;1.3646;
661.5000;0.4444;1.3552;
661.8000;0.4428;1.3505;
662.1000;0.4461;1.3505;
662.4000;0.4387;1.3318;
662.7000;0.4461;1.3576;
663.0000;0.4461;1.3623;
663.3000;0.4493;1.3716;
663.6000;0.4428;1.3576;
663.9000;0.4444;1.3716;
664.2000;0.4436;1.3716;
664.5000;0.4428;1.3576;
664.8000;0.4428;1.3623;
665.1000;0.4436;1.3646;
665.4000;0.4314;1.3294;
665.7000;0.4428;1.3552;
666.0000;0.4428;1.3552;
666.3000;0.4428;1.3599;
666.6000;0.4428;1.3576;
666.9000;0.4387;1.3482;
667.2000;0.4420;1.3599;
667.5000;0.4412;1.3623;
667.8000;0.4428;1.3716;
668.1000;0.4412;1.3646;
668.4000;0.4477;1.3810;
668.7000;0.4396;1.3599;
669.0000;0.4420;1.3646;
669.3000;0.4396;1.3458;
669.6000;0.4387;1.3435;
669.9000;0.4404;1.3365;
670.2000;0.4387;1.3341;
670.5000;0.4420;1.3529;
670.8000;0.4396;1.3435;
671.1000;0.4387;1.3271;
671.4000;0.4387;1.3201;
671.7000;0.4412;1.3247;
672.0000;0.4387;1.3247;
672.3000;0.4396;1.3201;
672.6000;0.4387;1.3224;
672.9000;0.4396;1.3318;
673.2000;0.4379;1.3388;
673.5000;0.4477;1.3740;
673.8000;0.4404;1.3576;
674.1000;0.4387;1.3599;
674.4000;0.4387;1.3552;
674.7000;0.4363;1.3552;
675.0000;0.4485;1.3857;
675.3000;0.4363;1.3599;
675.6000;0.4379;1.3646;
675.9000;0.4355;1.3693;
676.2000;0.4322;1.3669;
676.5000;0.4371;1.3763;
676.8000;0.4363;1.3693;
677.1000;0.4371;1.3716;
677.4000;0.4387;1.3740;
677.7000;0.4363;1.3716;
678.0000;0.4347;1.3763;
678.3000;0.4314;1.3576;
678.6000;0.4355;1.3693;
678.9000;0.4339;1.3599;
679.2000;0.4379;1.3669;
679.5000;0.4330;1.3529;
679.8000;0.4314;1.3599;
680.1000;0.4355;1.3740;
680.4000;0.4363;1.3646;
680.7000;0.4339;1.3552;
681.0000;0.4339;1.3623;
681.3000;0.4330;1.3552;
681.6000;0.4347;1.3529;
681.9000;0.4371;1.3576;
682.2000;0.4355;1.3529;
682.5000;0.4355;1.3599;
682.8000;0.4347;1.3623;
683.1000;0.4355;1.3646;
683.4000;0.4347;1.3623;
683.7000;0.4330;1.3740;
684.0000;0.4347;1.3810;
684.3000;0.4347;1.3787;
684.6000;0.4347;1.3740;
684.9000;0.4339;1.3740;
685.2000;0.4274;1.3552;
685.5000;0.4339;1.3623;
685.8000;0.4339;1.3623;
686.1000;0.4339;1.3646;
686.4000;0.4347;1.3669;
686.7000;0.4322;1.3576;
687.0000;0.4314;1.3576;
687.3000;0.4330;1.3623;
687.6000;0.4339;1.3576;
687.9000;0.4339;1.3693;
688.2000;0.4330;1.3693;
688.5000;0.4330;1.3693;
688.8000;0.4330;1.3576;
689.1000;0.4339;1.3458;
689.4000;0.4314;1.3318;
689.7000;0.4322;1.3529;
690.0000;0.4298;1.3505;
690.3000;0.4306;1.3482;
690.6000;0.4314;1.3435;
690.9000;0.4306;1.3388;
691.2000;0.4298;1.3458;
691.5000;0.4290;1.3505;
691.8000;0.4306;1.3529;
692.1000;0.4339;1.3599;
692.4000;0.4322;1.3599;
692.7000;0.4322;1.3599;
693.0000;0.4306;1.3623;
693.3000;0.4314;1.3529;
693.6000;0.4306;1.3505;
693.9000;0.4298;1.3435;
694.2000;0.4322;1.3529;
694.5000;0.4322;1.3552;
694.8000;0.4322;1.3482;
695.1000;0.4347;1.3552;
695.4000;0.4306;1.3435;
695.7000;0.4306;1.3482;
696.0000;0.4274;1.3388;
696.3000;0.4306;1.3552;
696.6000;0.4330;1.3669;
696.9000;0.4306;1.3529;
697.2000;0.4298;1.3388;
697.5000;0.4306;1.3412;
697.8000;0.4265;1.3458;
698.1000;0.4282;1.3552;
698.4000;0.4290;1.3576;
698.7000;0.4322;1.3623;
699.0000;0.4347;1.3693;
699.3000;0.4298;1.3669;
699.6000;0.4290;1.3646;
699.9000;0.4314;1.3693;
700.2000;0.4306;1.3787;
700.5000;0.4306;1.3716;
700.8000;0.4274;1.3693;
701.1000;0.4330;1.3763;
701.4000;0.4274;1.3552;
701.7000;0.4282;1.3576;
702.0000;0.4241;1.3552;
702.3000;0.4314;1.3669;
702.6000;0.4249;1.3552;
702.9000;0.4241;1.3623;
703.2000;0.4282;1.3740;
703.5000;0.4274;1.3623;
703.8000;0.4330;1.3787;
704.1000;0.4265;1.3552;
704.4000;0.4274;1.3576;
704.7000;0.4274;1.3552;
705.0000;0.4274;1.3552;
705.3000;0.4298;1.3576;
705.6000;0.4257;1.3458;
705.9000;0.4274;1.3458;
706.2000;0.4265;1.3412;
706.5000;0.4282;1.3482;
706.8000;0.4274;1.3458;
707.1000;0.4257;1.3412;
707.4000;0.4274;1.3458;
707.7000;0.4290;1.3435;
708.0000;0.4265;1.3435;
708.3000;0.4257;1.3435;
708.6000;0.4257;1.3458;
708.9000;0.4265;1.3458;
709.2000;0.4249;1.3458;
709.5000;0.4282;1.3529;
709.8000;0.4265;1.3529;
710.1000;0.4274;1.3529;
710.4000;0.4265;1.3482;
710.7000;0.4274;1.3529;
711.0000;0.4274;1.3552;
711.3000;0.4298;1.3505;
711.6000;0.4233;1.3388;
711.9000;0.4290;1.3458;
712.2000;0.4257;1.3412;
712.5000;0.4274;1.3482;
712.8000;0.4257;1.3482;
713.1000;0.4306;1.3669;
713.4000;0.4257;1.3623;
713.7000;0.4265;1.3693;
714.0000;0.4274;1.3716;
714.3000;0.4249;1.3646;
714.6000;0.4257;1.3623;
714.9000;0.4249;1.3529;
715.2000;0.4257;1.3552;
715.5000;0.4282;1.3669;
715.8000;0.4249;1.3623;
716.1000;0.4249;1.3623;
716.4000;0.4274;1.3669;
716.7000;0.4274;1.3646;
717.0000;0.4257;1.3623;
717.3000;0.4249;1.3646;
717.6000;0.4192;1.3505;
717.9000;0.4265;1.3787;
718.2000;0.4274;1.3880;
718.5000;0.4233;1.3810;
718.8000;0.4257;1.3834;
719.1000;0.4257;1.3834;
719.4000;0.4249;1.3834;
719.7000;0.4257;1.3834;
720.0000;0.4249;1.3787;
720.3000;0.4241;1.3834;
720.6000;0.4249;1.3834;
720.9000;0.4257;1.3857;
721.2000;0.4241;1.3740;
721.5000;0.4265;1.3810;
721.8000;0.4282;1.3904;
722.1000;0.4290;1.3974;
722.4000;0.4257;1.3834;
722.7000;0.4225;1.3834;
723.0000;0.4274;1.3904;
723.3000;0.4241;1.3787;
723.6000;0.4249;1.3857;
723.9000;0.4249;1.3880;
724.2000;0.4249;1.3834;
724.5000;0.4257;1.3810;
724.8000;0.4306;1.3951;
725.1000;0.4249;1.3763;
725.4000;0.4274;1.3787;
725.7000;0.4265;1.3646;
726.0000;0.4241;1.3599;
726.3000;0.4217;1.3505;
726.6000;0.4217;1.3529;
726.9000;0.4257;1.3599;
727.2000;0.4241;1.3623;
727.5000;0.4217;1.3623;
727.8000;0.4160;1.3435;
728.1000;0.4233;1.3669;
728.4000;0.4208;1.3669;
728.7000;0.4257;1.3787;
729.0000;0.4225;1.3693;
729.3000;0.4225;1.3552;
729.6000;0.4233;1.3529;
729.9000;0.4233;1.3529;
730.2000;0.4217;1.3623;
730.5000;0.4225;1.3599;
730.8000;0.4233;1.3623;
731.1000;0.4257;1.3599;
731.4000;0.4257;1.3599;
731.7000;0.4241;1.3576;
732.0000;0.4241;1.3552;
732.3000;0.4257;1.3529;
732.6000;0.4233;1.3529;
732.9000;0.4233;1.3529;
733.2000;0.4241;1.3505;
733.5000;0.4257;1.3458;
733.8000;0.4217;1.3365;
734.1000;0.4241;1.3388;
734.4000;0.4208;1.3294;
734.7000;0.4200;1.3318;
735.0000;0.4225;1.3435;
735.3000;0.4241;1.3529;
735.6000;0.4233;1.3576;
735.9000;0.4233;1.3599;
736.2000;0.4176;1.3458;
736.5000;0.4225;1.3623;
736.8000;0.4233;1.3623;
737.1000;0.4249;1.3716;
737.4000;0.4225;1.3693;
737.7000;0.4217;1.3646;
738.0000;0.4208;1.3623;
738.3000;0.4241;1.3693;
738.6000;0.4249;1.3669;
738.9000;0.4241;1.3646;
739.2000;0.4241;1.3623;
739.5000;0.4200;1.3552;
739.8000;0.4233;1.3576;
740.1000;0.4200;1.3458;
740.4000;0.4265;1.3576;
740.7000;0.4233;1.3529;
741.0000;0.4241;1.3576;
741.3000;0.4217;1.3529;
741.6000;0.4225;1.3576;
741.9000;0.4225;1.3599;
742.2000;0.4217;1.3623;
742.5000;0.4217;1.3646;
742.8000;0.4233;1.3599;
743.1000;0.4265;1.3576;
743.4000;0.4225;1.3599;
743.7000;0.4233;1.3669;
744.0000;0.4282;1.3787;
744.3000;0.4217;1.3599;
744.6000;0.4233;1.3693;
744.9000;0.4217;1.3646;
745.2000;0.4233;1.3693;
745.5000;0.4200;1.3599;
745.8000;0.4233;1.3646;
746.1000;0.4257;1.3693;
746.4000;0.4233;1.3576;
746.7000;0.4217;1.3576;
747.0000;0.4249;1.3623;
747.3000;0.4225;1.3552;
747.6000;0.4233;1.3646;
747.9000;0.4217;1.3482;
748.2000;0.4200;1.3412;
748.5000;0.4225;1.3505;
748.8000;0.4241;1.3552;
749.1000;0.4168;1.3482;
749.4000;0.4176;1.3505;
749.7000;0.4225;1.3623;
750.0000;0.4233;1.3669;
750.3000;0.4208;1.3552;
750.6000;0.4265;1.3623;
750.9000;0.4200;1.3552;
751.2000;0.4217;1.3505;
751.5000;0.4225;1.3599;
751.8000;0.4208;1.3529;
752.1000;0.4257;1.3669;
752.4000;0.4160;1.3458;
752.7000;0.4192;1.3623;
753.0000;0.4208;1.3623;
753.3000;0.4217;1.3646;
753.6000;0.4208;1.3576;
753.9000;0.4208;1.3576;
754.2000;0.4208;1.3669;
754.5000;0.4233;1.3669;
754.8000;0.4225;1.3623;
755.1000;0.4217;1.3763;
755.4000;0.4200;1.3599;
755.7000;0.4217;1.3482;
756.0000;0.4208;1.3505;
756.3000;0.4208;1.3623;
756.6000;0.4217;1.3669;
756.9000;0.4184;1.3505;
757.2000;0.4241;1.3646;
757.5000;0.4257;1.3740;
757.8000;0.4217;1.3716;
758.1000;0.4208;1.3716;
758.4000;0.4225;1.3740;
758.7000;0.4200;1.3599;
759.0000;0.4225;1.3693;
759.3000;0.4119;1.3435;
759.6000;0.4200;1.3646;
759.9000;0.4200;1.3740;
760.2000;0.4249;1.3904;
760.5000;0.4225;1.3880;
760.8000;0.4176;1.3763;
761.1000;0.4184;1.3740;
761.4000;0.4208;1.3669;
761.7000;0.4217;1.3669;
762.0000;0.4192;1.3669;
762.3000;0.4200;1.3716;
762.6000;0.4192;1.3740;
762.9000;0.4208;1.3646;
763.2000;0.4208;1.3552;
763.5000;0.4233;1.3552;
763.8000;0.4217;1.3435;
764.1000;0.4208;1.3458;
764.4000;0.4208;1.3529;
764.7000;0.4217;1.3646;
765.0000;0.4217;1.3646;
765.3000;0.4233;1.3599;
765.6000;0.4200;1.3576;
765.9000;0.4225;1.3482;
766.2000;0.4233;1.3388;
766.5000;0.4225;1.3458;
766.8000;0.4217;1.3435;
767.1000;0.4200;1.3435;
767.4000;0.4208;1.3482;
767.7000;0.4200;1.3458;
768.0000;0.4217;1.3599;
768.3000;0.4200;1.3599;
768.6000;0.4225;1.3623;
768.9000;0.4217;1.3623;
769.2000;0.4217;1.3623;
769.5000;0.4217;1.3576;
769.8000;0.4208;1.3529;
770.1000;0.4192;1.3388;
770.4000;0.4225;1.3435;
770.7000;0.4225;1.3412;
771.0000;0.4225;1.3388;
771.3000;0.4176;1.3201;
771.6000;0.4217;1.3271;
771.9000;0.4200;1.3271;
772.2000;0.4208;1.3341;
772.5000;0.4168;1.3318;
772.8000;0.4200;1.3458;
773.1000;0.4143;1.3318;
773.4000;0.4192;1.3552;
773.7000;0.4192;1.3458;
774.0000;0.4184;1.3435;
774.3000;0.4168;1.3341;
774.6000;0.4208;1.3412;
774.9000;0.4200;1.3458;
775.2000;0.4208;1.3552;
775.5000;0.4184;1.3505;
775.8000;0.4192;1.3529;
776.1000;0.4143;1.3412;
776.4000;0.4225;1.3458;
776.7000;0.4200;1.3435;
777.0000;0.4208;1.3458;
777.3000;0.4200;1.3388;
777.6000;0.4192;1.3341;
777.9000;0.4200;1.3388;
778.2000;0.4184;1.3412;
778.5000;0.4192;1.3458;
778.8000;0.4200;1.3505;
779.1000;0.4200;1.3529;
779.4000;0.4135;1.3458;
779.7000;0.4208;1.3623;
780.0000;0.4200;1.3646;
780.3000;0.4208;1.3646;
780.6000;0.4208;1.3599;
780.9000;0.4217;1.3529;
781.2000;0.4233;1.3529;
781.5000;0.4176;1.3271;
781.8000;0.4208;1.3435;
782.1000;0.4200;1.3482;
782.4000;0.4184;1.3505;
782.7000;0.4192;1.3646;
783.0000;0.4192;1.3810;
783.3000;0.4184;1.3834;
783.6000;0.4233;1.3857;
783.9000;0.4200;1.3834;
784.2000;0.4184;1.3740;
784.5000;0.4184;1.3669;
784.8000;0.4208;1.3529;
785.1000;0.4192;1.3623;
785.4000;0.4192;1.3576;
785.7000;0.4200;1.3576;
786.0000;0.4192;1.3552;
786.3000;0.4184;1.3505;
786.6000;0.4217;1.3599;
786.9000;0.4192;1.3716;
787.2000;0.4184;1.3716;
787.5000;0.4192;1.3740;
787.8000;0.4200;1.3693;
788.1000;0.4176;1.3552;
788.4000;0.4184;1.3552;
788.7000;0.4192;1.3646;
789.0000;0.4200;1.3599;
789.3000;0.4192;1.3505;
789.6000;0.4192;1.3365;
789.9000;0.4192;1.3388;
790.2000;0.4208;1.3435;
790.5000;0.4184;1.3458;
790.8000;0.4184;1.3412;
791.1000;0.4200;1.3388;
791.4000;0.4208;1.3388;
791.7000;0.4208;1.3341;
792.0000;0.4168;1.3294;
792.3000;0.4200;1.3365;
792.6000;0.4160;1.3247;
792.9000;0.4200;1.3247;
793.2000;0.4208;1.3294;
793.5000;0.4208;1.3318;
793.8000;0.4217;1.3435;
794.1000;0.4086;1.3130;
794.4000;0.4168;1.3365;
794.7000;0.4160;1.3412;
795.0000;0.4176;1.3365;
795.3000;0.4217;1.3458;
795.6000;0.4298;1.3716;
795.9000;0.4192;1.3388;
796.2000;0.4200;1.3482;
796.5000;0.4111;1.3435;
796.8000;0.4168;1.3576;
797.1000;0.4184;1.3576;
797.4000;0.4184;1.3505;
797.7000;0.4168;1.3482;
798.0000;0.4192;1.3576;
798.3000;0.4176;1.3599;
798.6000;0.4200;1.3669;
798.9000;0.4192;1.3623;
799.2000;0.4265;1.3763;
799.5000;0.4176;1.3529;
799.8000;0.4184;1.3552;
800.1000;0.4184;1.3552;
800.4000;0.4208;1.3482;
800.7000;0.4241;1.3529;
801.0000;0.4143;1.3388;
801.3000;0.4200;1.3505;
801.6000;0.4200;1.3529;
801.9000;0.4200;1.3552;
802.2000;0.4184;1.3458;
802.5000;0.4192;1.3435;
802.8000;0.4192;1.3435;
803.1000;0.4176;1.3412;
803.4000;0.4151;1.3341;
803.7000;0.4168;1.3458;
804.0000;0.4208;1.3669;
804.3000;0.4184;1.3599;
804.6000;0.4208;1.3623;
804.9000;0.4192;1.3599;
805.2000;0.4160;1.3576;
805.5000;0.4127;1.3552;
805.8000;0.4176;1.3787;
806.1000;0.4208;1.3904;
806.4000;0.4184;1.3740;
806.7000;0.4208;1.3834;
807.0000;0.4160;1.3646;
807.3000;0.4184;1.3763;
807.6000;0.4143;1.3693;
807.9000;0.4184;1.3763;
808.2000;0.4184;1.3880;
808.5000;0.4184;1.3904;
808.8000;0.4151;1.3834;
809.1000;0.4176;1.3927;
809.4000;0.4168;1.3857;
809.7000;0.4184;1.3787;
810.0000;0.4192;1.3834;
810.3000;0.4160;1.3810;
810.6000;0.4143;1.3716;
810.9000;0.4176;1.3716;
811.2000;0.4160;1.3716;
811.5000;0.4135;1.3646;
811.8000;0.4184;1.3623;
812.1000;0.4184;1.3529;
812.4000;0.4192;1.3552;
812.7000;0.4184;1.3505;
813.0000;0.4176;1.3552;
813.3000;0.4176;1.3529;
813.6000;0.4192;1.3505;
813.9000;0.4176;1.3458;
814.2000;0.4184;1.3412;
814.5000;0.4168;1.3365;
814.8000;0.4184;1.3341;
815.1000;0.4143;1.3224;
815.4000;0.4200;1.3388;
815.7000;0.4200;1.3271;
816.0000;0.4151;1.3177;
816.3000;0.4168;1.3224;
816.6000;0.4200;1.3435;
816.9000;0.4184;1.3529;
817.2000;0.4217;1.3576;
817.5000;0.4192;1.3412;
817.8000;0.4176;1.3365;
818.1000;0.4135;1.3365;
818.4000;0.4168;1.3435;
818.7000;0.4160;1.3365;
819.0000;0.4176;1.3529;
819.3000;0.4168;1.3505;
819.6000;0.4184;1.3458;
819.9000;0.4176;1.3552;
820.2000;0.4200;1.3576;
820.5000;0.4176;1.3576;
820.8000;0.4176;1.3576;
821.1000;0.4249;1.3740;
821.4000;0.4176;1.3646;
821.7000;0.4127;1.3552;
822.0000;0.4151;1.3552;
822.3000;0.4192;1.3693;
822.6000;0.4208;1.3646;
822.9000;0.4160;1.3388;
823.2000;0.4184;1.3458;
823.5000;0.4176;1.3482;
823.8000;0.4184;1.3435;
824.1000;0.4160;1.3388;
824.4000;0.4176;1.3529;
824.7000;0.4176;1.3529;
825.0000;0.4184;1.3576;
825.3000;0.4160;1.3505;
825.6000;0.4176;1.3552;
825.9000;0.4176;1.3646;
826.2000;0.4184;1.3669;
826.5000;0.4168;1.3552;
826.8000;0.4168;1.3505;
827.1000;0.4111;1.3482;
827.4000;0.4168;1.3669;
827.7000;0.4184;1.3669;
828.0000;0.4168;1.3552;
828.3000;0.4168;1.3552;
828.6000;0.4176;1.3529;
828.9000;0.4184;1.3693;
829.2000;0.4168;1.3646;
829.5000;0.4192;1.3716;
829.8000;0.4176;1.3740;
830.1000;0.4168;1.3857;
830.4000;0.4176;1.3810;
830.7000;0.4184;1.3834;
831.0000;0.4176;1.3904;
831.3000;0.4168;1.3834;
831.6000;0.4160;1.3834;
831.9000;0.4176;1.3857;
832.2000;0.4168;1.3904;
832.5000;0.4192;1.3834;
832.8000;0.4160;1.3669;
833.1000;0.4176;1.3646;
833.4000;0.4168;1.3552;
833.7000;0.4176;1.3576;
834.0000;0.4184;1.3669;
834.3000;0.4184;1.3669;
834.6000;0.4151;1.3669;
834.9000;0.4176;1.3669;
835.2000;0.4160;1.3716;
835.5000;0.4176;1.3763;
835.8000;0.4184;1.3763;
836.1000;0.4176;1.3834;
836.4000;0.4192;1.3880;
836.7000;0.4176;1.3834;
837.0000;0.4168;1.3857;
837.3000;0.4184;1.3880;
837.6000;0.4135;1.3810;
837.9000;0.4168;1.3834;
838.2000;0.4176;1.3904;
838.5000;0.4151;1.3904;
838.8000;0.4168;1.3857;
839.1000;0.4160;1.3810;
839.4000;0.4208;1.3927;
839.7000;0.4176;1.3927;
840.0000;0.4176;1.3951;
840.3000;0.4176;1.3880;
840.6000;0.4168;1.3834;
840.9000;0.4192;1.3857;
841.2000;0.4192;1.3904;
841.5000;0.4192;1.3880;
841.8000;0.4184;1.3810;
842.1000;0.4192;1.3904;
842.4000;0.4151;1.3857;
842.7000;0.4168;1.3880;
843.0000;0.4241;1.3974;
843.3000;0.4168;1.3787;
843.6000;0.4143;1.3740;
843.9000;0.4160;1.3716;
844.2000;0.4176;1.3646;
844.5000;0.4168;1.3576;
844.8000;0.4168;1.3576;
845.1000;0.4168;1.3646;
845.4000;0.4160;1.3693;
845.7000;0.4151;1.3646;
846.0000;0.4160;1.3669;
846.3000;0.4160;1.3740;
846.6000;0.4151;1.3740;
846.9000;0.4151;1.3716;
847.2000;0.4151;1.3669;
847.5000;0.4151;1.3599;
847.8000;0.4151;1.3576;
848.1000;0.4168;1.3646;
848.4000;0.4168;1.3669;
848.7000;0.4135;1.3552;
849.0000;0.4176;1.3669;
849.3000;0.4176;1.3740;
849.6000;0.4143;1.3623;
849.9000;0.4168;1.3763;
850.2000;0.4168;1.3693;
850.5000;0.4168;1.3693;
850.8000;0.4160;1.3669;
851.1000;0.4160;1.3716;
851.4000;0.4151;1.3669;
851.7000;0.4176;1.3599;
852.0000;0.4168;1.3716;
852.3000;0.4184;1.3763;
852.6000;0.4143;1.3669;
852.9000;0.4168;1.3716;
853.2000;0.4168;1.3740;
853.5000;0.4160;1.3599;
853.8000;0.4168;1.3552;
854.1000;0.4176;1.3435;
854.4000;0.4168;1.3365;
854.7000;0.4184;1.3365;
855.0000;0.4192;1.3505;
855.3000;0.4160;1.3435;
855.6000;0.4184;1.3505;
855.9000;0.4160;1.3412;
856.2000;0.4160;1.3458;
856.5000;0.4176;1.3552;
856.8000;0.4176;1.3529;
857.1000;0.4168;1.3623;
857.4000;0.4160;1.3599;
857.7000;0.4151;1.3552;
858.0000;0.4184;1.3623;
858.3000;0.4168;1.3646;
858.6000;0.4176;1.3623;
858.9000;0.4135;1.3529;
859.2000;0.4151;1.3693;
859.5000;0.4176;1.3693;
859.8000;0.4184;1.3716;
860.1000;0.4151;1.3576;
860.4000;0.4160;1.3669;
860.7000;0.4160;1.3669;
861.0000;0.4192;1.3740;
861.3000;0.4151;1.3576;
861.6000;0.4160;1.3552;
861.9000;0.4168;1.3599;
862.2000;0.4160;1.3552;
862.5000;0.4184;1.3599;
862.8000;0.4160;1.3599;
863.1000;0.4184;1.3669;
863.4000;0.4168;1.3716;
863.7000;0.4176;1.3669;
864.0000;0.4143;1.3646;
864.3000;0.4160;1.3763;
864.6000;0.4184;1.3880;
864.9000;0.4160;1.3740;
865.2000;0.4151;1.3763;
865.5000;0.4151;1.3716;
865.8000;0.4151;1.3693;
866.1000;0.4176;1.3646;
866.4000;0.4168;1.3576;
866.7000;0.4176;1.3623;
867.0000;0.4160;1.3693;
867.3000;0.4151;1.3740;
867.6000;0.4160;1.3787;
867.9000;0.4160;1.3787;
868.2000;0.4184;1.3716;
868.5000;0.4176;1.3763;
868.8000;0.4176;1.3763;
869.1000;0.4160;1.3834;
869.4000;0.4111;1.3740;
869.7000;0.4160;1.3787;
870.0000;0.4176;1.3787;
870.3000;0.4160;1.3693;
870.6000;0.4143;1.3740;
870.9000;0.4168;1.3693;
871.2000;0.4151;1.3763;
871.5000;0.4127;1.3552;
871.8000;0.4160;1.3646;
872.1000;0.4176;1.3646;
872.4000;0.4160;1.3599;
872.7000;0.4168;1.3716;
873.0000;0.4160;1.3716;
873.3000;0.4160;1.3669;
873.6000;0.4208;1.3693;
873.9000;0.4168;1.3599;
874.2000;0.4168;1.3716;
874.5000;0.4176;1.3740;
874.8000;0.4168;1.3763;
875.1000;0.4160;1.3834;
875.4000;0.4176;1.3810;
875.7000;0.4151;1.3716;
876.0000;0.4160;1.3834;
876.3000;0.4151;1.3810;
876.6000;0.4168;1.3763;
876.9000;0.4168;1.3646;
877.2000;0.4160;1.3669;
877.5000;0.4160;1.3623;
877.8000;0.4176;1.3552;
878.1000;0.4151;1.3458;
878.4000;0.4168;1.3576;
878.7000;0.4168;1.3669;
879.0000;0.4176;1.3716;
879.3000;0.4151;1.3646;
879.6000;0.4160;1.3623;
879.9000;0.4160;1.3576;
880.2000;0.4168;1.3646;
880.5000;0.4151;1.3646;
880.8000;0.4151;1.3576;
881.1000;0.4168;1.3599;
881.4000;0.4151;1.3693;
881.7000;0.4168;1.3857;
882.0000;0.4160;1.3834;
882.3000;0.4176;1.3974;
882.6000;0.4160;1.3998;
882.9000;0.4176;1.3904;
883.2000;0.4168;1.3857;
883.5000;0.4176;1.3857;
883.8000;0.4168;1.3834;
884.1000;0.4176;1.3880;
884.4000;0.4160;1.3857;
884.7000;0.4078;1.3646;
885.0000;0.4160;1.3810;
885.3000;0.4168;1.3834;
885.6000;0.4168;1.3834;
885.9000;0.4168;1.3787;
886.2000;0.4151;1.3693;
886.5000;0.4151;1.3787;
886.8000;0.4176;1.3787;
887.1000;0.4184;1.3834;
887.4000;0.4160;1.3834;
887.7000;0.4151;1.3810;
888.0000;0.4160;1.3880;
888.3000;0.4127;1.3787;
888.6000;0.4046;1.3576;
888.9000;0.4168;1.3951;
889.2000;0.4160;1.3951;
889.5000;0.4151;1.3880;
889.8000;0.4200;1.3951;
890.1000;0.4143;1.3810;
890.4000;0.4143;1.3763;
890.7000;0.4200;1.3974;
891.0000;0.4135;1.3810;
891.3000;0.4143;1.3787;
891.6000;0.4070;1.3646;
891.9000;0.4160;1.3927;
892.2000;0.4176;1.3904;
892.5000;0.4143;1.3810;
892.8000;0.4151;1.3834;
893.1000;0.4184;1.3974;
893.4000;0.4176;1.3951;
893.7000;0.4176;1.3834;
894.0000;0.4160;1.3857;
894.3000;0.4168;1.3951;
894.6000;0.4143;1.3904;
894.9000;0.4151;1.3974;
895.2000;0.4143;1.3927;
895.5000;0.4151;1.3927;
895.8000;0.4168;1.3951;
896.1000;0.4257;1.4162;
896.4000;0.4176;1.3834;
896.7000;0.4176;1.3834;
897.0000;0.4168;1.3787;
897.3000;0.4143;1.3904;
897.6000;0.4127;1.3810;
897.9000;0.4176;1.3834;
898.2000;0.4151;1.3787;
898.5000;0.4078;1.3576;
898.8000;0.4143;1.3740;
899.1000;0.4168;1.3787;
899.4000;0.4054;1.3529;
899.7000;0.4151;1.3623;
900.0000;0.4176;1.3669;
900.3000;0.4160;1.3599;
900.6000;0.4160;1.3623;
900.9000;0.4176;1.3576;
901.2000;0.4176;1.3693;
901.5000;0.4143;1.3623;
901.8000;0.4160;1.3646;
902.1000;0.4151;1.3716;
902.4000;0.4135;1.3716;
902.7000;0.4143;1.3763;
903.0000;0.4135;1.3834;
903.3000;0.4143;1.3740;
903.6000;0.4184;1.3763;
903.9000;0.4135;1.3740;
904.2000;0.4160;1.3810;
904.5000;0.4176;1.3834;
904.8000;0.4160;1.3834;
905.1000;0.4143;1.3810;
905.4000;0.4151;1.3834;
905.7000;0.4127;1.3787;
906.0000;0.4151;1.3834;
906.3000;0.4184;1.3834;
906.6000;0.4217;1.3927;
906.9000;0.4062;1.3576;
907.2000;0.4160;1.3763;
907.5000;0.4135;1.3763;
907.8000;0.4127;1.3763;
908.1000;0.4119;1.3787;
908.4000;0.4143;1.3857;
908.7000;0.4168;1.3904;
909.0000;0.4135;1.3810;
909.3000;0.4135;1.3857;
909.6000;0.4200;1.4021;
909.9000;0.4143;1.3787;
910.2000;0.4249;1.4045;
910.5000;0.4160;1.3693;
910.8000;0.4176;1.3763;
911.1000;0.4111;1.3576;
911.4000;0.4184;1.3740;
911.7000;0.4184;1.3693;
912.0000;0.4143;1.3599;
912.3000;0.4168;1.3599;
912.6000;0.4168;1.3646;
912.9000;0.4184;1.3623;
913.2000;0.4151;1.3599;
913.5000;0.4151;1.3576;
913.8000;0.4160;1.3599;
914.1000;0.4143;1.3646;
914.4000;0.4184;1.3716;
914.7000;0.4111;1.3576;
915.0000;0.4192;1.3646;
915.3000;0.4168;1.3623;
915.6000;0.4078;1.3365;
915.9000;0.4143;1.3505;
916.2000;0.4135;1.3365;
916.5000;0.4192;1.3435;
916.8000;0.4135;1.3341;
917.1000;0.4200;1.3388;
917.4000;0.4151;1.3388;
917.7000;0.4151;1.3412;
918.0000;0.4160;1.3412;
918.3000;0.4160;1.3458;
918.6000;0.4143;1.3365;
918.9000;0.4160;1.3412;
919.2000;0.4143;1.3505;
919.5000;0.4160;1.3529;
919.8000;0.4168;1.3646;
920.1000;0.4265;1.3904;
920.4000;0.4151;1.3669;
920.7000;0.4225;1.3810;
921.0000;0.4160;1.3646;
921.3000;0.4168;1.3787;
921.6000;0.4208;1.3810;
921.9000;0.4168;1.3623;
922.2000;0.4143;1.3599;
922.5000;0.4160;1.3646;
922.8000;0.4168;1.3693;
923.1000;0.4160;1.3552;
923.4000;0.4143;1.3529;
923.7000;0.4176;1.3529;
924.0000;0.4160;1.3576;
924.3000;0.4160;1.3599;
924.6000;0.4135;1.3623;
924.9000;0.4176;1.3740;
925.2000;0.4184;1.3693;
925.5000;0.4160;1.3552;
925.8000;0.4160;1.3669;
926.1000;0.4160;1.3693;
926.4000;0.4151;1.3669;
926.7000;0.4176;1.3834;
927.0000;0.4160;1.3810;
927.3000;0.4151;1.3810;
927.6000;0.4135;1.3740;
927.9000;0.4160;1.3669;
928.2000;0.4135;1.3576;
928.5000;0.4151;1.3716;
928.8000;0.4168;1.3763;
929.1000;0.4111;1.3646;
929.4000;0.4062;1.3505;
929.7000;0.4151;1.3787;
930.0000;0.4135;1.3787;
930.3000;0.4143;1.3834;
930.6000;0.4176;1.3880;
930.9000;0.4160;1.3904;
931.2000;0.4168;1.3904;
931.5000;0.4086;1.3716;
931.8000;0.4176;1.3904;
932.1000;0.4135;1.3740;
932.4000;0.4078;1.3552;
932.7000;0.4143;1.3693;
933.0000;0.4119;1.3623;
933.3000;0.4200;1.3740;
933.6000;0.4151;1.3646;
933.9000;0.4135;1.3552;
934.2000;0.4184;1.3693;
934.5000;0.4143;1.3623;
934.8000;0.4151;1.3623;
935.1000;0.4160;1.3693;
935.4000;0.4160;1.3646;
935.7000;0.4168;1.3810;
936.0000;0.4176;1.3927;
936.3000;0.4143;1.3834;
936.6000;0.4127;1.3880;
936.9000;0.4160;1.3998;
937.2000;0.4217;1.4092;
937.5000;0.4143;1.3810;
937.8000;0.4200;1.3834;
938.1000;0.4151;1.3740;
938.4000;0.4168;1.3623;
938.7000;0.4151;1.3552;
939.0000;0.4151;1.3529;
939.3000;0.4143;1.3505;
939.6000;0.4143;1.3458;
939.9000;0.4160;1.3458;
940.2000;0.4135;1.3365;
940.5000;0.4143;1.3294;
940.8000;0.4168;1.3341;
941.1000;0.4160;1.3341;
941.4000;0.4160;1.3388;
941.7000;0.4135;1.3341;
942.0000;0.4160;1.3458;
942.3000;0.4143;1.3505;
942.6000;0.4160;1.3552;
942.9000;0.4119;1.3365;
943.2000;0.4151;1.3435;
943.5000;0.4151;1.3458;
943.8000;0.4143;1.3435;
944.1000;0.4143;1.3435;
944.4000;0.4119;1.3388;
944.7000;0.4168;1.3576;
945.0000;0.4151;1.3482;
945.3000;0.4135;1.3341;
945.6000;0.4200;1.3482;
945.9000;0.4151;1.3435;
946.2000;0.4143;1.3365;
946.5000;0.4151;1.3388;
946.8000;0.4151;1.3388;
947.1000;0.4160;1.3412;
947.4000;0.4151;1.3529;
947.7000;0.4160;1.3599;
948.0000;0.4151;1.3623;
948.3000;0.4143;1.3552;
948.6000;0.4151;1.3576;
948.9000;0.4160;1.3458;
949.2000;0.4160;1.3365;
949.5000;0.4143;1.3318;
949.8000;0.4160;1.3365;
950.1000;0.4151;1.3412;
950.4000;0.4168;1.3505;
950.7000;0.4143;1.3435;
951.0000;0.4143;1.3529;
951.3000;0.4151;1.3505;
951.6000;0.4127;1.3458;
951.9000;0.4135;1.3482;
952.2000;0.4160;1.3529;
952.5000;0.4160;1.3623;
952.8000;0.4160;1.3623;
953.1000;0.4200;1.3857;
953.4000;0.4200;1.3880;
953.7000;0.4135;1.3576;
954.0000;0.4168;1.3576;
954.3000;0.4103;1.3482;
954.6000;0.4021;1.3412;
954.9000;0.4151;1.3693;
955.2000;0.4111;1.3623;
955.5000;0.4135;1.3669;
955.8000;0.4143;1.3576;
956.1000;0.4160;1.3646;
956.4000;0.4127;1.3646;
956.7000;0.4168;1.3646;
957.0000;0.4151;1.3623;
957.3000;0.4135;1.3599;
957.6000;0.4151;1.3599;
957.9000;0.4274;1.3904;
958.2000;0.4168;1.3716;
958.5000;0.4176;1.3693;
958.8000;0.4168;1.3693;
959.1000;0.4119;1.3552;
959.4000;0.4151;1.3693;
959.7000;0.4143;1.3693;
960.0000;0.4143;1.3740;
960.3000;0.4151;1.3716;
960.6000;0.4135;1.3716;
960.9000;0.4135;1.3716;
961.2000;0.4135;1.3740;
961.5000;0.4103;1.3552;
961.8000;0.4151;1.3646;
962.1000;0.4135;1.3576;
962.4000;0.4127;1.3552;
962.7000;0.4160;1.3505;
963.0000;0.4168;1.3529;
963.3000;0.4103;1.3505;
963.6000;0.4143;1.3623;
963.9000;0.4143;1.3599;
964.2000;0.4094;1.3388;
964.5000;0.4143;1.3576;
964.8000;0.4127;1.3529;
965.1000;0.4143;1.3599;
965.4000;0.4160;1.3482;
965.7000;0.4119;1.3458;
966.0000;0.4143;1.3529;
966.3000;0.4135;1.3529;
966.6000;0.4135;1.3576;
966.9000;0.4119;1.3552;
967.2000;0.4135;1.3552;
967.5000;0.4119;1.3529;
967.8000;0.4135;1.3693;
968.1000;0.4143;1.3669;
968.4000;0.4151;1.3716;
968.7000;0.4119;1.3693;
969.0000;0.4168;1.3787;
969.3000;0.4168;1.3810;
969.6000;0.4127;1.3740;
969.9000;0.4151;1.3904;
970.2000;0.4151;1.3974;
970.5000;0.4200;1.4092;
970.8000;0.4200;1.3927;
971.1000;0.4135;1.3810;
971.4000;0.4135;1.3740;
971.7000;0.4143;1.3787;
972.0000;0.4143;1.3716;
972.3000;0.4143;1.3669;
972.6000;0.4168;1.3716;
972.9000;0.4151;1.3646;
973.2000;0.4143;1.3646;
973.5000;0.4151;1.3646;
973.8000;0.4168;1.3623;
974.1000;0.4127;1.3388;
974.4000;0.4160;1.3552;
974.7000;0.4160;1.3599;
975.0000;0.4160;1.3552;
975.3000;0.4143;1.3412;
975.6000;0.4176;1.3552;
975.9000;0.4160;1.3529;
976.2000;0.4135;1.3505;
976.5000;0.4143;1.3599;
976.8000;0.4151;1.3576;
977.1000;0.4151;1.3646;
977.4000;0.4094;1.3505;
977.7000;0.4151;1.3693;
978.0000;0.4143;1.3669;
978.3000;0.4143;1.3623;
978.6000;0.4135;1.3576;
978.9000;0.4135;1.3646;
979.2000;0.4151;1.3669;
979.5000;0.4160;1.3787;
979.8000;0.4135;1.3646;
980.1000;0.4176;1.3693;
980.4000;0.4111;1.3599;
980.7000;0.4160;1.3646;
981.0000;0.4160;1.3623;
981.3000;0.4151;1.3693;
981.6000;0.4143;1.3669;
981.9000;0.4151;1.3669;
982.2000;0.4168;1.3646;
982.5000;0.4127;1.3623;
982.8000;0.4127;1.3576;
983.1000;0.4168;1.3623;
983.4000;0.4135;1.3458;
983.7000;0.4070;1.3224;
984.0000;0.4151;1.3412;
984.3000;0.4143;1.3435;
984.6000;0.4160;1.3458;
984.9000;0.4086;1.3365;
985.2000;0.4200;1.3623;
985.5000;0.4070;1.3247;
985.8000;0.4168;1.3412;
986.1000;0.4143;1.3365;
986.4000;0.4127;1.3318;
986.7000;0.4062;1.3130;
987.0000;0.4151;1.3318;
987.3000;0.4249;1.3552;
987.6000;0.4233;1.3552;
987.9000;0.4143;1.3318;
988.2000;0.4160;1.3341;
988.5000;0.4143;1.3365;
988.8000;0.4200;1.3552;
989.1000;0.4127;1.3341;
989.4000;0.4151;1.3365;
989.7000;0.4151;1.3388;
990.0000;0.4151;1.3412;
990.3000;0.4135;1.3341;
990.6000;0.4127;1.3271;
990.9000;0.4151;1.3341;
991.2000;0.4160;1.3412;
991.5000;0.4143;1.3318;
991.8000;0.4127;1.3365;
992.1000;0.4127;1.3294;
992.4000;0.4160;1.3365;
992.7000;0.4184;1.3412;
993.0000;0.4135;1.3365;
993.3000;0.4168;1.3435;
993.6000;0.4160;1.3458;
993.9000;0.4151;1.3341;
994.2000;0.4151;1.3318;
994.5000;0.4160;1.3294;
994.8000;0.4160;1.3294;
995.1000;0.4160;1.3294;
995.4000;0.4176;1.3435;
995.7000;0.4135;1.3365;
996.0000;0.4151;1.3482;
996.3000;0.4168;1.3482;
996.6000;0.4135;1.3318;
996.9000;0.4151;1.3341;
997.2000;0.4151;1.3294;
997.5000;0.4127;1.3294;
997.8000;0.4151;1.3271;
998.1000;0.4143;1.3271;
998.4000;0.4151;1.3318;
998.7000;0.4135;1.3318;
999.0000;0.4143;1.3294;
999.3000;0.4119;1.3294;
999.6000;0.4143;1.3341;
999.9000;0.4119;1.3318;
1000.2000;0.4103;1.3271;
1000.5000;0.4094;1.3201;
1000.8000;0.4151;1.3388;
1001.1000;0.4151;1.3482;
1001.4000;0.4168;1.3505;
1001.7000;0.4094;1.3388;
1002.0000;0.4143;1.3529;
1002.3000;0.4200;1.3646;
1002.6000;0.4151;1.3552;
1002.9000;0.4143;1.3599;
1003.2000;0.4135;1.3623;
1003.5000;0.4135;1.3623;
1003.8000;0.4143;1.3623;
1004.1000;0.4127;1.3576;
1004.4000;0.4135;1.3412;
1004.7000;0.4135;1.3458;
1005.0000;0.4070;1.3247;
1005.3000;0.4143;1.3388;
1005.6000;0.4119;1.3365;
1005.9000;0.4168;1.3576;
1006.2000;0.4119;1.3552;
1006.5000;0.4135;1.3529;
1006.8000;0.4094;1.3435;
1007.1000;0.4070;1.3365;
1007.4000;0.4151;1.3599;
1007.7000;0.4094;1.3458;
1008.0000;0.4135;1.3576;
1008.3000;0.4143;1.3669;
1008.6000;0.4192;1.3693;
1008.9000;0.4151;1.3599;
1009.2000;0.4176;1.3669;
1009.5000;0.4062;1.3388;
1009.8000;0.4111;1.3435;
1010.1000;0.4086;1.3341;
1010.4000;0.4143;1.3482;
1010.7000;0.4111;1.3435;
1011.0000;0.4119;1.3412;
1011.3000;0.4127;1.3388;
1011.6000;0.4143;1.3435;
1011.9000;0.4135;1.3365;
1012.2000;0.4135;1.3435;
1012.5000;0.4143;1.3482;
1012.8000;0.4151;1.3482;
1013.1000;0.4135;1.3458;
1013.4000;0.4119;1.3435;
1013.7000;0.4151;1.3482;
1014.0000;0.4135;1.3576;
1014.3000;0.4143;1.3693;
1014.6000;0.4070;1.3529;
1014.9000;0.4160;1.3646;
1015.2000;0.4151;1.3740;
1015.5000;0.4168;1.3810;
1015.8000;0.4111;1.3716;
1016.1000;0.4143;1.3716;
1016.4000;0.4151;1.3810;
1016.7000;0.4143;1.3740;
1017.0000;0.4127;1.3646;
1017.3000;0.4143;1.3693;
1017.6000;0.4094;1.3576;
1017.9000;0.4160;1.3693;
1018.2000;0.4143;1.3623;
1018.5000;0.4160;1.3693;
1018.8000;0.4135;1.3716;
1019.1000;0.4143;1.3669;
1019.4000;0.4127;1.3646;
1019.7000;0.4127;1.3576;
1020.0000;0.4135;1.3599;
1020.3000;0.4135;1.3599;
1020.6000;0.4135;1.3505;
1020.9000;0.4119;1.3458;
1021.2000;0.4127;1.3529;
1021.5000;0.4143;1.3646;
1021.8000;0.4143;1.3716;
1022.1000;0.4119;1.3623;
1022.4000;0.4143;1.3623;
1022.7000;0.4062;1.3365;
1023.0000;0.4168;1.3552;
1023.3000;0.4160;1.3482;
1023.6000;0.4143;1.3482;
1023.9000;0.4127;1.3412;
1024.2000;0.4135;1.3412;
1024.5000;0.4143;1.3412;
1024.8000;0.4160;1.3529;
1025.1000;0.4127;1.3529;
1025.4000;0.4127;1.3599;
1025.7000;0.4135;1.3669;
1026.0000;0.4127;1.3623;
1026.3000;0.4135;1.3623;
1026.6000;0.4127;1.3552;
1026.9000;0.4135;1.3435;
1027.2000;0.4127;1.3388;
1027.5000;0.4135;1.3482;
1027.8000;0.4135;1.3435;
1028.1000;0.4225;1.3623;
1028.4000;0.4046;1.3224;
1028.7000;0.4151;1.3505;
1029.0000;0.4143;1.3458;
1029.3000;0.4192;1.3552;
1029.6000;0.4151;1.3458;
1029.9000;0.4160;1.3529;
1030.2000;0.4103;1.3388;
1030.5000;0.4151;1.3529;
1030.8000;0.4151;1.3576;
1031.1000;0.4127;1.3623;
1031.4000;0.4135;1.3693;
1031.7000;0.4143;1.3599;
1032.0000;0.4151;1.3505;
1032.3000;0.4168;1.3529;
1032.6000;0.4151;1.3599;
1032.9000;0.4135;1.3482;
1033.2000;0.4143;1.3458;
1033.5000;0.4111;1.3482;
1033.8000;0.4143;1.3505;
1034.1000;0.4135;1.3505;
1034.4000;0.4151;1.3529;
1034.7000;0.4217;1.3576;
1035.0000;0.4192;1.3529;
1035.3000;0.4143;1.3458;
1035.6000;0.4135;1.3482;
1035.9000;0.4176;1.3669;
1036.2000;0.4151;1.3693;
1036.5000;0.4176;1.3693;
1036.8000;0.4143;1.3576;
1037.1000;0.4151;1.3576;
1037.4000;0.4168;1.3623;
1037.7000;0.4143;1.3599;
1038.0000;0.4135;1.3576;
1038.3000;0.4168;1.3599;
1038.6000;0.4135;1.3623;
1038.9000;0.4160;1.3693;
1039.2000;0.4151;1.3740;
1039.5000;0.4135;1.3763;
1039.8000;0.4160;1.3810;
1040.1000;0.4143;1.3834;
1040.4000;0.4135;1.3810;
1040.7000;0.4135;1.3787;
1041.0000;0.4143;1.3857;
1041.3000;0.4127;1.3810;
1041.6000;0.4143;1.3834;
1041.9000;0.4151;1.3787;
1042.2000;0.4143;1.3904;
1042.5000;0.4143;1.3904;
1042.8000;0.4168;1.3810;
1043.1000;0.4143;1.3810;
1043.4000;0.4143;1.3810;
1043.7000;0.4168;1.3927;
1044.0000;0.4143;1.3880;
1044.3000;0.4151;1.3857;
1044.6000;0.4143;1.3740;
1044.9000;0.4143;1.3740;
1045.2000;0.4143;1.3787;
1045.5000;0.4119;1.3763;
1045.8000;0.4151;1.3927;
1046.1000;0.4119;1.3904;
1046.4000;0.4119;1.3857;
1046.7000;0.4119;1.3763;
1047.0000;0.4135;1.3834;
1047.3000;0.4176;1.3951;
1047.6000;0.4200;1.3951;
1047.9000;0.4143;1.3880;
1048.2000;0.4135;1.3787;
1048.5000;0.4135;1.3787;
1048.8000;0.4143;1.3787;
1049.1000;0.4119;1.3646;
1049.4000;0.4151;1.3740;
1049.7000;0.4143;1.3669;
1050.0000;0.4135;1.3787;
1050.3000;0.4168;1.3810;
1050.6000;0.4143;1.3646;
1050.9000;0.4160;1.3693;
1051.2000;0.4135;1.3599;
1051.5000;0.4168;1.3716;
1051.8000;0.4127;1.3599;
1052.1000;0.4127;1.3623;
1052.4000;0.4111;1.3505;
1052.7000;0.4143;1.3552;
1053.0000;0.4127;1.3482;
1053.3000;0.4119;1.3552;
1053.6000;0.4119;1.3599;
1053.9000;0.4135;1.3646;
1054.2000;0.4127;1.3646;
1054.5000;0.4200;1.3857;
1054.8000;0.4127;1.3693;
1055.1000;0.4135;1.3646;
1055.4000;0.4160;1.3693;
1055.7000;0.4151;1.3623;
1056.0000;0.4119;1.3623;
1056.3000;0.4176;1.3693;
1056.6000;0.4143;1.3716;
1056.9000;0.4160;1.3646;
1057.2000;0.4168;1.3763;
1057.5000;0.4151;1.3669;
1057.8000;0.4070;1.3435;
1058.1000;0.4143;1.3716;
1058.4000;0.4127;1.3693;
1058.7000;0.4119;1.3763;
1059.0000;0.4151;1.3857;
1059.3000;0.4151;1.3787;
1059.6000;0.4151;1.3716;
1059.9000;0.4135;1.3740;
1060.2000;0.4160;1.3763;
1060.5000;0.4151;1.3880;
1060.8000;0.4135;1.3857;
1061.1000;0.4151;1.3857;
1061.4000;0.4151;1.3834;
1061.7000;0.4143;1.3787;
1062.0000;0.4111;1.3763;
1062.3000;0.4135;1.3763;
1062.6000;0.4127;1.3716;
1062.9000;0.4135;1.3623;
1063.2000;0.4127;1.3623;
1063.5000;0.4143;1.3716;
1063.8000;0.4103;1.3623;
1064.1000;0.4143;1.3623;
1064.4000;0.4127;1.3552;
1064.7000;0.4103;1.3482;
1065.0000;0.4160;1.3623;
1065.3000;0.4143;1.3646;
1065.6000;0.4208;1.3763;
1065.9000;0.4094;1.3505;
1066.2000;0.4151;1.3576;
1066.5000;0.4078;1.3435;
1066.8000;0.4225;1.3787;
1067.1000;0.4160;1.3599;
1067.4000;0.4176;1.3763;
1067.7000;0.4127;1.3693;
1068.0000;0.4135;1.3669;
1068.3000;0.4135;1.3763;
1068.6000;0.4127;1.3693;
1068.9000;0.4143;1.3740;
1069.2000;0.4143;1.3740;
1069.5000;0.4184;1.3927;
1069.8000;0.4143;1.3904;
1070.1000;0.4168;1.3904;
1070.4000;0.4143;1.3857;
1070.7000;0.4119;1.3763;
1071.0000;0.4143;1.3834;
1071.3000;0.4127;1.3857;
1071.6000;0.4127;1.3857;
1071.9000;0.4168;1.3810;
1072.2000;0.4208;1.3904;
1072.5000;0.4143;1.3693;
1072.8000;0.4143;1.3763;
1073.1000;0.4127;1.3669;
1073.4000;0.4143;1.3646;
1073.7000;0.4151;1.3693;
1074.0000;0.4127;1.3623;
1074.3000;0.4119;1.3716;
1074.6000;0.4119;1.3834;
1074.9000;0.4135;1.3880;
1075.2000;0.4119;1.3834;
1075.5000;0.4160;1.3834;
1075.8000;0.4160;1.3787;
1076.1000;0.4151;1.3810;
1076.4000;0.4151;1.3834;
1076.7000;0.4160;1.3880;
1077.0000;0.4151;1.3904;
1077.3000;0.4160;1.3951;
1077.6000;0.4127;1.3974;
1077.9000;0.4208;1.4185;
1078.2000;0.4135;1.3974;
1078.5000;0.4217;1.4279;
1078.8000;0.4135;1.3974;
1079.1000;0.4127;1.3880;
1079.4000;0.4135;1.3740;
1079.7000;0.4119;1.3669;
1080.0000;0.4119;1.3740;
1080.3000;0.4151;1.3787;
1080.6000;0.4111;1.3787;
1080.9000;0.4094;1.3740;
1081.2000;0.4135;1.3904;
1081.5000;0.4143;1.3904;
1081.8000;0.4143;1.3834;
1082.1000;0.4151;1.3810;
1082.4000;0.4143;1.3787;
1082.7000;0.4151;1.3880;
1083.0000;0.4135;1.3787;
1083.3000;0.4135;1.3763;
1083.6000;0.4151;1.3857;
1083.9000;0.4151;1.3904;
1084.2000;0.4241;1.4162;
1084.5000;0.4217;1.3951;
1084.8000;0.4151;1.3834;
1085.1000;0.4127;1.3787;
1085.4000;0.4111;1.3740;
1085.7000;0.4119;1.3693;
1086.0000;0.4135;1.3646;
1086.3000;0.4151;1.3599;
1086.6000;0.4192;1.3716;
1086.9000;0.4151;1.3669;
1087.2000;0.4143;1.3646;
1087.5000;0.4135;1.3599;
1087.8000;0.4143;1.3576;
1088.1000;0.4111;1.3529;
1088.4000;0.4111;1.3576;
1088.7000;0.4135;1.3693;
1089.0000;0.4143;1.3740;
1089.3000;0.4111;1.3693;
1089.6000;0.4135;1.3716;
1089.9000;0.4143;1.3716;
1090.2000;0.4119;1.3693;
1090.5000;0.4135;1.3763;
1090.8000;0.4111;1.3834;
1091.1000;0.4127;1.3857;
1091.4000;0.4160;1.3857;
1091.7000;0.4176;1.3787;
1092.0000;0.4135;1.3740;
1092.3000;0.4127;1.3740;
1092.6000;0.4168;1.3787;
1092.9000;0.4127;1.3693;
1093.2000;0.4135;1.3693;
1093.5000;0.4135;1.3693;
1093.8000;0.4127;1.3646;
1094.1000;0.4135;1.3669;
1094.4000;0.4127;1.3693;
1094.7000;0.4143;1.3693;
1095.0000;0.4094;1.3482;
1095.3000;0.4143;1.3693;
1095.6000;0.4143;1.3763;
1095.9000;0.4135;1.3716;
1096.2000;0.4054;1.3505;
1096.5000;0.4151;1.3810;
1096.8000;0.4143;1.3787;
1097.1000;0.4184;1.3787;
1097.4000;0.4160;1.3763;
1097.7000;0.4151;1.3740;
1098.0000;0.4094;1.3529;
1098.3000;0.4160;1.3693;
1098.6000;0.4143;1.3740;
1098.9000;0.4184;1.3857;
1099.2000;0.4143;1.3834;
1099.5000;0.4135;1.3834;
1099.8000;0.4143;1.3834;
1100.1000;0.4143;1.3834;
1100.4000;0.4151;1.3810;
1100.7000;0.4046;1.3529;
1101.0000;0.4029;1.3529;
1101.3000;0.4217;1.4021;
1101.6000;0.4151;1.3880;
1101.9000;0.4119;1.3834;
1102.2000;0.4176;1.3904;
1102.5000;0.4143;1.3716;
1102.8000;0.4225;1.3834;
1103.1000;0.4200;1.3740;
1103.4000;0.4103;1.3552;
1103.7000;0.4135;1.3599;
1104.0000;0.4135;1.3599;
1104.3000;0.4192;1.3763;
1104.6000;0.4143;1.3623;
1104.9000;0.4160;1.3740;
1105.2000;0.4111;1.3646;
1105.5000;0.4151;1.3740;
1105.8000;0.4135;1.3716;
1106.1000;0.4127;1.3669;
1106.4000;0.4143;1.3669;
1106.7000;0.4127;1.3693;
1107.0000;0.4143;1.3740;
1107.3000;0.4119;1.3669;
1107.6000;0.4127;1.3646;
1107.9000;0.4160;1.3763;
1108.2000;0.4192;1.3927;
1108.5000;0.4160;1.3834;
1108.8000;0.4119;1.3740;
1109.1000;0.4135;1.3810;
1109.4000;0.4168;1.3787;
1109.7000;0.4168;1.3576;
1110.0000;0.4127;1.3482;
1110.3000;0.4143;1.3529;
1110.6000;0.4135;1.3552;
1110.9000;0.4135;1.3529;
1111.2000;0.4143;1.3552;
1111.5000;0.4111;1.3505;
1111.8000;0.4143;1.3552;
1112.1000;0.4135;1.3552;
1112.4000;0.4127;1.3552;
1112.7000;0.4111;1.3576;
1113.0000;0.4176;1.3740;
1113.3000;0.4127;1.3693;
1113.6000;0.4119;1.3740;
1113.9000;0.4143;1.3763;
1114.2000;0.4119;1.3576;
1114.5000;0.4127;1.3599;
1114.8000;0.4135;1.3623;
1115.1000;0.4127;1.3669;
1115.4000;0.4127;1.3552;
1115.7000;0.4119;1.3505;
1116.0000;0.4151;1.3576;
1116.3000;0.4135;1.3505;
1116.6000;0.4160;1.3599;
1116.9000;0.4127;1.3505;
1117.2000;0.4200;1.3693;
1117.5000;0.4135;1.3623;
1117.8000;0.4135;1.3716;
1118.1000;0.4127;1.3787;
1118.4000;0.4127;1.3740;
1118.7000;0.4151;1.3904;
1119.0000;0.4143;1.3927;
1119.3000;0.4200;1.3998;
1119.6000;0.4135;1.3763;
1119.9000;0.4143;1.3763;
1120.2000;0.4322;1.4162;
1120.5000;0.4184;1.3857;
1120.8000;0.4135;1.3787;
1121.1000;0.4135;1.3857;
1121.4000;0.4151;1.3810;
1121.7000;0.4135;1.3810;
1122.0000;0.4119;1.3740;
1122.3000;0.4151;1.3787;
1122.6000;0.4176;1.3834;
1122.9000;0.4094;1.3599;
1123.2000;0.4168;1.3763;
1123.5000;0.4143;1.3787;
1123.8000;0.4127;1.3740;
1124.1000;0.4135;1.3740;
1124.4000;0.4168;1.3693;
1124.7000;0.4143;1.3599;
1125.0000;0.4127;1.3599;
1125.3000;0.4184;1.3740;
1125.6000;0.4168;1.3716;
1125.9000;0.4168;1.3740;
1126.2000;0.4151;1.3740;
1126.5000;0.4184;1.3810;
1126.8000;0.4135;1.3693;
1127.1000;0.4119;1.3623;
1127.4000;0.4143;1.3693;
1127.7000;0.4135;1.3787;
1128.0000;0.4127;1.3623;
1128.3000;0.4046;1.3482;
1128.6000;0.4127;1.3693;
1128.9000;0.4151;1.3693;
1129.2000;0.4143;1.3740;
1129.5000;0.4143;1.3763;
1129.8000;0.4135;1.3857;
1130.1000;0.4160;1.3927;
1130.4000;0.4135;1.3810;
1130.7000;0.4135;1.3834;
1131.0000;0.4143;1.3857;
1131.3000;0.4143;1.3787;
1131.6000;0.4151;1.3834;
1131.9000;0.4127;1.3787;
1132.2000;0.4160;1.3787;
1132.5000;0.4143;1.3669;
1132.8000;0.4127;1.3669;
1133.1000;0.4135;1.3529;
1133.4000;0.4135;1.3646;
1133.7000;0.4143;1.3576;
1134.0000;0.4135;1.3576;
1134.3000;0.4127;1.3482;
1134.6000;0.4135;1.3482;
1134.9000;0.4151;1.3552;
1135.2000;0.4160;1.3576;
1135.5000;0.4151;1.3646;
1135.8000;0.4143;1.3576;
1136.1000;0.4192;1.3763;
1136.4000;0.4151;1.3646;
1136.7000;0.4143;1.3693;
1137.0000;0.4249;1.3998;
1137.3000;0.4143;1.3740;
1137.6000;0.4135;1.3740;
1137.9000;0.4143;1.3716;
1138.2000;0.4127;1.3716;
1138.5000;0.4160;1.3787;
1138.8000;0.4127;1.3669;
1139.1000;0.4143;1.3810;
1139.4000;0.4135;1.3787;
1139.7000;0.4143;1.3904;
1140.0000;0.4119;1.3763;
1140.3000;0.4143;1.3810;
1140.6000;0.4143;1.3834;
1140.9000;0.4127;1.3740;
1141.2000;0.4127;1.3880;
1141.5000;0.4184;1.4045;
1141.8000;0.4135;1.3927;
1142.1000;0.4151;1.3951;
1142.4000;0.4168;1.3927;
1142.7000;0.4135;1.3787;
1143.0000;0.4119;1.3669;
1143.3000;0.4127;1.3787;
1143.6000;0.4054;1.3623;
1143.9000;0.4127;1.3834;
1144.2000;0.4168;1.3927;
1144.5000;0.4086;1.3740;
1144.8000;0.4208;1.4068;
1145.1000;0.4127;1.3810;
1145.4000;0.4135;1.3834;
1145.7000;0.4151;1.3974;
1146.0000;0.4135;1.3904;
1146.3000;0.4143;1.3951;
1146.6000;0.4143;1.3880;
1146.9000;0.4151;1.3787;
1147.2000;0.4151;1.3693;
1147.5000;0.4127;1.3599;
1147.8000;0.4135;1.3599;
1148.1000;0.4127;1.3623;
1148.4000;0.4143;1.3599;
1148.7000;0.4127;1.3458;
1149.0000;0.4143;1.3482;
1149.3000;0.4160;1.3482;
1149.6000;0.4160;1.3552;
1149.9000;0.4135;1.3458;
1150.2000;0.4127;1.3482;
1150.5000;0.4143;1.3435;
1150.8000;0.4151;1.3482;
1151.1000;0.4078;1.3435;
1151.4000;0.4127;1.3576;
1151.7000;0.4160;1.3669;
1152.0000;0.4143;1.3693;
1152.3000;0.4135;1.3763;
1152.6000;0.4135;1.3763;
1152.9000;0.4143;1.3834;
1153.2000;0.4143;1.3763;
1153.5000;0.4143;1.3740;
1153.8000;0.4135;1.3810;
1154.1000;0.4111;1.3693;
1154.4000;0.4135;1.3740;
1154.7000;0.4135;1.3810;
1155.0000;0.4135;1.3787;
1155.3000;0.4135;1.3787;
1155.6000;0.4127;1.3787;
1155.9000;0.4151;1.3810;
1156.2000;0.4143;1.3834;
1156.5000;0.4135;1.3810;
1156.8000;0.4151;1.3857;
1157.1000;0.4151;1.3857;
1157.4000;0.4143;1.3834;
1157.7000;0.4135;1.3904;
1158.0000;0.4143;1.3880;
1158.3000;0.4143;1.3810;
1158.6000;0.4217;1.3904;
1158.9000;0.4143;1.3716;
1159.2000;0.4135;1.3669;
1159.5000;0.4143;1.3646;
1159.8000;0.4151;1.3716;
1160.1000;0.4151;1.3716;
1160.4000;0.4143;1.3740;
1160.7000;0.4151;1.3787;
1161.0000;0.4143;1.3763;
1161.3000;0.4111;1.3646;
1161.6000;0.4143;1.3599;
1161.9000;0.4151;1.3623;
1162.2000;0.4176;1.3716;
1162.5000;0.4103;1.3623;
1162.8000;0.4127;1.3669;
1163.1000;0.4119;1.3552;
1163.4000;0.4127;1.3482;
1163.7000;0.4200;1.3693;
1164.0000;0.4143;1.3552;
1164.3000;0.4184;1.3716;
1164.6000;0.4135;1.3740;
1164.9000;0.4135;1.3669;
1165.2000;0.4225;1.3880;
1165.5000;0.4119;1.3669;
1165.8000;0.4143;1.3599;
1166.1000;0.4135;1.3669;
1166.4000;0.4135;1.3623;
1166.7000;0.4151;1.3693;
1167.0000;0.4135;1.3599;
1167.3000;0.4176;1.3669;
1167.6000;0.4143;1.3576;
1167.9000;0.4135;1.3505;
1168.2000;0.4094;1.3435;
1168.5000;0.4127;1.3552;
1168.8000;0.4135;1.3623;
1169.1000;0.4127;1.3646;
1169.4000;0.4127;1.3599;
1169.7000;0.4143;1.3576;
1170.0000;0.4168;1.3646;
1170.3000;0.4103;1.3458;
1170.6000;0.4135;1.3552;
1170.9000;0.4151;1.3482;
1171.2000;0.4119;1.3365;
1171.5000;0.4127;1.3341;
1171.8000;0.4135;1.3318;
1172.1000;0.4127;1.3435;
1172.4000;0.4143;1.3529;
1172.7000;0.4160;1.3576;
1173.0000;0.4135;1.3576;
1173.3000;0.4127;1.3646;
1173.6000;0.4119;1.3646;
1173.9000;0.4135;1.3623;
1174.2000;0.4127;1.3505;
1174.5000;0.4208;1.3740;
1174.8000;0.4135;1.3599;
1175.1000;0.4127;1.3599;
1175.4000;0.4094;1.3623;
1175.7000;0.4143;1.3763;
1176.0000;0.4127;1.3740;
1176.3000;0.4127;1.3787;
1176.6000;0.4143;1.3787;
1176.9000;0.4127;1.3857;
1177.2000;0.4143;1.3857;
1177.5000;0.4135;1.3857;
1177.8000;0.4143;1.3787;
1178.1000;0.4151;1.3740;
1178.4000;0.4119;1.3646;
1178.7000;0.4119;1.3623;
1179.0000;0.4151;1.3599;
1179.3000;0.4143;1.3599;
1179.6000;0.4135;1.3599;
1179.9000;0.4184;1.3669;
1180.2000;0.4151;1.3576;
1180.5000;0.4119;1.3599;
1180.8000;0.4119;1.3576;
1181.1000;0.4135;1.3623;
1181.4000;0.4013;1.3341;
1181.7000;0.4135;1.3623;
1182.0000;0.4094;1.3529;
1182.3000;0.4127;1.3599;
1182.6000;0.4143;1.3646;
1182.9000;0.4160;1.3623;
1183.2000;0.4151;1.3576;
1183.5000;0.4143;1.3482;
1183.8000;0.4135;1.3529;
1184.1000;0.4151;1.3623;
1184.4000;0.4143;1.3646;
1184.7000;0.4119;1.3599;
1185.0000;0.4135;1.3552;
1185.3000;0.4135;1.3576;
1185.6000;0.4135;1.3599;
1185.9000;0.4127;1.3576;
1186.2000;0.4127;1.3552;
1186.5000;0.4094;1.3552;
1186.8000;0.4143;1.3740;
1187.1000;0.4135;1.3740;
1187.4000;0.4119;1.3834;
1187.7000;0.4127;1.3787;
1188.0000;0.4127;1.3763;
1188.3000;0.4135;1.3763;
1188.6000;0.4151;1.3810;
1188.9000;0.4176;1.3880;
1189.2000;0.4143;1.3763;
1189.5000;0.4135;1.3740;
1189.8000;0.4143;1.3693;
1190.1000;0.4151;1.3646;
1190.4000;0.4135;1.3740;
1190.7000;0.4119;1.3716;
1191.0000;0.4135;1.3763;
1191.3000;0.4111;1.3552;
1191.6000;0.4135;1.3529;
1191.9000;0.4143;1.3576;
1192.2000;0.4127;1.3646;
1192.5000;0.4119;1.3646;
1192.8000;0.4135;1.3646;
1193.1000;0.4135;1.3599;
1193.4000;0.4135;1.3669;
1193.7000;0.4143;1.3669;
1194.0000;0.4135;1.3623;
1194.3000;0.4143;1.3740;
1194.6000;0.4143;1.3857;
1194.9000;0.4127;1.3834;
1195.2000;0.4184;1.3974;
1195.5000;0.4233;1.4138;
1195.8000;0.4127;1.3951;
1196.1000;0.4127;1.3974;
1196.4000;0.4135;1.3857;
1196.7000;0.4119;1.3740;
1197.0000;0.4143;1.3834;
1197.3000;0.4192;1.3904;
1197.6000;0.4127;1.3740;
1197.9000;0.4119;1.3834;
1198.2000;0.4151;1.3834;
1198.5000;0.4151;1.3857;
1198.8000;0.4135;1.3857;
1199.1000;0.4127;1.3810;
1199.4000;0.4119;1.3763;
1199.7000;0.4135;1.3716;
1200.0000;0.4151;1.3669;
1200.3000;0.4037;1.3458;
1200.6000;0.4151;1.3787;
1200.9000;0.4143;1.3787;
1201.2000;0.4135;1.3763;
1201.5000;0.4127;1.3740;
1201.8000;0.4143;1.3740;
1202.1000;0.4127;1.3716;
1202.4000;0.4127;1.3693;
1202.7000;0.4176;1.3740;
1203.0000;0.4127;1.3576;
1203.3000;0.4119;1.3529;
1203.6000;0.4135;1.3435;
1203.9000;0.4143;1.3435;
1204.2000;0.4135;1.3412;
1204.5000;0.4143;1.3458;
1204.8000;0.4160;1.3482;
1205.1000;0.4143;1.3505;
1205.4000;0.4143;1.3435;
1205.7000;0.4143;1.3482;
1206.0000;0.4143;1.3552;
1206.3000;0.4143;1.3482;
1206.6000;0.4192;1.3529;
1206.9000;0.4111;1.3412;
1207.2000;0.4119;1.3458;
1207.5000;0.4135;1.3623;
1207.8000;0.4127;1.3646;
1208.1000;0.4160;1.3716;
1208.4000;0.4143;1.3787;
1208.7000;0.4119;1.3716;
1209.0000;0.4119;1.3623;
1209.3000;0.4135;1.3623;
1209.6000;0.4127;1.3646;
1209.9000;0.4143;1.3716;
1210.2000;0.4168;1.3740;
1210.5000;0.4135;1.3646;
1210.8000;0.4127;1.3693;
1211.1000;0.4143;1.3740;
1211.4000;0.4135;1.3763;
1211.7000;0.4151;1.3623;
1212.0000;0.4119;1.3529;
1212.3000;0.4127;1.3529;
1212.6000;0.4151;1.3552;
1212.9000;0.4135;1.3482;
1213.2000;0.4143;1.3576;
1213.5000;0.4119;1.3552;
1213.8000;0.4135;1.3552;
1214.1000;0.4127;1.3505;
1214.4000;0.4127;1.3552;
1214.7000;0.4135;1.3599;
1215.0000;0.4160;1.3716;
1215.3000;0.4160;1.3693;
1215.6000;0.4160;1.3740;
1215.9000;0.4160;1.3763;
1216.2000;0.4054;1.3623;
1216.5000;0.4135;1.3810;
1216.8000;0.4143;1.3740;
1217.1000;0.4135;1.3669;
1217.4000;0.4111;1.3693;
1217.7000;0.4127;1.3716;
1218.0000;0.4160;1.3693;
1218.3000;0.4127;1.3529;
1218.6000;0.4119;1.3435;
1218.9000;0.4127;1.3388;
1219.2000;0.4094;1.3318;
1219.5000;0.4135;1.3482;
1219.8000;0.4127;1.3552;
1220.1000;0.4135;1.3599;
1220.4000;0.4119;1.3552;
1220.7000;0.4127;1.3552;
1221.0000;0.4135;1.3529;
1221.3000;0.4127;1.3576;
1221.6000;0.4143;1.3599;
1221.9000;0.4127;1.3482;
1222.2000;0.4160;1.3529;
1222.5000;0.4111;1.3388;
1222.8000;0.4127;1.3365;
1223.1000;0.4135;1.3341;
1223.4000;0.4135;1.3294;
1223.7000;0.4127;1.3365;
1224.0000;0.4119;1.3318;
1224.3000;0.4021;1.3107;
1224.6000;0.4135;1.3341;
1224.9000;0.4127;1.3365;
1225.2000;0.4127;1.3388;
1225.5000;0.4119;1.3576;
1225.8000;0.4119;1.3552;
1226.1000;0.4119;1.3482;
1226.4000;0.4143;1.3529;
1226.7000;0.4143;1.3552;
1227.0000;0.4127;1.3529;
1227.3000;0.4135;1.3576;
1227.6000;0.4127;1.3599;
1227.9000;0.4119;1.3623;
1228.2000;0.4135;1.3646;
1228.5000;0.4127;1.3599;
1228.8000;0.4127;1.3576;
1229.1000;0.4143;1.3693;
1229.4000;0.4127;1.3787;
1229.7000;0.4135;1.3834;
1230.0000;0.4127;1.3810;
1230.3000;0.4127;1.3693;
1230.6000;0.4127;1.3716;
1230.9000;0.4135;1.3740;
1231.2000;0.4127;1.3740;
1231.5000;0.4127;1.3810;
1231.8000;0.4135;1.3857;
1232.1000;0.4184;1.3904;
1232.4000;0.4119;1.3740;
1232.7000;0.4143;1.3740;
1233.0000;0.4143;1.3763;
1233.3000;0.4143;1.3763;
1233.6000;0.4119;1.3669;
1233.9000;0.4135;1.3693;
1234.2000;0.4143;1.3646;
1234.5000;0.4200;1.3623;
1234.8000;0.4119;1.3388;
1235.1000;0.4119;1.3341;
1235.4000;0.4119;1.3318;
1235.7000;0.4217;1.3623;
1236.0000;0.4143;1.3412;
1236.3000;0.4135;1.3435;
1236.6000;0.4111;1.3388;
1236.9000;0.4143;1.3458;
1237.2000;0.4111;1.3412;
1237.5000;0.4062;1.3318;
1237.8000;0.4151;1.3458;
1238.1000;0.4111;1.3412;
1238.4000;0.4143;1.3458;
1238.7000;0.4127;1.3365;
1239.0000;0.4151;1.3482;
1239.3000;0.4143;1.3529;
1239.6000;0.4119;1.3552;
1239.9000;0.4135;1.3669;
1240.2000;0.4054;1.3505;
1240.5000;0.4013;1.3318;
1240.8000;0.4111;1.3482;
1241.1000;0.4168;1.3693;
1241.4000;0.4127;1.3576;
1241.7000;0.4119;1.3599;
1242.0000;0.4225;1.3857;
1242.3000;0.4143;1.3716;
1242.6000;0.4143;1.3693;
1242.9000;0.4143;1.3646;
1243.2000;0.4111;1.3716;
1243.5000;0.4160;1.3810;
1243.8000;0.4127;1.3787;
1244.1000;0.4127;1.3810;
1244.4000;0.4127;1.3880;
1244.7000;0.4127;1.3857;
1245.0000;0.4119;1.3810;
1245.3000;0.4168;1.3951;
1245.6000;0.4119;1.3880;
1245.9000;0.4127;1.3951;
1246.2000;0.4119;1.3904;
1246.5000;0.4119;1.3834;
1246.8000;0.4119;1.3716;
1247.1000;0.4119;1.3669;
1247.4000;0.4143;1.3693;
1247.7000;0.4119;1.3740;
1248.0000;0.4119;1.3716;
1248.3000;0.4151;1.3810;
1248.6000;0.4111;1.3693;
1248.9000;0.4135;1.3646;
1249.2000;0.4151;1.3763;
1249.5000;0.4143;1.3716;
1249.8000;0.4143;1.3834;
1250.1000;0.4143;1.3740;
1250.4000;0.4135;1.3740;
1250.7000;0.4135;1.3810;
1251.0000;0.4086;1.3693;
1251.3000;0.4119;1.3787;
1251.6000;0.4119;1.3810;
1251.9000;0.4135;1.3880;
1252.2000;0.4151;1.3927;
1252.5000;0.4151;1.3834;
1252.8000;0.4143;1.3787;
1253.1000;0.4119;1.3740;
1253.4000;0.4151;1.3857;
1253.7000;0.4151;1.3834;
1254.0000;0.4143;1.3904;
1254.3000;0.4160;1.3857;
1254.6000;0.4135;1.3810;
1254.9000;0.4151;1.3857;
1255.2000;0.4151;1.3810;
1255.5000;0.4135;1.3763;
1255.8000;0.4086;1.3529;
1256.1000;0.4127;1.3576;
1256.4000;0.4111;1.3646;
1256.7000;0.4111;1.3716;
1257.0000;0.4135;1.3623;
1257.3000;0.4119;1.3552;
1257.6000;0.4143;1.3576;
1257.9000;0.4143;1.3669;
1258.2000;0.4200;1.3927;
1258.5000;0.4127;1.3857;
1258.8000;0.4151;1.3880;
1259.1000;0.4160;1.3880;
1259.4000;0.4103;1.3669;
1259.7000;0.4135;1.3740;
1260.0000;0.4143;1.3857;
1260.3000;0.4127;1.3810;
1260.6000;0.4135;1.3810;
1260.9000;0.4135;1.3763;
1261.2000;0.4103;1.3740;
1261.5000;0.4143;1.3880;
1261.8000;0.4151;1.3857;
1262.1000;0.4111;1.3787;
1262.4000;0.4127;1.3810;
1262.7000;0.4135;1.3834;
1263.0000;0.4151;1.3880;
1263.3000;0.4127;1.3810;
1263.6000;0.4135;1.3669;
1263.9000;0.4135;1.3669;
1264.2000;0.4135;1.3693;
1264.5000;0.4135;1.3669;
1264.8000;0.4135;1.3716;
1265.1000;0.4143;1.3787;
1265.4000;0.4127;1.3740;
1265.7000;0.4119;1.3693;
1266.0000;0.4143;1.3646;
1266.3000;0.4127;1.3623;
1266.6000;0.4151;1.3669;
1266.9000;0.4135;1.3669;
1267.2000;0.4094;1.3599;
1267.5000;0.4127;1.3646;
1267.8000;0.4135;1.3623;
1268.1000;0.4127;1.3599;
1268.4000;0.4160;1.3716;
1268.7000;0.4143;1.3693;
1269.0000;0.4135;1.3693;
1269.3000;0.4111;1.3552;
1269.6000;0.4176;1.3669;
1269.9000;0.4160;1.3552;
1270.2000;0.4151;1.3576;
1270.5000;0.4127;1.3576;
1270.8000;0.4094;1.3552;
1271.1000;0.4143;1.3669;
1271.4000;0.4111;1.3576;
1271.7000;0.4111;1.3529;
1272.0000;0.4127;1.3623;
1272.3000;0.4111;1.3552;
1272.6000;0.4094;1.3435;
1272.9000;0.4127;1.3435;
1273.2000;0.4127;1.3482;
1273.5000;0.4143;1.3529;
1273.8000;0.4127;1.3599;
1274.1000;0.4135;1.3669;
1274.4000;0.4151;1.3763;
1274.7000;0.4143;1.3716;
1275.0000;0.4249;1.3974;
1275.3000;0.4135;1.3669;
1275.6000;0.4127;1.3552;
1275.9000;0.4143;1.3646;
1276.2000;0.4184;1.3693;
1276.5000;0.4127;1.3529;
1276.8000;0.4143;1.3505;
1277.1000;0.4111;1.3458;
1277.4000;0.4127;1.3482;
1277.7000;0.4151;1.3505;
1278.0000;0.4103;1.3482;
1278.3000;0.4143;1.3693;
1278.6000;0.4151;1.3716;
1278.9000;0.4127;1.3716;
1279.2000;0.4160;1.3834;
1279.5000;0.4143;1.3787;
1279.8000;0.4135;1.3740;
1280.1000;0.4111;1.3669;
1280.4000;0.4160;1.3740;
1280.7000;0.4143;1.3740;
1281.0000;0.4143;1.3740;
1281.3000;0.4160;1.3787;
1281.6000;0.4119;1.3693;
1281.9000;0.4127;1.3576;
1282.2000;0.4135;1.3529;
1282.5000;0.4127;1.3599;
1282.8000;0.4119;1.3646;
1283.1000;0.4135;1.3646;
1283.4000;0.4078;1.3599;
1283.7000;0.4143;1.3810;
1284.0000;0.4127;1.3810;
1284.3000;0.4119;1.3810;
1284.6000;0.4135;1.3810;
1284.9000;0.4127;1.3834;
1285.2000;0.4135;1.3834;
1285.5000;0.4151;1.3857;
1285.8000;0.4135;1.3857;
1286.1000;0.4135;1.3857;
1286.4000;0.4119;1.3763;
1286.7000;0.4119;1.3787;
1287.0000;0.4135;1.3810;
1287.3000;0.4111;1.3740;
1287.6000;0.4135;1.3810;
1287.9000;0.4143;1.3787;
1288.2000;0.4135;1.3787;
1288.5000;0.4143;1.3880;
1288.8000;0.4119;1.3904;
1289.1000;0.4127;1.3880;
1289.4000;0.4208;1.3998;
1289.7000;0.4094;1.3693;
1290.0000;0.4135;1.3693;
1290.3000;0.4111;1.3599;
1290.6000;0.4119;1.3646;
1290.9000;0.4127;1.3716;
1291.2000;0.4127;1.3669;
1291.5000;0.4127;1.3693;
1291.8000;0.4127;1.3599;
1292.1000;0.4127;1.3576;
1292.4000;0.4086;1.3505;
1292.7000;0.4135;1.3693;
1293.0000;0.4135;1.3763;
1293.3000;0.4127;1.3763;
1293.6000;0.4135;1.3810;
1293.9000;0.4119;1.3857;
1294.2000;0.4119;1.3810;
1294.5000;0.4143;1.3810;
1294.8000;0.4111;1.3810;
1295.1000;0.4119;1.3787;
1295.4000;0.4176;1.3880;
1295.7000;0.4127;1.3834;
1296.0000;0.4127;1.3927;
1296.3000;0.4151;1.4068;
1296.6000;0.4135;1.3951;
1296.9000;0.4127;1.3857;
1297.2000;0.4135;1.3904;
1297.5000;0.4151;1.3951;
1297.8000;0.4086;1.3857;
1298.1000;0.4127;1.3974;
1298.4000;0.4135;1.3904;
1298.7000;0.4111;1.3810;
1299.0000;0.4151;1.3857;
1299.3000;0.4127;1.3787;
1299.6000;0.4135;1.3716;
1299.9000;0.4094;1.3646;
1300.2000;0.4119;1.3716;
1300.5000;0.4127;1.3576;
1300.8000;0.4127;1.3552;
1301.1000;0.4135;1.3623;
1301.4000;0.4143;1.3693;
1301.7000;0.4005;1.3412;
1302.0000;0.4168;1.3787;
1302.3000;0.4176;1.3646;
1302.6000;0.4127;1.3482;
1302.9000;0.4168;1.3623;
1303.2000;0.4143;1.3646;
1303.5000;0.4127;1.3576;
1303.8000;0.4143;1.3552;
1304.1000;0.4094;1.3482;
1304.4000;0.4151;1.3646;
1304.7000;0.4127;1.3576;
1305.0000;0.4127;1.3505;
1305.3000;0.4208;1.3716;
1305.6000;0.4143;1.3482;
1305.9000;0.4135;1.3435;
1306.2000;0.4127;1.3388;
1306.5000;0.4119;1.3435;
1306.8000;0.4070;1.3294;
1307.1000;0.4143;1.3505;
1307.4000;0.4119;1.3412;
1307.7000;0.4143;1.3435;
1308.0000;0.4168;1.3505;
1308.3000;0.4127;1.3505;
1308.6000;0.4111;1.3458;
1308.9000;0.4127;1.3482;
1309.2000;0.4127;1.3529;
1309.5000;0.4119;1.3552;
1309.8000;0.4151;1.3623;
1310.1000;0.4119;1.3552;
1310.4000;0.4111;1.3623;
1310.7000;0.4160;1.3834;
1311.0000;0.4127;1.3787;
1311.3000;0.4094;1.3810;
1311.6000;0.4127;1.3834;
1311.9000;0.4119;1.3787;
1312.2000;0.4168;1.3927;
1312.5000;0.4151;1.3857;
1312.8000;0.4143;1.3880;
1313.1000;0.4143;1.3927;
1313.4000;0.4127;1.3880;
1313.7000;0.4135;1.3857;
1314.0000;0.4111;1.3857;
1314.3000;0.4143;1.3927;
1314.6000;0.4160;1.3880;
1314.9000;0.4143;1.3763;
1315.2000;0.4111;1.3693;
1315.5000;0.4184;1.3927;
1315.8000;0.4127;1.3787;
1316.1000;0.4135;1.3623;
1316.4000;0.4184;1.3669;
1316.7000;0.4143;1.3576;
1317.0000;0.4143;1.3599;
1317.3000;0.4143;1.3552;
1317.6000;0.4070;1.3435;
1317.9000;0.4143;1.3552;
1318.2000;0.4160;1.3505;
1318.5000;0.4143;1.3412;
1318.8000;0.4143;1.3435;
1319.1000;0.4135;1.3388;
1319.4000;0.4143;1.3435;
1319.7000;0.4135;1.3505;
1320.0000;0.4127;1.3576;
1320.3000;0.4135;1.3623;
1320.6000;0.4119;1.3576;
1320.9000;0.4094;1.3623;
1321.2000;0.4119;1.3669;
1321.5000;0.4086;1.3576;
1321.8000;0.4103;1.3740;
1322.1000;0.4135;1.3834;
1322.4000;0.4143;1.3810;
1322.7000;0.4103;1.3763;
1323.0000;0.4119;1.3810;
1323.3000;0.4151;1.3880;
1323.6000;0.4143;1.3834;
1323.9000;0.4127;1.3810;
1324.2000;0.4151;1.3810;
1324.5000;0.4119;1.3693;
1324.8000;0.4135;1.3669;
1325.1000;0.4111;1.3669;
1325.4000;0.4119;1.3669;
1325.7000;0.4127;1.3693;
1326.0000;0.4135;1.3740;
1326.3000;0.4143;1.3857;
1326.6000;0.4119;1.3974;
1326.9000;0.4119;1.4021;
1327.2000;0.4119;1.3974;
1327.5000;0.4135;1.3974;
1327.8000;0.4111;1.3951;
1328.1000;0.4070;1.3763;
1328.4000;0.4127;1.3857;
1328.7000;0.4143;1.3927;
1329.0000;0.4151;1.3904;
1329.3000;0.4119;1.3787;
1329.6000;0.4176;1.3904;
1329.9000;0.4135;1.3740;
1330.2000;0.4119;1.3623;
1330.5000;0.4103;1.3599;
1330.8000;0.4119;1.3669;
1331.1000;0.4127;1.3716;
1331.4000;0.4225;1.3974;
1331.7000;0.4233;1.3998;
1332.0000;0.4119;1.3646;
1332.3000;0.4127;1.3669;
1332.6000;0.4119;1.3669;
1332.9000;0.4200;1.3857;
1333.2000;0.4160;1.3810;
1333.5000;0.4119;1.3810;
1333.8000;0.4135;1.3857;
1334.1000;0.4046;1.3646;
1334.4000;0.4160;1.3880;
1334.7000;0.4143;1.3880;
1335.0000;0.4046;1.3740;
1335.3000;0.4111;1.3880;
1335.6000;0.4143;1.3810;
1335.9000;0.4127;1.3693;
1336.2000;0.4168;1.3787;
1336.5000;0.4135;1.3646;
1336.8000;0.4127;1.3623;
1337.1000;0.4103;1.3529;
1337.4000;0.4127;1.3599;
1337.7000;0.4143;1.3669;
1338.0000;0.4119;1.3623;
1338.3000;0.4111;1.3646;
1338.6000;0.4127;1.3787;
1338.9000;0.4135;1.3857;
1339.2000;0.4135;1.3834;
1339.5000;0.4208;1.4045;
1339.8000;0.4135;1.3834;
1340.1000;0.4151;1.3834;
1340.4000;0.4143;1.3740;
1340.7000;0.4103;1.3669;
1341.0000;0.4127;1.3552;
1341.3000;0.4127;1.3458;
1341.6000;0.4135;1.3529;
1341.9000;0.4111;1.3435;
1342.2000;0.4135;1.3482;
1342.5000;0.4135;1.3623;
1342.8000;0.4143;1.3623;
1343.1000;0.4143;1.3529;
1343.4000;0.4127;1.3458;
1343.7000;0.4127;1.3435;
1344.0000;0.4151;1.3505;
1344.3000;0.4151;1.3482;
1344.6000;0.4127;1.3458;
1344.9000;0.4151;1.3576;
1345.2000;0.4151;1.3669;
1345.5000;0.4143;1.3716;
1345.8000;0.4135;1.3693;
1346.1000;0.4135;1.3623;
1346.4000;0.4135;1.3599;
1346.7000;0.4143;1.3646;
1347.0000;0.4054;1.3435;
1347.3000;0.4143;1.3716;
1347.6000;0.4135;1.3740;
1347.9000;0.4086;1.3669;
1348.2000;0.4184;1.3880;
1348.5000;0.4111;1.3834;
1348.8000;0.4119;1.3857;
1349.1000;0.4135;1.3857;
1349.4000;0.4143;1.3787;
1349.7000;0.4127;1.3716;
1350.0000;0.4127;1.3646;
1350.3000;0.4127;1.3693;
1350.6000;0.4127;1.3623;
1350.9000;0.4127;1.3576;
1351.2000;0.4160;1.3623;
1351.5000;0.4094;1.3482;
1351.8000;0.4200;1.3787;
1352.1000;0.4094;1.3599;
1352.4000;0.4127;1.3693;
1352.7000;0.4151;1.3810;
1353.0000;0.4143;1.3787;
1353.3000;0.4086;1.3623;
1353.6000;0.4119;1.3646;
1353.9000;0.4127;1.3623;
1354.2000;0.4127;1.3623;
1354.5000;0.4119;1.3599;
1354.8000;0.4119;1.3599;
1355.1000;0.4086;1.3529;
1355.4000;0.4119;1.3716;
1355.7000;0.4151;1.3810;
1356.0000;0.4127;1.3834;
1356.3000;0.4127;1.3716;
1356.6000;0.4127;1.3623;
1356.9000;0.4127;1.3669;
1357.2000;0.4176;1.3810;
1357.5000;0.4127;1.3810;
1357.8000;0.4127;1.3787;
1358.1000;0.4127;1.3810;
1358.4000;0.4111;1.3834;
1358.7000;0.4127;1.3880;
1359.0000;0.4070;1.3787;
1359.3000;0.4119;1.3810;
1359.6000;0.4135;1.3810;
1359.9000;0.4103;1.3763;
1360.2000;0.4127;1.3810;
1360.5000;0.4143;1.3880;
1360.8000;0.4127;1.3857;
1361.1000;0.4119;1.3763;
1361.4000;0.4127;1.3716;
1361.7000;0.4135;1.3599;
1362.0000;0.4135;1.3599;
1362.3000;0.4135;1.3552;
1362.6000;0.4135;1.3529;
1362.9000;0.4143;1.3646;
1363.2000;0.4143;1.3693;
1363.5000;0.4127;1.3716;
1363.8000;0.4143;1.3669;
1364.1000;0.4127;1.3646;
1364.4000;0.4151;1.3646;
1364.7000;0.4151;1.3576;
1365.0000;0.4135;1.3576;
1365.3000;0.4135;1.3623;
1365.6000;0.4127;1.3740;
1365.9000;0.4135;1.3787;
1366.2000;0.4127;1.3763;
1366.5000;0.4127;1.3740;
1366.8000;0.4111;1.3716;
1367.1000;0.4127;1.3740;
1367.4000;0.4111;1.3623;
1367.7000;0.4143;1.3576;
1368.0000;0.4143;1.3576;
1368.3000;0.4127;1.3552;
1368.6000;0.4135;1.3505;
1368.9000;0.4135;1.3623;
1369.2000;0.4127;1.3646;
1369.5000;0.4135;1.3623;
1369.8000;0.4119;1.3646;
1370.1000;0.4176;1.3646;
1370.4000;0.4249;1.3904;
1370.7000;0.4160;1.3763;
1371.0000;0.4184;1.3974;
1371.3000;0.4127;1.3669;
1371.6000;0.4143;1.3740;
1371.9000;0.4151;1.3763;
1372.2000;0.4119;1.3646;
1372.5000;0.4192;1.3904;
1372.8000;0.4143;1.3693;
1373.1000;0.4143;1.3693;
1373.4000;0.4168;1.3834;
1373.7000;0.4135;1.3810;
1374.0000;0.4135;1.3716;
1374.3000;0.4135;1.3740;
1374.6000;0.4111;1.3669;
1374.9000;0.4176;1.3787;
1375.2000;0.4062;1.3529;
1375.5000;0.4135;1.3646;
1375.8000;0.4119;1.3552;
1376.1000;0.4135;1.3552;
1376.4000;0.4111;1.3482;
1376.7000;0.4151;1.3646;
1377.0000;0.4151;1.3646;
1377.3000;0.4135;1.3623;
1377.6000;0.4135;1.3693;
1377.9000;0.4143;1.3646;
1378.2000;0.4119;1.3552;
1378.5000;0.4143;1.3740;
1378.8000;0.4143;1.3763;
1379.1000;0.4135;1.3763;
1379.4000;0.4111;1.3693;
1379.7000;0.4119;1.3599;
1380.0000;0.4143;1.3599;
1380.3000;0.4119;1.3505;
1380.6000;0.4111;1.3505;
1380.9000;0.4127;1.3529;
1381.2000;0.4127;1.3669;
1381.5000;0.4111;1.3646;
1381.8000;0.4135;1.3810;
1382.1000;0.4119;1.3787;
1382.4000;0.4135;1.3740;
1382.7000;0.4119;1.3646;
1383.0000;0.4135;1.3763;
1383.3000;0.4184;1.3974;
1383.6000;0.4192;1.4092;
1383.9000;0.4127;1.3974;
1384.2000;0.4127;1.3904;
1384.5000;0.4160;1.3904;
1384.8000;0.4111;1.3834;
1385.1000;0.4151;1.3904;
1385.4000;0.4151;1.3834;
1385.7000;0.4111;1.3787;
1386.0000;0.4119;1.3787;
1386.3000;0.4143;1.3857;
1386.6000;0.4135;1.3904;
1386.9000;0.4127;1.3904;
1387.2000;0.4103;1.3857;
1387.5000;0.4127;1.3857;
1387.8000;0.4151;1.3857;
1388.1000;0.4070;1.3623;
1388.4000;0.4119;1.3763;
1388.7000;0.4143;1.3716;
1389.0000;0.4119;1.3693;
1389.3000;0.4119;1.3669;
1389.6000;0.4151;1.3693;
1389.9000;0.4135;1.3716;
1390.2000;0.4119;1.3716;
1390.5000;0.4119;1.3787;
1390.8000;0.4127;1.3693;
1391.1000;0.4111;1.3763;
1391.4000;0.4119;1.3787;
1391.7000;0.4135;1.3787;
1392.0000;0.4111;1.3763;
1392.3000;0.4119;1.3716;
1392.6000;0.4127;1.3880;
1392.9000;0.4143;1.3927;
1393.2000;0.4135;1.3927;
1393.5000;0.4119;1.3787;
1393.8000;0.4135;1.3834;
1394.1000;0.4127;1.3951;
1394.4000;0.4135;1.3974;
1394.7000;0.4037;1.3763;
1395.0000;0.4119;1.3904;
1395.3000;0.4119;1.3974;
1395.6000;0.4151;1.3927;
1395.9000;0.4119;1.3857;
1396.2000;0.4119;1.3787;
1396.5000;0.4127;1.3810;
1396.8000;0.4184;1.3834;
1397.1000;0.4135;1.3716;
1397.4000;0.4135;1.3646;
1397.7000;0.4111;1.3576;
1398.0000;0.4135;1.3623;
1398.3000;0.4062;1.3458;
1398.6000;0.4135;1.3623;
1398.9000;0.4111;1.3529;
1399.2000;0.4127;1.3505;
1399.5000;0.4119;1.3505;
1399.8000;0.4086;1.3458;
