time/ms;Fluo/V;P700 deltaI/I x10³;
-199.8000;0.5600;1.4373;
-199.5000;0.5739;1.4771;
-199.2000;0.5665;1.4631;
-198.9000;0.5649;1.4701;
-198.6000;0.5657;1.4701;
-198.3000;0.5633;1.4654;
-198.0000;0.5641;1.4748;
-197.7000;0.5641;1.4678;
-197.4000;0.5641;1.4631;
-197.1000;0.5600;1.4560;
-196.8000;0.5625;1.4631;
-196.5000;0.5592;1.4560;
-196.2000;0.5665;1.4654;
-195.9000;0.5633;1.4560;
-195.6000;0.5690;1.4748;
-195.3000;0.5722;1.4842;
-195.0000;0.5649;1.4748;
-194.7000;0.5657;1.4748;
-194.4000;0.5584;1.4607;
-194.1000;0.5633;1.4725;
-193.8000;0.5625;1.4537;
-193.5000;0.5641;1.4490;
-193.2000;0.5665;1.4514;
-192.9000;0.5665;1.4584;
-192.6000;0.5812;1.5006;
-192.3000;0.5657;1.4560;
-192.0000;0.5649;1.4584;
-191.7000;0.5633;1.4490;
-191.4000;0.5665;1.4607;
-191.1000;0.5649;1.4537;
-190.8000;0.5674;1.4725;
-190.5000;0.5657;1.4748;
-190.2000;0.5674;1.4771;
-189.9000;0.5657;1.4725;
-189.6000;0.5706;1.4771;
-189.3000;0.5641;1.4631;
-189.0000;0.5665;1.4584;
-188.7000;0.5674;1.4514;
-188.4000;0.5633;1.4560;
-188.1000;0.5617;1.4443;
-187.8000;0.5633;1.4443;
-187.5000;0.5600;1.4420;
-187.2000;0.5625;1.4373;
-186.9000;0.5674;1.4420;
-186.6000;0.5674;1.4467;
-186.3000;0.5657;1.4420;
-186.0000;0.5674;1.4443;
-185.7000;0.5665;1.4443;
-185.4000;0.5665;1.4514;
-185.1000;0.5657;1.4537;
-184.8000;0.5649;1.4537;
-184.5000;0.5617;1.4490;
-184.2000;0.5641;1.4584;
-183.9000;0.5641;1.4560;
-183.6000;0.5649;1.4537;
-183.3000;0.5625;1.4467;
-183.0000;0.5665;1.4560;
-182.7000;0.5608;1.4420;
-182.4000;0.5633;1.4467;
-182.1000;0.5649;1.4537;
-181.8000;0.5641;1.4490;
-181.5000;0.5641;1.4514;
-181.2000;0.5657;1.4514;
-180.9000;0.5698;1.4537;
-180.6000;0.5649;1.4326;
-180.3000;0.5649;1.4279;
-180.0000;0.5608;1.4232;
-179.7000;0.5657;1.4396;
-179.4000;0.5641;1.4396;
-179.1000;0.5625;1.4373;
-178.8000;0.5641;1.4373;
-178.5000;0.5665;1.4443;
-178.2000;0.5641;1.4467;
-177.9000;0.5649;1.4443;
-177.6000;0.5633;1.4467;
-177.3000;0.5649;1.4537;
-177.0000;0.5641;1.4467;
-176.7000;0.5649;1.4443;
-176.4000;0.5633;1.4467;
-176.1000;0.5657;1.4467;
-175.8000;0.5665;1.4396;
-175.5000;0.5633;1.4420;
-175.2000;0.5641;1.4420;
-174.9000;0.5665;1.4490;
-174.6000;0.5649;1.4467;
-174.3000;0.5633;1.4420;
-174.0000;0.5657;1.4490;
-173.7000;0.5641;1.4514;
-173.4000;0.5633;1.4514;
-173.1000;0.5649;1.4607;
-172.8000;0.5633;1.4701;
-172.5000;0.5625;1.4701;
-172.2000;0.5633;1.4795;
-171.9000;0.5633;1.4795;
-171.6000;0.5568;1.4654;
-171.3000;0.5625;1.4818;
-171.0000;0.5633;1.4842;
-170.7000;0.5641;1.4818;
-170.4000;0.5592;1.4631;
-170.1000;0.5649;1.4678;
-169.8000;0.5641;1.4725;
-169.5000;0.5649;1.4748;
-169.2000;0.5649;1.4678;
-168.9000;0.5641;1.4631;
-168.6000;0.5641;1.4701;
-168.3000;0.5657;1.4795;
-168.0000;0.5649;1.4748;
-167.7000;0.5633;1.4748;
-167.4000;0.5641;1.4701;
-167.1000;0.5625;1.4654;
-166.8000;0.5641;1.4631;
-166.5000;0.5641;1.4584;
-166.2000;0.5608;1.4514;
-165.9000;0.5625;1.4607;
-165.6000;0.5633;1.4607;
-165.3000;0.5649;1.4654;
-165.0000;0.5649;1.4584;
-164.7000;0.5665;1.4701;
-164.4000;0.5649;1.4678;
-164.1000;0.5657;1.4654;
-163.8000;0.5649;1.4537;
-163.5000;0.5633;1.4467;
-163.2000;0.5690;1.4631;
-162.9000;0.5706;1.4701;
-162.6000;0.5690;1.4795;
-162.3000;0.5633;1.4654;
-162.0000;0.5649;1.4654;
-161.7000;0.5649;1.4631;
-161.4000;0.5633;1.4748;
-161.1000;0.5633;1.4725;
-160.8000;0.5633;1.4607;
-160.5000;0.5600;1.4584;
-160.2000;0.5657;1.4654;
-159.9000;0.5649;1.4654;
-159.6000;0.5633;1.4631;
-159.3000;0.5657;1.4725;
-159.0000;0.5665;1.4654;
-158.7000;0.5641;1.4701;
-158.4000;0.5657;1.4748;
-158.1000;0.5641;1.4795;
-157.8000;0.5641;1.4771;
-157.5000;0.5665;1.4725;
-157.2000;0.5633;1.4631;
-156.9000;0.5633;1.4678;
-156.6000;0.5641;1.4748;
-156.3000;0.5698;1.4818;
-156.0000;0.5625;1.4678;
-155.7000;0.5649;1.4701;
-155.4000;0.5584;1.4514;
-155.1000;0.5657;1.4678;
-154.8000;0.5714;1.4748;
-154.5000;0.5665;1.4678;
-154.2000;0.5674;1.4725;
-153.9000;0.5649;1.4654;
-153.6000;0.5641;1.4537;
-153.3000;0.5633;1.4514;
-153.0000;0.5649;1.4584;
-152.7000;0.5649;1.4631;
-152.4000;0.5649;1.4654;
-152.1000;0.5641;1.4748;
-151.8000;0.5641;1.4748;
-151.5000;0.5665;1.4748;
-151.2000;0.5641;1.4607;
-150.9000;0.5649;1.4584;
-150.6000;0.5657;1.4607;
-150.3000;0.5657;1.4560;
-150.0000;0.5665;1.4607;
-149.7000;0.5600;1.4537;
-149.4000;0.5617;1.4631;
-149.1000;0.5657;1.4771;
-148.8000;0.5649;1.4842;
-148.5000;0.5674;1.4912;
-148.2000;0.5657;1.4842;
-147.9000;0.5625;1.4795;
-147.6000;0.5771;1.5147;
-147.3000;0.5641;1.4818;
-147.0000;0.5641;1.4725;
-146.7000;0.5576;1.4514;
-146.4000;0.5617;1.4654;
-146.1000;0.5641;1.4654;
-145.8000;0.5625;1.4560;
-145.5000;0.5674;1.4771;
-145.2000;0.5633;1.4771;
-144.9000;0.5617;1.4725;
-144.6000;0.5617;1.4654;
-144.3000;0.5641;1.4795;
-144.0000;0.5641;1.4748;
-143.7000;0.5641;1.4748;
-143.4000;0.5665;1.4795;
-143.1000;0.5633;1.4631;
-142.8000;0.5641;1.4607;
-142.5000;0.5633;1.4631;
-142.2000;0.5633;1.4607;
-141.9000;0.5608;1.4631;
-141.6000;0.5641;1.4678;
-141.3000;0.5625;1.4584;
-141.0000;0.5649;1.4631;
-140.7000;0.5649;1.4701;
-140.4000;0.5633;1.4654;
-140.1000;0.5674;1.4678;
-139.8000;0.5641;1.4701;
-139.5000;0.5633;1.4654;
-139.2000;0.5641;1.4654;
-138.9000;0.5633;1.4560;
-138.6000;0.5560;1.4326;
-138.3000;0.5617;1.4514;
-138.0000;0.5617;1.4584;
-137.7000;0.5592;1.4584;
-137.4000;0.5674;1.4818;
-137.1000;0.5649;1.4701;
-136.8000;0.5665;1.4795;
-136.5000;0.5641;1.4678;
-136.2000;0.5641;1.4748;
-135.9000;0.5657;1.4912;
-135.6000;0.5649;1.4936;
-135.3000;0.5763;1.5217;
-135.0000;0.5641;1.4889;
-134.7000;0.5657;1.4889;
-134.4000;0.5665;1.4912;
-134.1000;0.5633;1.4771;
-133.8000;0.5649;1.4701;
-133.5000;0.5641;1.4678;
-133.2000;0.5779;1.4936;
-132.9000;0.5625;1.4537;
-132.6000;0.5641;1.4631;
-132.3000;0.5608;1.4678;
-132.0000;0.5649;1.4771;
-131.7000;0.5600;1.4701;
-131.4000;0.5633;1.4725;
-131.1000;0.5600;1.4584;
-130.8000;0.5649;1.4631;
-130.5000;0.5641;1.4560;
-130.2000;0.5633;1.4514;
-129.9000;0.5633;1.4514;
-129.6000;0.5617;1.4514;
-129.3000;0.5617;1.4584;
-129.0000;0.5633;1.4678;
-128.7000;0.5649;1.4701;
-128.4000;0.5633;1.4631;
-128.1000;0.5641;1.4678;
-127.8000;0.5665;1.4725;
-127.5000;0.5649;1.4631;
-127.2000;0.5649;1.4607;
-126.9000;0.5657;1.4631;
-126.6000;0.5665;1.4654;
-126.3000;0.5657;1.4607;
-126.0000;0.5665;1.4584;
-125.7000;0.5674;1.4584;
-125.4000;0.5657;1.4560;
-125.1000;0.5625;1.4420;
-124.8000;0.5641;1.4420;
-124.5000;0.5665;1.4537;
-124.2000;0.5657;1.4607;
-123.9000;0.5641;1.4537;
-123.6000;0.5617;1.4490;
-123.3000;0.5641;1.4514;
-123.0000;0.5649;1.4607;
-122.7000;0.5617;1.4560;
-122.4000;0.5641;1.4631;
-122.1000;0.5657;1.4631;
-121.8000;0.5649;1.4537;
-121.5000;0.5649;1.4560;
-121.2000;0.5665;1.4631;
-120.9000;0.5657;1.4560;
-120.6000;0.5641;1.4584;
-120.3000;0.5665;1.4537;
-120.0000;0.5633;1.4490;
-119.7000;0.5633;1.4537;
-119.4000;0.5665;1.4631;
-119.1000;0.5641;1.4584;
-118.8000;0.5633;1.4560;
-118.5000;0.5625;1.4584;
-118.2000;0.5600;1.4467;
-117.9000;0.5649;1.4584;
-117.6000;0.5649;1.4560;
-117.3000;0.5641;1.4467;
-117.0000;0.5649;1.4490;
-116.7000;0.5649;1.4514;
-116.4000;0.5649;1.4560;
-116.1000;0.5649;1.4631;
-115.8000;0.5649;1.4654;
-115.5000;0.5665;1.4725;
-115.2000;0.5657;1.4678;
-114.9000;0.5649;1.4607;
-114.6000;0.5649;1.4560;
-114.3000;0.5641;1.4607;
-114.0000;0.5657;1.4654;
-113.7000;0.5641;1.4560;
-113.4000;0.5665;1.4560;
-113.1000;0.5665;1.4560;
-112.8000;0.5657;1.4584;
-112.5000;0.5657;1.4607;
-112.2000;0.5657;1.4678;
-111.9000;0.5657;1.4631;
-111.6000;0.5674;1.4584;
-111.3000;0.5665;1.4514;
-111.0000;0.5665;1.4490;
-110.7000;0.5649;1.4420;
-110.4000;0.5665;1.4396;
-110.1000;0.5649;1.4467;
-109.8000;0.5608;1.4349;
-109.5000;0.5625;1.4443;
-109.2000;0.5657;1.4560;
-108.9000;0.5633;1.4537;
-108.6000;0.5649;1.4584;
-108.3000;0.5649;1.4514;
-108.0000;0.5625;1.4420;
-107.7000;0.5641;1.4443;
-107.4000;0.5633;1.4396;
-107.1000;0.5625;1.4443;
-106.8000;0.5592;1.4373;
-106.5000;0.5657;1.4537;
-106.2000;0.5641;1.4560;
-105.9000;0.5657;1.4584;
-105.6000;0.5674;1.4654;
-105.3000;0.5633;1.4490;
-105.0000;0.5674;1.4514;
-104.7000;0.5674;1.4490;
-104.4000;0.5633;1.4443;
-104.1000;0.5633;1.4420;
-103.8000;0.5649;1.4420;
-103.5000;0.5690;1.4490;
-103.2000;0.5625;1.4373;
-102.9000;0.5641;1.4396;
-102.6000;0.5649;1.4514;
-102.3000;0.5633;1.4560;
-102.0000;0.5633;1.4560;
-101.7000;0.5731;1.4818;
-101.4000;0.5649;1.4631;
-101.1000;0.5633;1.4607;
-100.8000;0.5657;1.4631;
-100.5000;0.5592;1.4490;
-100.2000;0.5641;1.4607;
-99.9000;0.5633;1.4537;
-99.6000;0.5633;1.4537;
-99.3000;0.5649;1.4537;
-99.0000;0.5641;1.4560;
-98.7000;0.5625;1.4537;
-98.4000;0.5633;1.4537;
-98.1000;0.5657;1.4514;
-97.8000;0.5641;1.4467;
-97.5000;0.5649;1.4560;
-97.2000;0.5649;1.4514;
-96.9000;0.5641;1.4490;
-96.6000;0.5633;1.4373;
-96.3000;0.5649;1.4396;
-96.0000;0.5657;1.4420;
-95.7000;0.5665;1.4490;
-95.4000;0.5641;1.4467;
-95.1000;0.5641;1.4467;
-94.8000;0.5625;1.4396;
-94.5000;0.5649;1.4467;
-94.2000;0.5633;1.4420;
-93.9000;0.5649;1.4396;
-93.6000;0.5649;1.4420;
-93.3000;0.5649;1.4443;
-93.0000;0.5657;1.4467;
-92.7000;0.5657;1.4467;
-92.4000;0.5649;1.4420;
-92.1000;0.5657;1.4467;
-91.8000;0.5665;1.4467;
-91.5000;0.5625;1.4420;
-91.2000;0.5600;1.4373;
-90.9000;0.5665;1.4490;
-90.6000;0.5657;1.4560;
-90.3000;0.5641;1.4537;
-90.0000;0.5649;1.4584;
-89.7000;0.5665;1.4584;
-89.4000;0.5665;1.4560;
-89.1000;0.5641;1.4514;
-88.8000;0.5641;1.4584;
-88.5000;0.5674;1.4584;
-88.2000;0.5649;1.4443;
-87.9000;0.5665;1.4490;
-87.6000;0.5649;1.4537;
-87.3000;0.5633;1.4420;
-87.0000;0.5625;1.4443;
-86.7000;0.5657;1.4420;
-86.4000;0.5633;1.4349;
-86.1000;0.5657;1.4420;
-85.8000;0.5649;1.4396;
-85.5000;0.5706;1.4607;
-85.2000;0.5641;1.4467;
-84.9000;0.5682;1.4514;
-84.6000;0.5665;1.4560;
-84.3000;0.5657;1.4584;
-84.0000;0.5641;1.4490;
-83.7000;0.5633;1.4443;
-83.4000;0.5633;1.4443;
-83.1000;0.5625;1.4467;
-82.8000;0.5657;1.4560;
-82.5000;0.5649;1.4607;
-82.2000;0.5641;1.4560;
-81.9000;0.5649;1.4537;
-81.6000;0.5674;1.4584;
-81.3000;0.5625;1.4514;
-81.0000;0.5698;1.4678;
-80.7000;0.5657;1.4537;
-80.4000;0.5649;1.4490;
-80.1000;0.5633;1.4490;
-79.8000;0.5641;1.4490;
-79.5000;0.5617;1.4396;
-79.2000;0.5649;1.4514;
-78.9000;0.5649;1.4537;
-78.6000;0.5674;1.4560;
-78.3000;0.5592;1.4443;
-78.0000;0.5649;1.4420;
-77.7000;0.5633;1.4420;
-77.4000;0.5657;1.4467;
-77.1000;0.5657;1.4443;
-76.8000;0.5641;1.4349;
-76.5000;0.5641;1.4420;
-76.2000;0.5649;1.4443;
-75.9000;0.5674;1.4443;
-75.6000;0.5641;1.4467;
-75.3000;0.5625;1.4490;
-75.0000;0.5625;1.4514;
-74.7000;0.5649;1.4490;
-74.4000;0.5617;1.4467;
-74.1000;0.5649;1.4514;
-73.8000;0.5560;1.4256;
-73.5000;0.5633;1.4349;
-73.2000;0.5657;1.4420;
-72.9000;0.5649;1.4443;
-72.6000;0.5657;1.4537;
-72.3000;0.5649;1.4537;
-72.0000;0.5641;1.4537;
-71.7000;0.5657;1.4584;
-71.4000;0.5625;1.4607;
-71.1000;0.5649;1.4701;
-70.8000;0.5633;1.4654;
-70.5000;0.5649;1.4701;
-70.2000;0.5657;1.4725;
-69.9000;0.5633;1.4725;
-69.6000;0.5633;1.4654;
-69.3000;0.5633;1.4631;
-69.0000;0.5641;1.4654;
-68.7000;0.5633;1.4537;
-68.4000;0.5649;1.4420;
-68.1000;0.5633;1.4373;
-67.8000;0.5657;1.4326;
-67.5000;0.5665;1.4256;
-67.2000;0.5649;1.4279;
-66.9000;0.5665;1.4349;
-66.6000;0.5690;1.4420;
-66.3000;0.5633;1.4420;
-66.0000;0.5633;1.4420;
-65.7000;0.5617;1.4373;
-65.4000;0.5641;1.4443;
-65.1000;0.5608;1.4490;
-64.8000;0.5633;1.4467;
-64.5000;0.5657;1.4467;
-64.2000;0.5625;1.4349;
-63.9000;0.5657;1.4420;
-63.6000;0.5641;1.4373;
-63.3000;0.5682;1.4443;
-63.0000;0.5665;1.4420;
-62.7000;0.5706;1.4467;
-62.4000;0.5665;1.4490;
-62.1000;0.5641;1.4396;
-61.8000;0.5657;1.4443;
-61.5000;0.5657;1.4443;
-61.2000;0.5682;1.4631;
-60.9000;0.5641;1.4537;
-60.6000;0.5519;1.4185;
-60.3000;0.5617;1.4396;
-60.0000;0.5633;1.4349;
-59.7000;0.5698;1.4560;
-59.4000;0.5641;1.4326;
-59.1000;0.5608;1.4256;
-58.8000;0.5633;1.4373;
-58.5000;0.5657;1.4443;
-58.2000;0.5641;1.4420;
-57.9000;0.5649;1.4443;
-57.6000;0.5617;1.4420;
-57.3000;0.5649;1.4443;
-57.0000;0.5625;1.4443;
-56.7000;0.5657;1.4396;
-56.4000;0.5641;1.4373;
-56.1000;0.5641;1.4420;
-55.8000;0.5657;1.4396;
-55.5000;0.5641;1.4373;
-55.2000;0.5665;1.4420;
-54.9000;0.5674;1.4420;
-54.6000;0.5625;1.4349;
-54.3000;0.5592;1.4373;
-54.0000;0.5641;1.4514;
-53.7000;0.5641;1.4560;
-53.4000;0.5625;1.4490;
-53.1000;0.5641;1.4537;
-52.8000;0.5625;1.4490;
-52.5000;0.5649;1.4537;
-52.2000;0.5665;1.4584;
-51.9000;0.5592;1.4537;
-51.6000;0.5649;1.4654;
-51.3000;0.5657;1.4654;
-51.0000;0.5665;1.4701;
-50.7000;0.5649;1.4654;
-50.4000;0.5657;1.4631;
-50.1000;0.5649;1.4584;
-49.8000;0.5657;1.4607;
-49.5000;0.5625;1.4443;
-49.2000;0.5625;1.4396;
-48.9000;0.5665;1.4443;
-48.6000;0.5649;1.4396;
-48.3000;0.5649;1.4256;
-48.0000;0.5714;1.4326;
-47.7000;0.5649;1.4162;
-47.4000;0.5633;1.4138;
-47.1000;0.5706;1.4326;
-46.8000;0.5665;1.4209;
-46.5000;0.5763;1.4467;
-46.2000;0.5698;1.4279;
-45.9000;0.5657;1.4232;
-45.6000;0.5649;1.4256;
-45.3000;0.5641;1.4232;
-45.0000;0.5568;1.4068;
-44.7000;0.5657;1.4349;
-44.4000;0.5584;1.4185;
-44.1000;0.5714;1.4396;
-43.8000;0.5633;1.4209;
-43.5000;0.5674;1.4326;
-43.2000;0.5690;1.4420;
-42.9000;0.5649;1.4349;
-42.6000;0.5592;1.4303;
-42.3000;0.5641;1.4467;
-42.0000;0.5674;1.4467;
-41.7000;0.5649;1.4373;
-41.4000;0.5617;1.4349;
-41.1000;0.5641;1.4420;
-40.8000;0.5649;1.4537;
-40.5000;0.5657;1.4467;
-40.2000;0.5641;1.4467;
-39.9000;0.5641;1.4467;
-39.6000;0.5633;1.4560;
-39.3000;0.5641;1.4584;
-39.0000;0.5641;1.4560;
-38.7000;0.5665;1.4631;
-38.4000;0.5625;1.4584;
-38.1000;0.5657;1.4631;
-37.8000;0.5633;1.4560;
-37.5000;0.5641;1.4584;
-37.2000;0.5649;1.4514;
-36.9000;0.5657;1.4537;
-36.6000;0.5625;1.4537;
-36.3000;0.5641;1.4443;
-36.0000;0.5633;1.4420;
-35.7000;0.5641;1.4396;
-35.4000;0.5657;1.4349;
-35.1000;0.5714;1.4537;
-34.8000;0.5633;1.4279;
-34.5000;0.5625;1.4232;
-34.2000;0.5633;1.4232;
-33.9000;0.5633;1.4303;
-33.6000;0.5641;1.4349;
-33.3000;0.5649;1.4349;
-33.0000;0.5617;1.4349;
-32.7000;0.5649;1.4420;
-32.4000;0.5641;1.4420;
-32.1000;0.5641;1.4514;
-31.8000;0.5657;1.4584;
-31.5000;0.5674;1.4725;
-31.2000;0.5649;1.4560;
-30.9000;0.5649;1.4560;
-30.6000;0.5649;1.4443;
-30.3000;0.5674;1.4537;
-30.0000;0.5641;1.4560;
-29.7000;0.5641;1.4490;
-29.4000;0.5649;1.4560;
-29.1000;0.5641;1.4514;
-28.8000;0.5625;1.4420;
-28.5000;0.5633;1.4396;
-28.2000;0.5625;1.4373;
-27.9000;0.5633;1.4373;
-27.6000;0.5641;1.4279;
-27.3000;0.5706;1.4560;
-27.0000;0.5674;1.4467;
-26.7000;0.5633;1.4420;
-26.4000;0.5625;1.4349;
-26.1000;0.5649;1.4467;
-25.8000;0.5649;1.4490;
-25.5000;0.5690;1.4607;
-25.2000;0.5641;1.4560;
-24.9000;0.5674;1.4537;
-24.6000;0.5617;1.4349;
-24.3000;0.5641;1.4420;
-24.0000;0.5617;1.4349;
-23.7000;0.5633;1.4373;
-23.4000;0.5608;1.4232;
-23.1000;0.5608;1.4232;
-22.8000;0.5633;1.4326;
-22.5000;0.5657;1.4396;
-22.2000;0.5633;1.4303;
-21.9000;0.5665;1.4326;
-21.6000;0.5649;1.4303;
-21.3000;0.5657;1.4303;
-21.0000;0.5641;1.4279;
-20.7000;0.5649;1.4396;
-20.4000;0.5625;1.4373;
-20.1000;0.5641;1.4396;
-19.8000;0.5633;1.4349;
-19.5000;0.5674;1.4420;
-19.2000;0.5674;1.4396;
-18.9000;0.5657;1.4326;
-18.6000;0.5633;1.4303;
-18.3000;0.5657;1.4279;
-18.0000;0.5625;1.4256;
-17.7000;0.5527;1.3951;
-17.4000;0.5657;1.4256;
-17.1000;0.5682;1.4396;
-16.8000;0.5641;1.4349;
-16.5000;0.5657;1.4349;
-16.2000;0.5649;1.4279;
-15.9000;0.5665;1.4396;
-15.6000;0.5665;1.4420;
-15.3000;0.5641;1.4467;
-15.0000;0.5657;1.4490;
-14.7000;0.5657;1.4396;
-14.4000;0.5633;1.4326;
-14.1000;0.5649;1.4373;
-13.8000;0.5649;1.4303;
-13.5000;0.5641;1.4185;
-13.2000;0.5649;1.4185;
-12.9000;0.5617;1.4115;
-12.6000;0.5665;1.4209;
-12.3000;0.5665;1.4185;
-12.0000;0.5657;1.4068;
-11.7000;0.5657;1.4115;
-11.4000;0.5657;1.4256;
-11.1000;0.5649;1.4256;
-10.8000;0.5633;1.4303;
-10.5000;0.5649;1.4326;
-10.2000;0.5657;1.4326;
-9.9000;0.5633;1.4232;
-9.6000;0.5617;1.4185;
-9.3000;0.5625;1.4232;
-9.0000;0.5657;1.4303;
-8.7000;0.5625;1.4209;
-8.4000;0.5649;1.4373;
-8.1000;0.5617;1.4256;
-7.8000;0.5649;1.4396;
-7.5000;0.5617;1.4256;
-7.2000;0.5641;1.4326;
-6.9000;0.5625;1.4303;
-6.6000;0.5617;1.4162;
-6.3000;0.5641;1.4326;
-6.0000;0.5633;1.4303;
-5.7000;0.5649;1.4349;
-5.4000;0.5641;1.4349;
-5.1000;0.5633;1.4396;
-4.8000;0.5674;1.4467;
-4.5000;0.5641;1.4349;
-4.2000;0.5657;1.4303;
-3.9000;0.5649;1.4232;
-3.6000;0.5690;1.4396;
-3.3000;0.5657;1.4373;
-3.0000;0.5641;1.4420;
-2.7000;0.5657;1.4420;
-2.4000;0.5665;1.4420;
-2.1000;0.5649;1.4279;
-1.8000;0.5625;1.4209;
-1.5000;0.5568;1.4115;
-1.2000;0.5625;1.4279;
-0.9000;0.5633;1.4279;
-0.6000;0.5641;1.4279;
-0.3000;0.5641;1.4209;
0.0000;0.5641;1.4209;
0.3000;0.5731;1.4115;
0.6000;0.5861;1.4514;
0.9000;0.5950;1.4936;
1.2000;0.5999;1.5240;
1.5000;0.6097;1.5733;
1.8000;0.6146;1.6014;
2.1000;0.6146;1.6084;
2.4000;0.6203;1.6413;
2.7000;0.6268;1.6530;
3.0000;0.6276;1.6600;
3.3000;0.6284;1.6694;
3.6000;0.6390;1.7022;
3.9000;0.6325;1.6905;
4.2000;0.6349;1.7069;
4.5000;0.6365;1.7186;
4.8000;0.6374;1.7163;
5.1000;0.6374;1.7210;
5.4000;0.6414;1.7304;
5.7000;0.6431;1.7304;
6.0000;0.6422;1.7233;
6.3000;0.6439;1.7280;
6.6000;0.6439;1.7280;
6.9000;0.6422;1.7233;
7.2000;0.6463;1.7327;
7.5000;0.6455;1.7257;
7.8000;0.6431;1.7046;
8.1000;0.6463;1.7140;
8.4000;0.6479;1.7093;
8.7000;0.6479;1.7210;
9.0000;0.6471;1.7163;
9.3000;0.6536;1.7327;
9.6000;0.6504;1.7280;
9.9000;0.6504;1.7257;
10.2000;0.6561;1.7351;
10.5000;0.6512;1.7210;
10.8000;0.6650;1.7491;
11.1000;0.6512;1.7186;
11.4000;0.6512;1.7163;
11.7000;0.6545;1.7327;
12.0000;0.6536;1.7327;
12.3000;0.6545;1.7280;
12.6000;0.6545;1.7186;
12.9000;0.6528;1.7257;
13.2000;0.6536;1.7304;
13.5000;0.6569;1.7397;
13.8000;0.6553;1.7374;
14.1000;0.6536;1.7397;
14.4000;0.6545;1.7444;
14.7000;0.6553;1.7421;
15.0000;0.6569;1.7374;
15.3000;0.6561;1.7351;
15.6000;0.6577;1.7444;
15.9000;0.6569;1.7397;
16.2000;0.6569;1.7397;
16.5000;0.6577;1.7468;
16.8000;0.6593;1.7538;
17.1000;0.6593;1.7515;
17.4000;0.6610;1.7397;
17.7000;0.6593;1.7304;
18.0000;0.6593;1.7351;
18.3000;0.6593;1.7351;
18.6000;0.6610;1.7421;
18.9000;0.6577;1.7374;
19.2000;0.6593;1.7421;
19.5000;0.6634;1.7562;
19.8000;0.6561;1.7351;
20.1000;0.6593;1.7374;
20.4000;0.6593;1.7351;
20.7000;0.6610;1.7257;
21.0000;0.6610;1.7210;
21.3000;0.6610;1.7233;
21.6000;0.6626;1.7210;
21.9000;0.6610;1.7163;
22.2000;0.6618;1.7210;
22.5000;0.6626;1.7257;
22.8000;0.6610;1.7210;
23.1000;0.6618;1.7163;
23.4000;0.6618;1.7233;
23.7000;0.6610;1.7257;
24.0000;0.6626;1.7351;
24.3000;0.6634;1.7351;
24.6000;0.6642;1.7374;
24.9000;0.6610;1.7327;
25.2000;0.6618;1.7257;
25.5000;0.6626;1.7257;
25.8000;0.6626;1.7233;
26.1000;0.6610;1.7186;
26.4000;0.6634;1.7257;
26.7000;0.6634;1.7257;
27.0000;0.6642;1.7257;
27.3000;0.6634;1.7233;
27.6000;0.6593;1.7186;
27.9000;0.6659;1.7351;
28.2000;0.6642;1.7397;
28.5000;0.6626;1.7444;
28.8000;0.6642;1.7491;
29.1000;0.6659;1.7562;
29.4000;0.6626;1.7562;
29.7000;0.6634;1.7585;
30.0000;0.6618;1.7491;
30.3000;0.6626;1.7491;
30.6000;0.6659;1.7491;
30.9000;0.6634;1.7374;
31.2000;0.6593;1.7210;
31.5000;0.6650;1.7374;
31.8000;0.6699;1.7421;
32.1000;0.6650;1.7304;
32.4000;0.6650;1.7374;
32.7000;0.6626;1.7351;
33.0000;0.6650;1.7374;
33.3000;0.6659;1.7468;
33.6000;0.6634;1.7397;
33.9000;0.6642;1.7397;
34.2000;0.6642;1.7515;
34.5000;0.6716;1.7585;
34.8000;0.6667;1.7421;
35.1000;0.6667;1.7444;
35.4000;0.6675;1.7468;
35.7000;0.6659;1.7421;
36.0000;0.6659;1.7421;
36.3000;0.6642;1.7351;
36.6000;0.6618;1.7304;
36.9000;0.6683;1.7491;
37.2000;0.6634;1.7351;
37.5000;0.6683;1.7468;
37.8000;0.6732;1.7491;
38.1000;0.6675;1.7327;
38.4000;0.6675;1.7304;
38.7000;0.6675;1.7304;
39.0000;0.6675;1.7280;
39.3000;0.6691;1.7280;
39.6000;0.6667;1.7257;
39.9000;0.6650;1.7140;
40.2000;0.6650;1.7163;
40.5000;0.6618;1.7093;
40.8000;0.6659;1.7210;
41.1000;0.6667;1.7233;
41.4000;0.6659;1.7233;
41.7000;0.6683;1.7280;
42.0000;0.6642;1.7186;
42.3000;0.6683;1.7257;
42.6000;0.6683;1.7327;
42.9000;0.6650;1.7186;
43.2000;0.6659;1.7257;
43.5000;0.6650;1.7186;
43.8000;0.6642;1.7233;
44.1000;0.6659;1.7233;
44.4000;0.6683;1.7140;
44.7000;0.6683;1.7186;
45.0000;0.6683;1.7233;
45.3000;0.6667;1.7186;
45.6000;0.6707;1.7210;
45.9000;0.6675;1.7116;
46.2000;0.6667;1.7140;
46.5000;0.6732;1.7233;
46.8000;0.6683;1.7210;
47.1000;0.6691;1.7280;
47.4000;0.6618;1.7093;
47.7000;0.6675;1.7304;
48.0000;0.6683;1.7280;
48.3000;0.6699;1.7351;
48.6000;0.6667;1.7327;
48.9000;0.6642;1.7351;
49.2000;0.6659;1.7444;
49.5000;0.6691;1.7538;
49.8000;0.6667;1.7538;
50.1000;0.6707;1.7609;
50.4000;0.6683;1.7491;
50.7000;0.6667;1.7444;
51.0000;0.6659;1.7351;
51.3000;0.6675;1.7444;
51.6000;0.6650;1.7304;
51.9000;0.6675;1.7304;
52.2000;0.6691;1.7351;
52.5000;0.6667;1.7210;
52.8000;0.6659;1.7163;
53.1000;0.6659;1.7210;
53.4000;0.6659;1.7233;
53.7000;0.6683;1.7304;
54.0000;0.6634;1.7210;
54.3000;0.6683;1.7233;
54.6000;0.6699;1.7327;
54.9000;0.6667;1.7257;
55.2000;0.6691;1.7351;
55.5000;0.6683;1.7280;
55.8000;0.6716;1.7327;
56.1000;0.6683;1.7233;
56.4000;0.6626;1.7140;
56.7000;0.6667;1.7210;
57.0000;0.6683;1.7233;
57.3000;0.6659;1.7351;
57.6000;0.6683;1.7374;
57.9000;0.6683;1.7397;
58.2000;0.6683;1.7397;
58.5000;0.6691;1.7397;
58.8000;0.6691;1.7421;
59.1000;0.6675;1.7351;
59.4000;0.6675;1.7304;
59.7000;0.6683;1.7397;
60.0000;0.6683;1.7421;
60.3000;0.6683;1.7491;
60.6000;0.6707;1.7562;
60.9000;0.6691;1.7538;
61.2000;0.6699;1.7538;
61.5000;0.6699;1.7515;
61.8000;0.6675;1.7421;
62.1000;0.6675;1.7374;
62.4000;0.6691;1.7421;
62.7000;0.6691;1.7444;
63.0000;0.6691;1.7468;
63.3000;0.6618;1.7186;
63.6000;0.6740;1.7515;
63.9000;0.6675;1.7351;
64.2000;0.6675;1.7421;
64.5000;0.6716;1.7421;
64.8000;0.6691;1.7327;
65.1000;0.6683;1.7351;
65.4000;0.6667;1.7374;
65.7000;0.6707;1.7538;
66.0000;0.6675;1.7468;
66.3000;0.6683;1.7327;
66.6000;0.6699;1.7233;
66.9000;0.6699;1.7327;
67.2000;0.6691;1.7304;
67.5000;0.6659;1.7233;
67.8000;0.6683;1.7327;
68.1000;0.6667;1.7257;
68.4000;0.6683;1.7351;
68.7000;0.6699;1.7468;
69.0000;0.6675;1.7421;
69.3000;0.6667;1.7421;
69.6000;0.6650;1.7374;
69.9000;0.6683;1.7468;
70.2000;0.6683;1.7538;
70.5000;0.6675;1.7421;
70.8000;0.6683;1.7397;
71.1000;0.6699;1.7468;
71.4000;0.6707;1.7538;
71.7000;0.6683;1.7421;
72.0000;0.6699;1.7374;
72.3000;0.6659;1.7280;
72.6000;0.6642;1.7257;
72.9000;0.6675;1.7327;
73.2000;0.6699;1.7304;
73.5000;0.6618;1.7140;
73.8000;0.6667;1.7233;
74.1000;0.6667;1.7186;
74.4000;0.6667;1.7186;
74.7000;0.6626;1.7069;
75.0000;0.6675;1.7186;
75.3000;0.6667;1.7210;
75.6000;0.6691;1.7280;
75.9000;0.6675;1.7140;
76.2000;0.6683;1.7069;
76.5000;0.6683;1.7093;
76.8000;0.6691;1.6975;
77.1000;0.6675;1.6952;
77.4000;0.6667;1.7022;
77.7000;0.6659;1.7022;
78.0000;0.6659;1.7046;
78.3000;0.6691;1.7233;
78.6000;0.6667;1.7116;
78.9000;0.6659;1.7116;
79.2000;0.6691;1.7210;
79.5000;0.6691;1.7163;
79.8000;0.6683;1.7069;
80.1000;0.6683;1.7140;
80.4000;0.6699;1.7233;
80.7000;0.6675;1.7186;
81.0000;0.6667;1.7233;
81.3000;0.6707;1.7374;
81.6000;0.6716;1.7397;
81.9000;0.6691;1.7444;
82.2000;0.6707;1.7397;
82.5000;0.6691;1.7421;
82.8000;0.6683;1.7397;
83.1000;0.6618;1.7280;
83.4000;0.6691;1.7374;
83.7000;0.6691;1.7397;
84.0000;0.6691;1.7444;
84.3000;0.6683;1.7397;
84.6000;0.6748;1.7468;
84.9000;0.6667;1.7233;
85.2000;0.6691;1.7280;
85.5000;0.6675;1.7140;
85.8000;0.6699;1.7186;
86.1000;0.6667;1.7116;
86.4000;0.6691;1.7257;
86.7000;0.6683;1.7327;
87.0000;0.6683;1.7374;
87.3000;0.6691;1.7351;
87.6000;0.6691;1.7374;
87.9000;0.6691;1.7421;
88.2000;0.6707;1.7351;
88.5000;0.6699;1.7397;
88.8000;0.6675;1.7280;
89.1000;0.6675;1.7327;
89.4000;0.6675;1.7327;
89.7000;0.6699;1.7397;
90.0000;0.6683;1.7351;
90.3000;0.6691;1.7327;
90.6000;0.6699;1.7421;
90.9000;0.6699;1.7491;
91.2000;0.6691;1.7444;
91.5000;0.6683;1.7421;
91.8000;0.6699;1.7491;
92.1000;0.6691;1.7468;
92.4000;0.6691;1.7491;
92.7000;0.6699;1.7421;
93.0000;0.6675;1.7374;
93.3000;0.6699;1.7374;
93.6000;0.6716;1.7374;
93.9000;0.6683;1.7374;
94.2000;0.6683;1.7374;
94.5000;0.6691;1.7468;
94.8000;0.6683;1.7468;
95.1000;0.6667;1.7444;
95.4000;0.6667;1.7444;
95.7000;0.6675;1.7374;
96.0000;0.6683;1.7374;
96.3000;0.6675;1.7374;
96.6000;0.6675;1.7351;
96.9000;0.6675;1.7421;
97.2000;0.6716;1.7468;
97.5000;0.6699;1.7421;
97.8000;0.6675;1.7397;
98.1000;0.6691;1.7444;
98.4000;0.6707;1.7397;
98.7000;0.6667;1.7280;
99.0000;0.6626;1.7186;
99.3000;0.6675;1.7327;
99.6000;0.6683;1.7374;
99.9000;0.6659;1.7233;
100.2000;0.6707;1.7421;
100.5000;0.6667;1.7351;
100.8000;0.6667;1.7280;
101.1000;0.6667;1.7186;
101.4000;0.6675;1.7233;
101.7000;0.6659;1.7280;
102.0000;0.6683;1.7421;
102.3000;0.6675;1.7421;
102.6000;0.6675;1.7374;
102.9000;0.6634;1.7233;
103.2000;0.6797;1.7632;
103.5000;0.6683;1.7327;
103.8000;0.6699;1.7421;
104.1000;0.6683;1.7421;
104.4000;0.6683;1.7351;
104.7000;0.6667;1.7397;
105.0000;0.6650;1.7374;
105.3000;0.6675;1.7351;
105.6000;0.6683;1.7327;
105.9000;0.6659;1.7257;
106.2000;0.6683;1.7374;
106.5000;0.6683;1.7257;
106.8000;0.6667;1.7257;
107.1000;0.6618;1.7163;
107.4000;0.6707;1.7491;
107.7000;0.6699;1.7491;
108.0000;0.6699;1.7374;
108.3000;0.6732;1.7374;
108.6000;0.6683;1.7421;
108.9000;0.6699;1.7562;
109.2000;0.6667;1.7538;
109.5000;0.6764;1.7702;
109.8000;0.6699;1.7421;
110.1000;0.6667;1.7374;
110.4000;0.6699;1.7421;
110.7000;0.6699;1.7468;
111.0000;0.6642;1.7397;
111.3000;0.6618;1.7351;
111.6000;0.6691;1.7444;
111.9000;0.6659;1.7421;
112.2000;0.6683;1.7515;
112.5000;0.6732;1.7679;
112.8000;0.6667;1.7468;
113.1000;0.6683;1.7515;
113.4000;0.6675;1.7468;
113.7000;0.6691;1.7397;
114.0000;0.6707;1.7374;
114.3000;0.6691;1.7421;
114.6000;0.6683;1.7374;
114.9000;0.6699;1.7374;
115.2000;0.6691;1.7374;
115.5000;0.6675;1.7374;
115.8000;0.6691;1.7327;
116.1000;0.6683;1.7327;
116.4000;0.6699;1.7257;
116.7000;0.6691;1.7327;
117.0000;0.6659;1.7210;
117.3000;0.6683;1.7280;
117.6000;0.6691;1.7327;
117.9000;0.6691;1.7397;
118.2000;0.6683;1.7374;
118.5000;0.6691;1.7374;
118.8000;0.6691;1.7327;
119.1000;0.6659;1.7280;
119.4000;0.6699;1.7257;
119.7000;0.6707;1.7210;
120.0000;0.6683;1.7257;
120.3000;0.6707;1.7421;
120.6000;0.6781;1.7585;
120.9000;0.6683;1.7468;
121.2000;0.6667;1.7351;
121.5000;0.6707;1.7351;
121.8000;0.6699;1.7374;
122.1000;0.6683;1.7304;
122.4000;0.6675;1.7304;
122.7000;0.6675;1.7351;
123.0000;0.6683;1.7374;
123.3000;0.6691;1.7397;
123.6000;0.6659;1.7327;
123.9000;0.6667;1.7257;
124.2000;0.6667;1.7280;
124.5000;0.6667;1.7280;
124.8000;0.6667;1.7280;
125.1000;0.6675;1.7304;
125.4000;0.6756;1.7491;
125.7000;0.6634;1.7257;
126.0000;0.6675;1.7374;
126.3000;0.6675;1.7397;
126.6000;0.6683;1.7327;
126.9000;0.6667;1.7280;
127.2000;0.6659;1.7280;
127.5000;0.6659;1.7233;
127.8000;0.6683;1.7374;
128.1000;0.6691;1.7374;
128.4000;0.6667;1.7351;
128.7000;0.6683;1.7397;
129.0000;0.6683;1.7444;
129.3000;0.6683;1.7444;
129.6000;0.6683;1.7397;
129.9000;0.6756;1.7421;
130.2000;0.6642;1.7186;
130.5000;0.6667;1.7163;
130.8000;0.6691;1.7233;
131.1000;0.6691;1.7351;
131.4000;0.6691;1.7374;
131.7000;0.6699;1.7421;
132.0000;0.6683;1.7374;
132.3000;0.6683;1.7327;
132.6000;0.6659;1.7257;
132.9000;0.6659;1.7327;
133.2000;0.6691;1.7351;
133.5000;0.6748;1.7397;
133.8000;0.6667;1.7186;
134.1000;0.6675;1.7233;
134.4000;0.6667;1.7304;
134.7000;0.6691;1.7397;
135.0000;0.6683;1.7421;
135.3000;0.6683;1.7468;
135.6000;0.6699;1.7538;
135.9000;0.6699;1.7538;
136.2000;0.6716;1.7585;
136.5000;0.6667;1.7538;
136.8000;0.6683;1.7538;
137.1000;0.6707;1.7655;
137.4000;0.6691;1.7632;
137.7000;0.6699;1.7609;
138.0000;0.6667;1.7491;
138.3000;0.6683;1.7538;
138.6000;0.6667;1.7491;
138.9000;0.6675;1.7468;
139.2000;0.6683;1.7444;
139.5000;0.6667;1.7515;
139.8000;0.6683;1.7515;
140.1000;0.6642;1.7562;
140.4000;0.6683;1.7538;
140.7000;0.6675;1.7562;
141.0000;0.6683;1.7585;
141.3000;0.6691;1.7609;
141.6000;0.6764;1.7796;
141.9000;0.6667;1.7491;
142.2000;0.6683;1.7468;
142.5000;0.6667;1.7444;
142.8000;0.6691;1.7468;
143.1000;0.6675;1.7468;
143.4000;0.6675;1.7421;
143.7000;0.6634;1.7374;
144.0000;0.6659;1.7444;
144.3000;0.6667;1.7397;
144.6000;0.6626;1.7327;
144.9000;0.6699;1.7468;
145.2000;0.6707;1.7538;
145.5000;0.6683;1.7491;
145.8000;0.6683;1.7444;
146.1000;0.6577;1.7140;
146.4000;0.6691;1.7421;
146.7000;0.6675;1.7468;
147.0000;0.6732;1.7655;
147.3000;0.6675;1.7468;
147.6000;0.6675;1.7538;
147.9000;0.6675;1.7562;
148.2000;0.6675;1.7538;
148.5000;0.6675;1.7515;
148.8000;0.6707;1.7421;
149.1000;0.6716;1.7397;
149.4000;0.6675;1.7327;
149.7000;0.6691;1.7304;
150.0000;0.6699;1.7280;
150.3000;0.6716;1.7327;
150.6000;0.6675;1.7233;
150.9000;0.6683;1.7374;
151.2000;0.6699;1.7562;
151.5000;0.6683;1.7538;
151.8000;0.6675;1.7491;
152.1000;0.6675;1.7491;
152.4000;0.6675;1.7468;
152.7000;0.6683;1.7515;
153.0000;0.6667;1.7444;
153.3000;0.6748;1.7749;
153.6000;0.6699;1.7632;
153.9000;0.6675;1.7538;
154.2000;0.6683;1.7515;
154.5000;0.6683;1.7515;
154.8000;0.6683;1.7538;
155.1000;0.6667;1.7562;
155.4000;0.6683;1.7632;
155.7000;0.6667;1.7491;
156.0000;0.6667;1.7538;
156.3000;0.6683;1.7538;
156.6000;0.6667;1.7444;
156.9000;0.6683;1.7515;
157.2000;0.6683;1.7515;
157.5000;0.6716;1.7609;
157.8000;0.6691;1.7538;
158.1000;0.6675;1.7515;
158.4000;0.6683;1.7538;
158.7000;0.6699;1.7585;
159.0000;0.6675;1.7491;
159.3000;0.6675;1.7444;
159.6000;0.6675;1.7444;
159.9000;0.6667;1.7351;
160.2000;0.6675;1.7397;
160.5000;0.6659;1.7351;
160.8000;0.6675;1.7374;
161.1000;0.6675;1.7468;
161.4000;0.6683;1.7562;
161.7000;0.6691;1.7562;
162.0000;0.6691;1.7609;
162.3000;0.6675;1.7491;
162.6000;0.6748;1.7702;
162.9000;0.6667;1.7585;
163.2000;0.6683;1.7585;
163.5000;0.6675;1.7515;
163.8000;0.6642;1.7304;
164.1000;0.6667;1.7374;
164.4000;0.6675;1.7397;
164.7000;0.6683;1.7397;
165.0000;0.6675;1.7515;
165.3000;0.6675;1.7491;
165.6000;0.6716;1.7655;
165.9000;0.6650;1.7515;
166.2000;0.6683;1.7538;
166.5000;0.6659;1.7444;
166.8000;0.6642;1.7374;
167.1000;0.6675;1.7515;
167.4000;0.6675;1.7515;
167.7000;0.6659;1.7515;
168.0000;0.6667;1.7515;
168.3000;0.6667;1.7444;
168.6000;0.6650;1.7421;
168.9000;0.6667;1.7468;
169.2000;0.6650;1.7444;
169.5000;0.6659;1.7491;
169.8000;0.6675;1.7585;
170.1000;0.6675;1.7562;
170.4000;0.6667;1.7632;
170.7000;0.6634;1.7562;
171.0000;0.6667;1.7585;
171.3000;0.6667;1.7585;
171.6000;0.6683;1.7609;
171.9000;0.6667;1.7538;
172.2000;0.6675;1.7444;
172.5000;0.6675;1.7421;
172.8000;0.6683;1.7374;
173.1000;0.6667;1.7257;
173.4000;0.6683;1.7233;
173.7000;0.6667;1.7257;
174.0000;0.6659;1.7257;
174.3000;0.6667;1.7280;
174.6000;0.6675;1.7280;
174.9000;0.6691;1.7257;
175.2000;0.6667;1.7210;
175.5000;0.6691;1.7257;
175.8000;0.6675;1.7280;
176.1000;0.6675;1.7327;
176.4000;0.6650;1.7257;
176.7000;0.6659;1.7351;
177.0000;0.6667;1.7397;
177.3000;0.6699;1.7538;
177.6000;0.6667;1.7538;
177.9000;0.6683;1.7491;
178.2000;0.6667;1.7421;
178.5000;0.6675;1.7304;
178.8000;0.6732;1.7374;
179.1000;0.6675;1.7210;
179.4000;0.6683;1.7163;
179.7000;0.6691;1.7163;
180.0000;0.6667;1.7163;
180.3000;0.6667;1.7163;
180.6000;0.6659;1.7186;
180.9000;0.6699;1.7327;
181.2000;0.6691;1.7280;
181.5000;0.6659;1.7210;
181.8000;0.6683;1.7186;
182.1000;0.6683;1.7233;
182.4000;0.6683;1.7257;
182.7000;0.6707;1.7304;
183.0000;0.6683;1.7327;
183.3000;0.6699;1.7444;
183.6000;0.6691;1.7468;
183.9000;0.6675;1.7374;
184.2000;0.6675;1.7327;
184.5000;0.6691;1.7257;
184.8000;0.6748;1.7468;
185.1000;0.6683;1.7374;
185.4000;0.6675;1.7304;
185.7000;0.6675;1.7304;
186.0000;0.6626;1.7280;
186.3000;0.6577;1.7140;
186.6000;0.6659;1.7351;
186.9000;0.6659;1.7327;
187.2000;0.6675;1.7374;
187.5000;0.6675;1.7351;
187.8000;0.6667;1.7327;
188.1000;0.6683;1.7327;
188.4000;0.6675;1.7304;
188.7000;0.6699;1.7351;
189.0000;0.6683;1.7280;
189.3000;0.6691;1.7327;
189.6000;0.6699;1.7351;
189.9000;0.6691;1.7351;
190.2000;0.6675;1.7304;
190.5000;0.6675;1.7304;
190.8000;0.6675;1.7280;
191.1000;0.6675;1.7257;
191.4000;0.6683;1.7210;
191.7000;0.6642;1.7140;
192.0000;0.6675;1.7327;
192.3000;0.6683;1.7327;
192.6000;0.6699;1.7397;
192.9000;0.6683;1.7468;
193.2000;0.6683;1.7562;
193.5000;0.6707;1.7585;
193.8000;0.6699;1.7538;
194.1000;0.6691;1.7562;
194.4000;0.6699;1.7562;
194.7000;0.6699;1.7655;
195.0000;0.6691;1.7749;
195.3000;0.6675;1.7773;
195.6000;0.6691;1.7820;
195.9000;0.6691;1.7773;
196.2000;0.6691;1.7679;
196.5000;0.6764;1.7843;
196.8000;0.6699;1.7679;
197.1000;0.6667;1.7538;
197.4000;0.6675;1.7562;
197.7000;0.6602;1.7374;
198.0000;0.6699;1.7562;
198.3000;0.6675;1.7609;
198.6000;0.6675;1.7585;
198.9000;0.6699;1.7679;
199.2000;0.6683;1.7562;
199.5000;0.6683;1.7538;
199.8000;0.6699;1.7515;
200.1000;0.6691;1.7515;
200.4000;0.6772;1.7820;
200.7000;0.6691;1.7562;
201.0000;0.6642;1.7421;
201.3000;0.6699;1.7515;
201.6000;0.6667;1.7515;
201.9000;0.6683;1.7491;
202.2000;0.6675;1.7515;
202.5000;0.6659;1.7538;
202.8000;0.6675;1.7679;
203.1000;0.6667;1.7679;
203.4000;0.6659;1.7609;
203.7000;0.6675;1.7585;
204.0000;0.6699;1.7655;
204.3000;0.6797;1.7913;
204.6000;0.6667;1.7538;
204.9000;0.6691;1.7609;
205.2000;0.6667;1.7491;
205.5000;0.6602;1.7327;
205.8000;0.6683;1.7585;
206.1000;0.6683;1.7538;
206.4000;0.6634;1.7397;
206.7000;0.6667;1.7562;
207.0000;0.6675;1.7632;
207.3000;0.6764;1.7726;
207.6000;0.6707;1.7679;
207.9000;0.6683;1.7585;
208.2000;0.6667;1.7562;
208.5000;0.6699;1.7726;
208.8000;0.6667;1.7679;
209.1000;0.6667;1.7632;
209.4000;0.6699;1.7679;
209.7000;0.6675;1.7632;
210.0000;0.6667;1.7609;
210.3000;0.6675;1.7585;
210.6000;0.6667;1.7632;
210.9000;0.6675;1.7726;
211.2000;0.6667;1.7749;
211.5000;0.6667;1.7655;
211.8000;0.6699;1.7726;
212.1000;0.6683;1.7632;
212.4000;0.6683;1.7585;
212.7000;0.6650;1.7538;
213.0000;0.6667;1.7491;
213.3000;0.6667;1.7397;
213.6000;0.6626;1.7280;
213.9000;0.6659;1.7351;
214.2000;0.6634;1.7374;
214.5000;0.6659;1.7421;
214.8000;0.6642;1.7444;
215.1000;0.6659;1.7491;
215.4000;0.6675;1.7562;
215.7000;0.6667;1.7515;
216.0000;0.6724;1.7632;
216.3000;0.6659;1.7538;
216.6000;0.6667;1.7538;
216.9000;0.6659;1.7562;
217.2000;0.6691;1.7632;
217.5000;0.6659;1.7515;
217.8000;0.6650;1.7468;
218.1000;0.6642;1.7397;
218.4000;0.6667;1.7468;
218.7000;0.6772;1.7609;
219.0000;0.6675;1.7351;
219.3000;0.6675;1.7397;
219.6000;0.6683;1.7421;
219.9000;0.6691;1.7444;
220.2000;0.6813;1.7773;
220.5000;0.6667;1.7585;
220.8000;0.6740;1.7679;
221.1000;0.6683;1.7609;
221.4000;0.6683;1.7585;
221.7000;0.6634;1.7491;
222.0000;0.6675;1.7632;
222.3000;0.6683;1.7655;
222.6000;0.6675;1.7562;
222.9000;0.6634;1.7374;
223.2000;0.6675;1.7444;
223.5000;0.6772;1.7679;
223.8000;0.6650;1.7397;
224.1000;0.6667;1.7421;
224.4000;0.6691;1.7515;
224.7000;0.6683;1.7491;
225.0000;0.6667;1.7538;
225.3000;0.6675;1.7585;
225.6000;0.6650;1.7585;
225.9000;0.6691;1.7609;
226.2000;0.6683;1.7655;
226.5000;0.6675;1.7726;
226.8000;0.6667;1.7749;
227.1000;0.6691;1.7679;
227.4000;0.6699;1.7702;
227.7000;0.6797;1.7937;
228.0000;0.6675;1.7562;
228.3000;0.6683;1.7538;
228.6000;0.6748;1.7749;
228.9000;0.6691;1.7632;
229.2000;0.6691;1.7609;
229.5000;0.6634;1.7468;
229.8000;0.6675;1.7609;
230.1000;0.6650;1.7609;
230.4000;0.6659;1.7609;
230.7000;0.6691;1.7515;
231.0000;0.6675;1.7491;
231.3000;0.6748;1.7679;
231.6000;0.6642;1.7515;
231.9000;0.6667;1.7562;
232.2000;0.6667;1.7562;
232.5000;0.6667;1.7562;
232.8000;0.6683;1.7632;
233.1000;0.6667;1.7702;
233.4000;0.6667;1.7702;
233.7000;0.6634;1.7632;
234.0000;0.6675;1.7749;
234.3000;0.6667;1.7726;
234.6000;0.6691;1.7796;
234.9000;0.6667;1.7679;
235.2000;0.6675;1.7679;
235.5000;0.6650;1.7632;
235.8000;0.6659;1.7655;
236.1000;0.6667;1.7655;
236.4000;0.6659;1.7702;
236.7000;0.6659;1.7632;
237.0000;0.6667;1.7609;
237.3000;0.6667;1.7515;
237.6000;0.6699;1.7609;
237.9000;0.6667;1.7585;
238.2000;0.6675;1.7491;
238.5000;0.6675;1.7468;
238.8000;0.6683;1.7374;
239.1000;0.6675;1.7351;
239.4000;0.6683;1.7444;
239.7000;0.6683;1.7374;
240.0000;0.6659;1.7351;
240.3000;0.6634;1.7351;
240.6000;0.6667;1.7515;
240.9000;0.6675;1.7491;
241.2000;0.6691;1.7585;
241.5000;0.6675;1.7609;
241.8000;0.6626;1.7468;
242.1000;0.6667;1.7562;
242.4000;0.6675;1.7585;
242.7000;0.6683;1.7609;
243.0000;0.6691;1.7538;
243.3000;0.6683;1.7515;
243.6000;0.6691;1.7562;
243.9000;0.6724;1.7609;
244.2000;0.6642;1.7397;
244.5000;0.6683;1.7491;
244.8000;0.6626;1.7304;
245.1000;0.6659;1.7421;
245.4000;0.6707;1.7491;
245.7000;0.6610;1.7257;
246.0000;0.6667;1.7374;
246.3000;0.6659;1.7468;
246.6000;0.6716;1.7632;
246.9000;0.6683;1.7585;
247.2000;0.6716;1.7679;
247.5000;0.6675;1.7538;
247.8000;0.6675;1.7538;
248.1000;0.6675;1.7468;
248.4000;0.6667;1.7444;
248.7000;0.6699;1.7491;
249.0000;0.6675;1.7515;
249.3000;0.6691;1.7374;
249.6000;0.6699;1.7327;
249.9000;0.6691;1.7257;
250.2000;0.6683;1.7304;
250.5000;0.6675;1.7374;
250.8000;0.6699;1.7374;
251.1000;0.6675;1.7374;
251.4000;0.6675;1.7304;
251.7000;0.6683;1.7351;
252.0000;0.6683;1.7374;
252.3000;0.6667;1.7351;
252.6000;0.6650;1.7257;
252.9000;0.6667;1.7257;
253.2000;0.6683;1.7351;
253.5000;0.6610;1.7210;
253.8000;0.6675;1.7468;
254.1000;0.6659;1.7421;
254.4000;0.6667;1.7444;
254.7000;0.6667;1.7374;
255.0000;0.6667;1.7374;
255.3000;0.6675;1.7351;
255.6000;0.6659;1.7374;
255.9000;0.6667;1.7374;
256.2000;0.6732;1.7632;
256.5000;0.6667;1.7538;
256.8000;0.6659;1.7468;
257.1000;0.6659;1.7491;
257.4000;0.6667;1.7468;
257.7000;0.6691;1.7515;
258.0000;0.6675;1.7491;
258.3000;0.6667;1.7397;
258.6000;0.6675;1.7351;
258.9000;0.6659;1.7351;
259.2000;0.6659;1.7374;
259.5000;0.6675;1.7491;
259.8000;0.6748;1.7773;
260.1000;0.6675;1.7609;
260.4000;0.6683;1.7609;
260.7000;0.6683;1.7726;
261.0000;0.6691;1.7632;
261.3000;0.6683;1.7562;
261.6000;0.6618;1.7374;
261.9000;0.6610;1.7327;
262.2000;0.6691;1.7468;
262.5000;0.6667;1.7397;
262.8000;0.6667;1.7397;
263.1000;0.6642;1.7351;
263.4000;0.6650;1.7444;
263.7000;0.6683;1.7538;
264.0000;0.6683;1.7585;
264.3000;0.6667;1.7538;
264.6000;0.6675;1.7515;
264.9000;0.6675;1.7515;
265.2000;0.6667;1.7632;
265.5000;0.6675;1.7749;
265.8000;0.6683;1.7749;
266.1000;0.6683;1.7726;
266.4000;0.6659;1.7632;
266.7000;0.6659;1.7538;
267.0000;0.6667;1.7609;
267.3000;0.6667;1.7585;
267.6000;0.6683;1.7491;
267.9000;0.6626;1.7304;
268.2000;0.6642;1.7397;
268.5000;0.6659;1.7538;
268.8000;0.6675;1.7632;
269.1000;0.6667;1.7820;
269.4000;0.6667;1.7796;
269.7000;0.6691;1.7796;
270.0000;0.6683;1.7866;
270.3000;0.6667;1.7890;
270.6000;0.6593;1.7679;
270.9000;0.6675;1.7773;
271.2000;0.6675;1.7773;
271.5000;0.6667;1.7702;
271.8000;0.6667;1.7749;
272.1000;0.6667;1.7702;
272.4000;0.6691;1.7702;
272.7000;0.6691;1.7773;
273.0000;0.6675;1.7749;
273.3000;0.6642;1.7655;
273.6000;0.6650;1.7562;
273.9000;0.6675;1.7562;
274.2000;0.6634;1.7515;
274.5000;0.6659;1.7562;
274.8000;0.6675;1.7632;
275.1000;0.6691;1.7702;
275.4000;0.6764;1.7843;
275.7000;0.6675;1.7609;
276.0000;0.6683;1.7632;
276.3000;0.6691;1.7679;
276.6000;0.6683;1.7609;
276.9000;0.6683;1.7655;
277.2000;0.6667;1.7749;
277.5000;0.6593;1.7609;
277.8000;0.6659;1.7820;
278.1000;0.6659;1.7796;
278.4000;0.6650;1.7702;
278.7000;0.6667;1.7679;
279.0000;0.6675;1.7655;
279.3000;0.6650;1.7562;
279.6000;0.6683;1.7655;
279.9000;0.6675;1.7632;
280.2000;0.6659;1.7609;
280.5000;0.6659;1.7632;
280.8000;0.6748;1.7796;
281.1000;0.6667;1.7609;
281.4000;0.6667;1.7726;
281.7000;0.6675;1.7749;
282.0000;0.6634;1.7749;
282.3000;0.6659;1.7866;
282.6000;0.6667;1.7866;
282.9000;0.6659;1.7773;
283.2000;0.6659;1.7749;
283.5000;0.6659;1.7749;
283.8000;0.6683;1.7796;
284.1000;0.6667;1.7749;
284.4000;0.6659;1.7702;
284.7000;0.6659;1.7655;
285.0000;0.6659;1.7702;
285.3000;0.6683;1.7655;
285.6000;0.6650;1.7491;
285.9000;0.6659;1.7468;
286.2000;0.6699;1.7609;
286.5000;0.6667;1.7515;
286.8000;0.6683;1.7444;
287.1000;0.6707;1.7609;
287.4000;0.6691;1.7562;
287.7000;0.6675;1.7538;
288.0000;0.6675;1.7491;
288.3000;0.6675;1.7397;
288.6000;0.6667;1.7374;
288.9000;0.6699;1.7397;
289.2000;0.6675;1.7280;
289.5000;0.6724;1.7491;
289.8000;0.6683;1.7397;
290.1000;0.6683;1.7444;
290.4000;0.6683;1.7397;
290.7000;0.6667;1.7444;
291.0000;0.6675;1.7421;
291.3000;0.6659;1.7397;
291.6000;0.6667;1.7468;
291.9000;0.6683;1.7491;
292.2000;0.6675;1.7468;
292.5000;0.6618;1.7304;
292.8000;0.6691;1.7444;
293.1000;0.6667;1.7327;
293.4000;0.6667;1.7327;
293.7000;0.6675;1.7280;
294.0000;0.6675;1.7233;
294.3000;0.6707;1.7351;
294.6000;0.6675;1.7327;
294.9000;0.6642;1.7304;
295.2000;0.6675;1.7327;
295.5000;0.6683;1.7397;
295.8000;0.6675;1.7491;
296.1000;0.6667;1.7538;
296.4000;0.6650;1.7444;
296.7000;0.6659;1.7397;
297.0000;0.6675;1.7444;
297.3000;0.6691;1.7468;
297.6000;0.6650;1.7327;
297.9000;0.6675;1.7421;
298.2000;0.6634;1.7374;
298.5000;0.6683;1.7444;
298.8000;0.6675;1.7491;
299.1000;0.6683;1.7538;
299.4000;0.6699;1.7538;
299.7000;0.6593;1.7397;
300.0000;0.6667;1.7515;
300.3000;0.6618;1.7397;
300.6000;0.6675;1.7585;
300.9000;0.6650;1.7585;
301.2000;0.6667;1.7538;
301.5000;0.6634;1.7491;
301.8000;0.6642;1.7491;
302.1000;0.6683;1.7585;
302.4000;0.6716;1.7609;
302.7000;0.6659;1.7515;
303.0000;0.6683;1.7515;
303.3000;0.6683;1.7515;
303.6000;0.6667;1.7562;
303.9000;0.6659;1.7562;
304.2000;0.6667;1.7585;
304.5000;0.6659;1.7515;
304.8000;0.6634;1.7444;
305.1000;0.6667;1.7491;
305.4000;0.6659;1.7421;
305.7000;0.6716;1.7515;
306.0000;0.6667;1.7351;
306.3000;0.6691;1.7421;
306.6000;0.6667;1.7397;
306.9000;0.6650;1.7397;
307.2000;0.6667;1.7562;
307.5000;0.6675;1.7632;
307.8000;0.6659;1.7632;
308.1000;0.6675;1.7679;
308.4000;0.6675;1.7679;
308.7000;0.6675;1.7585;
309.0000;0.6724;1.7679;
309.3000;0.6667;1.7562;
309.6000;0.6659;1.7609;
309.9000;0.6659;1.7632;
310.2000;0.6675;1.7491;
310.5000;0.6667;1.7468;
310.8000;0.6650;1.7374;
311.1000;0.6659;1.7468;
311.4000;0.6650;1.7397;
311.7000;0.6667;1.7468;
312.0000;0.6659;1.7468;
312.3000;0.6683;1.7515;
312.6000;0.6667;1.7538;
312.9000;0.6659;1.7421;
313.2000;0.6667;1.7585;
313.5000;0.6707;1.7655;
313.8000;0.6675;1.7679;
314.1000;0.6691;1.7843;
314.4000;0.6667;1.7820;
314.7000;0.6642;1.7773;
315.0000;0.6667;1.7726;
315.3000;0.6724;1.7960;
315.6000;0.6659;1.7679;
315.9000;0.6683;1.7702;
316.2000;0.6707;1.7749;
316.5000;0.6659;1.7655;
316.8000;0.6577;1.7468;
317.1000;0.6675;1.7726;
317.4000;0.6642;1.7609;
317.7000;0.6683;1.7655;
318.0000;0.6683;1.7585;
318.3000;0.6659;1.7538;
318.6000;0.6650;1.7538;
318.9000;0.6732;1.7702;
319.2000;0.6626;1.7444;
319.5000;0.6724;1.7562;
319.8000;0.6691;1.7468;
320.1000;0.6667;1.7562;
320.4000;0.6659;1.7585;
320.7000;0.6683;1.7609;
321.0000;0.6683;1.7679;
321.3000;0.6675;1.7679;
321.6000;0.6724;1.7702;
321.9000;0.6675;1.7491;
322.2000;0.6659;1.7374;
322.5000;0.6675;1.7397;
322.8000;0.6683;1.7468;
323.1000;0.6667;1.7468;
323.4000;0.6675;1.7468;
323.7000;0.6561;1.7210;
324.0000;0.6675;1.7538;
324.3000;0.6683;1.7491;
324.6000;0.6675;1.7491;
324.9000;0.6675;1.7444;
325.2000;0.6610;1.7421;
325.5000;0.6781;1.7866;
325.8000;0.6683;1.7609;
326.1000;0.6659;1.7468;
326.4000;0.6675;1.7515;
326.7000;0.6675;1.7468;
327.0000;0.6659;1.7468;
327.3000;0.6667;1.7468;
327.6000;0.6667;1.7562;
327.9000;0.6667;1.7515;
328.2000;0.6707;1.7585;
328.5000;0.6659;1.7538;
328.8000;0.6659;1.7609;
329.1000;0.6675;1.7632;
329.4000;0.6683;1.7655;
329.7000;0.6667;1.7679;
330.0000;0.6659;1.7655;
330.3000;0.6716;1.7726;
330.6000;0.6675;1.7538;
330.9000;0.6667;1.7421;
331.2000;0.6667;1.7397;
331.5000;0.6650;1.7351;
331.8000;0.6626;1.7233;
332.1000;0.6577;1.7093;
332.4000;0.6683;1.7351;
332.7000;0.6675;1.7304;
333.0000;0.6691;1.7304;
333.3000;0.6650;1.7233;
333.6000;0.6667;1.7327;
333.9000;0.6659;1.7280;
334.2000;0.6659;1.7280;
334.5000;0.6667;1.7210;
334.8000;0.6650;1.7186;
335.1000;0.6618;1.7210;
335.4000;0.6675;1.7304;
335.7000;0.6675;1.7280;
336.0000;0.6659;1.7210;
336.3000;0.6650;1.7210;
336.6000;0.6650;1.7304;
336.9000;0.6667;1.7444;
337.2000;0.6764;1.7585;
337.5000;0.6667;1.7327;
337.8000;0.6659;1.7327;
338.1000;0.6659;1.7280;
338.4000;0.6667;1.7280;
338.7000;0.6659;1.7374;
339.0000;0.6659;1.7374;
339.3000;0.6716;1.7609;
339.6000;0.6707;1.7609;
339.9000;0.6683;1.7585;
340.2000;0.6699;1.7655;
340.5000;0.6667;1.7491;
340.8000;0.6659;1.7515;
341.1000;0.6691;1.7562;
341.4000;0.6797;1.7796;
341.7000;0.6691;1.7515;
342.0000;0.6683;1.7491;
342.3000;0.6659;1.7468;
342.6000;0.6577;1.7140;
342.9000;0.6667;1.7351;
343.2000;0.6667;1.7374;
343.5000;0.6667;1.7397;
343.8000;0.6675;1.7397;
344.1000;0.6683;1.7491;
344.4000;0.6667;1.7421;
344.7000;0.6675;1.7421;
345.0000;0.6675;1.7397;
345.3000;0.6691;1.7397;
345.6000;0.6683;1.7491;
345.9000;0.6699;1.7585;
346.2000;0.6683;1.7515;
346.5000;0.6667;1.7562;
346.8000;0.6675;1.7679;
347.1000;0.6683;1.7655;
347.4000;0.6667;1.7562;
347.7000;0.6667;1.7515;
348.0000;0.6667;1.7515;
348.3000;0.6642;1.7397;
348.6000;0.6772;1.7655;
348.9000;0.6650;1.7374;
349.2000;0.6683;1.7374;
349.5000;0.6675;1.7327;
349.8000;0.6659;1.7304;
350.1000;0.6683;1.7280;
350.4000;0.6667;1.7257;
350.7000;0.6585;1.7022;
351.0000;0.6667;1.7186;
351.3000;0.6667;1.7186;
351.6000;0.6659;1.7163;
351.9000;0.6667;1.7163;
352.2000;0.6667;1.7210;
352.5000;0.6683;1.7257;
352.8000;0.6724;1.7304;
353.1000;0.6675;1.7186;
353.4000;0.6667;1.7210;
353.7000;0.6699;1.7397;
354.0000;0.6675;1.7280;
354.3000;0.6659;1.7280;
354.6000;0.6667;1.7351;
354.9000;0.6667;1.7304;
355.2000;0.6675;1.7397;
355.5000;0.6667;1.7257;
355.8000;0.6707;1.7374;
356.1000;0.6683;1.7327;
356.4000;0.6659;1.7280;
356.7000;0.6667;1.7374;
357.0000;0.6675;1.7374;
357.3000;0.6732;1.7562;
357.6000;0.6675;1.7351;
357.9000;0.6683;1.7351;
358.2000;0.6667;1.7374;
358.5000;0.6659;1.7304;
358.8000;0.6707;1.7468;
359.1000;0.6699;1.7538;
359.4000;0.6667;1.7491;
359.7000;0.6659;1.7374;
360.0000;0.6675;1.7304;
360.3000;0.6577;1.7093;
360.6000;0.6650;1.7327;
360.9000;0.6659;1.7327;
361.2000;0.6675;1.7397;
361.5000;0.6691;1.7444;
361.8000;0.6667;1.7374;
362.1000;0.6675;1.7421;
362.4000;0.6675;1.7468;
362.7000;0.6675;1.7538;
363.0000;0.6683;1.7468;
363.3000;0.6667;1.7351;
363.6000;0.6659;1.7280;
363.9000;0.6699;1.7374;
364.2000;0.6667;1.7304;
364.5000;0.6659;1.7351;
364.8000;0.6691;1.7397;
365.1000;0.6618;1.7233;
365.4000;0.6675;1.7538;
365.7000;0.6650;1.7538;
366.0000;0.6650;1.7538;
366.3000;0.6659;1.7538;
366.6000;0.6675;1.7538;
366.9000;0.6659;1.7444;
367.2000;0.6675;1.7397;
367.5000;0.6667;1.7421;
367.8000;0.6667;1.7421;
368.1000;0.6667;1.7351;
368.4000;0.6667;1.7351;
368.7000;0.6634;1.7304;
369.0000;0.6659;1.7421;
369.3000;0.6667;1.7468;
369.6000;0.6716;1.7609;
369.9000;0.6650;1.7468;
370.2000;0.6667;1.7491;
370.5000;0.6626;1.7397;
370.8000;0.6675;1.7444;
371.1000;0.6667;1.7491;
371.4000;0.6667;1.7468;
371.7000;0.6699;1.7444;
372.0000;0.6675;1.7351;
372.3000;0.6667;1.7374;
372.6000;0.6675;1.7397;
372.9000;0.6659;1.7421;
373.2000;0.6659;1.7491;
373.5000;0.6667;1.7609;
373.8000;0.6642;1.7632;
374.1000;0.6675;1.7655;
374.4000;0.6659;1.7538;
374.7000;0.6675;1.7468;
375.0000;0.6667;1.7444;
375.3000;0.6659;1.7468;
375.6000;0.6675;1.7515;
375.9000;0.6659;1.7515;
376.2000;0.6667;1.7444;
376.5000;0.6659;1.7397;
376.8000;0.6650;1.7327;
377.1000;0.6675;1.7374;
377.4000;0.6650;1.7374;
377.7000;0.6659;1.7351;
378.0000;0.6675;1.7444;
378.3000;0.6675;1.7374;
378.6000;0.6667;1.7374;
378.9000;0.6667;1.7397;
379.2000;0.6659;1.7327;
379.5000;0.6667;1.7304;
379.8000;0.6650;1.7304;
380.1000;0.6667;1.7491;
380.4000;0.6667;1.7562;
380.7000;0.6667;1.7515;
381.0000;0.6659;1.7468;
381.3000;0.6659;1.7468;
381.6000;0.6667;1.7444;
381.9000;0.6683;1.7562;
382.2000;0.6683;1.7585;
382.5000;0.6667;1.7515;
382.8000;0.6659;1.7421;
383.1000;0.6650;1.7374;
383.4000;0.6667;1.7304;
383.7000;0.6659;1.7397;
384.0000;0.6675;1.7421;
384.3000;0.6675;1.7421;
384.6000;0.6667;1.7374;
384.9000;0.6650;1.7257;
385.2000;0.6650;1.7327;
385.5000;0.6659;1.7351;
385.8000;0.6659;1.7257;
386.1000;0.6642;1.7257;
386.4000;0.6667;1.7257;
386.7000;0.6650;1.7280;
387.0000;0.6634;1.7233;
387.3000;0.6699;1.7374;
387.6000;0.6659;1.7257;
387.9000;0.6650;1.7327;
388.2000;0.6659;1.7374;
388.5000;0.6667;1.7280;
388.8000;0.6659;1.7304;
389.1000;0.6667;1.7374;
389.4000;0.6667;1.7397;
389.7000;0.6659;1.7468;
390.0000;0.6675;1.7515;
390.3000;0.6724;1.7609;
390.6000;0.6667;1.7397;
390.9000;0.6667;1.7374;
391.2000;0.6659;1.7257;
391.5000;0.6642;1.7233;
391.8000;0.6667;1.7374;
392.1000;0.6667;1.7444;
392.4000;0.6724;1.7538;
392.7000;0.6642;1.7421;
393.0000;0.6659;1.7421;
393.3000;0.6683;1.7491;
393.6000;0.6699;1.7421;
393.9000;0.6667;1.7374;
394.2000;0.6659;1.7374;
394.5000;0.6675;1.7491;
394.8000;0.6667;1.7421;
395.1000;0.6683;1.7304;
395.4000;0.6536;1.6975;
395.7000;0.6650;1.7186;
396.0000;0.6675;1.7210;
396.3000;0.6675;1.7233;
396.6000;0.6650;1.7257;
396.9000;0.6667;1.7280;
397.2000;0.6659;1.7304;
397.5000;0.6659;1.7327;
397.8000;0.6667;1.7304;
398.1000;0.6667;1.7304;
398.4000;0.6634;1.7257;
398.7000;0.6675;1.7421;
399.0000;0.6667;1.7491;
399.3000;0.6650;1.7444;
399.6000;0.6650;1.7397;
399.9000;0.6659;1.7421;
400.2000;0.6667;1.7421;
400.5000;0.6642;1.7397;
400.8000;0.6650;1.7421;
401.1000;0.6667;1.7421;
401.4000;0.6650;1.7351;
401.7000;0.6659;1.7374;
402.0000;0.6650;1.7327;
402.3000;0.6675;1.7327;
402.6000;0.6675;1.7304;
402.9000;0.6642;1.7280;
403.2000;0.6650;1.7233;
403.5000;0.6675;1.7210;
403.8000;0.6659;1.7280;
404.1000;0.6683;1.7210;
404.4000;0.6659;1.7163;
404.7000;0.6659;1.7163;
405.0000;0.6675;1.7116;
405.3000;0.6675;1.7093;
405.6000;0.6650;1.6929;
405.9000;0.6659;1.7093;
406.2000;0.6789;1.7374;
406.5000;0.6667;1.7163;
406.8000;0.6642;1.7093;
407.1000;0.6683;1.7233;
407.4000;0.6642;1.7163;
407.7000;0.6659;1.7210;
408.0000;0.6691;1.7140;
408.3000;0.6691;1.7116;
408.6000;0.6626;1.6999;
408.9000;0.6642;1.7093;
409.2000;0.6626;1.7093;
409.5000;0.6675;1.7304;
409.8000;0.6642;1.7327;
410.1000;0.6659;1.7444;
410.4000;0.6659;1.7491;
410.7000;0.6650;1.7444;
411.0000;0.6650;1.7468;
411.3000;0.6667;1.7444;
411.6000;0.6659;1.7444;
411.9000;0.6667;1.7421;
412.2000;0.6642;1.7327;
412.5000;0.6634;1.7327;
412.8000;0.6667;1.7374;
413.1000;0.6659;1.7421;
413.4000;0.6683;1.7468;
413.7000;0.6642;1.7444;
414.0000;0.6659;1.7515;
414.3000;0.6626;1.7444;
414.6000;0.6650;1.7515;
414.9000;0.6650;1.7562;
415.2000;0.6667;1.7679;
415.5000;0.6618;1.7515;
415.8000;0.6642;1.7515;
416.1000;0.6667;1.7538;
416.4000;0.6707;1.7585;
416.7000;0.6675;1.7468;
417.0000;0.6667;1.7444;
417.3000;0.6650;1.7491;
417.6000;0.6667;1.7491;
417.9000;0.6667;1.7562;
418.2000;0.6667;1.7585;
418.5000;0.6659;1.7491;
418.8000;0.6659;1.7444;
419.1000;0.6683;1.7538;
419.4000;0.6683;1.7515;
419.7000;0.6659;1.7491;
420.0000;0.6667;1.7515;
420.3000;0.6732;1.7632;
420.6000;0.6683;1.7421;
420.9000;0.6667;1.7397;
421.2000;0.6659;1.7397;
421.5000;0.6667;1.7351;
421.8000;0.6675;1.7327;
422.1000;0.6659;1.7280;
422.4000;0.6659;1.7304;
422.7000;0.6659;1.7397;
423.0000;0.6659;1.7374;
423.3000;0.6659;1.7444;
423.6000;0.6650;1.7468;
423.9000;0.6667;1.7491;
424.2000;0.6667;1.7515;
424.5000;0.6675;1.7397;
424.8000;0.6659;1.7374;
425.1000;0.6740;1.7538;
425.4000;0.6683;1.7421;
425.7000;0.6683;1.7444;
426.0000;0.6667;1.7327;
426.3000;0.6667;1.7280;
426.6000;0.6675;1.7444;
426.9000;0.6675;1.7374;
427.2000;0.6691;1.7444;
427.5000;0.6675;1.7468;
427.8000;0.6699;1.7538;
428.1000;0.6569;1.7257;
428.4000;0.6659;1.7468;
428.7000;0.6659;1.7491;
429.0000;0.6667;1.7515;
429.3000;0.6650;1.7421;
429.6000;0.6659;1.7421;
429.9000;0.6659;1.7444;
430.2000;0.6683;1.7538;
430.5000;0.6667;1.7515;
430.8000;0.6675;1.7585;
431.1000;0.6667;1.7585;
431.4000;0.6650;1.7491;
431.7000;0.6667;1.7515;
432.0000;0.6642;1.7444;
432.3000;0.6683;1.7468;
432.6000;0.6667;1.7351;
432.9000;0.6626;1.7186;
433.2000;0.6667;1.7257;
433.5000;0.6667;1.7327;
433.8000;0.6634;1.7327;
434.1000;0.6683;1.7374;
434.4000;0.6650;1.7421;
434.7000;0.6659;1.7468;
435.0000;0.6642;1.7421;
435.3000;0.6585;1.7186;
435.6000;0.6650;1.7421;
435.9000;0.6650;1.7444;
436.2000;0.6667;1.7444;
436.5000;0.6650;1.7538;
436.8000;0.6659;1.7538;
437.1000;0.6683;1.7585;
437.4000;0.6650;1.7562;
437.7000;0.6724;1.7749;
438.0000;0.6675;1.7679;
438.3000;0.6667;1.7726;
438.6000;0.6642;1.7749;
438.9000;0.6667;1.7749;
439.2000;0.6650;1.7585;
439.5000;0.6642;1.7515;
439.8000;0.6659;1.7491;
440.1000;0.6642;1.7421;
440.4000;0.6667;1.7468;
440.7000;0.6659;1.7491;
441.0000;0.6650;1.7468;
441.3000;0.6650;1.7397;
441.6000;0.6659;1.7421;
441.9000;0.6659;1.7468;
442.2000;0.6667;1.7562;
442.5000;0.6675;1.7585;
442.8000;0.6667;1.7515;
443.1000;0.6675;1.7468;
443.4000;0.6659;1.7421;
443.7000;0.6650;1.7444;
444.0000;0.6659;1.7468;
444.3000;0.6642;1.7515;
444.6000;0.6659;1.7562;
444.9000;0.6659;1.7562;
445.2000;0.6634;1.7515;
445.5000;0.6659;1.7702;
445.8000;0.6667;1.7632;
446.1000;0.6675;1.7609;
446.4000;0.6683;1.7491;
446.7000;0.6691;1.7515;
447.0000;0.6650;1.7468;
447.3000;0.6675;1.7609;
447.6000;0.6610;1.7444;
447.9000;0.6634;1.7632;
448.2000;0.6667;1.7585;
448.5000;0.6667;1.7585;
448.8000;0.6659;1.7585;
449.1000;0.6667;1.7585;
449.4000;0.6650;1.7585;
449.7000;0.6569;1.7444;
450.0000;0.6764;1.7937;
450.3000;0.6659;1.7585;
450.6000;0.6650;1.7515;
450.9000;0.6650;1.7515;
451.2000;0.6659;1.7562;
451.5000;0.6683;1.7562;
451.8000;0.6667;1.7444;
452.1000;0.6642;1.7397;
452.4000;0.6675;1.7444;
452.7000;0.6642;1.7421;
453.0000;0.6659;1.7491;
453.3000;0.6577;1.7327;
453.6000;0.6675;1.7491;
453.9000;0.6659;1.7397;
454.2000;0.6659;1.7421;
454.5000;0.6650;1.7351;
454.8000;0.6642;1.7327;
455.1000;0.6764;1.7609;
455.4000;0.6675;1.7491;
455.7000;0.6650;1.7444;
456.0000;0.6650;1.7421;
456.3000;0.6691;1.7585;
456.6000;0.6667;1.7515;
456.9000;0.6667;1.7491;
457.2000;0.6545;1.7186;
457.5000;0.6634;1.7397;
457.8000;0.6667;1.7397;
458.1000;0.6675;1.7444;
458.4000;0.6659;1.7397;
458.7000;0.6659;1.7374;
459.0000;0.6683;1.7468;
459.3000;0.6675;1.7515;
459.6000;0.6659;1.7491;
459.9000;0.6642;1.7491;
460.2000;0.6659;1.7562;
460.5000;0.6675;1.7632;
460.8000;0.6650;1.7585;
461.1000;0.6650;1.7609;
461.4000;0.6642;1.7468;
461.7000;0.6659;1.7468;
462.0000;0.6667;1.7421;
462.3000;0.6667;1.7562;
462.6000;0.6618;1.7538;
462.9000;0.6642;1.7609;
463.2000;0.6659;1.7585;
463.5000;0.6650;1.7468;
463.8000;0.6659;1.7468;
464.1000;0.6659;1.7444;
464.4000;0.6650;1.7444;
464.7000;0.6659;1.7491;
465.0000;0.6659;1.7397;
465.3000;0.6650;1.7304;
465.6000;0.6659;1.7304;
465.9000;0.6659;1.7304;
466.2000;0.6675;1.7351;
466.5000;0.6659;1.7351;
466.8000;0.6650;1.7374;
467.1000;0.6659;1.7397;
467.4000;0.6650;1.7397;
467.7000;0.6659;1.7421;
468.0000;0.6667;1.7421;
468.3000;0.6667;1.7468;
468.6000;0.6675;1.7515;
468.9000;0.6650;1.7397;
469.2000;0.6675;1.7468;
469.5000;0.6683;1.7444;
469.8000;0.6675;1.7468;
470.1000;0.6659;1.7421;
470.4000;0.6659;1.7468;
470.7000;0.6699;1.7515;
471.0000;0.6659;1.7374;
471.3000;0.6650;1.7397;
471.6000;0.6659;1.7327;
471.9000;0.6650;1.7327;
472.2000;0.6634;1.7186;
472.5000;0.6667;1.7280;
472.8000;0.6610;1.7163;
473.1000;0.6659;1.7280;
473.4000;0.6675;1.7304;
473.7000;0.6659;1.7327;
474.0000;0.6675;1.7397;
474.3000;0.6577;1.7233;
474.6000;0.6675;1.7421;
474.9000;0.6667;1.7351;
475.2000;0.6724;1.7374;
475.5000;0.6659;1.7233;
475.8000;0.6675;1.7257;
476.1000;0.6667;1.7327;
476.4000;0.6667;1.7304;
476.7000;0.6659;1.7280;
477.0000;0.6659;1.7374;
477.3000;0.6659;1.7468;
477.6000;0.6675;1.7491;
477.9000;0.6642;1.7538;
478.2000;0.6667;1.7585;
478.5000;0.6667;1.7609;
478.8000;0.6659;1.7491;
479.1000;0.6716;1.7562;
479.4000;0.6610;1.7304;
479.7000;0.6650;1.7397;
480.0000;0.6650;1.7421;
480.3000;0.6659;1.7562;
480.6000;0.6650;1.7562;
480.9000;0.6667;1.7491;
481.2000;0.6667;1.7444;
481.5000;0.6650;1.7421;
481.8000;0.6667;1.7397;
482.1000;0.6659;1.7397;
482.4000;0.6650;1.7421;
482.7000;0.6667;1.7562;
483.0000;0.6642;1.7538;
483.3000;0.6650;1.7538;
483.6000;0.6659;1.7515;
483.9000;0.6675;1.7538;
484.2000;0.6659;1.7491;
484.5000;0.6667;1.7562;
484.8000;0.6659;1.7609;
485.1000;0.6667;1.7585;
485.4000;0.6659;1.7562;
485.7000;0.6659;1.7491;
486.0000;0.6659;1.7468;
486.3000;0.6650;1.7491;
486.6000;0.6642;1.7538;
486.9000;0.6659;1.7562;
487.2000;0.6650;1.7585;
487.5000;0.6618;1.7397;
487.8000;0.6626;1.7444;
488.1000;0.6642;1.7491;
488.4000;0.6659;1.7468;
488.7000;0.6699;1.7562;
489.0000;0.6659;1.7421;
489.3000;0.6642;1.7374;
489.6000;0.6650;1.7374;
489.9000;0.6650;1.7351;
490.2000;0.6667;1.7351;
490.5000;0.6650;1.7304;
490.8000;0.6659;1.7304;
491.1000;0.6650;1.7351;
491.4000;0.6650;1.7374;
491.7000;0.6626;1.7374;
492.0000;0.6610;1.7304;
492.3000;0.6659;1.7421;
492.6000;0.6650;1.7257;
492.9000;0.6650;1.7327;
493.2000;0.6650;1.7351;
493.5000;0.6642;1.7257;
493.8000;0.6602;1.7069;
494.1000;0.6667;1.7210;
494.4000;0.6667;1.7140;
494.7000;0.6667;1.7233;
495.0000;0.6642;1.7327;
495.3000;0.6659;1.7397;
495.6000;0.6659;1.7397;
495.9000;0.6675;1.7374;
496.2000;0.6642;1.7257;
496.5000;0.6764;1.7585;
496.8000;0.6667;1.7304;
497.1000;0.6659;1.7280;
497.4000;0.6659;1.7257;
497.7000;0.6659;1.7304;
498.0000;0.6659;1.7210;
498.3000;0.6659;1.7304;
498.6000;0.6659;1.7351;
498.9000;0.6659;1.7397;
499.2000;0.6699;1.7397;
499.5000;0.6659;1.7468;
499.8000;0.6659;1.7491;
500.1000;0.6650;1.7515;
500.4000;0.6667;1.7515;
500.7000;0.6650;1.7515;
501.0000;0.6667;1.7468;
501.3000;0.6667;1.7397;
501.6000;0.6650;1.7397;
501.9000;0.6667;1.7421;
502.2000;0.6675;1.7562;
502.5000;0.6634;1.7515;
502.8000;0.6569;1.7421;
503.1000;0.6675;1.7679;
503.4000;0.6593;1.7444;
503.7000;0.6659;1.7632;
504.0000;0.6667;1.7609;
504.3000;0.6659;1.7609;
504.6000;0.6650;1.7515;
504.9000;0.6667;1.7538;
505.2000;0.6667;1.7538;
505.5000;0.6667;1.7468;
505.8000;0.6691;1.7444;
506.1000;0.6659;1.7421;
506.4000;0.6756;1.7726;
506.7000;0.6667;1.7562;
507.0000;0.6683;1.7562;
507.3000;0.6667;1.7468;
507.6000;0.6691;1.7562;
507.9000;0.6675;1.7515;
508.2000;0.6650;1.7444;
508.5000;0.6650;1.7327;
508.8000;0.6659;1.7421;
509.1000;0.6667;1.7374;
509.4000;0.6650;1.7351;
509.7000;0.6716;1.7609;
510.0000;0.6634;1.7374;
510.3000;0.6634;1.7444;
510.6000;0.6659;1.7538;
510.9000;0.6683;1.7632;
511.2000;0.6659;1.7632;
511.5000;0.6683;1.7632;
511.8000;0.6675;1.7585;
512.1000;0.6659;1.7585;
512.4000;0.6650;1.7679;
512.7000;0.6659;1.7655;
513.0000;0.6659;1.7609;
513.3000;0.6659;1.7609;
513.6000;0.6650;1.7609;
513.9000;0.6642;1.7515;
514.2000;0.6642;1.7468;
514.5000;0.6642;1.7468;
514.8000;0.6659;1.7444;
515.1000;0.6634;1.7444;
515.4000;0.6650;1.7468;
515.7000;0.6642;1.7444;
516.0000;0.6659;1.7491;
516.3000;0.6659;1.7491;
516.6000;0.6650;1.7468;
516.9000;0.6650;1.7491;
517.2000;0.6667;1.7515;
517.5000;0.6683;1.7585;
517.8000;0.6659;1.7538;
518.1000;0.6659;1.7538;
518.4000;0.6675;1.7444;
518.7000;0.6634;1.7374;
519.0000;0.6675;1.7515;
519.3000;0.6618;1.7327;
519.6000;0.6610;1.7304;
519.9000;0.6659;1.7374;
520.2000;0.6667;1.7374;
520.5000;0.6691;1.7444;
520.8000;0.6699;1.7562;
521.1000;0.6667;1.7538;
521.4000;0.6642;1.7515;
521.7000;0.6659;1.7585;
522.0000;0.6659;1.7538;
522.3000;0.6634;1.7468;
522.6000;0.6650;1.7655;
522.9000;0.6667;1.7609;
523.2000;0.6683;1.7726;
523.5000;0.6642;1.7632;
523.8000;0.6772;1.7866;
524.1000;0.6602;1.7444;
524.4000;0.6659;1.7585;
524.7000;0.6650;1.7585;
525.0000;0.6683;1.7585;
525.3000;0.6577;1.7233;
525.6000;0.6659;1.7374;
525.9000;0.6667;1.7444;
526.2000;0.6667;1.7421;
526.5000;0.6642;1.7491;
526.8000;0.6675;1.7515;
527.1000;0.6642;1.7515;
527.4000;0.6683;1.7585;
527.7000;0.6642;1.7468;
528.0000;0.6659;1.7468;
528.3000;0.6642;1.7468;
528.6000;0.6659;1.7515;
528.9000;0.6675;1.7491;
529.2000;0.6650;1.7421;
529.5000;0.6642;1.7444;
529.8000;0.6642;1.7538;
530.1000;0.6659;1.7515;
530.4000;0.6618;1.7397;
530.7000;0.6634;1.7397;
531.0000;0.6650;1.7374;
531.3000;0.6650;1.7351;
531.6000;0.6642;1.7351;
531.9000;0.6634;1.7374;
532.2000;0.6650;1.7351;
532.5000;0.6650;1.7444;
532.8000;0.6659;1.7491;
533.1000;0.6650;1.7491;
533.4000;0.6650;1.7515;
533.7000;0.6642;1.7397;
534.0000;0.6659;1.7421;
534.3000;0.6659;1.7421;
534.6000;0.6650;1.7351;
534.9000;0.6691;1.7351;
535.2000;0.6659;1.7210;
535.5000;0.6683;1.7257;
535.8000;0.6667;1.7233;
536.1000;0.6659;1.7327;
536.4000;0.6642;1.7233;
536.7000;0.6626;1.7233;
537.0000;0.6675;1.7304;
537.3000;0.6667;1.7304;
537.6000;0.6642;1.7257;
537.9000;0.6675;1.7351;
538.2000;0.6642;1.7233;
538.5000;0.6642;1.7327;
538.8000;0.6667;1.7351;
539.1000;0.6642;1.7186;
539.4000;0.6683;1.7233;
539.7000;0.6659;1.7327;
540.0000;0.6642;1.7351;
540.3000;0.6650;1.7374;
540.6000;0.6667;1.7421;
540.9000;0.6659;1.7421;
541.2000;0.6667;1.7397;
541.5000;0.6683;1.7397;
541.8000;0.6585;1.7186;
542.1000;0.6659;1.7374;
542.4000;0.6659;1.7397;
542.7000;0.6675;1.7444;
543.0000;0.6667;1.7397;
543.3000;0.6667;1.7444;
543.6000;0.6667;1.7397;
543.9000;0.6650;1.7397;
544.2000;0.6642;1.7444;
544.5000;0.6618;1.7444;
544.8000;0.6732;1.7702;
545.1000;0.6667;1.7444;
545.4000;0.6667;1.7397;
545.7000;0.6756;1.7655;
546.0000;0.6659;1.7374;
546.3000;0.6634;1.7257;
546.6000;0.6626;1.7351;
546.9000;0.6650;1.7374;
547.2000;0.6659;1.7562;
547.5000;0.6634;1.7468;
547.8000;0.6642;1.7515;
548.1000;0.6642;1.7538;
548.4000;0.6667;1.7609;
548.7000;0.6659;1.7562;
549.0000;0.6675;1.7632;
549.3000;0.6675;1.7515;
549.6000;0.6642;1.7444;
549.9000;0.6650;1.7421;
550.2000;0.6659;1.7444;
550.5000;0.6667;1.7444;
550.8000;0.6659;1.7351;
551.1000;0.6667;1.7421;
551.4000;0.6602;1.7257;
551.7000;0.6634;1.7351;
552.0000;0.6659;1.7444;
552.3000;0.6642;1.7444;
552.6000;0.6650;1.7444;
552.9000;0.6642;1.7397;
553.2000;0.6699;1.7585;
553.5000;0.6650;1.7538;
553.8000;0.6642;1.7397;
554.1000;0.6642;1.7468;
554.4000;0.6618;1.7421;
554.7000;0.6675;1.7468;
555.0000;0.6659;1.7421;
555.3000;0.6650;1.7444;
555.6000;0.6618;1.7397;
555.9000;0.6634;1.7491;
556.2000;0.6650;1.7468;
556.5000;0.6675;1.7444;
556.8000;0.6642;1.7351;
557.1000;0.6634;1.7327;
557.4000;0.6659;1.7304;
557.7000;0.6683;1.7351;
558.0000;0.6650;1.7233;
558.3000;0.6650;1.7186;
558.6000;0.6642;1.7116;
558.9000;0.6650;1.7069;
559.2000;0.6634;1.7093;
559.5000;0.6626;1.7069;
559.8000;0.6659;1.7163;
560.1000;0.6610;1.7163;
560.4000;0.6667;1.7257;
560.7000;0.6732;1.7421;
561.0000;0.6659;1.7304;
561.3000;0.6667;1.7374;
561.6000;0.6618;1.7233;
561.9000;0.6650;1.7233;
562.2000;0.6691;1.7351;
562.5000;0.6667;1.7327;
562.8000;0.6618;1.7186;
563.1000;0.6642;1.7280;
563.4000;0.6642;1.7327;
563.7000;0.6683;1.7421;
564.0000;0.6667;1.7444;
564.3000;0.6626;1.7397;
564.6000;0.6650;1.7374;
564.9000;0.6667;1.7351;
565.2000;0.6683;1.7327;
565.5000;0.6659;1.7257;
565.8000;0.6577;1.7069;
566.1000;0.6667;1.7374;
566.4000;0.6667;1.7397;
566.7000;0.6675;1.7444;
567.0000;0.6675;1.7468;
567.3000;0.6659;1.7421;
567.6000;0.6626;1.7351;
567.9000;0.6659;1.7444;
568.2000;0.6634;1.7421;
568.5000;0.6683;1.7609;
568.8000;0.6675;1.7585;
569.1000;0.6659;1.7444;
569.4000;0.6691;1.7515;
569.7000;0.6642;1.7374;
570.0000;0.6642;1.7351;
570.3000;0.6602;1.7257;
570.6000;0.6634;1.7351;
570.9000;0.6659;1.7304;
571.2000;0.6675;1.7397;
571.5000;0.6618;1.7280;
571.8000;0.6650;1.7304;
572.1000;0.6561;1.7093;
572.4000;0.6724;1.7538;
572.7000;0.6659;1.7397;
573.0000;0.6642;1.7444;
573.3000;0.6634;1.7444;
573.6000;0.6691;1.7515;
573.9000;0.6650;1.7444;
574.2000;0.6667;1.7397;
574.5000;0.6659;1.7304;
574.8000;0.6667;1.7351;
575.1000;0.6650;1.7421;
575.4000;0.6667;1.7444;
575.7000;0.6659;1.7468;
576.0000;0.6650;1.7491;
576.3000;0.6650;1.7538;
576.6000;0.6659;1.7515;
576.9000;0.6683;1.7538;
577.2000;0.6650;1.7468;
577.5000;0.6642;1.7468;
577.8000;0.6650;1.7468;
578.1000;0.6650;1.7468;
578.4000;0.6667;1.7421;
578.7000;0.6634;1.7233;
579.0000;0.6667;1.7327;
579.3000;0.6683;1.7374;
579.6000;0.6650;1.7327;
579.9000;0.6675;1.7444;
580.2000;0.6642;1.7491;
580.5000;0.6675;1.7491;
580.8000;0.6667;1.7515;
581.1000;0.6642;1.7397;
581.4000;0.6675;1.7444;
581.7000;0.6659;1.7397;
582.0000;0.6667;1.7397;
582.3000;0.6667;1.7421;
582.6000;0.6642;1.7444;
582.9000;0.6659;1.7468;
583.2000;0.6650;1.7444;
583.5000;0.6642;1.7468;
583.8000;0.6675;1.7468;
584.1000;0.6659;1.7444;
584.4000;0.6650;1.7515;
584.7000;0.6650;1.7515;
585.0000;0.6659;1.7468;
585.3000;0.6675;1.7538;
585.6000;0.6675;1.7491;
585.9000;0.6659;1.7397;
586.2000;0.6659;1.7351;
586.5000;0.6675;1.7468;
586.8000;0.6659;1.7468;
587.1000;0.6659;1.7515;
587.4000;0.6618;1.7444;
587.7000;0.6650;1.7562;
588.0000;0.6650;1.7679;
588.3000;0.6675;1.7749;
588.6000;0.6667;1.7679;
588.9000;0.6618;1.7515;
589.2000;0.6634;1.7491;
589.5000;0.6675;1.7655;
589.8000;0.6626;1.7562;
590.1000;0.6626;1.7538;
590.4000;0.6634;1.7515;
590.7000;0.6650;1.7515;
591.0000;0.6642;1.7538;
591.3000;0.6618;1.7491;
591.6000;0.6634;1.7515;
591.9000;0.6642;1.7515;
592.2000;0.6650;1.7444;
592.5000;0.6642;1.7444;
592.8000;0.6626;1.7280;
593.1000;0.6650;1.7327;
593.4000;0.6659;1.7304;
593.7000;0.6659;1.7280;
594.0000;0.6650;1.7163;
594.3000;0.6626;1.7257;
594.6000;0.6642;1.7280;
594.9000;0.6618;1.7140;
595.2000;0.6667;1.7163;
595.5000;0.6650;1.7116;
595.8000;0.6626;1.7022;
596.1000;0.6650;1.7046;
596.4000;0.6650;1.7116;
596.7000;0.6626;1.7093;
597.0000;0.6659;1.7210;
597.3000;0.6683;1.7351;
597.6000;0.6659;1.7210;
597.9000;0.6650;1.7186;
598.2000;0.6667;1.7327;
598.5000;0.6642;1.7397;
598.8000;0.6650;1.7468;
599.1000;0.6634;1.7421;
599.4000;0.6764;1.7726;
599.7000;0.6634;1.7374;
600.0000;0.6659;1.7444;
600.3000;0.6659;1.7327;
600.6000;0.6650;1.7140;
600.9000;0.6650;1.6905;
601.2000;0.6602;1.6671;
601.5000;0.6553;1.6483;
601.8000;0.6496;1.6366;
602.1000;0.6479;1.6319;
602.4000;0.6422;1.6061;
602.7000;0.6365;1.5873;
603.0000;0.6317;1.5733;
603.3000;0.6292;1.5569;
603.6000;0.6252;1.5405;
603.9000;0.6195;1.5264;
604.2000;0.6154;1.5194;
604.5000;0.6129;1.5123;
604.8000;0.6081;1.5029;
605.1000;0.6081;1.4982;
605.4000;0.6024;1.4936;
605.7000;0.5999;1.4795;
606.0000;0.5983;1.4771;
606.3000;0.5934;1.4725;
606.6000;0.5910;1.4678;
606.9000;0.5869;1.4678;
607.2000;0.5828;1.4514;
607.5000;0.5820;1.4373;
607.8000;0.5804;1.4326;
608.1000;0.5869;1.4490;
608.4000;0.5763;1.4326;
608.7000;0.5747;1.4256;
609.0000;0.5755;1.4279;
609.3000;0.5690;1.4209;
609.6000;0.5682;1.4209;
609.9000;0.5600;1.3998;
610.2000;0.5682;1.4232;
610.5000;0.5625;1.4068;
610.8000;0.5608;1.4068;
611.1000;0.5584;1.4138;
611.4000;0.5560;1.4092;
611.7000;0.5543;1.4068;
612.0000;0.5527;1.4068;
612.3000;0.5560;1.4232;
612.6000;0.5543;1.4256;
612.9000;0.5486;1.4209;
613.2000;0.5462;1.4185;
613.5000;0.5421;1.4115;
613.8000;0.5454;1.4162;
614.1000;0.5438;1.4162;
614.4000;0.5446;1.4185;
614.7000;0.5397;1.4115;
615.0000;0.5381;1.4068;
615.3000;0.5389;1.4162;
615.6000;0.5348;1.4115;
615.9000;0.5315;1.4068;
616.2000;0.5299;1.4092;
616.5000;0.5372;1.4209;
616.8000;0.5283;1.3951;
617.1000;0.5307;1.3998;
617.4000;0.5258;1.3880;
617.7000;0.5250;1.3927;
618.0000;0.5226;1.3857;
618.3000;0.5234;1.3904;
618.6000;0.5161;1.3646;
618.9000;0.5177;1.3693;
619.2000;0.5169;1.3787;
619.5000;0.5169;1.3787;
619.8000;0.5153;1.3857;
620.1000;0.5169;1.3857;
620.4000;0.5153;1.3880;
620.7000;0.5079;1.3763;
621.0000;0.5104;1.3857;
621.3000;0.5079;1.3857;
621.6000;0.5039;1.3787;
621.9000;0.5096;1.3787;
622.2000;0.5079;1.3693;
622.5000;0.5031;1.3599;
622.8000;0.5047;1.3623;
623.1000;0.5055;1.3693;
623.4000;0.5096;1.3763;
623.7000;0.5022;1.3599;
624.0000;0.5031;1.3693;
624.3000;0.5022;1.3623;
624.6000;0.4998;1.3646;
624.9000;0.5071;1.3763;
625.2000;0.5006;1.3716;
625.5000;0.4998;1.3810;
625.8000;0.4982;1.3740;
626.1000;0.4982;1.3646;
626.4000;0.4868;1.3388;
626.7000;0.4957;1.3576;
627.0000;0.4933;1.3482;
627.3000;0.4917;1.3552;
627.6000;0.4917;1.3482;
627.9000;0.4900;1.3458;
628.2000;0.4876;1.3458;
628.5000;0.4917;1.3529;
628.8000;0.4900;1.3529;
629.1000;0.4876;1.3529;
629.4000;0.4892;1.3552;
629.7000;0.4851;1.3458;
630.0000;0.4860;1.3552;
630.3000;0.4860;1.3576;
630.6000;0.4843;1.3552;
630.9000;0.4860;1.3623;
631.2000;0.4843;1.3599;
631.5000;0.4843;1.3576;
631.8000;0.4843;1.3646;
632.1000;0.4835;1.3646;
632.4000;0.4819;1.3623;
632.7000;0.4835;1.3669;
633.0000;0.4803;1.3576;
633.3000;0.4794;1.3599;
633.6000;0.4803;1.3623;
633.9000;0.4786;1.3576;
634.2000;0.4746;1.3458;
634.5000;0.4794;1.3599;
634.8000;0.4770;1.3576;
635.1000;0.4770;1.3623;
635.4000;0.4762;1.3623;
635.7000;0.4754;1.3599;
636.0000;0.4754;1.3646;
636.3000;0.4770;1.3740;
636.6000;0.4746;1.3646;
636.9000;0.4737;1.3576;
637.2000;0.4754;1.3576;
637.5000;0.4705;1.3482;
637.8000;0.4762;1.3599;
638.1000;0.4713;1.3505;
638.4000;0.4697;1.3505;
638.7000;0.4721;1.3505;
639.0000;0.4697;1.3458;
639.3000;0.4697;1.3412;
639.6000;0.4689;1.3412;
639.9000;0.4705;1.3412;
640.2000;0.4656;1.3224;
640.5000;0.4681;1.3271;
640.8000;0.4672;1.3247;
641.1000;0.4681;1.3201;
641.4000;0.4656;1.3294;
641.7000;0.4664;1.3388;
642.0000;0.4648;1.3552;
642.3000;0.4648;1.3576;
642.6000;0.4762;1.3904;
642.9000;0.4640;1.3646;
643.2000;0.4550;1.3365;
643.5000;0.4640;1.3552;
643.8000;0.4640;1.3529;
644.1000;0.4689;1.3529;
644.4000;0.4656;1.3505;
644.7000;0.4632;1.3505;
645.0000;0.4624;1.3576;
645.3000;0.4518;1.3294;
645.6000;0.4575;1.3482;
645.9000;0.4599;1.3505;
646.2000;0.4591;1.3482;
646.5000;0.4599;1.3435;
646.8000;0.4575;1.3435;
647.1000;0.4599;1.3458;
647.4000;0.4591;1.3435;
647.7000;0.4583;1.3435;
648.0000;0.4591;1.3482;
648.3000;0.4599;1.3576;
648.6000;0.4583;1.3505;
648.9000;0.4583;1.3552;
649.2000;0.4591;1.3599;
649.5000;0.4599;1.3529;
649.8000;0.4575;1.3505;
650.1000;0.4558;1.3458;
650.4000;0.4558;1.3482;
650.7000;0.4558;1.3623;
651.0000;0.4550;1.3646;
651.3000;0.4567;1.3576;
651.6000;0.4558;1.3529;
651.9000;0.4567;1.3576;
652.2000;0.4558;1.3505;
652.5000;0.4461;1.3294;
652.8000;0.4567;1.3505;
653.1000;0.4558;1.3458;
653.4000;0.4558;1.3435;
653.7000;0.4493;1.3318;
654.0000;0.4558;1.3435;
654.3000;0.4534;1.3412;
654.6000;0.4510;1.3365;
654.9000;0.4542;1.3365;
655.2000;0.4526;1.3201;
655.5000;0.4526;1.3154;
655.8000;0.4542;1.3036;
656.1000;0.4534;1.3083;
656.4000;0.4518;1.3083;
656.7000;0.4518;1.3154;
657.0000;0.4526;1.3201;
657.3000;0.4526;1.3130;
657.6000;0.4510;1.3083;
657.9000;0.4534;1.3224;
658.2000;0.4404;1.3083;
658.5000;0.4501;1.3341;
658.8000;0.4501;1.3388;
659.1000;0.4501;1.3341;
659.4000;0.4534;1.3435;
659.7000;0.4493;1.3341;
660.0000;0.4485;1.3294;
660.3000;0.4501;1.3318;
660.6000;0.4493;1.3247;
660.9000;0.4501;1.3247;
661.2000;0.4477;1.3154;
661.5000;0.4485;1.3247;
661.8000;0.4526;1.3271;
662.1000;0.4469;1.3107;
662.4000;0.4575;1.3458;
662.7000;0.4542;1.3412;
663.0000;0.4485;1.3247;
663.3000;0.4493;1.3201;
663.6000;0.4444;1.3201;
663.9000;0.4453;1.3294;
664.2000;0.4453;1.3247;
664.5000;0.4469;1.3318;
664.8000;0.4469;1.3247;
665.1000;0.4453;1.3154;
665.4000;0.4453;1.3083;
665.7000;0.4453;1.3130;
666.0000;0.4453;1.3154;
666.3000;0.4420;1.3013;
666.6000;0.4501;1.3201;
666.9000;0.4436;1.3224;
667.2000;0.4436;1.3247;
667.5000;0.4510;1.3576;
667.8000;0.4453;1.3435;
668.1000;0.4453;1.3318;
668.4000;0.4453;1.3412;
668.7000;0.4436;1.3435;
669.0000;0.4339;1.3107;
669.3000;0.4436;1.3365;
669.6000;0.4379;1.3201;
669.9000;0.4477;1.3576;
670.2000;0.4412;1.3412;
670.5000;0.4428;1.3458;
670.8000;0.4412;1.3435;
671.1000;0.4412;1.3458;
671.4000;0.4428;1.3435;
671.7000;0.4436;1.3505;
672.0000;0.4420;1.3505;
672.3000;0.4412;1.3505;
672.6000;0.4412;1.3482;
672.9000;0.4420;1.3435;
673.2000;0.4428;1.3388;
673.5000;0.4404;1.3341;
673.8000;0.4436;1.3412;
674.1000;0.4436;1.3458;
674.4000;0.4428;1.3412;
674.7000;0.4420;1.3482;
675.0000;0.4412;1.3458;
675.3000;0.4404;1.3482;
675.6000;0.4420;1.3482;
675.9000;0.4412;1.3458;
676.2000;0.4387;1.3412;
676.5000;0.4339;1.3294;
676.8000;0.4396;1.3388;
677.1000;0.4387;1.3435;
677.4000;0.4396;1.3341;
677.7000;0.4379;1.3318;
678.0000;0.4412;1.3365;
678.3000;0.4420;1.3458;
678.6000;0.4387;1.3482;
678.9000;0.4404;1.3576;
679.2000;0.4379;1.3505;
679.5000;0.4404;1.3435;
679.8000;0.4387;1.3458;
680.1000;0.4387;1.3412;
680.4000;0.4371;1.3318;
680.7000;0.4363;1.3294;
681.0000;0.4387;1.3388;
681.3000;0.4387;1.3388;
681.6000;0.4387;1.3365;
681.9000;0.4387;1.3388;
682.2000;0.4379;1.3412;
682.5000;0.4379;1.3482;
682.8000;0.4363;1.3388;
683.1000;0.4363;1.3341;
683.4000;0.4339;1.3294;
683.7000;0.4379;1.3505;
684.0000;0.4290;1.3294;
684.3000;0.4379;1.3576;
684.6000;0.4428;1.3740;
684.9000;0.4355;1.3599;
685.2000;0.4371;1.3529;
685.5000;0.4339;1.3482;
685.8000;0.4339;1.3412;
686.1000;0.4363;1.3458;
686.4000;0.4396;1.3458;
686.7000;0.4355;1.3482;
687.0000;0.4355;1.3576;
687.3000;0.4420;1.3787;
687.6000;0.4339;1.3599;
687.9000;0.4347;1.3646;
688.2000;0.4363;1.3576;
688.5000;0.4363;1.3435;
688.8000;0.4339;1.3458;
689.1000;0.4371;1.3599;
689.4000;0.4355;1.3693;
689.7000;0.4347;1.3740;
690.0000;0.4347;1.3716;
690.3000;0.4363;1.3669;
690.6000;0.4371;1.3529;
690.9000;0.4387;1.3482;
691.2000;0.4355;1.3435;
691.5000;0.4347;1.3388;
691.8000;0.4347;1.3318;
692.1000;0.4355;1.3341;
692.4000;0.4355;1.3318;
692.7000;0.4330;1.3247;
693.0000;0.4347;1.3247;
693.3000;0.4339;1.3247;
693.6000;0.4330;1.3224;
693.9000;0.4347;1.3318;
694.2000;0.4330;1.3365;
694.5000;0.4347;1.3412;
694.8000;0.4339;1.3412;
695.1000;0.4347;1.3458;
695.4000;0.4347;1.3435;
695.7000;0.4330;1.3412;
696.0000;0.4339;1.3435;
696.3000;0.4330;1.3412;
696.6000;0.4322;1.3529;
696.9000;0.4306;1.3529;
697.2000;0.4330;1.3576;
697.5000;0.4330;1.3529;
697.8000;0.4355;1.3482;
698.1000;0.4355;1.3412;
698.4000;0.4330;1.3365;
698.7000;0.4347;1.3412;
699.0000;0.4444;1.3763;
699.3000;0.4322;1.3505;
699.6000;0.4363;1.3529;
699.9000;0.4322;1.3458;
700.2000;0.4347;1.3552;
700.5000;0.4379;1.3576;
700.8000;0.4314;1.3412;
701.1000;0.4322;1.3435;
701.4000;0.4322;1.3505;
701.7000;0.4306;1.3552;
702.0000;0.4322;1.3529;
702.3000;0.4330;1.3646;
702.6000;0.4322;1.3599;
702.9000;0.4306;1.3529;
703.2000;0.4298;1.3505;
703.5000;0.4306;1.3482;
703.8000;0.4306;1.3505;
704.1000;0.4322;1.3552;
704.4000;0.4322;1.3623;
704.7000;0.4314;1.3529;
705.0000;0.4314;1.3576;
705.3000;0.4257;1.3365;
705.6000;0.4314;1.3482;
705.9000;0.4306;1.3482;
706.2000;0.4314;1.3505;
706.5000;0.4257;1.3412;
706.8000;0.4314;1.3505;
707.1000;0.4306;1.3341;
707.4000;0.4306;1.3365;
707.7000;0.4306;1.3294;
708.0000;0.4298;1.3247;
708.3000;0.4306;1.3247;
708.6000;0.4241;1.3177;
708.9000;0.4298;1.3412;
709.2000;0.4306;1.3365;
709.5000;0.4322;1.3435;
709.8000;0.4306;1.3482;
710.1000;0.4298;1.3435;
710.4000;0.4298;1.3435;
710.7000;0.4282;1.3388;
711.0000;0.4298;1.3412;
711.3000;0.4298;1.3388;
711.6000;0.4322;1.3341;
711.9000;0.4306;1.3341;
712.2000;0.4274;1.3341;
712.5000;0.4314;1.3435;
712.8000;0.4274;1.3341;
713.1000;0.4290;1.3388;
713.4000;0.4355;1.3505;
713.7000;0.4274;1.3412;
714.0000;0.4298;1.3482;
714.3000;0.4314;1.3482;
714.6000;0.4290;1.3435;
714.9000;0.4298;1.3529;
715.2000;0.4290;1.3529;
715.5000;0.4298;1.3552;
715.8000;0.4282;1.3599;
716.1000;0.4282;1.3529;
716.4000;0.4314;1.3646;
716.7000;0.4404;1.3904;
717.0000;0.4290;1.3716;
717.3000;0.4282;1.3716;
717.6000;0.4282;1.3646;
717.9000;0.4314;1.3646;
718.2000;0.4322;1.3669;
718.5000;0.4298;1.3576;
718.8000;0.4274;1.3599;
719.1000;0.4274;1.3552;
719.4000;0.4282;1.3646;
719.7000;0.4290;1.3646;
720.0000;0.4241;1.3576;
720.3000;0.4274;1.3646;
720.6000;0.4274;1.3576;
720.9000;0.4282;1.3529;
721.2000;0.4314;1.3646;
721.5000;0.4322;1.3646;
721.8000;0.4265;1.3623;
722.1000;0.4282;1.3646;
722.4000;0.4257;1.3623;
722.7000;0.4265;1.3669;
723.0000;0.4282;1.3646;
723.3000;0.4290;1.3669;
723.6000;0.4257;1.3623;
723.9000;0.4265;1.3716;
724.2000;0.4265;1.3740;
724.5000;0.4282;1.3787;
724.8000;0.4282;1.3810;
725.1000;0.4290;1.3880;
725.4000;0.4274;1.3810;
725.7000;0.4257;1.3740;
726.0000;0.4265;1.3716;
726.3000;0.4257;1.3740;
726.6000;0.4265;1.3693;
726.9000;0.4249;1.3716;
727.2000;0.4290;1.3834;
727.5000;0.4274;1.3763;
727.8000;0.4265;1.3669;
728.1000;0.4257;1.3763;
728.4000;0.4290;1.3740;
728.7000;0.4282;1.3740;
729.0000;0.4274;1.3740;
729.3000;0.4274;1.3763;
729.6000;0.4274;1.3740;
729.9000;0.4274;1.3646;
730.2000;0.4249;1.3529;
730.5000;0.4265;1.3576;
730.8000;0.4298;1.3693;
731.1000;0.4249;1.3599;
731.4000;0.4249;1.3529;
731.7000;0.4265;1.3505;
732.0000;0.4208;1.3388;
732.3000;0.4347;1.3669;
732.6000;0.4249;1.3529;
732.9000;0.4274;1.3529;
733.2000;0.4265;1.3529;
733.5000;0.4355;1.3810;
733.8000;0.4257;1.3599;
734.1000;0.4249;1.3623;
734.4000;0.4249;1.3458;
734.7000;0.4249;1.3412;
735.0000;0.4257;1.3435;
735.3000;0.4371;1.3740;
735.6000;0.4290;1.3482;
735.9000;0.4233;1.3435;
736.2000;0.4200;1.3435;
736.5000;0.4233;1.3599;
736.8000;0.4265;1.3716;
737.1000;0.4306;1.3810;
737.4000;0.4306;1.3763;
737.7000;0.4249;1.3693;
738.0000;0.4265;1.3763;
738.3000;0.4265;1.3763;
738.6000;0.4249;1.3834;
738.9000;0.4208;1.3716;
739.2000;0.4257;1.3810;
739.5000;0.4225;1.3740;
739.8000;0.4233;1.3810;
740.1000;0.4265;1.3787;
740.4000;0.4241;1.3716;
740.7000;0.4306;1.3810;
741.0000;0.4257;1.3646;
741.3000;0.4233;1.3623;
741.6000;0.4257;1.3787;
741.9000;0.4274;1.3857;
742.2000;0.4225;1.3740;
742.5000;0.4249;1.3834;
742.8000;0.4257;1.3857;
743.1000;0.4257;1.3857;
743.4000;0.4257;1.3763;
743.7000;0.4265;1.3810;
744.0000;0.4225;1.3646;
744.3000;0.4265;1.3552;
744.6000;0.4249;1.3529;
744.9000;0.4241;1.3505;
745.2000;0.4249;1.3623;
745.5000;0.4225;1.3576;
745.8000;0.4241;1.3646;
746.1000;0.4257;1.3576;
746.4000;0.4233;1.3529;
746.7000;0.4225;1.3482;
747.0000;0.4298;1.3599;
747.3000;0.4249;1.3458;
747.6000;0.4241;1.3435;
747.9000;0.4257;1.3458;
748.2000;0.4225;1.3388;
748.5000;0.4249;1.3365;
748.8000;0.4241;1.3388;
749.1000;0.4241;1.3388;
749.4000;0.4282;1.3529;
749.7000;0.4225;1.3458;
750.0000;0.4233;1.3529;
750.3000;0.4233;1.3529;
750.6000;0.4233;1.3435;
750.9000;0.4249;1.3435;
751.2000;0.4249;1.3458;
751.5000;0.4265;1.3529;
751.8000;0.4241;1.3505;
752.1000;0.4249;1.3599;
752.4000;0.4241;1.3576;
752.7000;0.4225;1.3576;
753.0000;0.4241;1.3552;
753.3000;0.4257;1.3529;
753.6000;0.4241;1.3458;
753.9000;0.4241;1.3435;
754.2000;0.4257;1.3458;
754.5000;0.4265;1.3365;
754.8000;0.4274;1.3388;
755.1000;0.4257;1.3388;
755.4000;0.4233;1.3388;
755.7000;0.4241;1.3388;
756.0000;0.4241;1.3365;
756.3000;0.4143;1.3177;
756.6000;0.4225;1.3388;
756.9000;0.4249;1.3505;
757.2000;0.4265;1.3552;
757.5000;0.4241;1.3412;
757.8000;0.4241;1.3505;
758.1000;0.4298;1.3716;
758.4000;0.4249;1.3599;
758.7000;0.4233;1.3599;
759.0000;0.4225;1.3646;
759.3000;0.4282;1.3787;
759.6000;0.4225;1.3599;
759.9000;0.4217;1.3576;
760.2000;0.4192;1.3599;
760.5000;0.4151;1.3505;
760.8000;0.4233;1.3623;
761.1000;0.4217;1.3505;
761.4000;0.4200;1.3458;
761.7000;0.4241;1.3482;
762.0000;0.4208;1.3435;
762.3000;0.4208;1.3388;
762.6000;0.4225;1.3388;
762.9000;0.4217;1.3388;
763.2000;0.4208;1.3435;
763.5000;0.4217;1.3505;
763.8000;0.4225;1.3458;
764.1000;0.4225;1.3435;
764.4000;0.4249;1.3576;
764.7000;0.4249;1.3623;
765.0000;0.4241;1.3623;
765.3000;0.4200;1.3552;
765.6000;0.4241;1.3529;
765.9000;0.4249;1.3505;
766.2000;0.4217;1.3482;
766.5000;0.4217;1.3552;
766.8000;0.4233;1.3623;
767.1000;0.4241;1.3693;
767.4000;0.4233;1.3787;
767.7000;0.4241;1.3787;
768.0000;0.4208;1.3693;
768.3000;0.4225;1.3669;
768.6000;0.4233;1.3716;
768.9000;0.4217;1.3646;
769.2000;0.4233;1.3646;
769.5000;0.4225;1.3669;
769.8000;0.4233;1.3669;
770.1000;0.4249;1.3669;
770.4000;0.4233;1.3599;
770.7000;0.4233;1.3623;
771.0000;0.4241;1.3669;
771.3000;0.4233;1.3623;
771.6000;0.4225;1.3623;
771.9000;0.4233;1.3669;
772.2000;0.4217;1.3740;
772.5000;0.4233;1.3763;
772.8000;0.4225;1.3716;
773.1000;0.4217;1.3623;
773.4000;0.4208;1.3576;
773.7000;0.4225;1.3599;
774.0000;0.4217;1.3646;
774.3000;0.4225;1.3716;
774.6000;0.4233;1.3763;
774.9000;0.4233;1.3763;
775.2000;0.4233;1.3716;
775.5000;0.4225;1.3552;
775.8000;0.4298;1.3716;
776.1000;0.4257;1.3599;
776.4000;0.4208;1.3458;
776.7000;0.4217;1.3529;
777.0000;0.4217;1.3623;
777.3000;0.4217;1.3505;
777.6000;0.4241;1.3623;
777.9000;0.4241;1.3623;
778.2000;0.4233;1.3646;
778.5000;0.4249;1.3693;
778.8000;0.4217;1.3669;
779.1000;0.4208;1.3693;
779.4000;0.4192;1.3623;
779.7000;0.4217;1.3716;
780.0000;0.4233;1.3623;
780.3000;0.4233;1.3623;
780.6000;0.4233;1.3599;
780.9000;0.4233;1.3576;
781.2000;0.4249;1.3552;
781.5000;0.4225;1.3599;
781.8000;0.4233;1.3716;
782.1000;0.4233;1.3693;
782.4000;0.4225;1.3716;
782.7000;0.4225;1.3669;
783.0000;0.4208;1.3669;
783.3000;0.4192;1.3529;
783.6000;0.4225;1.3693;
783.9000;0.4233;1.3763;
784.2000;0.4176;1.3646;
784.5000;0.4200;1.3716;
784.8000;0.4200;1.3740;
785.1000;0.4225;1.3857;
785.4000;0.4208;1.3810;
785.7000;0.4225;1.3740;
786.0000;0.4225;1.3646;
786.3000;0.4217;1.3716;
786.6000;0.4225;1.3787;
786.9000;0.4217;1.3763;
787.2000;0.4208;1.3646;
787.5000;0.4233;1.3669;
787.8000;0.4143;1.3505;
788.1000;0.4217;1.3669;
788.4000;0.4233;1.3669;
788.7000;0.4208;1.3599;
789.0000;0.4151;1.3458;
789.3000;0.4208;1.3669;
789.6000;0.4217;1.3716;
789.9000;0.4225;1.3623;
790.2000;0.4225;1.3623;
790.5000;0.4217;1.3552;
790.8000;0.4225;1.3529;
791.1000;0.4233;1.3552;
791.4000;0.4233;1.3482;
791.7000;0.4200;1.3388;
792.0000;0.4168;1.3388;
792.3000;0.4192;1.3599;
792.6000;0.4233;1.3716;
792.9000;0.4225;1.3763;
793.2000;0.4241;1.3763;
793.5000;0.4160;1.3646;
793.8000;0.4208;1.3740;
794.1000;0.4233;1.3740;
794.4000;0.4225;1.3669;
794.7000;0.4217;1.3552;
795.0000;0.4200;1.3505;
795.3000;0.4200;1.3482;
795.6000;0.4184;1.3482;
795.9000;0.4200;1.3482;
796.2000;0.4217;1.3576;
796.5000;0.4184;1.3505;
796.8000;0.4200;1.3482;
797.1000;0.4233;1.3505;
797.4000;0.4192;1.3435;
797.7000;0.4200;1.3529;
798.0000;0.4200;1.3599;
798.3000;0.4208;1.3623;
798.6000;0.4200;1.3576;
798.9000;0.4208;1.3669;
799.2000;0.4217;1.3623;
799.5000;0.4217;1.3669;
799.8000;0.4306;1.3857;
800.1000;0.4192;1.3599;
800.4000;0.4217;1.3623;
800.7000;0.4208;1.3599;
801.0000;0.4217;1.3552;
801.3000;0.4176;1.3435;
801.6000;0.4208;1.3482;
801.9000;0.4217;1.3552;
802.2000;0.4225;1.3458;
802.5000;0.4200;1.3365;
802.8000;0.4208;1.3365;
803.1000;0.4208;1.3388;
803.4000;0.4208;1.3435;
803.7000;0.4192;1.3412;
804.0000;0.4184;1.3482;
804.3000;0.4217;1.3576;
804.6000;0.4217;1.3646;
804.9000;0.4208;1.3623;
805.2000;0.4192;1.3740;
805.5000;0.4192;1.3763;
805.8000;0.4200;1.3787;
806.1000;0.4192;1.3693;
806.4000;0.4208;1.3646;
806.7000;0.4184;1.3599;
807.0000;0.4208;1.3576;
807.3000;0.4217;1.3458;
807.6000;0.4200;1.3552;
807.9000;0.4208;1.3576;
808.2000;0.4184;1.3529;
808.5000;0.4208;1.3529;
808.8000;0.4217;1.3458;
809.1000;0.4200;1.3482;
809.4000;0.4200;1.3576;
809.7000;0.4200;1.3529;
810.0000;0.4119;1.3341;
810.3000;0.4208;1.3552;
810.6000;0.4217;1.3740;
810.9000;0.4200;1.3787;
811.2000;0.4200;1.3693;
811.5000;0.4208;1.3693;
811.8000;0.4184;1.3716;
812.1000;0.4225;1.3857;
812.4000;0.4208;1.3763;
812.7000;0.4225;1.3740;
813.0000;0.4208;1.3740;
813.3000;0.4208;1.3834;
813.6000;0.4217;1.3787;
813.9000;0.4200;1.3810;
814.2000;0.4233;1.3904;
814.5000;0.4200;1.3787;
814.8000;0.4225;1.3810;
815.1000;0.4192;1.3693;
815.4000;0.4200;1.3763;
815.7000;0.4168;1.3623;
816.0000;0.4192;1.3693;
816.3000;0.4233;1.3810;
816.6000;0.4208;1.3716;
816.9000;0.4208;1.3716;
817.2000;0.4298;1.4045;
817.5000;0.4233;1.3904;
817.8000;0.4208;1.3857;
818.1000;0.4208;1.3810;
818.4000;0.4225;1.3834;
818.7000;0.4233;1.3693;
819.0000;0.4265;1.3927;
819.3000;0.4208;1.3740;
819.6000;0.4200;1.3646;
819.9000;0.4208;1.3646;
820.2000;0.4200;1.3599;
820.5000;0.4192;1.3646;
820.8000;0.4192;1.3693;
821.1000;0.4200;1.3693;
821.4000;0.4200;1.3740;
821.7000;0.4184;1.3693;
822.0000;0.4192;1.3740;
822.3000;0.4200;1.3716;
822.6000;0.4200;1.3599;
822.9000;0.4184;1.3505;
823.2000;0.4192;1.3529;
823.5000;0.4225;1.3599;
823.8000;0.4192;1.3599;
824.1000;0.4200;1.3716;
824.4000;0.4208;1.3599;
824.7000;0.4192;1.3599;
825.0000;0.4233;1.3693;
825.3000;0.4225;1.3623;
825.6000;0.4184;1.3552;
825.9000;0.4192;1.3599;
826.2000;0.4200;1.3646;
826.5000;0.4192;1.3623;
826.8000;0.4192;1.3669;
827.1000;0.4192;1.3646;
827.4000;0.4200;1.3646;
827.7000;0.4217;1.3693;
828.0000;0.4208;1.3693;
828.3000;0.4200;1.3576;
828.6000;0.4208;1.3599;
828.9000;0.4200;1.3646;
829.2000;0.4200;1.3669;
829.5000;0.4184;1.3576;
829.8000;0.4184;1.3482;
830.1000;0.4265;1.3716;
830.4000;0.4314;1.3740;
830.7000;0.4200;1.3482;
831.0000;0.4184;1.3458;
831.3000;0.4200;1.3365;
831.6000;0.4192;1.3435;
831.9000;0.4192;1.3435;
832.2000;0.4192;1.3529;
832.5000;0.4184;1.3505;
832.8000;0.4217;1.3505;
833.1000;0.4208;1.3458;
833.4000;0.4200;1.3482;
833.7000;0.4208;1.3482;
834.0000;0.4200;1.3482;
834.3000;0.4192;1.3529;
834.6000;0.4241;1.3623;
834.9000;0.4208;1.3529;
835.2000;0.4192;1.3552;
835.5000;0.4225;1.3646;
835.8000;0.4200;1.3505;
836.1000;0.4200;1.3458;
836.4000;0.4192;1.3458;
836.7000;0.4200;1.3576;
837.0000;0.4200;1.3646;
837.3000;0.4208;1.3716;
837.6000;0.4184;1.3646;
837.9000;0.4208;1.3646;
838.2000;0.4200;1.3623;
838.5000;0.4176;1.3646;
838.8000;0.4184;1.3716;
839.1000;0.4176;1.3623;
839.4000;0.4208;1.3599;
839.7000;0.4176;1.3482;
840.0000;0.4184;1.3435;
840.3000;0.4192;1.3458;
840.6000;0.4208;1.3412;
840.9000;0.4192;1.3435;
841.2000;0.4241;1.3576;
841.5000;0.4151;1.3458;
841.8000;0.4184;1.3505;
842.1000;0.4200;1.3552;
842.4000;0.4160;1.3505;
842.7000;0.4200;1.3623;
843.0000;0.4200;1.3623;
843.3000;0.4208;1.3669;
843.6000;0.4184;1.3669;
843.9000;0.4192;1.3599;
844.2000;0.4265;1.3716;
844.5000;0.4200;1.3529;
844.8000;0.4192;1.3435;
845.1000;0.4200;1.3482;
845.4000;0.4217;1.3576;
845.7000;0.4233;1.3599;
846.0000;0.4200;1.3576;
846.3000;0.4200;1.3599;
846.6000;0.4225;1.3576;
846.9000;0.4200;1.3482;
847.2000;0.4200;1.3458;
847.5000;0.4200;1.3482;
847.8000;0.4200;1.3435;
848.1000;0.4192;1.3458;
848.4000;0.4217;1.3599;
848.7000;0.4208;1.3646;
849.0000;0.4184;1.3623;
849.3000;0.4208;1.3740;
849.6000;0.4192;1.3599;
849.9000;0.4192;1.3599;
850.2000;0.4184;1.3599;
850.5000;0.4192;1.3669;
850.8000;0.4200;1.3693;
851.1000;0.4192;1.3716;
851.4000;0.4274;1.3927;
851.7000;0.4200;1.3693;
852.0000;0.4184;1.3646;
852.3000;0.4184;1.3599;
852.6000;0.4184;1.3599;
852.9000;0.4192;1.3599;
853.2000;0.4192;1.3623;
853.5000;0.4176;1.3646;
853.8000;0.4176;1.3669;
854.1000;0.4184;1.3693;
854.4000;0.4192;1.3810;
854.7000;0.4168;1.3740;
855.0000;0.4184;1.3693;
855.3000;0.4135;1.3576;
855.6000;0.4176;1.3740;
855.9000;0.4192;1.3763;
856.2000;0.4233;1.3834;
856.5000;0.4119;1.3505;
856.8000;0.4200;1.3623;
857.1000;0.4225;1.3646;
857.4000;0.4160;1.3435;
857.7000;0.4184;1.3599;
858.0000;0.4184;1.3505;
858.3000;0.4184;1.3529;
858.6000;0.4200;1.3552;
858.9000;0.4208;1.3529;
859.2000;0.4184;1.3623;
859.5000;0.4200;1.3599;
859.8000;0.4192;1.3599;
860.1000;0.4200;1.3646;
860.4000;0.4200;1.3669;
860.7000;0.4249;1.3740;
861.0000;0.4200;1.3646;
861.3000;0.4184;1.3623;
861.6000;0.4184;1.3552;
861.9000;0.4184;1.3623;
862.2000;0.4184;1.3576;
862.5000;0.4200;1.3599;
862.8000;0.4200;1.3646;
863.1000;0.4192;1.3623;
863.4000;0.4176;1.3646;
863.7000;0.4176;1.3669;
864.0000;0.4192;1.3740;
864.3000;0.4176;1.3623;
864.6000;0.4160;1.3458;
864.9000;0.4200;1.3388;
865.2000;0.4192;1.3365;
865.5000;0.4103;1.3271;
865.8000;0.4200;1.3576;
866.1000;0.4200;1.3623;
866.4000;0.4265;1.3810;
866.7000;0.4233;1.3669;
867.0000;0.4208;1.3529;
867.3000;0.4200;1.3552;
867.6000;0.4274;1.3716;
867.9000;0.4208;1.3529;
868.2000;0.4135;1.3341;
868.5000;0.4176;1.3482;
868.8000;0.4200;1.3529;
869.1000;0.4200;1.3529;
869.4000;0.4200;1.3552;
869.7000;0.4200;1.3552;
870.0000;0.4200;1.3646;
870.3000;0.4184;1.3716;
870.6000;0.4184;1.3716;
870.9000;0.4184;1.3740;
871.2000;0.4176;1.3669;
871.5000;0.4200;1.3716;
871.8000;0.4192;1.3576;
872.1000;0.4200;1.3599;
872.4000;0.4249;1.3669;
872.7000;0.4200;1.3505;
873.0000;0.4200;1.3552;
873.3000;0.4135;1.3482;
873.6000;0.4192;1.3646;
873.9000;0.4200;1.3669;
874.2000;0.4192;1.3669;
874.5000;0.4241;1.3693;
874.8000;0.4168;1.3529;
875.1000;0.4200;1.3576;
875.4000;0.4200;1.3576;
875.7000;0.4208;1.3669;
876.0000;0.4208;1.3716;
876.3000;0.4217;1.3740;
876.6000;0.4184;1.3669;
876.9000;0.4176;1.3646;
877.2000;0.4192;1.3669;
877.5000;0.4160;1.3599;
877.8000;0.4184;1.3669;
878.1000;0.4257;1.3904;
878.4000;0.4192;1.3646;
878.7000;0.4184;1.3576;
879.0000;0.4184;1.3552;
879.3000;0.4192;1.3646;
879.6000;0.4119;1.3505;
879.9000;0.4192;1.3646;
880.2000;0.4208;1.3716;
880.5000;0.4176;1.3623;
880.8000;0.4176;1.3623;
881.1000;0.4176;1.3552;
881.4000;0.4143;1.3458;
881.7000;0.4184;1.3529;
882.0000;0.4192;1.3552;
882.3000;0.4200;1.3552;
882.6000;0.4168;1.3505;
882.9000;0.4192;1.3505;
883.2000;0.4168;1.3552;
883.5000;0.4176;1.3529;
883.8000;0.4176;1.3505;
884.1000;0.4176;1.3552;
884.4000;0.4184;1.3623;
884.7000;0.4176;1.3623;
885.0000;0.4192;1.3646;
885.3000;0.4176;1.3576;
885.6000;0.4192;1.3623;
885.9000;0.4176;1.3599;
886.2000;0.4176;1.3552;
886.5000;0.4168;1.3458;
886.8000;0.4192;1.3552;
887.1000;0.4168;1.3576;
887.4000;0.4192;1.3623;
887.7000;0.4176;1.3505;
888.0000;0.4176;1.3505;
888.3000;0.4192;1.3529;
888.6000;0.4192;1.3458;
888.9000;0.4111;1.3318;
889.2000;0.4176;1.3482;
889.5000;0.4330;1.3857;
889.8000;0.4160;1.3576;
890.1000;0.4184;1.3623;
890.4000;0.4143;1.3576;
890.7000;0.4200;1.3740;
891.0000;0.4241;1.3927;
891.3000;0.4208;1.3857;
891.6000;0.4160;1.3693;
891.9000;0.4176;1.3810;
892.2000;0.4192;1.3857;
892.5000;0.4184;1.3787;
892.8000;0.4176;1.3716;
893.1000;0.4176;1.3693;
893.4000;0.4192;1.3763;
893.7000;0.4192;1.3646;
894.0000;0.4168;1.3623;
894.3000;0.4192;1.3552;
894.6000;0.4265;1.3693;
894.9000;0.4192;1.3576;
895.2000;0.4192;1.3623;
895.5000;0.4135;1.3646;
895.8000;0.4160;1.3669;
896.1000;0.4184;1.3740;
896.4000;0.4176;1.3693;
896.7000;0.4168;1.3716;
897.0000;0.4184;1.3810;
897.3000;0.4225;1.3904;
897.6000;0.4168;1.3763;
897.9000;0.4184;1.3787;
898.2000;0.4200;1.3857;
898.5000;0.4208;1.3834;
898.8000;0.4233;1.3834;
899.1000;0.4192;1.3646;
899.4000;0.4168;1.3482;
899.7000;0.4176;1.3505;
900.0000;0.4200;1.3576;
900.3000;0.4200;1.3552;
900.6000;0.4192;1.3576;
900.9000;0.4176;1.3505;
901.2000;0.4151;1.3412;
901.5000;0.4168;1.3552;
901.8000;0.4176;1.3646;
902.1000;0.4176;1.3646;
902.4000;0.4184;1.3599;
902.7000;0.4184;1.3552;
903.0000;0.4184;1.3552;
903.3000;0.4176;1.3576;
903.6000;0.4233;1.3716;
903.9000;0.4160;1.3576;
904.2000;0.4192;1.3716;
904.5000;0.4176;1.3740;
904.8000;0.4208;1.3810;
905.1000;0.4168;1.3716;
905.4000;0.4192;1.3763;
905.7000;0.4184;1.3716;
906.0000;0.4208;1.3810;
906.3000;0.4192;1.3857;
906.6000;0.4176;1.3716;
906.9000;0.4168;1.3669;
907.2000;0.4184;1.3646;
907.5000;0.4192;1.3716;
907.8000;0.4176;1.3716;
908.1000;0.4176;1.3740;
908.4000;0.4168;1.3740;
908.7000;0.4200;1.3716;
909.0000;0.4192;1.3693;
909.3000;0.4184;1.3599;
909.6000;0.4233;1.3716;
909.9000;0.4143;1.3576;
910.2000;0.4200;1.3623;
910.5000;0.4184;1.3552;
910.8000;0.4184;1.3435;
911.1000;0.4111;1.3271;
911.4000;0.4151;1.3482;
911.7000;0.4233;1.3576;
912.0000;0.4274;1.3810;
912.3000;0.4151;1.3435;
912.6000;0.4192;1.3693;
912.9000;0.4184;1.3716;
913.2000;0.4135;1.3646;
913.5000;0.4241;1.3880;
913.8000;0.4111;1.3529;
914.1000;0.4160;1.3763;
914.4000;0.4241;1.3974;
914.7000;0.4192;1.3927;
915.0000;0.4168;1.3763;
915.3000;0.4184;1.3834;
915.6000;0.4184;1.3834;
915.9000;0.4168;1.3787;
916.2000;0.4143;1.3763;
916.5000;0.4208;1.3880;
916.8000;0.4160;1.3787;
917.1000;0.4176;1.3787;
917.4000;0.4168;1.3810;
917.7000;0.4192;1.3810;
918.0000;0.4184;1.3857;
918.3000;0.4168;1.3740;
918.6000;0.4184;1.3693;
918.9000;0.4111;1.3576;
919.2000;0.4184;1.3693;
919.5000;0.4176;1.3740;
919.8000;0.4151;1.3693;
920.1000;0.4192;1.3810;
920.4000;0.4200;1.3810;
920.7000;0.4176;1.3834;
921.0000;0.4103;1.3646;
921.3000;0.4241;1.3927;
921.6000;0.4200;1.3740;
921.9000;0.4176;1.3623;
922.2000;0.4192;1.3669;
922.5000;0.4192;1.3740;
922.8000;0.4143;1.3599;
923.1000;0.4192;1.3716;
923.4000;0.4176;1.3787;
923.7000;0.4176;1.3763;
924.0000;0.4168;1.3763;
924.3000;0.4184;1.3740;
924.6000;0.4176;1.3646;
924.9000;0.4184;1.3693;
925.2000;0.4184;1.3787;
925.5000;0.4200;1.3927;
925.8000;0.4192;1.3904;
926.1000;0.4192;1.3904;
926.4000;0.4151;1.3857;
926.7000;0.4200;1.3904;
927.0000;0.4192;1.3951;
927.3000;0.4160;1.3834;
927.6000;0.4184;1.3763;
927.9000;0.4176;1.3693;
928.2000;0.4184;1.3646;
928.5000;0.4217;1.3669;
928.8000;0.4176;1.3599;
929.1000;0.4200;1.3599;
929.4000;0.4151;1.3576;
929.7000;0.4168;1.3599;
930.0000;0.4208;1.3646;
930.3000;0.4192;1.3669;
930.6000;0.4192;1.3646;
930.9000;0.4184;1.3740;
931.2000;0.4176;1.3693;
931.5000;0.4168;1.3646;
931.8000;0.4200;1.3787;
932.1000;0.4192;1.3669;
932.4000;0.4184;1.3576;
932.7000;0.4184;1.3623;
933.0000;0.4168;1.3646;
933.3000;0.4184;1.3740;
933.6000;0.4176;1.3740;
933.9000;0.4184;1.3693;
934.2000;0.4168;1.3623;
934.5000;0.4119;1.3435;
934.8000;0.4184;1.3646;
935.1000;0.4176;1.3646;
935.4000;0.4086;1.3412;
935.7000;0.4111;1.3529;
936.0000;0.4151;1.3599;
936.3000;0.4135;1.3576;
936.6000;0.4176;1.3740;
936.9000;0.4103;1.3669;
937.2000;0.4160;1.3763;
937.5000;0.4241;1.4045;
937.8000;0.4184;1.3880;
938.1000;0.4127;1.3646;
938.4000;0.4184;1.3787;
938.7000;0.4078;1.3458;
939.0000;0.4184;1.3740;
939.3000;0.4135;1.3763;
939.6000;0.4192;1.3857;
939.9000;0.4176;1.3904;
940.2000;0.4176;1.3880;
940.5000;0.4127;1.3787;
940.8000;0.4176;1.3880;
941.1000;0.4192;1.3880;
941.4000;0.4168;1.3810;
941.7000;0.4160;1.3834;
942.0000;0.4184;1.3927;
942.3000;0.4192;1.3904;
942.6000;0.4192;1.3787;
942.9000;0.4168;1.3693;
943.2000;0.4184;1.3693;
943.5000;0.4168;1.3646;
943.8000;0.4184;1.3740;
944.1000;0.4168;1.3669;
944.4000;0.4111;1.3529;
944.7000;0.4151;1.3576;
945.0000;0.4176;1.3623;
945.3000;0.4184;1.3669;
945.6000;0.4184;1.3599;
945.9000;0.4192;1.3646;
946.2000;0.4160;1.3576;
946.5000;0.4225;1.3880;
946.8000;0.4176;1.3787;
947.1000;0.4176;1.3787;
947.4000;0.4160;1.3810;
947.7000;0.4184;1.3787;
948.0000;0.4184;1.3763;
948.3000;0.4168;1.3693;
948.6000;0.4208;1.3740;
948.9000;0.4160;1.3505;
949.2000;0.4160;1.3529;
949.5000;0.4184;1.3599;
949.8000;0.4094;1.3388;
950.1000;0.4184;1.3505;
950.4000;0.4168;1.3505;
950.7000;0.4160;1.3529;
951.0000;0.4184;1.3646;
951.3000;0.4176;1.3740;
951.6000;0.4127;1.3693;
951.9000;0.4233;1.3927;
952.2000;0.4168;1.3880;
952.5000;0.4192;1.3951;
952.8000;0.4192;1.3857;
953.1000;0.4184;1.3927;
953.4000;0.4176;1.4068;
953.7000;0.4168;1.3974;
954.0000;0.4184;1.3974;
954.3000;0.4176;1.3880;
954.6000;0.4257;1.4045;
954.9000;0.4225;1.3951;
955.2000;0.4176;1.3787;
955.5000;0.4135;1.3646;
955.8000;0.4176;1.3763;
956.1000;0.4184;1.3857;
956.4000;0.4184;1.3927;
956.7000;0.4233;1.4045;
957.0000;0.4233;1.3927;
957.3000;0.4184;1.3740;
957.6000;0.4168;1.3740;
957.9000;0.4119;1.3646;
958.2000;0.4200;1.3810;
958.5000;0.4208;1.3787;
958.8000;0.4176;1.3716;
959.1000;0.4184;1.3740;
959.4000;0.4184;1.3740;
959.7000;0.4160;1.3646;
960.0000;0.4176;1.3623;
960.3000;0.4168;1.3623;
960.6000;0.4168;1.3669;
960.9000;0.4176;1.3599;
961.2000;0.4176;1.3646;
961.5000;0.4160;1.3669;
961.8000;0.4168;1.3669;
962.1000;0.4208;1.3857;
962.4000;0.4176;1.3834;
962.7000;0.4176;1.3880;
963.0000;0.4184;1.3834;
963.3000;0.4143;1.3716;
963.6000;0.4192;1.3857;
963.9000;0.4176;1.3834;
964.2000;0.4160;1.3834;
964.5000;0.4184;1.3880;
964.8000;0.4176;1.3834;
965.1000;0.4168;1.3904;
965.4000;0.4176;1.3904;
965.7000;0.4160;1.3880;
966.0000;0.4160;1.3787;
966.3000;0.4143;1.3669;
966.6000;0.4176;1.3740;
966.9000;0.4168;1.3810;
967.2000;0.4192;1.3834;
967.5000;0.4168;1.3787;
967.8000;0.4160;1.3810;
968.1000;0.4168;1.3834;
968.4000;0.4184;1.3810;
968.7000;0.4184;1.3834;
969.0000;0.4176;1.3834;
969.3000;0.4054;1.3529;
969.6000;0.4184;1.3834;
969.9000;0.4176;1.3740;
970.2000;0.4151;1.3740;
970.5000;0.4086;1.3552;
970.8000;0.4176;1.3646;
971.1000;0.4233;1.3740;
971.4000;0.4184;1.3646;
971.7000;0.4200;1.3716;
972.0000;0.4176;1.3646;
972.3000;0.4070;1.3435;
972.6000;0.4143;1.3623;
972.9000;0.4160;1.3693;
973.2000;0.4151;1.3669;
973.5000;0.4208;1.3787;
973.8000;0.4176;1.3716;
974.1000;0.4176;1.3693;
974.4000;0.4192;1.3693;
974.7000;0.4160;1.3716;
975.0000;0.4184;1.3740;
975.3000;0.4184;1.3787;
975.6000;0.4151;1.3716;
975.9000;0.4176;1.3740;
976.2000;0.4184;1.3787;
976.5000;0.4160;1.3763;
976.8000;0.4176;1.3857;
977.1000;0.4151;1.3834;
977.4000;0.4151;1.3740;
977.7000;0.4168;1.3693;
978.0000;0.4168;1.3646;
978.3000;0.4176;1.3740;
978.6000;0.4233;1.3810;
978.9000;0.4168;1.3599;
979.2000;0.4168;1.3646;
979.5000;0.4192;1.3646;
979.8000;0.4208;1.3623;
980.1000;0.4168;1.3599;
980.4000;0.4184;1.3669;
980.7000;0.4160;1.3646;
981.0000;0.4184;1.3693;
981.3000;0.4184;1.3669;
981.6000;0.4225;1.3810;
981.9000;0.4103;1.3529;
982.2000;0.4143;1.3646;
982.5000;0.4168;1.3646;
982.8000;0.4168;1.3623;
983.1000;0.4233;1.3810;
983.4000;0.4168;1.3669;
983.7000;0.4208;1.3810;
984.0000;0.4119;1.3623;
984.3000;0.4151;1.3646;
984.6000;0.4168;1.3646;
984.9000;0.4192;1.3740;
985.2000;0.4184;1.3763;
985.5000;0.4184;1.3834;
985.8000;0.4184;1.3834;
986.1000;0.4192;1.3927;
986.4000;0.4094;1.3669;
986.7000;0.4184;1.3857;
987.0000;0.4176;1.3787;
987.3000;0.4225;1.3951;
987.6000;0.4184;1.3740;
987.9000;0.4176;1.3646;
988.2000;0.4168;1.3716;
988.5000;0.4184;1.3834;
988.8000;0.4143;1.3810;
989.1000;0.4168;1.3810;
989.4000;0.4176;1.3740;
989.7000;0.4176;1.3716;
990.0000;0.4192;1.3787;
990.3000;0.4176;1.3693;
990.6000;0.4176;1.3740;
990.9000;0.4151;1.3787;
991.2000;0.4168;1.3834;
991.5000;0.4143;1.3716;
991.8000;0.4176;1.3880;
992.1000;0.4127;1.3740;
992.4000;0.4127;1.3716;
992.7000;0.4160;1.3763;
993.0000;0.4168;1.3857;
993.3000;0.4151;1.3834;
993.6000;0.4200;1.3880;
993.9000;0.4168;1.3740;
994.2000;0.4176;1.3623;
994.5000;0.4168;1.3599;
994.8000;0.4160;1.3552;
995.1000;0.4184;1.3623;
995.4000;0.4103;1.3365;
995.7000;0.4151;1.3529;
996.0000;0.4160;1.3552;
996.3000;0.4168;1.3599;
996.6000;0.4168;1.3529;
996.9000;0.4151;1.3482;
997.2000;0.4143;1.3458;
997.5000;0.4160;1.3435;
997.8000;0.4168;1.3365;
998.1000;0.4176;1.3365;
998.4000;0.4143;1.3271;
998.7000;0.4233;1.3482;
999.0000;0.4160;1.3388;
999.3000;0.4184;1.3458;
999.6000;0.4176;1.3505;
999.9000;0.4151;1.3388;
1000.2000;0.4160;1.3388;
1000.5000;0.4176;1.3458;
1000.8000;0.4151;1.3435;
1001.1000;0.4168;1.3529;
1001.4000;0.4151;1.3482;
1001.7000;0.4176;1.3412;
1002.0000;0.4151;1.3388;
1002.3000;0.4184;1.3482;
1002.6000;0.4176;1.3576;
1002.9000;0.4184;1.3623;
1003.2000;0.4135;1.3599;
1003.5000;0.4168;1.3669;
1003.8000;0.4143;1.3646;
1004.1000;0.4192;1.3693;
1004.4000;0.4184;1.3646;
1004.7000;0.4176;1.3623;
1005.0000;0.4168;1.3552;
1005.3000;0.4176;1.3623;
1005.6000;0.4176;1.3646;
1005.9000;0.4176;1.3599;
1006.2000;0.4225;1.3740;
1006.5000;0.4143;1.3482;
1006.8000;0.4168;1.3435;
1007.1000;0.4184;1.3482;
1007.4000;0.4151;1.3458;
1007.7000;0.4176;1.3458;
1008.0000;0.4184;1.3505;
1008.3000;0.4184;1.3458;
1008.6000;0.4168;1.3412;
1008.9000;0.4160;1.3482;
1009.2000;0.4200;1.3529;
1009.5000;0.4184;1.3505;
1009.8000;0.4168;1.3576;
1010.1000;0.4160;1.3552;
1010.4000;0.4160;1.3552;
1010.7000;0.4111;1.3388;
1011.0000;0.4160;1.3529;
1011.3000;0.4135;1.3458;
1011.6000;0.4168;1.3576;
1011.9000;0.4184;1.3576;
1012.2000;0.4192;1.3599;
1012.5000;0.4233;1.3669;
1012.8000;0.4176;1.3482;
1013.1000;0.4192;1.3576;
1013.4000;0.4200;1.3505;
1013.7000;0.4176;1.3529;
1014.0000;0.4176;1.3529;
1014.3000;0.4168;1.3458;
1014.6000;0.4184;1.3482;
1014.9000;0.4160;1.3435;
1015.2000;0.4176;1.3435;
1015.5000;0.4176;1.3482;
1015.8000;0.4176;1.3412;
1016.1000;0.4160;1.3435;
1016.4000;0.4160;1.3365;
1016.7000;0.4168;1.3435;
1017.0000;0.4176;1.3482;
1017.3000;0.4160;1.3458;
1017.6000;0.4160;1.3505;
1017.9000;0.4176;1.3552;
1018.2000;0.4184;1.3599;
1018.5000;0.4160;1.3576;
1018.8000;0.4233;1.3740;
1019.1000;0.4160;1.3529;
1019.4000;0.4176;1.3529;
1019.7000;0.4184;1.3623;
1020.0000;0.4160;1.3599;
1020.3000;0.4176;1.3646;
1020.6000;0.4274;1.3927;
1020.9000;0.4217;1.3716;
1021.2000;0.4168;1.3693;
1021.5000;0.4217;1.3787;
1021.8000;0.4151;1.3529;
1022.1000;0.4176;1.3669;
1022.4000;0.4184;1.3576;
1022.7000;0.4176;1.3482;
1023.0000;0.4160;1.3388;
1023.3000;0.4192;1.3458;
1023.6000;0.4249;1.3599;
1023.9000;0.4184;1.3341;
1024.2000;0.4176;1.3365;
1024.5000;0.4168;1.3365;
1024.8000;0.4103;1.3177;
1025.1000;0.4160;1.3341;
1025.4000;0.4160;1.3435;
1025.7000;0.4151;1.3435;
1026.0000;0.4168;1.3505;
1026.3000;0.4184;1.3576;
1026.6000;0.4176;1.3552;
1026.9000;0.4143;1.3599;
1027.2000;0.4135;1.3552;
1027.5000;0.4176;1.3646;
1027.8000;0.4176;1.3646;
1028.1000;0.4225;1.3763;
1028.4000;0.4184;1.3669;
1028.7000;0.4192;1.3763;
1029.0000;0.4192;1.3787;
1029.3000;0.4176;1.3787;
1029.6000;0.4143;1.3834;
1029.9000;0.4200;1.3927;
1030.2000;0.4176;1.3787;
1030.5000;0.4184;1.3810;
1030.8000;0.4151;1.3646;
1031.1000;0.4103;1.3482;
1031.4000;0.4151;1.3646;
1031.7000;0.4168;1.3693;
1032.0000;0.4233;1.3927;
1032.3000;0.4176;1.3810;
1032.6000;0.4176;1.3810;
1032.9000;0.4168;1.3787;
1033.2000;0.4200;1.3787;
1033.5000;0.4151;1.3693;
1033.8000;0.4176;1.3693;
1034.1000;0.4225;1.3880;
1034.4000;0.4176;1.3693;
1034.7000;0.4184;1.3740;
1035.0000;0.4151;1.3623;
1035.3000;0.4168;1.3693;
1035.6000;0.4176;1.3599;
1035.9000;0.4143;1.3552;
1036.2000;0.4143;1.3529;
1036.5000;0.4168;1.3576;
1036.8000;0.4070;1.3412;
1037.1000;0.4241;1.3787;
1037.4000;0.4233;1.3716;
1037.7000;0.4160;1.3623;
1038.0000;0.4176;1.3646;
1038.3000;0.4274;1.3974;
1038.6000;0.4160;1.3740;
1038.9000;0.4184;1.3740;
1039.2000;0.4176;1.3646;
1039.5000;0.4160;1.3599;
1039.8000;0.4217;1.3787;
1040.1000;0.4160;1.3716;
1040.4000;0.4192;1.3763;
1040.7000;0.4168;1.3646;
1041.0000;0.4160;1.3552;
1041.3000;0.4168;1.3693;
1041.6000;0.4176;1.3716;
1041.9000;0.4184;1.3669;
1042.2000;0.4160;1.3623;
1042.5000;0.4184;1.3787;
1042.8000;0.4176;1.3646;
1043.1000;0.4176;1.3669;
1043.4000;0.4200;1.3693;
1043.7000;0.4184;1.3763;
1044.0000;0.4184;1.3693;
1044.3000;0.4176;1.3716;
1044.6000;0.4094;1.3599;
1044.9000;0.4160;1.3810;
1045.2000;0.4184;1.3880;
1045.5000;0.4135;1.3763;
1045.8000;0.4176;1.3810;
1046.1000;0.4151;1.3763;
1046.4000;0.4200;1.3787;
1046.7000;0.4168;1.3763;
1047.0000;0.4135;1.3646;
1047.3000;0.4151;1.3623;
1047.6000;0.4160;1.3646;
1047.9000;0.4217;1.3834;
1048.2000;0.4192;1.3716;
1048.5000;0.4192;1.3693;
1048.8000;0.4094;1.3505;
1049.1000;0.4208;1.3740;
1049.4000;0.4176;1.3623;
1049.7000;0.4176;1.3693;
1050.0000;0.4078;1.3412;
1050.3000;0.4184;1.3505;
1050.6000;0.4217;1.3458;
1050.9000;0.4184;1.3388;
1051.2000;0.4176;1.3341;
1051.5000;0.4168;1.3412;
1051.8000;0.4151;1.3435;
1052.1000;0.4176;1.3318;
1052.4000;0.4168;1.3365;
1052.7000;0.4151;1.3365;
1053.0000;0.4160;1.3318;
1053.3000;0.4192;1.3341;
1053.6000;0.4160;1.3294;
1053.9000;0.4160;1.3318;
1054.2000;0.4127;1.3201;
1054.5000;0.4168;1.3365;
1054.8000;0.4168;1.3388;
1055.1000;0.4103;1.3224;
1055.4000;0.4160;1.3341;
1055.7000;0.4103;1.3201;
1056.0000;0.4160;1.3341;
1056.3000;0.4127;1.3247;
1056.6000;0.4151;1.3435;
1056.9000;0.4160;1.3458;
1057.2000;0.4160;1.3365;
1057.5000;0.4151;1.3412;
1057.8000;0.4192;1.3505;
1058.1000;0.4176;1.3482;
1058.4000;0.4168;1.3435;
1058.7000;0.4160;1.3412;
1059.0000;0.4160;1.3505;
1059.3000;0.4151;1.3412;
1059.6000;0.4135;1.3341;
1059.9000;0.4168;1.3529;
1060.2000;0.4160;1.3599;
1060.5000;0.4168;1.3646;
1060.8000;0.4111;1.3435;
1061.1000;0.4184;1.3693;
1061.4000;0.4176;1.3834;
1061.7000;0.4160;1.3787;
1062.0000;0.4168;1.3716;
1062.3000;0.4168;1.3763;
1062.6000;0.4160;1.3787;
1062.9000;0.4143;1.3787;
1063.2000;0.4160;1.3716;
1063.5000;0.4151;1.3599;
1063.8000;0.4184;1.3669;
1064.1000;0.4241;1.3810;
1064.4000;0.4192;1.3693;
1064.7000;0.4168;1.3576;
1065.0000;0.4160;1.3529;
1065.3000;0.4135;1.3435;
1065.6000;0.4160;1.3599;
1065.9000;0.4241;1.3693;
1066.2000;0.4200;1.3599;
1066.5000;0.4151;1.3482;
1066.8000;0.4160;1.3505;
1067.1000;0.4217;1.3623;
1067.4000;0.4200;1.3529;
1067.7000;0.4151;1.3435;
1068.0000;0.4151;1.3552;
1068.3000;0.4151;1.3505;
1068.6000;0.4176;1.3599;
1068.9000;0.4184;1.3740;
1069.2000;0.4168;1.3716;
1069.5000;0.4160;1.3693;
1069.8000;0.4192;1.3576;
1070.1000;0.4176;1.3576;
1070.4000;0.4225;1.3623;
1070.7000;0.4160;1.3435;
1071.0000;0.4103;1.3365;
1071.3000;0.4168;1.3482;
1071.6000;0.4135;1.3458;
1071.9000;0.4151;1.3529;
1072.2000;0.4151;1.3552;
1072.5000;0.4168;1.3529;
1072.8000;0.4143;1.3458;
1073.1000;0.4160;1.3435;
1073.4000;0.4160;1.3458;
1073.7000;0.4184;1.3412;
1074.0000;0.4168;1.3482;
1074.3000;0.4143;1.3529;
1074.6000;0.4143;1.3482;
1074.9000;0.4200;1.3576;
1075.2000;0.4192;1.3599;
1075.5000;0.4160;1.3552;
1075.8000;0.4176;1.3576;
1076.1000;0.4151;1.3552;
1076.4000;0.4176;1.3482;
1076.7000;0.4176;1.3529;
1077.0000;0.4176;1.3576;
1077.3000;0.4176;1.3623;
1077.6000;0.4176;1.3576;
1077.9000;0.4160;1.3552;
1078.2000;0.4168;1.3576;
1078.5000;0.4176;1.3599;
1078.8000;0.4176;1.3529;
1079.1000;0.4160;1.3505;
1079.4000;0.4151;1.3412;
1079.7000;0.4135;1.3388;
1080.0000;0.4160;1.3388;
1080.3000;0.4119;1.3177;
1080.6000;0.4168;1.3365;
1080.9000;0.4192;1.3458;
1081.2000;0.4184;1.3552;
1081.5000;0.4135;1.3458;
1081.8000;0.4151;1.3669;
1082.1000;0.4151;1.3716;
1082.4000;0.4217;1.3834;
1082.7000;0.4192;1.3716;
1083.0000;0.4160;1.3669;
1083.3000;0.4176;1.3576;
1083.6000;0.4208;1.3623;
1083.9000;0.4184;1.3552;
1084.2000;0.4176;1.3505;
1084.5000;0.4168;1.3412;
1084.8000;0.4233;1.3646;
1085.1000;0.4184;1.3482;
1085.4000;0.4168;1.3529;
1085.7000;0.4143;1.3529;
1086.0000;0.4168;1.3599;
1086.3000;0.4208;1.3669;
1086.6000;0.4168;1.3529;
1086.9000;0.4208;1.3576;
1087.2000;0.4160;1.3435;
1087.5000;0.4160;1.3435;
1087.8000;0.4176;1.3458;
1088.1000;0.4184;1.3529;
1088.4000;0.4168;1.3599;
1088.7000;0.4168;1.3623;
1089.0000;0.4168;1.3623;
1089.3000;0.4168;1.3646;
1089.6000;0.4160;1.3576;
1089.9000;0.4127;1.3505;
1090.2000;0.4168;1.3599;
1090.5000;0.4160;1.3599;
1090.8000;0.4151;1.3505;
1091.1000;0.4225;1.3623;
1091.4000;0.4184;1.3505;
1091.7000;0.4160;1.3458;
1092.0000;0.4160;1.3529;
1092.3000;0.4168;1.3529;
1092.6000;0.4160;1.3505;
1092.9000;0.4184;1.3505;
1093.2000;0.4168;1.3505;
1093.5000;0.4160;1.3458;
1093.8000;0.4151;1.3458;
1094.1000;0.4184;1.3576;
1094.4000;0.4168;1.3529;
1094.7000;0.4168;1.3505;
1095.0000;0.4160;1.3529;
1095.3000;0.4176;1.3646;
1095.6000;0.4184;1.3716;
1095.9000;0.4160;1.3599;
1096.2000;0.4184;1.3599;
1096.5000;0.4160;1.3529;
1096.8000;0.4160;1.3599;
1097.1000;0.4176;1.3669;
1097.4000;0.4168;1.3669;
1097.7000;0.4176;1.3693;
1098.0000;0.4176;1.3763;
1098.3000;0.4151;1.3669;
1098.6000;0.4168;1.3763;
1098.9000;0.4184;1.3740;
1099.2000;0.4184;1.3763;
1099.5000;0.4168;1.3646;
1099.8000;0.4135;1.3529;
1100.1000;0.4143;1.3529;
1100.4000;0.4151;1.3482;
1100.7000;0.4160;1.3552;
1101.0000;0.4151;1.3505;
1101.3000;0.4127;1.3435;
1101.6000;0.4160;1.3412;
1101.9000;0.4184;1.3412;
1102.2000;0.4103;1.3271;
1102.5000;0.4135;1.3388;
1102.8000;0.4176;1.3482;
1103.1000;0.4160;1.3458;
1103.4000;0.4127;1.3458;
1103.7000;0.4168;1.3505;
1104.0000;0.4160;1.3505;
1104.3000;0.4151;1.3412;
1104.6000;0.4151;1.3341;
1104.9000;0.4168;1.3318;
1105.2000;0.4160;1.3318;
1105.5000;0.4135;1.3177;
1105.8000;0.4151;1.3177;
1106.1000;0.4135;1.3224;
1106.4000;0.4160;1.3224;
1106.7000;0.4160;1.3341;
1107.0000;0.4160;1.3412;
1107.3000;0.4070;1.3130;
1107.6000;0.4151;1.3341;
1107.9000;0.4160;1.3247;
1108.2000;0.4151;1.3294;
1108.5000;0.4208;1.3458;
1108.8000;0.4160;1.3388;
1109.1000;0.4176;1.3365;
1109.4000;0.4176;1.3412;
1109.7000;0.4160;1.3458;
1110.0000;0.4160;1.3412;
1110.3000;0.4176;1.3435;
1110.6000;0.4168;1.3458;
1110.9000;0.4151;1.3435;
1111.2000;0.4184;1.3505;
1111.5000;0.4176;1.3529;
1111.8000;0.4176;1.3576;
1112.1000;0.4160;1.3576;
1112.4000;0.4160;1.3552;
1112.7000;0.4151;1.3529;
1113.0000;0.4184;1.3576;
1113.3000;0.4176;1.3552;
1113.6000;0.4168;1.3552;
1113.9000;0.4176;1.3552;
1114.2000;0.4168;1.3505;
1114.5000;0.4135;1.3458;
1114.8000;0.4160;1.3505;
1115.1000;0.4184;1.3716;
1115.4000;0.4168;1.3669;
1115.7000;0.4160;1.3669;
1116.0000;0.4168;1.3740;
1116.3000;0.4184;1.3763;
1116.6000;0.4151;1.3646;
1116.9000;0.4217;1.3787;
1117.2000;0.4160;1.3646;
1117.5000;0.4143;1.3552;
1117.8000;0.4143;1.3505;
1118.1000;0.4176;1.3599;
1118.4000;0.4160;1.3599;
1118.7000;0.4176;1.3623;
1119.0000;0.4176;1.3763;
1119.3000;0.4168;1.3693;
1119.6000;0.4168;1.3740;
1119.9000;0.4184;1.3740;
1120.2000;0.4184;1.3716;
1120.5000;0.4192;1.3716;
1120.8000;0.4160;1.3623;
1121.1000;0.4160;1.3669;
1121.4000;0.4160;1.3552;
1121.7000;0.4176;1.3623;
1122.0000;0.4151;1.3529;
1122.3000;0.4160;1.3505;
1122.6000;0.4184;1.3529;
1122.9000;0.4176;1.3505;
1123.2000;0.4143;1.3412;
1123.5000;0.4160;1.3576;
1123.8000;0.4184;1.3623;
1124.1000;0.4151;1.3576;
1124.4000;0.4176;1.3552;
1124.7000;0.4151;1.3482;
1125.0000;0.4086;1.3271;
1125.3000;0.4160;1.3412;
1125.6000;0.4168;1.3365;
1125.9000;0.4160;1.3458;
1126.2000;0.4160;1.3505;
1126.5000;0.4176;1.3576;
1126.8000;0.4151;1.3529;
1127.1000;0.4200;1.3669;
1127.4000;0.4160;1.3576;
1127.7000;0.4200;1.3623;
1128.0000;0.4168;1.3552;
1128.3000;0.4135;1.3482;
1128.6000;0.4160;1.3458;
1128.9000;0.4176;1.3576;
1129.2000;0.4249;1.3693;
1129.5000;0.4176;1.3599;
1129.8000;0.4225;1.3693;
1130.1000;0.4168;1.3623;
1130.4000;0.4168;1.3646;
1130.7000;0.4176;1.3599;
1131.0000;0.4168;1.3529;
1131.3000;0.4143;1.3505;
1131.6000;0.4176;1.3646;
1131.9000;0.4151;1.3529;
1132.2000;0.4168;1.3552;
1132.5000;0.4176;1.3646;
1132.8000;0.4184;1.3623;
1133.1000;0.4151;1.3576;
1133.4000;0.4241;1.3810;
1133.7000;0.4151;1.3669;
1134.0000;0.4160;1.3693;
1134.3000;0.4176;1.3669;
1134.6000;0.4168;1.3716;
1134.9000;0.4176;1.3740;
1135.2000;0.4160;1.3716;
1135.5000;0.4160;1.3763;
1135.8000;0.4168;1.3646;
1136.1000;0.4168;1.3576;
1136.4000;0.4184;1.3505;
1136.7000;0.4151;1.3435;
1137.0000;0.4168;1.3458;
1137.3000;0.4160;1.3435;
1137.6000;0.4078;1.3201;
1137.9000;0.4168;1.3341;
1138.2000;0.4151;1.3271;
1138.5000;0.4176;1.3318;
1138.8000;0.4143;1.3318;
1139.1000;0.4168;1.3458;
1139.4000;0.4119;1.3435;
1139.7000;0.4143;1.3458;
1140.0000;0.4176;1.3529;
1140.3000;0.4168;1.3552;
1140.6000;0.4160;1.3599;
1140.9000;0.4160;1.3623;
1141.2000;0.4160;1.3599;
1141.5000;0.4168;1.3576;
1141.8000;0.4160;1.3623;
1142.1000;0.4192;1.3693;
1142.4000;0.4176;1.3623;
1142.7000;0.4151;1.3669;
1143.0000;0.4160;1.3763;
1143.3000;0.4160;1.3787;
1143.6000;0.4151;1.3810;
1143.9000;0.4176;1.3834;
1144.2000;0.4127;1.3787;
1144.5000;0.4168;1.3787;
1144.8000;0.4151;1.3763;
1145.1000;0.4151;1.3740;
1145.4000;0.4168;1.3693;
1145.7000;0.4176;1.3716;
1146.0000;0.4168;1.3693;
1146.3000;0.4151;1.3669;
1146.6000;0.4160;1.3646;
1146.9000;0.4119;1.3552;
1147.2000;0.4160;1.3552;
1147.5000;0.4160;1.3505;
1147.8000;0.4086;1.3388;
1148.1000;0.4127;1.3458;
1148.4000;0.4127;1.3458;
1148.7000;0.4143;1.3482;
1149.0000;0.4168;1.3529;
1149.3000;0.4135;1.3599;
1149.6000;0.4176;1.3669;
1149.9000;0.4160;1.3552;
1150.2000;0.4160;1.3552;
1150.5000;0.4151;1.3529;
1150.8000;0.4151;1.3482;
1151.1000;0.4176;1.3576;
1151.4000;0.4176;1.3646;
1151.7000;0.4151;1.3576;
1152.0000;0.4127;1.3388;
1152.3000;0.4184;1.3529;
1152.6000;0.4143;1.3412;
1152.9000;0.4200;1.3412;
1153.2000;0.4265;1.3623;
1153.5000;0.4249;1.3646;
1153.8000;0.4192;1.3435;
1154.1000;0.4160;1.3529;
1154.4000;0.4160;1.3505;
1154.7000;0.4184;1.3576;
1155.0000;0.4176;1.3693;
1155.3000;0.4151;1.3716;
1155.6000;0.4184;1.3693;
1155.9000;0.4176;1.3623;
1156.2000;0.4151;1.3529;
1156.5000;0.4160;1.3482;
1156.8000;0.4168;1.3435;
1157.1000;0.4151;1.3365;
1157.4000;0.4168;1.3458;
1157.7000;0.4176;1.3482;
1158.0000;0.4208;1.3458;
1158.3000;0.4160;1.3435;
1158.6000;0.4151;1.3341;
1158.9000;0.4151;1.3341;
1159.2000;0.4143;1.3435;
1159.5000;0.4135;1.3388;
1159.8000;0.4160;1.3388;
1160.1000;0.4184;1.3482;
1160.4000;0.4168;1.3458;
1160.7000;0.4160;1.3482;
1161.0000;0.4143;1.3505;
1161.3000;0.4168;1.3529;
1161.6000;0.4208;1.3646;
1161.9000;0.4151;1.3505;
1162.2000;0.4151;1.3599;
1162.5000;0.4274;1.3857;
1162.8000;0.4168;1.3576;
1163.1000;0.4160;1.3552;
1163.4000;0.4160;1.3482;
1163.7000;0.4168;1.3435;
1164.0000;0.4168;1.3482;
1164.3000;0.4151;1.3552;
1164.6000;0.4143;1.3552;
1164.9000;0.4160;1.3599;
1165.2000;0.4168;1.3576;
1165.5000;0.4151;1.3552;
1165.8000;0.4176;1.3669;
1166.1000;0.4160;1.3623;
1166.4000;0.4176;1.3646;
1166.7000;0.4127;1.3552;
1167.0000;0.4168;1.3623;
1167.3000;0.4160;1.3623;
1167.6000;0.4168;1.3716;
1167.9000;0.4135;1.3599;
1168.2000;0.4160;1.3576;
1168.5000;0.4135;1.3482;
1168.8000;0.4184;1.3505;
1169.1000;0.4192;1.3458;
1169.4000;0.4168;1.3388;
1169.7000;0.4143;1.3388;
1170.0000;0.4176;1.3435;
1170.3000;0.4200;1.3599;
1170.6000;0.4184;1.3646;
1170.9000;0.4160;1.3623;
1171.2000;0.4176;1.3623;
1171.5000;0.4160;1.3669;
1171.8000;0.4176;1.3763;
1172.1000;0.4151;1.3646;
1172.4000;0.4135;1.3552;
1172.7000;0.4168;1.3599;
1173.0000;0.4119;1.3482;
1173.3000;0.4168;1.3552;
1173.6000;0.4151;1.3576;
1173.9000;0.4176;1.3623;
1174.2000;0.4160;1.3552;
1174.5000;0.4160;1.3505;
1174.8000;0.4135;1.3435;
1175.1000;0.4135;1.3435;
1175.4000;0.4143;1.3435;
1175.7000;0.4184;1.3505;
1176.0000;0.4103;1.3318;
1176.3000;0.4168;1.3599;
1176.6000;0.4160;1.3599;
1176.9000;0.4168;1.3646;
1177.2000;0.4176;1.3646;
1177.5000;0.4176;1.3716;
1177.8000;0.4135;1.3669;
1178.1000;0.4184;1.3787;
1178.4000;0.4151;1.3646;
1178.7000;0.4168;1.3646;
1179.0000;0.4176;1.3646;
1179.3000;0.4094;1.3458;
1179.6000;0.4151;1.3623;
1179.9000;0.4176;1.3529;
1180.2000;0.4119;1.3412;
1180.5000;0.4168;1.3576;
1180.8000;0.4168;1.3529;
1181.1000;0.4135;1.3435;
1181.4000;0.4151;1.3412;
1181.7000;0.4184;1.3435;
1182.0000;0.4176;1.3458;
1182.3000;0.4168;1.3529;
1182.6000;0.4160;1.3576;
1182.9000;0.4176;1.3669;
1183.2000;0.4160;1.3693;
1183.5000;0.4168;1.3669;
1183.8000;0.4160;1.3693;
1184.1000;0.4168;1.3599;
1184.4000;0.4192;1.3669;
1184.7000;0.4168;1.3623;
1185.0000;0.4151;1.3599;
1185.3000;0.4200;1.3669;
1185.6000;0.4151;1.3623;
1185.9000;0.4168;1.3646;
1186.2000;0.4151;1.3552;
1186.5000;0.4135;1.3388;
1186.8000;0.4184;1.3505;
1187.1000;0.4103;1.3294;
1187.4000;0.4168;1.3599;
1187.7000;0.4143;1.3482;
1188.0000;0.4160;1.3482;
1188.3000;0.4151;1.3529;
1188.6000;0.4151;1.3576;
1188.9000;0.4176;1.3716;
1189.2000;0.4168;1.3740;
1189.5000;0.4184;1.3740;
1189.8000;0.4160;1.3646;
1190.1000;0.4151;1.3623;
1190.4000;0.4127;1.3505;
1190.7000;0.4160;1.3529;
1191.0000;0.4151;1.3552;
1191.3000;0.4151;1.3435;
1191.6000;0.4151;1.3388;
1191.9000;0.4168;1.3412;
1192.2000;0.4168;1.3458;
1192.5000;0.4176;1.3529;
1192.8000;0.4192;1.3599;
1193.1000;0.4151;1.3623;
1193.4000;0.4151;1.3646;
1193.7000;0.4176;1.3576;
1194.0000;0.4151;1.3623;
1194.3000;0.4160;1.3529;
1194.6000;0.4176;1.3529;
1194.9000;0.4143;1.3552;
1195.2000;0.4168;1.3552;
1195.5000;0.4127;1.3458;
1195.8000;0.4143;1.3505;
1196.1000;0.4168;1.3529;
1196.4000;0.4143;1.3458;
1196.7000;0.4160;1.3505;
1197.0000;0.4143;1.3458;
1197.3000;0.4119;1.3365;
1197.6000;0.4176;1.3458;
1197.9000;0.4143;1.3435;
1198.2000;0.4160;1.3529;
1198.5000;0.4184;1.3599;
1198.8000;0.4160;1.3529;
1199.1000;0.4160;1.3599;
1199.4000;0.4168;1.3669;
1199.7000;0.4160;1.3693;
1200.0000;0.4184;1.3623;
1200.3000;0.4176;1.3623;
1200.6000;0.4143;1.3529;
1200.9000;0.4135;1.3458;
1201.2000;0.4176;1.3576;
1201.5000;0.4160;1.3505;
1201.8000;0.4160;1.3529;
1202.1000;0.4176;1.3482;
1202.4000;0.4086;1.3318;
1202.7000;0.4160;1.3505;
1203.0000;0.4160;1.3458;
1203.3000;0.4168;1.3482;
1203.6000;0.4119;1.3505;
1203.9000;0.4217;1.3740;
1204.2000;0.4168;1.3669;
1204.5000;0.4184;1.3834;
1204.8000;0.4176;1.3669;
1205.1000;0.4160;1.3552;
1205.4000;0.4168;1.3646;
1205.7000;0.4184;1.3763;
1206.0000;0.4143;1.3716;
1206.3000;0.4176;1.3810;
1206.6000;0.4176;1.3716;
1206.9000;0.4160;1.3623;
1207.2000;0.4160;1.3529;
1207.5000;0.4151;1.3458;
1207.8000;0.4168;1.3435;
1208.1000;0.4127;1.3412;
1208.4000;0.4127;1.3388;
1208.7000;0.4160;1.3412;
1209.0000;0.4160;1.3458;
1209.3000;0.4168;1.3529;
1209.6000;0.4135;1.3435;
1209.9000;0.4168;1.3646;
1210.2000;0.4192;1.3716;
1210.5000;0.4160;1.3646;
1210.8000;0.4143;1.3669;
1211.1000;0.4151;1.3599;
1211.4000;0.4200;1.3834;
1211.7000;0.4176;1.3763;
1212.0000;0.4143;1.3740;
1212.3000;0.4151;1.3716;
1212.6000;0.4168;1.3763;
1212.9000;0.4151;1.3740;
1213.2000;0.4168;1.3740;
1213.5000;0.4160;1.3693;
1213.8000;0.4135;1.3787;
1214.1000;0.4070;1.3552;
1214.4000;0.4168;1.3693;
1214.7000;0.4168;1.3740;
1215.0000;0.4151;1.3763;
1215.3000;0.4160;1.3787;
1215.6000;0.4168;1.3740;
1215.9000;0.4160;1.3740;
1216.2000;0.4217;1.3716;
1216.5000;0.4168;1.3529;
1216.8000;0.4160;1.3576;
1217.1000;0.4208;1.3763;
1217.4000;0.4151;1.3623;
1217.7000;0.4143;1.3599;
1218.0000;0.4160;1.3646;
1218.3000;0.4217;1.3834;
1218.6000;0.4160;1.3669;
1218.9000;0.4160;1.3646;
1219.2000;0.4160;1.3646;
1219.5000;0.4160;1.3576;
1219.8000;0.4160;1.3576;
1220.1000;0.4233;1.3834;
1220.4000;0.4249;1.3857;
1220.7000;0.4168;1.3646;
1221.0000;0.4151;1.3552;
1221.3000;0.4168;1.3576;
1221.6000;0.4143;1.3552;
1221.9000;0.4151;1.3599;
1222.2000;0.4160;1.3599;
1222.5000;0.4168;1.3669;
1222.8000;0.4160;1.3646;
1223.1000;0.4160;1.3599;
1223.4000;0.4103;1.3341;
1223.7000;0.4151;1.3412;
1224.0000;0.4151;1.3458;
1224.3000;0.4176;1.3669;
1224.6000;0.4151;1.3646;
1224.9000;0.4070;1.3529;
1225.2000;0.4127;1.3716;
1225.5000;0.4135;1.3646;
1225.8000;0.4151;1.3669;
1226.1000;0.4160;1.3669;
1226.4000;0.4151;1.3740;
1226.7000;0.4192;1.3716;
1227.0000;0.4168;1.3740;
1227.3000;0.4176;1.3716;
1227.6000;0.4143;1.3646;
1227.9000;0.4151;1.3646;
1228.2000;0.4168;1.3646;
1228.5000;0.4160;1.3552;
1228.8000;0.4160;1.3552;
1229.1000;0.4151;1.3529;
1229.4000;0.4160;1.3552;
1229.7000;0.4143;1.3552;
1230.0000;0.4168;1.3458;
1230.3000;0.4168;1.3435;
1230.6000;0.4143;1.3458;
1230.9000;0.4225;1.3623;
1231.2000;0.4086;1.3365;
1231.5000;0.4160;1.3552;
1231.8000;0.4192;1.3576;
1232.1000;0.4176;1.3529;
1232.4000;0.4143;1.3505;
1232.7000;0.4168;1.3552;
1233.0000;0.4168;1.3599;
1233.3000;0.4160;1.3529;
1233.6000;0.4151;1.3412;
1233.9000;0.4168;1.3435;
1234.2000;0.4062;1.3247;
1234.5000;0.4168;1.3552;
1234.8000;0.4151;1.3482;
1235.1000;0.4168;1.3388;
1235.4000;0.4160;1.3365;
1235.7000;0.4127;1.3341;
1236.0000;0.4119;1.3318;
1236.3000;0.4176;1.3482;
1236.6000;0.4151;1.3482;
1236.9000;0.4151;1.3458;
1237.2000;0.4160;1.3412;
1237.5000;0.4168;1.3388;
1237.8000;0.4160;1.3435;
1238.1000;0.4225;1.3599;
1238.4000;0.4168;1.3552;
1238.7000;0.4184;1.3646;
1239.0000;0.4168;1.3552;
1239.3000;0.4151;1.3552;
1239.6000;0.4192;1.3787;
1239.9000;0.4135;1.3646;
1240.2000;0.4176;1.3669;
1240.5000;0.4160;1.3669;
1240.8000;0.4168;1.3576;
1241.1000;0.4257;1.3834;
1241.4000;0.4168;1.3552;
1241.7000;0.4151;1.3529;
1242.0000;0.4176;1.3646;
1242.3000;0.4160;1.3599;
1242.6000;0.4143;1.3576;
1242.9000;0.4176;1.3552;
1243.2000;0.4143;1.3412;
1243.5000;0.4176;1.3412;
1243.8000;0.4184;1.3365;
1244.1000;0.4265;1.3623;
1244.4000;0.4151;1.3388;
1244.7000;0.4160;1.3388;
1245.0000;0.4078;1.3224;
1245.3000;0.4160;1.3412;
1245.6000;0.4160;1.3341;
1245.9000;0.4151;1.3365;
1246.2000;0.4168;1.3388;
1246.5000;0.4119;1.3177;
1246.8000;0.4111;1.3224;
1247.1000;0.4160;1.3294;
1247.4000;0.4168;1.3318;
1247.7000;0.4168;1.3341;
1248.0000;0.4184;1.3341;
1248.3000;0.4151;1.3318;
1248.6000;0.4160;1.3318;
1248.9000;0.4200;1.3365;
1249.2000;0.4168;1.3318;
1249.5000;0.4160;1.3247;
1249.8000;0.4151;1.3154;
1250.1000;0.4151;1.3154;
1250.4000;0.4184;1.3247;
1250.7000;0.4160;1.3177;
1251.0000;0.4200;1.3201;
1251.3000;0.4143;1.3130;
1251.6000;0.4160;1.3201;
1251.9000;0.4160;1.3318;
1252.2000;0.4127;1.3271;
1252.5000;0.4143;1.3318;
1252.8000;0.4143;1.3247;
1253.1000;0.4151;1.3154;
1253.4000;0.4184;1.3247;
1253.7000;0.4160;1.3154;
1254.0000;0.4151;1.3107;
1254.3000;0.4151;1.3154;
1254.6000;0.4151;1.3224;
1254.9000;0.4151;1.3177;
1255.2000;0.4151;1.3247;
1255.5000;0.4217;1.3388;
1255.8000;0.4111;1.3154;
1256.1000;0.4257;1.3552;
1256.4000;0.4168;1.3365;
1256.7000;0.4160;1.3388;
1257.0000;0.4176;1.3365;
1257.3000;0.4176;1.3388;
1257.6000;0.4086;1.3107;
1257.9000;0.4143;1.3224;
1258.2000;0.4200;1.3388;
1258.5000;0.4151;1.3318;
1258.8000;0.4225;1.3482;
1259.1000;0.4160;1.3294;
1259.4000;0.4160;1.3224;
1259.7000;0.4225;1.3458;
1260.0000;0.4168;1.3341;
1260.3000;0.4143;1.3294;
1260.6000;0.4168;1.3318;
1260.9000;0.4168;1.3271;
1261.2000;0.4143;1.3224;
1261.5000;0.4168;1.3247;
1261.8000;0.4135;1.3224;
1262.1000;0.4168;1.3271;
1262.4000;0.4176;1.3365;
1262.7000;0.4160;1.3388;
1263.0000;0.4176;1.3505;
1263.3000;0.4176;1.3482;
1263.6000;0.4151;1.3412;
1263.9000;0.4160;1.3412;
1264.2000;0.4160;1.3388;
1264.5000;0.4151;1.3412;
1264.8000;0.4184;1.3435;
1265.1000;0.4168;1.3505;
1265.4000;0.4168;1.3435;
1265.7000;0.4160;1.3341;
1266.0000;0.4135;1.3224;
1266.3000;0.4111;1.3060;
1266.6000;0.4176;1.3224;
1266.9000;0.4143;1.3177;
1267.2000;0.4160;1.3201;
1267.5000;0.4160;1.3271;
1267.8000;0.4151;1.3341;
1268.1000;0.4176;1.3365;
1268.4000;0.4168;1.3341;
1268.7000;0.4184;1.3341;
1269.0000;0.4225;1.3576;
1269.3000;0.4143;1.3365;
1269.6000;0.4200;1.3529;
1269.9000;0.4151;1.3388;
1270.2000;0.4160;1.3294;
1270.5000;0.4160;1.3271;
1270.8000;0.4168;1.3271;
1271.1000;0.4160;1.3294;
1271.4000;0.4192;1.3341;
1271.7000;0.4168;1.3318;
1272.0000;0.4168;1.3294;
1272.3000;0.4168;1.3294;
1272.6000;0.4135;1.3247;
1272.9000;0.4135;1.3318;
1273.2000;0.4168;1.3341;
1273.5000;0.4176;1.3318;
1273.8000;0.4176;1.3318;
1274.1000;0.4160;1.3271;
1274.4000;0.4070;1.3013;
1274.7000;0.4168;1.3294;
1275.0000;0.4151;1.3224;
1275.3000;0.4135;1.3224;
1275.6000;0.4217;1.3458;
1275.9000;0.4168;1.3412;
1276.2000;0.4151;1.3412;
1276.5000;0.4143;1.3435;
1276.8000;0.4135;1.3412;
1277.1000;0.4184;1.3529;
1277.4000;0.4151;1.3458;
1277.7000;0.4192;1.3482;
1278.0000;0.4160;1.3458;
1278.3000;0.4184;1.3435;
1278.6000;0.4160;1.3341;
1278.9000;0.4151;1.3388;
1279.2000;0.4160;1.3482;
1279.5000;0.4184;1.3576;
1279.8000;0.4151;1.3599;
1280.1000;0.4200;1.3763;
1280.4000;0.4160;1.3529;
1280.7000;0.4151;1.3435;
1281.0000;0.4176;1.3412;
1281.3000;0.4168;1.3318;
1281.6000;0.4200;1.3341;
1281.9000;0.4135;1.3107;
1282.2000;0.4135;1.3107;
1282.5000;0.4168;1.3154;
1282.8000;0.4233;1.3365;
1283.1000;0.4143;1.3036;
1283.4000;0.4135;1.2966;
1283.7000;0.4168;1.2943;
1284.0000;0.4151;1.2896;
1284.3000;0.4168;1.2990;
1284.6000;0.4151;1.3130;
1284.9000;0.4135;1.3154;
1285.2000;0.4176;1.3247;
1285.5000;0.4160;1.3271;
1285.8000;0.4168;1.3365;
1286.1000;0.4176;1.3458;
1286.4000;0.4200;1.3552;
1286.7000;0.4160;1.3505;
1287.0000;0.4176;1.3529;
1287.3000;0.4168;1.3458;
1287.6000;0.4111;1.3412;
1287.9000;0.4151;1.3505;
1288.2000;0.4151;1.3435;
1288.5000;0.4176;1.3388;
1288.8000;0.4184;1.3412;
1289.1000;0.4151;1.3294;
1289.4000;0.4168;1.3318;
1289.7000;0.4151;1.3224;
1290.0000;0.4160;1.3294;
1290.3000;0.4176;1.3365;
1290.6000;0.4192;1.3341;
1290.9000;0.4111;1.3107;
1291.2000;0.4151;1.3247;
1291.5000;0.4176;1.3224;
1291.8000;0.4135;1.3201;
1292.1000;0.4143;1.3247;
1292.4000;0.4160;1.3224;
1292.7000;0.4151;1.3247;
1293.0000;0.4143;1.3201;
1293.3000;0.4143;1.3247;
1293.6000;0.4135;1.3130;
1293.9000;0.4151;1.3247;
1294.2000;0.4160;1.3247;
1294.5000;0.4233;1.3458;
1294.8000;0.4241;1.3529;
1295.1000;0.4151;1.3365;
1295.4000;0.4160;1.3412;
1295.7000;0.4176;1.3435;
1296.0000;0.4160;1.3388;
1296.3000;0.4070;1.3271;
1296.6000;0.4160;1.3482;
1296.9000;0.4176;1.3552;
1297.2000;0.4151;1.3458;
1297.5000;0.4135;1.3294;
1297.8000;0.4160;1.3341;
1298.1000;0.4160;1.3388;
1298.4000;0.4151;1.3365;
1298.7000;0.4070;1.3154;
1299.0000;0.4151;1.3341;
1299.3000;0.4143;1.3435;
1299.6000;0.4160;1.3529;
1299.9000;0.4151;1.3458;
1300.2000;0.4135;1.3412;
1300.5000;0.4143;1.3435;
1300.8000;0.4168;1.3341;
1301.1000;0.4160;1.3294;
1301.4000;0.4151;1.3318;
1301.7000;0.4184;1.3388;
1302.0000;0.4160;1.3341;
1302.3000;0.4151;1.3318;
1302.6000;0.4184;1.3458;
1302.9000;0.4168;1.3505;
1303.2000;0.4151;1.3458;
1303.5000;0.4151;1.3482;
1303.8000;0.4160;1.3458;
1304.1000;0.4160;1.3458;
1304.4000;0.4143;1.3388;
1304.7000;0.4151;1.3365;
1305.0000;0.4168;1.3412;
1305.3000;0.4151;1.3341;
1305.6000;0.4151;1.3294;
1305.9000;0.4168;1.3388;
1306.2000;0.4160;1.3458;
1306.5000;0.4160;1.3435;
1306.8000;0.4143;1.3412;
1307.1000;0.4168;1.3435;
1307.4000;0.4160;1.3458;
1307.7000;0.4168;1.3458;
1308.0000;0.4184;1.3412;
1308.3000;0.4176;1.3412;
1308.6000;0.4176;1.3458;
1308.9000;0.4160;1.3435;
1309.2000;0.4168;1.3505;
1309.5000;0.4176;1.3458;
1309.8000;0.4168;1.3388;
1310.1000;0.4151;1.3318;
1310.4000;0.4168;1.3435;
1310.7000;0.4168;1.3482;
1311.0000;0.4151;1.3435;
1311.3000;0.4151;1.3365;
1311.6000;0.4143;1.3365;
1311.9000;0.4151;1.3365;
1312.2000;0.4184;1.3482;
1312.5000;0.4176;1.3435;
1312.8000;0.4160;1.3505;
1313.1000;0.4151;1.3505;
1313.4000;0.4192;1.3576;
1313.7000;0.4160;1.3552;
1314.0000;0.4160;1.3412;
1314.3000;0.4160;1.3388;
1314.6000;0.4160;1.3341;
1314.9000;0.4168;1.3458;
1315.2000;0.4176;1.3435;
1315.5000;0.4135;1.3318;
1315.8000;0.4135;1.3365;
1316.1000;0.4135;1.3365;
1316.4000;0.4046;1.3177;
1316.7000;0.4143;1.3388;
1317.0000;0.4168;1.3458;
1317.3000;0.4111;1.3341;
1317.6000;0.4127;1.3505;
1317.9000;0.4119;1.3482;
1318.2000;0.4176;1.3599;
1318.5000;0.4151;1.3529;
1318.8000;0.4143;1.3599;
1319.1000;0.4160;1.3529;
1319.4000;0.4143;1.3505;
1319.7000;0.4176;1.3552;
1320.0000;0.4168;1.3458;
1320.3000;0.4143;1.3388;
1320.6000;0.4184;1.3482;
1320.9000;0.4176;1.3505;
1321.2000;0.4151;1.3552;
1321.5000;0.4208;1.3646;
1321.8000;0.4143;1.3552;
1322.1000;0.4151;1.3623;
1322.4000;0.4168;1.3576;
1322.7000;0.4127;1.3435;
1323.0000;0.4143;1.3552;
1323.3000;0.4192;1.3693;
1323.6000;0.4168;1.3669;
1323.9000;0.4151;1.3529;
1324.2000;0.4168;1.3599;
1324.5000;0.4127;1.3529;
1324.8000;0.4160;1.3529;
1325.1000;0.4168;1.3529;
1325.4000;0.4135;1.3458;
1325.7000;0.4143;1.3435;
1326.0000;0.4143;1.3458;
1326.3000;0.4160;1.3505;
1326.6000;0.4143;1.3435;
1326.9000;0.4143;1.3318;
1327.2000;0.4143;1.3318;
1327.5000;0.4143;1.3388;
1327.8000;0.4176;1.3482;
1328.1000;0.4176;1.3505;
1328.4000;0.4168;1.3529;
1328.7000;0.4135;1.3458;
1329.0000;0.4151;1.3482;
1329.3000;0.4168;1.3529;
1329.6000;0.4160;1.3576;
1329.9000;0.4160;1.3576;
1330.2000;0.4151;1.3529;
1330.5000;0.4151;1.3599;
1330.8000;0.4160;1.3646;
1331.1000;0.4127;1.3576;
1331.4000;0.4143;1.3599;
1331.7000;0.4151;1.3552;
1332.0000;0.4103;1.3365;
1332.3000;0.4143;1.3412;
1332.6000;0.4192;1.3552;
1332.9000;0.4168;1.3505;
1333.2000;0.4143;1.3458;
1333.5000;0.4160;1.3529;
1333.8000;0.4184;1.3552;
1334.1000;0.4168;1.3529;
1334.4000;0.4184;1.3552;
1334.7000;0.4168;1.3482;
1335.0000;0.4176;1.3482;
1335.3000;0.4176;1.3458;
1335.6000;0.4168;1.3529;
1335.9000;0.4225;1.3693;
1336.2000;0.4160;1.3552;
1336.5000;0.4168;1.3552;
1336.8000;0.4151;1.3505;
1337.1000;0.4192;1.3599;
1337.4000;0.4143;1.3482;
1337.7000;0.4160;1.3482;
1338.0000;0.4176;1.3623;
1338.3000;0.4192;1.3740;
1338.6000;0.4160;1.3669;
1338.9000;0.4176;1.3669;
1339.2000;0.4103;1.3505;
1339.5000;0.4176;1.3669;
1339.8000;0.4217;1.3693;
1340.1000;0.4151;1.3599;
1340.4000;0.4143;1.3599;
1340.7000;0.4151;1.3599;
1341.0000;0.4160;1.3623;
1341.3000;0.4151;1.3646;
1341.6000;0.4168;1.3716;
1341.9000;0.4151;1.3576;
1342.2000;0.4160;1.3529;
1342.5000;0.4160;1.3435;
1342.8000;0.4160;1.3576;
1343.1000;0.4176;1.3599;
1343.4000;0.4135;1.3576;
1343.7000;0.4151;1.3693;
1344.0000;0.4143;1.3623;
1344.3000;0.4143;1.3576;
1344.6000;0.4151;1.3693;
1344.9000;0.4168;1.3693;
1345.2000;0.4160;1.3646;
1345.5000;0.4151;1.3576;
1345.8000;0.4168;1.3576;
1346.1000;0.4143;1.3552;
1346.4000;0.4151;1.3482;
1346.7000;0.4176;1.3458;
1347.0000;0.4168;1.3412;
1347.3000;0.4143;1.3458;
1347.6000;0.4151;1.3482;
1347.9000;0.4160;1.3482;
1348.2000;0.4143;1.3435;
1348.5000;0.4168;1.3482;
1348.8000;0.4168;1.3458;
1349.1000;0.4192;1.3552;
1349.4000;0.4168;1.3576;
1349.7000;0.4176;1.3482;
1350.0000;0.4160;1.3435;
1350.3000;0.4160;1.3341;
1350.6000;0.4160;1.3412;
1350.9000;0.4176;1.3365;
1351.2000;0.4184;1.3388;
1351.5000;0.4143;1.3341;
1351.8000;0.4176;1.3388;
1352.1000;0.4168;1.3388;
1352.4000;0.4184;1.3552;
1352.7000;0.4135;1.3388;
1353.0000;0.4135;1.3365;
1353.3000;0.4184;1.3388;
1353.6000;0.4143;1.3365;
1353.9000;0.4143;1.3388;
1354.2000;0.4160;1.3482;
1354.5000;0.4151;1.3552;
1354.8000;0.4168;1.3552;
1355.1000;0.4151;1.3529;
1355.4000;0.4151;1.3599;
1355.7000;0.4135;1.3646;
1356.0000;0.4176;1.3810;
1356.3000;0.4168;1.3787;
1356.6000;0.4176;1.3787;
1356.9000;0.4151;1.3787;
1357.2000;0.4135;1.3576;
1357.5000;0.4151;1.3646;
1357.8000;0.4151;1.3623;
1358.1000;0.4143;1.3693;
1358.4000;0.4160;1.3716;
1358.7000;0.4160;1.3787;
1359.0000;0.4257;1.3951;
1359.3000;0.4160;1.3740;
1359.6000;0.4103;1.3623;
1359.9000;0.4160;1.3740;
1360.2000;0.4151;1.3669;
1360.5000;0.4168;1.3623;
1360.8000;0.4160;1.3693;
1361.1000;0.4160;1.3740;
1361.4000;0.4176;1.3716;
1361.7000;0.4168;1.3763;
1362.0000;0.4151;1.3646;
1362.3000;0.4160;1.3646;
1362.6000;0.4176;1.3669;
1362.9000;0.4160;1.3623;
1363.2000;0.4160;1.3529;
1363.5000;0.4168;1.3529;
1363.8000;0.4184;1.3482;
1364.1000;0.4160;1.3365;
1364.4000;0.4143;1.3529;
1364.7000;0.4168;1.3552;
1365.0000;0.4143;1.3482;
1365.3000;0.4160;1.3529;
1365.6000;0.4192;1.3623;
1365.9000;0.4168;1.3576;
1366.2000;0.4184;1.3576;
1366.5000;0.4176;1.3505;
1366.8000;0.4143;1.3529;
1367.1000;0.4176;1.3716;
1367.4000;0.4176;1.3693;
1367.7000;0.4143;1.3529;
1368.0000;0.4160;1.3599;
1368.3000;0.4160;1.3529;
1368.6000;0.4151;1.3458;
1368.9000;0.4168;1.3435;
1369.2000;0.4168;1.3505;
1369.5000;0.4151;1.3505;
1369.8000;0.4143;1.3505;
1370.1000;0.4094;1.3294;
1370.4000;0.4160;1.3458;
1370.7000;0.4151;1.3482;
1371.0000;0.4160;1.3529;
1371.3000;0.4176;1.3505;
1371.6000;0.4160;1.3505;
1371.9000;0.4160;1.3482;
1372.2000;0.4200;1.3623;
1372.5000;0.4160;1.3552;
1372.8000;0.4192;1.3505;
1373.1000;0.4160;1.3412;
1373.4000;0.4160;1.3458;
1373.7000;0.4184;1.3482;
1374.0000;0.4143;1.3435;
1374.3000;0.4151;1.3388;
1374.6000;0.4168;1.3412;
1374.9000;0.4103;1.3294;
1375.2000;0.4135;1.3388;
1375.5000;0.4151;1.3458;
1375.8000;0.4119;1.3365;
1376.1000;0.4143;1.3435;
1376.4000;0.4143;1.3458;
1376.7000;0.4103;1.3318;
1377.0000;0.4160;1.3552;
1377.3000;0.4151;1.3529;
1377.6000;0.4176;1.3505;
1377.9000;0.4176;1.3458;
1378.2000;0.4143;1.3341;
1378.5000;0.4143;1.3365;
1378.8000;0.4160;1.3341;
1379.1000;0.4160;1.3318;
1379.4000;0.4143;1.3318;
1379.7000;0.4151;1.3435;
1380.0000;0.4151;1.3623;
1380.3000;0.4176;1.3693;
1380.6000;0.4143;1.3599;
1380.9000;0.4200;1.3669;
1381.2000;0.4176;1.3669;
1381.5000;0.4160;1.3623;
1381.8000;0.4151;1.3623;
1382.1000;0.4168;1.3576;
1382.4000;0.4151;1.3482;
1382.7000;0.4168;1.3529;
1383.0000;0.4168;1.3505;
1383.3000;0.4168;1.3529;
1383.6000;0.4208;1.3646;
1383.9000;0.4168;1.3529;
1384.2000;0.4168;1.3505;
1384.5000;0.4160;1.3388;
1384.8000;0.4160;1.3435;
1385.1000;0.4160;1.3505;
1385.4000;0.4127;1.3435;
1385.7000;0.4160;1.3458;
1386.0000;0.4143;1.3458;
1386.3000;0.4103;1.3388;
1386.6000;0.4151;1.3458;
1386.9000;0.4176;1.3529;
1387.2000;0.4103;1.3365;
1387.5000;0.4127;1.3435;
1387.8000;0.4143;1.3482;
1388.1000;0.4160;1.3505;
1388.4000;0.4143;1.3529;
1388.7000;0.4143;1.3576;
1389.0000;0.4168;1.3505;
1389.3000;0.4151;1.3552;
1389.6000;0.4127;1.3482;
1389.9000;0.4062;1.3318;
1390.2000;0.4143;1.3576;
1390.5000;0.4176;1.3599;
1390.8000;0.4192;1.3623;
1391.1000;0.4135;1.3505;
1391.4000;0.4143;1.3529;
1391.7000;0.4160;1.3576;
1392.0000;0.4151;1.3576;
1392.3000;0.4143;1.3529;
1392.6000;0.4208;1.3552;
1392.9000;0.4168;1.3458;
1393.2000;0.4168;1.3552;
1393.5000;0.4135;1.3388;
1393.8000;0.4160;1.3412;
1394.1000;0.4176;1.3412;
1394.4000;0.4160;1.3365;
1394.7000;0.4111;1.3294;
1395.0000;0.4176;1.3458;
1395.3000;0.4151;1.3435;
1395.6000;0.4151;1.3294;
1395.9000;0.4119;1.3247;
1396.2000;0.4127;1.3271;
1396.5000;0.4151;1.3318;
1396.8000;0.4176;1.3318;
1397.1000;0.4135;1.3271;
1397.4000;0.4160;1.3412;
1397.7000;0.4127;1.3294;
1398.0000;0.4151;1.3271;
1398.3000;0.4184;1.3365;
1398.6000;0.4265;1.3599;
1398.9000;0.4143;1.3318;
1399.2000;0.4127;1.3247;
1399.5000;0.4176;1.3458;
1399.8000;0.4143;1.3412;
