time/ms;Fluo/V;P700 deltaI/I x10³;
-199.8000;0.4404;1.2755;
-199.5000;0.4371;1.2614;
-199.2000;0.4371;1.2614;
-198.9000;0.4355;1.2474;
-198.6000;0.4379;1.2450;
-198.3000;0.4412;1.2638;
-198.0000;0.4363;1.2591;
-197.7000;0.4371;1.2778;
-197.4000;0.4379;1.2896;
-197.1000;0.4363;1.2872;
-196.8000;0.4436;1.2966;
-196.5000;0.4371;1.2708;
-196.2000;0.4363;1.2638;
-195.9000;0.4347;1.2567;
-195.6000;0.4428;1.2849;
-195.3000;0.4339;1.2638;
-195.0000;0.4355;1.2591;
-194.7000;0.4363;1.2591;
-194.4000;0.4371;1.2661;
-194.1000;0.4363;1.2614;
-193.8000;0.4363;1.2544;
-193.5000;0.4387;1.2544;
-193.2000;0.4371;1.2591;
-192.9000;0.4379;1.2591;
-192.6000;0.4371;1.2685;
-192.3000;0.4355;1.2732;
-192.0000;0.4339;1.2591;
-191.7000;0.4330;1.2591;
-191.4000;0.4355;1.2567;
-191.1000;0.4347;1.2567;
-190.8000;0.4379;1.2638;
-190.5000;0.4363;1.2708;
-190.2000;0.4363;1.2661;
-189.9000;0.4355;1.2591;
-189.6000;0.4363;1.2685;
-189.3000;0.4444;1.2943;
-189.0000;0.4379;1.2802;
-188.7000;0.4347;1.2732;
-188.4000;0.4371;1.2825;
-188.1000;0.4363;1.2778;
-187.8000;0.4371;1.2755;
-187.5000;0.4355;1.2614;
-187.2000;0.4339;1.2614;
-186.9000;0.4371;1.2567;
-186.6000;0.4379;1.2567;
-186.3000;0.4371;1.2544;
-186.0000;0.4436;1.2661;
-185.7000;0.4379;1.2567;
-185.4000;0.4363;1.2521;
-185.1000;0.4379;1.2450;
-184.8000;0.4330;1.2380;
-184.5000;0.4363;1.2427;
-184.2000;0.4396;1.2450;
-183.9000;0.4355;1.2380;
-183.6000;0.4363;1.2427;
-183.3000;0.4371;1.2427;
-183.0000;0.4371;1.2450;
-182.7000;0.4396;1.2567;
-182.4000;0.4274;1.2263;
-182.1000;0.4379;1.2638;
-181.8000;0.4396;1.2708;
-181.5000;0.4387;1.2708;
-181.2000;0.4379;1.2661;
-180.9000;0.4363;1.2591;
-180.6000;0.4371;1.2638;
-180.3000;0.4412;1.2732;
-180.0000;0.4379;1.2614;
-179.7000;0.4371;1.2567;
-179.4000;0.4363;1.2567;
-179.1000;0.4363;1.2544;
-178.8000;0.4355;1.2567;
-178.5000;0.4363;1.2591;
-178.2000;0.4355;1.2521;
-177.9000;0.4371;1.2638;
-177.6000;0.4371;1.2732;
-177.3000;0.4371;1.2755;
-177.0000;0.4355;1.2708;
-176.7000;0.4412;1.2849;
-176.4000;0.4387;1.2778;
-176.1000;0.4387;1.2778;
-175.8000;0.4339;1.2755;
-175.5000;0.4249;1.2567;
-175.2000;0.4379;1.2849;
-174.9000;0.4363;1.2802;
-174.6000;0.4363;1.2849;
-174.3000;0.4355;1.2778;
-174.0000;0.4371;1.2778;
-173.7000;0.4379;1.2755;
-173.4000;0.4363;1.2685;
-173.1000;0.4379;1.2802;
-172.8000;0.4363;1.2849;
-172.5000;0.4347;1.2849;
-172.2000;0.4347;1.2732;
-171.9000;0.4363;1.2755;
-171.6000;0.4371;1.2825;
-171.3000;0.4387;1.2802;
-171.0000;0.4379;1.2755;
-170.7000;0.4371;1.2778;
-170.4000;0.4355;1.2661;
-170.1000;0.4371;1.2685;
-169.8000;0.4363;1.2638;
-169.5000;0.4387;1.2638;
-169.2000;0.4371;1.2567;
-168.9000;0.4355;1.2497;
-168.6000;0.4371;1.2591;
-168.3000;0.4371;1.2685;
-168.0000;0.4371;1.2755;
-167.7000;0.4371;1.2778;
-167.4000;0.4282;1.2521;
-167.1000;0.4371;1.2755;
-166.8000;0.4347;1.2732;
-166.5000;0.4355;1.2685;
-166.2000;0.4330;1.2732;
-165.9000;0.4363;1.2825;
-165.6000;0.4347;1.2755;
-165.3000;0.4347;1.2825;
-165.0000;0.4379;1.2943;
-164.7000;0.4371;1.2849;
-164.4000;0.4363;1.2896;
-164.1000;0.4355;1.2849;
-163.8000;0.4347;1.2755;
-163.5000;0.4355;1.2708;
-163.2000;0.4363;1.2661;
-162.9000;0.4363;1.2802;
-162.6000;0.4355;1.2755;
-162.3000;0.4404;1.2872;
-162.0000;0.4355;1.2755;
-161.7000;0.4355;1.2732;
-161.4000;0.4347;1.2732;
-161.1000;0.4379;1.2755;
-160.8000;0.4379;1.2732;
-160.5000;0.4371;1.2661;
-160.2000;0.4347;1.2614;
-159.9000;0.4371;1.2661;
-159.6000;0.4371;1.2708;
-159.3000;0.4363;1.2708;
-159.0000;0.4371;1.2708;
-158.7000;0.4363;1.2685;
-158.4000;0.4371;1.2638;
-158.1000;0.4363;1.2661;
-157.8000;0.4355;1.2638;
-157.5000;0.4363;1.2685;
-157.2000;0.4371;1.2732;
-156.9000;0.4363;1.2778;
-156.6000;0.4371;1.2778;
-156.3000;0.4347;1.2802;
-156.0000;0.4371;1.2872;
-155.7000;0.4371;1.2896;
-155.4000;0.4379;1.2943;
-155.1000;0.4363;1.2966;
-154.8000;0.4387;1.3083;
-154.5000;0.4387;1.3224;
-154.2000;0.4371;1.3177;
-153.9000;0.4379;1.3177;
-153.6000;0.4371;1.3224;
-153.3000;0.4387;1.3177;
-153.0000;0.4371;1.3130;
-152.7000;0.4371;1.3036;
-152.4000;0.4363;1.2966;
-152.1000;0.4355;1.2966;
-151.8000;0.4363;1.2943;
-151.5000;0.4363;1.2966;
-151.2000;0.4347;1.2990;
-150.9000;0.4363;1.2990;
-150.6000;0.4355;1.2943;
-150.3000;0.4363;1.2966;
-150.0000;0.4371;1.2849;
-149.7000;0.4363;1.2778;
-149.4000;0.4371;1.2778;
-149.1000;0.4363;1.2708;
-148.8000;0.4355;1.2614;
-148.5000;0.4371;1.2591;
-148.2000;0.4363;1.2591;
-147.9000;0.4379;1.2614;
-147.6000;0.4371;1.2544;
-147.3000;0.4355;1.2567;
-147.0000;0.4298;1.2450;
-146.7000;0.4339;1.2591;
-146.4000;0.4363;1.2685;
-146.1000;0.4363;1.2732;
-145.8000;0.4371;1.2685;
-145.5000;0.4363;1.2661;
-145.2000;0.4379;1.2732;
-144.9000;0.4371;1.2732;
-144.6000;0.4371;1.2732;
-144.3000;0.4387;1.2732;
-144.0000;0.4379;1.2802;
-143.7000;0.4379;1.2778;
-143.4000;0.4387;1.2732;
-143.1000;0.4371;1.2661;
-142.8000;0.4379;1.2755;
-142.5000;0.4371;1.2638;
-142.2000;0.4371;1.2685;
-141.9000;0.4379;1.2802;
-141.6000;0.4371;1.2872;
-141.3000;0.4363;1.2849;
-141.0000;0.4355;1.2825;
-140.7000;0.4379;1.2896;
-140.4000;0.4371;1.2872;
-140.1000;0.4379;1.2896;
-139.8000;0.4371;1.2943;
-139.5000;0.4404;1.2966;
-139.2000;0.4355;1.2825;
-138.9000;0.4404;1.2872;
-138.6000;0.4363;1.2778;
-138.3000;0.4371;1.2755;
-138.0000;0.4355;1.2755;
-137.7000;0.4371;1.2802;
-137.4000;0.4371;1.2802;
-137.1000;0.4371;1.2732;
-136.8000;0.4347;1.2614;
-136.5000;0.4330;1.2638;
-136.2000;0.4363;1.2708;
-135.9000;0.4363;1.2732;
-135.6000;0.4371;1.2661;
-135.3000;0.4371;1.2638;
-135.0000;0.4371;1.2732;
-134.7000;0.4355;1.2685;
-134.4000;0.4371;1.2732;
-134.1000;0.4355;1.2732;
-133.8000;0.4379;1.2802;
-133.5000;0.4371;1.2825;
-133.2000;0.4363;1.2849;
-132.9000;0.4314;1.2732;
-132.6000;0.4363;1.2778;
-132.3000;0.4355;1.2755;
-132.0000;0.4371;1.2778;
-131.7000;0.4363;1.2638;
-131.4000;0.4371;1.2638;
-131.1000;0.4371;1.2591;
-130.8000;0.4396;1.2708;
-130.5000;0.4347;1.2567;
-130.2000;0.4347;1.2567;
-129.9000;0.4339;1.2474;
-129.6000;0.4371;1.2591;
-129.3000;0.4355;1.2591;
-129.0000;0.4347;1.2591;
-128.7000;0.4355;1.2497;
-128.4000;0.4363;1.2497;
-128.1000;0.4379;1.2544;
-127.8000;0.4371;1.2497;
-127.5000;0.4339;1.2333;
-127.2000;0.4363;1.2380;
-126.9000;0.4371;1.2427;
-126.6000;0.4355;1.2450;
-126.3000;0.4371;1.2450;
-126.0000;0.4363;1.2403;
-125.7000;0.4363;1.2356;
-125.4000;0.4355;1.2380;
-125.1000;0.4363;1.2427;
-124.8000;0.4371;1.2474;
-124.5000;0.4363;1.2427;
-124.2000;0.4355;1.2497;
-123.9000;0.4371;1.2497;
-123.6000;0.4371;1.2544;
-123.3000;0.4363;1.2497;
-123.0000;0.4347;1.2497;
-122.7000;0.4371;1.2521;
-122.4000;0.4371;1.2497;
-122.1000;0.4379;1.2380;
-121.8000;0.4371;1.2497;
-121.5000;0.4363;1.2450;
-121.2000;0.4396;1.2567;
-120.9000;0.4371;1.2544;
-120.6000;0.4371;1.2544;
-120.3000;0.4363;1.2567;
-120.0000;0.4379;1.2614;
-119.7000;0.4355;1.2638;
-119.4000;0.4371;1.2755;
-119.1000;0.4363;1.2661;
-118.8000;0.4363;1.2638;
-118.5000;0.4363;1.2708;
-118.2000;0.4379;1.2661;
-117.9000;0.4371;1.2638;
-117.6000;0.4363;1.2544;
-117.3000;0.4371;1.2544;
-117.0000;0.4371;1.2567;
-116.7000;0.4396;1.2708;
-116.4000;0.4355;1.2661;
-116.1000;0.4379;1.2802;
-115.8000;0.4396;1.2872;
-115.5000;0.4379;1.2825;
-115.2000;0.4379;1.2778;
-114.9000;0.4436;1.2896;
-114.6000;0.4371;1.2685;
-114.3000;0.4355;1.2614;
-114.0000;0.4379;1.2661;
-113.7000;0.4363;1.2685;
-113.4000;0.4371;1.2708;
-113.1000;0.4379;1.2685;
-112.8000;0.4363;1.2661;
-112.5000;0.4477;1.3036;
-112.2000;0.4379;1.2778;
-111.9000;0.4363;1.2708;
-111.6000;0.4371;1.2708;
-111.3000;0.4371;1.2661;
-111.0000;0.4371;1.2614;
-110.7000;0.4379;1.2614;
-110.4000;0.4339;1.2638;
-110.1000;0.4355;1.2661;
-109.8000;0.4371;1.2708;
-109.5000;0.4355;1.2661;
-109.2000;0.4355;1.2708;
-108.9000;0.4387;1.2708;
-108.6000;0.4371;1.2661;
-108.3000;0.4363;1.2708;
-108.0000;0.4371;1.2661;
-107.7000;0.4330;1.2591;
-107.4000;0.4371;1.2638;
-107.1000;0.4371;1.2661;
-106.8000;0.4371;1.2685;
-106.5000;0.4379;1.2661;
-106.2000;0.4347;1.2614;
-105.9000;0.4379;1.2661;
-105.6000;0.4379;1.2661;
-105.3000;0.4371;1.2614;
-105.0000;0.4371;1.2685;
-104.7000;0.4379;1.2732;
-104.4000;0.4379;1.2778;
-104.1000;0.4363;1.2825;
-103.8000;0.4363;1.2825;
-103.5000;0.4355;1.2802;
-103.2000;0.4363;1.2849;
-102.9000;0.4363;1.2849;
-102.6000;0.4363;1.2778;
-102.3000;0.4355;1.2802;
-102.0000;0.4379;1.2802;
-101.7000;0.4387;1.2825;
-101.4000;0.4379;1.2849;
-101.1000;0.4428;1.2990;
-100.8000;0.4379;1.2872;
-100.5000;0.4379;1.2778;
-100.2000;0.4355;1.2778;
-99.9000;0.4379;1.2849;
-99.6000;0.4379;1.2825;
-99.3000;0.4282;1.2708;
-99.0000;0.4371;1.2919;
-98.7000;0.4404;1.2990;
-98.4000;0.4371;1.2825;
-98.1000;0.4371;1.2896;
-97.8000;0.4322;1.2802;
-97.5000;0.4355;1.2825;
-97.2000;0.4363;1.2755;
-96.9000;0.4371;1.2732;
-96.6000;0.4387;1.2755;
-96.3000;0.4379;1.2708;
-96.0000;0.4330;1.2661;
-95.7000;0.4379;1.2755;
-95.4000;0.4371;1.2802;
-95.1000;0.4363;1.2732;
-94.8000;0.4396;1.2708;
-94.5000;0.4355;1.2614;
-94.2000;0.4371;1.2614;
-93.9000;0.4387;1.2661;
-93.6000;0.4355;1.2591;
-93.3000;0.4371;1.2591;
-93.0000;0.4379;1.2661;
-92.7000;0.4379;1.2708;
-92.4000;0.4371;1.2708;
-92.1000;0.4363;1.2708;
-91.8000;0.4355;1.2778;
-91.5000;0.4371;1.2778;
-91.2000;0.4461;1.3013;
-90.9000;0.4436;1.2919;
-90.6000;0.4355;1.2685;
-90.3000;0.4371;1.2732;
-90.0000;0.4396;1.2708;
-89.7000;0.4371;1.2755;
-89.4000;0.4379;1.2778;
-89.1000;0.4371;1.2708;
-88.8000;0.4371;1.2732;
-88.5000;0.4347;1.2708;
-88.2000;0.4363;1.2732;
-87.9000;0.4371;1.2732;
-87.6000;0.4420;1.2896;
-87.3000;0.4371;1.2778;
-87.0000;0.4355;1.2732;
-86.7000;0.4355;1.2778;
-86.4000;0.4379;1.2849;
-86.1000;0.4371;1.2802;
-85.8000;0.4371;1.2708;
-85.5000;0.4387;1.2849;
-85.2000;0.4387;1.2872;
-84.9000;0.4371;1.2919;
-84.6000;0.4387;1.2990;
-84.3000;0.4436;1.3154;
-84.0000;0.4371;1.3036;
-83.7000;0.4355;1.3036;
-83.4000;0.4371;1.2990;
-83.1000;0.4396;1.3013;
-82.8000;0.4379;1.2990;
-82.5000;0.4371;1.2896;
-82.2000;0.4363;1.2872;
-81.9000;0.4387;1.2966;
-81.6000;0.4339;1.2872;
-81.3000;0.4363;1.2872;
-81.0000;0.4387;1.2943;
-80.7000;0.4379;1.2872;
-80.4000;0.4379;1.2943;
-80.1000;0.4371;1.2919;
-79.8000;0.4387;1.2872;
-79.5000;0.4371;1.2732;
-79.2000;0.4355;1.2708;
-78.9000;0.4396;1.2825;
-78.6000;0.4371;1.2802;
-78.3000;0.4379;1.2778;
-78.0000;0.4379;1.2732;
-77.7000;0.4371;1.2661;
-77.4000;0.4379;1.2661;
-77.1000;0.4371;1.2544;
-76.8000;0.4355;1.2544;
-76.5000;0.4379;1.2614;
-76.2000;0.4339;1.2497;
-75.9000;0.4265;1.2333;
-75.6000;0.4363;1.2567;
-75.3000;0.4379;1.2614;
-75.0000;0.4355;1.2614;
-74.7000;0.4371;1.2732;
-74.4000;0.4379;1.2872;
-74.1000;0.4322;1.2567;
-73.8000;0.4355;1.2708;
-73.5000;0.4371;1.2732;
-73.2000;0.4282;1.2497;
-72.9000;0.4355;1.2778;
-72.6000;0.4347;1.2849;
-72.3000;0.4298;1.2638;
-72.0000;0.4379;1.2778;
-71.7000;0.4274;1.2521;
-71.4000;0.4355;1.2708;
-71.1000;0.4379;1.2732;
-70.8000;0.4379;1.2685;
-70.5000;0.4355;1.2614;
-70.2000;0.4371;1.2521;
-69.9000;0.4355;1.2474;
-69.6000;0.4379;1.2521;
-69.3000;0.4379;1.2591;
-69.0000;0.4436;1.2661;
-68.7000;0.4363;1.2638;
-68.4000;0.4371;1.2732;
-68.1000;0.4371;1.2755;
-67.8000;0.4330;1.2708;
-67.5000;0.4355;1.2778;
-67.2000;0.4436;1.2966;
-66.9000;0.4347;1.2778;
-66.6000;0.4339;1.2685;
-66.3000;0.4371;1.2778;
-66.0000;0.4371;1.2825;
-65.7000;0.4339;1.2755;
-65.4000;0.4371;1.2825;
-65.1000;0.4363;1.2825;
-64.8000;0.4355;1.2755;
-64.5000;0.4371;1.2825;
-64.2000;0.4371;1.2778;
-63.9000;0.4355;1.2802;
-63.6000;0.4371;1.2778;
-63.3000;0.4371;1.2849;
-63.0000;0.4371;1.2872;
-62.7000;0.4355;1.2778;
-62.4000;0.4347;1.2755;
-62.1000;0.4363;1.2755;
-61.8000;0.4363;1.2755;
-61.5000;0.4339;1.2638;
-61.2000;0.4355;1.2732;
-60.9000;0.4355;1.2732;
-60.6000;0.4363;1.2802;
-60.3000;0.4355;1.2825;
-60.0000;0.4355;1.2872;
-59.7000;0.4355;1.2872;
-59.4000;0.4330;1.2825;
-59.1000;0.4387;1.3013;
-58.8000;0.4363;1.2943;
-58.5000;0.4363;1.2825;
-58.2000;0.4379;1.2943;
-57.9000;0.4387;1.2919;
-57.6000;0.4396;1.2919;
-57.3000;0.4363;1.2825;
-57.0000;0.4363;1.2849;
-56.7000;0.4363;1.2872;
-56.4000;0.4379;1.2966;
-56.1000;0.4363;1.2896;
-55.8000;0.4404;1.2990;
-55.5000;0.4420;1.2943;
-55.2000;0.4363;1.2919;
-54.9000;0.4363;1.2943;
-54.6000;0.4363;1.2943;
-54.3000;0.4363;1.2943;
-54.0000;0.4379;1.3036;
-53.7000;0.4330;1.2990;
-53.4000;0.4363;1.3060;
-53.1000;0.4396;1.3107;
-52.8000;0.4355;1.2849;
-52.5000;0.4363;1.2802;
-52.2000;0.4355;1.2755;
-51.9000;0.4330;1.2614;
-51.6000;0.4363;1.2708;
-51.3000;0.4379;1.2755;
-51.0000;0.4379;1.2732;
-50.7000;0.4371;1.2708;
-50.4000;0.4282;1.2450;
-50.1000;0.4371;1.2778;
-49.8000;0.4363;1.2802;
-49.5000;0.4363;1.2825;
-49.2000;0.4347;1.2778;
-48.9000;0.4339;1.2872;
-48.6000;0.4371;1.2919;
-48.3000;0.4298;1.2755;
-48.0000;0.4347;1.2849;
-47.7000;0.4379;1.2778;
-47.4000;0.4379;1.2755;
-47.1000;0.4347;1.2708;
-46.8000;0.4379;1.2778;
-46.5000;0.4371;1.2896;
-46.2000;0.4387;1.2943;
-45.9000;0.4379;1.2872;
-45.6000;0.4387;1.2872;
-45.3000;0.4371;1.2825;
-45.0000;0.4387;1.2825;
-44.7000;0.4379;1.2778;
-44.4000;0.4371;1.2778;
-44.1000;0.4371;1.2755;
-43.8000;0.4379;1.2849;
-43.5000;0.4371;1.2802;
-43.2000;0.4371;1.2872;
-42.9000;0.4371;1.2849;
-42.6000;0.4371;1.2825;
-42.3000;0.4355;1.2685;
-42.0000;0.4363;1.2614;
-41.7000;0.4379;1.2567;
-41.4000;0.4371;1.2638;
-41.1000;0.4363;1.2708;
-40.8000;0.4371;1.2755;
-40.5000;0.4363;1.2778;
-40.2000;0.4363;1.2825;
-39.9000;0.4371;1.2919;
-39.6000;0.4363;1.2896;
-39.3000;0.4363;1.2849;
-39.0000;0.4347;1.2802;
-38.7000;0.4339;1.2755;
-38.4000;0.4363;1.2896;
-38.1000;0.4371;1.2919;
-37.8000;0.4387;1.3036;
-37.5000;0.4355;1.2990;
-37.2000;0.4363;1.3013;
-36.9000;0.4371;1.3013;
-36.6000;0.4387;1.2990;
-36.3000;0.4379;1.2966;
-36.0000;0.4379;1.3013;
-35.7000;0.4363;1.2990;
-35.4000;0.4347;1.2943;
-35.1000;0.4363;1.2896;
-34.8000;0.4371;1.2849;
-34.5000;0.4347;1.2778;
-34.2000;0.4339;1.2778;
-33.9000;0.4339;1.2802;
-33.6000;0.4363;1.2872;
-33.3000;0.4371;1.2919;
-33.0000;0.4322;1.2778;
-32.7000;0.4347;1.2825;
-32.4000;0.4355;1.2802;
-32.1000;0.4363;1.2825;
-31.8000;0.4371;1.2896;
-31.5000;0.4379;1.2896;
-31.2000;0.4371;1.2825;
-30.9000;0.4371;1.2919;
-30.6000;0.4371;1.2872;
-30.3000;0.4501;1.3224;
-30.0000;0.4436;1.2990;
-29.7000;0.4371;1.2825;
-29.4000;0.4355;1.2732;
-29.1000;0.4379;1.2802;
-28.8000;0.4371;1.2755;
-28.5000;0.4355;1.2755;
-28.2000;0.4396;1.2825;
-27.9000;0.4371;1.2732;
-27.6000;0.4339;1.2661;
-27.3000;0.4371;1.2802;
-27.0000;0.4355;1.2708;
-26.7000;0.4363;1.2708;
-26.4000;0.4363;1.2755;
-26.1000;0.4379;1.2708;
-25.8000;0.4379;1.2732;
-25.5000;0.4371;1.2732;
-25.2000;0.4387;1.2638;
-24.9000;0.4363;1.2614;
-24.6000;0.4379;1.2685;
-24.3000;0.4363;1.2661;
-24.0000;0.4404;1.2778;
-23.7000;0.4363;1.2778;
-23.4000;0.4371;1.2896;
-23.1000;0.4371;1.2849;
-22.8000;0.4363;1.2778;
-22.5000;0.4355;1.2778;
-22.2000;0.4379;1.2825;
-21.9000;0.4379;1.2755;
-21.6000;0.4379;1.2802;
-21.3000;0.4363;1.2685;
-21.0000;0.4396;1.2661;
-20.7000;0.4363;1.2614;
-20.4000;0.4379;1.2732;
-20.1000;0.4387;1.2802;
-19.8000;0.4371;1.2732;
-19.5000;0.4379;1.2708;
-19.2000;0.4379;1.2661;
-18.9000;0.4412;1.2614;
-18.6000;0.4371;1.2638;
-18.3000;0.4306;1.2497;
-18.0000;0.4363;1.2638;
-17.7000;0.4355;1.2661;
-17.4000;0.4371;1.2661;
-17.1000;0.4371;1.2661;
-16.8000;0.4404;1.2685;
-16.5000;0.4379;1.2614;
-16.2000;0.4371;1.2521;
-15.9000;0.4363;1.2427;
-15.6000;0.4355;1.2427;
-15.3000;0.4387;1.2521;
-15.0000;0.4379;1.2450;
-14.7000;0.4306;1.2286;
-14.4000;0.4461;1.2755;
-14.1000;0.4347;1.2380;
-13.8000;0.4363;1.2427;
-13.5000;0.4363;1.2450;
-13.2000;0.4371;1.2497;
-12.9000;0.4379;1.2521;
-12.6000;0.4363;1.2521;
-12.3000;0.4371;1.2591;
-12.0000;0.4379;1.2661;
-11.7000;0.4371;1.2614;
-11.4000;0.4371;1.2661;
-11.1000;0.4355;1.2708;
-10.8000;0.4347;1.2638;
-10.5000;0.4355;1.2685;
-10.2000;0.4379;1.2755;
-9.9000;0.4387;1.2755;
-9.6000;0.4363;1.2708;
-9.3000;0.4379;1.2732;
-9.0000;0.4387;1.2849;
-8.7000;0.4371;1.2825;
-8.4000;0.4363;1.2825;
-8.1000;0.4339;1.2708;
-7.8000;0.4371;1.2755;
-7.5000;0.4363;1.2778;
-7.2000;0.4355;1.2778;
-6.9000;0.4347;1.2708;
-6.6000;0.4363;1.2661;
-6.3000;0.4371;1.2614;
-6.0000;0.4387;1.2567;
-5.7000;0.4371;1.2521;
-5.4000;0.4379;1.2567;
-5.1000;0.4379;1.2567;
-4.8000;0.4371;1.2614;
-4.5000;0.4363;1.2567;
-4.2000;0.4363;1.2521;
-3.9000;0.4330;1.2427;
-3.6000;0.4363;1.2474;
-3.3000;0.4371;1.2544;
-3.0000;0.4363;1.2638;
-2.7000;0.4363;1.2755;
-2.4000;0.4371;1.2732;
-2.1000;0.4355;1.2638;
-1.8000;0.4347;1.2685;
-1.5000;0.4371;1.2778;
-1.2000;0.4363;1.2732;
-0.9000;0.4371;1.2825;
-0.6000;0.4339;1.2708;
-0.3000;0.4347;1.2661;
0.0000;0.4347;1.2661;
0.3000;0.4558;1.2849;
0.6000;0.4851;1.3247;
0.9000;0.5104;1.3740;
1.2000;0.5283;1.4256;
1.5000;0.5421;1.4631;
1.8000;0.5560;1.4959;
2.1000;0.5665;1.5170;
2.4000;0.5731;1.5334;
2.7000;0.5820;1.5545;
3.0000;0.5853;1.5639;
3.3000;0.5910;1.5709;
3.6000;0.5975;1.5873;
3.9000;0.6007;1.5897;
4.2000;0.6048;1.5967;
4.5000;0.6081;1.6084;
4.8000;0.6121;1.6084;
5.1000;0.6154;1.6061;
5.4000;0.6178;1.6038;
5.7000;0.6195;1.6108;
6.0000;0.6219;1.6038;
6.3000;0.6252;1.5944;
6.6000;0.6292;1.6014;
6.9000;0.6268;1.6014;
7.2000;0.6317;1.6084;
7.5000;0.6292;1.5991;
7.8000;0.6357;1.6131;
8.1000;0.6390;1.6178;
8.4000;0.6398;1.6155;
8.7000;0.6390;1.6131;
9.0000;0.6447;1.6202;
9.3000;0.6431;1.6178;
9.6000;0.6439;1.6178;
9.9000;0.6439;1.6155;
10.2000;0.6471;1.6249;
10.5000;0.6496;1.6319;
10.8000;0.6488;1.6319;
11.1000;0.6488;1.6272;
11.4000;0.6545;1.6319;
11.7000;0.6545;1.6319;
12.0000;0.6536;1.6272;
12.3000;0.6553;1.6249;
12.6000;0.6577;1.6225;
12.9000;0.6585;1.6249;
13.2000;0.6577;1.6202;
13.5000;0.6593;1.6225;
13.8000;0.6602;1.6225;
14.1000;0.6618;1.6272;
14.4000;0.6748;1.6553;
14.7000;0.6626;1.6249;
15.0000;0.6626;1.6225;
15.3000;0.6642;1.6202;
15.6000;0.6659;1.6155;
15.9000;0.6659;1.6225;
16.2000;0.6659;1.6178;
16.5000;0.6675;1.6202;
16.8000;0.6699;1.6108;
17.1000;0.6683;1.6108;
17.4000;0.6699;1.6084;
17.7000;0.6699;1.6084;
18.0000;0.6707;1.6084;
18.3000;0.6724;1.6155;
18.6000;0.6732;1.6202;
18.9000;0.6756;1.6272;
19.2000;0.6732;1.6178;
19.5000;0.6740;1.6178;
19.8000;0.6732;1.6108;
20.1000;0.6740;1.6155;
20.4000;0.6748;1.6131;
20.7000;0.6756;1.6178;
21.0000;0.6805;1.6178;
21.3000;0.6838;1.6342;
21.6000;0.6756;1.6225;
21.9000;0.6772;1.6249;
22.2000;0.6797;1.6249;
22.5000;0.6764;1.6178;
22.8000;0.6789;1.6249;
23.1000;0.6813;1.6295;
23.4000;0.6797;1.6295;
23.7000;0.6789;1.6319;
24.0000;0.6797;1.6249;
24.3000;0.6764;1.6038;
24.6000;0.6821;1.6178;
24.9000;0.6813;1.6084;
25.2000;0.6813;1.6155;
25.5000;0.6813;1.6178;
25.8000;0.6829;1.6225;
26.1000;0.6846;1.6295;
26.4000;0.6813;1.6202;
26.7000;0.6821;1.6178;
27.0000;0.6838;1.6249;
27.3000;0.6838;1.6225;
27.6000;0.6838;1.6202;
27.9000;0.6821;1.6178;
28.2000;0.6862;1.6295;
28.5000;0.6846;1.6272;
28.8000;0.6838;1.6249;
29.1000;0.6797;1.6178;
29.4000;0.6838;1.6202;
29.7000;0.6862;1.6225;
30.0000;0.6870;1.6225;
30.3000;0.6854;1.6178;
30.6000;0.6854;1.6178;
30.9000;0.6870;1.6155;
31.2000;0.6838;1.6108;
31.5000;0.6838;1.6014;
31.8000;0.6846;1.6038;
32.1000;0.6854;1.6061;
32.4000;0.6862;1.6155;
32.7000;0.6878;1.6202;
33.0000;0.6878;1.6202;
33.3000;0.6878;1.6249;
33.6000;0.6886;1.6272;
33.9000;0.6903;1.6178;
34.2000;0.6854;1.6084;
34.5000;0.6895;1.6108;
34.8000;0.6911;1.6108;
35.1000;0.6911;1.6155;
35.4000;0.6886;1.6202;
35.7000;0.6895;1.6225;
36.0000;0.6903;1.6178;
36.3000;0.6919;1.6225;
36.6000;0.6919;1.6178;
36.9000;0.6919;1.6084;
37.2000;0.6919;1.6084;
37.5000;0.6919;1.6014;
37.8000;0.6927;1.5991;
38.1000;0.6935;1.6061;
38.4000;0.6927;1.6061;
38.7000;0.6903;1.5991;
39.0000;0.6927;1.5967;
39.3000;0.6919;1.5920;
39.6000;0.6903;1.5920;
39.9000;0.6927;1.6038;
40.2000;0.6919;1.5850;
40.5000;0.6895;1.5827;
40.8000;0.6870;1.5709;
41.1000;0.6903;1.5920;
41.4000;0.6927;1.5967;
41.7000;0.6927;1.6084;
42.0000;0.6911;1.5920;
42.3000;0.6919;1.5944;
42.6000;0.6935;1.5991;
42.9000;0.6927;1.6038;
43.2000;0.6927;1.6014;
43.5000;0.6927;1.5944;
43.8000;0.6935;1.5944;
44.1000;0.6968;1.6084;
44.4000;0.6927;1.6014;
44.7000;0.6935;1.6038;
45.0000;0.6960;1.5967;
45.3000;0.6927;1.5850;
45.6000;0.6968;1.5967;
45.9000;0.6943;1.5920;
46.2000;0.6952;1.5967;
46.5000;0.6911;1.5944;
46.8000;0.6943;1.5944;
47.1000;0.6935;1.5991;
47.4000;0.6952;1.6061;
47.7000;0.6952;1.6155;
48.0000;0.6960;1.6108;
48.3000;0.6943;1.6084;
48.6000;0.6919;1.6108;
48.9000;0.6960;1.6178;
49.2000;0.6984;1.6225;
49.5000;0.6952;1.6155;
49.8000;0.6943;1.6084;
50.1000;0.6984;1.6225;
50.4000;0.6968;1.6178;
50.7000;0.6919;1.6131;
51.0000;0.6960;1.6155;
51.3000;0.6976;1.6225;
51.6000;0.6943;1.6178;
51.9000;0.6952;1.6225;
52.2000;0.6903;1.6084;
52.5000;0.6952;1.6202;
52.8000;0.6976;1.6249;
53.1000;0.6911;1.6084;
53.4000;0.6952;1.6225;
53.7000;0.6960;1.6202;
54.0000;0.6943;1.6225;
54.3000;0.6968;1.6319;
54.6000;0.6952;1.6249;
54.9000;0.6943;1.6225;
55.2000;0.6960;1.6319;
55.5000;0.6927;1.6155;
55.8000;0.6960;1.6178;
56.1000;0.6968;1.6131;
56.4000;0.6968;1.6108;
56.7000;0.7066;1.6319;
57.0000;0.6968;1.6108;
57.3000;0.6960;1.6202;
57.6000;0.6960;1.6178;
57.9000;0.7017;1.6436;
58.2000;0.6992;1.6460;
58.5000;0.6968;1.6436;
58.8000;0.6943;1.6319;
59.1000;0.6960;1.6319;
59.4000;0.6976;1.6319;
59.7000;0.6992;1.6389;
60.0000;0.6992;1.6413;
60.3000;0.6968;1.6342;
60.6000;0.6952;1.6319;
60.9000;0.6976;1.6319;
61.2000;0.6968;1.6342;
61.5000;0.6992;1.6460;
61.8000;0.6992;1.6413;
62.1000;0.6976;1.6366;
62.4000;0.7074;1.6577;
62.7000;0.6935;1.6249;
63.0000;0.6976;1.6413;
63.3000;0.6976;1.6413;
63.6000;0.6952;1.6319;
63.9000;0.6976;1.6389;
64.2000;0.7041;1.6530;
64.5000;0.6976;1.6366;
64.8000;0.6976;1.6342;
65.1000;0.6919;1.6342;
65.4000;0.6960;1.6413;
65.7000;0.6952;1.6319;
66.0000;0.6952;1.6295;
66.3000;0.6968;1.6272;
66.6000;0.6935;1.6061;
66.9000;0.6992;1.6131;
67.2000;0.6984;1.6155;
67.5000;0.6976;1.6155;
67.8000;0.6984;1.6155;
68.1000;0.6984;1.6178;
68.4000;0.7114;1.6507;
68.7000;0.6960;1.6155;
69.0000;0.6984;1.6225;
69.3000;0.6984;1.6272;
69.6000;0.7009;1.6366;
69.9000;0.6992;1.6295;
70.2000;0.6984;1.6249;
70.5000;0.6976;1.6249;
70.8000;0.6976;1.6249;
71.1000;0.7057;1.6389;
71.4000;0.6992;1.6272;
71.7000;0.6992;1.6319;
72.0000;0.6976;1.6202;
72.3000;0.7000;1.6225;
72.6000;0.7000;1.6178;
72.9000;0.6984;1.6131;
73.2000;0.7009;1.6178;
73.5000;0.6992;1.6155;
73.8000;0.6992;1.6131;
74.1000;0.6992;1.6155;
74.4000;0.6992;1.6202;
74.7000;0.6976;1.6249;
75.0000;0.6976;1.6249;
75.3000;0.6968;1.6155;
75.6000;0.6984;1.6155;
75.9000;0.6992;1.6202;
76.2000;0.7009;1.6202;
76.5000;0.6984;1.6131;
76.8000;0.6976;1.6155;
77.1000;0.7000;1.6131;
77.4000;0.7017;1.6178;
77.7000;0.7057;1.6319;
78.0000;0.7000;1.6178;
78.3000;0.6984;1.6202;
78.6000;0.6992;1.6225;
78.9000;0.6984;1.6225;
79.2000;0.6976;1.6202;
79.5000;0.6992;1.6249;
79.8000;0.6927;1.6084;
80.1000;0.7041;1.6413;
80.4000;0.6984;1.6272;
80.7000;0.6992;1.6249;
81.0000;0.7090;1.6507;
81.3000;0.6992;1.6319;
81.6000;0.6992;1.6319;
81.9000;0.6903;1.6178;
82.2000;0.6984;1.6295;
82.5000;0.6992;1.6295;
82.8000;0.7025;1.6366;
83.1000;0.6992;1.6202;
83.4000;0.6968;1.6084;
83.7000;0.7000;1.6155;
84.0000;0.7000;1.6155;
84.3000;0.6960;1.5991;
84.6000;0.6976;1.6038;
84.9000;0.7000;1.6084;
85.2000;0.6992;1.6038;
85.5000;0.7049;1.6131;
85.8000;0.6952;1.5991;
86.1000;0.6992;1.6084;
86.4000;0.6992;1.6084;
86.7000;0.7000;1.6084;
87.0000;0.6992;1.6131;
87.3000;0.6984;1.6108;
87.6000;0.7009;1.6202;
87.9000;0.6968;1.6108;
88.2000;0.7009;1.6249;
88.5000;0.6984;1.6225;
88.8000;0.6992;1.6131;
89.1000;0.6984;1.6038;
89.4000;0.6976;1.6038;
89.7000;0.7000;1.6038;
90.0000;0.7000;1.6038;
90.3000;0.6992;1.6084;
90.6000;0.7057;1.6202;
90.9000;0.7000;1.6061;
91.2000;0.7017;1.6131;
91.5000;0.7000;1.6178;
91.8000;0.7009;1.6178;
92.1000;0.7009;1.6202;
92.4000;0.7009;1.6225;
92.7000;0.7025;1.6249;
93.0000;0.7017;1.6342;
93.3000;0.6992;1.6366;
93.6000;0.6984;1.6249;
93.9000;0.7009;1.6295;
94.2000;0.7000;1.6342;
94.5000;0.7000;1.6366;
94.8000;0.7000;1.6389;
95.1000;0.7009;1.6319;
95.4000;0.7025;1.6342;
95.7000;0.6992;1.6319;
96.0000;0.7000;1.6225;
96.3000;0.6992;1.6155;
96.6000;0.7025;1.6319;
96.9000;0.7009;1.6319;
97.2000;0.7000;1.6202;
97.5000;0.7017;1.6202;
97.8000;0.7017;1.6014;
98.1000;0.7041;1.6061;
98.4000;0.7000;1.6131;
98.7000;0.7000;1.6225;
99.0000;0.7009;1.6295;
99.3000;0.7009;1.6295;
99.6000;0.7017;1.6295;
99.9000;0.7017;1.6249;
100.2000;0.6992;1.6249;
100.5000;0.7009;1.6178;
100.8000;0.7000;1.6131;
101.1000;0.6984;1.6155;
101.4000;0.7000;1.6131;
101.7000;0.7106;1.6342;
102.0000;0.6919;1.5897;
102.3000;0.7009;1.6131;
102.6000;0.7000;1.6178;
102.9000;0.7017;1.6178;
103.2000;0.7009;1.6249;
103.5000;0.7033;1.6342;
103.8000;0.6984;1.6295;
104.1000;0.7000;1.6460;
104.4000;0.7000;1.6530;
104.7000;0.7017;1.6507;
105.0000;0.6992;1.6436;
105.3000;0.6984;1.6436;
105.6000;0.7009;1.6483;
105.9000;0.6960;1.6366;
106.2000;0.7000;1.6366;
106.5000;0.7000;1.6389;
106.8000;0.6984;1.6342;
107.1000;0.7025;1.6342;
107.4000;0.7025;1.6366;
107.7000;0.7017;1.6413;
108.0000;0.7017;1.6342;
108.3000;0.6984;1.6272;
108.6000;0.7009;1.6389;
108.9000;0.7000;1.6319;
109.2000;0.7009;1.6342;
109.5000;0.7025;1.6342;
109.8000;0.7009;1.6319;
110.1000;0.7009;1.6366;
110.4000;0.7017;1.6295;
110.7000;0.7017;1.6389;
111.0000;0.7017;1.6389;
111.3000;0.7000;1.6295;
111.6000;0.7017;1.6272;
111.9000;0.7017;1.6272;
112.2000;0.7009;1.6319;
112.5000;0.7009;1.6342;
112.8000;0.7017;1.6366;
113.1000;0.7017;1.6413;
113.4000;0.7025;1.6460;
113.7000;0.7000;1.6389;
114.0000;0.7000;1.6389;
114.3000;0.7009;1.6389;
114.6000;0.7000;1.6272;
114.9000;0.7033;1.6389;
115.2000;0.7000;1.6366;
115.5000;0.6992;1.6389;
115.8000;0.6992;1.6389;
116.1000;0.7009;1.6436;
116.4000;0.7009;1.6366;
116.7000;0.6992;1.6342;
117.0000;0.7074;1.6483;
117.3000;0.7017;1.6272;
117.6000;0.7000;1.6272;
117.9000;0.7000;1.6272;
118.2000;0.6992;1.6108;
118.5000;0.7000;1.6178;
118.8000;0.7009;1.6202;
119.1000;0.6992;1.6178;
119.4000;0.7090;1.6507;
119.7000;0.7017;1.6342;
120.0000;0.6992;1.6178;
120.3000;0.7017;1.6202;
120.6000;0.7017;1.6178;
120.9000;0.7009;1.6108;
121.2000;0.7025;1.6155;
121.5000;0.7017;1.6108;
121.8000;0.7017;1.5991;
122.1000;0.7017;1.5991;
122.4000;0.7017;1.5944;
122.7000;0.7000;1.5920;
123.0000;0.7009;1.5850;
123.3000;0.7017;1.5897;
123.6000;0.6992;1.5920;
123.9000;0.7009;1.6038;
124.2000;0.7000;1.6061;
124.5000;0.7049;1.6178;
124.8000;0.7000;1.6084;
125.1000;0.7025;1.6178;
125.4000;0.7009;1.6131;
125.7000;0.7009;1.6108;
126.0000;0.7000;1.6084;
126.3000;0.6960;1.6084;
126.6000;0.7025;1.6249;
126.9000;0.7009;1.6249;
127.2000;0.7009;1.6225;
127.5000;0.7009;1.6131;
127.8000;0.6992;1.6155;
128.1000;0.7009;1.6155;
128.4000;0.6992;1.6131;
128.7000;0.6992;1.6155;
129.0000;0.7025;1.6202;
129.3000;0.7033;1.6202;
129.6000;0.7017;1.6155;
129.9000;0.7114;1.6483;
130.2000;0.7017;1.6178;
130.5000;0.6984;1.6061;
130.8000;0.7000;1.6108;
131.1000;0.7017;1.6178;
131.4000;0.7017;1.6272;
131.7000;0.7009;1.6295;
132.0000;0.6984;1.6202;
132.3000;0.7009;1.6366;
132.6000;0.6952;1.6249;
132.9000;0.7025;1.6483;
133.2000;0.7017;1.6483;
133.5000;0.6968;1.6413;
133.8000;0.7009;1.6483;
134.1000;0.7017;1.6483;
134.4000;0.7009;1.6436;
134.7000;0.7017;1.6436;
135.0000;0.6976;1.6295;
135.3000;0.7033;1.6460;
135.6000;0.7009;1.6413;
135.9000;0.7000;1.6366;
136.2000;0.7000;1.6366;
136.5000;0.7017;1.6389;
136.8000;0.7090;1.6413;
137.1000;0.7009;1.6295;
137.4000;0.7025;1.6366;
137.7000;0.6960;1.6202;
138.0000;0.7025;1.6319;
138.3000;0.7017;1.6272;
138.6000;0.7009;1.6319;
138.9000;0.7017;1.6366;
139.2000;0.7025;1.6389;
139.5000;0.7033;1.6366;
139.8000;0.7017;1.6366;
140.1000;0.7106;1.6600;
140.4000;0.7033;1.6272;
140.7000;0.7025;1.6178;
141.0000;0.7025;1.6202;
141.3000;0.7025;1.6225;
141.6000;0.7033;1.6155;
141.9000;0.7033;1.6225;
142.2000;0.7025;1.6202;
142.5000;0.7041;1.6155;
142.8000;0.7009;1.6131;
143.1000;0.7041;1.6131;
143.4000;0.7017;1.6155;
143.7000;0.7017;1.6131;
144.0000;0.7000;1.6038;
144.3000;0.6984;1.5967;
144.6000;0.7017;1.6084;
144.9000;0.7000;1.6038;
145.2000;0.7017;1.6038;
145.5000;0.7009;1.6038;
145.8000;0.7009;1.6038;
146.1000;0.7131;1.6272;
146.4000;0.7025;1.5920;
146.7000;0.7009;1.5897;
147.0000;0.7025;1.5991;
147.3000;0.7017;1.5897;
147.6000;0.7000;1.5873;
147.9000;0.7025;1.5920;
148.2000;0.6895;1.5569;
148.5000;0.7033;1.6014;
148.8000;0.6935;1.5686;
149.1000;0.7000;1.5803;
149.4000;0.7000;1.5944;
149.7000;0.7000;1.6014;
150.0000;0.7000;1.5920;
150.3000;0.7009;1.5944;
150.6000;0.7017;1.6108;
150.9000;0.7025;1.6178;
151.2000;0.7025;1.6225;
151.5000;0.7000;1.6202;
151.8000;0.7017;1.6225;
152.1000;0.6992;1.6155;
152.4000;0.7017;1.6155;
152.7000;0.7017;1.6061;
153.0000;0.7033;1.6084;
153.3000;0.7025;1.6131;
153.6000;0.7017;1.6084;
153.9000;0.7090;1.6225;
154.2000;0.7057;1.6084;
154.5000;0.7033;1.6061;
154.8000;0.7017;1.6061;
155.1000;0.7025;1.6038;
155.4000;0.6952;1.5897;
155.7000;0.7033;1.6084;
156.0000;0.7139;1.6319;
156.3000;0.6984;1.5944;
156.6000;0.6976;1.5873;
156.9000;0.7033;1.5944;
157.2000;0.7041;1.5991;
157.5000;0.7033;1.5944;
157.8000;0.6992;1.5827;
158.1000;0.7000;1.5850;
158.4000;0.7017;1.5967;
158.7000;0.7009;1.5967;
159.0000;0.7025;1.5967;
159.3000;0.7017;1.5920;
159.6000;0.6943;1.5686;
159.9000;0.7025;1.5897;
160.2000;0.7033;1.5991;
160.5000;0.7000;1.5991;
160.8000;0.7025;1.6061;
161.1000;0.7041;1.6131;
161.4000;0.7017;1.6084;
161.7000;0.7009;1.6014;
162.0000;0.7025;1.6061;
162.3000;0.7025;1.6014;
162.6000;0.7033;1.6014;
162.9000;0.7033;1.5991;
163.2000;0.7017;1.5920;
163.5000;0.7009;1.5920;
163.8000;0.7009;1.5873;
164.1000;0.7033;1.5991;
164.4000;0.7000;1.5920;
164.7000;0.7017;1.5873;
165.0000;0.7025;1.5850;
165.3000;0.7000;1.5850;
165.6000;0.7009;1.5873;
165.9000;0.7025;1.5920;
166.2000;0.7025;1.5920;
166.5000;0.7009;1.5944;
166.8000;0.7025;1.6108;
167.1000;0.7009;1.6084;
167.4000;0.7009;1.6178;
167.7000;0.7033;1.6108;
168.0000;0.7017;1.6061;
168.3000;0.7009;1.6038;
168.6000;0.7017;1.6084;
168.9000;0.7041;1.6155;
169.2000;0.7025;1.6131;
169.5000;0.7017;1.6131;
169.8000;0.7017;1.6108;
170.1000;0.7074;1.6178;
170.4000;0.7017;1.5944;
170.7000;0.7009;1.5873;
171.0000;0.7009;1.5897;
171.3000;0.7017;1.5967;
171.6000;0.7025;1.6014;
171.9000;0.7000;1.6014;
172.2000;0.6976;1.5827;
172.5000;0.7057;1.6061;
172.8000;0.7106;1.6225;
173.1000;0.6984;1.5920;
173.4000;0.7000;1.5967;
173.7000;0.7017;1.6014;
174.0000;0.7000;1.5991;
174.3000;0.7057;1.6155;
174.6000;0.7000;1.6108;
174.9000;0.7066;1.6272;
175.2000;0.7033;1.6108;
175.5000;0.7025;1.6061;
175.8000;0.7009;1.6014;
176.1000;0.7009;1.6038;
176.4000;0.7017;1.6155;
176.7000;0.7017;1.6202;
177.0000;0.7017;1.6249;
177.3000;0.7057;1.6342;
177.6000;0.7025;1.6295;
177.9000;0.7025;1.6225;
178.2000;0.7025;1.6108;
178.5000;0.7033;1.6155;
178.8000;0.7000;1.6014;
179.1000;0.7017;1.6061;
179.4000;0.7000;1.6084;
179.7000;0.7009;1.6084;
180.0000;0.7017;1.5991;
180.3000;0.7033;1.6084;
180.6000;0.7025;1.6061;
180.9000;0.7009;1.6038;
181.2000;0.7017;1.6061;
181.5000;0.7033;1.6038;
181.8000;0.7025;1.6061;
182.1000;0.7017;1.6108;
182.4000;0.7025;1.6108;
182.7000;0.7033;1.6131;
183.0000;0.7025;1.6038;
183.3000;0.7009;1.6014;
183.6000;0.7000;1.6038;
183.9000;0.7033;1.6131;
184.2000;0.7025;1.6155;
184.5000;0.7033;1.6155;
184.8000;0.7009;1.6178;
185.1000;0.7017;1.6178;
185.4000;0.7025;1.6249;
185.7000;0.7025;1.6249;
186.0000;0.7025;1.6272;
186.3000;0.7009;1.6178;
186.6000;0.7000;1.6038;
186.9000;0.7017;1.6131;
187.2000;0.7009;1.6014;
187.5000;0.7000;1.5967;
187.8000;0.7025;1.5991;
188.1000;0.7009;1.6061;
188.4000;0.7017;1.6108;
188.7000;0.7017;1.6014;
189.0000;0.7009;1.6038;
189.3000;0.7025;1.6131;
189.6000;0.7009;1.6225;
189.9000;0.7000;1.6225;
190.2000;0.7017;1.6295;
190.5000;0.7017;1.6342;
190.8000;0.7017;1.6295;
191.1000;0.7017;1.6131;
191.4000;0.7009;1.6108;
191.7000;0.7017;1.6061;
192.0000;0.7025;1.6131;
192.3000;0.7009;1.6108;
192.6000;0.7009;1.6061;
192.9000;0.7009;1.6084;
193.2000;0.7033;1.6131;
193.5000;0.7147;1.6389;
193.8000;0.7017;1.6131;
194.1000;0.7017;1.6202;
194.4000;0.7017;1.6131;
194.7000;0.7033;1.6108;
195.0000;0.7017;1.6014;
195.3000;0.7009;1.5967;
195.6000;0.6976;1.5873;
195.9000;0.6992;1.5897;
196.2000;0.7025;1.5920;
196.5000;0.7017;1.5873;
196.8000;0.7025;1.5873;
197.1000;0.7009;1.5897;
197.4000;0.7009;1.5920;
197.7000;0.7025;1.6014;
198.0000;0.7017;1.5967;
198.3000;0.7017;1.5991;
198.6000;0.7041;1.6038;
198.9000;0.7009;1.6014;
199.2000;0.7009;1.5944;
199.5000;0.7017;1.5944;
199.8000;0.7025;1.5920;
200.1000;0.7017;1.5920;
200.4000;0.6960;1.5827;
200.7000;0.7017;1.6108;
201.0000;0.7017;1.6038;
201.3000;0.6960;1.5897;
201.6000;0.7017;1.6108;
201.9000;0.7009;1.6108;
202.2000;0.6992;1.6061;
202.5000;0.7025;1.6084;
202.8000;0.7009;1.6108;
203.1000;0.7017;1.6155;
203.4000;0.7033;1.6178;
203.7000;0.7033;1.6178;
204.0000;0.7025;1.6202;
204.3000;0.7033;1.6202;
204.6000;0.7025;1.6108;
204.9000;0.7017;1.6061;
205.2000;0.7017;1.6061;
205.5000;0.7025;1.6108;
205.8000;0.7025;1.6084;
206.1000;0.7033;1.6108;
206.4000;0.7033;1.6178;
206.7000;0.7017;1.6202;
207.0000;0.7017;1.6155;
207.3000;0.7025;1.6249;
207.6000;0.7017;1.6225;
207.9000;0.7009;1.6155;
208.2000;0.6984;1.6084;
208.5000;0.7017;1.6225;
208.8000;0.7009;1.6319;
209.1000;0.7017;1.6319;
209.4000;0.7009;1.6249;
209.7000;0.7017;1.6295;
210.0000;0.7033;1.6342;
210.3000;0.7025;1.6272;
210.6000;0.7017;1.6295;
210.9000;0.7017;1.6319;
211.2000;0.7025;1.6272;
211.5000;0.7033;1.6249;
211.8000;0.6992;1.6038;
212.1000;0.7000;1.5991;
212.4000;0.7009;1.5991;
212.7000;0.6984;1.5920;
213.0000;0.7000;1.6014;
213.3000;0.6984;1.6038;
213.6000;0.7000;1.6014;
213.9000;0.7009;1.6061;
214.2000;0.7017;1.6061;
214.5000;0.7009;1.6038;
214.8000;0.7000;1.6061;
215.1000;0.7017;1.6038;
215.4000;0.7033;1.6038;
215.7000;0.7009;1.5944;
216.0000;0.7017;1.5920;
216.3000;0.7033;1.6061;
216.6000;0.7041;1.6108;
216.9000;0.7033;1.6131;
217.2000;0.7009;1.6038;
217.5000;0.6968;1.5897;
217.8000;0.7025;1.6084;
218.1000;0.7017;1.6061;
218.4000;0.7009;1.6084;
218.7000;0.7025;1.6084;
219.0000;0.7009;1.6061;
219.3000;0.7009;1.6038;
219.6000;0.6984;1.5850;
219.9000;0.7025;1.5944;
220.2000;0.7025;1.5967;
220.5000;0.7009;1.6014;
220.8000;0.6992;1.5967;
221.1000;0.6992;1.6084;
221.4000;0.7049;1.6108;
221.7000;0.6960;1.5920;
222.0000;0.7025;1.6155;
222.3000;0.6984;1.6038;
222.6000;0.7000;1.6108;
222.9000;0.7025;1.6131;
223.2000;0.7033;1.6178;
223.5000;0.7025;1.6131;
223.8000;0.7025;1.6084;
224.1000;0.7017;1.5991;
224.4000;0.7017;1.6038;
224.7000;0.7000;1.6038;
225.0000;0.7017;1.6061;
225.3000;0.7009;1.6202;
225.6000;0.7033;1.6342;
225.9000;0.7017;1.6272;
226.2000;0.7025;1.6202;
226.5000;0.6992;1.6108;
226.8000;0.7009;1.6249;
227.1000;0.7057;1.6436;
227.4000;0.7025;1.6342;
227.7000;0.7033;1.6319;
228.0000;0.7082;1.6460;
228.3000;0.7017;1.6249;
228.6000;0.7017;1.6249;
228.9000;0.7000;1.6249;
229.2000;0.7017;1.6155;
229.5000;0.7025;1.6249;
229.8000;0.7025;1.6272;
230.1000;0.7009;1.6108;
230.4000;0.7017;1.6108;
230.7000;0.7041;1.6155;
231.0000;0.7009;1.6131;
231.3000;0.7033;1.6131;
231.6000;0.7033;1.6131;
231.9000;0.7041;1.6131;
232.2000;0.7033;1.6038;
232.5000;0.7009;1.6038;
232.8000;0.6992;1.5991;
233.1000;0.7033;1.6084;
233.4000;0.7041;1.6084;
233.7000;0.7017;1.6038;
234.0000;0.7041;1.6038;
234.3000;0.7033;1.6084;
234.6000;0.7041;1.6178;
234.9000;0.7025;1.6272;
235.2000;0.7000;1.6225;
235.5000;0.7009;1.6178;
235.8000;0.7033;1.6295;
236.1000;0.7033;1.6272;
236.4000;0.7017;1.6178;
236.7000;0.7009;1.6084;
237.0000;0.7009;1.6084;
237.3000;0.7033;1.6178;
237.6000;0.7017;1.6131;
237.9000;0.7017;1.6084;
238.2000;0.7009;1.6131;
238.5000;0.7033;1.6084;
238.8000;0.7017;1.6108;
239.1000;0.7009;1.6061;
239.4000;0.7017;1.6178;
239.7000;0.7057;1.6272;
240.0000;0.6968;1.6155;
240.3000;0.7009;1.6178;
240.6000;0.7009;1.6155;
240.9000;0.7017;1.6178;
241.2000;0.7025;1.6131;
241.5000;0.6960;1.5920;
241.8000;0.7025;1.6061;
242.1000;0.7041;1.6108;
242.4000;0.7025;1.6084;
242.7000;0.7025;1.6108;
243.0000;0.7000;1.6061;
243.3000;0.7017;1.6038;
243.6000;0.6960;1.5897;
243.9000;0.7033;1.6108;
244.2000;0.7041;1.6178;
244.5000;0.7025;1.6038;
244.8000;0.7041;1.6178;
245.1000;0.7033;1.6225;
245.4000;0.7009;1.6108;
245.7000;0.7017;1.6202;
246.0000;0.6976;1.6084;
246.3000;0.7033;1.6108;
246.6000;0.7009;1.6108;
246.9000;0.7033;1.6155;
247.2000;0.7000;1.6155;
247.5000;0.7009;1.6178;
247.8000;0.7017;1.6108;
248.1000;0.7025;1.6084;
248.4000;0.7025;1.6084;
248.7000;0.7017;1.6155;
249.0000;0.7009;1.6178;
249.3000;0.7139;1.6460;
249.6000;0.7025;1.6178;
249.9000;0.6927;1.5944;
250.2000;0.7057;1.6319;
250.5000;0.7017;1.6249;
250.8000;0.6968;1.6131;
251.1000;0.7025;1.6272;
251.4000;0.7066;1.6389;
251.7000;0.7074;1.6436;
252.0000;0.7017;1.6295;
252.3000;0.7000;1.6319;
252.6000;0.7017;1.6413;
252.9000;0.7041;1.6389;
253.2000;0.7009;1.6389;
253.5000;0.7009;1.6342;
253.8000;0.7057;1.6413;
254.1000;0.6984;1.6131;
254.4000;0.7017;1.6319;
254.7000;0.6976;1.6225;
255.0000;0.7025;1.6342;
255.3000;0.7025;1.6342;
255.6000;0.7009;1.6225;
255.9000;0.7009;1.6155;
256.2000;0.6984;1.6084;
256.5000;0.7000;1.6155;
256.8000;0.7017;1.6225;
257.1000;0.7017;1.6225;
257.4000;0.7123;1.6507;
257.7000;0.7000;1.6272;
258.0000;0.7017;1.6295;
258.3000;0.6968;1.6342;
258.6000;0.7017;1.6460;
258.9000;0.7009;1.6342;
259.2000;0.6992;1.6249;
259.5000;0.7017;1.6225;
259.8000;0.7009;1.6155;
260.1000;0.7025;1.6155;
260.4000;0.7033;1.6155;
260.7000;0.7033;1.6249;
261.0000;0.7009;1.6178;
261.3000;0.7025;1.6249;
261.6000;0.6992;1.6108;
261.9000;0.7017;1.6131;
262.2000;0.7025;1.6202;
262.5000;0.7025;1.6225;
262.8000;0.7041;1.6202;
263.1000;0.7123;1.6460;
263.4000;0.6984;1.6108;
263.7000;0.7033;1.6225;
264.0000;0.7057;1.6295;
264.3000;0.7123;1.6507;
264.6000;0.7041;1.6202;
264.9000;0.6992;1.6155;
265.2000;0.7033;1.6131;
265.5000;0.7049;1.6084;
265.8000;0.7041;1.6061;
266.1000;0.7033;1.5967;
266.4000;0.7082;1.6108;
266.7000;0.7017;1.5944;
267.0000;0.7025;1.6038;
267.3000;0.7106;1.6272;
267.6000;0.7017;1.6084;
267.9000;0.7017;1.6131;
268.2000;0.7017;1.6061;
268.5000;0.7049;1.6155;
268.8000;0.7017;1.6084;
269.1000;0.6992;1.5967;
269.4000;0.7041;1.6038;
269.7000;0.7033;1.5967;
270.0000;0.7090;1.6108;
270.3000;0.7123;1.6178;
270.6000;0.7049;1.6038;
270.9000;0.7041;1.6038;
271.2000;0.7025;1.5991;
271.5000;0.7033;1.6061;
271.8000;0.7033;1.6084;
272.1000;0.7017;1.6084;
272.4000;0.7009;1.6084;
272.7000;0.7009;1.6108;
273.0000;0.7090;1.6272;
273.3000;0.6984;1.6014;
273.6000;0.7009;1.6108;
273.9000;0.6943;1.6061;
274.2000;0.7066;1.6366;
274.5000;0.7033;1.6249;
274.8000;0.7017;1.6272;
275.1000;0.7009;1.6249;
275.4000;0.7017;1.6131;
275.7000;0.7033;1.6108;
276.0000;0.7057;1.6155;
276.3000;0.7025;1.6155;
276.6000;0.6984;1.6038;
276.9000;0.7041;1.6084;
277.2000;0.7025;1.5991;
277.5000;0.7025;1.6014;
277.8000;0.7025;1.6061;
278.1000;0.7033;1.6108;
278.4000;0.7000;1.6038;
278.7000;0.7041;1.6155;
279.0000;0.7074;1.6178;
279.3000;0.7025;1.6084;
279.6000;0.7066;1.6249;
279.9000;0.7017;1.6225;
280.2000;0.7017;1.6295;
280.5000;0.7017;1.6319;
280.8000;0.7025;1.6319;
281.1000;0.7033;1.6342;
281.4000;0.7025;1.6295;
281.7000;0.7033;1.6342;
282.0000;0.6976;1.6178;
282.3000;0.7049;1.6319;
282.6000;0.7017;1.6178;
282.9000;0.7017;1.6155;
283.2000;0.7000;1.6108;
283.5000;0.7025;1.6155;
283.8000;0.7025;1.6038;
284.1000;0.7017;1.6084;
284.4000;0.7009;1.5991;
284.7000;0.7017;1.6014;
285.0000;0.7049;1.6061;
285.3000;0.7033;1.6061;
285.6000;0.7017;1.6014;
285.9000;0.7025;1.6061;
286.2000;0.7033;1.6061;
286.5000;0.7049;1.5991;
286.8000;0.7017;1.5920;
287.1000;0.7025;1.6038;
287.4000;0.7025;1.5944;
287.7000;0.7017;1.5920;
288.0000;0.7009;1.5897;
288.3000;0.7017;1.6014;
288.6000;0.7033;1.6038;
288.9000;0.6992;1.5920;
289.2000;0.7025;1.5944;
289.5000;0.7017;1.5967;
289.8000;0.7000;1.5944;
290.1000;0.7025;1.6014;
290.4000;0.7025;1.6061;
290.7000;0.7147;1.6342;
291.0000;0.7009;1.5967;
291.3000;0.7025;1.5967;
291.6000;0.7033;1.5991;
291.9000;0.7041;1.6038;
292.2000;0.7017;1.5944;
292.5000;0.7009;1.5920;
292.8000;0.7000;1.6014;
293.1000;0.7009;1.6061;
293.4000;0.7025;1.6108;
293.7000;0.7033;1.6178;
294.0000;0.7009;1.6155;
294.3000;0.7017;1.6131;
294.6000;0.7025;1.6155;
294.9000;0.7033;1.6178;
295.2000;0.7009;1.6272;
295.5000;0.7017;1.6272;
295.8000;0.7066;1.6319;
296.1000;0.6960;1.6038;
296.4000;0.7025;1.6131;
296.7000;0.7017;1.6178;
297.0000;0.7131;1.6436;
297.3000;0.7017;1.6108;
297.6000;0.7017;1.6108;
297.9000;0.7025;1.6131;
298.2000;0.7082;1.6272;
298.5000;0.7017;1.6108;
298.8000;0.7009;1.6202;
299.1000;0.7009;1.6202;
299.4000;0.7009;1.6155;
299.7000;0.7009;1.6131;
300.0000;0.7000;1.6084;
300.3000;0.7017;1.6108;
300.6000;0.7017;1.6038;
300.9000;0.7009;1.5944;
301.2000;0.6992;1.5944;
301.5000;0.7017;1.6061;
301.8000;0.7017;1.6108;
302.1000;0.7009;1.6061;
302.4000;0.7017;1.6084;
302.7000;0.7025;1.6131;
303.0000;0.7025;1.6061;
303.3000;0.7009;1.6061;
303.6000;0.7000;1.6061;
303.9000;0.7009;1.6061;
304.2000;0.7017;1.6084;
304.5000;0.7025;1.6014;
304.8000;0.7017;1.6084;
305.1000;0.7000;1.6061;
305.4000;0.7017;1.6202;
305.7000;0.7017;1.6249;
306.0000;0.7017;1.6272;
306.3000;0.6992;1.6202;
306.6000;0.7000;1.6272;
306.9000;0.7000;1.6342;
307.2000;0.7009;1.6342;
307.5000;0.7017;1.6460;
307.8000;0.7041;1.6460;
308.1000;0.7017;1.6366;
308.4000;0.7025;1.6295;
308.7000;0.7009;1.6295;
309.0000;0.7066;1.6342;
309.3000;0.7017;1.6178;
309.6000;0.6992;1.5967;
309.9000;0.6984;1.5967;
310.2000;0.7033;1.6131;
310.5000;0.7057;1.6225;
310.8000;0.7025;1.6178;
311.1000;0.7009;1.6178;
311.4000;0.6952;1.6038;
311.7000;0.6984;1.6038;
312.0000;0.7017;1.6084;
312.3000;0.6984;1.6014;
312.6000;0.7009;1.6038;
312.9000;0.7025;1.6155;
313.2000;0.7025;1.6131;
313.5000;0.7009;1.6108;
313.8000;0.7009;1.6108;
314.1000;0.7017;1.6084;
314.4000;0.7025;1.6155;
314.7000;0.7025;1.6131;
315.0000;0.7033;1.6108;
315.3000;0.7025;1.6131;
315.6000;0.6895;1.5756;
315.9000;0.7033;1.6108;
316.2000;0.7025;1.6108;
316.5000;0.7009;1.6131;
316.8000;0.6984;1.6249;
317.1000;0.7033;1.6319;
317.4000;0.7082;1.6413;
317.7000;0.6976;1.6202;
318.0000;0.7049;1.6319;
318.3000;0.7017;1.6272;
318.6000;0.7025;1.6272;
318.9000;0.7009;1.6225;
319.2000;0.7017;1.6319;
319.5000;0.7033;1.6319;
319.8000;0.7017;1.6295;
320.1000;0.7017;1.6295;
320.4000;0.7009;1.6319;
320.7000;0.7017;1.6272;
321.0000;0.7033;1.6272;
321.3000;0.6984;1.6225;
321.6000;0.7017;1.6178;
321.9000;0.7009;1.6202;
322.2000;0.7025;1.6131;
322.5000;0.7025;1.6155;
322.8000;0.7017;1.6108;
323.1000;0.7033;1.6061;
323.4000;0.7009;1.6084;
323.7000;0.7025;1.6155;
324.0000;0.7033;1.6249;
324.3000;0.7033;1.6319;
324.6000;0.7025;1.6225;
324.9000;0.7025;1.6249;
325.2000;0.7017;1.6249;
325.5000;0.7017;1.6249;
325.8000;0.7025;1.6366;
326.1000;0.7017;1.6436;
326.4000;0.7033;1.6483;
326.7000;0.7017;1.6413;
327.0000;0.7017;1.6413;
327.3000;0.7017;1.6436;
327.6000;0.7025;1.6389;
327.9000;0.7017;1.6295;
328.2000;0.7000;1.6295;
328.5000;0.7025;1.6249;
328.8000;0.7025;1.6202;
329.1000;0.7025;1.6178;
329.4000;0.7041;1.6131;
329.7000;0.7041;1.6084;
330.0000;0.7041;1.6084;
330.3000;0.7041;1.6014;
330.6000;0.7025;1.6014;
330.9000;0.7041;1.6084;
331.2000;0.7009;1.6038;
331.5000;0.7033;1.6084;
331.8000;0.7017;1.6061;
332.1000;0.7017;1.6038;
332.4000;0.6992;1.5991;
332.7000;0.7017;1.5991;
333.0000;0.7000;1.5873;
333.3000;0.6992;1.5920;
333.6000;0.7017;1.6108;
333.9000;0.7017;1.6131;
334.2000;0.7009;1.6084;
334.5000;0.7009;1.6061;
334.8000;0.7009;1.6061;
335.1000;0.7017;1.6014;
335.4000;0.7041;1.6084;
335.7000;0.7017;1.5944;
336.0000;0.7033;1.6014;
336.3000;0.7025;1.6084;
336.6000;0.7033;1.6061;
336.9000;0.7025;1.6014;
337.2000;0.7009;1.5897;
337.5000;0.7049;1.6038;
337.8000;0.6992;1.6014;
338.1000;0.7009;1.6131;
338.4000;0.7033;1.6225;
338.7000;0.6976;1.6178;
339.0000;0.7033;1.6225;
339.3000;0.7033;1.6225;
339.6000;0.7033;1.6319;
339.9000;0.7025;1.6295;
340.2000;0.7025;1.6342;
340.5000;0.7009;1.6295;
340.8000;0.7009;1.6319;
341.1000;0.7009;1.6342;
341.4000;0.6992;1.6225;
341.7000;0.7000;1.6225;
342.0000;0.7114;1.6483;
342.3000;0.7000;1.6295;
342.6000;0.7017;1.6272;
342.9000;0.7025;1.6319;
343.2000;0.7009;1.6295;
343.5000;0.7017;1.6249;
343.8000;0.7074;1.6366;
344.1000;0.7017;1.6202;
344.4000;0.7049;1.6249;
344.7000;0.7033;1.6202;
345.0000;0.7049;1.6225;
345.3000;0.7017;1.6155;
345.6000;0.7033;1.6202;
345.9000;0.7017;1.6225;
346.2000;0.7017;1.6202;
346.5000;0.7033;1.6249;
346.8000;0.7025;1.6202;
347.1000;0.7017;1.6155;
347.4000;0.7009;1.6155;
347.7000;0.7009;1.6249;
348.0000;0.7025;1.6178;
348.3000;0.6992;1.6084;
348.6000;0.7017;1.6061;
348.9000;0.7033;1.6014;
349.2000;0.7033;1.6108;
349.5000;0.7017;1.6084;
349.8000;0.7025;1.6108;
350.1000;0.7025;1.5944;
350.4000;0.7017;1.5991;
350.7000;0.7033;1.6061;
351.0000;0.7033;1.6038;
351.3000;0.7041;1.6061;
351.6000;0.7033;1.6038;
351.9000;0.7025;1.6038;
352.2000;0.7000;1.5991;
352.5000;0.7025;1.6014;
352.8000;0.7017;1.6061;
353.1000;0.7017;1.6014;
353.4000;0.7009;1.5967;
353.7000;0.7000;1.6038;
354.0000;0.7033;1.6202;
354.3000;0.7025;1.6249;
354.6000;0.7025;1.6319;
354.9000;0.7017;1.6225;
355.2000;0.7025;1.6202;
355.5000;0.7041;1.6178;
355.8000;0.7033;1.6131;
356.1000;0.7017;1.6108;
356.4000;0.6984;1.6108;
356.7000;0.7000;1.6108;
357.0000;0.7017;1.6155;
357.3000;0.7033;1.6178;
357.6000;0.7009;1.6131;
357.9000;0.7009;1.6178;
358.2000;0.6992;1.6225;
358.5000;0.7017;1.6272;
358.8000;0.7009;1.6295;
359.1000;0.7009;1.6413;
359.4000;0.7025;1.6413;
359.7000;0.7017;1.6366;
360.0000;0.7066;1.6600;
360.3000;0.7017;1.6436;
360.6000;0.7049;1.6460;
360.9000;0.7041;1.6389;
361.2000;0.7057;1.6413;
361.5000;0.6968;1.6108;
361.8000;0.7033;1.6225;
362.1000;0.7025;1.6108;
362.4000;0.7041;1.6084;
362.7000;0.7025;1.6155;
363.0000;0.7025;1.6178;
363.3000;0.7025;1.6202;
363.6000;0.7009;1.6155;
363.9000;0.7025;1.6131;
364.2000;0.7017;1.6155;
364.5000;0.6992;1.6108;
364.8000;0.7025;1.6131;
365.1000;0.7017;1.6202;
365.4000;0.7000;1.6178;
365.7000;0.7025;1.6249;
366.0000;0.7139;1.6553;
366.3000;0.7033;1.6225;
366.6000;0.7025;1.6155;
366.9000;0.7017;1.6155;
367.2000;0.7025;1.6272;
367.5000;0.7025;1.6366;
367.8000;0.7017;1.6272;
368.1000;0.7017;1.6249;
368.4000;0.7057;1.6225;
368.7000;0.7025;1.6084;
369.0000;0.7025;1.6061;
369.3000;0.7009;1.6108;
369.6000;0.7025;1.6155;
369.9000;0.7025;1.6202;
370.2000;0.7057;1.6272;
370.5000;0.7009;1.6155;
370.8000;0.7009;1.6178;
371.1000;0.7000;1.6178;
371.4000;0.7025;1.6202;
371.7000;0.6976;1.6131;
372.0000;0.6960;1.6084;
372.3000;0.7025;1.6272;
372.6000;0.7017;1.6249;
372.9000;0.7033;1.6319;
373.2000;0.7017;1.6249;
373.5000;0.7017;1.6249;
373.8000;0.7009;1.6202;
374.1000;0.7025;1.6272;
374.4000;0.7000;1.6202;
374.7000;0.7017;1.6178;
375.0000;0.7009;1.6131;
375.3000;0.7025;1.6131;
375.6000;0.6992;1.6061;
375.9000;0.7017;1.6038;
376.2000;0.6992;1.5991;
376.5000;0.7025;1.5967;
376.8000;0.7123;1.6178;
377.1000;0.7025;1.5944;
377.4000;0.7025;1.5920;
377.7000;0.7025;1.5897;
378.0000;0.7009;1.5920;
378.3000;0.6927;1.5662;
378.6000;0.7017;1.5944;
378.9000;0.7025;1.5967;
379.2000;0.7017;1.5944;
379.5000;0.7009;1.5827;
379.8000;0.7000;1.5850;
380.1000;0.7017;1.5967;
380.4000;0.6992;1.5991;
380.7000;0.7009;1.6108;
381.0000;0.7000;1.6084;
381.3000;0.7017;1.6131;
381.6000;0.7017;1.6155;
381.9000;0.7033;1.6225;
382.2000;0.7033;1.6202;
382.5000;0.7017;1.6178;
382.8000;0.7033;1.6225;
383.1000;0.7009;1.6202;
383.4000;0.7000;1.6155;
383.7000;0.7025;1.6178;
384.0000;0.7000;1.6131;
384.3000;0.7017;1.6108;
384.6000;0.7009;1.6178;
384.9000;0.6992;1.6155;
385.2000;0.6984;1.6131;
385.5000;0.6992;1.6131;
385.8000;0.7009;1.6249;
386.1000;0.7017;1.6225;
386.4000;0.7009;1.6108;
386.7000;0.7017;1.6272;
387.0000;0.7017;1.6295;
387.3000;0.7033;1.6366;
387.6000;0.7017;1.6366;
387.9000;0.7025;1.6295;
388.2000;0.7009;1.6225;
388.5000;0.7009;1.6202;
388.8000;0.7057;1.6202;
389.1000;0.7000;1.5991;
389.4000;0.6992;1.5991;
389.7000;0.7033;1.6038;
390.0000;0.6992;1.6061;
390.3000;0.6935;1.5944;
390.6000;0.7033;1.6178;
390.9000;0.7009;1.6178;
391.2000;0.6992;1.6178;
391.5000;0.7009;1.6202;
391.8000;0.7009;1.6202;
392.1000;0.7009;1.6202;
392.4000;0.7009;1.6178;
392.7000;0.7000;1.6108;
393.0000;0.7025;1.6225;
393.3000;0.7025;1.6131;
393.6000;0.7033;1.6155;
393.9000;0.6992;1.6131;
394.2000;0.6992;1.6061;
394.5000;0.7025;1.6108;
394.8000;0.7066;1.6202;
395.1000;0.7025;1.6131;
395.4000;0.7025;1.6225;
395.7000;0.7025;1.6225;
396.0000;0.6992;1.6131;
396.3000;0.7017;1.6178;
396.6000;0.7000;1.6272;
396.9000;0.6992;1.6249;
397.2000;0.7009;1.6202;
397.5000;0.7025;1.6178;
397.8000;0.7017;1.6061;
398.1000;0.7017;1.6014;
398.4000;0.7025;1.6061;
398.7000;0.7025;1.6061;
399.0000;0.7000;1.6038;
399.3000;0.7009;1.6155;
399.6000;0.6968;1.5897;
399.9000;0.6943;1.5967;
400.2000;0.7009;1.6155;
400.5000;0.7009;1.6202;
400.8000;0.7017;1.6108;
401.1000;0.7000;1.6061;
401.4000;0.7033;1.6131;
401.7000;0.7000;1.6038;
402.0000;0.7017;1.6038;
402.3000;0.7025;1.6061;
402.6000;0.7025;1.6014;
402.9000;0.7009;1.6014;
403.2000;0.6992;1.5967;
403.5000;0.7017;1.5967;
403.8000;0.7025;1.5873;
404.1000;0.7017;1.5991;
404.4000;0.7009;1.5991;
404.7000;0.7025;1.6061;
405.0000;0.7025;1.6178;
405.3000;0.7000;1.6108;
405.6000;0.6927;1.5756;
405.9000;0.7025;1.6038;
406.2000;0.7017;1.6014;
406.5000;0.7041;1.6108;
406.8000;0.6968;1.6038;
407.1000;0.7000;1.6108;
407.4000;0.7017;1.6272;
407.7000;0.7009;1.6249;
408.0000;0.7017;1.6319;
408.3000;0.7082;1.6507;
408.6000;0.7033;1.6342;
408.9000;0.6968;1.6178;
409.2000;0.7074;1.6436;
409.5000;0.6984;1.6131;
409.8000;0.6984;1.6155;
410.1000;0.7025;1.6272;
410.4000;0.7017;1.6202;
410.7000;0.6960;1.6155;
411.0000;0.7000;1.6225;
411.3000;0.7033;1.6342;
411.6000;0.7017;1.6389;
411.9000;0.7025;1.6342;
412.2000;0.7017;1.6389;
412.5000;0.7009;1.6342;
412.8000;0.6992;1.6225;
413.1000;0.7000;1.6225;
413.4000;0.7017;1.6225;
413.7000;0.7033;1.6272;
414.0000;0.7000;1.6202;
414.3000;0.7000;1.6319;
414.6000;0.7009;1.6342;
414.9000;0.7025;1.6366;
415.2000;0.7025;1.6272;
415.5000;0.6968;1.6178;
415.8000;0.7009;1.6272;
416.1000;0.7017;1.6272;
416.4000;0.7033;1.6225;
416.7000;0.7025;1.6131;
417.0000;0.6984;1.5920;
417.3000;0.7017;1.5897;
417.6000;0.7000;1.5967;
417.9000;0.7066;1.6155;
418.2000;0.7017;1.5991;
418.5000;0.7000;1.6014;
418.8000;0.7009;1.6084;
419.1000;0.7017;1.6108;
419.4000;0.7017;1.6108;
419.7000;0.7017;1.6038;
420.0000;0.7000;1.6038;
420.3000;0.6919;1.5827;
420.6000;0.7009;1.6131;
420.9000;0.7025;1.6108;
421.2000;0.7025;1.6108;
421.5000;0.7009;1.6084;
421.8000;0.7041;1.6155;
422.1000;0.7017;1.6108;
422.4000;0.7025;1.6131;
422.7000;0.7025;1.6108;
423.0000;0.7025;1.6131;
423.3000;0.7025;1.6178;
423.6000;0.7025;1.6155;
423.9000;0.7017;1.6225;
424.2000;0.7017;1.6272;
424.5000;0.7033;1.6249;
424.8000;0.7009;1.6272;
425.1000;0.7025;1.6272;
425.4000;0.7025;1.6249;
425.7000;0.7025;1.6155;
426.0000;0.7017;1.6108;
426.3000;0.7041;1.6155;
426.6000;0.7041;1.6178;
426.9000;0.7025;1.6131;
427.2000;0.7049;1.6225;
427.5000;0.7009;1.6108;
427.8000;0.7017;1.6178;
428.1000;0.7025;1.6225;
428.4000;0.7025;1.6295;
428.7000;0.6935;1.6108;
429.0000;0.6992;1.6366;
429.3000;0.7000;1.6225;
429.6000;0.7033;1.6202;
429.9000;0.7009;1.6155;
430.2000;0.7009;1.6108;
430.5000;0.7017;1.6084;
430.8000;0.7017;1.6084;
431.1000;0.7017;1.6131;
431.4000;0.6992;1.6108;
431.7000;0.7049;1.6249;
432.0000;0.6984;1.6131;
432.3000;0.7000;1.6084;
432.6000;0.7033;1.6131;
432.9000;0.7017;1.6178;
433.2000;0.6968;1.6084;
433.5000;0.6960;1.6084;
433.8000;0.7025;1.6225;
434.1000;0.7025;1.6155;
434.4000;0.7009;1.6131;
434.7000;0.7033;1.6295;
435.0000;0.7017;1.6272;
435.3000;0.7074;1.6507;
435.6000;0.7025;1.6295;
435.9000;0.7009;1.6272;
436.2000;0.7017;1.6272;
436.5000;0.7017;1.6178;
436.8000;0.7017;1.6155;
437.1000;0.7017;1.6131;
437.4000;0.6968;1.5991;
437.7000;0.6992;1.6084;
438.0000;0.7017;1.6061;
438.3000;0.7009;1.6038;
438.6000;0.7033;1.6014;
438.9000;0.7009;1.5944;
439.2000;0.7025;1.6061;
439.5000;0.7025;1.6038;
439.8000;0.7017;1.5967;
440.1000;0.7000;1.5967;
440.4000;0.6984;1.5944;
440.7000;0.6992;1.5944;
441.0000;0.6984;1.5920;
441.3000;0.6992;1.5967;
441.6000;0.7000;1.6084;
441.9000;0.7009;1.6131;
442.2000;0.7025;1.6202;
442.5000;0.7033;1.6202;
442.8000;0.7009;1.6084;
443.1000;0.7000;1.6038;
443.4000;0.7017;1.5991;
443.7000;0.7009;1.6084;
444.0000;0.7017;1.6108;
444.3000;0.7017;1.6131;
444.6000;0.7033;1.6249;
444.9000;0.7009;1.6202;
445.2000;0.7009;1.6249;
445.5000;0.7009;1.6225;
445.8000;0.7074;1.6413;
446.1000;0.7025;1.6225;
446.4000;0.6984;1.6155;
446.7000;0.7009;1.6178;
447.0000;0.7009;1.6155;
447.3000;0.7033;1.6155;
447.6000;0.7025;1.6131;
447.9000;0.7009;1.6108;
448.2000;0.7009;1.6061;
448.5000;0.7049;1.6178;
448.8000;0.7033;1.6155;
449.1000;0.7000;1.6202;
449.4000;0.6984;1.6131;
449.7000;0.7009;1.6178;
450.0000;0.7025;1.6319;
450.3000;0.7009;1.6319;
450.6000;0.7025;1.6249;
450.9000;0.7009;1.6202;
451.2000;0.6960;1.6061;
451.5000;0.7017;1.6178;
451.8000;0.6992;1.6155;
452.1000;0.6943;1.5967;
452.4000;0.6976;1.6061;
452.7000;0.7017;1.6061;
453.0000;0.7009;1.5920;
453.3000;0.7033;1.5944;
453.6000;0.7009;1.5944;
453.9000;0.7025;1.5944;
454.2000;0.7000;1.5780;
454.5000;0.7033;1.5873;
454.8000;0.7041;1.5850;
455.1000;0.7025;1.5803;
455.4000;0.7017;1.5780;
455.7000;0.7000;1.5827;
456.0000;0.7033;1.5991;
456.3000;0.7017;1.6014;
456.6000;0.6992;1.5991;
456.9000;0.7009;1.6014;
457.2000;0.7009;1.5967;
457.5000;0.7041;1.6014;
457.8000;0.7017;1.6038;
458.1000;0.7033;1.6061;
458.4000;0.7017;1.6061;
458.7000;0.7033;1.6108;
459.0000;0.7025;1.6084;
459.3000;0.7017;1.6038;
459.6000;0.7000;1.6014;
459.9000;0.7009;1.5967;
460.2000;0.7009;1.5897;
460.5000;0.7000;1.5850;
460.8000;0.7009;1.5873;
461.1000;0.7041;1.5991;
461.4000;0.7000;1.5991;
461.7000;0.7000;1.5850;
462.0000;0.7009;1.5850;
462.3000;0.6976;1.5873;
462.6000;0.7009;1.6014;
462.9000;0.7000;1.6038;
463.2000;0.7000;1.5991;
463.5000;0.7000;1.6108;
463.8000;0.7025;1.6155;
464.1000;0.7017;1.6084;
464.4000;0.7009;1.6108;
464.7000;0.7017;1.6061;
465.0000;0.7025;1.6155;
465.3000;0.7009;1.6155;
465.6000;0.6992;1.5991;
465.9000;0.7017;1.6014;
466.2000;0.6984;1.5991;
466.5000;0.7025;1.6108;
466.8000;0.7033;1.6108;
467.1000;0.7009;1.6108;
467.4000;0.7009;1.6155;
467.7000;0.7025;1.6202;
468.0000;0.7057;1.6295;
468.3000;0.7041;1.6249;
468.6000;0.7000;1.6155;
468.9000;0.7098;1.6413;
469.2000;0.7033;1.6131;
469.5000;0.7000;1.6038;
469.8000;0.7025;1.6084;
470.1000;0.7017;1.6084;
470.4000;0.7000;1.6038;
470.7000;0.7025;1.6108;
471.0000;0.7000;1.6178;
471.3000;0.7009;1.6155;
471.6000;0.7009;1.6155;
471.9000;0.7017;1.6131;
472.2000;0.7017;1.6108;
472.5000;0.7009;1.6038;
472.8000;0.7017;1.5991;
473.1000;0.7017;1.6014;
473.4000;0.7009;1.5991;
473.7000;0.7009;1.5920;
474.0000;0.7009;1.5897;
474.3000;0.7049;1.5967;
474.6000;0.7009;1.5780;
474.9000;0.6992;1.5827;
475.2000;0.6992;1.5873;
475.5000;0.7025;1.5920;
475.8000;0.6992;1.5873;
476.1000;0.7082;1.6014;
476.4000;0.7009;1.5920;
476.7000;0.7009;1.5850;
477.0000;0.7025;1.6014;
477.3000;0.6960;1.5873;
477.6000;0.7017;1.5991;
477.9000;0.7033;1.5967;
478.2000;0.7057;1.6014;
478.5000;0.7017;1.5920;
478.8000;0.7000;1.5920;
479.1000;0.7009;1.5920;
479.4000;0.7033;1.5944;
479.7000;0.7033;1.5920;
480.0000;0.7196;1.6225;
480.3000;0.7009;1.5850;
480.6000;0.6968;1.5733;
480.9000;0.7025;1.5873;
481.2000;0.7009;1.5780;
481.5000;0.7009;1.5780;
481.8000;0.7009;1.5803;
482.1000;0.7017;1.5897;
482.4000;0.7066;1.6014;
482.7000;0.7025;1.5944;
483.0000;0.7000;1.6038;
483.3000;0.7041;1.6155;
483.6000;0.6992;1.5991;
483.9000;0.7025;1.6014;
484.2000;0.6992;1.6014;
484.5000;0.7017;1.6084;
484.8000;0.7017;1.6084;
485.1000;0.6943;1.5897;
485.4000;0.6984;1.6038;
485.7000;0.7009;1.6084;
486.0000;0.7017;1.6038;
486.3000;0.7033;1.6061;
486.6000;0.7009;1.5944;
486.9000;0.7025;1.6108;
487.2000;0.6992;1.6108;
487.5000;0.7000;1.6178;
487.8000;0.7017;1.6038;
488.1000;0.7017;1.5944;
488.4000;0.7017;1.5920;
488.7000;0.7017;1.5991;
489.0000;0.7009;1.6014;
489.3000;0.7000;1.5967;
489.6000;0.7025;1.5967;
489.9000;0.7017;1.5944;
490.2000;0.7017;1.5897;
490.5000;0.7033;1.5991;
490.8000;0.7017;1.5967;
491.1000;0.7017;1.6038;
491.4000;0.7017;1.6014;
491.7000;0.6992;1.5827;
492.0000;0.7033;1.6038;
492.3000;0.7025;1.5944;
492.6000;0.7033;1.5897;
492.9000;0.7000;1.5780;
493.2000;0.6976;1.5662;
493.5000;0.7017;1.5850;
493.8000;0.7000;1.5944;
494.1000;0.6968;1.5897;
494.4000;0.6984;1.5920;
494.7000;0.7000;1.5944;
495.0000;0.7033;1.5967;
495.3000;0.7009;1.5897;
495.6000;0.7009;1.5897;
495.9000;0.7025;1.5944;
496.2000;0.7017;1.5991;
496.5000;0.7000;1.5944;
496.8000;0.6943;1.5756;
497.1000;0.6992;1.5920;
497.4000;0.7041;1.6014;
497.7000;0.7025;1.6014;
498.0000;0.6984;1.6038;
498.3000;0.7017;1.6131;
498.6000;0.7017;1.6131;
498.9000;0.7025;1.6155;
499.2000;0.7017;1.6155;
499.5000;0.7017;1.6225;
499.8000;0.7009;1.6202;
500.1000;0.7009;1.6131;
500.4000;0.7025;1.6155;
500.7000;0.7009;1.6038;
501.0000;0.7017;1.5991;
501.3000;0.7025;1.5967;
501.6000;0.7000;1.5991;
501.9000;0.7025;1.5991;
502.2000;0.7009;1.5920;
502.5000;0.7033;1.6014;
502.8000;0.7025;1.6061;
503.1000;0.7009;1.5944;
503.4000;0.7017;1.5920;
503.7000;0.7017;1.5897;
504.0000;0.7025;1.6014;
504.3000;0.7000;1.5944;
504.6000;0.7017;1.6084;
504.9000;0.7033;1.6061;
505.2000;0.6984;1.5897;
505.5000;0.7009;1.5944;
505.8000;0.7017;1.6014;
506.1000;0.7000;1.6038;
506.4000;0.7017;1.6084;
506.7000;0.7009;1.5991;
507.0000;0.7009;1.5967;
507.3000;0.7000;1.5920;
507.6000;0.7009;1.5991;
507.9000;0.7066;1.6014;
508.2000;0.7017;1.5920;
508.5000;0.7000;1.5873;
508.8000;0.7025;1.5920;
509.1000;0.7033;1.6014;
509.4000;0.7017;1.5991;
509.7000;0.7009;1.5967;
510.0000;0.7009;1.6038;
510.3000;0.7000;1.5991;
510.6000;0.7009;1.6061;
510.9000;0.7009;1.5967;
511.2000;0.6992;1.5756;
511.5000;0.7033;1.5803;
511.8000;0.7000;1.5780;
512.1000;0.7017;1.5944;
512.4000;0.7000;1.5967;
512.7000;0.7025;1.6084;
513.0000;0.6960;1.5920;
513.3000;0.7017;1.6108;
513.6000;0.7025;1.6178;
513.9000;0.7009;1.6178;
514.2000;0.7000;1.6131;
514.5000;0.7017;1.6108;
514.8000;0.7009;1.6014;
515.1000;0.7000;1.6038;
515.4000;0.7033;1.6038;
515.7000;0.7033;1.6038;
516.0000;0.7000;1.5967;
516.3000;0.7000;1.6014;
516.6000;0.7000;1.6131;
516.9000;0.7017;1.6131;
517.2000;0.7033;1.6178;
517.5000;0.7025;1.6108;
517.8000;0.6895;1.5827;
518.1000;0.7009;1.6084;
518.4000;0.7041;1.6155;
518.7000;0.7000;1.6084;
519.0000;0.7017;1.6108;
519.3000;0.7025;1.6108;
519.6000;0.6984;1.6038;
519.9000;0.7025;1.6108;
520.2000;0.6976;1.6061;
520.5000;0.7033;1.6202;
520.8000;0.7017;1.6225;
521.1000;0.7025;1.6272;
521.4000;0.7033;1.6155;
521.7000;0.6968;1.5897;
522.0000;0.7041;1.5991;
522.3000;0.7041;1.5920;
522.6000;0.6984;1.5827;
522.9000;0.7025;1.5850;
523.2000;0.7074;1.6061;
523.5000;0.7025;1.5967;
523.8000;0.7009;1.6014;
524.1000;0.7000;1.5967;
524.4000;0.7000;1.5991;
524.7000;0.7017;1.6061;
525.0000;0.6992;1.6014;
525.3000;0.7033;1.6084;
525.6000;0.7009;1.6038;
525.9000;0.7017;1.5967;
526.2000;0.7017;1.5944;
526.5000;0.6976;1.5944;
526.8000;0.7009;1.5991;
527.1000;0.7000;1.6038;
527.4000;0.7009;1.5967;
527.7000;0.7025;1.5897;
528.0000;0.7009;1.5803;
528.3000;0.7033;1.5850;
528.6000;0.7009;1.5827;
528.9000;0.7017;1.5850;
529.2000;0.7033;1.5897;
529.5000;0.7049;1.5780;
529.8000;0.6952;1.5522;
530.1000;0.7025;1.5827;
530.4000;0.7025;1.5827;
530.7000;0.7033;1.5850;
531.0000;0.7033;1.5920;
531.3000;0.7009;1.5850;
531.6000;0.7025;1.5803;
531.9000;0.7000;1.5733;
532.2000;0.7033;1.5756;
532.5000;0.7025;1.5756;
532.8000;0.7009;1.5780;
533.1000;0.7009;1.5780;
533.4000;0.6976;1.5827;
533.7000;0.7017;1.5991;
534.0000;0.7000;1.5991;
534.3000;0.7009;1.5897;
534.6000;0.7017;1.5920;
534.9000;0.7000;1.5873;
535.2000;0.7000;1.5967;
535.5000;0.7009;1.5991;
535.8000;0.6992;1.5944;
536.1000;0.7000;1.6014;
536.4000;0.7009;1.6038;
536.7000;0.7000;1.6061;
537.0000;0.7009;1.6061;
537.3000;0.7009;1.6038;
537.6000;0.7009;1.5967;
537.9000;0.7009;1.5920;
538.2000;0.6976;1.5850;
538.5000;0.7025;1.5967;
538.8000;0.6992;1.5920;
539.1000;0.7066;1.6108;
539.4000;0.7017;1.5967;
539.7000;0.7017;1.5897;
540.0000;0.7009;1.5873;
540.3000;0.7009;1.5850;
540.6000;0.6984;1.5850;
540.9000;0.7017;1.5991;
541.2000;0.7009;1.5967;
541.5000;0.7009;1.5920;
541.8000;0.7000;1.5827;
542.1000;0.7009;1.5756;
542.4000;0.7017;1.5827;
542.7000;0.6984;1.5780;
543.0000;0.7000;1.5803;
543.3000;0.6992;1.5756;
543.6000;0.7033;1.5873;
543.9000;0.7017;1.5803;
544.2000;0.6984;1.5709;
544.5000;0.7009;1.5733;
544.8000;0.7009;1.5733;
545.1000;0.7025;1.5756;
545.4000;0.7009;1.5733;
545.7000;0.7025;1.5827;
546.0000;0.7009;1.5850;
546.3000;0.6992;1.5850;
546.6000;0.7025;1.5897;
546.9000;0.7009;1.5897;
547.2000;0.6927;1.5616;
547.5000;0.7009;1.5780;
547.8000;0.7017;1.5662;
548.1000;0.7009;1.5639;
548.4000;0.7074;1.5873;
548.7000;0.6992;1.5662;
549.0000;0.7049;1.5803;
549.3000;0.7009;1.5733;
549.6000;0.7025;1.5827;
549.9000;0.7017;1.5827;
550.2000;0.7033;1.5850;
550.5000;0.6960;1.5662;
550.8000;0.7025;1.5873;
551.1000;0.7000;1.5827;
551.4000;0.7025;1.5873;
551.7000;0.6992;1.5827;
552.0000;0.7025;1.5827;
552.3000;0.7017;1.5827;
552.6000;0.7066;1.5897;
552.9000;0.7025;1.5827;
553.2000;0.7033;1.5897;
553.5000;0.7000;1.5873;
553.8000;0.7009;1.5827;
554.1000;0.7009;1.5803;
554.4000;0.7074;1.5991;
554.7000;0.7009;1.5850;
555.0000;0.7017;1.5897;
555.3000;0.7090;1.6084;
555.6000;0.7025;1.5991;
555.9000;0.7017;1.5944;
556.2000;0.7025;1.5920;
556.5000;0.7009;1.5944;
556.8000;0.7033;1.5897;
557.1000;0.6895;1.5592;
557.4000;0.7000;1.5873;
557.7000;0.7000;1.5850;
558.0000;0.7025;1.5827;
558.3000;0.6960;1.5686;
558.6000;0.6992;1.5733;
558.9000;0.7009;1.5850;
559.2000;0.7033;1.5920;
559.5000;0.7009;1.5897;
559.8000;0.7000;1.5873;
560.1000;0.7025;1.5920;
560.4000;0.7017;1.5944;
560.7000;0.7017;1.5944;
561.0000;0.7025;1.5920;
561.3000;0.7025;1.5920;
561.6000;0.7025;1.5944;
561.9000;0.7025;1.5920;
562.2000;0.7000;1.5780;
562.5000;0.7017;1.5756;
562.8000;0.7009;1.5756;
563.1000;0.7000;1.5803;
563.4000;0.7017;1.5850;
563.7000;0.7057;1.6014;
564.0000;0.6992;1.5850;
564.3000;0.6976;1.5920;
564.6000;0.7017;1.6014;
564.9000;0.6992;1.5944;
565.2000;0.7000;1.5897;
565.5000;0.6992;1.5944;
565.8000;0.7000;1.5944;
566.1000;0.7009;1.5944;
566.4000;0.6992;1.5944;
566.7000;0.7017;1.5873;
567.0000;0.7025;1.5967;
567.3000;0.7025;1.5991;
567.6000;0.7009;1.5920;
567.9000;0.7009;1.5897;
568.2000;0.7074;1.5944;
568.5000;0.7000;1.5780;
568.8000;0.7017;1.5803;
569.1000;0.7009;1.5827;
569.4000;0.7009;1.5780;
569.7000;0.7017;1.5686;
570.0000;0.7017;1.5803;
570.3000;0.7000;1.5850;
570.6000;0.7009;1.5827;
570.9000;0.7000;1.5780;
571.2000;0.6878;1.5522;
571.5000;0.7017;1.5850;
571.8000;0.7000;1.5920;
572.1000;0.7000;1.5991;
572.4000;0.7009;1.6014;
572.7000;0.7017;1.6014;
573.0000;0.7009;1.6108;
573.3000;0.7009;1.6155;
573.6000;0.7009;1.6178;
573.9000;0.7025;1.6202;
574.2000;0.7009;1.6084;
574.5000;0.7017;1.6178;
574.8000;0.7041;1.6178;
575.1000;0.7009;1.6155;
575.4000;0.7017;1.6155;
575.7000;0.7009;1.6131;
576.0000;0.7017;1.6108;
576.3000;0.7131;1.6366;
576.6000;0.7000;1.6014;
576.9000;0.7025;1.5967;
577.2000;0.7017;1.6014;
577.5000;0.7033;1.6084;
577.8000;0.7017;1.6038;
578.1000;0.7000;1.6131;
578.4000;0.7082;1.6342;
578.7000;0.7009;1.5944;
579.0000;0.7033;1.5967;
579.3000;0.7017;1.6038;
579.6000;0.7009;1.6084;
579.9000;0.7025;1.6061;
580.2000;0.7025;1.6131;
580.5000;0.7009;1.5991;
580.8000;0.7017;1.6014;
581.1000;0.7025;1.6038;
581.4000;0.7049;1.6131;
581.7000;0.7025;1.6038;
582.0000;0.7033;1.5991;
582.3000;0.7009;1.6014;
582.6000;0.7009;1.5991;
582.9000;0.7017;1.6061;
583.2000;0.7049;1.6202;
583.5000;0.7009;1.6131;
583.8000;0.6992;1.6061;
584.1000;0.7033;1.6155;
584.4000;0.6984;1.6014;
584.7000;0.6984;1.5944;
585.0000;0.7017;1.6014;
585.3000;0.7000;1.6014;
585.6000;0.7009;1.6038;
585.9000;0.7000;1.5991;
586.2000;0.7000;1.6014;
586.5000;0.7017;1.5920;
586.8000;0.7009;1.5873;
587.1000;0.7000;1.5920;
587.4000;0.7033;1.6084;
587.7000;0.6992;1.6084;
588.0000;0.6968;1.5944;
588.3000;0.7017;1.6202;
588.6000;0.7057;1.6272;
588.9000;0.7017;1.6178;
589.2000;0.7041;1.6178;
589.5000;0.7000;1.6084;
589.8000;0.7009;1.6155;
590.1000;0.7009;1.6108;
590.4000;0.6984;1.6084;
590.7000;0.7000;1.6202;
591.0000;0.6984;1.6155;
591.3000;0.7009;1.6178;
591.6000;0.7009;1.6178;
591.9000;0.6984;1.6155;
592.2000;0.7000;1.6108;
592.5000;0.7000;1.6038;
592.8000;0.7009;1.6061;
593.1000;0.7009;1.6061;
593.4000;0.7033;1.6061;
593.7000;0.7017;1.6061;
594.0000;0.7017;1.5967;
594.3000;0.7000;1.5897;
594.6000;0.7017;1.5897;
594.9000;0.7000;1.5944;
595.2000;0.6976;1.5944;
595.5000;0.6952;1.5920;
595.8000;0.7017;1.6038;
596.1000;0.7000;1.6038;
596.4000;0.7000;1.6038;
596.7000;0.6992;1.6084;
597.0000;0.7009;1.6061;
597.3000;0.6992;1.6038;
597.6000;0.7000;1.5967;
597.9000;0.7000;1.5897;
598.2000;0.7000;1.5920;
598.5000;0.7017;1.6014;
598.8000;0.7057;1.6084;
599.1000;0.7147;1.6295;
599.4000;0.7025;1.5850;
599.7000;0.6992;1.5756;
600.0000;0.6927;1.5686;
600.3000;0.7025;1.5709;
600.6000;0.7041;1.5569;
600.9000;0.7009;1.5334;
601.2000;0.6984;1.5240;
601.5000;0.6903;1.5029;
601.8000;0.6911;1.5006;
602.1000;0.6862;1.4771;
602.4000;0.6797;1.4514;
602.7000;0.6756;1.4373;
603.0000;0.6732;1.4326;
603.3000;0.6699;1.4185;
603.6000;0.6659;1.4092;
603.9000;0.6610;1.3927;
604.2000;0.6577;1.3880;
604.5000;0.6553;1.3810;
604.8000;0.6520;1.3810;
605.1000;0.6479;1.3763;
605.4000;0.6447;1.3716;
605.7000;0.6422;1.3623;
606.0000;0.6390;1.3552;
606.3000;0.6422;1.3669;
606.6000;0.6333;1.3458;
606.9000;0.6300;1.3412;
607.2000;0.6276;1.3412;
607.5000;0.6243;1.3318;
607.8000;0.6260;1.3458;
608.1000;0.6211;1.3318;
608.4000;0.6186;1.3318;
608.7000;0.6170;1.3318;
609.0000;0.6138;1.3341;
609.3000;0.6121;1.3294;
609.6000;0.6113;1.3271;
609.9000;0.6097;1.3224;
610.2000;0.6064;1.3201;
610.5000;0.6056;1.3177;
610.8000;0.6032;1.3177;
611.1000;0.6048;1.3341;
611.4000;0.5999;1.3224;
611.7000;0.5902;1.3060;
612.0000;0.5958;1.3224;
612.3000;0.5950;1.3271;
612.6000;0.5893;1.3130;
612.9000;0.5853;1.3107;
613.2000;0.5861;1.3107;
613.5000;0.5869;1.3130;
613.8000;0.5869;1.3154;
614.1000;0.5853;1.3177;
614.4000;0.5804;1.3154;
614.7000;0.5812;1.3201;
615.0000;0.5820;1.3154;
615.3000;0.5788;1.3177;
615.6000;0.5755;1.3060;
615.9000;0.5731;1.3060;
616.2000;0.5690;1.2990;
616.5000;0.5698;1.3107;
616.8000;0.5657;1.3013;
617.1000;0.5698;1.3154;
617.4000;0.5682;1.3083;
617.7000;0.5698;1.3130;
618.0000;0.5657;1.2966;
618.3000;0.5600;1.2849;
618.6000;0.5625;1.2872;
618.9000;0.5617;1.2802;
619.2000;0.5763;1.3177;
619.5000;0.5551;1.2849;
619.8000;0.5584;1.2943;
620.1000;0.5568;1.2919;
620.4000;0.5511;1.2778;
620.7000;0.5592;1.3060;
621.0000;0.5511;1.2849;
621.3000;0.5478;1.2825;
621.6000;0.5511;1.2872;
621.9000;0.5478;1.2943;
622.2000;0.5470;1.2896;
622.5000;0.5462;1.2943;
622.8000;0.5462;1.3036;
623.1000;0.5438;1.2919;
623.4000;0.5543;1.3271;
623.7000;0.5454;1.3013;
624.0000;0.5413;1.2990;
624.3000;0.5413;1.3013;
624.6000;0.5389;1.2872;
624.9000;0.5372;1.2802;
625.2000;0.5381;1.2755;
625.5000;0.5381;1.2685;
625.8000;0.5364;1.2708;
626.1000;0.5332;1.2685;
626.4000;0.5348;1.2849;
626.7000;0.5332;1.2849;
627.0000;0.5275;1.2778;
627.3000;0.5299;1.2849;
627.6000;0.5324;1.2966;
627.9000;0.5299;1.2990;
628.2000;0.5267;1.2990;
628.5000;0.5275;1.2896;
628.8000;0.5267;1.2896;
629.1000;0.5267;1.2919;
629.4000;0.5267;1.2825;
629.7000;0.5234;1.2708;
630.0000;0.5226;1.2685;
630.3000;0.5218;1.2685;
630.6000;0.5193;1.2685;
630.9000;0.5210;1.2755;
631.2000;0.5201;1.2778;
631.5000;0.5210;1.2849;
631.8000;0.5283;1.2943;
632.1000;0.5185;1.2802;
632.4000;0.5169;1.2872;
632.7000;0.5201;1.2896;
633.0000;0.5177;1.2778;
633.3000;0.5144;1.2638;
633.6000;0.5169;1.2708;
633.9000;0.5169;1.2708;
634.2000;0.5153;1.2755;
634.5000;0.5128;1.2638;
634.8000;0.5128;1.2591;
635.1000;0.5136;1.2638;
635.4000;0.5120;1.2685;
635.7000;0.5128;1.2708;
636.0000;0.5112;1.2638;
636.3000;0.5096;1.2614;
636.6000;0.5104;1.2685;
636.9000;0.5136;1.2732;
637.2000;0.5104;1.2661;
637.5000;0.5079;1.2544;
637.8000;0.5055;1.2591;
638.1000;0.5055;1.2638;
638.4000;0.5039;1.2638;
638.7000;0.5047;1.2614;
639.0000;0.5063;1.2685;
639.3000;0.5039;1.2685;
639.6000;0.5031;1.2708;
639.9000;0.5022;1.2755;
640.2000;0.5047;1.2802;
640.5000;0.5039;1.2732;
640.8000;0.5014;1.2638;
641.1000;0.4998;1.2638;
641.4000;0.5006;1.2638;
641.7000;0.4982;1.2685;
642.0000;0.4990;1.2755;
642.3000;0.4990;1.2755;
642.6000;0.4965;1.2708;
642.9000;0.4957;1.2614;
643.2000;0.4982;1.2661;
643.5000;0.4965;1.2685;
643.8000;0.5006;1.2755;
644.1000;0.4925;1.2614;
644.4000;0.4965;1.2661;
644.7000;0.4925;1.2661;
645.0000;0.4908;1.2732;
645.3000;0.4933;1.2614;
645.6000;0.4933;1.2567;
645.9000;0.4925;1.2567;
646.2000;0.4925;1.2521;
646.5000;0.4892;1.2450;
646.8000;0.4917;1.2497;
647.1000;0.4925;1.2614;
647.4000;0.4876;1.2474;
647.7000;0.4917;1.2591;
648.0000;0.4925;1.2591;
648.3000;0.4933;1.2638;
648.6000;0.4900;1.2685;
648.9000;0.4843;1.2638;
649.2000;0.4884;1.2802;
649.5000;0.4925;1.2896;
649.8000;0.4876;1.2778;
650.1000;0.4860;1.2778;
650.4000;0.4884;1.2802;
650.7000;0.4851;1.2708;
651.0000;0.4908;1.2732;
651.3000;0.4965;1.2896;
651.6000;0.4843;1.2591;
651.9000;0.4851;1.2521;
652.2000;0.4835;1.2497;
652.5000;0.4843;1.2567;
652.8000;0.4819;1.2521;
653.1000;0.4835;1.2567;
653.4000;0.4851;1.2567;
653.7000;0.4811;1.2427;
654.0000;0.4827;1.2427;
654.3000;0.4827;1.2497;
654.6000;0.4827;1.2450;
654.9000;0.4827;1.2474;
655.2000;0.4851;1.2567;
655.5000;0.4819;1.2450;
655.8000;0.4811;1.2450;
656.1000;0.4786;1.2450;
656.4000;0.4811;1.2544;
656.7000;0.4770;1.2497;
657.0000;0.4794;1.2567;
657.3000;0.4794;1.2450;
657.6000;0.4811;1.2450;
657.9000;0.4786;1.2497;
658.2000;0.4794;1.2497;
658.5000;0.4778;1.2638;
658.8000;0.4794;1.2638;
659.1000;0.4786;1.2638;
659.4000;0.4778;1.2685;
659.7000;0.4770;1.2778;
660.0000;0.4770;1.2732;
660.3000;0.4754;1.2614;
660.6000;0.4762;1.2614;
660.9000;0.4762;1.2614;
661.2000;0.4778;1.2638;
661.5000;0.4746;1.2567;
661.8000;0.4762;1.2708;
662.1000;0.4754;1.2661;
662.4000;0.4770;1.2708;
662.7000;0.4746;1.2732;
663.0000;0.4737;1.2802;
663.3000;0.4746;1.2825;
663.6000;0.4746;1.2778;
663.9000;0.4737;1.2802;
664.2000;0.4746;1.2872;
664.5000;0.4737;1.2825;
664.8000;0.4729;1.2708;
665.1000;0.4729;1.2778;
665.4000;0.4737;1.2755;
665.7000;0.4705;1.2638;
666.0000;0.4697;1.2638;
666.3000;0.4697;1.2567;
666.6000;0.4705;1.2614;
666.9000;0.4713;1.2591;
667.2000;0.4705;1.2567;
667.5000;0.4705;1.2497;
667.8000;0.4705;1.2591;
668.1000;0.4697;1.2544;
668.4000;0.4697;1.2614;
668.7000;0.4697;1.2661;
669.0000;0.4697;1.2638;
669.3000;0.4697;1.2661;
669.6000;0.4689;1.2755;
669.9000;0.4689;1.2755;
670.2000;0.4689;1.2802;
670.5000;0.4737;1.2849;
670.8000;0.4681;1.2708;
671.1000;0.4656;1.2661;
671.4000;0.4672;1.2685;
671.7000;0.4672;1.2614;
672.0000;0.4681;1.2497;
672.3000;0.4599;1.2356;
672.6000;0.4672;1.2521;
672.9000;0.4681;1.2544;
673.2000;0.4672;1.2427;
673.5000;0.4615;1.2333;
673.8000;0.4664;1.2567;
674.1000;0.4681;1.2661;
674.4000;0.4656;1.2685;
674.7000;0.4648;1.2708;
675.0000;0.4648;1.2732;
675.3000;0.4640;1.2732;
675.6000;0.4640;1.2685;
675.9000;0.4640;1.2638;
676.2000;0.4632;1.2591;
676.5000;0.4640;1.2638;
676.8000;0.4656;1.2614;
677.1000;0.4648;1.2614;
677.4000;0.4632;1.2591;
677.7000;0.4624;1.2661;
678.0000;0.4640;1.2778;
678.3000;0.4640;1.2732;
678.6000;0.4656;1.2802;
678.9000;0.4648;1.2825;
679.2000;0.4648;1.2825;
679.5000;0.4607;1.2732;
679.8000;0.4656;1.2849;
680.1000;0.4697;1.2919;
680.4000;0.4624;1.2708;
680.7000;0.4632;1.2732;
681.0000;0.4615;1.2661;
681.3000;0.4615;1.2638;
681.6000;0.4567;1.2521;
681.9000;0.4632;1.2661;
682.2000;0.4607;1.2591;
682.5000;0.4607;1.2567;
682.8000;0.4599;1.2591;
683.1000;0.4624;1.2685;
683.4000;0.4615;1.2591;
683.7000;0.4607;1.2614;
684.0000;0.4615;1.2614;
684.3000;0.4624;1.2591;
684.6000;0.4607;1.2567;
684.9000;0.4632;1.2614;
685.2000;0.4607;1.2544;
685.5000;0.4624;1.2661;
685.8000;0.4607;1.2661;
686.1000;0.4607;1.2661;
686.4000;0.4607;1.2661;
686.7000;0.4607;1.2661;
687.0000;0.4599;1.2638;
687.3000;0.4591;1.2638;
687.6000;0.4591;1.2567;
687.9000;0.4599;1.2614;
688.2000;0.4615;1.2614;
688.5000;0.4575;1.2474;
688.8000;0.4607;1.2661;
689.1000;0.4583;1.2638;
689.4000;0.4607;1.2685;
689.7000;0.4591;1.2614;
690.0000;0.4591;1.2638;
690.3000;0.4583;1.2708;
690.6000;0.4591;1.2732;
690.9000;0.4591;1.2661;
691.2000;0.4583;1.2638;
691.5000;0.4591;1.2544;
691.8000;0.4615;1.2685;
692.1000;0.4599;1.2614;
692.4000;0.4558;1.2544;
692.7000;0.4461;1.2192;
693.0000;0.4583;1.2427;
693.3000;0.4648;1.2591;
693.6000;0.4583;1.2356;
693.9000;0.4575;1.2403;
694.2000;0.4575;1.2333;
694.5000;0.4591;1.2567;
694.8000;0.4575;1.2591;
695.1000;0.4583;1.2497;
695.4000;0.4567;1.2427;
695.7000;0.4583;1.2450;
696.0000;0.4567;1.2497;
696.3000;0.4567;1.2521;
696.6000;0.4575;1.2521;
696.9000;0.4542;1.2521;
697.2000;0.4558;1.2591;
697.5000;0.4534;1.2544;
697.8000;0.4567;1.2591;
698.1000;0.4550;1.2521;
698.4000;0.4567;1.2403;
698.7000;0.4567;1.2333;
699.0000;0.4542;1.2239;
699.3000;0.4542;1.2263;
699.6000;0.4550;1.2356;
699.9000;0.4558;1.2356;
700.2000;0.4567;1.2427;
700.5000;0.4558;1.2427;
700.8000;0.4542;1.2380;
701.1000;0.4567;1.2380;
701.4000;0.4567;1.2380;
701.7000;0.4542;1.2380;
702.0000;0.4558;1.2356;
702.3000;0.4453;1.2099;
702.6000;0.4558;1.2380;
702.9000;0.4542;1.2333;
703.2000;0.4550;1.2310;
703.5000;0.4550;1.2380;
703.8000;0.4550;1.2450;
704.1000;0.4542;1.2356;
704.4000;0.4550;1.2356;
704.7000;0.4542;1.2380;
705.0000;0.4542;1.2544;
705.3000;0.4542;1.2450;
705.6000;0.4534;1.2450;
705.9000;0.4510;1.2333;
706.2000;0.4526;1.2403;
706.5000;0.4550;1.2474;
706.8000;0.4526;1.2521;
707.1000;0.4534;1.2544;
707.4000;0.4542;1.2591;
707.7000;0.4534;1.2544;
708.0000;0.4485;1.2427;
708.3000;0.4501;1.2567;
708.6000;0.4534;1.2685;
708.9000;0.4591;1.2825;
709.2000;0.4518;1.2638;
709.5000;0.4501;1.2567;
709.8000;0.4518;1.2614;
710.1000;0.4518;1.2591;
710.4000;0.4518;1.2591;
710.7000;0.4518;1.2638;
711.0000;0.4518;1.2567;
711.3000;0.4510;1.2497;
711.6000;0.4518;1.2403;
711.9000;0.4501;1.2403;
712.2000;0.4518;1.2544;
712.5000;0.4518;1.2544;
712.8000;0.4518;1.2591;
713.1000;0.4510;1.2474;
713.4000;0.4534;1.2591;
713.7000;0.4510;1.2591;
714.0000;0.4607;1.2896;
714.3000;0.4534;1.2685;
714.6000;0.4591;1.2919;
714.9000;0.4501;1.2614;
715.2000;0.4518;1.2708;
715.5000;0.4518;1.2685;
715.8000;0.4493;1.2614;
716.1000;0.4510;1.2685;
716.4000;0.4526;1.2638;
716.7000;0.4501;1.2544;
717.0000;0.4518;1.2497;
717.3000;0.4501;1.2427;
717.6000;0.4501;1.2403;
717.9000;0.4526;1.2403;
718.2000;0.4510;1.2427;
718.5000;0.4477;1.2474;
718.8000;0.4493;1.2591;
719.1000;0.4493;1.2591;
719.4000;0.4518;1.2661;
719.7000;0.4477;1.2567;
720.0000;0.4510;1.2614;
720.3000;0.4501;1.2638;
720.6000;0.4485;1.2614;
720.9000;0.4493;1.2638;
721.2000;0.4485;1.2591;
721.5000;0.4550;1.2685;
721.8000;0.4485;1.2521;
722.1000;0.4493;1.2614;
722.4000;0.4477;1.2591;
722.7000;0.4526;1.2638;
723.0000;0.4510;1.2661;
723.3000;0.4477;1.2567;
723.6000;0.4501;1.2567;
723.9000;0.4477;1.2567;
724.2000;0.4493;1.2661;
724.5000;0.4493;1.2638;
724.8000;0.4485;1.2685;
725.1000;0.4591;1.2990;
725.4000;0.4493;1.2685;
725.7000;0.4485;1.2661;
726.0000;0.4477;1.2614;
726.3000;0.4510;1.2755;
726.6000;0.4453;1.2661;
726.9000;0.4493;1.2778;
727.2000;0.4461;1.2638;
727.5000;0.4469;1.2638;
727.8000;0.4493;1.2708;
728.1000;0.4485;1.2708;
728.4000;0.4485;1.2708;
728.7000;0.4404;1.2450;
729.0000;0.4485;1.2638;
729.3000;0.4493;1.2661;
729.6000;0.4485;1.2638;
729.9000;0.4477;1.2638;
730.2000;0.4485;1.2732;
730.5000;0.4477;1.2802;
730.8000;0.4485;1.2825;
731.1000;0.4485;1.2872;
731.4000;0.4485;1.2849;
731.7000;0.4477;1.2825;
732.0000;0.4526;1.2802;
732.3000;0.4526;1.2778;
732.6000;0.4485;1.2638;
732.9000;0.4534;1.2685;
733.2000;0.4485;1.2544;
733.5000;0.4477;1.2521;
733.8000;0.4485;1.2591;
734.1000;0.4534;1.2755;
734.4000;0.4501;1.2661;
734.7000;0.4493;1.2614;
735.0000;0.4477;1.2661;
735.3000;0.4469;1.2661;
735.6000;0.4477;1.2708;
735.9000;0.4469;1.2685;
736.2000;0.4396;1.2427;
736.5000;0.4501;1.2591;
736.8000;0.4453;1.2497;
737.1000;0.4485;1.2661;
737.4000;0.4420;1.2544;
737.7000;0.4461;1.2638;
738.0000;0.4453;1.2614;
738.3000;0.4461;1.2591;
738.6000;0.4420;1.2497;
738.9000;0.4485;1.2661;
739.2000;0.4469;1.2685;
739.5000;0.4469;1.2732;
739.8000;0.4477;1.2802;
740.1000;0.4461;1.2802;
740.4000;0.4453;1.2778;
740.7000;0.4453;1.2778;
741.0000;0.4461;1.2802;
741.3000;0.4477;1.2802;
741.6000;0.4453;1.2778;
741.9000;0.4485;1.2849;
742.2000;0.4477;1.2755;
742.5000;0.4510;1.2825;
742.8000;0.4461;1.2732;
743.1000;0.4510;1.2872;
743.4000;0.4469;1.2685;
743.7000;0.4461;1.2661;
744.0000;0.4420;1.2567;
744.3000;0.4461;1.2661;
744.6000;0.4453;1.2685;
744.9000;0.4469;1.2755;
745.2000;0.4469;1.2755;
745.5000;0.4420;1.2661;
745.8000;0.4461;1.2708;
746.1000;0.4461;1.2778;
746.4000;0.4453;1.2802;
746.7000;0.4493;1.2872;
747.0000;0.4444;1.2778;
747.3000;0.4461;1.2755;
747.6000;0.4477;1.2872;
747.9000;0.4412;1.2732;
748.2000;0.4526;1.3060;
748.5000;0.4453;1.2896;
748.8000;0.4453;1.2919;
749.1000;0.4461;1.2849;
749.4000;0.4461;1.2778;
749.7000;0.4477;1.2732;
750.0000;0.4469;1.2755;
750.3000;0.4428;1.2708;
750.6000;0.4510;1.2990;
750.9000;0.4428;1.2778;
751.2000;0.4436;1.2896;
751.5000;0.4453;1.2802;
751.8000;0.4444;1.2755;
752.1000;0.4436;1.2778;
752.4000;0.4444;1.2778;
752.7000;0.4501;1.2919;
753.0000;0.4436;1.2778;
753.3000;0.4436;1.2825;
753.6000;0.4444;1.2755;
753.9000;0.4469;1.2849;
754.2000;0.4477;1.2849;
754.5000;0.4469;1.2825;
754.8000;0.4444;1.2778;
755.1000;0.4453;1.2732;
755.4000;0.4461;1.2685;
755.7000;0.4453;1.2685;
756.0000;0.4461;1.2732;
756.3000;0.4444;1.2802;
756.6000;0.4461;1.2802;
756.9000;0.4444;1.2732;
757.2000;0.4444;1.2685;
757.5000;0.4444;1.2755;
757.8000;0.4477;1.2802;
758.1000;0.4461;1.2755;
758.4000;0.4436;1.2661;
758.7000;0.4461;1.2708;
759.0000;0.4444;1.2638;
759.3000;0.4461;1.2638;
759.6000;0.4428;1.2474;
759.9000;0.4436;1.2544;
760.2000;0.4428;1.2567;
760.5000;0.4510;1.2778;
760.8000;0.4428;1.2591;
761.1000;0.4461;1.2638;
761.4000;0.4428;1.2638;
761.7000;0.4436;1.2685;
762.0000;0.4444;1.2685;
762.3000;0.4444;1.2685;
762.6000;0.4404;1.2638;
762.9000;0.4453;1.2661;
763.2000;0.4444;1.2732;
763.5000;0.4453;1.2685;
763.8000;0.4387;1.2521;
764.1000;0.4444;1.2544;
764.4000;0.4453;1.2591;
764.7000;0.4444;1.2591;
765.0000;0.4428;1.2567;
765.3000;0.4428;1.2544;
765.6000;0.4444;1.2591;
765.9000;0.4444;1.2661;
766.2000;0.4420;1.2567;
766.5000;0.4339;1.2286;
766.8000;0.4461;1.2567;
767.1000;0.4428;1.2427;
767.4000;0.4428;1.2403;
767.7000;0.4436;1.2403;
768.0000;0.4436;1.2403;
768.3000;0.4436;1.2450;
768.6000;0.4436;1.2521;
768.9000;0.4510;1.2732;
769.2000;0.4436;1.2591;
769.5000;0.4453;1.2497;
769.8000;0.4436;1.2427;
770.1000;0.4453;1.2521;
770.4000;0.4444;1.2567;
770.7000;0.4453;1.2614;
771.0000;0.4444;1.2614;
771.3000;0.4412;1.2497;
771.6000;0.4436;1.2661;
771.9000;0.4436;1.2661;
772.2000;0.4347;1.2380;
772.5000;0.4420;1.2567;
772.8000;0.4436;1.2591;
773.1000;0.4436;1.2614;
773.4000;0.4428;1.2497;
773.7000;0.4412;1.2403;
774.0000;0.4428;1.2474;
774.3000;0.4428;1.2544;
774.6000;0.4420;1.2591;
774.9000;0.4444;1.2567;
775.2000;0.4428;1.2544;
775.5000;0.4412;1.2521;
775.8000;0.4428;1.2614;
776.1000;0.4444;1.2614;
776.4000;0.4436;1.2591;
776.7000;0.4428;1.2567;
777.0000;0.4420;1.2685;
777.3000;0.4420;1.2685;
777.6000;0.4404;1.2638;
777.9000;0.4412;1.2591;
778.2000;0.4420;1.2614;
778.5000;0.4436;1.2614;
778.8000;0.4412;1.2567;
779.1000;0.4436;1.2591;
779.4000;0.4428;1.2591;
779.7000;0.4420;1.2661;
780.0000;0.4412;1.2614;
780.3000;0.4420;1.2685;
780.6000;0.4420;1.2661;
780.9000;0.4453;1.2708;
781.2000;0.4436;1.2708;
781.5000;0.4428;1.2638;
781.8000;0.4420;1.2661;
782.1000;0.4420;1.2638;
782.4000;0.4428;1.2661;
782.7000;0.4436;1.2732;
783.0000;0.4412;1.2614;
783.3000;0.4428;1.2544;
783.6000;0.4412;1.2474;
783.9000;0.4420;1.2614;
784.2000;0.4420;1.2638;
784.5000;0.4404;1.2614;
784.8000;0.4420;1.2638;
785.1000;0.4428;1.2614;
785.4000;0.4444;1.2661;
785.7000;0.4404;1.2661;
786.0000;0.4420;1.2732;
786.3000;0.4444;1.2661;
786.6000;0.4420;1.2567;
786.9000;0.4436;1.2661;
787.2000;0.4436;1.2732;
787.5000;0.4436;1.2732;
787.8000;0.4436;1.2778;
788.1000;0.4412;1.2732;
788.4000;0.4436;1.2778;
788.7000;0.4420;1.2685;
789.0000;0.4396;1.2685;
789.3000;0.4453;1.2778;
789.6000;0.4420;1.2732;
789.9000;0.4396;1.2614;
790.2000;0.4420;1.2661;
790.5000;0.4436;1.2661;
790.8000;0.4420;1.2497;
791.1000;0.4436;1.2567;
791.4000;0.4428;1.2521;
791.7000;0.4428;1.2521;
792.0000;0.4444;1.2521;
792.3000;0.4493;1.2732;
792.6000;0.4436;1.2638;
792.9000;0.4461;1.2708;
793.2000;0.4404;1.2614;
793.5000;0.4485;1.2732;
793.8000;0.4404;1.2591;
794.1000;0.4436;1.2755;
794.4000;0.4404;1.2685;
794.7000;0.4404;1.2661;
795.0000;0.4420;1.2802;
795.3000;0.4396;1.2755;
795.6000;0.4412;1.2802;
795.9000;0.4412;1.2802;
796.2000;0.4339;1.2685;
796.5000;0.4428;1.2966;
796.8000;0.4477;1.3013;
797.1000;0.4420;1.2872;
797.4000;0.4412;1.2943;
797.7000;0.4371;1.2825;
798.0000;0.4420;1.3013;
798.3000;0.4404;1.2990;
798.6000;0.4404;1.2919;
798.9000;0.4412;1.2919;
799.2000;0.4428;1.2966;
799.5000;0.4420;1.2896;
799.8000;0.4420;1.2849;
800.1000;0.4428;1.2872;
800.4000;0.4436;1.2825;
800.7000;0.4379;1.2708;
801.0000;0.4330;1.2567;
801.3000;0.4404;1.2732;
801.6000;0.4428;1.2755;
801.9000;0.4420;1.2755;
802.2000;0.4428;1.2802;
802.5000;0.4428;1.2802;
802.8000;0.4428;1.2732;
803.1000;0.4404;1.2661;
803.4000;0.4387;1.2661;
803.7000;0.4412;1.2708;
804.0000;0.4412;1.2708;
804.3000;0.4396;1.2685;
804.6000;0.4420;1.2755;
804.9000;0.4412;1.2708;
805.2000;0.4428;1.2708;
805.5000;0.4428;1.2708;
805.8000;0.4420;1.2755;
806.1000;0.4428;1.2732;
806.4000;0.4412;1.2778;
806.7000;0.4412;1.2778;
807.0000;0.4412;1.2872;
807.3000;0.4436;1.2896;
807.6000;0.4404;1.2825;
807.9000;0.4428;1.2802;
808.2000;0.4420;1.2755;
808.5000;0.4420;1.2732;
808.8000;0.4396;1.2614;
809.1000;0.4412;1.2685;
809.4000;0.4436;1.2802;
809.7000;0.4420;1.2685;
810.0000;0.4404;1.2614;
810.3000;0.4387;1.2567;
810.6000;0.4412;1.2638;
810.9000;0.4412;1.2638;
811.2000;0.4404;1.2638;
811.5000;0.4477;1.2708;
811.8000;0.4387;1.2591;
812.1000;0.4420;1.2685;
812.4000;0.4404;1.2708;
812.7000;0.4404;1.2614;
813.0000;0.4428;1.2708;
813.3000;0.4420;1.2755;
813.6000;0.4412;1.2755;
813.9000;0.4420;1.2778;
814.2000;0.4379;1.2638;
814.5000;0.4355;1.2614;
814.8000;0.4412;1.2778;
815.1000;0.4420;1.2825;
815.4000;0.4420;1.2802;
815.7000;0.4420;1.2825;
816.0000;0.4396;1.2849;
816.3000;0.4396;1.2825;
816.6000;0.4404;1.2755;
816.9000;0.4396;1.2732;
817.2000;0.4420;1.2896;
817.5000;0.4412;1.2802;
817.8000;0.4404;1.2685;
818.1000;0.4420;1.2661;
818.4000;0.4412;1.2567;
818.7000;0.4412;1.2591;
819.0000;0.4404;1.2591;
819.3000;0.4379;1.2661;
819.6000;0.4396;1.2638;
819.9000;0.4420;1.2661;
820.2000;0.4396;1.2614;
820.5000;0.4387;1.2661;
820.8000;0.4404;1.2638;
821.1000;0.4339;1.2591;
821.4000;0.4420;1.2896;
821.7000;0.4420;1.2872;
822.0000;0.4510;1.3130;
822.3000;0.4412;1.2849;
822.6000;0.4396;1.2661;
822.9000;0.4404;1.2638;
823.2000;0.4412;1.2661;
823.5000;0.4428;1.2614;
823.8000;0.4404;1.2638;
824.1000;0.4404;1.2614;
824.4000;0.4396;1.2567;
824.7000;0.4461;1.2567;
825.0000;0.4412;1.2450;
825.3000;0.4420;1.2474;
825.6000;0.4412;1.2403;
825.9000;0.4355;1.2286;
826.2000;0.4412;1.2497;
826.5000;0.4404;1.2450;
826.8000;0.4412;1.2474;
827.1000;0.4412;1.2450;
827.4000;0.4436;1.2521;
827.7000;0.4396;1.2380;
828.0000;0.4396;1.2427;
828.3000;0.4404;1.2450;
828.6000;0.4412;1.2614;
828.9000;0.4347;1.2544;
829.2000;0.4387;1.2638;
829.5000;0.4371;1.2521;
829.8000;0.4420;1.2661;
830.1000;0.4428;1.2614;
830.4000;0.4379;1.2614;
830.7000;0.4444;1.2755;
831.0000;0.4428;1.2661;
831.3000;0.4412;1.2591;
831.6000;0.4404;1.2521;
831.9000;0.4444;1.2661;
832.2000;0.4404;1.2544;
832.5000;0.4412;1.2567;
832.8000;0.4396;1.2450;
833.1000;0.4396;1.2474;
833.4000;0.4396;1.2521;
833.7000;0.4371;1.2544;
834.0000;0.4379;1.2497;
834.3000;0.4387;1.2497;
834.6000;0.4355;1.2310;
834.9000;0.4330;1.2239;
835.2000;0.4436;1.2497;
835.5000;0.4404;1.2521;
835.8000;0.4412;1.2474;
836.1000;0.4347;1.2333;
836.4000;0.4526;1.2825;
836.7000;0.4412;1.2497;
837.0000;0.4363;1.2427;
837.3000;0.4404;1.2474;
837.6000;0.4396;1.2544;
837.9000;0.4461;1.2638;
838.2000;0.4379;1.2356;
838.5000;0.4387;1.2427;
838.8000;0.4330;1.2286;
839.1000;0.4420;1.2497;
839.4000;0.4387;1.2403;
839.7000;0.4387;1.2427;
840.0000;0.4444;1.2567;
840.3000;0.4396;1.2497;
840.6000;0.4387;1.2544;
840.9000;0.4412;1.2591;
841.2000;0.4477;1.2708;
841.5000;0.4420;1.2544;
841.8000;0.4387;1.2497;
842.1000;0.4420;1.2638;
842.4000;0.4387;1.2638;
842.7000;0.4355;1.2567;
843.0000;0.4379;1.2755;
843.3000;0.4404;1.2802;
843.6000;0.4396;1.2755;
843.9000;0.4404;1.2732;
844.2000;0.4387;1.2685;
844.5000;0.4404;1.2755;
844.8000;0.4428;1.2849;
845.1000;0.4420;1.2755;
845.4000;0.4387;1.2591;
845.7000;0.4363;1.2474;
846.0000;0.4396;1.2591;
846.3000;0.4396;1.2521;
846.6000;0.4420;1.2497;
846.9000;0.4404;1.2403;
847.2000;0.4396;1.2450;
847.5000;0.4363;1.2474;
847.8000;0.4404;1.2544;
848.1000;0.4420;1.2614;
848.4000;0.4420;1.2567;
848.7000;0.4404;1.2521;
849.0000;0.4412;1.2591;
849.3000;0.4420;1.2685;
849.6000;0.4387;1.2591;
849.9000;0.4396;1.2591;
850.2000;0.4396;1.2544;
850.5000;0.4379;1.2544;
850.8000;0.4404;1.2614;
851.1000;0.4404;1.2614;
851.4000;0.4379;1.2567;
851.7000;0.4396;1.2567;
852.0000;0.4404;1.2638;
852.3000;0.4396;1.2567;
852.6000;0.4387;1.2544;
852.9000;0.4363;1.2544;
853.2000;0.4420;1.2638;
853.5000;0.4444;1.2732;
853.8000;0.4396;1.2661;
854.1000;0.4379;1.2685;
854.4000;0.4371;1.2685;
854.7000;0.4379;1.2638;
855.0000;0.4363;1.2544;
855.3000;0.4387;1.2567;
855.6000;0.4453;1.2732;
855.9000;0.4387;1.2591;
856.2000;0.4396;1.2638;
856.5000;0.4461;1.2778;
856.8000;0.4387;1.2661;
857.1000;0.4412;1.2732;
857.4000;0.4444;1.2849;
857.7000;0.4404;1.2802;
858.0000;0.4404;1.2755;
858.3000;0.4404;1.2614;
858.6000;0.4396;1.2591;
858.9000;0.4371;1.2403;
859.2000;0.4387;1.2356;
859.5000;0.4322;1.2075;
859.8000;0.4461;1.2450;
860.1000;0.4371;1.2145;
860.4000;0.4404;1.2216;
860.7000;0.4396;1.2216;
861.0000;0.4461;1.2450;
861.3000;0.4379;1.2356;
861.6000;0.4379;1.2403;
861.9000;0.4396;1.2403;
862.2000;0.4412;1.2521;
862.5000;0.4404;1.2544;
862.8000;0.4404;1.2521;
863.1000;0.4396;1.2497;
863.4000;0.4396;1.2427;
863.7000;0.4404;1.2380;
864.0000;0.4355;1.2286;
864.3000;0.4412;1.2427;
864.6000;0.4396;1.2403;
864.9000;0.4404;1.2497;
865.2000;0.4387;1.2450;
865.5000;0.4387;1.2474;
865.8000;0.4396;1.2497;
866.1000;0.4396;1.2450;
866.4000;0.4387;1.2497;
866.7000;0.4387;1.2521;
867.0000;0.4412;1.2567;
867.3000;0.4387;1.2567;
867.6000;0.4387;1.2661;
867.9000;0.4371;1.2708;
868.2000;0.4387;1.2732;
868.5000;0.4387;1.2708;
868.8000;0.4436;1.2849;
869.1000;0.4387;1.2638;
869.4000;0.4379;1.2427;
869.7000;0.4298;1.2239;
870.0000;0.4404;1.2497;
870.3000;0.4396;1.2497;
870.6000;0.4387;1.2521;
870.9000;0.4379;1.2380;
871.2000;0.4306;1.2216;
871.5000;0.4396;1.2356;
871.8000;0.4396;1.2427;
872.1000;0.4412;1.2356;
872.4000;0.4396;1.2427;
872.7000;0.4387;1.2427;
873.0000;0.4387;1.2450;
873.3000;0.4404;1.2403;
873.6000;0.4412;1.2450;
873.9000;0.4412;1.2567;
874.2000;0.4396;1.2591;
874.5000;0.4396;1.2614;
874.8000;0.4396;1.2638;
875.1000;0.4387;1.2567;
875.4000;0.4412;1.2591;
875.7000;0.4379;1.2450;
876.0000;0.4387;1.2403;
876.3000;0.4412;1.2427;
876.6000;0.4404;1.2497;
876.9000;0.4387;1.2333;
877.2000;0.4379;1.2427;
877.5000;0.4412;1.2544;
877.8000;0.4396;1.2497;
878.1000;0.4404;1.2474;
878.4000;0.4396;1.2450;
878.7000;0.4412;1.2474;
879.0000;0.4404;1.2474;
879.3000;0.4387;1.2497;
879.6000;0.4322;1.2380;
879.9000;0.4404;1.2544;
880.2000;0.4387;1.2497;
880.5000;0.4387;1.2544;
880.8000;0.4404;1.2591;
881.1000;0.4396;1.2567;
881.4000;0.4387;1.2591;
881.7000;0.4387;1.2591;
882.0000;0.4420;1.2661;
882.3000;0.4387;1.2591;
882.6000;0.4396;1.2614;
882.9000;0.4404;1.2661;
883.2000;0.4404;1.2614;
883.5000;0.4379;1.2544;
883.8000;0.4387;1.2544;
884.1000;0.4420;1.2591;
884.4000;0.4461;1.2685;
884.7000;0.4404;1.2521;
885.0000;0.4436;1.2638;
885.3000;0.4282;1.2263;
885.6000;0.4412;1.2567;
885.9000;0.4396;1.2427;
886.2000;0.4379;1.2474;
886.5000;0.4387;1.2638;
886.8000;0.4387;1.2661;
887.1000;0.4412;1.2638;
887.4000;0.4396;1.2614;
887.7000;0.4412;1.2591;
888.0000;0.4412;1.2567;
888.3000;0.4387;1.2591;
888.6000;0.4387;1.2567;
888.9000;0.4387;1.2591;
889.2000;0.4404;1.2661;
889.5000;0.4404;1.2685;
889.8000;0.4314;1.2497;
890.1000;0.4404;1.2732;
890.4000;0.4404;1.2685;
890.7000;0.4396;1.2685;
891.0000;0.4396;1.2661;
891.3000;0.4404;1.2708;
891.6000;0.4387;1.2661;
891.9000;0.4396;1.2732;
892.2000;0.4298;1.2427;
892.5000;0.4371;1.2544;
892.8000;0.4396;1.2591;
893.1000;0.4387;1.2591;
893.4000;0.4379;1.2521;
893.7000;0.4387;1.2591;
894.0000;0.4363;1.2521;
894.3000;0.4404;1.2614;
894.6000;0.4404;1.2638;
894.9000;0.4379;1.2497;
895.2000;0.4371;1.2544;
895.5000;0.4379;1.2567;
895.8000;0.4412;1.2685;
896.1000;0.4379;1.2638;
896.4000;0.4387;1.2614;
896.7000;0.4387;1.2708;
897.0000;0.4387;1.2778;
897.3000;0.4412;1.2778;
897.6000;0.4379;1.2661;
897.9000;0.4387;1.2685;
898.2000;0.4404;1.2708;
898.5000;0.4396;1.2661;
898.8000;0.4387;1.2638;
899.1000;0.4379;1.2544;
899.4000;0.4387;1.2497;
899.7000;0.4404;1.2614;
900.0000;0.4396;1.2661;
900.3000;0.4298;1.2310;
900.6000;0.4396;1.2497;
900.9000;0.4404;1.2521;
901.2000;0.4420;1.2591;
901.5000;0.4412;1.2661;
901.8000;0.4396;1.2638;
902.1000;0.4396;1.2661;
902.4000;0.4387;1.2661;
902.7000;0.4371;1.2685;
903.0000;0.4387;1.2708;
903.3000;0.4420;1.2778;
903.6000;0.4387;1.2685;
903.9000;0.4387;1.2708;
904.2000;0.4363;1.2567;
904.5000;0.4379;1.2638;
904.8000;0.4396;1.2732;
905.1000;0.4355;1.2708;
905.4000;0.4379;1.2825;
905.7000;0.4379;1.2849;
906.0000;0.4371;1.2849;
906.3000;0.4404;1.2825;
906.6000;0.4396;1.2732;
906.9000;0.4387;1.2685;
907.2000;0.4396;1.2708;
907.5000;0.4347;1.2474;
907.8000;0.4371;1.2497;
908.1000;0.4371;1.2403;
908.4000;0.4314;1.2239;
908.7000;0.4396;1.2427;
909.0000;0.4412;1.2521;
909.3000;0.4347;1.2427;
909.6000;0.4379;1.2567;
909.9000;0.4396;1.2614;
910.2000;0.4371;1.2567;
910.5000;0.4379;1.2614;
910.8000;0.4387;1.2638;
911.1000;0.4404;1.2708;
911.4000;0.4412;1.2708;
911.7000;0.4412;1.2685;
912.0000;0.4387;1.2685;
912.3000;0.4379;1.2708;
912.6000;0.4387;1.2732;
912.9000;0.4379;1.2661;
913.2000;0.4371;1.2614;
913.5000;0.4371;1.2661;
913.8000;0.4396;1.2614;
914.1000;0.4363;1.2567;
914.4000;0.4396;1.2544;
914.7000;0.4371;1.2497;
915.0000;0.4387;1.2661;
915.3000;0.4387;1.2661;
915.6000;0.4347;1.2497;
915.9000;0.4387;1.2544;
916.2000;0.4387;1.2614;
916.5000;0.4404;1.2708;
916.8000;0.4396;1.2661;
917.1000;0.4396;1.2638;
917.4000;0.4387;1.2614;
917.7000;0.4363;1.2614;
918.0000;0.4396;1.2708;
918.3000;0.4387;1.2661;
918.6000;0.4379;1.2544;
918.9000;0.4387;1.2474;
919.2000;0.4363;1.2427;
919.5000;0.4404;1.2474;
919.8000;0.4396;1.2497;
920.1000;0.4404;1.2567;
920.4000;0.4412;1.2544;
920.7000;0.4314;1.2356;
921.0000;0.4387;1.2685;
921.3000;0.4379;1.2732;
921.6000;0.4396;1.2802;
921.9000;0.4379;1.2802;
922.2000;0.4379;1.2872;
922.5000;0.4396;1.2825;
922.8000;0.4404;1.2849;
923.1000;0.4404;1.2825;
923.4000;0.4371;1.2802;
923.7000;0.4396;1.2778;
924.0000;0.4371;1.2708;
924.3000;0.4379;1.2708;
924.6000;0.4387;1.2708;
924.9000;0.4387;1.2661;
925.2000;0.4379;1.2661;
925.5000;0.4387;1.2708;
925.8000;0.4387;1.2732;
926.1000;0.4379;1.2685;
926.4000;0.4387;1.2755;
926.7000;0.4387;1.2661;
927.0000;0.4387;1.2614;
927.3000;0.4387;1.2638;
927.6000;0.4379;1.2638;
927.9000;0.4396;1.2708;
928.2000;0.4412;1.2778;
928.5000;0.4387;1.2732;
928.8000;0.4396;1.2732;
929.1000;0.4396;1.2708;
929.4000;0.4379;1.2661;
929.7000;0.4396;1.2638;
930.0000;0.4436;1.2778;
930.3000;0.4379;1.2591;
930.6000;0.4396;1.2638;
930.9000;0.4396;1.2638;
931.2000;0.4404;1.2708;
931.5000;0.4339;1.2521;
931.8000;0.4404;1.2661;
932.1000;0.4339;1.2474;
932.4000;0.4371;1.2521;
932.7000;0.4404;1.2638;
933.0000;0.4412;1.2708;
933.3000;0.4396;1.2638;
933.6000;0.4396;1.2567;
933.9000;0.4404;1.2638;
934.2000;0.4396;1.2614;
934.5000;0.4396;1.2591;
934.8000;0.4396;1.2450;
935.1000;0.4363;1.2333;
935.4000;0.4387;1.2333;
935.7000;0.4387;1.2333;
936.0000;0.4396;1.2356;
936.3000;0.4371;1.2310;
936.6000;0.4379;1.2474;
936.9000;0.4355;1.2403;
937.2000;0.4387;1.2544;
937.5000;0.4387;1.2591;
937.8000;0.4330;1.2521;
938.1000;0.4396;1.2708;
938.4000;0.4371;1.2802;
938.7000;0.4396;1.2802;
939.0000;0.4347;1.2661;
939.3000;0.4274;1.2450;
939.6000;0.4396;1.2755;
939.9000;0.4396;1.2755;
940.2000;0.4371;1.2661;
940.5000;0.4371;1.2591;
940.8000;0.4387;1.2614;
941.1000;0.4322;1.2521;
941.4000;0.4371;1.2755;
941.7000;0.4379;1.2778;
942.0000;0.4396;1.2872;
942.3000;0.4396;1.2802;
942.6000;0.4371;1.2802;
942.9000;0.4379;1.2778;
943.2000;0.4371;1.2732;
943.5000;0.4396;1.2732;
943.8000;0.4387;1.2825;
944.1000;0.4396;1.2802;
944.4000;0.4339;1.2567;
944.7000;0.4404;1.2755;
945.0000;0.4396;1.2732;
945.3000;0.4379;1.2778;
945.6000;0.4412;1.2896;
945.9000;0.4387;1.2732;
946.2000;0.4379;1.2802;
946.5000;0.4387;1.2802;
946.8000;0.4387;1.2802;
947.1000;0.4387;1.2778;
947.4000;0.4322;1.2403;
947.7000;0.4265;1.2263;
948.0000;0.4363;1.2567;
948.3000;0.4387;1.2614;
948.6000;0.4387;1.2614;
948.9000;0.4387;1.2567;
949.2000;0.4428;1.2661;
949.5000;0.4355;1.2544;
949.8000;0.4412;1.2661;
950.1000;0.4396;1.2661;
950.4000;0.4412;1.2732;
950.7000;0.4379;1.2685;
951.0000;0.4396;1.2685;
951.3000;0.4396;1.2755;
951.6000;0.4387;1.2778;
951.9000;0.4387;1.2825;
952.2000;0.4387;1.2896;
952.5000;0.4379;1.2896;
952.8000;0.4363;1.2872;
953.1000;0.4371;1.2849;
953.4000;0.4371;1.2849;
953.7000;0.4387;1.2896;
954.0000;0.4379;1.2802;
954.3000;0.4363;1.2732;
954.6000;0.4379;1.2755;
954.9000;0.4404;1.2732;
955.2000;0.4404;1.2708;
955.5000;0.4379;1.2661;
955.8000;0.4404;1.2661;
956.1000;0.4371;1.2591;
956.4000;0.4404;1.2638;
956.7000;0.4396;1.2614;
957.0000;0.4444;1.2802;
957.3000;0.4396;1.2614;
957.6000;0.4379;1.2567;
957.9000;0.4412;1.2614;
958.2000;0.4404;1.2544;
958.5000;0.4379;1.2567;
958.8000;0.4379;1.2661;
959.1000;0.4404;1.2638;
959.4000;0.4347;1.2544;
959.7000;0.4379;1.2685;
960.0000;0.4363;1.2661;
960.3000;0.4379;1.2685;
960.6000;0.4371;1.2755;
960.9000;0.4396;1.2708;
961.2000;0.4404;1.2732;
961.5000;0.4396;1.2708;
961.8000;0.4387;1.2661;
962.1000;0.4453;1.2849;
962.4000;0.4396;1.2849;
962.7000;0.4396;1.2919;
963.0000;0.4436;1.3060;
963.3000;0.4314;1.2708;
963.6000;0.4387;1.2872;
963.9000;0.4420;1.2943;
964.2000;0.4420;1.2896;
964.5000;0.4387;1.2778;
964.8000;0.4379;1.2708;
965.1000;0.4355;1.2661;
965.4000;0.4396;1.2708;
965.7000;0.4396;1.2732;
966.0000;0.4412;1.2755;
966.3000;0.4379;1.2732;
966.6000;0.4396;1.2732;
966.9000;0.4412;1.2708;
967.2000;0.4453;1.2825;
967.5000;0.4379;1.2708;
967.8000;0.4396;1.2872;
968.1000;0.4387;1.2872;
968.4000;0.4379;1.2872;
968.7000;0.4330;1.2708;
969.0000;0.4379;1.2919;
969.3000;0.4404;1.2990;
969.6000;0.4396;1.2919;
969.9000;0.4379;1.2802;
970.2000;0.4501;1.3083;
970.5000;0.4420;1.2849;
970.8000;0.4404;1.2825;
971.1000;0.4379;1.2943;
971.4000;0.4444;1.3130;
971.7000;0.4379;1.2990;
972.0000;0.4379;1.2943;
972.3000;0.4387;1.2966;
972.6000;0.4396;1.2896;
972.9000;0.4387;1.2872;
973.2000;0.4379;1.2919;
973.5000;0.4396;1.2849;
973.8000;0.4387;1.2778;
974.1000;0.4404;1.2802;
974.4000;0.4387;1.2614;
974.7000;0.4396;1.2685;
975.0000;0.4379;1.2591;
975.3000;0.4396;1.2732;
975.6000;0.4396;1.2802;
975.9000;0.4371;1.2825;
976.2000;0.4387;1.2849;
976.5000;0.4371;1.2849;
976.8000;0.4387;1.2872;
977.1000;0.4379;1.2872;
977.4000;0.4371;1.2849;
977.7000;0.4363;1.2825;
978.0000;0.4404;1.2943;
978.3000;0.4404;1.2802;
978.6000;0.4347;1.2661;
978.9000;0.4387;1.2802;
979.2000;0.4379;1.2755;
979.5000;0.4412;1.2778;
979.8000;0.4387;1.2685;
980.1000;0.4363;1.2638;
980.4000;0.4387;1.2661;
980.7000;0.4363;1.2661;
981.0000;0.4387;1.2778;
981.3000;0.4396;1.2802;
981.6000;0.4387;1.2755;
981.9000;0.4387;1.2778;
982.2000;0.4396;1.2778;
982.5000;0.4379;1.2708;
982.8000;0.4371;1.2685;
983.1000;0.4371;1.2638;
983.4000;0.4371;1.2638;
983.7000;0.4396;1.2685;
984.0000;0.4363;1.2708;
984.3000;0.4428;1.2802;
984.6000;0.4379;1.2638;
984.9000;0.4396;1.2638;
985.2000;0.4379;1.2638;
985.5000;0.4387;1.2661;
985.8000;0.4404;1.2661;
986.1000;0.4339;1.2567;
986.4000;0.4355;1.2614;
986.7000;0.4387;1.2661;
987.0000;0.4371;1.2685;
987.3000;0.4371;1.2778;
987.6000;0.4436;1.2896;
987.9000;0.4485;1.3013;
988.2000;0.4379;1.2732;
988.5000;0.4387;1.2755;
988.8000;0.4282;1.2521;
989.1000;0.4379;1.2802;
989.4000;0.4363;1.2685;
989.7000;0.4387;1.2708;
990.0000;0.4363;1.2661;
990.3000;0.4379;1.2778;
990.6000;0.4363;1.2755;
990.9000;0.4387;1.2661;
991.2000;0.4371;1.2614;
991.5000;0.4363;1.2638;
991.8000;0.4371;1.2638;
992.1000;0.4387;1.2708;
992.4000;0.4412;1.2802;
992.7000;0.4379;1.2755;
993.0000;0.4396;1.2825;
993.3000;0.4404;1.2802;
993.6000;0.4371;1.2778;
993.9000;0.4371;1.2755;
994.2000;0.4355;1.2778;
994.5000;0.4371;1.2732;
994.8000;0.4355;1.2638;
995.1000;0.4387;1.2708;
995.4000;0.4363;1.2661;
995.7000;0.4379;1.2614;
996.0000;0.4387;1.2614;
996.3000;0.4371;1.2708;
996.6000;0.4363;1.2755;
996.9000;0.4396;1.2872;
997.2000;0.4396;1.2849;
997.5000;0.4387;1.2825;
997.8000;0.4396;1.2872;
998.1000;0.4404;1.2849;
998.4000;0.4379;1.2825;
998.7000;0.4387;1.2872;
999.0000;0.4396;1.2872;
999.3000;0.4396;1.2849;
999.6000;0.4379;1.2849;
999.9000;0.4396;1.2896;
1000.2000;0.4453;1.2966;
1000.5000;0.4339;1.2708;
1000.8000;0.4387;1.2849;
1001.1000;0.4387;1.2802;
1001.4000;0.4436;1.2872;
1001.7000;0.4387;1.2755;
1002.0000;0.4379;1.2778;
1002.3000;0.4387;1.2755;
1002.6000;0.4387;1.2708;
1002.9000;0.4396;1.2708;
1003.2000;0.4379;1.2661;
1003.5000;0.4436;1.2825;
1003.8000;0.4428;1.2872;
1004.1000;0.4387;1.2825;
1004.4000;0.4396;1.2896;
1004.7000;0.4363;1.2825;
1005.0000;0.4387;1.2896;
1005.3000;0.4379;1.2872;
1005.6000;0.4396;1.2896;
1005.9000;0.4379;1.2755;
1006.2000;0.4420;1.2849;
1006.5000;0.4404;1.2825;
1006.8000;0.4379;1.2825;
1007.1000;0.4387;1.2919;
1007.4000;0.4396;1.2966;
1007.7000;0.4387;1.2896;
1008.0000;0.4396;1.2990;
1008.3000;0.4379;1.2990;
1008.6000;0.4371;1.2990;
1008.9000;0.4379;1.2943;
1009.2000;0.4404;1.2919;
1009.5000;0.4396;1.3013;
1009.8000;0.4412;1.3107;
1010.1000;0.4387;1.3083;
1010.4000;0.4396;1.3036;
1010.7000;0.4371;1.2990;
1011.0000;0.4379;1.2872;
1011.3000;0.4436;1.3013;
1011.6000;0.4436;1.3083;
1011.9000;0.4379;1.2896;
1012.2000;0.4371;1.2755;
1012.5000;0.4371;1.2685;
1012.8000;0.4379;1.2661;
1013.1000;0.4387;1.2755;
1013.4000;0.4379;1.2755;
1013.7000;0.4379;1.2755;
1014.0000;0.4396;1.2778;
1014.3000;0.4404;1.2661;
1014.6000;0.4387;1.2567;
1014.9000;0.4379;1.2567;
1015.2000;0.4420;1.2661;
1015.5000;0.4387;1.2661;
1015.8000;0.4347;1.2544;
1016.1000;0.4387;1.2661;
1016.4000;0.4363;1.2638;
1016.7000;0.4387;1.2732;
1017.0000;0.4387;1.2755;
1017.3000;0.4363;1.2778;
1017.6000;0.4371;1.2825;
1017.9000;0.4371;1.2825;
1018.2000;0.4510;1.3083;
1018.5000;0.4387;1.2802;
1018.8000;0.4371;1.2778;
1019.1000;0.4387;1.2732;
1019.4000;0.4371;1.2614;
1019.7000;0.4379;1.2567;
1020.0000;0.4387;1.2614;
1020.3000;0.4363;1.2661;
1020.6000;0.4379;1.2661;
1020.9000;0.4387;1.2732;
1021.2000;0.4420;1.2896;
1021.5000;0.4363;1.2755;
1021.8000;0.4371;1.2708;
1022.1000;0.4355;1.2755;
1022.4000;0.4379;1.2778;
1022.7000;0.4379;1.2802;
1023.0000;0.4371;1.2755;
1023.3000;0.4322;1.2661;
1023.6000;0.4396;1.2825;
1023.9000;0.4371;1.2778;
1024.2000;0.4387;1.2825;
1024.5000;0.4396;1.2802;
1024.8000;0.4396;1.2732;
1025.1000;0.4371;1.2614;
1025.4000;0.4387;1.2638;
1025.7000;0.4371;1.2497;
1026.0000;0.4379;1.2591;
1026.3000;0.4371;1.2567;
1026.6000;0.4387;1.2638;
1026.9000;0.4387;1.2685;
1027.2000;0.4371;1.2661;
1027.5000;0.4396;1.2708;
1027.8000;0.4387;1.2685;
1028.1000;0.4371;1.2708;
1028.4000;0.4379;1.2708;
1028.7000;0.4396;1.2732;
1029.0000;0.4371;1.2732;
1029.3000;0.4387;1.2825;
1029.6000;0.4387;1.2825;
1029.9000;0.4371;1.2708;
1030.2000;0.4428;1.2708;
1030.5000;0.4363;1.2614;
1030.8000;0.4379;1.2591;
1031.1000;0.4347;1.2497;
1031.4000;0.4371;1.2614;
1031.7000;0.4371;1.2708;
1032.0000;0.4387;1.2755;
1032.3000;0.4379;1.2755;
1032.6000;0.4387;1.2802;
1032.9000;0.4379;1.2685;
1033.2000;0.4387;1.2685;
1033.5000;0.4396;1.2638;
1033.8000;0.4387;1.2661;
1034.1000;0.4387;1.2591;
1034.4000;0.4387;1.2661;
1034.7000;0.4387;1.2685;
1035.0000;0.4396;1.2732;
1035.3000;0.4379;1.2685;
1035.6000;0.4371;1.2614;
1035.9000;0.4387;1.2591;
1036.2000;0.4412;1.2732;
1036.5000;0.4379;1.2708;
1036.8000;0.4387;1.2755;
1037.1000;0.4379;1.2778;
1037.4000;0.4379;1.2872;
1037.7000;0.4412;1.2990;
1038.0000;0.4371;1.2966;
1038.3000;0.4355;1.2872;
1038.6000;0.4396;1.2943;
1038.9000;0.4387;1.2966;
1039.2000;0.4404;1.2966;
1039.5000;0.4379;1.2896;
1039.8000;0.4387;1.2943;
1040.1000;0.4387;1.2966;
1040.4000;0.4404;1.2966;
1040.7000;0.4379;1.2872;
1041.0000;0.4387;1.2802;
1041.3000;0.4412;1.2802;
1041.6000;0.4387;1.2849;
1041.9000;0.4379;1.2896;
1042.2000;0.4363;1.2896;
1042.5000;0.4387;1.2849;
1042.8000;0.4379;1.2872;
1043.1000;0.4379;1.2872;
1043.4000;0.4379;1.2896;
1043.7000;0.4387;1.2896;
1044.0000;0.4396;1.3013;
1044.3000;0.4379;1.3013;
1044.6000;0.4379;1.2896;
1044.9000;0.4387;1.2919;
1045.2000;0.4501;1.3201;
1045.5000;0.4379;1.2802;
1045.8000;0.4396;1.2849;
1046.1000;0.4363;1.2802;
1046.4000;0.4355;1.2872;
1046.7000;0.4371;1.3013;
1047.0000;0.4396;1.3107;
1047.3000;0.4363;1.2966;
1047.6000;0.4371;1.3013;
1047.9000;0.4371;1.2990;
1048.2000;0.4363;1.2943;
1048.5000;0.4379;1.2966;
1048.8000;0.4436;1.3060;
1049.1000;0.4396;1.2872;
1049.4000;0.4396;1.2802;
1049.7000;0.4387;1.2849;
1050.0000;0.4404;1.2990;
1050.3000;0.4379;1.2966;
1050.6000;0.4379;1.2966;
1050.9000;0.4387;1.2966;
1051.2000;0.4379;1.2919;
1051.5000;0.4379;1.2943;
1051.8000;0.4396;1.3013;
1052.1000;0.4298;1.2802;
1052.4000;0.4379;1.2990;
1052.7000;0.4379;1.2825;
1053.0000;0.4387;1.2802;
1053.3000;0.4371;1.2778;
1053.6000;0.4363;1.2755;
1053.9000;0.4387;1.2778;
1054.2000;0.4469;1.3036;
1054.5000;0.4371;1.2825;
1054.8000;0.4396;1.2919;
1055.1000;0.4379;1.2872;
1055.4000;0.4387;1.2849;
1055.7000;0.4371;1.2849;
1056.0000;0.4371;1.2849;
1056.3000;0.4355;1.2685;
1056.6000;0.4379;1.2661;
1056.9000;0.4485;1.2872;
1057.2000;0.4387;1.2614;
1057.5000;0.4371;1.2614;
1057.8000;0.4363;1.2614;
1058.1000;0.4371;1.2661;
1058.4000;0.4379;1.2661;
1058.7000;0.4371;1.2685;
1059.0000;0.4379;1.2802;
1059.3000;0.4379;1.2849;
1059.6000;0.4371;1.2872;
1059.9000;0.4379;1.2872;
1060.2000;0.4379;1.2919;
1060.5000;0.4387;1.2872;
1060.8000;0.4387;1.2849;
1061.1000;0.4396;1.2896;
1061.4000;0.4387;1.2849;
1061.7000;0.4387;1.2872;
1062.0000;0.4420;1.2966;
1062.3000;0.4379;1.2849;
1062.6000;0.4363;1.2802;
1062.9000;0.4420;1.2919;
1063.2000;0.4379;1.2778;
1063.5000;0.4379;1.2708;
1063.8000;0.4363;1.2708;
1064.1000;0.4428;1.2919;
1064.4000;0.4257;1.2403;
1064.7000;0.4371;1.2544;
1065.0000;0.4371;1.2567;
1065.3000;0.4396;1.2614;
1065.6000;0.4371;1.2661;
1065.9000;0.4485;1.2943;
1066.2000;0.4387;1.2778;
1066.5000;0.4371;1.2802;
1066.8000;0.4371;1.2802;
1067.1000;0.4363;1.2708;
1067.4000;0.4379;1.2708;
1067.7000;0.4379;1.2732;
1068.0000;0.4379;1.2778;
1068.3000;0.4387;1.2685;
1068.6000;0.4387;1.2778;
1068.9000;0.4355;1.2825;
1069.2000;0.4404;1.2966;
1069.5000;0.4355;1.2802;
1069.8000;0.4396;1.2732;
1070.1000;0.4363;1.2614;
1070.4000;0.4444;1.2708;
1070.7000;0.4379;1.2638;
1071.0000;0.4355;1.2708;
1071.3000;0.4396;1.2943;
1071.6000;0.4387;1.2896;
1071.9000;0.4371;1.2966;
1072.2000;0.4412;1.3060;
1072.5000;0.4387;1.2872;
1072.8000;0.4355;1.2732;
1073.1000;0.4444;1.2849;
1073.4000;0.4404;1.2778;
1073.7000;0.4379;1.2732;
1074.0000;0.4379;1.2732;
1074.3000;0.4379;1.2708;
1074.6000;0.4387;1.2802;
1074.9000;0.4379;1.2849;
1075.2000;0.4387;1.2872;
1075.5000;0.4387;1.2849;
1075.8000;0.4363;1.2802;
1076.1000;0.4363;1.2755;
1076.4000;0.4396;1.2732;
1076.7000;0.4379;1.2661;
1077.0000;0.4387;1.2755;
1077.3000;0.4379;1.2685;
1077.6000;0.4363;1.2708;
1077.9000;0.4379;1.2685;
1078.2000;0.4363;1.2708;
1078.5000;0.4371;1.2778;
1078.8000;0.4404;1.2896;
1079.1000;0.4387;1.2802;
1079.4000;0.4371;1.2849;
1079.7000;0.4363;1.2872;
1080.0000;0.4371;1.2849;
1080.3000;0.4371;1.2990;
1080.6000;0.4363;1.2919;
1080.9000;0.4371;1.2896;
1081.2000;0.4379;1.2872;
1081.5000;0.4379;1.2849;
1081.8000;0.4355;1.2825;
1082.1000;0.4347;1.2849;
1082.4000;0.4363;1.2919;
1082.7000;0.4387;1.3060;
1083.0000;0.4396;1.3107;
1083.3000;0.4387;1.3036;
1083.6000;0.4387;1.2990;
1083.9000;0.4396;1.2919;
1084.2000;0.4379;1.2896;
1084.5000;0.4387;1.2872;
1084.8000;0.4387;1.2849;
1085.1000;0.4444;1.2943;
1085.4000;0.4387;1.2778;
1085.7000;0.4371;1.2708;
1086.0000;0.4347;1.2591;
1086.3000;0.4330;1.2591;
1086.6000;0.4371;1.2638;
1086.9000;0.4396;1.2638;
1087.2000;0.4371;1.2567;
1087.5000;0.4363;1.2544;
1087.8000;0.4363;1.2638;
1088.1000;0.4371;1.2661;
1088.4000;0.4412;1.2732;
1088.7000;0.4379;1.2685;
1089.0000;0.4387;1.2685;
1089.3000;0.4396;1.2685;
1089.6000;0.4298;1.2474;
1089.9000;0.4387;1.2661;
1090.2000;0.4371;1.2661;
1090.5000;0.4355;1.2732;
1090.8000;0.4363;1.2778;
1091.1000;0.4387;1.2849;
1091.4000;0.4371;1.2825;
1091.7000;0.4371;1.2755;
1092.0000;0.4396;1.2849;
1092.3000;0.4371;1.2708;
1092.6000;0.4379;1.2661;
1092.9000;0.4371;1.2591;
1093.2000;0.4379;1.2708;
1093.5000;0.4355;1.2685;
1093.8000;0.4379;1.2755;
1094.1000;0.4355;1.2755;
1094.4000;0.4322;1.2544;
1094.7000;0.4387;1.2708;
1095.0000;0.4371;1.2661;
1095.3000;0.4330;1.2544;
1095.6000;0.4396;1.2661;
1095.9000;0.4379;1.2591;
1096.2000;0.4363;1.2591;
1096.5000;0.4355;1.2497;
1096.8000;0.4379;1.2661;
1097.1000;0.4379;1.2638;
1097.4000;0.4387;1.2732;
1097.7000;0.4371;1.2755;
1098.0000;0.4396;1.2755;
1098.3000;0.4396;1.2755;
1098.6000;0.4387;1.2708;
1098.9000;0.4387;1.2661;
1099.2000;0.4412;1.2732;
1099.5000;0.4387;1.2755;
1099.8000;0.4387;1.2732;
1100.1000;0.4363;1.2708;
1100.4000;0.4396;1.2802;
1100.7000;0.4396;1.2872;
1101.0000;0.4379;1.2849;
1101.3000;0.4363;1.2825;
1101.6000;0.4387;1.2872;
1101.9000;0.4396;1.2872;
1102.2000;0.4379;1.2849;
1102.5000;0.4387;1.2896;
1102.8000;0.4396;1.2849;
1103.1000;0.4379;1.2732;
1103.4000;0.4379;1.2755;
1103.7000;0.4379;1.2708;
1104.0000;0.4379;1.2685;
1104.3000;0.4379;1.2732;
1104.6000;0.4379;1.2755;
1104.9000;0.4363;1.2708;
1105.2000;0.4420;1.2825;
1105.5000;0.4387;1.2778;
1105.8000;0.4387;1.2778;
1106.1000;0.4363;1.2614;
1106.4000;0.4387;1.2591;
1106.7000;0.4371;1.2614;
1107.0000;0.4371;1.2708;
1107.3000;0.4379;1.2872;
1107.6000;0.4379;1.2943;
1107.9000;0.4371;1.2872;
1108.2000;0.4371;1.2825;
1108.5000;0.4412;1.2966;
1108.8000;0.4404;1.2943;
1109.1000;0.4379;1.2872;
1109.4000;0.4420;1.2919;
1109.7000;0.4257;1.2567;
1110.0000;0.4371;1.2778;
1110.3000;0.4387;1.2732;
1110.6000;0.4265;1.2474;
1110.9000;0.4396;1.2732;
1111.2000;0.4347;1.2638;
1111.5000;0.4371;1.2685;
1111.8000;0.4379;1.2755;
1112.1000;0.4387;1.2778;
1112.4000;0.4444;1.2896;
1112.7000;0.4379;1.2661;
1113.0000;0.4363;1.2638;
1113.3000;0.4379;1.2661;
1113.6000;0.4371;1.2497;
1113.9000;0.4347;1.2403;
1114.2000;0.4396;1.2614;
1114.5000;0.4387;1.2685;
1114.8000;0.4363;1.2567;
1115.1000;0.4396;1.2521;
1115.4000;0.4379;1.2474;
1115.7000;0.4379;1.2567;
1116.0000;0.4387;1.2544;
1116.3000;0.4347;1.2380;
1116.6000;0.4371;1.2521;
1116.9000;0.4355;1.2450;
1117.2000;0.4387;1.2591;
1117.5000;0.4387;1.2661;
1117.8000;0.4363;1.2661;
1118.1000;0.4396;1.2638;
1118.4000;0.4379;1.2544;
1118.7000;0.4379;1.2614;
1119.0000;0.4387;1.2567;
1119.3000;0.4404;1.2614;
1119.6000;0.4355;1.2521;
1119.9000;0.4379;1.2661;
1120.2000;0.4387;1.2614;
1120.5000;0.4387;1.2544;
1120.8000;0.4387;1.2708;
1121.1000;0.4347;1.2544;
1121.4000;0.4347;1.2497;
1121.7000;0.4387;1.2544;
1122.0000;0.4371;1.2450;
1122.3000;0.4355;1.2333;
1122.6000;0.4371;1.2333;
1122.9000;0.4387;1.2239;
1123.2000;0.4371;1.2216;
1123.5000;0.4379;1.2286;
1123.8000;0.4379;1.2333;
1124.1000;0.4371;1.2427;
1124.4000;0.4363;1.2286;
1124.7000;0.4379;1.2380;
1125.0000;0.4387;1.2403;
1125.3000;0.4379;1.2310;
1125.6000;0.4363;1.2263;
1125.9000;0.4371;1.2356;
1126.2000;0.4404;1.2474;
1126.5000;0.4371;1.2474;
1126.8000;0.4387;1.2521;
1127.1000;0.4387;1.2567;
1127.4000;0.4387;1.2614;
1127.7000;0.4387;1.2638;
1128.0000;0.4363;1.2614;
1128.3000;0.4347;1.2544;
1128.6000;0.4371;1.2591;
1128.9000;0.4347;1.2403;
1129.2000;0.4379;1.2450;
1129.5000;0.4387;1.2380;
1129.8000;0.4379;1.2427;
1130.1000;0.4379;1.2497;
1130.4000;0.4379;1.2474;
1130.7000;0.4371;1.2521;
1131.0000;0.4363;1.2474;
1131.3000;0.4363;1.2521;
1131.6000;0.4379;1.2497;
1131.9000;0.4387;1.2474;
1132.2000;0.4355;1.2427;
1132.5000;0.4371;1.2474;
1132.8000;0.4404;1.2521;
1133.1000;0.4371;1.2380;
1133.4000;0.4371;1.2333;
1133.7000;0.4387;1.2333;
1134.0000;0.4387;1.2403;
1134.3000;0.4306;1.2216;
1134.6000;0.4355;1.2403;
1134.9000;0.4371;1.2427;
1135.2000;0.4396;1.2474;
1135.5000;0.4387;1.2356;
1135.8000;0.4363;1.2380;
1136.1000;0.4387;1.2521;
1136.4000;0.4387;1.2521;
1136.7000;0.4379;1.2497;
1137.0000;0.4396;1.2661;
1137.3000;0.4428;1.2778;
1137.6000;0.4493;1.2966;
1137.9000;0.4379;1.2755;
1138.2000;0.4371;1.2755;
1138.5000;0.4363;1.2778;
1138.8000;0.4363;1.2732;
1139.1000;0.4355;1.2685;
1139.4000;0.4387;1.2708;
1139.7000;0.4347;1.2497;
1140.0000;0.4355;1.2591;
1140.3000;0.4355;1.2521;
1140.6000;0.4387;1.2638;
1140.9000;0.4371;1.2685;
1141.2000;0.4371;1.2755;
1141.5000;0.4371;1.2778;
1141.8000;0.4379;1.2825;
1142.1000;0.4371;1.2802;
1142.4000;0.4339;1.2778;
1142.7000;0.4379;1.2825;
1143.0000;0.4404;1.2896;
1143.3000;0.4379;1.2872;
1143.6000;0.4379;1.2919;
1143.9000;0.4371;1.2849;
1144.2000;0.4379;1.2896;
1144.5000;0.4379;1.2919;
1144.8000;0.4379;1.2825;
1145.1000;0.4371;1.2802;
1145.4000;0.4387;1.2732;
1145.7000;0.4379;1.2614;
1146.0000;0.4396;1.2732;
1146.3000;0.4396;1.2755;
1146.6000;0.4379;1.2685;
1146.9000;0.4379;1.2708;
1147.2000;0.4379;1.2755;
1147.5000;0.4371;1.2825;
1147.8000;0.4396;1.2849;
1148.1000;0.4347;1.2732;
1148.4000;0.4387;1.2825;
1148.7000;0.4379;1.2802;
1149.0000;0.4371;1.2685;
1149.3000;0.4363;1.2708;
1149.6000;0.4396;1.2802;
1149.9000;0.4371;1.2732;
1150.2000;0.4371;1.2685;
1150.5000;0.4387;1.2661;
1150.8000;0.4387;1.2685;
1151.1000;0.4412;1.2732;
1151.4000;0.4379;1.2661;
1151.7000;0.4404;1.2638;
1152.0000;0.4404;1.2685;
1152.3000;0.4404;1.2755;
1152.6000;0.4396;1.2732;
1152.9000;0.4371;1.2685;
1153.2000;0.4412;1.2872;
1153.5000;0.4387;1.2849;
1153.8000;0.4396;1.2802;
1154.1000;0.4371;1.2708;
1154.4000;0.4404;1.2732;
1154.7000;0.4387;1.2685;
1155.0000;0.4387;1.2614;
1155.3000;0.4363;1.2614;
1155.6000;0.4379;1.2685;
1155.9000;0.4396;1.2708;
1156.2000;0.4396;1.2732;
1156.5000;0.4404;1.2755;
1156.8000;0.4387;1.2755;
1157.1000;0.4387;1.2732;
1157.4000;0.4404;1.2685;
1157.7000;0.4396;1.2614;
1158.0000;0.4379;1.2638;
1158.3000;0.4387;1.2638;
1158.6000;0.4379;1.2661;
1158.9000;0.4379;1.2661;
1159.2000;0.4396;1.2778;
1159.5000;0.4436;1.2919;
1159.8000;0.4371;1.2755;
1160.1000;0.4371;1.2755;
1160.4000;0.4371;1.2755;
1160.7000;0.4371;1.2825;
1161.0000;0.4363;1.2778;
1161.3000;0.4371;1.2755;
1161.6000;0.4387;1.2732;
1161.9000;0.4371;1.2708;
1162.2000;0.4355;1.2638;
1162.5000;0.4379;1.2591;
1162.8000;0.4379;1.2614;
1163.1000;0.4371;1.2591;
1163.4000;0.4396;1.2591;
1163.7000;0.4387;1.2474;
1164.0000;0.4379;1.2450;
1164.3000;0.4396;1.2521;
1164.6000;0.4387;1.2521;
1164.9000;0.4387;1.2591;
1165.2000;0.4379;1.2661;
1165.5000;0.4420;1.2755;
1165.8000;0.4379;1.2638;
1166.1000;0.4379;1.2638;
1166.4000;0.4371;1.2591;
1166.7000;0.4355;1.2544;
1167.0000;0.4322;1.2450;
1167.3000;0.4371;1.2591;
1167.6000;0.4387;1.2661;
1167.9000;0.4387;1.2661;
1168.2000;0.4379;1.2708;
1168.5000;0.4387;1.2685;
1168.8000;0.4379;1.2685;
1169.1000;0.4379;1.2685;
1169.4000;0.4387;1.2614;
1169.7000;0.4363;1.2521;
1170.0000;0.4493;1.2825;
1170.3000;0.4396;1.2450;
1170.6000;0.4371;1.2380;
1170.9000;0.4371;1.2380;
1171.2000;0.4347;1.2286;
1171.5000;0.4379;1.2497;
1171.8000;0.4347;1.2474;
1172.1000;0.4371;1.2567;
1172.4000;0.4379;1.2567;
1172.7000;0.4387;1.2567;
1173.0000;0.4387;1.2591;
1173.3000;0.4371;1.2638;
1173.6000;0.4387;1.2685;
1173.9000;0.4387;1.2661;
1174.2000;0.4396;1.2661;
1174.5000;0.4396;1.2708;
1174.8000;0.4355;1.2544;
1175.1000;0.4379;1.2544;
1175.4000;0.4404;1.2591;
1175.7000;0.4363;1.2521;
1176.0000;0.4371;1.2521;
1176.3000;0.4387;1.2521;
1176.6000;0.4387;1.2497;
1176.9000;0.4379;1.2474;
1177.2000;0.4387;1.2567;
1177.5000;0.4387;1.2521;
1177.8000;0.4387;1.2591;
1178.1000;0.4363;1.2521;
1178.4000;0.4355;1.2474;
1178.7000;0.4379;1.2474;
1179.0000;0.4371;1.2497;
1179.3000;0.4379;1.2567;
1179.6000;0.4347;1.2474;
1179.9000;0.4347;1.2521;
1180.2000;0.4379;1.2521;
1180.5000;0.4371;1.2380;
1180.8000;0.4387;1.2521;
1181.1000;0.4379;1.2497;
1181.4000;0.4363;1.2521;
1181.7000;0.4420;1.2614;
1182.0000;0.4396;1.2497;
1182.3000;0.4371;1.2427;
1182.6000;0.4379;1.2521;
1182.9000;0.4306;1.2403;
1183.2000;0.4387;1.2614;
1183.5000;0.4379;1.2521;
1183.8000;0.4290;1.2356;
1184.1000;0.4387;1.2638;
1184.4000;0.4379;1.2638;
1184.7000;0.4387;1.2591;
1185.0000;0.4379;1.2521;
1185.3000;0.4387;1.2474;
1185.6000;0.4387;1.2450;
1185.9000;0.4387;1.2521;
1186.2000;0.4363;1.2544;
1186.5000;0.4387;1.2497;
1186.8000;0.4347;1.2427;
1187.1000;0.4387;1.2614;
1187.4000;0.4339;1.2474;
1187.7000;0.4339;1.2614;
1188.0000;0.4298;1.2497;
1188.3000;0.4412;1.2708;
1188.6000;0.4387;1.2685;
1188.9000;0.4379;1.2708;
1189.2000;0.4404;1.2802;
1189.5000;0.4412;1.2849;
1189.8000;0.4371;1.2708;
1190.1000;0.4387;1.2825;
1190.4000;0.4387;1.2849;
1190.7000;0.4396;1.2872;
1191.0000;0.4387;1.2919;
1191.3000;0.4379;1.2966;
1191.6000;0.4355;1.2943;
1191.9000;0.4387;1.2919;
1192.2000;0.4379;1.2943;
1192.5000;0.4387;1.2966;
1192.8000;0.4379;1.2990;
1193.1000;0.4453;1.3177;
1193.4000;0.4371;1.2919;
1193.7000;0.4379;1.2896;
1194.0000;0.4347;1.2802;
1194.3000;0.4379;1.2825;
1194.6000;0.4387;1.2849;
1194.9000;0.4396;1.2872;
1195.2000;0.4379;1.2896;
1195.5000;0.4371;1.2872;
1195.8000;0.4387;1.2896;
1196.1000;0.4379;1.2825;
1196.4000;0.4363;1.2802;
1196.7000;0.4379;1.2755;
1197.0000;0.4379;1.2755;
1197.3000;0.4371;1.2685;
1197.6000;0.4379;1.2708;
1197.9000;0.4379;1.2732;
1198.2000;0.4379;1.2708;
1198.5000;0.4379;1.2614;
1198.8000;0.4363;1.2544;
1199.1000;0.4412;1.2638;
1199.4000;0.4379;1.2591;
1199.7000;0.4379;1.2544;
1200.0000;0.4363;1.2356;
1200.3000;0.4355;1.2286;
1200.6000;0.4379;1.2356;
1200.9000;0.4387;1.2450;
1201.2000;0.4379;1.2474;
1201.5000;0.4363;1.2521;
1201.8000;0.4371;1.2732;
1202.1000;0.4396;1.2802;
1202.4000;0.4371;1.2755;
1202.7000;0.4379;1.2778;
1203.0000;0.4387;1.2661;
1203.3000;0.4371;1.2685;
1203.6000;0.4420;1.2732;
1203.9000;0.4363;1.2567;
1204.2000;0.4379;1.2778;
1204.5000;0.4363;1.2638;
1204.8000;0.4436;1.2778;
1205.1000;0.4396;1.2638;
1205.4000;0.4363;1.2685;
1205.7000;0.4379;1.2778;
1206.0000;0.4339;1.2732;
1206.3000;0.4379;1.2943;
1206.6000;0.4379;1.2943;
1206.9000;0.4355;1.2778;
1207.2000;0.4371;1.2778;
1207.5000;0.4387;1.2708;
1207.8000;0.4387;1.2685;
1208.1000;0.4396;1.2544;
1208.4000;0.4371;1.2474;
1208.7000;0.4387;1.2497;
1209.0000;0.4379;1.2497;
1209.3000;0.4436;1.2567;
1209.6000;0.4363;1.2333;
1209.9000;0.4371;1.2427;
1210.2000;0.4363;1.2403;
1210.5000;0.4412;1.2521;
1210.8000;0.4363;1.2521;
1211.1000;0.4355;1.2497;
1211.4000;0.4501;1.2943;
1211.7000;0.4379;1.2661;
1212.0000;0.4379;1.2638;
1212.3000;0.4371;1.2567;
1212.6000;0.4396;1.2661;
1212.9000;0.4420;1.2732;
1213.2000;0.4387;1.2544;
1213.5000;0.4339;1.2380;
1213.8000;0.4379;1.2521;
1214.1000;0.4379;1.2544;
1214.4000;0.4347;1.2497;
1214.7000;0.4371;1.2544;
1215.0000;0.4371;1.2638;
1215.3000;0.4396;1.2708;
1215.6000;0.4379;1.2638;
1215.9000;0.4371;1.2685;
1216.2000;0.4379;1.2755;
1216.5000;0.4371;1.2732;
1216.8000;0.4379;1.2755;
1217.1000;0.4363;1.2778;
1217.4000;0.4387;1.2802;
1217.7000;0.4379;1.2802;
1218.0000;0.4379;1.2778;
1218.3000;0.4371;1.2755;
1218.6000;0.4371;1.2732;
1218.9000;0.4363;1.2732;
1219.2000;0.4363;1.2661;
1219.5000;0.4371;1.2544;
1219.8000;0.4371;1.2614;
1220.1000;0.4371;1.2638;
1220.4000;0.4371;1.2661;
1220.7000;0.4371;1.2661;
1221.0000;0.4371;1.2521;
1221.3000;0.4379;1.2450;
1221.6000;0.4371;1.2474;
1221.9000;0.4379;1.2567;
1222.2000;0.4371;1.2544;
1222.5000;0.4379;1.2567;
1222.8000;0.4396;1.2685;
1223.1000;0.4396;1.2708;
1223.4000;0.4379;1.2778;
1223.7000;0.4347;1.2755;
1224.0000;0.4396;1.2825;
1224.3000;0.4396;1.2825;
1224.6000;0.4379;1.2755;
1224.9000;0.4371;1.2755;
1225.2000;0.4396;1.2825;
1225.5000;0.4371;1.2708;
1225.8000;0.4379;1.2732;
1226.1000;0.4363;1.2638;
1226.4000;0.4371;1.2591;
1226.7000;0.4371;1.2661;
1227.0000;0.4379;1.2614;
1227.3000;0.4387;1.2544;
1227.6000;0.4314;1.2380;
1227.9000;0.4371;1.2614;
1228.2000;0.4412;1.2685;
1228.5000;0.4257;1.2310;
1228.8000;0.4379;1.2638;
1229.1000;0.4371;1.2521;
1229.4000;0.4453;1.2732;
1229.7000;0.4387;1.2521;
1230.0000;0.4371;1.2521;
1230.3000;0.4371;1.2544;
1230.6000;0.4461;1.2755;
1230.9000;0.4387;1.2685;
1231.2000;0.4387;1.2755;
1231.5000;0.4379;1.2638;
1231.8000;0.4379;1.2614;
1232.1000;0.4379;1.2591;
1232.4000;0.4379;1.2591;
1232.7000;0.4363;1.2591;
1233.0000;0.4371;1.2614;
1233.3000;0.4371;1.2638;
1233.6000;0.4379;1.2638;
1233.9000;0.4363;1.2544;
1234.2000;0.4412;1.2591;
1234.5000;0.4379;1.2544;
1234.8000;0.4387;1.2591;
1235.1000;0.4404;1.2708;
1235.4000;0.4379;1.2661;
1235.7000;0.4396;1.2755;
1236.0000;0.4485;1.2966;
1236.3000;0.4387;1.2708;
1236.6000;0.4379;1.2755;
1236.9000;0.4379;1.2732;
1237.2000;0.4379;1.2685;
1237.5000;0.4379;1.2661;
1237.8000;0.4355;1.2521;
1238.1000;0.4355;1.2591;
1238.4000;0.4363;1.2685;
1238.7000;0.4379;1.2778;
1239.0000;0.4379;1.2732;
1239.3000;0.4363;1.2708;
1239.6000;0.4371;1.2661;
1239.9000;0.4371;1.2638;
1240.2000;0.4387;1.2661;
1240.5000;0.4355;1.2614;
1240.8000;0.4396;1.2778;
1241.1000;0.4379;1.2755;
1241.4000;0.4363;1.2685;
1241.7000;0.4379;1.2661;
1242.0000;0.4379;1.2614;
1242.3000;0.4371;1.2567;
1242.6000;0.4396;1.2661;
1242.9000;0.4363;1.2614;
1243.2000;0.4379;1.2685;
1243.5000;0.4387;1.2755;
1243.8000;0.4379;1.2685;
1244.1000;0.4371;1.2638;
1244.4000;0.4371;1.2497;
1244.7000;0.4387;1.2521;
1245.0000;0.4387;1.2450;
1245.3000;0.4396;1.2474;
1245.6000;0.4371;1.2403;
1245.9000;0.4347;1.2427;
1246.2000;0.4379;1.2544;
1246.5000;0.4379;1.2450;
1246.8000;0.4387;1.2497;
1247.1000;0.4371;1.2521;
1247.4000;0.4371;1.2497;
1247.7000;0.4371;1.2450;
1248.0000;0.4387;1.2497;
1248.3000;0.4396;1.2544;
1248.6000;0.4379;1.2544;
1248.9000;0.4387;1.2567;
1249.2000;0.4363;1.2591;
1249.5000;0.4379;1.2708;
1249.8000;0.4371;1.2708;
1250.1000;0.4363;1.2755;
1250.4000;0.4347;1.2638;
1250.7000;0.4379;1.2708;
1251.0000;0.4379;1.2685;
1251.3000;0.4339;1.2497;
1251.6000;0.4412;1.2638;
1251.9000;0.4404;1.2638;
1252.2000;0.4355;1.2614;
1252.5000;0.4396;1.2685;
1252.8000;0.4379;1.2685;
1253.1000;0.4363;1.2567;
1253.4000;0.4371;1.2521;
1253.7000;0.4379;1.2567;
1254.0000;0.4371;1.2591;
1254.3000;0.4387;1.2591;
1254.6000;0.4387;1.2614;
1254.9000;0.4379;1.2614;
1255.2000;0.4387;1.2661;
1255.5000;0.4387;1.2638;
1255.8000;0.4371;1.2685;
1256.1000;0.4379;1.2802;
1256.4000;0.4387;1.2919;
1256.7000;0.4387;1.2943;
1257.0000;0.4387;1.2849;
1257.3000;0.4371;1.2732;
1257.6000;0.4371;1.2732;
1257.9000;0.4379;1.2755;
1258.2000;0.4404;1.2755;
1258.5000;0.4363;1.2638;
1258.8000;0.4371;1.2638;
1259.1000;0.4387;1.2685;
1259.4000;0.4379;1.2638;
1259.7000;0.4387;1.2708;
1260.0000;0.4339;1.2638;
1260.3000;0.4355;1.2661;
1260.6000;0.4379;1.2591;
1260.9000;0.4379;1.2638;
1261.2000;0.4363;1.2638;
1261.5000;0.4371;1.2685;
1261.8000;0.4379;1.2661;
1262.1000;0.4387;1.2661;
1262.4000;0.4371;1.2638;
1262.7000;0.4371;1.2661;
1263.0000;0.4371;1.2614;
1263.3000;0.4379;1.2638;
1263.6000;0.4379;1.2685;
1263.9000;0.4371;1.2732;
1264.2000;0.4379;1.2755;
1264.5000;0.4379;1.2708;
1264.8000;0.4371;1.2708;
1265.1000;0.4363;1.2732;
1265.4000;0.4363;1.2708;
1265.7000;0.4322;1.2521;
1266.0000;0.4387;1.2732;
1266.3000;0.4379;1.2614;
1266.6000;0.4379;1.2591;
1266.9000;0.4371;1.2638;
1267.2000;0.4363;1.2638;
1267.5000;0.4371;1.2614;
1267.8000;0.4371;1.2685;
1268.1000;0.4363;1.2732;
1268.4000;0.4396;1.2872;
1268.7000;0.4379;1.2919;
1269.0000;0.4387;1.2849;
1269.3000;0.4453;1.2896;
1269.6000;0.4379;1.2825;
1269.9000;0.4355;1.2802;
1270.2000;0.4420;1.2943;
1270.5000;0.4387;1.2919;
1270.8000;0.4396;1.2943;
1271.1000;0.4371;1.2919;
1271.4000;0.4379;1.2990;
1271.7000;0.4371;1.2919;
1272.0000;0.4387;1.2943;
1272.3000;0.4387;1.2919;
1272.6000;0.4363;1.2825;
1272.9000;0.4371;1.2732;
1273.2000;0.4355;1.2732;
1273.5000;0.4371;1.2802;
1273.8000;0.4379;1.2825;
1274.1000;0.4363;1.2849;
1274.4000;0.4363;1.2872;
1274.7000;0.4371;1.2755;
1275.0000;0.4371;1.2661;
1275.3000;0.4387;1.2685;
1275.6000;0.4436;1.2896;
1275.9000;0.4387;1.2778;
1276.2000;0.4347;1.2614;
1276.5000;0.4379;1.2802;
1276.8000;0.4387;1.2685;
1277.1000;0.4387;1.2778;
1277.4000;0.4387;1.2802;
1277.7000;0.4396;1.2802;
1278.0000;0.4396;1.2778;
1278.3000;0.4379;1.2732;
1278.6000;0.4379;1.2732;
1278.9000;0.4363;1.2661;
1279.2000;0.4387;1.2732;
1279.5000;0.4379;1.2755;
1279.8000;0.4387;1.2732;
1280.1000;0.4379;1.2732;
1280.4000;0.4363;1.2755;
1280.7000;0.4379;1.2732;
1281.0000;0.4387;1.2708;
1281.3000;0.4387;1.2708;
1281.6000;0.4371;1.2755;
1281.9000;0.4396;1.2849;
1282.2000;0.4379;1.2825;
1282.5000;0.4379;1.2708;
1282.8000;0.4404;1.2778;
1283.1000;0.4387;1.2732;
1283.4000;0.4371;1.2685;
1283.7000;0.4387;1.2778;
1284.0000;0.4379;1.2778;
1284.3000;0.4371;1.2778;
1284.6000;0.4379;1.2755;
1284.9000;0.4396;1.2778;
1285.2000;0.4387;1.2802;
1285.5000;0.4379;1.2778;
1285.8000;0.4371;1.2732;
1286.1000;0.4379;1.2755;
1286.4000;0.4379;1.2685;
1286.7000;0.4363;1.2497;
1287.0000;0.4379;1.2591;
1287.3000;0.4379;1.2661;
1287.6000;0.4404;1.2755;
1287.9000;0.4387;1.2732;
1288.2000;0.4396;1.2661;
1288.5000;0.4396;1.2661;
1288.8000;0.4387;1.2685;
1289.1000;0.4396;1.2685;
1289.4000;0.4379;1.2685;
1289.7000;0.4371;1.2661;
1290.0000;0.4387;1.2732;
1290.3000;0.4396;1.2708;
1290.6000;0.4387;1.2732;
1290.9000;0.4371;1.2708;
1291.2000;0.4322;1.2614;
1291.5000;0.4387;1.2778;
1291.8000;0.4387;1.2755;
1292.1000;0.4461;1.2943;
1292.4000;0.4379;1.2778;
1292.7000;0.4379;1.2802;
1293.0000;0.4371;1.2755;
1293.3000;0.4412;1.2778;
1293.6000;0.4379;1.2755;
1293.9000;0.4387;1.2708;
1294.2000;0.4379;1.2638;
1294.5000;0.4371;1.2614;
1294.8000;0.4379;1.2544;
1295.1000;0.4396;1.2521;
1295.4000;0.4387;1.2450;
1295.7000;0.4371;1.2450;
1296.0000;0.4379;1.2567;
1296.3000;0.4379;1.2544;
1296.6000;0.4387;1.2661;
1296.9000;0.4371;1.2661;
1297.2000;0.4371;1.2685;
1297.5000;0.4379;1.2638;
1297.8000;0.4379;1.2661;
1298.1000;0.4379;1.2638;
1298.4000;0.4379;1.2591;
1298.7000;0.4371;1.2685;
1299.0000;0.4314;1.2450;
1299.3000;0.4371;1.2638;
1299.6000;0.4363;1.2661;
1299.9000;0.4379;1.2802;
1300.2000;0.4379;1.2778;
1300.5000;0.4387;1.2755;
1300.8000;0.4387;1.2732;
1301.1000;0.4371;1.2708;
1301.4000;0.4469;1.2919;
1301.7000;0.4387;1.2661;
1302.0000;0.4371;1.2708;
1302.3000;0.4371;1.2755;
1302.6000;0.4379;1.2825;
1302.9000;0.4396;1.2872;
1303.2000;0.4379;1.2849;
1303.5000;0.4363;1.2825;
1303.8000;0.4379;1.2872;
1304.1000;0.4387;1.2872;
1304.4000;0.4404;1.2778;
1304.7000;0.4387;1.2685;
1305.0000;0.4371;1.2661;
1305.3000;0.4363;1.2708;
1305.6000;0.4387;1.2732;
1305.9000;0.4396;1.2708;
1306.2000;0.4387;1.2685;
1306.5000;0.4371;1.2591;
1306.8000;0.4404;1.2708;
1307.1000;0.4330;1.2591;
1307.4000;0.4322;1.2567;
1307.7000;0.4363;1.2591;
1308.0000;0.4339;1.2497;
1308.3000;0.4436;1.2802;
1308.6000;0.4379;1.2778;
1308.9000;0.4379;1.2849;
1309.2000;0.4363;1.2825;
1309.5000;0.4396;1.2872;
1309.8000;0.4396;1.2872;
1310.1000;0.4379;1.2755;
1310.4000;0.4387;1.2732;
1310.7000;0.4404;1.2732;
1311.0000;0.4387;1.2661;
1311.3000;0.4355;1.2614;
1311.6000;0.4363;1.2685;
1311.9000;0.4371;1.2778;
1312.2000;0.4396;1.2825;
1312.5000;0.4371;1.2708;
1312.8000;0.4379;1.2661;
1313.1000;0.4396;1.2685;
1313.4000;0.4396;1.2778;
1313.7000;0.4371;1.2732;
1314.0000;0.4363;1.2802;
1314.3000;0.4379;1.2802;
1314.6000;0.4396;1.2778;
1314.9000;0.4396;1.2755;
1315.2000;0.4387;1.2778;
1315.5000;0.4379;1.2685;
1315.8000;0.4379;1.2755;
1316.1000;0.4461;1.3013;
1316.4000;0.4355;1.2778;
1316.7000;0.4363;1.2825;
1317.0000;0.4379;1.2896;
1317.3000;0.4387;1.2896;
1317.6000;0.4379;1.2849;
1317.9000;0.4355;1.2685;
1318.2000;0.4355;1.2755;
1318.5000;0.4371;1.2872;
1318.8000;0.4306;1.2778;
1319.1000;0.4363;1.2919;
1319.4000;0.4363;1.2872;
1319.7000;0.4387;1.2849;
1320.0000;0.4412;1.2896;
1320.3000;0.4355;1.2802;
1320.6000;0.4355;1.2849;
1320.9000;0.4371;1.2872;
1321.2000;0.4371;1.2966;
1321.5000;0.4371;1.2966;
1321.8000;0.4379;1.2966;
1322.1000;0.4371;1.2990;
1322.4000;0.4363;1.2966;
1322.7000;0.4363;1.2896;
1323.0000;0.4363;1.2896;
1323.3000;0.4453;1.3083;
1323.6000;0.4314;1.2685;
1323.9000;0.4371;1.2896;
1324.2000;0.4444;1.3013;
1324.5000;0.4444;1.3107;
1324.8000;0.4412;1.3013;
1325.1000;0.4396;1.2943;
1325.4000;0.4306;1.2638;
1325.7000;0.4371;1.2849;
1326.0000;0.4379;1.2802;
1326.3000;0.4379;1.2685;
1326.6000;0.4412;1.2685;
1326.9000;0.4387;1.2708;
1327.2000;0.4371;1.2661;
1327.5000;0.4379;1.2591;
1327.8000;0.4347;1.2450;
1328.1000;0.4347;1.2474;
1328.4000;0.4404;1.2591;
1328.7000;0.4379;1.2638;
1329.0000;0.4371;1.2638;
1329.3000;0.4387;1.2755;
1329.6000;0.4363;1.2661;
1329.9000;0.4347;1.2732;
1330.2000;0.4371;1.2825;
1330.5000;0.4347;1.2825;
1330.8000;0.4387;1.2919;
1331.1000;0.4387;1.2896;
1331.4000;0.4363;1.2849;
1331.7000;0.4363;1.2849;
1332.0000;0.4396;1.2849;
1332.3000;0.4330;1.2591;
1332.6000;0.4379;1.2685;
1332.9000;0.4379;1.2638;
1333.2000;0.4379;1.2567;
1333.5000;0.4379;1.2638;
1333.8000;0.4371;1.2567;
1334.1000;0.4371;1.2427;
1334.4000;0.4379;1.2427;
1334.7000;0.4379;1.2544;
1335.0000;0.4387;1.2708;
1335.3000;0.4379;1.2708;
1335.6000;0.4371;1.2708;
1335.9000;0.4379;1.2708;
1336.2000;0.4404;1.2802;
1336.5000;0.4387;1.2778;
1336.8000;0.4404;1.2849;
1337.1000;0.4387;1.2825;
1337.4000;0.4371;1.2778;
1337.7000;0.4387;1.2755;
1338.0000;0.4379;1.2708;
1338.3000;0.4363;1.2661;
1338.6000;0.4371;1.2708;
1338.9000;0.4379;1.2755;
1339.2000;0.4371;1.2732;
1339.5000;0.4396;1.2685;
1339.8000;0.4379;1.2567;
1340.1000;0.4396;1.2567;
1340.4000;0.4387;1.2544;
1340.7000;0.4387;1.2567;
1341.0000;0.4379;1.2567;
1341.3000;0.4387;1.2685;
1341.6000;0.4387;1.2685;
1341.9000;0.4379;1.2638;
1342.2000;0.4379;1.2638;
1342.5000;0.4355;1.2567;
1342.8000;0.4387;1.2591;
1343.1000;0.4371;1.2521;
1343.4000;0.4363;1.2497;
1343.7000;0.4371;1.2497;
1344.0000;0.4436;1.2661;
1344.3000;0.4330;1.2356;
1344.6000;0.4420;1.2567;
1344.9000;0.4371;1.2403;
1345.2000;0.4363;1.2380;
1345.5000;0.4379;1.2356;
1345.8000;0.4379;1.2310;
1346.1000;0.4387;1.2450;
1346.4000;0.4363;1.2427;
1346.7000;0.4387;1.2497;
1347.0000;0.4387;1.2614;
1347.3000;0.4453;1.2802;
1347.6000;0.4485;1.2802;
1347.9000;0.4371;1.2544;
1348.2000;0.4387;1.2591;
1348.5000;0.4379;1.2661;
1348.8000;0.4371;1.2638;
1349.1000;0.4298;1.2450;
1349.4000;0.4387;1.2685;
1349.7000;0.4379;1.2732;
1350.0000;0.4379;1.2685;
1350.3000;0.4387;1.2778;
1350.6000;0.4379;1.2778;
1350.9000;0.4387;1.2778;
1351.2000;0.4371;1.2778;
1351.5000;0.4379;1.2778;
1351.8000;0.4396;1.2732;
1352.1000;0.4453;1.2778;
1352.4000;0.4379;1.2661;
1352.7000;0.4363;1.2708;
1353.0000;0.4387;1.2732;
1353.3000;0.4387;1.2685;
1353.6000;0.4379;1.2685;
1353.9000;0.4379;1.2685;
1354.2000;0.4371;1.2661;
1354.5000;0.4379;1.2685;
1354.8000;0.4379;1.2661;
1355.1000;0.4453;1.2896;
1355.4000;0.4363;1.2661;
1355.7000;0.4379;1.2591;
1356.0000;0.4347;1.2333;
1356.3000;0.4363;1.2521;
1356.6000;0.4379;1.2638;
1356.9000;0.4371;1.2638;
1357.2000;0.4371;1.2638;
1357.5000;0.4314;1.2544;
1357.8000;0.4379;1.2661;
1358.1000;0.4379;1.2685;
1358.4000;0.4387;1.2614;
1358.7000;0.4379;1.2685;
1359.0000;0.4371;1.2685;
1359.3000;0.4371;1.2685;
1359.6000;0.4396;1.2661;
1359.9000;0.4371;1.2614;
1360.2000;0.4501;1.2872;
1360.5000;0.4396;1.2567;
1360.8000;0.4387;1.2521;
1361.1000;0.4396;1.2567;
1361.4000;0.4396;1.2638;
1361.7000;0.4379;1.2614;
1362.0000;0.4371;1.2638;
1362.3000;0.4371;1.2614;
1362.6000;0.4379;1.2708;
1362.9000;0.4363;1.2614;
1363.2000;0.4387;1.2778;
1363.5000;0.4387;1.2849;
1363.8000;0.4379;1.2778;
1364.1000;0.4363;1.2638;
1364.4000;0.4347;1.2567;
1364.7000;0.4355;1.2638;
1365.0000;0.4371;1.2614;
1365.3000;0.4371;1.2567;
1365.6000;0.4371;1.2591;
1365.9000;0.4387;1.2685;
1366.2000;0.4387;1.2661;
1366.5000;0.4379;1.2661;
1366.8000;0.4347;1.2638;
1367.1000;0.4363;1.2755;
1367.4000;0.4322;1.2521;
1367.7000;0.4363;1.2614;
1368.0000;0.4412;1.2708;
1368.3000;0.4379;1.2685;
1368.6000;0.4379;1.2778;
1368.9000;0.4420;1.2825;
1369.2000;0.4363;1.2708;
1369.5000;0.4379;1.2849;
1369.8000;0.4371;1.2825;
1370.1000;0.4379;1.2755;
1370.4000;0.4363;1.2755;
1370.7000;0.4379;1.2849;
1371.0000;0.4387;1.2825;
1371.3000;0.4387;1.2849;
1371.6000;0.4396;1.2896;
1371.9000;0.4355;1.2802;
1372.2000;0.4371;1.2778;
1372.5000;0.4396;1.2849;
1372.8000;0.4379;1.2685;
1373.1000;0.4379;1.2708;
1373.4000;0.4355;1.2755;
1373.7000;0.4404;1.2872;
1374.0000;0.4404;1.2708;
1374.3000;0.4396;1.2638;
1374.6000;0.4371;1.2567;
1374.9000;0.4371;1.2427;
1375.2000;0.4404;1.2497;
1375.5000;0.4379;1.2403;
1375.8000;0.4363;1.2403;
1376.1000;0.4347;1.2333;
1376.4000;0.4371;1.2497;
1376.7000;0.4355;1.2474;
1377.0000;0.4371;1.2544;
1377.3000;0.4371;1.2521;
1377.6000;0.4363;1.2474;
1377.9000;0.4363;1.2450;
1378.2000;0.4379;1.2567;
1378.5000;0.4371;1.2591;
1378.8000;0.4396;1.2661;
1379.1000;0.4339;1.2474;
1379.4000;0.4387;1.2638;
1379.7000;0.4387;1.2661;
1380.0000;0.4371;1.2685;
1380.3000;0.4396;1.2755;
1380.6000;0.4396;1.2778;
1380.9000;0.4371;1.2708;
1381.2000;0.4371;1.2638;
1381.5000;0.4396;1.2755;
1381.8000;0.4371;1.2755;
1382.1000;0.4387;1.2778;
1382.4000;0.4387;1.2802;
1382.7000;0.4339;1.2778;
1383.0000;0.4371;1.2825;
1383.3000;0.4387;1.2872;
1383.6000;0.4387;1.2849;
1383.9000;0.4387;1.2755;
1384.2000;0.4396;1.2732;
1384.5000;0.4387;1.2685;
1384.8000;0.4379;1.2825;
1385.1000;0.4396;1.2849;
1385.4000;0.4387;1.2825;
1385.7000;0.4387;1.2708;
1386.0000;0.4371;1.2732;
1386.3000;0.4314;1.2638;
1386.6000;0.4371;1.2732;
1386.9000;0.4396;1.2802;
1387.2000;0.4387;1.2778;
1387.5000;0.4363;1.2685;
1387.8000;0.4371;1.2802;
1388.1000;0.4355;1.2778;
1388.4000;0.4355;1.2708;
1388.7000;0.4379;1.2872;
1389.0000;0.4371;1.2825;
1389.3000;0.4396;1.2872;
1389.6000;0.4387;1.2732;
1389.9000;0.4404;1.2825;
1390.2000;0.4371;1.2685;
1390.5000;0.4379;1.2661;
1390.8000;0.4371;1.2685;
1391.1000;0.4420;1.2591;
1391.4000;0.4371;1.2380;
1391.7000;0.4371;1.2380;
1392.0000;0.4404;1.2521;
1392.3000;0.4371;1.2450;
1392.6000;0.4371;1.2427;
1392.9000;0.4436;1.2685;
1393.2000;0.4379;1.2567;
1393.5000;0.4396;1.2544;
1393.8000;0.4436;1.2661;
1394.1000;0.4387;1.2614;
1394.4000;0.4371;1.2591;
1394.7000;0.4387;1.2638;
1395.0000;0.4387;1.2685;
1395.3000;0.4330;1.2497;
1395.6000;0.4387;1.2638;
1395.9000;0.4371;1.2685;
1396.2000;0.4379;1.2661;
1396.5000;0.4396;1.2755;
1396.8000;0.4371;1.2638;
1397.1000;0.4363;1.2614;
1397.4000;0.4363;1.2544;
1397.7000;0.4355;1.2567;
1398.0000;0.4371;1.2685;
1398.3000;0.4387;1.2614;
1398.6000;0.4371;1.2544;
1398.9000;0.4387;1.2474;
1399.2000;0.4461;1.2732;
1399.5000;0.4387;1.2638;
1399.8000;0.4379;1.2708;
