time/ms;Fluo/V;P700 deltaI/I x10³;
-199.8000;0.4493;1.3013;
-199.5000;0.4412;1.2732;
-199.2000;0.4567;1.3060;
-198.9000;0.4518;1.2990;
-198.6000;0.4469;1.2732;
-198.3000;0.4526;1.2943;
-198.0000;0.4558;1.3013;
-197.7000;0.4493;1.2802;
-197.4000;0.4599;1.3060;
-197.1000;0.4518;1.2802;
-196.8000;0.4485;1.2778;
-196.5000;0.4518;1.2896;
-196.2000;0.4632;1.3201;
-195.9000;0.4510;1.2896;
-195.6000;0.4518;1.2872;
-195.3000;0.4526;1.2966;
-195.0000;0.4510;1.2966;
-194.7000;0.4510;1.2943;
-194.4000;0.4501;1.2872;
-194.1000;0.4493;1.2802;
-193.8000;0.4526;1.2825;
-193.5000;0.4510;1.2802;
-193.2000;0.4404;1.2497;
-192.9000;0.4526;1.2849;
-192.6000;0.4510;1.2872;
-192.3000;0.4518;1.2849;
-192.0000;0.4510;1.2896;
-191.7000;0.4510;1.2825;
-191.4000;0.4526;1.2802;
-191.1000;0.4493;1.2661;
-190.8000;0.4510;1.2685;
-190.5000;0.4510;1.2614;
-190.2000;0.4485;1.2567;
-189.9000;0.4526;1.2685;
-189.6000;0.4501;1.2685;
-189.3000;0.4624;1.3036;
-189.0000;0.4518;1.2708;
-188.7000;0.4518;1.2708;
-188.4000;0.4518;1.2755;
-188.1000;0.4518;1.2778;
-187.8000;0.4518;1.2778;
-187.5000;0.4575;1.2919;
-187.2000;0.4526;1.2825;
-186.9000;0.4542;1.2849;
-186.6000;0.4501;1.2802;
-186.3000;0.4518;1.2825;
-186.0000;0.4510;1.2872;
-185.7000;0.4518;1.2919;
-185.4000;0.4510;1.2919;
-185.1000;0.4518;1.2966;
-184.8000;0.4542;1.3036;
-184.5000;0.4510;1.2990;
-184.2000;0.4518;1.2990;
-183.9000;0.4518;1.2990;
-183.6000;0.4534;1.2990;
-183.3000;0.4501;1.2943;
-183.0000;0.4510;1.2896;
-182.7000;0.4501;1.2919;
-182.4000;0.4501;1.2872;
-182.1000;0.4526;1.2849;
-181.8000;0.4510;1.2755;
-181.5000;0.4501;1.2661;
-181.2000;0.4477;1.2567;
-180.9000;0.4518;1.2708;
-180.6000;0.4501;1.2638;
-180.3000;0.4493;1.2614;
-180.0000;0.4493;1.2638;
-179.7000;0.4518;1.2755;
-179.4000;0.4469;1.2685;
-179.1000;0.4567;1.2943;
-178.8000;0.4477;1.2802;
-178.5000;0.4477;1.2896;
-178.2000;0.4518;1.2896;
-177.9000;0.4501;1.2896;
-177.6000;0.4510;1.2919;
-177.3000;0.4526;1.2966;
-177.0000;0.4518;1.2896;
-176.7000;0.4526;1.2872;
-176.4000;0.4526;1.2872;
-176.1000;0.4493;1.2872;
-175.8000;0.4510;1.2919;
-175.5000;0.4493;1.2872;
-175.2000;0.4518;1.2919;
-174.9000;0.4526;1.2919;
-174.6000;0.4510;1.2872;
-174.3000;0.4534;1.2990;
-174.0000;0.4510;1.3013;
-173.7000;0.4575;1.3201;
-173.4000;0.4510;1.3036;
-173.1000;0.4534;1.3036;
-172.8000;0.4526;1.2990;
-172.5000;0.4493;1.2872;
-172.2000;0.4501;1.2872;
-171.9000;0.4518;1.2896;
-171.6000;0.4526;1.3013;
-171.3000;0.4518;1.3060;
-171.0000;0.4542;1.3130;
-170.7000;0.4526;1.3060;
-170.4000;0.4510;1.2990;
-170.1000;0.4526;1.2966;
-169.8000;0.4526;1.2919;
-169.5000;0.4518;1.2872;
-169.2000;0.4526;1.2825;
-168.9000;0.4501;1.2732;
-168.6000;0.4542;1.2802;
-168.3000;0.4518;1.2732;
-168.0000;0.4526;1.2802;
-167.7000;0.4444;1.2685;
-167.4000;0.4518;1.2825;
-167.1000;0.4485;1.2778;
-166.8000;0.4518;1.2849;
-166.5000;0.4542;1.2872;
-166.2000;0.4518;1.2849;
-165.9000;0.4558;1.2943;
-165.6000;0.4526;1.2825;
-165.3000;0.4510;1.2896;
-165.0000;0.4526;1.2919;
-164.7000;0.4534;1.2919;
-164.4000;0.4510;1.2872;
-164.1000;0.4501;1.2966;
-163.8000;0.4526;1.3013;
-163.5000;0.4518;1.2990;
-163.2000;0.4510;1.2990;
-162.9000;0.4591;1.3107;
-162.6000;0.4526;1.2943;
-162.3000;0.4526;1.2919;
-162.0000;0.4526;1.2872;
-161.7000;0.4526;1.2896;
-161.4000;0.4518;1.2943;
-161.1000;0.4518;1.2896;
-160.8000;0.4558;1.2966;
-160.5000;0.4436;1.2685;
-160.2000;0.4404;1.2638;
-159.9000;0.4428;1.2591;
-159.6000;0.4518;1.2661;
-159.3000;0.4501;1.2685;
-159.0000;0.4518;1.2755;
-158.7000;0.4501;1.2708;
-158.4000;0.4510;1.2778;
-158.1000;0.4510;1.2825;
-157.8000;0.4526;1.2825;
-157.5000;0.4501;1.2732;
-157.2000;0.4510;1.2708;
-156.9000;0.4510;1.2755;
-156.6000;0.4518;1.2849;
-156.3000;0.4526;1.2872;
-156.0000;0.4518;1.2943;
-155.7000;0.4493;1.2872;
-155.4000;0.4558;1.3083;
-155.1000;0.4477;1.2919;
-154.8000;0.4518;1.2966;
-154.5000;0.4526;1.2990;
-154.2000;0.4510;1.2990;
-153.9000;0.4526;1.2990;
-153.6000;0.4510;1.2849;
-153.3000;0.4493;1.2778;
-153.0000;0.4485;1.2872;
-152.7000;0.4510;1.2943;
-152.4000;0.4632;1.3318;
-152.1000;0.4510;1.3013;
-151.8000;0.4510;1.3013;
-151.5000;0.4501;1.2966;
-151.2000;0.4518;1.3036;
-150.9000;0.4518;1.3060;
-150.6000;0.4493;1.2849;
-150.3000;0.4526;1.2802;
-150.0000;0.4510;1.2802;
-149.7000;0.4526;1.2825;
-149.4000;0.4526;1.2802;
-149.1000;0.4526;1.2849;
-148.8000;0.4534;1.2896;
-148.5000;0.4534;1.2872;
-148.2000;0.4510;1.2825;
-147.9000;0.4510;1.2825;
-147.6000;0.4558;1.2919;
-147.3000;0.4501;1.2755;
-147.0000;0.4501;1.2802;
-146.7000;0.4542;1.2755;
-146.4000;0.4526;1.2755;
-146.1000;0.4534;1.2825;
-145.8000;0.4518;1.2825;
-145.5000;0.4501;1.2802;
-145.2000;0.4518;1.2919;
-144.9000;0.4469;1.2778;
-144.6000;0.4501;1.2943;
-144.3000;0.4501;1.2919;
-144.0000;0.4510;1.2896;
-143.7000;0.4477;1.2849;
-143.4000;0.4518;1.2943;
-143.1000;0.4501;1.2802;
-142.8000;0.4510;1.2825;
-142.5000;0.4518;1.2896;
-142.2000;0.4379;1.2544;
-141.9000;0.4510;1.2896;
-141.6000;0.4518;1.2966;
-141.3000;0.4534;1.2919;
-141.0000;0.4510;1.2872;
-140.7000;0.4518;1.2919;
-140.4000;0.4518;1.2849;
-140.1000;0.4510;1.2825;
-139.8000;0.4518;1.2825;
-139.5000;0.4518;1.2802;
-139.2000;0.4526;1.2872;
-138.9000;0.4510;1.2896;
-138.6000;0.4526;1.3013;
-138.3000;0.4518;1.2872;
-138.0000;0.4518;1.2872;
-137.7000;0.4510;1.2872;
-137.4000;0.4526;1.2849;
-137.1000;0.4526;1.2825;
-136.8000;0.4526;1.2849;
-136.5000;0.4550;1.2919;
-136.2000;0.4550;1.2966;
-135.9000;0.4501;1.2825;
-135.6000;0.4534;1.2849;
-135.3000;0.4542;1.2896;
-135.0000;0.4501;1.2778;
-134.7000;0.4501;1.2778;
-134.4000;0.4501;1.2732;
-134.1000;0.4550;1.2849;
-133.8000;0.4550;1.2802;
-133.5000;0.4542;1.2825;
-133.2000;0.4567;1.2896;
-132.9000;0.4518;1.2685;
-132.6000;0.4493;1.2661;
-132.3000;0.4510;1.2825;
-132.0000;0.4518;1.2778;
-131.7000;0.4510;1.2825;
-131.4000;0.4387;1.2591;
-131.1000;0.4461;1.2825;
-130.8000;0.4510;1.3036;
-130.5000;0.4526;1.2919;
-130.2000;0.4510;1.2849;
-129.9000;0.4510;1.2896;
-129.6000;0.4510;1.2943;
-129.3000;0.4493;1.2872;
-129.0000;0.4518;1.2919;
-128.7000;0.4518;1.2943;
-128.4000;0.4526;1.3013;
-128.1000;0.4526;1.2919;
-127.8000;0.4518;1.2919;
-127.5000;0.4501;1.2896;
-127.2000;0.4510;1.2919;
-126.9000;0.4518;1.2896;
-126.6000;0.4518;1.2896;
-126.3000;0.4534;1.2966;
-126.0000;0.4510;1.2919;
-125.7000;0.4534;1.2849;
-125.4000;0.4542;1.2896;
-125.1000;0.4518;1.2778;
-124.8000;0.4510;1.2825;
-124.5000;0.4526;1.2966;
-124.2000;0.4518;1.2966;
-123.9000;0.4510;1.2990;
-123.6000;0.4510;1.2990;
-123.3000;0.4510;1.2943;
-123.0000;0.4534;1.3013;
-122.7000;0.4518;1.2990;
-122.4000;0.4501;1.2943;
-122.1000;0.4501;1.2919;
-121.8000;0.4518;1.2943;
-121.5000;0.4510;1.2990;
-121.2000;0.4493;1.2990;
-120.9000;0.4485;1.2919;
-120.6000;0.4510;1.2943;
-120.3000;0.4518;1.2896;
-120.0000;0.4550;1.2943;
-119.7000;0.4518;1.2943;
-119.4000;0.4412;1.2755;
-119.1000;0.4518;1.3013;
-118.8000;0.4510;1.2943;
-118.5000;0.4510;1.2872;
-118.2000;0.4526;1.2825;
-117.9000;0.4567;1.2919;
-117.6000;0.4518;1.2802;
-117.3000;0.4542;1.2849;
-117.0000;0.4534;1.2896;
-116.7000;0.4534;1.2872;
-116.4000;0.4526;1.2825;
-116.1000;0.4518;1.2732;
-115.8000;0.4526;1.2755;
-115.5000;0.4526;1.2685;
-115.2000;0.4534;1.2708;
-114.9000;0.4575;1.2896;
-114.6000;0.4518;1.2685;
-114.3000;0.4493;1.2708;
-114.0000;0.4534;1.2755;
-113.7000;0.4501;1.2755;
-113.4000;0.4493;1.2755;
-113.1000;0.4501;1.2802;
-112.8000;0.4526;1.2849;
-112.5000;0.4518;1.2825;
-112.2000;0.4510;1.2825;
-111.9000;0.4510;1.2778;
-111.6000;0.4518;1.2778;
-111.3000;0.4526;1.2849;
-111.0000;0.4518;1.2732;
-110.7000;0.4534;1.2685;
-110.4000;0.4526;1.2685;
-110.1000;0.4510;1.2732;
-109.8000;0.4510;1.2685;
-109.5000;0.4518;1.2614;
-109.2000;0.4510;1.2708;
-108.9000;0.4518;1.2732;
-108.6000;0.4518;1.2708;
-108.3000;0.4526;1.2708;
-108.0000;0.4485;1.2614;
-107.7000;0.4534;1.2849;
-107.4000;0.4526;1.2872;
-107.1000;0.4518;1.2872;
-106.8000;0.4518;1.2849;
-106.5000;0.4518;1.2872;
-106.2000;0.4518;1.2872;
-105.9000;0.4510;1.2825;
-105.6000;0.4518;1.2872;
-105.3000;0.4534;1.2919;
-105.0000;0.4526;1.2896;
-104.7000;0.4518;1.2849;
-104.4000;0.4518;1.2778;
-104.1000;0.4518;1.2732;
-103.8000;0.4518;1.2755;
-103.5000;0.4526;1.2849;
-103.2000;0.4518;1.2778;
-102.9000;0.4518;1.2872;
-102.6000;0.4526;1.2943;
-102.3000;0.4526;1.3036;
-102.0000;0.4518;1.2990;
-101.7000;0.4518;1.3013;
-101.4000;0.4526;1.2966;
-101.1000;0.4518;1.2943;
-100.8000;0.4518;1.2896;
-100.5000;0.4526;1.2825;
-100.2000;0.4485;1.2825;
-99.9000;0.4477;1.2802;
-99.6000;0.4518;1.2872;
-99.3000;0.4493;1.2778;
-99.0000;0.4493;1.2802;
-98.7000;0.4510;1.2825;
-98.4000;0.4510;1.2849;
-98.1000;0.4518;1.2825;
-97.8000;0.4501;1.2755;
-97.5000;0.4510;1.2755;
-97.2000;0.4534;1.2849;
-96.9000;0.4526;1.2825;
-96.6000;0.4518;1.2825;
-96.3000;0.4526;1.2825;
-96.0000;0.4542;1.2990;
-95.7000;0.4518;1.2943;
-95.4000;0.4501;1.2966;
-95.1000;0.4510;1.3060;
-94.8000;0.4526;1.3036;
-94.5000;0.4510;1.3013;
-94.2000;0.4518;1.2966;
-93.9000;0.4518;1.2943;
-93.6000;0.4518;1.2990;
-93.3000;0.4510;1.2919;
-93.0000;0.4575;1.3060;
-92.7000;0.4501;1.2966;
-92.4000;0.4485;1.2966;
-92.1000;0.4518;1.3013;
-91.8000;0.4493;1.2919;
-91.5000;0.4518;1.2896;
-91.2000;0.4518;1.2825;
-90.9000;0.4542;1.2919;
-90.6000;0.4558;1.3130;
-90.3000;0.4518;1.3036;
-90.0000;0.4526;1.2943;
-89.7000;0.4526;1.2990;
-89.4000;0.4542;1.3013;
-89.1000;0.4526;1.3036;
-88.8000;0.4518;1.3060;
-88.5000;0.4510;1.2990;
-88.2000;0.4501;1.2919;
-87.9000;0.4501;1.2872;
-87.6000;0.4518;1.2919;
-87.3000;0.4510;1.2943;
-87.0000;0.4510;1.2919;
-86.7000;0.4501;1.2943;
-86.4000;0.4510;1.2990;
-86.1000;0.4518;1.3013;
-85.8000;0.4518;1.3060;
-85.5000;0.4534;1.3083;
-85.2000;0.4526;1.3177;
-84.9000;0.4526;1.3177;
-84.6000;0.4518;1.3154;
-84.3000;0.4632;1.3412;
-84.0000;0.4461;1.3013;
-83.7000;0.4510;1.3154;
-83.4000;0.4501;1.3130;
-83.1000;0.4518;1.3177;
-82.8000;0.4518;1.3107;
-82.5000;0.4542;1.3083;
-82.2000;0.4518;1.3083;
-81.9000;0.4526;1.3107;
-81.6000;0.4518;1.3036;
-81.3000;0.4510;1.3013;
-81.0000;0.4518;1.3013;
-80.7000;0.4526;1.3060;
-80.4000;0.4534;1.3013;
-80.1000;0.4542;1.3060;
-79.8000;0.4518;1.2943;
-79.5000;0.4526;1.2943;
-79.2000;0.4518;1.2943;
-78.9000;0.4510;1.2919;
-78.6000;0.4534;1.2990;
-78.3000;0.4518;1.2943;
-78.0000;0.4518;1.2966;
-77.7000;0.4534;1.2966;
-77.4000;0.4510;1.2990;
-77.1000;0.4501;1.2990;
-76.8000;0.4493;1.2872;
-76.5000;0.4510;1.2896;
-76.2000;0.4493;1.2849;
-75.9000;0.4518;1.2872;
-75.6000;0.4526;1.2849;
-75.3000;0.4510;1.2849;
-75.0000;0.4510;1.2966;
-74.7000;0.4534;1.2966;
-74.4000;0.4526;1.2872;
-74.1000;0.4510;1.2778;
-73.8000;0.4518;1.2825;
-73.5000;0.4501;1.2825;
-73.2000;0.4485;1.2755;
-72.9000;0.4518;1.2849;
-72.6000;0.4501;1.2802;
-72.3000;0.4485;1.2778;
-72.0000;0.4518;1.2896;
-71.7000;0.4501;1.2849;
-71.4000;0.4485;1.2755;
-71.1000;0.4510;1.2732;
-70.8000;0.4518;1.2755;
-70.5000;0.4510;1.2825;
-70.2000;0.4607;1.3130;
-69.9000;0.4534;1.2919;
-69.6000;0.4493;1.2849;
-69.3000;0.4501;1.2872;
-69.0000;0.4501;1.2872;
-68.7000;0.4526;1.2872;
-68.4000;0.4518;1.2872;
-68.1000;0.4526;1.2919;
-67.8000;0.4526;1.2872;
-67.5000;0.4518;1.2802;
-67.2000;0.4501;1.2825;
-66.9000;0.4485;1.2802;
-66.6000;0.4510;1.2919;
-66.3000;0.4518;1.3013;
-66.0000;0.4550;1.3013;
-65.7000;0.4510;1.2943;
-65.4000;0.4518;1.2872;
-65.1000;0.4510;1.2872;
-64.8000;0.4567;1.2966;
-64.5000;0.4534;1.2896;
-64.2000;0.4493;1.2896;
-63.9000;0.4534;1.2943;
-63.6000;0.4518;1.2919;
-63.3000;0.4485;1.2943;
-63.0000;0.4493;1.2919;
-62.7000;0.4510;1.2990;
-62.4000;0.4501;1.2990;
-62.1000;0.4518;1.3036;
-61.8000;0.4493;1.2849;
-61.5000;0.4501;1.2919;
-61.2000;0.4501;1.2872;
-60.9000;0.4510;1.2919;
-60.6000;0.4510;1.3013;
-60.3000;0.4510;1.3083;
-60.0000;0.4510;1.3083;
-59.7000;0.4510;1.3060;
-59.4000;0.4501;1.3013;
-59.1000;0.4526;1.3013;
-58.8000;0.4485;1.2966;
-58.5000;0.4534;1.3083;
-58.2000;0.4526;1.3130;
-57.9000;0.4518;1.3107;
-57.6000;0.4518;1.3060;
-57.3000;0.4510;1.3013;
-57.0000;0.4526;1.3036;
-56.7000;0.4526;1.3013;
-56.4000;0.4518;1.3060;
-56.1000;0.4542;1.2990;
-55.8000;0.4510;1.2919;
-55.5000;0.4518;1.2966;
-55.2000;0.4510;1.2896;
-54.9000;0.4510;1.2849;
-54.6000;0.4510;1.2919;
-54.3000;0.4550;1.2966;
-54.0000;0.4518;1.3013;
-53.7000;0.4387;1.2708;
-53.4000;0.4542;1.3130;
-53.1000;0.4518;1.3036;
-52.8000;0.4632;1.3341;
-52.5000;0.4510;1.3060;
-52.2000;0.4526;1.3083;
-51.9000;0.4534;1.3107;
-51.6000;0.4477;1.2896;
-51.3000;0.4542;1.3013;
-51.0000;0.4510;1.2872;
-50.7000;0.4510;1.2966;
-50.4000;0.4501;1.3013;
-50.1000;0.4510;1.2943;
-49.8000;0.4534;1.2919;
-49.5000;0.4493;1.2825;
-49.2000;0.4518;1.2943;
-48.9000;0.4493;1.2943;
-48.6000;0.4477;1.2966;
-48.3000;0.4518;1.3060;
-48.0000;0.4518;1.2966;
-47.7000;0.4461;1.2849;
-47.4000;0.4510;1.2966;
-47.1000;0.4534;1.2990;
-46.8000;0.4510;1.2802;
-46.5000;0.4510;1.2896;
-46.2000;0.4542;1.2919;
-45.9000;0.4518;1.2778;
-45.6000;0.4518;1.2778;
-45.3000;0.4420;1.2567;
-45.0000;0.4526;1.2825;
-44.7000;0.4599;1.2990;
-44.4000;0.4510;1.2802;
-44.1000;0.4542;1.2966;
-43.8000;0.4518;1.2943;
-43.5000;0.4526;1.3013;
-43.2000;0.4518;1.3013;
-42.9000;0.4526;1.3083;
-42.6000;0.4510;1.3013;
-42.3000;0.4526;1.3036;
-42.0000;0.4510;1.2943;
-41.7000;0.4526;1.2919;
-41.4000;0.4534;1.2896;
-41.1000;0.4542;1.2872;
-40.8000;0.4526;1.2755;
-40.5000;0.4518;1.2732;
-40.2000;0.4542;1.2755;
-39.9000;0.4510;1.2802;
-39.6000;0.4510;1.2849;
-39.3000;0.4599;1.3154;
-39.0000;0.4501;1.2896;
-38.7000;0.4534;1.2990;
-38.4000;0.4477;1.2896;
-38.1000;0.4510;1.3107;
-37.8000;0.4510;1.3036;
-37.5000;0.4379;1.2685;
-37.2000;0.4518;1.3036;
-36.9000;0.4518;1.2990;
-36.6000;0.4518;1.2872;
-36.3000;0.4510;1.2778;
-36.0000;0.4510;1.2825;
-35.7000;0.4510;1.2825;
-35.4000;0.4510;1.2896;
-35.1000;0.4518;1.2919;
-34.8000;0.4510;1.2919;
-34.5000;0.4510;1.2919;
-34.2000;0.4518;1.3036;
-33.9000;0.4526;1.3201;
-33.6000;0.4518;1.3224;
-33.3000;0.4510;1.3060;
-33.0000;0.4510;1.3036;
-32.7000;0.4518;1.3036;
-32.4000;0.4518;1.2966;
-32.1000;0.4518;1.2919;
-31.8000;0.4501;1.2919;
-31.5000;0.4526;1.2919;
-31.2000;0.4526;1.2943;
-30.9000;0.4444;1.2755;
-30.6000;0.4542;1.3013;
-30.3000;0.4534;1.2919;
-30.0000;0.4518;1.2849;
-29.7000;0.4510;1.2943;
-29.4000;0.4526;1.3107;
-29.1000;0.4542;1.3201;
-28.8000;0.4518;1.3130;
-28.5000;0.4526;1.3083;
-28.2000;0.4558;1.3224;
-27.9000;0.4583;1.3224;
-27.6000;0.4518;1.3013;
-27.3000;0.4575;1.3107;
-27.0000;0.4501;1.2896;
-26.7000;0.4518;1.2943;
-26.4000;0.4518;1.2896;
-26.1000;0.4526;1.2943;
-25.8000;0.4510;1.2919;
-25.5000;0.4518;1.3036;
-25.2000;0.4550;1.3083;
-24.9000;0.4510;1.3013;
-24.6000;0.4567;1.3224;
-24.3000;0.4501;1.3060;
-24.0000;0.4526;1.3107;
-23.7000;0.4526;1.3130;
-23.4000;0.4518;1.3107;
-23.1000;0.4493;1.3013;
-22.8000;0.4542;1.3130;
-22.5000;0.4518;1.3013;
-22.2000;0.4501;1.2990;
-21.9000;0.4518;1.3060;
-21.6000;0.4632;1.3318;
-21.3000;0.4518;1.3013;
-21.0000;0.4542;1.2966;
-20.7000;0.4624;1.3224;
-20.4000;0.4518;1.2966;
-20.1000;0.4534;1.2990;
-19.8000;0.4526;1.2896;
-19.5000;0.4518;1.2825;
-19.2000;0.4501;1.2685;
-18.9000;0.4526;1.2755;
-18.6000;0.4526;1.2755;
-18.3000;0.4534;1.2849;
-18.0000;0.4518;1.2849;
-17.7000;0.4518;1.2849;
-17.4000;0.4526;1.2802;
-17.1000;0.4526;1.2825;
-16.8000;0.4518;1.2943;
-16.5000;0.4518;1.2943;
-16.2000;0.4518;1.2919;
-15.9000;0.4526;1.2896;
-15.6000;0.4534;1.2755;
-15.3000;0.4510;1.2685;
-15.0000;0.4518;1.2755;
-14.7000;0.4493;1.2802;
-14.4000;0.4526;1.2825;
-14.1000;0.4518;1.2708;
-13.8000;0.4518;1.2755;
-13.5000;0.4518;1.2825;
-13.2000;0.4526;1.2825;
-12.9000;0.4518;1.2849;
-12.6000;0.4510;1.2802;
-12.3000;0.4558;1.2966;
-12.0000;0.4501;1.2825;
-11.7000;0.4501;1.2849;
-11.4000;0.4501;1.2896;
-11.1000;0.4518;1.2896;
-10.8000;0.4542;1.2896;
-10.5000;0.4510;1.2943;
-10.2000;0.4534;1.2990;
-9.9000;0.4526;1.2896;
-9.6000;0.4510;1.2825;
-9.3000;0.4526;1.2872;
-9.0000;0.4518;1.2872;
-8.7000;0.4518;1.2943;
-8.4000;0.4534;1.2943;
-8.1000;0.4510;1.2943;
-7.8000;0.4534;1.3013;
-7.5000;0.4518;1.2966;
-7.2000;0.4526;1.2966;
-6.9000;0.4526;1.3036;
-6.6000;0.4526;1.3036;
-6.3000;0.4518;1.3107;
-6.0000;0.4518;1.3154;
-5.7000;0.4510;1.3013;
-5.4000;0.4510;1.3060;
-5.1000;0.4526;1.3130;
-4.8000;0.4542;1.3177;
-4.5000;0.4534;1.3060;
-4.2000;0.4526;1.2990;
-3.9000;0.4469;1.2872;
-3.6000;0.4518;1.3013;
-3.3000;0.4510;1.2990;
-3.0000;0.4510;1.3036;
-2.7000;0.4485;1.2872;
-2.4000;0.4510;1.2943;
-2.1000;0.4518;1.2966;
-1.8000;0.4493;1.2896;
-1.5000;0.4510;1.2872;
-1.2000;0.4583;1.3036;
-0.9000;0.4510;1.2872;
-0.6000;0.4501;1.2825;
-0.3000;0.4493;1.2802;
0.0000;0.4493;1.2802;
0.3000;0.4689;1.2990;
0.6000;0.4982;1.3435;
0.9000;0.5210;1.4021;
1.2000;0.5340;1.4349;
1.5000;0.5503;1.4818;
1.8000;0.5551;1.4959;
2.1000;0.5714;1.5381;
2.4000;0.5788;1.5545;
2.7000;0.5836;1.5592;
3.0000;0.5918;1.5803;
3.3000;0.5934;1.5850;
3.6000;0.6015;1.6014;
3.9000;0.6015;1.6038;
4.2000;0.6089;1.6202;
4.5000;0.6105;1.6272;
4.8000;0.6129;1.6342;
5.1000;0.6081;1.6272;
5.4000;0.6154;1.6436;
5.7000;0.6195;1.6460;
6.0000;0.6219;1.6436;
6.3000;0.6227;1.6436;
6.6000;0.6276;1.6507;
6.9000;0.6252;1.6436;
7.2000;0.6414;1.6858;
7.5000;0.6309;1.6507;
7.8000;0.6333;1.6483;
8.1000;0.6357;1.6553;
8.4000;0.6374;1.6553;
8.7000;0.6349;1.6413;
9.0000;0.6382;1.6436;
9.3000;0.6398;1.6460;
9.6000;0.6422;1.6366;
9.9000;0.6422;1.6295;
10.2000;0.6447;1.6389;
10.5000;0.6455;1.6436;
10.8000;0.6447;1.6366;
11.1000;0.6471;1.6436;
11.4000;0.6471;1.6389;
11.7000;0.6431;1.6319;
12.0000;0.6512;1.6319;
12.3000;0.6528;1.6342;
12.6000;0.6520;1.6389;
12.9000;0.6536;1.6460;
13.2000;0.6553;1.6483;
13.5000;0.6553;1.6436;
13.8000;0.6561;1.6342;
14.1000;0.6528;1.6225;
14.4000;0.6561;1.6366;
14.7000;0.6585;1.6366;
15.0000;0.6569;1.6249;
15.3000;0.6593;1.6225;
15.6000;0.6610;1.6225;
15.9000;0.6602;1.6389;
16.2000;0.6618;1.6436;
16.5000;0.6642;1.6577;
16.8000;0.6626;1.6483;
17.1000;0.6634;1.6460;
17.4000;0.6659;1.6483;
17.7000;0.6626;1.6389;
18.0000;0.6634;1.6507;
18.3000;0.6659;1.6530;
18.6000;0.6675;1.6507;
18.9000;0.6667;1.6483;
19.2000;0.6642;1.6483;
19.5000;0.6667;1.6530;
19.8000;0.6659;1.6507;
20.1000;0.6667;1.6460;
20.4000;0.6683;1.6530;
20.7000;0.6683;1.6530;
21.0000;0.6675;1.6460;
21.3000;0.6724;1.6577;
21.6000;0.6707;1.6530;
21.9000;0.6675;1.6413;
22.2000;0.6707;1.6460;
22.5000;0.6707;1.6530;
22.8000;0.6781;1.6811;
23.1000;0.6724;1.6600;
23.4000;0.6724;1.6577;
23.7000;0.6740;1.6671;
24.0000;0.6740;1.6624;
24.3000;0.6740;1.6577;
24.6000;0.6732;1.6507;
24.9000;0.6740;1.6553;
25.2000;0.6748;1.6600;
25.5000;0.6732;1.6553;
25.8000;0.6732;1.6577;
26.1000;0.6732;1.6577;
26.4000;0.6748;1.6600;
26.7000;0.6764;1.6624;
27.0000;0.6748;1.6577;
27.3000;0.6764;1.6600;
27.6000;0.6748;1.6507;
27.9000;0.6781;1.6530;
28.2000;0.6772;1.6460;
28.5000;0.6764;1.6460;
28.8000;0.6764;1.6483;
29.1000;0.6789;1.6507;
29.4000;0.6772;1.6413;
29.7000;0.6756;1.6436;
30.0000;0.6772;1.6436;
30.3000;0.6789;1.6366;
30.6000;0.6805;1.6436;
30.9000;0.6764;1.6366;
31.2000;0.6789;1.6295;
31.5000;0.6797;1.6319;
31.8000;0.6789;1.6342;
32.1000;0.6789;1.6389;
32.4000;0.6797;1.6366;
32.7000;0.6797;1.6319;
33.0000;0.6797;1.6295;
33.3000;0.6805;1.6249;
33.6000;0.6797;1.6272;
33.9000;0.6789;1.6202;
34.2000;0.6829;1.6225;
34.5000;0.6813;1.6131;
34.8000;0.6813;1.6131;
35.1000;0.6805;1.6202;
35.4000;0.6805;1.6225;
35.7000;0.6789;1.6178;
36.0000;0.6813;1.6202;
36.3000;0.6813;1.6249;
36.6000;0.6813;1.6319;
36.9000;0.6821;1.6319;
37.2000;0.6813;1.6295;
37.5000;0.6838;1.6342;
37.8000;0.6821;1.6342;
38.1000;0.6781;1.6131;
38.4000;0.6789;1.6249;
38.7000;0.6821;1.6366;
39.0000;0.6838;1.6389;
39.3000;0.6829;1.6389;
39.6000;0.6829;1.6295;
39.9000;0.6829;1.6272;
40.2000;0.6829;1.6249;
40.5000;0.6829;1.6295;
40.8000;0.6829;1.6295;
41.1000;0.6789;1.6178;
41.4000;0.6821;1.6249;
41.7000;0.6862;1.6389;
42.0000;0.6846;1.6389;
42.3000;0.6846;1.6436;
42.6000;0.6821;1.6319;
42.9000;0.6862;1.6389;
43.2000;0.6854;1.6389;
43.5000;0.6854;1.6436;
43.8000;0.6862;1.6600;
44.1000;0.6846;1.6647;
44.4000;0.6862;1.6694;
44.7000;0.6797;1.6577;
45.0000;0.6846;1.6600;
45.3000;0.6813;1.6530;
45.6000;0.6838;1.6460;
45.9000;0.6805;1.6249;
46.2000;0.6829;1.6295;
46.5000;0.6838;1.6249;
46.8000;0.6870;1.6295;
47.1000;0.6927;1.6507;
47.4000;0.6846;1.6342;
47.7000;0.6781;1.6131;
48.0000;0.6854;1.6272;
48.3000;0.6862;1.6295;
48.6000;0.6838;1.6249;
48.9000;0.6862;1.6225;
49.2000;0.6870;1.6319;
49.5000;0.6854;1.6225;
49.8000;0.6862;1.6249;
50.1000;0.6935;1.6342;
50.4000;0.6870;1.6155;
50.7000;0.6878;1.6131;
51.0000;0.6829;1.6084;
51.3000;0.6870;1.6249;
51.6000;0.6862;1.6249;
51.9000;0.6854;1.6225;
52.2000;0.6846;1.6249;
52.5000;0.6878;1.6295;
52.8000;0.6854;1.6319;
53.1000;0.6870;1.6389;
53.4000;0.6862;1.6366;
53.7000;0.6854;1.6295;
54.0000;0.6870;1.6319;
54.3000;0.6862;1.6413;
54.6000;0.6854;1.6342;
54.9000;0.6870;1.6319;
55.2000;0.6870;1.6319;
55.5000;0.6781;1.6084;
55.8000;0.6854;1.6436;
56.1000;0.6878;1.6436;
56.4000;0.6862;1.6366;
56.7000;0.6829;1.6319;
57.0000;0.6862;1.6460;
57.3000;0.6862;1.6413;
57.6000;0.6854;1.6460;
57.9000;0.6854;1.6483;
58.2000;0.6854;1.6436;
58.5000;0.6846;1.6460;
58.8000;0.6862;1.6389;
59.1000;0.6838;1.6319;
59.4000;0.6878;1.6319;
59.7000;0.6878;1.6389;
60.0000;0.6838;1.6389;
60.3000;0.6805;1.6272;
60.6000;0.6870;1.6413;
60.9000;0.6870;1.6389;
61.2000;0.6854;1.6342;
61.5000;0.6878;1.6460;
61.8000;0.6870;1.6413;
62.1000;0.6854;1.6366;
62.4000;0.6870;1.6413;
62.7000;0.6870;1.6483;
63.0000;0.6805;1.6249;
63.3000;0.6968;1.6741;
63.6000;0.6870;1.6530;
63.9000;0.6886;1.6600;
64.2000;0.6903;1.6671;
64.5000;0.6878;1.6600;
64.8000;0.6895;1.6553;
65.1000;0.6903;1.6624;
65.4000;0.6895;1.6624;
65.7000;0.6878;1.6553;
66.0000;0.6870;1.6553;
66.3000;0.6878;1.6577;
66.6000;0.6895;1.6577;
66.9000;0.6878;1.6436;
67.2000;0.6878;1.6366;
67.5000;0.6862;1.6249;
67.8000;0.6862;1.6295;
68.1000;0.6870;1.6202;
68.4000;0.6862;1.6225;
68.7000;0.6862;1.6249;
69.0000;0.6886;1.6342;
69.3000;0.6878;1.6413;
69.6000;0.6878;1.6389;
69.9000;0.6870;1.6366;
70.2000;0.6960;1.6483;
70.5000;0.6911;1.6389;
70.8000;0.6895;1.6460;
71.1000;0.6895;1.6413;
71.4000;0.6886;1.6319;
71.7000;0.6829;1.6108;
72.0000;0.6943;1.6319;
72.3000;0.6805;1.5967;
72.6000;0.6903;1.6295;
72.9000;0.6911;1.6295;
73.2000;0.6870;1.6202;
73.5000;0.6895;1.6319;
73.8000;0.6886;1.6249;
74.1000;0.6813;1.5991;
74.4000;0.6870;1.6155;
74.7000;0.6895;1.6272;
75.0000;0.6895;1.6225;
75.3000;0.6895;1.6202;
75.6000;0.6911;1.6319;
75.9000;0.6886;1.6295;
76.2000;0.6870;1.6272;
76.5000;0.6903;1.6389;
76.8000;0.6895;1.6366;
77.1000;0.6903;1.6295;
77.4000;0.6895;1.6272;
77.7000;0.6919;1.6366;
78.0000;0.6895;1.6389;
78.3000;0.6919;1.6460;
78.6000;0.6895;1.6366;
78.9000;0.6886;1.6295;
79.2000;0.6886;1.6389;
79.5000;0.7009;1.6671;
79.8000;0.6797;1.6084;
80.1000;0.6870;1.6319;
80.4000;0.6886;1.6342;
80.7000;0.6838;1.6225;
81.0000;0.6878;1.6342;
81.3000;0.6878;1.6342;
81.6000;0.6878;1.6413;
81.9000;0.6878;1.6483;
82.2000;0.6895;1.6647;
82.5000;0.6886;1.6694;
82.8000;0.6870;1.6718;
83.1000;0.6895;1.6718;
83.4000;0.6895;1.6694;
83.7000;0.7000;1.6811;
84.0000;0.6886;1.6530;
84.3000;0.6886;1.6553;
84.6000;0.6895;1.6530;
84.9000;0.6838;1.6413;
85.2000;0.6903;1.6483;
85.5000;0.6903;1.6483;
85.8000;0.6919;1.6413;
86.1000;0.6903;1.6366;
86.4000;0.6886;1.6413;
86.7000;0.6878;1.6342;
87.0000;0.6805;1.5991;
87.3000;0.6797;1.5967;
87.6000;0.6886;1.6155;
87.9000;0.6984;1.6389;
88.2000;0.6911;1.6249;
88.5000;0.6895;1.6225;
88.8000;0.6878;1.6225;
89.1000;0.6886;1.6249;
89.4000;0.6854;1.6295;
89.7000;0.6895;1.6366;
90.0000;0.6886;1.6295;
90.3000;0.6862;1.6249;
90.6000;0.6952;1.6460;
90.9000;0.6911;1.6295;
91.2000;0.6886;1.6225;
91.5000;0.6895;1.6225;
91.8000;0.6838;1.6131;
92.1000;0.6895;1.6295;
92.4000;0.6886;1.6225;
92.7000;0.7033;1.6647;
93.0000;0.6878;1.6272;
93.3000;0.6903;1.6366;
93.6000;0.6919;1.6413;
93.9000;0.6886;1.6319;
94.2000;0.6862;1.6272;
94.5000;0.6911;1.6295;
94.8000;0.6895;1.6295;
95.1000;0.6903;1.6295;
95.4000;0.6895;1.6178;
95.7000;0.6919;1.6272;
96.0000;0.6903;1.6225;
96.3000;0.6911;1.6225;
96.6000;0.6919;1.6295;
96.9000;0.6911;1.6249;
97.2000;0.6903;1.6178;
97.5000;0.6903;1.6084;
97.8000;0.6895;1.6084;
98.1000;0.6919;1.6155;
98.4000;0.6911;1.6178;
98.7000;0.6919;1.6178;
99.0000;0.6911;1.6225;
99.3000;0.6903;1.6061;
99.6000;0.6911;1.6155;
99.9000;0.6919;1.6084;
100.2000;0.6911;1.6061;
100.5000;0.6895;1.6014;
100.8000;0.6895;1.6014;
101.1000;0.6927;1.6131;
101.4000;0.6903;1.6061;
101.7000;0.6895;1.6061;
102.0000;0.6878;1.6061;
102.3000;0.6903;1.6225;
102.6000;0.6903;1.6249;
102.9000;0.6895;1.6272;
103.2000;0.6886;1.6295;
103.5000;0.6903;1.6319;
103.8000;0.6895;1.6319;
104.1000;0.6878;1.6319;
104.4000;0.6911;1.6366;
104.7000;0.6886;1.6178;
105.0000;0.6895;1.6178;
105.3000;0.6903;1.6155;
105.6000;0.6911;1.6084;
105.9000;0.6903;1.6038;
106.2000;0.6895;1.5991;
106.5000;0.6895;1.5967;
106.8000;0.6878;1.5944;
107.1000;0.6895;1.6014;
107.4000;0.6895;1.6014;
107.7000;0.6862;1.6038;
108.0000;0.6911;1.6061;
108.3000;0.7000;1.6202;
108.6000;0.6927;1.5944;
108.9000;0.6886;1.5850;
109.2000;0.6919;1.5850;
109.5000;0.6911;1.5850;
109.8000;0.6943;1.5967;
110.1000;0.6919;1.5967;
110.4000;0.6911;1.5967;
110.7000;0.6895;1.5897;
111.0000;0.6903;1.5920;
111.3000;0.6919;1.5944;
111.6000;0.6911;1.5967;
111.9000;0.6903;1.5944;
112.2000;0.6895;1.5967;
112.5000;0.6903;1.5944;
112.8000;0.6862;1.5897;
113.1000;0.6903;1.5991;
113.4000;0.6911;1.5967;
113.7000;0.6903;1.5920;
114.0000;0.6903;1.6014;
114.3000;0.6911;1.6084;
114.6000;0.6895;1.6131;
114.9000;0.6886;1.6178;
115.2000;0.6911;1.6272;
115.5000;0.6911;1.6295;
115.8000;0.6903;1.6178;
116.1000;0.6927;1.6202;
116.4000;0.6911;1.6038;
116.7000;0.6943;1.6202;
117.0000;0.6911;1.6131;
117.3000;0.6895;1.6108;
117.6000;0.6968;1.6272;
117.9000;0.6895;1.6131;
118.2000;0.6903;1.6202;
118.5000;0.6903;1.6131;
118.8000;0.6895;1.6084;
119.1000;0.6903;1.5991;
119.4000;0.6903;1.5991;
119.7000;0.6903;1.5967;
120.0000;0.6886;1.6014;
120.3000;0.6903;1.6131;
120.6000;0.6919;1.6225;
120.9000;0.6903;1.6202;
121.2000;0.6886;1.6225;
121.5000;0.6903;1.6155;
121.8000;0.6903;1.6131;
122.1000;0.6895;1.6155;
122.4000;0.6886;1.6155;
122.7000;0.6895;1.6131;
123.0000;0.6895;1.6108;
123.3000;0.6886;1.6108;
123.6000;0.6895;1.6108;
123.9000;0.6903;1.6202;
124.2000;0.6911;1.6295;
124.5000;0.6927;1.6319;
124.8000;0.6903;1.6295;
125.1000;0.6886;1.6319;
125.4000;0.6895;1.6295;
125.7000;0.6862;1.6225;
126.0000;0.6886;1.6295;
126.3000;0.6903;1.6225;
126.6000;0.6846;1.6038;
126.9000;0.6886;1.6155;
127.2000;0.6829;1.5967;
127.5000;0.6886;1.6155;
127.8000;0.6911;1.6225;
128.1000;0.6895;1.6225;
128.4000;0.6895;1.6319;
128.7000;0.6911;1.6295;
129.0000;0.6911;1.6249;
129.3000;0.6911;1.6249;
129.6000;0.6903;1.6342;
129.9000;0.6911;1.6272;
130.2000;0.6935;1.6342;
130.5000;0.6919;1.6225;
130.8000;0.6919;1.6249;
131.1000;0.6919;1.6178;
131.4000;0.6919;1.6272;
131.7000;0.6903;1.6249;
132.0000;0.6927;1.6178;
132.3000;0.7025;1.6413;
132.6000;0.6895;1.6178;
132.9000;0.6927;1.6295;
133.2000;0.6919;1.6202;
133.5000;0.6903;1.6155;
133.8000;0.6878;1.6108;
134.1000;0.6895;1.6225;
134.4000;0.6919;1.6295;
134.7000;0.6919;1.6295;
135.0000;0.6935;1.6272;
135.3000;0.6919;1.6202;
135.6000;0.6960;1.6319;
135.9000;0.6911;1.6389;
136.2000;0.6903;1.6413;
136.5000;0.6903;1.6413;
136.8000;0.6886;1.6366;
137.1000;0.6878;1.6155;
137.4000;0.6903;1.6131;
137.7000;0.6895;1.6038;
138.0000;0.6895;1.6108;
138.3000;0.6903;1.6131;
138.6000;0.6854;1.6014;
138.9000;0.6919;1.6202;
139.2000;0.6878;1.6178;
139.5000;0.6911;1.6225;
139.8000;0.6903;1.6108;
140.1000;0.6903;1.6038;
140.4000;0.6935;1.6131;
140.7000;0.6911;1.6225;
141.0000;0.6903;1.6249;
141.3000;0.6911;1.6225;
141.6000;0.6895;1.6225;
141.9000;0.6886;1.6178;
142.2000;0.6895;1.6155;
142.5000;0.6919;1.6249;
142.8000;0.6911;1.6155;
143.1000;0.6886;1.6108;
143.4000;0.6903;1.6131;
143.7000;0.7000;1.6413;
144.0000;0.6911;1.6178;
144.3000;0.6789;1.5756;
144.6000;0.6911;1.6084;
144.9000;0.6911;1.6202;
145.2000;0.6911;1.6319;
145.5000;0.6895;1.6272;
145.8000;0.6919;1.6319;
146.1000;0.6911;1.6319;
146.4000;0.6935;1.6202;
146.7000;0.6911;1.6202;
147.0000;0.6911;1.6225;
147.3000;0.6846;1.6084;
147.6000;0.6919;1.6319;
147.9000;0.6911;1.6225;
148.2000;0.6886;1.6178;
148.5000;0.6911;1.6202;
148.8000;0.6903;1.6225;
149.1000;0.6895;1.6225;
149.4000;0.6886;1.6225;
149.7000;0.6935;1.6319;
150.0000;0.6895;1.6155;
150.3000;0.6911;1.6155;
150.6000;0.6919;1.6272;
150.9000;0.6895;1.6295;
151.2000;0.6919;1.6319;
151.5000;0.6960;1.6389;
151.8000;0.6903;1.6249;
152.1000;0.6886;1.6108;
152.4000;0.6886;1.6061;
152.7000;0.6960;1.6249;
153.0000;0.6829;1.6014;
153.3000;0.6903;1.6131;
153.6000;0.6911;1.6108;
153.9000;0.6919;1.6178;
154.2000;0.6878;1.6038;
154.5000;0.6903;1.6108;
154.8000;0.6870;1.6131;
155.1000;0.6911;1.6155;
155.4000;0.6911;1.6038;
155.7000;0.6895;1.5967;
156.0000;0.6903;1.5967;
156.3000;0.6895;1.5967;
156.6000;0.6895;1.5991;
156.9000;0.6927;1.6108;
157.2000;0.6895;1.6014;
157.5000;0.6895;1.6014;
157.8000;0.6886;1.5944;
158.1000;0.6935;1.6108;
158.4000;0.6919;1.6061;
158.7000;0.6895;1.6084;
159.0000;0.6927;1.6202;
159.3000;0.6911;1.6108;
159.6000;0.6919;1.6084;
159.9000;0.6829;1.5920;
160.2000;0.6895;1.6202;
160.5000;0.6903;1.6295;
160.8000;0.6911;1.6319;
161.1000;0.6911;1.6249;
161.4000;0.6927;1.6272;
161.7000;0.6919;1.6319;
162.0000;0.6903;1.6249;
162.3000;0.6911;1.6249;
162.6000;0.6911;1.6342;
162.9000;0.6903;1.6366;
163.2000;0.6952;1.6436;
163.5000;0.6903;1.6272;
163.8000;0.6903;1.6249;
164.1000;0.6903;1.6295;
164.4000;0.6935;1.6389;
164.7000;0.6895;1.6272;
165.0000;0.6895;1.6249;
165.3000;0.6903;1.6272;
165.6000;0.6903;1.6272;
165.9000;0.6952;1.6436;
166.2000;0.6838;1.6178;
166.5000;0.6927;1.6366;
166.8000;0.6919;1.6295;
167.1000;0.6911;1.6249;
167.4000;0.6821;1.5991;
167.7000;0.6911;1.6249;
168.0000;0.6911;1.6249;
168.3000;0.6919;1.6295;
168.6000;0.6911;1.6202;
168.9000;0.6919;1.6155;
169.2000;0.6919;1.6202;
169.5000;0.6911;1.6225;
169.8000;0.6919;1.6225;
170.1000;0.6911;1.6131;
170.4000;0.6911;1.6131;
170.7000;0.6903;1.6155;
171.0000;0.6911;1.6225;
171.3000;0.6919;1.6249;
171.6000;0.6911;1.6366;
171.9000;0.6903;1.6413;
172.2000;0.6911;1.6413;
172.5000;0.6911;1.6413;
172.8000;0.6927;1.6483;
173.1000;0.6911;1.6460;
173.4000;0.6919;1.6389;
173.7000;0.6927;1.6342;
174.0000;0.6911;1.6342;
174.3000;0.6935;1.6319;
174.6000;0.6935;1.6389;
174.9000;0.6919;1.6319;
175.2000;0.6911;1.6249;
175.5000;0.6960;1.6413;
175.8000;0.6903;1.6225;
176.1000;0.6903;1.6202;
176.4000;0.6911;1.6249;
176.7000;0.6903;1.6272;
177.0000;0.6919;1.6342;
177.3000;0.6919;1.6342;
177.6000;0.6903;1.6342;
177.9000;0.6911;1.6389;
178.2000;0.6935;1.6460;
178.5000;0.6919;1.6413;
178.8000;0.6911;1.6389;
179.1000;0.6911;1.6389;
179.4000;0.6903;1.6389;
179.7000;0.6927;1.6319;
180.0000;0.6968;1.6389;
180.3000;0.6927;1.6272;
180.6000;0.6895;1.6272;
180.9000;0.6895;1.6249;
181.2000;0.6919;1.6366;
181.5000;0.6935;1.6366;
181.8000;0.6911;1.6295;
182.1000;0.6927;1.6272;
182.4000;0.6911;1.6319;
182.7000;0.6895;1.6249;
183.0000;0.6911;1.6272;
183.3000;0.6903;1.6249;
183.6000;0.6919;1.6413;
183.9000;0.6911;1.6366;
184.2000;0.6903;1.6295;
184.5000;0.6911;1.6389;
184.8000;0.6952;1.6413;
185.1000;0.6895;1.6295;
185.4000;0.6903;1.6366;
185.7000;0.6886;1.6272;
186.0000;0.6911;1.6319;
186.3000;0.6927;1.6295;
186.6000;0.6878;1.6178;
186.9000;0.6854;1.6131;
187.2000;0.6838;1.6084;
187.5000;0.6903;1.6295;
187.8000;0.6903;1.6342;
188.1000;0.6943;1.6483;
188.4000;0.6911;1.6413;
188.7000;0.6935;1.6413;
189.0000;0.6943;1.6295;
189.3000;0.6878;1.6014;
189.6000;0.6911;1.6084;
189.9000;0.6789;1.5920;
190.2000;0.7025;1.6553;
190.5000;0.6911;1.6272;
190.8000;0.6919;1.6272;
191.1000;0.6895;1.6295;
191.4000;0.6886;1.6225;
191.7000;0.6886;1.6272;
192.0000;0.6903;1.6272;
192.3000;0.6927;1.6366;
192.6000;0.6927;1.6389;
192.9000;0.6911;1.6389;
193.2000;0.6935;1.6366;
193.5000;0.6927;1.6342;
193.8000;0.6911;1.6413;
194.1000;0.6911;1.6460;
194.4000;0.6903;1.6366;
194.7000;0.6895;1.6389;
195.0000;0.6911;1.6436;
195.3000;0.6919;1.6366;
195.6000;0.6911;1.6366;
195.9000;0.6911;1.6366;
196.2000;0.6895;1.6413;
196.5000;0.6903;1.6436;
196.8000;0.6903;1.6389;
197.1000;0.6903;1.6366;
197.4000;0.6919;1.6413;
197.7000;0.6919;1.6295;
198.0000;0.6943;1.6413;
198.3000;0.6927;1.6389;
198.6000;0.6903;1.6272;
198.9000;0.6919;1.6319;
199.2000;0.6935;1.6366;
199.5000;0.6903;1.6319;
199.8000;0.6919;1.6389;
200.1000;0.6911;1.6413;
200.4000;0.6903;1.6389;
200.7000;0.6911;1.6389;
201.0000;0.6919;1.6413;
201.3000;0.6919;1.6436;
201.6000;0.6927;1.6436;
201.9000;0.6911;1.6389;
202.2000;0.6935;1.6436;
202.5000;0.6895;1.6249;
202.8000;0.6919;1.6295;
203.1000;0.6870;1.6225;
203.4000;0.6976;1.6460;
203.7000;0.6895;1.6249;
204.0000;0.6919;1.6272;
204.3000;0.6895;1.6272;
204.6000;0.6919;1.6272;
204.9000;0.6895;1.6249;
205.2000;0.6895;1.6155;
205.5000;0.6919;1.6202;
205.8000;0.6927;1.6202;
206.1000;0.6919;1.6178;
206.4000;0.6919;1.6202;
206.7000;0.6895;1.6131;
207.0000;0.6870;1.6084;
207.3000;0.6927;1.6295;
207.6000;0.6919;1.6342;
207.9000;0.6911;1.6249;
208.2000;0.6903;1.6272;
208.5000;0.6911;1.6249;
208.8000;0.6903;1.6249;
209.1000;0.6919;1.6389;
209.4000;0.6886;1.6366;
209.7000;0.6903;1.6366;
210.0000;0.6927;1.6366;
210.3000;0.6903;1.6366;
210.6000;0.6895;1.6225;
210.9000;0.6919;1.6272;
211.2000;0.6903;1.6319;
211.5000;0.6911;1.6342;
211.8000;0.6903;1.6342;
212.1000;0.6927;1.6389;
212.4000;0.6911;1.6389;
212.7000;0.6903;1.6272;
213.0000;0.6846;1.6108;
213.3000;0.6911;1.6249;
213.6000;0.6903;1.6225;
213.9000;0.6911;1.6225;
214.2000;0.6895;1.6272;
214.5000;0.6895;1.6460;
214.8000;0.6895;1.6436;
215.1000;0.6911;1.6460;
215.4000;0.6895;1.6507;
215.7000;0.6870;1.6483;
216.0000;0.6911;1.6530;
216.3000;0.6903;1.6507;
216.6000;0.6903;1.6436;
216.9000;0.6911;1.6319;
217.2000;0.6919;1.6272;
217.5000;0.6903;1.6202;
217.8000;0.6911;1.6178;
218.1000;0.6895;1.6131;
218.4000;0.6903;1.6202;
218.7000;0.6919;1.6202;
219.0000;0.6903;1.6202;
219.3000;0.6903;1.6225;
219.6000;0.6911;1.6272;
219.9000;0.6903;1.6319;
220.2000;0.6911;1.6342;
220.5000;0.6911;1.6342;
220.8000;0.6911;1.6342;
221.1000;0.6911;1.6295;
221.4000;0.6911;1.6225;
221.7000;0.6854;1.6108;
222.0000;0.6919;1.6225;
222.3000;0.6911;1.6155;
222.6000;0.6911;1.6178;
222.9000;0.6911;1.6131;
223.2000;0.6919;1.6272;
223.5000;0.6927;1.6295;
223.8000;0.6943;1.6342;
224.1000;0.6960;1.6413;
224.4000;0.6886;1.6272;
224.7000;0.6911;1.6249;
225.0000;0.6984;1.6389;
225.3000;0.6870;1.6131;
225.6000;0.6911;1.6155;
225.9000;0.6976;1.6295;
226.2000;0.6927;1.6202;
226.5000;0.6903;1.6108;
226.8000;0.6919;1.6178;
227.1000;0.7033;1.6413;
227.4000;0.7017;1.6436;
227.7000;0.6935;1.6225;
228.0000;0.6919;1.6155;
228.3000;0.6943;1.6202;
228.6000;0.6911;1.6178;
228.9000;0.6976;1.6272;
229.2000;0.6911;1.6155;
229.5000;0.6886;1.6225;
229.8000;0.6886;1.6202;
230.1000;0.7033;1.6530;
230.4000;0.6903;1.6178;
230.7000;0.6911;1.6225;
231.0000;0.6821;1.5991;
231.3000;0.6919;1.6249;
231.6000;0.6919;1.6249;
231.9000;0.6895;1.6178;
232.2000;0.6895;1.6155;
232.5000;0.6911;1.6178;
232.8000;0.6911;1.6178;
233.1000;0.6895;1.6131;
233.4000;0.6911;1.6155;
233.7000;0.6911;1.6249;
234.0000;0.6927;1.6155;
234.3000;0.6927;1.6178;
234.6000;0.6903;1.6178;
234.9000;0.6943;1.6249;
235.2000;0.6911;1.6202;
235.5000;0.6919;1.6295;
235.8000;0.6895;1.6342;
236.1000;0.6911;1.6389;
236.4000;0.6919;1.6436;
236.7000;0.6895;1.6389;
237.0000;0.6805;1.6155;
237.3000;0.6919;1.6413;
237.6000;0.6911;1.6319;
237.9000;0.6935;1.6295;
238.2000;0.7000;1.6342;
238.5000;0.6919;1.6155;
238.8000;0.6911;1.6178;
239.1000;0.6919;1.6178;
239.4000;0.6919;1.6202;
239.7000;0.6911;1.6155;
240.0000;0.6919;1.6178;
240.3000;0.6919;1.6249;
240.6000;0.6919;1.6202;
240.9000;0.6927;1.6225;
241.2000;0.6911;1.6225;
241.5000;0.6903;1.6249;
241.8000;0.6903;1.6319;
242.1000;0.6919;1.6319;
242.4000;0.6911;1.6389;
242.7000;0.6903;1.6366;
243.0000;0.6919;1.6436;
243.3000;0.6935;1.6507;
243.6000;0.6903;1.6389;
243.9000;0.6935;1.6413;
244.2000;0.6911;1.6366;
244.5000;0.6870;1.6342;
244.8000;0.6895;1.6366;
245.1000;0.6903;1.6413;
245.4000;0.6895;1.6413;
245.7000;0.6895;1.6295;
246.0000;0.6895;1.6272;
246.3000;0.6895;1.6249;
246.6000;0.6895;1.6225;
246.9000;0.6911;1.6295;
247.2000;0.6903;1.6389;
247.5000;0.6903;1.6366;
247.8000;0.6919;1.6389;
248.1000;0.6927;1.6366;
248.4000;0.6919;1.6366;
248.7000;0.6903;1.6249;
249.0000;0.6919;1.6366;
249.3000;0.6911;1.6413;
249.6000;0.6919;1.6530;
249.9000;0.6878;1.6366;
250.2000;0.6895;1.6366;
250.5000;0.6903;1.6389;
250.8000;0.6919;1.6366;
251.1000;0.6943;1.6413;
251.4000;0.6878;1.6295;
251.7000;0.7017;1.6624;
252.0000;0.6911;1.6366;
252.3000;0.6895;1.6319;
252.6000;0.6903;1.6342;
252.9000;0.6903;1.6249;
253.2000;0.6895;1.6131;
253.5000;0.6976;1.6342;
253.8000;0.6919;1.6342;
254.1000;0.6886;1.6389;
254.4000;0.6903;1.6460;
254.7000;0.6903;1.6413;
255.0000;0.6886;1.6389;
255.3000;0.6919;1.6460;
255.6000;0.6903;1.6436;
255.9000;0.6927;1.6366;
256.2000;0.6911;1.6319;
256.5000;0.6919;1.6366;
256.8000;0.6911;1.6366;
257.1000;0.6911;1.6436;
257.4000;0.6903;1.6553;
257.7000;0.6911;1.6530;
258.0000;0.6935;1.6694;
258.3000;0.6903;1.6553;
258.6000;0.6919;1.6553;
258.9000;0.6895;1.6553;
259.2000;0.6903;1.6530;
259.5000;0.6911;1.6600;
259.8000;0.6854;1.6507;
260.1000;0.6903;1.6671;
260.4000;0.6895;1.6671;
260.7000;0.6886;1.6600;
261.0000;0.6805;1.6413;
261.3000;0.6903;1.6741;
261.6000;0.6903;1.6741;
261.9000;0.6911;1.6718;
262.2000;0.6903;1.6647;
262.5000;0.6911;1.6507;
262.8000;0.6927;1.6507;
263.1000;0.6911;1.6483;
263.4000;0.6911;1.6483;
263.7000;0.6927;1.6647;
264.0000;0.6919;1.6624;
264.3000;0.6919;1.6483;
264.6000;0.6903;1.6460;
264.9000;0.6935;1.6507;
265.2000;0.6960;1.6553;
265.5000;0.6919;1.6436;
265.8000;0.6895;1.6413;
266.1000;0.6927;1.6389;
266.4000;0.6919;1.6436;
266.7000;0.6903;1.6436;
267.0000;0.6911;1.6460;
267.3000;0.6927;1.6577;
267.6000;0.6919;1.6530;
267.9000;0.6919;1.6600;
268.2000;0.6903;1.6460;
268.5000;0.6927;1.6460;
268.8000;0.6919;1.6460;
269.1000;0.6895;1.6413;
269.4000;0.6903;1.6319;
269.7000;0.7017;1.6624;
270.0000;0.6903;1.6342;
270.3000;0.6911;1.6366;
270.6000;0.6911;1.6366;
270.9000;0.6886;1.6389;
271.2000;0.6903;1.6483;
271.5000;0.6968;1.6624;
271.8000;0.6903;1.6413;
272.1000;0.6903;1.6483;
272.4000;0.6935;1.6553;
272.7000;0.6919;1.6483;
273.0000;0.6943;1.6483;
273.3000;0.6903;1.6483;
273.6000;0.6960;1.6600;
273.9000;0.7017;1.6811;
274.2000;0.6903;1.6553;
274.5000;0.6903;1.6624;
274.8000;0.6903;1.6600;
275.1000;0.6919;1.6671;
275.4000;0.6911;1.6671;
275.7000;0.6911;1.6694;
276.0000;0.6919;1.6718;
276.3000;0.6895;1.6577;
276.6000;0.6919;1.6671;
276.9000;0.6943;1.6671;
277.2000;0.6895;1.6624;
277.5000;0.6919;1.6671;
277.8000;0.6903;1.6694;
278.1000;0.6886;1.6600;
278.4000;0.6927;1.6741;
278.7000;0.6911;1.6600;
279.0000;0.6927;1.6507;
279.3000;0.6919;1.6460;
279.6000;0.6943;1.6436;
279.9000;0.6935;1.6366;
280.2000;0.6943;1.6413;
280.5000;0.6919;1.6389;
280.8000;0.6878;1.6295;
281.1000;0.6911;1.6389;
281.4000;0.6935;1.6413;
281.7000;0.6895;1.6319;
282.0000;0.6911;1.6366;
282.3000;0.6895;1.6319;
282.6000;0.6911;1.6366;
282.9000;0.6821;1.6178;
283.2000;0.6935;1.6436;
283.5000;0.6903;1.6366;
283.8000;0.6895;1.6272;
284.1000;0.6911;1.6342;
284.4000;0.6911;1.6389;
284.7000;0.6968;1.6460;
285.0000;0.6886;1.6272;
285.3000;0.6895;1.6366;
285.6000;0.6911;1.6319;
285.9000;0.6911;1.6295;
286.2000;0.6919;1.6342;
286.5000;0.6911;1.6342;
286.8000;0.6911;1.6342;
287.1000;0.6935;1.6342;
287.4000;0.6903;1.6249;
287.7000;0.6903;1.6366;
288.0000;0.6911;1.6460;
288.3000;0.6919;1.6483;
288.6000;0.6903;1.6413;
288.9000;0.6935;1.6436;
289.2000;0.6911;1.6436;
289.5000;0.6919;1.6413;
289.8000;0.6911;1.6483;
290.1000;0.6895;1.6460;
290.4000;0.6919;1.6577;
290.7000;0.6935;1.6671;
291.0000;0.6935;1.6694;
291.3000;0.6911;1.6624;
291.6000;0.6960;1.6764;
291.9000;0.6919;1.6624;
292.2000;0.6911;1.6553;
292.5000;0.6911;1.6553;
292.8000;0.6911;1.6553;
293.1000;0.6903;1.6530;
293.4000;0.6911;1.6600;
293.7000;0.6805;1.6319;
294.0000;0.6952;1.6553;
294.3000;0.6903;1.6460;
294.6000;0.6895;1.6436;
294.9000;0.6903;1.6389;
295.2000;0.6895;1.6389;
295.5000;0.6895;1.6436;
295.8000;0.6919;1.6436;
296.1000;0.6919;1.6460;
296.4000;0.6911;1.6413;
296.7000;0.6895;1.6389;
297.0000;0.6911;1.6436;
297.3000;0.6927;1.6460;
297.6000;0.6911;1.6460;
297.9000;0.6919;1.6436;
298.2000;0.6895;1.6460;
298.5000;0.6903;1.6483;
298.8000;0.6903;1.6507;
299.1000;0.6968;1.6741;
299.4000;0.6870;1.6507;
299.7000;0.6772;1.6178;
300.0000;0.6919;1.6507;
300.3000;0.6878;1.6366;
300.6000;0.6895;1.6342;
300.9000;0.6903;1.6413;
301.2000;0.6927;1.6436;
301.5000;0.6919;1.6342;
301.8000;0.6846;1.6108;
302.1000;0.6927;1.6249;
302.4000;0.6927;1.6342;
302.7000;0.6943;1.6366;
303.0000;0.6911;1.6342;
303.3000;0.6911;1.6342;
303.6000;0.6927;1.6366;
303.9000;0.6903;1.6366;
304.2000;0.6878;1.6342;
304.5000;0.6895;1.6483;
304.8000;0.6886;1.6319;
305.1000;0.6903;1.6319;
305.4000;0.6895;1.6249;
305.7000;0.6870;1.6178;
306.0000;0.6911;1.6295;
306.3000;0.6919;1.6389;
306.6000;0.6903;1.6225;
306.9000;0.6870;1.6178;
307.2000;0.6813;1.5967;
307.5000;0.6911;1.6225;
307.8000;0.6911;1.6249;
308.1000;0.6895;1.6272;
308.4000;0.6895;1.6272;
308.7000;0.6911;1.6389;
309.0000;0.6911;1.6436;
309.3000;0.6919;1.6530;
309.6000;0.6911;1.6577;
309.9000;0.6911;1.6671;
310.2000;0.6927;1.6694;
310.5000;0.6911;1.6624;
310.8000;0.6911;1.6647;
311.1000;0.6911;1.6600;
311.4000;0.6895;1.6577;
311.7000;0.6911;1.6483;
312.0000;0.6911;1.6413;
312.3000;0.6911;1.6436;
312.6000;0.6919;1.6366;
312.9000;0.6919;1.6342;
313.2000;0.6911;1.6319;
313.5000;0.6927;1.6295;
313.8000;0.6919;1.6342;
314.1000;0.6919;1.6366;
314.4000;0.6911;1.6319;
314.7000;0.6919;1.6295;
315.0000;0.6943;1.6342;
315.3000;0.6919;1.6295;
315.6000;0.6911;1.6389;
315.9000;0.6903;1.6342;
316.2000;0.6903;1.6413;
316.5000;0.6911;1.6342;
316.8000;0.6911;1.6319;
317.1000;0.6903;1.6342;
317.4000;0.6886;1.6249;
317.7000;0.6927;1.6295;
318.0000;0.6935;1.6413;
318.3000;0.6911;1.6366;
318.6000;0.6903;1.6319;
318.9000;0.6911;1.6413;
319.2000;0.6927;1.6460;
319.5000;0.6903;1.6460;
319.8000;0.6911;1.6483;
320.1000;0.6911;1.6460;
320.4000;0.6919;1.6413;
320.7000;0.6903;1.6342;
321.0000;0.6813;1.6249;
321.3000;0.6903;1.6413;
321.6000;0.6911;1.6413;
321.9000;0.6903;1.6319;
322.2000;0.6895;1.6389;
322.5000;0.6903;1.6366;
322.8000;0.6903;1.6389;
323.1000;0.6854;1.6342;
323.4000;0.6911;1.6483;
323.7000;0.6903;1.6600;
324.0000;0.6919;1.6530;
324.3000;0.6911;1.6460;
324.6000;0.6911;1.6436;
324.9000;0.6903;1.6507;
325.2000;0.6886;1.6553;
325.5000;0.6919;1.6600;
325.8000;0.6927;1.6553;
326.1000;0.6903;1.6507;
326.4000;0.6911;1.6483;
326.7000;0.6878;1.6413;
327.0000;0.6911;1.6507;
327.3000;0.6919;1.6553;
327.6000;0.6919;1.6507;
327.9000;0.6903;1.6436;
328.2000;0.6911;1.6389;
328.5000;0.6903;1.6366;
328.8000;0.6886;1.6366;
329.1000;0.6911;1.6553;
329.4000;0.6911;1.6507;
329.7000;0.6911;1.6460;
330.0000;0.6903;1.6460;
330.3000;0.6911;1.6413;
330.6000;0.6927;1.6436;
330.9000;0.6919;1.6413;
331.2000;0.6903;1.6342;
331.5000;0.6927;1.6460;
331.8000;0.6927;1.6436;
332.1000;0.6895;1.6460;
332.4000;0.6903;1.6483;
332.7000;0.6903;1.6436;
333.0000;0.6903;1.6436;
333.3000;0.6903;1.6507;
333.6000;0.6903;1.6553;
333.9000;0.6911;1.6530;
334.2000;0.6927;1.6507;
334.5000;0.6919;1.6460;
334.8000;0.6919;1.6460;
335.1000;0.6895;1.6342;
335.4000;0.6927;1.6436;
335.7000;0.6903;1.6413;
336.0000;0.6919;1.6460;
336.3000;0.6911;1.6460;
336.6000;0.6919;1.6483;
336.9000;0.6911;1.6507;
337.2000;0.6919;1.6483;
337.5000;0.6919;1.6460;
337.8000;0.6895;1.6366;
338.1000;0.6911;1.6342;
338.4000;0.6919;1.6272;
338.7000;0.6862;1.6202;
339.0000;0.6911;1.6272;
339.3000;0.6911;1.6295;
339.6000;0.6919;1.6342;
339.9000;0.6903;1.6272;
340.2000;0.6903;1.6342;
340.5000;0.6895;1.6389;
340.8000;0.6927;1.6483;
341.1000;0.6911;1.6413;
341.4000;0.6903;1.6436;
341.7000;0.6903;1.6460;
342.0000;0.6911;1.6483;
342.3000;0.6943;1.6553;
342.6000;0.6911;1.6460;
342.9000;0.6903;1.6413;
343.2000;0.6911;1.6483;
343.5000;0.6870;1.6366;
343.8000;0.6886;1.6272;
344.1000;0.6911;1.6225;
344.4000;0.6895;1.6178;
344.7000;0.6935;1.6155;
345.0000;0.7009;1.6389;
345.3000;0.6911;1.6131;
345.6000;0.6911;1.6155;
345.9000;0.6911;1.6155;
346.2000;0.6968;1.6342;
346.5000;0.6862;1.6178;
346.8000;0.6903;1.6155;
347.1000;0.6903;1.6084;
347.4000;0.6895;1.6131;
347.7000;0.6911;1.6272;
348.0000;0.6878;1.6225;
348.3000;0.6919;1.6225;
348.6000;0.6919;1.6249;
348.9000;0.6886;1.6108;
349.2000;0.6911;1.6084;
349.5000;0.6903;1.6084;
349.8000;0.6911;1.6084;
350.1000;0.6911;1.6061;
350.4000;0.6895;1.6014;
350.7000;0.6903;1.6108;
351.0000;0.7049;1.6507;
351.3000;0.6911;1.6249;
351.6000;0.6903;1.6225;
351.9000;0.6886;1.6272;
352.2000;0.6911;1.6202;
352.5000;0.6919;1.6272;
352.8000;0.6903;1.6319;
353.1000;0.6903;1.6249;
353.4000;0.6895;1.6202;
353.7000;0.6895;1.6155;
354.0000;0.6903;1.6178;
354.3000;0.6911;1.6202;
354.6000;0.6911;1.6272;
354.9000;0.6895;1.6249;
355.2000;0.6927;1.6389;
355.5000;0.6911;1.6366;
355.8000;0.6903;1.6342;
356.1000;0.6903;1.6366;
356.4000;0.6911;1.6413;
356.7000;0.6911;1.6366;
357.0000;0.6911;1.6319;
357.3000;0.6911;1.6295;
357.6000;0.6919;1.6272;
357.9000;0.6927;1.6295;
358.2000;0.6903;1.6225;
358.5000;0.6903;1.6295;
358.8000;0.6895;1.6295;
359.1000;0.6903;1.6389;
359.4000;0.6903;1.6366;
359.7000;0.6903;1.6295;
360.0000;0.6911;1.6342;
360.3000;0.6911;1.6342;
360.6000;0.6886;1.6272;
360.9000;0.6935;1.6319;
361.2000;0.6919;1.6155;
361.5000;0.6943;1.6225;
361.8000;0.6903;1.6061;
362.1000;0.6903;1.6131;
362.4000;0.6886;1.6108;
362.7000;0.6911;1.6155;
363.0000;0.6927;1.6084;
363.3000;0.6886;1.5991;
363.6000;0.6911;1.6038;
363.9000;0.6903;1.6061;
364.2000;0.6927;1.6202;
364.5000;0.6903;1.6202;
364.8000;0.6903;1.6272;
365.1000;0.6903;1.6342;
365.4000;0.6911;1.6319;
365.7000;0.6911;1.6342;
366.0000;0.6895;1.6366;
366.3000;0.6878;1.6319;
366.6000;0.6919;1.6319;
366.9000;0.6911;1.6342;
367.2000;0.6935;1.6249;
367.5000;0.6911;1.6202;
367.8000;0.6919;1.6178;
368.1000;0.6919;1.6202;
368.4000;0.6903;1.6202;
368.7000;0.6903;1.6202;
369.0000;0.6927;1.6178;
369.3000;0.6919;1.6225;
369.6000;0.6903;1.6131;
369.9000;0.6903;1.6108;
370.2000;0.6919;1.6108;
370.5000;0.6911;1.6108;
370.8000;0.6903;1.6108;
371.1000;0.6952;1.6342;
371.4000;0.6895;1.6202;
371.7000;0.6895;1.6178;
372.0000;0.6927;1.6178;
372.3000;0.6952;1.6249;
372.6000;0.6935;1.6178;
372.9000;0.6903;1.6061;
373.2000;0.6911;1.6084;
373.5000;0.6911;1.6014;
373.8000;0.6903;1.6014;
374.1000;0.6903;1.6061;
374.4000;0.6903;1.6014;
374.7000;0.6903;1.6038;
375.0000;0.6878;1.6038;
375.3000;0.6903;1.6038;
375.6000;0.6984;1.6319;
375.9000;0.6911;1.6178;
376.2000;0.6911;1.6178;
376.5000;0.6911;1.6108;
376.8000;0.6903;1.6084;
377.1000;0.6927;1.6131;
377.4000;0.6911;1.5991;
377.7000;0.6927;1.5967;
378.0000;0.6821;1.5709;
378.3000;0.6911;1.5991;
378.6000;0.6903;1.6131;
378.9000;0.6927;1.6131;
379.2000;0.6919;1.6108;
379.5000;0.6903;1.6155;
379.8000;0.6911;1.6178;
380.1000;0.6919;1.6202;
380.4000;0.6911;1.6108;
380.7000;0.6911;1.6061;
381.0000;0.6813;1.5756;
381.3000;0.6911;1.6014;
381.6000;0.6903;1.5944;
381.9000;0.6903;1.5967;
382.2000;0.6862;1.5780;
382.5000;0.6862;1.5803;
382.8000;0.6903;1.5920;
383.1000;0.6846;1.5780;
383.4000;0.6919;1.5803;
383.7000;0.6886;1.5709;
384.0000;0.6919;1.5780;
384.3000;0.6903;1.5733;
384.6000;0.6895;1.5780;
384.9000;0.6919;1.5827;
385.2000;0.6895;1.5827;
385.5000;0.6903;1.5827;
385.8000;0.6886;1.5780;
386.1000;0.6927;1.5827;
386.4000;0.6927;1.5897;
386.7000;0.6903;1.5991;
387.0000;0.6911;1.6084;
387.3000;0.6911;1.6084;
387.6000;0.6919;1.6155;
387.9000;0.7041;1.6413;
388.2000;0.6919;1.6108;
388.5000;0.6903;1.6131;
388.8000;0.6927;1.6225;
389.1000;0.6919;1.6249;
389.4000;0.6911;1.6131;
389.7000;0.6911;1.6108;
390.0000;0.6919;1.6108;
390.3000;0.6878;1.6084;
390.6000;0.6919;1.6131;
390.9000;0.6911;1.6131;
391.2000;0.6935;1.6155;
391.5000;0.6943;1.6155;
391.8000;0.7074;1.6483;
392.1000;0.6919;1.6178;
392.4000;0.6903;1.6108;
392.7000;0.6919;1.6084;
393.0000;0.6927;1.6038;
393.3000;0.6838;1.5873;
393.6000;0.6911;1.6061;
393.9000;0.6895;1.6084;
394.2000;0.6821;1.5897;
394.5000;0.6895;1.5991;
394.8000;0.6878;1.5991;
395.1000;0.6903;1.6108;
395.4000;0.6919;1.6155;
395.7000;0.6968;1.6272;
396.0000;0.6797;1.5897;
396.3000;0.6919;1.6202;
396.6000;0.6943;1.6225;
396.9000;0.6903;1.6131;
397.2000;0.6895;1.6178;
397.5000;0.6911;1.6178;
397.8000;0.6911;1.6178;
398.1000;0.6895;1.6131;
398.4000;0.6911;1.6131;
398.7000;0.6886;1.6155;
399.0000;0.6878;1.6131;
399.3000;0.6927;1.6272;
399.6000;0.6895;1.6155;
399.9000;0.6895;1.6155;
400.2000;0.6935;1.6319;
400.5000;0.6919;1.6249;
400.8000;0.6911;1.6249;
401.1000;0.6903;1.6202;
401.4000;0.6903;1.6249;
401.7000;0.6895;1.6272;
402.0000;0.6895;1.6249;
402.3000;0.6927;1.6225;
402.6000;0.6903;1.6108;
402.9000;0.6911;1.6108;
403.2000;0.6886;1.6131;
403.5000;0.6903;1.6225;
403.8000;0.6911;1.6225;
404.1000;0.6919;1.6178;
404.4000;0.6919;1.6155;
404.7000;0.6927;1.6084;
405.0000;0.6911;1.6131;
405.3000;0.6903;1.6084;
405.6000;0.6911;1.6084;
405.9000;0.6903;1.6084;
406.2000;0.6911;1.6061;
406.5000;0.6911;1.6108;
406.8000;0.6903;1.6061;
407.1000;0.6895;1.5967;
407.4000;0.6903;1.5991;
407.7000;0.6886;1.5944;
408.0000;0.6903;1.6014;
408.3000;0.6878;1.5944;
408.6000;0.6903;1.6084;
408.9000;0.6886;1.6014;
409.2000;0.6911;1.6014;
409.5000;0.6927;1.6038;
409.8000;0.6911;1.5967;
410.1000;0.6927;1.6038;
410.4000;0.6919;1.5967;
410.7000;0.6862;1.5756;
411.0000;0.7000;1.6155;
411.3000;0.6886;1.5920;
411.6000;0.6903;1.5991;
411.9000;0.6805;1.5803;
412.2000;0.6895;1.6038;
412.5000;0.6870;1.5991;
412.8000;0.6903;1.6108;
413.1000;0.6927;1.6038;
413.4000;0.6919;1.6061;
413.7000;0.6935;1.6061;
414.0000;0.6919;1.6038;
414.3000;0.6911;1.6084;
414.6000;0.6903;1.6014;
414.9000;0.6911;1.6014;
415.2000;0.6886;1.5967;
415.5000;0.6976;1.6131;
415.8000;0.6919;1.5967;
416.1000;0.6895;1.5944;
416.4000;0.6943;1.6108;
416.7000;0.6903;1.6038;
417.0000;0.6895;1.6108;
417.3000;0.6862;1.6061;
417.6000;0.6870;1.6084;
417.9000;0.6911;1.6084;
418.2000;0.6911;1.6131;
418.5000;0.6911;1.6108;
418.8000;0.6895;1.6131;
419.1000;0.6878;1.6131;
419.4000;0.6911;1.6178;
419.7000;0.6903;1.6131;
420.0000;0.6935;1.6272;
420.3000;0.6911;1.6366;
420.6000;0.6919;1.6295;
420.9000;0.6919;1.6295;
421.2000;0.6927;1.6295;
421.5000;0.6919;1.6249;
421.8000;0.6960;1.6366;
422.1000;0.6903;1.6272;
422.4000;0.6911;1.6366;
422.7000;0.6960;1.6483;
423.0000;0.6903;1.6272;
423.3000;0.6911;1.6272;
423.6000;0.6903;1.6225;
423.9000;0.6919;1.6225;
424.2000;0.6911;1.6249;
424.5000;0.6919;1.6272;
424.8000;0.6919;1.6249;
425.1000;0.6911;1.6178;
425.4000;0.6927;1.6155;
425.7000;0.6903;1.6178;
426.0000;0.6903;1.6272;
426.3000;0.6903;1.6225;
426.6000;0.6903;1.6202;
426.9000;0.6911;1.6178;
427.2000;0.6919;1.6272;
427.5000;0.6911;1.6342;
427.8000;0.6976;1.6507;
428.1000;0.6895;1.6319;
428.4000;0.6903;1.6342;
428.7000;0.6895;1.6342;
429.0000;0.6903;1.6342;
429.3000;0.6919;1.6436;
429.6000;0.6919;1.6413;
429.9000;0.6911;1.6436;
430.2000;0.6911;1.6413;
430.5000;0.6903;1.6319;
430.8000;0.6911;1.6272;
431.1000;0.6895;1.6295;
431.4000;0.6878;1.6319;
431.7000;0.6911;1.6342;
432.0000;0.6911;1.6389;
432.3000;0.6903;1.6436;
432.6000;0.6935;1.6460;
432.9000;0.6903;1.6319;
433.2000;0.6911;1.6249;
433.5000;0.6886;1.6225;
433.8000;0.6911;1.6202;
434.1000;0.6911;1.6249;
434.4000;0.6895;1.6272;
434.7000;0.6927;1.6295;
435.0000;0.6772;1.5944;
435.3000;0.6895;1.6272;
435.6000;0.6895;1.6249;
435.9000;0.6838;1.6155;
436.2000;0.6805;1.6084;
436.5000;0.6911;1.6389;
436.8000;0.6878;1.6366;
437.1000;0.6903;1.6436;
437.4000;0.6886;1.6483;
437.7000;0.6903;1.6413;
438.0000;0.6919;1.6436;
438.3000;0.6927;1.6389;
438.6000;0.6911;1.6413;
438.9000;0.6903;1.6436;
439.2000;0.6870;1.6483;
439.5000;0.6895;1.6577;
439.8000;0.6903;1.6436;
440.1000;0.6919;1.6413;
440.4000;0.6911;1.6366;
440.7000;0.6919;1.6389;
441.0000;0.6878;1.6202;
441.3000;0.6854;1.6155;
441.6000;0.6919;1.6295;
441.9000;0.6943;1.6295;
442.2000;0.6976;1.6413;
442.5000;0.6919;1.6202;
442.8000;0.6952;1.6295;
443.1000;0.6960;1.6366;
443.4000;0.6903;1.6225;
443.7000;0.6903;1.6342;
444.0000;0.6919;1.6366;
444.3000;0.6911;1.6366;
444.6000;0.6886;1.6366;
444.9000;0.6927;1.6483;
445.2000;0.6927;1.6507;
445.5000;0.6903;1.6507;
445.8000;0.6903;1.6553;
446.1000;0.6911;1.6483;
446.4000;0.6919;1.6436;
446.7000;0.6911;1.6413;
447.0000;0.6919;1.6272;
447.3000;0.6903;1.6225;
447.6000;0.6911;1.6319;
447.9000;0.6919;1.6342;
448.2000;0.6911;1.6342;
448.5000;0.6903;1.6413;
448.8000;0.6919;1.6413;
449.1000;0.6903;1.6366;
449.4000;0.6911;1.6389;
449.7000;0.6895;1.6319;
450.0000;0.6895;1.6389;
450.3000;0.6919;1.6436;
450.6000;0.6911;1.6319;
450.9000;0.6895;1.6178;
451.2000;0.6903;1.6225;
451.5000;0.6911;1.6178;
451.8000;0.6895;1.6249;
452.1000;0.6911;1.6342;
452.4000;0.6911;1.6319;
452.7000;0.6903;1.6342;
453.0000;0.6911;1.6413;
453.3000;0.6943;1.6600;
453.6000;0.6927;1.6530;
453.9000;0.6911;1.6483;
454.2000;0.6911;1.6389;
454.5000;0.6903;1.6413;
454.8000;0.6886;1.6319;
455.1000;0.6846;1.6225;
455.4000;0.6903;1.6389;
455.7000;0.6886;1.6319;
456.0000;0.6911;1.6319;
456.3000;0.6870;1.6272;
456.6000;0.6903;1.6413;
456.9000;0.6797;1.6084;
457.2000;0.7074;1.6811;
457.5000;0.6813;1.6249;
457.8000;0.6911;1.6436;
458.1000;0.6911;1.6389;
458.4000;0.6911;1.6436;
458.7000;0.6911;1.6460;
459.0000;0.6911;1.6530;
459.3000;0.6911;1.6483;
459.6000;0.6919;1.6483;
459.9000;0.6903;1.6389;
460.2000;0.6895;1.6319;
460.5000;0.6911;1.6460;
460.8000;0.6903;1.6436;
461.1000;0.6935;1.6507;
461.4000;0.6911;1.6460;
461.7000;0.6911;1.6483;
462.0000;0.6911;1.6530;
462.3000;0.6870;1.6413;
462.6000;0.6903;1.6553;
462.9000;0.6911;1.6553;
463.2000;0.6886;1.6436;
463.5000;0.6935;1.6460;
463.8000;0.6984;1.6553;
464.1000;0.6903;1.6202;
464.4000;0.6919;1.6155;
464.7000;0.6903;1.6178;
465.0000;0.6935;1.6295;
465.3000;0.6911;1.6342;
465.6000;0.6911;1.6389;
465.9000;0.6903;1.6460;
466.2000;0.6911;1.6436;
466.5000;0.6895;1.6366;
466.8000;0.6886;1.6319;
467.1000;0.6911;1.6366;
467.4000;0.6911;1.6272;
467.7000;0.6854;1.6131;
468.0000;0.6919;1.6249;
468.3000;0.6886;1.6202;
468.6000;0.6919;1.6295;
468.9000;0.6789;1.5967;
469.2000;0.6911;1.6225;
469.5000;0.6911;1.6272;
469.8000;0.6976;1.6460;
470.1000;0.6927;1.6436;
470.4000;0.6903;1.6436;
470.7000;0.6895;1.6389;
471.0000;0.6911;1.6436;
471.3000;0.6895;1.6389;
471.6000;0.6903;1.6366;
471.9000;0.6895;1.6272;
472.2000;0.6903;1.6272;
472.5000;0.6919;1.6295;
472.8000;0.6911;1.6225;
473.1000;0.6935;1.6295;
473.4000;0.6903;1.6295;
473.7000;0.6911;1.6295;
474.0000;0.6911;1.6319;
474.3000;0.6895;1.6272;
474.6000;0.6903;1.6272;
474.9000;0.6895;1.6249;
475.2000;0.6903;1.6272;
475.5000;0.6895;1.6319;
475.8000;0.6903;1.6342;
476.1000;0.6903;1.6249;
476.4000;0.6911;1.6272;
476.7000;0.6903;1.6249;
477.0000;0.6878;1.6225;
477.3000;0.6960;1.6413;
477.6000;0.6952;1.6413;
477.9000;0.6903;1.6413;
478.2000;0.6911;1.6436;
478.5000;0.6911;1.6413;
478.8000;0.6911;1.6483;
479.1000;0.6870;1.6460;
479.4000;0.6960;1.6671;
479.7000;0.6927;1.6483;
480.0000;0.6903;1.6389;
480.3000;0.6911;1.6436;
480.6000;0.6821;1.6131;
480.9000;0.6927;1.6413;
481.2000;0.6911;1.6272;
481.5000;0.6919;1.6319;
481.8000;0.6886;1.6366;
482.1000;0.6878;1.6342;
482.4000;0.6886;1.6389;
482.7000;0.6895;1.6413;
483.0000;0.6878;1.6249;
483.3000;0.6886;1.6272;
483.6000;0.6886;1.6342;
483.9000;0.6878;1.6413;
484.2000;0.6862;1.6483;
484.5000;0.6886;1.6507;
484.8000;0.6895;1.6483;
485.1000;0.6895;1.6483;
485.4000;0.6911;1.6507;
485.7000;0.6903;1.6483;
486.0000;0.6895;1.6436;
486.3000;0.6895;1.6436;
486.6000;0.6911;1.6460;
486.9000;0.6903;1.6507;
487.2000;0.6895;1.6507;
487.5000;0.6895;1.6436;
487.8000;0.6911;1.6389;
488.1000;0.6911;1.6366;
488.4000;0.6789;1.6038;
488.7000;0.6895;1.6295;
489.0000;0.6911;1.6272;
489.3000;0.6911;1.6272;
489.6000;0.6935;1.6272;
489.9000;0.6895;1.6202;
490.2000;0.6895;1.6225;
490.5000;0.6903;1.6319;
490.8000;0.6952;1.6460;
491.1000;0.6895;1.6389;
491.4000;0.6870;1.6342;
491.7000;0.6976;1.6553;
492.0000;0.6895;1.6295;
492.3000;0.6911;1.6272;
492.6000;0.6895;1.6202;
492.9000;0.6895;1.6249;
493.2000;0.6878;1.6225;
493.5000;0.6895;1.6202;
493.8000;0.6895;1.6178;
494.1000;0.6903;1.6249;
494.4000;0.6895;1.6249;
494.7000;0.6911;1.6342;
495.0000;0.6886;1.6295;
495.3000;0.6886;1.6295;
495.6000;0.6927;1.6342;
495.9000;0.6911;1.6295;
496.2000;0.6886;1.6295;
496.5000;0.6903;1.6342;
496.8000;0.6919;1.6460;
497.1000;0.6903;1.6319;
497.4000;0.6911;1.6319;
497.7000;0.6903;1.6319;
498.0000;0.6919;1.6436;
498.3000;0.6911;1.6436;
498.6000;0.6911;1.6342;
498.9000;0.6903;1.6389;
499.2000;0.6895;1.6413;
499.5000;0.6911;1.6413;
499.8000;0.6903;1.6319;
500.1000;0.6903;1.6319;
500.4000;0.6911;1.6272;
500.7000;0.6903;1.6295;
501.0000;0.6927;1.6272;
501.3000;0.6895;1.6131;
501.6000;0.6886;1.6131;
501.9000;0.6903;1.6131;
502.2000;0.6903;1.6131;
502.5000;0.6911;1.6178;
502.8000;0.6927;1.6272;
503.1000;0.6895;1.6202;
503.4000;0.6870;1.6108;
503.7000;0.6870;1.6038;
504.0000;0.6870;1.5897;
504.3000;0.6935;1.5991;
504.6000;0.6895;1.5897;
504.9000;0.6903;1.6038;
505.2000;0.6895;1.6084;
505.5000;0.6878;1.5991;
505.8000;0.6903;1.6084;
506.1000;0.6911;1.6108;
506.4000;0.6878;1.6038;
506.7000;0.6911;1.6038;
507.0000;0.6919;1.6038;
507.3000;0.6911;1.6108;
507.6000;0.6895;1.6178;
507.9000;0.6895;1.6272;
508.2000;0.6919;1.6413;
508.5000;0.6895;1.6342;
508.8000;0.6878;1.6295;
509.1000;0.6968;1.6366;
509.4000;0.6927;1.6342;
509.7000;0.6903;1.6202;
510.0000;0.6846;1.6155;
510.3000;0.6895;1.6249;
510.6000;0.6886;1.6272;
510.9000;0.6976;1.6600;
511.2000;0.6903;1.6413;
511.5000;0.6992;1.6530;
511.8000;0.6862;1.6319;
512.1000;0.6952;1.6460;
512.4000;0.6903;1.6366;
512.7000;0.6878;1.6342;
513.0000;0.6895;1.6319;
513.3000;0.6911;1.6295;
513.6000;0.6911;1.6272;
513.9000;0.6903;1.6249;
514.2000;0.6886;1.6202;
514.5000;0.6903;1.6295;
514.8000;0.6895;1.6389;
515.1000;0.6895;1.6366;
515.4000;0.6919;1.6366;
515.7000;0.6886;1.6295;
516.0000;0.6878;1.6249;
516.3000;0.6886;1.6319;
516.6000;0.6878;1.6389;
516.9000;0.6911;1.6460;
517.2000;0.6911;1.6389;
517.5000;0.6903;1.6295;
517.8000;0.6895;1.6319;
518.1000;0.6919;1.6342;
518.4000;0.6911;1.6389;
518.7000;0.6903;1.6483;
519.0000;0.6927;1.6507;
519.3000;0.6903;1.6483;
519.6000;0.6886;1.6413;
519.9000;0.6895;1.6460;
520.2000;0.6911;1.6483;
520.5000;0.6911;1.6483;
520.8000;0.6895;1.6436;
521.1000;0.6903;1.6460;
521.4000;0.6911;1.6553;
521.7000;0.6911;1.6530;
522.0000;0.6895;1.6577;
522.3000;0.6895;1.6577;
522.6000;0.6927;1.6624;
522.9000;0.6919;1.6577;
523.2000;0.6911;1.6460;
523.5000;0.6895;1.6460;
523.8000;0.6911;1.6530;
524.1000;0.6903;1.6600;
524.4000;0.6895;1.6530;
524.7000;0.6903;1.6460;
525.0000;0.6927;1.6483;
525.3000;0.6886;1.6342;
525.6000;0.6903;1.6366;
525.9000;0.6878;1.6295;
526.2000;0.6935;1.6483;
526.5000;0.6911;1.6366;
526.8000;0.6886;1.6178;
527.1000;0.6919;1.6131;
527.4000;0.6903;1.6131;
527.7000;0.6895;1.6108;
528.0000;0.6838;1.6014;
528.3000;0.6903;1.6155;
528.6000;0.6919;1.6155;
528.9000;0.6886;1.6178;
529.2000;0.6903;1.6249;
529.5000;0.6895;1.6249;
529.8000;0.6903;1.6366;
530.1000;0.6911;1.6553;
530.4000;0.6895;1.6460;
530.7000;0.6903;1.6553;
531.0000;0.6895;1.6624;
531.3000;0.6943;1.6718;
531.6000;0.6919;1.6600;
531.9000;0.6862;1.6553;
532.2000;0.6895;1.6624;
532.5000;0.6870;1.6577;
532.8000;0.6911;1.6647;
533.1000;0.7041;1.7022;
533.4000;0.6854;1.6600;
533.7000;0.6895;1.6694;
534.0000;0.6854;1.6600;
534.3000;0.6862;1.6577;
534.6000;0.6903;1.6647;
534.9000;0.6886;1.6460;
535.2000;0.6781;1.6178;
535.5000;0.6911;1.6460;
535.8000;0.6919;1.6553;
536.1000;0.6911;1.6530;
536.4000;0.6878;1.6460;
536.7000;0.6903;1.6600;
537.0000;0.6903;1.6671;
537.3000;0.6895;1.6694;
537.6000;0.6919;1.6811;
537.9000;0.6886;1.6741;
538.2000;0.6895;1.6764;
538.5000;0.6911;1.6694;
538.8000;0.6911;1.6764;
539.1000;0.6903;1.6671;
539.4000;0.6911;1.6694;
539.7000;0.6878;1.6553;
540.0000;0.6895;1.6553;
540.3000;0.6911;1.6624;
540.6000;0.6895;1.6577;
540.9000;0.6878;1.6553;
541.2000;0.6895;1.6436;
541.5000;0.6895;1.6507;
541.8000;0.6878;1.6577;
542.1000;0.6903;1.6647;
542.4000;0.6903;1.6600;
542.7000;0.6895;1.6624;
543.0000;0.6911;1.6600;
543.3000;0.6895;1.6553;
543.6000;0.6895;1.6624;
543.9000;0.6903;1.6647;
544.2000;0.6903;1.6694;
544.5000;0.6919;1.6694;
544.8000;0.6903;1.6647;
545.1000;0.6878;1.6460;
545.4000;0.6878;1.6413;
545.7000;0.6911;1.6413;
546.0000;0.6886;1.6389;
546.3000;0.6903;1.6413;
546.6000;0.6862;1.6436;
546.9000;0.6903;1.6413;
547.2000;0.6903;1.6460;
547.5000;0.6903;1.6553;
547.8000;0.6870;1.6507;
548.1000;0.6886;1.6460;
548.4000;0.6886;1.6530;
548.7000;0.6870;1.6483;
549.0000;0.6854;1.6342;
549.3000;0.6895;1.6342;
549.6000;0.6903;1.6225;
549.9000;0.6911;1.6319;
550.2000;0.6886;1.6319;
550.5000;0.6895;1.6366;
550.8000;0.6943;1.6507;
551.1000;0.6846;1.6272;
551.4000;0.6903;1.6366;
551.7000;0.6895;1.6389;
552.0000;0.6895;1.6460;
552.3000;0.6870;1.6460;
552.6000;0.6878;1.6530;
552.9000;0.6878;1.6553;
553.2000;0.6911;1.6600;
553.5000;0.6903;1.6460;
553.8000;0.6895;1.6413;
554.1000;0.6903;1.6436;
554.4000;0.6854;1.6342;
554.7000;0.6903;1.6483;
555.0000;0.6886;1.6436;
555.3000;0.6886;1.6366;
555.6000;0.6895;1.6460;
555.9000;0.6903;1.6436;
556.2000;0.6919;1.6389;
556.5000;0.6911;1.6342;
556.8000;0.6903;1.6389;
557.1000;0.6911;1.6436;
557.4000;0.6903;1.6483;
557.7000;0.6903;1.6436;
558.0000;0.6886;1.6460;
558.3000;0.6878;1.6483;
558.6000;0.6886;1.6507;
558.9000;0.6903;1.6389;
559.2000;0.6911;1.6389;
559.5000;0.6886;1.6342;
559.8000;0.6903;1.6389;
560.1000;0.6919;1.6389;
560.4000;0.6911;1.6389;
560.7000;0.6895;1.6366;
561.0000;0.6919;1.6436;
561.3000;0.6903;1.6483;
561.6000;0.6911;1.6507;
561.9000;0.6919;1.6483;
562.2000;0.6886;1.6413;
562.5000;0.6911;1.6436;
562.8000;0.6878;1.6319;
563.1000;0.6886;1.6295;
563.4000;0.6878;1.6225;
563.7000;0.6903;1.6249;
564.0000;0.6878;1.6342;
564.3000;0.6895;1.6460;
564.6000;0.6903;1.6530;
564.9000;0.6886;1.6460;
565.2000;0.6911;1.6460;
565.5000;0.6919;1.6436;
565.8000;0.6895;1.6366;
566.1000;0.6919;1.6342;
566.4000;0.6911;1.6295;
566.7000;0.6903;1.6319;
567.0000;0.6895;1.6319;
567.3000;0.6878;1.6295;
567.6000;0.6903;1.6342;
567.9000;0.6862;1.6155;
568.2000;0.6895;1.6225;
568.5000;0.6903;1.6272;
568.8000;0.6903;1.6460;
569.1000;0.6911;1.6436;
569.4000;0.6870;1.6272;
569.7000;0.6903;1.6342;
570.0000;0.6870;1.6272;
570.3000;0.6895;1.6389;
570.6000;0.6870;1.6342;
570.9000;0.6895;1.6436;
571.2000;0.6870;1.6483;
571.5000;0.6878;1.6577;
571.8000;0.6903;1.6600;
572.1000;0.6903;1.6483;
572.4000;0.6911;1.6507;
572.7000;0.6829;1.6295;
573.0000;0.6838;1.6389;
573.3000;0.6919;1.6624;
573.6000;0.6960;1.6694;
573.9000;0.6886;1.6483;
574.2000;0.6919;1.6577;
574.5000;0.6919;1.6577;
574.8000;0.6919;1.6507;
575.1000;0.6895;1.6460;
575.4000;0.6895;1.6460;
575.7000;0.6895;1.6342;
576.0000;0.6838;1.6202;
576.3000;0.6878;1.6295;
576.6000;0.6903;1.6413;
576.9000;0.6886;1.6436;
577.2000;0.6895;1.6413;
577.5000;0.6911;1.6436;
577.8000;0.6903;1.6413;
578.1000;0.6895;1.6507;
578.4000;0.6903;1.6436;
578.7000;0.6886;1.6342;
579.0000;0.6895;1.6389;
579.3000;0.6895;1.6413;
579.6000;0.6895;1.6389;
579.9000;0.6886;1.6342;
580.2000;0.6878;1.6319;
580.5000;0.6895;1.6413;
580.8000;0.6878;1.6342;
581.1000;0.6886;1.6389;
581.4000;0.6886;1.6342;
581.7000;0.6919;1.6530;
582.0000;0.6919;1.6530;
582.3000;0.6895;1.6483;
582.6000;0.6911;1.6507;
582.9000;0.6911;1.6507;
583.2000;0.6919;1.6553;
583.5000;0.6911;1.6460;
583.8000;0.6813;1.6272;
584.1000;0.6895;1.6460;
584.4000;0.6903;1.6436;
584.7000;0.6895;1.6413;
585.0000;0.6886;1.6413;
585.3000;0.6878;1.6413;
585.6000;0.6886;1.6366;
585.9000;0.6886;1.6342;
586.2000;0.6903;1.6319;
586.5000;0.6919;1.6413;
586.8000;0.6911;1.6413;
587.1000;0.6903;1.6460;
587.4000;0.6903;1.6389;
587.7000;0.6903;1.6366;
588.0000;0.6911;1.6319;
588.3000;0.6895;1.6413;
588.6000;0.6886;1.6436;
588.9000;0.6870;1.6577;
589.2000;0.6878;1.6577;
589.5000;0.6903;1.6671;
589.8000;0.6903;1.6718;
590.1000;0.6886;1.6647;
590.4000;0.6870;1.6507;
590.7000;0.6886;1.6507;
591.0000;0.6911;1.6553;
591.3000;0.6895;1.6553;
591.6000;0.6903;1.6483;
591.9000;0.6903;1.6483;
592.2000;0.6911;1.6507;
592.5000;0.6919;1.6436;
592.8000;0.6919;1.6460;
593.1000;0.6919;1.6483;
593.4000;0.6919;1.6436;
593.7000;0.6927;1.6413;
594.0000;0.6895;1.6366;
594.3000;0.6895;1.6413;
594.6000;0.6886;1.6366;
594.9000;0.6878;1.6389;
595.2000;0.6862;1.6319;
595.5000;0.6895;1.6460;
595.8000;0.6870;1.6413;
596.1000;0.6895;1.6389;
596.4000;0.6911;1.6389;
596.7000;0.6878;1.6319;
597.0000;0.6870;1.6342;
597.3000;0.6895;1.6413;
597.6000;0.6903;1.6413;
597.9000;0.6895;1.6342;
598.2000;0.6838;1.6178;
598.5000;0.6903;1.6389;
598.8000;0.6886;1.6319;
599.1000;0.6903;1.6272;
599.4000;0.6919;1.6249;
599.7000;0.6952;1.6413;
600.0000;0.6732;1.5850;
600.3000;0.6919;1.6108;
600.6000;0.6870;1.5967;
600.9000;0.6829;1.5803;
601.2000;0.6878;1.5850;
601.5000;0.6895;1.5873;
601.8000;0.6764;1.5498;
602.1000;0.6740;1.5451;
602.4000;0.6699;1.5287;
602.7000;0.6659;1.5217;
603.0000;0.6602;1.5053;
603.3000;0.6553;1.4818;
603.6000;0.6520;1.4607;
603.9000;0.6496;1.4443;
604.2000;0.6447;1.4326;
604.5000;0.6398;1.4256;
604.8000;0.6374;1.4256;
605.1000;0.6341;1.4185;
605.4000;0.6252;1.3974;
605.7000;0.6252;1.3927;
606.0000;0.6357;1.4138;
606.3000;0.6260;1.3904;
606.6000;0.6178;1.3740;
606.9000;0.6146;1.3693;
607.2000;0.6105;1.3552;
607.5000;0.6105;1.3623;
607.8000;0.6089;1.3716;
608.1000;0.6081;1.3646;
608.4000;0.6015;1.3576;
608.7000;0.6015;1.3576;
609.0000;0.6007;1.3576;
609.3000;0.5958;1.3482;
609.6000;0.5975;1.3529;
609.9000;0.5942;1.3482;
610.2000;0.5893;1.3458;
610.5000;0.5893;1.3529;
610.8000;0.5796;1.3388;
611.1000;0.5828;1.3388;
611.4000;0.5820;1.3365;
611.7000;0.5804;1.3294;
612.0000;0.5771;1.3224;
612.3000;0.5779;1.3224;
612.6000;0.5747;1.3130;
612.9000;0.5722;1.3130;
613.2000;0.5714;1.3107;
613.5000;0.5690;1.3107;
613.8000;0.5674;1.3107;
614.1000;0.5674;1.3107;
614.4000;0.5657;1.3083;
614.7000;0.5633;1.3154;
615.0000;0.5608;1.3271;
615.3000;0.5608;1.3247;
615.6000;0.5592;1.3177;
615.9000;0.5560;1.3177;
616.2000;0.5543;1.3177;
616.5000;0.5543;1.3177;
616.8000;0.5535;1.3201;
617.1000;0.5527;1.3224;
617.4000;0.5511;1.3224;
617.7000;0.5470;1.3177;
618.0000;0.5478;1.3154;
618.3000;0.5405;1.3013;
618.6000;0.5446;1.3083;
618.9000;0.5446;1.3060;
619.2000;0.5372;1.2943;
619.5000;0.5389;1.3013;
619.8000;0.5397;1.3060;
620.1000;0.5389;1.3107;
620.4000;0.5389;1.3154;
620.7000;0.5356;1.3036;
621.0000;0.5372;1.3154;
621.3000;0.5315;1.3013;
621.6000;0.5348;1.3013;
621.9000;0.5324;1.2943;
622.2000;0.5307;1.2872;
622.5000;0.5299;1.2849;
622.8000;0.5283;1.2872;
623.1000;0.5340;1.3036;
623.4000;0.5258;1.2849;
623.7000;0.5267;1.2872;
624.0000;0.5250;1.2872;
624.3000;0.5250;1.2896;
624.6000;0.5210;1.2802;
624.9000;0.5218;1.2825;
625.2000;0.5193;1.2849;
625.5000;0.5234;1.2990;
625.8000;0.5193;1.2872;
626.1000;0.5144;1.2825;
626.4000;0.5185;1.2990;
626.7000;0.5169;1.2990;
627.0000;0.5153;1.2896;
627.3000;0.5267;1.3177;
627.6000;0.5128;1.2849;
627.9000;0.5112;1.2778;
628.2000;0.5136;1.2825;
628.5000;0.5104;1.2778;
628.8000;0.5104;1.2778;
629.1000;0.5039;1.2708;
629.4000;0.5071;1.2755;
629.7000;0.5079;1.2778;
630.0000;0.5088;1.2849;
630.3000;0.5120;1.2966;
630.6000;0.5063;1.2849;
630.9000;0.5063;1.2896;
631.2000;0.5055;1.2943;
631.5000;0.5022;1.2896;
631.8000;0.5031;1.2943;
632.1000;0.5071;1.2990;
632.4000;0.5022;1.2825;
632.7000;0.4965;1.2685;
633.0000;0.4998;1.2732;
633.3000;0.5006;1.2708;
633.6000;0.4990;1.2732;
633.9000;0.4982;1.2778;
634.2000;0.4957;1.2708;
634.5000;0.4965;1.2732;
634.8000;0.4925;1.2708;
635.1000;0.4974;1.2778;
635.4000;0.4957;1.2802;
635.7000;0.4965;1.2849;
636.0000;0.4957;1.2778;
636.3000;0.4949;1.2849;
636.6000;0.4933;1.2849;
636.9000;0.4933;1.2849;
637.2000;0.4925;1.2802;
637.5000;0.4941;1.2778;
637.8000;0.4925;1.2661;
638.1000;0.4900;1.2638;
638.4000;0.4908;1.2638;
638.7000;0.4884;1.2661;
639.0000;0.4900;1.2802;
639.3000;0.4876;1.2755;
639.6000;0.4868;1.2802;
639.9000;0.4908;1.2872;
640.2000;0.4860;1.2685;
640.5000;0.4860;1.2732;
640.8000;0.4868;1.2685;
641.1000;0.4884;1.2755;
641.4000;0.4851;1.2685;
641.7000;0.4843;1.2732;
642.0000;0.4835;1.2732;
642.3000;0.4827;1.2732;
642.6000;0.4835;1.2732;
642.9000;0.4811;1.2497;
643.2000;0.4827;1.2497;
643.5000;0.4819;1.2403;
643.8000;0.4811;1.2356;
644.1000;0.4819;1.2450;
644.4000;0.4827;1.2474;
644.7000;0.4737;1.2380;
645.0000;0.4794;1.2544;
645.3000;0.4794;1.2544;
645.6000;0.4803;1.2591;
645.9000;0.4794;1.2591;
646.2000;0.4786;1.2567;
646.5000;0.4786;1.2708;
646.8000;0.4851;1.2872;
647.1000;0.4762;1.2802;
647.4000;0.4770;1.2825;
647.7000;0.4786;1.2849;
648.0000;0.4746;1.2849;
648.3000;0.4746;1.2778;
648.6000;0.4827;1.3013;
648.9000;0.4746;1.2802;
649.2000;0.4770;1.2872;
649.5000;0.4794;1.2896;
649.8000;0.4729;1.2755;
650.1000;0.4705;1.2802;
650.4000;0.4762;1.2849;
650.7000;0.4721;1.2732;
651.0000;0.4721;1.2732;
651.3000;0.4762;1.2919;
651.6000;0.4737;1.2872;
651.9000;0.4705;1.2755;
652.2000;0.4721;1.2825;
652.5000;0.4705;1.2755;
652.8000;0.4713;1.2802;
653.1000;0.4746;1.2896;
653.4000;0.4689;1.2825;
653.7000;0.4737;1.2990;
654.0000;0.4705;1.2849;
654.3000;0.4672;1.2778;
654.6000;0.4689;1.2872;
654.9000;0.4664;1.2732;
655.2000;0.4664;1.2732;
655.5000;0.4664;1.2732;
655.8000;0.4640;1.2732;
656.1000;0.4648;1.2802;
656.4000;0.4664;1.2872;
656.7000;0.4681;1.2802;
657.0000;0.4664;1.2802;
657.3000;0.4640;1.2849;
657.6000;0.4632;1.2685;
657.9000;0.4656;1.2802;
658.2000;0.4664;1.2778;
658.5000;0.4640;1.2708;
658.8000;0.4664;1.2825;
659.1000;0.4664;1.2755;
659.4000;0.4640;1.2732;
659.7000;0.4640;1.2708;
660.0000;0.4640;1.2755;
660.3000;0.4640;1.2732;
660.6000;0.4632;1.2685;
660.9000;0.4632;1.2661;
661.2000;0.4648;1.2661;
661.5000;0.4640;1.2638;
661.8000;0.4632;1.2638;
662.1000;0.4624;1.2708;
662.4000;0.4640;1.2732;
662.7000;0.4624;1.2732;
663.0000;0.4640;1.2708;
663.3000;0.4632;1.2732;
663.6000;0.4615;1.2708;
663.9000;0.4591;1.2685;
664.2000;0.4632;1.2778;
664.5000;0.4607;1.2755;
664.8000;0.4599;1.2708;
665.1000;0.4591;1.2732;
665.4000;0.4624;1.2778;
665.7000;0.4599;1.2661;
666.0000;0.4583;1.2685;
666.3000;0.4599;1.2661;
666.6000;0.4615;1.2685;
666.9000;0.4591;1.2685;
667.2000;0.4558;1.2544;
667.5000;0.4558;1.2567;
667.8000;0.4599;1.2685;
668.1000;0.4558;1.2638;
668.4000;0.4599;1.2614;
668.7000;0.4485;1.2380;
669.0000;0.4583;1.2591;
669.3000;0.4583;1.2614;
669.6000;0.4510;1.2450;
669.9000;0.4575;1.2685;
670.2000;0.4575;1.2685;
670.5000;0.4469;1.2450;
670.8000;0.4591;1.2872;
671.1000;0.4567;1.2849;
671.4000;0.4550;1.2802;
671.7000;0.4567;1.2802;
672.0000;0.4558;1.2802;
672.3000;0.4567;1.2802;
672.6000;0.4558;1.2778;
672.9000;0.4567;1.2825;
673.2000;0.4567;1.2849;
673.5000;0.4558;1.2802;
673.8000;0.4558;1.2802;
674.1000;0.4567;1.2849;
674.4000;0.4550;1.2849;
674.7000;0.4542;1.2755;
675.0000;0.4558;1.2732;
675.3000;0.4575;1.2872;
675.6000;0.4542;1.2778;
675.9000;0.4550;1.2708;
676.2000;0.4550;1.2661;
676.5000;0.4534;1.2521;
676.8000;0.4526;1.2544;
677.1000;0.4558;1.2591;
677.4000;0.4534;1.2614;
677.7000;0.4542;1.2708;
678.0000;0.4534;1.2778;
678.3000;0.4526;1.2778;
678.6000;0.4526;1.2732;
678.9000;0.4534;1.2685;
679.2000;0.4518;1.2685;
679.5000;0.4534;1.2685;
679.8000;0.4518;1.2708;
680.1000;0.4526;1.2778;
680.4000;0.4526;1.2755;
680.7000;0.4518;1.2802;
681.0000;0.4518;1.2778;
681.3000;0.4501;1.2661;
681.6000;0.4518;1.2638;
681.9000;0.4428;1.2497;
682.2000;0.4518;1.2685;
682.5000;0.4510;1.2685;
682.8000;0.4493;1.2567;
683.1000;0.4501;1.2614;
683.4000;0.4501;1.2614;
683.7000;0.4518;1.2708;
684.0000;0.4501;1.2685;
684.3000;0.4526;1.2685;
684.6000;0.4510;1.2638;
684.9000;0.4501;1.2614;
685.2000;0.4526;1.2638;
685.5000;0.4485;1.2567;
685.8000;0.4510;1.2591;
686.1000;0.4493;1.2638;
686.4000;0.4469;1.2591;
686.7000;0.4485;1.2544;
687.0000;0.4493;1.2638;
687.3000;0.4501;1.2732;
687.6000;0.4493;1.2708;
687.9000;0.4485;1.2708;
688.2000;0.4485;1.2685;
688.5000;0.4485;1.2614;
688.8000;0.4461;1.2591;
689.1000;0.4501;1.2685;
689.4000;0.4477;1.2614;
689.7000;0.4501;1.2708;
690.0000;0.4501;1.2732;
690.3000;0.4485;1.2755;
690.6000;0.4485;1.2755;
690.9000;0.4493;1.2778;
691.2000;0.4363;1.2497;
691.5000;0.4485;1.2919;
691.8000;0.4453;1.2778;
692.1000;0.4461;1.2755;
692.4000;0.4510;1.2849;
692.7000;0.4477;1.2661;
693.0000;0.4469;1.2802;
693.3000;0.4428;1.2708;
693.6000;0.4436;1.2661;
693.9000;0.4314;1.2286;
694.2000;0.4453;1.2661;
694.5000;0.4355;1.2380;
694.8000;0.4469;1.2708;
695.1000;0.4469;1.2732;
695.4000;0.4461;1.2638;
695.7000;0.4453;1.2591;
696.0000;0.4453;1.2591;
696.3000;0.4428;1.2521;
696.6000;0.4461;1.2685;
696.9000;0.4526;1.2872;
697.2000;0.4453;1.2708;
697.5000;0.4493;1.2825;
697.8000;0.4444;1.2778;
698.1000;0.4444;1.2755;
698.4000;0.4428;1.2732;
698.7000;0.4444;1.2778;
699.0000;0.4444;1.2732;
699.3000;0.4444;1.2708;
699.6000;0.4444;1.2661;
699.9000;0.4444;1.2661;
700.2000;0.4444;1.2755;
700.5000;0.4420;1.2708;
700.8000;0.4453;1.2802;
701.1000;0.4428;1.2732;
701.4000;0.4436;1.2802;
701.7000;0.4461;1.2872;
702.0000;0.4444;1.2849;
702.3000;0.4436;1.2849;
702.6000;0.4461;1.2919;
702.9000;0.4444;1.2849;
703.2000;0.4444;1.2872;
703.5000;0.4428;1.2732;
703.8000;0.4469;1.2708;
704.1000;0.4453;1.2661;
704.4000;0.4412;1.2614;
704.7000;0.4428;1.2708;
705.0000;0.4428;1.2778;
705.3000;0.4428;1.2802;
705.6000;0.4420;1.2802;
705.9000;0.4444;1.2825;
706.2000;0.4453;1.2943;
706.5000;0.4453;1.3013;
706.8000;0.4436;1.2872;
707.1000;0.4444;1.2802;
707.4000;0.4412;1.2708;
707.7000;0.4428;1.2661;
708.0000;0.4436;1.2591;
708.3000;0.4436;1.2614;
708.6000;0.4428;1.2661;
708.9000;0.4436;1.2638;
709.2000;0.4428;1.2685;
709.5000;0.4404;1.2685;
709.8000;0.4420;1.2778;
710.1000;0.4412;1.2732;
710.4000;0.4420;1.2685;
710.7000;0.4436;1.2685;
711.0000;0.4436;1.2661;
711.3000;0.4412;1.2614;
711.6000;0.4420;1.2638;
711.9000;0.4412;1.2685;
712.2000;0.4420;1.2755;
712.5000;0.4428;1.2755;
712.8000;0.4428;1.2778;
713.1000;0.4420;1.2708;
713.4000;0.4387;1.2661;
713.7000;0.4412;1.2685;
714.0000;0.4404;1.2638;
714.3000;0.4396;1.2591;
714.6000;0.4379;1.2474;
714.9000;0.4444;1.2638;
715.2000;0.4387;1.2521;
715.5000;0.4387;1.2567;
715.8000;0.4461;1.2685;
716.1000;0.4469;1.2732;
716.4000;0.4461;1.2591;
716.7000;0.4396;1.2474;
717.0000;0.4404;1.2497;
717.3000;0.4412;1.2661;
717.6000;0.4420;1.2614;
717.9000;0.4428;1.2708;
718.2000;0.4404;1.2708;
718.5000;0.4436;1.2778;
718.8000;0.4428;1.2778;
719.1000;0.4412;1.2685;
719.4000;0.4412;1.2755;
719.7000;0.4404;1.2685;
720.0000;0.4404;1.2732;
720.3000;0.4420;1.2755;
720.6000;0.4412;1.2685;
720.9000;0.4404;1.2685;
721.2000;0.4412;1.2802;
721.5000;0.4420;1.2849;
721.8000;0.4396;1.2755;
722.1000;0.4436;1.2849;
722.4000;0.4396;1.2849;
722.7000;0.4404;1.2825;
723.0000;0.4387;1.2802;
723.3000;0.4339;1.2732;
723.6000;0.4396;1.2919;
723.9000;0.4412;1.2896;
724.2000;0.4379;1.2872;
724.5000;0.4420;1.2966;
724.8000;0.4404;1.2966;
725.1000;0.4396;1.2966;
725.4000;0.4371;1.2872;
725.7000;0.4444;1.2896;
726.0000;0.4412;1.2732;
726.3000;0.4396;1.2778;
726.6000;0.4420;1.2825;
726.9000;0.4396;1.2732;
727.2000;0.4396;1.2591;
727.5000;0.4420;1.2638;
727.8000;0.4396;1.2591;
728.1000;0.4387;1.2521;
728.4000;0.4420;1.2567;
728.7000;0.4412;1.2567;
729.0000;0.4379;1.2497;
729.3000;0.4412;1.2591;
729.6000;0.4379;1.2544;
729.9000;0.4396;1.2638;
730.2000;0.4404;1.2591;
730.5000;0.4371;1.2567;
730.8000;0.4379;1.2591;
731.1000;0.4371;1.2567;
731.4000;0.4404;1.2732;
731.7000;0.4396;1.2825;
732.0000;0.4387;1.2802;
732.3000;0.4379;1.2849;
732.6000;0.4396;1.2872;
732.9000;0.4387;1.2755;
733.2000;0.4404;1.2755;
733.5000;0.4371;1.2614;
733.8000;0.4396;1.2825;
734.1000;0.4396;1.2802;
734.4000;0.4379;1.2661;
734.7000;0.4371;1.2591;
735.0000;0.4363;1.2614;
735.3000;0.4387;1.2708;
735.6000;0.4387;1.2661;
735.9000;0.4387;1.2755;
736.2000;0.4371;1.2755;
736.5000;0.4379;1.2732;
736.8000;0.4404;1.2896;
737.1000;0.4501;1.3154;
737.4000;0.4363;1.2708;
737.7000;0.4371;1.2685;
738.0000;0.4379;1.2708;
738.3000;0.4282;1.2427;
738.6000;0.4469;1.2849;
738.9000;0.4387;1.2638;
739.2000;0.4371;1.2708;
739.5000;0.4379;1.2755;
739.8000;0.4371;1.2708;
740.1000;0.4396;1.2802;
740.4000;0.4379;1.2778;
740.7000;0.4363;1.2802;
741.0000;0.4420;1.2943;
741.3000;0.4387;1.2802;
741.6000;0.4404;1.2872;
741.9000;0.4363;1.2755;
742.2000;0.4396;1.2849;
742.5000;0.4387;1.2872;
742.8000;0.4379;1.2966;
743.1000;0.4379;1.2849;
743.4000;0.4347;1.2755;
743.7000;0.4379;1.2778;
744.0000;0.4379;1.2732;
744.3000;0.4371;1.2685;
744.6000;0.4363;1.2638;
744.9000;0.4347;1.2614;
745.2000;0.4379;1.2755;
745.5000;0.4339;1.2614;
745.8000;0.4379;1.2732;
746.1000;0.4363;1.2661;
746.4000;0.4330;1.2591;
746.7000;0.4371;1.2638;
747.0000;0.4371;1.2614;
747.3000;0.4379;1.2732;
747.6000;0.4363;1.2755;
747.9000;0.4371;1.2755;
748.2000;0.4387;1.2802;
748.5000;0.4363;1.2755;
748.8000;0.4363;1.2755;
749.1000;0.4379;1.2778;
749.4000;0.4379;1.2802;
749.7000;0.4355;1.2638;
750.0000;0.4363;1.2591;
750.3000;0.4371;1.2732;
750.6000;0.4371;1.2708;
750.9000;0.4322;1.2638;
751.2000;0.4363;1.2708;
751.5000;0.4363;1.2755;
751.8000;0.4363;1.2755;
752.1000;0.4339;1.2685;
752.4000;0.4355;1.2638;
752.7000;0.4363;1.2614;
753.0000;0.4339;1.2638;
753.3000;0.4420;1.2802;
753.6000;0.4355;1.2685;
753.9000;0.4339;1.2567;
754.2000;0.4355;1.2614;
754.5000;0.4363;1.2614;
754.8000;0.4379;1.2661;
755.1000;0.4379;1.2661;
755.4000;0.4355;1.2732;
755.7000;0.4339;1.2778;
756.0000;0.4355;1.2732;
756.3000;0.4363;1.2732;
756.6000;0.4363;1.2778;
756.9000;0.4363;1.2732;
757.2000;0.4363;1.2778;
757.5000;0.4363;1.2778;
757.8000;0.4363;1.2755;
758.1000;0.4355;1.2708;
758.4000;0.4363;1.2755;
758.7000;0.4347;1.2661;
759.0000;0.4322;1.2708;
759.3000;0.4298;1.2685;
759.6000;0.4355;1.2849;
759.9000;0.4355;1.2825;
760.2000;0.4355;1.2872;
760.5000;0.4387;1.2943;
760.8000;0.4339;1.2825;
761.1000;0.4363;1.2849;
761.4000;0.4363;1.2755;
761.7000;0.4330;1.2661;
762.0000;0.4355;1.2638;
762.3000;0.4436;1.2802;
762.6000;0.4322;1.2567;
762.9000;0.4355;1.2591;
763.2000;0.4298;1.2544;
763.5000;0.4339;1.2638;
763.8000;0.4330;1.2685;
764.1000;0.4355;1.2778;
764.4000;0.4274;1.2638;
764.7000;0.4355;1.2778;
765.0000;0.4363;1.2755;
765.3000;0.4330;1.2685;
765.6000;0.4265;1.2403;
765.9000;0.4363;1.2708;
766.2000;0.4363;1.2638;
766.5000;0.4355;1.2708;
766.8000;0.4355;1.2685;
767.1000;0.4339;1.2732;
767.4000;0.4379;1.2825;
767.7000;0.4363;1.2755;
768.0000;0.4355;1.2825;
768.3000;0.4355;1.2849;
768.6000;0.4339;1.2802;
768.9000;0.4339;1.2825;
769.2000;0.4355;1.2755;
769.5000;0.4363;1.2732;
769.8000;0.4371;1.2708;
770.1000;0.4347;1.2755;
770.4000;0.4347;1.2802;
770.7000;0.4355;1.2896;
771.0000;0.4371;1.2872;
771.3000;0.4355;1.2825;
771.6000;0.4355;1.2802;
771.9000;0.4347;1.2755;
772.2000;0.4363;1.2802;
772.5000;0.4363;1.2755;
772.8000;0.4387;1.2802;
773.1000;0.4347;1.2755;
773.4000;0.4339;1.2778;
773.7000;0.4355;1.2778;
774.0000;0.4363;1.2802;
774.3000;0.4322;1.2755;
774.6000;0.4347;1.2802;
774.9000;0.4347;1.2825;
775.2000;0.4363;1.2825;
775.5000;0.4347;1.2778;
775.8000;0.4330;1.2849;
776.1000;0.4355;1.2849;
776.4000;0.4363;1.2872;
776.7000;0.4347;1.2872;
777.0000;0.4306;1.2849;
777.3000;0.4330;1.2896;
777.6000;0.4355;1.2896;
777.9000;0.4322;1.2825;
778.2000;0.4347;1.2872;
778.5000;0.4339;1.2872;
778.8000;0.4339;1.2872;
779.1000;0.4347;1.2919;
779.4000;0.4396;1.2919;
779.7000;0.4339;1.2825;
780.0000;0.4396;1.2966;
780.3000;0.4363;1.2990;
780.6000;0.4306;1.2802;
780.9000;0.4396;1.2943;
781.2000;0.4339;1.2849;
781.5000;0.4355;1.2825;
781.8000;0.4339;1.2778;
782.1000;0.4355;1.2755;
782.4000;0.4298;1.2614;
782.7000;0.4330;1.2732;
783.0000;0.4322;1.2661;
783.3000;0.4241;1.2497;
783.6000;0.4339;1.2778;
783.9000;0.4330;1.2825;
784.2000;0.4330;1.2872;
784.5000;0.4298;1.2778;
784.8000;0.4314;1.2872;
785.1000;0.4347;1.2896;
785.4000;0.4298;1.2849;
785.7000;0.4298;1.2755;
786.0000;0.4314;1.2732;
786.3000;0.4322;1.2685;
786.6000;0.4265;1.2567;
786.9000;0.4330;1.2755;
787.2000;0.4314;1.2614;
787.5000;0.4330;1.2614;
787.8000;0.4330;1.2708;
788.1000;0.4339;1.2825;
788.4000;0.4298;1.2661;
788.7000;0.4314;1.2685;
789.0000;0.4322;1.2685;
789.3000;0.4339;1.2778;
789.6000;0.4274;1.2567;
789.9000;0.4330;1.2708;
790.2000;0.4314;1.2708;
790.5000;0.4306;1.2778;
790.8000;0.4330;1.2849;
791.1000;0.4322;1.2896;
791.4000;0.4322;1.2849;
791.7000;0.4339;1.2919;
792.0000;0.4330;1.2990;
792.3000;0.4298;1.2966;
792.6000;0.4339;1.3060;
792.9000;0.4339;1.2966;
793.2000;0.4339;1.2896;
793.5000;0.4330;1.2872;
793.8000;0.4347;1.2919;
794.1000;0.4322;1.2872;
794.4000;0.4339;1.2825;
794.7000;0.4330;1.2802;
795.0000;0.4339;1.2802;
795.3000;0.4322;1.2755;
795.6000;0.4322;1.2778;
795.9000;0.4339;1.2849;
796.2000;0.4339;1.2943;
796.5000;0.4322;1.2849;
796.8000;0.4314;1.2919;
797.1000;0.4339;1.3060;
797.4000;0.4330;1.3036;
797.7000;0.4322;1.3060;
798.0000;0.4306;1.2943;
798.3000;0.4339;1.2943;
798.6000;0.4330;1.2990;
798.9000;0.4314;1.3083;
799.2000;0.4339;1.3036;
799.5000;0.4314;1.3013;
799.8000;0.4347;1.3036;
800.1000;0.4290;1.2966;
800.4000;0.4322;1.3036;
800.7000;0.4330;1.3083;
801.0000;0.4339;1.3036;
801.3000;0.4371;1.2990;
801.6000;0.4330;1.3013;
801.9000;0.4274;1.2943;
802.2000;0.4339;1.3036;
802.5000;0.4330;1.2919;
802.8000;0.4339;1.2919;
803.1000;0.4298;1.2872;
803.4000;0.4355;1.2943;
803.7000;0.4339;1.2943;
804.0000;0.4330;1.2990;
804.3000;0.4330;1.2966;
804.6000;0.4347;1.2919;
804.9000;0.4330;1.2872;
805.2000;0.4347;1.2919;
805.5000;0.4339;1.2919;
805.8000;0.4322;1.2919;
806.1000;0.4347;1.2943;
806.4000;0.4314;1.2872;
806.7000;0.4347;1.2872;
807.0000;0.4330;1.2872;
807.3000;0.4387;1.2966;
807.6000;0.4330;1.2778;
807.9000;0.4322;1.2802;
808.2000;0.4306;1.2732;
808.5000;0.4347;1.2778;
808.8000;0.4330;1.2778;
809.1000;0.4314;1.2849;
809.4000;0.4322;1.2872;
809.7000;0.4339;1.2825;
810.0000;0.4322;1.2778;
810.3000;0.4330;1.2778;
810.6000;0.4282;1.2638;
810.9000;0.4322;1.2778;
811.2000;0.4298;1.2685;
811.5000;0.4306;1.2614;
811.8000;0.4306;1.2614;
812.1000;0.4322;1.2685;
812.4000;0.4314;1.2778;
812.7000;0.4355;1.2990;
813.0000;0.4330;1.3036;
813.3000;0.4330;1.3013;
813.6000;0.4330;1.2966;
813.9000;0.4339;1.3013;
814.2000;0.4314;1.2872;
814.5000;0.4330;1.2849;
814.8000;0.4314;1.2825;
815.1000;0.4330;1.2825;
815.4000;0.4314;1.2778;
815.7000;0.4330;1.2802;
816.0000;0.4314;1.2732;
816.3000;0.4322;1.2685;
816.6000;0.4322;1.2638;
816.9000;0.4322;1.2708;
817.2000;0.4306;1.2802;
817.5000;0.4225;1.2521;
817.8000;0.4314;1.2802;
818.1000;0.4339;1.2825;
818.4000;0.4322;1.2825;
818.7000;0.4322;1.2778;
819.0000;0.4330;1.2685;
819.3000;0.4322;1.2732;
819.6000;0.4322;1.2708;
819.9000;0.4314;1.2755;
820.2000;0.4339;1.2919;
820.5000;0.4339;1.3013;
820.8000;0.4298;1.3013;
821.1000;0.4339;1.3060;
821.4000;0.4347;1.3154;
821.7000;0.4314;1.2966;
822.0000;0.4265;1.2802;
822.3000;0.4314;1.2896;
822.6000;0.4314;1.2919;
822.9000;0.4412;1.3201;
823.2000;0.4314;1.2966;
823.5000;0.4355;1.3107;
823.8000;0.4322;1.3060;
824.1000;0.4339;1.3013;
824.4000;0.4314;1.2896;
824.7000;0.4314;1.2919;
825.0000;0.4330;1.2919;
825.3000;0.4306;1.2943;
825.6000;0.4339;1.3013;
825.9000;0.4322;1.2966;
826.2000;0.4322;1.2872;
826.5000;0.4330;1.2990;
826.8000;0.4322;1.2990;
827.1000;0.4314;1.2966;
827.4000;0.4330;1.2990;
827.7000;0.4330;1.2966;
828.0000;0.4330;1.2990;
828.3000;0.4314;1.3036;
828.6000;0.4322;1.3013;
828.9000;0.4306;1.2966;
829.2000;0.4322;1.2990;
829.5000;0.4330;1.2966;
829.8000;0.4322;1.2966;
830.1000;0.4314;1.2943;
830.4000;0.4330;1.2943;
830.7000;0.4330;1.2896;
831.0000;0.4314;1.2849;
831.3000;0.4314;1.2849;
831.6000;0.4322;1.2778;
831.9000;0.4314;1.2732;
832.2000;0.4298;1.2685;
832.5000;0.4306;1.2708;
832.8000;0.4314;1.2755;
833.1000;0.4322;1.2732;
833.4000;0.4355;1.2732;
833.7000;0.4322;1.2755;
834.0000;0.4314;1.2708;
834.3000;0.4290;1.2708;
834.6000;0.4330;1.2755;
834.9000;0.4322;1.2755;
835.2000;0.4314;1.2802;
835.5000;0.4314;1.2825;
835.8000;0.4314;1.2943;
836.1000;0.4322;1.2990;
836.4000;0.4298;1.2990;
836.7000;0.4314;1.3036;
837.0000;0.4314;1.2990;
837.3000;0.4282;1.2825;
837.6000;0.4314;1.2849;
837.9000;0.4322;1.2896;
838.2000;0.4330;1.2872;
838.5000;0.4314;1.2896;
838.8000;0.4322;1.2896;
839.1000;0.4306;1.2943;
839.4000;0.4314;1.2966;
839.7000;0.4322;1.3083;
840.0000;0.4322;1.3083;
840.3000;0.4322;1.3177;
840.6000;0.4330;1.3201;
840.9000;0.4322;1.3107;
841.2000;0.4322;1.3036;
841.5000;0.4347;1.3083;
841.8000;0.4314;1.2990;
842.1000;0.4322;1.2966;
842.4000;0.4306;1.2919;
842.7000;0.4306;1.2872;
843.0000;0.4314;1.2872;
843.3000;0.4339;1.2966;
843.6000;0.4306;1.2943;
843.9000;0.4290;1.2825;
844.2000;0.4322;1.2919;
844.5000;0.4298;1.2872;
844.8000;0.4322;1.2919;
845.1000;0.4314;1.2919;
845.4000;0.4306;1.2943;
845.7000;0.4274;1.2919;
846.0000;0.4314;1.2943;
846.3000;0.4322;1.3036;
846.6000;0.4387;1.3177;
846.9000;0.4306;1.3107;
847.2000;0.4208;1.2802;
847.5000;0.4306;1.2966;
847.8000;0.4330;1.3036;
848.1000;0.4306;1.2919;
848.4000;0.4330;1.2943;
848.7000;0.4339;1.2919;
849.0000;0.4330;1.2966;
849.3000;0.4322;1.2919;
849.6000;0.4306;1.2872;
849.9000;0.4330;1.2919;
850.2000;0.4322;1.2872;
850.5000;0.4314;1.2896;
850.8000;0.4322;1.2990;
851.1000;0.4330;1.3013;
851.4000;0.4339;1.3013;
851.7000;0.4306;1.2966;
852.0000;0.4330;1.2943;
852.3000;0.4322;1.2990;
852.6000;0.4330;1.3036;
852.9000;0.4412;1.3201;
853.2000;0.4355;1.2966;
853.5000;0.4298;1.2825;
853.8000;0.4330;1.2919;
854.1000;0.4355;1.3154;
854.4000;0.4298;1.2966;
854.7000;0.4314;1.2990;
855.0000;0.4314;1.2872;
855.3000;0.4306;1.2896;
855.6000;0.4298;1.2896;
855.9000;0.4282;1.2849;
856.2000;0.4314;1.2919;
856.5000;0.4314;1.2872;
856.8000;0.4298;1.2896;
857.1000;0.4428;1.3247;
857.4000;0.4306;1.2849;
857.7000;0.4314;1.2896;
858.0000;0.4290;1.2872;
858.3000;0.4314;1.2966;
858.6000;0.4298;1.3013;
858.9000;0.4314;1.3013;
859.2000;0.4314;1.2990;
859.5000;0.4314;1.2872;
859.8000;0.4306;1.2755;
860.1000;0.4306;1.2755;
860.4000;0.4306;1.2732;
860.7000;0.4379;1.2919;
861.0000;0.4298;1.2708;
861.3000;0.4265;1.2638;
861.6000;0.4322;1.2802;
861.9000;0.4339;1.2919;
862.2000;0.4322;1.2919;
862.5000;0.4339;1.2896;
862.8000;0.4298;1.2732;
863.1000;0.4314;1.2778;
863.4000;0.4322;1.2732;
863.7000;0.4314;1.2708;
864.0000;0.4314;1.2778;
864.3000;0.4257;1.2661;
864.6000;0.4322;1.2802;
864.9000;0.4306;1.2732;
865.2000;0.4363;1.2919;
865.5000;0.4322;1.2849;
865.8000;0.4322;1.2849;
866.1000;0.4339;1.2872;
866.4000;0.4314;1.2825;
866.7000;0.4330;1.2966;
867.0000;0.4314;1.2966;
867.3000;0.4274;1.2825;
867.6000;0.4314;1.2943;
867.9000;0.4257;1.2825;
868.2000;0.4322;1.2966;
868.5000;0.4298;1.2943;
868.8000;0.4314;1.2990;
869.1000;0.4306;1.2966;
869.4000;0.4298;1.2990;
869.7000;0.4290;1.2943;
870.0000;0.4355;1.3107;
870.3000;0.4290;1.3013;
870.6000;0.4314;1.3036;
870.9000;0.4339;1.3107;
871.2000;0.4306;1.3060;
871.5000;0.4314;1.3036;
871.8000;0.4330;1.3013;
872.1000;0.4314;1.3060;
872.4000;0.4330;1.3060;
872.7000;0.4330;1.3036;
873.0000;0.4322;1.3060;
873.3000;0.4322;1.3013;
873.6000;0.4306;1.2966;
873.9000;0.4314;1.2966;
874.2000;0.4298;1.2990;
874.5000;0.4322;1.3083;
874.8000;0.4322;1.3013;
875.1000;0.4306;1.3013;
875.4000;0.4314;1.2919;
875.7000;0.4314;1.2896;
876.0000;0.4330;1.2990;
876.3000;0.4322;1.2872;
876.6000;0.4290;1.2802;
876.9000;0.4322;1.2849;
877.2000;0.4355;1.2943;
877.5000;0.4257;1.2778;
877.8000;0.4290;1.2755;
878.1000;0.4330;1.2872;
878.4000;0.4330;1.2825;
878.7000;0.4314;1.2872;
879.0000;0.4306;1.2849;
879.3000;0.4363;1.2990;
879.6000;0.4330;1.2802;
879.9000;0.4314;1.2896;
880.2000;0.4298;1.2919;
880.5000;0.4298;1.2943;
880.8000;0.4314;1.2943;
881.1000;0.4322;1.2896;
881.4000;0.4298;1.2825;
881.7000;0.4282;1.2825;
882.0000;0.4322;1.2896;
882.3000;0.4322;1.2919;
882.6000;0.4314;1.2919;
882.9000;0.4314;1.2966;
883.2000;0.4290;1.2896;
883.5000;0.4306;1.2896;
883.8000;0.4314;1.2966;
884.1000;0.4314;1.2896;
884.4000;0.4298;1.2825;
884.7000;0.4298;1.2755;
885.0000;0.4290;1.2849;
885.3000;0.4314;1.2872;
885.6000;0.4290;1.2872;
885.9000;0.4306;1.2896;
886.2000;0.4290;1.2825;
886.5000;0.4404;1.3154;
886.8000;0.4265;1.2755;
887.1000;0.4290;1.2849;
887.4000;0.4298;1.2872;
887.7000;0.4290;1.2778;
888.0000;0.4314;1.2825;
888.3000;0.4306;1.2825;
888.6000;0.4290;1.2778;
888.9000;0.4306;1.2732;
889.2000;0.4306;1.2755;
889.5000;0.4306;1.2802;
889.8000;0.4306;1.2872;
890.1000;0.4290;1.2802;
890.4000;0.4298;1.2825;
890.7000;0.4290;1.2849;
891.0000;0.4298;1.2919;
891.3000;0.4298;1.2896;
891.6000;0.4306;1.2849;
891.9000;0.4306;1.2849;
892.2000;0.4314;1.2943;
892.5000;0.4314;1.2943;
892.8000;0.4274;1.2849;
893.1000;0.4233;1.2685;
893.4000;0.4306;1.2896;
893.7000;0.4298;1.2872;
894.0000;0.4404;1.3130;
894.3000;0.4290;1.2872;
894.6000;0.4322;1.2990;
894.9000;0.4396;1.3177;
895.2000;0.4322;1.2990;
895.5000;0.4290;1.2896;
895.8000;0.4282;1.2872;
896.1000;0.4314;1.2966;
896.4000;0.4306;1.2966;
896.7000;0.4330;1.2943;
897.0000;0.4290;1.2849;
897.3000;0.4306;1.2849;
897.6000;0.4314;1.2919;
897.9000;0.4314;1.2943;
898.2000;0.4314;1.2919;
898.5000;0.4298;1.2943;
898.8000;0.4314;1.2966;
899.1000;0.4298;1.2872;
899.4000;0.4314;1.2896;
899.7000;0.4306;1.2919;
900.0000;0.4314;1.2966;
900.3000;0.4355;1.3107;
900.6000;0.4322;1.3036;
900.9000;0.4298;1.2990;
901.2000;0.4363;1.3154;
901.5000;0.4314;1.2990;
901.8000;0.4282;1.2966;
902.1000;0.4314;1.2990;
902.4000;0.4314;1.3107;
902.7000;0.4339;1.3177;
903.0000;0.4298;1.3036;
903.3000;0.4379;1.3271;
903.6000;0.4298;1.3083;
903.9000;0.4290;1.3154;
904.2000;0.4298;1.3060;
904.5000;0.4322;1.3107;
904.8000;0.4314;1.3130;
905.1000;0.4282;1.3107;
905.4000;0.4314;1.3107;
905.7000;0.4306;1.2990;
906.0000;0.4306;1.3036;
906.3000;0.4322;1.3083;
906.6000;0.4314;1.3060;
906.9000;0.4314;1.2990;
907.2000;0.4306;1.3036;
907.5000;0.4306;1.2943;
907.8000;0.4306;1.2943;
908.1000;0.4330;1.2919;
908.4000;0.4298;1.2802;
908.7000;0.4306;1.2825;
909.0000;0.4330;1.2872;
909.3000;0.4306;1.2943;
909.6000;0.4306;1.3036;
909.9000;0.4306;1.3107;
910.2000;0.4306;1.3107;
910.5000;0.4265;1.2990;
910.8000;0.4282;1.2966;
911.1000;0.4306;1.3036;
911.4000;0.4298;1.3036;
911.7000;0.4306;1.3060;
912.0000;0.4314;1.3060;
912.3000;0.4322;1.3201;
912.6000;0.4298;1.3060;
912.9000;0.4290;1.3036;
913.2000;0.4290;1.3036;
913.5000;0.4290;1.3013;
913.8000;0.4298;1.3060;
914.1000;0.4306;1.3013;
914.4000;0.4322;1.2966;
914.7000;0.4282;1.2943;
915.0000;0.4290;1.2849;
915.3000;0.4330;1.2943;
915.6000;0.4298;1.3013;
915.9000;0.4298;1.3013;
916.2000;0.4306;1.3130;
916.5000;0.4322;1.3107;
916.8000;0.4306;1.3013;
917.1000;0.4379;1.3224;
917.4000;0.4314;1.3130;
917.7000;0.4274;1.2990;
918.0000;0.4241;1.2872;
918.3000;0.4306;1.3013;
918.6000;0.4282;1.2943;
918.9000;0.4314;1.2966;
919.2000;0.4314;1.2943;
919.5000;0.4339;1.2896;
919.8000;0.4298;1.2849;
920.1000;0.4314;1.2943;
920.4000;0.4298;1.2919;
920.7000;0.4306;1.2919;
921.0000;0.4290;1.2825;
921.3000;0.4290;1.2896;
921.6000;0.4306;1.2943;
921.9000;0.4314;1.2966;
922.2000;0.4298;1.2896;
922.5000;0.4298;1.2896;
922.8000;0.4314;1.2896;
923.1000;0.4306;1.2872;
923.4000;0.4290;1.2919;
923.7000;0.4290;1.2966;
924.0000;0.4290;1.2943;
924.3000;0.4314;1.3013;
924.6000;0.4290;1.3013;
924.9000;0.4290;1.3083;
925.2000;0.4290;1.3036;
925.5000;0.4290;1.2990;
925.8000;0.4274;1.3013;
926.1000;0.4290;1.3083;
926.4000;0.4314;1.3177;
926.7000;0.4282;1.3107;
927.0000;0.4282;1.3130;
927.3000;0.4298;1.3107;
927.6000;0.4314;1.3107;
927.9000;0.4298;1.2990;
928.2000;0.4290;1.2849;
928.5000;0.4306;1.2872;
928.8000;0.4298;1.2849;
929.1000;0.4306;1.2778;
929.4000;0.4282;1.2732;
929.7000;0.4298;1.2732;
930.0000;0.4298;1.2755;
930.3000;0.4282;1.2708;
930.6000;0.4330;1.2778;
930.9000;0.4314;1.2685;
931.2000;0.4314;1.2732;
931.5000;0.4314;1.2778;
931.8000;0.4290;1.2872;
932.1000;0.4290;1.2778;
932.4000;0.4298;1.2896;
932.7000;0.4298;1.2849;
933.0000;0.4298;1.2896;
933.3000;0.4306;1.2825;
933.6000;0.4314;1.2778;
933.9000;0.4396;1.2966;
934.2000;0.4290;1.2708;
934.5000;0.4298;1.2778;
934.8000;0.4298;1.2802;
935.1000;0.4306;1.2919;
935.4000;0.4290;1.2919;
935.7000;0.4290;1.2919;
936.0000;0.4322;1.2943;
936.3000;0.4314;1.2896;
936.6000;0.4306;1.2778;
936.9000;0.4298;1.2849;
937.2000;0.4290;1.2755;
937.5000;0.4314;1.2778;
937.8000;0.4298;1.2755;
938.1000;0.4290;1.2732;
938.4000;0.4290;1.2755;
938.7000;0.4363;1.2896;
939.0000;0.4298;1.2732;
939.3000;0.4298;1.2778;
939.6000;0.4282;1.2755;
939.9000;0.4298;1.2708;
940.2000;0.4290;1.2685;
940.5000;0.4290;1.2708;
940.8000;0.4298;1.2708;
941.1000;0.4290;1.2685;
941.4000;0.4290;1.2685;
941.7000;0.4306;1.2685;
942.0000;0.4274;1.2685;
942.3000;0.4298;1.2802;
942.6000;0.4314;1.2825;
942.9000;0.4282;1.2755;
943.2000;0.4290;1.2778;
943.5000;0.4298;1.2778;
943.8000;0.4306;1.2849;
944.1000;0.4265;1.2732;
944.4000;0.4282;1.2802;
944.7000;0.4306;1.2825;
945.0000;0.4282;1.2802;
945.3000;0.4314;1.2872;
945.6000;0.4282;1.2849;
945.9000;0.4274;1.2802;
946.2000;0.4298;1.2849;
946.5000;0.4290;1.2896;
946.8000;0.4322;1.2896;
947.1000;0.4290;1.2849;
947.4000;0.4282;1.2849;
947.7000;0.4298;1.2825;
948.0000;0.4282;1.2778;
948.3000;0.4290;1.2849;
948.6000;0.4306;1.2896;
948.9000;0.4298;1.2896;
949.2000;0.4298;1.2919;
949.5000;0.4282;1.2943;
949.8000;0.4274;1.2849;
950.1000;0.4298;1.2849;
950.4000;0.4274;1.2872;
950.7000;0.4282;1.2872;
951.0000;0.4298;1.2825;
951.3000;0.4298;1.2825;
951.6000;0.4306;1.2849;
951.9000;0.4306;1.2849;
952.2000;0.4192;1.2591;
952.5000;0.4298;1.2896;
952.8000;0.4314;1.2966;
953.1000;0.4306;1.3060;
953.4000;0.4298;1.3060;
953.7000;0.4306;1.2943;
954.0000;0.4314;1.2943;
954.3000;0.4290;1.2778;
954.6000;0.4314;1.2802;
954.9000;0.4290;1.2755;
955.2000;0.4298;1.2661;
955.5000;0.4306;1.2685;
955.8000;0.4298;1.2849;
956.1000;0.4290;1.2872;
956.4000;0.4265;1.2638;
956.7000;0.4290;1.2661;
957.0000;0.4290;1.2685;
957.3000;0.4282;1.2661;
957.6000;0.4274;1.2685;
957.9000;0.4298;1.2755;
958.2000;0.4314;1.2802;
958.5000;0.4274;1.2872;
958.8000;0.4298;1.2943;
959.1000;0.4306;1.2872;
959.4000;0.4314;1.2849;
959.7000;0.4322;1.2872;
960.0000;0.4298;1.2778;
960.3000;0.4282;1.2778;
960.6000;0.4314;1.2849;
960.9000;0.4298;1.2872;
961.2000;0.4306;1.2872;
961.5000;0.4306;1.2732;
961.8000;0.4290;1.2732;
962.1000;0.4282;1.2778;
962.4000;0.4282;1.2802;
962.7000;0.4217;1.2661;
963.0000;0.4274;1.2849;
963.3000;0.4355;1.3083;
963.6000;0.4282;1.2896;
963.9000;0.4306;1.2872;
964.2000;0.4314;1.2919;
964.5000;0.4314;1.2919;
964.8000;0.4274;1.2872;
965.1000;0.4282;1.2943;
965.4000;0.4306;1.2919;
965.7000;0.4306;1.2849;
966.0000;0.4290;1.2896;
966.3000;0.4314;1.2943;
966.6000;0.4314;1.2943;
966.9000;0.4314;1.2896;
967.2000;0.4298;1.2849;
967.5000;0.4298;1.2732;
967.8000;0.4298;1.2802;
968.1000;0.4282;1.2755;
968.4000;0.4290;1.2802;
968.7000;0.4282;1.2825;
969.0000;0.4306;1.2943;
969.3000;0.4298;1.2896;
969.6000;0.4306;1.2872;
969.9000;0.4298;1.2943;
970.2000;0.4274;1.2896;
970.5000;0.4298;1.2919;
970.8000;0.4314;1.2990;
971.1000;0.4282;1.2966;
971.4000;0.4290;1.2966;
971.7000;0.4306;1.2872;
972.0000;0.4306;1.2802;
972.3000;0.4274;1.2825;
972.6000;0.4274;1.2943;
972.9000;0.4241;1.2849;
973.2000;0.4306;1.3083;
973.5000;0.4282;1.3036;
973.8000;0.4290;1.3060;
974.1000;0.4208;1.2802;
974.4000;0.4274;1.2849;
974.7000;0.4322;1.2990;
975.0000;0.4322;1.3036;
975.3000;0.4306;1.2943;
975.6000;0.4322;1.2990;
975.9000;0.4330;1.3036;
976.2000;0.4322;1.3107;
976.5000;0.4298;1.2966;
976.8000;0.4306;1.3060;
977.1000;0.4306;1.2966;
977.4000;0.4282;1.2966;
977.7000;0.4355;1.3177;
978.0000;0.4298;1.2990;
978.3000;0.4282;1.2966;
978.6000;0.4306;1.3013;
978.9000;0.4314;1.3201;
979.2000;0.4306;1.3201;
979.5000;0.4290;1.3107;
979.8000;0.4298;1.2966;
980.1000;0.4306;1.3013;
980.4000;0.4274;1.3060;
980.7000;0.4306;1.3083;
981.0000;0.4298;1.3036;
981.3000;0.4282;1.3036;
981.6000;0.4306;1.3036;
981.9000;0.4330;1.3083;
982.2000;0.4306;1.2990;
982.5000;0.4371;1.3271;
982.8000;0.4314;1.3130;
983.1000;0.4314;1.3130;
983.4000;0.4306;1.3036;
983.7000;0.4314;1.3083;
984.0000;0.4306;1.3036;
984.3000;0.4371;1.3224;
984.6000;0.4290;1.3130;
984.9000;0.4314;1.3130;
985.2000;0.4306;1.3130;
985.5000;0.4322;1.3083;
985.8000;0.4306;1.3013;
986.1000;0.4314;1.2943;
986.4000;0.4314;1.2966;
986.7000;0.4339;1.2943;
987.0000;0.4330;1.2966;
987.3000;0.4306;1.2943;
987.6000;0.4298;1.2919;
987.9000;0.4282;1.2990;
988.2000;0.4298;1.2943;
988.5000;0.4290;1.2849;
988.8000;0.4322;1.2872;
989.1000;0.4217;1.2685;
989.4000;0.4298;1.2872;
989.7000;0.4306;1.2872;
990.0000;0.4363;1.3013;
990.3000;0.4314;1.2849;
990.6000;0.4298;1.2872;
990.9000;0.4420;1.3130;
991.2000;0.4265;1.2802;
991.5000;0.4314;1.2872;
991.8000;0.4298;1.2755;
992.1000;0.4306;1.2802;
992.4000;0.4265;1.2708;
992.7000;0.4282;1.2755;
993.0000;0.4314;1.2755;
993.3000;0.4306;1.2778;
993.6000;0.4282;1.2825;
993.9000;0.4298;1.2872;
994.2000;0.4306;1.2872;
994.5000;0.4282;1.2825;
994.8000;0.4339;1.2919;
995.1000;0.4282;1.2778;
995.4000;0.4298;1.2872;
995.7000;0.4306;1.2896;
996.0000;0.4298;1.2896;
996.3000;0.4306;1.2896;
996.6000;0.4314;1.2896;
996.9000;0.4339;1.2919;
997.2000;0.4322;1.2919;
997.5000;0.4298;1.2872;
997.8000;0.4306;1.2896;
998.1000;0.4322;1.2943;
998.4000;0.4404;1.3130;
998.7000;0.4274;1.2778;
999.0000;0.4282;1.2825;
999.3000;0.4290;1.2872;
999.6000;0.4298;1.2825;
999.9000;0.4314;1.2778;
1000.2000;0.4298;1.2825;
1000.5000;0.4306;1.2872;
1000.8000;0.4290;1.2896;
1001.1000;0.4298;1.2966;
1001.4000;0.4274;1.2943;
1001.7000;0.4314;1.3013;
1002.0000;0.4274;1.3013;
1002.3000;0.4298;1.3036;
1002.6000;0.4306;1.3036;
1002.9000;0.4306;1.3060;
1003.2000;0.4314;1.3130;
1003.5000;0.4306;1.3107;
1003.8000;0.4298;1.3060;
1004.1000;0.4290;1.2990;
1004.4000;0.4265;1.2896;
1004.7000;0.4298;1.2943;
1005.0000;0.4298;1.2966;
1005.3000;0.4339;1.3036;
1005.6000;0.4298;1.2943;
1005.9000;0.4290;1.2990;
1006.2000;0.4290;1.2990;
1006.5000;0.4314;1.3013;
1006.8000;0.4314;1.3060;
1007.1000;0.4290;1.2966;
1007.4000;0.4282;1.2896;
1007.7000;0.4274;1.2849;
1008.0000;0.4290;1.2755;
1008.3000;0.4290;1.2708;
1008.6000;0.4314;1.2802;
1008.9000;0.4306;1.2849;
1009.2000;0.4290;1.2825;
1009.5000;0.4290;1.2778;
1009.8000;0.4306;1.2802;
1010.1000;0.4298;1.2872;
1010.4000;0.4265;1.2896;
1010.7000;0.4290;1.2966;
1011.0000;0.4387;1.3154;
1011.3000;0.4314;1.2919;
1011.6000;0.4274;1.2849;
1011.9000;0.4330;1.2872;
1012.2000;0.4322;1.2825;
1012.5000;0.4306;1.2778;
1012.8000;0.4298;1.2849;
1013.1000;0.4257;1.2755;
1013.4000;0.4298;1.2755;
1013.7000;0.4314;1.2778;
1014.0000;0.4282;1.2825;
1014.3000;0.4306;1.2755;
1014.6000;0.4298;1.2755;
1014.9000;0.4339;1.2778;
1015.2000;0.4306;1.2778;
1015.5000;0.4298;1.2849;
1015.8000;0.4282;1.2802;
1016.1000;0.4314;1.2896;
1016.4000;0.4282;1.2802;
1016.7000;0.4306;1.2849;
1017.0000;0.4298;1.2732;
1017.3000;0.4314;1.2802;
1017.6000;0.4314;1.2825;
1017.9000;0.4306;1.2778;
1018.2000;0.4314;1.2849;
1018.5000;0.4339;1.2825;
1018.8000;0.4208;1.2497;
1019.1000;0.4290;1.2661;
1019.4000;0.4282;1.2708;
1019.7000;0.4290;1.2661;
1020.0000;0.4298;1.2638;
1020.3000;0.4290;1.2661;
1020.6000;0.4249;1.2521;
1020.9000;0.4282;1.2638;
1021.2000;0.4322;1.2778;
1021.5000;0.4298;1.2591;
1021.8000;0.4282;1.2497;
1022.1000;0.4282;1.2544;
1022.4000;0.4257;1.2614;
1022.7000;0.4298;1.2849;
1023.0000;0.4282;1.2685;
1023.3000;0.4290;1.2755;
1023.6000;0.4298;1.2825;
1023.9000;0.4298;1.2778;
1024.2000;0.4290;1.2802;
1024.5000;0.4282;1.2802;
1024.8000;0.4322;1.2849;
1025.1000;0.4274;1.2755;
1025.4000;0.4298;1.2755;
1025.7000;0.4282;1.2825;
1026.0000;0.4298;1.2896;
1026.3000;0.4290;1.2872;
1026.6000;0.4274;1.3013;
1026.9000;0.4363;1.3294;
1027.2000;0.4274;1.3060;
1027.5000;0.4274;1.3060;
1027.8000;0.4249;1.2966;
1028.1000;0.4314;1.3060;
1028.4000;0.4274;1.2966;
1028.7000;0.4298;1.3060;
1029.0000;0.4274;1.3154;
1029.3000;0.4282;1.3130;
1029.6000;0.4298;1.3083;
1029.9000;0.4274;1.2943;
1030.2000;0.4314;1.3107;
1030.5000;0.4298;1.3060;
1030.8000;0.4306;1.3060;
1031.1000;0.4290;1.2990;
1031.4000;0.4298;1.3060;
1031.7000;0.4290;1.3036;
1032.0000;0.4298;1.2966;
1032.3000;0.4306;1.2966;
1032.6000;0.4290;1.2990;
1032.9000;0.4306;1.3060;
1033.2000;0.4274;1.2919;
1033.5000;0.4339;1.3060;
1033.8000;0.4265;1.2919;
1034.1000;0.4306;1.2966;
1034.4000;0.4314;1.2990;
1034.7000;0.4306;1.2919;
1035.0000;0.4298;1.2872;
1035.3000;0.4290;1.2732;
1035.6000;0.4282;1.2825;
1035.9000;0.4290;1.2943;
1036.2000;0.4314;1.3013;
1036.5000;0.4225;1.2755;
1036.8000;0.4265;1.2825;
1037.1000;0.4298;1.2966;
1037.4000;0.4274;1.2966;
1037.7000;0.4339;1.3154;
1038.0000;0.4282;1.3036;
1038.3000;0.4290;1.3036;
1038.6000;0.4290;1.3013;
1038.9000;0.4290;1.3036;
1039.2000;0.4298;1.3060;
1039.5000;0.4314;1.3060;
1039.8000;0.4290;1.3083;
1040.1000;0.4290;1.3013;
1040.4000;0.4282;1.3036;
1040.7000;0.4306;1.3154;
1041.0000;0.4282;1.3154;
1041.3000;0.4282;1.3130;
1041.6000;0.4290;1.3060;
1041.9000;0.4282;1.2896;
1042.2000;0.4208;1.2732;
1042.5000;0.4274;1.2849;
1042.8000;0.4290;1.2896;
1043.1000;0.4298;1.2919;
1043.4000;0.4274;1.2825;
1043.7000;0.4290;1.2825;
1044.0000;0.4290;1.2778;
1044.3000;0.4298;1.2896;
1044.6000;0.4314;1.2966;
1044.9000;0.4282;1.2919;
1045.2000;0.4282;1.2872;
1045.5000;0.4306;1.2990;
1045.8000;0.4282;1.2943;
1046.1000;0.4314;1.2919;
1046.4000;0.4306;1.2919;
1046.7000;0.4241;1.2708;
1047.0000;0.4290;1.2802;
1047.3000;0.4339;1.2919;
1047.6000;0.4282;1.2755;
1047.9000;0.4306;1.2872;
1048.2000;0.4257;1.2661;
1048.5000;0.4290;1.2825;
1048.8000;0.4274;1.2778;
1049.1000;0.4282;1.2778;
1049.4000;0.4298;1.2732;
1049.7000;0.4298;1.2755;
1050.0000;0.4290;1.2755;
1050.3000;0.4298;1.2732;
1050.6000;0.4290;1.2825;
1050.9000;0.4330;1.3036;
1051.2000;0.4298;1.3013;
1051.5000;0.4265;1.2990;
1051.8000;0.4339;1.3154;
1052.1000;0.4306;1.3036;
1052.4000;0.4282;1.2966;
1052.7000;0.4339;1.3013;
1053.0000;0.4290;1.2872;
1053.3000;0.4298;1.2872;
1053.6000;0.4290;1.2872;
1053.9000;0.4330;1.3013;
1054.2000;0.4298;1.3013;
1054.5000;0.4298;1.2990;
1054.8000;0.4314;1.2966;
1055.1000;0.4298;1.2943;
1055.4000;0.4306;1.2966;
1055.7000;0.4298;1.2990;
1056.0000;0.4282;1.2990;
1056.3000;0.4298;1.3060;
1056.6000;0.4290;1.3083;
1056.9000;0.4249;1.2966;
1057.2000;0.4282;1.3130;
1057.5000;0.4274;1.3036;
1057.8000;0.4371;1.3154;
1058.1000;0.4290;1.2966;
1058.4000;0.4306;1.2966;
1058.7000;0.4314;1.2919;
1059.0000;0.4249;1.2802;
1059.3000;0.4298;1.2943;
1059.6000;0.4282;1.2896;
1059.9000;0.4314;1.3060;
1060.2000;0.4306;1.2990;
1060.5000;0.4290;1.2896;
1060.8000;0.4282;1.2896;
1061.1000;0.4306;1.2872;
1061.4000;0.4306;1.2849;
1061.7000;0.4314;1.2849;
1062.0000;0.4282;1.2872;
1062.3000;0.4265;1.2825;
1062.6000;0.4282;1.2825;
1062.9000;0.4282;1.2825;
1063.2000;0.4298;1.2943;
1063.5000;0.4371;1.3177;
1063.8000;0.4274;1.2966;
1064.1000;0.4298;1.3060;
1064.4000;0.4282;1.2966;
1064.7000;0.4282;1.2919;
1065.0000;0.4290;1.2872;
1065.3000;0.4282;1.2872;
1065.6000;0.4274;1.2872;
1065.9000;0.4290;1.2872;
1066.2000;0.4241;1.2591;
1066.5000;0.4298;1.2802;
1066.8000;0.4265;1.2685;
1067.1000;0.4282;1.2825;
1067.4000;0.4339;1.2943;
1067.7000;0.4306;1.2825;
1068.0000;0.4290;1.2825;
1068.3000;0.4257;1.2802;
1068.6000;0.4290;1.2849;
1068.9000;0.4298;1.2990;
1069.2000;0.4265;1.2990;
1069.5000;0.4290;1.2990;
1069.8000;0.4265;1.2966;
1070.1000;0.4290;1.2990;
1070.4000;0.4330;1.3107;
1070.7000;0.4290;1.2990;
1071.0000;0.4282;1.2919;
1071.3000;0.4314;1.2919;
1071.6000;0.4314;1.2966;
1071.9000;0.4306;1.2919;
1072.2000;0.4282;1.2896;
1072.5000;0.4274;1.2896;
1072.8000;0.4282;1.2919;
1073.1000;0.4314;1.2943;
1073.4000;0.4265;1.2943;
1073.7000;0.4306;1.2966;
1074.0000;0.4241;1.2708;
1074.3000;0.4347;1.2990;
1074.6000;0.4290;1.2778;
1074.9000;0.4282;1.2755;
1075.2000;0.4282;1.2825;
1075.5000;0.4298;1.2896;
1075.8000;0.4314;1.2919;
1076.1000;0.4208;1.2708;
1076.4000;0.4290;1.3107;
1076.7000;0.4290;1.3177;
1077.0000;0.4298;1.3130;
1077.3000;0.4298;1.3130;
1077.6000;0.4290;1.3083;
1077.9000;0.4298;1.3107;
1078.2000;0.4290;1.3083;
1078.5000;0.4290;1.3013;
1078.8000;0.4274;1.3083;
1079.1000;0.4298;1.3107;
1079.4000;0.4298;1.3060;
1079.7000;0.4274;1.3060;
1080.0000;0.4306;1.3083;
1080.3000;0.4282;1.2990;
1080.6000;0.4298;1.2990;
1080.9000;0.4298;1.3060;
1081.2000;0.4290;1.3177;
1081.5000;0.4298;1.3201;
1081.8000;0.4290;1.3247;
1082.1000;0.4257;1.3083;
1082.4000;0.4290;1.3083;
1082.7000;0.4306;1.3083;
1083.0000;0.4314;1.3130;
1083.3000;0.4314;1.3083;
1083.6000;0.4290;1.2943;
1083.9000;0.4298;1.3013;
1084.2000;0.4233;1.2825;
1084.5000;0.4298;1.3083;
1084.8000;0.4306;1.3036;
1085.1000;0.4306;1.3060;
1085.4000;0.4298;1.3013;
1085.7000;0.4314;1.3060;
1086.0000;0.4298;1.3060;
1086.3000;0.4314;1.3083;
1086.6000;0.4314;1.3060;
1086.9000;0.4314;1.3060;
1087.2000;0.4306;1.2990;
1087.5000;0.4314;1.3013;
1087.8000;0.4306;1.3060;
1088.1000;0.4282;1.2990;
1088.4000;0.4306;1.3107;
1088.7000;0.4298;1.3083;
1089.0000;0.4290;1.3060;
1089.3000;0.4306;1.3013;
1089.6000;0.4290;1.3013;
1089.9000;0.4282;1.2896;
1090.2000;0.4282;1.2849;
1090.5000;0.4274;1.2849;
1090.8000;0.4274;1.2896;
1091.1000;0.4282;1.2919;
1091.4000;0.4265;1.2919;
1091.7000;0.4274;1.2966;
1092.0000;0.4290;1.2990;
1092.3000;0.4290;1.3036;
1092.6000;0.4298;1.3107;
1092.9000;0.4290;1.3036;
1093.2000;0.4290;1.2990;
1093.5000;0.4314;1.3083;
1093.8000;0.4306;1.2990;
1094.1000;0.4282;1.2943;
1094.4000;0.4314;1.3013;
1094.7000;0.4298;1.3036;
1095.0000;0.4257;1.2896;
1095.3000;0.4298;1.2943;
1095.6000;0.4282;1.2872;
1095.9000;0.4290;1.2825;
1096.2000;0.4290;1.2778;
1096.5000;0.4314;1.2896;
1096.8000;0.4314;1.2919;
1097.1000;0.4298;1.2943;
1097.4000;0.4282;1.2943;
1097.7000;0.4306;1.2990;
1098.0000;0.4298;1.3013;
1098.3000;0.4298;1.3060;
1098.6000;0.4314;1.3083;
1098.9000;0.4314;1.3083;
1099.2000;0.4298;1.3060;
1099.5000;0.4282;1.2896;
1099.8000;0.4290;1.3013;
1100.1000;0.4290;1.3060;
1100.4000;0.4282;1.2990;
1100.7000;0.4282;1.2919;
1101.0000;0.4282;1.2919;
1101.3000;0.4290;1.2872;
1101.6000;0.4282;1.2872;
1101.9000;0.4298;1.2919;
1102.2000;0.4282;1.2919;
1102.5000;0.4290;1.2825;
1102.8000;0.4298;1.2872;
1103.1000;0.4306;1.2872;
1103.4000;0.4274;1.2849;
1103.7000;0.4306;1.2966;
1104.0000;0.4282;1.2919;
1104.3000;0.4274;1.2919;
1104.6000;0.4282;1.2966;
1104.9000;0.4265;1.2966;
1105.2000;0.4298;1.3013;
1105.5000;0.4290;1.2990;
1105.8000;0.4290;1.2990;
1106.1000;0.4249;1.2849;
1106.4000;0.4290;1.2990;
1106.7000;0.4282;1.2872;
1107.0000;0.4290;1.2849;
1107.3000;0.4298;1.2778;
1107.6000;0.4314;1.2661;
1107.9000;0.4282;1.2638;
1108.2000;0.4290;1.2708;
1108.5000;0.4290;1.2732;
1108.8000;0.4306;1.2755;
1109.1000;0.4298;1.2802;
1109.4000;0.4306;1.2872;
1109.7000;0.4290;1.2943;
1110.0000;0.4298;1.2943;
1110.3000;0.4290;1.2919;
1110.6000;0.4282;1.2896;
1110.9000;0.4298;1.2896;
1111.2000;0.4274;1.2849;
1111.5000;0.4306;1.3013;
1111.8000;0.4290;1.3013;
1112.1000;0.4298;1.3036;
1112.4000;0.4282;1.2990;
1112.7000;0.4314;1.3036;
1113.0000;0.4282;1.2990;
1113.3000;0.4314;1.3130;
1113.6000;0.4265;1.2966;
1113.9000;0.4298;1.3107;
1114.2000;0.4298;1.3224;
1114.5000;0.4298;1.3177;
1114.8000;0.4355;1.3294;
1115.1000;0.4322;1.3083;
1115.4000;0.4322;1.3036;
1115.7000;0.4290;1.2943;
1116.0000;0.4298;1.2943;
1116.3000;0.4347;1.3036;
1116.6000;0.4208;1.2638;
1116.9000;0.4290;1.2755;
1117.2000;0.4290;1.2778;
1117.5000;0.4274;1.2732;
1117.8000;0.4274;1.2708;
1118.1000;0.4306;1.2708;
1118.4000;0.4330;1.2896;
1118.7000;0.4265;1.2708;
1119.0000;0.4298;1.2825;
1119.3000;0.4298;1.2755;
1119.6000;0.4290;1.2825;
1119.9000;0.4282;1.2849;
1120.2000;0.4371;1.3107;
1120.5000;0.4306;1.2943;
1120.8000;0.4306;1.2896;
1121.1000;0.4298;1.2849;
1121.4000;0.4306;1.2919;
1121.7000;0.4290;1.2896;
1122.0000;0.4282;1.2943;
1122.3000;0.4274;1.2919;
1122.6000;0.4274;1.2825;
1122.9000;0.4298;1.2919;
1123.2000;0.4257;1.2849;
1123.5000;0.4290;1.3013;
1123.8000;0.4290;1.3060;
1124.1000;0.4249;1.2966;
1124.4000;0.4339;1.3107;
1124.7000;0.4298;1.3013;
1125.0000;0.4257;1.2966;
1125.3000;0.4298;1.2943;
1125.6000;0.4306;1.2919;
1125.9000;0.4298;1.2802;
1126.2000;0.4290;1.2825;
1126.5000;0.4306;1.2872;
1126.8000;0.4314;1.2896;
1127.1000;0.4274;1.2872;
1127.4000;0.4282;1.2849;
1127.7000;0.4298;1.2896;
1128.0000;0.4282;1.2919;
1128.3000;0.4282;1.2966;
1128.6000;0.4265;1.2990;
1128.9000;0.4282;1.3013;
1129.2000;0.4200;1.2732;
1129.5000;0.4298;1.3013;
1129.8000;0.4298;1.3013;
1130.1000;0.4233;1.2849;
1130.4000;0.4274;1.2896;
1130.7000;0.4249;1.2896;
1131.0000;0.4314;1.3036;
1131.3000;0.4274;1.2990;
1131.6000;0.4282;1.2872;
1131.9000;0.4257;1.2872;
1132.2000;0.4314;1.3036;
1132.5000;0.4298;1.3013;
1132.8000;0.4282;1.2943;
1133.1000;0.4306;1.2943;
1133.4000;0.4314;1.2825;
1133.7000;0.4298;1.2802;
1134.0000;0.4306;1.2919;
1134.3000;0.4298;1.2943;
1134.6000;0.4298;1.2943;
1134.9000;0.4298;1.2872;
1135.2000;0.4274;1.2825;
1135.5000;0.4274;1.2802;
1135.8000;0.4282;1.2755;
1136.1000;0.4290;1.2778;
1136.4000;0.4282;1.2802;
1136.7000;0.4282;1.2825;
1137.0000;0.4298;1.2896;
1137.3000;0.4290;1.2966;
1137.6000;0.4265;1.3013;
1137.9000;0.4274;1.3107;
1138.2000;0.4274;1.3107;
1138.5000;0.4306;1.3083;
1138.8000;0.4290;1.2943;
1139.1000;0.4298;1.2919;
1139.4000;0.4282;1.2778;
1139.7000;0.4274;1.2825;
1140.0000;0.4298;1.2872;
1140.3000;0.4298;1.2849;
1140.6000;0.4282;1.2919;
1140.9000;0.4355;1.3083;
1141.2000;0.4282;1.2778;
1141.5000;0.4298;1.2755;
1141.8000;0.4298;1.2778;
1142.1000;0.4298;1.2661;
1142.4000;0.4298;1.2591;
1142.7000;0.4290;1.2497;
1143.0000;0.4306;1.2544;
1143.3000;0.4265;1.2474;
1143.6000;0.4314;1.2661;
1143.9000;0.4282;1.2685;
1144.2000;0.4298;1.2708;
1144.5000;0.4298;1.2732;
1144.8000;0.4265;1.2685;
1145.1000;0.4298;1.2732;
1145.4000;0.4282;1.2755;
1145.7000;0.4298;1.2825;
1146.0000;0.4282;1.2685;
1146.3000;0.4339;1.2755;
1146.6000;0.4290;1.2661;
1146.9000;0.4314;1.2661;
1147.2000;0.4298;1.2591;
1147.5000;0.4314;1.2567;
1147.8000;0.4298;1.2497;
1148.1000;0.4290;1.2521;
1148.4000;0.4274;1.2521;
1148.7000;0.4306;1.2661;
1149.0000;0.4314;1.2685;
1149.3000;0.4282;1.2614;
1149.6000;0.4290;1.2614;
1149.9000;0.4290;1.2591;
1150.2000;0.4265;1.2544;
1150.5000;0.4290;1.2497;
1150.8000;0.4290;1.2521;
1151.1000;0.4274;1.2497;
1151.4000;0.4298;1.2567;
1151.7000;0.4241;1.2497;
1152.0000;0.4290;1.2708;
1152.3000;0.4290;1.2755;
1152.6000;0.4306;1.2849;
1152.9000;0.4274;1.2825;
1153.2000;0.4306;1.2896;
1153.5000;0.4290;1.2872;
1153.8000;0.4314;1.2849;
1154.1000;0.4265;1.2661;
1154.4000;0.4298;1.2755;
1154.7000;0.4192;1.2497;
1155.0000;0.4379;1.2943;
1155.3000;0.4298;1.2802;
1155.6000;0.4306;1.2732;
1155.9000;0.4290;1.2638;
1156.2000;0.4306;1.2685;
1156.5000;0.4298;1.2661;
1156.8000;0.4298;1.2638;
1157.1000;0.4290;1.2591;
1157.4000;0.4282;1.2497;
1157.7000;0.4298;1.2614;
1158.0000;0.4200;1.2474;
1158.3000;0.4274;1.2685;
1158.6000;0.4306;1.2685;
1158.9000;0.4306;1.2755;
1159.2000;0.4298;1.2661;
1159.5000;0.4282;1.2544;
1159.8000;0.4282;1.2638;
1160.1000;0.4274;1.2591;
1160.4000;0.4298;1.2591;
1160.7000;0.4282;1.2544;
1161.0000;0.4290;1.2521;
1161.3000;0.4176;1.2192;
1161.6000;0.4290;1.2497;
1161.9000;0.4265;1.2544;
1162.2000;0.4306;1.2567;
1162.5000;0.4274;1.2521;
1162.8000;0.4290;1.2661;
1163.1000;0.4290;1.2708;
1163.4000;0.4290;1.2661;
1163.7000;0.4282;1.2638;
1164.0000;0.4314;1.2732;
1164.3000;0.4290;1.2708;
1164.6000;0.4282;1.2685;
1164.9000;0.4265;1.2614;
1165.2000;0.4274;1.2708;
1165.5000;0.4282;1.2708;
1165.8000;0.4290;1.2708;
1166.1000;0.4298;1.2708;
1166.4000;0.4241;1.2591;
1166.7000;0.4282;1.2544;
1167.0000;0.4347;1.2614;
1167.3000;0.4290;1.2427;
1167.6000;0.4274;1.2474;
1167.9000;0.4290;1.2521;
1168.2000;0.4298;1.2614;
1168.5000;0.4298;1.2614;
1168.8000;0.4306;1.2567;
1169.1000;0.4290;1.2497;
1169.4000;0.4298;1.2497;
1169.7000;0.4282;1.2638;
1170.0000;0.4249;1.2497;
1170.3000;0.4290;1.2708;
1170.6000;0.4282;1.2732;
1170.9000;0.4282;1.2778;
1171.2000;0.4290;1.2661;
1171.5000;0.4282;1.2591;
1171.8000;0.4274;1.2638;
1172.1000;0.4282;1.2708;
1172.4000;0.4282;1.2802;
1172.7000;0.4274;1.2802;
1173.0000;0.4298;1.2849;
1173.3000;0.4290;1.2872;
1173.6000;0.4306;1.2896;
1173.9000;0.4314;1.2990;
1174.2000;0.4298;1.2919;
1174.5000;0.4314;1.2943;
1174.8000;0.4298;1.2919;
1175.1000;0.4298;1.2943;
1175.4000;0.4298;1.3013;
1175.7000;0.4249;1.2919;
1176.0000;0.4306;1.3060;
1176.3000;0.4274;1.2919;
1176.6000;0.4274;1.2896;
1176.9000;0.4298;1.2872;
1177.2000;0.4306;1.2825;
1177.5000;0.4298;1.2825;
1177.8000;0.4298;1.2755;
1178.1000;0.4306;1.2802;
1178.4000;0.4290;1.2732;
1178.7000;0.4306;1.2755;
1179.0000;0.4274;1.2778;
1179.3000;0.4298;1.2778;
1179.6000;0.4298;1.2825;
1179.9000;0.4314;1.2896;
1180.2000;0.4298;1.2896;
1180.5000;0.4298;1.2872;
1180.8000;0.4290;1.2849;
1181.1000;0.4314;1.2778;
1181.4000;0.4290;1.2591;
1181.7000;0.4282;1.2591;
1182.0000;0.4298;1.2474;
1182.3000;0.4306;1.2521;
1182.6000;0.4290;1.2450;
1182.9000;0.4298;1.2521;
1183.2000;0.4322;1.2638;
1183.5000;0.4290;1.2567;
1183.8000;0.4290;1.2544;
1184.1000;0.4306;1.2544;
1184.4000;0.4290;1.2614;
1184.7000;0.4274;1.2708;
1185.0000;0.4298;1.2685;
1185.3000;0.4282;1.2732;
1185.6000;0.4355;1.2943;
1185.9000;0.4314;1.2802;
1186.2000;0.4290;1.2732;
1186.5000;0.4298;1.2685;
1186.8000;0.4290;1.2638;
1187.1000;0.4290;1.2591;
1187.4000;0.4347;1.2755;
1187.7000;0.4290;1.2778;
1188.0000;0.4274;1.2732;
1188.3000;0.4274;1.2708;
1188.6000;0.4290;1.2732;
1188.9000;0.4290;1.2732;
1189.2000;0.4306;1.2708;
1189.5000;0.4379;1.2849;
1189.8000;0.4298;1.2661;
1190.1000;0.4282;1.2591;
1190.4000;0.4314;1.2661;
1190.7000;0.4282;1.2638;
1191.0000;0.4274;1.2638;
1191.3000;0.4290;1.2638;
1191.6000;0.4298;1.2708;
1191.9000;0.4290;1.2708;
1192.2000;0.4347;1.2896;
1192.5000;0.4290;1.2755;
1192.8000;0.4282;1.2778;
1193.1000;0.4274;1.2755;
1193.4000;0.4282;1.2778;
1193.7000;0.4282;1.2825;
1194.0000;0.4306;1.2802;
1194.3000;0.4290;1.2755;
1194.6000;0.4298;1.2825;
1194.9000;0.4249;1.2755;
1195.2000;0.4314;1.2849;
1195.5000;0.4298;1.2778;
1195.8000;0.4298;1.2732;
1196.1000;0.4347;1.2919;
1196.4000;0.4290;1.2708;
1196.7000;0.4298;1.2755;
1197.0000;0.4290;1.2708;
1197.3000;0.4290;1.2685;
1197.6000;0.4257;1.2708;
1197.9000;0.4282;1.2778;
1198.2000;0.4282;1.2755;
1198.5000;0.4290;1.2872;
1198.8000;0.4290;1.2825;
1199.1000;0.4208;1.2661;
1199.4000;0.4298;1.2966;
1199.7000;0.4290;1.2919;
1200.0000;0.4282;1.2849;
1200.3000;0.4298;1.2896;
1200.6000;0.4347;1.2990;
1200.9000;0.4282;1.2872;
1201.2000;0.4274;1.2990;
1201.5000;0.4282;1.3036;
1201.8000;0.4306;1.2966;
1202.1000;0.4290;1.2966;
1202.4000;0.4274;1.2896;
1202.7000;0.4274;1.2825;
1203.0000;0.4282;1.2802;
1203.3000;0.4298;1.2872;
1203.6000;0.4265;1.2872;
1203.9000;0.4355;1.3083;
1204.2000;0.4306;1.2896;
1204.5000;0.4290;1.2802;
1204.8000;0.4233;1.2567;
1205.1000;0.4290;1.2755;
1205.4000;0.4290;1.2755;
1205.7000;0.4290;1.2732;
1206.0000;0.4290;1.2755;
1206.3000;0.4355;1.2872;
1206.6000;0.4298;1.2685;
1206.9000;0.4322;1.2685;
1207.2000;0.4314;1.2802;
1207.5000;0.4290;1.2802;
1207.8000;0.4298;1.2755;
1208.1000;0.4274;1.2708;
1208.4000;0.4274;1.2685;
1208.7000;0.4314;1.2825;
1209.0000;0.4298;1.2755;
1209.3000;0.4314;1.2685;
1209.6000;0.4298;1.2638;
1209.9000;0.4290;1.2497;
1210.2000;0.4298;1.2614;
1210.5000;0.4314;1.2708;
1210.8000;0.4241;1.2544;
1211.1000;0.4298;1.2638;
1211.4000;0.4290;1.2638;
1211.7000;0.4298;1.2638;
1212.0000;0.4306;1.2685;
1212.3000;0.4306;1.2755;
1212.6000;0.4404;1.3013;
1212.9000;0.4306;1.2755;
1213.2000;0.4249;1.2708;
1213.5000;0.4265;1.2802;
1213.8000;0.4306;1.2896;
1214.1000;0.4282;1.2919;
1214.4000;0.4274;1.2896;
1214.7000;0.4274;1.2896;
1215.0000;0.4298;1.2849;
1215.3000;0.4298;1.2778;
1215.6000;0.4298;1.2778;
1215.9000;0.4314;1.2872;
1216.2000;0.4290;1.2802;
1216.5000;0.4298;1.2849;
1216.8000;0.4298;1.2849;
1217.1000;0.4306;1.2778;
1217.4000;0.4290;1.2778;
1217.7000;0.4298;1.2849;
1218.0000;0.4290;1.2825;
1218.3000;0.4298;1.2778;
1218.6000;0.4249;1.2614;
1218.9000;0.4282;1.2732;
1219.2000;0.4274;1.2732;
1219.5000;0.4282;1.2778;
1219.8000;0.4290;1.2708;
1220.1000;0.4282;1.2685;
1220.4000;0.4282;1.2685;
1220.7000;0.4339;1.2966;
1221.0000;0.4290;1.2802;
1221.3000;0.4265;1.2732;
1221.6000;0.4290;1.2755;
1221.9000;0.4257;1.2708;
1222.2000;0.4306;1.2872;
1222.5000;0.4282;1.2872;
1222.8000;0.4306;1.2849;
1223.1000;0.4257;1.2802;
1223.4000;0.4290;1.2943;
1223.7000;0.4363;1.3130;
1224.0000;0.4306;1.2896;
1224.3000;0.4282;1.2849;
1224.6000;0.4265;1.2732;
1224.9000;0.4241;1.2638;
1225.2000;0.4274;1.2778;
1225.5000;0.4290;1.2755;
1225.8000;0.4298;1.2778;
1226.1000;0.4347;1.2919;
1226.4000;0.4290;1.2778;
1226.7000;0.4257;1.2591;
1227.0000;0.4290;1.2638;
1227.3000;0.4265;1.2661;
1227.6000;0.4274;1.2638;
1227.9000;0.4225;1.2544;
1228.2000;0.4396;1.2849;
1228.5000;0.4306;1.2685;
1228.8000;0.4298;1.2708;
1229.1000;0.4290;1.2802;
1229.4000;0.4274;1.2825;
1229.7000;0.4282;1.2896;
1230.0000;0.4290;1.2966;
1230.3000;0.4290;1.3060;
1230.6000;0.4274;1.3013;
1230.9000;0.4290;1.3107;
1231.2000;0.4298;1.3060;
1231.5000;0.4306;1.3036;
1231.8000;0.4290;1.2896;
1232.1000;0.4290;1.2872;
1232.4000;0.4290;1.2872;
1232.7000;0.4298;1.2849;
1233.0000;0.4306;1.2872;
1233.3000;0.4282;1.2825;
1233.6000;0.4306;1.2872;
1233.9000;0.4298;1.2966;
1234.2000;0.4290;1.3013;
1234.5000;0.4274;1.2966;
1234.8000;0.4298;1.3013;
1235.1000;0.4290;1.2990;
1235.4000;0.4290;1.2990;
1235.7000;0.4282;1.3060;
1236.0000;0.4274;1.2919;
1236.3000;0.4265;1.2896;
1236.6000;0.4265;1.2919;
1236.9000;0.4282;1.2943;
1237.2000;0.4282;1.2990;
1237.5000;0.4306;1.3060;
1237.8000;0.4306;1.3107;
1238.1000;0.4274;1.3013;
1238.4000;0.4290;1.3036;
1238.7000;0.4290;1.3083;
1239.0000;0.4306;1.3130;
1239.3000;0.4290;1.3036;
1239.6000;0.4282;1.3060;
1239.9000;0.4274;1.3013;
1240.2000;0.4257;1.2943;
1240.5000;0.4298;1.3060;
1240.8000;0.4282;1.3083;
1241.1000;0.4282;1.3107;
1241.4000;0.4298;1.3201;
1241.7000;0.4290;1.3060;
1242.0000;0.4282;1.3036;
1242.3000;0.4282;1.3036;
1242.6000;0.4298;1.3083;
1242.9000;0.4314;1.3201;
1243.2000;0.4298;1.3271;
1243.5000;0.4282;1.3154;
1243.8000;0.4282;1.3130;
1244.1000;0.4290;1.3130;
1244.4000;0.4290;1.3060;
1244.7000;0.4298;1.3013;
1245.0000;0.4290;1.3060;
1245.3000;0.4306;1.2990;
1245.6000;0.4298;1.2943;
1245.9000;0.4322;1.3013;
1246.2000;0.4282;1.2849;
1246.5000;0.4282;1.2849;
1246.8000;0.4274;1.2919;
1247.1000;0.4322;1.3036;
1247.4000;0.4298;1.2966;
1247.7000;0.4290;1.2966;
1248.0000;0.4282;1.2919;
1248.3000;0.4306;1.2990;
1248.6000;0.4257;1.2825;
1248.9000;0.4265;1.2825;
1249.2000;0.4290;1.2966;
1249.5000;0.4306;1.3013;
1249.8000;0.4298;1.2990;
1250.1000;0.4290;1.2966;
1250.4000;0.4298;1.3013;
1250.7000;0.4298;1.3036;
1251.0000;0.4282;1.2990;
1251.3000;0.4282;1.2990;
1251.6000;0.4290;1.2966;
1251.9000;0.4298;1.2943;
1252.2000;0.4290;1.2919;
1252.5000;0.4282;1.2919;
1252.8000;0.4274;1.2943;
1253.1000;0.4306;1.2990;
1253.4000;0.4298;1.2919;
1253.7000;0.4298;1.2919;
1254.0000;0.4306;1.2872;
1254.3000;0.4347;1.3036;
1254.6000;0.4290;1.2919;
1254.9000;0.4298;1.2990;
1255.2000;0.4322;1.3060;
1255.5000;0.4257;1.2872;
1255.8000;0.4233;1.2732;
1256.1000;0.4298;1.2896;
1256.4000;0.4298;1.2849;
1256.7000;0.4298;1.2849;
1257.0000;0.4314;1.2849;
1257.3000;0.4282;1.2802;
1257.6000;0.4282;1.2825;
1257.9000;0.4265;1.2778;
1258.2000;0.4265;1.2872;
1258.5000;0.4282;1.3013;
1258.8000;0.4298;1.3036;
1259.1000;0.4282;1.3013;
1259.4000;0.4314;1.3060;
1259.7000;0.4306;1.2966;
1260.0000;0.4290;1.2896;
1260.3000;0.4298;1.2943;
1260.6000;0.4290;1.2943;
1260.9000;0.4274;1.2919;
1261.2000;0.4282;1.3013;
1261.5000;0.4339;1.3247;
1261.8000;0.4306;1.3036;
1262.1000;0.4290;1.3036;
1262.4000;0.4282;1.2943;
1262.7000;0.4282;1.2943;
1263.0000;0.4217;1.2802;
1263.3000;0.4249;1.2849;
1263.6000;0.4322;1.2966;
1263.9000;0.4274;1.2872;
1264.2000;0.4249;1.2778;
1264.5000;0.4298;1.2896;
1264.8000;0.4274;1.2872;
1265.1000;0.4290;1.2919;
1265.4000;0.4282;1.2849;
1265.7000;0.4290;1.2872;
1266.0000;0.4290;1.2896;
1266.3000;0.4290;1.2849;
1266.6000;0.4257;1.2802;
1266.9000;0.4265;1.2849;
1267.2000;0.4298;1.2919;
1267.5000;0.4265;1.2825;
1267.8000;0.4298;1.2849;
1268.1000;0.4274;1.2825;
1268.4000;0.4290;1.2778;
1268.7000;0.4290;1.2825;
1269.0000;0.4282;1.2802;
1269.3000;0.4274;1.2708;
1269.6000;0.4274;1.2708;
1269.9000;0.4282;1.2708;
1270.2000;0.4274;1.2802;
1270.5000;0.4274;1.2802;
1270.8000;0.4282;1.2802;
1271.1000;0.4290;1.2943;
1271.4000;0.4298;1.2943;
1271.7000;0.4298;1.2896;
1272.0000;0.4282;1.2802;
1272.3000;0.4339;1.2872;
1272.6000;0.4282;1.2755;
1272.9000;0.4298;1.2755;
1273.2000;0.4298;1.2778;
1273.5000;0.4265;1.2708;
1273.8000;0.4282;1.2732;
1274.1000;0.4257;1.2685;
1274.4000;0.4282;1.2708;
1274.7000;0.4274;1.2755;
1275.0000;0.4306;1.2990;
1275.3000;0.4298;1.2943;
1275.6000;0.4306;1.2919;
1275.9000;0.4282;1.2990;
1276.2000;0.4339;1.3130;
1276.5000;0.4265;1.2919;
1276.8000;0.4290;1.2990;
1277.1000;0.4282;1.3013;
1277.4000;0.4298;1.3060;
1277.7000;0.4306;1.3107;
1278.0000;0.4290;1.3060;
1278.3000;0.4217;1.2943;
1278.6000;0.4282;1.3083;
1278.9000;0.4282;1.3036;
1279.2000;0.4282;1.2943;
1279.5000;0.4282;1.2872;
1279.8000;0.4274;1.2802;
1280.1000;0.4290;1.2755;
1280.4000;0.4387;1.3083;
1280.7000;0.4290;1.2872;
1281.0000;0.4298;1.2896;
1281.3000;0.4282;1.2872;
1281.6000;0.4290;1.2872;
1281.9000;0.4282;1.2849;
1282.2000;0.4274;1.2872;
1282.5000;0.4290;1.2872;
1282.8000;0.4290;1.2802;
1283.1000;0.4306;1.2755;
1283.4000;0.4298;1.2708;
1283.7000;0.4274;1.2685;
1284.0000;0.4282;1.2732;
1284.3000;0.4282;1.2708;
1284.6000;0.4274;1.2755;
1284.9000;0.4274;1.2732;
1285.2000;0.4274;1.2708;
1285.5000;0.4290;1.2732;
1285.8000;0.4274;1.2661;
1286.1000;0.4290;1.2614;
1286.4000;0.4249;1.2544;
1286.7000;0.4363;1.2825;
1287.0000;0.4265;1.2685;
1287.3000;0.4298;1.2708;
1287.6000;0.4306;1.2732;
1287.9000;0.4306;1.2755;
1288.2000;0.4298;1.2778;
1288.5000;0.4200;1.2661;
1288.8000;0.4282;1.2849;
1289.1000;0.4282;1.2896;
1289.4000;0.4290;1.2919;
1289.7000;0.4298;1.2872;
1290.0000;0.4265;1.2896;
1290.3000;0.4265;1.2872;
1290.6000;0.4298;1.2943;
1290.9000;0.4290;1.2825;
1291.2000;0.4298;1.2849;
1291.5000;0.4282;1.2802;
1291.8000;0.4306;1.2802;
1292.1000;0.4274;1.2778;
1292.4000;0.4290;1.2732;
1292.7000;0.4282;1.2802;
1293.0000;0.4298;1.2849;
1293.3000;0.4298;1.2849;
1293.6000;0.4282;1.2872;
1293.9000;0.4290;1.2943;
1294.2000;0.4282;1.2849;
1294.5000;0.4274;1.2943;
1294.8000;0.4265;1.2872;
1295.1000;0.4282;1.2943;
1295.4000;0.4274;1.2943;
1295.7000;0.4282;1.2943;
1296.0000;0.4241;1.2802;
1296.3000;0.4298;1.3036;
1296.6000;0.4290;1.3036;
1296.9000;0.4290;1.3013;
1297.2000;0.4282;1.2966;
1297.5000;0.4274;1.2896;
1297.8000;0.4298;1.2943;
1298.1000;0.4290;1.2966;
1298.4000;0.4306;1.3036;
1298.7000;0.4282;1.2943;
1299.0000;0.4298;1.2990;
1299.3000;0.4265;1.2919;
1299.6000;0.4298;1.3013;
1299.9000;0.4298;1.3060;
1300.2000;0.4274;1.3036;
1300.5000;0.4290;1.3060;
1300.8000;0.4274;1.3060;
1301.1000;0.4290;1.3154;
1301.4000;0.4265;1.3107;
1301.7000;0.4379;1.3201;
1302.0000;0.4298;1.3013;
1302.3000;0.4290;1.2990;
1302.6000;0.4265;1.2849;
1302.9000;0.4298;1.2755;
1303.2000;0.4257;1.2614;
1303.5000;0.4298;1.2708;
1303.8000;0.4290;1.2732;
1304.1000;0.4290;1.2755;
1304.4000;0.4306;1.2849;
1304.7000;0.4282;1.2825;
1305.0000;0.4306;1.2825;
1305.3000;0.4290;1.2825;
1305.6000;0.4274;1.2802;
1305.9000;0.4274;1.2708;
1306.2000;0.4282;1.2755;
1306.5000;0.4274;1.2755;
1306.8000;0.4265;1.2708;
1307.1000;0.4298;1.2755;
1307.4000;0.4298;1.2708;
1307.7000;0.4290;1.2661;
1308.0000;0.4282;1.2708;
1308.3000;0.4298;1.2849;
1308.6000;0.4290;1.2849;
1308.9000;0.4290;1.2919;
1309.2000;0.4290;1.2919;
1309.5000;0.4290;1.2919;
1309.8000;0.4314;1.3036;
1310.1000;0.4282;1.2872;
1310.4000;0.4274;1.2849;
1310.7000;0.4290;1.2802;
1311.0000;0.4290;1.2849;
1311.3000;0.4298;1.2919;
1311.6000;0.4290;1.2825;
1311.9000;0.4290;1.2872;
1312.2000;0.4265;1.2802;
1312.5000;0.4290;1.2919;
1312.8000;0.4290;1.2896;
1313.1000;0.4290;1.2849;
1313.4000;0.4298;1.2896;
1313.7000;0.4306;1.2896;
1314.0000;0.4306;1.2872;
1314.3000;0.4314;1.2919;
1314.6000;0.4314;1.2966;
1314.9000;0.4274;1.2919;
1315.2000;0.4298;1.3036;
1315.5000;0.4306;1.3036;
1315.8000;0.4192;1.2755;
1316.1000;0.4290;1.2990;
1316.4000;0.4290;1.3013;
1316.7000;0.4314;1.2919;
1317.0000;0.4217;1.2591;
1317.3000;0.4290;1.2825;
1317.6000;0.4290;1.2943;
1317.9000;0.4274;1.2802;
1318.2000;0.4274;1.2732;
1318.5000;0.4290;1.2755;
1318.8000;0.4306;1.2802;
1319.1000;0.4184;1.2544;
1319.4000;0.4306;1.2849;
1319.7000;0.4290;1.2896;
1320.0000;0.4298;1.2966;
1320.3000;0.4314;1.2966;
1320.6000;0.4184;1.2638;
1320.9000;0.4282;1.2825;
1321.2000;0.4265;1.2849;
1321.5000;0.4290;1.2872;
1321.8000;0.4265;1.2778;
1322.1000;0.4290;1.2802;
1322.4000;0.4274;1.2755;
1322.7000;0.4298;1.2778;
1323.0000;0.4282;1.2802;
1323.3000;0.4257;1.2778;
1323.6000;0.4274;1.2849;
1323.9000;0.4290;1.2849;
1324.2000;0.4298;1.2825;
1324.5000;0.4290;1.2732;
1324.8000;0.4233;1.2567;
1325.1000;0.4314;1.2708;
1325.4000;0.4314;1.2685;
1325.7000;0.4314;1.2732;
1326.0000;0.4306;1.2661;
1326.3000;0.4290;1.2521;
1326.6000;0.4200;1.2403;
1326.9000;0.4314;1.2755;
1327.2000;0.4322;1.2802;
1327.5000;0.4282;1.2708;
1327.8000;0.4290;1.2778;
1328.1000;0.4298;1.2825;
1328.4000;0.4306;1.2896;
1328.7000;0.4282;1.2778;
1329.0000;0.4274;1.2778;
1329.3000;0.4298;1.2778;
1329.6000;0.4306;1.2872;
1329.9000;0.4306;1.2849;
1330.2000;0.4306;1.2872;
1330.5000;0.4371;1.3036;
1330.8000;0.4322;1.2896;
1331.1000;0.4282;1.2943;
1331.4000;0.4290;1.2919;
1331.7000;0.4306;1.2966;
1332.0000;0.4282;1.2896;
1332.3000;0.4290;1.2896;
1332.6000;0.4282;1.2849;
1332.9000;0.4298;1.2872;
1333.2000;0.4306;1.2966;
1333.5000;0.4233;1.2755;
1333.8000;0.4184;1.2544;
1334.1000;0.4290;1.2802;
1334.4000;0.4298;1.2849;
1334.7000;0.4322;1.2872;
1335.0000;0.4314;1.2919;
1335.3000;0.4298;1.2802;
1335.6000;0.4298;1.2919;
1335.9000;0.4314;1.2966;
1336.2000;0.4290;1.2919;
1336.5000;0.4274;1.2872;
1336.8000;0.4290;1.2778;
1337.1000;0.4298;1.2872;
1337.4000;0.4290;1.2919;
1337.7000;0.4249;1.2849;
1338.0000;0.4322;1.3013;
1338.3000;0.4306;1.2966;
1338.6000;0.4298;1.2919;
1338.9000;0.4298;1.2919;
1339.2000;0.4274;1.2896;
1339.5000;0.4298;1.2943;
1339.8000;0.4282;1.2919;
1340.1000;0.4306;1.2966;
1340.4000;0.4290;1.2943;
1340.7000;0.4387;1.3154;
1341.0000;0.4339;1.2990;
1341.3000;0.4233;1.2755;
1341.6000;0.4290;1.2919;
1341.9000;0.4298;1.2943;
1342.2000;0.4298;1.2943;
1342.5000;0.4282;1.2990;
1342.8000;0.4290;1.3060;
1343.1000;0.4233;1.2872;
1343.4000;0.4306;1.3060;
1343.7000;0.4290;1.3036;
1344.0000;0.4298;1.3036;
1344.3000;0.4265;1.2966;
1344.6000;0.4322;1.3107;
1344.9000;0.4298;1.3036;
1345.2000;0.4274;1.3013;
1345.5000;0.4306;1.3036;
1345.8000;0.4314;1.3013;
1346.1000;0.4298;1.2943;
1346.4000;0.4298;1.2896;
1346.7000;0.4322;1.2943;
1347.0000;0.4282;1.2896;
1347.3000;0.4314;1.3013;
1347.6000;0.4298;1.3013;
1347.9000;0.4290;1.3036;
1348.2000;0.4298;1.3036;
1348.5000;0.4298;1.2966;
1348.8000;0.4290;1.2943;
1349.1000;0.4282;1.3036;
1349.4000;0.4290;1.3083;
1349.7000;0.4290;1.3060;
1350.0000;0.4298;1.3107;
1350.3000;0.4298;1.3107;
1350.6000;0.4298;1.3083;
1350.9000;0.4322;1.3083;
1351.2000;0.4322;1.3036;
1351.5000;0.4290;1.3107;
1351.8000;0.4298;1.3060;
1352.1000;0.4298;1.3107;
1352.4000;0.4298;1.2966;
1352.7000;0.4290;1.2966;
1353.0000;0.4314;1.2966;
1353.3000;0.4290;1.2919;
1353.6000;0.4290;1.2825;
1353.9000;0.4314;1.2872;
1354.2000;0.4282;1.2825;
1354.5000;0.4290;1.2896;
1354.8000;0.4298;1.2872;
1355.1000;0.4298;1.2849;
1355.4000;0.4347;1.3036;
1355.7000;0.4290;1.2966;
1356.0000;0.4290;1.2919;
1356.3000;0.4306;1.3060;
1356.6000;0.4322;1.3036;
1356.9000;0.4355;1.3201;
1357.2000;0.4330;1.3201;
1357.5000;0.4298;1.3154;
1357.8000;0.4290;1.3130;
1358.1000;0.4298;1.3130;
1358.4000;0.4265;1.2990;
1358.7000;0.4282;1.3060;
1359.0000;0.4265;1.3107;
1359.3000;0.4290;1.3107;
1359.6000;0.4282;1.3083;
1359.9000;0.4249;1.3036;
1360.2000;0.4241;1.3083;
1360.5000;0.4290;1.3130;
1360.8000;0.4298;1.3083;
1361.1000;0.4265;1.2943;
1361.4000;0.4306;1.3036;
1361.7000;0.4282;1.3013;
1362.0000;0.4282;1.2966;
1362.3000;0.4290;1.2849;
1362.6000;0.4282;1.2849;
1362.9000;0.4298;1.2755;
1363.2000;0.4298;1.2825;
1363.5000;0.4298;1.2825;
1363.8000;0.4274;1.2802;
1364.1000;0.4282;1.2896;
1364.4000;0.4298;1.2896;
1364.7000;0.4282;1.2778;
1365.0000;0.4282;1.2825;
1365.3000;0.4282;1.2919;
1365.6000;0.4282;1.2966;
1365.9000;0.4282;1.2990;
1366.2000;0.4371;1.3247;
1366.5000;0.4298;1.3154;
1366.8000;0.4282;1.3060;
1367.1000;0.4274;1.3083;
1367.4000;0.4274;1.3083;
1367.7000;0.4298;1.3060;
1368.0000;0.4282;1.3060;
1368.3000;0.4387;1.3247;
1368.6000;0.4274;1.3083;
1368.9000;0.4282;1.3107;
1369.2000;0.4282;1.3107;
1369.5000;0.4282;1.3036;
1369.8000;0.4282;1.2943;
1370.1000;0.4290;1.2966;
1370.4000;0.4265;1.2802;
1370.7000;0.4298;1.2825;
1371.0000;0.4265;1.2708;
1371.3000;0.4298;1.2802;
1371.6000;0.4298;1.2872;
1371.9000;0.4322;1.2896;
1372.2000;0.4298;1.2778;
1372.5000;0.4265;1.2708;
1372.8000;0.4314;1.2825;
1373.1000;0.4298;1.2802;
1373.4000;0.4306;1.2825;
1373.7000;0.4298;1.2778;
1374.0000;0.4290;1.2732;
1374.3000;0.4298;1.2778;
1374.6000;0.4290;1.2732;
1374.9000;0.4257;1.2708;
1375.2000;0.4290;1.2849;
1375.5000;0.4274;1.2943;
1375.8000;0.4265;1.2919;
1376.1000;0.4274;1.2919;
1376.4000;0.4282;1.3060;
1376.7000;0.4249;1.2990;
1377.0000;0.4330;1.3107;
1377.3000;0.4265;1.2966;
1377.6000;0.4282;1.2919;
1377.9000;0.4322;1.3060;
1378.2000;0.4298;1.2896;
1378.5000;0.4282;1.2849;
1378.8000;0.4290;1.2896;
1379.1000;0.4298;1.2849;
1379.4000;0.4298;1.2825;
1379.7000;0.4298;1.2825;
1380.0000;0.4282;1.2872;
1380.3000;0.4282;1.2966;
1380.6000;0.4282;1.3036;
1380.9000;0.4282;1.3083;
1381.2000;0.4257;1.3060;
1381.5000;0.4200;1.2872;
1381.8000;0.4241;1.2825;
1382.1000;0.4322;1.3036;
1382.4000;0.4298;1.2966;
1382.7000;0.4282;1.3013;
1383.0000;0.4322;1.3083;
1383.3000;0.4298;1.3036;
1383.6000;0.4290;1.2990;
1383.9000;0.4298;1.3013;
1384.2000;0.4290;1.2919;
1384.5000;0.4298;1.2966;
1384.8000;0.4298;1.2896;
1385.1000;0.4282;1.2778;
1385.4000;0.4282;1.2872;
1385.7000;0.4282;1.2825;
1386.0000;0.4274;1.2896;
1386.3000;0.4257;1.2778;
1386.6000;0.4282;1.2896;
1386.9000;0.4274;1.2872;
1387.2000;0.4151;1.2497;
1387.5000;0.4298;1.2732;
1387.8000;0.4274;1.2708;
1388.1000;0.4314;1.2896;
1388.4000;0.4314;1.2825;
1388.7000;0.4290;1.2802;
1389.0000;0.4265;1.2732;
1389.3000;0.4347;1.2966;
1389.6000;0.4298;1.2802;
1389.9000;0.4298;1.2849;
1390.2000;0.4290;1.2896;
1390.5000;0.4282;1.2896;
1390.8000;0.4290;1.2896;
1391.1000;0.4184;1.2591;
1391.4000;0.4282;1.2755;
1391.7000;0.4265;1.2708;
1392.0000;0.4282;1.2778;
1392.3000;0.4168;1.2614;
1392.6000;0.4290;1.2966;
1392.9000;0.4282;1.2872;
1393.2000;0.4306;1.2919;
1393.5000;0.4298;1.2896;
1393.8000;0.4298;1.2943;
1394.1000;0.4290;1.2943;
1394.4000;0.4298;1.3013;
1394.7000;0.4290;1.3060;
1395.0000;0.4282;1.3107;
1395.3000;0.4290;1.3107;
1395.6000;0.4282;1.3060;
1395.9000;0.4290;1.2943;
1396.2000;0.4290;1.2825;
1396.5000;0.4290;1.2802;
1396.8000;0.4306;1.2778;
1397.1000;0.4298;1.2802;
1397.4000;0.4298;1.2849;
1397.7000;0.4298;1.2919;
1398.0000;0.4298;1.3036;
1398.3000;0.4306;1.2990;
1398.6000;0.4290;1.3013;
1398.9000;0.4298;1.3083;
1399.2000;0.4298;1.3130;
1399.5000;0.4298;1.3060;
1399.8000;0.4298;1.3013;
