time/ms;Fluo/V;P700 deltaI/I x10³;
-199.8000;0.6821;1.3239;
-199.5000;0.6813;1.3189;
-199.2000;0.6813;1.3163;
-198.9000;0.6805;1.3113;
-198.6000;0.6805;1.3163;
-198.3000;0.6813;1.3214;
-198.0000;0.6838;1.3316;
-197.7000;0.6838;1.3392;
-197.4000;0.6772;1.3189;
-197.1000;0.6821;1.3366;
-196.8000;0.6829;1.3417;
-196.5000;0.6829;1.3468;
-196.2000;0.6797;1.3392;
-195.9000;0.6789;1.3290;
-195.6000;0.6829;1.3316;
-195.3000;0.6821;1.3290;
-195.0000;0.6821;1.3239;
-194.7000;0.6838;1.3214;
-194.4000;0.6846;1.3189;
-194.1000;0.6821;1.3189;
-193.8000;0.6829;1.3265;
-193.5000;0.6829;1.3316;
-193.2000;0.6821;1.3341;
-192.9000;0.6862;1.3366;
-192.6000;0.6838;1.3239;
-192.3000;0.6813;1.3265;
-192.0000;0.6821;1.3239;
-191.7000;0.6838;1.3214;
-191.4000;0.6821;1.3138;
-191.1000;0.6805;1.3189;
-190.8000;0.6829;1.3290;
-190.5000;0.6829;1.3214;
-190.2000;0.6862;1.3265;
-189.9000;0.6838;1.3189;
-189.6000;0.6821;1.3087;
-189.3000;0.6846;1.3163;
-189.0000;0.6846;1.3189;
-188.7000;0.6805;1.3062;
-188.4000;0.6789;1.3037;
-188.1000;0.6821;1.3113;
-187.8000;0.6813;1.3087;
-187.5000;0.6797;1.3011;
-187.2000;0.6838;1.3087;
-186.9000;0.6927;1.3341;
-186.6000;0.6829;1.3189;
-186.3000;0.6813;1.3113;
-186.0000;0.6829;1.3163;
-185.7000;0.6829;1.3138;
-185.4000;0.6854;1.3214;
-185.1000;0.6838;1.3214;
-184.8000;0.6813;1.3113;
-184.5000;0.6829;1.3138;
-184.2000;0.6943;1.3468;
-183.9000;0.6829;1.3189;
-183.6000;0.6829;1.3189;
-183.3000;0.6813;1.3163;
-183.0000;0.6821;1.3214;
-182.7000;0.6829;1.3290;
-182.4000;0.6821;1.3290;
-182.1000;0.6764;1.3163;
-181.8000;0.6838;1.3290;
-181.5000;0.6829;1.3290;
-181.2000;0.6829;1.3189;
-180.9000;0.6829;1.3189;
-180.6000;0.6838;1.3163;
-180.3000;0.6821;1.3113;
-180.0000;0.6846;1.3138;
-179.7000;0.6829;1.3214;
-179.4000;0.6772;1.3113;
-179.1000;0.6821;1.3316;
-178.8000;0.6829;1.3392;
-178.5000;0.6829;1.3290;
-178.2000;0.6813;1.3316;
-177.9000;0.6821;1.3239;
-177.6000;0.6829;1.3265;
-177.3000;0.6813;1.3290;
-177.0000;0.6838;1.3265;
-176.7000;0.6846;1.3138;
-176.4000;0.6838;1.3113;
-176.1000;0.6821;1.2960;
-175.8000;0.6821;1.2960;
-175.5000;0.6821;1.3037;
-175.2000;0.6829;1.3087;
-174.9000;0.6838;1.3087;
-174.6000;0.6813;1.3113;
-174.3000;0.6829;1.3189;
-174.0000;0.6821;1.3189;
-173.7000;0.6821;1.3138;
-173.4000;0.6829;1.3189;
-173.1000;0.6821;1.3239;
-172.8000;0.6846;1.3265;
-172.5000;0.6829;1.3214;
-172.2000;0.6813;1.3189;
-171.9000;0.6919;1.3518;
-171.6000;0.6829;1.3214;
-171.3000;0.6813;1.3138;
-171.0000;0.6797;1.3062;
-170.7000;0.6813;1.3163;
-170.4000;0.6838;1.3265;
-170.1000;0.6838;1.3239;
-169.8000;0.6862;1.3316;
-169.5000;0.6821;1.3163;
-169.2000;0.6805;1.3163;
-168.9000;0.6764;1.3037;
-168.6000;0.6821;1.3163;
-168.3000;0.6838;1.3265;
-168.0000;0.6821;1.3341;
-167.7000;0.6821;1.3341;
-167.4000;0.6813;1.3392;
-167.1000;0.6813;1.3417;
-166.8000;0.6821;1.3468;
-166.5000;0.6870;1.3645;
-166.2000;0.6805;1.3442;
-165.9000;0.6846;1.3442;
-165.6000;0.6813;1.3290;
-165.3000;0.6829;1.3316;
-165.0000;0.6821;1.3265;
-164.7000;0.6789;1.3239;
-164.4000;0.6797;1.3290;
-164.1000;0.6829;1.3392;
-163.8000;0.6829;1.3366;
-163.5000;0.6805;1.3366;
-163.2000;0.6805;1.3265;
-162.9000;0.6821;1.3316;
-162.6000;0.6838;1.3366;
-162.3000;0.6838;1.3468;
-162.0000;0.6838;1.3392;
-161.7000;0.6805;1.3366;
-161.4000;0.6838;1.3392;
-161.1000;0.6838;1.3366;
-160.8000;0.6829;1.3290;
-160.5000;0.6829;1.3290;
-160.2000;0.6846;1.3265;
-159.9000;0.6838;1.3189;
-159.6000;0.6821;1.3239;
-159.3000;0.6813;1.3265;
-159.0000;0.6838;1.3290;
-158.7000;0.6805;1.3239;
-158.4000;0.6805;1.3214;
-158.1000;0.6821;1.3214;
-157.8000;0.6821;1.3290;
-157.5000;0.6756;1.3087;
-157.2000;0.6821;1.3366;
-156.9000;0.6854;1.3341;
-156.6000;0.6878;1.3239;
-156.3000;0.6805;1.3138;
-156.0000;0.6829;1.3214;
-155.7000;0.6821;1.3265;
-155.4000;0.6846;1.3316;
-155.1000;0.6821;1.3239;
-154.8000;0.6829;1.3265;
-154.5000;0.6821;1.3113;
-154.2000;0.6821;1.3138;
-153.9000;0.6797;1.3163;
-153.6000;0.6805;1.3163;
-153.3000;0.6821;1.3189;
-153.0000;0.6805;1.3011;
-152.7000;0.6821;1.3087;
-152.4000;0.6878;1.3189;
-152.1000;0.6829;1.2910;
-151.8000;0.6813;1.2808;
-151.5000;0.6829;1.2960;
-151.2000;0.6797;1.2935;
-150.9000;0.6878;1.3062;
-150.6000;0.6821;1.2935;
-150.3000;0.6821;1.2960;
-150.0000;0.6862;1.2960;
-149.7000;0.6846;1.2859;
-149.4000;0.6829;1.2758;
-149.1000;0.6821;1.2707;
-148.8000;0.6821;1.2783;
-148.5000;0.6821;1.2681;
-148.2000;0.6829;1.2783;
-147.9000;0.6821;1.2758;
-147.6000;0.6846;1.2808;
-147.3000;0.6903;1.2986;
-147.0000;0.6789;1.2656;
-146.7000;0.6854;1.2783;
-146.4000;0.6813;1.2681;
-146.1000;0.6854;1.2707;
-145.8000;0.6829;1.2580;
-145.5000;0.6797;1.2479;
-145.2000;0.6846;1.2732;
-144.9000;0.6813;1.2656;
-144.6000;0.6846;1.2681;
-144.3000;0.6732;1.2428;
-144.0000;0.6838;1.2732;
-143.7000;0.6797;1.2605;
-143.4000;0.6829;1.2656;
-143.1000;0.6846;1.2707;
-142.8000;0.6829;1.2656;
-142.5000;0.6838;1.2808;
-142.2000;0.6821;1.2656;
-141.9000;0.6821;1.2605;
-141.6000;0.6838;1.2631;
-141.3000;0.6732;1.2402;
-141.0000;0.6846;1.2859;
-140.7000;0.6821;1.2834;
-140.4000;0.6821;1.2808;
-140.1000;0.6821;1.2808;
-139.8000;0.6821;1.2935;
-139.5000;0.6829;1.2935;
-139.2000;0.6699;1.2707;
-138.9000;0.6829;1.3113;
-138.6000;0.6829;1.3087;
-138.3000;0.6821;1.3037;
-138.0000;0.6838;1.3113;
-137.7000;0.6829;1.3138;
-137.4000;0.6846;1.3189;
-137.1000;0.6821;1.3138;
-136.8000;0.6829;1.3037;
-136.5000;0.6846;1.3062;
-136.2000;0.6846;1.3037;
-135.9000;0.6829;1.3011;
-135.6000;0.6813;1.2960;
-135.3000;0.6821;1.2986;
-135.0000;0.6829;1.2935;
-134.7000;0.6870;1.3087;
-134.4000;0.6813;1.3011;
-134.1000;0.6805;1.3037;
-133.8000;0.6781;1.2935;
-133.5000;0.6878;1.3214;
-133.2000;0.6789;1.3011;
-132.9000;0.6838;1.3113;
-132.6000;0.6781;1.2986;
-132.3000;0.6821;1.3011;
-132.0000;0.6829;1.3138;
-131.7000;0.6813;1.3062;
-131.4000;0.6829;1.3062;
-131.1000;0.6821;1.3138;
-130.8000;0.6829;1.3214;
-130.5000;0.6829;1.3138;
-130.2000;0.6707;1.2783;
-129.9000;0.6813;1.3087;
-129.6000;0.6829;1.2960;
-129.3000;0.6829;1.3011;
-129.0000;0.6886;1.3138;
-128.7000;0.6821;1.2935;
-128.4000;0.6829;1.2935;
-128.1000;0.6821;1.2960;
-127.8000;0.6813;1.2986;
-127.5000;0.6821;1.2960;
-127.2000;0.6838;1.2935;
-126.9000;0.6829;1.2910;
-126.6000;0.6813;1.2884;
-126.3000;0.6829;1.2935;
-126.0000;0.6829;1.2986;
-125.7000;0.6846;1.2986;
-125.4000;0.6846;1.3138;
-125.1000;0.6821;1.3113;
-124.8000;0.6797;1.3113;
-124.5000;0.6829;1.3189;
-124.2000;0.6854;1.3239;
-123.9000;0.6838;1.3214;
-123.6000;0.6813;1.3214;
-123.3000;0.6829;1.3290;
-123.0000;0.6829;1.3316;
-122.7000;0.6740;1.3011;
-122.4000;0.6829;1.3239;
-122.1000;0.6813;1.3189;
-121.8000;0.6813;1.3265;
-121.5000;0.6829;1.3316;
-121.2000;0.6813;1.3214;
-120.9000;0.6821;1.3138;
-120.6000;0.6829;1.3189;
-120.3000;0.6813;1.3265;
-120.0000;0.6797;1.3239;
-119.7000;0.6781;1.3239;
-119.4000;0.6829;1.3316;
-119.1000;0.6829;1.3341;
-118.8000;0.6838;1.3366;
-118.5000;0.6829;1.3366;
-118.2000;0.6797;1.3290;
-117.9000;0.6829;1.3341;
-117.6000;0.6821;1.3366;
-117.3000;0.6829;1.3392;
-117.0000;0.6821;1.3290;
-116.7000;0.6829;1.3265;
-116.4000;0.6821;1.3214;
-116.1000;0.6838;1.3189;
-115.8000;0.6838;1.3189;
-115.5000;0.6829;1.3138;
-115.2000;0.6846;1.3138;
-114.9000;0.6805;1.3087;
-114.6000;0.6821;1.3087;
-114.3000;0.6813;1.3113;
-114.0000;0.6805;1.3163;
-113.7000;0.6813;1.3062;
-113.4000;0.6805;1.3087;
-113.1000;0.6821;1.3138;
-112.8000;0.6821;1.3113;
-112.5000;0.6821;1.3113;
-112.2000;0.6813;1.3087;
-111.9000;0.6829;1.3087;
-111.6000;0.6821;1.3011;
-111.3000;0.6829;1.2986;
-111.0000;0.6813;1.3037;
-110.7000;0.6829;1.3113;
-110.4000;0.6813;1.3113;
-110.1000;0.6813;1.2960;
-109.8000;0.6805;1.2910;
-109.5000;0.6821;1.2910;
-109.2000;0.6805;1.2859;
-108.9000;0.6813;1.2859;
-108.6000;0.6821;1.2834;
-108.3000;0.6838;1.2910;
-108.0000;0.6805;1.2859;
-107.7000;0.6821;1.2859;
-107.4000;0.6805;1.2910;
-107.1000;0.6821;1.3037;
-106.8000;0.6821;1.3011;
-106.5000;0.6846;1.3062;
-106.2000;0.6797;1.2986;
-105.9000;0.6846;1.3037;
-105.6000;0.6821;1.2910;
-105.3000;0.6862;1.3037;
-105.0000;0.6829;1.2910;
-104.7000;0.6854;1.2986;
-104.4000;0.6829;1.3011;
-104.1000;0.6821;1.3037;
-103.8000;0.6748;1.2758;
-103.5000;0.6829;1.2986;
-103.2000;0.6838;1.3113;
-102.9000;0.6813;1.3113;
-102.6000;0.6838;1.3163;
-102.3000;0.6821;1.3138;
-102.0000;0.6829;1.3113;
-101.7000;0.6756;1.2910;
-101.4000;0.6829;1.3189;
-101.1000;0.6846;1.3189;
-100.8000;0.6724;1.2986;
-100.5000;0.6821;1.3138;
-100.2000;0.6829;1.3189;
-99.9000;0.6813;1.3138;
-99.6000;0.6878;1.3290;
-99.3000;0.6829;1.3163;
-99.0000;0.6805;1.3087;
-98.7000;0.6829;1.3163;
-98.4000;0.6821;1.3214;
-98.1000;0.6821;1.3265;
-97.8000;0.6821;1.3341;
-97.5000;0.6829;1.3366;
-97.2000;0.6821;1.3392;
-96.9000;0.6813;1.3265;
-96.6000;0.6813;1.3214;
-96.3000;0.6821;1.3239;
-96.0000;0.6829;1.3290;
-95.7000;0.6805;1.3290;
-95.4000;0.6838;1.3265;
-95.1000;0.6829;1.3189;
-94.8000;0.6829;1.3138;
-94.5000;0.6870;1.3265;
-94.2000;0.6813;1.3113;
-93.9000;0.6821;1.3113;
-93.6000;0.6740;1.2834;
-93.3000;0.6813;1.3138;
-93.0000;0.6813;1.3113;
-92.7000;0.6829;1.3214;
-92.4000;0.6821;1.3163;
-92.1000;0.6813;1.3138;
-91.8000;0.6821;1.3087;
-91.5000;0.6870;1.3138;
-91.2000;0.6797;1.2960;
-90.9000;0.6821;1.2986;
-90.6000;0.6829;1.3011;
-90.3000;0.6829;1.2986;
-90.0000;0.6838;1.3037;
-89.7000;0.6821;1.3011;
-89.4000;0.6789;1.2859;
-89.1000;0.6821;1.3011;
-88.8000;0.6821;1.2986;
-88.5000;0.6838;1.3062;
-88.2000;0.6821;1.2960;
-87.9000;0.6829;1.2935;
-87.6000;0.6838;1.2884;
-87.3000;0.6821;1.2859;
-87.0000;0.6829;1.2758;
-86.7000;0.6829;1.2834;
-86.4000;0.6821;1.2910;
-86.1000;0.6821;1.2834;
-85.8000;0.6829;1.2834;
-85.5000;0.6846;1.2884;
-85.2000;0.6854;1.2884;
-84.9000;0.6821;1.2910;
-84.6000;0.6821;1.2960;
-84.3000;0.6829;1.2935;
-84.0000;0.6805;1.2960;
-83.7000;0.6829;1.2986;
-83.4000;0.6813;1.2986;
-83.1000;0.6821;1.3113;
-82.8000;0.6829;1.3113;
-82.5000;0.6829;1.3062;
-82.2000;0.6870;1.3189;
-81.9000;0.6854;1.3138;
-81.6000;0.6813;1.3113;
-81.3000;0.6846;1.3189;
-81.0000;0.6829;1.3138;
-80.7000;0.6829;1.3113;
-80.4000;0.6821;1.3062;
-80.1000;0.6789;1.2960;
-79.8000;0.6748;1.2783;
-79.5000;0.6821;1.2935;
-79.2000;0.6805;1.2884;
-78.9000;0.6813;1.2910;
-78.6000;0.6838;1.2960;
-78.3000;0.6854;1.2935;
-78.0000;0.6829;1.2834;
-77.7000;0.6821;1.2910;
-77.4000;0.6846;1.2986;
-77.1000;0.6838;1.2935;
-76.8000;0.6821;1.2960;
-76.5000;0.6846;1.3062;
-76.2000;0.6846;1.3087;
-75.9000;0.6846;1.3113;
-75.6000;0.6838;1.3011;
-75.3000;0.6829;1.2986;
-75.0000;0.6821;1.2986;
-74.7000;0.6838;1.3037;
-74.4000;0.6821;1.3011;
-74.1000;0.6813;1.3062;
-73.8000;0.6838;1.3265;
-73.5000;0.6813;1.3189;
-73.2000;0.6805;1.3087;
-72.9000;0.6821;1.2986;
-72.6000;0.6821;1.2960;
-72.3000;0.6854;1.2960;
-72.0000;0.6740;1.2580;
-71.7000;0.6813;1.2808;
-71.4000;0.6805;1.2910;
-71.1000;0.6846;1.2960;
-70.8000;0.6813;1.2960;
-70.5000;0.6821;1.3011;
-70.2000;0.6821;1.3062;
-69.9000;0.6862;1.3189;
-69.6000;0.6838;1.3087;
-69.3000;0.6846;1.3113;
-69.0000;0.6821;1.2960;
-68.7000;0.6829;1.2884;
-68.4000;0.6829;1.2884;
-68.1000;0.6846;1.2808;
-67.8000;0.6829;1.2707;
-67.5000;0.6829;1.2758;
-67.2000;0.6821;1.2834;
-66.9000;0.6813;1.2808;
-66.6000;0.6805;1.2758;
-66.3000;0.6813;1.2834;
-66.0000;0.6829;1.2960;
-65.7000;0.6911;1.3189;
-65.4000;0.6838;1.3062;
-65.1000;0.6821;1.3037;
-64.8000;0.6756;1.2808;
-64.5000;0.6838;1.3011;
-64.2000;0.6821;1.2935;
-63.9000;0.6716;1.2656;
-63.6000;0.6813;1.2986;
-63.3000;0.6838;1.2960;
-63.0000;0.6838;1.2986;
-62.7000;0.6821;1.2960;
-62.4000;0.6805;1.2935;
-62.1000;0.6829;1.3011;
-61.8000;0.6838;1.3011;
-61.5000;0.6821;1.2859;
-61.2000;0.6821;1.2935;
-60.9000;0.6805;1.2910;
-60.6000;0.6846;1.2960;
-60.3000;0.6829;1.2910;
-60.0000;0.6813;1.2884;
-59.7000;0.6821;1.2960;
-59.4000;0.6821;1.2935;
-59.1000;0.6821;1.2935;
-58.8000;0.6911;1.3239;
-58.5000;0.6813;1.2986;
-58.2000;0.6813;1.3011;
-57.9000;0.6748;1.2935;
-57.6000;0.6854;1.3239;
-57.3000;0.6846;1.3189;
-57.0000;0.6870;1.3239;
-56.7000;0.6829;1.3138;
-56.4000;0.6829;1.3163;
-56.1000;0.6821;1.3113;
-55.8000;0.6821;1.3087;
-55.5000;0.6838;1.3113;
-55.2000;0.6838;1.3037;
-54.9000;0.6772;1.2935;
-54.6000;0.6854;1.3163;
-54.3000;0.6829;1.3062;
-54.0000;0.6813;1.3037;
-53.7000;0.6829;1.3062;
-53.4000;0.6829;1.3062;
-53.1000;0.6813;1.2986;
-52.8000;0.6862;1.3163;
-52.5000;0.6797;1.3037;
-52.2000;0.6805;1.3011;
-51.9000;0.6838;1.3113;
-51.6000;0.6813;1.3037;
-51.3000;0.6829;1.2935;
-51.0000;0.6854;1.3011;
-50.7000;0.6805;1.2834;
-50.4000;0.6846;1.2960;
-50.1000;0.6821;1.2935;
-49.8000;0.6821;1.2960;
-49.5000;0.6805;1.2986;
-49.2000;0.6829;1.3037;
-48.9000;0.6813;1.3011;
-48.6000;0.6821;1.2960;
-48.3000;0.6846;1.3037;
-48.0000;0.6829;1.2935;
-47.7000;0.6838;1.2986;
-47.4000;0.6829;1.2935;
-47.1000;0.6886;1.3138;
-46.8000;0.6854;1.2960;
-46.5000;0.6829;1.2935;
-46.2000;0.6846;1.2960;
-45.9000;0.6838;1.2859;
-45.6000;0.6862;1.2935;
-45.3000;0.6829;1.2910;
-45.0000;0.6846;1.3037;
-44.7000;0.6846;1.3087;
-44.4000;0.6838;1.3163;
-44.1000;0.6838;1.3189;
-43.8000;0.6821;1.3062;
-43.5000;0.6805;1.2935;
-43.2000;0.6821;1.2935;
-42.9000;0.6772;1.2783;
-42.6000;0.6838;1.2935;
-42.3000;0.6838;1.2884;
-42.0000;0.6838;1.2910;
-41.7000;0.6829;1.2935;
-41.4000;0.6821;1.3011;
-41.1000;0.6805;1.3087;
-40.8000;0.6821;1.3163;
-40.5000;0.6821;1.3138;
-40.2000;0.6821;1.3087;
-39.9000;0.6813;1.2960;
-39.6000;0.6838;1.3011;
-39.3000;0.6838;1.3011;
-39.0000;0.6821;1.3011;
-38.7000;0.6805;1.2960;
-38.4000;0.6829;1.2986;
-38.1000;0.6805;1.2986;
-37.8000;0.6813;1.3087;
-37.5000;0.6813;1.3087;
-37.2000;0.6797;1.3062;
-36.9000;0.6829;1.3037;
-36.6000;0.6813;1.3087;
-36.3000;0.6821;1.3113;
-36.0000;0.6821;1.3113;
-35.7000;0.6821;1.3037;
-35.4000;0.6838;1.2910;
-35.1000;0.6829;1.2910;
-34.8000;0.6838;1.2859;
-34.5000;0.6821;1.2884;
-34.2000;0.6821;1.2935;
-33.9000;0.6829;1.2910;
-33.6000;0.6829;1.2884;
-33.3000;0.6838;1.2859;
-33.0000;0.6756;1.2732;
-32.7000;0.6952;1.3392;
-32.4000;0.6846;1.3062;
-32.1000;0.6829;1.3037;
-31.8000;0.6846;1.3138;
-31.5000;0.6854;1.3163;
-31.2000;0.6838;1.3113;
-30.9000;0.6886;1.3087;
-30.6000;0.6748;1.2783;
-30.3000;0.6838;1.2935;
-30.0000;0.6846;1.2986;
-29.7000;0.6821;1.2935;
-29.4000;0.6821;1.2935;
-29.1000;0.6821;1.3113;
-28.8000;0.6821;1.3087;
-28.5000;0.6805;1.3113;
-28.2000;0.6813;1.3087;
-27.9000;0.6821;1.3011;
-27.6000;0.6813;1.3011;
-27.3000;0.6821;1.3062;
-27.0000;0.6821;1.3037;
-26.7000;0.6797;1.3011;
-26.4000;0.6821;1.3062;
-26.1000;0.6797;1.3087;
-25.8000;0.6829;1.3087;
-25.5000;0.6821;1.3113;
-25.2000;0.6813;1.3189;
-24.9000;0.6821;1.3239;
-24.6000;0.6821;1.3214;
-24.3000;0.6805;1.3062;
-24.0000;0.6829;1.3113;
-23.7000;0.6805;1.3087;
-23.4000;0.6797;1.3062;
-23.1000;0.6821;1.3163;
-22.8000;0.6805;1.3163;
-22.5000;0.6838;1.3163;
-22.2000;0.6829;1.3087;
-21.9000;0.6846;1.3062;
-21.6000;0.6829;1.3062;
-21.3000;0.6838;1.3189;
-21.0000;0.6821;1.3163;
-20.7000;0.6813;1.3163;
-20.4000;0.6838;1.3239;
-20.1000;0.6870;1.3417;
-19.8000;0.6846;1.3341;
-19.5000;0.6821;1.3239;
-19.2000;0.6846;1.3265;
-18.9000;0.6829;1.3239;
-18.6000;0.6838;1.3113;
-18.3000;0.6829;1.3011;
-18.0000;0.6838;1.3037;
-17.7000;0.6829;1.2935;
-17.4000;0.6838;1.2960;
-17.1000;0.6821;1.3037;
-16.8000;0.6846;1.3163;
-16.5000;0.6821;1.3087;
-16.2000;0.6821;1.3163;
-15.9000;0.6846;1.3214;
-15.6000;0.6813;1.3113;
-15.3000;0.6821;1.3037;
-15.0000;0.6838;1.3113;
-14.7000;0.6838;1.3113;
-14.4000;0.6821;1.3087;
-14.1000;0.6821;1.3138;
-13.8000;0.6829;1.3062;
-13.5000;0.6805;1.3011;
-13.2000;0.6813;1.3037;
-12.9000;0.6821;1.3037;
-12.6000;0.6895;1.3138;
-12.3000;0.6781;1.2808;
-12.0000;0.6813;1.3037;
-11.7000;0.6862;1.3138;
-11.4000;0.6829;1.3087;
-11.1000;0.6805;1.2986;
-10.8000;0.6813;1.2960;
-10.5000;0.6829;1.2935;
-10.2000;0.6838;1.2935;
-9.9000;0.6838;1.2935;
-9.6000;0.6805;1.2834;
-9.3000;0.6821;1.2859;
-9.0000;0.6805;1.2884;
-8.7000;0.6878;1.2935;
-8.4000;0.6821;1.2707;
-8.1000;0.6976;1.3011;
-7.8000;0.6829;1.2631;
-7.5000;0.6821;1.2656;
-7.2000;0.6829;1.2656;
-6.9000;0.6821;1.2732;
-6.6000;0.6740;1.2428;
-6.3000;0.6838;1.2707;
-6.0000;0.6838;1.2707;
-5.7000;0.6829;1.2656;
-5.4000;0.6829;1.2605;
-5.1000;0.6829;1.2656;
-4.8000;0.6829;1.2707;
-4.5000;0.6813;1.2758;
-4.2000;0.6821;1.2758;
-3.9000;0.6821;1.2732;
-3.6000;0.6846;1.2808;
-3.3000;0.6821;1.2758;
-3.0000;0.6805;1.2707;
-2.7000;0.6838;1.2808;
-2.4000;0.6821;1.2783;
-2.1000;0.6821;1.2758;
-1.8000;0.6821;1.2707;
-1.5000;0.6813;1.2783;
-1.2000;0.6797;1.2707;
-0.9000;0.6821;1.2884;
-0.6000;0.6797;1.2884;
-0.3000;0.6789;1.2935;
0.0000;0.6789;1.2935;
0.3000;0.7285;1.3417;
0.6000;0.7993;1.4406;
0.9000;0.8563;1.5243;
1.2000;0.8987;1.5903;
1.5000;0.9312;1.6638;
1.8000;0.9581;1.7196;
2.1000;0.9776;1.7653;
2.4000;0.9947;1.7906;
2.7000;1.0110;1.8236;
3.0000;1.0248;1.8439;
3.3000;1.0346;1.8642;
3.6000;1.0435;1.8693;
3.9000;1.0525;1.8794;
4.2000;1.0623;1.8921;
4.5000;1.0696;1.8921;
4.8000;1.0753;1.8997;
5.1000;1.0867;1.9200;
5.4000;1.0924;1.9174;
5.7000;1.0973;1.9250;
6.0000;1.1054;1.9301;
6.3000;1.1127;1.9327;
6.6000;1.1201;1.9301;
6.9000;1.1241;1.9276;
7.2000;1.1315;1.9377;
7.5000;1.1388;1.9403;
7.8000;1.1494;1.9453;
8.1000;1.1477;1.9301;
8.4000;1.1551;1.9301;
8.7000;1.1575;1.9276;
9.0000;1.1656;1.9327;
9.3000;1.1713;1.9327;
9.6000;1.1754;1.9276;
9.9000;1.1787;1.9250;
10.2000;1.1917;1.9301;
10.5000;1.1925;1.9149;
10.8000;1.1893;1.8997;
11.1000;1.2047;1.9327;
11.4000;1.2015;1.9149;
11.7000;1.2104;1.9250;
12.0000;1.2145;1.9225;
12.3000;1.2226;1.9377;
12.6000;1.2218;1.9377;
12.9000;1.2373;1.9529;
13.2000;1.2348;1.9352;
13.5000;1.2348;1.9250;
13.8000;1.2381;1.9124;
14.1000;1.2422;1.9174;
14.4000;1.2446;1.9098;
14.7000;1.2495;1.9124;
15.0000;1.2552;1.9276;
15.3000;1.2576;1.9276;
15.6000;1.2633;1.9301;
15.9000;1.2666;1.9276;
16.2000;1.2674;1.9225;
16.5000;1.2698;1.9149;
16.8000;1.2731;1.9200;
17.1000;1.2764;1.9200;
17.4000;1.2796;1.9174;
17.7000;1.2829;1.9073;
18.0000;1.2837;1.8997;
18.3000;1.2853;1.8971;
18.6000;1.2877;1.9073;
18.9000;1.2886;1.9073;
19.2000;1.2918;1.9098;
19.5000;1.2943;1.8997;
19.8000;1.2975;1.8971;
20.1000;1.3008;1.8971;
20.4000;1.3024;1.8971;
20.7000;1.3032;1.9022;
21.0000;1.3057;1.9124;
21.3000;1.3073;1.9124;
21.6000;1.3081;1.9098;
21.9000;1.3097;1.9149;
22.2000;1.3130;1.9225;
22.5000;1.3138;1.9225;
22.8000;1.3114;1.9098;
23.1000;1.3154;1.9073;
23.4000;1.3162;1.9098;
23.7000;1.3171;1.9149;
24.0000;1.3195;1.9250;
24.3000;1.3203;1.9250;
24.6000;1.3228;1.9327;
24.9000;1.3252;1.9250;
25.2000;1.3236;1.9200;
25.5000;1.3252;1.9225;
25.8000;1.3260;1.9276;
26.1000;1.3333;1.9403;
26.4000;1.3293;1.9250;
26.7000;1.3309;1.9250;
27.0000;1.3309;1.9250;
27.3000;1.3317;1.9276;
27.6000;1.3325;1.9250;
27.9000;1.3350;1.9225;
28.2000;1.3358;1.9225;
28.5000;1.3366;1.9174;
28.8000;1.3358;1.9098;
29.1000;1.3366;1.9048;
29.4000;1.3317;1.8895;
29.7000;1.3407;1.9022;
30.0000;1.3374;1.8946;
30.3000;1.3366;1.8997;
30.6000;1.3407;1.9124;
30.9000;1.3423;1.9073;
31.2000;1.3358;1.8870;
31.5000;1.3423;1.9022;
31.8000;1.3374;1.9098;
32.1000;1.3390;1.9174;
32.4000;1.3415;1.9250;
32.7000;1.3439;1.9174;
33.0000;1.3496;1.9225;
33.3000;1.3423;1.8921;
33.6000;1.3455;1.9048;
33.9000;1.3439;1.8997;
34.2000;1.3464;1.9048;
34.5000;1.3472;1.9098;
34.8000;1.3480;1.9124;
35.1000;1.3480;1.9098;
35.4000;1.3496;1.9124;
35.7000;1.3488;1.9098;
36.0000;1.3488;1.9124;
36.3000;1.3488;1.9174;
36.6000;1.3496;1.9124;
36.9000;1.3504;1.9048;
37.2000;1.3464;1.8997;
37.5000;1.3504;1.9124;
37.8000;1.3480;1.9048;
38.1000;1.3488;1.9048;
38.4000;1.3569;1.9225;
38.7000;1.3504;1.8997;
39.0000;1.3512;1.8921;
39.3000;1.3521;1.8870;
39.6000;1.3553;1.8921;
39.9000;1.3529;1.8870;
40.2000;1.3521;1.8769;
40.5000;1.3537;1.8971;
40.8000;1.3561;1.8946;
41.1000;1.3553;1.8921;
41.4000;1.3553;1.8997;
41.7000;1.3553;1.8997;
42.0000;1.3545;1.9022;
42.3000;1.3569;1.9149;
42.6000;1.3553;1.9098;
42.9000;1.3561;1.8971;
43.2000;1.3561;1.8997;
43.5000;1.3578;1.8971;
43.8000;1.3586;1.8921;
44.1000;1.3594;1.9022;
44.4000;1.3578;1.8971;
44.7000;1.3586;1.8870;
45.0000;1.3594;1.8921;
45.3000;1.3594;1.8895;
45.6000;1.3578;1.8895;
45.9000;1.3602;1.8895;
46.2000;1.3529;1.8667;
46.5000;1.3594;1.8921;
46.8000;1.3594;1.8946;
47.1000;1.3643;1.9073;
47.4000;1.3610;1.8946;
47.7000;1.3618;1.9022;
48.0000;1.3594;1.8971;
48.3000;1.3594;1.8921;
48.6000;1.3610;1.8971;
48.9000;1.3626;1.9073;
49.2000;1.3635;1.8997;
49.5000;1.3643;1.9073;
49.8000;1.3651;1.9022;
50.1000;1.3643;1.8971;
50.4000;1.3618;1.8845;
50.7000;1.3626;1.8819;
51.0000;1.3626;1.8769;
51.3000;1.3651;1.8769;
51.6000;1.3626;1.8718;
51.9000;1.3578;1.8515;
52.2000;1.3610;1.8591;
52.5000;1.3635;1.8566;
52.8000;1.3635;1.8515;
53.1000;1.3643;1.8490;
53.4000;1.3643;1.8540;
53.7000;1.3659;1.8642;
54.0000;1.3602;1.8464;
54.3000;1.3651;1.8566;
54.6000;1.3643;1.8566;
54.9000;1.3643;1.8591;
55.2000;1.3651;1.8718;
55.5000;1.3659;1.8743;
55.8000;1.3651;1.8819;
56.1000;1.3610;1.8693;
56.4000;1.3651;1.8794;
56.7000;1.3675;1.8769;
57.0000;1.3659;1.8819;
57.3000;1.3667;1.8819;
57.6000;1.3667;1.8743;
57.9000;1.3659;1.8718;
58.2000;1.3667;1.8743;
58.5000;1.3651;1.8718;
58.8000;1.3700;1.8870;
59.1000;1.3667;1.8819;
59.4000;1.3675;1.8895;
59.7000;1.3683;1.8845;
60.0000;1.3683;1.8769;
60.3000;1.3675;1.8769;
60.6000;1.3675;1.8743;
60.9000;1.3667;1.8693;
61.2000;1.3691;1.8642;
61.5000;1.3667;1.8591;
61.8000;1.3659;1.8566;
62.1000;1.3683;1.8642;
62.4000;1.3675;1.8718;
62.7000;1.3700;1.8794;
63.0000;1.3740;1.8997;
63.3000;1.3667;1.8769;
63.6000;1.3691;1.8819;
63.9000;1.3618;1.8693;
64.2000;1.3651;1.8693;
64.5000;1.3683;1.8870;
64.8000;1.3757;1.9073;
65.1000;1.3651;1.8794;
65.4000;1.3691;1.8870;
65.7000;1.3667;1.8769;
66.0000;1.3708;1.8794;
66.3000;1.3716;1.8819;
66.6000;1.3683;1.8718;
66.9000;1.3700;1.8667;
67.2000;1.3700;1.8693;
67.5000;1.3683;1.8819;
67.8000;1.3700;1.8870;
68.1000;1.3708;1.8895;
68.4000;1.3675;1.8819;
68.7000;1.3683;1.8845;
69.0000;1.3716;1.8946;
69.3000;1.3691;1.8870;
69.6000;1.3626;1.8591;
69.9000;1.3716;1.8794;
70.2000;1.3708;1.8794;
70.5000;1.3700;1.8693;
70.8000;1.3700;1.8591;
71.1000;1.3708;1.8591;
71.4000;1.3732;1.8591;
71.7000;1.3724;1.8566;
72.0000;1.3716;1.8490;
72.3000;1.3708;1.8566;
72.6000;1.3708;1.8642;
72.9000;1.3716;1.8642;
73.2000;1.3708;1.8591;
73.5000;1.3724;1.8591;
73.8000;1.3732;1.8616;
74.1000;1.3732;1.8591;
74.4000;1.3732;1.8566;
74.7000;1.3724;1.8591;
75.0000;1.3675;1.8515;
75.3000;1.3724;1.8566;
75.6000;1.3732;1.8591;
75.9000;1.3732;1.8515;
76.2000;1.3724;1.8566;
76.5000;1.3748;1.8667;
76.8000;1.3724;1.8616;
77.1000;1.3708;1.8616;
77.4000;1.3708;1.8566;
77.7000;1.3732;1.8718;
78.0000;1.3683;1.8515;
78.3000;1.3700;1.8490;
78.6000;1.3708;1.8540;
78.9000;1.3716;1.8540;
79.2000;1.3691;1.8540;
79.5000;1.3716;1.8490;
79.8000;1.3838;1.8870;
80.1000;1.3724;1.8616;
80.4000;1.3724;1.8718;
80.7000;1.3732;1.8718;
81.0000;1.3708;1.8616;
81.3000;1.3732;1.8642;
81.6000;1.3748;1.8693;
81.9000;1.3732;1.8718;
82.2000;1.3724;1.8743;
82.5000;1.3724;1.8693;
82.8000;1.3797;1.8870;
83.1000;1.3732;1.8616;
83.4000;1.3724;1.8540;
83.7000;1.3732;1.8566;
84.0000;1.3748;1.8591;
84.3000;1.3822;1.8718;
84.6000;1.3732;1.8490;
84.9000;1.3724;1.8439;
85.2000;1.3732;1.8363;
85.5000;1.3740;1.8414;
85.8000;1.3732;1.8439;
86.1000;1.3732;1.8464;
86.4000;1.3740;1.8414;
86.7000;1.3716;1.8363;
87.0000;1.3740;1.8515;
87.3000;1.3732;1.8540;
87.6000;1.3708;1.8540;
87.9000;1.3732;1.8642;
88.2000;1.3724;1.8616;
88.5000;1.3732;1.8616;
88.8000;1.3708;1.8540;
89.1000;1.3724;1.8540;
89.4000;1.3797;1.8667;
89.7000;1.3700;1.8464;
90.0000;1.3740;1.8540;
90.3000;1.3740;1.8566;
90.6000;1.3765;1.8616;
90.9000;1.3724;1.8616;
91.2000;1.3732;1.8616;
91.5000;1.3740;1.8490;
91.8000;1.3748;1.8464;
92.1000;1.3740;1.8439;
92.4000;1.3748;1.8439;
92.7000;1.3740;1.8439;
93.0000;1.3740;1.8515;
93.3000;1.3748;1.8566;
93.6000;1.3732;1.8540;
93.9000;1.3757;1.8591;
94.2000;1.3757;1.8540;
94.5000;1.3757;1.8540;
94.8000;1.3757;1.8490;
95.1000;1.3748;1.8566;
95.4000;1.3765;1.8642;
95.7000;1.3765;1.8566;
96.0000;1.3732;1.8540;
96.3000;1.3757;1.8616;
96.6000;1.3732;1.8566;
96.9000;1.3765;1.8616;
97.2000;1.3773;1.8642;
97.5000;1.3748;1.8667;
97.8000;1.3708;1.8490;
98.1000;1.3765;1.8490;
98.4000;1.3748;1.8515;
98.7000;1.3732;1.8439;
99.0000;1.3740;1.8414;
99.3000;1.3675;1.8135;
99.6000;1.3748;1.8388;
99.9000;1.3797;1.8439;
100.2000;1.3773;1.8414;
100.5000;1.3740;1.8337;
100.8000;1.3740;1.8363;
101.1000;1.3740;1.8414;
101.4000;1.3716;1.8363;
101.7000;1.3765;1.8439;
102.0000;1.3765;1.8414;
102.3000;1.3748;1.8439;
102.6000;1.3748;1.8439;
102.9000;1.3732;1.8414;
103.2000;1.3748;1.8439;
103.5000;1.3740;1.8388;
103.8000;1.3748;1.8439;
104.1000;1.3830;1.8718;
104.4000;1.3757;1.8388;
104.7000;1.3757;1.8388;
105.0000;1.3716;1.8337;
105.3000;1.3724;1.8414;
105.6000;1.3748;1.8515;
105.9000;1.3822;1.8566;
106.2000;1.3781;1.8490;
106.5000;1.3781;1.8464;
106.8000;1.3797;1.8540;
107.1000;1.3773;1.8490;
107.4000;1.3675;1.8211;
107.7000;1.3765;1.8414;
108.0000;1.3740;1.8439;
108.3000;1.3732;1.8515;
108.6000;1.3765;1.8540;
108.9000;1.3691;1.8337;
109.2000;1.3773;1.8490;
109.5000;1.3765;1.8464;
109.8000;1.3830;1.8616;
110.1000;1.3773;1.8566;
110.4000;1.3773;1.8591;
110.7000;1.3748;1.8515;
111.0000;1.3757;1.8515;
111.3000;1.3765;1.8515;
111.6000;1.3757;1.8515;
111.9000;1.3773;1.8540;
112.2000;1.3773;1.8693;
112.5000;1.3773;1.8566;
112.8000;1.3773;1.8515;
113.1000;1.3757;1.8566;
113.4000;1.3773;1.8642;
113.7000;1.3765;1.8616;
114.0000;1.3781;1.8616;
114.3000;1.3748;1.8540;
114.6000;1.3765;1.8616;
114.9000;1.3765;1.8540;
115.2000;1.3773;1.8591;
115.5000;1.3748;1.8642;
115.8000;1.3757;1.8693;
116.1000;1.3765;1.8693;
116.4000;1.3740;1.8591;
116.7000;1.3871;1.9022;
117.0000;1.3765;1.8743;
117.3000;1.3765;1.8693;
117.6000;1.3765;1.8642;
117.9000;1.3765;1.8642;
118.2000;1.3740;1.8540;
118.5000;1.3765;1.8616;
118.8000;1.3757;1.8616;
119.1000;1.3757;1.8616;
119.4000;1.3748;1.8642;
119.7000;1.3748;1.8566;
120.0000;1.3748;1.8591;
120.3000;1.3797;1.8591;
120.6000;1.3757;1.8490;
120.9000;1.3765;1.8414;
121.2000;1.3765;1.8414;
121.5000;1.3765;1.8515;
121.8000;1.3765;1.8464;
122.1000;1.3765;1.8490;
122.4000;1.3814;1.8743;
122.7000;1.3740;1.8566;
123.0000;1.3773;1.8642;
123.3000;1.3854;1.8895;
123.6000;1.3773;1.8693;
123.9000;1.3773;1.8743;
124.2000;1.3765;1.8693;
124.5000;1.3757;1.8667;
124.8000;1.3740;1.8566;
125.1000;1.3757;1.8693;
125.4000;1.3748;1.8642;
125.7000;1.3765;1.8616;
126.0000;1.3748;1.8616;
126.3000;1.3781;1.8616;
126.6000;1.3797;1.8743;
126.9000;1.3789;1.8616;
127.2000;1.3765;1.8540;
127.5000;1.3757;1.8540;
127.8000;1.3773;1.8540;
128.1000;1.3797;1.8591;
128.4000;1.3789;1.8566;
128.7000;1.3765;1.8490;
129.0000;1.3789;1.8515;
129.3000;1.3773;1.8515;
129.6000;1.3732;1.8515;
129.9000;1.3708;1.8464;
130.2000;1.3708;1.8414;
130.5000;1.3765;1.8464;
130.8000;1.3757;1.8464;
131.1000;1.3773;1.8566;
131.4000;1.3781;1.8566;
131.7000;1.3724;1.8439;
132.0000;1.3805;1.8667;
132.3000;1.3748;1.8591;
132.6000;1.3781;1.8616;
132.9000;1.3781;1.8616;
133.2000;1.3765;1.8540;
133.5000;1.3765;1.8464;
133.8000;1.3789;1.8414;
134.1000;1.3765;1.8439;
134.4000;1.3765;1.8464;
134.7000;1.3765;1.8490;
135.0000;1.3757;1.8414;
135.3000;1.3765;1.8464;
135.6000;1.3765;1.8464;
135.9000;1.3765;1.8490;
136.2000;1.3944;1.8921;
136.5000;1.3773;1.8515;
136.8000;1.3773;1.8490;
137.1000;1.3765;1.8439;
137.4000;1.3757;1.8388;
137.7000;1.3757;1.8312;
138.0000;1.3773;1.8287;
138.3000;1.3765;1.8363;
138.6000;1.3805;1.8490;
138.9000;1.3789;1.8414;
139.2000;1.3773;1.8312;
139.5000;1.3765;1.8363;
139.8000;1.3765;1.8439;
140.1000;1.3765;1.8515;
140.4000;1.3748;1.8464;
140.7000;1.3765;1.8464;
141.0000;1.3765;1.8388;
141.3000;1.3748;1.8363;
141.6000;1.3773;1.8363;
141.9000;1.3765;1.8287;
142.2000;1.3757;1.8337;
142.5000;1.3773;1.8363;
142.8000;1.3814;1.8540;
143.1000;1.3773;1.8439;
143.4000;1.3773;1.8464;
143.7000;1.3748;1.8616;
144.0000;1.3789;1.8642;
144.3000;1.3700;1.8312;
144.6000;1.3757;1.8439;
144.9000;1.3748;1.8363;
145.2000;1.3765;1.8490;
145.5000;1.3773;1.8490;
145.8000;1.3724;1.8287;
146.1000;1.3757;1.8337;
146.4000;1.3691;1.8109;
146.7000;1.3773;1.8363;
147.0000;1.3765;1.8312;
147.3000;1.3716;1.8185;
147.6000;1.3789;1.8439;
147.9000;1.3659;1.8185;
148.2000;1.3805;1.8540;
148.5000;1.3838;1.8566;
148.8000;1.3773;1.8464;
149.1000;1.3781;1.8515;
149.4000;1.3773;1.8414;
149.7000;1.3757;1.8414;
150.0000;1.3740;1.8337;
150.3000;1.3781;1.8414;
150.6000;1.3814;1.8566;
150.9000;1.3748;1.8490;
151.2000;1.3757;1.8439;
151.5000;1.3773;1.8490;
151.8000;1.3781;1.8464;
152.1000;1.3765;1.8464;
152.4000;1.3765;1.8439;
152.7000;1.3765;1.8515;
153.0000;1.3781;1.8490;
153.3000;1.3773;1.8464;
153.6000;1.3773;1.8414;
153.9000;1.3765;1.8312;
154.2000;1.3789;1.8414;
154.5000;1.3765;1.8439;
154.8000;1.3748;1.8312;
155.1000;1.3765;1.8287;
155.4000;1.3781;1.8312;
155.7000;1.3773;1.8363;
156.0000;1.3765;1.8312;
156.3000;1.3740;1.8363;
156.6000;1.3740;1.8464;
156.9000;1.3765;1.8515;
157.2000;1.3757;1.8490;
157.5000;1.3740;1.8439;
157.8000;1.3765;1.8490;
158.1000;1.3765;1.8515;
158.4000;1.3740;1.8388;
158.7000;1.3757;1.8414;
159.0000;1.3740;1.8388;
159.3000;1.3773;1.8414;
159.6000;1.3773;1.8566;
159.9000;1.3765;1.8490;
160.2000;1.3757;1.8540;
160.5000;1.3773;1.8642;
160.8000;1.3781;1.8540;
161.1000;1.3757;1.8464;
161.4000;1.3765;1.8439;
161.7000;1.3765;1.8388;
162.0000;1.3748;1.8414;
162.3000;1.3773;1.8439;
162.6000;1.3748;1.8363;
162.9000;1.3773;1.8414;
163.2000;1.3765;1.8464;
163.5000;1.3691;1.8236;
163.8000;1.3765;1.8490;
164.1000;1.3740;1.8515;
164.4000;1.3773;1.8616;
164.7000;1.3724;1.8439;
165.0000;1.3748;1.8414;
165.3000;1.3757;1.8388;
165.6000;1.3748;1.8414;
165.9000;1.3773;1.8515;
166.2000;1.3765;1.8490;
166.5000;1.3757;1.8515;
166.8000;1.3724;1.8464;
167.1000;1.3846;1.8693;
167.4000;1.3773;1.8439;
167.7000;1.3757;1.8388;
168.0000;1.3871;1.8743;
168.3000;1.3773;1.8490;
168.6000;1.3748;1.8464;
168.9000;1.3757;1.8540;
169.2000;1.3765;1.8515;
169.5000;1.3765;1.8464;
169.8000;1.3691;1.8261;
170.1000;1.3732;1.8388;
170.4000;1.3765;1.8515;
170.7000;1.3773;1.8464;
171.0000;1.3797;1.8414;
171.3000;1.3740;1.8287;
171.6000;1.3789;1.8414;
171.9000;1.3781;1.8414;
172.2000;1.3757;1.8388;
172.5000;1.3757;1.8363;
172.8000;1.3789;1.8464;
173.1000;1.3765;1.8414;
173.4000;1.3757;1.8388;
173.7000;1.3765;1.8414;
174.0000;1.3683;1.8109;
174.3000;1.3757;1.8236;
174.6000;1.3773;1.8312;
174.9000;1.3757;1.8287;
175.2000;1.3748;1.8287;
175.5000;1.3765;1.8287;
175.8000;1.3773;1.8337;
176.1000;1.3748;1.8261;
176.4000;1.3765;1.8363;
176.7000;1.3781;1.8540;
177.0000;1.3773;1.8515;
177.3000;1.3765;1.8464;
177.6000;1.3765;1.8337;
177.9000;1.3765;1.8414;
178.2000;1.3765;1.8464;
178.5000;1.3757;1.8439;
178.8000;1.3773;1.8414;
179.1000;1.3757;1.8363;
179.4000;1.3765;1.8312;
179.7000;1.3765;1.8337;
180.0000;1.3781;1.8490;
180.3000;1.3765;1.8439;
180.6000;1.3748;1.8287;
180.9000;1.3748;1.8236;
181.2000;1.3700;1.8084;
181.5000;1.3773;1.8363;
181.8000;1.3748;1.8312;
182.1000;1.3846;1.8464;
182.4000;1.3773;1.8261;
182.7000;1.3757;1.8236;
183.0000;1.3748;1.8236;
183.3000;1.3757;1.8337;
183.6000;1.3765;1.8464;
183.9000;1.3773;1.8540;
184.2000;1.3757;1.8515;
184.5000;1.3708;1.8337;
184.8000;1.3765;1.8388;
185.1000;1.3765;1.8388;
185.4000;1.3732;1.8337;
185.7000;1.3748;1.8439;
186.0000;1.3765;1.8464;
186.3000;1.3757;1.8464;
186.6000;1.3708;1.8363;
186.9000;1.3748;1.8439;
187.2000;1.3822;1.8414;
187.5000;1.3757;1.8287;
187.8000;1.3740;1.8236;
188.1000;1.3740;1.8312;
188.4000;1.3757;1.8439;
188.7000;1.3757;1.8363;
189.0000;1.3757;1.8312;
189.3000;1.3708;1.8312;
189.6000;1.3757;1.8388;
189.9000;1.3757;1.8414;
190.2000;1.3740;1.8388;
190.5000;1.3757;1.8439;
190.8000;1.3789;1.8515;
191.1000;1.3773;1.8515;
191.4000;1.3773;1.8540;
191.7000;1.3757;1.8464;
192.0000;1.3765;1.8464;
192.3000;1.3748;1.8490;
192.6000;1.3765;1.8388;
192.9000;1.3667;1.8236;
193.2000;1.3757;1.8439;
193.5000;1.3765;1.8414;
193.8000;1.3748;1.8337;
194.1000;1.3732;1.8312;
194.4000;1.3651;1.8160;
194.7000;1.3789;1.8515;
195.0000;1.3708;1.8312;
195.3000;1.3748;1.8414;
195.6000;1.3814;1.8566;
195.9000;1.3748;1.8363;
196.2000;1.3765;1.8388;
196.5000;1.3740;1.8388;
196.8000;1.3789;1.8540;
197.1000;1.3748;1.8312;
197.4000;1.3789;1.8388;
197.7000;1.3765;1.8363;
198.0000;1.3773;1.8388;
198.3000;1.3773;1.8337;
198.6000;1.3797;1.8439;
198.9000;1.3757;1.8363;
199.2000;1.3748;1.8464;
199.5000;1.3724;1.8363;
199.8000;1.3879;1.8794;
200.1000;1.3748;1.8540;
200.4000;1.3675;1.8261;
200.7000;1.3781;1.8490;
201.0000;1.3740;1.8363;
201.3000;1.3748;1.8312;
201.6000;1.3773;1.8388;
201.9000;1.3740;1.8312;
202.2000;1.3757;1.8388;
202.5000;1.3765;1.8439;
202.8000;1.3862;1.8718;
203.1000;1.3724;1.8363;
203.4000;1.3748;1.8490;
203.7000;1.3757;1.8414;
204.0000;1.3748;1.8337;
204.3000;1.3765;1.8414;
204.6000;1.3773;1.8414;
204.9000;1.3732;1.8363;
205.2000;1.3708;1.8211;
205.5000;1.3748;1.8388;
205.8000;1.3732;1.8439;
206.1000;1.3740;1.8439;
206.4000;1.3781;1.8566;
206.7000;1.3732;1.8388;
207.0000;1.3757;1.8414;
207.3000;1.3765;1.8388;
207.6000;1.3757;1.8363;
207.9000;1.3773;1.8388;
208.2000;1.3757;1.8312;
208.5000;1.3740;1.8261;
208.8000;1.3765;1.8337;
209.1000;1.3724;1.8287;
209.4000;1.3757;1.8363;
209.7000;1.3748;1.8363;
210.0000;1.3748;1.8414;
210.3000;1.3765;1.8439;
210.6000;1.3724;1.8312;
210.9000;1.3724;1.8388;
211.2000;1.3740;1.8363;
211.5000;1.3748;1.8515;
211.8000;1.3740;1.8464;
212.1000;1.3691;1.8261;
212.4000;1.3724;1.8363;
212.7000;1.3773;1.8439;
213.0000;1.3748;1.8414;
213.3000;1.3748;1.8414;
213.6000;1.3740;1.8414;
213.9000;1.3724;1.8337;
214.2000;1.3789;1.8540;
214.5000;1.3740;1.8439;
214.8000;1.3789;1.8616;
215.1000;1.3724;1.8490;
215.4000;1.3757;1.8591;
215.7000;1.3732;1.8616;
216.0000;1.3748;1.8667;
216.3000;1.3748;1.8616;
216.6000;1.3748;1.8616;
216.9000;1.3781;1.8693;
217.2000;1.3757;1.8490;
217.5000;1.3748;1.8312;
217.8000;1.3773;1.8337;
218.1000;1.3765;1.8287;
218.4000;1.3757;1.8363;
218.7000;1.3724;1.8337;
219.0000;1.3724;1.8287;
219.3000;1.3740;1.8363;
219.6000;1.3740;1.8363;
219.9000;1.3724;1.8261;
220.2000;1.3765;1.8363;
220.5000;1.3757;1.8388;
220.8000;1.3797;1.8566;
221.1000;1.3757;1.8490;
221.4000;1.3757;1.8490;
221.7000;1.3740;1.8464;
222.0000;1.3773;1.8566;
222.3000;1.3716;1.8439;
222.6000;1.3716;1.8312;
222.9000;1.3740;1.8363;
223.2000;1.3765;1.8312;
223.5000;1.3740;1.8236;
223.8000;1.3748;1.8211;
224.1000;1.3748;1.8236;
224.4000;1.3757;1.8261;
224.7000;1.3732;1.8261;
225.0000;1.3740;1.8211;
225.3000;1.3748;1.8160;
225.6000;1.3732;1.8185;
225.9000;1.3716;1.8236;
226.2000;1.3732;1.8261;
226.5000;1.3757;1.8337;
226.8000;1.3789;1.8388;
227.1000;1.3740;1.8337;
227.4000;1.3708;1.8312;
227.7000;1.3716;1.8388;
228.0000;1.3757;1.8439;
228.3000;1.3748;1.8439;
228.6000;1.3748;1.8363;
228.9000;1.3732;1.8312;
229.2000;1.3724;1.8261;
229.5000;1.3757;1.8287;
229.8000;1.3724;1.8363;
230.1000;1.3748;1.8414;
230.4000;1.3724;1.8337;
230.7000;1.3732;1.8337;
231.0000;1.3732;1.8312;
231.3000;1.3716;1.8312;
231.6000;1.3748;1.8337;
231.9000;1.3748;1.8312;
232.2000;1.3732;1.8363;
232.5000;1.3748;1.8439;
232.8000;1.3724;1.8287;
233.1000;1.3748;1.8414;
233.4000;1.3748;1.8414;
233.7000;1.3757;1.8414;
234.0000;1.3740;1.8439;
234.3000;1.3740;1.8464;
234.6000;1.3740;1.8464;
234.9000;1.3724;1.8414;
235.2000;1.3716;1.8363;
235.5000;1.3724;1.8414;
235.8000;1.3732;1.8439;
236.1000;1.3724;1.8515;
236.4000;1.3748;1.8515;
236.7000;1.3716;1.8490;
237.0000;1.3740;1.8566;
237.3000;1.3748;1.8591;
237.6000;1.3716;1.8464;
237.9000;1.3740;1.8439;
238.2000;1.3740;1.8464;
238.5000;1.3757;1.8591;
238.8000;1.3740;1.8490;
239.1000;1.3732;1.8540;
239.4000;1.3748;1.8566;
239.7000;1.3740;1.8616;
240.0000;1.3757;1.8642;
240.3000;1.3805;1.8794;
240.6000;1.3740;1.8667;
240.9000;1.3757;1.8642;
241.2000;1.3732;1.8591;
241.5000;1.3740;1.8642;
241.8000;1.3748;1.8667;
242.1000;1.3757;1.8591;
242.4000;1.3748;1.8540;
242.7000;1.3748;1.8515;
243.0000;1.3740;1.8515;
243.3000;1.3748;1.8566;
243.6000;1.3789;1.8693;
243.9000;1.3724;1.8490;
244.2000;1.3716;1.8515;
244.5000;1.3748;1.8591;
244.8000;1.3740;1.8566;
245.1000;1.3716;1.8515;
245.4000;1.3716;1.8439;
245.7000;1.3724;1.8439;
246.0000;1.3740;1.8490;
246.3000;1.3740;1.8439;
246.6000;1.3830;1.8591;
246.9000;1.3740;1.8287;
247.2000;1.3748;1.8312;
247.5000;1.3748;1.8312;
247.8000;1.3740;1.8363;
248.1000;1.3789;1.8490;
248.4000;1.3716;1.8337;
248.7000;1.3740;1.8414;
249.0000;1.3732;1.8287;
249.3000;1.3789;1.8464;
249.6000;1.3740;1.8287;
249.9000;1.3740;1.8287;
250.2000;1.3748;1.8287;
250.5000;1.3724;1.8287;
250.8000;1.3732;1.8312;
251.1000;1.3716;1.8261;
251.4000;1.3724;1.8261;
251.7000;1.3700;1.8337;
252.0000;1.3732;1.8388;
252.3000;1.3716;1.8388;
252.6000;1.3716;1.8388;
252.9000;1.3691;1.8388;
253.2000;1.3716;1.8439;
253.5000;1.3814;1.8718;
253.8000;1.3700;1.8515;
254.1000;1.3740;1.8566;
254.4000;1.3700;1.8439;
254.7000;1.3708;1.8515;
255.0000;1.3716;1.8566;
255.3000;1.3716;1.8515;
255.6000;1.3626;1.8211;
255.9000;1.3708;1.8388;
256.2000;1.3716;1.8388;
256.5000;1.3708;1.8363;
256.8000;1.3716;1.8439;
257.1000;1.3724;1.8414;
257.4000;1.3732;1.8414;
257.7000;1.3748;1.8439;
258.0000;1.3757;1.8540;
258.3000;1.3716;1.8439;
258.6000;1.3708;1.8388;
258.9000;1.3716;1.8439;
259.2000;1.3716;1.8439;
259.5000;1.3716;1.8464;
259.8000;1.3724;1.8515;
260.1000;1.3700;1.8464;
260.4000;1.3748;1.8642;
260.7000;1.3708;1.8540;
261.0000;1.3732;1.8490;
261.3000;1.3716;1.8414;
261.6000;1.3716;1.8490;
261.9000;1.3659;1.8287;
262.2000;1.3724;1.8490;
262.5000;1.3732;1.8490;
262.8000;1.3740;1.8414;
263.1000;1.3732;1.8515;
263.4000;1.3732;1.8464;
263.7000;1.3724;1.8490;
264.0000;1.3740;1.8515;
264.3000;1.3732;1.8439;
264.6000;1.3748;1.8464;
264.9000;1.3748;1.8515;
265.2000;1.3626;1.8287;
265.5000;1.3724;1.8616;
265.8000;1.3724;1.8616;
266.1000;1.3781;1.8718;
266.4000;1.3716;1.8591;
266.7000;1.3740;1.8718;
267.0000;1.3700;1.8616;
267.3000;1.3700;1.8591;
267.6000;1.3724;1.8667;
267.9000;1.3724;1.8642;
268.2000;1.3724;1.8540;
268.5000;1.3724;1.8490;
268.8000;1.3740;1.8566;
269.1000;1.3716;1.8591;
269.4000;1.3716;1.8515;
269.7000;1.3724;1.8515;
270.0000;1.3724;1.8566;
270.3000;1.3716;1.8566;
270.6000;1.3700;1.8515;
270.9000;1.3716;1.8515;
271.2000;1.3708;1.8515;
271.5000;1.3700;1.8515;
271.8000;1.3708;1.8591;
272.1000;1.3724;1.8540;
272.4000;1.3716;1.8616;
272.7000;1.3724;1.8591;
273.0000;1.3724;1.8591;
273.3000;1.3724;1.8591;
273.6000;1.3724;1.8566;
273.9000;1.3748;1.8566;
274.2000;1.3724;1.8490;
274.5000;1.3716;1.8439;
274.8000;1.3716;1.8464;
275.1000;1.3732;1.8490;
275.4000;1.3724;1.8566;
275.7000;1.3700;1.8642;
276.0000;1.3773;1.8819;
276.3000;1.3708;1.8566;
276.6000;1.3708;1.8566;
276.9000;1.3708;1.8464;
277.2000;1.3716;1.8464;
277.5000;1.3724;1.8515;
277.8000;1.3773;1.8693;
278.1000;1.3724;1.8490;
278.4000;1.3732;1.8616;
278.7000;1.3724;1.8642;
279.0000;1.3724;1.8769;
279.3000;1.3651;1.8464;
279.6000;1.3716;1.8616;
279.9000;1.3732;1.8566;
280.2000;1.3724;1.8464;
280.5000;1.3748;1.8490;
280.8000;1.3740;1.8439;
281.1000;1.3643;1.8135;
281.4000;1.3724;1.8363;
281.7000;1.3691;1.8337;
282.0000;1.3732;1.8464;
282.3000;1.3716;1.8490;
282.6000;1.3708;1.8439;
282.9000;1.3748;1.8642;
283.2000;1.3732;1.8718;
283.5000;1.3724;1.8693;
283.8000;1.3724;1.8642;
284.1000;1.3740;1.8667;
284.4000;1.3732;1.8591;
284.7000;1.3708;1.8540;
285.0000;1.3724;1.8642;
285.3000;1.3716;1.8667;
285.6000;1.3700;1.8769;
285.9000;1.3700;1.8845;
286.2000;1.3708;1.8743;
286.5000;1.3708;1.8693;
286.8000;1.3716;1.8642;
287.1000;1.3708;1.8642;
287.4000;1.3635;1.8515;
287.7000;1.3708;1.8743;
288.0000;1.3675;1.8591;
288.3000;1.3708;1.8693;
288.6000;1.3708;1.8693;
288.9000;1.3789;1.8895;
289.2000;1.3724;1.8769;
289.5000;1.3716;1.8845;
289.8000;1.3708;1.8971;
290.1000;1.3700;1.8921;
290.4000;1.3700;1.8870;
290.7000;1.3724;1.8895;
291.0000;1.3732;1.8819;
291.3000;1.3724;1.8718;
291.6000;1.3724;1.8769;
291.9000;1.3732;1.8819;
292.2000;1.3683;1.8718;
292.5000;1.3724;1.8718;
292.8000;1.3724;1.8718;
293.1000;1.3724;1.8642;
293.4000;1.3732;1.8642;
293.7000;1.3708;1.8642;
294.0000;1.3765;1.8794;
294.3000;1.3716;1.8667;
294.6000;1.3700;1.8616;
294.9000;1.3781;1.8819;
295.2000;1.3724;1.8642;
295.5000;1.3724;1.8616;
295.8000;1.3716;1.8616;
296.1000;1.3724;1.8743;
296.4000;1.3716;1.8743;
296.7000;1.3732;1.8769;
297.0000;1.3700;1.8718;
297.3000;1.3740;1.8718;
297.6000;1.3708;1.8667;
297.9000;1.3740;1.8693;
298.2000;1.3708;1.8591;
298.5000;1.3716;1.8616;
298.8000;1.3724;1.8591;
299.1000;1.3700;1.8566;
299.4000;1.3724;1.8591;
299.7000;1.3708;1.8566;
300.0000;1.3724;1.8667;
300.3000;1.3700;1.8591;
300.6000;1.3700;1.8642;
300.9000;1.3716;1.8693;
301.2000;1.3691;1.8667;
301.5000;1.3797;1.8921;
301.8000;1.3716;1.8667;
302.1000;1.3716;1.8693;
302.4000;1.3708;1.8693;
302.7000;1.3732;1.8794;
303.0000;1.3683;1.8642;
303.3000;1.3724;1.8718;
303.6000;1.3724;1.8667;
303.9000;1.3708;1.8591;
304.2000;1.3724;1.8616;
304.5000;1.3724;1.8591;
304.8000;1.3708;1.8566;
305.1000;1.3708;1.8490;
305.4000;1.3700;1.8515;
305.7000;1.3724;1.8515;
306.0000;1.3708;1.8566;
306.3000;1.3700;1.8693;
306.6000;1.3716;1.8769;
306.9000;1.3708;1.8769;
307.2000;1.3716;1.8769;
307.5000;1.3691;1.8743;
307.8000;1.3700;1.8845;
308.1000;1.3716;1.8845;
308.4000;1.3708;1.8769;
308.7000;1.3708;1.8693;
309.0000;1.3724;1.8693;
309.3000;1.3732;1.8616;
309.6000;1.3716;1.8566;
309.9000;1.3700;1.8642;
310.2000;1.3708;1.8743;
310.5000;1.3708;1.8794;
310.8000;1.3716;1.8870;
311.1000;1.3675;1.8743;
311.4000;1.3691;1.8769;
311.7000;1.3708;1.8743;
312.0000;1.3724;1.8743;
312.3000;1.3708;1.8718;
312.6000;1.3740;1.8693;
312.9000;1.3691;1.8667;
313.2000;1.3716;1.8845;
313.5000;1.3716;1.8769;
313.8000;1.3765;1.8921;
314.1000;1.3691;1.8743;
314.4000;1.3708;1.8769;
314.7000;1.3700;1.8769;
315.0000;1.3700;1.8794;
315.3000;1.3691;1.8743;
315.6000;1.3700;1.8870;
315.9000;1.3716;1.8895;
316.2000;1.3700;1.8794;
316.5000;1.3708;1.8693;
316.8000;1.3724;1.8743;
317.1000;1.3716;1.8718;
317.4000;1.3708;1.8667;
317.7000;1.3675;1.8642;
318.0000;1.3740;1.8794;
318.3000;1.3716;1.8667;
318.6000;1.3700;1.8667;
318.9000;1.3708;1.8743;
319.2000;1.3683;1.8718;
319.5000;1.3700;1.8743;
319.8000;1.3578;1.8414;
320.1000;1.3691;1.8769;
320.4000;1.3691;1.8693;
320.7000;1.3708;1.8845;
321.0000;1.3691;1.8845;
321.3000;1.3691;1.8819;
321.6000;1.3683;1.8870;
321.9000;1.3700;1.8870;
322.2000;1.3724;1.8946;
322.5000;1.3708;1.8819;
322.8000;1.3700;1.8718;
323.1000;1.3700;1.8845;
323.4000;1.3700;1.8794;
323.7000;1.3724;1.8819;
324.0000;1.3700;1.8794;
324.3000;1.3700;1.8642;
324.6000;1.3724;1.8718;
324.9000;1.3708;1.8769;
325.2000;1.3700;1.8794;
325.5000;1.3708;1.8743;
325.8000;1.3691;1.8667;
326.1000;1.3691;1.8642;
326.4000;1.3643;1.8566;
326.7000;1.3691;1.8718;
327.0000;1.3700;1.8794;
327.3000;1.3716;1.8946;
327.6000;1.3716;1.8997;
327.9000;1.3716;1.9022;
328.2000;1.3700;1.8971;
328.5000;1.3659;1.8895;
328.8000;1.3683;1.8845;
329.1000;1.3716;1.8845;
329.4000;1.3740;1.8921;
329.7000;1.3700;1.8769;
330.0000;1.3683;1.8718;
330.3000;1.3683;1.8667;
330.6000;1.3683;1.8693;
330.9000;1.3635;1.8591;
331.2000;1.3691;1.8794;
331.5000;1.3700;1.8667;
331.8000;1.3716;1.8693;
332.1000;1.3765;1.8769;
332.4000;1.3626;1.8490;
332.7000;1.3700;1.8667;
333.0000;1.3700;1.8718;
333.3000;1.3691;1.8693;
333.6000;1.3708;1.8718;
333.9000;1.3691;1.8667;
334.2000;1.3659;1.8616;
334.5000;1.3773;1.8870;
334.8000;1.3708;1.8667;
335.1000;1.3700;1.8693;
335.4000;1.3626;1.8540;
335.7000;1.3675;1.8769;
336.0000;1.3700;1.8845;
336.3000;1.3708;1.8819;
336.6000;1.3708;1.8794;
336.9000;1.3748;1.8921;
337.2000;1.3683;1.8819;
337.5000;1.3708;1.8895;
337.8000;1.3724;1.8921;
338.1000;1.3683;1.8870;
338.4000;1.3700;1.8946;
338.7000;1.3740;1.8921;
339.0000;1.3700;1.8769;
339.3000;1.3700;1.8794;
339.6000;1.3643;1.8642;
339.9000;1.3691;1.8667;
340.2000;1.3683;1.8718;
340.5000;1.3691;1.8718;
340.8000;1.3675;1.8769;
341.1000;1.3700;1.8921;
341.4000;1.3691;1.8997;
341.7000;1.3675;1.8870;
342.0000;1.3691;1.8845;
342.3000;1.3683;1.8769;
342.6000;1.3691;1.8718;
342.9000;1.3691;1.8794;
343.2000;1.3691;1.8845;
343.5000;1.3716;1.8819;
343.8000;1.3708;1.8819;
344.1000;1.3700;1.8819;
344.4000;1.3700;1.8819;
344.7000;1.3691;1.8819;
345.0000;1.3667;1.8743;
345.3000;1.3700;1.8819;
345.6000;1.3675;1.8819;
345.9000;1.3675;1.8794;
346.2000;1.3675;1.8794;
346.5000;1.3700;1.8895;
346.8000;1.3700;1.8895;
347.1000;1.3691;1.8895;
347.4000;1.3683;1.8870;
347.7000;1.3683;1.8921;
348.0000;1.3691;1.8895;
348.3000;1.3797;1.9200;
348.6000;1.3691;1.8845;
348.9000;1.3683;1.8794;
349.2000;1.3700;1.8819;
349.5000;1.3732;1.8845;
349.8000;1.3691;1.8667;
350.1000;1.3700;1.8769;
350.4000;1.3626;1.8693;
350.7000;1.3659;1.8769;
351.0000;1.3667;1.8819;
351.3000;1.3700;1.8870;
351.6000;1.3691;1.8946;
351.9000;1.3683;1.8845;
352.2000;1.3667;1.8895;
352.5000;1.3700;1.8971;
352.8000;1.3708;1.8946;
353.1000;1.3683;1.8845;
353.4000;1.3626;1.8693;
353.7000;1.3700;1.8845;
354.0000;1.3691;1.8845;
354.3000;1.3724;1.8946;
354.6000;1.3691;1.8845;
354.9000;1.3700;1.8870;
355.2000;1.3708;1.8946;
355.5000;1.3757;1.9124;
355.8000;1.3578;1.8642;
356.1000;1.3716;1.8845;
356.4000;1.3667;1.8718;
356.7000;1.3667;1.8769;
357.0000;1.3675;1.8743;
357.3000;1.3659;1.8693;
357.6000;1.3683;1.8718;
357.9000;1.3675;1.8769;
358.2000;1.3683;1.8870;
358.5000;1.3683;1.8997;
358.8000;1.3700;1.9124;
359.1000;1.3724;1.9174;
359.4000;1.3748;1.9250;
359.7000;1.3667;1.9022;
360.0000;1.3683;1.9098;
360.3000;1.3683;1.9048;
360.6000;1.3700;1.8946;
360.9000;1.3667;1.8870;
361.2000;1.3643;1.8718;
361.5000;1.3683;1.8819;
361.8000;1.3675;1.8845;
362.1000;1.3675;1.8870;
362.4000;1.3691;1.8895;
362.7000;1.3675;1.8819;
363.0000;1.3691;1.8819;
363.3000;1.3700;1.8870;
363.6000;1.3691;1.8845;
363.9000;1.3691;1.8845;
364.2000;1.3700;1.8819;
364.5000;1.3700;1.8794;
364.8000;1.3789;1.8997;
365.1000;1.3683;1.8769;
365.4000;1.3683;1.8819;
365.7000;1.3700;1.8794;
366.0000;1.3667;1.8693;
366.3000;1.3700;1.8845;
366.6000;1.3691;1.8971;
366.9000;1.3700;1.8997;
367.2000;1.3691;1.8997;
367.5000;1.3691;1.8971;
367.8000;1.3683;1.8971;
368.1000;1.3700;1.8997;
368.4000;1.3667;1.8971;
368.7000;1.3675;1.9022;
369.0000;1.3757;1.9174;
369.3000;1.3667;1.9022;
369.6000;1.3683;1.9073;
369.9000;1.3683;1.9073;
370.2000;1.3683;1.9149;
370.5000;1.3683;1.9124;
370.8000;1.3675;1.9124;
371.1000;1.3675;1.9048;
371.4000;1.3667;1.8997;
371.7000;1.3659;1.8997;
372.0000;1.3667;1.9048;
372.3000;1.3667;1.9022;
372.6000;1.3691;1.9149;
372.9000;1.3659;1.9022;
373.2000;1.3708;1.9022;
373.5000;1.3691;1.9124;
373.8000;1.3651;1.9022;
374.1000;1.3683;1.8997;
374.4000;1.3659;1.8921;
374.7000;1.3691;1.9098;
375.0000;1.3651;1.9073;
375.3000;1.3659;1.9174;
375.6000;1.3781;1.9377;
375.9000;1.3667;1.8971;
376.2000;1.3675;1.8921;
376.5000;1.3683;1.9022;
376.8000;1.3683;1.8997;
377.1000;1.3675;1.8946;
377.4000;1.3659;1.8921;
377.7000;1.3683;1.8946;
378.0000;1.3651;1.8769;
378.3000;1.3700;1.8921;
378.6000;1.3691;1.8870;
378.9000;1.3651;1.8921;
379.2000;1.3683;1.8997;
379.5000;1.3691;1.8971;
379.8000;1.3659;1.8870;
380.1000;1.3732;1.8997;
380.4000;1.3691;1.8946;
380.7000;1.3667;1.8946;
381.0000;1.3667;1.8971;
381.3000;1.3675;1.8971;
381.6000;1.3691;1.8997;
381.9000;1.3691;1.8895;
382.2000;1.3691;1.8946;
382.5000;1.3748;1.9098;
382.8000;1.3667;1.8895;
383.1000;1.3691;1.8971;
383.4000;1.3667;1.8895;
383.7000;1.3708;1.8946;
384.0000;1.3667;1.8895;
384.3000;1.3683;1.8997;
384.6000;1.3683;1.9022;
384.9000;1.3691;1.9022;
385.2000;1.3683;1.9048;
385.5000;1.3675;1.9048;
385.8000;1.3683;1.9073;
386.1000;1.3732;1.9174;
386.4000;1.3675;1.8997;
386.7000;1.3691;1.8870;
387.0000;1.3691;1.8845;
387.3000;1.3675;1.8743;
387.6000;1.3667;1.8819;
387.9000;1.3610;1.8718;
388.2000;1.3667;1.8921;
388.5000;1.3675;1.8946;
388.8000;1.3667;1.8895;
389.1000;1.3675;1.8895;
389.4000;1.3675;1.8921;
389.7000;1.3691;1.8921;
390.0000;1.3716;1.8946;
390.3000;1.3683;1.8870;
390.6000;1.3667;1.8946;
390.9000;1.3683;1.8997;
391.2000;1.3683;1.9022;
391.5000;1.3667;1.8997;
391.8000;1.3691;1.8971;
392.1000;1.3683;1.8971;
392.4000;1.3667;1.8946;
392.7000;1.3691;1.8997;
393.0000;1.3675;1.8971;
393.3000;1.3667;1.8921;
393.6000;1.3708;1.8971;
393.9000;1.3691;1.8946;
394.2000;1.3683;1.8870;
394.5000;1.3675;1.8971;
394.8000;1.3683;1.8971;
395.1000;1.3659;1.8946;
395.4000;1.3667;1.8946;
395.7000;1.3675;1.9022;
396.0000;1.3683;1.9022;
396.3000;1.3659;1.8870;
396.6000;1.3675;1.8870;
396.9000;1.3708;1.8946;
397.2000;1.3643;1.8819;
397.5000;1.3667;1.8870;
397.8000;1.3667;1.8921;
398.1000;1.3659;1.8997;
398.4000;1.3667;1.8997;
398.7000;1.3765;1.9250;
399.0000;1.3675;1.8971;
399.3000;1.3683;1.9073;
399.6000;1.3675;1.9124;
399.9000;1.3643;1.9073;
400.2000;1.3675;1.9098;
400.5000;1.3691;1.9073;
400.8000;1.3659;1.9048;
401.1000;1.3691;1.9048;
401.4000;1.3659;1.8997;
401.7000;1.3732;1.9149;
402.0000;1.3659;1.8971;
402.3000;1.3667;1.9048;
402.6000;1.3683;1.9073;
402.9000;1.3667;1.9022;
403.2000;1.3691;1.8997;
403.5000;1.3708;1.9022;
403.8000;1.3675;1.9098;
404.1000;1.3667;1.9048;
404.4000;1.3659;1.9073;
404.7000;1.3675;1.9048;
405.0000;1.3667;1.8971;
405.3000;1.3651;1.8870;
405.6000;1.3643;1.8794;
405.9000;1.3602;1.8693;
406.2000;1.3635;1.8845;
406.5000;1.3561;1.8667;
406.8000;1.3659;1.8845;
407.1000;1.3659;1.8921;
407.4000;1.3667;1.8921;
407.7000;1.3659;1.8870;
408.0000;1.3700;1.9124;
408.3000;1.3659;1.8971;
408.6000;1.3724;1.9098;
408.9000;1.3683;1.8946;
409.2000;1.3578;1.8743;
409.5000;1.3675;1.9098;
409.8000;1.3635;1.8971;
410.1000;1.3651;1.8997;
410.4000;1.3675;1.8997;
410.7000;1.3667;1.8971;
411.0000;1.3659;1.8971;
411.3000;1.3667;1.9073;
411.6000;1.3667;1.9022;
411.9000;1.3659;1.8997;
412.2000;1.3675;1.8997;
412.5000;1.3675;1.8971;
412.8000;1.3618;1.8819;
413.1000;1.3691;1.8971;
413.4000;1.3667;1.8946;
413.7000;1.3675;1.9073;
414.0000;1.3675;1.9098;
414.3000;1.3659;1.9022;
414.6000;1.3659;1.8997;
414.9000;1.3643;1.8921;
415.2000;1.3651;1.9048;
415.5000;1.3667;1.9149;
415.8000;1.3667;1.9098;
416.1000;1.3667;1.9149;
416.4000;1.3675;1.9200;
416.7000;1.3667;1.9098;
417.0000;1.3700;1.9200;
417.3000;1.3659;1.9149;
417.6000;1.3667;1.9149;
417.9000;1.3659;1.9022;
418.2000;1.3667;1.8997;
418.5000;1.3651;1.8971;
418.8000;1.3667;1.8946;
419.1000;1.3643;1.9022;
419.4000;1.3651;1.9073;
419.7000;1.3643;1.9098;
420.0000;1.3675;1.9174;
420.3000;1.3659;1.9098;
420.6000;1.3659;1.9073;
420.9000;1.3651;1.8971;
421.2000;1.3643;1.9022;
421.5000;1.3659;1.9124;
421.8000;1.3643;1.9098;
422.1000;1.3659;1.9174;
422.4000;1.3667;1.9200;
422.7000;1.3667;1.9225;
423.0000;1.3651;1.9200;
423.3000;1.3667;1.9200;
423.6000;1.3667;1.9225;
423.9000;1.3700;1.9403;
424.2000;1.3667;1.9225;
424.5000;1.3667;1.9200;
424.8000;1.3659;1.9225;
425.1000;1.3659;1.9250;
425.4000;1.3675;1.9174;
425.7000;1.3569;1.8971;
426.0000;1.3635;1.9124;
426.3000;1.3651;1.9174;
426.6000;1.3651;1.9200;
426.9000;1.3651;1.9149;
427.2000;1.3781;1.9403;
427.5000;1.3667;1.9149;
427.8000;1.3651;1.9073;
428.1000;1.3659;1.8971;
428.4000;1.3651;1.8870;
428.7000;1.3618;1.8769;
429.0000;1.3659;1.8870;
429.3000;1.3659;1.8971;
429.6000;1.3643;1.8997;
429.9000;1.3659;1.9098;
430.2000;1.3781;1.9377;
430.5000;1.3700;1.9200;
430.8000;1.3643;1.9022;
431.1000;1.3667;1.9098;
431.4000;1.3659;1.9022;
431.7000;1.3659;1.9022;
432.0000;1.3683;1.8997;
432.3000;1.3659;1.8921;
432.6000;1.3635;1.8794;
432.9000;1.3675;1.9022;
433.2000;1.3716;1.9200;
433.5000;1.3667;1.8997;
433.8000;1.3643;1.8845;
434.1000;1.3651;1.8946;
434.4000;1.3667;1.8971;
434.7000;1.3667;1.8997;
435.0000;1.3651;1.8921;
435.3000;1.3675;1.8946;
435.6000;1.3675;1.8819;
435.9000;1.3675;1.8819;
436.2000;1.3651;1.8819;
436.5000;1.3651;1.8794;
436.8000;1.3675;1.8870;
437.1000;1.3635;1.8718;
437.4000;1.3659;1.8819;
437.7000;1.3659;1.8794;
438.0000;1.3651;1.8819;
438.3000;1.3659;1.8870;
438.6000;1.3659;1.8921;
438.9000;1.3643;1.8946;
439.2000;1.3659;1.9048;
439.5000;1.3659;1.9073;
439.8000;1.3643;1.9073;
440.1000;1.3651;1.9022;
440.4000;1.3667;1.9073;
440.7000;1.3651;1.8946;
441.0000;1.3667;1.9022;
441.3000;1.3667;1.9098;
441.6000;1.3643;1.9073;
441.9000;1.3635;1.8997;
442.2000;1.3643;1.8997;
442.5000;1.3626;1.8870;
442.8000;1.3667;1.8895;
443.1000;1.3635;1.8819;
443.4000;1.3659;1.8921;
443.7000;1.3602;1.8895;
444.0000;1.3643;1.9022;
444.3000;1.3643;1.9022;
444.6000;1.3651;1.9022;
444.9000;1.3659;1.9048;
445.2000;1.3635;1.8997;
445.5000;1.3659;1.9022;
445.8000;1.3635;1.8946;
446.1000;1.3659;1.8971;
446.4000;1.3643;1.8971;
446.7000;1.3643;1.9048;
447.0000;1.3675;1.8997;
447.3000;1.3643;1.8946;
447.6000;1.3635;1.8845;
447.9000;1.3594;1.8743;
448.2000;1.3635;1.8743;
448.5000;1.3651;1.8870;
448.8000;1.3635;1.8845;
449.1000;1.3643;1.8870;
449.4000;1.3667;1.9048;
449.7000;1.3667;1.9022;
450.0000;1.3643;1.8921;
450.3000;1.3838;1.9403;
450.6000;1.3675;1.9022;
450.9000;1.3659;1.8997;
451.2000;1.3659;1.8971;
451.5000;1.3578;1.8743;
451.8000;1.3659;1.8895;
452.1000;1.3626;1.8769;
452.4000;1.3626;1.8769;
452.7000;1.3635;1.8819;
453.0000;1.3618;1.8769;
453.3000;1.3667;1.8997;
453.6000;1.3643;1.8971;
453.9000;1.3651;1.9022;
454.2000;1.3643;1.9098;
454.5000;1.3659;1.9022;
454.8000;1.3626;1.8895;
455.1000;1.3643;1.8921;
455.4000;1.3651;1.9022;
455.7000;1.3667;1.8946;
456.0000;1.3651;1.8946;
456.3000;1.3626;1.8895;
456.6000;1.3651;1.8845;
456.9000;1.3635;1.8845;
457.2000;1.3643;1.8845;
457.5000;1.3618;1.8794;
457.8000;1.3651;1.8895;
458.1000;1.3635;1.8895;
458.4000;1.3643;1.8946;
458.7000;1.3643;1.8845;
459.0000;1.3635;1.8946;
459.3000;1.3635;1.8921;
459.6000;1.3643;1.8971;
459.9000;1.3594;1.8819;
460.2000;1.3635;1.8921;
460.5000;1.3643;1.8971;
460.8000;1.3651;1.8997;
461.1000;1.3667;1.9022;
461.4000;1.3602;1.8743;
461.7000;1.3635;1.8769;
462.0000;1.3537;1.8642;
462.3000;1.3635;1.8946;
462.6000;1.3626;1.8946;
462.9000;1.3635;1.8971;
463.2000;1.3626;1.9022;
463.5000;1.3610;1.8971;
463.8000;1.3635;1.9022;
464.1000;1.3643;1.8997;
464.4000;1.3643;1.8997;
464.7000;1.3635;1.8921;
465.0000;1.3643;1.8819;
465.3000;1.3610;1.8743;
465.6000;1.3691;1.8971;
465.9000;1.3643;1.8946;
466.2000;1.3651;1.8997;
466.5000;1.3781;1.9225;
466.8000;1.3618;1.8819;
467.1000;1.3626;1.8819;
467.4000;1.3716;1.9098;
467.7000;1.3618;1.8819;
468.0000;1.3635;1.8769;
468.3000;1.3635;1.8769;
468.6000;1.3651;1.8819;
468.9000;1.3651;1.8819;
469.2000;1.3651;1.8769;
469.5000;1.3553;1.8540;
469.8000;1.3651;1.8895;
470.1000;1.3643;1.8895;
470.4000;1.3635;1.8870;
470.7000;1.3675;1.8921;
471.0000;1.3635;1.8794;
471.3000;1.3675;1.8946;
471.6000;1.3626;1.8971;
471.9000;1.3545;1.8743;
472.2000;1.3635;1.8870;
472.5000;1.3651;1.8946;
472.8000;1.3635;1.8870;
473.1000;1.3635;1.8870;
473.4000;1.3643;1.8819;
473.7000;1.3643;1.8718;
474.0000;1.3635;1.8743;
474.3000;1.3683;1.8921;
474.6000;1.3626;1.8870;
474.9000;1.3635;1.8921;
475.2000;1.3618;1.8921;
475.5000;1.3610;1.8971;
475.8000;1.3643;1.9073;
476.1000;1.3602;1.9022;
476.4000;1.3626;1.9124;
476.7000;1.3626;1.9174;
477.0000;1.3635;1.9200;
477.3000;1.3626;1.9225;
477.6000;1.3643;1.9149;
477.9000;1.3635;1.9022;
478.2000;1.3626;1.8997;
478.5000;1.3635;1.9048;
478.8000;1.3626;1.9098;
479.1000;1.3602;1.8971;
479.4000;1.3635;1.8971;
479.7000;1.3643;1.9073;
480.0000;1.3651;1.9124;
480.3000;1.3651;1.9174;
480.6000;1.3651;1.9149;
480.9000;1.3618;1.8997;
481.2000;1.3643;1.9048;
481.5000;1.3626;1.9098;
481.8000;1.3635;1.9098;
482.1000;1.3618;1.9048;
482.4000;1.3643;1.9048;
482.7000;1.3635;1.8997;
483.0000;1.3626;1.9048;
483.3000;1.3643;1.9073;
483.6000;1.3643;1.9022;
483.9000;1.3643;1.9073;
484.2000;1.3635;1.9073;
484.5000;1.3626;1.9073;
484.8000;1.3635;1.9073;
485.1000;1.3651;1.9098;
485.4000;1.3643;1.9124;
485.7000;1.3643;1.9098;
486.0000;1.3659;1.9098;
486.3000;1.3651;1.9048;
486.6000;1.3643;1.9124;
486.9000;1.3626;1.9124;
487.2000;1.3635;1.9174;
487.5000;1.3618;1.9098;
487.8000;1.3635;1.9098;
488.1000;1.3635;1.9048;
488.4000;1.3635;1.9022;
488.7000;1.3643;1.9098;
489.0000;1.3667;1.9149;
489.3000;1.3651;1.9200;
489.6000;1.3545;1.8997;
489.9000;1.3651;1.9149;
490.2000;1.3651;1.9073;
490.5000;1.3561;1.8921;
490.8000;1.3635;1.9250;
491.1000;1.3618;1.9225;
491.4000;1.3651;1.9250;
491.7000;1.3651;1.9250;
492.0000;1.3626;1.9174;
492.3000;1.3602;1.9073;
492.6000;1.3602;1.9022;
492.9000;1.3651;1.9149;
493.2000;1.3635;1.9124;
493.5000;1.3610;1.9124;
493.8000;1.3618;1.9149;
494.1000;1.3643;1.9124;
494.4000;1.3635;1.9098;
494.7000;1.3635;1.9098;
495.0000;1.3635;1.9048;
495.3000;1.3651;1.9048;
495.6000;1.3651;1.8946;
495.9000;1.3569;1.8718;
496.2000;1.3643;1.8971;
496.5000;1.3724;1.9225;
496.8000;1.3635;1.8971;
497.1000;1.3618;1.8921;
497.4000;1.3635;1.8971;
497.7000;1.3618;1.8870;
498.0000;1.3635;1.8971;
498.3000;1.3626;1.9022;
498.6000;1.3626;1.9022;
498.9000;1.3651;1.9073;
499.2000;1.3602;1.8921;
499.5000;1.3635;1.9149;
499.8000;1.3643;1.9149;
500.1000;1.3724;1.9377;
500.4000;1.3635;1.9124;
500.7000;1.3602;1.8971;
501.0000;1.3635;1.9124;
501.3000;1.3659;1.9149;
501.6000;1.3651;1.9200;
501.9000;1.3618;1.9174;
502.2000;1.3626;1.9200;
502.5000;1.3618;1.9124;
502.8000;1.3618;1.9149;
503.1000;1.3635;1.9200;
503.4000;1.3618;1.9174;
503.7000;1.3626;1.9073;
504.0000;1.3635;1.9174;
504.3000;1.3635;1.9048;
504.6000;1.3635;1.8997;
504.9000;1.3626;1.8997;
505.2000;1.3659;1.9098;
505.5000;1.3626;1.9124;
505.8000;1.3626;1.9174;
506.1000;1.3683;1.9200;
506.4000;1.3610;1.8946;
506.7000;1.3618;1.8895;
507.0000;1.3618;1.8921;
507.3000;1.3618;1.9022;
507.6000;1.3602;1.9048;
507.9000;1.3643;1.9200;
508.2000;1.3553;1.9048;
508.5000;1.3626;1.9352;
508.8000;1.3618;1.9377;
509.1000;1.3610;1.9403;
509.4000;1.3618;1.9377;
509.7000;1.3618;1.9276;
510.0000;1.3610;1.9174;
510.3000;1.3618;1.9200;
510.6000;1.3635;1.9225;
510.9000;1.3626;1.9276;
511.2000;1.3610;1.9200;
511.5000;1.3618;1.9250;
511.8000;1.3618;1.9301;
512.1000;1.3602;1.9276;
512.4000;1.3626;1.9352;
512.7000;1.3610;1.9250;
513.0000;1.3618;1.9276;
513.3000;1.3626;1.9250;
513.6000;1.3610;1.9225;
513.9000;1.3643;1.9225;
514.2000;1.3659;1.9301;
514.5000;1.3626;1.9276;
514.8000;1.3618;1.9200;
515.1000;1.3626;1.9276;
515.4000;1.3635;1.9403;
515.7000;1.3610;1.9327;
516.0000;1.3618;1.9250;
516.3000;1.3626;1.9250;
516.6000;1.3529;1.9048;
516.9000;1.3643;1.9403;
517.2000;1.3635;1.9403;
517.5000;1.3618;1.9352;
517.8000;1.3643;1.9301;
518.1000;1.3618;1.9174;
518.4000;1.3586;1.8997;
518.7000;1.3618;1.9022;
519.0000;1.3618;1.9073;
519.3000;1.3635;1.9073;
519.6000;1.3626;1.9048;
519.9000;1.3626;1.9073;
520.2000;1.3618;1.9174;
520.5000;1.3618;1.9200;
520.8000;1.3643;1.9250;
521.1000;1.3626;1.9301;
521.4000;1.3618;1.9174;
521.7000;1.3610;1.9149;
522.0000;1.3626;1.9200;
522.3000;1.3618;1.9250;
522.6000;1.3610;1.9276;
522.9000;1.3626;1.9225;
523.2000;1.3602;1.9098;
523.5000;1.3578;1.8971;
523.8000;1.3610;1.8997;
524.1000;1.3602;1.8895;
524.4000;1.3643;1.9048;
524.7000;1.3626;1.9073;
525.0000;1.3618;1.9048;
525.3000;1.3586;1.8921;
525.6000;1.3732;1.9276;
525.9000;1.3635;1.9048;
526.2000;1.3643;1.9098;
526.5000;1.3626;1.8997;
526.8000;1.3569;1.8794;
527.1000;1.3602;1.8895;
527.4000;1.3618;1.8946;
527.7000;1.3586;1.8895;
528.0000;1.3545;1.8819;
528.3000;1.3618;1.8997;
528.6000;1.3618;1.9048;
528.9000;1.3610;1.8946;
529.2000;1.3626;1.8921;
529.5000;1.3626;1.8997;
529.8000;1.3618;1.8921;
530.1000;1.3618;1.9022;
530.4000;1.3618;1.9048;
530.7000;1.3626;1.9022;
531.0000;1.3635;1.9124;
531.3000;1.3626;1.9174;
531.6000;1.3602;1.9174;
531.9000;1.3618;1.9149;
532.2000;1.3635;1.9250;
532.5000;1.3602;1.9200;
532.8000;1.3594;1.9200;
533.1000;1.3594;1.9174;
533.4000;1.3618;1.9200;
533.7000;1.3586;1.9149;
534.0000;1.3643;1.9200;
534.3000;1.3610;1.9098;
534.6000;1.3594;1.9073;
534.9000;1.3618;1.9124;
535.2000;1.3626;1.9174;
535.5000;1.3602;1.9073;
535.8000;1.3610;1.9149;
536.1000;1.3594;1.9200;
536.4000;1.3610;1.9276;
536.7000;1.3610;1.9276;
537.0000;1.3610;1.9225;
537.3000;1.3618;1.9124;
537.6000;1.3610;1.9048;
537.9000;1.3610;1.9022;
538.2000;1.3602;1.8971;
538.5000;1.3626;1.8971;
538.8000;1.3635;1.9149;
539.1000;1.3651;1.9250;
539.4000;1.3667;1.9352;
539.7000;1.3626;1.9200;
540.0000;1.3635;1.9200;
540.3000;1.3659;1.9250;
540.6000;1.3610;1.9149;
540.9000;1.3545;1.9073;
541.2000;1.3618;1.9276;
541.5000;1.3618;1.9301;
541.8000;1.3610;1.9200;
542.1000;1.3602;1.9174;
542.4000;1.3586;1.9174;
542.7000;1.3602;1.9225;
543.0000;1.3553;1.9124;
543.3000;1.3569;1.9098;
543.6000;1.3618;1.9200;
543.9000;1.3610;1.9098;
544.2000;1.3594;1.9124;
544.5000;1.3602;1.9124;
544.8000;1.3610;1.9124;
545.1000;1.3651;1.9174;
545.4000;1.3610;1.9149;
545.7000;1.3602;1.9048;
546.0000;1.3618;1.9098;
546.3000;1.3561;1.8971;
546.6000;1.3618;1.9124;
546.9000;1.3626;1.9149;
547.2000;1.3602;1.9149;
547.5000;1.3602;1.9225;
547.8000;1.3610;1.9276;
548.1000;1.3504;1.9022;
548.4000;1.3586;1.9250;
548.7000;1.3635;1.9352;
549.0000;1.3602;1.9301;
549.3000;1.3569;1.9174;
549.6000;1.3610;1.9200;
549.9000;1.3635;1.9225;
550.2000;1.3610;1.9276;
550.5000;1.3610;1.9301;
550.8000;1.3553;1.9225;
551.1000;1.3594;1.9301;
551.4000;1.3610;1.9327;
551.7000;1.3553;1.9225;
552.0000;1.3586;1.9327;
552.3000;1.3610;1.9352;
552.6000;1.3586;1.9352;
552.9000;1.3610;1.9352;
553.2000;1.3610;1.9327;
553.5000;1.3618;1.9352;
553.8000;1.3602;1.9276;
554.1000;1.3594;1.9250;
554.4000;1.3586;1.9200;
554.7000;1.3578;1.9124;
555.0000;1.3602;1.9200;
555.3000;1.3594;1.9174;
555.6000;1.3594;1.9200;
555.9000;1.3602;1.9225;
556.2000;1.3594;1.9225;
556.5000;1.3602;1.9225;
556.8000;1.3602;1.9225;
557.1000;1.3545;1.9073;
557.4000;1.3594;1.9276;
557.7000;1.3610;1.9200;
558.0000;1.3594;1.9200;
558.3000;1.3594;1.9225;
558.6000;1.3586;1.9174;
558.9000;1.3602;1.9225;
559.2000;1.3675;1.9403;
559.5000;1.3610;1.9225;
559.8000;1.3618;1.9174;
560.1000;1.3610;1.9149;
560.4000;1.3610;1.9149;
560.7000;1.3610;1.9149;
561.0000;1.3602;1.9200;
561.3000;1.3594;1.9200;
561.6000;1.3578;1.9149;
561.9000;1.3594;1.9225;
562.2000;1.3602;1.9276;
562.5000;1.3561;1.9098;
562.8000;1.3586;1.9225;
563.1000;1.3602;1.9225;
563.4000;1.3586;1.9225;
563.7000;1.3700;1.9479;
564.0000;1.3610;1.9276;
564.3000;1.3626;1.9250;
564.6000;1.3586;1.9200;
564.9000;1.3618;1.9124;
565.2000;1.3716;1.9377;
565.5000;1.3602;1.9124;
565.8000;1.3561;1.9098;
566.1000;1.3586;1.9124;
566.4000;1.3683;1.9428;
566.7000;1.3610;1.9301;
567.0000;1.3610;1.9327;
567.3000;1.3561;1.9225;
567.6000;1.3618;1.9403;
567.9000;1.3602;1.9250;
568.2000;1.3667;1.9377;
568.5000;1.3602;1.9301;
568.8000;1.3602;1.9225;
569.1000;1.3610;1.9174;
569.4000;1.3618;1.9225;
569.7000;1.3602;1.9200;
570.0000;1.3618;1.9174;
570.3000;1.3496;1.8895;
570.6000;1.3602;1.9225;
570.9000;1.3610;1.9225;
571.2000;1.3618;1.9276;
571.5000;1.3626;1.9276;
571.8000;1.3586;1.9174;
572.1000;1.3569;1.9124;
572.4000;1.3594;1.9149;
572.7000;1.3586;1.9124;
573.0000;1.3610;1.9174;
573.3000;1.3561;1.9174;
573.6000;1.3569;1.9200;
573.9000;1.3578;1.9225;
574.2000;1.3626;1.9250;
574.5000;1.3602;1.9250;
574.8000;1.3594;1.9225;
575.1000;1.3578;1.9200;
575.4000;1.3586;1.9200;
575.7000;1.3602;1.9200;
576.0000;1.3578;1.9149;
576.3000;1.3594;1.9098;
576.6000;1.3594;1.9073;
576.9000;1.3602;1.9073;
577.2000;1.3586;1.9073;
577.5000;1.3586;1.9200;
577.8000;1.3610;1.9301;
578.1000;1.3610;1.9276;
578.4000;1.3594;1.9200;
578.7000;1.3610;1.9250;
579.0000;1.3602;1.9200;
579.3000;1.3602;1.9174;
579.6000;1.3602;1.9174;
579.9000;1.3594;1.9200;
580.2000;1.3602;1.9250;
580.5000;1.3602;1.9174;
580.8000;1.3602;1.9352;
581.1000;1.3586;1.9352;
581.4000;1.3553;1.9276;
581.7000;1.3610;1.9403;
582.0000;1.3610;1.9377;
582.3000;1.3659;1.9504;
582.6000;1.3553;1.9327;
582.9000;1.3578;1.9428;
583.2000;1.3578;1.9403;
583.5000;1.3553;1.9301;
583.8000;1.3578;1.9327;
584.1000;1.3594;1.9352;
584.4000;1.3521;1.9174;
584.7000;1.3586;1.9428;
585.0000;1.3578;1.9327;
585.3000;1.3594;1.9428;
585.6000;1.3529;1.9225;
585.9000;1.3602;1.9403;
586.2000;1.3618;1.9327;
586.5000;1.3675;1.9580;
586.8000;1.3561;1.9327;
587.1000;1.3610;1.9403;
587.4000;1.3635;1.9403;
587.7000;1.3561;1.9301;
588.0000;1.3610;1.9403;
588.3000;1.3594;1.9327;
588.6000;1.3716;1.9682;
588.9000;1.3651;1.9580;
589.2000;1.3586;1.9428;
589.5000;1.3594;1.9403;
589.8000;1.3521;1.9225;
590.1000;1.3586;1.9377;
590.4000;1.3618;1.9453;
590.7000;1.3578;1.9504;
591.0000;1.3594;1.9529;
591.3000;1.3594;1.9479;
591.6000;1.3594;1.9403;
591.9000;1.3610;1.9428;
592.2000;1.3594;1.9403;
592.5000;1.3578;1.9352;
592.8000;1.3594;1.9352;
593.1000;1.3586;1.9377;
593.4000;1.3594;1.9403;
593.7000;1.3594;1.9403;
594.0000;1.3594;1.9377;
594.3000;1.3569;1.9403;
594.6000;1.3594;1.9453;
594.9000;1.3602;1.9403;
595.2000;1.3626;1.9428;
595.5000;1.3610;1.9352;
595.8000;1.3602;1.9403;
596.1000;1.3586;1.9301;
596.4000;1.3602;1.9200;
596.7000;1.3602;1.9149;
597.0000;1.3610;1.9149;
597.3000;1.3594;1.9149;
597.6000;1.3578;1.9124;
597.9000;1.3578;1.9200;
598.2000;1.3561;1.9149;
598.5000;1.3602;1.9124;
598.8000;1.3578;1.9073;
599.1000;1.3578;1.9149;
599.4000;1.3586;1.9250;
599.7000;1.3610;1.9327;
600.0000;1.3594;1.9276;
600.3000;1.3618;1.9200;
600.6000;1.3561;1.8895;
600.9000;1.3488;1.8667;
601.2000;1.3382;1.8388;
601.5000;1.3236;1.8109;
601.8000;1.3089;1.7779;
602.1000;1.2951;1.7475;
602.4000;1.2821;1.7272;
602.7000;1.2666;1.6942;
603.0000;1.2536;1.6740;
603.3000;1.2405;1.6663;
603.6000;1.2283;1.6410;
603.9000;1.2194;1.6207;
604.2000;1.2063;1.5979;
604.5000;1.1941;1.5725;
604.8000;1.1860;1.5776;
605.1000;1.1762;1.5700;
605.4000;1.1656;1.5573;
605.7000;1.1583;1.5471;
606.0000;1.1518;1.5471;
606.3000;1.1453;1.5497;
606.6000;1.1323;1.5243;
606.9000;1.1258;1.5167;
607.2000;1.1152;1.5015;
607.5000;1.1119;1.4913;
607.8000;1.1046;1.4685;
608.1000;1.1030;1.4761;
608.4000;1.0851;1.4432;
608.7000;1.0851;1.4432;
609.0000;1.0777;1.4254;
609.3000;1.0696;1.4178;
609.6000;1.0696;1.4203;
609.9000;1.0566;1.3899;
610.2000;1.0517;1.3899;
610.5000;1.0427;1.3924;
610.8000;1.0403;1.3975;
611.1000;1.0346;1.3874;
611.4000;1.0313;1.3874;
611.7000;1.0305;1.4051;
612.0000;1.0191;1.3797;
612.3000;1.0151;1.3772;
612.6000;1.0069;1.3696;
612.9000;1.0004;1.3620;
613.2000;1.0037;1.3721;
613.5000;0.9963;1.3518;
613.8000;0.9890;1.3341;
614.1000;0.9858;1.3316;
614.4000;0.9792;1.3290;
614.7000;0.9744;1.3265;
615.0000;0.9776;1.3442;
615.3000;0.9662;1.3214;
615.6000;0.9605;1.3189;
615.9000;0.9581;1.3214;
616.2000;0.9548;1.3239;
616.5000;0.9508;1.3163;
616.8000;0.9475;1.3214;
617.1000;0.9426;1.3366;
617.4000;0.9377;1.3290;
617.7000;0.9337;1.3214;
618.0000;0.9304;1.3189;
618.3000;0.9263;1.3163;
618.6000;0.9247;1.3265;
618.9000;0.9190;1.3265;
619.2000;0.9166;1.3239;
619.5000;0.9133;1.3239;
619.8000;0.9101;1.3037;
620.1000;0.9068;1.3037;
620.4000;0.9035;1.3062;
620.7000;0.9117;1.3290;
621.0000;0.9011;1.3011;
621.3000;0.8962;1.2935;
621.6000;0.8930;1.2910;
621.9000;0.8905;1.2910;
622.2000;0.8873;1.2834;
622.5000;0.8856;1.2910;
622.8000;0.8824;1.2859;
623.1000;0.8791;1.2808;
623.4000;0.8767;1.2783;
623.7000;0.8734;1.2732;
624.0000;0.8718;1.2859;
624.3000;0.8677;1.2834;
624.6000;0.8661;1.2834;
624.9000;0.8653;1.2859;
625.2000;0.8612;1.2808;
625.5000;0.8571;1.2732;
625.8000;0.8563;1.2656;
626.1000;0.8555;1.2681;
626.4000;0.8531;1.2758;
626.7000;0.8506;1.2732;
627.0000;0.8425;1.2605;
627.3000;0.8482;1.2758;
627.6000;0.8433;1.2758;
627.9000;0.8409;1.2808;
628.2000;0.8400;1.2859;
628.5000;0.8360;1.2783;
628.8000;0.8360;1.2910;
629.1000;0.8335;1.2884;
629.4000;0.8319;1.2884;
629.7000;0.8278;1.2707;
630.0000;0.8262;1.2732;
630.3000;0.8262;1.2808;
630.6000;0.8238;1.2834;
630.9000;0.8205;1.2859;
631.2000;0.8213;1.2808;
631.5000;0.8197;1.2732;
631.8000;0.8181;1.2732;
632.1000;0.8164;1.2732;
632.4000;0.8124;1.2681;
632.7000;0.8140;1.2707;
633.0000;0.8107;1.2605;
633.3000;0.8091;1.2681;
633.6000;0.8083;1.2758;
633.9000;0.8091;1.2808;
634.2000;0.8067;1.2783;
634.5000;0.8010;1.2732;
634.8000;0.8042;1.2758;
635.1000;0.7993;1.2732;
635.4000;0.7993;1.2808;
635.7000;0.7977;1.2808;
636.0000;0.7977;1.2834;
636.3000;0.7977;1.2808;
636.6000;0.7953;1.2808;
636.9000;0.7953;1.2783;
637.2000;0.7896;1.2656;
637.5000;0.7912;1.2681;
637.8000;0.7904;1.2605;
638.1000;0.7888;1.2605;
638.4000;0.7855;1.2605;
638.7000;0.7855;1.2656;
639.0000;0.7839;1.2707;
639.3000;0.7823;1.2758;
639.6000;0.7823;1.2910;
639.9000;0.7806;1.2834;
640.2000;0.7790;1.2884;
640.5000;0.7790;1.2884;
640.8000;0.7660;1.2555;
641.1000;0.7741;1.2783;
641.4000;0.7766;1.2808;
641.7000;0.7733;1.2707;
642.0000;0.7725;1.2681;
642.3000;0.7709;1.2479;
642.6000;0.7709;1.2479;
642.9000;0.7700;1.2504;
643.2000;0.7676;1.2402;
643.5000;0.7660;1.2453;
643.8000;0.7643;1.2479;
644.1000;0.7652;1.2580;
644.4000;0.7652;1.2605;
644.7000;0.7619;1.2555;
645.0000;0.7635;1.2707;
645.3000;0.7611;1.2681;
645.6000;0.7611;1.2681;
645.9000;0.7578;1.2681;
646.2000;0.7595;1.2707;
646.5000;0.7578;1.2580;
646.8000;0.7578;1.2605;
647.1000;0.7570;1.2555;
647.4000;0.7554;1.2529;
647.7000;0.7538;1.2529;
648.0000;0.7521;1.2555;
648.3000;0.7521;1.2631;
648.6000;0.7578;1.2960;
648.9000;0.7505;1.2758;
649.2000;0.7497;1.2859;
649.5000;0.7497;1.2834;
649.8000;0.7473;1.2707;
650.1000;0.7464;1.2681;
650.4000;0.7464;1.2681;
650.7000;0.7481;1.2758;
651.0000;0.7448;1.2732;
651.3000;0.7432;1.2758;
651.6000;0.7448;1.2859;
651.9000;0.7473;1.2834;
652.2000;0.7407;1.2605;
652.5000;0.7424;1.2580;
652.8000;0.7350;1.2377;
653.1000;0.7342;1.2479;
653.4000;0.7391;1.2681;
653.7000;0.7383;1.2631;
654.0000;0.7383;1.2605;
654.3000;0.7318;1.2479;
654.6000;0.7359;1.2555;
654.9000;0.7350;1.2479;
655.2000;0.7342;1.2453;
655.5000;0.7350;1.2504;
655.8000;0.7342;1.2529;
656.1000;0.7293;1.2428;
656.4000;0.7326;1.2504;
656.7000;0.7302;1.2479;
657.0000;0.7310;1.2453;
657.3000;0.7342;1.2529;
657.6000;0.7269;1.2326;
657.9000;0.7302;1.2377;
658.2000;0.7293;1.2377;
658.5000;0.7253;1.2377;
658.8000;0.7302;1.2529;
659.1000;0.7269;1.2529;
659.4000;0.7334;1.2707;
659.7000;0.7245;1.2605;
660.0000;0.7253;1.2580;
660.3000;0.7285;1.2555;
660.6000;0.7228;1.2453;
660.9000;0.7236;1.2479;
661.2000;0.7220;1.2428;
661.5000;0.7228;1.2453;
661.8000;0.7212;1.2402;
662.1000;0.7228;1.2504;
662.4000;0.7196;1.2453;
662.7000;0.7179;1.2504;
663.0000;0.7204;1.2580;
663.3000;0.7188;1.2504;
663.6000;0.7188;1.2453;
663.9000;0.7228;1.2529;
664.2000;0.7179;1.2580;
664.5000;0.7171;1.2479;
664.8000;0.7171;1.2504;
665.1000;0.7147;1.2428;
665.4000;0.7171;1.2453;
665.7000;0.7147;1.2402;
666.0000;0.7155;1.2377;
666.3000;0.7139;1.2352;
666.6000;0.7139;1.2377;
666.9000;0.7114;1.2377;
667.2000;0.7123;1.2428;
667.5000;0.7123;1.2377;
667.8000;0.7131;1.2326;
668.1000;0.7131;1.2402;
668.4000;0.7123;1.2453;
668.7000;0.7114;1.2377;
669.0000;0.7090;1.2377;
669.3000;0.7090;1.2301;
669.6000;0.7082;1.2225;
669.9000;0.7123;1.2377;
670.2000;0.7082;1.2276;
670.5000;0.7066;1.2301;
670.8000;0.7074;1.2225;
671.1000;0.7057;1.2225;
671.4000;0.7066;1.2301;
671.7000;0.7066;1.2276;
672.0000;0.7066;1.2250;
672.3000;0.7066;1.2250;
672.6000;0.7131;1.2504;
672.9000;0.7033;1.2326;
673.2000;0.7049;1.2402;
673.5000;0.7049;1.2402;
673.8000;0.7017;1.2377;
674.1000;0.7025;1.2428;
674.4000;0.7009;1.2428;
674.7000;0.7025;1.2504;
675.0000;0.7000;1.2504;
675.3000;0.6992;1.2453;
675.6000;0.7017;1.2453;
675.9000;0.7000;1.2402;
676.2000;0.7009;1.2428;
676.5000;0.7000;1.2326;
676.8000;0.6992;1.2377;
677.1000;0.6968;1.2428;
677.4000;0.6984;1.2428;
677.7000;0.6960;1.2225;
678.0000;0.7082;1.2580;
678.3000;0.6968;1.2225;
678.6000;0.7000;1.2352;
678.9000;0.6976;1.2301;
679.2000;0.6927;1.2225;
679.5000;0.6992;1.2352;
679.8000;0.6943;1.2174;
680.1000;0.6943;1.2174;
680.4000;0.6919;1.2174;
680.7000;0.6935;1.2250;
681.0000;0.6903;1.2149;
681.3000;0.7041;1.2555;
681.6000;0.6919;1.2301;
681.9000;0.6935;1.2326;
682.2000;0.6919;1.2377;
682.5000;0.6927;1.2428;
682.8000;0.6919;1.2428;
683.1000;0.6903;1.2352;
683.4000;0.6911;1.2377;
683.7000;0.6903;1.2402;
684.0000;0.6919;1.2504;
684.3000;0.6911;1.2453;
684.6000;0.6911;1.2453;
684.9000;0.6878;1.2453;
685.2000;0.6870;1.2453;
685.5000;0.6911;1.2529;
685.8000;0.6846;1.2402;
686.1000;0.6895;1.2529;
686.4000;0.6886;1.2580;
686.7000;0.6862;1.2453;
687.0000;0.6878;1.2428;
687.3000;0.6862;1.2453;
687.6000;0.6854;1.2453;
687.9000;0.6862;1.2504;
688.2000;0.6854;1.2504;
688.5000;0.6854;1.2479;
688.8000;0.6846;1.2428;
689.1000;0.6854;1.2326;
689.4000;0.6854;1.2326;
689.7000;0.6829;1.2326;
690.0000;0.6829;1.2326;
690.3000;0.6854;1.2352;
690.6000;0.6821;1.2301;
690.9000;0.6838;1.2250;
691.2000;0.6854;1.2326;
691.5000;0.6838;1.2326;
691.8000;0.6838;1.2428;
692.1000;0.6821;1.2428;
692.4000;0.6813;1.2352;
692.7000;0.6862;1.2453;
693.0000;0.6813;1.2377;
693.3000;0.6789;1.2377;
693.6000;0.6797;1.2352;
693.9000;0.6813;1.2479;
694.2000;0.6748;1.2326;
694.5000;0.6813;1.2504;
694.8000;0.6829;1.2479;
695.1000;0.6789;1.2377;
695.4000;0.6789;1.2377;
695.7000;0.6772;1.2402;
696.0000;0.6797;1.2504;
696.3000;0.6789;1.2555;
696.6000;0.6781;1.2555;
696.9000;0.6756;1.2504;
697.2000;0.6781;1.2580;
697.5000;0.6789;1.2555;
697.8000;0.6772;1.2453;
698.1000;0.6829;1.2707;
698.4000;0.6772;1.2580;
698.7000;0.6732;1.2428;
699.0000;0.6789;1.2555;
699.3000;0.6756;1.2479;
699.6000;0.6764;1.2504;
699.9000;0.6748;1.2453;
700.2000;0.6740;1.2453;
700.5000;0.6740;1.2453;
700.8000;0.6732;1.2352;
701.1000;0.6756;1.2326;
701.4000;0.6756;1.2352;
701.7000;0.6748;1.2377;
702.0000;0.6781;1.2529;
702.3000;0.6707;1.2352;
702.6000;0.6789;1.2453;
702.9000;0.6740;1.2402;
703.2000;0.6691;1.2301;
703.5000;0.6707;1.2301;
703.8000;0.6724;1.2250;
704.1000;0.6724;1.2276;
704.4000;0.6716;1.2276;
704.7000;0.6707;1.2326;
705.0000;0.6740;1.2352;
705.3000;0.6724;1.2352;
705.6000;0.6797;1.2555;
705.9000;0.6732;1.2479;
706.2000;0.6707;1.2402;
706.5000;0.6781;1.2555;
706.8000;0.6707;1.2428;
707.1000;0.6724;1.2504;
707.4000;0.6716;1.2555;
707.7000;0.6699;1.2504;
708.0000;0.6716;1.2504;
708.3000;0.6683;1.2402;
708.6000;0.6650;1.2326;
708.9000;0.6667;1.2453;
709.2000;0.6683;1.2479;
709.5000;0.6667;1.2402;
709.8000;0.6683;1.2453;
710.1000;0.6675;1.2555;
710.4000;0.6675;1.2605;
710.7000;0.6667;1.2529;
711.0000;0.6667;1.2529;
711.3000;0.6561;1.2402;
711.6000;0.6691;1.2707;
711.9000;0.6650;1.2656;
712.2000;0.6667;1.2529;
712.5000;0.6675;1.2555;
712.8000;0.6675;1.2504;
713.1000;0.6675;1.2479;
713.4000;0.6634;1.2428;
713.7000;0.6626;1.2453;
714.0000;0.6642;1.2479;
714.3000;0.6642;1.2504;
714.6000;0.6634;1.2479;
714.9000;0.6626;1.2428;
715.2000;0.6650;1.2453;
715.5000;0.6626;1.2453;
715.8000;0.6626;1.2428;
716.1000;0.6650;1.2428;
716.4000;0.6675;1.2555;
716.7000;0.6642;1.2428;
717.0000;0.6650;1.2479;
717.3000;0.6634;1.2428;
717.6000;0.6626;1.2428;
717.9000;0.6626;1.2504;
718.2000;0.6585;1.2250;
718.5000;0.6626;1.2402;
718.8000;0.6618;1.2453;
719.1000;0.6504;1.2073;
719.4000;0.6618;1.2402;
719.7000;0.6602;1.2428;
720.0000;0.6577;1.2301;
720.3000;0.6610;1.2250;
720.6000;0.6577;1.2200;
720.9000;0.6585;1.2225;
721.2000;0.6593;1.2352;
721.5000;0.6593;1.2428;
721.8000;0.6602;1.2377;
722.1000;0.6610;1.2402;
722.4000;0.6585;1.2377;
722.7000;0.6585;1.2352;
723.0000;0.6593;1.2326;
723.3000;0.6585;1.2301;
723.6000;0.6569;1.2225;
723.9000;0.6585;1.2225;
724.2000;0.6585;1.2200;
724.5000;0.6569;1.2174;
724.8000;0.6577;1.2149;
725.1000;0.6553;1.2149;
725.4000;0.6593;1.2276;
725.7000;0.6585;1.2276;
726.0000;0.6504;1.2123;
726.3000;0.6545;1.2250;
726.6000;0.6585;1.2326;
726.9000;0.6536;1.2098;
727.2000;0.6569;1.2123;
727.5000;0.6528;1.1971;
727.8000;0.6593;1.2073;
728.1000;0.6675;1.2301;
728.4000;0.6626;1.2200;
728.7000;0.6561;1.2047;
729.0000;0.6536;1.1997;
729.3000;0.6528;1.1870;
729.6000;0.6512;1.1794;
729.9000;0.6553;1.1946;
730.2000;0.6561;1.1946;
730.5000;0.6561;1.1895;
730.8000;0.6561;1.1921;
731.1000;0.6569;1.1971;
731.4000;0.6536;1.2047;
731.7000;0.6536;1.1946;
732.0000;0.6561;1.1921;
732.3000;0.6577;1.1870;
732.6000;0.6553;1.1946;
732.9000;0.6593;1.2073;
733.2000;0.6545;1.1997;
733.5000;0.6536;1.2098;
733.8000;0.6528;1.2098;
734.1000;0.6520;1.2073;
734.4000;0.6520;1.2022;
734.7000;0.6520;1.2073;
735.0000;0.6488;1.1921;
735.3000;0.6561;1.2098;
735.6000;0.6520;1.2022;
735.9000;0.6520;1.1946;
736.2000;0.6512;1.1845;
736.5000;0.6496;1.1743;
736.8000;0.6528;1.1870;
737.1000;0.6536;1.1946;
737.4000;0.6520;1.1971;
737.7000;0.6512;1.1997;
738.0000;0.6406;1.1794;
738.3000;0.6512;1.2200;
738.6000;0.6520;1.2326;
738.9000;0.6504;1.2225;
739.2000;0.6496;1.2174;
739.5000;0.6488;1.2174;
739.8000;0.6504;1.2250;
740.1000;0.6504;1.2301;
740.4000;0.6520;1.2326;
740.7000;0.6520;1.2326;
741.0000;0.6520;1.2250;
741.3000;0.6488;1.2174;
741.6000;0.6496;1.2123;
741.9000;0.6488;1.2149;
742.2000;0.6512;1.2225;
742.5000;0.6504;1.2123;
742.8000;0.6528;1.2149;
743.1000;0.6414;1.1870;
743.4000;0.6520;1.2149;
743.7000;0.6504;1.2174;
744.0000;0.6479;1.2123;
744.3000;0.6496;1.2047;
744.6000;0.6545;1.2073;
744.9000;0.6479;1.1971;
745.2000;0.6463;1.1946;
745.5000;0.6471;1.1921;
745.8000;0.6463;1.1921;
746.1000;0.6479;1.1971;
746.4000;0.6463;1.1946;
746.7000;0.6471;1.1946;
747.0000;0.6479;1.1997;
747.3000;0.6488;1.1997;
747.6000;0.6479;1.1997;
747.9000;0.6463;1.1971;
748.2000;0.6463;1.2073;
748.5000;0.6463;1.1971;
748.8000;0.6455;1.1997;
749.1000;0.6455;1.2174;
749.4000;0.6447;1.2174;
749.7000;0.6455;1.2250;
750.0000;0.6463;1.2250;
750.3000;0.6431;1.2250;
750.6000;0.6455;1.2377;
750.9000;0.6471;1.2352;
751.2000;0.6455;1.2301;
751.5000;0.6479;1.2326;
751.8000;0.6455;1.2200;
752.1000;0.6471;1.2200;
752.4000;0.6463;1.2200;
752.7000;0.6447;1.2149;
753.0000;0.6439;1.2123;
753.3000;0.6463;1.2200;
753.6000;0.6447;1.2174;
753.9000;0.6439;1.2174;
754.2000;0.6439;1.2149;
754.5000;0.6471;1.2250;
754.8000;0.6447;1.2174;
755.1000;0.6447;1.2047;
755.4000;0.6488;1.2098;
755.7000;0.6455;1.2123;
756.0000;0.6455;1.2098;
756.3000;0.6528;1.2250;
756.6000;0.6439;1.2073;
756.9000;0.6431;1.2022;
757.2000;0.6463;1.2149;
757.5000;0.6447;1.2326;
757.8000;0.6439;1.2301;
758.1000;0.6447;1.2276;
758.4000;0.6455;1.2301;
758.7000;0.6414;1.2149;
759.0000;0.6439;1.2098;
759.3000;0.6496;1.2225;
759.6000;0.6431;1.2123;
759.9000;0.6439;1.2123;
760.2000;0.6431;1.2123;
760.5000;0.6422;1.2200;
760.8000;0.6422;1.2225;
761.1000;0.6414;1.2276;
761.4000;0.6536;1.2555;
761.7000;0.6414;1.2200;
762.0000;0.6422;1.2200;
762.3000;0.6414;1.2225;
762.6000;0.6439;1.2301;
762.9000;0.6463;1.2352;
763.2000;0.6414;1.2225;
763.5000;0.6431;1.2276;
763.8000;0.6422;1.2250;
764.1000;0.6390;1.2174;
764.4000;0.6398;1.2174;
764.7000;0.6390;1.2149;
765.0000;0.6439;1.2174;
765.3000;0.6406;1.2123;
765.6000;0.6414;1.1946;
765.9000;0.6406;1.1921;
766.2000;0.6414;1.1946;
766.5000;0.6414;1.1971;
766.8000;0.6406;1.2022;
767.1000;0.6382;1.2022;
767.4000;0.6398;1.2149;
767.7000;0.6422;1.2200;
768.0000;0.6398;1.2250;
768.3000;0.6398;1.2326;
768.6000;0.6422;1.2352;
768.9000;0.6414;1.2352;
769.2000;0.6398;1.2453;
769.5000;0.6398;1.2555;
769.8000;0.6382;1.2428;
770.1000;0.6390;1.2428;
770.4000;0.6447;1.2580;
770.7000;0.6382;1.2479;
771.0000;0.6349;1.2352;
771.3000;0.6406;1.2504;
771.6000;0.6390;1.2428;
771.9000;0.6398;1.2402;
772.2000;0.6414;1.2352;
772.5000;0.6390;1.2352;
772.8000;0.6431;1.2529;
773.1000;0.6341;1.2301;
773.4000;0.6357;1.2377;
773.7000;0.6374;1.2402;
774.0000;0.6365;1.2377;
774.3000;0.6317;1.2250;
774.6000;0.6374;1.2377;
774.9000;0.6390;1.2402;
775.2000;0.6268;1.2123;
775.5000;0.6374;1.2377;
775.8000;0.6349;1.2377;
776.1000;0.6390;1.2402;
776.4000;0.6365;1.2428;
776.7000;0.6325;1.2301;
777.0000;0.6292;1.2276;
777.3000;0.6349;1.2504;
777.6000;0.6365;1.2555;
777.9000;0.6357;1.2504;
778.2000;0.6333;1.2504;
778.5000;0.6325;1.2504;
778.8000;0.6365;1.2504;
779.1000;0.6349;1.2326;
779.4000;0.6390;1.2377;
779.7000;0.6365;1.2352;
780.0000;0.6357;1.2326;
780.3000;0.6374;1.2301;
780.6000;0.6341;1.2301;
780.9000;0.6357;1.2301;
781.2000;0.6357;1.2301;
781.5000;0.6349;1.2276;
781.8000;0.6374;1.2377;
782.1000;0.6357;1.2301;
782.4000;0.6341;1.2250;
782.7000;0.6357;1.2377;
783.0000;0.6357;1.2453;
783.3000;0.6349;1.2504;
783.6000;0.6341;1.2479;
783.9000;0.6374;1.2529;
784.2000;0.6341;1.2428;
784.5000;0.6357;1.2377;
784.8000;0.6439;1.2580;
785.1000;0.6349;1.2326;
785.4000;0.6341;1.2250;
785.7000;0.6317;1.2250;
786.0000;0.6341;1.2301;
786.3000;0.6357;1.2377;
786.6000;0.6325;1.2301;
786.9000;0.6349;1.2326;
787.2000;0.6349;1.2377;
787.5000;0.6333;1.2428;
787.8000;0.6349;1.2529;
788.1000;0.6357;1.2529;
788.4000;0.6325;1.2479;
788.7000;0.6317;1.2479;
789.0000;0.6333;1.2504;
789.3000;0.6333;1.2529;
789.6000;0.6341;1.2555;
789.9000;0.6341;1.2555;
790.2000;0.6317;1.2453;
790.5000;0.6317;1.2529;
790.8000;0.6333;1.2479;
791.1000;0.6333;1.2428;
791.4000;0.6341;1.2479;
791.7000;0.6227;1.2200;
792.0000;0.6333;1.2479;
792.3000;0.6300;1.2428;
792.6000;0.6317;1.2529;
792.9000;0.6349;1.2656;
793.2000;0.6341;1.2631;
793.5000;0.6252;1.2428;
793.8000;0.6309;1.2555;
794.1000;0.6382;1.2758;
794.4000;0.6333;1.2631;
794.7000;0.6357;1.2656;
795.0000;0.6398;1.2834;
795.3000;0.6349;1.2605;
795.6000;0.6292;1.2402;
795.9000;0.6309;1.2428;
796.2000;0.6260;1.2402;
796.5000;0.6325;1.2529;
796.8000;0.6300;1.2402;
797.1000;0.6268;1.2402;
797.4000;0.6333;1.2504;
797.7000;0.6317;1.2479;
798.0000;0.6235;1.2377;
798.3000;0.6309;1.2428;
798.6000;0.6309;1.2402;
798.9000;0.6333;1.2504;
799.2000;0.6284;1.2377;
799.5000;0.6276;1.2377;
799.8000;0.6357;1.2580;
800.1000;0.6300;1.2326;
800.4000;0.6292;1.2326;
800.7000;0.6292;1.2377;
801.0000;0.6309;1.2428;
801.3000;0.6284;1.2453;
801.6000;0.6317;1.2479;
801.9000;0.6309;1.2479;
802.2000;0.6317;1.2453;
802.5000;0.6300;1.2428;
802.8000;0.6292;1.2402;
803.1000;0.6300;1.2453;
803.4000;0.6268;1.2377;
803.7000;0.6309;1.2529;
804.0000;0.6284;1.2453;
804.3000;0.6317;1.2479;
804.6000;0.6276;1.2377;
804.9000;0.6284;1.2402;
805.2000;0.6284;1.2453;
805.5000;0.6292;1.2504;
805.8000;0.6300;1.2555;
806.1000;0.6309;1.2656;
806.4000;0.6292;1.2681;
806.7000;0.6284;1.2732;
807.0000;0.6284;1.2732;
807.3000;0.6300;1.2656;
807.6000;0.6268;1.2555;
807.9000;0.6268;1.2529;
808.2000;0.6300;1.2605;
808.5000;0.6284;1.2580;
808.8000;0.6292;1.2605;
809.1000;0.6243;1.2504;
809.4000;0.6284;1.2504;
809.7000;0.6268;1.2428;
810.0000;0.6268;1.2428;
810.3000;0.6260;1.2453;
810.6000;0.6260;1.2504;
810.9000;0.6365;1.2859;
811.2000;0.6276;1.2732;
811.5000;0.6300;1.2859;
811.8000;0.6284;1.2808;
812.1000;0.6276;1.2707;
812.4000;0.6300;1.2681;
812.7000;0.6292;1.2605;
813.0000;0.6276;1.2479;
813.3000;0.6243;1.2504;
813.6000;0.6292;1.2529;
813.9000;0.6276;1.2504;
814.2000;0.6276;1.2504;
814.5000;0.6268;1.2453;
814.8000;0.6284;1.2555;
815.1000;0.6300;1.2656;
815.4000;0.6300;1.2631;
815.7000;0.6284;1.2605;
816.0000;0.6300;1.2656;
816.3000;0.6276;1.2631;
816.6000;0.6300;1.2656;
816.9000;0.6268;1.2605;
817.2000;0.6243;1.2555;
817.5000;0.6325;1.2681;
817.8000;0.6268;1.2605;
818.1000;0.6268;1.2605;
818.4000;0.6325;1.2732;
818.7000;0.6252;1.2555;
819.0000;0.6276;1.2631;
819.3000;0.6292;1.2631;
819.6000;0.6219;1.2529;
819.9000;0.6276;1.2631;
820.2000;0.6349;1.2884;
820.5000;0.6260;1.2707;
820.8000;0.6268;1.2783;
821.1000;0.6317;1.2910;
821.4000;0.6309;1.2808;
821.7000;0.6243;1.2631;
822.0000;0.6268;1.2631;
822.3000;0.6252;1.2605;
822.6000;0.6276;1.2631;
822.9000;0.6317;1.2732;
823.2000;0.6260;1.2555;
823.5000;0.6203;1.2402;
823.8000;0.6260;1.2479;
824.1000;0.6260;1.2377;
824.4000;0.6252;1.2453;
824.7000;0.6260;1.2555;
825.0000;0.6252;1.2580;
825.3000;0.6243;1.2631;
825.6000;0.6268;1.2681;
825.9000;0.6252;1.2605;
826.2000;0.6260;1.2580;
826.5000;0.6357;1.2859;
826.8000;0.6243;1.2605;
827.1000;0.6268;1.2681;
827.4000;0.6260;1.2631;
827.7000;0.6243;1.2529;
828.0000;0.6260;1.2580;
828.3000;0.6260;1.2580;
828.6000;0.6268;1.2555;
828.9000;0.6219;1.2453;
829.2000;0.6227;1.2504;
829.5000;0.6227;1.2504;
829.8000;0.6252;1.2529;
830.1000;0.6260;1.2529;
830.4000;0.6243;1.2580;
830.7000;0.6227;1.2453;
831.0000;0.6227;1.2555;
831.3000;0.6227;1.2529;
831.6000;0.6219;1.2555;
831.9000;0.6227;1.2605;
832.2000;0.6268;1.2681;
832.5000;0.6219;1.2479;
832.8000;0.6260;1.2453;
833.1000;0.6252;1.2377;
833.4000;0.6252;1.2453;
833.7000;0.6268;1.2631;
834.0000;0.6260;1.2555;
834.3000;0.6252;1.2555;
834.6000;0.6252;1.2453;
834.9000;0.6211;1.2402;
835.2000;0.6219;1.2479;
835.5000;0.6235;1.2555;
835.8000;0.6243;1.2529;
836.1000;0.6325;1.2656;
836.4000;0.6243;1.2555;
836.7000;0.6219;1.2504;
837.0000;0.6219;1.2453;
837.3000;0.6227;1.2428;
837.6000;0.6235;1.2479;
837.9000;0.6227;1.2555;
838.2000;0.6219;1.2580;
838.5000;0.6203;1.2580;
838.8000;0.6243;1.2681;
839.1000;0.6252;1.2605;
839.4000;0.6235;1.2479;
839.7000;0.6243;1.2479;
840.0000;0.6162;1.2301;
840.3000;0.6219;1.2402;
840.6000;0.6227;1.2453;
840.9000;0.6219;1.2479;
841.2000;0.6219;1.2428;
841.5000;0.6219;1.2479;
841.8000;0.6227;1.2453;
842.1000;0.6227;1.2428;
842.4000;0.6219;1.2479;
842.7000;0.6227;1.2428;
843.0000;0.6186;1.2326;
843.3000;0.6219;1.2428;
843.6000;0.6211;1.2428;
843.9000;0.6219;1.2529;
844.2000;0.6211;1.2453;
844.5000;0.6227;1.2529;
844.8000;0.6219;1.2529;
845.1000;0.6211;1.2453;
845.4000;0.6138;1.2250;
845.7000;0.6195;1.2377;
846.0000;0.6211;1.2377;
846.3000;0.6211;1.2377;
846.6000;0.6219;1.2352;
846.9000;0.6227;1.2250;
847.2000;0.6227;1.2200;
847.5000;0.6203;1.2073;
847.8000;0.6227;1.2149;
848.1000;0.6235;1.2174;
848.4000;0.6219;1.2149;
848.7000;0.6227;1.2276;
849.0000;0.6235;1.2276;
849.3000;0.6219;1.2301;
849.6000;0.6227;1.2326;
849.9000;0.6243;1.2326;
850.2000;0.6235;1.2326;
850.5000;0.6227;1.2326;
850.8000;0.6235;1.2377;
851.1000;0.6203;1.2326;
851.4000;0.6219;1.2428;
851.7000;0.6227;1.2377;
852.0000;0.6260;1.2479;
852.3000;0.6276;1.2555;
852.6000;0.6211;1.2377;
852.9000;0.6203;1.2326;
853.2000;0.6211;1.2402;
853.5000;0.6211;1.2402;
853.8000;0.6219;1.2377;
854.1000;0.6203;1.2377;
854.4000;0.6203;1.2402;
854.7000;0.6219;1.2479;
855.0000;0.6211;1.2453;
855.3000;0.6235;1.2529;
855.6000;0.6203;1.2529;
855.9000;0.6211;1.2555;
856.2000;0.6186;1.2580;
856.5000;0.6195;1.2605;
856.8000;0.6203;1.2605;
857.1000;0.6211;1.2529;
857.4000;0.6211;1.2631;
857.7000;0.6227;1.2605;
858.0000;0.6195;1.2580;
858.3000;0.6211;1.2732;
858.6000;0.6292;1.2910;
858.9000;0.6227;1.2783;
859.2000;0.6219;1.2732;
859.5000;0.6203;1.2631;
859.8000;0.6211;1.2555;
860.1000;0.6211;1.2580;
860.4000;0.6235;1.2656;
860.7000;0.6235;1.2631;
861.0000;0.6186;1.2580;
861.3000;0.6195;1.2580;
861.6000;0.6203;1.2580;
861.9000;0.6203;1.2631;
862.2000;0.6203;1.2555;
862.5000;0.6186;1.2605;
862.8000;0.6195;1.2580;
863.1000;0.6203;1.2555;
863.4000;0.6195;1.2605;
863.7000;0.6195;1.2580;
864.0000;0.6203;1.2631;
864.3000;0.6211;1.2631;
864.6000;0.6178;1.2605;
864.9000;0.6195;1.2656;
865.2000;0.6203;1.2732;
865.5000;0.6178;1.2605;
865.8000;0.6186;1.2555;
866.1000;0.6195;1.2529;
866.4000;0.6292;1.2732;
866.7000;0.6203;1.2453;
867.0000;0.6186;1.2453;
867.3000;0.6195;1.2605;
867.6000;0.6203;1.2529;
867.9000;0.6203;1.2529;
868.2000;0.6195;1.2580;
868.5000;0.6170;1.2555;
868.8000;0.6195;1.2631;
869.1000;0.6211;1.2783;
869.4000;0.6154;1.2555;
869.7000;0.6203;1.2707;
870.0000;0.6178;1.2580;
870.3000;0.6211;1.2555;
870.6000;0.6195;1.2605;
870.9000;0.6195;1.2605;
871.2000;0.6170;1.2580;
871.5000;0.6170;1.2529;
871.8000;0.6195;1.2631;
872.1000;0.6195;1.2631;
872.4000;0.6195;1.2732;
872.7000;0.6162;1.2732;
873.0000;0.6203;1.2758;
873.3000;0.6195;1.2707;
873.6000;0.6203;1.2758;
873.9000;0.6195;1.2732;
874.2000;0.6186;1.2732;
874.5000;0.6138;1.2631;
874.8000;0.6186;1.2758;
875.1000;0.6186;1.2758;
875.4000;0.6113;1.2605;
875.7000;0.6178;1.2732;
876.0000;0.6186;1.2605;
876.3000;0.6170;1.2656;
876.6000;0.6178;1.2631;
876.9000;0.6121;1.2479;
877.2000;0.6195;1.2605;
877.5000;0.6195;1.2656;
877.8000;0.6178;1.2605;
878.1000;0.6178;1.2707;
878.4000;0.6178;1.2681;
878.7000;0.6211;1.2681;
879.0000;0.6072;1.2326;
879.3000;0.6203;1.2758;
879.6000;0.6178;1.2707;
879.9000;0.6178;1.2656;
880.2000;0.6162;1.2580;
880.5000;0.6154;1.2555;
880.8000;0.6154;1.2605;
881.1000;0.6195;1.2656;
881.4000;0.6154;1.2529;
881.7000;0.6195;1.2605;
882.0000;0.6178;1.2555;
882.3000;0.6170;1.2555;
882.6000;0.6105;1.2402;
882.9000;0.6178;1.2631;
883.2000;0.6162;1.2605;
883.5000;0.6170;1.2631;
883.8000;0.6154;1.2580;
884.1000;0.6162;1.2631;
884.4000;0.6146;1.2504;
884.7000;0.6162;1.2580;
885.0000;0.6162;1.2555;
885.3000;0.6170;1.2529;
885.6000;0.6162;1.2555;
885.9000;0.6162;1.2504;
886.2000;0.6170;1.2504;
886.5000;0.6170;1.2580;
886.8000;0.6146;1.2656;
887.1000;0.6146;1.2631;
887.4000;0.6170;1.2707;
887.7000;0.6162;1.2707;
888.0000;0.6121;1.2707;
888.3000;0.6154;1.2808;
888.6000;0.6154;1.2707;
888.9000;0.6154;1.2783;
889.2000;0.6170;1.2859;
889.5000;0.6138;1.2783;
889.8000;0.6146;1.2758;
890.1000;0.6154;1.2783;
890.4000;0.6121;1.2758;
890.7000;0.6195;1.2935;
891.0000;0.6113;1.2707;
891.3000;0.6146;1.2783;
891.6000;0.6162;1.2808;
891.9000;0.6162;1.2783;
892.2000;0.6170;1.2758;
892.5000;0.6154;1.2707;
892.8000;0.6154;1.2631;
893.1000;0.6178;1.2656;
893.4000;0.6162;1.2732;
893.7000;0.6121;1.2605;
894.0000;0.6146;1.2605;
894.3000;0.6146;1.2681;
894.6000;0.6195;1.2834;
894.9000;0.6260;1.2935;
895.2000;0.6129;1.2580;
895.5000;0.6146;1.2605;
895.8000;0.6195;1.2758;
896.1000;0.6162;1.2758;
896.4000;0.6146;1.2631;
896.7000;0.6154;1.2656;
897.0000;0.6138;1.2504;
897.3000;0.6170;1.2453;
897.6000;0.6162;1.2453;
897.9000;0.6121;1.2377;
898.2000;0.6146;1.2529;
898.5000;0.6129;1.2656;
898.8000;0.6146;1.2681;
899.1000;0.6146;1.2681;
899.4000;0.6146;1.2707;
899.7000;0.6154;1.2834;
900.0000;0.6162;1.2884;
900.3000;0.6138;1.2732;
900.6000;0.6138;1.2732;
900.9000;0.6138;1.2758;
901.2000;0.6146;1.2707;
901.5000;0.6154;1.2681;
901.8000;0.6129;1.2555;
902.1000;0.6170;1.2631;
902.4000;0.6146;1.2529;
902.7000;0.6138;1.2377;
903.0000;0.6138;1.2377;
903.3000;0.6138;1.2529;
903.6000;0.6162;1.2529;
903.9000;0.6170;1.2504;
904.2000;0.6162;1.2529;
904.5000;0.6162;1.2428;
904.8000;0.6170;1.2631;
905.1000;0.6154;1.2605;
905.4000;0.6146;1.2529;
905.7000;0.6138;1.2504;
906.0000;0.6146;1.2453;
906.3000;0.6146;1.2453;
906.6000;0.6072;1.2123;
906.9000;0.6138;1.2326;
907.2000;0.6154;1.2377;
907.5000;0.6129;1.2377;
907.8000;0.6154;1.2479;
908.1000;0.6154;1.2504;
908.4000;0.6146;1.2529;
908.7000;0.6186;1.2732;
909.0000;0.6113;1.2605;
909.3000;0.6113;1.2580;
909.6000;0.6138;1.2656;
909.9000;0.6154;1.2656;
910.2000;0.6146;1.2605;
910.5000;0.6129;1.2504;
910.8000;0.6121;1.2453;
911.1000;0.6129;1.2428;
911.4000;0.6121;1.2428;
911.7000;0.6146;1.2352;
912.0000;0.6113;1.2377;
912.3000;0.6129;1.2402;
912.6000;0.6146;1.2555;
912.9000;0.6129;1.2605;
913.2000;0.6121;1.2504;
913.5000;0.6121;1.2479;
913.8000;0.6154;1.2479;
914.1000;0.6105;1.2301;
914.4000;0.6105;1.2276;
914.7000;0.6129;1.2377;
915.0000;0.6097;1.2326;
915.3000;0.6162;1.2529;
915.6000;0.6146;1.2479;
915.9000;0.6113;1.2402;
916.2000;0.6219;1.2707;
916.5000;0.6138;1.2504;
916.8000;0.6146;1.2580;
917.1000;0.6138;1.2605;
917.4000;0.6138;1.2681;
917.7000;0.6121;1.2656;
918.0000;0.6129;1.2656;
918.3000;0.6121;1.2605;
918.6000;0.6146;1.2504;
918.9000;0.6146;1.2504;
919.2000;0.6138;1.2555;
919.5000;0.6170;1.2656;
919.8000;0.6146;1.2555;
920.1000;0.6154;1.2631;
920.4000;0.6138;1.2732;
920.7000;0.6138;1.2783;
921.0000;0.6113;1.2758;
921.3000;0.6154;1.2783;
921.6000;0.6146;1.2707;
921.9000;0.6146;1.2605;
922.2000;0.6129;1.2605;
922.5000;0.6129;1.2479;
922.8000;0.6138;1.2479;
923.1000;0.6129;1.2479;
923.4000;0.6195;1.2656;
923.7000;0.6162;1.2555;
924.0000;0.6146;1.2402;
924.3000;0.6129;1.2402;
924.6000;0.6121;1.2428;
924.9000;0.6162;1.2580;
925.2000;0.6138;1.2504;
925.5000;0.6154;1.2504;
925.8000;0.6138;1.2479;
926.1000;0.6121;1.2453;
926.4000;0.6105;1.2352;
926.7000;0.6121;1.2428;
927.0000;0.6121;1.2479;
927.3000;0.6105;1.2326;
927.6000;0.6129;1.2453;
927.9000;0.6146;1.2453;
928.2000;0.6113;1.2377;
928.5000;0.6121;1.2428;
928.8000;0.6129;1.2529;
929.1000;0.6162;1.2580;
929.4000;0.6129;1.2555;
929.7000;0.6089;1.2453;
930.0000;0.6121;1.2605;
930.3000;0.6138;1.2555;
930.6000;0.6146;1.2529;
930.9000;0.6072;1.2402;
931.2000;0.6138;1.2605;
931.5000;0.6138;1.2605;
931.8000;0.6113;1.2504;
932.1000;0.6129;1.2605;
932.4000;0.6121;1.2605;
932.7000;0.6129;1.2529;
933.0000;0.6154;1.2580;
933.3000;0.6113;1.2504;
933.6000;0.6129;1.2580;
933.9000;0.6162;1.2656;
934.2000;0.6121;1.2555;
934.5000;0.6138;1.2479;
934.8000;0.6105;1.2377;
935.1000;0.6129;1.2402;
935.4000;0.6138;1.2453;
935.7000;0.6121;1.2428;
936.0000;0.6121;1.2504;
936.3000;0.6113;1.2529;
936.6000;0.6105;1.2555;
936.9000;0.6178;1.2732;
937.2000;0.6113;1.2529;
937.5000;0.6146;1.2631;
937.8000;0.6121;1.2580;
938.1000;0.6121;1.2580;
938.4000;0.6195;1.2935;
938.7000;0.6113;1.2681;
939.0000;0.6129;1.2656;
939.3000;0.6129;1.2631;
939.6000;0.6129;1.2605;
939.9000;0.6105;1.2605;
940.2000;0.6105;1.2656;
940.5000;0.6129;1.2681;
940.8000;0.6113;1.2504;
941.1000;0.6113;1.2504;
941.4000;0.6105;1.2504;
941.7000;0.6113;1.2529;
942.0000;0.6097;1.2580;
942.3000;0.6121;1.2605;
942.6000;0.6129;1.2605;
942.9000;0.6113;1.2580;
943.2000;0.6129;1.2681;
943.5000;0.6113;1.2656;
943.8000;0.6121;1.2783;
944.1000;0.6129;1.2758;
944.4000;0.6129;1.2808;
944.7000;0.6121;1.2808;
945.0000;0.6121;1.2808;
945.3000;0.6081;1.2656;
945.6000;0.6129;1.2656;
945.9000;0.6105;1.2732;
946.2000;0.6081;1.2656;
946.5000;0.6089;1.2656;
946.8000;0.6113;1.2707;
947.1000;0.6121;1.2707;
947.4000;0.6097;1.2707;
947.7000;0.6097;1.2732;
948.0000;0.6113;1.2707;
948.3000;0.6121;1.2707;
948.6000;0.6121;1.2656;
948.9000;0.6113;1.2580;
949.2000;0.6105;1.2605;
949.5000;0.6113;1.2732;
949.8000;0.6105;1.2681;
950.1000;0.6146;1.2707;
950.4000;0.6121;1.2580;
950.7000;0.6072;1.2504;
951.0000;0.6146;1.2555;
951.3000;0.6089;1.2504;
951.6000;0.6138;1.2656;
951.9000;0.6154;1.2758;
952.2000;0.6072;1.2631;
952.5000;0.6064;1.2681;
952.8000;0.6081;1.2834;
953.1000;0.6121;1.2986;
953.4000;0.6097;1.2859;
953.7000;0.6081;1.2732;
954.0000;0.6129;1.2808;
954.3000;0.6195;1.2986;
954.6000;0.6113;1.2884;
954.9000;0.6195;1.3087;
955.2000;0.6113;1.2960;
955.5000;0.6113;1.2884;
955.8000;0.6121;1.2910;
956.1000;0.6113;1.2884;
956.4000;0.6121;1.2783;
956.7000;0.6097;1.2656;
957.0000;0.6113;1.2605;
957.3000;0.6105;1.2580;
957.6000;0.6113;1.2631;
957.9000;0.6105;1.2631;
958.2000;0.6138;1.2707;
958.5000;0.6113;1.2605;
958.8000;0.6113;1.2605;
959.1000;0.6105;1.2707;
959.4000;0.6040;1.2504;
959.7000;0.6121;1.2681;
960.0000;0.6105;1.2605;
960.3000;0.6113;1.2555;
960.6000;0.6089;1.2428;
960.9000;0.6097;1.2428;
961.2000;0.6105;1.2555;
961.5000;0.6105;1.2605;
961.8000;0.6097;1.2605;
962.1000;0.6113;1.2631;
962.4000;0.6113;1.2707;
962.7000;0.6113;1.2732;
963.0000;0.6113;1.2631;
963.3000;0.6113;1.2681;
963.6000;0.6097;1.2707;
963.9000;0.6105;1.2758;
964.2000;0.6113;1.2758;
964.5000;0.6121;1.2732;
964.8000;0.6105;1.2707;
965.1000;0.6097;1.2681;
965.4000;0.6138;1.2808;
965.7000;0.6097;1.2758;
966.0000;0.6121;1.2758;
966.3000;0.6113;1.2732;
966.6000;0.6105;1.2656;
966.9000;0.6097;1.2504;
967.2000;0.6105;1.2479;
967.5000;0.6056;1.2250;
967.8000;0.6089;1.2453;
968.1000;0.6089;1.2529;
968.4000;0.6097;1.2529;
968.7000;0.6105;1.2605;
969.0000;0.6089;1.2605;
969.3000;0.6097;1.2656;
969.6000;0.6113;1.2707;
969.9000;0.6121;1.2758;
970.2000;0.6097;1.2707;
970.5000;0.6089;1.2681;
970.8000;0.6113;1.2732;
971.1000;0.6089;1.2656;
971.4000;0.6105;1.2605;
971.7000;0.6007;1.2225;
972.0000;0.6089;1.2529;
972.3000;0.6089;1.2580;
972.6000;0.6089;1.2580;
972.9000;0.6097;1.2605;
973.2000;0.6105;1.2631;
973.5000;0.6105;1.2605;
973.8000;0.6097;1.2681;
974.1000;0.6113;1.2808;
974.4000;0.6097;1.2656;
974.7000;0.6121;1.2656;
975.0000;0.6129;1.2732;
975.3000;0.6105;1.2605;
975.6000;0.6138;1.2732;
975.9000;0.6089;1.2631;
976.2000;0.6097;1.2707;
976.5000;0.6089;1.2707;
976.8000;0.6081;1.2656;
977.1000;0.6081;1.2656;
977.4000;0.6081;1.2631;
977.7000;0.6081;1.2656;
978.0000;0.6089;1.2631;
978.3000;0.6105;1.2529;
978.6000;0.6089;1.2428;
978.9000;0.6097;1.2428;
979.2000;0.6097;1.2428;
979.5000;0.6089;1.2453;
979.8000;0.6105;1.2479;
980.1000;0.6105;1.2453;
980.4000;0.6113;1.2504;
980.7000;0.6105;1.2555;
981.0000;0.6097;1.2605;
981.3000;0.6072;1.2580;
981.6000;0.6105;1.2631;
981.9000;0.6081;1.2656;
982.2000;0.6081;1.2605;
982.5000;0.6081;1.2681;
982.8000;0.6105;1.2656;
983.1000;0.6097;1.2656;
983.4000;0.6089;1.2631;
983.7000;0.6097;1.2580;
984.0000;0.6081;1.2631;
984.3000;0.6072;1.2555;
984.6000;0.6089;1.2631;
984.9000;0.6064;1.2707;
985.2000;0.6105;1.2732;
985.5000;0.6081;1.2758;
985.8000;0.6089;1.2732;
986.1000;0.6081;1.2631;
986.4000;0.6105;1.2707;
986.7000;0.6081;1.2758;
987.0000;0.6089;1.2808;
987.3000;0.6097;1.2910;
987.6000;0.6081;1.2783;
987.9000;0.6064;1.2656;
988.2000;0.6072;1.2605;
988.5000;0.6097;1.2656;
988.8000;0.6121;1.2732;
989.1000;0.6097;1.2732;
989.4000;0.6105;1.2859;
989.7000;0.6056;1.2732;
990.0000;0.6146;1.2960;
990.3000;0.6089;1.2808;
990.6000;0.6097;1.2808;
990.9000;0.6089;1.2859;
991.2000;0.6081;1.2732;
991.5000;0.6056;1.2707;
991.8000;0.6097;1.2783;
992.1000;0.6097;1.2808;
992.4000;0.6089;1.2859;
992.7000;0.6089;1.2859;
993.0000;0.6089;1.2960;
993.3000;0.6081;1.2834;
993.6000;0.6089;1.2758;
993.9000;0.6097;1.2732;
994.2000;0.6089;1.2707;
994.5000;0.6072;1.2732;
994.8000;0.6097;1.2605;
995.1000;0.6072;1.2631;
995.4000;0.6081;1.2656;
995.7000;0.6081;1.2707;
996.0000;0.6081;1.2656;
996.3000;0.6089;1.2681;
996.6000;0.6081;1.2758;
996.9000;0.6089;1.2732;
997.2000;0.6081;1.2758;
997.5000;0.6081;1.2732;
997.8000;0.6056;1.2605;
998.1000;0.6081;1.2631;
998.4000;0.6081;1.2707;
998.7000;0.6081;1.2732;
999.0000;0.6089;1.2758;
999.3000;0.6129;1.2910;
999.6000;0.6072;1.2808;
999.9000;0.6162;1.3037;
1000.2000;0.6113;1.2859;
1000.5000;0.6105;1.2783;
1000.8000;0.6072;1.2783;
1001.1000;0.6089;1.2859;
1001.4000;0.6072;1.2808;
1001.7000;0.6072;1.2834;
1002.0000;0.6064;1.2783;
1002.3000;0.6072;1.2783;
1002.6000;0.6056;1.2808;
1002.9000;0.6089;1.2884;
1003.2000;0.6105;1.3011;
1003.5000;0.6081;1.2960;
1003.8000;0.6072;1.3011;
1004.1000;0.6105;1.2986;
1004.4000;0.6105;1.2884;
1004.7000;0.6007;1.2605;
1005.0000;0.6056;1.2758;
1005.3000;0.6089;1.2808;
1005.6000;0.6072;1.2783;
1005.9000;0.6113;1.2960;
1006.2000;0.6129;1.2935;
1006.5000;0.6097;1.2808;
1006.8000;0.6081;1.2859;
1007.1000;0.6097;1.2884;
1007.4000;0.6072;1.2859;
1007.7000;0.6081;1.2935;
1008.0000;0.6081;1.2935;
1008.3000;0.6146;1.3113;
1008.6000;0.6097;1.2960;
1008.9000;0.6121;1.3037;
1009.2000;0.6081;1.2884;
1009.5000;0.6024;1.2758;
1009.8000;0.6089;1.2986;
1010.1000;0.6081;1.2960;
1010.4000;0.6105;1.2910;
1010.7000;0.6081;1.2808;
1011.0000;0.6072;1.2808;
1011.3000;0.6081;1.2758;
1011.6000;0.6154;1.2986;
1011.9000;0.6089;1.2859;
1012.2000;0.6089;1.2859;
1012.5000;0.6081;1.2834;
1012.8000;0.6089;1.2834;
1013.1000;0.6081;1.2859;
1013.4000;0.6048;1.2681;
1013.7000;0.6089;1.2834;
1014.0000;0.6097;1.2758;
1014.3000;0.6186;1.2910;
1014.6000;0.6072;1.2555;
1014.9000;0.6097;1.2631;
1015.2000;0.6072;1.2605;
1015.5000;0.6081;1.2656;
1015.8000;0.6081;1.2529;
1016.1000;0.6032;1.2479;
1016.4000;0.6072;1.2580;
1016.7000;0.6081;1.2555;
1017.0000;0.6097;1.2555;
1017.3000;0.6064;1.2555;
1017.6000;0.6072;1.2555;
1017.9000;0.6081;1.2605;
1018.2000;0.6072;1.2580;
1018.5000;0.6056;1.2656;
1018.8000;0.6081;1.2783;
1019.1000;0.6089;1.2758;
1019.4000;0.6097;1.2783;
1019.7000;0.6081;1.2707;
1020.0000;0.6064;1.2580;
1020.3000;0.6040;1.2529;
1020.6000;0.6056;1.2580;
1020.9000;0.6064;1.2707;
1021.2000;0.6072;1.2631;
1021.5000;0.6056;1.2555;
1021.8000;0.5983;1.2250;
1022.1000;0.6081;1.2428;
1022.4000;0.6056;1.2428;
1022.7000;0.6056;1.2402;
1023.0000;0.6064;1.2529;
1023.3000;0.6081;1.2504;
1023.6000;0.6064;1.2529;
1023.9000;0.6015;1.2377;
1024.2000;0.6032;1.2479;
1024.5000;0.6081;1.2707;
1024.8000;0.6064;1.2580;
1025.1000;0.6089;1.2681;
1025.4000;0.6064;1.2758;
1025.7000;0.6097;1.2783;
1026.0000;0.6105;1.2834;
1026.3000;0.6081;1.2834;
1026.6000;0.6056;1.2910;
1026.9000;0.6081;1.2884;
1027.2000;0.6105;1.2884;
1027.5000;0.6089;1.2884;
1027.8000;0.6072;1.2808;
1028.1000;0.6072;1.2808;
1028.4000;0.6081;1.2884;
1028.7000;0.6121;1.2910;
1029.0000;0.6081;1.2758;
1029.3000;0.6072;1.2783;
1029.6000;0.6081;1.2834;
1029.9000;0.6081;1.2834;
1030.2000;0.6072;1.2758;
1030.5000;0.6056;1.2707;
1030.8000;0.6097;1.2783;
1031.1000;0.6081;1.2707;
1031.4000;0.6129;1.2758;
1031.7000;0.6064;1.2580;
1032.0000;0.6056;1.2555;
1032.3000;0.6072;1.2681;
1032.6000;0.6056;1.2656;
1032.9000;0.6072;1.2707;
1033.2000;0.6064;1.2758;
1033.5000;0.6064;1.2758;
1033.8000;0.6056;1.2681;
1034.1000;0.6064;1.2783;
1034.4000;0.6024;1.2707;
1034.7000;0.6072;1.2834;
1035.0000;0.6097;1.2859;
1035.3000;0.6097;1.2834;
1035.6000;0.6089;1.2783;
1035.9000;0.6081;1.2910;
1036.2000;0.6056;1.2783;
1036.5000;0.6072;1.2758;
1036.8000;0.6048;1.2656;
1037.1000;0.6040;1.2580;
1037.4000;0.6064;1.2580;
1037.7000;0.6072;1.2681;
1038.0000;0.6097;1.2808;
1038.3000;0.6064;1.2859;
1038.6000;0.6089;1.2783;
1038.9000;0.6072;1.2707;
1039.2000;0.6064;1.2656;
1039.5000;0.6056;1.2580;
1039.8000;0.6064;1.2580;
1040.1000;0.6089;1.2681;
1040.4000;0.6072;1.2707;
1040.7000;0.6154;1.2859;
1041.0000;0.6121;1.2783;
1041.3000;0.6056;1.2707;
1041.6000;0.6056;1.2758;
1041.9000;0.6064;1.2834;
1042.2000;0.6072;1.2910;
1042.5000;0.6064;1.2960;
1042.8000;0.6056;1.2859;
1043.1000;0.6048;1.2732;
1043.4000;0.6048;1.2808;
1043.7000;0.6089;1.2859;
1044.0000;0.6064;1.2732;
1044.3000;0.6064;1.2732;
1044.6000;0.6081;1.2732;
1044.9000;0.6081;1.2656;
1045.2000;0.6081;1.2605;
1045.5000;0.6081;1.2656;
1045.8000;0.6072;1.2605;
1046.1000;0.6081;1.2555;
1046.4000;0.6072;1.2453;
1046.7000;0.6056;1.2605;
1047.0000;0.6024;1.2631;
1047.3000;0.6064;1.2732;
1047.6000;0.6072;1.2834;
1047.9000;0.6064;1.2783;
1048.2000;0.5999;1.2656;
1048.5000;0.6072;1.2859;
1048.8000;0.6064;1.2808;
1049.1000;0.6138;1.3087;
1049.4000;0.6064;1.2834;
1049.7000;0.6064;1.2834;
1050.0000;0.6072;1.2783;
1050.3000;0.6056;1.2910;
1050.6000;0.6081;1.3011;
1050.9000;0.6064;1.2986;
1051.2000;0.6072;1.2935;
1051.5000;0.6056;1.2910;
1051.8000;0.6072;1.2910;
1052.1000;0.6040;1.2758;
1052.4000;0.6064;1.2758;
1052.7000;0.6040;1.2681;
1053.0000;0.6040;1.2631;
1053.3000;0.6048;1.2631;
1053.6000;0.6048;1.2758;
1053.9000;0.6048;1.2656;
1054.2000;0.6048;1.2758;
1054.5000;0.6048;1.2834;
1054.8000;0.6056;1.2859;
1055.1000;0.6064;1.2910;
1055.4000;0.6024;1.2834;
1055.7000;0.6056;1.2859;
1056.0000;0.6064;1.2808;
1056.3000;0.6081;1.2859;
1056.6000;0.6064;1.2884;
1056.9000;0.6064;1.2808;
1057.2000;0.6056;1.2834;
1057.5000;0.6064;1.2910;
1057.8000;0.6064;1.2910;
1058.1000;0.6048;1.2808;
1058.4000;0.6056;1.2859;
1058.7000;0.6048;1.2783;
1059.0000;0.6056;1.2783;
1059.3000;0.6040;1.2681;
1059.6000;0.6064;1.2732;
1059.9000;0.6064;1.2783;
1060.2000;0.6040;1.2758;
1060.5000;0.6081;1.2910;
1060.8000;0.6056;1.2859;
1061.1000;0.6072;1.2986;
1061.4000;0.6072;1.3011;
1061.7000;0.6064;1.2910;
1062.0000;0.5950;1.2656;
1062.3000;0.6048;1.2935;
1062.6000;0.6056;1.2910;
1062.9000;0.6064;1.2935;
1063.2000;0.6072;1.2960;
1063.5000;0.6056;1.2960;
1063.8000;0.6048;1.2935;
1064.1000;0.6056;1.2986;
1064.4000;0.6048;1.2884;
1064.7000;0.6064;1.2910;
1065.0000;0.6056;1.2808;
1065.3000;0.5958;1.2631;
1065.6000;0.6040;1.2859;
1065.9000;0.6040;1.2834;
1066.2000;0.6040;1.2834;
1066.5000;0.6064;1.2884;
1066.8000;0.6056;1.2884;
1067.1000;0.6024;1.2707;
1067.4000;0.6048;1.2707;
1067.7000;0.6072;1.2758;
1068.0000;0.6081;1.2859;
1068.3000;0.6040;1.2681;
1068.6000;0.6056;1.2758;
1068.9000;0.6064;1.2808;
1069.2000;0.6048;1.2808;
1069.5000;0.6056;1.2859;
1069.8000;0.6121;1.3011;
1070.1000;0.6064;1.2960;
1070.4000;0.6081;1.2986;
1070.7000;0.6072;1.2935;
1071.0000;0.6105;1.3062;
1071.3000;0.6081;1.2960;
1071.6000;0.6064;1.2935;
1071.9000;0.6048;1.2758;
1072.2000;0.6048;1.2783;
1072.5000;0.6048;1.2910;
1072.8000;0.6064;1.2986;
1073.1000;0.6015;1.2808;
1073.4000;0.6048;1.2834;
1073.7000;0.6024;1.2808;
1074.0000;0.6056;1.2859;
1074.3000;0.6048;1.2884;
1074.6000;0.6048;1.2910;
1074.9000;0.6040;1.2910;
1075.2000;0.6056;1.2884;
1075.5000;0.6064;1.2960;
1075.8000;0.6056;1.2783;
1076.1000;0.6064;1.2783;
1076.4000;0.6056;1.2834;
1076.7000;0.6072;1.2808;
1077.0000;0.6048;1.2783;
1077.3000;0.6064;1.2834;
1077.6000;0.6048;1.2808;
1077.9000;0.6056;1.2884;
1078.2000;0.6064;1.2910;
1078.5000;0.6040;1.2859;
1078.8000;0.6064;1.2884;
1079.1000;0.6056;1.2884;
1079.4000;0.6064;1.2910;
1079.7000;0.6048;1.2960;
1080.0000;0.6072;1.3087;
1080.3000;0.6040;1.2884;
1080.6000;0.6040;1.2960;
1080.9000;0.6024;1.2783;
1081.2000;0.6040;1.2910;
1081.5000;0.6048;1.2910;
1081.8000;0.6040;1.2808;
1082.1000;0.6064;1.2808;
1082.4000;0.6056;1.2834;
1082.7000;0.6040;1.2808;
1083.0000;0.6048;1.2808;
1083.3000;0.6056;1.2834;
1083.6000;0.6048;1.2783;
1083.9000;0.6032;1.2808;
1084.2000;0.5967;1.2580;
1084.5000;0.6024;1.2732;
1084.8000;0.6089;1.2960;
1085.1000;0.6015;1.2834;
1085.4000;0.6072;1.3062;
1085.7000;0.6064;1.3011;
1086.0000;0.6056;1.2935;
1086.3000;0.6024;1.2834;
1086.6000;0.6056;1.2884;
1086.9000;0.6097;1.2960;
1087.2000;0.6032;1.2808;
1087.5000;0.6056;1.2834;
1087.8000;0.6089;1.2783;
1088.1000;0.6040;1.2656;
1088.4000;0.6040;1.2681;
1088.7000;0.6032;1.2681;
1089.0000;0.5991;1.2656;
1089.3000;0.6024;1.2656;
1089.6000;0.6040;1.2681;
1089.9000;0.6024;1.2605;
1090.2000;0.6040;1.2631;
1090.5000;0.6040;1.2605;
1090.8000;0.6064;1.2605;
1091.1000;0.6032;1.2428;
1091.4000;0.6032;1.2402;
1091.7000;0.6032;1.2453;
1092.0000;0.6040;1.2529;
1092.3000;0.6048;1.2529;
1092.6000;0.6040;1.2504;
1092.9000;0.6040;1.2555;
1093.2000;0.6056;1.2631;
1093.5000;0.6048;1.2479;
1093.8000;0.6040;1.2555;
1094.1000;0.6007;1.2555;
1094.4000;0.6048;1.2605;
1094.7000;0.6056;1.2605;
1095.0000;0.6048;1.2605;
1095.3000;0.6056;1.2631;
1095.6000;0.6056;1.2656;
1095.9000;0.6081;1.2732;
1096.2000;0.6056;1.2758;
1096.5000;0.6040;1.2758;
1096.8000;0.6048;1.2884;
1097.1000;0.5999;1.2783;
1097.4000;0.6048;1.2884;
1097.7000;0.6064;1.2910;
1098.0000;0.6040;1.2960;
1098.3000;0.6056;1.3011;
1098.6000;0.6048;1.2935;
1098.9000;0.6040;1.2935;
1099.2000;0.6097;1.3163;
1099.5000;0.6064;1.2960;
1099.8000;0.6040;1.2935;
1100.1000;0.6072;1.3062;
1100.4000;0.6048;1.3037;
1100.7000;0.6040;1.3062;
1101.0000;0.6056;1.3138;
1101.3000;0.6048;1.3138;
1101.6000;0.6040;1.3138;
1101.9000;0.6048;1.3037;
1102.2000;0.5967;1.2783;
1102.5000;0.6048;1.3011;
1102.8000;0.6024;1.2986;
1103.1000;0.6056;1.2986;
1103.4000;0.6064;1.2935;
1103.7000;0.6032;1.2935;
1104.0000;0.6040;1.2935;
1104.3000;0.6040;1.2935;
1104.6000;0.6040;1.2884;
1104.9000;0.6040;1.2834;
1105.2000;0.6081;1.2960;
1105.5000;0.5942;1.2555;
1105.8000;0.6072;1.2910;
1106.1000;0.6072;1.2910;
1106.4000;0.6048;1.2884;
1106.7000;0.6040;1.2859;
1107.0000;0.6007;1.2656;
1107.3000;0.6048;1.2783;
1107.6000;0.6056;1.2681;
1107.9000;0.6040;1.2732;
1108.2000;0.6056;1.2707;
1108.5000;0.6048;1.2681;
1108.8000;0.6048;1.2631;
1109.1000;0.6048;1.2580;
1109.4000;0.6056;1.2504;
1109.7000;0.6064;1.2479;
1110.0000;0.6113;1.2681;
1110.3000;0.6056;1.2504;
1110.6000;0.6064;1.2504;
1110.9000;0.6064;1.2631;
1111.2000;0.6064;1.2758;
1111.5000;0.6048;1.2783;
1111.8000;0.5942;1.2605;
1112.1000;0.6040;1.2808;
1112.4000;0.6040;1.2910;
1112.7000;0.6040;1.2960;
1113.0000;0.6015;1.2758;
1113.3000;0.5991;1.2631;
1113.6000;0.6040;1.2808;
1113.9000;0.6024;1.2758;
1114.2000;0.6024;1.2631;
1114.5000;0.6032;1.2656;
1114.8000;0.6040;1.2758;
1115.1000;0.6032;1.2707;
1115.4000;0.6024;1.2808;
1115.7000;0.6032;1.2732;
1116.0000;0.6032;1.2681;
1116.3000;0.6048;1.2681;
1116.6000;0.6024;1.2605;
1116.9000;0.6040;1.2656;
1117.2000;0.6024;1.2656;
1117.5000;0.6040;1.2681;
1117.8000;0.6056;1.2732;
1118.1000;0.5991;1.2605;
1118.4000;0.6040;1.2732;
1118.7000;0.6056;1.2758;
1119.0000;0.6048;1.2707;
1119.3000;0.6056;1.2681;
1119.6000;0.6056;1.2758;
1119.9000;0.6048;1.2758;
1120.2000;0.6040;1.2859;
1120.5000;0.6056;1.2935;
1120.8000;0.6064;1.2910;
1121.1000;0.5958;1.2605;
1121.4000;0.6072;1.2884;
1121.7000;0.6048;1.2859;
1122.0000;0.6056;1.2834;
1122.3000;0.6040;1.2859;
1122.6000;0.6048;1.2935;
1122.9000;0.6056;1.2960;
1123.2000;0.6040;1.2834;
1123.5000;0.6032;1.2834;
1123.8000;0.6040;1.2859;
1124.1000;0.6032;1.2783;
1124.4000;0.6097;1.3011;
1124.7000;0.6048;1.2910;
1125.0000;0.6056;1.2910;
1125.3000;0.6056;1.2884;
1125.6000;0.6064;1.2884;
1125.9000;0.6032;1.2808;
1126.2000;0.6040;1.2783;
1126.5000;0.6154;1.3138;
1126.8000;0.6048;1.2884;
1127.1000;0.6024;1.2834;
1127.4000;0.6113;1.2910;
1127.7000;0.6056;1.2834;
1128.0000;0.6048;1.2808;
1128.3000;0.6032;1.2732;
1128.6000;0.6024;1.2783;
1128.9000;0.5999;1.2758;
1129.2000;0.6024;1.2859;
1129.5000;0.6032;1.2808;
1129.8000;0.6032;1.2808;
1130.1000;0.6040;1.2834;
1130.4000;0.6048;1.2732;
1130.7000;0.6097;1.2859;
1131.0000;0.6024;1.2758;
1131.3000;0.6040;1.2808;
1131.6000;0.6032;1.2758;
1131.9000;0.6032;1.2834;
1132.2000;0.5991;1.2681;
1132.5000;0.6032;1.2707;
1132.8000;0.6048;1.2681;
1133.1000;0.6032;1.2631;
1133.4000;0.6007;1.2555;
1133.7000;0.6032;1.2681;
1134.0000;0.6056;1.2732;
1134.3000;0.6024;1.2681;
1134.6000;0.6032;1.2732;
1134.9000;0.6089;1.2834;
1135.2000;0.6064;1.2834;
1135.5000;0.6056;1.2783;
1135.8000;0.6040;1.2808;
1136.1000;0.6040;1.2783;
1136.4000;0.6040;1.2758;
1136.7000;0.6056;1.2834;
1137.0000;0.6064;1.2808;
1137.3000;0.6040;1.2783;
1137.6000;0.6048;1.2758;
1137.9000;0.6048;1.2783;
1138.2000;0.6048;1.2732;
1138.5000;0.6040;1.2681;
1138.8000;0.6032;1.2529;
1139.1000;0.6024;1.2555;
1139.4000;0.6056;1.2631;
1139.7000;0.6040;1.2580;
1140.0000;0.6048;1.2681;
1140.3000;0.6048;1.2681;
1140.6000;0.6032;1.2732;
1140.9000;0.6048;1.2732;
1141.2000;0.6040;1.2732;
1141.5000;0.6032;1.2681;
1141.8000;0.6064;1.2681;
1142.1000;0.6072;1.2732;
1142.4000;0.6064;1.2732;
1142.7000;0.6032;1.2707;
1143.0000;0.6121;1.2859;
1143.3000;0.6024;1.2656;
1143.6000;0.6048;1.2758;
1143.9000;0.6032;1.2758;
1144.2000;0.6007;1.2808;
1144.5000;0.6024;1.2859;
1144.8000;0.6032;1.2783;
1145.1000;0.6056;1.2783;
1145.4000;0.6048;1.2834;
1145.7000;0.6056;1.2783;
1146.0000;0.6048;1.2732;
1146.3000;0.6032;1.2783;
1146.6000;0.6056;1.2884;
1146.9000;0.5983;1.2681;
1147.2000;0.6040;1.2834;
1147.5000;0.6015;1.2732;
1147.8000;0.6040;1.2783;
1148.1000;0.6015;1.2758;
1148.4000;0.6040;1.2758;
1148.7000;0.6024;1.2732;
1149.0000;0.6064;1.2859;
1149.3000;0.6024;1.2681;
1149.6000;0.6032;1.2732;
1149.9000;0.6032;1.2707;
1150.2000;0.6056;1.2834;
1150.5000;0.6056;1.2859;
1150.8000;0.6072;1.2834;
1151.1000;0.6056;1.2808;
1151.4000;0.6024;1.2707;
1151.7000;0.6024;1.2732;
1152.0000;0.6024;1.2707;
1152.3000;0.6032;1.2808;
1152.6000;0.6032;1.2808;
1152.9000;0.6040;1.2884;
1153.2000;0.6007;1.2758;
1153.5000;0.6032;1.2910;
1153.8000;0.6040;1.2960;
1154.1000;0.6015;1.2960;
1154.4000;0.6032;1.2986;
1154.7000;0.6040;1.2986;
1155.0000;0.6064;1.2910;
1155.3000;0.6032;1.2859;
1155.6000;0.6024;1.2859;
1155.9000;0.6040;1.2808;
1156.2000;0.6072;1.2859;
1156.5000;0.6040;1.2758;
1156.8000;0.6032;1.2631;
1157.1000;0.6040;1.2681;
1157.4000;0.6040;1.2631;
1157.7000;0.6097;1.2732;
1158.0000;0.6089;1.2605;
1158.3000;0.6032;1.2555;
1158.6000;0.6040;1.2580;
1158.9000;0.6024;1.2555;
1159.2000;0.6040;1.2656;
1159.5000;0.6032;1.2732;
1159.8000;0.6032;1.2707;
1160.1000;0.6032;1.2758;
1160.4000;0.6040;1.2783;
1160.7000;0.6048;1.2834;
1161.0000;0.6024;1.2783;
1161.3000;0.6040;1.2783;
1161.6000;0.6040;1.2758;
1161.9000;0.6040;1.2808;
1162.2000;0.5991;1.2758;
1162.5000;0.6032;1.2707;
1162.8000;0.6040;1.2783;
1163.1000;0.6032;1.2758;
1163.4000;0.6032;1.2808;
1163.7000;0.6015;1.2758;
1164.0000;0.6015;1.2758;
1164.3000;0.5991;1.2707;
1164.6000;0.6032;1.2884;
1164.9000;0.6040;1.2834;
1165.2000;0.6032;1.2783;
1165.5000;0.6024;1.2783;
1165.8000;0.6089;1.2986;
1166.1000;0.6048;1.2783;
1166.4000;0.6040;1.2783;
1166.7000;0.6048;1.2758;
1167.0000;0.6056;1.2758;
1167.3000;0.6032;1.2707;
1167.6000;0.6032;1.2681;
1167.9000;0.6040;1.2732;
1168.2000;0.6048;1.2783;
1168.5000;0.6048;1.2783;
1168.8000;0.6032;1.2758;
1169.1000;0.6032;1.2758;
1169.4000;0.6056;1.2884;
1169.7000;0.6040;1.2783;
1170.0000;0.6032;1.2758;
1170.3000;0.6040;1.2783;
1170.6000;0.6032;1.2758;
1170.9000;0.6040;1.2834;
1171.2000;0.6048;1.2808;
1171.5000;0.6024;1.2758;
1171.8000;0.6040;1.2732;
1172.1000;0.6032;1.2808;
1172.4000;0.6032;1.2884;
1172.7000;0.6032;1.2783;
1173.0000;0.6089;1.2935;
1173.3000;0.6032;1.2783;
1173.6000;0.6040;1.2783;
1173.9000;0.6024;1.2834;
1174.2000;0.6007;1.2808;
1174.5000;0.6040;1.2808;
1174.8000;0.6024;1.2834;
1175.1000;0.6007;1.2783;
1175.4000;0.6015;1.2884;
1175.7000;0.6072;1.2960;
1176.0000;0.6064;1.2884;
1176.3000;0.6040;1.2783;
1176.6000;0.6040;1.2859;
1176.9000;0.6097;1.2960;
1177.2000;0.6048;1.2783;
1177.5000;0.6032;1.2732;
1177.8000;0.6024;1.2656;
1178.1000;0.6032;1.2808;
1178.4000;0.6024;1.2732;
1178.7000;0.6032;1.2783;
1179.0000;0.6040;1.2808;
1179.3000;0.6024;1.2783;
1179.6000;0.6032;1.2834;
1179.9000;0.6048;1.2758;
1180.2000;0.6040;1.2758;
1180.5000;0.6097;1.2834;
1180.8000;0.6032;1.2656;
1181.1000;0.6024;1.2656;
1181.4000;0.6032;1.2732;
1181.7000;0.6032;1.2707;
1182.0000;0.6040;1.2783;
1182.3000;0.6048;1.2783;
1182.6000;0.6040;1.2758;
1182.9000;0.6040;1.2656;
1183.2000;0.6048;1.2681;
1183.5000;0.6056;1.2656;
1183.8000;0.6040;1.2580;
1184.1000;0.6048;1.2605;
1184.4000;0.6032;1.2504;
1184.7000;0.6032;1.2605;
1185.0000;0.6032;1.2631;
1185.3000;0.6032;1.2555;
1185.6000;0.6007;1.2504;
1185.9000;0.6032;1.2529;
1186.2000;0.6040;1.2479;
1186.5000;0.6056;1.2529;
1186.8000;0.6032;1.2504;
1187.1000;0.6024;1.2580;
1187.4000;0.6048;1.2631;
1187.7000;0.6048;1.2707;
1188.0000;0.6024;1.2783;
1188.3000;0.6048;1.2859;
1188.6000;0.6032;1.2859;
1188.9000;0.6007;1.2834;
1189.2000;0.6007;1.2834;
1189.5000;0.6032;1.2783;
1189.8000;0.6024;1.2808;
1190.1000;0.6040;1.2859;
1190.4000;0.6040;1.2834;
1190.7000;0.6032;1.2808;
1191.0000;0.6048;1.2834;
1191.3000;0.6032;1.2834;
1191.6000;0.6048;1.2834;
1191.9000;0.6040;1.2808;
1192.2000;0.6040;1.2910;
1192.5000;0.6048;1.2834;
1192.8000;0.6032;1.2834;
1193.1000;0.6032;1.2783;
1193.4000;0.6048;1.2783;
1193.7000;0.6032;1.2783;
1194.0000;0.6032;1.2783;
1194.3000;0.5999;1.2681;
1194.6000;0.6024;1.2808;
1194.9000;0.6032;1.2834;
1195.2000;0.6040;1.2935;
1195.5000;0.6024;1.2808;
1195.8000;0.5999;1.2681;
1196.1000;0.6032;1.2808;
1196.4000;0.6024;1.2732;
1196.7000;0.6024;1.2732;
1197.0000;0.6040;1.2783;
1197.3000;0.6056;1.2859;
1197.6000;0.6056;1.2834;
1197.9000;0.6040;1.2758;
1198.2000;0.6040;1.2707;
1198.5000;0.6040;1.2681;
1198.8000;0.6105;1.2884;
1199.1000;0.6040;1.2681;
1199.4000;0.6007;1.2656;
1199.7000;0.6024;1.2732;
1200.0000;0.6024;1.2656;
1200.3000;0.6040;1.2605;
1200.6000;0.6032;1.2631;
1200.9000;0.6007;1.2681;
1201.2000;0.6024;1.2656;
1201.5000;0.6032;1.2681;
1201.8000;0.6040;1.2808;
1202.1000;0.6024;1.2808;
1202.4000;0.6089;1.2910;
1202.7000;0.6040;1.2783;
1203.0000;0.6015;1.2707;
1203.3000;0.6081;1.2808;
1203.6000;0.6015;1.2732;
1203.9000;0.6024;1.2732;
1204.2000;0.6032;1.2783;
1204.5000;0.5999;1.2707;
1204.8000;0.6024;1.2808;
1205.1000;0.6032;1.2808;
1205.4000;0.6032;1.2834;
1205.7000;0.6032;1.2808;
1206.0000;0.6048;1.2884;
1206.3000;0.6032;1.2834;
1206.6000;0.6024;1.2910;
1206.9000;0.6015;1.2910;
1207.2000;0.6032;1.2960;
1207.5000;0.6024;1.2960;
1207.8000;0.6032;1.3062;
1208.1000;0.6040;1.3011;
1208.4000;0.6024;1.3011;
1208.7000;0.6032;1.2986;
1209.0000;0.6024;1.2935;
1209.3000;0.6032;1.2960;
1209.6000;0.6007;1.2910;
1209.9000;0.6024;1.2910;
1210.2000;0.6032;1.2935;
1210.5000;0.6040;1.3087;
1210.8000;0.6032;1.3189;
1211.1000;0.6081;1.3417;
1211.4000;0.6015;1.3138;
1211.7000;0.5999;1.3037;
1212.0000;0.6015;1.2986;
1212.3000;0.5958;1.2808;
1212.6000;0.6024;1.2935;
1212.9000;0.6064;1.3037;
1213.2000;0.6015;1.2935;
1213.5000;0.6015;1.2986;
1213.8000;0.6015;1.2884;
1214.1000;0.6024;1.2910;
1214.4000;0.6032;1.2986;
1214.7000;0.6024;1.3011;
1215.0000;0.6015;1.2986;
1215.3000;0.6064;1.3113;
1215.6000;0.6040;1.3037;
1215.9000;0.6015;1.3037;
1216.2000;0.6048;1.3062;
1216.5000;0.6048;1.3011;
1216.8000;0.6024;1.2960;
1217.1000;0.6072;1.3062;
1217.4000;0.6015;1.2935;
1217.7000;0.6032;1.3037;
1218.0000;0.6032;1.3062;
1218.3000;0.5999;1.3011;
1218.6000;0.5999;1.3087;
1218.9000;0.6032;1.3189;
1219.2000;0.6024;1.3214;
1219.5000;0.6007;1.3037;
1219.8000;0.6015;1.3087;
1220.1000;0.5999;1.3011;
1220.4000;0.6032;1.2910;
1220.7000;0.6040;1.2859;
1221.0000;0.6024;1.2732;
1221.3000;0.6064;1.2884;
1221.6000;0.6040;1.2834;
1221.9000;0.6032;1.2758;
1222.2000;0.6040;1.2808;
1222.5000;0.6081;1.2859;
1222.8000;0.6032;1.2783;
1223.1000;0.6040;1.2732;
1223.4000;0.6007;1.2631;
1223.7000;0.6015;1.2783;
1224.0000;0.6024;1.2859;
1224.3000;0.6032;1.2884;
1224.6000;0.6024;1.2884;
1224.9000;0.6048;1.2960;
1225.2000;0.6007;1.2859;
1225.5000;0.6007;1.2935;
1225.8000;0.6032;1.3011;
1226.1000;0.6056;1.3037;
1226.4000;0.6032;1.2910;
1226.7000;0.6040;1.2935;
1227.0000;0.6064;1.3011;
1227.3000;0.6015;1.2935;
1227.6000;0.6015;1.3037;
1227.9000;0.6040;1.3138;
1228.2000;0.6024;1.3037;
1228.5000;0.6024;1.3062;
1228.8000;0.6040;1.3087;
1229.1000;0.6032;1.3087;
1229.4000;0.5999;1.2834;
1229.7000;0.6015;1.2859;
1230.0000;0.5967;1.2732;
1230.3000;0.6015;1.2783;
1230.6000;0.6040;1.2859;
1230.9000;0.6032;1.2758;
1231.2000;0.6024;1.2758;
1231.5000;0.6056;1.2834;
1231.8000;0.6024;1.2884;
1232.1000;0.6040;1.2884;
1232.4000;0.6032;1.2884;
1232.7000;0.6015;1.2935;
1233.0000;0.6015;1.2986;
1233.3000;0.6015;1.3011;
1233.6000;0.6024;1.2960;
1233.9000;0.5926;1.2656;
1234.2000;0.5991;1.2783;
1234.5000;0.6032;1.2808;
1234.8000;0.6024;1.2808;
1235.1000;0.6081;1.2960;
1235.4000;0.6007;1.2732;
1235.7000;0.6032;1.2808;
1236.0000;0.6032;1.2910;
1236.3000;0.6015;1.2859;
1236.6000;0.6032;1.2884;
1236.9000;0.6032;1.2910;
1237.2000;0.6007;1.2808;
1237.5000;0.5999;1.2859;
1237.8000;0.5958;1.2783;
1238.1000;0.6024;1.3037;
1238.4000;0.6032;1.3037;
1238.7000;0.6032;1.2884;
1239.0000;0.6024;1.2732;
1239.3000;0.5999;1.2732;
1239.6000;0.6040;1.2834;
1239.9000;0.6040;1.2808;
1240.2000;0.6048;1.2834;
1240.5000;0.6024;1.2884;
1240.8000;0.6024;1.2986;
1241.1000;0.6007;1.2910;
1241.4000;0.6048;1.2986;
1241.7000;0.6040;1.2935;
1242.0000;0.6024;1.2935;
1242.3000;0.6048;1.3011;
1242.6000;0.6015;1.3087;
1242.9000;0.6015;1.3062;
1243.2000;0.6015;1.3037;
1243.5000;0.6032;1.3087;
1243.8000;0.6007;1.3011;
1244.1000;0.6024;1.3062;
1244.4000;0.6072;1.3239;
1244.7000;0.5999;1.3011;
1245.0000;0.6072;1.3265;
1245.3000;0.6007;1.3113;
1245.6000;0.6024;1.3113;
1245.9000;0.5999;1.3062;
1246.2000;0.6024;1.3138;
1246.5000;0.5983;1.3011;
1246.8000;0.5983;1.2986;
1247.1000;0.6032;1.3138;
1247.4000;0.6089;1.3290;
1247.7000;0.6056;1.3214;
1248.0000;0.6007;1.3163;
1248.3000;0.6024;1.3214;
1248.6000;0.6024;1.3163;
1248.9000;0.5999;1.3113;
1249.2000;0.6015;1.3062;
1249.5000;0.6024;1.3113;
1249.8000;0.6015;1.3037;
1250.1000;0.6105;1.3316;
1250.4000;0.6024;1.2986;
1250.7000;0.5983;1.2910;
1251.0000;0.6007;1.2986;
1251.3000;0.5983;1.2884;
1251.6000;0.6015;1.3062;
1251.9000;0.6048;1.3087;
1252.2000;0.6048;1.3011;
1252.5000;0.6032;1.3011;
1252.8000;0.6064;1.3037;
1253.1000;0.6105;1.3087;
1253.4000;0.6072;1.3037;
1253.7000;0.6015;1.2935;
1254.0000;0.6040;1.2986;
1254.3000;0.6024;1.2960;
1254.6000;0.6032;1.2986;
1254.9000;0.6040;1.3011;
1255.2000;0.6032;1.2935;
1255.5000;0.6032;1.2986;
1255.8000;0.6048;1.3062;
1256.1000;0.5999;1.3011;
1256.4000;0.6024;1.3087;
1256.7000;0.6032;1.3011;
1257.0000;0.6024;1.2986;
1257.3000;0.6040;1.3113;
1257.6000;0.6032;1.2986;
1257.9000;0.5999;1.2834;
1258.2000;0.6032;1.2986;
1258.5000;0.6032;1.3138;
1258.8000;0.6048;1.3163;
1259.1000;0.5991;1.3062;
1259.4000;0.6024;1.3189;
1259.7000;0.5999;1.3062;
1260.0000;0.5999;1.3011;
1260.3000;0.6024;1.2960;
1260.6000;0.5991;1.2884;
1260.9000;0.6024;1.2910;
1261.2000;0.6024;1.2884;
1261.5000;0.5999;1.2808;
1261.8000;0.6024;1.2808;
1262.1000;0.6024;1.2884;
1262.4000;0.6024;1.2960;
1262.7000;0.6024;1.3011;
1263.0000;0.6040;1.3037;
1263.3000;0.6032;1.3011;
1263.6000;0.6064;1.3011;
1263.9000;0.6040;1.3011;
1264.2000;0.6007;1.2986;
1264.5000;0.6024;1.2986;
1264.8000;0.6015;1.3037;
1265.1000;0.6032;1.2986;
1265.4000;0.6032;1.3062;
1265.7000;0.5991;1.2986;
1266.0000;0.6032;1.3087;
1266.3000;0.6072;1.3214;
1266.6000;0.6032;1.3214;
1266.9000;0.6007;1.3113;
1267.2000;0.6007;1.3087;
1267.5000;0.6024;1.3138;
1267.8000;0.6032;1.3062;
1268.1000;0.6040;1.3062;
1268.4000;0.6015;1.3011;
1268.7000;0.6015;1.3062;
1269.0000;0.6146;1.3392;
1269.3000;0.5958;1.2783;
1269.6000;0.6024;1.2986;
1269.9000;0.6032;1.2960;
1270.2000;0.6007;1.2884;
1270.5000;0.6015;1.2859;
1270.8000;0.6040;1.2834;
1271.1000;0.6032;1.2808;
1271.4000;0.6032;1.2834;
1271.7000;0.6024;1.2859;
1272.0000;0.6056;1.2910;
1272.3000;0.6032;1.2910;
1272.6000;0.6040;1.2986;
1272.9000;0.6032;1.2910;
1273.2000;0.6015;1.3011;
1273.5000;0.6007;1.3138;
1273.8000;0.6024;1.3113;
1274.1000;0.6040;1.3163;
1274.4000;0.6048;1.3239;
1274.7000;0.6015;1.3087;
1275.0000;0.6015;1.3189;
1275.3000;0.6024;1.3163;
1275.6000;0.6024;1.3189;
1275.9000;0.5975;1.3113;
1276.2000;0.6015;1.3189;
1276.5000;0.6015;1.3163;
1276.8000;0.6024;1.3163;
1277.1000;0.6007;1.3138;
1277.4000;0.6040;1.3163;
1277.7000;0.6024;1.3087;
1278.0000;0.6015;1.3062;
1278.3000;0.6015;1.2986;
1278.6000;0.6007;1.2859;
1278.9000;0.6032;1.2834;
1279.2000;0.6032;1.2935;
1279.5000;0.6024;1.2834;
1279.8000;0.6007;1.2910;
1280.1000;0.6024;1.2884;
1280.4000;0.6024;1.2884;
1280.7000;0.6007;1.2884;
1281.0000;0.6024;1.2910;
1281.3000;0.6032;1.2935;
1281.6000;0.6040;1.2935;
1281.9000;0.6032;1.3037;
1282.2000;0.6015;1.3037;
1282.5000;0.6024;1.3062;
1282.8000;0.6032;1.3163;
1283.1000;0.5999;1.3062;
1283.4000;0.6024;1.3087;
1283.7000;0.5999;1.2960;
1284.0000;0.6064;1.3138;
1284.3000;0.6032;1.3037;
1284.6000;0.6007;1.3138;
1284.9000;0.5991;1.3062;
1285.2000;0.6024;1.3087;
1285.5000;0.6015;1.3087;
1285.8000;0.6024;1.3087;
1286.1000;0.6015;1.3087;
1286.4000;0.6007;1.3037;
1286.7000;0.6024;1.3163;
1287.0000;0.6024;1.3138;
1287.3000;0.6072;1.3290;
1287.6000;0.6048;1.3163;
1287.9000;0.6015;1.3087;
1288.2000;0.6048;1.3138;
1288.5000;0.6024;1.3163;
1288.8000;0.5934;1.2935;
1289.1000;0.6024;1.3062;
1289.4000;0.6007;1.3037;
1289.7000;0.5999;1.2986;
1290.0000;0.6007;1.3062;
1290.3000;0.6032;1.3113;
1290.6000;0.6024;1.2986;
1290.9000;0.5999;1.2935;
1291.2000;0.6105;1.3214;
1291.5000;0.6015;1.3011;
1291.8000;0.6024;1.3138;
1292.1000;0.6015;1.2986;
1292.4000;0.6015;1.3062;
1292.7000;0.6007;1.3138;
1293.0000;0.6007;1.3062;
1293.3000;0.6032;1.3087;
1293.6000;0.6032;1.3087;
1293.9000;0.6007;1.3087;
1294.2000;0.6024;1.3113;
1294.5000;0.6015;1.3037;
1294.8000;0.6040;1.3062;
1295.1000;0.5999;1.2960;
1295.4000;0.6007;1.3037;
1295.7000;0.6024;1.3011;
1296.0000;0.5991;1.2935;
1296.3000;0.6040;1.3062;
1296.6000;0.6032;1.2960;
1296.9000;0.6072;1.2935;
1297.2000;0.6024;1.2783;
1297.5000;0.6032;1.2758;
1297.8000;0.6097;1.3011;
1298.1000;0.6024;1.2884;
1298.4000;0.6024;1.2910;
1298.7000;0.6032;1.2859;
1299.0000;0.6040;1.2935;
1299.3000;0.6024;1.2986;
1299.6000;0.6040;1.2935;
1299.9000;0.6089;1.3062;
1300.2000;0.6015;1.2859;
1300.5000;0.6032;1.2884;
1300.8000;0.6040;1.2960;
1301.1000;0.6024;1.2986;
1301.4000;0.5999;1.2884;
1301.7000;0.6007;1.2859;
1302.0000;0.6032;1.3011;
1302.3000;0.6032;1.2986;
1302.6000;0.6007;1.3011;
1302.9000;0.6015;1.3062;
1303.2000;0.6032;1.3087;
1303.5000;0.6007;1.2986;
1303.8000;0.6064;1.3113;
1304.1000;0.6007;1.2960;
1304.4000;0.6040;1.2986;
1304.7000;0.6032;1.2986;
1305.0000;0.6007;1.2910;
1305.3000;0.6040;1.2986;
1305.6000;0.6024;1.2910;
1305.9000;0.6015;1.2910;
1306.2000;0.5999;1.2910;
1306.5000;0.6032;1.2960;
1306.8000;0.6007;1.2859;
1307.1000;0.6024;1.2834;
1307.4000;0.6032;1.2910;
1307.7000;0.6024;1.2960;
1308.0000;0.6032;1.2910;
1308.3000;0.6015;1.2834;
1308.6000;0.6015;1.2986;
1308.9000;0.6024;1.3037;
1309.2000;0.6024;1.2960;
1309.5000;0.6040;1.2935;
1309.8000;0.6015;1.2808;
1310.1000;0.6024;1.2910;
1310.4000;0.6015;1.2834;
1310.7000;0.6048;1.2910;
1311.0000;0.6032;1.2884;
1311.3000;0.6040;1.2986;
1311.6000;0.6024;1.2986;
1311.9000;0.6032;1.3011;
1312.2000;0.6056;1.3163;
1312.5000;0.6032;1.3087;
1312.8000;0.6024;1.3011;
1313.1000;0.6024;1.2986;
1313.4000;0.6015;1.2960;
1313.7000;0.6015;1.2986;
1314.0000;0.6015;1.3062;
1314.3000;0.6040;1.3163;
1314.6000;0.6015;1.3087;
1314.9000;0.5991;1.3037;
1315.2000;0.6015;1.2960;
1315.5000;0.6040;1.2935;
1315.8000;0.6024;1.2935;
1316.1000;0.6015;1.2960;
1316.4000;0.6024;1.3062;
1316.7000;0.6007;1.3011;
1317.0000;0.6024;1.2986;
1317.3000;0.6024;1.2986;
1317.6000;0.6015;1.3037;
1317.9000;0.6024;1.3062;
1318.2000;0.6015;1.3062;
1318.5000;0.6015;1.2935;
1318.8000;0.5983;1.2834;
1319.1000;0.6007;1.2884;
1319.4000;0.5999;1.2834;
1319.7000;0.5950;1.2681;
1320.0000;0.5983;1.2681;
1320.3000;0.6024;1.2758;
1320.6000;0.6015;1.2859;
1320.9000;0.6015;1.2986;
1321.2000;0.6015;1.3113;
1321.5000;0.5983;1.3062;
1321.8000;0.6015;1.3138;
1322.1000;0.5999;1.3011;
1322.4000;0.6040;1.3113;
1322.7000;0.6064;1.3163;
1323.0000;0.6178;1.3392;
1323.3000;0.6032;1.3011;
1323.6000;0.6024;1.2960;
1323.9000;0.5999;1.2910;
1324.2000;0.6024;1.2960;
1324.5000;0.6024;1.2935;
1324.8000;0.6015;1.2986;
1325.1000;0.6040;1.3011;
1325.4000;0.6081;1.3113;
1325.7000;0.6064;1.3087;
1326.0000;0.6040;1.2935;
1326.3000;0.6024;1.2910;
1326.6000;0.6015;1.2910;
1326.9000;0.6015;1.3011;
1327.2000;0.6015;1.3062;
1327.5000;0.6015;1.3062;
1327.8000;0.6007;1.3037;
1328.1000;0.6007;1.2960;
1328.4000;0.6007;1.2960;
1328.7000;0.6024;1.2935;
1329.0000;0.6007;1.2834;
1329.3000;0.5991;1.2758;
1329.6000;0.6015;1.2808;
1329.9000;0.6024;1.2834;
1330.2000;0.6024;1.2859;
1330.5000;0.6024;1.2910;
1330.8000;0.5999;1.2808;
1331.1000;0.6024;1.2910;
1331.4000;0.6024;1.2960;
1331.7000;0.6032;1.2986;
1332.0000;0.6015;1.2935;
1332.3000;0.6040;1.2986;
1332.6000;0.6032;1.3011;
1332.9000;0.6040;1.2960;
1333.2000;0.6048;1.2910;
1333.5000;0.6024;1.2884;
1333.8000;0.6032;1.2834;
1334.1000;0.6015;1.2808;
1334.4000;0.6032;1.2808;
1334.7000;0.6015;1.2834;
1335.0000;0.5934;1.2580;
1335.3000;0.5991;1.2732;
1335.6000;0.6007;1.2783;
1335.9000;0.6015;1.2910;
1336.2000;0.5991;1.2834;
1336.5000;0.6024;1.2960;
1336.8000;0.6015;1.3011;
1337.1000;0.5975;1.2935;
1337.4000;0.6015;1.2960;
1337.7000;0.6032;1.2960;
1338.0000;0.6032;1.3037;
1338.3000;0.6015;1.2960;
1338.6000;0.6032;1.3062;
1338.9000;0.6024;1.3163;
1339.2000;0.6007;1.3087;
1339.5000;0.6015;1.3037;
1339.8000;0.6032;1.2960;
1340.1000;0.6032;1.3062;
1340.4000;0.6040;1.3087;
1340.7000;0.6015;1.3037;
1341.0000;0.6015;1.3011;
1341.3000;0.6032;1.3087;
1341.6000;0.6032;1.3113;
1341.9000;0.6032;1.3087;
1342.2000;0.6064;1.3062;
1342.5000;0.6032;1.2986;
1342.8000;0.6040;1.2935;
1343.1000;0.6024;1.2910;
1343.4000;0.6015;1.2935;
1343.7000;0.6040;1.2960;
1344.0000;0.6015;1.2960;
1344.3000;0.6040;1.3062;
1344.6000;0.6024;1.3037;
1344.9000;0.6024;1.3011;
1345.2000;0.6040;1.3011;
1345.5000;0.6024;1.2960;
1345.8000;0.6024;1.3011;
1346.1000;0.6024;1.3087;
1346.4000;0.6048;1.3163;
1346.7000;0.6007;1.3113;
1347.0000;0.6113;1.3316;
1347.3000;0.6048;1.3138;
1347.6000;0.6015;1.3163;
1347.9000;0.6032;1.3189;
1348.2000;0.5999;1.3062;
1348.5000;0.6015;1.3087;
1348.8000;0.6024;1.3138;
1349.1000;0.6072;1.3290;
1349.4000;0.6015;1.3037;
1349.7000;0.6024;1.3163;
1350.0000;0.6015;1.3163;
1350.3000;0.6146;1.3417;
1350.6000;0.6007;1.2986;
1350.9000;0.6015;1.3062;
1351.2000;0.6032;1.3087;
1351.5000;0.6024;1.3011;
1351.8000;0.6015;1.3037;
1352.1000;0.5918;1.2884;
1352.4000;0.6015;1.3113;
1352.7000;0.6032;1.3062;
1353.0000;0.6015;1.3011;
1353.3000;0.6024;1.3037;
1353.6000;0.6024;1.3011;
1353.9000;0.6056;1.3037;
1354.2000;0.6032;1.2960;
1354.5000;0.6032;1.3011;
1354.8000;0.6015;1.3011;
1355.1000;0.6007;1.2986;
1355.4000;0.6007;1.3062;
1355.7000;0.6015;1.3113;
1356.0000;0.6024;1.3189;
1356.3000;0.6015;1.3214;
1356.6000;0.6024;1.3189;
1356.9000;0.5999;1.3113;
1357.2000;0.6015;1.3011;
1357.5000;0.6024;1.3113;
1357.8000;0.6032;1.3189;
1358.1000;0.6040;1.3189;
1358.4000;0.6040;1.3189;
1358.7000;0.6032;1.3113;
1359.0000;0.6015;1.3087;
1359.3000;0.6024;1.3062;
1359.6000;0.6024;1.2986;
1359.9000;0.6007;1.2960;
1360.2000;0.6007;1.2960;
1360.5000;0.6007;1.2910;
1360.8000;0.6007;1.2910;
1361.1000;0.6007;1.2935;
1361.4000;0.6040;1.2935;
1361.7000;0.6015;1.2910;
1362.0000;0.6007;1.2935;
1362.3000;0.6015;1.3037;
1362.6000;0.6024;1.3011;
1362.9000;0.6081;1.3163;
1363.2000;0.6032;1.3138;
1363.5000;0.6032;1.3163;
1363.8000;0.6007;1.3062;
1364.1000;0.6032;1.3214;
1364.4000;0.6032;1.3163;
1364.7000;0.6015;1.3113;
1365.0000;0.6007;1.3062;
1365.3000;0.6024;1.3138;
1365.6000;0.6032;1.3087;
1365.9000;0.6048;1.3163;
1366.2000;0.5999;1.2960;
1366.5000;0.5991;1.2910;
1366.8000;0.6024;1.2884;
1367.1000;0.6040;1.2935;
1367.4000;0.5999;1.2859;
1367.7000;0.5999;1.2935;
1368.0000;0.6024;1.3011;
1368.3000;0.5967;1.2910;
1368.6000;0.6024;1.3062;
1368.9000;0.6032;1.3087;
1369.2000;0.5950;1.2834;
1369.5000;0.6129;1.3366;
1369.8000;0.6121;1.3316;
1370.1000;0.6015;1.3011;
1370.4000;0.6024;1.3062;
1370.7000;0.5942;1.2859;
1371.0000;0.5999;1.3062;
1371.3000;0.6007;1.3062;
1371.6000;0.6015;1.3113;
1371.9000;0.6007;1.3113;
1372.2000;0.6024;1.3062;
1372.5000;0.6007;1.3011;
1372.8000;0.6040;1.3163;
1373.1000;0.5999;1.3163;
1373.4000;0.6040;1.3239;
1373.7000;0.6015;1.3214;
1374.0000;0.6015;1.3138;
1374.3000;0.6024;1.3113;
1374.6000;0.6040;1.3062;
1374.9000;0.6007;1.2960;
1375.2000;0.6040;1.3062;
1375.5000;0.6032;1.3037;
1375.8000;0.5999;1.2935;
1376.1000;0.6121;1.3316;
1376.4000;0.6024;1.3037;
1376.7000;0.6015;1.2910;
1377.0000;0.6015;1.2935;
1377.3000;0.6024;1.3011;
1377.6000;0.6024;1.3011;
1377.9000;0.6024;1.3011;
1378.2000;0.6048;1.3087;
1378.5000;0.6024;1.3062;
1378.8000;0.6007;1.3011;
1379.1000;0.6032;1.3113;
1379.4000;0.6032;1.3062;
1379.7000;0.6032;1.3011;
1380.0000;0.6056;1.3011;
1380.3000;0.6015;1.2986;
1380.6000;0.6040;1.3062;
1380.9000;0.6024;1.3087;
1381.2000;0.6015;1.3087;
1381.5000;0.6032;1.3138;
1381.8000;0.6024;1.3138;
1382.1000;0.6024;1.3087;
1382.4000;0.6048;1.3138;
1382.7000;0.6032;1.3163;
1383.0000;0.6032;1.3239;
1383.3000;0.6032;1.3214;
1383.6000;0.6032;1.3113;
1383.9000;0.6048;1.3113;
1384.2000;0.6024;1.2935;
1384.5000;0.6048;1.3062;
1384.8000;0.6032;1.3037;
1385.1000;0.6024;1.3011;
1385.4000;0.6015;1.2910;
1385.7000;0.6024;1.2960;
1386.0000;0.5991;1.2935;
1386.3000;0.6007;1.2960;
1386.6000;0.5999;1.3011;
1386.9000;0.6024;1.3037;
1387.2000;0.6015;1.3037;
1387.5000;0.6015;1.3113;
1387.8000;0.6024;1.3113;
1388.1000;0.6015;1.3163;
1388.4000;0.6032;1.3138;
1388.7000;0.6040;1.3062;
1389.0000;0.6032;1.3011;
1389.3000;0.6015;1.2960;
1389.6000;0.6024;1.3037;
1389.9000;0.6015;1.3062;
1390.2000;0.6015;1.3011;
1390.5000;0.5991;1.2960;
1390.8000;0.5999;1.2960;
1391.1000;0.6032;1.3062;
1391.4000;0.5918;1.2732;
1391.7000;0.5991;1.2884;
1392.0000;0.6089;1.3037;
1392.3000;0.5991;1.2783;
1392.6000;0.6032;1.2859;
1392.9000;0.6097;1.3011;
1393.2000;0.6024;1.2935;
1393.5000;0.6015;1.2986;
1393.8000;0.5910;1.2605;
1394.1000;0.6032;1.3037;
1394.4000;0.6032;1.2986;
1394.7000;0.6040;1.2910;
1395.0000;0.6032;1.2935;
1395.3000;0.6015;1.2960;
1395.6000;0.6007;1.2834;
1395.9000;0.6015;1.2935;
1396.2000;0.6032;1.2935;
1396.5000;0.6007;1.2859;
1396.8000;0.6015;1.2910;
1397.1000;0.6024;1.2935;
1397.4000;0.6024;1.2960;
1397.7000;0.6024;1.3011;
1398.0000;0.6032;1.2960;
1398.3000;0.6032;1.2935;
1398.6000;0.6040;1.2986;
1398.9000;0.6032;1.2986;
1399.2000;0.6015;1.2910;
1399.5000;0.6032;1.2935;
1399.8000;0.6024;1.2960;
