time/ms;Fluo/V;P700 deltaI/I x10³;
-199.8000;0.6252;1.2200;
-199.5000;0.6268;1.2200;
-199.2000;0.6260;1.2200;
-198.9000;0.6252;1.2149;
-198.6000;0.6268;1.2123;
-198.3000;0.6227;1.2022;
-198.0000;0.6219;1.2022;
-197.7000;0.6292;1.2225;
-197.4000;0.6260;1.2149;
-197.1000;0.6276;1.2174;
-196.8000;0.6260;1.2174;
-196.5000;0.6325;1.2377;
-196.2000;0.6284;1.2225;
-195.9000;0.6260;1.2123;
-195.6000;0.6333;1.2250;
-195.3000;0.6276;1.2174;
-195.0000;0.6284;1.2200;
-194.7000;0.6284;1.2174;
-194.4000;0.6268;1.2098;
-194.1000;0.6186;1.1971;
-193.8000;0.6252;1.2250;
-193.5000;0.6349;1.2529;
-193.2000;0.6260;1.2352;
-192.9000;0.6284;1.2326;
-192.6000;0.6268;1.2377;
-192.3000;0.6268;1.2326;
-192.0000;0.6374;1.2631;
-191.7000;0.6260;1.2326;
-191.4000;0.6284;1.2352;
-191.1000;0.6276;1.2301;
-190.8000;0.6276;1.2276;
-190.5000;0.6268;1.2326;
-190.2000;0.6268;1.2225;
-189.9000;0.6300;1.2225;
-189.6000;0.6268;1.2225;
-189.3000;0.6252;1.2326;
-189.0000;0.6292;1.2352;
-188.7000;0.6243;1.2149;
-188.4000;0.6252;1.2149;
-188.1000;0.6260;1.2174;
-187.8000;0.6227;1.2098;
-187.5000;0.6252;1.2174;
-187.2000;0.6268;1.2073;
-186.9000;0.6268;1.2073;
-186.6000;0.6300;1.2149;
-186.3000;0.6268;1.2047;
-186.0000;0.6268;1.1971;
-185.7000;0.6276;1.1997;
-185.4000;0.6268;1.2047;
-185.1000;0.6276;1.2174;
-184.8000;0.6325;1.2326;
-184.5000;0.6243;1.2174;
-184.2000;0.6284;1.2174;
-183.9000;0.6276;1.2123;
-183.6000;0.6260;1.2073;
-183.3000;0.6276;1.2174;
-183.0000;0.6284;1.2225;
-182.7000;0.6276;1.2225;
-182.4000;0.6276;1.2225;
-182.1000;0.6268;1.2149;
-181.8000;0.6235;1.1946;
-181.5000;0.6260;1.2047;
-181.2000;0.6292;1.2073;
-180.9000;0.6268;1.1971;
-180.6000;0.6260;1.1997;
-180.3000;0.6292;1.2149;
-180.0000;0.6284;1.2149;
-179.7000;0.6243;1.2098;
-179.4000;0.6268;1.2073;
-179.1000;0.6243;1.2047;
-178.8000;0.6276;1.2149;
-178.5000;0.6243;1.2098;
-178.2000;0.6382;1.2402;
-177.9000;0.6260;1.2098;
-177.6000;0.6292;1.2123;
-177.3000;0.6260;1.2022;
-177.0000;0.6300;1.1997;
-176.7000;0.6260;1.1870;
-176.4000;0.6260;1.1845;
-176.1000;0.6252;1.1870;
-175.8000;0.6276;1.1921;
-175.5000;0.6260;1.1819;
-175.2000;0.6284;1.1921;
-174.9000;0.6276;1.1997;
-174.6000;0.6284;1.1971;
-174.3000;0.6260;1.1946;
-174.0000;0.6284;1.2022;
-173.7000;0.6317;1.2098;
-173.4000;0.6260;1.2098;
-173.1000;0.6243;1.2073;
-172.8000;0.6260;1.2022;
-172.5000;0.6300;1.2200;
-172.2000;0.6309;1.2276;
-171.9000;0.6260;1.2301;
-171.6000;0.6227;1.2200;
-171.3000;0.6292;1.2377;
-171.0000;0.6268;1.2326;
-170.7000;0.6260;1.2301;
-170.4000;0.6260;1.2200;
-170.1000;0.6349;1.2402;
-169.8000;0.6284;1.2200;
-169.5000;0.6268;1.2149;
-169.2000;0.6268;1.2149;
-168.9000;0.6268;1.2174;
-168.6000;0.6284;1.2200;
-168.3000;0.6268;1.2123;
-168.0000;0.6268;1.2073;
-167.7000;0.6260;1.1971;
-167.4000;0.6268;1.2022;
-167.1000;0.6268;1.2022;
-166.8000;0.6260;1.1921;
-166.5000;0.6268;1.2022;
-166.2000;0.6292;1.2149;
-165.9000;0.6276;1.2022;
-165.6000;0.6268;1.2047;
-165.3000;0.6252;1.2047;
-165.0000;0.6325;1.2200;
-164.7000;0.6268;1.2098;
-164.4000;0.6268;1.2123;
-164.1000;0.6268;1.2022;
-163.8000;0.6268;1.1971;
-163.5000;0.6268;1.1946;
-163.2000;0.6268;1.1946;
-162.9000;0.6252;1.1921;
-162.6000;0.6284;1.1971;
-162.3000;0.6252;1.1870;
-162.0000;0.6260;1.1870;
-161.7000;0.6268;1.1997;
-161.4000;0.6268;1.2098;
-161.1000;0.6292;1.2149;
-160.8000;0.6284;1.2225;
-160.5000;0.6276;1.2098;
-160.2000;0.6284;1.2149;
-159.9000;0.6252;1.2149;
-159.6000;0.6276;1.2276;
-159.3000;0.6268;1.2250;
-159.0000;0.6276;1.2225;
-158.7000;0.6268;1.2326;
-158.4000;0.6260;1.2225;
-158.1000;0.6260;1.2276;
-157.8000;0.6268;1.2276;
-157.5000;0.6276;1.2377;
-157.2000;0.6276;1.2326;
-156.9000;0.6276;1.2301;
-156.6000;0.6260;1.2352;
-156.3000;0.6252;1.2352;
-156.0000;0.6276;1.2377;
-155.7000;0.6268;1.2352;
-155.4000;0.6276;1.2326;
-155.1000;0.6268;1.2377;
-154.8000;0.6195;1.2174;
-154.5000;0.6276;1.2326;
-154.2000;0.6243;1.2250;
-153.9000;0.6211;1.2225;
-153.6000;0.6284;1.2377;
-153.3000;0.6260;1.2301;
-153.0000;0.6276;1.2276;
-152.7000;0.6268;1.2276;
-152.4000;0.6276;1.2326;
-152.1000;0.6284;1.2352;
-151.8000;0.6268;1.2225;
-151.5000;0.6243;1.2174;
-151.2000;0.6260;1.2352;
-150.9000;0.6195;1.2123;
-150.6000;0.6268;1.2301;
-150.3000;0.6260;1.2200;
-150.0000;0.6276;1.2276;
-149.7000;0.6268;1.2352;
-149.4000;0.6284;1.2479;
-149.1000;0.6252;1.2402;
-148.8000;0.6260;1.2428;
-148.5000;0.6284;1.2479;
-148.2000;0.6268;1.2580;
-147.9000;0.6203;1.2402;
-147.6000;0.6252;1.2479;
-147.3000;0.6284;1.2428;
-147.0000;0.6219;1.2250;
-146.7000;0.6268;1.2276;
-146.4000;0.6268;1.2250;
-146.1000;0.6292;1.2250;
-145.8000;0.6260;1.2225;
-145.5000;0.6284;1.2200;
-145.2000;0.6203;1.2022;
-144.9000;0.6292;1.2301;
-144.6000;0.6268;1.2276;
-144.3000;0.6252;1.2225;
-144.0000;0.6260;1.2225;
-143.7000;0.6260;1.2225;
-143.4000;0.6276;1.2250;
-143.1000;0.6276;1.2276;
-142.8000;0.6268;1.2200;
-142.5000;0.6235;1.2123;
-142.2000;0.6195;1.2022;
-141.9000;0.6300;1.2276;
-141.6000;0.6260;1.2073;
-141.3000;0.6260;1.2098;
-141.0000;0.6252;1.2123;
-140.7000;0.6268;1.2225;
-140.4000;0.6268;1.2352;
-140.1000;0.6252;1.2301;
-139.8000;0.6162;1.2022;
-139.5000;0.6268;1.2326;
-139.2000;0.6260;1.2301;
-138.9000;0.6284;1.2352;
-138.6000;0.6260;1.2250;
-138.3000;0.6276;1.2301;
-138.0000;0.6276;1.2250;
-137.7000;0.6309;1.2377;
-137.4000;0.6268;1.2326;
-137.1000;0.6276;1.2377;
-136.8000;0.6284;1.2250;
-136.5000;0.6309;1.2301;
-136.2000;0.6284;1.2301;
-135.9000;0.6292;1.2326;
-135.6000;0.6276;1.2326;
-135.3000;0.6268;1.2301;
-135.0000;0.6268;1.2301;
-134.7000;0.6268;1.2301;
-134.4000;0.6252;1.2149;
-134.1000;0.6268;1.2200;
-133.8000;0.6276;1.2174;
-133.5000;0.6260;1.2200;
-133.2000;0.6260;1.2200;
-132.9000;0.6268;1.2276;
-132.6000;0.6268;1.2276;
-132.3000;0.6268;1.2301;
-132.0000;0.6260;1.2200;
-131.7000;0.6260;1.2225;
-131.4000;0.6276;1.2276;
-131.1000;0.6276;1.2250;
-130.8000;0.6243;1.2073;
-130.5000;0.6276;1.2047;
-130.2000;0.6268;1.2047;
-129.9000;0.6252;1.1997;
-129.6000;0.6276;1.2174;
-129.3000;0.6292;1.2200;
-129.0000;0.6268;1.2149;
-128.7000;0.6260;1.2200;
-128.4000;0.6252;1.2225;
-128.1000;0.6243;1.2149;
-127.8000;0.6243;1.2123;
-127.5000;0.6317;1.2225;
-127.2000;0.6268;1.2174;
-126.9000;0.6292;1.2200;
-126.6000;0.6268;1.2225;
-126.3000;0.6252;1.2200;
-126.0000;0.6252;1.2301;
-125.7000;0.6276;1.2326;
-125.4000;0.6268;1.2225;
-125.1000;0.6276;1.2301;
-124.8000;0.6268;1.2225;
-124.5000;0.6268;1.2200;
-124.2000;0.6276;1.2174;
-123.9000;0.6195;1.2047;
-123.6000;0.6325;1.2352;
-123.3000;0.6268;1.2200;
-123.0000;0.6260;1.2174;
-122.7000;0.6260;1.2301;
-122.4000;0.6243;1.2301;
-122.1000;0.6260;1.2276;
-121.8000;0.6276;1.2200;
-121.5000;0.6284;1.2174;
-121.2000;0.6243;1.2098;
-120.9000;0.6235;1.2022;
-120.6000;0.6284;1.2174;
-120.3000;0.6276;1.2276;
-120.0000;0.6252;1.2225;
-119.7000;0.6235;1.2123;
-119.4000;0.6276;1.2200;
-119.1000;0.6252;1.2149;
-118.8000;0.6284;1.2149;
-118.5000;0.6276;1.2174;
-118.2000;0.6243;1.2200;
-117.9000;0.6284;1.2301;
-117.6000;0.6268;1.2073;
-117.3000;0.6268;1.2149;
-117.0000;0.6260;1.2149;
-116.7000;0.6309;1.2301;
-116.4000;0.6268;1.2276;
-116.1000;0.6260;1.2301;
-115.8000;0.6203;1.2073;
-115.5000;0.6260;1.2326;
-115.2000;0.6268;1.2326;
-114.9000;0.6292;1.2326;
-114.6000;0.6252;1.2200;
-114.3000;0.6284;1.2276;
-114.0000;0.6284;1.2301;
-113.7000;0.6260;1.2200;
-113.4000;0.6268;1.2301;
-113.1000;0.6260;1.2174;
-112.8000;0.6325;1.2326;
-112.5000;0.6268;1.2123;
-112.2000;0.6268;1.2073;
-111.9000;0.6252;1.1946;
-111.6000;0.6268;1.2047;
-111.3000;0.6292;1.2149;
-111.0000;0.6268;1.2047;
-110.7000;0.6252;1.1971;
-110.4000;0.6252;1.2073;
-110.1000;0.6284;1.2225;
-109.8000;0.6268;1.2098;
-109.5000;0.6276;1.2073;
-109.2000;0.6219;1.1997;
-108.9000;0.6276;1.2250;
-108.6000;0.6292;1.2301;
-108.3000;0.6276;1.2225;
-108.0000;0.6276;1.2250;
-107.7000;0.6268;1.2301;
-107.4000;0.6276;1.2200;
-107.1000;0.6276;1.2200;
-106.8000;0.6276;1.2200;
-106.5000;0.6284;1.2276;
-106.2000;0.6276;1.2225;
-105.9000;0.6260;1.2225;
-105.6000;0.6292;1.2276;
-105.3000;0.6268;1.2250;
-105.0000;0.6284;1.2352;
-104.7000;0.6268;1.2326;
-104.4000;0.6260;1.2301;
-104.1000;0.6243;1.2276;
-103.8000;0.6268;1.2250;
-103.5000;0.6260;1.2200;
-103.2000;0.6227;1.2174;
-102.9000;0.6268;1.2301;
-102.6000;0.6268;1.2301;
-102.3000;0.6268;1.2276;
-102.0000;0.6211;1.2098;
-101.7000;0.6162;1.1895;
-101.4000;0.6260;1.2149;
-101.1000;0.6162;1.1845;
-100.8000;0.6268;1.2047;
-100.5000;0.6284;1.2047;
-100.2000;0.6268;1.1971;
-99.9000;0.6357;1.2174;
-99.6000;0.6268;1.1946;
-99.3000;0.6276;1.2047;
-99.0000;0.6276;1.2098;
-98.7000;0.6309;1.2352;
-98.4000;0.6260;1.2301;
-98.1000;0.6276;1.2301;
-97.8000;0.6276;1.2352;
-97.5000;0.6260;1.2377;
-97.2000;0.6276;1.2479;
-96.9000;0.6268;1.2504;
-96.6000;0.6268;1.2555;
-96.3000;0.6252;1.2504;
-96.0000;0.6284;1.2555;
-95.7000;0.6276;1.2504;
-95.4000;0.6276;1.2504;
-95.1000;0.6268;1.2504;
-94.8000;0.6276;1.2504;
-94.5000;0.6268;1.2479;
-94.2000;0.6260;1.2529;
-93.9000;0.6268;1.2504;
-93.6000;0.6284;1.2555;
-93.3000;0.6276;1.2555;
-93.0000;0.6268;1.2555;
-92.7000;0.6243;1.2453;
-92.4000;0.6260;1.2555;
-92.1000;0.6268;1.2504;
-91.8000;0.6268;1.2453;
-91.5000;0.6268;1.2402;
-91.2000;0.6276;1.2377;
-90.9000;0.6284;1.2529;
-90.6000;0.6227;1.2326;
-90.3000;0.6260;1.2352;
-90.0000;0.6284;1.2352;
-89.7000;0.6292;1.2453;
-89.4000;0.6243;1.2174;
-89.1000;0.6276;1.2276;
-88.8000;0.6243;1.2149;
-88.5000;0.6276;1.2250;
-88.2000;0.6260;1.2225;
-87.9000;0.6260;1.2174;
-87.6000;0.6268;1.2123;
-87.3000;0.6260;1.2123;
-87.0000;0.6260;1.2047;
-86.7000;0.6260;1.2098;
-86.4000;0.6268;1.2123;
-86.1000;0.6284;1.2149;
-85.8000;0.6325;1.2326;
-85.5000;0.6260;1.2200;
-85.2000;0.6276;1.2225;
-84.9000;0.6276;1.2174;
-84.6000;0.6300;1.2123;
-84.3000;0.6178;1.1768;
-84.0000;0.6276;1.1971;
-83.7000;0.6268;1.1921;
-83.4000;0.6292;1.1895;
-83.1000;0.6276;1.1921;
-82.8000;0.6292;1.2073;
-82.5000;0.6268;1.2225;
-82.2000;0.6284;1.2352;
-81.9000;0.6284;1.2250;
-81.6000;0.6276;1.2250;
-81.3000;0.6276;1.2301;
-81.0000;0.6243;1.2200;
-80.7000;0.6260;1.2250;
-80.4000;0.6276;1.2200;
-80.1000;0.6260;1.2047;
-79.8000;0.6260;1.2123;
-79.5000;0.6268;1.2174;
-79.2000;0.6260;1.2174;
-78.9000;0.6195;1.1971;
-78.6000;0.6260;1.2022;
-78.3000;0.6276;1.2149;
-78.0000;0.6268;1.2174;
-77.7000;0.6260;1.2174;
-77.4000;0.6252;1.2149;
-77.1000;0.6260;1.2174;
-76.8000;0.6243;1.2123;
-76.5000;0.6252;1.2174;
-76.2000;0.6252;1.2149;
-75.9000;0.6260;1.2149;
-75.6000;0.6268;1.2149;
-75.3000;0.6260;1.2200;
-75.0000;0.6268;1.2250;
-74.7000;0.6260;1.2276;
-74.4000;0.6219;1.2022;
-74.1000;0.6276;1.2123;
-73.8000;0.6260;1.2225;
-73.5000;0.6284;1.2352;
-73.2000;0.6195;1.2200;
-72.9000;0.6268;1.2326;
-72.6000;0.6252;1.2276;
-72.3000;0.6178;1.1946;
-72.0000;0.6365;1.2504;
-71.7000;0.6243;1.2200;
-71.4000;0.6260;1.2225;
-71.1000;0.6300;1.2402;
-70.8000;0.6268;1.2301;
-70.5000;0.6260;1.2174;
-70.2000;0.6268;1.2174;
-69.9000;0.6325;1.2326;
-69.6000;0.6178;1.2047;
-69.3000;0.6276;1.2250;
-69.0000;0.6211;1.2047;
-68.7000;0.6276;1.2225;
-68.4000;0.6268;1.2301;
-68.1000;0.6382;1.2656;
-67.8000;0.6260;1.2301;
-67.5000;0.6260;1.2301;
-67.2000;0.6252;1.2301;
-66.9000;0.6260;1.2326;
-66.6000;0.6268;1.2250;
-66.3000;0.6243;1.2123;
-66.0000;0.6284;1.2149;
-65.7000;0.6284;1.2098;
-65.4000;0.6260;1.2098;
-65.1000;0.6276;1.2073;
-64.8000;0.6268;1.1971;
-64.5000;0.6268;1.2022;
-64.2000;0.6276;1.1997;
-63.9000;0.6243;1.2022;
-63.6000;0.6268;1.2098;
-63.3000;0.6276;1.2047;
-63.0000;0.6243;1.1921;
-62.7000;0.6292;1.2149;
-62.4000;0.6260;1.2098;
-62.1000;0.6252;1.2047;
-61.8000;0.6268;1.2073;
-61.5000;0.6268;1.2174;
-61.2000;0.6227;1.2149;
-60.9000;0.6260;1.2174;
-60.6000;0.6268;1.2174;
-60.3000;0.6333;1.2352;
-60.0000;0.6268;1.2098;
-59.7000;0.6268;1.2123;
-59.4000;0.6243;1.2123;
-59.1000;0.6268;1.2149;
-58.8000;0.6268;1.2149;
-58.5000;0.6276;1.2149;
-58.2000;0.6268;1.2098;
-57.9000;0.6243;1.2073;
-57.6000;0.6284;1.2174;
-57.3000;0.6268;1.2123;
-57.0000;0.6260;1.2174;
-56.7000;0.6252;1.2174;
-56.4000;0.6284;1.2174;
-56.1000;0.6260;1.2098;
-55.8000;0.6268;1.2123;
-55.5000;0.6284;1.2225;
-55.2000;0.6284;1.2200;
-54.9000;0.6252;1.2098;
-54.6000;0.6260;1.2098;
-54.3000;0.6268;1.2123;
-54.0000;0.6186;1.1921;
-53.7000;0.6276;1.2149;
-53.4000;0.6260;1.2123;
-53.1000;0.6252;1.2047;
-52.8000;0.6268;1.2098;
-52.5000;0.6260;1.2073;
-52.2000;0.6219;1.1946;
-51.9000;0.6195;1.1921;
-51.6000;0.6260;1.2123;
-51.3000;0.6252;1.2174;
-51.0000;0.6260;1.2174;
-50.7000;0.6268;1.2174;
-50.4000;0.6268;1.2174;
-50.1000;0.6252;1.2149;
-49.8000;0.6268;1.2174;
-49.5000;0.6260;1.2225;
-49.2000;0.6317;1.2326;
-48.9000;0.6252;1.2073;
-48.6000;0.6252;1.2073;
-48.3000;0.6260;1.2073;
-48.0000;0.6186;1.1870;
-47.7000;0.6309;1.2174;
-47.4000;0.6260;1.2047;
-47.1000;0.6243;1.1997;
-46.8000;0.6284;1.2022;
-46.5000;0.6276;1.2022;
-46.2000;0.6252;1.1845;
-45.9000;0.6268;1.1895;
-45.6000;0.6227;1.1819;
-45.3000;0.6276;1.1997;
-45.0000;0.6349;1.2301;
-44.7000;0.6260;1.2123;
-44.4000;0.6268;1.2149;
-44.1000;0.6284;1.2174;
-43.8000;0.6268;1.2022;
-43.5000;0.6268;1.1997;
-43.2000;0.6268;1.1997;
-42.9000;0.6276;1.2047;
-42.6000;0.6211;1.1845;
-42.3000;0.6268;1.1946;
-42.0000;0.6252;1.1946;
-41.7000;0.6260;1.1921;
-41.4000;0.6276;1.1997;
-41.1000;0.6260;1.1971;
-40.8000;0.6341;1.2123;
-40.5000;0.6268;1.1921;
-40.2000;0.6268;1.2022;
-39.9000;0.6268;1.2022;
-39.6000;0.6243;1.1971;
-39.3000;0.6276;1.2073;
-39.0000;0.6276;1.2073;
-38.7000;0.6284;1.2098;
-38.4000;0.6284;1.2047;
-38.1000;0.6260;1.1895;
-37.8000;0.6284;1.2022;
-37.5000;0.6276;1.2123;
-37.2000;0.6268;1.2123;
-36.9000;0.6252;1.2047;
-36.6000;0.6243;1.2073;
-36.3000;0.6268;1.2149;
-36.0000;0.6260;1.2123;
-35.7000;0.6268;1.2200;
-35.4000;0.6186;1.1971;
-35.1000;0.6276;1.2149;
-34.8000;0.6268;1.2149;
-34.5000;0.6268;1.2123;
-34.2000;0.6235;1.1997;
-33.9000;0.6325;1.2123;
-33.6000;0.6252;1.1921;
-33.3000;0.6276;1.1997;
-33.0000;0.6357;1.2326;
-32.7000;0.6260;1.2047;
-32.4000;0.6170;1.1768;
-32.1000;0.6260;1.1971;
-31.8000;0.6252;1.1921;
-31.5000;0.6317;1.2098;
-31.2000;0.6260;1.2073;
-30.9000;0.6260;1.2123;
-30.6000;0.6235;1.1971;
-30.3000;0.6268;1.2098;
-30.0000;0.6284;1.2123;
-29.7000;0.6276;1.2123;
-29.4000;0.6276;1.2073;
-29.1000;0.6268;1.2123;
-28.8000;0.6292;1.2047;
-28.5000;0.6276;1.2098;
-28.2000;0.6292;1.2098;
-27.9000;0.6276;1.1971;
-27.6000;0.6219;1.1768;
-27.3000;0.6284;1.1946;
-27.0000;0.6260;1.1895;
-26.7000;0.6252;1.1870;
-26.4000;0.6276;1.1971;
-26.1000;0.6284;1.1921;
-25.8000;0.6276;1.1870;
-25.5000;0.6276;1.1845;
-25.2000;0.6227;1.1692;
-24.9000;0.6309;1.1895;
-24.6000;0.6300;1.1921;
-24.3000;0.6341;1.2098;
-24.0000;0.6243;1.1794;
-23.7000;0.6268;1.1895;
-23.4000;0.6284;1.1946;
-23.1000;0.6268;1.1971;
-22.8000;0.6276;1.2073;
-22.5000;0.6276;1.2098;
-22.2000;0.6276;1.2098;
-21.9000;0.6276;1.1895;
-21.6000;0.6374;1.2149;
-21.3000;0.6284;1.1845;
-21.0000;0.6357;1.2073;
-20.7000;0.6284;1.1946;
-20.4000;0.6268;1.2073;
-20.1000;0.6268;1.2047;
-19.8000;0.6276;1.2098;
-19.5000;0.6268;1.2149;
-19.2000;0.6268;1.2149;
-18.9000;0.6284;1.2200;
-18.6000;0.6252;1.2098;
-18.3000;0.6276;1.2225;
-18.0000;0.6252;1.2098;
-17.7000;0.6268;1.2149;
-17.4000;0.6284;1.2225;
-17.1000;0.6252;1.2123;
-16.8000;0.6276;1.2225;
-16.5000;0.6268;1.2098;
-16.2000;0.6284;1.2098;
-15.9000;0.6268;1.2073;
-15.6000;0.6276;1.2098;
-15.3000;0.6268;1.2047;
-15.0000;0.6260;1.2022;
-14.7000;0.6268;1.2073;
-14.4000;0.6260;1.1946;
-14.1000;0.6276;1.2047;
-13.8000;0.6292;1.2073;
-13.5000;0.6276;1.2022;
-13.2000;0.6309;1.2098;
-12.9000;0.6268;1.1997;
-12.6000;0.6292;1.2098;
-12.3000;0.6276;1.1997;
-12.0000;0.6260;1.1971;
-11.7000;0.6260;1.1997;
-11.4000;0.6211;1.1921;
-11.1000;0.6268;1.2047;
-10.8000;0.6268;1.2073;
-10.5000;0.6284;1.2047;
-10.2000;0.6260;1.2098;
-9.9000;0.6252;1.2022;
-9.6000;0.6268;1.2047;
-9.3000;0.6260;1.2098;
-9.0000;0.6268;1.2073;
-8.7000;0.6268;1.2123;
-8.4000;0.6276;1.2123;
-8.1000;0.6252;1.2073;
-7.8000;0.6325;1.2276;
-7.5000;0.6162;1.1718;
-7.2000;0.6268;1.2073;
-6.9000;0.6268;1.2149;
-6.6000;0.6252;1.1997;
-6.3000;0.6268;1.1971;
-6.0000;0.6276;1.2047;
-5.7000;0.6268;1.2022;
-5.4000;0.6260;1.2123;
-5.1000;0.6268;1.2174;
-4.8000;0.6268;1.2098;
-4.5000;0.6276;1.2123;
-4.2000;0.6276;1.2123;
-3.9000;0.6276;1.2174;
-3.6000;0.6252;1.2073;
-3.3000;0.6276;1.2098;
-3.0000;0.6252;1.1997;
-2.7000;0.6252;1.1895;
-2.4000;0.6268;1.1921;
-2.1000;0.6276;1.1921;
-1.8000;0.6268;1.1971;
-1.5000;0.6268;1.2022;
-1.2000;0.6252;1.1971;
-0.9000;0.6252;1.1997;
-0.6000;0.6268;1.2047;
-0.3000;0.6252;1.2022;
0.0000;0.6252;1.2022;
0.3000;0.6732;1.2504;
0.6000;0.7570;1.3366;
0.9000;0.8197;1.4279;
1.2000;0.8685;1.5040;
1.5000;0.9068;1.5649;
1.8000;0.9394;1.6207;
2.1000;0.9630;1.6613;
2.4000;0.9825;1.6942;
2.7000;1.0004;1.7247;
3.0000;1.0159;1.7450;
3.3000;1.0289;1.7653;
3.6000;1.0403;1.7779;
3.9000;1.0509;1.7906;
4.2000;1.0558;1.7881;
4.5000;1.0712;1.8211;
4.8000;1.0810;1.8388;
5.1000;1.0891;1.8388;
5.4000;1.0973;1.8388;
5.7000;1.1070;1.8490;
6.0000;1.1184;1.8667;
6.3000;1.1241;1.8464;
6.6000;1.1355;1.8566;
6.9000;1.1429;1.8591;
7.2000;1.1510;1.8693;
7.5000;1.1559;1.8540;
7.8000;1.1754;1.8845;
8.1000;1.1705;1.8464;
8.4000;1.1770;1.8464;
8.7000;1.1852;1.8515;
9.0000;1.1917;1.8642;
9.3000;1.2007;1.8693;
9.6000;1.2063;1.8743;
9.9000;1.2145;1.8769;
10.2000;1.2218;1.8769;
10.5000;1.2267;1.8718;
10.8000;1.2324;1.8794;
11.1000;1.2389;1.8845;
11.4000;1.2422;1.8819;
11.7000;1.2511;1.8870;
12.0000;1.2584;1.8895;
12.3000;1.2609;1.8895;
12.6000;1.2674;1.8718;
12.9000;1.2739;1.8616;
13.2000;1.2788;1.8616;
13.5000;1.2837;1.8591;
13.8000;1.2877;1.8490;
14.1000;1.2845;1.8261;
14.4000;1.3040;1.8667;
14.7000;1.3032;1.8515;
15.0000;1.3081;1.8540;
15.3000;1.3105;1.8540;
15.6000;1.3179;1.8616;
15.9000;1.3219;1.8591;
16.2000;1.3252;1.8515;
16.5000;1.3260;1.8540;
16.8000;1.3317;1.8591;
17.1000;1.3350;1.8616;
17.4000;1.3350;1.8439;
17.7000;1.3398;1.8490;
18.0000;1.3439;1.8490;
18.3000;1.3472;1.8464;
18.6000;1.3488;1.8388;
18.9000;1.3529;1.8464;
19.2000;1.3553;1.8490;
19.5000;1.3578;1.8566;
19.8000;1.3602;1.8591;
20.1000;1.3643;1.8642;
20.4000;1.3667;1.8616;
20.7000;1.3683;1.8566;
21.0000;1.3708;1.8566;
21.3000;1.3805;1.8769;
21.6000;1.3740;1.8515;
21.9000;1.3765;1.8591;
22.2000;1.3781;1.8540;
22.5000;1.3797;1.8464;
22.8000;1.3814;1.8464;
23.1000;1.3822;1.8439;
23.4000;1.3919;1.8693;
23.7000;1.3854;1.8616;
24.0000;1.3846;1.8693;
24.3000;1.3903;1.8718;
24.6000;1.3911;1.8743;
24.9000;1.3919;1.8718;
25.2000;1.3903;1.8642;
25.5000;1.3895;1.8566;
25.8000;1.4001;1.8794;
26.1000;1.3985;1.8693;
26.4000;1.3993;1.8616;
26.7000;1.3993;1.8515;
27.0000;1.4001;1.8439;
27.3000;1.4017;1.8540;
27.6000;1.4033;1.8540;
27.9000;1.4042;1.8490;
28.2000;1.4050;1.8388;
28.5000;1.4058;1.8337;
28.8000;1.4074;1.8439;
29.1000;1.4074;1.8363;
29.4000;1.4098;1.8439;
29.7000;1.4123;1.8566;
30.0000;1.4107;1.8566;
30.3000;1.4131;1.8540;
30.6000;1.4115;1.8490;
30.9000;1.4147;1.8464;
31.2000;1.4107;1.8337;
31.5000;1.4147;1.8312;
31.8000;1.4172;1.8363;
32.1000;1.4196;1.8515;
32.4000;1.4147;1.8515;
32.7000;1.4147;1.8540;
33.0000;1.4188;1.8515;
33.3000;1.4196;1.8439;
33.6000;1.4204;1.8388;
33.9000;1.4204;1.8388;
34.2000;1.4204;1.8337;
34.5000;1.4221;1.8388;
34.8000;1.4212;1.8337;
35.1000;1.4261;1.8439;
35.4000;1.4229;1.8388;
35.7000;1.4237;1.8363;
36.0000;1.4253;1.8439;
36.3000;1.4278;1.8540;
36.6000;1.4245;1.8388;
36.9000;1.4269;1.8414;
37.2000;1.4278;1.8363;
37.5000;1.4269;1.8261;
37.8000;1.4269;1.8211;
38.1000;1.4253;1.8135;
38.4000;1.4294;1.8211;
38.7000;1.4278;1.8211;
39.0000;1.4286;1.8261;
39.3000;1.4269;1.8287;
39.6000;1.4294;1.8363;
39.9000;1.4269;1.8287;
40.2000;1.4294;1.8312;
40.5000;1.4302;1.8287;
40.8000;1.4310;1.8337;
41.1000;1.4237;1.8211;
41.4000;1.4318;1.8363;
41.7000;1.4326;1.8236;
42.0000;1.4318;1.8109;
42.3000;1.4335;1.8211;
42.6000;1.4335;1.8261;
42.9000;1.4326;1.8160;
43.2000;1.4335;1.8135;
43.5000;1.4359;1.8160;
43.8000;1.4351;1.8135;
44.1000;1.4351;1.8185;
44.4000;1.4351;1.8236;
44.7000;1.4367;1.8261;
45.0000;1.4367;1.8287;
45.3000;1.4286;1.8008;
45.6000;1.4359;1.8109;
45.9000;1.4302;1.7957;
46.2000;1.4343;1.8008;
46.5000;1.4400;1.8084;
46.8000;1.4335;1.7906;
47.1000;1.4359;1.8058;
47.4000;1.4302;1.7906;
47.7000;1.4408;1.8160;
48.0000;1.4457;1.8337;
48.3000;1.4278;1.7932;
48.6000;1.4408;1.8363;
48.9000;1.4392;1.8312;
49.2000;1.4400;1.8261;
49.5000;1.4424;1.8236;
49.8000;1.4408;1.8236;
50.1000;1.4400;1.8337;
50.4000;1.4416;1.8363;
50.7000;1.4424;1.8287;
51.0000;1.4408;1.8160;
51.3000;1.4416;1.8109;
51.6000;1.4424;1.8084;
51.9000;1.4416;1.8058;
52.2000;1.4432;1.8084;
52.5000;1.4424;1.8033;
52.8000;1.4424;1.8058;
53.1000;1.4424;1.8084;
53.4000;1.4440;1.8135;
53.7000;1.4489;1.8236;
54.0000;1.4449;1.8058;
54.3000;1.4432;1.8008;
54.6000;1.4449;1.8008;
54.9000;1.4432;1.7932;
55.2000;1.4432;1.7932;
55.5000;1.4432;1.7932;
55.8000;1.4449;1.7982;
56.1000;1.4449;1.8008;
56.4000;1.4473;1.8008;
56.7000;1.4457;1.8058;
57.0000;1.4465;1.7932;
57.3000;1.4465;1.7805;
57.6000;1.4473;1.7805;
57.9000;1.4473;1.7932;
58.2000;1.4465;1.7982;
58.5000;1.4465;1.8084;
58.8000;1.4473;1.8211;
59.1000;1.4473;1.8211;
59.4000;1.4489;1.8261;
59.7000;1.4457;1.8084;
60.0000;1.4449;1.7906;
60.3000;1.4473;1.7856;
60.6000;1.4449;1.7703;
60.9000;1.4457;1.7703;
61.2000;1.4497;1.7729;
61.5000;1.4465;1.7602;
61.8000;1.4465;1.7526;
62.1000;1.4481;1.7602;
62.4000;1.4522;1.7779;
62.7000;1.4489;1.7729;
63.0000;1.4473;1.7703;
63.3000;1.4497;1.7729;
63.6000;1.4424;1.7602;
63.9000;1.4489;1.7805;
64.2000;1.4465;1.7779;
64.5000;1.4489;1.7805;
64.8000;1.4489;1.7881;
65.1000;1.4538;1.7932;
65.4000;1.4571;1.8033;
65.7000;1.4497;1.7982;
66.0000;1.4481;1.7932;
66.3000;1.4497;1.7957;
66.6000;1.4497;1.7932;
66.9000;1.4489;1.7805;
67.2000;1.4473;1.7754;
67.5000;1.4522;1.7856;
67.8000;1.4449;1.7577;
68.1000;1.4571;1.7957;
68.4000;1.4465;1.7678;
68.7000;1.4530;1.7830;
69.0000;1.4481;1.7653;
69.3000;1.4497;1.7779;
69.6000;1.4505;1.7754;
69.9000;1.4505;1.7729;
70.2000;1.4522;1.7754;
70.5000;1.4554;1.7703;
70.8000;1.4489;1.7526;
71.1000;1.4522;1.7653;
71.4000;1.4530;1.7729;
71.7000;1.4514;1.7754;
72.0000;1.4546;1.7779;
72.3000;1.4497;1.7577;
72.6000;1.4514;1.7678;
72.9000;1.4530;1.7602;
73.2000;1.4522;1.7551;
73.5000;1.4514;1.7526;
73.8000;1.4538;1.7526;
74.1000;1.4530;1.7602;
74.4000;1.4522;1.7779;
74.7000;1.4538;1.7830;
75.0000;1.4530;1.7754;
75.3000;1.4522;1.7779;
75.6000;1.4530;1.7856;
75.9000;1.4554;1.7830;
76.2000;1.4546;1.7805;
76.5000;1.4546;1.7779;
76.8000;1.4546;1.7754;
77.1000;1.4522;1.7703;
77.4000;1.4530;1.7653;
77.7000;1.4530;1.7653;
78.0000;1.4554;1.7779;
78.3000;1.4546;1.7881;
78.6000;1.4538;1.7830;
78.9000;1.4546;1.7805;
79.2000;1.4514;1.7653;
79.5000;1.4562;1.7779;
79.8000;1.4571;1.7729;
80.1000;1.4579;1.7703;
80.4000;1.4562;1.7729;
80.7000;1.4579;1.7805;
81.0000;1.4579;1.7779;
81.3000;1.4562;1.7703;
81.6000;1.4562;1.7627;
81.9000;1.4571;1.7703;
82.2000;1.4554;1.7551;
82.5000;1.4571;1.7653;
82.8000;1.4538;1.7526;
83.1000;1.4554;1.7577;
83.4000;1.4595;1.7703;
83.7000;1.4538;1.7526;
84.0000;1.4546;1.7653;
84.3000;1.4546;1.7577;
84.6000;1.4554;1.7653;
84.9000;1.4562;1.7729;
85.2000;1.4522;1.7627;
85.5000;1.4562;1.7678;
85.8000;1.4571;1.7805;
86.1000;1.4497;1.7678;
86.4000;1.4530;1.7703;
86.7000;1.4571;1.7805;
87.0000;1.4554;1.7703;
87.3000;1.4554;1.7653;
87.6000;1.4562;1.7602;
87.9000;1.4571;1.7602;
88.2000;1.4562;1.7577;
88.5000;1.4579;1.7729;
88.8000;1.4562;1.7830;
89.1000;1.4611;1.7932;
89.4000;1.4546;1.7779;
89.7000;1.4587;1.7729;
90.0000;1.4562;1.7703;
90.3000;1.4562;1.7779;
90.6000;1.4554;1.7805;
90.9000;1.4538;1.7805;
91.2000;1.4562;1.7830;
91.5000;1.4562;1.7729;
91.8000;1.4554;1.7678;
92.1000;1.4579;1.7703;
92.4000;1.4554;1.7627;
92.7000;1.4579;1.7653;
93.0000;1.4579;1.7602;
93.3000;1.4587;1.7653;
93.6000;1.4579;1.7577;
93.9000;1.4562;1.7602;
94.2000;1.4571;1.7551;
94.5000;1.4579;1.7526;
94.8000;1.4587;1.7526;
95.1000;1.4554;1.7475;
95.4000;1.4579;1.7526;
95.7000;1.4562;1.7399;
96.0000;1.4571;1.7399;
96.3000;1.4587;1.7348;
96.6000;1.4595;1.7298;
96.9000;1.4579;1.7298;
97.2000;1.4587;1.7348;
97.5000;1.4579;1.7323;
97.8000;1.4579;1.7424;
98.1000;1.4554;1.7500;
98.4000;1.4571;1.7551;
98.7000;1.4579;1.7551;
99.0000;1.4579;1.7577;
99.3000;1.4587;1.7551;
99.6000;1.4571;1.7551;
99.9000;1.4587;1.7551;
100.2000;1.4587;1.7551;
100.5000;1.4587;1.7500;
100.8000;1.4579;1.7551;
101.1000;1.4603;1.7703;
101.4000;1.4595;1.7627;
101.7000;1.4587;1.7577;
102.0000;1.4595;1.7551;
102.3000;1.4587;1.7424;
102.6000;1.4595;1.7475;
102.9000;1.4587;1.7450;
103.2000;1.4595;1.7500;
103.5000;1.4603;1.7577;
103.8000;1.4595;1.7577;
104.1000;1.4587;1.7551;
104.4000;1.4587;1.7500;
104.7000;1.4595;1.7602;
105.0000;1.4603;1.7678;
105.3000;1.4595;1.7653;
105.6000;1.4587;1.7577;
105.9000;1.4619;1.7678;
106.2000;1.4611;1.7703;
106.5000;1.4603;1.7703;
106.8000;1.4595;1.7729;
107.1000;1.4603;1.7703;
107.4000;1.4579;1.7627;
107.7000;1.4603;1.7703;
108.0000;1.4587;1.7602;
108.3000;1.4595;1.7577;
108.6000;1.4603;1.7627;
108.9000;1.4660;1.7678;
109.2000;1.4619;1.7627;
109.5000;1.4595;1.7602;
109.8000;1.4611;1.7678;
110.1000;1.4619;1.7678;
110.4000;1.4603;1.7703;
110.7000;1.4595;1.7678;
111.0000;1.4587;1.7627;
111.3000;1.4611;1.7602;
111.6000;1.4587;1.7577;
111.9000;1.4611;1.7551;
112.2000;1.4644;1.7526;
112.5000;1.4611;1.7450;
112.8000;1.4611;1.7424;
113.1000;1.4595;1.7424;
113.4000;1.4587;1.7374;
113.7000;1.4579;1.7450;
114.0000;1.4636;1.7602;
114.3000;1.4587;1.7424;
114.6000;1.4603;1.7424;
114.9000;1.4587;1.7323;
115.2000;1.4628;1.7500;
115.5000;1.4603;1.7450;
115.8000;1.4587;1.7475;
116.1000;1.4603;1.7551;
116.4000;1.4603;1.7526;
116.7000;1.4603;1.7374;
117.0000;1.4587;1.7348;
117.3000;1.4571;1.7247;
117.6000;1.4595;1.7323;
117.9000;1.4587;1.7221;
118.2000;1.4595;1.7323;
118.5000;1.4587;1.7298;
118.8000;1.4603;1.7272;
119.1000;1.4603;1.7272;
119.4000;1.4603;1.7374;
119.7000;1.4595;1.7374;
120.0000;1.4603;1.7424;
120.3000;1.4595;1.7450;
120.6000;1.4595;1.7551;
120.9000;1.4579;1.7450;
121.2000;1.4603;1.7475;
121.5000;1.4611;1.7475;
121.8000;1.4611;1.7577;
122.1000;1.4595;1.7577;
122.4000;1.4611;1.7602;
122.7000;1.4603;1.7551;
123.0000;1.4595;1.7526;
123.3000;1.4554;1.7374;
123.6000;1.4603;1.7577;
123.9000;1.4628;1.7653;
124.2000;1.4611;1.7627;
124.5000;1.4611;1.7577;
124.8000;1.4603;1.7678;
125.1000;1.4595;1.7754;
125.4000;1.4603;1.7703;
125.7000;1.4579;1.7602;
126.0000;1.4603;1.7627;
126.3000;1.4611;1.7653;
126.6000;1.4603;1.7602;
126.9000;1.4595;1.7602;
127.2000;1.4611;1.7653;
127.5000;1.4619;1.7577;
127.8000;1.4652;1.7577;
128.1000;1.4603;1.7450;
128.4000;1.4587;1.7475;
128.7000;1.4685;1.7779;
129.0000;1.4595;1.7500;
129.3000;1.4603;1.7627;
129.6000;1.4595;1.7577;
129.9000;1.4603;1.7653;
130.2000;1.4619;1.7627;
130.5000;1.4595;1.7475;
130.8000;1.4603;1.7399;
131.1000;1.4660;1.7551;
131.4000;1.4628;1.7475;
131.7000;1.4611;1.7500;
132.0000;1.4603;1.7399;
132.3000;1.4579;1.7399;
132.6000;1.4603;1.7424;
132.9000;1.4628;1.7475;
133.2000;1.4611;1.7475;
133.5000;1.4611;1.7450;
133.8000;1.4603;1.7399;
134.1000;1.4611;1.7399;
134.4000;1.4538;1.7095;
134.7000;1.4595;1.7171;
135.0000;1.4587;1.7145;
135.3000;1.4595;1.7145;
135.6000;1.4587;1.7019;
135.9000;1.4571;1.7145;
136.2000;1.4619;1.7272;
136.5000;1.4611;1.7247;
136.8000;1.4636;1.7374;
137.1000;1.4595;1.7323;
137.4000;1.4587;1.7374;
137.7000;1.4595;1.7475;
138.0000;1.4619;1.7450;
138.3000;1.4579;1.7399;
138.6000;1.4611;1.7526;
138.9000;1.4595;1.7500;
139.2000;1.4611;1.7627;
139.5000;1.4611;1.7577;
139.8000;1.4611;1.7602;
140.1000;1.4611;1.7627;
140.4000;1.4619;1.7577;
140.7000;1.4628;1.7500;
141.0000;1.4611;1.7475;
141.3000;1.4619;1.7424;
141.6000;1.4619;1.7424;
141.9000;1.4619;1.7399;
142.2000;1.4579;1.7272;
142.5000;1.4603;1.7374;
142.8000;1.4603;1.7272;
143.1000;1.4636;1.7221;
143.4000;1.4579;1.7196;
143.7000;1.4579;1.7247;
144.0000;1.4538;1.7171;
144.3000;1.4611;1.7348;
144.6000;1.4603;1.7323;
144.9000;1.4611;1.7272;
145.2000;1.4611;1.7298;
145.5000;1.4636;1.7348;
145.8000;1.4611;1.7272;
146.1000;1.4733;1.7500;
146.4000;1.4611;1.7196;
146.7000;1.4619;1.7272;
147.0000;1.4636;1.7323;
147.3000;1.4619;1.7221;
147.6000;1.4595;1.7323;
147.9000;1.4611;1.7298;
148.2000;1.4595;1.7298;
148.5000;1.4611;1.7399;
148.8000;1.4603;1.7475;
149.1000;1.4546;1.7424;
149.4000;1.4603;1.7526;
149.7000;1.4603;1.7424;
150.0000;1.4603;1.7450;
150.3000;1.4611;1.7475;
150.6000;1.4619;1.7602;
150.9000;1.4603;1.7602;
151.2000;1.4595;1.7602;
151.5000;1.4603;1.7551;
151.8000;1.4636;1.7602;
152.1000;1.4587;1.7526;
152.4000;1.4644;1.7500;
152.7000;1.4628;1.7424;
153.0000;1.4587;1.7399;
153.3000;1.4619;1.7500;
153.6000;1.4619;1.7500;
153.9000;1.4595;1.7602;
154.2000;1.4603;1.7577;
154.5000;1.4619;1.7500;
154.8000;1.4603;1.7424;
155.1000;1.4554;1.7247;
155.4000;1.4587;1.7374;
155.7000;1.4603;1.7399;
156.0000;1.4611;1.7374;
156.3000;1.4603;1.7399;
156.6000;1.4619;1.7526;
156.9000;1.4628;1.7627;
157.2000;1.4603;1.7627;
157.5000;1.4603;1.7526;
157.8000;1.4611;1.7399;
158.1000;1.4611;1.7399;
158.4000;1.4611;1.7475;
158.7000;1.4579;1.7374;
159.0000;1.4668;1.7602;
159.3000;1.4611;1.7500;
159.6000;1.4619;1.7500;
159.9000;1.4628;1.7602;
160.2000;1.4611;1.7526;
160.5000;1.4603;1.7526;
160.8000;1.4554;1.7399;
161.1000;1.4611;1.7500;
161.4000;1.4587;1.7424;
161.7000;1.4611;1.7475;
162.0000;1.4611;1.7526;
162.3000;1.4619;1.7577;
162.6000;1.4611;1.7526;
162.9000;1.4554;1.7450;
163.2000;1.4628;1.7678;
163.5000;1.4603;1.7678;
163.8000;1.4611;1.7653;
164.1000;1.4619;1.7602;
164.4000;1.4619;1.7551;
164.7000;1.4644;1.7653;
165.0000;1.4619;1.7551;
165.3000;1.4579;1.7551;
165.6000;1.4595;1.7627;
165.9000;1.4611;1.7602;
166.2000;1.4611;1.7602;
166.5000;1.4603;1.7475;
166.8000;1.4603;1.7526;
167.1000;1.4619;1.7602;
167.4000;1.4595;1.7551;
167.7000;1.4611;1.7577;
168.0000;1.4611;1.7500;
168.3000;1.4579;1.7399;
168.6000;1.4619;1.7526;
168.9000;1.4603;1.7450;
169.2000;1.4587;1.7399;
169.5000;1.4611;1.7374;
169.8000;1.4611;1.7424;
170.1000;1.4611;1.7500;
170.4000;1.4595;1.7475;
170.7000;1.4619;1.7424;
171.0000;1.4619;1.7450;
171.3000;1.4611;1.7475;
171.6000;1.4595;1.7450;
171.9000;1.4595;1.7424;
172.2000;1.4603;1.7424;
172.5000;1.4611;1.7424;
172.8000;1.4611;1.7450;
173.1000;1.4603;1.7450;
173.4000;1.4619;1.7627;
173.7000;1.4611;1.7653;
174.0000;1.4619;1.7653;
174.3000;1.4611;1.7500;
174.6000;1.4603;1.7450;
174.9000;1.4619;1.7500;
175.2000;1.4619;1.7374;
175.5000;1.4668;1.7475;
175.8000;1.4611;1.7399;
176.1000;1.4619;1.7424;
176.4000;1.4611;1.7450;
176.7000;1.4595;1.7475;
177.0000;1.4571;1.7551;
177.3000;1.4644;1.7779;
177.6000;1.4595;1.7703;
177.9000;1.4587;1.7779;
178.2000;1.4595;1.7703;
178.5000;1.4652;1.7729;
178.8000;1.4619;1.7678;
179.1000;1.4562;1.7551;
179.4000;1.4595;1.7577;
179.7000;1.4603;1.7526;
180.0000;1.4644;1.7577;
180.3000;1.4546;1.7348;
180.6000;1.4571;1.7424;
180.9000;1.4619;1.7602;
181.2000;1.4603;1.7500;
181.5000;1.4652;1.7602;
181.8000;1.4603;1.7551;
182.1000;1.4603;1.7551;
182.4000;1.4611;1.7500;
182.7000;1.4595;1.7526;
183.0000;1.4619;1.7551;
183.3000;1.4636;1.7526;
183.6000;1.4603;1.7551;
183.9000;1.4693;1.7805;
184.2000;1.4603;1.7551;
184.5000;1.4611;1.7500;
184.8000;1.4619;1.7577;
185.1000;1.4619;1.7551;
185.4000;1.4628;1.7551;
185.7000;1.4579;1.7475;
186.0000;1.4636;1.7627;
186.3000;1.4579;1.7500;
186.6000;1.4611;1.7577;
186.9000;1.4554;1.7399;
187.2000;1.4619;1.7500;
187.5000;1.4619;1.7577;
187.8000;1.4611;1.7577;
188.1000;1.4611;1.7500;
188.4000;1.4611;1.7500;
188.7000;1.4636;1.7577;
189.0000;1.4619;1.7602;
189.3000;1.4603;1.7577;
189.6000;1.4619;1.7602;
189.9000;1.4636;1.7703;
190.2000;1.4579;1.7577;
190.5000;1.4611;1.7577;
190.8000;1.4595;1.7577;
191.1000;1.4611;1.7577;
191.4000;1.4603;1.7627;
191.7000;1.4603;1.7602;
192.0000;1.4619;1.7653;
192.3000;1.4603;1.7653;
192.6000;1.4611;1.7627;
192.9000;1.4603;1.7602;
193.2000;1.4636;1.7678;
193.5000;1.4603;1.7551;
193.8000;1.4611;1.7653;
194.1000;1.4603;1.7627;
194.4000;1.4562;1.7399;
194.7000;1.4562;1.7348;
195.0000;1.4619;1.7475;
195.3000;1.4611;1.7526;
195.6000;1.4562;1.7399;
195.9000;1.4587;1.7551;
196.2000;1.4611;1.7577;
196.5000;1.4603;1.7602;
196.8000;1.4603;1.7500;
197.1000;1.4587;1.7450;
197.4000;1.4603;1.7500;
197.7000;1.4603;1.7526;
198.0000;1.4595;1.7602;
198.3000;1.4595;1.7678;
198.6000;1.4603;1.7729;
198.9000;1.4733;1.8135;
199.2000;1.4611;1.7932;
199.5000;1.4595;1.7856;
199.8000;1.4595;1.7779;
200.1000;1.4603;1.7805;
200.4000;1.4595;1.7754;
200.7000;1.4595;1.7678;
201.0000;1.4587;1.7602;
201.3000;1.4619;1.7577;
201.6000;1.4595;1.7602;
201.9000;1.4579;1.7526;
202.2000;1.4611;1.7577;
202.5000;1.4611;1.7577;
202.8000;1.4587;1.7526;
203.1000;1.4628;1.7678;
203.4000;1.4611;1.7678;
203.7000;1.4603;1.7653;
204.0000;1.4611;1.7678;
204.3000;1.4619;1.7653;
204.6000;1.4603;1.7627;
204.9000;1.4603;1.7577;
205.2000;1.4603;1.7500;
205.5000;1.4595;1.7577;
205.8000;1.4595;1.7577;
206.1000;1.4611;1.7627;
206.4000;1.4595;1.7551;
206.7000;1.4603;1.7551;
207.0000;1.4595;1.7627;
207.3000;1.4603;1.7627;
207.6000;1.4587;1.7602;
207.9000;1.4619;1.7602;
208.2000;1.4603;1.7526;
208.5000;1.4660;1.7703;
208.8000;1.4595;1.7475;
209.1000;1.4587;1.7500;
209.4000;1.4619;1.7627;
209.7000;1.4562;1.7551;
210.0000;1.4595;1.7703;
210.3000;1.4595;1.7754;
210.6000;1.4603;1.7779;
210.9000;1.4554;1.7602;
211.2000;1.4603;1.7577;
211.5000;1.4587;1.7500;
211.8000;1.4587;1.7450;
212.1000;1.4587;1.7500;
212.4000;1.4579;1.7424;
212.7000;1.4595;1.7424;
213.0000;1.4603;1.7424;
213.3000;1.4595;1.7424;
213.6000;1.4562;1.7348;
213.9000;1.4603;1.7500;
214.2000;1.4595;1.7500;
214.5000;1.4603;1.7526;
214.8000;1.4587;1.7450;
215.1000;1.4587;1.7450;
215.4000;1.4611;1.7475;
215.7000;1.4603;1.7500;
216.0000;1.4587;1.7475;
216.3000;1.4587;1.7500;
216.6000;1.4603;1.7577;
216.9000;1.4611;1.7653;
217.2000;1.4611;1.7678;
217.5000;1.4595;1.7653;
217.8000;1.4579;1.7526;
218.1000;1.4611;1.7653;
218.4000;1.4611;1.7779;
218.7000;1.4587;1.7703;
219.0000;1.4595;1.7729;
219.3000;1.4587;1.7703;
219.6000;1.4587;1.7729;
219.9000;1.4595;1.7678;
220.2000;1.4652;1.7805;
220.5000;1.4603;1.7653;
220.8000;1.4595;1.7627;
221.1000;1.4579;1.7627;
221.4000;1.4522;1.7526;
221.7000;1.4571;1.7602;
222.0000;1.4603;1.7856;
222.3000;1.4595;1.7856;
222.6000;1.4595;1.7805;
222.9000;1.4603;1.7729;
223.2000;1.4603;1.7729;
223.5000;1.4562;1.7729;
223.8000;1.4603;1.7779;
224.1000;1.4603;1.7779;
224.4000;1.4595;1.7779;
224.7000;1.4595;1.7729;
225.0000;1.4571;1.7703;
225.3000;1.4595;1.7627;
225.6000;1.4579;1.7551;
225.9000;1.4595;1.7551;
226.2000;1.4579;1.7424;
226.5000;1.4603;1.7526;
226.8000;1.4587;1.7551;
227.1000;1.4595;1.7627;
227.4000;1.4571;1.7577;
227.7000;1.4587;1.7551;
228.0000;1.4571;1.7551;
228.3000;1.4603;1.7653;
228.6000;1.4587;1.7577;
228.9000;1.4579;1.7577;
229.2000;1.4571;1.7500;
229.5000;1.4579;1.7475;
229.8000;1.4603;1.7500;
230.1000;1.4571;1.7450;
230.4000;1.4571;1.7602;
230.7000;1.4587;1.7703;
231.0000;1.4595;1.7653;
231.3000;1.4652;1.7830;
231.6000;1.4579;1.7729;
231.9000;1.4595;1.7754;
232.2000;1.4587;1.7805;
232.5000;1.4579;1.7754;
232.8000;1.4595;1.7729;
233.1000;1.4595;1.7754;
233.4000;1.4522;1.7602;
233.7000;1.4579;1.7678;
234.0000;1.4587;1.7653;
234.3000;1.4579;1.7627;
234.6000;1.4579;1.7805;
234.9000;1.4571;1.7779;
235.2000;1.4587;1.7678;
235.5000;1.4571;1.7627;
235.8000;1.4571;1.7602;
236.1000;1.4595;1.7678;
236.4000;1.4579;1.7729;
236.7000;1.4587;1.7754;
237.0000;1.4579;1.7729;
237.3000;1.4668;1.7932;
237.6000;1.4579;1.7653;
237.9000;1.4587;1.7602;
238.2000;1.4603;1.7577;
238.5000;1.4587;1.7526;
238.8000;1.4579;1.7551;
239.1000;1.4587;1.7500;
239.4000;1.4611;1.7551;
239.7000;1.4579;1.7526;
240.0000;1.4603;1.7627;
240.3000;1.4571;1.7551;
240.6000;1.4587;1.7577;
240.9000;1.4579;1.7602;
241.2000;1.4579;1.7551;
241.5000;1.4579;1.7577;
241.8000;1.4595;1.7678;
242.1000;1.4554;1.7627;
242.4000;1.4652;1.7856;
242.7000;1.4571;1.7577;
243.0000;1.4595;1.7526;
243.3000;1.4579;1.7602;
243.6000;1.4587;1.7703;
243.9000;1.4562;1.7627;
244.2000;1.4579;1.7703;
244.5000;1.4587;1.7703;
244.8000;1.4530;1.7500;
245.1000;1.4571;1.7653;
245.4000;1.4562;1.7627;
245.7000;1.4554;1.7754;
246.0000;1.4579;1.7754;
246.3000;1.4579;1.7754;
246.6000;1.4571;1.7678;
246.9000;1.4530;1.7526;
247.2000;1.4571;1.7653;
247.5000;1.4571;1.7653;
247.8000;1.4603;1.7653;
248.1000;1.4530;1.7526;
248.4000;1.4554;1.7551;
248.7000;1.4603;1.7577;
249.0000;1.4579;1.7450;
249.3000;1.4579;1.7399;
249.6000;1.4571;1.7500;
249.9000;1.4562;1.7526;
250.2000;1.4489;1.7323;
250.5000;1.4562;1.7475;
250.8000;1.4571;1.7424;
251.1000;1.4587;1.7475;
251.4000;1.4587;1.7500;
251.7000;1.4579;1.7526;
252.0000;1.4571;1.7602;
252.3000;1.4587;1.7653;
252.6000;1.4587;1.7653;
252.9000;1.4579;1.7602;
253.2000;1.4571;1.7653;
253.5000;1.4514;1.7500;
253.8000;1.4587;1.7678;
254.1000;1.4587;1.7678;
254.4000;1.4579;1.7627;
254.7000;1.4595;1.7703;
255.0000;1.4587;1.7627;
255.3000;1.4530;1.7551;
255.6000;1.4579;1.7653;
255.9000;1.4571;1.7653;
256.2000;1.4571;1.7653;
256.5000;1.4571;1.7729;
256.8000;1.4571;1.7627;
257.1000;1.4571;1.7627;
257.4000;1.4595;1.7729;
257.7000;1.4587;1.7754;
258.0000;1.4587;1.7678;
258.3000;1.4489;1.7475;
258.6000;1.4579;1.7627;
258.9000;1.4603;1.7627;
259.2000;1.4562;1.7500;
259.5000;1.4579;1.7602;
259.8000;1.4595;1.7627;
260.1000;1.4579;1.7653;
260.4000;1.4603;1.7729;
260.7000;1.4579;1.7729;
261.0000;1.4579;1.7653;
261.3000;1.4595;1.7703;
261.6000;1.4587;1.7627;
261.9000;1.4562;1.7602;
262.2000;1.4595;1.7703;
262.5000;1.4571;1.7653;
262.8000;1.4579;1.7729;
263.1000;1.4595;1.7729;
263.4000;1.4554;1.7602;
263.7000;1.4579;1.7653;
264.0000;1.4579;1.7526;
264.3000;1.4595;1.7602;
264.6000;1.4587;1.7653;
264.9000;1.4571;1.7678;
265.2000;1.4579;1.7678;
265.5000;1.4562;1.7703;
265.8000;1.4554;1.7653;
266.1000;1.4538;1.7653;
266.4000;1.4554;1.7754;
266.7000;1.4562;1.7830;
267.0000;1.4546;1.7779;
267.3000;1.4514;1.7678;
267.6000;1.4554;1.7729;
267.9000;1.4587;1.7830;
268.2000;1.4554;1.7754;
268.5000;1.4571;1.7678;
268.8000;1.4579;1.7703;
269.1000;1.4587;1.7729;
269.4000;1.4579;1.7678;
269.7000;1.4554;1.7678;
270.0000;1.4562;1.7653;
270.3000;1.4554;1.7627;
270.6000;1.4579;1.7729;
270.9000;1.4579;1.7653;
271.2000;1.4571;1.7678;
271.5000;1.4579;1.7703;
271.8000;1.4562;1.7602;
272.1000;1.4562;1.7526;
272.4000;1.4603;1.7602;
272.7000;1.4587;1.7653;
273.0000;1.4603;1.7754;
273.3000;1.4571;1.7779;
273.6000;1.4595;1.7729;
273.9000;1.4571;1.7805;
274.2000;1.4603;1.7932;
274.5000;1.4546;1.7805;
274.8000;1.4546;1.7856;
275.1000;1.4562;1.7856;
275.4000;1.4554;1.7881;
275.7000;1.4554;1.7881;
276.0000;1.4579;1.7881;
276.3000;1.4546;1.7805;
276.6000;1.4562;1.7830;
276.9000;1.4562;1.7729;
277.2000;1.4562;1.7678;
277.5000;1.4603;1.7881;
277.8000;1.4693;1.8033;
278.1000;1.4579;1.7805;
278.4000;1.4579;1.7805;
278.7000;1.4514;1.7627;
279.0000;1.4546;1.7754;
279.3000;1.4562;1.7805;
279.6000;1.4562;1.7830;
279.9000;1.4514;1.7678;
280.2000;1.4562;1.7779;
280.5000;1.4579;1.7754;
280.8000;1.4571;1.7703;
281.1000;1.4571;1.7653;
281.4000;1.4546;1.7678;
281.7000;1.4595;1.7729;
282.0000;1.4579;1.7653;
282.3000;1.4571;1.7627;
282.6000;1.4554;1.7475;
282.9000;1.4571;1.7526;
283.2000;1.4571;1.7577;
283.5000;1.4571;1.7627;
283.8000;1.4562;1.7602;
284.1000;1.4562;1.7678;
284.4000;1.4554;1.7678;
284.7000;1.4562;1.7703;
285.0000;1.4562;1.7577;
285.3000;1.4554;1.7602;
285.6000;1.4562;1.7577;
285.9000;1.4562;1.7729;
286.2000;1.4571;1.7729;
286.5000;1.4571;1.7779;
286.8000;1.4571;1.7754;
287.1000;1.4579;1.7779;
287.4000;1.4546;1.7678;
287.7000;1.4554;1.7627;
288.0000;1.4571;1.7627;
288.3000;1.4628;1.7703;
288.6000;1.4595;1.7653;
288.9000;1.4579;1.7602;
289.2000;1.4587;1.7678;
289.5000;1.4546;1.7602;
289.8000;1.4562;1.7602;
290.1000;1.4554;1.7653;
290.4000;1.4562;1.7627;
290.7000;1.4546;1.7653;
291.0000;1.4571;1.7779;
291.3000;1.4562;1.7779;
291.6000;1.4562;1.7729;
291.9000;1.4562;1.7805;
292.2000;1.4546;1.7754;
292.5000;1.4554;1.7729;
292.8000;1.4554;1.7754;
293.1000;1.4554;1.7754;
293.4000;1.4505;1.7551;
293.7000;1.4562;1.7653;
294.0000;1.4554;1.7602;
294.3000;1.4562;1.7551;
294.6000;1.4546;1.7627;
294.9000;1.4522;1.7577;
295.2000;1.4530;1.7653;
295.5000;1.4562;1.7653;
295.8000;1.4595;1.7678;
296.1000;1.4644;1.7729;
296.4000;1.4693;1.7881;
296.7000;1.4562;1.7678;
297.0000;1.4562;1.7729;
297.3000;1.4562;1.7779;
297.6000;1.4595;1.7881;
297.9000;1.4579;1.7856;
298.2000;1.4579;1.7881;
298.5000;1.4562;1.7830;
298.8000;1.4562;1.7779;
299.1000;1.4587;1.7856;
299.4000;1.4514;1.7678;
299.7000;1.4562;1.7881;
300.0000;1.4571;1.7856;
300.3000;1.4554;1.7805;
300.6000;1.4554;1.7805;
300.9000;1.4538;1.7678;
301.2000;1.4514;1.7627;
301.5000;1.4546;1.7779;
301.8000;1.4603;1.7932;
302.1000;1.4514;1.7602;
302.4000;1.4538;1.7526;
302.7000;1.4554;1.7602;
303.0000;1.4571;1.7653;
303.3000;1.4546;1.7627;
303.6000;1.4562;1.7729;
303.9000;1.4571;1.7754;
304.2000;1.4538;1.7729;
304.5000;1.4554;1.7754;
304.8000;1.4554;1.7754;
305.1000;1.4538;1.7779;
305.4000;1.4554;1.7881;
305.7000;1.4554;1.7957;
306.0000;1.4571;1.7957;
306.3000;1.4571;1.8008;
306.6000;1.4546;1.7906;
306.9000;1.4538;1.7856;
307.2000;1.4546;1.7906;
307.5000;1.4530;1.7805;
307.8000;1.4571;1.7957;
308.1000;1.4554;1.7906;
308.4000;1.4546;1.7957;
308.7000;1.4538;1.7906;
309.0000;1.4562;1.7906;
309.3000;1.4587;1.7906;
309.6000;1.4554;1.7754;
309.9000;1.4554;1.7627;
310.2000;1.4554;1.7678;
310.5000;1.4546;1.7754;
310.8000;1.4562;1.7881;
311.1000;1.4562;1.7881;
311.4000;1.4562;1.7830;
311.7000;1.4554;1.7830;
312.0000;1.4554;1.7805;
312.3000;1.4571;1.7856;
312.6000;1.4530;1.7906;
312.9000;1.4514;1.7881;
313.2000;1.4571;1.8033;
313.5000;1.4571;1.8084;
313.8000;1.4579;1.8084;
314.1000;1.4562;1.8033;
314.4000;1.4505;1.7906;
314.7000;1.4562;1.7957;
315.0000;1.4530;1.7805;
315.3000;1.4554;1.7881;
315.6000;1.4546;1.7881;
315.9000;1.4554;1.7957;
316.2000;1.4481;1.7754;
316.5000;1.4538;1.7856;
316.8000;1.4522;1.7754;
317.1000;1.4660;1.8109;
317.4000;1.4628;1.8058;
317.7000;1.4530;1.7906;
318.0000;1.4489;1.7805;
318.3000;1.4530;1.7881;
318.6000;1.4530;1.7754;
318.9000;1.4554;1.7703;
319.2000;1.4554;1.7805;
319.5000;1.4554;1.7830;
319.8000;1.4554;1.7856;
320.1000;1.4554;1.7856;
320.4000;1.4562;1.7779;
320.7000;1.4562;1.7856;
321.0000;1.4554;1.7906;
321.3000;1.4571;1.7957;
321.6000;1.4554;1.7906;
321.9000;1.4562;1.7881;
322.2000;1.4546;1.7906;
322.5000;1.4538;1.7906;
322.8000;1.4562;1.7881;
323.1000;1.4562;1.7932;
323.4000;1.4603;1.8109;
323.7000;1.4571;1.7932;
324.0000;1.4554;1.7906;
324.3000;1.4546;1.7856;
324.6000;1.4546;1.7932;
324.9000;1.4546;1.8033;
325.2000;1.4538;1.8033;
325.5000;1.4538;1.8008;
325.8000;1.4554;1.8058;
326.1000;1.4562;1.8160;
326.4000;1.4530;1.8109;
326.7000;1.4546;1.8109;
327.0000;1.4546;1.8084;
327.3000;1.4546;1.7982;
327.6000;1.4554;1.8008;
327.9000;1.4595;1.8185;
328.2000;1.4546;1.7982;
328.5000;1.4554;1.7906;
328.8000;1.4554;1.7856;
329.1000;1.4562;1.7856;
329.4000;1.4546;1.7957;
329.7000;1.4554;1.7982;
330.0000;1.4538;1.8008;
330.3000;1.4538;1.7982;
330.6000;1.4546;1.7982;
330.9000;1.4538;1.7932;
331.2000;1.4546;1.8033;
331.5000;1.4554;1.7932;
331.8000;1.4562;1.7957;
332.1000;1.4538;1.7881;
332.4000;1.4546;1.7906;
332.7000;1.4562;1.7982;
333.0000;1.4514;1.7906;
333.3000;1.4546;1.8033;
333.6000;1.4546;1.8008;
333.9000;1.4554;1.8008;
334.2000;1.4571;1.7957;
334.5000;1.4546;1.7982;
334.8000;1.4505;1.7906;
335.1000;1.4554;1.7957;
335.4000;1.4538;1.7881;
335.7000;1.4554;1.7906;
336.0000;1.4514;1.7729;
336.3000;1.4554;1.7805;
336.6000;1.4562;1.7779;
336.9000;1.4538;1.7703;
337.2000;1.4538;1.7627;
337.5000;1.4530;1.7653;
337.8000;1.4579;1.7856;
338.1000;1.4546;1.7754;
338.4000;1.4514;1.7653;
338.7000;1.4611;1.7982;
339.0000;1.4546;1.7754;
339.3000;1.4546;1.7779;
339.6000;1.4522;1.7779;
339.9000;1.4538;1.7805;
340.2000;1.4554;1.7779;
340.5000;1.4546;1.7779;
340.8000;1.4497;1.7729;
341.1000;1.4546;1.7830;
341.4000;1.4562;1.7932;
341.7000;1.4530;1.7830;
342.0000;1.4440;1.7627;
342.3000;1.4530;1.7881;
342.6000;1.4562;1.8008;
342.9000;1.4546;1.7957;
343.2000;1.4530;1.7830;
343.5000;1.4522;1.7830;
343.8000;1.4538;1.7881;
344.1000;1.4514;1.7856;
344.4000;1.4595;1.7982;
344.7000;1.4514;1.7754;
345.0000;1.4530;1.7805;
345.3000;1.4465;1.7627;
345.6000;1.4538;1.7805;
345.9000;1.4530;1.7805;
346.2000;1.4538;1.7779;
346.5000;1.4562;1.7881;
346.8000;1.4554;1.7830;
347.1000;1.4546;1.7982;
347.4000;1.4538;1.7906;
347.7000;1.4538;1.7932;
348.0000;1.4538;1.7982;
348.3000;1.4554;1.7932;
348.6000;1.4546;1.7957;
348.9000;1.4392;1.7526;
349.2000;1.4554;1.7957;
349.5000;1.4538;1.7932;
349.8000;1.4538;1.7982;
350.1000;1.4538;1.7957;
350.4000;1.4554;1.7957;
350.7000;1.4538;1.7906;
351.0000;1.4546;1.7881;
351.3000;1.4538;1.7906;
351.6000;1.4554;1.8008;
351.9000;1.4546;1.8084;
352.2000;1.4522;1.8109;
352.5000;1.4546;1.8084;
352.8000;1.4530;1.7932;
353.1000;1.4538;1.7982;
353.4000;1.4546;1.7932;
353.7000;1.4522;1.7906;
354.0000;1.4562;1.7982;
354.3000;1.4538;1.7982;
354.6000;1.4538;1.7906;
354.9000;1.4538;1.7881;
355.2000;1.4505;1.7754;
355.5000;1.4562;1.7805;
355.8000;1.4546;1.7830;
356.1000;1.4554;1.7729;
356.4000;1.4562;1.7779;
356.7000;1.4546;1.7779;
357.0000;1.4530;1.7703;
357.3000;1.4530;1.7754;
357.6000;1.4554;1.7856;
357.9000;1.4546;1.7906;
358.2000;1.4554;1.7805;
358.5000;1.4538;1.7779;
358.8000;1.4497;1.7754;
359.1000;1.4538;1.7957;
359.4000;1.4579;1.8008;
359.7000;1.4538;1.7779;
360.0000;1.4530;1.7779;
360.3000;1.4530;1.7729;
360.6000;1.4579;1.7881;
360.9000;1.4530;1.7830;
361.2000;1.4432;1.7602;
361.5000;1.4530;1.7906;
361.8000;1.4530;1.7957;
362.1000;1.4522;1.7957;
362.4000;1.4538;1.7982;
362.7000;1.4457;1.7881;
363.0000;1.4530;1.8135;
363.3000;1.4538;1.8084;
363.6000;1.4628;1.8211;
363.9000;1.4489;1.7881;
364.2000;1.4530;1.8058;
364.5000;1.4579;1.8287;
364.8000;1.4554;1.8261;
365.1000;1.4522;1.8058;
365.4000;1.4522;1.8008;
365.7000;1.4636;1.8363;
366.0000;1.4522;1.8135;
366.3000;1.4530;1.8084;
366.6000;1.4538;1.8033;
366.9000;1.4530;1.8058;
367.2000;1.4522;1.8033;
367.5000;1.4530;1.7906;
367.8000;1.4522;1.7906;
368.1000;1.4530;1.7881;
368.4000;1.4546;1.7805;
368.7000;1.4505;1.7678;
369.0000;1.4522;1.7729;
369.3000;1.4530;1.7779;
369.6000;1.4546;1.7881;
369.9000;1.4554;1.7932;
370.2000;1.4538;1.7881;
370.5000;1.4514;1.7906;
370.8000;1.4546;1.8008;
371.1000;1.4505;1.7830;
371.4000;1.4571;1.8008;
371.7000;1.4619;1.8160;
372.0000;1.4530;1.8033;
372.3000;1.4522;1.7932;
372.6000;1.4505;1.8008;
372.9000;1.4579;1.8236;
373.2000;1.4619;1.8287;
373.5000;1.4522;1.7906;
373.8000;1.4424;1.7577;
374.1000;1.4530;1.7779;
374.4000;1.4530;1.7830;
374.7000;1.4619;1.8211;
375.0000;1.4522;1.7932;
375.3000;1.4522;1.7957;
375.6000;1.4522;1.7932;
375.9000;1.4546;1.8008;
376.2000;1.4530;1.7932;
376.5000;1.4522;1.8008;
376.8000;1.4530;1.7982;
377.1000;1.4530;1.8058;
377.4000;1.4522;1.8058;
377.7000;1.4522;1.7982;
378.0000;1.4522;1.7932;
378.3000;1.4538;1.7932;
378.6000;1.4538;1.8008;
378.9000;1.4522;1.8033;
379.2000;1.4587;1.8135;
379.5000;1.4530;1.8058;
379.8000;1.4554;1.8058;
380.1000;1.4538;1.8084;
380.4000;1.4530;1.8135;
380.7000;1.4538;1.8160;
381.0000;1.4538;1.8033;
381.3000;1.4530;1.8084;
381.6000;1.4514;1.8033;
381.9000;1.4514;1.8033;
382.2000;1.4530;1.8008;
382.5000;1.4554;1.8084;
382.8000;1.4522;1.8033;
383.1000;1.4546;1.8084;
383.4000;1.4505;1.8008;
383.7000;1.4538;1.7982;
384.0000;1.4587;1.8109;
384.3000;1.4530;1.7932;
384.6000;1.4481;1.7906;
384.9000;1.4587;1.8084;
385.2000;1.4457;1.7754;
385.5000;1.4522;1.8008;
385.8000;1.4514;1.7881;
386.1000;1.4538;1.7881;
386.4000;1.4538;1.7906;
386.7000;1.4505;1.7830;
387.0000;1.4514;1.7856;
387.3000;1.4514;1.7881;
387.6000;1.4514;1.7906;
387.9000;1.4530;1.7881;
388.2000;1.4514;1.7856;
388.5000;1.4497;1.7856;
388.8000;1.4522;1.7932;
389.1000;1.4522;1.7932;
389.4000;1.4505;1.7906;
389.7000;1.4546;1.8008;
390.0000;1.4505;1.7932;
390.3000;1.4449;1.7779;
390.6000;1.4514;1.7932;
390.9000;1.4538;1.7982;
391.2000;1.4416;1.7678;
391.5000;1.4505;1.7881;
391.8000;1.4522;1.7982;
392.1000;1.4505;1.7957;
392.4000;1.4416;1.7577;
392.7000;1.4522;1.7856;
393.0000;1.4505;1.7779;
393.3000;1.4530;1.7881;
393.6000;1.4522;1.7881;
393.9000;1.4514;1.7881;
394.2000;1.4530;1.7805;
394.5000;1.4530;1.7729;
394.8000;1.4554;1.7779;
395.1000;1.4522;1.7729;
395.4000;1.4514;1.7805;
395.7000;1.4530;1.7729;
396.0000;1.4538;1.7830;
396.3000;1.4538;1.7906;
396.6000;1.4514;1.7779;
396.9000;1.4497;1.7754;
397.2000;1.4514;1.7678;
397.5000;1.4522;1.7627;
397.8000;1.4465;1.7526;
398.1000;1.4489;1.7551;
398.4000;1.4497;1.7475;
398.7000;1.4530;1.7653;
399.0000;1.4514;1.7602;
399.3000;1.4473;1.7475;
399.6000;1.4514;1.7526;
399.9000;1.4530;1.7627;
400.2000;1.4505;1.7551;
400.5000;1.4489;1.7500;
400.8000;1.4514;1.7526;
401.1000;1.4530;1.7653;
401.4000;1.4522;1.7703;
401.7000;1.4505;1.7805;
402.0000;1.4497;1.7805;
402.3000;1.4473;1.7779;
402.6000;1.4505;1.7906;
402.9000;1.4530;1.7932;
403.2000;1.4514;1.7856;
403.5000;1.4497;1.7881;
403.8000;1.4530;1.7932;
404.1000;1.4522;1.7957;
404.4000;1.4538;1.7957;
404.7000;1.4505;1.7957;
405.0000;1.4522;1.7982;
405.3000;1.4514;1.8008;
405.6000;1.4497;1.8033;
405.9000;1.4530;1.7982;
406.2000;1.4514;1.7982;
406.5000;1.4522;1.8033;
406.8000;1.4505;1.8033;
407.1000;1.4530;1.8033;
407.4000;1.4497;1.7982;
407.7000;1.4522;1.8033;
408.0000;1.4514;1.8033;
408.3000;1.4497;1.8008;
408.6000;1.4530;1.8008;
408.9000;1.4514;1.7957;
409.2000;1.4522;1.7957;
409.5000;1.4449;1.7754;
409.8000;1.4440;1.7830;
410.1000;1.4530;1.7982;
410.4000;1.4530;1.8008;
410.7000;1.4514;1.7982;
411.0000;1.4481;1.7856;
411.3000;1.4514;1.8084;
411.6000;1.4522;1.8058;
411.9000;1.4489;1.7932;
412.2000;1.4481;1.7957;
412.5000;1.4505;1.7957;
412.8000;1.4505;1.7805;
413.1000;1.4505;1.7678;
413.4000;1.4514;1.7729;
413.7000;1.4489;1.7703;
414.0000;1.4514;1.7779;
414.3000;1.4554;1.7957;
414.6000;1.4432;1.7678;
414.9000;1.4505;1.7957;
415.2000;1.4457;1.7906;
415.5000;1.4505;1.8058;
415.8000;1.4497;1.8033;
416.1000;1.4505;1.8058;
416.4000;1.4465;1.8008;
416.7000;1.4505;1.8135;
417.0000;1.4514;1.8135;
417.3000;1.4497;1.8058;
417.6000;1.4562;1.8160;
417.9000;1.4514;1.8008;
418.2000;1.4497;1.7982;
418.5000;1.4505;1.8033;
418.8000;1.4489;1.8058;
419.1000;1.4505;1.8160;
419.4000;1.4497;1.8058;
419.7000;1.4497;1.7982;
420.0000;1.4497;1.7932;
420.3000;1.4514;1.7856;
420.6000;1.4497;1.7779;
420.9000;1.4497;1.7856;
421.2000;1.4473;1.7703;
421.5000;1.4489;1.7856;
421.8000;1.4505;1.7906;
422.1000;1.4449;1.7703;
422.4000;1.4481;1.7856;
422.7000;1.4505;1.7982;
423.0000;1.4505;1.7932;
423.3000;1.4505;1.7881;
423.6000;1.4497;1.7805;
423.9000;1.4497;1.7678;
424.2000;1.4497;1.7703;
424.5000;1.4514;1.7779;
424.8000;1.4505;1.7881;
425.1000;1.4505;1.7906;
425.4000;1.4505;1.7957;
425.7000;1.4514;1.7932;
426.0000;1.4514;1.7856;
426.3000;1.4505;1.7932;
426.6000;1.4473;1.7932;
426.9000;1.4579;1.8236;
427.2000;1.4489;1.8008;
427.5000;1.4489;1.8033;
427.8000;1.4497;1.8058;
428.1000;1.4497;1.7957;
428.4000;1.4514;1.8008;
428.7000;1.4514;1.8033;
429.0000;1.4522;1.8109;
429.3000;1.4505;1.8135;
429.6000;1.4522;1.8135;
429.9000;1.4514;1.8185;
430.2000;1.4497;1.8185;
430.5000;1.4554;1.8185;
430.8000;1.4497;1.8109;
431.1000;1.4505;1.8084;
431.4000;1.4505;1.8058;
431.7000;1.4473;1.7982;
432.0000;1.4489;1.8008;
432.3000;1.4505;1.8008;
432.6000;1.4489;1.7982;
432.9000;1.4465;1.7932;
433.2000;1.4489;1.8033;
433.5000;1.4497;1.8008;
433.8000;1.4562;1.8135;
434.1000;1.4465;1.7881;
434.4000;1.4514;1.7982;
434.7000;1.4522;1.7982;
435.0000;1.4497;1.7932;
435.3000;1.4481;1.7906;
435.6000;1.4481;1.7932;
435.9000;1.4400;1.7729;
436.2000;1.4497;1.8008;
436.5000;1.4505;1.8033;
436.8000;1.4489;1.8033;
437.1000;1.4514;1.8084;
437.4000;1.4514;1.8008;
437.7000;1.4497;1.7906;
438.0000;1.4497;1.8008;
438.3000;1.4473;1.8058;
438.6000;1.4489;1.8109;
438.9000;1.4497;1.8160;
439.2000;1.4481;1.8160;
439.5000;1.4497;1.8160;
439.8000;1.4505;1.8033;
440.1000;1.4505;1.8084;
440.4000;1.4505;1.8160;
440.7000;1.4497;1.8185;
441.0000;1.4497;1.8084;
441.3000;1.4497;1.8135;
441.6000;1.4505;1.8160;
441.9000;1.4497;1.8109;
442.2000;1.4465;1.8058;
442.5000;1.4481;1.8033;
442.8000;1.4473;1.8033;
443.1000;1.4481;1.8084;
443.4000;1.4497;1.8160;
443.7000;1.4481;1.8084;
444.0000;1.4473;1.7957;
444.3000;1.4489;1.7906;
444.6000;1.4514;1.7982;
444.9000;1.4497;1.7957;
445.2000;1.4497;1.8084;
445.5000;1.4489;1.8109;
445.8000;1.4497;1.8008;
446.1000;1.4489;1.7932;
446.4000;1.4489;1.7957;
446.7000;1.4489;1.7982;
447.0000;1.4489;1.7982;
447.3000;1.4473;1.7982;
447.6000;1.4514;1.8033;
447.9000;1.4497;1.8008;
448.2000;1.4505;1.7957;
448.5000;1.4514;1.7957;
448.8000;1.4505;1.7982;
449.1000;1.4505;1.7906;
449.4000;1.4489;1.7906;
449.7000;1.4481;1.7856;
450.0000;1.4489;1.7881;
450.3000;1.4473;1.7856;
450.6000;1.4497;1.7957;
450.9000;1.4505;1.7982;
451.2000;1.4514;1.8033;
451.5000;1.4473;1.7932;
451.8000;1.4489;1.7906;
452.1000;1.4497;1.7906;
452.4000;1.4383;1.7678;
452.7000;1.4489;1.7982;
453.0000;1.4481;1.7957;
453.3000;1.4481;1.7932;
453.6000;1.4497;1.7906;
453.9000;1.4489;1.7906;
454.2000;1.4489;1.7982;
454.5000;1.4449;1.7856;
454.8000;1.4538;1.8058;
455.1000;1.4505;1.7982;
455.4000;1.4473;1.7881;
455.7000;1.4497;1.8033;
456.0000;1.4497;1.8185;
456.3000;1.4505;1.8160;
456.6000;1.4595;1.8261;
456.9000;1.4571;1.8160;
457.2000;1.4489;1.8058;
457.5000;1.4538;1.8160;
457.8000;1.4489;1.8058;
458.1000;1.4473;1.7957;
458.4000;1.4481;1.8084;
458.7000;1.4497;1.8109;
459.0000;1.4473;1.8084;
459.3000;1.4489;1.8160;
459.6000;1.4473;1.8185;
459.9000;1.4497;1.8185;
460.2000;1.4505;1.8135;
460.5000;1.4457;1.7982;
460.8000;1.4497;1.8033;
461.1000;1.4449;1.7881;
461.4000;1.4514;1.8008;
461.7000;1.4481;1.8084;
462.0000;1.4473;1.8084;
462.3000;1.4497;1.8185;
462.6000;1.4457;1.8058;
462.9000;1.4481;1.8084;
463.2000;1.4473;1.8033;
463.5000;1.4489;1.8033;
463.8000;1.4489;1.7932;
464.1000;1.4595;1.8160;
464.4000;1.4481;1.7881;
464.7000;1.4497;1.7932;
465.0000;1.4481;1.7982;
465.3000;1.4514;1.8058;
465.6000;1.4481;1.7982;
465.9000;1.4497;1.8058;
466.2000;1.4481;1.8058;
466.5000;1.4489;1.8084;
466.8000;1.4473;1.8058;
467.1000;1.4489;1.8160;
467.4000;1.4473;1.8160;
467.7000;1.4481;1.8185;
468.0000;1.4465;1.8185;
468.3000;1.4489;1.8211;
468.6000;1.4473;1.8033;
468.9000;1.4481;1.8084;
469.2000;1.4465;1.8084;
469.5000;1.4473;1.8033;
469.8000;1.4489;1.8008;
470.1000;1.4497;1.8109;
470.4000;1.4489;1.8185;
470.7000;1.4489;1.8084;
471.0000;1.4497;1.8185;
471.3000;1.4489;1.8236;
471.6000;1.4505;1.8211;
471.9000;1.4481;1.8160;
472.2000;1.4481;1.8008;
472.5000;1.4473;1.7982;
472.8000;1.4489;1.8033;
473.1000;1.4465;1.7957;
473.4000;1.4457;1.8033;
473.7000;1.4481;1.8008;
474.0000;1.4473;1.7957;
474.3000;1.4505;1.8033;
474.6000;1.4473;1.8033;
474.9000;1.4481;1.8008;
475.2000;1.4530;1.8135;
475.5000;1.4497;1.7932;
475.8000;1.4489;1.7830;
476.1000;1.4497;1.7881;
476.4000;1.4497;1.7906;
476.7000;1.4489;1.7881;
477.0000;1.4489;1.7830;
477.3000;1.4481;1.7779;
477.6000;1.4481;1.7881;
477.9000;1.4473;1.7957;
478.2000;1.4449;1.7932;
478.5000;1.4449;1.7856;
478.8000;1.4473;1.7906;
479.1000;1.4473;1.7957;
479.4000;1.4473;1.7932;
479.7000;1.4473;1.7881;
480.0000;1.4481;1.7906;
480.3000;1.4489;1.8008;
480.6000;1.4497;1.8084;
480.9000;1.4497;1.8058;
481.2000;1.4473;1.8084;
481.5000;1.4473;1.8160;
481.8000;1.4465;1.8135;
482.1000;1.4481;1.8160;
482.4000;1.4473;1.8058;
482.7000;1.4481;1.8084;
483.0000;1.4457;1.8008;
483.3000;1.4473;1.7982;
483.6000;1.4457;1.7982;
483.9000;1.4505;1.8135;
484.2000;1.4481;1.8008;
484.5000;1.4538;1.8109;
484.8000;1.4473;1.7906;
485.1000;1.4481;1.8008;
485.4000;1.4497;1.8135;
485.7000;1.4465;1.8033;
486.0000;1.4465;1.8033;
486.3000;1.4465;1.8058;
486.6000;1.4416;1.7982;
486.9000;1.4481;1.8109;
487.2000;1.4465;1.8185;
487.5000;1.4530;1.8337;
487.8000;1.4481;1.8185;
488.1000;1.4473;1.8109;
488.4000;1.4465;1.8058;
488.7000;1.4473;1.8084;
489.0000;1.4473;1.8008;
489.3000;1.4497;1.8084;
489.6000;1.4473;1.7982;
489.9000;1.4497;1.7982;
490.2000;1.4481;1.8033;
490.5000;1.4481;1.8033;
490.8000;1.4481;1.8033;
491.1000;1.4481;1.8084;
491.4000;1.4465;1.8084;
491.7000;1.4473;1.8084;
492.0000;1.4538;1.8135;
492.3000;1.4481;1.7957;
492.6000;1.4473;1.7881;
492.9000;1.4481;1.7957;
493.2000;1.4473;1.7830;
493.5000;1.4465;1.7805;
493.8000;1.4481;1.7906;
494.1000;1.4489;1.7957;
494.4000;1.4481;1.7906;
494.7000;1.4481;1.7830;
495.0000;1.4457;1.7830;
495.3000;1.4473;1.7982;
495.6000;1.4473;1.8058;
495.9000;1.4457;1.8008;
496.2000;1.4473;1.7957;
496.5000;1.4465;1.7957;
496.8000;1.4481;1.7957;
497.1000;1.4481;1.7906;
497.4000;1.4481;1.7881;
497.7000;1.4465;1.7906;
498.0000;1.4473;1.7982;
498.3000;1.4440;1.7932;
498.6000;1.4465;1.7982;
498.9000;1.4465;1.7982;
499.2000;1.4538;1.8261;
499.5000;1.4473;1.8185;
499.8000;1.4481;1.8211;
500.1000;1.4465;1.8135;
500.4000;1.4465;1.8084;
500.7000;1.4457;1.8135;
501.0000;1.4457;1.8008;
501.3000;1.4465;1.8033;
501.6000;1.4481;1.8008;
501.9000;1.4481;1.7957;
502.2000;1.4473;1.7881;
502.5000;1.4457;1.7932;
502.8000;1.4457;1.7982;
503.1000;1.4473;1.8008;
503.4000;1.4473;1.8033;
503.7000;1.4473;1.7982;
504.0000;1.4473;1.8033;
504.3000;1.4473;1.8261;
504.6000;1.4489;1.8312;
504.9000;1.4424;1.8185;
505.2000;1.4481;1.8261;
505.5000;1.4440;1.8261;
505.8000;1.4530;1.8414;
506.1000;1.4473;1.8261;
506.4000;1.4465;1.8261;
506.7000;1.4465;1.8211;
507.0000;1.4343;1.7856;
507.3000;1.4449;1.8058;
507.6000;1.4424;1.7982;
507.9000;1.4530;1.8160;
508.2000;1.4481;1.7957;
508.5000;1.4522;1.8135;
508.8000;1.4449;1.7957;
509.1000;1.4465;1.8008;
509.4000;1.4432;1.7982;
509.7000;1.4473;1.8058;
510.0000;1.4465;1.8160;
510.3000;1.4481;1.8261;
510.6000;1.4473;1.8185;
510.9000;1.4465;1.8211;
511.2000;1.4457;1.8160;
511.5000;1.4562;1.8566;
511.8000;1.4473;1.8388;
512.1000;1.4481;1.8312;
512.4000;1.4481;1.8261;
512.7000;1.4473;1.8236;
513.0000;1.4465;1.8236;
513.3000;1.4505;1.8312;
513.6000;1.4473;1.8236;
513.9000;1.4432;1.8135;
514.2000;1.4457;1.8185;
514.5000;1.4465;1.8236;
514.8000;1.4465;1.8261;
515.1000;1.4473;1.8211;
515.4000;1.4473;1.8185;
515.7000;1.4481;1.8135;
516.0000;1.4481;1.8236;
516.3000;1.4481;1.8261;
516.6000;1.4457;1.8185;
516.9000;1.4473;1.8135;
517.2000;1.4449;1.8084;
517.5000;1.4481;1.8211;
517.8000;1.4465;1.8211;
518.1000;1.4457;1.8084;
518.4000;1.4473;1.8135;
518.7000;1.4497;1.8185;
519.0000;1.4416;1.7957;
519.3000;1.4440;1.7932;
519.6000;1.4457;1.7957;
519.9000;1.4457;1.7906;
520.2000;1.4473;1.8033;
520.5000;1.4449;1.8008;
520.8000;1.4530;1.8185;
521.1000;1.4473;1.8135;
521.4000;1.4497;1.8211;
521.7000;1.4465;1.8160;
522.0000;1.4473;1.8135;
522.3000;1.4465;1.8109;
522.6000;1.4449;1.8109;
522.9000;1.4457;1.8135;
523.2000;1.4457;1.8135;
523.5000;1.4449;1.8160;
523.8000;1.4514;1.8261;
524.1000;1.4457;1.8160;
524.4000;1.4400;1.8109;
524.7000;1.4457;1.8337;
525.0000;1.4432;1.8261;
525.3000;1.4416;1.8337;
525.6000;1.4392;1.8160;
525.9000;1.4465;1.8312;
526.2000;1.4481;1.8414;
526.5000;1.4465;1.8337;
526.8000;1.4457;1.8287;
527.1000;1.4465;1.8337;
527.4000;1.4457;1.8337;
527.7000;1.4481;1.8337;
528.0000;1.4457;1.8211;
528.3000;1.4465;1.8185;
528.6000;1.4416;1.8236;
528.9000;1.4416;1.8261;
529.2000;1.4432;1.8312;
529.5000;1.4432;1.8337;
529.8000;1.4424;1.8287;
530.1000;1.4440;1.8388;
530.4000;1.4440;1.8287;
530.7000;1.4424;1.8261;
531.0000;1.4440;1.8363;
531.3000;1.4440;1.8388;
531.6000;1.4449;1.8287;
531.9000;1.4440;1.8363;
532.2000;1.4473;1.8464;
532.5000;1.4465;1.8439;
532.8000;1.4440;1.8312;
533.1000;1.4449;1.8312;
533.4000;1.4457;1.8185;
533.7000;1.4465;1.8185;
534.0000;1.4440;1.8185;
534.3000;1.4440;1.8211;
534.6000;1.4457;1.8236;
534.9000;1.4465;1.8236;
535.2000;1.4424;1.8109;
535.5000;1.4440;1.8135;
535.8000;1.4457;1.8135;
536.1000;1.4457;1.8160;
536.4000;1.4473;1.8236;
536.7000;1.4465;1.8185;
537.0000;1.4457;1.8236;
537.3000;1.4465;1.8236;
537.6000;1.4457;1.8135;
537.9000;1.4481;1.8236;
538.2000;1.4449;1.8109;
538.5000;1.4432;1.8033;
538.8000;1.4457;1.8058;
539.1000;1.4457;1.8033;
539.4000;1.4449;1.8160;
539.7000;1.4497;1.8287;
540.0000;1.4449;1.8084;
540.3000;1.4440;1.8033;
540.6000;1.4449;1.8185;
540.9000;1.4449;1.8211;
541.2000;1.4473;1.8287;
541.5000;1.4465;1.8261;
541.8000;1.4473;1.8236;
542.1000;1.4440;1.8185;
542.4000;1.4465;1.8160;
542.7000;1.4489;1.8363;
543.0000;1.4457;1.8185;
543.3000;1.4457;1.8211;
543.6000;1.4465;1.8185;
543.9000;1.4473;1.8236;
544.2000;1.4465;1.8185;
544.5000;1.4449;1.8185;
544.8000;1.4457;1.8261;
545.1000;1.4465;1.8337;
545.4000;1.4465;1.8287;
545.7000;1.4449;1.8261;
546.0000;1.4449;1.8337;
546.3000;1.4359;1.8084;
546.6000;1.4457;1.8312;
546.9000;1.4465;1.8363;
547.2000;1.4457;1.8312;
547.5000;1.4457;1.8261;
547.8000;1.4489;1.8388;
548.1000;1.4465;1.8236;
548.4000;1.4457;1.8236;
548.7000;1.4457;1.8261;
549.0000;1.4392;1.8058;
549.3000;1.4514;1.8414;
549.6000;1.4392;1.8008;
549.9000;1.4457;1.8185;
550.2000;1.4432;1.7982;
550.5000;1.4465;1.8008;
550.8000;1.4440;1.7932;
551.1000;1.4449;1.7957;
551.4000;1.4457;1.8008;
551.7000;1.4424;1.8084;
552.0000;1.4416;1.7982;
552.3000;1.4416;1.8058;
552.6000;1.4432;1.8109;
552.9000;1.4408;1.8033;
553.2000;1.4440;1.8058;
553.5000;1.4408;1.7881;
553.8000;1.4424;1.7881;
554.1000;1.4449;1.7881;
554.4000;1.4440;1.7932;
554.7000;1.4424;1.8008;
555.0000;1.4457;1.8211;
555.3000;1.4457;1.8160;
555.6000;1.4408;1.8058;
555.9000;1.4449;1.8160;
556.2000;1.4457;1.8236;
556.5000;1.4497;1.8439;
556.8000;1.4465;1.8337;
557.1000;1.4449;1.8312;
557.4000;1.4432;1.8337;
557.7000;1.4440;1.8337;
558.0000;1.4457;1.8388;
558.3000;1.4481;1.8287;
558.6000;1.4457;1.8211;
558.9000;1.4465;1.8160;
559.2000;1.4473;1.8211;
559.5000;1.4432;1.8135;
559.8000;1.4449;1.8211;
560.1000;1.4457;1.8261;
560.4000;1.4440;1.8185;
560.7000;1.4432;1.8236;
561.0000;1.4432;1.8236;
561.3000;1.4440;1.8337;
561.6000;1.4587;1.8667;
561.9000;1.4457;1.8337;
562.2000;1.4449;1.8363;
562.5000;1.4457;1.8439;
562.8000;1.4465;1.8439;
563.1000;1.4449;1.8414;
563.4000;1.4432;1.8388;
563.7000;1.4424;1.8363;
564.0000;1.4440;1.8363;
564.3000;1.4457;1.8414;
564.6000;1.4424;1.8312;
564.9000;1.4408;1.8261;
565.2000;1.4497;1.8363;
565.5000;1.4449;1.8109;
565.8000;1.4392;1.7982;
566.1000;1.4432;1.8160;
566.4000;1.4449;1.8135;
566.7000;1.4440;1.8033;
567.0000;1.4440;1.8135;
567.3000;1.4440;1.8185;
567.6000;1.4432;1.8135;
567.9000;1.4440;1.8185;
568.2000;1.4440;1.8337;
568.5000;1.4432;1.8363;
568.8000;1.4408;1.8312;
569.1000;1.4440;1.8363;
569.4000;1.4440;1.8363;
569.7000;1.4449;1.8439;
570.0000;1.4424;1.8388;
570.3000;1.4449;1.8388;
570.6000;1.4440;1.8312;
570.9000;1.4449;1.8236;
571.2000;1.4440;1.8236;
571.5000;1.4440;1.8236;
571.8000;1.4432;1.8211;
572.1000;1.4457;1.8236;
572.4000;1.4449;1.8236;
572.7000;1.4449;1.8211;
573.0000;1.4449;1.8337;
573.3000;1.4497;1.8464;
573.6000;1.4440;1.8287;
573.9000;1.4440;1.8312;
574.2000;1.4440;1.8287;
574.5000;1.4440;1.8287;
574.8000;1.4424;1.8211;
575.1000;1.4440;1.8211;
575.4000;1.4432;1.8236;
575.7000;1.4432;1.8363;
576.0000;1.4554;1.8794;
576.3000;1.4440;1.8439;
576.6000;1.4449;1.8439;
576.9000;1.4465;1.8515;
577.2000;1.4424;1.8363;
577.5000;1.4375;1.8211;
577.8000;1.4424;1.8287;
578.1000;1.4432;1.8287;
578.4000;1.4424;1.8287;
578.7000;1.4432;1.8287;
579.0000;1.4424;1.8211;
579.3000;1.4457;1.8287;
579.6000;1.4440;1.8211;
579.9000;1.4440;1.8160;
580.2000;1.4416;1.8185;
580.5000;1.4457;1.8033;
580.8000;1.4432;1.8008;
581.1000;1.4440;1.8008;
581.4000;1.4432;1.7932;
581.7000;1.4440;1.7932;
582.0000;1.4400;1.7932;
582.3000;1.4440;1.8058;
582.6000;1.4571;1.8464;
582.9000;1.4440;1.8211;
583.2000;1.4457;1.8261;
583.5000;1.4432;1.8236;
583.8000;1.4424;1.8160;
584.1000;1.4432;1.8236;
584.4000;1.4416;1.8236;
584.7000;1.4457;1.8363;
585.0000;1.4408;1.8363;
585.3000;1.4440;1.8363;
585.6000;1.4449;1.8261;
585.9000;1.4440;1.8287;
586.2000;1.4481;1.8363;
586.5000;1.4424;1.8160;
586.8000;1.4465;1.8236;
587.1000;1.4449;1.8084;
587.4000;1.4383;1.8008;
587.7000;1.4465;1.8312;
588.0000;1.4465;1.8312;
588.3000;1.4432;1.8135;
588.6000;1.4449;1.8058;
588.9000;1.4449;1.8084;
589.2000;1.4383;1.7982;
589.5000;1.4432;1.8135;
589.8000;1.4497;1.8363;
590.1000;1.4449;1.8236;
590.4000;1.4416;1.8160;
590.7000;1.4424;1.8287;
591.0000;1.4400;1.8160;
591.3000;1.4408;1.8236;
591.6000;1.4424;1.8312;
591.9000;1.4432;1.8363;
592.2000;1.4424;1.8337;
592.5000;1.4449;1.8287;
592.8000;1.4424;1.8135;
593.1000;1.4416;1.8135;
593.4000;1.4375;1.8058;
593.7000;1.4424;1.8211;
594.0000;1.4416;1.8236;
594.3000;1.4375;1.8109;
594.6000;1.4457;1.8312;
594.9000;1.4449;1.8312;
595.2000;1.4440;1.8312;
595.5000;1.4400;1.8084;
595.8000;1.4449;1.8185;
596.1000;1.4465;1.8312;
596.4000;1.4424;1.8287;
596.7000;1.4449;1.8287;
597.0000;1.4457;1.8337;
597.3000;1.4473;1.8312;
597.6000;1.4473;1.8337;
597.9000;1.4408;1.8135;
598.2000;1.4424;1.8236;
598.5000;1.4432;1.8236;
598.8000;1.4351;1.8058;
599.1000;1.4416;1.8287;
599.4000;1.4416;1.8337;
599.7000;1.4424;1.8337;
600.0000;1.4432;1.8414;
600.3000;1.4432;1.8312;
600.6000;1.4408;1.8058;
600.9000;1.4335;1.7932;
601.2000;1.4188;1.7602;
601.5000;1.4066;1.7323;
601.8000;1.3944;1.7196;
602.1000;1.3781;1.6790;
602.4000;1.3626;1.6562;
602.7000;1.3480;1.6283;
603.0000;1.3358;1.6080;
603.3000;1.3203;1.5826;
603.6000;1.3097;1.5750;
603.9000;1.3000;1.5624;
604.2000;1.2861;1.5471;
604.5000;1.2739;1.5269;
604.8000;1.2625;1.5091;
605.1000;1.2536;1.4888;
605.4000;1.2422;1.4711;
605.7000;1.2332;1.4634;
606.0000;1.2234;1.4558;
606.3000;1.2161;1.4584;
606.6000;1.2104;1.4533;
606.9000;1.1982;1.4330;
607.2000;1.1909;1.4229;
607.5000;1.1844;1.4153;
607.8000;1.1754;1.4102;
608.1000;1.1673;1.4000;
608.4000;1.1624;1.3975;
608.7000;1.1534;1.3924;
609.0000;1.1477;1.3899;
609.3000;1.1388;1.3797;
609.6000;1.1388;1.3874;
609.9000;1.1298;1.3696;
610.2000;1.1217;1.3544;
610.5000;1.1144;1.3468;
610.8000;1.1079;1.3366;
611.1000;1.1022;1.3366;
611.4000;1.0989;1.3417;
611.7000;1.0924;1.3341;
612.0000;1.0842;1.3316;
612.3000;1.0794;1.3290;
612.6000;1.0729;1.3214;
612.9000;1.0704;1.3163;
613.2000;1.0582;1.2986;
613.5000;1.0582;1.3214;
613.8000;1.0525;1.3239;
614.1000;1.0574;1.3417;
614.4000;1.0444;1.3239;
614.7000;1.0370;1.3138;
615.0000;1.0305;1.2884;
615.3000;1.0281;1.2859;
615.6000;1.0224;1.2884;
615.9000;1.0183;1.2910;
616.2000;1.0167;1.2910;
616.5000;1.0102;1.2808;
616.8000;1.0053;1.2783;
617.1000;1.0020;1.2783;
617.4000;0.9996;1.2758;
617.7000;0.9972;1.2783;
618.0000;0.9931;1.2732;
618.3000;0.9874;1.2681;
618.6000;0.9833;1.2656;
618.9000;0.9801;1.2656;
619.2000;0.9768;1.2656;
619.5000;0.9703;1.2656;
619.8000;0.9695;1.2681;
620.1000;0.9540;1.2428;
620.4000;0.9548;1.2428;
620.7000;0.9565;1.2479;
621.0000;0.9556;1.2479;
621.3000;0.9548;1.2529;
621.6000;0.9467;1.2402;
621.9000;0.9459;1.2352;
622.2000;0.9418;1.2326;
622.5000;0.9377;1.2326;
622.8000;0.9377;1.2428;
623.1000;0.9320;1.2352;
623.4000;0.9288;1.2276;
623.7000;0.9377;1.2580;
624.0000;0.9263;1.2326;
624.3000;0.9206;1.2276;
624.6000;0.9182;1.2301;
624.9000;0.9149;1.2276;
625.2000;0.9158;1.2402;
625.5000;0.9092;1.2301;
625.8000;0.9092;1.2377;
626.1000;0.9068;1.2326;
626.4000;0.8995;1.2073;
626.7000;0.9011;1.2225;
627.0000;0.8987;1.2149;
627.3000;0.8954;1.2073;
627.6000;0.9011;1.2200;
627.9000;0.8921;1.2047;
628.2000;0.8873;1.1997;
628.5000;0.8881;1.2073;
628.8000;0.8913;1.2276;
629.1000;0.8840;1.2149;
629.4000;0.8856;1.2200;
629.7000;0.8783;1.2047;
630.0000;0.8759;1.2073;
630.3000;0.8742;1.2149;
630.6000;0.8734;1.2123;
630.9000;0.8710;1.2123;
631.2000;0.8694;1.2098;
631.5000;0.8669;1.2047;
631.8000;0.8653;1.2098;
632.1000;0.8628;1.2098;
632.4000;0.8604;1.2022;
632.7000;0.8596;1.1971;
633.0000;0.8580;1.1946;
633.3000;0.8563;1.1768;
633.6000;0.8547;1.1819;
633.9000;0.8506;1.1845;
634.2000;0.8571;1.1946;
634.5000;0.8498;1.1768;
634.8000;0.8466;1.1819;
635.1000;0.8441;1.1819;
635.4000;0.8425;1.1870;
635.7000;0.8425;1.1921;
636.0000;0.8392;1.1870;
636.3000;0.8400;1.1895;
636.6000;0.8376;1.1946;
636.9000;0.8352;1.1921;
637.2000;0.8344;1.1895;
637.5000;0.8319;1.1921;
637.8000;0.8311;1.1946;
638.1000;0.8311;1.1921;
638.4000;0.8278;1.1794;
638.7000;0.8270;1.1819;
639.0000;0.8270;1.1845;
639.3000;0.8287;1.1845;
639.6000;0.8287;1.1794;
639.9000;0.8205;1.1616;
640.2000;0.8213;1.1566;
640.5000;0.8254;1.1667;
640.8000;0.8189;1.1540;
641.1000;0.8181;1.1692;
641.4000;0.8156;1.1642;
641.7000;0.8156;1.1743;
642.0000;0.8156;1.1743;
642.3000;0.8140;1.1768;
642.6000;0.8002;1.1489;
642.9000;0.8099;1.1794;
643.2000;0.8221;1.2250;
643.5000;0.8026;1.1743;
643.8000;0.8059;1.1845;
644.1000;0.8164;1.2073;
644.4000;0.8026;1.1743;
644.7000;0.8018;1.1718;
645.0000;0.7993;1.1692;
645.3000;0.8018;1.1667;
645.6000;0.7993;1.1667;
645.9000;0.7985;1.1692;
646.2000;0.7961;1.1667;
646.5000;0.7831;1.1363;
646.8000;0.7969;1.1794;
647.1000;0.7969;1.1921;
647.4000;0.7945;1.1895;
647.7000;0.7928;1.1921;
648.0000;0.7904;1.1845;
648.3000;0.7904;1.1819;
648.6000;0.7855;1.1667;
648.9000;0.7871;1.1667;
649.2000;0.7847;1.1642;
649.5000;0.7855;1.1718;
649.8000;0.7855;1.1768;
650.1000;0.7847;1.1794;
650.4000;0.7839;1.1819;
650.7000;0.7839;1.1845;
651.0000;0.7806;1.1870;
651.3000;0.7798;1.1870;
651.6000;0.7774;1.1845;
651.9000;0.7790;1.1845;
652.2000;0.7790;1.1845;
652.5000;0.7782;1.1845;
652.8000;0.7766;1.1692;
653.1000;0.7733;1.1667;
653.4000;0.7741;1.1718;
653.7000;0.7733;1.1718;
654.0000;0.7709;1.1642;
654.3000;0.7733;1.1667;
654.6000;0.7725;1.1718;
654.9000;0.7692;1.1692;
655.2000;0.7700;1.1718;
655.5000;0.7684;1.1692;
655.8000;0.7684;1.1718;
656.1000;0.7709;1.1845;
656.4000;0.7652;1.1743;
656.7000;0.7660;1.1768;
657.0000;0.7635;1.1743;
657.3000;0.7619;1.1768;
657.6000;0.7652;1.1870;
657.9000;0.7676;1.1946;
658.2000;0.7652;1.1845;
658.5000;0.7611;1.1794;
658.8000;0.7652;1.1895;
659.1000;0.7611;1.1845;
659.4000;0.7595;1.1870;
659.7000;0.7513;1.1642;
660.0000;0.7578;1.1870;
660.3000;0.7562;1.1921;
660.6000;0.7562;1.1971;
660.9000;0.7562;1.1971;
661.2000;0.7554;1.1895;
661.5000;0.7530;1.1794;
661.8000;0.7538;1.1845;
662.1000;0.7538;1.1921;
662.4000;0.7505;1.1895;
662.7000;0.7530;1.1895;
663.0000;0.7513;1.1921;
663.3000;0.7497;1.1895;
663.6000;0.7513;1.1921;
663.9000;0.7464;1.1895;
664.2000;0.7473;1.1895;
664.5000;0.7456;1.1819;
664.8000;0.7448;1.1718;
665.1000;0.7464;1.1743;
665.4000;0.7456;1.1718;
665.7000;0.7383;1.1591;
666.0000;0.7456;1.1895;
666.3000;0.7464;1.1921;
666.6000;0.7513;1.2073;
666.9000;0.7440;1.1845;
667.2000;0.7424;1.1794;
667.5000;0.7456;1.1946;
667.8000;0.7432;1.1895;
668.1000;0.7399;1.1794;
668.4000;0.7432;1.1870;
668.7000;0.7424;1.1819;
669.0000;0.7383;1.1692;
669.3000;0.7359;1.1667;
669.6000;0.7391;1.1819;
669.9000;0.7367;1.1667;
670.2000;0.7375;1.1743;
670.5000;0.7350;1.1743;
670.8000;0.7350;1.1819;
671.1000;0.7326;1.1819;
671.4000;0.7342;1.1921;
671.7000;0.7367;1.1971;
672.0000;0.7359;1.1946;
672.3000;0.7359;1.1895;
672.6000;0.7342;1.1971;
672.9000;0.7334;1.1946;
673.2000;0.7334;1.1895;
673.5000;0.7326;1.1946;
673.8000;0.7326;1.1921;
674.1000;0.7277;1.1819;
674.4000;0.7285;1.1718;
674.7000;0.7310;1.1718;
675.0000;0.7302;1.1692;
675.3000;0.7318;1.1743;
675.6000;0.7285;1.1794;
675.9000;0.7293;1.1895;
676.2000;0.7277;1.1971;
676.5000;0.7277;1.2047;
676.8000;0.7269;1.1997;
677.1000;0.7269;1.1921;
677.4000;0.7269;1.1845;
677.7000;0.7269;1.1819;
678.0000;0.7269;1.1768;
678.3000;0.7236;1.1743;
678.6000;0.7253;1.1845;
678.9000;0.7253;1.1870;
679.2000;0.7269;1.1895;
679.5000;0.7228;1.1794;
679.8000;0.7236;1.1768;
680.1000;0.7220;1.1718;
680.4000;0.7228;1.1692;
680.7000;0.7212;1.1667;
681.0000;0.7204;1.1642;
681.3000;0.7228;1.1692;
681.6000;0.7196;1.1667;
681.9000;0.7228;1.1718;
682.2000;0.7212;1.1692;
682.5000;0.7196;1.1591;
682.8000;0.7155;1.1489;
683.1000;0.7163;1.1439;
683.4000;0.7188;1.1540;
683.7000;0.7179;1.1439;
684.0000;0.7171;1.1566;
684.3000;0.7155;1.1566;
684.6000;0.7139;1.1489;
684.9000;0.7155;1.1566;
685.2000;0.7155;1.1591;
685.5000;0.7163;1.1667;
685.8000;0.7131;1.1591;
686.1000;0.7139;1.1616;
686.4000;0.7131;1.1642;
686.7000;0.7139;1.1642;
687.0000;0.7123;1.1515;
687.3000;0.7123;1.1489;
687.6000;0.7139;1.1515;
687.9000;0.7123;1.1515;
688.2000;0.7106;1.1591;
688.5000;0.7106;1.1566;
688.8000;0.7123;1.1692;
689.1000;0.7114;1.1768;
689.4000;0.7123;1.1819;
689.7000;0.7090;1.1718;
690.0000;0.7074;1.1642;
690.3000;0.7025;1.1515;
690.6000;0.7098;1.1768;
690.9000;0.7049;1.1667;
691.2000;0.7066;1.1743;
691.5000;0.7049;1.1642;
691.8000;0.7066;1.1692;
692.1000;0.7017;1.1616;
692.4000;0.7066;1.1743;
692.7000;0.7066;1.1845;
693.0000;0.7057;1.1895;
693.3000;0.7074;1.1845;
693.6000;0.7017;1.1768;
693.9000;0.7057;1.1870;
694.2000;0.7057;1.1895;
694.5000;0.7033;1.1743;
694.8000;0.7041;1.1667;
695.1000;0.7041;1.1566;
695.4000;0.7025;1.1566;
695.7000;0.7017;1.1692;
696.0000;0.7017;1.1667;
696.3000;0.7049;1.1768;
696.6000;0.7155;1.2073;
696.9000;0.7017;1.1768;
697.2000;0.7033;1.1794;
697.5000;0.7025;1.1794;
697.8000;0.7025;1.1692;
698.1000;0.7025;1.1718;
698.4000;0.7025;1.1768;
698.7000;0.7009;1.1768;
699.0000;0.6952;1.1642;
699.3000;0.7009;1.1819;
699.6000;0.6992;1.1768;
699.9000;0.6992;1.1743;
700.2000;0.6992;1.1819;
700.5000;0.6992;1.1819;
700.8000;0.6992;1.1794;
701.1000;0.7041;1.1997;
701.4000;0.6984;1.1845;
701.7000;0.7017;1.1895;
702.0000;0.6992;1.1921;
702.3000;0.6984;1.1870;
702.6000;0.6976;1.1895;
702.9000;0.6984;1.1870;
703.2000;0.6976;1.1845;
703.5000;0.6976;1.1870;
703.8000;0.7000;1.1845;
704.1000;0.6968;1.1819;
704.4000;0.7000;1.1895;
704.7000;0.6919;1.1718;
705.0000;0.6952;1.1870;
705.3000;0.6935;1.1845;
705.6000;0.6952;1.1845;
705.9000;0.6927;1.1743;
706.2000;0.6943;1.1768;
706.5000;0.6943;1.1870;
706.8000;0.6935;1.1845;
707.1000;0.6952;1.1946;
707.4000;0.6919;1.1845;
707.7000;0.6927;1.1845;
708.0000;0.6927;1.1946;
708.3000;0.6935;1.1971;
708.6000;0.6919;1.1921;
708.9000;0.6878;1.1794;
709.2000;0.6911;1.1946;
709.5000;0.6927;1.2022;
709.8000;0.6895;1.1895;
710.1000;0.6968;1.2047;
710.4000;0.6886;1.1845;
710.7000;0.6911;1.1946;
711.0000;0.6878;1.1870;
711.3000;0.6895;1.1946;
711.6000;0.6886;1.1895;
711.9000;0.6903;1.1971;
712.2000;0.6911;1.1921;
712.5000;0.6886;1.1870;
712.8000;0.6886;1.1819;
713.1000;0.6862;1.1870;
713.4000;0.6895;1.2022;
713.7000;0.6878;1.1845;
714.0000;0.6886;1.1743;
714.3000;0.6878;1.1794;
714.6000;0.6886;1.1794;
714.9000;0.6862;1.1870;
715.2000;0.6854;1.1921;
715.5000;0.6862;1.2047;
715.8000;0.6862;1.2047;
716.1000;0.6862;1.1946;
716.4000;0.6846;1.1971;
716.7000;0.6862;1.2022;
717.0000;0.6862;1.1971;
717.3000;0.6838;1.1819;
717.6000;0.6854;1.1845;
717.9000;0.6846;1.1692;
718.2000;0.6838;1.1642;
718.5000;0.6846;1.1616;
718.8000;0.6854;1.1515;
719.1000;0.6838;1.1464;
719.4000;0.6854;1.1489;
719.7000;0.6846;1.1515;
720.0000;0.6829;1.1540;
720.3000;0.6821;1.1540;
720.6000;0.6854;1.1819;
720.9000;0.6846;1.1819;
721.2000;0.6838;1.1794;
721.5000;0.6829;1.1768;
721.8000;0.6821;1.1768;
722.1000;0.6829;1.1718;
722.4000;0.6838;1.1819;
722.7000;0.6821;1.1845;
723.0000;0.6805;1.1819;
723.3000;0.6813;1.1870;
723.6000;0.6821;1.1845;
723.9000;0.6821;1.1870;
724.2000;0.6821;1.1870;
724.5000;0.6821;1.1921;
724.8000;0.6813;1.1946;
725.1000;0.6805;1.1971;
725.4000;0.6805;1.1921;
725.7000;0.6805;1.1946;
726.0000;0.6789;1.1946;
726.3000;0.6781;1.1921;
726.6000;0.6789;1.1921;
726.9000;0.6805;1.1921;
727.2000;0.6789;1.1895;
727.5000;0.6789;1.1870;
727.8000;0.6805;1.1921;
728.1000;0.6789;1.1794;
728.4000;0.6781;1.1845;
728.7000;0.6716;1.1667;
729.0000;0.6789;1.1921;
729.3000;0.6707;1.1692;
729.6000;0.6797;1.1870;
729.9000;0.6789;1.1819;
730.2000;0.6781;1.1794;
730.5000;0.6764;1.1794;
730.8000;0.6862;1.1997;
731.1000;0.6781;1.1718;
731.4000;0.6772;1.1743;
731.7000;0.6772;1.1794;
732.0000;0.6781;1.1819;
732.3000;0.6772;1.1794;
732.6000;0.6764;1.1794;
732.9000;0.6797;1.1895;
733.2000;0.6764;1.1870;
733.5000;0.6781;1.1895;
733.8000;0.6716;1.1743;
734.1000;0.6756;1.1921;
734.4000;0.6716;1.1819;
734.7000;0.6764;1.1946;
735.0000;0.6740;1.1921;
735.3000;0.6724;1.1921;
735.6000;0.6732;1.1845;
735.9000;0.6756;1.1895;
736.2000;0.6691;1.1819;
736.5000;0.6716;1.1870;
736.8000;0.6716;1.1794;
737.1000;0.6699;1.1743;
737.4000;0.6756;1.1895;
737.7000;0.6797;1.1895;
738.0000;0.6740;1.1718;
738.3000;0.6772;1.1794;
738.6000;0.6724;1.1616;
738.9000;0.6740;1.1616;
739.2000;0.6732;1.1566;
739.5000;0.6740;1.1591;
739.8000;0.6748;1.1718;
740.1000;0.6748;1.1768;
740.4000;0.6716;1.1819;
740.7000;0.6716;1.1794;
741.0000;0.6699;1.1845;
741.3000;0.6716;1.1768;
741.6000;0.6732;1.1718;
741.9000;0.6699;1.1692;
742.2000;0.6732;1.1845;
742.5000;0.6764;1.1895;
742.8000;0.6716;1.1819;
743.1000;0.6732;1.1895;
743.4000;0.6716;1.1895;
743.7000;0.6699;1.1921;
744.0000;0.6691;1.1921;
744.3000;0.6707;1.2047;
744.6000;0.6691;1.1946;
744.9000;0.6683;1.1870;
745.2000;0.6707;1.1870;
745.5000;0.6691;1.1870;
745.8000;0.6699;1.1794;
746.1000;0.6683;1.1743;
746.4000;0.6691;1.1743;
746.7000;0.6683;1.1692;
747.0000;0.6699;1.1743;
747.3000;0.6707;1.1768;
747.6000;0.6699;1.1743;
747.9000;0.6699;1.1667;
748.2000;0.6667;1.1566;
748.5000;0.6650;1.1489;
748.8000;0.6691;1.1718;
749.1000;0.6724;1.1743;
749.4000;0.6659;1.1616;
749.7000;0.6675;1.1692;
750.0000;0.6691;1.1743;
750.3000;0.6675;1.1743;
750.6000;0.6683;1.1794;
750.9000;0.6683;1.1895;
751.2000;0.6691;1.1946;
751.5000;0.6691;1.1921;
751.8000;0.6626;1.1718;
752.1000;0.6667;1.1743;
752.4000;0.6675;1.1794;
752.7000;0.6675;1.1921;
753.0000;0.6650;1.1819;
753.3000;0.6659;1.1845;
753.6000;0.6675;1.1845;
753.9000;0.6740;1.1971;
754.2000;0.6732;1.2073;
754.5000;0.6667;1.1895;
754.8000;0.6667;1.1870;
755.1000;0.6675;1.1845;
755.4000;0.6626;1.1743;
755.7000;0.6659;1.1794;
756.0000;0.6659;1.1870;
756.3000;0.6650;1.1819;
756.6000;0.6650;1.1870;
756.9000;0.6650;1.1946;
757.2000;0.6642;1.1997;
757.5000;0.6667;1.1997;
757.8000;0.6667;1.1997;
758.1000;0.6707;1.2123;
758.4000;0.6659;1.1997;
758.7000;0.6642;1.1971;
759.0000;0.6683;1.2098;
759.3000;0.6699;1.2073;
759.6000;0.6626;1.1895;
759.9000;0.6618;1.1794;
760.2000;0.6610;1.1845;
760.5000;0.6650;1.1971;
760.8000;0.6626;1.1971;
761.1000;0.6634;1.2047;
761.4000;0.6618;1.1997;
761.7000;0.6634;1.1971;
762.0000;0.6650;1.2022;
762.3000;0.6618;1.1971;
762.6000;0.6577;1.1921;
762.9000;0.6634;1.1946;
763.2000;0.6618;1.1870;
763.5000;0.6577;1.1768;
763.8000;0.6618;1.1971;
764.1000;0.6602;1.1997;
764.4000;0.6618;1.2022;
764.7000;0.6683;1.2301;
765.0000;0.6634;1.2174;
765.3000;0.6626;1.2149;
765.6000;0.6618;1.2174;
765.9000;0.6667;1.2428;
766.2000;0.6602;1.2225;
766.5000;0.6618;1.2250;
766.8000;0.6593;1.2174;
767.1000;0.6618;1.2174;
767.4000;0.6618;1.2149;
767.7000;0.6634;1.2149;
768.0000;0.6602;1.2073;
768.3000;0.6602;1.1997;
768.6000;0.6610;1.2047;
768.9000;0.6618;1.2123;
769.2000;0.6618;1.2123;
769.5000;0.6602;1.2098;
769.8000;0.6602;1.2123;
770.1000;0.6602;1.2123;
770.4000;0.6610;1.2123;
770.7000;0.6602;1.2047;
771.0000;0.6585;1.1997;
771.3000;0.6610;1.2073;
771.6000;0.6585;1.1997;
771.9000;0.6610;1.2098;
772.2000;0.6593;1.2123;
772.5000;0.6593;1.2225;
772.8000;0.6602;1.2301;
773.1000;0.6610;1.2276;
773.4000;0.6585;1.2276;
773.7000;0.6585;1.2250;
774.0000;0.6610;1.2225;
774.3000;0.6618;1.2200;
774.6000;0.6610;1.2200;
774.9000;0.6602;1.2200;
775.2000;0.6553;1.2098;
775.5000;0.6577;1.2200;
775.8000;0.6585;1.2225;
776.1000;0.6553;1.2073;
776.4000;0.6618;1.2276;
776.7000;0.6634;1.2377;
777.0000;0.6602;1.2352;
777.3000;0.6593;1.2352;
777.6000;0.6602;1.2276;
777.9000;0.6585;1.2149;
778.2000;0.6585;1.2098;
778.5000;0.6585;1.2098;
778.8000;0.6650;1.2174;
779.1000;0.6577;1.1971;
779.4000;0.6593;1.1921;
779.7000;0.6585;1.1946;
780.0000;0.6569;1.1946;
780.3000;0.6577;1.1971;
780.6000;0.6569;1.1895;
780.9000;0.6553;1.1845;
781.2000;0.6569;1.1895;
781.5000;0.6561;1.2022;
781.8000;0.6577;1.2149;
782.1000;0.6553;1.2174;
782.4000;0.6545;1.2149;
782.7000;0.6585;1.2225;
783.0000;0.6569;1.2225;
783.3000;0.6577;1.2149;
783.6000;0.6553;1.2174;
783.9000;0.6577;1.2174;
784.2000;0.6593;1.2250;
784.5000;0.6553;1.2200;
784.8000;0.6561;1.2174;
785.1000;0.6553;1.2073;
785.4000;0.6545;1.1997;
785.7000;0.6561;1.2098;
786.0000;0.6536;1.2073;
786.3000;0.6536;1.1997;
786.6000;0.6536;1.2149;
786.9000;0.6536;1.2225;
787.2000;0.6545;1.2225;
787.5000;0.6667;1.2555;
787.8000;0.6528;1.2250;
788.1000;0.6545;1.2301;
788.4000;0.6536;1.2225;
788.7000;0.6545;1.2123;
789.0000;0.6520;1.2047;
789.3000;0.6545;1.2149;
789.6000;0.6528;1.2149;
789.9000;0.6536;1.2149;
790.2000;0.6520;1.2174;
790.5000;0.6545;1.2200;
790.8000;0.6553;1.2174;
791.1000;0.6471;1.1946;
791.4000;0.6512;1.2149;
791.7000;0.6545;1.2200;
792.0000;0.6553;1.2174;
792.3000;0.6512;1.2149;
792.6000;0.6431;1.1946;
792.9000;0.6545;1.2225;
793.2000;0.6528;1.2174;
793.5000;0.6536;1.2123;
793.8000;0.6512;1.2073;
794.1000;0.6520;1.2123;
794.4000;0.6536;1.2123;
794.7000;0.6528;1.2225;
795.0000;0.6577;1.2352;
795.3000;0.6520;1.2250;
795.6000;0.6569;1.2276;
795.9000;0.6536;1.2276;
796.2000;0.6528;1.2200;
796.5000;0.6528;1.2123;
796.8000;0.6512;1.1997;
797.1000;0.6545;1.2123;
797.4000;0.6528;1.2098;
797.7000;0.6577;1.2174;
798.0000;0.6512;1.1971;
798.3000;0.6545;1.2047;
798.6000;0.6561;1.2123;
798.9000;0.6512;1.1997;
799.2000;0.6512;1.2047;
799.5000;0.6528;1.2123;
799.8000;0.6561;1.2073;
800.1000;0.6545;1.1971;
800.4000;0.6496;1.1997;
800.7000;0.6512;1.1997;
801.0000;0.6569;1.2250;
801.3000;0.6398;1.1845;
801.6000;0.6479;1.2022;
801.9000;0.6520;1.2123;
802.2000;0.6520;1.2149;
802.5000;0.6512;1.2098;
802.8000;0.6496;1.1971;
803.1000;0.6528;1.2073;
803.4000;0.6512;1.2174;
803.7000;0.6520;1.2123;
804.0000;0.6520;1.2123;
804.3000;0.6512;1.2149;
804.6000;0.6528;1.2200;
804.9000;0.6577;1.2326;
805.2000;0.6504;1.2200;
805.5000;0.6496;1.2149;
805.8000;0.6512;1.2174;
806.1000;0.6512;1.2123;
806.4000;0.6569;1.2326;
806.7000;0.6488;1.2225;
807.0000;0.6512;1.2250;
807.3000;0.6496;1.2250;
807.6000;0.6512;1.2149;
807.9000;0.6488;1.2022;
808.2000;0.6520;1.2073;
808.5000;0.6496;1.2149;
808.8000;0.6496;1.2174;
809.1000;0.6512;1.2174;
809.4000;0.6504;1.2225;
809.7000;0.6512;1.2225;
810.0000;0.6406;1.1971;
810.3000;0.6488;1.2200;
810.6000;0.6488;1.2123;
810.9000;0.6455;1.2098;
811.2000;0.6496;1.2200;
811.5000;0.6455;1.2149;
811.8000;0.6479;1.2200;
812.1000;0.6496;1.2301;
812.4000;0.6471;1.2225;
812.7000;0.6520;1.2402;
813.0000;0.6471;1.2225;
813.3000;0.6488;1.2276;
813.6000;0.6504;1.2276;
813.9000;0.6488;1.2326;
814.2000;0.6479;1.2225;
814.5000;0.6488;1.2276;
814.8000;0.6471;1.2250;
815.1000;0.6479;1.2326;
815.4000;0.6488;1.2301;
815.7000;0.6479;1.2225;
816.0000;0.6406;1.2022;
816.3000;0.6471;1.2225;
816.6000;0.6488;1.2276;
816.9000;0.6455;1.2276;
817.2000;0.6463;1.2326;
817.5000;0.6463;1.2326;
817.8000;0.6471;1.2352;
818.1000;0.6479;1.2326;
818.4000;0.6463;1.2301;
818.7000;0.6488;1.2352;
819.0000;0.6545;1.2453;
819.3000;0.6504;1.2301;
819.6000;0.6496;1.2352;
819.9000;0.6496;1.2326;
820.2000;0.6463;1.2301;
820.5000;0.6471;1.2301;
820.8000;0.6488;1.2301;
821.1000;0.6479;1.2276;
821.4000;0.6463;1.2276;
821.7000;0.6479;1.2276;
822.0000;0.6455;1.2276;
822.3000;0.6471;1.2352;
822.6000;0.6479;1.2352;
822.9000;0.6471;1.2301;
823.2000;0.6471;1.2200;
823.5000;0.6471;1.2123;
823.8000;0.6479;1.2149;
824.1000;0.6447;1.2123;
824.4000;0.6471;1.2200;
824.7000;0.6496;1.2326;
825.0000;0.6455;1.2250;
825.3000;0.6463;1.2174;
825.6000;0.6455;1.2022;
825.9000;0.6390;1.1845;
826.2000;0.6471;1.1971;
826.5000;0.6463;1.2022;
826.8000;0.6431;1.1921;
827.1000;0.6455;1.1997;
827.4000;0.6455;1.2073;
827.7000;0.6463;1.2200;
828.0000;0.6455;1.2098;
828.3000;0.6455;1.2047;
828.6000;0.6447;1.1971;
828.9000;0.6479;1.2174;
829.2000;0.6455;1.2174;
829.5000;0.6455;1.2225;
829.8000;0.6479;1.2402;
830.1000;0.6479;1.2428;
830.4000;0.6414;1.2200;
830.7000;0.6447;1.2276;
831.0000;0.6455;1.2301;
831.3000;0.6447;1.2326;
831.6000;0.6520;1.2453;
831.9000;0.6455;1.2250;
832.2000;0.6447;1.2200;
832.5000;0.6455;1.2174;
832.8000;0.6447;1.2098;
833.1000;0.6455;1.2022;
833.4000;0.6390;1.1794;
833.7000;0.6447;1.2047;
834.0000;0.6447;1.2073;
834.3000;0.6447;1.2200;
834.6000;0.6463;1.2200;
834.9000;0.6471;1.2123;
835.2000;0.6463;1.2123;
835.5000;0.6447;1.2098;
835.8000;0.6439;1.2149;
836.1000;0.6439;1.2174;
836.4000;0.6455;1.2174;
836.7000;0.6422;1.2022;
837.0000;0.6431;1.2022;
837.3000;0.6439;1.2047;
837.6000;0.6439;1.2098;
837.9000;0.6504;1.2250;
838.2000;0.6447;1.2123;
838.5000;0.6431;1.2123;
838.8000;0.6455;1.2276;
839.1000;0.6447;1.2225;
839.4000;0.6439;1.2200;
839.7000;0.6431;1.2098;
840.0000;0.6439;1.2073;
840.3000;0.6455;1.2073;
840.6000;0.6455;1.2047;
840.9000;0.6447;1.2098;
841.2000;0.6422;1.2073;
841.5000;0.6479;1.2250;
841.8000;0.6439;1.2149;
842.1000;0.6422;1.2073;
842.4000;0.6439;1.2022;
842.7000;0.6455;1.2123;
843.0000;0.6422;1.1971;
843.3000;0.6422;1.2047;
843.6000;0.6447;1.2123;
843.9000;0.6447;1.2174;
844.2000;0.6398;1.2098;
844.5000;0.6447;1.2174;
844.8000;0.6431;1.2098;
845.1000;0.6431;1.2098;
845.4000;0.6439;1.2149;
845.7000;0.6431;1.2149;
846.0000;0.6422;1.2123;
846.3000;0.6365;1.2073;
846.6000;0.6414;1.2250;
846.9000;0.6431;1.2225;
847.2000;0.6357;1.2022;
847.5000;0.6447;1.2174;
847.8000;0.6431;1.2250;
848.1000;0.6414;1.2200;
848.4000;0.6422;1.2301;
848.7000;0.6431;1.2377;
849.0000;0.6414;1.2377;
849.3000;0.6422;1.2301;
849.6000;0.6398;1.2250;
849.9000;0.6398;1.2149;
850.2000;0.6422;1.2149;
850.5000;0.6398;1.2098;
850.8000;0.6406;1.2098;
851.1000;0.6406;1.2200;
851.4000;0.6398;1.2250;
851.7000;0.6414;1.2301;
852.0000;0.6439;1.2276;
852.3000;0.6406;1.2225;
852.6000;0.6406;1.2225;
852.9000;0.6414;1.2276;
853.2000;0.6414;1.2250;
853.5000;0.6463;1.2352;
853.8000;0.6414;1.2250;
854.1000;0.6422;1.2301;
854.4000;0.6422;1.2250;
854.7000;0.6439;1.2301;
855.0000;0.6398;1.2301;
855.3000;0.6406;1.2326;
855.6000;0.6325;1.2149;
855.9000;0.6414;1.2377;
856.2000;0.6382;1.2276;
856.5000;0.6349;1.2022;
856.8000;0.6422;1.2250;
857.1000;0.6431;1.2200;
857.4000;0.6431;1.2250;
857.7000;0.6317;1.1946;
858.0000;0.6431;1.2174;
858.3000;0.6398;1.2174;
858.6000;0.6406;1.2174;
858.9000;0.6431;1.2149;
859.2000;0.6414;1.2022;
859.5000;0.6414;1.2149;
859.8000;0.6414;1.2174;
860.1000;0.6414;1.2149;
860.4000;0.6406;1.2149;
860.7000;0.6357;1.2047;
861.0000;0.6406;1.2149;
861.3000;0.6414;1.2200;
861.6000;0.6406;1.2200;
861.9000;0.6414;1.2225;
862.2000;0.6414;1.2225;
862.5000;0.6447;1.2250;
862.8000;0.6414;1.2123;
863.1000;0.6414;1.2250;
863.4000;0.6414;1.2250;
863.7000;0.6422;1.2276;
864.0000;0.6398;1.2276;
864.3000;0.6398;1.2301;
864.6000;0.6398;1.2326;
864.9000;0.6414;1.2276;
865.2000;0.6406;1.2225;
865.5000;0.6414;1.2200;
865.8000;0.6398;1.2200;
866.1000;0.6398;1.2225;
866.4000;0.6398;1.2250;
866.7000;0.6390;1.2301;
867.0000;0.6390;1.2352;
867.3000;0.6406;1.2276;
867.6000;0.6406;1.2149;
867.9000;0.6398;1.2149;
868.2000;0.6365;1.2123;
868.5000;0.6390;1.2123;
868.8000;0.6398;1.2200;
869.1000;0.6406;1.2250;
869.4000;0.6406;1.2276;
869.7000;0.6365;1.2022;
870.0000;0.6414;1.2200;
870.3000;0.6390;1.2200;
870.6000;0.6390;1.2149;
870.9000;0.6390;1.2174;
871.2000;0.6309;1.2022;
871.5000;0.6406;1.2250;
871.8000;0.6300;1.1997;
872.1000;0.6390;1.2174;
872.4000;0.6365;1.2098;
872.7000;0.6479;1.2377;
873.0000;0.6390;1.2250;
873.3000;0.6349;1.2225;
873.6000;0.6398;1.2301;
873.9000;0.6349;1.2073;
874.2000;0.6390;1.2149;
874.5000;0.6398;1.2073;
874.8000;0.6390;1.2149;
875.1000;0.6382;1.2149;
875.4000;0.6406;1.2174;
875.7000;0.6398;1.2225;
876.0000;0.6398;1.2250;
876.3000;0.6447;1.2377;
876.6000;0.6390;1.2250;
876.9000;0.6390;1.2225;
877.2000;0.6406;1.2250;
877.5000;0.6390;1.2225;
877.8000;0.6365;1.2174;
878.1000;0.6390;1.2174;
878.4000;0.6382;1.2123;
878.7000;0.6398;1.2149;
879.0000;0.6398;1.2149;
879.3000;0.6382;1.2149;
879.6000;0.6398;1.2098;
879.9000;0.6365;1.2149;
880.2000;0.6374;1.2123;
880.5000;0.6382;1.2047;
880.8000;0.6382;1.2073;
881.1000;0.6382;1.2123;
881.4000;0.6382;1.2047;
881.7000;0.6390;1.2022;
882.0000;0.6382;1.1997;
882.3000;0.6406;1.2098;
882.6000;0.6414;1.2200;
882.9000;0.6382;1.2123;
883.2000;0.6349;1.2123;
883.5000;0.6382;1.2250;
883.8000;0.6390;1.2200;
884.1000;0.6374;1.2250;
884.4000;0.6357;1.2200;
884.7000;0.6390;1.2352;
885.0000;0.6382;1.2250;
885.3000;0.6349;1.2200;
885.6000;0.6333;1.2225;
885.9000;0.6357;1.2352;
886.2000;0.6349;1.2326;
886.5000;0.6292;1.2123;
886.8000;0.6357;1.2326;
887.1000;0.6349;1.2301;
887.4000;0.6390;1.2301;
887.7000;0.6357;1.2149;
888.0000;0.6349;1.2022;
888.3000;0.6365;1.2073;
888.6000;0.6365;1.2047;
888.9000;0.6357;1.2073;
889.2000;0.6374;1.2098;
889.5000;0.6374;1.2149;
889.8000;0.6374;1.2149;
890.1000;0.6390;1.2225;
890.4000;0.6422;1.2326;
890.7000;0.6365;1.2200;
891.0000;0.6382;1.2200;
891.3000;0.6357;1.2301;
891.6000;0.6374;1.2352;
891.9000;0.6357;1.2301;
892.2000;0.6317;1.2149;
892.5000;0.6341;1.2276;
892.8000;0.6341;1.2250;
893.1000;0.6317;1.2073;
893.4000;0.6374;1.2174;
893.7000;0.6390;1.2200;
894.0000;0.6406;1.2174;
894.3000;0.6341;1.2073;
894.6000;0.6365;1.2123;
894.9000;0.6317;1.1997;
895.2000;0.6365;1.2149;
895.5000;0.6349;1.2200;
895.8000;0.6341;1.2174;
896.1000;0.6365;1.2225;
896.4000;0.6365;1.2200;
896.7000;0.6357;1.2200;
897.0000;0.6317;1.2098;
897.3000;0.6333;1.2073;
897.6000;0.6365;1.2149;
897.9000;0.6341;1.2098;
898.2000;0.6333;1.2149;
898.5000;0.6447;1.2428;
898.8000;0.6349;1.2225;
899.1000;0.6365;1.2250;
899.4000;0.6365;1.2301;
899.7000;0.6341;1.2225;
900.0000;0.6365;1.2225;
900.3000;0.6292;1.1997;
900.6000;0.6349;1.2022;
900.9000;0.6341;1.1997;
901.2000;0.6284;1.1946;
901.5000;0.6365;1.2098;
901.8000;0.6341;1.2073;
902.1000;0.6325;1.1946;
902.4000;0.6382;1.2123;
902.7000;0.6357;1.1997;
903.0000;0.6349;1.1997;
903.3000;0.6341;1.2022;
903.6000;0.6365;1.2073;
903.9000;0.6309;1.1921;
904.2000;0.6325;1.1997;
904.5000;0.6333;1.2073;
904.8000;0.6349;1.2174;
905.1000;0.6341;1.2174;
905.4000;0.6349;1.2200;
905.7000;0.6333;1.2149;
906.0000;0.6325;1.2073;
906.3000;0.6349;1.2174;
906.6000;0.6333;1.2149;
906.9000;0.6325;1.2174;
907.2000;0.6374;1.2200;
907.5000;0.6422;1.2301;
907.8000;0.6357;1.2123;
908.1000;0.6252;1.1870;
908.4000;0.6333;1.2174;
908.7000;0.6349;1.2149;
909.0000;0.6357;1.2174;
909.3000;0.6349;1.2225;
909.6000;0.6349;1.2276;
909.9000;0.6284;1.2149;
910.2000;0.6398;1.2377;
910.5000;0.6243;1.2073;
910.8000;0.6349;1.2377;
911.1000;0.6349;1.2428;
911.4000;0.6382;1.2428;
911.7000;0.6365;1.2326;
912.0000;0.6349;1.2276;
912.3000;0.6341;1.2250;
912.6000;0.6349;1.2200;
912.9000;0.6333;1.2073;
913.2000;0.6333;1.2098;
913.5000;0.6341;1.2149;
913.8000;0.6333;1.2301;
914.1000;0.6341;1.2250;
914.4000;0.6349;1.2225;
914.7000;0.6333;1.2149;
915.0000;0.6365;1.2301;
915.3000;0.6382;1.2428;
915.6000;0.6357;1.2453;
915.9000;0.6276;1.2250;
916.2000;0.6333;1.2428;
916.5000;0.6349;1.2529;
916.8000;0.6382;1.2555;
917.1000;0.6341;1.2453;
917.4000;0.6333;1.2453;
917.7000;0.6333;1.2504;
918.0000;0.6341;1.2479;
918.3000;0.6309;1.2301;
918.6000;0.6349;1.2428;
918.9000;0.6341;1.2402;
919.2000;0.6325;1.2428;
919.5000;0.6309;1.2352;
919.8000;0.6325;1.2479;
920.1000;0.6309;1.2479;
920.4000;0.6325;1.2479;
920.7000;0.6325;1.2377;
921.0000;0.6325;1.2377;
921.3000;0.6325;1.2377;
921.6000;0.6325;1.2377;
921.9000;0.6325;1.2377;
922.2000;0.6317;1.2352;
922.5000;0.6292;1.2352;
922.8000;0.6341;1.2504;
923.1000;0.6333;1.2580;
923.4000;0.6333;1.2555;
923.7000;0.6333;1.2631;
924.0000;0.6333;1.2681;
924.3000;0.6390;1.2808;
924.6000;0.6341;1.2656;
924.9000;0.6325;1.2605;
925.2000;0.6349;1.2605;
925.5000;0.6365;1.2605;
925.8000;0.6309;1.2529;
926.1000;0.6325;1.2479;
926.4000;0.6333;1.2555;
926.7000;0.6333;1.2529;
927.0000;0.6325;1.2631;
927.3000;0.6333;1.2529;
927.6000;0.6333;1.2529;
927.9000;0.6333;1.2529;
928.2000;0.6365;1.2580;
928.5000;0.6325;1.2428;
928.8000;0.6325;1.2377;
929.1000;0.6333;1.2428;
929.4000;0.6414;1.2656;
929.7000;0.6341;1.2453;
930.0000;0.6333;1.2402;
930.3000;0.6333;1.2479;
930.6000;0.6325;1.2555;
930.9000;0.6325;1.2529;
931.2000;0.6309;1.2479;
931.5000;0.6325;1.2529;
931.8000;0.6325;1.2656;
932.1000;0.6252;1.2352;
932.4000;0.6333;1.2428;
932.7000;0.6292;1.2301;
933.0000;0.6325;1.2352;
933.3000;0.6325;1.2352;
933.6000;0.6300;1.2326;
933.9000;0.6309;1.2453;
934.2000;0.6357;1.2605;
934.5000;0.6309;1.2453;
934.8000;0.6333;1.2453;
935.1000;0.6325;1.2352;
935.4000;0.6349;1.2428;
935.7000;0.6325;1.2276;
936.0000;0.6325;1.2250;
936.3000;0.6317;1.2250;
936.6000;0.6333;1.2352;
936.9000;0.6309;1.2250;
937.2000;0.6325;1.2326;
937.5000;0.6317;1.2402;
937.8000;0.6292;1.2428;
938.1000;0.6309;1.2529;
938.4000;0.6309;1.2504;
938.7000;0.6292;1.2377;
939.0000;0.6309;1.2352;
939.3000;0.6333;1.2377;
939.6000;0.6325;1.2402;
939.9000;0.6349;1.2504;
940.2000;0.6317;1.2479;
940.5000;0.6300;1.2555;
940.8000;0.6325;1.2605;
941.1000;0.6317;1.2529;
941.4000;0.6292;1.2402;
941.7000;0.6300;1.2402;
942.0000;0.6317;1.2453;
942.3000;0.6309;1.2504;
942.6000;0.6309;1.2479;
942.9000;0.6325;1.2504;
943.2000;0.6284;1.2402;
943.5000;0.6292;1.2479;
943.8000;0.6333;1.2555;
944.1000;0.6300;1.2428;
944.4000;0.6309;1.2377;
944.7000;0.6300;1.2352;
945.0000;0.6292;1.2174;
945.3000;0.6309;1.2225;
945.6000;0.6333;1.2301;
945.9000;0.6317;1.2250;
946.2000;0.6325;1.2174;
946.5000;0.6309;1.2225;
946.8000;0.6309;1.2352;
947.1000;0.6300;1.2428;
947.4000;0.6333;1.2529;
947.7000;0.6325;1.2402;
948.0000;0.6317;1.2377;
948.3000;0.6186;1.2047;
948.6000;0.6317;1.2479;
948.9000;0.6284;1.2377;
949.2000;0.6309;1.2428;
949.5000;0.6357;1.2656;
949.8000;0.6317;1.2656;
950.1000;0.6300;1.2605;
950.4000;0.6309;1.2656;
950.7000;0.6309;1.2605;
951.0000;0.6317;1.2555;
951.3000;0.6317;1.2453;
951.6000;0.6300;1.2326;
951.9000;0.6268;1.2250;
952.2000;0.6317;1.2402;
952.5000;0.6300;1.2276;
952.8000;0.6309;1.2326;
953.1000;0.6292;1.2301;
953.4000;0.6309;1.2377;
953.7000;0.6309;1.2453;
954.0000;0.6276;1.2377;
954.3000;0.6309;1.2402;
954.6000;0.6292;1.2326;
954.9000;0.6300;1.2352;
955.2000;0.6300;1.2402;
955.5000;0.6325;1.2377;
955.8000;0.6300;1.2377;
956.1000;0.6317;1.2352;
956.4000;0.6325;1.2402;
956.7000;0.6276;1.2301;
957.0000;0.6292;1.2326;
957.3000;0.6300;1.2352;
957.6000;0.6260;1.2276;
957.9000;0.6309;1.2402;
958.2000;0.6292;1.2377;
958.5000;0.6300;1.2479;
958.8000;0.6300;1.2479;
959.1000;0.6300;1.2428;
959.4000;0.6276;1.2326;
959.7000;0.6300;1.2301;
960.0000;0.6284;1.2301;
960.3000;0.6309;1.2276;
960.6000;0.6284;1.2326;
960.9000;0.6317;1.2377;
961.2000;0.6333;1.2479;
961.5000;0.6317;1.2453;
961.8000;0.6333;1.2504;
962.1000;0.6300;1.2580;
962.4000;0.6309;1.2605;
962.7000;0.6292;1.2555;
963.0000;0.6227;1.2352;
963.3000;0.6292;1.2326;
963.6000;0.6292;1.2301;
963.9000;0.6252;1.2174;
964.2000;0.6292;1.2200;
964.5000;0.6300;1.2149;
964.8000;0.6235;1.2149;
965.1000;0.6317;1.2352;
965.4000;0.6309;1.2428;
965.7000;0.6309;1.2352;
966.0000;0.6309;1.2301;
966.3000;0.6292;1.2225;
966.6000;0.6276;1.2123;
966.9000;0.6268;1.2098;
967.2000;0.6300;1.2225;
967.5000;0.6300;1.2301;
967.8000;0.6292;1.2301;
968.1000;0.6300;1.2250;
968.4000;0.6284;1.2225;
968.7000;0.6292;1.2301;
969.0000;0.6300;1.2326;
969.3000;0.6260;1.2123;
969.6000;0.6292;1.2301;
969.9000;0.6292;1.2301;
970.2000;0.6292;1.2276;
970.5000;0.6292;1.2377;
970.8000;0.6309;1.2352;
971.1000;0.6284;1.2225;
971.4000;0.6300;1.2276;
971.7000;0.6317;1.2326;
972.0000;0.6309;1.2352;
972.3000;0.6268;1.2428;
972.6000;0.6276;1.2402;
972.9000;0.6284;1.2402;
973.2000;0.6284;1.2428;
973.5000;0.6317;1.2504;
973.8000;0.6292;1.2453;
974.1000;0.6284;1.2352;
974.4000;0.6292;1.2402;
974.7000;0.6284;1.2377;
975.0000;0.6325;1.2529;
975.3000;0.6284;1.2428;
975.6000;0.6406;1.2732;
975.9000;0.6276;1.2352;
976.2000;0.6284;1.2352;
976.5000;0.6219;1.2098;
976.8000;0.6325;1.2377;
977.1000;0.6284;1.2250;
977.4000;0.6309;1.2326;
977.7000;0.6284;1.2250;
978.0000;0.6300;1.2301;
978.3000;0.6276;1.2301;
978.6000;0.6276;1.2301;
978.9000;0.6309;1.2276;
979.2000;0.6284;1.2225;
979.5000;0.6268;1.2276;
979.8000;0.6284;1.2377;
980.1000;0.6333;1.2555;
980.4000;0.6300;1.2504;
980.7000;0.6284;1.2428;
981.0000;0.6292;1.2402;
981.3000;0.6309;1.2479;
981.6000;0.6333;1.2479;
981.9000;0.6284;1.2301;
982.2000;0.6268;1.2200;
982.5000;0.6276;1.2200;
982.8000;0.6292;1.2326;
983.1000;0.6309;1.2479;
983.4000;0.6276;1.2402;
983.7000;0.6309;1.2504;
984.0000;0.6300;1.2479;
984.3000;0.6333;1.2605;
984.6000;0.6284;1.2504;
984.9000;0.6333;1.2605;
985.2000;0.6309;1.2555;
985.5000;0.6284;1.2453;
985.8000;0.6309;1.2428;
986.1000;0.6333;1.2580;
986.4000;0.6284;1.2529;
986.7000;0.6300;1.2580;
987.0000;0.6276;1.2504;
987.3000;0.6349;1.2758;
987.6000;0.6284;1.2707;
987.9000;0.6268;1.2681;
988.2000;0.6317;1.2732;
988.5000;0.6260;1.2402;
988.8000;0.6252;1.2326;
989.1000;0.6284;1.2377;
989.4000;0.6292;1.2402;
989.7000;0.6284;1.2402;
990.0000;0.6284;1.2402;
990.3000;0.6292;1.2504;
990.6000;0.6292;1.2504;
990.9000;0.6276;1.2529;
991.2000;0.6276;1.2504;
991.5000;0.6260;1.2428;
991.8000;0.6235;1.2352;
992.1000;0.6292;1.2504;
992.4000;0.6268;1.2402;
992.7000;0.6292;1.2428;
993.0000;0.6300;1.2453;
993.3000;0.6252;1.2402;
993.6000;0.6252;1.2402;
993.9000;0.6260;1.2428;
994.2000;0.6300;1.2580;
994.5000;0.6276;1.2555;
994.8000;0.6260;1.2479;
995.1000;0.6276;1.2529;
995.4000;0.6292;1.2555;
995.7000;0.6284;1.2555;
996.0000;0.6260;1.2529;
996.3000;0.6300;1.2529;
996.6000;0.6252;1.2402;
996.9000;0.6284;1.2479;
997.2000;0.6284;1.2352;
997.5000;0.6284;1.2326;
997.8000;0.6284;1.2352;
998.1000;0.6276;1.2326;
998.4000;0.6292;1.2352;
998.7000;0.6268;1.2352;
999.0000;0.6284;1.2352;
999.3000;0.6268;1.2276;
999.6000;0.6333;1.2276;
999.9000;0.6276;1.2174;
1000.2000;0.6252;1.2073;
1000.5000;0.6260;1.2123;
1000.8000;0.6284;1.2200;
1001.1000;0.6260;1.2098;
1001.4000;0.6268;1.2200;
1001.7000;0.6268;1.2276;
1002.0000;0.6300;1.2428;
1002.3000;0.6268;1.2402;
1002.6000;0.6235;1.2377;
1002.9000;0.6268;1.2504;
1003.2000;0.6252;1.2529;
1003.5000;0.6349;1.2707;
1003.8000;0.6317;1.2681;
1004.1000;0.6219;1.2479;
1004.4000;0.6203;1.2352;
1004.7000;0.6268;1.2504;
1005.0000;0.6284;1.2479;
1005.3000;0.6260;1.2453;
1005.6000;0.6260;1.2402;
1005.9000;0.6276;1.2402;
1006.2000;0.6284;1.2301;
1006.5000;0.6260;1.2301;
1006.8000;0.6292;1.2326;
1007.1000;0.6317;1.2428;
1007.4000;0.6284;1.2402;
1007.7000;0.6268;1.2402;
1008.0000;0.6292;1.2479;
1008.3000;0.6276;1.2428;
1008.6000;0.6276;1.2377;
1008.9000;0.6284;1.2402;
1009.2000;0.6268;1.2428;
1009.5000;0.6276;1.2453;
1009.8000;0.6309;1.2453;
1010.1000;0.6235;1.2200;
1010.4000;0.6260;1.2250;
1010.7000;0.6276;1.2276;
1011.0000;0.6284;1.2225;
1011.3000;0.6276;1.2174;
1011.6000;0.6268;1.2174;
1011.9000;0.6276;1.2301;
1012.2000;0.6252;1.2225;
1012.5000;0.6260;1.2276;
1012.8000;0.6260;1.2352;
1013.1000;0.6268;1.2225;
1013.4000;0.6284;1.2225;
1013.7000;0.6252;1.2123;
1014.0000;0.6284;1.2250;
1014.3000;0.6260;1.2301;
1014.6000;0.6276;1.2402;
1014.9000;0.6284;1.2453;
1015.2000;0.6284;1.2605;
1015.5000;0.6292;1.2681;
1015.8000;0.6252;1.2656;
1016.1000;0.6276;1.2758;
1016.4000;0.6268;1.2758;
1016.7000;0.6268;1.2681;
1017.0000;0.6268;1.2605;
1017.3000;0.6276;1.2580;
1017.6000;0.6252;1.2504;
1017.9000;0.6325;1.2656;
1018.2000;0.6260;1.2605;
1018.5000;0.6309;1.2707;
1018.8000;0.6260;1.2555;
1019.1000;0.6260;1.2631;
1019.4000;0.6268;1.2580;
1019.7000;0.6170;1.2301;
1020.0000;0.6276;1.2605;
1020.3000;0.6268;1.2504;
1020.6000;0.6276;1.2453;
1020.9000;0.6284;1.2402;
1021.2000;0.6284;1.2428;
1021.5000;0.6284;1.2479;
1021.8000;0.6252;1.2479;
1022.1000;0.6284;1.2529;
1022.4000;0.6268;1.2529;
1022.7000;0.6260;1.2453;
1023.0000;0.6243;1.2529;
1023.3000;0.6260;1.2529;
1023.6000;0.6252;1.2504;
1023.9000;0.6268;1.2428;
1024.2000;0.6252;1.2352;
1024.5000;0.6186;1.2123;
1024.8000;0.6268;1.2225;
1025.1000;0.6260;1.2225;
1025.4000;0.6317;1.2301;
1025.7000;0.6276;1.2250;
1026.0000;0.6300;1.2377;
1026.3000;0.6284;1.2402;
1026.6000;0.6276;1.2428;
1026.9000;0.6252;1.2326;
1027.2000;0.6268;1.2352;
1027.5000;0.6227;1.2225;
1027.8000;0.6260;1.2352;
1028.1000;0.6276;1.2377;
1028.4000;0.6284;1.2352;
1028.7000;0.6268;1.2352;
1029.0000;0.6276;1.2326;
1029.3000;0.6162;1.2022;
1029.6000;0.6227;1.2149;
1029.9000;0.6260;1.2326;
1030.2000;0.6268;1.2326;
1030.5000;0.6276;1.2301;
1030.8000;0.6284;1.2352;
1031.1000;0.6276;1.2377;
1031.4000;0.6276;1.2402;
1031.7000;0.6268;1.2352;
1032.0000;0.6260;1.2402;
1032.3000;0.6260;1.2479;
1032.6000;0.6268;1.2352;
1032.9000;0.6243;1.2377;
1033.2000;0.6243;1.2352;
1033.5000;0.6260;1.2276;
1033.8000;0.6260;1.2326;
1034.1000;0.6268;1.2326;
1034.4000;0.6227;1.2276;
1034.7000;0.6260;1.2428;
1035.0000;0.6268;1.2479;
1035.3000;0.6260;1.2453;
1035.6000;0.6260;1.2504;
1035.9000;0.6252;1.2377;
1036.2000;0.6268;1.2352;
1036.5000;0.6268;1.2377;
1036.8000;0.6252;1.2326;
1037.1000;0.6243;1.2301;
1037.4000;0.6260;1.2428;
1037.7000;0.6260;1.2301;
1038.0000;0.6235;1.2225;
1038.3000;0.6243;1.2276;
1038.6000;0.6243;1.2276;
1038.9000;0.6276;1.2276;
1039.2000;0.6252;1.2276;
1039.5000;0.6252;1.2225;
1039.8000;0.6284;1.2352;
1040.1000;0.6260;1.2453;
1040.4000;0.6268;1.2529;
1040.7000;0.6252;1.2504;
1041.0000;0.6268;1.2580;
1041.3000;0.6260;1.2555;
1041.6000;0.6268;1.2555;
1041.9000;0.6243;1.2504;
1042.2000;0.6260;1.2529;
1042.5000;0.6268;1.2555;
1042.8000;0.6260;1.2504;
1043.1000;0.6260;1.2479;
1043.4000;0.6252;1.2479;
1043.7000;0.6252;1.2479;
1044.0000;0.6252;1.2428;
1044.3000;0.6243;1.2428;
1044.6000;0.6243;1.2479;
1044.9000;0.6260;1.2529;
1045.2000;0.6260;1.2402;
1045.5000;0.6243;1.2402;
1045.8000;0.6252;1.2402;
1046.1000;0.6260;1.2377;
1046.4000;0.6243;1.2402;
1046.7000;0.6268;1.2402;
1047.0000;0.6260;1.2428;
1047.3000;0.6252;1.2326;
1047.6000;0.6243;1.2326;
1047.9000;0.6219;1.2276;
1048.2000;0.6341;1.2707;
1048.5000;0.6243;1.2453;
1048.8000;0.6252;1.2402;
1049.1000;0.6252;1.2428;
1049.4000;0.6235;1.2326;
1049.7000;0.6227;1.2250;
1050.0000;0.6243;1.2326;
1050.3000;0.6260;1.2326;
1050.6000;0.6268;1.2326;
1050.9000;0.6227;1.2174;
1051.2000;0.6252;1.2200;
1051.5000;0.6235;1.2200;
1051.8000;0.6260;1.2149;
1052.1000;0.6276;1.2225;
1052.4000;0.6243;1.2174;
1052.7000;0.6243;1.2174;
1053.0000;0.6260;1.2174;
1053.3000;0.6235;1.2149;
1053.6000;0.6243;1.2123;
1053.9000;0.6252;1.2200;
1054.2000;0.6252;1.2250;
1054.5000;0.6260;1.2301;
1054.8000;0.6243;1.2301;
1055.1000;0.6243;1.2402;
1055.4000;0.6243;1.2377;
1055.7000;0.6243;1.2479;
1056.0000;0.6235;1.2428;
1056.3000;0.6260;1.2428;
1056.6000;0.6252;1.2402;
1056.9000;0.6252;1.2377;
1057.2000;0.6276;1.2326;
1057.5000;0.6243;1.2200;
1057.8000;0.6284;1.2301;
1058.1000;0.6268;1.2326;
1058.4000;0.6154;1.1921;
1058.7000;0.6252;1.2276;
1059.0000;0.6260;1.2352;
1059.3000;0.6252;1.2453;
1059.6000;0.6276;1.2529;
1059.9000;0.6260;1.2479;
1060.2000;0.6252;1.2377;
1060.5000;0.6260;1.2352;
1060.8000;0.6252;1.2301;
1061.1000;0.6292;1.2352;
1061.4000;0.6309;1.2377;
1061.7000;0.6268;1.2250;
1062.0000;0.6252;1.2276;
1062.3000;0.6260;1.2301;
1062.6000;0.6260;1.2352;
1062.9000;0.6252;1.2453;
1063.2000;0.6260;1.2504;
1063.5000;0.6268;1.2377;
1063.8000;0.6243;1.2453;
1064.1000;0.6268;1.2479;
1064.4000;0.6252;1.2377;
1064.7000;0.6243;1.2428;
1065.0000;0.6227;1.2402;
1065.3000;0.6243;1.2529;
1065.6000;0.6252;1.2555;
1065.9000;0.6243;1.2555;
1066.2000;0.6243;1.2529;
1066.5000;0.6154;1.2276;
1066.8000;0.6260;1.2453;
1067.1000;0.6235;1.2352;
1067.4000;0.6260;1.2479;
1067.7000;0.6170;1.2326;
1068.0000;0.6276;1.2605;
1068.3000;0.6284;1.2580;
1068.6000;0.6243;1.2479;
1068.9000;0.6260;1.2479;
1069.2000;0.6252;1.2529;
1069.5000;0.6317;1.2707;
1069.8000;0.6252;1.2529;
1070.1000;0.6260;1.2605;
1070.4000;0.6260;1.2580;
1070.7000;0.6260;1.2555;
1071.0000;0.6243;1.2529;
1071.3000;0.6268;1.2453;
1071.6000;0.6268;1.2504;
1071.9000;0.6276;1.2529;
1072.2000;0.6260;1.2555;
1072.5000;0.6252;1.2529;
1072.8000;0.6243;1.2504;
1073.1000;0.6276;1.2479;
1073.4000;0.6235;1.2428;
1073.7000;0.6260;1.2453;
1074.0000;0.6243;1.2377;
1074.3000;0.6260;1.2428;
1074.6000;0.6252;1.2453;
1074.9000;0.6252;1.2428;
1075.2000;0.6260;1.2402;
1075.5000;0.6252;1.2504;
1075.8000;0.6252;1.2504;
1076.1000;0.6252;1.2504;
1076.4000;0.6243;1.2453;
1076.7000;0.6243;1.2453;
1077.0000;0.6252;1.2504;
1077.3000;0.6260;1.2453;
1077.6000;0.6243;1.2402;
1077.9000;0.6252;1.2453;
1078.2000;0.6227;1.2428;
1078.5000;0.6260;1.2428;
1078.8000;0.6252;1.2377;
1079.1000;0.6268;1.2377;
1079.4000;0.6195;1.2301;
1079.7000;0.6260;1.2504;
1080.0000;0.6219;1.2428;
1080.3000;0.6252;1.2555;
1080.6000;0.6252;1.2555;
1080.9000;0.6260;1.2631;
1081.2000;0.6243;1.2555;
1081.5000;0.6252;1.2580;
1081.8000;0.6268;1.2605;
1082.1000;0.6325;1.2732;
1082.4000;0.6219;1.2453;
1082.7000;0.6252;1.2605;
1083.0000;0.6211;1.2402;
1083.3000;0.6260;1.2605;
1083.6000;0.6243;1.2555;
1083.9000;0.6235;1.2377;
1084.2000;0.6243;1.2402;
1084.5000;0.6260;1.2479;
1084.8000;0.6252;1.2529;
1085.1000;0.6243;1.2605;
1085.4000;0.6292;1.2758;
1085.7000;0.6252;1.2631;
1086.0000;0.6243;1.2656;
1086.3000;0.6243;1.2656;
1086.6000;0.6219;1.2631;
1086.9000;0.6243;1.2783;
1087.2000;0.6243;1.2758;
1087.5000;0.6252;1.2783;
1087.8000;0.6243;1.2656;
1088.1000;0.6243;1.2631;
1088.4000;0.6243;1.2580;
1088.7000;0.6235;1.2681;
1089.0000;0.6243;1.2808;
1089.3000;0.6268;1.2783;
1089.6000;0.6260;1.2732;
1089.9000;0.6243;1.2732;
1090.2000;0.6227;1.2681;
1090.5000;0.6317;1.2884;
1090.8000;0.6260;1.2758;
1091.1000;0.6284;1.2808;
1091.4000;0.6260;1.2758;
1091.7000;0.6227;1.2631;
1092.0000;0.6309;1.2884;
1092.3000;0.6243;1.2732;
1092.6000;0.6243;1.2681;
1092.9000;0.6243;1.2732;
1093.2000;0.6235;1.2732;
1093.5000;0.6195;1.2555;
1093.8000;0.6243;1.2656;
1094.1000;0.6243;1.2631;
1094.4000;0.6227;1.2605;
1094.7000;0.6252;1.2605;
1095.0000;0.6243;1.2631;
1095.3000;0.6252;1.2707;
1095.6000;0.6243;1.2580;
1095.9000;0.6235;1.2681;
1096.2000;0.6227;1.2732;
1096.5000;0.6203;1.2681;
1096.8000;0.6235;1.2834;
1097.1000;0.6276;1.2859;
1097.4000;0.6268;1.2707;
1097.7000;0.6227;1.2580;
1098.0000;0.6235;1.2605;
1098.3000;0.6243;1.2631;
1098.6000;0.6252;1.2707;
1098.9000;0.6243;1.2631;
1099.2000;0.6317;1.2808;
1099.5000;0.6252;1.2580;
1099.8000;0.6260;1.2656;
1100.1000;0.6243;1.2555;
1100.4000;0.6252;1.2605;
1100.7000;0.6243;1.2580;
1101.0000;0.6260;1.2605;
1101.3000;0.6260;1.2656;
1101.6000;0.6252;1.2656;
1101.9000;0.6252;1.2707;
1102.2000;0.6219;1.2605;
1102.5000;0.6252;1.2707;
1102.8000;0.6268;1.2656;
1103.1000;0.6227;1.2555;
1103.4000;0.6243;1.2580;
1103.7000;0.6243;1.2580;
1104.0000;0.6276;1.2605;
1104.3000;0.6195;1.2326;
1104.6000;0.6227;1.2453;
1104.9000;0.6252;1.2402;
1105.2000;0.6235;1.2352;
1105.5000;0.6235;1.2352;
1105.8000;0.6235;1.2504;
1106.1000;0.6260;1.2631;
1106.4000;0.6252;1.2555;
1106.7000;0.6252;1.2631;
1107.0000;0.6211;1.2605;
1107.3000;0.6243;1.2631;
1107.6000;0.6227;1.2504;
1107.9000;0.6235;1.2504;
1108.2000;0.6243;1.2479;
1108.5000;0.6235;1.2453;
1108.8000;0.6235;1.2580;
1109.1000;0.6243;1.2504;
1109.4000;0.6227;1.2428;
1109.7000;0.6252;1.2529;
1110.0000;0.6227;1.2555;
1110.3000;0.6268;1.2656;
1110.6000;0.6243;1.2580;
1110.9000;0.6243;1.2631;
1111.2000;0.6243;1.2555;
1111.5000;0.6235;1.2504;
1111.8000;0.6252;1.2529;
1112.1000;0.6219;1.2504;
1112.4000;0.6243;1.2681;
1112.7000;0.6219;1.2707;
1113.0000;0.6243;1.2707;
1113.3000;0.6227;1.2758;
1113.6000;0.6211;1.2808;
1113.9000;0.6243;1.2859;
1114.2000;0.6235;1.2783;
1114.5000;0.6243;1.2732;
1114.8000;0.6252;1.2783;
1115.1000;0.6235;1.2758;
1115.4000;0.6219;1.2681;
1115.7000;0.6227;1.2605;
1116.0000;0.6219;1.2580;
1116.3000;0.6243;1.2681;
1116.6000;0.6235;1.2707;
1116.9000;0.6243;1.2707;
1117.2000;0.6235;1.2631;
1117.5000;0.6146;1.2428;
1117.8000;0.6260;1.2681;
1118.1000;0.6235;1.2656;
1118.4000;0.6178;1.2529;
1118.7000;0.6235;1.2681;
1119.0000;0.6243;1.2732;
1119.3000;0.6227;1.2732;
1119.6000;0.6227;1.2656;
1119.9000;0.6227;1.2656;
1120.2000;0.6227;1.2732;
1120.5000;0.6235;1.2758;
1120.8000;0.6227;1.2884;
1121.1000;0.6219;1.2910;
1121.4000;0.6260;1.2986;
1121.7000;0.6235;1.2884;
1122.0000;0.6211;1.2834;
1122.3000;0.6227;1.2783;
1122.6000;0.6252;1.2707;
1122.9000;0.6252;1.2656;
1123.2000;0.6252;1.2681;
1123.5000;0.6211;1.2479;
1123.8000;0.6235;1.2453;
1124.1000;0.6235;1.2555;
1124.4000;0.6243;1.2504;
1124.7000;0.6235;1.2479;
1125.0000;0.6260;1.2605;
1125.3000;0.6243;1.2555;
1125.6000;0.6235;1.2529;
1125.9000;0.6260;1.2605;
1126.2000;0.6284;1.2732;
1126.5000;0.6235;1.2681;
1126.8000;0.6260;1.2656;
1127.1000;0.6227;1.2656;
1127.4000;0.6243;1.2656;
1127.7000;0.6252;1.2631;
1128.0000;0.6235;1.2681;
1128.3000;0.6243;1.2656;
1128.6000;0.6227;1.2580;
1128.9000;0.6129;1.2402;
1129.2000;0.6243;1.2681;
1129.5000;0.6219;1.2580;
1129.8000;0.6227;1.2555;
1130.1000;0.6235;1.2529;
1130.4000;0.6252;1.2580;
1130.7000;0.6227;1.2631;
1131.0000;0.6235;1.2758;
1131.3000;0.6235;1.2783;
1131.6000;0.6227;1.2808;
1131.9000;0.6227;1.2834;
1132.2000;0.6227;1.2884;
1132.5000;0.6235;1.3011;
1132.8000;0.6235;1.3113;
1133.1000;0.6260;1.3037;
1133.4000;0.6219;1.2834;
1133.7000;0.6235;1.2808;
1134.0000;0.6243;1.2884;
1134.3000;0.6357;1.3265;
1134.6000;0.6227;1.2910;
1134.9000;0.6252;1.2960;
1135.2000;0.6268;1.2910;
1135.5000;0.6260;1.2960;
1135.8000;0.6243;1.2935;
1136.1000;0.6260;1.2935;
1136.4000;0.6252;1.2859;
1136.7000;0.6235;1.2783;
1137.0000;0.6252;1.2758;
1137.3000;0.6268;1.2783;
1137.6000;0.6243;1.2758;
1137.9000;0.6235;1.2707;
1138.2000;0.6260;1.2681;
1138.5000;0.6219;1.2479;
1138.8000;0.6227;1.2453;
1139.1000;0.6252;1.2580;
1139.4000;0.6243;1.2504;
1139.7000;0.6219;1.2453;
1140.0000;0.6219;1.2428;
1140.3000;0.6252;1.2605;
1140.6000;0.6243;1.2605;
1140.9000;0.6235;1.2580;
1141.2000;0.6227;1.2555;
1141.5000;0.6235;1.2631;
1141.8000;0.6227;1.2580;
1142.1000;0.6219;1.2656;
1142.4000;0.6211;1.2656;
1142.7000;0.6227;1.2681;
1143.0000;0.6227;1.2707;
1143.3000;0.6227;1.2732;
1143.6000;0.6219;1.2707;
1143.9000;0.6219;1.2681;
1144.2000;0.6219;1.2681;
1144.5000;0.6227;1.2555;
1144.8000;0.6227;1.2681;
1145.1000;0.6268;1.2783;
1145.4000;0.6211;1.2605;
1145.7000;0.6227;1.2656;
1146.0000;0.6203;1.2631;
1146.3000;0.6227;1.2580;
1146.6000;0.6235;1.2707;
1146.9000;0.6138;1.2402;
1147.2000;0.6235;1.2580;
1147.5000;0.6227;1.2555;
1147.8000;0.6235;1.2605;
1148.1000;0.6243;1.2605;
1148.4000;0.6252;1.2681;
1148.7000;0.6243;1.2732;
1149.0000;0.6227;1.2631;
1149.3000;0.6235;1.2732;
1149.6000;0.6243;1.2732;
1149.9000;0.6211;1.2580;
1150.2000;0.6235;1.2656;
1150.5000;0.6227;1.2681;
1150.8000;0.6243;1.2681;
1151.1000;0.6235;1.2681;
1151.4000;0.6235;1.2707;
1151.7000;0.6235;1.2732;
1152.0000;0.6252;1.2783;
1152.3000;0.6227;1.2656;
1152.6000;0.6227;1.2580;
1152.9000;0.6113;1.2250;
1153.2000;0.6219;1.2580;
1153.5000;0.6227;1.2707;
1153.8000;0.6235;1.2580;
1154.1000;0.6227;1.2605;
1154.4000;0.6211;1.2580;
1154.7000;0.6227;1.2681;
1155.0000;0.6227;1.2631;
1155.3000;0.6235;1.2707;
1155.6000;0.6243;1.2656;
1155.9000;0.6243;1.2656;
1156.2000;0.6243;1.2631;
1156.5000;0.6195;1.2580;
1156.8000;0.6219;1.2580;
1157.1000;0.6243;1.2605;
1157.4000;0.6243;1.2529;
1157.7000;0.6235;1.2529;
1158.0000;0.6227;1.2555;
1158.3000;0.6260;1.2783;
1158.6000;0.6235;1.2783;
1158.9000;0.6227;1.2732;
1159.2000;0.6203;1.2707;
1159.5000;0.6227;1.2783;
1159.8000;0.6219;1.2707;
1160.1000;0.6203;1.2580;
1160.4000;0.6170;1.2453;
1160.7000;0.6227;1.2631;
1161.0000;0.6227;1.2758;
1161.3000;0.6227;1.2707;
1161.6000;0.6227;1.2656;
1161.9000;0.6243;1.2504;
1162.2000;0.6235;1.2529;
1162.5000;0.6235;1.2605;
1162.8000;0.6252;1.2681;
1163.1000;0.6243;1.2631;
1163.4000;0.6227;1.2580;
1163.7000;0.6211;1.2656;
1164.0000;0.6227;1.2758;
1164.3000;0.6227;1.2732;
1164.6000;0.6227;1.2681;
1164.9000;0.6227;1.2732;
1165.2000;0.6219;1.2681;
1165.5000;0.6227;1.2758;
1165.8000;0.6292;1.3011;
1166.1000;0.6227;1.2834;
1166.4000;0.6227;1.2758;
1166.7000;0.6235;1.2758;
1167.0000;0.6235;1.2783;
1167.3000;0.6252;1.2834;
1167.6000;0.6235;1.2758;
1167.9000;0.6235;1.2783;
1168.2000;0.6219;1.2707;
1168.5000;0.6227;1.2783;
1168.8000;0.6219;1.2783;
1169.1000;0.6235;1.2783;
1169.4000;0.6219;1.2758;
1169.7000;0.6227;1.2758;
1170.0000;0.6170;1.2758;
1170.3000;0.6219;1.2808;
1170.6000;0.6227;1.2834;
1170.9000;0.6235;1.2783;
1171.2000;0.6227;1.2783;
1171.5000;0.6219;1.2783;
1171.8000;0.6211;1.2834;
1172.1000;0.6243;1.2834;
1172.4000;0.6227;1.2935;
1172.7000;0.6243;1.2884;
1173.0000;0.6219;1.2783;
1173.3000;0.6243;1.2808;
1173.6000;0.6235;1.2758;
1173.9000;0.6227;1.2707;
1174.2000;0.6227;1.2681;
1174.5000;0.6227;1.2681;
1174.8000;0.6276;1.2758;
1175.1000;0.6235;1.2656;
1175.4000;0.6211;1.2631;
1175.7000;0.6227;1.2555;
1176.0000;0.6235;1.2631;
1176.3000;0.6146;1.2453;
1176.6000;0.6243;1.2656;
1176.9000;0.6219;1.2681;
1177.2000;0.6252;1.2758;
1177.5000;0.6252;1.2783;
1177.8000;0.6243;1.2758;
1178.1000;0.6235;1.2834;
1178.4000;0.6235;1.2808;
1178.7000;0.6235;1.2834;
1179.0000;0.6203;1.2732;
1179.3000;0.6219;1.2808;
1179.6000;0.6227;1.2783;
1179.9000;0.6243;1.2808;
1180.2000;0.6243;1.2808;
1180.5000;0.6243;1.2758;
1180.8000;0.6227;1.2783;
1181.1000;0.6227;1.2834;
1181.4000;0.6227;1.2859;
1181.7000;0.6227;1.2834;
1182.0000;0.6219;1.2935;
1182.3000;0.6219;1.2910;
1182.6000;0.6138;1.2656;
1182.9000;0.6235;1.2910;
1183.2000;0.6284;1.2884;
1183.5000;0.6235;1.2834;
1183.8000;0.6227;1.2834;
1184.1000;0.6252;1.3011;
1184.4000;0.6203;1.2960;
1184.7000;0.6211;1.2960;
1185.0000;0.6227;1.2986;
1185.3000;0.6243;1.3037;
1185.6000;0.6227;1.3087;
1185.9000;0.6227;1.3113;
1186.2000;0.6227;1.3138;
1186.5000;0.6235;1.3062;
1186.8000;0.6235;1.2986;
1187.1000;0.6219;1.2935;
1187.4000;0.6219;1.2935;
1187.7000;0.6227;1.2960;
1188.0000;0.6211;1.2859;
1188.3000;0.6219;1.2783;
1188.6000;0.6195;1.2783;
1188.9000;0.6219;1.2884;
1189.2000;0.6243;1.2935;
1189.5000;0.6227;1.2884;
1189.8000;0.6227;1.2910;
1190.1000;0.6252;1.3011;
1190.4000;0.6243;1.2960;
1190.7000;0.6219;1.2884;
1191.0000;0.6186;1.2834;
1191.3000;0.6203;1.2834;
1191.6000;0.6227;1.2859;
1191.9000;0.6235;1.2960;
1192.2000;0.6162;1.2707;
1192.5000;0.6227;1.2859;
1192.8000;0.6243;1.2960;
1193.1000;0.6219;1.2960;
1193.4000;0.6138;1.2758;
1193.7000;0.6219;1.2986;
1194.0000;0.6219;1.3062;
1194.3000;0.6227;1.3087;
1194.6000;0.6219;1.3062;
1194.9000;0.6211;1.3062;
1195.2000;0.6219;1.3062;
1195.5000;0.6235;1.2986;
1195.8000;0.6219;1.2960;
1196.1000;0.6211;1.2960;
1196.4000;0.6227;1.2910;
1196.7000;0.6219;1.2859;
1197.0000;0.6227;1.2859;
1197.3000;0.6211;1.2910;
1197.6000;0.6219;1.2935;
1197.9000;0.6235;1.2960;
1198.2000;0.6211;1.2859;
1198.5000;0.6219;1.2884;
1198.8000;0.6235;1.2960;
1199.1000;0.6252;1.2960;
1199.4000;0.6154;1.2758;
1199.7000;0.6227;1.2910;
1200.0000;0.6243;1.2884;
1200.3000;0.6178;1.2605;
1200.6000;0.6227;1.2732;
1200.9000;0.6227;1.2758;
1201.2000;0.6195;1.2732;
1201.5000;0.6219;1.2758;
1201.8000;0.6219;1.2834;
1202.1000;0.6219;1.2732;
1202.4000;0.6227;1.2758;
1202.7000;0.6219;1.2732;
1203.0000;0.6154;1.2504;
1203.3000;0.6219;1.2656;
1203.6000;0.6203;1.2580;
1203.9000;0.6243;1.2631;
1204.2000;0.6235;1.2631;
1204.5000;0.6252;1.2656;
1204.8000;0.6219;1.2453;
1205.1000;0.6219;1.2529;
1205.4000;0.6243;1.2681;
1205.7000;0.6227;1.2631;
1206.0000;0.6162;1.2529;
1206.3000;0.6219;1.2656;
1206.6000;0.6219;1.2580;
1206.9000;0.6219;1.2605;
1207.2000;0.6219;1.2631;
1207.5000;0.6154;1.2504;
1207.8000;0.6211;1.2555;
1208.1000;0.6252;1.2707;
1208.4000;0.6186;1.2605;
1208.7000;0.6211;1.2529;
1209.0000;0.6211;1.2555;
1209.3000;0.6170;1.2453;
1209.6000;0.6195;1.2631;
1209.9000;0.6211;1.2758;
1210.2000;0.6252;1.2884;
1210.5000;0.6219;1.2859;
1210.8000;0.6203;1.2732;
1211.1000;0.6227;1.2758;
1211.4000;0.6243;1.2707;
1211.7000;0.6235;1.2605;
1212.0000;0.6227;1.2631;
1212.3000;0.6300;1.2783;
1212.6000;0.6235;1.2656;
1212.9000;0.6162;1.2428;
1213.2000;0.6252;1.2732;
1213.5000;0.6235;1.2707;
1213.8000;0.6227;1.2631;
1214.1000;0.6227;1.2656;
1214.4000;0.6292;1.2808;
1214.7000;0.6227;1.2605;
1215.0000;0.6211;1.2555;
1215.3000;0.6211;1.2555;
1215.6000;0.6219;1.2605;
1215.9000;0.6243;1.2656;
1216.2000;0.6219;1.2631;
1216.5000;0.6227;1.2732;
1216.8000;0.6219;1.2732;
1217.1000;0.6284;1.2808;
1217.4000;0.6195;1.2529;
1217.7000;0.6219;1.2555;
1218.0000;0.6243;1.2580;
1218.3000;0.6227;1.2631;
1218.6000;0.6211;1.2605;
1218.9000;0.6203;1.2631;
1219.2000;0.6219;1.2555;
1219.5000;0.6227;1.2479;
1219.8000;0.6219;1.2453;
1220.1000;0.6227;1.2428;
1220.4000;0.6195;1.2276;
1220.7000;0.6235;1.2352;
1221.0000;0.6219;1.2352;
1221.3000;0.6243;1.2377;
1221.6000;0.6243;1.2276;
1221.9000;0.6276;1.2326;
1222.2000;0.6154;1.2073;
1222.5000;0.6219;1.2174;
1222.8000;0.6227;1.2200;
1223.1000;0.6235;1.2250;
1223.4000;0.6227;1.2225;
1223.7000;0.6219;1.2326;
1224.0000;0.6203;1.2200;
1224.3000;0.6211;1.2200;
1224.6000;0.6219;1.2250;
1224.9000;0.6235;1.2352;
1225.2000;0.6203;1.2276;
1225.5000;0.6211;1.2301;
1225.8000;0.6219;1.2250;
1226.1000;0.6211;1.2149;
1226.4000;0.6219;1.2276;
1226.7000;0.6235;1.2352;
1227.0000;0.6219;1.2225;
1227.3000;0.6235;1.2200;
1227.6000;0.6243;1.2225;
1227.9000;0.6219;1.2200;
1228.2000;0.6219;1.2326;
1228.5000;0.6211;1.2377;
1228.8000;0.6341;1.2707;
1229.1000;0.6227;1.2402;
1229.4000;0.6219;1.2352;
1229.7000;0.6211;1.2352;
1230.0000;0.6211;1.2352;
1230.3000;0.6211;1.2377;
1230.6000;0.6243;1.2529;
1230.9000;0.6260;1.2479;
1231.2000;0.6219;1.2428;
1231.5000;0.6186;1.2276;
1231.8000;0.6219;1.2428;
1232.1000;0.6219;1.2377;
1232.4000;0.6227;1.2326;
1232.7000;0.6219;1.2250;
1233.0000;0.6227;1.2174;
1233.3000;0.6243;1.2276;
1233.6000;0.6243;1.2276;
1233.9000;0.6211;1.2225;
1234.2000;0.6203;1.2250;
1234.5000;0.6178;1.2225;
1234.8000;0.6235;1.2377;
1235.1000;0.6219;1.2352;
1235.4000;0.6178;1.2301;
1235.7000;0.6227;1.2428;
1236.0000;0.6235;1.2529;
1236.3000;0.6211;1.2428;
1236.6000;0.6235;1.2504;
1236.9000;0.6219;1.2453;
1237.2000;0.6235;1.2428;
1237.5000;0.6203;1.2377;
1237.8000;0.6243;1.2428;
1238.1000;0.6252;1.2504;
1238.4000;0.6219;1.2453;
1238.7000;0.6219;1.2402;
1239.0000;0.6203;1.2453;
1239.3000;0.6227;1.2555;
1239.6000;0.6284;1.2732;
1239.9000;0.6203;1.2428;
1240.2000;0.6219;1.2428;
1240.5000;0.6211;1.2428;
1240.8000;0.6235;1.2504;
1241.1000;0.6211;1.2428;
1241.4000;0.6211;1.2555;
1241.7000;0.6227;1.2656;
1242.0000;0.6219;1.2758;
1242.3000;0.6219;1.2783;
1242.6000;0.6227;1.2808;
1242.9000;0.6227;1.2884;
1243.2000;0.6227;1.2834;
1243.5000;0.6227;1.2732;
1243.8000;0.6252;1.2758;
1244.1000;0.6219;1.2681;
1244.4000;0.6227;1.2732;
1244.7000;0.6235;1.2834;
1245.0000;0.6211;1.2834;
1245.3000;0.6227;1.2834;
1245.6000;0.6211;1.2707;
1245.9000;0.6211;1.2707;
1246.2000;0.6219;1.2783;
1246.5000;0.6235;1.2758;
1246.8000;0.6203;1.2631;
1247.1000;0.6211;1.2605;
1247.4000;0.6235;1.2631;
1247.7000;0.6235;1.2681;
1248.0000;0.6227;1.2631;
1248.3000;0.6227;1.2656;
1248.6000;0.6227;1.2656;
1248.9000;0.6235;1.2656;
1249.2000;0.6227;1.2580;
1249.5000;0.6235;1.2529;
1249.8000;0.6219;1.2529;
1250.1000;0.6227;1.2631;
1250.4000;0.6211;1.2555;
1250.7000;0.6219;1.2580;
1251.0000;0.6178;1.2504;
1251.3000;0.6235;1.2605;
1251.6000;0.6219;1.2631;
1251.9000;0.6243;1.2605;
1252.2000;0.6211;1.2529;
1252.5000;0.6276;1.2732;
1252.8000;0.6227;1.2529;
1253.1000;0.6211;1.2555;
1253.4000;0.6219;1.2605;
1253.7000;0.6243;1.2681;
1254.0000;0.6219;1.2529;
1254.3000;0.6203;1.2402;
1254.6000;0.6219;1.2428;
1254.9000;0.6211;1.2479;
1255.2000;0.6203;1.2402;
1255.5000;0.6211;1.2428;
1255.8000;0.6211;1.2479;
1256.1000;0.6219;1.2504;
1256.4000;0.6211;1.2529;
1256.7000;0.6211;1.2453;
1257.0000;0.6219;1.2428;
1257.3000;0.6195;1.2352;
1257.6000;0.6211;1.2504;
1257.9000;0.6203;1.2402;
1258.2000;0.6195;1.2326;
1258.5000;0.6219;1.2377;
1258.8000;0.6227;1.2326;
1259.1000;0.6268;1.2402;
1259.4000;0.6219;1.2453;
1259.7000;0.6146;1.2301;
1260.0000;0.6186;1.2402;
1260.3000;0.6219;1.2377;
1260.6000;0.6219;1.2402;
1260.9000;0.6203;1.2377;
1261.2000;0.6211;1.2352;
1261.5000;0.6219;1.2352;
1261.8000;0.6203;1.2352;
1262.1000;0.6284;1.2555;
1262.4000;0.6211;1.2453;
1262.7000;0.6227;1.2529;
1263.0000;0.6235;1.2580;
1263.3000;0.6227;1.2631;
1263.6000;0.6203;1.2479;
1263.9000;0.6235;1.2580;
1264.2000;0.6219;1.2631;
1264.5000;0.6195;1.2555;
1264.8000;0.6203;1.2580;
1265.1000;0.6219;1.2453;
1265.4000;0.6219;1.2428;
1265.7000;0.6162;1.2301;
1266.0000;0.6211;1.2504;
1266.3000;0.6211;1.2504;
1266.6000;0.6203;1.2479;
1266.9000;0.6203;1.2428;
1267.2000;0.6219;1.2453;
1267.5000;0.6227;1.2453;
1267.8000;0.6211;1.2479;
1268.1000;0.6195;1.2479;
1268.4000;0.6219;1.2529;
1268.7000;0.6211;1.2529;
1269.0000;0.6219;1.2529;
1269.3000;0.6186;1.2377;
1269.6000;0.6219;1.2377;
1269.9000;0.6219;1.2377;
1270.2000;0.6260;1.2479;
1270.5000;0.6235;1.2555;
1270.8000;0.6227;1.2631;
1271.1000;0.6235;1.2656;
1271.4000;0.6211;1.2631;
1271.7000;0.6227;1.2681;
1272.0000;0.6219;1.2605;
1272.3000;0.6219;1.2631;
1272.6000;0.6235;1.2681;
1272.9000;0.6243;1.2707;
1273.2000;0.6203;1.2631;
1273.5000;0.6227;1.2732;
1273.8000;0.6235;1.2758;
1274.1000;0.6227;1.2681;
1274.4000;0.6219;1.2656;
1274.7000;0.6227;1.2631;
1275.0000;0.6203;1.2555;
1275.3000;0.6325;1.2884;
1275.6000;0.6243;1.2707;
1275.9000;0.6219;1.2656;
1276.2000;0.6203;1.2631;
1276.5000;0.6235;1.2758;
1276.8000;0.6227;1.2707;
1277.1000;0.6227;1.2707;
1277.4000;0.6235;1.2758;
1277.7000;0.6227;1.2707;
1278.0000;0.6284;1.2732;
1278.3000;0.6203;1.2605;
1278.6000;0.6227;1.2707;
1278.9000;0.6203;1.2681;
1279.2000;0.6235;1.2732;
1279.5000;0.6227;1.2681;
1279.8000;0.6227;1.2656;
1280.1000;0.6243;1.2656;
1280.4000;0.6211;1.2580;
1280.7000;0.6243;1.2529;
1281.0000;0.6219;1.2402;
1281.3000;0.6219;1.2479;
1281.6000;0.6219;1.2504;
1281.9000;0.6235;1.2580;
1282.2000;0.6227;1.2529;
1282.5000;0.6211;1.2504;
1282.8000;0.6219;1.2555;
1283.1000;0.6260;1.2605;
1283.4000;0.6227;1.2504;
1283.7000;0.6211;1.2453;
1284.0000;0.6211;1.2377;
1284.3000;0.6211;1.2402;
1284.6000;0.6211;1.2326;
1284.9000;0.6211;1.2377;
1285.2000;0.6203;1.2402;
1285.5000;0.6219;1.2352;
1285.8000;0.6211;1.2377;
1286.1000;0.6235;1.2605;
1286.4000;0.6211;1.2580;
1286.7000;0.6211;1.2555;
1287.0000;0.6219;1.2428;
1287.3000;0.6211;1.2453;
1287.6000;0.6203;1.2402;
1287.9000;0.6211;1.2453;
1288.2000;0.6227;1.2479;
1288.5000;0.6235;1.2529;
1288.8000;0.6219;1.2479;
1289.1000;0.6219;1.2580;
1289.4000;0.6333;1.2783;
1289.7000;0.6235;1.2479;
1290.0000;0.6211;1.2529;
1290.3000;0.6219;1.2605;
1290.6000;0.6211;1.2555;
1290.9000;0.6227;1.2605;
1291.2000;0.6203;1.2453;
1291.5000;0.6227;1.2479;
1291.8000;0.6227;1.2479;
1292.1000;0.6211;1.2453;
1292.4000;0.6211;1.2428;
1292.7000;0.6203;1.2529;
1293.0000;0.6219;1.2580;
1293.3000;0.6211;1.2529;
1293.6000;0.6235;1.2555;
1293.9000;0.6211;1.2453;
1294.2000;0.6292;1.2707;
1294.5000;0.6195;1.2580;
1294.8000;0.6227;1.2605;
1295.1000;0.6219;1.2656;
1295.4000;0.6219;1.2580;
1295.7000;0.6235;1.2555;
1296.0000;0.6252;1.2555;
1296.3000;0.6235;1.2605;
1296.6000;0.6211;1.2580;
1296.9000;0.6227;1.2605;
1297.2000;0.6211;1.2605;
1297.5000;0.6235;1.2605;
1297.8000;0.6235;1.2555;
1298.1000;0.6219;1.2504;
1298.4000;0.6227;1.2453;
1298.7000;0.6227;1.2453;
1299.0000;0.6260;1.2605;
1299.3000;0.6211;1.2453;
1299.6000;0.6309;1.2631;
1299.9000;0.6121;1.2225;
1300.2000;0.6219;1.2504;
1300.5000;0.6227;1.2555;
1300.8000;0.6227;1.2529;
1301.1000;0.6227;1.2529;
1301.4000;0.6195;1.2453;
1301.7000;0.6203;1.2529;
1302.0000;0.6235;1.2631;
1302.3000;0.6227;1.2605;
1302.6000;0.6211;1.2605;
1302.9000;0.6211;1.2631;
1303.2000;0.6186;1.2580;
1303.5000;0.6203;1.2580;
1303.8000;0.6203;1.2580;
1304.1000;0.6211;1.2504;
1304.4000;0.6211;1.2453;
1304.7000;0.6235;1.2453;
1305.0000;0.6219;1.2453;
1305.3000;0.6203;1.2453;
1305.6000;0.6227;1.2504;
1305.9000;0.6211;1.2504;
1306.2000;0.6211;1.2529;
1306.5000;0.6211;1.2504;
1306.8000;0.6219;1.2428;
1307.1000;0.6211;1.2529;
1307.4000;0.6235;1.2605;
1307.7000;0.6211;1.2580;
1308.0000;0.6219;1.2605;
1308.3000;0.6105;1.2377;
1308.6000;0.6235;1.2605;
1308.9000;0.6203;1.2555;
1309.2000;0.6162;1.2428;
1309.5000;0.6219;1.2605;
1309.8000;0.6211;1.2580;
1310.1000;0.6211;1.2580;
1310.4000;0.6195;1.2504;
1310.7000;0.6203;1.2631;
1311.0000;0.6203;1.2580;
1311.3000;0.6219;1.2707;
1311.6000;0.6211;1.2656;
1311.9000;0.6211;1.2631;
1312.2000;0.6227;1.2605;
1312.5000;0.6219;1.2529;
1312.8000;0.6211;1.2529;
1313.1000;0.6211;1.2504;
1313.4000;0.6235;1.2555;
1313.7000;0.6219;1.2681;
1314.0000;0.6203;1.2707;
1314.3000;0.6227;1.2758;
1314.6000;0.6211;1.2732;
1314.9000;0.6219;1.2758;
1315.2000;0.6219;1.2732;
1315.5000;0.6211;1.2707;
1315.8000;0.6219;1.2681;
1316.1000;0.6260;1.2707;
1316.4000;0.6129;1.2301;
1316.7000;0.6219;1.2529;
1317.0000;0.6195;1.2580;
1317.3000;0.6211;1.2605;
1317.6000;0.6227;1.2580;
1317.9000;0.6219;1.2529;
1318.2000;0.6211;1.2555;
1318.5000;0.6235;1.2631;
1318.8000;0.6227;1.2631;
1319.1000;0.6195;1.2605;
1319.4000;0.6203;1.2758;
1319.7000;0.6235;1.2758;
1320.0000;0.6235;1.2707;
1320.3000;0.6219;1.2707;
1320.6000;0.6203;1.2631;
1320.9000;0.6211;1.2580;
1321.2000;0.6195;1.2555;
1321.5000;0.6219;1.2580;
1321.8000;0.6219;1.2529;
1322.1000;0.6211;1.2529;
1322.4000;0.6219;1.2605;
1322.7000;0.6219;1.2681;
1323.0000;0.6211;1.2631;
1323.3000;0.6219;1.2732;
1323.6000;0.6211;1.2707;
1323.9000;0.6203;1.2681;
1324.2000;0.6219;1.2681;
1324.5000;0.6284;1.2910;
1324.8000;0.6211;1.2808;
1325.1000;0.6219;1.2834;
1325.4000;0.6219;1.2834;
1325.7000;0.6138;1.2605;
1326.0000;0.6195;1.2681;
1326.3000;0.6195;1.2681;
1326.6000;0.6203;1.2732;
1326.9000;0.6268;1.2859;
1327.2000;0.6203;1.2580;
1327.5000;0.6211;1.2631;
1327.8000;0.6211;1.2580;
1328.1000;0.6203;1.2529;
1328.4000;0.6227;1.2605;
1328.7000;0.6227;1.2631;
1329.0000;0.6186;1.2504;
1329.3000;0.6219;1.2529;
1329.6000;0.6203;1.2580;
1329.9000;0.6260;1.2758;
1330.2000;0.6203;1.2631;
1330.5000;0.6252;1.2681;
1330.8000;0.6211;1.2555;
1331.1000;0.6219;1.2681;
1331.4000;0.6227;1.2732;
1331.7000;0.6211;1.2605;
1332.0000;0.6227;1.2681;
1332.3000;0.6154;1.2504;
1332.6000;0.6211;1.2656;
1332.9000;0.6260;1.2834;
1333.2000;0.6260;1.2783;
1333.5000;0.6211;1.2758;
1333.8000;0.6227;1.2834;
1334.1000;0.6219;1.2884;
1334.4000;0.6211;1.2783;
1334.7000;0.6203;1.2732;
1335.0000;0.6186;1.2605;
1335.3000;0.6227;1.2631;
1335.6000;0.6211;1.2580;
1335.9000;0.6146;1.2453;
1336.2000;0.6203;1.2656;
1336.5000;0.6203;1.2707;
1336.8000;0.6195;1.2808;
1337.1000;0.6211;1.2884;
1337.4000;0.6219;1.2808;
1337.7000;0.6227;1.2758;
1338.0000;0.6219;1.2808;
1338.3000;0.6252;1.2935;
1338.6000;0.6219;1.2758;
1338.9000;0.6219;1.2808;
1339.2000;0.6211;1.2783;
1339.5000;0.6211;1.2859;
1339.8000;0.6203;1.2859;
1340.1000;0.6211;1.2808;
1340.4000;0.6186;1.2707;
1340.7000;0.6211;1.2631;
1341.0000;0.6195;1.2605;
1341.3000;0.6219;1.2681;
1341.6000;0.6235;1.2707;
1341.9000;0.6121;1.2402;
1342.2000;0.6211;1.2631;
1342.5000;0.6227;1.2681;
1342.8000;0.6227;1.2656;
1343.1000;0.6235;1.2656;
1343.4000;0.6203;1.2656;
1343.7000;0.6219;1.2732;
1344.0000;0.6219;1.2707;
1344.3000;0.6219;1.2681;
1344.6000;0.6203;1.2656;
1344.9000;0.6227;1.2758;
1345.2000;0.6235;1.2808;
1345.5000;0.6211;1.2732;
1345.8000;0.6211;1.2707;
1346.1000;0.6219;1.2783;
1346.4000;0.6219;1.2808;
1346.7000;0.6170;1.2681;
1347.0000;0.6203;1.2681;
1347.3000;0.6227;1.2707;
1347.6000;0.6243;1.2758;
1347.9000;0.6211;1.2707;
1348.2000;0.6203;1.2758;
1348.5000;0.6219;1.2656;
1348.8000;0.6211;1.2681;
1349.1000;0.6219;1.2631;
1349.4000;0.6227;1.2605;
1349.7000;0.6203;1.2605;
1350.0000;0.6211;1.2707;
1350.3000;0.6227;1.2834;
1350.6000;0.6211;1.2758;
1350.9000;0.6178;1.2681;
1351.2000;0.6219;1.2707;
1351.5000;0.6195;1.2656;
1351.8000;0.6219;1.2707;
1352.1000;0.6219;1.2707;
1352.4000;0.6211;1.2681;
1352.7000;0.6203;1.2656;
1353.0000;0.6227;1.2758;
1353.3000;0.6227;1.2783;
1353.6000;0.6219;1.2808;
1353.9000;0.6219;1.2884;
1354.2000;0.6178;1.2783;
1354.5000;0.6203;1.2834;
1354.8000;0.6211;1.2884;
1355.1000;0.6211;1.2834;
1355.4000;0.6243;1.2732;
1355.7000;0.6211;1.2656;
1356.0000;0.6211;1.2504;
1356.3000;0.6211;1.2555;
1356.6000;0.6178;1.2479;
1356.9000;0.6219;1.2529;
1357.2000;0.6203;1.2428;
1357.5000;0.6211;1.2453;
1357.8000;0.6219;1.2453;
1358.1000;0.6235;1.2479;
1358.4000;0.6203;1.2402;
1358.7000;0.6235;1.2555;
1359.0000;0.6219;1.2580;
1359.3000;0.6235;1.2580;
1359.6000;0.6219;1.2479;
1359.9000;0.6113;1.2250;
1360.2000;0.6227;1.2555;
1360.5000;0.6211;1.2555;
1360.8000;0.6219;1.2605;
1361.1000;0.6227;1.2580;
1361.4000;0.6219;1.2580;
1361.7000;0.6235;1.2707;
1362.0000;0.6227;1.2707;
1362.3000;0.6211;1.2707;
1362.6000;0.6219;1.2707;
1362.9000;0.6227;1.2681;
1363.2000;0.6186;1.2504;
1363.5000;0.6211;1.2428;
1363.8000;0.6227;1.2504;
1364.1000;0.6211;1.2555;
1364.4000;0.6129;1.2453;
1364.7000;0.6235;1.2631;
1365.0000;0.6227;1.2681;
1365.3000;0.6227;1.2681;
1365.6000;0.6227;1.2656;
1365.9000;0.6219;1.2656;
1366.2000;0.6219;1.2707;
1366.5000;0.6203;1.2758;
1366.8000;0.6211;1.2783;
1367.1000;0.6219;1.2783;
1367.4000;0.6219;1.2834;
1367.7000;0.6186;1.2707;
1368.0000;0.6195;1.2707;
1368.3000;0.6260;1.2732;
1368.6000;0.6235;1.2656;
1368.9000;0.6219;1.2605;
1369.2000;0.6203;1.2631;
1369.5000;0.6227;1.2681;
1369.8000;0.6227;1.2656;
1370.1000;0.6219;1.2681;
1370.4000;0.6138;1.2555;
1370.7000;0.6227;1.2808;
1371.0000;0.6219;1.2884;
1371.3000;0.6219;1.2783;
1371.6000;0.6195;1.2681;
1371.9000;0.6211;1.2707;
1372.2000;0.6284;1.2884;
1372.5000;0.6186;1.2631;
1372.8000;0.6219;1.2631;
1373.1000;0.6211;1.2631;
1373.4000;0.6219;1.2580;
1373.7000;0.6203;1.2453;
1374.0000;0.6186;1.2504;
1374.3000;0.6186;1.2453;
1374.6000;0.6211;1.2631;
1374.9000;0.6219;1.2681;
1375.2000;0.6219;1.2732;
1375.5000;0.6195;1.2631;
1375.8000;0.6219;1.2605;
1376.1000;0.6203;1.2656;
1376.4000;0.6203;1.2707;
1376.7000;0.6203;1.2783;
1377.0000;0.6219;1.2732;
1377.3000;0.6203;1.2732;
1377.6000;0.6219;1.2681;
1377.9000;0.6203;1.2631;
1378.2000;0.6252;1.2783;
1378.5000;0.6227;1.2808;
1378.8000;0.6162;1.2681;
1379.1000;0.6203;1.2808;
1379.4000;0.6219;1.2808;
1379.7000;0.6235;1.2834;
1380.0000;0.6211;1.2758;
1380.3000;0.6195;1.2707;
1380.6000;0.6195;1.2758;
1380.9000;0.6211;1.2884;
1381.2000;0.6203;1.2910;
1381.5000;0.6211;1.2834;
1381.8000;0.6211;1.2859;
1382.1000;0.6211;1.2910;
1382.4000;0.6203;1.2884;
1382.7000;0.6203;1.2808;
1383.0000;0.6195;1.2707;
1383.3000;0.6195;1.2681;
1383.6000;0.6235;1.2732;
1383.9000;0.6195;1.2656;
1384.2000;0.6195;1.2707;
1384.5000;0.6227;1.2808;
1384.8000;0.6227;1.2783;
1385.1000;0.6203;1.2783;
1385.4000;0.6211;1.2834;
1385.7000;0.6203;1.2783;
1386.0000;0.6203;1.2758;
1386.3000;0.6276;1.2910;
1386.6000;0.6203;1.2707;
1386.9000;0.6211;1.2758;
1387.2000;0.6227;1.2859;
1387.5000;0.6203;1.2732;
1387.8000;0.6211;1.2758;
1388.1000;0.6219;1.2681;
1388.4000;0.6268;1.2732;
1388.7000;0.6227;1.2580;
1389.0000;0.6235;1.2580;
1389.3000;0.6203;1.2580;
1389.6000;0.6219;1.2555;
1389.9000;0.6203;1.2504;
1390.2000;0.6203;1.2529;
1390.5000;0.6186;1.2504;
1390.8000;0.6219;1.2555;
1391.1000;0.6227;1.2631;
1391.4000;0.6203;1.2681;
1391.7000;0.6211;1.2732;
1392.0000;0.6211;1.2631;
1392.3000;0.6219;1.2580;
1392.6000;0.6227;1.2529;
1392.9000;0.6203;1.2453;
1393.2000;0.6219;1.2428;
1393.5000;0.6235;1.2377;
1393.8000;0.6235;1.2479;
1394.1000;0.6243;1.2555;
1394.4000;0.6227;1.2681;
1394.7000;0.6227;1.2681;
1395.0000;0.6227;1.2631;
1395.3000;0.6219;1.2631;
1395.6000;0.6227;1.2605;
1395.9000;0.6203;1.2631;
1396.2000;0.6243;1.2758;
1396.5000;0.6219;1.2631;
1396.8000;0.6284;1.2707;
1397.1000;0.6170;1.2402;
1397.4000;0.6203;1.2479;
1397.7000;0.6211;1.2479;
1398.0000;0.6211;1.2453;
1398.3000;0.6186;1.2428;
1398.6000;0.6211;1.2428;
1398.9000;0.6203;1.2402;
1399.2000;0.6211;1.2377;
1399.5000;0.6186;1.2326;
1399.8000;0.6211;1.2377;
