time/ms;Fluo/V;P700 deltaI/I x10³;
-199.8000;1.0159;0.1414;
-199.5000;1.0151;0.1298;
-199.2000;1.0159;0.1298;
-198.9000;1.0167;0.1275;
-198.6000;1.0175;0.1322;
-198.3000;1.0183;0.1298;
-198.0000;1.0175;0.1345;
-197.7000;1.0167;0.1368;
-197.4000;1.0191;0.1437;
-197.1000;1.0183;0.1507;
-196.8000;1.0175;0.1553;
-196.5000;1.0159;0.1530;
-196.2000;1.0159;0.1530;
-195.9000;1.0175;0.1530;
-195.6000;1.0159;0.1577;
-195.3000;1.0167;0.1553;
-195.0000;1.0159;0.1507;
-194.7000;1.0167;0.1507;
-194.4000;1.0167;0.1507;
-194.1000;1.0159;0.1507;
-193.8000;1.0142;0.1461;
-193.5000;1.0159;0.1530;
-193.2000;1.0142;0.1530;
-192.9000;1.0151;0.1577;
-192.6000;1.0167;0.1600;
-192.3000;1.0159;0.1530;
-192.0000;1.0167;0.1553;
-191.7000;1.0159;0.1577;
-191.4000;1.0142;0.1553;
-191.1000;1.0167;0.1600;
-190.8000;1.0159;0.1507;
-190.5000;1.0151;0.1553;
-190.2000;1.0167;0.1623;
-189.9000;1.0159;0.1553;
-189.6000;1.0167;0.1553;
-189.3000;1.0175;0.1507;
-189.0000;1.0167;0.1437;
-188.7000;1.0151;0.1530;
-188.4000;1.0175;0.1553;
-188.1000;1.0175;0.1577;
-187.8000;1.0159;0.1507;
-187.5000;1.0151;0.1414;
-187.2000;1.0159;0.1414;
-186.9000;1.0167;0.1484;
-186.6000;1.0167;0.1507;
-186.3000;1.0159;0.1437;
-186.0000;1.0175;0.1437;
-185.7000;1.0167;0.1414;
-185.4000;1.0183;0.1345;
-185.1000;1.0151;0.1298;
-184.8000;1.0167;0.1275;
-184.5000;1.0167;0.1298;
-184.2000;1.0159;0.1229;
-183.9000;1.0159;0.1322;
-183.6000;1.0175;0.1345;
-183.3000;1.0159;0.1391;
-183.0000;1.0159;0.1391;
-182.7000;1.0159;0.1322;
-182.4000;1.0175;0.1345;
-182.1000;1.0167;0.1252;
-181.8000;1.0183;0.1322;
-181.5000;1.0175;0.1298;
-181.2000;1.0151;0.1275;
-180.9000;1.0175;0.1298;
-180.6000;1.0159;0.1298;
-180.3000;1.0167;0.1206;
-180.0000;1.0167;0.1159;
-179.7000;1.0159;0.1252;
-179.4000;1.0175;0.1322;
-179.1000;1.0183;0.1345;
-178.8000;1.0151;0.1275;
-178.5000;1.0167;0.1252;
-178.2000;1.0183;0.1322;
-177.9000;1.0175;0.1322;
-177.6000;1.0151;0.1275;
-177.3000;1.0159;0.1206;
-177.0000;1.0191;0.1229;
-176.7000;1.0183;0.1275;
-176.4000;1.0167;0.1275;
-176.1000;1.0167;0.1345;
-175.8000;1.0232;0.1530;
-175.5000;1.0159;0.1345;
-175.2000;1.0159;0.1275;
-174.9000;1.0151;0.1322;
-174.6000;1.0151;0.1206;
-174.3000;1.0151;0.1322;
-174.0000;1.0151;0.1252;
-173.7000;1.0159;0.1322;
-173.4000;1.0159;0.1368;
-173.1000;1.0142;0.1437;
-172.8000;1.0167;0.1437;
-172.5000;1.0159;0.1391;
-172.2000;1.0159;0.1414;
-171.9000;1.0142;0.1391;
-171.6000;1.0167;0.1391;
-171.3000;1.0167;0.1345;
-171.0000;1.0159;0.1229;
-170.7000;1.0159;0.1206;
-170.4000;1.0151;0.1252;
-170.1000;1.0159;0.1275;
-169.8000;1.0167;0.1322;
-169.5000;1.0159;0.1368;
-169.2000;1.0167;0.1391;
-168.9000;1.0151;0.1345;
-168.6000;1.0151;0.1322;
-168.3000;1.0151;0.1229;
-168.0000;1.0199;0.1368;
-167.7000;1.0159;0.1414;
-167.4000;1.0175;0.1345;
-167.1000;1.0159;0.1252;
-166.8000;1.0159;0.1229;
-166.5000;1.0183;0.1322;
-166.2000;1.0208;0.1437;
-165.9000;1.0159;0.1275;
-165.6000;1.0175;0.1345;
-165.3000;1.0183;0.1437;
-165.0000;1.0167;0.1368;
-164.7000;1.0077;0.1229;
-164.4000;1.0175;0.1414;
-164.1000;1.0183;0.1414;
-163.8000;1.0175;0.1461;
-163.5000;1.0167;0.1437;
-163.2000;1.0175;0.1461;
-162.9000;1.0191;0.1461;
-162.6000;1.0175;0.1507;
-162.3000;1.0208;0.1577;
-162.0000;1.0191;0.1577;
-161.7000;1.0175;0.1530;
-161.4000;1.0167;0.1669;
-161.1000;1.0183;0.1646;
-160.8000;1.0151;0.1623;
-160.5000;1.0167;0.1600;
-160.2000;1.0167;0.1484;
-159.9000;1.0167;0.1437;
-159.6000;1.0175;0.1414;
-159.3000;1.0151;0.1507;
-159.0000;1.0142;0.1437;
-158.7000;1.0159;0.1414;
-158.4000;1.0134;0.1391;
-158.1000;1.0134;0.1368;
-157.8000;1.0167;0.1507;
-157.5000;1.0167;0.1507;
-157.2000;1.0159;0.1530;
-156.9000;1.0159;0.1600;
-156.6000;1.0167;0.1577;
-156.3000;1.0183;0.1646;
-156.0000;1.0102;0.1391;
-155.7000;1.0183;0.1530;
-155.4000;1.0175;0.1391;
-155.1000;1.0167;0.1345;
-154.8000;1.0126;0.1229;
-154.5000;1.0151;0.1391;
-154.2000;1.0175;0.1345;
-153.9000;1.0199;0.1298;
-153.6000;1.0159;0.1159;
-153.3000;1.0151;0.1159;
-153.0000;1.0151;0.1182;
-152.7000;1.0102;0.1067;
-152.4000;1.0142;0.1298;
-152.1000;1.0167;0.1322;
-151.8000;1.0167;0.1368;
-151.5000;1.0159;0.1368;
-151.2000;1.0183;0.1507;
-150.9000;1.0183;0.1553;
-150.6000;1.0175;0.1646;
-150.3000;1.0175;0.1577;
-150.0000;1.0167;0.1507;
-149.7000;1.0151;0.1507;
-149.4000;1.0175;0.1530;
-149.1000;1.0159;0.1553;
-148.8000;1.0167;0.1553;
-148.5000;1.0175;0.1577;
-148.2000;1.0167;0.1461;
-147.9000;1.0151;0.1461;
-147.6000;1.0175;0.1530;
-147.3000;1.0208;0.1716;
-147.0000;1.0167;0.1646;
-146.7000;1.0159;0.1669;
-146.4000;1.0159;0.1669;
-146.1000;1.0167;0.1716;
-145.8000;1.0045;0.1322;
-145.5000;1.0159;0.1623;
-145.2000;1.0142;0.1600;
-144.9000;1.0142;0.1507;
-144.6000;1.0175;0.1577;
-144.3000;1.0142;0.1530;
-144.0000;1.0151;0.1577;
-143.7000;1.0159;0.1623;
-143.4000;1.0159;0.1553;
-143.1000;1.0167;0.1553;
-142.8000;1.0159;0.1484;
-142.5000;1.0167;0.1461;
-142.2000;1.0183;0.1530;
-141.9000;1.0167;0.1530;
-141.6000;1.0151;0.1553;
-141.3000;1.0142;0.1577;
-141.0000;1.0167;0.1739;
-140.7000;1.0167;0.1808;
-140.4000;1.0151;0.1739;
-140.1000;1.0142;0.1693;
-139.8000;1.0167;0.1762;
-139.5000;1.0159;0.1762;
-139.2000;1.0134;0.1716;
-138.9000;1.0142;0.1762;
-138.6000;1.0142;0.1762;
-138.3000;1.0159;0.1785;
-138.0000;1.0159;0.1762;
-137.7000;1.0142;0.1716;
-137.4000;1.0151;0.1646;
-137.1000;1.0151;0.1716;
-136.8000;1.0167;0.1669;
-136.5000;1.0142;0.1623;
-136.2000;1.0151;0.1623;
-135.9000;1.0126;0.1530;
-135.6000;1.0151;0.1530;
-135.3000;1.0126;0.1437;
-135.0000;1.0142;0.1414;
-134.7000;1.0183;0.1484;
-134.4000;1.0167;0.1461;
-134.1000;1.0159;0.1437;
-133.8000;1.0159;0.1530;
-133.5000;1.0142;0.1553;
-133.2000;1.0167;0.1623;
-132.9000;1.0167;0.1669;
-132.6000;1.0159;0.1623;
-132.3000;1.0118;0.1530;
-132.0000;1.0151;0.1669;
-131.7000;1.0167;0.1693;
-131.4000;1.0175;0.1693;
-131.1000;1.0175;0.1878;
-130.8000;1.0151;0.1878;
-130.5000;1.0151;0.1855;
-130.2000;1.0151;0.1808;
-129.9000;1.0159;0.1785;
-129.6000;1.0159;0.1739;
-129.3000;1.0167;0.1669;
-129.0000;1.0183;0.1623;
-128.7000;1.0183;0.1553;
-128.4000;1.0167;0.1437;
-128.1000;1.0191;0.1623;
-127.8000;1.0183;0.1669;
-127.5000;1.0167;0.1693;
-127.2000;1.0167;0.1716;
-126.9000;1.0199;0.1716;
-126.6000;1.0191;0.1739;
-126.3000;1.0159;0.1693;
-126.0000;1.0159;0.1832;
-125.7000;1.0159;0.1808;
-125.4000;1.0191;0.1808;
-125.1000;1.0142;0.1623;
-124.8000;1.0142;0.1646;
-124.5000;1.0191;0.1785;
-124.2000;1.0159;0.1808;
-123.9000;1.0167;0.1855;
-123.6000;1.0159;0.1762;
-123.3000;1.0167;0.1785;
-123.0000;1.0175;0.1693;
-122.7000;1.0191;0.1693;
-122.4000;1.0102;0.1414;
-122.1000;1.0183;0.1530;
-121.8000;1.0159;0.1507;
-121.5000;1.0175;0.1623;
-121.2000;1.0151;0.1669;
-120.9000;1.0167;0.1693;
-120.6000;1.0151;0.1623;
-120.3000;1.0175;0.1577;
-120.0000;1.0175;0.1600;
-119.7000;1.0175;0.1646;
-119.4000;1.0159;0.1693;
-119.1000;1.0175;0.1716;
-118.8000;1.0159;0.1739;
-118.5000;1.0151;0.1762;
-118.2000;1.0175;0.1762;
-117.9000;1.0077;0.1461;
-117.6000;1.0167;0.1600;
-117.3000;1.0175;0.1739;
-117.0000;1.0118;0.1669;
-116.7000;1.0167;0.1808;
-116.4000;1.0191;0.1808;
-116.1000;1.0183;0.1762;
-115.8000;1.0175;0.1739;
-115.5000;1.0142;0.1693;
-115.2000;1.0167;0.1739;
-114.9000;1.0167;0.1855;
-114.6000;1.0167;0.1901;
-114.3000;1.0159;0.1739;
-114.0000;1.0191;0.1716;
-113.7000;1.0191;0.1600;
-113.4000;1.0232;0.1693;
-113.1000;1.0167;0.1530;
-112.8000;1.0167;0.1577;
-112.5000;1.0216;0.1669;
-112.2000;1.0167;0.1530;
-111.9000;1.0183;0.1669;
-111.6000;1.0159;0.1646;
-111.3000;1.0175;0.1716;
-111.0000;1.0167;0.1693;
-110.7000;1.0134;0.1577;
-110.4000;1.0134;0.1530;
-110.1000;1.0159;0.1461;
-109.8000;1.0175;0.1577;
-109.5000;1.0159;0.1646;
-109.2000;1.0142;0.1646;
-108.9000;1.0183;0.1669;
-108.6000;1.0175;0.1669;
-108.3000;1.0208;0.1716;
-108.0000;1.0159;0.1646;
-107.7000;1.0167;0.1669;
-107.4000;1.0167;0.1669;
-107.1000;1.0159;0.1600;
-106.8000;1.0159;0.1530;
-106.5000;1.0159;0.1530;
-106.2000;1.0175;0.1461;
-105.9000;1.0175;0.1461;
-105.6000;1.0151;0.1484;
-105.3000;1.0191;0.1600;
-105.0000;1.0142;0.1553;
-104.7000;1.0159;0.1484;
-104.4000;1.0167;0.1414;
-104.1000;1.0159;0.1461;
-103.8000;1.0159;0.1530;
-103.5000;1.0151;0.1623;
-103.2000;1.0126;0.1577;
-102.9000;1.0142;0.1623;
-102.6000;1.0159;0.1577;
-102.3000;1.0142;0.1507;
-102.0000;1.0151;0.1484;
-101.7000;1.0151;0.1461;
-101.4000;1.0151;0.1461;
-101.1000;1.0134;0.1437;
-100.8000;1.0151;0.1553;
-100.5000;1.0183;0.1600;
-100.2000;1.0159;0.1530;
-99.9000;1.0167;0.1507;
-99.6000;1.0175;0.1553;
-99.3000;1.0167;0.1484;
-99.0000;1.0159;0.1437;
-98.7000;1.0094;0.1275;
-98.4000;1.0167;0.1553;
-98.1000;1.0159;0.1600;
-97.8000;1.0159;0.1623;
-97.5000;1.0159;0.1669;
-97.2000;1.0167;0.1669;
-96.9000;1.0167;0.1669;
-96.6000;1.0175;0.1623;
-96.3000;1.0142;0.1553;
-96.0000;1.0167;0.1646;
-95.7000;1.0118;0.1577;
-95.4000;1.0159;0.1739;
-95.1000;1.0175;0.1693;
-94.8000;1.0159;0.1600;
-94.5000;1.0142;0.1530;
-94.2000;1.0159;0.1553;
-93.9000;1.0167;0.1577;
-93.6000;1.0167;0.1553;
-93.3000;1.0175;0.1600;
-93.0000;1.0159;0.1669;
-92.7000;1.0175;0.1716;
-92.4000;1.0159;0.1669;
-92.1000;1.0183;0.1693;
-91.8000;1.0167;0.1669;
-91.5000;1.0118;0.1600;
-91.2000;1.0151;0.1669;
-90.9000;1.0159;0.1623;
-90.6000;1.0142;0.1553;
-90.3000;1.0151;0.1600;
-90.0000;1.0151;0.1600;
-89.7000;1.0159;0.1530;
-89.4000;1.0199;0.1600;
-89.1000;1.0142;0.1530;
-88.8000;1.0110;0.1530;
-88.5000;1.0159;0.1693;
-88.2000;1.0167;0.1693;
-87.9000;1.0151;0.1739;
-87.6000;1.0142;0.1739;
-87.3000;1.0142;0.1739;
-87.0000;1.0167;0.1785;
-86.7000;1.0151;0.1693;
-86.4000;1.0142;0.1669;
-86.1000;1.0142;0.1693;
-85.8000;1.0159;0.1739;
-85.5000;1.0167;0.1716;
-85.2000;1.0142;0.1693;
-84.9000;1.0142;0.1669;
-84.6000;1.0151;0.1600;
-84.3000;1.0167;0.1530;
-84.0000;1.0159;0.1530;
-83.7000;1.0183;0.1646;
-83.4000;1.0151;0.1600;
-83.1000;1.0167;0.1693;
-82.8000;1.0216;0.1762;
-82.5000;1.0175;0.1623;
-82.2000;1.0159;0.1530;
-81.9000;1.0061;0.1298;
-81.6000;1.0167;0.1530;
-81.3000;1.0142;0.1437;
-81.0000;1.0167;0.1414;
-80.7000;1.0159;0.1414;
-80.4000;1.0175;0.1437;
-80.1000;1.0175;0.1414;
-79.8000;1.0159;0.1461;
-79.5000;1.0151;0.1507;
-79.2000;1.0151;0.1553;
-78.9000;1.0175;0.1600;
-78.6000;1.0159;0.1530;
-78.3000;1.0151;0.1530;
-78.0000;1.0151;0.1437;
-77.7000;1.0167;0.1530;
-77.4000;1.0134;0.1461;
-77.1000;1.0142;0.1461;
-76.8000;1.0151;0.1577;
-76.5000;1.0126;0.1530;
-76.2000;1.0175;0.1623;
-75.9000;1.0167;0.1669;
-75.6000;1.0224;0.1832;
-75.3000;1.0183;0.1693;
-75.0000;1.0167;0.1669;
-74.7000;1.0167;0.1693;
-74.4000;1.0167;0.1716;
-74.1000;1.0175;0.1693;
-73.8000;1.0159;0.1669;
-73.5000;1.0142;0.1600;
-73.2000;1.0159;0.1600;
-72.9000;1.0151;0.1577;
-72.6000;1.0191;0.1739;
-72.3000;1.0151;0.1553;
-72.0000;1.0167;0.1623;
-71.7000;1.0151;0.1553;
-71.4000;1.0167;0.1577;
-71.1000;1.0167;0.1530;
-70.8000;1.0183;0.1530;
-70.5000;1.0167;0.1530;
-70.2000;1.0167;0.1530;
-69.9000;1.0224;0.1716;
-69.6000;1.0159;0.1623;
-69.3000;1.0142;0.1577;
-69.0000;1.0134;0.1577;
-68.7000;1.0183;0.1669;
-68.4000;1.0175;0.1693;
-68.1000;1.0159;0.1530;
-67.8000;1.0167;0.1530;
-67.5000;1.0151;0.1484;
-67.2000;1.0151;0.1577;
-66.9000;1.0159;0.1623;
-66.6000;1.0167;0.1646;
-66.3000;1.0167;0.1646;
-66.0000;1.0159;0.1693;
-65.7000;1.0167;0.1762;
-65.4000;1.0151;0.1716;
-65.1000;1.0167;0.1669;
-64.8000;1.0159;0.1553;
-64.5000;1.0142;0.1530;
-64.2000;1.0167;0.1600;
-63.9000;1.0167;0.1623;
-63.6000;1.0142;0.1577;
-63.3000;1.0142;0.1530;
-63.0000;1.0126;0.1437;
-62.7000;1.0167;0.1553;
-62.4000;1.0151;0.1577;
-62.1000;1.0167;0.1577;
-61.8000;1.0159;0.1530;
-61.5000;1.0167;0.1507;
-61.2000;1.0175;0.1623;
-60.9000;1.0167;0.1530;
-60.6000;1.0110;0.1461;
-60.3000;1.0110;0.1414;
-60.0000;1.0142;0.1414;
-59.7000;1.0216;0.1577;
-59.4000;1.0142;0.1437;
-59.1000;1.0126;0.1437;
-58.8000;1.0159;0.1461;
-58.5000;1.0167;0.1577;
-58.2000;1.0102;0.1437;
-57.9000;1.0151;0.1693;
-57.6000;1.0142;0.1646;
-57.3000;1.0159;0.1716;
-57.0000;1.0142;0.1716;
-56.7000;1.0224;0.1832;
-56.4000;1.0159;0.1716;
-56.1000;1.0159;0.1693;
-55.8000;1.0175;0.1739;
-55.5000;1.0151;0.1669;
-55.2000;1.0151;0.1646;
-54.9000;1.0159;0.1716;
-54.6000;1.0175;0.1716;
-54.3000;1.0151;0.1623;
-54.0000;1.0151;0.1577;
-53.7000;1.0159;0.1577;
-53.4000;1.0167;0.1600;
-53.1000;1.0159;0.1530;
-52.8000;1.0159;0.1600;
-52.5000;1.0167;0.1693;
-52.2000;1.0134;0.1623;
-51.9000;1.0159;0.1646;
-51.6000;1.0102;0.1484;
-51.3000;1.0134;0.1577;
-51.0000;1.0175;0.1623;
-50.7000;1.0175;0.1577;
-50.4000;1.0151;0.1600;
-50.1000;1.0151;0.1600;
-49.8000;1.0175;0.1739;
-49.5000;1.0159;0.1693;
-49.2000;1.0151;0.1669;
-48.9000;1.0151;0.1646;
-48.6000;1.0151;0.1530;
-48.3000;1.0167;0.1577;
-48.0000;1.0159;0.1507;
-47.7000;1.0151;0.1600;
-47.4000;1.0151;0.1600;
-47.1000;1.0167;0.1669;
-46.8000;1.0142;0.1577;
-46.5000;1.0151;0.1600;
-46.2000;1.0142;0.1646;
-45.9000;1.0151;0.1600;
-45.6000;1.0159;0.1669;
-45.3000;1.0159;0.1669;
-45.0000;1.0142;0.1600;
-44.7000;1.0159;0.1600;
-44.4000;1.0183;0.1669;
-44.1000;1.0183;0.1623;
-43.8000;1.0167;0.1646;
-43.5000;1.0167;0.1577;
-43.2000;1.0175;0.1507;
-42.9000;1.0167;0.1530;
-42.6000;1.0167;0.1600;
-42.3000;1.0175;0.1646;
-42.0000;1.0167;0.1600;
-41.7000;1.0159;0.1577;
-41.4000;1.0159;0.1623;
-41.1000;1.0159;0.1623;
-40.8000;1.0134;0.1623;
-40.5000;1.0183;0.1808;
-40.2000;1.0175;0.1762;
-39.9000;1.0167;0.1855;
-39.6000;1.0142;0.1762;
-39.3000;1.0183;0.1808;
-39.0000;1.0159;0.1808;
-38.7000;1.0167;0.1878;
-38.4000;1.0167;0.1878;
-38.1000;1.0167;0.1878;
-37.8000;1.0199;0.1855;
-37.5000;1.0175;0.1762;
-37.2000;1.0159;0.1762;
-36.9000;1.0159;0.1669;
-36.6000;1.0134;0.1577;
-36.3000;1.0167;0.1693;
-36.0000;1.0175;0.1693;
-35.7000;1.0232;0.1832;
-35.4000;1.0151;0.1577;
-35.1000;1.0126;0.1461;
-34.8000;1.0208;0.1553;
-34.5000;1.0159;0.1507;
-34.2000;1.0167;0.1553;
-33.9000;1.0183;0.1553;
-33.6000;1.0183;0.1484;
-33.3000;1.0183;0.1530;
-33.0000;1.0175;0.1577;
-32.7000;1.0167;0.1646;
-32.4000;1.0167;0.1716;
-32.1000;1.0167;0.1693;
-31.8000;1.0159;0.1693;
-31.5000;1.0110;0.1600;
-31.2000;1.0167;0.1716;
-30.9000;1.0142;0.1646;
-30.6000;1.0142;0.1646;
-30.3000;1.0175;0.1669;
-30.0000;1.0175;0.1693;
-29.7000;1.0134;0.1669;
-29.4000;1.0167;0.1739;
-29.1000;1.0167;0.1693;
-28.8000;1.0167;0.1646;
-28.5000;1.0167;0.1600;
-28.2000;1.0151;0.1530;
-27.9000;1.0159;0.1507;
-27.6000;1.0159;0.1600;
-27.3000;1.0159;0.1553;
-27.0000;1.0151;0.1414;
-26.7000;1.0167;0.1507;
-26.4000;1.0159;0.1530;
-26.1000;1.0151;0.1507;
-25.8000;1.0167;0.1623;
-25.5000;1.0142;0.1553;
-25.2000;1.0159;0.1553;
-24.9000;1.0175;0.1484;
-24.6000;1.0167;0.1437;
-24.3000;1.0159;0.1484;
-24.0000;1.0191;0.1600;
-23.7000;1.0151;0.1600;
-23.4000;1.0159;0.1600;
-23.1000;1.0151;0.1669;
-22.8000;1.0126;0.1507;
-22.5000;1.0167;0.1600;
-22.2000;1.0159;0.1600;
-21.9000;1.0151;0.1623;
-21.6000;1.0134;0.1577;
-21.3000;1.0167;0.1669;
-21.0000;1.0159;0.1693;
-20.7000;1.0118;0.1600;
-20.4000;1.0134;0.1577;
-20.1000;1.0151;0.1600;
-19.8000;1.0069;0.1461;
-19.5000;1.0175;0.1716;
-19.2000;1.0159;0.1693;
-18.9000;1.0167;0.1669;
-18.6000;1.0159;0.1716;
-18.3000;1.0142;0.1762;
-18.0000;1.0167;0.1832;
-17.7000;1.0167;0.1832;
-17.4000;1.0175;0.1878;
-17.1000;1.0167;0.1785;
-16.8000;1.0167;0.1739;
-16.5000;1.0183;0.1693;
-16.2000;1.0134;0.1669;
-15.9000;1.0159;0.1716;
-15.6000;1.0159;0.1669;
-15.3000;1.0159;0.1669;
-15.0000;1.0142;0.1693;
-14.7000;1.0175;0.1716;
-14.4000;1.0151;0.1739;
-14.1000;1.0142;0.1693;
-13.8000;1.0102;0.1577;
-13.5000;1.0167;0.1762;
-13.2000;1.0167;0.1762;
-12.9000;1.0167;0.1739;
-12.6000;1.0159;0.1716;
-12.3000;1.0175;0.1785;
-12.0000;1.0175;0.1785;
-11.7000;1.0167;0.1762;
-11.4000;1.0159;0.1739;
-11.1000;1.0159;0.1785;
-10.8000;1.0142;0.1716;
-10.5000;1.0142;0.1693;
-10.2000;1.0126;0.1623;
-9.9000;1.0142;0.1646;
-9.6000;1.0175;0.1762;
-9.3000;1.0167;0.1808;
-9.0000;1.0175;0.1924;
-8.7000;1.0159;0.1948;
-8.4000;1.0134;0.1832;
-8.1000;1.0167;0.1924;
-7.8000;1.0167;0.1924;
-7.5000;1.0232;0.1994;
-7.2000;1.0167;0.1785;
-6.9000;1.0167;0.1739;
-6.6000;1.0151;0.1716;
-6.3000;1.0167;0.1762;
-6.0000;1.0175;0.1832;
-5.7000;1.0110;0.1693;
-5.4000;1.0151;0.1808;
-5.1000;1.0167;0.1878;
-4.8000;1.0167;0.1924;
-4.5000;1.0167;0.1924;
-4.2000;1.0151;0.1855;
-3.9000;1.0142;0.1855;
-3.6000;1.0151;0.1855;
-3.3000;1.0151;0.1785;
-3.0000;1.0216;0.1948;
-2.7000;1.0159;0.1832;
-2.4000;1.0151;0.1762;
-2.1000;1.0167;0.1855;
-1.8000;1.0159;0.1808;
-1.5000;1.0142;0.1832;
-1.2000;1.0175;0.1855;
-0.9000;1.0159;0.1832;
-0.6000;1.0167;0.1901;
-0.3000;1.0183;0.1948;
0.0000;1.0183;0.1948;
0.3000;1.0265;0.1971;
0.6000;1.0484;0.2411;
0.9000;1.0623;0.2782;
1.2000;1.0786;0.3176;
1.5000;1.0891;0.3524;
1.8000;1.0956;0.3802;
2.1000;1.1005;0.3988;
2.4000;1.1095;0.4266;
2.7000;1.1136;0.4312;
3.0000;1.1193;0.4544;
3.3000;1.1241;0.4637;
3.6000;1.1241;0.4614;
3.9000;1.1282;0.4660;
4.2000;1.1306;0.4707;
4.5000;1.1315;0.4799;
4.8000;1.1347;0.4892;
5.1000;1.1355;0.4962;
5.4000;1.1372;0.5008;
5.7000;1.1404;0.5008;
6.0000;1.1502;0.5170;
6.3000;1.1437;0.4962;
6.6000;1.1445;0.4892;
6.9000;1.1469;0.4915;
7.2000;1.1477;0.4985;
7.5000;1.1486;0.4962;
7.8000;1.1494;0.5054;
8.1000;1.1502;0.5101;
8.4000;1.1600;0.5286;
8.7000;1.1518;0.5101;
9.0000;1.1551;0.5078;
9.3000;1.1551;0.4985;
9.6000;1.1583;0.5054;
9.9000;1.1567;0.4962;
10.2000;1.1591;0.4985;
10.5000;1.1583;0.5008;
10.8000;1.1591;0.5078;
11.1000;1.1608;0.5101;
11.4000;1.1608;0.5124;
11.7000;1.1632;0.5194;
12.0000;1.1632;0.5194;
12.3000;1.1656;0.5124;
12.6000;1.1648;0.5124;
12.9000;1.1640;0.5054;
13.2000;1.1665;0.4985;
13.5000;1.1705;0.5078;
13.8000;1.1673;0.5078;
14.1000;1.1681;0.5054;
14.4000;1.1697;0.5078;
14.7000;1.1713;0.5170;
15.0000;1.1722;0.5170;
15.3000;1.1722;0.5170;
15.6000;1.1722;0.5194;
15.9000;1.1713;0.5147;
16.2000;1.1738;0.5170;
16.5000;1.1738;0.5194;
16.8000;1.1738;0.5194;
17.1000;1.1754;0.5194;
17.4000;1.1746;0.5217;
17.7000;1.1746;0.5078;
18.0000;1.1754;0.5124;
18.3000;1.1795;0.5263;
18.6000;1.1770;0.5078;
18.9000;1.1779;0.5078;
19.2000;1.1787;0.5031;
19.5000;1.1827;0.5170;
19.8000;1.1803;0.5217;
20.1000;1.1803;0.5101;
20.4000;1.1811;0.5031;
20.7000;1.1795;0.4938;
21.0000;1.1811;0.5008;
21.3000;1.1819;0.5078;
21.6000;1.1819;0.5008;
21.9000;1.1819;0.4962;
22.2000;1.1827;0.4962;
22.5000;1.1803;0.4962;
22.8000;1.1803;0.4915;
23.1000;1.1811;0.4915;
23.4000;1.1819;0.5054;
23.7000;1.1852;0.5031;
24.0000;1.1844;0.5101;
24.3000;1.1901;0.5286;
24.6000;1.1844;0.5217;
24.9000;1.1811;0.5170;
25.2000;1.1795;0.5031;
25.5000;1.1852;0.5170;
25.8000;1.1836;0.5124;
26.1000;1.1860;0.5101;
26.4000;1.1860;0.5101;
26.7000;1.1844;0.5031;
27.0000;1.1876;0.5124;
27.3000;1.1860;0.5194;
27.6000;1.1860;0.5147;
27.9000;1.1852;0.5031;
28.2000;1.1884;0.5101;
28.5000;1.1868;0.5008;
28.8000;1.1876;0.5008;
29.1000;1.1876;0.5078;
29.4000;1.1844;0.5078;
29.7000;1.1893;0.5170;
30.0000;1.1893;0.5217;
30.3000;1.1876;0.5240;
30.6000;1.1884;0.5217;
30.9000;1.1868;0.5124;
31.2000;1.1876;0.5101;
31.5000;1.1893;0.5124;
31.8000;1.1884;0.5170;
32.1000;1.1876;0.5194;
32.4000;1.1876;0.5217;
32.7000;1.1876;0.5217;
33.0000;1.1868;0.5194;
33.3000;1.1917;0.5240;
33.6000;1.1803;0.5031;
33.9000;1.1909;0.5147;
34.2000;1.1950;0.5147;
34.5000;1.1884;0.4892;
34.8000;1.1884;0.4962;
35.1000;1.1917;0.5054;
35.4000;1.1933;0.5054;
35.7000;1.1901;0.4938;
36.0000;1.1893;0.4892;
36.3000;1.1909;0.4938;
36.6000;1.1884;0.5008;
36.9000;1.1893;0.5054;
37.2000;1.1901;0.5147;
37.5000;1.1884;0.5101;
37.8000;1.1958;0.5217;
38.1000;1.1909;0.5078;
38.4000;1.1884;0.5031;
38.7000;1.1893;0.5078;
39.0000;1.1909;0.5170;
39.3000;1.1893;0.5147;
39.6000;1.1876;0.5101;
39.9000;1.1901;0.5170;
40.2000;1.1909;0.5217;
40.5000;1.1941;0.5240;
40.8000;1.1909;0.5194;
41.1000;1.1901;0.5194;
41.4000;1.1893;0.5194;
41.7000;1.1868;0.5078;
42.0000;1.1901;0.5124;
42.3000;1.1893;0.5194;
42.6000;1.1884;0.5194;
42.9000;1.1868;0.5147;
43.2000;1.1884;0.5240;
43.5000;1.1974;0.5379;
43.8000;1.1901;0.5217;
44.1000;1.1909;0.5194;
44.4000;1.1925;0.5124;
44.7000;1.1893;0.4985;
45.0000;1.1901;0.5031;
45.3000;1.1917;0.5008;
45.6000;1.1909;0.5008;
45.9000;1.1893;0.4985;
46.2000;1.1901;0.5054;
46.5000;1.1917;0.5078;
46.8000;1.1860;0.4938;
47.1000;1.1909;0.5124;
47.4000;1.1901;0.5170;
47.7000;1.1909;0.5170;
48.0000;1.1893;0.5147;
48.3000;1.1966;0.5240;
48.6000;1.1917;0.5124;
48.9000;1.1901;0.5078;
49.2000;1.1893;0.5031;
49.5000;1.1925;0.5054;
49.8000;1.1925;0.5101;
50.1000;1.1917;0.5147;
50.4000;1.1933;0.5147;
50.7000;1.1925;0.5147;
51.0000;1.1876;0.5170;
51.3000;1.1925;0.5240;
51.6000;1.1909;0.5170;
51.9000;1.1901;0.5217;
52.2000;1.1901;0.5217;
52.5000;1.1901;0.5054;
52.8000;1.1917;0.5054;
53.1000;1.1909;0.5031;
53.4000;1.1909;0.5008;
53.7000;1.1933;0.5101;
54.0000;1.1893;0.5078;
54.3000;1.1925;0.5078;
54.6000;1.1884;0.5078;
54.9000;1.1925;0.5124;
55.2000;1.1933;0.5124;
55.5000;1.1941;0.5101;
55.8000;1.1893;0.5031;
56.1000;1.1933;0.5054;
56.4000;1.1917;0.5008;
56.7000;1.1901;0.4962;
57.0000;1.1917;0.4985;
57.3000;1.1917;0.4985;
57.6000;1.1933;0.5054;
57.9000;1.1909;0.5054;
58.2000;1.1941;0.5124;
58.5000;1.1925;0.5031;
58.8000;1.1909;0.4985;
59.1000;1.1901;0.4962;
59.4000;1.1917;0.4962;
59.7000;1.1982;0.5170;
60.0000;1.1925;0.5054;
60.3000;1.1917;0.4985;
60.6000;1.1909;0.4962;
60.9000;1.1941;0.5101;
61.2000;1.1925;0.5031;
61.5000;1.1876;0.4753;
61.8000;1.1933;0.4915;
62.1000;1.1933;0.4892;
62.4000;1.1950;0.4962;
62.7000;1.1941;0.4938;
63.0000;1.1909;0.4915;
63.3000;1.1941;0.5054;
63.6000;1.1925;0.5031;
63.9000;1.1893;0.4985;
64.2000;1.1917;0.4962;
64.5000;1.1876;0.4892;
64.8000;1.1933;0.4985;
65.1000;1.1917;0.4869;
65.4000;1.1884;0.4776;
65.7000;1.1925;0.4892;
66.0000;1.1950;0.4985;
66.3000;1.1917;0.4892;
66.6000;1.1917;0.4962;
66.9000;1.1917;0.4962;
67.2000;1.1917;0.4915;
67.5000;1.1933;0.4892;
67.8000;1.1925;0.4938;
68.1000;1.1876;0.4869;
68.4000;1.1917;0.4962;
68.7000;1.1917;0.4985;
69.0000;1.1950;0.5008;
69.3000;1.1909;0.4962;
69.6000;1.1925;0.5031;
69.9000;1.1933;0.4938;
70.2000;1.1933;0.4892;
70.5000;1.1933;0.4938;
70.8000;1.1925;0.4915;
71.1000;1.1917;0.4915;
71.4000;1.1933;0.4962;
71.7000;1.1925;0.5031;
72.0000;1.1917;0.5078;
72.3000;1.1950;0.5217;
72.6000;1.1925;0.5170;
72.9000;1.1966;0.5147;
73.2000;1.1933;0.5054;
73.5000;1.1917;0.5078;
73.8000;1.1933;0.5170;
74.1000;1.1917;0.5078;
74.4000;1.1901;0.5031;
74.7000;1.1933;0.5078;
75.0000;1.1998;0.5240;
75.3000;1.1941;0.5147;
75.6000;1.1933;0.5078;
75.9000;1.1941;0.5031;
76.2000;1.1950;0.4985;
76.5000;1.1933;0.4892;
76.8000;1.1950;0.4938;
77.1000;1.1950;0.4915;
77.4000;1.1950;0.4938;
77.7000;1.1941;0.4938;
78.0000;1.1933;0.4962;
78.3000;1.2007;0.5031;
78.6000;1.2007;0.5008;
78.9000;1.1933;0.4846;
79.2000;1.1925;0.4869;
79.5000;1.1933;0.4869;
79.8000;1.1950;0.4776;
80.1000;1.1933;0.4776;
80.4000;1.1974;0.4938;
80.7000;1.1901;0.4753;
81.0000;1.1958;0.4823;
81.3000;1.1909;0.4799;
81.6000;1.1958;0.4869;
81.9000;1.1933;0.4846;
82.2000;1.1941;0.4869;
82.5000;1.1941;0.4869;
82.8000;1.1901;0.4776;
83.1000;1.1950;0.4846;
83.4000;1.1909;0.4823;
83.7000;1.1933;0.4892;
84.0000;1.1917;0.4915;
84.3000;1.1925;0.4938;
84.6000;1.1941;0.5008;
84.9000;1.1925;0.5031;
85.2000;1.1933;0.5008;
85.5000;1.1925;0.5008;
85.8000;1.1933;0.4892;
86.1000;1.1901;0.4846;
86.4000;1.1917;0.4892;
86.7000;1.1876;0.4753;
87.0000;1.1933;0.4938;
87.3000;1.1925;0.5008;
87.6000;1.1909;0.5101;
87.9000;1.1925;0.5147;
88.2000;1.1917;0.5031;
88.5000;1.1917;0.4938;
88.8000;1.1933;0.4846;
89.1000;1.1941;0.4846;
89.4000;1.1917;0.4846;
89.7000;1.1925;0.4892;
90.0000;1.1917;0.4962;
90.3000;1.1917;0.4892;
90.6000;1.1917;0.4892;
90.9000;1.1925;0.4892;
91.2000;1.1917;0.4846;
91.5000;1.1917;0.4915;
91.8000;1.1941;0.5008;
92.1000;1.1925;0.4985;
92.4000;1.1925;0.5031;
92.7000;1.1909;0.5008;
93.0000;1.1941;0.5078;
93.3000;1.1933;0.4962;
93.6000;1.1925;0.4938;
93.9000;1.1925;0.4892;
94.2000;1.1941;0.4938;
94.5000;1.1925;0.5031;
94.8000;1.1925;0.5078;
95.1000;1.1950;0.5078;
95.4000;1.1925;0.4915;
95.7000;1.1933;0.4869;
96.0000;1.1933;0.4846;
96.3000;1.1917;0.4892;
96.6000;1.1917;0.4869;
96.9000;1.1974;0.5031;
97.2000;1.1958;0.5008;
97.5000;1.1925;0.4892;
97.8000;1.1917;0.4915;
98.1000;1.1933;0.4985;
98.4000;1.1933;0.4938;
98.7000;1.1933;0.4892;
99.0000;1.1925;0.4869;
99.3000;1.1925;0.4823;
99.6000;1.1933;0.4846;
99.9000;1.1917;0.4846;
100.2000;1.1925;0.4823;
100.5000;1.1925;0.4892;
100.8000;1.1950;0.4938;
101.1000;1.1941;0.4799;
101.4000;1.1925;0.4799;
101.7000;1.1884;0.4753;
102.0000;1.1909;0.4753;
102.3000;1.1933;0.4799;
102.6000;1.1925;0.4707;
102.9000;1.1884;0.4730;
103.2000;1.1925;0.4869;
103.5000;1.1933;0.4846;
103.8000;1.1917;0.4799;
104.1000;1.1925;0.4799;
104.4000;1.1950;0.4707;
104.7000;1.1901;0.4683;
105.0000;1.1925;0.4730;
105.3000;1.1925;0.4730;
105.6000;1.1917;0.4707;
105.9000;1.1998;0.4938;
106.2000;1.1917;0.4776;
106.5000;1.1917;0.4753;
106.8000;1.1917;0.4823;
107.1000;1.1917;0.4776;
107.4000;1.1933;0.4776;
107.7000;1.1925;0.4799;
108.0000;1.1868;0.4660;
108.3000;1.1925;0.4776;
108.6000;1.1941;0.4776;
108.9000;1.1925;0.4823;
109.2000;1.1909;0.4846;
109.5000;1.1950;0.4962;
109.8000;1.1925;0.4869;
110.1000;1.1901;0.4869;
110.4000;1.1909;0.4938;
110.7000;1.1941;0.5078;
111.0000;1.1917;0.5008;
111.3000;1.1909;0.4915;
111.6000;1.1909;0.4846;
111.9000;1.1876;0.4799;
112.2000;1.1917;0.4938;
112.5000;1.1998;0.5078;
112.8000;1.1974;0.4962;
113.1000;1.1958;0.4962;
113.4000;1.1925;0.4962;
113.7000;1.1958;0.4938;
114.0000;1.1925;0.4776;
114.3000;1.1909;0.4823;
114.6000;1.1909;0.4799;
114.9000;1.1982;0.4892;
115.2000;1.1925;0.4753;
115.5000;1.1966;0.4799;
115.8000;1.1925;0.4730;
116.1000;1.1893;0.4730;
116.4000;1.1925;0.4869;
116.7000;1.1909;0.4915;
117.0000;1.1917;0.4938;
117.3000;1.1925;0.4985;
117.6000;1.1917;0.5008;
117.9000;1.1901;0.5054;
118.2000;1.1917;0.5217;
118.5000;1.1925;0.5240;
118.8000;1.1925;0.5170;
119.1000;1.1909;0.5147;
119.4000;1.1925;0.5101;
119.7000;1.1925;0.5147;
120.0000;1.1933;0.5194;
120.3000;1.1909;0.5124;
120.6000;1.1917;0.5147;
120.9000;1.1901;0.5078;
121.2000;1.1990;0.5170;
121.5000;1.1941;0.5008;
121.8000;1.1909;0.4869;
122.1000;1.1917;0.4799;
122.4000;1.1933;0.4799;
122.7000;1.1917;0.4730;
123.0000;1.1909;0.4683;
123.3000;1.1909;0.4707;
123.6000;1.1933;0.4730;
123.9000;1.1925;0.4753;
124.2000;1.1966;0.4823;
124.5000;1.1917;0.4846;
124.8000;1.1925;0.4869;
125.1000;1.1925;0.4892;
125.4000;1.1925;0.4869;
125.7000;1.1909;0.4799;
126.0000;1.1950;0.4846;
126.3000;1.1917;0.4776;
126.6000;1.1901;0.4776;
126.9000;1.1909;0.4799;
127.2000;1.1901;0.4753;
127.5000;1.1933;0.4799;
127.8000;1.1917;0.4776;
128.1000;1.1909;0.4730;
128.4000;1.1925;0.4753;
128.7000;1.1909;0.4753;
129.0000;1.1876;0.4730;
129.3000;1.1901;0.4799;
129.6000;1.1917;0.4799;
129.9000;1.1909;0.4823;
130.2000;1.1901;0.4892;
130.5000;1.1925;0.4938;
130.8000;1.1909;0.4823;
131.1000;1.1925;0.4892;
131.4000;1.1917;0.4892;
131.7000;1.1909;0.4892;
132.0000;1.1909;0.4915;
132.3000;1.1893;0.4846;
132.6000;1.1852;0.4614;
132.9000;1.1917;0.4753;
133.2000;1.1917;0.4753;
133.5000;1.1901;0.4776;
133.8000;1.1917;0.4846;
134.1000;1.1893;0.4823;
134.4000;1.1950;0.5054;
134.7000;1.1893;0.4938;
135.0000;1.1901;0.4985;
135.3000;1.1917;0.5031;
135.6000;1.2015;0.5217;
135.9000;1.1917;0.5078;
136.2000;1.1917;0.5101;
136.5000;1.1966;0.5170;
136.8000;1.1917;0.5078;
137.1000;1.1966;0.5147;
137.4000;1.1917;0.5031;
137.7000;1.1917;0.5054;
138.0000;1.1933;0.4985;
138.3000;1.1925;0.4915;
138.6000;1.1925;0.4938;
138.9000;1.1836;0.4776;
139.2000;1.1925;0.4938;
139.5000;1.1909;0.4938;
139.8000;1.1925;0.4915;
140.1000;1.1933;0.4892;
140.4000;1.1917;0.4869;
140.7000;1.1941;0.4869;
141.0000;1.1933;0.4823;
141.3000;1.1941;0.4753;
141.6000;1.1933;0.4753;
141.9000;1.1917;0.4776;
142.2000;1.1868;0.4591;
142.5000;1.1901;0.4707;
142.8000;1.1925;0.4799;
143.1000;1.1909;0.4846;
143.4000;1.1909;0.4869;
143.7000;1.1909;0.4846;
144.0000;1.1901;0.4799;
144.3000;1.1933;0.4915;
144.6000;1.1901;0.4892;
144.9000;1.1917;0.4892;
145.2000;1.1901;0.4846;
145.5000;1.1917;0.4869;
145.8000;1.1917;0.4869;
146.1000;1.1909;0.4846;
146.4000;1.1901;0.4915;
146.7000;1.1901;0.4892;
147.0000;1.1893;0.4869;
147.3000;1.1925;0.4915;
147.6000;1.1893;0.4962;
147.9000;1.1901;0.4892;
148.2000;1.1893;0.4823;
148.5000;1.1925;0.4962;
148.8000;1.1909;0.4915;
149.1000;1.1893;0.4962;
149.4000;1.1909;0.5078;
149.7000;1.1901;0.4915;
150.0000;1.1909;0.5054;
150.3000;1.1893;0.4985;
150.6000;1.1958;0.5078;
150.9000;1.1893;0.4962;
151.2000;1.1901;0.4985;
151.5000;1.1917;0.5008;
151.8000;1.1925;0.4962;
152.1000;1.1933;0.4892;
152.4000;1.1909;0.4938;
152.7000;1.1893;0.4985;
153.0000;1.1917;0.4985;
153.3000;1.1909;0.4985;
153.6000;1.1925;0.4962;
153.9000;1.1909;0.4938;
154.2000;1.1901;0.4869;
154.5000;1.1917;0.4938;
154.8000;1.1876;0.4938;
155.1000;1.1909;0.5008;
155.4000;1.1876;0.4962;
155.7000;1.1868;0.4869;
156.0000;1.1925;0.5031;
156.3000;1.1893;0.4915;
156.6000;1.1941;0.4985;
156.9000;1.1901;0.4892;
157.2000;1.1901;0.4869;
157.5000;1.1998;0.5054;
157.8000;1.1901;0.4869;
158.1000;1.1884;0.4892;
158.4000;1.1901;0.4915;
158.7000;1.1868;0.4846;
159.0000;1.1909;0.4915;
159.3000;1.1909;0.4892;
159.6000;1.1868;0.4869;
159.9000;1.1893;0.4892;
160.2000;1.1909;0.4962;
160.5000;1.1950;0.5008;
160.8000;1.1901;0.4869;
161.1000;1.1925;0.4938;
161.4000;1.1917;0.4938;
161.7000;1.1893;0.4962;
162.0000;1.1917;0.5031;
162.3000;1.1917;0.4962;
162.6000;1.1909;0.4799;
162.9000;1.1941;0.4869;
163.2000;1.1844;0.4730;
163.5000;1.1917;0.4869;
163.8000;1.1925;0.4869;
164.1000;1.1925;0.4846;
164.4000;1.1933;0.4846;
164.7000;1.1893;0.4846;
165.0000;1.1950;0.4985;
165.3000;1.1901;0.4869;
165.6000;1.1901;0.4915;
165.9000;1.1933;0.4938;
166.2000;1.1933;0.4915;
166.5000;1.1917;0.4823;
166.8000;1.1925;0.4846;
167.1000;1.1925;0.4892;
167.4000;1.1925;0.4962;
167.7000;1.1901;0.5031;
168.0000;1.1893;0.5008;
168.3000;1.1893;0.4985;
168.6000;1.1893;0.5078;
168.9000;1.1909;0.5078;
169.2000;1.1909;0.4962;
169.5000;1.1901;0.5054;
169.8000;1.1884;0.4985;
170.1000;1.1893;0.4985;
170.4000;1.1884;0.4892;
170.7000;1.1901;0.4938;
171.0000;1.1901;0.4892;
171.3000;1.1950;0.4985;
171.6000;1.1909;0.4915;
171.9000;1.1917;0.4962;
172.2000;1.1909;0.4869;
172.5000;1.1893;0.4776;
172.8000;1.1901;0.4683;
173.1000;1.1941;0.4776;
173.4000;1.1925;0.4730;
173.7000;1.1909;0.4660;
174.0000;1.1925;0.4660;
174.3000;1.1836;0.4452;
174.6000;1.1925;0.4637;
174.9000;1.1917;0.4614;
175.2000;1.1909;0.4591;
175.5000;1.1950;0.4753;
175.8000;1.1909;0.4730;
176.1000;1.1901;0.4799;
176.4000;1.1884;0.4799;
176.7000;1.1909;0.4730;
177.0000;1.1893;0.4660;
177.3000;1.1901;0.4753;
177.6000;1.1852;0.4637;
177.9000;1.1917;0.4846;
178.2000;1.1917;0.4776;
178.5000;1.1868;0.4660;
178.8000;1.1925;0.4776;
179.1000;1.1917;0.4892;
179.4000;1.1901;0.4892;
179.7000;1.1893;0.4846;
180.0000;1.1901;0.4799;
180.3000;1.1893;0.4799;
180.6000;1.1909;0.4799;
180.9000;1.1917;0.4823;
181.2000;1.1884;0.4707;
181.5000;1.1819;0.4637;
181.8000;1.1901;0.4776;
182.1000;1.1876;0.4753;
182.4000;1.1884;0.4707;
182.7000;1.1917;0.4707;
183.0000;1.1868;0.4683;
183.3000;1.1901;0.4753;
183.6000;1.1836;0.4614;
183.9000;1.1941;0.4799;
184.2000;1.1917;0.4799;
184.5000;1.1909;0.4730;
184.8000;1.1909;0.4730;
185.1000;1.1909;0.4776;
185.4000;1.1901;0.4637;
185.7000;1.1917;0.4660;
186.0000;1.1917;0.4660;
186.3000;1.1909;0.4683;
186.6000;1.1901;0.4707;
186.9000;1.1901;0.4683;
187.2000;1.1909;0.4637;
187.5000;1.1925;0.4846;
187.8000;1.1909;0.4799;
188.1000;1.1901;0.4823;
188.4000;1.1925;0.4892;
188.7000;1.1901;0.4823;
189.0000;1.1925;0.4869;
189.3000;1.1884;0.4753;
189.6000;1.1909;0.4776;
189.9000;1.1901;0.4707;
190.2000;1.1909;0.4683;
190.5000;1.1917;0.4707;
190.8000;1.1909;0.4614;
191.1000;1.1893;0.4568;
191.4000;1.1909;0.4637;
191.7000;1.1876;0.4591;
192.0000;1.1893;0.4707;
192.3000;1.1909;0.4799;
192.6000;1.1901;0.4730;
192.9000;1.1909;0.4776;
193.2000;1.1901;0.4660;
193.5000;1.1909;0.4683;
193.8000;1.1909;0.4707;
194.1000;1.1860;0.4568;
194.4000;1.1884;0.4660;
194.7000;1.1917;0.4730;
195.0000;1.1884;0.4707;
195.3000;1.1901;0.4799;
195.6000;1.1893;0.4823;
195.9000;1.1909;0.4869;
196.2000;1.1925;0.4799;
196.5000;1.1884;0.4660;
196.8000;1.1909;0.4683;
197.1000;1.1941;0.4753;
197.4000;1.1844;0.4568;
197.7000;1.1884;0.4683;
198.0000;1.1893;0.4730;
198.3000;1.1901;0.4683;
198.6000;1.1909;0.4637;
198.9000;1.1901;0.4683;
199.2000;1.1884;0.4637;
199.5000;1.1909;0.4683;
199.8000;1.1933;0.4823;
200.1000;1.1925;0.4776;
200.4000;1.1893;0.4753;
200.7000;1.1909;0.4707;
201.0000;1.1901;0.4776;
201.3000;1.1917;0.4776;
201.6000;1.1901;0.4892;
201.9000;1.1884;0.4776;
202.2000;1.1901;0.4683;
202.5000;1.1909;0.4660;
202.8000;1.1917;0.4637;
203.1000;1.1917;0.4568;
203.4000;1.1933;0.4683;
203.7000;1.1909;0.4614;
204.0000;1.1901;0.4707;
204.3000;1.1901;0.4753;
204.6000;1.1909;0.4707;
204.9000;1.1901;0.4776;
205.2000;1.1909;0.4730;
205.5000;1.1917;0.4799;
205.8000;1.1909;0.4730;
206.1000;1.1909;0.4753;
206.4000;1.1917;0.4753;
206.7000;1.1901;0.4683;
207.0000;1.1909;0.4776;
207.3000;1.1990;0.5078;
207.6000;1.1909;0.4869;
207.9000;1.1909;0.4915;
208.2000;1.1893;0.4869;
208.5000;1.1884;0.4823;
208.8000;1.1909;0.4938;
209.1000;1.1893;0.4962;
209.4000;1.1901;0.4938;
209.7000;1.1901;0.4962;
210.0000;1.1893;0.4962;
210.3000;1.1901;0.4962;
210.6000;1.1884;0.4915;
210.9000;1.1893;0.4985;
211.2000;1.1860;0.4823;
211.5000;1.1884;0.4846;
211.8000;1.1901;0.4823;
212.1000;1.1844;0.4753;
212.4000;1.1909;0.4799;
212.7000;1.1901;0.4869;
213.0000;1.1909;0.4938;
213.3000;1.1884;0.4915;
213.6000;1.1884;0.5031;
213.9000;1.1901;0.5031;
214.2000;1.1803;0.4753;
214.5000;1.1909;0.4962;
214.8000;1.1909;0.5008;
215.1000;1.1868;0.4892;
215.4000;1.1901;0.4985;
215.7000;1.1909;0.5008;
216.0000;1.1909;0.5101;
216.3000;1.1909;0.5170;
216.6000;1.1901;0.5031;
216.9000;1.1909;0.5008;
217.2000;1.1901;0.4962;
217.5000;1.1884;0.4892;
217.8000;1.1901;0.4846;
218.1000;1.1901;0.4869;
218.4000;1.1893;0.4985;
218.7000;1.1884;0.4962;
219.0000;1.1893;0.4985;
219.3000;1.1893;0.5031;
219.6000;1.1884;0.4892;
219.9000;1.1884;0.4823;
220.2000;1.1901;0.4823;
220.5000;1.1901;0.4776;
220.8000;1.1909;0.4753;
221.1000;1.1876;0.4753;
221.4000;1.1901;0.4846;
221.7000;1.1901;0.4846;
222.0000;1.1836;0.4660;
222.3000;1.1893;0.4869;
222.6000;1.1893;0.4915;
222.9000;1.1893;0.4869;
223.2000;1.1909;0.4892;
223.5000;1.1893;0.4869;
223.8000;1.1884;0.4846;
224.1000;1.1909;0.4938;
224.4000;1.1893;0.4915;
224.7000;1.1868;0.4799;
225.0000;1.1893;0.4823;
225.3000;1.1852;0.4846;
225.6000;1.1901;0.4892;
225.9000;1.1893;0.4892;
226.2000;1.1893;0.4869;
226.5000;1.1941;0.4985;
226.8000;1.1917;0.4823;
227.1000;1.1893;0.4799;
227.4000;1.1909;0.4846;
227.7000;1.1893;0.4823;
228.0000;1.1893;0.4846;
228.3000;1.1901;0.4915;
228.6000;1.1909;0.4915;
228.9000;1.1868;0.4846;
229.2000;1.1909;0.4846;
229.5000;1.2015;0.5124;
229.8000;1.1901;0.4869;
230.1000;1.1901;0.4892;
230.4000;1.1884;0.4799;
230.7000;1.1901;0.4823;
231.0000;1.1925;0.4915;
231.3000;1.1933;0.4892;
231.6000;1.1958;0.4985;
231.9000;1.1901;0.4938;
232.2000;1.1933;0.5078;
232.5000;1.1901;0.4985;
232.8000;1.1901;0.4985;
233.1000;1.1901;0.4985;
233.4000;1.1917;0.4869;
233.7000;1.1901;0.4799;
234.0000;1.1901;0.4846;
234.3000;1.1901;0.4869;
234.6000;1.1901;0.4823;
234.9000;1.1901;0.4776;
235.2000;1.1893;0.4776;
235.5000;1.1868;0.4730;
235.8000;1.1884;0.4846;
236.1000;1.1941;0.4892;
236.4000;1.1901;0.4776;
236.7000;1.1909;0.4730;
237.0000;1.1893;0.4730;
237.3000;1.1909;0.4869;
237.6000;1.1884;0.4869;
237.9000;1.1876;0.4799;
238.2000;1.1893;0.4823;
238.5000;1.1893;0.4846;
238.8000;1.1884;0.4892;
239.1000;1.1884;0.4938;
239.4000;1.1893;0.4892;
239.7000;1.1901;0.4915;
240.0000;1.1884;0.4915;
240.3000;1.1876;0.4869;
240.6000;1.1884;0.4823;
240.9000;1.1909;0.4846;
241.2000;1.1844;0.4823;
241.5000;1.1884;0.4962;
241.8000;1.1876;0.4985;
242.1000;1.1893;0.5054;
242.4000;1.1901;0.5054;
242.7000;1.1868;0.5101;
243.0000;1.1876;0.5078;
243.3000;1.1884;0.5101;
243.6000;1.1917;0.5101;
243.9000;1.1876;0.5008;
244.2000;1.1884;0.5031;
244.5000;1.1950;0.5147;
244.8000;1.1884;0.5008;
245.1000;1.1901;0.5054;
245.4000;1.1917;0.5124;
245.7000;1.1901;0.5101;
246.0000;1.1884;0.4985;
246.3000;1.1876;0.4892;
246.6000;1.1901;0.4915;
246.9000;1.1901;0.4938;
247.2000;1.1868;0.4869;
247.5000;1.1901;0.4846;
247.8000;1.1884;0.4799;
248.1000;1.1884;0.4753;
248.4000;1.1893;0.4799;
248.7000;1.1909;0.4892;
249.0000;1.1901;0.4892;
249.3000;1.1876;0.4846;
249.6000;1.1860;0.4799;
249.9000;1.1852;0.4776;
250.2000;1.1901;0.4869;
250.5000;1.1884;0.4915;
250.8000;1.1876;0.4869;
251.1000;1.1884;0.4776;
251.4000;1.1860;0.4846;
251.7000;1.1876;0.4776;
252.0000;1.1860;0.4753;
252.3000;1.1852;0.4683;
252.6000;1.1884;0.4753;
252.9000;1.1884;0.4730;
253.2000;1.1884;0.4683;
253.5000;1.1966;0.4915;
253.8000;1.1893;0.4753;
254.1000;1.1876;0.4776;
254.4000;1.1917;0.4846;
254.7000;1.1884;0.4776;
255.0000;1.1893;0.4846;
255.3000;1.1884;0.4846;
255.6000;1.1876;0.4938;
255.9000;1.1876;0.4962;
256.2000;1.1860;0.4869;
256.5000;1.1893;0.4938;
256.8000;1.1884;0.4985;
257.1000;1.1876;0.4985;
257.4000;1.1876;0.4985;
257.7000;1.1884;0.5031;
258.0000;1.1884;0.4962;
258.3000;1.1909;0.5031;
258.6000;1.1893;0.5008;
258.9000;1.1901;0.5054;
259.2000;1.1893;0.5031;
259.5000;1.1876;0.4892;
259.8000;1.1884;0.4846;
260.1000;1.1884;0.4915;
260.4000;1.1901;0.4846;
260.7000;1.1901;0.4869;
261.0000;1.1893;0.4869;
261.3000;1.1884;0.4823;
261.6000;1.1868;0.4846;
261.9000;1.1884;0.4892;
262.2000;1.1966;0.5054;
262.5000;1.1868;0.4892;
262.8000;1.1893;0.4985;
263.1000;1.1836;0.4915;
263.4000;1.1868;0.5031;
263.7000;1.1876;0.4985;
264.0000;1.1893;0.5008;
264.3000;1.1884;0.4938;
264.6000;1.1860;0.4869;
264.9000;1.1958;0.5054;
265.2000;1.1893;0.4938;
265.5000;1.1876;0.4846;
265.8000;1.1884;0.4985;
266.1000;1.1884;0.4985;
266.4000;1.1909;0.5054;
266.7000;1.1893;0.5031;
267.0000;1.1893;0.5008;
267.3000;1.1876;0.4915;
267.6000;1.1909;0.4938;
267.9000;1.1893;0.4938;
268.2000;1.1876;0.4915;
268.5000;1.1787;0.4776;
268.8000;1.1917;0.5008;
269.1000;1.1893;0.4985;
269.4000;1.1893;0.4938;
269.7000;1.1933;0.5008;
270.0000;1.1901;0.4962;
270.3000;1.1876;0.4962;
270.6000;1.1884;0.4985;
270.9000;1.1811;0.4753;
271.2000;1.1868;0.4892;
271.5000;1.1868;0.4846;
271.8000;1.1982;0.5078;
272.1000;1.1893;0.4823;
272.4000;1.1884;0.4915;
272.7000;1.1933;0.4962;
273.0000;1.1950;0.5054;
273.3000;1.1876;0.4892;
273.6000;1.1876;0.4938;
273.9000;1.1884;0.5054;
274.2000;1.1893;0.5078;
274.5000;1.1876;0.4915;
274.8000;1.1868;0.4846;
275.1000;1.1868;0.4799;
275.4000;1.1893;0.4938;
275.7000;1.1852;0.4892;
276.0000;1.1893;0.4985;
276.3000;1.1860;0.4846;
276.6000;1.1868;0.4846;
276.9000;1.1868;0.4846;
277.2000;1.1876;0.4869;
277.5000;1.1884;0.4869;
277.8000;1.1876;0.4892;
278.1000;1.1909;0.4938;
278.4000;1.1876;0.4892;
278.7000;1.1876;0.4938;
279.0000;1.1884;0.4938;
279.3000;1.1893;0.4962;
279.6000;1.1884;0.5031;
279.9000;1.1876;0.5078;
280.2000;1.1884;0.5124;
280.5000;1.1876;0.5078;
280.8000;1.1884;0.5031;
281.1000;1.1909;0.5124;
281.4000;1.1884;0.5008;
281.7000;1.1876;0.4938;
282.0000;1.1893;0.5008;
282.3000;1.1901;0.5054;
282.6000;1.1884;0.4985;
282.9000;1.1876;0.5031;
283.2000;1.1884;0.5054;
283.5000;1.1893;0.5101;
283.8000;1.1868;0.4985;
284.1000;1.1941;0.5124;
284.4000;1.1884;0.5078;
284.7000;1.1893;0.5194;
285.0000;1.1893;0.5194;
285.3000;1.1868;0.5124;
285.6000;1.1901;0.5147;
285.9000;1.1884;0.5194;
286.2000;1.1893;0.5101;
286.5000;1.1868;0.5124;
286.8000;1.1893;0.5124;
287.1000;1.1893;0.5031;
287.4000;1.1884;0.4938;
287.7000;1.1893;0.4985;
288.0000;1.1876;0.4938;
288.3000;1.1852;0.4869;
288.6000;1.1893;0.5031;
288.9000;1.1884;0.5031;
289.2000;1.1876;0.5078;
289.5000;1.1876;0.5078;
289.8000;1.1901;0.5031;
290.1000;1.1884;0.5101;
290.4000;1.1917;0.5217;
290.7000;1.1884;0.5101;
291.0000;1.1884;0.5054;
291.3000;1.1844;0.4985;
291.6000;1.1868;0.4962;
291.9000;1.1860;0.4985;
292.2000;1.1933;0.5147;
292.5000;1.1950;0.5147;
292.8000;1.1884;0.5054;
293.1000;1.1884;0.5101;
293.4000;1.1893;0.5078;
293.7000;1.1876;0.5054;
294.0000;1.1884;0.5054;
294.3000;1.1901;0.5008;
294.6000;1.1868;0.4915;
294.9000;1.1917;0.4985;
295.2000;1.1884;0.4962;
295.5000;1.1893;0.5008;
295.8000;1.1901;0.4915;
296.1000;1.1876;0.4869;
296.4000;1.1893;0.4846;
296.7000;1.1909;0.4892;
297.0000;1.1876;0.4823;
297.3000;1.1876;0.4776;
297.6000;1.1884;0.4869;
297.9000;1.1876;0.4823;
298.2000;1.1868;0.4846;
298.5000;1.1884;0.4799;
298.8000;1.1901;0.4869;
299.1000;1.1901;0.4938;
299.4000;1.1868;0.4938;
299.7000;1.1884;0.4915;
300.0000;1.1893;0.4915;
300.3000;1.1893;0.4985;
300.6000;1.1884;0.4985;
300.9000;1.1876;0.5031;
301.2000;1.1893;0.5054;
301.5000;1.1893;0.5031;
301.8000;1.1876;0.5008;
302.1000;1.1868;0.4962;
302.4000;1.1884;0.4938;
302.7000;1.1884;0.4915;
303.0000;1.1868;0.4915;
303.3000;1.1868;0.4938;
303.6000;1.1876;0.4892;
303.9000;1.1876;0.4962;
304.2000;1.1884;0.5054;
304.5000;1.1884;0.4962;
304.8000;1.1884;0.4938;
305.1000;1.1827;0.4823;
305.4000;1.1876;0.5008;
305.7000;1.1868;0.4985;
306.0000;1.1876;0.4985;
306.3000;1.1868;0.4938;
306.6000;1.1868;0.5008;
306.9000;1.1876;0.5031;
307.2000;1.1933;0.5170;
307.5000;1.1876;0.4985;
307.8000;1.1868;0.4962;
308.1000;1.1884;0.4985;
308.4000;1.1884;0.4892;
308.7000;1.1876;0.4869;
309.0000;1.1876;0.4938;
309.3000;1.1884;0.4892;
309.6000;1.1868;0.4846;
309.9000;1.1868;0.4869;
310.2000;1.1893;0.4892;
310.5000;1.1884;0.4846;
310.8000;1.1876;0.4753;
311.1000;1.1868;0.4730;
311.4000;1.1868;0.4799;
311.7000;1.1893;0.4938;
312.0000;1.1876;0.4938;
312.3000;1.1868;0.4938;
312.6000;1.1876;0.4938;
312.9000;1.1868;0.4962;
313.2000;1.1876;0.4985;
313.5000;1.1827;0.4846;
313.8000;1.1868;0.4985;
314.1000;1.1868;0.4985;
314.4000;1.1868;0.5031;
314.7000;1.1868;0.5031;
315.0000;1.1860;0.5101;
315.3000;1.1876;0.5101;
315.6000;1.1901;0.5124;
315.9000;1.1868;0.5101;
316.2000;1.1868;0.5124;
316.5000;1.1876;0.5170;
316.8000;1.1884;0.5170;
317.1000;1.1876;0.5170;
317.4000;1.1860;0.5170;
317.7000;1.1860;0.5170;
318.0000;1.1844;0.5054;
318.3000;1.1868;0.5078;
318.6000;1.1852;0.5008;
318.9000;1.1868;0.4985;
319.2000;1.1925;0.5054;
319.5000;1.1893;0.4938;
319.8000;1.1876;0.5031;
320.1000;1.1884;0.5008;
320.4000;1.1876;0.4962;
320.7000;1.1901;0.4985;
321.0000;1.1876;0.4962;
321.3000;1.1876;0.4915;
321.6000;1.1868;0.4938;
321.9000;1.1876;0.5054;
322.2000;1.1884;0.5101;
322.5000;1.1868;0.5101;
322.8000;1.1876;0.5170;
323.1000;1.1884;0.5124;
323.4000;1.1876;0.5124;
323.7000;1.1836;0.4985;
324.0000;1.1852;0.5101;
324.3000;1.1868;0.5101;
324.6000;1.1941;0.5263;
324.9000;1.1884;0.5124;
325.2000;1.1868;0.5101;
325.5000;1.1876;0.5078;
325.8000;1.1860;0.5078;
326.1000;1.1884;0.5147;
326.4000;1.1876;0.5194;
326.7000;1.1868;0.5217;
327.0000;1.1884;0.5217;
327.3000;1.1876;0.5101;
327.6000;1.1868;0.5008;
327.9000;1.1893;0.4915;
328.2000;1.1901;0.4823;
328.5000;1.1901;0.4892;
328.8000;1.1893;0.4938;
329.1000;1.1860;0.4846;
329.4000;1.1803;0.4707;
329.7000;1.1868;0.4846;
330.0000;1.1852;0.4915;
330.3000;1.1860;0.4938;
330.6000;1.1860;0.4985;
330.9000;1.1876;0.4985;
331.2000;1.1884;0.5008;
331.5000;1.1876;0.4915;
331.8000;1.1868;0.4962;
332.1000;1.1868;0.5031;
332.4000;1.1876;0.5054;
332.7000;1.1868;0.4985;
333.0000;1.1860;0.5008;
333.3000;1.1860;0.5031;
333.6000;1.1852;0.5008;
333.9000;1.1860;0.4962;
334.2000;1.1884;0.4985;
334.5000;1.1868;0.4869;
334.8000;1.1884;0.4892;
335.1000;1.1868;0.4776;
335.4000;1.1868;0.4730;
335.7000;1.1868;0.4730;
336.0000;1.1901;0.4776;
336.3000;1.1876;0.4730;
336.6000;1.1868;0.4707;
336.9000;1.1876;0.4753;
337.2000;1.1884;0.4823;
337.5000;1.1836;0.4660;
337.8000;1.1868;0.4799;
338.1000;1.1860;0.4892;
338.4000;1.1868;0.4823;
338.7000;1.1876;0.4776;
339.0000;1.1876;0.4869;
339.3000;1.1901;0.4915;
339.6000;1.1901;0.4892;
339.9000;1.1893;0.4892;
340.2000;1.1876;0.4846;
340.5000;1.1844;0.4869;
340.8000;1.1876;0.5008;
341.1000;1.1868;0.5054;
341.4000;1.1868;0.5054;
341.7000;1.1884;0.5078;
342.0000;1.1852;0.4869;
342.3000;1.1876;0.4892;
342.6000;1.1884;0.4892;
342.9000;1.1876;0.4915;
343.2000;1.1868;0.4938;
343.5000;1.1876;0.4938;
343.8000;1.1860;0.4938;
344.1000;1.1868;0.4938;
344.4000;1.1844;0.4938;
344.7000;1.1819;0.4846;
345.0000;1.1868;0.5054;
345.3000;1.1860;0.5031;
345.6000;1.1860;0.5008;
345.9000;1.1860;0.5054;
346.2000;1.1876;0.5101;
346.5000;1.1884;0.5170;
346.8000;1.1884;0.5124;
347.1000;1.1868;0.5078;
347.4000;1.1868;0.5101;
347.7000;1.1876;0.5170;
348.0000;1.1876;0.5078;
348.3000;1.1868;0.5008;
348.6000;1.1860;0.4985;
348.9000;1.1893;0.5054;
349.2000;1.1860;0.5031;
349.5000;1.1868;0.5031;
349.8000;1.1860;0.5054;
350.1000;1.1884;0.5124;
350.4000;1.1868;0.5054;
350.7000;1.1868;0.5078;
351.0000;1.1958;0.5240;
351.3000;1.1884;0.5078;
351.6000;1.1860;0.5008;
351.9000;1.1876;0.4962;
352.2000;1.1876;0.5008;
352.5000;1.1884;0.5124;
352.8000;1.1884;0.5147;
353.1000;1.1933;0.5240;
353.4000;1.1860;0.5031;
353.7000;1.1852;0.5008;
354.0000;1.1860;0.5054;
354.3000;1.1868;0.5008;
354.6000;1.1876;0.5124;
354.9000;1.1876;0.5124;
355.2000;1.1868;0.5147;
355.5000;1.1925;0.5309;
355.8000;1.1876;0.5124;
356.1000;1.1860;0.5078;
356.4000;1.1860;0.5054;
356.7000;1.1950;0.5263;
357.0000;1.1860;0.4892;
357.3000;1.1868;0.4799;
357.6000;1.1868;0.4869;
357.9000;1.1868;0.4938;
358.2000;1.1876;0.4962;
358.5000;1.1868;0.5031;
358.8000;1.1876;0.5054;
359.1000;1.1868;0.5078;
359.4000;1.1876;0.5078;
359.7000;1.1876;0.5170;
360.0000;1.1860;0.5170;
360.3000;1.1950;0.5333;
360.6000;1.1876;0.5170;
360.9000;1.1860;0.5147;
361.2000;1.1852;0.5170;
361.5000;1.1860;0.5124;
361.8000;1.1884;0.5194;
362.1000;1.1876;0.5170;
362.4000;1.1860;0.5101;
362.7000;1.1876;0.5170;
363.0000;1.1876;0.5240;
363.3000;1.1917;0.5333;
363.6000;1.1925;0.5333;
363.9000;1.1876;0.5170;
364.2000;1.1893;0.5240;
364.5000;1.1876;0.5170;
364.8000;1.1868;0.5078;
365.1000;1.1868;0.5031;
365.4000;1.1868;0.5078;
365.7000;1.1876;0.5101;
366.0000;1.1844;0.5031;
366.3000;1.1868;0.5101;
366.6000;1.1884;0.5170;
366.9000;1.1868;0.5124;
367.2000;1.1868;0.5101;
367.5000;1.1860;0.5101;
367.8000;1.1868;0.5124;
368.1000;1.1836;0.5031;
368.4000;1.1876;0.5170;
368.7000;1.1901;0.5217;
369.0000;1.1868;0.5194;
369.3000;1.1860;0.5217;
369.6000;1.1860;0.5194;
369.9000;1.1852;0.5147;
370.2000;1.1852;0.5170;
370.5000;1.1925;0.5356;
370.8000;1.1868;0.5217;
371.1000;1.1868;0.5170;
371.4000;1.1860;0.5078;
371.7000;1.1876;0.5031;
372.0000;1.1876;0.5054;
372.3000;1.1852;0.4985;
372.6000;1.1860;0.4915;
372.9000;1.1852;0.4846;
373.2000;1.1852;0.4776;
373.5000;1.1852;0.4869;
373.8000;1.1884;0.4892;
374.1000;1.1844;0.4776;
374.4000;1.1860;0.4776;
374.7000;1.1876;0.4799;
375.0000;1.1860;0.4869;
375.3000;1.1868;0.4938;
375.6000;1.1868;0.4915;
375.9000;1.1860;0.4915;
376.2000;1.1876;0.4892;
376.5000;1.1860;0.4799;
376.8000;1.1860;0.4938;
377.1000;1.1860;0.4985;
377.4000;1.1884;0.4962;
377.7000;1.1868;0.4846;
378.0000;1.1876;0.4846;
378.3000;1.1901;0.4938;
378.6000;1.1860;0.4938;
378.9000;1.1884;0.5008;
379.2000;1.1876;0.4985;
379.5000;1.1876;0.5008;
379.8000;1.1941;0.5147;
380.1000;1.1860;0.5008;
380.4000;1.1876;0.5008;
380.7000;1.1876;0.4985;
381.0000;1.1893;0.4985;
381.3000;1.1901;0.4915;
381.6000;1.1868;0.4892;
381.9000;1.1876;0.4892;
382.2000;1.1860;0.4869;
382.5000;1.1933;0.4985;
382.8000;1.1844;0.4869;
383.1000;1.1844;0.4846;
383.4000;1.1868;0.4846;
383.7000;1.1876;0.4915;
384.0000;1.1852;0.4892;
384.3000;1.1876;0.4892;
384.6000;1.1836;0.4892;
384.9000;1.1884;0.5054;
385.2000;1.1852;0.4962;
385.5000;1.1819;0.4915;
385.8000;1.1868;0.5008;
386.1000;1.1844;0.4938;
386.4000;1.1844;0.4915;
386.7000;1.1868;0.5008;
387.0000;1.1876;0.5031;
387.3000;1.1876;0.5054;
387.6000;1.1827;0.4962;
387.9000;1.1868;0.5054;
388.2000;1.1860;0.5031;
388.5000;1.1860;0.5054;
388.8000;1.1876;0.5078;
389.1000;1.1852;0.5008;
389.4000;1.1844;0.5008;
389.7000;1.1844;0.5054;
390.0000;1.1868;0.5031;
390.3000;1.1893;0.5124;
390.6000;1.1868;0.5194;
390.9000;1.1868;0.5240;
391.2000;1.1893;0.5170;
391.5000;1.1909;0.5147;
391.8000;1.1819;0.4823;
392.1000;1.1860;0.4985;
392.4000;1.1860;0.5078;
392.7000;1.1860;0.4938;
393.0000;1.1852;0.4892;
393.3000;1.1852;0.4823;
393.6000;1.1860;0.4846;
393.9000;1.1844;0.4707;
394.2000;1.1852;0.4753;
394.5000;1.1844;0.4753;
394.8000;1.1884;0.4823;
395.1000;1.1852;0.4730;
395.4000;1.1876;0.4892;
395.7000;1.1803;0.4660;
396.0000;1.1868;0.4823;
396.3000;1.1868;0.4823;
396.6000;1.1884;0.4869;
396.9000;1.1868;0.4938;
397.2000;1.1868;0.5078;
397.5000;1.1860;0.5078;
397.8000;1.1868;0.5078;
398.1000;1.1860;0.5124;
398.4000;1.1852;0.5054;
398.7000;1.1852;0.5078;
399.0000;1.1868;0.5124;
399.3000;1.1868;0.5124;
399.6000;1.1852;0.5147;
399.9000;1.1803;0.4985;
400.2000;1.1868;0.5194;
400.5000;1.1876;0.5124;
400.8000;1.1860;0.5147;
401.1000;1.1868;0.5124;
401.4000;1.1941;0.5309;
401.7000;1.1901;0.5147;
402.0000;1.1868;0.5031;
402.3000;1.1893;0.5031;
402.6000;1.1901;0.5008;
402.9000;1.1909;0.5031;
403.2000;1.1884;0.4915;
403.5000;1.1941;0.5078;
403.8000;1.1876;0.4985;
404.1000;1.1876;0.4938;
404.4000;1.1852;0.4938;
404.7000;1.1868;0.4962;
405.0000;1.1860;0.4938;
405.3000;1.1884;0.5008;
405.6000;1.1909;0.5031;
405.9000;1.1868;0.4938;
406.2000;1.1909;0.5101;
406.5000;1.1901;0.5101;
406.8000;1.1868;0.5031;
407.1000;1.1868;0.5008;
407.4000;1.1844;0.4985;
407.7000;1.1852;0.4985;
408.0000;1.1868;0.5008;
408.3000;1.1860;0.4962;
408.6000;1.1950;0.5031;
408.9000;1.1852;0.4846;
409.2000;1.1868;0.4915;
409.5000;1.1876;0.4938;
409.8000;1.1836;0.4892;
410.1000;1.1860;0.4962;
410.4000;1.1868;0.4985;
410.7000;1.1852;0.4892;
411.0000;1.1852;0.4915;
411.3000;1.1836;0.4892;
411.6000;1.1852;0.4799;
411.9000;1.1860;0.4892;
412.2000;1.1868;0.4869;
412.5000;1.1844;0.4776;
412.8000;1.1860;0.4730;
413.1000;1.1852;0.4776;
413.4000;1.1876;0.4730;
413.7000;1.1925;0.4869;
414.0000;1.1860;0.4753;
414.3000;1.1860;0.4776;
414.6000;1.1844;0.4776;
414.9000;1.1844;0.4799;
415.2000;1.1860;0.4799;
415.5000;1.1868;0.4892;
415.8000;1.1868;0.4938;
416.1000;1.1827;0.4846;
416.4000;1.1868;0.4915;
416.7000;1.1787;0.4753;
417.0000;1.1844;0.4846;
417.3000;1.1876;0.4892;
417.6000;1.1893;0.4962;
417.9000;1.1876;0.4962;
418.2000;1.1876;0.4962;
418.5000;1.1876;0.4892;
418.8000;1.1868;0.4799;
419.1000;1.1852;0.4753;
419.4000;1.1844;0.4846;
419.7000;1.1933;0.5054;
420.0000;1.1852;0.4915;
420.3000;1.1860;0.4823;
420.6000;1.1852;0.4799;
420.9000;1.1860;0.4892;
421.2000;1.1852;0.4892;
421.5000;1.1852;0.4892;
421.8000;1.1868;0.4892;
422.1000;1.1868;0.4869;
422.4000;1.1876;0.4846;
422.7000;1.1860;0.4799;
423.0000;1.1860;0.4776;
423.3000;1.1868;0.4869;
423.6000;1.1852;0.4892;
423.9000;1.1876;0.4985;
424.2000;1.1836;0.4869;
424.5000;1.1844;0.4892;
424.8000;1.1868;0.5078;
425.1000;1.1852;0.5124;
425.4000;1.1844;0.5008;
425.7000;1.1868;0.5008;
426.0000;1.1884;0.5078;
426.3000;1.1852;0.4985;
426.6000;1.1844;0.4915;
426.9000;1.1958;0.5147;
427.2000;1.1844;0.4869;
427.5000;1.1876;0.4985;
427.8000;1.1868;0.4962;
428.1000;1.1860;0.4938;
428.4000;1.1868;0.4985;
428.7000;1.1868;0.4938;
429.0000;1.1811;0.4823;
429.3000;1.1860;0.4915;
429.6000;1.1844;0.4938;
429.9000;1.1852;0.4892;
430.2000;1.1852;0.4846;
430.5000;1.1860;0.4892;
430.8000;1.1860;0.4938;
431.1000;1.1860;0.4938;
431.4000;1.1852;0.4985;
431.7000;1.1860;0.5008;
432.0000;1.1860;0.4985;
432.3000;1.1876;0.5101;
432.6000;1.1925;0.5333;
432.9000;1.1868;0.5217;
433.2000;1.1868;0.5194;
433.5000;1.1876;0.5240;
433.8000;1.1868;0.5240;
434.1000;1.1844;0.5170;
434.4000;1.1860;0.5170;
434.7000;1.1860;0.5054;
435.0000;1.1868;0.5008;
435.3000;1.1917;0.5124;
435.6000;1.1852;0.4962;
435.9000;1.1868;0.5008;
436.2000;1.1860;0.4938;
436.5000;1.1884;0.4962;
436.8000;1.1884;0.4938;
437.1000;1.1827;0.4823;
437.4000;1.1868;0.5008;
437.7000;1.1868;0.4985;
438.0000;1.1893;0.5008;
438.3000;1.1860;0.5031;
438.6000;1.1803;0.4915;
438.9000;1.1827;0.4985;
439.2000;1.1860;0.5031;
439.5000;1.1860;0.4962;
439.8000;1.1909;0.5031;
440.1000;1.1844;0.4938;
440.4000;1.1876;0.5101;
440.7000;1.1852;0.5078;
441.0000;1.1860;0.5078;
441.3000;1.1860;0.5078;
441.6000;1.1893;0.5124;
441.9000;1.1868;0.4962;
442.2000;1.1836;0.5078;
442.5000;1.1860;0.5147;
442.8000;1.1884;0.5217;
443.1000;1.1868;0.5170;
443.4000;1.1860;0.5101;
443.7000;1.1884;0.5054;
444.0000;1.1884;0.4985;
444.3000;1.1868;0.4962;
444.6000;1.1852;0.4962;
444.9000;1.1779;0.4799;
445.2000;1.1876;0.5008;
445.5000;1.1868;0.4985;
445.8000;1.1860;0.4962;
446.1000;1.1860;0.4915;
446.4000;1.1884;0.4938;
446.7000;1.1860;0.4869;
447.0000;1.1852;0.4869;
447.3000;1.1844;0.4892;
447.6000;1.1860;0.4892;
447.9000;1.1852;0.4823;
448.2000;1.1860;0.5008;
448.5000;1.1844;0.5031;
448.8000;1.1827;0.5054;
449.1000;1.1860;0.5124;
449.4000;1.1860;0.5147;
449.7000;1.1852;0.5124;
450.0000;1.1860;0.5147;
450.3000;1.1876;0.5124;
450.6000;1.1860;0.5124;
450.9000;1.1860;0.5194;
451.2000;1.1860;0.5170;
451.5000;1.1909;0.5333;
451.8000;1.1868;0.5170;
452.1000;1.1852;0.5078;
452.4000;1.1844;0.5031;
452.7000;1.1852;0.4985;
453.0000;1.1852;0.5054;
453.3000;1.1852;0.5054;
453.6000;1.1868;0.5124;
453.9000;1.1852;0.5170;
454.2000;1.1852;0.5124;
454.5000;1.1852;0.5147;
454.8000;1.1860;0.5101;
455.1000;1.1860;0.5054;
455.4000;1.1827;0.4985;
455.7000;1.1868;0.5031;
456.0000;1.1868;0.5054;
456.3000;1.1844;0.5031;
456.6000;1.1844;0.5031;
456.9000;1.1852;0.5031;
457.2000;1.1852;0.5054;
457.5000;1.1852;0.5008;
457.8000;1.1844;0.4938;
458.1000;1.1876;0.5031;
458.4000;1.1868;0.4985;
458.7000;1.1844;0.4985;
459.0000;1.1754;0.4707;
459.3000;1.1860;0.5031;
459.6000;1.1860;0.4962;
459.9000;1.1852;0.4962;
460.2000;1.1860;0.4915;
460.5000;1.1852;0.4892;
460.8000;1.1852;0.4892;
461.1000;1.1868;0.4846;
461.4000;1.1827;0.4846;
461.7000;1.1901;0.4962;
462.0000;1.1860;0.4823;
462.3000;1.1852;0.4799;
462.6000;1.1852;0.4869;
462.9000;1.1819;0.4869;
463.2000;1.1819;0.4707;
463.5000;1.1852;0.4799;
463.8000;1.1836;0.4776;
464.1000;1.1836;0.4799;
464.4000;1.1844;0.4846;
464.7000;1.1852;0.4938;
465.0000;1.1844;0.4869;
465.3000;1.1819;0.4869;
465.6000;1.1844;0.4938;
465.9000;1.1860;0.5054;
466.2000;1.1852;0.5078;
466.5000;1.1852;0.5101;
466.8000;1.1844;0.5078;
467.1000;1.1933;0.5263;
467.4000;1.1852;0.5101;
467.7000;1.1836;0.4962;
468.0000;1.1844;0.4962;
468.3000;1.1844;0.4869;
468.6000;1.1868;0.4846;
468.9000;1.1852;0.4823;
469.2000;1.1901;0.4892;
469.5000;1.1852;0.4730;
469.8000;1.1868;0.4753;
470.1000;1.1860;0.4869;
470.4000;1.1860;0.4915;
470.7000;1.1868;0.4938;
471.0000;1.1876;0.4985;
471.3000;1.1811;0.4846;
471.6000;1.1860;0.4869;
471.9000;1.1876;0.5008;
472.2000;1.1868;0.5054;
472.5000;1.1852;0.5008;
472.8000;1.1876;0.5078;
473.1000;1.1844;0.5078;
473.4000;1.1827;0.5008;
473.7000;1.1844;0.4962;
474.0000;1.1884;0.4985;
474.3000;1.1836;0.4915;
474.6000;1.1852;0.4962;
474.9000;1.1868;0.5008;
475.2000;1.1860;0.5031;
475.5000;1.1836;0.5031;
475.8000;1.1836;0.5031;
476.1000;1.1860;0.5054;
476.4000;1.1852;0.5078;
476.7000;1.1876;0.5124;
477.0000;1.1868;0.5147;
477.3000;1.1779;0.4938;
477.6000;1.1852;0.5101;
477.9000;1.1779;0.4869;
478.2000;1.1844;0.5078;
478.5000;1.1819;0.5031;
478.8000;1.1819;0.5008;
479.1000;1.1852;0.5101;
479.4000;1.1852;0.5031;
479.7000;1.1836;0.5101;
480.0000;1.1836;0.5124;
480.3000;1.1836;0.5170;
480.6000;1.1844;0.5170;
480.9000;1.1836;0.5147;
481.2000;1.1819;0.5194;
481.5000;1.1827;0.5147;
481.8000;1.1827;0.5078;
482.1000;1.1827;0.5008;
482.4000;1.1852;0.5124;
482.7000;1.1844;0.5078;
483.0000;1.1844;0.5008;
483.3000;1.1852;0.4985;
483.6000;1.1844;0.4985;
483.9000;1.1844;0.5008;
484.2000;1.1844;0.4985;
484.5000;1.1836;0.5031;
484.8000;1.1836;0.5078;
485.1000;1.1836;0.5054;
485.4000;1.1852;0.5054;
485.7000;1.1844;0.5078;
486.0000;1.1852;0.5078;
486.3000;1.1852;0.5054;
486.6000;1.1868;0.5054;
486.9000;1.1852;0.5054;
487.2000;1.1844;0.5147;
487.5000;1.1876;0.5240;
487.8000;1.1860;0.5170;
488.1000;1.1811;0.5101;
488.4000;1.1836;0.5078;
488.7000;1.1844;0.5147;
489.0000;1.1852;0.5124;
489.3000;1.1852;0.5147;
489.6000;1.1844;0.5147;
489.9000;1.1852;0.5194;
490.2000;1.1868;0.5194;
490.5000;1.1852;0.5217;
490.8000;1.1844;0.5124;
491.1000;1.1836;0.5054;
491.4000;1.1819;0.5008;
491.7000;1.1860;0.5124;
492.0000;1.1827;0.5078;
492.3000;1.1844;0.5101;
492.6000;1.1836;0.5147;
492.9000;1.1836;0.5101;
493.2000;1.1844;0.5124;
493.5000;1.1770;0.4985;
493.8000;1.1827;0.5031;
494.1000;1.1852;0.4962;
494.4000;1.1844;0.4938;
494.7000;1.1827;0.4892;
495.0000;1.1876;0.4985;
495.3000;1.1893;0.5078;
495.6000;1.1844;0.5008;
495.9000;1.1868;0.5008;
496.2000;1.1884;0.5054;
496.5000;1.1860;0.4962;
496.8000;1.1884;0.5031;
497.1000;1.1836;0.4892;
497.4000;1.1844;0.5031;
497.7000;1.1827;0.5008;
498.0000;1.1844;0.5054;
498.3000;1.1844;0.5031;
498.6000;1.1852;0.5054;
498.9000;1.1876;0.5194;
499.2000;1.1844;0.5101;
499.5000;1.1852;0.5078;
499.8000;1.1860;0.5101;
500.1000;1.1836;0.5054;
500.4000;1.1787;0.4962;
500.7000;1.1795;0.5008;
501.0000;1.1844;0.5054;
501.3000;1.1844;0.4985;
501.6000;1.1860;0.5078;
501.9000;1.1860;0.5101;
502.2000;1.1844;0.4985;
502.5000;1.1852;0.4938;
502.8000;1.1860;0.4962;
503.1000;1.1852;0.4985;
503.4000;1.1852;0.4938;
503.7000;1.1868;0.4962;
504.0000;1.1844;0.4846;
504.3000;1.1844;0.4915;
504.6000;1.1844;0.4938;
504.9000;1.1827;0.4915;
505.2000;1.1836;0.4892;
505.5000;1.1852;0.4938;
505.8000;1.1827;0.4915;
506.1000;1.1852;0.4938;
506.4000;1.1844;0.4915;
506.7000;1.1844;0.4799;
507.0000;1.1876;0.4938;
507.3000;1.1860;0.4938;
507.6000;1.1860;0.5008;
507.9000;1.1925;0.5170;
508.2000;1.1852;0.5031;
508.5000;1.1852;0.5031;
508.8000;1.1836;0.4985;
509.1000;1.1795;0.4846;
509.4000;1.1852;0.4938;
509.7000;1.1868;0.5008;
510.0000;1.1844;0.5031;
510.3000;1.1836;0.4985;
510.6000;1.1827;0.5078;
510.9000;1.1844;0.5124;
511.2000;1.1852;0.5078;
511.5000;1.1722;0.4707;
511.8000;1.1844;0.5078;
512.1000;1.1844;0.5101;
512.4000;1.1827;0.5008;
512.7000;1.1836;0.5124;
513.0000;1.1884;0.5286;
513.3000;1.1852;0.5263;
513.6000;1.1884;0.5286;
513.9000;1.1852;0.5286;
514.2000;1.1819;0.5217;
514.5000;1.1811;0.5217;
514.8000;1.1852;0.5217;
515.1000;1.1836;0.5124;
515.4000;1.1827;0.5217;
515.7000;1.1852;0.5286;
516.0000;1.1844;0.5240;
516.3000;1.1893;0.5194;
516.6000;1.1868;0.5031;
516.9000;1.1827;0.4985;
517.2000;1.1803;0.4962;
517.5000;1.1836;0.5008;
517.8000;1.1844;0.5031;
518.1000;1.1754;0.4776;
518.4000;1.1844;0.5031;
518.7000;1.1844;0.5008;
519.0000;1.1844;0.4938;
519.3000;1.1868;0.4892;
519.6000;1.1819;0.4892;
519.9000;1.1844;0.4915;
520.2000;1.1827;0.4892;
520.5000;1.1836;0.4846;
520.8000;1.1836;0.4823;
521.1000;1.1844;0.4776;
521.4000;1.1836;0.4776;
521.7000;1.1819;0.4892;
522.0000;1.1852;0.5031;
522.3000;1.1836;0.5078;
522.6000;1.1844;0.5078;
522.9000;1.1836;0.5078;
523.2000;1.1836;0.5031;
523.5000;1.1836;0.5078;
523.8000;1.1868;0.5240;
524.1000;1.1836;0.5078;
524.4000;1.1844;0.5054;
524.7000;1.1844;0.4962;
525.0000;1.1844;0.4985;
525.3000;1.1844;0.5008;
525.6000;1.1803;0.4985;
525.9000;1.1827;0.4962;
526.2000;1.1852;0.5008;
526.5000;1.1844;0.4938;
526.8000;1.1844;0.5031;
527.1000;1.1795;0.5008;
527.4000;1.1836;0.5008;
527.7000;1.1852;0.5031;
528.0000;1.1893;0.5124;
528.3000;1.1852;0.4962;
528.6000;1.1876;0.5054;
528.9000;1.1868;0.5008;
529.2000;1.1836;0.5008;
529.5000;1.1836;0.5031;
529.8000;1.1860;0.5124;
530.1000;1.1868;0.5078;
530.4000;1.1844;0.4985;
530.7000;1.1827;0.5031;
531.0000;1.1803;0.5078;
531.3000;1.1836;0.5078;
531.6000;1.1836;0.5078;
531.9000;1.1827;0.5054;
532.2000;1.1819;0.5054;
532.5000;1.1827;0.4962;
532.8000;1.1819;0.4938;
533.1000;1.1819;0.4962;
533.4000;1.1827;0.4962;
533.7000;1.1836;0.5031;
534.0000;1.1844;0.5078;
534.3000;1.1860;0.5031;
534.6000;1.1860;0.4962;
534.9000;1.1860;0.5008;
535.2000;1.1868;0.5078;
535.5000;1.1844;0.5031;
535.8000;1.1803;0.4938;
536.1000;1.1827;0.4985;
536.4000;1.1827;0.4985;
536.7000;1.1827;0.4962;
537.0000;1.1836;0.4938;
537.3000;1.1836;0.4938;
537.6000;1.1827;0.4869;
537.9000;1.1860;0.4823;
538.2000;1.1819;0.4637;
538.5000;1.1795;0.4591;
538.8000;1.1836;0.4730;
539.1000;1.1836;0.4823;
539.4000;1.1860;0.4915;
539.7000;1.1836;0.4892;
540.0000;1.1844;0.4962;
540.3000;1.1884;0.5008;
540.6000;1.1836;0.4985;
540.9000;1.1836;0.5054;
541.2000;1.1844;0.5078;
541.5000;1.1844;0.5124;
541.8000;1.1860;0.5101;
542.1000;1.1836;0.5101;
542.4000;1.1836;0.5054;
542.7000;1.1901;0.5217;
543.0000;1.1868;0.5078;
543.3000;1.1787;0.4938;
543.6000;1.1852;0.5101;
543.9000;1.1836;0.5101;
544.2000;1.1836;0.5078;
544.5000;1.1836;0.5101;
544.8000;1.1852;0.5101;
545.1000;1.1827;0.5008;
545.4000;1.1868;0.5170;
545.7000;1.1852;0.5217;
546.0000;1.1860;0.5194;
546.3000;1.1844;0.5124;
546.6000;1.1868;0.5286;
546.9000;1.1787;0.5147;
547.2000;1.1827;0.5217;
547.5000;1.1860;0.5263;
547.8000;1.1836;0.5240;
548.1000;1.1844;0.5217;
548.4000;1.1803;0.5054;
548.7000;1.1836;0.5194;
549.0000;1.1836;0.5240;
549.3000;1.1827;0.5124;
549.6000;1.1893;0.5194;
549.9000;1.1827;0.5008;
550.2000;1.1852;0.4985;
550.5000;1.1933;0.5240;
550.8000;1.1852;0.5031;
551.1000;1.1811;0.4985;
551.4000;1.1860;0.5031;
551.7000;1.1827;0.4938;
552.0000;1.1884;0.5101;
552.3000;1.1852;0.4985;
552.6000;1.1844;0.5008;
552.9000;1.1836;0.4915;
553.2000;1.1836;0.4869;
553.5000;1.1868;0.4915;
553.8000;1.1819;0.4776;
554.1000;1.1836;0.4938;
554.4000;1.1852;0.5008;
554.7000;1.1893;0.5078;
555.0000;1.1836;0.4985;
555.3000;1.1852;0.5008;
555.6000;1.1836;0.5031;
555.9000;1.1844;0.5078;
556.2000;1.1795;0.4962;
556.5000;1.1827;0.5101;
556.8000;1.1827;0.5217;
557.1000;1.1787;0.5054;
557.4000;1.1795;0.5101;
557.7000;1.1836;0.5078;
558.0000;1.1836;0.5031;
558.3000;1.1844;0.4962;
558.6000;1.1803;0.4985;
558.9000;1.1836;0.5078;
559.2000;1.1827;0.5124;
559.5000;1.1836;0.5078;
559.8000;1.1811;0.5031;
560.1000;1.1860;0.5054;
560.4000;1.1852;0.5124;
560.7000;1.1844;0.5078;
561.0000;1.1852;0.5078;
561.3000;1.1836;0.5054;
561.6000;1.1827;0.5217;
561.9000;1.1836;0.5240;
562.2000;1.1852;0.5309;
562.5000;1.1852;0.5286;
562.8000;1.1836;0.5286;
563.1000;1.1819;0.5240;
563.4000;1.1803;0.5147;
563.7000;1.1844;0.5240;
564.0000;1.1852;0.5194;
564.3000;1.1844;0.5194;
564.6000;1.1884;0.5263;
564.9000;1.1852;0.5217;
565.2000;1.1852;0.5217;
565.5000;1.1836;0.5217;
565.8000;1.1844;0.5217;
566.1000;1.1844;0.5333;
566.4000;1.1844;0.5333;
566.7000;1.1827;0.5333;
567.0000;1.1836;0.5402;
567.3000;1.1827;0.5379;
567.6000;1.1827;0.5379;
567.9000;1.1795;0.5240;
568.2000;1.1811;0.5170;
568.5000;1.1844;0.5217;
568.8000;1.1827;0.5194;
569.1000;1.1836;0.5147;
569.4000;1.1852;0.5078;
569.7000;1.1901;0.5147;
570.0000;1.1787;0.4962;
570.3000;1.1860;0.5170;
570.6000;1.1933;0.5379;
570.9000;1.1852;0.5194;
571.2000;1.1836;0.5101;
571.5000;1.1844;0.5078;
571.8000;1.1827;0.4985;
572.1000;1.1836;0.5054;
572.4000;1.1827;0.5101;
572.7000;1.1860;0.5263;
573.0000;1.1836;0.5240;
573.3000;1.1827;0.5194;
573.6000;1.1860;0.5286;
573.9000;1.1901;0.5286;
574.2000;1.1876;0.5194;
574.5000;1.1852;0.5263;
574.8000;1.1852;0.5333;
575.1000;1.1827;0.5356;
575.4000;1.1803;0.5309;
575.7000;1.1819;0.5309;
576.0000;1.1868;0.5356;
576.3000;1.1852;0.5286;
576.6000;1.1852;0.5240;
576.9000;1.1901;0.5333;
577.2000;1.1836;0.5170;
577.5000;1.1827;0.5101;
577.8000;1.1860;0.5147;
578.1000;1.1893;0.5217;
578.4000;1.1836;0.5170;
578.7000;1.1779;0.5054;
579.0000;1.1852;0.5217;
579.3000;1.1827;0.5124;
579.6000;1.1844;0.5170;
579.9000;1.1836;0.5124;
580.2000;1.1787;0.5008;
580.5000;1.1844;0.5078;
580.8000;1.1827;0.4985;
581.1000;1.1827;0.4938;
581.4000;1.1860;0.5124;
581.7000;1.1827;0.5008;
582.0000;1.1819;0.4985;
582.3000;1.1844;0.4962;
582.6000;1.1836;0.5008;
582.9000;1.1844;0.5008;
583.2000;1.1868;0.5008;
583.5000;1.1860;0.4985;
583.8000;1.1852;0.4892;
584.1000;1.1860;0.4938;
584.4000;1.1868;0.4985;
584.7000;1.1819;0.4892;
585.0000;1.1844;0.5031;
585.3000;1.1803;0.5008;
585.6000;1.1836;0.5124;
585.9000;1.1827;0.5124;
586.2000;1.1844;0.5194;
586.5000;1.1795;0.4985;
586.8000;1.1909;0.5124;
587.1000;1.1803;0.5008;
587.4000;1.1844;0.4985;
587.7000;1.1836;0.5031;
588.0000;1.1836;0.5008;
588.3000;1.1779;0.4730;
588.6000;1.1819;0.4799;
588.9000;1.1827;0.4869;
589.2000;1.1893;0.5170;
589.5000;1.1844;0.5054;
589.8000;1.1819;0.5031;
590.1000;1.1803;0.4869;
590.4000;1.1819;0.4846;
590.7000;1.1844;0.4823;
591.0000;1.1827;0.4915;
591.3000;1.1754;0.4753;
591.6000;1.1819;0.4962;
591.9000;1.1836;0.4962;
592.2000;1.1836;0.4938;
592.5000;1.1827;0.4962;
592.8000;1.1827;0.4962;
593.1000;1.1844;0.4962;
593.4000;1.1795;0.4962;
593.7000;1.1819;0.5054;
594.0000;1.1827;0.5078;
594.3000;1.1884;0.5217;
594.6000;1.1819;0.5031;
594.9000;1.1819;0.4985;
595.2000;1.1827;0.4962;
595.5000;1.1827;0.5031;
595.8000;1.1836;0.5147;
596.1000;1.1803;0.5124;
596.4000;1.1901;0.5309;
596.7000;1.1827;0.5054;
597.0000;1.1844;0.5054;
597.3000;1.1836;0.5101;
597.6000;1.1827;0.5078;
597.9000;1.1852;0.5147;
598.2000;1.1819;0.4985;
598.5000;1.1876;0.5101;
598.8000;1.1827;0.5008;
599.1000;1.1844;0.5031;
599.4000;1.1844;0.5031;
599.7000;1.1852;0.5054;
600.0000;1.1844;0.5147;
600.3000;1.1811;0.5054;
600.6000;1.1819;0.4915;
600.9000;1.1746;0.4730;
601.2000;1.1640;0.4475;
601.5000;1.1543;0.4289;
601.8000;1.1445;0.4057;
602.1000;1.1363;0.3895;
602.4000;1.1241;0.3617;
602.7000;1.1152;0.3362;
603.0000;1.1070;0.2968;
603.3000;1.0973;0.2736;
603.6000;1.0956;0.2759;
603.9000;1.0802;0.2388;
604.2000;1.0712;0.2272;
604.5000;1.0647;0.2087;
604.8000;1.0606;0.2017;
605.1000;1.0509;0.1901;
605.4000;1.0435;0.1878;
605.7000;1.0395;0.1855;
606.0000;1.0305;0.1716;
606.3000;1.0273;0.1693;
606.6000;1.0199;0.1530;
606.9000;1.0151;0.1507;
607.2000;1.0175;0.1623;
607.5000;1.0045;0.1391;
607.8000;0.9980;0.1345;
608.1000;0.9963;0.1345;
608.4000;0.9906;0.1206;
608.7000;0.9833;0.1136;
609.0000;0.9809;0.1043;
609.3000;0.9792;0.0974;
609.6000;0.9727;0.0927;
609.9000;0.9678;0.0881;
610.2000;0.9597;0.0672;
610.5000;0.9565;0.0742;
610.8000;0.9540;0.0835;
611.1000;0.9508;0.0649;
611.4000;0.9451;0.0626;
611.7000;0.9434;0.0626;
612.0000;0.9394;0.0626;
612.3000;0.9353;0.0533;
612.6000;0.9304;0.0441;
612.9000;0.9271;0.0441;
613.2000;0.9231;0.0417;
613.5000;0.9198;0.0348;
613.8000;0.9190;0.0371;
614.1000;0.9149;0.0301;
614.4000;0.9109;0.0301;
614.7000;0.9076;0.0255;
615.0000;0.9052;0.0278;
615.3000;0.9003;0.0209;
615.6000;0.8987;0.0255;
615.9000;0.8946;0.0232;
616.2000;0.8938;0.0185;
616.5000;0.8930;0.0232;
616.8000;0.8864;0.0093;
617.1000;0.8832;0.0162;
617.4000;0.8824;0.0209;
617.7000;0.8783;0.0209;
618.0000;0.8751;0.0162;
618.3000;0.8726;0.0162;
618.6000;0.8685;0.0046;
618.9000;0.8685;0.0023;
619.2000;0.8653;-0.0046;
619.5000;0.8645;-0.0023;
619.8000;0.8604;-0.0046;
620.1000;0.8596;-0.0070;
620.4000;0.8563;-0.0070;
620.7000;0.8547;-0.0046;
621.0000;0.8498;-0.0093;
621.3000;0.8506;0.0023;
621.6000;0.8482;-0.0046;
621.9000;0.8457;-0.0070;
622.2000;0.8417;-0.0139;
622.5000;0.8409;-0.0093;
622.8000;0.8400;-0.0116;
623.1000;0.8376;-0.0046;
623.4000;0.8278;-0.0301;
623.7000;0.8360;-0.0093;
624.0000;0.8344;-0.0232;
624.3000;0.8319;-0.0278;
624.6000;0.8295;-0.0325;
624.9000;0.8319;-0.0209;
625.2000;0.8246;-0.0278;
625.5000;0.8303;-0.0070;
625.8000;0.8164;-0.0394;
626.1000;0.8197;-0.0255;
626.4000;0.8189;-0.0255;
626.7000;0.8164;-0.0325;
627.0000;0.8091;-0.0487;
627.3000;0.8140;-0.0301;
627.6000;0.8124;-0.0278;
627.9000;0.8124;-0.0325;
628.2000;0.8083;-0.0417;
628.5000;0.8083;-0.0487;
628.8000;0.8083;-0.0371;
629.1000;0.8050;-0.0417;
629.4000;0.8034;-0.0464;
629.7000;0.8018;-0.0487;
630.0000;0.8010;-0.0580;
630.3000;0.7993;-0.0533;
630.6000;0.7985;-0.0556;
630.9000;0.7969;-0.0533;
631.2000;0.7953;-0.0464;
631.5000;0.7953;-0.0417;
631.8000;0.7904;-0.0487;
632.1000;0.7953;-0.0394;
632.4000;0.7912;-0.0441;
632.7000;0.7904;-0.0487;
633.0000;0.7880;-0.0533;
633.3000;0.7855;-0.0580;
633.6000;0.7863;-0.0580;
633.9000;0.7912;-0.0487;
634.2000;0.7871;-0.0441;
634.5000;0.7823;-0.0417;
634.8000;0.7814;-0.0371;
635.1000;0.7798;-0.0464;
635.4000;0.7790;-0.0487;
635.7000;0.7741;-0.0580;
636.0000;0.7766;-0.0394;
636.3000;0.7733;-0.0394;
636.6000;0.7749;-0.0371;
636.9000;0.7790;-0.0325;
637.2000;0.7717;-0.0533;
637.5000;0.7700;-0.0533;
637.8000;0.7700;-0.0556;
638.1000;0.7692;-0.0533;
638.4000;0.7700;-0.0464;
638.7000;0.7676;-0.0580;
639.0000;0.7595;-0.0719;
639.3000;0.7668;-0.0487;
639.6000;0.7660;-0.0441;
639.9000;0.7643;-0.0417;
640.2000;0.7627;-0.0394;
640.5000;0.7668;-0.0325;
640.8000;0.7603;-0.0510;
641.1000;0.7627;-0.0510;
641.4000;0.7586;-0.0556;
641.7000;0.7595;-0.0580;
642.0000;0.7570;-0.0672;
642.3000;0.7570;-0.0742;
642.6000;0.7481;-0.0997;
642.9000;0.7603;-0.0788;
643.2000;0.7554;-0.0858;
643.5000;0.7538;-0.0835;
643.8000;0.7513;-0.0881;
644.1000;0.7505;-0.0858;
644.4000;0.7505;-0.0811;
644.7000;0.7497;-0.0835;
645.0000;0.7473;-0.0835;
645.3000;0.7489;-0.0835;
645.6000;0.7473;-0.0788;
645.9000;0.7521;-0.0603;
646.2000;0.7481;-0.0696;
646.5000;0.7448;-0.0672;
646.8000;0.7448;-0.0603;
647.1000;0.7481;-0.0533;
647.4000;0.7456;-0.0626;
647.7000;0.7432;-0.0742;
648.0000;0.7424;-0.0835;
648.3000;0.7432;-0.0904;
648.6000;0.7399;-0.1020;
648.9000;0.7399;-0.0951;
649.2000;0.7391;-0.0742;
649.5000;0.7342;-0.0788;
649.8000;0.7375;-0.0765;
650.1000;0.7416;-0.0696;
650.4000;0.7375;-0.0811;
650.7000;0.7367;-0.0811;
651.0000;0.7375;-0.0742;
651.3000;0.7375;-0.0672;
651.6000;0.7359;-0.0672;
651.9000;0.7359;-0.0719;
652.2000;0.7334;-0.0765;
652.5000;0.7334;-0.0788;
652.8000;0.7318;-0.0811;
653.1000;0.7326;-0.0765;
653.4000;0.7310;-0.0649;
653.7000;0.7310;-0.0672;
654.0000;0.7285;-0.0742;
654.3000;0.7261;-0.0811;
654.6000;0.7375;-0.0487;
654.9000;0.7285;-0.0742;
655.2000;0.7310;-0.0672;
655.5000;0.7261;-0.0696;
655.8000;0.7269;-0.0649;
656.1000;0.7269;-0.0649;
656.4000;0.7261;-0.0742;
656.7000;0.7245;-0.0788;
657.0000;0.7236;-0.0742;
657.3000;0.7293;-0.0672;
657.6000;0.7236;-0.0696;
657.9000;0.7236;-0.0719;
658.2000;0.7204;-0.0719;
658.5000;0.7196;-0.0672;
658.8000;0.7220;-0.0603;
659.1000;0.7204;-0.0603;
659.4000;0.7188;-0.0672;
659.7000;0.7212;-0.0603;
660.0000;0.7179;-0.0556;
660.3000;0.7171;-0.0510;
660.6000;0.7188;-0.0533;
660.9000;0.7179;-0.0533;
661.2000;0.7163;-0.0556;
661.5000;0.7171;-0.0580;
661.8000;0.7139;-0.0649;
662.1000;0.7163;-0.0603;
662.4000;0.7171;-0.0533;
662.7000;0.7155;-0.0580;
663.0000;0.7123;-0.0719;
663.3000;0.7139;-0.0672;
663.6000;0.7123;-0.0742;
663.9000;0.7131;-0.0696;
664.2000;0.7123;-0.0765;
664.5000;0.7123;-0.0742;
664.8000;0.7098;-0.0765;
665.1000;0.7114;-0.0719;
665.4000;0.7131;-0.0696;
665.7000;0.7098;-0.0788;
666.0000;0.7155;-0.0672;
666.3000;0.7114;-0.0765;
666.6000;0.7090;-0.0788;
666.9000;0.7090;-0.0719;
667.2000;0.7098;-0.0719;
667.5000;0.7090;-0.0719;
667.8000;0.7114;-0.0696;
668.1000;0.7082;-0.0742;
668.4000;0.7066;-0.0835;
668.7000;0.7057;-0.0858;
669.0000;0.7074;-0.0765;
669.3000;0.7057;-0.0788;
669.6000;0.7049;-0.0858;
669.9000;0.7057;-0.0811;
670.2000;0.7033;-0.0672;
670.5000;0.7033;-0.0626;
670.8000;0.7066;-0.0580;
671.1000;0.6992;-0.0719;
671.4000;0.7033;-0.0696;
671.7000;0.7041;-0.0672;
672.0000;0.7025;-0.0649;
672.3000;0.7025;-0.0719;
672.6000;0.7033;-0.0696;
672.9000;0.7009;-0.0696;
673.2000;0.6992;-0.0719;
673.5000;0.6935;-0.0835;
673.8000;0.7000;-0.0649;
674.1000;0.7000;-0.0580;
674.4000;0.6984;-0.0603;
674.7000;0.6968;-0.0626;
675.0000;0.6968;-0.0603;
675.3000;0.6976;-0.0626;
675.6000;0.6976;-0.0626;
675.9000;0.6976;-0.0603;
676.2000;0.6968;-0.0672;
676.5000;0.6952;-0.0672;
676.8000;0.6968;-0.0626;
677.1000;0.6968;-0.0556;
677.4000;0.6952;-0.0487;
677.7000;0.6968;-0.0510;
678.0000;0.6960;-0.0580;
678.3000;0.6968;-0.0649;
678.6000;0.6943;-0.0672;
678.9000;0.6943;-0.0626;
679.2000;0.6952;-0.0649;
679.5000;0.6943;-0.0811;
679.8000;0.6927;-0.0835;
680.1000;0.6935;-0.0719;
680.4000;0.6911;-0.0649;
680.7000;0.6919;-0.0556;
681.0000;0.6911;-0.0672;
681.3000;0.6919;-0.0603;
681.6000;0.6911;-0.0603;
681.9000;0.6927;-0.0556;
682.2000;0.6911;-0.0580;
682.5000;0.6968;-0.0371;
682.8000;0.6960;-0.0325;
683.1000;0.6903;-0.0510;
683.4000;0.6911;-0.0556;
683.7000;0.6886;-0.0719;
684.0000;0.6903;-0.0765;
684.3000;0.6903;-0.0719;
684.6000;0.6886;-0.0603;
684.9000;0.6895;-0.0603;
685.2000;0.6870;-0.0533;
685.5000;0.6838;-0.0510;
685.8000;0.6870;-0.0394;
686.1000;0.6854;-0.0441;
686.4000;0.6846;-0.0464;
686.7000;0.6870;-0.0394;
687.0000;0.6886;-0.0394;
687.3000;0.6854;-0.0441;
687.6000;0.6862;-0.0417;
687.9000;0.6854;-0.0464;
688.2000;0.6854;-0.0487;
688.5000;0.6838;-0.0533;
688.8000;0.6838;-0.0464;
689.1000;0.6829;-0.0394;
689.4000;0.6797;-0.0487;
689.7000;0.6838;-0.0417;
690.0000;0.6813;-0.0371;
690.3000;0.6813;-0.0487;
690.6000;0.6756;-0.0672;
690.9000;0.6821;-0.0603;
691.2000;0.6813;-0.0649;
691.5000;0.6797;-0.0696;
691.8000;0.6838;-0.0649;
692.1000;0.6838;-0.0580;
692.4000;0.6829;-0.0603;
692.7000;0.6805;-0.0649;
693.0000;0.6756;-0.0811;
693.3000;0.6789;-0.0788;
693.6000;0.6797;-0.0672;
693.9000;0.6740;-0.0742;
694.2000;0.6797;-0.0626;
694.5000;0.6797;-0.0672;
694.8000;0.6789;-0.0719;
695.1000;0.6781;-0.0788;
695.4000;0.6772;-0.0765;
695.7000;0.6805;-0.0556;
696.0000;0.6772;-0.0510;
696.3000;0.6764;-0.0533;
696.6000;0.6756;-0.0556;
696.9000;0.6748;-0.0556;
697.2000;0.6781;-0.0487;
697.5000;0.6781;-0.0325;
697.8000;0.6764;-0.0394;
698.1000;0.6772;-0.0371;
698.4000;0.6764;-0.0417;
698.7000;0.6724;-0.0603;
699.0000;0.6740;-0.0626;
699.3000;0.6748;-0.0533;
699.6000;0.6699;-0.0626;
699.9000;0.6732;-0.0510;
700.2000;0.6732;-0.0487;
700.5000;0.6707;-0.0556;
700.8000;0.6748;-0.0394;
701.1000;0.6732;-0.0371;
701.4000;0.6732;-0.0533;
701.7000;0.6716;-0.0533;
702.0000;0.6716;-0.0533;
702.3000;0.6732;-0.0487;
702.6000;0.6724;-0.0510;
702.9000;0.6716;-0.0510;
703.2000;0.6699;-0.0556;
703.5000;0.6691;-0.0556;
703.8000;0.6724;-0.0533;
704.1000;0.6724;-0.0580;
704.4000;0.6618;-0.0858;
704.7000;0.6691;-0.0672;
705.0000;0.6724;-0.0626;
705.3000;0.6707;-0.0603;
705.6000;0.6683;-0.0626;
705.9000;0.6699;-0.0487;
706.2000;0.6699;-0.0441;
706.5000;0.6699;-0.0371;
706.8000;0.6650;-0.0510;
707.1000;0.6642;-0.0533;
707.4000;0.6593;-0.0765;
707.7000;0.6683;-0.0580;
708.0000;0.6667;-0.0672;
708.3000;0.6675;-0.0672;
708.6000;0.6675;-0.0556;
708.9000;0.6659;-0.0556;
709.2000;0.6659;-0.0603;
709.5000;0.6667;-0.0603;
709.8000;0.6699;-0.0556;
710.1000;0.6675;-0.0580;
710.4000;0.6667;-0.0556;
710.7000;0.6659;-0.0510;
711.0000;0.6675;-0.0441;
711.3000;0.6659;-0.0464;
711.6000;0.6675;-0.0417;
711.9000;0.6642;-0.0371;
712.2000;0.6642;-0.0441;
712.5000;0.6659;-0.0487;
712.8000;0.6642;-0.0464;
713.1000;0.6642;-0.0464;
713.4000;0.6634;-0.0441;
713.7000;0.6626;-0.0441;
714.0000;0.6659;-0.0441;
714.3000;0.6650;-0.0348;
714.6000;0.6626;-0.0464;
714.9000;0.6618;-0.0441;
715.2000;0.6610;-0.0487;
715.5000;0.6650;-0.0510;
715.8000;0.6667;-0.0464;
716.1000;0.6618;-0.0556;
716.4000;0.6618;-0.0510;
716.7000;0.6618;-0.0487;
717.0000;0.6561;-0.0626;
717.3000;0.6618;-0.0510;
717.6000;0.6602;-0.0510;
717.9000;0.6650;-0.0394;
718.2000;0.6650;-0.0464;
718.5000;0.6618;-0.0510;
718.8000;0.6610;-0.0510;
719.1000;0.6618;-0.0464;
719.4000;0.6602;-0.0348;
719.7000;0.6593;-0.0417;
720.0000;0.6593;-0.0487;
720.3000;0.6593;-0.0487;
720.6000;0.6602;-0.0487;
720.9000;0.6618;-0.0580;
721.2000;0.6626;-0.0487;
721.5000;0.6593;-0.0556;
721.8000;0.6569;-0.0626;
722.1000;0.6569;-0.0696;
722.4000;0.6536;-0.0719;
722.7000;0.6650;-0.0441;
723.0000;0.6561;-0.0649;
723.3000;0.6569;-0.0649;
723.6000;0.6553;-0.0672;
723.9000;0.6561;-0.0672;
724.2000;0.6569;-0.0765;
724.5000;0.6585;-0.0696;
724.8000;0.6561;-0.0672;
725.1000;0.6553;-0.0742;
725.4000;0.6553;-0.0696;
725.7000;0.6553;-0.0626;
726.0000;0.6569;-0.0580;
726.3000;0.6536;-0.0626;
726.6000;0.6569;-0.0533;
726.9000;0.6569;-0.0626;
727.2000;0.6545;-0.0603;
727.5000;0.6569;-0.0603;
727.8000;0.6626;-0.0464;
728.1000;0.6520;-0.0696;
728.4000;0.6545;-0.0649;
728.7000;0.6545;-0.0672;
729.0000;0.6561;-0.0556;
729.3000;0.6569;-0.0487;
729.6000;0.6561;-0.0510;
729.9000;0.6536;-0.0556;
730.2000;0.6536;-0.0417;
730.5000;0.6536;-0.0301;
730.8000;0.6545;-0.0255;
731.1000;0.6528;-0.0278;
731.4000;0.6561;-0.0348;
731.7000;0.6536;-0.0487;
732.0000;0.6536;-0.0510;
732.3000;0.6520;-0.0556;
732.6000;0.6528;-0.0510;
732.9000;0.6520;-0.0487;
733.2000;0.6520;-0.0417;
733.5000;0.6528;-0.0441;
733.8000;0.6520;-0.0533;
734.1000;0.6520;-0.0603;
734.4000;0.6528;-0.0533;
734.7000;0.6512;-0.0556;
735.0000;0.6528;-0.0603;
735.3000;0.6520;-0.0626;
735.6000;0.6520;-0.0580;
735.9000;0.6536;-0.0556;
736.2000;0.6488;-0.0580;
736.5000;0.6504;-0.0510;
736.8000;0.6512;-0.0510;
737.1000;0.6512;-0.0510;
737.4000;0.6512;-0.0487;
737.7000;0.6496;-0.0487;
738.0000;0.6488;-0.0487;
738.3000;0.6496;-0.0510;
738.6000;0.6504;-0.0487;
738.9000;0.6488;-0.0533;
739.2000;0.6496;-0.0580;
739.5000;0.6520;-0.0487;
739.8000;0.6496;-0.0533;
740.1000;0.6479;-0.0487;
740.4000;0.6479;-0.0510;
740.7000;0.6488;-0.0510;
741.0000;0.6479;-0.0533;
741.3000;0.6479;-0.0556;
741.6000;0.6520;-0.0510;
741.9000;0.6463;-0.0556;
742.2000;0.6479;-0.0510;
742.5000;0.6496;-0.0417;
742.8000;0.6479;-0.0487;
743.1000;0.6471;-0.0487;
743.4000;0.6471;-0.0487;
743.7000;0.6471;-0.0510;
744.0000;0.6414;-0.0580;
744.3000;0.6463;-0.0464;
744.6000;0.6431;-0.0533;
744.9000;0.6463;-0.0510;
745.2000;0.6390;-0.0696;
745.5000;0.6463;-0.0510;
745.8000;0.6447;-0.0464;
746.1000;0.6455;-0.0510;
746.4000;0.6471;-0.0441;
746.7000;0.6447;-0.0487;
747.0000;0.6398;-0.0649;
747.3000;0.6455;-0.0510;
747.6000;0.6447;-0.0533;
747.9000;0.6439;-0.0464;
748.2000;0.6431;-0.0464;
748.5000;0.6431;-0.0464;
748.8000;0.6447;-0.0441;
749.1000;0.6447;-0.0510;
749.4000;0.6439;-0.0533;
749.7000;0.6455;-0.0487;
750.0000;0.6447;-0.0510;
750.3000;0.6439;-0.0556;
750.6000;0.6447;-0.0626;
750.9000;0.6447;-0.0719;
751.2000;0.6455;-0.0649;
751.5000;0.6439;-0.0719;
751.8000;0.6439;-0.0626;
752.1000;0.6447;-0.0580;
752.4000;0.6447;-0.0556;
752.7000;0.6455;-0.0533;
753.0000;0.6447;-0.0580;
753.3000;0.6431;-0.0696;
753.6000;0.6422;-0.0626;
753.9000;0.6455;-0.0533;
754.2000;0.6422;-0.0580;
754.5000;0.6406;-0.0603;
754.8000;0.6431;-0.0533;
755.1000;0.6439;-0.0580;
755.4000;0.6414;-0.0626;
755.7000;0.6414;-0.0649;
756.0000;0.6414;-0.0719;
756.3000;0.6431;-0.0719;
756.6000;0.6398;-0.0788;
756.9000;0.6414;-0.0696;
757.2000;0.6406;-0.0626;
757.5000;0.6414;-0.0580;
757.8000;0.6422;-0.0603;
758.1000;0.6414;-0.0556;
758.4000;0.6398;-0.0626;
758.7000;0.6431;-0.0580;
759.0000;0.6422;-0.0580;
759.3000;0.6406;-0.0626;
759.6000;0.6398;-0.0672;
759.9000;0.6406;-0.0696;
760.2000;0.6398;-0.0626;
760.5000;0.6406;-0.0556;
760.8000;0.6406;-0.0580;
761.1000;0.6382;-0.0649;
761.4000;0.6382;-0.0696;
761.7000;0.6406;-0.0696;
762.0000;0.6431;-0.0719;
762.3000;0.6390;-0.0788;
762.6000;0.6463;-0.0580;
762.9000;0.6382;-0.0742;
763.2000;0.6390;-0.0742;
763.5000;0.6398;-0.0811;
763.8000;0.6390;-0.0858;
764.1000;0.6406;-0.0788;
764.4000;0.6398;-0.0858;
764.7000;0.6390;-0.0881;
765.0000;0.6398;-0.0835;
765.3000;0.6382;-0.0835;
765.6000;0.6374;-0.0858;
765.9000;0.6374;-0.0881;
766.2000;0.6365;-0.0881;
766.5000;0.6414;-0.0811;
766.8000;0.6374;-0.0835;
767.1000;0.6390;-0.0835;
767.4000;0.6390;-0.0811;
767.7000;0.6382;-0.0835;
768.0000;0.6382;-0.0742;
768.3000;0.6374;-0.0626;
768.6000;0.6374;-0.0719;
768.9000;0.6349;-0.0696;
769.2000;0.6374;-0.0649;
769.5000;0.6357;-0.0719;
769.8000;0.6349;-0.0765;
770.1000;0.6374;-0.0719;
770.4000;0.6374;-0.0696;
770.7000;0.6365;-0.0742;
771.0000;0.6365;-0.0696;
771.3000;0.6365;-0.0765;
771.6000;0.6357;-0.0672;
771.9000;0.6382;-0.0626;
772.2000;0.6357;-0.0696;
772.5000;0.6349;-0.0556;
772.8000;0.6365;-0.0533;
773.1000;0.6365;-0.0556;
773.4000;0.6357;-0.0603;
773.7000;0.6349;-0.0649;
774.0000;0.6365;-0.0626;
774.3000;0.6349;-0.0672;
774.6000;0.6357;-0.0649;
774.9000;0.6357;-0.0603;
775.2000;0.6349;-0.0626;
775.5000;0.6374;-0.0556;
775.8000;0.6374;-0.0533;
776.1000;0.6357;-0.0603;
776.4000;0.6357;-0.0696;
776.7000;0.6374;-0.0696;
777.0000;0.6374;-0.0719;
777.3000;0.6365;-0.0719;
777.6000;0.6357;-0.0765;
777.9000;0.6357;-0.0742;
778.2000;0.6357;-0.0603;
778.5000;0.6333;-0.0672;
778.8000;0.6365;-0.0603;
779.1000;0.6357;-0.0603;
779.4000;0.6374;-0.0580;
779.7000;0.6357;-0.0672;
780.0000;0.6333;-0.0788;
780.3000;0.6325;-0.0765;
780.6000;0.6341;-0.0765;
780.9000;0.6317;-0.0835;
781.2000;0.6309;-0.0835;
781.5000;0.6365;-0.0719;
781.8000;0.6333;-0.0742;
782.1000;0.6333;-0.0696;
782.4000;0.6349;-0.0580;
782.7000;0.6325;-0.0603;
783.0000;0.6341;-0.0580;
783.3000;0.6333;-0.0580;
783.6000;0.6333;-0.0556;
783.9000;0.6325;-0.0649;
784.2000;0.6325;-0.0696;
784.5000;0.6341;-0.0696;
784.8000;0.6374;-0.0649;
785.1000;0.6325;-0.0788;
785.4000;0.6365;-0.0719;
785.7000;0.6333;-0.0696;
786.0000;0.6333;-0.0672;
786.3000;0.6333;-0.0696;
786.6000;0.6341;-0.0626;
786.9000;0.6325;-0.0603;
787.2000;0.6317;-0.0626;
787.5000;0.6300;-0.0719;
787.8000;0.6292;-0.0719;
788.1000;0.6268;-0.0765;
788.4000;0.6365;-0.0487;
788.7000;0.6317;-0.0696;
789.0000;0.6317;-0.0649;
789.3000;0.6317;-0.0626;
789.6000;0.6317;-0.0672;
789.9000;0.6325;-0.0719;
790.2000;0.6300;-0.0765;
790.5000;0.6309;-0.0811;
790.8000;0.6300;-0.0742;
791.1000;0.6300;-0.0649;
791.4000;0.6292;-0.0533;
791.7000;0.6284;-0.0510;
792.0000;0.6300;-0.0417;
792.3000;0.6309;-0.0394;
792.6000;0.6284;-0.0394;
792.9000;0.6300;-0.0371;
793.2000;0.6276;-0.0441;
793.5000;0.6300;-0.0394;
793.8000;0.6284;-0.0348;
794.1000;0.6292;-0.0278;
794.4000;0.6284;-0.0348;
794.7000;0.6300;-0.0487;
795.0000;0.6219;-0.0649;
795.3000;0.6292;-0.0487;
795.6000;0.6292;-0.0510;
795.9000;0.6292;-0.0603;
796.2000;0.6317;-0.0533;
796.5000;0.6292;-0.0533;
796.8000;0.6284;-0.0464;
797.1000;0.6317;-0.0301;
797.4000;0.6276;-0.0417;
797.7000;0.6284;-0.0278;
798.0000;0.6292;-0.0255;
798.3000;0.6284;-0.0232;
798.6000;0.6300;-0.0185;
798.9000;0.6292;-0.0301;
799.2000;0.6276;-0.0348;
799.5000;0.6284;-0.0417;
799.8000;0.6276;-0.0487;
800.1000;0.6309;-0.0441;
800.4000;0.6260;-0.0649;
800.7000;0.6276;-0.0580;
801.0000;0.6317;-0.0510;
801.3000;0.6300;-0.0580;
801.6000;0.6300;-0.0464;
801.9000;0.6284;-0.0533;
802.2000;0.6260;-0.0556;
802.5000;0.6276;-0.0603;
802.8000;0.6276;-0.0649;
803.1000;0.6325;-0.0580;
803.4000;0.6276;-0.0835;
803.7000;0.6276;-0.0742;
804.0000;0.6284;-0.0742;
804.3000;0.6284;-0.0719;
804.6000;0.6252;-0.0835;
804.9000;0.6268;-0.0742;
805.2000;0.6276;-0.0696;
805.5000;0.6260;-0.0765;
805.8000;0.6284;-0.0765;
806.1000;0.6268;-0.0742;
806.4000;0.6227;-0.0858;
806.7000;0.6268;-0.0811;
807.0000;0.6292;-0.0696;
807.3000;0.6260;-0.0719;
807.6000;0.6268;-0.0719;
807.9000;0.6276;-0.0603;
808.2000;0.6260;-0.0603;
808.5000;0.6252;-0.0556;
808.8000;0.6260;-0.0556;
809.1000;0.6268;-0.0533;
809.4000;0.6243;-0.0580;
809.7000;0.6260;-0.0510;
810.0000;0.6243;-0.0510;
810.3000;0.6260;-0.0487;
810.6000;0.6260;-0.0533;
810.9000;0.6243;-0.0580;
811.2000;0.6243;-0.0533;
811.5000;0.6243;-0.0580;
811.8000;0.6260;-0.0556;
812.1000;0.6243;-0.0580;
812.4000;0.6235;-0.0672;
812.7000;0.6260;-0.0696;
813.0000;0.6268;-0.0649;
813.3000;0.6186;-0.0951;
813.6000;0.6235;-0.0742;
813.9000;0.6227;-0.0696;
814.2000;0.6235;-0.0742;
814.5000;0.6243;-0.0696;
814.8000;0.6227;-0.0672;
815.1000;0.6235;-0.0626;
815.4000;0.6252;-0.0603;
815.7000;0.6252;-0.0556;
816.0000;0.6235;-0.0580;
816.3000;0.6252;-0.0487;
816.6000;0.6252;-0.0510;
816.9000;0.6292;-0.0417;
817.2000;0.6227;-0.0556;
817.5000;0.6227;-0.0580;
817.8000;0.6235;-0.0533;
818.1000;0.6235;-0.0580;
818.4000;0.6227;-0.0580;
818.7000;0.6235;-0.0580;
819.0000;0.6243;-0.0533;
819.3000;0.6227;-0.0626;
819.6000;0.6243;-0.0626;
819.9000;0.6243;-0.0626;
820.2000;0.6219;-0.0672;
820.5000;0.6284;-0.0556;
820.8000;0.6252;-0.0719;
821.1000;0.6211;-0.0696;
821.4000;0.6203;-0.0696;
821.7000;0.6235;-0.0556;
822.0000;0.6243;-0.0556;
822.3000;0.6203;-0.0580;
822.6000;0.6235;-0.0464;
822.9000;0.6219;-0.0510;
823.2000;0.6276;-0.0441;
823.5000;0.6227;-0.0464;
823.8000;0.6219;-0.0487;
824.1000;0.6211;-0.0510;
824.4000;0.6227;-0.0510;
824.7000;0.6195;-0.0533;
825.0000;0.6219;-0.0487;
825.3000;0.6203;-0.0487;
825.6000;0.6219;-0.0417;
825.9000;0.6235;-0.0417;
826.2000;0.6227;-0.0487;
826.5000;0.6211;-0.0603;
826.8000;0.6195;-0.0649;
827.1000;0.6235;-0.0556;
827.4000;0.6211;-0.0649;
827.7000;0.6195;-0.0649;
828.0000;0.6203;-0.0603;
828.3000;0.6203;-0.0696;
828.6000;0.6186;-0.0765;
828.9000;0.6211;-0.0649;
829.2000;0.6219;-0.0510;
829.5000;0.6219;-0.0580;
829.8000;0.6227;-0.0603;
830.1000;0.6203;-0.0603;
830.4000;0.6219;-0.0649;
830.7000;0.6227;-0.0556;
831.0000;0.6219;-0.0556;
831.3000;0.6203;-0.0672;
831.6000;0.6219;-0.0626;
831.9000;0.6219;-0.0603;
832.2000;0.6211;-0.0672;
832.5000;0.6203;-0.0649;
832.8000;0.6235;-0.0510;
833.1000;0.6203;-0.0556;
833.4000;0.6211;-0.0649;
833.7000;0.6203;-0.0719;
834.0000;0.6186;-0.0765;
834.3000;0.6186;-0.0742;
834.6000;0.6219;-0.0672;
834.9000;0.6211;-0.0672;
835.2000;0.6186;-0.0649;
835.5000;0.6195;-0.0626;
835.8000;0.6162;-0.0696;
836.1000;0.6211;-0.0626;
836.4000;0.6186;-0.0626;
836.7000;0.6195;-0.0556;
837.0000;0.6195;-0.0533;
837.3000;0.6195;-0.0510;
837.6000;0.6178;-0.0487;
837.9000;0.6178;-0.0510;
838.2000;0.6243;-0.0417;
838.5000;0.6186;-0.0510;
838.8000;0.6186;-0.0556;
839.1000;0.6235;-0.0510;
839.4000;0.6203;-0.0510;
839.7000;0.6162;-0.0533;
840.0000;0.6195;-0.0556;
840.3000;0.6186;-0.0580;
840.6000;0.6203;-0.0580;
840.9000;0.6186;-0.0580;
841.2000;0.6186;-0.0556;
841.5000;0.6178;-0.0556;
841.8000;0.6154;-0.0626;
842.1000;0.6170;-0.0580;
842.4000;0.6186;-0.0580;
842.7000;0.6178;-0.0580;
843.0000;0.6186;-0.0556;
843.3000;0.6178;-0.0556;
843.6000;0.6162;-0.0580;
843.9000;0.6178;-0.0626;
844.2000;0.6178;-0.0649;
844.5000;0.6170;-0.0719;
844.8000;0.6203;-0.0626;
845.1000;0.6186;-0.0556;
845.4000;0.6178;-0.0510;
845.7000;0.6178;-0.0533;
846.0000;0.6186;-0.0556;
846.3000;0.6154;-0.0603;
846.6000;0.6203;-0.0487;
846.9000;0.6170;-0.0487;
847.2000;0.6186;-0.0487;
847.5000;0.6089;-0.0696;
847.8000;0.6195;-0.0441;
848.1000;0.6186;-0.0394;
848.4000;0.6154;-0.0510;
848.7000;0.6162;-0.0441;
849.0000;0.6186;-0.0417;
849.3000;0.6154;-0.0464;
849.6000;0.6170;-0.0464;
849.9000;0.6170;-0.0510;
850.2000;0.6178;-0.0464;
850.5000;0.6170;-0.0580;
850.8000;0.6170;-0.0533;
851.1000;0.6178;-0.0487;
851.4000;0.6195;-0.0441;
851.7000;0.6170;-0.0441;
852.0000;0.6154;-0.0394;
852.3000;0.6186;-0.0417;
852.6000;0.6203;-0.0464;
852.9000;0.6138;-0.0556;
853.2000;0.6195;-0.0464;
853.5000;0.6154;-0.0649;
853.8000;0.6178;-0.0649;
854.1000;0.6203;-0.0533;
854.4000;0.6170;-0.0603;
854.7000;0.6162;-0.0603;
855.0000;0.6162;-0.0580;
855.3000;0.6162;-0.0556;
855.6000;0.6162;-0.0510;
855.9000;0.6186;-0.0487;
856.2000;0.6154;-0.0533;
856.5000;0.6170;-0.0441;
856.8000;0.6162;-0.0441;
857.1000;0.6154;-0.0464;
857.4000;0.6129;-0.0580;
857.7000;0.6162;-0.0464;
858.0000;0.6121;-0.0603;
858.3000;0.6178;-0.0464;
858.6000;0.6146;-0.0533;
858.9000;0.6162;-0.0510;
859.2000;0.6162;-0.0487;
859.5000;0.6146;-0.0487;
859.8000;0.6170;-0.0487;
860.1000;0.6162;-0.0441;
860.4000;0.6146;-0.0533;
860.7000;0.6129;-0.0649;
861.0000;0.6138;-0.0649;
861.3000;0.6170;-0.0533;
861.6000;0.6146;-0.0580;
861.9000;0.6154;-0.0556;
862.2000;0.6146;-0.0580;
862.5000;0.6162;-0.0487;
862.8000;0.6162;-0.0417;
863.1000;0.6162;-0.0441;
863.4000;0.6162;-0.0371;
863.7000;0.6162;-0.0441;
864.0000;0.6138;-0.0487;
864.3000;0.6154;-0.0394;
864.6000;0.6178;-0.0348;
864.9000;0.6162;-0.0417;
865.2000;0.6154;-0.0417;
865.5000;0.6162;-0.0371;
865.8000;0.6195;-0.0348;
866.1000;0.6162;-0.0441;
866.4000;0.6154;-0.0371;
866.7000;0.6162;-0.0325;
867.0000;0.6138;-0.0301;
867.3000;0.6154;-0.0278;
867.6000;0.6146;-0.0301;
867.9000;0.6146;-0.0278;
868.2000;0.6146;-0.0348;
868.5000;0.6146;-0.0417;
868.8000;0.6146;-0.0417;
869.1000;0.6129;-0.0417;
869.4000;0.6186;-0.0255;
869.7000;0.6154;-0.0301;
870.0000;0.6162;-0.0278;
870.3000;0.6154;-0.0185;
870.6000;0.6162;-0.0209;
870.9000;0.6154;-0.0255;
871.2000;0.6138;-0.0278;
871.5000;0.6162;-0.0232;
871.8000;0.6203;-0.0185;
872.1000;0.6129;-0.0371;
872.4000;0.6129;-0.0371;
872.7000;0.6129;-0.0441;
873.0000;0.6178;-0.0348;
873.3000;0.6146;-0.0371;
873.6000;0.6138;-0.0348;
873.9000;0.6138;-0.0255;
874.2000;0.6129;-0.0255;
874.5000;0.6154;-0.0278;
874.8000;0.6121;-0.0441;
875.1000;0.6105;-0.0533;
875.4000;0.6138;-0.0510;
875.7000;0.6129;-0.0487;
876.0000;0.6138;-0.0464;
876.3000;0.6105;-0.0510;
876.6000;0.6113;-0.0464;
876.9000;0.6129;-0.0371;
877.2000;0.6146;-0.0301;
877.5000;0.6146;-0.0348;
877.8000;0.6129;-0.0371;
878.1000;0.6146;-0.0394;
878.4000;0.6129;-0.0464;
878.7000;0.6138;-0.0417;
879.0000;0.6121;-0.0487;
879.3000;0.6146;-0.0348;
879.6000;0.6162;-0.0325;
879.9000;0.6162;-0.0325;
880.2000;0.6146;-0.0348;
880.5000;0.6129;-0.0325;
880.8000;0.6113;-0.0325;
881.1000;0.6129;-0.0162;
881.4000;0.6121;-0.0139;
881.7000;0.6113;-0.0162;
882.0000;0.6195;0.0000;
882.3000;0.6138;-0.0162;
882.6000;0.6113;-0.0209;
882.9000;0.6129;-0.0255;
883.2000;0.6138;-0.0255;
883.5000;0.6154;-0.0255;
883.8000;0.6138;-0.0325;
884.1000;0.6138;-0.0325;
884.4000;0.6121;-0.0232;
884.7000;0.6089;-0.0232;
885.0000;0.6162;-0.0070;
885.3000;0.6121;-0.0162;
885.6000;0.6129;-0.0232;
885.9000;0.6129;-0.0139;
886.2000;0.6129;0.0046;
886.5000;0.6105;0.0000;
886.8000;0.6097;0.0046;
887.1000;0.6129;0.0000;
887.4000;0.6113;0.0046;
887.7000;0.6121;0.0070;
888.0000;0.6113;0.0070;
888.3000;0.6121;-0.0023;
888.6000;0.6129;0.0046;
888.9000;0.6129;0.0023;
889.2000;0.6121;-0.0023;
889.5000;0.6097;-0.0093;
889.8000;0.6121;-0.0046;
890.1000;0.6105;-0.0093;
890.4000;0.6113;-0.0139;
890.7000;0.6097;-0.0185;
891.0000;0.6113;-0.0162;
891.3000;0.6097;-0.0255;
891.6000;0.6113;-0.0301;
891.9000;0.6097;-0.0371;
892.2000;0.6113;-0.0371;
892.5000;0.6064;-0.0510;
892.8000;0.6121;-0.0255;
893.1000;0.6138;-0.0185;
893.4000;0.6129;-0.0209;
893.7000;0.6129;-0.0232;
894.0000;0.6097;-0.0301;
894.3000;0.6097;-0.0301;
894.6000;0.6121;-0.0301;
894.9000;0.6121;-0.0301;
895.2000;0.6121;-0.0185;
895.5000;0.6105;-0.0232;
895.8000;0.6097;-0.0325;
896.1000;0.6113;-0.0278;
896.4000;0.6113;-0.0139;
896.7000;0.6113;-0.0093;
897.0000;0.6097;-0.0139;
897.3000;0.6097;-0.0209;
897.6000;0.6105;-0.0185;
897.9000;0.6097;-0.0278;
898.2000;0.6105;-0.0301;
898.5000;0.6056;-0.0325;
898.8000;0.6105;-0.0232;
899.1000;0.6105;-0.0301;
899.4000;0.6105;-0.0371;
899.7000;0.6105;-0.0325;
900.0000;0.6113;-0.0301;
900.3000;0.6105;-0.0232;
900.6000;0.6105;-0.0162;
900.9000;0.6129;0.0023;
901.2000;0.6113;-0.0046;
901.5000;0.6113;-0.0023;
901.8000;0.6113;-0.0023;
902.1000;0.6121;-0.0023;
902.4000;0.6105;-0.0093;
902.7000;0.6113;-0.0093;
903.0000;0.6113;-0.0209;
903.3000;0.6097;-0.0325;
903.6000;0.6113;-0.0278;
903.9000;0.6121;-0.0232;
904.2000;0.6089;-0.0301;
904.5000;0.6097;-0.0255;
904.8000;0.6097;-0.0185;
905.1000;0.6056;-0.0255;
905.4000;0.6097;-0.0255;
905.7000;0.6097;-0.0232;
906.0000;0.6089;-0.0255;
906.3000;0.6097;-0.0185;
906.6000;0.6097;-0.0209;
906.9000;0.6097;-0.0185;
907.2000;0.6072;-0.0232;
907.5000;0.6032;-0.0348;
907.8000;0.6105;-0.0209;
908.1000;0.6097;-0.0278;
908.4000;0.6072;-0.0394;
908.7000;0.6081;-0.0464;
909.0000;0.6081;-0.0464;
909.3000;0.6097;-0.0371;
909.6000;0.6097;-0.0464;
909.9000;0.6089;-0.0417;
910.2000;0.6097;-0.0464;
910.5000;0.6097;-0.0394;
910.8000;0.6113;-0.0394;
911.1000;0.6097;-0.0510;
911.4000;0.6105;-0.0464;
911.7000;0.6097;-0.0417;
912.0000;0.6089;-0.0441;
912.3000;0.6072;-0.0510;
912.6000;0.6089;-0.0487;
912.9000;0.6081;-0.0441;
913.2000;0.6081;-0.0325;
913.5000;0.6089;-0.0348;
913.8000;0.6081;-0.0301;
914.1000;0.6146;-0.0139;
914.4000;0.6129;-0.0255;
914.7000;0.6097;-0.0185;
915.0000;0.6097;-0.0232;
915.3000;0.6097;-0.0371;
915.6000;0.6113;-0.0348;
915.9000;0.6097;-0.0301;
916.2000;0.6072;-0.0325;
916.5000;0.6072;-0.0325;
916.8000;0.6097;-0.0232;
917.1000;0.6138;-0.0046;
917.4000;0.6097;-0.0139;
917.7000;0.6081;-0.0209;
918.0000;0.6089;-0.0139;
918.3000;0.6105;-0.0070;
918.6000;0.6105;-0.0023;
918.9000;0.6072;-0.0093;
919.2000;0.6048;-0.0185;
919.5000;0.6040;-0.0278;
919.8000;0.6121;-0.0162;
920.1000;0.6081;-0.0255;
920.4000;0.6097;-0.0209;
920.7000;0.6089;-0.0255;
921.0000;0.6089;-0.0185;
921.3000;0.6064;-0.0232;
921.6000;0.6072;-0.0185;
921.9000;0.6072;-0.0232;
922.2000;0.6072;-0.0232;
922.5000;0.6056;-0.0301;
922.8000;0.6007;-0.0394;
923.1000;0.6081;-0.0255;
923.4000;0.6089;-0.0255;
923.7000;0.6064;-0.0348;
924.0000;0.6064;-0.0348;
924.3000;0.6081;-0.0301;
924.6000;0.6032;-0.0371;
924.9000;0.6072;-0.0232;
925.2000;0.6081;-0.0209;
925.5000;0.6089;-0.0162;
925.8000;0.6072;-0.0232;
926.1000;0.6040;-0.0371;
926.4000;0.6072;-0.0348;
926.7000;0.6072;-0.0371;
927.0000;0.6089;-0.0325;
927.3000;0.6089;-0.0278;
927.6000;0.6064;-0.0325;
927.9000;0.6081;-0.0209;
928.2000;0.6081;-0.0209;
928.5000;0.6064;-0.0209;
928.8000;0.6072;-0.0255;
929.1000;0.6056;-0.0301;
929.4000;0.6064;-0.0232;
929.7000;0.6048;-0.0255;
930.0000;0.6072;-0.0255;
930.3000;0.6048;-0.0255;
930.6000;0.6064;-0.0162;
930.9000;0.6064;-0.0162;
931.2000;0.6097;-0.0139;
931.5000;0.6064;-0.0232;
931.8000;0.6056;-0.0255;
932.1000;0.6081;-0.0209;
932.4000;0.6072;-0.0162;
932.7000;0.6056;-0.0232;
933.0000;0.6056;-0.0278;
933.3000;0.6064;-0.0301;
933.6000;0.6089;-0.0255;
933.9000;0.6056;-0.0255;
934.2000;0.6064;-0.0255;
934.5000;0.6048;-0.0209;
934.8000;0.6089;-0.0162;
935.1000;0.6072;-0.0278;
935.4000;0.6056;-0.0301;
935.7000;0.6056;-0.0278;
936.0000;0.6064;-0.0325;
936.3000;0.6024;-0.0417;
936.6000;0.6056;-0.0301;
936.9000;0.6056;-0.0301;
937.2000;0.6048;-0.0278;
937.5000;0.6072;-0.0232;
937.8000;0.6048;-0.0325;
938.1000;0.6064;-0.0301;
938.4000;0.6048;-0.0301;
938.7000;0.6064;-0.0301;
939.0000;0.6048;-0.0371;
939.3000;0.6048;-0.0371;
939.6000;0.6048;-0.0348;
939.9000;0.6064;-0.0371;
940.2000;0.6015;-0.0301;
940.5000;0.6048;-0.0278;
940.8000;0.6056;-0.0301;
941.1000;0.6089;-0.0162;
941.4000;0.6056;-0.0301;
941.7000;0.6048;-0.0325;
942.0000;0.6048;-0.0301;
942.3000;0.6056;-0.0278;
942.6000;0.6064;-0.0301;
942.9000;0.6064;-0.0232;
943.2000;0.6040;-0.0348;
943.5000;0.6056;-0.0348;
943.8000;0.6040;-0.0325;
944.1000;0.6056;-0.0301;
944.4000;0.6040;-0.0348;
944.7000;0.6032;-0.0441;
945.0000;0.6056;-0.0394;
945.3000;0.6056;-0.0417;
945.6000;0.6064;-0.0371;
945.9000;0.6048;-0.0371;
946.2000;0.6072;-0.0301;
946.5000;0.6072;-0.0209;
946.8000;0.6056;-0.0278;
947.1000;0.6056;-0.0325;
947.4000;0.6056;-0.0209;
947.7000;0.6048;-0.0139;
948.0000;0.6081;0.0000;
948.3000;0.6072;-0.0046;
948.6000;0.6040;-0.0185;
948.9000;0.6089;-0.0093;
949.2000;0.6056;-0.0185;
949.5000;0.6040;-0.0255;
949.8000;0.6048;-0.0278;
950.1000;0.6072;-0.0232;
950.4000;0.6048;-0.0232;
950.7000;0.6056;-0.0185;
951.0000;0.6105;-0.0046;
951.3000;0.6056;-0.0301;
951.6000;0.5999;-0.0417;
951.9000;0.6024;-0.0325;
952.2000;0.6048;-0.0301;
952.5000;0.6024;-0.0394;
952.8000;0.6072;-0.0255;
953.1000;0.6146;0.0000;
953.4000;0.6056;-0.0232;
953.7000;0.6048;-0.0278;
954.0000;0.6007;-0.0348;
954.3000;0.6081;-0.0209;
954.6000;0.6056;-0.0255;
954.9000;0.6040;-0.0255;
955.2000;0.6040;-0.0301;
955.5000;0.6040;-0.0209;
955.8000;0.6040;-0.0255;
956.1000;0.6024;-0.0278;
956.4000;0.6089;-0.0093;
956.7000;0.6040;-0.0185;
957.0000;0.6072;-0.0139;
957.3000;0.6032;-0.0162;
957.6000;0.6032;-0.0139;
957.9000;0.6040;-0.0116;
958.2000;0.6048;-0.0070;
958.5000;0.6056;0.0070;
958.8000;0.6056;0.0116;
959.1000;0.6064;0.0046;
959.4000;0.6048;0.0000;
959.7000;0.6056;-0.0023;
960.0000;0.6056;-0.0070;
960.3000;0.6048;-0.0162;
960.6000;0.6048;-0.0139;
960.9000;0.5999;-0.0301;
961.2000;0.6015;-0.0185;
961.5000;0.6032;-0.0162;
961.8000;0.6024;-0.0116;
962.1000;0.6056;-0.0070;
962.4000;0.6064;-0.0070;
962.7000;0.6007;-0.0116;
963.0000;0.6040;-0.0093;
963.3000;0.6040;-0.0185;
963.6000;0.5999;-0.0278;
963.9000;0.6072;-0.0023;
964.2000;0.6040;-0.0093;
964.5000;0.6032;0.0000;
964.8000;0.6032;0.0023;
965.1000;0.6040;0.0000;
965.4000;0.6040;-0.0046;
965.7000;0.6024;-0.0093;
966.0000;0.6024;-0.0070;
966.3000;0.6024;-0.0162;
966.6000;0.6048;-0.0139;
966.9000;0.6040;-0.0116;
967.2000;0.6048;-0.0139;
967.5000;0.6040;-0.0046;
967.8000;0.6024;0.0023;
968.1000;0.6032;0.0070;
968.4000;0.6032;0.0046;
968.7000;0.6048;0.0000;
969.0000;0.6040;0.0023;
969.3000;0.6040;0.0023;
969.6000;0.6040;0.0000;
969.9000;0.6056;-0.0023;
970.2000;0.6024;-0.0139;
970.5000;0.6032;-0.0185;
970.8000;0.6040;-0.0232;
971.1000;0.6024;-0.0278;
971.4000;0.6040;-0.0209;
971.7000;0.6081;-0.0070;
972.0000;0.6040;-0.0209;
972.3000;0.6040;-0.0255;
972.6000;0.6064;-0.0209;
972.9000;0.6024;-0.0325;
973.2000;0.6040;-0.0325;
973.5000;0.6040;-0.0301;
973.8000;0.6040;-0.0348;
974.1000;0.6032;-0.0464;
974.4000;0.6040;-0.0487;
974.7000;0.6032;-0.0441;
975.0000;0.6040;-0.0394;
975.3000;0.6024;-0.0441;
975.6000;0.6024;-0.0464;
975.9000;0.6015;-0.0487;
976.2000;0.6081;-0.0394;
976.5000;0.6056;-0.0510;
976.8000;0.6024;-0.0556;
977.1000;0.6048;-0.0556;
977.4000;0.6048;-0.0510;
977.7000;0.6024;-0.0487;
978.0000;0.6015;-0.0487;
978.3000;0.6048;-0.0394;
978.6000;0.6048;-0.0371;
978.9000;0.6032;-0.0301;
979.2000;0.6032;-0.0348;
979.5000;0.6024;-0.0441;
979.8000;0.6032;-0.0533;
980.1000;0.6024;-0.0603;
980.4000;0.6015;-0.0696;
980.7000;0.6040;-0.0742;
981.0000;0.6015;-0.0696;
981.3000;0.6024;-0.0649;
981.6000;0.6007;-0.0719;
981.9000;0.6015;-0.0696;
982.2000;0.6024;-0.0672;
982.5000;0.6056;-0.0487;
982.8000;0.6040;-0.0464;
983.1000;0.6015;-0.0464;
983.4000;0.6032;-0.0464;
983.7000;0.6032;-0.0394;
984.0000;0.6024;-0.0441;
984.3000;0.5983;-0.0510;
984.6000;0.6007;-0.0441;
984.9000;0.6032;-0.0417;
985.2000;0.6048;-0.0348;
985.5000;0.5967;-0.0556;
985.8000;0.6040;-0.0348;
986.1000;0.6015;-0.0394;
986.4000;0.6040;-0.0255;
986.7000;0.6024;-0.0232;
987.0000;0.6015;-0.0278;
987.3000;0.6007;-0.0325;
987.6000;0.6007;-0.0325;
987.9000;0.5999;-0.0394;
988.2000;0.5999;-0.0417;
988.5000;0.5975;-0.0487;
988.8000;0.6024;-0.0301;
989.1000;0.6015;-0.0278;
989.4000;0.6024;-0.0255;
989.7000;0.6024;-0.0278;
990.0000;0.6024;-0.0232;
990.3000;0.6032;-0.0255;
990.6000;0.6024;-0.0301;
990.9000;0.6081;-0.0139;
991.2000;0.6024;-0.0278;
991.5000;0.6032;-0.0278;
991.8000;0.6032;-0.0185;
992.1000;0.6032;-0.0185;
992.4000;0.5967;-0.0325;
992.7000;0.6032;-0.0185;
993.0000;0.6015;-0.0209;
993.3000;0.6015;-0.0209;
993.6000;0.5991;-0.0301;
993.9000;0.6007;-0.0255;
994.2000;0.6015;-0.0185;
994.5000;0.6024;-0.0093;
994.8000;0.6015;-0.0185;
995.1000;0.6048;-0.0116;
995.4000;0.6007;-0.0232;
995.7000;0.6007;-0.0232;
996.0000;0.6040;-0.0185;
996.3000;0.6040;-0.0162;
996.6000;0.6032;-0.0116;
996.9000;0.6048;-0.0093;
997.2000;0.6007;-0.0209;
997.5000;0.6015;-0.0162;
997.8000;0.6007;-0.0139;
998.1000;0.5975;-0.0162;
998.4000;0.6015;-0.0046;
998.7000;0.6007;-0.0070;
999.0000;0.6015;-0.0139;
999.3000;0.6032;-0.0023;
999.6000;0.6007;-0.0070;
999.9000;0.6007;-0.0046;
1000.2000;0.5983;-0.0093;
1000.5000;0.6024;0.0093;
1000.8000;0.6007;0.0070;
1001.1000;0.6007;0.0139;
1001.4000;0.5991;-0.0046;
1001.7000;0.6024;0.0093;
1002.0000;0.6064;0.0209;
1002.3000;0.6032;0.0093;
1002.6000;0.6007;0.0093;
1002.9000;0.6007;0.0023;
1003.2000;0.6015;-0.0023;
1003.5000;0.5999;-0.0139;
1003.8000;0.6007;-0.0116;
1004.1000;0.6015;-0.0116;
1004.4000;0.6007;-0.0139;
1004.7000;0.6024;-0.0162;
1005.0000;0.6007;-0.0162;
1005.3000;0.6007;-0.0070;
1005.6000;0.6007;-0.0070;
1005.9000;0.6007;-0.0023;
1006.2000;0.6015;0.0046;
1006.5000;0.5999;0.0023;
1006.8000;0.6015;0.0023;
1007.1000;0.6024;0.0070;
1007.4000;0.5999;-0.0023;
1007.7000;0.5999;-0.0070;
1008.0000;0.6007;-0.0046;
1008.3000;0.6048;0.0023;
1008.6000;0.5950;-0.0162;
1008.9000;0.5999;-0.0093;
1009.2000;0.5991;-0.0139;
1009.5000;0.5950;-0.0232;
1009.8000;0.5999;-0.0070;
1010.1000;0.6007;0.0000;
1010.4000;0.6048;0.0116;
1010.7000;0.6015;0.0000;
1011.0000;0.6015;-0.0023;
1011.3000;0.5999;-0.0093;
1011.6000;0.6007;-0.0070;
1011.9000;0.5999;-0.0023;
1012.2000;0.6007;0.0023;
1012.5000;0.6007;-0.0023;
1012.8000;0.6015;-0.0046;
1013.1000;0.6032;0.0093;
1013.4000;0.6007;0.0093;
1013.7000;0.5999;0.0116;
1014.0000;0.6024;0.0139;
1014.3000;0.5999;0.0116;
1014.6000;0.5983;0.0070;
1014.9000;0.5991;0.0046;
1015.2000;0.5991;0.0023;
1015.5000;0.6007;0.0000;
1015.8000;0.5999;-0.0139;
1016.1000;0.5991;-0.0139;
1016.4000;0.6007;-0.0162;
1016.7000;0.5999;-0.0116;
1017.0000;0.6007;-0.0185;
1017.3000;0.6056;-0.0023;
1017.6000;0.5983;-0.0162;
1017.9000;0.6015;-0.0046;
1018.2000;0.5991;-0.0046;
1018.5000;0.5999;-0.0046;
1018.8000;0.5999;-0.0093;
1019.1000;0.5991;-0.0070;
1019.4000;0.5983;-0.0070;
1019.7000;0.5991;-0.0139;
1020.0000;0.5999;-0.0093;
1020.3000;0.6007;-0.0116;
1020.6000;0.5983;-0.0070;
1020.9000;0.5991;0.0000;
1021.2000;0.6007;0.0000;
1021.5000;0.6007;-0.0093;
1021.8000;0.5934;-0.0278;
1022.1000;0.6007;-0.0070;
1022.4000;0.5991;-0.0093;
1022.7000;0.5999;-0.0046;
1023.0000;0.5999;-0.0070;
1023.3000;0.5999;-0.0023;
1023.6000;0.6007;-0.0070;
1023.9000;0.5999;-0.0046;
1024.2000;0.5999;-0.0070;
1024.5000;0.5983;-0.0116;
1024.8000;0.5991;-0.0093;
1025.1000;0.5958;-0.0185;
1025.4000;0.6007;0.0000;
1025.7000;0.5991;0.0000;
1026.0000;0.5999;0.0000;
1026.3000;0.5999;-0.0070;
1026.6000;0.6024;-0.0070;
1026.9000;0.6048;0.0000;
1027.2000;0.5958;-0.0139;
1027.5000;0.5991;-0.0116;
1027.8000;0.5975;-0.0162;
1028.1000;0.5999;-0.0139;
1028.4000;0.6007;-0.0046;
1028.7000;0.5999;-0.0070;
1029.0000;0.5991;-0.0070;
1029.3000;0.5975;-0.0139;
1029.6000;0.5983;-0.0116;
1029.9000;0.5991;-0.0093;
1030.2000;0.5999;-0.0093;
1030.5000;0.6040;0.0000;
1030.8000;0.5999;-0.0139;
1031.1000;0.5983;-0.0162;
1031.4000;0.5983;-0.0116;
1031.7000;0.5991;-0.0023;
1032.0000;0.5967;0.0046;
1032.3000;0.5910;-0.0023;
1032.6000;0.5999;0.0255;
1032.9000;0.5950;0.0162;
1033.2000;0.5975;0.0209;
1033.5000;0.5991;0.0278;
1033.8000;0.5999;0.0232;
1034.1000;0.6024;0.0232;
1034.4000;0.5975;0.0046;
1034.7000;0.5983;0.0070;
1035.0000;0.5999;0.0116;
1035.3000;0.5991;0.0185;
1035.6000;0.5983;0.0070;
1035.9000;0.5967;0.0000;
1036.2000;0.5958;0.0000;
1036.5000;0.5991;-0.0023;
1036.8000;0.5991;-0.0023;
1037.1000;0.5975;-0.0070;
1037.4000;0.5999;0.0046;
1037.7000;0.6007;0.0046;
1038.0000;0.5991;0.0023;
1038.3000;0.5975;0.0000;
1038.6000;0.5991;0.0046;
1038.9000;0.5991;0.0070;
1039.2000;0.5983;0.0000;
1039.5000;0.5983;-0.0046;
1039.8000;0.5942;-0.0139;
1040.1000;0.5991;0.0093;
1040.4000;0.5950;0.0000;
1040.7000;0.5958;-0.0023;
1041.0000;0.5975;-0.0093;
1041.3000;0.5999;-0.0093;
1041.6000;0.5991;-0.0070;
1041.9000;0.6024;0.0000;
1042.2000;0.5983;0.0000;
1042.5000;0.5991;-0.0046;
1042.8000;0.5999;-0.0093;
1043.1000;0.5983;-0.0116;
1043.4000;0.5999;-0.0023;
1043.7000;0.5983;-0.0070;
1044.0000;0.6007;-0.0023;
1044.3000;0.5999;0.0000;
1044.6000;0.5991;0.0070;
1044.9000;0.5999;0.0139;
1045.2000;0.6024;0.0278;
1045.5000;0.5983;0.0093;
1045.8000;0.5983;0.0000;
1046.1000;0.5967;-0.0023;
1046.4000;0.5958;0.0023;
1046.7000;0.5975;0.0023;
1047.0000;0.6015;0.0023;
1047.3000;0.5991;0.0023;
1047.6000;0.5991;0.0000;
1047.9000;0.5999;0.0000;
1048.2000;0.5999;-0.0023;
1048.5000;0.5999;-0.0046;
1048.8000;0.5983;0.0000;
1049.1000;0.5942;-0.0116;
1049.4000;0.5983;0.0023;
1049.7000;0.5975;-0.0023;
1050.0000;0.5983;-0.0070;
1050.3000;0.5999;0.0023;
1050.6000;0.5983;0.0000;
1050.9000;0.5991;0.0023;
1051.2000;0.6007;0.0046;
1051.5000;0.5967;-0.0046;
1051.8000;0.5967;-0.0070;
1052.1000;0.5999;-0.0023;
1052.4000;0.5983;-0.0116;
1052.7000;0.5975;-0.0232;
1053.0000;0.5991;-0.0162;
1053.3000;0.5958;-0.0116;
1053.6000;0.5991;-0.0070;
1053.9000;0.5975;-0.0116;
1054.2000;0.5983;-0.0093;
1054.5000;0.6024;-0.0070;
1054.8000;0.5983;-0.0116;
1055.1000;0.5991;-0.0209;
1055.4000;0.5983;-0.0209;
1055.7000;0.5983;-0.0116;
1056.0000;0.5975;-0.0093;
1056.3000;0.5983;-0.0046;
1056.6000;0.5991;0.0046;
1056.9000;0.5983;0.0093;
1057.2000;0.5991;0.0070;
1057.5000;0.5983;0.0023;
1057.8000;0.5991;-0.0023;
1058.1000;0.6015;0.0000;
1058.4000;0.5991;-0.0046;
1058.7000;0.5991;-0.0116;
1059.0000;0.5991;-0.0139;
1059.3000;0.5975;-0.0139;
1059.6000;0.6015;-0.0070;
1059.9000;0.5983;-0.0185;
1060.2000;0.5983;-0.0185;
1060.5000;0.5975;-0.0139;
1060.8000;0.5975;-0.0070;
1061.1000;0.5967;-0.0093;
1061.4000;0.5975;-0.0093;
1061.7000;0.5967;-0.0116;
1062.0000;0.5983;-0.0023;
1062.3000;0.5983;-0.0046;
1062.6000;0.5975;-0.0116;
1062.9000;0.5950;-0.0232;
1063.2000;0.5975;-0.0139;
1063.5000;0.5975;-0.0093;
1063.8000;0.5991;-0.0046;
1064.1000;0.5902;-0.0255;
1064.4000;0.5991;-0.0070;
1064.7000;0.5983;-0.0070;
1065.0000;0.5975;-0.0023;
1065.3000;0.5975;0.0000;
1065.6000;0.5975;-0.0023;
1065.9000;0.6024;0.0070;
1066.2000;0.5983;0.0023;
1066.5000;0.5983;0.0116;
1066.8000;0.5975;0.0000;
1067.1000;0.5991;0.0000;
1067.4000;0.5999;-0.0023;
1067.7000;0.5967;-0.0046;
1068.0000;0.5999;0.0093;
1068.3000;0.5983;0.0093;
1068.6000;0.5983;0.0046;
1068.9000;0.6040;0.0116;
1069.2000;0.5975;-0.0023;
1069.5000;0.5991;-0.0070;
1069.8000;0.5991;-0.0116;
1070.1000;0.5999;-0.0046;
1070.4000;0.5983;-0.0046;
1070.7000;0.5983;-0.0070;
1071.0000;0.6015;0.0070;
1071.3000;0.5991;0.0070;
1071.6000;0.5967;0.0023;
1071.9000;0.5983;0.0139;
1072.2000;0.5910;0.0000;
1072.5000;0.5975;0.0070;
1072.8000;0.5975;0.0023;
1073.1000;0.5950;0.0000;
1073.4000;0.5958;0.0070;
1073.7000;0.5950;0.0000;
1074.0000;0.5950;0.0000;
1074.3000;0.6007;0.0162;
1074.6000;0.5958;0.0070;
1074.9000;0.5967;0.0116;
1075.2000;0.6024;0.0232;
1075.5000;0.5975;0.0116;
1075.8000;0.5975;0.0162;
1076.1000;0.5983;0.0209;
1076.4000;0.5991;0.0278;
1076.7000;0.5975;0.0185;
1077.0000;0.5967;0.0070;
1077.3000;0.5958;0.0000;
1077.6000;0.5983;0.0139;
1077.9000;0.5975;0.0139;
1078.2000;0.5967;0.0093;
1078.5000;0.5967;0.0046;
1078.8000;0.5983;0.0093;
1079.1000;0.5958;0.0070;
1079.4000;0.5967;0.0116;
1079.7000;0.5958;0.0046;
1080.0000;0.5967;-0.0023;
1080.3000;0.5983;-0.0023;
1080.6000;0.5975;0.0000;
1080.9000;0.5967;-0.0023;
1081.2000;0.5975;0.0000;
1081.5000;0.5991;0.0046;
1081.8000;0.5991;-0.0023;
1082.1000;0.5983;-0.0046;
1082.4000;0.5975;-0.0070;
1082.7000;0.5983;0.0000;
1083.0000;0.5999;0.0000;
1083.3000;0.5967;-0.0023;
1083.6000;0.5958;0.0093;
1083.9000;0.5958;0.0093;
1084.2000;0.5975;0.0185;
1084.5000;0.5910;0.0116;
1084.8000;0.5958;0.0185;
1085.1000;0.5975;0.0162;
1085.4000;0.6032;0.0278;
1085.7000;0.5983;0.0185;
1086.0000;0.5967;0.0116;
1086.3000;0.5967;0.0162;
1086.6000;0.5983;0.0232;
1086.9000;0.5967;0.0116;
1087.2000;0.5950;0.0139;
1087.5000;0.5967;0.0185;
1087.8000;0.5967;0.0209;
1088.1000;0.5967;0.0185;
1088.4000;0.5975;0.0232;
1088.7000;0.5967;0.0255;
1089.0000;0.5958;0.0278;
1089.3000;0.5958;0.0278;
1089.6000;0.5958;0.0325;
1089.9000;0.5958;0.0301;
1090.2000;0.5967;0.0232;
1090.5000;0.5975;0.0185;
1090.8000;0.5950;0.0093;
1091.1000;0.5958;0.0139;
1091.4000;0.6032;0.0301;
1091.7000;0.5950;0.0116;
1092.0000;0.5942;0.0070;
1092.3000;0.5926;-0.0046;
1092.6000;0.5950;0.0116;
1092.9000;0.5934;0.0023;
1093.2000;0.5950;0.0093;
1093.5000;0.5958;0.0139;
1093.8000;0.5958;0.0139;
1094.1000;0.5983;0.0232;
1094.4000;0.5975;0.0255;
1094.7000;0.5958;0.0139;
1095.0000;0.5934;0.0046;
1095.3000;0.5958;0.0070;
1095.6000;0.5991;0.0139;
1095.9000;0.5975;0.0116;
1096.2000;0.5958;0.0162;
1096.5000;0.5975;0.0232;
1096.8000;0.5975;0.0325;
1097.1000;0.5967;0.0348;
1097.4000;0.5918;0.0185;
1097.7000;0.5950;0.0162;
1098.0000;0.5958;0.0093;
1098.3000;0.5950;0.0000;
1098.6000;0.5983;-0.0070;
1098.9000;0.5967;0.0023;
1099.2000;0.5967;0.0046;
1099.5000;0.5910;-0.0116;
1099.8000;0.5967;0.0116;
1100.1000;0.5958;0.0162;
1100.4000;0.5934;0.0093;
1100.7000;0.5967;0.0209;
1101.0000;0.5958;0.0209;
1101.3000;0.5967;0.0185;
1101.6000;0.5958;0.0093;
1101.9000;0.5950;0.0139;
1102.2000;0.5975;0.0116;
1102.5000;0.5926;0.0046;
1102.8000;0.5967;0.0093;
1103.1000;0.5950;0.0023;
1103.4000;0.5967;0.0000;
1103.7000;0.5950;-0.0023;
1104.0000;0.5958;-0.0023;
1104.3000;0.5958;0.0000;
1104.6000;0.5975;-0.0023;
1104.9000;0.5975;0.0046;
1105.2000;0.5942;-0.0046;
1105.5000;0.5942;0.0000;
1105.8000;0.5958;0.0139;
1106.1000;0.5975;0.0139;
1106.4000;0.5967;0.0185;
1106.7000;0.5975;0.0301;
1107.0000;0.5958;0.0348;
1107.3000;0.5950;0.0162;
1107.6000;0.5950;0.0070;
1107.9000;0.5958;0.0093;
1108.2000;0.5975;0.0185;
1108.5000;0.5967;0.0139;
1108.8000;0.5950;0.0185;
1109.1000;0.5942;0.0116;
1109.4000;0.5983;0.0185;
1109.7000;0.5983;0.0185;
1110.0000;0.5975;0.0093;
1110.3000;0.5902;-0.0116;
1110.6000;0.5950;0.0023;
1110.9000;0.5942;0.0116;
1111.2000;0.5950;0.0116;
1111.5000;0.5958;0.0116;
1111.8000;0.5950;0.0046;
1112.1000;0.5967;0.0000;
1112.4000;0.5967;0.0000;
1112.7000;0.5967;-0.0046;
1113.0000;0.5958;0.0000;
1113.3000;0.5958;0.0046;
1113.6000;0.5950;0.0093;
1113.9000;0.5958;0.0116;
1114.2000;0.5950;0.0093;
1114.5000;0.5958;0.0185;
1114.8000;0.5950;0.0209;
1115.1000;0.5950;0.0162;
1115.4000;0.5918;0.0139;
1115.7000;0.5934;0.0139;
1116.0000;0.5926;0.0116;
1116.3000;0.5934;0.0139;
1116.6000;0.5942;0.0116;
1116.9000;0.5942;0.0116;
1117.2000;0.5958;0.0116;
1117.5000;0.5934;0.0139;
1117.8000;0.5950;0.0209;
1118.1000;0.5958;0.0301;
1118.4000;0.5942;0.0301;
1118.7000;0.5950;0.0232;
1119.0000;0.5958;0.0325;
1119.3000;0.5967;0.0348;
1119.6000;0.5958;0.0371;
1119.9000;0.5975;0.0301;
1120.2000;0.5950;0.0232;
1120.5000;0.5958;0.0232;
1120.8000;0.5967;0.0232;
1121.1000;0.5958;0.0162;
1121.4000;0.5950;0.0185;
1121.7000;0.5967;0.0093;
1122.0000;0.5934;0.0000;
1122.3000;0.5958;0.0093;
1122.6000;0.5975;0.0162;
1122.9000;0.5958;0.0209;
1123.2000;0.5958;0.0209;
1123.5000;0.5950;0.0278;
1123.8000;0.5950;0.0232;
1124.1000;0.5950;0.0139;
1124.4000;0.5967;0.0209;
1124.7000;0.5958;0.0162;
1125.0000;0.5942;0.0139;
1125.3000;0.5934;0.0209;
1125.6000;0.5942;0.0255;
1125.9000;0.5942;0.0278;
1126.2000;0.5950;0.0278;
1126.5000;0.5967;0.0278;
1126.8000;0.5958;0.0255;
1127.1000;0.5950;0.0255;
1127.4000;0.5975;0.0209;
1127.7000;0.5958;0.0093;
1128.0000;0.5967;0.0162;
1128.3000;0.5950;0.0139;
1128.6000;0.5958;0.0070;
1128.9000;0.5950;0.0139;
1129.2000;0.5958;0.0185;
1129.5000;0.5958;0.0185;
1129.8000;0.5958;0.0255;
1130.1000;0.5950;0.0348;
1130.4000;0.5950;0.0278;
1130.7000;0.5942;0.0232;
1131.0000;0.5958;0.0209;
1131.3000;0.5950;0.0278;
1131.6000;0.5902;0.0162;
1131.9000;0.5967;0.0278;
1132.2000;0.6024;0.0371;
1132.5000;0.5942;0.0139;
1132.8000;0.5958;0.0185;
1133.1000;0.5926;0.0162;
1133.4000;0.5950;0.0232;
1133.7000;0.5942;0.0209;
1134.0000;0.5958;0.0325;
1134.3000;0.5950;0.0394;
1134.6000;0.5918;0.0348;
1134.9000;0.5918;0.0325;
1135.2000;0.5934;0.0417;
1135.5000;0.5950;0.0441;
1135.8000;0.5950;0.0348;
1136.1000;0.5958;0.0325;
1136.4000;0.5958;0.0278;
1136.7000;0.5958;0.0209;
1137.0000;0.5967;0.0278;
1137.3000;0.5950;0.0278;
1137.6000;0.5958;0.0301;
1137.9000;0.5967;0.0348;
1138.2000;0.5975;0.0371;
1138.5000;0.5958;0.0278;
1138.8000;0.5950;0.0209;
1139.1000;0.5942;0.0209;
1139.4000;0.5950;0.0139;
1139.7000;0.5967;0.0070;
1140.0000;0.5942;0.0116;
1140.3000;0.5991;0.0325;
1140.6000;0.5934;0.0185;
1140.9000;0.5934;0.0116;
1141.2000;0.5902;0.0000;
1141.5000;0.5942;-0.0023;
1141.8000;0.5950;0.0000;
1142.1000;0.5942;-0.0070;
1142.4000;0.5942;0.0000;
1142.7000;0.5934;0.0046;
1143.0000;0.5902;-0.0023;
1143.3000;0.5950;0.0162;
1143.6000;0.5934;0.0232;
1143.9000;0.5942;0.0255;
1144.2000;0.5950;0.0348;
1144.5000;0.5893;0.0301;
1144.8000;0.5934;0.0394;
1145.1000;0.5950;0.0441;
1145.4000;0.5958;0.0464;
1145.7000;0.5950;0.0464;
1146.0000;0.5950;0.0441;
1146.3000;0.5958;0.0371;
1146.6000;0.5934;0.0325;
1146.9000;0.5958;0.0417;
1147.2000;0.5934;0.0348;
1147.5000;0.5942;0.0255;
1147.8000;0.5942;0.0209;
1148.1000;0.5934;0.0209;
1148.4000;0.5999;0.0325;
1148.7000;0.5950;0.0185;
1149.0000;0.5958;0.0209;
1149.3000;0.5967;0.0209;
1149.6000;0.5950;0.0232;
1149.9000;0.5926;0.0185;
1150.2000;0.5942;0.0255;
1150.5000;0.5950;0.0325;
1150.8000;0.5950;0.0301;
1151.1000;0.5950;0.0394;
1151.4000;0.5958;0.0278;
1151.7000;0.5934;0.0209;
1152.0000;0.5934;0.0093;
1152.3000;0.5934;0.0093;
1152.6000;0.5983;0.0162;
1152.9000;0.5934;0.0093;
1153.2000;0.5893;-0.0023;
1153.5000;0.5950;0.0093;
1153.8000;0.5967;0.0162;
1154.1000;0.5942;0.0093;
1154.4000;0.5934;0.0070;
1154.7000;0.5950;0.0139;
1155.0000;0.5934;0.0070;
1155.3000;0.5934;0.0023;
1155.6000;0.5934;0.0000;
1155.9000;0.5950;0.0116;
1156.2000;0.5926;0.0023;
1156.5000;0.5999;0.0255;
1156.8000;0.5918;0.0046;
1157.1000;0.5877;-0.0046;
1157.4000;0.5926;0.0093;
1157.7000;0.5926;0.0139;
1158.0000;0.5926;0.0070;
1158.3000;0.5918;0.0070;
1158.6000;0.5910;0.0116;
1158.9000;0.5942;0.0139;
1159.2000;0.5958;0.0185;
1159.5000;0.5934;0.0162;
1159.8000;0.5934;0.0139;
1160.1000;0.5975;0.0278;
1160.4000;0.5950;0.0209;
1160.7000;0.5950;0.0325;
1161.0000;0.5934;0.0325;
1161.3000;0.5934;0.0232;
1161.6000;0.5934;0.0232;
1161.9000;0.5934;0.0232;
1162.2000;0.5926;0.0162;
1162.5000;0.5918;0.0162;
1162.8000;0.5934;0.0185;
1163.1000;0.5926;0.0185;
1163.4000;0.5934;0.0255;
1163.7000;0.5975;0.0348;
1164.0000;0.5885;0.0162;
1164.3000;0.5950;0.0325;
1164.6000;0.5918;0.0278;
1164.9000;0.5934;0.0441;
1165.2000;0.5910;0.0441;
1165.5000;0.5934;0.0464;
1165.8000;0.5934;0.0417;
1166.1000;0.5877;0.0325;
1166.4000;0.5885;0.0417;
1166.7000;0.5942;0.0417;
1167.0000;0.5967;0.0417;
1167.3000;0.5950;0.0348;
1167.6000;0.5950;0.0278;
1167.9000;0.5934;0.0278;
1168.2000;0.5918;0.0278;
1168.5000;0.5950;0.0487;
1168.8000;0.5942;0.0487;
1169.1000;0.5926;0.0441;
1169.4000;0.5934;0.0487;
1169.7000;0.5934;0.0371;
1170.0000;0.5942;0.0325;
1170.3000;0.5934;0.0301;
1170.6000;0.5934;0.0394;
1170.9000;0.5934;0.0487;
1171.2000;0.5950;0.0464;
1171.5000;0.5942;0.0417;
1171.8000;0.5926;0.0394;
1172.1000;0.5942;0.0371;
1172.4000;0.5942;0.0325;
1172.7000;0.5950;0.0348;
1173.0000;0.5942;0.0255;
1173.3000;0.5893;0.0139;
1173.6000;0.5893;0.0209;
1173.9000;0.5950;0.0348;
1174.2000;0.5950;0.0441;
1174.5000;0.5885;0.0348;
1174.8000;0.5934;0.0464;
1175.1000;0.5942;0.0441;
1175.4000;0.5950;0.0417;
1175.7000;0.5942;0.0394;
1176.0000;0.5942;0.0371;
1176.3000;0.5950;0.0348;
1176.6000;0.5950;0.0301;
1176.9000;0.5918;0.0185;
1177.2000;0.5942;0.0209;
1177.5000;0.5942;0.0278;
1177.8000;0.5942;0.0301;
1178.1000;0.5942;0.0348;
1178.4000;0.5958;0.0325;
1178.7000;0.5934;0.0255;
1179.0000;0.5967;0.0371;
1179.3000;0.5934;0.0278;
1179.6000;0.5926;0.0232;
1179.9000;0.5910;0.0232;
1180.2000;0.5942;0.0417;
1180.5000;0.5885;0.0255;
1180.8000;0.5942;0.0301;
1181.1000;0.5926;0.0139;
1181.4000;0.5934;0.0116;
1181.7000;0.5950;0.0070;
1182.0000;0.5942;0.0023;
1182.3000;0.5869;-0.0070;
1182.6000;0.6015;0.0441;
1182.9000;0.5950;0.0232;
1183.2000;0.5934;0.0232;
1183.5000;0.5926;0.0255;
1183.8000;0.5918;0.0301;
1184.1000;0.5967;0.0371;
1184.4000;0.5934;0.0301;
1184.7000;0.5926;0.0232;
1185.0000;0.5967;0.0301;
1185.3000;0.5934;0.0209;
1185.6000;0.5934;0.0185;
1185.9000;0.5902;0.0116;
1186.2000;0.5918;0.0185;
1186.5000;0.5934;0.0278;
1186.8000;0.5950;0.0278;
1187.1000;0.5934;0.0255;
1187.4000;0.5942;0.0301;
1187.7000;0.5934;0.0325;
1188.0000;0.6007;0.0580;
1188.3000;0.5950;0.0394;
1188.6000;0.5942;0.0371;
1188.9000;0.5934;0.0348;
1189.2000;0.5918;0.0255;
1189.5000;0.5926;0.0232;
1189.8000;0.5934;0.0232;
1190.1000;0.5958;0.0209;
1190.4000;0.5950;0.0185;
1190.7000;0.5926;0.0116;
1191.0000;0.5926;0.0209;
1191.3000;0.5934;0.0209;
1191.6000;0.5926;0.0209;
1191.9000;0.5934;0.0209;
1192.2000;0.5934;0.0185;
1192.5000;0.5934;0.0209;
1192.8000;0.5934;0.0162;
1193.1000;0.5950;0.0185;
1193.4000;0.5942;0.0116;
1193.7000;0.5942;0.0185;
1194.0000;0.5926;0.0162;
1194.3000;0.5950;0.0278;
1194.6000;0.5950;0.0232;
1194.9000;0.5918;0.0185;
1195.2000;0.5942;0.0209;
1195.5000;0.5934;0.0162;
1195.8000;0.5934;0.0162;
1196.1000;0.5934;0.0185;
1196.4000;0.5942;0.0185;
1196.7000;0.5926;0.0185;
1197.0000;0.5942;0.0232;
1197.3000;0.5950;0.0232;
1197.6000;0.5926;0.0139;
1197.9000;0.5934;0.0185;
1198.2000;0.5926;0.0139;
1198.5000;0.5950;0.0232;
1198.8000;0.5902;0.0070;
1199.1000;0.5934;0.0232;
1199.4000;0.5942;0.0232;
1199.7000;0.5942;0.0301;
1200.0000;0.5934;0.0348;
1200.3000;0.5918;0.0371;
1200.6000;0.5950;0.0464;
1200.9000;0.5910;0.0417;
1201.2000;0.5942;0.0417;
1201.5000;0.5950;0.0394;
1201.8000;0.5926;0.0301;
1202.1000;0.5926;0.0278;
1202.4000;0.5934;0.0325;
1202.7000;0.5918;0.0278;
1203.0000;0.5934;0.0209;
1203.3000;0.5934;0.0232;
1203.6000;0.5910;0.0209;
1203.9000;0.5926;0.0255;
1204.2000;0.5902;0.0139;
1204.5000;0.5902;0.0162;
1204.8000;0.5934;0.0162;
1205.1000;0.5885;0.0070;
1205.4000;0.5869;0.0116;
1205.7000;0.5934;0.0278;
1206.0000;0.5918;0.0325;
1206.3000;0.5926;0.0325;
1206.6000;0.5975;0.0441;
1206.9000;0.5893;0.0371;
1207.2000;0.5934;0.0510;
1207.5000;0.5958;0.0580;
1207.8000;0.5926;0.0556;
1208.1000;0.5934;0.0556;
1208.4000;0.5942;0.0533;
1208.7000;0.5950;0.0487;
1209.0000;0.5991;0.0603;
1209.3000;0.5934;0.0348;
1209.6000;0.5934;0.0278;
1209.9000;0.5934;0.0325;
1210.2000;0.5926;0.0325;
1210.5000;0.5934;0.0278;
1210.8000;0.5918;0.0301;
1211.1000;0.5934;0.0394;
1211.4000;0.5926;0.0394;
1211.7000;0.5950;0.0487;
1212.0000;0.5934;0.0487;
1212.3000;0.5918;0.0464;
1212.6000;0.5942;0.0464;
1212.9000;0.5926;0.0417;
1213.2000;0.5918;0.0394;
1213.5000;0.5926;0.0348;
1213.8000;0.5918;0.0394;
1214.1000;0.5918;0.0417;
1214.4000;0.5910;0.0417;
1214.7000;0.5934;0.0394;
1215.0000;0.5926;0.0301;
1215.3000;0.5942;0.0301;
1215.6000;0.5934;0.0232;
1215.9000;0.5926;0.0185;
1216.2000;0.5942;0.0232;
1216.5000;0.5942;0.0232;
1216.8000;0.5934;0.0255;
1217.1000;0.5942;0.0301;
1217.4000;0.5885;0.0209;
1217.7000;0.5934;0.0301;
1218.0000;0.5934;0.0301;
1218.3000;0.5950;0.0487;
1218.6000;0.5918;0.0487;
1218.9000;0.5934;0.0533;
1219.2000;0.5926;0.0464;
1219.5000;0.5950;0.0487;
1219.8000;0.5975;0.0487;
1220.1000;0.5950;0.0371;
1220.4000;0.5877;0.0185;
1220.7000;0.5902;0.0301;
1221.0000;0.5885;0.0255;
1221.3000;0.5926;0.0464;
1221.6000;0.5918;0.0510;
1221.9000;0.5902;0.0533;
1222.2000;0.5910;0.0510;
1222.5000;0.5942;0.0580;
1222.8000;0.5934;0.0510;
1223.1000;0.5910;0.0417;
1223.4000;0.5926;0.0464;
1223.7000;0.5918;0.0510;
1224.0000;0.5926;0.0510;
1224.3000;0.5934;0.0487;
1224.6000;0.5918;0.0441;
1224.9000;0.5926;0.0510;
1225.2000;0.5942;0.0487;
1225.5000;0.5910;0.0464;
1225.8000;0.5918;0.0533;
1226.1000;0.5926;0.0464;
1226.4000;0.5910;0.0371;
1226.7000;0.5918;0.0371;
1227.0000;0.5934;0.0417;
1227.3000;0.5885;0.0394;
1227.6000;0.5934;0.0556;
1227.9000;0.5910;0.0487;
1228.2000;0.5910;0.0464;
1228.5000;0.5926;0.0556;
1228.8000;0.5918;0.0533;
1229.1000;0.5934;0.0510;
1229.4000;0.5918;0.0533;
1229.7000;0.5902;0.0464;
1230.0000;0.5934;0.0556;
1230.3000;0.5934;0.0603;
1230.6000;0.5926;0.0580;
1230.9000;0.5934;0.0603;
1231.2000;0.5918;0.0603;
1231.5000;0.5902;0.0533;
1231.8000;0.5926;0.0464;
1232.1000;0.5926;0.0348;
1232.4000;0.5902;0.0325;
1232.7000;0.5885;0.0348;
1233.0000;0.5950;0.0510;
1233.3000;0.5926;0.0464;
1233.6000;0.5902;0.0464;
1233.9000;0.5926;0.0487;
1234.2000;0.5910;0.0441;
1234.5000;0.5918;0.0464;
1234.8000;0.5934;0.0510;
1235.1000;0.5934;0.0603;
1235.4000;0.5942;0.0696;
1235.7000;0.5934;0.0580;
1236.0000;0.5934;0.0672;
1236.3000;0.5942;0.0696;
1236.6000;0.5926;0.0626;
1236.9000;0.5950;0.0626;
1237.2000;0.5942;0.0603;
1237.5000;0.5918;0.0533;
1237.8000;0.5934;0.0603;
1238.1000;0.5893;0.0556;
1238.4000;0.5918;0.0580;
1238.7000;0.5926;0.0672;
1239.0000;0.5942;0.0788;
1239.3000;0.5877;0.0649;
1239.6000;0.5926;0.0788;
1239.9000;0.5918;0.0835;
1240.2000;0.5902;0.0742;
1240.5000;0.5918;0.0672;
1240.8000;0.5910;0.0556;
1241.1000;0.5918;0.0649;
1241.4000;0.5910;0.0487;
1241.7000;0.5918;0.0510;
1242.0000;0.5934;0.0580;
1242.3000;0.5934;0.0510;
1242.6000;0.5926;0.0464;
1242.9000;0.5926;0.0556;
1243.2000;0.5926;0.0533;
1243.5000;0.5926;0.0556;
1243.8000;0.5934;0.0580;
1244.1000;0.5902;0.0556;
1244.4000;0.5910;0.0464;
1244.7000;0.5918;0.0487;
1245.0000;0.5910;0.0510;
1245.3000;0.5910;0.0533;
1245.6000;0.5918;0.0649;
1245.9000;0.5950;0.0603;
1246.2000;0.5885;0.0487;
1246.5000;0.5910;0.0556;
1246.8000;0.5910;0.0556;
1247.1000;0.5999;0.0719;
1247.4000;0.5902;0.0510;
1247.7000;0.5918;0.0533;
1248.0000;0.5902;0.0510;
1248.3000;0.5934;0.0533;
1248.6000;0.5926;0.0441;
1248.9000;0.5926;0.0464;
1249.2000;0.5910;0.0417;
1249.5000;0.5942;0.0441;
1249.8000;0.5934;0.0394;
1250.1000;0.5910;0.0301;
1250.4000;0.5926;0.0301;
1250.7000;0.5902;0.0232;
1251.0000;0.5942;0.0371;
1251.3000;0.5910;0.0325;
1251.6000;0.5918;0.0301;
1251.9000;0.5893;0.0348;
1252.2000;0.5902;0.0394;
1252.5000;0.6007;0.0626;
1252.8000;0.5942;0.0487;
1253.1000;0.5910;0.0464;
1253.4000;0.5918;0.0510;
1253.7000;0.5934;0.0487;
1254.0000;0.5926;0.0417;
1254.3000;0.5918;0.0371;
1254.6000;0.5910;0.0255;
1254.9000;0.5893;0.0255;
1255.2000;0.5942;0.0394;
1255.5000;0.5877;0.0255;
1255.8000;0.5926;0.0371;
1256.1000;0.5828;0.0116;
1256.4000;0.5910;0.0185;
1256.7000;0.5902;0.0162;
1257.0000;0.5926;0.0209;
1257.3000;0.5918;0.0116;
1257.6000;0.5918;0.0209;
1257.9000;0.5926;0.0255;
1258.2000;0.5869;0.0255;
1258.5000;0.5910;0.0417;
1258.8000;0.5910;0.0417;
1259.1000;0.5877;0.0325;
1259.4000;0.5902;0.0371;
1259.7000;0.5877;0.0348;
1260.0000;0.5910;0.0441;
1260.3000;0.5942;0.0441;
1260.6000;0.5910;0.0417;
1260.9000;0.5918;0.0394;
1261.2000;0.5934;0.0417;
1261.5000;0.5893;0.0325;
1261.8000;0.5902;0.0301;
1262.1000;0.5910;0.0301;
1262.4000;0.5902;0.0209;
1262.7000;0.5942;0.0348;
1263.0000;0.5942;0.0464;
1263.3000;0.5926;0.0487;
1263.6000;0.5902;0.0464;
1263.9000;0.5910;0.0487;
1264.2000;0.5885;0.0441;
1264.5000;0.5902;0.0487;
1264.8000;0.5910;0.0464;
1265.1000;0.5918;0.0417;
1265.4000;0.5950;0.0510;
1265.7000;0.5910;0.0394;
1266.0000;0.5918;0.0441;
1266.3000;0.5934;0.0487;
1266.6000;0.5926;0.0533;
1266.9000;0.5910;0.0580;
1267.2000;0.5910;0.0510;
1267.5000;0.5910;0.0556;
1267.8000;0.5926;0.0603;
1268.1000;0.5926;0.0580;
1268.4000;0.5877;0.0487;
1268.7000;0.5893;0.0533;
1269.0000;0.5918;0.0556;
1269.3000;0.5926;0.0510;
1269.6000;0.5902;0.0533;
1269.9000;0.5910;0.0533;
1270.2000;0.5877;0.0510;
1270.5000;0.5926;0.0580;
1270.8000;0.5934;0.0510;
1271.1000;0.5926;0.0510;
1271.4000;0.5942;0.0487;
1271.7000;0.5934;0.0580;
1272.0000;0.5926;0.0580;
1272.3000;0.5926;0.0649;
1272.6000;0.5942;0.0719;
1272.9000;0.5926;0.0742;
1273.2000;0.5918;0.0719;
1273.5000;0.5918;0.0672;
1273.8000;0.5902;0.0580;
1274.1000;0.5934;0.0510;
1274.4000;0.5902;0.0510;
1274.7000;0.5910;0.0487;
1275.0000;0.5893;0.0580;
1275.3000;0.5934;0.0696;
1275.6000;0.5910;0.0626;
1275.9000;0.5910;0.0649;
1276.2000;0.5910;0.0649;
1276.5000;0.5958;0.0858;
1276.8000;0.5934;0.0696;
1277.1000;0.5902;0.0603;
1277.4000;0.5926;0.0580;
1277.7000;0.5918;0.0556;
1278.0000;0.5918;0.0603;
1278.3000;0.5958;0.0719;
1278.6000;0.5893;0.0649;
1278.9000;0.5918;0.0649;
1279.2000;0.5926;0.0626;
1279.5000;0.5934;0.0603;
1279.8000;0.5934;0.0696;
1280.1000;0.5845;0.0533;
1280.4000;0.5918;0.0788;
1280.7000;0.5942;0.0811;
1281.0000;0.5967;0.0858;
1281.3000;0.5918;0.0742;
1281.6000;0.5934;0.0765;
1281.9000;0.5910;0.0672;
1282.2000;0.5918;0.0603;
1282.5000;0.5926;0.0556;
1282.8000;0.5910;0.0672;
1283.1000;0.5918;0.0649;
1283.4000;0.5942;0.0696;
1283.7000;0.5893;0.0580;
1284.0000;0.5942;0.0672;
1284.3000;0.5902;0.0533;
1284.6000;0.5910;0.0533;
1284.9000;0.5902;0.0464;
1285.2000;0.5910;0.0441;
1285.5000;0.5918;0.0394;
1285.8000;0.5918;0.0394;
1286.1000;0.5918;0.0394;
1286.4000;0.5893;0.0441;
1286.7000;0.5902;0.0533;
1287.0000;0.5926;0.0603;
1287.3000;0.5910;0.0603;
1287.6000;0.5918;0.0696;
1287.9000;0.5902;0.0696;
1288.2000;0.5910;0.0742;
1288.5000;0.5902;0.0719;
1288.8000;0.5902;0.0649;
1289.1000;0.5902;0.0672;
1289.4000;0.5910;0.0603;
1289.7000;0.5910;0.0556;
1290.0000;0.5885;0.0510;
1290.3000;0.5902;0.0556;
1290.6000;0.5918;0.0510;
1290.9000;0.5926;0.0441;
1291.2000;0.5893;0.0417;
1291.5000;0.5942;0.0417;
1291.8000;0.5902;0.0325;
1292.1000;0.5918;0.0417;
1292.4000;0.5926;0.0441;
1292.7000;0.5910;0.0394;
1293.0000;0.5902;0.0394;
1293.3000;0.5893;0.0417;
1293.6000;0.5893;0.0487;
1293.9000;0.5902;0.0441;
1294.2000;0.5885;0.0417;
1294.5000;0.5910;0.0533;
1294.8000;0.5902;0.0533;
1295.1000;0.5902;0.0533;
1295.4000;0.5918;0.0556;
1295.7000;0.5918;0.0603;
1296.0000;0.5942;0.0649;
1296.3000;0.5950;0.0788;
1296.6000;0.5910;0.0649;
1296.9000;0.5918;0.0580;
1297.2000;0.5934;0.0580;
1297.5000;0.5926;0.0603;
1297.8000;0.5910;0.0464;
1298.1000;0.5942;0.0533;
1298.4000;0.5926;0.0417;
1298.7000;0.5926;0.0417;
1299.0000;0.5902;0.0441;
1299.3000;0.5885;0.0487;
1299.6000;0.5934;0.0626;
1299.9000;0.5934;0.0626;
1300.2000;0.5910;0.0533;
1300.5000;0.5885;0.0464;
1300.8000;0.5918;0.0533;
1301.1000;0.5942;0.0487;
1301.4000;0.5926;0.0441;
1301.7000;0.5934;0.0371;
1302.0000;0.5910;0.0325;
1302.3000;0.5910;0.0301;
1302.6000;0.5918;0.0441;
1302.9000;0.5918;0.0417;
1303.2000;0.5918;0.0371;
1303.5000;0.5885;0.0417;
1303.8000;0.5893;0.0533;
1304.1000;0.5885;0.0533;
1304.4000;0.5902;0.0580;
1304.7000;0.5893;0.0533;
1305.0000;0.5918;0.0533;
1305.3000;0.5910;0.0556;
1305.6000;0.5893;0.0441;
1305.9000;0.5902;0.0487;
1306.2000;0.5885;0.0394;
1306.5000;0.5893;0.0417;
1306.8000;0.5885;0.0441;
1307.1000;0.5893;0.0487;
1307.4000;0.5926;0.0441;
1307.7000;0.5950;0.0510;
1308.0000;0.5893;0.0441;
1308.3000;0.5885;0.0417;
1308.6000;0.5885;0.0301;
1308.9000;0.5910;0.0371;
1309.2000;0.5902;0.0417;
1309.5000;0.5893;0.0301;
1309.8000;0.5910;0.0417;
1310.1000;0.5893;0.0371;
1310.4000;0.5926;0.0417;
1310.7000;0.5910;0.0441;
1311.0000;0.5918;0.0417;
1311.3000;0.5902;0.0441;
1311.6000;0.5918;0.0580;
1311.9000;0.5910;0.0556;
1312.2000;0.5902;0.0580;
1312.5000;0.5934;0.0603;
1312.8000;0.5950;0.0603;
1313.1000;0.5902;0.0487;
1313.4000;0.5942;0.0556;
1313.7000;0.5950;0.0510;
1314.0000;0.5893;0.0394;
1314.3000;0.5918;0.0417;
1314.6000;0.5902;0.0441;
1314.9000;0.5910;0.0533;
1315.2000;0.5918;0.0510;
1315.5000;0.5885;0.0441;
1315.8000;0.5934;0.0464;
1316.1000;0.5902;0.0417;
1316.4000;0.5918;0.0510;
1316.7000;0.5910;0.0556;
1317.0000;0.5934;0.0626;
1317.3000;0.5918;0.0510;
1317.6000;0.5910;0.0533;
1317.9000;0.5910;0.0533;
1318.2000;0.5910;0.0464;
1318.5000;0.5902;0.0394;
1318.8000;0.5910;0.0464;
1319.1000;0.5918;0.0441;
1319.4000;0.5926;0.0417;
1319.7000;0.5910;0.0417;
1320.0000;0.5885;0.0417;
1320.3000;0.5910;0.0487;
1320.6000;0.5902;0.0464;
1320.9000;0.5902;0.0533;
1321.2000;0.5902;0.0441;
1321.5000;0.5902;0.0487;
1321.8000;0.5902;0.0464;
1322.1000;0.5893;0.0301;
1322.4000;0.5910;0.0394;
1322.7000;0.5902;0.0394;
1323.0000;0.5893;0.0417;
1323.3000;0.5828;0.0209;
1323.6000;0.5902;0.0417;
1323.9000;0.5893;0.0371;
1324.2000;0.5910;0.0371;
1324.5000;0.5926;0.0441;
1324.8000;0.5893;0.0394;
1325.1000;0.5885;0.0417;
1325.4000;0.5885;0.0487;
1325.7000;0.5918;0.0510;
1326.0000;0.5902;0.0556;
1326.3000;0.5918;0.0556;
1326.6000;0.5934;0.0487;
1326.9000;0.5926;0.0487;
1327.2000;0.5902;0.0464;
1327.5000;0.5885;0.0348;
1327.8000;0.5893;0.0371;
1328.1000;0.5910;0.0394;
1328.4000;0.5958;0.0510;
1328.7000;0.5893;0.0417;
1329.0000;0.5902;0.0441;
1329.3000;0.5918;0.0464;
1329.6000;0.5902;0.0371;
1329.9000;0.5926;0.0417;
1330.2000;0.5918;0.0394;
1330.5000;0.5902;0.0464;
1330.8000;0.5918;0.0556;
1331.1000;0.5926;0.0510;
1331.4000;0.5885;0.0487;
1331.7000;0.5910;0.0487;
1332.0000;0.5910;0.0464;
1332.3000;0.5902;0.0464;
1332.6000;0.5836;0.0325;
1332.9000;0.5910;0.0417;
1333.2000;0.5902;0.0417;
1333.5000;0.5885;0.0417;
1333.8000;0.5926;0.0464;
1334.1000;0.5893;0.0348;
1334.4000;0.5910;0.0232;
1334.7000;0.5975;0.0301;
1335.0000;0.5910;0.0209;
1335.3000;0.5902;0.0232;
1335.6000;0.5893;0.0232;
1335.9000;0.5877;0.0255;
1336.2000;0.5910;0.0325;
1336.5000;0.5902;0.0325;
1336.8000;0.5893;0.0325;
1337.1000;0.5910;0.0371;
1337.4000;0.5910;0.0417;
1337.7000;0.5893;0.0325;
1338.0000;0.5869;0.0371;
1338.3000;0.5893;0.0394;
1338.6000;0.5902;0.0464;
1338.9000;0.5918;0.0533;
1339.2000;0.5902;0.0325;
1339.5000;0.5893;0.0325;
1339.8000;0.5910;0.0417;
1340.1000;0.5893;0.0464;
1340.4000;0.5885;0.0487;
1340.7000;0.5877;0.0394;
1341.0000;0.5902;0.0394;
1341.3000;0.5926;0.0441;
1341.6000;0.5910;0.0301;
1341.9000;0.5893;0.0371;
1342.2000;0.5910;0.0394;
1342.5000;0.5893;0.0394;
1342.8000;0.5893;0.0232;
1343.1000;0.5910;0.0325;
1343.4000;0.5893;0.0325;
1343.7000;0.5910;0.0441;
1344.0000;0.5902;0.0464;
1344.3000;0.5853;0.0371;
1344.6000;0.5950;0.0510;
1344.9000;0.5926;0.0464;
1345.2000;0.5910;0.0464;
1345.5000;0.5902;0.0394;
1345.8000;0.5902;0.0394;
1346.1000;0.5926;0.0441;
1346.4000;0.5926;0.0394;
1346.7000;0.5910;0.0417;
1347.0000;0.5950;0.0510;
1347.3000;0.5869;0.0325;
1347.6000;0.5950;0.0464;
1347.9000;0.5902;0.0325;
1348.2000;0.5902;0.0278;
1348.5000;0.5942;0.0417;
1348.8000;0.5893;0.0301;
1349.1000;0.5910;0.0185;
1349.4000;0.5869;0.0116;
1349.7000;0.5893;0.0255;
1350.0000;0.5902;0.0255;
1350.3000;0.5893;0.0278;
1350.6000;0.5893;0.0255;
1350.9000;0.5893;0.0325;
1351.2000;0.5926;0.0348;
1351.5000;0.5918;0.0417;
1351.8000;0.5910;0.0417;
1352.1000;0.5885;0.0510;
1352.4000;0.5893;0.0441;
1352.7000;0.5902;0.0441;
1353.0000;0.5902;0.0464;
1353.3000;0.5885;0.0441;
1353.6000;0.5910;0.0487;
1353.9000;0.5910;0.0464;
1354.2000;0.5893;0.0441;
1354.5000;0.5902;0.0464;
1354.8000;0.5893;0.0441;
1355.1000;0.5910;0.0394;
1355.4000;0.5983;0.0580;
1355.7000;0.5910;0.0394;
1356.0000;0.5877;0.0301;
1356.3000;0.5902;0.0301;
1356.6000;0.5918;0.0348;
1356.9000;0.5918;0.0348;
1357.2000;0.5910;0.0255;
1357.5000;0.5926;0.0348;
1357.8000;0.5902;0.0348;
1358.1000;0.5910;0.0278;
1358.4000;0.5918;0.0232;
1358.7000;0.5885;0.0185;
1359.0000;0.5910;0.0301;
1359.3000;0.5885;0.0325;
1359.6000;0.5877;0.0278;
1359.9000;0.5902;0.0255;
1360.2000;0.5902;0.0325;
1360.5000;0.5893;0.0325;
1360.8000;0.5902;0.0325;
1361.1000;0.5885;0.0371;
1361.4000;0.5877;0.0348;
1361.7000;0.5893;0.0417;
1362.0000;0.5902;0.0417;
1362.3000;0.5934;0.0510;
1362.6000;0.5926;0.0533;
1362.9000;0.5910;0.0533;
1363.2000;0.5893;0.0556;
1363.5000;0.5877;0.0533;
1363.8000;0.5902;0.0487;
1364.1000;0.5877;0.0487;
1364.4000;0.5893;0.0487;
1364.7000;0.5893;0.0510;
1365.0000;0.5877;0.0464;
1365.3000;0.5902;0.0371;
1365.6000;0.5918;0.0394;
1365.9000;0.5910;0.0394;
1366.2000;0.5885;0.0417;
1366.5000;0.5918;0.0464;
1366.8000;0.5926;0.0464;
1367.1000;0.5910;0.0510;
1367.4000;0.5910;0.0510;
1367.7000;0.5918;0.0441;
1368.0000;0.5918;0.0417;
1368.3000;0.5902;0.0348;
1368.6000;0.5893;0.0301;
1368.9000;0.5910;0.0348;
1369.2000;0.5958;0.0556;
1369.5000;0.5918;0.0533;
1369.8000;0.5885;0.0580;
1370.1000;0.5893;0.0556;
1370.4000;0.5893;0.0672;
1370.7000;0.5918;0.0672;
1371.0000;0.5926;0.0649;
1371.3000;0.5902;0.0533;
1371.6000;0.5885;0.0394;
1371.9000;0.5934;0.0533;
1372.2000;0.5893;0.0464;
1372.5000;0.5902;0.0510;
1372.8000;0.5902;0.0510;
1373.1000;0.5910;0.0533;
1373.4000;0.5885;0.0510;
1373.7000;0.5885;0.0487;
1374.0000;0.5877;0.0487;
1374.3000;0.5910;0.0580;
1374.6000;0.5893;0.0696;
1374.9000;0.5877;0.0626;
1375.2000;0.5893;0.0626;
1375.5000;0.5893;0.0626;
1375.8000;0.5910;0.0719;
1376.1000;0.5885;0.0580;
1376.4000;0.5942;0.0626;
1376.7000;0.5885;0.0556;
1377.0000;0.5893;0.0556;
1377.3000;0.5934;0.0672;
1377.6000;0.5828;0.0325;
1377.9000;0.5902;0.0464;
1378.2000;0.5910;0.0464;
1378.5000;0.5910;0.0417;
1378.8000;0.5893;0.0394;
1379.1000;0.5902;0.0464;
1379.4000;0.5918;0.0487;
1379.7000;0.5893;0.0394;
1380.0000;0.5885;0.0417;
1380.3000;0.5877;0.0441;
1380.6000;0.5885;0.0464;
1380.9000;0.5877;0.0464;
1381.2000;0.5910;0.0533;
1381.5000;0.5877;0.0487;
1381.8000;0.5885;0.0464;
1382.1000;0.5902;0.0510;
1382.4000;0.5910;0.0533;
1382.7000;0.5902;0.0487;
1383.0000;0.5902;0.0510;
1383.3000;0.5910;0.0556;
1383.6000;0.5942;0.0510;
1383.9000;0.5926;0.0510;
1384.2000;0.5893;0.0533;
1384.5000;0.5918;0.0533;
1384.8000;0.5918;0.0603;
1385.1000;0.5893;0.0487;
1385.4000;0.5910;0.0533;
1385.7000;0.5885;0.0487;
1386.0000;0.5918;0.0510;
1386.3000;0.5893;0.0487;
1386.6000;0.5877;0.0417;
1386.9000;0.5885;0.0464;
1387.2000;0.5885;0.0510;
1387.5000;0.5885;0.0441;
1387.8000;0.5893;0.0533;
1388.1000;0.5893;0.0649;
1388.4000;0.5885;0.0603;
1388.7000;0.5869;0.0533;
1389.0000;0.5902;0.0487;
1389.3000;0.5885;0.0533;
1389.6000;0.5893;0.0487;
1389.9000;0.5902;0.0510;
1390.2000;0.5893;0.0533;
1390.5000;0.5885;0.0533;
1390.8000;0.5861;0.0580;
1391.1000;0.5885;0.0719;
1391.4000;0.5893;0.0719;
1391.7000;0.5885;0.0649;
1392.0000;0.5885;0.0487;
1392.3000;0.5885;0.0441;
1392.6000;0.5885;0.0464;
1392.9000;0.5910;0.0487;
1393.2000;0.5877;0.0417;
1393.5000;0.5877;0.0417;
1393.8000;0.5902;0.0394;
1394.1000;0.5902;0.0301;
1394.4000;0.5902;0.0209;
1394.7000;0.5902;0.0301;
1395.0000;0.5910;0.0278;
1395.3000;0.5885;0.0232;
1395.6000;0.5885;0.0255;
1395.9000;0.5893;0.0255;
1396.2000;0.5885;0.0255;
1396.5000;0.5877;0.0255;
1396.8000;0.5885;0.0232;
1397.1000;0.5885;0.0139;
1397.4000;0.5893;0.0209;
1397.7000;0.5902;0.0209;
1398.0000;0.5885;0.0209;
1398.3000;0.5902;0.0209;
1398.6000;0.5885;0.0209;
1398.9000;0.5902;0.0255;
1399.2000;0.5950;0.0278;
1399.5000;0.5885;0.0139;
1399.8000;0.5885;0.0209;
