time/ms;Fluo/V;P700 deltaI/I x10³;
-199.8000;1.0712;0.2574;
-199.5000;1.0688;0.2550;
-199.2000;1.0663;0.2504;
-198.9000;1.0745;0.2690;
-198.6000;1.0745;0.2690;
-198.3000;1.0672;0.2504;
-198.0000;1.0696;0.2620;
-197.7000;1.0696;0.2504;
-197.4000;1.0704;0.2527;
-197.1000;1.0688;0.2481;
-196.8000;1.0753;0.2713;
-196.5000;1.0696;0.2620;
-196.2000;1.0655;0.2550;
-195.9000;1.0696;0.2666;
-195.6000;1.0696;0.2597;
-195.3000;1.0631;0.2434;
-195.0000;1.0704;0.2597;
-194.7000;1.0704;0.2666;
-194.4000;1.0655;0.2643;
-194.1000;1.0737;0.2782;
-193.8000;1.0704;0.2736;
-193.5000;1.0720;0.2713;
-193.2000;1.0704;0.2759;
-192.9000;1.0696;0.2666;
-192.6000;1.0704;0.2736;
-192.3000;1.0696;0.2713;
-192.0000;1.0696;0.2759;
-191.7000;1.0704;0.2782;
-191.4000;1.0712;0.2713;
-191.1000;1.0623;0.2481;
-190.8000;1.0696;0.2666;
-190.5000;1.0655;0.2481;
-190.2000;1.0696;0.2550;
-189.9000;1.0696;0.2527;
-189.6000;1.0696;0.2504;
-189.3000;1.0672;0.2458;
-189.0000;1.0688;0.2434;
-188.7000;1.0704;0.2481;
-188.4000;1.0696;0.2550;
-188.1000;1.0696;0.2620;
-187.8000;1.0672;0.2620;
-187.5000;1.0672;0.2713;
-187.2000;1.0688;0.2759;
-186.9000;1.0696;0.2736;
-186.6000;1.0704;0.2759;
-186.3000;1.0688;0.2829;
-186.0000;1.0696;0.2898;
-185.7000;1.0704;0.2805;
-185.4000;1.0712;0.2852;
-185.1000;1.0712;0.2968;
-184.8000;1.0696;0.2968;
-184.5000;1.0704;0.3037;
-184.2000;1.0680;0.2991;
-183.9000;1.0688;0.3014;
-183.6000;1.0688;0.2991;
-183.3000;1.0688;0.2921;
-183.0000;1.0704;0.2921;
-182.7000;1.0696;0.2829;
-182.4000;1.0696;0.2805;
-182.1000;1.0688;0.2805;
-181.8000;1.0696;0.2805;
-181.5000;1.0696;0.2782;
-181.2000;1.0712;0.2852;
-180.9000;1.0704;0.2898;
-180.6000;1.0696;0.2991;
-180.3000;1.0696;0.3037;
-180.0000;1.0647;0.2805;
-179.7000;1.0745;0.2968;
-179.4000;1.0696;0.2852;
-179.1000;1.0696;0.2782;
-178.8000;1.0696;0.2713;
-178.5000;1.0680;0.2782;
-178.2000;1.0696;0.2805;
-177.9000;1.0688;0.2805;
-177.6000;1.0655;0.2736;
-177.3000;1.0696;0.2736;
-177.0000;1.0696;0.2759;
-176.7000;1.0761;0.2875;
-176.4000;1.0696;0.2690;
-176.1000;1.0688;0.2690;
-175.8000;1.0696;0.2713;
-175.5000;1.0712;0.2805;
-175.2000;1.0696;0.2829;
-174.9000;1.0688;0.2875;
-174.6000;1.0696;0.2875;
-174.3000;1.0704;0.2875;
-174.0000;1.0712;0.2852;
-173.7000;1.0753;0.2945;
-173.4000;1.0696;0.2759;
-173.1000;1.0704;0.2666;
-172.8000;1.0704;0.2666;
-172.5000;1.0786;0.2852;
-172.2000;1.0696;0.2620;
-171.9000;1.0704;0.2643;
-171.6000;1.0712;0.2713;
-171.3000;1.0655;0.2550;
-171.0000;1.0704;0.2690;
-170.7000;1.0704;0.2713;
-170.4000;1.0712;0.2690;
-170.1000;1.0704;0.2690;
-169.8000;1.0696;0.2643;
-169.5000;1.0729;0.2643;
-169.2000;1.0704;0.2620;
-168.9000;1.0704;0.2574;
-168.6000;1.0696;0.2574;
-168.3000;1.0729;0.2713;
-168.0000;1.0680;0.2690;
-167.7000;1.0696;0.2736;
-167.4000;1.0672;0.2666;
-167.1000;1.0680;0.2690;
-166.8000;1.0737;0.2805;
-166.5000;1.0696;0.2620;
-166.2000;1.0704;0.2620;
-165.9000;1.0704;0.2666;
-165.6000;1.0696;0.2620;
-165.3000;1.0704;0.2620;
-165.0000;1.0696;0.2597;
-164.7000;1.0680;0.2597;
-164.4000;1.0704;0.2666;
-164.1000;1.0696;0.2666;
-163.8000;1.0680;0.2550;
-163.5000;1.0745;0.2690;
-163.2000;1.0704;0.2550;
-162.9000;1.0696;0.2550;
-162.6000;1.0704;0.2481;
-162.3000;1.0688;0.2481;
-162.0000;1.0688;0.2411;
-161.7000;1.0712;0.2527;
-161.4000;1.0712;0.2481;
-161.1000;1.0704;0.2481;
-160.8000;1.0688;0.2411;
-160.5000;1.0704;0.2458;
-160.2000;1.0680;0.2481;
-159.9000;1.0696;0.2574;
-159.6000;1.0680;0.2550;
-159.3000;1.0680;0.2527;
-159.0000;1.0688;0.2504;
-158.7000;1.0696;0.2504;
-158.4000;1.0696;0.2574;
-158.1000;1.0688;0.2527;
-157.8000;1.0680;0.2504;
-157.5000;1.0704;0.2527;
-157.2000;1.0712;0.2481;
-156.9000;1.0688;0.2365;
-156.6000;1.0647;0.2319;
-156.3000;1.0696;0.2411;
-156.0000;1.0729;0.2458;
-155.7000;1.0672;0.2319;
-155.4000;1.0704;0.2458;
-155.1000;1.0688;0.2504;
-154.8000;1.0696;0.2550;
-154.5000;1.0688;0.2574;
-154.2000;1.0688;0.2527;
-153.9000;1.0688;0.2574;
-153.6000;1.0688;0.2574;
-153.3000;1.0704;0.2690;
-153.0000;1.0680;0.2713;
-152.7000;1.0680;0.2759;
-152.4000;1.0655;0.2690;
-152.1000;1.0680;0.2690;
-151.8000;1.0680;0.2620;
-151.5000;1.0696;0.2666;
-151.2000;1.0688;0.2643;
-150.9000;1.0623;0.2550;
-150.6000;1.0696;0.2782;
-150.3000;1.0704;0.2736;
-150.0000;1.0704;0.2597;
-149.7000;1.0688;0.2574;
-149.4000;1.0696;0.2666;
-149.1000;1.0647;0.2666;
-148.8000;1.0712;0.2852;
-148.5000;1.0720;0.2968;
-148.2000;1.0598;0.2736;
-147.9000;1.0704;0.2921;
-147.6000;1.0704;0.2829;
-147.3000;1.0680;0.2690;
-147.0000;1.0696;0.2736;
-146.7000;1.0688;0.2643;
-146.4000;1.0704;0.2690;
-146.1000;1.0680;0.2666;
-145.8000;1.0680;0.2620;
-145.5000;1.0696;0.2713;
-145.2000;1.0688;0.2759;
-144.9000;1.0680;0.2666;
-144.6000;1.0704;0.2805;
-144.3000;1.0720;0.2852;
-144.0000;1.0688;0.2829;
-143.7000;1.0745;0.2898;
-143.4000;1.0688;0.2759;
-143.1000;1.0688;0.2736;
-142.8000;1.0696;0.2713;
-142.5000;1.0720;0.2875;
-142.2000;1.0704;0.2898;
-141.9000;1.0704;0.2898;
-141.6000;1.0680;0.2852;
-141.3000;1.0753;0.2968;
-141.0000;1.0696;0.2805;
-140.7000;1.0688;0.2805;
-140.4000;1.0704;0.2782;
-140.1000;1.0663;0.2690;
-139.8000;1.0688;0.2736;
-139.5000;1.0696;0.2782;
-139.2000;1.0704;0.2852;
-138.9000;1.0696;0.2782;
-138.6000;1.0696;0.2805;
-138.3000;1.0696;0.2782;
-138.0000;1.0696;0.2713;
-137.7000;1.0704;0.2666;
-137.4000;1.0688;0.2620;
-137.1000;1.0696;0.2666;
-136.8000;1.0672;0.2713;
-136.5000;1.0688;0.2759;
-136.2000;1.0704;0.2713;
-135.9000;1.0696;0.2736;
-135.6000;1.0696;0.2805;
-135.3000;1.0696;0.2805;
-135.0000;1.0688;0.2759;
-134.7000;1.0680;0.2666;
-134.4000;1.0696;0.2713;
-134.1000;1.0680;0.2643;
-133.8000;1.0688;0.2550;
-133.5000;1.0704;0.2597;
-133.2000;1.0696;0.2620;
-132.9000;1.0688;0.2527;
-132.6000;1.0688;0.2434;
-132.3000;1.0672;0.2411;
-132.0000;1.0680;0.2481;
-131.7000;1.0753;0.2736;
-131.4000;1.0696;0.2574;
-131.1000;1.0680;0.2666;
-130.8000;1.0623;0.2481;
-130.5000;1.0680;0.2550;
-130.2000;1.0680;0.2481;
-129.9000;1.0704;0.2527;
-129.6000;1.0639;0.2411;
-129.3000;1.0712;0.2527;
-129.0000;1.0680;0.2550;
-128.7000;1.0688;0.2620;
-128.4000;1.0680;0.2666;
-128.1000;1.0672;0.2713;
-127.8000;1.0712;0.2782;
-127.5000;1.0696;0.2759;
-127.2000;1.0672;0.2829;
-126.9000;1.0696;0.2875;
-126.6000;1.0696;0.2898;
-126.3000;1.0720;0.2898;
-126.0000;1.0696;0.2898;
-125.7000;1.0704;0.2805;
-125.4000;1.0769;0.2945;
-125.1000;1.0712;0.2829;
-124.8000;1.0672;0.2713;
-124.5000;1.0672;0.2713;
-124.2000;1.0704;0.2782;
-123.9000;1.0696;0.2713;
-123.6000;1.0606;0.2434;
-123.3000;1.0745;0.2782;
-123.0000;1.0712;0.2736;
-122.7000;1.0688;0.2713;
-122.4000;1.0745;0.2829;
-122.1000;1.0672;0.2597;
-121.8000;1.0737;0.2690;
-121.5000;1.0688;0.2643;
-121.2000;1.0696;0.2643;
-120.9000;1.0688;0.2643;
-120.6000;1.0696;0.2736;
-120.3000;1.0696;0.2736;
-120.0000;1.0704;0.2805;
-119.7000;1.0672;0.2690;
-119.4000;1.0712;0.2690;
-119.1000;1.0704;0.2736;
-118.8000;1.0688;0.2759;
-118.5000;1.0680;0.2759;
-118.2000;1.0704;0.2782;
-117.9000;1.0704;0.2805;
-117.6000;1.0704;0.2782;
-117.3000;1.0696;0.2782;
-117.0000;1.0688;0.2782;
-116.7000;1.0672;0.2713;
-116.4000;1.0688;0.2805;
-116.1000;1.0696;0.2736;
-115.8000;1.0688;0.2690;
-115.5000;1.0688;0.2597;
-115.2000;1.0688;0.2597;
-114.9000;1.0704;0.2736;
-114.6000;1.0688;0.2805;
-114.3000;1.0696;0.2875;
-114.0000;1.0729;0.2852;
-113.7000;1.0720;0.2759;
-113.4000;1.0696;0.2690;
-113.1000;1.0753;0.2852;
-112.8000;1.0696;0.2713;
-112.5000;1.0688;0.2713;
-112.2000;1.0680;0.2713;
-111.9000;1.0704;0.2759;
-111.6000;1.0672;0.2690;
-111.3000;1.0712;0.2713;
-111.0000;1.0777;0.2875;
-110.7000;1.0647;0.2527;
-110.4000;1.0704;0.2690;
-110.1000;1.0688;0.2759;
-109.8000;1.0696;0.2805;
-109.5000;1.0655;0.2690;
-109.2000;1.0688;0.2759;
-108.9000;1.0688;0.2875;
-108.6000;1.0655;0.2690;
-108.3000;1.0696;0.2736;
-108.0000;1.0712;0.2782;
-107.7000;1.0688;0.2643;
-107.4000;1.0704;0.2574;
-107.1000;1.0696;0.2620;
-106.8000;1.0696;0.2643;
-106.5000;1.0647;0.2481;
-106.2000;1.0688;0.2504;
-105.9000;1.0696;0.2597;
-105.6000;1.0688;0.2574;
-105.3000;1.0680;0.2597;
-105.0000;1.0688;0.2550;
-104.7000;1.0680;0.2481;
-104.4000;1.0688;0.2527;
-104.1000;1.0712;0.2643;
-103.8000;1.0704;0.2690;
-103.5000;1.0704;0.2643;
-103.2000;1.0696;0.2643;
-102.9000;1.0720;0.2713;
-102.6000;1.0712;0.2782;
-102.3000;1.0647;0.2666;
-102.0000;1.0696;0.2805;
-101.7000;1.0696;0.2782;
-101.4000;1.0704;0.2736;
-101.1000;1.0655;0.2597;
-100.8000;1.0720;0.2713;
-100.5000;1.0672;0.2643;
-100.2000;1.0688;0.2666;
-99.9000;1.0696;0.2527;
-99.6000;1.0720;0.2550;
-99.3000;1.0720;0.2527;
-99.0000;1.0663;0.2458;
-98.7000;1.0696;0.2527;
-98.4000;1.0704;0.2504;
-98.1000;1.0696;0.2597;
-97.8000;1.0704;0.2666;
-97.5000;1.0696;0.2620;
-97.2000;1.0704;0.2620;
-96.9000;1.0696;0.2643;
-96.6000;1.0688;0.2550;
-96.3000;1.0704;0.2690;
-96.0000;1.0704;0.2759;
-95.7000;1.0688;0.2643;
-95.4000;1.0639;0.2458;
-95.1000;1.0688;0.2620;
-94.8000;1.0704;0.2666;
-94.5000;1.0647;0.2527;
-94.2000;1.0704;0.2666;
-93.9000;1.0680;0.2597;
-93.6000;1.0688;0.2597;
-93.3000;1.0696;0.2597;
-93.0000;1.0688;0.2550;
-92.7000;1.0704;0.2527;
-92.4000;1.0696;0.2550;
-92.1000;1.0704;0.2504;
-91.8000;1.0696;0.2434;
-91.5000;1.0704;0.2481;
-91.2000;1.0696;0.2481;
-90.9000;1.0712;0.2574;
-90.6000;1.0712;0.2574;
-90.3000;1.0696;0.2620;
-90.0000;1.0680;0.2550;
-89.7000;1.0680;0.2574;
-89.4000;1.0696;0.2597;
-89.1000;1.0704;0.2574;
-88.8000;1.0680;0.2481;
-88.5000;1.0696;0.2597;
-88.2000;1.0680;0.2666;
-87.9000;1.0704;0.2782;
-87.6000;1.0672;0.2690;
-87.3000;1.0680;0.2620;
-87.0000;1.0615;0.2504;
-86.7000;1.0688;0.2620;
-86.4000;1.0688;0.2527;
-86.1000;1.0688;0.2504;
-85.8000;1.0680;0.2504;
-85.5000;1.0688;0.2481;
-85.2000;1.0688;0.2481;
-84.9000;1.0688;0.2481;
-84.6000;1.0688;0.2597;
-84.3000;1.0696;0.2620;
-84.0000;1.0688;0.2550;
-83.7000;1.0704;0.2550;
-83.4000;1.0696;0.2458;
-83.1000;1.0696;0.2458;
-82.8000;1.0696;0.2458;
-82.5000;1.0696;0.2504;
-82.2000;1.0688;0.2527;
-81.9000;1.0696;0.2550;
-81.6000;1.0737;0.2666;
-81.3000;1.0696;0.2550;
-81.0000;1.0696;0.2574;
-80.7000;1.0696;0.2550;
-80.4000;1.0712;0.2643;
-80.1000;1.0704;0.2620;
-79.8000;1.0696;0.2574;
-79.5000;1.0704;0.2574;
-79.2000;1.0729;0.2620;
-78.9000;1.0704;0.2620;
-78.6000;1.0810;0.2759;
-78.3000;1.0680;0.2411;
-78.0000;1.0680;0.2411;
-77.7000;1.0688;0.2481;
-77.4000;1.0696;0.2434;
-77.1000;1.0680;0.2434;
-76.8000;1.0712;0.2527;
-76.5000;1.0672;0.2504;
-76.2000;1.0655;0.2434;
-75.9000;1.0696;0.2550;
-75.6000;1.0696;0.2643;
-75.3000;1.0720;0.2736;
-75.0000;1.0696;0.2736;
-74.7000;1.0696;0.2759;
-74.4000;1.0623;0.2643;
-74.1000;1.0712;0.2805;
-73.8000;1.0712;0.2782;
-73.5000;1.0631;0.2574;
-73.2000;1.0680;0.2690;
-72.9000;1.0680;0.2643;
-72.6000;1.0680;0.2620;
-72.3000;1.0606;0.2504;
-72.0000;1.0680;0.2666;
-71.7000;1.0704;0.2620;
-71.4000;1.0696;0.2643;
-71.1000;1.0672;0.2527;
-70.8000;1.0712;0.2666;
-70.5000;1.0623;0.2504;
-70.2000;1.0729;0.2805;
-69.9000;1.0704;0.2690;
-69.6000;1.0663;0.2597;
-69.3000;1.0720;0.2805;
-69.0000;1.0712;0.2736;
-68.7000;1.0696;0.2759;
-68.4000;1.0688;0.2782;
-68.1000;1.0655;0.2805;
-67.8000;1.0712;0.2945;
-67.5000;1.0704;0.2898;
-67.2000;1.0672;0.2643;
-66.9000;1.0688;0.2597;
-66.6000;1.0680;0.2574;
-66.3000;1.0720;0.2690;
-66.0000;1.0688;0.2690;
-65.7000;1.0720;0.2782;
-65.4000;1.0688;0.2713;
-65.1000;1.0688;0.2666;
-64.8000;1.0712;0.2829;
-64.5000;1.0688;0.2829;
-64.2000;1.0672;0.2782;
-63.9000;1.0696;0.2805;
-63.6000;1.0696;0.2782;
-63.3000;1.0712;0.2759;
-63.0000;1.0688;0.2713;
-62.7000;1.0696;0.2736;
-62.4000;1.0712;0.2829;
-62.1000;1.0688;0.2805;
-61.8000;1.0688;0.2782;
-61.5000;1.0712;0.2736;
-61.2000;1.0688;0.2690;
-60.9000;1.0696;0.2782;
-60.6000;1.0688;0.2782;
-60.3000;1.0696;0.2713;
-60.0000;1.0786;0.2898;
-59.7000;1.0696;0.2736;
-59.4000;1.0696;0.2736;
-59.1000;1.0680;0.2736;
-58.8000;1.0704;0.2782;
-58.5000;1.0712;0.2805;
-58.2000;1.0696;0.2805;
-57.9000;1.0688;0.2782;
-57.6000;1.0745;0.2875;
-57.3000;1.0704;0.2759;
-57.0000;1.0704;0.2782;
-56.7000;1.0696;0.2782;
-56.4000;1.0712;0.2852;
-56.1000;1.0704;0.2782;
-55.8000;1.0712;0.2782;
-55.5000;1.0729;0.2898;
-55.2000;1.0704;0.2852;
-54.9000;1.0729;0.2852;
-54.6000;1.0704;0.2852;
-54.3000;1.0672;0.2759;
-54.0000;1.0696;0.2805;
-53.7000;1.0704;0.2805;
-53.4000;1.0704;0.2736;
-53.1000;1.0688;0.2713;
-52.8000;1.0688;0.2666;
-52.5000;1.0647;0.2504;
-52.2000;1.0696;0.2643;
-51.9000;1.0696;0.2597;
-51.6000;1.0696;0.2666;
-51.3000;1.0712;0.2759;
-51.0000;1.0655;0.2690;
-50.7000;1.0688;0.2759;
-50.4000;1.0704;0.2759;
-50.1000;1.0688;0.2898;
-49.8000;1.0696;0.2968;
-49.5000;1.0663;0.2829;
-49.2000;1.0696;0.2991;
-48.9000;1.0680;0.3037;
-48.6000;1.0680;0.3014;
-48.3000;1.0704;0.3060;
-48.0000;1.0712;0.2991;
-47.7000;1.0688;0.2852;
-47.4000;1.0777;0.2921;
-47.1000;1.0696;0.2713;
-46.8000;1.0688;0.2643;
-46.5000;1.0704;0.2597;
-46.2000;1.0696;0.2713;
-45.9000;1.0704;0.2736;
-45.6000;1.0688;0.2736;
-45.3000;1.0688;0.2690;
-45.0000;1.0704;0.2690;
-44.7000;1.0704;0.2713;
-44.4000;1.0704;0.2759;
-44.1000;1.0712;0.2736;
-43.8000;1.0696;0.2666;
-43.5000;1.0696;0.2574;
-43.2000;1.0737;0.2620;
-42.9000;1.0712;0.2666;
-42.6000;1.0696;0.2620;
-42.3000;1.0704;0.2643;
-42.0000;1.0729;0.2643;
-41.7000;1.0704;0.2643;
-41.4000;1.0680;0.2527;
-41.1000;1.0696;0.2481;
-40.8000;1.0712;0.2527;
-40.5000;1.0696;0.2620;
-40.2000;1.0688;0.2620;
-39.9000;1.0696;0.2620;
-39.6000;1.0712;0.2597;
-39.3000;1.0712;0.2643;
-39.0000;1.0712;0.2736;
-38.7000;1.0696;0.2690;
-38.4000;1.0696;0.2736;
-38.1000;1.0688;0.2620;
-37.8000;1.0688;0.2690;
-37.5000;1.0696;0.2713;
-37.2000;1.0704;0.2782;
-36.9000;1.0712;0.2736;
-36.6000;1.0680;0.2597;
-36.3000;1.0696;0.2597;
-36.0000;1.0688;0.2643;
-35.7000;1.0696;0.2690;
-35.4000;1.0696;0.2759;
-35.1000;1.0704;0.2690;
-34.8000;1.0704;0.2690;
-34.5000;1.0631;0.2527;
-34.2000;1.0696;0.2736;
-33.9000;1.0696;0.2713;
-33.6000;1.0688;0.2643;
-33.3000;1.0696;0.2550;
-33.0000;1.0712;0.2481;
-32.7000;1.0680;0.2504;
-32.4000;1.0704;0.2550;
-32.1000;1.0680;0.2458;
-31.8000;1.0688;0.2458;
-31.5000;1.0631;0.2388;
-31.2000;1.0688;0.2597;
-30.9000;1.0655;0.2481;
-30.6000;1.0696;0.2504;
-30.3000;1.0704;0.2574;
-30.0000;1.0688;0.2527;
-29.7000;1.0672;0.2434;
-29.4000;1.0688;0.2504;
-29.1000;1.0704;0.2504;
-28.8000;1.0761;0.2736;
-28.5000;1.0688;0.2574;
-28.2000;1.0688;0.2643;
-27.9000;1.0663;0.2574;
-27.6000;1.0696;0.2620;
-27.3000;1.0737;0.2690;
-27.0000;1.0672;0.2620;
-26.7000;1.0655;0.2527;
-26.4000;1.0688;0.2574;
-26.1000;1.0680;0.2550;
-25.8000;1.0680;0.2550;
-25.5000;1.0769;0.2805;
-25.2000;1.0688;0.2666;
-24.9000;1.0720;0.2736;
-24.6000;1.0680;0.2597;
-24.3000;1.0696;0.2550;
-24.0000;1.0696;0.2620;
-23.7000;1.0688;0.2643;
-23.4000;1.0688;0.2666;
-23.1000;1.0688;0.2666;
-22.8000;1.0688;0.2620;
-22.5000;1.0696;0.2620;
-22.2000;1.0696;0.2574;
-21.9000;1.0688;0.2550;
-21.6000;1.0696;0.2434;
-21.3000;1.0696;0.2434;
-21.0000;1.0680;0.2388;
-20.7000;1.0704;0.2504;
-20.4000;1.0696;0.2574;
-20.1000;1.0696;0.2643;
-19.8000;1.0663;0.2574;
-19.5000;1.0688;0.2666;
-19.2000;1.0696;0.2713;
-18.9000;1.0688;0.2713;
-18.6000;1.0704;0.2713;
-18.3000;1.0704;0.2736;
-18.0000;1.0712;0.2643;
-17.7000;1.0712;0.2690;
-17.4000;1.0696;0.2643;
-17.1000;1.0672;0.2690;
-16.8000;1.0688;0.2736;
-16.5000;1.0704;0.2805;
-16.2000;1.0704;0.2829;
-15.9000;1.0680;0.2805;
-15.6000;1.0672;0.2759;
-15.3000;1.0680;0.2782;
-15.0000;1.0696;0.2852;
-14.7000;1.0688;0.2690;
-14.4000;1.0688;0.2550;
-14.1000;1.0688;0.2481;
-13.8000;1.0712;0.2643;
-13.5000;1.0688;0.2597;
-13.2000;1.0688;0.2597;
-12.9000;1.0680;0.2620;
-12.6000;1.0704;0.2690;
-12.3000;1.0688;0.2574;
-12.0000;1.0688;0.2574;
-11.7000;1.0729;0.2666;
-11.4000;1.0688;0.2597;
-11.1000;1.0696;0.2713;
-10.8000;1.0688;0.2690;
-10.5000;1.0761;0.2898;
-10.2000;1.0688;0.2782;
-9.9000;1.0688;0.2713;
-9.6000;1.0680;0.2805;
-9.3000;1.0704;0.2921;
-9.0000;1.0680;0.2898;
-8.7000;1.0777;0.2945;
-8.4000;1.0696;0.2736;
-8.1000;1.0696;0.2782;
-7.8000;1.0696;0.2736;
-7.5000;1.0696;0.2759;
-7.2000;1.0672;0.2643;
-6.9000;1.0663;0.2666;
-6.6000;1.0680;0.2713;
-6.3000;1.0647;0.2666;
-6.0000;1.0696;0.2829;
-5.7000;1.0688;0.2782;
-5.4000;1.0663;0.2597;
-5.1000;1.0688;0.2620;
-4.8000;1.0696;0.2666;
-4.5000;1.0720;0.2736;
-4.2000;1.0696;0.2782;
-3.9000;1.0680;0.2898;
-3.6000;1.0672;0.2852;
-3.3000;1.0688;0.2782;
-3.0000;1.0680;0.2759;
-2.7000;1.0663;0.2666;
-2.4000;1.0688;0.2736;
-2.1000;1.0696;0.2805;
-1.8000;1.0639;0.2690;
-1.5000;1.0680;0.2736;
-1.2000;1.0696;0.2713;
-0.9000;1.0680;0.2643;
-0.6000;1.0688;0.2620;
-0.3000;1.0672;0.2643;
0.0000;1.0672;0.2643;
0.3000;1.0769;0.2852;
0.6000;1.0867;0.3153;
0.9000;1.0948;0.3547;
1.2000;1.1005;0.3802;
1.5000;1.1054;0.4127;
1.8000;1.1095;0.4359;
2.1000;1.1087;0.4359;
2.4000;1.1160;0.4683;
2.7000;1.1176;0.4753;
3.0000;1.1201;0.4915;
3.3000;1.1217;0.4962;
3.6000;1.1160;0.4938;
3.9000;1.1225;0.5194;
4.2000;1.1209;0.5217;
4.5000;1.1258;0.5402;
4.8000;1.1282;0.5402;
5.1000;1.1274;0.5356;
5.4000;1.1298;0.5425;
5.7000;1.1290;0.5425;
6.0000;1.1315;0.5518;
6.3000;1.1298;0.5495;
6.6000;1.1323;0.5564;
6.9000;1.1315;0.5588;
7.2000;1.1315;0.5449;
7.5000;1.1315;0.5449;
7.8000;1.1339;0.5379;
8.1000;1.1339;0.5425;
8.4000;1.1266;0.5286;
8.7000;1.1355;0.5472;
9.0000;1.1339;0.5425;
9.3000;1.1355;0.5472;
9.6000;1.1355;0.5449;
9.9000;1.1355;0.5425;
10.2000;1.1380;0.5564;
10.5000;1.1339;0.5449;
10.8000;1.1372;0.5495;
11.1000;1.1388;0.5611;
11.4000;1.1388;0.5588;
11.7000;1.1412;0.5518;
12.0000;1.1404;0.5495;
12.3000;1.1412;0.5541;
12.6000;1.1429;0.5588;
12.9000;1.1429;0.5588;
13.2000;1.1445;0.5634;
13.5000;1.1429;0.5611;
13.8000;1.1396;0.5495;
14.1000;1.1429;0.5564;
14.4000;1.1429;0.5634;
14.7000;1.1429;0.5704;
15.0000;1.1469;0.5866;
15.3000;1.1437;0.5727;
15.6000;1.1445;0.5727;
15.9000;1.1453;0.5750;
16.2000;1.1453;0.5704;
16.5000;1.1445;0.5564;
16.8000;1.1486;0.5634;
17.1000;1.1477;0.5611;
17.4000;1.1461;0.5564;
17.7000;1.1461;0.5588;
18.0000;1.1461;0.5495;
18.3000;1.1469;0.5449;
18.6000;1.1502;0.5680;
18.9000;1.1469;0.5588;
19.2000;1.1453;0.5495;
19.5000;1.1543;0.5750;
19.8000;1.1469;0.5588;
20.1000;1.1486;0.5588;
20.4000;1.1469;0.5518;
20.7000;1.1469;0.5564;
21.0000;1.1469;0.5588;
21.3000;1.1469;0.5588;
21.6000;1.1477;0.5588;
21.9000;1.1461;0.5611;
22.2000;1.1486;0.5634;
22.5000;1.1494;0.5634;
22.8000;1.1469;0.5611;
23.1000;1.1477;0.5611;
23.4000;1.1477;0.5634;
23.7000;1.1486;0.5588;
24.0000;1.1469;0.5611;
24.3000;1.1486;0.5495;
24.6000;1.1477;0.5495;
24.9000;1.1502;0.5564;
25.2000;1.1445;0.5518;
25.5000;1.1494;0.5564;
25.8000;1.1510;0.5541;
26.1000;1.1518;0.5588;
26.4000;1.1526;0.5634;
26.7000;1.1486;0.5541;
27.0000;1.1502;0.5588;
27.3000;1.1494;0.5541;
27.6000;1.1502;0.5588;
27.9000;1.1486;0.5588;
28.2000;1.1477;0.5541;
28.5000;1.1494;0.5588;
28.8000;1.1502;0.5588;
29.1000;1.1510;0.5657;
29.4000;1.1461;0.5541;
29.7000;1.1510;0.5588;
30.0000;1.1534;0.5680;
30.3000;1.1518;0.5750;
30.6000;1.1502;0.5657;
30.9000;1.1502;0.5657;
31.2000;1.1510;0.5680;
31.5000;1.1510;0.5680;
31.8000;1.1510;0.5680;
32.1000;1.1502;0.5611;
32.4000;1.1494;0.5634;
32.7000;1.1510;0.5750;
33.0000;1.1502;0.5704;
33.3000;1.1486;0.5657;
33.6000;1.1494;0.5727;
33.9000;1.1502;0.5704;
34.2000;1.1502;0.5727;
34.5000;1.1518;0.5820;
34.8000;1.1502;0.5866;
35.1000;1.1502;0.5796;
35.4000;1.1494;0.5704;
35.7000;1.1510;0.5727;
36.0000;1.1510;0.5773;
36.3000;1.1510;0.5820;
36.6000;1.1494;0.5796;
36.9000;1.1510;0.5773;
37.2000;1.1486;0.5750;
37.5000;1.1518;0.5796;
37.8000;1.1526;0.5843;
38.1000;1.1518;0.5866;
38.4000;1.1502;0.5889;
38.7000;1.1526;0.5773;
39.0000;1.1534;0.5750;
39.3000;1.1510;0.5680;
39.6000;1.1518;0.5634;
39.9000;1.1518;0.5634;
40.2000;1.1526;0.5680;
40.5000;1.1502;0.5657;
40.8000;1.1502;0.5611;
41.1000;1.1502;0.5611;
41.4000;1.1518;0.5634;
41.7000;1.1526;0.5611;
42.0000;1.1510;0.5611;
42.3000;1.1502;0.5588;
42.6000;1.1461;0.5541;
42.9000;1.1494;0.5750;
43.2000;1.1518;0.5843;
43.5000;1.1502;0.5820;
43.8000;1.1502;0.5843;
44.1000;1.1510;0.5843;
44.4000;1.1518;0.5796;
44.7000;1.1453;0.5657;
45.0000;1.1494;0.5820;
45.3000;1.1510;0.5889;
45.6000;1.1510;0.5912;
45.9000;1.1502;0.5843;
46.2000;1.1502;0.5820;
46.5000;1.1502;0.5820;
46.8000;1.1510;0.5820;
47.1000;1.1510;0.5820;
47.4000;1.1494;0.5820;
47.7000;1.1502;0.5843;
48.0000;1.1518;0.5866;
48.3000;1.1510;0.5796;
48.6000;1.1518;0.5796;
48.9000;1.1518;0.5773;
49.2000;1.1518;0.5750;
49.5000;1.1510;0.5657;
49.8000;1.1526;0.5657;
50.1000;1.1486;0.5588;
50.4000;1.1518;0.5704;
50.7000;1.1518;0.5750;
51.0000;1.1534;0.5727;
51.3000;1.1502;0.5680;
51.6000;1.1534;0.5611;
51.9000;1.1518;0.5680;
52.2000;1.1510;0.5657;
52.5000;1.1543;0.5704;
52.8000;1.1502;0.5611;
53.1000;1.1518;0.5680;
53.4000;1.1518;0.5820;
53.7000;1.1510;0.5796;
54.0000;1.1510;0.5750;
54.3000;1.1453;0.5588;
54.6000;1.1518;0.5704;
54.9000;1.1502;0.5634;
55.2000;1.1510;0.5727;
55.5000;1.1502;0.5680;
55.8000;1.1534;0.5727;
56.1000;1.1461;0.5564;
56.4000;1.1534;0.5727;
56.7000;1.1526;0.5657;
57.0000;1.1518;0.5750;
57.3000;1.1526;0.5727;
57.6000;1.1510;0.5773;
57.9000;1.1510;0.5796;
58.2000;1.1518;0.5889;
58.5000;1.1534;0.5935;
58.8000;1.1502;0.5866;
59.1000;1.1526;0.5820;
59.4000;1.1518;0.5750;
59.7000;1.1502;0.5704;
60.0000;1.1502;0.5773;
60.3000;1.1502;0.5750;
60.6000;1.1502;0.5750;
60.9000;1.1518;0.5796;
61.2000;1.1494;0.5796;
61.5000;1.1494;0.5704;
61.8000;1.1518;0.5704;
62.1000;1.1453;0.5611;
62.4000;1.1510;0.5727;
62.7000;1.1502;0.5704;
63.0000;1.1437;0.5495;
63.3000;1.1510;0.5680;
63.6000;1.1518;0.5680;
63.9000;1.1502;0.5611;
64.2000;1.1502;0.5727;
64.5000;1.1469;0.5680;
64.8000;1.1526;0.5796;
65.1000;1.1518;0.5866;
65.4000;1.1510;0.5843;
65.7000;1.1510;0.5820;
66.0000;1.1502;0.5889;
66.3000;1.1494;0.5820;
66.6000;1.1502;0.5820;
66.9000;1.1518;0.5796;
67.2000;1.1518;0.5704;
67.5000;1.1477;0.5634;
67.8000;1.1510;0.5750;
68.1000;1.1510;0.5750;
68.4000;1.1510;0.5680;
68.7000;1.1518;0.5680;
69.0000;1.1510;0.5634;
69.3000;1.1502;0.5611;
69.6000;1.1510;0.5541;
69.9000;1.1494;0.5518;
70.2000;1.1494;0.5449;
70.5000;1.1510;0.5541;
70.8000;1.1494;0.5588;
71.1000;1.1518;0.5611;
71.4000;1.1518;0.5704;
71.7000;1.1502;0.5680;
72.0000;1.1502;0.5657;
72.3000;1.1469;0.5564;
72.6000;1.1518;0.5634;
72.9000;1.1518;0.5564;
73.2000;1.1510;0.5449;
73.5000;1.1518;0.5402;
73.8000;1.1502;0.5518;
74.1000;1.1518;0.5588;
74.4000;1.1510;0.5564;
74.7000;1.1502;0.5495;
75.0000;1.1477;0.5402;
75.3000;1.1502;0.5402;
75.6000;1.1486;0.5425;
75.9000;1.1518;0.5541;
76.2000;1.1518;0.5541;
76.5000;1.1469;0.5402;
76.8000;1.1494;0.5449;
77.1000;1.1486;0.5425;
77.4000;1.1510;0.5425;
77.7000;1.1502;0.5495;
78.0000;1.1469;0.5449;
78.3000;1.1486;0.5564;
78.6000;1.1518;0.5634;
78.9000;1.1518;0.5680;
79.2000;1.1494;0.5611;
79.5000;1.1502;0.5657;
79.8000;1.1502;0.5611;
80.1000;1.1526;0.5588;
80.4000;1.1518;0.5472;
80.7000;1.1510;0.5518;
81.0000;1.1486;0.5495;
81.3000;1.1502;0.5564;
81.6000;1.1510;0.5634;
81.9000;1.1502;0.5611;
82.2000;1.1502;0.5657;
82.5000;1.1502;0.5680;
82.8000;1.1510;0.5657;
83.1000;1.1551;0.5750;
83.4000;1.1510;0.5680;
83.7000;1.1510;0.5657;
84.0000;1.1486;0.5564;
84.3000;1.1486;0.5611;
84.6000;1.1640;0.5912;
84.9000;1.1502;0.5611;
85.2000;1.1510;0.5704;
85.5000;1.1510;0.5634;
85.8000;1.1469;0.5495;
86.1000;1.1502;0.5518;
86.4000;1.1510;0.5564;
86.7000;1.1526;0.5657;
87.0000;1.1510;0.5634;
87.3000;1.1510;0.5634;
87.6000;1.1510;0.5657;
87.9000;1.1469;0.5657;
88.2000;1.1534;0.5750;
88.5000;1.1510;0.5727;
88.8000;1.1510;0.5704;
89.1000;1.1526;0.5866;
89.4000;1.1510;0.5796;
89.7000;1.1502;0.5820;
90.0000;1.1526;0.5820;
90.3000;1.1477;0.5704;
90.6000;1.1502;0.5704;
90.9000;1.1486;0.5773;
91.2000;1.1534;0.5820;
91.5000;1.1518;0.5773;
91.8000;1.1502;0.5796;
92.1000;1.1494;0.5796;
92.4000;1.1494;0.5773;
92.7000;1.1494;0.5796;
93.0000;1.1510;0.5750;
93.3000;1.1510;0.5680;
93.6000;1.1502;0.5680;
93.9000;1.1502;0.5680;
94.2000;1.1477;0.5680;
94.5000;1.1518;0.5796;
94.8000;1.1502;0.5750;
95.1000;1.1494;0.5750;
95.4000;1.1486;0.5773;
95.7000;1.1510;0.5773;
96.0000;1.1510;0.5820;
96.3000;1.1469;0.5750;
96.6000;1.1502;0.5820;
96.9000;1.1502;0.5727;
97.2000;1.1510;0.5680;
97.5000;1.1502;0.5611;
97.8000;1.1551;0.5704;
98.1000;1.1510;0.5657;
98.4000;1.1518;0.5611;
98.7000;1.1510;0.5588;
99.0000;1.1469;0.5472;
99.3000;1.1510;0.5588;
99.6000;1.1510;0.5680;
99.9000;1.1494;0.5657;
100.2000;1.1510;0.5680;
100.5000;1.1494;0.5657;
100.8000;1.1543;0.5820;
101.1000;1.1510;0.5704;
101.4000;1.1453;0.5657;
101.7000;1.1486;0.5773;
102.0000;1.1494;0.5843;
102.3000;1.1494;0.5843;
102.6000;1.1494;0.5820;
102.9000;1.1494;0.5843;
103.2000;1.1543;0.5935;
103.5000;1.1502;0.5843;
103.8000;1.1502;0.5912;
104.1000;1.1486;0.5843;
104.4000;1.1494;0.5843;
104.7000;1.1486;0.5843;
105.0000;1.1486;0.5796;
105.3000;1.1469;0.5657;
105.6000;1.1494;0.5680;
105.9000;1.1510;0.5634;
106.2000;1.1543;0.5680;
106.5000;1.1502;0.5611;
106.8000;1.1494;0.5657;
107.1000;1.1518;0.5773;
107.4000;1.1510;0.5820;
107.7000;1.1510;0.5820;
108.0000;1.1494;0.5796;
108.3000;1.1502;0.5843;
108.6000;1.1502;0.5773;
108.9000;1.1510;0.5773;
109.2000;1.1518;0.5889;
109.5000;1.1518;0.5866;
109.8000;1.1445;0.5704;
110.1000;1.1510;0.5796;
110.4000;1.1502;0.5796;
110.7000;1.1600;0.6028;
111.0000;1.1526;0.5866;
111.3000;1.1510;0.5820;
111.6000;1.1453;0.5773;
111.9000;1.1502;0.5912;
112.2000;1.1510;0.6051;
112.5000;1.1510;0.6051;
112.8000;1.1518;0.6075;
113.1000;1.1486;0.6098;
113.4000;1.1518;0.6121;
113.7000;1.1518;0.6075;
114.0000;1.1486;0.6005;
114.3000;1.1502;0.6005;
114.6000;1.1502;0.5982;
114.9000;1.1494;0.5982;
115.2000;1.1494;0.5982;
115.5000;1.1420;0.5796;
115.8000;1.1510;0.5912;
116.1000;1.1526;0.5935;
116.4000;1.1526;0.5935;
116.7000;1.1445;0.5680;
117.0000;1.1494;0.5680;
117.3000;1.1477;0.5727;
117.6000;1.1477;0.5796;
117.9000;1.1502;0.5935;
118.2000;1.1502;0.5935;
118.5000;1.1494;0.5773;
118.8000;1.1502;0.5773;
119.1000;1.1534;0.5889;
119.4000;1.1486;0.5727;
119.7000;1.1445;0.5611;
120.0000;1.1518;0.5820;
120.3000;1.1494;0.5773;
120.6000;1.1494;0.5727;
120.9000;1.1477;0.5680;
121.2000;1.1518;0.5704;
121.5000;1.1494;0.5680;
121.8000;1.1486;0.5704;
122.1000;1.1494;0.5704;
122.4000;1.1502;0.5820;
122.7000;1.1494;0.5773;
123.0000;1.1494;0.5820;
123.3000;1.1510;0.5935;
123.6000;1.1502;0.5889;
123.9000;1.1502;0.5912;
124.2000;1.1502;0.5935;
124.5000;1.1567;0.6144;
124.8000;1.1486;0.5982;
125.1000;1.1510;0.5959;
125.4000;1.1494;0.5912;
125.7000;1.1510;0.5912;
126.0000;1.1494;0.5935;
126.3000;1.1486;0.5959;
126.6000;1.1469;0.5843;
126.9000;1.1469;0.5820;
127.2000;1.1486;0.5773;
127.5000;1.1477;0.5843;
127.8000;1.1494;0.5935;
128.1000;1.1469;0.5935;
128.4000;1.1518;0.5935;
128.7000;1.1469;0.5773;
129.0000;1.1494;0.5796;
129.3000;1.1494;0.5820;
129.6000;1.1477;0.5796;
129.9000;1.1486;0.5796;
130.2000;1.1494;0.5866;
130.5000;1.1477;0.5820;
130.8000;1.1477;0.5820;
131.1000;1.1518;0.5820;
131.4000;1.1486;0.5773;
131.7000;1.1461;0.5796;
132.0000;1.1453;0.5773;
132.3000;1.1494;0.5843;
132.6000;1.1486;0.5796;
132.9000;1.1494;0.5773;
133.2000;1.1486;0.5680;
133.5000;1.1461;0.5588;
133.8000;1.1502;0.5704;
134.1000;1.1477;0.5704;
134.4000;1.1469;0.5588;
134.7000;1.1477;0.5564;
135.0000;1.1486;0.5657;
135.3000;1.1494;0.5634;
135.6000;1.1502;0.5634;
135.9000;1.1486;0.5588;
136.2000;1.1469;0.5611;
136.5000;1.1510;0.5796;
136.8000;1.1486;0.5750;
137.1000;1.1469;0.5634;
137.4000;1.1494;0.5704;
137.7000;1.1494;0.5773;
138.0000;1.1486;0.5820;
138.3000;1.1510;0.5820;
138.6000;1.1429;0.5634;
138.9000;1.1486;0.5796;
139.2000;1.1510;0.5796;
139.5000;1.1591;0.6028;
139.8000;1.1502;0.5843;
140.1000;1.1502;0.5866;
140.4000;1.1502;0.5935;
140.7000;1.1600;0.6098;
141.0000;1.1518;0.5912;
141.3000;1.1486;0.5889;
141.6000;1.1510;0.5935;
141.9000;1.1494;0.5820;
142.2000;1.1518;0.5773;
142.5000;1.1486;0.5773;
142.8000;1.1486;0.5773;
143.1000;1.1494;0.5843;
143.4000;1.1486;0.5750;
143.7000;1.1486;0.5704;
144.0000;1.1486;0.5750;
144.3000;1.1477;0.5820;
144.6000;1.1477;0.5843;
144.9000;1.1477;0.5820;
145.2000;1.1461;0.5843;
145.5000;1.1510;0.5912;
145.8000;1.1469;0.5820;
146.1000;1.1510;0.5889;
146.4000;1.1486;0.5866;
146.7000;1.1461;0.5843;
147.0000;1.1461;0.5912;
147.3000;1.1486;0.5982;
147.6000;1.1461;0.5866;
147.9000;1.1583;0.6051;
148.2000;1.1486;0.5843;
148.5000;1.1461;0.5727;
148.8000;1.1477;0.5750;
149.1000;1.1477;0.5704;
149.4000;1.1477;0.5634;
149.7000;1.1477;0.5611;
150.0000;1.1477;0.5564;
150.3000;1.1477;0.5564;
150.6000;1.1477;0.5564;
150.9000;1.1502;0.5634;
151.2000;1.1486;0.5704;
151.5000;1.1469;0.5704;
151.8000;1.1494;0.5773;
152.1000;1.1510;0.5820;
152.4000;1.1486;0.5727;
152.7000;1.1494;0.5704;
153.0000;1.1469;0.5750;
153.3000;1.1453;0.5750;
153.6000;1.1494;0.5866;
153.9000;1.1461;0.5866;
154.2000;1.1445;0.5820;
154.5000;1.1486;0.5959;
154.8000;1.1477;0.5820;
155.1000;1.1469;0.5727;
155.4000;1.1469;0.5750;
155.7000;1.1477;0.5820;
156.0000;1.1461;0.5820;
156.3000;1.1461;0.5820;
156.6000;1.1461;0.5866;
156.9000;1.1477;0.5935;
157.2000;1.1486;0.5959;
157.5000;1.1494;0.5982;
157.8000;1.1469;0.5959;
158.1000;1.1469;0.5889;
158.4000;1.1486;0.5820;
158.7000;1.1494;0.5843;
159.0000;1.1477;0.5889;
159.3000;1.1469;0.5889;
159.6000;1.1477;0.5935;
159.9000;1.1477;0.5843;
160.2000;1.1469;0.5773;
160.5000;1.1469;0.5727;
160.8000;1.1461;0.5750;
161.1000;1.1469;0.5843;
161.4000;1.1445;0.5820;
161.7000;1.1477;0.5912;
162.0000;1.1494;0.5912;
162.3000;1.1486;0.5843;
162.6000;1.1486;0.5866;
162.9000;1.1477;0.5912;
163.2000;1.1461;0.5912;
163.5000;1.1494;0.5959;
163.8000;1.1461;0.5820;
164.1000;1.1477;0.5796;
164.4000;1.1461;0.5680;
164.7000;1.1494;0.5773;
165.0000;1.1469;0.5750;
165.3000;1.1469;0.5704;
165.6000;1.1477;0.5773;
165.9000;1.1510;0.5796;
166.2000;1.1502;0.5773;
166.5000;1.1477;0.5727;
166.8000;1.1494;0.5750;
167.1000;1.1477;0.5704;
167.4000;1.1518;0.5889;
167.7000;1.1494;0.5843;
168.0000;1.1461;0.5773;
168.3000;1.1477;0.5773;
168.6000;1.1469;0.5796;
168.9000;1.1477;0.5796;
169.2000;1.1477;0.5889;
169.5000;1.1461;0.5935;
169.8000;1.1486;0.5959;
170.1000;1.1477;0.5866;
170.4000;1.1477;0.5796;
170.7000;1.1486;0.5866;
171.0000;1.1388;0.5680;
171.3000;1.1445;0.5843;
171.6000;1.1477;0.5935;
171.9000;1.1477;0.5982;
172.2000;1.1486;0.5982;
172.5000;1.1543;0.6075;
172.8000;1.1477;0.6051;
173.1000;1.1477;0.6028;
173.4000;1.1477;0.6028;
173.7000;1.1477;0.6028;
174.0000;1.1486;0.5959;
174.3000;1.1477;0.5889;
174.6000;1.1486;0.5889;
174.9000;1.1477;0.5843;
175.2000;1.1486;0.5982;
175.5000;1.1477;0.6005;
175.8000;1.1469;0.5912;
176.1000;1.1486;0.6028;
176.4000;1.1486;0.6005;
176.7000;1.1477;0.6028;
177.0000;1.1477;0.6144;
177.3000;1.1461;0.6075;
177.6000;1.1429;0.5959;
177.9000;1.1477;0.6144;
178.2000;1.1477;0.6075;
178.5000;1.1477;0.5935;
178.8000;1.1486;0.5889;
179.1000;1.1494;0.5843;
179.4000;1.1494;0.5843;
179.7000;1.1469;0.5773;
180.0000;1.1502;0.5820;
180.3000;1.1486;0.5820;
180.6000;1.1477;0.5796;
180.9000;1.1526;0.5935;
181.2000;1.1453;0.5773;
181.5000;1.1486;0.5935;
181.8000;1.1469;0.5912;
182.1000;1.1469;0.5796;
182.4000;1.1453;0.5704;
182.7000;1.1486;0.5820;
183.0000;1.1461;0.5773;
183.3000;1.1469;0.5773;
183.6000;1.1469;0.5820;
183.9000;1.1469;0.5843;
184.2000;1.1494;0.5843;
184.5000;1.1477;0.5820;
184.8000;1.1477;0.5750;
185.1000;1.1420;0.5680;
185.4000;1.1469;0.5796;
185.7000;1.1437;0.5773;
186.0000;1.1469;0.5773;
186.3000;1.1469;0.5680;
186.6000;1.1469;0.5588;
186.9000;1.1469;0.5518;
187.2000;1.1404;0.5495;
187.5000;1.1453;0.5657;
187.8000;1.1461;0.5773;
188.1000;1.1477;0.5820;
188.4000;1.1469;0.5750;
188.7000;1.1477;0.5773;
189.0000;1.1461;0.5796;
189.3000;1.1477;0.5820;
189.6000;1.1477;0.5796;
189.9000;1.1461;0.5727;
190.2000;1.1477;0.5820;
190.5000;1.1477;0.5820;
190.8000;1.1477;0.5820;
191.1000;1.1477;0.5750;
191.4000;1.1486;0.5773;
191.7000;1.1469;0.5796;
192.0000;1.1453;0.5866;
192.3000;1.1469;0.5912;
192.6000;1.1461;0.5866;
192.9000;1.1477;0.5773;
193.2000;1.1420;0.5564;
193.5000;1.1469;0.5634;
193.8000;1.1486;0.5843;
194.1000;1.1494;0.5820;
194.4000;1.1510;0.5843;
194.7000;1.1494;0.5796;
195.0000;1.1461;0.5866;
195.3000;1.1461;0.5843;
195.6000;1.1437;0.5889;
195.9000;1.1437;0.5912;
196.2000;1.1461;0.5959;
196.5000;1.1461;0.5866;
196.8000;1.1469;0.5866;
197.1000;1.1469;0.5935;
197.4000;1.1453;0.5889;
197.7000;1.1469;0.5935;
198.0000;1.1469;0.5935;
198.3000;1.1486;0.6028;
198.6000;1.1477;0.5982;
198.9000;1.1486;0.5889;
199.2000;1.1477;0.5843;
199.5000;1.1486;0.5796;
199.8000;1.1486;0.5657;
200.1000;1.1429;0.5541;
200.4000;1.1469;0.5704;
200.7000;1.1453;0.5727;
201.0000;1.1469;0.5796;
201.3000;1.1486;0.5889;
201.6000;1.1372;0.5704;
201.9000;1.1486;0.5912;
202.2000;1.1477;0.5820;
202.5000;1.1477;0.5773;
202.8000;1.1469;0.5773;
203.1000;1.1567;0.5982;
203.4000;1.1453;0.5704;
203.7000;1.1486;0.5796;
204.0000;1.1437;0.5680;
204.3000;1.1486;0.5773;
204.6000;1.1445;0.5750;
204.9000;1.1477;0.5773;
205.2000;1.1437;0.5634;
205.5000;1.1469;0.5796;
205.8000;1.1461;0.5773;
206.1000;1.1477;0.5750;
206.4000;1.1469;0.5680;
206.7000;1.1469;0.5727;
207.0000;1.1453;0.5773;
207.3000;1.1469;0.5796;
207.6000;1.1486;0.5796;
207.9000;1.1461;0.5704;
208.2000;1.1445;0.5657;
208.5000;1.1469;0.5750;
208.8000;1.1461;0.5796;
209.1000;1.1567;0.6098;
209.4000;1.1469;0.5843;
209.7000;1.1469;0.5912;
210.0000;1.1486;0.5889;
210.3000;1.1502;0.5843;
210.6000;1.1486;0.5773;
210.9000;1.1486;0.5843;
211.2000;1.1380;0.5518;
211.5000;1.1461;0.5773;
211.8000;1.1469;0.5750;
212.1000;1.1453;0.5727;
212.4000;1.1461;0.5727;
212.7000;1.1477;0.5680;
213.0000;1.1477;0.5680;
213.3000;1.1453;0.5611;
213.6000;1.1461;0.5680;
213.9000;1.1469;0.5680;
214.2000;1.1477;0.5727;
214.5000;1.1445;0.5680;
214.8000;1.1469;0.5657;
215.1000;1.1575;0.5796;
215.4000;1.1494;0.5657;
215.7000;1.1469;0.5634;
216.0000;1.1477;0.5657;
216.3000;1.1469;0.5657;
216.6000;1.1486;0.5657;
216.9000;1.1461;0.5657;
217.2000;1.1469;0.5680;
217.5000;1.1477;0.5704;
217.8000;1.1494;0.5727;
218.1000;1.1453;0.5773;
218.4000;1.1469;0.5773;
218.7000;1.1469;0.5773;
219.0000;1.1469;0.5657;
219.3000;1.1494;0.5680;
219.6000;1.1453;0.5611;
219.9000;1.1518;0.5727;
220.2000;1.1469;0.5518;
220.5000;1.1469;0.5518;
220.8000;1.1453;0.5518;
221.1000;1.1477;0.5564;
221.4000;1.1486;0.5680;
221.7000;1.1461;0.5564;
222.0000;1.1445;0.5588;
222.3000;1.1461;0.5472;
222.6000;1.1469;0.5518;
222.9000;1.1477;0.5472;
223.2000;1.1494;0.5518;
223.5000;1.1461;0.5611;
223.8000;1.1461;0.5634;
224.1000;1.1461;0.5634;
224.4000;1.1461;0.5611;
224.7000;1.1461;0.5680;
225.0000;1.1477;0.5773;
225.3000;1.1477;0.5750;
225.6000;1.1461;0.5704;
225.9000;1.1461;0.5611;
226.2000;1.1477;0.5657;
226.5000;1.1477;0.5611;
226.8000;1.1437;0.5588;
227.1000;1.1461;0.5727;
227.4000;1.1461;0.5704;
227.7000;1.1469;0.5680;
228.0000;1.1477;0.5657;
228.3000;1.1486;0.5657;
228.6000;1.1526;0.5750;
228.9000;1.1453;0.5564;
229.2000;1.1510;0.5773;
229.5000;1.1494;0.5727;
229.8000;1.1461;0.5634;
230.1000;1.1469;0.5727;
230.4000;1.1437;0.5657;
230.7000;1.1469;0.5704;
231.0000;1.1445;0.5750;
231.3000;1.1461;0.5727;
231.6000;1.1388;0.5588;
231.9000;1.1453;0.5680;
232.2000;1.1445;0.5564;
232.5000;1.1461;0.5472;
232.8000;1.1469;0.5449;
233.1000;1.1461;0.5472;
233.4000;1.1461;0.5449;
233.7000;1.1363;0.5217;
234.0000;1.1469;0.5564;
234.3000;1.1461;0.5564;
234.6000;1.1453;0.5564;
234.9000;1.1453;0.5541;
235.2000;1.1461;0.5518;
235.5000;1.1469;0.5611;
235.8000;1.1469;0.5634;
236.1000;1.1461;0.5588;
236.4000;1.1477;0.5657;
236.7000;1.1453;0.5518;
237.0000;1.1469;0.5611;
237.3000;1.1429;0.5541;
237.6000;1.1453;0.5611;
237.9000;1.1461;0.5680;
238.2000;1.1518;0.5680;
238.5000;1.1494;0.5588;
238.8000;1.1453;0.5541;
239.1000;1.1469;0.5541;
239.4000;1.1518;0.5704;
239.7000;1.1461;0.5634;
240.0000;1.1461;0.5564;
240.3000;1.1453;0.5449;
240.6000;1.1469;0.5402;
240.9000;1.1437;0.5286;
241.2000;1.1388;0.5217;
241.5000;1.1469;0.5495;
241.8000;1.1453;0.5541;
242.1000;1.1445;0.5518;
242.4000;1.1469;0.5588;
242.7000;1.1445;0.5564;
243.0000;1.1445;0.5588;
243.3000;1.1469;0.5657;
243.6000;1.1461;0.5680;
243.9000;1.1453;0.5588;
244.2000;1.1461;0.5588;
244.5000;1.1461;0.5611;
244.8000;1.1461;0.5634;
245.1000;1.1461;0.5518;
245.4000;1.1437;0.5518;
245.7000;1.1453;0.5518;
246.0000;1.1453;0.5588;
246.3000;1.1469;0.5588;
246.6000;1.1453;0.5588;
246.9000;1.1477;0.5588;
247.2000;1.1469;0.5611;
247.5000;1.1461;0.5611;
247.8000;1.1469;0.5564;
248.1000;1.1453;0.5564;
248.4000;1.1461;0.5564;
248.7000;1.1453;0.5564;
249.0000;1.1445;0.5588;
249.3000;1.1461;0.5634;
249.6000;1.1453;0.5657;
249.9000;1.1437;0.5564;
250.2000;1.1437;0.5634;
250.5000;1.1429;0.5634;
250.8000;1.1445;0.5611;
251.1000;1.1461;0.5680;
251.4000;1.1469;0.5704;
251.7000;1.1437;0.5634;
252.0000;1.1469;0.5773;
252.3000;1.1461;0.5727;
252.6000;1.1526;0.5843;
252.9000;1.1445;0.5634;
253.2000;1.1445;0.5634;
253.5000;1.1445;0.5564;
253.8000;1.1461;0.5588;
254.1000;1.1453;0.5425;
254.4000;1.1453;0.5425;
254.7000;1.1453;0.5449;
255.0000;1.1445;0.5564;
255.3000;1.1445;0.5611;
255.6000;1.1445;0.5611;
255.9000;1.1453;0.5634;
256.2000;1.1445;0.5680;
256.5000;1.1445;0.5564;
256.8000;1.1437;0.5518;
257.1000;1.1461;0.5588;
257.4000;1.1453;0.5588;
257.7000;1.1453;0.5588;
258.0000;1.1453;0.5680;
258.3000;1.1453;0.5634;
258.6000;1.1461;0.5611;
258.9000;1.1477;0.5634;
259.2000;1.1469;0.5518;
259.5000;1.1437;0.5564;
259.8000;1.1453;0.5588;
260.1000;1.1461;0.5773;
260.4000;1.1445;0.5727;
260.7000;1.1461;0.5588;
261.0000;1.1445;0.5634;
261.3000;1.1437;0.5680;
261.6000;1.1445;0.5773;
261.9000;1.1429;0.5750;
262.2000;1.1445;0.5820;
262.5000;1.1453;0.5750;
262.8000;1.1453;0.5727;
263.1000;1.1453;0.5727;
263.4000;1.1461;0.5657;
263.7000;1.1453;0.5680;
264.0000;1.1486;0.5727;
264.3000;1.1461;0.5680;
264.6000;1.1437;0.5680;
264.9000;1.1461;0.5796;
265.2000;1.1453;0.5820;
265.5000;1.1437;0.5820;
265.8000;1.1412;0.5773;
266.1000;1.1445;0.5820;
266.4000;1.1453;0.5866;
266.7000;1.1453;0.5843;
267.0000;1.1445;0.5843;
267.3000;1.1445;0.5866;
267.6000;1.1453;0.5889;
267.9000;1.1445;0.5796;
268.2000;1.1469;0.5843;
268.5000;1.1453;0.5796;
268.8000;1.1445;0.5820;
269.1000;1.1437;0.5843;
269.4000;1.1486;0.6028;
269.7000;1.1453;0.5912;
270.0000;1.1445;0.5820;
270.3000;1.1453;0.5843;
270.6000;1.1445;0.5820;
270.9000;1.1445;0.5750;
271.2000;1.1445;0.5820;
271.5000;1.1445;0.5704;
271.8000;1.1461;0.5611;
272.1000;1.1437;0.5564;
272.4000;1.1461;0.5634;
272.7000;1.1469;0.5680;
273.0000;1.1453;0.5704;
273.3000;1.1437;0.5796;
273.6000;1.1445;0.5750;
273.9000;1.1437;0.5750;
274.2000;1.1461;0.5750;
274.5000;1.1486;0.5750;
274.8000;1.1453;0.5588;
275.1000;1.1461;0.5495;
275.4000;1.1453;0.5541;
275.7000;1.1437;0.5472;
276.0000;1.1445;0.5564;
276.3000;1.1445;0.5518;
276.6000;1.1453;0.5564;
276.9000;1.1461;0.5495;
277.2000;1.1453;0.5564;
277.5000;1.1461;0.5611;
277.8000;1.1461;0.5588;
278.1000;1.1461;0.5564;
278.4000;1.1445;0.5588;
278.7000;1.1429;0.5588;
279.0000;1.1453;0.5750;
279.3000;1.1526;0.5820;
279.6000;1.1412;0.5518;
279.9000;1.1453;0.5657;
280.2000;1.1437;0.5704;
280.5000;1.1429;0.5796;
280.8000;1.1453;0.5843;
281.1000;1.1437;0.5843;
281.4000;1.1445;0.5820;
281.7000;1.1461;0.5727;
282.0000;1.1445;0.5657;
282.3000;1.1445;0.5657;
282.6000;1.1453;0.5634;
282.9000;1.1461;0.5727;
283.2000;1.1445;0.5727;
283.5000;1.1437;0.5727;
283.8000;1.1445;0.5750;
284.1000;1.1453;0.5843;
284.4000;1.1453;0.5982;
284.7000;1.1461;0.5982;
285.0000;1.1445;0.5912;
285.3000;1.1453;0.5982;
285.6000;1.1461;0.6028;
285.9000;1.1453;0.5982;
286.2000;1.1445;0.5935;
286.5000;1.1429;0.5912;
286.8000;1.1437;0.5866;
287.1000;1.1445;0.5843;
287.4000;1.1437;0.5773;
287.7000;1.1437;0.5796;
288.0000;1.1445;0.5843;
288.3000;1.1453;0.5866;
288.6000;1.1453;0.5796;
288.9000;1.1526;0.5959;
289.2000;1.1429;0.5704;
289.5000;1.1461;0.5727;
289.8000;1.1453;0.5704;
290.1000;1.1453;0.5773;
290.4000;1.1445;0.5727;
290.7000;1.1461;0.5820;
291.0000;1.1461;0.5866;
291.3000;1.1437;0.5843;
291.6000;1.1461;0.5889;
291.9000;1.1453;0.5889;
292.2000;1.1420;0.5704;
292.5000;1.1437;0.5704;
292.8000;1.1445;0.5657;
293.1000;1.1461;0.5657;
293.4000;1.1477;0.5750;
293.7000;1.1437;0.5634;
294.0000;1.1445;0.5634;
294.3000;1.1445;0.5588;
294.6000;1.1453;0.5611;
294.9000;1.1445;0.5588;
295.2000;1.1453;0.5564;
295.5000;1.1429;0.5472;
295.8000;1.1453;0.5518;
296.1000;1.1445;0.5518;
296.4000;1.1445;0.5541;
296.7000;1.1445;0.5611;
297.0000;1.1429;0.5611;
297.3000;1.1461;0.5704;
297.6000;1.1486;0.5704;
297.9000;1.1437;0.5541;
298.2000;1.1420;0.5379;
298.5000;1.1420;0.5495;
298.8000;1.1437;0.5564;
299.1000;1.1429;0.5657;
299.4000;1.1420;0.5634;
299.7000;1.1453;0.5634;
300.0000;1.1420;0.5611;
300.3000;1.1453;0.5657;
300.6000;1.1453;0.5657;
300.9000;1.1453;0.5704;
301.2000;1.1445;0.5727;
301.5000;1.1453;0.5634;
301.8000;1.1445;0.5634;
302.1000;1.1453;0.5588;
302.4000;1.1469;0.5634;
302.7000;1.1453;0.5564;
303.0000;1.1429;0.5611;
303.3000;1.1486;0.5773;
303.6000;1.1461;0.5704;
303.9000;1.1420;0.5727;
304.2000;1.1437;0.5704;
304.5000;1.1429;0.5634;
304.8000;1.1429;0.5657;
305.1000;1.1453;0.5657;
305.4000;1.1437;0.5472;
305.7000;1.1453;0.5588;
306.0000;1.1469;0.5680;
306.3000;1.1486;0.5657;
306.6000;1.1453;0.5564;
306.9000;1.1429;0.5588;
307.2000;1.1437;0.5472;
307.5000;1.1437;0.5518;
307.8000;1.1429;0.5472;
308.1000;1.1396;0.5402;
308.4000;1.1404;0.5449;
308.7000;1.1437;0.5518;
309.0000;1.1445;0.5588;
309.3000;1.1420;0.5588;
309.6000;1.1429;0.5634;
309.9000;1.1461;0.5657;
310.2000;1.1429;0.5588;
310.5000;1.1404;0.5564;
310.8000;1.1429;0.5657;
311.1000;1.1461;0.5773;
311.4000;1.1469;0.5750;
311.7000;1.1453;0.5773;
312.0000;1.1461;0.5657;
312.3000;1.1445;0.5680;
312.6000;1.1469;0.5750;
312.9000;1.1453;0.5657;
313.2000;1.1445;0.5611;
313.5000;1.1445;0.5541;
313.8000;1.1453;0.5449;
314.1000;1.1420;0.5449;
314.4000;1.1429;0.5634;
314.7000;1.1477;0.5727;
315.0000;1.1429;0.5564;
315.3000;1.1453;0.5611;
315.6000;1.1445;0.5634;
315.9000;1.1445;0.5634;
316.2000;1.1461;0.5611;
316.5000;1.1461;0.5657;
316.8000;1.1461;0.5541;
317.1000;1.1388;0.5309;
317.4000;1.1420;0.5379;
317.7000;1.1437;0.5518;
318.0000;1.1477;0.5634;
318.3000;1.1437;0.5541;
318.6000;1.1355;0.5356;
318.9000;1.1437;0.5518;
319.2000;1.1453;0.5564;
319.5000;1.1494;0.5634;
319.8000;1.1429;0.5588;
320.1000;1.1429;0.5634;
320.4000;1.1453;0.5680;
320.7000;1.1477;0.5704;
321.0000;1.1445;0.5611;
321.3000;1.1445;0.5588;
321.6000;1.1461;0.5541;
321.9000;1.1469;0.5495;
322.2000;1.1437;0.5356;
322.5000;1.1437;0.5402;
322.8000;1.1437;0.5402;
323.1000;1.1469;0.5495;
323.4000;1.1445;0.5449;
323.7000;1.1461;0.5472;
324.0000;1.1453;0.5425;
324.3000;1.1445;0.5449;
324.6000;1.1429;0.5449;
324.9000;1.1437;0.5425;
325.2000;1.1437;0.5472;
325.5000;1.1453;0.5564;
325.8000;1.1469;0.5588;
326.1000;1.1461;0.5564;
326.4000;1.1461;0.5518;
326.7000;1.1461;0.5402;
327.0000;1.1461;0.5449;
327.3000;1.1453;0.5449;
327.6000;1.1453;0.5472;
327.9000;1.1445;0.5472;
328.2000;1.1461;0.5564;
328.5000;1.1437;0.5541;
328.8000;1.1445;0.5588;
329.1000;1.1437;0.5611;
329.4000;1.1437;0.5680;
329.7000;1.1420;0.5750;
330.0000;1.1429;0.5796;
330.3000;1.1420;0.5796;
330.6000;1.1437;0.5843;
330.9000;1.1510;0.5935;
331.2000;1.1429;0.5657;
331.5000;1.1372;0.5588;
331.8000;1.1420;0.5704;
332.1000;1.1429;0.5680;
332.4000;1.1437;0.5657;
332.7000;1.1437;0.5564;
333.0000;1.1429;0.5564;
333.3000;1.1453;0.5588;
333.6000;1.1437;0.5564;
333.9000;1.1396;0.5449;
334.2000;1.1445;0.5564;
334.5000;1.1461;0.5588;
334.8000;1.1437;0.5611;
335.1000;1.1420;0.5495;
335.4000;1.1445;0.5402;
335.7000;1.1437;0.5402;
336.0000;1.1445;0.5402;
336.3000;1.1453;0.5402;
336.6000;1.1420;0.5356;
336.9000;1.1453;0.5472;
337.2000;1.1477;0.5634;
337.5000;1.1437;0.5634;
337.8000;1.1445;0.5657;
338.1000;1.1445;0.5634;
338.4000;1.1445;0.5634;
338.7000;1.1412;0.5634;
339.0000;1.1437;0.5657;
339.3000;1.1429;0.5588;
339.6000;1.1437;0.5541;
339.9000;1.1445;0.5541;
340.2000;1.1445;0.5472;
340.5000;1.1420;0.5425;
340.8000;1.1437;0.5449;
341.1000;1.1437;0.5379;
341.4000;1.1437;0.5333;
341.7000;1.1429;0.5333;
342.0000;1.1437;0.5425;
342.3000;1.1420;0.5472;
342.6000;1.1380;0.5379;
342.9000;1.1437;0.5541;
343.2000;1.1469;0.5588;
343.5000;1.1437;0.5564;
343.8000;1.1429;0.5449;
344.1000;1.1437;0.5356;
344.4000;1.1429;0.5356;
344.7000;1.1420;0.5356;
345.0000;1.1429;0.5402;
345.3000;1.1429;0.5356;
345.6000;1.1429;0.5333;
345.9000;1.1437;0.5263;
346.2000;1.1396;0.5170;
346.5000;1.1437;0.5309;
346.8000;1.1429;0.5333;
347.1000;1.1429;0.5379;
347.4000;1.1477;0.5564;
347.7000;1.1429;0.5495;
348.0000;1.1453;0.5564;
348.3000;1.1461;0.5657;
348.6000;1.1518;0.5750;
348.9000;1.1453;0.5634;
349.2000;1.1420;0.5449;
349.5000;1.1429;0.5472;
349.8000;1.1453;0.5495;
350.1000;1.1437;0.5425;
350.4000;1.1445;0.5425;
350.7000;1.1437;0.5425;
351.0000;1.1453;0.5518;
351.3000;1.1453;0.5541;
351.6000;1.1477;0.5634;
351.9000;1.1437;0.5541;
352.2000;1.1437;0.5564;
352.5000;1.1429;0.5588;
352.8000;1.1445;0.5680;
353.1000;1.1404;0.5657;
353.4000;1.1445;0.5820;
353.7000;1.1437;0.5773;
354.0000;1.1437;0.5773;
354.3000;1.1420;0.5750;
354.6000;1.1420;0.5773;
354.9000;1.1445;0.5750;
355.2000;1.1453;0.5750;
355.5000;1.1445;0.5773;
355.8000;1.1437;0.5750;
356.1000;1.1445;0.5727;
356.4000;1.1437;0.5680;
356.7000;1.1437;0.5727;
357.0000;1.1429;0.5634;
357.3000;1.1477;0.5680;
357.6000;1.1445;0.5611;
357.9000;1.1437;0.5588;
358.2000;1.1453;0.5634;
358.5000;1.1429;0.5541;
358.8000;1.1437;0.5564;
359.1000;1.1437;0.5634;
359.4000;1.1437;0.5588;
359.7000;1.1445;0.5518;
360.0000;1.1461;0.5518;
360.3000;1.1445;0.5449;
360.6000;1.1453;0.5495;
360.9000;1.1420;0.5588;
361.2000;1.1445;0.5588;
361.5000;1.1437;0.5588;
361.8000;1.1420;0.5634;
362.1000;1.1437;0.5657;
362.4000;1.1429;0.5727;
362.7000;1.1429;0.5704;
363.0000;1.1437;0.5704;
363.3000;1.1420;0.5588;
363.6000;1.1388;0.5472;
363.9000;1.1363;0.5402;
364.2000;1.1437;0.5634;
364.5000;1.1429;0.5564;
364.8000;1.1453;0.5564;
365.1000;1.1363;0.5425;
365.4000;1.1437;0.5564;
365.7000;1.1429;0.5564;
366.0000;1.1469;0.5634;
366.3000;1.1429;0.5495;
366.6000;1.1429;0.5472;
366.9000;1.1429;0.5495;
367.2000;1.1429;0.5541;
367.5000;1.1437;0.5611;
367.8000;1.1445;0.5657;
368.1000;1.1518;0.5843;
368.4000;1.1461;0.5796;
368.7000;1.1429;0.5634;
369.0000;1.1445;0.5796;
369.3000;1.1453;0.5889;
369.6000;1.1429;0.5889;
369.9000;1.1412;0.5866;
370.2000;1.1429;0.5750;
370.5000;1.1404;0.5657;
370.8000;1.1445;0.5773;
371.1000;1.1445;0.5657;
371.4000;1.1445;0.5634;
371.7000;1.1437;0.5657;
372.0000;1.1437;0.5704;
372.3000;1.1412;0.5750;
372.6000;1.1420;0.5843;
372.9000;1.1420;0.5866;
373.2000;1.1437;0.5866;
373.5000;1.1429;0.5820;
373.8000;1.1437;0.5796;
374.1000;1.1461;0.5912;
374.4000;1.1445;0.5843;
374.7000;1.1429;0.5796;
375.0000;1.1420;0.5773;
375.3000;1.1429;0.5820;
375.6000;1.1445;0.5843;
375.9000;1.1469;0.5912;
376.2000;1.1429;0.5727;
376.5000;1.1420;0.5727;
376.8000;1.1453;0.5843;
377.1000;1.1429;0.5773;
377.4000;1.1404;0.5657;
377.7000;1.1412;0.5657;
378.0000;1.1420;0.5657;
378.3000;1.1445;0.5796;
378.6000;1.1429;0.5773;
378.9000;1.1404;0.5750;
379.2000;1.1429;0.5750;
379.5000;1.1396;0.5704;
379.8000;1.1429;0.5820;
380.1000;1.1412;0.5796;
380.4000;1.1429;0.5796;
380.7000;1.1429;0.5750;
381.0000;1.1453;0.5796;
381.3000;1.1461;0.5750;
381.6000;1.1420;0.5704;
381.9000;1.1420;0.5657;
382.2000;1.1437;0.5727;
382.5000;1.1429;0.5727;
382.8000;1.1429;0.5773;
383.1000;1.1437;0.5680;
383.4000;1.1453;0.5820;
383.7000;1.1453;0.5773;
384.0000;1.1404;0.5611;
384.3000;1.1412;0.5588;
384.6000;1.1429;0.5611;
384.9000;1.1429;0.5564;
385.2000;1.1429;0.5541;
385.5000;1.1420;0.5518;
385.8000;1.1445;0.5541;
386.1000;1.1429;0.5518;
386.4000;1.1437;0.5564;
386.7000;1.1412;0.5518;
387.0000;1.1477;0.5611;
387.3000;1.1420;0.5518;
387.6000;1.1372;0.5425;
387.9000;1.1469;0.5611;
388.2000;1.1404;0.5472;
388.5000;1.1437;0.5425;
388.8000;1.1437;0.5425;
389.1000;1.1412;0.5356;
389.4000;1.1477;0.5495;
389.7000;1.1420;0.5379;
390.0000;1.1429;0.5379;
390.3000;1.1429;0.5402;
390.6000;1.1412;0.5309;
390.9000;1.1429;0.5333;
391.2000;1.1437;0.5379;
391.5000;1.1437;0.5379;
391.8000;1.1404;0.5356;
392.1000;1.1420;0.5333;
392.4000;1.1437;0.5333;
392.7000;1.1437;0.5333;
393.0000;1.1412;0.5286;
393.3000;1.1437;0.5356;
393.6000;1.1412;0.5309;
393.9000;1.1412;0.5217;
394.2000;1.1420;0.5217;
394.5000;1.1420;0.5194;
394.8000;1.1429;0.5263;
395.1000;1.1437;0.5240;
395.4000;1.1429;0.5217;
395.7000;1.1429;0.5217;
396.0000;1.1437;0.5263;
396.3000;1.1429;0.5217;
396.6000;1.1429;0.5240;
396.9000;1.1420;0.5217;
397.2000;1.1429;0.5240;
397.5000;1.1412;0.5217;
397.8000;1.1445;0.5240;
398.1000;1.1412;0.5217;
398.4000;1.1420;0.5333;
398.7000;1.1437;0.5309;
399.0000;1.1429;0.5240;
399.3000;1.1429;0.5217;
399.6000;1.1420;0.5217;
399.9000;1.1429;0.5309;
400.2000;1.1429;0.5425;
400.5000;1.1445;0.5449;
400.8000;1.1429;0.5518;
401.1000;1.1429;0.5588;
401.4000;1.1437;0.5564;
401.7000;1.1429;0.5634;
402.0000;1.1445;0.5657;
402.3000;1.1429;0.5611;
402.6000;1.1429;0.5704;
402.9000;1.1437;0.5680;
403.2000;1.1420;0.5634;
403.5000;1.1469;0.5750;
403.8000;1.1420;0.5611;
404.1000;1.1420;0.5564;
404.4000;1.1412;0.5495;
404.7000;1.1412;0.5425;
405.0000;1.1420;0.5425;
405.3000;1.1306;0.5194;
405.6000;1.1429;0.5495;
405.9000;1.1347;0.5333;
406.2000;1.1388;0.5449;
406.5000;1.1429;0.5564;
406.8000;1.1429;0.5564;
407.1000;1.1380;0.5449;
407.4000;1.1429;0.5588;
407.7000;1.1420;0.5588;
408.0000;1.1453;0.5704;
408.3000;1.1429;0.5657;
408.6000;1.1420;0.5611;
408.9000;1.1420;0.5588;
409.2000;1.1429;0.5564;
409.5000;1.1429;0.5588;
409.8000;1.1380;0.5402;
410.1000;1.1412;0.5449;
410.4000;1.1437;0.5541;
410.7000;1.1437;0.5564;
411.0000;1.1429;0.5541;
411.3000;1.1445;0.5704;
411.6000;1.1388;0.5564;
411.9000;1.1437;0.5634;
412.2000;1.1420;0.5472;
412.5000;1.1429;0.5449;
412.8000;1.1429;0.5495;
413.1000;1.1429;0.5495;
413.4000;1.1388;0.5449;
413.7000;1.1388;0.5472;
414.0000;1.1429;0.5704;
414.3000;1.1420;0.5634;
414.6000;1.1420;0.5588;
414.9000;1.1420;0.5680;
415.2000;1.1420;0.5634;
415.5000;1.1429;0.5657;
415.8000;1.1486;0.5773;
416.1000;1.1453;0.5750;
416.4000;1.1429;0.5680;
416.7000;1.1420;0.5611;
417.0000;1.1412;0.5495;
417.3000;1.1437;0.5541;
417.6000;1.1412;0.5449;
417.9000;1.1429;0.5472;
418.2000;1.1429;0.5472;
418.5000;1.1429;0.5657;
418.8000;1.1420;0.5588;
419.1000;1.1429;0.5611;
419.4000;1.1404;0.5541;
419.7000;1.1420;0.5634;
420.0000;1.1420;0.5611;
420.3000;1.1453;0.5773;
420.6000;1.1388;0.5588;
420.9000;1.1429;0.5611;
421.2000;1.1420;0.5588;
421.5000;1.1404;0.5564;
421.8000;1.1429;0.5704;
422.1000;1.1429;0.5611;
422.4000;1.1420;0.5564;
422.7000;1.1412;0.5518;
423.0000;1.1461;0.5680;
423.3000;1.1420;0.5611;
423.6000;1.1412;0.5611;
423.9000;1.1412;0.5611;
424.2000;1.1412;0.5611;
424.5000;1.1420;0.5634;
424.8000;1.1420;0.5588;
425.1000;1.1404;0.5588;
425.4000;1.1412;0.5564;
425.7000;1.1412;0.5541;
426.0000;1.1429;0.5495;
426.3000;1.1363;0.5425;
426.6000;1.1396;0.5634;
426.9000;1.1420;0.5750;
427.2000;1.1412;0.5750;
427.5000;1.1396;0.5750;
427.8000;1.1412;0.5796;
428.1000;1.1412;0.5773;
428.4000;1.1437;0.5843;
428.7000;1.1396;0.5750;
429.0000;1.1412;0.5704;
429.3000;1.1412;0.5704;
429.6000;1.1404;0.5727;
429.9000;1.1412;0.5680;
430.2000;1.1429;0.5680;
430.5000;1.1412;0.5704;
430.8000;1.1437;0.5657;
431.1000;1.1420;0.5541;
431.4000;1.1412;0.5634;
431.7000;1.1388;0.5634;
432.0000;1.1437;0.5773;
432.3000;1.1412;0.5773;
432.6000;1.1445;0.5889;
432.9000;1.1420;0.5820;
433.2000;1.1429;0.5820;
433.5000;1.1461;0.5796;
433.8000;1.1429;0.5773;
434.1000;1.1420;0.5657;
434.4000;1.1445;0.5773;
434.7000;1.1420;0.5680;
435.0000;1.1429;0.5773;
435.3000;1.1412;0.5750;
435.6000;1.1412;0.5750;
435.9000;1.1404;0.5680;
436.2000;1.1437;0.5750;
436.5000;1.1412;0.5773;
436.8000;1.1420;0.5704;
437.1000;1.1404;0.5611;
437.4000;1.1420;0.5634;
437.7000;1.1445;0.5634;
438.0000;1.1429;0.5704;
438.3000;1.1437;0.5727;
438.6000;1.1429;0.5727;
438.9000;1.1429;0.5727;
439.2000;1.1404;0.5611;
439.5000;1.1420;0.5634;
439.8000;1.1412;0.5704;
440.1000;1.1420;0.5773;
440.4000;1.1412;0.5704;
440.7000;1.1380;0.5611;
441.0000;1.1412;0.5773;
441.3000;1.1461;0.5820;
441.6000;1.1412;0.5634;
441.9000;1.1412;0.5657;
442.2000;1.1355;0.5541;
442.5000;1.1420;0.5634;
442.8000;1.1420;0.5588;
443.1000;1.1412;0.5588;
443.4000;1.1445;0.5704;
443.7000;1.1429;0.5634;
444.0000;1.1437;0.5680;
444.3000;1.1355;0.5495;
444.6000;1.1412;0.5680;
444.9000;1.1429;0.5634;
445.2000;1.1420;0.5611;
445.5000;1.1404;0.5564;
445.8000;1.1388;0.5564;
446.1000;1.1412;0.5588;
446.4000;1.1404;0.5564;
446.7000;1.1420;0.5495;
447.0000;1.1380;0.5449;
447.3000;1.1437;0.5634;
447.6000;1.1412;0.5518;
447.9000;1.1404;0.5495;
448.2000;1.1445;0.5518;
448.5000;1.1412;0.5402;
448.8000;1.1429;0.5449;
449.1000;1.1420;0.5472;
449.4000;1.1461;0.5541;
449.7000;1.1420;0.5472;
450.0000;1.1445;0.5541;
450.3000;1.1412;0.5541;
450.6000;1.1412;0.5541;
450.9000;1.1372;0.5495;
451.2000;1.1347;0.5425;
451.5000;1.1494;0.5796;
451.8000;1.1412;0.5564;
452.1000;1.1420;0.5564;
452.4000;1.1404;0.5495;
452.7000;1.1420;0.5495;
453.0000;1.1437;0.5472;
453.3000;1.1420;0.5564;
453.6000;1.1412;0.5564;
453.9000;1.1453;0.5611;
454.2000;1.1420;0.5611;
454.5000;1.1412;0.5634;
454.8000;1.1404;0.5680;
455.1000;1.1429;0.5657;
455.4000;1.1412;0.5588;
455.7000;1.1388;0.5518;
456.0000;1.1420;0.5564;
456.3000;1.1412;0.5611;
456.6000;1.1404;0.5680;
456.9000;1.1404;0.5704;
457.2000;1.1396;0.5680;
457.5000;1.1486;0.5796;
457.8000;1.1420;0.5727;
458.1000;1.1429;0.5727;
458.4000;1.1396;0.5727;
458.7000;1.1404;0.5727;
459.0000;1.1412;0.5727;
459.3000;1.1404;0.5773;
459.6000;1.1420;0.5796;
459.9000;1.1404;0.5820;
460.2000;1.1420;0.5843;
460.5000;1.1404;0.5866;
460.8000;1.1404;0.5843;
461.1000;1.1412;0.5820;
461.4000;1.1404;0.5889;
461.7000;1.1404;0.5843;
462.0000;1.1412;0.5866;
462.3000;1.1404;0.5820;
462.6000;1.1388;0.5750;
462.9000;1.1380;0.5796;
463.2000;1.1347;0.5727;
463.5000;1.1372;0.5727;
463.8000;1.1420;0.5750;
464.1000;1.1396;0.5704;
464.4000;1.1412;0.5704;
464.7000;1.1372;0.5680;
465.0000;1.1404;0.5750;
465.3000;1.1404;0.5796;
465.6000;1.1437;0.5866;
465.9000;1.1404;0.5704;
466.2000;1.1469;0.5912;
466.5000;1.1355;0.5657;
466.8000;1.1404;0.5704;
467.1000;1.1461;0.5750;
467.4000;1.1477;0.5773;
467.7000;1.1363;0.5518;
468.0000;1.1437;0.5727;
468.3000;1.1429;0.5727;
468.6000;1.1420;0.5704;
468.9000;1.1404;0.5704;
469.2000;1.1404;0.5680;
469.5000;1.1412;0.5657;
469.8000;1.1412;0.5750;
470.1000;1.1331;0.5518;
470.4000;1.1396;0.5750;
470.7000;1.1412;0.5796;
471.0000;1.1339;0.5541;
471.3000;1.1412;0.5634;
471.6000;1.1404;0.5611;
471.9000;1.1347;0.5541;
472.2000;1.1404;0.5750;
472.5000;1.1404;0.5727;
472.8000;1.1404;0.5796;
473.1000;1.1420;0.5889;
473.4000;1.1404;0.5889;
473.7000;1.1396;0.5889;
474.0000;1.1404;0.5982;
474.3000;1.1404;0.6005;
474.6000;1.1420;0.5982;
474.9000;1.1420;0.5935;
475.2000;1.1396;0.5935;
475.5000;1.1420;0.5935;
475.8000;1.1420;0.5912;
476.1000;1.1412;0.5912;
476.4000;1.1420;0.5959;
476.7000;1.1420;0.5889;
477.0000;1.1412;0.5820;
477.3000;1.1412;0.5889;
477.6000;1.1412;0.5843;
477.9000;1.1404;0.5820;
478.2000;1.1420;0.5820;
478.5000;1.1412;0.5866;
478.8000;1.1404;0.5820;
479.1000;1.1412;0.5820;
479.4000;1.1437;0.5843;
479.7000;1.1412;0.5820;
480.0000;1.1420;0.5843;
480.3000;1.1396;0.5935;
480.6000;1.1429;0.6051;
480.9000;1.1420;0.6098;
481.2000;1.1420;0.6051;
481.5000;1.1412;0.6028;
481.8000;1.1404;0.6028;
482.1000;1.1429;0.6028;
482.4000;1.1420;0.5982;
482.7000;1.1420;0.5959;
483.0000;1.1404;0.5866;
483.3000;1.1412;0.5820;
483.6000;1.1404;0.5796;
483.9000;1.1420;0.5889;
484.2000;1.1420;0.5935;
484.5000;1.1412;0.5889;
484.8000;1.1477;0.6028;
485.1000;1.1412;0.5889;
485.4000;1.1412;0.5820;
485.7000;1.1420;0.5843;
486.0000;1.1429;0.5843;
486.3000;1.1412;0.5820;
486.6000;1.1388;0.5727;
486.9000;1.1404;0.5750;
487.2000;1.1347;0.5680;
487.5000;1.1420;0.5889;
487.8000;1.1404;0.5912;
488.1000;1.1396;0.5866;
488.4000;1.1429;0.5843;
488.7000;1.1412;0.5773;
489.0000;1.1404;0.5750;
489.3000;1.1429;0.5889;
489.6000;1.1388;0.5912;
489.9000;1.1396;0.5912;
490.2000;1.1404;0.5843;
490.5000;1.1388;0.5866;
490.8000;1.1396;0.5773;
491.1000;1.1388;0.5704;
491.4000;1.1396;0.5704;
491.7000;1.1420;0.5820;
492.0000;1.1412;0.5866;
492.3000;1.1388;0.5773;
492.6000;1.1412;0.5773;
492.9000;1.1404;0.5680;
493.2000;1.1412;0.5657;
493.5000;1.1396;0.5657;
493.8000;1.1404;0.5704;
494.1000;1.1412;0.5750;
494.4000;1.1412;0.5820;
494.7000;1.1380;0.5796;
495.0000;1.1380;0.5680;
495.3000;1.1404;0.5820;
495.6000;1.1404;0.5773;
495.9000;1.1404;0.5680;
496.2000;1.1412;0.5727;
496.5000;1.1404;0.5704;
496.8000;1.1412;0.5727;
497.1000;1.1420;0.5634;
497.4000;1.1388;0.5657;
497.7000;1.1404;0.5704;
498.0000;1.1412;0.5727;
498.3000;1.1315;0.5472;
498.6000;1.1429;0.5750;
498.9000;1.1388;0.5634;
499.2000;1.1388;0.5611;
499.5000;1.1412;0.5588;
499.8000;1.1404;0.5634;
500.1000;1.1396;0.5657;
500.4000;1.1404;0.5727;
500.7000;1.1412;0.5727;
501.0000;1.1404;0.5704;
501.3000;1.1412;0.5750;
501.6000;1.1429;0.5750;
501.9000;1.1420;0.5657;
502.2000;1.1412;0.5634;
502.5000;1.1404;0.5611;
502.8000;1.1420;0.5657;
503.1000;1.1372;0.5564;
503.4000;1.1429;0.5634;
503.7000;1.1412;0.5564;
504.0000;1.1404;0.5518;
504.3000;1.1420;0.5564;
504.6000;1.1396;0.5518;
504.9000;1.1469;0.5704;
505.2000;1.1396;0.5564;
505.5000;1.1404;0.5680;
505.8000;1.1453;0.5820;
506.1000;1.1396;0.5611;
506.4000;1.1429;0.5704;
506.7000;1.1429;0.5634;
507.0000;1.1412;0.5588;
507.3000;1.1420;0.5750;
507.6000;1.1469;0.5796;
507.9000;1.1429;0.5727;
508.2000;1.1404;0.5750;
508.5000;1.1437;0.5866;
508.8000;1.1412;0.5843;
509.1000;1.1404;0.5796;
509.4000;1.1404;0.5796;
509.7000;1.1412;0.5773;
510.0000;1.1396;0.5796;
510.3000;1.1437;0.5843;
510.6000;1.1404;0.5750;
510.9000;1.1355;0.5611;
511.2000;1.1396;0.5680;
511.5000;1.1396;0.5611;
511.8000;1.1412;0.5634;
512.1000;1.1412;0.5704;
512.4000;1.1380;0.5657;
512.7000;1.1404;0.5588;
513.0000;1.1404;0.5611;
513.3000;1.1412;0.5657;
513.6000;1.1404;0.5704;
513.9000;1.1404;0.5750;
514.2000;1.1404;0.5727;
514.5000;1.1420;0.5796;
514.8000;1.1404;0.5820;
515.1000;1.1404;0.5773;
515.4000;1.1429;0.5796;
515.7000;1.1404;0.5750;
516.0000;1.1355;0.5704;
516.3000;1.1437;0.5889;
516.6000;1.1396;0.5796;
516.9000;1.1404;0.5727;
517.2000;1.1429;0.5704;
517.5000;1.1396;0.5611;
517.8000;1.1404;0.5611;
518.1000;1.1388;0.5472;
518.4000;1.1412;0.5611;
518.7000;1.1412;0.5564;
519.0000;1.1396;0.5541;
519.3000;1.1331;0.5449;
519.6000;1.1404;0.5611;
519.9000;1.1404;0.5564;
520.2000;1.1404;0.5634;
520.5000;1.1396;0.5634;
520.8000;1.1396;0.5750;
521.1000;1.1420;0.5796;
521.4000;1.1412;0.5796;
521.7000;1.1404;0.5750;
522.0000;1.1396;0.5750;
522.3000;1.1323;0.5634;
522.6000;1.1412;0.5773;
522.9000;1.1380;0.5727;
523.2000;1.1396;0.5796;
523.5000;1.1420;0.5866;
523.8000;1.1412;0.5820;
524.1000;1.1404;0.5820;
524.4000;1.1412;0.5843;
524.7000;1.1412;0.5820;
525.0000;1.1412;0.5820;
525.3000;1.1420;0.5866;
525.6000;1.1396;0.5843;
525.9000;1.1404;0.5820;
526.2000;1.1396;0.5843;
526.5000;1.1420;0.5889;
526.8000;1.1396;0.5843;
527.1000;1.1404;0.5866;
527.4000;1.1380;0.5820;
527.7000;1.1363;0.5773;
528.0000;1.1404;0.5843;
528.3000;1.1420;0.5935;
528.6000;1.1412;0.5935;
528.9000;1.1404;0.5889;
529.2000;1.1396;0.5889;
529.5000;1.1420;0.5866;
529.8000;1.1412;0.5796;
530.1000;1.1420;0.5866;
530.4000;1.1412;0.5820;
530.7000;1.1412;0.5843;
531.0000;1.1404;0.5866;
531.3000;1.1396;0.5843;
531.6000;1.1404;0.5820;
531.9000;1.1396;0.5866;
532.2000;1.1396;0.5889;
532.5000;1.1412;0.5935;
532.8000;1.1363;0.5820;
533.1000;1.1396;0.5889;
533.4000;1.1396;0.5935;
533.7000;1.1404;0.6005;
534.0000;1.1420;0.6051;
534.3000;1.1388;0.5982;
534.6000;1.1388;0.5935;
534.9000;1.1412;0.6028;
535.2000;1.1420;0.6005;
535.5000;1.1412;0.5935;
535.8000;1.1412;0.5912;
536.1000;1.1404;0.5982;
536.4000;1.1380;0.5820;
536.7000;1.1404;0.5866;
537.0000;1.1372;0.5796;
537.3000;1.1396;0.5843;
537.6000;1.1412;0.5843;
537.9000;1.1404;0.5866;
538.2000;1.1396;0.5796;
538.5000;1.1396;0.5912;
538.8000;1.1404;0.5959;
539.1000;1.1404;0.5959;
539.4000;1.1420;0.5982;
539.7000;1.1396;0.5866;
540.0000;1.1420;0.5889;
540.3000;1.1363;0.5750;
540.6000;1.1404;0.5889;
540.9000;1.1388;0.5866;
541.2000;1.1396;0.5935;
541.5000;1.1412;0.6005;
541.8000;1.1404;0.5889;
542.1000;1.1380;0.5820;
542.4000;1.1380;0.5773;
542.7000;1.1396;0.5843;
543.0000;1.1396;0.5866;
543.3000;1.1339;0.5889;
543.6000;1.1396;0.6075;
543.9000;1.1396;0.6051;
544.2000;1.1363;0.5959;
544.5000;1.1396;0.6051;
544.8000;1.1363;0.6051;
545.1000;1.1380;0.6051;
545.4000;1.1388;0.6098;
545.7000;1.1396;0.6098;
546.0000;1.1420;0.6144;
546.3000;1.1396;0.6167;
546.6000;1.1404;0.6191;
546.9000;1.1404;0.6121;
547.2000;1.1396;0.6144;
547.5000;1.1380;0.6075;
547.8000;1.1388;0.6028;
548.1000;1.1396;0.5982;
548.4000;1.1445;0.6051;
548.7000;1.1372;0.5889;
549.0000;1.1412;0.5959;
549.3000;1.1445;0.5982;
549.6000;1.1404;0.5866;
549.9000;1.1396;0.5866;
550.2000;1.1396;0.5935;
550.5000;1.1404;0.5843;
550.8000;1.1396;0.5773;
551.1000;1.1420;0.5889;
551.4000;1.1396;0.5866;
551.7000;1.1404;0.5912;
552.0000;1.1412;0.5959;
552.3000;1.1396;0.5912;
552.6000;1.1380;0.5889;
552.9000;1.1404;0.5935;
553.2000;1.1420;0.5982;
553.5000;1.1396;0.5935;
553.8000;1.1396;0.5866;
554.1000;1.1388;0.5843;
554.4000;1.1412;0.5889;
554.7000;1.1420;0.5889;
555.0000;1.1372;0.5796;
555.3000;1.1404;0.5935;
555.6000;1.1396;0.5889;
555.9000;1.1404;0.5843;
556.2000;1.1396;0.5820;
556.5000;1.1453;0.5912;
556.8000;1.1396;0.5843;
557.1000;1.1404;0.5866;
557.4000;1.1380;0.5843;
557.7000;1.1396;0.5796;
558.0000;1.1420;0.5889;
558.3000;1.1412;0.5912;
558.6000;1.1445;0.6028;
558.9000;1.1372;0.5866;
559.2000;1.1396;0.6005;
559.5000;1.1404;0.6075;
559.8000;1.1404;0.6028;
560.1000;1.1388;0.5982;
560.4000;1.1380;0.5866;
560.7000;1.1420;0.5912;
561.0000;1.1396;0.5796;
561.3000;1.1404;0.5704;
561.6000;1.1380;0.5657;
561.9000;1.1396;0.5634;
562.2000;1.1412;0.5750;
562.5000;1.1404;0.5657;
562.8000;1.1388;0.5634;
563.1000;1.1347;0.5564;
563.4000;1.1388;0.5750;
563.7000;1.1396;0.5796;
564.0000;1.1380;0.5820;
564.3000;1.1372;0.5843;
564.6000;1.1396;0.5959;
564.9000;1.1388;0.5912;
565.2000;1.1372;0.5889;
565.5000;1.1404;0.5889;
565.8000;1.1412;0.5843;
566.1000;1.1388;0.5820;
566.4000;1.1388;0.5773;
566.7000;1.1380;0.5750;
567.0000;1.1396;0.5796;
567.3000;1.1404;0.5796;
567.6000;1.1380;0.5773;
567.9000;1.1372;0.5773;
568.2000;1.1388;0.5796;
568.5000;1.1420;0.5866;
568.8000;1.1396;0.5727;
569.1000;1.1363;0.5704;
569.4000;1.1372;0.5750;
569.7000;1.1363;0.5727;
570.0000;1.1388;0.5727;
570.3000;1.1388;0.5727;
570.6000;1.1396;0.5750;
570.9000;1.1388;0.5773;
571.2000;1.1388;0.5843;
571.5000;1.1396;0.5889;
571.8000;1.1380;0.5843;
572.1000;1.1396;0.5843;
572.4000;1.1396;0.5889;
572.7000;1.1412;0.5773;
573.0000;1.1396;0.5820;
573.3000;1.1396;0.5820;
573.6000;1.1469;0.5982;
573.9000;1.1347;0.5704;
574.2000;1.1388;0.5866;
574.5000;1.1396;0.5773;
574.8000;1.1404;0.5750;
575.1000;1.1388;0.5657;
575.4000;1.1380;0.5634;
575.7000;1.1347;0.5657;
576.0000;1.1388;0.5727;
576.3000;1.1396;0.5750;
576.6000;1.1372;0.5704;
576.9000;1.1396;0.5680;
577.2000;1.1404;0.5680;
577.5000;1.1420;0.5657;
577.8000;1.1404;0.5634;
578.1000;1.1396;0.5588;
578.4000;1.1372;0.5727;
578.7000;1.1404;0.5796;
579.0000;1.1396;0.5889;
579.3000;1.1412;0.6005;
579.6000;1.1388;0.5889;
579.9000;1.1380;0.5820;
580.2000;1.1396;0.5866;
580.5000;1.1461;0.5982;
580.8000;1.1363;0.5727;
581.1000;1.1396;0.5820;
581.4000;1.1396;0.5750;
581.7000;1.1396;0.5820;
582.0000;1.1396;0.5889;
582.3000;1.1380;0.5889;
582.6000;1.1420;0.5912;
582.9000;1.1412;0.5820;
583.2000;1.1347;0.5704;
583.5000;1.1347;0.5796;
583.8000;1.1372;0.5935;
584.1000;1.1396;0.6075;
584.4000;1.1380;0.6005;
584.7000;1.1355;0.5820;
585.0000;1.1372;0.5959;
585.3000;1.1412;0.5959;
585.6000;1.1445;0.5982;
585.9000;1.1396;0.5773;
586.2000;1.1404;0.5727;
586.5000;1.1412;0.5657;
586.8000;1.1420;0.5750;
587.1000;1.1420;0.5820;
587.4000;1.1396;0.5843;
587.7000;1.1396;0.5843;
588.0000;1.1388;0.5820;
588.3000;1.1372;0.5796;
588.6000;1.1388;0.5843;
588.9000;1.1388;0.5843;
589.2000;1.1388;0.5889;
589.5000;1.1388;0.5959;
589.8000;1.1380;0.5843;
590.1000;1.1388;0.5843;
590.4000;1.1388;0.5843;
590.7000;1.1404;0.5843;
591.0000;1.1363;0.5843;
591.3000;1.1388;0.5935;
591.6000;1.1388;0.5912;
591.9000;1.1363;0.5889;
592.2000;1.1404;0.6121;
592.5000;1.1355;0.6028;
592.8000;1.1388;0.6121;
593.1000;1.1412;0.6075;
593.4000;1.1355;0.5982;
593.7000;1.1380;0.5982;
594.0000;1.1412;0.6005;
594.3000;1.1404;0.5959;
594.6000;1.1404;0.5935;
594.9000;1.1396;0.5843;
595.2000;1.1420;0.5866;
595.5000;1.1388;0.5843;
595.8000;1.1404;0.5912;
596.1000;1.1420;0.5912;
596.4000;1.1404;0.5843;
596.7000;1.1404;0.5796;
597.0000;1.1412;0.5796;
597.3000;1.1404;0.5889;
597.6000;1.1404;0.5912;
597.9000;1.1396;0.5935;
598.2000;1.1404;0.5982;
598.5000;1.1412;0.6005;
598.8000;1.1388;0.6005;
599.1000;1.1388;0.6005;
599.4000;1.1372;0.5935;
599.7000;1.1323;0.5796;
600.0000;1.1388;0.5935;
600.3000;1.1380;0.5866;
600.6000;1.1355;0.5611;
600.9000;1.1298;0.5379;
601.2000;1.1217;0.5194;
601.5000;1.1127;0.4962;
601.8000;1.1013;0.4637;
602.1000;1.0924;0.4382;
602.4000;1.0851;0.4104;
602.7000;1.0729;0.3895;
603.0000;1.0631;0.3710;
603.3000;1.0590;0.3663;
603.6000;1.0476;0.3478;
603.9000;1.0395;0.3316;
604.2000;1.0322;0.3153;
604.5000;1.0265;0.2945;
604.8000;1.0183;0.2829;
605.1000;1.0102;0.2620;
605.4000;1.0045;0.2411;
605.7000;0.9996;0.2226;
606.0000;0.9931;0.2110;
606.3000;0.9866;0.1948;
606.6000;0.9825;0.1901;
606.9000;0.9784;0.1832;
607.2000;0.9727;0.1832;
607.5000;0.9678;0.1855;
607.8000;0.9613;0.1832;
608.1000;0.9638;0.1878;
608.4000;0.9516;0.1600;
608.7000;0.9491;0.1553;
609.0000;0.9459;0.1577;
609.3000;0.9418;0.1623;
609.6000;0.9369;0.1553;
609.9000;0.9312;0.1553;
610.2000;0.9328;0.1669;
610.5000;0.9223;0.1461;
610.8000;0.9206;0.1437;
611.1000;0.9149;0.1345;
611.4000;0.9133;0.1368;
611.7000;0.9084;0.1368;
612.0000;0.9068;0.1368;
612.3000;0.9011;0.1252;
612.6000;0.8978;0.1206;
612.9000;0.8962;0.1182;
613.2000;0.8921;0.1182;
613.5000;0.8913;0.1043;
613.8000;0.8864;0.0974;
614.1000;0.8864;0.1067;
614.4000;0.8767;0.0881;
614.7000;0.8799;0.0951;
615.0000;0.8751;0.0974;
615.3000;0.8783;0.1020;
615.6000;0.8734;0.0904;
615.9000;0.8645;0.0788;
616.2000;0.8653;0.0858;
616.5000;0.8628;0.0858;
616.8000;0.8604;0.0696;
617.1000;0.8563;0.0626;
617.4000;0.8555;0.0603;
617.7000;0.8531;0.0580;
618.0000;0.8498;0.0510;
618.3000;0.8482;0.0556;
618.6000;0.8457;0.0533;
618.9000;0.8449;0.0533;
619.2000;0.8409;0.0464;
619.5000;0.8368;0.0510;
619.8000;0.8376;0.0533;
620.1000;0.8319;0.0394;
620.4000;0.8327;0.0464;
620.7000;0.8303;0.0510;
621.0000;0.8295;0.0580;
621.3000;0.8278;0.0533;
621.6000;0.8221;0.0464;
621.9000;0.8230;0.0417;
622.2000;0.8230;0.0510;
622.5000;0.8181;0.0417;
622.8000;0.8238;0.0626;
623.1000;0.8189;0.0510;
623.4000;0.8124;0.0394;
623.7000;0.8132;0.0417;
624.0000;0.8107;0.0441;
624.3000;0.8091;0.0371;
624.6000;0.8083;0.0301;
624.9000;0.8067;0.0278;
625.2000;0.8067;0.0278;
625.5000;0.8026;0.0278;
625.8000;0.8018;0.0325;
626.1000;0.8002;0.0417;
626.4000;0.7985;0.0441;
626.7000;0.7969;0.0417;
627.0000;0.7945;0.0371;
627.3000;0.7937;0.0371;
627.6000;0.7937;0.0371;
627.9000;0.7912;0.0348;
628.2000;0.7888;0.0348;
628.5000;0.7888;0.0348;
628.8000;0.7888;0.0464;
629.1000;0.7863;0.0417;
629.4000;0.7823;0.0278;
629.7000;0.7831;0.0371;
630.0000;0.7831;0.0394;
630.3000;0.7798;0.0301;
630.6000;0.7790;0.0255;
630.9000;0.7790;0.0255;
631.2000;0.7774;0.0209;
631.5000;0.7782;0.0301;
631.8000;0.7733;0.0162;
632.1000;0.7741;0.0255;
632.4000;0.7725;0.0278;
632.7000;0.7725;0.0325;
633.0000;0.7692;0.0301;
633.3000;0.7692;0.0301;
633.6000;0.7684;0.0209;
633.9000;0.7668;0.0209;
634.2000;0.7652;0.0209;
634.5000;0.7652;0.0209;
634.8000;0.7627;0.0093;
635.1000;0.7643;0.0093;
635.4000;0.7660;0.0070;
635.7000;0.7627;0.0070;
636.0000;0.7611;0.0046;
636.3000;0.7627;0.0093;
636.6000;0.7611;0.0185;
636.9000;0.7595;0.0139;
637.2000;0.7570;0.0116;
637.5000;0.7603;0.0209;
637.8000;0.7562;0.0162;
638.1000;0.7562;0.0116;
638.4000;0.7546;0.0162;
638.7000;0.7530;0.0116;
639.0000;0.7530;0.0185;
639.3000;0.7578;0.0371;
639.6000;0.7513;0.0209;
639.9000;0.7513;0.0162;
640.2000;0.7489;0.0046;
640.5000;0.7440;-0.0023;
640.8000;0.7473;0.0023;
641.1000;0.7538;0.0162;
641.4000;0.7464;0.0000;
641.7000;0.7424;0.0023;
642.0000;0.7440;0.0070;
642.3000;0.7416;0.0070;
642.6000;0.7416;0.0093;
642.9000;0.7456;0.0185;
643.2000;0.7399;0.0023;
643.5000;0.7416;0.0046;
643.8000;0.7399;0.0070;
644.1000;0.7440;0.0162;
644.4000;0.7399;0.0162;
644.7000;0.7391;0.0093;
645.0000;0.7367;0.0070;
645.3000;0.7367;0.0139;
645.6000;0.7310;0.0023;
645.9000;0.7359;0.0162;
646.2000;0.7375;0.0255;
646.5000;0.7293;0.0093;
646.8000;0.7391;0.0301;
647.1000;0.7342;0.0209;
647.4000;0.7326;0.0255;
647.7000;0.7302;0.0394;
648.0000;0.7293;0.0394;
648.3000;0.7310;0.0301;
648.6000;0.7293;0.0255;
648.9000;0.7285;0.0209;
649.2000;0.7277;0.0185;
649.5000;0.7277;0.0232;
649.8000;0.7285;0.0185;
650.1000;0.7277;0.0162;
650.4000;0.7253;0.0070;
650.7000;0.7253;0.0070;
651.0000;0.7228;0.0023;
651.3000;0.7236;0.0116;
651.6000;0.7228;0.0139;
651.9000;0.7228;0.0185;
652.2000;0.7204;0.0209;
652.5000;0.7204;0.0162;
652.8000;0.7204;0.0162;
653.1000;0.7204;0.0046;
653.4000;0.7139;-0.0116;
653.7000;0.7196;0.0070;
654.0000;0.7188;0.0000;
654.3000;0.7196;0.0046;
654.6000;0.7188;0.0023;
654.9000;0.7171;0.0046;
655.2000;0.7155;-0.0023;
655.5000;0.7147;0.0000;
655.8000;0.7171;-0.0023;
656.1000;0.7163;-0.0070;
656.4000;0.7147;-0.0093;
656.7000;0.7139;-0.0070;
657.0000;0.7139;-0.0023;
657.3000;0.7131;-0.0070;
657.6000;0.7139;-0.0046;
657.9000;0.7114;-0.0093;
658.2000;0.7106;-0.0116;
658.5000;0.7155;0.0000;
658.8000;0.7106;-0.0023;
659.1000;0.7098;0.0000;
659.4000;0.7106;-0.0023;
659.7000;0.7098;0.0023;
660.0000;0.7098;0.0023;
660.3000;0.7098;0.0070;
660.6000;0.7098;0.0046;
660.9000;0.7098;0.0070;
661.2000;0.7074;0.0070;
661.5000;0.7074;0.0093;
661.8000;0.7049;0.0093;
662.1000;0.7098;0.0162;
662.4000;0.7009;-0.0070;
662.7000;0.7049;-0.0070;
663.0000;0.7057;0.0046;
663.3000;0.7025;0.0000;
663.6000;0.7041;0.0023;
663.9000;0.7025;-0.0046;
664.2000;0.7025;-0.0023;
664.5000;0.7033;-0.0093;
664.8000;0.7025;-0.0093;
665.1000;0.7017;-0.0070;
665.4000;0.7025;-0.0139;
665.7000;0.6992;-0.0209;
666.0000;0.7074;0.0000;
666.3000;0.7009;-0.0185;
666.6000;0.6992;-0.0162;
666.9000;0.6984;-0.0116;
667.2000;0.6984;-0.0255;
667.5000;0.7009;-0.0162;
667.8000;0.6976;-0.0139;
668.1000;0.6976;-0.0116;
668.4000;0.6984;-0.0185;
668.7000;0.6984;-0.0232;
669.0000;0.6968;-0.0255;
669.3000;0.6960;-0.0255;
669.6000;0.6927;-0.0348;
669.9000;0.6960;-0.0232;
670.2000;0.6952;-0.0185;
670.5000;0.6968;-0.0116;
670.8000;0.7000;0.0000;
671.1000;0.6984;0.0046;
671.4000;0.6935;-0.0070;
671.7000;0.6927;-0.0046;
672.0000;0.6927;-0.0116;
672.3000;0.6952;-0.0139;
672.6000;0.6919;-0.0185;
672.9000;0.6919;-0.0209;
673.2000;0.6919;-0.0185;
673.5000;0.6919;-0.0209;
673.8000;0.6919;-0.0232;
674.1000;0.6895;-0.0278;
674.4000;0.6919;-0.0185;
674.7000;0.6895;-0.0185;
675.0000;0.6911;-0.0162;
675.3000;0.6943;0.0000;
675.6000;0.6862;-0.0139;
675.9000;0.6862;-0.0162;
676.2000;0.6895;-0.0070;
676.5000;0.6895;-0.0023;
676.8000;0.6870;-0.0023;
677.1000;0.6862;-0.0093;
677.4000;0.6854;-0.0093;
677.7000;0.6870;-0.0070;
678.0000;0.6862;-0.0046;
678.3000;0.6846;0.0000;
678.6000;0.6854;0.0023;
678.9000;0.6854;0.0070;
679.2000;0.6846;0.0116;
679.5000;0.6829;0.0023;
679.8000;0.6854;0.0000;
680.1000;0.6829;0.0023;
680.4000;0.6846;0.0070;
680.7000;0.6838;0.0070;
681.0000;0.6813;0.0070;
681.3000;0.6838;0.0046;
681.6000;0.6805;0.0000;
681.9000;0.6813;-0.0023;
682.2000;0.6821;0.0000;
682.5000;0.6838;0.0070;
682.8000;0.6854;0.0162;
683.1000;0.6829;0.0046;
683.4000;0.6854;0.0093;
683.7000;0.6805;0.0093;
684.0000;0.6789;0.0046;
684.3000;0.6789;-0.0023;
684.6000;0.6781;-0.0023;
684.9000;0.6772;-0.0023;
685.2000;0.6772;0.0023;
685.5000;0.6797;0.0046;
685.8000;0.6797;0.0000;
686.1000;0.6772;-0.0070;
686.4000;0.6772;-0.0070;
686.7000;0.6764;-0.0070;
687.0000;0.6772;0.0000;
687.3000;0.6764;0.0116;
687.6000;0.6756;0.0046;
687.9000;0.6764;0.0093;
688.2000;0.6781;0.0000;
688.5000;0.6772;-0.0046;
688.8000;0.6748;-0.0070;
689.1000;0.6748;0.0023;
689.4000;0.6748;0.0000;
689.7000;0.6732;0.0023;
690.0000;0.6683;-0.0139;
690.3000;0.6764;-0.0023;
690.6000;0.6716;-0.0070;
690.9000;0.6740;-0.0070;
691.2000;0.6732;-0.0046;
691.5000;0.6748;-0.0023;
691.8000;0.6740;-0.0116;
692.1000;0.6748;0.0000;
692.4000;0.6740;-0.0070;
692.7000;0.6724;0.0000;
693.0000;0.6724;0.0046;
693.3000;0.6683;-0.0116;
693.6000;0.6691;-0.0046;
693.9000;0.6781;0.0162;
694.2000;0.6724;0.0139;
694.5000;0.6716;0.0116;
694.8000;0.6716;0.0046;
695.1000;0.6691;-0.0023;
695.4000;0.6675;0.0070;
695.7000;0.6699;0.0116;
696.0000;0.6699;0.0046;
696.3000;0.6667;-0.0046;
696.6000;0.6683;-0.0046;
696.9000;0.6667;-0.0046;
697.2000;0.6691;0.0000;
697.5000;0.6683;0.0000;
697.8000;0.6675;0.0093;
698.1000;0.6667;0.0046;
698.4000;0.6626;-0.0070;
698.7000;0.6667;0.0046;
699.0000;0.6683;0.0116;
699.3000;0.6642;-0.0023;
699.6000;0.6659;0.0000;
699.9000;0.6659;-0.0023;
700.2000;0.6642;-0.0116;
700.5000;0.6642;-0.0093;
700.8000;0.6610;-0.0232;
701.1000;0.6634;-0.0162;
701.4000;0.6626;-0.0185;
701.7000;0.6642;-0.0116;
702.0000;0.6650;-0.0116;
702.3000;0.6675;0.0023;
702.6000;0.6626;-0.0116;
702.9000;0.6634;-0.0139;
703.2000;0.6626;-0.0162;
703.5000;0.6634;-0.0070;
703.8000;0.6642;-0.0023;
704.1000;0.6634;-0.0046;
704.4000;0.6650;0.0116;
704.7000;0.6650;0.0000;
705.0000;0.6634;-0.0023;
705.3000;0.6626;-0.0046;
705.6000;0.6626;0.0023;
705.9000;0.6618;0.0000;
706.2000;0.6593;-0.0046;
706.5000;0.6675;0.0185;
706.8000;0.6602;0.0093;
707.1000;0.6585;0.0070;
707.4000;0.6626;0.0162;
707.7000;0.6602;0.0070;
708.0000;0.6593;0.0023;
708.3000;0.6618;0.0046;
708.6000;0.6577;-0.0139;
708.9000;0.6626;0.0023;
709.2000;0.6610;0.0000;
709.5000;0.6602;0.0070;
709.8000;0.6602;0.0093;
710.1000;0.6593;0.0046;
710.4000;0.6675;0.0325;
710.7000;0.6585;0.0070;
711.0000;0.6602;0.0116;
711.3000;0.6593;0.0093;
711.6000;0.6602;0.0000;
711.9000;0.6569;0.0000;
712.2000;0.6585;0.0023;
712.5000;0.6569;-0.0070;
712.8000;0.6561;-0.0116;
713.1000;0.6569;-0.0070;
713.4000;0.6561;-0.0139;
713.7000;0.6585;-0.0139;
714.0000;0.6577;-0.0093;
714.3000;0.6569;-0.0046;
714.6000;0.6618;0.0139;
714.9000;0.6569;0.0000;
715.2000;0.6536;-0.0093;
715.5000;0.6520;-0.0185;
715.8000;0.6545;-0.0093;
716.1000;0.6602;0.0070;
716.4000;0.6520;-0.0093;
716.7000;0.6545;-0.0116;
717.0000;0.6545;-0.0139;
717.3000;0.6602;0.0070;
717.6000;0.6577;0.0023;
717.9000;0.6545;-0.0023;
718.2000;0.6545;0.0093;
718.5000;0.6536;0.0000;
718.8000;0.6553;0.0070;
719.1000;0.6528;0.0093;
719.4000;0.6528;0.0046;
719.7000;0.6528;-0.0023;
720.0000;0.6536;0.0046;
720.3000;0.6528;0.0046;
720.6000;0.6528;-0.0070;
720.9000;0.6488;-0.0139;
721.2000;0.6520;-0.0046;
721.5000;0.6536;0.0023;
721.8000;0.6528;-0.0023;
722.1000;0.6528;-0.0093;
722.4000;0.6512;-0.0116;
722.7000;0.6528;-0.0023;
723.0000;0.6520;-0.0139;
723.3000;0.6504;-0.0162;
723.6000;0.6512;-0.0116;
723.9000;0.6528;-0.0139;
724.2000;0.6561;-0.0070;
724.5000;0.6504;-0.0255;
724.8000;0.6504;-0.0209;
725.1000;0.6520;-0.0116;
725.4000;0.6520;-0.0046;
725.7000;0.6504;-0.0116;
726.0000;0.6504;-0.0023;
726.3000;0.6504;0.0023;
726.6000;0.6528;0.0139;
726.9000;0.6504;0.0070;
727.2000;0.6488;0.0000;
727.5000;0.6488;-0.0070;
727.8000;0.6545;0.0023;
728.1000;0.6520;0.0000;
728.4000;0.6496;0.0000;
728.7000;0.6504;0.0023;
729.0000;0.6488;-0.0070;
729.3000;0.6463;-0.0116;
729.6000;0.6504;0.0093;
729.9000;0.6471;0.0139;
730.2000;0.6471;0.0093;
730.5000;0.6512;0.0070;
730.8000;0.6496;0.0046;
731.1000;0.6471;0.0000;
731.4000;0.6422;-0.0070;
731.7000;0.6455;0.0139;
732.0000;0.6455;0.0185;
732.3000;0.6463;0.0139;
732.6000;0.6447;0.0070;
732.9000;0.6455;0.0093;
733.2000;0.6447;0.0046;
733.5000;0.6463;0.0116;
733.8000;0.6439;0.0023;
734.1000;0.6463;0.0046;
734.4000;0.6463;0.0070;
734.7000;0.6439;0.0046;
735.0000;0.6455;0.0070;
735.3000;0.6463;0.0162;
735.6000;0.6463;0.0139;
735.9000;0.6447;0.0116;
736.2000;0.6447;0.0093;
736.5000;0.6447;0.0093;
736.8000;0.6447;-0.0023;
737.1000;0.6439;0.0070;
737.4000;0.6447;0.0209;
737.7000;0.6422;0.0162;
738.0000;0.6439;0.0232;
738.3000;0.6439;0.0301;
738.6000;0.6431;0.0255;
738.9000;0.6422;0.0255;
739.2000;0.6406;0.0209;
739.5000;0.6414;0.0232;
739.8000;0.6422;0.0162;
740.1000;0.6374;0.0116;
740.4000;0.6422;0.0185;
740.7000;0.6431;0.0162;
741.0000;0.6431;0.0093;
741.3000;0.6431;0.0232;
741.6000;0.6439;0.0278;
741.9000;0.6414;0.0232;
742.2000;0.6414;0.0348;
742.5000;0.6398;0.0348;
742.8000;0.6406;0.0371;
743.1000;0.6414;0.0325;
743.4000;0.6406;0.0278;
743.7000;0.6414;0.0325;
744.0000;0.6398;0.0301;
744.3000;0.6382;0.0232;
744.6000;0.6414;0.0394;
744.9000;0.6398;0.0348;
745.2000;0.6447;0.0417;
745.5000;0.6414;0.0348;
745.8000;0.6406;0.0348;
746.1000;0.6398;0.0301;
746.4000;0.6398;0.0209;
746.7000;0.6398;0.0139;
747.0000;0.6398;0.0162;
747.3000;0.6422;0.0232;
747.6000;0.6382;0.0162;
747.9000;0.6382;0.0116;
748.2000;0.6463;0.0371;
748.5000;0.6414;0.0301;
748.8000;0.6390;0.0209;
749.1000;0.6414;0.0255;
749.4000;0.6382;0.0139;
749.7000;0.6431;0.0139;
750.0000;0.6382;0.0093;
750.3000;0.6382;0.0139;
750.6000;0.6390;0.0139;
750.9000;0.6390;0.0162;
751.2000;0.6382;0.0093;
751.5000;0.6390;0.0093;
751.8000;0.6357;0.0162;
752.1000;0.6374;0.0185;
752.4000;0.6374;0.0093;
752.7000;0.6398;0.0209;
753.0000;0.6382;0.0162;
753.3000;0.6325;0.0023;
753.6000;0.6390;0.0185;
753.9000;0.6365;0.0162;
754.2000;0.6382;0.0185;
754.5000;0.6341;0.0093;
754.8000;0.6374;0.0209;
755.1000;0.6317;0.0139;
755.4000;0.6325;0.0162;
755.7000;0.6365;0.0325;
756.0000;0.6390;0.0325;
756.3000;0.6398;0.0278;
756.6000;0.6349;0.0185;
756.9000;0.6341;0.0232;
757.2000;0.6357;0.0278;
757.5000;0.6365;0.0301;
757.8000;0.6357;0.0301;
758.1000;0.6349;0.0371;
758.4000;0.6349;0.0301;
758.7000;0.6325;0.0348;
759.0000;0.6333;0.0255;
759.3000;0.6341;0.0278;
759.6000;0.6333;0.0185;
759.9000;0.6365;0.0232;
760.2000;0.6365;0.0325;
760.5000;0.6333;0.0162;
760.8000;0.6390;0.0371;
761.1000;0.6357;0.0325;
761.4000;0.6333;0.0255;
761.7000;0.6349;0.0209;
762.0000;0.6390;0.0325;
762.3000;0.6365;0.0185;
762.6000;0.6357;0.0162;
762.9000;0.6349;0.0185;
763.2000;0.6325;0.0232;
763.5000;0.6341;0.0232;
763.8000;0.6341;0.0255;
764.1000;0.6406;0.0441;
764.4000;0.6325;0.0371;
764.7000;0.6300;0.0278;
765.0000;0.6349;0.0371;
765.3000;0.6325;0.0348;
765.6000;0.6309;0.0301;
765.9000;0.6300;0.0301;
766.2000;0.6333;0.0394;
766.5000;0.6309;0.0348;
766.8000;0.6309;0.0232;
767.1000;0.6317;0.0255;
767.4000;0.6309;0.0255;
767.7000;0.6309;0.0278;
768.0000;0.6317;0.0232;
768.3000;0.6349;0.0278;
768.6000;0.6300;0.0209;
768.9000;0.6317;0.0255;
769.2000;0.6309;0.0255;
769.5000;0.6325;0.0301;
769.8000;0.6317;0.0301;
770.1000;0.6317;0.0394;
770.4000;0.6284;0.0301;
770.7000;0.6292;0.0371;
771.0000;0.6300;0.0348;
771.3000;0.6300;0.0325;
771.6000;0.6317;0.0371;
771.9000;0.6309;0.0394;
772.2000;0.6300;0.0394;
772.5000;0.6325;0.0394;
772.8000;0.6325;0.0394;
773.1000;0.6309;0.0417;
773.4000;0.6284;0.0371;
773.7000;0.6349;0.0556;
774.0000;0.6325;0.0533;
774.3000;0.6300;0.0487;
774.6000;0.6300;0.0417;
774.9000;0.6292;0.0417;
775.2000;0.6268;0.0441;
775.5000;0.6284;0.0371;
775.8000;0.6268;0.0325;
776.1000;0.6276;0.0394;
776.4000;0.6260;0.0325;
776.7000;0.6260;0.0325;
777.0000;0.6284;0.0371;
777.3000;0.6276;0.0394;
777.6000;0.6284;0.0394;
777.9000;0.6276;0.0417;
778.2000;0.6260;0.0441;
778.5000;0.6268;0.0441;
778.8000;0.6276;0.0487;
779.1000;0.6284;0.0464;
779.4000;0.6276;0.0464;
779.7000;0.6260;0.0394;
780.0000;0.6260;0.0301;
780.3000;0.6243;0.0255;
780.6000;0.6292;0.0394;
780.9000;0.6227;0.0185;
781.2000;0.6268;0.0301;
781.5000;0.6260;0.0255;
781.8000;0.6276;0.0255;
782.1000;0.6243;0.0278;
782.4000;0.6268;0.0278;
782.7000;0.6276;0.0348;
783.0000;0.6309;0.0394;
783.3000;0.6268;0.0232;
783.6000;0.6243;0.0209;
783.9000;0.6268;0.0255;
784.2000;0.6292;0.0394;
784.5000;0.6292;0.0371;
784.8000;0.6300;0.0441;
785.1000;0.6227;0.0278;
785.4000;0.6268;0.0510;
785.7000;0.6309;0.0556;
786.0000;0.6276;0.0533;
786.3000;0.6260;0.0464;
786.6000;0.6260;0.0394;
786.9000;0.6252;0.0348;
787.2000;0.6243;0.0348;
787.5000;0.6252;0.0441;
787.8000;0.6211;0.0417;
788.1000;0.6235;0.0510;
788.4000;0.6243;0.0556;
788.7000;0.6292;0.0603;
789.0000;0.6243;0.0580;
789.3000;0.6243;0.0533;
789.6000;0.6243;0.0533;
789.9000;0.6186;0.0441;
790.2000;0.6227;0.0464;
790.5000;0.6235;0.0464;
790.8000;0.6252;0.0556;
791.1000;0.6227;0.0394;
791.4000;0.6268;0.0441;
791.7000;0.6243;0.0417;
792.0000;0.6243;0.0510;
792.3000;0.6243;0.0533;
792.6000;0.6227;0.0487;
792.9000;0.6219;0.0464;
793.2000;0.6219;0.0556;
793.5000;0.6235;0.0626;
793.8000;0.6227;0.0649;
794.1000;0.6235;0.0603;
794.4000;0.6211;0.0487;
794.7000;0.6227;0.0533;
795.0000;0.6252;0.0533;
795.3000;0.6252;0.0533;
795.6000;0.6243;0.0510;
795.9000;0.6300;0.0626;
796.2000;0.6227;0.0464;
796.5000;0.6227;0.0487;
796.8000;0.6219;0.0417;
797.1000;0.6235;0.0464;
797.4000;0.6227;0.0487;
797.7000;0.6219;0.0533;
798.0000;0.6260;0.0603;
798.3000;0.6219;0.0510;
798.6000;0.6219;0.0464;
798.9000;0.6235;0.0417;
799.2000;0.6219;0.0441;
799.5000;0.6211;0.0441;
799.8000;0.6219;0.0487;
800.1000;0.6235;0.0441;
800.4000;0.6211;0.0417;
800.7000;0.6195;0.0417;
801.0000;0.6211;0.0417;
801.3000;0.6203;0.0348;
801.6000;0.6203;0.0325;
801.9000;0.6195;0.0325;
802.2000;0.6203;0.0325;
802.5000;0.6154;0.0301;
802.8000;0.6219;0.0394;
803.1000;0.6211;0.0348;
803.4000;0.6219;0.0417;
803.7000;0.6138;0.0209;
804.0000;0.6162;0.0255;
804.3000;0.6219;0.0417;
804.6000;0.6203;0.0371;
804.9000;0.6203;0.0371;
805.2000;0.6211;0.0232;
805.5000;0.6211;0.0232;
805.8000;0.6235;0.0255;
806.1000;0.6203;0.0232;
806.4000;0.6219;0.0325;
806.7000;0.6227;0.0394;
807.0000;0.6211;0.0417;
807.3000;0.6235;0.0441;
807.6000;0.6219;0.0394;
807.9000;0.6219;0.0325;
808.2000;0.6203;0.0301;
808.5000;0.6203;0.0278;
808.8000;0.6203;0.0255;
809.1000;0.6211;0.0371;
809.4000;0.6211;0.0394;
809.7000;0.6162;0.0394;
810.0000;0.6292;0.0788;
810.3000;0.6203;0.0556;
810.6000;0.6146;0.0417;
810.9000;0.6186;0.0464;
811.2000;0.6195;0.0417;
811.5000;0.6170;0.0394;
811.8000;0.6186;0.0348;
812.1000;0.6178;0.0325;
812.4000;0.6195;0.0487;
812.7000;0.6186;0.0487;
813.0000;0.6178;0.0464;
813.3000;0.6211;0.0556;
813.6000;0.6186;0.0533;
813.9000;0.6178;0.0649;
814.2000;0.6203;0.0696;
814.5000;0.6162;0.0580;
814.8000;0.6178;0.0672;
815.1000;0.6170;0.0649;
815.4000;0.6162;0.0626;
815.7000;0.6186;0.0649;
816.0000;0.6162;0.0603;
816.3000;0.6162;0.0556;
816.6000;0.6178;0.0649;
816.9000;0.6162;0.0649;
817.2000;0.6170;0.0626;
817.5000;0.6178;0.0649;
817.8000;0.6154;0.0556;
818.1000;0.6178;0.0672;
818.4000;0.6154;0.0696;
818.7000;0.6170;0.0719;
819.0000;0.6162;0.0696;
819.3000;0.6170;0.0719;
819.6000;0.6186;0.0765;
819.9000;0.6170;0.0719;
820.2000;0.6138;0.0696;
820.5000;0.6186;0.0742;
820.8000;0.6195;0.0811;
821.1000;0.6186;0.0765;
821.4000;0.6178;0.0811;
821.7000;0.6203;0.0858;
822.0000;0.6138;0.0696;
822.3000;0.6154;0.0765;
822.6000;0.6162;0.0858;
822.9000;0.6121;0.0765;
823.2000;0.6170;0.0835;
823.5000;0.6146;0.0788;
823.8000;0.6154;0.0811;
824.1000;0.6154;0.0811;
824.4000;0.6154;0.0788;
824.7000;0.6154;0.0811;
825.0000;0.6186;0.0881;
825.3000;0.6211;0.0974;
825.6000;0.6162;0.0881;
825.9000;0.6105;0.0788;
826.2000;0.6154;0.0788;
826.5000;0.6056;0.0487;
826.8000;0.6178;0.0719;
827.1000;0.6138;0.0510;
827.4000;0.6129;0.0510;
827.7000;0.6162;0.0510;
828.0000;0.6162;0.0487;
828.3000;0.6113;0.0510;
828.6000;0.6146;0.0719;
828.9000;0.6129;0.0672;
829.2000;0.6121;0.0580;
829.5000;0.6138;0.0626;
829.8000;0.6146;0.0719;
830.1000;0.6097;0.0533;
830.4000;0.6146;0.0626;
830.7000;0.6195;0.0719;
831.0000;0.6211;0.0719;
831.3000;0.6186;0.0603;
831.6000;0.6154;0.0487;
831.9000;0.6162;0.0371;
832.2000;0.6146;0.0394;
832.5000;0.6154;0.0394;
832.8000;0.6129;0.0417;
833.1000;0.6138;0.0417;
833.4000;0.6138;0.0394;
833.7000;0.6146;0.0441;
834.0000;0.6129;0.0510;
834.3000;0.6129;0.0533;
834.6000;0.6154;0.0626;
834.9000;0.6129;0.0556;
835.2000;0.6121;0.0580;
835.5000;0.6162;0.0649;
835.8000;0.6146;0.0603;
836.1000;0.6146;0.0603;
836.4000;0.6162;0.0649;
836.7000;0.6129;0.0556;
837.0000;0.6138;0.0556;
837.3000;0.6146;0.0556;
837.6000;0.6154;0.0603;
837.9000;0.6121;0.0556;
838.2000;0.6129;0.0510;
838.5000;0.6129;0.0556;
838.8000;0.6129;0.0603;
839.1000;0.6138;0.0672;
839.4000;0.6129;0.0626;
839.7000;0.6129;0.0672;
840.0000;0.6121;0.0626;
840.3000;0.6113;0.0580;
840.6000;0.6138;0.0603;
840.9000;0.6129;0.0580;
841.2000;0.6129;0.0603;
841.5000;0.6129;0.0533;
841.8000;0.6138;0.0487;
842.1000;0.6129;0.0580;
842.4000;0.6121;0.0556;
842.7000;0.6121;0.0441;
843.0000;0.6121;0.0556;
843.3000;0.6121;0.0556;
843.6000;0.6113;0.0556;
843.9000;0.6121;0.0510;
844.2000;0.6097;0.0487;
844.5000;0.6129;0.0556;
844.8000;0.6105;0.0603;
845.1000;0.6138;0.0696;
845.4000;0.6097;0.0626;
845.7000;0.6121;0.0719;
846.0000;0.6105;0.0672;
846.3000;0.6097;0.0533;
846.6000;0.6170;0.0672;
846.9000;0.6154;0.0672;
847.2000;0.6146;0.0626;
847.5000;0.6146;0.0649;
847.8000;0.6170;0.0672;
848.1000;0.6121;0.0510;
848.4000;0.6146;0.0510;
848.7000;0.6097;0.0417;
849.0000;0.6105;0.0464;
849.3000;0.6081;0.0510;
849.6000;0.6129;0.0696;
849.9000;0.6097;0.0556;
850.2000;0.6121;0.0441;
850.5000;0.6162;0.0510;
850.8000;0.6105;0.0441;
851.1000;0.6113;0.0464;
851.4000;0.6129;0.0510;
851.7000;0.6113;0.0464;
852.0000;0.6105;0.0464;
852.3000;0.6138;0.0464;
852.6000;0.6064;0.0348;
852.9000;0.6072;0.0417;
853.2000;0.6113;0.0487;
853.5000;0.6121;0.0556;
853.8000;0.6097;0.0580;
854.1000;0.6178;0.0742;
854.4000;0.6113;0.0603;
854.7000;0.6097;0.0580;
855.0000;0.6105;0.0649;
855.3000;0.6097;0.0603;
855.6000;0.6105;0.0672;
855.9000;0.6089;0.0603;
856.2000;0.6105;0.0603;
856.5000;0.6113;0.0603;
856.8000;0.6121;0.0580;
857.1000;0.6113;0.0441;
857.4000;0.6097;0.0417;
857.7000;0.6105;0.0464;
858.0000;0.6113;0.0464;
858.3000;0.6105;0.0556;
858.6000;0.6113;0.0533;
858.9000;0.6105;0.0556;
859.2000;0.6089;0.0533;
859.5000;0.6097;0.0510;
859.8000;0.6089;0.0487;
860.1000;0.6105;0.0580;
860.4000;0.6105;0.0580;
860.7000;0.6113;0.0510;
861.0000;0.6081;0.0487;
861.3000;0.6089;0.0487;
861.6000;0.6105;0.0533;
861.9000;0.6089;0.0580;
862.2000;0.6097;0.0696;
862.5000;0.6081;0.0649;
862.8000;0.6105;0.0788;
863.1000;0.6089;0.0696;
863.4000;0.6032;0.0464;
863.7000;0.6081;0.0626;
864.0000;0.6089;0.0580;
864.3000;0.6064;0.0487;
864.6000;0.6097;0.0533;
864.9000;0.6064;0.0556;
865.2000;0.6121;0.0672;
865.5000;0.6081;0.0580;
865.8000;0.6081;0.0580;
866.1000;0.6072;0.0533;
866.4000;0.6081;0.0533;
866.7000;0.6081;0.0533;
867.0000;0.6081;0.0556;
867.3000;0.6072;0.0580;
867.6000;0.6081;0.0649;
867.9000;0.6089;0.0672;
868.2000;0.6113;0.0788;
868.5000;0.6072;0.0719;
868.8000;0.6089;0.0696;
869.1000;0.6081;0.0580;
869.4000;0.6040;0.0510;
869.7000;0.6097;0.0649;
870.0000;0.6064;0.0626;
870.3000;0.6081;0.0626;
870.6000;0.6105;0.0603;
870.9000;0.6081;0.0580;
871.2000;0.6064;0.0649;
871.5000;0.6072;0.0603;
871.8000;0.6064;0.0556;
872.1000;0.6048;0.0441;
872.4000;0.6064;0.0487;
872.7000;0.6105;0.0626;
873.0000;0.6064;0.0487;
873.3000;0.6064;0.0510;
873.6000;0.6072;0.0556;
873.9000;0.6056;0.0533;
874.2000;0.6064;0.0556;
874.5000;0.6081;0.0533;
874.8000;0.6089;0.0510;
875.1000;0.6072;0.0510;
875.4000;0.6081;0.0464;
875.7000;0.6089;0.0487;
876.0000;0.6072;0.0603;
876.3000;0.6064;0.0556;
876.6000;0.6056;0.0556;
876.9000;0.6056;0.0603;
877.2000;0.6064;0.0626;
877.5000;0.6056;0.0672;
877.8000;0.6064;0.0603;
878.1000;0.6097;0.0696;
878.4000;0.6081;0.0672;
878.7000;0.6072;0.0672;
879.0000;0.6089;0.0626;
879.3000;0.6081;0.0696;
879.6000;0.6081;0.0649;
879.9000;0.6064;0.0603;
880.2000;0.6056;0.0603;
880.5000;0.6105;0.0719;
880.8000;0.6024;0.0580;
881.1000;0.5991;0.0510;
881.4000;0.6081;0.0742;
881.7000;0.6072;0.0835;
882.0000;0.6072;0.0858;
882.3000;0.6081;0.0904;
882.6000;0.6064;0.0835;
882.9000;0.6089;0.0858;
883.2000;0.6064;0.0788;
883.5000;0.6056;0.0765;
883.8000;0.6064;0.0788;
884.1000;0.6064;0.0742;
884.4000;0.5983;0.0556;
884.7000;0.6056;0.0788;
885.0000;0.6048;0.0765;
885.3000;0.6040;0.0811;
885.6000;0.6064;0.0788;
885.9000;0.6089;0.0765;
886.2000;0.6056;0.0765;
886.5000;0.6048;0.0765;
886.8000;0.6007;0.0649;
887.1000;0.6064;0.0811;
887.4000;0.6064;0.0696;
887.7000;0.6064;0.0765;
888.0000;0.6015;0.0742;
888.3000;0.6040;0.0719;
888.6000;0.6072;0.0811;
888.9000;0.6072;0.0881;
889.2000;0.6048;0.0835;
889.5000;0.6056;0.0858;
889.8000;0.5999;0.0742;
890.1000;0.6064;0.0927;
890.4000;0.6056;0.0858;
890.7000;0.6056;0.0858;
891.0000;0.6056;0.0765;
891.3000;0.6056;0.0696;
891.6000;0.6040;0.0719;
891.9000;0.6048;0.0742;
892.2000;0.6105;0.0904;
892.5000;0.6072;0.0835;
892.8000;0.6072;0.0742;
893.1000;0.6064;0.0672;
893.4000;0.6064;0.0742;
893.7000;0.6064;0.0765;
894.0000;0.6056;0.0788;
894.3000;0.6056;0.0788;
894.6000;0.6040;0.0788;
894.9000;0.6048;0.0881;
895.2000;0.6056;0.0858;
895.5000;0.6032;0.0719;
895.8000;0.6032;0.0696;
896.1000;0.6032;0.0765;
896.4000;0.6032;0.0765;
896.7000;0.6048;0.0765;
897.0000;0.6048;0.0811;
897.3000;0.6040;0.0811;
897.6000;0.6056;0.0835;
897.9000;0.6048;0.0811;
898.2000;0.6032;0.0788;
898.5000;0.6032;0.0835;
898.8000;0.6032;0.0788;
899.1000;0.6032;0.0672;
899.4000;0.6032;0.0649;
899.7000;0.6032;0.0556;
900.0000;0.6040;0.0556;
900.3000;0.6048;0.0580;
900.6000;0.6056;0.0626;
900.9000;0.6048;0.0626;
901.2000;0.6105;0.0788;
901.5000;0.6089;0.0742;
901.8000;0.6032;0.0649;
902.1000;0.6015;0.0626;
902.4000;0.6015;0.0672;
902.7000;0.6056;0.0742;
903.0000;0.6040;0.0765;
903.3000;0.6024;0.0811;
903.6000;0.6072;0.0881;
903.9000;0.6040;0.0765;
904.2000;0.6056;0.0742;
904.5000;0.6015;0.0580;
904.8000;0.6032;0.0580;
905.1000;0.6007;0.0580;
905.4000;0.6032;0.0580;
905.7000;0.6032;0.0533;
906.0000;0.6040;0.0626;
906.3000;0.6032;0.0556;
906.6000;0.6056;0.0626;
906.9000;0.6081;0.0719;
907.2000;0.6048;0.0696;
907.5000;0.6040;0.0742;
907.8000;0.6040;0.0788;
908.1000;0.6048;0.0881;
908.4000;0.6024;0.0835;
908.7000;0.6015;0.0858;
909.0000;0.5975;0.0765;
909.3000;0.5967;0.0742;
909.6000;0.6024;0.0765;
909.9000;0.6048;0.0811;
910.2000;0.6072;0.0788;
910.5000;0.6048;0.0742;
910.8000;0.6032;0.0719;
911.1000;0.6024;0.0719;
911.4000;0.6032;0.0788;
911.7000;0.6040;0.0881;
912.0000;0.6032;0.0881;
912.3000;0.5975;0.0672;
912.6000;0.6024;0.0719;
912.9000;0.6040;0.0742;
913.2000;0.5975;0.0696;
913.5000;0.5991;0.0742;
913.8000;0.6024;0.0765;
914.1000;0.6032;0.0765;
914.4000;0.6015;0.0742;
914.7000;0.6007;0.0719;
915.0000;0.6032;0.0742;
915.3000;0.6032;0.0742;
915.6000;0.6064;0.0811;
915.9000;0.6040;0.0696;
916.2000;0.6024;0.0788;
916.5000;0.6024;0.0835;
916.8000;0.6032;0.0835;
917.1000;0.6024;0.0858;
917.4000;0.6040;0.1043;
917.7000;0.6024;0.0951;
918.0000;0.6024;0.0951;
918.3000;0.5958;0.0811;
918.6000;0.6040;0.0951;
918.9000;0.6007;0.0904;
919.2000;0.6032;0.0881;
919.5000;0.6024;0.0835;
919.8000;0.6024;0.0742;
920.1000;0.6007;0.0649;
920.4000;0.6048;0.0719;
920.7000;0.6121;0.0951;
921.0000;0.6032;0.0811;
921.3000;0.6024;0.0788;
921.6000;0.5983;0.0626;
921.9000;0.6040;0.0788;
922.2000;0.6040;0.0788;
922.5000;0.6032;0.0858;
922.8000;0.6015;0.0858;
923.1000;0.5975;0.0742;
923.4000;0.5975;0.0742;
923.7000;0.6007;0.0788;
924.0000;0.6015;0.0788;
924.3000;0.6024;0.0765;
924.6000;0.5958;0.0626;
924.9000;0.6032;0.0811;
925.2000;0.6056;0.0858;
925.5000;0.6040;0.0881;
925.8000;0.6007;0.0811;
926.1000;0.6015;0.0881;
926.4000;0.6007;0.0904;
926.7000;0.6024;0.0881;
927.0000;0.6024;0.0835;
927.3000;0.5999;0.0835;
927.6000;0.6007;0.0858;
927.9000;0.6024;0.0858;
928.2000;0.6024;0.0881;
928.5000;0.6007;0.0858;
928.8000;0.5999;0.0811;
929.1000;0.5983;0.0719;
929.4000;0.5999;0.0696;
929.7000;0.6024;0.0742;
930.0000;0.5999;0.0765;
930.3000;0.6007;0.0742;
930.6000;0.6015;0.0811;
930.9000;0.6024;0.0904;
931.2000;0.5999;0.0835;
931.5000;0.5999;0.0835;
931.8000;0.6015;0.0858;
932.1000;0.6007;0.0811;
932.4000;0.6024;0.0811;
932.7000;0.6007;0.0904;
933.0000;0.6007;0.0858;
933.3000;0.6007;0.0811;
933.6000;0.6015;0.0811;
933.9000;0.5991;0.0811;
934.2000;0.6015;0.0835;
934.5000;0.5999;0.0858;
934.8000;0.6024;0.0788;
935.1000;0.5999;0.0672;
935.4000;0.5999;0.0742;
935.7000;0.6007;0.0742;
936.0000;0.5999;0.0765;
936.3000;0.5983;0.0835;
936.6000;0.6007;0.0835;
936.9000;0.5991;0.0788;
937.2000;0.5991;0.0881;
937.5000;0.6015;0.0927;
937.8000;0.5910;0.0765;
938.1000;0.6007;0.0974;
938.4000;0.5999;0.0974;
938.7000;0.5999;0.0951;
939.0000;0.5999;0.0951;
939.3000;0.6024;0.0927;
939.6000;0.5975;0.0835;
939.9000;0.5999;0.0881;
940.2000;0.5991;0.0788;
940.5000;0.5983;0.0672;
940.8000;0.6015;0.0765;
941.1000;0.5991;0.0835;
941.4000;0.5967;0.0788;
941.7000;0.5991;0.0904;
942.0000;0.5983;0.0904;
942.3000;0.5967;0.0974;
942.6000;0.5999;0.1067;
942.9000;0.5975;0.1020;
943.2000;0.5983;0.0997;
943.5000;0.6007;0.0974;
943.8000;0.5975;0.0904;
944.1000;0.5991;0.0927;
944.4000;0.6040;0.0997;
944.7000;0.6007;0.0904;
945.0000;0.6024;0.0904;
945.3000;0.6007;0.0835;
945.6000;0.6007;0.0881;
945.9000;0.5999;0.0811;
946.2000;0.5991;0.0788;
946.5000;0.5991;0.0835;
946.8000;0.5942;0.0672;
947.1000;0.5950;0.0649;
947.4000;0.5999;0.0765;
947.7000;0.6015;0.0811;
948.0000;0.5991;0.0788;
948.3000;0.5991;0.0765;
948.6000;0.6040;0.0997;
948.9000;0.5999;0.0881;
949.2000;0.5999;0.0927;
949.5000;0.5983;0.0858;
949.8000;0.5999;0.0835;
950.1000;0.5991;0.0927;
950.4000;0.5991;0.0881;
950.7000;0.5983;0.0835;
951.0000;0.5975;0.0788;
951.3000;0.5999;0.0904;
951.6000;0.5991;0.0788;
951.9000;0.5983;0.0719;
952.2000;0.5991;0.0742;
952.5000;0.5991;0.0811;
952.8000;0.5991;0.0881;
953.1000;0.5991;0.0881;
953.4000;0.5983;0.0904;
953.7000;0.5983;0.0974;
954.0000;0.5991;0.0904;
954.3000;0.6007;0.0881;
954.6000;0.5999;0.0881;
954.9000;0.5983;0.0811;
955.2000;0.5991;0.0788;
955.5000;0.5991;0.0742;
955.8000;0.5983;0.0811;
956.1000;0.5999;0.0788;
956.4000;0.5999;0.0742;
956.7000;0.5999;0.0811;
957.0000;0.5983;0.0788;
957.3000;0.5991;0.0811;
957.6000;0.5983;0.0835;
957.9000;0.6007;0.0904;
958.2000;0.5999;0.0788;
958.5000;0.5991;0.0788;
958.8000;0.5991;0.0765;
959.1000;0.5983;0.0811;
959.4000;0.5975;0.0765;
959.7000;0.5983;0.0835;
960.0000;0.5975;0.0788;
960.3000;0.6015;0.0927;
960.6000;0.5999;0.0927;
960.9000;0.5983;0.0788;
961.2000;0.5975;0.0719;
961.5000;0.5950;0.0696;
961.8000;0.5967;0.0742;
962.1000;0.5967;0.0788;
962.4000;0.5950;0.0835;
962.7000;0.5967;0.0788;
963.0000;0.5975;0.0788;
963.3000;0.5926;0.0672;
963.6000;0.5983;0.0742;
963.9000;0.6032;0.0811;
964.2000;0.5999;0.0742;
964.5000;0.6007;0.0765;
964.8000;0.5967;0.0765;
965.1000;0.5950;0.0742;
965.4000;0.5999;0.0835;
965.7000;0.6040;0.0951;
966.0000;0.5958;0.0672;
966.3000;0.5918;0.0533;
966.6000;0.5975;0.0672;
966.9000;0.5918;0.0510;
967.2000;0.5999;0.0696;
967.5000;0.5991;0.0742;
967.8000;0.5967;0.0649;
968.1000;0.5975;0.0765;
968.4000;0.5975;0.0765;
968.7000;0.5958;0.0765;
969.0000;0.5983;0.0696;
969.3000;0.5975;0.0672;
969.6000;0.5975;0.0603;
969.9000;0.5967;0.0603;
970.2000;0.5942;0.0603;
970.5000;0.5975;0.0649;
970.8000;0.6024;0.0696;
971.1000;0.5958;0.0603;
971.4000;0.5967;0.0742;
971.7000;0.5918;0.0672;
972.0000;0.5958;0.0835;
972.3000;0.5958;0.0788;
972.6000;0.5950;0.0835;
972.9000;0.5918;0.0696;
973.2000;0.5967;0.0765;
973.5000;0.5950;0.0696;
973.8000;0.6015;0.0765;
974.1000;0.5967;0.0742;
974.4000;0.5967;0.0765;
974.7000;0.5967;0.0811;
975.0000;0.5967;0.0788;
975.3000;0.5999;0.0881;
975.6000;0.5975;0.0904;
975.9000;0.5967;0.0881;
976.2000;0.5991;0.0858;
976.5000;0.5942;0.0719;
976.8000;0.5950;0.0719;
977.1000;0.5975;0.0811;
977.4000;0.5991;0.0881;
977.7000;0.5958;0.0811;
978.0000;0.5942;0.0742;
978.3000;0.5942;0.0742;
978.6000;0.5975;0.0742;
978.9000;0.5958;0.0719;
979.2000;0.5934;0.0696;
979.5000;0.5975;0.0811;
979.8000;0.5958;0.0835;
980.1000;0.5975;0.0858;
980.4000;0.5999;0.0904;
980.7000;0.5975;0.0858;
981.0000;0.5975;0.0858;
981.3000;0.5967;0.0927;
981.6000;0.5975;0.0927;
981.9000;0.5958;0.0881;
982.2000;0.5958;0.0858;
982.5000;0.5958;0.0788;
982.8000;0.5958;0.0765;
983.1000;0.5967;0.0788;
983.4000;0.5967;0.0742;
983.7000;0.5958;0.0719;
984.0000;0.5942;0.0765;
984.3000;0.5958;0.0719;
984.6000;0.5967;0.0788;
984.9000;0.5975;0.0835;
985.2000;0.5983;0.0881;
985.5000;0.5942;0.0788;
985.8000;0.5967;0.0904;
986.1000;0.5967;0.0997;
986.4000;0.5950;0.0927;
986.7000;0.5999;0.1020;
987.0000;0.5958;0.0927;
987.3000;0.5958;0.0997;
987.6000;0.5967;0.0951;
987.9000;0.5967;0.0904;
988.2000;0.5967;0.0904;
988.5000;0.5950;0.0881;
988.8000;0.5967;0.1020;
989.1000;0.5950;0.0997;
989.4000;0.5942;0.1090;
989.7000;0.5950;0.1090;
990.0000;0.5967;0.1067;
990.3000;0.5967;0.1067;
990.6000;0.5967;0.1020;
990.9000;0.5967;0.0951;
991.2000;0.5967;0.0927;
991.5000;0.5975;0.0951;
991.8000;0.5934;0.0811;
992.1000;0.5958;0.0811;
992.4000;0.5983;0.0881;
992.7000;0.5958;0.0858;
993.0000;0.5967;0.0811;
993.3000;0.5950;0.0672;
993.6000;0.5975;0.0765;
993.9000;0.5975;0.0719;
994.2000;0.5918;0.0603;
994.5000;0.5958;0.0788;
994.8000;0.5958;0.0858;
995.1000;0.5975;0.0904;
995.4000;0.5958;0.0904;
995.7000;0.5967;0.0951;
996.0000;0.5958;0.0927;
996.3000;0.5967;0.0927;
996.6000;0.5950;0.0927;
996.9000;0.5958;0.0835;
997.2000;0.5950;0.0765;
997.5000;0.5950;0.0742;
997.8000;0.5902;0.0510;
998.1000;0.5950;0.0742;
998.4000;0.5958;0.0742;
998.7000;0.5967;0.0765;
999.0000;0.5958;0.0858;
999.3000;0.5958;0.0858;
999.6000;0.5958;0.0835;
999.9000;0.5958;0.0811;
1000.2000;0.5934;0.0765;
1000.5000;0.5942;0.0858;
1000.8000;0.5958;0.0788;
1001.1000;0.5942;0.0719;
1001.4000;0.5942;0.0672;
1001.7000;0.5967;0.0649;
1002.0000;0.5967;0.0719;
1002.3000;0.5934;0.0719;
1002.6000;0.5942;0.0626;
1002.9000;0.5950;0.0696;
1003.2000;0.5934;0.0719;
1003.5000;0.5934;0.0788;
1003.8000;0.5934;0.0788;
1004.1000;0.5942;0.0858;
1004.4000;0.5950;0.0881;
1004.7000;0.5918;0.0742;
1005.0000;0.5942;0.0742;
1005.3000;0.5950;0.0858;
1005.6000;0.5958;0.0835;
1005.9000;0.5950;0.0835;
1006.2000;0.6007;0.1020;
1006.5000;0.5967;0.1043;
1006.8000;0.5958;0.1067;
1007.1000;0.5967;0.1090;
1007.4000;0.5942;0.0997;
1007.7000;0.5950;0.1020;
1008.0000;0.5967;0.0997;
1008.3000;0.5918;0.0951;
1008.6000;0.5934;0.0974;
1008.9000;0.5967;0.1020;
1009.2000;0.5942;0.0997;
1009.5000;0.5942;0.1113;
1009.8000;0.5926;0.1113;
1010.1000;0.5918;0.0997;
1010.4000;0.5958;0.1067;
1010.7000;0.5942;0.1043;
1011.0000;0.5958;0.1067;
1011.3000;0.5950;0.1067;
1011.6000;0.5926;0.1020;
1011.9000;0.5958;0.1136;
1012.2000;0.5934;0.1113;
1012.5000;0.5910;0.1020;
1012.8000;0.5926;0.0997;
1013.1000;0.5934;0.1043;
1013.4000;0.5934;0.1020;
1013.7000;0.5942;0.1043;
1014.0000;0.5942;0.1090;
1014.3000;0.5967;0.1090;
1014.6000;0.5958;0.1113;
1014.9000;0.5934;0.1113;
1015.2000;0.5918;0.1020;
1015.5000;0.5934;0.1020;
1015.8000;0.5942;0.1043;
1016.1000;0.5991;0.1159;
1016.4000;0.5885;0.0881;
1016.7000;0.5934;0.0974;
1017.0000;0.5958;0.1043;
1017.3000;0.5958;0.1067;
1017.6000;0.5958;0.1020;
1017.9000;0.5967;0.0997;
1018.2000;0.5910;0.0927;
1018.5000;0.5950;0.0927;
1018.8000;0.5926;0.0835;
1019.1000;0.5893;0.0742;
1019.4000;0.5942;0.0858;
1019.7000;0.5934;0.0881;
1020.0000;0.5950;0.0951;
1020.3000;0.5942;0.0927;
1020.6000;0.5950;0.0951;
1020.9000;0.5934;0.0927;
1021.2000;0.5958;0.0951;
1021.5000;0.5934;0.0881;
1021.8000;0.5942;0.0904;
1022.1000;0.5983;0.0997;
1022.4000;0.5950;0.0974;
1022.7000;0.5942;0.0951;
1023.0000;0.5950;0.0927;
1023.3000;0.5967;0.0974;
1023.6000;0.5950;0.0881;
1023.9000;0.5942;0.0927;
1024.2000;0.5926;0.1020;
1024.5000;0.5926;0.0997;
1024.8000;0.5950;0.0997;
1025.1000;0.5885;0.0858;
1025.4000;0.5934;0.0927;
1025.7000;0.5918;0.0927;
1026.0000;0.5942;0.0904;
1026.3000;0.5942;0.0997;
1026.6000;0.5934;0.1090;
1026.9000;0.5926;0.1113;
1027.2000;0.5942;0.1136;
1027.5000;0.5926;0.1090;
1027.8000;0.5942;0.0974;
1028.1000;0.5910;0.0997;
1028.4000;0.5958;0.1043;
1028.7000;0.5950;0.1067;
1029.0000;0.5991;0.1206;
1029.3000;0.5934;0.1113;
1029.6000;0.5934;0.1113;
1029.9000;0.5893;0.1090;
1030.2000;0.5918;0.1159;
1030.5000;0.5967;0.1298;
1030.8000;0.5934;0.1206;
1031.1000;0.5926;0.1136;
1031.4000;0.5942;0.1090;
1031.7000;0.5934;0.1043;
1032.0000;0.5950;0.1090;
1032.3000;0.5934;0.1020;
1032.6000;0.5958;0.1182;
1032.9000;0.5918;0.1043;
1033.2000;0.5942;0.1136;
1033.5000;0.5975;0.1206;
1033.8000;0.5942;0.1159;
1034.1000;0.5942;0.1252;
1034.4000;0.5934;0.1206;
1034.7000;0.5877;0.1043;
1035.0000;0.6007;0.1368;
1035.3000;0.5902;0.1090;
1035.6000;0.5926;0.1136;
1035.9000;0.5893;0.1113;
1036.2000;0.5926;0.1136;
1036.5000;0.5926;0.1090;
1036.8000;0.5942;0.1090;
1037.1000;0.5950;0.1090;
1037.4000;0.5942;0.1090;
1037.7000;0.5950;0.1136;
1038.0000;0.5999;0.1182;
1038.3000;0.6015;0.1229;
1038.6000;0.5950;0.1159;
1038.9000;0.5950;0.1206;
1039.2000;0.5967;0.1182;
1039.5000;0.5918;0.1090;
1039.8000;0.5910;0.1067;
1040.1000;0.5934;0.1043;
1040.4000;0.5926;0.0974;
1040.7000;0.5926;0.0881;
1041.0000;0.5975;0.0997;
1041.3000;0.5926;0.0904;
1041.6000;0.5975;0.1043;
1041.9000;0.5926;0.0974;
1042.2000;0.5942;0.1020;
1042.5000;0.5934;0.0951;
1042.8000;0.5942;0.0951;
1043.1000;0.5942;0.0951;
1043.4000;0.5926;0.0904;
1043.7000;0.5893;0.0904;
1044.0000;0.5950;0.1090;
1044.3000;0.5910;0.0974;
1044.6000;0.5926;0.1043;
1044.9000;0.5926;0.0974;
1045.2000;0.5950;0.0997;
1045.5000;0.5918;0.0904;
1045.8000;0.5942;0.0881;
1046.1000;0.5918;0.0811;
1046.4000;0.5926;0.0835;
1046.7000;0.5926;0.0881;
1047.0000;0.5934;0.0858;
1047.3000;0.5926;0.0858;
1047.6000;0.5934;0.0858;
1047.9000;0.5934;0.0858;
1048.2000;0.5950;0.0858;
1048.5000;0.5958;0.0904;
1048.8000;0.5926;0.0765;
1049.1000;0.5934;0.0811;
1049.4000;0.5902;0.0788;
1049.7000;0.5934;0.0858;
1050.0000;0.5918;0.0881;
1050.3000;0.5926;0.0951;
1050.6000;0.5918;0.1020;
1050.9000;0.5918;0.1090;
1051.2000;0.5861;0.0951;
1051.5000;0.5926;0.1067;
1051.8000;0.5942;0.1136;
1052.1000;0.5918;0.1043;
1052.4000;0.5910;0.1020;
1052.7000;0.5926;0.0997;
1053.0000;0.5942;0.1020;
1053.3000;0.5918;0.0974;
1053.6000;0.5893;0.0951;
1053.9000;0.5902;0.0951;
1054.2000;0.5910;0.0904;
1054.5000;0.5910;0.0835;
1054.8000;0.5918;0.0904;
1055.1000;0.5918;0.0927;
1055.4000;0.5910;0.0858;
1055.7000;0.5934;0.0858;
1056.0000;0.5910;0.0811;
1056.3000;0.5902;0.0719;
1056.6000;0.5910;0.0811;
1056.9000;0.5893;0.0765;
1057.2000;0.5918;0.0719;
1057.5000;0.5885;0.0603;
1057.8000;0.5918;0.0603;
1058.1000;0.5926;0.0672;
1058.4000;0.5918;0.0580;
1058.7000;0.5869;0.0464;
1059.0000;0.5926;0.0672;
1059.3000;0.5934;0.0696;
1059.6000;0.5893;0.0742;
1059.9000;0.5918;0.0788;
1060.2000;0.5918;0.0765;
1060.5000;0.5902;0.0626;
1060.8000;0.5926;0.0719;
1061.1000;0.5967;0.0835;
1061.4000;0.5950;0.0742;
1061.7000;0.5934;0.0765;
1062.0000;0.5926;0.0742;
1062.3000;0.5926;0.0696;
1062.6000;0.5910;0.0649;
1062.9000;0.5926;0.0742;
1063.2000;0.5910;0.0719;
1063.5000;0.5926;0.0649;
1063.8000;0.5910;0.0696;
1064.1000;0.5926;0.0811;
1064.4000;0.5918;0.0742;
1064.7000;0.5967;0.0765;
1065.0000;0.5934;0.0672;
1065.3000;0.5918;0.0649;
1065.6000;0.5902;0.0626;
1065.9000;0.5918;0.0649;
1066.2000;0.5910;0.0672;
1066.5000;0.5902;0.0626;
1066.8000;0.5853;0.0510;
1067.1000;0.5893;0.0626;
1067.4000;0.5926;0.0649;
1067.7000;0.5918;0.0696;
1068.0000;0.5893;0.0696;
1068.3000;0.5926;0.0811;
1068.6000;0.5918;0.0858;
1068.9000;0.5893;0.0811;
1069.2000;0.5910;0.0881;
1069.5000;0.5902;0.0927;
1069.8000;0.5926;0.0927;
1070.1000;0.5934;0.0927;
1070.4000;0.5902;0.0927;
1070.7000;0.5902;0.0811;
1071.0000;0.5991;0.1020;
1071.3000;0.5885;0.0904;
1071.6000;0.5910;0.0951;
1071.9000;0.5918;0.0951;
1072.2000;0.5902;0.0881;
1072.5000;0.5893;0.0927;
1072.8000;0.5910;0.0951;
1073.1000;0.5926;0.1067;
1073.4000;0.5983;0.1298;
1073.7000;0.5910;0.1067;
1074.0000;0.5902;0.1067;
1074.3000;0.5910;0.0997;
1074.6000;0.5910;0.0881;
1074.9000;0.5853;0.0672;
1075.2000;0.5853;0.0672;
1075.5000;0.5918;0.0811;
1075.8000;0.5934;0.0927;
1076.1000;0.5918;0.0858;
1076.4000;0.5983;0.0974;
1076.7000;0.5967;0.0974;
1077.0000;0.5958;0.1020;
1077.3000;0.5910;0.0974;
1077.6000;0.5910;0.0974;
1077.9000;0.5902;0.0974;
1078.2000;0.5893;0.1020;
1078.5000;0.5910;0.1090;
1078.8000;0.5910;0.1043;
1079.1000;0.5910;0.1020;
1079.4000;0.5902;0.0974;
1079.7000;0.5910;0.1067;
1080.0000;0.5893;0.0997;
1080.3000;0.5926;0.1043;
1080.6000;0.5950;0.1067;
1080.9000;0.5902;0.0904;
1081.2000;0.5918;0.0974;
1081.5000;0.5918;0.0974;
1081.8000;0.5918;0.0951;
1082.1000;0.5918;0.1043;
1082.4000;0.5902;0.1043;
1082.7000;0.5902;0.1043;
1083.0000;0.5893;0.0974;
1083.3000;0.5893;0.1020;
1083.6000;0.5975;0.1229;
1083.9000;0.5910;0.1090;
1084.2000;0.5902;0.1020;
1084.5000;0.5893;0.0951;
1084.8000;0.5902;0.0881;
1085.1000;0.5918;0.0951;
1085.4000;0.5910;0.0858;
1085.7000;0.5910;0.0927;
1086.0000;0.5918;0.0858;
1086.3000;0.5893;0.0788;
1086.6000;0.5926;0.0927;
1086.9000;0.5910;0.0927;
1087.2000;0.5918;0.0974;
1087.5000;0.5910;0.0951;
1087.8000;0.5918;0.0951;
1088.1000;0.5893;0.0811;
1088.4000;0.5902;0.0811;
1088.7000;0.5885;0.0788;
1089.0000;0.5910;0.0858;
1089.3000;0.5893;0.0788;
1089.6000;0.5902;0.0835;
1089.9000;0.5893;0.0904;
1090.2000;0.5885;0.0927;
1090.5000;0.5893;0.0904;
1090.8000;0.5902;0.0997;
1091.1000;0.5861;0.0974;
1091.4000;0.5902;0.1159;
1091.7000;0.5910;0.1182;
1092.0000;0.5902;0.1136;
1092.3000;0.5902;0.1113;
1092.6000;0.5902;0.1159;
1092.9000;0.5893;0.1182;
1093.2000;0.5885;0.1136;
1093.5000;0.5902;0.1090;
1093.8000;0.5893;0.1020;
1094.1000;0.5910;0.1043;
1094.4000;0.5877;0.0858;
1094.7000;0.5893;0.0904;
1095.0000;0.5885;0.0927;
1095.3000;0.5918;0.0997;
1095.6000;0.5902;0.0997;
1095.9000;0.5910;0.1067;
1096.2000;0.5902;0.1067;
1096.5000;0.5885;0.1020;
1096.8000;0.5902;0.1067;
1097.1000;0.5918;0.1113;
1097.4000;0.5983;0.1206;
1097.7000;0.5910;0.0997;
1098.0000;0.5902;0.0997;
1098.3000;0.5885;0.0951;
1098.6000;0.5812;0.0858;
1098.9000;0.5885;0.1020;
1099.2000;0.5893;0.1067;
1099.5000;0.5877;0.1020;
1099.8000;0.5893;0.1067;
1100.1000;0.5893;0.1182;
1100.4000;0.5918;0.1252;
1100.7000;0.5902;0.1298;
1101.0000;0.5918;0.1275;
1101.3000;0.5902;0.1136;
1101.6000;0.5902;0.1090;
1101.9000;0.5902;0.1020;
1102.2000;0.5902;0.0997;
1102.5000;0.5902;0.0974;
1102.8000;0.5910;0.0904;
1103.1000;0.5902;0.0881;
1103.4000;0.5902;0.0788;
1103.7000;0.5893;0.0788;
1104.0000;0.5893;0.0835;
1104.3000;0.5893;0.0835;
1104.6000;0.5902;0.0951;
1104.9000;0.5902;0.0881;
1105.2000;0.5893;0.0881;
1105.5000;0.5902;0.0881;
1105.8000;0.5902;0.0927;
1106.1000;0.5902;0.1020;
1106.4000;0.5902;0.1043;
1106.7000;0.5893;0.1020;
1107.0000;0.5950;0.1229;
1107.3000;0.5902;0.1067;
1107.6000;0.5910;0.1020;
1107.9000;0.5893;0.1043;
1108.2000;0.5902;0.1067;
1108.5000;0.5853;0.0927;
1108.8000;0.5885;0.0951;
1109.1000;0.5910;0.0951;
1109.4000;0.5877;0.0927;
1109.7000;0.5934;0.1020;
1110.0000;0.5926;0.0974;
1110.3000;0.5902;0.0974;
1110.6000;0.5910;0.0904;
1110.9000;0.5885;0.0788;
1111.2000;0.5885;0.0881;
1111.5000;0.5877;0.0927;
1111.8000;0.5877;0.0881;
1112.1000;0.5902;0.0881;
1112.4000;0.5893;0.0788;
1112.7000;0.5893;0.0881;
1113.0000;0.5893;0.0904;
1113.3000;0.5926;0.0951;
1113.6000;0.5893;0.0904;
1113.9000;0.5877;0.0927;
1114.2000;0.5885;0.0927;
1114.5000;0.5893;0.0974;
1114.8000;0.5893;0.0951;
1115.1000;0.5885;0.0858;
1115.4000;0.5885;0.0904;
1115.7000;0.5918;0.0927;
1116.0000;0.5918;0.0927;
1116.3000;0.5885;0.0858;
1116.6000;0.5893;0.0788;
1116.9000;0.5893;0.0811;
1117.2000;0.5902;0.0858;
1117.5000;0.5893;0.0788;
1117.8000;0.5893;0.0811;
1118.1000;0.5902;0.0904;
1118.4000;0.5869;0.0881;
1118.7000;0.5885;0.0951;
1119.0000;0.5885;0.1043;
1119.3000;0.5861;0.1067;
1119.6000;0.5910;0.1159;
1119.9000;0.5942;0.1206;
1120.2000;0.5902;0.0997;
1120.5000;0.5902;0.0997;
1120.8000;0.5893;0.0997;
1121.1000;0.5902;0.0951;
1121.4000;0.5812;0.0696;
1121.7000;0.5893;0.0904;
1122.0000;0.5885;0.0927;
1122.3000;0.5885;0.0951;
1122.6000;0.5902;0.0974;
1122.9000;0.5885;0.0951;
1123.2000;0.5910;0.0927;
1123.5000;0.5893;0.0927;
1123.8000;0.5926;0.1113;
1124.1000;0.5918;0.1067;
1124.4000;0.5885;0.0974;
1124.7000;0.5893;0.0997;
1125.0000;0.5877;0.0974;
1125.3000;0.5885;0.0927;
1125.6000;0.5885;0.0858;
1125.9000;0.5885;0.0858;
1126.2000;0.5893;0.0858;
1126.5000;0.5861;0.0788;
1126.8000;0.5885;0.0835;
1127.1000;0.5869;0.0788;
1127.4000;0.5942;0.0927;
1127.7000;0.5934;0.0927;
1128.0000;0.5918;0.0858;
1128.3000;0.5893;0.0788;
1128.6000;0.5902;0.0811;
1128.9000;0.5918;0.0835;
1129.2000;0.5910;0.0788;
1129.5000;0.5926;0.0858;
1129.8000;0.5893;0.0765;
1130.1000;0.5910;0.0742;
1130.4000;0.5893;0.0672;
1130.7000;0.5869;0.0696;
1131.0000;0.5861;0.0672;
1131.3000;0.5885;0.0765;
1131.6000;0.5885;0.0788;
1131.9000;0.5885;0.0742;
1132.2000;0.5885;0.0626;
1132.5000;0.5861;0.0672;
1132.8000;0.5893;0.0742;
1133.1000;0.5893;0.0765;
1133.4000;0.5885;0.0788;
1133.7000;0.5869;0.0811;
1134.0000;0.5853;0.0835;
1134.3000;0.5845;0.0696;
1134.6000;0.5885;0.0742;
1134.9000;0.5877;0.0696;
1135.2000;0.5869;0.0603;
1135.5000;0.5902;0.0580;
1135.8000;0.5869;0.0580;
1136.1000;0.5902;0.0649;
1136.4000;0.5885;0.0580;
1136.7000;0.5893;0.0626;
1137.0000;0.5877;0.0696;
1137.3000;0.5853;0.0696;
1137.6000;0.5861;0.0742;
1137.9000;0.5877;0.0765;
1138.2000;0.5861;0.0719;
1138.5000;0.5861;0.0765;
1138.8000;0.5877;0.0765;
1139.1000;0.5885;0.0835;
1139.4000;0.5893;0.0858;
1139.7000;0.5877;0.0835;
1140.0000;0.5893;0.0765;
1140.3000;0.5893;0.0765;
1140.6000;0.5902;0.0719;
1140.9000;0.5877;0.0649;
1141.2000;0.5877;0.0742;
1141.5000;0.5893;0.0835;
1141.8000;0.5845;0.0835;
1142.1000;0.5893;0.0951;
1142.4000;0.5861;0.0881;
1142.7000;0.5893;0.0904;
1143.0000;0.5910;0.0951;
1143.3000;0.5926;0.0974;
1143.6000;0.5836;0.0858;
1143.9000;0.5902;0.0997;
1144.2000;0.5885;0.0997;
1144.5000;0.5893;0.0974;
1144.8000;0.5942;0.1113;
1145.1000;0.5885;0.1067;
1145.4000;0.5877;0.1067;
1145.7000;0.5885;0.1043;
1146.0000;0.5885;0.1043;
1146.3000;0.5885;0.1090;
1146.6000;0.5918;0.1182;
1146.9000;0.5893;0.1067;
1147.2000;0.5861;0.1020;
1147.5000;0.5877;0.1090;
1147.8000;0.5877;0.1182;
1148.1000;0.5861;0.1182;
1148.4000;0.5893;0.1252;
1148.7000;0.5885;0.1229;
1149.0000;0.5861;0.1229;
1149.3000;0.5893;0.1252;
1149.6000;0.5885;0.1275;
1149.9000;0.5902;0.1322;
1150.2000;0.5877;0.1136;
1150.5000;0.5902;0.1159;
1150.8000;0.5877;0.1113;
1151.1000;0.5893;0.1159;
1151.4000;0.5877;0.1182;
1151.7000;0.5893;0.1159;
1152.0000;0.5893;0.1067;
1152.3000;0.5869;0.0974;
1152.6000;0.5885;0.0997;
1152.9000;0.5934;0.1206;
1153.2000;0.5902;0.1206;
1153.5000;0.5804;0.1067;
1153.8000;0.5869;0.1159;
1154.1000;0.5877;0.1136;
1154.4000;0.5950;0.1298;
1154.7000;0.5902;0.1043;
1155.0000;0.5893;0.1113;
1155.3000;0.5918;0.1229;
1155.6000;0.5902;0.1182;
1155.9000;0.5869;0.1113;
1156.2000;0.5877;0.1136;
1156.5000;0.5885;0.1182;
1156.8000;0.5877;0.1275;
1157.1000;0.5902;0.1252;
1157.4000;0.5893;0.1159;
1157.7000;0.5885;0.1136;
1158.0000;0.5869;0.1113;
1158.3000;0.5902;0.1182;
1158.6000;0.5893;0.1159;
1158.9000;0.5893;0.1182;
1159.2000;0.5934;0.1252;
1159.5000;0.5885;0.1136;
1159.8000;0.5885;0.1090;
1160.1000;0.5877;0.1113;
1160.4000;0.5885;0.1159;
1160.7000;0.5869;0.1090;
1161.0000;0.5893;0.1159;
1161.3000;0.5836;0.1090;
1161.6000;0.5869;0.1182;
1161.9000;0.5877;0.1298;
1162.2000;0.5902;0.1345;
1162.5000;0.5902;0.1298;
1162.8000;0.5853;0.1090;
1163.1000;0.5861;0.1090;
1163.4000;0.5845;0.1020;
1163.7000;0.5861;0.1067;
1164.0000;0.5869;0.0997;
1164.3000;0.5828;0.0904;
1164.6000;0.5902;0.1020;
1164.9000;0.5918;0.1043;
1165.2000;0.5877;0.0974;
1165.5000;0.5861;0.0881;
1165.8000;0.5877;0.0951;
1166.1000;0.5885;0.0951;
1166.4000;0.5926;0.1043;
1166.7000;0.5877;0.0904;
1167.0000;0.5877;0.0997;
1167.3000;0.5893;0.1067;
1167.6000;0.5877;0.1159;
1167.9000;0.5885;0.1043;
1168.2000;0.5893;0.1067;
1168.5000;0.5861;0.1067;
1168.8000;0.5885;0.1090;
1169.1000;0.5877;0.1067;
1169.4000;0.5910;0.1206;
1169.7000;0.5869;0.1113;
1170.0000;0.5853;0.1043;
1170.3000;0.5877;0.0997;
1170.6000;0.5877;0.1020;
1170.9000;0.5975;0.1275;
1171.2000;0.5910;0.1067;
1171.5000;0.5885;0.0997;
1171.8000;0.5869;0.1020;
1172.1000;0.5885;0.1159;
1172.4000;0.5877;0.1136;
1172.7000;0.5877;0.1136;
1173.0000;0.5885;0.1159;
1173.3000;0.5869;0.1136;
1173.6000;0.5869;0.1020;
1173.9000;0.5885;0.1020;
1174.2000;0.5869;0.0881;
1174.5000;0.5877;0.0927;
1174.8000;0.5877;0.0997;
1175.1000;0.5885;0.0974;
1175.4000;0.5885;0.1020;
1175.7000;0.5885;0.0997;
1176.0000;0.5869;0.0881;
1176.3000;0.5877;0.0881;
1176.6000;0.5877;0.0927;
1176.9000;0.5926;0.1113;
1177.2000;0.5845;0.0835;
1177.5000;0.5869;0.0881;
1177.8000;0.5869;0.0881;
1178.1000;0.5877;0.0881;
1178.4000;0.5877;0.0904;
1178.7000;0.5918;0.0951;
1179.0000;0.5950;0.0974;
1179.3000;0.5893;0.0858;
1179.6000;0.5877;0.0835;
1179.9000;0.5877;0.0881;
1180.2000;0.5877;0.0951;
1180.5000;0.5885;0.1020;
1180.8000;0.5893;0.1113;
1181.1000;0.5869;0.1090;
1181.4000;0.5885;0.1090;
1181.7000;0.5877;0.1136;
1182.0000;0.5877;0.1090;
1182.3000;0.5885;0.0974;
1182.6000;0.5869;0.0927;
1182.9000;0.5877;0.0951;
1183.2000;0.5869;0.0951;
1183.5000;0.5853;0.0835;
1183.8000;0.5893;0.0835;
1184.1000;0.5918;0.0881;
1184.4000;0.5885;0.0835;
1184.7000;0.5853;0.0835;
1185.0000;0.5861;0.0881;
1185.3000;0.5918;0.0974;
1185.6000;0.5869;0.0858;
1185.9000;0.5853;0.0881;
1186.2000;0.5853;0.0927;
1186.5000;0.5869;0.0997;
1186.8000;0.5869;0.1067;
1187.1000;0.5877;0.1206;
1187.4000;0.5861;0.1159;
1187.7000;0.5861;0.1136;
1188.0000;0.5934;0.1322;
1188.3000;0.5934;0.1252;
1188.6000;0.5877;0.1136;
1188.9000;0.5861;0.1067;
1189.2000;0.5902;0.1159;
1189.5000;0.5828;0.0881;
1189.8000;0.5861;0.0951;
1190.1000;0.5877;0.0927;
1190.4000;0.5926;0.0951;
1190.7000;0.5869;0.0858;
1191.0000;0.5910;0.0927;
1191.3000;0.5853;0.0881;
1191.6000;0.5836;0.0881;
1191.9000;0.5877;0.1020;
1192.2000;0.5869;0.1043;
1192.5000;0.5893;0.1136;
1192.8000;0.5853;0.1067;
1193.1000;0.5869;0.1159;
1193.4000;0.5796;0.0904;
1193.7000;0.5869;0.1067;
1194.0000;0.5861;0.1090;
1194.3000;0.5885;0.1136;
1194.6000;0.5869;0.1113;
1194.9000;0.5853;0.1067;
1195.2000;0.5861;0.1113;
1195.5000;0.5885;0.1159;
1195.8000;0.5869;0.1136;
1196.1000;0.5853;0.1159;
1196.4000;0.5853;0.1113;
1196.7000;0.5869;0.1229;
1197.0000;0.5853;0.1275;
1197.3000;0.5861;0.1298;
1197.6000;0.5902;0.1391;
1197.9000;0.5877;0.1368;
1198.2000;0.5885;0.1345;
1198.5000;0.5877;0.1345;
1198.8000;0.5877;0.1298;
1199.1000;0.5861;0.1252;
1199.4000;0.5885;0.1252;
1199.7000;0.5869;0.1206;
1200.0000;0.5877;0.1206;
1200.3000;0.5861;0.1136;
1200.6000;0.5877;0.1206;
1200.9000;0.5877;0.1206;
1201.2000;0.5877;0.1206;
1201.5000;0.5861;0.1182;
1201.8000;0.5861;0.1182;
1202.1000;0.5893;0.1298;
1202.4000;0.5869;0.1275;
1202.7000;0.5869;0.1298;
1203.0000;0.5893;0.1275;
1203.3000;0.5853;0.1159;
1203.6000;0.5861;0.1113;
1203.9000;0.5877;0.1159;
1204.2000;0.5812;0.1043;
1204.5000;0.5869;0.1090;
1204.8000;0.5869;0.1043;
1205.1000;0.5853;0.1020;
1205.4000;0.5836;0.1020;
1205.7000;0.5893;0.1136;
1206.0000;0.5877;0.1136;
1206.3000;0.5853;0.1136;
1206.6000;0.5845;0.1113;
1206.9000;0.5853;0.1020;
1207.2000;0.5877;0.1067;
1207.5000;0.5845;0.0974;
1207.8000;0.5853;0.0904;
1208.1000;0.5853;0.0974;
1208.4000;0.5902;0.1136;
1208.7000;0.5861;0.1067;
1209.0000;0.5869;0.1043;
1209.3000;0.5877;0.1090;
1209.6000;0.5910;0.1159;
1209.9000;0.5861;0.1043;
1210.2000;0.5869;0.1043;
1210.5000;0.5845;0.0974;
1210.8000;0.5861;0.1067;
1211.1000;0.5869;0.1043;
1211.4000;0.5885;0.1067;
1211.7000;0.5910;0.1159;
1212.0000;0.5893;0.1206;
1212.3000;0.5861;0.1136;
1212.6000;0.5877;0.1090;
1212.9000;0.5869;0.0997;
1213.2000;0.5885;0.1020;
1213.5000;0.5926;0.1159;
1213.8000;0.5885;0.0997;
1214.1000;0.5869;0.1020;
1214.4000;0.5877;0.0974;
1214.7000;0.5869;0.1043;
1215.0000;0.5877;0.1090;
1215.3000;0.5869;0.1136;
1215.6000;0.5820;0.1043;
1215.9000;0.5853;0.1067;
1216.2000;0.5869;0.1043;
1216.5000;0.5820;0.0951;
1216.8000;0.5845;0.1090;
1217.1000;0.5845;0.1090;
1217.4000;0.5861;0.1067;
1217.7000;0.5861;0.1020;
1218.0000;0.5853;0.1020;
1218.3000;0.5845;0.0997;
1218.6000;0.5877;0.1136;
1218.9000;0.5869;0.1159;
1219.2000;0.5877;0.1090;
1219.5000;0.5869;0.1090;
1219.8000;0.5869;0.1136;
1220.1000;0.5861;0.1136;
1220.4000;0.5869;0.1090;
1220.7000;0.5861;0.1113;
1221.0000;0.5869;0.1113;
1221.3000;0.5845;0.1159;
1221.6000;0.5861;0.1182;
1221.9000;0.5853;0.1159;
1222.2000;0.5845;0.0997;
1222.5000;0.5861;0.1043;
1222.8000;0.5861;0.1090;
1223.1000;0.5877;0.1067;
1223.4000;0.5861;0.1090;
1223.7000;0.5877;0.1113;
1224.0000;0.5861;0.1043;
1224.3000;0.5918;0.1182;
1224.6000;0.5877;0.1136;
1224.9000;0.5885;0.1159;
1225.2000;0.5869;0.1182;
1225.5000;0.5861;0.1182;
1225.8000;0.5845;0.1206;
1226.1000;0.5869;0.1252;
1226.4000;0.5861;0.1252;
1226.7000;0.5861;0.1229;
1227.0000;0.5836;0.1229;
1227.3000;0.5853;0.1275;
1227.6000;0.5861;0.1275;
1227.9000;0.5869;0.1275;
1228.2000;0.5853;0.1252;
1228.5000;0.5853;0.1229;
1228.8000;0.5820;0.1136;
1229.1000;0.5869;0.1275;
1229.4000;0.5853;0.1252;
1229.7000;0.5861;0.1206;
1230.0000;0.5869;0.1182;
1230.3000;0.5853;0.1136;
1230.6000;0.5861;0.1182;
1230.9000;0.5877;0.1182;
1231.2000;0.5861;0.1252;
1231.5000;0.5869;0.1206;
1231.8000;0.5885;0.1136;
1232.1000;0.5869;0.1159;
1232.4000;0.5853;0.1067;
1232.7000;0.5877;0.1206;
1233.0000;0.5861;0.1298;
1233.3000;0.5845;0.1229;
1233.6000;0.5869;0.1368;
1233.9000;0.5836;0.1206;
1234.2000;0.5853;0.1159;
1234.5000;0.5893;0.1275;
1234.8000;0.5861;0.1229;
1235.1000;0.5877;0.1229;
1235.4000;0.5877;0.1322;
1235.7000;0.5885;0.1391;
1236.0000;0.5853;0.1322;
1236.3000;0.5845;0.1298;
1236.6000;0.5853;0.1298;
1236.9000;0.5861;0.1322;
1237.2000;0.5902;0.1437;
1237.5000;0.5869;0.1345;
1237.8000;0.5820;0.1252;
1238.1000;0.5869;0.1414;
1238.4000;0.5836;0.1298;
1238.7000;0.5861;0.1368;
1239.0000;0.5853;0.1368;
1239.3000;0.5869;0.1368;
1239.6000;0.5861;0.1391;
1239.9000;0.5853;0.1391;
1240.2000;0.5845;0.1368;
1240.5000;0.5869;0.1437;
1240.8000;0.5845;0.1530;
1241.1000;0.5845;0.1530;
1241.4000;0.5836;0.1437;
1241.7000;0.5853;0.1414;
1242.0000;0.5853;0.1368;
1242.3000;0.5861;0.1298;
1242.6000;0.5869;0.1275;
1242.9000;0.5861;0.1252;
1243.2000;0.5869;0.1298;
1243.5000;0.5828;0.1182;
1243.8000;0.5861;0.1252;
1244.1000;0.5869;0.1275;
1244.4000;0.5861;0.1275;
1244.7000;0.5861;0.1322;
1245.0000;0.5885;0.1437;
1245.3000;0.5926;0.1646;
1245.6000;0.5836;0.1368;
1245.9000;0.5845;0.1322;
1246.2000;0.5853;0.1322;
1246.5000;0.5845;0.1322;
1246.8000;0.5853;0.1368;
1247.1000;0.5861;0.1368;
1247.4000;0.5918;0.1437;
1247.7000;0.5869;0.1229;
1248.0000;0.5869;0.1229;
1248.3000;0.5869;0.1322;
1248.6000;0.5877;0.1298;
1248.9000;0.5820;0.1113;
1249.2000;0.5845;0.1136;
1249.5000;0.5861;0.1182;
1249.8000;0.5820;0.1206;
1250.1000;0.5853;0.1298;
1250.4000;0.5845;0.1275;
1250.7000;0.5861;0.1368;
1251.0000;0.5861;0.1484;
1251.3000;0.5836;0.1414;
1251.6000;0.5861;0.1414;
1251.9000;0.5836;0.1368;
1252.2000;0.5861;0.1391;
1252.5000;0.5861;0.1414;
1252.8000;0.5796;0.1252;
1253.1000;0.5853;0.1345;
1253.4000;0.5861;0.1322;
1253.7000;0.5836;0.1368;
1254.0000;0.5845;0.1391;
1254.3000;0.5845;0.1391;
1254.6000;0.5853;0.1414;
1254.9000;0.5853;0.1391;
1255.2000;0.5836;0.1414;
1255.5000;0.5845;0.1414;
1255.8000;0.5861;0.1414;
1256.1000;0.5845;0.1414;
1256.4000;0.5861;0.1461;
1256.7000;0.5861;0.1484;
1257.0000;0.5869;0.1414;
1257.3000;0.5877;0.1391;
1257.6000;0.5877;0.1322;
1257.9000;0.5853;0.1229;
1258.2000;0.5861;0.1159;
1258.5000;0.5869;0.1136;
1258.8000;0.5845;0.1067;
1259.1000;0.5845;0.0997;
1259.4000;0.5845;0.0951;
1259.7000;0.5893;0.1159;
1260.0000;0.5853;0.1090;
1260.3000;0.5853;0.1136;
1260.6000;0.5861;0.1113;
1260.9000;0.5853;0.1159;
1261.2000;0.5853;0.1182;
1261.5000;0.5861;0.1182;
1261.8000;0.5877;0.1252;
1262.1000;0.5845;0.1182;
1262.4000;0.5845;0.1182;
1262.7000;0.5877;0.1182;
1263.0000;0.5845;0.1113;
1263.3000;0.5845;0.1113;
1263.6000;0.5836;0.1067;
1263.9000;0.5845;0.1229;
1264.2000;0.5820;0.1322;
1264.5000;0.5845;0.1530;
1264.8000;0.5804;0.1414;
1265.1000;0.5828;0.1414;
1265.4000;0.5845;0.1322;
1265.7000;0.5869;0.1414;
1266.0000;0.5845;0.1368;
1266.3000;0.5869;0.1507;
1266.6000;0.5820;0.1322;
1266.9000;0.5845;0.1368;
1267.2000;0.5845;0.1345;
1267.5000;0.5877;0.1368;
1267.8000;0.5861;0.1252;
1268.1000;0.5861;0.1275;
1268.4000;0.5845;0.1159;
1268.7000;0.5828;0.1136;
1269.0000;0.5853;0.1182;
1269.3000;0.5885;0.1229;
1269.6000;0.5877;0.1229;
1269.9000;0.5845;0.1252;
1270.2000;0.5861;0.1322;
1270.5000;0.5820;0.1159;
1270.8000;0.5861;0.1275;
1271.1000;0.5853;0.1275;
1271.4000;0.5853;0.1298;
1271.7000;0.5861;0.1298;
1272.0000;0.5861;0.1298;
1272.3000;0.5861;0.1252;
1272.6000;0.5845;0.1206;
1272.9000;0.5861;0.1229;
1273.2000;0.5893;0.1391;
1273.5000;0.5869;0.1298;
1273.8000;0.5861;0.1252;
1274.1000;0.5869;0.1252;
1274.4000;0.5861;0.1252;
1274.7000;0.5836;0.1206;
1275.0000;0.5861;0.1298;
1275.3000;0.5853;0.1368;
1275.6000;0.5853;0.1275;
1275.9000;0.5853;0.1275;
1276.2000;0.5869;0.1275;
1276.5000;0.5845;0.1252;
1276.8000;0.5853;0.1275;
1277.1000;0.5845;0.1229;
1277.4000;0.5836;0.1159;
1277.7000;0.5845;0.1136;
1278.0000;0.5861;0.1206;
1278.3000;0.5861;0.1159;
1278.6000;0.5861;0.1182;
1278.9000;0.5828;0.1206;
1279.2000;0.5853;0.1206;
1279.5000;0.5853;0.1182;
1279.8000;0.5853;0.1206;
1280.1000;0.5853;0.1136;
1280.4000;0.5853;0.1136;
1280.7000;0.5836;0.1206;
1281.0000;0.5853;0.1206;
1281.3000;0.5853;0.1252;
1281.6000;0.5877;0.1252;
1281.9000;0.5877;0.1298;
1282.2000;0.5869;0.1368;
1282.5000;0.5853;0.1345;
1282.8000;0.5885;0.1345;
1283.1000;0.5853;0.1252;
1283.4000;0.5885;0.1414;
1283.7000;0.5853;0.1275;
1284.0000;0.5861;0.1252;
1284.3000;0.5853;0.1206;
1284.6000;0.5926;0.1345;
1284.9000;0.5845;0.1159;
1285.2000;0.5836;0.1182;
1285.5000;0.5853;0.1229;
1285.8000;0.5820;0.1229;
1286.1000;0.5845;0.1345;
1286.4000;0.5747;0.1159;
1286.7000;0.5804;0.1275;
1287.0000;0.5853;0.1345;
1287.3000;0.5820;0.1206;
1287.6000;0.5836;0.1229;
1287.9000;0.5836;0.1298;
1288.2000;0.5812;0.1229;
1288.5000;0.5869;0.1298;
1288.8000;0.5853;0.1298;
1289.1000;0.5845;0.1252;
1289.4000;0.5836;0.1252;
1289.7000;0.5861;0.1322;
1290.0000;0.5845;0.1298;
1290.3000;0.5828;0.1345;
1290.6000;0.5869;0.1391;
1290.9000;0.5820;0.1322;
1291.2000;0.5836;0.1368;
1291.5000;0.5853;0.1252;
1291.8000;0.5845;0.1206;
1292.1000;0.5853;0.1252;
1292.4000;0.5869;0.1368;
1292.7000;0.5853;0.1252;
1293.0000;0.5845;0.1206;
1293.3000;0.5893;0.1252;
1293.6000;0.5853;0.1182;
1293.9000;0.5812;0.1090;
1294.2000;0.5845;0.1229;
1294.5000;0.5885;0.1322;
1294.8000;0.5853;0.1206;
1295.1000;0.5812;0.1113;
1295.4000;0.5853;0.1252;
1295.7000;0.5853;0.1322;
1296.0000;0.5845;0.1322;
1296.3000;0.5836;0.1298;
1296.6000;0.5820;0.1206;
1296.9000;0.5828;0.1298;
1297.2000;0.5861;0.1414;
1297.5000;0.5820;0.1345;
1297.8000;0.5836;0.1322;
1298.1000;0.5820;0.1275;
1298.4000;0.5853;0.1182;
1298.7000;0.5853;0.1159;
1299.0000;0.5853;0.1159;
1299.3000;0.5853;0.1136;
1299.6000;0.5845;0.1113;
1299.9000;0.5845;0.1182;
1300.2000;0.5828;0.1182;
1300.5000;0.5836;0.1136;
1300.8000;0.5828;0.1113;
1301.1000;0.5828;0.1113;
1301.4000;0.5828;0.1067;
1301.7000;0.5853;0.1182;
1302.0000;0.5853;0.1136;
1302.3000;0.5861;0.1067;
1302.6000;0.5853;0.1020;
1302.9000;0.5836;0.1020;
1303.2000;0.5845;0.1090;
1303.5000;0.5853;0.1136;
1303.8000;0.5845;0.1159;
1304.1000;0.5812;0.1113;
1304.4000;0.5845;0.1113;
1304.7000;0.5845;0.1182;
1305.0000;0.5853;0.1229;
1305.3000;0.5836;0.1136;
1305.6000;0.5820;0.1043;
1305.9000;0.5828;0.1020;
1306.2000;0.5820;0.1043;
1306.5000;0.5845;0.1159;
1306.8000;0.5853;0.1252;
1307.1000;0.5845;0.1252;
1307.4000;0.5861;0.1229;
1307.7000;0.5853;0.1206;
1308.0000;0.5853;0.1322;
1308.3000;0.5836;0.1345;
1308.6000;0.5804;0.1229;
1308.9000;0.5820;0.1252;
1309.2000;0.5845;0.1368;
1309.5000;0.5845;0.1322;
1309.8000;0.5755;0.1136;
1310.1000;0.5853;0.1391;
1310.4000;0.5836;0.1368;
1310.7000;0.5836;0.1252;
1311.0000;0.5861;0.1322;
1311.3000;0.5853;0.1345;
1311.6000;0.5845;0.1322;
1311.9000;0.5828;0.1275;
1312.2000;0.5820;0.1322;
1312.5000;0.5845;0.1298;
1312.8000;0.5845;0.1345;
1313.1000;0.5828;0.1206;
1313.4000;0.5845;0.1252;
1313.7000;0.5845;0.1252;
1314.0000;0.5861;0.1368;
1314.3000;0.5836;0.1345;
1314.6000;0.5845;0.1391;
1314.9000;0.5836;0.1345;
1315.2000;0.5861;0.1322;
1315.5000;0.5861;0.1391;
1315.8000;0.5853;0.1345;
1316.1000;0.5853;0.1298;
1316.4000;0.5845;0.1322;
1316.7000;0.5836;0.1368;
1317.0000;0.5845;0.1437;
1317.3000;0.5836;0.1368;
1317.6000;0.5893;0.1507;
1317.9000;0.5845;0.1368;
1318.2000;0.5836;0.1345;
1318.5000;0.5853;0.1345;
1318.8000;0.5861;0.1298;
1319.1000;0.5820;0.1252;
1319.4000;0.5861;0.1252;
1319.7000;0.5836;0.1252;
1320.0000;0.5796;0.1136;
1320.3000;0.5853;0.1322;
1320.6000;0.5853;0.1345;
1320.9000;0.5836;0.1368;
1321.2000;0.5836;0.1368;
1321.5000;0.5836;0.1368;
1321.8000;0.5845;0.1368;
1322.1000;0.5845;0.1484;
1322.4000;0.5853;0.1484;
1322.7000;0.5902;0.1530;
1323.0000;0.5836;0.1484;
1323.3000;0.5845;0.1391;
1323.6000;0.5836;0.1368;
1323.9000;0.5828;0.1414;
1324.2000;0.5820;0.1391;
1324.5000;0.5828;0.1368;
1324.8000;0.5845;0.1368;
1325.1000;0.5845;0.1322;
1325.4000;0.5861;0.1275;
1325.7000;0.5845;0.1252;
1326.0000;0.5845;0.1275;
1326.3000;0.5845;0.1275;
1326.6000;0.5845;0.1229;
1326.9000;0.5861;0.1182;
1327.2000;0.5845;0.1113;
1327.5000;0.5861;0.1252;
1327.8000;0.5853;0.1275;
1328.1000;0.5845;0.1298;
1328.4000;0.5836;0.1322;
1328.7000;0.5820;0.1322;
1329.0000;0.5869;0.1368;
1329.3000;0.5869;0.1368;
1329.6000;0.5804;0.1252;
1329.9000;0.5836;0.1275;
1330.2000;0.5828;0.1298;
1330.5000;0.5845;0.1391;
1330.8000;0.5836;0.1391;
1331.1000;0.5820;0.1391;
1331.4000;0.5853;0.1437;
1331.7000;0.5869;0.1484;
1332.0000;0.5836;0.1368;
1332.3000;0.5836;0.1298;
1332.6000;0.5836;0.1252;
1332.9000;0.5828;0.1229;
1333.2000;0.5836;0.1252;
1333.5000;0.5828;0.1252;
1333.8000;0.5828;0.1229;
1334.1000;0.5812;0.1182;
1334.4000;0.5836;0.1182;
1334.7000;0.5812;0.1182;
1335.0000;0.5828;0.1252;
1335.3000;0.5828;0.1252;
1335.6000;0.5812;0.1182;
1335.9000;0.5812;0.1090;
1336.2000;0.5820;0.1067;
1336.5000;0.5845;0.1067;
1336.8000;0.5828;0.1159;
1337.1000;0.5845;0.1275;
1337.4000;0.5828;0.1252;
1337.7000;0.5820;0.1229;
1338.0000;0.5828;0.1136;
1338.3000;0.5828;0.1113;
1338.6000;0.5836;0.1136;
1338.9000;0.5820;0.1206;
1339.2000;0.5853;0.1252;
1339.5000;0.5788;0.1113;
1339.8000;0.5845;0.1229;
1340.1000;0.5828;0.1136;
1340.4000;0.5836;0.1206;
1340.7000;0.5918;0.1368;
1341.0000;0.5836;0.1113;
1341.3000;0.5836;0.1136;
1341.6000;0.5902;0.1298;
1341.9000;0.5845;0.1159;
1342.2000;0.5861;0.1206;
1342.5000;0.5836;0.1206;
1342.8000;0.5845;0.1159;
1343.1000;0.5853;0.1252;
1343.4000;0.5836;0.1252;
1343.7000;0.5796;0.1252;
1344.0000;0.5812;0.1345;
1344.3000;0.5836;0.1275;
1344.6000;0.5836;0.1345;
1344.9000;0.5845;0.1368;
1345.2000;0.5877;0.1391;
1345.5000;0.5836;0.1298;
1345.8000;0.5861;0.1322;
1346.1000;0.5828;0.1322;
1346.4000;0.5836;0.1322;
1346.7000;0.5845;0.1322;
1347.0000;0.5836;0.1229;
1347.3000;0.5853;0.1275;
1347.6000;0.5853;0.1252;
1347.9000;0.5812;0.1206;
1348.2000;0.5828;0.1252;
1348.5000;0.5828;0.1298;
1348.8000;0.5828;0.1298;
1349.1000;0.5836;0.1275;
1349.4000;0.5836;0.1322;
1349.7000;0.5845;0.1368;
1350.0000;0.5836;0.1391;
1350.3000;0.5828;0.1391;
1350.6000;0.5845;0.1461;
1350.9000;0.5845;0.1437;
1351.2000;0.5836;0.1484;
1351.5000;0.5828;0.1437;
1351.8000;0.5845;0.1414;
1352.1000;0.5853;0.1437;
1352.4000;0.5845;0.1368;
1352.7000;0.5861;0.1345;
1353.0000;0.5836;0.1345;
1353.3000;0.5836;0.1368;
1353.6000;0.5853;0.1368;
1353.9000;0.5853;0.1345;
1354.2000;0.5836;0.1368;
1354.5000;0.5885;0.1461;
1354.8000;0.5845;0.1391;
1355.1000;0.5845;0.1345;
1355.4000;0.5788;0.1090;
1355.7000;0.5828;0.1229;
1356.0000;0.5836;0.1298;
1356.3000;0.5853;0.1298;
1356.6000;0.5820;0.1252;
1356.9000;0.5836;0.1182;
1357.2000;0.5853;0.1182;
1357.5000;0.5853;0.1182;
1357.8000;0.5893;0.1322;
1358.1000;0.5845;0.1206;
1358.4000;0.5812;0.1159;
1358.7000;0.5804;0.1136;
1359.0000;0.5820;0.1182;
1359.3000;0.5828;0.1229;
1359.6000;0.5845;0.1229;
1359.9000;0.5893;0.1345;
1360.2000;0.5845;0.1159;
1360.5000;0.5804;0.1020;
1360.8000;0.5812;0.1043;
1361.1000;0.5812;0.1113;
1361.4000;0.5828;0.1159;
1361.7000;0.5836;0.1229;
1362.0000;0.5820;0.1252;
1362.3000;0.5828;0.1182;
1362.6000;0.5853;0.1182;
1362.9000;0.5828;0.1159;
1363.2000;0.5836;0.1136;
1363.5000;0.5820;0.1090;
1363.8000;0.5853;0.1182;
1364.1000;0.5812;0.1136;
1364.4000;0.5836;0.1182;
1364.7000;0.5828;0.1229;
1365.0000;0.5845;0.1252;
1365.3000;0.5845;0.1252;
1365.6000;0.5853;0.1345;
1365.9000;0.5836;0.1229;
1366.2000;0.5828;0.1252;
1366.5000;0.5853;0.1322;
1366.8000;0.5788;0.1229;
1367.1000;0.5877;0.1484;
1367.4000;0.5853;0.1530;
1367.7000;0.5853;0.1507;
1368.0000;0.5902;0.1669;
1368.3000;0.5836;0.1484;
1368.6000;0.5836;0.1368;
1368.9000;0.5845;0.1391;
1369.2000;0.5820;0.1322;
1369.5000;0.5869;0.1437;
1369.8000;0.5828;0.1391;
1370.1000;0.5853;0.1461;
1370.4000;0.5845;0.1414;
1370.7000;0.5771;0.1182;
1371.0000;0.5820;0.1322;
1371.3000;0.5788;0.1229;
1371.6000;0.5812;0.1275;
1371.9000;0.5796;0.1206;
1372.2000;0.5804;0.1206;
1372.5000;0.5869;0.1391;
1372.8000;0.5836;0.1345;
1373.1000;0.5836;0.1345;
1373.4000;0.5820;0.1345;
1373.7000;0.5820;0.1275;
1374.0000;0.5828;0.1298;
1374.3000;0.5836;0.1368;
1374.6000;0.5820;0.1345;
1374.9000;0.5828;0.1322;
1375.2000;0.5836;0.1345;
1375.5000;0.5836;0.1345;
1375.8000;0.5845;0.1345;
1376.1000;0.5828;0.1275;
1376.4000;0.5804;0.1252;
1376.7000;0.5828;0.1368;
1377.0000;0.5853;0.1484;
1377.3000;0.5885;0.1577;
1377.6000;0.5796;0.1368;
1377.9000;0.5853;0.1530;
1378.2000;0.5869;0.1577;
1378.5000;0.5845;0.1414;
1378.8000;0.5828;0.1298;
1379.1000;0.5845;0.1345;
1379.4000;0.5755;0.1136;
1379.7000;0.5828;0.1298;
1380.0000;0.5828;0.1275;
1380.3000;0.5893;0.1368;
1380.6000;0.5845;0.1136;
1380.9000;0.5820;0.1043;
1381.2000;0.5836;0.1136;
1381.5000;0.5828;0.1090;
1381.8000;0.5836;0.1159;
1382.1000;0.5845;0.1229;
1382.4000;0.5836;0.1298;
1382.7000;0.5828;0.1368;
1383.0000;0.5836;0.1414;
1383.3000;0.5861;0.1414;
1383.6000;0.5836;0.1391;
1383.9000;0.5861;0.1391;
1384.2000;0.5861;0.1391;
1384.5000;0.5885;0.1414;
1384.8000;0.5836;0.1345;
1385.1000;0.5820;0.1322;
1385.4000;0.5828;0.1368;
1385.7000;0.5853;0.1345;
1386.0000;0.5845;0.1322;
1386.3000;0.5845;0.1345;
1386.6000;0.5820;0.1298;
1386.9000;0.5836;0.1391;
1387.2000;0.5845;0.1391;
1387.5000;0.5845;0.1414;
1387.8000;0.5836;0.1391;
1388.1000;0.5853;0.1414;
1388.4000;0.5845;0.1437;
1388.7000;0.5845;0.1345;
1389.0000;0.5836;0.1275;
1389.3000;0.5845;0.1252;
1389.6000;0.5853;0.1229;
1389.9000;0.5861;0.1322;
1390.2000;0.5861;0.1368;
1390.5000;0.5836;0.1345;
1390.8000;0.5853;0.1345;
1391.1000;0.5828;0.1437;
1391.4000;0.5861;0.1461;
1391.7000;0.5828;0.1345;
1392.0000;0.5796;0.1182;
1392.3000;0.5812;0.1252;
1392.6000;0.5828;0.1252;
1392.9000;0.5828;0.1298;
1393.2000;0.5845;0.1275;
1393.5000;0.5853;0.1275;
1393.8000;0.5845;0.1206;
1394.1000;0.5845;0.1206;
1394.4000;0.5820;0.1136;
1394.7000;0.5828;0.1229;
1395.0000;0.5836;0.1298;
1395.3000;0.5828;0.1322;
1395.6000;0.5812;0.1252;
1395.9000;0.5836;0.1391;
1396.2000;0.5845;0.1437;
1396.5000;0.5836;0.1391;
1396.8000;0.5828;0.1368;
1397.1000;0.5820;0.1298;
1397.4000;0.5836;0.1414;
1397.7000;0.5836;0.1414;
1398.0000;0.5836;0.1345;
1398.3000;0.5828;0.1275;
1398.6000;0.5836;0.1206;
1398.9000;0.5845;0.1322;
1399.2000;0.5820;0.1252;
1399.5000;0.5828;0.1229;
1399.8000;0.5828;0.1229;
