time/ms;Fluo/V;P700 deltaI/I x10³;
-199.8000;0.6235;-0.0858;
-199.5000;0.6243;-0.0835;
-199.2000;0.6252;-0.0881;
-198.9000;0.6252;-0.0997;
-198.6000;0.6235;-0.1020;
-198.3000;0.6211;-0.1020;
-198.0000;0.6252;-0.0997;
-197.7000;0.6227;-0.0974;
-197.4000;0.6235;-0.0997;
-197.1000;0.6235;-0.0997;
-196.8000;0.6252;-0.0927;
-196.5000;0.6252;-0.0951;
-196.2000;0.6252;-0.0927;
-195.9000;0.6252;-0.0974;
-195.6000;0.6219;-0.0951;
-195.3000;0.6243;-0.1020;
-195.0000;0.6309;-0.0811;
-194.7000;0.6341;-0.0788;
-194.4000;0.6260;-0.0904;
-194.1000;0.6227;-0.0974;
-193.8000;0.6317;-0.0742;
-193.5000;0.6235;-0.1043;
-193.2000;0.6235;-0.1067;
-192.9000;0.6243;-0.1067;
-192.6000;0.6243;-0.1090;
-192.3000;0.6227;-0.1159;
-192.0000;0.6235;-0.1182;
-191.7000;0.6243;-0.1090;
-191.4000;0.6252;-0.1067;
-191.1000;0.6252;-0.1067;
-190.8000;0.6260;-0.1090;
-190.5000;0.6252;-0.1090;
-190.2000;0.6252;-0.1090;
-189.9000;0.6243;-0.1136;
-189.6000;0.6252;-0.1090;
-189.3000;0.6235;-0.1067;
-189.0000;0.6235;-0.0997;
-188.7000;0.6260;-0.0974;
-188.4000;0.6235;-0.1067;
-188.1000;0.6260;-0.0997;
-187.8000;0.6243;-0.1113;
-187.5000;0.6252;-0.1090;
-187.2000;0.6260;-0.1090;
-186.9000;0.6219;-0.1113;
-186.6000;0.6186;-0.1159;
-186.3000;0.6243;-0.1067;
-186.0000;0.6243;-0.0997;
-185.7000;0.6300;-0.0881;
-185.4000;0.6284;-0.0997;
-185.1000;0.6252;-0.0974;
-184.8000;0.6243;-0.1067;
-184.5000;0.6243;-0.1113;
-184.2000;0.6235;-0.1067;
-183.9000;0.6235;-0.1136;
-183.6000;0.6252;-0.1067;
-183.3000;0.6235;-0.1182;
-183.0000;0.6211;-0.1206;
-182.7000;0.6227;-0.1067;
-182.4000;0.6235;-0.1020;
-182.1000;0.6235;-0.1090;
-181.8000;0.6252;-0.1067;
-181.5000;0.6252;-0.1043;
-181.2000;0.6227;-0.1043;
-180.9000;0.6243;-0.0974;
-180.6000;0.6235;-0.1067;
-180.3000;0.6243;-0.1090;
-180.0000;0.6243;-0.1113;
-179.7000;0.6260;-0.1090;
-179.4000;0.6260;-0.1067;
-179.1000;0.6178;-0.1252;
-178.8000;0.6252;-0.1067;
-178.5000;0.6243;-0.1090;
-178.2000;0.6219;-0.1113;
-177.9000;0.6243;-0.0997;
-177.6000;0.6252;-0.1020;
-177.3000;0.6276;-0.1067;
-177.0000;0.6227;-0.1182;
-176.7000;0.6243;-0.1136;
-176.4000;0.6252;-0.1043;
-176.1000;0.6252;-0.1067;
-175.8000;0.6292;-0.1043;
-175.5000;0.6268;-0.1136;
-175.2000;0.6284;-0.1020;
-174.9000;0.6252;-0.1020;
-174.6000;0.6252;-0.0951;
-174.3000;0.6235;-0.0974;
-174.0000;0.6243;-0.1020;
-173.7000;0.6211;-0.1113;
-173.4000;0.6243;-0.1043;
-173.1000;0.6243;-0.1020;
-172.8000;0.6284;-0.0974;
-172.5000;0.6243;-0.1020;
-172.2000;0.6235;-0.1067;
-171.9000;0.6243;-0.1067;
-171.6000;0.6219;-0.1136;
-171.3000;0.6252;-0.1182;
-171.0000;0.6235;-0.1182;
-170.7000;0.6309;-0.1043;
-170.4000;0.6252;-0.1136;
-170.1000;0.6268;-0.1136;
-169.8000;0.6252;-0.1136;
-169.5000;0.6235;-0.1113;
-169.2000;0.6243;-0.1067;
-168.9000;0.6252;-0.1113;
-168.6000;0.6252;-0.1090;
-168.3000;0.6211;-0.1043;
-168.0000;0.6252;-0.0904;
-167.7000;0.6243;-0.0974;
-167.4000;0.6252;-0.0997;
-167.1000;0.6235;-0.0951;
-166.8000;0.6252;-0.0904;
-166.5000;0.6219;-0.0997;
-166.2000;0.6276;-0.0927;
-165.9000;0.6243;-0.0951;
-165.6000;0.6235;-0.0997;
-165.3000;0.6235;-0.0927;
-165.0000;0.6252;-0.0951;
-164.7000;0.6260;-0.0951;
-164.4000;0.6252;-0.0881;
-164.1000;0.6235;-0.0904;
-163.8000;0.6235;-0.0951;
-163.5000;0.6252;-0.0951;
-163.2000;0.6235;-0.0997;
-162.9000;0.6243;-0.0974;
-162.6000;0.6300;-0.0811;
-162.3000;0.6235;-0.0927;
-162.0000;0.6268;-0.0951;
-161.7000;0.6235;-0.1020;
-161.4000;0.6227;-0.0997;
-161.1000;0.6227;-0.1020;
-160.8000;0.6235;-0.0997;
-160.5000;0.6243;-0.0951;
-160.2000;0.6317;-0.0835;
-159.9000;0.6235;-0.1113;
-159.6000;0.6252;-0.1113;
-159.3000;0.6260;-0.1090;
-159.0000;0.6243;-0.1136;
-158.7000;0.6227;-0.1090;
-158.4000;0.6252;-0.1020;
-158.1000;0.6211;-0.1090;
-157.8000;0.6211;-0.1182;
-157.5000;0.6260;-0.1090;
-157.2000;0.6243;-0.1067;
-156.9000;0.6227;-0.1113;
-156.6000;0.6243;-0.1090;
-156.3000;0.6243;-0.1159;
-156.0000;0.6300;-0.1067;
-155.7000;0.6252;-0.1182;
-155.4000;0.6243;-0.1159;
-155.1000;0.6243;-0.1159;
-154.8000;0.6252;-0.1090;
-154.5000;0.6268;-0.0974;
-154.2000;0.6243;-0.1043;
-153.9000;0.6260;-0.0997;
-153.6000;0.6260;-0.0997;
-153.3000;0.6260;-0.1090;
-153.0000;0.6260;-0.1067;
-152.7000;0.6243;-0.1067;
-152.4000;0.6252;-0.1067;
-152.1000;0.6235;-0.1090;
-151.8000;0.6252;-0.0997;
-151.5000;0.6235;-0.1043;
-151.2000;0.6252;-0.1043;
-150.9000;0.6252;-0.1020;
-150.6000;0.6252;-0.0997;
-150.3000;0.6243;-0.0997;
-150.0000;0.6235;-0.1136;
-149.7000;0.6309;-0.1020;
-149.4000;0.6252;-0.1206;
-149.1000;0.6300;-0.1043;
-148.8000;0.6260;-0.1067;
-148.5000;0.6243;-0.1136;
-148.2000;0.6243;-0.1090;
-147.9000;0.6252;-0.1113;
-147.6000;0.6317;-0.0951;
-147.3000;0.6243;-0.1159;
-147.0000;0.6252;-0.1043;
-146.7000;0.6260;-0.0927;
-146.4000;0.6243;-0.0951;
-146.1000;0.6235;-0.0974;
-145.8000;0.6252;-0.0997;
-145.5000;0.6252;-0.1020;
-145.2000;0.6243;-0.1067;
-144.9000;0.6243;-0.1067;
-144.6000;0.6260;-0.0974;
-144.3000;0.6252;-0.0927;
-144.0000;0.6268;-0.0858;
-143.7000;0.6333;-0.0742;
-143.4000;0.6235;-0.1067;
-143.1000;0.6317;-0.0881;
-142.8000;0.6243;-0.1020;
-142.5000;0.6252;-0.0927;
-142.2000;0.6243;-0.0904;
-141.9000;0.6235;-0.0904;
-141.6000;0.6252;-0.0927;
-141.3000;0.6243;-0.0927;
-141.0000;0.6243;-0.0858;
-140.7000;0.6243;-0.0974;
-140.4000;0.6252;-0.1043;
-140.1000;0.6252;-0.0997;
-139.8000;0.6243;-0.0927;
-139.5000;0.6268;-0.0858;
-139.2000;0.6284;-0.0788;
-138.9000;0.6186;-0.1067;
-138.6000;0.6252;-0.0927;
-138.3000;0.6243;-0.0997;
-138.0000;0.6243;-0.1020;
-137.7000;0.6243;-0.1043;
-137.4000;0.6243;-0.1067;
-137.1000;0.6243;-0.1113;
-136.8000;0.6227;-0.1090;
-136.5000;0.6235;-0.0997;
-136.2000;0.6235;-0.0927;
-135.9000;0.6235;-0.0997;
-135.6000;0.6268;-0.0974;
-135.3000;0.6243;-0.1020;
-135.0000;0.6243;-0.1043;
-134.7000;0.6243;-0.0974;
-134.4000;0.6235;-0.0881;
-134.1000;0.6186;-0.1067;
-133.8000;0.6227;-0.1020;
-133.5000;0.6243;-0.1113;
-133.2000;0.6243;-0.1020;
-132.9000;0.6162;-0.1206;
-132.6000;0.6235;-0.1020;
-132.3000;0.6243;-0.1043;
-132.0000;0.6268;-0.1043;
-131.7000;0.6243;-0.1113;
-131.4000;0.6235;-0.1113;
-131.1000;0.6195;-0.1136;
-130.8000;0.6219;-0.1090;
-130.5000;0.6243;-0.1020;
-130.2000;0.6243;-0.0997;
-129.9000;0.6243;-0.0974;
-129.6000;0.6252;-0.1067;
-129.3000;0.6252;-0.1043;
-129.0000;0.6235;-0.0974;
-128.7000;0.6252;-0.0858;
-128.4000;0.6252;-0.0858;
-128.1000;0.6235;-0.0881;
-127.8000;0.6227;-0.0974;
-127.5000;0.6252;-0.0927;
-127.2000;0.6219;-0.0881;
-126.9000;0.6211;-0.0927;
-126.6000;0.6252;-0.0719;
-126.3000;0.6227;-0.0765;
-126.0000;0.6243;-0.0788;
-125.7000;0.6227;-0.0927;
-125.4000;0.6243;-0.0904;
-125.1000;0.6235;-0.0974;
-124.8000;0.6252;-0.0904;
-124.5000;0.6235;-0.0904;
-124.2000;0.6243;-0.0858;
-123.9000;0.6292;-0.0672;
-123.6000;0.6235;-0.0811;
-123.3000;0.6260;-0.0788;
-123.0000;0.6252;-0.0788;
-122.7000;0.6235;-0.0881;
-122.4000;0.6252;-0.0927;
-122.1000;0.6195;-0.1020;
-121.8000;0.6243;-0.0881;
-121.5000;0.6227;-0.1020;
-121.2000;0.6227;-0.0997;
-120.9000;0.6243;-0.0951;
-120.6000;0.6211;-0.0974;
-120.3000;0.6227;-0.0997;
-120.0000;0.6260;-0.1020;
-119.7000;0.6276;-0.1043;
-119.4000;0.6243;-0.1159;
-119.1000;0.6235;-0.1067;
-118.8000;0.6235;-0.1113;
-118.5000;0.6284;-0.0951;
-118.2000;0.6235;-0.0997;
-117.9000;0.6243;-0.0997;
-117.6000;0.6235;-0.0997;
-117.3000;0.6260;-0.0951;
-117.0000;0.6260;-0.0835;
-116.7000;0.6211;-0.0951;
-116.4000;0.6235;-0.0927;
-116.1000;0.6252;-0.0951;
-115.8000;0.6260;-0.0811;
-115.5000;0.6252;-0.0927;
-115.2000;0.6252;-0.0904;
-114.9000;0.6243;-0.0927;
-114.6000;0.6268;-0.0811;
-114.3000;0.6235;-0.0788;
-114.0000;0.6227;-0.0835;
-113.7000;0.6243;-0.0858;
-113.4000;0.6243;-0.0858;
-113.1000;0.6284;-0.0696;
-112.8000;0.6243;-0.0765;
-112.5000;0.6252;-0.0742;
-112.2000;0.6260;-0.0742;
-111.9000;0.6252;-0.0811;
-111.6000;0.6252;-0.0835;
-111.3000;0.6243;-0.0858;
-111.0000;0.6292;-0.0742;
-110.7000;0.6243;-0.0904;
-110.4000;0.6243;-0.0858;
-110.1000;0.6235;-0.0904;
-109.8000;0.6227;-0.1043;
-109.5000;0.6243;-0.1113;
-109.2000;0.6252;-0.1206;
-108.9000;0.6252;-0.1182;
-108.6000;0.6243;-0.1206;
-108.3000;0.6268;-0.1182;
-108.0000;0.6243;-0.1275;
-107.7000;0.6260;-0.1159;
-107.4000;0.6252;-0.1090;
-107.1000;0.6227;-0.1020;
-106.8000;0.6243;-0.0904;
-106.5000;0.6243;-0.0904;
-106.2000;0.6252;-0.0881;
-105.9000;0.6227;-0.0858;
-105.6000;0.6235;-0.0904;
-105.3000;0.6243;-0.0881;
-105.0000;0.6235;-0.0974;
-104.7000;0.6227;-0.1090;
-104.4000;0.6235;-0.1067;
-104.1000;0.6260;-0.1090;
-103.8000;0.6235;-0.1159;
-103.5000;0.6227;-0.1252;
-103.2000;0.6243;-0.1159;
-102.9000;0.6276;-0.1043;
-102.6000;0.6252;-0.1182;
-102.3000;0.6203;-0.1275;
-102.0000;0.6243;-0.1159;
-101.7000;0.6235;-0.1090;
-101.4000;0.6227;-0.1067;
-101.1000;0.6211;-0.1159;
-100.8000;0.6292;-0.0951;
-100.5000;0.6243;-0.0904;
-100.2000;0.6243;-0.0858;
-99.9000;0.6227;-0.0904;
-99.6000;0.6252;-0.0904;
-99.3000;0.6276;-0.0858;
-99.0000;0.6235;-0.0974;
-98.7000;0.6235;-0.0951;
-98.4000;0.6243;-0.0881;
-98.1000;0.6227;-0.0904;
-97.8000;0.6235;-0.0927;
-97.5000;0.6219;-0.0951;
-97.2000;0.6260;-0.0881;
-96.9000;0.6243;-0.0951;
-96.6000;0.6260;-0.0858;
-96.3000;0.6252;-0.0927;
-96.0000;0.6243;-0.0927;
-95.7000;0.6219;-0.0951;
-95.4000;0.6243;-0.0881;
-95.1000;0.6284;-0.0742;
-94.8000;0.6268;-0.0881;
-94.5000;0.6243;-0.0974;
-94.2000;0.6227;-0.1043;
-93.9000;0.6235;-0.0927;
-93.6000;0.6227;-0.0951;
-93.3000;0.6235;-0.0904;
-93.0000;0.6243;-0.0997;
-92.7000;0.6235;-0.0951;
-92.4000;0.6252;-0.0997;
-92.1000;0.6219;-0.0951;
-91.8000;0.6211;-0.0904;
-91.5000;0.6227;-0.0974;
-91.2000;0.6252;-0.0927;
-90.9000;0.6227;-0.1020;
-90.6000;0.6252;-0.0927;
-90.3000;0.6243;-0.0904;
-90.0000;0.6243;-0.0881;
-89.7000;0.6243;-0.0974;
-89.4000;0.6235;-0.0974;
-89.1000;0.6243;-0.0927;
-88.8000;0.6227;-0.0974;
-88.5000;0.6243;-0.0951;
-88.2000;0.6243;-0.0951;
-87.9000;0.6227;-0.0881;
-87.6000;0.6243;-0.0811;
-87.3000;0.6235;-0.0788;
-87.0000;0.6235;-0.0765;
-86.7000;0.6260;-0.0835;
-86.4000;0.6252;-0.0904;
-86.1000;0.6186;-0.1090;
-85.8000;0.6252;-0.0974;
-85.5000;0.6252;-0.1113;
-85.2000;0.6268;-0.1229;
-84.9000;0.6292;-0.1206;
-84.6000;0.6268;-0.1229;
-84.3000;0.6252;-0.1206;
-84.0000;0.6252;-0.1206;
-83.7000;0.6268;-0.1206;
-83.4000;0.6252;-0.1298;
-83.1000;0.6227;-0.1345;
-82.8000;0.6227;-0.1368;
-82.5000;0.6243;-0.1368;
-82.2000;0.6252;-0.1275;
-81.9000;0.6276;-0.1206;
-81.6000;0.6235;-0.1322;
-81.3000;0.6235;-0.1414;
-81.0000;0.6252;-0.1437;
-80.7000;0.6276;-0.1437;
-80.4000;0.6219;-0.1530;
-80.1000;0.6227;-0.1437;
-79.8000;0.6243;-0.1345;
-79.5000;0.6252;-0.1275;
-79.2000;0.6211;-0.1275;
-78.9000;0.6186;-0.1368;
-78.6000;0.6227;-0.1206;
-78.3000;0.6211;-0.1206;
-78.0000;0.6219;-0.1136;
-77.7000;0.6203;-0.1090;
-77.4000;0.6227;-0.0927;
-77.1000;0.6235;-0.0951;
-76.8000;0.6243;-0.1067;
-76.5000;0.6284;-0.1020;
-76.2000;0.6243;-0.1020;
-75.9000;0.6211;-0.1113;
-75.6000;0.6243;-0.0997;
-75.3000;0.6243;-0.0997;
-75.0000;0.6235;-0.1020;
-74.7000;0.6243;-0.1043;
-74.4000;0.6252;-0.0997;
-74.1000;0.6203;-0.1090;
-73.8000;0.6243;-0.1067;
-73.5000;0.6252;-0.0974;
-73.2000;0.6252;-0.0974;
-72.9000;0.6243;-0.0997;
-72.6000;0.6243;-0.0951;
-72.3000;0.6243;-0.0881;
-72.0000;0.6235;-0.0881;
-71.7000;0.6243;-0.0881;
-71.4000;0.6227;-0.0927;
-71.1000;0.6219;-0.0881;
-70.8000;0.6243;-0.0835;
-70.5000;0.6203;-0.0927;
-70.2000;0.6243;-0.0881;
-69.9000;0.6227;-0.0858;
-69.6000;0.6252;-0.0927;
-69.3000;0.6235;-0.1043;
-69.0000;0.6219;-0.1159;
-68.7000;0.6260;-0.1113;
-68.4000;0.6243;-0.1136;
-68.1000;0.6219;-0.1159;
-67.8000;0.6252;-0.1113;
-67.5000;0.6268;-0.1043;
-67.2000;0.6227;-0.1090;
-66.9000;0.6243;-0.1090;
-66.6000;0.6243;-0.1113;
-66.3000;0.6243;-0.1113;
-66.0000;0.6219;-0.1090;
-65.7000;0.6260;-0.1020;
-65.4000;0.6243;-0.0927;
-65.1000;0.6243;-0.0951;
-64.8000;0.6235;-0.0974;
-64.5000;0.6235;-0.0951;
-64.2000;0.6227;-0.1020;
-63.9000;0.6243;-0.0997;
-63.6000;0.6235;-0.1090;
-63.3000;0.6235;-0.1113;
-63.0000;0.6268;-0.1020;
-62.7000;0.6252;-0.0997;
-62.4000;0.6235;-0.1020;
-62.1000;0.6219;-0.0927;
-61.8000;0.6235;-0.0927;
-61.5000;0.6235;-0.0974;
-61.2000;0.6243;-0.1020;
-60.9000;0.6243;-0.1067;
-60.6000;0.6243;-0.0974;
-60.3000;0.6243;-0.0951;
-60.0000;0.6260;-0.0951;
-59.7000;0.6243;-0.1090;
-59.4000;0.6243;-0.1136;
-59.1000;0.6252;-0.0974;
-58.8000;0.6268;-0.0904;
-58.5000;0.6243;-0.0951;
-58.2000;0.6292;-0.0858;
-57.9000;0.6252;-0.0881;
-57.6000;0.6284;-0.0765;
-57.3000;0.6243;-0.0835;
-57.0000;0.6235;-0.0974;
-56.7000;0.6243;-0.0951;
-56.4000;0.6243;-0.0951;
-56.1000;0.6260;-0.0927;
-55.8000;0.6227;-0.1020;
-55.5000;0.6252;-0.1043;
-55.2000;0.6243;-0.1020;
-54.9000;0.6252;-0.0927;
-54.6000;0.6227;-0.0927;
-54.3000;0.6235;-0.0881;
-54.0000;0.6243;-0.0927;
-53.7000;0.6252;-0.0881;
-53.4000;0.6252;-0.0881;
-53.1000;0.6260;-0.0811;
-52.8000;0.6252;-0.0719;
-52.5000;0.6219;-0.0788;
-52.2000;0.6284;-0.0672;
-51.9000;0.6227;-0.0742;
-51.6000;0.6252;-0.0765;
-51.3000;0.6252;-0.0765;
-51.0000;0.6219;-0.0765;
-50.7000;0.6235;-0.0742;
-50.4000;0.6268;-0.0672;
-50.1000;0.6317;-0.0626;
-49.8000;0.6252;-0.0835;
-49.5000;0.6219;-0.0927;
-49.2000;0.6252;-0.0927;
-48.9000;0.6260;-0.0927;
-48.6000;0.6284;-0.0881;
-48.3000;0.6243;-0.0904;
-48.0000;0.6252;-0.0881;
-47.7000;0.6252;-0.0951;
-47.4000;0.6276;-0.0904;
-47.1000;0.6284;-0.0835;
-46.8000;0.6227;-0.0927;
-46.5000;0.6235;-0.0881;
-46.2000;0.6243;-0.0858;
-45.9000;0.6243;-0.0811;
-45.6000;0.6243;-0.0811;
-45.3000;0.6260;-0.0858;
-45.0000;0.6260;-0.0927;
-44.7000;0.6227;-0.0974;
-44.4000;0.6260;-0.0858;
-44.1000;0.6154;-0.1090;
-43.8000;0.6260;-0.0835;
-43.5000;0.6227;-0.0951;
-43.2000;0.6235;-0.0904;
-42.9000;0.6260;-0.0719;
-42.6000;0.6252;-0.0719;
-42.3000;0.6235;-0.0788;
-42.0000;0.6211;-0.0835;
-41.7000;0.6219;-0.0835;
-41.4000;0.6243;-0.0835;
-41.1000;0.6252;-0.0858;
-40.8000;0.6260;-0.0927;
-40.5000;0.6227;-0.1020;
-40.2000;0.6268;-0.1020;
-39.9000;0.6260;-0.1043;
-39.6000;0.6292;-0.1067;
-39.3000;0.6243;-0.1182;
-39.0000;0.6252;-0.1182;
-38.7000;0.6252;-0.1113;
-38.4000;0.6252;-0.1136;
-38.1000;0.6260;-0.1159;
-37.8000;0.6219;-0.1229;
-37.5000;0.6235;-0.1159;
-37.2000;0.6235;-0.1229;
-36.9000;0.6325;-0.1067;
-36.6000;0.6252;-0.1275;
-36.3000;0.6260;-0.1229;
-36.0000;0.6276;-0.1136;
-35.7000;0.6260;-0.1113;
-35.4000;0.6243;-0.1136;
-35.1000;0.6235;-0.1159;
-34.8000;0.6243;-0.1159;
-34.5000;0.6211;-0.1182;
-34.2000;0.6243;-0.1113;
-33.9000;0.6219;-0.1136;
-33.6000;0.6227;-0.1090;
-33.3000;0.6235;-0.1067;
-33.0000;0.6235;-0.1067;
-32.7000;0.6178;-0.1206;
-32.4000;0.6252;-0.1090;
-32.1000;0.6260;-0.1067;
-31.8000;0.6243;-0.1113;
-31.5000;0.6243;-0.1090;
-31.2000;0.6276;-0.0951;
-30.9000;0.6260;-0.0974;
-30.6000;0.6243;-0.0974;
-30.3000;0.6243;-0.1020;
-30.0000;0.6235;-0.0997;
-29.7000;0.6235;-0.0974;
-29.4000;0.6260;-0.0904;
-29.1000;0.6252;-0.0904;
-28.8000;0.6227;-0.0974;
-28.5000;0.6227;-0.1067;
-28.2000;0.6252;-0.1043;
-27.9000;0.6243;-0.0997;
-27.6000;0.6227;-0.0974;
-27.3000;0.6284;-0.0835;
-27.0000;0.6252;-0.0835;
-26.7000;0.6227;-0.0904;
-26.4000;0.6243;-0.0951;
-26.1000;0.6243;-0.0904;
-25.8000;0.6243;-0.0997;
-25.5000;0.6268;-0.1113;
-25.2000;0.6243;-0.1113;
-24.9000;0.6300;-0.0974;
-24.6000;0.6325;-0.0904;
-24.3000;0.6252;-0.1136;
-24.0000;0.6243;-0.1136;
-23.7000;0.6243;-0.1090;
-23.4000;0.6219;-0.1113;
-23.1000;0.6186;-0.1182;
-22.8000;0.6170;-0.1229;
-22.5000;0.6235;-0.1067;
-22.2000;0.6268;-0.1020;
-21.9000;0.6243;-0.1067;
-21.6000;0.6227;-0.1159;
-21.3000;0.6243;-0.1090;
-21.0000;0.6243;-0.1090;
-20.7000;0.6252;-0.1090;
-20.4000;0.6235;-0.1113;
-20.1000;0.6235;-0.1159;
-19.8000;0.6219;-0.1159;
-19.5000;0.6227;-0.1229;
-19.2000;0.6252;-0.1182;
-18.9000;0.6227;-0.1182;
-18.6000;0.6235;-0.1067;
-18.3000;0.6292;-0.0927;
-18.0000;0.6211;-0.1067;
-17.7000;0.6235;-0.0927;
-17.4000;0.6252;-0.0951;
-17.1000;0.6333;-0.0765;
-16.8000;0.6268;-0.0997;
-16.5000;0.6268;-0.1043;
-16.2000;0.6252;-0.1090;
-15.9000;0.6235;-0.1136;
-15.6000;0.6260;-0.1090;
-15.3000;0.6268;-0.1136;
-15.0000;0.6243;-0.1229;
-14.7000;0.6219;-0.1206;
-14.4000;0.6243;-0.1159;
-14.1000;0.6252;-0.1136;
-13.8000;0.6309;-0.1043;
-13.5000;0.6227;-0.1229;
-13.2000;0.6268;-0.1136;
-12.9000;0.6243;-0.1067;
-12.6000;0.6235;-0.1067;
-12.3000;0.6252;-0.1020;
-12.0000;0.6243;-0.0997;
-11.7000;0.6260;-0.0927;
-11.4000;0.6243;-0.1043;
-11.1000;0.6252;-0.1043;
-10.8000;0.6252;-0.0974;
-10.5000;0.6243;-0.1043;
-10.2000;0.6309;-0.0788;
-9.9000;0.6243;-0.0904;
-9.6000;0.6227;-0.0951;
-9.3000;0.6268;-0.0858;
-9.0000;0.6235;-0.0904;
-8.7000;0.6276;-0.0811;
-8.4000;0.6243;-0.0881;
-8.1000;0.6219;-0.0904;
-7.8000;0.6243;-0.0858;
-7.5000;0.6195;-0.0904;
-7.2000;0.6211;-0.0904;
-6.9000;0.6268;-0.0788;
-6.6000;0.6268;-0.0811;
-6.3000;0.6300;-0.0719;
-6.0000;0.6252;-0.0788;
-5.7000;0.6227;-0.0858;
-5.4000;0.6260;-0.0835;
-5.1000;0.6252;-0.0904;
-4.8000;0.6235;-0.0904;
-4.5000;0.6260;-0.0788;
-4.2000;0.6252;-0.0858;
-3.9000;0.6252;-0.0811;
-3.6000;0.6235;-0.0974;
-3.3000;0.6260;-0.0974;
-3.0000;0.6243;-0.1043;
-2.7000;0.6219;-0.1067;
-2.4000;0.6203;-0.1159;
-2.1000;0.6211;-0.1229;
-1.8000;0.6235;-0.1136;
-1.5000;0.6252;-0.1159;
-1.2000;0.6243;-0.1159;
-0.9000;0.6276;-0.1136;
-0.6000;0.6276;-0.1090;
-0.3000;0.6227;-0.1113;
0.0000;0.6227;-0.1113;
0.3000;0.6536;-0.0742;
0.6000;0.7220;0.0139;
0.9000;0.7831;0.1159;
1.2000;0.8140;0.1646;
1.5000;0.8482;0.2203;
1.8000;0.8694;0.2620;
2.1000;0.8921;0.2968;
2.4000;0.9052;0.3246;
2.7000;0.9223;0.3594;
3.0000;0.9337;0.3733;
3.3000;0.9402;0.3756;
3.6000;0.9483;0.3918;
3.9000;0.9532;0.4011;
4.2000;0.9621;0.4173;
4.5000;0.9703;0.4336;
4.8000;0.9825;0.4498;
5.1000;0.9817;0.4452;
5.4000;0.9882;0.4521;
5.7000;0.9947;0.4521;
6.0000;0.9988;0.4521;
6.3000;1.0053;0.4498;
6.6000;1.0118;0.4568;
6.9000;1.0151;0.4544;
7.2000;1.0183;0.4405;
7.5000;1.0216;0.4428;
7.8000;1.0273;0.4452;
8.1000;1.0338;0.4498;
8.4000;1.0362;0.4428;
8.7000;1.0419;0.4498;
9.0000;1.0468;0.4707;
9.3000;1.0509;0.4776;
9.6000;1.0549;0.4730;
9.9000;1.0606;0.4707;
10.2000;1.0623;0.4683;
10.5000;1.0663;0.4730;
10.8000;1.0720;0.4730;
11.1000;1.0729;0.4637;
11.4000;1.0794;0.4683;
11.7000;1.0842;0.4637;
12.0000;1.0842;0.4544;
12.3000;1.0883;0.4568;
12.6000;1.0932;0.4614;
12.9000;1.0965;0.4614;
13.2000;1.0973;0.4475;
13.5000;1.1046;0.4498;
13.8000;1.1095;0.4475;
14.1000;1.1176;0.4637;
14.4000;1.1160;0.4521;
14.7000;1.1176;0.4521;
15.0000;1.1201;0.4475;
15.3000;1.1193;0.4359;
15.6000;1.1274;0.4475;
15.9000;1.1274;0.4452;
16.2000;1.1347;0.4475;
16.5000;1.1355;0.4428;
16.8000;1.1404;0.4475;
17.1000;1.1388;0.4452;
17.4000;1.1429;0.4521;
17.7000;1.1437;0.4568;
18.0000;1.1469;0.4544;
18.3000;1.1510;0.4544;
18.6000;1.1510;0.4521;
18.9000;1.1551;0.4614;
19.2000;1.1575;0.4707;
19.5000;1.1583;0.4707;
19.8000;1.1616;0.4776;
20.1000;1.1632;0.4730;
20.4000;1.1640;0.4683;
20.7000;1.1681;0.4776;
21.0000;1.1681;0.4660;
21.3000;1.1722;0.4660;
21.6000;1.1754;0.4637;
21.9000;1.1762;0.4568;
22.2000;1.1770;0.4475;
22.5000;1.1738;0.4266;
22.8000;1.1811;0.4428;
23.1000;1.1827;0.4405;
23.4000;1.1844;0.4405;
23.7000;1.1844;0.4498;
24.0000;1.1860;0.4591;
24.3000;1.1868;0.4660;
24.6000;1.1876;0.4521;
24.9000;1.1893;0.4544;
25.2000;1.1901;0.4568;
25.5000;1.1982;0.4753;
25.8000;1.1925;0.4544;
26.1000;1.1933;0.4544;
26.4000;1.1950;0.4614;
26.7000;1.1925;0.4498;
27.0000;1.1998;0.4544;
27.3000;1.1998;0.4475;
27.6000;1.2007;0.4475;
27.9000;1.2031;0.4498;
28.2000;1.2023;0.4475;
28.5000;1.2063;0.4568;
28.8000;1.2047;0.4498;
29.1000;1.2055;0.4475;
29.4000;1.2080;0.4475;
29.7000;1.2080;0.4382;
30.0000;1.2072;0.4312;
30.3000;1.2096;0.4359;
30.6000;1.2096;0.4312;
30.9000;1.2112;0.4336;
31.2000;1.2120;0.4382;
31.5000;1.2129;0.4359;
31.8000;1.2137;0.4428;
32.1000;1.2177;0.4568;
32.4000;1.2161;0.4544;
32.7000;1.2145;0.4544;
33.0000;1.2161;0.4405;
33.3000;1.2186;0.4382;
33.6000;1.2194;0.4336;
33.9000;1.2202;0.4312;
34.2000;1.2210;0.4405;
34.5000;1.2226;0.4405;
34.8000;1.2251;0.4336;
35.1000;1.2243;0.4289;
35.4000;1.2251;0.4312;
35.7000;1.2234;0.4289;
36.0000;1.2243;0.4312;
36.3000;1.2259;0.4266;
36.6000;1.2259;0.4220;
36.9000;1.2267;0.4243;
37.2000;1.2275;0.4220;
37.5000;1.2267;0.4150;
37.8000;1.2267;0.4197;
38.1000;1.2308;0.4266;
38.4000;1.2234;0.4127;
38.7000;1.2226;0.4127;
39.0000;1.2275;0.4197;
39.3000;1.2259;0.4127;
39.6000;1.2267;0.4173;
39.9000;1.2300;0.4127;
40.2000;1.2308;0.4081;
40.5000;1.2275;0.4034;
40.8000;1.2316;0.4197;
41.1000;1.2348;0.4220;
41.4000;1.2332;0.4127;
41.7000;1.2324;0.4081;
42.0000;1.2324;0.4081;
42.3000;1.2348;0.4150;
42.6000;1.2340;0.4104;
42.9000;1.2365;0.4150;
43.2000;1.2332;0.4057;
43.5000;1.2348;0.3988;
43.8000;1.2365;0.4011;
44.1000;1.2348;0.4034;
44.4000;1.2357;0.4104;
44.7000;1.2348;0.4081;
45.0000;1.2389;0.4127;
45.3000;1.2365;0.4104;
45.6000;1.2381;0.4197;
45.9000;1.2373;0.4243;
46.2000;1.2373;0.4266;
46.5000;1.2479;0.4428;
46.8000;1.2381;0.4173;
47.1000;1.2397;0.4150;
47.4000;1.2381;0.4150;
47.7000;1.2414;0.4243;
48.0000;1.2389;0.4173;
48.3000;1.2414;0.4127;
48.6000;1.2389;0.4081;
48.9000;1.2446;0.4173;
49.2000;1.2405;0.4150;
49.5000;1.2405;0.4104;
49.8000;1.2397;0.4011;
50.1000;1.2414;0.4150;
50.4000;1.2422;0.4220;
50.7000;1.2446;0.4289;
51.0000;1.2422;0.4266;
51.3000;1.2438;0.4243;
51.6000;1.2430;0.4243;
51.9000;1.2430;0.4220;
52.2000;1.2438;0.4173;
52.5000;1.2430;0.4220;
52.8000;1.2446;0.4220;
53.1000;1.2503;0.4289;
53.4000;1.2462;0.4220;
53.7000;1.2462;0.4197;
54.0000;1.2438;0.4081;
54.3000;1.2479;0.4150;
54.6000;1.2446;0.4150;
54.9000;1.2462;0.4104;
55.2000;1.2454;0.4127;
55.5000;1.2470;0.4104;
55.8000;1.2462;0.4057;
56.1000;1.2495;0.4057;
56.4000;1.2470;0.3942;
56.7000;1.2479;0.3965;
57.0000;1.2487;0.3942;
57.3000;1.2462;0.3965;
57.6000;1.2487;0.3988;
57.9000;1.2470;0.4057;
58.2000;1.2479;0.4150;
58.5000;1.2479;0.4150;
58.8000;1.2495;0.4104;
59.1000;1.2503;0.4127;
59.4000;1.2511;0.4173;
59.7000;1.2487;0.4104;
60.0000;1.2487;0.4081;
60.3000;1.2487;0.4127;
60.6000;1.2495;0.4104;
60.9000;1.2487;0.4104;
61.2000;1.2495;0.4057;
61.5000;1.2487;0.4057;
61.8000;1.2495;0.4081;
62.1000;1.2527;0.4104;
62.4000;1.2519;0.4081;
62.7000;1.2519;0.4011;
63.0000;1.2536;0.4057;
63.3000;1.2487;0.3895;
63.6000;1.2527;0.4034;
63.9000;1.2519;0.4081;
64.2000;1.2519;0.4034;
64.5000;1.2536;0.4057;
64.8000;1.2470;0.3872;
65.1000;1.2503;0.3988;
65.4000;1.2519;0.3965;
65.7000;1.2511;0.3895;
66.0000;1.2503;0.3942;
66.3000;1.2527;0.4011;
66.6000;1.2536;0.3942;
66.9000;1.2552;0.4057;
67.2000;1.2536;0.3965;
67.5000;1.2519;0.3826;
67.8000;1.2527;0.3918;
68.1000;1.2560;0.3849;
68.4000;1.2552;0.3826;
68.7000;1.2593;0.3965;
69.0000;1.2495;0.3733;
69.3000;1.2560;0.3918;
69.6000;1.2560;0.3988;
69.9000;1.2552;0.4011;
70.2000;1.2544;0.3965;
70.5000;1.2536;0.3918;
70.8000;1.2560;0.3918;
71.1000;1.2544;0.3918;
71.4000;1.2658;0.4081;
71.7000;1.2568;0.3895;
72.0000;1.2544;0.3872;
72.3000;1.2552;0.3779;
72.6000;1.2650;0.3895;
72.9000;1.2527;0.3617;
73.2000;1.2560;0.3640;
73.5000;1.2576;0.3710;
73.8000;1.2568;0.3710;
74.1000;1.2584;0.3733;
74.4000;1.2576;0.3733;
74.7000;1.2552;0.3779;
75.0000;1.2584;0.3826;
75.3000;1.2568;0.3849;
75.6000;1.2568;0.3849;
75.9000;1.2568;0.3779;
76.2000;1.2568;0.3802;
76.5000;1.2552;0.3756;
76.8000;1.2576;0.3826;
77.1000;1.2625;0.3802;
77.4000;1.2560;0.3594;
77.7000;1.2576;0.3779;
78.0000;1.2584;0.3802;
78.3000;1.2593;0.3895;
78.6000;1.2601;0.3895;
78.9000;1.2593;0.3849;
79.2000;1.2568;0.3756;
79.5000;1.2593;0.3756;
79.8000;1.2601;0.3802;
80.1000;1.2593;0.3826;
80.4000;1.2625;0.3965;
80.7000;1.2584;0.3872;
81.0000;1.2584;0.3756;
81.3000;1.2584;0.3733;
81.6000;1.2601;0.3686;
81.9000;1.2593;0.3733;
82.2000;1.2609;0.3826;
82.5000;1.2609;0.3779;
82.8000;1.2601;0.3826;
83.1000;1.2593;0.3849;
83.4000;1.2593;0.3826;
83.7000;1.2601;0.3779;
84.0000;1.2584;0.3779;
84.3000;1.2584;0.3756;
84.6000;1.2593;0.3802;
84.9000;1.2609;0.3826;
85.2000;1.2552;0.3686;
85.5000;1.2601;0.3779;
85.8000;1.2617;0.3756;
86.1000;1.2601;0.3733;
86.4000;1.2601;0.3686;
86.7000;1.2601;0.3733;
87.0000;1.2601;0.3849;
87.3000;1.2617;0.3942;
87.6000;1.2601;0.3895;
87.9000;1.2617;0.3965;
88.2000;1.2609;0.3895;
88.5000;1.2601;0.3895;
88.8000;1.2601;0.3872;
89.1000;1.2609;0.3779;
89.4000;1.2617;0.3779;
89.7000;1.2576;0.3779;
90.0000;1.2625;0.3872;
90.3000;1.2633;0.3826;
90.6000;1.2584;0.3617;
90.9000;1.2650;0.3756;
91.2000;1.2650;0.3733;
91.5000;1.2625;0.3756;
91.8000;1.2641;0.3686;
92.1000;1.2633;0.3640;
92.4000;1.2674;0.3710;
92.7000;1.2617;0.3594;
93.0000;1.2584;0.3524;
93.3000;1.2609;0.3594;
93.6000;1.2601;0.3547;
93.9000;1.2625;0.3617;
94.2000;1.2633;0.3617;
94.5000;1.2625;0.3571;
94.8000;1.2625;0.3594;
95.1000;1.2641;0.3571;
95.4000;1.2617;0.3478;
95.7000;1.2601;0.3408;
96.0000;1.2625;0.3431;
96.3000;1.2633;0.3501;
96.6000;1.2650;0.3478;
96.9000;1.2633;0.3339;
97.2000;1.2633;0.3431;
97.5000;1.2633;0.3431;
97.8000;1.2625;0.3385;
98.1000;1.2609;0.3362;
98.4000;1.2609;0.3362;
98.7000;1.2633;0.3501;
99.0000;1.2641;0.3501;
99.3000;1.2650;0.3524;
99.6000;1.2650;0.3524;
99.9000;1.2641;0.3478;
100.2000;1.2658;0.3478;
100.5000;1.2666;0.3408;
100.8000;1.2658;0.3385;
101.1000;1.2650;0.3316;
101.4000;1.2650;0.3362;
101.7000;1.2650;0.3408;
102.0000;1.2625;0.3316;
102.3000;1.2633;0.3362;
102.6000;1.2650;0.3385;
102.9000;1.2650;0.3408;
103.2000;1.2633;0.3408;
103.5000;1.2633;0.3385;
103.8000;1.2633;0.3316;
104.1000;1.2674;0.3455;
104.4000;1.2633;0.3431;
104.7000;1.2641;0.3455;
105.0000;1.2641;0.3455;
105.3000;1.2658;0.3478;
105.6000;1.2658;0.3524;
105.9000;1.2641;0.3455;
106.2000;1.2666;0.3501;
106.5000;1.2650;0.3501;
106.8000;1.2690;0.3594;
107.1000;1.2641;0.3408;
107.4000;1.2658;0.3362;
107.7000;1.2650;0.3385;
108.0000;1.2650;0.3385;
108.3000;1.2658;0.3292;
108.6000;1.2650;0.3292;
108.9000;1.2658;0.3339;
109.2000;1.2641;0.3269;
109.5000;1.2658;0.3316;
109.8000;1.2658;0.3223;
110.1000;1.2617;0.3107;
110.4000;1.2674;0.3269;
110.7000;1.2633;0.3176;
111.0000;1.2658;0.3200;
111.3000;1.2666;0.3362;
111.6000;1.2658;0.3385;
111.9000;1.2658;0.3385;
112.2000;1.2731;0.3571;
112.5000;1.2641;0.3362;
112.8000;1.2650;0.3408;
113.1000;1.2658;0.3478;
113.4000;1.2658;0.3501;
113.7000;1.2650;0.3431;
114.0000;1.2633;0.3339;
114.3000;1.2666;0.3362;
114.6000;1.2666;0.3408;
114.9000;1.2682;0.3385;
115.2000;1.2658;0.3385;
115.5000;1.2658;0.3362;
115.8000;1.2674;0.3362;
116.1000;1.2666;0.3339;
116.4000;1.2690;0.3339;
116.7000;1.2674;0.3246;
117.0000;1.2666;0.3200;
117.3000;1.2682;0.3223;
117.6000;1.2666;0.3246;
117.9000;1.2658;0.3269;
118.2000;1.2658;0.3200;
118.5000;1.2690;0.3200;
118.8000;1.2666;0.3107;
119.1000;1.2658;0.3107;
119.4000;1.2641;0.3060;
119.7000;1.2666;0.3084;
120.0000;1.2633;0.3037;
120.3000;1.2658;0.3130;
120.6000;1.2650;0.3107;
120.9000;1.2690;0.3153;
121.2000;1.2666;0.3084;
121.5000;1.2682;0.3176;
121.8000;1.2674;0.3130;
122.1000;1.2682;0.3084;
122.4000;1.2690;0.3176;
122.7000;1.2682;0.3246;
123.0000;1.2682;0.3292;
123.3000;1.2707;0.3408;
123.6000;1.2674;0.3408;
123.9000;1.2682;0.3431;
124.2000;1.2666;0.3385;
124.5000;1.2682;0.3431;
124.8000;1.2690;0.3339;
125.1000;1.2666;0.3316;
125.4000;1.2633;0.3223;
125.7000;1.2658;0.3130;
126.0000;1.2601;0.3014;
126.3000;1.2674;0.3200;
126.6000;1.2674;0.3153;
126.9000;1.2666;0.3107;
127.2000;1.2674;0.3200;
127.5000;1.2682;0.3176;
127.8000;1.2698;0.3130;
128.1000;1.2698;0.3037;
128.4000;1.2650;0.2875;
128.7000;1.2690;0.2875;
129.0000;1.2666;0.2852;
129.3000;1.2658;0.2829;
129.6000;1.2715;0.2898;
129.9000;1.2690;0.2852;
130.2000;1.2707;0.2968;
130.5000;1.2690;0.2991;
130.8000;1.2674;0.3060;
131.1000;1.2690;0.3107;
131.4000;1.2698;0.3084;
131.7000;1.2682;0.3107;
132.0000;1.2690;0.3153;
132.3000;1.2698;0.3107;
132.6000;1.2698;0.3153;
132.9000;1.2682;0.3153;
133.2000;1.2658;0.3130;
133.5000;1.2698;0.3292;
133.8000;1.2739;0.3455;
134.1000;1.2707;0.3362;
134.4000;1.2707;0.3339;
134.7000;1.2690;0.3316;
135.0000;1.2650;0.3339;
135.3000;1.2674;0.3339;
135.6000;1.2707;0.3269;
135.9000;1.2690;0.3176;
136.2000;1.2682;0.3130;
136.5000;1.2625;0.3014;
136.8000;1.2682;0.3153;
137.1000;1.2682;0.3269;
137.4000;1.2698;0.3200;
137.7000;1.2698;0.3246;
138.0000;1.2682;0.3269;
138.3000;1.2682;0.3292;
138.6000;1.2674;0.3246;
138.9000;1.2650;0.3060;
139.2000;1.2707;0.3060;
139.5000;1.2674;0.2968;
139.8000;1.2682;0.2968;
140.1000;1.2715;0.2991;
140.4000;1.2666;0.2875;
140.7000;1.2682;0.2805;
141.0000;1.2690;0.2782;
141.3000;1.2698;0.2829;
141.6000;1.2690;0.2852;
141.9000;1.2674;0.2805;
142.2000;1.2707;0.2759;
142.5000;1.2698;0.2713;
142.8000;1.2698;0.2759;
143.1000;1.2682;0.2759;
143.4000;1.2707;0.2875;
143.7000;1.2690;0.2805;
144.0000;1.2682;0.2898;
144.3000;1.2682;0.2875;
144.6000;1.2690;0.2852;
144.9000;1.2690;0.2875;
145.2000;1.2707;0.2921;
145.5000;1.2674;0.2852;
145.8000;1.2674;0.2829;
146.1000;1.2674;0.2759;
146.4000;1.2747;0.2852;
146.7000;1.2739;0.2829;
147.0000;1.2641;0.2643;
147.3000;1.2682;0.2713;
147.6000;1.2707;0.2852;
147.9000;1.2707;0.2875;
148.2000;1.2666;0.2759;
148.5000;1.2707;0.2805;
148.8000;1.2715;0.2782;
149.1000;1.2707;0.2759;
149.4000;1.2707;0.2805;
149.7000;1.2698;0.2782;
150.0000;1.2731;0.2852;
150.3000;1.2698;0.2782;
150.6000;1.2707;0.2690;
150.9000;1.2707;0.2736;
151.2000;1.2707;0.2736;
151.5000;1.2707;0.2805;
151.8000;1.2715;0.2782;
152.1000;1.2707;0.2736;
152.4000;1.2690;0.2736;
152.7000;1.2698;0.2782;
153.0000;1.2707;0.2805;
153.3000;1.2731;0.2898;
153.6000;1.2707;0.2852;
153.9000;1.2707;0.2898;
154.2000;1.2715;0.3037;
154.5000;1.2715;0.3060;
154.8000;1.2715;0.3037;
155.1000;1.2682;0.2945;
155.4000;1.2666;0.2921;
155.7000;1.2698;0.3037;
156.0000;1.2698;0.3037;
156.3000;1.2690;0.3060;
156.6000;1.2690;0.3014;
156.9000;1.2715;0.3037;
157.2000;1.2682;0.2968;
157.5000;1.2788;0.3130;
157.8000;1.2707;0.2921;
158.1000;1.2707;0.2921;
158.4000;1.2715;0.2898;
158.7000;1.2625;0.2782;
159.0000;1.2707;0.2991;
159.3000;1.2707;0.3060;
159.6000;1.2723;0.2991;
159.9000;1.2690;0.2968;
160.2000;1.2739;0.3014;
160.5000;1.2731;0.2852;
160.8000;1.2707;0.2782;
161.1000;1.2707;0.2736;
161.4000;1.2707;0.2759;
161.7000;1.2690;0.2805;
162.0000;1.2698;0.2805;
162.3000;1.2707;0.2829;
162.6000;1.2723;0.2829;
162.9000;1.2674;0.2759;
163.2000;1.2715;0.2921;
163.5000;1.2698;0.2852;
163.8000;1.2715;0.2852;
164.1000;1.2731;0.2875;
164.4000;1.2690;0.2782;
164.7000;1.2715;0.2829;
165.0000;1.2715;0.2829;
165.3000;1.2715;0.2898;
165.6000;1.2723;0.2829;
165.9000;1.2723;0.2736;
166.2000;1.2698;0.2782;
166.5000;1.2707;0.2759;
166.8000;1.2698;0.2782;
167.1000;1.2739;0.2852;
167.4000;1.2707;0.2805;
167.7000;1.2633;0.2643;
168.0000;1.2698;0.2829;
168.3000;1.2715;0.2805;
168.6000;1.2739;0.2782;
168.9000;1.2723;0.2736;
169.2000;1.2715;0.2736;
169.5000;1.2698;0.2782;
169.8000;1.2731;0.2875;
170.1000;1.2666;0.2690;
170.4000;1.2723;0.2782;
170.7000;1.2707;0.2736;
171.0000;1.2690;0.2690;
171.3000;1.2715;0.2736;
171.6000;1.2755;0.2852;
171.9000;1.2698;0.2875;
172.2000;1.2755;0.3060;
172.5000;1.2723;0.2991;
172.8000;1.2707;0.2875;
173.1000;1.2698;0.2829;
173.4000;1.2723;0.2829;
173.7000;1.2707;0.2805;
174.0000;1.2707;0.2782;
174.3000;1.2715;0.2805;
174.6000;1.2723;0.2805;
174.9000;1.2731;0.2782;
175.2000;1.2731;0.2782;
175.5000;1.2698;0.2736;
175.8000;1.2707;0.2759;
176.1000;1.2723;0.2829;
176.4000;1.2723;0.2829;
176.7000;1.2707;0.2759;
177.0000;1.2715;0.2782;
177.3000;1.2731;0.2852;
177.6000;1.2723;0.2898;
177.9000;1.2715;0.2805;
178.2000;1.2723;0.2713;
178.5000;1.2731;0.2829;
178.8000;1.2739;0.2852;
179.1000;1.2755;0.2852;
179.4000;1.2731;0.2829;
179.7000;1.2739;0.2898;
180.0000;1.2707;0.2898;
180.3000;1.2755;0.3014;
180.6000;1.2723;0.2968;
180.9000;1.2723;0.2991;
181.2000;1.2739;0.2991;
181.5000;1.2723;0.2945;
181.8000;1.2715;0.2875;
182.1000;1.2698;0.2921;
182.4000;1.2707;0.2968;
182.7000;1.2731;0.2968;
183.0000;1.2674;0.2690;
183.3000;1.2723;0.2782;
183.6000;1.2723;0.2898;
183.9000;1.2723;0.2852;
184.2000;1.2723;0.2759;
184.5000;1.2723;0.2736;
184.8000;1.2731;0.2829;
185.1000;1.2723;0.2713;
185.4000;1.2658;0.2597;
185.7000;1.2731;0.2829;
186.0000;1.2723;0.2805;
186.3000;1.2739;0.2898;
186.6000;1.2739;0.2852;
186.9000;1.2772;0.2968;
187.2000;1.2723;0.2852;
187.5000;1.2731;0.2875;
187.8000;1.2723;0.2829;
188.1000;1.2739;0.2898;
188.4000;1.2723;0.2782;
188.7000;1.2731;0.2805;
189.0000;1.2698;0.2805;
189.3000;1.2707;0.2829;
189.6000;1.2723;0.2875;
189.9000;1.2715;0.2898;
190.2000;1.2715;0.2945;
190.5000;1.2739;0.2968;
190.8000;1.2731;0.2852;
191.1000;1.2755;0.2875;
191.4000;1.2747;0.2805;
191.7000;1.2723;0.2736;
192.0000;1.2739;0.2736;
192.3000;1.2723;0.2736;
192.6000;1.2739;0.2782;
192.9000;1.2747;0.2759;
193.2000;1.2739;0.2805;
193.5000;1.2731;0.2759;
193.8000;1.2731;0.2829;
194.1000;1.2731;0.2875;
194.4000;1.2707;0.2829;
194.7000;1.2731;0.2829;
195.0000;1.2723;0.2782;
195.3000;1.2723;0.2805;
195.6000;1.2723;0.2805;
195.9000;1.2731;0.2713;
196.2000;1.2739;0.2736;
196.5000;1.2715;0.2782;
196.8000;1.2723;0.2736;
197.1000;1.2731;0.2713;
197.4000;1.2723;0.2713;
197.7000;1.2739;0.2643;
198.0000;1.2747;0.2690;
198.3000;1.2747;0.2666;
198.6000;1.2739;0.2643;
198.9000;1.2723;0.2597;
199.2000;1.2723;0.2620;
199.5000;1.2739;0.2666;
199.8000;1.2731;0.2666;
200.1000;1.2723;0.2643;
200.4000;1.2723;0.2690;
200.7000;1.2723;0.2782;
201.0000;1.2715;0.2713;
201.3000;1.2812;0.2968;
201.6000;1.2731;0.2782;
201.9000;1.2764;0.2759;
202.2000;1.2747;0.2690;
202.5000;1.2747;0.2736;
202.8000;1.2723;0.2759;
203.1000;1.2723;0.2805;
203.4000;1.2682;0.2713;
203.7000;1.2731;0.2759;
204.0000;1.2780;0.2875;
204.3000;1.2764;0.2875;
204.6000;1.2731;0.2782;
204.9000;1.2715;0.2713;
205.2000;1.2731;0.2736;
205.5000;1.2715;0.2690;
205.8000;1.2723;0.2805;
206.1000;1.2747;0.2921;
206.4000;1.2747;0.2945;
206.7000;1.2723;0.2945;
207.0000;1.2764;0.2968;
207.3000;1.2747;0.2898;
207.6000;1.2698;0.2805;
207.9000;1.2698;0.2805;
208.2000;1.2731;0.2898;
208.5000;1.2739;0.2898;
208.8000;1.2707;0.2782;
209.1000;1.2764;0.2852;
209.4000;1.2755;0.2736;
209.7000;1.2772;0.2805;
210.0000;1.2739;0.2805;
210.3000;1.2739;0.2805;
210.6000;1.2747;0.2690;
210.9000;1.2764;0.2690;
211.2000;1.2755;0.2690;
211.5000;1.2747;0.2782;
211.8000;1.2764;0.2829;
212.1000;1.2747;0.2852;
212.4000;1.2812;0.2991;
212.7000;1.2796;0.3107;
213.0000;1.2731;0.3084;
213.3000;1.2723;0.3060;
213.6000;1.2747;0.3060;
213.9000;1.2707;0.3014;
214.2000;1.2739;0.3130;
214.5000;1.2731;0.3153;
214.8000;1.2747;0.3130;
215.1000;1.2723;0.3130;
215.4000;1.2723;0.3130;
215.7000;1.2747;0.3130;
216.0000;1.2755;0.3176;
216.3000;1.2739;0.3084;
216.6000;1.2723;0.3037;
216.9000;1.2731;0.2968;
217.2000;1.2755;0.2968;
217.5000;1.2739;0.2921;
217.8000;1.2747;0.2875;
218.1000;1.2723;0.2852;
218.4000;1.2731;0.2829;
218.7000;1.2788;0.2945;
219.0000;1.2731;0.2852;
219.3000;1.2739;0.2898;
219.6000;1.2739;0.2991;
219.9000;1.2755;0.2991;
220.2000;1.2764;0.2968;
220.5000;1.2715;0.2829;
220.8000;1.2715;0.2782;
221.1000;1.2747;0.2852;
221.4000;1.2698;0.2736;
221.7000;1.2739;0.2805;
222.0000;1.2707;0.2736;
222.3000;1.2731;0.2805;
222.6000;1.2821;0.2898;
222.9000;1.2747;0.2759;
223.2000;1.2723;0.2690;
223.5000;1.2723;0.2643;
223.8000;1.2731;0.2574;
224.1000;1.2747;0.2620;
224.4000;1.2747;0.2550;
224.7000;1.2698;0.2481;
225.0000;1.2755;0.2458;
225.3000;1.2821;0.2597;
225.6000;1.2747;0.2481;
225.9000;1.2715;0.2504;
226.2000;1.2780;0.2620;
226.5000;1.2707;0.2481;
226.8000;1.2641;0.2342;
227.1000;1.2690;0.2458;
227.4000;1.2715;0.2458;
227.7000;1.2731;0.2620;
228.0000;1.2723;0.2690;
228.3000;1.2780;0.2852;
228.6000;1.2698;0.2736;
228.9000;1.2731;0.2782;
229.2000;1.2739;0.2852;
229.5000;1.2747;0.2898;
229.8000;1.2747;0.2921;
230.1000;1.2731;0.2898;
230.4000;1.2731;0.2805;
230.7000;1.2739;0.2829;
231.0000;1.2755;0.2805;
231.3000;1.2755;0.2829;
231.6000;1.2731;0.2805;
231.9000;1.2755;0.2852;
232.2000;1.2715;0.2736;
232.5000;1.2747;0.2736;
232.8000;1.2755;0.2597;
233.1000;1.2723;0.2527;
233.4000;1.2747;0.2574;
233.7000;1.2731;0.2666;
234.0000;1.2666;0.2504;
234.3000;1.2747;0.2643;
234.6000;1.2747;0.2666;
234.9000;1.2739;0.2643;
235.2000;1.2747;0.2782;
235.5000;1.2747;0.2782;
235.8000;1.2666;0.2504;
236.1000;1.2780;0.2736;
236.4000;1.2707;0.2550;
236.7000;1.2739;0.2620;
237.0000;1.2731;0.2643;
237.3000;1.2707;0.2643;
237.6000;1.2715;0.2620;
237.9000;1.2747;0.2666;
238.2000;1.2747;0.2666;
238.5000;1.2747;0.2643;
238.8000;1.2739;0.2643;
239.1000;1.2731;0.2620;
239.4000;1.2747;0.2643;
239.7000;1.2731;0.2643;
240.0000;1.2731;0.2713;
240.3000;1.2739;0.2736;
240.6000;1.2764;0.2736;
240.9000;1.2739;0.2690;
241.2000;1.2715;0.2713;
241.5000;1.2731;0.2782;
241.8000;1.2739;0.2759;
242.1000;1.2739;0.2759;
242.4000;1.2641;0.2527;
242.7000;1.2772;0.2759;
243.0000;1.2747;0.2643;
243.3000;1.2690;0.2434;
243.6000;1.2731;0.2504;
243.9000;1.2747;0.2597;
244.2000;1.2707;0.2574;
244.5000;1.2731;0.2713;
244.8000;1.2739;0.2736;
245.1000;1.2731;0.2713;
245.4000;1.2764;0.2736;
245.7000;1.2804;0.2875;
246.0000;1.2731;0.2713;
246.3000;1.2698;0.2620;
246.6000;1.2764;0.2805;
246.9000;1.2731;0.2713;
247.2000;1.2731;0.2643;
247.5000;1.2747;0.2620;
247.8000;1.2731;0.2574;
248.1000;1.2739;0.2550;
248.4000;1.2755;0.2574;
248.7000;1.2804;0.2597;
249.0000;1.2747;0.2504;
249.3000;1.2772;0.2504;
249.6000;1.2739;0.2527;
249.9000;1.2747;0.2597;
250.2000;1.2731;0.2550;
250.5000;1.2747;0.2690;
250.8000;1.2780;0.2759;
251.1000;1.2739;0.2690;
251.4000;1.2796;0.2805;
251.7000;1.2731;0.2574;
252.0000;1.2739;0.2759;
252.3000;1.2698;0.2574;
252.6000;1.2723;0.2597;
252.9000;1.2731;0.2713;
253.2000;1.2747;0.2713;
253.5000;1.2739;0.2736;
253.8000;1.2804;0.2898;
254.1000;1.2731;0.2782;
254.4000;1.2747;0.2852;
254.7000;1.2747;0.2898;
255.0000;1.2731;0.2875;
255.3000;1.2723;0.2759;
255.6000;1.2747;0.2782;
255.9000;1.2747;0.2805;
256.2000;1.2739;0.2782;
256.5000;1.2747;0.2805;
256.8000;1.2739;0.2666;
257.1000;1.2780;0.2620;
257.4000;1.2747;0.2574;
257.7000;1.2731;0.2597;
258.0000;1.2731;0.2666;
258.3000;1.2739;0.2666;
258.6000;1.2764;0.2782;
258.9000;1.2731;0.2898;
259.2000;1.2739;0.2898;
259.5000;1.2723;0.2852;
259.8000;1.2739;0.2805;
260.1000;1.2715;0.2666;
260.4000;1.2731;0.2666;
260.7000;1.2755;0.2666;
261.0000;1.2755;0.2666;
261.3000;1.2755;0.2782;
261.6000;1.2739;0.2759;
261.9000;1.2747;0.2759;
262.2000;1.2739;0.2736;
262.5000;1.2731;0.2736;
262.8000;1.2739;0.2713;
263.1000;1.2698;0.2643;
263.4000;1.2747;0.2805;
263.7000;1.2764;0.2782;
264.0000;1.2772;0.2713;
264.3000;1.2707;0.2550;
264.6000;1.2747;0.2643;
264.9000;1.2772;0.2643;
265.2000;1.2698;0.2481;
265.5000;1.2723;0.2527;
265.8000;1.2755;0.2643;
266.1000;1.2682;0.2411;
266.4000;1.2772;0.2713;
266.7000;1.2747;0.2666;
267.0000;1.2739;0.2690;
267.3000;1.2747;0.2690;
267.6000;1.2731;0.2620;
267.9000;1.2739;0.2690;
268.2000;1.2723;0.2736;
268.5000;1.2747;0.2782;
268.8000;1.2755;0.2782;
269.1000;1.2739;0.2829;
269.4000;1.2723;0.2829;
269.7000;1.2731;0.2829;
270.0000;1.2747;0.2782;
270.3000;1.2731;0.2782;
270.6000;1.2739;0.2829;
270.9000;1.2739;0.2829;
271.2000;1.2739;0.2829;
271.5000;1.2755;0.2852;
271.8000;1.2747;0.2852;
272.1000;1.2731;0.2805;
272.4000;1.2731;0.2759;
272.7000;1.2747;0.2805;
273.0000;1.2707;0.2690;
273.3000;1.2723;0.2690;
273.6000;1.2755;0.2666;
273.9000;1.2747;0.2574;
274.2000;1.2747;0.2574;
274.5000;1.2739;0.2597;
274.8000;1.2772;0.2597;
275.1000;1.2764;0.2574;
275.4000;1.2772;0.2690;
275.7000;1.2747;0.2643;
276.0000;1.2755;0.2690;
276.3000;1.2772;0.2736;
276.6000;1.2755;0.2690;
276.9000;1.2747;0.2713;
277.2000;1.2731;0.2643;
277.5000;1.2739;0.2643;
277.8000;1.2755;0.2759;
278.1000;1.2739;0.2713;
278.4000;1.2739;0.2666;
278.7000;1.2731;0.2666;
279.0000;1.2747;0.2666;
279.3000;1.2731;0.2574;
279.6000;1.2666;0.2319;
279.9000;1.2772;0.2504;
280.2000;1.2772;0.2643;
280.5000;1.2739;0.2597;
280.8000;1.2739;0.2574;
281.1000;1.2698;0.2504;
281.4000;1.2747;0.2643;
281.7000;1.2755;0.2666;
282.0000;1.2755;0.2643;
282.3000;1.2764;0.2666;
282.6000;1.2747;0.2620;
282.9000;1.2796;0.2759;
283.2000;1.2755;0.2643;
283.5000;1.2796;0.2736;
283.8000;1.2755;0.2643;
284.1000;1.2682;0.2550;
284.4000;1.2747;0.2690;
284.7000;1.2739;0.2666;
285.0000;1.2731;0.2666;
285.3000;1.2731;0.2643;
285.6000;1.2731;0.2643;
285.9000;1.2739;0.2713;
286.2000;1.2731;0.2690;
286.5000;1.2747;0.2666;
286.8000;1.2755;0.2713;
287.1000;1.2731;0.2643;
287.4000;1.2747;0.2666;
287.7000;1.2755;0.2759;
288.0000;1.2747;0.2713;
288.3000;1.2747;0.2713;
288.6000;1.2755;0.2574;
288.9000;1.2755;0.2620;
289.2000;1.2723;0.2597;
289.5000;1.2747;0.2736;
289.8000;1.2739;0.2736;
290.1000;1.2780;0.2875;
290.4000;1.2739;0.2782;
290.7000;1.2747;0.2805;
291.0000;1.2731;0.2805;
291.3000;1.2723;0.2898;
291.6000;1.2772;0.2991;
291.9000;1.2755;0.2921;
292.2000;1.2747;0.2829;
292.5000;1.2755;0.2759;
292.8000;1.2747;0.2759;
293.1000;1.2755;0.2759;
293.4000;1.2764;0.2736;
293.7000;1.2796;0.2759;
294.0000;1.2755;0.2736;
294.3000;1.2764;0.2736;
294.6000;1.2731;0.2736;
294.9000;1.2739;0.2898;
295.2000;1.2739;0.2898;
295.5000;1.2747;0.2852;
295.8000;1.2731;0.2782;
296.1000;1.2723;0.2805;
296.4000;1.2723;0.2690;
296.7000;1.2755;0.2782;
297.0000;1.2755;0.2829;
297.3000;1.2755;0.2736;
297.6000;1.2755;0.2690;
297.9000;1.2780;0.2713;
298.2000;1.2772;0.2759;
298.5000;1.2755;0.2713;
298.8000;1.2755;0.2736;
299.1000;1.2755;0.2782;
299.4000;1.2755;0.2829;
299.7000;1.2755;0.2782;
300.0000;1.2755;0.2713;
300.3000;1.2674;0.2481;
300.6000;1.2715;0.2527;
300.9000;1.2755;0.2550;
301.2000;1.2739;0.2550;
301.5000;1.2715;0.2365;
301.8000;1.2731;0.2388;
302.1000;1.2715;0.2365;
302.4000;1.2739;0.2504;
302.7000;1.2747;0.2481;
303.0000;1.2755;0.2481;
303.3000;1.2747;0.2458;
303.6000;1.2764;0.2458;
303.9000;1.2747;0.2365;
304.2000;1.2747;0.2458;
304.5000;1.2772;0.2458;
304.8000;1.2755;0.2481;
305.1000;1.2796;0.2597;
305.4000;1.2698;0.2365;
305.7000;1.2715;0.2388;
306.0000;1.2804;0.2574;
306.3000;1.2739;0.2458;
306.6000;1.2739;0.2434;
306.9000;1.2731;0.2504;
307.2000;1.2731;0.2597;
307.5000;1.2755;0.2620;
307.8000;1.2747;0.2643;
308.1000;1.2723;0.2574;
308.4000;1.2739;0.2597;
308.7000;1.2747;0.2574;
309.0000;1.2747;0.2527;
309.3000;1.2747;0.2550;
309.6000;1.2715;0.2504;
309.9000;1.2755;0.2620;
310.2000;1.2764;0.2666;
310.5000;1.2755;0.2666;
310.8000;1.2772;0.2666;
311.1000;1.2764;0.2643;
311.4000;1.2755;0.2666;
311.7000;1.2723;0.2666;
312.0000;1.2780;0.2829;
312.3000;1.2723;0.2690;
312.6000;1.2755;0.2782;
312.9000;1.2739;0.2736;
313.2000;1.2747;0.2690;
313.5000;1.2739;0.2620;
313.8000;1.2764;0.2550;
314.1000;1.2755;0.2481;
314.4000;1.2755;0.2504;
314.7000;1.2755;0.2504;
315.0000;1.2772;0.2574;
315.3000;1.2739;0.2527;
315.6000;1.2739;0.2550;
315.9000;1.2747;0.2574;
316.2000;1.2764;0.2643;
316.5000;1.2739;0.2481;
316.8000;1.2731;0.2411;
317.1000;1.2739;0.2434;
317.4000;1.2731;0.2365;
317.7000;1.2755;0.2411;
318.0000;1.2747;0.2411;
318.3000;1.2764;0.2504;
318.6000;1.2739;0.2481;
318.9000;1.2747;0.2527;
319.2000;1.2739;0.2504;
319.5000;1.2755;0.2643;
319.8000;1.2723;0.2620;
320.1000;1.2707;0.2527;
320.4000;1.2755;0.2597;
320.7000;1.2755;0.2713;
321.0000;1.2739;0.2736;
321.3000;1.2698;0.2666;
321.6000;1.2755;0.2713;
321.9000;1.2739;0.2666;
322.2000;1.2772;0.2736;
322.5000;1.2780;0.2805;
322.8000;1.2755;0.2713;
323.1000;1.2780;0.2759;
323.4000;1.2739;0.2736;
323.7000;1.2764;0.2782;
324.0000;1.2739;0.2829;
324.3000;1.2772;0.2875;
324.6000;1.2812;0.2921;
324.9000;1.2755;0.2805;
325.2000;1.2755;0.2736;
325.5000;1.2772;0.2829;
325.8000;1.2707;0.2666;
326.1000;1.2747;0.2782;
326.4000;1.2755;0.2782;
326.7000;1.2739;0.2805;
327.0000;1.2755;0.2736;
327.3000;1.2731;0.2736;
327.6000;1.2739;0.2782;
327.9000;1.2739;0.2736;
328.2000;1.2747;0.2713;
328.5000;1.2731;0.2666;
328.8000;1.2739;0.2643;
329.1000;1.2723;0.2643;
329.4000;1.2755;0.2713;
329.7000;1.2755;0.2759;
330.0000;1.2747;0.2666;
330.3000;1.2739;0.2690;
330.6000;1.2747;0.2782;
330.9000;1.2739;0.2690;
331.2000;1.2747;0.2690;
331.5000;1.2788;0.2736;
331.8000;1.2755;0.2690;
332.1000;1.2764;0.2643;
332.4000;1.2755;0.2597;
332.7000;1.2731;0.2550;
333.0000;1.2772;0.2713;
333.3000;1.2755;0.2713;
333.6000;1.2731;0.2713;
333.9000;1.2739;0.2782;
334.2000;1.2772;0.2713;
334.5000;1.2739;0.2550;
334.8000;1.2731;0.2504;
335.1000;1.2715;0.2481;
335.4000;1.2747;0.2597;
335.7000;1.2707;0.2411;
336.0000;1.2739;0.2481;
336.3000;1.2731;0.2504;
336.6000;1.2731;0.2434;
336.9000;1.2764;0.2481;
337.2000;1.2650;0.2203;
337.5000;1.2764;0.2411;
337.8000;1.2715;0.2342;
338.1000;1.2739;0.2365;
338.4000;1.2731;0.2434;
338.7000;1.2731;0.2550;
339.0000;1.2747;0.2504;
339.3000;1.2755;0.2527;
339.6000;1.2755;0.2527;
339.9000;1.2755;0.2527;
340.2000;1.2764;0.2458;
340.5000;1.2829;0.2597;
340.8000;1.2764;0.2504;
341.1000;1.2715;0.2434;
341.4000;1.2772;0.2481;
341.7000;1.2764;0.2527;
342.0000;1.2764;0.2458;
342.3000;1.2755;0.2458;
342.6000;1.2723;0.2342;
342.9000;1.2739;0.2295;
343.2000;1.2731;0.2295;
343.5000;1.2739;0.2342;
343.8000;1.2723;0.2434;
344.1000;1.2715;0.2504;
344.4000;1.2747;0.2574;
344.7000;1.2739;0.2666;
345.0000;1.2764;0.2759;
345.3000;1.2747;0.2782;
345.6000;1.2739;0.2759;
345.9000;1.2747;0.2736;
346.2000;1.2731;0.2713;
346.5000;1.2755;0.2736;
346.8000;1.2739;0.2666;
347.1000;1.2755;0.2620;
347.4000;1.2772;0.2666;
347.7000;1.2755;0.2620;
348.0000;1.2731;0.2620;
348.3000;1.2739;0.2690;
348.6000;1.2747;0.2666;
348.9000;1.2715;0.2666;
349.2000;1.2723;0.2713;
349.5000;1.2747;0.2852;
349.8000;1.2731;0.2782;
350.1000;1.2755;0.2875;
350.4000;1.2755;0.2805;
350.7000;1.2739;0.2759;
351.0000;1.2747;0.2759;
351.3000;1.2747;0.2759;
351.6000;1.2739;0.2713;
351.9000;1.2674;0.2597;
352.2000;1.2731;0.2759;
352.5000;1.2764;0.2875;
352.8000;1.2796;0.2875;
353.1000;1.2731;0.2805;
353.4000;1.2739;0.2875;
353.7000;1.2739;0.2921;
354.0000;1.2715;0.2875;
354.3000;1.2747;0.2898;
354.6000;1.2739;0.2875;
354.9000;1.2747;0.2829;
355.2000;1.2764;0.2852;
355.5000;1.2747;0.2852;
355.8000;1.2755;0.2829;
356.1000;1.2747;0.2759;
356.4000;1.2723;0.2690;
356.7000;1.2715;0.2736;
357.0000;1.2747;0.2829;
357.3000;1.2780;0.2921;
357.6000;1.2747;0.2829;
357.9000;1.2764;0.2875;
358.2000;1.2723;0.2690;
358.5000;1.2739;0.2782;
358.8000;1.2747;0.2829;
359.1000;1.2682;0.2666;
359.4000;1.2698;0.2643;
359.7000;1.2747;0.2759;
360.0000;1.2739;0.2829;
360.3000;1.2747;0.2805;
360.6000;1.2739;0.2759;
360.9000;1.2739;0.2782;
361.2000;1.2747;0.2805;
361.5000;1.2731;0.2829;
361.8000;1.2739;0.2805;
362.1000;1.2747;0.2805;
362.4000;1.2739;0.2805;
362.7000;1.2764;0.2852;
363.0000;1.2739;0.2852;
363.3000;1.2739;0.2829;
363.6000;1.2739;0.2829;
363.9000;1.2731;0.2852;
364.2000;1.2764;0.2991;
364.5000;1.2739;0.2968;
364.8000;1.2739;0.2921;
365.1000;1.2747;0.2945;
365.4000;1.2739;0.2898;
365.7000;1.2731;0.2968;
366.0000;1.2739;0.2898;
366.3000;1.2747;0.2945;
366.6000;1.2747;0.2921;
366.9000;1.2739;0.2852;
367.2000;1.2739;0.2829;
367.5000;1.2739;0.2852;
367.8000;1.2772;0.2945;
368.1000;1.2764;0.2968;
368.4000;1.2739;0.2945;
368.7000;1.2723;0.2829;
369.0000;1.2755;0.2875;
369.3000;1.2772;0.2921;
369.6000;1.2723;0.2759;
369.9000;1.2715;0.2829;
370.2000;1.2747;0.2782;
370.5000;1.2739;0.2736;
370.8000;1.2707;0.2620;
371.1000;1.2723;0.2666;
371.4000;1.2739;0.2620;
371.7000;1.2747;0.2550;
372.0000;1.2739;0.2527;
372.3000;1.2739;0.2597;
372.6000;1.2731;0.2666;
372.9000;1.2715;0.2597;
373.2000;1.2747;0.2643;
373.5000;1.2829;0.2898;
373.8000;1.2747;0.2736;
374.1000;1.2731;0.2690;
374.4000;1.2731;0.2643;
374.7000;1.2731;0.2666;
375.0000;1.2666;0.2527;
375.3000;1.2715;0.2666;
375.6000;1.2715;0.2690;
375.9000;1.2723;0.2690;
376.2000;1.2739;0.2690;
376.5000;1.2747;0.2805;
376.8000;1.2764;0.2898;
377.1000;1.2739;0.2852;
377.4000;1.2755;0.2805;
377.7000;1.2780;0.2875;
378.0000;1.2772;0.2852;
378.3000;1.2747;0.2875;
378.6000;1.2731;0.2875;
378.9000;1.2739;0.2898;
379.2000;1.2772;0.2921;
379.5000;1.2731;0.2736;
379.8000;1.2739;0.2666;
380.1000;1.2747;0.2666;
380.4000;1.2747;0.2690;
380.7000;1.2812;0.2875;
381.0000;1.2755;0.2713;
381.3000;1.2658;0.2527;
381.6000;1.2715;0.2713;
381.9000;1.2747;0.2759;
382.2000;1.2682;0.2643;
382.5000;1.2747;0.2852;
382.8000;1.2755;0.2898;
383.1000;1.2755;0.2875;
383.4000;1.2747;0.2852;
383.7000;1.2731;0.2713;
384.0000;1.2739;0.2643;
384.3000;1.2764;0.2736;
384.6000;1.2796;0.2805;
384.9000;1.2739;0.2620;
385.2000;1.2747;0.2643;
385.5000;1.2731;0.2643;
385.8000;1.2755;0.2643;
386.1000;1.2715;0.2690;
386.4000;1.2731;0.2782;
386.7000;1.2739;0.2782;
387.0000;1.2755;0.2875;
387.3000;1.2739;0.2852;
387.6000;1.2755;0.2782;
387.9000;1.2731;0.2713;
388.2000;1.2739;0.2736;
388.5000;1.2764;0.2852;
388.8000;1.2747;0.2852;
389.1000;1.2739;0.2875;
389.4000;1.2731;0.2875;
389.7000;1.2764;0.2898;
390.0000;1.2723;0.2829;
390.3000;1.2747;0.2852;
390.6000;1.2739;0.2852;
390.9000;1.2796;0.2968;
391.2000;1.2755;0.2991;
391.5000;1.2755;0.3014;
391.8000;1.2731;0.2991;
392.1000;1.2755;0.2991;
392.4000;1.2747;0.2968;
392.7000;1.2731;0.2991;
393.0000;1.2739;0.2991;
393.3000;1.2731;0.2875;
393.6000;1.2772;0.2991;
393.9000;1.2739;0.2875;
394.2000;1.2739;0.2852;
394.5000;1.2723;0.2782;
394.8000;1.2764;0.2782;
395.1000;1.2731;0.2736;
395.4000;1.2764;0.2782;
395.7000;1.2747;0.2805;
396.0000;1.2739;0.2875;
396.3000;1.2739;0.2875;
396.6000;1.2731;0.2759;
396.9000;1.2715;0.2829;
397.2000;1.2755;0.2945;
397.5000;1.2747;0.3037;
397.8000;1.2731;0.3037;
398.1000;1.2698;0.2968;
398.4000;1.2747;0.2968;
398.7000;1.2764;0.2991;
399.0000;1.2698;0.2782;
399.3000;1.2747;0.2898;
399.6000;1.2747;0.2945;
399.9000;1.2796;0.3084;
400.2000;1.2764;0.2852;
400.5000;1.2764;0.2829;
400.8000;1.2731;0.2805;
401.1000;1.2747;0.2852;
401.4000;1.2739;0.2805;
401.7000;1.2723;0.2805;
402.0000;1.2731;0.2829;
402.3000;1.2723;0.2898;
402.6000;1.2739;0.2921;
402.9000;1.2772;0.2945;
403.2000;1.2739;0.2945;
403.5000;1.2739;0.3014;
403.8000;1.2755;0.3084;
404.1000;1.2739;0.3130;
404.4000;1.2764;0.3130;
404.7000;1.2731;0.3107;
405.0000;1.2731;0.3037;
405.3000;1.2804;0.3200;
405.6000;1.2723;0.2968;
405.9000;1.2796;0.3200;
406.2000;1.2731;0.3014;
406.5000;1.2690;0.2875;
406.8000;1.2739;0.3084;
407.1000;1.2739;0.3130;
407.4000;1.2747;0.3223;
407.7000;1.2755;0.3200;
408.0000;1.2747;0.3223;
408.3000;1.2739;0.3223;
408.6000;1.2747;0.3292;
408.9000;1.2739;0.3316;
409.2000;1.2739;0.3316;
409.5000;1.2764;0.3408;
409.8000;1.2747;0.3385;
410.1000;1.2747;0.3408;
410.4000;1.2731;0.3316;
410.7000;1.2755;0.3223;
411.0000;1.2739;0.3223;
411.3000;1.2747;0.3107;
411.6000;1.2731;0.3130;
411.9000;1.2780;0.3130;
412.2000;1.2747;0.3060;
412.5000;1.2755;0.3107;
412.8000;1.2731;0.3037;
413.1000;1.2739;0.3014;
413.4000;1.2723;0.3014;
413.7000;1.2731;0.2991;
414.0000;1.2764;0.3037;
414.3000;1.2747;0.3060;
414.6000;1.2731;0.3153;
414.9000;1.2755;0.3153;
415.2000;1.2772;0.3176;
415.5000;1.2731;0.3130;
415.8000;1.2674;0.3014;
416.1000;1.2747;0.3153;
416.4000;1.2723;0.3153;
416.7000;1.2747;0.3153;
417.0000;1.2739;0.3084;
417.3000;1.2747;0.3084;
417.6000;1.2764;0.3176;
417.9000;1.2755;0.3200;
418.2000;1.2739;0.3176;
418.5000;1.2772;0.3200;
418.8000;1.2804;0.3269;
419.1000;1.2755;0.3107;
419.4000;1.2739;0.3130;
419.7000;1.2755;0.3130;
420.0000;1.2739;0.2991;
420.3000;1.2731;0.3014;
420.6000;1.2772;0.3176;
420.9000;1.2764;0.3130;
421.2000;1.2715;0.3060;
421.5000;1.2747;0.3037;
421.8000;1.2747;0.3037;
422.1000;1.2747;0.2921;
422.4000;1.2723;0.2852;
422.7000;1.2739;0.2898;
423.0000;1.2755;0.2945;
423.3000;1.2747;0.2921;
423.6000;1.2764;0.3014;
423.9000;1.2739;0.2852;
424.2000;1.2747;0.2945;
424.5000;1.2731;0.2898;
424.8000;1.2739;0.2898;
425.1000;1.2731;0.2829;
425.4000;1.2764;0.2898;
425.7000;1.2739;0.2829;
426.0000;1.2764;0.2829;
426.3000;1.2764;0.2852;
426.6000;1.2747;0.2968;
426.9000;1.2747;0.3060;
427.2000;1.2755;0.3107;
427.5000;1.2715;0.2991;
427.8000;1.2755;0.3037;
428.1000;1.2739;0.3037;
428.4000;1.2723;0.2968;
428.7000;1.2739;0.3014;
429.0000;1.2739;0.2991;
429.3000;1.2747;0.3014;
429.6000;1.2731;0.3037;
429.9000;1.2747;0.3060;
430.2000;1.2682;0.2898;
430.5000;1.2821;0.3176;
430.8000;1.2764;0.3014;
431.1000;1.2755;0.3037;
431.4000;1.2674;0.2945;
431.7000;1.2755;0.3107;
432.0000;1.2682;0.2921;
432.3000;1.2682;0.2968;
432.6000;1.2829;0.3292;
432.9000;1.2755;0.3107;
433.2000;1.2731;0.3153;
433.5000;1.2747;0.3130;
433.8000;1.2739;0.3060;
434.1000;1.2739;0.3153;
434.4000;1.2747;0.3130;
434.7000;1.2755;0.3060;
435.0000;1.2755;0.3014;
435.3000;1.2707;0.2875;
435.6000;1.2747;0.3014;
435.9000;1.2755;0.3060;
436.2000;1.2755;0.3060;
436.5000;1.2707;0.2968;
436.8000;1.2723;0.2968;
437.1000;1.2739;0.2991;
437.4000;1.2650;0.2805;
437.7000;1.2715;0.2921;
438.0000;1.2723;0.2968;
438.3000;1.2723;0.3037;
438.6000;1.2723;0.3037;
438.9000;1.2731;0.3060;
439.2000;1.2739;0.3130;
439.5000;1.2731;0.3130;
439.8000;1.2755;0.3223;
440.1000;1.2739;0.3176;
440.4000;1.2764;0.3130;
440.7000;1.2764;0.3084;
441.0000;1.2788;0.3060;
441.3000;1.2755;0.2921;
441.6000;1.2739;0.2921;
441.9000;1.2796;0.3084;
442.2000;1.2731;0.3014;
442.5000;1.2764;0.3060;
442.8000;1.2804;0.3153;
443.1000;1.2772;0.3060;
443.4000;1.2739;0.2921;
443.7000;1.2755;0.2852;
444.0000;1.2747;0.2782;
444.3000;1.2731;0.2736;
444.6000;1.2739;0.2759;
444.9000;1.2747;0.2875;
445.2000;1.2747;0.2829;
445.5000;1.2755;0.2921;
445.8000;1.2747;0.2991;
446.1000;1.2682;0.2898;
446.4000;1.2764;0.3176;
446.7000;1.2764;0.3200;
447.0000;1.2739;0.3153;
447.3000;1.2723;0.3060;
447.6000;1.2788;0.3084;
447.9000;1.2698;0.2852;
448.2000;1.2723;0.2921;
448.5000;1.2772;0.2945;
448.8000;1.2764;0.2829;
449.1000;1.2747;0.2805;
449.4000;1.2755;0.2852;
449.7000;1.2739;0.2805;
450.0000;1.2739;0.2829;
450.3000;1.2764;0.2968;
450.6000;1.2739;0.2852;
450.9000;1.2739;0.2852;
451.2000;1.2764;0.2921;
451.5000;1.2723;0.2829;
451.8000;1.2747;0.2875;
452.1000;1.2747;0.2898;
452.4000;1.2690;0.2713;
452.7000;1.2739;0.2875;
453.0000;1.2747;0.2898;
453.3000;1.2747;0.2945;
453.6000;1.2723;0.2875;
453.9000;1.2747;0.2875;
454.2000;1.2739;0.2852;
454.5000;1.2804;0.3014;
454.8000;1.2739;0.2852;
455.1000;1.2764;0.2968;
455.4000;1.2731;0.2945;
455.7000;1.2755;0.3037;
456.0000;1.2682;0.2898;
456.3000;1.2674;0.2852;
456.6000;1.2731;0.3037;
456.9000;1.2715;0.3107;
457.2000;1.2715;0.3060;
457.5000;1.2723;0.3060;
457.8000;1.2747;0.3014;
458.1000;1.2747;0.2852;
458.4000;1.2764;0.2829;
458.7000;1.2747;0.2736;
459.0000;1.2747;0.2759;
459.3000;1.2690;0.2666;
459.6000;1.2747;0.2805;
459.9000;1.2755;0.2805;
460.2000;1.2747;0.2898;
460.5000;1.2755;0.2991;
460.8000;1.2739;0.2898;
461.1000;1.2739;0.2829;
461.4000;1.2755;0.2921;
461.7000;1.2747;0.2875;
462.0000;1.2731;0.2829;
462.3000;1.2731;0.2898;
462.6000;1.2747;0.3014;
462.9000;1.2755;0.2968;
463.2000;1.2739;0.2945;
463.5000;1.2739;0.2921;
463.8000;1.2723;0.2968;
464.1000;1.2747;0.3060;
464.4000;1.2764;0.3153;
464.7000;1.2747;0.3107;
465.0000;1.2715;0.2945;
465.3000;1.2739;0.2968;
465.6000;1.2723;0.2898;
465.9000;1.2755;0.2945;
466.2000;1.2772;0.2852;
466.5000;1.2755;0.2759;
466.8000;1.2739;0.2805;
467.1000;1.2723;0.2759;
467.4000;1.2747;0.2713;
467.7000;1.2707;0.2597;
468.0000;1.2747;0.2713;
468.3000;1.2707;0.2643;
468.6000;1.2731;0.2736;
468.9000;1.2755;0.2805;
469.2000;1.2731;0.2759;
469.5000;1.2747;0.2759;
469.8000;1.2731;0.2782;
470.1000;1.2731;0.2690;
470.4000;1.2739;0.2736;
470.7000;1.2731;0.2782;
471.0000;1.2739;0.2829;
471.3000;1.2731;0.2829;
471.6000;1.2739;0.2782;
471.9000;1.2707;0.2736;
472.2000;1.2739;0.2736;
472.5000;1.2755;0.2759;
472.8000;1.2731;0.2805;
473.1000;1.2739;0.2829;
473.4000;1.2780;0.2921;
473.7000;1.2739;0.2829;
474.0000;1.2772;0.2921;
474.3000;1.2739;0.2829;
474.6000;1.2755;0.2875;
474.9000;1.2739;0.2852;
475.2000;1.2788;0.2968;
475.5000;1.2747;0.2968;
475.8000;1.2764;0.2945;
476.1000;1.2731;0.2921;
476.4000;1.2739;0.2991;
476.7000;1.2755;0.2991;
477.0000;1.2723;0.3014;
477.3000;1.2723;0.3014;
477.6000;1.2739;0.2968;
477.9000;1.2739;0.2968;
478.2000;1.2747;0.3014;
478.5000;1.2755;0.3107;
478.8000;1.2747;0.3014;
479.1000;1.2731;0.2991;
479.4000;1.2731;0.3037;
479.7000;1.2747;0.3060;
480.0000;1.2755;0.3084;
480.3000;1.2739;0.3014;
480.6000;1.2723;0.3037;
480.9000;1.2739;0.3037;
481.2000;1.2755;0.3014;
481.5000;1.2715;0.2945;
481.8000;1.2731;0.2898;
482.1000;1.2739;0.3037;
482.4000;1.2723;0.2921;
482.7000;1.2747;0.2991;
483.0000;1.2731;0.2968;
483.3000;1.2739;0.2945;
483.6000;1.2739;0.2875;
483.9000;1.2772;0.2968;
484.2000;1.2739;0.2991;
484.5000;1.2707;0.2945;
484.8000;1.2772;0.3060;
485.1000;1.2772;0.3037;
485.4000;1.2731;0.2991;
485.7000;1.2764;0.3107;
486.0000;1.2747;0.3153;
486.3000;1.2731;0.3130;
486.6000;1.2739;0.3130;
486.9000;1.2747;0.3107;
487.2000;1.2715;0.2991;
487.5000;1.2739;0.3037;
487.8000;1.2731;0.2945;
488.1000;1.2731;0.2991;
488.4000;1.2723;0.2898;
488.7000;1.2739;0.2829;
489.0000;1.2755;0.2945;
489.3000;1.2723;0.2921;
489.6000;1.2731;0.2945;
489.9000;1.2780;0.3037;
490.2000;1.2747;0.3014;
490.5000;1.2731;0.3084;
490.8000;1.2731;0.2991;
491.1000;1.2739;0.3084;
491.4000;1.2739;0.3107;
491.7000;1.2731;0.3107;
492.0000;1.2755;0.3107;
492.3000;1.2731;0.3014;
492.6000;1.2723;0.2991;
492.9000;1.2682;0.2921;
493.2000;1.2755;0.3130;
493.5000;1.2707;0.2968;
493.8000;1.2755;0.3130;
494.1000;1.2747;0.3084;
494.4000;1.2739;0.3037;
494.7000;1.2723;0.3060;
495.0000;1.2739;0.3084;
495.3000;1.2739;0.3037;
495.6000;1.2690;0.3014;
495.9000;1.2747;0.3200;
496.2000;1.2723;0.3153;
496.5000;1.2755;0.3176;
496.8000;1.2731;0.3130;
497.1000;1.2764;0.3200;
497.4000;1.2731;0.3153;
497.7000;1.2715;0.3200;
498.0000;1.2755;0.3200;
498.3000;1.2747;0.3107;
498.6000;1.2723;0.3037;
498.9000;1.2739;0.3014;
499.2000;1.2739;0.3060;
499.5000;1.2731;0.3014;
499.8000;1.2731;0.3060;
500.1000;1.2739;0.3037;
500.4000;1.2723;0.3130;
500.7000;1.2739;0.3153;
501.0000;1.2731;0.3107;
501.3000;1.2747;0.3223;
501.6000;1.2723;0.3153;
501.9000;1.2739;0.3107;
502.2000;1.2723;0.3107;
502.5000;1.2723;0.3107;
502.8000;1.2723;0.3176;
503.1000;1.2723;0.3130;
503.4000;1.2723;0.3107;
503.7000;1.2747;0.3176;
504.0000;1.2739;0.3153;
504.3000;1.2715;0.3153;
504.6000;1.2731;0.3200;
504.9000;1.2731;0.3176;
505.2000;1.2739;0.3130;
505.5000;1.2731;0.3130;
505.8000;1.2715;0.3107;
506.1000;1.2747;0.3200;
506.4000;1.2747;0.3176;
506.7000;1.2739;0.3200;
507.0000;1.2731;0.3107;
507.3000;1.2723;0.3060;
507.6000;1.2723;0.3107;
507.9000;1.2731;0.3084;
508.2000;1.2747;0.3153;
508.5000;1.2666;0.2898;
508.8000;1.2698;0.2945;
509.1000;1.2723;0.3014;
509.4000;1.2674;0.2829;
509.7000;1.2723;0.2991;
510.0000;1.2755;0.3014;
510.3000;1.2747;0.2991;
510.6000;1.2739;0.2991;
510.9000;1.2715;0.2921;
511.2000;1.2731;0.2968;
511.5000;1.2739;0.2968;
511.8000;1.2755;0.3037;
512.1000;1.2739;0.3037;
512.4000;1.2739;0.3037;
512.7000;1.2739;0.3014;
513.0000;1.2690;0.2968;
513.3000;1.2723;0.3060;
513.6000;1.2731;0.3130;
513.9000;1.2707;0.2945;
514.2000;1.2755;0.2991;
514.5000;1.2755;0.3014;
514.8000;1.2731;0.2945;
515.1000;1.2682;0.2921;
515.4000;1.2723;0.2991;
515.7000;1.2731;0.3084;
516.0000;1.2715;0.3037;
516.3000;1.2731;0.3014;
516.6000;1.2723;0.3014;
516.9000;1.2739;0.3107;
517.2000;1.2731;0.3130;
517.5000;1.2715;0.3060;
517.8000;1.2723;0.3060;
518.1000;1.2715;0.3014;
518.4000;1.2739;0.3014;
518.7000;1.2739;0.3014;
519.0000;1.2723;0.2921;
519.3000;1.2764;0.2991;
519.6000;1.2739;0.3037;
519.9000;1.2723;0.3107;
520.2000;1.2731;0.3130;
520.5000;1.2731;0.3200;
520.8000;1.2731;0.3130;
521.1000;1.2731;0.3223;
521.4000;1.2739;0.3223;
521.7000;1.2812;0.3362;
522.0000;1.2731;0.3153;
522.3000;1.2772;0.3200;
522.6000;1.2723;0.3107;
522.9000;1.2723;0.3107;
523.2000;1.2747;0.3060;
523.5000;1.2739;0.3014;
523.8000;1.2723;0.3014;
524.1000;1.2723;0.3060;
524.4000;1.2715;0.3084;
524.7000;1.2723;0.3060;
525.0000;1.2715;0.3014;
525.3000;1.2715;0.3014;
525.6000;1.2650;0.2875;
525.9000;1.2731;0.3014;
526.2000;1.2731;0.3130;
526.5000;1.2723;0.3223;
526.8000;1.2731;0.3200;
527.1000;1.2723;0.3130;
527.4000;1.2739;0.3107;
527.7000;1.2731;0.3060;
528.0000;1.2739;0.3084;
528.3000;1.2723;0.3014;
528.6000;1.2723;0.2991;
528.9000;1.2723;0.2991;
529.2000;1.2731;0.2945;
529.5000;1.2723;0.2968;
529.8000;1.2747;0.3014;
530.1000;1.2739;0.2921;
530.4000;1.2658;0.2736;
530.7000;1.2739;0.3014;
531.0000;1.2739;0.2991;
531.3000;1.2796;0.3037;
531.6000;1.2747;0.2991;
531.9000;1.2747;0.3060;
532.2000;1.2739;0.3153;
532.5000;1.2715;0.3153;
532.8000;1.2739;0.3200;
533.1000;1.2723;0.3176;
533.4000;1.2723;0.3060;
533.7000;1.2731;0.3014;
534.0000;1.2723;0.2921;
534.3000;1.2739;0.2991;
534.6000;1.2707;0.3014;
534.9000;1.2715;0.3130;
535.2000;1.2755;0.3223;
535.5000;1.2723;0.3130;
535.8000;1.2812;0.3501;
536.1000;1.2747;0.3339;
536.4000;1.2764;0.3316;
536.7000;1.2731;0.3269;
537.0000;1.2707;0.3153;
537.3000;1.2707;0.3060;
537.6000;1.2731;0.3107;
537.9000;1.2715;0.3014;
538.2000;1.2723;0.3014;
538.5000;1.2723;0.3084;
538.8000;1.2731;0.3037;
539.1000;1.2780;0.3130;
539.4000;1.2723;0.3037;
539.7000;1.2731;0.3153;
540.0000;1.2731;0.3176;
540.3000;1.2690;0.3084;
540.6000;1.2715;0.3176;
540.9000;1.2731;0.3153;
541.2000;1.2731;0.3060;
541.5000;1.2723;0.3084;
541.8000;1.2731;0.3107;
542.1000;1.2715;0.3037;
542.4000;1.2723;0.3014;
542.7000;1.2739;0.3060;
543.0000;1.2731;0.3084;
543.3000;1.2723;0.3014;
543.6000;1.2739;0.3084;
543.9000;1.2731;0.3037;
544.2000;1.2747;0.2991;
544.5000;1.2764;0.3130;
544.8000;1.2723;0.3084;
545.1000;1.2739;0.3107;
545.4000;1.2715;0.3107;
545.7000;1.2723;0.3153;
546.0000;1.2715;0.3084;
546.3000;1.2723;0.3014;
546.6000;1.2747;0.3037;
546.9000;1.2723;0.2991;
547.2000;1.2731;0.2921;
547.5000;1.2739;0.2968;
547.8000;1.2755;0.3037;
548.1000;1.2731;0.2991;
548.4000;1.2731;0.3084;
548.7000;1.2739;0.3107;
549.0000;1.2747;0.3176;
549.3000;1.2731;0.3107;
549.6000;1.2715;0.2991;
549.9000;1.2731;0.3060;
550.2000;1.2723;0.3084;
550.5000;1.2747;0.3153;
550.8000;1.2715;0.3200;
551.1000;1.2723;0.3316;
551.4000;1.2747;0.3269;
551.7000;1.2780;0.3223;
552.0000;1.2739;0.3084;
552.3000;1.2731;0.3037;
552.6000;1.2747;0.3060;
552.9000;1.2755;0.3084;
553.2000;1.2755;0.3084;
553.5000;1.2739;0.3060;
553.8000;1.2739;0.3037;
554.1000;1.2723;0.3014;
554.4000;1.2812;0.3153;
554.7000;1.2723;0.3037;
555.0000;1.2723;0.3084;
555.3000;1.2739;0.3130;
555.6000;1.2747;0.3107;
555.9000;1.2731;0.3107;
556.2000;1.2739;0.3037;
556.5000;1.2723;0.2991;
556.8000;1.2747;0.2945;
557.1000;1.2747;0.2945;
557.4000;1.2747;0.2945;
557.7000;1.2715;0.2875;
558.0000;1.2739;0.2921;
558.3000;1.2723;0.2898;
558.6000;1.2772;0.3107;
558.9000;1.2739;0.3037;
559.2000;1.2755;0.3037;
559.5000;1.2731;0.3037;
559.8000;1.2731;0.3037;
560.1000;1.2723;0.2968;
560.4000;1.2698;0.2875;
560.7000;1.2755;0.2991;
561.0000;1.2747;0.3037;
561.3000;1.2723;0.2968;
561.6000;1.2764;0.2991;
561.9000;1.2764;0.2945;
562.2000;1.2731;0.3037;
562.5000;1.2755;0.3176;
562.8000;1.2731;0.3130;
563.1000;1.2731;0.3130;
563.4000;1.2788;0.3316;
563.7000;1.2715;0.3153;
564.0000;1.2723;0.3107;
564.3000;1.2707;0.3060;
564.6000;1.2731;0.3153;
564.9000;1.2723;0.3060;
565.2000;1.2723;0.3014;
565.5000;1.2731;0.3060;
565.8000;1.2739;0.3014;
566.1000;1.2731;0.2945;
566.4000;1.2731;0.2921;
566.7000;1.2739;0.2921;
567.0000;1.2747;0.2945;
567.3000;1.2731;0.2945;
567.6000;1.2731;0.2945;
567.9000;1.2731;0.2968;
568.2000;1.2731;0.2991;
568.5000;1.2723;0.2991;
568.8000;1.2747;0.2991;
569.1000;1.2731;0.3014;
569.4000;1.2739;0.3014;
569.7000;1.2755;0.3107;
570.0000;1.2666;0.2921;
570.3000;1.2690;0.2968;
570.6000;1.2747;0.3153;
570.9000;1.2764;0.3200;
571.2000;1.2764;0.3176;
571.5000;1.2698;0.2991;
571.8000;1.2723;0.3060;
572.1000;1.2698;0.3014;
572.4000;1.2731;0.3060;
572.7000;1.2723;0.3107;
573.0000;1.2715;0.3107;
573.3000;1.2723;0.3130;
573.6000;1.2731;0.3037;
573.9000;1.2755;0.3014;
574.2000;1.2731;0.3084;
574.5000;1.2723;0.2991;
574.8000;1.2739;0.3060;
575.1000;1.2739;0.3037;
575.4000;1.2723;0.3037;
575.7000;1.2747;0.3153;
576.0000;1.2739;0.3084;
576.3000;1.2747;0.3176;
576.6000;1.2731;0.3200;
576.9000;1.2739;0.3200;
577.2000;1.2739;0.3223;
577.5000;1.2715;0.3084;
577.8000;1.2723;0.3037;
578.1000;1.2731;0.3060;
578.4000;1.2821;0.3339;
578.7000;1.2755;0.3107;
579.0000;1.2731;0.3060;
579.3000;1.2739;0.3084;
579.6000;1.2739;0.3153;
579.9000;1.2739;0.3153;
580.2000;1.2747;0.3153;
580.5000;1.2739;0.3223;
580.8000;1.2739;0.3246;
581.1000;1.2747;0.3176;
581.4000;1.2747;0.3176;
581.7000;1.2690;0.3014;
582.0000;1.2690;0.2945;
582.3000;1.2764;0.3130;
582.6000;1.2723;0.3037;
582.9000;1.2707;0.2991;
583.2000;1.2715;0.3060;
583.5000;1.2723;0.3037;
583.8000;1.2747;0.3130;
584.1000;1.2715;0.3084;
584.4000;1.2715;0.3153;
584.7000;1.2731;0.3084;
585.0000;1.2674;0.3014;
585.3000;1.2650;0.2945;
585.6000;1.2715;0.3153;
585.9000;1.2772;0.3316;
586.2000;1.2739;0.3316;
586.5000;1.2747;0.3339;
586.8000;1.2723;0.3385;
587.1000;1.2723;0.3408;
587.4000;1.2723;0.3200;
587.7000;1.2747;0.3176;
588.0000;1.2715;0.3084;
588.3000;1.2780;0.3246;
588.6000;1.2723;0.3084;
588.9000;1.2723;0.3107;
589.2000;1.2747;0.3200;
589.5000;1.2723;0.3176;
589.8000;1.2731;0.3246;
590.1000;1.2715;0.3269;
590.4000;1.2723;0.3200;
590.7000;1.2723;0.3200;
591.0000;1.2690;0.3130;
591.3000;1.2715;0.3130;
591.6000;1.2731;0.3176;
591.9000;1.2707;0.3107;
592.2000;1.2715;0.3200;
592.5000;1.2698;0.3130;
592.8000;1.2723;0.3084;
593.1000;1.2698;0.2991;
593.4000;1.2682;0.2945;
593.7000;1.2715;0.3037;
594.0000;1.2690;0.3084;
594.3000;1.2715;0.3130;
594.6000;1.2690;0.3014;
594.9000;1.2723;0.3084;
595.2000;1.2764;0.3223;
595.5000;1.2739;0.3153;
595.8000;1.2723;0.3037;
596.1000;1.2698;0.3037;
596.4000;1.2723;0.3060;
596.7000;1.2739;0.3084;
597.0000;1.2723;0.3130;
597.3000;1.2715;0.3200;
597.6000;1.2723;0.3153;
597.9000;1.2731;0.3176;
598.2000;1.2723;0.3130;
598.5000;1.2723;0.3130;
598.8000;1.2739;0.3223;
599.1000;1.2731;0.3200;
599.4000;1.2764;0.3292;
599.7000;1.2690;0.3130;
600.0000;1.2715;0.3176;
600.3000;1.2764;0.3060;
600.6000;1.2731;0.2852;
600.9000;1.2658;0.2504;
601.2000;1.2576;0.2342;
601.5000;1.2462;0.2110;
601.8000;1.2373;0.1832;
602.1000;1.2259;0.1507;
602.4000;1.2161;0.1206;
602.7000;1.2063;0.1020;
603.0000;1.1941;0.0765;
603.3000;1.1844;0.0603;
603.6000;1.1722;0.0441;
603.9000;1.1681;0.0348;
604.2000;1.1608;0.0209;
604.5000;1.1526;0.0093;
604.8000;1.1429;-0.0023;
605.1000;1.1380;0.0023;
605.4000;1.1290;-0.0093;
605.7000;1.1249;-0.0209;
606.0000;1.1176;-0.0278;
606.3000;1.1095;-0.0441;
606.6000;1.1079;-0.0533;
606.9000;1.0916;-0.0742;
607.2000;1.0932;-0.0603;
607.5000;1.0859;-0.0696;
607.8000;1.0802;-0.0696;
608.1000;1.0712;-0.0858;
608.4000;1.0720;-0.0742;
608.7000;1.0655;-0.0788;
609.0000;1.0566;-0.0881;
609.3000;1.0549;-0.0835;
609.6000;1.0525;-0.0719;
609.9000;1.0435;-0.0951;
610.2000;1.0435;-0.0951;
610.5000;1.0379;-0.0997;
610.8000;1.0330;-0.1020;
611.1000;1.0305;-0.0974;
611.4000;1.0248;-0.1043;
611.7000;1.0199;-0.1020;
612.0000;1.0175;-0.1067;
612.3000;1.0142;-0.1067;
612.6000;1.0085;-0.1136;
612.9000;1.0069;-0.1113;
613.2000;1.0020;-0.1043;
613.5000;0.9980;-0.0951;
613.8000;0.9955;-0.0927;
614.1000;0.9906;-0.0951;
614.4000;0.9874;-0.1020;
614.7000;0.9841;-0.1067;
615.0000;0.9809;-0.1159;
615.3000;0.9744;-0.1229;
615.6000;0.9727;-0.1206;
615.9000;0.9711;-0.1206;
616.2000;0.9678;-0.1159;
616.5000;0.9621;-0.1229;
616.8000;0.9597;-0.1229;
617.1000;0.9581;-0.1275;
617.4000;0.9540;-0.1414;
617.7000;0.9524;-0.1368;
618.0000;0.9491;-0.1275;
618.3000;0.9451;-0.1206;
618.6000;0.9434;-0.1275;
618.9000;0.9426;-0.1252;
619.2000;0.9377;-0.1368;
619.5000;0.9345;-0.1322;
619.8000;0.9328;-0.1437;
620.1000;0.9296;-0.1530;
620.4000;0.9263;-0.1577;
620.7000;0.9255;-0.1553;
621.0000;0.9231;-0.1414;
621.3000;0.9206;-0.1461;
621.6000;0.9182;-0.1484;
621.9000;0.9149;-0.1461;
622.2000;0.9141;-0.1414;
622.5000;0.9117;-0.1484;
622.8000;0.9076;-0.1507;
623.1000;0.9060;-0.1461;
623.4000;0.9052;-0.1437;
623.7000;0.9019;-0.1507;
624.0000;0.8970;-0.1577;
624.3000;0.8987;-0.1600;
624.6000;0.8970;-0.1600;
624.9000;0.8946;-0.1623;
625.2000;0.8938;-0.1577;
625.5000;0.8921;-0.1577;
625.8000;0.8824;-0.1693;
626.1000;0.8889;-0.1484;
626.4000;0.8921;-0.1345;
626.7000;0.8832;-0.1507;
627.0000;0.8856;-0.1414;
627.3000;0.8807;-0.1530;
627.6000;0.8783;-0.1577;
627.9000;0.8751;-0.1577;
628.2000;0.8751;-0.1507;
628.5000;0.8726;-0.1577;
628.8000;0.8718;-0.1669;
629.1000;0.8694;-0.1693;
629.4000;0.8685;-0.1623;
629.7000;0.8677;-0.1600;
630.0000;0.8669;-0.1530;
630.3000;0.8661;-0.1484;
630.6000;0.8596;-0.1623;
630.9000;0.8645;-0.1507;
631.2000;0.8588;-0.1553;
631.5000;0.8580;-0.1623;
631.8000;0.8531;-0.1808;
632.1000;0.8531;-0.1669;
632.4000;0.8523;-0.1669;
632.7000;0.8539;-0.1669;
633.0000;0.8523;-0.1646;
633.3000;0.8498;-0.1739;
633.6000;0.8490;-0.1739;
633.9000;0.8523;-0.1600;
634.2000;0.8466;-0.1785;
634.5000;0.8441;-0.1855;
634.8000;0.8457;-0.1808;
635.1000;0.8417;-0.1808;
635.4000;0.8417;-0.1878;
635.7000;0.8400;-0.1924;
636.0000;0.8474;-0.1716;
636.3000;0.8384;-0.1832;
636.6000;0.8368;-0.1808;
636.9000;0.8352;-0.1832;
637.2000;0.8352;-0.1739;
637.5000;0.8368;-0.1600;
637.8000;0.8335;-0.1669;
638.1000;0.8303;-0.1762;
638.4000;0.8287;-0.1693;
638.7000;0.8287;-0.1623;
639.0000;0.8278;-0.1623;
639.3000;0.8295;-0.1646;
639.6000;0.8270;-0.1762;
639.9000;0.8221;-0.1739;
640.2000;0.8246;-0.1577;
640.5000;0.8230;-0.1646;
640.8000;0.8230;-0.1693;
641.1000;0.8197;-0.1832;
641.4000;0.8189;-0.1948;
641.7000;0.8173;-0.1878;
642.0000;0.8189;-0.1785;
642.3000;0.8148;-0.1855;
642.6000;0.8140;-0.1785;
642.9000;0.8148;-0.1832;
643.2000;0.8140;-0.1878;
643.5000;0.8124;-0.1901;
643.8000;0.8099;-0.1901;
644.1000;0.8034;-0.2110;
644.4000;0.8156;-0.1808;
644.7000;0.8107;-0.2040;
645.0000;0.8059;-0.1994;
645.3000;0.8099;-0.1855;
645.6000;0.8075;-0.1808;
645.9000;0.8042;-0.1808;
646.2000;0.8018;-0.1808;
646.5000;0.8059;-0.1785;
646.8000;0.8034;-0.1808;
647.1000;0.8018;-0.1832;
647.4000;0.8002;-0.1808;
647.7000;0.8002;-0.1832;
648.0000;0.7985;-0.1762;
648.3000;0.7985;-0.1785;
648.6000;0.7945;-0.1832;
648.9000;0.7969;-0.1739;
649.2000;0.7993;-0.1716;
649.5000;0.8002;-0.1716;
649.8000;0.7969;-0.1762;
650.1000;0.7945;-0.1785;
650.4000;0.7912;-0.1901;
650.7000;0.7928;-0.1855;
651.0000;0.7920;-0.1901;
651.3000;0.7920;-0.1901;
651.6000;0.7961;-0.1832;
651.9000;0.7961;-0.1785;
652.2000;0.7928;-0.1878;
652.5000;0.7888;-0.2040;
652.8000;0.7871;-0.2040;
653.1000;0.7888;-0.1971;
653.4000;0.7863;-0.1878;
653.7000;0.7880;-0.1785;
654.0000;0.7847;-0.1832;
654.3000;0.7823;-0.1832;
654.6000;0.7823;-0.1785;
654.9000;0.7823;-0.1785;
655.2000;0.7774;-0.1878;
655.5000;0.7798;-0.1832;
655.8000;0.7823;-0.1901;
656.1000;0.7757;-0.2017;
656.4000;0.7774;-0.1924;
656.7000;0.7782;-0.1878;
657.0000;0.7839;-0.1739;
657.3000;0.7774;-0.1739;
657.6000;0.7757;-0.1669;
657.9000;0.7757;-0.1577;
658.2000;0.7766;-0.1623;
658.5000;0.7757;-0.1716;
658.8000;0.7741;-0.1808;
659.1000;0.7733;-0.1901;
659.4000;0.7741;-0.1948;
659.7000;0.7717;-0.1994;
660.0000;0.7700;-0.1994;
660.3000;0.7741;-0.1878;
660.6000;0.7709;-0.1878;
660.9000;0.7709;-0.1808;
661.2000;0.7725;-0.1785;
661.5000;0.7684;-0.1855;
661.8000;0.7700;-0.1855;
662.1000;0.7652;-0.1971;
662.4000;0.7676;-0.1808;
662.7000;0.7660;-0.1832;
663.0000;0.7700;-0.1623;
663.3000;0.7660;-0.1646;
663.6000;0.7660;-0.1693;
663.9000;0.7635;-0.1716;
664.2000;0.7660;-0.1669;
664.5000;0.7627;-0.1832;
664.8000;0.7586;-0.1901;
665.1000;0.7692;-0.1577;
665.4000;0.7652;-0.1669;
665.7000;0.7611;-0.1739;
666.0000;0.7611;-0.1785;
666.3000;0.7611;-0.1832;
666.6000;0.7586;-0.1808;
666.9000;0.7570;-0.1832;
667.2000;0.7570;-0.1762;
667.5000;0.7578;-0.1808;
667.8000;0.7570;-0.1901;
668.1000;0.7546;-0.2040;
668.4000;0.7562;-0.1994;
668.7000;0.7562;-0.1948;
669.0000;0.7554;-0.1924;
669.3000;0.7546;-0.1924;
669.6000;0.7554;-0.1878;
669.9000;0.7546;-0.1878;
670.2000;0.7546;-0.1785;
670.5000;0.7521;-0.1948;
670.8000;0.7538;-0.1948;
671.1000;0.7530;-0.1924;
671.4000;0.7456;-0.2017;
671.7000;0.7521;-0.1855;
672.0000;0.7505;-0.1855;
672.3000;0.7521;-0.1762;
672.6000;0.7497;-0.1785;
672.9000;0.7513;-0.1808;
673.2000;0.7505;-0.1901;
673.5000;0.7473;-0.1994;
673.8000;0.7505;-0.1901;
674.1000;0.7481;-0.1971;
674.4000;0.7424;-0.2064;
674.7000;0.7473;-0.1832;
675.0000;0.7481;-0.1808;
675.3000;0.7464;-0.1878;
675.6000;0.7473;-0.1855;
675.9000;0.7456;-0.1808;
676.2000;0.7448;-0.1808;
676.5000;0.7513;-0.1716;
676.8000;0.7464;-0.1785;
677.1000;0.7456;-0.1808;
677.4000;0.7464;-0.1762;
677.7000;0.7456;-0.1878;
678.0000;0.7416;-0.1855;
678.3000;0.7407;-0.1832;
678.6000;0.7407;-0.1785;
678.9000;0.7424;-0.1832;
679.2000;0.7432;-0.1785;
679.5000;0.7391;-0.1924;
679.8000;0.7375;-0.1971;
680.1000;0.7432;-0.1901;
680.4000;0.7424;-0.1808;
680.7000;0.7383;-0.1855;
681.0000;0.7391;-0.1901;
681.3000;0.7359;-0.1994;
681.6000;0.7375;-0.1924;
681.9000;0.7391;-0.1832;
682.2000;0.7383;-0.1808;
682.5000;0.7359;-0.1808;
682.8000;0.7359;-0.1785;
683.1000;0.7367;-0.1808;
683.4000;0.7367;-0.1716;
683.7000;0.7342;-0.1739;
684.0000;0.7391;-0.1739;
684.3000;0.7359;-0.1878;
684.6000;0.7342;-0.1878;
684.9000;0.7342;-0.1739;
685.2000;0.7350;-0.1669;
685.5000;0.7350;-0.1669;
685.8000;0.7342;-0.1693;
686.1000;0.7350;-0.1716;
686.4000;0.7342;-0.1693;
686.7000;0.7318;-0.1716;
687.0000;0.7318;-0.1693;
687.3000;0.7269;-0.1785;
687.6000;0.7310;-0.1785;
687.9000;0.7326;-0.1808;
688.2000;0.7302;-0.1855;
688.5000;0.7318;-0.1901;
688.8000;0.7310;-0.1901;
689.1000;0.7293;-0.1924;
689.4000;0.7293;-0.1832;
689.7000;0.7269;-0.1878;
690.0000;0.7245;-0.1855;
690.3000;0.7277;-0.1878;
690.6000;0.7285;-0.1855;
690.9000;0.7269;-0.1878;
691.2000;0.7261;-0.1878;
691.5000;0.7253;-0.1832;
691.8000;0.7277;-0.1808;
692.1000;0.7269;-0.1808;
692.4000;0.7302;-0.1716;
692.7000;0.7236;-0.1762;
693.0000;0.7253;-0.1646;
693.3000;0.7253;-0.1716;
693.6000;0.7236;-0.1739;
693.9000;0.7220;-0.1808;
694.2000;0.7236;-0.1808;
694.5000;0.7236;-0.1808;
694.8000;0.7245;-0.1669;
695.1000;0.7220;-0.1693;
695.4000;0.7220;-0.1716;
695.7000;0.7245;-0.1762;
696.0000;0.7212;-0.1762;
696.3000;0.7228;-0.1739;
696.6000;0.7212;-0.1762;
696.9000;0.7220;-0.1646;
697.2000;0.7196;-0.1716;
697.5000;0.7204;-0.1739;
697.8000;0.7212;-0.1693;
698.1000;0.7204;-0.1669;
698.4000;0.7220;-0.1623;
698.7000;0.7212;-0.1577;
699.0000;0.7179;-0.1623;
699.3000;0.7204;-0.1600;
699.6000;0.7196;-0.1577;
699.9000;0.7179;-0.1646;
700.2000;0.7171;-0.1693;
700.5000;0.7196;-0.1600;
700.8000;0.7196;-0.1600;
701.1000;0.7220;-0.1600;
701.4000;0.7171;-0.1785;
701.7000;0.7179;-0.1739;
702.0000;0.7123;-0.1924;
702.3000;0.7171;-0.1855;
702.6000;0.7155;-0.1878;
702.9000;0.7163;-0.1832;
703.2000;0.7179;-0.1785;
703.5000;0.7171;-0.1762;
703.8000;0.7155;-0.1739;
704.1000;0.7123;-0.1762;
704.4000;0.7139;-0.1808;
704.7000;0.7139;-0.1808;
705.0000;0.7147;-0.1762;
705.3000;0.7155;-0.1739;
705.6000;0.7131;-0.1739;
705.9000;0.7123;-0.1762;
706.2000;0.7131;-0.1669;
706.5000;0.7147;-0.1577;
706.8000;0.7123;-0.1623;
707.1000;0.7114;-0.1693;
707.4000;0.7131;-0.1646;
707.7000;0.7123;-0.1600;
708.0000;0.7114;-0.1716;
708.3000;0.7114;-0.1693;
708.6000;0.7123;-0.1716;
708.9000;0.7123;-0.1716;
709.2000;0.7106;-0.1693;
709.5000;0.7114;-0.1693;
709.8000;0.7114;-0.1646;
710.1000;0.7098;-0.1693;
710.4000;0.7090;-0.1716;
710.7000;0.7098;-0.1600;
711.0000;0.7098;-0.1577;
711.3000;0.7082;-0.1646;
711.6000;0.7082;-0.1669;
711.9000;0.7098;-0.1646;
712.2000;0.7082;-0.1669;
712.5000;0.7090;-0.1623;
712.8000;0.7082;-0.1623;
713.1000;0.7082;-0.1623;
713.4000;0.7057;-0.1762;
713.7000;0.7066;-0.1623;
714.0000;0.7057;-0.1600;
714.3000;0.7057;-0.1507;
714.6000;0.7057;-0.1507;
714.9000;0.7049;-0.1530;
715.2000;0.7066;-0.1461;
715.5000;0.7049;-0.1623;
715.8000;0.7082;-0.1577;
716.1000;0.7041;-0.1669;
716.4000;0.7041;-0.1716;
716.7000;0.7049;-0.1716;
717.0000;0.7057;-0.1669;
717.3000;0.7025;-0.1716;
717.6000;0.7041;-0.1646;
717.9000;0.7033;-0.1646;
718.2000;0.7025;-0.1669;
718.5000;0.7033;-0.1669;
718.8000;0.7025;-0.1693;
719.1000;0.7033;-0.1716;
719.4000;0.7009;-0.1739;
719.7000;0.7025;-0.1669;
720.0000;0.7025;-0.1693;
720.3000;0.7025;-0.1669;
720.6000;0.7000;-0.1716;
720.9000;0.7017;-0.1646;
721.2000;0.7009;-0.1739;
721.5000;0.7000;-0.1762;
721.8000;0.6976;-0.1808;
722.1000;0.7009;-0.1669;
722.4000;0.7000;-0.1693;
722.7000;0.7017;-0.1600;
723.0000;0.7017;-0.1577;
723.3000;0.7000;-0.1646;
723.6000;0.6992;-0.1600;
723.9000;0.7017;-0.1600;
724.2000;0.7017;-0.1600;
724.5000;0.7017;-0.1530;
724.8000;0.6968;-0.1693;
725.1000;0.7000;-0.1669;
725.4000;0.6992;-0.1669;
725.7000;0.6968;-0.1739;
726.0000;0.6984;-0.1716;
726.3000;0.6976;-0.1716;
726.6000;0.6984;-0.1716;
726.9000;0.6943;-0.1693;
727.2000;0.6968;-0.1623;
727.5000;0.6968;-0.1600;
727.8000;0.6976;-0.1646;
728.1000;0.6952;-0.1739;
728.4000;0.6968;-0.1693;
728.7000;0.6968;-0.1693;
729.0000;0.6992;-0.1739;
729.3000;0.7000;-0.1785;
729.6000;0.6960;-0.1832;
729.9000;0.6968;-0.1785;
730.2000;0.6976;-0.1762;
730.5000;0.6984;-0.1762;
730.8000;0.6960;-0.1832;
731.1000;0.6943;-0.1832;
731.4000;0.6935;-0.1785;
731.7000;0.6935;-0.1739;
732.0000;0.6935;-0.1716;
732.3000;0.6943;-0.1716;
732.6000;0.6927;-0.1669;
732.9000;0.6927;-0.1669;
733.2000;0.6927;-0.1623;
733.5000;0.6935;-0.1577;
733.8000;0.6919;-0.1553;
734.1000;0.6919;-0.1577;
734.4000;0.6943;-0.1577;
734.7000;0.6919;-0.1577;
735.0000;0.6935;-0.1600;
735.3000;0.6903;-0.1623;
735.6000;0.6919;-0.1553;
735.9000;0.6903;-0.1646;
736.2000;0.6919;-0.1553;
736.5000;0.6911;-0.1530;
736.8000;0.6911;-0.1461;
737.1000;0.6911;-0.1461;
737.4000;0.6903;-0.1484;
737.7000;0.6903;-0.1484;
738.0000;0.6911;-0.1553;
738.3000;0.6935;-0.1507;
738.6000;0.6903;-0.1623;
738.9000;0.6903;-0.1553;
739.2000;0.6935;-0.1461;
739.5000;0.6919;-0.1507;
739.8000;0.6886;-0.1646;
740.1000;0.6903;-0.1600;
740.4000;0.6878;-0.1669;
740.7000;0.6911;-0.1669;
741.0000;0.6878;-0.1693;
741.3000;0.6943;-0.1461;
741.6000;0.6903;-0.1461;
741.9000;0.6895;-0.1553;
742.2000;0.6886;-0.1600;
742.5000;0.6838;-0.1762;
742.8000;0.6878;-0.1623;
743.1000;0.6903;-0.1623;
743.4000;0.6895;-0.1623;
743.7000;0.6878;-0.1716;
744.0000;0.6886;-0.1693;
744.3000;0.6870;-0.1716;
744.6000;0.6886;-0.1669;
744.9000;0.6895;-0.1600;
745.2000;0.6870;-0.1646;
745.5000;0.6878;-0.1739;
745.8000;0.6846;-0.1739;
746.1000;0.6862;-0.1646;
746.4000;0.6870;-0.1646;
746.7000;0.6862;-0.1623;
747.0000;0.6870;-0.1600;
747.3000;0.6911;-0.1553;
747.6000;0.6862;-0.1600;
747.9000;0.6862;-0.1577;
748.2000;0.6846;-0.1716;
748.5000;0.6862;-0.1693;
748.8000;0.6862;-0.1739;
749.1000;0.6829;-0.1808;
749.4000;0.6838;-0.1762;
749.7000;0.6862;-0.1693;
750.0000;0.6854;-0.1693;
750.3000;0.6846;-0.1669;
750.6000;0.6862;-0.1623;
750.9000;0.6846;-0.1600;
751.2000;0.6838;-0.1693;
751.5000;0.6846;-0.1716;
751.8000;0.6846;-0.1739;
752.1000;0.6829;-0.1832;
752.4000;0.6829;-0.1762;
752.7000;0.6838;-0.1646;
753.0000;0.6838;-0.1669;
753.3000;0.6838;-0.1669;
753.6000;0.6846;-0.1623;
753.9000;0.6838;-0.1623;
754.2000;0.6821;-0.1646;
754.5000;0.6838;-0.1669;
754.8000;0.6829;-0.1623;
755.1000;0.6846;-0.1600;
755.4000;0.6821;-0.1693;
755.7000;0.6846;-0.1669;
756.0000;0.6846;-0.1623;
756.3000;0.6846;-0.1577;
756.6000;0.6805;-0.1600;
756.9000;0.6797;-0.1600;
757.2000;0.6886;-0.1414;
757.5000;0.6821;-0.1623;
757.8000;0.6821;-0.1693;
758.1000;0.6789;-0.1693;
758.4000;0.6886;-0.1553;
758.7000;0.6813;-0.1646;
759.0000;0.6805;-0.1646;
759.3000;0.6805;-0.1716;
759.6000;0.6789;-0.1739;
759.9000;0.6829;-0.1530;
760.2000;0.6895;-0.1252;
760.5000;0.6805;-0.1414;
760.8000;0.6797;-0.1391;
761.1000;0.6789;-0.1437;
761.4000;0.6829;-0.1391;
761.7000;0.6797;-0.1437;
762.0000;0.6805;-0.1530;
762.3000;0.6797;-0.1484;
762.6000;0.6797;-0.1437;
762.9000;0.6781;-0.1530;
763.2000;0.6772;-0.1577;
763.5000;0.6756;-0.1693;
763.8000;0.6789;-0.1600;
764.1000;0.6829;-0.1507;
764.4000;0.6862;-0.1368;
764.7000;0.6789;-0.1600;
765.0000;0.6797;-0.1484;
765.3000;0.6797;-0.1530;
765.6000;0.6789;-0.1623;
765.9000;0.6789;-0.1669;
766.2000;0.6789;-0.1623;
766.5000;0.6781;-0.1623;
766.8000;0.6781;-0.1600;
767.1000;0.6781;-0.1646;
767.4000;0.6781;-0.1669;
767.7000;0.6781;-0.1600;
768.0000;0.6740;-0.1646;
768.3000;0.6789;-0.1600;
768.6000;0.6740;-0.1693;
768.9000;0.6772;-0.1623;
769.2000;0.6772;-0.1646;
769.5000;0.6781;-0.1600;
769.8000;0.6748;-0.1693;
770.1000;0.6797;-0.1600;
770.4000;0.6772;-0.1669;
770.7000;0.6772;-0.1669;
771.0000;0.6764;-0.1669;
771.3000;0.6764;-0.1693;
771.6000;0.6772;-0.1623;
771.9000;0.6748;-0.1577;
772.2000;0.6764;-0.1577;
772.5000;0.6756;-0.1553;
772.8000;0.6772;-0.1577;
773.1000;0.6764;-0.1623;
773.4000;0.6740;-0.1646;
773.7000;0.6756;-0.1577;
774.0000;0.6764;-0.1600;
774.3000;0.6764;-0.1530;
774.6000;0.6764;-0.1623;
774.9000;0.6764;-0.1646;
775.2000;0.6748;-0.1646;
775.5000;0.6748;-0.1600;
775.8000;0.6748;-0.1553;
776.1000;0.6699;-0.1623;
776.4000;0.6756;-0.1507;
776.7000;0.6748;-0.1530;
777.0000;0.6756;-0.1530;
777.3000;0.6732;-0.1646;
777.6000;0.6732;-0.1646;
777.9000;0.6748;-0.1623;
778.2000;0.6740;-0.1623;
778.5000;0.6740;-0.1600;
778.8000;0.6748;-0.1623;
779.1000;0.6732;-0.1553;
779.4000;0.6789;-0.1414;
779.7000;0.6716;-0.1484;
780.0000;0.6724;-0.1484;
780.3000;0.6716;-0.1530;
780.6000;0.6740;-0.1461;
780.9000;0.6699;-0.1553;
781.2000;0.6732;-0.1507;
781.5000;0.6716;-0.1623;
781.8000;0.6659;-0.1785;
782.1000;0.6732;-0.1693;
782.4000;0.6732;-0.1716;
782.7000;0.6716;-0.1693;
783.0000;0.6724;-0.1623;
783.3000;0.6724;-0.1577;
783.6000;0.6716;-0.1577;
783.9000;0.6707;-0.1507;
784.2000;0.6740;-0.1507;
784.5000;0.6732;-0.1461;
784.8000;0.6716;-0.1461;
785.1000;0.6716;-0.1484;
785.4000;0.6716;-0.1484;
785.7000;0.6699;-0.1484;
786.0000;0.6707;-0.1461;
786.3000;0.6716;-0.1437;
786.6000;0.6716;-0.1461;
786.9000;0.6716;-0.1414;
787.2000;0.6740;-0.1437;
787.5000;0.6716;-0.1484;
787.8000;0.6724;-0.1345;
788.1000;0.6716;-0.1391;
788.4000;0.6699;-0.1461;
788.7000;0.6707;-0.1414;
789.0000;0.6764;-0.1298;
789.3000;0.6699;-0.1461;
789.6000;0.6691;-0.1530;
789.9000;0.6716;-0.1461;
790.2000;0.6716;-0.1507;
790.5000;0.6716;-0.1437;
790.8000;0.6764;-0.1414;
791.1000;0.6707;-0.1484;
791.4000;0.6699;-0.1553;
791.7000;0.6699;-0.1577;
792.0000;0.6650;-0.1669;
792.3000;0.6667;-0.1600;
792.6000;0.6707;-0.1484;
792.9000;0.6675;-0.1530;
793.2000;0.6707;-0.1437;
793.5000;0.6699;-0.1437;
793.8000;0.6618;-0.1623;
794.1000;0.6732;-0.1298;
794.4000;0.6691;-0.1345;
794.7000;0.6683;-0.1391;
795.0000;0.6667;-0.1414;
795.3000;0.6667;-0.1391;
795.6000;0.6683;-0.1298;
795.9000;0.6667;-0.1391;
796.2000;0.6659;-0.1507;
796.5000;0.6667;-0.1553;
796.8000;0.6675;-0.1577;
797.1000;0.6699;-0.1484;
797.4000;0.6683;-0.1553;
797.7000;0.6675;-0.1530;
798.0000;0.6699;-0.1484;
798.3000;0.6691;-0.1484;
798.6000;0.6675;-0.1484;
798.9000;0.6659;-0.1507;
799.2000;0.6667;-0.1530;
799.5000;0.6675;-0.1484;
799.8000;0.6675;-0.1507;
800.1000;0.6691;-0.1507;
800.4000;0.6642;-0.1600;
800.7000;0.6667;-0.1530;
801.0000;0.6675;-0.1553;
801.3000;0.6659;-0.1646;
801.6000;0.6659;-0.1577;
801.9000;0.6659;-0.1577;
802.2000;0.6667;-0.1577;
802.5000;0.6667;-0.1530;
802.8000;0.6659;-0.1530;
803.1000;0.6675;-0.1530;
803.4000;0.6699;-0.1553;
803.7000;0.6675;-0.1577;
804.0000;0.6675;-0.1577;
804.3000;0.6650;-0.1646;
804.6000;0.6659;-0.1669;
804.9000;0.6667;-0.1669;
805.2000;0.6683;-0.1600;
805.5000;0.6667;-0.1646;
805.8000;0.6650;-0.1739;
806.1000;0.6650;-0.1693;
806.4000;0.6650;-0.1716;
806.7000;0.6667;-0.1646;
807.0000;0.6667;-0.1623;
807.3000;0.6650;-0.1623;
807.6000;0.6650;-0.1577;
807.9000;0.6634;-0.1553;
808.2000;0.6626;-0.1507;
808.5000;0.6650;-0.1577;
808.8000;0.6659;-0.1623;
809.1000;0.6650;-0.1716;
809.4000;0.6659;-0.1716;
809.7000;0.6642;-0.1808;
810.0000;0.6659;-0.1716;
810.3000;0.6642;-0.1600;
810.6000;0.6634;-0.1646;
810.9000;0.6618;-0.1669;
811.2000;0.6650;-0.1693;
811.5000;0.6634;-0.1693;
811.8000;0.6675;-0.1669;
812.1000;0.6634;-0.1693;
812.4000;0.6634;-0.1577;
812.7000;0.6626;-0.1461;
813.0000;0.6650;-0.1414;
813.3000;0.6634;-0.1414;
813.6000;0.6642;-0.1507;
813.9000;0.6626;-0.1507;
814.2000;0.6675;-0.1461;
814.5000;0.6626;-0.1693;
814.8000;0.6675;-0.1646;
815.1000;0.6626;-0.1716;
815.4000;0.6626;-0.1716;
815.7000;0.6618;-0.1785;
816.0000;0.6642;-0.1739;
816.3000;0.6699;-0.1600;
816.6000;0.6634;-0.1762;
816.9000;0.6610;-0.1762;
817.2000;0.6626;-0.1716;
817.5000;0.6626;-0.1693;
817.8000;0.6642;-0.1669;
818.1000;0.6683;-0.1600;
818.4000;0.6626;-0.1646;
818.7000;0.6626;-0.1600;
819.0000;0.6642;-0.1553;
819.3000;0.6569;-0.1716;
819.6000;0.6626;-0.1646;
819.9000;0.6610;-0.1577;
820.2000;0.6626;-0.1623;
820.5000;0.6626;-0.1600;
820.8000;0.6618;-0.1623;
821.1000;0.6618;-0.1553;
821.4000;0.6642;-0.1461;
821.7000;0.6634;-0.1530;
822.0000;0.6593;-0.1530;
822.3000;0.6626;-0.1484;
822.6000;0.6610;-0.1553;
822.9000;0.6610;-0.1530;
823.2000;0.6602;-0.1600;
823.5000;0.6610;-0.1507;
823.8000;0.6610;-0.1484;
824.1000;0.6593;-0.1577;
824.4000;0.6610;-0.1577;
824.7000;0.6602;-0.1553;
825.0000;0.6610;-0.1553;
825.3000;0.6610;-0.1530;
825.6000;0.6602;-0.1623;
825.9000;0.6602;-0.1553;
826.2000;0.6545;-0.1693;
826.5000;0.6602;-0.1577;
826.8000;0.6593;-0.1623;
827.1000;0.6593;-0.1623;
827.4000;0.6585;-0.1646;
827.7000;0.6585;-0.1693;
828.0000;0.6610;-0.1693;
828.3000;0.6610;-0.1623;
828.6000;0.6602;-0.1577;
828.9000;0.6593;-0.1623;
829.2000;0.6610;-0.1530;
829.5000;0.6610;-0.1530;
829.8000;0.6602;-0.1646;
830.1000;0.6602;-0.1693;
830.4000;0.6593;-0.1693;
830.7000;0.6602;-0.1577;
831.0000;0.6610;-0.1577;
831.3000;0.6610;-0.1623;
831.6000;0.6593;-0.1646;
831.9000;0.6610;-0.1693;
832.2000;0.6569;-0.1762;
832.5000;0.6593;-0.1716;
832.8000;0.6593;-0.1669;
833.1000;0.6618;-0.1553;
833.4000;0.6585;-0.1623;
833.7000;0.6585;-0.1646;
834.0000;0.6585;-0.1507;
834.3000;0.6618;-0.1461;
834.6000;0.6602;-0.1553;
834.9000;0.6585;-0.1623;
835.2000;0.6577;-0.1623;
835.5000;0.6610;-0.1577;
835.8000;0.6602;-0.1600;
836.1000;0.6569;-0.1623;
836.4000;0.6610;-0.1484;
836.7000;0.6585;-0.1553;
837.0000;0.6602;-0.1577;
837.3000;0.6585;-0.1577;
837.6000;0.6577;-0.1530;
837.9000;0.6610;-0.1507;
838.2000;0.6585;-0.1530;
838.5000;0.6585;-0.1507;
838.8000;0.6577;-0.1484;
839.1000;0.6634;-0.1437;
839.4000;0.6585;-0.1507;
839.7000;0.6593;-0.1530;
840.0000;0.6618;-0.1484;
840.3000;0.6585;-0.1530;
840.6000;0.6577;-0.1484;
840.9000;0.6593;-0.1368;
841.2000;0.6593;-0.1437;
841.5000;0.6553;-0.1530;
841.8000;0.6569;-0.1507;
842.1000;0.6577;-0.1507;
842.4000;0.6561;-0.1530;
842.7000;0.6569;-0.1437;
843.0000;0.6610;-0.1461;
843.3000;0.6561;-0.1530;
843.6000;0.6602;-0.1391;
843.9000;0.6561;-0.1461;
844.2000;0.6545;-0.1577;
844.5000;0.6569;-0.1577;
844.8000;0.6561;-0.1600;
845.1000;0.6553;-0.1646;
845.4000;0.6561;-0.1600;
845.7000;0.6561;-0.1507;
846.0000;0.6561;-0.1461;
846.3000;0.6561;-0.1461;
846.6000;0.6561;-0.1461;
846.9000;0.6553;-0.1437;
847.2000;0.6610;-0.1298;
847.5000;0.6569;-0.1391;
847.8000;0.6569;-0.1437;
848.1000;0.6569;-0.1391;
848.4000;0.6553;-0.1391;
848.7000;0.6569;-0.1252;
849.0000;0.6545;-0.1345;
849.3000;0.6561;-0.1368;
849.6000;0.6577;-0.1391;
849.9000;0.6577;-0.1298;
850.2000;0.6561;-0.1368;
850.5000;0.6569;-0.1391;
850.8000;0.6569;-0.1368;
851.1000;0.6561;-0.1437;
851.4000;0.6569;-0.1391;
851.7000;0.6561;-0.1368;
852.0000;0.6577;-0.1275;
852.3000;0.6569;-0.1252;
852.6000;0.6553;-0.1252;
852.9000;0.6569;-0.1345;
853.2000;0.6553;-0.1414;
853.5000;0.6561;-0.1414;
853.8000;0.6561;-0.1345;
854.1000;0.6553;-0.1322;
854.4000;0.6553;-0.1275;
854.7000;0.6536;-0.1322;
855.0000;0.6553;-0.1252;
855.3000;0.6545;-0.1252;
855.6000;0.6553;-0.1252;
855.9000;0.6545;-0.1229;
856.2000;0.6561;-0.1206;
856.5000;0.6569;-0.1136;
856.8000;0.6553;-0.1206;
857.1000;0.6561;-0.1229;
857.4000;0.6545;-0.1252;
857.7000;0.6553;-0.1252;
858.0000;0.6520;-0.1368;
858.3000;0.6528;-0.1275;
858.6000;0.6536;-0.1252;
858.9000;0.6528;-0.1252;
859.2000;0.6536;-0.1275;
859.5000;0.6545;-0.1206;
859.8000;0.6545;-0.1229;
860.1000;0.6545;-0.1252;
860.4000;0.6536;-0.1206;
860.7000;0.6528;-0.1136;
861.0000;0.6520;-0.1206;
861.3000;0.6536;-0.1182;
861.6000;0.6545;-0.1159;
861.9000;0.6545;-0.1275;
862.2000;0.6536;-0.1298;
862.5000;0.6561;-0.1298;
862.8000;0.6528;-0.1345;
863.1000;0.6545;-0.1298;
863.4000;0.6545;-0.1252;
863.7000;0.6553;-0.1182;
864.0000;0.6536;-0.1113;
864.3000;0.6553;-0.1113;
864.6000;0.6536;-0.1182;
864.9000;0.6520;-0.1090;
865.2000;0.6512;-0.1182;
865.5000;0.6512;-0.1229;
865.8000;0.6536;-0.1159;
866.1000;0.6512;-0.1229;
866.4000;0.6512;-0.1275;
866.7000;0.6545;-0.1298;
867.0000;0.6520;-0.1345;
867.3000;0.6512;-0.1345;
867.6000;0.6520;-0.1391;
867.9000;0.6577;-0.1275;
868.2000;0.6488;-0.1507;
868.5000;0.6545;-0.1461;
868.8000;0.6528;-0.1530;
869.1000;0.6528;-0.1600;
869.4000;0.6520;-0.1623;
869.7000;0.6512;-0.1600;
870.0000;0.6545;-0.1623;
870.3000;0.6528;-0.1600;
870.6000;0.6528;-0.1669;
870.9000;0.6553;-0.1646;
871.2000;0.6545;-0.1600;
871.5000;0.6512;-0.1693;
871.8000;0.6536;-0.1600;
872.1000;0.6536;-0.1507;
872.4000;0.6528;-0.1437;
872.7000;0.6512;-0.1391;
873.0000;0.6528;-0.1391;
873.3000;0.6471;-0.1553;
873.6000;0.6512;-0.1461;
873.9000;0.6496;-0.1437;
874.2000;0.6585;-0.1275;
874.5000;0.6504;-0.1437;
874.8000;0.6520;-0.1368;
875.1000;0.6528;-0.1275;
875.4000;0.6488;-0.1368;
875.7000;0.6520;-0.1322;
876.0000;0.6528;-0.1229;
876.3000;0.6512;-0.1252;
876.6000;0.6528;-0.1252;
876.9000;0.6536;-0.1322;
877.2000;0.6512;-0.1322;
877.5000;0.6512;-0.1345;
877.8000;0.6528;-0.1252;
878.1000;0.6528;-0.1275;
878.4000;0.6536;-0.1229;
878.7000;0.6504;-0.1298;
879.0000;0.6504;-0.1275;
879.3000;0.6504;-0.1275;
879.6000;0.6520;-0.1275;
879.9000;0.6520;-0.1252;
880.2000;0.6496;-0.1414;
880.5000;0.6512;-0.1414;
880.8000;0.6520;-0.1391;
881.1000;0.6504;-0.1345;
881.4000;0.6520;-0.1322;
881.7000;0.6496;-0.1414;
882.0000;0.6520;-0.1345;
882.3000;0.6504;-0.1437;
882.6000;0.6520;-0.1461;
882.9000;0.6512;-0.1507;
883.2000;0.6528;-0.1461;
883.5000;0.6528;-0.1368;
883.8000;0.6602;-0.1206;
884.1000;0.6447;-0.1530;
884.4000;0.6496;-0.1414;
884.7000;0.6512;-0.1345;
885.0000;0.6504;-0.1322;
885.3000;0.6504;-0.1414;
885.6000;0.6488;-0.1484;
885.9000;0.6504;-0.1368;
886.2000;0.6520;-0.1391;
886.5000;0.6512;-0.1391;
886.8000;0.6479;-0.1414;
887.1000;0.6512;-0.1345;
887.4000;0.6512;-0.1391;
887.7000;0.6496;-0.1345;
888.0000;0.6496;-0.1368;
888.3000;0.6520;-0.1275;
888.6000;0.6496;-0.1322;
888.9000;0.6496;-0.1322;
889.2000;0.6471;-0.1391;
889.5000;0.6479;-0.1391;
889.8000;0.6504;-0.1414;
890.1000;0.6488;-0.1391;
890.4000;0.6504;-0.1391;
890.7000;0.6479;-0.1414;
891.0000;0.6504;-0.1345;
891.3000;0.6504;-0.1229;
891.6000;0.6496;-0.1206;
891.9000;0.6512;-0.1206;
892.2000;0.6479;-0.1206;
892.5000;0.6488;-0.1182;
892.8000;0.6496;-0.1159;
893.1000;0.6479;-0.1206;
893.4000;0.6479;-0.1113;
893.7000;0.6520;-0.1020;
894.0000;0.6496;-0.1136;
894.3000;0.6504;-0.1113;
894.6000;0.6504;-0.1067;
894.9000;0.6512;-0.1090;
895.2000;0.6520;-0.1090;
895.5000;0.6520;-0.1159;
895.8000;0.6496;-0.1229;
896.1000;0.6488;-0.1252;
896.4000;0.6488;-0.1275;
896.7000;0.6536;-0.1136;
897.0000;0.6496;-0.1275;
897.3000;0.6512;-0.1252;
897.6000;0.6512;-0.1298;
897.9000;0.6504;-0.1275;
898.2000;0.6488;-0.1368;
898.5000;0.6496;-0.1275;
898.8000;0.6463;-0.1252;
899.1000;0.6504;-0.1159;
899.4000;0.6488;-0.1206;
899.7000;0.6496;-0.1113;
900.0000;0.6504;-0.1136;
900.3000;0.6479;-0.1206;
900.6000;0.6471;-0.1159;
900.9000;0.6496;-0.1067;
901.2000;0.6488;-0.1020;
901.5000;0.6479;-0.0997;
901.8000;0.6471;-0.1020;
902.1000;0.6479;-0.1159;
902.4000;0.6471;-0.1136;
902.7000;0.6496;-0.1113;
903.0000;0.6496;-0.1182;
903.3000;0.6471;-0.1229;
903.6000;0.6488;-0.1229;
903.9000;0.6496;-0.1229;
904.2000;0.6496;-0.1252;
904.5000;0.6488;-0.1414;
904.8000;0.6479;-0.1437;
905.1000;0.6520;-0.1368;
905.4000;0.6479;-0.1461;
905.7000;0.6471;-0.1530;
906.0000;0.6488;-0.1507;
906.3000;0.6488;-0.1437;
906.6000;0.6488;-0.1345;
906.9000;0.6471;-0.1275;
907.2000;0.6471;-0.1275;
907.5000;0.6488;-0.1345;
907.8000;0.6479;-0.1322;
908.1000;0.6455;-0.1368;
908.4000;0.6447;-0.1345;
908.7000;0.6471;-0.1437;
909.0000;0.6488;-0.1391;
909.3000;0.6455;-0.1298;
909.6000;0.6447;-0.1298;
909.9000;0.6455;-0.1229;
910.2000;0.6479;-0.1206;
910.5000;0.6479;-0.1275;
910.8000;0.6520;-0.1067;
911.1000;0.6439;-0.1275;
911.4000;0.6471;-0.1229;
911.7000;0.6463;-0.1182;
912.0000;0.6512;-0.1182;
912.3000;0.6463;-0.1345;
912.6000;0.6471;-0.1345;
912.9000;0.6439;-0.1391;
913.2000;0.6447;-0.1368;
913.5000;0.6463;-0.1345;
913.8000;0.6463;-0.1345;
914.1000;0.6496;-0.1136;
914.4000;0.6463;-0.1275;
914.7000;0.6471;-0.1322;
915.0000;0.6455;-0.1345;
915.3000;0.6471;-0.1368;
915.6000;0.6471;-0.1275;
915.9000;0.6439;-0.1345;
916.2000;0.6463;-0.1298;
916.5000;0.6447;-0.1368;
916.8000;0.6471;-0.1252;
917.1000;0.6471;-0.1252;
917.4000;0.6406;-0.1345;
917.7000;0.6463;-0.1229;
918.0000;0.6463;-0.1275;
918.3000;0.6471;-0.1275;
918.6000;0.6439;-0.1345;
918.9000;0.6463;-0.1322;
919.2000;0.6455;-0.1298;
919.5000;0.6479;-0.1368;
919.8000;0.6463;-0.1345;
920.1000;0.6455;-0.1345;
920.4000;0.6447;-0.1391;
920.7000;0.6504;-0.1345;
921.0000;0.6463;-0.1368;
921.3000;0.6471;-0.1368;
921.6000;0.6479;-0.1391;
921.9000;0.6479;-0.1345;
922.2000;0.6512;-0.1252;
922.5000;0.6463;-0.1391;
922.8000;0.6439;-0.1298;
923.1000;0.6431;-0.1391;
923.4000;0.6471;-0.1298;
923.7000;0.6447;-0.1322;
924.0000;0.6447;-0.1252;
924.3000;0.6471;-0.1182;
924.6000;0.6455;-0.1206;
924.9000;0.6439;-0.1275;
925.2000;0.6463;-0.1206;
925.5000;0.6455;-0.1414;
925.8000;0.6471;-0.1391;
926.1000;0.6447;-0.1437;
926.4000;0.6455;-0.1391;
926.7000;0.6463;-0.1368;
927.0000;0.6455;-0.1437;
927.3000;0.6463;-0.1391;
927.6000;0.6431;-0.1368;
927.9000;0.6455;-0.1229;
928.2000;0.6455;-0.1206;
928.5000;0.6447;-0.1229;
928.8000;0.6431;-0.1275;
929.1000;0.6447;-0.1275;
929.4000;0.6463;-0.1229;
929.7000;0.6463;-0.1229;
930.0000;0.6496;-0.1159;
930.3000;0.6471;-0.1159;
930.6000;0.6463;-0.1206;
930.9000;0.6447;-0.1206;
931.2000;0.6463;-0.1182;
931.5000;0.6447;-0.1159;
931.8000;0.6463;-0.1182;
932.1000;0.6414;-0.1298;
932.4000;0.6414;-0.1252;
932.7000;0.6463;-0.1298;
933.0000;0.6471;-0.1322;
933.3000;0.6455;-0.1322;
933.6000;0.6447;-0.1298;
933.9000;0.6545;-0.1090;
934.2000;0.6439;-0.1275;
934.5000;0.6488;-0.1136;
934.8000;0.6455;-0.1229;
935.1000;0.6463;-0.1252;
935.4000;0.6455;-0.1275;
935.7000;0.6455;-0.1298;
936.0000;0.6463;-0.1275;
936.3000;0.6447;-0.1275;
936.6000;0.6455;-0.1229;
936.9000;0.6431;-0.1252;
937.2000;0.6447;-0.1206;
937.5000;0.6479;-0.1136;
937.8000;0.6422;-0.1275;
938.1000;0.6431;-0.1345;
938.4000;0.6439;-0.1298;
938.7000;0.6447;-0.1298;
939.0000;0.6431;-0.1345;
939.3000;0.6431;-0.1252;
939.6000;0.6439;-0.1252;
939.9000;0.6422;-0.1229;
940.2000;0.6447;-0.1067;
940.5000;0.6431;-0.1159;
940.8000;0.6431;-0.1159;
941.1000;0.6431;-0.1252;
941.4000;0.6422;-0.1252;
941.7000;0.6431;-0.1252;
942.0000;0.6447;-0.1206;
942.3000;0.6447;-0.1182;
942.6000;0.6447;-0.1182;
942.9000;0.6447;-0.1136;
943.2000;0.6390;-0.1298;
943.5000;0.6431;-0.1252;
943.8000;0.6439;-0.1229;
944.1000;0.6447;-0.1182;
944.4000;0.6414;-0.1322;
944.7000;0.6439;-0.1159;
945.0000;0.6439;-0.1182;
945.3000;0.6431;-0.1252;
945.6000;0.6422;-0.1252;
945.9000;0.6406;-0.1322;
946.2000;0.6447;-0.1345;
946.5000;0.6447;-0.1322;
946.8000;0.6422;-0.1322;
947.1000;0.6439;-0.1252;
947.4000;0.6439;-0.1252;
947.7000;0.6455;-0.1252;
948.0000;0.6431;-0.1275;
948.3000;0.6439;-0.1368;
948.6000;0.6439;-0.1368;
948.9000;0.6431;-0.1368;
949.2000;0.6422;-0.1414;
949.5000;0.6431;-0.1461;
949.8000;0.6422;-0.1461;
950.1000;0.6374;-0.1577;
950.4000;0.6431;-0.1391;
950.7000;0.6422;-0.1391;
951.0000;0.6414;-0.1414;
951.3000;0.6422;-0.1368;
951.6000;0.6431;-0.1345;
951.9000;0.6431;-0.1298;
952.2000;0.6390;-0.1414;
952.5000;0.6439;-0.1322;
952.8000;0.6414;-0.1437;
953.1000;0.6447;-0.1391;
953.4000;0.6431;-0.1391;
953.7000;0.6439;-0.1345;
954.0000;0.6390;-0.1391;
954.3000;0.6422;-0.1252;
954.6000;0.6463;-0.1136;
954.9000;0.6455;-0.1159;
955.2000;0.6431;-0.1113;
955.5000;0.6431;-0.1067;
955.8000;0.6439;-0.1113;
956.1000;0.6422;-0.1252;
956.4000;0.6390;-0.1252;
956.7000;0.6439;-0.1136;
957.0000;0.6422;-0.1159;
957.3000;0.6422;-0.1206;
957.6000;0.6422;-0.1206;
957.9000;0.6431;-0.1206;
958.2000;0.6422;-0.1298;
958.5000;0.6422;-0.1252;
958.8000;0.6431;-0.1206;
959.1000;0.6414;-0.1136;
959.4000;0.6414;-0.1182;
959.7000;0.6414;-0.1298;
960.0000;0.6422;-0.1229;
960.3000;0.6431;-0.1275;
960.6000;0.6414;-0.1275;
960.9000;0.6406;-0.1298;
961.2000;0.6406;-0.1345;
961.5000;0.6414;-0.1345;
961.8000;0.6422;-0.1322;
962.1000;0.6422;-0.1322;
962.4000;0.6414;-0.1414;
962.7000;0.6398;-0.1414;
963.0000;0.6414;-0.1437;
963.3000;0.6398;-0.1507;
963.6000;0.6422;-0.1437;
963.9000;0.6422;-0.1414;
964.2000;0.6488;-0.1252;
964.5000;0.6406;-0.1391;
964.8000;0.6406;-0.1414;
965.1000;0.6422;-0.1368;
965.4000;0.6496;-0.1229;
965.7000;0.6406;-0.1461;
966.0000;0.6431;-0.1437;
966.3000;0.6414;-0.1345;
966.6000;0.6390;-0.1345;
966.9000;0.6422;-0.1182;
967.2000;0.6390;-0.1252;
967.5000;0.6398;-0.1252;
967.8000;0.6398;-0.1298;
968.1000;0.6414;-0.1275;
968.4000;0.6422;-0.1206;
968.7000;0.6365;-0.1368;
969.0000;0.6414;-0.1229;
969.3000;0.6414;-0.1229;
969.6000;0.6406;-0.1182;
969.9000;0.6479;-0.1043;
970.2000;0.6398;-0.1159;
970.5000;0.6431;-0.1090;
970.8000;0.6422;-0.1159;
971.1000;0.6422;-0.1182;
971.4000;0.6398;-0.1113;
971.7000;0.6414;-0.1206;
972.0000;0.6414;-0.1182;
972.3000;0.6341;-0.1298;
972.6000;0.6414;-0.1136;
972.9000;0.6414;-0.1159;
973.2000;0.6431;-0.1159;
973.5000;0.6414;-0.1136;
973.8000;0.6414;-0.1136;
974.1000;0.6439;-0.1182;
974.4000;0.6422;-0.1182;
974.7000;0.6422;-0.1090;
975.0000;0.6365;-0.1206;
975.3000;0.6431;-0.1182;
975.6000;0.6431;-0.1159;
975.9000;0.6422;-0.1159;
976.2000;0.6398;-0.1206;
976.5000;0.6414;-0.1206;
976.8000;0.6439;-0.1136;
977.1000;0.6406;-0.1113;
977.4000;0.6398;-0.1182;
977.7000;0.6414;-0.1182;
978.0000;0.6406;-0.1229;
978.3000;0.6414;-0.1345;
978.6000;0.6414;-0.1322;
978.9000;0.6398;-0.1298;
979.2000;0.6431;-0.1252;
979.5000;0.6406;-0.1229;
979.8000;0.6414;-0.1252;
980.1000;0.6390;-0.1275;
980.4000;0.6390;-0.1275;
980.7000;0.6406;-0.1113;
981.0000;0.6406;-0.1136;
981.3000;0.6398;-0.1206;
981.6000;0.6398;-0.1136;
981.9000;0.6398;-0.1090;
982.2000;0.6406;-0.1067;
982.5000;0.6382;-0.1159;
982.8000;0.6406;-0.1206;
983.1000;0.6382;-0.1229;
983.4000;0.6398;-0.1252;
983.7000;0.6414;-0.1182;
984.0000;0.6406;-0.1252;
984.3000;0.6422;-0.1136;
984.6000;0.6390;-0.1275;
984.9000;0.6406;-0.1206;
985.2000;0.6406;-0.1136;
985.5000;0.6406;-0.1113;
985.8000;0.6382;-0.1090;
986.1000;0.6414;-0.1136;
986.4000;0.6398;-0.1182;
986.7000;0.6398;-0.1136;
987.0000;0.6406;-0.1229;
987.3000;0.6406;-0.1298;
987.6000;0.6406;-0.1298;
987.9000;0.6422;-0.1229;
988.2000;0.6398;-0.1298;
988.5000;0.6382;-0.1252;
988.8000;0.6398;-0.1229;
989.1000;0.6398;-0.1206;
989.4000;0.6471;-0.1043;
989.7000;0.6406;-0.1229;
990.0000;0.6390;-0.1206;
990.3000;0.6374;-0.1345;
990.6000;0.6357;-0.1391;
990.9000;0.6431;-0.1275;
991.2000;0.6398;-0.1275;
991.5000;0.6398;-0.1252;
991.8000;0.6357;-0.1159;
992.1000;0.6390;-0.1067;
992.4000;0.6333;-0.1229;
992.7000;0.6317;-0.1252;
993.0000;0.6414;-0.1159;
993.3000;0.6365;-0.1298;
993.6000;0.6398;-0.1275;
993.9000;0.6398;-0.1182;
994.2000;0.6390;-0.1182;
994.5000;0.6390;-0.1067;
994.8000;0.6382;-0.1090;
995.1000;0.6390;-0.1113;
995.4000;0.6414;-0.1090;
995.7000;0.6398;-0.1136;
996.0000;0.6382;-0.1090;
996.3000;0.6390;-0.1090;
996.6000;0.6422;-0.1090;
996.9000;0.6406;-0.1067;
997.2000;0.6382;-0.1159;
997.5000;0.6422;-0.1113;
997.8000;0.6398;-0.1206;
998.1000;0.6390;-0.1252;
998.4000;0.6422;-0.1113;
998.7000;0.6374;-0.1206;
999.0000;0.6398;-0.1113;
999.3000;0.6390;-0.1067;
999.6000;0.6455;-0.0904;
999.9000;0.6374;-0.1113;
1000.2000;0.6398;-0.1043;
1000.5000;0.6406;-0.1113;
1000.8000;0.6382;-0.1136;
1001.1000;0.6365;-0.1182;
1001.4000;0.6431;-0.1090;
1001.7000;0.6382;-0.1252;
1002.0000;0.6390;-0.1206;
1002.3000;0.6390;-0.1229;
1002.6000;0.6390;-0.1229;
1002.9000;0.6382;-0.1159;
1003.2000;0.6390;-0.1159;
1003.5000;0.6390;-0.1136;
1003.8000;0.6390;-0.1159;
1004.1000;0.6382;-0.1159;
1004.4000;0.6406;-0.1090;
1004.7000;0.6406;-0.1067;
1005.0000;0.6382;-0.1159;
1005.3000;0.6398;-0.1067;
1005.6000;0.6398;-0.1043;
1005.9000;0.6398;-0.1020;
1006.2000;0.6390;-0.0904;
1006.5000;0.6382;-0.0927;
1006.8000;0.6439;-0.0765;
1007.1000;0.6333;-0.1043;
1007.4000;0.6374;-0.0951;
1007.7000;0.6390;-0.0997;
1008.0000;0.6431;-0.0997;
1008.3000;0.6374;-0.1043;
1008.6000;0.6390;-0.1020;
1008.9000;0.6374;-0.1113;
1009.2000;0.6406;-0.1113;
1009.5000;0.6406;-0.1067;
1009.8000;0.6398;-0.1067;
1010.1000;0.6382;-0.1159;
1010.4000;0.6398;-0.1159;
1010.7000;0.6390;-0.1159;
1011.0000;0.6365;-0.1229;
1011.3000;0.6341;-0.1298;
1011.6000;0.6390;-0.1182;
1011.9000;0.6374;-0.1206;
1012.2000;0.6365;-0.1229;
1012.5000;0.6349;-0.1229;
1012.8000;0.6398;-0.1136;
1013.1000;0.6374;-0.1206;
1013.4000;0.6374;-0.1206;
1013.7000;0.6357;-0.1252;
1014.0000;0.6374;-0.1206;
1014.3000;0.6390;-0.1159;
1014.6000;0.6398;-0.1275;
1014.9000;0.6357;-0.1414;
1015.2000;0.6382;-0.1391;
1015.5000;0.6365;-0.1368;
1015.8000;0.6398;-0.1368;
1016.1000;0.6382;-0.1437;
1016.4000;0.6374;-0.1600;
1016.7000;0.6365;-0.1553;
1017.0000;0.6374;-0.1530;
1017.3000;0.6365;-0.1507;
1017.6000;0.6374;-0.1437;
1017.9000;0.6382;-0.1322;
1018.2000;0.6374;-0.1275;
1018.5000;0.6382;-0.1345;
1018.8000;0.6374;-0.1298;
1019.1000;0.6365;-0.1229;
1019.4000;0.6374;-0.1206;
1019.7000;0.6382;-0.1159;
1020.0000;0.6374;-0.1252;
1020.3000;0.6374;-0.1252;
1020.6000;0.6382;-0.1368;
1020.9000;0.6398;-0.1298;
1021.2000;0.6390;-0.1229;
1021.5000;0.6325;-0.1322;
1021.8000;0.6382;-0.1229;
1022.1000;0.6382;-0.1275;
1022.4000;0.6365;-0.1391;
1022.7000;0.6357;-0.1275;
1023.0000;0.6374;-0.1252;
1023.3000;0.6365;-0.1275;
1023.6000;0.6382;-0.1345;
1023.9000;0.6365;-0.1414;
1024.2000;0.6317;-0.1507;
1024.5000;0.6333;-0.1414;
1024.8000;0.6365;-0.1368;
1025.1000;0.6357;-0.1345;
1025.4000;0.6365;-0.1345;
1025.7000;0.6365;-0.1322;
1026.0000;0.6406;-0.1275;
1026.3000;0.6382;-0.1298;
1026.6000;0.6374;-0.1368;
1026.9000;0.6365;-0.1322;
1027.2000;0.6374;-0.1414;
1027.5000;0.6406;-0.1391;
1027.8000;0.6382;-0.1298;
1028.1000;0.6365;-0.1229;
1028.4000;0.6374;-0.1113;
1028.7000;0.6365;-0.1136;
1029.0000;0.6447;-0.0974;
1029.3000;0.6382;-0.1113;
1029.6000;0.6365;-0.1252;
1029.9000;0.6365;-0.1322;
1030.2000;0.6325;-0.1391;
1030.5000;0.6349;-0.1368;
1030.8000;0.6357;-0.1461;
1031.1000;0.6300;-0.1577;
1031.4000;0.6382;-0.1368;
1031.7000;0.6365;-0.1414;
1032.0000;0.6374;-0.1414;
1032.3000;0.6365;-0.1368;
1032.6000;0.6374;-0.1345;
1032.9000;0.6365;-0.1414;
1033.2000;0.6382;-0.1345;
1033.5000;0.6382;-0.1345;
1033.8000;0.6382;-0.1345;
1034.1000;0.6374;-0.1345;
1034.4000;0.6365;-0.1322;
1034.7000;0.6382;-0.1275;
1035.0000;0.6374;-0.1345;
1035.3000;0.6374;-0.1275;
1035.6000;0.6365;-0.1182;
1035.9000;0.6357;-0.1159;
1036.2000;0.6374;-0.1136;
1036.5000;0.6390;-0.1043;
1036.8000;0.6357;-0.1113;
1037.1000;0.6374;-0.1159;
1037.4000;0.6365;-0.1206;
1037.7000;0.6365;-0.1275;
1038.0000;0.6341;-0.1368;
1038.3000;0.6365;-0.1298;
1038.6000;0.6357;-0.1252;
1038.9000;0.6365;-0.1252;
1039.2000;0.6357;-0.1206;
1039.5000;0.6365;-0.1182;
1039.8000;0.6374;-0.1252;
1040.1000;0.6398;-0.1229;
1040.4000;0.6398;-0.1182;
1040.7000;0.6349;-0.1229;
1041.0000;0.6349;-0.1275;
1041.3000;0.6374;-0.1252;
1041.6000;0.6357;-0.1275;
1041.9000;0.6357;-0.1298;
1042.2000;0.6341;-0.1275;
1042.5000;0.6390;-0.1298;
1042.8000;0.6382;-0.1322;
1043.1000;0.6374;-0.1275;
1043.4000;0.6374;-0.1252;
1043.7000;0.6365;-0.1322;
1044.0000;0.6382;-0.1298;
1044.3000;0.6390;-0.1206;
1044.6000;0.6357;-0.1275;
1044.9000;0.6365;-0.1229;
1045.2000;0.6357;-0.1252;
1045.5000;0.6365;-0.1229;
1045.8000;0.6365;-0.1159;
1046.1000;0.6365;-0.1136;
1046.4000;0.6357;-0.1159;
1046.7000;0.6357;-0.1136;
1047.0000;0.6390;-0.1090;
1047.3000;0.6357;-0.1229;
1047.6000;0.6365;-0.1229;
1047.9000;0.6374;-0.1229;
1048.2000;0.6349;-0.1322;
1048.5000;0.6365;-0.1345;
1048.8000;0.6398;-0.1345;
1049.1000;0.6374;-0.1437;
1049.4000;0.6349;-0.1530;
1049.7000;0.6357;-0.1507;
1050.0000;0.6357;-0.1437;
1050.3000;0.6374;-0.1368;
1050.6000;0.6333;-0.1437;
1050.9000;0.6349;-0.1461;
1051.2000;0.6357;-0.1345;
1051.5000;0.6357;-0.1275;
1051.8000;0.6357;-0.1275;
1052.1000;0.6357;-0.1275;
1052.4000;0.6382;-0.1229;
1052.7000;0.6390;-0.1275;
1053.0000;0.6398;-0.1229;
1053.3000;0.6365;-0.1275;
1053.6000;0.6390;-0.1252;
1053.9000;0.6349;-0.1229;
1054.2000;0.6365;-0.1182;
1054.5000;0.6374;-0.1090;
1054.8000;0.6357;-0.1113;
1055.1000;0.6365;-0.1067;
1055.4000;0.6357;-0.1113;
1055.7000;0.6357;-0.1113;
1056.0000;0.6349;-0.1159;
1056.3000;0.6349;-0.1229;
1056.6000;0.6341;-0.1182;
1056.9000;0.6365;-0.1090;
1057.2000;0.6357;-0.1067;
1057.5000;0.6341;-0.1159;
1057.8000;0.6357;-0.1159;
1058.1000;0.6382;-0.1182;
1058.4000;0.6390;-0.1229;
1058.7000;0.6398;-0.1159;
1059.0000;0.6357;-0.1229;
1059.3000;0.6357;-0.1229;
1059.6000;0.6382;-0.1182;
1059.9000;0.6349;-0.1229;
1060.2000;0.6374;-0.1182;
1060.5000;0.6365;-0.1113;
1060.8000;0.6357;-0.1090;
1061.1000;0.6357;-0.1090;
1061.4000;0.6341;-0.1182;
1061.7000;0.6357;-0.1182;
1062.0000;0.6365;-0.1090;
1062.3000;0.6309;-0.1206;
1062.6000;0.6349;-0.1206;
1062.9000;0.6365;-0.1136;
1063.2000;0.6357;-0.1182;
1063.5000;0.6349;-0.1182;
1063.8000;0.6365;-0.1206;
1064.1000;0.6341;-0.1252;
1064.4000;0.6317;-0.1437;
1064.7000;0.6365;-0.1391;
1065.0000;0.6333;-0.1437;
1065.3000;0.6341;-0.1461;
1065.6000;0.6317;-0.1414;
1065.9000;0.6341;-0.1345;
1066.2000;0.6341;-0.1298;
1066.5000;0.6349;-0.1252;
1066.8000;0.6341;-0.1298;
1067.1000;0.6365;-0.1252;
1067.4000;0.6357;-0.1206;
1067.7000;0.6349;-0.1298;
1068.0000;0.6374;-0.1345;
1068.3000;0.6349;-0.1322;
1068.6000;0.6357;-0.1206;
1068.9000;0.6357;-0.1182;
1069.2000;0.6431;-0.0951;
1069.5000;0.6357;-0.1067;
1069.8000;0.6382;-0.0974;
1070.1000;0.6414;-0.0927;
1070.4000;0.6365;-0.1020;
1070.7000;0.6349;-0.1136;
1071.0000;0.6333;-0.1182;
1071.3000;0.6357;-0.1159;
1071.6000;0.6349;-0.1159;
1071.9000;0.6333;-0.1182;
1072.2000;0.6357;-0.1136;
1072.5000;0.6357;-0.1206;
1072.8000;0.6333;-0.1322;
1073.1000;0.6349;-0.1275;
1073.4000;0.6357;-0.1229;
1073.7000;0.6357;-0.1182;
1074.0000;0.6349;-0.1159;
1074.3000;0.6325;-0.1182;
1074.6000;0.6333;-0.1136;
1074.9000;0.6341;-0.1067;
1075.2000;0.6349;-0.1159;
1075.5000;0.6325;-0.1275;
1075.8000;0.6333;-0.1252;
1076.1000;0.6349;-0.1275;
1076.4000;0.6317;-0.1252;
1076.7000;0.6341;-0.1252;
1077.0000;0.6357;-0.1159;
1077.3000;0.6341;-0.1159;
1077.6000;0.6349;-0.1136;
1077.9000;0.6349;-0.1159;
1078.2000;0.6333;-0.1206;
1078.5000;0.6357;-0.1182;
1078.8000;0.6374;-0.1182;
1079.1000;0.6341;-0.1206;
1079.4000;0.6349;-0.1182;
1079.7000;0.6341;-0.1252;
1080.0000;0.6349;-0.1252;
1080.3000;0.6365;-0.1322;
1080.6000;0.6349;-0.1322;
1080.9000;0.6341;-0.1322;
1081.2000;0.6333;-0.1414;
1081.5000;0.6357;-0.1322;
1081.8000;0.6325;-0.1298;
1082.1000;0.6349;-0.1252;
1082.4000;0.6365;-0.1252;
1082.7000;0.6325;-0.1229;
1083.0000;0.6357;-0.1159;
1083.3000;0.6398;-0.1136;
1083.6000;0.6357;-0.1252;
1083.9000;0.6357;-0.1182;
1084.2000;0.6365;-0.1090;
1084.5000;0.6357;-0.1159;
1084.8000;0.6300;-0.1229;
1085.1000;0.6357;-0.1043;
1085.4000;0.6333;-0.1090;
1085.7000;0.6365;-0.1067;
1086.0000;0.6357;-0.1043;
1086.3000;0.6349;-0.1159;
1086.6000;0.6349;-0.1090;
1086.9000;0.6284;-0.1159;
1087.2000;0.6349;-0.1090;
1087.5000;0.6341;-0.1136;
1087.8000;0.6325;-0.1182;
1088.1000;0.6333;-0.1229;
1088.4000;0.6333;-0.1298;
1088.7000;0.6333;-0.1252;
1089.0000;0.6341;-0.1229;
1089.3000;0.6357;-0.1159;
1089.6000;0.6341;-0.1136;
1089.9000;0.6325;-0.1159;
1090.2000;0.6357;-0.1159;
1090.5000;0.6333;-0.1252;
1090.8000;0.6341;-0.1229;
1091.1000;0.6349;-0.1229;
1091.4000;0.6357;-0.1252;
1091.7000;0.6349;-0.1206;
1092.0000;0.6333;-0.1136;
1092.3000;0.6333;-0.1043;
1092.6000;0.6349;-0.1020;
1092.9000;0.6357;-0.1090;
1093.2000;0.6325;-0.1252;
1093.5000;0.6333;-0.1206;
1093.8000;0.6333;-0.1206;
1094.1000;0.6349;-0.1090;
1094.4000;0.6357;-0.1043;
1094.7000;0.6374;-0.0951;
1095.0000;0.6341;-0.0997;
1095.3000;0.6325;-0.0997;
1095.6000;0.6349;-0.0904;
1095.9000;0.6349;-0.0904;
1096.2000;0.6341;-0.0927;
1096.5000;0.6333;-0.0927;
1096.8000;0.6349;-0.0858;
1097.1000;0.6333;-0.0811;
1097.4000;0.6325;-0.0881;
1097.7000;0.6341;-0.0951;
1098.0000;0.6349;-0.0927;
1098.3000;0.6341;-0.1020;
1098.6000;0.6357;-0.1020;
1098.9000;0.6252;-0.1252;
1099.2000;0.6357;-0.0974;
1099.5000;0.6333;-0.0904;
1099.8000;0.6349;-0.0858;
1100.1000;0.6341;-0.0974;
1100.4000;0.6341;-0.0927;
1100.7000;0.6365;-0.0974;
1101.0000;0.6349;-0.0974;
1101.3000;0.6357;-0.0997;
1101.6000;0.6349;-0.0858;
1101.9000;0.6349;-0.0881;
1102.2000;0.6349;-0.0927;
1102.5000;0.6325;-0.0974;
1102.8000;0.6349;-0.0904;
1103.1000;0.6349;-0.0881;
1103.4000;0.6341;-0.0858;
1103.7000;0.6341;-0.0904;
1104.0000;0.6333;-0.0974;
1104.3000;0.6333;-0.0951;
1104.6000;0.6309;-0.0951;
1104.9000;0.6341;-0.0858;
1105.2000;0.6333;-0.0951;
1105.5000;0.6325;-0.0974;
1105.8000;0.6349;-0.0858;
1106.1000;0.6333;-0.0858;
1106.4000;0.6349;-0.0858;
1106.7000;0.6390;-0.0742;
1107.0000;0.6357;-0.0881;
1107.3000;0.6341;-0.0765;
1107.6000;0.6341;-0.0858;
1107.9000;0.6357;-0.0904;
1108.2000;0.6333;-0.0997;
1108.5000;0.6341;-0.0997;
1108.8000;0.6333;-0.1020;
1109.1000;0.6317;-0.1090;
1109.4000;0.6341;-0.1113;
1109.7000;0.6341;-0.1020;
1110.0000;0.6317;-0.1020;
1110.3000;0.6325;-0.0974;
1110.6000;0.6349;-0.0904;
1110.9000;0.6325;-0.0997;
1111.2000;0.6309;-0.1113;
1111.5000;0.6349;-0.0997;
1111.8000;0.6309;-0.1020;
1112.1000;0.6333;-0.0997;
1112.4000;0.6349;-0.0951;
1112.7000;0.6333;-0.0927;
1113.0000;0.6357;-0.0811;
1113.3000;0.6333;-0.0811;
1113.6000;0.6325;-0.0881;
1113.9000;0.6317;-0.0858;
1114.2000;0.6325;-0.0858;
1114.5000;0.6357;-0.0858;
1114.8000;0.6333;-0.0881;
1115.1000;0.6284;-0.0858;
1115.4000;0.6325;-0.0858;
1115.7000;0.6349;-0.0765;
1116.0000;0.6365;-0.0696;
1116.3000;0.6341;-0.0765;
1116.6000;0.6333;-0.0858;
1116.9000;0.6341;-0.0927;
1117.2000;0.6341;-0.0811;
1117.5000;0.6325;-0.0788;
1117.8000;0.6333;-0.0858;
1118.1000;0.6349;-0.0904;
1118.4000;0.6390;-0.0811;
1118.7000;0.6341;-0.0951;
1119.0000;0.6341;-0.0997;
1119.3000;0.6357;-0.0974;
1119.6000;0.6349;-0.1020;
1119.9000;0.6309;-0.1043;
1120.2000;0.6317;-0.0927;
1120.5000;0.6439;-0.0649;
1120.8000;0.6333;-0.0927;
1121.1000;0.6349;-0.0881;
1121.4000;0.6357;-0.0951;
1121.7000;0.6349;-0.1090;
1122.0000;0.6300;-0.1275;
1122.3000;0.6333;-0.1275;
1122.6000;0.6341;-0.1182;
1122.9000;0.6390;-0.0974;
1123.2000;0.6349;-0.0951;
1123.5000;0.6349;-0.0927;
1123.8000;0.6325;-0.0927;
1124.1000;0.6333;-0.0835;
1124.4000;0.6325;-0.0858;
1124.7000;0.6309;-0.0881;
1125.0000;0.6333;-0.0835;
1125.3000;0.6341;-0.0927;
1125.6000;0.6333;-0.0904;
1125.9000;0.6325;-0.1090;
1126.2000;0.6317;-0.1113;
1126.5000;0.6325;-0.1113;
1126.8000;0.6325;-0.1090;
1127.1000;0.6333;-0.1067;
1127.4000;0.6341;-0.1067;
1127.7000;0.6341;-0.1043;
1128.0000;0.6325;-0.1043;
1128.3000;0.6406;-0.0881;
1128.6000;0.6333;-0.1067;
1128.9000;0.6317;-0.1067;
1129.2000;0.6325;-0.0904;
1129.5000;0.6325;-0.0997;
1129.8000;0.6317;-0.1090;
1130.1000;0.6317;-0.1043;
1130.4000;0.6317;-0.0997;
1130.7000;0.6325;-0.1090;
1131.0000;0.6300;-0.1159;
1131.3000;0.6317;-0.1206;
1131.6000;0.6268;-0.1298;
1131.9000;0.6317;-0.1182;
1132.2000;0.6325;-0.1206;
1132.5000;0.6349;-0.1182;
1132.8000;0.6341;-0.1229;
1133.1000;0.6341;-0.1206;
1133.4000;0.6325;-0.1206;
1133.7000;0.6325;-0.1252;
1134.0000;0.6341;-0.1229;
1134.3000;0.6333;-0.1345;
1134.6000;0.6333;-0.1229;
1134.9000;0.6333;-0.1159;
1135.2000;0.6317;-0.1229;
1135.5000;0.6325;-0.1136;
1135.8000;0.6317;-0.1113;
1136.1000;0.6317;-0.1159;
1136.4000;0.6292;-0.1252;
1136.7000;0.6341;-0.1090;
1137.0000;0.6252;-0.1229;
1137.3000;0.6325;-0.1043;
1137.6000;0.6325;-0.0997;
1137.9000;0.6333;-0.0997;
1138.2000;0.6317;-0.0904;
1138.5000;0.6341;-0.0858;
1138.8000;0.6341;-0.0881;
1139.1000;0.6398;-0.0788;
1139.4000;0.6341;-0.0881;
1139.7000;0.6333;-0.0927;
1140.0000;0.6398;-0.0811;
1140.3000;0.6325;-0.0927;
1140.6000;0.6333;-0.0951;
1140.9000;0.6341;-0.1020;
1141.2000;0.6325;-0.1090;
1141.5000;0.6341;-0.1136;
1141.8000;0.6292;-0.1322;
1142.1000;0.6325;-0.1159;
1142.4000;0.6317;-0.1206;
1142.7000;0.6341;-0.1206;
1143.0000;0.6349;-0.1182;
1143.3000;0.6300;-0.1252;
1143.6000;0.6276;-0.1275;
1143.9000;0.6325;-0.1067;
1144.2000;0.6300;-0.1113;
1144.5000;0.6333;-0.1067;
1144.8000;0.6325;-0.1182;
1145.1000;0.6276;-0.1368;
1145.4000;0.6325;-0.1229;
1145.7000;0.6333;-0.1159;
1146.0000;0.6292;-0.1229;
1146.3000;0.6300;-0.1182;
1146.6000;0.6325;-0.1182;
1146.9000;0.6325;-0.1229;
1147.2000;0.6333;-0.1182;
1147.5000;0.6325;-0.1322;
1147.8000;0.6341;-0.1275;
1148.1000;0.6333;-0.1252;
1148.4000;0.6333;-0.1275;
1148.7000;0.6325;-0.1252;
1149.0000;0.6300;-0.1252;
1149.3000;0.6325;-0.1159;
1149.6000;0.6317;-0.1113;
1149.9000;0.6309;-0.1090;
1150.2000;0.6309;-0.1067;
1150.5000;0.6309;-0.1136;
1150.8000;0.6317;-0.1020;
1151.1000;0.6317;-0.1020;
1151.4000;0.6309;-0.1020;
1151.7000;0.6309;-0.1067;
1152.0000;0.6309;-0.1159;
1152.3000;0.6300;-0.1159;
1152.6000;0.6309;-0.1090;
1152.9000;0.6333;-0.1090;
1153.2000;0.6333;-0.1020;
1153.5000;0.6333;-0.0927;
1153.8000;0.6317;-0.0997;
1154.1000;0.6325;-0.0997;
1154.4000;0.6317;-0.1043;
1154.7000;0.6333;-0.1043;
1155.0000;0.6333;-0.1043;
1155.3000;0.6309;-0.1113;
1155.6000;0.6374;-0.1020;
1155.9000;0.6317;-0.1090;
1156.2000;0.6341;-0.0927;
1156.5000;0.6317;-0.1067;
1156.8000;0.6309;-0.1136;
1157.1000;0.6333;-0.1020;
1157.4000;0.6325;-0.1113;
1157.7000;0.6300;-0.1067;
1158.0000;0.6317;-0.1043;
1158.3000;0.6333;-0.0974;
1158.6000;0.6276;-0.1090;
1158.9000;0.6390;-0.0927;
1159.2000;0.6325;-0.1090;
1159.5000;0.6309;-0.1090;
1159.8000;0.6325;-0.0997;
1160.1000;0.6333;-0.0927;
1160.4000;0.6292;-0.0997;
1160.7000;0.6252;-0.1136;
1161.0000;0.6333;-0.0997;
1161.3000;0.6309;-0.1067;
1161.6000;0.6309;-0.1136;
1161.9000;0.6309;-0.1159;
1162.2000;0.6309;-0.1159;
1162.5000;0.6325;-0.1113;
1162.8000;0.6309;-0.1067;
1163.1000;0.6284;-0.1113;
1163.4000;0.6317;-0.1113;
1163.7000;0.6325;-0.1182;
1164.0000;0.6317;-0.1229;
1164.3000;0.6317;-0.1275;
1164.6000;0.6349;-0.1159;
1164.9000;0.6357;-0.0997;
1165.2000;0.6309;-0.1229;
1165.5000;0.6292;-0.1252;
1165.8000;0.6317;-0.1159;
1166.1000;0.6309;-0.1206;
1166.4000;0.6317;-0.1252;
1166.7000;0.6317;-0.1229;
1167.0000;0.6317;-0.1206;
1167.3000;0.6309;-0.1159;
1167.6000;0.6325;-0.1067;
1167.9000;0.6309;-0.1090;
1168.2000;0.6300;-0.1136;
1168.5000;0.6357;-0.0927;
1168.8000;0.6349;-0.0997;
1169.1000;0.6300;-0.1113;
1169.4000;0.6325;-0.1090;
1169.7000;0.6317;-0.1113;
1170.0000;0.6317;-0.1136;
1170.3000;0.6325;-0.1182;
1170.6000;0.6292;-0.1252;
1170.9000;0.6309;-0.1159;
1171.2000;0.6300;-0.1043;
1171.5000;0.6292;-0.1043;
1171.8000;0.6300;-0.1043;
1172.1000;0.6300;-0.1090;
1172.4000;0.6300;-0.1043;
1172.7000;0.6333;-0.1020;
1173.0000;0.6309;-0.1090;
1173.3000;0.6300;-0.1090;
1173.6000;0.6341;-0.0951;
1173.9000;0.6325;-0.0881;
1174.2000;0.6333;-0.0927;
1174.5000;0.6260;-0.1136;
1174.8000;0.6333;-0.1020;
1175.1000;0.6317;-0.1020;
1175.4000;0.6341;-0.0974;
1175.7000;0.6309;-0.1090;
1176.0000;0.6325;-0.1113;
1176.3000;0.6317;-0.1090;
1176.6000;0.6317;-0.1043;
1176.9000;0.6317;-0.1067;
1177.2000;0.6325;-0.1113;
1177.5000;0.6292;-0.1113;
1177.8000;0.6325;-0.1090;
1178.1000;0.6317;-0.1159;
1178.4000;0.6325;-0.1159;
1178.7000;0.6325;-0.1182;
1179.0000;0.6317;-0.1206;
1179.3000;0.6300;-0.1298;
1179.6000;0.6284;-0.1298;
1179.9000;0.6309;-0.1229;
1180.2000;0.6309;-0.1298;
1180.5000;0.6309;-0.1368;
1180.8000;0.6365;-0.1067;
1181.1000;0.6317;-0.1159;
1181.4000;0.6317;-0.1182;
1181.7000;0.6268;-0.1322;
1182.0000;0.6325;-0.1159;
1182.3000;0.6309;-0.1229;
1182.6000;0.6333;-0.1229;
1182.9000;0.6414;-0.0904;
1183.2000;0.6300;-0.1182;
1183.5000;0.6292;-0.1206;
1183.8000;0.6300;-0.1229;
1184.1000;0.6333;-0.1159;
1184.4000;0.6341;-0.1136;
1184.7000;0.6349;-0.1043;
1185.0000;0.6309;-0.1043;
1185.3000;0.6325;-0.1043;
1185.6000;0.6325;-0.1090;
1185.9000;0.6317;-0.1113;
1186.2000;0.6268;-0.1252;
1186.5000;0.6317;-0.1182;
1186.8000;0.6317;-0.1298;
1187.1000;0.6309;-0.1345;
1187.4000;0.6309;-0.1298;
1187.7000;0.6317;-0.1252;
1188.0000;0.6325;-0.1182;
1188.3000;0.6309;-0.1298;
1188.6000;0.6317;-0.1345;
1188.9000;0.6325;-0.1275;
1189.2000;0.6292;-0.1414;
1189.5000;0.6292;-0.1345;
1189.8000;0.6300;-0.1252;
1190.1000;0.6325;-0.1229;
1190.4000;0.6333;-0.1136;
1190.7000;0.6317;-0.1113;
1191.0000;0.6300;-0.1159;
1191.3000;0.6300;-0.1136;
1191.6000;0.6227;-0.1298;
1191.9000;0.6317;-0.1182;
1192.2000;0.6268;-0.1322;
1192.5000;0.6309;-0.1275;
1192.8000;0.6292;-0.1206;
1193.1000;0.6309;-0.1159;
1193.4000;0.6317;-0.1113;
1193.7000;0.6309;-0.1159;
1194.0000;0.6292;-0.1182;
1194.3000;0.6252;-0.1229;
1194.6000;0.6284;-0.1113;
1194.9000;0.6284;-0.1043;
1195.2000;0.6292;-0.0997;
1195.5000;0.6309;-0.0951;
1195.8000;0.6317;-0.0927;
1196.1000;0.6300;-0.0927;
1196.4000;0.6333;-0.0788;
1196.7000;0.6317;-0.0881;
1197.0000;0.6300;-0.1043;
1197.3000;0.6309;-0.1067;
1197.6000;0.6309;-0.1020;
1197.9000;0.6284;-0.1113;
1198.2000;0.6292;-0.1159;
1198.5000;0.6309;-0.1252;
1198.8000;0.6292;-0.1322;
1199.1000;0.6292;-0.1298;
1199.4000;0.6309;-0.1206;
1199.7000;0.6300;-0.1206;
1200.0000;0.6276;-0.1275;
1200.3000;0.6309;-0.1229;
1200.6000;0.6309;-0.1252;
1200.9000;0.6300;-0.1298;
1201.2000;0.6309;-0.1206;
1201.5000;0.6317;-0.1229;
1201.8000;0.6309;-0.1182;
1202.1000;0.6292;-0.1229;
1202.4000;0.6268;-0.1252;
1202.7000;0.6317;-0.1043;
1203.0000;0.6284;-0.1206;
1203.3000;0.6309;-0.1229;
1203.6000;0.6300;-0.1206;
1203.9000;0.6243;-0.1298;
1204.2000;0.6284;-0.1298;
1204.5000;0.6284;-0.1252;
1204.8000;0.6292;-0.1206;
1205.1000;0.6292;-0.1159;
1205.4000;0.6284;-0.1182;
1205.7000;0.6309;-0.1159;
1206.0000;0.6317;-0.1090;
1206.3000;0.6365;-0.0997;
1206.6000;0.6309;-0.1159;
1206.9000;0.6317;-0.1136;
1207.2000;0.6317;-0.1182;
1207.5000;0.6365;-0.1043;
1207.8000;0.6317;-0.1159;
1208.1000;0.6284;-0.1275;
1208.4000;0.6325;-0.1182;
1208.7000;0.6300;-0.1206;
1209.0000;0.6309;-0.1206;
1209.3000;0.6252;-0.1414;
1209.6000;0.6292;-0.1275;
1209.9000;0.6325;-0.1298;
1210.2000;0.6309;-0.1368;
1210.5000;0.6260;-0.1345;
1210.8000;0.6292;-0.1275;
1211.1000;0.6309;-0.1113;
1211.4000;0.6317;-0.1020;
1211.7000;0.6309;-0.0997;
1212.0000;0.6268;-0.1067;
1212.3000;0.6292;-0.1043;
1212.6000;0.6317;-0.1020;
1212.9000;0.6300;-0.1067;
1213.2000;0.6317;-0.0974;
1213.5000;0.6292;-0.0997;
1213.8000;0.6317;-0.0997;
1214.1000;0.6300;-0.0951;
1214.4000;0.6292;-0.1043;
1214.7000;0.6292;-0.1067;
1215.0000;0.6333;-0.0927;
1215.3000;0.6276;-0.1067;
1215.6000;0.6317;-0.0951;
1215.9000;0.6317;-0.1020;
1216.2000;0.6292;-0.1113;
1216.5000;0.6300;-0.1182;
1216.8000;0.6284;-0.1206;
1217.1000;0.6284;-0.1136;
1217.4000;0.6349;-0.0997;
1217.7000;0.6284;-0.1113;
1218.0000;0.6309;-0.1113;
1218.3000;0.6292;-0.1136;
1218.6000;0.6284;-0.1113;
1218.9000;0.6300;-0.1113;
1219.2000;0.6292;-0.1136;
1219.5000;0.6268;-0.1136;
1219.8000;0.6284;-0.1136;
1220.1000;0.6292;-0.1159;
1220.4000;0.6284;-0.1090;
1220.7000;0.6309;-0.1067;
1221.0000;0.6300;-0.1043;
1221.3000;0.6252;-0.1136;
1221.6000;0.6284;-0.0997;
1221.9000;0.6276;-0.0974;
1222.2000;0.6284;-0.0974;
1222.5000;0.6309;-0.0858;
1222.8000;0.6276;-0.0881;
1223.1000;0.6292;-0.0881;
1223.4000;0.6292;-0.0927;
1223.7000;0.6292;-0.0997;
1224.0000;0.6317;-0.0927;
1224.3000;0.6300;-0.0997;
1224.6000;0.6300;-0.1067;
1224.9000;0.6309;-0.1090;
1225.2000;0.6309;-0.1067;
1225.5000;0.6300;-0.1043;
1225.8000;0.6309;-0.1020;
1226.1000;0.6292;-0.1067;
1226.4000;0.6309;-0.0997;
1226.7000;0.6309;-0.0927;
1227.0000;0.6292;-0.1043;
1227.3000;0.6341;-0.0974;
1227.6000;0.6292;-0.1090;
1227.9000;0.6309;-0.1090;
1228.2000;0.6243;-0.1229;
1228.5000;0.6317;-0.1067;
1228.8000;0.6300;-0.1020;
1229.1000;0.6284;-0.1113;
1229.4000;0.6284;-0.1159;
1229.7000;0.6292;-0.1159;
1230.0000;0.6276;-0.1182;
1230.3000;0.6300;-0.1090;
1230.6000;0.6284;-0.1043;
1230.9000;0.6292;-0.1043;
1231.2000;0.6260;-0.1090;
1231.5000;0.6292;-0.1043;
1231.8000;0.6300;-0.1043;
1232.1000;0.6374;-0.1020;
1232.4000;0.6268;-0.1229;
1232.7000;0.6284;-0.1090;
1233.0000;0.6252;-0.1206;
1233.3000;0.6284;-0.1136;
1233.6000;0.6284;-0.1159;
1233.9000;0.6292;-0.1159;
1234.2000;0.6309;-0.1206;
1234.5000;0.6292;-0.1206;
1234.8000;0.6309;-0.1182;
1235.1000;0.6333;-0.1043;
1235.4000;0.6333;-0.0997;
1235.7000;0.6292;-0.1020;
1236.0000;0.6284;-0.1090;
1236.3000;0.6276;-0.1113;
1236.6000;0.6300;-0.0974;
1236.9000;0.6276;-0.0951;
1237.2000;0.6325;-0.0927;
1237.5000;0.6309;-0.0997;
1237.8000;0.6292;-0.1090;
1238.1000;0.6341;-0.0951;
1238.4000;0.6300;-0.0997;
1238.7000;0.6317;-0.0927;
1239.0000;0.6292;-0.0997;
1239.3000;0.6325;-0.0927;
1239.6000;0.6317;-0.0974;
1239.9000;0.6309;-0.0881;
1240.2000;0.6309;-0.0927;
1240.5000;0.6292;-0.0881;
1240.8000;0.6300;-0.0858;
1241.1000;0.6284;-0.0927;
1241.4000;0.6300;-0.0881;
1241.7000;0.6309;-0.0858;
1242.0000;0.6309;-0.0835;
1242.3000;0.6325;-0.0835;
1242.6000;0.6292;-0.0927;
1242.9000;0.6292;-0.0974;
1243.2000;0.6292;-0.1020;
1243.5000;0.6219;-0.1206;
1243.8000;0.6284;-0.1067;
1244.1000;0.6317;-0.0997;
1244.4000;0.6325;-0.0927;
1244.7000;0.6284;-0.0974;
1245.0000;0.6292;-0.1020;
1245.3000;0.6268;-0.1067;
1245.6000;0.6292;-0.0997;
1245.9000;0.6309;-0.0927;
1246.2000;0.6284;-0.0974;
1246.5000;0.6260;-0.1067;
1246.8000;0.6284;-0.0997;
1247.1000;0.6268;-0.1090;
1247.4000;0.6300;-0.1043;
1247.7000;0.6300;-0.1067;
1248.0000;0.6300;-0.0974;
1248.3000;0.6252;-0.1020;
1248.6000;0.6284;-0.0858;
1248.9000;0.6260;-0.0951;
1249.2000;0.6317;-0.0904;
1249.5000;0.6309;-0.0927;
1249.8000;0.6284;-0.0951;
1250.1000;0.6268;-0.0951;
1250.4000;0.6300;-0.0858;
1250.7000;0.6284;-0.0835;
1251.0000;0.6374;-0.0626;
1251.3000;0.6268;-0.0788;
1251.6000;0.6292;-0.0765;
1251.9000;0.6276;-0.0788;
1252.2000;0.6292;-0.0811;
1252.5000;0.6325;-0.0811;
1252.8000;0.6284;-0.0974;
1253.1000;0.6260;-0.1020;
1253.4000;0.6292;-0.1067;
1253.7000;0.6292;-0.1043;
1254.0000;0.6268;-0.1090;
1254.3000;0.6268;-0.0997;
1254.6000;0.6284;-0.0927;
1254.9000;0.6284;-0.0881;
1255.2000;0.6276;-0.0881;
1255.5000;0.6284;-0.0881;
1255.8000;0.6292;-0.0858;
1256.1000;0.6284;-0.0927;
1256.4000;0.6300;-0.0858;
1256.7000;0.6284;-0.0881;
1257.0000;0.6300;-0.0858;
1257.3000;0.6276;-0.0811;
1257.6000;0.6284;-0.0788;
1257.9000;0.6292;-0.0811;
1258.2000;0.6292;-0.0811;
1258.5000;0.6309;-0.0835;
1258.8000;0.6252;-0.0997;
1259.1000;0.6284;-0.0951;
1259.4000;0.6276;-0.0997;
1259.7000;0.6276;-0.0997;
1260.0000;0.6284;-0.0951;
1260.3000;0.6268;-0.0951;
1260.6000;0.6268;-0.0927;
1260.9000;0.6268;-0.0927;
1261.2000;0.6300;-0.0904;
1261.5000;0.6260;-0.0881;
1261.8000;0.6276;-0.0881;
1262.1000;0.6268;-0.0904;
1262.4000;0.6276;-0.0974;
1262.7000;0.6268;-0.1067;
1263.0000;0.6317;-0.1020;
1263.3000;0.6276;-0.1020;
1263.6000;0.6284;-0.0927;
1263.9000;0.6300;-0.0974;
1264.2000;0.6252;-0.1136;
1264.5000;0.6284;-0.1113;
1264.8000;0.6292;-0.1043;
1265.1000;0.6300;-0.1043;
1265.4000;0.6276;-0.1113;
1265.7000;0.6284;-0.1113;
1266.0000;0.6292;-0.1113;
1266.3000;0.6292;-0.1090;
1266.6000;0.6276;-0.1136;
1266.9000;0.6276;-0.1206;
1267.2000;0.6284;-0.1206;
1267.5000;0.6292;-0.1182;
1267.8000;0.6300;-0.1206;
1268.1000;0.6292;-0.1182;
1268.4000;0.6292;-0.1136;
1268.7000;0.6276;-0.1136;
1269.0000;0.6292;-0.1090;
1269.3000;0.6284;-0.1020;
1269.6000;0.6284;-0.1043;
1269.9000;0.6325;-0.1043;
1270.2000;0.6292;-0.1043;
1270.5000;0.6300;-0.1113;
1270.8000;0.6268;-0.1182;
1271.1000;0.6276;-0.1159;
1271.4000;0.6300;-0.1113;
1271.7000;0.6276;-0.1113;
1272.0000;0.6268;-0.1182;
1272.3000;0.6268;-0.1206;
1272.6000;0.6284;-0.1136;
1272.9000;0.6268;-0.1159;
1273.2000;0.6276;-0.1322;
1273.5000;0.6276;-0.1345;
1273.8000;0.6341;-0.1159;
1274.1000;0.6252;-0.1391;
1274.4000;0.6260;-0.1345;
1274.7000;0.6268;-0.1252;
1275.0000;0.6276;-0.1159;
1275.3000;0.6284;-0.1090;
1275.6000;0.6292;-0.1043;
1275.9000;0.6292;-0.1067;
1276.2000;0.6243;-0.1090;
1276.5000;0.6317;-0.0997;
1276.8000;0.6276;-0.1067;
1277.1000;0.6268;-0.1090;
1277.4000;0.6276;-0.1067;
1277.7000;0.6284;-0.0858;
1278.0000;0.6365;-0.0696;
1278.3000;0.6284;-0.0974;
1278.6000;0.6292;-0.1113;
1278.9000;0.6292;-0.1113;
1279.2000;0.6300;-0.1090;
1279.5000;0.6268;-0.1206;
1279.8000;0.6300;-0.1113;
1280.1000;0.6276;-0.1113;
1280.4000;0.6292;-0.1043;
1280.7000;0.6276;-0.1020;
1281.0000;0.6292;-0.0904;
1281.3000;0.6268;-0.0835;
1281.6000;0.6276;-0.0835;
1281.9000;0.6292;-0.0835;
1282.2000;0.6276;-0.0858;
1282.5000;0.6292;-0.0881;
1282.8000;0.6268;-0.0881;
1283.1000;0.6268;-0.0881;
1283.4000;0.6268;-0.0881;
1283.7000;0.6276;-0.0858;
1284.0000;0.6260;-0.0951;
1284.3000;0.6309;-0.0904;
1284.6000;0.6276;-0.0927;
1284.9000;0.6260;-0.0904;
1285.2000;0.6260;-0.0881;
1285.5000;0.6260;-0.0927;
1285.8000;0.6268;-0.0997;
1286.1000;0.6284;-0.0974;
1286.4000;0.6276;-0.1020;
1286.7000;0.6276;-0.1020;
1287.0000;0.6284;-0.1043;
1287.3000;0.6276;-0.1020;
1287.6000;0.6276;-0.0997;
1287.9000;0.6284;-0.0927;
1288.2000;0.6292;-0.0951;
1288.5000;0.6292;-0.0974;
1288.8000;0.6284;-0.0904;
1289.1000;0.6284;-0.0951;
1289.4000;0.6276;-0.0904;
1289.7000;0.6292;-0.0881;
1290.0000;0.6300;-0.0951;
1290.3000;0.6268;-0.1136;
1290.6000;0.6260;-0.1067;
1290.9000;0.6276;-0.0997;
1291.2000;0.6284;-0.0974;
1291.5000;0.6292;-0.0951;
1291.8000;0.6300;-0.0997;
1292.1000;0.6284;-0.0974;
1292.4000;0.6276;-0.0927;
1292.7000;0.6268;-0.0858;
1293.0000;0.6268;-0.0904;
1293.3000;0.6276;-0.0858;
1293.6000;0.6292;-0.0858;
1293.9000;0.6284;-0.0927;
1294.2000;0.6268;-0.0951;
1294.5000;0.6268;-0.0974;
1294.8000;0.6300;-0.0974;
1295.1000;0.6276;-0.0997;
1295.4000;0.6276;-0.0951;
1295.7000;0.6276;-0.0904;
1296.0000;0.6276;-0.0974;
1296.3000;0.6284;-0.1067;
1296.6000;0.6300;-0.1020;
1296.9000;0.6243;-0.1159;
1297.2000;0.6268;-0.1020;
1297.5000;0.6276;-0.0974;
1297.8000;0.6260;-0.0997;
1298.1000;0.6276;-0.0927;
1298.4000;0.6292;-0.0904;
1298.7000;0.6268;-0.1020;
1299.0000;0.6252;-0.1067;
1299.3000;0.6284;-0.0927;
1299.6000;0.6300;-0.0835;
1299.9000;0.6284;-0.0881;
1300.2000;0.6292;-0.0788;
1300.5000;0.6260;-0.0881;
1300.8000;0.6276;-0.0858;
1301.1000;0.6341;-0.0603;
1301.4000;0.6276;-0.0765;
1301.7000;0.6284;-0.0788;
1302.0000;0.6284;-0.0858;
1302.3000;0.6284;-0.0765;
1302.6000;0.6276;-0.0788;
1302.9000;0.6276;-0.0788;
1303.2000;0.6260;-0.0696;
1303.5000;0.6260;-0.0719;
1303.8000;0.6276;-0.0696;
1304.1000;0.6268;-0.0719;
1304.4000;0.6276;-0.0742;
1304.7000;0.6268;-0.0719;
1305.0000;0.6292;-0.0719;
1305.3000;0.6268;-0.0742;
1305.6000;0.6292;-0.0788;
1305.9000;0.6292;-0.0742;
1306.2000;0.6284;-0.0649;
1306.5000;0.6276;-0.0626;
1306.8000;0.6276;-0.0672;
1307.1000;0.6268;-0.0696;
1307.4000;0.6276;-0.0719;
1307.7000;0.6276;-0.0742;
1308.0000;0.6292;-0.0742;
1308.3000;0.6276;-0.0696;
1308.6000;0.6292;-0.0742;
1308.9000;0.6284;-0.0742;
1309.2000;0.6292;-0.0858;
1309.5000;0.6260;-0.0881;
1309.8000;0.6268;-0.0927;
1310.1000;0.6276;-0.0811;
1310.4000;0.6276;-0.0765;
1310.7000;0.6276;-0.0881;
1311.0000;0.6317;-0.0881;
1311.3000;0.6333;-0.0835;
1311.6000;0.6309;-0.0881;
1311.9000;0.6276;-0.0974;
1312.2000;0.6268;-0.0974;
1312.5000;0.6284;-0.0904;
1312.8000;0.6284;-0.0835;
1313.1000;0.6268;-0.0951;
1313.4000;0.6252;-0.0974;
1313.7000;0.6268;-0.0927;
1314.0000;0.6284;-0.0765;
1314.3000;0.6276;-0.0765;
1314.6000;0.6276;-0.0811;
1314.9000;0.6268;-0.0835;
1315.2000;0.6268;-0.0881;
1315.5000;0.6260;-0.0904;
1315.8000;0.6252;-0.0904;
1316.1000;0.6235;-0.0974;
1316.4000;0.6260;-0.0997;
1316.7000;0.6260;-0.1067;
1317.0000;0.6252;-0.1090;
1317.3000;0.6268;-0.0997;
1317.6000;0.6276;-0.1043;
1317.9000;0.6300;-0.0974;
1318.2000;0.6276;-0.1067;
1318.5000;0.6300;-0.1020;
1318.8000;0.6268;-0.0927;
1319.1000;0.6260;-0.0904;
1319.4000;0.6309;-0.0811;
1319.7000;0.6219;-0.0974;
1320.0000;0.6276;-0.0858;
1320.3000;0.6268;-0.0788;
1320.6000;0.6235;-0.0881;
1320.9000;0.6260;-0.0881;
1321.2000;0.6276;-0.0904;
1321.5000;0.6276;-0.0881;
1321.8000;0.6284;-0.0904;
1322.1000;0.6292;-0.0858;
1322.4000;0.6268;-0.0881;
1322.7000;0.6276;-0.0974;
1323.0000;0.6211;-0.1113;
1323.3000;0.6276;-0.0997;
1323.6000;0.6309;-0.0951;
1323.9000;0.6260;-0.1043;
1324.2000;0.6284;-0.1020;
1324.5000;0.6284;-0.0951;
1324.8000;0.6276;-0.0951;
1325.1000;0.6252;-0.0997;
1325.4000;0.6284;-0.0904;
1325.7000;0.6284;-0.0927;
1326.0000;0.6235;-0.0997;
1326.3000;0.6284;-0.0927;
1326.6000;0.6268;-0.0974;
1326.9000;0.6276;-0.0974;
1327.2000;0.6260;-0.0927;
1327.5000;0.6227;-0.1067;
1327.8000;0.6309;-0.0974;
1328.1000;0.6284;-0.1020;
1328.4000;0.6260;-0.1020;
1328.7000;0.6186;-0.1090;
1329.0000;0.6268;-0.0881;
1329.3000;0.6284;-0.0858;
1329.6000;0.6284;-0.0951;
1329.9000;0.6349;-0.0765;
1330.2000;0.6219;-0.1043;
1330.5000;0.6284;-0.0835;
1330.8000;0.6317;-0.0742;
1331.1000;0.6268;-0.0858;
1331.4000;0.6252;-0.0881;
1331.7000;0.6268;-0.0811;
1332.0000;0.6260;-0.0881;
1332.3000;0.6284;-0.0835;
1332.6000;0.6227;-0.0997;
1332.9000;0.6276;-0.0881;
1333.2000;0.6276;-0.0835;
1333.5000;0.6284;-0.0765;
1333.8000;0.6268;-0.0742;
1334.1000;0.6284;-0.0742;
1334.4000;0.6292;-0.0765;
1334.7000;0.6276;-0.0788;
1335.0000;0.6284;-0.0788;
1335.3000;0.6260;-0.0788;
1335.6000;0.6268;-0.0811;
1335.9000;0.6276;-0.0672;
1336.2000;0.6284;-0.0649;
1336.5000;0.6276;-0.0696;
1336.8000;0.6252;-0.0811;
1337.1000;0.6276;-0.0788;
1337.4000;0.6276;-0.0811;
1337.7000;0.6276;-0.0835;
1338.0000;0.6268;-0.0927;
1338.3000;0.6260;-0.0997;
1338.6000;0.6227;-0.1136;
1338.9000;0.6276;-0.0997;
1339.2000;0.6284;-0.0881;
1339.5000;0.6276;-0.0927;
1339.8000;0.6276;-0.0881;
1340.1000;0.6268;-0.0904;
1340.4000;0.6284;-0.0811;
1340.7000;0.6260;-0.0811;
1341.0000;0.6284;-0.0742;
1341.3000;0.6284;-0.0788;
1341.6000;0.6260;-0.0835;
1341.9000;0.6268;-0.0835;
1342.2000;0.6284;-0.0788;
1342.5000;0.6341;-0.0649;
1342.8000;0.6276;-0.0811;
1343.1000;0.6276;-0.0811;
1343.4000;0.6235;-0.0951;
1343.7000;0.6260;-0.0881;
1344.0000;0.6243;-0.0974;
1344.3000;0.6292;-0.0881;
1344.6000;0.6268;-0.0951;
1344.9000;0.6268;-0.0858;
1345.2000;0.6268;-0.0811;
1345.5000;0.6300;-0.0719;
1345.8000;0.6252;-0.0835;
1346.1000;0.6292;-0.0765;
1346.4000;0.6325;-0.0742;
1346.7000;0.6260;-0.0904;
1347.0000;0.6203;-0.0974;
1347.3000;0.6260;-0.0904;
1347.6000;0.6219;-0.0974;
1347.9000;0.6252;-0.0765;
1348.2000;0.6252;-0.0811;
1348.5000;0.6227;-0.0951;
1348.8000;0.6276;-0.0719;
1349.1000;0.6268;-0.0672;
1349.4000;0.6317;-0.0533;
1349.7000;0.6325;-0.0626;
1350.0000;0.6292;-0.0672;
1350.3000;0.6252;-0.0765;
1350.6000;0.6211;-0.0927;
1350.9000;0.6276;-0.0788;
1351.2000;0.6309;-0.0672;
1351.5000;0.6268;-0.0788;
1351.8000;0.6300;-0.0811;
1352.1000;0.6268;-0.0835;
1352.4000;0.6276;-0.0858;
1352.7000;0.6276;-0.0858;
1353.0000;0.6309;-0.0788;
1353.3000;0.6268;-0.0835;
1353.6000;0.6268;-0.0835;
1353.9000;0.6317;-0.0765;
1354.2000;0.6203;-0.1090;
1354.5000;0.6284;-0.0974;
1354.8000;0.6235;-0.1043;
1355.1000;0.6284;-0.0858;
1355.4000;0.6284;-0.0835;
1355.7000;0.6284;-0.0881;
1356.0000;0.6268;-0.0858;
1356.3000;0.6284;-0.0811;
1356.6000;0.6268;-0.0858;
1356.9000;0.6260;-0.0904;
1357.2000;0.6276;-0.0835;
1357.5000;0.6252;-0.0881;
1357.8000;0.6268;-0.0835;
1358.1000;0.6211;-0.0881;
1358.4000;0.6219;-0.0881;
1358.7000;0.6260;-0.0788;
1359.0000;0.6268;-0.0788;
1359.3000;0.6276;-0.0835;
1359.6000;0.6268;-0.0788;
1359.9000;0.6252;-0.0811;
1360.2000;0.6252;-0.0811;
1360.5000;0.6292;-0.0835;
1360.8000;0.6276;-0.0881;
1361.1000;0.6276;-0.0904;
1361.4000;0.6268;-0.0904;
1361.7000;0.6276;-0.0835;
1362.0000;0.6284;-0.0811;
1362.3000;0.6268;-0.0858;
1362.6000;0.6260;-0.0835;
1362.9000;0.6276;-0.0858;
1363.2000;0.6292;-0.0858;
1363.5000;0.6268;-0.0835;
1363.8000;0.6268;-0.0881;
1364.1000;0.6252;-0.0951;
1364.4000;0.6243;-0.0927;
1364.7000;0.6300;-0.0765;
1365.0000;0.6260;-0.0788;
1365.3000;0.6268;-0.0765;
1365.6000;0.6300;-0.0765;
1365.9000;0.6268;-0.0835;
1366.2000;0.6260;-0.0927;
1366.5000;0.6292;-0.0974;
1366.8000;0.6292;-0.0904;
1367.1000;0.6235;-0.0997;
1367.4000;0.6243;-0.1043;
1367.7000;0.6252;-0.0927;
1368.0000;0.6243;-0.0927;
1368.3000;0.6211;-0.1020;
1368.6000;0.6284;-0.0927;
1368.9000;0.6260;-0.0951;
1369.2000;0.6260;-0.0927;
1369.5000;0.6325;-0.0742;
1369.8000;0.6243;-0.0974;
1370.1000;0.6300;-0.0881;
1370.4000;0.6276;-0.0858;
1370.7000;0.6268;-0.0881;
1371.0000;0.6268;-0.0927;
1371.3000;0.6268;-0.0927;
1371.6000;0.6268;-0.0881;
1371.9000;0.6276;-0.0881;
1372.2000;0.6276;-0.0997;
1372.5000;0.6276;-0.0858;
1372.8000;0.6268;-0.0881;
1373.1000;0.6276;-0.0742;
1373.4000;0.6243;-0.0788;
1373.7000;0.6252;-0.0765;
1374.0000;0.6235;-0.0811;
1374.3000;0.6260;-0.0696;
1374.6000;0.6276;-0.0788;
1374.9000;0.6252;-0.0858;
1375.2000;0.6260;-0.0835;
1375.5000;0.6243;-0.0881;
1375.8000;0.6276;-0.0858;
1376.1000;0.6252;-0.0858;
1376.4000;0.6268;-0.0765;
1376.7000;0.6268;-0.0765;
1377.0000;0.6268;-0.0788;
1377.3000;0.6276;-0.0742;
1377.6000;0.6284;-0.0719;
1377.9000;0.6260;-0.0765;
1378.2000;0.6268;-0.0788;
1378.5000;0.6243;-0.0881;
1378.8000;0.6268;-0.0835;
1379.1000;0.6268;-0.0765;
1379.4000;0.6268;-0.0672;
1379.7000;0.6260;-0.0672;
1380.0000;0.6260;-0.0719;
1380.3000;0.6260;-0.0765;
1380.6000;0.6260;-0.0858;
1380.9000;0.6268;-0.0858;
1381.2000;0.6268;-0.0858;
1381.5000;0.6243;-0.0858;
1381.8000;0.6260;-0.0742;
1382.1000;0.6252;-0.0742;
1382.4000;0.6268;-0.0649;
1382.7000;0.6268;-0.0719;
1383.0000;0.6252;-0.0765;
1383.3000;0.6268;-0.0811;
1383.6000;0.6292;-0.0788;
1383.9000;0.6284;-0.0811;
1384.2000;0.6260;-0.0835;
1384.5000;0.6252;-0.0811;
1384.8000;0.6284;-0.0858;
1385.1000;0.6260;-0.0788;
1385.4000;0.6252;-0.0788;
1385.7000;0.6260;-0.0858;
1386.0000;0.6276;-0.0788;
1386.3000;0.6276;-0.0904;
1386.6000;0.6252;-0.0951;
1386.9000;0.6252;-0.0951;
1387.2000;0.6284;-0.0835;
1387.5000;0.6276;-0.0765;
1387.8000;0.6268;-0.0765;
1388.1000;0.6276;-0.0835;
1388.4000;0.6268;-0.0742;
1388.7000;0.6219;-0.0835;
1389.0000;0.6268;-0.0719;
1389.3000;0.6252;-0.0696;
1389.6000;0.6260;-0.0696;
1389.9000;0.6211;-0.0811;
1390.2000;0.6252;-0.0719;
1390.5000;0.6252;-0.0811;
1390.8000;0.6276;-0.0788;
1391.1000;0.6268;-0.0881;
1391.4000;0.6260;-0.0858;
1391.7000;0.6260;-0.0835;
1392.0000;0.6284;-0.0788;
1392.3000;0.6276;-0.0811;
1392.6000;0.6260;-0.0811;
1392.9000;0.6268;-0.0835;
1393.2000;0.6300;-0.0811;
1393.5000;0.6260;-0.0858;
1393.8000;0.6276;-0.0788;
1394.1000;0.6317;-0.0788;
1394.4000;0.6260;-0.0904;
1394.7000;0.6276;-0.0881;
1395.0000;0.6276;-0.0904;
1395.3000;0.6276;-0.0881;
1395.6000;0.6284;-0.0811;
1395.9000;0.6276;-0.0788;
1396.2000;0.6284;-0.0835;
1396.5000;0.6268;-0.0811;
1396.8000;0.6268;-0.0811;
1397.1000;0.6260;-0.0835;
1397.4000;0.6268;-0.0835;
1397.7000;0.6276;-0.0858;
1398.0000;0.6260;-0.0858;
1398.3000;0.6260;-0.0904;
1398.6000;0.6276;-0.0927;
1398.9000;0.6309;-0.0858;
1399.2000;0.6227;-0.1113;
1399.5000;0.6268;-0.0904;
1399.8000;0.6260;-0.0881;
