time/ms;Fluo/V;P700 deltaI/I x10³;
-199.8000;0.9565;0.1391;
-199.5000;0.9589;0.1507;
-199.2000;0.9556;0.1530;
-198.9000;0.9459;0.1275;
-198.6000;0.9565;0.1577;
-198.3000;0.9556;0.1577;
-198.0000;0.9581;0.1577;
-197.7000;0.9589;0.1600;
-197.4000;0.9613;0.1577;
-197.1000;0.9621;0.1669;
-196.8000;0.9589;0.1600;
-196.5000;0.9654;0.1716;
-196.2000;0.9573;0.1553;
-195.9000;0.9581;0.1693;
-195.6000;0.9573;0.1646;
-195.3000;0.9589;0.1693;
-195.0000;0.9548;0.1484;
-194.7000;0.9565;0.1530;
-194.4000;0.9491;0.1391;
-194.1000;0.9573;0.1553;
-193.8000;0.9605;0.1623;
-193.5000;0.9573;0.1461;
-193.2000;0.9565;0.1414;
-192.9000;0.9548;0.1414;
-192.6000;0.9597;0.1461;
-192.3000;0.9573;0.1461;
-192.0000;0.9589;0.1437;
-191.7000;0.9581;0.1414;
-191.4000;0.9581;0.1368;
-191.1000;0.9581;0.1368;
-190.8000;0.9556;0.1252;
-190.5000;0.9573;0.1391;
-190.2000;0.9565;0.1368;
-189.9000;0.9573;0.1437;
-189.6000;0.9556;0.1484;
-189.3000;0.9548;0.1437;
-189.0000;0.9565;0.1461;
-188.7000;0.9597;0.1530;
-188.4000;0.9573;0.1391;
-188.1000;0.9589;0.1345;
-187.8000;0.9573;0.1345;
-187.5000;0.9573;0.1437;
-187.2000;0.9573;0.1484;
-186.9000;0.9573;0.1484;
-186.6000;0.9556;0.1391;
-186.3000;0.9589;0.1577;
-186.0000;0.9524;0.1437;
-185.7000;0.9548;0.1507;
-185.4000;0.9581;0.1577;
-185.1000;0.9556;0.1530;
-184.8000;0.9573;0.1577;
-184.5000;0.9556;0.1530;
-184.2000;0.9573;0.1623;
-183.9000;0.9556;0.1693;
-183.6000;0.9597;0.1693;
-183.3000;0.9532;0.1530;
-183.0000;0.9573;0.1577;
-182.7000;0.9581;0.1646;
-182.4000;0.9581;0.1693;
-182.1000;0.9581;0.1623;
-181.8000;0.9565;0.1553;
-181.5000;0.9613;0.1693;
-181.2000;0.9573;0.1623;
-180.9000;0.9581;0.1669;
-180.6000;0.9573;0.1669;
-180.3000;0.9556;0.1600;
-180.0000;0.9581;0.1669;
-179.7000;0.9573;0.1553;
-179.4000;0.9597;0.1577;
-179.1000;0.9597;0.1553;
-178.8000;0.9573;0.1530;
-178.5000;0.9589;0.1623;
-178.2000;0.9540;0.1484;
-177.9000;0.9556;0.1530;
-177.6000;0.9573;0.1646;
-177.3000;0.9556;0.1577;
-177.0000;0.9638;0.1716;
-176.7000;0.9573;0.1530;
-176.4000;0.9581;0.1507;
-176.1000;0.9589;0.1507;
-175.8000;0.9573;0.1577;
-175.5000;0.9565;0.1507;
-175.2000;0.9565;0.1530;
-174.9000;0.9573;0.1437;
-174.6000;0.9597;0.1507;
-174.3000;0.9548;0.1345;
-174.0000;0.9532;0.1368;
-173.7000;0.9556;0.1437;
-173.4000;0.9565;0.1484;
-173.1000;0.9581;0.1461;
-172.8000;0.9565;0.1484;
-172.5000;0.9597;0.1577;
-172.2000;0.9556;0.1461;
-171.9000;0.9597;0.1507;
-171.6000;0.9573;0.1414;
-171.3000;0.9581;0.1484;
-171.0000;0.9556;0.1484;
-170.7000;0.9565;0.1484;
-170.4000;0.9573;0.1530;
-170.1000;0.9565;0.1553;
-169.8000;0.9548;0.1507;
-169.5000;0.9540;0.1484;
-169.2000;0.9565;0.1507;
-168.9000;0.9556;0.1530;
-168.6000;0.9565;0.1530;
-168.3000;0.9573;0.1553;
-168.0000;0.9565;0.1507;
-167.7000;0.9573;0.1553;
-167.4000;0.9573;0.1577;
-167.1000;0.9565;0.1577;
-166.8000;0.9573;0.1669;
-166.5000;0.9540;0.1600;
-166.2000;0.9573;0.1577;
-165.9000;0.9573;0.1530;
-165.6000;0.9573;0.1507;
-165.3000;0.9573;0.1437;
-165.0000;0.9565;0.1414;
-164.7000;0.9573;0.1414;
-164.4000;0.9565;0.1391;
-164.1000;0.9565;0.1414;
-163.8000;0.9573;0.1414;
-163.5000;0.9565;0.1368;
-163.2000;0.9565;0.1322;
-162.9000;0.9581;0.1322;
-162.6000;0.9597;0.1345;
-162.3000;0.9565;0.1322;
-162.0000;0.9548;0.1345;
-161.7000;0.9573;0.1437;
-161.4000;0.9556;0.1414;
-161.1000;0.9589;0.1461;
-160.8000;0.9548;0.1345;
-160.5000;0.9556;0.1345;
-160.2000;0.9573;0.1437;
-159.9000;0.9573;0.1507;
-159.6000;0.9581;0.1507;
-159.3000;0.9565;0.1484;
-159.0000;0.9565;0.1461;
-158.7000;0.9565;0.1553;
-158.4000;0.9556;0.1600;
-158.1000;0.9573;0.1530;
-157.8000;0.9540;0.1461;
-157.5000;0.9556;0.1414;
-157.2000;0.9573;0.1437;
-156.9000;0.9548;0.1414;
-156.6000;0.9581;0.1484;
-156.3000;0.9581;0.1623;
-156.0000;0.9556;0.1577;
-155.7000;0.9565;0.1623;
-155.4000;0.9499;0.1414;
-155.1000;0.9597;0.1600;
-154.8000;0.9605;0.1669;
-154.5000;0.9573;0.1553;
-154.2000;0.9565;0.1484;
-153.9000;0.9556;0.1530;
-153.6000;0.9573;0.1553;
-153.3000;0.9573;0.1530;
-153.0000;0.9573;0.1437;
-152.7000;0.9565;0.1437;
-152.4000;0.9573;0.1437;
-152.1000;0.9556;0.1391;
-151.8000;0.9556;0.1322;
-151.5000;0.9573;0.1275;
-151.2000;0.9556;0.1275;
-150.9000;0.9565;0.1275;
-150.6000;0.9573;0.1322;
-150.3000;0.9565;0.1345;
-150.0000;0.9573;0.1275;
-149.7000;0.9573;0.1229;
-149.4000;0.9573;0.1322;
-149.1000;0.9581;0.1414;
-148.8000;0.9589;0.1414;
-148.5000;0.9581;0.1391;
-148.2000;0.9565;0.1322;
-147.9000;0.9565;0.1345;
-147.6000;0.9630;0.1507;
-147.3000;0.9589;0.1507;
-147.0000;0.9573;0.1484;
-146.7000;0.9573;0.1461;
-146.4000;0.9597;0.1461;
-146.1000;0.9565;0.1484;
-145.8000;0.9581;0.1507;
-145.5000;0.9565;0.1484;
-145.2000;0.9565;0.1553;
-144.9000;0.9491;0.1391;
-144.6000;0.9573;0.1530;
-144.3000;0.9581;0.1507;
-144.0000;0.9573;0.1530;
-143.7000;0.9581;0.1577;
-143.4000;0.9597;0.1646;
-143.1000;0.9565;0.1530;
-142.8000;0.9573;0.1507;
-142.5000;0.9556;0.1577;
-142.2000;0.9581;0.1623;
-141.9000;0.9565;0.1577;
-141.6000;0.9573;0.1577;
-141.3000;0.9581;0.1484;
-141.0000;0.9581;0.1484;
-140.7000;0.9638;0.1669;
-140.4000;0.9556;0.1484;
-140.1000;0.9581;0.1507;
-139.8000;0.9573;0.1530;
-139.5000;0.9565;0.1484;
-139.2000;0.9638;0.1669;
-138.9000;0.9573;0.1484;
-138.6000;0.9556;0.1461;
-138.3000;0.9573;0.1600;
-138.0000;0.9573;0.1530;
-137.7000;0.9621;0.1600;
-137.4000;0.9581;0.1484;
-137.1000;0.9589;0.1507;
-136.8000;0.9565;0.1414;
-136.5000;0.9556;0.1437;
-136.2000;0.9581;0.1553;
-135.9000;0.9589;0.1507;
-135.6000;0.9605;0.1530;
-135.3000;0.9548;0.1391;
-135.0000;0.9581;0.1507;
-134.7000;0.9581;0.1623;
-134.4000;0.9581;0.1646;
-134.1000;0.9548;0.1716;
-133.8000;0.9573;0.1785;
-133.5000;0.9589;0.1762;
-133.2000;0.9581;0.1716;
-132.9000;0.9581;0.1669;
-132.6000;0.9573;0.1623;
-132.3000;0.9581;0.1646;
-132.0000;0.9589;0.1669;
-131.7000;0.9573;0.1623;
-131.4000;0.9540;0.1414;
-131.1000;0.9556;0.1414;
-130.8000;0.9605;0.1553;
-130.5000;0.9556;0.1484;
-130.2000;0.9548;0.1507;
-129.9000;0.9573;0.1507;
-129.6000;0.9573;0.1437;
-129.3000;0.9565;0.1437;
-129.0000;0.9573;0.1530;
-128.7000;0.9589;0.1553;
-128.4000;0.9589;0.1530;
-128.1000;0.9573;0.1437;
-127.8000;0.9565;0.1437;
-127.5000;0.9556;0.1507;
-127.2000;0.9548;0.1484;
-126.9000;0.9565;0.1507;
-126.6000;0.9565;0.1577;
-126.3000;0.9565;0.1507;
-126.0000;0.9565;0.1553;
-125.7000;0.9548;0.1484;
-125.4000;0.9573;0.1507;
-125.1000;0.9581;0.1553;
-124.8000;0.9597;0.1600;
-124.5000;0.9589;0.1530;
-124.2000;0.9605;0.1553;
-123.9000;0.9589;0.1553;
-123.6000;0.9573;0.1507;
-123.3000;0.9581;0.1530;
-123.0000;0.9581;0.1530;
-122.7000;0.9573;0.1507;
-122.4000;0.9589;0.1484;
-122.1000;0.9556;0.1414;
-121.8000;0.9589;0.1484;
-121.5000;0.9581;0.1530;
-121.2000;0.9565;0.1530;
-120.9000;0.9581;0.1437;
-120.6000;0.9581;0.1437;
-120.3000;0.9573;0.1437;
-120.0000;0.9589;0.1414;
-119.7000;0.9573;0.1368;
-119.4000;0.9556;0.1368;
-119.1000;0.9589;0.1414;
-118.8000;0.9540;0.1322;
-118.5000;0.9581;0.1507;
-118.2000;0.9573;0.1553;
-117.9000;0.9540;0.1437;
-117.6000;0.9573;0.1484;
-117.3000;0.9565;0.1461;
-117.0000;0.9605;0.1623;
-116.7000;0.9548;0.1484;
-116.4000;0.9581;0.1507;
-116.1000;0.9573;0.1600;
-115.8000;0.9565;0.1623;
-115.5000;0.9573;0.1553;
-115.2000;0.9581;0.1669;
-114.9000;0.9556;0.1577;
-114.6000;0.9565;0.1530;
-114.3000;0.9605;0.1739;
-114.0000;0.9573;0.1669;
-113.7000;0.9548;0.1646;
-113.4000;0.9589;0.1693;
-113.1000;0.9573;0.1600;
-112.8000;0.9581;0.1577;
-112.5000;0.9556;0.1507;
-112.2000;0.9565;0.1461;
-111.9000;0.9573;0.1437;
-111.6000;0.9565;0.1368;
-111.3000;0.9573;0.1368;
-111.0000;0.9548;0.1298;
-110.7000;0.9597;0.1484;
-110.4000;0.9524;0.1322;
-110.1000;0.9573;0.1461;
-109.8000;0.9565;0.1461;
-109.5000;0.9548;0.1484;
-109.2000;0.9630;0.1577;
-108.9000;0.9605;0.1553;
-108.6000;0.9565;0.1530;
-108.3000;0.9565;0.1553;
-108.0000;0.9573;0.1484;
-107.7000;0.9589;0.1507;
-107.4000;0.9621;0.1646;
-107.1000;0.9573;0.1646;
-106.8000;0.9565;0.1693;
-106.5000;0.9573;0.1739;
-106.2000;0.9573;0.1669;
-105.9000;0.9556;0.1577;
-105.6000;0.9565;0.1600;
-105.3000;0.9581;0.1646;
-105.0000;0.9581;0.1762;
-104.7000;0.9573;0.1739;
-104.4000;0.9565;0.1739;
-104.1000;0.9589;0.1785;
-103.8000;0.9589;0.1785;
-103.5000;0.9573;0.1855;
-103.2000;0.9565;0.1785;
-102.9000;0.9556;0.1739;
-102.6000;0.9646;0.1901;
-102.3000;0.9573;0.1669;
-102.0000;0.9556;0.1577;
-101.7000;0.9565;0.1553;
-101.4000;0.9573;0.1646;
-101.1000;0.9581;0.1623;
-100.8000;0.9573;0.1646;
-100.5000;0.9573;0.1739;
-100.2000;0.9573;0.1669;
-99.9000;0.9565;0.1646;
-99.6000;0.9565;0.1623;
-99.3000;0.9573;0.1530;
-99.0000;0.9573;0.1530;
-98.7000;0.9589;0.1507;
-98.4000;0.9565;0.1507;
-98.1000;0.9573;0.1484;
-97.8000;0.9581;0.1391;
-97.5000;0.9581;0.1322;
-97.2000;0.9589;0.1322;
-96.9000;0.9573;0.1275;
-96.6000;0.9565;0.1322;
-96.3000;0.9573;0.1298;
-96.0000;0.9548;0.1252;
-95.7000;0.9573;0.1275;
-95.4000;0.9581;0.1275;
-95.1000;0.9556;0.1322;
-94.8000;0.9565;0.1368;
-94.5000;0.9565;0.1345;
-94.2000;0.9556;0.1275;
-93.9000;0.9556;0.1206;
-93.6000;0.9573;0.1182;
-93.3000;0.9565;0.1182;
-93.0000;0.9532;0.1206;
-92.7000;0.9565;0.1252;
-92.4000;0.9573;0.1298;
-92.1000;0.9556;0.1275;
-91.8000;0.9565;0.1275;
-91.5000;0.9573;0.1252;
-91.2000;0.9556;0.1298;
-90.9000;0.9565;0.1345;
-90.6000;0.9556;0.1345;
-90.3000;0.9573;0.1368;
-90.0000;0.9581;0.1391;
-89.7000;0.9597;0.1391;
-89.4000;0.9581;0.1461;
-89.1000;0.9573;0.1391;
-88.8000;0.9573;0.1322;
-88.5000;0.9565;0.1322;
-88.2000;0.9662;0.1507;
-87.9000;0.9581;0.1322;
-87.6000;0.9565;0.1345;
-87.3000;0.9548;0.1252;
-87.0000;0.9597;0.1345;
-86.7000;0.9573;0.1298;
-86.4000;0.9581;0.1322;
-86.1000;0.9589;0.1229;
-85.8000;0.9597;0.1206;
-85.5000;0.9581;0.1159;
-85.2000;0.9581;0.1182;
-84.9000;0.9581;0.1252;
-84.6000;0.9646;0.1322;
-84.3000;0.9589;0.1229;
-84.0000;0.9573;0.1275;
-83.7000;0.9540;0.1275;
-83.4000;0.9638;0.1530;
-83.1000;0.9565;0.1345;
-82.8000;0.9573;0.1275;
-82.5000;0.9573;0.1252;
-82.2000;0.9573;0.1322;
-81.9000;0.9581;0.1298;
-81.6000;0.9573;0.1182;
-81.3000;0.9581;0.1159;
-81.0000;0.9565;0.1159;
-80.7000;0.9589;0.1206;
-80.4000;0.9589;0.1275;
-80.1000;0.9581;0.1252;
-79.8000;0.9556;0.1275;
-79.5000;0.9589;0.1368;
-79.2000;0.9581;0.1437;
-78.9000;0.9565;0.1437;
-78.6000;0.9581;0.1391;
-78.3000;0.9556;0.1368;
-78.0000;0.9573;0.1391;
-77.7000;0.9581;0.1322;
-77.4000;0.9581;0.1182;
-77.1000;0.9548;0.1020;
-76.8000;0.9581;0.1159;
-76.5000;0.9581;0.1182;
-76.2000;0.9573;0.1206;
-75.9000;0.9581;0.1275;
-75.6000;0.9581;0.1252;
-75.3000;0.9565;0.1322;
-75.0000;0.9524;0.1252;
-74.7000;0.9589;0.1437;
-74.4000;0.9565;0.1368;
-74.1000;0.9589;0.1414;
-73.8000;0.9581;0.1461;
-73.5000;0.9540;0.1368;
-73.2000;0.9589;0.1484;
-72.9000;0.9573;0.1530;
-72.6000;0.9589;0.1507;
-72.3000;0.9581;0.1484;
-72.0000;0.9540;0.1322;
-71.7000;0.9540;0.1345;
-71.4000;0.9548;0.1275;
-71.1000;0.9565;0.1391;
-70.8000;0.9565;0.1391;
-70.5000;0.9540;0.1345;
-70.2000;0.9589;0.1391;
-69.9000;0.9499;0.1229;
-69.6000;0.9565;0.1414;
-69.3000;0.9581;0.1391;
-69.0000;0.9573;0.1391;
-68.7000;0.9646;0.1507;
-68.4000;0.9565;0.1275;
-68.1000;0.9565;0.1368;
-67.8000;0.9573;0.1322;
-67.5000;0.9573;0.1345;
-67.2000;0.9573;0.1322;
-66.9000;0.9573;0.1298;
-66.6000;0.9565;0.1252;
-66.3000;0.9573;0.1275;
-66.0000;0.9597;0.1414;
-65.7000;0.9581;0.1414;
-65.4000;0.9597;0.1461;
-65.1000;0.9589;0.1461;
-64.8000;0.9581;0.1530;
-64.5000;0.9565;0.1461;
-64.2000;0.9540;0.1391;
-63.9000;0.9581;0.1437;
-63.6000;0.9565;0.1484;
-63.3000;0.9597;0.1577;
-63.0000;0.9573;0.1669;
-62.7000;0.9556;0.1600;
-62.4000;0.9565;0.1530;
-62.1000;0.9516;0.1461;
-61.8000;0.9565;0.1507;
-61.5000;0.9565;0.1577;
-61.2000;0.9565;0.1577;
-60.9000;0.9556;0.1623;
-60.6000;0.9565;0.1600;
-60.3000;0.9581;0.1530;
-60.0000;0.9581;0.1484;
-59.7000;0.9565;0.1414;
-59.4000;0.9565;0.1437;
-59.1000;0.9565;0.1391;
-58.8000;0.9581;0.1368;
-58.5000;0.9573;0.1414;
-58.2000;0.9573;0.1530;
-57.9000;0.9548;0.1484;
-57.6000;0.9565;0.1507;
-57.3000;0.9573;0.1437;
-57.0000;0.9491;0.1206;
-56.7000;0.9565;0.1391;
-56.4000;0.9581;0.1507;
-56.1000;0.9565;0.1507;
-55.8000;0.9524;0.1414;
-55.5000;0.9548;0.1553;
-55.2000;0.9581;0.1577;
-54.9000;0.9573;0.1530;
-54.6000;0.9565;0.1530;
-54.3000;0.9573;0.1577;
-54.0000;0.9565;0.1507;
-53.7000;0.9508;0.1368;
-53.4000;0.9556;0.1530;
-53.1000;0.9556;0.1414;
-52.8000;0.9532;0.1414;
-52.5000;0.9565;0.1507;
-52.2000;0.9565;0.1484;
-51.9000;0.9556;0.1437;
-51.6000;0.9573;0.1553;
-51.3000;0.9565;0.1553;
-51.0000;0.9516;0.1484;
-50.7000;0.9548;0.1600;
-50.4000;0.9556;0.1693;
-50.1000;0.9573;0.1646;
-49.8000;0.9581;0.1623;
-49.5000;0.9597;0.1600;
-49.2000;0.9581;0.1461;
-48.9000;0.9573;0.1484;
-48.6000;0.9605;0.1530;
-48.3000;0.9638;0.1600;
-48.0000;0.9581;0.1414;
-47.7000;0.9540;0.1414;
-47.4000;0.9556;0.1530;
-47.1000;0.9565;0.1600;
-46.8000;0.9573;0.1530;
-46.5000;0.9573;0.1437;
-46.2000;0.9508;0.1252;
-45.9000;0.9556;0.1437;
-45.6000;0.9654;0.1623;
-45.3000;0.9565;0.1437;
-45.0000;0.9548;0.1507;
-44.7000;0.9556;0.1577;
-44.4000;0.9573;0.1623;
-44.1000;0.9573;0.1530;
-43.8000;0.9581;0.1414;
-43.5000;0.9491;0.1229;
-43.2000;0.9573;0.1391;
-42.9000;0.9573;0.1437;
-42.6000;0.9548;0.1368;
-42.3000;0.9573;0.1507;
-42.0000;0.9581;0.1530;
-41.7000;0.9573;0.1507;
-41.4000;0.9589;0.1507;
-41.1000;0.9581;0.1530;
-40.8000;0.9589;0.1600;
-40.5000;0.9589;0.1646;
-40.2000;0.9548;0.1530;
-39.9000;0.9548;0.1461;
-39.6000;0.9573;0.1414;
-39.3000;0.9573;0.1391;
-39.0000;0.9581;0.1391;
-38.7000;0.9565;0.1345;
-38.4000;0.9581;0.1322;
-38.1000;0.9573;0.1229;
-37.8000;0.9516;0.1090;
-37.5000;0.9581;0.1275;
-37.2000;0.9621;0.1437;
-36.9000;0.9573;0.1322;
-36.6000;0.9565;0.1229;
-36.3000;0.9573;0.1322;
-36.0000;0.9573;0.1368;
-35.7000;0.9573;0.1345;
-35.4000;0.9581;0.1391;
-35.1000;0.9556;0.1345;
-34.8000;0.9581;0.1461;
-34.5000;0.9573;0.1391;
-34.2000;0.9573;0.1414;
-33.9000;0.9581;0.1461;
-33.6000;0.9597;0.1530;
-33.3000;0.9573;0.1530;
-33.0000;0.9573;0.1530;
-32.7000;0.9589;0.1437;
-32.4000;0.9573;0.1437;
-32.1000;0.9597;0.1484;
-31.8000;0.9630;0.1577;
-31.5000;0.9573;0.1461;
-31.2000;0.9556;0.1437;
-30.9000;0.9589;0.1530;
-30.6000;0.9581;0.1530;
-30.3000;0.9556;0.1414;
-30.0000;0.9548;0.1275;
-29.7000;0.9573;0.1275;
-29.4000;0.9605;0.1391;
-29.1000;0.9581;0.1414;
-28.8000;0.9573;0.1414;
-28.5000;0.9573;0.1414;
-28.2000;0.9581;0.1391;
-27.9000;0.9573;0.1368;
-27.6000;0.9581;0.1414;
-27.3000;0.9581;0.1530;
-27.0000;0.9581;0.1553;
-26.7000;0.9597;0.1507;
-26.4000;0.9524;0.1298;
-26.1000;0.9573;0.1461;
-25.8000;0.9589;0.1391;
-25.5000;0.9597;0.1368;
-25.2000;0.9613;0.1414;
-24.9000;0.9573;0.1252;
-24.6000;0.9573;0.1229;
-24.3000;0.9581;0.1206;
-24.0000;0.9556;0.1136;
-23.7000;0.9573;0.1275;
-23.4000;0.9565;0.1275;
-23.1000;0.9573;0.1275;
-22.8000;0.9589;0.1368;
-22.5000;0.9532;0.1368;
-22.2000;0.9573;0.1461;
-21.9000;0.9548;0.1391;
-21.6000;0.9581;0.1484;
-21.3000;0.9581;0.1461;
-21.0000;0.9573;0.1461;
-20.7000;0.9573;0.1437;
-20.4000;0.9573;0.1461;
-20.1000;0.9581;0.1461;
-19.8000;0.9565;0.1414;
-19.5000;0.9581;0.1461;
-19.2000;0.9581;0.1391;
-18.9000;0.9605;0.1368;
-18.6000;0.9556;0.1298;
-18.3000;0.9565;0.1322;
-18.0000;0.9589;0.1437;
-17.7000;0.9565;0.1345;
-17.4000;0.9573;0.1414;
-17.1000;0.9573;0.1507;
-16.8000;0.9589;0.1530;
-16.5000;0.9573;0.1437;
-16.2000;0.9540;0.1252;
-15.9000;0.9573;0.1298;
-15.6000;0.9565;0.1275;
-15.3000;0.9573;0.1322;
-15.0000;0.9540;0.1229;
-14.7000;0.9573;0.1229;
-14.4000;0.9597;0.1298;
-14.1000;0.9581;0.1275;
-13.8000;0.9581;0.1298;
-13.5000;0.9573;0.1322;
-13.2000;0.9573;0.1322;
-12.9000;0.9573;0.1322;
-12.6000;0.9589;0.1368;
-12.3000;0.9573;0.1252;
-12.0000;0.9573;0.1206;
-11.7000;0.9589;0.1206;
-11.4000;0.9573;0.1206;
-11.1000;0.9532;0.1159;
-10.8000;0.9573;0.1252;
-10.5000;0.9565;0.1229;
-10.2000;0.9573;0.1159;
-9.9000;0.9581;0.1206;
-9.6000;0.9581;0.1229;
-9.3000;0.9565;0.1159;
-9.0000;0.9581;0.1252;
-8.7000;0.9556;0.1136;
-8.4000;0.9565;0.1113;
-8.1000;0.9573;0.1090;
-7.8000;0.9565;0.1159;
-7.5000;0.9589;0.1159;
-7.2000;0.9589;0.1136;
-6.9000;0.9573;0.1067;
-6.6000;0.9532;0.0997;
-6.3000;0.9605;0.1136;
-6.0000;0.9581;0.1113;
-5.7000;0.9573;0.1182;
-5.4000;0.9565;0.1298;
-5.1000;0.9540;0.1252;
-4.8000;0.9581;0.1391;
-4.5000;0.9565;0.1368;
-4.2000;0.9565;0.1345;
-3.9000;0.9556;0.1345;
-3.6000;0.9597;0.1391;
-3.3000;0.9573;0.1252;
-3.0000;0.9605;0.1298;
-2.7000;0.9565;0.1182;
-2.4000;0.9565;0.1275;
-2.1000;0.9597;0.1322;
-1.8000;0.9581;0.1275;
-1.5000;0.9646;0.1437;
-1.2000;0.9605;0.1298;
-0.9000;0.9613;0.1275;
-0.6000;0.9589;0.1252;
-0.3000;0.9597;0.1182;
0.0000;0.9597;0.1182;
0.3000;0.9744;0.1182;
0.6000;1.0069;0.1924;
0.9000;1.0256;0.2504;
1.2000;1.0435;0.2968;
1.5000;1.0598;0.3339;
1.8000;1.0720;0.3686;
2.1000;1.0786;0.3872;
2.4000;1.0867;0.4173;
2.7000;1.0932;0.4359;
3.0000;1.1005;0.4521;
3.3000;1.1030;0.4637;
3.6000;1.1079;0.4707;
3.9000;1.1119;0.4869;
4.2000;1.1144;0.4962;
4.5000;1.1225;0.5054;
4.8000;1.1193;0.4938;
5.1000;1.1217;0.4869;
5.4000;1.1249;0.4915;
5.7000;1.1266;0.4915;
6.0000;1.1282;0.4892;
6.3000;1.1323;0.5031;
6.6000;1.1306;0.5078;
6.9000;1.1355;0.5194;
7.2000;1.1404;0.5309;
7.5000;1.1388;0.5286;
7.8000;1.1420;0.5286;
8.1000;1.1429;0.5286;
8.4000;1.1461;0.5240;
8.7000;1.1477;0.5286;
9.0000;1.1510;0.5356;
9.3000;1.1526;0.5309;
9.6000;1.1518;0.5309;
9.9000;1.1543;0.5309;
10.2000;1.1567;0.5309;
10.5000;1.1575;0.5240;
10.8000;1.1583;0.5147;
11.1000;1.1608;0.5124;
11.4000;1.1616;0.5124;
11.7000;1.1632;0.5147;
12.0000;1.1632;0.5240;
12.3000;1.1616;0.5147;
12.6000;1.1640;0.5147;
12.9000;1.1673;0.5147;
13.2000;1.1697;0.5147;
13.5000;1.1705;0.5124;
13.8000;1.1722;0.5263;
14.1000;1.1713;0.5263;
14.4000;1.1689;0.5147;
14.7000;1.1746;0.5333;
15.0000;1.1738;0.5263;
15.3000;1.1738;0.5263;
15.6000;1.1787;0.5402;
15.9000;1.1779;0.5379;
16.2000;1.1762;0.5194;
16.5000;1.1779;0.5263;
16.8000;1.1779;0.5263;
17.1000;1.1779;0.5217;
17.4000;1.1827;0.5217;
17.7000;1.1819;0.5101;
18.0000;1.1811;0.5031;
18.3000;1.1827;0.5031;
18.6000;1.1836;0.5124;
18.9000;1.1827;0.5170;
19.2000;1.1844;0.5217;
19.5000;1.1852;0.5333;
19.8000;1.1844;0.5333;
20.1000;1.1860;0.5333;
20.4000;1.1860;0.5286;
20.7000;1.1876;0.5333;
21.0000;1.1893;0.5356;
21.3000;1.1876;0.5356;
21.6000;1.1860;0.5309;
21.9000;1.1868;0.5356;
22.2000;1.1909;0.5402;
22.5000;1.1941;0.5449;
22.8000;1.1893;0.5309;
23.1000;1.1925;0.5309;
23.4000;1.1925;0.5286;
23.7000;1.1982;0.5425;
24.0000;1.1876;0.5309;
24.3000;1.1925;0.5425;
24.6000;1.1925;0.5379;
24.9000;1.1958;0.5472;
25.2000;1.1941;0.5356;
25.5000;1.1941;0.5333;
25.8000;1.1990;0.5379;
26.1000;1.1958;0.5309;
26.4000;1.1941;0.5240;
26.7000;1.1925;0.5194;
27.0000;1.1941;0.5217;
27.3000;1.1950;0.5217;
27.6000;1.1909;0.5147;
27.9000;1.1933;0.5263;
28.2000;1.1950;0.5194;
28.5000;1.1958;0.5240;
28.8000;1.1950;0.5217;
29.1000;1.1925;0.5217;
29.4000;1.1950;0.5217;
29.7000;1.1958;0.5217;
30.0000;1.1974;0.5263;
30.3000;1.1966;0.5333;
30.6000;1.1941;0.5263;
30.9000;1.1966;0.5309;
31.2000;1.1998;0.5333;
31.5000;1.1982;0.5286;
31.8000;1.1998;0.5309;
32.1000;1.1990;0.5309;
32.4000;1.1958;0.5309;
32.7000;1.1917;0.5170;
33.0000;1.2007;0.5402;
33.3000;1.1990;0.5402;
33.6000;1.2007;0.5356;
33.9000;1.2007;0.5309;
34.2000;1.1990;0.5286;
34.5000;1.2015;0.5309;
34.8000;1.1998;0.5194;
35.1000;1.1958;0.5078;
35.4000;1.1998;0.5124;
35.7000;1.1998;0.5217;
36.0000;1.2007;0.5147;
36.3000;1.2023;0.5170;
36.6000;1.2023;0.5078;
36.9000;1.2007;0.5101;
37.2000;1.2080;0.5309;
37.5000;1.2031;0.5263;
37.8000;1.2023;0.5170;
38.1000;1.1998;0.5147;
38.4000;1.1990;0.5101;
38.7000;1.2023;0.5101;
39.0000;1.2015;0.5170;
39.3000;1.2153;0.5425;
39.6000;1.1998;0.5078;
39.9000;1.2023;0.5101;
40.2000;1.2007;0.5054;
40.5000;1.2039;0.5101;
40.8000;1.2015;0.5124;
41.1000;1.2023;0.5217;
41.4000;1.2047;0.5217;
41.7000;1.2047;0.5194;
42.0000;1.2039;0.5194;
42.3000;1.2031;0.5054;
42.6000;1.2047;0.5101;
42.9000;1.2047;0.5054;
43.2000;1.2039;0.5078;
43.5000;1.2047;0.5170;
43.8000;1.2047;0.5124;
44.1000;1.2063;0.5194;
44.4000;1.2047;0.5170;
44.7000;1.2047;0.5170;
45.0000;1.2031;0.5170;
45.3000;1.2096;0.5286;
45.6000;1.2047;0.5194;
45.9000;1.2039;0.5240;
46.2000;1.2039;0.5217;
46.5000;1.2063;0.5217;
46.8000;1.2063;0.5217;
47.1000;1.2047;0.5217;
47.4000;1.2072;0.5263;
47.7000;1.2047;0.5217;
48.0000;1.2023;0.5170;
48.3000;1.2047;0.5194;
48.6000;1.2031;0.5194;
48.9000;1.2039;0.5124;
49.2000;1.2063;0.5101;
49.5000;1.2063;0.5124;
49.8000;1.2031;0.5101;
50.1000;1.2072;0.5217;
50.4000;1.2047;0.5147;
50.7000;1.2063;0.5170;
51.0000;1.2055;0.5217;
51.3000;1.2063;0.5194;
51.6000;1.2055;0.5170;
51.9000;1.2072;0.5194;
52.2000;1.2063;0.5240;
52.5000;1.2031;0.5194;
52.8000;1.2104;0.5402;
53.1000;1.2063;0.5333;
53.4000;1.2096;0.5356;
53.7000;1.2055;0.5217;
54.0000;1.2055;0.5263;
54.3000;1.2072;0.5379;
54.6000;1.2047;0.5333;
54.9000;1.2039;0.5356;
55.2000;1.2055;0.5402;
55.5000;1.2112;0.5564;
55.8000;1.2137;0.5611;
56.1000;1.2047;0.5402;
56.4000;1.2055;0.5309;
56.7000;1.2072;0.5333;
57.0000;1.2080;0.5449;
57.3000;1.2063;0.5379;
57.6000;1.2039;0.5309;
57.9000;1.2063;0.5286;
58.2000;1.2080;0.5356;
58.5000;1.2055;0.5263;
58.8000;1.2055;0.5194;
59.1000;1.2039;0.5170;
59.4000;1.2055;0.5194;
59.7000;1.2039;0.5217;
60.0000;1.2047;0.5194;
60.3000;1.2047;0.5217;
60.6000;1.2055;0.5240;
60.9000;1.2063;0.5240;
61.2000;1.2047;0.5147;
61.5000;1.2072;0.5147;
61.8000;1.2072;0.5194;
62.1000;1.2080;0.5170;
62.4000;1.2047;0.5101;
62.7000;1.2072;0.5263;
63.0000;1.2047;0.5170;
63.3000;1.2063;0.5170;
63.6000;1.2080;0.5217;
63.9000;1.2063;0.5240;
64.2000;1.2055;0.5194;
64.5000;1.2063;0.5170;
64.8000;1.2072;0.5170;
65.1000;1.2063;0.5147;
65.4000;1.2063;0.5170;
65.7000;1.2080;0.5240;
66.0000;1.2088;0.5263;
66.3000;1.2072;0.5170;
66.6000;1.2072;0.5054;
66.9000;1.2096;0.5101;
67.2000;1.2080;0.5008;
67.5000;1.2096;0.4938;
67.8000;1.2080;0.4869;
68.1000;1.2088;0.4892;
68.4000;1.2080;0.4915;
68.7000;1.2080;0.4962;
69.0000;1.2104;0.5078;
69.3000;1.2063;0.4962;
69.6000;1.2072;0.5008;
69.9000;1.2153;0.5170;
70.2000;1.2063;0.4985;
70.5000;1.1990;0.4892;
70.8000;1.2072;0.5124;
71.1000;1.2063;0.5078;
71.4000;1.2145;0.5240;
71.7000;1.2072;0.5031;
72.0000;1.2063;0.4892;
72.3000;1.2112;0.4938;
72.6000;1.2088;0.5008;
72.9000;1.2063;0.4985;
73.2000;1.2088;0.5078;
73.5000;1.2080;0.5194;
73.8000;1.2080;0.5333;
74.1000;1.2072;0.5286;
74.4000;1.2047;0.5217;
74.7000;1.2088;0.5286;
75.0000;1.2088;0.5240;
75.3000;1.2080;0.5217;
75.6000;1.2055;0.5194;
75.9000;1.2088;0.5194;
76.2000;1.2063;0.5217;
76.5000;1.2055;0.5286;
76.8000;1.2072;0.5309;
77.1000;1.2063;0.5356;
77.4000;1.2072;0.5379;
77.7000;1.2072;0.5333;
78.0000;1.2072;0.5333;
78.3000;1.2080;0.5309;
78.6000;1.2072;0.5309;
78.9000;1.2072;0.5240;
79.2000;1.2072;0.5194;
79.5000;1.2063;0.5217;
79.8000;1.2072;0.5263;
80.1000;1.2047;0.5194;
80.4000;1.2055;0.5240;
80.7000;1.2063;0.5217;
81.0000;1.2063;0.5194;
81.3000;1.2063;0.5240;
81.6000;1.2072;0.5286;
81.9000;1.2063;0.5217;
82.2000;1.2072;0.5286;
82.5000;1.2072;0.5194;
82.8000;1.2088;0.5217;
83.1000;1.2063;0.5170;
83.4000;1.2063;0.5170;
83.7000;1.2072;0.5333;
84.0000;1.2080;0.5356;
84.3000;1.2072;0.5263;
84.6000;1.2055;0.5217;
84.9000;1.2072;0.5217;
85.2000;1.2120;0.5379;
85.5000;1.2080;0.5286;
85.8000;1.2080;0.5217;
86.1000;1.2088;0.5263;
86.4000;1.2072;0.5240;
86.7000;1.2088;0.5333;
87.0000;1.2063;0.5240;
87.3000;1.2063;0.5333;
87.6000;1.2088;0.5402;
87.9000;1.2080;0.5286;
88.2000;1.2055;0.5309;
88.5000;1.2072;0.5286;
88.8000;1.2072;0.5309;
89.1000;1.2063;0.5333;
89.4000;1.2063;0.5286;
89.7000;1.2063;0.5263;
90.0000;1.2072;0.5286;
90.3000;1.2063;0.5263;
90.6000;1.2080;0.5194;
90.9000;1.2080;0.5194;
91.2000;1.2072;0.5124;
91.5000;1.2112;0.5240;
91.8000;1.2072;0.5217;
92.1000;1.2063;0.5170;
92.4000;1.2063;0.5124;
92.7000;1.2096;0.5194;
93.0000;1.2080;0.5170;
93.3000;1.2088;0.5101;
93.6000;1.2023;0.5054;
93.9000;1.2088;0.5170;
94.2000;1.2112;0.5240;
94.5000;1.2145;0.5286;
94.8000;1.2007;0.4938;
95.1000;1.2080;0.5078;
95.4000;1.2080;0.5124;
95.7000;1.2088;0.5124;
96.0000;1.2015;0.4962;
96.3000;1.2055;0.5078;
96.6000;1.2120;0.5217;
96.9000;1.2023;0.4892;
97.2000;1.2055;0.5008;
97.5000;1.2055;0.5101;
97.8000;1.2063;0.5101;
98.1000;1.2072;0.5170;
98.4000;1.2063;0.5078;
98.7000;1.2072;0.5101;
99.0000;1.2072;0.5217;
99.3000;1.2096;0.5263;
99.6000;1.2072;0.5217;
99.9000;1.2063;0.5101;
100.2000;1.2072;0.5124;
100.5000;1.2072;0.5217;
100.8000;1.2072;0.5263;
101.1000;1.2072;0.5263;
101.4000;1.2063;0.5263;
101.7000;1.2088;0.5263;
102.0000;1.2080;0.5194;
102.3000;1.2063;0.5147;
102.6000;1.2055;0.5078;
102.9000;1.2063;0.5147;
103.2000;1.2055;0.5194;
103.5000;1.2080;0.5194;
103.8000;1.2072;0.5147;
104.1000;1.2072;0.5078;
104.4000;1.2072;0.5078;
104.7000;1.2072;0.5078;
105.0000;1.2104;0.5194;
105.3000;1.2088;0.5147;
105.6000;1.2072;0.5170;
105.9000;1.2072;0.5147;
106.2000;1.2080;0.5124;
106.5000;1.2072;0.5101;
106.8000;1.2055;0.5054;
107.1000;1.2153;0.5309;
107.4000;1.2080;0.5078;
107.7000;1.2080;0.5008;
108.0000;1.2080;0.5078;
108.3000;1.2063;0.5008;
108.6000;1.2080;0.5078;
108.9000;1.2055;0.4985;
109.2000;1.2153;0.5240;
109.5000;1.2072;0.5031;
109.8000;1.2096;0.5078;
110.1000;1.2072;0.5054;
110.4000;1.2063;0.5031;
110.7000;1.2088;0.5124;
111.0000;1.2088;0.5170;
111.3000;1.2063;0.5078;
111.6000;1.2063;0.5054;
111.9000;1.2088;0.5124;
112.2000;1.2047;0.5078;
112.5000;1.2063;0.5147;
112.8000;1.2080;0.5170;
113.1000;1.2088;0.5147;
113.4000;1.2063;0.5054;
113.7000;1.2063;0.5101;
114.0000;1.2072;0.5147;
114.3000;1.2072;0.5078;
114.6000;1.2120;0.5217;
114.9000;1.2080;0.5194;
115.2000;1.2080;0.5217;
115.5000;1.2072;0.5170;
115.8000;1.2080;0.5263;
116.1000;1.2063;0.5101;
116.4000;1.2055;0.5031;
116.7000;1.2047;0.5054;
117.0000;1.2055;0.5054;
117.3000;1.2072;0.5054;
117.6000;1.2055;0.5031;
117.9000;1.2031;0.4985;
118.2000;1.2055;0.5101;
118.5000;1.2031;0.5078;
118.8000;1.2055;0.5124;
119.1000;1.2063;0.5194;
119.4000;1.2055;0.5240;
119.7000;1.2063;0.5240;
120.0000;1.2104;0.5402;
120.3000;1.2063;0.5379;
120.6000;1.2080;0.5449;
120.9000;1.2080;0.5495;
121.2000;1.2096;0.5495;
121.5000;1.2072;0.5425;
121.8000;1.2063;0.5449;
122.1000;1.2039;0.5356;
122.4000;1.2072;0.5449;
122.7000;1.2055;0.5425;
123.0000;1.2063;0.5402;
123.3000;1.2072;0.5379;
123.6000;1.2088;0.5449;
123.9000;1.2055;0.5472;
124.2000;1.2039;0.5449;
124.5000;1.2080;0.5495;
124.8000;1.2080;0.5449;
125.1000;1.2088;0.5495;
125.4000;1.2080;0.5356;
125.7000;1.2072;0.5286;
126.0000;1.2047;0.5217;
126.3000;1.2063;0.5240;
126.6000;1.2063;0.5240;
126.9000;1.2063;0.5217;
127.2000;1.2080;0.5240;
127.5000;1.2063;0.5101;
127.8000;1.2063;0.5194;
128.1000;1.2063;0.5217;
128.4000;1.1990;0.5101;
128.7000;1.2145;0.5495;
129.0000;1.2088;0.5309;
129.3000;1.2063;0.5333;
129.6000;1.2063;0.5333;
129.9000;1.2055;0.5379;
130.2000;1.2104;0.5449;
130.5000;1.2080;0.5309;
130.8000;1.2080;0.5263;
131.1000;1.2072;0.5263;
131.4000;1.2047;0.5263;
131.7000;1.2072;0.5286;
132.0000;1.2072;0.5263;
132.3000;1.2137;0.5425;
132.6000;1.2072;0.5379;
132.9000;1.2080;0.5402;
133.2000;1.2039;0.5286;
133.5000;1.2072;0.5333;
133.8000;1.2072;0.5263;
134.1000;1.2080;0.5286;
134.4000;1.2080;0.5333;
134.7000;1.2063;0.5379;
135.0000;1.2072;0.5402;
135.3000;1.2080;0.5402;
135.6000;1.2072;0.5425;
135.9000;1.2055;0.5379;
136.2000;1.2039;0.5333;
136.5000;1.2063;0.5333;
136.8000;1.2063;0.5356;
137.1000;1.2080;0.5379;
137.4000;1.2072;0.5356;
137.7000;1.2063;0.5402;
138.0000;1.2063;0.5356;
138.3000;1.2104;0.5425;
138.6000;1.2063;0.5333;
138.9000;1.2080;0.5286;
139.2000;1.2063;0.5147;
139.5000;1.2055;0.5170;
139.8000;1.2047;0.5124;
140.1000;1.2080;0.5263;
140.4000;1.2063;0.5217;
140.7000;1.2072;0.5240;
141.0000;1.2072;0.5217;
141.3000;1.2072;0.5217;
141.6000;1.2047;0.5124;
141.9000;1.2055;0.5147;
142.2000;1.2063;0.5124;
142.5000;1.2007;0.4938;
142.8000;1.2072;0.5101;
143.1000;1.2072;0.5124;
143.4000;1.2063;0.4985;
143.7000;1.2039;0.5031;
144.0000;1.2088;0.5194;
144.3000;1.2080;0.5170;
144.6000;1.2055;0.5054;
144.9000;1.2080;0.5124;
145.2000;1.2063;0.4985;
145.5000;1.2088;0.5101;
145.8000;1.2072;0.5170;
146.1000;1.2063;0.5194;
146.4000;1.2120;0.5356;
146.7000;1.2039;0.5217;
147.0000;1.2063;0.5170;
147.3000;1.2063;0.5217;
147.6000;1.2039;0.5124;
147.9000;1.2055;0.5101;
148.2000;1.2055;0.5078;
148.5000;1.2047;0.5124;
148.8000;1.2055;0.5170;
149.1000;1.2055;0.5170;
149.4000;1.2153;0.5309;
149.7000;1.2063;0.5078;
150.0000;1.2047;0.5008;
150.3000;1.2063;0.4985;
150.6000;1.2088;0.4985;
150.9000;1.2072;0.4962;
151.2000;1.2063;0.4938;
151.5000;1.2080;0.4938;
151.8000;1.2104;0.5078;
152.1000;1.2080;0.5008;
152.4000;1.2031;0.4892;
152.7000;1.2055;0.4985;
153.0000;1.2072;0.5054;
153.3000;1.2080;0.5147;
153.6000;1.2063;0.5078;
153.9000;1.2072;0.5101;
154.2000;1.2088;0.5217;
154.5000;1.2080;0.5286;
154.8000;1.2080;0.5217;
155.1000;1.2055;0.5240;
155.4000;1.2047;0.5194;
155.7000;1.2047;0.5240;
156.0000;1.2055;0.5240;
156.3000;1.2055;0.5286;
156.6000;1.2063;0.5263;
156.9000;1.2063;0.5217;
157.2000;1.2088;0.5194;
157.5000;1.2072;0.5124;
157.8000;1.2063;0.5054;
158.1000;1.2072;0.4985;
158.4000;1.2063;0.4938;
158.7000;1.2088;0.4985;
159.0000;1.2039;0.4869;
159.3000;1.2080;0.4938;
159.6000;1.2080;0.4985;
159.9000;1.2080;0.4938;
160.2000;1.2063;0.5008;
160.5000;1.2072;0.5124;
160.8000;1.2080;0.5263;
161.1000;1.1966;0.5078;
161.4000;1.2055;0.5194;
161.7000;1.2055;0.5263;
162.0000;1.2072;0.5217;
162.3000;1.2104;0.5194;
162.6000;1.2080;0.5054;
162.9000;1.2063;0.5031;
163.2000;1.2063;0.5078;
163.5000;1.2072;0.5124;
163.8000;1.2072;0.5054;
164.1000;1.2080;0.5124;
164.4000;1.2063;0.5101;
164.7000;1.2055;0.5124;
165.0000;1.2055;0.5054;
165.3000;1.2096;0.5147;
165.6000;1.2072;0.5101;
165.9000;1.2055;0.5054;
166.2000;1.2072;0.5078;
166.5000;1.2063;0.5170;
166.8000;1.2120;0.5263;
167.1000;1.2063;0.5147;
167.4000;1.2080;0.5217;
167.7000;1.2063;0.5217;
168.0000;1.2055;0.5217;
168.3000;1.2055;0.5217;
168.6000;1.2072;0.5217;
168.9000;1.2039;0.5078;
169.2000;1.2072;0.5078;
169.5000;1.2055;0.5101;
169.8000;1.2063;0.5008;
170.1000;1.2080;0.5054;
170.4000;1.2104;0.5054;
170.7000;1.2047;0.4962;
171.0000;1.2031;0.5008;
171.3000;1.2063;0.5124;
171.6000;1.2063;0.5147;
171.9000;1.2072;0.5124;
172.2000;1.2047;0.5124;
172.5000;1.2080;0.5170;
172.8000;1.2063;0.5147;
173.1000;1.2047;0.4962;
173.4000;1.2129;0.5147;
173.7000;1.2088;0.5078;
174.0000;1.2047;0.5031;
174.3000;1.2080;0.5054;
174.6000;1.2072;0.4985;
174.9000;1.2112;0.5054;
175.2000;1.2063;0.5078;
175.5000;1.2072;0.5078;
175.8000;1.2080;0.5147;
176.1000;1.2072;0.5217;
176.4000;1.2072;0.5217;
176.7000;1.2055;0.5217;
177.0000;1.2063;0.5194;
177.3000;1.2055;0.5124;
177.6000;1.2055;0.5194;
177.9000;1.2080;0.5263;
178.2000;1.2055;0.5263;
178.5000;1.2063;0.5217;
178.8000;1.2072;0.5147;
179.1000;1.2072;0.5217;
179.4000;1.2047;0.5240;
179.7000;1.2072;0.5333;
180.0000;1.2039;0.5240;
180.3000;1.2080;0.5240;
180.6000;1.2055;0.5263;
180.9000;1.2063;0.5309;
181.2000;1.2072;0.5263;
181.5000;1.2063;0.5240;
181.8000;1.2063;0.5263;
182.1000;1.2055;0.5263;
182.4000;1.2063;0.5286;
182.7000;1.2063;0.5309;
183.0000;1.2072;0.5263;
183.3000;1.2055;0.5263;
183.6000;1.2055;0.5286;
183.9000;1.2063;0.5240;
184.2000;1.2047;0.5194;
184.5000;1.2080;0.5240;
184.8000;1.2072;0.5356;
185.1000;1.2063;0.5286;
185.4000;1.2055;0.5240;
185.7000;1.2063;0.5170;
186.0000;1.2063;0.5147;
186.3000;1.2055;0.5194;
186.6000;1.2104;0.5356;
186.9000;1.2055;0.5240;
187.2000;1.2080;0.5217;
187.5000;1.2080;0.5263;
187.8000;1.2088;0.5170;
188.1000;1.2088;0.5147;
188.4000;1.2072;0.5194;
188.7000;1.2047;0.5101;
189.0000;1.2088;0.5217;
189.3000;1.2072;0.5217;
189.6000;1.2055;0.5170;
189.9000;1.1966;0.4938;
190.2000;1.2047;0.5170;
190.5000;1.2072;0.5170;
190.8000;1.2072;0.5170;
191.1000;1.2063;0.5170;
191.4000;1.2072;0.5217;
191.7000;1.2080;0.5240;
192.0000;1.2055;0.5217;
192.3000;1.2031;0.5170;
192.6000;1.2023;0.5054;
192.9000;1.2055;0.5147;
193.2000;1.2047;0.5147;
193.5000;1.2047;0.5124;
193.8000;1.2063;0.5101;
194.1000;1.2055;0.5194;
194.4000;1.2072;0.5240;
194.7000;1.2047;0.5217;
195.0000;1.2055;0.5147;
195.3000;1.2047;0.5124;
195.6000;1.2096;0.5194;
195.9000;1.2072;0.5078;
196.2000;1.2072;0.5054;
196.5000;1.2072;0.5124;
196.8000;1.2063;0.5124;
197.1000;1.2055;0.5078;
197.4000;1.2047;0.5054;
197.7000;1.2055;0.5124;
198.0000;1.2047;0.5124;
198.3000;1.2072;0.5240;
198.6000;1.2063;0.5217;
198.9000;1.2080;0.5170;
199.2000;1.2047;0.5101;
199.5000;1.2055;0.5147;
199.8000;1.2063;0.5078;
200.1000;1.2039;0.5054;
200.4000;1.2063;0.5194;
200.7000;1.2047;0.5101;
201.0000;1.2072;0.5101;
201.3000;1.2055;0.5124;
201.6000;1.2063;0.5101;
201.9000;1.2063;0.5147;
202.2000;1.2007;0.5008;
202.5000;1.2055;0.5078;
202.8000;1.1982;0.4985;
203.1000;1.2055;0.5240;
203.4000;1.2007;0.5101;
203.7000;1.2055;0.5170;
204.0000;1.2039;0.5008;
204.3000;1.2015;0.4962;
204.6000;1.2072;0.5124;
204.9000;1.2072;0.5170;
205.2000;1.2039;0.5124;
205.5000;1.2031;0.5101;
205.8000;1.2047;0.5078;
206.1000;1.2055;0.5008;
206.4000;1.2063;0.4985;
206.7000;1.2072;0.5054;
207.0000;1.2080;0.5078;
207.3000;1.2072;0.5054;
207.6000;1.2047;0.5031;
207.9000;1.2047;0.5078;
208.2000;1.2047;0.5031;
208.5000;1.2047;0.5078;
208.8000;1.2063;0.5124;
209.1000;1.2047;0.5124;
209.4000;1.2039;0.4985;
209.7000;1.2047;0.4985;
210.0000;1.2088;0.5101;
210.3000;1.2080;0.5147;
210.6000;1.2063;0.5147;
210.9000;1.2072;0.5170;
211.2000;1.2072;0.5124;
211.5000;1.2063;0.5147;
211.8000;1.2104;0.5194;
212.1000;1.2055;0.5101;
212.4000;1.2080;0.5124;
212.7000;1.2080;0.5078;
213.0000;1.2063;0.5008;
213.3000;1.2063;0.5031;
213.6000;1.2047;0.5101;
213.9000;1.2112;0.5263;
214.2000;1.2047;0.5124;
214.5000;1.2047;0.5078;
214.8000;1.2088;0.5170;
215.1000;1.2063;0.5101;
215.4000;1.2039;0.5031;
215.7000;1.2047;0.5054;
216.0000;1.2039;0.5101;
216.3000;1.2055;0.5078;
216.6000;1.2039;0.5101;
216.9000;1.2047;0.5124;
217.2000;1.2047;0.5147;
217.5000;1.2055;0.5124;
217.8000;1.2055;0.5147;
218.1000;1.2047;0.5101;
218.4000;1.2023;0.5124;
218.7000;1.2063;0.5240;
219.0000;1.2072;0.5240;
219.3000;1.2055;0.5147;
219.6000;1.2112;0.5286;
219.9000;1.2063;0.5101;
220.2000;1.2055;0.5078;
220.5000;1.2031;0.5101;
220.8000;1.2047;0.5170;
221.1000;1.2055;0.5240;
221.4000;1.2072;0.5240;
221.7000;1.2063;0.5194;
222.0000;1.2055;0.5194;
222.3000;1.2080;0.5309;
222.6000;1.2055;0.5194;
222.9000;1.2063;0.5333;
223.2000;1.2072;0.5263;
223.5000;1.2047;0.5333;
223.8000;1.2063;0.5286;
224.1000;1.2047;0.5194;
224.4000;1.2055;0.5286;
224.7000;1.2055;0.5217;
225.0000;1.2072;0.5217;
225.3000;1.2129;0.5333;
225.6000;1.2055;0.5333;
225.9000;1.2047;0.5356;
226.2000;1.2047;0.5356;
226.5000;1.2055;0.5356;
226.8000;1.2055;0.5425;
227.1000;1.2047;0.5449;
227.4000;1.2088;0.5449;
227.7000;1.2063;0.5356;
228.0000;1.2047;0.5263;
228.3000;1.2047;0.5286;
228.6000;1.2055;0.5263;
228.9000;1.2047;0.5240;
229.2000;1.2055;0.5263;
229.5000;1.2023;0.5217;
229.8000;1.2039;0.5240;
230.1000;1.2031;0.5194;
230.4000;1.2039;0.5194;
230.7000;1.2055;0.5263;
231.0000;1.2047;0.5217;
231.3000;1.2063;0.5194;
231.6000;1.2104;0.5333;
231.9000;1.2047;0.5194;
232.2000;1.2055;0.5124;
232.5000;1.2063;0.5147;
232.8000;1.2072;0.5147;
233.1000;1.2072;0.5194;
233.4000;1.2047;0.5054;
233.7000;1.2015;0.4985;
234.0000;1.2055;0.5170;
234.3000;1.2007;0.5078;
234.6000;1.2055;0.5217;
234.9000;1.2031;0.5286;
235.2000;1.2047;0.5333;
235.5000;1.1982;0.5240;
235.8000;1.2047;0.5309;
236.1000;1.2047;0.5240;
236.4000;1.2055;0.5240;
236.7000;1.2104;0.5356;
237.0000;1.2063;0.5309;
237.3000;1.2047;0.5101;
237.6000;1.2055;0.5101;
237.9000;1.2063;0.5054;
238.2000;1.2055;0.5078;
238.5000;1.2039;0.5101;
238.8000;1.2031;0.5031;
239.1000;1.2063;0.5170;
239.4000;1.2072;0.5194;
239.7000;1.2072;0.5217;
240.0000;1.1998;0.5078;
240.3000;1.2063;0.5217;
240.6000;1.2007;0.5170;
240.9000;1.2047;0.5170;
241.2000;1.2055;0.5194;
241.5000;1.2063;0.5194;
241.8000;1.2055;0.5147;
242.1000;1.2055;0.5101;
242.4000;1.2063;0.5147;
242.7000;1.2047;0.5124;
243.0000;1.2055;0.5240;
243.3000;1.2047;0.5240;
243.6000;1.2039;0.5217;
243.9000;1.2039;0.5194;
244.2000;1.2063;0.5217;
244.5000;1.2055;0.5240;
244.8000;1.2039;0.5170;
245.1000;1.2047;0.5101;
245.4000;1.2055;0.5147;
245.7000;1.2063;0.5170;
246.0000;1.2063;0.5147;
246.3000;1.2039;0.5054;
246.6000;1.2047;0.5101;
246.9000;1.2063;0.5078;
247.2000;1.2063;0.5101;
247.5000;1.2047;0.5101;
247.8000;1.2031;0.5054;
248.1000;1.2047;0.5170;
248.4000;1.2063;0.5217;
248.7000;1.2047;0.5147;
249.0000;1.2047;0.5170;
249.3000;1.2039;0.5147;
249.6000;1.2047;0.5194;
249.9000;1.2072;0.5240;
250.2000;1.2047;0.5170;
250.5000;1.2047;0.5240;
250.8000;1.2047;0.5356;
251.1000;1.2039;0.5379;
251.4000;1.2055;0.5379;
251.7000;1.2023;0.5309;
252.0000;1.2063;0.5333;
252.3000;1.1982;0.5124;
252.6000;1.2063;0.5333;
252.9000;1.2047;0.5286;
253.2000;1.2055;0.5263;
253.5000;1.2055;0.5263;
253.8000;1.2031;0.5263;
254.1000;1.2047;0.5309;
254.4000;1.2055;0.5194;
254.7000;1.2047;0.5194;
255.0000;1.2063;0.5263;
255.3000;1.2047;0.5194;
255.6000;1.2039;0.5240;
255.9000;1.2088;0.5356;
256.2000;1.2047;0.5333;
256.5000;1.2055;0.5286;
256.8000;1.2039;0.5240;
257.1000;1.2007;0.5101;
257.4000;1.2055;0.5194;
257.7000;1.2039;0.5078;
258.0000;1.2039;0.5031;
258.3000;1.2055;0.5054;
258.6000;1.1998;0.4985;
258.9000;1.2072;0.5170;
259.2000;1.2055;0.5194;
259.5000;1.2047;0.5217;
259.8000;1.2055;0.5194;
260.1000;1.2055;0.5263;
260.4000;1.2007;0.5170;
260.7000;1.2031;0.5170;
261.0000;1.2080;0.5240;
261.3000;1.2047;0.5263;
261.6000;1.2055;0.5217;
261.9000;1.2039;0.5240;
262.2000;1.1998;0.5124;
262.5000;1.2039;0.5194;
262.8000;1.2023;0.5194;
263.1000;1.2015;0.5124;
263.4000;1.2039;0.5217;
263.7000;1.2047;0.5240;
264.0000;1.2039;0.5194;
264.3000;1.2039;0.5124;
264.6000;1.2039;0.5170;
264.9000;1.2039;0.5147;
265.2000;1.2080;0.5240;
265.5000;1.2055;0.5217;
265.8000;1.1998;0.5147;
266.1000;1.2039;0.5147;
266.4000;1.2055;0.5124;
266.7000;1.2031;0.5147;
267.0000;1.2039;0.5217;
267.3000;1.2047;0.5194;
267.6000;1.2055;0.5263;
267.9000;1.2055;0.5170;
268.2000;1.2055;0.5101;
268.5000;1.2055;0.5124;
268.8000;1.2072;0.5124;
269.1000;1.2047;0.5054;
269.4000;1.2055;0.5101;
269.7000;1.2047;0.5217;
270.0000;1.2080;0.5333;
270.3000;1.2047;0.5402;
270.6000;1.2039;0.5286;
270.9000;1.2031;0.5263;
271.2000;1.2039;0.5217;
271.5000;1.2023;0.5170;
271.8000;1.2023;0.5147;
272.1000;1.2039;0.5124;
272.4000;1.2023;0.5078;
272.7000;1.2055;0.5054;
273.0000;1.2063;0.5078;
273.3000;1.2039;0.5078;
273.6000;1.2015;0.5031;
273.9000;1.2047;0.5170;
274.2000;1.2039;0.5170;
274.5000;1.2039;0.5217;
274.8000;1.2039;0.5217;
275.1000;1.2129;0.5449;
275.4000;1.2047;0.5194;
275.7000;1.2039;0.5078;
276.0000;1.2031;0.5054;
276.3000;1.2023;0.5008;
276.6000;1.2023;0.4938;
276.9000;1.2047;0.4962;
277.2000;1.2055;0.5054;
277.5000;1.2039;0.4938;
277.8000;1.2039;0.4915;
278.1000;1.2031;0.4938;
278.4000;1.2031;0.4985;
278.7000;1.2047;0.4915;
279.0000;1.2031;0.4869;
279.3000;1.2047;0.4915;
279.6000;1.2039;0.4823;
279.9000;1.2072;0.4915;
280.2000;1.2047;0.4869;
280.5000;1.2023;0.4799;
280.8000;1.2039;0.4915;
281.1000;1.2039;0.4892;
281.4000;1.1990;0.4869;
281.7000;1.2104;0.5194;
282.0000;1.2031;0.5054;
282.3000;1.2023;0.5054;
282.6000;1.2031;0.5147;
282.9000;1.1998;0.5078;
283.2000;1.2031;0.5147;
283.5000;1.2023;0.5101;
283.8000;1.2015;0.5101;
284.1000;1.2031;0.5031;
284.4000;1.1982;0.5008;
284.7000;1.2047;0.5240;
285.0000;1.2047;0.5309;
285.3000;1.2047;0.5217;
285.6000;1.2047;0.5194;
285.9000;1.2047;0.5217;
286.2000;1.2039;0.5217;
286.5000;1.2055;0.5217;
286.8000;1.2104;0.5263;
287.1000;1.2055;0.5147;
287.4000;1.2047;0.5170;
287.7000;1.2031;0.5078;
288.0000;1.1990;0.5008;
288.3000;1.2039;0.5124;
288.6000;1.2039;0.5101;
288.9000;1.2055;0.5147;
289.2000;1.2047;0.5170;
289.5000;1.2047;0.5170;
289.8000;1.2047;0.5194;
290.1000;1.2039;0.5170;
290.4000;1.2039;0.5147;
290.7000;1.2063;0.5147;
291.0000;1.2039;0.5101;
291.3000;1.2047;0.5054;
291.6000;1.2055;0.5054;
291.9000;1.2015;0.4915;
292.2000;1.2063;0.5031;
292.5000;1.2039;0.4938;
292.8000;1.2031;0.4962;
293.1000;1.2023;0.4985;
293.4000;1.2039;0.4985;
293.7000;1.2023;0.4962;
294.0000;1.2039;0.4962;
294.3000;1.2088;0.5101;
294.6000;1.2015;0.4985;
294.9000;1.2039;0.5008;
295.2000;1.1998;0.4915;
295.5000;1.2023;0.5031;
295.8000;1.2047;0.5124;
296.1000;1.2047;0.5101;
296.4000;1.2039;0.5078;
296.7000;1.2039;0.5240;
297.0000;1.2039;0.5217;
297.3000;1.2063;0.5170;
297.6000;1.2031;0.5078;
297.9000;1.2039;0.5031;
298.2000;1.2015;0.4985;
298.5000;1.2088;0.5147;
298.8000;1.2039;0.5031;
299.1000;1.2031;0.4985;
299.4000;1.2047;0.5008;
299.7000;1.2047;0.4985;
300.0000;1.2063;0.5147;
300.3000;1.2023;0.5031;
300.6000;1.2039;0.5124;
300.9000;1.2088;0.5217;
301.2000;1.2072;0.5217;
301.5000;1.2039;0.5263;
301.8000;1.2031;0.5170;
302.1000;1.2047;0.5217;
302.4000;1.2047;0.5101;
302.7000;1.2055;0.5124;
303.0000;1.2039;0.5101;
303.3000;1.2055;0.5170;
303.6000;1.2015;0.5124;
303.9000;1.2031;0.5147;
304.2000;1.2015;0.5170;
304.5000;1.2015;0.5101;
304.8000;1.2031;0.5101;
305.1000;1.2015;0.5054;
305.4000;1.2055;0.5078;
305.7000;1.2080;0.5194;
306.0000;1.2023;0.5124;
306.3000;1.1990;0.5008;
306.6000;1.2023;0.5170;
306.9000;1.2023;0.5217;
307.2000;1.2023;0.5124;
307.5000;1.2047;0.5170;
307.8000;1.2039;0.5031;
308.1000;1.2015;0.5054;
308.4000;1.2039;0.5101;
308.7000;1.2055;0.5124;
309.0000;1.2039;0.5078;
309.3000;1.2023;0.4962;
309.6000;1.2023;0.4985;
309.9000;1.2015;0.5054;
310.2000;1.2015;0.4985;
310.5000;1.2031;0.5008;
310.8000;1.2031;0.4962;
311.1000;1.2031;0.4892;
311.4000;1.2055;0.5031;
311.7000;1.1958;0.4823;
312.0000;1.2039;0.5008;
312.3000;1.2055;0.5078;
312.6000;1.2055;0.5078;
312.9000;1.2039;0.4985;
313.2000;1.2047;0.4915;
313.5000;1.2039;0.4892;
313.8000;1.2039;0.4869;
314.1000;1.2047;0.4985;
314.4000;1.2023;0.4915;
314.7000;1.2031;0.5008;
315.0000;1.2039;0.5101;
315.3000;1.2039;0.5147;
315.6000;1.2039;0.5054;
315.9000;1.2023;0.5031;
316.2000;1.2015;0.4962;
316.5000;1.2031;0.5008;
316.8000;1.2031;0.4962;
317.1000;1.2007;0.4915;
317.4000;1.2031;0.4938;
317.7000;1.2039;0.4962;
318.0000;1.2039;0.5008;
318.3000;1.2023;0.5008;
318.6000;1.2031;0.4938;
318.9000;1.2031;0.4985;
319.2000;1.2015;0.4985;
319.5000;1.2015;0.5078;
319.8000;1.2031;0.5147;
320.1000;1.2031;0.5147;
320.4000;1.2015;0.5078;
320.7000;1.2031;0.5101;
321.0000;1.2015;0.5008;
321.3000;1.2031;0.5031;
321.6000;1.2031;0.5054;
321.9000;1.2039;0.5031;
322.2000;1.2039;0.4985;
322.5000;1.2023;0.4962;
322.8000;1.2047;0.5008;
323.1000;1.2023;0.4985;
323.4000;1.2055;0.5054;
323.7000;1.2023;0.5101;
324.0000;1.2047;0.5170;
324.3000;1.2120;0.5472;
324.6000;1.2039;0.5333;
324.9000;1.2039;0.5356;
325.2000;1.2039;0.5356;
325.5000;1.2047;0.5333;
325.8000;1.2031;0.5286;
326.1000;1.1974;0.5170;
326.4000;1.2031;0.5240;
326.7000;1.2047;0.5240;
327.0000;1.2039;0.5217;
327.3000;1.2031;0.5240;
327.6000;1.2023;0.5170;
327.9000;1.2023;0.5124;
328.2000;1.2055;0.5263;
328.5000;1.2031;0.5240;
328.8000;1.2055;0.5309;
329.1000;1.2047;0.5194;
329.4000;1.2055;0.5217;
329.7000;1.2031;0.5263;
330.0000;1.2007;0.5240;
330.3000;1.2047;0.5309;
330.6000;1.2031;0.5263;
330.9000;1.2031;0.5217;
331.2000;1.2047;0.5240;
331.5000;1.2039;0.5217;
331.8000;1.2055;0.5286;
332.1000;1.2047;0.5194;
332.4000;1.2055;0.5078;
332.7000;1.2007;0.4962;
333.0000;1.1990;0.4869;
333.3000;1.2047;0.5031;
333.6000;1.2047;0.5054;
333.9000;1.2039;0.5147;
334.2000;1.2023;0.5078;
334.5000;1.2047;0.5124;
334.8000;1.2023;0.4962;
335.1000;1.2039;0.4985;
335.4000;1.2023;0.5008;
335.7000;1.2031;0.4962;
336.0000;1.2039;0.5008;
336.3000;1.2023;0.5031;
336.6000;1.2007;0.5008;
336.9000;1.2039;0.5147;
337.2000;1.2047;0.5194;
337.5000;1.2039;0.5147;
337.8000;1.2031;0.5170;
338.1000;1.2039;0.5194;
338.4000;1.1990;0.5124;
338.7000;1.2063;0.5217;
339.0000;1.2039;0.5194;
339.3000;1.2039;0.5124;
339.6000;1.2031;0.5101;
339.9000;1.2031;0.5054;
340.2000;1.2039;0.4938;
340.5000;1.2047;0.4892;
340.8000;1.2047;0.4915;
341.1000;1.2039;0.4915;
341.4000;1.2023;0.4892;
341.7000;1.2039;0.4962;
342.0000;1.2039;0.5054;
342.3000;1.2039;0.5124;
342.6000;1.1950;0.4962;
342.9000;1.2055;0.5217;
343.2000;1.2039;0.5147;
343.5000;1.1998;0.5031;
343.8000;1.2063;0.5147;
344.1000;1.2031;0.5194;
344.4000;1.1958;0.5078;
344.7000;1.2047;0.5240;
345.0000;1.2055;0.5217;
345.3000;1.2031;0.5078;
345.6000;1.2031;0.5101;
345.9000;1.2023;0.5078;
346.2000;1.2031;0.5078;
346.5000;1.2023;0.5124;
346.8000;1.2031;0.5170;
347.1000;1.2047;0.5170;
347.4000;1.2031;0.5194;
347.7000;1.2015;0.5170;
348.0000;1.2023;0.5054;
348.3000;1.2015;0.5031;
348.6000;1.2039;0.5147;
348.9000;1.2031;0.5147;
349.2000;1.2047;0.5217;
349.5000;1.2015;0.5078;
349.8000;1.2031;0.5124;
350.1000;1.2039;0.5170;
350.4000;1.2031;0.5170;
350.7000;1.2039;0.5194;
351.0000;1.2031;0.5286;
351.3000;1.2031;0.5309;
351.6000;1.2031;0.5240;
351.9000;1.2007;0.5170;
352.2000;1.2031;0.5217;
352.5000;1.2031;0.5217;
352.8000;1.1974;0.5217;
353.1000;1.2015;0.5333;
353.4000;1.2039;0.5240;
353.7000;1.2023;0.5263;
354.0000;1.2023;0.5240;
354.3000;1.2015;0.5286;
354.6000;1.2015;0.5309;
354.9000;1.2072;0.5425;
355.2000;1.2031;0.5333;
355.5000;1.2023;0.5286;
355.8000;1.2023;0.5263;
356.1000;1.2055;0.5240;
356.4000;1.2015;0.5170;
356.7000;1.1966;0.5031;
357.0000;1.2007;0.5147;
357.3000;1.2023;0.5124;
357.6000;1.2039;0.5217;
357.9000;1.2031;0.5286;
358.2000;1.1982;0.5124;
358.5000;1.2047;0.5263;
358.8000;1.1982;0.5217;
359.1000;1.2007;0.5356;
359.4000;1.2039;0.5379;
359.7000;1.1990;0.5309;
360.0000;1.2047;0.5379;
360.3000;1.2039;0.5263;
360.6000;1.2047;0.5240;
360.9000;1.1982;0.5240;
361.2000;1.2031;0.5309;
361.5000;1.2015;0.5263;
361.8000;1.2039;0.5356;
362.1000;1.2031;0.5333;
362.4000;1.2007;0.5309;
362.7000;1.2023;0.5286;
363.0000;1.2055;0.5240;
363.3000;1.2007;0.5170;
363.6000;1.2023;0.5194;
363.9000;1.2031;0.5170;
364.2000;1.2055;0.5078;
364.5000;1.2055;0.5078;
364.8000;1.2031;0.5124;
365.1000;1.2015;0.5124;
365.4000;1.2031;0.5217;
365.7000;1.2039;0.5170;
366.0000;1.2023;0.5194;
366.3000;1.2023;0.5333;
366.6000;1.2031;0.5402;
366.9000;1.2007;0.5333;
367.2000;1.2063;0.5333;
367.5000;1.2015;0.5194;
367.8000;1.1998;0.5194;
368.1000;1.2007;0.5217;
368.4000;1.2088;0.5402;
368.7000;1.1982;0.5147;
369.0000;1.2007;0.5217;
369.3000;1.2047;0.5263;
369.6000;1.2023;0.5217;
369.9000;1.2023;0.5217;
370.2000;1.2031;0.5194;
370.5000;1.2039;0.5217;
370.8000;1.2023;0.5170;
371.1000;1.2047;0.5217;
371.4000;1.2015;0.5147;
371.7000;1.2031;0.5124;
372.0000;1.2031;0.5194;
372.3000;1.1998;0.5217;
372.6000;1.2015;0.5286;
372.9000;1.1998;0.5170;
373.2000;1.2015;0.5194;
373.5000;1.1974;0.5217;
373.8000;1.1974;0.5240;
374.1000;1.2023;0.5333;
374.4000;1.2023;0.5309;
374.7000;1.2031;0.5217;
375.0000;1.2023;0.5147;
375.3000;1.2039;0.5147;
375.6000;1.2031;0.5054;
375.9000;1.2031;0.5078;
376.2000;1.2023;0.5170;
376.5000;1.1941;0.5078;
376.8000;1.2031;0.5286;
377.1000;1.2039;0.5263;
377.4000;1.2015;0.5078;
377.7000;1.2047;0.5101;
378.0000;1.2047;0.5101;
378.3000;1.2031;0.5101;
378.6000;1.1982;0.5008;
378.9000;1.2023;0.5124;
379.2000;1.2031;0.5147;
379.5000;1.2039;0.5194;
379.8000;1.2039;0.5286;
380.1000;1.1998;0.5147;
380.4000;1.2047;0.5124;
380.7000;1.2039;0.5124;
381.0000;1.1998;0.4985;
381.3000;1.2031;0.5101;
381.6000;1.2063;0.5286;
381.9000;1.2047;0.5217;
382.2000;1.2096;0.5309;
382.5000;1.2039;0.5217;
382.8000;1.1998;0.5124;
383.1000;1.2055;0.5240;
383.4000;1.2039;0.5170;
383.7000;1.2072;0.5333;
384.0000;1.2023;0.5286;
384.3000;1.2023;0.5240;
384.6000;1.2039;0.5309;
384.9000;1.2055;0.5309;
385.2000;1.2031;0.5309;
385.5000;1.2039;0.5263;
385.8000;1.2047;0.5240;
386.1000;1.2047;0.5240;
386.4000;1.2015;0.5078;
386.7000;1.2031;0.5101;
387.0000;1.2063;0.5217;
387.3000;1.2039;0.5170;
387.6000;1.2023;0.5101;
387.9000;1.1982;0.5078;
388.2000;1.2031;0.5240;
388.5000;1.2007;0.5147;
388.8000;1.2031;0.5217;
389.1000;1.2023;0.5101;
389.4000;1.1998;0.5078;
389.7000;1.2039;0.5101;
390.0000;1.2031;0.5194;
390.3000;1.2039;0.5286;
390.6000;1.2023;0.5286;
390.9000;1.2031;0.5333;
391.2000;1.2047;0.5379;
391.5000;1.2015;0.5240;
391.8000;1.2023;0.5194;
392.1000;1.2039;0.5240;
392.4000;1.2104;0.5425;
392.7000;1.2031;0.5217;
393.0000;1.2023;0.5194;
393.3000;1.2023;0.5217;
393.6000;1.2031;0.5170;
393.9000;1.2015;0.5054;
394.2000;1.2023;0.5031;
394.5000;1.2039;0.5147;
394.8000;1.2047;0.5217;
395.1000;1.2023;0.5170;
395.4000;1.2015;0.5124;
395.7000;1.1998;0.5101;
396.0000;1.2031;0.5170;
396.3000;1.2031;0.5170;
396.6000;1.2031;0.5124;
396.9000;1.2055;0.5240;
397.2000;1.2072;0.5170;
397.5000;1.1974;0.4915;
397.8000;1.2039;0.5008;
398.1000;1.1998;0.4915;
398.4000;1.1998;0.4892;
398.7000;1.2031;0.5031;
399.0000;1.2031;0.5031;
399.3000;1.2023;0.5124;
399.6000;1.2055;0.5124;
399.9000;1.2015;0.5054;
400.2000;1.2023;0.5078;
400.5000;1.2015;0.5078;
400.8000;1.2023;0.5124;
401.1000;1.2055;0.5240;
401.4000;1.2047;0.5217;
401.7000;1.2023;0.5240;
402.0000;1.2023;0.5217;
402.3000;1.2039;0.5194;
402.6000;1.2031;0.5101;
402.9000;1.2023;0.5031;
403.2000;1.2015;0.5078;
403.5000;1.2015;0.5124;
403.8000;1.2031;0.5217;
404.1000;1.2015;0.5147;
404.4000;1.2039;0.5217;
404.7000;1.2015;0.5170;
405.0000;1.2031;0.5240;
405.3000;1.2039;0.5240;
405.6000;1.2031;0.5240;
405.9000;1.2023;0.5286;
406.2000;1.2039;0.5240;
406.5000;1.2039;0.5101;
406.8000;1.2080;0.5147;
407.1000;1.2104;0.5240;
407.4000;1.2023;0.5101;
407.7000;1.2031;0.5124;
408.0000;1.2015;0.5124;
408.3000;1.2031;0.5124;
408.6000;1.2023;0.5054;
408.9000;1.2031;0.5078;
409.2000;1.2023;0.4938;
409.5000;1.2015;0.4892;
409.8000;1.2031;0.4962;
410.1000;1.2023;0.4915;
410.4000;1.2055;0.4962;
410.7000;1.2031;0.4962;
411.0000;1.2112;0.5217;
411.3000;1.2031;0.5078;
411.6000;1.2023;0.5031;
411.9000;1.2023;0.4985;
412.2000;1.2039;0.5078;
412.5000;1.2031;0.5147;
412.8000;1.2047;0.5147;
413.1000;1.2015;0.5124;
413.4000;1.2023;0.5194;
413.7000;1.2015;0.5263;
414.0000;1.2023;0.5240;
414.3000;1.2007;0.5194;
414.6000;1.1990;0.5170;
414.9000;1.2015;0.5263;
415.2000;1.2007;0.5263;
415.5000;1.1998;0.5147;
415.8000;1.2047;0.5263;
416.1000;1.1990;0.5147;
416.4000;1.1982;0.5170;
416.7000;1.2007;0.5309;
417.0000;1.2007;0.5217;
417.3000;1.2031;0.5194;
417.6000;1.2015;0.5078;
417.9000;1.1998;0.5031;
418.2000;1.2039;0.5147;
418.5000;1.2023;0.5170;
418.8000;1.2039;0.5147;
419.1000;1.2039;0.5054;
419.4000;1.1998;0.4892;
419.7000;1.2031;0.5008;
420.0000;1.2023;0.5031;
420.3000;1.2023;0.5078;
420.6000;1.2047;0.5124;
420.9000;1.1998;0.5078;
421.2000;1.2007;0.5217;
421.5000;1.2031;0.5309;
421.8000;1.2039;0.5379;
422.1000;1.2031;0.5333;
422.4000;1.2023;0.5217;
422.7000;1.2023;0.5147;
423.0000;1.2047;0.5240;
423.3000;1.2055;0.5170;
423.6000;1.2039;0.5101;
423.9000;1.2007;0.5031;
424.2000;1.2015;0.5054;
424.5000;1.2023;0.5194;
424.8000;1.2031;0.5286;
425.1000;1.1982;0.5170;
425.4000;1.2023;0.5124;
425.7000;1.2023;0.5194;
426.0000;1.2015;0.5286;
426.3000;1.2023;0.5263;
426.6000;1.2015;0.5240;
426.9000;1.2015;0.5286;
427.2000;1.2015;0.5217;
427.5000;1.2015;0.5217;
427.8000;1.1974;0.5170;
428.1000;1.2007;0.5309;
428.4000;1.2007;0.5286;
428.7000;1.2007;0.5286;
429.0000;1.2015;0.5240;
429.3000;1.2023;0.5194;
429.6000;1.2023;0.5170;
429.9000;1.2023;0.5217;
430.2000;1.2007;0.5217;
430.5000;1.2015;0.5240;
430.8000;1.2031;0.5356;
431.1000;1.2039;0.5240;
431.4000;1.2007;0.5263;
431.7000;1.2007;0.5240;
432.0000;1.2039;0.5309;
432.3000;1.1950;0.4985;
432.6000;1.2023;0.5078;
432.9000;1.2031;0.5124;
433.2000;1.2047;0.5101;
433.5000;1.2031;0.5054;
433.8000;1.2023;0.5101;
434.1000;1.2031;0.5124;
434.4000;1.1982;0.4938;
434.7000;1.2039;0.5054;
435.0000;1.2023;0.5031;
435.3000;1.2055;0.5101;
435.6000;1.2047;0.5008;
435.9000;1.2039;0.5008;
436.2000;1.2039;0.5031;
436.5000;1.2072;0.5078;
436.8000;1.2031;0.4985;
437.1000;1.2047;0.5031;
437.4000;1.2031;0.5101;
437.7000;1.2023;0.5147;
438.0000;1.2047;0.5101;
438.3000;1.2023;0.5054;
438.6000;1.2047;0.5124;
438.9000;1.2031;0.5054;
439.2000;1.2031;0.4985;
439.5000;1.2047;0.5101;
439.8000;1.2039;0.5078;
440.1000;1.2047;0.5031;
440.4000;1.2015;0.5031;
440.7000;1.1974;0.4869;
441.0000;1.2039;0.5124;
441.3000;1.2031;0.5194;
441.6000;1.1982;0.5101;
441.9000;1.2039;0.5240;
442.2000;1.2015;0.5217;
442.5000;1.2015;0.5217;
442.8000;1.2023;0.5217;
443.1000;1.2015;0.5240;
443.4000;1.2023;0.5240;
443.7000;1.2015;0.5170;
444.0000;1.2015;0.5101;
444.3000;1.2007;0.5101;
444.6000;1.2015;0.5124;
444.9000;1.2023;0.5170;
445.2000;1.2031;0.5147;
445.5000;1.2023;0.5124;
445.8000;1.2015;0.5078;
446.1000;1.2080;0.5217;
446.4000;1.2039;0.5147;
446.7000;1.2031;0.5147;
447.0000;1.2015;0.5194;
447.3000;1.2023;0.5147;
447.6000;1.2023;0.5194;
447.9000;1.2015;0.5170;
448.2000;1.2007;0.5124;
448.5000;1.1998;0.5194;
448.8000;1.2023;0.5286;
449.1000;1.2023;0.5263;
449.4000;1.2023;0.5263;
449.7000;1.2023;0.5263;
450.0000;1.2007;0.5240;
450.3000;1.2015;0.5240;
450.6000;1.2023;0.5217;
450.9000;1.2031;0.5263;
451.2000;1.2055;0.5309;
451.5000;1.2031;0.5217;
451.8000;1.2031;0.5309;
452.1000;1.2031;0.5333;
452.4000;1.1998;0.5124;
452.7000;1.1990;0.5124;
453.0000;1.2007;0.5194;
453.3000;1.2007;0.5078;
453.6000;1.1998;0.5078;
453.9000;1.2015;0.5147;
454.2000;1.2023;0.5170;
454.5000;1.1998;0.5101;
454.8000;1.1998;0.5124;
455.1000;1.2023;0.5054;
455.4000;1.2007;0.5101;
455.7000;1.1998;0.5101;
456.0000;1.2007;0.5054;
456.3000;1.2080;0.5194;
456.6000;1.2031;0.5078;
456.9000;1.2023;0.5054;
457.2000;1.2031;0.5031;
457.5000;1.1982;0.4892;
457.8000;1.2055;0.5054;
458.1000;1.2023;0.5008;
458.4000;1.1998;0.5031;
458.7000;1.2023;0.5124;
459.0000;1.2031;0.5124;
459.3000;1.2047;0.5147;
459.6000;1.2080;0.5240;
459.9000;1.2023;0.5078;
460.2000;1.2031;0.5008;
460.5000;1.2047;0.5101;
460.8000;1.2039;0.5101;
461.1000;1.2039;0.5240;
461.4000;1.2047;0.5240;
461.7000;1.2015;0.5194;
462.0000;1.2031;0.5194;
462.3000;1.2063;0.5263;
462.6000;1.2023;0.5101;
462.9000;1.2015;0.5124;
463.2000;1.2039;0.5147;
463.5000;1.2015;0.5170;
463.8000;1.2015;0.5147;
464.1000;1.2023;0.5124;
464.4000;1.2007;0.5054;
464.7000;1.2007;0.5101;
465.0000;1.2015;0.5101;
465.3000;1.2015;0.5170;
465.6000;1.2023;0.5194;
465.9000;1.2023;0.5194;
466.2000;1.2007;0.5170;
466.5000;1.2023;0.5194;
466.8000;1.2031;0.5194;
467.1000;1.2007;0.5170;
467.4000;1.2015;0.5217;
467.7000;1.2023;0.5217;
468.0000;1.1982;0.5170;
468.3000;1.2023;0.5286;
468.6000;1.1998;0.5217;
468.9000;1.1990;0.5217;
469.2000;1.2015;0.5217;
469.5000;1.2007;0.5078;
469.8000;1.2031;0.5124;
470.1000;1.2023;0.5170;
470.4000;1.2023;0.5194;
470.7000;1.2039;0.5147;
471.0000;1.2023;0.5101;
471.3000;1.2007;0.5101;
471.6000;1.2023;0.5101;
471.9000;1.2007;0.5078;
472.2000;1.2007;0.5101;
472.5000;1.2112;0.5379;
472.8000;1.2015;0.5147;
473.1000;1.2007;0.5147;
473.4000;1.2015;0.5194;
473.7000;1.1998;0.5147;
474.0000;1.2007;0.5194;
474.3000;1.1958;0.5101;
474.6000;1.2031;0.5286;
474.9000;1.2007;0.5170;
475.2000;1.1982;0.5147;
475.5000;1.1998;0.5240;
475.8000;1.1982;0.5170;
476.1000;1.1966;0.5170;
476.4000;1.1990;0.5194;
476.7000;1.2015;0.5170;
477.0000;1.2023;0.5147;
477.3000;1.2015;0.5217;
477.6000;1.2007;0.5124;
477.9000;1.2015;0.5054;
478.2000;1.2023;0.5101;
478.5000;1.2015;0.5101;
478.8000;1.1998;0.5031;
479.1000;1.1998;0.4938;
479.4000;1.2015;0.4892;
479.7000;1.2015;0.4962;
480.0000;1.2007;0.4985;
480.3000;1.2055;0.5147;
480.6000;1.2023;0.5101;
480.9000;1.2039;0.5217;
481.2000;1.2031;0.5170;
481.5000;1.2031;0.5194;
481.8000;1.2031;0.5147;
482.1000;1.2015;0.5101;
482.4000;1.2023;0.5194;
482.7000;1.2015;0.5217;
483.0000;1.2015;0.5217;
483.3000;1.2055;0.5379;
483.6000;1.2015;0.5263;
483.9000;1.2023;0.5263;
484.2000;1.2031;0.5263;
484.5000;1.2031;0.5309;
484.8000;1.2023;0.5240;
485.1000;1.2007;0.5217;
485.4000;1.2007;0.5240;
485.7000;1.2015;0.5263;
486.0000;1.1958;0.5124;
486.3000;1.2015;0.5263;
486.6000;1.2015;0.5240;
486.9000;1.1982;0.5101;
487.2000;1.2015;0.5194;
487.5000;1.2015;0.5147;
487.8000;1.2015;0.5170;
488.1000;1.2031;0.5217;
488.4000;1.1998;0.5286;
488.7000;1.1974;0.5217;
489.0000;1.2015;0.5309;
489.3000;1.2023;0.5263;
489.6000;1.1982;0.5124;
489.9000;1.2039;0.5194;
490.2000;1.2007;0.5054;
490.5000;1.2031;0.5124;
490.8000;1.2007;0.5124;
491.1000;1.1966;0.4985;
491.4000;1.2023;0.5124;
491.7000;1.2023;0.5194;
492.0000;1.2023;0.5194;
492.3000;1.2047;0.5333;
492.6000;1.1974;0.5124;
492.9000;1.2129;0.5518;
493.2000;1.2015;0.5286;
493.5000;1.2031;0.5402;
493.8000;1.2007;0.5286;
494.1000;1.2015;0.5333;
494.4000;1.2023;0.5309;
494.7000;1.1974;0.5124;
495.0000;1.2007;0.5217;
495.3000;1.2039;0.5333;
495.6000;1.2015;0.5240;
495.9000;1.1982;0.5263;
496.2000;1.2007;0.5356;
496.5000;1.2039;0.5379;
496.8000;1.2039;0.5333;
497.1000;1.2015;0.5286;
497.4000;1.2023;0.5356;
497.7000;1.2039;0.5379;
498.0000;1.2015;0.5379;
498.3000;1.1998;0.5217;
498.6000;1.1974;0.5124;
498.9000;1.2015;0.5240;
499.2000;1.2015;0.5240;
499.5000;1.1998;0.5240;
499.8000;1.1998;0.5309;
500.1000;1.1998;0.5286;
500.4000;1.1998;0.5286;
500.7000;1.1998;0.5217;
501.0000;1.1982;0.5194;
501.3000;1.2015;0.5194;
501.6000;1.1998;0.5124;
501.9000;1.1990;0.5170;
502.2000;1.2015;0.5194;
502.5000;1.2015;0.5217;
502.8000;1.2023;0.5240;
503.1000;1.2007;0.5240;
503.4000;1.2007;0.5263;
503.7000;1.2015;0.5356;
504.0000;1.2007;0.5402;
504.3000;1.2015;0.5425;
504.6000;1.1998;0.5309;
504.9000;1.2015;0.5286;
505.2000;1.2039;0.5379;
505.5000;1.1982;0.5240;
505.8000;1.2031;0.5263;
506.1000;1.2015;0.5286;
506.4000;1.2112;0.5611;
506.7000;1.2007;0.5333;
507.0000;1.2145;0.5657;
507.3000;1.1998;0.5425;
507.6000;1.2015;0.5356;
507.9000;1.2015;0.5379;
508.2000;1.2007;0.5356;
508.5000;1.2007;0.5333;
508.8000;1.2007;0.5263;
509.1000;1.2015;0.5240;
509.4000;1.1941;0.5147;
509.7000;1.2007;0.5286;
510.0000;1.1982;0.5217;
510.3000;1.1990;0.5309;
510.6000;1.1990;0.5425;
510.9000;1.1990;0.5472;
511.2000;1.1998;0.5541;
511.5000;1.2031;0.5588;
511.8000;1.2015;0.5541;
512.1000;1.1998;0.5472;
512.4000;1.1974;0.5379;
512.7000;1.2007;0.5472;
513.0000;1.1990;0.5472;
513.3000;1.2039;0.5541;
513.6000;1.2039;0.5518;
513.9000;1.2007;0.5449;
514.2000;1.2015;0.5518;
514.5000;1.2055;0.5495;
514.8000;1.2015;0.5333;
515.1000;1.2015;0.5356;
515.4000;1.1974;0.5217;
515.7000;1.2015;0.5333;
516.0000;1.1998;0.5309;
516.3000;1.1998;0.5309;
516.6000;1.2007;0.5309;
516.9000;1.2015;0.5356;
517.2000;1.2007;0.5286;
517.5000;1.2063;0.5402;
517.8000;1.1998;0.5333;
518.1000;1.2007;0.5333;
518.4000;1.2023;0.5402;
518.7000;1.2007;0.5309;
519.0000;1.1990;0.5263;
519.3000;1.2007;0.5379;
519.6000;1.2031;0.5356;
519.9000;1.2023;0.5356;
520.2000;1.2015;0.5286;
520.5000;1.2015;0.5263;
520.8000;1.2047;0.5309;
521.1000;1.2007;0.5333;
521.4000;1.2015;0.5333;
521.7000;1.1990;0.5286;
522.0000;1.2015;0.5333;
522.3000;1.2007;0.5402;
522.6000;1.1998;0.5286;
522.9000;1.2007;0.5217;
523.2000;1.2007;0.5286;
523.5000;1.2023;0.5240;
523.8000;1.2031;0.5217;
524.1000;1.2007;0.5217;
524.4000;1.2023;0.5309;
524.7000;1.2015;0.5286;
525.0000;1.2007;0.5309;
525.3000;1.1998;0.5240;
525.6000;1.2007;0.5217;
525.9000;1.2007;0.5078;
526.2000;1.2007;0.5078;
526.5000;1.2023;0.5031;
526.8000;1.2007;0.5031;
527.1000;1.1998;0.5170;
527.4000;1.2007;0.5263;
527.7000;1.2015;0.5449;
528.0000;1.1998;0.5518;
528.3000;1.1998;0.5564;
528.6000;1.2015;0.5449;
528.9000;1.1998;0.5379;
529.2000;1.2055;0.5472;
529.5000;1.1998;0.5309;
529.8000;1.2031;0.5425;
530.1000;1.1998;0.5425;
530.4000;1.2031;0.5449;
530.7000;1.2015;0.5402;
531.0000;1.2007;0.5402;
531.3000;1.1966;0.5286;
531.6000;1.2015;0.5402;
531.9000;1.1998;0.5449;
532.2000;1.2023;0.5564;
532.5000;1.1998;0.5518;
532.8000;1.2007;0.5541;
533.1000;1.2007;0.5564;
533.4000;1.2023;0.5611;
533.7000;1.2015;0.5588;
534.0000;1.2015;0.5541;
534.3000;1.1998;0.5495;
534.6000;1.1998;0.5425;
534.9000;1.2007;0.5425;
535.2000;1.2015;0.5449;
535.5000;1.1990;0.5402;
535.8000;1.2007;0.5472;
536.1000;1.1998;0.5402;
536.4000;1.1998;0.5356;
536.7000;1.2007;0.5379;
537.0000;1.1998;0.5356;
537.3000;1.2015;0.5425;
537.6000;1.2031;0.5472;
537.9000;1.2007;0.5425;
538.2000;1.2031;0.5425;
538.5000;1.2007;0.5379;
538.8000;1.2031;0.5472;
539.1000;1.2015;0.5425;
539.4000;1.1990;0.5356;
539.7000;1.2023;0.5356;
540.0000;1.1966;0.5194;
540.3000;1.2015;0.5286;
540.6000;1.2023;0.5286;
540.9000;1.2031;0.5286;
541.2000;1.2023;0.5309;
541.5000;1.1982;0.5217;
541.8000;1.1998;0.5170;
542.1000;1.1990;0.5101;
542.4000;1.1990;0.5078;
542.7000;1.2072;0.5170;
543.0000;1.1966;0.4892;
543.3000;1.1982;0.5008;
543.6000;1.2007;0.5170;
543.9000;1.1998;0.5194;
544.2000;1.2023;0.5240;
544.5000;1.1998;0.5263;
544.8000;1.1998;0.5309;
545.1000;1.1982;0.5263;
545.4000;1.2007;0.5333;
545.7000;1.2015;0.5286;
546.0000;1.1990;0.5194;
546.3000;1.2015;0.5240;
546.6000;1.1990;0.5240;
546.9000;1.2007;0.5217;
547.2000;1.1950;0.5170;
547.5000;1.1990;0.5240;
547.8000;1.2007;0.5263;
548.1000;1.1990;0.5263;
548.4000;1.1998;0.5379;
548.7000;1.1998;0.5356;
549.0000;1.2007;0.5379;
549.3000;1.2031;0.5402;
549.6000;1.2007;0.5425;
549.9000;1.2007;0.5402;
550.2000;1.1982;0.5263;
550.5000;1.2015;0.5402;
550.8000;1.1990;0.5309;
551.1000;1.1990;0.5333;
551.4000;1.2023;0.5356;
551.7000;1.1974;0.5286;
552.0000;1.1982;0.5333;
552.3000;1.1998;0.5425;
552.6000;1.2015;0.5449;
552.9000;1.2055;0.5564;
553.2000;1.1958;0.5263;
553.5000;1.1990;0.5286;
553.8000;1.1974;0.5263;
554.1000;1.1998;0.5309;
554.4000;1.1998;0.5333;
554.7000;1.2007;0.5240;
555.0000;1.1998;0.5147;
555.3000;1.1966;0.5194;
555.6000;1.2015;0.5263;
555.9000;1.1982;0.5101;
556.2000;1.2007;0.5078;
556.5000;1.1998;0.5054;
556.8000;1.2015;0.5194;
557.1000;1.2015;0.5217;
557.4000;1.1990;0.5263;
557.7000;1.2015;0.5333;
558.0000;1.2015;0.5309;
558.3000;1.2031;0.5402;
558.6000;1.1998;0.5333;
558.9000;1.1982;0.5379;
559.2000;1.1998;0.5449;
559.5000;1.1998;0.5356;
559.8000;1.1990;0.5309;
560.1000;1.1982;0.5309;
560.4000;1.1998;0.5356;
560.7000;1.2007;0.5402;
561.0000;1.2023;0.5356;
561.3000;1.2015;0.5286;
561.6000;1.2015;0.5240;
561.9000;1.2015;0.5240;
562.2000;1.1990;0.5170;
562.5000;1.2007;0.5240;
562.8000;1.1998;0.5263;
563.1000;1.1990;0.5240;
563.4000;1.2015;0.5333;
563.7000;1.1990;0.5286;
564.0000;1.1990;0.5286;
564.3000;1.2015;0.5333;
564.6000;1.2015;0.5379;
564.9000;1.1982;0.5263;
565.2000;1.2080;0.5425;
565.5000;1.2015;0.5194;
565.8000;1.2015;0.5147;
566.1000;1.1966;0.5101;
566.4000;1.1998;0.5194;
566.7000;1.2015;0.5240;
567.0000;1.2063;0.5379;
567.3000;1.2031;0.5333;
567.6000;1.2023;0.5333;
567.9000;1.2007;0.5309;
568.2000;1.2015;0.5286;
568.5000;1.2007;0.5240;
568.8000;1.1998;0.5124;
569.1000;1.1990;0.5054;
569.4000;1.2007;0.5101;
569.7000;1.1998;0.5217;
570.0000;1.1982;0.5309;
570.3000;1.1941;0.5194;
570.6000;1.2047;0.5495;
570.9000;1.2015;0.5356;
571.2000;1.1990;0.5309;
571.5000;1.2007;0.5240;
571.8000;1.2023;0.5194;
572.1000;1.2031;0.5286;
572.4000;1.2015;0.5217;
572.7000;1.2015;0.5286;
573.0000;1.2015;0.5217;
573.3000;1.2015;0.5194;
573.6000;1.2007;0.5286;
573.9000;1.1998;0.5240;
574.2000;1.1998;0.5194;
574.5000;1.1998;0.5170;
574.8000;1.1974;0.5101;
575.1000;1.1990;0.5194;
575.4000;1.2015;0.5286;
575.7000;1.1998;0.5217;
576.0000;1.2039;0.5309;
576.3000;1.2007;0.5240;
576.6000;1.1990;0.5217;
576.9000;1.2007;0.5240;
577.2000;1.1998;0.5194;
577.5000;1.2007;0.5286;
577.8000;1.2031;0.5379;
578.1000;1.1998;0.5356;
578.4000;1.2063;0.5541;
578.7000;1.2015;0.5518;
579.0000;1.1990;0.5402;
579.3000;1.2007;0.5379;
579.6000;1.1990;0.5379;
579.9000;1.2007;0.5449;
580.2000;1.2007;0.5379;
580.5000;1.1998;0.5333;
580.8000;1.1998;0.5356;
581.1000;1.1998;0.5402;
581.4000;1.2015;0.5425;
581.7000;1.2023;0.5379;
582.0000;1.1998;0.5194;
582.3000;1.2023;0.5240;
582.6000;1.2023;0.5240;
582.9000;1.2031;0.5240;
583.2000;1.2015;0.5124;
583.5000;1.2023;0.5101;
583.8000;1.2031;0.5194;
584.1000;1.2007;0.5170;
584.4000;1.2007;0.5170;
584.7000;1.1998;0.5147;
585.0000;1.1998;0.5217;
585.3000;1.2007;0.5240;
585.6000;1.1990;0.5217;
585.9000;1.1998;0.5217;
586.2000;1.1998;0.5217;
586.5000;1.2023;0.5286;
586.8000;1.1990;0.5170;
587.1000;1.1982;0.5170;
587.4000;1.1998;0.5240;
587.7000;1.2007;0.5217;
588.0000;1.2015;0.5217;
588.3000;1.2015;0.5124;
588.6000;1.2007;0.5147;
588.9000;1.2080;0.5356;
589.2000;1.2072;0.5356;
589.5000;1.1990;0.5240;
589.8000;1.1982;0.5333;
590.1000;1.2015;0.5425;
590.4000;1.1990;0.5356;
590.7000;1.1998;0.5263;
591.0000;1.1909;0.5008;
591.3000;1.1998;0.5240;
591.6000;1.2007;0.5309;
591.9000;1.1998;0.5402;
592.2000;1.1990;0.5379;
592.5000;1.2007;0.5333;
592.8000;1.2015;0.5240;
593.1000;1.1998;0.5194;
593.4000;1.2007;0.5217;
593.7000;1.2007;0.5240;
594.0000;1.2031;0.5263;
594.3000;1.1990;0.5147;
594.6000;1.2015;0.5101;
594.9000;1.1990;0.5101;
595.2000;1.1990;0.5101;
595.5000;1.2007;0.5031;
595.8000;1.1998;0.5078;
596.1000;1.1990;0.5124;
596.4000;1.1990;0.5170;
596.7000;1.1974;0.5008;
597.0000;1.2007;0.5078;
597.3000;1.1998;0.5078;
597.6000;1.2015;0.5147;
597.9000;1.2007;0.5217;
598.2000;1.1990;0.5263;
598.5000;1.2007;0.5333;
598.8000;1.1998;0.5286;
599.1000;1.1998;0.5240;
599.4000;1.2015;0.5217;
599.7000;1.2023;0.5309;
600.0000;1.1990;0.5217;
600.3000;1.2015;0.5170;
600.6000;1.1990;0.4869;
600.9000;1.1917;0.4614;
601.2000;1.1844;0.4312;
601.5000;1.1754;0.4081;
601.8000;1.1648;0.3826;
602.1000;1.1518;0.3501;
602.4000;1.1404;0.3362;
602.7000;1.1323;0.3246;
603.0000;1.1209;0.3084;
603.3000;1.1136;0.3014;
603.6000;1.1046;0.2713;
603.9000;1.0948;0.2527;
604.2000;1.0867;0.2365;
604.5000;1.0810;0.2319;
604.8000;1.0720;0.2110;
605.1000;1.0680;0.1971;
605.4000;1.0590;0.1878;
605.7000;1.0492;0.1762;
606.0000;1.0460;0.1716;
606.3000;1.0370;0.1553;
606.6000;1.0338;0.1437;
606.9000;1.0281;0.1298;
607.2000;1.0199;0.1252;
607.5000;1.0175;0.1275;
607.8000;1.0118;0.1229;
608.1000;1.0110;0.1275;
608.4000;1.0037;0.1090;
608.7000;0.9955;0.0951;
609.0000;0.9931;0.0974;
609.3000;0.9890;0.0997;
609.6000;0.9833;0.0974;
609.9000;0.9801;0.0951;
610.2000;0.9719;0.0788;
610.5000;0.9711;0.0788;
610.8000;0.9646;0.0672;
611.1000;0.9662;0.0672;
611.4000;0.9597;0.0510;
611.7000;0.9556;0.0487;
612.0000;0.9556;0.0603;
612.3000;0.9491;0.0464;
612.6000;0.9418;0.0371;
612.9000;0.9402;0.0394;
613.2000;0.9361;0.0441;
613.5000;0.9337;0.0603;
613.8000;0.9280;0.0533;
614.1000;0.9231;0.0533;
614.4000;0.9231;0.0603;
614.7000;0.9182;0.0464;
615.0000;0.9149;0.0417;
615.3000;0.9141;0.0441;
615.6000;0.9092;0.0325;
615.9000;0.9092;0.0325;
616.2000;0.9027;0.0255;
616.5000;0.8987;0.0232;
616.8000;0.8962;0.0209;
617.1000;0.8938;0.0139;
617.4000;0.8938;0.0162;
617.7000;0.8889;0.0093;
618.0000;0.8856;0.0093;
618.3000;0.8824;0.0093;
618.6000;0.8799;0.0070;
618.9000;0.8783;0.0023;
619.2000;0.8751;-0.0046;
619.5000;0.8726;-0.0070;
619.8000;0.8710;-0.0046;
620.1000;0.8702;-0.0139;
620.4000;0.8653;-0.0209;
620.7000;0.8637;-0.0209;
621.0000;0.8612;-0.0162;
621.3000;0.8580;-0.0185;
621.6000;0.8563;-0.0116;
621.9000;0.8531;-0.0023;
622.2000;0.8514;-0.0046;
622.5000;0.8506;0.0000;
622.8000;0.8482;-0.0070;
623.1000;0.8474;-0.0093;
623.4000;0.8539;0.0116;
623.7000;0.8433;-0.0116;
624.0000;0.8433;-0.0046;
624.3000;0.8400;-0.0046;
624.6000;0.8384;-0.0070;
624.9000;0.8360;-0.0116;
625.2000;0.8327;-0.0278;
625.5000;0.8327;-0.0325;
625.8000;0.8311;-0.0301;
626.1000;0.8278;-0.0394;
626.4000;0.8278;-0.0487;
626.7000;0.8254;-0.0510;
627.0000;0.8221;-0.0487;
627.3000;0.8213;-0.0394;
627.6000;0.8197;-0.0441;
627.9000;0.8132;-0.0649;
628.2000;0.8132;-0.0696;
628.5000;0.8156;-0.0696;
628.8000;0.8132;-0.0649;
629.1000;0.8124;-0.0603;
629.4000;0.8099;-0.0626;
629.7000;0.8091;-0.0556;
630.0000;0.8091;-0.0510;
630.3000;0.8075;-0.0487;
630.6000;0.8083;-0.0394;
630.9000;0.8034;-0.0533;
631.2000;0.8042;-0.0464;
631.5000;0.8018;-0.0603;
631.8000;0.8002;-0.0556;
632.1000;0.8018;-0.0441;
632.4000;0.7985;-0.0556;
632.7000;0.7961;-0.0487;
633.0000;0.7953;-0.0487;
633.3000;0.7937;-0.0464;
633.6000;0.7920;-0.0441;
633.9000;0.7912;-0.0325;
634.2000;0.7871;-0.0348;
634.5000;0.7871;-0.0325;
634.8000;0.7896;-0.0278;
635.1000;0.7912;-0.0185;
635.4000;0.7855;-0.0255;
635.7000;0.7863;-0.0278;
636.0000;0.7831;-0.0301;
636.3000;0.7839;-0.0232;
636.6000;0.7823;-0.0278;
636.9000;0.7806;-0.0325;
637.2000;0.7741;-0.0417;
637.5000;0.7782;-0.0348;
637.8000;0.7774;-0.0348;
638.1000;0.7741;-0.0371;
638.4000;0.7725;-0.0417;
638.7000;0.7700;-0.0441;
639.0000;0.7725;-0.0394;
639.3000;0.7733;-0.0348;
639.6000;0.7692;-0.0464;
639.9000;0.7700;-0.0533;
640.2000;0.7717;-0.0510;
640.5000;0.7684;-0.0510;
640.8000;0.7668;-0.0487;
641.1000;0.7652;-0.0533;
641.4000;0.7643;-0.0533;
641.7000;0.7660;-0.0441;
642.0000;0.7643;-0.0417;
642.3000;0.7643;-0.0348;
642.6000;0.7619;-0.0394;
642.9000;0.7627;-0.0394;
643.2000;0.7619;-0.0301;
643.5000;0.7586;-0.0417;
643.8000;0.7586;-0.0417;
644.1000;0.7586;-0.0417;
644.4000;0.7643;-0.0325;
644.7000;0.7546;-0.0487;
645.0000;0.7489;-0.0649;
645.3000;0.7562;-0.0417;
645.6000;0.7562;-0.0510;
645.9000;0.7481;-0.0765;
646.2000;0.7595;-0.0464;
646.5000;0.7546;-0.0487;
646.8000;0.7521;-0.0533;
647.1000;0.7513;-0.0533;
647.4000;0.7456;-0.0603;
647.7000;0.7497;-0.0510;
648.0000;0.7481;-0.0556;
648.3000;0.7489;-0.0533;
648.6000;0.7448;-0.0672;
648.9000;0.7481;-0.0603;
649.2000;0.7473;-0.0580;
649.5000;0.7456;-0.0510;
649.8000;0.7440;-0.0487;
650.1000;0.7416;-0.0487;
650.4000;0.7440;-0.0487;
650.7000;0.7424;-0.0556;
651.0000;0.7416;-0.0556;
651.3000;0.7383;-0.0603;
651.6000;0.7383;-0.0556;
651.9000;0.7399;-0.0487;
652.2000;0.7424;-0.0441;
652.5000;0.7359;-0.0580;
652.8000;0.7375;-0.0580;
653.1000;0.7367;-0.0464;
653.4000;0.7359;-0.0417;
653.7000;0.7342;-0.0533;
654.0000;0.7342;-0.0533;
654.3000;0.7342;-0.0510;
654.6000;0.7342;-0.0533;
654.9000;0.7326;-0.0580;
655.2000;0.7318;-0.0556;
655.5000;0.7326;-0.0556;
655.8000;0.7326;-0.0510;
656.1000;0.7350;-0.0487;
656.4000;0.7310;-0.0626;
656.7000;0.7285;-0.0626;
657.0000;0.7253;-0.0672;
657.3000;0.7310;-0.0603;
657.6000;0.7269;-0.0672;
657.9000;0.7277;-0.0649;
658.2000;0.7277;-0.0556;
658.5000;0.7261;-0.0649;
658.8000;0.7277;-0.0672;
659.1000;0.7253;-0.0719;
659.4000;0.7253;-0.0765;
659.7000;0.7253;-0.0765;
660.0000;0.7228;-0.0742;
660.3000;0.7212;-0.0719;
660.6000;0.7261;-0.0765;
660.9000;0.7236;-0.0765;
661.2000;0.7253;-0.0603;
661.5000;0.7196;-0.0719;
661.8000;0.7212;-0.0742;
662.1000;0.7212;-0.0672;
662.4000;0.7196;-0.0649;
662.7000;0.7131;-0.0765;
663.0000;0.7188;-0.0603;
663.3000;0.7131;-0.0788;
663.6000;0.7131;-0.0742;
663.9000;0.7179;-0.0626;
664.2000;0.7123;-0.0696;
664.5000;0.7179;-0.0626;
664.8000;0.7155;-0.0742;
665.1000;0.7155;-0.0649;
665.4000;0.7131;-0.0696;
665.7000;0.7163;-0.0719;
666.0000;0.7147;-0.0696;
666.3000;0.7139;-0.0696;
666.6000;0.7147;-0.0580;
666.9000;0.7131;-0.0626;
667.2000;0.7139;-0.0556;
667.5000;0.7098;-0.0603;
667.8000;0.7123;-0.0556;
668.1000;0.7131;-0.0487;
668.4000;0.7098;-0.0556;
668.7000;0.7090;-0.0580;
669.0000;0.7106;-0.0603;
669.3000;0.7090;-0.0626;
669.6000;0.7098;-0.0603;
669.9000;0.7082;-0.0649;
670.2000;0.7066;-0.0719;
670.5000;0.7041;-0.0696;
670.8000;0.7057;-0.0696;
671.1000;0.7049;-0.0649;
671.4000;0.7049;-0.0626;
671.7000;0.7057;-0.0580;
672.0000;0.7049;-0.0649;
672.3000;0.7066;-0.0580;
672.6000;0.7074;-0.0533;
672.9000;0.7041;-0.0556;
673.2000;0.7049;-0.0464;
673.5000;0.7033;-0.0441;
673.8000;0.7041;-0.0464;
674.1000;0.7041;-0.0441;
674.4000;0.7025;-0.0626;
674.7000;0.7025;-0.0649;
675.0000;0.7025;-0.0649;
675.3000;0.7025;-0.0626;
675.6000;0.7041;-0.0626;
675.9000;0.7000;-0.0696;
676.2000;0.7000;-0.0672;
676.5000;0.7000;-0.0626;
676.8000;0.6992;-0.0603;
677.1000;0.7041;-0.0580;
677.4000;0.7017;-0.0626;
677.7000;0.7000;-0.0603;
678.0000;0.6984;-0.0626;
678.3000;0.6976;-0.0580;
678.6000;0.6984;-0.0603;
678.9000;0.6976;-0.0696;
679.2000;0.6984;-0.0672;
679.5000;0.6976;-0.0696;
679.8000;0.6976;-0.0672;
680.1000;0.6976;-0.0649;
680.4000;0.6960;-0.0649;
680.7000;0.6952;-0.0626;
681.0000;0.6952;-0.0696;
681.3000;0.6943;-0.0696;
681.6000;0.6927;-0.0788;
681.9000;0.6919;-0.0765;
682.2000;0.6919;-0.0649;
682.5000;0.6943;-0.0672;
682.8000;0.6927;-0.0649;
683.1000;0.6903;-0.0649;
683.4000;0.6927;-0.0603;
683.7000;0.6911;-0.0696;
684.0000;0.6911;-0.0719;
684.3000;0.6895;-0.0765;
684.6000;0.6895;-0.0742;
684.9000;0.6895;-0.0719;
685.2000;0.6895;-0.0672;
685.5000;0.6903;-0.0580;
685.8000;0.6886;-0.0626;
686.1000;0.6911;-0.0533;
686.4000;0.6903;-0.0696;
686.7000;0.6903;-0.0672;
687.0000;0.6878;-0.0672;
687.3000;0.6886;-0.0580;
687.6000;0.6878;-0.0626;
687.9000;0.6870;-0.0672;
688.2000;0.6886;-0.0649;
688.5000;0.6854;-0.0765;
688.8000;0.6797;-0.0881;
689.1000;0.6927;-0.0580;
689.4000;0.6870;-0.0649;
689.7000;0.6854;-0.0788;
690.0000;0.6846;-0.0858;
690.3000;0.6854;-0.0927;
690.6000;0.6846;-0.0927;
690.9000;0.6854;-0.0835;
691.2000;0.6846;-0.0881;
691.5000;0.6829;-0.0904;
691.8000;0.6854;-0.0858;
692.1000;0.6846;-0.0858;
692.4000;0.6846;-0.0951;
692.7000;0.6846;-0.0974;
693.0000;0.6838;-0.0951;
693.3000;0.6846;-0.0927;
693.6000;0.6821;-0.0858;
693.9000;0.6821;-0.0811;
694.2000;0.6821;-0.0811;
694.5000;0.6764;-0.0974;
694.8000;0.6821;-0.0811;
695.1000;0.6813;-0.0788;
695.4000;0.6805;-0.0788;
695.7000;0.6838;-0.0672;
696.0000;0.6805;-0.0626;
696.3000;0.6797;-0.0603;
696.6000;0.6789;-0.0626;
696.9000;0.6789;-0.0533;
697.2000;0.6772;-0.0556;
697.5000;0.6781;-0.0556;
697.8000;0.6781;-0.0556;
698.1000;0.6789;-0.0487;
698.4000;0.6789;-0.0464;
698.7000;0.6813;-0.0464;
699.0000;0.6772;-0.0556;
699.3000;0.6772;-0.0603;
699.6000;0.6772;-0.0603;
699.9000;0.6764;-0.0649;
700.2000;0.6756;-0.0626;
700.5000;0.6756;-0.0603;
700.8000;0.6748;-0.0626;
701.1000;0.6764;-0.0580;
701.4000;0.6756;-0.0580;
701.7000;0.6748;-0.0580;
702.0000;0.6756;-0.0556;
702.3000;0.6740;-0.0603;
702.6000;0.6707;-0.0672;
702.9000;0.6740;-0.0580;
703.2000;0.6748;-0.0649;
703.5000;0.6740;-0.0603;
703.8000;0.6740;-0.0672;
704.1000;0.6748;-0.0603;
704.4000;0.6724;-0.0626;
704.7000;0.6707;-0.0649;
705.0000;0.6740;-0.0580;
705.3000;0.6724;-0.0533;
705.6000;0.6732;-0.0533;
705.9000;0.6740;-0.0533;
706.2000;0.6724;-0.0510;
706.5000;0.6732;-0.0464;
706.8000;0.6699;-0.0533;
707.1000;0.6675;-0.0626;
707.4000;0.6659;-0.0696;
707.7000;0.6724;-0.0626;
708.0000;0.6707;-0.0649;
708.3000;0.6707;-0.0649;
708.6000;0.6716;-0.0626;
708.9000;0.6699;-0.0603;
709.2000;0.6691;-0.0533;
709.5000;0.6707;-0.0487;
709.8000;0.6707;-0.0580;
710.1000;0.6691;-0.0603;
710.4000;0.6675;-0.0649;
710.7000;0.6683;-0.0672;
711.0000;0.6683;-0.0626;
711.3000;0.6659;-0.0626;
711.6000;0.6659;-0.0626;
711.9000;0.6634;-0.0672;
712.2000;0.6650;-0.0626;
712.5000;0.6667;-0.0556;
712.8000;0.6667;-0.0533;
713.1000;0.6642;-0.0603;
713.4000;0.6659;-0.0580;
713.7000;0.6667;-0.0626;
714.0000;0.6667;-0.0603;
714.3000;0.6667;-0.0556;
714.6000;0.6667;-0.0533;
714.9000;0.6667;-0.0510;
715.2000;0.6667;-0.0626;
715.5000;0.6667;-0.0603;
715.8000;0.6650;-0.0556;
716.1000;0.6659;-0.0556;
716.4000;0.6659;-0.0626;
716.7000;0.6634;-0.0719;
717.0000;0.6642;-0.0742;
717.3000;0.6593;-0.0788;
717.6000;0.6650;-0.0603;
717.9000;0.6634;-0.0626;
718.2000;0.6618;-0.0672;
718.5000;0.6626;-0.0649;
718.8000;0.6626;-0.0649;
719.1000;0.6642;-0.0556;
719.4000;0.6602;-0.0603;
719.7000;0.6610;-0.0510;
720.0000;0.6634;-0.0580;
720.3000;0.6650;-0.0510;
720.6000;0.6610;-0.0603;
720.9000;0.6618;-0.0603;
721.2000;0.6610;-0.0649;
721.5000;0.6610;-0.0556;
721.8000;0.6593;-0.0580;
722.1000;0.6602;-0.0556;
722.4000;0.6593;-0.0533;
722.7000;0.6602;-0.0510;
723.0000;0.6610;-0.0510;
723.3000;0.6593;-0.0580;
723.6000;0.6593;-0.0533;
723.9000;0.6585;-0.0510;
724.2000;0.6593;-0.0510;
724.5000;0.6602;-0.0487;
724.8000;0.6593;-0.0510;
725.1000;0.6593;-0.0556;
725.4000;0.6610;-0.0533;
725.7000;0.6528;-0.0765;
726.0000;0.6593;-0.0649;
726.3000;0.6593;-0.0556;
726.6000;0.6593;-0.0626;
726.9000;0.6561;-0.0672;
727.2000;0.6561;-0.0580;
727.5000;0.6642;-0.0417;
727.8000;0.6577;-0.0626;
728.1000;0.6569;-0.0672;
728.4000;0.6561;-0.0696;
728.7000;0.6561;-0.0603;
729.0000;0.6577;-0.0580;
729.3000;0.6569;-0.0626;
729.6000;0.6569;-0.0626;
729.9000;0.6528;-0.0672;
730.2000;0.6577;-0.0626;
730.5000;0.6610;-0.0580;
730.8000;0.6585;-0.0649;
731.1000;0.6577;-0.0603;
731.4000;0.6569;-0.0626;
731.7000;0.6577;-0.0487;
732.0000;0.6553;-0.0510;
732.3000;0.6585;-0.0556;
732.6000;0.6545;-0.0603;
732.9000;0.6561;-0.0510;
733.2000;0.6553;-0.0510;
733.5000;0.6561;-0.0510;
733.8000;0.6545;-0.0580;
734.1000;0.6536;-0.0556;
734.4000;0.6545;-0.0603;
734.7000;0.6536;-0.0580;
735.0000;0.6536;-0.0580;
735.3000;0.6520;-0.0672;
735.6000;0.6553;-0.0626;
735.9000;0.6553;-0.0580;
736.2000;0.6536;-0.0580;
736.5000;0.6512;-0.0626;
736.8000;0.6545;-0.0649;
737.1000;0.6528;-0.0719;
737.4000;0.6520;-0.0765;
737.7000;0.6536;-0.0719;
738.0000;0.6536;-0.0649;
738.3000;0.6504;-0.0765;
738.6000;0.6553;-0.0672;
738.9000;0.6520;-0.0742;
739.2000;0.6496;-0.0788;
739.5000;0.6520;-0.0742;
739.8000;0.6528;-0.0696;
740.1000;0.6488;-0.0696;
740.4000;0.6520;-0.0649;
740.7000;0.6528;-0.0649;
741.0000;0.6504;-0.0719;
741.3000;0.6536;-0.0649;
741.6000;0.6496;-0.0672;
741.9000;0.6528;-0.0556;
742.2000;0.6479;-0.0603;
742.5000;0.6545;-0.0394;
742.8000;0.6512;-0.0464;
743.1000;0.6520;-0.0394;
743.4000;0.6520;-0.0325;
743.7000;0.6504;-0.0417;
744.0000;0.6488;-0.0417;
744.3000;0.6463;-0.0487;
744.6000;0.6479;-0.0487;
744.9000;0.6455;-0.0464;
745.2000;0.6479;-0.0371;
745.5000;0.6496;-0.0371;
745.8000;0.6488;-0.0371;
746.1000;0.6471;-0.0510;
746.4000;0.6479;-0.0533;
746.7000;0.6471;-0.0487;
747.0000;0.6479;-0.0371;
747.3000;0.6479;-0.0394;
747.6000;0.6471;-0.0441;
747.9000;0.6471;-0.0533;
748.2000;0.6455;-0.0487;
748.5000;0.6496;-0.0394;
748.8000;0.6471;-0.0464;
749.1000;0.6463;-0.0441;
749.4000;0.6463;-0.0441;
749.7000;0.6447;-0.0441;
750.0000;0.6463;-0.0417;
750.3000;0.6439;-0.0394;
750.6000;0.6455;-0.0278;
750.9000;0.6471;-0.0209;
751.2000;0.6447;-0.0209;
751.5000;0.6447;-0.0232;
751.8000;0.6382;-0.0464;
752.1000;0.6463;-0.0325;
752.4000;0.6471;-0.0348;
752.7000;0.6455;-0.0417;
753.0000;0.6479;-0.0394;
753.3000;0.6463;-0.0348;
753.6000;0.6463;-0.0371;
753.9000;0.6447;-0.0394;
754.2000;0.6455;-0.0325;
754.5000;0.6422;-0.0325;
754.8000;0.6447;-0.0278;
755.1000;0.6439;-0.0255;
755.4000;0.6439;-0.0209;
755.7000;0.6414;-0.0325;
756.0000;0.6455;-0.0232;
756.3000;0.6431;-0.0301;
756.6000;0.6398;-0.0487;
756.9000;0.6455;-0.0441;
757.2000;0.6488;-0.0394;
757.5000;0.6463;-0.0510;
757.8000;0.6447;-0.0580;
758.1000;0.6406;-0.0580;
758.4000;0.6447;-0.0441;
758.7000;0.6439;-0.0510;
759.0000;0.6439;-0.0417;
759.3000;0.6439;-0.0417;
759.6000;0.6463;-0.0417;
759.9000;0.6439;-0.0348;
760.2000;0.6406;-0.0348;
760.5000;0.6422;-0.0348;
760.8000;0.6422;-0.0348;
761.1000;0.6431;-0.0301;
761.4000;0.6398;-0.0301;
761.7000;0.6422;-0.0209;
762.0000;0.6431;-0.0139;
762.3000;0.6406;-0.0232;
762.6000;0.6422;-0.0139;
762.9000;0.6422;-0.0139;
763.2000;0.6431;-0.0046;
763.5000;0.6422;-0.0139;
763.8000;0.6439;-0.0162;
764.1000;0.6422;-0.0185;
764.4000;0.6406;-0.0232;
764.7000;0.6398;-0.0278;
765.0000;0.6431;-0.0162;
765.3000;0.6390;-0.0325;
765.6000;0.6414;-0.0255;
765.9000;0.6382;-0.0325;
766.2000;0.6398;-0.0209;
766.5000;0.6349;-0.0278;
766.8000;0.6439;-0.0116;
767.1000;0.6439;-0.0116;
767.4000;0.6398;-0.0209;
767.7000;0.6398;-0.0185;
768.0000;0.6406;-0.0232;
768.3000;0.6398;-0.0209;
768.6000;0.6406;-0.0185;
768.9000;0.6422;-0.0209;
769.2000;0.6398;-0.0232;
769.5000;0.6406;-0.0185;
769.8000;0.6398;-0.0162;
770.1000;0.6398;-0.0093;
770.4000;0.6398;-0.0162;
770.7000;0.6349;-0.0394;
771.0000;0.6374;-0.0325;
771.3000;0.6374;-0.0255;
771.6000;0.6390;-0.0255;
771.9000;0.6374;-0.0278;
772.2000;0.6357;-0.0325;
772.5000;0.6406;-0.0301;
772.8000;0.6390;-0.0441;
773.1000;0.6398;-0.0417;
773.4000;0.6374;-0.0441;
773.7000;0.6382;-0.0510;
774.0000;0.6382;-0.0441;
774.3000;0.6398;-0.0348;
774.6000;0.6374;-0.0301;
774.9000;0.6365;-0.0278;
775.2000;0.6382;-0.0255;
775.5000;0.6365;-0.0232;
775.8000;0.6374;-0.0185;
776.1000;0.6374;-0.0209;
776.4000;0.6365;-0.0209;
776.7000;0.6357;-0.0232;
777.0000;0.6325;-0.0348;
777.3000;0.6374;-0.0255;
777.6000;0.6357;-0.0209;
777.9000;0.6333;-0.0209;
778.2000;0.6390;-0.0139;
778.5000;0.6357;-0.0278;
778.8000;0.6374;-0.0185;
779.1000;0.6406;-0.0116;
779.4000;0.6365;-0.0116;
779.7000;0.6382;-0.0116;
780.0000;0.6382;-0.0162;
780.3000;0.6374;-0.0185;
780.6000;0.6365;-0.0232;
780.9000;0.6341;-0.0278;
781.2000;0.6341;-0.0278;
781.5000;0.6341;-0.0301;
781.8000;0.6406;-0.0185;
782.1000;0.6431;0.0000;
782.4000;0.6341;-0.0255;
782.7000;0.6349;-0.0185;
783.0000;0.6341;-0.0255;
783.3000;0.6406;-0.0046;
783.6000;0.6341;-0.0162;
783.9000;0.6317;-0.0232;
784.2000;0.6349;-0.0116;
784.5000;0.6333;-0.0093;
784.8000;0.6341;-0.0093;
785.1000;0.6333;-0.0046;
785.4000;0.6357;0.0000;
785.7000;0.6341;-0.0023;
786.0000;0.6333;-0.0070;
786.3000;0.6325;-0.0093;
786.6000;0.6325;-0.0070;
786.9000;0.6300;-0.0116;
787.2000;0.6325;-0.0162;
787.5000;0.6317;-0.0209;
787.8000;0.6325;-0.0185;
788.1000;0.6325;-0.0232;
788.4000;0.6341;-0.0255;
788.7000;0.6382;-0.0116;
789.0000;0.6341;-0.0301;
789.3000;0.6333;-0.0232;
789.6000;0.6349;-0.0185;
789.9000;0.6341;-0.0232;
790.2000;0.6341;-0.0232;
790.5000;0.6382;-0.0093;
790.8000;0.6333;-0.0232;
791.1000;0.6325;-0.0209;
791.4000;0.6309;-0.0255;
791.7000;0.6309;-0.0278;
792.0000;0.6325;-0.0278;
792.3000;0.6309;-0.0301;
792.6000;0.6300;-0.0325;
792.9000;0.6309;-0.0325;
793.2000;0.6317;-0.0301;
793.5000;0.6325;-0.0325;
793.8000;0.6325;-0.0325;
794.1000;0.6309;-0.0301;
794.4000;0.6309;-0.0232;
794.7000;0.6325;-0.0139;
795.0000;0.6317;-0.0232;
795.3000;0.6292;-0.0185;
795.6000;0.6325;-0.0185;
795.9000;0.6309;-0.0185;
796.2000;0.6317;-0.0232;
796.5000;0.6309;-0.0232;
796.8000;0.6317;-0.0162;
797.1000;0.6300;-0.0162;
797.4000;0.6309;-0.0232;
797.7000;0.6300;-0.0255;
798.0000;0.6317;-0.0255;
798.3000;0.6300;-0.0232;
798.6000;0.6309;-0.0162;
798.9000;0.6300;-0.0093;
799.2000;0.6341;0.0046;
799.5000;0.6325;0.0023;
799.8000;0.6317;-0.0046;
800.1000;0.6317;-0.0116;
800.4000;0.6300;-0.0162;
800.7000;0.6325;-0.0116;
801.0000;0.6317;-0.0162;
801.3000;0.6309;-0.0162;
801.6000;0.6300;-0.0116;
801.9000;0.6292;-0.0116;
802.2000;0.6317;-0.0162;
802.5000;0.6300;-0.0232;
802.8000;0.6276;-0.0162;
803.1000;0.6309;-0.0046;
803.4000;0.6317;-0.0046;
803.7000;0.6292;-0.0116;
804.0000;0.6300;-0.0116;
804.3000;0.6309;-0.0116;
804.6000;0.6325;-0.0070;
804.9000;0.6292;-0.0093;
805.2000;0.6309;-0.0070;
805.5000;0.6325;-0.0023;
805.8000;0.6349;0.0046;
806.1000;0.6292;-0.0093;
806.4000;0.6284;-0.0116;
806.7000;0.6268;-0.0139;
807.0000;0.6284;0.0023;
807.3000;0.6309;0.0023;
807.6000;0.6300;0.0000;
807.9000;0.6276;-0.0070;
808.2000;0.6268;-0.0093;
808.5000;0.6284;0.0023;
808.8000;0.6284;-0.0023;
809.1000;0.6260;-0.0116;
809.4000;0.6203;-0.0255;
809.7000;0.6260;-0.0116;
810.0000;0.6268;-0.0093;
810.3000;0.6284;-0.0116;
810.6000;0.6284;-0.0046;
810.9000;0.6284;-0.0070;
811.2000;0.6268;-0.0139;
811.5000;0.6300;-0.0093;
811.8000;0.6276;-0.0116;
812.1000;0.6260;-0.0185;
812.4000;0.6219;-0.0394;
812.7000;0.6268;-0.0278;
813.0000;0.6268;-0.0255;
813.3000;0.6260;-0.0255;
813.6000;0.6276;-0.0209;
813.9000;0.6276;-0.0209;
814.2000;0.6276;-0.0278;
814.5000;0.6243;-0.0348;
814.8000;0.6276;-0.0394;
815.1000;0.6268;-0.0325;
815.4000;0.6268;-0.0232;
815.7000;0.6268;-0.0185;
816.0000;0.6317;-0.0093;
816.3000;0.6268;-0.0162;
816.6000;0.6300;-0.0093;
816.9000;0.6252;-0.0255;
817.2000;0.6252;-0.0139;
817.5000;0.6260;-0.0093;
817.8000;0.6268;-0.0070;
818.1000;0.6252;-0.0162;
818.4000;0.6252;-0.0139;
818.7000;0.6268;-0.0046;
819.0000;0.6292;0.0093;
819.3000;0.6260;-0.0116;
819.6000;0.6219;-0.0255;
819.9000;0.6252;-0.0185;
820.2000;0.6268;-0.0162;
820.5000;0.6260;-0.0209;
820.8000;0.6243;-0.0278;
821.1000;0.6284;-0.0209;
821.4000;0.6268;-0.0209;
821.7000;0.6260;-0.0209;
822.0000;0.6235;-0.0185;
822.3000;0.6235;-0.0139;
822.6000;0.6252;-0.0162;
822.9000;0.6243;-0.0162;
823.2000;0.6203;-0.0209;
823.5000;0.6227;0.0000;
823.8000;0.6243;0.0046;
824.1000;0.6300;0.0139;
824.4000;0.6227;0.0000;
824.7000;0.6219;-0.0139;
825.0000;0.6219;-0.0162;
825.3000;0.6276;-0.0139;
825.6000;0.6235;-0.0232;
825.9000;0.6235;-0.0162;
826.2000;0.6300;-0.0116;
826.5000;0.6243;-0.0232;
826.8000;0.6252;-0.0209;
827.1000;0.6252;-0.0209;
827.4000;0.6243;-0.0232;
827.7000;0.6243;-0.0185;
828.0000;0.6243;-0.0139;
828.3000;0.6243;-0.0139;
828.6000;0.6154;-0.0325;
828.9000;0.6227;-0.0162;
829.2000;0.6235;-0.0070;
829.5000;0.6243;-0.0162;
829.8000;0.6243;-0.0093;
830.1000;0.6235;-0.0070;
830.4000;0.6235;-0.0023;
830.7000;0.6252;0.0023;
831.0000;0.6235;-0.0046;
831.3000;0.6211;-0.0116;
831.6000;0.6235;-0.0070;
831.9000;0.6235;-0.0070;
832.2000;0.6219;-0.0139;
832.5000;0.6219;-0.0162;
832.8000;0.6219;-0.0162;
833.1000;0.6235;-0.0232;
833.4000;0.6146;-0.0417;
833.7000;0.6219;-0.0232;
834.0000;0.6203;-0.0255;
834.3000;0.6162;-0.0371;
834.6000;0.6268;-0.0046;
834.9000;0.6203;-0.0185;
835.2000;0.6235;-0.0116;
835.5000;0.6203;-0.0162;
835.8000;0.6211;-0.0093;
836.1000;0.6219;-0.0139;
836.4000;0.6154;-0.0232;
836.7000;0.6219;-0.0070;
837.0000;0.6219;-0.0116;
837.3000;0.6211;-0.0116;
837.6000;0.6211;-0.0093;
837.9000;0.6268;0.0070;
838.2000;0.6227;0.0000;
838.5000;0.6211;0.0000;
838.8000;0.6211;-0.0093;
839.1000;0.6170;-0.0232;
839.4000;0.6203;-0.0116;
839.7000;0.6211;-0.0093;
840.0000;0.6195;-0.0070;
840.3000;0.6170;-0.0093;
840.6000;0.6211;-0.0070;
840.9000;0.6211;-0.0093;
841.2000;0.6219;-0.0046;
841.5000;0.6203;-0.0093;
841.8000;0.6268;-0.0070;
842.1000;0.6211;-0.0209;
842.4000;0.6203;-0.0232;
842.7000;0.6211;-0.0162;
843.0000;0.6203;-0.0255;
843.3000;0.6203;-0.0255;
843.6000;0.6203;-0.0255;
843.9000;0.6203;-0.0255;
844.2000;0.6203;-0.0301;
844.5000;0.6219;-0.0162;
844.8000;0.6195;-0.0209;
845.1000;0.6219;-0.0046;
845.4000;0.6195;-0.0116;
845.7000;0.6203;-0.0232;
846.0000;0.6227;-0.0255;
846.3000;0.6203;-0.0371;
846.6000;0.6211;-0.0371;
846.9000;0.6211;-0.0394;
847.2000;0.6211;-0.0325;
847.5000;0.6211;-0.0325;
847.8000;0.6211;-0.0394;
848.1000;0.6211;-0.0417;
848.4000;0.6211;-0.0464;
848.7000;0.6219;-0.0417;
849.0000;0.6219;-0.0394;
849.3000;0.6178;-0.0487;
849.6000;0.6268;-0.0232;
849.9000;0.6203;-0.0371;
850.2000;0.6195;-0.0394;
850.5000;0.6235;-0.0232;
850.8000;0.6138;-0.0417;
851.1000;0.6203;-0.0185;
851.4000;0.6252;-0.0162;
851.7000;0.6186;-0.0348;
852.0000;0.6195;-0.0325;
852.3000;0.6195;-0.0371;
852.6000;0.6211;-0.0301;
852.9000;0.6203;-0.0255;
853.2000;0.6170;-0.0255;
853.5000;0.6162;-0.0209;
853.8000;0.6195;-0.0139;
854.1000;0.6113;-0.0417;
854.4000;0.6211;-0.0185;
854.7000;0.6195;-0.0232;
855.0000;0.6186;-0.0185;
855.3000;0.6162;-0.0232;
855.6000;0.6154;-0.0301;
855.9000;0.6154;-0.0209;
856.2000;0.6186;-0.0185;
856.5000;0.6203;-0.0116;
856.8000;0.6170;-0.0162;
857.1000;0.6178;-0.0093;
857.4000;0.6186;-0.0046;
857.7000;0.6203;-0.0162;
858.0000;0.6195;-0.0185;
858.3000;0.6154;-0.0255;
858.6000;0.6178;-0.0162;
858.9000;0.6186;-0.0116;
859.2000;0.6162;-0.0162;
859.5000;0.6178;-0.0139;
859.8000;0.6170;-0.0209;
860.1000;0.6186;-0.0209;
860.4000;0.6211;-0.0162;
860.7000;0.6178;-0.0185;
861.0000;0.6162;-0.0209;
861.3000;0.6186;-0.0162;
861.6000;0.6178;-0.0139;
861.9000;0.6170;-0.0232;
862.2000;0.6162;-0.0255;
862.5000;0.6178;-0.0348;
862.8000;0.6178;-0.0255;
863.1000;0.6195;-0.0209;
863.4000;0.6186;-0.0232;
863.7000;0.6178;-0.0185;
864.0000;0.6178;-0.0209;
864.3000;0.6186;-0.0278;
864.6000;0.6178;-0.0348;
864.9000;0.6178;-0.0255;
865.2000;0.6186;-0.0232;
865.5000;0.6178;-0.0185;
865.8000;0.6178;-0.0139;
866.1000;0.6178;-0.0162;
866.4000;0.6162;-0.0209;
866.7000;0.6146;-0.0209;
867.0000;0.6113;-0.0278;
867.3000;0.6178;-0.0093;
867.6000;0.6170;-0.0023;
867.9000;0.6178;-0.0046;
868.2000;0.6170;-0.0046;
868.5000;0.6146;-0.0162;
868.8000;0.6170;-0.0093;
869.1000;0.6162;-0.0070;
869.4000;0.6146;-0.0070;
869.7000;0.6154;-0.0023;
870.0000;0.6170;-0.0023;
870.3000;0.6154;0.0023;
870.6000;0.6154;0.0046;
870.9000;0.6121;-0.0070;
871.2000;0.6154;0.0000;
871.5000;0.6162;0.0000;
871.8000;0.6162;-0.0046;
872.1000;0.6170;-0.0046;
872.4000;0.6146;-0.0116;
872.7000;0.6154;-0.0093;
873.0000;0.6211;0.0070;
873.3000;0.6097;-0.0185;
873.6000;0.6162;-0.0093;
873.9000;0.6154;-0.0162;
874.2000;0.6170;-0.0116;
874.5000;0.6203;-0.0023;
874.8000;0.6138;-0.0139;
875.1000;0.6129;-0.0185;
875.4000;0.6227;-0.0093;
875.7000;0.6129;-0.0348;
876.0000;0.6146;-0.0255;
876.3000;0.6097;-0.0348;
876.6000;0.6146;-0.0255;
876.9000;0.6162;-0.0185;
877.2000;0.6154;-0.0348;
877.5000;0.6129;-0.0325;
877.8000;0.6138;-0.0394;
878.1000;0.6170;-0.0325;
878.4000;0.6121;-0.0417;
878.7000;0.6138;-0.0371;
879.0000;0.6146;-0.0348;
879.3000;0.6154;-0.0394;
879.6000;0.6162;-0.0464;
879.9000;0.6154;-0.0464;
880.2000;0.6146;-0.0348;
880.5000;0.6138;-0.0278;
880.8000;0.6146;-0.0278;
881.1000;0.6178;-0.0093;
881.4000;0.6138;-0.0093;
881.7000;0.6146;-0.0023;
882.0000;0.6154;-0.0046;
882.3000;0.6146;-0.0139;
882.6000;0.6186;0.0070;
882.9000;0.6138;0.0046;
883.2000;0.6146;0.0070;
883.5000;0.6138;0.0093;
883.8000;0.6138;0.0185;
884.1000;0.6146;0.0116;
884.4000;0.6170;0.0162;
884.7000;0.6146;-0.0023;
885.0000;0.6146;-0.0046;
885.3000;0.6154;-0.0116;
885.6000;0.6138;-0.0093;
885.9000;0.6154;-0.0070;
886.2000;0.6146;-0.0046;
886.5000;0.6154;-0.0046;
886.8000;0.6146;-0.0070;
887.1000;0.6146;-0.0070;
887.4000;0.6146;-0.0139;
887.7000;0.6146;-0.0185;
888.0000;0.6129;-0.0139;
888.3000;0.6138;-0.0162;
888.6000;0.6154;-0.0185;
888.9000;0.6146;-0.0255;
889.2000;0.6121;-0.0301;
889.5000;0.6138;-0.0139;
889.8000;0.6138;-0.0139;
890.1000;0.6154;-0.0046;
890.4000;0.6129;-0.0139;
890.7000;0.6129;-0.0139;
891.0000;0.6170;-0.0093;
891.3000;0.6138;-0.0301;
891.6000;0.6178;-0.0232;
891.9000;0.6138;-0.0232;
892.2000;0.6146;-0.0232;
892.5000;0.6154;-0.0162;
892.8000;0.6121;-0.0139;
893.1000;0.6138;-0.0162;
893.4000;0.6129;-0.0116;
893.7000;0.6162;0.0023;
894.0000;0.6081;-0.0185;
894.3000;0.6146;0.0023;
894.6000;0.6138;-0.0023;
894.9000;0.6162;-0.0139;
895.2000;0.6105;-0.0232;
895.5000;0.6113;-0.0093;
895.8000;0.6203;0.0255;
896.1000;0.6138;-0.0023;
896.4000;0.6170;0.0000;
896.7000;0.6129;-0.0093;
897.0000;0.6129;-0.0116;
897.3000;0.6129;-0.0116;
897.6000;0.6113;-0.0162;
897.9000;0.6129;-0.0162;
898.2000;0.6105;-0.0162;
898.5000;0.6138;-0.0093;
898.8000;0.6097;-0.0162;
899.1000;0.6146;-0.0023;
899.4000;0.6121;-0.0116;
899.7000;0.6186;0.0046;
900.0000;0.6121;-0.0162;
900.3000;0.6105;-0.0185;
900.6000;0.6170;-0.0046;
900.9000;0.6129;-0.0093;
901.2000;0.6146;-0.0093;
901.5000;0.6138;-0.0070;
901.8000;0.6121;-0.0093;
902.1000;0.6129;-0.0093;
902.4000;0.6138;-0.0046;
902.7000;0.6138;-0.0046;
903.0000;0.6121;-0.0023;
903.3000;0.6113;0.0023;
903.6000;0.6146;0.0116;
903.9000;0.6121;0.0139;
904.2000;0.6129;0.0046;
904.5000;0.6121;0.0000;
904.8000;0.6129;-0.0023;
905.1000;0.6138;0.0046;
905.4000;0.6064;-0.0116;
905.7000;0.6113;-0.0023;
906.0000;0.6121;0.0046;
906.3000;0.6138;0.0046;
906.6000;0.6138;0.0070;
906.9000;0.6097;0.0046;
907.2000;0.6097;0.0093;
907.5000;0.6097;0.0116;
907.8000;0.6129;0.0139;
908.1000;0.6105;0.0185;
908.4000;0.6113;0.0116;
908.7000;0.6113;0.0046;
909.0000;0.6113;0.0000;
909.3000;0.6121;-0.0046;
909.6000;0.6097;-0.0116;
909.9000;0.6105;-0.0139;
910.2000;0.6113;-0.0185;
910.5000;0.6105;-0.0278;
910.8000;0.6113;-0.0301;
911.1000;0.6105;-0.0325;
911.4000;0.6113;-0.0209;
911.7000;0.6121;-0.0116;
912.0000;0.6089;-0.0093;
912.3000;0.6121;0.0046;
912.6000;0.6113;-0.0023;
912.9000;0.6113;0.0023;
913.2000;0.6113;0.0000;
913.5000;0.6113;-0.0046;
913.8000;0.6113;-0.0046;
914.1000;0.6105;-0.0046;
914.4000;0.6081;-0.0093;
914.7000;0.6105;-0.0070;
915.0000;0.6129;0.0046;
915.3000;0.6113;-0.0046;
915.6000;0.6162;0.0000;
915.9000;0.6040;-0.0232;
916.2000;0.6097;-0.0070;
916.5000;0.6081;-0.0070;
916.8000;0.6089;-0.0046;
917.1000;0.6056;-0.0139;
917.4000;0.6081;-0.0046;
917.7000;0.6097;0.0000;
918.0000;0.6089;0.0023;
918.3000;0.6072;-0.0116;
918.6000;0.6105;-0.0070;
918.9000;0.6113;-0.0070;
919.2000;0.6105;-0.0046;
919.5000;0.6105;-0.0070;
919.8000;0.6113;-0.0070;
920.1000;0.6097;-0.0116;
920.4000;0.6121;0.0000;
920.7000;0.6138;0.0023;
921.0000;0.6121;0.0000;
921.3000;0.6056;-0.0093;
921.6000;0.6113;0.0116;
921.9000;0.6113;0.0046;
922.2000;0.6081;-0.0046;
922.5000;0.6105;-0.0023;
922.8000;0.6162;0.0116;
923.1000;0.6097;0.0093;
923.4000;0.6097;0.0093;
923.7000;0.6097;0.0000;
924.0000;0.6097;0.0000;
924.3000;0.6105;0.0000;
924.6000;0.6097;-0.0116;
924.9000;0.6081;-0.0209;
925.2000;0.6097;-0.0255;
925.5000;0.6105;-0.0139;
925.8000;0.6105;0.0000;
926.1000;0.6089;0.0000;
926.4000;0.6097;0.0046;
926.7000;0.6089;0.0116;
927.0000;0.6105;0.0116;
927.3000;0.6105;0.0093;
927.6000;0.6162;0.0278;
927.9000;0.6089;0.0116;
928.2000;0.6097;0.0232;
928.5000;0.6097;0.0209;
928.8000;0.6081;0.0093;
929.1000;0.6072;-0.0046;
929.4000;0.6097;-0.0046;
929.7000;0.6097;-0.0023;
930.0000;0.6097;-0.0093;
930.3000;0.6089;-0.0070;
930.6000;0.6105;-0.0023;
930.9000;0.6113;-0.0093;
931.2000;0.6089;-0.0093;
931.5000;0.6081;-0.0139;
931.8000;0.6081;-0.0116;
932.1000;0.6089;-0.0116;
932.4000;0.6097;-0.0162;
932.7000;0.6105;-0.0162;
933.0000;0.6072;-0.0093;
933.3000;0.6113;-0.0046;
933.6000;0.6097;0.0046;
933.9000;0.6089;-0.0023;
934.2000;0.6089;-0.0046;
934.5000;0.6097;-0.0093;
934.8000;0.6097;-0.0209;
935.1000;0.6081;-0.0301;
935.4000;0.6081;-0.0325;
935.7000;0.6089;-0.0255;
936.0000;0.6097;-0.0301;
936.3000;0.6089;-0.0325;
936.6000;0.6097;-0.0255;
936.9000;0.6097;-0.0185;
937.2000;0.6089;-0.0232;
937.5000;0.6089;-0.0232;
937.8000;0.6081;-0.0116;
938.1000;0.6024;-0.0232;
938.4000;0.6064;-0.0070;
938.7000;0.6089;-0.0023;
939.0000;0.6064;-0.0139;
939.3000;0.6072;-0.0116;
939.6000;0.6048;-0.0232;
939.9000;0.6081;-0.0162;
940.2000;0.6081;-0.0185;
940.5000;0.6081;-0.0093;
940.8000;0.6040;-0.0093;
941.1000;0.6129;0.0162;
941.4000;0.6032;0.0023;
941.7000;0.6081;0.0070;
942.0000;0.6064;0.0000;
942.3000;0.6081;-0.0023;
942.6000;0.6072;-0.0139;
942.9000;0.6064;-0.0232;
943.2000;0.6072;-0.0232;
943.5000;0.6081;-0.0209;
943.8000;0.6072;-0.0139;
944.1000;0.6113;-0.0046;
944.4000;0.6081;-0.0162;
944.7000;0.6105;-0.0209;
945.0000;0.6105;-0.0162;
945.3000;0.6081;-0.0185;
945.6000;0.6081;-0.0232;
945.9000;0.6081;-0.0139;
946.2000;0.6089;-0.0162;
946.5000;0.6089;-0.0185;
946.8000;0.6081;-0.0232;
947.1000;0.6097;-0.0070;
947.4000;0.6097;-0.0023;
947.7000;0.6081;-0.0070;
948.0000;0.6072;-0.0139;
948.3000;0.6048;-0.0162;
948.6000;0.6072;-0.0093;
948.9000;0.6089;-0.0023;
949.2000;0.6072;-0.0070;
949.5000;0.6081;-0.0162;
949.8000;0.6081;-0.0093;
950.1000;0.6081;-0.0093;
950.4000;0.6113;0.0046;
950.7000;0.6072;-0.0070;
951.0000;0.6064;-0.0139;
951.3000;0.6056;-0.0139;
951.6000;0.6089;-0.0046;
951.9000;0.6064;0.0000;
952.2000;0.6081;-0.0070;
952.5000;0.6040;-0.0209;
952.8000;0.6072;-0.0070;
953.1000;0.6056;-0.0023;
953.4000;0.6064;0.0070;
953.7000;0.6064;-0.0023;
954.0000;0.6072;0.0070;
954.3000;0.6081;0.0116;
954.6000;0.6048;0.0070;
954.9000;0.6081;0.0139;
955.2000;0.6089;0.0162;
955.5000;0.6097;0.0209;
955.8000;0.6081;0.0185;
956.1000;0.6056;0.0070;
956.4000;0.6089;0.0093;
956.7000;0.6072;0.0046;
957.0000;0.6056;0.0070;
957.3000;0.6097;0.0185;
957.6000;0.6089;0.0255;
957.9000;0.6072;0.0209;
958.2000;0.6072;0.0232;
958.5000;0.6081;0.0301;
958.8000;0.6064;0.0301;
959.1000;0.6056;0.0278;
959.4000;0.6089;0.0185;
959.7000;0.6089;0.0139;
960.0000;0.6072;0.0116;
960.3000;0.6081;0.0093;
960.6000;0.6056;0.0070;
960.9000;0.6048;0.0116;
961.2000;0.6056;0.0232;
961.5000;0.6064;0.0232;
961.8000;0.6040;0.0209;
962.1000;0.6081;0.0209;
962.4000;0.6024;0.0139;
962.7000;0.6048;0.0093;
963.0000;0.6024;0.0000;
963.3000;0.6032;-0.0023;
963.6000;0.6040;-0.0093;
963.9000;0.6048;-0.0093;
964.2000;0.5975;-0.0278;
964.5000;0.6048;-0.0070;
964.8000;0.6048;-0.0023;
965.1000;0.6048;0.0046;
965.4000;0.6064;0.0070;
965.7000;0.5999;-0.0116;
966.0000;0.6056;0.0046;
966.3000;0.5999;-0.0162;
966.6000;0.6064;-0.0093;
966.9000;0.6064;-0.0093;
967.2000;0.6048;-0.0093;
967.5000;0.6048;-0.0162;
967.8000;0.6064;-0.0093;
968.1000;0.6081;-0.0046;
968.4000;0.6048;-0.0185;
968.7000;0.6064;-0.0209;
969.0000;0.6064;-0.0185;
969.3000;0.6138;0.0070;
969.6000;0.6064;-0.0046;
969.9000;0.6064;-0.0023;
970.2000;0.6048;0.0023;
970.5000;0.6064;0.0070;
970.8000;0.6072;0.0046;
971.1000;0.6032;-0.0093;
971.4000;0.6064;-0.0116;
971.7000;0.6064;-0.0046;
972.0000;0.6056;-0.0070;
972.3000;0.6089;-0.0046;
972.6000;0.6056;-0.0116;
972.9000;0.6056;-0.0093;
973.2000;0.6056;-0.0162;
973.5000;0.6064;-0.0116;
973.8000;0.6056;-0.0116;
974.1000;0.6056;-0.0070;
974.4000;0.6024;-0.0046;
974.7000;0.6040;0.0070;
975.0000;0.6040;0.0046;
975.3000;0.6048;0.0023;
975.6000;0.6048;0.0046;
975.9000;0.6056;0.0116;
976.2000;0.6048;0.0093;
976.5000;0.6040;0.0185;
976.8000;0.6032;0.0232;
977.1000;0.6040;0.0139;
977.4000;0.6064;0.0116;
977.7000;0.6056;0.0070;
978.0000;0.6048;0.0000;
978.3000;0.6024;-0.0093;
978.6000;0.6048;-0.0023;
978.9000;0.6048;-0.0046;
979.2000;0.6056;-0.0070;
979.5000;0.6056;-0.0139;
979.8000;0.6048;-0.0070;
980.1000;0.6040;-0.0139;
980.4000;0.6024;-0.0185;
980.7000;0.6040;-0.0162;
981.0000;0.6040;-0.0139;
981.3000;0.6015;-0.0255;
981.6000;0.6097;-0.0046;
981.9000;0.6081;-0.0116;
982.2000;0.6056;-0.0209;
982.5000;0.6081;-0.0139;
982.8000;0.6032;-0.0232;
983.1000;0.6032;-0.0185;
983.4000;0.6015;-0.0185;
983.7000;0.6056;-0.0070;
984.0000;0.6056;0.0046;
984.3000;0.6048;0.0093;
984.6000;0.6056;0.0093;
984.9000;0.6032;0.0046;
985.2000;0.6040;0.0139;
985.5000;0.6048;0.0139;
985.8000;0.6048;0.0162;
986.1000;0.6105;0.0325;
986.4000;0.6048;0.0209;
986.7000;0.6040;0.0162;
987.0000;0.6040;0.0046;
987.3000;0.6048;0.0116;
987.6000;0.6040;0.0046;
987.9000;0.6007;-0.0023;
988.2000;0.6048;-0.0023;
988.5000;0.6056;0.0000;
988.8000;0.6024;0.0000;
989.1000;0.6007;-0.0046;
989.4000;0.6072;0.0185;
989.7000;0.6040;0.0162;
990.0000;0.6048;0.0209;
990.3000;0.6015;0.0116;
990.6000;0.6040;0.0162;
990.9000;0.6048;0.0116;
991.2000;0.6105;0.0325;
991.5000;0.6040;0.0185;
991.8000;0.6032;0.0209;
992.1000;0.6032;0.0232;
992.4000;0.6048;0.0209;
992.7000;0.6040;0.0209;
993.0000;0.6056;0.0348;
993.3000;0.6048;0.0278;
993.6000;0.6072;0.0301;
993.9000;0.6064;0.0255;
994.2000;0.6040;0.0209;
994.5000;0.6048;0.0162;
994.8000;0.6072;0.0278;
995.1000;0.6056;0.0209;
995.4000;0.6040;0.0209;
995.7000;0.6032;0.0162;
996.0000;0.6040;0.0209;
996.3000;0.6056;0.0209;
996.6000;0.6032;0.0139;
996.9000;0.6040;0.0023;
997.2000;0.6024;0.0000;
997.5000;0.6048;0.0023;
997.8000;0.6040;0.0046;
998.1000;0.6015;0.0000;
998.4000;0.6024;0.0093;
998.7000;0.6040;0.0070;
999.0000;0.6040;0.0023;
999.3000;0.6040;0.0070;
999.6000;0.6040;0.0070;
999.9000;0.6089;0.0139;
1000.2000;0.6032;0.0070;
1000.5000;0.6040;0.0093;
1000.8000;0.6032;0.0093;
1001.1000;0.6040;0.0139;
1001.4000;0.6097;0.0278;
1001.7000;0.6024;0.0116;
1002.0000;0.6024;0.0093;
1002.3000;0.6032;0.0116;
1002.6000;0.6024;0.0046;
1002.9000;0.6032;0.0046;
1003.2000;0.6007;-0.0093;
1003.5000;0.6024;-0.0093;
1003.8000;0.6024;0.0000;
1004.1000;0.6032;0.0093;
1004.4000;0.6007;0.0070;
1004.7000;0.5999;0.0000;
1005.0000;0.6015;0.0070;
1005.3000;0.6007;0.0046;
1005.6000;0.6015;0.0093;
1005.9000;0.6024;0.0116;
1006.2000;0.6048;0.0162;
1006.5000;0.6040;0.0162;
1006.8000;0.5991;0.0139;
1007.1000;0.6040;0.0255;
1007.4000;0.6040;0.0301;
1007.7000;0.5950;0.0116;
1008.0000;0.6040;0.0371;
1008.3000;0.6032;0.0348;
1008.6000;0.6048;0.0185;
1008.9000;0.6024;0.0139;
1009.2000;0.6072;0.0185;
1009.5000;0.6040;0.0070;
1009.8000;0.6032;0.0070;
1010.1000;0.5991;0.0093;
1010.4000;0.6056;0.0278;
1010.7000;0.6024;0.0209;
1011.0000;0.6015;0.0139;
1011.3000;0.6032;0.0185;
1011.6000;0.6024;0.0209;
1011.9000;0.6040;0.0278;
1012.2000;0.6024;0.0255;
1012.5000;0.6040;0.0278;
1012.8000;0.6032;0.0232;
1013.1000;0.6015;0.0185;
1013.4000;0.6024;0.0116;
1013.7000;0.6032;0.0046;
1014.0000;0.6048;0.0070;
1014.3000;0.5999;-0.0116;
1014.6000;0.6048;-0.0023;
1014.9000;0.6015;0.0000;
1015.2000;0.5991;-0.0046;
1015.5000;0.6040;0.0023;
1015.8000;0.6024;0.0070;
1016.1000;0.6007;0.0046;
1016.4000;0.6024;0.0116;
1016.7000;0.6007;0.0070;
1017.0000;0.6032;0.0046;
1017.3000;0.6032;0.0046;
1017.6000;0.6007;0.0000;
1017.9000;0.6040;0.0070;
1018.2000;0.6032;0.0000;
1018.5000;0.6007;-0.0023;
1018.8000;0.6032;0.0000;
1019.1000;0.6015;-0.0046;
1019.4000;0.6015;-0.0023;
1019.7000;0.6056;0.0116;
1020.0000;0.6032;0.0070;
1020.3000;0.5999;0.0046;
1020.6000;0.6015;0.0093;
1020.9000;0.6040;0.0232;
1021.2000;0.6032;0.0185;
1021.5000;0.6024;0.0162;
1021.8000;0.6024;0.0162;
1022.1000;0.6015;0.0209;
1022.4000;0.6032;0.0209;
1022.7000;0.6015;0.0139;
1023.0000;0.6024;0.0139;
1023.3000;0.6040;0.0232;
1023.6000;0.6015;0.0232;
1023.9000;0.6064;0.0232;
1024.2000;0.6032;0.0185;
1024.5000;0.6015;0.0185;
1024.8000;0.6015;0.0255;
1025.1000;0.5999;0.0255;
1025.4000;0.6015;0.0255;
1025.7000;0.5999;0.0255;
1026.0000;0.5991;0.0232;
1026.3000;0.6007;0.0255;
1026.6000;0.6007;0.0301;
1026.9000;0.5999;0.0325;
1027.2000;0.6032;0.0348;
1027.5000;0.6007;0.0278;
1027.8000;0.6015;0.0301;
1028.1000;0.6015;0.0278;
1028.4000;0.6024;0.0278;
1028.7000;0.6032;0.0371;
1029.0000;0.5999;0.0394;
1029.3000;0.6048;0.0394;
1029.6000;0.6015;0.0232;
1029.9000;0.6015;0.0209;
1030.2000;0.6048;0.0255;
1030.5000;0.6024;0.0209;
1030.8000;0.6007;0.0162;
1031.1000;0.6015;0.0232;
1031.4000;0.6007;0.0185;
1031.7000;0.6007;0.0116;
1032.0000;0.5975;0.0070;
1032.3000;0.6007;0.0209;
1032.6000;0.6007;0.0185;
1032.9000;0.6015;0.0232;
1033.2000;0.6007;0.0209;
1033.5000;0.6007;0.0209;
1033.8000;0.6024;0.0185;
1034.1000;0.5975;0.0070;
1034.4000;0.6007;0.0139;
1034.7000;0.5999;0.0232;
1035.0000;0.5975;0.0185;
1035.3000;0.6015;0.0278;
1035.6000;0.5991;0.0255;
1035.9000;0.5999;0.0162;
1036.2000;0.6007;0.0070;
1036.5000;0.6024;0.0139;
1036.8000;0.6007;0.0070;
1037.1000;0.6007;0.0209;
1037.4000;0.6007;0.0185;
1037.7000;0.6015;0.0162;
1038.0000;0.6007;0.0162;
1038.3000;0.6015;0.0162;
1038.6000;0.6015;0.0162;
1038.9000;0.6024;0.0232;
1039.2000;0.6024;0.0232;
1039.5000;0.6024;0.0162;
1039.8000;0.6015;0.0255;
1040.1000;0.6024;0.0139;
1040.4000;0.6007;0.0116;
1040.7000;0.6007;0.0070;
1041.0000;0.6015;0.0046;
1041.3000;0.6015;0.0093;
1041.6000;0.6015;0.0139;
1041.9000;0.5999;0.0139;
1042.2000;0.5999;0.0070;
1042.5000;0.6015;0.0116;
1042.8000;0.6015;0.0093;
1043.1000;0.5999;0.0046;
1043.4000;0.6024;0.0139;
1043.7000;0.6007;0.0185;
1044.0000;0.6007;0.0209;
1044.3000;0.6007;0.0162;
1044.6000;0.5991;0.0185;
1044.9000;0.5991;0.0278;
1045.2000;0.5991;0.0371;
1045.5000;0.5991;0.0348;
1045.8000;0.5991;0.0325;
1046.1000;0.6007;0.0278;
1046.4000;0.6072;0.0348;
1046.7000;0.6007;0.0162;
1047.0000;0.5999;0.0093;
1047.3000;0.5991;0.0070;
1047.6000;0.6007;0.0023;
1047.9000;0.6007;-0.0070;
1048.2000;0.6015;-0.0023;
1048.5000;0.6015;-0.0093;
1048.8000;0.6007;-0.0046;
1049.1000;0.6024;0.0000;
1049.4000;0.6040;0.0139;
1049.7000;0.6007;0.0093;
1050.0000;0.6015;0.0093;
1050.3000;0.6032;0.0162;
1050.6000;0.5999;0.0093;
1050.9000;0.6007;0.0046;
1051.2000;0.6007;0.0070;
1051.5000;0.6007;0.0162;
1051.8000;0.5999;0.0209;
1052.1000;0.5991;0.0139;
1052.4000;0.5991;0.0116;
1052.7000;0.5999;0.0209;
1053.0000;0.6048;0.0394;
1053.3000;0.5991;0.0278;
1053.6000;0.5958;0.0278;
1053.9000;0.5999;0.0301;
1054.2000;0.6007;0.0301;
1054.5000;0.5999;0.0371;
1054.8000;0.6007;0.0325;
1055.1000;0.5999;0.0325;
1055.4000;0.6007;0.0348;
1055.7000;0.5983;0.0278;
1056.0000;0.5991;0.0255;
1056.3000;0.6015;0.0325;
1056.6000;0.5999;0.0255;
1056.9000;0.5991;0.0232;
1057.2000;0.5991;0.0232;
1057.5000;0.5999;0.0185;
1057.8000;0.5991;0.0209;
1058.1000;0.5991;0.0209;
1058.4000;0.6015;0.0209;
1058.7000;0.5983;0.0232;
1059.0000;0.6040;0.0371;
1059.3000;0.6007;0.0301;
1059.6000;0.6007;0.0232;
1059.9000;0.5999;0.0185;
1060.2000;0.6015;0.0255;
1060.5000;0.5991;0.0278;
1060.8000;0.5999;0.0394;
1061.1000;0.5999;0.0464;
1061.4000;0.5967;0.0325;
1061.7000;0.5999;0.0325;
1062.0000;0.6015;0.0348;
1062.3000;0.6007;0.0441;
1062.6000;0.5991;0.0348;
1062.9000;0.5999;0.0371;
1063.2000;0.5991;0.0394;
1063.5000;0.5967;0.0348;
1063.8000;0.5983;0.0348;
1064.1000;0.5958;0.0301;
1064.4000;0.5958;0.0232;
1064.7000;0.5999;0.0371;
1065.0000;0.6007;0.0441;
1065.3000;0.5991;0.0487;
1065.6000;0.5983;0.0464;
1065.9000;0.5999;0.0371;
1066.2000;0.5999;0.0325;
1066.5000;0.5991;0.0255;
1066.8000;0.5983;0.0209;
1067.1000;0.5958;0.0162;
1067.4000;0.5926;-0.0023;
1067.7000;0.5967;0.0023;
1068.0000;0.5991;0.0023;
1068.3000;0.5999;0.0046;
1068.6000;0.5991;0.0046;
1068.9000;0.5999;0.0046;
1069.2000;0.6007;0.0093;
1069.5000;0.5942;-0.0046;
1069.8000;0.5991;0.0023;
1070.1000;0.5991;-0.0070;
1070.4000;0.5983;-0.0070;
1070.7000;0.6015;0.0000;
1071.0000;0.5975;-0.0232;
1071.3000;0.5991;-0.0093;
1071.6000;0.5999;-0.0116;
1071.9000;0.5999;-0.0209;
1072.2000;0.5975;-0.0209;
1072.5000;0.5999;-0.0139;
1072.8000;0.5991;-0.0139;
1073.1000;0.5999;-0.0070;
1073.4000;0.6024;-0.0023;
1073.7000;0.5999;0.0046;
1074.0000;0.5983;0.0070;
1074.3000;0.6007;0.0162;
1074.6000;0.6015;0.0232;
1074.9000;0.5999;0.0232;
1075.2000;0.5983;0.0209;
1075.5000;0.5991;0.0209;
1075.8000;0.5975;0.0232;
1076.1000;0.5991;0.0232;
1076.4000;0.6007;0.0255;
1076.7000;0.5999;0.0185;
1077.0000;0.5991;0.0232;
1077.3000;0.6007;0.0209;
1077.6000;0.6007;0.0255;
1077.9000;0.6007;0.0278;
1078.2000;0.5999;0.0301;
1078.5000;0.5999;0.0371;
1078.8000;0.5991;0.0278;
1079.1000;0.5983;0.0209;
1079.4000;0.5975;0.0185;
1079.7000;0.5975;0.0116;
1080.0000;0.5999;0.0139;
1080.3000;0.5983;0.0139;
1080.6000;0.5926;-0.0023;
1080.9000;0.5975;0.0162;
1081.2000;0.5991;0.0209;
1081.5000;0.6015;0.0278;
1081.8000;0.6007;0.0348;
1082.1000;0.6040;0.0417;
1082.4000;0.5991;0.0278;
1082.7000;0.6007;0.0301;
1083.0000;0.5967;0.0348;
1083.3000;0.6032;0.0533;
1083.6000;0.5999;0.0441;
1083.9000;0.5991;0.0487;
1084.2000;0.5983;0.0441;
1084.5000;0.5975;0.0417;
1084.8000;0.6048;0.0510;
1085.1000;0.5958;0.0301;
1085.4000;0.5999;0.0417;
1085.7000;0.5967;0.0394;
1086.0000;0.5983;0.0394;
1086.3000;0.5926;0.0209;
1086.6000;0.6015;0.0487;
1086.9000;0.5983;0.0417;
1087.2000;0.5999;0.0394;
1087.5000;0.6007;0.0417;
1087.8000;0.5999;0.0348;
1088.1000;0.5950;0.0325;
1088.4000;0.5950;0.0348;
1088.7000;0.5999;0.0417;
1089.0000;0.5991;0.0371;
1089.3000;0.5983;0.0394;
1089.6000;0.5926;0.0232;
1089.9000;0.5975;0.0325;
1090.2000;0.5958;0.0325;
1090.5000;0.5983;0.0348;
1090.8000;0.5942;0.0185;
1091.1000;0.5975;0.0325;
1091.4000;0.5991;0.0325;
1091.7000;0.5902;0.0070;
1092.0000;0.5999;0.0209;
1092.3000;0.5991;0.0232;
1092.6000;0.5983;0.0255;
1092.9000;0.6064;0.0464;
1093.2000;0.5975;0.0301;
1093.5000;0.5958;0.0301;
1093.8000;0.5983;0.0255;
1094.1000;0.5983;0.0255;
1094.4000;0.6040;0.0301;
1094.7000;0.5983;0.0185;
1095.0000;0.5918;0.0046;
1095.3000;0.5999;0.0232;
1095.6000;0.5983;0.0139;
1095.9000;0.5983;0.0209;
1096.2000;0.5975;0.0139;
1096.5000;0.5991;0.0185;
1096.8000;0.5975;0.0162;
1097.1000;0.5975;0.0093;
1097.4000;0.5967;0.0116;
1097.7000;0.6007;0.0162;
1098.0000;0.5991;0.0070;
1098.3000;0.5983;-0.0046;
1098.6000;0.5967;-0.0070;
1098.9000;0.5999;-0.0070;
1099.2000;0.5942;-0.0209;
1099.5000;0.5999;-0.0023;
1099.8000;0.5975;-0.0046;
1100.1000;0.5975;-0.0070;
1100.4000;0.5975;-0.0116;
1100.7000;0.5967;-0.0116;
1101.0000;0.5999;-0.0046;
1101.3000;0.5991;-0.0070;
1101.6000;0.5983;-0.0070;
1101.9000;0.5991;-0.0023;
1102.2000;0.5999;0.0116;
1102.5000;0.6007;0.0162;
1102.8000;0.5983;0.0116;
1103.1000;0.6015;0.0162;
1103.4000;0.5999;0.0116;
1103.7000;0.5975;0.0070;
1104.0000;0.5983;0.0093;
1104.3000;0.5983;0.0116;
1104.6000;0.5958;0.0046;
1104.9000;0.5958;0.0046;
1105.2000;0.5926;0.0023;
1105.5000;0.5975;0.0046;
1105.8000;0.5983;0.0023;
1106.1000;0.5967;0.0000;
1106.4000;0.5910;-0.0162;
1106.7000;0.5999;0.0070;
1107.0000;0.5975;0.0046;
1107.3000;0.6032;0.0162;
1107.6000;0.5991;0.0046;
1107.9000;0.5991;0.0046;
1108.2000;0.5991;0.0070;
1108.5000;0.5991;0.0046;
1108.8000;0.6056;0.0232;
1109.1000;0.5983;0.0023;
1109.4000;0.5983;0.0046;
1109.7000;0.5991;0.0070;
1110.0000;0.5983;0.0070;
1110.3000;0.5983;0.0093;
1110.6000;0.5983;0.0162;
1110.9000;0.5975;0.0139;
1111.2000;0.5991;0.0070;
1111.5000;0.5958;-0.0046;
1111.8000;0.5983;-0.0070;
1112.1000;0.5975;-0.0139;
1112.4000;0.5991;-0.0162;
1112.7000;0.5983;-0.0046;
1113.0000;0.5967;-0.0116;
1113.3000;0.5991;-0.0116;
1113.6000;0.5975;-0.0093;
1113.9000;0.5958;-0.0070;
1114.2000;0.5967;-0.0070;
1114.5000;0.5967;0.0000;
1114.8000;0.5967;-0.0023;
1115.1000;0.5950;-0.0093;
1115.4000;0.5918;-0.0185;
1115.7000;0.5999;-0.0093;
1116.0000;0.5958;-0.0185;
1116.3000;0.5975;-0.0209;
1116.6000;0.5967;-0.0255;
1116.9000;0.5975;-0.0209;
1117.2000;0.5991;-0.0162;
1117.5000;0.5991;-0.0139;
1117.8000;0.5983;-0.0139;
1118.1000;0.6048;0.0093;
1118.4000;0.5999;-0.0023;
1118.7000;0.5975;-0.0023;
1119.0000;0.5991;-0.0023;
1119.3000;0.5975;-0.0023;
1119.6000;0.5975;0.0093;
1119.9000;0.5975;0.0023;
1120.2000;0.5991;-0.0023;
1120.5000;0.5983;-0.0093;
1120.8000;0.5975;-0.0093;
1121.1000;0.5975;-0.0070;
1121.4000;0.5975;-0.0046;
1121.7000;0.6007;0.0000;
1122.0000;0.5975;-0.0093;
1122.3000;0.5967;-0.0209;
1122.6000;0.5983;-0.0139;
1122.9000;0.5983;-0.0209;
1123.2000;0.5991;-0.0185;
1123.5000;0.5950;-0.0209;
1123.8000;0.5991;-0.0139;
1124.1000;0.5975;-0.0139;
1124.4000;0.5983;-0.0093;
1124.7000;0.5983;-0.0139;
1125.0000;0.5958;-0.0162;
1125.3000;0.5958;-0.0139;
1125.6000;0.5958;-0.0139;
1125.9000;0.5975;-0.0116;
1126.2000;0.5983;-0.0093;
1126.5000;0.5958;-0.0023;
1126.8000;0.5967;-0.0070;
1127.1000;0.5910;-0.0185;
1127.4000;0.5983;-0.0046;
1127.7000;0.5975;-0.0139;
1128.0000;0.5926;-0.0325;
1128.3000;0.5975;-0.0185;
1128.6000;0.5983;-0.0185;
1128.9000;0.5975;-0.0116;
1129.2000;0.5934;-0.0139;
1129.5000;0.5967;0.0000;
1129.8000;0.5975;0.0046;
1130.1000;0.5983;0.0070;
1130.4000;0.5991;0.0185;
1130.7000;0.5950;0.0116;
1131.0000;0.5975;0.0185;
1131.3000;0.5983;0.0139;
1131.6000;0.5967;0.0046;
1131.9000;0.5967;-0.0023;
1132.2000;0.5958;-0.0139;
1132.5000;0.5975;-0.0046;
1132.8000;0.5967;-0.0023;
1133.1000;0.5958;-0.0046;
1133.4000;0.5958;-0.0070;
1133.7000;0.5958;-0.0116;
1134.0000;0.5967;-0.0116;
1134.3000;0.5958;-0.0093;
1134.6000;0.5958;-0.0093;
1134.9000;0.5967;-0.0139;
1135.2000;0.5983;-0.0139;
1135.5000;0.5975;-0.0162;
1135.8000;0.5983;-0.0139;
1136.1000;0.5991;-0.0070;
1136.4000;0.5999;-0.0023;
1136.7000;0.5958;-0.0046;
1137.0000;0.5975;0.0046;
1137.3000;0.5967;0.0023;
1137.6000;0.5958;0.0000;
1137.9000;0.6007;0.0046;
1138.2000;0.5983;-0.0070;
1138.5000;0.6024;0.0000;
1138.8000;0.5975;-0.0116;
1139.1000;0.5967;-0.0209;
1139.4000;0.5991;-0.0093;
1139.7000;0.5975;-0.0116;
1140.0000;0.5967;-0.0116;
1140.3000;0.5975;-0.0046;
1140.6000;0.5967;-0.0093;
1140.9000;0.5902;-0.0278;
1141.2000;0.5950;-0.0139;
1141.5000;0.5975;-0.0139;
1141.8000;0.5967;-0.0185;
1142.1000;0.5967;-0.0278;
1142.4000;0.5958;-0.0255;
1142.7000;0.5967;-0.0209;
1143.0000;0.5967;-0.0209;
1143.3000;0.5950;-0.0301;
1143.6000;0.5950;-0.0255;
1143.9000;0.5950;-0.0185;
1144.2000;0.5975;-0.0185;
1144.5000;0.5967;-0.0162;
1144.8000;0.5967;-0.0116;
1145.1000;0.5975;0.0023;
1145.4000;0.5975;0.0116;
1145.7000;0.5999;0.0139;
1146.0000;0.5958;0.0023;
1146.3000;0.5999;0.0139;
1146.6000;0.5975;0.0046;
1146.9000;0.5975;-0.0023;
1147.2000;0.5967;0.0000;
1147.5000;0.5967;-0.0070;
1147.8000;0.5950;-0.0162;
1148.1000;0.5975;-0.0139;
1148.4000;0.5983;0.0000;
1148.7000;0.6024;0.0185;
1149.0000;0.5967;0.0046;
1149.3000;0.5967;-0.0023;
1149.6000;0.5967;-0.0023;
1149.9000;0.5958;-0.0046;
1150.2000;0.5967;-0.0093;
1150.5000;0.5975;-0.0093;
1150.8000;0.5967;-0.0070;
1151.1000;0.5975;0.0000;
1151.4000;0.5967;-0.0070;
1151.7000;0.5950;0.0093;
1152.0000;0.5958;0.0139;
1152.3000;0.5942;0.0000;
1152.6000;0.5950;-0.0023;
1152.9000;0.5958;0.0046;
1153.2000;0.5877;-0.0093;
1153.5000;0.5958;0.0070;
1153.8000;0.5942;0.0046;
1154.1000;0.5967;0.0139;
1154.4000;0.5967;0.0139;
1154.7000;0.5967;0.0185;
1155.0000;0.5958;0.0139;
1155.3000;0.5958;0.0046;
1155.6000;0.5975;0.0046;
1155.9000;0.5958;0.0046;
1156.2000;0.5934;-0.0046;
1156.5000;0.5869;-0.0093;
1156.8000;0.5950;0.0162;
1157.1000;0.5958;0.0278;
1157.4000;0.5967;0.0232;
1157.7000;0.5950;0.0185;
1158.0000;0.5958;0.0162;
1158.3000;0.5950;0.0093;
1158.6000;0.5967;0.0162;
1158.9000;0.5950;0.0023;
1159.2000;0.5958;-0.0023;
1159.5000;0.5958;0.0023;
1159.8000;0.5967;0.0023;
1160.1000;0.5958;0.0023;
1160.4000;0.5967;0.0023;
1160.7000;0.5950;-0.0023;
1161.0000;0.5958;0.0070;
1161.3000;0.5958;-0.0023;
1161.6000;0.6007;-0.0046;
1161.9000;0.5942;-0.0232;
1162.2000;0.5967;-0.0139;
1162.5000;0.5999;-0.0023;
1162.8000;0.5958;-0.0070;
1163.1000;0.5926;-0.0070;
1163.4000;0.5967;0.0000;
1163.7000;0.5967;-0.0023;
1164.0000;0.5958;-0.0070;
1164.3000;0.5958;0.0023;
1164.6000;0.5975;0.0116;
1164.9000;0.5958;0.0046;
1165.2000;0.5967;0.0046;
1165.5000;0.5967;0.0046;
1165.8000;0.5975;0.0023;
1166.1000;0.5975;-0.0046;
1166.4000;0.5958;0.0000;
1166.7000;0.5950;-0.0023;
1167.0000;0.5975;0.0023;
1167.3000;0.5967;0.0116;
1167.6000;0.5958;0.0070;
1167.9000;0.5942;0.0116;
1168.2000;0.5942;0.0116;
1168.5000;0.5983;0.0139;
1168.8000;0.6040;0.0371;
1169.1000;0.5950;0.0162;
1169.4000;0.5991;0.0278;
1169.7000;0.5975;0.0232;
1170.0000;0.5967;0.0209;
1170.3000;0.5942;0.0162;
1170.6000;0.5934;0.0232;
1170.9000;0.5967;0.0209;
1171.2000;0.5967;0.0232;
1171.5000;0.5967;0.0255;
1171.8000;0.5975;0.0371;
1172.1000;0.5967;0.0394;
1172.4000;0.5942;0.0325;
1172.7000;0.5958;0.0348;
1173.0000;0.5967;0.0417;
1173.3000;0.5958;0.0394;
1173.6000;0.5942;0.0348;
1173.9000;0.5942;0.0278;
1174.2000;0.5975;0.0301;
1174.5000;0.5967;0.0232;
1174.8000;0.5942;0.0209;
1175.1000;0.5934;0.0162;
1175.4000;0.5958;0.0232;
1175.7000;0.5958;0.0278;
1176.0000;0.5958;0.0278;
1176.3000;0.5967;0.0278;
1176.6000;0.5983;0.0278;
1176.9000;0.5950;0.0255;
1177.2000;0.6097;0.0696;
1177.5000;0.5967;0.0417;
1177.8000;0.5983;0.0487;
1178.1000;0.5910;0.0232;
1178.4000;0.5902;0.0209;
1178.7000;0.5950;0.0278;
1179.0000;0.5934;0.0278;
1179.3000;0.6015;0.0417;
1179.6000;0.5942;0.0301;
1179.9000;0.5950;0.0325;
1180.2000;0.5983;0.0325;
1180.5000;0.5991;0.0278;
1180.8000;0.5983;0.0278;
1181.1000;0.5934;0.0185;
1181.4000;0.5950;0.0162;
1181.7000;0.6024;0.0348;
1182.0000;0.5958;0.0185;
1182.3000;0.5942;0.0093;
1182.6000;0.5918;-0.0023;
1182.9000;0.5950;0.0139;
1183.2000;0.5950;0.0209;
1183.5000;0.5910;0.0139;
1183.8000;0.5958;0.0325;
1184.1000;0.5967;0.0371;
1184.4000;0.5958;0.0371;
1184.7000;0.5958;0.0394;
1185.0000;0.5958;0.0394;
1185.3000;0.5967;0.0464;
1185.6000;0.5975;0.0417;
1185.9000;0.5950;0.0301;
1186.2000;0.5967;0.0325;
1186.5000;0.5999;0.0394;
1186.8000;0.5942;0.0301;
1187.1000;0.5950;0.0255;
1187.4000;0.5950;0.0232;
1187.7000;0.5958;0.0278;
1188.0000;0.5942;0.0232;
1188.3000;0.5950;0.0301;
1188.6000;0.5967;0.0348;
1188.9000;0.5950;0.0325;
1189.2000;0.5958;0.0348;
1189.5000;0.5958;0.0301;
1189.8000;0.5950;0.0255;
1190.1000;0.5975;0.0301;
1190.4000;0.5950;0.0278;
1190.7000;0.5926;0.0278;
1191.0000;0.5950;0.0278;
1191.3000;0.5958;0.0301;
1191.6000;0.5958;0.0255;
1191.9000;0.5942;0.0255;
1192.2000;0.5950;0.0255;
1192.5000;0.5958;0.0209;
1192.8000;0.5950;0.0209;
1193.1000;0.5950;0.0209;
1193.4000;0.5950;0.0185;
1193.7000;0.5950;0.0301;
1194.0000;0.5958;0.0348;
1194.3000;0.5934;0.0209;
1194.6000;0.5950;0.0232;
1194.9000;0.5958;0.0301;
1195.2000;0.5967;0.0371;
1195.5000;0.5950;0.0301;
1195.8000;0.5958;0.0232;
1196.1000;0.5967;0.0232;
1196.4000;0.5967;0.0278;
1196.7000;0.5958;0.0278;
1197.0000;0.5975;0.0255;
1197.3000;0.5934;0.0162;
1197.6000;0.5950;0.0162;
1197.9000;0.5958;0.0116;
1198.2000;0.5910;0.0023;
1198.5000;0.5910;0.0046;
1198.8000;0.5958;0.0162;
1199.1000;0.5958;0.0209;
1199.4000;0.5950;0.0232;
1199.7000;0.5950;0.0232;
1200.0000;0.5934;0.0162;
1200.3000;0.5942;0.0139;
1200.6000;0.5934;0.0185;
1200.9000;0.5958;0.0139;
1201.2000;0.5991;0.0093;
1201.5000;0.5942;0.0023;
1201.8000;0.5942;0.0093;
1202.1000;0.5934;0.0046;
1202.4000;0.5910;0.0023;
1202.7000;0.5934;0.0093;
1203.0000;0.5958;0.0162;
1203.3000;0.5983;0.0232;
1203.6000;0.5942;0.0093;
1203.9000;0.5958;0.0185;
1204.2000;0.5983;0.0232;
1204.5000;0.5958;0.0255;
1204.8000;0.5958;0.0255;
1205.1000;0.5942;0.0232;
1205.4000;0.5958;0.0209;
1205.7000;0.5958;0.0255;
1206.0000;0.5967;0.0232;
1206.3000;0.5942;0.0139;
1206.6000;0.5942;0.0139;
1206.9000;0.5950;0.0232;
1207.2000;0.5950;0.0232;
1207.5000;0.5942;0.0255;
1207.8000;0.5934;0.0232;
1208.1000;0.5926;0.0185;
1208.4000;0.5958;0.0325;
1208.7000;0.5942;0.0185;
1209.0000;0.5958;0.0209;
1209.3000;0.5950;0.0255;
1209.6000;0.5918;0.0209;
1209.9000;0.5950;0.0209;
1210.2000;0.5934;0.0185;
1210.5000;0.5942;0.0232;
1210.8000;0.5950;0.0301;
1211.1000;0.5967;0.0348;
1211.4000;0.5950;0.0325;
1211.7000;0.5942;0.0371;
1212.0000;0.5950;0.0487;
1212.3000;0.5942;0.0510;
1212.6000;0.5926;0.0417;
1212.9000;0.5942;0.0371;
1213.2000;0.5942;0.0371;
1213.5000;0.5950;0.0441;
1213.8000;0.5950;0.0441;
1214.1000;0.5942;0.0464;
1214.4000;0.5942;0.0394;
1214.7000;0.5983;0.0464;
1215.0000;0.5967;0.0441;
1215.3000;0.5934;0.0417;
1215.6000;0.5950;0.0441;
1215.9000;0.5934;0.0487;
1216.2000;0.5967;0.0533;
1216.5000;0.5942;0.0394;
1216.8000;0.5950;0.0348;
1217.1000;0.5958;0.0417;
1217.4000;0.5942;0.0487;
1217.7000;0.5950;0.0533;
1218.0000;0.5975;0.0487;
1218.3000;0.5902;0.0301;
1218.6000;0.5999;0.0417;
1218.9000;0.5967;0.0371;
1219.2000;0.5942;0.0371;
1219.5000;0.5991;0.0417;
1219.8000;0.5967;0.0417;
1220.1000;0.5967;0.0464;
1220.4000;0.5958;0.0417;
1220.7000;0.5967;0.0417;
1221.0000;0.5958;0.0394;
1221.3000;0.5918;0.0278;
1221.6000;0.5942;0.0232;
1221.9000;0.5958;0.0209;
1222.2000;0.5926;0.0139;
1222.5000;0.5950;0.0209;
1222.8000;0.5934;0.0185;
1223.1000;0.5950;0.0232;
1223.4000;0.5918;0.0209;
1223.7000;0.5934;0.0232;
1224.0000;0.5942;0.0325;
1224.3000;0.5918;0.0301;
1224.6000;0.5967;0.0325;
1224.9000;0.5958;0.0348;
1225.2000;0.5926;0.0348;
1225.5000;0.5958;0.0464;
1225.8000;0.5958;0.0441;
1226.1000;0.5950;0.0394;
1226.4000;0.5999;0.0301;
1226.7000;0.5967;0.0232;
1227.0000;0.5934;0.0209;
1227.3000;0.5958;0.0070;
1227.6000;0.5942;0.0093;
1227.9000;0.5902;0.0000;
1228.2000;0.5926;0.0093;
1228.5000;0.5950;0.0139;
1228.8000;0.5950;0.0209;
1229.1000;0.5942;0.0232;
1229.4000;0.5942;0.0255;
1229.7000;0.5958;0.0255;
1230.0000;0.5950;0.0371;
1230.3000;0.5958;0.0348;
1230.6000;0.5934;0.0255;
1230.9000;0.5942;0.0301;
1231.2000;0.5950;0.0301;
1231.5000;0.5942;0.0255;
1231.8000;0.5950;0.0325;
1232.1000;0.5934;0.0209;
1232.4000;0.5958;0.0209;
1232.7000;0.5950;0.0139;
1233.0000;0.5942;0.0093;
1233.3000;0.5934;0.0070;
1233.6000;0.5869;-0.0116;
1233.9000;0.5934;-0.0070;
1234.2000;0.5958;-0.0046;
1234.5000;0.5967;-0.0046;
1234.8000;0.5975;0.0070;
1235.1000;0.5950;0.0046;
1235.4000;0.5967;0.0023;
1235.7000;0.5950;-0.0046;
1236.0000;0.5942;-0.0139;
1236.3000;0.5934;-0.0093;
1236.6000;0.5942;-0.0116;
1236.9000;0.5942;-0.0185;
1237.2000;0.5934;-0.0185;
1237.5000;0.5942;-0.0162;
1237.8000;0.5942;-0.0093;
1238.1000;0.5950;-0.0070;
1238.4000;0.5942;-0.0070;
1238.7000;0.5893;-0.0209;
1239.0000;0.5950;0.0093;
1239.3000;0.5942;0.0162;
1239.6000;0.5983;0.0278;
1239.9000;0.5942;0.0093;
1240.2000;0.5958;0.0162;
1240.5000;0.5958;0.0185;
1240.8000;0.5958;0.0232;
1241.1000;0.5942;0.0232;
1241.4000;0.5934;0.0185;
1241.7000;0.5942;0.0162;
1242.0000;0.5942;0.0093;
1242.3000;0.5942;0.0070;
1242.6000;0.5934;0.0023;
1242.9000;0.5885;-0.0046;
1243.2000;0.5902;0.0046;
1243.5000;0.5950;0.0116;
1243.8000;0.5942;0.0139;
1244.1000;0.5934;0.0185;
1244.4000;0.5950;0.0255;
1244.7000;0.5942;0.0185;
1245.0000;0.5967;0.0255;
1245.3000;0.5934;0.0116;
1245.6000;0.5934;0.0116;
1245.9000;0.5934;0.0139;
1246.2000;0.5942;0.0209;
1246.5000;0.5942;0.0278;
1246.8000;0.5926;0.0278;
1247.1000;0.5926;0.0185;
1247.4000;0.5934;0.0162;
1247.7000;0.5942;0.0209;
1248.0000;0.5958;0.0278;
1248.3000;0.5934;0.0255;
1248.6000;0.5926;0.0139;
1248.9000;0.5934;0.0209;
1249.2000;0.5942;0.0371;
1249.5000;0.5958;0.0441;
1249.8000;0.5950;0.0394;
1250.1000;0.5934;0.0301;
1250.4000;0.5934;0.0301;
1250.7000;0.5942;0.0255;
1251.0000;0.5950;0.0348;
1251.3000;0.5942;0.0441;
1251.6000;0.5950;0.0533;
1251.9000;0.5958;0.0556;
1252.2000;0.5967;0.0580;
1252.5000;0.5950;0.0533;
1252.8000;0.5942;0.0371;
1253.1000;0.5942;0.0325;
1253.4000;0.5950;0.0255;
1253.7000;0.5918;0.0185;
1254.0000;0.5910;0.0232;
1254.3000;0.5902;0.0162;
1254.6000;0.5967;0.0255;
1254.9000;0.5983;0.0301;
1255.2000;0.5926;0.0232;
1255.5000;0.5926;0.0301;
1255.8000;0.5950;0.0371;
1256.1000;0.5950;0.0441;
1256.4000;0.5934;0.0371;
1256.7000;0.5958;0.0325;
1257.0000;0.5958;0.0301;
1257.3000;0.5934;0.0255;
1257.6000;0.5958;0.0325;
1257.9000;0.5942;0.0232;
1258.2000;0.5926;0.0162;
1258.5000;0.5934;0.0185;
1258.8000;0.5934;0.0209;
1259.1000;0.5934;0.0232;
1259.4000;0.5926;0.0255;
1259.7000;0.5942;0.0301;
1260.0000;0.5934;0.0394;
1260.3000;0.5918;0.0441;
1260.6000;0.5918;0.0510;
1260.9000;0.5926;0.0464;
1261.2000;0.5934;0.0417;
1261.5000;0.5942;0.0371;
1261.8000;0.5934;0.0278;
1262.1000;0.5934;0.0325;
1262.4000;0.5942;0.0325;
1262.7000;0.5934;0.0209;
1263.0000;0.5934;0.0162;
1263.3000;0.5934;0.0185;
1263.6000;0.5950;0.0232;
1263.9000;0.5975;0.0348;
1264.2000;0.5934;0.0348;
1264.5000;0.5934;0.0301;
1264.8000;0.5934;0.0371;
1265.1000;0.5934;0.0348;
1265.4000;0.5942;0.0325;
1265.7000;0.5918;0.0232;
1266.0000;0.5942;0.0232;
1266.3000;0.5926;0.0185;
1266.6000;0.5918;0.0162;
1266.9000;0.5942;0.0185;
1267.2000;0.5958;0.0232;
1267.5000;0.5934;0.0139;
1267.8000;0.5958;0.0093;
1268.1000;0.5893;0.0023;
1268.4000;0.5934;0.0209;
1268.7000;0.5934;0.0325;
1269.0000;0.5942;0.0278;
1269.3000;0.5934;0.0255;
1269.6000;0.5926;0.0139;
1269.9000;0.5958;0.0209;
1270.2000;0.5926;0.0070;
1270.5000;0.5934;0.0093;
1270.8000;0.5926;0.0046;
1271.1000;0.5918;-0.0023;
1271.4000;0.5902;0.0000;
1271.7000;0.5934;0.0093;
1272.0000;0.5926;0.0185;
1272.3000;0.5934;0.0278;
1272.6000;0.5934;0.0255;
1272.9000;0.5950;0.0209;
1273.2000;0.5934;0.0209;
1273.5000;0.5934;0.0209;
1273.8000;0.5934;0.0162;
1274.1000;0.5934;0.0046;
1274.4000;0.5918;-0.0046;
1274.7000;0.5967;0.0093;
1275.0000;0.5926;0.0070;
1275.3000;0.5942;0.0139;
1275.6000;0.5934;0.0209;
1275.9000;0.5934;0.0232;
1276.2000;0.5950;0.0278;
1276.5000;0.5942;0.0232;
1276.8000;0.5950;0.0162;
1277.1000;0.5934;0.0070;
1277.4000;0.5934;0.0000;
1277.7000;0.5926;-0.0093;
1278.0000;0.5942;-0.0046;
1278.3000;0.5934;-0.0023;
1278.6000;0.5926;-0.0046;
1278.9000;0.5893;-0.0139;
1279.2000;0.5934;-0.0023;
1279.5000;0.5893;-0.0139;
1279.8000;0.5918;-0.0093;
1280.1000;0.5910;-0.0116;
1280.4000;0.5926;0.0000;
1280.7000;0.5926;0.0046;
1281.0000;0.5934;0.0000;
1281.3000;0.5910;-0.0023;
1281.6000;0.5926;0.0070;
1281.9000;0.5991;0.0209;
1282.2000;0.5934;0.0046;
1282.5000;0.5918;0.0070;
1282.8000;0.5942;0.0116;
1283.1000;0.5934;0.0093;
1283.4000;0.5934;0.0093;
1283.7000;0.5926;0.0093;
1284.0000;0.5950;0.0255;
1284.3000;0.5942;0.0162;
1284.6000;0.5910;0.0046;
1284.9000;0.5918;0.0046;
1285.2000;0.5885;-0.0116;
1285.5000;0.5918;-0.0046;
1285.8000;0.5942;-0.0116;
1286.1000;0.5934;-0.0162;
1286.4000;0.5942;-0.0255;
1286.7000;0.5950;-0.0185;
1287.0000;0.5950;-0.0139;
1287.3000;0.5934;-0.0116;
1287.6000;0.5861;-0.0301;
1287.9000;0.5934;-0.0139;
1288.2000;0.5934;-0.0070;
1288.5000;0.5926;-0.0046;
1288.8000;0.5942;0.0139;
1289.1000;0.5934;0.0116;
1289.4000;0.5942;0.0000;
1289.7000;0.5942;0.0046;
1290.0000;0.5942;0.0023;
1290.3000;0.5934;-0.0070;
1290.6000;0.5934;0.0000;
1290.9000;0.5942;0.0093;
1291.2000;0.5926;-0.0046;
1291.5000;0.5918;-0.0093;
1291.8000;0.5934;-0.0070;
1292.1000;0.5918;-0.0046;
1292.4000;0.5950;0.0046;
1292.7000;0.5926;0.0046;
1293.0000;0.5942;0.0046;
1293.3000;0.5942;0.0093;
1293.6000;0.5926;0.0023;
1293.9000;0.5926;0.0023;
1294.2000;0.5967;0.0162;
1294.5000;0.5918;0.0162;
1294.8000;0.5902;0.0093;
1295.1000;0.5934;0.0139;
1295.4000;0.5885;0.0023;
1295.7000;0.5926;0.0070;
1296.0000;0.5934;0.0070;
1296.3000;0.5967;0.0116;
1296.6000;0.5910;0.0000;
1296.9000;0.5934;0.0046;
1297.2000;0.5934;0.0023;
1297.5000;0.5967;0.0116;
1297.8000;0.5918;0.0046;
1298.1000;0.5926;0.0046;
1298.4000;0.5942;0.0023;
1298.7000;0.5926;0.0000;
1299.0000;0.5934;0.0070;
1299.3000;0.5950;0.0116;
1299.6000;0.5958;0.0023;
1299.9000;0.5926;-0.0023;
1300.2000;0.5934;-0.0023;
1300.5000;0.5934;-0.0046;
1300.8000;0.5926;0.0000;
1301.1000;0.5942;0.0070;
1301.4000;0.5918;0.0023;
1301.7000;0.5910;0.0023;
1302.0000;0.5926;0.0116;
1302.3000;0.5934;0.0162;
1302.6000;0.5967;0.0278;
1302.9000;0.5902;0.0139;
1303.2000;0.5934;0.0232;
1303.5000;0.5934;0.0162;
1303.8000;0.5942;0.0116;
1304.1000;0.5958;0.0185;
1304.4000;0.5885;0.0046;
1304.7000;0.5934;0.0139;
1305.0000;0.5942;0.0162;
1305.3000;0.5926;0.0116;
1305.6000;0.5934;0.0116;
1305.9000;0.5934;0.0070;
1306.2000;0.5918;0.0070;
1306.5000;0.5918;0.0070;
1306.8000;0.5926;0.0093;
1307.1000;0.5942;0.0185;
1307.4000;0.5942;0.0209;
1307.7000;0.5926;0.0185;
1308.0000;0.5934;0.0209;
1308.3000;0.5958;0.0232;
1308.6000;0.5950;0.0255;
1308.9000;0.5942;0.0348;
1309.2000;0.5950;0.0441;
1309.5000;0.5926;0.0417;
1309.8000;0.5942;0.0464;
1310.1000;0.5942;0.0487;
1310.4000;0.5942;0.0464;
1310.7000;0.5934;0.0487;
1311.0000;0.5950;0.0464;
1311.3000;0.5983;0.0556;
1311.6000;0.5861;0.0209;
1311.9000;0.5934;0.0325;
1312.2000;0.5950;0.0417;
1312.5000;0.5942;0.0301;
1312.8000;0.5942;0.0325;
1313.1000;0.5967;0.0394;
1313.4000;0.5926;0.0255;
1313.7000;0.5942;0.0232;
1314.0000;0.5958;0.0232;
1314.3000;0.5934;0.0185;
1314.6000;0.5934;0.0232;
1314.9000;0.5934;0.0301;
1315.2000;0.5934;0.0348;
1315.5000;0.5918;0.0325;
1315.8000;0.5942;0.0301;
1316.1000;0.5902;0.0162;
1316.4000;0.5934;0.0371;
1316.7000;0.5999;0.0626;
1317.0000;0.5902;0.0371;
1317.3000;0.5926;0.0417;
1317.6000;0.5934;0.0394;
1317.9000;0.5910;0.0278;
1318.2000;0.5910;0.0185;
1318.5000;0.5926;0.0209;
1318.8000;0.5934;0.0209;
1319.1000;0.5934;0.0185;
1319.4000;0.5926;0.0185;
1319.7000;0.5934;0.0139;
1320.0000;0.5926;0.0162;
1320.3000;0.5950;0.0185;
1320.6000;0.5942;0.0232;
1320.9000;0.5918;0.0185;
1321.2000;0.5934;0.0185;
1321.5000;0.5918;0.0070;
1321.8000;0.5926;0.0070;
1322.1000;0.5926;0.0070;
1322.4000;0.5926;0.0139;
1322.7000;0.5926;0.0139;
1323.0000;0.5934;0.0116;
1323.3000;0.5918;0.0185;
1323.6000;0.5934;0.0278;
1323.9000;0.5942;0.0301;
1324.2000;0.5934;0.0278;
1324.5000;0.5926;0.0232;
1324.8000;0.5934;0.0162;
1325.1000;0.5926;0.0185;
1325.4000;0.5934;0.0209;
1325.7000;0.5926;0.0185;
1326.0000;0.5926;0.0255;
1326.3000;0.5910;0.0209;
1326.6000;0.5967;0.0441;
1326.9000;0.5926;0.0371;
1327.2000;0.5893;0.0278;
1327.5000;0.5926;0.0278;
1327.8000;0.5918;0.0232;
1328.1000;0.5934;0.0301;
1328.4000;0.5975;0.0533;
1328.7000;0.5902;0.0394;
1329.0000;0.5902;0.0417;
1329.3000;0.5926;0.0394;
1329.6000;0.5926;0.0464;
1329.9000;0.5910;0.0394;
1330.2000;0.5861;0.0162;
1330.5000;0.5918;0.0325;
1330.8000;0.5902;0.0301;
1331.1000;0.5918;0.0325;
1331.4000;0.5942;0.0371;
1331.7000;0.5910;0.0371;
1332.0000;0.5926;0.0510;
1332.3000;0.5918;0.0510;
1332.6000;0.5918;0.0533;
1332.9000;0.5918;0.0533;
1333.2000;0.5934;0.0464;
1333.5000;0.5926;0.0487;
1333.8000;0.5918;0.0533;
1334.1000;0.5934;0.0626;
1334.4000;0.5902;0.0487;
1334.7000;0.5934;0.0510;
1335.0000;0.5942;0.0464;
1335.3000;0.5926;0.0394;
1335.6000;0.5918;0.0441;
1335.9000;0.5926;0.0487;
1336.2000;0.5942;0.0510;
1336.5000;0.5991;0.0742;
1336.8000;0.5942;0.0603;
1337.1000;0.5950;0.0580;
1337.4000;0.5926;0.0487;
1337.7000;0.5926;0.0464;
1338.0000;0.5926;0.0394;
1338.3000;0.5934;0.0417;
1338.6000;0.5934;0.0417;
1338.9000;0.5918;0.0371;
1339.2000;0.5902;0.0255;
1339.5000;0.5902;0.0209;
1339.8000;0.5910;0.0185;
1340.1000;0.5926;0.0255;
1340.4000;0.5910;0.0162;
1340.7000;0.5934;0.0232;
1341.0000;0.5918;0.0278;
1341.3000;0.5918;0.0255;
1341.6000;0.5934;0.0255;
1341.9000;0.5926;0.0232;
1342.2000;0.5918;0.0209;
1342.5000;0.5918;0.0278;
1342.8000;0.6015;0.0510;
1343.1000;0.5934;0.0278;
1343.4000;0.5942;0.0255;
1343.7000;0.5934;0.0255;
1344.0000;0.5926;0.0278;
1344.3000;0.5918;0.0278;
1344.6000;0.6015;0.0510;
1344.9000;0.5942;0.0348;
1345.2000;0.5918;0.0232;
1345.5000;0.5918;0.0255;
1345.8000;0.5934;0.0348;
1346.1000;0.5942;0.0394;
1346.4000;0.5934;0.0348;
1346.7000;0.5853;0.0209;
1347.0000;0.5934;0.0394;
1347.3000;0.5942;0.0487;
1347.6000;0.5926;0.0417;
1347.9000;0.5926;0.0441;
1348.2000;0.5926;0.0464;
1348.5000;0.5958;0.0510;
1348.8000;0.5926;0.0487;
1349.1000;0.5958;0.0580;
1349.4000;0.5910;0.0510;
1349.7000;0.5934;0.0556;
1350.0000;0.5910;0.0510;
1350.3000;0.5910;0.0603;
1350.6000;0.5918;0.0649;
1350.9000;0.5853;0.0533;
1351.2000;0.5934;0.0603;
1351.5000;0.5999;0.0719;
1351.8000;0.5918;0.0371;
1352.1000;0.5934;0.0371;
1352.4000;0.5902;0.0278;
1352.7000;0.5934;0.0394;
1353.0000;0.5861;0.0348;
1353.3000;0.5934;0.0510;
1353.6000;0.5934;0.0417;
1353.9000;0.5942;0.0348;
1354.2000;0.5902;0.0255;
1354.5000;0.5910;0.0325;
1354.8000;0.5926;0.0348;
1355.1000;0.5910;0.0255;
1355.4000;0.5869;0.0046;
1355.7000;0.5926;0.0232;
1356.0000;0.5918;0.0325;
1356.3000;0.5942;0.0371;
1356.6000;0.5934;0.0441;
1356.9000;0.5918;0.0441;
1357.2000;0.5893;0.0255;
1357.5000;0.5934;0.0278;
1357.8000;0.5926;0.0185;
1358.1000;0.5926;0.0139;
1358.4000;0.5926;0.0139;
1358.7000;0.5926;0.0209;
1359.0000;0.5918;0.0209;
1359.3000;0.5910;0.0162;
1359.6000;0.5918;0.0116;
1359.9000;0.5934;0.0139;
1360.2000;0.5950;0.0255;
1360.5000;0.5918;0.0209;
1360.8000;0.5910;0.0139;
1361.1000;0.5926;0.0162;
1361.4000;0.5934;0.0255;
1361.7000;0.5934;0.0348;
1362.0000;0.5910;0.0278;
1362.3000;0.5902;0.0255;
1362.6000;0.5918;0.0301;
1362.9000;0.5910;0.0348;
1363.2000;0.5910;0.0325;
1363.5000;0.5910;0.0301;
1363.8000;0.5926;0.0371;
1364.1000;0.5918;0.0371;
1364.4000;0.5893;0.0325;
1364.7000;0.5918;0.0301;
1365.0000;0.5910;0.0348;
1365.3000;0.5869;0.0162;
1365.6000;0.5893;0.0255;
1365.9000;0.5942;0.0394;
1366.2000;0.5918;0.0325;
1366.5000;0.5918;0.0325;
1366.8000;0.5902;0.0255;
1367.1000;0.5910;0.0278;
1367.4000;0.5918;0.0348;
1367.7000;0.5926;0.0394;
1368.0000;0.5926;0.0348;
1368.3000;0.5910;0.0325;
1368.6000;0.5926;0.0278;
1368.9000;0.5910;0.0278;
1369.2000;0.5926;0.0255;
1369.5000;0.5910;0.0301;
1369.8000;0.5926;0.0394;
1370.1000;0.5950;0.0394;
1370.4000;0.5926;0.0325;
1370.7000;0.5910;0.0394;
1371.0000;0.5918;0.0487;
1371.3000;0.5910;0.0464;
1371.6000;0.6007;0.0672;
1371.9000;0.5983;0.0580;
1372.2000;0.5910;0.0464;
1372.5000;0.5942;0.0510;
1372.8000;0.5942;0.0464;
1373.1000;0.5934;0.0417;
1373.4000;0.5934;0.0371;
1373.7000;0.5902;0.0278;
1374.0000;0.5910;0.0325;
1374.3000;0.5926;0.0371;
1374.6000;0.5893;0.0301;
1374.9000;0.5918;0.0301;
1375.2000;0.5926;0.0348;
1375.5000;0.5942;0.0371;
1375.8000;0.5918;0.0325;
1376.1000;0.6007;0.0487;
1376.4000;0.5910;0.0301;
1376.7000;0.5918;0.0325;
1377.0000;0.5918;0.0371;
1377.3000;0.5934;0.0371;
1377.6000;0.5942;0.0371;
1377.9000;0.5934;0.0348;
1378.2000;0.5885;0.0162;
1378.5000;0.5926;0.0301;
1378.8000;0.5958;0.0301;
1379.1000;0.5942;0.0209;
1379.4000;0.5942;0.0162;
1379.7000;0.5918;0.0070;
1380.0000;0.5934;0.0162;
1380.3000;0.5910;0.0162;
1380.6000;0.5934;0.0116;
1380.9000;0.5926;0.0116;
1381.2000;0.5885;0.0046;
1381.5000;0.5910;0.0116;
1381.8000;0.5918;0.0162;
1382.1000;0.5918;0.0209;
1382.4000;0.5926;0.0278;
1382.7000;0.5910;0.0325;
1383.0000;0.5926;0.0301;
1383.3000;0.5918;0.0255;
1383.6000;0.5918;0.0325;
1383.9000;0.5934;0.0371;
1384.2000;0.5910;0.0301;
1384.5000;0.5926;0.0348;
1384.8000;0.5918;0.0325;
1385.1000;0.5869;0.0185;
1385.4000;0.5918;0.0278;
1385.7000;0.5918;0.0301;
1386.0000;0.5918;0.0325;
1386.3000;0.5918;0.0301;
1386.6000;0.5975;0.0417;
1386.9000;0.5918;0.0301;
1387.2000;0.5918;0.0348;
1387.5000;0.5975;0.0533;
1387.8000;0.5918;0.0487;
1388.1000;0.5926;0.0417;
1388.4000;0.5942;0.0417;
1388.7000;0.5926;0.0325;
1389.0000;0.5926;0.0394;
1389.3000;0.5991;0.0533;
1389.6000;0.5934;0.0441;
1389.9000;0.5918;0.0464;
1390.2000;0.5926;0.0487;
1390.5000;0.5902;0.0487;
1390.8000;0.5910;0.0441;
1391.1000;0.5942;0.0556;
1391.4000;0.5918;0.0487;
1391.7000;0.5902;0.0464;
1392.0000;0.5910;0.0487;
1392.3000;0.5926;0.0441;
1392.6000;0.5942;0.0487;
1392.9000;0.5910;0.0371;
1393.2000;0.5942;0.0417;
1393.5000;0.5885;0.0301;
1393.8000;0.5918;0.0348;
1394.1000;0.5893;0.0348;
1394.4000;0.5934;0.0487;
1394.7000;0.5926;0.0464;
1395.0000;0.5934;0.0487;
1395.3000;0.5942;0.0487;
1395.6000;0.5893;0.0441;
1395.9000;0.5918;0.0417;
1396.2000;0.5934;0.0464;
1396.5000;0.5934;0.0417;
1396.8000;0.5918;0.0325;
1397.1000;0.5926;0.0232;
1397.4000;0.5934;0.0348;
1397.7000;0.5926;0.0301;
1398.0000;0.5877;0.0278;
1398.3000;0.5942;0.0464;
1398.6000;0.5885;0.0325;
1398.9000;0.5926;0.0464;
1399.2000;0.5885;0.0441;
1399.5000;0.5869;0.0394;
1399.8000;0.5910;0.0394;
