time/ms;Fluo/V;P700 deltaI/I x10³;
-199.8000;0.6927;-0.1067;
-199.5000;0.6927;-0.1113;
-199.2000;0.6911;-0.1182;
-198.9000;0.6935;-0.1067;
-198.6000;0.6911;-0.1067;
-198.3000;0.6935;-0.1043;
-198.0000;0.6935;-0.0974;
-197.7000;0.6927;-0.0974;
-197.4000;0.6919;-0.0858;
-197.1000;0.6919;-0.0858;
-196.8000;0.6911;-0.0974;
-196.5000;0.6878;-0.1206;
-196.2000;0.6935;-0.1067;
-195.9000;0.6935;-0.1020;
-195.6000;0.6927;-0.0927;
-195.3000;0.6935;-0.0904;
-195.0000;0.6919;-0.0974;
-194.7000;0.6992;-0.0904;
-194.4000;0.6927;-0.1067;
-194.1000;0.6984;-0.0927;
-193.8000;0.6903;-0.1090;
-193.5000;0.6927;-0.1020;
-193.2000;0.6919;-0.0997;
-192.9000;0.6919;-0.0997;
-192.6000;0.6960;-0.0858;
-192.3000;0.6943;-0.0835;
-192.0000;0.6919;-0.1020;
-191.7000;0.6984;-0.0811;
-191.4000;0.6919;-0.0951;
-191.1000;0.6895;-0.1113;
-190.8000;0.6919;-0.1020;
-190.5000;0.6927;-0.0997;
-190.2000;0.6927;-0.1043;
-189.9000;0.6895;-0.1182;
-189.6000;0.6919;-0.1229;
-189.3000;0.6911;-0.1298;
-189.0000;0.6927;-0.1252;
-188.7000;0.6943;-0.1182;
-188.4000;0.6805;-0.1437;
-188.1000;0.6927;-0.1206;
-187.8000;0.6927;-0.1182;
-187.5000;0.6903;-0.1275;
-187.2000;0.6911;-0.1206;
-186.9000;0.6903;-0.1090;
-186.6000;0.6919;-0.0951;
-186.3000;0.6911;-0.0974;
-186.0000;0.6911;-0.0951;
-185.7000;0.6919;-0.0904;
-185.4000;0.6903;-0.1067;
-185.1000;0.6911;-0.1043;
-184.8000;0.6919;-0.1020;
-184.5000;0.6927;-0.0997;
-184.2000;0.6911;-0.0997;
-183.9000;0.6927;-0.1020;
-183.6000;0.6911;-0.1067;
-183.3000;0.6911;-0.1020;
-183.0000;0.6911;-0.0997;
-182.7000;0.6935;-0.0927;
-182.4000;0.6919;-0.1090;
-182.1000;0.6895;-0.1136;
-181.8000;0.6903;-0.1043;
-181.5000;0.6919;-0.0904;
-181.2000;0.6919;-0.0858;
-180.9000;0.6911;-0.0881;
-180.6000;0.6935;-0.0835;
-180.3000;0.6911;-0.0696;
-180.0000;0.6927;-0.0672;
-179.7000;0.6927;-0.0719;
-179.4000;0.6911;-0.0788;
-179.1000;0.6919;-0.0858;
-178.8000;0.6935;-0.0927;
-178.5000;0.6911;-0.0974;
-178.2000;0.6935;-0.0927;
-177.9000;0.6903;-0.0997;
-177.6000;0.6943;-0.0927;
-177.3000;0.6919;-0.0997;
-177.0000;0.6886;-0.0951;
-176.7000;0.6895;-0.0927;
-176.4000;0.6903;-0.0858;
-176.1000;0.6911;-0.0927;
-175.8000;0.6919;-0.0927;
-175.5000;0.6903;-0.0951;
-175.2000;0.6911;-0.0927;
-174.9000;0.6911;-0.0835;
-174.6000;0.6927;-0.0765;
-174.3000;0.6911;-0.0788;
-174.0000;0.6927;-0.0765;
-173.7000;0.6935;-0.0742;
-173.4000;0.6935;-0.0788;
-173.1000;0.6935;-0.0881;
-172.8000;0.6952;-0.0835;
-172.5000;0.6943;-0.0881;
-172.2000;0.6919;-0.0974;
-171.9000;0.6927;-0.0974;
-171.6000;0.6911;-0.1043;
-171.3000;0.6927;-0.1113;
-171.0000;0.6911;-0.1090;
-170.7000;0.6919;-0.0951;
-170.4000;0.6911;-0.0951;
-170.1000;0.6911;-0.0927;
-169.8000;0.6943;-0.0742;
-169.5000;0.6911;-0.0742;
-169.2000;0.6927;-0.0742;
-168.9000;0.6919;-0.0835;
-168.6000;0.6927;-0.0811;
-168.3000;0.6943;-0.0835;
-168.0000;0.6935;-0.0881;
-167.7000;0.6911;-0.0881;
-167.4000;0.6911;-0.0927;
-167.1000;0.6935;-0.0881;
-166.8000;0.6927;-0.0881;
-166.5000;0.6919;-0.0835;
-166.2000;0.6935;-0.0765;
-165.9000;0.6927;-0.0765;
-165.6000;0.6886;-0.0858;
-165.3000;0.6911;-0.0835;
-165.0000;0.6919;-0.0719;
-164.7000;0.6895;-0.0742;
-164.4000;0.6886;-0.0672;
-164.1000;0.6886;-0.0603;
-163.8000;0.6911;-0.0603;
-163.5000;0.6919;-0.0580;
-163.2000;0.6911;-0.0533;
-162.9000;0.6919;-0.0510;
-162.6000;0.6911;-0.0672;
-162.3000;0.6903;-0.0719;
-162.0000;0.6919;-0.0672;
-161.7000;0.6911;-0.0696;
-161.4000;0.6911;-0.0672;
-161.1000;0.6886;-0.0835;
-160.8000;0.6911;-0.0904;
-160.5000;0.6919;-0.0835;
-160.2000;0.6927;-0.0788;
-159.9000;0.6903;-0.0881;
-159.6000;0.6919;-0.0881;
-159.3000;0.6927;-0.0881;
-159.0000;0.6911;-0.0927;
-158.7000;0.6911;-0.0997;
-158.4000;0.6911;-0.0974;
-158.1000;0.6935;-0.0858;
-157.8000;0.6935;-0.0858;
-157.5000;0.6935;-0.0858;
-157.2000;0.6943;-0.0811;
-156.9000;0.6935;-0.0742;
-156.6000;0.6911;-0.0742;
-156.3000;0.6911;-0.0811;
-156.0000;0.6911;-0.0811;
-155.7000;0.6927;-0.0811;
-155.4000;0.6919;-0.0765;
-155.1000;0.6911;-0.0742;
-154.8000;0.6846;-0.0881;
-154.5000;0.6911;-0.0788;
-154.2000;0.6927;-0.0719;
-153.9000;0.6927;-0.0742;
-153.6000;0.6927;-0.0672;
-153.3000;0.6935;-0.0556;
-153.0000;0.6911;-0.0649;
-152.7000;0.6935;-0.0719;
-152.4000;0.6919;-0.0742;
-152.1000;0.6919;-0.0765;
-151.8000;0.6927;-0.0811;
-151.5000;0.6903;-0.0858;
-151.2000;0.6911;-0.0927;
-150.9000;0.6911;-0.0881;
-150.6000;0.6943;-0.0858;
-150.3000;0.6952;-0.0858;
-150.0000;0.6895;-0.0927;
-149.7000;0.6903;-0.0974;
-149.4000;0.6895;-0.0927;
-149.1000;0.6911;-0.0881;
-148.8000;0.6895;-0.0997;
-148.5000;0.6878;-0.1043;
-148.2000;0.6919;-0.0951;
-147.9000;0.6903;-0.1020;
-147.6000;0.6919;-0.0881;
-147.3000;0.6911;-0.0835;
-147.0000;0.6919;-0.0811;
-146.7000;0.6927;-0.0858;
-146.4000;0.6911;-0.0835;
-146.1000;0.6911;-0.0858;
-145.8000;0.6927;-0.0835;
-145.5000;0.6911;-0.0835;
-145.2000;0.6919;-0.0811;
-144.9000;0.6919;-0.0881;
-144.6000;0.6903;-0.0927;
-144.3000;0.6895;-0.0927;
-144.0000;0.6919;-0.0858;
-143.7000;0.6919;-0.0788;
-143.4000;0.6911;-0.0788;
-143.1000;0.6927;-0.0811;
-142.8000;0.6911;-0.0858;
-142.5000;0.6952;-0.0811;
-142.2000;0.6927;-0.0835;
-141.9000;0.6895;-0.0904;
-141.6000;0.6935;-0.0881;
-141.3000;0.6919;-0.0927;
-141.0000;0.6943;-0.0858;
-140.7000;0.6911;-0.0927;
-140.4000;0.6919;-0.0835;
-140.1000;0.6935;-0.0765;
-139.8000;0.6895;-0.0858;
-139.5000;0.6911;-0.0858;
-139.2000;0.6911;-0.0858;
-138.9000;0.6927;-0.0835;
-138.6000;0.6992;-0.0719;
-138.3000;0.6992;-0.0742;
-138.0000;0.6903;-0.0951;
-137.7000;0.6911;-0.0811;
-137.4000;0.6911;-0.0858;
-137.1000;0.6960;-0.0788;
-136.8000;0.6911;-0.0835;
-136.5000;0.6943;-0.0742;
-136.2000;0.6919;-0.0881;
-135.9000;0.6952;-0.0835;
-135.6000;0.6919;-0.0904;
-135.3000;0.6935;-0.0811;
-135.0000;0.6854;-0.0904;
-134.7000;0.6919;-0.0858;
-134.4000;0.6886;-0.0997;
-134.1000;0.6903;-0.0927;
-133.8000;0.6919;-0.0951;
-133.5000;0.6878;-0.1067;
-133.2000;0.6911;-0.0974;
-132.9000;0.6935;-0.0927;
-132.6000;0.6919;-0.0904;
-132.3000;0.6927;-0.0951;
-132.0000;0.6911;-0.0974;
-131.7000;0.6919;-0.0997;
-131.4000;0.6919;-0.1020;
-131.1000;0.6911;-0.1067;
-130.8000;0.6935;-0.1159;
-130.5000;0.6919;-0.1136;
-130.2000;0.6927;-0.1090;
-129.9000;0.6968;-0.0974;
-129.6000;0.6862;-0.1136;
-129.3000;0.6927;-0.0951;
-129.0000;0.6911;-0.0927;
-128.7000;0.6862;-0.1090;
-128.4000;0.6919;-0.0951;
-128.1000;0.6927;-0.0997;
-127.8000;0.6911;-0.0997;
-127.5000;0.6911;-0.0974;
-127.2000;0.6919;-0.1043;
-126.9000;0.6911;-0.1067;
-126.6000;0.6911;-0.1090;
-126.3000;0.6927;-0.1067;
-126.0000;0.6927;-0.1067;
-125.7000;0.6919;-0.0927;
-125.4000;0.6919;-0.0788;
-125.1000;0.6943;-0.0696;
-124.8000;0.6903;-0.0742;
-124.5000;0.6919;-0.0765;
-124.2000;0.6895;-0.0881;
-123.9000;0.6911;-0.0951;
-123.6000;0.6927;-0.0904;
-123.3000;0.6919;-0.0858;
-123.0000;0.6919;-0.0858;
-122.7000;0.6919;-0.0904;
-122.4000;0.6911;-0.0858;
-122.1000;0.6895;-0.0997;
-121.8000;0.6911;-0.0997;
-121.5000;0.6895;-0.1020;
-121.2000;0.6903;-0.0974;
-120.9000;0.6911;-0.0974;
-120.6000;0.6927;-0.0951;
-120.3000;0.6927;-0.0951;
-120.0000;0.6927;-0.0904;
-119.7000;0.6952;-0.0881;
-119.4000;0.6854;-0.1043;
-119.1000;0.6919;-0.0881;
-118.8000;0.6919;-0.0927;
-118.5000;0.6952;-0.0835;
-118.2000;0.6919;-0.0858;
-117.9000;0.6943;-0.0858;
-117.6000;0.6960;-0.0811;
-117.3000;0.6919;-0.0974;
-117.0000;0.6935;-0.0858;
-116.7000;0.6919;-0.0858;
-116.4000;0.6911;-0.0881;
-116.1000;0.6927;-0.0881;
-115.8000;0.6927;-0.0881;
-115.5000;0.6935;-0.0974;
-115.2000;0.6952;-0.0997;
-114.9000;0.6911;-0.1113;
-114.6000;0.6903;-0.1136;
-114.3000;0.6911;-0.1182;
-114.0000;0.6919;-0.1090;
-113.7000;0.6895;-0.1159;
-113.4000;0.6886;-0.1182;
-113.1000;0.6903;-0.1113;
-112.8000;0.6903;-0.1136;
-112.5000;0.6943;-0.0997;
-112.2000;0.6919;-0.0974;
-111.9000;0.6919;-0.0951;
-111.6000;0.6911;-0.0904;
-111.3000;0.6943;-0.0858;
-111.0000;0.6886;-0.0951;
-110.7000;0.6919;-0.0881;
-110.4000;0.6943;-0.0788;
-110.1000;0.6870;-0.0881;
-109.8000;0.6895;-0.0811;
-109.5000;0.6935;-0.0719;
-109.2000;0.6927;-0.0765;
-108.9000;0.6919;-0.0811;
-108.6000;0.6919;-0.0858;
-108.3000;0.6911;-0.0835;
-108.0000;0.6919;-0.0811;
-107.7000;0.6911;-0.0858;
-107.4000;0.6919;-0.0881;
-107.1000;0.6943;-0.0927;
-106.8000;0.6927;-0.0904;
-106.5000;0.6927;-0.0881;
-106.2000;0.6911;-0.0974;
-105.9000;0.6919;-0.1020;
-105.6000;0.6911;-0.0927;
-105.3000;0.6903;-0.0974;
-105.0000;0.6846;-0.1113;
-104.7000;0.6903;-0.1020;
-104.4000;0.6927;-0.0881;
-104.1000;0.6903;-0.0904;
-103.8000;0.6903;-0.0927;
-103.5000;0.6903;-0.0974;
-103.2000;0.6903;-0.0927;
-102.9000;0.6903;-0.0904;
-102.6000;0.6952;-0.0835;
-102.3000;0.6895;-0.1020;
-102.0000;0.6911;-0.0997;
-101.7000;0.6984;-0.0881;
-101.4000;0.6919;-0.1043;
-101.1000;0.6911;-0.1043;
-100.8000;0.6895;-0.0927;
-100.5000;0.6927;-0.0881;
-100.2000;0.6911;-0.0904;
-99.9000;0.6911;-0.0904;
-99.6000;0.6927;-0.0881;
-99.3000;0.6935;-0.0835;
-99.0000;0.6943;-0.0904;
-98.7000;0.6919;-0.0974;
-98.4000;0.6935;-0.0881;
-98.1000;0.6935;-0.0881;
-97.8000;0.6895;-0.0974;
-97.5000;0.6903;-0.0951;
-97.2000;0.6886;-0.1067;
-96.9000;0.6927;-0.0951;
-96.6000;0.6870;-0.1067;
-96.3000;0.6919;-0.0835;
-96.0000;0.6903;-0.0835;
-95.7000;0.6935;-0.0835;
-95.4000;0.6935;-0.0858;
-95.1000;0.6927;-0.0927;
-94.8000;0.6919;-0.0997;
-94.5000;0.6911;-0.0974;
-94.2000;0.6895;-0.1067;
-93.9000;0.6919;-0.0997;
-93.6000;0.6911;-0.0974;
-93.3000;0.6927;-0.0927;
-93.0000;0.6903;-0.0974;
-92.7000;0.6943;-0.0811;
-92.4000;0.6935;-0.0904;
-92.1000;0.6911;-0.0997;
-91.8000;0.6903;-0.0881;
-91.5000;0.6911;-0.0927;
-91.2000;0.6903;-0.0974;
-90.9000;0.6886;-0.0974;
-90.6000;0.6895;-0.0881;
-90.3000;0.6919;-0.0904;
-90.0000;0.6919;-0.0904;
-89.7000;0.6911;-0.0858;
-89.4000;0.6911;-0.0835;
-89.1000;0.6911;-0.0858;
-88.8000;0.6919;-0.0835;
-88.5000;0.6911;-0.0835;
-88.2000;0.6911;-0.0858;
-87.9000;0.6919;-0.0881;
-87.6000;0.6911;-0.0951;
-87.3000;0.6911;-0.0974;
-87.0000;0.6911;-0.1043;
-86.7000;0.6886;-0.1113;
-86.4000;0.6927;-0.1020;
-86.1000;0.6911;-0.1090;
-85.8000;0.6919;-0.1090;
-85.5000;0.6895;-0.1229;
-85.2000;0.6927;-0.1067;
-84.9000;0.6927;-0.0951;
-84.6000;0.6854;-0.1067;
-84.3000;0.6935;-0.0974;
-84.0000;0.6903;-0.0974;
-83.7000;0.6919;-0.0974;
-83.4000;0.6927;-0.0951;
-83.1000;0.6903;-0.0997;
-82.8000;0.6911;-0.0997;
-82.5000;0.6903;-0.0974;
-82.2000;0.6927;-0.0974;
-81.9000;0.6911;-0.0951;
-81.6000;0.6903;-0.0974;
-81.3000;0.6911;-0.0927;
-81.0000;0.6911;-0.0951;
-80.7000;0.6903;-0.1043;
-80.4000;0.6911;-0.1090;
-80.1000;0.6903;-0.1043;
-79.8000;0.6895;-0.1043;
-79.5000;0.6903;-0.1043;
-79.2000;0.6903;-0.1043;
-78.9000;0.6919;-0.1043;
-78.6000;0.6911;-0.0951;
-78.3000;0.6911;-0.0927;
-78.0000;0.6903;-0.0974;
-77.7000;0.6943;-0.0858;
-77.4000;0.6903;-0.0951;
-77.1000;0.6911;-0.0881;
-76.8000;0.6878;-0.0904;
-76.5000;0.6903;-0.0881;
-76.2000;0.6911;-0.0811;
-75.9000;0.6927;-0.0696;
-75.6000;0.6895;-0.0788;
-75.3000;0.6878;-0.0904;
-75.0000;0.6895;-0.0858;
-74.7000;0.6911;-0.0719;
-74.4000;0.6911;-0.0719;
-74.1000;0.6911;-0.0765;
-73.8000;0.6911;-0.0835;
-73.5000;0.6903;-0.0881;
-73.2000;0.6854;-0.1182;
-72.9000;0.6960;-0.1020;
-72.6000;0.6886;-0.1113;
-72.3000;0.6838;-0.1275;
-72.0000;0.6895;-0.1113;
-71.7000;0.6919;-0.1090;
-71.4000;0.6846;-0.1252;
-71.1000;0.6927;-0.1136;
-70.8000;0.6943;-0.1090;
-70.5000;0.6903;-0.1113;
-70.2000;0.6911;-0.1067;
-69.9000;0.6952;-0.1020;
-69.6000;0.6911;-0.0974;
-69.3000;0.6911;-0.0997;
-69.0000;0.6895;-0.0974;
-68.7000;0.6895;-0.0881;
-68.4000;0.6903;-0.0927;
-68.1000;0.6911;-0.0904;
-67.8000;0.6911;-0.0881;
-67.5000;0.6895;-0.0858;
-67.2000;0.6903;-0.0811;
-66.9000;0.6903;-0.0811;
-66.6000;0.6927;-0.0765;
-66.3000;0.6903;-0.0835;
-66.0000;0.6886;-0.0904;
-65.7000;0.6911;-0.0881;
-65.4000;0.6911;-0.0835;
-65.1000;0.6911;-0.0788;
-64.8000;0.6919;-0.0742;
-64.5000;0.6919;-0.0719;
-64.2000;0.6927;-0.0765;
-63.9000;0.6919;-0.0788;
-63.6000;0.6919;-0.0788;
-63.3000;0.6919;-0.0788;
-63.0000;0.6927;-0.0858;
-62.7000;0.6927;-0.0881;
-62.4000;0.6927;-0.0835;
-62.1000;0.6919;-0.0858;
-61.8000;0.6984;-0.0719;
-61.5000;0.6919;-0.0811;
-61.2000;0.6952;-0.0788;
-60.9000;0.6903;-0.0927;
-60.6000;0.6911;-0.0811;
-60.3000;0.6903;-0.0811;
-60.0000;0.6903;-0.0858;
-59.7000;0.6895;-0.0835;
-59.4000;0.6903;-0.0788;
-59.1000;0.6919;-0.0788;
-58.8000;0.6911;-0.0788;
-58.5000;0.6895;-0.0765;
-58.2000;0.6903;-0.0719;
-57.9000;0.6911;-0.0835;
-57.6000;0.6911;-0.0742;
-57.3000;0.6903;-0.0765;
-57.0000;0.6911;-0.0672;
-56.7000;0.6903;-0.0672;
-56.4000;0.6895;-0.0719;
-56.1000;0.6886;-0.0765;
-55.8000;0.6886;-0.0742;
-55.5000;0.6895;-0.0811;
-55.2000;0.6919;-0.0742;
-54.9000;0.6911;-0.0765;
-54.6000;0.6919;-0.0858;
-54.3000;0.6927;-0.0904;
-54.0000;0.6911;-0.1020;
-53.7000;0.6903;-0.1067;
-53.4000;0.6911;-0.1043;
-53.1000;0.6903;-0.1020;
-52.8000;0.6919;-0.1043;
-52.5000;0.6911;-0.1020;
-52.2000;0.6911;-0.1020;
-51.9000;0.6927;-0.0927;
-51.6000;0.6878;-0.0927;
-51.3000;0.6935;-0.0742;
-51.0000;0.6895;-0.0835;
-50.7000;0.6903;-0.0811;
-50.4000;0.6903;-0.0788;
-50.1000;0.6903;-0.0788;
-49.8000;0.6927;-0.0719;
-49.5000;0.6903;-0.0742;
-49.2000;0.6935;-0.0696;
-48.9000;0.6911;-0.0696;
-48.6000;0.6903;-0.0765;
-48.3000;0.6903;-0.0742;
-48.0000;0.6976;-0.0626;
-47.7000;0.6895;-0.0835;
-47.4000;0.6903;-0.0881;
-47.1000;0.6903;-0.0881;
-46.8000;0.6878;-0.0997;
-46.5000;0.6886;-0.0951;
-46.2000;0.6911;-0.0951;
-45.9000;0.6886;-0.1020;
-45.6000;0.6903;-0.1067;
-45.3000;0.6903;-0.0997;
-45.0000;0.6911;-0.0904;
-44.7000;0.6895;-0.0927;
-44.4000;0.6903;-0.1020;
-44.1000;0.6927;-0.0997;
-43.8000;0.6927;-0.0951;
-43.5000;0.6903;-0.0997;
-43.2000;0.6903;-0.0951;
-42.9000;0.6903;-0.0951;
-42.6000;0.6935;-0.0811;
-42.3000;0.6911;-0.0881;
-42.0000;0.6895;-0.0974;
-41.7000;0.6927;-0.0904;
-41.4000;0.6935;-0.0835;
-41.1000;0.6935;-0.0858;
-40.8000;0.6919;-0.0904;
-40.5000;0.6903;-0.0858;
-40.2000;0.6919;-0.0835;
-39.9000;0.6935;-0.0835;
-39.6000;0.6919;-0.0904;
-39.3000;0.6935;-0.0858;
-39.0000;0.6911;-0.0904;
-38.7000;0.6919;-0.0904;
-38.4000;0.6903;-0.0858;
-38.1000;0.6911;-0.0765;
-37.8000;0.6886;-0.0835;
-37.5000;0.6903;-0.0835;
-37.2000;0.6919;-0.0835;
-36.9000;0.6919;-0.0811;
-36.6000;0.6821;-0.1043;
-36.3000;0.6903;-0.0788;
-36.0000;0.6895;-0.0765;
-35.7000;0.6838;-0.0904;
-35.4000;0.6895;-0.0742;
-35.1000;0.6911;-0.0765;
-34.8000;0.6895;-0.0811;
-34.5000;0.6911;-0.0881;
-34.2000;0.6911;-0.0904;
-33.9000;0.6911;-0.0858;
-33.6000;0.6870;-0.0927;
-33.3000;0.6903;-0.0927;
-33.0000;0.6911;-0.0951;
-32.7000;0.6838;-0.1136;
-32.4000;0.6903;-0.0904;
-32.1000;0.6895;-0.0835;
-31.8000;0.6903;-0.0742;
-31.5000;0.6943;-0.0696;
-31.2000;0.6911;-0.0742;
-30.9000;0.6919;-0.0742;
-30.6000;0.6919;-0.0811;
-30.3000;0.6919;-0.0811;
-30.0000;0.6895;-0.0881;
-29.7000;0.6927;-0.0881;
-29.4000;0.6927;-0.1043;
-29.1000;0.6911;-0.0997;
-28.8000;0.6911;-0.1090;
-28.5000;0.6919;-0.1043;
-28.2000;0.6952;-0.1043;
-27.9000;0.6919;-0.1090;
-27.6000;0.6911;-0.1136;
-27.3000;0.6903;-0.1020;
-27.0000;0.6911;-0.1020;
-26.7000;0.6903;-0.0927;
-26.4000;0.6911;-0.0951;
-26.1000;0.6927;-0.0927;
-25.8000;0.6919;-0.1043;
-25.5000;0.6919;-0.1113;
-25.2000;0.6919;-0.1159;
-24.9000;0.6911;-0.1020;
-24.6000;0.6919;-0.0974;
-24.3000;0.6903;-0.0997;
-24.0000;0.6895;-0.0974;
-23.7000;0.6911;-0.1020;
-23.4000;0.6903;-0.0997;
-23.1000;0.6911;-0.0904;
-22.8000;0.6903;-0.0951;
-22.5000;0.6895;-0.0881;
-22.2000;0.6903;-0.0927;
-21.9000;0.6911;-0.0904;
-21.6000;0.6895;-0.0951;
-21.3000;0.6886;-0.0974;
-21.0000;0.6895;-0.1020;
-20.7000;0.6895;-0.1067;
-20.4000;0.6911;-0.1067;
-20.1000;0.6960;-0.0927;
-19.8000;0.6870;-0.1067;
-19.5000;0.6911;-0.1043;
-19.2000;0.6911;-0.1090;
-18.9000;0.6886;-0.1067;
-18.6000;0.6886;-0.1067;
-18.3000;0.6919;-0.1090;
-18.0000;0.6878;-0.1275;
-17.7000;0.6895;-0.1275;
-17.4000;0.6903;-0.1229;
-17.1000;0.6878;-0.1252;
-16.8000;0.6903;-0.1159;
-16.5000;0.6919;-0.1159;
-16.2000;0.6911;-0.1159;
-15.9000;0.6919;-0.1136;
-15.6000;0.6870;-0.1229;
-15.3000;0.6903;-0.1229;
-15.0000;0.6903;-0.1252;
-14.7000;0.6911;-0.1136;
-14.4000;0.6911;-0.1090;
-14.1000;0.6919;-0.1043;
-13.8000;0.6935;-0.1043;
-13.5000;0.6911;-0.0997;
-13.2000;0.6911;-0.0974;
-12.9000;0.6919;-0.0974;
-12.6000;0.6903;-0.1067;
-12.3000;0.6895;-0.1020;
-12.0000;0.6886;-0.1043;
-11.7000;0.6895;-0.0997;
-11.4000;0.6935;-0.0904;
-11.1000;0.6895;-0.0927;
-10.8000;0.6911;-0.0881;
-10.5000;0.6935;-0.0788;
-10.2000;0.6919;-0.0811;
-9.9000;0.6895;-0.1043;
-9.6000;0.6886;-0.0997;
-9.3000;0.6919;-0.0927;
-9.0000;0.6911;-0.0997;
-8.7000;0.6895;-0.1136;
-8.4000;0.6911;-0.1043;
-8.1000;0.6903;-0.1043;
-7.8000;0.6903;-0.0997;
-7.5000;0.6903;-0.1020;
-7.2000;0.6903;-0.0997;
-6.9000;0.6903;-0.1020;
-6.6000;0.6968;-0.0858;
-6.3000;0.6911;-0.0974;
-6.0000;0.6895;-0.0927;
-5.7000;0.6903;-0.0927;
-5.4000;0.6903;-0.0881;
-5.1000;0.6911;-0.0904;
-4.8000;0.6895;-0.0858;
-4.5000;0.6862;-0.0881;
-4.2000;0.6895;-0.0881;
-3.9000;0.6895;-0.0904;
-3.6000;0.6903;-0.0927;
-3.3000;0.6911;-0.0904;
-3.0000;0.6903;-0.0904;
-2.7000;0.6911;-0.0951;
-2.4000;0.6903;-0.1043;
-2.1000;0.6854;-0.1275;
-1.8000;0.6903;-0.1136;
-1.5000;0.6911;-0.1159;
-1.2000;0.6911;-0.1159;
-0.9000;0.6878;-0.1252;
-0.6000;0.6903;-0.1113;
-0.3000;0.6911;-0.1043;
0.0000;0.6911;-0.1043;
0.3000;0.7253;-0.0580;
0.6000;0.7855;0.0255;
0.9000;0.8376;0.1090;
1.2000;0.8751;0.1669;
1.5000;0.9060;0.2133;
1.8000;0.9320;0.2504;
2.1000;0.9491;0.2829;
2.4000;0.9638;0.3153;
2.7000;0.9792;0.3408;
3.0000;0.9866;0.3571;
3.3000;0.9988;0.3733;
3.6000;1.0085;0.3895;
3.9000;1.0142;0.3942;
4.2000;1.0208;0.3988;
4.5000;1.0289;0.4081;
4.8000;1.0370;0.4173;
5.1000;1.0411;0.4197;
5.4000;1.0460;0.4243;
5.7000;1.0517;0.4336;
6.0000;1.0558;0.4312;
6.3000;1.0623;0.4382;
6.6000;1.0663;0.4359;
6.9000;1.0737;0.4405;
7.2000;1.0712;0.4220;
7.5000;1.0818;0.4336;
7.8000;1.0851;0.4428;
8.1000;1.0891;0.4452;
8.4000;1.0924;0.4428;
8.7000;1.0989;0.4452;
9.0000;1.1013;0.4289;
9.3000;1.0989;0.4150;
9.6000;1.1087;0.4312;
9.9000;1.1119;0.4289;
10.2000;1.1176;0.4289;
10.5000;1.1209;0.4197;
10.8000;1.1225;0.4173;
11.1000;1.1266;0.4220;
11.4000;1.1306;0.4266;
11.7000;1.1339;0.4197;
12.0000;1.1372;0.4127;
12.3000;1.1396;0.4150;
12.6000;1.1429;0.4173;
12.9000;1.1477;0.4220;
13.2000;1.1502;0.4197;
13.5000;1.1526;0.4312;
13.8000;1.1518;0.4220;
14.1000;1.1600;0.4336;
14.4000;1.1608;0.4336;
14.7000;1.1624;0.4359;
15.0000;1.1681;0.4382;
15.3000;1.1705;0.4359;
15.6000;1.1713;0.4382;
15.9000;1.1754;0.4382;
16.2000;1.1762;0.4289;
16.5000;1.1795;0.4289;
16.8000;1.1827;0.4289;
17.1000;1.1811;0.4173;
17.4000;1.1860;0.4336;
17.7000;1.1901;0.4382;
18.0000;1.1933;0.4266;
18.3000;1.1933;0.4220;
18.6000;1.1998;0.4266;
18.9000;1.1974;0.4150;
19.2000;1.2007;0.4197;
19.5000;1.1982;0.4197;
19.8000;1.2055;0.4312;
20.1000;1.1998;0.4150;
20.4000;1.2055;0.4220;
20.7000;1.2088;0.4243;
21.0000;1.2096;0.4243;
21.3000;1.2104;0.4289;
21.6000;1.2063;0.4057;
21.9000;1.2129;0.4243;
22.2000;1.2112;0.4243;
22.5000;1.2137;0.4243;
22.8000;1.2226;0.4405;
23.1000;1.2210;0.4289;
23.4000;1.2202;0.4312;
23.7000;1.2218;0.4336;
24.0000;1.2234;0.4336;
24.3000;1.2259;0.4289;
24.6000;1.2267;0.4266;
24.9000;1.2267;0.4243;
25.2000;1.2226;0.4057;
25.5000;1.2275;0.4173;
25.8000;1.2291;0.4104;
26.1000;1.2308;0.4081;
26.4000;1.2316;0.4034;
26.7000;1.2316;0.4081;
27.0000;1.2348;0.4127;
27.3000;1.2348;0.4081;
27.6000;1.2365;0.4104;
27.9000;1.2357;0.4197;
28.2000;1.2389;0.4220;
28.5000;1.2381;0.4220;
28.8000;1.2422;0.4312;
29.1000;1.2397;0.4243;
29.4000;1.2414;0.4243;
29.7000;1.2405;0.4104;
30.0000;1.2414;0.4011;
30.3000;1.2430;0.4034;
30.6000;1.2438;0.4057;
30.9000;1.2479;0.4150;
31.2000;1.2454;0.4011;
31.5000;1.2438;0.3988;
31.8000;1.2470;0.4127;
32.1000;1.2479;0.4173;
32.4000;1.2495;0.4173;
32.7000;1.2487;0.3988;
33.0000;1.2511;0.3988;
33.3000;1.2511;0.3988;
33.6000;1.2519;0.4034;
33.9000;1.2527;0.4034;
34.2000;1.2495;0.3988;
34.5000;1.2511;0.3965;
34.8000;1.2519;0.4011;
35.1000;1.2519;0.4034;
35.4000;1.2544;0.4127;
35.7000;1.2487;0.4011;
36.0000;1.2536;0.4104;
36.3000;1.2536;0.4057;
36.6000;1.2536;0.4011;
36.9000;1.2552;0.4057;
37.2000;1.2576;0.4011;
37.5000;1.2593;0.3895;
37.8000;1.2576;0.3802;
38.1000;1.2560;0.3826;
38.4000;1.2593;0.3849;
38.7000;1.2527;0.3686;
39.0000;1.2584;0.3849;
39.3000;1.2625;0.3988;
39.6000;1.2617;0.3988;
39.9000;1.2593;0.3895;
40.2000;1.2609;0.3872;
40.5000;1.2617;0.3849;
40.8000;1.2617;0.3849;
41.1000;1.2641;0.3895;
41.4000;1.2625;0.3826;
41.7000;1.2625;0.3686;
42.0000;1.2633;0.3733;
42.3000;1.2641;0.3756;
42.6000;1.2617;0.3733;
42.9000;1.2625;0.3756;
43.2000;1.2625;0.3756;
43.5000;1.2641;0.3802;
43.8000;1.2641;0.3779;
44.1000;1.2658;0.3710;
44.4000;1.2658;0.3617;
44.7000;1.2658;0.3663;
45.0000;1.2666;0.3663;
45.3000;1.2666;0.3617;
45.6000;1.2658;0.3710;
45.9000;1.2674;0.3733;
46.2000;1.2666;0.3779;
46.5000;1.2666;0.3802;
46.8000;1.2658;0.3733;
47.1000;1.2731;0.3942;
47.4000;1.2674;0.3918;
47.7000;1.2625;0.3849;
48.0000;1.2666;0.3942;
48.3000;1.2674;0.4011;
48.6000;1.2690;0.3942;
48.9000;1.2674;0.3826;
49.2000;1.2650;0.3663;
49.5000;1.2682;0.3733;
49.8000;1.2698;0.3802;
50.1000;1.2690;0.3849;
50.4000;1.2707;0.3988;
50.7000;1.2698;0.4011;
51.0000;1.2698;0.3942;
51.3000;1.2715;0.3942;
51.6000;1.2698;0.3895;
51.9000;1.2715;0.3872;
52.2000;1.2715;0.3872;
52.5000;1.2731;0.3942;
52.8000;1.2772;0.4034;
53.1000;1.2739;0.3942;
53.4000;1.2707;0.3802;
53.7000;1.2715;0.3756;
54.0000;1.2723;0.3802;
54.3000;1.2731;0.3802;
54.6000;1.2739;0.3710;
54.9000;1.2747;0.3686;
55.2000;1.2747;0.3617;
55.5000;1.2755;0.3686;
55.8000;1.2723;0.3779;
56.1000;1.2747;0.3826;
56.4000;1.2690;0.3594;
56.7000;1.2747;0.3733;
57.0000;1.2755;0.3733;
57.3000;1.2804;0.3872;
57.6000;1.2715;0.3640;
57.9000;1.2755;0.3663;
58.2000;1.2755;0.3594;
58.5000;1.2731;0.3571;
58.8000;1.2747;0.3617;
59.1000;1.2755;0.3571;
59.4000;1.2747;0.3524;
59.7000;1.2739;0.3524;
60.0000;1.2772;0.3594;
60.3000;1.2755;0.3663;
60.6000;1.2755;0.3663;
60.9000;1.2764;0.3663;
61.2000;1.2780;0.3710;
61.5000;1.2837;0.3849;
61.8000;1.2788;0.3733;
62.1000;1.2772;0.3710;
62.4000;1.2821;0.3802;
62.7000;1.2772;0.3594;
63.0000;1.2772;0.3617;
63.3000;1.2780;0.3617;
63.6000;1.2764;0.3617;
63.9000;1.2772;0.3756;
64.2000;1.2788;0.3663;
64.5000;1.2780;0.3710;
64.8000;1.2780;0.3640;
65.1000;1.2780;0.3617;
65.4000;1.2796;0.3617;
65.7000;1.2788;0.3571;
66.0000;1.2772;0.3617;
66.3000;1.2788;0.3640;
66.6000;1.2796;0.3663;
66.9000;1.2788;0.3663;
67.2000;1.2780;0.3617;
67.5000;1.2804;0.3571;
67.8000;1.2804;0.3571;
68.1000;1.2796;0.3571;
68.4000;1.2780;0.3524;
68.7000;1.2812;0.3547;
69.0000;1.2837;0.3663;
69.3000;1.2821;0.3571;
69.6000;1.2804;0.3571;
69.9000;1.2853;0.3710;
70.2000;1.2837;0.3686;
70.5000;1.2829;0.3571;
70.8000;1.2780;0.3524;
71.1000;1.2812;0.3524;
71.4000;1.2780;0.3524;
71.7000;1.2804;0.3501;
72.0000;1.2812;0.3594;
72.3000;1.2812;0.3547;
72.6000;1.2788;0.3501;
72.9000;1.2804;0.3478;
73.2000;1.2829;0.3431;
73.5000;1.2804;0.3431;
73.8000;1.2845;0.3617;
74.1000;1.2812;0.3524;
74.4000;1.2812;0.3524;
74.7000;1.2837;0.3524;
75.0000;1.2804;0.3478;
75.3000;1.2812;0.3455;
75.6000;1.2829;0.3571;
75.9000;1.2837;0.3617;
76.2000;1.2837;0.3640;
76.5000;1.2821;0.3663;
76.8000;1.2829;0.3710;
77.1000;1.2845;0.3756;
77.4000;1.2910;0.3942;
77.7000;1.2829;0.3686;
78.0000;1.2829;0.3686;
78.3000;1.2853;0.3710;
78.6000;1.2845;0.3571;
78.9000;1.2853;0.3571;
79.2000;1.2877;0.3617;
79.5000;1.2845;0.3501;
79.8000;1.2853;0.3455;
80.1000;1.2821;0.3362;
80.4000;1.2853;0.3431;
80.7000;1.2837;0.3385;
81.0000;1.2853;0.3431;
81.3000;1.2837;0.3385;
81.6000;1.2837;0.3362;
81.9000;1.2845;0.3408;
82.2000;1.2861;0.3408;
82.5000;1.2910;0.3547;
82.8000;1.2837;0.3408;
83.1000;1.2853;0.3431;
83.4000;1.2829;0.3385;
83.7000;1.2837;0.3408;
84.0000;1.2853;0.3431;
84.3000;1.2845;0.3362;
84.6000;1.2853;0.3339;
84.9000;1.2845;0.3292;
85.2000;1.2853;0.3385;
85.5000;1.2845;0.3408;
85.8000;1.2869;0.3478;
86.1000;1.2861;0.3455;
86.4000;1.2845;0.3501;
86.7000;1.2845;0.3501;
87.0000;1.2845;0.3431;
87.3000;1.2861;0.3408;
87.6000;1.2877;0.3362;
87.9000;1.2861;0.3408;
88.2000;1.2853;0.3385;
88.5000;1.2869;0.3385;
88.8000;1.2861;0.3385;
89.1000;1.2861;0.3408;
89.4000;1.2869;0.3478;
89.7000;1.2861;0.3339;
90.0000;1.2837;0.3408;
90.3000;1.2877;0.3524;
90.6000;1.2877;0.3431;
90.9000;1.2861;0.3455;
91.2000;1.2910;0.3547;
91.5000;1.2877;0.3455;
91.8000;1.2845;0.3362;
92.1000;1.2869;0.3431;
92.4000;1.2861;0.3455;
92.7000;1.2869;0.3501;
93.0000;1.2861;0.3501;
93.3000;1.2910;0.3547;
93.6000;1.2877;0.3431;
93.9000;1.2853;0.3339;
94.2000;1.2861;0.3362;
94.5000;1.2853;0.3316;
94.8000;1.2861;0.3269;
95.1000;1.2869;0.3292;
95.4000;1.2869;0.3292;
95.7000;1.2869;0.3292;
96.0000;1.2861;0.3269;
96.3000;1.2861;0.3246;
96.6000;1.2845;0.3223;
96.9000;1.2853;0.3200;
97.2000;1.2861;0.3269;
97.5000;1.2877;0.3269;
97.8000;1.2869;0.3292;
98.1000;1.2869;0.3223;
98.4000;1.2877;0.3269;
98.7000;1.2877;0.3246;
99.0000;1.2886;0.3176;
99.3000;1.2886;0.3130;
99.6000;1.2886;0.3130;
99.9000;1.2943;0.3339;
100.2000;1.2894;0.3269;
100.5000;1.2902;0.3339;
100.8000;1.2877;0.3362;
101.1000;1.2902;0.3339;
101.4000;1.2959;0.3408;
101.7000;1.2902;0.3200;
102.0000;1.2894;0.3130;
102.3000;1.2894;0.3107;
102.6000;1.2894;0.3060;
102.9000;1.2812;0.2852;
103.2000;1.2902;0.2991;
103.5000;1.2902;0.2991;
103.8000;1.2910;0.3014;
104.1000;1.2894;0.2968;
104.4000;1.2902;0.2945;
104.7000;1.2918;0.2991;
105.0000;1.2894;0.2968;
105.3000;1.2886;0.3014;
105.6000;1.2902;0.3084;
105.9000;1.2910;0.3130;
106.2000;1.2959;0.3246;
106.5000;1.2910;0.3153;
106.8000;1.2894;0.3153;
107.1000;1.2894;0.3084;
107.4000;1.2869;0.3037;
107.7000;1.2902;0.3176;
108.0000;1.2894;0.3153;
108.3000;1.2902;0.3060;
108.6000;1.2910;0.3107;
108.9000;1.2894;0.3084;
109.2000;1.2918;0.3107;
109.5000;1.2926;0.3084;
109.8000;1.2877;0.2945;
110.1000;1.2894;0.3037;
110.4000;1.2902;0.3223;
110.7000;1.2894;0.3269;
111.0000;1.2886;0.3176;
111.3000;1.2894;0.3153;
111.6000;1.2894;0.3130;
111.9000;1.2902;0.3176;
112.2000;1.2886;0.3153;
112.5000;1.2894;0.3107;
112.8000;1.2902;0.3060;
113.1000;1.2837;0.3014;
113.4000;1.2910;0.3246;
113.7000;1.2910;0.3176;
114.0000;1.2902;0.3200;
114.3000;1.2959;0.3269;
114.6000;1.2926;0.3130;
114.9000;1.2910;0.3084;
115.2000;1.2943;0.3153;
115.5000;1.2918;0.3037;
115.8000;1.2918;0.3084;
116.1000;1.2886;0.2991;
116.4000;1.2918;0.3037;
116.7000;1.2902;0.3014;
117.0000;1.2910;0.3014;
117.3000;1.2934;0.3037;
117.6000;1.2934;0.3060;
117.9000;1.2902;0.2991;
118.2000;1.2918;0.2991;
118.5000;1.2910;0.2968;
118.8000;1.2910;0.3037;
119.1000;1.2910;0.3130;
119.4000;1.2910;0.3060;
119.7000;1.2918;0.3153;
120.0000;1.2902;0.3130;
120.3000;1.2910;0.3060;
120.6000;1.2926;0.3084;
120.9000;1.2918;0.3107;
121.2000;1.2918;0.3107;
121.5000;1.2918;0.3037;
121.8000;1.2918;0.3060;
122.1000;1.2918;0.3084;
122.4000;1.2918;0.3060;
122.7000;1.2902;0.3014;
123.0000;1.2934;0.3107;
123.3000;1.2910;0.3037;
123.6000;1.2951;0.3037;
123.9000;1.2926;0.2875;
124.2000;1.2926;0.2921;
124.5000;1.2951;0.3014;
124.8000;1.2951;0.3037;
125.1000;1.2934;0.3060;
125.4000;1.2861;0.2921;
125.7000;1.2991;0.3176;
126.0000;1.2910;0.3084;
126.3000;1.2910;0.3153;
126.6000;1.2902;0.3014;
126.9000;1.2902;0.2968;
127.2000;1.2943;0.2991;
127.5000;1.2918;0.2898;
127.8000;1.2918;0.2852;
128.1000;1.2918;0.2852;
128.4000;1.2910;0.2736;
128.7000;1.2934;0.2759;
129.0000;1.2943;0.2782;
129.3000;1.2951;0.2852;
129.6000;1.2926;0.2805;
129.9000;1.2943;0.2759;
130.2000;1.2926;0.2805;
130.5000;1.2886;0.2782;
130.8000;1.2926;0.2829;
131.1000;1.2918;0.2782;
131.4000;1.2926;0.2759;
131.7000;1.2934;0.2759;
132.0000;1.2934;0.2759;
132.3000;1.2894;0.2643;
132.6000;1.2821;0.2458;
132.9000;1.2910;0.2597;
133.2000;1.2926;0.2643;
133.5000;1.2845;0.2411;
133.8000;1.2934;0.2713;
134.1000;1.2918;0.2736;
134.4000;1.2943;0.2829;
134.7000;1.2943;0.2921;
135.0000;1.2951;0.2945;
135.3000;1.2918;0.2829;
135.6000;1.2926;0.2736;
135.9000;1.2934;0.2690;
136.2000;1.2918;0.2713;
136.5000;1.2926;0.2759;
136.8000;1.2943;0.2782;
137.1000;1.2934;0.2829;
137.4000;1.2918;0.2829;
137.7000;1.2926;0.2852;
138.0000;1.2926;0.2875;
138.3000;1.2934;0.2782;
138.6000;1.2934;0.2759;
138.9000;1.2934;0.2736;
139.2000;1.2975;0.2829;
139.5000;1.2959;0.2875;
139.8000;1.2951;0.2759;
140.1000;1.2951;0.2782;
140.4000;1.3000;0.2875;
140.7000;1.2902;0.2620;
141.0000;1.2943;0.2690;
141.3000;1.2951;0.2666;
141.6000;1.2926;0.2620;
141.9000;1.2910;0.2666;
142.2000;1.2943;0.2713;
142.5000;1.2934;0.2690;
142.8000;1.2934;0.2713;
143.1000;1.2943;0.2713;
143.4000;1.2926;0.2643;
143.7000;1.2934;0.2713;
144.0000;1.2943;0.2713;
144.3000;1.2951;0.2782;
144.6000;1.2967;0.2759;
144.9000;1.2959;0.2759;
145.2000;1.2991;0.2829;
145.5000;1.2918;0.2620;
145.8000;1.2951;0.2736;
146.1000;1.2943;0.2666;
146.4000;1.2959;0.2736;
146.7000;1.2934;0.2643;
147.0000;1.2934;0.2713;
147.3000;1.2943;0.2690;
147.6000;1.2943;0.2736;
147.9000;1.2959;0.2643;
148.2000;1.2943;0.2690;
148.5000;1.2943;0.2666;
148.8000;1.2934;0.2597;
149.1000;1.2959;0.2643;
149.4000;1.2910;0.2550;
149.7000;1.2934;0.2597;
150.0000;1.2951;0.2690;
150.3000;1.2943;0.2713;
150.6000;1.2959;0.2713;
150.9000;1.2943;0.2782;
151.2000;1.2926;0.2666;
151.5000;1.2991;0.2759;
151.8000;1.2983;0.2736;
152.1000;1.2943;0.2713;
152.4000;1.2934;0.2736;
152.7000;1.2951;0.2782;
153.0000;1.2951;0.2713;
153.3000;1.2918;0.2643;
153.6000;1.2934;0.2620;
153.9000;1.2943;0.2666;
154.2000;1.2943;0.2690;
154.5000;1.2943;0.2690;
154.8000;1.2926;0.2690;
155.1000;1.2934;0.2690;
155.4000;1.2967;0.2852;
155.7000;1.2934;0.2690;
156.0000;1.2951;0.2643;
156.3000;1.2934;0.2620;
156.6000;1.2959;0.2643;
156.9000;1.2943;0.2597;
157.2000;1.2951;0.2620;
157.5000;1.2926;0.2643;
157.8000;1.2951;0.2666;
158.1000;1.2959;0.2597;
158.4000;1.2926;0.2527;
158.7000;1.2934;0.2550;
159.0000;1.2943;0.2666;
159.3000;1.2959;0.2597;
159.6000;1.2934;0.2550;
159.9000;1.2934;0.2434;
160.2000;1.2951;0.2411;
160.5000;1.2951;0.2434;
160.8000;1.2967;0.2458;
161.1000;1.2951;0.2504;
161.4000;1.2959;0.2504;
161.7000;1.2967;0.2504;
162.0000;1.2959;0.2434;
162.3000;1.2943;0.2342;
162.6000;1.2959;0.2342;
162.9000;1.2975;0.2434;
163.2000;1.2967;0.2458;
163.5000;1.2959;0.2504;
163.8000;1.2943;0.2550;
164.1000;1.2943;0.2574;
164.4000;1.2943;0.2643;
164.7000;1.2951;0.2666;
165.0000;1.2943;0.2527;
165.3000;1.2967;0.2620;
165.6000;1.2959;0.2666;
165.9000;1.2959;0.2597;
166.2000;1.2967;0.2574;
166.5000;1.2959;0.2550;
166.8000;1.2959;0.2574;
167.1000;1.2967;0.2643;
167.4000;1.2943;0.2527;
167.7000;1.2951;0.2597;
168.0000;1.2959;0.2574;
168.3000;1.2959;0.2597;
168.6000;1.2943;0.2620;
168.9000;1.2959;0.2643;
169.2000;1.2943;0.2574;
169.5000;1.2967;0.2504;
169.8000;1.2967;0.2504;
170.1000;1.2967;0.2550;
170.4000;1.2959;0.2550;
170.7000;1.2967;0.2643;
171.0000;1.2967;0.2713;
171.3000;1.2975;0.2690;
171.6000;1.2975;0.2620;
171.9000;1.2967;0.2574;
172.2000;1.3008;0.2527;
172.5000;1.2991;0.2434;
172.8000;1.2959;0.2481;
173.1000;1.2959;0.2550;
173.4000;1.2951;0.2550;
173.7000;1.2967;0.2690;
174.0000;1.2902;0.2550;
174.3000;1.2959;0.2666;
174.6000;1.2951;0.2643;
174.9000;1.2934;0.2574;
175.2000;1.2918;0.2527;
175.5000;1.2951;0.2666;
175.8000;1.2959;0.2690;
176.1000;1.2951;0.2713;
176.4000;1.2951;0.2713;
176.7000;1.2902;0.2574;
177.0000;1.2943;0.2643;
177.3000;1.2951;0.2620;
177.6000;1.2959;0.2690;
177.9000;1.2951;0.2643;
178.2000;1.2959;0.2643;
178.5000;1.3081;0.2875;
178.8000;1.2926;0.2527;
179.1000;1.2951;0.2504;
179.4000;1.2918;0.2434;
179.7000;1.2951;0.2411;
180.0000;1.2959;0.2481;
180.3000;1.2926;0.2434;
180.6000;1.2934;0.2458;
180.9000;1.2943;0.2504;
181.2000;1.2959;0.2550;
181.5000;1.2959;0.2504;
181.8000;1.2959;0.2550;
182.1000;1.2951;0.2597;
182.4000;1.2959;0.2574;
182.7000;1.2951;0.2574;
183.0000;1.2959;0.2481;
183.3000;1.2967;0.2527;
183.6000;1.2983;0.2597;
183.9000;1.2983;0.2574;
184.2000;1.2934;0.2481;
184.5000;1.2967;0.2550;
184.8000;1.2967;0.2597;
185.1000;1.2959;0.2643;
185.4000;1.2959;0.2574;
185.7000;1.2967;0.2550;
186.0000;1.2983;0.2550;
186.3000;1.2975;0.2527;
186.6000;1.2975;0.2574;
186.9000;1.2967;0.2574;
187.2000;1.2967;0.2574;
187.5000;1.2967;0.2597;
187.8000;1.2959;0.2574;
188.1000;1.2975;0.2643;
188.4000;1.2943;0.2620;
188.7000;1.2951;0.2620;
189.0000;1.2918;0.2574;
189.3000;1.2943;0.2666;
189.6000;1.2967;0.2736;
189.9000;1.2943;0.2713;
190.2000;1.2959;0.2736;
190.5000;1.2959;0.2782;
190.8000;1.2975;0.2852;
191.1000;1.2967;0.2805;
191.4000;1.2951;0.2690;
191.7000;1.2967;0.2759;
192.0000;1.2951;0.2759;
192.3000;1.2967;0.2713;
192.6000;1.2975;0.2782;
192.9000;1.2951;0.2782;
193.2000;1.2951;0.2921;
193.5000;1.2951;0.3014;
193.8000;1.2967;0.2968;
194.1000;1.2991;0.2991;
194.4000;1.2951;0.2875;
194.7000;1.2975;0.2898;
195.0000;1.2926;0.2713;
195.3000;1.2975;0.2736;
195.6000;1.2967;0.2690;
195.9000;1.2926;0.2620;
196.2000;1.2951;0.2759;
196.5000;1.2967;0.2759;
196.8000;1.2967;0.2805;
197.1000;1.2959;0.2713;
197.4000;1.2967;0.2713;
197.7000;1.2959;0.2759;
198.0000;1.2959;0.2736;
198.3000;1.2967;0.2782;
198.6000;1.2918;0.2782;
198.9000;1.2951;0.2875;
199.2000;1.2967;0.2875;
199.5000;1.2902;0.2666;
199.8000;1.3032;0.2968;
200.1000;1.2951;0.2759;
200.4000;1.2959;0.2805;
200.7000;1.2959;0.2805;
201.0000;1.2943;0.2805;
201.3000;1.2959;0.2805;
201.6000;1.2967;0.2805;
201.9000;1.2967;0.2713;
202.2000;1.2967;0.2690;
202.5000;1.2975;0.2690;
202.8000;1.3000;0.2782;
203.1000;1.2967;0.2782;
203.4000;1.2959;0.2829;
203.7000;1.2934;0.2805;
204.0000;1.2943;0.2829;
204.3000;1.2983;0.2829;
204.6000;1.3008;0.2921;
204.9000;1.2967;0.2805;
205.2000;1.2983;0.2805;
205.5000;1.2975;0.2852;
205.8000;1.3048;0.2991;
206.1000;1.2967;0.2736;
206.4000;1.2983;0.2736;
206.7000;1.2975;0.2690;
207.0000;1.2983;0.2620;
207.3000;1.2967;0.2504;
207.6000;1.3065;0.2713;
207.9000;1.2991;0.2550;
208.2000;1.2983;0.2643;
208.5000;1.3008;0.2690;
208.8000;1.2967;0.2643;
209.1000;1.2967;0.2620;
209.4000;1.2975;0.2620;
209.7000;1.2959;0.2620;
210.0000;1.2967;0.2690;
210.3000;1.2959;0.2666;
210.6000;1.2869;0.2481;
210.9000;1.2943;0.2713;
211.2000;1.2943;0.2829;
211.5000;1.2959;0.2759;
211.8000;1.2959;0.2713;
212.1000;1.2967;0.2782;
212.4000;1.2959;0.2690;
212.7000;1.2959;0.2713;
213.0000;1.2943;0.2736;
213.3000;1.2934;0.2713;
213.6000;1.2943;0.2690;
213.9000;1.2934;0.2597;
214.2000;1.2967;0.2620;
214.5000;1.2967;0.2643;
214.8000;1.2959;0.2550;
215.1000;1.2959;0.2597;
215.4000;1.2967;0.2643;
215.7000;1.2975;0.2666;
216.0000;1.2991;0.2713;
216.3000;1.2991;0.2736;
216.6000;1.2975;0.2643;
216.9000;1.2967;0.2666;
217.2000;1.3016;0.2805;
217.5000;1.2975;0.2713;
217.8000;1.2959;0.2690;
218.1000;1.3016;0.2852;
218.4000;1.2951;0.2690;
218.7000;1.2983;0.2713;
219.0000;1.2934;0.2666;
219.3000;1.2983;0.2759;
219.6000;1.2975;0.2805;
219.9000;1.2959;0.2666;
220.2000;1.3048;0.2875;
220.5000;1.2967;0.2690;
220.8000;1.2959;0.2690;
221.1000;1.2975;0.2736;
221.4000;1.2967;0.2690;
221.7000;1.2975;0.2666;
222.0000;1.2951;0.2690;
222.3000;1.2975;0.2782;
222.6000;1.2967;0.2829;
222.9000;1.2967;0.2713;
223.2000;1.2975;0.2759;
223.5000;1.2959;0.2666;
223.8000;1.2967;0.2620;
224.1000;1.2959;0.2504;
224.4000;1.2910;0.2342;
224.7000;1.2975;0.2434;
225.0000;1.2967;0.2504;
225.3000;1.2991;0.2690;
225.6000;1.2975;0.2643;
225.9000;1.2959;0.2666;
226.2000;1.2967;0.2620;
226.5000;1.2967;0.2620;
226.8000;1.2951;0.2643;
227.1000;1.2951;0.2736;
227.4000;1.2967;0.2736;
227.7000;1.2967;0.2666;
228.0000;1.2959;0.2736;
228.3000;1.2975;0.2829;
228.6000;1.2983;0.2782;
228.9000;1.2967;0.2759;
229.2000;1.2967;0.2713;
229.5000;1.2959;0.2597;
229.8000;1.2959;0.2550;
230.1000;1.2967;0.2643;
230.4000;1.2983;0.2713;
230.7000;1.2967;0.2713;
231.0000;1.2967;0.2666;
231.3000;1.3000;0.2805;
231.6000;1.2983;0.2713;
231.9000;1.2934;0.2666;
232.2000;1.2959;0.2713;
232.5000;1.2951;0.2643;
232.8000;1.2967;0.2713;
233.1000;1.2943;0.2690;
233.4000;1.2951;0.2690;
233.7000;1.2943;0.2597;
234.0000;1.2967;0.2666;
234.3000;1.2959;0.2690;
234.6000;1.2959;0.2690;
234.9000;1.2975;0.2643;
235.2000;1.2975;0.2597;
235.5000;1.2967;0.2574;
235.8000;1.2975;0.2597;
236.1000;1.2991;0.2736;
236.4000;1.2983;0.2759;
236.7000;1.2959;0.2713;
237.0000;1.2967;0.2690;
237.3000;1.2951;0.2666;
237.6000;1.2991;0.2782;
237.9000;1.2967;0.2713;
238.2000;1.2943;0.2690;
238.5000;1.2943;0.2736;
238.8000;1.2951;0.2782;
239.1000;1.2959;0.2782;
239.4000;1.2967;0.2898;
239.7000;1.2926;0.2805;
240.0000;1.2967;0.2898;
240.3000;1.2975;0.2782;
240.6000;1.2983;0.2782;
240.9000;1.2943;0.2759;
241.2000;1.2951;0.2805;
241.5000;1.2983;0.2829;
241.8000;1.2959;0.2852;
242.1000;1.2975;0.2782;
242.4000;1.2967;0.2805;
242.7000;1.2983;0.2875;
243.0000;1.2951;0.2782;
243.3000;1.2943;0.2759;
243.6000;1.2959;0.2829;
243.9000;1.2959;0.2829;
244.2000;1.2959;0.2782;
244.5000;1.2967;0.2736;
244.8000;1.2967;0.2620;
245.1000;1.2959;0.2597;
245.4000;1.2967;0.2597;
245.7000;1.2959;0.2690;
246.0000;1.2967;0.2690;
246.3000;1.2983;0.2713;
246.6000;1.2959;0.2690;
246.9000;1.2959;0.2759;
247.2000;1.2967;0.2805;
247.5000;1.2959;0.2852;
247.8000;1.2967;0.2875;
248.1000;1.2975;0.2921;
248.4000;1.2934;0.2759;
248.7000;1.2967;0.2782;
249.0000;1.2959;0.2782;
249.3000;1.2902;0.2643;
249.6000;1.2967;0.2805;
249.9000;1.2967;0.2805;
250.2000;1.2975;0.2736;
250.5000;1.2975;0.2666;
250.8000;1.2983;0.2736;
251.1000;1.2967;0.2690;
251.4000;1.2943;0.2666;
251.7000;1.2959;0.2643;
252.0000;1.2983;0.2782;
252.3000;1.2967;0.2829;
252.6000;1.2934;0.2829;
252.9000;1.2967;0.2875;
253.2000;1.2967;0.2921;
253.5000;1.2975;0.2991;
253.8000;1.3000;0.2968;
254.1000;1.2943;0.2690;
254.4000;1.2967;0.2736;
254.7000;1.2959;0.2643;
255.0000;1.2959;0.2597;
255.3000;1.3008;0.2736;
255.6000;1.2959;0.2620;
255.9000;1.2959;0.2713;
256.2000;1.2975;0.2690;
256.5000;1.2967;0.2666;
256.8000;1.2975;0.2736;
257.1000;1.2951;0.2690;
257.4000;1.2975;0.2666;
257.7000;1.2967;0.2550;
258.0000;1.2959;0.2643;
258.3000;1.2975;0.2736;
258.6000;1.2975;0.2713;
258.9000;1.2959;0.2690;
259.2000;1.2967;0.2666;
259.5000;1.2975;0.2690;
259.8000;1.2959;0.2690;
260.1000;1.2951;0.2620;
260.4000;1.2943;0.2527;
260.7000;1.2967;0.2574;
261.0000;1.2967;0.2574;
261.3000;1.2983;0.2574;
261.6000;1.2959;0.2574;
261.9000;1.2983;0.2597;
262.2000;1.2991;0.2620;
262.5000;1.2991;0.2666;
262.8000;1.2959;0.2597;
263.1000;1.2951;0.2550;
263.4000;1.2967;0.2620;
263.7000;1.2967;0.2597;
264.0000;1.2959;0.2574;
264.3000;1.2959;0.2504;
264.6000;1.2967;0.2550;
264.9000;1.2967;0.2574;
265.2000;1.2959;0.2550;
265.5000;1.2967;0.2620;
265.8000;1.2975;0.2620;
266.1000;1.2983;0.2597;
266.4000;1.3065;0.2805;
266.7000;1.2975;0.2620;
267.0000;1.2975;0.2643;
267.3000;1.2975;0.2666;
267.6000;1.2975;0.2713;
267.9000;1.2967;0.2620;
268.2000;1.2959;0.2574;
268.5000;1.2951;0.2574;
268.8000;1.2951;0.2597;
269.1000;1.2983;0.2736;
269.4000;1.2967;0.2736;
269.7000;1.2967;0.2875;
270.0000;1.2967;0.2875;
270.3000;1.2967;0.2852;
270.6000;1.2959;0.2898;
270.9000;1.2951;0.2921;
271.2000;1.2975;0.2945;
271.5000;1.2934;0.2759;
271.8000;1.2951;0.2713;
272.1000;1.2967;0.2713;
272.4000;1.2983;0.2736;
272.7000;1.2959;0.2643;
273.0000;1.2959;0.2690;
273.3000;1.3008;0.2852;
273.6000;1.2975;0.2829;
273.9000;1.2967;0.2852;
274.2000;1.2967;0.2875;
274.5000;1.2951;0.2829;
274.8000;1.2959;0.2805;
275.1000;1.2967;0.2782;
275.4000;1.2983;0.2782;
275.7000;1.3000;0.2782;
276.0000;1.2975;0.2782;
276.3000;1.2959;0.2666;
276.6000;1.3040;0.2875;
276.9000;1.2886;0.2550;
277.2000;1.2959;0.2666;
277.5000;1.2975;0.2713;
277.8000;1.2959;0.2782;
278.1000;1.2975;0.2805;
278.4000;1.2967;0.2805;
278.7000;1.2967;0.2875;
279.0000;1.2967;0.2898;
279.3000;1.2959;0.2875;
279.6000;1.2983;0.2921;
279.9000;1.3000;0.2898;
280.2000;1.2975;0.2898;
280.5000;1.2983;0.2829;
280.8000;1.2975;0.2736;
281.1000;1.2934;0.2666;
281.4000;1.2967;0.2736;
281.7000;1.2959;0.2736;
282.0000;1.2959;0.2736;
282.3000;1.3048;0.2898;
282.6000;1.2975;0.2620;
282.9000;1.2902;0.2434;
283.2000;1.2991;0.2666;
283.5000;1.2967;0.2666;
283.8000;1.2991;0.2690;
284.1000;1.2983;0.2690;
284.4000;1.2975;0.2736;
284.7000;1.2991;0.2805;
285.0000;1.2967;0.2759;
285.3000;1.2975;0.2829;
285.6000;1.2975;0.2805;
285.9000;1.2951;0.2736;
286.2000;1.2991;0.2782;
286.5000;1.2967;0.2759;
286.8000;1.2959;0.2736;
287.1000;1.2951;0.2666;
287.4000;1.2951;0.2620;
287.7000;1.2951;0.2666;
288.0000;1.2975;0.2713;
288.3000;1.2967;0.2713;
288.6000;1.2967;0.2782;
288.9000;1.2967;0.2759;
289.2000;1.3000;0.2805;
289.5000;1.2975;0.2690;
289.8000;1.3000;0.2759;
290.1000;1.2967;0.2713;
290.4000;1.2983;0.2782;
290.7000;1.2991;0.2782;
291.0000;1.2951;0.2666;
291.3000;1.2934;0.2713;
291.6000;1.3000;0.2713;
291.9000;1.2967;0.2643;
292.2000;1.3024;0.2782;
292.5000;1.3000;0.2666;
292.8000;1.2967;0.2574;
293.1000;1.2983;0.2597;
293.4000;1.2959;0.2574;
293.7000;1.2967;0.2574;
294.0000;1.2967;0.2597;
294.3000;1.2975;0.2620;
294.6000;1.2975;0.2597;
294.9000;1.2975;0.2597;
295.2000;1.2959;0.2620;
295.5000;1.2975;0.2690;
295.8000;1.2959;0.2620;
296.1000;1.2959;0.2550;
296.4000;1.2951;0.2574;
296.7000;1.2943;0.2504;
297.0000;1.2943;0.2597;
297.3000;1.2934;0.2643;
297.6000;1.2934;0.2643;
297.9000;1.2934;0.2666;
298.2000;1.2959;0.2666;
298.5000;1.2959;0.2643;
298.8000;1.2959;0.2574;
299.1000;1.2959;0.2574;
299.4000;1.2975;0.2690;
299.7000;1.2991;0.2759;
300.0000;1.2967;0.2713;
300.3000;1.2983;0.2713;
300.6000;1.2975;0.2690;
300.9000;1.2975;0.2759;
301.2000;1.2975;0.2713;
301.5000;1.2983;0.2713;
301.8000;1.3000;0.2713;
302.1000;1.2918;0.2550;
302.4000;1.2975;0.2666;
302.7000;1.2991;0.2620;
303.0000;1.2959;0.2620;
303.3000;1.2934;0.2458;
303.6000;1.2983;0.2527;
303.9000;1.2975;0.2574;
304.2000;1.2975;0.2597;
304.5000;1.2975;0.2597;
304.8000;1.2910;0.2411;
305.1000;1.2967;0.2504;
305.4000;1.2943;0.2504;
305.7000;1.2991;0.2550;
306.0000;1.2975;0.2504;
306.3000;1.2975;0.2504;
306.6000;1.2975;0.2434;
306.9000;1.2975;0.2434;
307.2000;1.2975;0.2458;
307.5000;1.2967;0.2295;
307.8000;1.2951;0.2203;
308.1000;1.2959;0.2272;
308.4000;1.2959;0.2342;
308.7000;1.2991;0.2458;
309.0000;1.2975;0.2434;
309.3000;1.2951;0.2527;
309.6000;1.2959;0.2597;
309.9000;1.2975;0.2690;
310.2000;1.2967;0.2690;
310.5000;1.2975;0.2759;
310.8000;1.2983;0.2829;
311.1000;1.2983;0.2829;
311.4000;1.2991;0.2875;
311.7000;1.2951;0.2782;
312.0000;1.2951;0.2805;
312.3000;1.2951;0.2666;
312.6000;1.2967;0.2643;
312.9000;1.2959;0.2597;
313.2000;1.2959;0.2597;
313.5000;1.2975;0.2643;
313.8000;1.2975;0.2620;
314.1000;1.2959;0.2620;
314.4000;1.2967;0.2643;
314.7000;1.2943;0.2504;
315.0000;1.2975;0.2597;
315.3000;1.2967;0.2574;
315.6000;1.2967;0.2574;
315.9000;1.2975;0.2550;
316.2000;1.2967;0.2504;
316.5000;1.3000;0.2690;
316.8000;1.2918;0.2411;
317.1000;1.2967;0.2550;
317.4000;1.2926;0.2411;
317.7000;1.2975;0.2597;
318.0000;1.2918;0.2458;
318.3000;1.2975;0.2574;
318.6000;1.2983;0.2597;
318.9000;1.2991;0.2527;
319.2000;1.3000;0.2597;
319.5000;1.2959;0.2550;
319.8000;1.2967;0.2620;
320.1000;1.2983;0.2736;
320.4000;1.2975;0.2736;
320.7000;1.2959;0.2713;
321.0000;1.2967;0.2690;
321.3000;1.2959;0.2643;
321.6000;1.2967;0.2597;
321.9000;1.2975;0.2481;
322.2000;1.2975;0.2527;
322.5000;1.2975;0.2458;
322.8000;1.2959;0.2411;
323.1000;1.2967;0.2550;
323.4000;1.2959;0.2643;
323.7000;1.2975;0.2666;
324.0000;1.2967;0.2597;
324.3000;1.2983;0.2620;
324.6000;1.2983;0.2643;
324.9000;1.3008;0.2620;
325.2000;1.2967;0.2434;
325.5000;1.2975;0.2504;
325.8000;1.2967;0.2620;
326.1000;1.2975;0.2666;
326.4000;1.2991;0.2782;
326.7000;1.2983;0.2713;
327.0000;1.2983;0.2713;
327.3000;1.3032;0.2875;
327.6000;1.3008;0.2805;
327.9000;1.2983;0.2736;
328.2000;1.2983;0.2805;
328.5000;1.2991;0.2852;
328.8000;1.2991;0.2829;
329.1000;1.2975;0.2759;
329.4000;1.2959;0.2759;
329.7000;1.2967;0.2643;
330.0000;1.2983;0.2736;
330.3000;1.2975;0.2782;
330.6000;1.2975;0.2805;
330.9000;1.2951;0.2690;
331.2000;1.2975;0.2736;
331.5000;1.3008;0.2805;
331.8000;1.2983;0.2713;
332.1000;1.2983;0.2736;
332.4000;1.2967;0.2713;
332.7000;1.2975;0.2736;
333.0000;1.3016;0.2829;
333.3000;1.2983;0.2805;
333.6000;1.2991;0.2805;
333.9000;1.2934;0.2620;
334.2000;1.2951;0.2713;
334.5000;1.2975;0.2782;
334.8000;1.2959;0.2713;
335.1000;1.2975;0.2759;
335.4000;1.2967;0.2666;
335.7000;1.2975;0.2666;
336.0000;1.2967;0.2713;
336.3000;1.2967;0.2666;
336.6000;1.2983;0.2736;
336.9000;1.2951;0.2713;
337.2000;1.3000;0.2759;
337.5000;1.2959;0.2666;
337.8000;1.2967;0.2690;
338.1000;1.2975;0.2782;
338.4000;1.2959;0.2713;
338.7000;1.2991;0.2759;
339.0000;1.2967;0.2736;
339.3000;1.2983;0.2759;
339.6000;1.2983;0.2736;
339.9000;1.2967;0.2736;
340.2000;1.2959;0.2759;
340.5000;1.2983;0.2736;
340.8000;1.2918;0.2550;
341.1000;1.2967;0.2713;
341.4000;1.2967;0.2666;
341.7000;1.3016;0.2782;
342.0000;1.2967;0.2643;
342.3000;1.3008;0.2759;
342.6000;1.3008;0.2759;
342.9000;1.2983;0.2759;
343.2000;1.2975;0.2666;
343.5000;1.2991;0.2782;
343.8000;1.2975;0.2713;
344.1000;1.2967;0.2690;
344.4000;1.2951;0.2713;
344.7000;1.2959;0.2713;
345.0000;1.2959;0.2759;
345.3000;1.2959;0.2736;
345.6000;1.2983;0.2852;
345.9000;1.2951;0.2852;
346.2000;1.2991;0.2945;
346.5000;1.2975;0.2875;
346.8000;1.2975;0.2875;
347.1000;1.2983;0.2736;
347.4000;1.2975;0.2597;
347.7000;1.2983;0.2620;
348.0000;1.2967;0.2527;
348.3000;1.2991;0.2620;
348.6000;1.2975;0.2527;
348.9000;1.2975;0.2550;
349.2000;1.2991;0.2597;
349.5000;1.2983;0.2643;
349.8000;1.2983;0.2713;
350.1000;1.2869;0.2481;
350.4000;1.2959;0.2713;
350.7000;1.2983;0.2875;
351.0000;1.2991;0.2875;
351.3000;1.2967;0.2875;
351.6000;1.2959;0.2875;
351.9000;1.2959;0.2852;
352.2000;1.2967;0.2852;
352.5000;1.2967;0.2805;
352.8000;1.2975;0.2805;
353.1000;1.2975;0.2805;
353.4000;1.2967;0.2829;
353.7000;1.2967;0.2852;
354.0000;1.2967;0.2852;
354.3000;1.2951;0.2805;
354.6000;1.2983;0.2805;
354.9000;1.2975;0.2805;
355.2000;1.2967;0.2759;
355.5000;1.2983;0.2782;
355.8000;1.2959;0.2759;
356.1000;1.2959;0.2782;
356.4000;1.2886;0.2620;
356.7000;1.2975;0.2805;
357.0000;1.2959;0.2759;
357.3000;1.2918;0.2643;
357.6000;1.2967;0.2690;
357.9000;1.2951;0.2666;
358.2000;1.2975;0.2759;
358.5000;1.2943;0.2736;
358.8000;1.2975;0.2759;
359.1000;1.2967;0.2690;
359.4000;1.2910;0.2504;
359.7000;1.2975;0.2690;
360.0000;1.2983;0.2736;
360.3000;1.2967;0.2690;
360.6000;1.2967;0.2713;
360.9000;1.3008;0.2805;
361.2000;1.2926;0.2666;
361.5000;1.2967;0.2829;
361.8000;1.2959;0.2666;
362.1000;1.2967;0.2666;
362.4000;1.2975;0.2805;
362.7000;1.2983;0.2805;
363.0000;1.2926;0.2690;
363.3000;1.3065;0.3014;
363.6000;1.2975;0.2852;
363.9000;1.2975;0.2852;
364.2000;1.2959;0.2829;
364.5000;1.2959;0.2805;
364.8000;1.2975;0.2852;
365.1000;1.2983;0.2945;
365.4000;1.2975;0.2875;
365.7000;1.2967;0.2875;
366.0000;1.2951;0.2852;
366.3000;1.2943;0.2852;
366.6000;1.2967;0.2852;
366.9000;1.3000;0.2898;
367.2000;1.2951;0.2759;
367.5000;1.2943;0.2666;
367.8000;1.2975;0.2736;
368.1000;1.2967;0.2713;
368.4000;1.2967;0.2736;
368.7000;1.2983;0.2759;
369.0000;1.2983;0.2736;
369.3000;1.2975;0.2713;
369.6000;1.2951;0.2643;
369.9000;1.2967;0.2643;
370.2000;1.2967;0.2782;
370.5000;1.2975;0.2759;
370.8000;1.2959;0.2805;
371.1000;1.2967;0.2852;
371.4000;1.2983;0.2898;
371.7000;1.2991;0.2782;
372.0000;1.2967;0.2666;
372.3000;1.2967;0.2643;
372.6000;1.2975;0.2643;
372.9000;1.2983;0.2690;
373.2000;1.3000;0.2759;
373.5000;1.2991;0.2736;
373.8000;1.2983;0.2805;
374.1000;1.2983;0.2805;
374.4000;1.2991;0.2736;
374.7000;1.2983;0.2713;
375.0000;1.2967;0.2666;
375.3000;1.2991;0.2666;
375.6000;1.2975;0.2620;
375.9000;1.2967;0.2690;
376.2000;1.2991;0.2805;
376.5000;1.2975;0.2782;
376.8000;1.2975;0.2829;
377.1000;1.2967;0.2805;
377.4000;1.2975;0.2782;
377.7000;1.2959;0.2852;
378.0000;1.2967;0.2852;
378.3000;1.2975;0.2829;
378.6000;1.2975;0.2736;
378.9000;1.2983;0.2759;
379.2000;1.2975;0.2782;
379.5000;1.2975;0.2759;
379.8000;1.2991;0.2690;
380.1000;1.2983;0.2666;
380.4000;1.2991;0.2713;
380.7000;1.2967;0.2736;
381.0000;1.2967;0.2782;
381.3000;1.2951;0.2736;
381.6000;1.2943;0.2620;
381.9000;1.2967;0.2643;
382.2000;1.2959;0.2620;
382.5000;1.2967;0.2690;
382.8000;1.2967;0.2736;
383.1000;1.3032;0.2945;
383.4000;1.3000;0.2805;
383.7000;1.2959;0.2643;
384.0000;1.2959;0.2620;
384.3000;1.3024;0.2690;
384.6000;1.2967;0.2550;
384.9000;1.2959;0.2504;
385.2000;1.2975;0.2504;
385.5000;1.2975;0.2527;
385.8000;1.2967;0.2550;
386.1000;1.2959;0.2527;
386.4000;1.2910;0.2458;
386.7000;1.2959;0.2597;
387.0000;1.2967;0.2620;
387.3000;1.2975;0.2713;
387.6000;1.2951;0.2713;
387.9000;1.2967;0.2852;
388.2000;1.2975;0.2898;
388.5000;1.2967;0.2875;
388.8000;1.2951;0.2805;
389.1000;1.2967;0.2782;
389.4000;1.2975;0.2782;
389.7000;1.2967;0.2875;
390.0000;1.2983;0.2829;
390.3000;1.2975;0.2759;
390.6000;1.2967;0.2713;
390.9000;1.2967;0.2759;
391.2000;1.2967;0.2690;
391.5000;1.2959;0.2643;
391.8000;1.2983;0.2666;
392.1000;1.2959;0.2597;
392.4000;1.2967;0.2736;
392.7000;1.2991;0.2805;
393.0000;1.2967;0.2852;
393.3000;1.2943;0.2782;
393.6000;1.3016;0.2968;
393.9000;1.2959;0.2875;
394.2000;1.2951;0.2875;
394.5000;1.2951;0.2875;
394.8000;1.2975;0.2852;
395.1000;1.2975;0.2805;
395.4000;1.2959;0.2713;
395.7000;1.2967;0.2759;
396.0000;1.2975;0.2713;
396.3000;1.2910;0.2574;
396.6000;1.2983;0.2713;
396.9000;1.2967;0.2713;
397.2000;1.2975;0.2736;
397.5000;1.2975;0.2829;
397.8000;1.2967;0.2829;
398.1000;1.2934;0.2713;
398.4000;1.2967;0.2759;
398.7000;1.2959;0.2805;
399.0000;1.2951;0.2805;
399.3000;1.2951;0.2805;
399.6000;1.2951;0.2829;
399.9000;1.2967;0.2759;
400.2000;1.2910;0.2620;
400.5000;1.2975;0.2736;
400.8000;1.2983;0.2713;
401.1000;1.2975;0.2690;
401.4000;1.2983;0.2713;
401.7000;1.2951;0.2574;
402.0000;1.2975;0.2690;
402.3000;1.2975;0.2782;
402.6000;1.2951;0.2666;
402.9000;1.2967;0.2713;
403.2000;1.2967;0.2690;
403.5000;1.2975;0.2736;
403.8000;1.2975;0.2690;
404.1000;1.2910;0.2620;
404.4000;1.2975;0.2713;
404.7000;1.2959;0.2574;
405.0000;1.2959;0.2574;
405.3000;1.2975;0.2620;
405.6000;1.2943;0.2574;
405.9000;1.2951;0.2597;
406.2000;1.2967;0.2713;
406.5000;1.2951;0.2690;
406.8000;1.3048;0.2968;
407.1000;1.2967;0.2782;
407.4000;1.2959;0.2852;
407.7000;1.2959;0.2829;
408.0000;1.2975;0.2852;
408.3000;1.2967;0.2782;
408.6000;1.2967;0.2690;
408.9000;1.2967;0.2713;
409.2000;1.2975;0.2690;
409.5000;1.2951;0.2782;
409.8000;1.3000;0.2921;
410.1000;1.2959;0.2805;
410.4000;1.2967;0.2782;
410.7000;1.2975;0.2782;
411.0000;1.2975;0.2805;
411.3000;1.2983;0.2829;
411.6000;1.2991;0.2805;
411.9000;1.2975;0.2736;
412.2000;1.2967;0.2759;
412.5000;1.2967;0.2736;
412.8000;1.2975;0.2690;
413.1000;1.2967;0.2597;
413.4000;1.2951;0.2550;
413.7000;1.2975;0.2574;
414.0000;1.3000;0.2620;
414.3000;1.2975;0.2550;
414.6000;1.2967;0.2411;
414.9000;1.2967;0.2504;
415.2000;1.2975;0.2550;
415.5000;1.2983;0.2574;
415.8000;1.2951;0.2481;
416.1000;1.2983;0.2597;
416.4000;1.2991;0.2597;
416.7000;1.2991;0.2527;
417.0000;1.2983;0.2504;
417.3000;1.2975;0.2504;
417.6000;1.2975;0.2574;
417.9000;1.2983;0.2620;
418.2000;1.2983;0.2690;
418.5000;1.2975;0.2620;
418.8000;1.3008;0.2736;
419.1000;1.3024;0.2805;
419.4000;1.2967;0.2666;
419.7000;1.2934;0.2597;
420.0000;1.2975;0.2690;
420.3000;1.2934;0.2527;
420.6000;1.2967;0.2597;
420.9000;1.2959;0.2574;
421.2000;1.2967;0.2690;
421.5000;1.2967;0.2690;
421.8000;1.3000;0.2805;
422.1000;1.2967;0.2759;
422.4000;1.2967;0.2736;
422.7000;1.2975;0.2782;
423.0000;1.2959;0.2713;
423.3000;1.2975;0.2713;
423.6000;1.2951;0.2550;
423.9000;1.2959;0.2620;
424.2000;1.2967;0.2666;
424.5000;1.2959;0.2713;
424.8000;1.2967;0.2782;
425.1000;1.2959;0.2782;
425.4000;1.2975;0.2921;
425.7000;1.2967;0.2805;
426.0000;1.2959;0.2829;
426.3000;1.2967;0.2805;
426.6000;1.3032;0.2968;
426.9000;1.2918;0.2736;
427.2000;1.2967;0.2782;
427.5000;1.2967;0.2829;
427.8000;1.2959;0.2805;
428.1000;1.2967;0.2805;
428.4000;1.2943;0.2736;
428.7000;1.2951;0.2829;
429.0000;1.2967;0.2829;
429.3000;1.2910;0.2713;
429.6000;1.2959;0.2875;
429.9000;1.2951;0.2805;
430.2000;1.2975;0.2782;
430.5000;1.2983;0.2782;
430.8000;1.3024;0.2898;
431.1000;1.2967;0.2713;
431.4000;1.2975;0.2713;
431.7000;1.2959;0.2690;
432.0000;1.2983;0.2713;
432.3000;1.3008;0.2782;
432.6000;1.2983;0.2666;
432.9000;1.2975;0.2690;
433.2000;1.2967;0.2736;
433.5000;1.2959;0.2759;
433.8000;1.2951;0.2736;
434.1000;1.2951;0.2713;
434.4000;1.2902;0.2713;
434.7000;1.2967;0.2829;
435.0000;1.2967;0.2759;
435.3000;1.2951;0.2597;
435.6000;1.2967;0.2643;
435.9000;1.3008;0.2759;
436.2000;1.2959;0.2643;
436.5000;1.2959;0.2666;
436.8000;1.2951;0.2666;
437.1000;1.2975;0.2643;
437.4000;1.2926;0.2504;
437.7000;1.3000;0.2643;
438.0000;1.2959;0.2574;
438.3000;1.2975;0.2597;
438.6000;1.2967;0.2574;
438.9000;1.2959;0.2481;
439.2000;1.2951;0.2458;
439.5000;1.2983;0.2527;
439.8000;1.2983;0.2504;
440.1000;1.2967;0.2481;
440.4000;1.2967;0.2527;
440.7000;1.2951;0.2527;
441.0000;1.2967;0.2504;
441.3000;1.2975;0.2597;
441.6000;1.2959;0.2643;
441.9000;1.2951;0.2666;
442.2000;1.2934;0.2643;
442.5000;1.2975;0.2829;
442.8000;1.2959;0.2759;
443.1000;1.2967;0.2736;
443.4000;1.2967;0.2736;
443.7000;1.2967;0.2782;
444.0000;1.2943;0.2805;
444.3000;1.2943;0.2782;
444.6000;1.2967;0.2759;
444.9000;1.2967;0.2805;
445.2000;1.2967;0.2852;
445.5000;1.2959;0.2736;
445.8000;1.2975;0.2713;
446.1000;1.2975;0.2875;
446.4000;1.2951;0.2759;
446.7000;1.2959;0.2829;
447.0000;1.2967;0.2852;
447.3000;1.2959;0.2875;
447.6000;1.2959;0.2875;
447.9000;1.2983;0.2829;
448.2000;1.2975;0.2643;
448.5000;1.2983;0.2620;
448.8000;1.2983;0.2690;
449.1000;1.2975;0.2713;
449.4000;1.2967;0.2643;
449.7000;1.2975;0.2736;
450.0000;1.2975;0.2736;
450.3000;1.2934;0.2643;
450.6000;1.2918;0.2690;
450.9000;1.2975;0.2852;
451.2000;1.2983;0.2898;
451.5000;1.3040;0.2991;
451.8000;1.2983;0.2875;
452.1000;1.2934;0.2782;
452.4000;1.2959;0.2852;
452.7000;1.2967;0.2875;
453.0000;1.2967;0.2805;
453.3000;1.3008;0.2898;
453.6000;1.2975;0.2782;
453.9000;1.2967;0.2759;
454.2000;1.2926;0.2759;
454.5000;1.2967;0.2875;
454.8000;1.2991;0.3037;
455.1000;1.2959;0.2945;
455.4000;1.2959;0.2852;
455.7000;1.2959;0.2852;
456.0000;1.2983;0.2921;
456.3000;1.2983;0.2852;
456.6000;1.2967;0.2852;
456.9000;1.2983;0.2898;
457.2000;1.2951;0.2898;
457.5000;1.2967;0.2921;
457.8000;1.2902;0.2782;
458.1000;1.2967;0.2875;
458.4000;1.2943;0.2921;
458.7000;1.2967;0.2991;
459.0000;1.3048;0.3130;
459.3000;1.2975;0.2875;
459.6000;1.2967;0.2782;
459.9000;1.2983;0.2782;
460.2000;1.2983;0.2782;
460.5000;1.2975;0.2759;
460.8000;1.2951;0.2736;
461.1000;1.2959;0.2690;
461.4000;1.2983;0.2713;
461.7000;1.2967;0.2666;
462.0000;1.3008;0.2759;
462.3000;1.2967;0.2713;
462.6000;1.2951;0.2713;
462.9000;1.2967;0.2759;
463.2000;1.2951;0.2852;
463.5000;1.2951;0.2852;
463.8000;1.2967;0.2805;
464.1000;1.2975;0.2782;
464.4000;1.2975;0.2759;
464.7000;1.2975;0.2805;
465.0000;1.2983;0.2782;
465.3000;1.2967;0.2852;
465.6000;1.2959;0.2898;
465.9000;1.2967;0.2991;
466.2000;1.2959;0.3084;
466.5000;1.2967;0.3060;
466.8000;1.2967;0.3037;
467.1000;1.2967;0.3037;
467.4000;1.2951;0.2968;
467.7000;1.2967;0.2898;
468.0000;1.3000;0.2921;
468.3000;1.3016;0.2852;
468.6000;1.2967;0.2690;
468.9000;1.2951;0.2643;
469.2000;1.2975;0.2666;
469.5000;1.2967;0.2643;
469.8000;1.2967;0.2666;
470.1000;1.2951;0.2666;
470.4000;1.2975;0.2736;
470.7000;1.2967;0.2713;
471.0000;1.2959;0.2713;
471.3000;1.2951;0.2736;
471.6000;1.2967;0.2690;
471.9000;1.2959;0.2666;
472.2000;1.2951;0.2666;
472.5000;1.2991;0.2713;
472.8000;1.2967;0.2690;
473.1000;1.2918;0.2620;
473.4000;1.2926;0.2574;
473.7000;1.2959;0.2527;
474.0000;1.3032;0.2597;
474.3000;1.2967;0.2458;
474.6000;1.2943;0.2504;
474.9000;1.2959;0.2550;
475.2000;1.2943;0.2620;
475.5000;1.2975;0.2690;
475.8000;1.2967;0.2736;
476.1000;1.2943;0.2643;
476.4000;1.2983;0.2666;
476.7000;1.2967;0.2666;
477.0000;1.2951;0.2829;
477.3000;1.2951;0.2805;
477.6000;1.2926;0.2759;
477.9000;1.2959;0.2759;
478.2000;1.2934;0.2666;
478.5000;1.2967;0.2713;
478.8000;1.2951;0.2690;
479.1000;1.2959;0.2782;
479.4000;1.2983;0.2829;
479.7000;1.2967;0.2759;
480.0000;1.2967;0.2736;
480.3000;1.3016;0.2829;
480.6000;1.2959;0.2713;
480.9000;1.3008;0.2736;
481.2000;1.2967;0.2643;
481.5000;1.2967;0.2690;
481.8000;1.2959;0.2620;
482.1000;1.2967;0.2527;
482.4000;1.2951;0.2481;
482.7000;1.2967;0.2550;
483.0000;1.2959;0.2597;
483.3000;1.2967;0.2620;
483.6000;1.2951;0.2620;
483.9000;1.2943;0.2690;
484.2000;1.2975;0.2736;
484.5000;1.2951;0.2643;
484.8000;1.2959;0.2620;
485.1000;1.2951;0.2620;
485.4000;1.2975;0.2620;
485.7000;1.2967;0.2643;
486.0000;1.2975;0.2620;
486.3000;1.2975;0.2597;
486.6000;1.2951;0.2550;
486.9000;1.2967;0.2643;
487.2000;1.2983;0.2620;
487.5000;1.2967;0.2620;
487.8000;1.2983;0.2574;
488.1000;1.2959;0.2643;
488.4000;1.2959;0.2805;
488.7000;1.2967;0.2759;
489.0000;1.2967;0.2829;
489.3000;1.2951;0.2898;
489.6000;1.2959;0.2805;
489.9000;1.2967;0.2782;
490.2000;1.2967;0.2666;
490.5000;1.2951;0.2597;
490.8000;1.2967;0.2690;
491.1000;1.2983;0.2736;
491.4000;1.2967;0.2713;
491.7000;1.2959;0.2597;
492.0000;1.2967;0.2597;
492.3000;1.2967;0.2736;
492.6000;1.2959;0.2736;
492.9000;1.2943;0.2666;
493.2000;1.2943;0.2713;
493.5000;1.2967;0.2759;
493.8000;1.2959;0.2782;
494.1000;1.2959;0.2805;
494.4000;1.2934;0.2713;
494.7000;1.2959;0.2759;
495.0000;1.2967;0.2829;
495.3000;1.2951;0.2852;
495.6000;1.2943;0.2968;
495.9000;1.2894;0.2852;
496.2000;1.2983;0.3014;
496.5000;1.2983;0.2968;
496.8000;1.2967;0.2991;
497.1000;1.2983;0.3037;
497.4000;1.2975;0.2945;
497.7000;1.2967;0.2921;
498.0000;1.2959;0.2875;
498.3000;1.2951;0.2829;
498.6000;1.2991;0.2898;
498.9000;1.2967;0.2829;
499.2000;1.2959;0.2805;
499.5000;1.2959;0.2759;
499.8000;1.2975;0.2690;
500.1000;1.2959;0.2620;
500.4000;1.2983;0.2713;
500.7000;1.2967;0.2666;
501.0000;1.2975;0.2690;
501.3000;1.2975;0.2643;
501.6000;1.2975;0.2713;
501.9000;1.2975;0.2713;
502.2000;1.2983;0.2713;
502.5000;1.2959;0.2620;
502.8000;1.2975;0.2666;
503.1000;1.2975;0.2620;
503.4000;1.2967;0.2597;
503.7000;1.2959;0.2736;
504.0000;1.2967;0.2898;
504.3000;1.3000;0.2945;
504.6000;1.2943;0.2829;
504.9000;1.2951;0.2805;
505.2000;1.2959;0.2782;
505.5000;1.2959;0.2852;
505.8000;1.2967;0.2875;
506.1000;1.2959;0.2875;
506.4000;1.2959;0.2852;
506.7000;1.3000;0.2968;
507.0000;1.2983;0.2921;
507.3000;1.2951;0.2921;
507.6000;1.2959;0.2875;
507.9000;1.2975;0.2898;
508.2000;1.2959;0.2921;
508.5000;1.2967;0.2829;
508.8000;1.2967;0.2898;
509.1000;1.2951;0.2921;
509.4000;1.2959;0.2852;
509.7000;1.2926;0.2782;
510.0000;1.2975;0.2921;
510.3000;1.2975;0.2829;
510.6000;1.2975;0.2759;
510.9000;1.2959;0.2690;
511.2000;1.2951;0.2643;
511.5000;1.2967;0.2713;
511.8000;1.2967;0.2782;
512.1000;1.2991;0.2782;
512.4000;1.2959;0.2690;
512.7000;1.2975;0.2736;
513.0000;1.2975;0.2666;
513.3000;1.2967;0.2690;
513.6000;1.2975;0.2597;
513.9000;1.2975;0.2643;
514.2000;1.3032;0.2829;
514.5000;1.2975;0.2666;
514.8000;1.2967;0.2643;
515.1000;1.2959;0.2713;
515.4000;1.2967;0.2829;
515.7000;1.2967;0.2852;
516.0000;1.2951;0.2782;
516.3000;1.2959;0.2736;
516.6000;1.2959;0.2713;
516.9000;1.2959;0.2805;
517.2000;1.2967;0.2852;
517.5000;1.2967;0.2805;
517.8000;1.2967;0.2805;
518.1000;1.2983;0.2759;
518.4000;1.2991;0.2782;
518.7000;1.2959;0.2736;
519.0000;1.3016;0.2875;
519.3000;1.2983;0.2852;
519.6000;1.2967;0.2829;
519.9000;1.2959;0.2829;
520.2000;1.2959;0.2829;
520.5000;1.2951;0.2875;
520.8000;1.2902;0.2805;
521.1000;1.2959;0.2875;
521.4000;1.2926;0.2736;
521.7000;1.2951;0.2852;
522.0000;1.2983;0.2875;
522.3000;1.2967;0.2782;
522.6000;1.2951;0.2782;
522.9000;1.2975;0.2829;
523.2000;1.2975;0.2829;
523.5000;1.2975;0.2782;
523.8000;1.2967;0.2713;
524.1000;1.2975;0.2736;
524.4000;1.2975;0.2759;
524.7000;1.2910;0.2550;
525.0000;1.2959;0.2666;
525.3000;1.2951;0.2713;
525.6000;1.2951;0.2713;
525.9000;1.2967;0.2782;
526.2000;1.2959;0.2690;
526.5000;1.2951;0.2666;
526.8000;1.2975;0.2690;
527.1000;1.2967;0.2643;
527.4000;1.2967;0.2666;
527.7000;1.2967;0.2759;
528.0000;1.2894;0.2574;
528.3000;1.2967;0.2898;
528.6000;1.2951;0.2968;
528.9000;1.2967;0.3014;
529.2000;1.2910;0.2945;
529.5000;1.2959;0.3037;
529.8000;1.2918;0.2968;
530.1000;1.2959;0.2991;
530.4000;1.2959;0.2968;
530.7000;1.2967;0.3014;
531.0000;1.2967;0.3037;
531.3000;1.2967;0.3014;
531.6000;1.2975;0.3107;
531.9000;1.2943;0.3060;
532.2000;1.2967;0.3130;
532.5000;1.2959;0.3223;
532.8000;1.2967;0.3153;
533.1000;1.2943;0.3014;
533.4000;1.2959;0.3014;
533.7000;1.2983;0.3037;
534.0000;1.2959;0.2991;
534.3000;1.2943;0.2991;
534.6000;1.2959;0.2945;
534.9000;1.2951;0.2921;
535.2000;1.2934;0.2875;
535.5000;1.2951;0.2945;
535.8000;1.2967;0.3060;
536.1000;1.2943;0.2968;
536.4000;1.2959;0.2921;
536.7000;1.2959;0.2852;
537.0000;1.2943;0.2759;
537.3000;1.2967;0.2852;
537.6000;1.2959;0.2852;
537.9000;1.2951;0.2805;
538.2000;1.2918;0.2690;
538.5000;1.2975;0.2875;
538.8000;1.2959;0.2829;
539.1000;1.2967;0.2898;
539.4000;1.2967;0.2805;
539.7000;1.2975;0.2829;
540.0000;1.2983;0.2829;
540.3000;1.2967;0.2759;
540.6000;1.2943;0.2690;
540.9000;1.2967;0.2782;
541.2000;1.2959;0.2805;
541.5000;1.2975;0.2805;
541.8000;1.2951;0.2759;
542.1000;1.2959;0.2805;
542.4000;1.2967;0.2736;
542.7000;1.2951;0.2666;
543.0000;1.2951;0.2666;
543.3000;1.2967;0.2713;
543.6000;1.2926;0.2597;
543.9000;1.2967;0.2690;
544.2000;1.2951;0.2690;
544.5000;1.2975;0.2759;
544.8000;1.2959;0.2829;
545.1000;1.2967;0.2805;
545.4000;1.2959;0.2875;
545.7000;1.3032;0.3037;
546.0000;1.2959;0.2736;
546.3000;1.2943;0.2690;
546.6000;1.2975;0.2690;
546.9000;1.2967;0.2713;
547.2000;1.2951;0.2643;
547.5000;1.2951;0.2666;
547.8000;1.2967;0.2666;
548.1000;1.2951;0.2736;
548.4000;1.2943;0.2736;
548.7000;1.2918;0.2736;
549.0000;1.2959;0.2759;
549.3000;1.2983;0.2875;
549.6000;1.2991;0.2921;
549.9000;1.2975;0.2898;
550.2000;1.2975;0.2829;
550.5000;1.2959;0.2852;
550.8000;1.2991;0.2968;
551.1000;1.2951;0.2805;
551.4000;1.2910;0.2736;
551.7000;1.2943;0.2736;
552.0000;1.2967;0.2713;
552.3000;1.2934;0.2550;
552.6000;1.2943;0.2574;
552.9000;1.2934;0.2597;
553.2000;1.2967;0.2620;
553.5000;1.2951;0.2504;
553.8000;1.2991;0.2643;
554.1000;1.2951;0.2527;
554.4000;1.2943;0.2481;
554.7000;1.2934;0.2458;
555.0000;1.2967;0.2643;
555.3000;1.2967;0.2666;
555.6000;1.2967;0.2643;
555.9000;1.2967;0.2713;
556.2000;1.2975;0.2759;
556.5000;1.2983;0.2759;
556.8000;1.2967;0.2759;
557.1000;1.2951;0.2759;
557.4000;1.2951;0.2713;
557.7000;1.2951;0.2852;
558.0000;1.2975;0.2829;
558.3000;1.2951;0.2782;
558.6000;1.2967;0.2736;
558.9000;1.2951;0.2690;
559.2000;1.2991;0.2829;
559.5000;1.2975;0.2759;
559.8000;1.2975;0.2782;
560.1000;1.2959;0.2829;
560.4000;1.2975;0.2875;
560.7000;1.2959;0.2875;
561.0000;1.2959;0.2805;
561.3000;1.2983;0.2759;
561.6000;1.2910;0.2550;
561.9000;1.2991;0.2759;
562.2000;1.2959;0.2643;
562.5000;1.2943;0.2597;
562.8000;1.2975;0.2690;
563.1000;1.2967;0.2782;
563.4000;1.2951;0.2690;
563.7000;1.2869;0.2481;
564.0000;1.2967;0.2666;
564.3000;1.2951;0.2597;
564.6000;1.2967;0.2574;
564.9000;1.2959;0.2597;
565.2000;1.2943;0.2550;
565.5000;1.2967;0.2620;
565.8000;1.2983;0.2597;
566.1000;1.2975;0.2550;
566.4000;1.2967;0.2574;
566.7000;1.2983;0.2643;
567.0000;1.2975;0.2643;
567.3000;1.2951;0.2690;
567.6000;1.2934;0.2666;
567.9000;1.2975;0.2736;
568.2000;1.2943;0.2759;
568.5000;1.2959;0.2829;
568.8000;1.2967;0.2852;
569.1000;1.2926;0.2666;
569.4000;1.2951;0.2782;
569.7000;1.2959;0.2713;
570.0000;1.2959;0.2713;
570.3000;1.2943;0.2620;
570.6000;1.3024;0.2829;
570.9000;1.2943;0.2597;
571.2000;1.2951;0.2620;
571.5000;1.2951;0.2713;
571.8000;1.2959;0.2713;
572.1000;1.2967;0.2713;
572.4000;1.2943;0.2666;
572.7000;1.2967;0.2736;
573.0000;1.2951;0.2759;
573.3000;1.2959;0.2759;
573.6000;1.2943;0.2736;
573.9000;1.2934;0.2782;
574.2000;1.2943;0.2666;
574.5000;1.2894;0.2527;
574.8000;1.2983;0.2690;
575.1000;1.2943;0.2620;
575.4000;1.2934;0.2620;
575.7000;1.2951;0.2597;
576.0000;1.2951;0.2620;
576.3000;1.2983;0.2736;
576.6000;1.2951;0.2805;
576.9000;1.2975;0.2829;
577.2000;1.2975;0.2829;
577.5000;1.2967;0.2875;
577.8000;1.2934;0.2829;
578.1000;1.2951;0.2921;
578.4000;1.2943;0.2921;
578.7000;1.2967;0.2898;
579.0000;1.2959;0.2852;
579.3000;1.2967;0.2829;
579.6000;1.2959;0.2829;
579.9000;1.2967;0.2852;
580.2000;1.2967;0.2805;
580.5000;1.2959;0.2829;
580.8000;1.2951;0.2782;
581.1000;1.2975;0.2782;
581.4000;1.2967;0.2782;
581.7000;1.2967;0.2736;
582.0000;1.2967;0.2690;
582.3000;1.2983;0.2690;
582.6000;1.2967;0.2713;
582.9000;1.2959;0.2736;
583.2000;1.2967;0.2759;
583.5000;1.2975;0.2759;
583.8000;1.2951;0.2782;
584.1000;1.2902;0.2597;
584.4000;1.2951;0.2574;
584.7000;1.2967;0.2527;
585.0000;1.2951;0.2481;
585.3000;1.2926;0.2411;
585.6000;1.2951;0.2458;
585.9000;1.2926;0.2411;
586.2000;1.2975;0.2550;
586.5000;1.2959;0.2550;
586.8000;1.2951;0.2643;
587.1000;1.2943;0.2666;
587.4000;1.2959;0.2713;
587.7000;1.2975;0.2713;
588.0000;1.2983;0.2690;
588.3000;1.2959;0.2620;
588.6000;1.2959;0.2574;
588.9000;1.2951;0.2550;
589.2000;1.2918;0.2481;
589.5000;1.2951;0.2574;
589.8000;1.2951;0.2574;
590.1000;1.2951;0.2574;
590.4000;1.2975;0.2666;
590.7000;1.2877;0.2550;
591.0000;1.2951;0.2805;
591.3000;1.2959;0.2829;
591.6000;1.2943;0.2805;
591.9000;1.2951;0.2829;
592.2000;1.2934;0.2852;
592.5000;1.3016;0.2991;
592.8000;1.3048;0.2991;
593.1000;1.2959;0.2736;
593.4000;1.2959;0.2782;
593.7000;1.2926;0.2736;
594.0000;1.2975;0.2829;
594.3000;1.2967;0.2805;
594.6000;1.2943;0.2690;
594.9000;1.2959;0.2690;
595.2000;1.3000;0.2736;
595.5000;1.2951;0.2643;
595.8000;1.2959;0.2620;
596.1000;1.2943;0.2574;
596.4000;1.3000;0.2713;
596.7000;1.2951;0.2620;
597.0000;1.2951;0.2643;
597.3000;1.2951;0.2666;
597.6000;1.3000;0.2782;
597.9000;1.2967;0.2690;
598.2000;1.2943;0.2620;
598.5000;1.2959;0.2713;
598.8000;1.2967;0.2713;
599.1000;1.2934;0.2713;
599.4000;1.2934;0.2736;
599.7000;1.2943;0.2875;
600.0000;1.2959;0.2852;
600.3000;1.2959;0.2550;
600.6000;1.2934;0.2272;
600.9000;1.2894;0.1994;
601.2000;1.2821;0.1693;
601.5000;1.2747;0.1461;
601.8000;1.2666;0.1229;
602.1000;1.2511;0.0974;
602.4000;1.2446;0.0719;
602.7000;1.2381;0.0556;
603.0000;1.2275;0.0441;
603.3000;1.2202;0.0348;
603.6000;1.2055;0.0093;
603.9000;1.2039;0.0116;
604.2000;1.1974;0.0023;
604.5000;1.1925;-0.0093;
604.8000;1.1819;-0.0348;
605.1000;1.1770;-0.0394;
605.4000;1.1713;-0.0556;
605.7000;1.1648;-0.0696;
606.0000;1.1583;-0.0788;
606.3000;1.1526;-0.0858;
606.6000;1.1453;-0.0951;
606.9000;1.1420;-0.0974;
607.2000;1.1363;-0.0997;
607.5000;1.1298;-0.1043;
607.8000;1.1266;-0.0997;
608.1000;1.1217;-0.1113;
608.4000;1.1168;-0.1229;
608.7000;1.1136;-0.1206;
609.0000;1.1095;-0.1252;
609.3000;1.1046;-0.1252;
609.6000;1.1013;-0.1252;
609.9000;1.0965;-0.1182;
610.2000;1.0899;-0.1368;
610.5000;1.0867;-0.1322;
610.8000;1.0875;-0.1275;
611.1000;1.0769;-0.1414;
611.4000;1.0745;-0.1414;
611.7000;1.0704;-0.1461;
612.0000;1.0663;-0.1553;
612.3000;1.0631;-0.1646;
612.6000;1.0615;-0.1507;
612.9000;1.0606;-0.1414;
613.2000;1.0566;-0.1414;
613.5000;1.0525;-0.1461;
613.8000;1.0492;-0.1507;
614.1000;1.0460;-0.1461;
614.4000;1.0427;-0.1461;
614.7000;1.0411;-0.1484;
615.0000;1.0362;-0.1623;
615.3000;1.0346;-0.1600;
615.6000;1.0322;-0.1600;
615.9000;1.0265;-0.1739;
616.2000;1.0248;-0.1669;
616.5000;1.0232;-0.1669;
616.8000;1.0183;-0.1716;
617.1000;1.0159;-0.1785;
617.4000;1.0126;-0.1832;
617.7000;1.0069;-0.1901;
618.0000;1.0077;-0.1785;
618.3000;1.0069;-0.1693;
618.6000;1.0045;-0.1762;
618.9000;1.0020;-0.1762;
619.2000;0.9972;-0.1739;
619.5000;0.9963;-0.1785;
619.8000;0.9947;-0.1739;
620.1000;0.9915;-0.1878;
620.4000;0.9890;-0.1878;
620.7000;0.9890;-0.1808;
621.0000;0.9866;-0.1808;
621.3000;0.9833;-0.1878;
621.6000;0.9792;-0.1948;
621.9000;0.9776;-0.1878;
622.2000;0.9768;-0.1808;
622.5000;0.9744;-0.1785;
622.8000;0.9719;-0.1762;
623.1000;0.9719;-0.1716;
623.4000;0.9695;-0.1739;
623.7000;0.9678;-0.1716;
624.0000;0.9662;-0.1716;
624.3000;0.9630;-0.1785;
624.6000;0.9613;-0.1762;
624.9000;0.9597;-0.1785;
625.2000;0.9573;-0.1832;
625.5000;0.9548;-0.1901;
625.8000;0.9540;-0.1855;
626.1000;0.9540;-0.1785;
626.4000;0.9499;-0.1878;
626.7000;0.9491;-0.1878;
627.0000;0.9467;-0.1878;
627.3000;0.9459;-0.1901;
627.6000;0.9434;-0.1832;
627.9000;0.9402;-0.1832;
628.2000;0.9377;-0.1808;
628.5000;0.9353;-0.1878;
628.8000;0.9377;-0.1808;
629.1000;0.9369;-0.1785;
629.4000;0.9328;-0.1832;
629.7000;0.9337;-0.1855;
630.0000;0.9312;-0.1878;
630.3000;0.9337;-0.1855;
630.6000;0.9255;-0.1971;
630.9000;0.9271;-0.1901;
631.2000;0.9206;-0.1971;
631.5000;0.9239;-0.1878;
631.8000;0.9214;-0.1855;
632.1000;0.9190;-0.1855;
632.4000;0.9239;-0.1855;
632.7000;0.9174;-0.1994;
633.0000;0.9158;-0.2040;
633.3000;0.9109;-0.2133;
633.6000;0.9149;-0.1924;
633.9000;0.9117;-0.1901;
634.2000;0.9141;-0.1878;
634.5000;0.9117;-0.1855;
634.8000;0.9003;-0.2110;
635.1000;0.9101;-0.1832;
635.4000;0.9068;-0.1855;
635.7000;0.9076;-0.1808;
636.0000;0.9052;-0.1901;
636.3000;0.9035;-0.1855;
636.6000;0.8987;-0.2040;
636.9000;0.9003;-0.1878;
637.2000;0.9003;-0.1924;
637.5000;0.8995;-0.1878;
637.8000;0.8995;-0.1878;
638.1000;0.8962;-0.1878;
638.4000;0.8938;-0.1855;
638.7000;0.8938;-0.1901;
639.0000;0.8946;-0.1948;
639.3000;0.8930;-0.1948;
639.6000;0.8938;-0.1901;
639.9000;0.8889;-0.2040;
640.2000;0.8921;-0.1878;
640.5000;0.8930;-0.1808;
640.8000;0.8873;-0.1855;
641.1000;0.8864;-0.1855;
641.4000;0.8938;-0.1739;
641.7000;0.8921;-0.1808;
642.0000;0.8832;-0.1948;
642.3000;0.8759;-0.2133;
642.6000;0.8824;-0.1855;
642.9000;0.8799;-0.1785;
643.2000;0.8799;-0.1832;
643.5000;0.8783;-0.1808;
643.8000;0.8791;-0.1855;
644.1000;0.8767;-0.1901;
644.4000;0.8759;-0.1971;
644.7000;0.8759;-0.1971;
645.0000;0.8742;-0.1901;
645.3000;0.8751;-0.1924;
645.6000;0.8734;-0.1971;
645.9000;0.8718;-0.1971;
646.2000;0.8718;-0.1878;
646.5000;0.8694;-0.1878;
646.8000;0.8694;-0.1924;
647.1000;0.8677;-0.1948;
647.4000;0.8661;-0.2040;
647.7000;0.8661;-0.2087;
648.0000;0.8661;-0.1948;
648.3000;0.8661;-0.1948;
648.6000;0.8563;-0.2226;
648.9000;0.8612;-0.2110;
649.2000;0.8645;-0.2040;
649.5000;0.8628;-0.2064;
649.8000;0.8531;-0.2179;
650.1000;0.8604;-0.2017;
650.4000;0.8596;-0.2110;
650.7000;0.8571;-0.2203;
651.0000;0.8580;-0.2087;
651.3000;0.8604;-0.2017;
651.6000;0.8571;-0.2087;
651.9000;0.8580;-0.2064;
652.2000;0.8523;-0.2156;
652.5000;0.8539;-0.2133;
652.8000;0.8531;-0.2087;
653.1000;0.8531;-0.2179;
653.4000;0.8514;-0.2110;
653.7000;0.8490;-0.2156;
654.0000;0.8498;-0.2110;
654.3000;0.8506;-0.2040;
654.6000;0.8482;-0.2040;
654.9000;0.8498;-0.1971;
655.2000;0.8449;-0.2087;
655.5000;0.8466;-0.2017;
655.8000;0.8474;-0.1994;
656.1000;0.8474;-0.2017;
656.4000;0.8466;-0.2087;
656.7000;0.8449;-0.2110;
657.0000;0.8449;-0.2064;
657.3000;0.8449;-0.2156;
657.6000;0.8433;-0.2179;
657.9000;0.8368;-0.2388;
658.2000;0.8425;-0.2087;
658.5000;0.8425;-0.2040;
658.8000;0.8441;-0.1994;
659.1000;0.8409;-0.2040;
659.4000;0.8417;-0.2017;
659.7000;0.8400;-0.2017;
660.0000;0.8466;-0.1855;
660.3000;0.8384;-0.1948;
660.6000;0.8376;-0.2064;
660.9000;0.8384;-0.1994;
661.2000;0.8319;-0.2110;
661.5000;0.8360;-0.2017;
661.8000;0.8344;-0.2040;
662.1000;0.8392;-0.1901;
662.4000;0.8335;-0.2064;
662.7000;0.8303;-0.2087;
663.0000;0.8311;-0.1971;
663.3000;0.8303;-0.1971;
663.6000;0.8238;-0.2064;
663.9000;0.8295;-0.1901;
664.2000;0.8262;-0.1994;
664.5000;0.8295;-0.1948;
664.8000;0.8287;-0.2017;
665.1000;0.8278;-0.2040;
665.4000;0.8278;-0.1994;
665.7000;0.8287;-0.1878;
666.0000;0.8270;-0.1832;
666.3000;0.8270;-0.1808;
666.6000;0.8262;-0.1924;
666.9000;0.8246;-0.1924;
667.2000;0.8197;-0.2064;
667.5000;0.8238;-0.1971;
667.8000;0.8246;-0.1948;
668.1000;0.8230;-0.1948;
668.4000;0.8303;-0.1832;
668.7000;0.8246;-0.1924;
669.0000;0.8221;-0.1971;
669.3000;0.8205;-0.1948;
669.6000;0.8213;-0.1808;
669.9000;0.8213;-0.1808;
670.2000;0.8197;-0.1878;
670.5000;0.8189;-0.1901;
670.8000;0.8205;-0.1832;
671.1000;0.8197;-0.1855;
671.4000;0.8181;-0.1901;
671.7000;0.8189;-0.1855;
672.0000;0.8197;-0.1924;
672.3000;0.8197;-0.1971;
672.6000;0.8181;-0.2133;
672.9000;0.8132;-0.2110;
673.2000;0.8156;-0.2064;
673.5000;0.8164;-0.1924;
673.8000;0.8164;-0.2017;
674.1000;0.8132;-0.2087;
674.4000;0.8140;-0.1994;
674.7000;0.8132;-0.2064;
675.0000;0.8075;-0.2156;
675.3000;0.8132;-0.2064;
675.6000;0.8116;-0.2017;
675.9000;0.8132;-0.1994;
676.2000;0.8107;-0.1994;
676.5000;0.8018;-0.2179;
676.8000;0.8099;-0.2064;
677.1000;0.8083;-0.2133;
677.4000;0.8067;-0.2017;
677.7000;0.8075;-0.2064;
678.0000;0.8083;-0.1994;
678.3000;0.8083;-0.1971;
678.6000;0.8067;-0.1924;
678.9000;0.8042;-0.1948;
679.2000;0.8050;-0.1878;
679.5000;0.8042;-0.1901;
679.8000;0.8034;-0.1855;
680.1000;0.8067;-0.1762;
680.4000;0.7985;-0.1924;
680.7000;0.8034;-0.1808;
681.0000;0.8034;-0.1832;
681.3000;0.8042;-0.1739;
681.6000;0.8034;-0.1785;
681.9000;0.8018;-0.1832;
682.2000;0.8018;-0.1832;
682.5000;0.8034;-0.1832;
682.8000;0.8026;-0.1832;
683.1000;0.7961;-0.1878;
683.4000;0.8010;-0.1832;
683.7000;0.8010;-0.1832;
684.0000;0.8034;-0.1832;
684.3000;0.8010;-0.1924;
684.6000;0.7985;-0.2110;
684.9000;0.8050;-0.1971;
685.2000;0.7977;-0.2110;
685.5000;0.7985;-0.2203;
685.8000;0.7977;-0.2226;
686.1000;0.7928;-0.2249;
686.4000;0.7969;-0.2133;
686.7000;0.7985;-0.1971;
687.0000;0.7961;-0.2064;
687.3000;0.7969;-0.2040;
687.6000;0.7937;-0.2110;
687.9000;0.7953;-0.1971;
688.2000;0.7912;-0.2156;
688.5000;0.7953;-0.1924;
688.8000;0.7961;-0.1924;
689.1000;0.7945;-0.1971;
689.4000;0.7945;-0.2017;
689.7000;0.7880;-0.2179;
690.0000;0.7920;-0.2087;
690.3000;0.7993;-0.1971;
690.6000;0.7937;-0.2133;
690.9000;0.7896;-0.2226;
691.2000;0.7904;-0.2040;
691.5000;0.7904;-0.1971;
691.8000;0.7904;-0.1855;
692.1000;0.7896;-0.1855;
692.4000;0.7945;-0.1693;
692.7000;0.7904;-0.1785;
693.0000;0.7920;-0.1739;
693.3000;0.7912;-0.1832;
693.6000;0.7888;-0.1855;
693.9000;0.7888;-0.1901;
694.2000;0.7904;-0.1924;
694.5000;0.7904;-0.2017;
694.8000;0.7896;-0.2087;
695.1000;0.7888;-0.2040;
695.4000;0.7863;-0.2064;
695.7000;0.7888;-0.1994;
696.0000;0.7888;-0.1878;
696.3000;0.7855;-0.1878;
696.6000;0.7871;-0.1855;
696.9000;0.7863;-0.1901;
697.2000;0.7855;-0.1924;
697.5000;0.7847;-0.1924;
697.8000;0.7847;-0.1855;
698.1000;0.7863;-0.1878;
698.4000;0.7855;-0.1971;
698.7000;0.7847;-0.1971;
699.0000;0.7839;-0.1948;
699.3000;0.7880;-0.1855;
699.6000;0.7839;-0.1971;
699.9000;0.7814;-0.2040;
700.2000;0.7806;-0.2087;
700.5000;0.7823;-0.2017;
700.8000;0.7814;-0.2040;
701.1000;0.7823;-0.1994;
701.4000;0.7847;-0.1901;
701.7000;0.7790;-0.2017;
702.0000;0.7806;-0.1971;
702.3000;0.7774;-0.2017;
702.6000;0.7798;-0.1901;
702.9000;0.7806;-0.1971;
703.2000;0.7814;-0.1994;
703.5000;0.7806;-0.1994;
703.8000;0.7774;-0.1971;
704.1000;0.7831;-0.1808;
704.4000;0.7798;-0.1808;
704.7000;0.7806;-0.1808;
705.0000;0.7774;-0.1878;
705.3000;0.7774;-0.1855;
705.6000;0.7774;-0.1832;
705.9000;0.7741;-0.1994;
706.2000;0.7757;-0.1901;
706.5000;0.7757;-0.1901;
706.8000;0.7798;-0.1808;
707.1000;0.7757;-0.1924;
707.4000;0.7757;-0.1948;
707.7000;0.7774;-0.1855;
708.0000;0.7766;-0.1855;
708.3000;0.7766;-0.1878;
708.6000;0.7766;-0.1855;
708.9000;0.7774;-0.1878;
709.2000;0.7733;-0.2017;
709.5000;0.7725;-0.1994;
709.8000;0.7749;-0.1948;
710.1000;0.7733;-0.1948;
710.4000;0.7725;-0.2087;
710.7000;0.7733;-0.2087;
711.0000;0.7725;-0.1994;
711.3000;0.7725;-0.1971;
711.6000;0.7733;-0.2040;
711.9000;0.7700;-0.2064;
712.2000;0.7725;-0.2064;
712.5000;0.7733;-0.2017;
712.8000;0.7725;-0.2064;
713.1000;0.7717;-0.2064;
713.4000;0.7717;-0.1971;
713.7000;0.7733;-0.1924;
714.0000;0.7717;-0.1924;
714.3000;0.7717;-0.1924;
714.6000;0.7709;-0.1924;
714.9000;0.7717;-0.1971;
715.2000;0.7709;-0.1971;
715.5000;0.7700;-0.1924;
715.8000;0.7692;-0.1878;
716.1000;0.7692;-0.1785;
716.4000;0.7692;-0.1901;
716.7000;0.7676;-0.1971;
717.0000;0.7684;-0.1971;
717.3000;0.7692;-0.1901;
717.6000;0.7668;-0.1948;
717.9000;0.7676;-0.1924;
718.2000;0.7660;-0.1901;
718.5000;0.7676;-0.1924;
718.8000;0.7676;-0.1924;
719.1000;0.7684;-0.1855;
719.4000;0.7684;-0.1832;
719.7000;0.7660;-0.1855;
720.0000;0.7668;-0.1832;
720.3000;0.7652;-0.1878;
720.6000;0.7668;-0.1878;
720.9000;0.7643;-0.1971;
721.2000;0.7652;-0.1948;
721.5000;0.7643;-0.1948;
721.8000;0.7652;-0.1878;
722.1000;0.7635;-0.1924;
722.4000;0.7603;-0.2040;
722.7000;0.7652;-0.1924;
723.0000;0.7684;-0.1716;
723.3000;0.7652;-0.1878;
723.6000;0.7643;-0.1878;
723.9000;0.7562;-0.2064;
724.2000;0.7562;-0.2064;
724.5000;0.7611;-0.1948;
724.8000;0.7627;-0.1971;
725.1000;0.7635;-0.1924;
725.4000;0.7611;-0.2087;
725.7000;0.7619;-0.1994;
726.0000;0.7619;-0.1901;
726.3000;0.7595;-0.1901;
726.6000;0.7627;-0.1878;
726.9000;0.7643;-0.1855;
727.2000;0.7619;-0.1994;
727.5000;0.7578;-0.2017;
727.8000;0.7619;-0.1924;
728.1000;0.7578;-0.1971;
728.4000;0.7635;-0.1855;
728.7000;0.7603;-0.1971;
729.0000;0.7611;-0.1878;
729.3000;0.7570;-0.1948;
729.6000;0.7586;-0.1971;
729.9000;0.7643;-0.1901;
730.2000;0.7595;-0.2017;
730.5000;0.7603;-0.1994;
730.8000;0.7692;-0.1669;
731.1000;0.7595;-0.1948;
731.4000;0.7595;-0.1901;
731.7000;0.7578;-0.1901;
732.0000;0.7521;-0.2087;
732.3000;0.7578;-0.1924;
732.6000;0.7562;-0.2017;
732.9000;0.7595;-0.1994;
733.2000;0.7562;-0.2040;
733.5000;0.7554;-0.1994;
733.8000;0.7570;-0.1924;
734.1000;0.7570;-0.1971;
734.4000;0.7570;-0.2064;
734.7000;0.7562;-0.2110;
735.0000;0.7578;-0.2040;
735.3000;0.7570;-0.2017;
735.6000;0.7497;-0.2226;
735.9000;0.7570;-0.2064;
736.2000;0.7546;-0.2064;
736.5000;0.7497;-0.2110;
736.8000;0.7546;-0.1901;
737.1000;0.7562;-0.1855;
737.4000;0.7538;-0.1901;
737.7000;0.7554;-0.1948;
738.0000;0.7546;-0.1901;
738.3000;0.7538;-0.1855;
738.6000;0.7530;-0.1878;
738.9000;0.7554;-0.1924;
739.2000;0.7521;-0.1948;
739.5000;0.7513;-0.1971;
739.8000;0.7554;-0.1924;
740.1000;0.7546;-0.1901;
740.4000;0.7538;-0.1924;
740.7000;0.7546;-0.1878;
741.0000;0.7521;-0.1924;
741.3000;0.7546;-0.1878;
741.6000;0.7546;-0.1971;
741.9000;0.7538;-0.1901;
742.2000;0.7513;-0.1924;
742.5000;0.7538;-0.1901;
742.8000;0.7530;-0.1901;
743.1000;0.7538;-0.1855;
743.4000;0.7538;-0.1855;
743.7000;0.7513;-0.1878;
744.0000;0.7521;-0.1855;
744.3000;0.7546;-0.1785;
744.6000;0.7530;-0.1832;
744.9000;0.7521;-0.1808;
745.2000;0.7513;-0.1785;
745.5000;0.7530;-0.1716;
745.8000;0.7530;-0.1646;
746.1000;0.7513;-0.1716;
746.4000;0.7521;-0.1693;
746.7000;0.7546;-0.1623;
747.0000;0.7456;-0.1739;
747.3000;0.7489;-0.1716;
747.6000;0.7513;-0.1739;
747.9000;0.7521;-0.1716;
748.2000;0.7489;-0.1855;
748.5000;0.7521;-0.1808;
748.8000;0.7497;-0.1808;
749.1000;0.7473;-0.1901;
749.4000;0.7489;-0.1878;
749.7000;0.7497;-0.1948;
750.0000;0.7489;-0.1924;
750.3000;0.7497;-0.1901;
750.6000;0.7546;-0.1762;
750.9000;0.7489;-0.1808;
751.2000;0.7489;-0.1855;
751.5000;0.7489;-0.1785;
751.8000;0.7505;-0.1785;
752.1000;0.7497;-0.1785;
752.4000;0.7456;-0.1924;
752.7000;0.7440;-0.1901;
753.0000;0.7464;-0.1878;
753.3000;0.7489;-0.1878;
753.6000;0.7481;-0.1832;
753.9000;0.7481;-0.1855;
754.2000;0.7456;-0.1808;
754.5000;0.7424;-0.1878;
754.8000;0.7481;-0.1716;
755.1000;0.7497;-0.1739;
755.4000;0.7440;-0.1878;
755.7000;0.7464;-0.1762;
756.0000;0.7489;-0.1739;
756.3000;0.7456;-0.1855;
756.6000;0.7489;-0.1808;
756.9000;0.7383;-0.2087;
757.2000;0.7448;-0.1994;
757.5000;0.7456;-0.1901;
757.8000;0.7432;-0.2017;
758.1000;0.7448;-0.2017;
758.4000;0.7424;-0.2133;
758.7000;0.7448;-0.2064;
759.0000;0.7440;-0.1994;
759.3000;0.7448;-0.1994;
759.6000;0.7448;-0.2064;
759.9000;0.7440;-0.2110;
760.2000;0.7391;-0.2156;
760.5000;0.7375;-0.2179;
760.8000;0.7440;-0.2064;
761.1000;0.7448;-0.1948;
761.4000;0.7407;-0.1994;
761.7000;0.7440;-0.1878;
762.0000;0.7440;-0.1762;
762.3000;0.7448;-0.1762;
762.6000;0.7513;-0.1669;
762.9000;0.7448;-0.1808;
763.2000;0.7432;-0.1762;
763.5000;0.7424;-0.1693;
763.8000;0.7424;-0.1623;
764.1000;0.7432;-0.1600;
764.4000;0.7424;-0.1577;
764.7000;0.7416;-0.1716;
765.0000;0.7416;-0.1762;
765.3000;0.7416;-0.1808;
765.6000;0.7407;-0.1785;
765.9000;0.7432;-0.1739;
766.2000;0.7432;-0.1716;
766.5000;0.7416;-0.1739;
766.8000;0.7399;-0.1762;
767.1000;0.7432;-0.1693;
767.4000;0.7432;-0.1669;
767.7000;0.7456;-0.1623;
768.0000;0.7407;-0.1739;
768.3000;0.7399;-0.1739;
768.6000;0.7424;-0.1716;
768.9000;0.7391;-0.1832;
769.2000;0.7399;-0.1878;
769.5000;0.7391;-0.1924;
769.8000;0.7416;-0.1785;
770.1000;0.7407;-0.1762;
770.4000;0.7407;-0.1739;
770.7000;0.7383;-0.1785;
771.0000;0.7375;-0.1785;
771.3000;0.7399;-0.1808;
771.6000;0.7391;-0.1855;
771.9000;0.7456;-0.1693;
772.2000;0.7383;-0.1832;
772.5000;0.7375;-0.1878;
772.8000;0.7399;-0.1901;
773.1000;0.7416;-0.1878;
773.4000;0.7383;-0.1855;
773.7000;0.7383;-0.1924;
774.0000;0.7464;-0.1739;
774.3000;0.7391;-0.1901;
774.6000;0.7375;-0.1832;
774.9000;0.7391;-0.1832;
775.2000;0.7391;-0.1785;
775.5000;0.7399;-0.1739;
775.8000;0.7367;-0.1785;
776.1000;0.7391;-0.1785;
776.4000;0.7391;-0.1855;
776.7000;0.7326;-0.2040;
777.0000;0.7391;-0.1948;
777.3000;0.7383;-0.1924;
777.6000;0.7350;-0.1924;
777.9000;0.7383;-0.1785;
778.2000;0.7359;-0.1785;
778.5000;0.7375;-0.1832;
778.8000;0.7310;-0.1971;
779.1000;0.7375;-0.1832;
779.4000;0.7375;-0.1878;
779.7000;0.7375;-0.1878;
780.0000;0.7391;-0.1762;
780.3000;0.7367;-0.1785;
780.6000;0.7383;-0.1693;
780.9000;0.7367;-0.1739;
781.2000;0.7367;-0.1762;
781.5000;0.7383;-0.1669;
781.8000;0.7407;-0.1577;
782.1000;0.7367;-0.1693;
782.4000;0.7407;-0.1600;
782.7000;0.7342;-0.1669;
783.0000;0.7367;-0.1623;
783.3000;0.7293;-0.1832;
783.6000;0.7367;-0.1646;
783.9000;0.7359;-0.1716;
784.2000;0.7448;-0.1461;
784.5000;0.7342;-0.1646;
784.8000;0.7359;-0.1553;
785.1000;0.7350;-0.1507;
785.4000;0.7359;-0.1507;
785.7000;0.7342;-0.1530;
786.0000;0.7350;-0.1600;
786.3000;0.7334;-0.1646;
786.6000;0.7359;-0.1600;
786.9000;0.7359;-0.1577;
787.2000;0.7342;-0.1600;
787.5000;0.7342;-0.1600;
787.8000;0.7359;-0.1577;
788.1000;0.7350;-0.1600;
788.4000;0.7359;-0.1623;
788.7000;0.7350;-0.1600;
789.0000;0.7342;-0.1669;
789.3000;0.7359;-0.1785;
789.6000;0.7350;-0.1808;
789.9000;0.7318;-0.1832;
790.2000;0.7334;-0.1878;
790.5000;0.7334;-0.1948;
790.8000;0.7342;-0.1855;
791.1000;0.7326;-0.1808;
791.4000;0.7326;-0.1785;
791.7000;0.7318;-0.1808;
792.0000;0.7302;-0.1878;
792.3000;0.7310;-0.1762;
792.6000;0.7310;-0.1716;
792.9000;0.7326;-0.1600;
793.2000;0.7342;-0.1577;
793.5000;0.7334;-0.1623;
793.8000;0.7334;-0.1623;
794.1000;0.7350;-0.1716;
794.4000;0.7350;-0.1739;
794.7000;0.7318;-0.1762;
795.0000;0.7310;-0.1808;
795.3000;0.7342;-0.1693;
795.6000;0.7334;-0.1669;
795.9000;0.7383;-0.1507;
796.2000;0.7383;-0.1437;
796.5000;0.7302;-0.1669;
796.8000;0.7293;-0.1808;
797.1000;0.7334;-0.1716;
797.4000;0.7277;-0.1808;
797.7000;0.7293;-0.1739;
798.0000;0.7310;-0.1669;
798.3000;0.7318;-0.1716;
798.6000;0.7310;-0.1693;
798.9000;0.7326;-0.1693;
799.2000;0.7326;-0.1669;
799.5000;0.7326;-0.1693;
799.8000;0.7318;-0.1669;
800.1000;0.7293;-0.1669;
800.4000;0.7326;-0.1600;
800.7000;0.7342;-0.1623;
801.0000;0.7326;-0.1669;
801.3000;0.7302;-0.1739;
801.6000;0.7302;-0.1762;
801.9000;0.7318;-0.1669;
802.2000;0.7310;-0.1553;
802.5000;0.7293;-0.1553;
802.8000;0.7293;-0.1577;
803.1000;0.7302;-0.1530;
803.4000;0.7310;-0.1484;
803.7000;0.7334;-0.1437;
804.0000;0.7302;-0.1577;
804.3000;0.7293;-0.1623;
804.6000;0.7285;-0.1623;
804.9000;0.7293;-0.1693;
805.2000;0.7261;-0.1808;
805.5000;0.7277;-0.1785;
805.8000;0.7269;-0.1785;
806.1000;0.7293;-0.1716;
806.4000;0.7245;-0.1808;
806.7000;0.7277;-0.1646;
807.0000;0.7277;-0.1600;
807.3000;0.7277;-0.1716;
807.6000;0.7277;-0.1739;
807.9000;0.7261;-0.1739;
808.2000;0.7277;-0.1716;
808.5000;0.7261;-0.1739;
808.8000;0.7277;-0.1716;
809.1000;0.7285;-0.1716;
809.4000;0.7285;-0.1716;
809.7000;0.7269;-0.1716;
810.0000;0.7285;-0.1669;
810.3000;0.7269;-0.1693;
810.6000;0.7310;-0.1530;
810.9000;0.7293;-0.1553;
811.2000;0.7285;-0.1623;
811.5000;0.7285;-0.1577;
811.8000;0.7261;-0.1669;
812.1000;0.7269;-0.1646;
812.4000;0.7269;-0.1623;
812.7000;0.7236;-0.1646;
813.0000;0.7253;-0.1553;
813.3000;0.7269;-0.1577;
813.6000;0.7302;-0.1461;
813.9000;0.7277;-0.1414;
814.2000;0.7277;-0.1437;
814.5000;0.7261;-0.1368;
814.8000;0.7253;-0.1414;
815.1000;0.7277;-0.1368;
815.4000;0.7277;-0.1252;
815.7000;0.7277;-0.1322;
816.0000;0.7261;-0.1368;
816.3000;0.7277;-0.1322;
816.6000;0.7245;-0.1437;
816.9000;0.7245;-0.1484;
817.2000;0.7253;-0.1507;
817.5000;0.7277;-0.1484;
817.8000;0.7253;-0.1530;
818.1000;0.7204;-0.1623;
818.4000;0.7261;-0.1507;
818.7000;0.7253;-0.1553;
819.0000;0.7334;-0.1437;
819.3000;0.7253;-0.1553;
819.6000;0.7253;-0.1507;
819.9000;0.7253;-0.1484;
820.2000;0.7269;-0.1461;
820.5000;0.7245;-0.1530;
820.8000;0.7245;-0.1553;
821.1000;0.7228;-0.1646;
821.4000;0.7253;-0.1577;
821.7000;0.7293;-0.1298;
822.0000;0.7179;-0.1530;
822.3000;0.7253;-0.1437;
822.6000;0.7236;-0.1484;
822.9000;0.7171;-0.1739;
823.2000;0.7236;-0.1461;
823.5000;0.7245;-0.1461;
823.8000;0.7285;-0.1322;
824.1000;0.7236;-0.1484;
824.4000;0.7269;-0.1368;
824.7000;0.7253;-0.1414;
825.0000;0.7236;-0.1414;
825.3000;0.7269;-0.1437;
825.6000;0.7277;-0.1414;
825.9000;0.7261;-0.1414;
826.2000;0.7253;-0.1437;
826.5000;0.7253;-0.1530;
826.8000;0.7261;-0.1577;
827.1000;0.7236;-0.1623;
827.4000;0.7236;-0.1507;
827.7000;0.7236;-0.1553;
828.0000;0.7245;-0.1507;
828.3000;0.7228;-0.1530;
828.6000;0.7228;-0.1553;
828.9000;0.7245;-0.1553;
829.2000;0.7236;-0.1530;
829.5000;0.7236;-0.1623;
829.8000;0.7236;-0.1646;
830.1000;0.7245;-0.1646;
830.4000;0.7245;-0.1600;
830.7000;0.7220;-0.1577;
831.0000;0.7228;-0.1507;
831.3000;0.7220;-0.1484;
831.6000;0.7236;-0.1484;
831.9000;0.7245;-0.1484;
832.2000;0.7236;-0.1461;
832.5000;0.7220;-0.1507;
832.8000;0.7220;-0.1600;
833.1000;0.7236;-0.1577;
833.4000;0.7204;-0.1669;
833.7000;0.7228;-0.1623;
834.0000;0.7220;-0.1577;
834.3000;0.7245;-0.1530;
834.6000;0.7212;-0.1646;
834.9000;0.7212;-0.1716;
835.2000;0.7236;-0.1669;
835.5000;0.7236;-0.1623;
835.8000;0.7228;-0.1669;
836.1000;0.7204;-0.1716;
836.4000;0.7220;-0.1785;
836.7000;0.7245;-0.1739;
837.0000;0.7228;-0.1646;
837.3000;0.7220;-0.1646;
837.6000;0.7204;-0.1693;
837.9000;0.7220;-0.1693;
838.2000;0.7236;-0.1669;
838.5000;0.7220;-0.1577;
838.8000;0.7293;-0.1414;
839.1000;0.7220;-0.1646;
839.4000;0.7228;-0.1646;
839.7000;0.7228;-0.1669;
840.0000;0.7212;-0.1646;
840.3000;0.7204;-0.1693;
840.6000;0.7245;-0.1437;
840.9000;0.7220;-0.1461;
841.2000;0.7204;-0.1484;
841.5000;0.7212;-0.1484;
841.8000;0.7220;-0.1461;
842.1000;0.7212;-0.1461;
842.4000;0.7220;-0.1461;
842.7000;0.7196;-0.1577;
843.0000;0.7204;-0.1623;
843.3000;0.7204;-0.1600;
843.6000;0.7212;-0.1577;
843.9000;0.7212;-0.1553;
844.2000;0.7212;-0.1553;
844.5000;0.7212;-0.1553;
844.8000;0.7188;-0.1600;
845.1000;0.7196;-0.1623;
845.4000;0.7204;-0.1669;
845.7000;0.7212;-0.1646;
846.0000;0.7196;-0.1600;
846.3000;0.7220;-0.1507;
846.6000;0.7188;-0.1553;
846.9000;0.7204;-0.1600;
847.2000;0.7196;-0.1623;
847.5000;0.7245;-0.1530;
847.8000;0.7188;-0.1716;
848.1000;0.7163;-0.1762;
848.4000;0.7261;-0.1484;
848.7000;0.7196;-0.1553;
849.0000;0.7179;-0.1577;
849.3000;0.7188;-0.1577;
849.6000;0.7188;-0.1693;
849.9000;0.7204;-0.1553;
850.2000;0.7188;-0.1600;
850.5000;0.7188;-0.1600;
850.8000;0.7188;-0.1600;
851.1000;0.7188;-0.1600;
851.4000;0.7179;-0.1669;
851.7000;0.7171;-0.1693;
852.0000;0.7179;-0.1669;
852.3000;0.7171;-0.1646;
852.6000;0.7188;-0.1623;
852.9000;0.7188;-0.1577;
853.2000;0.7179;-0.1693;
853.5000;0.7204;-0.1600;
853.8000;0.7179;-0.1577;
854.1000;0.7188;-0.1507;
854.4000;0.7179;-0.1461;
854.7000;0.7188;-0.1507;
855.0000;0.7171;-0.1507;
855.3000;0.7163;-0.1577;
855.6000;0.7171;-0.1600;
855.9000;0.7179;-0.1600;
856.2000;0.7171;-0.1553;
856.5000;0.7188;-0.1530;
856.8000;0.7163;-0.1577;
857.1000;0.7171;-0.1530;
857.4000;0.7188;-0.1600;
857.7000;0.7196;-0.1600;
858.0000;0.7196;-0.1623;
858.3000;0.7179;-0.1623;
858.6000;0.7253;-0.1414;
858.9000;0.7196;-0.1600;
859.2000;0.7171;-0.1623;
859.5000;0.7220;-0.1484;
859.8000;0.7212;-0.1507;
860.1000;0.7179;-0.1623;
860.4000;0.7188;-0.1623;
860.7000;0.7171;-0.1623;
861.0000;0.7171;-0.1600;
861.3000;0.7171;-0.1577;
861.6000;0.7171;-0.1553;
861.9000;0.7179;-0.1507;
862.2000;0.7179;-0.1507;
862.5000;0.7163;-0.1553;
862.8000;0.7212;-0.1414;
863.1000;0.7204;-0.1530;
863.4000;0.7131;-0.1832;
863.7000;0.7171;-0.1739;
864.0000;0.7196;-0.1553;
864.3000;0.7147;-0.1716;
864.6000;0.7106;-0.1785;
864.9000;0.7098;-0.1855;
865.2000;0.7179;-0.1669;
865.5000;0.7171;-0.1646;
865.8000;0.7147;-0.1669;
866.1000;0.7196;-0.1600;
866.4000;0.7171;-0.1716;
866.7000;0.7171;-0.1693;
867.0000;0.7139;-0.1669;
867.3000;0.7163;-0.1507;
867.6000;0.7147;-0.1577;
867.9000;0.7171;-0.1530;
868.2000;0.7171;-0.1553;
868.5000;0.7131;-0.1716;
868.8000;0.7171;-0.1669;
869.1000;0.7188;-0.1623;
869.4000;0.7155;-0.1669;
869.7000;0.7163;-0.1716;
870.0000;0.7171;-0.1693;
870.3000;0.7163;-0.1716;
870.6000;0.7163;-0.1739;
870.9000;0.7171;-0.1623;
871.2000;0.7147;-0.1669;
871.5000;0.7139;-0.1739;
871.8000;0.7163;-0.1669;
872.1000;0.7155;-0.1669;
872.4000;0.7155;-0.1669;
872.7000;0.7147;-0.1716;
873.0000;0.7147;-0.1693;
873.3000;0.7025;-0.1924;
873.6000;0.7163;-0.1623;
873.9000;0.7066;-0.1855;
874.2000;0.7196;-0.1623;
874.5000;0.7171;-0.1739;
874.8000;0.7139;-0.1878;
875.1000;0.7155;-0.1808;
875.4000;0.7236;-0.1530;
875.7000;0.7155;-0.1693;
876.0000;0.7147;-0.1739;
876.3000;0.7074;-0.1832;
876.6000;0.7163;-0.1646;
876.9000;0.7147;-0.1785;
877.2000;0.7139;-0.1785;
877.5000;0.7171;-0.1762;
877.8000;0.7155;-0.1785;
878.1000;0.7163;-0.1785;
878.4000;0.7228;-0.1646;
878.7000;0.7147;-0.1808;
879.0000;0.7147;-0.1785;
879.3000;0.7155;-0.1832;
879.6000;0.7155;-0.1762;
879.9000;0.7147;-0.1739;
880.2000;0.7147;-0.1762;
880.5000;0.7139;-0.1693;
880.8000;0.7131;-0.1693;
881.1000;0.7147;-0.1646;
881.4000;0.7147;-0.1716;
881.7000;0.7131;-0.1762;
882.0000;0.7131;-0.1739;
882.3000;0.7155;-0.1785;
882.6000;0.7155;-0.1785;
882.9000;0.7139;-0.1785;
883.2000;0.7155;-0.1646;
883.5000;0.7139;-0.1623;
883.8000;0.7163;-0.1553;
884.1000;0.7123;-0.1530;
884.4000;0.7147;-0.1368;
884.7000;0.7155;-0.1322;
885.0000;0.7131;-0.1437;
885.3000;0.7139;-0.1577;
885.6000;0.7147;-0.1623;
885.9000;0.7139;-0.1600;
886.2000;0.7139;-0.1600;
886.5000;0.7139;-0.1600;
886.8000;0.7131;-0.1600;
887.1000;0.7123;-0.1646;
887.4000;0.7123;-0.1577;
887.7000;0.7123;-0.1553;
888.0000;0.7114;-0.1623;
888.3000;0.7139;-0.1623;
888.6000;0.7123;-0.1646;
888.9000;0.7131;-0.1577;
889.2000;0.7131;-0.1461;
889.5000;0.7114;-0.1507;
889.8000;0.7033;-0.1739;
890.1000;0.7106;-0.1484;
890.4000;0.7106;-0.1507;
890.7000;0.7123;-0.1553;
891.0000;0.7139;-0.1507;
891.3000;0.7114;-0.1623;
891.6000;0.7106;-0.1646;
891.9000;0.7106;-0.1716;
892.2000;0.7123;-0.1739;
892.5000;0.7114;-0.1785;
892.8000;0.7131;-0.1785;
893.1000;0.7155;-0.1785;
893.4000;0.7139;-0.1808;
893.7000;0.7123;-0.1832;
894.0000;0.7131;-0.1716;
894.3000;0.7155;-0.1716;
894.6000;0.7123;-0.1832;
894.9000;0.7131;-0.1855;
895.2000;0.7131;-0.1878;
895.5000;0.7123;-0.1808;
895.8000;0.7057;-0.1971;
896.1000;0.7139;-0.1901;
896.4000;0.7155;-0.1901;
896.7000;0.7049;-0.2040;
897.0000;0.7114;-0.1832;
897.3000;0.7139;-0.1808;
897.6000;0.7131;-0.1762;
897.9000;0.7171;-0.1669;
898.2000;0.7131;-0.1716;
898.5000;0.7131;-0.1716;
898.8000;0.7139;-0.1716;
899.1000;0.7123;-0.1762;
899.4000;0.7147;-0.1739;
899.7000;0.7114;-0.1785;
900.0000;0.7106;-0.1785;
900.3000;0.7114;-0.1716;
900.6000;0.7090;-0.1646;
900.9000;0.7114;-0.1577;
901.2000;0.7131;-0.1484;
901.5000;0.7131;-0.1484;
901.8000;0.7114;-0.1484;
902.1000;0.7123;-0.1345;
902.4000;0.7171;-0.1298;
902.7000;0.7123;-0.1414;
903.0000;0.7114;-0.1507;
903.3000;0.7090;-0.1507;
903.6000;0.7114;-0.1530;
903.9000;0.7139;-0.1530;
904.2000;0.7114;-0.1623;
904.5000;0.7098;-0.1693;
904.8000;0.7106;-0.1739;
905.1000;0.7106;-0.1739;
905.4000;0.7057;-0.1878;
905.7000;0.7139;-0.1623;
906.0000;0.7114;-0.1577;
906.3000;0.7131;-0.1484;
906.6000;0.7114;-0.1507;
906.9000;0.7123;-0.1484;
907.2000;0.7123;-0.1484;
907.5000;0.7114;-0.1530;
907.8000;0.7114;-0.1484;
908.1000;0.7098;-0.1623;
908.4000;0.7114;-0.1693;
908.7000;0.7098;-0.1716;
909.0000;0.7066;-0.1762;
909.3000;0.7098;-0.1693;
909.6000;0.7106;-0.1716;
909.9000;0.7090;-0.1693;
910.2000;0.7139;-0.1530;
910.5000;0.7106;-0.1484;
910.8000;0.7147;-0.1437;
911.1000;0.7114;-0.1553;
911.4000;0.7139;-0.1461;
911.7000;0.7074;-0.1693;
912.0000;0.7033;-0.1832;
912.3000;0.7106;-0.1600;
912.6000;0.7114;-0.1577;
912.9000;0.7114;-0.1553;
913.2000;0.7074;-0.1623;
913.5000;0.7098;-0.1530;
913.8000;0.7041;-0.1716;
914.1000;0.7082;-0.1623;
914.4000;0.7066;-0.1646;
914.7000;0.7098;-0.1693;
915.0000;0.7082;-0.1716;
915.3000;0.7114;-0.1577;
915.6000;0.7098;-0.1623;
915.9000;0.7057;-0.1808;
916.2000;0.7106;-0.1739;
916.5000;0.7082;-0.1808;
916.8000;0.7106;-0.1785;
917.1000;0.7090;-0.1785;
917.4000;0.7098;-0.1693;
917.7000;0.7098;-0.1693;
918.0000;0.7098;-0.1646;
918.3000;0.7090;-0.1600;
918.6000;0.7082;-0.1530;
918.9000;0.7155;-0.1437;
919.2000;0.7106;-0.1530;
919.5000;0.7082;-0.1530;
919.8000;0.7017;-0.1693;
920.1000;0.7074;-0.1577;
920.4000;0.7106;-0.1553;
920.7000;0.7106;-0.1646;
921.0000;0.7090;-0.1762;
921.3000;0.7098;-0.1808;
921.6000;0.7123;-0.1785;
921.9000;0.7147;-0.1716;
922.2000;0.7098;-0.1693;
922.5000;0.7082;-0.1669;
922.8000;0.7106;-0.1600;
923.1000;0.7106;-0.1577;
923.4000;0.7106;-0.1646;
923.7000;0.7082;-0.1646;
924.0000;0.7082;-0.1600;
924.3000;0.7090;-0.1530;
924.6000;0.7082;-0.1577;
924.9000;0.7090;-0.1577;
925.2000;0.7082;-0.1577;
925.5000;0.7074;-0.1530;
925.8000;0.7098;-0.1437;
926.1000;0.7090;-0.1437;
926.4000;0.7090;-0.1391;
926.7000;0.7090;-0.1368;
927.0000;0.7090;-0.1414;
927.3000;0.7074;-0.1414;
927.6000;0.7082;-0.1391;
927.9000;0.7106;-0.1437;
928.2000;0.7114;-0.1391;
928.5000;0.7082;-0.1484;
928.8000;0.7082;-0.1461;
929.1000;0.7057;-0.1461;
929.4000;0.7041;-0.1484;
929.7000;0.7090;-0.1391;
930.0000;0.7066;-0.1461;
930.3000;0.7066;-0.1391;
930.6000;0.7082;-0.1368;
930.9000;0.7098;-0.1298;
931.2000;0.7082;-0.1368;
931.5000;0.7098;-0.1368;
931.8000;0.7082;-0.1322;
932.1000;0.7098;-0.1298;
932.4000;0.7090;-0.1275;
932.7000;0.7057;-0.1322;
933.0000;0.7114;-0.1252;
933.3000;0.7106;-0.1322;
933.6000;0.7082;-0.1368;
933.9000;0.7041;-0.1507;
934.2000;0.7057;-0.1530;
934.5000;0.7082;-0.1414;
934.8000;0.7033;-0.1507;
935.1000;0.7041;-0.1507;
935.4000;0.7074;-0.1414;
935.7000;0.7139;-0.1298;
936.0000;0.7057;-0.1577;
936.3000;0.7131;-0.1461;
936.6000;0.7066;-0.1623;
936.9000;0.7074;-0.1577;
937.2000;0.7017;-0.1716;
937.5000;0.7074;-0.1600;
937.8000;0.6984;-0.1808;
938.1000;0.7090;-0.1577;
938.4000;0.7082;-0.1623;
938.7000;0.7082;-0.1739;
939.0000;0.7074;-0.1855;
939.3000;0.7066;-0.1785;
939.6000;0.7066;-0.1785;
939.9000;0.7074;-0.1808;
940.2000;0.7057;-0.1855;
940.5000;0.7049;-0.1878;
940.8000;0.7066;-0.1832;
941.1000;0.7098;-0.1785;
941.4000;0.7074;-0.1785;
941.7000;0.7057;-0.1785;
942.0000;0.7082;-0.1693;
942.3000;0.7098;-0.1577;
942.6000;0.7074;-0.1553;
942.9000;0.7066;-0.1600;
943.2000;0.7057;-0.1577;
943.5000;0.7066;-0.1530;
943.8000;0.7066;-0.1623;
944.1000;0.7131;-0.1368;
944.4000;0.7066;-0.1530;
944.7000;0.7074;-0.1461;
945.0000;0.7049;-0.1414;
945.3000;0.7025;-0.1368;
945.6000;0.7041;-0.1298;
945.9000;0.7049;-0.1252;
946.2000;0.7049;-0.1252;
946.5000;0.7049;-0.1275;
946.8000;0.7057;-0.1252;
947.1000;0.7057;-0.1298;
947.4000;0.7066;-0.1414;
947.7000;0.7041;-0.1553;
948.0000;0.7057;-0.1553;
948.3000;0.7057;-0.1553;
948.6000;0.7066;-0.1461;
948.9000;0.7066;-0.1414;
949.2000;0.7049;-0.1484;
949.5000;0.7041;-0.1600;
949.8000;0.7041;-0.1577;
950.1000;0.7049;-0.1530;
950.4000;0.7009;-0.1553;
950.7000;0.7033;-0.1530;
951.0000;0.7057;-0.1530;
951.3000;0.7025;-0.1600;
951.6000;0.7041;-0.1600;
951.9000;0.7057;-0.1600;
952.2000;0.7057;-0.1646;
952.5000;0.7090;-0.1553;
952.8000;0.7041;-0.1577;
953.1000;0.7057;-0.1553;
953.4000;0.7066;-0.1437;
953.7000;0.7057;-0.1437;
954.0000;0.7066;-0.1484;
954.3000;0.7074;-0.1507;
954.6000;0.7057;-0.1530;
954.9000;0.7074;-0.1507;
955.2000;0.7066;-0.1553;
955.5000;0.7049;-0.1530;
955.8000;0.7041;-0.1530;
956.1000;0.7049;-0.1600;
956.4000;0.7057;-0.1577;
956.7000;0.7074;-0.1553;
957.0000;0.7066;-0.1507;
957.3000;0.7049;-0.1484;
957.6000;0.7066;-0.1368;
957.9000;0.7066;-0.1322;
958.2000;0.7009;-0.1484;
958.5000;0.7017;-0.1530;
958.8000;0.7033;-0.1600;
959.1000;0.7106;-0.1414;
959.4000;0.7041;-0.1484;
959.7000;0.7057;-0.1484;
960.0000;0.7041;-0.1507;
960.3000;0.7057;-0.1437;
960.6000;0.7049;-0.1461;
960.9000;0.7049;-0.1507;
961.2000;0.7049;-0.1623;
961.5000;0.7009;-0.1785;
961.8000;0.7025;-0.1646;
962.1000;0.7033;-0.1693;
962.4000;0.7017;-0.1739;
962.7000;0.7049;-0.1646;
963.0000;0.7033;-0.1623;
963.3000;0.7025;-0.1623;
963.6000;0.7025;-0.1577;
963.9000;0.7025;-0.1507;
964.2000;0.7049;-0.1368;
964.5000;0.7049;-0.1368;
964.8000;0.7049;-0.1322;
965.1000;0.7049;-0.1391;
965.4000;0.7057;-0.1368;
965.7000;0.7049;-0.1461;
966.0000;0.7066;-0.1414;
966.3000;0.7098;-0.1322;
966.6000;0.7090;-0.1345;
966.9000;0.7066;-0.1437;
967.2000;0.7057;-0.1437;
967.5000;0.7090;-0.1391;
967.8000;0.7057;-0.1507;
968.1000;0.7057;-0.1507;
968.4000;0.7057;-0.1600;
968.7000;0.7049;-0.1577;
969.0000;0.7041;-0.1600;
969.3000;0.7057;-0.1530;
969.6000;0.7049;-0.1600;
969.9000;0.7049;-0.1600;
970.2000;0.7049;-0.1646;
970.5000;0.7041;-0.1600;
970.8000;0.7041;-0.1693;
971.1000;0.7017;-0.1762;
971.4000;0.7033;-0.1739;
971.7000;0.7033;-0.1646;
972.0000;0.7049;-0.1577;
972.3000;0.7017;-0.1646;
972.6000;0.7049;-0.1600;
972.9000;0.7041;-0.1577;
973.2000;0.7033;-0.1553;
973.5000;0.7057;-0.1437;
973.8000;0.7025;-0.1461;
974.1000;0.7041;-0.1437;
974.4000;0.7041;-0.1414;
974.7000;0.7041;-0.1507;
975.0000;0.7033;-0.1623;
975.3000;0.7049;-0.1623;
975.6000;0.7074;-0.1530;
975.9000;0.7025;-0.1600;
976.2000;0.7033;-0.1646;
976.5000;0.7009;-0.1577;
976.8000;0.7033;-0.1484;
977.1000;0.7025;-0.1553;
977.4000;0.7033;-0.1530;
977.7000;0.7017;-0.1577;
978.0000;0.7009;-0.1530;
978.3000;0.7025;-0.1484;
978.6000;0.6992;-0.1484;
978.9000;0.7025;-0.1368;
979.2000;0.7041;-0.1322;
979.5000;0.7041;-0.1391;
979.8000;0.7041;-0.1437;
980.1000;0.7049;-0.1461;
980.4000;0.7041;-0.1414;
980.7000;0.7033;-0.1345;
981.0000;0.7041;-0.1322;
981.3000;0.7049;-0.1368;
981.6000;0.7009;-0.1391;
981.9000;0.7049;-0.1275;
982.2000;0.7074;-0.1252;
982.5000;0.7049;-0.1298;
982.8000;0.7017;-0.1368;
983.1000;0.7025;-0.1322;
983.4000;0.7057;-0.1275;
983.7000;0.7025;-0.1298;
984.0000;0.7017;-0.1229;
984.3000;0.7009;-0.1275;
984.6000;0.7009;-0.1322;
984.9000;0.7025;-0.1322;
985.2000;0.7017;-0.1368;
985.5000;0.6992;-0.1461;
985.8000;0.7025;-0.1391;
986.1000;0.7025;-0.1437;
986.4000;0.7033;-0.1484;
986.7000;0.7025;-0.1484;
987.0000;0.7017;-0.1553;
987.3000;0.7017;-0.1577;
987.6000;0.7000;-0.1600;
987.9000;0.7033;-0.1577;
988.2000;0.7025;-0.1623;
988.5000;0.7041;-0.1461;
988.8000;0.7017;-0.1461;
989.1000;0.7025;-0.1437;
989.4000;0.7025;-0.1437;
989.7000;0.7074;-0.1298;
990.0000;0.7057;-0.1368;
990.3000;0.7025;-0.1437;
990.6000;0.7025;-0.1391;
990.9000;0.7025;-0.1345;
991.2000;0.7033;-0.1275;
991.5000;0.7041;-0.1322;
991.8000;0.7017;-0.1275;
992.1000;0.7025;-0.1275;
992.4000;0.7025;-0.1298;
992.7000;0.7057;-0.1229;
993.0000;0.7017;-0.1275;
993.3000;0.7009;-0.1275;
993.6000;0.7000;-0.1322;
993.9000;0.7025;-0.1252;
994.2000;0.7017;-0.1298;
994.5000;0.7041;-0.1206;
994.8000;0.7017;-0.1298;
995.1000;0.7025;-0.1252;
995.4000;0.7025;-0.1206;
995.7000;0.7000;-0.1229;
996.0000;0.7025;-0.1206;
996.3000;0.7033;-0.1252;
996.6000;0.7017;-0.1345;
996.9000;0.7017;-0.1368;
997.2000;0.7017;-0.1391;
997.5000;0.7009;-0.1461;
997.8000;0.7017;-0.1391;
998.1000;0.7025;-0.1414;
998.4000;0.7000;-0.1507;
998.7000;0.7017;-0.1391;
999.0000;0.7025;-0.1391;
999.3000;0.7000;-0.1345;
999.6000;0.7057;-0.1322;
999.9000;0.7017;-0.1414;
1000.2000;0.7017;-0.1484;
1000.5000;0.6984;-0.1553;
1000.8000;0.7049;-0.1322;
1001.1000;0.7017;-0.1298;
1001.4000;0.7041;-0.1206;
1001.7000;0.7009;-0.1322;
1002.0000;0.7009;-0.1275;
1002.3000;0.7025;-0.1252;
1002.6000;0.7041;-0.1159;
1002.9000;0.7025;-0.1206;
1003.2000;0.7009;-0.1275;
1003.5000;0.6952;-0.1368;
1003.8000;0.7000;-0.1368;
1004.1000;0.7041;-0.1414;
1004.4000;0.7009;-0.1507;
1004.7000;0.7017;-0.1461;
1005.0000;0.6968;-0.1507;
1005.3000;0.7017;-0.1298;
1005.6000;0.7017;-0.1206;
1005.9000;0.7025;-0.1206;
1006.2000;0.6984;-0.1368;
1006.5000;0.7009;-0.1345;
1006.8000;0.7017;-0.1345;
1007.1000;0.7017;-0.1414;
1007.4000;0.7000;-0.1368;
1007.7000;0.7033;-0.1414;
1008.0000;0.7009;-0.1461;
1008.3000;0.7000;-0.1530;
1008.6000;0.7000;-0.1530;
1008.9000;0.6992;-0.1553;
1009.2000;0.7000;-0.1507;
1009.5000;0.7017;-0.1391;
1009.8000;0.7033;-0.1345;
1010.1000;0.7000;-0.1484;
1010.4000;0.7017;-0.1507;
1010.7000;0.7000;-0.1577;
1011.0000;0.7017;-0.1600;
1011.3000;0.7000;-0.1530;
1011.6000;0.7017;-0.1461;
1011.9000;0.6984;-0.1553;
1012.2000;0.7009;-0.1484;
1012.5000;0.6976;-0.1530;
1012.8000;0.6992;-0.1414;
1013.1000;0.7066;-0.1275;
1013.4000;0.7009;-0.1484;
1013.7000;0.7017;-0.1530;
1014.0000;0.7082;-0.1391;
1014.3000;0.7017;-0.1507;
1014.6000;0.7000;-0.1646;
1014.9000;0.7009;-0.1600;
1015.2000;0.7000;-0.1693;
1015.5000;0.6976;-0.1716;
1015.8000;0.6984;-0.1762;
1016.1000;0.7000;-0.1716;
1016.4000;0.7017;-0.1623;
1016.7000;0.7017;-0.1577;
1017.0000;0.7033;-0.1507;
1017.3000;0.6976;-0.1669;
1017.6000;0.7017;-0.1507;
1017.9000;0.7009;-0.1461;
1018.2000;0.7025;-0.1345;
1018.5000;0.6960;-0.1461;
1018.8000;0.7009;-0.1322;
1019.1000;0.7000;-0.1368;
1019.4000;0.7033;-0.1322;
1019.7000;0.6968;-0.1461;
1020.0000;0.6992;-0.1461;
1020.3000;0.7033;-0.1368;
1020.6000;0.6992;-0.1437;
1020.9000;0.7000;-0.1484;
1021.2000;0.7074;-0.1275;
1021.5000;0.6992;-0.1437;
1021.8000;0.7009;-0.1414;
1022.1000;0.7000;-0.1437;
1022.4000;0.7000;-0.1461;
1022.7000;0.7000;-0.1461;
1023.0000;0.7000;-0.1530;
1023.3000;0.7082;-0.1368;
1023.6000;0.6984;-0.1623;
1023.9000;0.6984;-0.1600;
1024.2000;0.7017;-0.1461;
1024.5000;0.7009;-0.1437;
1024.8000;0.7033;-0.1275;
1025.1000;0.6992;-0.1322;
1025.4000;0.6984;-0.1391;
1025.7000;0.7000;-0.1322;
1026.0000;0.7000;-0.1275;
1026.3000;0.7017;-0.1345;
1026.6000;0.7017;-0.1391;
1026.9000;0.7009;-0.1322;
1027.2000;0.7025;-0.1159;
1027.5000;0.7009;-0.1113;
1027.8000;0.7033;-0.1159;
1028.1000;0.7025;-0.1159;
1028.4000;0.7017;-0.1206;
1028.7000;0.6960;-0.1298;
1029.0000;0.6992;-0.1275;
1029.3000;0.7009;-0.1298;
1029.6000;0.6992;-0.1391;
1029.9000;0.6992;-0.1345;
1030.2000;0.7074;-0.1206;
1030.5000;0.6984;-0.1368;
1030.8000;0.6992;-0.1322;
1031.1000;0.6927;-0.1461;
1031.4000;0.6976;-0.1345;
1031.7000;0.7000;-0.1391;
1032.0000;0.6919;-0.1507;
1032.3000;0.6984;-0.1368;
1032.6000;0.6992;-0.1391;
1032.9000;0.6976;-0.1414;
1033.2000;0.7000;-0.1322;
1033.5000;0.7017;-0.1345;
1033.8000;0.7017;-0.1275;
1034.1000;0.6984;-0.1252;
1034.4000;0.7000;-0.1136;
1034.7000;0.7009;-0.1090;
1035.0000;0.6992;-0.1252;
1035.3000;0.7000;-0.1275;
1035.6000;0.7025;-0.1206;
1035.9000;0.7009;-0.1252;
1036.2000;0.7017;-0.1275;
1036.5000;0.7009;-0.1298;
1036.8000;0.7000;-0.1345;
1037.1000;0.6992;-0.1345;
1037.4000;0.7009;-0.1275;
1037.7000;0.6992;-0.1252;
1038.0000;0.6992;-0.1275;
1038.3000;0.6984;-0.1275;
1038.6000;0.6984;-0.1252;
1038.9000;0.7009;-0.1252;
1039.2000;0.6976;-0.1345;
1039.5000;0.6984;-0.1368;
1039.8000;0.7000;-0.1322;
1040.1000;0.6992;-0.1275;
1040.4000;0.6976;-0.1345;
1040.7000;0.6976;-0.1414;
1041.0000;0.6984;-0.1345;
1041.3000;0.6960;-0.1507;
1041.6000;0.6968;-0.1461;
1041.9000;0.6992;-0.1275;
1042.2000;0.6960;-0.1298;
1042.5000;0.6976;-0.1298;
1042.8000;0.6992;-0.1275;
1043.1000;0.7000;-0.1345;
1043.4000;0.6984;-0.1368;
1043.7000;0.7009;-0.1414;
1044.0000;0.6984;-0.1577;
1044.3000;0.7000;-0.1623;
1044.6000;0.6992;-0.1553;
1044.9000;0.6992;-0.1553;
1045.2000;0.7009;-0.1484;
1045.5000;0.6960;-0.1716;
1045.8000;0.6952;-0.1669;
1046.1000;0.6968;-0.1646;
1046.4000;0.6976;-0.1646;
1046.7000;0.6960;-0.1693;
1047.0000;0.6968;-0.1646;
1047.3000;0.6952;-0.1808;
1047.6000;0.7017;-0.1669;
1047.9000;0.6976;-0.1669;
1048.2000;0.6984;-0.1669;
1048.5000;0.6984;-0.1669;
1048.8000;0.6984;-0.1600;
1049.1000;0.6984;-0.1600;
1049.4000;0.6976;-0.1553;
1049.7000;0.6984;-0.1507;
1050.0000;0.7000;-0.1368;
1050.3000;0.7000;-0.1298;
1050.6000;0.6984;-0.1298;
1050.9000;0.6968;-0.1414;
1051.2000;0.7000;-0.1368;
1051.5000;0.6968;-0.1461;
1051.8000;0.6960;-0.1507;
1052.1000;0.6935;-0.1577;
1052.4000;0.6968;-0.1414;
1052.7000;0.6984;-0.1391;
1053.0000;0.7009;-0.1345;
1053.3000;0.6968;-0.1414;
1053.6000;0.6976;-0.1345;
1053.9000;0.6976;-0.1275;
1054.2000;0.7049;-0.1113;
1054.5000;0.6984;-0.1252;
1054.8000;0.6992;-0.1275;
1055.1000;0.6943;-0.1368;
1055.4000;0.6984;-0.1252;
1055.7000;0.6960;-0.1206;
1056.0000;0.6968;-0.1229;
1056.3000;0.6992;-0.1229;
1056.6000;0.6984;-0.1298;
1056.9000;0.7000;-0.1275;
1057.2000;0.6968;-0.1414;
1057.5000;0.6960;-0.1414;
1057.8000;0.6976;-0.1275;
1058.1000;0.6976;-0.1252;
1058.4000;0.6976;-0.1275;
1058.7000;0.6976;-0.1298;
1059.0000;0.6968;-0.1252;
1059.3000;0.6992;-0.1182;
1059.6000;0.6968;-0.1229;
1059.9000;0.6984;-0.1182;
1060.2000;0.6968;-0.1252;
1060.5000;0.6984;-0.1206;
1060.8000;0.7000;-0.1113;
1061.1000;0.6984;-0.1206;
1061.4000;0.6984;-0.1182;
1061.7000;0.6968;-0.1252;
1062.0000;0.6984;-0.1229;
1062.3000;0.6968;-0.1275;
1062.6000;0.6968;-0.1298;
1062.9000;0.6976;-0.1275;
1063.2000;0.6976;-0.1391;
1063.5000;0.6943;-0.1461;
1063.8000;0.6992;-0.1391;
1064.1000;0.6976;-0.1484;
1064.4000;0.6976;-0.1507;
1064.7000;0.7000;-0.1391;
1065.0000;0.6992;-0.1391;
1065.3000;0.6984;-0.1368;
1065.6000;0.6992;-0.1275;
1065.9000;0.7000;-0.1229;
1066.2000;0.6976;-0.1298;
1066.5000;0.6984;-0.1414;
1066.8000;0.6960;-0.1461;
1067.1000;0.6968;-0.1461;
1067.4000;0.6927;-0.1553;
1067.7000;0.7000;-0.1229;
1068.0000;0.6976;-0.1275;
1068.3000;0.6976;-0.1322;
1068.6000;0.6984;-0.1298;
1068.9000;0.6976;-0.1322;
1069.2000;0.6992;-0.1345;
1069.5000;0.6984;-0.1391;
1069.8000;0.6984;-0.1368;
1070.1000;0.6992;-0.1275;
1070.4000;0.6976;-0.1298;
1070.7000;0.6968;-0.1322;
1071.0000;0.6984;-0.1368;
1071.3000;0.6960;-0.1322;
1071.6000;0.6976;-0.1322;
1071.9000;0.6968;-0.1437;
1072.2000;0.6968;-0.1345;
1072.5000;0.6976;-0.1298;
1072.8000;0.6968;-0.1345;
1073.1000;0.7000;-0.1206;
1073.4000;0.6984;-0.1275;
1073.7000;0.6984;-0.1206;
1074.0000;0.6984;-0.1252;
1074.3000;0.7017;-0.1206;
1074.6000;0.6976;-0.1206;
1074.9000;0.7017;-0.1043;
1075.2000;0.7049;-0.0997;
1075.5000;0.6976;-0.1159;
1075.8000;0.6992;-0.1113;
1076.1000;0.6960;-0.1206;
1076.4000;0.6976;-0.1182;
1076.7000;0.7033;-0.1090;
1077.0000;0.6960;-0.1322;
1077.3000;0.6968;-0.1298;
1077.6000;0.6960;-0.1368;
1077.9000;0.6952;-0.1414;
1078.2000;0.6960;-0.1368;
1078.5000;0.6968;-0.1322;
1078.8000;0.6943;-0.1345;
1079.1000;0.6968;-0.1391;
1079.4000;0.6935;-0.1461;
1079.7000;0.6960;-0.1391;
1080.0000;0.6952;-0.1484;
1080.3000;0.6943;-0.1461;
1080.6000;0.6960;-0.1368;
1080.9000;0.6952;-0.1298;
1081.2000;0.6960;-0.1368;
1081.5000;0.6960;-0.1368;
1081.8000;0.6960;-0.1368;
1082.1000;0.6960;-0.1437;
1082.4000;0.6968;-0.1414;
1082.7000;0.6952;-0.1391;
1083.0000;0.6968;-0.1461;
1083.3000;0.6960;-0.1391;
1083.6000;0.6976;-0.1414;
1083.9000;0.6960;-0.1507;
1084.2000;0.6968;-0.1461;
1084.5000;0.6960;-0.1437;
1084.8000;0.6968;-0.1345;
1085.1000;0.6935;-0.1461;
1085.4000;0.6952;-0.1368;
1085.7000;0.6960;-0.1368;
1086.0000;0.6968;-0.1298;
1086.3000;0.6943;-0.1275;
1086.6000;0.6960;-0.1275;
1086.9000;0.6960;-0.1322;
1087.2000;0.6952;-0.1322;
1087.5000;0.6976;-0.1298;
1087.8000;0.6968;-0.1345;
1088.1000;0.6952;-0.1391;
1088.4000;0.6952;-0.1345;
1088.7000;0.6960;-0.1298;
1089.0000;0.6968;-0.1414;
1089.3000;0.6935;-0.1484;
1089.6000;0.6943;-0.1414;
1089.9000;0.6903;-0.1461;
1090.2000;0.6976;-0.1252;
1090.5000;0.6960;-0.1275;
1090.8000;0.6919;-0.1345;
1091.1000;0.6952;-0.1275;
1091.4000;0.6976;-0.1182;
1091.7000;0.6943;-0.1206;
1092.0000;0.6943;-0.1252;
1092.3000;0.6960;-0.1206;
1092.6000;0.6943;-0.1206;
1092.9000;0.6984;-0.1043;
1093.2000;0.6960;-0.1113;
1093.5000;0.7009;-0.0997;
1093.8000;0.6960;-0.1136;
1094.1000;0.6968;-0.1043;
1094.4000;0.6968;-0.1090;
1094.7000;0.6960;-0.1136;
1095.0000;0.6919;-0.1345;
1095.3000;0.6952;-0.1322;
1095.6000;0.6960;-0.1391;
1095.9000;0.6935;-0.1437;
1096.2000;0.6976;-0.1298;
1096.5000;0.6976;-0.1206;
1096.8000;0.6968;-0.1206;
1097.1000;0.6952;-0.1229;
1097.4000;0.6976;-0.1159;
1097.7000;0.6968;-0.1136;
1098.0000;0.6943;-0.1159;
1098.3000;0.6960;-0.1136;
1098.6000;0.6968;-0.1229;
1098.9000;0.6976;-0.1298;
1099.2000;0.6960;-0.1368;
1099.5000;0.6952;-0.1414;
1099.8000;0.6952;-0.1298;
1100.1000;0.6952;-0.1252;
1100.4000;0.6952;-0.1345;
1100.7000;0.6943;-0.1298;
1101.0000;0.6927;-0.1322;
1101.3000;0.6952;-0.1298;
1101.6000;0.6960;-0.1414;
1101.9000;0.6992;-0.1298;
1102.2000;0.6984;-0.1322;
1102.5000;0.6911;-0.1414;
1102.8000;0.6943;-0.1391;
1103.1000;0.6952;-0.1322;
1103.4000;0.6952;-0.1322;
1103.7000;0.6943;-0.1322;
1104.0000;0.7009;-0.1182;
1104.3000;0.6943;-0.1298;
1104.6000;0.6968;-0.1206;
1104.9000;0.6992;-0.1159;
1105.2000;0.6943;-0.1298;
1105.5000;0.6952;-0.1275;
1105.8000;0.6952;-0.1275;
1106.1000;0.6960;-0.1229;
1106.4000;0.6984;-0.1136;
1106.7000;0.6943;-0.1206;
1107.0000;0.6976;-0.1182;
1107.3000;0.6952;-0.1206;
1107.6000;0.6943;-0.1275;
1107.9000;0.6943;-0.1298;
1108.2000;0.6968;-0.1229;
1108.5000;0.6960;-0.1345;
1108.8000;0.6976;-0.1322;
1109.1000;0.6960;-0.1345;
1109.4000;0.6943;-0.1391;
1109.7000;0.6943;-0.1368;
1110.0000;0.6968;-0.1182;
1110.3000;0.6943;-0.1182;
1110.6000;0.6919;-0.1159;
1110.9000;0.6943;-0.1136;
1111.2000;0.6960;-0.1206;
1111.5000;0.6952;-0.1182;
1111.8000;0.7000;-0.1043;
1112.1000;0.6952;-0.1159;
1112.4000;0.6935;-0.1206;
1112.7000;0.6992;-0.1090;
1113.0000;0.6952;-0.1159;
1113.3000;0.6960;-0.1182;
1113.6000;0.6952;-0.1252;
1113.9000;0.6943;-0.1298;
1114.2000;0.6943;-0.1322;
1114.5000;0.6968;-0.1206;
1114.8000;0.6935;-0.1252;
1115.1000;0.6943;-0.1322;
1115.4000;0.6960;-0.1206;
1115.7000;0.6960;-0.1182;
1116.0000;0.6968;-0.1159;
1116.3000;0.6960;-0.1182;
1116.6000;0.6943;-0.1206;
1116.9000;0.6952;-0.1206;
1117.2000;0.6927;-0.1206;
1117.5000;0.6943;-0.1182;
1117.8000;0.6935;-0.1206;
1118.1000;0.6919;-0.1182;
1118.4000;0.6943;-0.1090;
1118.7000;0.6935;-0.1113;
1119.0000;0.6927;-0.1067;
1119.3000;0.6903;-0.1159;
1119.6000;0.6952;-0.1113;
1119.9000;0.6927;-0.1159;
1120.2000;0.6943;-0.1159;
1120.5000;0.6960;-0.1113;
1120.8000;0.6952;-0.1229;
1121.1000;0.6935;-0.1275;
1121.4000;0.6935;-0.1229;
1121.7000;0.6935;-0.1252;
1122.0000;0.6927;-0.1182;
1122.3000;0.6952;-0.1206;
1122.6000;0.6870;-0.1345;
1122.9000;0.6943;-0.1252;
1123.2000;0.6943;-0.1206;
1123.5000;0.6943;-0.1182;
1123.8000;0.6935;-0.1252;
1124.1000;0.6935;-0.1252;
1124.4000;0.6935;-0.1206;
1124.7000;0.6935;-0.1159;
1125.0000;0.6960;-0.0974;
1125.3000;0.6935;-0.1043;
1125.6000;0.6968;-0.1067;
1125.9000;0.6870;-0.1345;
1126.2000;0.6935;-0.1252;
1126.5000;0.6935;-0.1391;
1126.8000;0.6927;-0.1345;
1127.1000;0.6952;-0.1345;
1127.4000;0.6968;-0.1298;
1127.7000;0.6952;-0.1368;
1128.0000;0.6935;-0.1368;
1128.3000;0.6952;-0.1368;
1128.6000;0.6935;-0.1322;
1128.9000;0.6919;-0.1298;
1129.2000;0.6943;-0.1182;
1129.5000;0.6895;-0.1298;
1129.8000;0.6927;-0.1252;
1130.1000;0.6935;-0.1322;
1130.4000;0.6960;-0.1252;
1130.7000;0.6935;-0.1229;
1131.0000;0.6927;-0.1275;
1131.3000;0.6927;-0.1252;
1131.6000;0.6943;-0.1275;
1131.9000;0.6935;-0.1391;
1132.2000;0.6903;-0.1461;
1132.5000;0.6952;-0.1322;
1132.8000;0.6943;-0.1229;
1133.1000;0.6935;-0.1206;
1133.4000;0.6943;-0.1182;
1133.7000;0.6952;-0.1136;
1134.0000;0.6960;-0.1067;
1134.3000;0.7017;-0.0951;
1134.6000;0.6919;-0.1182;
1134.9000;0.6943;-0.1043;
1135.2000;0.6943;-0.1113;
1135.5000;0.6935;-0.1206;
1135.8000;0.6952;-0.1206;
1136.1000;0.6911;-0.1298;
1136.4000;0.6960;-0.1206;
1136.7000;0.6960;-0.1229;
1137.0000;0.6935;-0.1322;
1137.3000;0.6943;-0.1275;
1137.6000;0.6919;-0.1322;
1137.9000;0.6935;-0.1229;
1138.2000;0.6960;-0.1229;
1138.5000;0.6943;-0.1298;
1138.8000;0.6952;-0.1252;
1139.1000;0.6960;-0.1159;
1139.4000;0.6943;-0.1182;
1139.7000;0.6927;-0.1206;
1140.0000;0.6952;-0.1229;
1140.3000;0.6960;-0.1345;
1140.6000;0.6919;-0.1368;
1140.9000;0.6927;-0.1345;
1141.2000;0.6927;-0.1345;
1141.5000;0.6935;-0.1275;
1141.8000;0.6919;-0.1275;
1142.1000;0.6968;-0.1229;
1142.4000;0.6927;-0.1368;
1142.7000;0.6927;-0.1368;
1143.0000;0.6919;-0.1345;
1143.3000;0.6903;-0.1414;
1143.6000;0.6976;-0.1252;
1143.9000;0.6935;-0.1345;
1144.2000;0.6813;-0.1553;
1144.5000;0.6943;-0.1322;
1144.8000;0.6968;-0.1275;
1145.1000;0.6927;-0.1345;
1145.4000;0.6960;-0.1345;
1145.7000;0.6943;-0.1345;
1146.0000;0.6935;-0.1322;
1146.3000;0.7009;-0.1159;
1146.6000;0.6927;-0.1391;
1146.9000;0.6927;-0.1345;
1147.2000;0.6919;-0.1345;
1147.5000;0.6927;-0.1298;
1147.8000;0.6927;-0.1322;
1148.1000;0.6895;-0.1345;
1148.4000;0.6935;-0.1322;
1148.7000;0.6927;-0.1391;
1149.0000;0.6935;-0.1368;
1149.3000;0.6935;-0.1252;
1149.6000;0.6935;-0.1298;
1149.9000;0.6919;-0.1298;
1150.2000;0.6960;-0.1182;
1150.5000;0.6943;-0.1252;
1150.8000;0.6943;-0.1275;
1151.1000;0.6927;-0.1252;
1151.4000;0.6927;-0.1298;
1151.7000;0.6943;-0.1368;
1152.0000;0.6919;-0.1391;
1152.3000;0.6919;-0.1252;
1152.6000;0.6927;-0.1206;
1152.9000;0.6854;-0.1461;
1153.2000;0.6927;-0.1206;
1153.5000;0.6935;-0.1159;
1153.8000;0.6919;-0.1159;
1154.1000;0.6927;-0.1159;
1154.4000;0.6903;-0.1043;
1154.7000;0.6919;-0.1020;
1155.0000;0.6943;-0.0904;
1155.3000;0.6919;-0.0974;
1155.6000;0.6911;-0.1113;
1155.9000;0.6935;-0.1136;
1156.2000;0.6927;-0.1113;
1156.5000;0.6919;-0.1020;
1156.8000;0.6927;-0.0997;
1157.1000;0.6911;-0.1067;
1157.4000;0.6919;-0.1113;
1157.7000;0.6911;-0.1113;
1158.0000;0.6943;-0.1067;
1158.3000;0.6935;-0.1159;
1158.6000;0.6927;-0.1229;
1158.9000;0.6927;-0.1252;
1159.2000;0.6911;-0.1298;
1159.5000;0.6935;-0.1252;
1159.8000;0.6919;-0.1275;
1160.1000;0.6895;-0.1368;
1160.4000;0.6935;-0.1298;
1160.7000;0.6870;-0.1484;
1161.0000;0.6919;-0.1461;
1161.3000;0.6911;-0.1437;
1161.6000;0.6903;-0.1414;
1161.9000;0.6919;-0.1345;
1162.2000;0.6952;-0.1298;
1162.5000;0.6870;-0.1484;
1162.8000;0.6927;-0.1322;
1163.1000;0.6935;-0.1206;
1163.4000;0.6927;-0.1322;
1163.7000;0.6935;-0.1298;
1164.0000;0.6911;-0.1368;
1164.3000;0.6927;-0.1275;
1164.6000;0.6935;-0.1275;
1164.9000;0.6903;-0.1345;
1165.2000;0.6919;-0.1322;
1165.5000;0.6919;-0.1206;
1165.8000;0.6935;-0.1159;
1166.1000;0.6984;-0.1067;
1166.4000;0.6943;-0.1090;
1166.7000;0.6935;-0.1067;
1167.0000;0.6927;-0.1067;
1167.3000;0.6935;-0.1090;
1167.6000;0.6960;-0.1043;
1167.9000;0.6927;-0.1182;
1168.2000;0.6878;-0.1275;
1168.5000;0.6911;-0.1252;
1168.8000;0.6911;-0.1252;
1169.1000;0.6886;-0.1345;
1169.4000;0.6903;-0.1322;
1169.7000;0.6919;-0.1275;
1170.0000;0.6903;-0.1275;
1170.3000;0.6919;-0.1298;
1170.6000;0.6903;-0.1298;
1170.9000;0.6927;-0.1252;
1171.2000;0.6870;-0.1414;
1171.5000;0.6919;-0.1275;
1171.8000;0.6919;-0.1229;
1172.1000;0.6984;-0.1067;
1172.4000;0.6919;-0.1182;
1172.7000;0.6927;-0.1206;
1173.0000;0.6903;-0.1275;
1173.3000;0.6935;-0.1136;
1173.6000;0.6935;-0.1229;
1173.9000;0.6903;-0.1298;
1174.2000;0.6911;-0.1275;
1174.5000;0.6911;-0.1229;
1174.8000;0.6911;-0.1136;
1175.1000;0.6911;-0.1182;
1175.4000;0.6911;-0.1206;
1175.7000;0.6911;-0.1275;
1176.0000;0.6862;-0.1368;
1176.3000;0.6919;-0.1275;
1176.6000;0.6927;-0.1298;
1176.9000;0.6895;-0.1391;
1177.2000;0.6927;-0.1229;
1177.5000;0.6927;-0.1182;
1177.8000;0.6935;-0.1159;
1178.1000;0.6895;-0.1159;
1178.4000;0.6927;-0.1136;
1178.7000;0.6903;-0.1252;
1179.0000;0.6911;-0.1322;
1179.3000;0.6878;-0.1437;
1179.6000;0.6911;-0.1461;
1179.9000;0.6911;-0.1437;
1180.2000;0.6919;-0.1391;
1180.5000;0.6935;-0.1437;
1180.8000;0.6878;-0.1600;
1181.1000;0.6935;-0.1461;
1181.4000;0.6927;-0.1461;
1181.7000;0.6919;-0.1507;
1182.0000;0.6919;-0.1507;
1182.3000;0.6935;-0.1461;
1182.6000;0.6952;-0.1414;
1182.9000;0.6952;-0.1391;
1183.2000;0.6895;-0.1391;
1183.5000;0.6903;-0.1298;
1183.8000;0.6878;-0.1298;
1184.1000;0.6911;-0.1252;
1184.4000;0.6952;-0.1113;
1184.7000;0.6878;-0.1229;
1185.0000;0.6903;-0.1113;
1185.3000;0.6911;-0.1090;
1185.6000;0.6911;-0.1020;
1185.9000;0.6927;-0.0997;
1186.2000;0.6911;-0.1067;
1186.5000;0.6895;-0.1136;
1186.8000;0.6903;-0.1090;
1187.1000;0.6895;-0.1159;
1187.4000;0.6911;-0.1182;
1187.7000;0.6919;-0.1206;
1188.0000;0.6935;-0.1159;
1188.3000;0.6919;-0.1182;
1188.6000;0.6927;-0.1067;
1188.9000;0.6943;-0.1067;
1189.2000;0.6919;-0.1113;
1189.5000;0.6870;-0.1159;
1189.8000;0.6911;-0.1020;
1190.1000;0.6911;-0.1067;
1190.4000;0.6911;-0.1113;
1190.7000;0.6911;-0.1182;
1191.0000;0.6919;-0.1182;
1191.3000;0.6935;-0.1159;
1191.6000;0.6968;-0.1090;
1191.9000;0.6878;-0.1391;
1192.2000;0.6960;-0.1159;
1192.5000;0.6919;-0.1322;
1192.8000;0.6911;-0.1345;
1193.1000;0.6919;-0.1322;
1193.4000;0.6846;-0.1484;
1193.7000;0.6919;-0.1322;
1194.0000;0.6927;-0.1345;
1194.3000;0.6935;-0.1345;
1194.6000;0.6911;-0.1437;
1194.9000;0.6895;-0.1414;
1195.2000;0.6919;-0.1391;
1195.5000;0.6911;-0.1437;
1195.8000;0.6903;-0.1322;
1196.1000;0.6903;-0.1322;
1196.4000;0.6903;-0.1229;
1196.7000;0.6919;-0.1090;
1197.0000;0.6927;-0.1182;
1197.3000;0.6919;-0.1136;
1197.6000;0.6903;-0.1136;
1197.9000;0.6927;-0.1043;
1198.2000;0.6927;-0.1067;
1198.5000;0.6911;-0.1113;
1198.8000;0.6919;-0.1113;
1199.1000;0.6960;-0.1020;
1199.4000;0.6968;-0.0904;
1199.7000;0.6886;-0.1182;
1200.0000;0.6935;-0.1113;
1200.3000;0.6911;-0.1182;
1200.6000;0.6919;-0.1159;
1200.9000;0.6911;-0.1113;
1201.2000;0.6911;-0.1113;
1201.5000;0.6919;-0.1090;
1201.8000;0.6919;-0.1182;
1202.1000;0.6919;-0.1206;
1202.4000;0.6911;-0.1182;
1202.7000;0.6919;-0.1182;
1203.0000;0.6919;-0.1159;
1203.3000;0.6911;-0.1159;
1203.6000;0.6911;-0.1067;
1203.9000;0.6895;-0.1090;
1204.2000;0.6911;-0.1090;
1204.5000;0.6886;-0.1067;
1204.8000;0.6935;-0.0904;
1205.1000;0.6927;-0.1043;
1205.4000;0.6919;-0.1113;
1205.7000;0.6919;-0.1067;
1206.0000;0.6911;-0.1182;
1206.3000;0.6992;-0.0951;
1206.6000;0.6903;-0.1136;
1206.9000;0.6903;-0.1113;
1207.2000;0.6911;-0.1090;
1207.5000;0.6903;-0.1136;
1207.8000;0.6878;-0.1182;
1208.1000;0.6903;-0.1043;
1208.4000;0.6903;-0.1043;
1208.7000;0.6903;-0.0974;
1209.0000;0.6911;-0.0974;
1209.3000;0.6895;-0.0974;
1209.6000;0.6903;-0.0927;
1209.9000;0.6903;-0.0927;
1210.2000;0.6895;-0.0997;
1210.5000;0.6895;-0.0927;
1210.8000;0.6911;-0.0858;
1211.1000;0.6911;-0.0904;
1211.4000;0.6878;-0.0974;
1211.7000;0.6911;-0.0904;
1212.0000;0.6911;-0.0927;
1212.3000;0.6911;-0.0997;
1212.6000;0.6886;-0.0997;
1212.9000;0.6919;-0.0904;
1213.2000;0.6911;-0.0881;
1213.5000;0.6952;-0.0765;
1213.8000;0.6911;-0.0788;
1214.1000;0.6886;-0.0904;
1214.4000;0.6927;-0.0927;
1214.7000;0.6919;-0.0974;
1215.0000;0.6919;-0.0974;
1215.3000;0.6886;-0.1020;
1215.6000;0.6927;-0.0974;
1215.9000;0.6903;-0.1043;
1216.2000;0.6911;-0.1043;
1216.5000;0.6903;-0.0974;
1216.8000;0.6903;-0.0974;
1217.1000;0.6903;-0.0858;
1217.4000;0.6895;-0.0858;
1217.7000;0.6927;-0.0788;
1218.0000;0.6903;-0.0835;
1218.3000;0.6927;-0.0858;
1218.6000;0.6911;-0.0904;
1218.9000;0.6903;-0.0927;
1219.2000;0.6886;-0.0974;
1219.5000;0.6903;-0.0951;
1219.8000;0.6903;-0.1067;
1220.1000;0.6878;-0.1090;
1220.4000;0.6911;-0.1043;
1220.7000;0.6886;-0.0927;
1221.0000;0.6895;-0.0927;
1221.3000;0.6911;-0.0904;
1221.6000;0.6895;-0.0927;
1221.9000;0.6854;-0.0974;
1222.2000;0.6911;-0.0835;
1222.5000;0.6911;-0.0835;
1222.8000;0.6895;-0.0858;
1223.1000;0.6919;-0.0858;
1223.4000;0.6919;-0.0881;
1223.7000;0.6911;-0.0858;
1224.0000;0.6911;-0.0788;
1224.3000;0.6903;-0.0904;
1224.6000;0.6886;-0.0904;
1224.9000;0.6895;-0.0881;
1225.2000;0.6911;-0.0904;
1225.5000;0.6968;-0.0858;
1225.8000;0.6903;-0.0997;
1226.1000;0.6895;-0.0904;
1226.4000;0.6895;-0.0927;
1226.7000;0.6911;-0.0904;
1227.0000;0.6895;-0.1043;
1227.3000;0.6895;-0.1090;
1227.6000;0.6862;-0.1136;
1227.9000;0.6911;-0.0974;
1228.2000;0.6903;-0.1020;
1228.5000;0.6903;-0.1043;
1228.8000;0.6927;-0.0858;
1229.1000;0.6903;-0.0974;
1229.4000;0.6935;-0.0904;
1229.7000;0.6911;-0.1090;
1230.0000;0.6895;-0.1159;
1230.3000;0.6903;-0.1159;
1230.6000;0.6911;-0.1136;
1230.9000;0.6895;-0.1182;
1231.2000;0.6878;-0.1182;
1231.5000;0.6878;-0.1090;
1231.8000;0.6935;-0.0974;
1232.1000;0.6895;-0.0951;
1232.4000;0.6895;-0.1020;
1232.7000;0.6886;-0.1090;
1233.0000;0.6903;-0.1020;
1233.3000;0.6886;-0.1090;
1233.6000;0.6854;-0.1090;
1233.9000;0.6935;-0.0904;
1234.2000;0.6903;-0.0951;
1234.5000;0.6903;-0.0904;
1234.8000;0.6862;-0.0951;
1235.1000;0.6919;-0.0927;
1235.4000;0.6903;-0.0974;
1235.7000;0.6935;-0.0881;
1236.0000;0.6886;-0.0997;
1236.3000;0.6895;-0.1043;
1236.6000;0.6935;-0.0881;
1236.9000;0.6927;-0.0904;
1237.2000;0.6911;-0.0904;
1237.5000;0.6903;-0.0951;
1237.8000;0.6903;-0.0997;
1238.1000;0.6895;-0.0974;
1238.4000;0.6886;-0.0951;
1238.7000;0.6878;-0.0927;
1239.0000;0.6903;-0.0904;
1239.3000;0.6927;-0.0835;
1239.6000;0.6829;-0.1090;
1239.9000;0.6895;-0.0858;
1240.2000;0.6992;-0.0603;
1240.5000;0.6903;-0.0881;
1240.8000;0.6903;-0.0858;
1241.1000;0.6886;-0.0858;
1241.4000;0.6846;-0.0951;
1241.7000;0.6854;-0.0881;
1242.0000;0.6919;-0.0811;
1242.3000;0.6862;-0.0974;
1242.6000;0.6878;-0.0835;
1242.9000;0.6903;-0.0811;
1243.2000;0.6952;-0.0672;
1243.5000;0.6927;-0.0649;
1243.8000;0.6886;-0.0788;
1244.1000;0.6895;-0.0811;
1244.4000;0.6821;-0.0997;
1244.7000;0.6895;-0.0719;
1245.0000;0.6895;-0.0788;
1245.3000;0.6895;-0.0835;
1245.6000;0.6895;-0.0904;
1245.9000;0.6886;-0.0904;
1246.2000;0.6895;-0.0927;
1246.5000;0.6895;-0.0835;
1246.8000;0.6886;-0.0881;
1247.1000;0.6862;-0.0881;
1247.4000;0.6862;-0.0881;
1247.7000;0.6919;-0.0881;
1248.0000;0.6878;-0.0858;
1248.3000;0.6903;-0.0835;
1248.6000;0.6895;-0.0835;
1248.9000;0.6878;-0.0881;
1249.2000;0.6886;-0.0858;
1249.5000;0.6854;-0.0881;
1249.8000;0.6886;-0.0835;
1250.1000;0.6878;-0.0951;
1250.4000;0.6903;-0.0858;
1250.7000;0.6903;-0.0835;
1251.0000;0.6911;-0.0858;
1251.3000;0.6903;-0.0881;
1251.6000;0.6895;-0.0904;
1251.9000;0.6911;-0.0951;
1252.2000;0.6911;-0.0951;
1252.5000;0.6886;-0.0951;
1252.8000;0.6903;-0.0997;
1253.1000;0.6878;-0.0974;
1253.4000;0.6878;-0.0951;
1253.7000;0.6903;-0.0904;
1254.0000;0.6895;-0.0951;
1254.3000;0.6911;-0.0811;
1254.6000;0.6838;-0.0951;
1254.9000;0.6886;-0.0858;
1255.2000;0.6870;-0.0904;
1255.5000;0.6878;-0.0811;
1255.8000;0.6976;-0.0533;
1256.1000;0.6886;-0.0788;
1256.4000;0.6878;-0.0858;
1256.7000;0.6878;-0.0811;
1257.0000;0.6878;-0.0858;
1257.3000;0.6886;-0.0811;
1257.6000;0.6992;-0.0603;
1257.9000;0.6878;-0.0927;
1258.2000;0.6870;-0.1043;
1258.5000;0.6886;-0.1043;
1258.8000;0.6919;-0.0904;
1259.1000;0.6895;-0.0974;
1259.4000;0.6862;-0.0974;
1259.7000;0.6870;-0.0927;
1260.0000;0.6878;-0.0881;
1260.3000;0.6862;-0.0927;
1260.6000;0.6927;-0.0765;
1260.9000;0.6878;-0.0835;
1261.2000;0.6878;-0.0835;
1261.5000;0.6878;-0.0835;
1261.8000;0.6911;-0.0719;
1262.1000;0.6903;-0.0649;
1262.4000;0.6886;-0.0788;
1262.7000;0.6854;-0.0835;
1263.0000;0.6927;-0.0672;
1263.3000;0.6903;-0.0672;
1263.6000;0.6862;-0.0811;
1263.9000;0.6895;-0.0742;
1264.2000;0.6886;-0.0835;
1264.5000;0.6862;-0.0927;
1264.8000;0.6895;-0.0881;
1265.1000;0.6886;-0.0927;
1265.4000;0.6878;-0.0927;
1265.7000;0.6878;-0.0951;
1266.0000;0.6846;-0.0951;
1266.3000;0.6838;-0.1020;
1266.6000;0.6878;-0.0974;
1266.9000;0.6886;-0.0997;
1267.2000;0.6870;-0.1113;
1267.5000;0.6870;-0.1113;
1267.8000;0.6886;-0.0997;
1268.1000;0.6870;-0.0974;
1268.4000;0.6895;-0.0951;
1268.7000;0.6886;-0.0927;
1269.0000;0.6878;-0.0835;
1269.3000;0.6878;-0.0811;
1269.6000;0.6878;-0.0904;
1269.9000;0.6878;-0.0881;
1270.2000;0.6878;-0.0951;
1270.5000;0.6878;-0.0951;
1270.8000;0.6886;-0.1020;
1271.1000;0.6903;-0.0997;
1271.4000;0.6886;-0.0997;
1271.7000;0.6903;-0.0951;
1272.0000;0.6878;-0.1090;
1272.3000;0.6895;-0.1067;
1272.6000;0.6878;-0.1043;
1272.9000;0.6895;-0.0997;
1273.2000;0.6895;-0.1043;
1273.5000;0.6895;-0.1090;
1273.8000;0.6911;-0.0997;
1274.1000;0.6919;-0.0997;
1274.4000;0.6903;-0.0997;
1274.7000;0.6943;-0.0811;
1275.0000;0.6886;-0.1090;
1275.3000;0.6878;-0.1113;
1275.6000;0.6886;-0.1043;
1275.9000;0.6878;-0.1020;
1276.2000;0.6919;-0.0835;
1276.5000;0.6895;-0.0835;
1276.8000;0.6927;-0.0811;
1277.1000;0.6895;-0.0858;
1277.4000;0.6895;-0.0881;
1277.7000;0.6862;-0.0997;
1278.0000;0.6886;-0.1067;
1278.3000;0.6854;-0.1136;
1278.6000;0.6862;-0.1113;
1278.9000;0.6895;-0.1090;
1279.2000;0.6895;-0.1113;
1279.5000;0.6895;-0.1136;
1279.8000;0.6878;-0.1067;
1280.1000;0.6903;-0.1020;
1280.4000;0.6903;-0.0997;
1280.7000;0.6895;-0.1067;
1281.0000;0.6870;-0.1182;
1281.3000;0.6870;-0.1206;
1281.6000;0.6870;-0.1252;
1281.9000;0.6895;-0.1206;
1282.2000;0.6878;-0.1322;
1282.5000;0.6878;-0.1345;
1282.8000;0.6886;-0.1206;
1283.1000;0.6878;-0.1159;
1283.4000;0.6911;-0.1113;
1283.7000;0.6886;-0.1067;
1284.0000;0.6943;-0.0951;
1284.3000;0.6927;-0.0974;
1284.6000;0.6886;-0.1067;
1284.9000;0.6886;-0.1136;
1285.2000;0.6878;-0.1090;
1285.5000;0.6886;-0.1090;
1285.8000;0.6878;-0.1043;
1286.1000;0.6886;-0.0997;
1286.4000;0.6862;-0.0997;
1286.7000;0.6870;-0.0951;
1287.0000;0.6895;-0.0904;
1287.3000;0.6878;-0.0951;
1287.6000;0.6854;-0.0997;
1287.9000;0.6870;-0.0904;
1288.2000;0.6878;-0.0951;
1288.5000;0.6886;-0.1020;
1288.8000;0.6886;-0.1043;
1289.1000;0.6878;-0.1043;
1289.4000;0.6878;-0.0974;
1289.7000;0.6878;-0.0904;
1290.0000;0.6862;-0.0997;
1290.3000;0.6854;-0.0881;
1290.6000;0.6870;-0.0835;
1290.9000;0.6821;-0.0974;
1291.2000;0.6895;-0.0742;
1291.5000;0.6862;-0.0696;
1291.8000;0.6870;-0.0719;
1292.1000;0.6878;-0.0835;
1292.4000;0.6854;-0.0904;
1292.7000;0.6895;-0.0881;
1293.0000;0.6862;-0.0927;
1293.3000;0.6862;-0.0974;
1293.6000;0.6886;-0.0951;
1293.9000;0.6789;-0.1252;
1294.2000;0.6886;-0.1090;
1294.5000;0.6927;-0.1043;
1294.8000;0.6903;-0.1090;
1295.1000;0.6862;-0.1113;
1295.4000;0.6854;-0.1136;
1295.7000;0.6862;-0.1067;
1296.0000;0.6870;-0.1113;
1296.3000;0.6895;-0.1067;
1296.6000;0.6878;-0.1206;
1296.9000;0.6878;-0.1159;
1297.2000;0.6878;-0.1090;
1297.5000;0.6854;-0.1159;
1297.8000;0.6878;-0.1159;
1298.1000;0.6878;-0.1159;
1298.4000;0.6878;-0.1090;
1298.7000;0.6878;-0.1067;
1299.0000;0.6862;-0.1136;
1299.3000;0.6886;-0.1113;
1299.6000;0.6895;-0.1020;
1299.9000;0.6886;-0.1067;
1300.2000;0.6903;-0.1067;
1300.5000;0.6895;-0.1113;
1300.8000;0.6878;-0.1229;
1301.1000;0.6870;-0.1252;
1301.4000;0.6846;-0.1322;
1301.7000;0.6895;-0.1229;
1302.0000;0.6870;-0.1298;
1302.3000;0.6854;-0.1368;
1302.6000;0.6870;-0.1322;
1302.9000;0.6870;-0.1414;
1303.2000;0.6911;-0.1345;
1303.5000;0.6862;-0.1437;
1303.8000;0.6870;-0.1461;
1304.1000;0.6870;-0.1461;
1304.4000;0.6862;-0.1437;
1304.7000;0.6878;-0.1414;
1305.0000;0.6870;-0.1414;
1305.3000;0.6895;-0.1414;
1305.6000;0.6886;-0.1391;
1305.9000;0.6870;-0.1345;
1306.2000;0.6862;-0.1345;
1306.5000;0.6886;-0.1345;
1306.8000;0.6878;-0.1368;
1307.1000;0.6870;-0.1368;
1307.4000;0.6878;-0.1414;
1307.7000;0.6895;-0.1391;
1308.0000;0.6870;-0.1345;
1308.3000;0.6870;-0.1391;
1308.6000;0.6878;-0.1414;
1308.9000;0.6878;-0.1252;
1309.2000;0.6895;-0.1229;
1309.5000;0.6886;-0.1345;
1309.8000;0.6878;-0.1275;
1310.1000;0.6895;-0.1252;
1310.4000;0.6870;-0.1298;
1310.7000;0.6870;-0.1252;
1311.0000;0.6870;-0.1252;
1311.3000;0.6862;-0.1252;
1311.6000;0.6854;-0.1275;
1311.9000;0.6862;-0.1252;
1312.2000;0.6862;-0.1136;
1312.5000;0.6862;-0.1113;
1312.8000;0.6870;-0.1113;
1313.1000;0.6862;-0.1067;
1313.4000;0.6903;-0.0974;
1313.7000;0.6878;-0.1067;
1314.0000;0.6878;-0.1113;
1314.3000;0.6846;-0.1182;
1314.6000;0.6870;-0.1113;
1314.9000;0.6911;-0.0974;
1315.2000;0.6886;-0.0974;
1315.5000;0.6862;-0.1067;
1315.8000;0.6870;-0.1043;
1316.1000;0.6821;-0.1229;
1316.4000;0.6829;-0.1182;
1316.7000;0.6886;-0.1090;
1317.0000;0.6821;-0.1206;
1317.3000;0.6862;-0.1136;
1317.6000;0.6870;-0.1159;
1317.9000;0.6846;-0.1275;
1318.2000;0.6870;-0.1252;
1318.5000;0.6903;-0.1182;
1318.8000;0.6878;-0.1182;
1319.1000;0.6878;-0.1229;
1319.4000;0.6870;-0.1182;
1319.7000;0.6862;-0.1136;
1320.0000;0.6886;-0.1090;
1320.3000;0.6878;-0.1067;
1320.6000;0.6878;-0.1113;
1320.9000;0.6870;-0.1090;
1321.2000;0.6878;-0.0927;
1321.5000;0.6878;-0.0974;
1321.8000;0.6886;-0.0974;
1322.1000;0.6870;-0.0997;
1322.4000;0.6878;-0.0997;
1322.7000;0.6886;-0.0927;
1323.0000;0.6878;-0.0904;
1323.3000;0.6903;-0.0835;
1323.6000;0.6862;-0.0927;
1323.9000;0.6878;-0.0927;
1324.2000;0.6813;-0.1113;
1324.5000;0.6886;-0.1020;
1324.8000;0.6870;-0.1113;
1325.1000;0.6886;-0.1043;
1325.4000;0.6886;-0.0974;
1325.7000;0.6911;-0.0881;
1326.0000;0.6886;-0.1020;
1326.3000;0.6878;-0.1043;
1326.6000;0.6862;-0.1067;
1326.9000;0.6838;-0.1159;
1327.2000;0.6862;-0.1159;
1327.5000;0.6878;-0.1159;
1327.8000;0.6854;-0.1182;
1328.1000;0.6870;-0.1159;
1328.4000;0.6870;-0.1206;
1328.7000;0.6854;-0.1298;
1329.0000;0.6886;-0.1275;
1329.3000;0.6862;-0.1345;
1329.6000;0.6862;-0.1345;
1329.9000;0.6862;-0.1368;
1330.2000;0.6870;-0.1345;
1330.5000;0.6878;-0.1414;
1330.8000;0.6878;-0.1414;
1331.1000;0.6870;-0.1414;
1331.4000;0.6862;-0.1437;
1331.7000;0.6878;-0.1461;
1332.0000;0.6878;-0.1507;
1332.3000;0.6886;-0.1461;
1332.6000;0.6878;-0.1368;
1332.9000;0.6976;-0.1136;
1333.2000;0.6862;-0.1414;
1333.5000;0.6846;-0.1414;
1333.8000;0.6862;-0.1298;
1334.1000;0.6829;-0.1368;
1334.4000;0.6878;-0.1206;
1334.7000;0.6870;-0.1206;
1335.0000;0.6854;-0.1275;
1335.3000;0.6862;-0.1252;
1335.6000;0.6886;-0.1206;
1335.9000;0.6862;-0.1206;
1336.2000;0.6878;-0.1159;
1336.5000;0.6935;-0.1020;
1336.8000;0.6854;-0.1136;
1337.1000;0.6870;-0.1136;
1337.4000;0.6862;-0.1229;
1337.7000;0.6854;-0.1252;
1338.0000;0.6919;-0.1067;
1338.3000;0.6870;-0.1275;
1338.6000;0.6886;-0.1229;
1338.9000;0.6854;-0.1252;
1339.2000;0.6870;-0.1229;
1339.5000;0.6862;-0.1206;
1339.8000;0.6935;-0.1113;
1340.1000;0.6838;-0.1368;
1340.4000;0.6895;-0.1182;
1340.7000;0.6878;-0.1182;
1341.0000;0.6878;-0.1159;
1341.3000;0.6870;-0.1298;
1341.6000;0.6862;-0.1275;
1341.9000;0.6870;-0.1252;
1342.2000;0.6878;-0.1275;
1342.5000;0.6870;-0.1322;
1342.8000;0.6870;-0.1298;
1343.1000;0.6886;-0.1345;
1343.4000;0.6878;-0.1252;
1343.7000;0.6886;-0.1113;
1344.0000;0.6870;-0.1090;
1344.3000;0.6870;-0.1020;
1344.6000;0.6862;-0.0927;
1344.9000;0.6878;-0.0951;
1345.2000;0.6895;-0.0974;
1345.5000;0.6878;-0.0904;
1345.8000;0.6862;-0.0835;
1346.1000;0.6870;-0.0858;
1346.4000;0.6870;-0.0927;
1346.7000;0.6862;-0.0881;
1347.0000;0.6886;-0.0858;
1347.3000;0.6886;-0.0742;
1347.6000;0.6919;-0.0696;
1347.9000;0.6878;-0.0742;
1348.2000;0.6878;-0.0835;
1348.5000;0.6878;-0.0858;
1348.8000;0.6911;-0.0835;
1349.1000;0.6870;-0.0858;
1349.4000;0.6821;-0.0951;
1349.7000;0.6878;-0.0811;
1350.0000;0.6870;-0.0788;
1350.3000;0.6838;-0.0858;
1350.6000;0.6878;-0.0858;
1350.9000;0.6862;-0.0927;
1351.2000;0.6870;-0.0904;
1351.5000;0.6862;-0.1020;
1351.8000;0.6862;-0.1020;
1352.1000;0.6895;-0.0927;
1352.4000;0.6870;-0.0927;
1352.7000;0.6886;-0.0904;
1353.0000;0.6886;-0.0951;
1353.3000;0.6854;-0.1090;
1353.6000;0.6878;-0.1043;
1353.9000;0.6854;-0.0997;
1354.2000;0.6854;-0.0997;
1354.5000;0.6846;-0.1090;
1354.8000;0.6838;-0.1020;
1355.1000;0.6846;-0.0927;
1355.4000;0.6862;-0.0881;
1355.7000;0.6854;-0.0858;
1356.0000;0.6911;-0.0835;
1356.3000;0.6854;-0.0997;
1356.6000;0.6862;-0.1020;
1356.9000;0.6862;-0.0997;
1357.2000;0.6903;-0.0951;
1357.5000;0.6838;-0.1090;
1357.8000;0.6886;-0.0904;
1358.1000;0.6862;-0.1043;
1358.4000;0.6862;-0.0997;
1358.7000;0.6862;-0.0997;
1359.0000;0.6862;-0.1020;
1359.3000;0.6854;-0.1067;
1359.6000;0.6854;-0.1182;
1359.9000;0.6846;-0.1159;
1360.2000;0.6854;-0.1020;
1360.5000;0.6927;-0.0788;
1360.8000;0.6862;-0.0881;
1361.1000;0.6862;-0.0881;
1361.4000;0.6854;-0.0974;
1361.7000;0.6870;-0.1043;
1362.0000;0.6862;-0.1067;
1362.3000;0.6911;-0.0927;
1362.6000;0.6821;-0.1182;
1362.9000;0.6927;-0.0835;
1363.2000;0.6862;-0.0904;
1363.5000;0.6813;-0.0951;
1363.8000;0.6854;-0.0881;
1364.1000;0.6846;-0.0904;
1364.4000;0.6870;-0.0881;
1364.7000;0.6846;-0.0881;
1365.0000;0.6829;-0.0974;
1365.3000;0.6846;-0.0904;
1365.6000;0.6829;-0.0927;
1365.9000;0.6846;-0.0835;
1366.2000;0.6862;-0.0835;
1366.5000;0.6862;-0.0858;
1366.8000;0.6870;-0.0788;
1367.1000;0.6854;-0.0858;
1367.4000;0.6846;-0.0951;
1367.7000;0.6854;-0.0974;
1368.0000;0.6886;-0.0881;
1368.3000;0.6870;-0.0881;
1368.6000;0.6854;-0.0974;
1368.9000;0.6935;-0.0765;
1369.2000;0.6886;-0.0788;
1369.5000;0.6846;-0.0881;
1369.8000;0.6870;-0.0881;
1370.1000;0.6870;-0.0765;
1370.4000;0.6862;-0.0835;
1370.7000;0.6846;-0.0835;
1371.0000;0.6838;-0.0788;
1371.3000;0.6854;-0.0719;
1371.6000;0.6846;-0.0858;
1371.9000;0.6838;-0.0927;
1372.2000;0.6846;-0.0927;
1372.5000;0.6797;-0.1113;
1372.8000;0.6846;-0.1067;
1373.1000;0.6838;-0.1090;
1373.4000;0.6854;-0.1043;
1373.7000;0.6781;-0.1206;
1374.0000;0.6862;-0.1020;
1374.3000;0.6854;-0.0997;
1374.6000;0.6846;-0.0904;
1374.9000;0.6846;-0.0951;
1375.2000;0.6854;-0.0904;
1375.5000;0.6870;-0.0881;
1375.8000;0.6862;-0.0904;
1376.1000;0.6870;-0.0927;
1376.4000;0.6862;-0.0835;
1376.7000;0.6862;-0.0696;
1377.0000;0.6862;-0.0649;
1377.3000;0.6854;-0.0765;
1377.6000;0.6854;-0.0788;
1377.9000;0.6862;-0.0835;
1378.2000;0.6862;-0.0835;
1378.5000;0.6878;-0.0811;
1378.8000;0.6829;-0.0974;
1379.1000;0.6895;-0.0742;
1379.4000;0.6870;-0.0811;
1379.7000;0.6846;-0.0904;
1380.0000;0.6846;-0.0927;
1380.3000;0.6854;-0.0881;
1380.6000;0.6870;-0.0835;
1380.9000;0.6862;-0.0788;
1381.2000;0.6878;-0.0765;
1381.5000;0.6862;-0.0858;
1381.8000;0.6838;-0.0904;
1382.1000;0.6838;-0.0927;
1382.4000;0.6846;-0.0951;
1382.7000;0.6854;-0.0927;
1383.0000;0.6846;-0.0974;
1383.3000;0.6870;-0.0835;
1383.6000;0.6878;-0.0788;
1383.9000;0.6854;-0.0835;
1384.2000;0.6870;-0.0719;
1384.5000;0.6862;-0.0811;
1384.8000;0.6846;-0.0951;
1385.1000;0.6829;-0.1020;
1385.4000;0.6838;-0.0951;
1385.7000;0.6846;-0.0951;
1386.0000;0.6862;-0.0951;
1386.3000;0.6886;-0.0927;
1386.6000;0.6854;-0.0951;
1386.9000;0.6854;-0.0927;
1387.2000;0.6846;-0.0927;
1387.5000;0.6870;-0.0927;
1387.8000;0.6821;-0.0951;
1388.1000;0.6846;-0.0927;
1388.4000;0.6846;-0.0881;
1388.7000;0.6878;-0.0788;
1389.0000;0.6846;-0.0835;
1389.3000;0.6870;-0.0881;
1389.6000;0.6846;-0.0997;
1389.9000;0.6846;-0.0951;
1390.2000;0.6854;-0.0974;
1390.5000;0.6870;-0.0997;
1390.8000;0.6862;-0.0997;
1391.1000;0.6862;-0.0951;
1391.4000;0.6870;-0.0904;
1391.7000;0.6895;-0.0904;
1392.0000;0.6854;-0.0927;
1392.3000;0.6870;-0.0858;
1392.6000;0.6862;-0.0858;
1392.9000;0.6895;-0.0742;
1393.2000;0.6919;-0.0719;
1393.5000;0.6870;-0.0858;
1393.8000;0.6862;-0.0858;
1394.1000;0.6854;-0.0858;
1394.4000;0.6854;-0.0858;
1394.7000;0.6862;-0.0765;
1395.0000;0.6846;-0.0881;
1395.3000;0.6854;-0.0835;
1395.6000;0.6862;-0.0835;
1395.9000;0.6870;-0.0835;
1396.2000;0.6886;-0.0811;
1396.5000;0.6911;-0.0765;
1396.8000;0.6952;-0.0649;
1397.1000;0.6862;-0.0835;
1397.4000;0.6862;-0.0835;
1397.7000;0.6797;-0.1043;
1398.0000;0.6846;-0.1020;
1398.3000;0.6846;-0.1113;
1398.6000;0.6854;-0.1090;
1398.9000;0.6854;-0.1043;
1399.2000;0.6854;-0.0927;
1399.5000;0.6846;-0.0951;
1399.8000;0.6886;-0.0811;
