time/ms;Fluo/V;P700 deltaI/I x10³;
-199.8000;1.1811;0.3618;
-199.5000;1.1811;0.3594;
-199.2000;1.1803;0.3618;
-198.9000;1.1803;0.3571;
-198.6000;1.1819;0.3618;
-198.3000;1.1819;0.3641;
-198.0000;1.1811;0.3711;
-197.7000;1.1819;0.3688;
-197.4000;1.1836;0.3758;
-197.1000;1.1827;0.3758;
-196.8000;1.1827;0.3734;
-196.5000;1.1819;0.3688;
-196.2000;1.1819;0.3571;
-195.9000;1.1852;0.3594;
-195.6000;1.1819;0.3548;
-195.3000;1.1844;0.3664;
-195.0000;1.1811;0.3664;
-194.7000;1.1827;0.3618;
-194.4000;1.1844;0.3618;
-194.1000;1.1836;0.3594;
-193.8000;1.1836;0.3571;
-193.5000;1.1827;0.3571;
-193.2000;1.1811;0.3501;
-192.9000;1.1819;0.3478;
-192.6000;1.1803;0.3454;
-192.3000;1.1819;0.3548;
-192.0000;1.1819;0.3501;
-191.7000;1.1819;0.3618;
-191.4000;1.1819;0.3594;
-191.1000;1.1811;0.3641;
-190.8000;1.1819;0.3711;
-190.5000;1.1803;0.3711;
-190.2000;1.1868;0.3875;
-189.9000;1.1827;0.3828;
-189.6000;1.1819;0.3781;
-189.3000;1.1705;0.3478;
-189.0000;1.1811;0.3711;
-188.7000;1.1811;0.3734;
-188.4000;1.1770;0.3524;
-188.1000;1.1836;0.3664;
-187.8000;1.1819;0.3664;
-187.5000;1.1779;0.3571;
-187.2000;1.1811;0.3571;
-186.9000;1.1827;0.3524;
-186.6000;1.1819;0.3548;
-186.3000;1.1844;0.3618;
-186.0000;1.1819;0.3618;
-185.7000;1.1811;0.3664;
-185.4000;1.1803;0.3688;
-185.1000;1.1803;0.3618;
-184.8000;1.1795;0.3618;
-184.5000;1.1819;0.3454;
-184.2000;1.1803;0.3478;
-183.9000;1.1819;0.3431;
-183.6000;1.1803;0.3408;
-183.3000;1.1811;0.3338;
-183.0000;1.1811;0.3384;
-182.7000;1.1811;0.3338;
-182.4000;1.1770;0.3244;
-182.1000;1.1819;0.3384;
-181.8000;1.1836;0.3501;
-181.5000;1.1836;0.3548;
-181.2000;1.1852;0.3618;
-180.9000;1.1819;0.3501;
-180.6000;1.1819;0.3571;
-180.3000;1.1811;0.3524;
-180.0000;1.1819;0.3571;
-179.7000;1.1803;0.3571;
-179.4000;1.1819;0.3641;
-179.1000;1.1909;0.3828;
-178.8000;1.1819;0.3571;
-178.5000;1.1819;0.3524;
-178.2000;1.1819;0.3431;
-177.9000;1.1836;0.3431;
-177.6000;1.1827;0.3408;
-177.3000;1.1803;0.3361;
-177.0000;1.1827;0.3408;
-176.7000;1.1836;0.3384;
-176.4000;1.1827;0.3408;
-176.1000;1.1836;0.3384;
-175.8000;1.1803;0.3384;
-175.5000;1.1819;0.3501;
-175.2000;1.1844;0.3618;
-174.9000;1.1811;0.3478;
-174.6000;1.1819;0.3594;
-174.3000;1.1803;0.3548;
-174.0000;1.1746;0.3361;
-173.7000;1.1779;0.3524;
-173.4000;1.1795;0.3501;
-173.1000;1.1762;0.3478;
-172.8000;1.1770;0.3524;
-172.5000;1.1811;0.3594;
-172.2000;1.1738;0.3408;
-171.9000;1.1811;0.3548;
-171.6000;1.1811;0.3548;
-171.3000;1.1811;0.3524;
-171.0000;1.1827;0.3618;
-170.7000;1.1974;0.4015;
-170.4000;1.1787;0.3524;
-170.1000;1.1819;0.3594;
-169.8000;1.1803;0.3571;
-169.5000;1.1811;0.3618;
-169.2000;1.1819;0.3711;
-168.9000;1.1754;0.3618;
-168.6000;1.1827;0.3781;
-168.3000;1.1803;0.3711;
-168.0000;1.1811;0.3758;
-167.7000;1.1844;0.3828;
-167.4000;1.1819;0.3781;
-167.1000;1.1819;0.3781;
-166.8000;1.1819;0.3828;
-166.5000;1.1819;0.3804;
-166.2000;1.1819;0.3758;
-165.9000;1.1811;0.3711;
-165.6000;1.1811;0.3758;
-165.3000;1.1827;0.3828;
-165.0000;1.1844;0.3804;
-164.7000;1.1876;0.3898;
-164.4000;1.1844;0.3875;
-164.1000;1.1811;0.3734;
-163.8000;1.1779;0.3548;
-163.5000;1.1819;0.3641;
-163.2000;1.1836;0.3711;
-162.9000;1.1803;0.3688;
-162.6000;1.1795;0.3664;
-162.3000;1.1836;0.3711;
-162.0000;1.1827;0.3688;
-161.7000;1.1811;0.3641;
-161.4000;1.1803;0.3688;
-161.1000;1.1827;0.3804;
-160.8000;1.1827;0.3758;
-160.5000;1.1811;0.3618;
-160.2000;1.1819;0.3664;
-159.9000;1.1811;0.3664;
-159.6000;1.1803;0.3734;
-159.3000;1.1787;0.3664;
-159.0000;1.1795;0.3641;
-158.7000;1.1803;0.3571;
-158.4000;1.1819;0.3548;
-158.1000;1.1811;0.3524;
-157.8000;1.1819;0.3548;
-157.5000;1.1819;0.3548;
-157.2000;1.1803;0.3594;
-156.9000;1.1827;0.3641;
-156.6000;1.1819;0.3571;
-156.3000;1.1770;0.3548;
-156.0000;1.1811;0.3618;
-155.7000;1.1909;0.3781;
-155.4000;1.1803;0.3571;
-155.1000;1.1803;0.3548;
-154.8000;1.1803;0.3548;
-154.5000;1.1811;0.3571;
-154.2000;1.1827;0.3548;
-153.9000;1.1803;0.3431;
-153.6000;1.1836;0.3524;
-153.3000;1.1803;0.3454;
-153.0000;1.1738;0.3361;
-152.7000;1.1803;0.3408;
-152.4000;1.1787;0.3384;
-152.1000;1.1819;0.3454;
-151.8000;1.1819;0.3501;
-151.5000;1.1836;0.3524;
-151.2000;1.1811;0.3408;
-150.9000;1.1819;0.3501;
-150.6000;1.1868;0.3571;
-150.3000;1.1819;0.3524;
-150.0000;1.1803;0.3618;
-149.7000;1.1795;0.3571;
-149.4000;1.1795;0.3594;
-149.1000;1.1827;0.3664;
-148.8000;1.1819;0.3594;
-148.5000;1.1811;0.3688;
-148.2000;1.1819;0.3711;
-147.9000;1.1836;0.3734;
-147.6000;1.1819;0.3711;
-147.3000;1.1811;0.3618;
-147.0000;1.1860;0.3734;
-146.7000;1.1836;0.3664;
-146.4000;1.1860;0.3758;
-146.1000;1.1852;0.3711;
-145.8000;1.1811;0.3711;
-145.5000;1.1836;0.3734;
-145.2000;1.1779;0.3594;
-144.9000;1.1795;0.3664;
-144.6000;1.1811;0.3734;
-144.3000;1.1819;0.3711;
-144.0000;1.1819;0.3688;
-143.7000;1.1811;0.3734;
-143.4000;1.1827;0.3781;
-143.1000;1.1811;0.3804;
-142.8000;1.1795;0.3828;
-142.5000;1.1819;0.3851;
-142.2000;1.1819;0.3804;
-141.9000;1.1811;0.3711;
-141.6000;1.1901;0.3804;
-141.3000;1.1811;0.3571;
-141.0000;1.1819;0.3571;
-140.7000;1.1811;0.3618;
-140.4000;1.1819;0.3664;
-140.1000;1.1803;0.3641;
-139.8000;1.1803;0.3664;
-139.5000;1.1819;0.3688;
-139.2000;1.1795;0.3548;
-138.9000;1.1811;0.3548;
-138.6000;1.1811;0.3501;
-138.3000;1.1795;0.3408;
-138.0000;1.1811;0.3454;
-137.7000;1.1803;0.3431;
-137.4000;1.1803;0.3618;
-137.1000;1.1811;0.3664;
-136.8000;1.1827;0.3571;
-136.5000;1.1827;0.3594;
-136.2000;1.1803;0.3618;
-135.9000;1.1819;0.3594;
-135.6000;1.1827;0.3688;
-135.3000;1.1819;0.3688;
-135.0000;1.1827;0.3781;
-134.7000;1.1795;0.3664;
-134.4000;1.1811;0.3734;
-134.1000;1.1803;0.3758;
-133.8000;1.1779;0.3618;
-133.5000;1.1795;0.3688;
-133.2000;1.1803;0.3758;
-132.9000;1.1819;0.3758;
-132.6000;1.1827;0.3734;
-132.3000;1.1803;0.3734;
-132.0000;1.1811;0.3758;
-131.7000;1.1819;0.3758;
-131.4000;1.1827;0.3781;
-131.1000;1.1803;0.3734;
-130.8000;1.1819;0.3758;
-130.5000;1.1730;0.3688;
-130.2000;1.1827;0.3968;
-129.9000;1.1811;0.3945;
-129.6000;1.1819;0.3898;
-129.3000;1.1819;0.3875;
-129.0000;1.1811;0.3804;
-128.7000;1.1836;0.3804;
-128.4000;1.1852;0.3734;
-128.1000;1.1811;0.3734;
-127.8000;1.1827;0.3804;
-127.5000;1.1827;0.3875;
-127.2000;1.1811;0.3804;
-126.9000;1.1819;0.3804;
-126.6000;1.1836;0.3711;
-126.3000;1.1852;0.3711;
-126.0000;1.1836;0.3641;
-125.7000;1.1852;0.3641;
-125.4000;1.1811;0.3688;
-125.1000;1.1836;0.3758;
-124.8000;1.1844;0.3758;
-124.5000;1.1803;0.3664;
-124.2000;1.1803;0.3688;
-123.9000;1.1803;0.3711;
-123.6000;1.1811;0.3711;
-123.3000;1.1811;0.3664;
-123.0000;1.1787;0.3618;
-122.7000;1.1827;0.3688;
-122.4000;1.1819;0.3618;
-122.1000;1.1819;0.3594;
-121.8000;1.1844;0.3618;
-121.5000;1.1811;0.3524;
-121.2000;1.1811;0.3524;
-120.9000;1.1852;0.3571;
-120.6000;1.1811;0.3548;
-120.3000;1.1811;0.3641;
-120.0000;1.1795;0.3664;
-119.7000;1.1811;0.3641;
-119.4000;1.1762;0.3571;
-119.1000;1.1819;0.3734;
-118.8000;1.1844;0.3734;
-118.5000;1.1860;0.3758;
-118.2000;1.1811;0.3688;
-117.9000;1.1811;0.3688;
-117.6000;1.1811;0.3688;
-117.3000;1.1746;0.3594;
-117.0000;1.1811;0.3734;
-116.7000;1.1819;0.3804;
-116.4000;1.1827;0.3781;
-116.1000;1.1746;0.3618;
-115.8000;1.1779;0.3688;
-115.5000;1.1811;0.3758;
-115.2000;1.1754;0.3571;
-114.9000;1.1819;0.3734;
-114.6000;1.1827;0.3664;
-114.3000;1.1844;0.3828;
-114.0000;1.1811;0.3734;
-113.7000;1.1811;0.3711;
-113.4000;1.1827;0.3828;
-113.1000;1.1803;0.3804;
-112.8000;1.1811;0.3781;
-112.5000;1.1819;0.3828;
-112.2000;1.1803;0.3851;
-111.9000;1.1811;0.3804;
-111.6000;1.1819;0.3781;
-111.3000;1.1795;0.3781;
-111.0000;1.1803;0.3734;
-110.7000;1.1762;0.3688;
-110.4000;1.1811;0.3734;
-110.1000;1.1811;0.3734;
-109.8000;1.1803;0.3758;
-109.5000;1.1803;0.3828;
-109.2000;1.1827;0.3828;
-108.9000;1.1803;0.3594;
-108.6000;1.1803;0.3618;
-108.3000;1.1811;0.3641;
-108.0000;1.1852;0.3734;
-107.7000;1.1803;0.3664;
-107.4000;1.1844;0.3711;
-107.1000;1.1827;0.3688;
-106.8000;1.1860;0.3804;
-106.5000;1.1811;0.3758;
-106.2000;1.1803;0.3758;
-105.9000;1.1827;0.3711;
-105.6000;1.1811;0.3641;
-105.3000;1.1811;0.3641;
-105.0000;1.1803;0.3571;
-104.7000;1.1827;0.3641;
-104.4000;1.1827;0.3688;
-104.1000;1.1836;0.3711;
-103.8000;1.1819;0.3688;
-103.5000;1.1827;0.3594;
-103.2000;1.1811;0.3641;
-102.9000;1.1827;0.3571;
-102.6000;1.1803;0.3524;
-102.3000;1.1852;0.3548;
-102.0000;1.1811;0.3501;
-101.7000;1.1811;0.3478;
-101.4000;1.1941;0.3851;
-101.1000;1.1811;0.3594;
-100.8000;1.1819;0.3641;
-100.5000;1.1811;0.3548;
-100.2000;1.1811;0.3431;
-99.9000;1.1803;0.3361;
-99.6000;1.1827;0.3408;
-99.3000;1.1770;0.3384;
-99.0000;1.1819;0.3641;
-98.7000;1.1827;0.3618;
-98.4000;1.1819;0.3688;
-98.1000;1.1819;0.3711;
-97.8000;1.1811;0.3618;
-97.5000;1.1803;0.3641;
-97.2000;1.1787;0.3524;
-96.9000;1.1787;0.3524;
-96.6000;1.1803;0.3524;
-96.3000;1.1770;0.3431;
-96.0000;1.1811;0.3594;
-95.7000;1.1803;0.3664;
-95.4000;1.1795;0.3641;
-95.1000;1.1770;0.3524;
-94.8000;1.1795;0.3408;
-94.5000;1.1754;0.3244;
-94.2000;1.1836;0.3408;
-93.9000;1.1827;0.3338;
-93.6000;1.1811;0.3338;
-93.3000;1.1795;0.3291;
-93.0000;1.1819;0.3291;
-92.7000;1.1836;0.3244;
-92.4000;1.1827;0.3198;
-92.1000;1.1836;0.3291;
-91.8000;1.1819;0.3361;
-91.5000;1.1819;0.3454;
-91.2000;1.1819;0.3454;
-90.9000;1.1811;0.3548;
-90.6000;1.1893;0.3688;
-90.3000;1.1836;0.3524;
-90.0000;1.1811;0.3571;
-89.7000;1.1811;0.3524;
-89.4000;1.1827;0.3594;
-89.1000;1.1827;0.3594;
-88.8000;1.1852;0.3641;
-88.5000;1.1836;0.3618;
-88.2000;1.1819;0.3594;
-87.9000;1.1836;0.3571;
-87.6000;1.1852;0.3664;
-87.3000;1.1811;0.3594;
-87.0000;1.1827;0.3641;
-86.7000;1.1811;0.3618;
-86.4000;1.1819;0.3688;
-86.1000;1.1811;0.3758;
-85.8000;1.1803;0.3758;
-85.5000;1.1811;0.3664;
-85.2000;1.1811;0.3664;
-84.9000;1.1811;0.3688;
-84.6000;1.1795;0.3641;
-84.3000;1.1803;0.3618;
-84.0000;1.1827;0.3734;
-83.7000;1.1836;0.3804;
-83.4000;1.1819;0.3851;
-83.1000;1.1811;0.3875;
-82.8000;1.1811;0.3875;
-82.5000;1.1819;0.3781;
-82.2000;1.1819;0.3758;
-81.9000;1.1803;0.3688;
-81.6000;1.1827;0.3734;
-81.3000;1.1844;0.3664;
-81.0000;1.1827;0.3618;
-80.7000;1.1819;0.3571;
-80.4000;1.1868;0.3664;
-80.1000;1.1811;0.3618;
-79.8000;1.1811;0.3594;
-79.5000;1.1803;0.3641;
-79.2000;1.1795;0.3641;
-78.9000;1.1803;0.3641;
-78.6000;1.1836;0.3688;
-78.3000;1.1787;0.3571;
-78.0000;1.1819;0.3641;
-77.7000;1.1811;0.3618;
-77.4000;1.1762;0.3478;
-77.1000;1.1827;0.3618;
-76.8000;1.1819;0.3618;
-76.5000;1.1836;0.3758;
-76.2000;1.1844;0.3804;
-75.9000;1.1819;0.3664;
-75.6000;1.1811;0.3711;
-75.3000;1.1779;0.3524;
-75.0000;1.1819;0.3618;
-74.7000;1.1811;0.3594;
-74.4000;1.1860;0.3688;
-74.1000;1.1811;0.3594;
-73.8000;1.1795;0.3594;
-73.5000;1.1811;0.3711;
-73.2000;1.1811;0.3688;
-72.9000;1.1819;0.3734;
-72.6000;1.1795;0.3734;
-72.3000;1.1827;0.3758;
-72.0000;1.1819;0.3734;
-71.7000;1.1811;0.3781;
-71.4000;1.1819;0.3758;
-71.1000;1.1827;0.3758;
-70.8000;1.1819;0.3781;
-70.5000;1.1827;0.3711;
-70.2000;1.1819;0.3641;
-69.9000;1.1819;0.3594;
-69.6000;1.1836;0.3594;
-69.3000;1.1811;0.3571;
-69.0000;1.1811;0.3548;
-68.7000;1.1827;0.3571;
-68.4000;1.1836;0.3618;
-68.1000;1.1811;0.3688;
-67.8000;1.1827;0.3734;
-67.5000;1.1819;0.3618;
-67.2000;1.1836;0.3618;
-66.9000;1.1827;0.3594;
-66.6000;1.1827;0.3641;
-66.3000;1.1819;0.3571;
-66.0000;1.1819;0.3618;
-65.7000;1.1819;0.3688;
-65.4000;1.1803;0.3618;
-65.1000;1.1803;0.3618;
-64.8000;1.1819;0.3618;
-64.5000;1.1811;0.3641;
-64.2000;1.1803;0.3571;
-63.9000;1.1811;0.3618;
-63.6000;1.1819;0.3641;
-63.3000;1.1803;0.3664;
-63.0000;1.1811;0.3664;
-62.7000;1.1811;0.3758;
-62.4000;1.1803;0.3711;
-62.1000;1.1827;0.3711;
-61.8000;1.1811;0.3524;
-61.5000;1.1811;0.3478;
-61.2000;1.1795;0.3478;
-60.9000;1.1827;0.3594;
-60.6000;1.1827;0.3618;
-60.3000;1.1819;0.3594;
-60.0000;1.1819;0.3641;
-59.7000;1.1819;0.3781;
-59.4000;1.1852;0.3945;
-59.1000;1.1819;0.3875;
-58.8000;1.1819;0.3804;
-58.5000;1.1811;0.3734;
-58.2000;1.1819;0.3688;
-57.9000;1.1819;0.3711;
-57.6000;1.1819;0.3734;
-57.3000;1.1836;0.3711;
-57.0000;1.1811;0.3594;
-56.7000;1.1827;0.3618;
-56.4000;1.1819;0.3594;
-56.1000;1.1746;0.3431;
-55.8000;1.1811;0.3664;
-55.5000;1.1819;0.3618;
-55.2000;1.1803;0.3571;
-54.9000;1.1819;0.3618;
-54.6000;1.1827;0.3641;
-54.3000;1.1803;0.3501;
-54.0000;1.1811;0.3478;
-53.7000;1.1803;0.3338;
-53.4000;1.1884;0.3524;
-53.1000;1.1811;0.3361;
-52.8000;1.1811;0.3408;
-52.5000;1.1811;0.3501;
-52.2000;1.1779;0.3431;
-51.9000;1.1819;0.3454;
-51.6000;1.1811;0.3431;
-51.3000;1.1795;0.3408;
-51.0000;1.1803;0.3454;
-50.7000;1.1819;0.3501;
-50.4000;1.1819;0.3501;
-50.1000;1.1811;0.3478;
-49.8000;1.1811;0.3431;
-49.5000;1.1770;0.3361;
-49.2000;1.1819;0.3454;
-48.9000;1.1803;0.3454;
-48.6000;1.1779;0.3384;
-48.3000;1.1803;0.3478;
-48.0000;1.1819;0.3618;
-47.7000;1.1844;0.3664;
-47.4000;1.1803;0.3641;
-47.1000;1.1811;0.3571;
-46.8000;1.1819;0.3711;
-46.5000;1.1803;0.3664;
-46.2000;1.1803;0.3664;
-45.9000;1.1795;0.3571;
-45.6000;1.1811;0.3524;
-45.3000;1.1819;0.3571;
-45.0000;1.1819;0.3548;
-44.7000;1.1811;0.3524;
-44.4000;1.1819;0.3594;
-44.1000;1.1811;0.3664;
-43.8000;1.1754;0.3571;
-43.5000;1.1827;0.3664;
-43.2000;1.1827;0.3618;
-42.9000;1.1819;0.3594;
-42.6000;1.1811;0.3688;
-42.3000;1.1803;0.3734;
-42.0000;1.1803;0.3734;
-41.7000;1.1819;0.3711;
-41.4000;1.1811;0.3664;
-41.1000;1.1803;0.3711;
-40.8000;1.1811;0.3758;
-40.5000;1.1811;0.3781;
-40.2000;1.1803;0.3711;
-39.9000;1.1803;0.3711;
-39.6000;1.1827;0.3641;
-39.3000;1.1819;0.3711;
-39.0000;1.1893;0.3921;
-38.7000;1.1819;0.3781;
-38.4000;1.1811;0.3758;
-38.1000;1.1819;0.3781;
-37.8000;1.1762;0.3618;
-37.5000;1.1803;0.3688;
-37.2000;1.1803;0.3688;
-36.9000;1.1770;0.3594;
-36.6000;1.1795;0.3594;
-36.3000;1.1795;0.3571;
-36.0000;1.1803;0.3571;
-35.7000;1.1860;0.3688;
-35.4000;1.1819;0.3594;
-35.1000;1.1836;0.3641;
-34.8000;1.1827;0.3571;
-34.5000;1.1819;0.3618;
-34.2000;1.1819;0.3641;
-33.9000;1.1827;0.3664;
-33.6000;1.1827;0.3711;
-33.3000;1.1811;0.3781;
-33.0000;1.1819;0.3804;
-32.7000;1.1819;0.3851;
-32.4000;1.1827;0.3875;
-32.1000;1.1836;0.3921;
-31.8000;1.1803;0.3804;
-31.5000;1.1876;0.3875;
-31.2000;1.1795;0.3664;
-30.9000;1.1819;0.3711;
-30.6000;1.1811;0.3571;
-30.3000;1.1787;0.3501;
-30.0000;1.1819;0.3594;
-29.7000;1.1811;0.3594;
-29.4000;1.1803;0.3711;
-29.1000;1.1803;0.3758;
-28.8000;1.1844;0.3851;
-28.5000;1.1827;0.3898;
-28.2000;1.1811;0.3921;
-27.9000;1.1779;0.3875;
-27.6000;1.1819;0.3945;
-27.3000;1.1819;0.3968;
-27.0000;1.1819;0.3921;
-26.7000;1.1803;0.3898;
-26.4000;1.1803;0.3781;
-26.1000;1.1819;0.3734;
-25.8000;1.1819;0.3734;
-25.5000;1.1819;0.3758;
-25.2000;1.1811;0.3734;
-24.9000;1.1787;0.3688;
-24.6000;1.1811;0.3711;
-24.3000;1.1762;0.3594;
-24.0000;1.1819;0.3758;
-23.7000;1.1836;0.3851;
-23.4000;1.1819;0.3875;
-23.1000;1.1811;0.3921;
-22.8000;1.1811;0.3898;
-22.5000;1.1811;0.3898;
-22.2000;1.1787;0.3828;
-21.9000;1.1811;0.3851;
-21.6000;1.1746;0.3664;
-21.3000;1.1819;0.3851;
-21.0000;1.1819;0.3851;
-20.7000;1.1819;0.3851;
-20.4000;1.1819;0.3804;
-20.1000;1.1803;0.3804;
-19.8000;1.1827;0.3781;
-19.5000;1.1819;0.3828;
-19.2000;1.1827;0.3851;
-18.9000;1.1819;0.3804;
-18.6000;1.1803;0.3734;
-18.3000;1.1811;0.3734;
-18.0000;1.1811;0.3688;
-17.7000;1.1811;0.3734;
-17.4000;1.1811;0.3734;
-17.1000;1.1827;0.3781;
-16.8000;1.1770;0.3734;
-16.5000;1.1819;0.3781;
-16.2000;1.1827;0.3828;
-15.9000;1.1811;0.3804;
-15.6000;1.1811;0.3804;
-15.3000;1.1811;0.3804;
-15.0000;1.1819;0.3828;
-14.7000;1.1811;0.3781;
-14.4000;1.1811;0.3641;
-14.1000;1.1795;0.3641;
-13.8000;1.1811;0.3664;
-13.5000;1.1811;0.3688;
-13.2000;1.1811;0.3734;
-12.9000;1.1819;0.3804;
-12.6000;1.1811;0.3828;
-12.3000;1.1795;0.3781;
-12.0000;1.1844;0.3875;
-11.7000;1.1819;0.3898;
-11.4000;1.1811;0.3898;
-11.1000;1.1762;0.3804;
-10.8000;1.1787;0.3898;
-10.5000;1.1836;0.4015;
-10.2000;1.1811;0.3945;
-9.9000;1.1803;0.3991;
-9.6000;1.1819;0.3945;
-9.3000;1.1860;0.4015;
-9.0000;1.1893;0.4178;
-8.7000;1.1811;0.3898;
-8.4000;1.1811;0.3898;
-8.1000;1.1827;0.3921;
-7.8000;1.1819;0.3945;
-7.5000;1.1811;0.3945;
-7.2000;1.1811;0.3968;
-6.9000;1.1827;0.3968;
-6.6000;1.1795;0.3781;
-6.3000;1.1827;0.3851;
-6.0000;1.1803;0.3804;
-5.7000;1.1803;0.3781;
-5.4000;1.1811;0.3804;
-5.1000;1.1884;0.3921;
-4.8000;1.1803;0.3758;
-4.5000;1.1811;0.3758;
-4.2000;1.1827;0.3781;
-3.9000;1.1836;0.3804;
-3.6000;1.1819;0.3758;
-3.3000;1.1819;0.3804;
-3.0000;1.1819;0.3804;
-2.7000;1.1836;0.3875;
-2.4000;1.1803;0.3781;
-2.1000;1.1795;0.3734;
-1.8000;1.1770;0.3711;
-1.5000;1.1836;0.3734;
-1.2000;1.1811;0.3688;
-0.9000;1.1795;0.3664;
-0.6000;1.1819;0.3641;
-0.3000;1.1819;0.3641;
0.0000;1.1819;0.3641;
0.3000;1.1974;0.3758;
0.6000;1.2177;0.4225;
0.9000;1.2365;0.4715;
1.2000;1.2470;0.4995;
1.5000;1.2617;0.5322;
1.8000;1.2617;0.5298;
2.1000;1.2772;0.5648;
2.4000;1.2837;0.5742;
2.7000;1.2877;0.5928;
3.0000;1.2926;0.6162;
3.3000;1.2967;0.6279;
3.6000;1.3008;0.6372;
3.9000;1.3040;0.6442;
4.2000;1.3089;0.6465;
4.5000;1.3097;0.6419;
4.8000;1.3122;0.6489;
5.1000;1.3138;0.6512;
5.4000;1.3162;0.6605;
5.7000;1.3187;0.6722;
6.0000;1.3195;0.6699;
6.3000;1.3284;0.6862;
6.6000;1.3236;0.6722;
6.9000;1.3244;0.6675;
7.2000;1.3293;0.6769;
7.5000;1.3284;0.6839;
7.8000;1.3301;0.6792;
8.1000;1.3325;0.6792;
8.4000;1.3325;0.6932;
8.7000;1.3341;0.7025;
9.0000;1.3358;0.7049;
9.3000;1.3366;0.7049;
9.6000;1.3382;0.7025;
9.9000;1.3390;0.7049;
10.2000;1.3398;0.7002;
10.5000;1.3447;0.7142;
10.8000;1.3415;0.7049;
11.1000;1.3350;0.6769;
11.4000;1.3431;0.6955;
11.7000;1.3431;0.7002;
12.0000;1.3439;0.7025;
12.3000;1.3480;0.7095;
12.6000;1.3488;0.7072;
12.9000;1.3488;0.7002;
13.2000;1.3488;0.6955;
13.5000;1.3504;0.6955;
13.8000;1.3488;0.6815;
14.1000;1.3512;0.6862;
14.4000;1.3537;0.6955;
14.7000;1.3561;0.6979;
15.0000;1.3553;0.6932;
15.3000;1.3553;0.6909;
15.6000;1.3569;0.6909;
15.9000;1.3488;0.6629;
16.2000;1.3578;0.6769;
16.5000;1.3578;0.6862;
16.8000;1.3561;0.6745;
17.1000;1.3586;0.6815;
17.4000;1.3610;0.6815;
17.7000;1.3610;0.6815;
18.0000;1.3618;0.6769;
18.3000;1.3618;0.6862;
18.6000;1.3618;0.6839;
18.9000;1.3610;0.6722;
19.2000;1.3626;0.6722;
19.5000;1.3594;0.6722;
19.8000;1.3618;0.6885;
20.1000;1.3651;0.6979;
20.4000;1.3635;0.6862;
20.7000;1.3626;0.6722;
21.0000;1.3626;0.6745;
21.3000;1.3610;0.6769;
21.6000;1.3602;0.6745;
21.9000;1.3643;0.6885;
22.2000;1.3635;0.6885;
22.5000;1.3675;0.7002;
22.8000;1.3659;0.6932;
23.1000;1.3651;0.6885;
23.4000;1.3716;0.7072;
23.7000;1.3651;0.6979;
24.0000;1.3667;0.6979;
24.3000;1.3683;0.6979;
24.6000;1.3691;0.6979;
24.9000;1.3683;0.6885;
25.2000;1.3691;0.6839;
25.5000;1.3716;0.6885;
25.8000;1.3683;0.6839;
26.1000;1.3683;0.6792;
26.4000;1.3667;0.6699;
26.7000;1.3691;0.6769;
27.0000;1.3683;0.6699;
27.3000;1.3675;0.6699;
27.6000;1.3700;0.6745;
27.9000;1.3667;0.6722;
28.2000;1.3708;0.6745;
28.5000;1.3708;0.6769;
28.8000;1.3700;0.6862;
29.1000;1.3691;0.6815;
29.4000;1.3708;0.6862;
29.7000;1.3708;0.6932;
30.0000;1.3708;0.6909;
30.3000;1.3724;0.7025;
30.6000;1.3700;0.6955;
30.9000;1.3708;0.6909;
31.2000;1.3700;0.6955;
31.5000;1.3651;0.6839;
31.8000;1.3700;0.6955;
32.1000;1.3740;0.7072;
32.4000;1.3716;0.6862;
32.7000;1.3691;0.6769;
33.0000;1.3724;0.6769;
33.3000;1.3724;0.6792;
33.6000;1.3708;0.6862;
33.9000;1.3716;0.6745;
34.2000;1.3691;0.6769;
34.5000;1.3732;0.6862;
34.8000;1.3740;0.6885;
35.1000;1.3740;0.6815;
35.4000;1.3740;0.6862;
35.7000;1.3740;0.6839;
36.0000;1.3724;0.6815;
36.3000;1.3732;0.6839;
36.6000;1.3732;0.6909;
36.9000;1.3708;0.6885;
37.2000;1.3732;0.6909;
37.5000;1.3773;0.7002;
37.8000;1.3862;0.7212;
38.1000;1.3732;0.6909;
38.4000;1.3748;0.6909;
38.7000;1.3740;0.6932;
39.0000;1.3691;0.6885;
39.3000;1.3732;0.6955;
39.6000;1.3765;0.7002;
39.9000;1.3700;0.6862;
40.2000;1.3748;0.6955;
40.5000;1.3757;0.7049;
40.8000;1.3732;0.6979;
41.1000;1.3748;0.6979;
41.4000;1.3748;0.6979;
41.7000;1.3757;0.6955;
42.0000;1.3748;0.6955;
42.3000;1.3757;0.7025;
42.6000;1.3748;0.7002;
42.9000;1.3732;0.6932;
43.2000;1.3732;0.6955;
43.5000;1.3740;0.6932;
43.8000;1.3724;0.6932;
44.1000;1.3740;0.6932;
44.4000;1.3732;0.6792;
44.7000;1.3748;0.6839;
45.0000;1.3757;0.6839;
45.3000;1.3748;0.6885;
45.6000;1.3757;0.6932;
45.9000;1.3765;0.6955;
46.2000;1.3773;0.6979;
46.5000;1.3757;0.6955;
46.8000;1.3757;0.6909;
47.1000;1.3773;0.6885;
47.4000;1.3765;0.6932;
47.7000;1.3773;0.6909;
48.0000;1.3765;0.6932;
48.3000;1.3765;0.6955;
48.6000;1.3757;0.6932;
48.9000;1.3732;0.6909;
49.2000;1.3757;0.6909;
49.5000;1.3740;0.6909;
49.8000;1.3757;0.7002;
50.1000;1.3757;0.7002;
50.4000;1.3765;0.7072;
50.7000;1.3757;0.7095;
51.0000;1.3765;0.7166;
51.3000;1.3765;0.7212;
51.6000;1.3765;0.7095;
51.9000;1.3748;0.7189;
52.2000;1.3765;0.7282;
52.5000;1.3732;0.7212;
52.8000;1.3765;0.7236;
53.1000;1.3716;0.7002;
53.4000;1.3748;0.7002;
53.7000;1.3773;0.7049;
54.0000;1.3700;0.6862;
54.3000;1.3757;0.6955;
54.6000;1.3757;0.6932;
54.9000;1.3765;0.6932;
55.2000;1.3716;0.6769;
55.5000;1.3740;0.6815;
55.8000;1.3740;0.6769;
56.1000;1.3740;0.6769;
56.4000;1.3789;0.6862;
56.7000;1.3757;0.6629;
57.0000;1.3748;0.6675;
57.3000;1.3700;0.6629;
57.6000;1.3740;0.6722;
57.9000;1.3740;0.6722;
58.2000;1.3757;0.6675;
58.5000;1.3757;0.6629;
58.8000;1.3748;0.6605;
59.1000;1.3748;0.6722;
59.4000;1.3765;0.6792;
59.7000;1.3773;0.6885;
60.0000;1.3773;0.6792;
60.3000;1.3757;0.6769;
60.6000;1.3797;0.6885;
60.9000;1.3765;0.6862;
61.2000;1.3757;0.6932;
61.5000;1.3765;0.6955;
61.8000;1.3814;0.7072;
62.1000;1.3773;0.7049;
62.4000;1.3773;0.6979;
62.7000;1.3773;0.6932;
63.0000;1.3765;0.6955;
63.3000;1.3822;0.7049;
63.6000;1.3757;0.6909;
63.9000;1.3773;0.6955;
64.2000;1.3773;0.6955;
64.5000;1.3683;0.6792;
64.8000;1.3740;0.6979;
65.1000;1.3765;0.6979;
65.4000;1.3765;0.6909;
65.7000;1.3765;0.6932;
66.0000;1.3757;0.7002;
66.3000;1.3781;0.7095;
66.6000;1.3773;0.7072;
66.9000;1.3773;0.7002;
67.2000;1.3765;0.6909;
67.5000;1.3765;0.6862;
67.8000;1.3773;0.6909;
68.1000;1.3773;0.6979;
68.4000;1.3773;0.6932;
68.7000;1.3781;0.6955;
69.0000;1.3765;0.6839;
69.3000;1.3781;0.6909;
69.6000;1.3781;0.6979;
69.9000;1.3708;0.6885;
70.2000;1.3757;0.7049;
70.5000;1.3757;0.7025;
70.8000;1.3748;0.7072;
71.1000;1.3757;0.7049;
71.4000;1.3765;0.7166;
71.7000;1.3708;0.7002;
72.0000;1.3765;0.7142;
72.3000;1.3773;0.7142;
72.6000;1.3773;0.7095;
72.9000;1.3691;0.6909;
73.2000;1.3765;0.7049;
73.5000;1.3765;0.7002;
73.8000;1.3773;0.7072;
74.1000;1.3773;0.6979;
74.4000;1.3740;0.6955;
74.7000;1.3765;0.7095;
75.0000;1.3773;0.7025;
75.3000;1.3765;0.6979;
75.6000;1.3830;0.7095;
75.9000;1.3781;0.7025;
76.2000;1.3765;0.6979;
76.5000;1.3675;0.6885;
76.8000;1.3773;0.7072;
77.1000;1.3765;0.7072;
77.4000;1.3773;0.7049;
77.7000;1.3781;0.7095;
78.0000;1.3797;0.7236;
78.3000;1.3781;0.7329;
78.6000;1.3765;0.7306;
78.9000;1.3773;0.7259;
79.2000;1.3773;0.7212;
79.5000;1.3765;0.7189;
79.8000;1.3773;0.7119;
80.1000;1.3757;0.7049;
80.4000;1.3773;0.7049;
80.7000;1.3757;0.7049;
81.0000;1.3773;0.7072;
81.3000;1.3757;0.7049;
81.6000;1.3757;0.7049;
81.9000;1.3773;0.7166;
82.2000;1.3757;0.7189;
82.5000;1.3773;0.7119;
82.8000;1.3765;0.7072;
83.1000;1.3773;0.7119;
83.4000;1.3773;0.7142;
83.7000;1.3781;0.7142;
84.0000;1.3765;0.7119;
84.3000;1.3732;0.6979;
84.6000;1.3781;0.7189;
84.9000;1.3740;0.7119;
85.2000;1.3748;0.7072;
85.5000;1.3757;0.7002;
85.8000;1.3765;0.7049;
86.1000;1.3740;0.7072;
86.4000;1.3765;0.7049;
86.7000;1.3757;0.7002;
87.0000;1.3789;0.7166;
87.3000;1.3765;0.7095;
87.6000;1.3781;0.7166;
87.9000;1.3773;0.7189;
88.2000;1.3789;0.7189;
88.5000;1.3773;0.7166;
88.8000;1.3773;0.7236;
89.1000;1.3789;0.7236;
89.4000;1.3773;0.7095;
89.7000;1.3781;0.7072;
90.0000;1.3773;0.7049;
90.3000;1.3748;0.6979;
90.6000;1.3740;0.6979;
90.9000;1.3789;0.7072;
91.2000;1.3765;0.7095;
91.5000;1.3765;0.7095;
91.8000;1.3740;0.7049;
92.1000;1.3773;0.7142;
92.4000;1.3773;0.7072;
92.7000;1.3740;0.7025;
93.0000;1.3765;0.7049;
93.3000;1.3781;0.6932;
93.6000;1.3757;0.6955;
93.9000;1.3773;0.7025;
94.2000;1.3765;0.7025;
94.5000;1.3797;0.7119;
94.8000;1.3716;0.6979;
95.1000;1.3781;0.7166;
95.4000;1.3748;0.7142;
95.7000;1.3708;0.7025;
96.0000;1.3781;0.7072;
96.3000;1.3757;0.6909;
96.6000;1.3773;0.6909;
96.9000;1.3765;0.6932;
97.2000;1.3757;0.6955;
97.5000;1.3765;0.7002;
97.8000;1.3748;0.7025;
98.1000;1.3757;0.7025;
98.4000;1.3765;0.6979;
98.7000;1.3757;0.7049;
99.0000;1.3773;0.7002;
99.3000;1.3773;0.7002;
99.6000;1.3773;0.7002;
99.9000;1.3765;0.7002;
100.2000;1.3748;0.7049;
100.5000;1.3765;0.7049;
100.8000;1.3773;0.7025;
101.1000;1.3757;0.7049;
101.4000;1.3748;0.7002;
101.7000;1.3748;0.6955;
102.0000;1.3748;0.6839;
102.3000;1.3757;0.6839;
102.6000;1.3765;0.6792;
102.9000;1.3757;0.6769;
103.2000;1.3748;0.6792;
103.5000;1.3757;0.6862;
103.8000;1.3757;0.6932;
104.1000;1.3748;0.6932;
104.4000;1.3748;0.6979;
104.7000;1.3757;0.6979;
105.0000;1.3748;0.6955;
105.3000;1.3773;0.6909;
105.6000;1.3748;0.6862;
105.9000;1.3740;0.6909;
106.2000;1.3748;0.6979;
106.5000;1.3757;0.7025;
106.8000;1.3781;0.7095;
107.1000;1.3757;0.7072;
107.4000;1.3757;0.7002;
107.7000;1.3765;0.7025;
108.0000;1.3789;0.7095;
108.3000;1.3765;0.7049;
108.6000;1.3765;0.7049;
108.9000;1.3757;0.6979;
109.2000;1.3781;0.7002;
109.5000;1.3773;0.7049;
109.8000;1.3765;0.6979;
110.1000;1.3748;0.7002;
110.4000;1.3757;0.7072;
110.7000;1.3765;0.7095;
111.0000;1.3781;0.7142;
111.3000;1.3757;0.7049;
111.6000;1.3805;0.7259;
111.9000;1.3781;0.7166;
112.2000;1.3748;0.7025;
112.5000;1.3757;0.7049;
112.8000;1.3757;0.7072;
113.1000;1.3781;0.7025;
113.4000;1.3765;0.7072;
113.7000;1.3765;0.7142;
114.0000;1.3805;0.7236;
114.3000;1.3781;0.7095;
114.6000;1.3773;0.7166;
114.9000;1.3773;0.7189;
115.2000;1.3781;0.7259;
115.5000;1.3773;0.7352;
115.8000;1.3797;0.7422;
116.1000;1.3765;0.7306;
116.4000;1.3748;0.7212;
116.7000;1.3765;0.7142;
117.0000;1.3748;0.7025;
117.3000;1.3765;0.6932;
117.6000;1.3757;0.6979;
117.9000;1.3724;0.6955;
118.2000;1.3773;0.7119;
118.5000;1.3740;0.7095;
118.8000;1.3757;0.7119;
119.1000;1.3757;0.7119;
119.4000;1.3757;0.7049;
119.7000;1.3765;0.7025;
120.0000;1.3781;0.6979;
120.3000;1.3838;0.7119;
120.6000;1.3740;0.6885;
120.9000;1.3757;0.6932;
121.2000;1.3773;0.7025;
121.5000;1.3757;0.7049;
121.8000;1.3748;0.7049;
122.1000;1.3740;0.7025;
122.4000;1.3757;0.7002;
122.7000;1.3740;0.6909;
123.0000;1.3765;0.6932;
123.3000;1.3748;0.6909;
123.6000;1.3740;0.6909;
123.9000;1.3748;0.6955;
124.2000;1.3748;0.6932;
124.5000;1.3748;0.6932;
124.8000;1.3757;0.6885;
125.1000;1.3748;0.6979;
125.4000;1.3740;0.7025;
125.7000;1.3740;0.7072;
126.0000;1.3773;0.7166;
126.3000;1.3740;0.7072;
126.6000;1.3748;0.7025;
126.9000;1.3757;0.7095;
127.2000;1.3757;0.7072;
127.5000;1.3757;0.7095;
127.8000;1.3724;0.7002;
128.1000;1.3765;0.7142;
128.4000;1.3773;0.7142;
128.7000;1.3805;0.7259;
129.0000;1.3757;0.7072;
129.3000;1.3781;0.7119;
129.6000;1.3781;0.7119;
129.9000;1.3773;0.7119;
130.2000;1.3757;0.7142;
130.5000;1.3765;0.7166;
130.8000;1.3732;0.7119;
131.1000;1.3748;0.7282;
131.4000;1.3773;0.7329;
131.7000;1.3740;0.7282;
132.0000;1.3748;0.7189;
132.3000;1.3708;0.6932;
132.6000;1.3773;0.7072;
132.9000;1.3748;0.6979;
133.2000;1.3765;0.7095;
133.5000;1.3773;0.7095;
133.8000;1.3773;0.7095;
134.1000;1.3732;0.6955;
134.4000;1.3765;0.6932;
134.7000;1.3773;0.7095;
135.0000;1.3773;0.7072;
135.3000;1.3765;0.6979;
135.6000;1.3765;0.6979;
135.9000;1.3765;0.7025;
136.2000;1.3830;0.7166;
136.5000;1.3757;0.7072;
136.8000;1.3732;0.7095;
137.1000;1.3805;0.7306;
137.4000;1.3748;0.7212;
137.7000;1.3740;0.7306;
138.0000;1.3748;0.7422;
138.3000;1.3757;0.7352;
138.6000;1.3757;0.7329;
138.9000;1.3757;0.7282;
139.2000;1.3757;0.7282;
139.5000;1.3757;0.7282;
139.8000;1.3748;0.7189;
140.1000;1.3740;0.7236;
140.4000;1.3757;0.7236;
140.7000;1.3757;0.7282;
141.0000;1.3748;0.7306;
141.3000;1.3748;0.7282;
141.6000;1.3740;0.7329;
141.9000;1.3724;0.7189;
142.2000;1.3748;0.7212;
142.5000;1.3773;0.7236;
142.8000;1.3748;0.7072;
143.1000;1.3748;0.7072;
143.4000;1.3765;0.7119;
143.7000;1.3748;0.7119;
144.0000;1.3740;0.7166;
144.3000;1.3740;0.7142;
144.6000;1.3740;0.7119;
144.9000;1.3748;0.7119;
145.2000;1.3757;0.7095;
145.5000;1.3765;0.7166;
145.8000;1.3732;0.7166;
146.1000;1.3732;0.7142;
146.4000;1.3748;0.7212;
146.7000;1.3765;0.7259;
147.0000;1.3757;0.7236;
147.3000;1.3765;0.7306;
147.6000;1.3757;0.7352;
147.9000;1.3757;0.7352;
148.2000;1.3757;0.7306;
148.5000;1.3757;0.7259;
148.8000;1.3740;0.7212;
149.1000;1.3757;0.7189;
149.4000;1.3732;0.7236;
149.7000;1.3659;0.7049;
150.0000;1.3740;0.7212;
150.3000;1.3748;0.7142;
150.6000;1.3675;0.6979;
150.9000;1.3732;0.7166;
151.2000;1.3732;0.7095;
151.5000;1.3757;0.7119;
151.8000;1.3765;0.7142;
152.1000;1.3740;0.7095;
152.4000;1.3748;0.7025;
152.7000;1.3757;0.7025;
153.0000;1.3757;0.7095;
153.3000;1.3757;0.7142;
153.6000;1.3740;0.7189;
153.9000;1.3748;0.7189;
154.2000;1.3757;0.7166;
154.5000;1.3757;0.7189;
154.8000;1.3740;0.7142;
155.1000;1.3732;0.7166;
155.4000;1.3757;0.7142;
155.7000;1.3789;0.7142;
156.0000;1.3814;0.7212;
156.3000;1.3748;0.7142;
156.6000;1.3757;0.7212;
156.9000;1.3757;0.7142;
157.2000;1.3748;0.7142;
157.5000;1.3748;0.7142;
157.8000;1.3740;0.7095;
158.1000;1.3757;0.7142;
158.4000;1.3683;0.7025;
158.7000;1.3757;0.7142;
159.0000;1.3797;0.7212;
159.3000;1.3757;0.7189;
159.6000;1.3732;0.7095;
159.9000;1.3748;0.7095;
160.2000;1.3732;0.7142;
160.5000;1.3740;0.7119;
160.8000;1.3757;0.7236;
161.1000;1.3748;0.7212;
161.4000;1.3740;0.7189;
161.7000;1.3838;0.7376;
162.0000;1.3748;0.7212;
162.3000;1.3757;0.7259;
162.6000;1.3748;0.7212;
162.9000;1.3765;0.7236;
163.2000;1.3773;0.7376;
163.5000;1.3765;0.7282;
163.8000;1.3757;0.7189;
164.1000;1.3757;0.7166;
164.4000;1.3757;0.7119;
164.7000;1.3765;0.7049;
165.0000;1.3732;0.7025;
165.3000;1.3724;0.6979;
165.6000;1.3748;0.7072;
165.9000;1.3765;0.7072;
166.2000;1.3765;0.7049;
166.5000;1.3765;0.7142;
166.8000;1.3757;0.7119;
167.1000;1.3765;0.7095;
167.4000;1.3748;0.7142;
167.7000;1.3732;0.7189;
168.0000;1.3757;0.7306;
168.3000;1.3757;0.7212;
168.6000;1.3757;0.7119;
168.9000;1.3757;0.7119;
169.2000;1.3765;0.7142;
169.5000;1.3724;0.7025;
169.8000;1.3773;0.7025;
170.1000;1.3724;0.6862;
170.4000;1.3732;0.6815;
170.7000;1.3748;0.6885;
171.0000;1.3757;0.7002;
171.3000;1.3740;0.7002;
171.6000;1.3748;0.7072;
171.9000;1.3740;0.7049;
172.2000;1.3757;0.7072;
172.5000;1.3740;0.7072;
172.8000;1.3757;0.7119;
173.1000;1.3732;0.7072;
173.4000;1.3757;0.7212;
173.7000;1.3724;0.7119;
174.0000;1.3675;0.6932;
174.3000;1.3740;0.7095;
174.6000;1.3700;0.7049;
174.9000;1.3757;0.7189;
175.2000;1.3757;0.7166;
175.5000;1.3757;0.7189;
175.8000;1.3748;0.7166;
176.1000;1.3748;0.7166;
176.4000;1.3732;0.7189;
176.7000;1.3724;0.7189;
177.0000;1.3748;0.7212;
177.3000;1.3748;0.7212;
177.6000;1.3781;0.7212;
177.9000;1.3748;0.7119;
178.2000;1.3732;0.7025;
178.5000;1.3757;0.7142;
178.8000;1.3765;0.7142;
179.1000;1.3708;0.7025;
179.4000;1.3724;0.7049;
179.7000;1.3765;0.7142;
180.0000;1.3773;0.7119;
180.3000;1.3748;0.7119;
180.6000;1.3732;0.7049;
180.9000;1.3765;0.7119;
181.2000;1.3765;0.7049;
181.5000;1.3781;0.7095;
181.8000;1.3740;0.6979;
182.1000;1.3740;0.7002;
182.4000;1.3732;0.7025;
182.7000;1.3757;0.7119;
183.0000;1.3838;0.7352;
183.3000;1.3740;0.7119;
183.6000;1.3757;0.7212;
183.9000;1.3740;0.7166;
184.2000;1.3732;0.7189;
184.5000;1.3732;0.7212;
184.8000;1.3683;0.6955;
185.1000;1.3740;0.7049;
185.4000;1.3716;0.6955;
185.7000;1.3740;0.7025;
186.0000;1.3724;0.6979;
186.3000;1.3748;0.7049;
186.6000;1.3724;0.6932;
186.9000;1.3700;0.6932;
187.2000;1.3618;0.6745;
187.5000;1.3748;0.6979;
187.8000;1.3659;0.6792;
188.1000;1.3732;0.6932;
188.4000;1.3716;0.6955;
188.7000;1.3724;0.6955;
189.0000;1.3732;0.6955;
189.3000;1.3732;0.6955;
189.6000;1.3740;0.6932;
189.9000;1.3659;0.6815;
190.2000;1.3700;0.6909;
190.5000;1.3724;0.6979;
190.8000;1.3748;0.6979;
191.1000;1.3716;0.6862;
191.4000;1.3691;0.6839;
191.7000;1.3740;0.7002;
192.0000;1.3740;0.7095;
192.3000;1.3716;0.7025;
192.6000;1.3740;0.7049;
192.9000;1.3724;0.7095;
193.2000;1.3740;0.7095;
193.5000;1.3740;0.7049;
193.8000;1.3732;0.7049;
194.1000;1.3748;0.7025;
194.4000;1.3740;0.6955;
194.7000;1.3732;0.7002;
195.0000;1.3724;0.6979;
195.3000;1.3757;0.7072;
195.6000;1.3748;0.6979;
195.9000;1.3748;0.7025;
196.2000;1.3740;0.7025;
196.5000;1.3757;0.7119;
196.8000;1.3748;0.7142;
197.1000;1.3740;0.7189;
197.4000;1.3748;0.7259;
197.7000;1.3748;0.7329;
198.0000;1.3724;0.7306;
198.3000;1.3732;0.7352;
198.6000;1.3732;0.7306;
198.9000;1.3724;0.7166;
199.2000;1.3748;0.7166;
199.5000;1.3740;0.7212;
199.8000;1.3724;0.7142;
200.1000;1.3748;0.7166;
200.4000;1.3740;0.7072;
200.7000;1.3757;0.7236;
201.0000;1.3716;0.7095;
201.3000;1.3748;0.7119;
201.6000;1.3740;0.7189;
201.9000;1.3716;0.7142;
202.2000;1.3740;0.7119;
202.5000;1.3740;0.7142;
202.8000;1.3667;0.6932;
203.1000;1.3748;0.7119;
203.4000;1.3748;0.7072;
203.7000;1.3724;0.7049;
204.0000;1.3740;0.7025;
204.3000;1.3757;0.7049;
204.6000;1.3781;0.7142;
204.9000;1.3757;0.7142;
205.2000;1.3740;0.7166;
205.5000;1.3732;0.7189;
205.8000;1.3740;0.7189;
206.1000;1.3740;0.7119;
206.4000;1.3724;0.6979;
206.7000;1.3740;0.7095;
207.0000;1.3740;0.7049;
207.3000;1.3797;0.7236;
207.6000;1.3748;0.7072;
207.9000;1.3740;0.7119;
208.2000;1.3748;0.7142;
208.5000;1.3740;0.7142;
208.8000;1.3724;0.7119;
209.1000;1.3724;0.7095;
209.4000;1.3716;0.7025;
209.7000;1.3732;0.7049;
210.0000;1.3724;0.7002;
210.3000;1.3732;0.7025;
210.6000;1.3757;0.7025;
210.9000;1.3797;0.7166;
211.2000;1.3716;0.7049;
211.5000;1.3732;0.7072;
211.8000;1.3683;0.7049;
212.1000;1.3716;0.7095;
212.4000;1.3748;0.7072;
212.7000;1.3740;0.6979;
213.0000;1.3716;0.6885;
213.3000;1.3732;0.6955;
213.6000;1.3724;0.6932;
213.9000;1.3765;0.7025;
214.2000;1.3716;0.6955;
214.5000;1.3740;0.7049;
214.8000;1.3708;0.6932;
215.1000;1.3724;0.6909;
215.4000;1.3740;0.6979;
215.7000;1.3748;0.6979;
216.0000;1.3765;0.6955;
216.3000;1.3765;0.7002;
216.6000;1.3757;0.7002;
216.9000;1.3732;0.6955;
217.2000;1.3740;0.6979;
217.5000;1.3748;0.7025;
217.8000;1.3740;0.7049;
218.1000;1.3724;0.7119;
218.4000;1.3748;0.7166;
218.7000;1.3708;0.7072;
219.0000;1.3732;0.7119;
219.3000;1.3716;0.7142;
219.6000;1.3748;0.7236;
219.9000;1.3732;0.7142;
220.2000;1.3724;0.7166;
220.5000;1.3700;0.7119;
220.8000;1.3724;0.7072;
221.1000;1.3740;0.7095;
221.4000;1.3724;0.7095;
221.7000;1.3724;0.7025;
222.0000;1.3675;0.6909;
222.3000;1.3740;0.7142;
222.6000;1.3716;0.7002;
222.9000;1.3708;0.6932;
223.2000;1.3732;0.7049;
223.5000;1.3765;0.7119;
223.8000;1.3740;0.7049;
224.1000;1.3724;0.6932;
224.4000;1.3748;0.6932;
224.7000;1.3740;0.6885;
225.0000;1.3724;0.6885;
225.3000;1.3732;0.6909;
225.6000;1.3716;0.6932;
225.9000;1.3716;0.6932;
226.2000;1.3716;0.6979;
226.5000;1.3716;0.6979;
226.8000;1.3740;0.7002;
227.1000;1.3748;0.7025;
227.4000;1.3732;0.7025;
227.7000;1.3732;0.7025;
228.0000;1.3667;0.6885;
228.3000;1.3708;0.6909;
228.6000;1.3716;0.7002;
228.9000;1.3708;0.7002;
229.2000;1.3708;0.6979;
229.5000;1.3708;0.6979;
229.8000;1.3724;0.7025;
230.1000;1.3740;0.7049;
230.4000;1.3691;0.6979;
230.7000;1.3716;0.7072;
231.0000;1.3732;0.7049;
231.3000;1.3748;0.7049;
231.6000;1.3724;0.7002;
231.9000;1.3732;0.6979;
232.2000;1.3716;0.6955;
232.5000;1.3724;0.7002;
232.8000;1.3732;0.6955;
233.1000;1.3691;0.6909;
233.4000;1.3732;0.7002;
233.7000;1.3716;0.6979;
234.0000;1.3732;0.6955;
234.3000;1.3765;0.7119;
234.6000;1.3716;0.6909;
234.9000;1.3732;0.7002;
235.2000;1.3724;0.7002;
235.5000;1.3716;0.7002;
235.8000;1.3732;0.7002;
236.1000;1.3716;0.6979;
236.4000;1.3732;0.6909;
236.7000;1.3716;0.6932;
237.0000;1.3740;0.7049;
237.3000;1.3740;0.7072;
237.6000;1.3724;0.6955;
237.9000;1.3740;0.6979;
238.2000;1.3716;0.6979;
238.5000;1.3732;0.6955;
238.8000;1.3716;0.6955;
239.1000;1.3732;0.7072;
239.4000;1.3716;0.7049;
239.7000;1.3724;0.7002;
240.0000;1.3740;0.7002;
240.3000;1.3732;0.6979;
240.6000;1.3732;0.7072;
240.9000;1.3708;0.6932;
241.2000;1.3700;0.6769;
241.5000;1.3765;0.6885;
241.8000;1.3724;0.6815;
242.1000;1.3732;0.6745;
242.4000;1.3740;0.6629;
242.7000;1.3740;0.6675;
243.0000;1.3773;0.6792;
243.3000;1.3740;0.6769;
243.6000;1.3740;0.6815;
243.9000;1.3716;0.6839;
244.2000;1.3724;0.6885;
244.5000;1.3732;0.6862;
244.8000;1.3716;0.6839;
245.1000;1.3626;0.6629;
245.4000;1.3716;0.6885;
245.7000;1.3724;0.6932;
246.0000;1.3691;0.6885;
246.3000;1.3716;0.6932;
246.6000;1.3708;0.6932;
246.9000;1.3732;0.7025;
247.2000;1.3724;0.7072;
247.5000;1.3748;0.7049;
247.8000;1.3765;0.7025;
248.1000;1.3740;0.7025;
248.4000;1.3732;0.7002;
248.7000;1.3732;0.7002;
249.0000;1.3740;0.7049;
249.3000;1.3716;0.7025;
249.6000;1.3732;0.6955;
249.9000;1.3732;0.7025;
250.2000;1.3740;0.7095;
250.5000;1.3748;0.7095;
250.8000;1.3691;0.6979;
251.1000;1.3716;0.7072;
251.4000;1.3724;0.7072;
251.7000;1.3716;0.7119;
252.0000;1.3724;0.7189;
252.3000;1.3716;0.7142;
252.6000;1.3748;0.7166;
252.9000;1.3708;0.7072;
253.2000;1.3740;0.7119;
253.5000;1.3765;0.7072;
253.8000;1.3732;0.7002;
254.1000;1.3732;0.7025;
254.4000;1.3732;0.7072;
254.7000;1.3724;0.7072;
255.0000;1.3724;0.6979;
255.3000;1.3716;0.6955;
255.6000;1.3732;0.6955;
255.9000;1.3740;0.6932;
256.2000;1.3732;0.6955;
256.5000;1.3724;0.6885;
256.8000;1.3716;0.6862;
257.1000;1.3691;0.6862;
257.4000;1.3740;0.6862;
257.7000;1.3732;0.6839;
258.0000;1.3740;0.6885;
258.3000;1.3708;0.6815;
258.6000;1.3732;0.6862;
258.9000;1.3732;0.6815;
259.2000;1.3732;0.6792;
259.5000;1.3732;0.6792;
259.8000;1.3740;0.6769;
260.1000;1.3724;0.6815;
260.4000;1.3740;0.6955;
260.7000;1.3740;0.6955;
261.0000;1.3732;0.6885;
261.3000;1.3716;0.6769;
261.6000;1.3724;0.6792;
261.9000;1.3716;0.6769;
262.2000;1.3740;0.6769;
262.5000;1.3716;0.6815;
262.8000;1.3708;0.6862;
263.1000;1.3732;0.6909;
263.4000;1.3732;0.6932;
263.7000;1.3724;0.6932;
264.0000;1.3716;0.6885;
264.3000;1.3724;0.6955;
264.6000;1.3740;0.7049;
264.9000;1.3740;0.7025;
265.2000;1.3724;0.6885;
265.5000;1.3651;0.6769;
265.8000;1.3716;0.6979;
266.1000;1.3740;0.6955;
266.4000;1.3724;0.6932;
266.7000;1.3740;0.6979;
267.0000;1.3757;0.7025;
267.3000;1.3732;0.6909;
267.6000;1.3594;0.6582;
267.9000;1.3716;0.6792;
268.2000;1.3708;0.6745;
268.5000;1.3748;0.6792;
268.8000;1.3708;0.6699;
269.1000;1.3805;0.6955;
269.4000;1.3700;0.6699;
269.7000;1.3724;0.6745;
270.0000;1.3724;0.6885;
270.3000;1.3716;0.6769;
270.6000;1.3708;0.6839;
270.9000;1.3724;0.6932;
271.2000;1.3716;0.6979;
271.5000;1.3732;0.7049;
271.8000;1.3683;0.6979;
272.1000;1.3732;0.7049;
272.4000;1.3765;0.7142;
272.7000;1.3724;0.7142;
273.0000;1.3740;0.7119;
273.3000;1.3724;0.7025;
273.6000;1.3748;0.7049;
273.9000;1.3740;0.7025;
274.2000;1.3732;0.6955;
274.5000;1.3740;0.7002;
274.8000;1.3716;0.6932;
275.1000;1.3732;0.6885;
275.4000;1.3732;0.6909;
275.7000;1.3724;0.6979;
276.0000;1.3724;0.6955;
276.3000;1.3724;0.7072;
276.6000;1.3724;0.7072;
276.9000;1.3732;0.7166;
277.2000;1.3716;0.7119;
277.5000;1.3716;0.7119;
277.8000;1.3732;0.7119;
278.1000;1.3724;0.7119;
278.4000;1.3708;0.7095;
278.7000;1.3708;0.7095;
279.0000;1.3732;0.7142;
279.3000;1.3716;0.7142;
279.6000;1.3724;0.7142;
279.9000;1.3732;0.7072;
280.2000;1.3740;0.7166;
280.5000;1.3732;0.7166;
280.8000;1.3724;0.7095;
281.1000;1.3716;0.6979;
281.4000;1.3724;0.7002;
281.7000;1.3724;0.7025;
282.0000;1.3716;0.7002;
282.3000;1.3716;0.6955;
282.6000;1.3724;0.6932;
282.9000;1.3732;0.6839;
283.2000;1.3740;0.6815;
283.5000;1.3700;0.6792;
283.8000;1.3708;0.6862;
284.1000;1.3708;0.6862;
284.4000;1.3716;0.6885;
284.7000;1.3708;0.6909;
285.0000;1.3700;0.6885;
285.3000;1.3716;0.6932;
285.6000;1.3708;0.6932;
285.9000;1.3708;0.7002;
286.2000;1.3724;0.7072;
286.5000;1.3732;0.7025;
286.8000;1.3708;0.6979;
287.1000;1.3675;0.6909;
287.4000;1.3700;0.7025;
287.7000;1.3748;0.7095;
288.0000;1.3716;0.7119;
288.3000;1.3724;0.7189;
288.6000;1.3691;0.7212;
288.9000;1.3708;0.7212;
289.2000;1.3805;0.7492;
289.5000;1.3700;0.7259;
289.8000;1.3757;0.7212;
290.1000;1.3700;0.7002;
290.4000;1.3732;0.7025;
290.7000;1.3683;0.6932;
291.0000;1.3724;0.6955;
291.3000;1.3708;0.7025;
291.6000;1.3740;0.7166;
291.9000;1.3724;0.7142;
292.2000;1.3732;0.7072;
292.5000;1.3691;0.7002;
292.8000;1.3716;0.7025;
293.1000;1.3724;0.7002;
293.4000;1.3700;0.7025;
293.7000;1.3724;0.7072;
294.0000;1.3708;0.7095;
294.3000;1.3732;0.7236;
294.6000;1.3732;0.7166;
294.9000;1.3732;0.7189;
295.2000;1.3708;0.7166;
295.5000;1.3724;0.7212;
295.8000;1.3708;0.7259;
296.1000;1.3708;0.7282;
296.4000;1.3700;0.7259;
296.7000;1.3740;0.7329;
297.0000;1.3732;0.7259;
297.3000;1.3732;0.7329;
297.6000;1.3716;0.7259;
297.9000;1.3773;0.7376;
298.2000;1.3724;0.7259;
298.5000;1.3732;0.7306;
298.8000;1.3683;0.7142;
299.1000;1.3716;0.7189;
299.4000;1.3724;0.7189;
299.7000;1.3716;0.7142;
300.0000;1.3708;0.7072;
300.3000;1.3716;0.7095;
300.6000;1.3708;0.7002;
300.9000;1.3708;0.7002;
301.2000;1.3716;0.6839;
301.5000;1.3708;0.6792;
301.8000;1.3708;0.6862;
302.1000;1.3724;0.6909;
302.4000;1.3716;0.6909;
302.7000;1.3708;0.6885;
303.0000;1.3732;0.6909;
303.3000;1.3732;0.7025;
303.6000;1.3732;0.7049;
303.9000;1.3732;0.6979;
304.2000;1.3732;0.7002;
304.5000;1.3740;0.6979;
304.8000;1.3740;0.7002;
305.1000;1.3716;0.6955;
305.4000;1.3724;0.6979;
305.7000;1.3740;0.6979;
306.0000;1.3732;0.6909;
306.3000;1.3724;0.6839;
306.6000;1.3716;0.6815;
306.9000;1.3732;0.6885;
307.2000;1.3643;0.6699;
307.5000;1.3724;0.6909;
307.8000;1.3724;0.6839;
308.1000;1.3740;0.6932;
308.4000;1.3740;0.7025;
308.7000;1.3724;0.6932;
309.0000;1.3716;0.6932;
309.3000;1.3708;0.6909;
309.6000;1.3716;0.6979;
309.9000;1.3732;0.6909;
310.2000;1.3708;0.6862;
310.5000;1.3667;0.6699;
310.8000;1.3724;0.6815;
311.1000;1.3708;0.6932;
311.4000;1.3700;0.6885;
311.7000;1.3708;0.6932;
312.0000;1.3708;0.7002;
312.3000;1.3716;0.7025;
312.6000;1.3700;0.6979;
312.9000;1.3708;0.7025;
313.2000;1.3667;0.7049;
313.5000;1.3708;0.7166;
313.8000;1.3740;0.7189;
314.1000;1.3724;0.7119;
314.4000;1.3732;0.7142;
314.7000;1.3781;0.7306;
315.0000;1.3708;0.7142;
315.3000;1.3724;0.7095;
315.6000;1.3700;0.7166;
315.9000;1.3700;0.7142;
316.2000;1.3716;0.7119;
316.5000;1.3716;0.7142;
316.8000;1.3683;0.7072;
317.1000;1.3716;0.7189;
317.4000;1.3708;0.7212;
317.7000;1.3724;0.7166;
318.0000;1.3724;0.7119;
318.3000;1.3708;0.7119;
318.6000;1.3675;0.7095;
318.9000;1.3724;0.7142;
319.2000;1.3708;0.7095;
319.5000;1.3716;0.7072;
319.8000;1.3757;0.7119;
320.1000;1.3724;0.7049;
320.4000;1.3708;0.6955;
320.7000;1.3716;0.6932;
321.0000;1.3708;0.6932;
321.3000;1.3724;0.7072;
321.6000;1.3724;0.7025;
321.9000;1.3635;0.6862;
322.2000;1.3700;0.7002;
322.5000;1.3708;0.7002;
322.8000;1.3716;0.7049;
323.1000;1.3700;0.7025;
323.4000;1.3716;0.7002;
323.7000;1.3732;0.7072;
324.0000;1.3724;0.7025;
324.3000;1.3724;0.6955;
324.6000;1.3716;0.7002;
324.9000;1.3708;0.7002;
325.2000;1.3716;0.7002;
325.5000;1.3724;0.7025;
325.8000;1.3740;0.7095;
326.1000;1.3716;0.6932;
326.4000;1.3716;0.6862;
326.7000;1.3700;0.6932;
327.0000;1.3708;0.6885;
327.3000;1.3691;0.6885;
327.6000;1.3700;0.6955;
327.9000;1.3716;0.7025;
328.2000;1.3700;0.7002;
328.5000;1.3765;0.7166;
328.8000;1.3708;0.7049;
329.1000;1.3716;0.7002;
329.4000;1.3716;0.6979;
329.7000;1.3716;0.6979;
330.0000;1.3724;0.7072;
330.3000;1.3700;0.7072;
330.6000;1.3708;0.7025;
330.9000;1.3691;0.7025;
331.2000;1.3700;0.7002;
331.5000;1.3724;0.7025;
331.8000;1.3724;0.7002;
332.1000;1.3716;0.7002;
332.4000;1.3716;0.7049;
332.7000;1.3716;0.7002;
333.0000;1.3732;0.7025;
333.3000;1.3740;0.7025;
333.6000;1.3724;0.7002;
333.9000;1.3708;0.7049;
334.2000;1.3724;0.7049;
334.5000;1.3716;0.7072;
334.8000;1.3708;0.7025;
335.1000;1.3691;0.6955;
335.4000;1.3716;0.6932;
335.7000;1.3732;0.6909;
336.0000;1.3708;0.6885;
336.3000;1.3716;0.6839;
336.6000;1.3732;0.6885;
336.9000;1.3708;0.6862;
337.2000;1.3708;0.6979;
337.5000;1.3716;0.7072;
337.8000;1.3781;0.7259;
338.1000;1.3732;0.7189;
338.4000;1.3732;0.7142;
338.7000;1.3716;0.7119;
339.0000;1.3724;0.7025;
339.3000;1.3651;0.6839;
339.6000;1.3724;0.7025;
339.9000;1.3724;0.6955;
340.2000;1.3724;0.6932;
340.5000;1.3732;0.6932;
340.8000;1.3724;0.7002;
341.1000;1.3716;0.6979;
341.4000;1.3691;0.6979;
341.7000;1.3708;0.7002;
342.0000;1.3732;0.6955;
342.3000;1.3708;0.6839;
342.6000;1.3716;0.6769;
342.9000;1.3716;0.6792;
343.2000;1.3716;0.6862;
343.5000;1.3708;0.6815;
343.8000;1.3716;0.7002;
344.1000;1.3708;0.7072;
344.4000;1.3732;0.7095;
344.7000;1.3732;0.7002;
345.0000;1.3724;0.7025;
345.3000;1.3716;0.7025;
345.6000;1.3716;0.6979;
345.9000;1.3716;0.6979;
346.2000;1.3708;0.7119;
346.5000;1.3716;0.7049;
346.8000;1.3716;0.6955;
347.1000;1.3724;0.6955;
347.4000;1.3675;0.6792;
347.7000;1.3708;0.6932;
348.0000;1.3724;0.6955;
348.3000;1.3757;0.7119;
348.6000;1.3757;0.7166;
348.9000;1.3700;0.7095;
349.2000;1.3708;0.7049;
349.5000;1.3708;0.6932;
349.8000;1.3708;0.6839;
350.1000;1.3716;0.6909;
350.4000;1.3724;0.6862;
350.7000;1.3724;0.6909;
351.0000;1.3716;0.6885;
351.3000;1.3716;0.6839;
351.6000;1.3708;0.6909;
351.9000;1.3700;0.6909;
352.2000;1.3700;0.7025;
352.5000;1.3716;0.7025;
352.8000;1.3700;0.7025;
353.1000;1.3700;0.6955;
353.4000;1.3708;0.7002;
353.7000;1.3716;0.6979;
354.0000;1.3708;0.6955;
354.3000;1.3708;0.6885;
354.6000;1.3691;0.6909;
354.9000;1.3716;0.7002;
355.2000;1.3708;0.6979;
355.5000;1.3716;0.6932;
355.8000;1.3724;0.6909;
356.1000;1.3700;0.6839;
356.4000;1.3700;0.6815;
356.7000;1.3708;0.6839;
357.0000;1.3708;0.6815;
357.3000;1.3716;0.6932;
357.6000;1.3724;0.6839;
357.9000;1.3732;0.6862;
358.2000;1.3700;0.6955;
358.5000;1.3700;0.7002;
358.8000;1.3700;0.7002;
359.1000;1.3708;0.6932;
359.4000;1.3716;0.6932;
359.7000;1.3700;0.6885;
360.0000;1.3732;0.7002;
360.3000;1.3724;0.7002;
360.6000;1.3708;0.7002;
360.9000;1.3700;0.6932;
361.2000;1.3724;0.6862;
361.5000;1.3732;0.6885;
361.8000;1.3708;0.6885;
362.1000;1.3716;0.6885;
362.4000;1.3708;0.6815;
362.7000;1.3700;0.6792;
363.0000;1.3700;0.6862;
363.3000;1.3691;0.6862;
363.6000;1.3691;0.6979;
363.9000;1.3700;0.7095;
364.2000;1.3708;0.6979;
364.5000;1.3700;0.6932;
364.8000;1.3700;0.6932;
365.1000;1.3700;0.6979;
365.4000;1.3700;0.7025;
365.7000;1.3708;0.7002;
366.0000;1.3651;0.6815;
366.3000;1.3708;0.6955;
366.6000;1.3708;0.6932;
366.9000;1.3732;0.6932;
367.2000;1.3716;0.6815;
367.5000;1.3708;0.6745;
367.8000;1.3740;0.6769;
368.1000;1.3708;0.6745;
368.4000;1.3716;0.6722;
368.7000;1.3740;0.6722;
369.0000;1.3716;0.6675;
369.3000;1.3732;0.6745;
369.6000;1.3716;0.6769;
369.9000;1.3716;0.6815;
370.2000;1.3716;0.6909;
370.5000;1.3708;0.7002;
370.8000;1.3700;0.7072;
371.1000;1.3691;0.7095;
371.4000;1.3708;0.7142;
371.7000;1.3708;0.7119;
372.0000;1.3683;0.7049;
372.3000;1.3708;0.7095;
372.6000;1.3700;0.7025;
372.9000;1.3708;0.7002;
373.2000;1.3708;0.6932;
373.5000;1.3691;0.6932;
373.8000;1.3683;0.6955;
374.1000;1.3683;0.6885;
374.4000;1.3708;0.6979;
374.7000;1.3700;0.6932;
375.0000;1.3700;0.6955;
375.3000;1.3716;0.7002;
375.6000;1.3700;0.7002;
375.9000;1.3716;0.7049;
376.2000;1.3700;0.7049;
376.5000;1.3716;0.7095;
376.8000;1.3691;0.7002;
377.1000;1.3716;0.7072;
377.4000;1.3700;0.7049;
377.7000;1.3700;0.7095;
378.0000;1.3700;0.7095;
378.3000;1.3716;0.7189;
378.6000;1.3724;0.7095;
378.9000;1.3691;0.7049;
379.2000;1.3708;0.7049;
379.5000;1.3708;0.7095;
379.8000;1.3732;0.7119;
380.1000;1.3691;0.7025;
380.4000;1.3716;0.6979;
380.7000;1.3716;0.6979;
381.0000;1.3700;0.6979;
381.3000;1.3716;0.7002;
381.6000;1.3708;0.7072;
381.9000;1.3691;0.7049;
382.2000;1.3708;0.7166;
382.5000;1.3700;0.7166;
382.8000;1.3724;0.7166;
383.1000;1.3724;0.7142;
383.4000;1.3708;0.7049;
383.7000;1.3708;0.7119;
384.0000;1.3748;0.7119;
384.3000;1.3708;0.7002;
384.6000;1.3748;0.7049;
384.9000;1.3716;0.6862;
385.2000;1.3683;0.6722;
385.5000;1.3716;0.6792;
385.8000;1.3683;0.6862;
386.1000;1.3683;0.6862;
386.4000;1.3691;0.6862;
386.7000;1.3716;0.6932;
387.0000;1.3708;0.7002;
387.3000;1.3700;0.7025;
387.6000;1.3708;0.7072;
387.9000;1.3716;0.7025;
388.2000;1.3724;0.7025;
388.5000;1.3724;0.7025;
388.8000;1.3708;0.7072;
389.1000;1.3700;0.7119;
389.4000;1.3716;0.7142;
389.7000;1.3700;0.7166;
390.0000;1.3691;0.7166;
390.3000;1.3700;0.7119;
390.6000;1.3700;0.7072;
390.9000;1.3708;0.7072;
391.2000;1.3716;0.7119;
391.5000;1.3700;0.7049;
391.8000;1.3667;0.6909;
392.1000;1.3700;0.7002;
392.4000;1.3700;0.7002;
392.7000;1.3691;0.7049;
393.0000;1.3700;0.7095;
393.3000;1.3700;0.7072;
393.6000;1.3724;0.7119;
393.9000;1.3700;0.7095;
394.2000;1.3732;0.7166;
394.5000;1.3708;0.7072;
394.8000;1.3724;0.7095;
395.1000;1.3716;0.7072;
395.4000;1.3700;0.7072;
395.7000;1.3700;0.6979;
396.0000;1.3691;0.6955;
396.3000;1.3700;0.6979;
396.6000;1.3675;0.6909;
396.9000;1.3683;0.6815;
397.2000;1.3773;0.6979;
397.5000;1.3700;0.6815;
397.8000;1.3716;0.6932;
398.1000;1.3691;0.6932;
398.4000;1.3748;0.6979;
398.7000;1.3724;0.6979;
399.0000;1.3716;0.6909;
399.3000;1.3618;0.6605;
399.6000;1.3708;0.6815;
399.9000;1.3724;0.6885;
400.2000;1.3700;0.6862;
400.5000;1.3586;0.6629;
400.8000;1.3691;0.6955;
401.1000;1.3700;0.7025;
401.4000;1.3691;0.7049;
401.7000;1.3700;0.7095;
402.0000;1.3675;0.6979;
402.3000;1.3708;0.7095;
402.6000;1.3740;0.7212;
402.9000;1.3716;0.7119;
403.2000;1.3716;0.6979;
403.5000;1.3708;0.6955;
403.8000;1.3724;0.7002;
404.1000;1.3708;0.6979;
404.4000;1.3748;0.7025;
404.7000;1.3700;0.6909;
405.0000;1.3691;0.6932;
405.3000;1.3691;0.6862;
405.6000;1.3732;0.7002;
405.9000;1.3700;0.6932;
406.2000;1.3708;0.7002;
406.5000;1.3708;0.7049;
406.8000;1.3716;0.7002;
407.1000;1.3708;0.6932;
407.4000;1.3708;0.6932;
407.7000;1.3724;0.6955;
408.0000;1.3724;0.6955;
408.3000;1.3700;0.6932;
408.6000;1.3708;0.6885;
408.9000;1.3740;0.6885;
409.2000;1.3716;0.6839;
409.5000;1.3708;0.6815;
409.8000;1.3700;0.6815;
410.1000;1.3700;0.6815;
410.4000;1.3700;0.6885;
410.7000;1.3691;0.6862;
411.0000;1.3700;0.6885;
411.3000;1.3675;0.6815;
411.6000;1.3700;0.6862;
411.9000;1.3700;0.6932;
412.2000;1.3683;0.6909;
412.5000;1.3700;0.6932;
412.8000;1.3724;0.6932;
413.1000;1.3700;0.6769;
413.4000;1.3708;0.6839;
413.7000;1.3700;0.6815;
414.0000;1.3716;0.6815;
414.3000;1.3748;0.7002;
414.6000;1.3667;0.6769;
414.9000;1.3635;0.6792;
415.2000;1.3708;0.7025;
415.5000;1.3708;0.7002;
415.8000;1.3708;0.7049;
416.1000;1.3700;0.7119;
416.4000;1.3691;0.7119;
416.7000;1.3716;0.7142;
417.0000;1.3683;0.7025;
417.3000;1.3643;0.7025;
417.6000;1.3700;0.7142;
417.9000;1.3708;0.7166;
418.2000;1.3651;0.6979;
418.5000;1.3700;0.7072;
418.8000;1.3691;0.7095;
419.1000;1.3700;0.7119;
419.4000;1.3724;0.7142;
419.7000;1.3700;0.7072;
420.0000;1.3691;0.7119;
420.3000;1.3708;0.7072;
420.6000;1.3716;0.7072;
420.9000;1.3700;0.7002;
421.2000;1.3683;0.7049;
421.5000;1.3683;0.7095;
421.8000;1.3700;0.7049;
422.1000;1.3732;0.7095;
422.4000;1.3708;0.7002;
422.7000;1.3700;0.7049;
423.0000;1.3716;0.7095;
423.3000;1.3708;0.7095;
423.6000;1.3748;0.7189;
423.9000;1.3691;0.7025;
424.2000;1.3708;0.6979;
424.5000;1.3724;0.7002;
424.8000;1.3708;0.6979;
425.1000;1.3700;0.7025;
425.4000;1.3708;0.7025;
425.7000;1.3708;0.7002;
426.0000;1.3708;0.7002;
426.3000;1.3700;0.7025;
426.6000;1.3700;0.6909;
426.9000;1.3700;0.6815;
427.2000;1.3691;0.6792;
427.5000;1.3667;0.6769;
427.8000;1.3716;0.6839;
428.1000;1.3708;0.6885;
428.4000;1.3700;0.6909;
428.7000;1.3700;0.6979;
429.0000;1.3683;0.6979;
429.3000;1.3691;0.6955;
429.6000;1.3708;0.7049;
429.9000;1.3675;0.6932;
430.2000;1.3700;0.6979;
430.5000;1.3708;0.7002;
430.8000;1.3700;0.6979;
431.1000;1.3700;0.6955;
431.4000;1.3691;0.6839;
431.7000;1.3724;0.6815;
432.0000;1.3700;0.6815;
432.3000;1.3700;0.6862;
432.6000;1.3724;0.6909;
432.9000;1.3667;0.6769;
433.2000;1.3708;0.6862;
433.5000;1.3691;0.6955;
433.8000;1.3691;0.7002;
434.1000;1.3691;0.7002;
434.4000;1.3708;0.7049;
434.7000;1.3716;0.7049;
435.0000;1.3700;0.7049;
435.3000;1.3626;0.6839;
435.6000;1.3716;0.7049;
435.9000;1.3708;0.6955;
436.2000;1.3724;0.6955;
436.5000;1.3716;0.6979;
436.8000;1.3700;0.6979;
437.1000;1.3700;0.6932;
437.4000;1.3659;0.6745;
437.7000;1.3740;0.6932;
438.0000;1.3716;0.6862;
438.3000;1.3716;0.6932;
438.6000;1.3732;0.7025;
438.9000;1.3667;0.6862;
439.2000;1.3691;0.6979;
439.5000;1.3700;0.7002;
439.8000;1.3691;0.6932;
440.1000;1.3700;0.6932;
440.4000;1.3700;0.6955;
440.7000;1.3700;0.6932;
441.0000;1.3708;0.6955;
441.3000;1.3700;0.6955;
441.6000;1.3683;0.6815;
441.9000;1.3691;0.6839;
442.2000;1.3700;0.6909;
442.5000;1.3708;0.6769;
442.8000;1.3716;0.6792;
443.1000;1.3683;0.6769;
443.4000;1.3700;0.6839;
443.7000;1.3700;0.6862;
444.0000;1.3700;0.6955;
444.3000;1.3740;0.7049;
444.6000;1.3757;0.7025;
444.9000;1.3708;0.6979;
445.2000;1.3700;0.6955;
445.5000;1.3700;0.6932;
445.8000;1.3691;0.6839;
446.1000;1.3691;0.7002;
446.4000;1.3700;0.7002;
446.7000;1.3700;0.7072;
447.0000;1.3683;0.7002;
447.3000;1.3683;0.6979;
447.6000;1.3691;0.6932;
447.9000;1.3683;0.6909;
448.2000;1.3683;0.7002;
448.5000;1.3691;0.7025;
448.8000;1.3700;0.7049;
449.1000;1.3700;0.6979;
449.4000;1.3708;0.7049;
449.7000;1.3683;0.7002;
450.0000;1.3691;0.6932;
450.3000;1.3781;0.7072;
450.6000;1.3675;0.6839;
450.9000;1.3683;0.6885;
451.2000;1.3683;0.6839;
451.5000;1.3700;0.6885;
451.8000;1.3708;0.6932;
452.1000;1.3691;0.6909;
452.4000;1.3708;0.6932;
452.7000;1.3724;0.6932;
453.0000;1.3700;0.6792;
453.3000;1.3691;0.6722;
453.6000;1.3700;0.6722;
453.9000;1.3724;0.6815;
454.2000;1.3748;0.6792;
454.5000;1.3667;0.6582;
454.8000;1.3700;0.6652;
455.1000;1.3691;0.6605;
455.4000;1.3691;0.6629;
455.7000;1.3635;0.6535;
456.0000;1.3700;0.6745;
456.3000;1.3724;0.6815;
456.6000;1.3716;0.6815;
456.9000;1.3700;0.6769;
457.2000;1.3700;0.6769;
457.5000;1.3700;0.6769;
457.8000;1.3724;0.6769;
458.1000;1.3765;0.6909;
458.4000;1.3691;0.6745;
458.7000;1.3675;0.6722;
459.0000;1.3700;0.6839;
459.3000;1.3700;0.6909;
459.6000;1.3708;0.6885;
459.9000;1.3683;0.6769;
460.2000;1.3691;0.6839;
460.5000;1.3683;0.6885;
460.8000;1.3691;0.6909;
461.1000;1.3675;0.6862;
461.4000;1.3708;0.6909;
461.7000;1.3716;0.6885;
462.0000;1.3724;0.6815;
462.3000;1.3716;0.6745;
462.6000;1.3675;0.6675;
462.9000;1.3724;0.6769;
463.2000;1.3708;0.6745;
463.5000;1.3643;0.6582;
463.8000;1.3667;0.6629;
464.1000;1.3740;0.6722;
464.4000;1.3683;0.6652;
464.7000;1.3675;0.6722;
465.0000;1.3659;0.6769;
465.3000;1.3683;0.6815;
465.6000;1.3700;0.6839;
465.9000;1.3691;0.6675;
466.2000;1.3691;0.6629;
466.5000;1.3700;0.6652;
466.8000;1.3700;0.6675;
467.1000;1.3667;0.6582;
467.4000;1.3708;0.6629;
467.7000;1.3700;0.6582;
468.0000;1.3716;0.6699;
468.3000;1.3716;0.6769;
468.6000;1.3700;0.6652;
468.9000;1.3700;0.6722;
469.2000;1.3700;0.6745;
469.5000;1.3716;0.6792;
469.8000;1.3700;0.6652;
470.1000;1.3691;0.6652;
470.4000;1.3708;0.6652;
470.7000;1.3708;0.6699;
471.0000;1.3708;0.6792;
471.3000;1.3691;0.6675;
471.6000;1.3667;0.6535;
471.9000;1.3691;0.6512;
472.2000;1.3708;0.6582;
472.5000;1.3700;0.6629;
472.8000;1.3691;0.6605;
473.1000;1.3700;0.6512;
473.4000;1.3700;0.6535;
473.7000;1.3691;0.6489;
474.0000;1.3700;0.6605;
474.3000;1.3675;0.6489;
474.6000;1.3691;0.6535;
474.9000;1.3691;0.6489;
475.2000;1.3675;0.6512;
475.5000;1.3659;0.6535;
475.8000;1.3683;0.6535;
476.1000;1.3708;0.6559;
476.4000;1.3683;0.6605;
476.7000;1.3675;0.6582;
477.0000;1.3667;0.6535;
477.3000;1.3691;0.6652;
477.6000;1.3700;0.6769;
477.9000;1.3683;0.6769;
478.2000;1.3683;0.6815;
478.5000;1.3675;0.6745;
478.8000;1.3700;0.6792;
479.1000;1.3651;0.6722;
479.4000;1.3700;0.6885;
479.7000;1.3708;0.6979;
480.0000;1.3618;0.6792;
480.3000;1.3675;0.6932;
480.6000;1.3683;0.6862;
480.9000;1.3675;0.6792;
481.2000;1.3700;0.6955;
481.5000;1.3691;0.6909;
481.8000;1.3683;0.6955;
482.1000;1.3683;0.6932;
482.4000;1.3691;0.6955;
482.7000;1.3691;0.7025;
483.0000;1.3691;0.7025;
483.3000;1.3659;0.6909;
483.6000;1.3700;0.6932;
483.9000;1.3716;0.7025;
484.2000;1.3691;0.6932;
484.5000;1.3700;0.6932;
484.8000;1.3691;0.6932;
485.1000;1.3675;0.6769;
485.4000;1.3691;0.6815;
485.7000;1.3683;0.6722;
486.0000;1.3691;0.6745;
486.3000;1.3602;0.6559;
486.6000;1.3691;0.6815;
486.9000;1.3691;0.6769;
487.2000;1.3716;0.6839;
487.5000;1.3683;0.6815;
487.8000;1.3675;0.6885;
488.1000;1.3691;0.6955;
488.4000;1.3708;0.6885;
488.7000;1.3691;0.6839;
489.0000;1.3683;0.6769;
489.3000;1.3683;0.6722;
489.6000;1.3716;0.6815;
489.9000;1.3683;0.6769;
490.2000;1.3683;0.6745;
490.5000;1.3667;0.6769;
490.8000;1.3683;0.6815;
491.1000;1.3683;0.6815;
491.4000;1.3659;0.6745;
491.7000;1.3659;0.6839;
492.0000;1.3667;0.6815;
492.3000;1.3691;0.6862;
492.6000;1.3683;0.6862;
492.9000;1.3724;0.6839;
493.2000;1.3708;0.6769;
493.5000;1.3700;0.6769;
493.8000;1.3683;0.6769;
494.1000;1.3789;0.7072;
494.4000;1.3748;0.7072;
494.7000;1.3691;0.6932;
495.0000;1.3691;0.6979;
495.3000;1.3700;0.6955;
495.6000;1.3700;0.6885;
495.9000;1.3683;0.6839;
496.2000;1.3691;0.6909;
496.5000;1.3708;0.6955;
496.8000;1.3683;0.6932;
497.1000;1.3683;0.6932;
497.4000;1.3683;0.6955;
497.7000;1.3716;0.7049;
498.0000;1.3691;0.6979;
498.3000;1.3659;0.6839;
498.6000;1.3691;0.6932;
498.9000;1.3700;0.6955;
499.2000;1.3708;0.6979;
499.5000;1.3700;0.6979;
499.8000;1.3691;0.7025;
500.1000;1.3691;0.7002;
500.4000;1.3675;0.7002;
500.7000;1.3724;0.7002;
501.0000;1.3708;0.6909;
501.3000;1.3700;0.6839;
501.6000;1.3683;0.6885;
501.9000;1.3667;0.6862;
502.2000;1.3691;0.6932;
502.5000;1.3683;0.6932;
502.8000;1.3691;0.6955;
503.1000;1.3716;0.6932;
503.4000;1.3700;0.6932;
503.7000;1.3708;0.6932;
504.0000;1.3700;0.6839;
504.3000;1.3716;0.6909;
504.6000;1.3700;0.6839;
504.9000;1.3659;0.6769;
505.2000;1.3700;0.6792;
505.5000;1.3708;0.6839;
505.8000;1.3700;0.6839;
506.1000;1.3700;0.6862;
506.4000;1.3700;0.6862;
506.7000;1.3700;0.6862;
507.0000;1.3667;0.6745;
507.3000;1.3700;0.6745;
507.6000;1.3683;0.6815;
507.9000;1.3700;0.6885;
508.2000;1.3724;0.6932;
508.5000;1.3659;0.6862;
508.8000;1.3683;0.6839;
509.1000;1.3643;0.6722;
509.4000;1.3691;0.6839;
509.7000;1.3748;0.7025;
510.0000;1.3724;0.6932;
510.3000;1.3700;0.6862;
510.6000;1.3691;0.6909;
510.9000;1.3700;0.6909;
511.2000;1.3700;0.6885;
511.5000;1.3683;0.6862;
511.8000;1.3691;0.6955;
512.1000;1.3700;0.6932;
512.4000;1.3675;0.6862;
512.7000;1.3683;0.6839;
513.0000;1.3683;0.6815;
513.3000;1.3675;0.6769;
513.6000;1.3683;0.6675;
513.9000;1.3691;0.6745;
514.2000;1.3683;0.6769;
514.5000;1.3708;0.6815;
514.8000;1.3691;0.6722;
515.1000;1.3683;0.6769;
515.4000;1.3691;0.6815;
515.7000;1.3691;0.6769;
516.0000;1.3651;0.6629;
516.3000;1.3700;0.6792;
516.6000;1.3691;0.6839;
516.9000;1.3700;0.6815;
517.2000;1.3700;0.6792;
517.5000;1.3635;0.6629;
517.8000;1.3700;0.6792;
518.1000;1.3691;0.6792;
518.4000;1.3700;0.6862;
518.7000;1.3683;0.6815;
519.0000;1.3683;0.6745;
519.3000;1.3716;0.6769;
519.6000;1.3700;0.6769;
519.9000;1.3700;0.6792;
520.2000;1.3700;0.6932;
520.5000;1.3691;0.6932;
520.8000;1.3691;0.6979;
521.1000;1.3700;0.6885;
521.4000;1.3700;0.6839;
521.7000;1.3708;0.6885;
522.0000;1.3675;0.6885;
522.3000;1.3708;0.6979;
522.6000;1.3708;0.7049;
522.9000;1.3732;0.7189;
523.2000;1.3700;0.7095;
523.5000;1.3708;0.7072;
523.8000;1.3691;0.7002;
524.1000;1.3700;0.6885;
524.4000;1.3691;0.6862;
524.7000;1.3683;0.6792;
525.0000;1.3683;0.6862;
525.3000;1.3675;0.6862;
525.6000;1.3708;0.6932;
525.9000;1.3700;0.6862;
526.2000;1.3724;0.6885;
526.5000;1.3724;0.6932;
526.8000;1.3683;0.6815;
527.1000;1.3667;0.6722;
527.4000;1.3708;0.6955;
527.7000;1.3691;0.6932;
528.0000;1.3700;0.6955;
528.3000;1.3691;0.6932;
528.6000;1.3691;0.7002;
528.9000;1.3691;0.6979;
529.2000;1.3683;0.6885;
529.5000;1.3740;0.6979;
529.8000;1.3683;0.6815;
530.1000;1.3675;0.6792;
530.4000;1.3683;0.6769;
530.7000;1.3740;0.6932;
531.0000;1.3708;0.6769;
531.3000;1.3700;0.6792;
531.6000;1.3635;0.6722;
531.9000;1.3683;0.6862;
532.2000;1.3683;0.6885;
532.5000;1.3700;0.6909;
532.8000;1.3635;0.6769;
533.1000;1.3683;0.6909;
533.4000;1.3691;0.6909;
533.7000;1.3610;0.6629;
534.0000;1.3683;0.6862;
534.3000;1.3675;0.6745;
534.6000;1.3700;0.6699;
534.9000;1.3683;0.6699;
535.2000;1.3675;0.6745;
535.5000;1.3667;0.6582;
535.8000;1.3667;0.6699;
536.1000;1.3691;0.6769;
536.4000;1.3691;0.6699;
536.7000;1.3626;0.6512;
537.0000;1.3683;0.6582;
537.3000;1.3716;0.6699;
537.6000;1.3683;0.6559;
537.9000;1.3683;0.6652;
538.2000;1.3740;0.6792;
538.5000;1.3683;0.6699;
538.8000;1.3691;0.6792;
539.1000;1.3748;0.6909;
539.4000;1.3667;0.6699;
539.7000;1.3683;0.6769;
540.0000;1.3675;0.6769;
540.3000;1.3618;0.6769;
540.6000;1.3667;0.6979;
540.9000;1.3675;0.7025;
541.2000;1.3683;0.6979;
541.5000;1.3659;0.6839;
541.8000;1.3675;0.6815;
542.1000;1.3675;0.6769;
542.4000;1.3691;0.6745;
542.7000;1.3659;0.6675;
543.0000;1.3700;0.6815;
543.3000;1.3675;0.6769;
543.6000;1.3667;0.6792;
543.9000;1.3675;0.6792;
544.2000;1.3708;0.6932;
544.5000;1.3683;0.6932;
544.8000;1.3683;0.6979;
545.1000;1.3667;0.6955;
545.4000;1.3659;0.6932;
545.7000;1.3675;0.6885;
546.0000;1.3683;0.6815;
546.3000;1.3675;0.6862;
546.6000;1.3708;0.6909;
546.9000;1.3683;0.6885;
547.2000;1.3683;0.6862;
547.5000;1.3757;0.7002;
547.8000;1.3683;0.6862;
548.1000;1.3700;0.6792;
548.4000;1.3667;0.6769;
548.7000;1.3683;0.6792;
549.0000;1.3683;0.6745;
549.3000;1.3643;0.6699;
549.6000;1.3700;0.6885;
549.9000;1.3740;0.6955;
550.2000;1.3691;0.6862;
550.5000;1.3700;0.6862;
550.8000;1.3675;0.6815;
551.1000;1.3691;0.6792;
551.4000;1.3683;0.6722;
551.7000;1.3675;0.6815;
552.0000;1.3667;0.6885;
552.3000;1.3683;0.6815;
552.6000;1.3700;0.6839;
552.9000;1.3700;0.6955;
553.2000;1.3716;0.7072;
553.5000;1.3700;0.7095;
553.8000;1.3667;0.6955;
554.1000;1.3700;0.6932;
554.4000;1.3716;0.6955;
554.7000;1.3700;0.6909;
555.0000;1.3691;0.6839;
555.3000;1.3659;0.6769;
555.6000;1.3708;0.6955;
555.9000;1.3683;0.6815;
556.2000;1.3675;0.6815;
556.5000;1.3700;0.6862;
556.8000;1.3691;0.6909;
557.1000;1.3691;0.6815;
557.4000;1.3675;0.6745;
557.7000;1.3691;0.6862;
558.0000;1.3691;0.6932;
558.3000;1.3659;0.6815;
558.6000;1.3651;0.6769;
558.9000;1.3667;0.6839;
559.2000;1.3675;0.6955;
559.5000;1.3675;0.6979;
559.8000;1.3708;0.6979;
560.1000;1.3691;0.6909;
560.4000;1.3602;0.6535;
560.7000;1.3683;0.6745;
561.0000;1.3683;0.6652;
561.3000;1.3618;0.6489;
561.6000;1.3691;0.6605;
561.9000;1.3683;0.6559;
562.2000;1.3683;0.6629;
562.5000;1.3708;0.6815;
562.8000;1.3675;0.6792;
563.1000;1.3757;0.6909;
563.4000;1.3700;0.6792;
563.7000;1.3700;0.6839;
564.0000;1.3675;0.6862;
564.3000;1.3675;0.6932;
564.6000;1.3700;0.6955;
564.9000;1.3675;0.6909;
565.2000;1.3635;0.6745;
565.5000;1.3683;0.6862;
565.8000;1.3700;0.6885;
566.1000;1.3691;0.6862;
566.4000;1.3675;0.6839;
566.7000;1.3675;0.6815;
567.0000;1.3683;0.6745;
567.3000;1.3683;0.6722;
567.6000;1.3683;0.6722;
567.9000;1.3675;0.6629;
568.2000;1.3683;0.6699;
568.5000;1.3691;0.6722;
568.8000;1.3708;0.6769;
569.1000;1.3683;0.6769;
569.4000;1.3683;0.6792;
569.7000;1.3716;0.6955;
570.0000;1.3700;0.6955;
570.3000;1.3683;0.6979;
570.6000;1.3748;0.7142;
570.9000;1.3708;0.7095;
571.2000;1.3691;0.7072;
571.5000;1.3691;0.7095;
571.8000;1.3740;0.7142;
572.1000;1.3667;0.6909;
572.4000;1.3691;0.6955;
572.7000;1.3683;0.6955;
573.0000;1.3675;0.6932;
573.3000;1.3683;0.7025;
573.6000;1.3732;0.7072;
573.9000;1.3708;0.7025;
574.2000;1.3683;0.6979;
574.5000;1.3732;0.7049;
574.8000;1.3691;0.6909;
575.1000;1.3618;0.6815;
575.4000;1.3683;0.7002;
575.7000;1.3675;0.7002;
576.0000;1.3691;0.7025;
576.3000;1.3748;0.7189;
576.6000;1.3716;0.7072;
576.9000;1.3675;0.6932;
577.2000;1.3683;0.6979;
577.5000;1.3691;0.6979;
577.8000;1.3683;0.6955;
578.1000;1.3675;0.6955;
578.4000;1.3675;0.6979;
578.7000;1.3675;0.7025;
579.0000;1.3675;0.7025;
579.3000;1.3675;0.7049;
579.6000;1.3667;0.6979;
579.9000;1.3765;0.7259;
580.2000;1.3691;0.7049;
580.5000;1.3675;0.7002;
580.8000;1.3708;0.7142;
581.1000;1.3691;0.7119;
581.4000;1.3691;0.7142;
581.7000;1.3675;0.7119;
582.0000;1.3683;0.7095;
582.3000;1.3691;0.7119;
582.6000;1.3683;0.7095;
582.9000;1.3691;0.7095;
583.2000;1.3740;0.7212;
583.5000;1.3683;0.7119;
583.8000;1.3675;0.7119;
584.1000;1.3691;0.7119;
584.4000;1.3683;0.7095;
584.7000;1.3683;0.7095;
585.0000;1.3659;0.7072;
585.3000;1.3691;0.7095;
585.6000;1.3675;0.7049;
585.9000;1.3691;0.7072;
586.2000;1.3675;0.7072;
586.5000;1.3659;0.6979;
586.8000;1.3683;0.7049;
587.1000;1.3675;0.7025;
587.4000;1.3691;0.7072;
587.7000;1.3675;0.6979;
588.0000;1.3716;0.7095;
588.3000;1.3675;0.6955;
588.6000;1.3602;0.6885;
588.9000;1.3667;0.7025;
589.2000;1.3691;0.7119;
589.5000;1.3643;0.7119;
589.8000;1.3667;0.7072;
590.1000;1.3659;0.7072;
590.4000;1.3683;0.7095;
590.7000;1.3708;0.7189;
591.0000;1.3708;0.7189;
591.3000;1.3708;0.7166;
591.6000;1.3691;0.7095;
591.9000;1.3700;0.7025;
592.2000;1.3691;0.6979;
592.5000;1.3700;0.6955;
592.8000;1.3683;0.7095;
593.1000;1.3700;0.7119;
593.4000;1.3700;0.7072;
593.7000;1.3667;0.7002;
594.0000;1.3675;0.6955;
594.3000;1.3683;0.6909;
594.6000;1.3659;0.6909;
594.9000;1.3643;0.6885;
595.2000;1.3675;0.6909;
595.5000;1.3667;0.6885;
595.8000;1.3667;0.6909;
596.1000;1.3691;0.6862;
596.4000;1.3683;0.6885;
596.7000;1.3683;0.6932;
597.0000;1.3716;0.7072;
597.3000;1.3659;0.7002;
597.6000;1.3659;0.7002;
597.9000;1.3635;0.7025;
598.2000;1.3675;0.7166;
598.5000;1.3659;0.7095;
598.8000;1.3675;0.7025;
599.1000;1.3586;0.6839;
599.4000;1.3667;0.7049;
599.7000;1.3675;0.7189;
600.0000;1.3675;0.7212;
600.3000;1.3675;0.7142;
600.6000;1.3659;0.6909;
600.9000;1.3602;0.6699;
601.2000;1.3496;0.6489;
601.5000;1.3390;0.6255;
601.8000;1.3268;0.6069;
602.1000;1.3138;0.5835;
602.4000;1.3016;0.5602;
602.7000;1.2910;0.5345;
603.0000;1.2804;0.5112;
603.3000;1.2690;0.4901;
603.6000;1.2560;0.4691;
603.9000;1.2479;0.4528;
604.2000;1.2381;0.4528;
604.5000;1.2381;0.4575;
604.8000;1.2234;0.4248;
605.1000;1.2129;0.4015;
605.4000;1.2055;0.3968;
605.7000;1.1990;0.3875;
606.0000;1.1893;0.3804;
606.3000;1.1836;0.3758;
606.6000;1.1746;0.3641;
606.9000;1.1705;0.3594;
607.2000;1.1632;0.3478;
607.5000;1.1551;0.3361;
607.8000;1.1510;0.3268;
608.1000;1.1429;0.3198;
608.4000;1.1372;0.3174;
608.7000;1.1323;0.3151;
609.0000;1.1249;0.3034;
609.3000;1.1144;0.2894;
609.6000;1.1070;0.2801;
609.9000;1.1087;0.2894;
610.2000;1.1030;0.2801;
610.5000;1.1005;0.2824;
610.8000;1.0932;0.2801;
611.1000;1.0875;0.2661;
611.4000;1.0891;0.2871;
611.7000;1.0769;0.2661;
612.0000;1.0737;0.2661;
612.3000;1.0680;0.2637;
612.6000;1.0582;0.2591;
612.9000;1.0574;0.2684;
613.2000;1.0501;0.2591;
613.5000;1.0484;0.2591;
613.8000;1.0452;0.2497;
614.1000;1.0395;0.2357;
614.4000;1.0362;0.2311;
614.7000;1.0346;0.2357;
615.0000;1.0289;0.2311;
615.3000;1.0224;0.2171;
615.6000;1.0208;0.2264;
615.9000;1.0167;0.2194;
616.2000;1.0134;0.2077;
616.5000;1.0102;0.2007;
616.8000;1.0037;0.1914;
617.1000;1.0020;0.1891;
617.4000;0.9988;0.1937;
617.7000;0.9931;0.1844;
618.0000;0.9906;0.1727;
618.3000;0.9882;0.1657;
618.6000;0.9849;0.1657;
618.9000;0.9817;0.1587;
619.2000;0.9727;0.1447;
619.5000;0.9752;0.1540;
619.8000;0.9695;0.1564;
620.1000;0.9678;0.1587;
620.4000;0.9646;0.1587;
620.7000;0.9613;0.1540;
621.0000;0.9589;0.1447;
621.3000;0.9540;0.1284;
621.6000;0.9532;0.1354;
621.9000;0.9499;0.1400;
622.2000;0.9467;0.1447;
622.5000;0.9475;0.1517;
622.8000;0.9410;0.1447;
623.1000;0.9394;0.1424;
623.4000;0.9337;0.1330;
623.7000;0.9337;0.1400;
624.0000;0.9304;0.1470;
624.3000;0.9280;0.1424;
624.6000;0.9247;0.1424;
624.9000;0.9166;0.1260;
625.2000;0.9239;0.1494;
625.5000;0.9174;0.1330;
625.8000;0.9125;0.1214;
626.1000;0.9141;0.1237;
626.4000;0.9109;0.1237;
626.7000;0.9084;0.1167;
627.0000;0.9076;0.1097;
627.3000;0.9035;0.1004;
627.6000;0.9035;0.1120;
627.9000;0.9035;0.1190;
628.2000;0.8978;0.1074;
628.5000;0.8962;0.1050;
628.8000;0.8954;0.1144;
629.1000;0.8921;0.1167;
629.4000;0.8905;0.1120;
629.7000;0.8881;0.1027;
630.0000;0.8840;0.0980;
630.3000;0.8832;0.0980;
630.6000;0.8799;0.0910;
630.9000;0.8824;0.1027;
631.2000;0.8783;0.1004;
631.5000;0.8767;0.1027;
631.8000;0.8751;0.1097;
632.1000;0.8726;0.1260;
632.4000;0.8685;0.1190;
632.7000;0.8710;0.1260;
633.0000;0.8677;0.1190;
633.3000;0.8669;0.1097;
633.6000;0.8628;0.1027;
633.9000;0.8628;0.1027;
634.2000;0.8620;0.0934;
634.5000;0.8580;0.0887;
634.8000;0.8628;0.1050;
635.1000;0.8571;0.0934;
635.4000;0.8531;0.0934;
635.7000;0.8539;0.0957;
636.0000;0.8523;0.1050;
636.3000;0.8490;0.1027;
636.6000;0.8555;0.1214;
636.9000;0.8482;0.1120;
637.2000;0.8466;0.1074;
637.5000;0.8466;0.1027;
637.8000;0.8433;0.1050;
638.1000;0.8433;0.1004;
638.4000;0.8409;0.1050;
638.7000;0.8409;0.0957;
639.0000;0.8384;0.1004;
639.3000;0.8384;0.0980;
639.6000;0.8352;0.1050;
639.9000;0.8287;0.0887;
640.2000;0.8335;0.1074;
640.5000;0.8335;0.0980;
640.8000;0.8303;0.0934;
641.1000;0.8278;0.0957;
641.4000;0.8287;0.0840;
641.7000;0.8230;0.0747;
642.0000;0.8254;0.0840;
642.3000;0.8254;0.0864;
642.6000;0.8246;0.0840;
642.9000;0.8221;0.0817;
643.2000;0.8221;0.0910;
643.5000;0.8132;0.0794;
643.8000;0.8189;0.0980;
644.1000;0.8164;0.0957;
644.4000;0.8164;0.0980;
644.7000;0.8197;0.1097;
645.0000;0.8091;0.0770;
645.3000;0.8099;0.0887;
645.6000;0.8132;0.1004;
645.9000;0.8107;0.0957;
646.2000;0.8083;0.0980;
646.5000;0.8083;0.0957;
646.8000;0.8083;0.0910;
647.1000;0.8067;0.0910;
647.4000;0.8042;0.0840;
647.7000;0.8050;0.0770;
648.0000;0.8050;0.0794;
648.3000;0.8034;0.0794;
648.6000;0.8018;0.0887;
648.9000;0.8067;0.0980;
649.2000;0.8018;0.0817;
649.5000;0.8002;0.0840;
649.8000;0.7993;0.0934;
650.1000;0.7977;0.0980;
650.4000;0.7985;0.0934;
650.7000;0.7961;0.0887;
651.0000;0.7969;0.0840;
651.3000;0.7961;0.0770;
651.6000;0.7928;0.0724;
651.9000;0.7920;0.0700;
652.2000;0.7880;0.0513;
652.5000;0.7920;0.0654;
652.8000;0.7896;0.0630;
653.1000;0.7880;0.0584;
653.4000;0.7920;0.0794;
653.7000;0.7888;0.0747;
654.0000;0.7871;0.0654;
654.3000;0.7863;0.0607;
654.6000;0.7863;0.0654;
654.9000;0.7855;0.0607;
655.2000;0.7847;0.0654;
655.5000;0.7839;0.0677;
655.8000;0.7839;0.0817;
656.1000;0.7831;0.0817;
656.4000;0.7814;0.0770;
656.7000;0.7798;0.0840;
657.0000;0.7798;0.0840;
657.3000;0.7814;0.0934;
657.6000;0.7782;0.0840;
657.9000;0.7757;0.0794;
658.2000;0.7757;0.0700;
658.5000;0.7774;0.0770;
658.8000;0.7766;0.0630;
659.1000;0.7741;0.0513;
659.4000;0.7733;0.0607;
659.7000;0.7798;0.0864;
660.0000;0.7741;0.0794;
660.3000;0.7692;0.0724;
660.6000;0.7700;0.0770;
660.9000;0.7700;0.0747;
661.2000;0.7700;0.0840;
661.5000;0.7700;0.0887;
661.8000;0.7684;0.0887;
662.1000;0.7684;0.0887;
662.4000;0.7692;0.0887;
662.7000;0.7643;0.0747;
663.0000;0.7643;0.0770;
663.3000;0.7635;0.0770;
663.6000;0.7668;0.0840;
663.9000;0.7692;0.0934;
664.2000;0.7627;0.0817;
664.5000;0.7627;0.0770;
664.8000;0.7627;0.0700;
665.1000;0.7603;0.0630;
665.4000;0.7611;0.0654;
665.7000;0.7586;0.0677;
666.0000;0.7562;0.0654;
666.3000;0.7586;0.0770;
666.6000;0.7652;0.0887;
666.9000;0.7570;0.0677;
667.2000;0.7578;0.0817;
667.5000;0.7586;0.0770;
667.8000;0.7562;0.0747;
668.1000;0.7570;0.0747;
668.4000;0.7570;0.0677;
668.7000;0.7530;0.0654;
669.0000;0.7546;0.0747;
669.3000;0.7546;0.0794;
669.6000;0.7521;0.0817;
669.9000;0.7513;0.0864;
670.2000;0.7530;0.0934;
670.5000;0.7521;0.0957;
670.8000;0.7464;0.0887;
671.1000;0.7497;0.0980;
671.4000;0.7505;0.1004;
671.7000;0.7505;0.0980;
672.0000;0.7513;0.0934;
672.3000;0.7481;0.0840;
672.6000;0.7481;0.1004;
672.9000;0.7481;0.1027;
673.2000;0.7473;0.1004;
673.5000;0.7448;0.1050;
673.8000;0.7432;0.0980;
674.1000;0.7464;0.1050;
674.4000;0.7464;0.1004;
674.7000;0.7448;0.0910;
675.0000;0.7448;0.0957;
675.3000;0.7440;0.0887;
675.6000;0.7432;0.0864;
675.9000;0.7440;0.0887;
676.2000;0.7432;0.0957;
676.5000;0.7440;0.0934;
676.8000;0.7399;0.0910;
677.1000;0.7432;0.0934;
677.4000;0.7391;0.0864;
677.7000;0.7416;0.0910;
678.0000;0.7399;0.0840;
678.3000;0.7383;0.0864;
678.6000;0.7375;0.0864;
678.9000;0.7391;0.0934;
679.2000;0.7359;0.0910;
679.5000;0.7383;0.1004;
679.8000;0.7359;0.0957;
680.1000;0.7367;0.0980;
680.4000;0.7318;0.0887;
680.7000;0.7318;0.0864;
681.0000;0.7350;0.0887;
681.3000;0.7342;0.0817;
681.6000;0.7391;0.0934;
681.9000;0.7326;0.0770;
682.2000;0.7334;0.0724;
682.5000;0.7375;0.0817;
682.8000;0.7326;0.0770;
683.1000;0.7326;0.0817;
683.4000;0.7318;0.0794;
683.7000;0.7326;0.0840;
684.0000;0.7318;0.0864;
684.3000;0.7326;0.0957;
684.6000;0.7302;0.0887;
684.9000;0.7293;0.0794;
685.2000;0.7293;0.0817;
685.5000;0.7326;0.0887;
685.8000;0.7310;0.0864;
686.1000;0.7285;0.0864;
686.4000;0.7269;0.0864;
686.7000;0.7269;0.0910;
687.0000;0.7277;0.0980;
687.3000;0.7293;0.1097;
687.6000;0.7285;0.1097;
687.9000;0.7236;0.1004;
688.2000;0.7277;0.1050;
688.5000;0.7253;0.1050;
688.8000;0.7261;0.1050;
689.1000;0.7236;0.1004;
689.4000;0.7269;0.1004;
689.7000;0.7171;0.0724;
690.0000;0.7196;0.0817;
690.3000;0.7228;0.0887;
690.6000;0.7236;0.0840;
690.9000;0.7245;0.0770;
691.2000;0.7228;0.0700;
691.5000;0.7236;0.0747;
691.8000;0.7212;0.0794;
692.1000;0.7171;0.0724;
692.4000;0.7220;0.0864;
692.7000;0.7212;0.0887;
693.0000;0.7228;0.0980;
693.3000;0.7179;0.0840;
693.6000;0.7212;0.0934;
693.9000;0.7171;0.0934;
694.2000;0.7179;0.0957;
694.5000;0.7204;0.0934;
694.8000;0.7212;0.0887;
695.1000;0.7171;0.0700;
695.4000;0.7171;0.0747;
695.7000;0.7188;0.0700;
696.0000;0.7212;0.0677;
696.3000;0.7163;0.0584;
696.6000;0.7171;0.0630;
696.9000;0.7155;0.0584;
697.2000;0.7171;0.0630;
697.5000;0.7147;0.0654;
697.8000;0.7098;0.0560;
698.1000;0.7155;0.0747;
698.4000;0.7147;0.0677;
698.7000;0.7147;0.0677;
699.0000;0.7228;0.1027;
699.3000;0.7131;0.0794;
699.6000;0.7155;0.0864;
699.9000;0.7163;0.1097;
700.2000;0.7139;0.0980;
700.5000;0.7155;0.1027;
700.8000;0.7123;0.1097;
701.1000;0.7139;0.1144;
701.4000;0.7114;0.1144;
701.7000;0.7066;0.0980;
702.0000;0.7106;0.1097;
702.3000;0.7114;0.1097;
702.6000;0.7106;0.1050;
702.9000;0.7131;0.1050;
703.2000;0.7114;0.1027;
703.5000;0.7123;0.1004;
703.8000;0.7098;0.1004;
704.1000;0.7082;0.1004;
704.4000;0.7090;0.0980;
704.7000;0.7098;0.0980;
705.0000;0.7082;0.0887;
705.3000;0.7082;0.0864;
705.6000;0.7090;0.0864;
705.9000;0.7090;0.0840;
706.2000;0.7090;0.0887;
706.5000;0.7082;0.0864;
706.8000;0.7066;0.0887;
707.1000;0.7066;0.0957;
707.4000;0.7017;0.0980;
707.7000;0.7090;0.1214;
708.0000;0.7057;0.1144;
708.3000;0.7049;0.1097;
708.6000;0.7066;0.1144;
708.9000;0.7057;0.1097;
709.2000;0.7074;0.1074;
709.5000;0.7057;0.0957;
709.8000;0.7057;0.0957;
710.1000;0.7074;0.1004;
710.4000;0.7057;0.0934;
710.7000;0.7066;0.0887;
711.0000;0.7074;0.0934;
711.3000;0.7049;0.0864;
711.6000;0.7049;0.0864;
711.9000;0.7074;0.0910;
712.2000;0.7041;0.0887;
712.5000;0.7033;0.0770;
712.8000;0.7090;0.0957;
713.1000;0.7041;0.0864;
713.4000;0.7041;0.0864;
713.7000;0.7057;0.0887;
714.0000;0.7066;0.0934;
714.3000;0.7017;0.0840;
714.6000;0.7017;0.0887;
714.9000;0.7017;0.0910;
715.2000;0.7025;0.0934;
715.5000;0.6984;0.0934;
715.8000;0.7000;0.1027;
716.1000;0.6968;0.1027;
716.4000;0.6992;0.1120;
716.7000;0.6984;0.1097;
717.0000;0.6992;0.1027;
717.3000;0.6984;0.1004;
717.6000;0.6992;0.1027;
717.9000;0.6992;0.1027;
718.2000;0.6984;0.0980;
718.5000;0.7025;0.1097;
718.8000;0.7000;0.1097;
719.1000;0.6976;0.0957;
719.4000;0.6976;0.0957;
719.7000;0.6968;0.0934;
720.0000;0.6968;0.0934;
720.3000;0.6960;0.0910;
720.6000;0.6968;0.0910;
720.9000;0.6952;0.0910;
721.2000;0.6976;0.0957;
721.5000;0.6943;0.0910;
721.8000;0.6960;0.1097;
722.1000;0.6943;0.1027;
722.4000;0.6984;0.1050;
722.7000;0.6960;0.1074;
723.0000;0.6960;0.1050;
723.3000;0.7000;0.1144;
723.6000;0.6952;0.1004;
723.9000;0.6952;0.1097;
724.2000;0.6960;0.1120;
724.5000;0.6952;0.1144;
724.8000;0.6943;0.1074;
725.1000;0.6952;0.1097;
725.4000;0.6919;0.0957;
725.7000;0.7017;0.1144;
726.0000;0.6952;0.0957;
726.3000;0.6903;0.0957;
726.6000;0.6935;0.1050;
726.9000;0.6919;0.0980;
727.2000;0.6943;0.1050;
727.5000;0.6903;0.0957;
727.8000;0.6911;0.0957;
728.1000;0.6919;0.0910;
728.4000;0.6927;0.0934;
728.7000;0.6927;0.1027;
729.0000;0.6927;0.1074;
729.3000;0.6911;0.0980;
729.6000;0.6919;0.0910;
729.9000;0.6903;0.0770;
730.2000;0.6935;0.0817;
730.5000;0.6911;0.0794;
730.8000;0.6886;0.0724;
731.1000;0.6968;0.0910;
731.4000;0.6886;0.0724;
731.7000;0.6919;0.0840;
732.0000;0.6911;0.0794;
732.3000;0.6886;0.0700;
732.6000;0.6927;0.0864;
732.9000;0.6895;0.0817;
733.2000;0.6935;0.0910;
733.5000;0.6886;0.0864;
733.8000;0.6943;0.0957;
734.1000;0.6862;0.0770;
734.4000;0.6911;0.0910;
734.7000;0.6903;0.0817;
735.0000;0.6878;0.0747;
735.3000;0.6886;0.0840;
735.6000;0.6878;0.0770;
735.9000;0.6813;0.0630;
736.2000;0.6878;0.0887;
736.5000;0.6862;0.0934;
736.8000;0.6862;0.1050;
737.1000;0.6870;0.1050;
737.4000;0.6878;0.1050;
737.7000;0.6862;0.1050;
738.0000;0.6878;0.1097;
738.3000;0.6862;0.1074;
738.6000;0.6862;0.1120;
738.9000;0.6846;0.1144;
739.2000;0.6870;0.1167;
739.5000;0.6862;0.1144;
739.8000;0.6862;0.1214;
740.1000;0.6846;0.1167;
740.4000;0.6854;0.1097;
740.7000;0.6878;0.1050;
741.0000;0.6878;0.1004;
741.3000;0.6813;0.0910;
741.6000;0.6829;0.0980;
741.9000;0.6846;0.1050;
742.2000;0.6854;0.1004;
742.5000;0.6862;0.1004;
742.8000;0.6878;0.0980;
743.1000;0.6838;0.0864;
743.4000;0.6846;0.1004;
743.7000;0.6821;0.0957;
744.0000;0.6870;0.1027;
744.3000;0.6829;0.0957;
744.6000;0.6846;0.0980;
744.9000;0.6846;0.1004;
745.2000;0.6829;0.0980;
745.5000;0.6805;0.0887;
745.8000;0.6829;0.0887;
746.1000;0.6846;0.0910;
746.4000;0.6829;0.0934;
746.7000;0.6829;0.1027;
747.0000;0.6829;0.1027;
747.3000;0.6838;0.1004;
747.6000;0.6821;0.0934;
747.9000;0.6821;0.0957;
748.2000;0.6805;0.0887;
748.5000;0.6829;0.0957;
748.8000;0.6821;0.0934;
749.1000;0.6797;0.0887;
749.4000;0.6797;0.0934;
749.7000;0.6854;0.1097;
750.0000;0.6797;0.1004;
750.3000;0.6781;0.0934;
750.6000;0.6805;0.0934;
750.9000;0.6797;0.0980;
751.2000;0.6797;0.0934;
751.5000;0.6805;0.1004;
751.8000;0.6797;0.0910;
752.1000;0.6797;0.0957;
752.4000;0.6813;0.0887;
752.7000;0.6740;0.0770;
753.0000;0.6772;0.0864;
753.3000;0.6789;0.1004;
753.6000;0.6789;0.1097;
753.9000;0.6781;0.1074;
754.2000;0.6764;0.1074;
754.5000;0.6772;0.1144;
754.8000;0.6772;0.1190;
755.1000;0.6772;0.1097;
755.4000;0.6781;0.1167;
755.7000;0.6781;0.1260;
756.0000;0.6781;0.1307;
756.3000;0.6789;0.1284;
756.6000;0.6772;0.1214;
756.9000;0.6764;0.1144;
757.2000;0.6789;0.1120;
757.5000;0.6772;0.1050;
757.8000;0.6789;0.1120;
758.1000;0.6772;0.1027;
758.4000;0.6764;0.1050;
758.7000;0.6789;0.1097;
759.0000;0.6781;0.1144;
759.3000;0.6764;0.1074;
759.6000;0.6764;0.0980;
759.9000;0.6772;0.0957;
760.2000;0.6797;0.1050;
760.5000;0.6821;0.1307;
760.8000;0.6846;0.1330;
761.1000;0.6781;0.1097;
761.4000;0.6772;0.1050;
761.7000;0.6764;0.1097;
762.0000;0.6764;0.1190;
762.3000;0.6740;0.1167;
762.6000;0.6756;0.1144;
762.9000;0.6756;0.1120;
763.2000;0.6740;0.1074;
763.5000;0.6764;0.1120;
763.8000;0.6748;0.1027;
764.1000;0.6805;0.1120;
764.4000;0.6756;0.1027;
764.7000;0.6772;0.1027;
765.0000;0.6732;0.0980;
765.3000;0.6716;0.0934;
765.6000;0.6740;0.0980;
765.9000;0.6756;0.1074;
766.2000;0.6732;0.1050;
766.5000;0.6764;0.1097;
766.8000;0.6740;0.1027;
767.1000;0.6748;0.1074;
767.4000;0.6716;0.1004;
767.7000;0.6748;0.1074;
768.0000;0.6740;0.1074;
768.3000;0.6772;0.1144;
768.6000;0.6732;0.1027;
768.9000;0.6724;0.0934;
769.2000;0.6724;0.0910;
769.5000;0.6732;0.0910;
769.8000;0.6724;0.0887;
770.1000;0.6716;0.1004;
770.4000;0.6764;0.1097;
770.7000;0.6732;0.0934;
771.0000;0.6724;0.0910;
771.3000;0.6716;0.0934;
771.6000;0.6732;0.1004;
771.9000;0.6724;0.0957;
772.2000;0.6756;0.1074;
772.5000;0.6716;0.0887;
772.8000;0.6716;0.0934;
773.1000;0.6716;0.1004;
773.4000;0.6724;0.1097;
773.7000;0.6707;0.1074;
774.0000;0.6716;0.1097;
774.3000;0.6732;0.1120;
774.6000;0.6724;0.1167;
774.9000;0.6691;0.1167;
775.2000;0.6716;0.1120;
775.5000;0.6683;0.1074;
775.8000;0.6716;0.1004;
776.1000;0.6716;0.1050;
776.4000;0.6740;0.1027;
776.7000;0.6716;0.0934;
777.0000;0.6707;0.0934;
777.3000;0.6716;0.0887;
777.6000;0.6707;0.0840;
777.9000;0.6707;0.0817;
778.2000;0.6716;0.0910;
778.5000;0.6691;0.0887;
778.8000;0.6699;0.0887;
779.1000;0.6716;0.0957;
779.4000;0.6707;0.0980;
779.7000;0.6732;0.1050;
780.0000;0.6675;0.1004;
780.3000;0.6740;0.1144;
780.6000;0.6699;0.1027;
780.9000;0.6683;0.1004;
781.2000;0.6659;0.0980;
781.5000;0.6691;0.0980;
781.8000;0.6699;0.1004;
782.1000;0.6675;0.0980;
782.4000;0.6716;0.1144;
782.7000;0.6756;0.1260;
783.0000;0.6675;0.1074;
783.3000;0.6691;0.1120;
783.6000;0.6675;0.1050;
783.9000;0.6691;0.1190;
784.2000;0.6675;0.1074;
784.5000;0.6716;0.1167;
784.8000;0.6626;0.0957;
785.1000;0.6659;0.1004;
785.4000;0.6675;0.1004;
785.7000;0.6699;0.1027;
786.0000;0.6667;0.0934;
786.3000;0.6691;0.0957;
786.6000;0.6675;0.0957;
786.9000;0.6659;0.0864;
787.2000;0.6675;0.0910;
787.5000;0.6675;0.0957;
787.8000;0.6675;0.0980;
788.1000;0.6683;0.1027;
788.4000;0.6699;0.1050;
788.7000;0.6683;0.0980;
789.0000;0.6667;0.1004;
789.3000;0.6691;0.1120;
789.6000;0.6683;0.1097;
789.9000;0.6626;0.0887;
790.2000;0.6650;0.0910;
790.5000;0.6659;0.0980;
790.8000;0.6659;0.1050;
791.1000;0.6659;0.1027;
791.4000;0.6618;0.1027;
791.7000;0.6642;0.1167;
792.0000;0.6659;0.1144;
792.3000;0.6659;0.1190;
792.6000;0.6659;0.1260;
792.9000;0.6650;0.1237;
793.2000;0.6642;0.1307;
793.5000;0.6634;0.1167;
793.8000;0.6667;0.1214;
794.1000;0.6667;0.1167;
794.4000;0.6642;0.1074;
794.7000;0.6650;0.1120;
795.0000;0.6667;0.1097;
795.3000;0.6659;0.1144;
795.6000;0.6642;0.1050;
795.9000;0.6642;0.1027;
796.2000;0.6650;0.1074;
796.5000;0.6650;0.1004;
796.8000;0.6642;0.1027;
797.1000;0.6642;0.1050;
797.4000;0.6667;0.1167;
797.7000;0.6650;0.1144;
798.0000;0.6626;0.1214;
798.3000;0.6642;0.1284;
798.6000;0.6610;0.1214;
798.9000;0.6642;0.1190;
799.2000;0.6626;0.1120;
799.5000;0.6716;0.1260;
799.8000;0.6659;0.1190;
800.1000;0.6650;0.1144;
800.4000;0.6626;0.1074;
800.7000;0.6634;0.1237;
801.0000;0.6634;0.1260;
801.3000;0.6634;0.1190;
801.6000;0.6626;0.1190;
801.9000;0.6634;0.1260;
802.2000;0.6602;0.1214;
802.5000;0.6610;0.1237;
802.8000;0.6618;0.1237;
803.1000;0.6667;0.1284;
803.4000;0.6626;0.1214;
803.7000;0.6667;0.1354;
804.0000;0.6642;0.1330;
804.3000;0.6626;0.1307;
804.6000;0.6610;0.1237;
804.9000;0.6626;0.1284;
805.2000;0.6675;0.1400;
805.5000;0.6626;0.1284;
805.8000;0.6626;0.1237;
806.1000;0.6626;0.1190;
806.4000;0.6626;0.1190;
806.7000;0.6610;0.1074;
807.0000;0.6667;0.1190;
807.3000;0.6675;0.1167;
807.6000;0.6618;0.1074;
807.9000;0.6593;0.1004;
808.2000;0.6569;0.1027;
808.5000;0.6602;0.1120;
808.8000;0.6577;0.1050;
809.1000;0.6626;0.1167;
809.4000;0.6634;0.1190;
809.7000;0.6626;0.1190;
810.0000;0.6618;0.1167;
810.3000;0.6618;0.1190;
810.6000;0.6610;0.1260;
810.9000;0.6602;0.1190;
811.2000;0.6610;0.1214;
811.5000;0.6593;0.1167;
811.8000;0.6561;0.1050;
812.1000;0.6593;0.1097;
812.4000;0.6610;0.1120;
812.7000;0.6593;0.1097;
813.0000;0.6602;0.1190;
813.3000;0.6602;0.1097;
813.6000;0.6593;0.1004;
813.9000;0.6618;0.1027;
814.2000;0.6618;0.1120;
814.5000;0.6593;0.1144;
814.8000;0.6602;0.1237;
815.1000;0.6602;0.1190;
815.4000;0.6659;0.1354;
815.7000;0.6593;0.1144;
816.0000;0.6585;0.1050;
816.3000;0.6585;0.1050;
816.6000;0.6585;0.1120;
816.9000;0.6593;0.1074;
817.2000;0.6593;0.1027;
817.5000;0.6593;0.1004;
817.8000;0.6602;0.1050;
818.1000;0.6602;0.1097;
818.4000;0.6610;0.1097;
818.7000;0.6585;0.1120;
819.0000;0.6650;0.1284;
819.3000;0.6585;0.1074;
819.6000;0.6593;0.1144;
819.9000;0.6569;0.1120;
820.2000;0.6585;0.1120;
820.5000;0.6610;0.1190;
820.8000;0.6585;0.1167;
821.1000;0.6585;0.1144;
821.4000;0.6585;0.1144;
821.7000;0.6593;0.1097;
822.0000;0.6585;0.1027;
822.3000;0.6577;0.1027;
822.6000;0.6479;0.0677;
822.9000;0.6593;0.0957;
823.2000;0.6593;0.0980;
823.5000;0.6593;0.1050;
823.8000;0.6634;0.1097;
824.1000;0.6585;0.0934;
824.4000;0.6585;0.0980;
824.7000;0.6577;0.1027;
825.0000;0.6577;0.1074;
825.3000;0.6569;0.1120;
825.6000;0.6610;0.1237;
825.9000;0.6577;0.1190;
826.2000;0.6569;0.1190;
826.5000;0.6577;0.1190;
826.8000;0.6585;0.1144;
827.1000;0.6593;0.1097;
827.4000;0.6561;0.1004;
827.7000;0.6569;0.1097;
828.0000;0.6569;0.1167;
828.3000;0.6577;0.1190;
828.6000;0.6569;0.1144;
828.9000;0.6553;0.1074;
829.2000;0.6593;0.1074;
829.5000;0.6569;0.1027;
829.8000;0.6577;0.0980;
830.1000;0.6569;0.0864;
830.4000;0.6561;0.0794;
830.7000;0.6553;0.0770;
831.0000;0.6585;0.0910;
831.3000;0.6577;0.0934;
831.6000;0.6553;0.0934;
831.9000;0.6585;0.0957;
832.2000;0.6512;0.0794;
832.5000;0.6569;0.0957;
832.8000;0.6561;0.0957;
833.1000;0.6553;0.0957;
833.4000;0.6569;0.0934;
833.7000;0.6553;0.1004;
834.0000;0.6561;0.1050;
834.3000;0.6536;0.0957;
834.6000;0.6577;0.0980;
834.9000;0.6561;0.1050;
835.2000;0.6553;0.1027;
835.5000;0.6593;0.1144;
835.8000;0.6569;0.1097;
836.1000;0.6569;0.1120;
836.4000;0.6569;0.1120;
836.7000;0.6553;0.1120;
837.0000;0.6569;0.1120;
837.3000;0.6561;0.1097;
837.6000;0.6553;0.1050;
837.9000;0.6520;0.0864;
838.2000;0.6553;0.0910;
838.5000;0.6536;0.0910;
838.8000;0.6561;0.0980;
839.1000;0.6496;0.0840;
839.4000;0.6528;0.0934;
839.7000;0.6569;0.0957;
840.0000;0.6553;0.0864;
840.3000;0.6561;0.0864;
840.6000;0.6553;0.0864;
840.9000;0.6536;0.0864;
841.2000;0.6553;0.0934;
841.5000;0.6545;0.0957;
841.8000;0.6536;0.0910;
842.1000;0.6536;0.0934;
842.4000;0.6545;0.0980;
842.7000;0.6545;0.0980;
843.0000;0.6553;0.0980;
843.3000;0.6561;0.0980;
843.6000;0.6561;0.0980;
843.9000;0.6561;0.0980;
844.2000;0.6561;0.0910;
844.5000;0.6553;0.0887;
844.8000;0.6561;0.0957;
845.1000;0.6545;0.0934;
845.4000;0.6545;0.0934;
845.7000;0.6553;0.1027;
846.0000;0.6536;0.0980;
846.3000;0.6545;0.1120;
846.6000;0.6536;0.1144;
846.9000;0.6536;0.1144;
847.2000;0.6536;0.1190;
847.5000;0.6528;0.1097;
847.8000;0.6577;0.1214;
848.1000;0.6553;0.1190;
848.4000;0.6536;0.1167;
848.7000;0.6504;0.1074;
849.0000;0.6545;0.1097;
849.3000;0.6512;0.1027;
849.6000;0.6536;0.1144;
849.9000;0.6512;0.1097;
850.2000;0.6528;0.1190;
850.5000;0.6528;0.1097;
850.8000;0.6520;0.1097;
851.1000;0.6512;0.1027;
851.4000;0.6528;0.1120;
851.7000;0.6553;0.1120;
852.0000;0.6520;0.1027;
852.3000;0.6520;0.1004;
852.6000;0.6528;0.1074;
852.9000;0.6528;0.1027;
853.2000;0.6520;0.1074;
853.5000;0.6512;0.1027;
853.8000;0.6512;0.1050;
854.1000;0.6528;0.1097;
854.4000;0.6512;0.1074;
854.7000;0.6520;0.1004;
855.0000;0.6520;0.0980;
855.3000;0.6528;0.0887;
855.6000;0.6520;0.0864;
855.9000;0.6520;0.0887;
856.2000;0.6471;0.0864;
856.5000;0.6585;0.1190;
856.8000;0.6455;0.0747;
857.1000;0.6536;0.0840;
857.4000;0.6520;0.0677;
857.7000;0.6520;0.0747;
858.0000;0.6528;0.0794;
858.3000;0.6520;0.0864;
858.6000;0.6520;0.0840;
858.9000;0.6553;0.0957;
859.2000;0.6528;0.0910;
859.5000;0.6520;0.0934;
859.8000;0.6528;0.1027;
860.1000;0.6504;0.1004;
860.4000;0.6528;0.1190;
860.7000;0.6520;0.1237;
861.0000;0.6520;0.1167;
861.3000;0.6479;0.1074;
861.6000;0.6520;0.1190;
861.9000;0.6471;0.1120;
862.2000;0.6520;0.1237;
862.5000;0.6512;0.1167;
862.8000;0.6528;0.1260;
863.1000;0.6504;0.1167;
863.4000;0.6512;0.1190;
863.7000;0.6496;0.1190;
864.0000;0.6488;0.1120;
864.3000;0.6512;0.1307;
864.6000;0.6504;0.1214;
864.9000;0.6496;0.1097;
865.2000;0.6504;0.1097;
865.5000;0.6496;0.1050;
865.8000;0.6504;0.1050;
866.1000;0.6512;0.1074;
866.4000;0.6496;0.1004;
866.7000;0.6488;0.1027;
867.0000;0.6520;0.1120;
867.3000;0.6504;0.0957;
867.6000;0.6512;0.0957;
867.9000;0.6504;0.0957;
868.2000;0.6504;0.1004;
868.5000;0.6504;0.1050;
868.8000;0.6488;0.1144;
869.1000;0.6504;0.1214;
869.4000;0.6520;0.1190;
869.7000;0.6512;0.1120;
870.0000;0.6496;0.1097;
870.3000;0.6488;0.1050;
870.6000;0.6512;0.1190;
870.9000;0.6504;0.1144;
871.2000;0.6504;0.1074;
871.5000;0.6414;0.0934;
871.8000;0.6479;0.1074;
872.1000;0.6479;0.1097;
872.4000;0.6488;0.1097;
872.7000;0.6545;0.1284;
873.0000;0.6504;0.1214;
873.3000;0.6504;0.1237;
873.6000;0.6520;0.1214;
873.9000;0.6488;0.1144;
874.2000;0.6520;0.1190;
874.5000;0.6528;0.1167;
874.8000;0.6447;0.1004;
875.1000;0.6488;0.1144;
875.4000;0.6455;0.1097;
875.7000;0.6447;0.1120;
876.0000;0.6479;0.1120;
876.3000;0.6488;0.1190;
876.6000;0.6463;0.1097;
876.9000;0.6479;0.1167;
877.2000;0.6504;0.1307;
877.5000;0.6561;0.1447;
877.8000;0.6496;0.1260;
878.1000;0.6455;0.1144;
878.4000;0.6496;0.1284;
878.7000;0.6512;0.1260;
879.0000;0.6504;0.1214;
879.3000;0.6504;0.1260;
879.6000;0.6496;0.1214;
879.9000;0.6504;0.1307;
880.2000;0.6471;0.1167;
880.5000;0.6512;0.1237;
880.8000;0.6488;0.1144;
881.1000;0.6545;0.1237;
881.4000;0.6471;0.1074;
881.7000;0.6488;0.1074;
882.0000;0.6471;0.1050;
882.3000;0.6496;0.1144;
882.6000;0.6471;0.1097;
882.9000;0.6488;0.1167;
883.2000;0.6479;0.1144;
883.5000;0.6496;0.1214;
883.8000;0.6512;0.1260;
884.1000;0.6504;0.1307;
884.4000;0.6471;0.1190;
884.7000;0.6479;0.1167;
885.0000;0.6504;0.1167;
885.3000;0.6479;0.1144;
885.6000;0.6488;0.1097;
885.9000;0.6479;0.1004;
886.2000;0.6479;0.0980;
886.5000;0.6471;0.0864;
886.8000;0.6496;0.0934;
887.1000;0.6479;0.0887;
887.4000;0.6479;0.0957;
887.7000;0.6455;0.0957;
888.0000;0.6463;0.0957;
888.3000;0.6471;0.1074;
888.6000;0.6479;0.1144;
888.9000;0.6463;0.1144;
889.2000;0.6471;0.1144;
889.5000;0.6479;0.1190;
889.8000;0.6463;0.1144;
890.1000;0.6488;0.1214;
890.4000;0.6479;0.1214;
890.7000;0.6512;0.1260;
891.0000;0.6463;0.1027;
891.3000;0.6479;0.1027;
891.6000;0.6431;0.0887;
891.9000;0.6463;0.0910;
892.2000;0.6463;0.0934;
892.5000;0.6463;0.0957;
892.8000;0.6463;0.0910;
893.1000;0.6471;0.0934;
893.4000;0.6471;0.0957;
893.7000;0.6463;0.0934;
894.0000;0.6471;0.1050;
894.3000;0.6479;0.1004;
894.6000;0.6455;0.0957;
894.9000;0.6488;0.1027;
895.2000;0.6471;0.1050;
895.5000;0.6512;0.1097;
895.8000;0.6447;0.0934;
896.1000;0.6463;0.1074;
896.4000;0.6471;0.1074;
896.7000;0.6479;0.1074;
897.0000;0.6479;0.1074;
897.3000;0.6471;0.1120;
897.6000;0.6431;0.0980;
897.9000;0.6504;0.1190;
898.2000;0.6431;0.1050;
898.5000;0.6504;0.1237;
898.8000;0.6431;0.1097;
899.1000;0.6463;0.1050;
899.4000;0.6471;0.1050;
899.7000;0.6439;0.1074;
900.0000;0.6455;0.1027;
900.3000;0.6463;0.1120;
900.6000;0.6471;0.1167;
900.9000;0.6471;0.1214;
901.2000;0.6463;0.1190;
901.5000;0.6447;0.1120;
901.8000;0.6439;0.1050;
902.1000;0.6463;0.1027;
902.4000;0.6463;0.1120;
902.7000;0.6455;0.1027;
903.0000;0.6512;0.1167;
903.3000;0.6504;0.1120;
903.6000;0.6463;0.1050;
903.9000;0.6447;0.1144;
904.2000;0.6455;0.1237;
904.5000;0.6479;0.1284;
904.8000;0.6496;0.1307;
905.1000;0.6447;0.1284;
905.4000;0.6463;0.1400;
905.7000;0.6463;0.1424;
906.0000;0.6471;0.1424;
906.3000;0.6545;0.1610;
906.6000;0.6479;0.1400;
906.9000;0.6463;0.1400;
907.2000;0.6463;0.1307;
907.5000;0.6447;0.1307;
907.8000;0.6455;0.1354;
908.1000;0.6447;0.1400;
908.4000;0.6471;0.1447;
908.7000;0.6463;0.1377;
909.0000;0.6447;0.1307;
909.3000;0.6447;0.1377;
909.6000;0.6447;0.1447;
909.9000;0.6455;0.1447;
910.2000;0.6447;0.1354;
910.5000;0.6455;0.1284;
910.8000;0.6455;0.1120;
911.1000;0.6455;0.1167;
911.4000;0.6471;0.1307;
911.7000;0.6447;0.1237;
912.0000;0.6463;0.1354;
912.3000;0.6447;0.1377;
912.6000;0.6431;0.1330;
912.9000;0.6455;0.1354;
913.2000;0.6439;0.1354;
913.5000;0.6447;0.1377;
913.8000;0.6455;0.1400;
914.1000;0.6455;0.1400;
914.4000;0.6463;0.1424;
914.7000;0.6455;0.1307;
915.0000;0.6447;0.1284;
915.3000;0.6431;0.1214;
915.6000;0.6463;0.1237;
915.9000;0.6447;0.1190;
916.2000;0.6455;0.1284;
916.5000;0.6479;0.1354;
916.8000;0.6447;0.1214;
917.1000;0.6447;0.1260;
917.4000;0.6463;0.1237;
917.7000;0.6512;0.1307;
918.0000;0.6447;0.1144;
918.3000;0.6439;0.1190;
918.6000;0.6455;0.1237;
918.9000;0.6447;0.1260;
919.2000;0.6414;0.1237;
919.5000;0.6447;0.1354;
919.8000;0.6455;0.1470;
920.1000;0.6447;0.1470;
920.4000;0.6455;0.1424;
920.7000;0.6463;0.1354;
921.0000;0.6471;0.1377;
921.3000;0.6455;0.1330;
921.6000;0.6463;0.1424;
921.9000;0.6455;0.1447;
922.2000;0.6455;0.1424;
922.5000;0.6447;0.1377;
922.8000;0.6439;0.1377;
923.1000;0.6431;0.1400;
923.4000;0.6431;0.1400;
923.7000;0.6447;0.1470;
924.0000;0.6447;0.1400;
924.3000;0.6439;0.1354;
924.6000;0.6447;0.1424;
924.9000;0.6422;0.1377;
925.2000;0.6447;0.1424;
925.5000;0.6447;0.1400;
925.8000;0.6447;0.1377;
926.1000;0.6439;0.1354;
926.4000;0.6439;0.1307;
926.7000;0.6431;0.1284;
927.0000;0.6439;0.1354;
927.3000;0.6447;0.1330;
927.6000;0.6439;0.1354;
927.9000;0.6439;0.1424;
928.2000;0.6422;0.1517;
928.5000;0.6439;0.1517;
928.8000;0.6439;0.1424;
929.1000;0.6431;0.1377;
929.4000;0.6398;0.1284;
929.7000;0.6422;0.1260;
930.0000;0.6439;0.1330;
930.3000;0.6471;0.1424;
930.6000;0.6422;0.1284;
930.9000;0.6488;0.1377;
931.2000;0.6488;0.1400;
931.5000;0.6455;0.1354;
931.8000;0.6496;0.1400;
932.1000;0.6463;0.1377;
932.4000;0.6365;0.1214;
932.7000;0.6431;0.1400;
933.0000;0.6422;0.1377;
933.3000;0.6439;0.1424;
933.6000;0.6406;0.1424;
933.9000;0.6414;0.1424;
934.2000;0.6390;0.1330;
934.5000;0.6414;0.1424;
934.8000;0.6414;0.1377;
935.1000;0.6422;0.1424;
935.4000;0.6390;0.1377;
935.7000;0.6398;0.1424;
936.0000;0.6390;0.1424;
936.3000;0.6414;0.1470;
936.6000;0.6431;0.1494;
936.9000;0.6414;0.1470;
937.2000;0.6422;0.1540;
937.5000;0.6431;0.1564;
937.8000;0.6422;0.1517;
938.1000;0.6439;0.1587;
938.4000;0.6422;0.1564;
938.7000;0.6422;0.1610;
939.0000;0.6431;0.1564;
939.3000;0.6422;0.1610;
939.6000;0.6325;0.1284;
939.9000;0.6431;0.1470;
940.2000;0.6398;0.1377;
940.5000;0.6431;0.1447;
940.8000;0.6406;0.1330;
941.1000;0.6479;0.1494;
941.4000;0.6431;0.1424;
941.7000;0.6422;0.1424;
942.0000;0.6414;0.1424;
942.3000;0.6422;0.1354;
942.6000;0.6374;0.1167;
942.9000;0.6431;0.1307;
943.2000;0.6431;0.1284;
943.5000;0.6431;0.1260;
943.8000;0.6414;0.1260;
944.1000;0.6406;0.1237;
944.4000;0.6414;0.1307;
944.7000;0.6414;0.1307;
945.0000;0.6414;0.1354;
945.3000;0.6463;0.1377;
945.6000;0.6431;0.1330;
945.9000;0.6422;0.1284;
946.2000;0.6414;0.1284;
946.5000;0.6422;0.1307;
946.8000;0.6431;0.1307;
947.1000;0.6414;0.1284;
947.4000;0.6414;0.1424;
947.7000;0.6422;0.1470;
948.0000;0.6422;0.1517;
948.3000;0.6422;0.1447;
948.6000;0.6398;0.1330;
948.9000;0.6455;0.1470;
949.2000;0.6406;0.1330;
949.5000;0.6414;0.1354;
949.8000;0.6422;0.1354;
950.1000;0.6431;0.1424;
950.4000;0.6439;0.1354;
950.7000;0.6422;0.1330;
951.0000;0.6390;0.1307;
951.3000;0.6422;0.1494;
951.6000;0.6414;0.1400;
951.9000;0.6390;0.1330;
952.2000;0.6431;0.1494;
952.5000;0.6414;0.1470;
952.8000;0.6447;0.1494;
953.1000;0.6414;0.1354;
953.4000;0.6398;0.1354;
953.7000;0.6406;0.1354;
954.0000;0.6414;0.1354;
954.3000;0.6406;0.1307;
954.6000;0.6406;0.1307;
954.9000;0.6398;0.1424;
955.2000;0.6414;0.1400;
955.5000;0.6431;0.1400;
955.8000;0.6414;0.1470;
956.1000;0.6406;0.1470;
956.4000;0.6365;0.1424;
956.7000;0.6398;0.1494;
957.0000;0.6414;0.1447;
957.3000;0.6390;0.1470;
957.6000;0.6414;0.1494;
957.9000;0.6406;0.1494;
958.2000;0.6406;0.1447;
958.5000;0.6390;0.1470;
958.8000;0.6398;0.1494;
959.1000;0.6398;0.1470;
959.4000;0.6406;0.1494;
959.7000;0.6422;0.1610;
960.0000;0.6406;0.1517;
960.3000;0.6398;0.1447;
960.6000;0.6398;0.1470;
960.9000;0.6398;0.1470;
961.2000;0.6414;0.1447;
961.5000;0.6390;0.1307;
961.8000;0.6390;0.1214;
962.1000;0.6398;0.1260;
962.4000;0.6406;0.1330;
962.7000;0.6390;0.1307;
963.0000;0.6398;0.1354;
963.3000;0.6406;0.1377;
963.6000;0.6463;0.1540;
963.9000;0.6406;0.1424;
964.2000;0.6414;0.1424;
964.5000;0.6406;0.1447;
964.8000;0.6414;0.1494;
965.1000;0.6414;0.1494;
965.4000;0.6414;0.1540;
965.7000;0.6398;0.1400;
966.0000;0.6398;0.1424;
966.3000;0.6414;0.1424;
966.6000;0.6390;0.1424;
966.9000;0.6390;0.1330;
967.2000;0.6390;0.1284;
967.5000;0.6414;0.1260;
967.8000;0.6398;0.1330;
968.1000;0.6325;0.1237;
968.4000;0.6398;0.1447;
968.7000;0.6406;0.1424;
969.0000;0.6406;0.1330;
969.3000;0.6414;0.1400;
969.6000;0.6422;0.1447;
969.9000;0.6365;0.1330;
970.2000;0.6406;0.1494;
970.5000;0.6406;0.1447;
970.8000;0.6382;0.1354;
971.1000;0.6382;0.1330;
971.4000;0.6398;0.1284;
971.7000;0.6422;0.1377;
972.0000;0.6406;0.1400;
972.3000;0.6447;0.1494;
972.6000;0.6398;0.1424;
972.9000;0.6390;0.1424;
973.2000;0.6455;0.1517;
973.5000;0.6406;0.1377;
973.8000;0.6414;0.1330;
974.1000;0.6390;0.1284;
974.4000;0.6414;0.1377;
974.7000;0.6398;0.1354;
975.0000;0.6390;0.1330;
975.3000;0.6406;0.1237;
975.6000;0.6382;0.1190;
975.9000;0.6398;0.1190;
976.2000;0.6390;0.1144;
976.5000;0.6390;0.1144;
976.8000;0.6398;0.1214;
977.1000;0.6365;0.1237;
977.4000;0.6390;0.1307;
977.7000;0.6398;0.1330;
978.0000;0.6374;0.1330;
978.3000;0.6406;0.1307;
978.6000;0.6390;0.1260;
978.9000;0.6414;0.1237;
979.2000;0.6398;0.1237;
979.5000;0.6382;0.1260;
979.8000;0.6422;0.1377;
980.1000;0.6414;0.1354;
980.4000;0.6390;0.1190;
980.7000;0.6398;0.1214;
981.0000;0.6390;0.1237;
981.3000;0.6390;0.1284;
981.6000;0.6406;0.1214;
981.9000;0.6406;0.1260;
982.2000;0.6398;0.1237;
982.5000;0.6398;0.1330;
982.8000;0.6365;0.1307;
983.1000;0.6398;0.1517;
983.4000;0.6390;0.1610;
983.7000;0.6414;0.1634;
984.0000;0.6390;0.1540;
984.3000;0.6406;0.1494;
984.6000;0.6422;0.1657;
984.9000;0.6382;0.1587;
985.2000;0.6374;0.1587;
985.5000;0.6333;0.1424;
985.8000;0.6390;0.1377;
986.1000;0.6374;0.1354;
986.4000;0.6390;0.1424;
986.7000;0.6374;0.1330;
987.0000;0.6398;0.1447;
987.3000;0.6390;0.1470;
987.6000;0.6374;0.1447;
987.9000;0.6390;0.1470;
988.2000;0.6374;0.1424;
988.5000;0.6374;0.1400;
988.8000;0.6325;0.1284;
989.1000;0.6382;0.1260;
989.4000;0.6390;0.1260;
989.7000;0.6382;0.1330;
990.0000;0.6398;0.1330;
990.3000;0.6406;0.1377;
990.6000;0.6390;0.1307;
990.9000;0.6406;0.1260;
991.2000;0.6382;0.1120;
991.5000;0.6406;0.1120;
991.8000;0.6406;0.1167;
992.1000;0.6382;0.1144;
992.4000;0.6374;0.1074;
992.7000;0.6374;0.1097;
993.0000;0.6406;0.1120;
993.3000;0.6390;0.1167;
993.6000;0.6398;0.1144;
993.9000;0.6325;0.1027;
994.2000;0.6439;0.1260;
994.5000;0.6382;0.1097;
994.8000;0.6382;0.1144;
995.1000;0.6365;0.1074;
995.4000;0.6349;0.1074;
995.7000;0.6390;0.1167;
996.0000;0.6382;0.1120;
996.3000;0.6374;0.1167;
996.6000;0.6390;0.1190;
996.9000;0.6374;0.1167;
997.2000;0.6382;0.1167;
997.5000;0.6365;0.1167;
997.8000;0.6349;0.1167;
998.1000;0.6374;0.1190;
998.4000;0.6382;0.1144;
998.7000;0.6357;0.1190;
999.0000;0.6365;0.1260;
999.3000;0.6382;0.1307;
999.6000;0.6382;0.1354;
999.9000;0.6374;0.1307;
1000.2000;0.6365;0.1284;
1000.5000;0.6382;0.1237;
1000.8000;0.6390;0.1167;
1001.1000;0.6374;0.1120;
1001.4000;0.6365;0.1120;
1001.7000;0.6382;0.1260;
1002.0000;0.6398;0.1330;
1002.3000;0.6390;0.1284;
1002.6000;0.6382;0.1237;
1002.9000;0.6390;0.1190;
1003.2000;0.6365;0.1167;
1003.5000;0.6365;0.1214;
1003.8000;0.6357;0.1307;
1004.1000;0.6357;0.1260;
1004.4000;0.6365;0.1330;
1004.7000;0.6374;0.1354;
1005.0000;0.6341;0.1190;
1005.3000;0.6357;0.1214;
1005.6000;0.6357;0.1214;
1005.9000;0.6382;0.1260;
1006.2000;0.6365;0.1330;
1006.5000;0.6365;0.1377;
1006.8000;0.6365;0.1354;
1007.1000;0.6382;0.1447;
1007.4000;0.6398;0.1377;
1007.7000;0.6374;0.1354;
1008.0000;0.6374;0.1400;
1008.3000;0.6374;0.1400;
1008.6000;0.6406;0.1354;
1008.9000;0.6349;0.1237;
1009.2000;0.6382;0.1237;
1009.5000;0.6374;0.1214;
1009.8000;0.6365;0.1237;
1010.1000;0.6341;0.1097;
1010.4000;0.6325;0.1097;
1010.7000;0.6365;0.1190;
1011.0000;0.6390;0.1237;
1011.3000;0.6382;0.1237;
1011.6000;0.6374;0.1167;
1011.9000;0.6333;0.1004;
1012.2000;0.6357;0.1167;
1012.5000;0.6374;0.1190;
1012.8000;0.6349;0.1214;
1013.1000;0.6374;0.1330;
1013.4000;0.6349;0.1354;
1013.7000;0.6382;0.1447;
1014.0000;0.6357;0.1470;
1014.3000;0.6365;0.1447;
1014.6000;0.6365;0.1447;
1014.9000;0.6382;0.1447;
1015.2000;0.6374;0.1470;
1015.5000;0.6374;0.1424;
1015.8000;0.6382;0.1470;
1016.1000;0.6349;0.1470;
1016.4000;0.6365;0.1540;
1016.7000;0.6374;0.1517;
1017.0000;0.6365;0.1517;
1017.3000;0.6374;0.1540;
1017.6000;0.6357;0.1540;
1017.9000;0.6333;0.1494;
1018.2000;0.6365;0.1564;
1018.5000;0.6365;0.1587;
1018.8000;0.6365;0.1540;
1019.1000;0.6374;0.1540;
1019.4000;0.6374;0.1494;
1019.7000;0.6357;0.1447;
1020.0000;0.6357;0.1330;
1020.3000;0.6309;0.1120;
1020.6000;0.6390;0.1307;
1020.9000;0.6349;0.1260;
1021.2000;0.6357;0.1330;
1021.5000;0.6357;0.1354;
1021.8000;0.6365;0.1354;
1022.1000;0.6357;0.1377;
1022.4000;0.6414;0.1400;
1022.7000;0.6341;0.1284;
1023.0000;0.6357;0.1377;
1023.3000;0.6341;0.1470;
1023.6000;0.6365;0.1540;
1023.9000;0.6365;0.1540;
1024.2000;0.6374;0.1587;
1024.5000;0.6357;0.1517;
1024.8000;0.6333;0.1330;
1025.1000;0.6365;0.1400;
1025.4000;0.6382;0.1517;
1025.7000;0.6374;0.1447;
1026.0000;0.6325;0.1307;
1026.3000;0.6406;0.1470;
1026.6000;0.6382;0.1424;
1026.9000;0.6374;0.1447;
1027.2000;0.6374;0.1517;
1027.5000;0.6357;0.1517;
1027.8000;0.6382;0.1587;
1028.1000;0.6357;0.1540;
1028.4000;0.6357;0.1494;
1028.7000;0.6382;0.1540;
1029.0000;0.6357;0.1400;
1029.3000;0.6374;0.1424;
1029.6000;0.6374;0.1447;
1029.9000;0.6357;0.1424;
1030.2000;0.6357;0.1354;
1030.5000;0.6325;0.1260;
1030.8000;0.6349;0.1354;
1031.1000;0.6349;0.1377;
1031.4000;0.6300;0.1237;
1031.7000;0.6349;0.1424;
1032.0000;0.6341;0.1470;
1032.3000;0.6349;0.1517;
1032.6000;0.6357;0.1540;
1032.9000;0.6357;0.1610;
1033.2000;0.6349;0.1540;
1033.5000;0.6276;0.1400;
1033.8000;0.6349;0.1634;
1034.1000;0.6374;0.1610;
1034.4000;0.6333;0.1494;
1034.7000;0.6365;0.1494;
1035.0000;0.6357;0.1400;
1035.3000;0.6349;0.1330;
1035.6000;0.6365;0.1284;
1035.9000;0.6349;0.1284;
1036.2000;0.6349;0.1214;
1036.5000;0.6357;0.1284;
1036.8000;0.6414;0.1424;
1037.1000;0.6357;0.1330;
1037.4000;0.6365;0.1400;
1037.7000;0.6357;0.1377;
1038.0000;0.6365;0.1424;
1038.3000;0.6349;0.1354;
1038.6000;0.6357;0.1400;
1038.9000;0.6349;0.1377;
1039.2000;0.6357;0.1447;
1039.5000;0.6365;0.1424;
1039.8000;0.6349;0.1400;
1040.1000;0.6349;0.1447;
1040.4000;0.6357;0.1494;
1040.7000;0.6357;0.1540;
1041.0000;0.6349;0.1564;
1041.3000;0.6374;0.1634;
1041.6000;0.6341;0.1587;
1041.9000;0.6365;0.1610;
1042.2000;0.6349;0.1564;
1042.5000;0.6349;0.1587;
1042.8000;0.6357;0.1587;
1043.1000;0.6390;0.1657;
1043.4000;0.6333;0.1610;
1043.7000;0.6341;0.1634;
1044.0000;0.6349;0.1657;
1044.3000;0.6357;0.1681;
1044.6000;0.6365;0.1704;
1044.9000;0.6357;0.1751;
1045.2000;0.6341;0.1751;
1045.5000;0.6365;0.1681;
1045.8000;0.6349;0.1657;
1046.1000;0.6349;0.1634;
1046.4000;0.6365;0.1751;
1046.7000;0.6341;0.1727;
1047.0000;0.6422;0.1844;
1047.3000;0.6325;0.1610;
1047.6000;0.6284;0.1564;
1047.9000;0.6341;0.1727;
1048.2000;0.6357;0.1727;
1048.5000;0.6341;0.1657;
1048.8000;0.6365;0.1657;
1049.1000;0.6365;0.1634;
1049.4000;0.6317;0.1540;
1049.7000;0.6365;0.1657;
1050.0000;0.6349;0.1540;
1050.3000;0.6317;0.1517;
1050.6000;0.6333;0.1564;
1050.9000;0.6365;0.1704;
1051.2000;0.6333;0.1610;
1051.5000;0.6349;0.1540;
1051.8000;0.6325;0.1540;
1052.1000;0.6333;0.1540;
1052.4000;0.6333;0.1564;
1052.7000;0.6333;0.1470;
1053.0000;0.6341;0.1517;
1053.3000;0.6341;0.1564;
1053.6000;0.6317;0.1400;
1053.9000;0.6374;0.1517;
1054.2000;0.6341;0.1540;
1054.5000;0.6341;0.1517;
1054.8000;0.6365;0.1540;
1055.1000;0.6341;0.1494;
1055.4000;0.6325;0.1377;
1055.7000;0.6325;0.1354;
1056.0000;0.6341;0.1424;
1056.3000;0.6349;0.1400;
1056.6000;0.6365;0.1330;
1056.9000;0.6357;0.1330;
1057.2000;0.6349;0.1377;
1057.5000;0.6349;0.1447;
1057.8000;0.6325;0.1447;
1058.1000;0.6341;0.1540;
1058.4000;0.6341;0.1494;
1058.7000;0.6341;0.1400;
1059.0000;0.6357;0.1424;
1059.3000;0.6374;0.1494;
1059.6000;0.6357;0.1470;
1059.9000;0.6365;0.1540;
1060.2000;0.6349;0.1494;
1060.5000;0.6357;0.1540;
1060.8000;0.6284;0.1424;
1061.1000;0.6357;0.1564;
1061.4000;0.6349;0.1517;
1061.7000;0.6341;0.1470;
1062.0000;0.6365;0.1517;
1062.3000;0.6341;0.1424;
1062.6000;0.6349;0.1564;
1062.9000;0.6309;0.1447;
1063.2000;0.6309;0.1540;
1063.5000;0.6325;0.1564;
1063.8000;0.6357;0.1610;
1064.1000;0.6325;0.1564;
1064.4000;0.6309;0.1540;
1064.7000;0.6349;0.1634;
1065.0000;0.6341;0.1587;
1065.3000;0.6341;0.1564;
1065.6000;0.6325;0.1564;
1065.9000;0.6333;0.1610;
1066.2000;0.6349;0.1634;
1066.5000;0.6325;0.1587;
1066.8000;0.6357;0.1657;
1067.1000;0.6333;0.1704;
1067.4000;0.6365;0.1797;
1067.7000;0.6349;0.1681;
1068.0000;0.6365;0.1704;
1068.3000;0.6349;0.1610;
1068.6000;0.6349;0.1564;
1068.9000;0.6341;0.1587;
1069.2000;0.6292;0.1494;
1069.5000;0.6276;0.1447;
1069.8000;0.6349;0.1540;
1070.1000;0.6333;0.1564;
1070.4000;0.6374;0.1610;
1070.7000;0.6341;0.1587;
1071.0000;0.6374;0.1681;
1071.3000;0.6349;0.1610;
1071.6000;0.6341;0.1634;
1071.9000;0.6341;0.1634;
1072.2000;0.6349;0.1610;
1072.5000;0.6333;0.1540;
1072.8000;0.6333;0.1540;
1073.1000;0.6341;0.1587;
1073.4000;0.6341;0.1564;
1073.7000;0.6341;0.1564;
1074.0000;0.6341;0.1610;
1074.3000;0.6341;0.1564;
1074.6000;0.6349;0.1587;
1074.9000;0.6325;0.1447;
1075.2000;0.6341;0.1470;
1075.5000;0.6357;0.1470;
1075.8000;0.6349;0.1400;
1076.1000;0.6341;0.1400;
1076.4000;0.6374;0.1517;
1076.7000;0.6341;0.1494;
1077.0000;0.6325;0.1470;
1077.3000;0.6341;0.1540;
1077.6000;0.6325;0.1540;
1077.9000;0.6292;0.1470;
1078.2000;0.6317;0.1494;
1078.5000;0.6341;0.1494;
1078.8000;0.6349;0.1494;
1079.1000;0.6349;0.1540;
1079.4000;0.6349;0.1610;
1079.7000;0.6333;0.1634;
1080.0000;0.6333;0.1587;
1080.3000;0.6333;0.1564;
1080.6000;0.6357;0.1564;
1080.9000;0.6284;0.1377;
1081.2000;0.6325;0.1494;
1081.5000;0.6341;0.1587;
1081.8000;0.6333;0.1634;
1082.1000;0.6333;0.1564;
1082.4000;0.6333;0.1610;
1082.7000;0.6357;0.1564;
1083.0000;0.6341;0.1657;
1083.3000;0.6349;0.1681;
1083.6000;0.6333;0.1774;
1083.9000;0.6317;0.1727;
1084.2000;0.6333;0.1681;
1084.5000;0.6341;0.1634;
1084.8000;0.6349;0.1587;
1085.1000;0.6317;0.1494;
1085.4000;0.6341;0.1470;
1085.7000;0.6349;0.1447;
1086.0000;0.6349;0.1470;
1086.3000;0.6341;0.1494;
1086.6000;0.6325;0.1494;
1086.9000;0.6333;0.1494;
1087.2000;0.6349;0.1517;
1087.5000;0.6333;0.1564;
1087.8000;0.6292;0.1587;
1088.1000;0.6325;0.1610;
1088.4000;0.6349;0.1587;
1088.7000;0.6333;0.1517;
1089.0000;0.6333;0.1564;
1089.3000;0.6374;0.1657;
1089.6000;0.6325;0.1494;
1089.9000;0.6325;0.1494;
1090.2000;0.6341;0.1540;
1090.5000;0.6349;0.1634;
1090.8000;0.6341;0.1681;
1091.1000;0.6341;0.1751;
1091.4000;0.6349;0.1797;
1091.7000;0.6341;0.1821;
1092.0000;0.6325;0.1751;
1092.3000;0.6333;0.1681;
1092.6000;0.6333;0.1564;
1092.9000;0.6341;0.1587;
1093.2000;0.6349;0.1564;
1093.5000;0.6333;0.1540;
1093.8000;0.6333;0.1517;
1094.1000;0.6374;0.1610;
1094.4000;0.6325;0.1447;
1094.7000;0.6333;0.1494;
1095.0000;0.6349;0.1494;
1095.3000;0.6333;0.1447;
1095.6000;0.6374;0.1470;
1095.9000;0.6333;0.1377;
1096.2000;0.6341;0.1400;
1096.5000;0.6341;0.1377;
1096.8000;0.6333;0.1307;
1097.1000;0.6317;0.1190;
1097.4000;0.6398;0.1447;
1097.7000;0.6325;0.1284;
1098.0000;0.6317;0.1330;
1098.3000;0.6309;0.1354;
1098.6000;0.6341;0.1400;
1098.9000;0.6292;0.1330;
1099.2000;0.6300;0.1400;
1099.5000;0.6292;0.1354;
1099.8000;0.6292;0.1354;
1100.1000;0.6317;0.1470;
1100.4000;0.6317;0.1564;
1100.7000;0.6349;0.1587;
1101.0000;0.6325;0.1494;
1101.3000;0.6341;0.1564;
1101.6000;0.6365;0.1634;
1101.9000;0.6300;0.1447;
1102.2000;0.6325;0.1447;
1102.5000;0.6325;0.1494;
1102.8000;0.6317;0.1470;
1103.1000;0.6317;0.1517;
1103.4000;0.6341;0.1564;
1103.7000;0.6325;0.1564;
1104.0000;0.6341;0.1564;
1104.3000;0.6325;0.1587;
1104.6000;0.6325;0.1540;
1104.9000;0.6333;0.1564;
1105.2000;0.6317;0.1564;
1105.5000;0.6317;0.1564;
1105.8000;0.6325;0.1634;
1106.1000;0.6309;0.1564;
1106.4000;0.6333;0.1610;
1106.7000;0.6325;0.1610;
1107.0000;0.6325;0.1634;
1107.3000;0.6333;0.1681;
1107.6000;0.6317;0.1727;
1107.9000;0.6317;0.1610;
1108.2000;0.6333;0.1610;
1108.5000;0.6325;0.1634;
1108.8000;0.6374;0.1727;
1109.1000;0.6333;0.1610;
1109.4000;0.6317;0.1657;
1109.7000;0.6333;0.1657;
1110.0000;0.6333;0.1587;
1110.3000;0.6341;0.1610;
1110.6000;0.6333;0.1564;
1110.9000;0.6309;0.1470;
1111.2000;0.6333;0.1634;
1111.5000;0.6349;0.1634;
1111.8000;0.6309;0.1634;
1112.1000;0.6309;0.1634;
1112.4000;0.6325;0.1657;
1112.7000;0.6325;0.1610;
1113.0000;0.6333;0.1610;
1113.3000;0.6325;0.1610;
1113.6000;0.6292;0.1634;
1113.9000;0.6325;0.1634;
1114.2000;0.6333;0.1610;
1114.5000;0.6309;0.1610;
1114.8000;0.6325;0.1587;
1115.1000;0.6333;0.1564;
1115.4000;0.6341;0.1587;
1115.7000;0.6317;0.1540;
1116.0000;0.6309;0.1470;
1116.3000;0.6292;0.1377;
1116.6000;0.6317;0.1377;
1116.9000;0.6333;0.1354;
1117.2000;0.6309;0.1424;
1117.5000;0.6317;0.1447;
1117.8000;0.6325;0.1470;
1118.1000;0.6325;0.1494;
1118.4000;0.6333;0.1400;
1118.7000;0.6300;0.1424;
1119.0000;0.6333;0.1494;
1119.3000;0.6300;0.1470;
1119.6000;0.6325;0.1494;
1119.9000;0.6309;0.1470;
1120.2000;0.6309;0.1470;
1120.5000;0.6398;0.1657;
1120.8000;0.6309;0.1400;
1121.1000;0.6300;0.1307;
1121.4000;0.6309;0.1330;
1121.7000;0.6349;0.1470;
1122.0000;0.6333;0.1447;
1122.3000;0.6325;0.1424;
1122.6000;0.6309;0.1424;
1122.9000;0.6333;0.1517;
1123.2000;0.6309;0.1494;
1123.5000;0.6325;0.1424;
1123.8000;0.6317;0.1284;
1124.1000;0.6333;0.1330;
1124.4000;0.6349;0.1330;
1124.7000;0.6333;0.1354;
1125.0000;0.6317;0.1354;
1125.3000;0.6325;0.1494;
1125.6000;0.6333;0.1470;
1125.9000;0.6317;0.1400;
1126.2000;0.6317;0.1377;
1126.5000;0.6357;0.1447;
1126.8000;0.6292;0.1400;
1127.1000;0.6325;0.1447;
1127.4000;0.6341;0.1517;
1127.7000;0.6325;0.1470;
1128.0000;0.6333;0.1424;
1128.3000;0.6382;0.1470;
1128.6000;0.6260;0.1214;
1128.9000;0.6309;0.1307;
1129.2000;0.6325;0.1307;
1129.5000;0.6300;0.1354;
1129.8000;0.6325;0.1400;
1130.1000;0.6309;0.1470;
1130.4000;0.6325;0.1540;
1130.7000;0.6317;0.1494;
1131.0000;0.6317;0.1540;
1131.3000;0.6317;0.1494;
1131.6000;0.6300;0.1517;
1131.9000;0.6309;0.1540;
1132.2000;0.6317;0.1540;
1132.5000;0.6357;0.1751;
1132.8000;0.6309;0.1540;
1133.1000;0.6317;0.1517;
1133.4000;0.6317;0.1517;
1133.7000;0.6309;0.1494;
1134.0000;0.6284;0.1400;
1134.3000;0.6317;0.1540;
1134.6000;0.6325;0.1634;
1134.9000;0.6325;0.1681;
1135.2000;0.6325;0.1587;
1135.5000;0.6333;0.1704;
1135.8000;0.6374;0.1797;
1136.1000;0.6292;0.1634;
1136.4000;0.6309;0.1657;
1136.7000;0.6300;0.1587;
1137.0000;0.6309;0.1564;
1137.3000;0.6268;0.1447;
1137.6000;0.6284;0.1587;
1137.9000;0.6284;0.1564;
1138.2000;0.6309;0.1634;
1138.5000;0.6309;0.1610;
1138.8000;0.6309;0.1540;
1139.1000;0.6325;0.1470;
1139.4000;0.6325;0.1494;
1139.7000;0.6341;0.1470;
1140.0000;0.6325;0.1540;
1140.3000;0.6325;0.1587;
1140.6000;0.6317;0.1587;
1140.9000;0.6325;0.1540;
1141.2000;0.6317;0.1447;
1141.5000;0.6382;0.1587;
1141.8000;0.6325;0.1447;
1142.1000;0.6317;0.1494;
1142.4000;0.6309;0.1494;
1142.7000;0.6309;0.1517;
1143.0000;0.6309;0.1494;
1143.3000;0.6309;0.1494;
1143.6000;0.6325;0.1517;
1143.9000;0.6333;0.1494;
1144.2000;0.6317;0.1470;
1144.5000;0.6317;0.1470;
1144.8000;0.6309;0.1540;
1145.1000;0.6325;0.1540;
1145.4000;0.6341;0.1704;
1145.7000;0.6309;0.1657;
1146.0000;0.6333;0.1657;
1146.3000;0.6325;0.1587;
1146.6000;0.6317;0.1634;
1146.9000;0.6317;0.1634;
1147.2000;0.6300;0.1587;
1147.5000;0.6325;0.1681;
1147.8000;0.6309;0.1657;
1148.1000;0.6292;0.1610;
1148.4000;0.6300;0.1610;
1148.7000;0.6309;0.1657;
1149.0000;0.6317;0.1634;
1149.3000;0.6300;0.1564;
1149.6000;0.6300;0.1517;
1149.9000;0.6333;0.1587;
1150.2000;0.6325;0.1587;
1150.5000;0.6252;0.1470;
1150.8000;0.6325;0.1657;
1151.1000;0.6341;0.1657;
1151.4000;0.6317;0.1704;
1151.7000;0.6292;0.1681;
1152.0000;0.6309;0.1681;
1152.3000;0.6325;0.1610;
1152.6000;0.6317;0.1540;
1152.9000;0.6325;0.1447;
1153.2000;0.6276;0.1400;
1153.5000;0.6317;0.1424;
1153.8000;0.6309;0.1377;
1154.1000;0.6325;0.1470;
1154.4000;0.6300;0.1354;
1154.7000;0.6317;0.1330;
1155.0000;0.6317;0.1330;
1155.3000;0.6317;0.1377;
1155.6000;0.6333;0.1377;
1155.9000;0.6300;0.1354;
1156.2000;0.6300;0.1447;
1156.5000;0.6349;0.1540;
1156.8000;0.6317;0.1470;
1157.1000;0.6309;0.1447;
1157.4000;0.6325;0.1447;
1157.7000;0.6325;0.1424;
1158.0000;0.6325;0.1447;
1158.3000;0.6292;0.1424;
1158.6000;0.6292;0.1470;
1158.9000;0.6300;0.1540;
1159.2000;0.6325;0.1564;
1159.5000;0.6284;0.1494;
1159.8000;0.6276;0.1517;
1160.1000;0.6309;0.1610;
1160.4000;0.6309;0.1634;
1160.7000;0.6309;0.1657;
1161.0000;0.6309;0.1657;
1161.3000;0.6309;0.1587;
1161.6000;0.6300;0.1634;
1161.9000;0.6333;0.1751;
1162.2000;0.6317;0.1704;
1162.5000;0.6309;0.1704;
1162.8000;0.6317;0.1681;
1163.1000;0.6309;0.1681;
1163.4000;0.6382;0.1797;
1163.7000;0.6317;0.1704;
1164.0000;0.6317;0.1727;
1164.3000;0.6292;0.1681;
1164.6000;0.6235;0.1447;
1164.9000;0.6309;0.1634;
1165.2000;0.6252;0.1494;
1165.5000;0.6235;0.1377;
1165.8000;0.6317;0.1564;
1166.1000;0.6317;0.1517;
1166.4000;0.6252;0.1517;
1166.7000;0.6300;0.1610;
1167.0000;0.6284;0.1564;
1167.3000;0.6309;0.1634;
1167.6000;0.6309;0.1610;
1167.9000;0.6309;0.1587;
1168.2000;0.6292;0.1610;
1168.5000;0.6252;0.1494;
1168.8000;0.6284;0.1610;
1169.1000;0.6252;0.1681;
1169.4000;0.6317;0.1681;
1169.7000;0.6276;0.1634;
1170.0000;0.6284;0.1610;
1170.3000;0.6300;0.1610;
1170.6000;0.6317;0.1634;
1170.9000;0.6309;0.1681;
1171.2000;0.6300;0.1634;
1171.5000;0.6309;0.1727;
1171.8000;0.6317;0.1751;
1172.1000;0.6317;0.1681;
1172.4000;0.6292;0.1587;
1172.7000;0.6317;0.1564;
1173.0000;0.6300;0.1517;
1173.3000;0.6292;0.1540;
1173.6000;0.6292;0.1517;
1173.9000;0.6300;0.1564;
1174.2000;0.6357;0.1751;
1174.5000;0.6300;0.1564;
1174.8000;0.6325;0.1634;
1175.1000;0.6309;0.1587;
1175.4000;0.6309;0.1540;
1175.7000;0.6309;0.1447;
1176.0000;0.6300;0.1377;
1176.3000;0.6309;0.1424;
1176.6000;0.6219;0.1214;
1176.9000;0.6317;0.1517;
1177.2000;0.6300;0.1564;
1177.5000;0.6317;0.1564;
1177.8000;0.6300;0.1540;
1178.1000;0.6292;0.1494;
1178.4000;0.6300;0.1470;
1178.7000;0.6292;0.1494;
1179.0000;0.6325;0.1540;
1179.3000;0.6317;0.1587;
1179.6000;0.6325;0.1610;
1179.9000;0.6365;0.1774;
1180.2000;0.6317;0.1727;
1180.5000;0.6268;0.1587;
1180.8000;0.6325;0.1610;
1181.1000;0.6317;0.1587;
1181.4000;0.6300;0.1494;
1181.7000;0.6341;0.1634;
1182.0000;0.6309;0.1540;
1182.3000;0.6325;0.1494;
1182.6000;0.6317;0.1540;
1182.9000;0.6300;0.1564;
1183.2000;0.6309;0.1610;
1183.5000;0.6309;0.1610;
1183.8000;0.6300;0.1657;
1184.1000;0.6284;0.1657;
1184.4000;0.6325;0.1727;
1184.7000;0.6300;0.1704;
1185.0000;0.6309;0.1704;
1185.3000;0.6260;0.1704;
1185.6000;0.6284;0.1751;
1185.9000;0.6252;0.1657;
1186.2000;0.6300;0.1704;
1186.5000;0.6300;0.1727;
1186.8000;0.6292;0.1564;
1187.1000;0.6309;0.1587;
1187.4000;0.6349;0.1727;
1187.7000;0.6292;0.1681;
1188.0000;0.6317;0.1774;
1188.3000;0.6309;0.1751;
1188.6000;0.6284;0.1774;
1188.9000;0.6309;0.1774;
1189.2000;0.6309;0.1751;
1189.5000;0.6341;0.1937;
1189.8000;0.6325;0.1891;
1190.1000;0.6317;0.1867;
1190.4000;0.6243;0.1681;
1190.7000;0.6309;0.1704;
1191.0000;0.6268;0.1634;
1191.3000;0.6317;0.1821;
1191.6000;0.6317;0.1797;
1191.9000;0.6292;0.1751;
1192.2000;0.6309;0.1704;
1192.5000;0.6317;0.1751;
1192.8000;0.6325;0.1751;
1193.1000;0.6292;0.1681;
1193.4000;0.6284;0.1634;
1193.7000;0.6300;0.1681;
1194.0000;0.6300;0.1634;
1194.3000;0.6284;0.1681;
1194.6000;0.6292;0.1610;
1194.9000;0.6309;0.1657;
1195.2000;0.6300;0.1704;
1195.5000;0.6317;0.1681;
1195.8000;0.6357;0.1914;
1196.1000;0.6284;0.1844;
1196.4000;0.6300;0.1891;
1196.7000;0.6276;0.1797;
1197.0000;0.6252;0.1727;
1197.3000;0.6284;0.1797;
1197.6000;0.6292;0.1844;
1197.9000;0.6317;0.1821;
1198.2000;0.6292;0.1751;
1198.5000;0.6300;0.1657;
1198.8000;0.6309;0.1634;
1199.1000;0.6309;0.1564;
1199.4000;0.6284;0.1517;
1199.7000;0.6268;0.1470;
1200.0000;0.6292;0.1447;
1200.3000;0.6292;0.1470;
1200.6000;0.6219;0.1237;
1200.9000;0.6268;0.1447;
1201.2000;0.6292;0.1494;
1201.5000;0.6309;0.1517;
1201.8000;0.6317;0.1517;
1202.1000;0.6284;0.1447;
1202.4000;0.6268;0.1424;
1202.7000;0.6260;0.1424;
1203.0000;0.6325;0.1540;
1203.3000;0.6276;0.1494;
1203.6000;0.6284;0.1470;
1203.9000;0.6309;0.1540;
1204.2000;0.6317;0.1564;
1204.5000;0.6284;0.1540;
1204.8000;0.6284;0.1517;
1205.1000;0.6284;0.1540;
1205.4000;0.6292;0.1610;
1205.7000;0.6300;0.1727;
1206.0000;0.6276;0.1704;
1206.3000;0.6276;0.1681;
1206.6000;0.6276;0.1634;
1206.9000;0.6292;0.1657;
1207.2000;0.6284;0.1587;
1207.5000;0.6268;0.1610;
1207.8000;0.6284;0.1657;
1208.1000;0.6276;0.1634;
1208.4000;0.6317;0.1610;
1208.7000;0.6300;0.1634;
1209.0000;0.6309;0.1587;
1209.3000;0.6325;0.1610;
1209.6000;0.6300;0.1540;
1209.9000;0.6276;0.1424;
1210.2000;0.6292;0.1470;
1210.5000;0.6325;0.1540;
1210.8000;0.6284;0.1447;
1211.1000;0.6309;0.1424;
1211.4000;0.6349;0.1494;
1211.7000;0.6365;0.1377;
1212.0000;0.6292;0.1237;
1212.3000;0.6284;0.1260;
1212.6000;0.6309;0.1237;
1212.9000;0.6300;0.1260;
1213.2000;0.6292;0.1260;
1213.5000;0.6333;0.1400;
1213.8000;0.6292;0.1354;
1214.1000;0.6309;0.1400;
1214.4000;0.6317;0.1470;
1214.7000;0.6317;0.1470;
1215.0000;0.6284;0.1377;
1215.3000;0.6309;0.1470;
1215.6000;0.6309;0.1377;
1215.9000;0.6292;0.1377;
1216.2000;0.6292;0.1400;
1216.5000;0.6325;0.1470;
1216.8000;0.6341;0.1540;
1217.1000;0.6309;0.1377;
1217.4000;0.6309;0.1470;
1217.7000;0.6268;0.1424;
1218.0000;0.6317;0.1424;
1218.3000;0.6284;0.1400;
1218.6000;0.6235;0.1260;
1218.9000;0.6341;0.1494;
1219.2000;0.6284;0.1400;
1219.5000;0.6243;0.1237;
1219.8000;0.6317;0.1424;
1220.1000;0.6284;0.1377;
1220.4000;0.6268;0.1377;
1220.7000;0.6284;0.1447;
1221.0000;0.6300;0.1470;
1221.3000;0.6300;0.1470;
1221.6000;0.6382;0.1634;
1221.9000;0.6317;0.1540;
1222.2000;0.6292;0.1540;
1222.5000;0.6292;0.1564;
1222.8000;0.6292;0.1634;
1223.1000;0.6300;0.1634;
1223.4000;0.6300;0.1610;
1223.7000;0.6309;0.1610;
1224.0000;0.6292;0.1610;
1224.3000;0.6276;0.1657;
1224.6000;0.6357;0.1821;
1224.9000;0.6309;0.1634;
1225.2000;0.6276;0.1657;
1225.5000;0.6260;0.1704;
1225.8000;0.6284;0.1727;
1226.1000;0.6284;0.1657;
1226.4000;0.6276;0.1657;
1226.7000;0.6260;0.1634;
1227.0000;0.6349;0.1961;
1227.3000;0.6317;0.1821;
1227.6000;0.6292;0.1681;
1227.9000;0.6284;0.1634;
1228.2000;0.6292;0.1634;
1228.5000;0.6300;0.1587;
1228.8000;0.6325;0.1634;
1229.1000;0.6268;0.1610;
1229.4000;0.6292;0.1634;
1229.7000;0.6300;0.1610;
1230.0000;0.6300;0.1657;
1230.3000;0.6292;0.1751;
1230.6000;0.6284;0.1727;
1230.9000;0.6268;0.1727;
1231.2000;0.6292;0.1751;
1231.5000;0.6284;0.1751;
1231.8000;0.6284;0.1751;
1232.1000;0.6284;0.1727;
1232.4000;0.6292;0.1797;
1232.7000;0.6268;0.1797;
1233.0000;0.6268;0.1751;
1233.3000;0.6235;0.1587;
1233.6000;0.6260;0.1610;
1233.9000;0.6292;0.1727;
1234.2000;0.6276;0.1634;
1234.5000;0.6309;0.1610;
1234.8000;0.6292;0.1634;
1235.1000;0.6292;0.1564;
1235.4000;0.6284;0.1587;
1235.7000;0.6284;0.1587;
1236.0000;0.6300;0.1564;
1236.3000;0.6268;0.1517;
1236.6000;0.6284;0.1610;
1236.9000;0.6284;0.1587;
1237.2000;0.6268;0.1564;
1237.5000;0.6292;0.1540;
1237.8000;0.6284;0.1587;
1238.1000;0.6276;0.1704;
1238.4000;0.6284;0.1657;
1238.7000;0.6284;0.1657;
1239.0000;0.6276;0.1610;
1239.3000;0.6292;0.1634;
1239.6000;0.6292;0.1564;
1239.9000;0.6300;0.1634;
1240.2000;0.6284;0.1657;
1240.5000;0.6284;0.1704;
1240.8000;0.6292;0.1704;
1241.1000;0.6284;0.1657;
1241.4000;0.6333;0.1821;
1241.7000;0.6325;0.1821;
1242.0000;0.6309;0.1821;
1242.3000;0.6317;0.1704;
1242.6000;0.6365;0.1797;
1242.9000;0.6309;0.1704;
1243.2000;0.6284;0.1727;
1243.5000;0.6260;0.1727;
1243.8000;0.6268;0.1727;
1244.1000;0.6292;0.1727;
1244.4000;0.6284;0.1704;
1244.7000;0.6325;0.1774;
1245.0000;0.6292;0.1704;
1245.3000;0.6284;0.1634;
1245.6000;0.6325;0.1727;
1245.9000;0.6292;0.1540;
1246.2000;0.6292;0.1610;
1246.5000;0.6292;0.1681;
1246.8000;0.6276;0.1704;
1247.1000;0.6284;0.1774;
1247.4000;0.6268;0.1774;
1247.7000;0.6260;0.1751;
1248.0000;0.6292;0.1821;
1248.3000;0.6268;0.1704;
1248.6000;0.6276;0.1657;
1248.9000;0.6284;0.1587;
1249.2000;0.6284;0.1564;
1249.5000;0.6309;0.1634;
1249.8000;0.6235;0.1517;
1250.1000;0.6284;0.1540;
1250.4000;0.6284;0.1610;
1250.7000;0.6284;0.1564;
1251.0000;0.6276;0.1610;
1251.3000;0.6276;0.1657;
1251.6000;0.6284;0.1681;
1251.9000;0.6300;0.1634;
1252.2000;0.6357;0.1751;
1252.5000;0.6276;0.1634;
1252.8000;0.6300;0.1681;
1253.1000;0.6284;0.1657;
1253.4000;0.6276;0.1634;
1253.7000;0.6260;0.1634;
1254.0000;0.6284;0.1610;
1254.3000;0.6268;0.1634;
1254.6000;0.6268;0.1681;
1254.9000;0.6243;0.1657;
1255.2000;0.6268;0.1634;
1255.5000;0.6292;0.1634;
1255.8000;0.6276;0.1610;
1256.1000;0.6276;0.1610;
1256.4000;0.6292;0.1564;
1256.7000;0.6276;0.1424;
1257.0000;0.6276;0.1377;
1257.3000;0.6276;0.1377;
1257.6000;0.6317;0.1634;
1257.9000;0.6284;0.1610;
1258.2000;0.6292;0.1587;
1258.5000;0.6349;0.1727;
1258.8000;0.6276;0.1610;
1259.1000;0.6284;0.1634;
1259.4000;0.6268;0.1564;
1259.7000;0.6292;0.1494;
1260.0000;0.6292;0.1424;
1260.3000;0.6300;0.1494;
1260.6000;0.6292;0.1494;
1260.9000;0.6284;0.1564;
1261.2000;0.6276;0.1517;
1261.5000;0.6374;0.1751;
1261.8000;0.6276;0.1634;
1262.1000;0.6284;0.1681;
1262.4000;0.6268;0.1564;
1262.7000;0.6284;0.1610;
1263.0000;0.6300;0.1564;
1263.3000;0.6284;0.1564;
1263.6000;0.6300;0.1470;
1263.9000;0.6284;0.1400;
1264.2000;0.6292;0.1494;
1264.5000;0.6284;0.1494;
1264.8000;0.6284;0.1447;
1265.1000;0.6276;0.1447;
1265.4000;0.6276;0.1354;
1265.7000;0.6276;0.1400;
1266.0000;0.6284;0.1400;
1266.3000;0.6276;0.1400;
1266.6000;0.6276;0.1400;
1266.9000;0.6276;0.1400;
1267.2000;0.6260;0.1447;
1267.5000;0.6268;0.1517;
1267.8000;0.6235;0.1564;
1268.1000;0.6268;0.1610;
1268.4000;0.6268;0.1704;
1268.7000;0.6333;0.1797;
1269.0000;0.6276;0.1610;
1269.3000;0.6276;0.1634;
1269.6000;0.6292;0.1704;
1269.9000;0.6276;0.1681;
1270.2000;0.6268;0.1634;
1270.5000;0.6268;0.1587;
1270.8000;0.6268;0.1704;
1271.1000;0.6276;0.1657;
1271.4000;0.6276;0.1681;
1271.7000;0.6268;0.1681;
1272.0000;0.6276;0.1610;
1272.3000;0.6276;0.1564;
1272.6000;0.6276;0.1564;
1272.9000;0.6284;0.1494;
1273.2000;0.6276;0.1470;
1273.5000;0.6284;0.1517;
1273.8000;0.6284;0.1587;
1274.1000;0.6276;0.1470;
1274.4000;0.6300;0.1564;
1274.7000;0.6317;0.1657;
1275.0000;0.6276;0.1634;
1275.3000;0.6276;0.1587;
1275.6000;0.6276;0.1657;
1275.9000;0.6284;0.1704;
1276.2000;0.6284;0.1681;
1276.5000;0.6292;0.1587;
1276.8000;0.6284;0.1657;
1277.1000;0.6276;0.1727;
1277.4000;0.6276;0.1727;
1277.7000;0.6292;0.1821;
1278.0000;0.6292;0.1797;
1278.3000;0.6300;0.1751;
1278.6000;0.6284;0.1774;
1278.9000;0.6268;0.1704;
1279.2000;0.6260;0.1657;
1279.5000;0.6252;0.1587;
1279.8000;0.6252;0.1587;
1280.1000;0.6284;0.1634;
1280.4000;0.6284;0.1610;
1280.7000;0.6276;0.1517;
1281.0000;0.6276;0.1517;
1281.3000;0.6309;0.1564;
1281.6000;0.6325;0.1610;
1281.9000;0.6276;0.1494;
1282.2000;0.6276;0.1494;
1282.5000;0.6243;0.1354;
1282.8000;0.6276;0.1400;
1283.1000;0.6284;0.1424;
1283.4000;0.6284;0.1517;
1283.7000;0.6292;0.1540;
1284.0000;0.6292;0.1470;
1284.3000;0.6292;0.1517;
1284.6000;0.6260;0.1564;
1284.9000;0.6268;0.1610;
1285.2000;0.6276;0.1587;
1285.5000;0.6284;0.1587;
1285.8000;0.6268;0.1540;
1286.1000;0.6276;0.1517;
1286.4000;0.6276;0.1494;
1286.7000;0.6276;0.1470;
1287.0000;0.6268;0.1424;
1287.3000;0.6276;0.1447;
1287.6000;0.6252;0.1447;
1287.9000;0.6268;0.1564;
1288.2000;0.6252;0.1564;
1288.5000;0.6276;0.1610;
1288.8000;0.6268;0.1540;
1289.1000;0.6252;0.1470;
1289.4000;0.6268;0.1564;
1289.7000;0.6260;0.1564;
1290.0000;0.6276;0.1564;
1290.3000;0.6260;0.1540;
1290.6000;0.6252;0.1540;
1290.9000;0.6260;0.1540;
1291.2000;0.6211;0.1424;
1291.5000;0.6268;0.1564;
1291.8000;0.6268;0.1564;
1292.1000;0.6268;0.1564;
1292.4000;0.6260;0.1704;
1292.7000;0.6227;0.1681;
1293.0000;0.6260;0.1797;
1293.3000;0.6268;0.1774;
1293.6000;0.6276;0.1704;
1293.9000;0.6268;0.1657;
1294.2000;0.6268;0.1634;
1294.5000;0.6284;0.1587;
1294.8000;0.6268;0.1494;
1295.1000;0.6276;0.1634;
1295.4000;0.6292;0.1657;
1295.7000;0.6276;0.1610;
1296.0000;0.6276;0.1610;
1296.3000;0.6300;0.1751;
1296.6000;0.6292;0.1727;
1296.9000;0.6276;0.1681;
1297.2000;0.6260;0.1657;
1297.5000;0.6268;0.1610;
1297.8000;0.6252;0.1540;
1298.1000;0.6284;0.1681;
1298.4000;0.6276;0.1634;
1298.7000;0.6284;0.1704;
1299.0000;0.6276;0.1634;
1299.3000;0.6276;0.1797;
1299.6000;0.6284;0.1797;
1299.9000;0.6284;0.1727;
1300.2000;0.6260;0.1681;
1300.5000;0.6284;0.1751;
1300.8000;0.6227;0.1634;
1301.1000;0.6260;0.1797;
1301.4000;0.6268;0.1891;
1301.7000;0.6276;0.1914;
1302.0000;0.6276;0.1821;
1302.3000;0.6260;0.1774;
1302.6000;0.6260;0.1774;
1302.9000;0.6268;0.1774;
1303.2000;0.6243;0.1727;
1303.5000;0.6227;0.1727;
1303.8000;0.6260;0.1797;
1304.1000;0.6268;0.1751;
1304.4000;0.6260;0.1751;
1304.7000;0.6276;0.1821;
1305.0000;0.6268;0.1797;
1305.3000;0.6260;0.1774;
1305.6000;0.6317;0.1797;
1305.9000;0.6260;0.1727;
1306.2000;0.6276;0.1821;
1306.5000;0.6268;0.1751;
1306.8000;0.6260;0.1797;
1307.1000;0.6276;0.1751;
1307.4000;0.6268;0.1681;
1307.7000;0.6317;0.1751;
1308.0000;0.6317;0.1774;
1308.3000;0.6252;0.1540;
1308.6000;0.6268;0.1540;
1308.9000;0.6268;0.1564;
1309.2000;0.6292;0.1587;
1309.5000;0.6284;0.1540;
1309.8000;0.6284;0.1540;
1310.1000;0.6284;0.1517;
1310.4000;0.6292;0.1540;
1310.7000;0.6276;0.1517;
1311.0000;0.6268;0.1564;
1311.3000;0.6276;0.1657;
1311.6000;0.6276;0.1657;
1311.9000;0.6292;0.1681;
1312.2000;0.6276;0.1681;
1312.5000;0.6260;0.1587;
1312.8000;0.6292;0.1704;
1313.1000;0.6268;0.1681;
1313.4000;0.6268;0.1681;
1313.7000;0.6300;0.1681;
1314.0000;0.6260;0.1657;
1314.3000;0.6268;0.1751;
1314.6000;0.6219;0.1587;
1314.9000;0.6276;0.1704;
1315.2000;0.6276;0.1704;
1315.5000;0.6268;0.1681;
1315.8000;0.6284;0.1727;
1316.1000;0.6276;0.1774;
1316.4000;0.6284;0.1774;
1316.7000;0.6268;0.1704;
1317.0000;0.6284;0.1704;
1317.3000;0.6276;0.1681;
1317.6000;0.6260;0.1704;
1317.9000;0.6300;0.1751;
1318.2000;0.6260;0.1774;
1318.5000;0.6276;0.1751;
1318.8000;0.6292;0.1844;
1319.1000;0.6252;0.1797;
1319.4000;0.6260;0.1821;
1319.7000;0.6260;0.1821;
1320.0000;0.6276;0.1891;
1320.3000;0.6268;0.1821;
1320.6000;0.6276;0.1751;
1320.9000;0.6252;0.1681;
1321.2000;0.6276;0.1751;
1321.5000;0.6284;0.1704;
1321.8000;0.6276;0.1634;
1322.1000;0.6276;0.1564;
1322.4000;0.6276;0.1540;
1322.7000;0.6268;0.1610;
1323.0000;0.6268;0.1657;
1323.3000;0.6268;0.1704;
1323.6000;0.6268;0.1657;
1323.9000;0.6260;0.1634;
1324.2000;0.6268;0.1634;
1324.5000;0.6268;0.1634;
1324.8000;0.6235;0.1564;
1325.1000;0.6268;0.1610;
1325.4000;0.6252;0.1540;
1325.7000;0.6284;0.1587;
1326.0000;0.6268;0.1587;
1326.3000;0.6276;0.1564;
1326.6000;0.6292;0.1727;
1326.9000;0.6276;0.1727;
1327.2000;0.6268;0.1774;
1327.5000;0.6203;0.1704;
1327.8000;0.6268;0.1914;
1328.1000;0.6268;0.1891;
1328.4000;0.6252;0.1867;
1328.7000;0.6268;0.1774;
1329.0000;0.6260;0.1727;
1329.3000;0.6284;0.1774;
1329.6000;0.6268;0.1751;
1329.9000;0.6268;0.1704;
1330.2000;0.6276;0.1657;
1330.5000;0.6317;0.1704;
1330.8000;0.6260;0.1517;
1331.1000;0.6268;0.1564;
1331.4000;0.6284;0.1587;
1331.7000;0.6276;0.1634;
1332.0000;0.6276;0.1540;
1332.3000;0.6268;0.1517;
1332.6000;0.6284;0.1610;
1332.9000;0.6317;0.1774;
1333.2000;0.6292;0.1751;
1333.5000;0.6252;0.1751;
1333.8000;0.6300;0.1937;
1334.1000;0.6309;0.1961;
1334.4000;0.6268;0.1821;
1334.7000;0.6268;0.1797;
1335.0000;0.6309;0.1891;
1335.3000;0.6292;0.1774;
1335.6000;0.6219;0.1681;
1335.9000;0.6243;0.1751;
1336.2000;0.6268;0.1681;
1336.5000;0.6284;0.1727;
1336.8000;0.6284;0.1774;
1337.1000;0.6243;0.1634;
1337.4000;0.6284;0.1727;
1337.7000;0.6268;0.1751;
1338.0000;0.6268;0.1797;
1338.3000;0.6252;0.1797;
1338.6000;0.6260;0.1727;
1338.9000;0.6260;0.1727;
1339.2000;0.6227;0.1657;
1339.5000;0.6268;0.1751;
1339.8000;0.6268;0.1751;
1340.1000;0.6276;0.1727;
1340.4000;0.6268;0.1727;
1340.7000;0.6276;0.1727;
1341.0000;0.6252;0.1727;
1341.3000;0.6268;0.1727;
1341.6000;0.6268;0.1704;
1341.9000;0.6252;0.1657;
1342.2000;0.6276;0.1751;
1342.5000;0.6268;0.1681;
1342.8000;0.6260;0.1727;
1343.1000;0.6276;0.1657;
1343.4000;0.6276;0.1634;
1343.7000;0.6260;0.1634;
1344.0000;0.6300;0.1610;
1344.3000;0.6300;0.1587;
1344.6000;0.6260;0.1447;
1344.9000;0.6300;0.1564;
1345.2000;0.6260;0.1470;
1345.5000;0.6268;0.1400;
1345.8000;0.6276;0.1377;
1346.1000;0.6276;0.1354;
1346.4000;0.6260;0.1400;
1346.7000;0.6252;0.1354;
1347.0000;0.6268;0.1424;
1347.3000;0.6276;0.1540;
1347.6000;0.6260;0.1564;
1347.9000;0.6260;0.1704;
1348.2000;0.6268;0.1704;
1348.5000;0.6292;0.1821;
1348.8000;0.6260;0.1727;
1349.1000;0.6260;0.1681;
1349.4000;0.6325;0.1844;
1349.7000;0.6260;0.1610;
1350.0000;0.6276;0.1634;
1350.3000;0.6252;0.1610;
1350.6000;0.6219;0.1517;
1350.9000;0.6268;0.1587;
1351.2000;0.6260;0.1517;
1351.5000;0.6211;0.1354;
1351.8000;0.6276;0.1540;
1352.1000;0.6268;0.1540;
1352.4000;0.6268;0.1540;
1352.7000;0.6268;0.1540;
1353.0000;0.6276;0.1540;
1353.3000;0.6235;0.1517;
1353.6000;0.6203;0.1424;
1353.9000;0.6284;0.1681;
1354.2000;0.6284;0.1704;
1354.5000;0.6260;0.1681;
1354.8000;0.6284;0.1727;
1355.1000;0.6276;0.1681;
1355.4000;0.6276;0.1657;
1355.7000;0.6284;0.1751;
1356.0000;0.6284;0.1727;
1356.3000;0.6195;0.1494;
1356.6000;0.6349;0.1891;
1356.9000;0.6276;0.1681;
1357.2000;0.6252;0.1657;
1357.5000;0.6260;0.1564;
1357.8000;0.6252;0.1564;
1358.1000;0.6235;0.1494;
1358.4000;0.6252;0.1424;
1358.7000;0.6252;0.1540;
1359.0000;0.6260;0.1657;
1359.3000;0.6260;0.1681;
1359.6000;0.6260;0.1681;
1359.9000;0.6235;0.1610;
1360.2000;0.6260;0.1657;
1360.5000;0.6260;0.1727;
1360.8000;0.6260;0.1727;
1361.1000;0.6268;0.1704;
1361.4000;0.6260;0.1657;
1361.7000;0.6252;0.1540;
1362.0000;0.6211;0.1447;
1362.3000;0.6203;0.1470;
1362.6000;0.6260;0.1610;
1362.9000;0.6260;0.1681;
1363.2000;0.6243;0.1681;
1363.5000;0.6260;0.1657;
1363.8000;0.6268;0.1657;
1364.1000;0.6252;0.1681;
1364.4000;0.6268;0.1704;
1364.7000;0.6268;0.1704;
1365.0000;0.6219;0.1610;
1365.3000;0.6268;0.1727;
1365.6000;0.6260;0.1657;
1365.9000;0.6268;0.1681;
1366.2000;0.6284;0.1727;
1366.5000;0.6268;0.1727;
1366.8000;0.6276;0.1587;
1367.1000;0.6268;0.1587;
1367.4000;0.6292;0.1681;
1367.7000;0.6284;0.1681;
1368.0000;0.6260;0.1587;
1368.3000;0.6260;0.1540;
1368.6000;0.6268;0.1540;
1368.9000;0.6276;0.1564;
1369.2000;0.6276;0.1657;
1369.5000;0.6260;0.1634;
1369.8000;0.6276;0.1657;
1370.1000;0.6268;0.1681;
1370.4000;0.6243;0.1634;
1370.7000;0.6252;0.1681;
1371.0000;0.6341;0.1961;
1371.3000;0.6252;0.1821;
1371.6000;0.6268;0.1727;
1371.9000;0.6203;0.1634;
1372.2000;0.6284;0.1797;
1372.5000;0.6276;0.1774;
1372.8000;0.6325;0.1914;
1373.1000;0.6260;0.1797;
1373.4000;0.6252;0.1751;
1373.7000;0.6260;0.1727;
1374.0000;0.6276;0.1704;
1374.3000;0.6292;0.1727;
1374.6000;0.6276;0.1634;
1374.9000;0.6243;0.1634;
1375.2000;0.6300;0.1704;
1375.5000;0.6195;0.1447;
1375.8000;0.6276;0.1681;
1376.1000;0.6243;0.1704;
1376.4000;0.6260;0.1634;
1376.7000;0.6260;0.1634;
1377.0000;0.6268;0.1727;
1377.3000;0.6243;0.1751;
1377.6000;0.6252;0.1821;
1377.9000;0.6252;0.1774;
1378.2000;0.6268;0.1704;
1378.5000;0.6235;0.1587;
1378.8000;0.6276;0.1634;
1379.1000;0.6268;0.1681;
1379.4000;0.6268;0.1681;
1379.7000;0.6243;0.1610;
1380.0000;0.6276;0.1657;
1380.3000;0.6268;0.1727;
1380.6000;0.6260;0.1704;
1380.9000;0.6284;0.1657;
1381.2000;0.6276;0.1540;
1381.5000;0.6252;0.1587;
1381.8000;0.6268;0.1610;
1382.1000;0.6260;0.1610;
1382.4000;0.6260;0.1657;
1382.7000;0.6284;0.1587;
1383.0000;0.6276;0.1610;
1383.3000;0.6268;0.1587;
1383.6000;0.6227;0.1517;
1383.9000;0.6268;0.1657;
1384.2000;0.6309;0.1774;
1384.5000;0.6260;0.1634;
1384.8000;0.6292;0.1704;
1385.1000;0.6260;0.1657;
1385.4000;0.6284;0.1634;
1385.7000;0.6276;0.1517;
1386.0000;0.6260;0.1470;
1386.3000;0.6276;0.1494;
1386.6000;0.6268;0.1494;
1386.9000;0.6276;0.1540;
1387.2000;0.6260;0.1587;
1387.5000;0.6260;0.1587;
1387.8000;0.6260;0.1634;
1388.1000;0.6260;0.1610;
1388.4000;0.6268;0.1610;
1388.7000;0.6260;0.1564;
1389.0000;0.6243;0.1634;
1389.3000;0.6260;0.1587;
1389.6000;0.6268;0.1564;
1389.9000;0.6268;0.1587;
1390.2000;0.6252;0.1564;
1390.5000;0.6186;0.1540;
1390.8000;0.6260;0.1681;
1391.1000;0.6268;0.1751;
1391.4000;0.6268;0.1727;
1391.7000;0.6268;0.1727;
1392.0000;0.6276;0.1751;
1392.3000;0.6243;0.1634;
1392.6000;0.6243;0.1610;
1392.9000;0.6252;0.1634;
1393.2000;0.6260;0.1681;
1393.5000;0.6260;0.1704;
1393.8000;0.6211;0.1587;
1394.1000;0.6243;0.1751;
1394.4000;0.6243;0.1704;
1394.7000;0.6268;0.1774;
1395.0000;0.6268;0.1751;
1395.3000;0.6268;0.1821;
1395.6000;0.6227;0.1797;
1395.9000;0.6252;0.1891;
1396.2000;0.6243;0.1844;
1396.5000;0.6235;0.1821;
1396.8000;0.6235;0.1751;
1397.1000;0.6243;0.1774;
1397.4000;0.6252;0.1751;
1397.7000;0.6227;0.1610;
1398.0000;0.6252;0.1634;
1398.3000;0.6243;0.1657;
1398.6000;0.6252;0.1587;
1398.9000;0.6211;0.1470;
1399.2000;0.6252;0.1564;
1399.5000;0.6252;0.1587;
1399.8000;0.6252;0.1587;
