time/ms;Fluo/V;P700 deltaI/I x10³;
-199.8000;0.7285;0.1284;
-199.5000;0.7285;0.1237;
-199.2000;0.7293;0.1190;
-198.9000;0.7261;0.1050;
-198.6000;0.7277;0.1144;
-198.3000;0.7269;0.1214;
-198.0000;0.7293;0.1237;
-197.7000;0.7277;0.1284;
-197.4000;0.7261;0.1260;
-197.1000;0.7253;0.1214;
-196.8000;0.7277;0.1284;
-196.5000;0.7261;0.1260;
-196.2000;0.7285;0.1190;
-195.9000;0.7261;0.1027;
-195.6000;0.7277;0.1167;
-195.3000;0.7269;0.1237;
-195.0000;0.7261;0.1237;
-194.7000;0.7269;0.1260;
-194.4000;0.7253;0.1237;
-194.1000;0.7277;0.1190;
-193.8000;0.7285;0.1214;
-193.5000;0.7261;0.1237;
-193.2000;0.7261;0.1284;
-192.9000;0.7269;0.1284;
-192.6000;0.7269;0.1307;
-192.3000;0.7277;0.1354;
-192.0000;0.7261;0.1284;
-191.7000;0.7261;0.1284;
-191.4000;0.7302;0.1260;
-191.1000;0.7269;0.1214;
-190.8000;0.7261;0.1190;
-190.5000;0.7261;0.1214;
-190.2000;0.7277;0.1307;
-189.9000;0.7277;0.1237;
-189.6000;0.7261;0.1214;
-189.3000;0.7261;0.1237;
-189.0000;0.7285;0.1330;
-188.7000;0.7277;0.1260;
-188.4000;0.7245;0.1190;
-188.1000;0.7261;0.1260;
-187.8000;0.7269;0.1260;
-187.5000;0.7269;0.1167;
-187.2000;0.7236;0.1120;
-186.9000;0.7253;0.1190;
-186.6000;0.7277;0.1144;
-186.3000;0.7302;0.1237;
-186.0000;0.7269;0.1120;
-185.7000;0.7269;0.1074;
-185.4000;0.7293;0.1167;
-185.1000;0.7277;0.1167;
-184.8000;0.7285;0.1120;
-184.5000;0.7228;0.1004;
-184.2000;0.7318;0.1190;
-183.9000;0.7253;0.1027;
-183.6000;0.7269;0.1097;
-183.3000;0.7334;0.1284;
-183.0000;0.7269;0.1144;
-182.7000;0.7277;0.1260;
-182.4000;0.7269;0.1260;
-182.1000;0.7261;0.1284;
-181.8000;0.7285;0.1354;
-181.5000;0.7261;0.1284;
-181.2000;0.7261;0.1237;
-180.9000;0.7269;0.1307;
-180.6000;0.7261;0.1307;
-180.3000;0.7261;0.1330;
-180.0000;0.7261;0.1260;
-179.7000;0.7269;0.1260;
-179.4000;0.7253;0.1260;
-179.1000;0.7269;0.1330;
-178.8000;0.7269;0.1330;
-178.5000;0.7285;0.1330;
-178.2000;0.7277;0.1354;
-177.9000;0.7269;0.1354;
-177.6000;0.7269;0.1330;
-177.3000;0.7261;0.1307;
-177.0000;0.7277;0.1260;
-176.7000;0.7277;0.1307;
-176.4000;0.7269;0.1354;
-176.1000;0.7285;0.1400;
-175.8000;0.7277;0.1330;
-175.5000;0.7285;0.1354;
-175.2000;0.7277;0.1307;
-174.9000;0.7277;0.1354;
-174.6000;0.7293;0.1330;
-174.3000;0.7269;0.1214;
-174.0000;0.7269;0.1330;
-173.7000;0.7261;0.1330;
-173.4000;0.7269;0.1424;
-173.1000;0.7253;0.1330;
-172.8000;0.7261;0.1330;
-172.5000;0.7285;0.1260;
-172.2000;0.7277;0.1237;
-171.9000;0.7277;0.1214;
-171.6000;0.7253;0.1190;
-171.3000;0.7277;0.1237;
-171.0000;0.7277;0.1260;
-170.7000;0.7261;0.1237;
-170.4000;0.7277;0.1237;
-170.1000;0.7269;0.1260;
-169.8000;0.7277;0.1260;
-169.5000;0.7285;0.1190;
-169.2000;0.7293;0.1237;
-168.9000;0.7269;0.1214;
-168.6000;0.7334;0.1400;
-168.3000;0.7285;0.1330;
-168.0000;0.7277;0.1284;
-167.7000;0.7277;0.1260;
-167.4000;0.7293;0.1400;
-167.1000;0.7261;0.1377;
-166.8000;0.7277;0.1424;
-166.5000;0.7302;0.1400;
-166.2000;0.7285;0.1307;
-165.9000;0.7269;0.1167;
-165.6000;0.7261;0.1190;
-165.3000;0.7318;0.1144;
-165.0000;0.7350;0.1284;
-164.7000;0.7277;0.1167;
-164.4000;0.7261;0.1214;
-164.1000;0.7269;0.1237;
-163.8000;0.7261;0.1237;
-163.5000;0.7261;0.1260;
-163.2000;0.7277;0.1330;
-162.9000;0.7277;0.1284;
-162.6000;0.7277;0.1260;
-162.3000;0.7261;0.1190;
-162.0000;0.7253;0.1144;
-161.7000;0.7269;0.1120;
-161.4000;0.7261;0.1097;
-161.1000;0.7261;0.1097;
-160.8000;0.7261;0.1097;
-160.5000;0.7277;0.1097;
-160.2000;0.7293;0.1074;
-159.9000;0.7220;0.1027;
-159.6000;0.7269;0.1214;
-159.3000;0.7285;0.1190;
-159.0000;0.7261;0.1284;
-158.7000;0.7245;0.1237;
-158.4000;0.7269;0.1237;
-158.1000;0.7261;0.1307;
-157.8000;0.7285;0.1377;
-157.5000;0.7261;0.1284;
-157.2000;0.7269;0.1307;
-156.9000;0.7269;0.1330;
-156.6000;0.7261;0.1354;
-156.3000;0.7285;0.1354;
-156.0000;0.7261;0.1284;
-155.7000;0.7245;0.1284;
-155.4000;0.7269;0.1214;
-155.1000;0.7261;0.1260;
-154.8000;0.7253;0.1354;
-154.5000;0.7245;0.1447;
-154.2000;0.7261;0.1517;
-153.9000;0.7285;0.1517;
-153.6000;0.7253;0.1494;
-153.3000;0.7269;0.1424;
-153.0000;0.7261;0.1424;
-152.7000;0.7253;0.1354;
-152.4000;0.7318;0.1377;
-152.1000;0.7245;0.1284;
-151.8000;0.7269;0.1260;
-151.5000;0.7277;0.1144;
-151.2000;0.7269;0.1144;
-150.9000;0.7245;0.1050;
-150.6000;0.7253;0.0980;
-150.3000;0.7269;0.0980;
-150.0000;0.7261;0.1050;
-149.7000;0.7245;0.1027;
-149.4000;0.7261;0.1144;
-149.1000;0.7318;0.1260;
-148.8000;0.7293;0.1120;
-148.5000;0.7261;0.1144;
-148.2000;0.7269;0.1190;
-147.9000;0.7236;0.1190;
-147.6000;0.7285;0.1284;
-147.3000;0.7277;0.1214;
-147.0000;0.7261;0.1120;
-146.7000;0.7253;0.0957;
-146.4000;0.7277;0.1027;
-146.1000;0.7277;0.1004;
-145.8000;0.7269;0.1120;
-145.5000;0.7236;0.1074;
-145.2000;0.7285;0.1167;
-144.9000;0.7277;0.1190;
-144.6000;0.7261;0.1120;
-144.3000;0.7261;0.1120;
-144.0000;0.7302;0.1260;
-143.7000;0.7277;0.1284;
-143.4000;0.7269;0.1190;
-143.1000;0.7285;0.1260;
-142.8000;0.7293;0.1237;
-142.5000;0.7277;0.1190;
-142.2000;0.7269;0.1167;
-141.9000;0.7253;0.1097;
-141.6000;0.7269;0.1284;
-141.3000;0.7285;0.1400;
-141.0000;0.7277;0.1424;
-140.7000;0.7269;0.1494;
-140.4000;0.7261;0.1447;
-140.1000;0.7261;0.1377;
-139.8000;0.7269;0.1400;
-139.5000;0.7269;0.1564;
-139.2000;0.7261;0.1400;
-138.9000;0.7269;0.1447;
-138.6000;0.7269;0.1470;
-138.3000;0.7269;0.1517;
-138.0000;0.7269;0.1517;
-137.7000;0.7277;0.1447;
-137.4000;0.7277;0.1424;
-137.1000;0.7293;0.1424;
-136.8000;0.7261;0.1377;
-136.5000;0.7253;0.1237;
-136.2000;0.7269;0.1284;
-135.9000;0.7253;0.1237;
-135.6000;0.7261;0.1190;
-135.3000;0.7261;0.1190;
-135.0000;0.7277;0.1284;
-134.7000;0.7269;0.1260;
-134.4000;0.7261;0.1214;
-134.1000;0.7277;0.1330;
-133.8000;0.7285;0.1284;
-133.5000;0.7285;0.1307;
-133.2000;0.7269;0.1307;
-132.9000;0.7277;0.1354;
-132.6000;0.7285;0.1284;
-132.3000;0.7269;0.1237;
-132.0000;0.7277;0.1260;
-131.7000;0.7261;0.1167;
-131.4000;0.7269;0.1260;
-131.1000;0.7261;0.1307;
-130.8000;0.7269;0.1330;
-130.5000;0.7179;0.1144;
-130.2000;0.7293;0.1377;
-129.9000;0.7253;0.1307;
-129.6000;0.7310;0.1470;
-129.3000;0.7261;0.1354;
-129.0000;0.7245;0.1330;
-128.7000;0.7253;0.1354;
-128.4000;0.7253;0.1260;
-128.1000;0.7245;0.1097;
-127.8000;0.7269;0.1074;
-127.5000;0.7285;0.1027;
-127.2000;0.7269;0.0957;
-126.9000;0.7253;0.0957;
-126.6000;0.7269;0.1027;
-126.3000;0.7326;0.1167;
-126.0000;0.7277;0.1097;
-125.7000;0.7277;0.1074;
-125.4000;0.7277;0.1167;
-125.1000;0.7261;0.1167;
-124.8000;0.7269;0.1074;
-124.5000;0.7269;0.1004;
-124.2000;0.7277;0.0980;
-123.9000;0.7285;0.0980;
-123.6000;0.7277;0.0957;
-123.3000;0.7293;0.1027;
-123.0000;0.7293;0.1004;
-122.7000;0.7269;0.0980;
-122.4000;0.7285;0.1027;
-122.1000;0.7269;0.1074;
-121.8000;0.7261;0.1050;
-121.5000;0.7277;0.1144;
-121.2000;0.7277;0.1144;
-120.9000;0.7269;0.1260;
-120.6000;0.7277;0.1214;
-120.3000;0.7269;0.1097;
-120.0000;0.7253;0.1097;
-119.7000;0.7269;0.1097;
-119.4000;0.7261;0.1074;
-119.1000;0.7277;0.1120;
-118.8000;0.7277;0.1237;
-118.5000;0.7285;0.1307;
-118.2000;0.7261;0.1214;
-117.9000;0.7261;0.1167;
-117.6000;0.7261;0.1144;
-117.3000;0.7253;0.1144;
-117.0000;0.7261;0.1097;
-116.7000;0.7253;0.1190;
-116.4000;0.7253;0.1167;
-116.1000;0.7261;0.1167;
-115.8000;0.7269;0.1097;
-115.5000;0.7236;0.1050;
-115.2000;0.7253;0.1097;
-114.9000;0.7285;0.1097;
-114.6000;0.7236;0.1027;
-114.3000;0.7269;0.1074;
-114.0000;0.7236;0.0957;
-113.7000;0.7261;0.1004;
-113.4000;0.7253;0.1097;
-113.1000;0.7261;0.1074;
-112.8000;0.7293;0.1050;
-112.5000;0.7253;0.0957;
-112.2000;0.7245;0.0934;
-111.9000;0.7269;0.1027;
-111.6000;0.7269;0.1144;
-111.3000;0.7285;0.1190;
-111.0000;0.7245;0.1050;
-110.7000;0.7261;0.1120;
-110.4000;0.7285;0.1120;
-110.1000;0.7285;0.1167;
-109.8000;0.7253;0.1120;
-109.5000;0.7261;0.1144;
-109.2000;0.7253;0.1144;
-108.9000;0.7261;0.1004;
-108.6000;0.7253;0.1050;
-108.3000;0.7261;0.1097;
-108.0000;0.7269;0.1050;
-107.7000;0.7261;0.1144;
-107.4000;0.7285;0.1167;
-107.1000;0.7139;0.0794;
-106.8000;0.7253;0.1097;
-106.5000;0.7269;0.0957;
-106.2000;0.7269;0.0957;
-105.9000;0.7245;0.0934;
-105.6000;0.7236;0.1004;
-105.3000;0.7302;0.1097;
-105.0000;0.7310;0.1097;
-104.7000;0.7253;0.1027;
-104.4000;0.7293;0.1120;
-104.1000;0.7277;0.1120;
-103.8000;0.7277;0.1050;
-103.5000;0.7253;0.1097;
-103.2000;0.7253;0.1120;
-102.9000;0.7285;0.1190;
-102.6000;0.7253;0.1097;
-102.3000;0.7269;0.1050;
-102.0000;0.7285;0.1074;
-101.7000;0.7269;0.1050;
-101.4000;0.7269;0.1074;
-101.1000;0.7293;0.1167;
-100.8000;0.7277;0.1120;
-100.5000;0.7269;0.1097;
-100.2000;0.7285;0.1237;
-99.9000;0.7302;0.1260;
-99.6000;0.7277;0.1214;
-99.3000;0.7261;0.1214;
-99.0000;0.7269;0.1260;
-98.7000;0.7269;0.1074;
-98.4000;0.7261;0.1120;
-98.1000;0.7277;0.1144;
-97.8000;0.7212;0.1074;
-97.5000;0.7277;0.1167;
-97.2000;0.7277;0.1167;
-96.9000;0.7277;0.1050;
-96.6000;0.7277;0.1167;
-96.3000;0.7293;0.1307;
-96.0000;0.7269;0.1330;
-95.7000;0.7269;0.1330;
-95.4000;0.7269;0.1284;
-95.1000;0.7269;0.1330;
-94.8000;0.7269;0.1237;
-94.5000;0.7269;0.1214;
-94.2000;0.7261;0.1144;
-93.9000;0.7302;0.1190;
-93.6000;0.7277;0.1260;
-93.3000;0.7277;0.1284;
-93.0000;0.7261;0.1260;
-92.7000;0.7269;0.1284;
-92.4000;0.7261;0.1237;
-92.1000;0.7269;0.1120;
-91.8000;0.7285;0.1167;
-91.5000;0.7253;0.1120;
-91.2000;0.7204;0.1120;
-90.9000;0.7359;0.1540;
-90.6000;0.7261;0.1307;
-90.3000;0.7277;0.1354;
-90.0000;0.7269;0.1400;
-89.7000;0.7350;0.1610;
-89.4000;0.7269;0.1400;
-89.1000;0.7269;0.1330;
-88.8000;0.7293;0.1377;
-88.5000;0.7253;0.1190;
-88.2000;0.7285;0.1307;
-87.9000;0.7277;0.1307;
-87.6000;0.7261;0.1354;
-87.3000;0.7285;0.1470;
-87.0000;0.7302;0.1494;
-86.7000;0.7285;0.1400;
-86.4000;0.7253;0.1330;
-86.1000;0.7253;0.1260;
-85.8000;0.7261;0.1307;
-85.5000;0.7253;0.1377;
-85.2000;0.7269;0.1330;
-84.9000;0.7245;0.1260;
-84.6000;0.7253;0.1377;
-84.3000;0.7293;0.1587;
-84.0000;0.7269;0.1587;
-83.7000;0.7261;0.1564;
-83.4000;0.7261;0.1494;
-83.1000;0.7277;0.1517;
-82.8000;0.7269;0.1540;
-82.5000;0.7188;0.1377;
-82.2000;0.7261;0.1540;
-81.9000;0.7269;0.1517;
-81.6000;0.7277;0.1470;
-81.3000;0.7293;0.1494;
-81.0000;0.7285;0.1424;
-80.7000;0.7277;0.1447;
-80.4000;0.7253;0.1400;
-80.1000;0.7261;0.1377;
-79.8000;0.7269;0.1400;
-79.5000;0.7293;0.1400;
-79.2000;0.7359;0.1587;
-78.9000;0.7269;0.1377;
-78.6000;0.7285;0.1237;
-78.3000;0.7277;0.1237;
-78.0000;0.7285;0.1330;
-77.7000;0.7253;0.1284;
-77.4000;0.7261;0.1377;
-77.1000;0.7277;0.1447;
-76.8000;0.7269;0.1540;
-76.5000;0.7269;0.1494;
-76.2000;0.7253;0.1447;
-75.9000;0.7285;0.1540;
-75.6000;0.7261;0.1540;
-75.3000;0.7261;0.1470;
-75.0000;0.7269;0.1400;
-74.7000;0.7212;0.1307;
-74.4000;0.7269;0.1400;
-74.1000;0.7277;0.1424;
-73.8000;0.7310;0.1517;
-73.5000;0.7277;0.1447;
-73.2000;0.7269;0.1424;
-72.9000;0.7285;0.1400;
-72.6000;0.7269;0.1307;
-72.3000;0.7269;0.1330;
-72.0000;0.7269;0.1284;
-71.7000;0.7277;0.1284;
-71.4000;0.7277;0.1307;
-71.1000;0.7277;0.1354;
-70.8000;0.7277;0.1400;
-70.5000;0.7293;0.1354;
-70.2000;0.7293;0.1284;
-69.9000;0.7269;0.1354;
-69.6000;0.7269;0.1354;
-69.3000;0.7285;0.1354;
-69.0000;0.7285;0.1377;
-68.7000;0.7293;0.1424;
-68.4000;0.7277;0.1400;
-68.1000;0.7277;0.1377;
-67.8000;0.7228;0.1190;
-67.5000;0.7269;0.1307;
-67.2000;0.7277;0.1307;
-66.9000;0.7261;0.1354;
-66.6000;0.7277;0.1424;
-66.3000;0.7285;0.1424;
-66.0000;0.7261;0.1470;
-65.7000;0.7350;0.1657;
-65.4000;0.7293;0.1470;
-65.1000;0.7253;0.1330;
-64.8000;0.7293;0.1400;
-64.5000;0.7269;0.1400;
-64.2000;0.7359;0.1610;
-63.9000;0.7285;0.1424;
-63.6000;0.7285;0.1424;
-63.3000;0.7261;0.1377;
-63.0000;0.7277;0.1377;
-62.7000;0.7293;0.1330;
-62.4000;0.7277;0.1307;
-62.1000;0.7277;0.1307;
-61.8000;0.7261;0.1377;
-61.5000;0.7277;0.1470;
-61.2000;0.7261;0.1424;
-60.9000;0.7253;0.1354;
-60.6000;0.7253;0.1354;
-60.3000;0.7253;0.1284;
-60.0000;0.7269;0.1260;
-59.7000;0.7269;0.1167;
-59.4000;0.7220;0.1120;
-59.1000;0.7277;0.1260;
-58.8000;0.7293;0.1214;
-58.5000;0.7277;0.1144;
-58.2000;0.7269;0.1144;
-57.9000;0.7277;0.1237;
-57.6000;0.7204;0.1027;
-57.3000;0.7269;0.1260;
-57.0000;0.7228;0.1284;
-56.7000;0.7261;0.1354;
-56.4000;0.7269;0.1284;
-56.1000;0.7261;0.1307;
-55.8000;0.7261;0.1307;
-55.5000;0.7253;0.1144;
-55.2000;0.7269;0.1144;
-54.9000;0.7277;0.1167;
-54.6000;0.7253;0.1167;
-54.3000;0.7253;0.1167;
-54.0000;0.7253;0.1167;
-53.7000;0.7261;0.1167;
-53.4000;0.7261;0.1120;
-53.1000;0.7269;0.1120;
-52.8000;0.7261;0.1120;
-52.5000;0.7253;0.1074;
-52.2000;0.7261;0.1144;
-51.9000;0.7293;0.1330;
-51.6000;0.7269;0.1260;
-51.3000;0.7253;0.1167;
-51.0000;0.7261;0.1190;
-50.7000;0.7236;0.1050;
-50.4000;0.7245;0.1120;
-50.1000;0.7269;0.1120;
-49.8000;0.7253;0.1167;
-49.5000;0.7261;0.1097;
-49.2000;0.7196;0.0934;
-48.9000;0.7269;0.1167;
-48.6000;0.7285;0.1190;
-48.3000;0.7204;0.1027;
-48.0000;0.7285;0.1307;
-47.7000;0.7269;0.1330;
-47.4000;0.7285;0.1330;
-47.1000;0.7269;0.1284;
-46.8000;0.7269;0.1330;
-46.5000;0.7261;0.1307;
-46.2000;0.7253;0.1144;
-45.9000;0.7236;0.1050;
-45.6000;0.7277;0.1120;
-45.3000;0.7253;0.1027;
-45.0000;0.7269;0.1074;
-44.7000;0.7269;0.1144;
-44.4000;0.7269;0.1167;
-44.1000;0.7261;0.1120;
-43.8000;0.7269;0.1120;
-43.5000;0.7302;0.1144;
-43.2000;0.7269;0.1074;
-42.9000;0.7285;0.1214;
-42.6000;0.7253;0.1237;
-42.3000;0.7269;0.1214;
-42.0000;0.7261;0.1214;
-41.7000;0.7277;0.1284;
-41.4000;0.7204;0.1120;
-41.1000;0.7269;0.1284;
-40.8000;0.7269;0.1260;
-40.5000;0.7261;0.1260;
-40.2000;0.7302;0.1330;
-39.9000;0.7269;0.1214;
-39.6000;0.7293;0.1284;
-39.3000;0.7212;0.1190;
-39.0000;0.7245;0.1237;
-38.7000;0.7253;0.1167;
-38.4000;0.7236;0.1074;
-38.1000;0.7261;0.1120;
-37.8000;0.7269;0.1190;
-37.5000;0.7261;0.1214;
-37.2000;0.7228;0.1120;
-36.9000;0.7253;0.1074;
-36.6000;0.7293;0.1214;
-36.3000;0.7261;0.1167;
-36.0000;0.7293;0.1144;
-35.7000;0.7269;0.1097;
-35.4000;0.7269;0.1167;
-35.1000;0.7163;0.0980;
-34.8000;0.7285;0.1330;
-34.5000;0.7269;0.1260;
-34.2000;0.7261;0.1144;
-33.9000;0.7253;0.1260;
-33.6000;0.7277;0.1260;
-33.3000;0.7269;0.1307;
-33.0000;0.7277;0.1330;
-32.7000;0.7277;0.1377;
-32.4000;0.7277;0.1377;
-32.1000;0.7293;0.1424;
-31.8000;0.7285;0.1330;
-31.5000;0.7269;0.1237;
-31.2000;0.7269;0.1190;
-30.9000;0.7293;0.1190;
-30.6000;0.7277;0.1190;
-30.3000;0.7277;0.1307;
-30.0000;0.7326;0.1400;
-29.7000;0.7253;0.1214;
-29.4000;0.7261;0.1284;
-29.1000;0.7253;0.1237;
-28.8000;0.7269;0.1307;
-28.5000;0.7261;0.1400;
-28.2000;0.7261;0.1377;
-27.9000;0.7269;0.1330;
-27.6000;0.7261;0.1307;
-27.3000;0.7261;0.1260;
-27.0000;0.7269;0.1330;
-26.7000;0.7269;0.1400;
-26.4000;0.7261;0.1424;
-26.1000;0.7277;0.1424;
-25.8000;0.7318;0.1540;
-25.5000;0.7261;0.1470;
-25.2000;0.7269;0.1517;
-24.9000;0.7261;0.1447;
-24.6000;0.7269;0.1377;
-24.3000;0.7261;0.1237;
-24.0000;0.7261;0.1284;
-23.7000;0.7269;0.1284;
-23.4000;0.7285;0.1330;
-23.1000;0.7261;0.1284;
-22.8000;0.7269;0.1307;
-22.5000;0.7269;0.1330;
-22.2000;0.7261;0.1330;
-21.9000;0.7261;0.1330;
-21.6000;0.7253;0.1284;
-21.3000;0.7236;0.1284;
-21.0000;0.7261;0.1307;
-20.7000;0.7253;0.1330;
-20.4000;0.7269;0.1377;
-20.1000;0.7245;0.1330;
-19.8000;0.7253;0.1284;
-19.5000;0.7277;0.1284;
-19.2000;0.7253;0.1377;
-18.9000;0.7269;0.1447;
-18.6000;0.7253;0.1424;
-18.3000;0.7253;0.1377;
-18.0000;0.7261;0.1400;
-17.7000;0.7253;0.1424;
-17.4000;0.7261;0.1424;
-17.1000;0.7220;0.1377;
-16.8000;0.7253;0.1424;
-16.5000;0.7253;0.1400;
-16.2000;0.7293;0.1470;
-15.9000;0.7261;0.1400;
-15.6000;0.7269;0.1354;
-15.3000;0.7253;0.1400;
-15.0000;0.7245;0.1354;
-14.7000;0.7261;0.1377;
-14.4000;0.7253;0.1354;
-14.1000;0.7285;0.1354;
-13.8000;0.7269;0.1284;
-13.5000;0.7277;0.1354;
-13.2000;0.7261;0.1330;
-12.9000;0.7245;0.1307;
-12.6000;0.7245;0.1214;
-12.3000;0.7253;0.1260;
-12.0000;0.7253;0.1307;
-11.7000;0.7245;0.1260;
-11.4000;0.7220;0.1214;
-11.1000;0.7293;0.1400;
-10.8000;0.7253;0.1260;
-10.5000;0.7204;0.1120;
-10.2000;0.7277;0.1307;
-9.9000;0.7302;0.1284;
-9.6000;0.7269;0.1284;
-9.3000;0.7269;0.1237;
-9.0000;0.7261;0.1144;
-8.7000;0.7269;0.1120;
-8.4000;0.7253;0.1027;
-8.1000;0.7261;0.1027;
-7.8000;0.7261;0.1097;
-7.5000;0.7285;0.1097;
-7.2000;0.7277;0.1144;
-6.9000;0.7302;0.1167;
-6.6000;0.7277;0.1237;
-6.3000;0.7269;0.1307;
-6.0000;0.7269;0.1330;
-5.7000;0.7261;0.1330;
-5.4000;0.7269;0.1330;
-5.1000;0.7253;0.1377;
-4.8000;0.7277;0.1447;
-4.5000;0.7310;0.1447;
-4.2000;0.7261;0.1330;
-3.9000;0.7269;0.1307;
-3.6000;0.7269;0.1214;
-3.3000;0.7253;0.1214;
-3.0000;0.7277;0.1284;
-2.7000;0.7293;0.1307;
-2.4000;0.7269;0.1190;
-2.1000;0.7245;0.1074;
-1.8000;0.7261;0.1144;
-1.5000;0.7236;0.1097;
-1.2000;0.7269;0.1144;
-0.9000;0.7269;0.1144;
-0.6000;0.7261;0.1214;
-0.3000;0.7253;0.1260;
0.0000;0.7253;0.1260;
0.3000;0.7757;0.1470;
0.6000;0.8539;0.2334;
0.9000;0.9174;0.3151;
1.2000;0.9613;0.3758;
1.5000;1.0004;0.4365;
1.8000;1.0313;0.4855;
2.1000;1.0541;0.5182;
2.4000;1.0769;0.5602;
2.7000;1.0908;0.5812;
3.0000;1.1030;0.5998;
3.3000;1.1144;0.6045;
3.6000;1.1258;0.6162;
3.9000;1.1380;0.6302;
4.2000;1.1469;0.6349;
4.5000;1.1559;0.6419;
4.8000;1.1640;0.6559;
5.1000;1.1697;0.6489;
5.4000;1.1754;0.6465;
5.7000;1.1884;0.6652;
6.0000;1.1925;0.6605;
6.3000;1.2031;0.6699;
6.6000;1.2112;0.6745;
6.9000;1.2169;0.6745;
7.2000;1.2210;0.6745;
7.5000;1.2243;0.6722;
7.8000;1.2316;0.6652;
8.1000;1.2389;0.6652;
8.4000;1.2454;0.6652;
8.7000;1.2511;0.6605;
9.0000;1.2601;0.6722;
9.3000;1.2633;0.6675;
9.6000;1.2690;0.6629;
9.9000;1.2755;0.6699;
10.2000;1.2796;0.6769;
10.5000;1.2837;0.6722;
10.8000;1.2918;0.6815;
11.1000;1.2967;0.6909;
11.4000;1.3016;0.6839;
11.7000;1.3065;0.6839;
12.0000;1.3040;0.6652;
12.3000;1.3154;0.6769;
12.6000;1.3179;0.6722;
12.9000;1.3219;0.6605;
13.2000;1.3260;0.6675;
13.5000;1.3293;0.6722;
13.8000;1.3390;0.6885;
14.1000;1.3366;0.6652;
14.4000;1.3423;0.6652;
14.7000;1.3455;0.6675;
15.0000;1.3496;0.6629;
15.3000;1.3529;0.6675;
15.6000;1.3545;0.6675;
15.9000;1.3578;0.6675;
16.2000;1.3643;0.6699;
16.5000;1.3716;0.6769;
16.8000;1.3691;0.6582;
17.1000;1.3724;0.6582;
17.4000;1.3716;0.6559;
17.7000;1.3757;0.6652;
18.0000;1.3871;0.6955;
18.3000;1.3830;0.6745;
18.6000;1.3846;0.6722;
18.9000;1.3838;0.6675;
19.2000;1.3887;0.6675;
19.5000;1.3911;0.6745;
19.8000;1.3928;0.6722;
20.1000;1.3919;0.6675;
20.4000;1.3960;0.6745;
20.7000;1.3976;0.6815;
21.0000;1.3993;0.6839;
21.3000;1.4025;0.6792;
21.6000;1.4025;0.6769;
21.9000;1.4066;0.6862;
22.2000;1.4074;0.6862;
22.5000;1.4090;0.6815;
22.8000;1.4090;0.6722;
23.1000;1.4107;0.6745;
23.4000;1.4082;0.6582;
23.7000;1.4115;0.6652;
24.0000;1.4155;0.6629;
24.3000;1.4180;0.6675;
24.6000;1.4188;0.6605;
24.9000;1.4196;0.6512;
25.2000;1.4188;0.6442;
25.5000;1.4221;0.6559;
25.8000;1.4155;0.6325;
26.1000;1.4278;0.6605;
26.4000;1.4253;0.6512;
26.7000;1.4237;0.6349;
27.0000;1.4253;0.6325;
27.3000;1.4335;0.6489;
27.6000;1.4212;0.6115;
27.9000;1.4294;0.6279;
28.2000;1.4294;0.6325;
28.5000;1.4310;0.6372;
28.8000;1.4310;0.6395;
29.1000;1.4326;0.6372;
29.4000;1.4335;0.6419;
29.7000;1.4343;0.6372;
30.0000;1.4383;0.6442;
30.3000;1.4351;0.6395;
30.6000;1.4343;0.6372;
30.9000;1.4359;0.6372;
31.2000;1.4375;0.6325;
31.5000;1.4375;0.6325;
31.8000;1.4367;0.6279;
32.1000;1.4400;0.6349;
32.4000;1.4408;0.6442;
32.7000;1.4432;0.6535;
33.0000;1.4514;0.6675;
33.3000;1.4416;0.6465;
33.6000;1.4449;0.6535;
33.9000;1.4449;0.6489;
34.2000;1.4449;0.6442;
34.5000;1.4465;0.6395;
34.8000;1.4457;0.6302;
35.1000;1.4489;0.6349;
35.4000;1.4473;0.6349;
35.7000;1.4505;0.6419;
36.0000;1.4440;0.6349;
36.3000;1.4497;0.6489;
36.6000;1.4481;0.6582;
36.9000;1.4505;0.6675;
37.2000;1.4497;0.6722;
37.5000;1.4514;0.6769;
37.8000;1.4522;0.6722;
38.1000;1.4505;0.6652;
38.4000;1.4522;0.6699;
38.7000;1.4530;0.6722;
39.0000;1.4538;0.6699;
39.3000;1.4522;0.6605;
39.6000;1.4530;0.6512;
39.9000;1.4546;0.6489;
40.2000;1.4611;0.6582;
40.5000;1.4538;0.6255;
40.8000;1.4546;0.6325;
41.1000;1.4595;0.6419;
41.4000;1.4636;0.6582;
41.7000;1.4562;0.6372;
42.0000;1.4546;0.6255;
42.3000;1.4587;0.6325;
42.6000;1.4562;0.6302;
42.9000;1.4579;0.6325;
43.2000;1.4587;0.6419;
43.5000;1.4579;0.6465;
43.8000;1.4611;0.6559;
44.1000;1.4603;0.6559;
44.4000;1.4660;0.6675;
44.7000;1.4611;0.6559;
45.0000;1.4603;0.6442;
45.3000;1.4587;0.6349;
45.6000;1.4611;0.6419;
45.9000;1.4579;0.6372;
46.2000;1.4603;0.6349;
46.5000;1.4587;0.6255;
46.8000;1.4611;0.6349;
47.1000;1.4636;0.6325;
47.4000;1.4619;0.6255;
47.7000;1.4668;0.6372;
48.0000;1.4636;0.6302;
48.3000;1.4652;0.6325;
48.6000;1.4660;0.6349;
48.9000;1.4628;0.6302;
49.2000;1.4660;0.6302;
49.5000;1.4644;0.6209;
49.8000;1.4636;0.6209;
50.1000;1.4652;0.6279;
50.4000;1.4652;0.6302;
50.7000;1.4668;0.6395;
51.0000;1.4619;0.6302;
51.3000;1.4636;0.6325;
51.6000;1.4652;0.6349;
51.9000;1.4603;0.6279;
52.2000;1.4644;0.6395;
52.5000;1.4636;0.6279;
52.8000;1.4644;0.6232;
53.1000;1.4660;0.6279;
53.4000;1.4652;0.6325;
53.7000;1.4652;0.6372;
54.0000;1.4660;0.6372;
54.3000;1.4676;0.6419;
54.6000;1.4685;0.6372;
54.9000;1.4701;0.6325;
55.2000;1.4709;0.6302;
55.5000;1.4701;0.6302;
55.8000;1.4668;0.6232;
56.1000;1.4685;0.6302;
56.4000;1.4693;0.6372;
56.7000;1.4668;0.6185;
57.0000;1.4636;0.6162;
57.3000;1.4652;0.6255;
57.6000;1.4668;0.6232;
57.9000;1.4676;0.6232;
58.2000;1.4693;0.6302;
58.5000;1.4668;0.6255;
58.8000;1.4676;0.6302;
59.1000;1.4660;0.6209;
59.4000;1.4693;0.6279;
59.7000;1.4676;0.6162;
60.0000;1.4685;0.6232;
60.3000;1.4676;0.6162;
60.6000;1.4782;0.6512;
60.9000;1.4652;0.6185;
61.2000;1.4668;0.6185;
61.5000;1.4701;0.6232;
61.8000;1.4709;0.6255;
62.1000;1.4742;0.6302;
62.4000;1.4701;0.6209;
62.7000;1.4693;0.6162;
63.0000;1.4701;0.6069;
63.3000;1.4717;0.6162;
63.6000;1.4701;0.6115;
63.9000;1.4701;0.6069;
64.2000;1.4676;0.5998;
64.5000;1.4725;0.6115;
64.8000;1.4725;0.6092;
65.1000;1.4742;0.6162;
65.4000;1.4733;0.6209;
65.7000;1.4725;0.6162;
66.0000;1.4693;0.6045;
66.3000;1.4758;0.6185;
66.6000;1.4733;0.6209;
66.9000;1.4742;0.6279;
67.2000;1.4750;0.6302;
67.5000;1.4733;0.6185;
67.8000;1.4725;0.6209;
68.1000;1.4742;0.6232;
68.4000;1.4782;0.6279;
68.7000;1.4733;0.6302;
69.0000;1.4725;0.6232;
69.3000;1.4725;0.6209;
69.6000;1.4733;0.6139;
69.9000;1.4750;0.6069;
70.2000;1.4758;0.6139;
70.5000;1.4733;0.6045;
70.8000;1.4733;0.5928;
71.1000;1.4758;0.5905;
71.4000;1.4733;0.5858;
71.7000;1.4742;0.5882;
72.0000;1.4733;0.5882;
72.3000;1.4758;0.5928;
72.6000;1.4750;0.5952;
72.9000;1.4742;0.5975;
73.2000;1.4750;0.6069;
73.5000;1.4668;0.5882;
73.8000;1.4750;0.6045;
74.1000;1.4750;0.6045;
74.4000;1.4733;0.6022;
74.7000;1.4733;0.5975;
75.0000;1.4766;0.6045;
75.3000;1.4766;0.5975;
75.6000;1.4766;0.5952;
75.9000;1.4750;0.5952;
76.2000;1.4766;0.5975;
76.5000;1.4774;0.5928;
76.8000;1.4733;0.5858;
77.1000;1.4742;0.5905;
77.4000;1.4758;0.5952;
77.7000;1.4733;0.5835;
78.0000;1.4701;0.5765;
78.3000;1.4758;0.5858;
78.6000;1.4750;0.5858;
78.9000;1.4766;0.5835;
79.2000;1.4758;0.5905;
79.5000;1.4774;0.5952;
79.8000;1.4774;0.5975;
80.1000;1.4766;0.5975;
80.4000;1.4774;0.5858;
80.7000;1.4758;0.5835;
81.0000;1.4790;0.5882;
81.3000;1.4782;0.5835;
81.6000;1.4799;0.5858;
81.9000;1.4742;0.5718;
82.2000;1.4790;0.5858;
82.5000;1.4823;0.5905;
82.8000;1.4774;0.5835;
83.1000;1.4758;0.5765;
83.4000;1.4774;0.5765;
83.7000;1.4782;0.5812;
84.0000;1.4774;0.5812;
84.3000;1.4766;0.5765;
84.6000;1.4701;0.5648;
84.9000;1.4774;0.5858;
85.2000;1.4782;0.5858;
85.5000;1.4782;0.5928;
85.8000;1.4790;0.5998;
86.1000;1.4750;0.5905;
86.4000;1.4782;0.5975;
86.7000;1.4790;0.5952;
87.0000;1.4790;0.5928;
87.3000;1.4766;0.5765;
87.6000;1.4774;0.5718;
87.9000;1.4782;0.5625;
88.2000;1.4758;0.5485;
88.5000;1.4774;0.5555;
88.8000;1.4790;0.5555;
89.1000;1.4782;0.5578;
89.4000;1.4790;0.5648;
89.7000;1.4790;0.5648;
90.0000;1.4782;0.5718;
90.3000;1.4790;0.5742;
90.6000;1.4790;0.5812;
90.9000;1.4782;0.5858;
91.2000;1.4880;0.6092;
91.5000;1.4790;0.5835;
91.8000;1.4799;0.5765;
92.1000;1.4782;0.5718;
92.4000;1.4766;0.5672;
92.7000;1.4799;0.5672;
93.0000;1.4799;0.5672;
93.3000;1.4807;0.5718;
93.6000;1.4799;0.5695;
93.9000;1.4782;0.5695;
94.2000;1.4790;0.5812;
94.5000;1.4799;0.5788;
94.8000;1.4799;0.5882;
95.1000;1.4807;0.5928;
95.4000;1.4807;0.5928;
95.7000;1.4799;0.5858;
96.0000;1.4799;0.5695;
96.3000;1.4807;0.5765;
96.6000;1.4831;0.5765;
96.9000;1.4799;0.5695;
97.2000;1.4790;0.5742;
97.5000;1.4766;0.5695;
97.8000;1.4807;0.5812;
98.1000;1.4815;0.5858;
98.4000;1.4799;0.5812;
98.7000;1.4799;0.5835;
99.0000;1.4742;0.5695;
99.3000;1.4815;0.5788;
99.6000;1.4807;0.5765;
99.9000;1.4766;0.5648;
100.2000;1.4807;0.5718;
100.5000;1.4823;0.5835;
100.8000;1.4799;0.5812;
101.1000;1.4790;0.5812;
101.4000;1.4790;0.5742;
101.7000;1.4807;0.5788;
102.0000;1.4823;0.5788;
102.3000;1.4807;0.5835;
102.6000;1.4766;0.5648;
102.9000;1.4872;0.5882;
103.2000;1.4815;0.5718;
103.5000;1.4807;0.5672;
103.8000;1.4815;0.5742;
104.1000;1.4839;0.5788;
104.4000;1.4823;0.5625;
104.7000;1.4774;0.5508;
105.0000;1.4831;0.5578;
105.3000;1.4807;0.5532;
105.6000;1.4807;0.5555;
105.9000;1.4815;0.5578;
106.2000;1.4839;0.5695;
106.5000;1.4823;0.5695;
106.8000;1.4831;0.5695;
107.1000;1.4872;0.5742;
107.4000;1.4839;0.5695;
107.7000;1.4782;0.5578;
108.0000;1.4799;0.5718;
108.3000;1.4823;0.5788;
108.6000;1.4839;0.5905;
108.9000;1.4823;0.5812;
109.2000;1.4815;0.5835;
109.5000;1.4823;0.5835;
109.8000;1.4831;0.5835;
110.1000;1.4799;0.5718;
110.4000;1.4790;0.5648;
110.7000;1.4823;0.5718;
111.0000;1.4807;0.5695;
111.3000;1.4815;0.5788;
111.6000;1.4799;0.5742;
111.9000;1.4823;0.5718;
112.2000;1.4823;0.5718;
112.5000;1.4823;0.5648;
112.8000;1.4823;0.5625;
113.1000;1.4815;0.5532;
113.4000;1.4847;0.5485;
113.7000;1.4782;0.5345;
114.0000;1.4839;0.5438;
114.3000;1.4831;0.5415;
114.6000;1.4815;0.5438;
114.9000;1.4823;0.5625;
115.2000;1.4839;0.5718;
115.5000;1.4815;0.5718;
115.8000;1.4815;0.5788;
116.1000;1.4831;0.5882;
116.4000;1.4823;0.5952;
116.7000;1.4856;0.5975;
117.0000;1.4847;0.5928;
117.3000;1.4847;0.5928;
117.6000;1.4790;0.5718;
117.9000;1.4831;0.5905;
118.2000;1.4831;0.5905;
118.5000;1.4880;0.5975;
118.8000;1.4864;0.5905;
119.1000;1.4823;0.5812;
119.4000;1.4815;0.5835;
119.7000;1.4839;0.5858;
120.0000;1.4815;0.5812;
120.3000;1.4790;0.5765;
120.6000;1.4790;0.5695;
120.9000;1.4823;0.5765;
121.2000;1.4782;0.5648;
121.5000;1.4799;0.5718;
121.8000;1.4823;0.5788;
122.1000;1.4807;0.5765;
122.4000;1.4831;0.5648;
122.7000;1.4921;0.5812;
123.0000;1.4831;0.5578;
123.3000;1.4839;0.5625;
123.6000;1.4815;0.5602;
123.9000;1.4888;0.5602;
124.2000;1.4856;0.5555;
124.5000;1.4856;0.5508;
124.8000;1.4839;0.5485;
125.1000;1.4847;0.5555;
125.4000;1.4856;0.5578;
125.7000;1.4847;0.5555;
126.0000;1.4839;0.5648;
126.3000;1.4847;0.5672;
126.6000;1.4839;0.5718;
126.9000;1.4847;0.5812;
127.2000;1.4856;0.5905;
127.5000;1.4839;0.5835;
127.8000;1.4847;0.5765;
128.1000;1.4831;0.5695;
128.4000;1.4839;0.5695;
128.7000;1.4839;0.5625;
129.0000;1.4807;0.5532;
129.3000;1.4856;0.5602;
129.6000;1.4831;0.5555;
129.9000;1.4782;0.5462;
130.2000;1.4856;0.5648;
130.5000;1.4831;0.5648;
130.8000;1.4847;0.5602;
131.1000;1.4807;0.5462;
131.4000;1.4831;0.5438;
131.7000;1.4847;0.5462;
132.0000;1.4847;0.5602;
132.3000;1.4823;0.5602;
132.6000;1.4864;0.5672;
132.9000;1.4856;0.5602;
133.2000;1.4880;0.5695;
133.5000;1.4823;0.5602;
133.8000;1.4839;0.5602;
134.1000;1.4839;0.5648;
134.4000;1.4872;0.5672;
134.7000;1.4847;0.5602;
135.0000;1.4847;0.5602;
135.3000;1.4823;0.5648;
135.6000;1.4839;0.5672;
135.9000;1.4823;0.5578;
136.2000;1.4815;0.5532;
136.5000;1.4823;0.5578;
136.8000;1.4831;0.5555;
137.1000;1.4847;0.5602;
137.4000;1.4847;0.5555;
137.7000;1.4823;0.5602;
138.0000;1.4847;0.5625;
138.3000;1.4823;0.5578;
138.6000;1.4831;0.5602;
138.9000;1.4847;0.5672;
139.2000;1.4864;0.5648;
139.5000;1.4912;0.5718;
139.8000;1.4839;0.5578;
140.1000;1.4864;0.5602;
140.4000;1.4872;0.5578;
140.7000;1.4856;0.5602;
141.0000;1.4856;0.5532;
141.3000;1.4815;0.5438;
141.6000;1.4847;0.5485;
141.9000;1.4864;0.5602;
142.2000;1.4856;0.5625;
142.5000;1.4831;0.5602;
142.8000;1.4839;0.5625;
143.1000;1.4839;0.5695;
143.4000;1.4831;0.5695;
143.7000;1.4831;0.5695;
144.0000;1.4847;0.5788;
144.3000;1.4790;0.5625;
144.6000;1.4847;0.5765;
144.9000;1.4864;0.5882;
145.2000;1.4839;0.5812;
145.5000;1.4912;0.5952;
145.8000;1.4839;0.5835;
146.1000;1.4839;0.5835;
146.4000;1.4904;0.5952;
146.7000;1.4847;0.5718;
147.0000;1.4815;0.5555;
147.3000;1.4807;0.5555;
147.6000;1.4839;0.5718;
147.9000;1.4839;0.5648;
148.2000;1.4839;0.5742;
148.5000;1.4823;0.5788;
148.8000;1.4839;0.5812;
149.1000;1.4831;0.5742;
149.4000;1.4888;0.5858;
149.7000;1.4847;0.5788;
150.0000;1.4839;0.5695;
150.3000;1.4831;0.5648;
150.6000;1.4847;0.5648;
150.9000;1.4856;0.5648;
151.2000;1.4839;0.5625;
151.5000;1.4839;0.5578;
151.8000;1.4856;0.5625;
152.1000;1.4807;0.5555;
152.4000;1.4847;0.5648;
152.7000;1.4831;0.5508;
153.0000;1.4839;0.5485;
153.3000;1.4864;0.5555;
153.6000;1.4856;0.5485;
153.9000;1.4839;0.5555;
154.2000;1.4864;0.5578;
154.5000;1.4864;0.5578;
154.8000;1.4839;0.5555;
155.1000;1.4847;0.5625;
155.4000;1.4864;0.5648;
155.7000;1.4856;0.5695;
156.0000;1.4847;0.5742;
156.3000;1.4856;0.5742;
156.6000;1.4823;0.5718;
156.9000;1.4839;0.5788;
157.2000;1.4831;0.5765;
157.5000;1.4839;0.5812;
157.8000;1.4864;0.5788;
158.1000;1.4929;0.5952;
158.4000;1.4880;0.5905;
158.7000;1.4888;0.5858;
159.0000;1.4872;0.5812;
159.3000;1.4823;0.5602;
159.6000;1.4872;0.5718;
159.9000;1.4856;0.5718;
160.2000;1.4856;0.5742;
160.5000;1.4823;0.5718;
160.8000;1.4856;0.5812;
161.1000;1.4856;0.5812;
161.4000;1.4937;0.5882;
161.7000;1.4872;0.5742;
162.0000;1.4856;0.5718;
162.3000;1.4872;0.5672;
162.6000;1.4872;0.5602;
162.9000;1.4856;0.5485;
163.2000;1.4856;0.5485;
163.5000;1.4856;0.5438;
163.8000;1.4864;0.5485;
164.1000;1.4847;0.5508;
164.4000;1.4815;0.5415;
164.7000;1.4847;0.5462;
165.0000;1.4847;0.5508;
165.3000;1.4847;0.5555;
165.6000;1.4856;0.5602;
165.9000;1.4847;0.5485;
166.2000;1.4856;0.5485;
166.5000;1.4831;0.5368;
166.8000;1.4815;0.5298;
167.1000;1.4839;0.5462;
167.4000;1.4856;0.5532;
167.7000;1.4847;0.5508;
168.0000;1.4847;0.5392;
168.3000;1.4847;0.5345;
168.6000;1.4864;0.5438;
168.9000;1.4880;0.5462;
169.2000;1.4847;0.5438;
169.5000;1.4888;0.5485;
169.8000;1.4847;0.5462;
170.1000;1.4831;0.5485;
170.4000;1.4856;0.5532;
170.7000;1.4856;0.5532;
171.0000;1.4847;0.5555;
171.3000;1.4872;0.5695;
171.6000;1.4856;0.5742;
171.9000;1.4790;0.5555;
172.2000;1.4839;0.5742;
172.5000;1.4831;0.5695;
172.8000;1.4888;0.5882;
173.1000;1.4839;0.5765;
173.4000;1.4847;0.5718;
173.7000;1.4872;0.5788;
174.0000;1.4921;0.5858;
174.3000;1.4864;0.5718;
174.6000;1.4847;0.5718;
174.9000;1.4831;0.5672;
175.2000;1.4856;0.5742;
175.5000;1.4839;0.5672;
175.8000;1.4847;0.5648;
176.1000;1.4847;0.5602;
176.4000;1.4847;0.5602;
176.7000;1.4872;0.5625;
177.0000;1.4831;0.5602;
177.3000;1.4856;0.5672;
177.6000;1.4872;0.5648;
177.9000;1.4864;0.5648;
178.2000;1.4839;0.5625;
178.5000;1.4856;0.5695;
178.8000;1.4856;0.5695;
179.1000;1.4847;0.5672;
179.4000;1.4847;0.5625;
179.7000;1.4880;0.5648;
180.0000;1.4839;0.5485;
180.3000;1.4856;0.5508;
180.6000;1.4847;0.5555;
180.9000;1.4864;0.5672;
181.2000;1.4864;0.5695;
181.5000;1.4872;0.5695;
181.8000;1.4880;0.5742;
182.1000;1.4864;0.5742;
182.4000;1.4823;0.5578;
182.7000;1.4880;0.5835;
183.0000;1.4839;0.5788;
183.3000;1.4896;0.5788;
183.6000;1.4856;0.5672;
183.9000;1.4839;0.5695;
184.2000;1.4856;0.5765;
184.5000;1.4856;0.5742;
184.8000;1.4856;0.5765;
185.1000;1.4912;0.5882;
185.4000;1.4856;0.5742;
185.7000;1.4912;0.5858;
186.0000;1.4847;0.5695;
186.3000;1.4856;0.5718;
186.6000;1.4847;0.5695;
186.9000;1.4856;0.5742;
187.2000;1.4839;0.5812;
187.5000;1.4872;0.5882;
187.8000;1.4864;0.5858;
188.1000;1.4872;0.5975;
188.4000;1.4872;0.5858;
188.7000;1.4847;0.5882;
189.0000;1.4839;0.5858;
189.3000;1.4847;0.5788;
189.6000;1.4847;0.5718;
189.9000;1.4847;0.5648;
190.2000;1.4847;0.5672;
190.5000;1.4839;0.5672;
190.8000;1.4839;0.5672;
191.1000;1.4847;0.5718;
191.4000;1.4839;0.5742;
191.7000;1.4856;0.5812;
192.0000;1.4872;0.5835;
192.3000;1.4856;0.5718;
192.6000;1.4864;0.5765;
192.9000;1.4847;0.5742;
193.2000;1.4856;0.5742;
193.5000;1.4872;0.5788;
193.8000;1.4888;0.5928;
194.1000;1.4847;0.5835;
194.4000;1.4847;0.5858;
194.7000;1.4864;0.5858;
195.0000;1.4839;0.5765;
195.3000;1.4839;0.5742;
195.6000;1.4856;0.5742;
195.9000;1.4856;0.5742;
196.2000;1.4864;0.5742;
196.5000;1.4864;0.5742;
196.8000;1.4856;0.5625;
197.1000;1.4864;0.5695;
197.4000;1.4864;0.5788;
197.7000;1.4847;0.5765;
198.0000;1.4774;0.5532;
198.3000;1.4856;0.5672;
198.6000;1.4856;0.5718;
198.9000;1.4823;0.5625;
199.2000;1.4856;0.5625;
199.5000;1.4880;0.5742;
199.8000;1.4864;0.5742;
200.1000;1.4904;0.5812;
200.4000;1.4856;0.5835;
200.7000;1.4864;0.5835;
201.0000;1.4872;0.5858;
201.3000;1.4864;0.5812;
201.6000;1.4831;0.5812;
201.9000;1.4872;0.5928;
202.2000;1.4872;0.5905;
202.5000;1.4872;0.5882;
202.8000;1.4872;0.5882;
203.1000;1.4839;0.5648;
203.4000;1.4872;0.5765;
203.7000;1.4856;0.5648;
204.0000;1.4847;0.5602;
204.3000;1.4847;0.5672;
204.6000;1.4856;0.5625;
204.9000;1.4864;0.5648;
205.2000;1.4872;0.5625;
205.5000;1.4847;0.5555;
205.8000;1.4864;0.5602;
206.1000;1.4864;0.5625;
206.4000;1.4807;0.5462;
206.7000;1.4847;0.5695;
207.0000;1.4839;0.5648;
207.3000;1.4856;0.5672;
207.6000;1.4847;0.5742;
207.9000;1.4839;0.5695;
208.2000;1.4929;0.5882;
208.5000;1.4856;0.5648;
208.8000;1.4872;0.5625;
209.1000;1.4864;0.5578;
209.4000;1.4856;0.5532;
209.7000;1.4864;0.5532;
210.0000;1.4880;0.5602;
210.3000;1.4864;0.5555;
210.6000;1.4856;0.5555;
210.9000;1.4872;0.5672;
211.2000;1.4880;0.5648;
211.5000;1.4856;0.5602;
211.8000;1.4864;0.5602;
212.1000;1.4856;0.5485;
212.4000;1.4864;0.5462;
212.7000;1.4847;0.5462;
213.0000;1.4872;0.5508;
213.3000;1.4912;0.5672;
213.6000;1.4872;0.5648;
213.9000;1.4872;0.5648;
214.2000;1.4872;0.5578;
214.5000;1.4807;0.5392;
214.8000;1.4864;0.5555;
215.1000;1.4856;0.5602;
215.4000;1.4847;0.5532;
215.7000;1.4839;0.5602;
216.0000;1.4831;0.5602;
216.3000;1.4864;0.5695;
216.6000;1.4872;0.5625;
216.9000;1.4823;0.5555;
217.2000;1.4847;0.5602;
217.5000;1.4856;0.5578;
217.8000;1.4856;0.5508;
218.1000;1.4864;0.5578;
218.4000;1.4856;0.5625;
218.7000;1.4872;0.5648;
219.0000;1.4831;0.5532;
219.3000;1.4864;0.5625;
219.6000;1.4880;0.5742;
219.9000;1.4896;0.5812;
220.2000;1.4961;0.5882;
220.5000;1.4831;0.5672;
220.8000;1.4872;0.5742;
221.1000;1.4872;0.5648;
221.4000;1.4880;0.5625;
221.7000;1.4864;0.5695;
222.0000;1.4872;0.5672;
222.3000;1.4856;0.5602;
222.6000;1.4847;0.5578;
222.9000;1.4880;0.5578;
223.2000;1.4856;0.5578;
223.5000;1.4864;0.5532;
223.8000;1.4864;0.5462;
224.1000;1.4790;0.5228;
224.4000;1.4847;0.5345;
224.7000;1.4864;0.5298;
225.0000;1.4856;0.5322;
225.3000;1.4872;0.5415;
225.6000;1.4872;0.5462;
225.9000;1.4856;0.5438;
226.2000;1.4864;0.5508;
226.5000;1.4888;0.5602;
226.8000;1.4856;0.5485;
227.1000;1.4856;0.5485;
227.4000;1.4847;0.5462;
227.7000;1.4856;0.5532;
228.0000;1.4847;0.5462;
228.3000;1.4839;0.5532;
228.6000;1.4807;0.5462;
228.9000;1.4856;0.5625;
229.2000;1.4856;0.5648;
229.5000;1.4864;0.5578;
229.8000;1.4864;0.5578;
230.1000;1.4864;0.5602;
230.4000;1.4847;0.5625;
230.7000;1.4937;0.5765;
231.0000;1.4856;0.5578;
231.3000;1.4847;0.5555;
231.6000;1.4864;0.5578;
231.9000;1.4872;0.5578;
232.2000;1.4864;0.5555;
232.5000;1.4864;0.5462;
232.8000;1.4872;0.5462;
233.1000;1.4864;0.5415;
233.4000;1.4847;0.5392;
233.7000;1.4839;0.5298;
234.0000;1.4839;0.5345;
234.3000;1.4880;0.5462;
234.6000;1.4856;0.5508;
234.9000;1.4872;0.5578;
235.2000;1.4904;0.5672;
235.5000;1.4864;0.5625;
235.8000;1.4872;0.5695;
236.1000;1.4872;0.5742;
236.4000;1.4888;0.5765;
236.7000;1.4880;0.5672;
237.0000;1.4880;0.5765;
237.3000;1.4807;0.5672;
237.6000;1.4856;0.5788;
237.9000;1.4839;0.5742;
238.2000;1.4847;0.5765;
238.5000;1.4831;0.5835;
238.8000;1.4847;0.5788;
239.1000;1.4839;0.5765;
239.4000;1.4880;0.5812;
239.7000;1.4872;0.5812;
240.0000;1.4839;0.5742;
240.3000;1.4856;0.5835;
240.6000;1.4847;0.5788;
240.9000;1.4912;0.5928;
241.2000;1.4847;0.5742;
241.5000;1.4856;0.5625;
241.8000;1.4856;0.5648;
242.1000;1.4864;0.5718;
242.4000;1.4872;0.5765;
242.7000;1.4856;0.5742;
243.0000;1.4839;0.5695;
243.3000;1.4872;0.5695;
243.6000;1.4880;0.5672;
243.9000;1.4880;0.5672;
244.2000;1.4856;0.5508;
244.5000;1.4856;0.5415;
244.8000;1.4856;0.5415;
245.1000;1.4839;0.5368;
245.4000;1.4864;0.5392;
245.7000;1.4888;0.5508;
246.0000;1.4872;0.5485;
246.3000;1.4888;0.5462;
246.6000;1.4872;0.5392;
246.9000;1.4872;0.5415;
247.2000;1.4872;0.5392;
247.5000;1.4872;0.5392;
247.8000;1.4872;0.5322;
248.1000;1.4872;0.5368;
248.4000;1.4880;0.5462;
248.7000;1.4872;0.5415;
249.0000;1.4864;0.5462;
249.3000;1.4847;0.5438;
249.6000;1.4856;0.5485;
249.9000;1.4839;0.5368;
250.2000;1.4823;0.5392;
250.5000;1.4847;0.5462;
250.8000;1.4831;0.5438;
251.1000;1.4856;0.5415;
251.4000;1.4856;0.5438;
251.7000;1.4856;0.5462;
252.0000;1.4856;0.5462;
252.3000;1.4864;0.5578;
252.6000;1.4864;0.5578;
252.9000;1.4856;0.5625;
253.2000;1.4839;0.5578;
253.5000;1.4856;0.5555;
253.8000;1.4864;0.5532;
254.1000;1.4815;0.5462;
254.4000;1.4799;0.5415;
254.7000;1.4831;0.5532;
255.0000;1.4864;0.5578;
255.3000;1.4872;0.5602;
255.6000;1.4872;0.5672;
255.9000;1.4856;0.5602;
256.2000;1.4872;0.5695;
256.5000;1.4872;0.5718;
256.8000;1.4856;0.5695;
257.1000;1.4847;0.5672;
257.4000;1.4856;0.5695;
257.7000;1.4872;0.5695;
258.0000;1.4872;0.5602;
258.3000;1.4872;0.5578;
258.6000;1.4856;0.5578;
258.9000;1.4856;0.5485;
259.2000;1.4880;0.5508;
259.5000;1.4864;0.5462;
259.8000;1.4872;0.5485;
260.1000;1.4872;0.5462;
260.4000;1.4880;0.5462;
260.7000;1.4872;0.5602;
261.0000;1.4856;0.5555;
261.3000;1.4880;0.5555;
261.6000;1.4872;0.5508;
261.9000;1.4847;0.5438;
262.2000;1.4847;0.5508;
262.5000;1.4807;0.5485;
262.8000;1.4872;0.5718;
263.1000;1.4856;0.5578;
263.4000;1.4856;0.5555;
263.7000;1.4839;0.5532;
264.0000;1.4864;0.5555;
264.3000;1.4864;0.5532;
264.6000;1.4839;0.5392;
264.9000;1.4847;0.5392;
265.2000;1.4856;0.5415;
265.5000;1.4847;0.5415;
265.8000;1.4856;0.5392;
266.1000;1.4872;0.5368;
266.4000;1.4864;0.5392;
266.7000;1.4880;0.5485;
267.0000;1.4929;0.5578;
267.3000;1.4864;0.5485;
267.6000;1.4872;0.5485;
267.9000;1.4888;0.5508;
268.2000;1.4912;0.5718;
268.5000;1.4856;0.5578;
268.8000;1.4880;0.5555;
269.1000;1.4872;0.5578;
269.4000;1.4880;0.5555;
269.7000;1.4807;0.5415;
270.0000;1.4880;0.5602;
270.3000;1.4847;0.5508;
270.6000;1.4864;0.5485;
270.9000;1.4864;0.5555;
271.2000;1.4864;0.5438;
271.5000;1.4815;0.5252;
271.8000;1.4856;0.5345;
272.1000;1.4872;0.5345;
272.4000;1.4847;0.5298;
272.7000;1.4864;0.5345;
273.0000;1.4872;0.5415;
273.3000;1.4896;0.5555;
273.6000;1.4864;0.5578;
273.9000;1.4864;0.5602;
274.2000;1.4864;0.5532;
274.5000;1.4856;0.5485;
274.8000;1.4864;0.5485;
275.1000;1.4864;0.5555;
275.4000;1.4856;0.5578;
275.7000;1.4847;0.5578;
276.0000;1.4864;0.5578;
276.3000;1.4880;0.5555;
276.6000;1.4839;0.5532;
276.9000;1.4856;0.5602;
277.2000;1.4864;0.5602;
277.5000;1.4864;0.5625;
277.8000;1.4864;0.5602;
278.1000;1.4831;0.5532;
278.4000;1.4847;0.5532;
278.7000;1.4823;0.5415;
279.0000;1.4872;0.5532;
279.3000;1.4807;0.5368;
279.6000;1.4872;0.5602;
279.9000;1.4856;0.5578;
280.2000;1.4864;0.5648;
280.5000;1.4864;0.5648;
280.8000;1.4807;0.5555;
281.1000;1.4847;0.5578;
281.4000;1.4856;0.5462;
281.7000;1.4839;0.5438;
282.0000;1.4856;0.5368;
282.3000;1.4815;0.5252;
282.6000;1.4847;0.5322;
282.9000;1.4856;0.5322;
283.2000;1.4888;0.5462;
283.5000;1.4880;0.5508;
283.8000;1.4872;0.5532;
284.1000;1.4872;0.5485;
284.4000;1.4904;0.5555;
284.7000;1.4864;0.5415;
285.0000;1.4888;0.5532;
285.3000;1.4864;0.5532;
285.6000;1.4864;0.5485;
285.9000;1.4880;0.5462;
286.2000;1.4880;0.5485;
286.5000;1.4847;0.5322;
286.8000;1.4847;0.5298;
287.1000;1.4880;0.5298;
287.4000;1.4864;0.5298;
287.7000;1.4864;0.5275;
288.0000;1.4864;0.5298;
288.3000;1.4856;0.5275;
288.6000;1.4880;0.5298;
288.9000;1.4872;0.5275;
289.2000;1.4888;0.5298;
289.5000;1.4880;0.5322;
289.8000;1.4888;0.5462;
290.1000;1.4896;0.5532;
290.4000;1.4888;0.5368;
290.7000;1.4872;0.5368;
291.0000;1.4896;0.5438;
291.3000;1.4912;0.5578;
291.6000;1.4864;0.5368;
291.9000;1.4896;0.5508;
292.2000;1.4856;0.5368;
292.5000;1.4896;0.5508;
292.8000;1.4823;0.5345;
293.1000;1.4823;0.5322;
293.4000;1.4864;0.5368;
293.7000;1.4815;0.5228;
294.0000;1.4864;0.5322;
294.3000;1.4839;0.5275;
294.6000;1.4872;0.5368;
294.9000;1.4823;0.5228;
295.2000;1.4896;0.5462;
295.5000;1.4872;0.5322;
295.8000;1.4904;0.5345;
296.1000;1.4864;0.5298;
296.4000;1.4856;0.5182;
296.7000;1.4856;0.5252;
297.0000;1.4872;0.5275;
297.3000;1.4839;0.5228;
297.6000;1.4864;0.5322;
297.9000;1.4872;0.5392;
298.2000;1.4888;0.5415;
298.5000;1.4847;0.5345;
298.8000;1.4856;0.5415;
299.1000;1.4864;0.5438;
299.4000;1.4856;0.5392;
299.7000;1.4856;0.5298;
300.0000;1.4864;0.5322;
300.3000;1.4847;0.5182;
300.6000;1.4864;0.5252;
300.9000;1.4847;0.5368;
301.2000;1.4856;0.5368;
301.5000;1.4847;0.5438;
301.8000;1.4839;0.5415;
302.1000;1.4856;0.5438;
302.4000;1.4856;0.5392;
302.7000;1.4880;0.5462;
303.0000;1.4856;0.5485;
303.3000;1.4774;0.5322;
303.6000;1.4912;0.5648;
303.9000;1.4856;0.5578;
304.2000;1.4864;0.5625;
304.5000;1.4864;0.5462;
304.8000;1.4856;0.5462;
305.1000;1.4864;0.5508;
305.4000;1.4880;0.5578;
305.7000;1.4856;0.5508;
306.0000;1.4847;0.5392;
306.3000;1.4880;0.5438;
306.6000;1.4888;0.5415;
306.9000;1.4880;0.5392;
307.2000;1.4856;0.5392;
307.5000;1.4856;0.5462;
307.8000;1.4864;0.5508;
308.1000;1.4847;0.5392;
308.4000;1.4896;0.5485;
308.7000;1.4839;0.5345;
309.0000;1.4864;0.5345;
309.3000;1.4904;0.5508;
309.6000;1.4864;0.5415;
309.9000;1.4831;0.5368;
310.2000;1.4864;0.5415;
310.5000;1.4896;0.5508;
310.8000;1.4856;0.5485;
311.1000;1.4856;0.5462;
311.4000;1.4872;0.5508;
311.7000;1.4872;0.5462;
312.0000;1.4904;0.5578;
312.3000;1.4856;0.5392;
312.6000;1.4847;0.5415;
312.9000;1.4872;0.5392;
313.2000;1.4856;0.5298;
313.5000;1.4856;0.5298;
313.8000;1.4896;0.5345;
314.1000;1.4872;0.5252;
314.4000;1.4864;0.5322;
314.7000;1.4880;0.5415;
315.0000;1.4880;0.5462;
315.3000;1.4864;0.5438;
315.6000;1.4880;0.5485;
315.9000;1.4847;0.5392;
316.2000;1.4880;0.5485;
316.5000;1.4880;0.5462;
316.8000;1.4880;0.5438;
317.1000;1.4872;0.5368;
317.4000;1.4864;0.5368;
317.7000;1.4864;0.5322;
318.0000;1.4953;0.5485;
318.3000;1.4856;0.5228;
318.6000;1.4864;0.5205;
318.9000;1.4856;0.5158;
319.2000;1.4856;0.5182;
319.5000;1.4888;0.5252;
319.8000;1.4872;0.5205;
320.1000;1.4847;0.5182;
320.4000;1.4847;0.5298;
320.7000;1.4912;0.5392;
321.0000;1.4847;0.5228;
321.3000;1.4888;0.5298;
321.6000;1.4864;0.5322;
321.9000;1.4864;0.5298;
322.2000;1.4888;0.5415;
322.5000;1.4864;0.5462;
322.8000;1.4856;0.5368;
323.1000;1.4856;0.5485;
323.4000;1.4864;0.5508;
323.7000;1.4847;0.5438;
324.0000;1.4847;0.5485;
324.3000;1.4864;0.5532;
324.6000;1.4872;0.5485;
324.9000;1.4864;0.5462;
325.2000;1.4823;0.5345;
325.5000;1.4856;0.5415;
325.8000;1.4872;0.5438;
326.1000;1.4872;0.5462;
326.4000;1.4880;0.5392;
326.7000;1.4880;0.5392;
327.0000;1.4880;0.5392;
327.3000;1.4823;0.5205;
327.6000;1.4872;0.5322;
327.9000;1.4880;0.5298;
328.2000;1.4880;0.5298;
328.5000;1.4880;0.5228;
328.8000;1.4872;0.5252;
329.1000;1.4880;0.5252;
329.4000;1.4880;0.5298;
329.7000;1.4864;0.5392;
330.0000;1.4880;0.5415;
330.3000;1.4872;0.5345;
330.6000;1.4872;0.5368;
330.9000;1.4856;0.5368;
331.2000;1.4872;0.5368;
331.5000;1.4856;0.5322;
331.8000;1.4864;0.5322;
332.1000;1.4872;0.5368;
332.4000;1.4856;0.5368;
332.7000;1.4856;0.5485;
333.0000;1.4839;0.5485;
333.3000;1.4856;0.5508;
333.6000;1.4872;0.5485;
333.9000;1.4831;0.5415;
334.2000;1.4856;0.5462;
334.5000;1.4856;0.5438;
334.8000;1.4856;0.5345;
335.1000;1.4880;0.5392;
335.4000;1.4856;0.5415;
335.7000;1.4864;0.5322;
336.0000;1.4864;0.5368;
336.3000;1.4856;0.5298;
336.6000;1.4872;0.5322;
336.9000;1.4856;0.5322;
337.2000;1.4847;0.5438;
337.5000;1.4864;0.5555;
337.8000;1.4872;0.5602;
338.1000;1.4864;0.5602;
338.4000;1.4872;0.5672;
338.7000;1.4872;0.5648;
339.0000;1.4872;0.5672;
339.3000;1.4864;0.5602;
339.6000;1.4864;0.5555;
339.9000;1.4872;0.5555;
340.2000;1.4872;0.5532;
340.5000;1.4888;0.5578;
340.8000;1.4864;0.5555;
341.1000;1.4872;0.5602;
341.4000;1.4872;0.5648;
341.7000;1.4864;0.5648;
342.0000;1.4856;0.5672;
342.3000;1.4831;0.5602;
342.6000;1.4872;0.5672;
342.9000;1.4864;0.5672;
343.2000;1.4880;0.5648;
343.5000;1.4864;0.5578;
343.8000;1.4856;0.5602;
344.1000;1.4872;0.5648;
344.4000;1.4872;0.5648;
344.7000;1.4856;0.5555;
345.0000;1.4880;0.5555;
345.3000;1.4880;0.5602;
345.6000;1.4864;0.5555;
345.9000;1.4864;0.5578;
346.2000;1.4864;0.5602;
346.5000;1.4912;0.5695;
346.8000;1.4856;0.5695;
347.1000;1.4856;0.5718;
347.4000;1.4864;0.5742;
347.7000;1.4839;0.5765;
348.0000;1.4872;0.5812;
348.3000;1.4864;0.5765;
348.6000;1.4831;0.5602;
348.9000;1.4856;0.5578;
349.2000;1.4847;0.5508;
349.5000;1.4847;0.5485;
349.8000;1.4872;0.5578;
350.1000;1.4872;0.5532;
350.4000;1.4856;0.5462;
350.7000;1.4823;0.5438;
351.0000;1.4831;0.5485;
351.3000;1.4912;0.5602;
351.6000;1.4872;0.5555;
351.9000;1.4856;0.5485;
352.2000;1.4856;0.5532;
352.5000;1.4880;0.5625;
352.8000;1.4856;0.5648;
353.1000;1.4864;0.5602;
353.4000;1.4912;0.5718;
353.7000;1.4847;0.5602;
354.0000;1.4880;0.5602;
354.3000;1.4880;0.5532;
354.6000;1.4864;0.5485;
354.9000;1.4856;0.5555;
355.2000;1.4888;0.5648;
355.5000;1.4880;0.5695;
355.8000;1.4864;0.5672;
356.1000;1.4864;0.5602;
356.4000;1.4839;0.5532;
356.7000;1.4872;0.5578;
357.0000;1.4896;0.5648;
357.3000;1.4831;0.5462;
357.6000;1.4856;0.5555;
357.9000;1.4831;0.5578;
358.2000;1.4872;0.5602;
358.5000;1.4864;0.5578;
358.8000;1.4831;0.5485;
359.1000;1.4880;0.5648;
359.4000;1.4888;0.5625;
359.7000;1.4872;0.5672;
360.0000;1.4856;0.5625;
360.3000;1.4864;0.5672;
360.6000;1.4864;0.5532;
360.9000;1.4872;0.5555;
361.2000;1.4856;0.5555;
361.5000;1.4839;0.5485;
361.8000;1.4807;0.5368;
362.1000;1.4856;0.5438;
362.4000;1.4847;0.5438;
362.7000;1.4880;0.5485;
363.0000;1.4856;0.5368;
363.3000;1.4888;0.5392;
363.6000;1.4847;0.5345;
363.9000;1.4799;0.5182;
364.2000;1.4856;0.5345;
364.5000;1.4872;0.5345;
364.8000;1.4880;0.5438;
365.1000;1.4839;0.5578;
365.4000;1.4864;0.5648;
365.7000;1.4864;0.5625;
366.0000;1.4864;0.5695;
366.3000;1.4839;0.5648;
366.6000;1.4823;0.5532;
366.9000;1.4896;0.5765;
367.2000;1.4864;0.5602;
367.5000;1.4856;0.5648;
367.8000;1.4847;0.5602;
368.1000;1.4856;0.5555;
368.4000;1.4872;0.5578;
368.7000;1.4872;0.5578;
369.0000;1.4831;0.5438;
369.3000;1.4888;0.5578;
369.6000;1.4864;0.5625;
369.9000;1.4888;0.5695;
370.2000;1.4929;0.5952;
370.5000;1.4847;0.5858;
370.8000;1.4864;0.5952;
371.1000;1.4823;0.5858;
371.4000;1.4888;0.5928;
371.7000;1.4864;0.5812;
372.0000;1.4782;0.5625;
372.3000;1.4864;0.5788;
372.6000;1.4856;0.5718;
372.9000;1.4872;0.5742;
373.2000;1.4929;0.5882;
373.5000;1.4864;0.5648;
373.8000;1.4872;0.5648;
374.1000;1.4831;0.5532;
374.4000;1.4872;0.5602;
374.7000;1.4864;0.5602;
375.0000;1.4823;0.5462;
375.3000;1.4856;0.5602;
375.6000;1.4839;0.5508;
375.9000;1.4872;0.5625;
376.2000;1.4856;0.5625;
376.5000;1.4872;0.5672;
376.8000;1.4856;0.5602;
377.1000;1.4872;0.5602;
377.4000;1.4856;0.5672;
377.7000;1.4847;0.5742;
378.0000;1.4839;0.5742;
378.3000;1.4847;0.5718;
378.6000;1.4847;0.5718;
378.9000;1.4856;0.5742;
379.2000;1.4856;0.5695;
379.5000;1.4839;0.5648;
379.8000;1.4872;0.5695;
380.1000;1.4856;0.5578;
380.4000;1.4856;0.5602;
380.7000;1.4847;0.5602;
381.0000;1.4856;0.5648;
381.3000;1.4872;0.5602;
381.6000;1.4856;0.5578;
381.9000;1.4807;0.5532;
382.2000;1.4872;0.5765;
382.5000;1.4896;0.5695;
382.8000;1.4856;0.5555;
383.1000;1.4847;0.5415;
383.4000;1.4864;0.5508;
383.7000;1.4864;0.5532;
384.0000;1.4864;0.5508;
384.3000;1.4856;0.5438;
384.6000;1.4856;0.5508;
384.9000;1.4896;0.5718;
385.2000;1.4856;0.5672;
385.5000;1.4856;0.5672;
385.8000;1.4864;0.5672;
386.1000;1.4872;0.5672;
386.4000;1.4880;0.5672;
386.7000;1.4864;0.5625;
387.0000;1.4847;0.5555;
387.3000;1.4856;0.5602;
387.6000;1.4880;0.5625;
387.9000;1.4872;0.5602;
388.2000;1.4872;0.5602;
388.5000;1.4856;0.5555;
388.8000;1.4864;0.5532;
389.1000;1.4872;0.5602;
389.4000;1.4856;0.5625;
389.7000;1.4856;0.5672;
390.0000;1.4880;0.5625;
390.3000;1.4888;0.5648;
390.6000;1.4880;0.5648;
390.9000;1.4839;0.5578;
391.2000;1.4912;0.5718;
391.5000;1.4961;0.5835;
391.8000;1.4872;0.5625;
392.1000;1.4872;0.5672;
392.4000;1.4847;0.5742;
392.7000;1.4872;0.5835;
393.0000;1.4904;0.5952;
393.3000;1.4807;0.5648;
393.6000;1.4864;0.5718;
393.9000;1.4856;0.5742;
394.2000;1.4864;0.5788;
394.5000;1.4856;0.5742;
394.8000;1.4864;0.5742;
395.1000;1.4856;0.5672;
395.4000;1.4872;0.5695;
395.7000;1.4864;0.5648;
396.0000;1.4856;0.5672;
396.3000;1.4856;0.5648;
396.6000;1.4888;0.5695;
396.9000;1.4839;0.5625;
397.2000;1.4847;0.5672;
397.5000;1.4847;0.5625;
397.8000;1.4864;0.5555;
398.1000;1.4856;0.5578;
398.4000;1.4831;0.5532;
398.7000;1.4847;0.5532;
399.0000;1.4856;0.5555;
399.3000;1.4864;0.5578;
399.6000;1.4856;0.5602;
399.9000;1.4839;0.5532;
400.2000;1.4847;0.5625;
400.5000;1.4880;0.5718;
400.8000;1.4847;0.5555;
401.1000;1.4847;0.5578;
401.4000;1.4864;0.5508;
401.7000;1.4864;0.5578;
402.0000;1.4847;0.5648;
402.3000;1.4872;0.5835;
402.6000;1.4856;0.5788;
402.9000;1.4872;0.5835;
403.2000;1.4864;0.5765;
403.5000;1.4856;0.5695;
403.8000;1.4864;0.5672;
404.1000;1.4839;0.5672;
404.4000;1.4847;0.5718;
404.7000;1.4847;0.5718;
405.0000;1.4864;0.5742;
405.3000;1.4856;0.5742;
405.6000;1.4856;0.5718;
405.9000;1.4880;0.5788;
406.2000;1.4839;0.5695;
406.5000;1.4839;0.5718;
406.8000;1.4864;0.5765;
407.1000;1.4872;0.5718;
407.4000;1.4864;0.5508;
407.7000;1.4904;0.5532;
408.0000;1.4807;0.5275;
408.3000;1.4945;0.5672;
408.6000;1.4864;0.5392;
408.9000;1.4856;0.5438;
409.2000;1.4856;0.5462;
409.5000;1.4864;0.5532;
409.8000;1.4888;0.5625;
410.1000;1.4872;0.5462;
410.4000;1.4839;0.5462;
410.7000;1.4864;0.5555;
411.0000;1.4912;0.5718;
411.3000;1.4904;0.5695;
411.6000;1.4864;0.5555;
411.9000;1.4872;0.5625;
412.2000;1.4872;0.5578;
412.5000;1.4872;0.5602;
412.8000;1.4856;0.5602;
413.1000;1.4872;0.5648;
413.4000;1.4880;0.5742;
413.7000;1.4872;0.5532;
414.0000;1.4856;0.5532;
414.3000;1.4839;0.5485;
414.6000;1.4880;0.5508;
414.9000;1.4864;0.5625;
415.2000;1.4847;0.5578;
415.5000;1.4839;0.5532;
415.8000;1.4839;0.5578;
416.1000;1.4847;0.5555;
416.4000;1.4839;0.5648;
416.7000;1.4839;0.5625;
417.0000;1.4856;0.5695;
417.3000;1.4847;0.5578;
417.6000;1.4847;0.5602;
417.9000;1.4856;0.5602;
418.2000;1.4839;0.5578;
418.5000;1.4880;0.5578;
418.8000;1.4856;0.5555;
419.1000;1.4864;0.5532;
419.4000;1.4839;0.5508;
419.7000;1.4872;0.5602;
420.0000;1.4872;0.5648;
420.3000;1.4856;0.5625;
420.6000;1.4839;0.5578;
420.9000;1.4872;0.5648;
421.2000;1.4847;0.5578;
421.5000;1.4839;0.5578;
421.8000;1.4872;0.5648;
422.1000;1.4864;0.5602;
422.4000;1.4872;0.5578;
422.7000;1.4856;0.5555;
423.0000;1.4856;0.5578;
423.3000;1.4847;0.5602;
423.6000;1.4864;0.5695;
423.9000;1.4872;0.5812;
424.2000;1.4847;0.5858;
424.5000;1.4872;0.5905;
424.8000;1.4872;0.5812;
425.1000;1.4880;0.5882;
425.4000;1.4864;0.5812;
425.7000;1.4864;0.5788;
426.0000;1.4831;0.5648;
426.3000;1.4847;0.5532;
426.6000;1.4807;0.5368;
426.9000;1.4839;0.5415;
427.2000;1.4872;0.5508;
427.5000;1.4912;0.5578;
427.8000;1.4847;0.5485;
428.1000;1.4856;0.5508;
428.4000;1.4856;0.5485;
428.7000;1.4856;0.5485;
429.0000;1.4856;0.5555;
429.3000;1.4831;0.5625;
429.6000;1.4872;0.5742;
429.9000;1.4799;0.5532;
430.2000;1.4872;0.5672;
430.5000;1.4839;0.5625;
430.8000;1.4864;0.5672;
431.1000;1.4864;0.5625;
431.4000;1.4856;0.5625;
431.7000;1.4856;0.5672;
432.0000;1.4856;0.5625;
432.3000;1.4896;0.5742;
432.6000;1.4921;0.5858;
432.9000;1.4856;0.5695;
433.2000;1.4831;0.5602;
433.5000;1.4856;0.5672;
433.8000;1.4864;0.5695;
434.1000;1.4856;0.5672;
434.4000;1.4856;0.5578;
434.7000;1.4847;0.5532;
435.0000;1.4872;0.5578;
435.3000;1.4864;0.5648;
435.6000;1.4839;0.5695;
435.9000;1.4864;0.5765;
436.2000;1.4847;0.5718;
436.5000;1.4839;0.5695;
436.8000;1.4872;0.5695;
437.1000;1.4847;0.5672;
437.4000;1.4872;0.5742;
437.7000;1.4864;0.5812;
438.0000;1.4864;0.5835;
438.3000;1.4839;0.5812;
438.6000;1.4872;0.5812;
438.9000;1.4864;0.5765;
439.2000;1.4888;0.5858;
439.5000;1.4856;0.5858;
439.8000;1.4839;0.5882;
440.1000;1.4847;0.5835;
440.4000;1.4839;0.5858;
440.7000;1.4864;0.5882;
441.0000;1.4847;0.5858;
441.3000;1.4847;0.5718;
441.6000;1.4847;0.5695;
441.9000;1.4847;0.5695;
442.2000;1.4831;0.5578;
442.5000;1.4864;0.5532;
442.8000;1.4864;0.5532;
443.1000;1.4896;0.5788;
443.4000;1.4856;0.5695;
443.7000;1.4872;0.5788;
444.0000;1.4847;0.5718;
444.3000;1.4872;0.5718;
444.6000;1.4880;0.5718;
444.9000;1.4872;0.5718;
445.2000;1.4856;0.5742;
445.5000;1.4847;0.5695;
445.8000;1.4839;0.5672;
446.1000;1.4864;0.5672;
446.4000;1.4904;0.5718;
446.7000;1.4864;0.5602;
447.0000;1.4864;0.5718;
447.3000;1.4872;0.5765;
447.6000;1.4807;0.5625;
447.9000;1.4872;0.5718;
448.2000;1.4847;0.5672;
448.5000;1.4815;0.5672;
448.8000;1.4872;0.5742;
449.1000;1.4847;0.5742;
449.4000;1.4872;0.5765;
449.7000;1.4864;0.5788;
450.0000;1.4847;0.5718;
450.3000;1.4872;0.5788;
450.6000;1.4856;0.5835;
450.9000;1.4856;0.5835;
451.2000;1.4847;0.5788;
451.5000;1.4847;0.5788;
451.8000;1.4839;0.5765;
452.1000;1.4847;0.5765;
452.4000;1.4847;0.5788;
452.7000;1.4839;0.5718;
453.0000;1.4831;0.5695;
453.3000;1.4847;0.5742;
453.6000;1.4856;0.5788;
453.9000;1.4823;0.5695;
454.2000;1.4831;0.5718;
454.5000;1.4856;0.5788;
454.8000;1.4847;0.5695;
455.1000;1.4839;0.5648;
455.4000;1.4847;0.5672;
455.7000;1.4839;0.5695;
456.0000;1.4856;0.5695;
456.3000;1.4888;0.5765;
456.6000;1.4856;0.5672;
456.9000;1.4790;0.5508;
457.2000;1.4880;0.5695;
457.5000;1.4880;0.5695;
457.8000;1.4856;0.5625;
458.1000;1.4872;0.5718;
458.4000;1.4864;0.5788;
458.7000;1.4864;0.5765;
459.0000;1.4847;0.5788;
459.3000;1.4872;0.5835;
459.6000;1.4864;0.5788;
459.9000;1.4864;0.5765;
460.2000;1.4864;0.5695;
460.5000;1.4847;0.5625;
460.8000;1.4872;0.5672;
461.1000;1.4847;0.5602;
461.4000;1.4872;0.5602;
461.7000;1.4856;0.5555;
462.0000;1.4872;0.5602;
462.3000;1.4872;0.5625;
462.6000;1.4872;0.5648;
462.9000;1.4856;0.5578;
463.2000;1.4872;0.5625;
463.5000;1.4856;0.5555;
463.8000;1.4872;0.5648;
464.1000;1.4774;0.5508;
464.4000;1.4823;0.5718;
464.7000;1.4856;0.5835;
465.0000;1.4880;0.5858;
465.3000;1.4856;0.5788;
465.6000;1.4864;0.5812;
465.9000;1.4847;0.5788;
466.2000;1.4872;0.5835;
466.5000;1.4856;0.5812;
466.8000;1.4856;0.5718;
467.1000;1.4823;0.5672;
467.4000;1.4864;0.5718;
467.7000;1.4929;0.5882;
468.0000;1.4864;0.5718;
468.3000;1.4831;0.5672;
468.6000;1.4888;0.5835;
468.9000;1.4864;0.5835;
469.2000;1.4864;0.5835;
469.5000;1.4856;0.5812;
469.8000;1.4847;0.5742;
470.1000;1.4880;0.5695;
470.4000;1.4896;0.5718;
470.7000;1.4823;0.5485;
471.0000;1.4856;0.5462;
471.3000;1.4912;0.5625;
471.6000;1.4790;0.5392;
471.9000;1.4847;0.5508;
472.2000;1.4847;0.5508;
472.5000;1.4839;0.5508;
472.8000;1.4847;0.5648;
473.1000;1.4847;0.5765;
473.4000;1.4831;0.5695;
473.7000;1.4847;0.5765;
474.0000;1.4864;0.5788;
474.3000;1.4904;0.5812;
474.6000;1.4847;0.5672;
474.9000;1.4839;0.5695;
475.2000;1.4864;0.5718;
475.5000;1.4856;0.5695;
475.8000;1.4847;0.5765;
476.1000;1.4880;0.5812;
476.4000;1.4847;0.5742;
476.7000;1.4856;0.5788;
477.0000;1.4782;0.5672;
477.3000;1.4831;0.5742;
477.6000;1.4847;0.5765;
477.9000;1.4847;0.5812;
478.2000;1.4839;0.5882;
478.5000;1.4847;0.5905;
478.8000;1.4856;0.5812;
479.1000;1.4847;0.5858;
479.4000;1.4856;0.5835;
479.7000;1.4839;0.5812;
480.0000;1.4847;0.5788;
480.3000;1.4856;0.5812;
480.6000;1.4864;0.5812;
480.9000;1.4823;0.5835;
481.2000;1.4847;0.5882;
481.5000;1.4872;0.5928;
481.8000;1.4847;0.5835;
482.1000;1.4945;0.5952;
482.4000;1.4864;0.5742;
482.7000;1.4872;0.5788;
483.0000;1.4880;0.5858;
483.3000;1.4831;0.5788;
483.6000;1.4864;0.5835;
483.9000;1.4872;0.5812;
484.2000;1.4904;0.5858;
484.5000;1.4856;0.5718;
484.8000;1.4839;0.5718;
485.1000;1.4856;0.5695;
485.4000;1.4912;0.5905;
485.7000;1.4856;0.5835;
486.0000;1.4823;0.5718;
486.3000;1.4839;0.5788;
486.6000;1.4856;0.5835;
486.9000;1.4888;0.5905;
487.2000;1.4839;0.5812;
487.5000;1.4839;0.5788;
487.8000;1.4872;0.5835;
488.1000;1.4864;0.5765;
488.4000;1.4847;0.5788;
488.7000;1.4839;0.5765;
489.0000;1.4839;0.5788;
489.3000;1.4856;0.5672;
489.6000;1.4856;0.5625;
489.9000;1.4953;0.5882;
490.2000;1.4921;0.5695;
490.5000;1.4872;0.5555;
490.8000;1.4856;0.5485;
491.1000;1.4847;0.5415;
491.4000;1.4864;0.5485;
491.7000;1.4864;0.5532;
492.0000;1.4872;0.5602;
492.3000;1.4856;0.5602;
492.6000;1.4872;0.5602;
492.9000;1.4856;0.5648;
493.2000;1.4880;0.5742;
493.5000;1.4856;0.5695;
493.8000;1.4856;0.5625;
494.1000;1.4864;0.5578;
494.4000;1.4831;0.5485;
494.7000;1.4872;0.5602;
495.0000;1.4847;0.5508;
495.3000;1.4856;0.5532;
495.6000;1.4839;0.5578;
495.9000;1.4847;0.5648;
496.2000;1.4847;0.5672;
496.5000;1.4864;0.5602;
496.8000;1.4847;0.5578;
497.1000;1.4839;0.5672;
497.4000;1.4856;0.5788;
497.7000;1.4839;0.5742;
498.0000;1.4847;0.5765;
498.3000;1.4872;0.5812;
498.6000;1.4847;0.5812;
498.9000;1.4847;0.5835;
499.2000;1.4864;0.5835;
499.5000;1.4864;0.5835;
499.8000;1.4839;0.5882;
500.1000;1.4839;0.5975;
500.4000;1.4856;0.5952;
500.7000;1.4839;0.5858;
501.0000;1.4807;0.5812;
501.3000;1.4880;0.5952;
501.6000;1.4847;0.5882;
501.9000;1.4888;0.5975;
502.2000;1.4856;0.5835;
502.5000;1.4856;0.5718;
502.8000;1.4856;0.5835;
503.1000;1.4864;0.5835;
503.4000;1.4872;0.5858;
503.7000;1.4856;0.5788;
504.0000;1.4839;0.5788;
504.3000;1.4839;0.5742;
504.6000;1.4872;0.5788;
504.9000;1.4831;0.5718;
505.2000;1.4839;0.5672;
505.5000;1.4847;0.5648;
505.8000;1.4847;0.5602;
506.1000;1.4929;0.5742;
506.4000;1.4856;0.5625;
506.7000;1.4831;0.5508;
507.0000;1.4799;0.5415;
507.3000;1.4839;0.5485;
507.6000;1.4872;0.5485;
507.9000;1.4856;0.5438;
508.2000;1.4839;0.5392;
508.5000;1.4847;0.5438;
508.8000;1.4839;0.5485;
509.1000;1.4839;0.5555;
509.4000;1.4847;0.5485;
509.7000;1.4847;0.5462;
510.0000;1.4847;0.5485;
510.3000;1.4831;0.5485;
510.6000;1.4831;0.5438;
510.9000;1.4823;0.5392;
511.2000;1.4864;0.5508;
511.5000;1.4847;0.5555;
511.8000;1.4831;0.5462;
512.1000;1.4839;0.5462;
512.4000;1.4856;0.5462;
512.7000;1.4815;0.5392;
513.0000;1.4847;0.5532;
513.3000;1.4856;0.5508;
513.6000;1.4847;0.5462;
513.9000;1.4872;0.5578;
514.2000;1.4831;0.5532;
514.5000;1.4831;0.5508;
514.8000;1.4839;0.5508;
515.1000;1.4847;0.5462;
515.4000;1.4847;0.5508;
515.7000;1.4839;0.5462;
516.0000;1.4847;0.5508;
516.3000;1.4856;0.5485;
516.6000;1.4847;0.5485;
516.9000;1.4839;0.5415;
517.2000;1.4847;0.5438;
517.5000;1.4856;0.5508;
517.8000;1.4856;0.5578;
518.1000;1.4856;0.5578;
518.4000;1.4847;0.5578;
518.7000;1.4839;0.5555;
519.0000;1.4847;0.5602;
519.3000;1.4856;0.5648;
519.6000;1.4839;0.5578;
519.9000;1.4831;0.5532;
520.2000;1.4831;0.5508;
520.5000;1.4823;0.5368;
520.8000;1.4815;0.5392;
521.1000;1.4839;0.5368;
521.4000;1.4839;0.5438;
521.7000;1.4847;0.5532;
522.0000;1.4782;0.5392;
522.3000;1.4823;0.5532;
522.6000;1.4831;0.5625;
522.9000;1.4847;0.5648;
523.2000;1.4831;0.5625;
523.5000;1.4872;0.5648;
523.8000;1.4856;0.5578;
524.1000;1.4839;0.5578;
524.4000;1.4839;0.5555;
524.7000;1.4831;0.5532;
525.0000;1.4864;0.5508;
525.3000;1.4839;0.5485;
525.6000;1.4847;0.5462;
525.9000;1.4807;0.5345;
526.2000;1.4831;0.5322;
526.5000;1.4847;0.5392;
526.8000;1.4847;0.5438;
527.1000;1.4839;0.5485;
527.4000;1.4839;0.5415;
527.7000;1.4847;0.5438;
528.0000;1.4847;0.5462;
528.3000;1.4839;0.5438;
528.6000;1.4839;0.5462;
528.9000;1.4847;0.5415;
529.2000;1.4847;0.5392;
529.5000;1.4839;0.5368;
529.8000;1.4847;0.5392;
530.1000;1.4864;0.5415;
530.4000;1.4888;0.5462;
530.7000;1.4864;0.5462;
531.0000;1.4864;0.5532;
531.3000;1.4896;0.5578;
531.6000;1.4847;0.5415;
531.9000;1.4847;0.5532;
532.2000;1.4880;0.5578;
532.5000;1.4839;0.5508;
532.8000;1.4847;0.5462;
533.1000;1.4847;0.5485;
533.4000;1.4823;0.5415;
533.7000;1.4823;0.5415;
534.0000;1.4831;0.5508;
534.3000;1.4831;0.5508;
534.6000;1.4847;0.5532;
534.9000;1.4831;0.5508;
535.2000;1.4839;0.5602;
535.5000;1.4839;0.5602;
535.8000;1.4847;0.5555;
536.1000;1.4847;0.5508;
536.4000;1.4839;0.5578;
536.7000;1.4847;0.5625;
537.0000;1.4839;0.5485;
537.3000;1.4847;0.5438;
537.6000;1.4847;0.5555;
537.9000;1.4856;0.5578;
538.2000;1.4815;0.5462;
538.5000;1.4847;0.5508;
538.8000;1.4823;0.5508;
539.1000;1.4831;0.5508;
539.4000;1.4839;0.5485;
539.7000;1.4839;0.5368;
540.0000;1.4823;0.5298;
540.3000;1.4872;0.5368;
540.6000;1.4864;0.5415;
540.9000;1.4856;0.5368;
541.2000;1.4872;0.5415;
541.5000;1.4953;0.5648;
541.8000;1.4839;0.5415;
542.1000;1.4880;0.5462;
542.4000;1.4847;0.5438;
542.7000;1.4847;0.5485;
543.0000;1.4856;0.5485;
543.3000;1.4888;0.5508;
543.6000;1.4864;0.5462;
543.9000;1.4839;0.5508;
544.2000;1.4839;0.5438;
544.5000;1.4847;0.5368;
544.8000;1.4896;0.5462;
545.1000;1.4847;0.5298;
545.4000;1.4856;0.5298;
545.7000;1.4856;0.5368;
546.0000;1.4847;0.5438;
546.3000;1.4847;0.5462;
546.6000;1.4839;0.5485;
546.9000;1.4847;0.5485;
547.2000;1.4839;0.5415;
547.5000;1.4839;0.5415;
547.8000;1.4815;0.5438;
548.1000;1.4847;0.5508;
548.4000;1.4847;0.5532;
548.7000;1.4847;0.5462;
549.0000;1.4856;0.5508;
549.3000;1.4856;0.5462;
549.6000;1.4839;0.5485;
549.9000;1.4896;0.5648;
550.2000;1.4839;0.5485;
550.5000;1.4839;0.5625;
550.8000;1.4839;0.5718;
551.1000;1.4847;0.5718;
551.4000;1.4847;0.5695;
551.7000;1.4847;0.5625;
552.0000;1.4831;0.5508;
552.3000;1.4872;0.5625;
552.6000;1.4856;0.5625;
552.9000;1.4856;0.5602;
553.2000;1.4847;0.5578;
553.5000;1.4856;0.5718;
553.8000;1.4847;0.5718;
554.1000;1.4847;0.5648;
554.4000;1.4921;0.5812;
554.7000;1.4847;0.5555;
555.0000;1.4856;0.5462;
555.3000;1.4847;0.5532;
555.6000;1.4831;0.5485;
555.9000;1.4847;0.5555;
556.2000;1.4856;0.5578;
556.5000;1.4847;0.5602;
556.8000;1.4864;0.5555;
557.1000;1.4831;0.5555;
557.4000;1.4856;0.5625;
557.7000;1.4847;0.5648;
558.0000;1.4847;0.5602;
558.3000;1.4831;0.5532;
558.6000;1.4839;0.5532;
558.9000;1.4847;0.5508;
559.2000;1.4847;0.5485;
559.5000;1.4839;0.5578;
559.8000;1.4831;0.5672;
560.1000;1.4847;0.5672;
560.4000;1.4839;0.5648;
560.7000;1.4839;0.5648;
561.0000;1.4839;0.5578;
561.3000;1.4839;0.5532;
561.6000;1.4847;0.5555;
561.9000;1.4856;0.5625;
562.2000;1.4847;0.5672;
562.5000;1.4847;0.5672;
562.8000;1.4872;0.5858;
563.1000;1.4856;0.5928;
563.4000;1.4872;0.5975;
563.7000;1.4856;0.5952;
564.0000;1.4847;0.5952;
564.3000;1.4839;0.5858;
564.6000;1.4839;0.5788;
564.9000;1.4847;0.5742;
565.2000;1.4856;0.5718;
565.5000;1.4839;0.5695;
565.8000;1.4839;0.5742;
566.1000;1.4839;0.5718;
566.4000;1.4831;0.5742;
566.7000;1.4839;0.5788;
567.0000;1.4847;0.5718;
567.3000;1.4839;0.5625;
567.6000;1.4847;0.5648;
567.9000;1.4856;0.5648;
568.2000;1.4847;0.5672;
568.5000;1.4831;0.5672;
568.8000;1.4839;0.5648;
569.1000;1.4823;0.5602;
569.4000;1.4864;0.5648;
569.7000;1.4831;0.5555;
570.0000;1.4807;0.5578;
570.3000;1.4831;0.5532;
570.6000;1.4831;0.5485;
570.9000;1.4831;0.5508;
571.2000;1.4766;0.5508;
571.5000;1.4831;0.5672;
571.8000;1.4782;0.5532;
572.1000;1.4912;0.5812;
572.4000;1.4831;0.5578;
572.7000;1.4847;0.5672;
573.0000;1.4847;0.5672;
573.3000;1.4847;0.5648;
573.6000;1.4839;0.5695;
573.9000;1.4831;0.5695;
574.2000;1.4839;0.5672;
574.5000;1.4888;0.5765;
574.8000;1.4831;0.5625;
575.1000;1.4815;0.5578;
575.4000;1.4774;0.5462;
575.7000;1.4847;0.5508;
576.0000;1.4831;0.5508;
576.3000;1.4831;0.5532;
576.6000;1.4839;0.5555;
576.9000;1.4856;0.5625;
577.2000;1.4847;0.5648;
577.5000;1.4839;0.5672;
577.8000;1.4839;0.5695;
578.1000;1.4856;0.5742;
578.4000;1.4847;0.5718;
578.7000;1.4847;0.5695;
579.0000;1.4815;0.5625;
579.3000;1.4847;0.5648;
579.6000;1.4856;0.5742;
579.9000;1.4880;0.5882;
580.2000;1.4839;0.5858;
580.5000;1.4831;0.5858;
580.8000;1.4823;0.5788;
581.1000;1.4815;0.5672;
581.4000;1.4831;0.5788;
581.7000;1.4790;0.5765;
582.0000;1.4807;0.5858;
582.3000;1.4823;0.5858;
582.6000;1.4831;0.5835;
582.9000;1.4831;0.5835;
583.2000;1.4831;0.5905;
583.5000;1.4839;0.5928;
583.8000;1.4799;0.5835;
584.1000;1.4847;0.5952;
584.4000;1.4831;0.5882;
584.7000;1.4831;0.5835;
585.0000;1.4839;0.5718;
585.3000;1.4847;0.5625;
585.6000;1.4896;0.5718;
585.9000;1.4856;0.5625;
586.2000;1.4856;0.5555;
586.5000;1.4847;0.5508;
586.8000;1.4815;0.5508;
587.1000;1.4856;0.5602;
587.4000;1.4896;0.5695;
587.7000;1.4831;0.5485;
588.0000;1.4831;0.5578;
588.3000;1.4831;0.5602;
588.6000;1.4856;0.5648;
588.9000;1.4847;0.5718;
589.2000;1.4856;0.5742;
589.5000;1.4831;0.5672;
589.8000;1.4856;0.5695;
590.1000;1.4807;0.5508;
590.4000;1.4856;0.5555;
590.7000;1.4831;0.5508;
591.0000;1.4807;0.5462;
591.3000;1.4864;0.5648;
591.6000;1.4782;0.5508;
591.9000;1.4831;0.5695;
592.2000;1.4815;0.5718;
592.5000;1.4839;0.5812;
592.8000;1.4815;0.5788;
593.1000;1.4831;0.5765;
593.4000;1.4823;0.5742;
593.7000;1.4864;0.5788;
594.0000;1.4831;0.5695;
594.3000;1.4856;0.5788;
594.6000;1.4815;0.5788;
594.9000;1.4839;0.5905;
595.2000;1.4839;0.5882;
595.5000;1.4839;0.5882;
595.8000;1.4831;0.5882;
596.1000;1.4896;0.6045;
596.4000;1.4880;0.5975;
596.7000;1.4839;0.5788;
597.0000;1.4839;0.5765;
597.3000;1.4790;0.5695;
597.6000;1.4839;0.5812;
597.9000;1.4799;0.5718;
598.2000;1.4839;0.5835;
598.5000;1.4839;0.5858;
598.8000;1.4831;0.5788;
599.1000;1.4856;0.5858;
599.4000;1.4847;0.5858;
599.7000;1.4856;0.5905;
600.0000;1.4856;0.5905;
600.3000;1.4888;0.5742;
600.6000;1.4856;0.5508;
600.9000;1.4774;0.5205;
601.2000;1.4676;0.4972;
601.5000;1.4554;0.4761;
601.8000;1.4416;0.4551;
602.1000;1.4278;0.4271;
602.4000;1.4155;0.4108;
602.7000;1.4009;0.3804;
603.0000;1.3911;0.3688;
603.3000;1.3781;0.3431;
603.6000;1.3659;0.3244;
603.9000;1.3586;0.3104;
604.2000;1.3472;0.3081;
604.5000;1.3350;0.3058;
604.8000;1.3260;0.2988;
605.1000;1.3179;0.2988;
605.4000;1.3097;0.2894;
605.7000;1.3008;0.2778;
606.0000;1.2902;0.2707;
606.3000;1.2821;0.2567;
606.6000;1.2772;0.2497;
606.9000;1.2707;0.2334;
607.2000;1.2617;0.2194;
607.5000;1.2552;0.2194;
607.8000;1.2422;0.2101;
608.1000;1.2381;0.2077;
608.4000;1.2316;0.1961;
608.7000;1.2259;0.1891;
609.0000;1.2194;0.1891;
609.3000;1.2137;0.1774;
609.6000;1.2063;0.1704;
609.9000;1.2007;0.1657;
610.2000;1.1950;0.1727;
610.5000;1.1909;0.1797;
610.8000;1.1836;0.1704;
611.1000;1.1787;0.1704;
611.4000;1.1746;0.1774;
611.7000;1.1673;0.1797;
612.0000;1.1616;0.1751;
612.3000;1.1559;0.1657;
612.6000;1.1510;0.1564;
612.9000;1.1469;0.1494;
613.2000;1.1396;0.1494;
613.5000;1.1355;0.1587;
613.8000;1.1306;0.1517;
614.1000;1.1225;0.1400;
614.4000;1.1217;0.1494;
614.7000;1.1176;0.1470;
615.0000;1.1136;0.1494;
615.3000;1.1070;0.1447;
615.6000;1.1062;0.1470;
615.9000;1.0997;0.1377;
616.2000;1.0932;0.1354;
616.5000;1.0908;0.1354;
616.8000;1.0891;0.1377;
617.1000;1.0826;0.1330;
617.4000;1.0786;0.1307;
617.7000;1.0794;0.1400;
618.0000;1.0753;0.1377;
618.3000;1.0680;0.1260;
618.6000;1.0623;0.1190;
618.9000;1.0582;0.1237;
619.2000;1.0566;0.1190;
619.5000;1.0615;0.1470;
619.8000;1.0484;0.1284;
620.1000;1.0444;0.1214;
620.4000;1.0435;0.1190;
620.7000;1.0387;0.1167;
621.0000;1.0346;0.1097;
621.3000;1.0330;0.1027;
621.6000;1.0297;0.1050;
621.9000;1.0216;0.0910;
622.2000;1.0224;0.0980;
622.5000;1.0183;0.0910;
622.8000;1.0134;0.0840;
623.1000;1.0110;0.0654;
623.4000;1.0102;0.0654;
623.7000;1.0094;0.0794;
624.0000;1.0045;0.0747;
624.3000;0.9980;0.0724;
624.6000;1.0004;0.0770;
624.9000;0.9972;0.0747;
625.2000;0.9923;0.0747;
625.5000;0.9915;0.0770;
625.8000;0.9890;0.0817;
626.1000;0.9849;0.0794;
626.4000;0.9833;0.0770;
626.7000;0.9792;0.0770;
627.0000;0.9768;0.0794;
627.3000;0.9760;0.0700;
627.6000;0.9727;0.0654;
627.9000;0.9703;0.0607;
628.2000;0.9670;0.0607;
628.5000;0.9654;0.0584;
628.8000;0.9605;0.0607;
629.1000;0.9589;0.0560;
629.4000;0.9573;0.0513;
629.7000;0.9565;0.0560;
630.0000;0.9540;0.0537;
630.3000;0.9524;0.0513;
630.6000;0.9491;0.0560;
630.9000;0.9508;0.0537;
631.2000;0.9459;0.0443;
631.5000;0.9426;0.0397;
631.8000;0.9410;0.0490;
632.1000;0.9394;0.0537;
632.4000;0.9377;0.0513;
632.7000;0.9361;0.0467;
633.0000;0.9328;0.0467;
633.3000;0.9337;0.0560;
633.6000;0.9304;0.0490;
633.9000;0.9280;0.0420;
634.2000;0.9263;0.0397;
634.5000;0.9247;0.0443;
634.8000;0.9255;0.0537;
635.1000;0.9239;0.0467;
635.4000;0.9182;0.0350;
635.7000;0.9174;0.0397;
636.0000;0.9166;0.0420;
636.3000;0.9149;0.0443;
636.6000;0.9117;0.0443;
636.9000;0.9101;0.0373;
637.2000;0.9092;0.0467;
637.5000;0.9092;0.0443;
637.8000;0.9076;0.0420;
638.1000;0.9044;0.0420;
638.4000;0.9019;0.0490;
638.7000;0.9011;0.0537;
639.0000;0.8978;0.0513;
639.3000;0.8987;0.0584;
639.6000;0.8954;0.0467;
639.9000;0.8987;0.0490;
640.2000;0.8938;0.0373;
640.5000;0.8921;0.0327;
640.8000;0.8889;0.0280;
641.1000;0.8889;0.0327;
641.4000;0.8897;0.0420;
641.7000;0.8864;0.0443;
642.0000;0.8759;0.0303;
642.3000;0.8832;0.0513;
642.6000;0.8840;0.0560;
642.9000;0.8816;0.0443;
643.2000;0.8783;0.0513;
643.5000;0.8824;0.0654;
643.8000;0.8840;0.0654;
644.1000;0.8799;0.0537;
644.4000;0.8677;0.0303;
644.7000;0.8734;0.0513;
645.0000;0.8734;0.0443;
645.3000;0.8710;0.0397;
645.6000;0.8694;0.0420;
645.9000;0.8677;0.0420;
646.2000;0.8694;0.0420;
646.5000;0.8653;0.0280;
646.8000;0.8661;0.0350;
647.1000;0.8645;0.0303;
647.4000;0.8669;0.0467;
647.7000;0.8628;0.0443;
648.0000;0.8628;0.0584;
648.3000;0.8628;0.0490;
648.6000;0.8588;0.0443;
648.9000;0.8588;0.0537;
649.2000;0.8580;0.0560;
649.5000;0.8604;0.0537;
649.8000;0.8531;0.0373;
650.1000;0.8539;0.0373;
650.4000;0.8596;0.0537;
650.7000;0.8539;0.0513;
651.0000;0.8506;0.0513;
651.3000;0.8514;0.0490;
651.6000;0.8482;0.0467;
651.9000;0.8482;0.0443;
652.2000;0.8506;0.0513;
652.5000;0.8449;0.0420;
652.8000;0.8474;0.0490;
653.1000;0.8449;0.0443;
653.4000;0.8400;0.0373;
653.7000;0.8417;0.0467;
654.0000;0.8441;0.0467;
654.3000;0.8400;0.0420;
654.6000;0.8384;0.0490;
654.9000;0.8368;0.0607;
655.2000;0.8360;0.0443;
655.5000;0.8360;0.0420;
655.8000;0.8368;0.0467;
656.1000;0.8344;0.0397;
656.4000;0.8360;0.0513;
656.7000;0.8344;0.0537;
657.0000;0.8335;0.0490;
657.3000;0.8319;0.0443;
657.6000;0.8303;0.0397;
657.9000;0.8311;0.0467;
658.2000;0.8303;0.0490;
658.5000;0.8295;0.0513;
658.8000;0.8270;0.0280;
659.1000;0.8278;0.0280;
659.4000;0.8270;0.0303;
659.7000;0.8254;0.0327;
660.0000;0.8230;0.0303;
660.3000;0.8221;0.0233;
660.6000;0.8221;0.0233;
660.9000;0.8221;0.0163;
661.2000;0.8205;0.0140;
661.5000;0.8197;0.0163;
661.8000;0.8205;0.0350;
662.1000;0.8189;0.0420;
662.4000;0.8181;0.0420;
662.7000;0.8156;0.0373;
663.0000;0.8164;0.0280;
663.3000;0.8164;0.0350;
663.6000;0.8140;0.0303;
663.9000;0.8140;0.0303;
664.2000;0.8116;0.0280;
664.5000;0.8116;0.0303;
664.8000;0.8132;0.0373;
665.1000;0.8116;0.0350;
665.4000;0.8099;0.0373;
665.7000;0.8099;0.0327;
666.0000;0.8132;0.0350;
666.3000;0.8067;0.0233;
666.6000;0.8075;0.0187;
666.9000;0.8067;0.0257;
667.2000;0.8091;0.0303;
667.5000;0.8083;0.0420;
667.8000;0.8042;0.0350;
668.1000;0.8083;0.0467;
668.4000;0.8034;0.0397;
668.7000;0.8042;0.0397;
669.0000;0.8034;0.0233;
669.3000;0.8026;0.0327;
669.6000;0.8026;0.0350;
669.9000;0.8018;0.0327;
670.2000;0.8018;0.0327;
670.5000;0.7993;0.0420;
670.8000;0.8018;0.0490;
671.1000;0.8018;0.0490;
671.4000;0.7969;0.0257;
671.7000;0.7961;0.0303;
672.0000;0.7977;0.0327;
672.3000;0.7961;0.0327;
672.6000;0.7969;0.0420;
672.9000;0.7945;0.0327;
673.2000;0.7945;0.0350;
673.5000;0.7961;0.0420;
673.8000;0.7928;0.0350;
674.1000;0.7937;0.0350;
674.4000;0.7904;0.0210;
674.7000;0.7928;0.0303;
675.0000;0.7937;0.0350;
675.3000;0.7888;0.0257;
675.6000;0.7904;0.0350;
675.9000;0.7888;0.0303;
676.2000;0.7945;0.0537;
676.5000;0.7945;0.0607;
676.8000;0.7871;0.0397;
677.1000;0.7880;0.0420;
677.4000;0.7888;0.0467;
677.7000;0.7855;0.0490;
678.0000;0.7855;0.0420;
678.3000;0.7855;0.0443;
678.6000;0.7855;0.0490;
678.9000;0.7798;0.0327;
679.2000;0.7831;0.0420;
679.5000;0.7839;0.0443;
679.8000;0.7855;0.0443;
680.1000;0.7839;0.0397;
680.4000;0.7790;0.0303;
680.7000;0.7814;0.0350;
681.0000;0.7814;0.0233;
681.3000;0.7847;0.0373;
681.6000;0.7806;0.0397;
681.9000;0.7782;0.0350;
682.2000;0.7782;0.0327;
682.5000;0.7774;0.0327;
682.8000;0.7774;0.0397;
683.1000;0.7782;0.0350;
683.4000;0.7766;0.0350;
683.7000;0.7774;0.0350;
684.0000;0.7774;0.0210;
684.3000;0.7749;0.0233;
684.6000;0.7782;0.0397;
684.9000;0.7749;0.0350;
685.2000;0.7774;0.0350;
685.5000;0.7709;0.0163;
685.8000;0.7660;0.0093;
686.1000;0.7741;0.0280;
686.4000;0.7782;0.0420;
686.7000;0.7725;0.0350;
687.0000;0.7643;0.0210;
687.3000;0.7684;0.0303;
687.6000;0.7717;0.0327;
687.9000;0.7700;0.0350;
688.2000;0.7692;0.0350;
688.5000;0.7700;0.0397;
688.8000;0.7717;0.0420;
689.1000;0.7700;0.0420;
689.4000;0.7692;0.0397;
689.7000;0.7692;0.0373;
690.0000;0.7668;0.0373;
690.3000;0.7692;0.0560;
690.6000;0.7676;0.0467;
690.9000;0.7660;0.0373;
691.2000;0.7660;0.0280;
691.5000;0.7643;0.0233;
691.8000;0.7643;0.0280;
692.1000;0.7578;0.0140;
692.4000;0.7643;0.0350;
692.7000;0.7643;0.0373;
693.0000;0.7635;0.0373;
693.3000;0.7643;0.0397;
693.6000;0.7635;0.0420;
693.9000;0.7652;0.0443;
694.2000;0.7627;0.0397;
694.5000;0.7595;0.0327;
694.8000;0.7603;0.0257;
695.1000;0.7586;0.0233;
695.4000;0.7635;0.0420;
695.7000;0.7603;0.0397;
696.0000;0.7595;0.0490;
696.3000;0.7586;0.0467;
696.6000;0.7603;0.0537;
696.9000;0.7586;0.0467;
697.2000;0.7570;0.0397;
697.5000;0.7554;0.0350;
697.8000;0.7538;0.0350;
698.1000;0.7570;0.0420;
698.4000;0.7578;0.0467;
698.7000;0.7570;0.0420;
699.0000;0.7562;0.0443;
699.3000;0.7554;0.0467;
699.6000;0.7538;0.0373;
699.9000;0.7538;0.0373;
700.2000;0.7554;0.0443;
700.5000;0.7562;0.0467;
700.8000;0.7554;0.0467;
701.1000;0.7546;0.0490;
701.4000;0.7562;0.0467;
701.7000;0.7489;0.0257;
702.0000;0.7562;0.0467;
702.3000;0.7538;0.0373;
702.6000;0.7521;0.0350;
702.9000;0.7538;0.0467;
703.2000;0.7521;0.0443;
703.5000;0.7530;0.0443;
703.8000;0.7513;0.0350;
704.1000;0.7497;0.0327;
704.4000;0.7497;0.0350;
704.7000;0.7521;0.0443;
705.0000;0.7456;0.0420;
705.3000;0.7473;0.0420;
705.6000;0.7530;0.0654;
705.9000;0.7513;0.0654;
706.2000;0.7473;0.0513;
706.5000;0.7497;0.0537;
706.8000;0.7497;0.0560;
707.1000;0.7481;0.0513;
707.4000;0.7505;0.0490;
707.7000;0.7456;0.0490;
708.0000;0.7473;0.0513;
708.3000;0.7456;0.0467;
708.6000;0.7473;0.0467;
708.9000;0.7481;0.0537;
709.2000;0.7464;0.0467;
709.5000;0.7464;0.0537;
709.8000;0.7464;0.0584;
710.1000;0.7497;0.0630;
710.4000;0.7456;0.0467;
710.7000;0.7456;0.0373;
711.0000;0.7424;0.0233;
711.3000;0.7448;0.0397;
711.6000;0.7448;0.0373;
711.9000;0.7505;0.0490;
712.2000;0.7448;0.0350;
712.5000;0.7432;0.0350;
712.8000;0.7383;0.0257;
713.1000;0.7375;0.0210;
713.4000;0.7432;0.0397;
713.7000;0.7424;0.0373;
714.0000;0.7505;0.0537;
714.3000;0.7432;0.0327;
714.6000;0.7416;0.0397;
714.9000;0.7424;0.0420;
715.2000;0.7432;0.0443;
715.5000;0.7399;0.0303;
715.8000;0.7399;0.0303;
716.1000;0.7448;0.0490;
716.4000;0.7399;0.0420;
716.7000;0.7383;0.0397;
717.0000;0.7391;0.0373;
717.3000;0.7407;0.0420;
717.6000;0.7383;0.0397;
717.9000;0.7375;0.0443;
718.2000;0.7375;0.0443;
718.5000;0.7375;0.0327;
718.8000;0.7383;0.0233;
719.1000;0.7359;0.0187;
719.4000;0.7350;0.0257;
719.7000;0.7359;0.0327;
720.0000;0.7350;0.0373;
720.3000;0.7350;0.0350;
720.6000;0.7342;0.0350;
720.9000;0.7367;0.0443;
721.2000;0.7375;0.0467;
721.5000;0.7334;0.0397;
721.8000;0.7342;0.0467;
722.1000;0.7350;0.0490;
722.4000;0.7367;0.0443;
722.7000;0.7342;0.0350;
723.0000;0.7334;0.0350;
723.3000;0.7326;0.0327;
723.6000;0.7367;0.0490;
723.9000;0.7359;0.0513;
724.2000;0.7350;0.0490;
724.5000;0.7350;0.0420;
724.8000;0.7334;0.0420;
725.1000;0.7326;0.0467;
725.4000;0.7326;0.0443;
725.7000;0.7318;0.0350;
726.0000;0.7318;0.0373;
726.3000;0.7318;0.0350;
726.6000;0.7310;0.0373;
726.9000;0.7318;0.0467;
727.2000;0.7326;0.0490;
727.5000;0.7326;0.0607;
727.8000;0.7326;0.0584;
728.1000;0.7293;0.0467;
728.4000;0.7310;0.0513;
728.7000;0.7318;0.0607;
729.0000;0.7334;0.0584;
729.3000;0.7293;0.0537;
729.6000;0.7302;0.0490;
729.9000;0.7318;0.0490;
730.2000;0.7318;0.0513;
730.5000;0.7277;0.0443;
730.8000;0.7293;0.0513;
731.1000;0.7293;0.0513;
731.4000;0.7277;0.0443;
731.7000;0.7245;0.0280;
732.0000;0.7302;0.0443;
732.3000;0.7285;0.0373;
732.6000;0.7261;0.0397;
732.9000;0.7277;0.0443;
733.2000;0.7285;0.0443;
733.5000;0.7269;0.0420;
733.8000;0.7277;0.0443;
734.1000;0.7277;0.0373;
734.4000;0.7253;0.0303;
734.7000;0.7253;0.0303;
735.0000;0.7269;0.0350;
735.3000;0.7269;0.0420;
735.6000;0.7245;0.0420;
735.9000;0.7236;0.0350;
736.2000;0.7261;0.0397;
736.5000;0.7261;0.0420;
736.8000;0.7293;0.0560;
737.1000;0.7253;0.0513;
737.4000;0.7245;0.0537;
737.7000;0.7253;0.0607;
738.0000;0.7253;0.0607;
738.3000;0.7253;0.0560;
738.6000;0.7228;0.0607;
738.9000;0.7253;0.0607;
739.2000;0.7245;0.0513;
739.5000;0.7228;0.0420;
739.8000;0.7228;0.0467;
740.1000;0.7228;0.0467;
740.4000;0.7236;0.0537;
740.7000;0.7236;0.0537;
741.0000;0.7220;0.0467;
741.3000;0.7220;0.0373;
741.6000;0.7236;0.0467;
741.9000;0.7228;0.0443;
742.2000;0.7228;0.0443;
742.5000;0.7228;0.0420;
742.8000;0.7236;0.0420;
743.1000;0.7228;0.0420;
743.4000;0.7220;0.0420;
743.7000;0.7220;0.0420;
744.0000;0.7212;0.0373;
744.3000;0.7188;0.0327;
744.6000;0.7220;0.0443;
744.9000;0.7228;0.0420;
745.2000;0.7196;0.0350;
745.5000;0.7204;0.0373;
745.8000;0.7212;0.0490;
746.1000;0.7212;0.0560;
746.4000;0.7204;0.0630;
746.7000;0.7171;0.0560;
747.0000;0.7171;0.0560;
747.3000;0.7212;0.0630;
747.6000;0.7179;0.0560;
747.9000;0.7114;0.0420;
748.2000;0.7163;0.0420;
748.5000;0.7179;0.0443;
748.8000;0.7171;0.0420;
749.1000;0.7179;0.0467;
749.4000;0.7188;0.0420;
749.7000;0.7179;0.0350;
750.0000;0.7179;0.0350;
750.3000;0.7163;0.0257;
750.6000;0.7179;0.0210;
750.9000;0.7171;0.0257;
751.2000;0.7179;0.0303;
751.5000;0.7155;0.0350;
751.8000;0.7163;0.0350;
752.1000;0.7155;0.0327;
752.4000;0.7163;0.0327;
752.7000;0.7163;0.0280;
753.0000;0.7196;0.0303;
753.3000;0.7179;0.0327;
753.6000;0.7163;0.0303;
753.9000;0.7171;0.0397;
754.2000;0.7204;0.0467;
754.5000;0.7163;0.0350;
754.8000;0.7171;0.0397;
755.1000;0.7106;0.0233;
755.4000;0.7155;0.0350;
755.7000;0.7155;0.0397;
756.0000;0.7163;0.0443;
756.3000;0.7090;0.0303;
756.6000;0.7131;0.0397;
756.9000;0.7139;0.0373;
757.2000;0.7147;0.0327;
757.5000;0.7139;0.0210;
757.8000;0.7139;0.0187;
758.1000;0.7139;0.0210;
758.4000;0.7163;0.0420;
758.7000;0.7139;0.0420;
759.0000;0.7106;0.0373;
759.3000;0.7204;0.0537;
759.6000;0.7139;0.0350;
759.9000;0.7123;0.0467;
760.2000;0.7147;0.0443;
760.5000;0.7131;0.0467;
760.8000;0.7131;0.0420;
761.1000;0.7131;0.0373;
761.4000;0.7123;0.0327;
761.7000;0.7131;0.0303;
762.0000;0.7139;0.0397;
762.3000;0.7131;0.0467;
762.6000;0.7082;0.0327;
762.9000;0.7123;0.0397;
763.2000;0.7114;0.0467;
763.5000;0.7123;0.0490;
763.8000;0.7123;0.0420;
764.1000;0.7123;0.0397;
764.4000;0.7074;0.0280;
764.7000;0.7131;0.0373;
765.0000;0.7131;0.0327;
765.3000;0.7139;0.0280;
765.6000;0.7090;0.0117;
765.9000;0.7131;0.0117;
766.2000;0.7098;0.0117;
766.5000;0.7090;0.0210;
766.8000;0.7098;0.0257;
767.1000;0.7090;0.0303;
767.4000;0.7114;0.0373;
767.7000;0.7114;0.0397;
768.0000;0.7098;0.0280;
768.3000;0.7106;0.0327;
768.6000;0.7098;0.0373;
768.9000;0.7090;0.0373;
769.2000;0.7106;0.0350;
769.5000;0.7106;0.0373;
769.8000;0.7098;0.0397;
770.1000;0.7098;0.0420;
770.4000;0.7082;0.0327;
770.7000;0.7082;0.0350;
771.0000;0.7106;0.0373;
771.3000;0.7106;0.0397;
771.6000;0.7098;0.0350;
771.9000;0.7025;0.0117;
772.2000;0.7074;0.0257;
772.5000;0.7090;0.0303;
772.8000;0.7049;0.0187;
773.1000;0.7066;0.0280;
773.4000;0.7090;0.0373;
773.7000;0.7074;0.0397;
774.0000;0.7074;0.0420;
774.3000;0.7066;0.0467;
774.6000;0.7090;0.0443;
774.9000;0.7074;0.0420;
775.2000;0.7066;0.0443;
775.5000;0.7082;0.0420;
775.8000;0.7090;0.0490;
776.1000;0.7074;0.0490;
776.4000;0.7147;0.0677;
776.7000;0.7066;0.0467;
777.0000;0.7114;0.0513;
777.3000;0.7041;0.0327;
777.6000;0.7074;0.0443;
777.9000;0.7041;0.0467;
778.2000;0.7123;0.0724;
778.5000;0.7049;0.0513;
778.8000;0.7049;0.0513;
779.1000;0.7066;0.0584;
779.4000;0.7049;0.0537;
779.7000;0.7066;0.0513;
780.0000;0.7057;0.0513;
780.3000;0.7057;0.0420;
780.6000;0.7057;0.0420;
780.9000;0.7057;0.0420;
781.2000;0.7041;0.0373;
781.5000;0.7049;0.0397;
781.8000;0.7049;0.0443;
782.1000;0.7049;0.0443;
782.4000;0.7049;0.0420;
782.7000;0.7041;0.0397;
783.0000;0.7049;0.0537;
783.3000;0.7033;0.0490;
783.6000;0.7025;0.0443;
783.9000;0.7049;0.0560;
784.2000;0.7057;0.0560;
784.5000;0.7041;0.0490;
784.8000;0.7049;0.0537;
785.1000;0.7049;0.0513;
785.4000;0.7057;0.0513;
785.7000;0.7033;0.0490;
786.0000;0.7074;0.0607;
786.3000;0.6992;0.0443;
786.6000;0.7033;0.0537;
786.9000;0.7049;0.0560;
787.2000;0.7049;0.0420;
787.5000;0.7000;0.0327;
787.8000;0.7033;0.0443;
788.1000;0.7033;0.0443;
788.4000;0.7025;0.0373;
788.7000;0.7017;0.0350;
789.0000;0.7009;0.0257;
789.3000;0.7033;0.0350;
789.6000;0.7057;0.0420;
789.9000;0.7017;0.0350;
790.2000;0.7017;0.0350;
790.5000;0.7057;0.0513;
790.8000;0.7025;0.0397;
791.1000;0.7017;0.0373;
791.4000;0.7009;0.0350;
791.7000;0.7009;0.0233;
792.0000;0.7017;0.0257;
792.3000;0.6984;0.0117;
792.6000;0.7009;0.0163;
792.9000;0.7025;0.0210;
793.2000;0.7000;0.0117;
793.5000;0.6952;0.0093;
793.8000;0.6935;-0.0023;
794.1000;0.7000;0.0187;
794.4000;0.6952;0.0070;
794.7000;0.7009;0.0093;
795.0000;0.6992;0.0140;
795.3000;0.6992;0.0140;
795.6000;0.7017;0.0187;
795.9000;0.7000;0.0093;
796.2000;0.7017;0.0163;
796.5000;0.6976;0.0000;
796.8000;0.7057;0.0257;
797.1000;0.7009;0.0187;
797.4000;0.7025;0.0233;
797.7000;0.7009;0.0327;
798.0000;0.7041;0.0443;
798.3000;0.7000;0.0420;
798.6000;0.6992;0.0373;
798.9000;0.6992;0.0327;
799.2000;0.6992;0.0327;
799.5000;0.6992;0.0257;
799.8000;0.6984;0.0163;
800.1000;0.6943;0.0163;
800.4000;0.6984;0.0303;
800.7000;0.6992;0.0280;
801.0000;0.6992;0.0303;
801.3000;0.7025;0.0303;
801.6000;0.7041;0.0280;
801.9000;0.7000;0.0140;
802.2000;0.7057;0.0257;
802.5000;0.7025;0.0187;
802.8000;0.7025;0.0257;
803.1000;0.7041;0.0397;
803.4000;0.7000;0.0350;
803.7000;0.7000;0.0303;
804.0000;0.7017;0.0373;
804.3000;0.6984;0.0280;
804.6000;0.6952;0.0257;
804.9000;0.6984;0.0257;
805.2000;0.6960;0.0210;
805.5000;0.6984;0.0280;
805.8000;0.6960;0.0303;
806.1000;0.6968;0.0327;
806.4000;0.6968;0.0443;
806.7000;0.6992;0.0537;
807.0000;0.7000;0.0443;
807.3000;0.6976;0.0490;
807.6000;0.6960;0.0443;
807.9000;0.6911;0.0257;
808.2000;0.6976;0.0420;
808.5000;0.6984;0.0467;
808.8000;0.6992;0.0397;
809.1000;0.7017;0.0327;
809.4000;0.6976;0.0257;
809.7000;0.6976;0.0303;
810.0000;0.6968;0.0303;
810.3000;0.6952;0.0303;
810.6000;0.6968;0.0350;
810.9000;0.6992;0.0443;
811.2000;0.6895;0.0280;
811.5000;0.6903;0.0350;
811.8000;0.6968;0.0584;
812.1000;0.6960;0.0537;
812.4000;0.6984;0.0513;
812.7000;0.6960;0.0373;
813.0000;0.6960;0.0373;
813.3000;0.6960;0.0327;
813.6000;0.6984;0.0420;
813.9000;0.6968;0.0467;
814.2000;0.6960;0.0443;
814.5000;0.7057;0.0724;
814.8000;0.6960;0.0513;
815.1000;0.6968;0.0490;
815.4000;0.7017;0.0560;
815.7000;0.6968;0.0443;
816.0000;0.6976;0.0397;
816.3000;0.6968;0.0443;
816.6000;0.6943;0.0467;
816.9000;0.6943;0.0397;
817.2000;0.6952;0.0350;
817.5000;0.6960;0.0303;
817.8000;0.6960;0.0373;
818.1000;0.6968;0.0420;
818.4000;0.6960;0.0373;
818.7000;0.6960;0.0420;
819.0000;0.6960;0.0420;
819.3000;0.6960;0.0443;
819.6000;0.6919;0.0373;
819.9000;0.6952;0.0420;
820.2000;0.6952;0.0490;
820.5000;0.6960;0.0490;
820.8000;0.6943;0.0513;
821.1000;0.6952;0.0584;
821.4000;0.6952;0.0513;
821.7000;0.6943;0.0397;
822.0000;0.6952;0.0490;
822.3000;0.6895;0.0373;
822.6000;0.6968;0.0630;
822.9000;0.7009;0.0654;
823.2000;0.6935;0.0513;
823.5000;0.6919;0.0443;
823.8000;0.6935;0.0420;
824.1000;0.6968;0.0467;
824.4000;0.6960;0.0350;
824.7000;0.6952;0.0280;
825.0000;0.6919;0.0233;
825.3000;0.6952;0.0280;
825.6000;0.6952;0.0327;
825.9000;0.6943;0.0327;
826.2000;0.6919;0.0280;
826.5000;0.6878;0.0233;
826.8000;0.6960;0.0443;
827.1000;0.6927;0.0397;
827.4000;0.6919;0.0420;
827.7000;0.6935;0.0537;
828.0000;0.6976;0.0654;
828.3000;0.6952;0.0700;
828.6000;0.6927;0.0513;
828.9000;0.6943;0.0607;
829.2000;0.6919;0.0490;
829.5000;0.6919;0.0420;
829.8000;0.7017;0.0607;
830.1000;0.6943;0.0420;
830.4000;0.6935;0.0397;
830.7000;0.6935;0.0420;
831.0000;0.6927;0.0373;
831.3000;0.6862;0.0187;
831.6000;0.6919;0.0350;
831.9000;0.6903;0.0303;
832.2000;0.6911;0.0303;
832.5000;0.6911;0.0233;
832.8000;0.6911;0.0303;
833.1000;0.6927;0.0303;
833.4000;0.6846;0.0023;
833.7000;0.6927;0.0397;
834.0000;0.6935;0.0490;
834.3000;0.6919;0.0513;
834.6000;0.6911;0.0443;
834.9000;0.6927;0.0490;
835.2000;0.6927;0.0513;
835.5000;0.6943;0.0584;
835.8000;0.6919;0.0677;
836.1000;0.6935;0.0794;
836.4000;0.6911;0.0724;
836.7000;0.6911;0.0724;
837.0000;0.6903;0.0677;
837.3000;0.6911;0.0654;
837.6000;0.6903;0.0677;
837.9000;0.6903;0.0607;
838.2000;0.6919;0.0607;
838.5000;0.6976;0.0747;
838.8000;0.6919;0.0607;
839.1000;0.6919;0.0537;
839.4000;0.6935;0.0443;
839.7000;0.6911;0.0467;
840.0000;0.6919;0.0420;
840.3000;0.6919;0.0350;
840.6000;0.6854;0.0257;
840.9000;0.6927;0.0397;
841.2000;0.6886;0.0327;
841.5000;0.6895;0.0420;
841.8000;0.6903;0.0443;
842.1000;0.6903;0.0537;
842.4000;0.6895;0.0630;
842.7000;0.6903;0.0630;
843.0000;0.6886;0.0560;
843.3000;0.6903;0.0467;
843.6000;0.6903;0.0350;
843.9000;0.6911;0.0373;
844.2000;0.6935;0.0397;
844.5000;0.6919;0.0350;
844.8000;0.6903;0.0373;
845.1000;0.6927;0.0467;
845.4000;0.6886;0.0373;
845.7000;0.6911;0.0513;
846.0000;0.6895;0.0490;
846.3000;0.6895;0.0467;
846.6000;0.6903;0.0513;
846.9000;0.6911;0.0537;
847.2000;0.6911;0.0537;
847.5000;0.6886;0.0443;
847.8000;0.6903;0.0443;
848.1000;0.6854;0.0373;
848.4000;0.6870;0.0490;
848.7000;0.6903;0.0513;
849.0000;0.6895;0.0420;
849.3000;0.6886;0.0327;
849.6000;0.6911;0.0443;
849.9000;0.6919;0.0490;
850.2000;0.6895;0.0513;
850.5000;0.6878;0.0560;
850.8000;0.6895;0.0584;
851.1000;0.6903;0.0584;
851.4000;0.6903;0.0490;
851.7000;0.6911;0.0467;
852.0000;0.6919;0.0584;
852.3000;0.6886;0.0560;
852.6000;0.6886;0.0584;
852.9000;0.6870;0.0537;
853.2000;0.6903;0.0584;
853.5000;0.6870;0.0513;
853.8000;0.6878;0.0584;
854.1000;0.6895;0.0607;
854.4000;0.6895;0.0584;
854.7000;0.6886;0.0513;
855.0000;0.6870;0.0443;
855.3000;0.6870;0.0397;
855.6000;0.6878;0.0490;
855.9000;0.6870;0.0490;
856.2000;0.6878;0.0513;
856.5000;0.6895;0.0584;
856.8000;0.6886;0.0537;
857.1000;0.6854;0.0537;
857.4000;0.6886;0.0607;
857.7000;0.6878;0.0513;
858.0000;0.6919;0.0537;
858.3000;0.6870;0.0443;
858.6000;0.6862;0.0467;
858.9000;0.6870;0.0513;
859.2000;0.6903;0.0584;
859.5000;0.6878;0.0584;
859.8000;0.6886;0.0630;
860.1000;0.6895;0.0654;
860.4000;0.6886;0.0607;
860.7000;0.6862;0.0584;
861.0000;0.6862;0.0607;
861.3000;0.6878;0.0654;
861.6000;0.6886;0.0794;
861.9000;0.6878;0.0817;
862.2000;0.6870;0.0747;
862.5000;0.6862;0.0654;
862.8000;0.6878;0.0584;
863.1000;0.6960;0.0794;
863.4000;0.6870;0.0513;
863.7000;0.6821;0.0327;
864.0000;0.6878;0.0490;
864.3000;0.6862;0.0560;
864.6000;0.6862;0.0630;
864.9000;0.6829;0.0560;
865.2000;0.6870;0.0677;
865.5000;0.6854;0.0677;
865.8000;0.6870;0.0770;
866.1000;0.6870;0.0794;
866.4000;0.6862;0.0887;
866.7000;0.6895;0.0934;
867.0000;0.6870;0.0864;
867.3000;0.6895;0.0910;
867.6000;0.6878;0.0817;
867.9000;0.6870;0.0747;
868.2000;0.6838;0.0747;
868.5000;0.6862;0.0724;
868.8000;0.6878;0.0864;
869.1000;0.6870;0.0840;
869.4000;0.6862;0.0910;
869.7000;0.6870;0.0840;
870.0000;0.6854;0.0794;
870.3000;0.6854;0.0770;
870.6000;0.6862;0.0770;
870.9000;0.6854;0.0724;
871.2000;0.6838;0.0817;
871.5000;0.6870;0.0910;
871.8000;0.6870;0.0910;
872.1000;0.6854;0.0840;
872.4000;0.6870;0.0840;
872.7000;0.6854;0.0887;
873.0000;0.6862;0.0910;
873.3000;0.6862;0.0934;
873.6000;0.6870;0.0957;
873.9000;0.6854;0.0980;
874.2000;0.6862;0.0910;
874.5000;0.6854;0.0910;
874.8000;0.6846;0.0980;
875.1000;0.6846;0.0934;
875.4000;0.6870;0.0957;
875.7000;0.6846;0.0864;
876.0000;0.6862;0.0910;
876.3000;0.6846;0.0887;
876.6000;0.6862;0.0840;
876.9000;0.6862;0.0887;
877.2000;0.6895;0.0887;
877.5000;0.6846;0.0747;
877.8000;0.6862;0.0817;
878.1000;0.6854;0.0794;
878.4000;0.6838;0.0747;
878.7000;0.6838;0.0794;
879.0000;0.6854;0.0794;
879.3000;0.6870;0.0887;
879.6000;0.6846;0.0817;
879.9000;0.6846;0.0817;
880.2000;0.6772;0.0724;
880.5000;0.6846;0.0840;
880.8000;0.6870;0.0864;
881.1000;0.6846;0.0747;
881.4000;0.6838;0.0724;
881.7000;0.6854;0.0887;
882.0000;0.6854;0.0817;
882.3000;0.6878;0.0794;
882.6000;0.6838;0.0747;
882.9000;0.6846;0.0817;
883.2000;0.6854;0.0817;
883.5000;0.6838;0.0817;
883.8000;0.6838;0.0794;
884.1000;0.6846;0.0864;
884.4000;0.6838;0.0887;
884.7000;0.6813;0.0887;
885.0000;0.6838;0.0957;
885.3000;0.6829;0.0934;
885.6000;0.6846;0.0887;
885.9000;0.6821;0.0887;
886.2000;0.6838;0.0980;
886.5000;0.6829;0.1027;
886.8000;0.6854;0.1027;
887.1000;0.6838;0.0957;
887.4000;0.6821;0.0887;
887.7000;0.6764;0.0630;
888.0000;0.6854;0.0770;
888.3000;0.6838;0.0817;
888.6000;0.6846;0.0794;
888.9000;0.6821;0.0747;
889.2000;0.6829;0.0770;
889.5000;0.6846;0.0840;
889.8000;0.6870;0.0864;
890.1000;0.6829;0.0747;
890.4000;0.6846;0.0770;
890.7000;0.6838;0.0677;
891.0000;0.6829;0.0817;
891.3000;0.6821;0.0887;
891.6000;0.6821;0.0934;
891.9000;0.6829;0.0957;
892.2000;0.6829;0.0910;
892.5000;0.6846;0.1027;
892.8000;0.6846;0.1027;
893.1000;0.6829;0.0980;
893.4000;0.6838;0.0934;
893.7000;0.6821;0.0934;
894.0000;0.6829;0.0887;
894.3000;0.6813;0.0817;
894.6000;0.6895;0.0957;
894.9000;0.6870;0.0817;
895.2000;0.6813;0.0770;
895.5000;0.6846;0.0747;
895.8000;0.6846;0.0700;
896.1000;0.6838;0.0654;
896.4000;0.6838;0.0630;
896.7000;0.6829;0.0677;
897.0000;0.6821;0.0677;
897.3000;0.6821;0.0747;
897.6000;0.6846;0.0747;
897.9000;0.6829;0.0747;
898.2000;0.6829;0.0724;
898.5000;0.6838;0.0630;
898.8000;0.6829;0.0654;
899.1000;0.6829;0.0630;
899.4000;0.6829;0.0607;
899.7000;0.6846;0.0584;
900.0000;0.6764;0.0443;
900.3000;0.6805;0.0537;
900.6000;0.6821;0.0630;
900.9000;0.6813;0.0560;
901.2000;0.6805;0.0654;
901.5000;0.6813;0.0700;
901.8000;0.6813;0.0654;
902.1000;0.6813;0.0700;
902.4000;0.6854;0.0817;
902.7000;0.6813;0.0817;
903.0000;0.6813;0.0747;
903.3000;0.6821;0.0700;
903.6000;0.6821;0.0700;
903.9000;0.6821;0.0724;
904.2000;0.6772;0.0607;
904.5000;0.6829;0.0677;
904.8000;0.6829;0.0630;
905.1000;0.6829;0.0630;
905.4000;0.6821;0.0630;
905.7000;0.6821;0.0607;
906.0000;0.6838;0.0700;
906.3000;0.6838;0.0817;
906.6000;0.6829;0.0817;
906.9000;0.6829;0.0747;
907.2000;0.6821;0.0677;
907.5000;0.6838;0.0770;
907.8000;0.6829;0.0794;
908.1000;0.6813;0.0840;
908.4000;0.6838;0.0957;
908.7000;0.6829;0.0934;
909.0000;0.6829;0.1027;
909.3000;0.6781;0.0887;
909.6000;0.6813;0.1050;
909.9000;0.6813;0.1050;
910.2000;0.6813;0.1074;
910.5000;0.6789;0.0980;
910.8000;0.6748;0.0840;
911.1000;0.6805;0.0887;
911.4000;0.6813;0.0817;
911.7000;0.6805;0.0747;
912.0000;0.6805;0.0794;
912.3000;0.6797;0.0770;
912.6000;0.6813;0.0770;
912.9000;0.6813;0.0770;
913.2000;0.6813;0.0817;
913.5000;0.6789;0.0840;
913.8000;0.6813;0.0817;
914.1000;0.6813;0.0910;
914.4000;0.6829;0.0864;
914.7000;0.6789;0.0840;
915.0000;0.6797;0.0840;
915.3000;0.6797;0.0887;
915.6000;0.6813;0.0887;
915.9000;0.6797;0.0794;
916.2000;0.6805;0.0770;
916.5000;0.6805;0.0700;
916.8000;0.6813;0.0677;
917.1000;0.6829;0.0747;
917.4000;0.6789;0.0630;
917.7000;0.6813;0.0677;
918.0000;0.6821;0.0747;
918.3000;0.6813;0.0724;
918.6000;0.6805;0.0747;
918.9000;0.6829;0.0910;
919.2000;0.6813;0.0864;
919.5000;0.6821;0.0794;
919.8000;0.6797;0.0700;
920.1000;0.6781;0.0607;
920.4000;0.6821;0.0607;
920.7000;0.6805;0.0584;
921.0000;0.6797;0.0607;
921.3000;0.6789;0.0607;
921.6000;0.6789;0.0700;
921.9000;0.6797;0.0817;
922.2000;0.6789;0.0817;
922.5000;0.6797;0.0817;
922.8000;0.6772;0.0584;
923.1000;0.6781;0.0700;
923.4000;0.6797;0.0700;
923.7000;0.6789;0.0770;
924.0000;0.6781;0.0747;
924.3000;0.6870;0.0957;
924.6000;0.6797;0.0724;
924.9000;0.6789;0.0724;
925.2000;0.6805;0.0794;
925.5000;0.6781;0.0700;
925.8000;0.6789;0.0724;
926.1000;0.6789;0.0794;
926.4000;0.6805;0.0770;
926.7000;0.6813;0.0840;
927.0000;0.6805;0.0794;
927.3000;0.6772;0.0747;
927.6000;0.6797;0.0677;
927.9000;0.6772;0.0584;
928.2000;0.6748;0.0630;
928.5000;0.6797;0.0864;
928.8000;0.6781;0.0934;
929.1000;0.6789;0.0910;
929.4000;0.6797;0.0864;
929.7000;0.6813;0.0910;
930.0000;0.6797;0.0934;
930.3000;0.6821;0.1050;
930.6000;0.6813;0.1004;
930.9000;0.6813;0.0980;
931.2000;0.6797;0.0887;
931.5000;0.6772;0.0864;
931.8000;0.6805;0.0957;
932.1000;0.6772;0.0864;
932.4000;0.6789;0.0840;
932.7000;0.6781;0.0910;
933.0000;0.6789;0.0980;
933.3000;0.6781;0.1050;
933.6000;0.6781;0.1097;
933.9000;0.6789;0.1027;
934.2000;0.6789;0.1050;
934.5000;0.6789;0.1074;
934.8000;0.6797;0.1027;
935.1000;0.6781;0.1097;
935.4000;0.6805;0.1097;
935.7000;0.6797;0.1027;
936.0000;0.6797;0.1027;
936.3000;0.6789;0.1097;
936.6000;0.6797;0.1004;
936.9000;0.6797;0.1027;
937.2000;0.6813;0.1050;
937.5000;0.6781;0.0957;
937.8000;0.6781;0.0934;
938.1000;0.6838;0.1050;
938.4000;0.6781;0.0864;
938.7000;0.6764;0.0700;
939.0000;0.6797;0.0724;
939.3000;0.6789;0.0817;
939.6000;0.6772;0.0840;
939.9000;0.6789;0.0934;
940.2000;0.6781;0.1004;
940.5000;0.6862;0.1260;
940.8000;0.6764;0.1004;
941.1000;0.6772;0.0934;
941.4000;0.6781;0.0887;
941.7000;0.6781;0.0840;
942.0000;0.6797;0.0910;
942.3000;0.6805;0.0957;
942.6000;0.6756;0.0840;
942.9000;0.6781;0.0840;
943.2000;0.6772;0.0840;
943.5000;0.6772;0.0770;
943.8000;0.6781;0.0770;
944.1000;0.6781;0.0724;
944.4000;0.6764;0.0794;
944.7000;0.6789;0.0840;
945.0000;0.6805;0.1004;
945.3000;0.6805;0.1027;
945.6000;0.6789;0.0934;
945.9000;0.6813;0.0980;
946.2000;0.6781;0.1027;
946.5000;0.6781;0.1027;
946.8000;0.6772;0.0957;
947.1000;0.6781;0.0980;
947.4000;0.6764;0.0957;
947.7000;0.6781;0.0910;
948.0000;0.6764;0.0794;
948.3000;0.6772;0.0724;
948.6000;0.6764;0.0700;
948.9000;0.6789;0.0817;
949.2000;0.6805;0.0910;
949.5000;0.6805;0.0957;
949.8000;0.6789;0.0887;
950.1000;0.6797;0.0864;
950.4000;0.6772;0.0840;
950.7000;0.6772;0.0887;
951.0000;0.6781;0.0957;
951.3000;0.6789;0.1004;
951.6000;0.6772;0.0957;
951.9000;0.6756;0.0910;
952.2000;0.6772;0.0980;
952.5000;0.6781;0.1004;
952.8000;0.6781;0.0980;
953.1000;0.6789;0.0980;
953.4000;0.6764;0.0934;
953.7000;0.6781;0.0934;
954.0000;0.6772;0.0887;
954.3000;0.6781;0.0910;
954.6000;0.6764;0.0794;
954.9000;0.6781;0.0794;
955.2000;0.6772;0.0677;
955.5000;0.6764;0.0677;
955.8000;0.6772;0.0700;
956.1000;0.6748;0.0677;
956.4000;0.6772;0.0747;
956.7000;0.6813;0.0887;
957.0000;0.6772;0.0840;
957.3000;0.6772;0.0817;
957.6000;0.6772;0.0770;
957.9000;0.6781;0.0794;
958.2000;0.6699;0.0654;
958.5000;0.6789;0.0840;
958.8000;0.6772;0.0840;
959.1000;0.6805;0.0887;
959.4000;0.6797;0.0910;
959.7000;0.6764;0.0817;
960.0000;0.6797;0.0840;
960.3000;0.6756;0.0747;
960.6000;0.6764;0.0864;
960.9000;0.6756;0.0840;
961.2000;0.6781;0.0817;
961.5000;0.6781;0.0747;
961.8000;0.6772;0.0747;
962.1000;0.6724;0.0677;
962.4000;0.6789;0.0817;
962.7000;0.6764;0.0794;
963.0000;0.6772;0.0770;
963.3000;0.6772;0.0770;
963.6000;0.6764;0.0817;
963.9000;0.6772;0.0864;
964.2000;0.6707;0.0700;
964.5000;0.6748;0.0887;
964.8000;0.6748;0.0887;
965.1000;0.6764;0.0864;
965.4000;0.6813;0.0980;
965.7000;0.6805;0.1004;
966.0000;0.6756;0.0910;
966.3000;0.6756;0.0910;
966.6000;0.6764;0.0934;
966.9000;0.6756;0.0980;
967.2000;0.6772;0.0980;
967.5000;0.6781;0.0957;
967.8000;0.6756;0.0934;
968.1000;0.6772;0.1004;
968.4000;0.6781;0.0934;
968.7000;0.6772;0.0980;
969.0000;0.6756;0.0957;
969.3000;0.6748;0.0864;
969.6000;0.6748;0.0910;
969.9000;0.6756;0.0770;
970.2000;0.6756;0.0747;
970.5000;0.6756;0.0747;
970.8000;0.6764;0.0654;
971.1000;0.6740;0.0700;
971.4000;0.6756;0.0677;
971.7000;0.6756;0.0654;
972.0000;0.6772;0.0770;
972.3000;0.6740;0.0747;
972.6000;0.6756;0.0817;
972.9000;0.6772;0.0910;
973.2000;0.6781;0.0864;
973.5000;0.6764;0.0817;
973.8000;0.6764;0.0817;
974.1000;0.6772;0.0794;
974.4000;0.6764;0.0794;
974.7000;0.6772;0.0817;
975.0000;0.6756;0.0840;
975.3000;0.6756;0.0817;
975.6000;0.6756;0.0794;
975.9000;0.6764;0.0770;
976.2000;0.6772;0.0817;
976.5000;0.6846;0.0980;
976.8000;0.6764;0.0770;
977.1000;0.6781;0.0864;
977.4000;0.6764;0.0840;
977.7000;0.6740;0.0794;
978.0000;0.6756;0.0840;
978.3000;0.6764;0.0864;
978.6000;0.6764;0.0724;
978.9000;0.6756;0.0794;
979.2000;0.6740;0.0817;
979.5000;0.6772;0.0817;
979.8000;0.6789;0.0747;
980.1000;0.6740;0.0654;
980.4000;0.6748;0.0747;
980.7000;0.6707;0.0630;
981.0000;0.6764;0.0817;
981.3000;0.6748;0.0864;
981.6000;0.6740;0.0910;
981.9000;0.6748;0.0957;
982.2000;0.6764;0.0910;
982.5000;0.6764;0.0957;
982.8000;0.6756;0.0910;
983.1000;0.6756;0.0957;
983.4000;0.6756;0.0934;
983.7000;0.6748;0.0934;
984.0000;0.6748;0.0957;
984.3000;0.6764;0.0840;
984.6000;0.6756;0.0817;
984.9000;0.6781;0.0910;
985.2000;0.6724;0.0864;
985.5000;0.6740;0.0864;
985.8000;0.6764;0.0910;
986.1000;0.6740;0.0840;
986.4000;0.6667;0.0724;
986.7000;0.6699;0.0817;
987.0000;0.6732;0.0910;
987.3000;0.6740;0.0934;
987.6000;0.6748;0.0957;
987.9000;0.6756;0.0980;
988.2000;0.6756;0.0934;
988.5000;0.6707;0.0864;
988.8000;0.6748;0.0934;
989.1000;0.6740;0.0934;
989.4000;0.6740;0.0864;
989.7000;0.6748;0.0910;
990.0000;0.6756;0.0887;
990.3000;0.6756;0.0864;
990.6000;0.6740;0.0770;
990.9000;0.6748;0.0724;
991.2000;0.6748;0.0677;
991.5000;0.6740;0.0630;
991.8000;0.6748;0.0654;
992.1000;0.6748;0.0724;
992.4000;0.6748;0.0700;
992.7000;0.6756;0.0747;
993.0000;0.6732;0.0747;
993.3000;0.6764;0.0794;
993.6000;0.6740;0.0794;
993.9000;0.6748;0.0794;
994.2000;0.6748;0.0770;
994.5000;0.6732;0.0724;
994.8000;0.6748;0.0817;
995.1000;0.6756;0.0864;
995.4000;0.6764;0.0864;
995.7000;0.6740;0.0840;
996.0000;0.6748;0.0864;
996.3000;0.6740;0.0794;
996.6000;0.6789;0.0817;
996.9000;0.6748;0.0700;
997.2000;0.6748;0.0654;
997.5000;0.6756;0.0724;
997.8000;0.6748;0.0794;
998.1000;0.6740;0.0747;
998.4000;0.6740;0.0840;
998.7000;0.6740;0.0840;
999.0000;0.6756;0.0934;
999.3000;0.6756;0.0887;
999.6000;0.6748;0.0887;
999.9000;0.6756;0.1050;
1000.2000;0.6748;0.1027;
1000.5000;0.6781;0.1097;
1000.8000;0.6724;0.0980;
1001.1000;0.6732;0.1004;
1001.4000;0.6740;0.1004;
1001.7000;0.6764;0.1074;
1002.0000;0.6732;0.1027;
1002.3000;0.6716;0.1004;
1002.6000;0.6748;0.1050;
1002.9000;0.6740;0.1074;
1003.2000;0.6732;0.1144;
1003.5000;0.6756;0.1167;
1003.8000;0.6740;0.1050;
1004.1000;0.6756;0.1074;
1004.4000;0.6740;0.1027;
1004.7000;0.6732;0.0980;
1005.0000;0.6724;0.1004;
1005.3000;0.6740;0.1050;
1005.6000;0.6740;0.1050;
1005.9000;0.6716;0.1027;
1006.2000;0.6716;0.0980;
1006.5000;0.6781;0.1004;
1006.8000;0.6691;0.0817;
1007.1000;0.6740;0.0910;
1007.4000;0.6732;0.0864;
1007.7000;0.6740;0.0934;
1008.0000;0.6756;0.0934;
1008.3000;0.6732;0.0910;
1008.6000;0.6724;0.0910;
1008.9000;0.6740;0.0864;
1009.2000;0.6813;0.1027;
1009.5000;0.6732;0.0864;
1009.8000;0.6707;0.0980;
1010.1000;0.6732;0.1027;
1010.4000;0.6740;0.1074;
1010.7000;0.6724;0.1074;
1011.0000;0.6716;0.0980;
1011.3000;0.6740;0.1004;
1011.6000;0.6724;0.0910;
1011.9000;0.6748;0.0887;
1012.2000;0.6756;0.0910;
1012.5000;0.6732;0.0817;
1012.8000;0.6732;0.0887;
1013.1000;0.6748;0.0864;
1013.4000;0.6724;0.0817;
1013.7000;0.6732;0.0887;
1014.0000;0.6732;0.0864;
1014.3000;0.6724;0.0887;
1014.6000;0.6724;0.0840;
1014.9000;0.6732;0.0864;
1015.2000;0.6716;0.0864;
1015.5000;0.6716;0.0910;
1015.8000;0.6732;0.0887;
1016.1000;0.6732;0.0957;
1016.4000;0.6732;0.0887;
1016.7000;0.6740;0.0934;
1017.0000;0.6781;0.1050;
1017.3000;0.6732;0.0957;
1017.6000;0.6748;0.0864;
1017.9000;0.6667;0.0677;
1018.2000;0.6740;0.0794;
1018.5000;0.6748;0.0817;
1018.8000;0.6732;0.0817;
1019.1000;0.6748;0.0910;
1019.4000;0.6764;0.0864;
1019.7000;0.6716;0.0794;
1020.0000;0.6732;0.0864;
1020.3000;0.6781;0.1027;
1020.6000;0.6748;0.0980;
1020.9000;0.6740;0.0980;
1021.2000;0.6748;0.0910;
1021.5000;0.6732;0.0980;
1021.8000;0.6740;0.1027;
1022.1000;0.6764;0.1027;
1022.4000;0.6748;0.1074;
1022.7000;0.6724;0.1050;
1023.0000;0.6740;0.1004;
1023.3000;0.6707;0.0910;
1023.6000;0.6732;0.1004;
1023.9000;0.6724;0.1004;
1024.2000;0.6740;0.1004;
1024.5000;0.6732;0.1050;
1024.8000;0.6716;0.1004;
1025.1000;0.6716;0.1004;
1025.4000;0.6764;0.1027;
1025.7000;0.6732;0.0957;
1026.0000;0.6740;0.1027;
1026.3000;0.6683;0.0980;
1026.6000;0.6732;0.1050;
1026.9000;0.6756;0.1144;
1027.2000;0.6740;0.1097;
1027.5000;0.6740;0.1120;
1027.8000;0.6748;0.1074;
1028.1000;0.6724;0.1074;
1028.4000;0.6659;0.0887;
1028.7000;0.6748;0.1004;
1029.0000;0.6772;0.1050;
1029.3000;0.6691;0.0864;
1029.6000;0.6716;0.0910;
1029.9000;0.6805;0.1097;
1030.2000;0.6740;0.0934;
1030.5000;0.6707;0.0794;
1030.8000;0.6732;0.0840;
1031.1000;0.6740;0.0840;
1031.4000;0.6764;0.0934;
1031.7000;0.6716;0.0864;
1032.0000;0.6724;0.0864;
1032.3000;0.6740;0.0840;
1032.6000;0.6740;0.0910;
1032.9000;0.6707;0.0794;
1033.2000;0.6781;0.0864;
1033.5000;0.6740;0.0794;
1033.8000;0.6724;0.0724;
1034.1000;0.6748;0.0864;
1034.4000;0.6740;0.0887;
1034.7000;0.6772;0.1050;
1035.0000;0.6724;0.1004;
1035.3000;0.6748;0.1074;
1035.6000;0.6716;0.0934;
1035.9000;0.6789;0.1074;
1036.2000;0.6707;0.0934;
1036.5000;0.6789;0.1074;
1036.8000;0.6691;0.0817;
1037.1000;0.6699;0.0840;
1037.4000;0.6691;0.0794;
1037.7000;0.6724;0.0794;
1038.0000;0.6716;0.0794;
1038.3000;0.6707;0.0794;
1038.6000;0.6724;0.0747;
1038.9000;0.6675;0.0747;
1039.2000;0.6699;0.0770;
1039.5000;0.6707;0.0864;
1039.8000;0.6699;0.0934;
1040.1000;0.6707;0.0957;
1040.4000;0.6716;0.1004;
1040.7000;0.6716;0.0934;
1041.0000;0.6659;0.0770;
1041.3000;0.6691;0.0794;
1041.6000;0.6740;0.0910;
1041.9000;0.6724;0.0840;
1042.2000;0.6724;0.0910;
1042.5000;0.6740;0.0957;
1042.8000;0.6732;0.0980;
1043.1000;0.6724;0.0910;
1043.4000;0.6724;0.0887;
1043.7000;0.6724;0.0864;
1044.0000;0.6716;0.0770;
1044.3000;0.6716;0.0770;
1044.6000;0.6716;0.0817;
1044.9000;0.6707;0.0817;
1045.2000;0.6716;0.0864;
1045.5000;0.6732;0.0887;
1045.8000;0.6707;0.0794;
1046.1000;0.6732;0.0794;
1046.4000;0.6740;0.0840;
1046.7000;0.6716;0.0817;
1047.0000;0.6716;0.0770;
1047.3000;0.6797;0.1027;
1047.6000;0.6724;0.0724;
1047.9000;0.6732;0.0700;
1048.2000;0.6724;0.0700;
1048.5000;0.6724;0.0584;
1048.8000;0.6724;0.0560;
1049.1000;0.6732;0.0560;
1049.4000;0.6724;0.0513;
1049.7000;0.6716;0.0584;
1050.0000;0.6732;0.0747;
1050.3000;0.6683;0.0724;
1050.6000;0.6707;0.0817;
1050.9000;0.6740;0.0910;
1051.2000;0.6699;0.0794;
1051.5000;0.6716;0.0840;
1051.8000;0.6716;0.0794;
1052.1000;0.6716;0.0817;
1052.4000;0.6707;0.0747;
1052.7000;0.6716;0.0770;
1053.0000;0.6707;0.0794;
1053.3000;0.6732;0.0817;
1053.6000;0.6716;0.0840;
1053.9000;0.6716;0.0770;
1054.2000;0.6724;0.0700;
1054.5000;0.6724;0.0747;
1054.8000;0.6716;0.0817;
1055.1000;0.6716;0.0724;
1055.4000;0.6724;0.0630;
1055.7000;0.6716;0.0654;
1056.0000;0.6716;0.0700;
1056.3000;0.6724;0.0654;
1056.6000;0.6716;0.0630;
1056.9000;0.6716;0.0677;
1057.2000;0.6716;0.0677;
1057.5000;0.6707;0.0724;
1057.8000;0.6691;0.0654;
1058.1000;0.6707;0.0770;
1058.4000;0.6724;0.0817;
1058.7000;0.6716;0.0794;
1059.0000;0.6707;0.0724;
1059.3000;0.6716;0.0654;
1059.6000;0.6716;0.0654;
1059.9000;0.6707;0.0630;
1060.2000;0.6707;0.0654;
1060.5000;0.6716;0.0700;
1060.8000;0.6716;0.0794;
1061.1000;0.6716;0.0840;
1061.4000;0.6716;0.0817;
1061.7000;0.6699;0.0770;
1062.0000;0.6699;0.0794;
1062.3000;0.6716;0.0910;
1062.6000;0.6699;0.0840;
1062.9000;0.6699;0.0840;
1063.2000;0.6707;0.0887;
1063.5000;0.6732;0.0817;
1063.8000;0.6675;0.0770;
1064.1000;0.6699;0.0770;
1064.4000;0.6740;0.0840;
1064.7000;0.6716;0.0770;
1065.0000;0.6675;0.0747;
1065.3000;0.6675;0.0700;
1065.6000;0.6691;0.0794;
1065.9000;0.6691;0.0770;
1066.2000;0.6707;0.0864;
1066.5000;0.6675;0.0887;
1066.8000;0.6699;0.0934;
1067.1000;0.6699;0.0934;
1067.4000;0.6724;0.0864;
1067.7000;0.6699;0.0770;
1068.0000;0.6699;0.0770;
1068.3000;0.6707;0.0770;
1068.6000;0.6683;0.0724;
1068.9000;0.6675;0.0747;
1069.2000;0.6699;0.0794;
1069.5000;0.6699;0.0794;
1069.8000;0.6699;0.0840;
1070.1000;0.6716;0.0887;
1070.4000;0.6732;0.0980;
1070.7000;0.6716;0.0957;
1071.0000;0.6707;0.1050;
1071.3000;0.6732;0.1167;
1071.6000;0.6707;0.1167;
1071.9000;0.6691;0.1050;
1072.2000;0.6716;0.0980;
1072.5000;0.6707;0.0934;
1072.8000;0.6732;0.1050;
1073.1000;0.6699;0.0980;
1073.4000;0.6716;0.1004;
1073.7000;0.6781;0.1144;
1074.0000;0.6683;0.0910;
1074.3000;0.6716;0.1027;
1074.6000;0.6724;0.1074;
1074.9000;0.6707;0.1074;
1075.2000;0.6707;0.1027;
1075.5000;0.6707;0.1004;
1075.8000;0.6707;0.1004;
1076.1000;0.6707;0.1074;
1076.4000;0.6716;0.1097;
1076.7000;0.6716;0.1074;
1077.0000;0.6691;0.0934;
1077.3000;0.6707;0.1004;
1077.6000;0.6716;0.1027;
1077.9000;0.6716;0.1004;
1078.2000;0.6716;0.1004;
1078.5000;0.6699;0.0957;
1078.8000;0.6707;0.0957;
1079.1000;0.6691;0.0934;
1079.4000;0.6699;0.0910;
1079.7000;0.6732;0.1004;
1080.0000;0.6781;0.1144;
1080.3000;0.6699;0.0840;
1080.6000;0.6716;0.0817;
1080.9000;0.6699;0.0794;
1081.2000;0.6675;0.0887;
1081.5000;0.6716;0.0980;
1081.8000;0.6716;0.1004;
1082.1000;0.6691;0.0980;
1082.4000;0.6699;0.0934;
1082.7000;0.6707;0.0934;
1083.0000;0.6642;0.0794;
1083.3000;0.6683;0.0910;
1083.6000;0.6699;0.1027;
1083.9000;0.6707;0.1144;
1084.2000;0.6691;0.1144;
1084.5000;0.6691;0.1120;
1084.8000;0.6707;0.1074;
1085.1000;0.6716;0.1074;
1085.4000;0.6691;0.0980;
1085.7000;0.6707;0.1004;
1086.0000;0.6707;0.1004;
1086.3000;0.6691;0.1004;
1086.6000;0.6707;0.1050;
1086.9000;0.6772;0.1260;
1087.2000;0.6642;0.1004;
1087.5000;0.6691;0.1050;
1087.8000;0.6699;0.0957;
1088.1000;0.6691;0.0980;
1088.4000;0.6667;0.0957;
1088.7000;0.6699;0.0980;
1089.0000;0.6650;0.0887;
1089.3000;0.6683;0.1050;
1089.6000;0.6691;0.1074;
1089.9000;0.6675;0.1074;
1090.2000;0.6707;0.1027;
1090.5000;0.6691;0.0957;
1090.8000;0.6691;0.0957;
1091.1000;0.6707;0.0934;
1091.4000;0.6699;0.0910;
1091.7000;0.6707;0.0934;
1092.0000;0.6699;0.0934;
1092.3000;0.6699;0.0980;
1092.6000;0.6707;0.0980;
1092.9000;0.6707;0.1027;
1093.2000;0.6707;0.1074;
1093.5000;0.6699;0.1074;
1093.8000;0.6699;0.1074;
1094.1000;0.6716;0.1097;
1094.4000;0.6675;0.1027;
1094.7000;0.6691;0.1004;
1095.0000;0.6699;0.1050;
1095.3000;0.6707;0.0980;
1095.6000;0.6683;0.1004;
1095.9000;0.6699;0.0957;
1096.2000;0.6707;0.0910;
1096.5000;0.6699;0.0934;
1096.8000;0.6707;0.0980;
1097.1000;0.6707;0.0910;
1097.4000;0.6691;0.0840;
1097.7000;0.6699;0.0840;
1098.0000;0.6724;0.0864;
1098.3000;0.6683;0.0724;
1098.6000;0.6707;0.0677;
1098.9000;0.6699;0.0654;
1099.2000;0.6699;0.0700;
1099.5000;0.6707;0.0700;
1099.8000;0.6659;0.0630;
1100.1000;0.6699;0.0700;
1100.4000;0.6724;0.0747;
1100.7000;0.6683;0.0607;
1101.0000;0.6732;0.0724;
1101.3000;0.6691;0.0677;
1101.6000;0.6699;0.0770;
1101.9000;0.6675;0.0817;
1102.2000;0.6691;0.0934;
1102.5000;0.6691;0.0980;
1102.8000;0.6683;0.0934;
1103.1000;0.6667;0.0887;
1103.4000;0.6667;0.0887;
1103.7000;0.6699;0.0980;
1104.0000;0.6691;0.0934;
1104.3000;0.6683;0.0887;
1104.6000;0.6675;0.0864;
1104.9000;0.6683;0.0864;
1105.2000;0.6691;0.0794;
1105.5000;0.6691;0.0840;
1105.8000;0.6691;0.0840;
1106.1000;0.6683;0.0887;
1106.4000;0.6691;0.0887;
1106.7000;0.6691;0.0887;
1107.0000;0.6659;0.0817;
1107.3000;0.6683;0.0817;
1107.6000;0.6699;0.0794;
1107.9000;0.6691;0.0817;
1108.2000;0.6691;0.0817;
1108.5000;0.6699;0.0840;
1108.8000;0.6691;0.0840;
1109.1000;0.6675;0.0817;
1109.4000;0.6683;0.0817;
1109.7000;0.6707;0.0770;
1110.0000;0.6707;0.0724;
1110.3000;0.6699;0.0747;
1110.6000;0.6683;0.0654;
1110.9000;0.6699;0.0630;
1111.2000;0.6716;0.0654;
1111.5000;0.6683;0.0607;
1111.8000;0.6699;0.0537;
1112.1000;0.6707;0.0607;
1112.4000;0.6707;0.0630;
1112.7000;0.6716;0.0747;
1113.0000;0.6699;0.0747;
1113.3000;0.6699;0.0654;
1113.6000;0.6683;0.0677;
1113.9000;0.6699;0.0677;
1114.2000;0.6683;0.0630;
1114.5000;0.6716;0.0700;
1114.8000;0.6683;0.0770;
1115.1000;0.6675;0.0770;
1115.4000;0.6691;0.0864;
1115.7000;0.6691;0.0864;
1116.0000;0.6691;0.0840;
1116.3000;0.6691;0.0910;
1116.6000;0.6691;0.0934;
1116.9000;0.6691;0.0887;
1117.2000;0.6691;0.0817;
1117.5000;0.6691;0.0794;
1117.8000;0.6675;0.0724;
1118.1000;0.6667;0.0607;
1118.4000;0.6683;0.0584;
1118.7000;0.6707;0.0654;
1119.0000;0.6650;0.0513;
1119.3000;0.6675;0.0607;
1119.6000;0.6699;0.0607;
1119.9000;0.6659;0.0513;
1120.2000;0.6675;0.0630;
1120.5000;0.6699;0.0770;
1120.8000;0.6675;0.0724;
1121.1000;0.6691;0.0794;
1121.4000;0.6691;0.0770;
1121.7000;0.6667;0.0677;
1122.0000;0.6667;0.0700;
1122.3000;0.6683;0.0794;
1122.6000;0.6724;0.0910;
1122.9000;0.6683;0.0794;
1123.2000;0.6699;0.0654;
1123.5000;0.6675;0.0607;
1123.8000;0.6659;0.0467;
1124.1000;0.6707;0.0513;
1124.4000;0.6675;0.0420;
1124.7000;0.6659;0.0443;
1125.0000;0.6675;0.0560;
1125.3000;0.6683;0.0654;
1125.6000;0.6626;0.0537;
1125.9000;0.6667;0.0654;
1126.2000;0.6650;0.0584;
1126.5000;0.6716;0.0747;
1126.8000;0.6634;0.0490;
1127.1000;0.6691;0.0677;
1127.4000;0.6707;0.0770;
1127.7000;0.6683;0.0794;
1128.0000;0.6667;0.0770;
1128.3000;0.6699;0.0817;
1128.6000;0.6691;0.0864;
1128.9000;0.6699;0.0910;
1129.2000;0.6667;0.0887;
1129.5000;0.6675;0.0910;
1129.8000;0.6675;0.0794;
1130.1000;0.6699;0.0770;
1130.4000;0.6683;0.0794;
1130.7000;0.6691;0.0770;
1131.0000;0.6667;0.0747;
1131.3000;0.6813;0.1097;
1131.6000;0.6707;0.0817;
1131.9000;0.6732;0.0957;
1132.2000;0.6667;0.0887;
1132.5000;0.6659;0.0817;
1132.8000;0.6634;0.0654;
1133.1000;0.6691;0.0840;
1133.4000;0.6699;0.0957;
1133.7000;0.6699;0.1074;
1134.0000;0.6667;0.1050;
1134.3000;0.6593;0.0817;
1134.6000;0.6683;0.0980;
1134.9000;0.6691;0.1027;
1135.2000;0.6683;0.1050;
1135.5000;0.6683;0.1074;
1135.8000;0.6707;0.1050;
1136.1000;0.6699;0.1004;
1136.4000;0.6659;0.0934;
1136.7000;0.6699;0.1027;
1137.0000;0.6667;0.0934;
1137.3000;0.6667;0.1004;
1137.6000;0.6667;0.1050;
1137.9000;0.6683;0.1004;
1138.2000;0.6667;0.0957;
1138.5000;0.6691;0.1027;
1138.8000;0.6626;0.0864;
1139.1000;0.6691;0.1074;
1139.4000;0.6675;0.1004;
1139.7000;0.6683;0.0910;
1140.0000;0.6691;0.0817;
1140.3000;0.6659;0.0817;
1140.6000;0.6691;0.0864;
1140.9000;0.6667;0.0887;
1141.2000;0.6691;0.0910;
1141.5000;0.6691;0.0887;
1141.8000;0.6683;0.0957;
1142.1000;0.6675;0.0887;
1142.4000;0.6642;0.0910;
1142.7000;0.6667;0.1050;
1143.0000;0.6691;0.1144;
1143.3000;0.6650;0.1004;
1143.6000;0.6667;0.1050;
1143.9000;0.6691;0.1027;
1144.2000;0.6683;0.0957;
1144.5000;0.6691;0.0934;
1144.8000;0.6683;0.0957;
1145.1000;0.6683;0.0957;
1145.4000;0.6675;0.0887;
1145.7000;0.6699;0.0864;
1146.0000;0.6675;0.0794;
1146.3000;0.6675;0.0817;
1146.6000;0.6675;0.0770;
1146.9000;0.6683;0.0770;
1147.2000;0.6683;0.0887;
1147.5000;0.6667;0.0887;
1147.8000;0.6683;0.0957;
1148.1000;0.6683;0.1004;
1148.4000;0.6675;0.1004;
1148.7000;0.6667;0.1027;
1149.0000;0.6675;0.1097;
1149.3000;0.6675;0.1074;
1149.6000;0.6699;0.1120;
1149.9000;0.6683;0.0957;
1150.2000;0.6675;0.0934;
1150.5000;0.6659;0.0980;
1150.8000;0.6691;0.1027;
1151.1000;0.6667;0.1004;
1151.4000;0.6748;0.1190;
1151.7000;0.6683;0.1004;
1152.0000;0.6699;0.1074;
1152.3000;0.6659;0.1004;
1152.6000;0.6675;0.1004;
1152.9000;0.6667;0.0957;
1153.2000;0.6650;0.0840;
1153.5000;0.6724;0.0934;
1153.8000;0.6683;0.0794;
1154.1000;0.6659;0.0677;
1154.4000;0.6667;0.0747;
1154.7000;0.6675;0.0864;
1155.0000;0.6699;0.0957;
1155.3000;0.6610;0.0817;
1155.6000;0.6691;0.0957;
1155.9000;0.6683;0.1004;
1156.2000;0.6650;0.0934;
1156.5000;0.6667;0.0957;
1156.8000;0.6707;0.0910;
1157.1000;0.6675;0.0747;
1157.4000;0.6683;0.0864;
1157.7000;0.6683;0.0934;
1158.0000;0.6642;0.0887;
1158.3000;0.6691;0.1027;
1158.6000;0.6683;0.0934;
1158.9000;0.6691;0.0864;
1159.2000;0.6683;0.0887;
1159.5000;0.6659;0.0934;
1159.8000;0.6683;0.1027;
1160.1000;0.6667;0.0934;
1160.4000;0.6675;0.1027;
1160.7000;0.6667;0.0980;
1161.0000;0.6675;0.1004;
1161.3000;0.6650;0.1027;
1161.6000;0.6667;0.1120;
1161.9000;0.6659;0.1074;
1162.2000;0.6667;0.1050;
1162.5000;0.6691;0.1050;
1162.8000;0.6667;0.0957;
1163.1000;0.6667;0.1004;
1163.4000;0.6650;0.0934;
1163.7000;0.6691;0.1050;
1164.0000;0.6675;0.1004;
1164.3000;0.6691;0.1004;
1164.6000;0.6667;0.0934;
1164.9000;0.6675;0.0934;
1165.2000;0.6732;0.1004;
1165.5000;0.6642;0.0770;
1165.8000;0.6659;0.0817;
1166.1000;0.6683;0.0864;
1166.4000;0.6699;0.0934;
1166.7000;0.6691;0.0980;
1167.0000;0.6659;0.0957;
1167.3000;0.6659;0.1004;
1167.6000;0.6659;0.1050;
1167.9000;0.6659;0.1004;
1168.2000;0.6659;0.0910;
1168.5000;0.6650;0.0980;
1168.8000;0.6683;0.0957;
1169.1000;0.6683;0.0887;
1169.4000;0.6683;0.0910;
1169.7000;0.6667;0.0817;
1170.0000;0.6683;0.0887;
1170.3000;0.6683;0.0957;
1170.6000;0.6667;0.0957;
1170.9000;0.6675;0.0957;
1171.2000;0.6675;0.0864;
1171.5000;0.6691;0.0957;
1171.8000;0.6683;0.0957;
1172.1000;0.6659;0.0910;
1172.4000;0.6659;0.0887;
1172.7000;0.6667;0.0840;
1173.0000;0.6593;0.0747;
1173.3000;0.6667;0.0864;
1173.6000;0.6659;0.0957;
1173.9000;0.6610;0.0887;
1174.2000;0.6659;0.0934;
1174.5000;0.6659;0.0980;
1174.8000;0.6667;0.1004;
1175.1000;0.6667;0.1074;
1175.4000;0.6667;0.0934;
1175.7000;0.6659;0.0934;
1176.0000;0.6667;0.0934;
1176.3000;0.6650;0.0910;
1176.6000;0.6659;0.0864;
1176.9000;0.6675;0.0887;
1177.2000;0.6667;0.0864;
1177.5000;0.6691;0.0957;
1177.8000;0.6683;0.0934;
1178.1000;0.6659;0.0910;
1178.4000;0.6618;0.0770;
1178.7000;0.6675;0.0864;
1179.0000;0.6634;0.0840;
1179.3000;0.6675;0.0957;
1179.6000;0.6675;0.0910;
1179.9000;0.6675;0.0840;
1180.2000;0.6675;0.0864;
1180.5000;0.6675;0.0957;
1180.8000;0.6667;0.1027;
1181.1000;0.6667;0.1074;
1181.4000;0.6659;0.1027;
1181.7000;0.6675;0.1050;
1182.0000;0.6675;0.1050;
1182.3000;0.6675;0.1074;
1182.6000;0.6675;0.1050;
1182.9000;0.6683;0.1144;
1183.2000;0.6707;0.1237;
1183.5000;0.6667;0.1237;
1183.8000;0.6667;0.1214;
1184.1000;0.6675;0.1190;
1184.4000;0.6675;0.1167;
1184.7000;0.6667;0.1214;
1185.0000;0.6667;0.1167;
1185.3000;0.6667;0.1190;
1185.6000;0.6675;0.1167;
1185.9000;0.6659;0.1120;
1186.2000;0.6659;0.1074;
1186.5000;0.6642;0.0957;
1186.8000;0.6659;0.1027;
1187.1000;0.6659;0.1097;
1187.4000;0.6667;0.1074;
1187.7000;0.6675;0.1074;
1188.0000;0.6675;0.1097;
1188.3000;0.6683;0.1167;
1188.6000;0.6675;0.1214;
1188.9000;0.6675;0.1120;
1189.2000;0.6659;0.1050;
1189.5000;0.6667;0.1144;
1189.8000;0.6642;0.1050;
1190.1000;0.6650;0.1027;
1190.4000;0.6659;0.0957;
1190.7000;0.6675;0.0980;
1191.0000;0.6659;0.0980;
1191.3000;0.6667;0.0980;
1191.6000;0.6667;0.1050;
1191.9000;0.6683;0.1120;
1192.2000;0.6667;0.1027;
1192.5000;0.6691;0.1144;
1192.8000;0.6626;0.1004;
1193.1000;0.6667;0.1097;
1193.4000;0.6683;0.1120;
1193.7000;0.6675;0.1050;
1194.0000;0.6659;0.1144;
1194.3000;0.6675;0.1190;
1194.6000;0.6675;0.1097;
1194.9000;0.6610;0.1004;
1195.2000;0.6675;0.1167;
1195.5000;0.6610;0.0980;
1195.8000;0.6650;0.1074;
1196.1000;0.6659;0.1027;
1196.4000;0.6667;0.0957;
1196.7000;0.6659;0.0910;
1197.0000;0.6659;0.0957;
1197.3000;0.6659;0.0980;
1197.6000;0.6667;0.1004;
1197.9000;0.6724;0.1214;
1198.2000;0.6667;0.1144;
1198.5000;0.6675;0.1167;
1198.8000;0.6667;0.1050;
1199.1000;0.6667;0.0957;
1199.4000;0.6650;0.0887;
1199.7000;0.6650;0.0770;
1200.0000;0.6659;0.0770;
1200.3000;0.6650;0.0747;
1200.6000;0.6707;0.0957;
1200.9000;0.6667;0.0934;
1201.2000;0.6675;0.0980;
1201.5000;0.6683;0.0910;
1201.8000;0.6659;0.0957;
1202.1000;0.6659;0.0980;
1202.4000;0.6659;0.1004;
1202.7000;0.6667;0.1027;
1203.0000;0.6683;0.1097;
1203.3000;0.6650;0.1004;
1203.6000;0.6667;0.1074;
1203.9000;0.6650;0.1120;
1204.2000;0.6659;0.1167;
1204.5000;0.6667;0.1120;
1204.8000;0.6675;0.1097;
1205.1000;0.6667;0.1050;
1205.4000;0.6650;0.1027;
1205.7000;0.6659;0.1097;
1206.0000;0.6667;0.1237;
1206.3000;0.6659;0.1284;
1206.6000;0.6642;0.1260;
1206.9000;0.6642;0.1260;
1207.2000;0.6659;0.1330;
1207.5000;0.6675;0.1260;
1207.8000;0.6683;0.1167;
1208.1000;0.6667;0.1190;
1208.4000;0.6659;0.1120;
1208.7000;0.6667;0.1167;
1209.0000;0.6675;0.1167;
1209.3000;0.6642;0.1167;
1209.6000;0.6659;0.1214;
1209.9000;0.6667;0.1214;
1210.2000;0.6659;0.1237;
1210.5000;0.6642;0.1190;
1210.8000;0.6675;0.1260;
1211.1000;0.6650;0.1237;
1211.4000;0.6650;0.1214;
1211.7000;0.6650;0.1214;
1212.0000;0.6650;0.1144;
1212.3000;0.6642;0.1097;
1212.6000;0.6650;0.1144;
1212.9000;0.6667;0.1167;
1213.2000;0.6659;0.1190;
1213.5000;0.6650;0.1214;
1213.8000;0.6667;0.1284;
1214.1000;0.6634;0.1237;
1214.4000;0.6577;0.1097;
1214.7000;0.6691;0.1354;
1215.0000;0.6659;0.1284;
1215.3000;0.6642;0.1144;
1215.6000;0.6716;0.1284;
1215.9000;0.6642;0.1097;
1216.2000;0.6642;0.1120;
1216.5000;0.6667;0.1190;
1216.8000;0.6667;0.1237;
1217.1000;0.6642;0.1144;
1217.4000;0.6716;0.1354;
1217.7000;0.6650;0.1167;
1218.0000;0.6642;0.1074;
1218.3000;0.6650;0.1167;
1218.6000;0.6659;0.1144;
1218.9000;0.6650;0.1144;
1219.2000;0.6667;0.1120;
1219.5000;0.6659;0.1144;
1219.8000;0.6618;0.1097;
1220.1000;0.6691;0.1377;
1220.4000;0.6659;0.1237;
1220.7000;0.6650;0.1214;
1221.0000;0.6667;0.1284;
1221.3000;0.6659;0.1307;
1221.6000;0.6659;0.1354;
1221.9000;0.6650;0.1307;
1222.2000;0.6634;0.1190;
1222.5000;0.6659;0.1214;
1222.8000;0.6667;0.1144;
1223.1000;0.6667;0.1167;
1223.4000;0.6659;0.1074;
1223.7000;0.6675;0.1120;
1224.0000;0.6642;0.1097;
1224.3000;0.6667;0.1144;
1224.6000;0.6642;0.0980;
1224.9000;0.6634;0.1004;
1225.2000;0.6683;0.1120;
1225.5000;0.6683;0.1120;
1225.8000;0.6667;0.1097;
1226.1000;0.6650;0.1074;
1226.4000;0.6642;0.1027;
1226.7000;0.6642;0.1004;
1227.0000;0.6650;0.1074;
1227.3000;0.6642;0.1074;
1227.6000;0.6667;0.1167;
1227.9000;0.6667;0.1120;
1228.2000;0.6650;0.1144;
1228.5000;0.6667;0.1144;
1228.8000;0.6650;0.1144;
1229.1000;0.6683;0.1260;
1229.4000;0.6675;0.1307;
1229.7000;0.6667;0.1284;
1230.0000;0.6667;0.1354;
1230.3000;0.6667;0.1400;
1230.6000;0.6650;0.1354;
1230.9000;0.6659;0.1307;
1231.2000;0.6659;0.1284;
1231.5000;0.6659;0.1284;
1231.8000;0.6667;0.1377;
1232.1000;0.6659;0.1377;
1232.4000;0.6650;0.1330;
1232.7000;0.6659;0.1307;
1233.0000;0.6642;0.1214;
1233.3000;0.6642;0.1237;
1233.6000;0.6683;0.1330;
1233.9000;0.6642;0.1330;
1234.2000;0.6650;0.1377;
1234.5000;0.6667;0.1400;
1234.8000;0.6642;0.1354;
1235.1000;0.6626;0.1354;
1235.4000;0.6667;0.1330;
1235.7000;0.6650;0.1330;
1236.0000;0.6659;0.1377;
1236.3000;0.6659;0.1354;
1236.6000;0.6634;0.1330;
1236.9000;0.6659;0.1377;
1237.2000;0.6659;0.1330;
1237.5000;0.6650;0.1330;
1237.8000;0.6650;0.1400;
1238.1000;0.6667;0.1377;
1238.4000;0.6650;0.1330;
1238.7000;0.6650;0.1307;
1239.0000;0.6667;0.1354;
1239.3000;0.6659;0.1307;
1239.6000;0.6659;0.1354;
1239.9000;0.6659;0.1377;
1240.2000;0.6642;0.1354;
1240.5000;0.6659;0.1377;
1240.8000;0.6659;0.1354;
1241.1000;0.6691;0.1377;
1241.4000;0.6642;0.1284;
1241.7000;0.6561;0.1050;
1242.0000;0.6642;0.1190;
1242.3000;0.6659;0.1167;
1242.6000;0.6699;0.1190;
1242.9000;0.6634;0.1097;
1243.2000;0.6634;0.1144;
1243.5000;0.6650;0.1214;
1243.8000;0.6650;0.1190;
1244.1000;0.6659;0.1214;
1244.4000;0.6650;0.1237;
1244.7000;0.6650;0.1307;
1245.0000;0.6659;0.1260;
1245.3000;0.6659;0.1190;
1245.6000;0.6659;0.1144;
1245.9000;0.6675;0.1214;
1246.2000;0.6667;0.1167;
1246.5000;0.6650;0.1144;
1246.8000;0.6659;0.1190;
1247.1000;0.6642;0.1190;
1247.4000;0.6650;0.1237;
1247.7000;0.6642;0.1190;
1248.0000;0.6650;0.1214;
1248.3000;0.6667;0.1237;
1248.6000;0.6642;0.1214;
1248.9000;0.6667;0.1214;
1249.2000;0.6618;0.1120;
1249.5000;0.6642;0.1260;
1249.8000;0.6650;0.1307;
1250.1000;0.6650;0.1284;
1250.4000;0.6642;0.1260;
1250.7000;0.6642;0.1237;
1251.0000;0.6659;0.1167;
1251.3000;0.6650;0.1120;
1251.6000;0.6650;0.1050;
1251.9000;0.6634;0.1074;
1252.2000;0.6618;0.1050;
1252.5000;0.6659;0.1190;
1252.8000;0.6650;0.1190;
1253.1000;0.6634;0.1167;
1253.4000;0.6650;0.1284;
1253.7000;0.6650;0.1377;
1254.0000;0.6659;0.1354;
1254.3000;0.6683;0.1377;
1254.6000;0.6650;0.1354;
1254.9000;0.6667;0.1330;
1255.2000;0.6716;0.1330;
1255.5000;0.6650;0.1214;
1255.8000;0.6650;0.1167;
1256.1000;0.6659;0.1190;
1256.4000;0.6667;0.1214;
1256.7000;0.6650;0.1144;
1257.0000;0.6667;0.1214;
1257.3000;0.6699;0.1377;
1257.6000;0.6659;0.1284;
1257.9000;0.6642;0.1167;
1258.2000;0.6642;0.1074;
1258.5000;0.6667;0.1284;
1258.8000;0.6642;0.1214;
1259.1000;0.6642;0.1260;
1259.4000;0.6634;0.1330;
1259.7000;0.6659;0.1377;
1260.0000;0.6642;0.1307;
1260.3000;0.6650;0.1354;
1260.6000;0.6659;0.1377;
1260.9000;0.6659;0.1284;
1261.2000;0.6667;0.1284;
1261.5000;0.6642;0.1260;
1261.8000;0.6667;0.1307;
1262.1000;0.6650;0.1330;
1262.4000;0.6634;0.1330;
1262.7000;0.6650;0.1284;
1263.0000;0.6585;0.1120;
1263.3000;0.6659;0.1307;
1263.6000;0.6642;0.1237;
1263.9000;0.6659;0.1214;
1264.2000;0.6642;0.1120;
1264.5000;0.6650;0.1167;
1264.8000;0.6634;0.1190;
1265.1000;0.6618;0.1144;
1265.4000;0.6577;0.1027;
1265.7000;0.6634;0.1237;
1266.0000;0.6650;0.1377;
1266.3000;0.6634;0.1377;
1266.6000;0.6634;0.1330;
1266.9000;0.6642;0.1284;
1267.2000;0.6650;0.1284;
1267.5000;0.6683;0.1330;
1267.8000;0.6659;0.1190;
1268.1000;0.6707;0.1307;
1268.4000;0.6650;0.1190;
1268.7000;0.6593;0.1050;
1269.0000;0.6699;0.1214;
1269.3000;0.6650;0.1167;
1269.6000;0.6634;0.1190;
1269.9000;0.6650;0.1284;
1270.2000;0.6650;0.1237;
1270.5000;0.6626;0.1190;
1270.8000;0.6642;0.1167;
1271.1000;0.6650;0.1260;
1271.4000;0.6642;0.1307;
1271.7000;0.6659;0.1330;
1272.0000;0.6659;0.1330;
1272.3000;0.6659;0.1237;
1272.6000;0.6626;0.1144;
1272.9000;0.6667;0.1260;
1273.2000;0.6667;0.1330;
1273.5000;0.6707;0.1424;
1273.8000;0.6634;0.1190;
1274.1000;0.6659;0.1284;
1274.4000;0.6683;0.1354;
1274.7000;0.6650;0.1214;
1275.0000;0.6691;0.1237;
1275.3000;0.6675;0.1214;
1275.6000;0.6650;0.1144;
1275.9000;0.6642;0.1144;
1276.2000;0.6667;0.1144;
1276.5000;0.6642;0.1144;
1276.8000;0.6667;0.1214;
1277.1000;0.6650;0.1144;
1277.4000;0.6642;0.1074;
1277.7000;0.6659;0.1167;
1278.0000;0.6699;0.1237;
1278.3000;0.6683;0.1237;
1278.6000;0.6642;0.1144;
1278.9000;0.6585;0.0980;
1279.2000;0.6667;0.1190;
1279.5000;0.6650;0.1144;
1279.8000;0.6650;0.1120;
1280.1000;0.6626;0.1050;
1280.4000;0.6642;0.1097;
1280.7000;0.6642;0.1144;
1281.0000;0.6650;0.1330;
1281.3000;0.6650;0.1377;
1281.6000;0.6659;0.1400;
1281.9000;0.6642;0.1400;
1282.2000;0.6650;0.1237;
1282.5000;0.6659;0.1237;
1282.8000;0.6626;0.1214;
1283.1000;0.6642;0.1260;
1283.4000;0.6659;0.1307;
1283.7000;0.6659;0.1307;
1284.0000;0.6634;0.1307;
1284.3000;0.6634;0.1284;
1284.6000;0.6650;0.1330;
1284.9000;0.6634;0.1237;
1285.2000;0.6626;0.1190;
1285.5000;0.6634;0.1190;
1285.8000;0.6634;0.1120;
1286.1000;0.6642;0.1144;
1286.4000;0.6618;0.1050;
1286.7000;0.6642;0.1120;
1287.0000;0.6634;0.1144;
1287.3000;0.6650;0.1190;
1287.6000;0.6659;0.1190;
1287.9000;0.6675;0.1260;
1288.2000;0.6642;0.1190;
1288.5000;0.6650;0.1237;
1288.8000;0.6626;0.1167;
1289.1000;0.6642;0.1214;
1289.4000;0.6634;0.1284;
1289.7000;0.6667;0.1260;
1290.0000;0.6593;0.1097;
1290.3000;0.6626;0.1190;
1290.6000;0.6699;0.1424;
1290.9000;0.6626;0.1377;
1291.2000;0.6642;0.1354;
1291.5000;0.6634;0.1284;
1291.8000;0.6634;0.1214;
1292.1000;0.6642;0.1260;
1292.4000;0.6642;0.1260;
1292.7000;0.6650;0.1214;
1293.0000;0.6642;0.1120;
1293.3000;0.6659;0.1214;
1293.6000;0.6659;0.1190;
1293.9000;0.6659;0.1237;
1294.2000;0.6667;0.1260;
1294.5000;0.6618;0.1237;
1294.8000;0.6642;0.1330;
1295.1000;0.6626;0.1377;
1295.4000;0.6642;0.1377;
1295.7000;0.6675;0.1377;
1296.0000;0.6634;0.1214;
1296.3000;0.6642;0.1214;
1296.6000;0.6634;0.1167;
1296.9000;0.6626;0.1144;
1297.2000;0.6642;0.1167;
1297.5000;0.6642;0.1237;
1297.8000;0.6650;0.1237;
1298.1000;0.6634;0.1260;
1298.4000;0.6626;0.1237;
1298.7000;0.6650;0.1284;
1299.0000;0.6634;0.1237;
1299.3000;0.6626;0.1307;
1299.6000;0.6618;0.1260;
1299.9000;0.6659;0.1354;
1300.2000;0.6642;0.1307;
1300.5000;0.6634;0.1307;
1300.8000;0.6634;0.1307;
1301.1000;0.6642;0.1307;
1301.4000;0.6634;0.1284;
1301.7000;0.6634;0.1214;
1302.0000;0.6626;0.1144;
1302.3000;0.6626;0.1144;
1302.6000;0.6642;0.1214;
1302.9000;0.6650;0.1214;
1303.2000;0.6642;0.1190;
1303.5000;0.6642;0.1330;
1303.8000;0.6642;0.1307;
1304.1000;0.6667;0.1307;
1304.4000;0.6650;0.1237;
1304.7000;0.6650;0.1214;
1305.0000;0.6642;0.1167;
1305.3000;0.6634;0.1074;
1305.6000;0.6667;0.1120;
1305.9000;0.6667;0.1097;
1306.2000;0.6691;0.1214;
1306.5000;0.6650;0.1097;
1306.8000;0.6642;0.1167;
1307.1000;0.6634;0.1144;
1307.4000;0.6626;0.1120;
1307.7000;0.6675;0.1097;
1308.0000;0.6667;0.1120;
1308.3000;0.6634;0.1050;
1308.6000;0.6634;0.1074;
1308.9000;0.6659;0.1097;
1309.2000;0.6634;0.0957;
1309.5000;0.6650;0.1097;
1309.8000;0.6691;0.1237;
1310.1000;0.6667;0.1214;
1310.4000;0.6642;0.1190;
1310.7000;0.6634;0.1120;
1311.0000;0.6618;0.1144;
1311.3000;0.6626;0.1144;
1311.6000;0.6569;0.1097;
1311.9000;0.6699;0.1377;
1312.2000;0.6634;0.1167;
1312.5000;0.6626;0.1097;
1312.8000;0.6650;0.1167;
1313.1000;0.6642;0.1097;
1313.4000;0.6634;0.1074;
1313.7000;0.6642;0.1120;
1314.0000;0.6650;0.1144;
1314.3000;0.6626;0.1214;
1314.6000;0.6626;0.1214;
1314.9000;0.6634;0.1190;
1315.2000;0.6626;0.1144;
1315.5000;0.6642;0.1097;
1315.8000;0.6634;0.1074;
1316.1000;0.6642;0.1074;
1316.4000;0.6626;0.1050;
1316.7000;0.6634;0.1144;
1317.0000;0.6626;0.1144;
1317.3000;0.6642;0.1050;
1317.6000;0.6618;0.0980;
1317.9000;0.6634;0.0934;
1318.2000;0.6634;0.0910;
1318.5000;0.6642;0.0934;
1318.8000;0.6642;0.0934;
1319.1000;0.6642;0.0957;
1319.4000;0.6634;0.0934;
1319.7000;0.6642;0.0980;
1320.0000;0.6626;0.1050;
1320.3000;0.6634;0.1144;
1320.6000;0.6659;0.1167;
1320.9000;0.6642;0.1050;
1321.2000;0.6634;0.1097;
1321.5000;0.6634;0.1167;
1321.8000;0.6634;0.1120;
1322.1000;0.6650;0.1190;
1322.4000;0.6642;0.1144;
1322.7000;0.6634;0.1097;
1323.0000;0.6650;0.1190;
1323.3000;0.6642;0.1167;
1323.6000;0.6634;0.1190;
1323.9000;0.6634;0.1167;
1324.2000;0.6634;0.1167;
1324.5000;0.6634;0.1260;
1324.8000;0.6650;0.1330;
1325.1000;0.6634;0.1260;
1325.4000;0.6659;0.1330;
1325.7000;0.6650;0.1330;
1326.0000;0.6642;0.1330;
1326.3000;0.6634;0.1237;
1326.6000;0.6634;0.1190;
1326.9000;0.6610;0.1120;
1327.2000;0.6634;0.1167;
1327.5000;0.6634;0.1167;
1327.8000;0.6618;0.1050;
1328.1000;0.6650;0.1167;
1328.4000;0.6626;0.1074;
1328.7000;0.6634;0.1120;
1329.0000;0.6634;0.1237;
1329.3000;0.6626;0.1144;
1329.6000;0.6650;0.1144;
1329.9000;0.6642;0.1214;
1330.2000;0.6626;0.1307;
1330.5000;0.6675;0.1377;
1330.8000;0.6650;0.1307;
1331.1000;0.6650;0.1284;
1331.4000;0.6650;0.1214;
1331.7000;0.6650;0.1260;
1332.0000;0.6650;0.1307;
1332.3000;0.6650;0.1284;
1332.6000;0.6626;0.1214;
1332.9000;0.6634;0.1260;
1333.2000;0.6642;0.1284;
1333.5000;0.6699;0.1470;
1333.8000;0.6659;0.1447;
1334.1000;0.6634;0.1354;
1334.4000;0.6634;0.1330;
1334.7000;0.6618;0.1260;
1335.0000;0.6626;0.1330;
1335.3000;0.6618;0.1284;
1335.6000;0.6642;0.1260;
1335.9000;0.6642;0.1190;
1336.2000;0.6642;0.1120;
1336.5000;0.6618;0.1004;
1336.8000;0.6659;0.1027;
1337.1000;0.6650;0.0980;
1337.4000;0.6683;0.1074;
1337.7000;0.6634;0.0934;
1338.0000;0.6610;0.0817;
1338.3000;0.6650;0.0957;
1338.6000;0.6642;0.0934;
1338.9000;0.6707;0.1190;
1339.2000;0.6634;0.1097;
1339.5000;0.6691;0.1214;
1339.8000;0.6650;0.1167;
1340.1000;0.6642;0.1214;
1340.4000;0.6634;0.1260;
1340.7000;0.6618;0.1214;
1341.0000;0.6650;0.1260;
1341.3000;0.6642;0.1167;
1341.6000;0.6634;0.1120;
1341.9000;0.6626;0.1120;
1342.2000;0.6602;0.1097;
1342.5000;0.6650;0.1190;
1342.8000;0.6659;0.1260;
1343.1000;0.6618;0.1097;
1343.4000;0.6642;0.1237;
1343.7000;0.6642;0.1237;
1344.0000;0.6626;0.1144;
1344.3000;0.6618;0.1144;
1344.6000;0.6642;0.1144;
1344.9000;0.6618;0.1004;
1345.2000;0.6650;0.1027;
1345.5000;0.6618;0.0980;
1345.8000;0.6634;0.0980;
1346.1000;0.6642;0.1050;
1346.4000;0.6691;0.1237;
1346.7000;0.6585;0.0910;
1347.0000;0.6634;0.1004;
1347.3000;0.6634;0.1074;
1347.6000;0.6642;0.1004;
1347.9000;0.6569;0.0864;
1348.2000;0.6626;0.1027;
1348.5000;0.6675;0.1120;
1348.8000;0.6642;0.1004;
1349.1000;0.6634;0.0980;
1349.4000;0.6618;0.0957;
1349.7000;0.6618;0.0864;
1350.0000;0.6634;0.0840;
1350.3000;0.6707;0.0980;
1350.6000;0.6634;0.0910;
1350.9000;0.6675;0.1004;
1351.2000;0.6642;0.0957;
1351.5000;0.6626;0.0934;
1351.8000;0.6634;0.0957;
1352.1000;0.6626;0.0910;
1352.4000;0.6642;0.0934;
1352.7000;0.6626;0.0934;
1353.0000;0.6634;0.0910;
1353.3000;0.6642;0.0934;
1353.6000;0.6602;0.0980;
1353.9000;0.6626;0.1004;
1354.2000;0.6634;0.0980;
1354.5000;0.6691;0.1097;
1354.8000;0.6650;0.0957;
1355.1000;0.6602;0.0817;
1355.4000;0.6634;0.0864;
1355.7000;0.6626;0.0910;
1356.0000;0.6610;0.0957;
1356.3000;0.6634;0.1027;
1356.6000;0.6569;0.0817;
1356.9000;0.6642;0.1004;
1357.2000;0.6626;0.1120;
1357.5000;0.6642;0.1167;
1357.8000;0.6650;0.1144;
1358.1000;0.6650;0.1120;
1358.4000;0.6634;0.0957;
1358.7000;0.6642;0.1004;
1359.0000;0.6634;0.1144;
1359.3000;0.6634;0.1167;
1359.6000;0.6634;0.1050;
1359.9000;0.6626;0.1027;
1360.2000;0.6642;0.1190;
1360.5000;0.6626;0.1167;
1360.8000;0.6634;0.1074;
1361.1000;0.6634;0.1120;
1361.4000;0.6626;0.1050;
1361.7000;0.6618;0.1097;
1362.0000;0.6634;0.1120;
1362.3000;0.6650;0.1144;
1362.6000;0.6650;0.1214;
1362.9000;0.6634;0.1120;
1363.2000;0.6602;0.1050;
1363.5000;0.6634;0.1120;
1363.8000;0.6626;0.1167;
1364.1000;0.6650;0.1190;
1364.4000;0.6634;0.1144;
1364.7000;0.6650;0.1214;
1365.0000;0.6650;0.1237;
1365.3000;0.6610;0.1167;
1365.6000;0.6602;0.1144;
1365.9000;0.6626;0.1214;
1366.2000;0.6642;0.1167;
1366.5000;0.6642;0.1214;
1366.8000;0.6659;0.1284;
1367.1000;0.6602;0.1144;
1367.4000;0.6642;0.1284;
1367.7000;0.6618;0.1307;
1368.0000;0.6610;0.1284;
1368.3000;0.6634;0.1400;
1368.6000;0.6642;0.1400;
1368.9000;0.6634;0.1424;
1369.2000;0.6618;0.1377;
1369.5000;0.6650;0.1470;
1369.8000;0.6642;0.1424;
1370.1000;0.6642;0.1470;
1370.4000;0.6618;0.1470;
1370.7000;0.6626;0.1470;
1371.0000;0.6610;0.1424;
1371.3000;0.6618;0.1424;
1371.6000;0.6618;0.1354;
1371.9000;0.6642;0.1377;
1372.2000;0.6659;0.1400;
1372.5000;0.6650;0.1354;
1372.8000;0.6650;0.1377;
1373.1000;0.6634;0.1400;
1373.4000;0.6667;0.1400;
1373.7000;0.6634;0.1377;
1374.0000;0.6618;0.1400;
1374.3000;0.6634;0.1447;
1374.6000;0.6642;0.1400;
1374.9000;0.6626;0.1424;
1375.2000;0.6634;0.1400;
1375.5000;0.6634;0.1307;
1375.8000;0.6642;0.1307;
1376.1000;0.6626;0.1307;
1376.4000;0.6626;0.1284;
1376.7000;0.6610;0.1214;
1377.0000;0.6626;0.1330;
1377.3000;0.6634;0.1354;
1377.6000;0.6618;0.1330;
1377.9000;0.6634;0.1307;
1378.2000;0.6618;0.1237;
1378.5000;0.6634;0.1284;
1378.8000;0.6650;0.1354;
1379.1000;0.6691;0.1354;
1379.4000;0.6634;0.1260;
1379.7000;0.6634;0.1330;
1380.0000;0.6642;0.1237;
1380.3000;0.6650;0.1307;
1380.6000;0.6634;0.1377;
1380.9000;0.6610;0.1260;
1381.2000;0.6626;0.1330;
1381.5000;0.6626;0.1307;
1381.8000;0.6618;0.1284;
1382.1000;0.6618;0.1330;
1382.4000;0.6610;0.1424;
1382.7000;0.6626;0.1564;
1383.0000;0.6618;0.1494;
1383.3000;0.6602;0.1494;
1383.6000;0.6626;0.1564;
1383.9000;0.6691;0.1681;
1384.2000;0.6618;0.1400;
1384.5000;0.6610;0.1214;
1384.8000;0.6650;0.1330;
1385.1000;0.6602;0.1214;
1385.4000;0.6642;0.1377;
1385.7000;0.6618;0.1400;
1386.0000;0.6593;0.1284;
1386.3000;0.6618;0.1354;
1386.6000;0.6642;0.1284;
1386.9000;0.6634;0.1190;
1387.2000;0.6618;0.1190;
1387.5000;0.6642;0.1260;
1387.8000;0.6634;0.1307;
1388.1000;0.6610;0.1307;
1388.4000;0.6610;0.1354;
1388.7000;0.6675;0.1447;
1389.0000;0.6610;0.1214;
1389.3000;0.6626;0.1260;
1389.6000;0.6618;0.1260;
1389.9000;0.6642;0.1284;
1390.2000;0.6618;0.1260;
1390.5000;0.6650;0.1307;
1390.8000;0.6602;0.1144;
1391.1000;0.6626;0.1167;
1391.4000;0.6659;0.1237;
1391.7000;0.6626;0.1237;
1392.0000;0.6626;0.1190;
1392.3000;0.6626;0.1144;
1392.6000;0.6634;0.1237;
1392.9000;0.6626;0.1190;
1393.2000;0.6642;0.1260;
1393.5000;0.6634;0.1237;
1393.8000;0.6642;0.1354;
1394.1000;0.6642;0.1377;
1394.4000;0.6610;0.1330;
1394.7000;0.6642;0.1330;
1395.0000;0.6610;0.1260;
1395.3000;0.6626;0.1284;
1395.6000;0.6618;0.1260;
1395.9000;0.6634;0.1354;
1396.2000;0.6626;0.1354;
1396.5000;0.6626;0.1354;
1396.8000;0.6618;0.1354;
1397.1000;0.6618;0.1377;
1397.4000;0.6650;0.1400;
1397.7000;0.6634;0.1377;
1398.0000;0.6634;0.1377;
1398.3000;0.6626;0.1307;
1398.6000;0.6650;0.1424;
1398.9000;0.6626;0.1354;
1399.2000;0.6626;0.1377;
1399.5000;0.6626;0.1330;
1399.8000;0.6675;0.1307;
