time/ms;Fluo/V;P700 deltaI/I x10³;
-199.8000;1.0753;0.2894;
-199.5000;1.0745;0.2894;
-199.2000;1.0745;0.2778;
-198.9000;1.0745;0.2848;
-198.6000;1.0802;0.2964;
-198.3000;1.0729;0.2894;
-198.0000;1.0729;0.2941;
-197.7000;1.0753;0.2941;
-197.4000;1.0737;0.2894;
-197.1000;1.0720;0.2941;
-196.8000;1.0753;0.2918;
-196.5000;1.0737;0.2918;
-196.2000;1.0745;0.2988;
-195.9000;1.0753;0.3011;
-195.6000;1.0753;0.2988;
-195.3000;1.0753;0.3011;
-195.0000;1.0737;0.3011;
-194.7000;1.0745;0.3011;
-194.4000;1.0737;0.2918;
-194.1000;1.0737;0.2824;
-193.8000;1.0745;0.2778;
-193.5000;1.0753;0.2801;
-193.2000;1.0729;0.2684;
-192.9000;1.0753;0.2684;
-192.6000;1.0753;0.2661;
-192.3000;1.0753;0.2684;
-192.0000;1.0745;0.2591;
-191.7000;1.0769;0.2567;
-191.4000;1.0753;0.2497;
-191.1000;1.0720;0.2451;
-190.8000;1.0761;0.2567;
-190.5000;1.0761;0.2661;
-190.2000;1.0753;0.2707;
-189.9000;1.0753;0.2754;
-189.6000;1.0761;0.2801;
-189.3000;1.0737;0.2731;
-189.0000;1.0761;0.2778;
-188.7000;1.0720;0.2754;
-188.4000;1.0745;0.2754;
-188.1000;1.0745;0.2801;
-187.8000;1.0761;0.2941;
-187.5000;1.0794;0.2988;
-187.2000;1.0753;0.2824;
-186.9000;1.0737;0.2824;
-186.6000;1.0753;0.2824;
-186.3000;1.0761;0.2754;
-186.0000;1.0761;0.2614;
-185.7000;1.0737;0.2637;
-185.4000;1.0834;0.2918;
-185.1000;1.0761;0.2801;
-184.8000;1.0769;0.2871;
-184.5000;1.0769;0.2871;
-184.2000;1.0777;0.2941;
-183.9000;1.0769;0.2918;
-183.6000;1.0753;0.2918;
-183.3000;1.0745;0.2848;
-183.0000;1.0745;0.2801;
-182.7000;1.0761;0.2824;
-182.4000;1.0745;0.2754;
-182.1000;1.0729;0.2754;
-181.8000;1.0745;0.2731;
-181.5000;1.0737;0.2731;
-181.2000;1.0769;0.2824;
-180.9000;1.0737;0.2778;
-180.6000;1.0753;0.2778;
-180.3000;1.0753;0.2707;
-180.0000;1.0761;0.2731;
-179.7000;1.0753;0.2731;
-179.4000;1.0753;0.2731;
-179.1000;1.0745;0.2754;
-178.8000;1.0745;0.2707;
-178.5000;1.0753;0.2754;
-178.2000;1.0712;0.2754;
-177.9000;1.0737;0.2824;
-177.6000;1.0729;0.2871;
-177.3000;1.0712;0.2941;
-177.0000;1.0753;0.2988;
-176.7000;1.0729;0.2824;
-176.4000;1.0826;0.3081;
-176.1000;1.0794;0.2964;
-175.8000;1.0704;0.2731;
-175.5000;1.0769;0.2778;
-175.2000;1.0704;0.2614;
-174.9000;1.0737;0.2754;
-174.6000;1.0753;0.2731;
-174.3000;1.0745;0.2731;
-174.0000;1.0761;0.2801;
-173.7000;1.0761;0.2731;
-173.4000;1.0761;0.2824;
-173.1000;1.0753;0.2754;
-172.8000;1.0737;0.2778;
-172.5000;1.0761;0.2801;
-172.2000;1.0753;0.2801;
-171.9000;1.0753;0.2707;
-171.6000;1.0753;0.2801;
-171.3000;1.0745;0.2731;
-171.0000;1.0745;0.2754;
-170.7000;1.0753;0.2754;
-170.4000;1.0745;0.2731;
-170.1000;1.0753;0.2754;
-169.8000;1.0745;0.2824;
-169.5000;1.0761;0.2848;
-169.2000;1.0704;0.2684;
-168.9000;1.0786;0.2848;
-168.6000;1.0753;0.2778;
-168.3000;1.0753;0.2661;
-168.0000;1.0720;0.2567;
-167.7000;1.0745;0.2637;
-167.4000;1.0753;0.2684;
-167.1000;1.0753;0.2707;
-166.8000;1.0761;0.2731;
-166.5000;1.0753;0.2731;
-166.2000;1.0737;0.2637;
-165.9000;1.0745;0.2661;
-165.6000;1.0753;0.2661;
-165.3000;1.0737;0.2661;
-165.0000;1.0753;0.2731;
-164.7000;1.0753;0.2848;
-164.4000;1.0672;0.2684;
-164.1000;1.0761;0.2918;
-163.8000;1.0753;0.2941;
-163.5000;1.0745;0.2941;
-163.2000;1.0769;0.2941;
-162.9000;1.0769;0.2941;
-162.6000;1.0761;0.2918;
-162.3000;1.0753;0.2918;
-162.0000;1.0745;0.2894;
-161.7000;1.0753;0.2918;
-161.4000;1.0777;0.2964;
-161.1000;1.0753;0.2871;
-160.8000;1.0753;0.2824;
-160.5000;1.0777;0.2918;
-160.2000;1.0753;0.2801;
-159.9000;1.0729;0.2731;
-159.6000;1.0745;0.2824;
-159.3000;1.0753;0.2848;
-159.0000;1.0704;0.2707;
-158.7000;1.0761;0.2848;
-158.4000;1.0753;0.2848;
-158.1000;1.0761;0.2824;
-157.8000;1.0737;0.2778;
-157.5000;1.0753;0.2801;
-157.2000;1.0680;0.2661;
-156.9000;1.0745;0.2778;
-156.6000;1.0753;0.2731;
-156.3000;1.0777;0.2778;
-156.0000;1.0794;0.2778;
-155.7000;1.0720;0.2614;
-155.4000;1.0696;0.2591;
-155.1000;1.0745;0.2707;
-154.8000;1.0745;0.2801;
-154.5000;1.0769;0.2848;
-154.2000;1.0688;0.2754;
-153.9000;1.0737;0.2964;
-153.6000;1.0729;0.2941;
-153.3000;1.0737;0.3011;
-153.0000;1.0753;0.2964;
-152.7000;1.0769;0.2894;
-152.4000;1.0704;0.2731;
-152.1000;1.0745;0.2848;
-151.8000;1.0769;0.2801;
-151.5000;1.0786;0.2754;
-151.2000;1.0761;0.2684;
-150.9000;1.0712;0.2637;
-150.6000;1.0745;0.2778;
-150.3000;1.0761;0.2731;
-150.0000;1.0745;0.2801;
-149.7000;1.0745;0.2871;
-149.4000;1.0745;0.2871;
-149.1000;1.0745;0.2894;
-148.8000;1.0720;0.2778;
-148.5000;1.0761;0.2871;
-148.2000;1.0745;0.2801;
-147.9000;1.0745;0.2918;
-147.6000;1.0753;0.2894;
-147.3000;1.0745;0.2848;
-147.0000;1.0745;0.2754;
-146.7000;1.0688;0.2614;
-146.4000;1.0753;0.2754;
-146.1000;1.0745;0.2684;
-145.8000;1.0704;0.2614;
-145.5000;1.0761;0.2754;
-145.2000;1.0769;0.2801;
-144.9000;1.0688;0.2637;
-144.6000;1.0745;0.2824;
-144.3000;1.0712;0.2824;
-144.0000;1.0810;0.3011;
-143.7000;1.0737;0.2848;
-143.4000;1.0712;0.2848;
-143.1000;1.0729;0.2941;
-142.8000;1.0745;0.3081;
-142.5000;1.0786;0.3174;
-142.2000;1.0745;0.3198;
-141.9000;1.0761;0.3174;
-141.6000;1.0753;0.3151;
-141.3000;1.0745;0.3058;
-141.0000;1.0737;0.3034;
-140.7000;1.0704;0.2894;
-140.4000;1.0794;0.3151;
-140.1000;1.0753;0.3034;
-139.8000;1.0745;0.2964;
-139.5000;1.0761;0.2871;
-139.2000;1.0745;0.2824;
-138.9000;1.0761;0.2871;
-138.6000;1.0753;0.2894;
-138.3000;1.0761;0.2964;
-138.0000;1.0737;0.2941;
-137.7000;1.0761;0.3011;
-137.4000;1.0753;0.2894;
-137.1000;1.0769;0.2824;
-136.8000;1.0769;0.2754;
-136.5000;1.0761;0.2754;
-136.2000;1.0761;0.2754;
-135.9000;1.0769;0.2684;
-135.6000;1.0745;0.2778;
-135.3000;1.0834;0.2988;
-135.0000;1.0769;0.2848;
-134.7000;1.0753;0.2754;
-134.4000;1.0745;0.2778;
-134.1000;1.0777;0.2801;
-133.8000;1.0761;0.2614;
-133.5000;1.0745;0.2544;
-133.2000;1.0753;0.2614;
-132.9000;1.0737;0.2661;
-132.6000;1.0769;0.2731;
-132.3000;1.0777;0.2894;
-132.0000;1.0761;0.2894;
-131.7000;1.0753;0.2894;
-131.4000;1.0761;0.2918;
-131.1000;1.0777;0.2918;
-130.8000;1.0786;0.2918;
-130.5000;1.0745;0.2801;
-130.2000;1.0753;0.2848;
-129.9000;1.0745;0.2894;
-129.6000;1.0704;0.2824;
-129.3000;1.0753;0.3011;
-129.0000;1.0720;0.2964;
-128.7000;1.0753;0.3104;
-128.4000;1.0769;0.3058;
-128.1000;1.0745;0.2894;
-127.8000;1.0761;0.2871;
-127.5000;1.0753;0.2801;
-127.2000;1.0737;0.2754;
-126.9000;1.0737;0.2778;
-126.6000;1.0753;0.2731;
-126.3000;1.0745;0.2684;
-126.0000;1.0745;0.2754;
-125.7000;1.0737;0.2824;
-125.4000;1.0737;0.2871;
-125.1000;1.0737;0.2918;
-124.8000;1.0680;0.2637;
-124.5000;1.0769;0.2707;
-124.2000;1.0753;0.2754;
-123.9000;1.0729;0.2707;
-123.6000;1.0688;0.2567;
-123.3000;1.0769;0.2754;
-123.0000;1.0745;0.2731;
-122.7000;1.0737;0.2754;
-122.4000;1.0753;0.2918;
-122.1000;1.0753;0.2964;
-121.8000;1.0753;0.2964;
-121.5000;1.0712;0.2778;
-121.2000;1.0753;0.2848;
-120.9000;1.0753;0.2801;
-120.6000;1.0761;0.2848;
-120.3000;1.0769;0.2824;
-120.0000;1.0753;0.2824;
-119.7000;1.0753;0.2871;
-119.4000;1.0769;0.2848;
-119.1000;1.0753;0.2778;
-118.8000;1.0745;0.2801;
-118.5000;1.0761;0.2894;
-118.2000;1.0761;0.2824;
-117.9000;1.0753;0.2754;
-117.6000;1.0761;0.2801;
-117.3000;1.0745;0.2871;
-117.0000;1.0753;0.2918;
-116.7000;1.0753;0.2988;
-116.4000;1.0753;0.2894;
-116.1000;1.0761;0.2871;
-115.8000;1.0753;0.2801;
-115.5000;1.0769;0.2801;
-115.2000;1.0761;0.2778;
-114.9000;1.0753;0.2824;
-114.6000;1.0769;0.2824;
-114.3000;1.0777;0.2848;
-114.0000;1.0769;0.2731;
-113.7000;1.0753;0.2684;
-113.4000;1.0745;0.2684;
-113.1000;1.0769;0.2684;
-112.8000;1.0769;0.2778;
-112.5000;1.0753;0.2801;
-112.2000;1.0745;0.2754;
-111.9000;1.0729;0.2707;
-111.6000;1.0769;0.2731;
-111.3000;1.0769;0.2754;
-111.0000;1.0753;0.2684;
-110.7000;1.0769;0.2801;
-110.4000;1.0753;0.2848;
-110.1000;1.0777;0.2801;
-109.8000;1.0753;0.2778;
-109.5000;1.0737;0.2754;
-109.2000;1.0753;0.2848;
-108.9000;1.0753;0.2824;
-108.6000;1.0753;0.2778;
-108.3000;1.0761;0.2801;
-108.0000;1.0761;0.2918;
-107.7000;1.0745;0.2871;
-107.4000;1.0737;0.2778;
-107.1000;1.0745;0.2871;
-106.8000;1.0729;0.2824;
-106.5000;1.0745;0.2824;
-106.2000;1.0729;0.2754;
-105.9000;1.0745;0.2754;
-105.6000;1.0786;0.2918;
-105.3000;1.0729;0.2894;
-105.0000;1.0761;0.2988;
-104.7000;1.0769;0.3011;
-104.4000;1.0753;0.2988;
-104.1000;1.0769;0.3011;
-103.8000;1.0769;0.3011;
-103.5000;1.0737;0.2871;
-103.2000;1.0802;0.2988;
-102.9000;1.0818;0.2941;
-102.6000;1.0769;0.2824;
-102.3000;1.0712;0.2684;
-102.0000;1.0745;0.2754;
-101.7000;1.0794;0.2941;
-101.4000;1.0761;0.2824;
-101.1000;1.0704;0.2637;
-100.8000;1.0745;0.2778;
-100.5000;1.0769;0.2848;
-100.2000;1.0777;0.2754;
-99.9000;1.0794;0.2848;
-99.6000;1.0753;0.2707;
-99.3000;1.0720;0.2591;
-99.0000;1.0753;0.2637;
-98.7000;1.0777;0.2731;
-98.4000;1.0753;0.2684;
-98.1000;1.0753;0.2661;
-97.8000;1.0777;0.2684;
-97.5000;1.0745;0.2661;
-97.2000;1.0818;0.2801;
-96.9000;1.0753;0.2567;
-96.6000;1.0794;0.2661;
-96.3000;1.0745;0.2614;
-96.0000;1.0802;0.2801;
-95.7000;1.0753;0.2684;
-95.4000;1.0745;0.2778;
-95.1000;1.0769;0.2871;
-94.8000;1.0761;0.2918;
-94.5000;1.0818;0.3011;
-94.2000;1.0729;0.2754;
-93.9000;1.0761;0.2824;
-93.6000;1.0753;0.2871;
-93.3000;1.0794;0.2871;
-93.0000;1.0737;0.2801;
-92.7000;1.0753;0.2871;
-92.4000;1.0753;0.2871;
-92.1000;1.0753;0.2824;
-91.8000;1.0753;0.2848;
-91.5000;1.0745;0.2824;
-91.2000;1.0745;0.2848;
-90.9000;1.0753;0.2941;
-90.6000;1.0761;0.2918;
-90.3000;1.0745;0.2894;
-90.0000;1.0753;0.2941;
-89.7000;1.0753;0.2964;
-89.4000;1.0753;0.2941;
-89.1000;1.0753;0.2824;
-88.8000;1.0761;0.2871;
-88.5000;1.0769;0.2871;
-88.2000;1.0753;0.2778;
-87.9000;1.0753;0.2894;
-87.6000;1.0769;0.2964;
-87.3000;1.0769;0.2941;
-87.0000;1.0786;0.2988;
-86.7000;1.0769;0.2918;
-86.4000;1.0769;0.2894;
-86.1000;1.0737;0.2801;
-85.8000;1.0777;0.2824;
-85.5000;1.0737;0.2778;
-85.2000;1.0712;0.2731;
-84.9000;1.0753;0.2801;
-84.6000;1.0753;0.2778;
-84.3000;1.0761;0.2731;
-84.0000;1.0737;0.2684;
-83.7000;1.0745;0.2637;
-83.4000;1.0720;0.2591;
-83.1000;1.0769;0.2661;
-82.8000;1.0737;0.2497;
-82.5000;1.0720;0.2474;
-82.2000;1.0753;0.2474;
-81.9000;1.0737;0.2497;
-81.6000;1.0753;0.2497;
-81.3000;1.0761;0.2497;
-81.0000;1.0745;0.2451;
-80.7000;1.0737;0.2404;
-80.4000;1.0761;0.2451;
-80.1000;1.0745;0.2567;
-79.8000;1.0769;0.2707;
-79.5000;1.0761;0.2684;
-79.2000;1.0737;0.2661;
-78.9000;1.0753;0.2824;
-78.6000;1.0769;0.2941;
-78.3000;1.0753;0.2801;
-78.0000;1.0761;0.2731;
-77.7000;1.0777;0.2754;
-77.4000;1.0753;0.2637;
-77.1000;1.0786;0.2637;
-76.8000;1.0720;0.2544;
-76.5000;1.0753;0.2637;
-76.2000;1.0753;0.2684;
-75.9000;1.0745;0.2661;
-75.6000;1.0761;0.2684;
-75.3000;1.0745;0.2707;
-75.0000;1.0834;0.2964;
-74.7000;1.0729;0.2731;
-74.4000;1.0745;0.2754;
-74.1000;1.0761;0.2731;
-73.8000;1.0753;0.2731;
-73.5000;1.0794;0.2848;
-73.2000;1.0761;0.2731;
-72.9000;1.0769;0.2707;
-72.6000;1.0761;0.2661;
-72.3000;1.0753;0.2661;
-72.0000;1.0761;0.2661;
-71.7000;1.0753;0.2684;
-71.4000;1.0769;0.2684;
-71.1000;1.0745;0.2567;
-70.8000;1.0737;0.2474;
-70.5000;1.0753;0.2497;
-70.2000;1.0753;0.2614;
-69.9000;1.0729;0.2614;
-69.6000;1.0745;0.2661;
-69.3000;1.0753;0.2637;
-69.0000;1.0737;0.2661;
-68.7000;1.0753;0.2684;
-68.4000;1.0729;0.2661;
-68.1000;1.0737;0.2731;
-67.8000;1.0745;0.2848;
-67.5000;1.0753;0.2918;
-67.2000;1.0745;0.2871;
-66.9000;1.0753;0.2824;
-66.6000;1.0753;0.2848;
-66.3000;1.0777;0.2894;
-66.0000;1.0753;0.2707;
-65.7000;1.0761;0.2801;
-65.4000;1.0761;0.2754;
-65.1000;1.0737;0.2661;
-64.8000;1.0753;0.2684;
-64.5000;1.0745;0.2684;
-64.2000;1.0761;0.2707;
-63.9000;1.0753;0.2707;
-63.6000;1.0737;0.2661;
-63.3000;1.0753;0.2614;
-63.0000;1.0761;0.2614;
-62.7000;1.0769;0.2567;
-62.4000;1.0761;0.2591;
-62.1000;1.0786;0.2707;
-61.8000;1.0761;0.2754;
-61.5000;1.0696;0.2567;
-61.2000;1.0786;0.2707;
-60.9000;1.0729;0.2637;
-60.6000;1.0745;0.2824;
-60.3000;1.0753;0.2824;
-60.0000;1.0745;0.2871;
-59.7000;1.0720;0.2848;
-59.4000;1.0753;0.2871;
-59.1000;1.0810;0.2988;
-58.8000;1.0753;0.2871;
-58.5000;1.0712;0.2801;
-58.2000;1.0794;0.3058;
-57.9000;1.0753;0.2848;
-57.6000;1.0745;0.2824;
-57.3000;1.0720;0.2754;
-57.0000;1.0737;0.2801;
-56.7000;1.0745;0.2918;
-56.4000;1.0753;0.2964;
-56.1000;1.0753;0.2988;
-55.8000;1.0753;0.3011;
-55.5000;1.0753;0.3011;
-55.2000;1.0745;0.3081;
-54.9000;1.0753;0.3034;
-54.6000;1.0753;0.3058;
-54.3000;1.0745;0.2941;
-54.0000;1.0769;0.2918;
-53.7000;1.0769;0.2894;
-53.4000;1.0753;0.2894;
-53.1000;1.0761;0.2848;
-52.8000;1.0745;0.2871;
-52.5000;1.0769;0.2894;
-52.2000;1.0737;0.2801;
-51.9000;1.0761;0.2848;
-51.6000;1.0769;0.2824;
-51.3000;1.0769;0.2871;
-51.0000;1.0753;0.2871;
-50.7000;1.0745;0.2871;
-50.4000;1.0769;0.3011;
-50.1000;1.0745;0.3011;
-49.8000;1.0729;0.2941;
-49.5000;1.0794;0.3011;
-49.2000;1.0729;0.2778;
-48.9000;1.0753;0.2824;
-48.6000;1.0769;0.2824;
-48.3000;1.0737;0.2824;
-48.0000;1.0810;0.2988;
-47.7000;1.0745;0.2824;
-47.4000;1.0753;0.2894;
-47.1000;1.0769;0.2894;
-46.8000;1.0753;0.2871;
-46.5000;1.0761;0.2848;
-46.2000;1.0761;0.2871;
-45.9000;1.0753;0.2871;
-45.6000;1.0745;0.2848;
-45.3000;1.0753;0.2778;
-45.0000;1.0753;0.2778;
-44.7000;1.0745;0.2848;
-44.4000;1.0794;0.2894;
-44.1000;1.0761;0.2824;
-43.8000;1.0761;0.2824;
-43.5000;1.0753;0.2871;
-43.2000;1.0753;0.2824;
-42.9000;1.0745;0.2707;
-42.6000;1.0753;0.2731;
-42.3000;1.0761;0.2778;
-42.0000;1.0769;0.2801;
-41.7000;1.0769;0.2801;
-41.4000;1.0753;0.2684;
-41.1000;1.0761;0.2731;
-40.8000;1.0753;0.2731;
-40.5000;1.0761;0.2707;
-40.2000;1.0826;0.2964;
-39.9000;1.0769;0.2894;
-39.6000;1.0777;0.2988;
-39.3000;1.0737;0.2918;
-39.0000;1.0720;0.2964;
-38.7000;1.0761;0.3034;
-38.4000;1.0761;0.2964;
-38.1000;1.0745;0.2894;
-37.8000;1.0737;0.2871;
-37.5000;1.0737;0.2871;
-37.2000;1.0712;0.2754;
-36.9000;1.0745;0.2778;
-36.6000;1.0704;0.2707;
-36.3000;1.0688;0.2778;
-36.0000;1.0769;0.2941;
-35.7000;1.0753;0.2894;
-35.4000;1.0745;0.2871;
-35.1000;1.0761;0.2894;
-34.8000;1.0761;0.3011;
-34.5000;1.0737;0.2918;
-34.2000;1.0753;0.2988;
-33.9000;1.0794;0.3081;
-33.6000;1.0729;0.2941;
-33.3000;1.0745;0.2964;
-33.0000;1.0753;0.2964;
-32.7000;1.0818;0.3081;
-32.4000;1.0753;0.2941;
-32.1000;1.0745;0.2941;
-31.8000;1.0753;0.2918;
-31.5000;1.0720;0.2894;
-31.2000;1.0761;0.2941;
-30.9000;1.0761;0.2941;
-30.6000;1.0769;0.2894;
-30.3000;1.0753;0.2918;
-30.0000;1.0769;0.3034;
-29.7000;1.0769;0.3034;
-29.4000;1.0753;0.3034;
-29.1000;1.0761;0.2988;
-28.8000;1.0745;0.2988;
-28.5000;1.0753;0.2964;
-28.2000;1.0769;0.2894;
-27.9000;1.0802;0.3011;
-27.6000;1.0737;0.2871;
-27.3000;1.0745;0.2848;
-27.0000;1.0761;0.2731;
-26.7000;1.0753;0.2778;
-26.4000;1.0729;0.2801;
-26.1000;1.0737;0.2801;
-25.8000;1.0769;0.2707;
-25.5000;1.0769;0.2754;
-25.2000;1.0753;0.2684;
-24.9000;1.0761;0.2754;
-24.6000;1.0786;0.2778;
-24.3000;1.0704;0.2591;
-24.0000;1.0737;0.2637;
-23.7000;1.0745;0.2661;
-23.4000;1.0720;0.2614;
-23.1000;1.0753;0.2754;
-22.8000;1.0729;0.2894;
-22.5000;1.0753;0.2894;
-22.2000;1.0745;0.2754;
-21.9000;1.0729;0.2731;
-21.6000;1.0753;0.2871;
-21.3000;1.0729;0.2894;
-21.0000;1.0745;0.2918;
-20.7000;1.0745;0.2894;
-20.4000;1.0745;0.2918;
-20.1000;1.0753;0.2871;
-19.8000;1.0737;0.2894;
-19.5000;1.0761;0.2941;
-19.2000;1.0753;0.2894;
-18.9000;1.0753;0.2778;
-18.6000;1.0761;0.2731;
-18.3000;1.0769;0.2801;
-18.0000;1.0802;0.2918;
-17.7000;1.0777;0.2778;
-17.4000;1.0745;0.2731;
-17.1000;1.0777;0.2778;
-16.8000;1.0777;0.2824;
-16.5000;1.0761;0.2848;
-16.2000;1.0769;0.2941;
-15.9000;1.0753;0.2894;
-15.6000;1.0761;0.2988;
-15.3000;1.0769;0.2988;
-15.0000;1.0777;0.2988;
-14.7000;1.0761;0.2988;
-14.4000;1.0745;0.2918;
-14.1000;1.0729;0.2941;
-13.8000;1.0753;0.2894;
-13.5000;1.0802;0.2964;
-13.2000;1.0761;0.2941;
-12.9000;1.0720;0.2918;
-12.6000;1.0777;0.2988;
-12.3000;1.0737;0.2894;
-12.0000;1.0745;0.2801;
-11.7000;1.0753;0.2801;
-11.4000;1.0745;0.2754;
-11.1000;1.0769;0.2824;
-10.8000;1.0704;0.2707;
-10.5000;1.0745;0.2778;
-10.2000;1.0794;0.2918;
-9.9000;1.0769;0.2778;
-9.6000;1.0745;0.2754;
-9.3000;1.0745;0.2848;
-9.0000;1.0786;0.2941;
-8.7000;1.0834;0.2964;
-8.4000;1.0745;0.2661;
-8.1000;1.0761;0.2754;
-7.8000;1.0777;0.2871;
-7.5000;1.0777;0.2824;
-7.2000;1.0753;0.2824;
-6.9000;1.0761;0.2894;
-6.6000;1.0745;0.2824;
-6.3000;1.0737;0.2801;
-6.0000;1.0737;0.2824;
-5.7000;1.0720;0.2707;
-5.4000;1.0753;0.2778;
-5.1000;1.0802;0.2824;
-4.8000;1.0802;0.2848;
-4.5000;1.0737;0.2731;
-4.2000;1.0769;0.2754;
-3.9000;1.0753;0.2778;
-3.6000;1.0769;0.2778;
-3.3000;1.0737;0.2707;
-3.0000;1.0769;0.2707;
-2.7000;1.0753;0.2684;
-2.4000;1.0859;0.2941;
-2.1000;1.0737;0.2707;
-1.8000;1.0745;0.2614;
-1.5000;1.0802;0.2778;
-1.2000;1.0737;0.2637;
-0.9000;1.0745;0.2661;
-0.6000;1.0704;0.2591;
-0.3000;1.0647;0.2451;
0.0000;1.0647;0.2451;
0.3000;1.0908;0.2918;
0.6000;1.1347;0.3594;
0.9000;1.1648;0.4015;
1.2000;1.1884;0.4435;
1.5000;1.2080;0.4878;
1.8000;1.2243;0.5275;
2.1000;1.2381;0.5532;
2.4000;1.2495;0.5718;
2.7000;1.2568;0.5882;
3.0000;1.2658;0.6069;
3.3000;1.2715;0.6115;
3.6000;1.2780;0.6255;
3.9000;1.2837;0.6279;
4.2000;1.2894;0.6325;
4.5000;1.2837;0.6185;
4.8000;1.2959;0.6512;
5.1000;1.3016;0.6489;
5.4000;1.3048;0.6489;
5.7000;1.3089;0.6559;
6.0000;1.3105;0.6419;
6.3000;1.3154;0.6535;
6.6000;1.3187;0.6605;
6.9000;1.3219;0.6535;
7.2000;1.3244;0.6535;
7.5000;1.3268;0.6629;
7.8000;1.3284;0.6652;
8.1000;1.3244;0.6535;
8.4000;1.3341;0.6605;
8.7000;1.3350;0.6675;
9.0000;1.3390;0.6792;
9.3000;1.3407;0.6839;
9.6000;1.3415;0.6745;
9.9000;1.3439;0.6792;
10.2000;1.3423;0.6699;
10.5000;1.3496;0.6862;
10.8000;1.3439;0.6652;
11.1000;1.3537;0.6769;
11.4000;1.3529;0.6722;
11.7000;1.3569;0.6815;
12.0000;1.3594;0.6745;
12.3000;1.3594;0.6722;
12.6000;1.3618;0.6769;
12.9000;1.3610;0.6745;
13.2000;1.3635;0.6769;
13.5000;1.3667;0.6815;
13.8000;1.3667;0.6815;
14.1000;1.3748;0.6932;
14.4000;1.3708;0.6839;
14.7000;1.3691;0.6815;
15.0000;1.3708;0.6769;
15.3000;1.3740;0.6722;
15.6000;1.3732;0.6769;
15.9000;1.3732;0.6769;
16.2000;1.3757;0.6769;
16.5000;1.3789;0.6862;
16.8000;1.3789;0.6792;
17.1000;1.3838;0.6932;
17.4000;1.3814;0.6839;
17.7000;1.3805;0.6769;
18.0000;1.3854;0.6839;
18.3000;1.3830;0.6839;
18.6000;1.3854;0.6815;
18.9000;1.3854;0.6839;
19.2000;1.3871;0.6839;
19.5000;1.3822;0.6675;
19.8000;1.3903;0.6815;
20.1000;1.3871;0.6769;
20.4000;1.3871;0.6792;
20.7000;1.3887;0.6839;
21.0000;1.3895;0.6815;
21.3000;1.3797;0.6535;
21.6000;1.3895;0.6722;
21.9000;1.3919;0.6792;
22.2000;1.3936;0.6885;
22.5000;1.3960;0.6932;
22.8000;1.3911;0.6699;
23.1000;1.3944;0.6699;
23.4000;1.3985;0.6792;
23.7000;1.3936;0.6675;
24.0000;1.3952;0.6675;
24.3000;1.3960;0.6652;
24.6000;1.3895;0.6535;
24.9000;1.3952;0.6722;
25.2000;1.3960;0.6629;
25.5000;1.3976;0.6652;
25.8000;1.3960;0.6652;
26.1000;1.3968;0.6629;
26.4000;1.3976;0.6605;
26.7000;1.4001;0.6559;
27.0000;1.4001;0.6442;
27.3000;1.4009;0.6419;
27.6000;1.4001;0.6419;
27.9000;1.4001;0.6442;
28.2000;1.4042;0.6559;
28.5000;1.3968;0.6372;
28.8000;1.4042;0.6535;
29.1000;1.4025;0.6535;
29.4000;1.4025;0.6535;
29.7000;1.4033;0.6489;
30.0000;1.4017;0.6489;
30.3000;1.4001;0.6512;
30.6000;1.4017;0.6512;
30.9000;1.4033;0.6629;
31.2000;1.4033;0.6629;
31.5000;1.4058;0.6745;
31.8000;1.4025;0.6675;
32.1000;1.4042;0.6769;
32.4000;1.4050;0.6769;
32.7000;1.4033;0.6745;
33.0000;1.4033;0.6745;
33.3000;1.4058;0.6722;
33.6000;1.4042;0.6652;
33.9000;1.4033;0.6745;
34.2000;1.4025;0.6769;
34.5000;1.4050;0.6885;
34.8000;1.4017;0.6792;
35.1000;1.4042;0.6815;
35.4000;1.4098;0.6955;
35.7000;1.4042;0.6815;
36.0000;1.4082;0.6815;
36.3000;1.4066;0.6745;
36.6000;1.4050;0.6675;
36.9000;1.4058;0.6652;
37.2000;1.4058;0.6582;
37.5000;1.4074;0.6559;
37.8000;1.4058;0.6605;
38.1000;1.4050;0.6605;
38.4000;1.4074;0.6629;
38.7000;1.4090;0.6629;
39.0000;1.4090;0.6605;
39.3000;1.4074;0.6489;
39.6000;1.4090;0.6512;
39.9000;1.4098;0.6629;
40.2000;1.4098;0.6699;
40.5000;1.4090;0.6722;
40.8000;1.4082;0.6675;
41.1000;1.4090;0.6699;
41.4000;1.4050;0.6559;
41.7000;1.4082;0.6582;
42.0000;1.4082;0.6512;
42.3000;1.4123;0.6652;
42.6000;1.4090;0.6559;
42.9000;1.4082;0.6489;
43.2000;1.4066;0.6442;
43.5000;1.4066;0.6465;
43.8000;1.4098;0.6652;
44.1000;1.4098;0.6769;
44.4000;1.4164;0.6885;
44.7000;1.4107;0.6699;
45.0000;1.4123;0.6722;
45.3000;1.4123;0.6582;
45.6000;1.4107;0.6535;
45.9000;1.4090;0.6559;
46.2000;1.4172;0.6769;
46.5000;1.4098;0.6559;
46.8000;1.4090;0.6489;
47.1000;1.4098;0.6559;
47.4000;1.4107;0.6699;
47.7000;1.4139;0.6722;
48.0000;1.4107;0.6582;
48.3000;1.4090;0.6582;
48.6000;1.4074;0.6442;
48.9000;1.4090;0.6465;
49.2000;1.4115;0.6419;
49.5000;1.4147;0.6489;
49.8000;1.4107;0.6395;
50.1000;1.4107;0.6465;
50.4000;1.4115;0.6489;
50.7000;1.4107;0.6512;
51.0000;1.4131;0.6675;
51.3000;1.4115;0.6535;
51.6000;1.4098;0.6535;
51.9000;1.4131;0.6605;
52.2000;1.4098;0.6582;
52.5000;1.4115;0.6535;
52.8000;1.4123;0.6559;
53.1000;1.4139;0.6629;
53.4000;1.4090;0.6442;
53.7000;1.4123;0.6489;
54.0000;1.4107;0.6489;
54.3000;1.4090;0.6442;
54.6000;1.4115;0.6559;
54.9000;1.4123;0.6559;
55.2000;1.4090;0.6465;
55.5000;1.4172;0.6629;
55.8000;1.4155;0.6535;
56.1000;1.4155;0.6535;
56.4000;1.4139;0.6489;
56.7000;1.4123;0.6395;
57.0000;1.4115;0.6372;
57.3000;1.4107;0.6325;
57.6000;1.4131;0.6372;
57.9000;1.4123;0.6302;
58.2000;1.4131;0.6302;
58.5000;1.4090;0.6279;
58.8000;1.4098;0.6302;
59.1000;1.4107;0.6255;
59.4000;1.4098;0.6279;
59.7000;1.4131;0.6372;
60.0000;1.4123;0.6325;
60.3000;1.4131;0.6395;
60.6000;1.4139;0.6442;
60.9000;1.4139;0.6395;
61.2000;1.4139;0.6302;
61.5000;1.4139;0.6255;
61.8000;1.4131;0.6279;
62.1000;1.4212;0.6512;
62.4000;1.4164;0.6302;
62.7000;1.4131;0.6255;
63.0000;1.4147;0.6302;
63.3000;1.4155;0.6255;
63.6000;1.4139;0.6255;
63.9000;1.4204;0.6465;
64.2000;1.4147;0.6372;
64.5000;1.4115;0.6372;
64.8000;1.4139;0.6442;
65.1000;1.4139;0.6489;
65.4000;1.4131;0.6419;
65.7000;1.4164;0.6465;
66.0000;1.4164;0.6395;
66.3000;1.4131;0.6372;
66.6000;1.4131;0.6442;
66.9000;1.4147;0.6489;
67.2000;1.4147;0.6512;
67.5000;1.4131;0.6512;
67.8000;1.4131;0.6559;
68.1000;1.4098;0.6535;
68.4000;1.4115;0.6582;
68.7000;1.4131;0.6605;
69.0000;1.4155;0.6489;
69.3000;1.4131;0.6349;
69.6000;1.4139;0.6442;
69.9000;1.4204;0.6652;
70.2000;1.4123;0.6559;
70.5000;1.4107;0.6419;
70.8000;1.4147;0.6535;
71.1000;1.4131;0.6512;
71.4000;1.4131;0.6465;
71.7000;1.4139;0.6349;
72.0000;1.4123;0.6279;
72.3000;1.4147;0.6372;
72.6000;1.4164;0.6419;
72.9000;1.4123;0.6349;
73.2000;1.4131;0.6395;
73.5000;1.4139;0.6535;
73.8000;1.4139;0.6535;
74.1000;1.4139;0.6465;
74.4000;1.4147;0.6465;
74.7000;1.4155;0.6512;
75.0000;1.4074;0.6302;
75.3000;1.4139;0.6349;
75.6000;1.4155;0.6325;
75.9000;1.4147;0.6325;
76.2000;1.4172;0.6442;
76.5000;1.4164;0.6372;
76.8000;1.4147;0.6372;
77.1000;1.4139;0.6325;
77.4000;1.4164;0.6442;
77.7000;1.4131;0.6395;
78.0000;1.4139;0.6442;
78.3000;1.4131;0.6559;
78.6000;1.4139;0.6489;
78.9000;1.4155;0.6512;
79.2000;1.4074;0.6325;
79.5000;1.4164;0.6582;
79.8000;1.4139;0.6582;
80.1000;1.4139;0.6559;
80.4000;1.4131;0.6559;
80.7000;1.4131;0.6535;
81.0000;1.4131;0.6512;
81.3000;1.4123;0.6512;
81.6000;1.4147;0.6535;
81.9000;1.4164;0.6629;
82.2000;1.4164;0.6652;
82.5000;1.4139;0.6559;
82.8000;1.4139;0.6559;
83.1000;1.4155;0.6605;
83.4000;1.4147;0.6582;
83.7000;1.4139;0.6605;
84.0000;1.4147;0.6442;
84.3000;1.4139;0.6372;
84.6000;1.4147;0.6395;
84.9000;1.4139;0.6372;
85.2000;1.4139;0.6349;
85.5000;1.4147;0.6185;
85.8000;1.4139;0.6092;
86.1000;1.4237;0.6395;
86.4000;1.4147;0.6209;
86.7000;1.4155;0.6185;
87.0000;1.4155;0.6209;
87.3000;1.4147;0.6185;
87.6000;1.4147;0.6185;
87.9000;1.4155;0.6232;
88.2000;1.4123;0.6162;
88.5000;1.4147;0.6302;
88.8000;1.4147;0.6255;
89.1000;1.4147;0.6232;
89.4000;1.4155;0.6162;
89.7000;1.4131;0.6115;
90.0000;1.4172;0.6185;
90.3000;1.4139;0.6162;
90.6000;1.4188;0.6349;
90.9000;1.4139;0.6325;
91.2000;1.4139;0.6372;
91.5000;1.4139;0.6419;
91.8000;1.4131;0.6535;
92.1000;1.4139;0.6535;
92.4000;1.4147;0.6582;
92.7000;1.4139;0.6582;
93.0000;1.4139;0.6652;
93.3000;1.4123;0.6629;
93.6000;1.4164;0.6699;
93.9000;1.4147;0.6629;
94.2000;1.4131;0.6512;
94.5000;1.4123;0.6535;
94.8000;1.4131;0.6535;
95.1000;1.4115;0.6512;
95.4000;1.4164;0.6652;
95.7000;1.4147;0.6582;
96.0000;1.4164;0.6582;
96.3000;1.4139;0.6605;
96.6000;1.4155;0.6652;
96.9000;1.4172;0.6699;
97.2000;1.4139;0.6605;
97.5000;1.4172;0.6722;
97.8000;1.4164;0.6745;
98.1000;1.4123;0.6652;
98.4000;1.4147;0.6629;
98.7000;1.4147;0.6605;
99.0000;1.4139;0.6605;
99.3000;1.4131;0.6512;
99.6000;1.4139;0.6605;
99.9000;1.4164;0.6559;
100.2000;1.4147;0.6465;
100.5000;1.4155;0.6442;
100.8000;1.4155;0.6372;
101.1000;1.4164;0.6349;
101.4000;1.4147;0.6325;
101.7000;1.4139;0.6372;
102.0000;1.4139;0.6372;
102.3000;1.4107;0.6325;
102.6000;1.4131;0.6419;
102.9000;1.4131;0.6465;
103.2000;1.4147;0.6489;
103.5000;1.4139;0.6442;
103.8000;1.4139;0.6512;
104.1000;1.4147;0.6629;
104.4000;1.4123;0.6582;
104.7000;1.4139;0.6582;
105.0000;1.4147;0.6559;
105.3000;1.4155;0.6629;
105.6000;1.4139;0.6489;
105.9000;1.4164;0.6629;
106.2000;1.4098;0.6419;
106.5000;1.4139;0.6419;
106.8000;1.4131;0.6465;
107.1000;1.4155;0.6582;
107.4000;1.4131;0.6559;
107.7000;1.4147;0.6512;
108.0000;1.4147;0.6535;
108.3000;1.4188;0.6699;
108.6000;1.4123;0.6442;
108.9000;1.4139;0.6512;
109.2000;1.4147;0.6535;
109.5000;1.4147;0.6512;
109.8000;1.4172;0.6605;
110.1000;1.4188;0.6699;
110.4000;1.4139;0.6512;
110.7000;1.4155;0.6582;
111.0000;1.4147;0.6535;
111.3000;1.4139;0.6442;
111.6000;1.4131;0.6489;
111.9000;1.4164;0.6652;
112.2000;1.4155;0.6629;
112.5000;1.4147;0.6605;
112.8000;1.4147;0.6652;
113.1000;1.4204;0.6792;
113.4000;1.4147;0.6652;
113.7000;1.4155;0.6582;
114.0000;1.4147;0.6372;
114.3000;1.4090;0.6255;
114.6000;1.4172;0.6489;
114.9000;1.4131;0.6419;
115.2000;1.4139;0.6395;
115.5000;1.4115;0.6395;
115.8000;1.4131;0.6442;
116.1000;1.4131;0.6395;
116.4000;1.4131;0.6325;
116.7000;1.4139;0.6325;
117.0000;1.4123;0.6419;
117.3000;1.4131;0.6442;
117.6000;1.4131;0.6372;
117.9000;1.4131;0.6349;
118.2000;1.4131;0.6349;
118.5000;1.4123;0.6325;
118.8000;1.4098;0.6232;
119.1000;1.4147;0.6372;
119.4000;1.4139;0.6372;
119.7000;1.4155;0.6395;
120.0000;1.4155;0.6442;
120.3000;1.4155;0.6512;
120.6000;1.4147;0.6512;
120.9000;1.4180;0.6582;
121.2000;1.4139;0.6535;
121.5000;1.4139;0.6465;
121.8000;1.4172;0.6582;
122.1000;1.4123;0.6489;
122.4000;1.4147;0.6629;
122.7000;1.4131;0.6582;
123.0000;1.4147;0.6559;
123.3000;1.4172;0.6605;
123.6000;1.4147;0.6535;
123.9000;1.4147;0.6605;
124.2000;1.4155;0.6582;
124.5000;1.4139;0.6559;
124.8000;1.4155;0.6652;
125.1000;1.4155;0.6699;
125.4000;1.4155;0.6535;
125.7000;1.4172;0.6559;
126.0000;1.4139;0.6512;
126.3000;1.4237;0.6722;
126.6000;1.4123;0.6535;
126.9000;1.4147;0.6605;
127.2000;1.4147;0.6535;
127.5000;1.4155;0.6442;
127.8000;1.4123;0.6349;
128.1000;1.4131;0.6349;
128.4000;1.4131;0.6325;
128.7000;1.4155;0.6419;
129.0000;1.4107;0.6372;
129.3000;1.4188;0.6582;
129.6000;1.4139;0.6582;
129.9000;1.4155;0.6675;
130.2000;1.4164;0.6769;
130.5000;1.4155;0.6839;
130.8000;1.4131;0.6862;
131.1000;1.4155;0.6885;
131.4000;1.4147;0.6862;
131.7000;1.4147;0.6839;
132.0000;1.4155;0.6862;
132.3000;1.4164;0.6885;
132.6000;1.4155;0.6862;
132.9000;1.4147;0.6769;
133.2000;1.4131;0.6629;
133.5000;1.4155;0.6605;
133.8000;1.4172;0.6629;
134.1000;1.4155;0.6582;
134.4000;1.4155;0.6535;
134.7000;1.4147;0.6582;
135.0000;1.4164;0.6605;
135.3000;1.4196;0.6769;
135.6000;1.4155;0.6675;
135.9000;1.4139;0.6559;
136.2000;1.4107;0.6465;
136.5000;1.4147;0.6535;
136.8000;1.4139;0.6582;
137.1000;1.4164;0.6629;
137.4000;1.4147;0.6582;
137.7000;1.4139;0.6605;
138.0000;1.4147;0.6652;
138.3000;1.4107;0.6535;
138.6000;1.4188;0.6675;
138.9000;1.4131;0.6535;
139.2000;1.4115;0.6535;
139.5000;1.4147;0.6652;
139.8000;1.4155;0.6699;
140.1000;1.4164;0.6722;
140.4000;1.4155;0.6769;
140.7000;1.4139;0.6769;
141.0000;1.4131;0.6745;
141.3000;1.4147;0.6722;
141.6000;1.4147;0.6815;
141.9000;1.4139;0.6769;
142.2000;1.4139;0.6722;
142.5000;1.4139;0.6675;
142.8000;1.4107;0.6582;
143.1000;1.4123;0.6652;
143.4000;1.4147;0.6722;
143.7000;1.4147;0.6722;
144.0000;1.4147;0.6792;
144.3000;1.4172;0.6862;
144.6000;1.4164;0.6839;
144.9000;1.4155;0.6839;
145.2000;1.4147;0.6769;
145.5000;1.4147;0.6745;
145.8000;1.4147;0.6699;
146.1000;1.4131;0.6769;
146.4000;1.4155;0.6815;
146.7000;1.4155;0.6769;
147.0000;1.4115;0.6629;
147.3000;1.4155;0.6745;
147.6000;1.4147;0.6792;
147.9000;1.4139;0.6699;
148.2000;1.4164;0.6699;
148.5000;1.4139;0.6722;
148.8000;1.4155;0.6769;
149.1000;1.4155;0.6792;
149.4000;1.4139;0.6769;
149.7000;1.4147;0.6722;
150.0000;1.4139;0.6769;
150.3000;1.4180;0.6839;
150.6000;1.4204;0.6955;
150.9000;1.4139;0.6745;
151.2000;1.4155;0.6862;
151.5000;1.4139;0.6955;
151.8000;1.4098;0.6815;
152.1000;1.4155;0.6909;
152.4000;1.4139;0.6839;
152.7000;1.4164;0.6955;
153.0000;1.4204;0.7002;
153.3000;1.4147;0.6792;
153.6000;1.4131;0.6792;
153.9000;1.4115;0.6605;
154.2000;1.4139;0.6559;
154.5000;1.4147;0.6559;
154.8000;1.4131;0.6489;
155.1000;1.4139;0.6535;
155.4000;1.4155;0.6512;
155.7000;1.4155;0.6652;
156.0000;1.4123;0.6629;
156.3000;1.4139;0.6699;
156.6000;1.4147;0.6675;
156.9000;1.4155;0.6769;
157.2000;1.4155;0.6652;
157.5000;1.4147;0.6605;
157.8000;1.4164;0.6582;
158.1000;1.4147;0.6489;
158.4000;1.4172;0.6489;
158.7000;1.4155;0.6442;
159.0000;1.4139;0.6465;
159.3000;1.4139;0.6559;
159.6000;1.4147;0.6489;
159.9000;1.4107;0.6395;
160.2000;1.4147;0.6465;
160.5000;1.4139;0.6442;
160.8000;1.4139;0.6512;
161.1000;1.4131;0.6465;
161.4000;1.4139;0.6512;
161.7000;1.4131;0.6442;
162.0000;1.4098;0.6349;
162.3000;1.4147;0.6489;
162.6000;1.4107;0.6442;
162.9000;1.4107;0.6349;
163.2000;1.4115;0.6442;
163.5000;1.4147;0.6605;
163.8000;1.4229;0.6745;
164.1000;1.4115;0.6465;
164.4000;1.4131;0.6512;
164.7000;1.4139;0.6629;
165.0000;1.4139;0.6652;
165.3000;1.4131;0.6582;
165.6000;1.4123;0.6605;
165.9000;1.4082;0.6512;
166.2000;1.4147;0.6652;
166.5000;1.4147;0.6699;
166.8000;1.4107;0.6629;
167.1000;1.4172;0.6862;
167.4000;1.4139;0.6699;
167.7000;1.4139;0.6745;
168.0000;1.4147;0.6885;
168.3000;1.4139;0.6792;
168.6000;1.4107;0.6559;
168.9000;1.4180;0.6815;
169.2000;1.4147;0.6699;
169.5000;1.4131;0.6675;
169.8000;1.4147;0.6745;
170.1000;1.4139;0.6722;
170.4000;1.4155;0.6769;
170.7000;1.4107;0.6652;
171.0000;1.4131;0.6652;
171.3000;1.4131;0.6675;
171.6000;1.4131;0.6675;
171.9000;1.4139;0.6699;
172.2000;1.4164;0.6722;
172.5000;1.4139;0.6652;
172.8000;1.4155;0.6675;
173.1000;1.4131;0.6629;
173.4000;1.4139;0.6629;
173.7000;1.4147;0.6582;
174.0000;1.4155;0.6629;
174.3000;1.4139;0.6652;
174.6000;1.4188;0.6885;
174.9000;1.4147;0.6792;
175.2000;1.4139;0.6745;
175.5000;1.4123;0.6605;
175.8000;1.4139;0.6629;
176.1000;1.4090;0.6582;
176.4000;1.4131;0.6722;
176.7000;1.4123;0.6652;
177.0000;1.4123;0.6535;
177.3000;1.4123;0.6559;
177.6000;1.4147;0.6629;
177.9000;1.4131;0.6582;
178.2000;1.4147;0.6535;
178.5000;1.4147;0.6419;
178.8000;1.4147;0.6419;
179.1000;1.4155;0.6419;
179.4000;1.4147;0.6349;
179.7000;1.4131;0.6372;
180.0000;1.4147;0.6395;
180.3000;1.4131;0.6372;
180.6000;1.4164;0.6512;
180.9000;1.4131;0.6465;
181.2000;1.4139;0.6465;
181.5000;1.4115;0.6372;
181.8000;1.4131;0.6349;
182.1000;1.4082;0.6279;
182.4000;1.4147;0.6559;
182.7000;1.4123;0.6512;
183.0000;1.4139;0.6535;
183.3000;1.4131;0.6489;
183.6000;1.4115;0.6465;
183.9000;1.4139;0.6512;
184.2000;1.4155;0.6605;
184.5000;1.4139;0.6675;
184.8000;1.4123;0.6582;
185.1000;1.4131;0.6605;
185.4000;1.4074;0.6465;
185.7000;1.4131;0.6605;
186.0000;1.4123;0.6442;
186.3000;1.4131;0.6489;
186.6000;1.4107;0.6372;
186.9000;1.4123;0.6419;
187.2000;1.4147;0.6489;
187.5000;1.4050;0.6302;
187.8000;1.4123;0.6465;
188.1000;1.4131;0.6349;
188.4000;1.4147;0.6372;
188.7000;1.4139;0.6349;
189.0000;1.4139;0.6395;
189.3000;1.4155;0.6419;
189.6000;1.4123;0.6302;
189.9000;1.4139;0.6325;
190.2000;1.4155;0.6349;
190.5000;1.4155;0.6349;
190.8000;1.4139;0.6349;
191.1000;1.4090;0.6209;
191.4000;1.4147;0.6302;
191.7000;1.4155;0.6395;
192.0000;1.4115;0.6349;
192.3000;1.4139;0.6395;
192.6000;1.4131;0.6465;
192.9000;1.4131;0.6559;
193.2000;1.4139;0.6652;
193.5000;1.4155;0.6559;
193.8000;1.4139;0.6512;
194.1000;1.4123;0.6419;
194.4000;1.4147;0.6559;
194.7000;1.4107;0.6512;
195.0000;1.4139;0.6535;
195.3000;1.4155;0.6489;
195.6000;1.4147;0.6489;
195.9000;1.4147;0.6559;
196.2000;1.4139;0.6535;
196.5000;1.4123;0.6442;
196.8000;1.4155;0.6465;
197.1000;1.4147;0.6302;
197.4000;1.4123;0.6279;
197.7000;1.4107;0.6395;
198.0000;1.4131;0.6442;
198.3000;1.4123;0.6349;
198.6000;1.4123;0.6372;
198.9000;1.4164;0.6465;
199.2000;1.4131;0.6512;
199.5000;1.4139;0.6535;
199.8000;1.4155;0.6559;
200.1000;1.4123;0.6512;
200.4000;1.4131;0.6442;
200.7000;1.4131;0.6372;
201.0000;1.4123;0.6325;
201.3000;1.4123;0.6255;
201.6000;1.4123;0.6279;
201.9000;1.4123;0.6302;
202.2000;1.4131;0.6232;
202.5000;1.4123;0.6302;
202.8000;1.4131;0.6349;
203.1000;1.4147;0.6465;
203.4000;1.4155;0.6559;
203.7000;1.4147;0.6465;
204.0000;1.4139;0.6419;
204.3000;1.4131;0.6395;
204.6000;1.4147;0.6465;
204.9000;1.4164;0.6512;
205.2000;1.4131;0.6442;
205.5000;1.4123;0.6465;
205.8000;1.4147;0.6582;
206.1000;1.4139;0.6605;
206.4000;1.4147;0.6559;
206.7000;1.4131;0.6465;
207.0000;1.4139;0.6442;
207.3000;1.4131;0.6395;
207.6000;1.4090;0.6232;
207.9000;1.4131;0.6349;
208.2000;1.4131;0.6279;
208.5000;1.4147;0.6349;
208.8000;1.4082;0.6255;
209.1000;1.4155;0.6465;
209.4000;1.4147;0.6465;
209.7000;1.4131;0.6442;
210.0000;1.4147;0.6465;
210.3000;1.4115;0.6465;
210.6000;1.4090;0.6489;
210.9000;1.4139;0.6582;
211.2000;1.4139;0.6512;
211.5000;1.4131;0.6512;
211.8000;1.4115;0.6395;
212.1000;1.4123;0.6465;
212.4000;1.4131;0.6465;
212.7000;1.4131;0.6489;
213.0000;1.4131;0.6442;
213.3000;1.4139;0.6419;
213.6000;1.4139;0.6442;
213.9000;1.4139;0.6419;
214.2000;1.4139;0.6372;
214.5000;1.4139;0.6325;
214.8000;1.4131;0.6349;
215.1000;1.4212;0.6465;
215.4000;1.4139;0.6442;
215.7000;1.4123;0.6465;
216.0000;1.4147;0.6442;
216.3000;1.4139;0.6419;
216.6000;1.4131;0.6465;
216.9000;1.4139;0.6465;
217.2000;1.4131;0.6512;
217.5000;1.4139;0.6442;
217.8000;1.4139;0.6535;
218.1000;1.4155;0.6582;
218.4000;1.4131;0.6582;
218.7000;1.4139;0.6582;
219.0000;1.4139;0.6629;
219.3000;1.4115;0.6559;
219.6000;1.4147;0.6675;
219.9000;1.4131;0.6605;
220.2000;1.4139;0.6605;
220.5000;1.4131;0.6512;
220.8000;1.4131;0.6442;
221.1000;1.4188;0.6535;
221.4000;1.4164;0.6419;
221.7000;1.4115;0.6302;
222.0000;1.4123;0.6372;
222.3000;1.4204;0.6465;
222.6000;1.4196;0.6395;
222.9000;1.4147;0.6349;
223.2000;1.4139;0.6372;
223.5000;1.4123;0.6349;
223.8000;1.4196;0.6419;
224.1000;1.4082;0.6115;
224.4000;1.4123;0.6255;
224.7000;1.4098;0.6372;
225.0000;1.4123;0.6419;
225.3000;1.4131;0.6465;
225.6000;1.4147;0.6512;
225.9000;1.4155;0.6535;
226.2000;1.4123;0.6535;
226.5000;1.4139;0.6442;
226.8000;1.4155;0.6442;
227.1000;1.4172;0.6465;
227.4000;1.4115;0.6349;
227.7000;1.4147;0.6395;
228.0000;1.4139;0.6372;
228.3000;1.4131;0.6279;
228.6000;1.4164;0.6279;
228.9000;1.4139;0.6279;
229.2000;1.4131;0.6255;
229.5000;1.4123;0.6349;
229.8000;1.4131;0.6372;
230.1000;1.4164;0.6442;
230.4000;1.4131;0.6279;
230.7000;1.4139;0.6255;
231.0000;1.4123;0.6232;
231.3000;1.4107;0.6162;
231.6000;1.4131;0.6232;
231.9000;1.4066;0.5998;
232.2000;1.4098;0.6045;
232.5000;1.4107;0.6045;
232.8000;1.4131;0.6069;
233.1000;1.4107;0.5952;
233.4000;1.4204;0.6209;
233.7000;1.4115;0.6069;
234.0000;1.4115;0.6069;
234.3000;1.4180;0.6139;
234.6000;1.4147;0.6115;
234.9000;1.4050;0.5905;
235.2000;1.4115;0.5975;
235.5000;1.4139;0.6092;
235.8000;1.4123;0.6139;
236.1000;1.4131;0.6115;
236.4000;1.4123;0.6115;
236.7000;1.4115;0.6115;
237.0000;1.4139;0.6209;
237.3000;1.4131;0.6232;
237.6000;1.4123;0.6185;
237.9000;1.4139;0.6185;
238.2000;1.4188;0.6279;
238.5000;1.4123;0.6115;
238.8000;1.4147;0.6325;
239.1000;1.4131;0.6349;
239.4000;1.4139;0.6349;
239.7000;1.4147;0.6279;
240.0000;1.4139;0.6232;
240.3000;1.4123;0.6279;
240.6000;1.4131;0.6349;
240.9000;1.4131;0.6302;
241.2000;1.4131;0.6185;
241.5000;1.4123;0.6092;
241.8000;1.4139;0.6209;
242.1000;1.4147;0.6302;
242.4000;1.4147;0.6185;
242.7000;1.4188;0.6255;
243.0000;1.4155;0.6302;
243.3000;1.4131;0.6349;
243.6000;1.4164;0.6465;
243.9000;1.4123;0.6442;
244.2000;1.4131;0.6512;
244.5000;1.4123;0.6582;
244.8000;1.4074;0.6442;
245.1000;1.4115;0.6442;
245.4000;1.4115;0.6395;
245.7000;1.4139;0.6395;
246.0000;1.4082;0.6302;
246.3000;1.4042;0.6209;
246.6000;1.4123;0.6372;
246.9000;1.4131;0.6325;
247.2000;1.4147;0.6419;
247.5000;1.4139;0.6372;
247.8000;1.4115;0.6279;
248.1000;1.4139;0.6349;
248.4000;1.4147;0.6372;
248.7000;1.4123;0.6349;
249.0000;1.4131;0.6395;
249.3000;1.4131;0.6419;
249.6000;1.4123;0.6419;
249.9000;1.4123;0.6395;
250.2000;1.4123;0.6349;
250.5000;1.4139;0.6349;
250.8000;1.4123;0.6419;
251.1000;1.4131;0.6372;
251.4000;1.4131;0.6372;
251.7000;1.4107;0.6279;
252.0000;1.4074;0.6162;
252.3000;1.4107;0.6302;
252.6000;1.4131;0.6419;
252.9000;1.4131;0.6419;
253.2000;1.4139;0.6512;
253.5000;1.4172;0.6629;
253.8000;1.4139;0.6512;
254.1000;1.4147;0.6559;
254.4000;1.4115;0.6395;
254.7000;1.4131;0.6442;
255.0000;1.4123;0.6419;
255.3000;1.4115;0.6395;
255.6000;1.4188;0.6512;
255.9000;1.4107;0.6325;
256.2000;1.4123;0.6302;
256.5000;1.4123;0.6349;
256.8000;1.4123;0.6349;
257.1000;1.4123;0.6395;
257.4000;1.4115;0.6395;
257.7000;1.4131;0.6512;
258.0000;1.4115;0.6489;
258.3000;1.4131;0.6442;
258.6000;1.4058;0.6279;
258.9000;1.4147;0.6465;
259.2000;1.4123;0.6535;
259.5000;1.4107;0.6419;
259.8000;1.4123;0.6395;
260.1000;1.4098;0.6279;
260.4000;1.4115;0.6255;
260.7000;1.4155;0.6349;
261.0000;1.4123;0.6232;
261.3000;1.4123;0.6302;
261.6000;1.4188;0.6582;
261.9000;1.4123;0.6255;
262.2000;1.4066;0.6092;
262.5000;1.4147;0.6232;
262.8000;1.4131;0.6279;
263.1000;1.4090;0.6232;
263.4000;1.4131;0.6349;
263.7000;1.4123;0.6395;
264.0000;1.4139;0.6419;
264.3000;1.4123;0.6372;
264.6000;1.4139;0.6419;
264.9000;1.4123;0.6442;
265.2000;1.4131;0.6465;
265.5000;1.4123;0.6419;
265.8000;1.4115;0.6372;
266.1000;1.4115;0.6395;
266.4000;1.4131;0.6465;
266.7000;1.4164;0.6442;
267.0000;1.4139;0.6325;
267.3000;1.4131;0.6325;
267.6000;1.4139;0.6325;
267.9000;1.4139;0.6302;
268.2000;1.4123;0.6232;
268.5000;1.4131;0.6255;
268.8000;1.4107;0.6372;
269.1000;1.4123;0.6442;
269.4000;1.4131;0.6442;
269.7000;1.4098;0.6419;
270.0000;1.4107;0.6419;
270.3000;1.4131;0.6489;
270.6000;1.4123;0.6419;
270.9000;1.4131;0.6465;
271.2000;1.4115;0.6442;
271.5000;1.4107;0.6535;
271.8000;1.4123;0.6629;
272.1000;1.4115;0.6559;
272.4000;1.4115;0.6582;
272.7000;1.4123;0.6652;
273.0000;1.4139;0.6675;
273.3000;1.4131;0.6559;
273.6000;1.4123;0.6582;
273.9000;1.4115;0.6559;
274.2000;1.4123;0.6605;
274.5000;1.4123;0.6559;
274.8000;1.4147;0.6605;
275.1000;1.4098;0.6512;
275.4000;1.4131;0.6629;
275.7000;1.4131;0.6605;
276.0000;1.4115;0.6512;
276.3000;1.4123;0.6489;
276.6000;1.4196;0.6605;
276.9000;1.4123;0.6442;
277.2000;1.4131;0.6465;
277.5000;1.4115;0.6442;
277.8000;1.4123;0.6582;
278.1000;1.4131;0.6559;
278.4000;1.4131;0.6535;
278.7000;1.4139;0.6605;
279.0000;1.4147;0.6629;
279.3000;1.4139;0.6629;
279.6000;1.4131;0.6512;
279.9000;1.4123;0.6442;
280.2000;1.4123;0.6395;
280.5000;1.4042;0.6255;
280.8000;1.4139;0.6535;
281.1000;1.4139;0.6582;
281.4000;1.4123;0.6465;
281.7000;1.4074;0.6395;
282.0000;1.4131;0.6535;
282.3000;1.4107;0.6489;
282.6000;1.4066;0.6302;
282.9000;1.4131;0.6372;
283.2000;1.4090;0.6349;
283.5000;1.4098;0.6395;
283.8000;1.4123;0.6489;
284.1000;1.4139;0.6442;
284.4000;1.4147;0.6512;
284.7000;1.4139;0.6512;
285.0000;1.4180;0.6605;
285.3000;1.4123;0.6559;
285.6000;1.4131;0.6605;
285.9000;1.4196;0.6792;
286.2000;1.4115;0.6559;
286.5000;1.4115;0.6605;
286.8000;1.4123;0.6629;
287.1000;1.4131;0.6675;
287.4000;1.4155;0.6652;
287.7000;1.4131;0.6582;
288.0000;1.4131;0.6582;
288.3000;1.4139;0.6489;
288.6000;1.4107;0.6395;
288.9000;1.4098;0.6372;
289.2000;1.4131;0.6395;
289.5000;1.4147;0.6372;
289.8000;1.4147;0.6419;
290.1000;1.4147;0.6442;
290.4000;1.4139;0.6442;
290.7000;1.4139;0.6419;
291.0000;1.4139;0.6442;
291.3000;1.4147;0.6419;
291.6000;1.4131;0.6325;
291.9000;1.4107;0.6185;
292.2000;1.4131;0.6255;
292.5000;1.4131;0.6279;
292.8000;1.4131;0.6279;
293.1000;1.4131;0.6349;
293.4000;1.4164;0.6489;
293.7000;1.4139;0.6442;
294.0000;1.4123;0.6395;
294.3000;1.4180;0.6582;
294.6000;1.4115;0.6419;
294.9000;1.4147;0.6419;
295.2000;1.4131;0.6442;
295.5000;1.4131;0.6325;
295.8000;1.4131;0.6302;
296.1000;1.4131;0.6232;
296.4000;1.4123;0.6209;
296.7000;1.4123;0.6232;
297.0000;1.4147;0.6349;
297.3000;1.4131;0.6279;
297.6000;1.4123;0.6279;
297.9000;1.4098;0.6255;
298.2000;1.4107;0.6255;
298.5000;1.4107;0.6255;
298.8000;1.4139;0.6232;
299.1000;1.4123;0.6185;
299.4000;1.4131;0.6255;
299.7000;1.4131;0.6302;
300.0000;1.4147;0.6302;
300.3000;1.4131;0.6302;
300.6000;1.4147;0.6395;
300.9000;1.4131;0.6419;
301.2000;1.4139;0.6465;
301.5000;1.4107;0.6325;
301.8000;1.4107;0.6349;
302.1000;1.4074;0.6349;
302.4000;1.4139;0.6442;
302.7000;1.4115;0.6419;
303.0000;1.4139;0.6465;
303.3000;1.4115;0.6442;
303.6000;1.4147;0.6489;
303.9000;1.4107;0.6442;
304.2000;1.4123;0.6489;
304.5000;1.4098;0.6419;
304.8000;1.4139;0.6442;
305.1000;1.4131;0.6465;
305.4000;1.4082;0.6255;
305.7000;1.4155;0.6489;
306.0000;1.4147;0.6349;
306.3000;1.4164;0.6302;
306.6000;1.4147;0.6325;
306.9000;1.4164;0.6349;
307.2000;1.4139;0.6302;
307.5000;1.4131;0.6442;
307.8000;1.4139;0.6489;
308.1000;1.4115;0.6442;
308.4000;1.4139;0.6535;
308.7000;1.4123;0.6559;
309.0000;1.4139;0.6629;
309.3000;1.4115;0.6559;
309.6000;1.4098;0.6512;
309.9000;1.4082;0.6535;
310.2000;1.4139;0.6582;
310.5000;1.4139;0.6605;
310.8000;1.4098;0.6489;
311.1000;1.4131;0.6559;
311.4000;1.4131;0.6559;
311.7000;1.4139;0.6559;
312.0000;1.4212;0.6792;
312.3000;1.4131;0.6652;
312.6000;1.4123;0.6675;
312.9000;1.4123;0.6675;
313.2000;1.4123;0.6652;
313.5000;1.4058;0.6442;
313.8000;1.4115;0.6605;
314.1000;1.4115;0.6489;
314.4000;1.4107;0.6465;
314.7000;1.4123;0.6512;
315.0000;1.4107;0.6465;
315.3000;1.4131;0.6535;
315.6000;1.4123;0.6559;
315.9000;1.4115;0.6512;
316.2000;1.4107;0.6559;
316.5000;1.4139;0.6559;
316.8000;1.4131;0.6582;
317.1000;1.4139;0.6535;
317.4000;1.4115;0.6535;
317.7000;1.4131;0.6465;
318.0000;1.4155;0.6442;
318.3000;1.4123;0.6465;
318.6000;1.4115;0.6559;
318.9000;1.4115;0.6535;
319.2000;1.4115;0.6512;
319.5000;1.4115;0.6512;
319.8000;1.4074;0.6465;
320.1000;1.4107;0.6535;
320.4000;1.4107;0.6512;
320.7000;1.4107;0.6489;
321.0000;1.4107;0.6419;
321.3000;1.4115;0.6302;
321.6000;1.4139;0.6325;
321.9000;1.4115;0.6325;
322.2000;1.4139;0.6442;
322.5000;1.4115;0.6372;
322.8000;1.4147;0.6465;
323.1000;1.4164;0.6605;
323.4000;1.4131;0.6489;
323.7000;1.4107;0.6489;
324.0000;1.4098;0.6512;
324.3000;1.4107;0.6559;
324.6000;1.4188;0.6722;
324.9000;1.4098;0.6652;
325.2000;1.4123;0.6675;
325.5000;1.4115;0.6699;
325.8000;1.4123;0.6745;
326.1000;1.4107;0.6652;
326.4000;1.4115;0.6675;
326.7000;1.4139;0.6605;
327.0000;1.4147;0.6582;
327.3000;1.4131;0.6442;
327.6000;1.4115;0.6419;
327.9000;1.4139;0.6372;
328.2000;1.4115;0.6395;
328.5000;1.4107;0.6372;
328.8000;1.4115;0.6232;
329.1000;1.4139;0.6209;
329.4000;1.4131;0.6209;
329.7000;1.4147;0.6209;
330.0000;1.4131;0.6185;
330.3000;1.4107;0.6162;
330.6000;1.4115;0.6139;
330.9000;1.4155;0.6185;
331.2000;1.4115;0.6232;
331.5000;1.4131;0.6372;
331.8000;1.4123;0.6349;
332.1000;1.4123;0.6325;
332.4000;1.4123;0.6395;
332.7000;1.4115;0.6442;
333.0000;1.4107;0.6442;
333.3000;1.4115;0.6419;
333.6000;1.4115;0.6442;
333.9000;1.4123;0.6442;
334.2000;1.4115;0.6442;
334.5000;1.4115;0.6465;
334.8000;1.4058;0.6302;
335.1000;1.4115;0.6465;
335.4000;1.4090;0.6395;
335.7000;1.4115;0.6442;
336.0000;1.4123;0.6559;
336.3000;1.4131;0.6512;
336.6000;1.4098;0.6395;
336.9000;1.4147;0.6395;
337.2000;1.4131;0.6395;
337.5000;1.4098;0.6279;
337.8000;1.4131;0.6325;
338.1000;1.4115;0.6255;
338.4000;1.4131;0.6279;
338.7000;1.4115;0.6279;
339.0000;1.4107;0.6279;
339.3000;1.4164;0.6465;
339.6000;1.4107;0.6442;
339.9000;1.4107;0.6465;
340.2000;1.4123;0.6489;
340.5000;1.4098;0.6395;
340.8000;1.4107;0.6395;
341.1000;1.4115;0.6512;
341.4000;1.4131;0.6652;
341.7000;1.4123;0.6535;
342.0000;1.4131;0.6605;
342.3000;1.4139;0.6652;
342.6000;1.4131;0.6582;
342.9000;1.4123;0.6652;
343.2000;1.4107;0.6629;
343.5000;1.4123;0.6605;
343.8000;1.4107;0.6489;
344.1000;1.4131;0.6629;
344.4000;1.4131;0.6582;
344.7000;1.4107;0.6512;
345.0000;1.4107;0.6582;
345.3000;1.4123;0.6675;
345.6000;1.4123;0.6652;
345.9000;1.4115;0.6652;
346.2000;1.4115;0.6699;
346.5000;1.4131;0.6675;
346.8000;1.4123;0.6582;
347.1000;1.4131;0.6652;
347.4000;1.4131;0.6582;
347.7000;1.4131;0.6629;
348.0000;1.4131;0.6535;
348.3000;1.4115;0.6535;
348.6000;1.4115;0.6559;
348.9000;1.4131;0.6652;
349.2000;1.4123;0.6582;
349.5000;1.4115;0.6559;
349.8000;1.4098;0.6699;
350.1000;1.4139;0.6745;
350.4000;1.4123;0.6699;
350.7000;1.4098;0.6675;
351.0000;1.4098;0.6745;
351.3000;1.4123;0.6745;
351.6000;1.4115;0.6699;
351.9000;1.4115;0.6605;
352.2000;1.4155;0.6699;
352.5000;1.4147;0.6675;
352.8000;1.4107;0.6605;
353.1000;1.4147;0.6699;
353.4000;1.4131;0.6722;
353.7000;1.4139;0.6815;
354.0000;1.4155;0.6909;
354.3000;1.4107;0.6699;
354.6000;1.4107;0.6652;
354.9000;1.4139;0.6605;
355.2000;1.4131;0.6559;
355.5000;1.4139;0.6512;
355.8000;1.4107;0.6395;
356.1000;1.4139;0.6442;
356.4000;1.4123;0.6395;
356.7000;1.4139;0.6489;
357.0000;1.4098;0.6465;
357.3000;1.4090;0.6395;
357.6000;1.4115;0.6489;
357.9000;1.4131;0.6465;
358.2000;1.4107;0.6465;
358.5000;1.4115;0.6489;
358.8000;1.4115;0.6559;
359.1000;1.4131;0.6559;
359.4000;1.4123;0.6605;
359.7000;1.4123;0.6582;
360.0000;1.4098;0.6535;
360.3000;1.4115;0.6629;
360.6000;1.4139;0.6675;
360.9000;1.4123;0.6652;
361.2000;1.4139;0.6582;
361.5000;1.4098;0.6512;
361.8000;1.4131;0.6629;
362.1000;1.4098;0.6512;
362.4000;1.4098;0.6489;
362.7000;1.4123;0.6535;
363.0000;1.4123;0.6512;
363.3000;1.4115;0.6512;
363.6000;1.4115;0.6465;
363.9000;1.4107;0.6465;
364.2000;1.4107;0.6489;
364.5000;1.4115;0.6535;
364.8000;1.4115;0.6535;
365.1000;1.4115;0.6559;
365.4000;1.4123;0.6582;
365.7000;1.4123;0.6699;
366.0000;1.4107;0.6675;
366.3000;1.4115;0.6769;
366.6000;1.4123;0.6699;
366.9000;1.4123;0.6675;
367.2000;1.4115;0.6582;
367.5000;1.4107;0.6535;
367.8000;1.4107;0.6559;
368.1000;1.4123;0.6535;
368.4000;1.4107;0.6559;
368.7000;1.4107;0.6465;
369.0000;1.4123;0.6512;
369.3000;1.4123;0.6559;
369.6000;1.4107;0.6512;
369.9000;1.4066;0.6349;
370.2000;1.4107;0.6442;
370.5000;1.4115;0.6512;
370.8000;1.4107;0.6442;
371.1000;1.4107;0.6372;
371.4000;1.4098;0.6349;
371.7000;1.4139;0.6419;
372.0000;1.4131;0.6302;
372.3000;1.4115;0.6372;
372.6000;1.4123;0.6395;
372.9000;1.4115;0.6419;
373.2000;1.4115;0.6512;
373.5000;1.4098;0.6559;
373.8000;1.4115;0.6512;
374.1000;1.4090;0.6535;
374.4000;1.4115;0.6582;
374.7000;1.4115;0.6605;
375.0000;1.4082;0.6489;
375.3000;1.4123;0.6629;
375.6000;1.4180;0.6862;
375.9000;1.4139;0.6745;
376.2000;1.4074;0.6605;
376.5000;1.4139;0.6652;
376.8000;1.4107;0.6559;
377.1000;1.4147;0.6745;
377.4000;1.4123;0.6745;
377.7000;1.4066;0.6559;
378.0000;1.4115;0.6629;
378.3000;1.4115;0.6559;
378.6000;1.4033;0.6349;
378.9000;1.4115;0.6629;
379.2000;1.4098;0.6652;
379.5000;1.4115;0.6722;
379.8000;1.4123;0.6769;
380.1000;1.4123;0.6722;
380.4000;1.4123;0.6769;
380.7000;1.4098;0.6745;
381.0000;1.4131;0.6722;
381.3000;1.4131;0.6605;
381.6000;1.4115;0.6582;
381.9000;1.4139;0.6605;
382.2000;1.4139;0.6605;
382.5000;1.4115;0.6605;
382.8000;1.4107;0.6582;
383.1000;1.4131;0.6745;
383.4000;1.4131;0.6745;
383.7000;1.4074;0.6535;
384.0000;1.4123;0.6582;
384.3000;1.4123;0.6559;
384.6000;1.4115;0.6535;
384.9000;1.4155;0.6652;
385.2000;1.4123;0.6605;
385.5000;1.4123;0.6699;
385.8000;1.4139;0.6745;
386.1000;1.4139;0.6792;
386.4000;1.4082;0.6652;
386.7000;1.4107;0.6652;
387.0000;1.4058;0.6559;
387.3000;1.4107;0.6699;
387.6000;1.4098;0.6722;
387.9000;1.4107;0.6582;
388.2000;1.4090;0.6652;
388.5000;1.4098;0.6699;
388.8000;1.4123;0.6722;
389.1000;1.4090;0.6675;
389.4000;1.4098;0.6629;
389.7000;1.4098;0.6512;
390.0000;1.4115;0.6605;
390.3000;1.4123;0.6699;
390.6000;1.4107;0.6652;
390.9000;1.4107;0.6629;
391.2000;1.4123;0.6675;
391.5000;1.4123;0.6629;
391.8000;1.4115;0.6512;
392.1000;1.4147;0.6489;
392.4000;1.4123;0.6465;
392.7000;1.4115;0.6489;
393.0000;1.4107;0.6442;
393.3000;1.4107;0.6512;
393.6000;1.4155;0.6605;
393.9000;1.4188;0.6722;
394.2000;1.4115;0.6582;
394.5000;1.4123;0.6489;
394.8000;1.4131;0.6535;
395.1000;1.4139;0.6535;
395.4000;1.4131;0.6465;
395.7000;1.4098;0.6512;
396.0000;1.4115;0.6512;
396.3000;1.4123;0.6465;
396.6000;1.4115;0.6419;
396.9000;1.4139;0.6419;
397.2000;1.4123;0.6442;
397.5000;1.4147;0.6442;
397.8000;1.4123;0.6442;
398.1000;1.4123;0.6489;
398.4000;1.4123;0.6512;
398.7000;1.4090;0.6489;
399.0000;1.4164;0.6699;
399.3000;1.4115;0.6605;
399.6000;1.4107;0.6605;
399.9000;1.4115;0.6512;
400.2000;1.4107;0.6512;
400.5000;1.4082;0.6419;
400.8000;1.4107;0.6419;
401.1000;1.4107;0.6419;
401.4000;1.4131;0.6512;
401.7000;1.4090;0.6512;
402.0000;1.4180;0.6722;
402.3000;1.4098;0.6489;
402.6000;1.4164;0.6605;
402.9000;1.4098;0.6419;
403.2000;1.4107;0.6442;
403.5000;1.4115;0.6419;
403.8000;1.4090;0.6395;
404.1000;1.4123;0.6465;
404.4000;1.4123;0.6489;
404.7000;1.4098;0.6489;
405.0000;1.4090;0.6419;
405.3000;1.4115;0.6512;
405.6000;1.4115;0.6535;
405.9000;1.4082;0.6465;
406.2000;1.4115;0.6512;
406.5000;1.4098;0.6489;
406.8000;1.4098;0.6605;
407.1000;1.4123;0.6722;
407.4000;1.4180;0.6839;
407.7000;1.4147;0.6932;
408.0000;1.4107;0.6745;
408.3000;1.4155;0.6745;
408.6000;1.4115;0.6652;
408.9000;1.4107;0.6559;
409.2000;1.4131;0.6582;
409.5000;1.4042;0.6372;
409.8000;1.4115;0.6559;
410.1000;1.4131;0.6559;
410.4000;1.4164;0.6582;
410.7000;1.4172;0.6745;
411.0000;1.4098;0.6559;
411.3000;1.4098;0.6582;
411.6000;1.4107;0.6605;
411.9000;1.4115;0.6652;
412.2000;1.4123;0.6675;
412.5000;1.4115;0.6675;
412.8000;1.4115;0.6699;
413.1000;1.4115;0.6652;
413.4000;1.4107;0.6582;
413.7000;1.4115;0.6582;
414.0000;1.4115;0.6582;
414.3000;1.4123;0.6582;
414.6000;1.4115;0.6512;
414.9000;1.4074;0.6419;
415.2000;1.4090;0.6512;
415.5000;1.4131;0.6582;
415.8000;1.4131;0.6582;
416.1000;1.4107;0.6465;
416.4000;1.4090;0.6465;
416.7000;1.4123;0.6559;
417.0000;1.4115;0.6465;
417.3000;1.4115;0.6489;
417.6000;1.4115;0.6419;
417.9000;1.4098;0.6395;
418.2000;1.4139;0.6442;
418.5000;1.4147;0.6559;
418.8000;1.4139;0.6465;
419.1000;1.4139;0.6442;
419.4000;1.4139;0.6559;
419.7000;1.4139;0.6652;
420.0000;1.4147;0.6722;
420.3000;1.4107;0.6605;
420.6000;1.4107;0.6699;
420.9000;1.4139;0.6675;
421.2000;1.4131;0.6559;
421.5000;1.4188;0.6722;
421.8000;1.4107;0.6465;
422.1000;1.4123;0.6559;
422.4000;1.4115;0.6559;
422.7000;1.4107;0.6489;
423.0000;1.4107;0.6489;
423.3000;1.4115;0.6512;
423.6000;1.4082;0.6372;
423.9000;1.4090;0.6395;
424.2000;1.4123;0.6419;
424.5000;1.4139;0.6489;
424.8000;1.4123;0.6465;
425.1000;1.4123;0.6512;
425.4000;1.4098;0.6419;
425.7000;1.4098;0.6489;
426.0000;1.4107;0.6395;
426.3000;1.4098;0.6395;
426.6000;1.4098;0.6325;
426.9000;1.4098;0.6349;
427.2000;1.4107;0.6349;
427.5000;1.4090;0.6302;
427.8000;1.4107;0.6372;
428.1000;1.4098;0.6419;
428.4000;1.4107;0.6465;
428.7000;1.4123;0.6489;
429.0000;1.4131;0.6489;
429.3000;1.4123;0.6512;
429.6000;1.4098;0.6559;
429.9000;1.4131;0.6629;
430.2000;1.4115;0.6629;
430.5000;1.4107;0.6605;
430.8000;1.4098;0.6605;
431.1000;1.4107;0.6652;
431.4000;1.4098;0.6629;
431.7000;1.4115;0.6559;
432.0000;1.4115;0.6535;
432.3000;1.4131;0.6535;
432.6000;1.4123;0.6629;
432.9000;1.4050;0.6442;
433.2000;1.4090;0.6559;
433.5000;1.4188;0.6769;
433.8000;1.4115;0.6582;
434.1000;1.4107;0.6605;
434.4000;1.4042;0.6489;
434.7000;1.4139;0.6722;
435.0000;1.4107;0.6745;
435.3000;1.4107;0.6722;
435.6000;1.4098;0.6675;
435.9000;1.4082;0.6535;
436.2000;1.4107;0.6535;
436.5000;1.4115;0.6559;
436.8000;1.4107;0.6535;
437.1000;1.4123;0.6675;
437.4000;1.4115;0.6605;
437.7000;1.4107;0.6559;
438.0000;1.4107;0.6512;
438.3000;1.4074;0.6465;
438.6000;1.4098;0.6489;
438.9000;1.4123;0.6559;
439.2000;1.4123;0.6605;
439.5000;1.4115;0.6582;
439.8000;1.4131;0.6699;
440.1000;1.4123;0.6675;
440.4000;1.4115;0.6629;
440.7000;1.4098;0.6512;
441.0000;1.4115;0.6582;
441.3000;1.4107;0.6489;
441.6000;1.4139;0.6512;
441.9000;1.4058;0.6255;
442.2000;1.4107;0.6372;
442.5000;1.4115;0.6489;
442.8000;1.4115;0.6465;
443.1000;1.4107;0.6372;
443.4000;1.4115;0.6419;
443.7000;1.4139;0.6419;
444.0000;1.4123;0.6349;
444.3000;1.4131;0.6442;
444.6000;1.4098;0.6395;
444.9000;1.4147;0.6512;
445.2000;1.4123;0.6512;
445.5000;1.4139;0.6629;
445.8000;1.4115;0.6559;
446.1000;1.4155;0.6675;
446.4000;1.4172;0.6745;
446.7000;1.4115;0.6559;
447.0000;1.4050;0.6372;
447.3000;1.4107;0.6559;
447.6000;1.4090;0.6512;
447.9000;1.4098;0.6605;
448.2000;1.4098;0.6652;
448.5000;1.4123;0.6675;
448.8000;1.4123;0.6629;
449.1000;1.4107;0.6582;
449.4000;1.4123;0.6582;
449.7000;1.4115;0.6465;
450.0000;1.4115;0.6465;
450.3000;1.4115;0.6559;
450.6000;1.4115;0.6629;
450.9000;1.4115;0.6559;
451.2000;1.4115;0.6512;
451.5000;1.4090;0.6512;
451.8000;1.4123;0.6675;
452.1000;1.4098;0.6722;
452.4000;1.4090;0.6745;
452.7000;1.4066;0.6675;
453.0000;1.4107;0.6675;
453.3000;1.4090;0.6652;
453.6000;1.4107;0.6629;
453.9000;1.4115;0.6675;
454.2000;1.4123;0.6745;
454.5000;1.4107;0.6745;
454.8000;1.4196;0.6885;
455.1000;1.4115;0.6699;
455.4000;1.4090;0.6722;
455.7000;1.4115;0.6745;
456.0000;1.4115;0.6629;
456.3000;1.4098;0.6512;
456.6000;1.4107;0.6489;
456.9000;1.4107;0.6395;
457.2000;1.4123;0.6372;
457.5000;1.4123;0.6395;
457.8000;1.4115;0.6419;
458.1000;1.4123;0.6535;
458.4000;1.4123;0.6489;
458.7000;1.4131;0.6512;
459.0000;1.4123;0.6559;
459.3000;1.4107;0.6535;
459.6000;1.4123;0.6512;
459.9000;1.4123;0.6535;
460.2000;1.4107;0.6535;
460.5000;1.4115;0.6605;
460.8000;1.4107;0.6675;
461.1000;1.4115;0.6582;
461.4000;1.4123;0.6652;
461.7000;1.4107;0.6559;
462.0000;1.4123;0.6559;
462.3000;1.4115;0.6582;
462.6000;1.4123;0.6489;
462.9000;1.4115;0.6559;
463.2000;1.4115;0.6512;
463.5000;1.4139;0.6512;
463.8000;1.4139;0.6605;
464.1000;1.4050;0.6419;
464.4000;1.4115;0.6605;
464.7000;1.4139;0.6629;
465.0000;1.4139;0.6652;
465.3000;1.4164;0.6652;
465.6000;1.4123;0.6582;
465.9000;1.4123;0.6652;
466.2000;1.4131;0.6582;
466.5000;1.4107;0.6535;
466.8000;1.4107;0.6535;
467.1000;1.4123;0.6489;
467.4000;1.4131;0.6442;
467.7000;1.4098;0.6419;
468.0000;1.4050;0.6209;
468.3000;1.4107;0.6349;
468.6000;1.4098;0.6279;
468.9000;1.4090;0.6302;
469.2000;1.4098;0.6325;
469.5000;1.4107;0.6279;
469.8000;1.4123;0.6325;
470.1000;1.4115;0.6349;
470.4000;1.4115;0.6325;
470.7000;1.4115;0.6349;
471.0000;1.4098;0.6395;
471.3000;1.4123;0.6372;
471.6000;1.4123;0.6349;
471.9000;1.4098;0.6325;
472.2000;1.4107;0.6442;
472.5000;1.4107;0.6489;
472.8000;1.4115;0.6535;
473.1000;1.4139;0.6489;
473.4000;1.4123;0.6419;
473.7000;1.4123;0.6465;
474.0000;1.4115;0.6419;
474.3000;1.4107;0.6395;
474.6000;1.4115;0.6372;
474.9000;1.4115;0.6442;
475.2000;1.4107;0.6512;
475.5000;1.4098;0.6419;
475.8000;1.4090;0.6442;
476.1000;1.4115;0.6465;
476.4000;1.4115;0.6465;
476.7000;1.4098;0.6349;
477.0000;1.4082;0.6279;
477.3000;1.4098;0.6372;
477.6000;1.4107;0.6372;
477.9000;1.4082;0.6279;
478.2000;1.4107;0.6395;
478.5000;1.4115;0.6419;
478.8000;1.4090;0.6349;
479.1000;1.4098;0.6325;
479.4000;1.4115;0.6279;
479.7000;1.4107;0.6302;
480.0000;1.4098;0.6302;
480.3000;1.4115;0.6325;
480.6000;1.4107;0.6279;
480.9000;1.4090;0.6232;
481.2000;1.4115;0.6279;
481.5000;1.4098;0.6279;
481.8000;1.4131;0.6489;
482.1000;1.4082;0.6442;
482.4000;1.4107;0.6489;
482.7000;1.4164;0.6675;
483.0000;1.4098;0.6535;
483.3000;1.4082;0.6395;
483.6000;1.4107;0.6372;
483.9000;1.4115;0.6325;
484.2000;1.4098;0.6302;
484.5000;1.4115;0.6372;
484.8000;1.4107;0.6302;
485.1000;1.4123;0.6325;
485.4000;1.4115;0.6442;
485.7000;1.4131;0.6489;
486.0000;1.4107;0.6442;
486.3000;1.4139;0.6535;
486.6000;1.4115;0.6489;
486.9000;1.4115;0.6512;
487.2000;1.4196;0.6722;
487.5000;1.4107;0.6512;
487.8000;1.4221;0.6722;
488.1000;1.4188;0.6652;
488.4000;1.4115;0.6419;
488.7000;1.4098;0.6419;
489.0000;1.4212;0.6722;
489.3000;1.4098;0.6465;
489.6000;1.4074;0.6372;
489.9000;1.4098;0.6372;
490.2000;1.4107;0.6302;
490.5000;1.4123;0.6279;
490.8000;1.4123;0.6232;
491.1000;1.4098;0.6139;
491.4000;1.4098;0.6162;
491.7000;1.4098;0.6209;
492.0000;1.4058;0.6139;
492.3000;1.4115;0.6302;
492.6000;1.4090;0.6255;
492.9000;1.4098;0.6302;
493.2000;1.4107;0.6302;
493.5000;1.4131;0.6349;
493.8000;1.4082;0.6279;
494.1000;1.4131;0.6419;
494.4000;1.4107;0.6419;
494.7000;1.4098;0.6372;
495.0000;1.4090;0.6349;
495.3000;1.4082;0.6372;
495.6000;1.4058;0.6302;
495.9000;1.4082;0.6395;
496.2000;1.4090;0.6395;
496.5000;1.4058;0.6325;
496.8000;1.4107;0.6349;
497.1000;1.4090;0.6372;
497.4000;1.4107;0.6465;
497.7000;1.4107;0.6442;
498.0000;1.4115;0.6419;
498.3000;1.4115;0.6465;
498.6000;1.4107;0.6605;
498.9000;1.4115;0.6582;
499.2000;1.4115;0.6535;
499.5000;1.4090;0.6512;
499.8000;1.4090;0.6465;
500.1000;1.4090;0.6419;
500.4000;1.4107;0.6442;
500.7000;1.4115;0.6489;
501.0000;1.4107;0.6442;
501.3000;1.4090;0.6395;
501.6000;1.4090;0.6372;
501.9000;1.4090;0.6325;
502.2000;1.4107;0.6395;
502.5000;1.4082;0.6395;
502.8000;1.4098;0.6465;
503.1000;1.4107;0.6489;
503.4000;1.4050;0.6372;
503.7000;1.4107;0.6512;
504.0000;1.4098;0.6535;
504.3000;1.4115;0.6582;
504.6000;1.4115;0.6605;
504.9000;1.4107;0.6535;
505.2000;1.4123;0.6559;
505.5000;1.4098;0.6512;
505.8000;1.4090;0.6559;
506.1000;1.4115;0.6559;
506.4000;1.4090;0.6512;
506.7000;1.4098;0.6535;
507.0000;1.4098;0.6535;
507.3000;1.4098;0.6512;
507.6000;1.4115;0.6465;
507.9000;1.4098;0.6512;
508.2000;1.4090;0.6442;
508.5000;1.4107;0.6465;
508.8000;1.4107;0.6535;
509.1000;1.4098;0.6582;
509.4000;1.4090;0.6325;
509.7000;1.4107;0.6419;
510.0000;1.4066;0.6325;
510.3000;1.4115;0.6465;
510.6000;1.4115;0.6465;
510.9000;1.4042;0.6372;
511.2000;1.4074;0.6419;
511.5000;1.4123;0.6442;
511.8000;1.4107;0.6442;
512.1000;1.4115;0.6489;
512.4000;1.4098;0.6442;
512.7000;1.4115;0.6535;
513.0000;1.4155;0.6675;
513.3000;1.4107;0.6512;
513.6000;1.4131;0.6629;
513.9000;1.4155;0.6675;
514.2000;1.4090;0.6535;
514.5000;1.4082;0.6535;
514.8000;1.4098;0.6629;
515.1000;1.4123;0.6559;
515.4000;1.4082;0.6489;
515.7000;1.4107;0.6582;
516.0000;1.4115;0.6629;
516.3000;1.4107;0.6652;
516.6000;1.4082;0.6535;
516.9000;1.4090;0.6605;
517.2000;1.4098;0.6605;
517.5000;1.4082;0.6582;
517.8000;1.4098;0.6559;
518.1000;1.4090;0.6559;
518.4000;1.4115;0.6652;
518.7000;1.4066;0.6512;
519.0000;1.4107;0.6535;
519.3000;1.4107;0.6442;
519.6000;1.4123;0.6535;
519.9000;1.4123;0.6559;
520.2000;1.4115;0.6582;
520.5000;1.4123;0.6629;
520.8000;1.4107;0.6535;
521.1000;1.4107;0.6582;
521.4000;1.4098;0.6559;
521.7000;1.4098;0.6605;
522.0000;1.4107;0.6675;
522.3000;1.4107;0.6582;
522.6000;1.4107;0.6582;
522.9000;1.4131;0.6652;
523.2000;1.4098;0.6559;
523.5000;1.4131;0.6652;
523.8000;1.4188;0.6792;
524.1000;1.4123;0.6652;
524.4000;1.4107;0.6605;
524.7000;1.4123;0.6722;
525.0000;1.4123;0.6839;
525.3000;1.4131;0.6909;
525.6000;1.4123;0.6815;
525.9000;1.4107;0.6815;
526.2000;1.4123;0.6699;
526.5000;1.4188;0.6885;
526.8000;1.4123;0.6792;
527.1000;1.4115;0.6675;
527.4000;1.4115;0.6722;
527.7000;1.4115;0.6792;
528.0000;1.4131;0.6839;
528.3000;1.4098;0.6722;
528.6000;1.4074;0.6582;
528.9000;1.4090;0.6582;
529.2000;1.4107;0.6559;
529.5000;1.4115;0.6512;
529.8000;1.4107;0.6419;
530.1000;1.4098;0.6372;
530.4000;1.4107;0.6349;
530.7000;1.4107;0.6325;
531.0000;1.4098;0.6302;
531.3000;1.4098;0.6372;
531.6000;1.4115;0.6442;
531.9000;1.4098;0.6442;
532.2000;1.4090;0.6395;
532.5000;1.4107;0.6395;
532.8000;1.4098;0.6395;
533.1000;1.4107;0.6325;
533.4000;1.4082;0.6255;
533.7000;1.4090;0.6372;
534.0000;1.4115;0.6559;
534.3000;1.4090;0.6419;
534.6000;1.4090;0.6325;
534.9000;1.4090;0.6349;
535.2000;1.4066;0.6349;
535.5000;1.4082;0.6442;
535.8000;1.4098;0.6465;
536.1000;1.4074;0.6489;
536.4000;1.4090;0.6465;
536.7000;1.4098;0.6465;
537.0000;1.4090;0.6442;
537.3000;1.4098;0.6372;
537.6000;1.4107;0.6419;
537.9000;1.4115;0.6465;
538.2000;1.4107;0.6559;
538.5000;1.4098;0.6465;
538.8000;1.4074;0.6395;
539.1000;1.4090;0.6372;
539.4000;1.4098;0.6325;
539.7000;1.4090;0.6372;
540.0000;1.4050;0.6349;
540.3000;1.4090;0.6465;
540.6000;1.4107;0.6395;
540.9000;1.4082;0.6349;
541.2000;1.4123;0.6419;
541.5000;1.4115;0.6372;
541.8000;1.4082;0.6325;
542.1000;1.4107;0.6349;
542.4000;1.4098;0.6489;
542.7000;1.4115;0.6535;
543.0000;1.4123;0.6489;
543.3000;1.4090;0.6489;
543.6000;1.4090;0.6372;
543.9000;1.4098;0.6349;
544.2000;1.4090;0.6395;
544.5000;1.4107;0.6395;
544.8000;1.4139;0.6465;
545.1000;1.4107;0.6349;
545.4000;1.4107;0.6325;
545.7000;1.4098;0.6349;
546.0000;1.4115;0.6395;
546.3000;1.4107;0.6419;
546.6000;1.4074;0.6419;
546.9000;1.4107;0.6512;
547.2000;1.4107;0.6559;
547.5000;1.4107;0.6582;
547.8000;1.4082;0.6489;
548.1000;1.4107;0.6605;
548.4000;1.4090;0.6559;
548.7000;1.4098;0.6535;
549.0000;1.4172;0.6769;
549.3000;1.4115;0.6605;
549.6000;1.4123;0.6652;
549.9000;1.4082;0.6465;
550.2000;1.4107;0.6465;
550.5000;1.4090;0.6465;
550.8000;1.4115;0.6559;
551.1000;1.4115;0.6535;
551.4000;1.4098;0.6442;
551.7000;1.4033;0.6442;
552.0000;1.4180;0.6769;
552.3000;1.4107;0.6559;
552.6000;1.4098;0.6512;
552.9000;1.4082;0.6372;
553.2000;1.4090;0.6325;
553.5000;1.4107;0.6395;
553.8000;1.4074;0.6302;
554.1000;1.4107;0.6302;
554.4000;1.4090;0.6349;
554.7000;1.4090;0.6325;
555.0000;1.4098;0.6442;
555.3000;1.4090;0.6582;
555.6000;1.4082;0.6512;
555.9000;1.4115;0.6559;
556.2000;1.4123;0.6489;
556.5000;1.4098;0.6559;
556.8000;1.4066;0.6465;
557.1000;1.4123;0.6652;
557.4000;1.4115;0.6582;
557.7000;1.4082;0.6465;
558.0000;1.4098;0.6489;
558.3000;1.4115;0.6582;
558.6000;1.4115;0.6605;
558.9000;1.4090;0.6512;
559.2000;1.4090;0.6582;
559.5000;1.4090;0.6465;
559.8000;1.4058;0.6419;
560.1000;1.4050;0.6442;
560.4000;1.4074;0.6395;
560.7000;1.4098;0.6489;
561.0000;1.4098;0.6489;
561.3000;1.4107;0.6489;
561.6000;1.4131;0.6535;
561.9000;1.4098;0.6535;
562.2000;1.4123;0.6605;
562.5000;1.4107;0.6535;
562.8000;1.4098;0.6442;
563.1000;1.4098;0.6419;
563.4000;1.4107;0.6395;
563.7000;1.4090;0.6419;
564.0000;1.4042;0.6209;
564.3000;1.4098;0.6349;
564.6000;1.4090;0.6349;
564.9000;1.4098;0.6395;
565.2000;1.4090;0.6372;
565.5000;1.4098;0.6255;
565.8000;1.4098;0.6255;
566.1000;1.4107;0.6185;
566.4000;1.4107;0.6255;
566.7000;1.4098;0.6255;
567.0000;1.4115;0.6349;
567.3000;1.4090;0.6442;
567.6000;1.4107;0.6442;
567.9000;1.4098;0.6465;
568.2000;1.4098;0.6419;
568.5000;1.4115;0.6372;
568.8000;1.4098;0.6279;
569.1000;1.4123;0.6302;
569.4000;1.4090;0.6279;
569.7000;1.4050;0.6279;
570.0000;1.4098;0.6349;
570.3000;1.4098;0.6325;
570.6000;1.4107;0.6349;
570.9000;1.4090;0.6325;
571.2000;1.4090;0.6372;
571.5000;1.4147;0.6465;
571.8000;1.4090;0.6325;
572.1000;1.4098;0.6255;
572.4000;1.4123;0.6349;
572.7000;1.4131;0.6395;
573.0000;1.4139;0.6395;
573.3000;1.4082;0.6302;
573.6000;1.4090;0.6302;
573.9000;1.4115;0.6349;
574.2000;1.4107;0.6349;
574.5000;1.4098;0.6349;
574.8000;1.4082;0.6255;
575.1000;1.4090;0.6232;
575.4000;1.4107;0.6302;
575.7000;1.4115;0.6325;
576.0000;1.4082;0.6302;
576.3000;1.4082;0.6232;
576.6000;1.4172;0.6535;
576.9000;1.4098;0.6442;
577.2000;1.4082;0.6419;
577.5000;1.4082;0.6419;
577.8000;1.4115;0.6465;
578.1000;1.4115;0.6395;
578.4000;1.4090;0.6419;
578.7000;1.4066;0.6302;
579.0000;1.4090;0.6395;
579.3000;1.4107;0.6442;
579.6000;1.4090;0.6442;
579.9000;1.4098;0.6419;
580.2000;1.4107;0.6419;
580.5000;1.4090;0.6489;
580.8000;1.4082;0.6582;
581.1000;1.3993;0.6325;
581.4000;1.4090;0.6629;
581.7000;1.4098;0.6535;
582.0000;1.4050;0.6419;
582.3000;1.4090;0.6582;
582.6000;1.4098;0.6535;
582.9000;1.4090;0.6559;
583.2000;1.4107;0.6535;
583.5000;1.4082;0.6512;
583.8000;1.4090;0.6535;
584.1000;1.4098;0.6489;
584.4000;1.4107;0.6489;
584.7000;1.4090;0.6442;
585.0000;1.4050;0.6372;
585.3000;1.4090;0.6535;
585.6000;1.4042;0.6489;
585.9000;1.4090;0.6629;
586.2000;1.4090;0.6582;
586.5000;1.4066;0.6489;
586.8000;1.4074;0.6465;
587.1000;1.4131;0.6582;
587.4000;1.4074;0.6465;
587.7000;1.4098;0.6465;
588.0000;1.4042;0.6349;
588.3000;1.4098;0.6465;
588.6000;1.4098;0.6489;
588.9000;1.4098;0.6419;
589.2000;1.4082;0.6302;
589.5000;1.4098;0.6372;
589.8000;1.4090;0.6442;
590.1000;1.4082;0.6395;
590.4000;1.4098;0.6465;
590.7000;1.4098;0.6535;
591.0000;1.4098;0.6559;
591.3000;1.4098;0.6465;
591.6000;1.4090;0.6465;
591.9000;1.4082;0.6489;
592.2000;1.4090;0.6582;
592.5000;1.4090;0.6629;
592.8000;1.4058;0.6582;
593.1000;1.4074;0.6512;
593.4000;1.4107;0.6512;
593.7000;1.4082;0.6535;
594.0000;1.4001;0.6255;
594.3000;1.4090;0.6559;
594.6000;1.4098;0.6605;
594.9000;1.4098;0.6582;
595.2000;1.4082;0.6559;
595.5000;1.4082;0.6605;
595.8000;1.4107;0.6769;
596.1000;1.4098;0.6675;
596.4000;1.4115;0.6652;
596.7000;1.4147;0.6769;
597.0000;1.4066;0.6535;
597.3000;1.4115;0.6629;
597.6000;1.4082;0.6582;
597.9000;1.4107;0.6582;
598.2000;1.4107;0.6699;
598.5000;1.4098;0.6769;
598.8000;1.4098;0.6769;
599.1000;1.4107;0.6792;
599.4000;1.4107;0.6769;
599.7000;1.4090;0.6699;
600.0000;1.4066;0.6652;
600.3000;1.4082;0.6489;
600.6000;1.4050;0.6232;
600.9000;1.4001;0.6045;
601.2000;1.3895;0.5882;
601.5000;1.3773;0.5625;
601.8000;1.3651;0.5392;
602.1000;1.3529;0.5252;
602.4000;1.3407;0.5018;
602.7000;1.3301;0.4715;
603.0000;1.3203;0.4551;
603.3000;1.3081;0.4318;
603.6000;1.2975;0.4178;
603.9000;1.2837;0.3968;
604.2000;1.2739;0.3898;
604.5000;1.2666;0.3758;
604.8000;1.2601;0.3618;
605.1000;1.2503;0.3478;
605.4000;1.2414;0.3338;
605.7000;1.2283;0.3221;
606.0000;1.2210;0.3198;
606.3000;1.2169;0.3221;
606.6000;1.2112;0.3174;
606.9000;1.2072;0.3291;
607.2000;1.1990;0.3128;
607.5000;1.1884;0.3058;
607.8000;1.1819;0.3011;
608.1000;1.1746;0.2918;
608.4000;1.1673;0.2707;
608.7000;1.1624;0.2614;
609.0000;1.1534;0.2474;
609.3000;1.1502;0.2521;
609.6000;1.1502;0.2637;
609.9000;1.1396;0.2451;
610.2000;1.1396;0.2544;
610.5000;1.1290;0.2381;
610.8000;1.1233;0.2287;
611.1000;1.1209;0.2404;
611.4000;1.1119;0.2264;
611.7000;1.1079;0.2217;
612.0000;1.1022;0.2171;
612.3000;1.0973;0.2194;
612.6000;1.0924;0.2194;
612.9000;1.0883;0.2171;
613.2000;1.0826;0.2054;
613.5000;1.0769;0.1984;
613.8000;1.0745;0.1984;
614.1000;1.0680;0.1914;
614.4000;1.0647;0.1867;
614.7000;1.0598;0.1774;
615.0000;1.0566;0.1751;
615.3000;1.0533;0.1797;
615.6000;1.0484;0.1774;
615.9000;1.0444;0.1751;
616.2000;1.0395;0.1681;
616.5000;1.0362;0.1587;
616.8000;1.0338;0.1447;
617.1000;1.0281;0.1330;
617.4000;1.0240;0.1354;
617.7000;1.0199;0.1284;
618.0000;1.0175;0.1284;
618.3000;1.0110;0.1214;
618.6000;1.0085;0.1190;
618.9000;1.0061;0.1284;
619.2000;1.0020;0.1237;
619.5000;0.9972;0.1190;
619.8000;0.9947;0.1284;
620.1000;0.9833;0.1120;
620.4000;0.9898;0.1330;
620.7000;0.9849;0.1307;
621.0000;0.9890;0.1424;
621.3000;0.9784;0.1167;
621.6000;0.9760;0.1190;
621.9000;0.9711;0.1097;
622.2000;0.9695;0.1237;
622.5000;0.9605;0.1097;
622.8000;0.9646;0.1167;
623.1000;0.9621;0.1120;
623.4000;0.9589;0.1097;
623.7000;0.9548;0.1050;
624.0000;0.9548;0.0957;
624.3000;0.9508;0.0980;
624.6000;0.9475;0.0980;
624.9000;0.9451;0.1050;
625.2000;0.9434;0.1097;
625.5000;0.9410;0.1167;
625.8000;0.9361;0.1284;
626.1000;0.9328;0.1330;
626.4000;0.9296;0.1330;
626.7000;0.9288;0.1307;
627.0000;0.9288;0.1284;
627.3000;0.9223;0.1144;
627.6000;0.9271;0.1307;
627.9000;0.9125;0.0980;
628.2000;0.9149;0.1097;
628.5000;0.9149;0.1097;
628.8000;0.9117;0.1144;
629.1000;0.9101;0.1097;
629.4000;0.9084;0.1097;
629.7000;0.9052;0.0910;
630.0000;0.9027;0.0864;
630.3000;0.9027;0.1050;
630.6000;0.9011;0.1004;
630.9000;0.8954;0.0910;
631.2000;0.8938;0.0887;
631.5000;0.8946;0.0864;
631.8000;0.8921;0.0840;
632.1000;0.8913;0.0864;
632.4000;0.8864;0.0840;
632.7000;0.8799;0.0770;
633.0000;0.8856;0.0910;
633.3000;0.8816;0.0747;
633.6000;0.8775;0.0607;
633.9000;0.8791;0.0630;
634.2000;0.8791;0.0584;
634.5000;0.8742;0.0537;
634.8000;0.8742;0.0654;
635.1000;0.8726;0.0724;
635.4000;0.8734;0.0770;
635.7000;0.8718;0.0700;
636.0000;0.8694;0.0654;
636.3000;0.8661;0.0630;
636.6000;0.8653;0.0677;
636.9000;0.8645;0.0724;
637.2000;0.8661;0.0677;
637.5000;0.8604;0.0513;
637.8000;0.8588;0.0443;
638.1000;0.8580;0.0537;
638.4000;0.8588;0.0607;
638.7000;0.8555;0.0700;
639.0000;0.8523;0.0700;
639.3000;0.8531;0.0840;
639.6000;0.8506;0.0794;
639.9000;0.8498;0.0770;
640.2000;0.8482;0.0794;
640.5000;0.8474;0.0700;
640.8000;0.8457;0.0747;
641.1000;0.8457;0.0630;
641.4000;0.8433;0.0560;
641.7000;0.8417;0.0490;
642.0000;0.8474;0.0700;
642.3000;0.8409;0.0700;
642.6000;0.8352;0.0607;
642.9000;0.8384;0.0770;
643.2000;0.8344;0.0700;
643.5000;0.8344;0.0747;
643.8000;0.8335;0.0747;
644.1000;0.8327;0.0770;
644.4000;0.8311;0.0654;
644.7000;0.8311;0.0654;
645.0000;0.8221;0.0537;
645.3000;0.8270;0.0700;
645.6000;0.8262;0.0654;
645.9000;0.8246;0.0794;
646.2000;0.8246;0.0840;
646.5000;0.8238;0.0794;
646.8000;0.8164;0.0677;
647.1000;0.8238;0.0910;
647.4000;0.8213;0.0910;
647.7000;0.8205;0.0840;
648.0000;0.8173;0.0794;
648.3000;0.8173;0.0724;
648.6000;0.8156;0.0747;
648.9000;0.8091;0.0513;
649.2000;0.8140;0.0724;
649.5000;0.8132;0.0724;
649.8000;0.8132;0.0817;
650.1000;0.8148;0.1004;
650.4000;0.8091;0.0910;
650.7000;0.8067;0.0817;
651.0000;0.8059;0.0770;
651.3000;0.8042;0.0770;
651.6000;0.8059;0.0747;
651.9000;0.8042;0.0700;
652.2000;0.8042;0.0677;
652.5000;0.8042;0.0770;
652.8000;0.8034;0.0794;
653.1000;0.7985;0.0630;
653.4000;0.8010;0.0607;
653.7000;0.7985;0.0700;
654.0000;0.7985;0.0700;
654.3000;0.7985;0.0724;
654.6000;0.7961;0.0817;
654.9000;0.7896;0.0700;
655.2000;0.7961;0.0747;
655.5000;0.7953;0.0700;
655.8000;0.7945;0.0630;
656.1000;0.7928;0.0560;
656.4000;0.7928;0.0584;
656.7000;0.7912;0.0537;
657.0000;0.7920;0.0607;
657.3000;0.7896;0.0560;
657.6000;0.7993;0.0840;
657.9000;0.7904;0.0630;
658.2000;0.7880;0.0654;
658.5000;0.7871;0.0700;
658.8000;0.7888;0.0654;
659.1000;0.7888;0.0724;
659.4000;0.7863;0.0724;
659.7000;0.7847;0.0770;
660.0000;0.7831;0.0817;
660.3000;0.7831;0.0864;
660.6000;0.7823;0.0817;
660.9000;0.7806;0.0700;
661.2000;0.7790;0.0724;
661.5000;0.7806;0.0770;
661.8000;0.7855;0.0934;
662.1000;0.7790;0.0747;
662.4000;0.7782;0.0747;
662.7000;0.7790;0.0794;
663.0000;0.7774;0.0840;
663.3000;0.7774;0.0864;
663.6000;0.7741;0.0794;
663.9000;0.7692;0.0724;
664.2000;0.7749;0.0864;
664.5000;0.7725;0.0747;
664.8000;0.7733;0.0770;
665.1000;0.7733;0.0794;
665.4000;0.7684;0.0607;
665.7000;0.7709;0.0677;
666.0000;0.7709;0.0607;
666.3000;0.7700;0.0630;
666.6000;0.7684;0.0560;
666.9000;0.7660;0.0490;
667.2000;0.7684;0.0513;
667.5000;0.7725;0.0630;
667.8000;0.7684;0.0584;
668.1000;0.7652;0.0654;
668.4000;0.7660;0.0630;
668.7000;0.7643;0.0630;
669.0000;0.7660;0.0654;
669.3000;0.7643;0.0654;
669.6000;0.7627;0.0630;
669.9000;0.7627;0.0677;
670.2000;0.7619;0.0654;
670.5000;0.7619;0.0630;
670.8000;0.7619;0.0654;
671.1000;0.7619;0.0654;
671.4000;0.7595;0.0584;
671.7000;0.7595;0.0584;
672.0000;0.7570;0.0607;
672.3000;0.7570;0.0724;
672.6000;0.7570;0.0630;
672.9000;0.7595;0.0700;
673.2000;0.7578;0.0654;
673.5000;0.7562;0.0654;
673.8000;0.7530;0.0584;
674.1000;0.7595;0.0794;
674.4000;0.7562;0.0654;
674.7000;0.7546;0.0584;
675.0000;0.7521;0.0537;
675.3000;0.7538;0.0584;
675.6000;0.7538;0.0513;
675.9000;0.7538;0.0467;
676.2000;0.7530;0.0490;
676.5000;0.7513;0.0537;
676.8000;0.7554;0.0654;
677.1000;0.7505;0.0560;
677.4000;0.7481;0.0490;
677.7000;0.7481;0.0490;
678.0000;0.7497;0.0373;
678.3000;0.7489;0.0373;
678.6000;0.7432;0.0257;
678.9000;0.7481;0.0397;
679.2000;0.7473;0.0397;
679.5000;0.7481;0.0420;
679.8000;0.7489;0.0350;
680.1000;0.7464;0.0327;
680.4000;0.7448;0.0257;
680.7000;0.7473;0.0327;
681.0000;0.7416;0.0210;
681.3000;0.7432;0.0210;
681.6000;0.7399;0.0187;
681.9000;0.7432;0.0303;
682.2000;0.7432;0.0443;
682.5000;0.7416;0.0467;
682.8000;0.7416;0.0373;
683.1000;0.7473;0.0584;
683.4000;0.7407;0.0373;
683.7000;0.7399;0.0467;
684.0000;0.7391;0.0513;
684.3000;0.7416;0.0607;
684.6000;0.7407;0.0584;
684.9000;0.7399;0.0467;
685.2000;0.7407;0.0467;
685.5000;0.7383;0.0420;
685.8000;0.7391;0.0420;
686.1000;0.7367;0.0350;
686.4000;0.7407;0.0397;
686.7000;0.7375;0.0327;
687.0000;0.7383;0.0397;
687.3000;0.7350;0.0350;
687.6000;0.7350;0.0327;
687.9000;0.7342;0.0327;
688.2000;0.7342;0.0327;
688.5000;0.7342;0.0350;
688.8000;0.7334;0.0350;
689.1000;0.7326;0.0397;
689.4000;0.7342;0.0490;
689.7000;0.7318;0.0420;
690.0000;0.7334;0.0490;
690.3000;0.7326;0.0537;
690.6000;0.7326;0.0490;
690.9000;0.7318;0.0537;
691.2000;0.7318;0.0607;
691.5000;0.7342;0.0607;
691.8000;0.7310;0.0584;
692.1000;0.7310;0.0630;
692.4000;0.7302;0.0654;
692.7000;0.7302;0.0560;
693.0000;0.7285;0.0654;
693.3000;0.7285;0.0677;
693.6000;0.7285;0.0630;
693.9000;0.7269;0.0630;
694.2000;0.7285;0.0607;
694.5000;0.7269;0.0584;
694.8000;0.7261;0.0607;
695.1000;0.7228;0.0560;
695.4000;0.7277;0.0677;
695.7000;0.7269;0.0654;
696.0000;0.7269;0.0700;
696.3000;0.7277;0.0747;
696.6000;0.7245;0.0700;
696.9000;0.7196;0.0513;
697.2000;0.7245;0.0584;
697.5000;0.7253;0.0537;
697.8000;0.7236;0.0513;
698.1000;0.7188;0.0443;
698.4000;0.7245;0.0513;
698.7000;0.7228;0.0537;
699.0000;0.7228;0.0630;
699.3000;0.7220;0.0654;
699.6000;0.7212;0.0654;
699.9000;0.7196;0.0630;
700.2000;0.7188;0.0630;
700.5000;0.7204;0.0584;
700.8000;0.7196;0.0443;
701.1000;0.7188;0.0420;
701.4000;0.7204;0.0537;
701.7000;0.7196;0.0443;
702.0000;0.7212;0.0513;
702.3000;0.7171;0.0373;
702.6000;0.7179;0.0420;
702.9000;0.7171;0.0443;
703.2000;0.7123;0.0443;
703.5000;0.7245;0.0817;
703.8000;0.7179;0.0654;
704.1000;0.7171;0.0677;
704.4000;0.7179;0.0700;
704.7000;0.7171;0.0677;
705.0000;0.7155;0.0630;
705.3000;0.7171;0.0677;
705.6000;0.7179;0.0770;
705.9000;0.7171;0.0724;
706.2000;0.7123;0.0584;
706.5000;0.7163;0.0630;
706.8000;0.7131;0.0630;
707.1000;0.7131;0.0607;
707.4000;0.7123;0.0537;
707.7000;0.7139;0.0677;
708.0000;0.7171;0.0840;
708.3000;0.7131;0.0770;
708.6000;0.7123;0.0747;
708.9000;0.7139;0.0700;
709.2000;0.7131;0.0724;
709.5000;0.7139;0.0770;
709.8000;0.7123;0.0794;
710.1000;0.7139;0.0794;
710.4000;0.7123;0.0747;
710.7000;0.7098;0.0770;
711.0000;0.7114;0.0817;
711.3000;0.7123;0.0887;
711.6000;0.7114;0.0817;
711.9000;0.7049;0.0560;
712.2000;0.7114;0.0630;
712.5000;0.7106;0.0654;
712.8000;0.7090;0.0584;
713.1000;0.7106;0.0700;
713.4000;0.7090;0.0630;
713.7000;0.7066;0.0607;
714.0000;0.7033;0.0537;
714.3000;0.7090;0.0630;
714.6000;0.7082;0.0654;
714.9000;0.7049;0.0607;
715.2000;0.7082;0.0584;
715.5000;0.7066;0.0560;
715.8000;0.7090;0.0654;
716.1000;0.7066;0.0747;
716.4000;0.7041;0.0607;
716.7000;0.7066;0.0654;
717.0000;0.7066;0.0770;
717.3000;0.7049;0.0654;
717.6000;0.7066;0.0630;
717.9000;0.7066;0.0700;
718.2000;0.7057;0.0770;
718.5000;0.7057;0.0677;
718.8000;0.7082;0.0770;
719.1000;0.7033;0.0654;
719.4000;0.7033;0.0654;
719.7000;0.7066;0.0700;
720.0000;0.7057;0.0724;
720.3000;0.7041;0.0607;
720.6000;0.7017;0.0607;
720.9000;0.7041;0.0677;
721.2000;0.7033;0.0584;
721.5000;0.7017;0.0513;
721.8000;0.7033;0.0584;
722.1000;0.7090;0.0770;
722.4000;0.7025;0.0700;
722.7000;0.7025;0.0724;
723.0000;0.7025;0.0700;
723.3000;0.7041;0.0747;
723.6000;0.6976;0.0630;
723.9000;0.7009;0.0677;
724.2000;0.7017;0.0770;
724.5000;0.6943;0.0584;
724.8000;0.7025;0.0677;
725.1000;0.7000;0.0630;
725.4000;0.7033;0.0700;
725.7000;0.7017;0.0770;
726.0000;0.6992;0.0724;
726.3000;0.7000;0.0654;
726.6000;0.6943;0.0513;
726.9000;0.6976;0.0607;
727.2000;0.6984;0.0607;
727.5000;0.6992;0.0607;
727.8000;0.6984;0.0630;
728.1000;0.6976;0.0630;
728.4000;0.7009;0.0654;
728.7000;0.6984;0.0630;
729.0000;0.6984;0.0607;
729.3000;0.6992;0.0700;
729.6000;0.7000;0.0770;
729.9000;0.7000;0.0794;
730.2000;0.6984;0.0724;
730.5000;0.6992;0.0747;
730.8000;0.7000;0.0724;
731.1000;0.6984;0.0700;
731.4000;0.6976;0.0700;
731.7000;0.6984;0.0700;
732.0000;0.6960;0.0747;
732.3000;0.6976;0.0840;
732.6000;0.6968;0.0770;
732.9000;0.6960;0.0677;
733.2000;0.6968;0.0700;
733.5000;0.6968;0.0724;
733.8000;0.6943;0.0677;
734.1000;0.6952;0.0584;
734.4000;0.6935;0.0607;
734.7000;0.6911;0.0560;
735.0000;0.6927;0.0584;
735.3000;0.6935;0.0560;
735.6000;0.6935;0.0560;
735.9000;0.6984;0.0584;
736.2000;0.6935;0.0560;
736.5000;0.6919;0.0513;
736.8000;0.6911;0.0467;
737.1000;0.6927;0.0537;
737.4000;0.6919;0.0584;
737.7000;0.6911;0.0607;
738.0000;0.6952;0.0677;
738.3000;0.6895;0.0513;
738.6000;0.6911;0.0724;
738.9000;0.6919;0.0700;
739.2000;0.6911;0.0654;
739.5000;0.6919;0.0654;
739.8000;0.6919;0.0677;
740.1000;0.7000;0.0887;
740.4000;0.6919;0.0677;
740.7000;0.6903;0.0654;
741.0000;0.6903;0.0677;
741.3000;0.6968;0.0770;
741.6000;0.6903;0.0607;
741.9000;0.6870;0.0560;
742.2000;0.6895;0.0607;
742.5000;0.6919;0.0770;
742.8000;0.6895;0.0770;
743.1000;0.6911;0.0747;
743.4000;0.6911;0.0770;
743.7000;0.6960;0.0887;
744.0000;0.6935;0.0817;
744.3000;0.6829;0.0537;
744.6000;0.6878;0.0724;
744.9000;0.6903;0.0770;
745.2000;0.6862;0.0700;
745.5000;0.6886;0.0817;
745.8000;0.6935;0.0864;
746.1000;0.6870;0.0654;
746.4000;0.6854;0.0747;
746.7000;0.6870;0.0747;
747.0000;0.6886;0.0747;
747.3000;0.6878;0.0724;
747.6000;0.6878;0.0700;
747.9000;0.6878;0.0747;
748.2000;0.6878;0.0770;
748.5000;0.6886;0.0794;
748.8000;0.6886;0.0864;
749.1000;0.6870;0.0817;
749.4000;0.6878;0.0864;
749.7000;0.6862;0.0864;
750.0000;0.6878;0.0840;
750.3000;0.6878;0.0747;
750.6000;0.6862;0.0677;
750.9000;0.6805;0.0584;
751.2000;0.6854;0.0677;
751.5000;0.6862;0.0840;
751.8000;0.6854;0.0840;
752.1000;0.6846;0.0794;
752.4000;0.6846;0.0794;
752.7000;0.6862;0.0794;
753.0000;0.6862;0.0770;
753.3000;0.6870;0.0747;
753.6000;0.6838;0.0654;
753.9000;0.6919;0.0817;
754.2000;0.6846;0.0677;
754.5000;0.6862;0.0700;
754.8000;0.6838;0.0654;
755.1000;0.6829;0.0607;
755.4000;0.6854;0.0677;
755.7000;0.6846;0.0724;
756.0000;0.6870;0.0817;
756.3000;0.6846;0.0747;
756.6000;0.6838;0.0817;
756.9000;0.6821;0.0747;
757.2000;0.6838;0.0794;
757.5000;0.6829;0.0724;
757.8000;0.6838;0.0747;
758.1000;0.6829;0.0677;
758.4000;0.6756;0.0397;
758.7000;0.6838;0.0607;
759.0000;0.6903;0.0840;
759.3000;0.6895;0.0840;
759.6000;0.6838;0.0747;
759.9000;0.6829;0.0724;
760.2000;0.6821;0.0630;
760.5000;0.6821;0.0630;
760.8000;0.6789;0.0560;
761.1000;0.6821;0.0654;
761.4000;0.6797;0.0654;
761.7000;0.6813;0.0770;
762.0000;0.6821;0.0700;
762.3000;0.6846;0.0677;
762.6000;0.6789;0.0584;
762.9000;0.6797;0.0630;
763.2000;0.6846;0.0677;
763.5000;0.6805;0.0607;
763.8000;0.6797;0.0607;
764.1000;0.6813;0.0677;
764.4000;0.6813;0.0700;
764.7000;0.6821;0.0747;
765.0000;0.6862;0.0840;
765.3000;0.6797;0.0747;
765.6000;0.6813;0.0677;
765.9000;0.6813;0.0630;
766.2000;0.6805;0.0677;
766.5000;0.6813;0.0677;
766.8000;0.6813;0.0607;
767.1000;0.6838;0.0724;
767.4000;0.6805;0.0724;
767.7000;0.6772;0.0817;
768.0000;0.6797;0.0887;
768.3000;0.6789;0.0934;
768.6000;0.6781;0.0817;
768.9000;0.6781;0.0794;
769.2000;0.6789;0.0840;
769.5000;0.6781;0.0840;
769.8000;0.6789;0.0840;
770.1000;0.6805;0.0794;
770.4000;0.6789;0.0794;
770.7000;0.6748;0.0700;
771.0000;0.6789;0.0794;
771.3000;0.6772;0.0817;
771.6000;0.6764;0.0887;
771.9000;0.6772;0.0980;
772.2000;0.6781;0.0934;
772.5000;0.6764;0.0817;
772.8000;0.6748;0.0724;
773.1000;0.6789;0.0794;
773.4000;0.6781;0.0770;
773.7000;0.6764;0.0747;
774.0000;0.6838;0.0910;
774.3000;0.6756;0.0654;
774.6000;0.6772;0.0700;
774.9000;0.6764;0.0770;
775.2000;0.6764;0.0817;
775.5000;0.6772;0.0864;
775.8000;0.6756;0.0817;
776.1000;0.6772;0.0887;
776.4000;0.6764;0.0887;
776.7000;0.6756;0.0887;
777.0000;0.6764;0.0840;
777.3000;0.6764;0.0887;
777.6000;0.6764;0.0864;
777.9000;0.6764;0.0934;
778.2000;0.6764;0.0840;
778.5000;0.6764;0.0817;
778.8000;0.6797;0.0910;
779.1000;0.6748;0.0654;
779.4000;0.6756;0.0560;
779.7000;0.6756;0.0630;
780.0000;0.6756;0.0677;
780.3000;0.6756;0.0607;
780.6000;0.6764;0.0630;
780.9000;0.6764;0.0537;
781.2000;0.6756;0.0607;
781.5000;0.6764;0.0560;
781.8000;0.6740;0.0490;
782.1000;0.6756;0.0607;
782.4000;0.6781;0.0677;
782.7000;0.6740;0.0607;
783.0000;0.6707;0.0584;
783.3000;0.6764;0.0817;
783.6000;0.6740;0.0770;
783.9000;0.6707;0.0724;
784.2000;0.6732;0.0654;
784.5000;0.6740;0.0677;
784.8000;0.6724;0.0724;
785.1000;0.6732;0.0747;
785.4000;0.6748;0.0677;
785.7000;0.6740;0.0654;
786.0000;0.6732;0.0630;
786.3000;0.6732;0.0630;
786.6000;0.6732;0.0560;
786.9000;0.6724;0.0607;
787.2000;0.6732;0.0630;
787.5000;0.6732;0.0560;
787.8000;0.6724;0.0537;
788.1000;0.6724;0.0560;
788.4000;0.6716;0.0607;
788.7000;0.6716;0.0700;
789.0000;0.6740;0.0584;
789.3000;0.6732;0.0467;
789.6000;0.6716;0.0490;
789.9000;0.6675;0.0467;
790.2000;0.6707;0.0560;
790.5000;0.6716;0.0537;
790.8000;0.6740;0.0560;
791.1000;0.6716;0.0537;
791.4000;0.6724;0.0607;
791.7000;0.6707;0.0584;
792.0000;0.6716;0.0630;
792.3000;0.6716;0.0677;
792.6000;0.6716;0.0700;
792.9000;0.6724;0.0560;
793.2000;0.6707;0.0467;
793.5000;0.6707;0.0490;
793.8000;0.6716;0.0467;
794.1000;0.6724;0.0490;
794.4000;0.6716;0.0443;
794.7000;0.6716;0.0490;
795.0000;0.6716;0.0560;
795.3000;0.6716;0.0584;
795.6000;0.6707;0.0560;
795.9000;0.6707;0.0607;
796.2000;0.6691;0.0724;
796.5000;0.6740;0.0770;
796.8000;0.6699;0.0794;
797.1000;0.6699;0.0840;
797.4000;0.6699;0.0864;
797.7000;0.6699;0.0910;
798.0000;0.6699;0.0840;
798.3000;0.6724;0.0934;
798.6000;0.6699;0.0864;
798.9000;0.6716;0.0910;
799.2000;0.6716;0.0934;
799.5000;0.6707;0.0817;
799.8000;0.6675;0.0747;
800.1000;0.6716;0.0840;
800.4000;0.6699;0.0817;
800.7000;0.6683;0.0910;
801.0000;0.6699;0.0957;
801.3000;0.6691;0.0980;
801.6000;0.6675;0.0910;
801.9000;0.6707;0.0934;
802.2000;0.6716;0.0887;
802.5000;0.6707;0.0864;
802.8000;0.6667;0.0724;
803.1000;0.6691;0.0724;
803.4000;0.6683;0.0770;
803.7000;0.6707;0.0980;
804.0000;0.6691;0.0910;
804.3000;0.6683;0.0910;
804.6000;0.6683;0.0934;
804.9000;0.6691;0.0934;
805.2000;0.6675;0.0864;
805.5000;0.6691;0.0910;
805.8000;0.6691;0.0864;
806.1000;0.6675;0.0864;
806.4000;0.6675;0.0817;
806.7000;0.6675;0.0934;
807.0000;0.6683;0.0910;
807.3000;0.6675;0.0887;
807.6000;0.6667;0.0910;
807.9000;0.6740;0.1097;
808.2000;0.6699;0.0957;
808.5000;0.6716;0.0934;
808.8000;0.6691;0.0817;
809.1000;0.6683;0.0770;
809.4000;0.6683;0.0817;
809.7000;0.6667;0.0770;
810.0000;0.6650;0.0700;
810.3000;0.6667;0.0747;
810.6000;0.6667;0.0840;
810.9000;0.6642;0.0840;
811.2000;0.6642;0.0794;
811.5000;0.6659;0.0794;
811.8000;0.6626;0.0794;
812.1000;0.6691;0.0934;
812.4000;0.6683;0.0864;
812.7000;0.6667;0.0817;
813.0000;0.6650;0.0770;
813.3000;0.6659;0.0817;
813.6000;0.6650;0.0794;
813.9000;0.6650;0.0794;
814.2000;0.6650;0.0770;
814.5000;0.6659;0.0817;
814.8000;0.6683;0.0864;
815.1000;0.6683;0.0864;
815.4000;0.6642;0.0794;
815.7000;0.6659;0.0887;
816.0000;0.6659;0.0934;
816.3000;0.6650;0.0934;
816.6000;0.6683;0.1050;
816.9000;0.6642;0.1027;
817.2000;0.6667;0.1167;
817.5000;0.6667;0.1097;
817.8000;0.6634;0.1074;
818.1000;0.6642;0.1074;
818.4000;0.6699;0.1120;
818.7000;0.6732;0.1237;
819.0000;0.6642;0.0957;
819.3000;0.6642;0.0957;
819.6000;0.6634;0.1027;
819.9000;0.6650;0.1097;
820.2000;0.6642;0.1004;
820.5000;0.6626;0.0934;
820.8000;0.6642;0.0957;
821.1000;0.6650;0.0980;
821.4000;0.6642;0.1004;
821.7000;0.6602;0.0980;
822.0000;0.6642;0.1050;
822.3000;0.6634;0.1027;
822.6000;0.6642;0.0957;
822.9000;0.6642;0.0910;
823.2000;0.6642;0.0910;
823.5000;0.6659;0.1004;
823.8000;0.6650;0.1050;
824.1000;0.6650;0.1074;
824.4000;0.6642;0.1050;
824.7000;0.6642;0.1120;
825.0000;0.6634;0.1074;
825.3000;0.6642;0.1144;
825.6000;0.6626;0.1074;
825.9000;0.6626;0.1074;
826.2000;0.6642;0.1050;
826.5000;0.6626;0.1050;
826.8000;0.6626;0.1004;
827.1000;0.6650;0.1027;
827.4000;0.6618;0.0980;
827.7000;0.6650;0.0957;
828.0000;0.6642;0.0910;
828.3000;0.6626;0.0910;
828.6000;0.6634;0.0957;
828.9000;0.6626;0.0957;
829.2000;0.6634;0.0934;
829.5000;0.6618;0.0864;
829.8000;0.6618;0.0934;
830.1000;0.6626;0.0887;
830.4000;0.6626;0.0910;
830.7000;0.6634;0.0980;
831.0000;0.6626;0.1004;
831.3000;0.6634;0.0980;
831.6000;0.6675;0.1167;
831.9000;0.6626;0.1097;
832.2000;0.6634;0.1190;
832.5000;0.6618;0.1097;
832.8000;0.6585;0.1097;
833.1000;0.6626;0.1097;
833.4000;0.6561;0.0910;
833.7000;0.6618;0.0980;
834.0000;0.6618;0.1004;
834.3000;0.6610;0.0910;
834.6000;0.6610;0.0934;
834.9000;0.6626;0.0887;
835.2000;0.6667;0.1004;
835.5000;0.6610;0.0864;
835.8000;0.6626;0.0910;
836.1000;0.6602;0.0817;
836.4000;0.6626;0.0957;
836.7000;0.6667;0.1004;
837.0000;0.6610;0.0934;
837.3000;0.6618;0.0864;
837.6000;0.6618;0.0840;
837.9000;0.6569;0.0794;
838.2000;0.6618;0.0770;
838.5000;0.6602;0.0770;
838.8000;0.6618;0.0840;
839.1000;0.6536;0.0747;
839.4000;0.6618;0.0817;
839.7000;0.6585;0.0864;
840.0000;0.6610;0.1027;
840.3000;0.6561;0.0980;
840.6000;0.6618;0.1027;
840.9000;0.6593;0.0980;
841.2000;0.6610;0.0980;
841.5000;0.6610;0.1050;
841.8000;0.6626;0.1144;
842.1000;0.6610;0.1027;
842.4000;0.6602;0.1050;
842.7000;0.6569;0.1050;
843.0000;0.6585;0.1120;
843.3000;0.6593;0.1120;
843.6000;0.6577;0.1097;
843.9000;0.6593;0.1097;
844.2000;0.6593;0.1050;
844.5000;0.6585;0.1004;
844.8000;0.6585;0.0980;
845.1000;0.6602;0.1050;
845.4000;0.6610;0.1074;
845.7000;0.6667;0.1330;
846.0000;0.6593;0.1050;
846.3000;0.6585;0.0957;
846.6000;0.6602;0.1050;
846.9000;0.6602;0.1074;
847.2000;0.6593;0.1050;
847.5000;0.6593;0.0980;
847.8000;0.6593;0.0934;
848.1000;0.6610;0.0980;
848.4000;0.6593;0.0864;
848.7000;0.6504;0.0677;
849.0000;0.6577;0.0794;
849.3000;0.6561;0.0770;
849.6000;0.6577;0.0747;
849.9000;0.6585;0.0770;
850.2000;0.6577;0.0724;
850.5000;0.6626;0.0840;
850.8000;0.6561;0.0700;
851.1000;0.6536;0.0607;
851.4000;0.6577;0.0677;
851.7000;0.6593;0.0700;
852.0000;0.6585;0.0654;
852.3000;0.6593;0.0630;
852.6000;0.6593;0.0700;
852.9000;0.6585;0.0677;
853.2000;0.6602;0.0724;
853.5000;0.6577;0.0747;
853.8000;0.6553;0.0584;
854.1000;0.6569;0.0724;
854.4000;0.6618;0.0887;
854.7000;0.6593;0.0840;
855.0000;0.6634;0.0980;
855.3000;0.6545;0.0840;
855.6000;0.6577;0.0840;
855.9000;0.6577;0.0840;
856.2000;0.6593;0.0840;
856.5000;0.6585;0.0770;
856.8000;0.6585;0.0677;
857.1000;0.6585;0.0770;
857.4000;0.6618;0.0887;
857.7000;0.6569;0.0724;
858.0000;0.6553;0.0677;
858.3000;0.6593;0.0747;
858.6000;0.6585;0.0747;
858.9000;0.6553;0.0700;
859.2000;0.6536;0.0677;
859.5000;0.6585;0.0887;
859.8000;0.6585;0.0910;
860.1000;0.6561;0.0887;
860.4000;0.6545;0.0864;
860.7000;0.6577;0.0957;
861.0000;0.6577;0.0887;
861.3000;0.6569;0.0840;
861.6000;0.6561;0.0864;
861.9000;0.6577;0.0957;
862.2000;0.6642;0.1144;
862.5000;0.6577;0.1027;
862.8000;0.6569;0.1074;
863.1000;0.6577;0.1004;
863.4000;0.6577;0.0934;
863.7000;0.6626;0.1097;
864.0000;0.6561;0.0957;
864.3000;0.6561;0.0934;
864.6000;0.6626;0.1074;
864.9000;0.6488;0.0747;
865.2000;0.6577;0.0934;
865.5000;0.6561;0.0887;
865.8000;0.6561;0.0887;
866.1000;0.6577;0.0794;
866.4000;0.6561;0.0817;
866.7000;0.6561;0.0817;
867.0000;0.6561;0.0864;
867.3000;0.6577;0.0957;
867.6000;0.6528;0.0794;
867.9000;0.6561;0.0887;
868.2000;0.6553;0.0840;
868.5000;0.6561;0.0910;
868.8000;0.6577;0.0910;
869.1000;0.6545;0.0747;
869.4000;0.6536;0.0700;
869.7000;0.6553;0.0724;
870.0000;0.6569;0.0864;
870.3000;0.6577;0.0864;
870.6000;0.6569;0.0910;
870.9000;0.6561;0.0910;
871.2000;0.6577;0.0980;
871.5000;0.6577;0.1074;
871.8000;0.6545;0.1074;
872.1000;0.6569;0.1097;
872.4000;0.6536;0.1027;
872.7000;0.6553;0.1097;
873.0000;0.6561;0.1144;
873.3000;0.6520;0.1004;
873.6000;0.6528;0.1027;
873.9000;0.6553;0.1097;
874.2000;0.6569;0.1097;
874.5000;0.6561;0.1004;
874.8000;0.6512;0.0910;
875.1000;0.6561;0.0980;
875.4000;0.6536;0.0980;
875.7000;0.6545;0.0934;
876.0000;0.6577;0.0957;
876.3000;0.6553;0.0980;
876.6000;0.6561;0.0957;
876.9000;0.6553;0.0910;
877.2000;0.6569;0.0957;
877.5000;0.6569;0.1027;
877.8000;0.6512;0.0840;
878.1000;0.6520;0.0817;
878.4000;0.6504;0.0770;
878.7000;0.6545;0.0887;
879.0000;0.6618;0.1074;
879.3000;0.6512;0.0910;
879.6000;0.6545;0.0980;
879.9000;0.6536;0.0980;
880.2000;0.6512;0.0957;
880.5000;0.6610;0.1214;
880.8000;0.6545;0.1074;
881.1000;0.6585;0.1190;
881.4000;0.6553;0.1120;
881.7000;0.6536;0.1074;
882.0000;0.6545;0.1144;
882.3000;0.6561;0.1120;
882.6000;0.6553;0.1004;
882.9000;0.6536;0.0957;
883.2000;0.6593;0.1120;
883.5000;0.6561;0.1074;
883.8000;0.6545;0.1074;
884.1000;0.6577;0.1144;
884.4000;0.6545;0.1144;
884.7000;0.6536;0.1144;
885.0000;0.6536;0.1190;
885.3000;0.6585;0.1284;
885.6000;0.6520;0.1190;
885.9000;0.6528;0.1190;
886.2000;0.6585;0.1307;
886.5000;0.6553;0.1214;
886.8000;0.6536;0.1214;
887.1000;0.6553;0.1284;
887.4000;0.6553;0.1214;
887.7000;0.6545;0.1167;
888.0000;0.6528;0.1074;
888.3000;0.6545;0.1027;
888.6000;0.6536;0.0957;
888.9000;0.6471;0.0700;
889.2000;0.6536;0.0910;
889.5000;0.6536;0.0957;
889.8000;0.6553;0.0980;
890.1000;0.6528;0.0980;
890.4000;0.6536;0.1004;
890.7000;0.6545;0.1050;
891.0000;0.6488;0.0840;
891.3000;0.6520;0.0934;
891.6000;0.6512;0.1004;
891.9000;0.6545;0.1050;
892.2000;0.6520;0.0910;
892.5000;0.6536;0.0957;
892.8000;0.6545;0.1027;
893.1000;0.6528;0.1050;
893.4000;0.6536;0.1074;
893.7000;0.6610;0.1237;
894.0000;0.6520;0.1027;
894.3000;0.6520;0.0934;
894.6000;0.6520;0.0934;
894.9000;0.6520;0.1050;
895.2000;0.6528;0.1050;
895.5000;0.6528;0.1144;
895.8000;0.6488;0.0980;
896.1000;0.6512;0.1027;
896.4000;0.6528;0.1004;
896.7000;0.6528;0.0957;
897.0000;0.6528;0.1004;
897.3000;0.6520;0.1120;
897.6000;0.6528;0.1120;
897.9000;0.6512;0.1027;
898.2000;0.6528;0.1074;
898.5000;0.6520;0.1074;
898.8000;0.6528;0.1120;
899.1000;0.6553;0.1167;
899.4000;0.6520;0.1027;
899.7000;0.6528;0.0980;
900.0000;0.6528;0.1004;
900.3000;0.6512;0.1027;
900.6000;0.6512;0.1074;
900.9000;0.6504;0.1144;
901.2000;0.6496;0.1167;
901.5000;0.6504;0.1167;
901.8000;0.6455;0.1050;
902.1000;0.6520;0.1120;
902.4000;0.6512;0.1167;
902.7000;0.6512;0.1214;
903.0000;0.6520;0.1190;
903.3000;0.6528;0.1284;
903.6000;0.6512;0.1237;
903.9000;0.6528;0.1330;
904.2000;0.6512;0.1237;
904.5000;0.6536;0.1237;
904.8000;0.6528;0.1190;
905.1000;0.6561;0.1354;
905.4000;0.6504;0.1190;
905.7000;0.6504;0.1167;
906.0000;0.6512;0.1214;
906.3000;0.6504;0.1167;
906.6000;0.6479;0.1144;
906.9000;0.6496;0.1120;
907.2000;0.6520;0.1097;
907.5000;0.6528;0.1167;
907.8000;0.6488;0.1097;
908.1000;0.6512;0.1120;
908.4000;0.6520;0.1167;
908.7000;0.6496;0.1167;
909.0000;0.6545;0.1214;
909.3000;0.6520;0.1214;
909.6000;0.6520;0.1214;
909.9000;0.6439;0.1074;
910.2000;0.6520;0.1214;
910.5000;0.6512;0.1144;
910.8000;0.6536;0.1307;
911.1000;0.6504;0.1284;
911.4000;0.6520;0.1237;
911.7000;0.6528;0.1214;
912.0000;0.6512;0.1167;
912.3000;0.6520;0.1214;
912.6000;0.6471;0.1097;
912.9000;0.6455;0.1120;
913.2000;0.6512;0.1167;
913.5000;0.6512;0.1284;
913.8000;0.6512;0.1330;
914.1000;0.6504;0.1190;
914.4000;0.6520;0.1097;
914.7000;0.6536;0.1167;
915.0000;0.6496;0.1004;
915.3000;0.6512;0.1004;
915.6000;0.6479;0.1004;
915.9000;0.6520;0.1074;
916.2000;0.6528;0.1027;
916.5000;0.6512;0.0980;
916.8000;0.6504;0.0980;
917.1000;0.6504;0.1004;
917.4000;0.6512;0.1050;
917.7000;0.6496;0.1004;
918.0000;0.6496;0.1027;
918.3000;0.6496;0.1050;
918.6000;0.6512;0.1120;
918.9000;0.6512;0.1190;
919.2000;0.6504;0.1167;
919.5000;0.6520;0.1097;
919.8000;0.6504;0.1050;
920.1000;0.6520;0.1144;
920.4000;0.6512;0.1190;
920.7000;0.6536;0.1214;
921.0000;0.6553;0.1214;
921.3000;0.6536;0.1284;
921.6000;0.6447;0.1074;
921.9000;0.6496;0.1167;
922.2000;0.6504;0.1120;
922.5000;0.6496;0.1120;
922.8000;0.6496;0.1120;
923.1000;0.6520;0.1237;
923.4000;0.6479;0.1144;
923.7000;0.6479;0.1120;
924.0000;0.6504;0.1120;
924.3000;0.6504;0.1120;
924.6000;0.6504;0.1074;
924.9000;0.6488;0.0980;
925.2000;0.6520;0.1097;
925.5000;0.6488;0.1144;
925.8000;0.6463;0.1097;
926.1000;0.6528;0.1307;
926.4000;0.6496;0.1214;
926.7000;0.6496;0.1284;
927.0000;0.6488;0.1167;
927.3000;0.6496;0.1120;
927.6000;0.6471;0.1097;
927.9000;0.6512;0.1214;
928.2000;0.6488;0.1050;
928.5000;0.6479;0.1074;
928.8000;0.6463;0.1074;
929.1000;0.6504;0.1144;
929.4000;0.6488;0.1144;
929.7000;0.6496;0.1214;
930.0000;0.6463;0.1284;
930.3000;0.6504;0.1400;
930.6000;0.6512;0.1330;
930.9000;0.6512;0.1377;
931.2000;0.6463;0.1214;
931.5000;0.6512;0.1424;
931.8000;0.6488;0.1424;
932.1000;0.6520;0.1447;
932.4000;0.6479;0.1330;
932.7000;0.6455;0.1284;
933.0000;0.6463;0.1260;
933.3000;0.6536;0.1517;
933.6000;0.6463;0.1284;
933.9000;0.6496;0.1307;
934.2000;0.6545;0.1400;
934.5000;0.6504;0.1377;
934.8000;0.6488;0.1354;
935.1000;0.6479;0.1377;
935.4000;0.6496;0.1400;
935.7000;0.6488;0.1284;
936.0000;0.6479;0.1237;
936.3000;0.6479;0.1377;
936.6000;0.6471;0.1354;
936.9000;0.6447;0.1307;
937.2000;0.6488;0.1377;
937.5000;0.6479;0.1354;
937.8000;0.6488;0.1424;
938.1000;0.6488;0.1330;
938.4000;0.6488;0.1330;
938.7000;0.6479;0.1307;
939.0000;0.6504;0.1307;
939.3000;0.6471;0.1190;
939.6000;0.6488;0.1190;
939.9000;0.6479;0.1167;
940.2000;0.6496;0.1167;
940.5000;0.6520;0.1237;
940.8000;0.6496;0.1260;
941.1000;0.6471;0.1120;
941.4000;0.6479;0.1074;
941.7000;0.6496;0.1097;
942.0000;0.6479;0.1190;
942.3000;0.6479;0.1190;
942.6000;0.6479;0.1214;
942.9000;0.6479;0.1097;
943.2000;0.6496;0.1167;
943.5000;0.6488;0.1190;
943.8000;0.6471;0.1097;
944.1000;0.6479;0.1120;
944.4000;0.6463;0.1144;
944.7000;0.6447;0.1050;
945.0000;0.6463;0.1097;
945.3000;0.6463;0.1097;
945.6000;0.6479;0.1144;
945.9000;0.6488;0.1074;
946.2000;0.6471;0.1120;
946.5000;0.6545;0.1260;
946.8000;0.6528;0.1307;
947.1000;0.6463;0.1214;
947.4000;0.6471;0.1284;
947.7000;0.6447;0.1330;
948.0000;0.6447;0.1354;
948.3000;0.6455;0.1377;
948.6000;0.6488;0.1354;
948.9000;0.6536;0.1424;
949.2000;0.6414;0.1214;
949.5000;0.6496;0.1400;
949.8000;0.6471;0.1260;
950.1000;0.6455;0.1190;
950.4000;0.6463;0.1144;
950.7000;0.6463;0.1190;
951.0000;0.6471;0.1167;
951.3000;0.6463;0.1167;
951.6000;0.6479;0.1214;
951.9000;0.6455;0.1144;
952.2000;0.6463;0.1237;
952.5000;0.6471;0.1307;
952.8000;0.6471;0.1284;
953.1000;0.6463;0.1307;
953.4000;0.6545;0.1424;
953.7000;0.6479;0.1237;
954.0000;0.6455;0.1190;
954.3000;0.6471;0.1237;
954.6000;0.6528;0.1424;
954.9000;0.6463;0.1284;
955.2000;0.6479;0.1237;
955.5000;0.6471;0.1214;
955.8000;0.6463;0.1284;
956.1000;0.6463;0.1237;
956.4000;0.6463;0.1190;
956.7000;0.6488;0.1214;
957.0000;0.6479;0.1284;
957.3000;0.6471;0.1214;
957.6000;0.6471;0.1214;
957.9000;0.6463;0.1260;
958.2000;0.6479;0.1237;
958.5000;0.6463;0.1167;
958.8000;0.6479;0.1284;
959.1000;0.6463;0.1167;
959.4000;0.6447;0.1120;
959.7000;0.6463;0.1190;
960.0000;0.6471;0.1214;
960.3000;0.6463;0.1190;
960.6000;0.6471;0.1190;
960.9000;0.6463;0.1237;
961.2000;0.6479;0.1237;
961.5000;0.6488;0.1214;
961.8000;0.6471;0.1190;
962.1000;0.6455;0.1167;
962.4000;0.6471;0.1190;
962.7000;0.6463;0.1120;
963.0000;0.6471;0.1120;
963.3000;0.6463;0.1167;
963.6000;0.6463;0.1120;
963.9000;0.6471;0.1074;
964.2000;0.6471;0.1074;
964.5000;0.6463;0.1120;
964.8000;0.6496;0.1237;
965.1000;0.6479;0.1237;
965.4000;0.6455;0.1190;
965.7000;0.6455;0.1190;
966.0000;0.6463;0.1214;
966.3000;0.6463;0.1167;
966.6000;0.6471;0.1260;
966.9000;0.6455;0.1260;
967.2000;0.6447;0.1190;
967.5000;0.6455;0.1167;
967.8000;0.6488;0.1284;
968.1000;0.6471;0.1190;
968.4000;0.6447;0.1120;
968.7000;0.6447;0.1074;
969.0000;0.6471;0.1144;
969.3000;0.6479;0.1167;
969.6000;0.6439;0.1097;
969.9000;0.6406;0.0910;
970.2000;0.6447;0.0957;
970.5000;0.6455;0.1004;
970.8000;0.6455;0.1074;
971.1000;0.6471;0.1167;
971.4000;0.6447;0.1237;
971.7000;0.6471;0.1260;
972.0000;0.6439;0.1120;
972.3000;0.6447;0.1120;
972.6000;0.6439;0.1074;
972.9000;0.6463;0.1074;
973.2000;0.6455;0.1004;
973.5000;0.6439;0.0980;
973.8000;0.6504;0.1167;
974.1000;0.6447;0.1050;
974.4000;0.6512;0.1237;
974.7000;0.6447;0.1074;
975.0000;0.6439;0.1027;
975.3000;0.6455;0.1097;
975.6000;0.6439;0.1097;
975.9000;0.6447;0.1074;
976.2000;0.6447;0.1074;
976.5000;0.6496;0.1190;
976.8000;0.6455;0.1120;
977.1000;0.6455;0.1260;
977.4000;0.6439;0.1167;
977.7000;0.6455;0.1190;
978.0000;0.6455;0.1237;
978.3000;0.6422;0.1190;
978.6000;0.6439;0.1237;
978.9000;0.6439;0.1307;
979.2000;0.6479;0.1400;
979.5000;0.6447;0.1214;
979.8000;0.6488;0.1307;
980.1000;0.6406;0.1004;
980.4000;0.6455;0.1144;
980.7000;0.6479;0.1120;
981.0000;0.6455;0.0980;
981.3000;0.6431;0.1004;
981.6000;0.6439;0.1050;
981.9000;0.6463;0.1074;
982.2000;0.6447;0.1004;
982.5000;0.6512;0.1097;
982.8000;0.6471;0.1074;
983.1000;0.6455;0.1120;
983.4000;0.6439;0.0957;
983.7000;0.6447;0.0980;
984.0000;0.6439;0.1050;
984.3000;0.6455;0.1190;
984.6000;0.6455;0.1214;
984.9000;0.6455;0.1144;
985.2000;0.6431;0.1120;
985.5000;0.6455;0.1167;
985.8000;0.6374;0.0980;
986.1000;0.6439;0.1097;
986.4000;0.6439;0.1074;
986.7000;0.6414;0.1027;
987.0000;0.6447;0.1120;
987.3000;0.6439;0.1050;
987.6000;0.6439;0.1027;
987.9000;0.6471;0.1167;
988.2000;0.6447;0.1097;
988.5000;0.6447;0.1167;
988.8000;0.6414;0.1074;
989.1000;0.6439;0.1167;
989.4000;0.6447;0.1190;
989.7000;0.6463;0.1167;
990.0000;0.6439;0.1144;
990.3000;0.6431;0.1097;
990.6000;0.6447;0.1144;
990.9000;0.6439;0.1050;
991.2000;0.6471;0.1097;
991.5000;0.6447;0.1050;
991.8000;0.6447;0.1074;
992.1000;0.6455;0.1074;
992.4000;0.6439;0.0957;
992.7000;0.6439;0.1027;
993.0000;0.6431;0.1074;
993.3000;0.6447;0.1027;
993.6000;0.6439;0.0910;
993.9000;0.6406;0.0794;
994.2000;0.6471;0.0980;
994.5000;0.6447;0.0887;
994.8000;0.6365;0.0770;
995.1000;0.6439;0.1050;
995.4000;0.6463;0.1144;
995.7000;0.6439;0.1097;
996.0000;0.6447;0.1097;
996.3000;0.6422;0.1120;
996.6000;0.6431;0.1050;
996.9000;0.6447;0.1050;
997.2000;0.6479;0.1190;
997.5000;0.6422;0.1074;
997.8000;0.6398;0.1027;
998.1000;0.6414;0.1097;
998.4000;0.6439;0.1144;
998.7000;0.6447;0.1307;
999.0000;0.6439;0.1377;
999.3000;0.6439;0.1284;
999.6000;0.6439;0.1284;
999.9000;0.6455;0.1260;
1000.2000;0.6431;0.1190;
1000.5000;0.6488;0.1354;
1000.8000;0.6439;0.1307;
1001.1000;0.6471;0.1330;
1001.4000;0.6439;0.1377;
1001.7000;0.6439;0.1400;
1002.0000;0.6439;0.1447;
1002.3000;0.6414;0.1330;
1002.6000;0.6431;0.1470;
1002.9000;0.6431;0.1354;
1003.2000;0.6439;0.1307;
1003.5000;0.6447;0.1307;
1003.8000;0.6463;0.1307;
1004.1000;0.6447;0.1307;
1004.4000;0.6439;0.1284;
1004.7000;0.6439;0.1214;
1005.0000;0.6398;0.1050;
1005.3000;0.6455;0.1074;
1005.6000;0.6439;0.1074;
1005.9000;0.6447;0.1050;
1006.2000;0.6422;0.1004;
1006.5000;0.6447;0.1097;
1006.8000;0.6422;0.1027;
1007.1000;0.6406;0.0957;
1007.4000;0.6431;0.1004;
1007.7000;0.6398;0.0957;
1008.0000;0.6414;0.0957;
1008.3000;0.6439;0.0957;
1008.6000;0.6422;0.1027;
1008.9000;0.6431;0.1120;
1009.2000;0.6398;0.1097;
1009.5000;0.6414;0.1144;
1009.8000;0.6422;0.1237;
1010.1000;0.6439;0.1260;
1010.4000;0.6439;0.1330;
1010.7000;0.6390;0.1237;
1011.0000;0.6414;0.1260;
1011.3000;0.6431;0.1307;
1011.6000;0.6422;0.1284;
1011.9000;0.6422;0.1307;
1012.2000;0.6431;0.1307;
1012.5000;0.6422;0.1260;
1012.8000;0.6422;0.1167;
1013.1000;0.6431;0.1214;
1013.4000;0.6422;0.1190;
1013.7000;0.6447;0.1214;
1014.0000;0.6439;0.1190;
1014.3000;0.6431;0.1167;
1014.6000;0.6422;0.1190;
1014.9000;0.6455;0.1307;
1015.2000;0.6463;0.1377;
1015.5000;0.6431;0.1354;
1015.8000;0.6431;0.1377;
1016.1000;0.6439;0.1284;
1016.4000;0.6463;0.1307;
1016.7000;0.6431;0.1260;
1017.0000;0.6406;0.1120;
1017.3000;0.6406;0.1144;
1017.6000;0.6406;0.1237;
1017.9000;0.6431;0.1260;
1018.2000;0.6439;0.1190;
1018.5000;0.6447;0.1237;
1018.8000;0.6439;0.1120;
1019.1000;0.6447;0.1167;
1019.4000;0.6422;0.1074;
1019.7000;0.6414;0.1097;
1020.0000;0.6390;0.1097;
1020.3000;0.6439;0.1260;
1020.6000;0.6496;0.1470;
1020.9000;0.6406;0.1190;
1021.2000;0.6398;0.1190;
1021.5000;0.6439;0.1214;
1021.8000;0.6439;0.1237;
1022.1000;0.6406;0.1190;
1022.4000;0.6406;0.1237;
1022.7000;0.6422;0.1260;
1023.0000;0.6414;0.1190;
1023.3000;0.6422;0.1284;
1023.6000;0.6414;0.1307;
1023.9000;0.6471;0.1517;
1024.2000;0.6422;0.1354;
1024.5000;0.6422;0.1330;
1024.8000;0.6422;0.1354;
1025.1000;0.6406;0.1284;
1025.4000;0.6431;0.1307;
1025.7000;0.6471;0.1377;
1026.0000;0.6349;0.1144;
1026.3000;0.6455;0.1424;
1026.6000;0.6431;0.1354;
1026.9000;0.6439;0.1424;
1027.2000;0.6422;0.1400;
1027.5000;0.6431;0.1494;
1027.8000;0.6422;0.1494;
1028.1000;0.6431;0.1494;
1028.4000;0.6431;0.1470;
1028.7000;0.6414;0.1424;
1029.0000;0.6447;0.1564;
1029.3000;0.6414;0.1564;
1029.6000;0.6479;0.1587;
1029.9000;0.6431;0.1517;
1030.2000;0.6398;0.1494;
1030.5000;0.6431;0.1494;
1030.8000;0.6414;0.1470;
1031.1000;0.6398;0.1424;
1031.4000;0.6406;0.1377;
1031.7000;0.6422;0.1354;
1032.0000;0.6422;0.1354;
1032.3000;0.6414;0.1377;
1032.6000;0.6365;0.1214;
1032.9000;0.6414;0.1377;
1033.2000;0.6398;0.1424;
1033.5000;0.6422;0.1447;
1033.8000;0.6414;0.1470;
1034.1000;0.6390;0.1494;
1034.4000;0.6414;0.1540;
1034.7000;0.6422;0.1517;
1035.0000;0.6414;0.1447;
1035.3000;0.6406;0.1424;
1035.6000;0.6422;0.1377;
1035.9000;0.6406;0.1284;
1036.2000;0.6390;0.1190;
1036.5000;0.6414;0.1214;
1036.8000;0.6398;0.1214;
1037.1000;0.6414;0.1284;
1037.4000;0.6414;0.1400;
1037.7000;0.6471;0.1587;
1038.0000;0.6439;0.1470;
1038.3000;0.6431;0.1517;
1038.6000;0.6447;0.1494;
1038.9000;0.6414;0.1377;
1039.2000;0.6431;0.1494;
1039.5000;0.6431;0.1494;
1039.8000;0.6414;0.1517;
1040.1000;0.6365;0.1330;
1040.4000;0.6382;0.1377;
1040.7000;0.6398;0.1330;
1041.0000;0.6406;0.1307;
1041.3000;0.6414;0.1330;
1041.6000;0.6447;0.1354;
1041.9000;0.6406;0.1307;
1042.2000;0.6422;0.1307;
1042.5000;0.6414;0.1260;
1042.8000;0.6414;0.1284;
1043.1000;0.6406;0.1307;
1043.4000;0.6414;0.1354;
1043.7000;0.6422;0.1307;
1044.0000;0.6398;0.1354;
1044.3000;0.6398;0.1354;
1044.6000;0.6374;0.1284;
1044.9000;0.6382;0.1237;
1045.2000;0.6463;0.1447;
1045.5000;0.6390;0.1284;
1045.8000;0.6422;0.1470;
1046.1000;0.6422;0.1517;
1046.4000;0.6414;0.1470;
1046.7000;0.6398;0.1447;
1047.0000;0.6382;0.1400;
1047.3000;0.6390;0.1424;
1047.6000;0.6406;0.1494;
1047.9000;0.6463;0.1564;
1048.2000;0.6390;0.1284;
1048.5000;0.6398;0.1330;
1048.8000;0.6406;0.1330;
1049.1000;0.6414;0.1377;
1049.4000;0.6414;0.1307;
1049.7000;0.6357;0.1097;
1050.0000;0.6398;0.1214;
1050.3000;0.6406;0.1284;
1050.6000;0.6398;0.1307;
1050.9000;0.6390;0.1307;
1051.2000;0.6422;0.1447;
1051.5000;0.6406;0.1540;
1051.8000;0.6398;0.1424;
1052.1000;0.6422;0.1354;
1052.4000;0.6406;0.1307;
1052.7000;0.6447;0.1400;
1053.0000;0.6414;0.1284;
1053.3000;0.6406;0.1260;
1053.6000;0.6431;0.1354;
1053.9000;0.6422;0.1400;
1054.2000;0.6414;0.1424;
1054.5000;0.6414;0.1447;
1054.8000;0.6406;0.1540;
1055.1000;0.6414;0.1494;
1055.4000;0.6406;0.1540;
1055.7000;0.6431;0.1564;
1056.0000;0.6398;0.1424;
1056.3000;0.6406;0.1540;
1056.6000;0.6414;0.1517;
1056.9000;0.6390;0.1400;
1057.2000;0.6398;0.1447;
1057.5000;0.6406;0.1494;
1057.8000;0.6414;0.1564;
1058.1000;0.6422;0.1540;
1058.4000;0.6414;0.1494;
1058.7000;0.6398;0.1354;
1059.0000;0.6431;0.1424;
1059.3000;0.6414;0.1447;
1059.6000;0.6398;0.1424;
1059.9000;0.6406;0.1400;
1060.2000;0.6398;0.1447;
1060.5000;0.6398;0.1377;
1060.8000;0.6309;0.1120;
1061.1000;0.6382;0.1377;
1061.4000;0.6406;0.1424;
1061.7000;0.6414;0.1517;
1062.0000;0.6390;0.1470;
1062.3000;0.6382;0.1494;
1062.6000;0.6398;0.1540;
1062.9000;0.6406;0.1540;
1063.2000;0.6422;0.1540;
1063.5000;0.6406;0.1517;
1063.8000;0.6447;0.1587;
1064.1000;0.6374;0.1354;
1064.4000;0.6398;0.1400;
1064.7000;0.6406;0.1377;
1065.0000;0.6414;0.1424;
1065.3000;0.6414;0.1354;
1065.6000;0.6414;0.1377;
1065.9000;0.6414;0.1377;
1066.2000;0.6398;0.1260;
1066.5000;0.6463;0.1400;
1066.8000;0.6422;0.1330;
1067.1000;0.6406;0.1307;
1067.4000;0.6374;0.1307;
1067.7000;0.6414;0.1400;
1068.0000;0.6406;0.1400;
1068.3000;0.6382;0.1330;
1068.6000;0.6414;0.1307;
1068.9000;0.6406;0.1400;
1069.2000;0.6398;0.1494;
1069.5000;0.6414;0.1540;
1069.8000;0.6414;0.1587;
1070.1000;0.6496;0.1844;
1070.4000;0.6406;0.1587;
1070.7000;0.6390;0.1587;
1071.0000;0.6398;0.1540;
1071.3000;0.6398;0.1470;
1071.6000;0.6398;0.1470;
1071.9000;0.6414;0.1447;
1072.2000;0.6398;0.1237;
1072.5000;0.6390;0.1190;
1072.8000;0.6398;0.1237;
1073.1000;0.6398;0.1330;
1073.4000;0.6406;0.1354;
1073.7000;0.6406;0.1354;
1074.0000;0.6414;0.1424;
1074.3000;0.6406;0.1400;
1074.6000;0.6414;0.1494;
1074.9000;0.6406;0.1564;
1075.2000;0.6398;0.1470;
1075.5000;0.6398;0.1377;
1075.8000;0.6374;0.1330;
1076.1000;0.6398;0.1260;
1076.4000;0.6382;0.1237;
1076.7000;0.6398;0.1284;
1077.0000;0.6398;0.1424;
1077.3000;0.6414;0.1470;
1077.6000;0.6398;0.1400;
1077.9000;0.6406;0.1447;
1078.2000;0.6398;0.1400;
1078.5000;0.6406;0.1400;
1078.8000;0.6390;0.1377;
1079.1000;0.6414;0.1330;
1079.4000;0.6406;0.1330;
1079.7000;0.6406;0.1330;
1080.0000;0.6406;0.1260;
1080.3000;0.6390;0.1190;
1080.6000;0.6398;0.1214;
1080.9000;0.6406;0.1214;
1081.2000;0.6390;0.1144;
1081.5000;0.6406;0.1097;
1081.8000;0.6431;0.1214;
1082.1000;0.6406;0.1214;
1082.4000;0.6406;0.1167;
1082.7000;0.6406;0.1120;
1083.0000;0.6382;0.1144;
1083.3000;0.6382;0.1120;
1083.6000;0.6398;0.1284;
1083.9000;0.6374;0.1214;
1084.2000;0.6382;0.1214;
1084.5000;0.6390;0.1354;
1084.8000;0.6365;0.1260;
1085.1000;0.6390;0.1330;
1085.4000;0.6398;0.1354;
1085.7000;0.6382;0.1260;
1086.0000;0.6349;0.1237;
1086.3000;0.6406;0.1377;
1086.6000;0.6439;0.1564;
1086.9000;0.6414;0.1424;
1087.2000;0.6439;0.1610;
1087.5000;0.6431;0.1517;
1087.8000;0.6414;0.1447;
1088.1000;0.6365;0.1377;
1088.4000;0.6382;0.1447;
1088.7000;0.6406;0.1517;
1089.0000;0.6382;0.1470;
1089.3000;0.6365;0.1400;
1089.6000;0.6390;0.1424;
1089.9000;0.6390;0.1354;
1090.2000;0.6382;0.1330;
1090.5000;0.6431;0.1447;
1090.8000;0.6431;0.1447;
1091.1000;0.6390;0.1424;
1091.4000;0.6398;0.1470;
1091.7000;0.6382;0.1354;
1092.0000;0.6382;0.1377;
1092.3000;0.6406;0.1354;
1092.6000;0.6390;0.1354;
1092.9000;0.6365;0.1284;
1093.2000;0.6374;0.1307;
1093.5000;0.6390;0.1307;
1093.8000;0.6365;0.1377;
1094.1000;0.6365;0.1330;
1094.4000;0.6382;0.1400;
1094.7000;0.6382;0.1447;
1095.0000;0.6398;0.1470;
1095.3000;0.6390;0.1424;
1095.6000;0.6382;0.1330;
1095.9000;0.6382;0.1377;
1096.2000;0.6406;0.1377;
1096.5000;0.6398;0.1377;
1096.8000;0.6382;0.1307;
1097.1000;0.6382;0.1354;
1097.4000;0.6390;0.1447;
1097.7000;0.6390;0.1470;
1098.0000;0.6398;0.1470;
1098.3000;0.6390;0.1447;
1098.6000;0.6398;0.1424;
1098.9000;0.6390;0.1377;
1099.2000;0.6390;0.1517;
1099.5000;0.6382;0.1517;
1099.8000;0.6390;0.1634;
1100.1000;0.6390;0.1564;
1100.4000;0.6382;0.1587;
1100.7000;0.6374;0.1587;
1101.0000;0.6398;0.1681;
1101.3000;0.6390;0.1681;
1101.6000;0.6398;0.1704;
1101.9000;0.6398;0.1681;
1102.2000;0.6390;0.1704;
1102.5000;0.6382;0.1751;
1102.8000;0.6390;0.1797;
1103.1000;0.6382;0.1821;
1103.4000;0.6414;0.1821;
1103.7000;0.6382;0.1681;
1104.0000;0.6390;0.1587;
1104.3000;0.6390;0.1400;
1104.6000;0.6365;0.1284;
1104.9000;0.6374;0.1400;
1105.2000;0.6382;0.1354;
1105.5000;0.6382;0.1330;
1105.8000;0.6398;0.1470;
1106.1000;0.6390;0.1354;
1106.4000;0.6398;0.1400;
1106.7000;0.6406;0.1400;
1107.0000;0.6398;0.1470;
1107.3000;0.6390;0.1494;
1107.6000;0.6357;0.1424;
1107.9000;0.6398;0.1517;
1108.2000;0.6365;0.1517;
1108.5000;0.6398;0.1540;
1108.8000;0.6357;0.1494;
1109.1000;0.6406;0.1540;
1109.4000;0.6414;0.1540;
1109.7000;0.6382;0.1447;
1110.0000;0.6374;0.1400;
1110.3000;0.6439;0.1540;
1110.6000;0.6398;0.1447;
1110.9000;0.6382;0.1424;
1111.2000;0.6374;0.1354;
1111.5000;0.6390;0.1424;
1111.8000;0.6374;0.1494;
1112.1000;0.6390;0.1540;
1112.4000;0.6374;0.1470;
1112.7000;0.6382;0.1470;
1113.0000;0.6398;0.1517;
1113.3000;0.6431;0.1587;
1113.6000;0.6382;0.1564;
1113.9000;0.6390;0.1587;
1114.2000;0.6422;0.1704;
1114.5000;0.6374;0.1634;
1114.8000;0.6365;0.1564;
1115.1000;0.6333;0.1424;
1115.4000;0.6365;0.1540;
1115.7000;0.6374;0.1587;
1116.0000;0.6390;0.1517;
1116.3000;0.6357;0.1377;
1116.6000;0.6382;0.1400;
1116.9000;0.6390;0.1517;
1117.2000;0.6382;0.1424;
1117.5000;0.6382;0.1447;
1117.8000;0.6365;0.1470;
1118.1000;0.6390;0.1470;
1118.4000;0.6365;0.1424;
1118.7000;0.6382;0.1400;
1119.0000;0.6374;0.1494;
1119.3000;0.6382;0.1494;
1119.6000;0.6365;0.1494;
1119.9000;0.6365;0.1447;
1120.2000;0.6365;0.1400;
1120.5000;0.6374;0.1494;
1120.8000;0.6382;0.1517;
1121.1000;0.6382;0.1517;
1121.4000;0.6365;0.1494;
1121.7000;0.6374;0.1540;
1122.0000;0.6365;0.1517;
1122.3000;0.6374;0.1564;
1122.6000;0.6374;0.1610;
1122.9000;0.6365;0.1587;
1123.2000;0.6365;0.1494;
1123.5000;0.6365;0.1400;
1123.8000;0.6357;0.1424;
1124.1000;0.6349;0.1400;
1124.4000;0.6374;0.1494;
1124.7000;0.6390;0.1610;
1125.0000;0.6357;0.1494;
1125.3000;0.6374;0.1587;
1125.6000;0.6382;0.1564;
1125.9000;0.6390;0.1540;
1126.2000;0.6365;0.1494;
1126.5000;0.6374;0.1494;
1126.8000;0.6390;0.1540;
1127.1000;0.6382;0.1517;
1127.4000;0.6374;0.1610;
1127.7000;0.6390;0.1564;
1128.0000;0.6390;0.1610;
1128.3000;0.6398;0.1681;
1128.6000;0.6374;0.1634;
1128.9000;0.6374;0.1540;
1129.2000;0.6382;0.1587;
1129.5000;0.6398;0.1704;
1129.8000;0.6382;0.1634;
1130.1000;0.6374;0.1634;
1130.4000;0.6357;0.1564;
1130.7000;0.6382;0.1587;
1131.0000;0.6390;0.1634;
1131.3000;0.6390;0.1564;
1131.6000;0.6382;0.1540;
1131.9000;0.6398;0.1540;
1132.2000;0.6431;0.1657;
1132.5000;0.6390;0.1587;
1132.8000;0.6398;0.1657;
1133.1000;0.6398;0.1681;
1133.4000;0.6390;0.1681;
1133.7000;0.6406;0.1704;
1134.0000;0.6528;0.2007;
1134.3000;0.6374;0.1587;
1134.6000;0.6365;0.1540;
1134.9000;0.6406;0.1587;
1135.2000;0.6349;0.1447;
1135.5000;0.6390;0.1447;
1135.8000;0.6365;0.1424;
1136.1000;0.6406;0.1494;
1136.4000;0.6357;0.1377;
1136.7000;0.6374;0.1424;
1137.0000;0.6374;0.1377;
1137.3000;0.6447;0.1470;
1137.6000;0.6374;0.1307;
1137.9000;0.6365;0.1307;
1138.2000;0.6357;0.1330;
1138.5000;0.6382;0.1400;
1138.8000;0.6382;0.1424;
1139.1000;0.6374;0.1447;
1139.4000;0.6382;0.1424;
1139.7000;0.6374;0.1447;
1140.0000;0.6382;0.1470;
1140.3000;0.6398;0.1377;
1140.6000;0.6455;0.1540;
1140.9000;0.6382;0.1307;
1141.2000;0.6382;0.1214;
1141.5000;0.6422;0.1260;
1141.8000;0.6374;0.1144;
1142.1000;0.6414;0.1260;
1142.4000;0.6382;0.1237;
1142.7000;0.6390;0.1260;
1143.0000;0.6390;0.1284;
1143.3000;0.6333;0.1214;
1143.6000;0.6406;0.1400;
1143.9000;0.6398;0.1400;
1144.2000;0.6374;0.1494;
1144.5000;0.6422;0.1681;
1144.8000;0.6382;0.1587;
1145.1000;0.6390;0.1564;
1145.4000;0.6390;0.1564;
1145.7000;0.6398;0.1587;
1146.0000;0.6374;0.1587;
1146.3000;0.6382;0.1657;
1146.6000;0.6398;0.1727;
1146.9000;0.6357;0.1657;
1147.2000;0.6374;0.1587;
1147.5000;0.6357;0.1517;
1147.8000;0.6374;0.1517;
1148.1000;0.6349;0.1424;
1148.4000;0.6382;0.1424;
1148.7000;0.6374;0.1470;
1149.0000;0.6414;0.1610;
1149.3000;0.6390;0.1424;
1149.6000;0.6374;0.1354;
1149.9000;0.6365;0.1354;
1150.2000;0.6374;0.1470;
1150.5000;0.6349;0.1400;
1150.8000;0.6341;0.1470;
1151.1000;0.6374;0.1494;
1151.4000;0.6374;0.1424;
1151.7000;0.6374;0.1447;
1152.0000;0.6382;0.1517;
1152.3000;0.6382;0.1540;
1152.6000;0.6365;0.1517;
1152.9000;0.6374;0.1517;
1153.2000;0.6357;0.1517;
1153.5000;0.6439;0.1704;
1153.8000;0.6292;0.1330;
1154.1000;0.6374;0.1540;
1154.4000;0.6390;0.1517;
1154.7000;0.6349;0.1400;
1155.0000;0.6357;0.1307;
1155.3000;0.6382;0.1424;
1155.6000;0.6382;0.1307;
1155.9000;0.6349;0.1260;
1156.2000;0.6390;0.1284;
1156.5000;0.6317;0.1214;
1156.8000;0.6382;0.1377;
1157.1000;0.6349;0.1377;
1157.4000;0.6349;0.1424;
1157.7000;0.6300;0.1307;
1158.0000;0.6292;0.1330;
1158.3000;0.6349;0.1540;
1158.6000;0.6357;0.1587;
1158.9000;0.6341;0.1517;
1159.2000;0.6325;0.1470;
1159.5000;0.6365;0.1564;
1159.8000;0.6268;0.1284;
1160.1000;0.6341;0.1424;
1160.4000;0.6406;0.1587;
1160.7000;0.6365;0.1447;
1161.0000;0.6365;0.1400;
1161.3000;0.6374;0.1354;
1161.6000;0.6349;0.1424;
1161.9000;0.6382;0.1564;
1162.2000;0.6390;0.1681;
1162.5000;0.6357;0.1634;
1162.8000;0.6276;0.1377;
1163.1000;0.6349;0.1587;
1163.4000;0.6357;0.1517;
1163.7000;0.6365;0.1470;
1164.0000;0.6365;0.1470;
1164.3000;0.6365;0.1377;
1164.6000;0.6374;0.1470;
1164.9000;0.6357;0.1540;
1165.2000;0.6357;0.1564;
1165.5000;0.6357;0.1657;
1165.8000;0.6374;0.1751;
1166.1000;0.6357;0.1681;
1166.4000;0.6382;0.1634;
1166.7000;0.6374;0.1634;
1167.0000;0.6365;0.1634;
1167.3000;0.6341;0.1447;
1167.6000;0.6382;0.1540;
1167.9000;0.6349;0.1517;
1168.2000;0.6390;0.1540;
1168.5000;0.6357;0.1540;
1168.8000;0.6357;0.1424;
1169.1000;0.6357;0.1424;
1169.4000;0.6357;0.1424;
1169.7000;0.6365;0.1470;
1170.0000;0.6357;0.1494;
1170.3000;0.6374;0.1517;
1170.6000;0.6357;0.1447;
1170.9000;0.6422;0.1704;
1171.2000;0.6382;0.1564;
1171.5000;0.6349;0.1447;
1171.8000;0.6357;0.1354;
1172.1000;0.6357;0.1424;
1172.4000;0.6349;0.1447;
1172.7000;0.6357;0.1447;
1173.0000;0.6398;0.1587;
1173.3000;0.6357;0.1494;
1173.6000;0.6390;0.1587;
1173.9000;0.6390;0.1634;
1174.2000;0.6341;0.1540;
1174.5000;0.6365;0.1540;
1174.8000;0.6382;0.1564;
1175.1000;0.6422;0.1540;
1175.4000;0.6365;0.1330;
1175.7000;0.6365;0.1307;
1176.0000;0.6390;0.1330;
1176.3000;0.6382;0.1330;
1176.6000;0.6357;0.1284;
1176.9000;0.6463;0.1634;
1177.2000;0.6357;0.1470;
1177.5000;0.6374;0.1634;
1177.8000;0.6341;0.1540;
1178.1000;0.6365;0.1564;
1178.4000;0.6365;0.1540;
1178.7000;0.6365;0.1517;
1179.0000;0.6333;0.1470;
1179.3000;0.6333;0.1494;
1179.6000;0.6357;0.1540;
1179.9000;0.6365;0.1564;
1180.2000;0.6374;0.1517;
1180.5000;0.6365;0.1540;
1180.8000;0.6349;0.1447;
1181.1000;0.6382;0.1494;
1181.4000;0.6422;0.1634;
1181.7000;0.6382;0.1564;
1182.0000;0.6357;0.1610;
1182.3000;0.6341;0.1634;
1182.6000;0.6382;0.1657;
1182.9000;0.6333;0.1517;
1183.2000;0.6390;0.1634;
1183.5000;0.6349;0.1540;
1183.8000;0.6349;0.1540;
1184.1000;0.6390;0.1610;
1184.4000;0.6284;0.1330;
1184.7000;0.6349;0.1400;
1185.0000;0.6252;0.1284;
1185.3000;0.6390;0.1610;
1185.6000;0.6357;0.1470;
1185.9000;0.6341;0.1494;
1186.2000;0.6349;0.1517;
1186.5000;0.6374;0.1447;
1186.8000;0.6357;0.1424;
1187.1000;0.6341;0.1400;
1187.4000;0.6357;0.1517;
1187.7000;0.6349;0.1470;
1188.0000;0.6349;0.1470;
1188.3000;0.6382;0.1564;
1188.6000;0.6349;0.1470;
1188.9000;0.6349;0.1447;
1189.2000;0.6374;0.1494;
1189.5000;0.6382;0.1540;
1189.8000;0.6374;0.1540;
1190.1000;0.6357;0.1494;
1190.4000;0.6357;0.1540;
1190.7000;0.6349;0.1634;
1191.0000;0.6365;0.1704;
1191.3000;0.6349;0.1540;
1191.6000;0.6365;0.1540;
1191.9000;0.6365;0.1540;
1192.2000;0.6374;0.1657;
1192.5000;0.6357;0.1634;
1192.8000;0.6374;0.1657;
1193.1000;0.6365;0.1634;
1193.4000;0.6349;0.1634;
1193.7000;0.6349;0.1634;
1194.0000;0.6357;0.1517;
1194.3000;0.6341;0.1470;
1194.6000;0.6349;0.1494;
1194.9000;0.6341;0.1377;
1195.2000;0.6357;0.1400;
1195.5000;0.6382;0.1330;
1195.8000;0.6341;0.1214;
1196.1000;0.6341;0.1307;
1196.4000;0.6349;0.1377;
1196.7000;0.6357;0.1540;
1197.0000;0.6365;0.1634;
1197.3000;0.6317;0.1587;
1197.6000;0.6333;0.1657;
1197.9000;0.6325;0.1634;
1198.2000;0.6349;0.1634;
1198.5000;0.6349;0.1610;
1198.8000;0.6349;0.1494;
1199.1000;0.6357;0.1494;
1199.4000;0.6357;0.1540;
1199.7000;0.6341;0.1540;
1200.0000;0.6349;0.1634;
1200.3000;0.6365;0.1587;
1200.6000;0.6357;0.1564;
1200.9000;0.6357;0.1587;
1201.2000;0.6333;0.1540;
1201.5000;0.6365;0.1517;
1201.8000;0.6365;0.1540;
1202.1000;0.6357;0.1540;
1202.4000;0.6365;0.1494;
1202.7000;0.6325;0.1447;
1203.0000;0.6365;0.1494;
1203.3000;0.6357;0.1540;
1203.6000;0.6349;0.1517;
1203.9000;0.6349;0.1540;
1204.2000;0.6349;0.1610;
1204.5000;0.6341;0.1610;
1204.8000;0.6357;0.1681;
1205.1000;0.6349;0.1657;
1205.4000;0.6309;0.1540;
1205.7000;0.6374;0.1704;
1206.0000;0.6325;0.1587;
1206.3000;0.6374;0.1657;
1206.6000;0.6357;0.1517;
1206.9000;0.6357;0.1470;
1207.2000;0.6317;0.1377;
1207.5000;0.6349;0.1447;
1207.8000;0.6349;0.1377;
1208.1000;0.6341;0.1400;
1208.4000;0.6357;0.1400;
1208.7000;0.6357;0.1330;
1209.0000;0.6341;0.1307;
1209.3000;0.6422;0.1564;
1209.6000;0.6357;0.1307;
1209.9000;0.6349;0.1354;
1210.2000;0.6349;0.1400;
1210.5000;0.6341;0.1494;
1210.8000;0.6341;0.1424;
1211.1000;0.6341;0.1424;
1211.4000;0.6365;0.1470;
1211.7000;0.6349;0.1424;
1212.0000;0.6341;0.1400;
1212.3000;0.6357;0.1424;
1212.6000;0.6398;0.1610;
1212.9000;0.6341;0.1517;
1213.2000;0.6422;0.1657;
1213.5000;0.6357;0.1470;
1213.8000;0.6349;0.1447;
1214.1000;0.6357;0.1564;
1214.4000;0.6357;0.1540;
1214.7000;0.6365;0.1517;
1215.0000;0.6374;0.1517;
1215.3000;0.6365;0.1424;
1215.6000;0.6357;0.1400;
1215.9000;0.6374;0.1330;
1216.2000;0.6341;0.1214;
1216.5000;0.6365;0.1167;
1216.8000;0.6284;0.1097;
1217.1000;0.6349;0.1307;
1217.4000;0.6365;0.1377;
1217.7000;0.6333;0.1354;
1218.0000;0.6309;0.1307;
1218.3000;0.6333;0.1424;
1218.6000;0.6365;0.1470;
1218.9000;0.6276;0.1237;
1219.2000;0.6349;0.1494;
1219.5000;0.6341;0.1494;
1219.8000;0.6357;0.1494;
1220.1000;0.6341;0.1494;
1220.4000;0.6333;0.1470;
1220.7000;0.6333;0.1587;
1221.0000;0.6333;0.1540;
1221.3000;0.6333;0.1540;
1221.6000;0.6341;0.1517;
1221.9000;0.6341;0.1470;
1222.2000;0.6357;0.1540;
1222.5000;0.6341;0.1494;
1222.8000;0.6374;0.1424;
1223.1000;0.6341;0.1307;
1223.4000;0.6357;0.1377;
1223.7000;0.6365;0.1307;
1224.0000;0.6357;0.1330;
1224.3000;0.6374;0.1377;
1224.6000;0.6349;0.1377;
1224.9000;0.6357;0.1447;
1225.2000;0.6333;0.1377;
1225.5000;0.6349;0.1330;
1225.8000;0.6357;0.1424;
1226.1000;0.6341;0.1400;
1226.4000;0.6341;0.1330;
1226.7000;0.6349;0.1237;
1227.0000;0.6333;0.1214;
1227.3000;0.6341;0.1237;
1227.6000;0.6341;0.1354;
1227.9000;0.6349;0.1354;
1228.2000;0.6341;0.1330;
1228.5000;0.6349;0.1284;
1228.8000;0.6357;0.1400;
1229.1000;0.6357;0.1424;
1229.4000;0.6365;0.1377;
1229.7000;0.6357;0.1424;
1230.0000;0.6414;0.1610;
1230.3000;0.6349;0.1447;
1230.6000;0.6390;0.1470;
1230.9000;0.6341;0.1377;
1231.2000;0.6398;0.1470;
1231.5000;0.6365;0.1400;
1231.8000;0.6333;0.1260;
1232.1000;0.6357;0.1330;
1232.4000;0.6349;0.1400;
1232.7000;0.6349;0.1424;
1233.0000;0.6357;0.1447;
1233.3000;0.6349;0.1470;
1233.6000;0.6309;0.1377;
1233.9000;0.6333;0.1470;
1234.2000;0.6357;0.1470;
1234.5000;0.6349;0.1447;
1234.8000;0.6341;0.1447;
1235.1000;0.6357;0.1424;
1235.4000;0.6365;0.1447;
1235.7000;0.6349;0.1447;
1236.0000;0.6341;0.1447;
1236.3000;0.6357;0.1447;
1236.6000;0.6333;0.1494;
1236.9000;0.6333;0.1494;
1237.2000;0.6365;0.1587;
1237.5000;0.6374;0.1610;
1237.8000;0.6317;0.1494;
1238.1000;0.6349;0.1494;
1238.4000;0.6365;0.1540;
1238.7000;0.6341;0.1494;
1239.0000;0.6357;0.1517;
1239.3000;0.6390;0.1540;
1239.6000;0.6341;0.1377;
1239.9000;0.6309;0.1400;
1240.2000;0.6357;0.1540;
1240.5000;0.6341;0.1517;
1240.8000;0.6398;0.1540;
1241.1000;0.6341;0.1400;
1241.4000;0.6333;0.1400;
1241.7000;0.6349;0.1447;
1242.0000;0.6349;0.1447;
1242.3000;0.6341;0.1447;
1242.6000;0.6374;0.1540;
1242.9000;0.6333;0.1447;
1243.2000;0.6349;0.1470;
1243.5000;0.6374;0.1517;
1243.8000;0.6341;0.1354;
1244.1000;0.6341;0.1307;
1244.4000;0.6349;0.1307;
1244.7000;0.6341;0.1447;
1245.0000;0.6309;0.1354;
1245.3000;0.6349;0.1540;
1245.6000;0.6349;0.1610;
1245.9000;0.6365;0.1634;
1246.2000;0.6349;0.1610;
1246.5000;0.6333;0.1587;
1246.8000;0.6349;0.1657;
1247.1000;0.6341;0.1540;
1247.4000;0.6341;0.1540;
1247.7000;0.6333;0.1494;
1248.0000;0.6349;0.1494;
1248.3000;0.6333;0.1564;
1248.6000;0.6349;0.1564;
1248.9000;0.6292;0.1400;
1249.2000;0.6349;0.1540;
1249.5000;0.6382;0.1681;
1249.8000;0.6365;0.1727;
1250.1000;0.6349;0.1751;
1250.4000;0.6325;0.1657;
1250.7000;0.6365;0.1727;
1251.0000;0.6382;0.1751;
1251.3000;0.6357;0.1704;
1251.6000;0.6341;0.1751;
1251.9000;0.6309;0.1610;
1252.2000;0.6349;0.1634;
1252.5000;0.6333;0.1564;
1252.8000;0.6333;0.1634;
1253.1000;0.6357;0.1704;
1253.4000;0.6341;0.1727;
1253.7000;0.6357;0.1797;
1254.0000;0.6357;0.1751;
1254.3000;0.6341;0.1610;
1254.6000;0.6317;0.1610;
1254.9000;0.6333;0.1657;
1255.2000;0.6349;0.1587;
1255.5000;0.6341;0.1540;
1255.8000;0.6333;0.1540;
1256.1000;0.6349;0.1540;
1256.4000;0.6333;0.1517;
1256.7000;0.6325;0.1494;
1257.0000;0.6374;0.1634;
1257.3000;0.6341;0.1564;
1257.6000;0.6365;0.1587;
1257.9000;0.6341;0.1470;
1258.2000;0.6341;0.1470;
1258.5000;0.6390;0.1610;
1258.8000;0.6398;0.1704;
1259.1000;0.6341;0.1564;
1259.4000;0.6341;0.1564;
1259.7000;0.6341;0.1587;
1260.0000;0.6349;0.1540;
1260.3000;0.6268;0.1307;
1260.6000;0.6398;0.1634;
1260.9000;0.6357;0.1657;
1261.2000;0.6341;0.1657;
1261.5000;0.6341;0.1610;
1261.8000;0.6325;0.1587;
1262.1000;0.6341;0.1704;
1262.4000;0.6398;0.1774;
1262.7000;0.6357;0.1751;
1263.0000;0.6341;0.1751;
1263.3000;0.6357;0.1681;
1263.6000;0.6357;0.1634;
1263.9000;0.6357;0.1681;
1264.2000;0.6341;0.1704;
1264.5000;0.6357;0.1704;
1264.8000;0.6349;0.1704;
1265.1000;0.6349;0.1564;
1265.4000;0.6341;0.1540;
1265.7000;0.6333;0.1564;
1266.0000;0.6349;0.1610;
1266.3000;0.6333;0.1564;
1266.6000;0.6349;0.1610;
1266.9000;0.6357;0.1564;
1267.2000;0.6349;0.1540;
1267.5000;0.6357;0.1564;
1267.8000;0.6349;0.1564;
1268.1000;0.6325;0.1494;
1268.4000;0.6341;0.1564;
1268.7000;0.6357;0.1564;
1269.0000;0.6317;0.1540;
1269.3000;0.6341;0.1564;
1269.6000;0.6309;0.1494;
1269.9000;0.6341;0.1610;
1270.2000;0.6349;0.1704;
1270.5000;0.6349;0.1704;
1270.8000;0.6333;0.1681;
1271.1000;0.6349;0.1657;
1271.4000;0.6406;0.1821;
1271.7000;0.6357;0.1681;
1272.0000;0.6365;0.1774;
1272.3000;0.6357;0.1774;
1272.6000;0.6406;0.1867;
1272.9000;0.6357;0.1727;
1273.2000;0.6349;0.1634;
1273.5000;0.6284;0.1424;
1273.8000;0.6357;0.1587;
1274.1000;0.6341;0.1540;
1274.4000;0.6333;0.1564;
1274.7000;0.6341;0.1470;
1275.0000;0.6382;0.1540;
1275.3000;0.6260;0.1284;
1275.6000;0.6341;0.1470;
1275.9000;0.6349;0.1564;
1276.2000;0.6349;0.1610;
1276.5000;0.6398;0.1751;
1276.8000;0.6349;0.1564;
1277.1000;0.6349;0.1587;
1277.4000;0.6341;0.1494;
1277.7000;0.6341;0.1540;
1278.0000;0.6309;0.1494;
1278.3000;0.6349;0.1494;
1278.6000;0.6341;0.1517;
1278.9000;0.6341;0.1494;
1279.2000;0.6300;0.1424;
1279.5000;0.6341;0.1517;
1279.8000;0.6341;0.1540;
1280.1000;0.6349;0.1564;
1280.4000;0.6414;0.1727;
1280.7000;0.6325;0.1517;
1281.0000;0.6333;0.1517;
1281.3000;0.6365;0.1587;
1281.6000;0.6341;0.1540;
1281.9000;0.6349;0.1517;
1282.2000;0.6349;0.1540;
1282.5000;0.6341;0.1540;
1282.8000;0.6341;0.1564;
1283.1000;0.6333;0.1540;
1283.4000;0.6357;0.1564;
1283.7000;0.6333;0.1540;
1284.0000;0.6341;0.1447;
1284.3000;0.6341;0.1447;
1284.6000;0.6374;0.1564;
1284.9000;0.6341;0.1494;
1285.2000;0.6268;0.1284;
1285.5000;0.6349;0.1494;
1285.8000;0.6333;0.1494;
1286.1000;0.6325;0.1517;
1286.4000;0.6365;0.1564;
1286.7000;0.6365;0.1610;
1287.0000;0.6317;0.1564;
1287.3000;0.6349;0.1564;
1287.6000;0.6349;0.1517;
1287.9000;0.6341;0.1517;
1288.2000;0.6341;0.1494;
1288.5000;0.6349;0.1610;
1288.8000;0.6333;0.1540;
1289.1000;0.6349;0.1657;
1289.4000;0.6349;0.1610;
1289.7000;0.6357;0.1610;
1290.0000;0.6357;0.1681;
1290.3000;0.6349;0.1657;
1290.6000;0.6341;0.1657;
1290.9000;0.6349;0.1610;
1291.2000;0.6341;0.1610;
1291.5000;0.6341;0.1610;
1291.8000;0.6365;0.1704;
1292.1000;0.6398;0.1821;
1292.4000;0.6349;0.1727;
1292.7000;0.6309;0.1634;
1293.0000;0.6365;0.1727;
1293.3000;0.6349;0.1704;
1293.6000;0.6349;0.1657;
1293.9000;0.6325;0.1634;
1294.2000;0.6325;0.1587;
1294.5000;0.6349;0.1634;
1294.8000;0.6365;0.1564;
1295.1000;0.6365;0.1494;
1295.4000;0.6309;0.1377;
1295.7000;0.6341;0.1424;
1296.0000;0.6325;0.1377;
1296.3000;0.6357;0.1517;
1296.6000;0.6357;0.1540;
1296.9000;0.6341;0.1540;
1297.2000;0.6325;0.1494;
1297.5000;0.6349;0.1564;
1297.8000;0.6365;0.1657;
1298.1000;0.6333;0.1564;
1298.4000;0.6284;0.1494;
1298.7000;0.6333;0.1494;
1299.0000;0.6333;0.1447;
1299.3000;0.6365;0.1587;
1299.6000;0.6349;0.1587;
1299.9000;0.6349;0.1657;
1300.2000;0.6365;0.1681;
1300.5000;0.6300;0.1564;
1300.8000;0.6317;0.1564;
1301.1000;0.6325;0.1564;
1301.4000;0.6341;0.1564;
1301.7000;0.6300;0.1494;
1302.0000;0.6333;0.1587;
1302.3000;0.6349;0.1540;
1302.6000;0.6341;0.1610;
1302.9000;0.6333;0.1564;
1303.2000;0.6333;0.1447;
1303.5000;0.6349;0.1470;
1303.8000;0.6333;0.1494;
1304.1000;0.6333;0.1587;
1304.4000;0.6341;0.1470;
1304.7000;0.6333;0.1470;
1305.0000;0.6374;0.1540;
1305.3000;0.6341;0.1470;
1305.6000;0.6325;0.1377;
1305.9000;0.6341;0.1377;
1306.2000;0.6268;0.1214;
1306.5000;0.6284;0.1307;
1306.8000;0.6284;0.1307;
1307.1000;0.6333;0.1494;
1307.4000;0.6341;0.1447;
1307.7000;0.6365;0.1540;
1308.0000;0.6333;0.1494;
1308.3000;0.6325;0.1470;
1308.6000;0.6382;0.1540;
1308.9000;0.6341;0.1354;
1309.2000;0.6333;0.1330;
1309.5000;0.6333;0.1400;
1309.8000;0.6349;0.1470;
1310.1000;0.6341;0.1377;
1310.4000;0.6341;0.1377;
1310.7000;0.6333;0.1260;
1311.0000;0.6341;0.1330;
1311.3000;0.6333;0.1377;
1311.6000;0.6333;0.1354;
1311.9000;0.6317;0.1284;
1312.2000;0.6309;0.1237;
1312.5000;0.6333;0.1354;
1312.8000;0.6300;0.1237;
1313.1000;0.6333;0.1260;
1313.4000;0.6341;0.1307;
1313.7000;0.6374;0.1494;
1314.0000;0.6349;0.1400;
1314.3000;0.6333;0.1354;
1314.6000;0.6333;0.1447;
1314.9000;0.6292;0.1400;
1315.2000;0.6333;0.1447;
1315.5000;0.6341;0.1540;
1315.8000;0.6317;0.1470;
1316.1000;0.6309;0.1400;
1316.4000;0.6333;0.1494;
1316.7000;0.6333;0.1447;
1317.0000;0.6317;0.1377;
1317.3000;0.6317;0.1330;
1317.6000;0.6341;0.1330;
1317.9000;0.6325;0.1377;
1318.2000;0.6349;0.1424;
1318.5000;0.6309;0.1377;
1318.8000;0.6333;0.1517;
1319.1000;0.6341;0.1470;
1319.4000;0.6325;0.1400;
1319.7000;0.6325;0.1400;
1320.0000;0.6341;0.1424;
1320.3000;0.6341;0.1470;
1320.6000;0.6333;0.1447;
1320.9000;0.6317;0.1494;
1321.2000;0.6349;0.1587;
1321.5000;0.6333;0.1587;
1321.8000;0.6333;0.1564;
1322.1000;0.6333;0.1494;
1322.4000;0.6333;0.1424;
1322.7000;0.6317;0.1400;
1323.0000;0.6341;0.1447;
1323.3000;0.6333;0.1447;
1323.6000;0.6341;0.1447;
1323.9000;0.6349;0.1470;
1324.2000;0.6309;0.1400;
1324.5000;0.6317;0.1377;
1324.8000;0.6325;0.1517;
1325.1000;0.6390;0.1634;
1325.4000;0.6341;0.1564;
1325.7000;0.6333;0.1517;
1326.0000;0.6333;0.1564;
1326.3000;0.6325;0.1540;
1326.6000;0.6317;0.1540;
1326.9000;0.6333;0.1494;
1327.2000;0.6300;0.1377;
1327.5000;0.6325;0.1424;
1327.8000;0.6309;0.1400;
1328.1000;0.6300;0.1377;
1328.4000;0.6325;0.1447;
1328.7000;0.6325;0.1517;
1329.0000;0.6325;0.1400;
1329.3000;0.6333;0.1424;
1329.6000;0.6333;0.1330;
1329.9000;0.6333;0.1307;
1330.2000;0.6284;0.1284;
1330.5000;0.6325;0.1377;
1330.8000;0.6341;0.1447;
1331.1000;0.6300;0.1354;
1331.4000;0.6341;0.1564;
1331.7000;0.6349;0.1634;
1332.0000;0.6341;0.1634;
1332.3000;0.6414;0.1891;
1332.6000;0.6317;0.1587;
1332.9000;0.6333;0.1517;
1333.2000;0.6333;0.1517;
1333.5000;0.6325;0.1540;
1333.8000;0.6341;0.1540;
1334.1000;0.6309;0.1400;
1334.4000;0.6292;0.1307;
1334.7000;0.6333;0.1354;
1335.0000;0.6341;0.1424;
1335.3000;0.6333;0.1377;
1335.6000;0.6341;0.1400;
1335.9000;0.6333;0.1377;
1336.2000;0.6325;0.1330;
1336.5000;0.6341;0.1354;
1336.8000;0.6341;0.1354;
1337.1000;0.6325;0.1284;
1337.4000;0.6317;0.1237;
1337.7000;0.6317;0.1400;
1338.0000;0.6382;0.1610;
1338.3000;0.6300;0.1447;
1338.6000;0.6374;0.1634;
1338.9000;0.6276;0.1400;
1339.2000;0.6333;0.1470;
1339.5000;0.6341;0.1424;
1339.8000;0.6357;0.1470;
1340.1000;0.6341;0.1517;
1340.4000;0.6333;0.1610;
1340.7000;0.6333;0.1634;
1341.0000;0.6325;0.1610;
1341.3000;0.6341;0.1657;
1341.6000;0.6349;0.1634;
1341.9000;0.6341;0.1540;
1342.2000;0.6365;0.1564;
1342.5000;0.6341;0.1447;
1342.8000;0.6333;0.1517;
1343.1000;0.6325;0.1494;
1343.4000;0.6341;0.1517;
1343.7000;0.6325;0.1517;
1344.0000;0.6325;0.1470;
1344.3000;0.6325;0.1400;
1344.6000;0.6333;0.1494;
1344.9000;0.6325;0.1470;
1345.2000;0.6325;0.1494;
1345.5000;0.6333;0.1400;
1345.8000;0.6325;0.1377;
1346.1000;0.6341;0.1330;
1346.4000;0.6317;0.1237;
1346.7000;0.6333;0.1330;
1347.0000;0.6349;0.1330;
1347.3000;0.6349;0.1307;
1347.6000;0.6333;0.1190;
1347.9000;0.6300;0.1120;
1348.2000;0.6309;0.1190;
1348.5000;0.6333;0.1284;
1348.8000;0.6341;0.1377;
1349.1000;0.6309;0.1400;
1349.4000;0.6390;0.1540;
1349.7000;0.6317;0.1424;
1350.0000;0.6333;0.1377;
1350.3000;0.6341;0.1470;
1350.6000;0.6309;0.1470;
1350.9000;0.6341;0.1540;
1351.2000;0.6333;0.1470;
1351.5000;0.6309;0.1470;
1351.8000;0.6300;0.1470;
1352.1000;0.6341;0.1634;
1352.4000;0.6341;0.1564;
1352.7000;0.6349;0.1564;
1353.0000;0.6341;0.1681;
1353.3000;0.6325;0.1681;
1353.6000;0.6325;0.1634;
1353.9000;0.6325;0.1610;
1354.2000;0.6341;0.1610;
1354.5000;0.6333;0.1587;
1354.8000;0.6325;0.1540;
1355.1000;0.6374;0.1540;
1355.4000;0.6317;0.1354;
1355.7000;0.6333;0.1354;
1356.0000;0.6317;0.1330;
1356.3000;0.6317;0.1214;
1356.6000;0.6325;0.1237;
1356.9000;0.6317;0.1214;
1357.2000;0.6398;0.1354;
1357.5000;0.6341;0.1307;
1357.8000;0.6317;0.1330;
1358.1000;0.6292;0.1330;
1358.4000;0.6317;0.1424;
1358.7000;0.6317;0.1377;
1359.0000;0.6333;0.1400;
1359.3000;0.6333;0.1330;
1359.6000;0.6260;0.1214;
1359.9000;0.6317;0.1400;
1360.2000;0.6325;0.1540;
1360.5000;0.6300;0.1494;
1360.8000;0.6317;0.1447;
1361.1000;0.6325;0.1400;
1361.4000;0.6341;0.1494;
1361.7000;0.6317;0.1447;
1362.0000;0.6325;0.1400;
1362.3000;0.6349;0.1540;
1362.6000;0.6341;0.1564;
1362.9000;0.6333;0.1517;
1363.2000;0.6325;0.1494;
1363.5000;0.6325;0.1470;
1363.8000;0.6325;0.1517;
1364.1000;0.6309;0.1470;
1364.4000;0.6317;0.1470;
1364.7000;0.6349;0.1494;
1365.0000;0.6309;0.1470;
1365.3000;0.6341;0.1517;
1365.6000;0.6333;0.1587;
1365.9000;0.6300;0.1540;
1366.2000;0.6333;0.1587;
1366.5000;0.6325;0.1587;
1366.8000;0.6349;0.1704;
1367.1000;0.6317;0.1494;
1367.4000;0.6333;0.1447;
1367.7000;0.6325;0.1400;
1368.0000;0.6317;0.1307;
1368.3000;0.6341;0.1377;
1368.6000;0.6325;0.1307;
1368.9000;0.6333;0.1400;
1369.2000;0.6349;0.1494;
1369.5000;0.6317;0.1470;
1369.8000;0.6300;0.1424;
1370.1000;0.6317;0.1377;
1370.4000;0.6341;0.1400;
1370.7000;0.6317;0.1400;
1371.0000;0.6382;0.1587;
1371.3000;0.6333;0.1447;
1371.6000;0.6341;0.1400;
1371.9000;0.6317;0.1284;
1372.2000;0.6309;0.1190;
1372.5000;0.6325;0.1214;
1372.8000;0.6309;0.1214;
1373.1000;0.6300;0.1284;
1373.4000;0.6309;0.1424;
1373.7000;0.6317;0.1377;
1374.0000;0.6325;0.1424;
1374.3000;0.6341;0.1400;
1374.6000;0.6292;0.1284;
1374.9000;0.6317;0.1354;
1375.2000;0.6317;0.1284;
1375.5000;0.6325;0.1354;
1375.8000;0.6309;0.1354;
1376.1000;0.6309;0.1400;
1376.4000;0.6309;0.1377;
1376.7000;0.6325;0.1354;
1377.0000;0.6333;0.1354;
1377.3000;0.6317;0.1377;
1377.6000;0.6292;0.1330;
1377.9000;0.6309;0.1424;
1378.2000;0.6333;0.1470;
1378.5000;0.6333;0.1470;
1378.8000;0.6365;0.1564;
1379.1000;0.6333;0.1400;
1379.4000;0.6333;0.1424;
1379.7000;0.6284;0.1470;
1380.0000;0.6325;0.1494;
1380.3000;0.6333;0.1494;
1380.6000;0.6333;0.1517;
1380.9000;0.6325;0.1447;
1381.2000;0.6309;0.1424;
1381.5000;0.6325;0.1470;
1381.8000;0.6349;0.1470;
1382.1000;0.6341;0.1447;
1382.4000;0.6309;0.1400;
1382.7000;0.6333;0.1400;
1383.0000;0.6333;0.1400;
1383.3000;0.6365;0.1424;
1383.6000;0.6325;0.1424;
1383.9000;0.6333;0.1424;
1384.2000;0.6357;0.1447;
1384.5000;0.6333;0.1354;
1384.8000;0.6300;0.1260;
1385.1000;0.6374;0.1517;
1385.4000;0.6325;0.1470;
1385.7000;0.6317;0.1494;
1386.0000;0.6243;0.1400;
1386.3000;0.6276;0.1424;
1386.6000;0.6309;0.1447;
1386.9000;0.6317;0.1540;
1387.2000;0.6309;0.1424;
1387.5000;0.6309;0.1400;
1387.8000;0.6309;0.1354;
1388.1000;0.6325;0.1330;
1388.4000;0.6325;0.1330;
1388.7000;0.6333;0.1330;
1389.0000;0.6309;0.1260;
1389.3000;0.6325;0.1330;
1389.6000;0.6333;0.1237;
1389.9000;0.6325;0.1214;
1390.2000;0.6341;0.1190;
1390.5000;0.6333;0.1260;
1390.8000;0.6317;0.1260;
1391.1000;0.6317;0.1354;
1391.4000;0.6300;0.1354;
1391.7000;0.6309;0.1260;
1392.0000;0.6333;0.1214;
1392.3000;0.6317;0.1097;
1392.6000;0.6325;0.1120;
1392.9000;0.6317;0.1260;
1393.2000;0.6317;0.1284;
1393.5000;0.6333;0.1330;
1393.8000;0.6357;0.1400;
1394.1000;0.6325;0.1330;
1394.4000;0.6317;0.1284;
1394.7000;0.6317;0.1354;
1395.0000;0.6422;0.1634;
1395.3000;0.6333;0.1330;
1395.6000;0.6284;0.1237;
1395.9000;0.6309;0.1307;
1396.2000;0.6300;0.1260;
1396.5000;0.6325;0.1354;
1396.8000;0.6325;0.1237;
1397.1000;0.6325;0.1214;
1397.4000;0.6333;0.1330;
1397.7000;0.6341;0.1330;
1398.0000;0.6317;0.1260;
1398.3000;0.6333;0.1190;
1398.6000;0.6333;0.1167;
1398.9000;0.6341;0.1120;
1399.2000;0.6325;0.1214;
1399.5000;0.6333;0.1307;
1399.8000;0.6333;0.1354;
