time/ms;Fluo/V;P700 deltaI/I x10³;
-199.8000;1.1152;0.3431;
-199.5000;1.1152;0.3384;
-199.2000;1.1160;0.3314;
-198.9000;1.1152;0.3268;
-198.6000;1.1160;0.3291;
-198.3000;1.1152;0.3291;
-198.0000;1.1144;0.3244;
-197.7000;1.1176;0.3338;
-197.4000;1.1144;0.3314;
-197.1000;1.1152;0.3384;
-196.8000;1.1176;0.3501;
-196.5000;1.1160;0.3571;
-196.2000;1.1168;0.3524;
-195.9000;1.1176;0.3408;
-195.6000;1.1176;0.3384;
-195.3000;1.1176;0.3431;
-195.0000;1.1184;0.3454;
-194.7000;1.1241;0.3618;
-194.4000;1.1160;0.3431;
-194.1000;1.1168;0.3478;
-193.8000;1.1193;0.3478;
-193.5000;1.1160;0.3431;
-193.2000;1.1168;0.3501;
-192.9000;1.1136;0.3361;
-192.6000;1.1168;0.3431;
-192.3000;1.1152;0.3431;
-192.0000;1.1160;0.3361;
-191.7000;1.1152;0.3314;
-191.4000;1.1160;0.3384;
-191.1000;1.1160;0.3361;
-190.8000;1.1136;0.3314;
-190.5000;1.1168;0.3338;
-190.2000;1.1136;0.3291;
-189.9000;1.1176;0.3361;
-189.6000;1.1152;0.3338;
-189.3000;1.1144;0.3338;
-189.0000;1.1160;0.3361;
-188.7000;1.1160;0.3361;
-188.4000;1.1152;0.3291;
-188.1000;1.1160;0.3198;
-187.8000;1.1241;0.3478;
-187.5000;1.1168;0.3291;
-187.2000;1.1152;0.3268;
-186.9000;1.1144;0.3198;
-186.6000;1.1152;0.3221;
-186.3000;1.1079;0.3081;
-186.0000;1.1160;0.3338;
-185.7000;1.1136;0.3338;
-185.4000;1.1160;0.3501;
-185.1000;1.1144;0.3408;
-184.8000;1.1160;0.3408;
-184.5000;1.1127;0.3361;
-184.2000;1.1119;0.3314;
-183.9000;1.1193;0.3501;
-183.6000;1.1193;0.3501;
-183.3000;1.1209;0.3548;
-183.0000;1.1152;0.3361;
-182.7000;1.1127;0.3361;
-182.4000;1.1176;0.3408;
-182.1000;1.1144;0.3454;
-181.8000;1.1168;0.3478;
-181.5000;1.1160;0.3454;
-181.2000;1.1119;0.3384;
-180.9000;1.1152;0.3524;
-180.6000;1.1225;0.3641;
-180.3000;1.1168;0.3501;
-180.0000;1.1160;0.3454;
-179.7000;1.1184;0.3454;
-179.4000;1.1152;0.3314;
-179.1000;1.1168;0.3338;
-178.8000;1.1160;0.3384;
-178.5000;1.1127;0.3291;
-178.2000;1.1160;0.3338;
-177.9000;1.1168;0.3361;
-177.6000;1.1176;0.3431;
-177.3000;1.1168;0.3431;
-177.0000;1.1152;0.3384;
-176.7000;1.1160;0.3314;
-176.4000;1.1160;0.3268;
-176.1000;1.1160;0.3221;
-175.8000;1.1136;0.3174;
-175.5000;1.1176;0.3361;
-175.2000;1.1160;0.3268;
-174.9000;1.1176;0.3361;
-174.6000;1.1160;0.3268;
-174.3000;1.1201;0.3408;
-174.0000;1.1160;0.3314;
-173.7000;1.1168;0.3291;
-173.4000;1.1176;0.3268;
-173.1000;1.1176;0.3268;
-172.8000;1.1144;0.3128;
-172.5000;1.1087;0.3104;
-172.2000;1.1176;0.3314;
-171.9000;1.1168;0.3244;
-171.6000;1.1144;0.3244;
-171.3000;1.1152;0.3221;
-171.0000;1.1176;0.3221;
-170.7000;1.1160;0.3221;
-170.4000;1.1144;0.3221;
-170.1000;1.1144;0.3174;
-169.8000;1.1160;0.3128;
-169.5000;1.1119;0.3128;
-169.2000;1.1176;0.3314;
-168.9000;1.1087;0.3104;
-168.6000;1.1160;0.3268;
-168.3000;1.1136;0.3268;
-168.0000;1.1152;0.3408;
-167.7000;1.1160;0.3361;
-167.4000;1.1119;0.3221;
-167.1000;1.1168;0.3338;
-166.8000;1.1168;0.3268;
-166.5000;1.1168;0.3268;
-166.2000;1.1184;0.3221;
-165.9000;1.1152;0.3151;
-165.6000;1.1160;0.3268;
-165.3000;1.1184;0.3384;
-165.0000;1.1160;0.3291;
-164.7000;1.1176;0.3384;
-164.4000;1.1217;0.3408;
-164.1000;1.1160;0.3291;
-163.8000;1.1176;0.3198;
-163.5000;1.1152;0.3221;
-163.2000;1.1184;0.3361;
-162.9000;1.1225;0.3384;
-162.6000;1.1152;0.3198;
-162.3000;1.1168;0.3221;
-162.0000;1.1176;0.3221;
-161.7000;1.1184;0.3221;
-161.4000;1.1160;0.3221;
-161.1000;1.1168;0.3291;
-160.8000;1.1144;0.3198;
-160.5000;1.1160;0.3174;
-160.2000;1.1168;0.3198;
-159.9000;1.1168;0.3174;
-159.6000;1.1184;0.3244;
-159.3000;1.1193;0.3338;
-159.0000;1.1168;0.3244;
-158.7000;1.1176;0.3221;
-158.4000;1.1184;0.3291;
-158.1000;1.1168;0.3244;
-157.8000;1.1160;0.3221;
-157.5000;1.1152;0.3268;
-157.2000;1.1168;0.3338;
-156.9000;1.1176;0.3338;
-156.6000;1.1176;0.3361;
-156.3000;1.1152;0.3361;
-156.0000;1.1152;0.3408;
-155.7000;1.1160;0.3408;
-155.4000;1.1127;0.3408;
-155.1000;1.1152;0.3408;
-154.8000;1.1144;0.3431;
-154.5000;1.1168;0.3431;
-154.2000;1.1152;0.3338;
-153.9000;1.1160;0.3291;
-153.6000;1.1160;0.3338;
-153.3000;1.1136;0.3268;
-153.0000;1.1152;0.3291;
-152.7000;1.1079;0.3198;
-152.4000;1.1152;0.3291;
-152.1000;1.1152;0.3244;
-151.8000;1.1152;0.3128;
-151.5000;1.1152;0.3151;
-151.2000;1.1152;0.3151;
-150.9000;1.1152;0.3151;
-150.6000;1.1152;0.3058;
-150.3000;1.1176;0.3034;
-150.0000;1.1168;0.3081;
-149.7000;1.1152;0.3034;
-149.4000;1.1160;0.3128;
-149.1000;1.1160;0.3221;
-148.8000;1.1136;0.3174;
-148.5000;1.1152;0.3314;
-148.2000;1.1144;0.3268;
-147.9000;1.1168;0.3338;
-147.6000;1.1168;0.3338;
-147.3000;1.1193;0.3361;
-147.0000;1.1160;0.3221;
-146.7000;1.1160;0.3221;
-146.4000;1.1111;0.3128;
-146.1000;1.1144;0.3268;
-145.8000;1.1193;0.3384;
-145.5000;1.1127;0.3198;
-145.2000;1.1176;0.3291;
-144.9000;1.1152;0.3221;
-144.6000;1.1144;0.3291;
-144.3000;1.1127;0.3268;
-144.0000;1.1160;0.3361;
-143.7000;1.1168;0.3361;
-143.4000;1.1152;0.3314;
-143.1000;1.1111;0.3244;
-142.8000;1.1160;0.3291;
-142.5000;1.1160;0.3268;
-142.2000;1.1127;0.3174;
-141.9000;1.1152;0.3291;
-141.6000;1.1168;0.3338;
-141.3000;1.1233;0.3454;
-141.0000;1.1168;0.3338;
-140.7000;1.1144;0.3221;
-140.4000;1.1168;0.3268;
-140.1000;1.1152;0.3221;
-139.8000;1.1160;0.3221;
-139.5000;1.1152;0.3221;
-139.2000;1.1160;0.3244;
-138.9000;1.1160;0.3384;
-138.6000;1.1160;0.3408;
-138.3000;1.1152;0.3361;
-138.0000;1.1168;0.3338;
-137.7000;1.1160;0.3384;
-137.4000;1.1184;0.3431;
-137.1000;1.1176;0.3408;
-136.8000;1.1176;0.3408;
-136.5000;1.1176;0.3454;
-136.2000;1.1168;0.3454;
-135.9000;1.1152;0.3338;
-135.6000;1.1184;0.3384;
-135.3000;1.1168;0.3268;
-135.0000;1.1168;0.3291;
-134.7000;1.1152;0.3291;
-134.4000;1.1152;0.3268;
-134.1000;1.1160;0.3268;
-133.8000;1.1168;0.3361;
-133.5000;1.1184;0.3338;
-133.2000;1.1176;0.3291;
-132.9000;1.1152;0.3221;
-132.6000;1.1136;0.3174;
-132.3000;1.1160;0.3338;
-132.0000;1.1168;0.3291;
-131.7000;1.1152;0.3268;
-131.4000;1.1152;0.3291;
-131.1000;1.1176;0.3384;
-130.8000;1.1176;0.3431;
-130.5000;1.1144;0.3291;
-130.2000;1.1144;0.3244;
-129.9000;1.1152;0.3244;
-129.6000;1.1168;0.3291;
-129.3000;1.1136;0.3268;
-129.0000;1.1152;0.3244;
-128.7000;1.1127;0.3291;
-128.4000;1.1144;0.3291;
-128.1000;1.1144;0.3314;
-127.8000;1.1209;0.3524;
-127.5000;1.1160;0.3431;
-127.2000;1.1152;0.3524;
-126.9000;1.1119;0.3431;
-126.6000;1.1168;0.3524;
-126.3000;1.1160;0.3454;
-126.0000;1.1168;0.3524;
-125.7000;1.1184;0.3501;
-125.4000;1.1217;0.3571;
-125.1000;1.1176;0.3524;
-124.8000;1.1168;0.3548;
-124.5000;1.1168;0.3524;
-124.2000;1.1168;0.3361;
-123.9000;1.1160;0.3291;
-123.6000;1.1160;0.3361;
-123.3000;1.1152;0.3408;
-123.0000;1.1152;0.3431;
-122.7000;1.1168;0.3454;
-122.4000;1.1176;0.3338;
-122.1000;1.1160;0.3244;
-121.8000;1.1201;0.3361;
-121.5000;1.1160;0.3244;
-121.2000;1.1168;0.3198;
-120.9000;1.1225;0.3384;
-120.6000;1.1176;0.3198;
-120.3000;1.1168;0.3244;
-120.0000;1.1160;0.3244;
-119.7000;1.1111;0.3174;
-119.4000;1.1176;0.3338;
-119.1000;1.1160;0.3408;
-118.8000;1.1103;0.3221;
-118.5000;1.1160;0.3268;
-118.2000;1.1160;0.3268;
-117.9000;1.1168;0.3291;
-117.6000;1.1176;0.3268;
-117.3000;1.1176;0.3244;
-117.0000;1.1168;0.3291;
-116.7000;1.1160;0.3361;
-116.4000;1.1176;0.3408;
-116.1000;1.1160;0.3408;
-115.8000;1.1152;0.3361;
-115.5000;1.1152;0.3291;
-115.2000;1.1168;0.3361;
-114.9000;1.1160;0.3338;
-114.6000;1.1168;0.3361;
-114.3000;1.1168;0.3408;
-114.0000;1.1168;0.3408;
-113.7000;1.1168;0.3431;
-113.4000;1.1168;0.3384;
-113.1000;1.1168;0.3431;
-112.8000;1.1144;0.3384;
-112.5000;1.1168;0.3408;
-112.2000;1.1160;0.3408;
-111.9000;1.1168;0.3478;
-111.6000;1.1184;0.3594;
-111.3000;1.1087;0.3384;
-111.0000;1.1152;0.3408;
-110.7000;1.1111;0.3291;
-110.4000;1.1168;0.3478;
-110.1000;1.1168;0.3478;
-109.8000;1.1168;0.3384;
-109.5000;1.1176;0.3431;
-109.2000;1.1168;0.3454;
-108.9000;1.1160;0.3338;
-108.6000;1.1176;0.3338;
-108.3000;1.1160;0.3268;
-108.0000;1.1152;0.3221;
-107.7000;1.1160;0.3338;
-107.4000;1.1160;0.3338;
-107.1000;1.1152;0.3244;
-106.8000;1.1103;0.3221;
-106.5000;1.1168;0.3338;
-106.2000;1.1144;0.3244;
-105.9000;1.1152;0.3314;
-105.6000;1.1160;0.3408;
-105.3000;1.1160;0.3384;
-105.0000;1.1168;0.3384;
-104.7000;1.1160;0.3338;
-104.4000;1.1176;0.3338;
-104.1000;1.1168;0.3244;
-103.8000;1.1119;0.3151;
-103.5000;1.1111;0.3174;
-103.2000;1.1152;0.3291;
-102.9000;1.1168;0.3268;
-102.6000;1.1160;0.3221;
-102.3000;1.1168;0.3151;
-102.0000;1.1160;0.3174;
-101.7000;1.1152;0.3221;
-101.4000;1.1152;0.3198;
-101.1000;1.1168;0.3198;
-100.8000;1.1136;0.3128;
-100.5000;1.1160;0.3221;
-100.2000;1.1160;0.3268;
-99.9000;1.1079;0.3058;
-99.6000;1.1144;0.3221;
-99.3000;1.1152;0.3221;
-99.0000;1.1152;0.3221;
-98.7000;1.1160;0.3268;
-98.4000;1.1136;0.3291;
-98.1000;1.1095;0.3198;
-97.8000;1.1168;0.3338;
-97.5000;1.1144;0.3244;
-97.2000;1.1225;0.3384;
-96.9000;1.1176;0.3314;
-96.6000;1.1136;0.3244;
-96.3000;1.1160;0.3314;
-96.0000;1.1160;0.3291;
-95.7000;1.1144;0.3244;
-95.4000;1.1103;0.3151;
-95.1000;1.1152;0.3244;
-94.8000;1.1168;0.3384;
-94.5000;1.1160;0.3431;
-94.2000;1.1168;0.3408;
-93.9000;1.1201;0.3314;
-93.6000;1.1176;0.3198;
-93.3000;1.1136;0.3081;
-93.0000;1.1144;0.3128;
-92.7000;1.1152;0.3151;
-92.4000;1.1168;0.3174;
-92.1000;1.1168;0.3291;
-91.8000;1.1168;0.3244;
-91.5000;1.1160;0.3268;
-91.2000;1.1168;0.3338;
-90.9000;1.1184;0.3384;
-90.6000;1.1168;0.3314;
-90.3000;1.1136;0.3174;
-90.0000;1.1152;0.3244;
-89.7000;1.1152;0.3198;
-89.4000;1.1111;0.3081;
-89.1000;1.1160;0.3291;
-88.8000;1.1160;0.3314;
-88.5000;1.1160;0.3361;
-88.2000;1.1160;0.3338;
-87.9000;1.1160;0.3291;
-87.6000;1.1144;0.3198;
-87.3000;1.1152;0.3198;
-87.0000;1.1184;0.3314;
-86.7000;1.1119;0.3151;
-86.4000;1.1152;0.3244;
-86.1000;1.1160;0.3244;
-85.8000;1.1160;0.3268;
-85.5000;1.1168;0.3268;
-85.2000;1.1168;0.3244;
-84.9000;1.1152;0.3221;
-84.6000;1.1144;0.3198;
-84.3000;1.1160;0.3221;
-84.0000;1.1127;0.3221;
-83.7000;1.1225;0.3384;
-83.4000;1.1168;0.3338;
-83.1000;1.1160;0.3338;
-82.8000;1.1136;0.3221;
-82.5000;1.1168;0.3268;
-82.2000;1.1160;0.3314;
-81.9000;1.1176;0.3338;
-81.6000;1.1258;0.3478;
-81.3000;1.1152;0.3291;
-81.0000;1.1160;0.3361;
-80.7000;1.1127;0.3291;
-80.4000;1.1168;0.3338;
-80.1000;1.1160;0.3314;
-79.8000;1.1209;0.3501;
-79.5000;1.1160;0.3431;
-79.2000;1.1160;0.3384;
-78.9000;1.1160;0.3431;
-78.6000;1.1168;0.3548;
-78.3000;1.1152;0.3478;
-78.0000;1.1152;0.3618;
-77.7000;1.1136;0.3594;
-77.4000;1.1144;0.3548;
-77.1000;1.1152;0.3548;
-76.8000;1.1160;0.3478;
-76.5000;1.1160;0.3431;
-76.2000;1.1152;0.3408;
-75.9000;1.1095;0.3221;
-75.6000;1.1152;0.3338;
-75.3000;1.1168;0.3361;
-75.0000;1.1152;0.3361;
-74.7000;1.1168;0.3361;
-74.4000;1.1168;0.3314;
-74.1000;1.1152;0.3268;
-73.8000;1.1144;0.3198;
-73.5000;1.1152;0.3198;
-73.2000;1.1217;0.3361;
-72.9000;1.1168;0.3291;
-72.6000;1.1152;0.3244;
-72.3000;1.1136;0.3198;
-72.0000;1.1168;0.3198;
-71.7000;1.1168;0.3198;
-71.4000;1.1160;0.3198;
-71.1000;1.1160;0.3244;
-70.8000;1.1160;0.3198;
-70.5000;1.1209;0.3384;
-70.2000;1.1160;0.3291;
-69.9000;1.1193;0.3408;
-69.6000;1.1144;0.3338;
-69.3000;1.1168;0.3478;
-69.0000;1.1152;0.3408;
-68.7000;1.1152;0.3338;
-68.4000;1.1160;0.3361;
-68.1000;1.1160;0.3291;
-67.8000;1.1176;0.3268;
-67.5000;1.1176;0.3244;
-67.2000;1.1127;0.3128;
-66.9000;1.1193;0.3314;
-66.6000;1.1160;0.3291;
-66.3000;1.1168;0.3221;
-66.0000;1.1144;0.3198;
-65.7000;1.1144;0.3151;
-65.4000;1.1193;0.3314;
-65.1000;1.1168;0.3291;
-64.8000;1.1144;0.3268;
-64.5000;1.1152;0.3314;
-64.2000;1.1160;0.3384;
-63.9000;1.1176;0.3408;
-63.6000;1.1144;0.3291;
-63.3000;1.1160;0.3361;
-63.0000;1.1160;0.3338;
-62.7000;1.1209;0.3361;
-62.4000;1.1160;0.3221;
-62.1000;1.1168;0.3268;
-61.8000;1.1168;0.3338;
-61.5000;1.1168;0.3361;
-61.2000;1.1168;0.3384;
-60.9000;1.1160;0.3361;
-60.6000;1.1160;0.3408;
-60.3000;1.1152;0.3478;
-60.0000;1.1160;0.3548;
-59.7000;1.1160;0.3501;
-59.4000;1.1160;0.3478;
-59.1000;1.1144;0.3454;
-58.8000;1.1160;0.3408;
-58.5000;1.1136;0.3384;
-58.2000;1.1144;0.3361;
-57.9000;1.1127;0.3361;
-57.6000;1.1176;0.3431;
-57.3000;1.1168;0.3431;
-57.0000;1.1168;0.3408;
-56.7000;1.1168;0.3314;
-56.4000;1.1168;0.3314;
-56.1000;1.1152;0.3268;
-55.8000;1.1168;0.3244;
-55.5000;1.1152;0.3314;
-55.2000;1.1184;0.3361;
-54.9000;1.1176;0.3384;
-54.6000;1.1184;0.3524;
-54.3000;1.1160;0.3524;
-54.0000;1.1193;0.3618;
-53.7000;1.1168;0.3384;
-53.4000;1.1160;0.3338;
-53.1000;1.1144;0.3268;
-52.8000;1.1152;0.3291;
-52.5000;1.1144;0.3268;
-52.2000;1.1168;0.3221;
-51.9000;1.1168;0.3291;
-51.6000;1.1152;0.3268;
-51.3000;1.1176;0.3384;
-51.0000;1.1168;0.3361;
-50.7000;1.1193;0.3361;
-50.4000;1.1160;0.3314;
-50.1000;1.1160;0.3338;
-49.8000;1.1176;0.3291;
-49.5000;1.1193;0.3384;
-49.2000;1.1079;0.3104;
-48.9000;1.1144;0.3221;
-48.6000;1.1152;0.3314;
-48.3000;1.1225;0.3524;
-48.0000;1.1152;0.3291;
-47.7000;1.1152;0.3361;
-47.4000;1.1168;0.3408;
-47.1000;1.1152;0.3338;
-46.8000;1.1144;0.3291;
-46.5000;1.1184;0.3361;
-46.2000;1.1152;0.3291;
-45.9000;1.1160;0.3291;
-45.6000;1.1160;0.3314;
-45.3000;1.1136;0.3221;
-45.0000;1.1184;0.3361;
-44.7000;1.1168;0.3384;
-44.4000;1.1176;0.3454;
-44.1000;1.1144;0.3408;
-43.8000;1.1152;0.3384;
-43.5000;1.1193;0.3524;
-43.2000;1.1160;0.3478;
-42.9000;1.1160;0.3338;
-42.6000;1.1152;0.3338;
-42.3000;1.1168;0.3361;
-42.0000;1.1160;0.3338;
-41.7000;1.1201;0.3478;
-41.4000;1.1168;0.3384;
-41.1000;1.1152;0.3338;
-40.8000;1.1168;0.3384;
-40.5000;1.1152;0.3384;
-40.2000;1.1152;0.3314;
-39.9000;1.1160;0.3268;
-39.6000;1.1168;0.3338;
-39.3000;1.1160;0.3384;
-39.0000;1.1168;0.3338;
-38.7000;1.1168;0.3314;
-38.4000;1.1160;0.3221;
-38.1000;1.1160;0.3268;
-37.8000;1.1152;0.3221;
-37.5000;1.1160;0.3268;
-37.2000;1.1152;0.3221;
-36.9000;1.1152;0.3244;
-36.6000;1.1160;0.3268;
-36.3000;1.1160;0.3314;
-36.0000;1.1160;0.3314;
-35.7000;1.1160;0.3384;
-35.4000;1.1160;0.3314;
-35.1000;1.1136;0.3198;
-34.8000;1.1152;0.3291;
-34.5000;1.1144;0.3268;
-34.2000;1.1176;0.3361;
-33.9000;1.1193;0.3478;
-33.6000;1.1201;0.3454;
-33.3000;1.1160;0.3384;
-33.0000;1.1176;0.3384;
-32.7000;1.1160;0.3361;
-32.4000;1.1152;0.3384;
-32.1000;1.1168;0.3314;
-31.8000;1.1168;0.3268;
-31.5000;1.1160;0.3198;
-31.2000;1.1160;0.3244;
-30.9000;1.1152;0.3244;
-30.6000;1.1225;0.3268;
-30.3000;1.1176;0.3198;
-30.0000;1.1168;0.3104;
-29.7000;1.1160;0.3151;
-29.4000;1.1184;0.3151;
-29.1000;1.1168;0.3081;
-28.8000;1.1119;0.3011;
-28.5000;1.1160;0.3081;
-28.2000;1.1258;0.3221;
-27.9000;1.1168;0.3034;
-27.6000;1.1160;0.3034;
-27.3000;1.1168;0.3034;
-27.0000;1.1168;0.2964;
-26.7000;1.1168;0.2918;
-26.4000;1.1160;0.2824;
-26.1000;1.1160;0.2801;
-25.8000;1.1160;0.2871;
-25.5000;1.1168;0.2918;
-25.2000;1.1079;0.2754;
-24.9000;1.1160;0.2848;
-24.6000;1.1160;0.2848;
-24.3000;1.1176;0.2894;
-24.0000;1.1160;0.2801;
-23.7000;1.1168;0.2801;
-23.4000;1.1160;0.2801;
-23.1000;1.1168;0.2754;
-22.8000;1.1184;0.2778;
-22.5000;1.1184;0.2894;
-22.2000;1.1152;0.2918;
-21.9000;1.1160;0.3034;
-21.6000;1.1193;0.3221;
-21.3000;1.1160;0.3128;
-21.0000;1.1152;0.3081;
-20.7000;1.1160;0.3128;
-20.4000;1.1160;0.3174;
-20.1000;1.1168;0.3221;
-19.8000;1.1152;0.3174;
-19.5000;1.1144;0.3128;
-19.2000;1.1160;0.3198;
-18.9000;1.1160;0.3291;
-18.6000;1.1144;0.3221;
-18.3000;1.1184;0.3314;
-18.0000;1.1176;0.3244;
-17.7000;1.1168;0.3151;
-17.4000;1.1160;0.3198;
-17.1000;1.1168;0.3221;
-16.8000;1.1152;0.3244;
-16.5000;1.1079;0.3128;
-16.2000;1.1160;0.3361;
-15.9000;1.1176;0.3361;
-15.6000;1.1152;0.3291;
-15.3000;1.1184;0.3338;
-15.0000;1.1201;0.3314;
-14.7000;1.1274;0.3501;
-14.4000;1.1160;0.3174;
-14.1000;1.1160;0.3198;
-13.8000;1.1193;0.3268;
-13.5000;1.1152;0.3198;
-13.2000;1.1152;0.3244;
-12.9000;1.1176;0.3338;
-12.6000;1.1144;0.3244;
-12.3000;1.1160;0.3151;
-12.0000;1.1209;0.3314;
-11.7000;1.1152;0.3151;
-11.4000;1.1160;0.3198;
-11.1000;1.1160;0.3221;
-10.8000;1.1111;0.3151;
-10.5000;1.1144;0.3221;
-10.2000;1.1160;0.3198;
-9.9000;1.1160;0.3221;
-9.6000;1.1070;0.3058;
-9.3000;1.1168;0.3268;
-9.0000;1.1160;0.3244;
-8.7000;1.1176;0.3314;
-8.4000;1.1217;0.3361;
-8.1000;1.1152;0.3268;
-7.8000;1.1168;0.3291;
-7.5000;1.1160;0.3198;
-7.2000;1.1193;0.3244;
-6.9000;1.1160;0.3244;
-6.6000;1.1217;0.3384;
-6.3000;1.1176;0.3291;
-6.0000;1.1184;0.3291;
-5.7000;1.1176;0.3268;
-5.4000;1.1168;0.3291;
-5.1000;1.1168;0.3338;
-4.8000;1.1168;0.3244;
-4.5000;1.1152;0.3174;
-4.2000;1.1152;0.3221;
-3.9000;1.1136;0.3151;
-3.6000;1.1176;0.3221;
-3.3000;1.1168;0.3268;
-3.0000;1.1160;0.3221;
-2.7000;1.1152;0.3314;
-2.4000;1.1176;0.3361;
-2.1000;1.1176;0.3291;
-1.8000;1.1168;0.3221;
-1.5000;1.1152;0.3174;
-1.2000;1.1152;0.3104;
-0.9000;1.1201;0.3268;
-0.6000;1.1152;0.3244;
-0.3000;1.1136;0.3291;
0.0000;1.1136;0.3291;
0.3000;1.1396;0.3804;
0.6000;1.1656;0.4178;
0.9000;1.1941;0.4575;
1.2000;1.2120;0.4855;
1.5000;1.2275;0.5275;
1.8000;1.2397;0.5555;
2.1000;1.2511;0.5695;
2.4000;1.2609;0.5835;
2.7000;1.2690;0.6045;
3.0000;1.2755;0.6232;
3.3000;1.2821;0.6442;
3.6000;1.2845;0.6465;
3.9000;1.2902;0.6559;
4.2000;1.2943;0.6675;
4.5000;1.2967;0.6745;
4.8000;1.2991;0.6745;
5.1000;1.3040;0.6862;
5.4000;1.3065;0.6792;
5.7000;1.3089;0.6769;
6.0000;1.3130;0.6862;
6.3000;1.3138;0.6792;
6.6000;1.3114;0.6652;
6.9000;1.3211;0.6792;
7.2000;1.3244;0.6745;
7.5000;1.3325;0.6839;
7.8000;1.3284;0.6769;
8.1000;1.3309;0.6792;
8.4000;1.3350;0.6885;
8.7000;1.3350;0.6792;
9.0000;1.3374;0.6862;
9.3000;1.3398;0.6932;
9.6000;1.3398;0.6909;
9.9000;1.3398;0.6885;
10.2000;1.3407;0.6815;
10.5000;1.3480;0.6932;
10.8000;1.3464;0.6909;
11.1000;1.3480;0.6979;
11.4000;1.3488;0.7002;
11.7000;1.3504;0.7072;
12.0000;1.3537;0.7119;
12.3000;1.3521;0.7072;
12.6000;1.3512;0.6955;
12.9000;1.3569;0.6979;
13.2000;1.3594;0.7072;
13.5000;1.3578;0.7002;
13.8000;1.3586;0.6979;
14.1000;1.3618;0.7002;
14.4000;1.3683;0.7212;
14.7000;1.3635;0.7025;
15.0000;1.3618;0.7049;
15.3000;1.3626;0.7002;
15.6000;1.3643;0.7002;
15.9000;1.3675;0.7025;
16.2000;1.3683;0.7025;
16.5000;1.3691;0.7049;
16.8000;1.3683;0.7002;
17.1000;1.3700;0.7095;
17.4000;1.3708;0.7119;
17.7000;1.3732;0.7095;
18.0000;1.3716;0.7119;
18.3000;1.3700;0.7095;
18.6000;1.3740;0.7189;
18.9000;1.3732;0.7142;
19.2000;1.3732;0.7119;
19.5000;1.3732;0.7166;
19.8000;1.3748;0.7142;
20.1000;1.3691;0.7002;
20.4000;1.3748;0.7025;
20.7000;1.3765;0.6909;
21.0000;1.3773;0.6932;
21.3000;1.3765;0.6885;
21.6000;1.3814;0.7072;
21.9000;1.3805;0.7002;
22.2000;1.3814;0.6955;
22.5000;1.3805;0.6955;
22.8000;1.3814;0.7049;
23.1000;1.3838;0.7142;
23.4000;1.3805;0.7119;
23.7000;1.3805;0.7119;
24.0000;1.3822;0.7072;
24.3000;1.3830;0.7049;
24.6000;1.3854;0.7095;
24.9000;1.3838;0.7025;
25.2000;1.3838;0.6979;
25.5000;1.3830;0.6979;
25.8000;1.3838;0.6979;
26.1000;1.3805;0.6932;
26.4000;1.3805;0.6862;
26.7000;1.3838;0.6909;
27.0000;1.3862;0.7002;
27.3000;1.3903;0.7049;
27.6000;1.3854;0.6885;
27.9000;1.3862;0.6909;
28.2000;1.3879;0.6909;
28.5000;1.3879;0.6815;
28.8000;1.3830;0.6675;
29.1000;1.3879;0.6722;
29.4000;1.3879;0.6629;
29.7000;1.3879;0.6722;
30.0000;1.3887;0.6745;
30.3000;1.3887;0.6839;
30.6000;1.3879;0.6745;
30.9000;1.3879;0.6815;
31.2000;1.3952;0.6955;
31.5000;1.3871;0.6862;
31.8000;1.3871;0.6885;
32.1000;1.3871;0.6955;
32.4000;1.3895;0.7049;
32.7000;1.3895;0.7025;
33.0000;1.3895;0.6909;
33.3000;1.3968;0.7025;
33.6000;1.3911;0.6909;
33.9000;1.3871;0.6839;
34.2000;1.3911;0.6909;
34.5000;1.3895;0.6909;
34.8000;1.3911;0.6932;
35.1000;1.3919;0.6932;
35.4000;1.3928;0.6885;
35.7000;1.3928;0.6932;
36.0000;1.3903;0.6862;
36.3000;1.3919;0.6839;
36.6000;1.3919;0.6932;
36.9000;1.3936;0.6955;
37.2000;1.3919;0.6932;
37.5000;1.3944;0.6955;
37.8000;1.3960;0.6932;
38.1000;1.3928;0.6885;
38.4000;1.3936;0.6885;
38.7000;1.3952;0.6885;
39.0000;1.3919;0.6862;
39.3000;1.3928;0.6885;
39.6000;1.3911;0.6885;
39.9000;1.3936;0.6932;
40.2000;1.3936;0.6932;
40.5000;1.3936;0.6839;
40.8000;1.3944;0.6885;
41.1000;1.3928;0.6885;
41.4000;1.3936;0.6955;
41.7000;1.3887;0.6792;
42.0000;1.3928;0.6932;
42.3000;1.3928;0.6932;
42.6000;1.3944;0.6979;
42.9000;1.3911;0.6885;
43.2000;1.3928;0.6815;
43.5000;1.4017;0.6955;
43.8000;1.3928;0.6722;
44.1000;1.3952;0.6745;
44.4000;1.3952;0.6722;
44.7000;1.3944;0.6792;
45.0000;1.3928;0.6792;
45.3000;1.3952;0.6885;
45.6000;1.3944;0.6862;
45.9000;1.3960;0.6792;
46.2000;1.3928;0.6675;
46.5000;1.3976;0.6745;
46.8000;1.3968;0.6629;
47.1000;1.3952;0.6652;
47.4000;1.3952;0.6652;
47.7000;1.3960;0.6559;
48.0000;1.3960;0.6699;
48.3000;1.3976;0.6745;
48.6000;1.3960;0.6605;
48.9000;1.3960;0.6722;
49.2000;1.3968;0.6815;
49.5000;1.3968;0.6815;
49.8000;1.3968;0.6815;
50.1000;1.3952;0.6792;
50.4000;1.3960;0.6745;
50.7000;1.3944;0.6745;
51.0000;1.3952;0.6792;
51.3000;1.3928;0.6722;
51.6000;1.3968;0.6769;
51.9000;1.3968;0.6792;
52.2000;1.3952;0.6722;
52.5000;1.3952;0.6652;
52.8000;1.3976;0.6675;
53.1000;1.3960;0.6699;
53.4000;1.3944;0.6652;
53.7000;1.3960;0.6699;
54.0000;1.3960;0.6722;
54.3000;1.3960;0.6815;
54.6000;1.3960;0.6885;
54.9000;1.3936;0.6862;
55.2000;1.3960;0.6932;
55.5000;1.3976;0.6979;
55.8000;1.3952;0.6909;
56.1000;1.3960;0.6909;
56.4000;1.3960;0.6909;
56.7000;1.3960;0.6885;
57.0000;1.3944;0.6885;
57.3000;1.3960;0.6839;
57.6000;1.3952;0.6909;
57.9000;1.3952;0.7002;
58.2000;1.3952;0.7049;
58.5000;1.3895;0.6792;
58.8000;1.3944;0.6979;
59.1000;1.3968;0.7072;
59.4000;1.4009;0.7189;
59.7000;1.3960;0.7119;
60.0000;1.3960;0.7095;
60.3000;1.3944;0.7095;
60.6000;1.3968;0.7142;
60.9000;1.3960;0.7025;
61.2000;1.3960;0.6909;
61.5000;1.3960;0.6955;
61.8000;1.3976;0.7025;
62.1000;1.3968;0.7002;
62.4000;1.3968;0.7002;
62.7000;1.3952;0.6955;
63.0000;1.3968;0.6815;
63.3000;1.3993;0.6955;
63.6000;1.3968;0.6815;
63.9000;1.3952;0.6745;
64.2000;1.3952;0.6792;
64.5000;1.3952;0.6839;
64.8000;1.3968;0.6862;
65.1000;1.3968;0.6839;
65.4000;1.3968;0.6815;
65.7000;1.3976;0.6769;
66.0000;1.3985;0.6815;
66.3000;1.3976;0.6792;
66.6000;1.3985;0.6862;
66.9000;1.3976;0.6909;
67.2000;1.3952;0.6955;
67.5000;1.3993;0.6932;
67.8000;1.3936;0.6792;
68.1000;1.3968;0.6792;
68.4000;1.3976;0.6815;
68.7000;1.3976;0.6769;
69.0000;1.3960;0.6792;
69.3000;1.3952;0.6745;
69.6000;1.3968;0.6815;
69.9000;1.3968;0.6862;
70.2000;1.3960;0.6885;
70.5000;1.4033;0.7025;
70.8000;1.3968;0.6932;
71.1000;1.3993;0.6955;
71.4000;1.4001;0.6979;
71.7000;1.3976;0.6979;
72.0000;1.3993;0.6979;
72.3000;1.4001;0.6955;
72.6000;1.3985;0.6979;
72.9000;1.3985;0.6932;
73.2000;1.4001;0.6885;
73.5000;1.3993;0.6932;
73.8000;1.3993;0.6955;
74.1000;1.3968;0.6815;
74.4000;1.3968;0.6862;
74.7000;1.3985;0.6885;
75.0000;1.3985;0.6885;
75.3000;1.3976;0.6885;
75.6000;1.3976;0.6862;
75.9000;1.3976;0.6979;
76.2000;1.3985;0.6955;
76.5000;1.3985;0.6885;
76.8000;1.3985;0.6909;
77.1000;1.3976;0.6862;
77.4000;1.3968;0.6909;
77.7000;1.3985;0.6909;
78.0000;1.3968;0.6862;
78.3000;1.3944;0.6815;
78.6000;1.3960;0.6885;
78.9000;1.3968;0.6885;
79.2000;1.3944;0.6745;
79.5000;1.3960;0.6792;
79.8000;1.3960;0.6815;
80.1000;1.3960;0.6815;
80.4000;1.3944;0.6722;
80.7000;1.3960;0.6792;
81.0000;1.3968;0.6839;
81.3000;1.3985;0.6979;
81.6000;1.3976;0.7025;
81.9000;1.3968;0.7049;
82.2000;1.3976;0.6979;
82.5000;1.3985;0.7049;
82.8000;1.3985;0.7119;
83.1000;1.3993;0.7095;
83.4000;1.3976;0.7142;
83.7000;1.3960;0.7119;
84.0000;1.3976;0.7072;
84.3000;1.3968;0.7025;
84.6000;1.3944;0.6932;
84.9000;1.3968;0.6955;
85.2000;1.4009;0.6979;
85.5000;1.3936;0.6862;
85.8000;1.3968;0.6909;
86.1000;1.3911;0.6885;
86.4000;1.3968;0.6955;
86.7000;1.3976;0.7072;
87.0000;1.3960;0.7072;
87.3000;1.3976;0.7095;
87.6000;1.3993;0.7049;
87.9000;1.3993;0.7002;
88.2000;1.3976;0.7025;
88.5000;1.3960;0.7025;
88.8000;1.3976;0.7072;
89.1000;1.3936;0.6955;
89.4000;1.3944;0.6979;
89.7000;1.3952;0.6932;
90.0000;1.3968;0.6955;
90.3000;1.4017;0.7119;
90.6000;1.3985;0.7072;
90.9000;1.3985;0.7072;
91.2000;1.3976;0.7072;
91.5000;1.3985;0.7072;
91.8000;1.3993;0.7072;
92.1000;1.4001;0.6955;
92.4000;1.3968;0.6955;
92.7000;1.3985;0.6979;
93.0000;1.3985;0.6955;
93.3000;1.3968;0.6909;
93.6000;1.3976;0.6955;
93.9000;1.3976;0.6932;
94.2000;1.3985;0.6955;
94.5000;1.3952;0.6955;
94.8000;1.3968;0.6885;
95.1000;1.3968;0.6815;
95.4000;1.3985;0.6839;
95.7000;1.3993;0.6745;
96.0000;1.3960;0.6629;
96.3000;1.3960;0.6512;
96.6000;1.3985;0.6535;
96.9000;1.3985;0.6582;
97.2000;1.3985;0.6629;
97.5000;1.3985;0.6675;
97.8000;1.3993;0.6769;
98.1000;1.3993;0.6792;
98.4000;1.3985;0.6745;
98.7000;1.3976;0.6699;
99.0000;1.3985;0.6769;
99.3000;1.3985;0.6722;
99.6000;1.3985;0.6629;
99.9000;1.3968;0.6559;
100.2000;1.3976;0.6629;
100.5000;1.4001;0.6722;
100.8000;1.3993;0.6699;
101.1000;1.3976;0.6652;
101.4000;1.3976;0.6652;
101.7000;1.3993;0.6699;
102.0000;1.3985;0.6675;
102.3000;1.3976;0.6652;
102.6000;1.4001;0.6769;
102.9000;1.3985;0.6745;
103.2000;1.4001;0.6769;
103.5000;1.3985;0.6722;
103.8000;1.3985;0.6769;
104.1000;1.3976;0.6769;
104.4000;1.4017;0.6955;
104.7000;1.3985;0.6909;
105.0000;1.3968;0.6932;
105.3000;1.3968;0.6955;
105.6000;1.3976;0.7025;
105.9000;1.3960;0.6979;
106.2000;1.3968;0.6955;
106.5000;1.3919;0.6885;
106.8000;1.3976;0.7025;
107.1000;1.3985;0.6955;
107.4000;1.3985;0.7025;
107.7000;1.4050;0.7212;
108.0000;1.3985;0.6979;
108.3000;1.3993;0.6955;
108.6000;1.3993;0.6955;
108.9000;1.3976;0.6815;
109.2000;1.3985;0.6839;
109.5000;1.3993;0.6932;
109.8000;1.3928;0.6769;
110.1000;1.3985;0.6862;
110.4000;1.3976;0.6815;
110.7000;1.3993;0.6839;
111.0000;1.3993;0.6909;
111.3000;1.3993;0.6955;
111.6000;1.3968;0.6955;
111.9000;1.3976;0.6955;
112.2000;1.3960;0.7025;
112.5000;1.3968;0.7095;
112.8000;1.3976;0.7095;
113.1000;1.3968;0.7095;
113.4000;1.3968;0.7049;
113.7000;1.3968;0.7166;
114.0000;1.3968;0.7166;
114.3000;1.3928;0.7002;
114.6000;1.3968;0.7189;
114.9000;1.3985;0.7166;
115.2000;1.3976;0.7119;
115.5000;1.3985;0.7119;
115.8000;1.3985;0.7002;
116.1000;1.3976;0.6932;
116.4000;1.3968;0.6815;
116.7000;1.3985;0.6932;
117.0000;1.3985;0.7025;
117.3000;1.3993;0.6955;
117.6000;1.3968;0.6932;
117.9000;1.3960;0.6862;
118.2000;1.3960;0.6909;
118.5000;1.3968;0.7025;
118.8000;1.3960;0.7166;
119.1000;1.3960;0.7212;
119.4000;1.3952;0.7142;
119.7000;1.3960;0.7119;
120.0000;1.3976;0.7072;
120.3000;1.3985;0.7119;
120.6000;1.3976;0.7072;
120.9000;1.3976;0.7095;
121.2000;1.3960;0.7095;
121.5000;1.3993;0.7166;
121.8000;1.3993;0.7166;
122.1000;1.3993;0.7119;
122.4000;1.4009;0.7236;
122.7000;1.3993;0.7189;
123.0000;1.3976;0.7095;
123.3000;1.3911;0.6862;
123.6000;1.3968;0.7119;
123.9000;1.3985;0.7119;
124.2000;1.3976;0.7095;
124.5000;1.3952;0.7049;
124.8000;1.3968;0.7072;
125.1000;1.3976;0.7095;
125.4000;1.3985;0.7119;
125.7000;1.3944;0.6979;
126.0000;1.3993;0.7095;
126.3000;1.3976;0.7025;
126.6000;1.3976;0.7002;
126.9000;1.3976;0.7049;
127.2000;1.3968;0.7025;
127.5000;1.3968;0.7002;
127.8000;1.3976;0.7025;
128.1000;1.3985;0.6932;
128.4000;1.3968;0.6792;
128.7000;1.4001;0.6909;
129.0000;1.3985;0.6909;
129.3000;1.3985;0.6932;
129.6000;1.3968;0.6909;
129.9000;1.3985;0.6979;
130.2000;1.3993;0.6955;
130.5000;1.3928;0.6745;
130.8000;1.3976;0.6909;
131.1000;1.3976;0.6909;
131.4000;1.3968;0.6839;
131.7000;1.3968;0.6862;
132.0000;1.3944;0.6839;
132.3000;1.3960;0.6932;
132.6000;1.3960;0.6979;
132.9000;1.3976;0.7049;
133.2000;1.3985;0.7049;
133.5000;1.3968;0.7072;
133.8000;1.3952;0.7049;
134.1000;1.3976;0.6979;
134.4000;1.3993;0.6979;
134.7000;1.3960;0.6862;
135.0000;1.3976;0.6885;
135.3000;1.3968;0.6932;
135.6000;1.3976;0.6955;
135.9000;1.3976;0.6979;
136.2000;1.3952;0.6932;
136.5000;1.3976;0.6979;
136.8000;1.3976;0.7119;
137.1000;1.3976;0.7142;
137.4000;1.3985;0.7189;
137.7000;1.3976;0.7166;
138.0000;1.4017;0.7282;
138.3000;1.3968;0.7095;
138.6000;1.3960;0.7025;
138.9000;1.3960;0.6932;
139.2000;1.3960;0.6932;
139.5000;1.3936;0.6769;
139.8000;1.3879;0.6559;
140.1000;1.3976;0.6839;
140.4000;1.3976;0.6792;
140.7000;1.4066;0.7002;
141.0000;1.3960;0.6815;
141.3000;1.3960;0.6792;
141.6000;1.3976;0.6815;
141.9000;1.3968;0.6815;
142.2000;1.3976;0.6839;
142.5000;1.3985;0.6815;
142.8000;1.3960;0.6745;
143.1000;1.3944;0.6815;
143.4000;1.3960;0.6932;
143.7000;1.3952;0.6932;
144.0000;1.3976;0.6932;
144.3000;1.3976;0.6909;
144.6000;1.3952;0.6885;
144.9000;1.3968;0.7002;
145.2000;1.3944;0.6955;
145.5000;1.3960;0.7002;
145.8000;1.3976;0.7002;
146.1000;1.3993;0.7119;
146.4000;1.3968;0.7119;
146.7000;1.3985;0.7212;
147.0000;1.3976;0.7236;
147.3000;1.3960;0.7142;
147.6000;1.3968;0.7095;
147.9000;1.3976;0.7072;
148.2000;1.3993;0.6979;
148.5000;1.3968;0.6979;
148.8000;1.3960;0.6815;
149.1000;1.3976;0.6862;
149.4000;1.3985;0.6885;
149.7000;1.3985;0.6815;
150.0000;1.3960;0.6745;
150.3000;1.3960;0.6815;
150.6000;1.3952;0.6815;
150.9000;1.3968;0.6815;
151.2000;1.3976;0.6955;
151.5000;1.3968;0.6932;
151.8000;1.3960;0.6862;
152.1000;1.3960;0.6885;
152.4000;1.3968;0.6885;
152.7000;1.4001;0.6885;
153.0000;1.3960;0.6769;
153.3000;1.3960;0.6699;
153.6000;1.3960;0.6699;
153.9000;1.3976;0.6769;
154.2000;1.3976;0.6745;
154.5000;1.3968;0.6745;
154.8000;1.3952;0.6769;
155.1000;1.3968;0.6792;
155.4000;1.3960;0.6769;
155.7000;1.3960;0.6815;
156.0000;1.3985;0.6979;
156.3000;1.3976;0.7025;
156.6000;1.3976;0.7049;
156.9000;1.3968;0.7119;
157.2000;1.3968;0.7142;
157.5000;1.3903;0.7049;
157.8000;1.3968;0.7282;
158.1000;1.4033;0.7376;
158.4000;1.3985;0.7166;
158.7000;1.3985;0.7095;
159.0000;1.3960;0.7002;
159.3000;1.3936;0.6909;
159.6000;1.3976;0.6979;
159.9000;1.4009;0.7049;
160.2000;1.3985;0.7025;
160.5000;1.3919;0.6862;
160.8000;1.3968;0.6979;
161.1000;1.4025;0.7095;
161.4000;1.3985;0.7095;
161.7000;1.3976;0.7119;
162.0000;1.3976;0.7095;
162.3000;1.3928;0.7002;
162.6000;1.3976;0.7142;
162.9000;1.3985;0.7166;
163.2000;1.3993;0.7142;
163.5000;1.3960;0.7095;
163.8000;1.3976;0.7025;
164.1000;1.3944;0.7002;
164.4000;1.3944;0.7002;
164.7000;1.4001;0.7072;
165.0000;1.3968;0.7025;
165.3000;1.4025;0.7166;
165.6000;1.3952;0.6979;
165.9000;1.3960;0.7049;
166.2000;1.3968;0.7025;
166.5000;1.3968;0.6955;
166.8000;1.3960;0.6955;
167.1000;1.3952;0.6909;
167.4000;1.3968;0.6909;
167.7000;1.3968;0.6909;
168.0000;1.3968;0.6909;
168.3000;1.3936;0.6839;
168.6000;1.3968;0.7025;
168.9000;1.3976;0.7095;
169.2000;1.3976;0.7119;
169.5000;1.3952;0.7049;
169.8000;1.3960;0.7166;
170.1000;1.3960;0.7236;
170.4000;1.3968;0.7236;
170.7000;1.3960;0.7119;
171.0000;1.3960;0.7072;
171.3000;1.3968;0.7095;
171.6000;1.3976;0.7095;
171.9000;1.3960;0.7072;
172.2000;1.3952;0.7142;
172.5000;1.3960;0.7095;
172.8000;1.3968;0.7119;
173.1000;1.3985;0.7095;
173.4000;1.3960;0.7002;
173.7000;1.3960;0.6932;
174.0000;1.3985;0.6979;
174.3000;1.3968;0.7025;
174.6000;1.3928;0.6955;
174.9000;1.3968;0.7002;
175.2000;1.3968;0.7049;
175.5000;1.3976;0.7166;
175.8000;1.3960;0.7119;
176.1000;1.3936;0.7049;
176.4000;1.3952;0.7049;
176.7000;1.3960;0.7025;
177.0000;1.3968;0.7072;
177.3000;1.4009;0.7119;
177.6000;1.3968;0.7025;
177.9000;1.3976;0.7025;
178.2000;1.3968;0.7072;
178.5000;1.3944;0.7142;
178.8000;1.3968;0.7166;
179.1000;1.3985;0.7189;
179.4000;1.3960;0.7142;
179.7000;1.3960;0.7142;
180.0000;1.3968;0.7049;
180.3000;1.3944;0.7049;
180.6000;1.3960;0.7049;
180.9000;1.3968;0.7072;
181.2000;1.3960;0.7049;
181.5000;1.3960;0.7095;
181.8000;1.3952;0.7072;
182.1000;1.3919;0.7095;
182.4000;1.3944;0.7166;
182.7000;1.3968;0.7189;
183.0000;1.3968;0.7119;
183.3000;1.3976;0.7166;
183.6000;1.3976;0.7119;
183.9000;1.3976;0.7049;
184.2000;1.3968;0.7119;
184.5000;1.3976;0.7072;
184.8000;1.3960;0.7072;
185.1000;1.3944;0.7072;
185.4000;1.3968;0.7212;
185.7000;1.3968;0.7189;
186.0000;1.3976;0.7166;
186.3000;1.3976;0.7189;
186.6000;1.3960;0.7142;
186.9000;1.3960;0.7189;
187.2000;1.3960;0.7282;
187.5000;1.3968;0.7282;
187.8000;1.3960;0.7306;
188.1000;1.3976;0.7259;
188.4000;1.4001;0.7329;
188.7000;1.3968;0.7282;
189.0000;1.3968;0.7189;
189.3000;1.4017;0.7352;
189.6000;1.3976;0.7259;
189.9000;1.3968;0.7259;
190.2000;1.3952;0.7212;
190.5000;1.3968;0.7189;
190.8000;1.3960;0.7282;
191.1000;1.3960;0.7282;
191.4000;1.3968;0.7212;
191.7000;1.3960;0.7259;
192.0000;1.3952;0.7259;
192.3000;1.3960;0.7306;
192.6000;1.3960;0.7212;
192.9000;1.3944;0.7259;
193.2000;1.3960;0.7189;
193.5000;1.3960;0.7189;
193.8000;1.3952;0.7189;
194.1000;1.3960;0.7212;
194.4000;1.3952;0.7189;
194.7000;1.3960;0.7166;
195.0000;1.3944;0.7095;
195.3000;1.3944;0.7189;
195.6000;1.3960;0.7329;
195.9000;1.3960;0.7306;
196.2000;1.3952;0.7189;
196.5000;1.3960;0.7166;
196.8000;1.3968;0.7282;
197.1000;1.3976;0.7259;
197.4000;1.3960;0.7236;
197.7000;1.3960;0.7166;
198.0000;1.3960;0.7072;
198.3000;1.3976;0.7049;
198.6000;1.3960;0.7189;
198.9000;1.3960;0.7189;
199.2000;1.3960;0.7212;
199.5000;1.3960;0.7259;
199.8000;1.4001;0.7352;
200.1000;1.3976;0.7189;
200.4000;1.3968;0.7189;
200.7000;1.3952;0.7189;
201.0000;1.3952;0.7142;
201.3000;1.3968;0.7189;
201.6000;1.3960;0.7049;
201.9000;1.3919;0.6955;
202.2000;1.3944;0.7119;
202.5000;1.3960;0.7166;
202.8000;1.3952;0.7166;
203.1000;1.3944;0.7095;
203.4000;1.3936;0.7142;
203.7000;1.3968;0.7236;
204.0000;1.4017;0.7399;
204.3000;1.3952;0.7306;
204.6000;1.3968;0.7306;
204.9000;1.3960;0.7329;
205.2000;1.3968;0.7329;
205.5000;1.3960;0.7329;
205.8000;1.3976;0.7236;
206.1000;1.3960;0.7189;
206.4000;1.3944;0.7189;
206.7000;1.3985;0.7282;
207.0000;1.3960;0.7236;
207.3000;1.3960;0.7236;
207.6000;1.3968;0.7236;
207.9000;1.3936;0.7119;
208.2000;1.3960;0.7119;
208.5000;1.3968;0.7189;
208.8000;1.3952;0.7212;
209.1000;1.3960;0.7236;
209.4000;1.3960;0.7282;
209.7000;1.3960;0.7259;
210.0000;1.3976;0.7236;
210.3000;1.3960;0.7259;
210.6000;1.3976;0.7422;
210.9000;1.3952;0.7399;
211.2000;1.3976;0.7329;
211.5000;1.3968;0.7399;
211.8000;1.3960;0.7376;
212.1000;1.3976;0.7469;
212.4000;1.3960;0.7329;
212.7000;1.3976;0.7376;
213.0000;1.3919;0.7259;
213.3000;1.3960;0.7352;
213.6000;1.3936;0.7282;
213.9000;1.3936;0.7259;
214.2000;1.3968;0.7352;
214.5000;1.3960;0.7236;
214.8000;1.3976;0.7259;
215.1000;1.3862;0.6885;
215.4000;1.3952;0.7095;
215.7000;1.3952;0.7095;
216.0000;1.3936;0.7002;
216.3000;1.3944;0.7049;
216.6000;1.3968;0.7072;
216.9000;1.3952;0.7095;
217.2000;1.3968;0.7025;
217.5000;1.3952;0.6955;
217.8000;1.3960;0.7025;
218.1000;1.3944;0.7049;
218.4000;1.3952;0.7072;
218.7000;1.3952;0.6932;
219.0000;1.3960;0.6932;
219.3000;1.3960;0.6955;
219.6000;1.3936;0.6955;
219.9000;1.3976;0.7095;
220.2000;1.3960;0.7025;
220.5000;1.3960;0.7049;
220.8000;1.3952;0.7002;
221.1000;1.3952;0.6955;
221.4000;1.4009;0.7095;
221.7000;1.3968;0.6979;
222.0000;1.3952;0.6979;
222.3000;1.3952;0.7072;
222.6000;1.3960;0.7166;
222.9000;1.3976;0.7166;
223.2000;1.3960;0.7142;
223.5000;1.3968;0.7189;
223.8000;1.3944;0.7072;
224.1000;1.3952;0.7049;
224.4000;1.3968;0.7072;
224.7000;1.3895;0.6979;
225.0000;1.3952;0.7072;
225.3000;1.3968;0.7072;
225.6000;1.3952;0.7119;
225.9000;1.3976;0.7095;
226.2000;1.3960;0.7095;
226.5000;1.3976;0.7002;
226.8000;1.3976;0.7142;
227.1000;1.3960;0.7095;
227.4000;1.3960;0.7072;
227.7000;1.3968;0.7002;
228.0000;1.3960;0.7002;
228.3000;1.3887;0.6839;
228.6000;1.3944;0.7025;
228.9000;1.3944;0.7072;
229.2000;1.3960;0.7119;
229.5000;1.3968;0.7212;
229.8000;1.3968;0.7282;
230.1000;1.3944;0.7189;
230.4000;1.3952;0.7212;
230.7000;1.3968;0.7282;
231.0000;1.3960;0.7142;
231.3000;1.3903;0.7049;
231.6000;1.3976;0.7259;
231.9000;1.3960;0.7306;
232.2000;1.3928;0.7236;
232.5000;1.3960;0.7282;
232.8000;1.3960;0.7352;
233.1000;1.3952;0.7352;
233.4000;1.3985;0.7306;
233.7000;1.3960;0.7282;
234.0000;1.3944;0.7166;
234.3000;1.3960;0.7259;
234.6000;1.3952;0.7142;
234.9000;1.3960;0.7119;
235.2000;1.3976;0.7236;
235.5000;1.3944;0.7189;
235.8000;1.3952;0.7236;
236.1000;1.3976;0.7166;
236.4000;1.3985;0.7189;
236.7000;1.3952;0.7095;
237.0000;1.3960;0.7166;
237.3000;1.3903;0.7072;
237.6000;1.3952;0.7166;
237.9000;1.3960;0.7166;
238.2000;1.3936;0.7095;
238.5000;1.4001;0.7212;
238.8000;1.3960;0.7072;
239.1000;1.3952;0.7142;
239.4000;1.3952;0.7095;
239.7000;1.3960;0.7119;
240.0000;1.3960;0.7095;
240.3000;1.3936;0.7072;
240.6000;1.3960;0.7049;
240.9000;1.3968;0.7119;
241.2000;1.3968;0.7119;
241.5000;1.4001;0.7119;
241.8000;1.3960;0.7095;
242.1000;1.3968;0.7142;
242.4000;1.3960;0.7212;
242.7000;1.3952;0.7189;
243.0000;1.3928;0.7072;
243.3000;1.3960;0.7189;
243.6000;1.3960;0.7259;
243.9000;1.3952;0.7142;
244.2000;1.3960;0.7025;
244.5000;1.3944;0.7002;
244.8000;1.3960;0.7049;
245.1000;1.3928;0.7072;
245.4000;1.3944;0.7119;
245.7000;1.3968;0.7212;
246.0000;1.3960;0.7212;
246.3000;1.3960;0.7212;
246.6000;1.3960;0.7166;
246.9000;1.3944;0.7119;
247.2000;1.3968;0.7166;
247.5000;1.3960;0.7072;
247.8000;1.3960;0.7049;
248.1000;1.3952;0.7095;
248.4000;1.3976;0.7142;
248.7000;1.3968;0.7119;
249.0000;1.3936;0.7025;
249.3000;1.3960;0.7002;
249.6000;1.3960;0.7095;
249.9000;1.3936;0.7072;
250.2000;1.3944;0.7119;
250.5000;1.3985;0.7142;
250.8000;1.3936;0.7002;
251.1000;1.3960;0.7025;
251.4000;1.3952;0.7025;
251.7000;1.3960;0.6979;
252.0000;1.3936;0.6955;
252.3000;1.3952;0.7072;
252.6000;1.3928;0.7025;
252.9000;1.3952;0.7119;
253.2000;1.3960;0.7049;
253.5000;1.3952;0.6979;
253.8000;1.4009;0.7072;
254.1000;1.3936;0.7002;
254.4000;1.4042;0.7212;
254.7000;1.3952;0.7072;
255.0000;1.3960;0.7072;
255.3000;1.3936;0.7119;
255.6000;1.4009;0.7166;
255.9000;1.3952;0.7049;
256.2000;1.3976;0.7072;
256.5000;1.3944;0.7002;
256.8000;1.3928;0.7095;
257.1000;1.3944;0.7212;
257.4000;1.3968;0.7306;
257.7000;1.3960;0.7422;
258.0000;1.3968;0.7469;
258.3000;1.3968;0.7422;
258.6000;1.3968;0.7282;
258.9000;1.3968;0.7189;
259.2000;1.4001;0.7329;
259.5000;1.3952;0.7212;
259.8000;1.3944;0.7142;
260.1000;1.3960;0.7166;
260.4000;1.3960;0.7189;
260.7000;1.3952;0.7189;
261.0000;1.3944;0.7236;
261.3000;1.3952;0.7306;
261.6000;1.3960;0.7282;
261.9000;1.3944;0.7166;
262.2000;1.3944;0.7142;
262.5000;1.3968;0.7166;
262.8000;1.3960;0.7212;
263.1000;1.3960;0.7212;
263.4000;1.3879;0.7049;
263.7000;1.3944;0.7236;
264.0000;1.3960;0.7189;
264.3000;1.3952;0.7142;
264.6000;1.3952;0.7189;
264.9000;1.3960;0.7142;
265.2000;1.3968;0.7189;
265.5000;1.3960;0.7119;
265.8000;1.3944;0.7025;
266.1000;1.3928;0.7072;
266.4000;1.3936;0.7072;
266.7000;1.3952;0.7119;
267.0000;1.3944;0.7002;
267.3000;1.3952;0.7049;
267.6000;1.3968;0.7072;
267.9000;1.3944;0.6909;
268.2000;1.3976;0.6885;
268.5000;1.3936;0.6745;
268.8000;1.3936;0.6769;
269.1000;1.3952;0.6815;
269.4000;1.3968;0.6815;
269.7000;1.3960;0.6815;
270.0000;1.3952;0.6839;
270.3000;1.3960;0.6909;
270.6000;1.3960;0.7025;
270.9000;1.3936;0.7072;
271.2000;1.3952;0.7119;
271.5000;1.3952;0.7212;
271.8000;1.3952;0.7166;
272.1000;1.3928;0.7002;
272.4000;1.3919;0.6979;
272.7000;1.3993;0.7142;
273.0000;1.3952;0.7002;
273.3000;1.3936;0.7002;
273.6000;1.3960;0.7049;
273.9000;1.3952;0.7002;
274.2000;1.3944;0.6932;
274.5000;1.3960;0.6932;
274.8000;1.3952;0.6862;
275.1000;1.3976;0.6979;
275.4000;1.3960;0.6955;
275.7000;1.3960;0.6932;
276.0000;1.3944;0.6909;
276.3000;1.3936;0.6885;
276.6000;1.3952;0.6909;
276.9000;1.3960;0.6862;
277.2000;1.3952;0.6839;
277.5000;1.3993;0.7072;
277.8000;1.3952;0.6955;
278.1000;1.3960;0.7025;
278.4000;1.3960;0.7095;
278.7000;1.3928;0.6979;
279.0000;1.3944;0.7072;
279.3000;1.3976;0.7212;
279.6000;1.3952;0.7119;
279.9000;1.3911;0.6955;
280.2000;1.3952;0.7025;
280.5000;1.3928;0.7072;
280.8000;1.3960;0.7142;
281.1000;1.3936;0.7095;
281.4000;1.3895;0.7095;
281.7000;1.3928;0.7189;
282.0000;1.3944;0.7189;
282.3000;1.3944;0.7259;
282.6000;1.3936;0.7282;
282.9000;1.3952;0.7259;
283.2000;1.3960;0.7259;
283.5000;1.3936;0.7236;
283.8000;1.3944;0.7259;
284.1000;1.3936;0.7259;
284.4000;1.3944;0.7329;
284.7000;1.3952;0.7329;
285.0000;1.3936;0.7306;
285.3000;1.3936;0.7259;
285.6000;1.3944;0.7259;
285.9000;1.3968;0.7259;
286.2000;1.3960;0.7259;
286.5000;1.3952;0.7236;
286.8000;1.3944;0.7189;
287.1000;1.3936;0.7189;
287.4000;1.3952;0.7236;
287.7000;1.3944;0.7236;
288.0000;1.3952;0.7142;
288.3000;1.4025;0.7306;
288.6000;1.3952;0.7166;
288.9000;1.3968;0.7166;
289.2000;1.3968;0.7119;
289.5000;1.3936;0.7049;
289.8000;1.3976;0.7002;
290.1000;1.3985;0.7049;
290.4000;1.3968;0.7119;
290.7000;1.3944;0.7095;
291.0000;1.3968;0.7142;
291.3000;1.3944;0.7212;
291.6000;1.3960;0.7282;
291.9000;1.3952;0.7306;
292.2000;1.3936;0.7306;
292.5000;1.3944;0.7352;
292.8000;1.3960;0.7352;
293.1000;1.3944;0.7236;
293.4000;1.3936;0.7166;
293.7000;1.3944;0.7119;
294.0000;1.3944;0.7072;
294.3000;1.3936;0.7025;
294.6000;1.3887;0.6932;
294.9000;1.3952;0.7142;
295.2000;1.3936;0.7095;
295.5000;1.3993;0.7282;
295.8000;1.3952;0.7095;
296.1000;1.3976;0.7119;
296.4000;1.3985;0.7189;
296.7000;1.3911;0.7095;
297.0000;1.3944;0.7166;
297.3000;1.3944;0.7072;
297.6000;1.3911;0.6909;
297.9000;1.3936;0.7002;
298.2000;1.3936;0.7072;
298.5000;1.3936;0.7025;
298.8000;1.3976;0.7142;
299.1000;1.3968;0.7072;
299.4000;1.3936;0.7025;
299.7000;1.3911;0.6909;
300.0000;1.3968;0.7002;
300.3000;1.3960;0.7119;
300.6000;1.3944;0.7072;
300.9000;1.3903;0.7049;
301.2000;1.3944;0.7119;
301.5000;1.3928;0.7119;
301.8000;1.3952;0.7166;
302.1000;1.3936;0.7142;
302.4000;1.3944;0.7166;
302.7000;1.3952;0.7142;
303.0000;1.3944;0.7095;
303.3000;1.3895;0.6955;
303.6000;1.3944;0.7072;
303.9000;1.3944;0.7095;
304.2000;1.3936;0.7095;
304.5000;1.3960;0.7119;
304.8000;1.3960;0.7095;
305.1000;1.3952;0.7072;
305.4000;1.3944;0.7049;
305.7000;1.3936;0.7025;
306.0000;1.3944;0.7025;
306.3000;1.3960;0.7119;
306.6000;1.3968;0.7166;
306.9000;1.3952;0.7142;
307.2000;1.3936;0.7049;
307.5000;1.3936;0.7072;
307.8000;1.3952;0.7142;
308.1000;1.3944;0.7119;
308.4000;1.3936;0.7072;
308.7000;1.3928;0.7025;
309.0000;1.3952;0.7049;
309.3000;1.3960;0.6955;
309.6000;1.3952;0.6932;
309.9000;1.3952;0.6979;
310.2000;1.3944;0.7002;
310.5000;1.3952;0.7095;
310.8000;1.3944;0.7072;
311.1000;1.3944;0.7095;
311.4000;1.3952;0.7142;
311.7000;1.3976;0.7166;
312.0000;1.3960;0.7142;
312.3000;1.3944;0.7119;
312.6000;1.3993;0.7236;
312.9000;1.3960;0.7212;
313.2000;1.3944;0.7236;
313.5000;1.3952;0.7282;
313.8000;1.3952;0.7282;
314.1000;1.3952;0.7259;
314.4000;1.3936;0.7212;
314.7000;1.3936;0.7189;
315.0000;1.3944;0.7236;
315.3000;1.3936;0.7236;
315.6000;1.3919;0.7166;
315.9000;1.3936;0.7166;
316.2000;1.3944;0.7166;
316.5000;1.3944;0.7166;
316.8000;1.3895;0.7095;
317.1000;1.3944;0.7212;
317.4000;1.3928;0.7166;
317.7000;1.3936;0.7166;
318.0000;1.3944;0.7282;
318.3000;1.3960;0.7236;
318.6000;1.3919;0.7142;
318.9000;1.3952;0.7259;
319.2000;1.3936;0.7212;
319.5000;1.3952;0.7259;
319.8000;1.3952;0.7212;
320.1000;1.3944;0.7142;
320.4000;1.3944;0.7142;
320.7000;1.3968;0.7189;
321.0000;1.3944;0.7142;
321.3000;1.3944;0.7049;
321.6000;1.3936;0.7095;
321.9000;1.3952;0.7142;
322.2000;1.3968;0.7212;
322.5000;1.3944;0.7095;
322.8000;1.3936;0.7095;
323.1000;1.3911;0.7025;
323.4000;1.3919;0.7095;
323.7000;1.3944;0.7189;
324.0000;1.3936;0.7306;
324.3000;1.4009;0.7399;
324.6000;1.3944;0.7189;
324.9000;1.3887;0.7072;
325.2000;1.3952;0.7142;
325.5000;1.3944;0.7072;
325.8000;1.3952;0.7166;
326.1000;1.3960;0.7236;
326.4000;1.3862;0.7002;
326.7000;1.3952;0.7212;
327.0000;1.3928;0.7095;
327.3000;1.3944;0.7142;
327.6000;1.3952;0.7236;
327.9000;1.3928;0.7212;
328.2000;1.3903;0.7142;
328.5000;1.3960;0.7212;
328.8000;1.3976;0.7212;
329.1000;1.3911;0.7002;
329.4000;1.3976;0.7166;
329.7000;1.3960;0.7049;
330.0000;1.3968;0.7049;
330.3000;1.3944;0.6955;
330.6000;1.3944;0.6932;
330.9000;1.3944;0.6979;
331.2000;1.3976;0.7025;
331.5000;1.3928;0.6932;
331.8000;1.3985;0.7095;
332.1000;1.3887;0.6909;
332.4000;1.3968;0.7095;
332.7000;1.3952;0.7072;
333.0000;1.3936;0.7095;
333.3000;1.3976;0.7236;
333.6000;1.3944;0.7282;
333.9000;1.3952;0.7306;
334.2000;1.3952;0.7259;
334.5000;1.3903;0.7189;
334.8000;1.3928;0.7236;
335.1000;1.3952;0.7259;
335.4000;1.3952;0.7189;
335.7000;1.3960;0.7166;
336.0000;1.3952;0.7095;
336.3000;1.3952;0.7095;
336.6000;1.3928;0.7049;
336.9000;1.3928;0.7025;
337.2000;1.3928;0.7025;
337.5000;1.3919;0.7002;
337.8000;1.3944;0.7049;
338.1000;1.3936;0.7072;
338.4000;1.3919;0.7049;
338.7000;1.3944;0.7166;
339.0000;1.3944;0.7189;
339.3000;1.3919;0.7166;
339.6000;1.3993;0.7329;
339.9000;1.3928;0.7212;
340.2000;1.3936;0.7212;
340.5000;1.3919;0.7142;
340.8000;1.3944;0.7119;
341.1000;1.3936;0.7166;
341.4000;1.3928;0.7095;
341.7000;1.3944;0.7025;
342.0000;1.3928;0.6955;
342.3000;1.3928;0.7002;
342.6000;1.3944;0.7025;
342.9000;1.3936;0.7002;
343.2000;1.3928;0.7072;
343.5000;1.3928;0.7095;
343.8000;1.3944;0.7119;
344.1000;1.3928;0.7166;
344.4000;1.3936;0.7142;
344.7000;1.3936;0.7119;
345.0000;1.3895;0.7049;
345.3000;1.3968;0.7212;
345.6000;1.3919;0.7142;
345.9000;1.3936;0.7095;
346.2000;1.3911;0.7025;
346.5000;1.3936;0.7025;
346.8000;1.3944;0.6979;
347.1000;1.3928;0.6932;
347.4000;1.3928;0.6862;
347.7000;1.3944;0.6839;
348.0000;1.3952;0.6815;
348.3000;1.3952;0.6815;
348.6000;1.4025;0.6932;
348.9000;1.3944;0.6745;
349.2000;1.3968;0.6815;
349.5000;1.3944;0.6722;
349.8000;1.3928;0.6582;
350.1000;1.3936;0.6652;
350.4000;1.3944;0.6652;
350.7000;1.4033;0.6862;
351.0000;1.3944;0.6699;
351.3000;1.4001;0.6815;
351.6000;1.4001;0.6792;
351.9000;1.3936;0.6629;
352.2000;1.3895;0.6605;
352.5000;1.3952;0.6792;
352.8000;1.3952;0.6792;
353.1000;1.3936;0.6745;
353.4000;1.3928;0.6769;
353.7000;1.3928;0.6745;
354.0000;1.3985;0.6839;
354.3000;1.3944;0.6745;
354.6000;1.3944;0.6745;
354.9000;1.3903;0.6699;
355.2000;1.3944;0.6699;
355.5000;1.4033;0.6909;
355.8000;1.3985;0.6792;
356.1000;1.3944;0.6792;
356.4000;1.3960;0.6769;
356.7000;1.3944;0.6769;
357.0000;1.3944;0.6909;
357.3000;1.3944;0.6815;
357.6000;1.3936;0.6769;
357.9000;1.3944;0.6722;
358.2000;1.3944;0.6745;
358.5000;1.3928;0.6675;
358.8000;1.3903;0.6629;
359.1000;1.3944;0.6815;
359.4000;1.3952;0.6862;
359.7000;1.3944;0.6792;
360.0000;1.3887;0.6652;
360.3000;1.3976;0.6885;
360.6000;1.3952;0.6815;
360.9000;1.3944;0.6769;
361.2000;1.3936;0.6745;
361.5000;1.3952;0.6815;
361.8000;1.3968;0.6885;
362.1000;1.3960;0.6792;
362.4000;1.3928;0.6769;
362.7000;1.3936;0.6792;
363.0000;1.4025;0.7049;
363.3000;1.3944;0.6885;
363.6000;1.3887;0.6722;
363.9000;1.3952;0.6815;
364.2000;1.3944;0.6769;
364.5000;1.3944;0.6815;
364.8000;1.3944;0.6815;
365.1000;1.3936;0.6815;
365.4000;1.3936;0.6839;
365.7000;1.3960;0.6909;
366.0000;1.4001;0.7049;
366.3000;1.3944;0.6885;
366.6000;1.3952;0.6862;
366.9000;1.3960;0.6955;
367.2000;1.3944;0.6862;
367.5000;1.3944;0.6885;
367.8000;1.3887;0.6675;
368.1000;1.3960;0.6769;
368.4000;1.3936;0.6722;
368.7000;1.3952;0.6839;
369.0000;1.3936;0.6885;
369.3000;1.3952;0.6862;
369.6000;1.4050;0.7002;
369.9000;1.3968;0.6839;
370.2000;1.3879;0.6745;
370.5000;1.3936;0.6932;
370.8000;1.3944;0.6979;
371.1000;1.3960;0.6979;
371.4000;1.3944;0.6932;
371.7000;1.3960;0.6979;
372.0000;1.3952;0.7002;
372.3000;1.3952;0.7049;
372.6000;1.3968;0.7049;
372.9000;1.3936;0.7025;
373.2000;1.3968;0.7025;
373.5000;1.3952;0.7002;
373.8000;1.3928;0.6932;
374.1000;1.3928;0.6979;
374.4000;1.3944;0.6979;
374.7000;1.3952;0.6932;
375.0000;1.3936;0.6862;
375.3000;1.3944;0.6839;
375.6000;1.3936;0.6815;
375.9000;1.3960;0.6862;
376.2000;1.3936;0.6815;
376.5000;1.3936;0.6815;
376.8000;1.3944;0.6815;
377.1000;1.3952;0.6885;
377.4000;1.3952;0.6955;
377.7000;1.3952;0.6909;
378.0000;1.3936;0.6932;
378.3000;1.3928;0.6955;
378.6000;1.3944;0.6909;
378.9000;1.3936;0.6769;
379.2000;1.3928;0.6769;
379.5000;1.3928;0.6792;
379.8000;1.3952;0.6932;
380.1000;1.3968;0.6955;
380.4000;1.3944;0.6955;
380.7000;1.3936;0.6909;
381.0000;1.3944;0.6909;
381.3000;1.3944;0.6885;
381.6000;1.3936;0.6909;
381.9000;1.3960;0.6909;
382.2000;1.3952;0.6955;
382.5000;1.3960;0.6955;
382.8000;1.3911;0.6815;
383.1000;1.3944;0.6862;
383.4000;1.3919;0.6745;
383.7000;1.3911;0.6629;
384.0000;1.3952;0.6699;
384.3000;1.3936;0.6605;
384.6000;1.3911;0.6559;
384.9000;1.3944;0.6629;
385.2000;1.3944;0.6722;
385.5000;1.3936;0.6769;
385.8000;1.3919;0.6722;
386.1000;1.3919;0.6722;
386.4000;1.3952;0.6722;
386.7000;1.3944;0.6745;
387.0000;1.3919;0.6792;
387.3000;1.3944;0.6862;
387.6000;1.3936;0.6909;
387.9000;1.3944;0.6932;
388.2000;1.3936;0.6792;
388.5000;1.3952;0.6862;
388.8000;1.3919;0.6769;
389.1000;1.3944;0.6862;
389.4000;1.3952;0.6909;
389.7000;1.3936;0.6745;
390.0000;1.3936;0.6839;
390.3000;1.3928;0.6815;
390.6000;1.3919;0.6862;
390.9000;1.3919;0.6909;
391.2000;1.3944;0.6955;
391.5000;1.3944;0.6979;
391.8000;1.3928;0.7095;
392.1000;1.3952;0.7072;
392.4000;1.3960;0.7119;
392.7000;1.3936;0.7072;
393.0000;1.3944;0.7049;
393.3000;1.3936;0.6932;
393.6000;1.4001;0.7072;
393.9000;1.3936;0.6955;
394.2000;1.3919;0.6909;
394.5000;1.3928;0.6885;
394.8000;1.3928;0.6885;
395.1000;1.3936;0.6885;
395.4000;1.4033;0.7119;
395.7000;1.3936;0.6862;
396.0000;1.3952;0.6885;
396.3000;1.3952;0.6979;
396.6000;1.3968;0.6979;
396.9000;1.3944;0.6979;
397.2000;1.3936;0.6979;
397.5000;1.3944;0.7025;
397.8000;1.3960;0.7095;
398.1000;1.3944;0.7072;
398.4000;1.3960;0.7119;
398.7000;1.3936;0.7119;
399.0000;1.3944;0.7049;
399.3000;1.3936;0.7025;
399.6000;1.3960;0.7025;
399.9000;1.3936;0.7002;
400.2000;1.3928;0.7002;
400.5000;1.3944;0.7002;
400.8000;1.3960;0.7025;
401.1000;1.3936;0.6932;
401.4000;1.3936;0.6955;
401.7000;1.3944;0.6932;
402.0000;1.3944;0.6862;
402.3000;1.3862;0.6652;
402.6000;1.3928;0.6722;
402.9000;1.3944;0.6745;
403.2000;1.3936;0.6699;
403.5000;1.3928;0.6605;
403.8000;1.3928;0.6582;
404.1000;1.3944;0.6582;
404.4000;1.3928;0.6652;
404.7000;1.3919;0.6699;
405.0000;1.3944;0.6629;
405.3000;1.3919;0.6582;
405.6000;1.3919;0.6559;
405.9000;1.3944;0.6699;
406.2000;1.3936;0.6722;
406.5000;1.3936;0.6815;
406.8000;1.3936;0.6839;
407.1000;1.3960;0.6909;
407.4000;1.3936;0.6815;
407.7000;1.3952;0.6862;
408.0000;1.3928;0.6722;
408.3000;1.3952;0.6815;
408.6000;1.3944;0.6792;
408.9000;1.3936;0.6769;
409.2000;1.3936;0.6675;
409.5000;1.3928;0.6629;
409.8000;1.3936;0.6722;
410.1000;1.3944;0.6722;
410.4000;1.3919;0.6605;
410.7000;1.3936;0.6605;
411.0000;1.3919;0.6675;
411.3000;1.3928;0.6699;
411.6000;1.3944;0.6745;
411.9000;1.3936;0.6582;
412.2000;1.3944;0.6582;
412.5000;1.3936;0.6652;
412.8000;1.3944;0.6629;
413.1000;1.3944;0.6699;
413.4000;1.3936;0.6722;
413.7000;1.3928;0.6722;
414.0000;1.3936;0.6745;
414.3000;1.3928;0.6745;
414.6000;1.3903;0.6629;
414.9000;1.3936;0.6675;
415.2000;1.3960;0.6652;
415.5000;1.3944;0.6582;
415.8000;1.3944;0.6605;
416.1000;1.3944;0.6675;
416.4000;1.3928;0.6605;
416.7000;1.3944;0.6652;
417.0000;1.3952;0.6699;
417.3000;1.3944;0.6699;
417.6000;1.3936;0.6582;
417.9000;1.3936;0.6559;
418.2000;1.3985;0.6652;
418.5000;1.3944;0.6629;
418.8000;1.3936;0.6652;
419.1000;1.3944;0.6699;
419.4000;1.3928;0.6722;
419.7000;1.3944;0.6722;
420.0000;1.3919;0.6792;
420.3000;1.3911;0.6745;
420.6000;1.3928;0.6815;
420.9000;1.3936;0.6792;
421.2000;1.3928;0.6745;
421.5000;1.3936;0.6839;
421.8000;1.3936;0.6815;
422.1000;1.3944;0.6839;
422.4000;1.3952;0.6909;
422.7000;1.3862;0.6722;
423.0000;1.3919;0.6862;
423.3000;1.3952;0.6932;
423.6000;1.3944;0.6909;
423.9000;1.3911;0.6769;
424.2000;1.3903;0.6675;
424.5000;1.3936;0.6722;
424.8000;1.3895;0.6512;
425.1000;1.3936;0.6675;
425.4000;1.3919;0.6699;
425.7000;1.3936;0.6699;
426.0000;1.3936;0.6722;
426.3000;1.4017;0.6979;
426.6000;1.3960;0.6885;
426.9000;1.3919;0.6792;
427.2000;1.3919;0.6792;
427.5000;1.3871;0.6699;
427.8000;1.3919;0.6792;
428.1000;1.3952;0.6792;
428.4000;1.3903;0.6605;
428.7000;1.3928;0.6722;
429.0000;1.3928;0.6745;
429.3000;1.3911;0.6699;
429.6000;1.3928;0.6792;
429.9000;1.3928;0.6792;
430.2000;1.3919;0.6792;
430.5000;1.3911;0.6932;
430.8000;1.3895;0.6979;
431.1000;1.3919;0.6955;
431.4000;1.3919;0.6932;
431.7000;1.3936;0.6979;
432.0000;1.3919;0.6909;
432.3000;1.3928;0.6932;
432.6000;1.3919;0.6955;
432.9000;1.3903;0.6885;
433.2000;1.3919;0.6862;
433.5000;1.3928;0.6769;
433.8000;1.3879;0.6675;
434.1000;1.3944;0.6769;
434.4000;1.3928;0.6792;
434.7000;1.3936;0.6862;
435.0000;1.3936;0.6932;
435.3000;1.3928;0.6955;
435.6000;1.3944;0.7025;
435.9000;1.3928;0.7072;
436.2000;1.3944;0.7049;
436.5000;1.3911;0.6932;
436.8000;1.3944;0.7025;
437.1000;1.3936;0.6932;
437.4000;1.3919;0.6909;
437.7000;1.3944;0.6955;
438.0000;1.3928;0.7002;
438.3000;1.3936;0.6979;
438.6000;1.3936;0.6909;
438.9000;1.3952;0.6955;
439.2000;1.3952;0.6932;
439.5000;1.3936;0.6885;
439.8000;1.3968;0.6979;
440.1000;1.3952;0.6909;
440.4000;1.3952;0.6839;
440.7000;1.3952;0.6885;
441.0000;1.3960;0.6909;
441.3000;1.3944;0.6862;
441.6000;1.3952;0.6815;
441.9000;1.3936;0.6862;
442.2000;1.3871;0.6745;
442.5000;1.3944;0.6909;
442.8000;1.3944;0.6979;
443.1000;1.3944;0.6932;
443.4000;1.3952;0.6885;
443.7000;1.3928;0.6792;
444.0000;1.3944;0.6769;
444.3000;1.3952;0.6815;
444.6000;1.3928;0.6722;
444.9000;1.3879;0.6582;
445.2000;1.3936;0.6699;
445.5000;1.3952;0.6745;
445.8000;1.3944;0.6862;
446.1000;1.3936;0.6909;
446.4000;1.3952;0.7025;
446.7000;1.3944;0.7119;
447.0000;1.3903;0.7072;
447.3000;1.3936;0.7189;
447.6000;1.3936;0.7166;
447.9000;1.3936;0.7212;
448.2000;1.3936;0.7212;
448.5000;1.3911;0.7189;
448.8000;1.3911;0.7189;
449.1000;1.3919;0.7189;
449.4000;1.3936;0.7282;
449.7000;1.3944;0.7329;
450.0000;1.3911;0.7259;
450.3000;1.3928;0.7259;
450.6000;1.3952;0.7306;
450.9000;1.3936;0.7352;
451.2000;1.3952;0.7352;
451.5000;1.3993;0.7446;
451.8000;1.3944;0.7329;
452.1000;1.3952;0.7329;
452.4000;1.3887;0.7095;
452.7000;1.3928;0.7189;
453.0000;1.3919;0.7142;
453.3000;1.3928;0.7119;
453.6000;1.3862;0.6979;
453.9000;1.3928;0.7095;
454.2000;1.3911;0.7142;
454.5000;1.3919;0.7212;
454.8000;1.3960;0.7282;
455.1000;1.3919;0.7189;
455.4000;1.3928;0.7212;
455.7000;1.3919;0.7119;
456.0000;1.3944;0.7166;
456.3000;1.3936;0.7189;
456.6000;1.3928;0.7142;
456.9000;1.3985;0.7212;
457.2000;1.3944;0.7072;
457.5000;1.3919;0.6979;
457.8000;1.3911;0.6932;
458.1000;1.3919;0.6979;
458.4000;1.3919;0.7025;
458.7000;1.3928;0.6979;
459.0000;1.3928;0.6932;
459.3000;1.3944;0.6815;
459.6000;1.4033;0.7002;
459.9000;1.3944;0.6745;
460.2000;1.3911;0.6652;
460.5000;1.3960;0.6722;
460.8000;1.3944;0.6722;
461.1000;1.3960;0.6769;
461.4000;1.3960;0.6839;
461.7000;1.3928;0.6769;
462.0000;1.3919;0.6745;
462.3000;1.3976;0.6862;
462.6000;1.3928;0.6769;
462.9000;1.3928;0.6745;
463.2000;1.3952;0.6862;
463.5000;1.3944;0.6839;
463.8000;1.3911;0.6792;
464.1000;1.3919;0.6792;
464.4000;1.3911;0.6839;
464.7000;1.3936;0.6932;
465.0000;1.3887;0.6792;
465.3000;1.3944;0.7002;
465.6000;1.3919;0.7049;
465.9000;1.3928;0.7119;
466.2000;1.3895;0.7072;
466.5000;1.3928;0.7142;
466.8000;1.3919;0.7142;
467.1000;1.3936;0.7166;
467.4000;1.3903;0.7095;
467.7000;1.3928;0.7189;
468.0000;1.3936;0.7189;
468.3000;1.3928;0.7166;
468.6000;1.3919;0.7142;
468.9000;1.3928;0.7166;
469.2000;1.3903;0.7119;
469.5000;1.3928;0.7236;
469.8000;1.3993;0.7376;
470.1000;1.3936;0.7236;
470.4000;1.3919;0.7189;
470.7000;1.3911;0.7189;
471.0000;1.3960;0.7352;
471.3000;1.3928;0.7306;
471.6000;1.3944;0.7282;
471.9000;1.3936;0.7236;
472.2000;1.3919;0.7236;
472.5000;1.3928;0.7259;
472.8000;1.3928;0.7236;
473.1000;1.3919;0.7282;
473.4000;1.3911;0.7236;
473.7000;1.3952;0.7282;
474.0000;1.3944;0.7282;
474.3000;1.3919;0.7306;
474.6000;1.4001;0.7539;
474.9000;1.3919;0.7376;
475.2000;1.3919;0.7352;
475.5000;1.3903;0.7236;
475.8000;1.3919;0.7212;
476.1000;1.3919;0.7119;
476.4000;1.3985;0.7236;
476.7000;1.3846;0.6909;
477.0000;1.3919;0.7072;
477.3000;1.3928;0.7119;
477.6000;1.3928;0.7119;
477.9000;1.3936;0.7095;
478.2000;1.3919;0.7072;
478.5000;1.3919;0.7072;
478.8000;1.3919;0.7072;
479.1000;1.3936;0.7142;
479.4000;1.3928;0.7119;
479.7000;1.3936;0.7095;
480.0000;1.3871;0.6932;
480.3000;1.3936;0.7049;
480.6000;1.3976;0.7095;
480.9000;1.3887;0.6932;
481.2000;1.3960;0.7119;
481.5000;1.3952;0.7142;
481.8000;1.3960;0.7142;
482.1000;1.3911;0.7002;
482.4000;1.3887;0.6955;
482.7000;1.3952;0.7072;
483.0000;1.3976;0.7212;
483.3000;1.3952;0.7119;
483.6000;1.3928;0.7095;
483.9000;1.3862;0.6979;
484.2000;1.3928;0.7166;
484.5000;1.3928;0.7166;
484.8000;1.3919;0.7166;
485.1000;1.3871;0.7142;
485.4000;1.3936;0.7236;
485.7000;1.3928;0.7166;
486.0000;1.3903;0.7166;
486.3000;1.3854;0.7119;
486.6000;1.3928;0.7259;
486.9000;1.3919;0.7259;
487.2000;1.3903;0.7329;
487.5000;1.3903;0.7376;
487.8000;1.3928;0.7399;
488.1000;1.3911;0.7352;
488.4000;1.3919;0.7399;
488.7000;1.3936;0.7329;
489.0000;1.3919;0.7282;
489.3000;1.3936;0.7306;
489.6000;1.3903;0.7259;
489.9000;1.3919;0.7259;
490.2000;1.3976;0.7259;
490.5000;1.3928;0.7119;
490.8000;1.3919;0.7025;
491.1000;1.3928;0.7002;
491.4000;1.3976;0.7095;
491.7000;1.3936;0.7049;
492.0000;1.3928;0.7002;
492.3000;1.3862;0.6885;
492.6000;1.3911;0.7025;
492.9000;1.3911;0.6979;
493.2000;1.3944;0.7049;
493.5000;1.3936;0.7072;
493.8000;1.3944;0.7072;
494.1000;1.3936;0.7095;
494.4000;1.3936;0.7119;
494.7000;1.3936;0.7166;
495.0000;1.3944;0.7189;
495.3000;1.3928;0.7142;
495.6000;1.3911;0.7189;
495.9000;1.3936;0.7212;
496.2000;1.3936;0.7189;
496.5000;1.3911;0.7049;
496.8000;1.3911;0.7142;
497.1000;1.3919;0.7212;
497.4000;1.3919;0.7236;
497.7000;1.3919;0.7142;
498.0000;1.3936;0.7189;
498.3000;1.3919;0.7166;
498.6000;1.4001;0.7422;
498.9000;1.3928;0.7212;
499.2000;1.3944;0.7142;
499.5000;1.4033;0.7306;
499.8000;1.3928;0.7142;
500.1000;1.3919;0.7142;
500.4000;1.3919;0.7166;
500.7000;1.3911;0.7142;
501.0000;1.3919;0.7119;
501.3000;1.3879;0.7002;
501.6000;1.3903;0.7119;
501.9000;1.3960;0.7212;
502.2000;1.3919;0.7119;
502.5000;1.3895;0.7025;
502.8000;1.3862;0.6955;
503.1000;1.3862;0.6862;
503.4000;1.3928;0.7025;
503.7000;1.3887;0.6955;
504.0000;1.3976;0.7236;
504.3000;1.3919;0.7166;
504.6000;1.3871;0.7049;
504.9000;1.3936;0.7212;
505.2000;1.3936;0.7142;
505.5000;1.3928;0.7095;
505.8000;1.3911;0.7049;
506.1000;1.3911;0.7025;
506.4000;1.3936;0.7095;
506.7000;1.3895;0.6932;
507.0000;1.3895;0.6862;
507.3000;1.3928;0.6909;
507.6000;1.3919;0.6885;
507.9000;1.3944;0.6955;
508.2000;1.3936;0.7002;
508.5000;1.3919;0.6955;
508.8000;1.3936;0.7025;
509.1000;1.3911;0.6979;
509.4000;1.3936;0.6979;
509.7000;1.3936;0.7025;
510.0000;1.3976;0.7072;
510.3000;1.3936;0.7025;
510.6000;1.3928;0.7049;
510.9000;1.3928;0.7072;
511.2000;1.3911;0.7049;
511.5000;1.3919;0.6955;
511.8000;1.3928;0.6979;
512.1000;1.3952;0.7072;
512.4000;1.3919;0.7025;
512.7000;1.3919;0.7025;
513.0000;1.3911;0.7049;
513.3000;1.3911;0.7095;
513.6000;1.3936;0.7142;
513.9000;1.3936;0.7212;
514.2000;1.3887;0.7119;
514.5000;1.3903;0.7119;
514.8000;1.3919;0.7119;
515.1000;1.3919;0.7119;
515.4000;1.3976;0.7212;
515.7000;1.3903;0.7072;
516.0000;1.3919;0.7095;
516.3000;1.3928;0.7166;
516.6000;1.3936;0.7119;
516.9000;1.3911;0.7072;
517.2000;1.3936;0.7142;
517.5000;1.3944;0.7142;
517.8000;1.3928;0.7072;
518.1000;1.3944;0.7049;
518.4000;1.3911;0.6932;
518.7000;1.3936;0.6932;
519.0000;1.3976;0.7002;
519.3000;1.3919;0.6862;
519.6000;1.3968;0.7002;
519.9000;1.3960;0.6979;
520.2000;1.3928;0.6909;
520.5000;1.3928;0.6862;
520.8000;1.3928;0.6815;
521.1000;1.3936;0.6862;
521.4000;1.3944;0.6862;
521.7000;1.3928;0.6815;
522.0000;1.3919;0.6909;
522.3000;1.3903;0.6932;
522.6000;1.3919;0.7002;
522.9000;1.3928;0.6932;
523.2000;1.3960;0.6979;
523.5000;1.3879;0.6792;
523.8000;1.3919;0.6815;
524.1000;1.3936;0.6862;
524.4000;1.3903;0.6839;
524.7000;1.3895;0.6885;
525.0000;1.3936;0.6815;
525.3000;1.3887;0.6722;
525.6000;1.3919;0.6792;
525.9000;1.3903;0.6769;
526.2000;1.3928;0.6769;
526.5000;1.3911;0.6792;
526.8000;1.3936;0.6862;
527.1000;1.3919;0.6885;
527.4000;1.3911;0.6979;
527.7000;1.3952;0.7142;
528.0000;1.3928;0.7049;
528.3000;1.3928;0.7002;
528.6000;1.3928;0.7025;
528.9000;1.3919;0.7072;
529.2000;1.3936;0.7049;
529.5000;1.3919;0.7002;
529.8000;1.3895;0.6909;
530.1000;1.3944;0.7025;
530.4000;1.3944;0.7119;
530.7000;1.3936;0.7142;
531.0000;1.3928;0.7119;
531.3000;1.3928;0.7095;
531.6000;1.3944;0.7166;
531.9000;1.3944;0.7166;
532.2000;1.3928;0.7166;
532.5000;1.3928;0.7236;
532.8000;1.3911;0.7259;
533.1000;1.3936;0.7259;
533.4000;1.3944;0.7189;
533.7000;1.3911;0.7212;
534.0000;1.3960;0.7259;
534.3000;1.3976;0.7212;
534.6000;1.3936;0.7119;
534.9000;1.3919;0.7095;
535.2000;1.3928;0.7212;
535.5000;1.3944;0.7329;
535.8000;1.3928;0.7329;
536.1000;1.3928;0.7352;
536.4000;1.3919;0.7259;
536.7000;1.3928;0.7212;
537.0000;1.3936;0.7259;
537.3000;1.3911;0.7212;
537.6000;1.3919;0.7189;
537.9000;1.3928;0.7166;
538.2000;1.3879;0.7025;
538.5000;1.3968;0.7236;
538.8000;1.3928;0.7049;
539.1000;1.3911;0.7025;
539.4000;1.3919;0.7025;
539.7000;1.3919;0.6979;
540.0000;1.3911;0.6955;
540.3000;1.3936;0.7002;
540.6000;1.3911;0.7025;
540.9000;1.3928;0.6955;
541.2000;1.3911;0.6932;
541.5000;1.3928;0.7002;
541.8000;1.3911;0.6955;
542.1000;1.3928;0.7049;
542.4000;1.3919;0.7095;
542.7000;1.3895;0.7072;
543.0000;1.3911;0.7025;
543.3000;1.3944;0.7072;
543.6000;1.3903;0.6955;
543.9000;1.3887;0.6862;
544.2000;1.3919;0.6909;
544.5000;1.3976;0.7072;
544.8000;1.3936;0.6979;
545.1000;1.3928;0.6955;
545.4000;1.3903;0.6885;
545.7000;1.3919;0.6885;
546.0000;1.3928;0.6815;
546.3000;1.3936;0.6885;
546.6000;1.3895;0.6862;
546.9000;1.3928;0.6955;
547.2000;1.3928;0.7072;
547.5000;1.3919;0.7072;
547.8000;1.3911;0.7119;
548.1000;1.3919;0.7072;
548.4000;1.3919;0.7072;
548.7000;1.3919;0.7025;
549.0000;1.3903;0.7025;
549.3000;1.3903;0.6955;
549.6000;1.3919;0.6909;
549.9000;1.3911;0.6885;
550.2000;1.3895;0.6839;
550.5000;1.3895;0.6839;
550.8000;1.3903;0.6862;
551.1000;1.3903;0.6815;
551.4000;1.3903;0.6885;
551.7000;1.3895;0.6862;
552.0000;1.3895;0.6862;
552.3000;1.3895;0.7002;
552.6000;1.3903;0.7072;
552.9000;1.3903;0.7095;
553.2000;1.3903;0.7072;
553.5000;1.3928;0.7119;
553.8000;1.3911;0.7142;
554.1000;1.3903;0.7142;
554.4000;1.3919;0.7142;
554.7000;1.3944;0.7236;
555.0000;1.3928;0.7189;
555.3000;1.3919;0.7119;
555.6000;1.3919;0.7072;
555.9000;1.3871;0.7002;
556.2000;1.3928;0.7212;
556.5000;1.3911;0.7189;
556.8000;1.3928;0.7236;
557.1000;1.3822;0.7049;
557.4000;1.3911;0.7306;
557.7000;1.3936;0.7352;
558.0000;1.3911;0.7306;
558.3000;1.3928;0.7446;
558.6000;1.3919;0.7352;
558.9000;1.3928;0.7376;
559.2000;1.3911;0.7399;
559.5000;1.3919;0.7376;
559.8000;1.3928;0.7399;
560.1000;1.3976;0.7586;
560.4000;1.3903;0.7399;
560.7000;1.3985;0.7586;
561.0000;1.3911;0.7306;
561.3000;1.3952;0.7259;
561.6000;1.3919;0.7072;
561.9000;1.3928;0.7049;
562.2000;1.3838;0.6839;
562.5000;1.3911;0.6955;
562.8000;1.3928;0.7002;
563.1000;1.3928;0.6955;
563.4000;1.3911;0.7002;
563.7000;1.3919;0.7025;
564.0000;1.3895;0.7002;
564.3000;1.3887;0.6979;
564.6000;1.3903;0.7025;
564.9000;1.3903;0.7095;
565.2000;1.3936;0.7095;
565.5000;1.3911;0.7095;
565.8000;1.3919;0.7119;
566.1000;1.3919;0.7166;
566.4000;1.3895;0.7072;
566.7000;1.3903;0.7142;
567.0000;1.3919;0.7142;
567.3000;1.3903;0.7119;
567.6000;1.3936;0.7212;
567.9000;1.3928;0.7142;
568.2000;1.3911;0.7049;
568.5000;1.3928;0.7025;
568.8000;1.3911;0.7002;
569.1000;1.3919;0.6979;
569.4000;1.3919;0.6885;
569.7000;1.3911;0.6909;
570.0000;1.3911;0.6955;
570.3000;1.3919;0.6979;
570.6000;1.3928;0.7002;
570.9000;1.3928;0.7049;
571.2000;1.3928;0.7025;
571.5000;1.3928;0.7025;
571.8000;1.3944;0.7025;
572.1000;1.3919;0.6932;
572.4000;1.3911;0.6885;
572.7000;1.3960;0.7072;
573.0000;1.3993;0.7072;
573.3000;1.3919;0.6909;
573.6000;1.3919;0.6862;
573.9000;1.3919;0.6885;
574.2000;1.3911;0.6885;
574.5000;1.3936;0.6932;
574.8000;1.3952;0.6979;
575.1000;1.3895;0.6909;
575.4000;1.3911;0.6979;
575.7000;1.3928;0.7002;
576.0000;1.3928;0.6955;
576.3000;1.3928;0.7025;
576.6000;1.3895;0.6932;
576.9000;1.3879;0.6909;
577.2000;1.3911;0.6979;
577.5000;1.3846;0.6932;
577.8000;1.3919;0.7002;
578.1000;1.3928;0.7049;
578.4000;1.3903;0.7119;
578.7000;1.3928;0.7189;
579.0000;1.3944;0.7259;
579.3000;1.3862;0.7072;
579.6000;1.3936;0.7212;
579.9000;1.3862;0.7072;
580.2000;1.3968;0.7352;
580.5000;1.3936;0.7282;
580.8000;1.3936;0.7212;
581.1000;1.3944;0.7282;
581.4000;1.3919;0.7095;
581.7000;1.3919;0.7025;
582.0000;1.3862;0.6885;
582.3000;1.3879;0.7002;
582.6000;1.3928;0.7119;
582.9000;1.3903;0.7072;
583.2000;1.3862;0.6909;
583.5000;1.3928;0.7119;
583.8000;1.3936;0.7166;
584.1000;1.3919;0.7095;
584.4000;1.3919;0.7095;
584.7000;1.3919;0.7002;
585.0000;1.3919;0.6932;
585.3000;1.3871;0.6792;
585.6000;1.3928;0.6909;
585.9000;1.3936;0.6885;
586.2000;1.3911;0.6955;
586.5000;1.3919;0.6955;
586.8000;1.3911;0.6955;
587.1000;1.3919;0.7002;
587.4000;1.3919;0.7025;
587.7000;1.3919;0.7025;
588.0000;1.3903;0.6979;
588.3000;1.3919;0.6932;
588.6000;1.3919;0.6955;
588.9000;1.3919;0.6955;
589.2000;1.3919;0.6979;
589.5000;1.3919;0.6955;
589.8000;1.3919;0.6932;
590.1000;1.3911;0.7002;
590.4000;1.3919;0.6979;
590.7000;1.3919;0.7002;
591.0000;1.3919;0.7049;
591.3000;1.3903;0.7119;
591.6000;1.3903;0.7095;
591.9000;1.3903;0.7119;
592.2000;1.3911;0.7119;
592.5000;1.3911;0.7095;
592.8000;1.3944;0.7142;
593.1000;1.3903;0.7025;
593.4000;1.3919;0.7095;
593.7000;1.3919;0.7142;
594.0000;1.3911;0.7142;
594.3000;1.3895;0.7095;
594.6000;1.3895;0.7095;
594.9000;1.3879;0.7049;
595.2000;1.3911;0.7049;
595.5000;1.3903;0.7002;
595.8000;1.3952;0.7095;
596.1000;1.3936;0.7072;
596.4000;1.3911;0.7142;
596.7000;1.3919;0.7119;
597.0000;1.3911;0.7095;
597.3000;1.3895;0.7025;
597.6000;1.3903;0.7095;
597.9000;1.3919;0.7142;
598.2000;1.3887;0.7119;
598.5000;1.3952;0.7236;
598.8000;1.3919;0.7166;
599.1000;1.3862;0.6932;
599.4000;1.3919;0.7095;
599.7000;1.3919;0.7095;
600.0000;1.3887;0.6979;
600.3000;1.3903;0.6909;
600.6000;1.3887;0.6839;
600.9000;1.3822;0.6605;
601.2000;1.3716;0.6372;
601.5000;1.3651;0.6279;
601.8000;1.3504;0.5928;
602.1000;1.3398;0.5648;
602.4000;1.3260;0.5508;
602.7000;1.3187;0.5462;
603.0000;1.3032;0.5135;
603.3000;1.2902;0.4901;
603.6000;1.2812;0.4691;
603.9000;1.2707;0.4505;
604.2000;1.2633;0.4365;
604.5000;1.2527;0.4108;
604.8000;1.2454;0.3991;
605.1000;1.2348;0.3875;
605.4000;1.2275;0.3875;
605.7000;1.2177;0.3758;
606.0000;1.2112;0.3711;
606.3000;1.2055;0.3688;
606.6000;1.1982;0.3641;
606.9000;1.1901;0.3524;
607.2000;1.1787;0.3408;
607.5000;1.1746;0.3454;
607.8000;1.1689;0.3361;
608.1000;1.1616;0.3338;
608.4000;1.1559;0.3314;
608.7000;1.1518;0.3221;
609.0000;1.1445;0.3198;
609.3000;1.1420;0.3174;
609.6000;1.1331;0.3104;
609.9000;1.1274;0.3081;
610.2000;1.1233;0.3034;
610.5000;1.1160;0.2988;
610.8000;1.1111;0.3034;
611.1000;1.1054;0.2918;
611.4000;1.1005;0.2778;
611.7000;1.0973;0.2661;
612.0000;1.0867;0.2544;
612.3000;1.0859;0.2614;
612.6000;1.0810;0.2567;
612.9000;1.0761;0.2567;
613.2000;1.0704;0.2544;
613.5000;1.0647;0.2521;
613.8000;1.0639;0.2567;
614.1000;1.0598;0.2451;
614.4000;1.0574;0.2427;
614.7000;1.0435;0.2194;
615.0000;1.0435;0.2334;
615.3000;1.0427;0.2451;
615.6000;1.0379;0.2404;
615.9000;1.0322;0.2311;
616.2000;1.0289;0.2334;
616.5000;1.0265;0.2311;
616.8000;1.0216;0.2311;
617.1000;1.0199;0.2357;
617.4000;1.0167;0.2404;
617.7000;1.0061;0.2217;
618.0000;1.0069;0.2194;
618.3000;1.0045;0.2287;
618.6000;0.9996;0.2287;
618.9000;0.9955;0.2217;
619.2000;0.9931;0.2147;
619.5000;0.9915;0.2147;
619.8000;0.9849;0.2031;
620.1000;0.9801;0.1914;
620.4000;0.9809;0.2007;
620.7000;0.9784;0.2054;
621.0000;0.9744;0.1984;
621.3000;0.9711;0.1984;
621.6000;0.9687;0.1891;
621.9000;0.9662;0.1844;
622.2000;0.9630;0.1867;
622.5000;0.9630;0.1821;
622.8000;0.9532;0.1564;
623.1000;0.9573;0.1751;
623.4000;0.9491;0.1587;
623.7000;0.9467;0.1634;
624.0000;0.9434;0.1634;
624.3000;0.9434;0.1704;
624.6000;0.9394;0.1681;
624.9000;0.9361;0.1727;
625.2000;0.9320;0.1681;
625.5000;0.9312;0.1704;
625.8000;0.9304;0.1727;
626.1000;0.9255;0.1704;
626.4000;0.9255;0.1774;
626.7000;0.9214;0.1821;
627.0000;0.9182;0.1821;
627.3000;0.9182;0.1797;
627.6000;0.9133;0.1704;
627.9000;0.9133;0.1751;
628.2000;0.9125;0.1797;
628.5000;0.9092;0.1797;
628.8000;0.9044;0.1751;
629.1000;0.9044;0.1751;
629.4000;0.9011;0.1751;
629.7000;0.9003;0.1751;
630.0000;0.8946;0.1704;
630.3000;0.8889;0.1587;
630.6000;0.8921;0.1657;
630.9000;0.8921;0.1610;
631.2000;0.8889;0.1540;
631.5000;0.8881;0.1470;
631.8000;0.8881;0.1424;
632.1000;0.8889;0.1470;
632.4000;0.8840;0.1447;
632.7000;0.8824;0.1470;
633.0000;0.8799;0.1447;
633.3000;0.8783;0.1540;
633.6000;0.8767;0.1494;
633.9000;0.8751;0.1564;
634.2000;0.8734;0.1424;
634.5000;0.8710;0.1260;
634.8000;0.8718;0.1330;
635.1000;0.8694;0.1330;
635.4000;0.8710;0.1447;
635.7000;0.8620;0.1400;
636.0000;0.8645;0.1424;
636.3000;0.8612;0.1447;
636.6000;0.8604;0.1400;
636.9000;0.8588;0.1494;
637.2000;0.8580;0.1447;
637.5000;0.8555;0.1447;
637.8000;0.8547;0.1447;
638.1000;0.8531;0.1470;
638.4000;0.8523;0.1447;
638.7000;0.8498;0.1354;
639.0000;0.8490;0.1400;
639.3000;0.8482;0.1470;
639.6000;0.8457;0.1470;
639.9000;0.8466;0.1564;
640.2000;0.8433;0.1494;
640.5000;0.8409;0.1447;
640.8000;0.8417;0.1447;
641.1000;0.8400;0.1400;
641.4000;0.8360;0.1400;
641.7000;0.8295;0.1284;
642.0000;0.8384;0.1494;
642.3000;0.8352;0.1470;
642.6000;0.8352;0.1424;
642.9000;0.8319;0.1424;
643.2000;0.8335;0.1517;
643.5000;0.8311;0.1540;
643.8000;0.8335;0.1587;
644.1000;0.8287;0.1540;
644.4000;0.8278;0.1540;
644.7000;0.8254;0.1447;
645.0000;0.8254;0.1400;
645.3000;0.8221;0.1354;
645.6000;0.8230;0.1330;
645.9000;0.8221;0.1260;
646.2000;0.8197;0.1307;
646.5000;0.8197;0.1307;
646.8000;0.8173;0.1354;
647.1000;0.8164;0.1330;
647.4000;0.8173;0.1354;
647.7000;0.8164;0.1330;
648.0000;0.8148;0.1354;
648.3000;0.8132;0.1330;
648.6000;0.8132;0.1284;
648.9000;0.8116;0.1354;
649.2000;0.8116;0.1424;
649.5000;0.8083;0.1400;
649.8000;0.8083;0.1400;
650.1000;0.8034;0.1354;
650.4000;0.8075;0.1447;
650.7000;0.8034;0.1400;
651.0000;0.8018;0.1424;
651.3000;0.8059;0.1517;
651.6000;0.8026;0.1424;
651.9000;0.7985;0.1284;
652.2000;0.7928;0.1050;
652.5000;0.8002;0.1237;
652.8000;0.8002;0.1330;
653.1000;0.7977;0.1260;
653.4000;0.7969;0.1284;
653.7000;0.7953;0.1330;
654.0000;0.7945;0.1354;
654.3000;0.7969;0.1400;
654.6000;0.7953;0.1400;
654.9000;0.7920;0.1400;
655.2000;0.7928;0.1354;
655.5000;0.7928;0.1354;
655.8000;0.7904;0.1260;
656.1000;0.7888;0.1260;
656.4000;0.7888;0.1307;
656.7000;0.7863;0.1237;
657.0000;0.7880;0.1237;
657.3000;0.7839;0.1190;
657.6000;0.7831;0.1260;
657.9000;0.7847;0.1260;
658.2000;0.7839;0.1354;
658.5000;0.7823;0.1377;
658.8000;0.7814;0.1377;
659.1000;0.7839;0.1400;
659.4000;0.7831;0.1424;
659.7000;0.7806;0.1377;
660.0000;0.7790;0.1400;
660.3000;0.7782;0.1330;
660.6000;0.7782;0.1260;
660.9000;0.7717;0.1050;
661.2000;0.7757;0.1167;
661.5000;0.7766;0.1167;
661.8000;0.7749;0.1144;
662.1000;0.7741;0.1144;
662.4000;0.7749;0.1190;
662.7000;0.7733;0.1307;
663.0000;0.7733;0.1330;
663.3000;0.7684;0.1167;
663.6000;0.7717;0.1237;
663.9000;0.7709;0.1307;
664.2000;0.7692;0.1260;
664.5000;0.7692;0.1284;
664.8000;0.7684;0.1284;
665.1000;0.7660;0.1167;
665.4000;0.7684;0.1307;
665.7000;0.7741;0.1330;
666.0000;0.7676;0.1144;
666.3000;0.7660;0.1097;
666.6000;0.7643;0.1050;
666.9000;0.7652;0.1097;
667.2000;0.7643;0.1167;
667.5000;0.7635;0.1214;
667.8000;0.7643;0.1144;
668.1000;0.7635;0.1144;
668.4000;0.7643;0.1190;
668.7000;0.7611;0.1167;
669.0000;0.7611;0.1167;
669.3000;0.7611;0.1097;
669.6000;0.7578;0.0957;
669.9000;0.7603;0.1097;
670.2000;0.7603;0.1167;
670.5000;0.7611;0.1214;
670.8000;0.7554;0.1097;
671.1000;0.7578;0.1144;
671.4000;0.7554;0.1050;
671.7000;0.7570;0.1144;
672.0000;0.7570;0.1190;
672.3000;0.7538;0.1167;
672.6000;0.7554;0.1307;
672.9000;0.7570;0.1284;
673.2000;0.7554;0.1214;
673.5000;0.7521;0.1190;
673.8000;0.7505;0.1214;
674.1000;0.7530;0.1144;
674.4000;0.7538;0.1120;
674.7000;0.7530;0.1144;
675.0000;0.7578;0.1307;
675.3000;0.7481;0.1027;
675.6000;0.7489;0.1120;
675.9000;0.7513;0.1214;
676.2000;0.7570;0.1424;
676.5000;0.7489;0.1190;
676.8000;0.7497;0.1190;
677.1000;0.7473;0.1167;
677.4000;0.7481;0.1214;
677.7000;0.7456;0.1167;
678.0000;0.7456;0.1260;
678.3000;0.7375;0.1050;
678.6000;0.7440;0.1167;
678.9000;0.7448;0.1190;
679.2000;0.7440;0.1237;
679.5000;0.7456;0.1260;
679.8000;0.7407;0.1190;
680.1000;0.7424;0.1307;
680.4000;0.7432;0.1307;
680.7000;0.7432;0.1237;
681.0000;0.7407;0.1237;
681.3000;0.7416;0.1214;
681.6000;0.7416;0.1120;
681.9000;0.7399;0.1074;
682.2000;0.7383;0.1050;
682.5000;0.7416;0.1097;
682.8000;0.7375;0.1050;
683.1000;0.7440;0.1260;
683.4000;0.7375;0.1027;
683.7000;0.7391;0.1050;
684.0000;0.7375;0.0934;
684.3000;0.7359;0.0864;
684.6000;0.7350;0.0864;
684.9000;0.7367;0.0817;
685.2000;0.7375;0.0747;
685.5000;0.7367;0.0677;
685.8000;0.7367;0.0700;
686.1000;0.7318;0.0700;
686.4000;0.7359;0.0957;
686.7000;0.7342;0.0910;
687.0000;0.7310;0.0887;
687.3000;0.7375;0.1050;
687.6000;0.7342;0.1027;
687.9000;0.7359;0.1120;
688.2000;0.7359;0.1097;
688.5000;0.7318;0.1004;
688.8000;0.7326;0.1050;
689.1000;0.7302;0.1050;
689.4000;0.7293;0.1027;
689.7000;0.7359;0.1120;
690.0000;0.7310;0.0957;
690.3000;0.7310;0.1004;
690.6000;0.7302;0.0934;
690.9000;0.7302;0.0957;
691.2000;0.7302;0.1050;
691.5000;0.7293;0.1050;
691.8000;0.7342;0.1144;
692.1000;0.7310;0.1004;
692.4000;0.7245;0.0724;
692.7000;0.7277;0.0747;
693.0000;0.7293;0.0794;
693.3000;0.7269;0.0700;
693.6000;0.7253;0.0700;
693.9000;0.7236;0.0700;
694.2000;0.7253;0.0747;
694.5000;0.7310;0.0910;
694.8000;0.7236;0.0654;
695.1000;0.7293;0.0770;
695.4000;0.7326;0.0840;
695.7000;0.7277;0.0724;
696.0000;0.7228;0.0607;
696.3000;0.7253;0.0584;
696.6000;0.7245;0.0654;
696.9000;0.7220;0.0654;
697.2000;0.7261;0.0840;
697.5000;0.7228;0.0794;
697.8000;0.7220;0.0840;
698.1000;0.7196;0.0840;
698.4000;0.7196;0.0910;
698.7000;0.7212;0.0864;
699.0000;0.7220;0.0934;
699.3000;0.7196;0.0910;
699.6000;0.7204;0.0887;
699.9000;0.7179;0.0934;
700.2000;0.7204;0.1004;
700.5000;0.7179;0.0934;
700.8000;0.7171;0.0910;
701.1000;0.7179;0.0957;
701.4000;0.7212;0.1097;
701.7000;0.7171;0.1120;
702.0000;0.7171;0.1167;
702.3000;0.7147;0.1167;
702.6000;0.7171;0.1284;
702.9000;0.7212;0.1330;
703.2000;0.7171;0.1167;
703.5000;0.7171;0.1144;
703.8000;0.7171;0.1097;
704.1000;0.7163;0.1190;
704.4000;0.7171;0.1190;
704.7000;0.7123;0.1190;
705.0000;0.7147;0.1307;
705.3000;0.7155;0.1307;
705.6000;0.7147;0.1284;
705.9000;0.7155;0.1190;
706.2000;0.7131;0.1120;
706.5000;0.7139;0.1167;
706.8000;0.7123;0.1144;
707.1000;0.7123;0.1097;
707.4000;0.7123;0.1050;
707.7000;0.7123;0.1097;
708.0000;0.7147;0.1190;
708.3000;0.7139;0.1190;
708.6000;0.7131;0.1190;
708.9000;0.7123;0.1167;
709.2000;0.7106;0.1144;
709.5000;0.7106;0.1167;
709.8000;0.7106;0.1120;
710.1000;0.7033;0.0980;
710.4000;0.7106;0.1097;
710.7000;0.7098;0.1097;
711.0000;0.7098;0.1050;
711.3000;0.7106;0.1074;
711.6000;0.7098;0.1027;
711.9000;0.7106;0.1120;
712.2000;0.7114;0.1214;
712.5000;0.7114;0.1260;
712.8000;0.7082;0.1190;
713.1000;0.7090;0.1284;
713.4000;0.7066;0.1120;
713.7000;0.7066;0.1167;
714.0000;0.7090;0.1190;
714.3000;0.7049;0.1167;
714.6000;0.7066;0.1214;
714.9000;0.7074;0.1214;
715.2000;0.7066;0.1330;
715.5000;0.7041;0.1260;
715.8000;0.7106;0.1260;
716.1000;0.7041;0.1097;
716.4000;0.7066;0.1190;
716.7000;0.7057;0.1237;
717.0000;0.7090;0.1260;
717.3000;0.7049;0.1074;
717.6000;0.7049;0.1097;
717.9000;0.7033;0.1097;
718.2000;0.7041;0.1190;
718.5000;0.7000;0.1050;
718.8000;0.7033;0.1167;
719.1000;0.7033;0.1144;
719.4000;0.7082;0.1237;
719.7000;0.7041;0.1120;
720.0000;0.7033;0.1120;
720.3000;0.7009;0.0980;
720.6000;0.7009;0.0980;
720.9000;0.7017;0.1004;
721.2000;0.7009;0.1027;
721.5000;0.7017;0.1074;
721.8000;0.7000;0.1050;
722.1000;0.7000;0.1097;
722.4000;0.6992;0.1074;
722.7000;0.6992;0.1027;
723.0000;0.7009;0.1004;
723.3000;0.7066;0.1097;
723.6000;0.7017;0.1097;
723.9000;0.6992;0.1050;
724.2000;0.6984;0.1097;
724.5000;0.7000;0.1144;
724.8000;0.7009;0.1144;
725.1000;0.6992;0.1190;
725.4000;0.6984;0.1167;
725.7000;0.6992;0.1144;
726.0000;0.6984;0.1097;
726.3000;0.6992;0.1167;
726.6000;0.7000;0.1190;
726.9000;0.6984;0.1214;
727.2000;0.7000;0.1307;
727.5000;0.6992;0.1284;
727.8000;0.6976;0.1214;
728.1000;0.6976;0.1214;
728.4000;0.6992;0.1237;
728.7000;0.6984;0.1237;
729.0000;0.6984;0.1190;
729.3000;0.6984;0.1237;
729.6000;0.6976;0.1307;
729.9000;0.6960;0.1190;
730.2000;0.6968;0.1237;
730.5000;0.6976;0.1284;
730.8000;0.6960;0.1284;
731.1000;0.6952;0.1237;
731.4000;0.6919;0.1144;
731.7000;0.6976;0.1260;
732.0000;0.6911;0.1190;
732.3000;0.6952;0.1400;
732.6000;0.6968;0.1400;
732.9000;0.6935;0.1400;
733.2000;0.6968;0.1400;
733.5000;0.6943;0.1330;
733.8000;0.6960;0.1260;
734.1000;0.6943;0.1190;
734.4000;0.6935;0.1144;
734.7000;0.6943;0.1074;
735.0000;0.6952;0.1237;
735.3000;0.6943;0.1284;
735.6000;0.6935;0.1307;
735.9000;0.6935;0.1284;
736.2000;0.6992;0.1400;
736.5000;0.6927;0.1237;
736.8000;0.6919;0.1167;
737.1000;0.6911;0.1190;
737.4000;0.6935;0.1260;
737.7000;0.6927;0.1237;
738.0000;0.6919;0.1284;
738.3000;0.6911;0.1167;
738.6000;0.6919;0.1167;
738.9000;0.6919;0.1144;
739.2000;0.6919;0.1097;
739.5000;0.6927;0.1074;
739.8000;0.6927;0.1097;
740.1000;0.6935;0.1074;
740.4000;0.6919;0.0980;
740.7000;0.6886;0.1004;
741.0000;0.6911;0.1050;
741.3000;0.6903;0.1074;
741.6000;0.6895;0.1144;
741.9000;0.6895;0.1120;
742.2000;0.6886;0.1190;
742.5000;0.6895;0.1120;
742.8000;0.6895;0.1190;
743.1000;0.6927;0.1214;
743.4000;0.6895;0.1214;
743.7000;0.6903;0.1097;
744.0000;0.6895;0.1097;
744.3000;0.6903;0.1144;
744.6000;0.6895;0.1167;
744.9000;0.6903;0.1097;
745.2000;0.6952;0.1260;
745.5000;0.6878;0.1050;
745.8000;0.6821;0.1004;
746.1000;0.6870;0.1074;
746.4000;0.6862;0.1097;
746.7000;0.6862;0.1144;
747.0000;0.6846;0.1144;
747.3000;0.6903;0.1144;
747.6000;0.6862;0.1050;
747.9000;0.6870;0.1167;
748.2000;0.6862;0.1097;
748.5000;0.6846;0.1167;
748.8000;0.6862;0.1260;
749.1000;0.6846;0.1284;
749.4000;0.6854;0.1307;
749.7000;0.6854;0.1354;
750.0000;0.6862;0.1330;
750.3000;0.6870;0.1284;
750.6000;0.6846;0.1307;
750.9000;0.6846;0.1190;
751.2000;0.6854;0.1167;
751.5000;0.6862;0.1190;
751.8000;0.6846;0.1214;
752.1000;0.6862;0.1284;
752.4000;0.6854;0.1167;
752.7000;0.6846;0.1120;
753.0000;0.6846;0.1167;
753.3000;0.6854;0.1214;
753.6000;0.6838;0.1167;
753.9000;0.6821;0.1027;
754.2000;0.6846;0.1167;
754.5000;0.6854;0.1214;
754.8000;0.6838;0.1307;
755.1000;0.6870;0.1400;
755.4000;0.6846;0.1400;
755.7000;0.6838;0.1400;
756.0000;0.6829;0.1354;
756.3000;0.6813;0.1237;
756.6000;0.6821;0.1237;
756.9000;0.6838;0.1260;
757.2000;0.6829;0.1354;
757.5000;0.6895;0.1494;
757.8000;0.6821;0.1400;
758.1000;0.6813;0.1330;
758.4000;0.6813;0.1400;
758.7000;0.6797;0.1354;
759.0000;0.6797;0.1377;
759.3000;0.6821;0.1470;
759.6000;0.6821;0.1354;
759.9000;0.6821;0.1284;
760.2000;0.6805;0.1377;
760.5000;0.6805;0.1424;
760.8000;0.6829;0.1540;
761.1000;0.6797;0.1470;
761.4000;0.6797;0.1494;
761.7000;0.6805;0.1564;
762.0000;0.6797;0.1540;
762.3000;0.6813;0.1517;
762.6000;0.6813;0.1470;
762.9000;0.6797;0.1400;
763.2000;0.6805;0.1354;
763.5000;0.6813;0.1354;
763.8000;0.6789;0.1237;
764.1000;0.6789;0.1237;
764.4000;0.6813;0.1377;
764.7000;0.6789;0.1330;
765.0000;0.6789;0.1424;
765.3000;0.6797;0.1424;
765.6000;0.6764;0.1330;
765.9000;0.6805;0.1424;
766.2000;0.6797;0.1470;
766.5000;0.6781;0.1517;
766.8000;0.6846;0.1587;
767.1000;0.6797;0.1400;
767.4000;0.6789;0.1354;
767.7000;0.6789;0.1354;
768.0000;0.6781;0.1330;
768.3000;0.6781;0.1400;
768.6000;0.6781;0.1400;
768.9000;0.6781;0.1330;
769.2000;0.6764;0.1400;
769.5000;0.6789;0.1377;
769.8000;0.6789;0.1330;
770.1000;0.6781;0.1330;
770.4000;0.6846;0.1517;
770.7000;0.6772;0.1260;
771.0000;0.6772;0.1237;
771.3000;0.6772;0.1237;
771.6000;0.6756;0.1214;
771.9000;0.6764;0.1260;
772.2000;0.6716;0.1167;
772.5000;0.6764;0.1330;
772.8000;0.6764;0.1330;
773.1000;0.6748;0.1307;
773.4000;0.6797;0.1354;
773.7000;0.6781;0.1307;
774.0000;0.6764;0.1260;
774.3000;0.6756;0.1260;
774.6000;0.6764;0.1237;
774.9000;0.6764;0.1214;
775.2000;0.6781;0.1190;
775.5000;0.6772;0.1167;
775.8000;0.6764;0.1190;
776.1000;0.6756;0.1120;
776.4000;0.6764;0.1097;
776.7000;0.6764;0.1097;
777.0000;0.6764;0.1214;
777.3000;0.6748;0.1260;
777.6000;0.6756;0.1237;
777.9000;0.6772;0.1284;
778.2000;0.6764;0.1190;
778.5000;0.6748;0.1120;
778.8000;0.6756;0.1120;
779.1000;0.6732;0.1190;
779.4000;0.6732;0.1260;
779.7000;0.6667;0.1190;
780.0000;0.6748;0.1377;
780.3000;0.6732;0.1307;
780.6000;0.6732;0.1354;
780.9000;0.6724;0.1447;
781.2000;0.6740;0.1564;
781.5000;0.6821;0.1727;
781.8000;0.6707;0.1424;
782.1000;0.6724;0.1494;
782.4000;0.6732;0.1517;
782.7000;0.6732;0.1540;
783.0000;0.6756;0.1540;
783.3000;0.6732;0.1447;
783.6000;0.6748;0.1470;
783.9000;0.6740;0.1354;
784.2000;0.6732;0.1330;
784.5000;0.6732;0.1284;
784.8000;0.6716;0.1144;
785.1000;0.6740;0.1214;
785.4000;0.6724;0.1307;
785.7000;0.6732;0.1354;
786.0000;0.6716;0.1330;
786.3000;0.6724;0.1377;
786.6000;0.6724;0.1354;
786.9000;0.6748;0.1517;
787.2000;0.6724;0.1587;
787.5000;0.6740;0.1587;
787.8000;0.6699;0.1424;
788.1000;0.6716;0.1400;
788.4000;0.6724;0.1400;
788.7000;0.6724;0.1354;
789.0000;0.6732;0.1377;
789.3000;0.6732;0.1494;
789.6000;0.6716;0.1447;
789.9000;0.6724;0.1447;
790.2000;0.6732;0.1540;
790.5000;0.6699;0.1494;
790.8000;0.6707;0.1564;
791.1000;0.6707;0.1564;
791.4000;0.6707;0.1540;
791.7000;0.6740;0.1610;
792.0000;0.6732;0.1587;
792.3000;0.6675;0.1447;
792.6000;0.6789;0.1681;
792.9000;0.6707;0.1284;
793.2000;0.6724;0.1377;
793.5000;0.6707;0.1377;
793.8000;0.6707;0.1377;
794.1000;0.6716;0.1424;
794.4000;0.6659;0.1237;
794.7000;0.6707;0.1377;
795.0000;0.6707;0.1377;
795.3000;0.6699;0.1377;
795.6000;0.6691;0.1377;
795.9000;0.6716;0.1330;
796.2000;0.6691;0.1237;
796.5000;0.6699;0.1330;
796.8000;0.6707;0.1400;
797.1000;0.6707;0.1447;
797.4000;0.6707;0.1354;
797.7000;0.6716;0.1330;
798.0000;0.6699;0.1307;
798.3000;0.6691;0.1260;
798.6000;0.6707;0.1377;
798.9000;0.6740;0.1470;
799.2000;0.6707;0.1470;
799.5000;0.6699;0.1540;
799.8000;0.6756;0.1704;
800.1000;0.6699;0.1564;
800.4000;0.6699;0.1564;
800.7000;0.6691;0.1470;
801.0000;0.6691;0.1494;
801.3000;0.6691;0.1470;
801.6000;0.6675;0.1517;
801.9000;0.6667;0.1517;
802.2000;0.6699;0.1610;
802.5000;0.6683;0.1540;
802.8000;0.6659;0.1517;
803.1000;0.6707;0.1610;
803.4000;0.6683;0.1517;
803.7000;0.6691;0.1470;
804.0000;0.6659;0.1494;
804.3000;0.6683;0.1587;
804.6000;0.6675;0.1540;
804.9000;0.6675;0.1517;
805.2000;0.6667;0.1494;
805.5000;0.6618;0.1377;
805.8000;0.6707;0.1564;
806.1000;0.6740;0.1657;
806.4000;0.6659;0.1447;
806.7000;0.6659;0.1470;
807.0000;0.6650;0.1470;
807.3000;0.6667;0.1494;
807.6000;0.6659;0.1494;
807.9000;0.6659;0.1494;
808.2000;0.6659;0.1517;
808.5000;0.6659;0.1494;
808.8000;0.6634;0.1470;
809.1000;0.6626;0.1424;
809.4000;0.6650;0.1424;
809.7000;0.6642;0.1400;
810.0000;0.6650;0.1424;
810.3000;0.6659;0.1424;
810.6000;0.6650;0.1424;
810.9000;0.6667;0.1400;
811.2000;0.6659;0.1400;
811.5000;0.6675;0.1447;
811.8000;0.6650;0.1424;
812.1000;0.6659;0.1447;
812.4000;0.6683;0.1424;
812.7000;0.6650;0.1237;
813.0000;0.6699;0.1424;
813.3000;0.6659;0.1377;
813.6000;0.6667;0.1400;
813.9000;0.6675;0.1400;
814.2000;0.6667;0.1470;
814.5000;0.6667;0.1447;
814.8000;0.6683;0.1564;
815.1000;0.6642;0.1494;
815.4000;0.6634;0.1447;
815.7000;0.6667;0.1517;
816.0000;0.6659;0.1540;
816.3000;0.6618;0.1470;
816.6000;0.6642;0.1540;
816.9000;0.6626;0.1494;
817.2000;0.6634;0.1494;
817.5000;0.6593;0.1494;
817.8000;0.6634;0.1540;
818.1000;0.6618;0.1494;
818.4000;0.6642;0.1564;
818.7000;0.6634;0.1517;
819.0000;0.6634;0.1470;
819.3000;0.6634;0.1517;
819.6000;0.6626;0.1517;
819.9000;0.6634;0.1564;
820.2000;0.6610;0.1540;
820.5000;0.6626;0.1634;
820.8000;0.6618;0.1610;
821.1000;0.6650;0.1634;
821.4000;0.6610;0.1564;
821.7000;0.6634;0.1540;
822.0000;0.6618;0.1447;
822.3000;0.6642;0.1424;
822.6000;0.6626;0.1494;
822.9000;0.6626;0.1447;
823.2000;0.6634;0.1424;
823.5000;0.6667;0.1447;
823.8000;0.6642;0.1424;
824.1000;0.6626;0.1400;
824.4000;0.6585;0.1307;
824.7000;0.6642;0.1470;
825.0000;0.6634;0.1494;
825.3000;0.6634;0.1540;
825.6000;0.6626;0.1447;
825.9000;0.6634;0.1447;
826.2000;0.6683;0.1610;
826.5000;0.6691;0.1634;
826.8000;0.6634;0.1447;
827.1000;0.6626;0.1470;
827.4000;0.6683;0.1587;
827.7000;0.6626;0.1634;
828.0000;0.6569;0.1494;
828.3000;0.6585;0.1587;
828.6000;0.6650;0.1610;
828.9000;0.6610;0.1517;
829.2000;0.6634;0.1470;
829.5000;0.6642;0.1447;
829.8000;0.6659;0.1540;
830.1000;0.6618;0.1470;
830.4000;0.6618;0.1517;
830.7000;0.6610;0.1517;
831.0000;0.6593;0.1447;
831.3000;0.6610;0.1400;
831.6000;0.6602;0.1400;
831.9000;0.6610;0.1564;
832.2000;0.6602;0.1564;
832.5000;0.6593;0.1587;
832.8000;0.6585;0.1587;
833.1000;0.6610;0.1587;
833.4000;0.6610;0.1494;
833.7000;0.6659;0.1470;
834.0000;0.6610;0.1400;
834.3000;0.6610;0.1354;
834.6000;0.6650;0.1400;
834.9000;0.6593;0.1330;
835.2000;0.6593;0.1447;
835.5000;0.6593;0.1470;
835.8000;0.6602;0.1424;
836.1000;0.6593;0.1330;
836.4000;0.6610;0.1400;
836.7000;0.6602;0.1424;
837.0000;0.6618;0.1424;
837.3000;0.6545;0.1097;
837.6000;0.6593;0.1190;
837.9000;0.6602;0.1237;
838.2000;0.6577;0.1097;
838.5000;0.6593;0.1050;
838.8000;0.6593;0.1190;
839.1000;0.6536;0.1144;
839.4000;0.6593;0.1447;
839.7000;0.6585;0.1424;
840.0000;0.6602;0.1377;
840.3000;0.6642;0.1494;
840.6000;0.6602;0.1424;
840.9000;0.6593;0.1470;
841.2000;0.6585;0.1447;
841.5000;0.6585;0.1470;
841.8000;0.6659;0.1610;
842.1000;0.6602;0.1517;
842.4000;0.6577;0.1377;
842.7000;0.6585;0.1400;
843.0000;0.6585;0.1354;
843.3000;0.6602;0.1330;
843.6000;0.6585;0.1214;
843.9000;0.6593;0.1237;
844.2000;0.6585;0.1237;
844.5000;0.6585;0.1307;
844.8000;0.6602;0.1260;
845.1000;0.6585;0.1307;
845.4000;0.6610;0.1330;
845.7000;0.6602;0.1354;
846.0000;0.6585;0.1354;
846.3000;0.6585;0.1307;
846.6000;0.6593;0.1330;
846.9000;0.6585;0.1377;
847.2000;0.6618;0.1400;
847.5000;0.6585;0.1284;
847.8000;0.6593;0.1307;
848.1000;0.6585;0.1260;
848.4000;0.6577;0.1237;
848.7000;0.6585;0.1260;
849.0000;0.6561;0.1144;
849.3000;0.6602;0.1237;
849.6000;0.6593;0.1284;
849.9000;0.6577;0.1120;
850.2000;0.6585;0.1050;
850.5000;0.6569;0.0980;
850.8000;0.6650;0.1120;
851.1000;0.6659;0.1214;
851.4000;0.6545;0.1050;
851.7000;0.6577;0.1237;
852.0000;0.6626;0.1447;
852.3000;0.6618;0.1330;
852.6000;0.6569;0.1214;
852.9000;0.6577;0.1214;
853.2000;0.6577;0.1260;
853.5000;0.6528;0.1237;
853.8000;0.6569;0.1260;
854.1000;0.6577;0.1260;
854.4000;0.6569;0.1167;
854.7000;0.6577;0.1260;
855.0000;0.6577;0.1354;
855.3000;0.6561;0.1377;
855.6000;0.6569;0.1424;
855.9000;0.6577;0.1470;
856.2000;0.6569;0.1494;
856.5000;0.6561;0.1470;
856.8000;0.6569;0.1494;
857.1000;0.6602;0.1517;
857.4000;0.6585;0.1494;
857.7000;0.6553;0.1354;
858.0000;0.6569;0.1400;
858.3000;0.6561;0.1307;
858.6000;0.6585;0.1354;
858.9000;0.6585;0.1354;
859.2000;0.6569;0.1284;
859.5000;0.6553;0.1330;
859.8000;0.6569;0.1400;
860.1000;0.6577;0.1354;
860.4000;0.6569;0.1330;
860.7000;0.6577;0.1354;
861.0000;0.6561;0.1307;
861.3000;0.6561;0.1330;
861.6000;0.6569;0.1330;
861.9000;0.6569;0.1284;
862.2000;0.6569;0.1377;
862.5000;0.6569;0.1447;
862.8000;0.6545;0.1284;
863.1000;0.6553;0.1237;
863.4000;0.6553;0.1237;
863.7000;0.6585;0.1307;
864.0000;0.6545;0.1307;
864.3000;0.6626;0.1564;
864.6000;0.6602;0.1540;
864.9000;0.6553;0.1330;
865.2000;0.6577;0.1447;
865.5000;0.6545;0.1377;
865.8000;0.6553;0.1424;
866.1000;0.6561;0.1494;
866.4000;0.6471;0.1330;
866.7000;0.6553;0.1540;
867.0000;0.6569;0.1494;
867.3000;0.6569;0.1540;
867.6000;0.6585;0.1540;
867.9000;0.6553;0.1494;
868.2000;0.6553;0.1610;
868.5000;0.6561;0.1587;
868.8000;0.6569;0.1657;
869.1000;0.6561;0.1681;
869.4000;0.6545;0.1587;
869.7000;0.6545;0.1634;
870.0000;0.6561;0.1634;
870.3000;0.6528;0.1540;
870.6000;0.6545;0.1517;
870.9000;0.6553;0.1447;
871.2000;0.6536;0.1447;
871.5000;0.6553;0.1494;
871.8000;0.6536;0.1470;
872.1000;0.6545;0.1447;
872.4000;0.6561;0.1447;
872.7000;0.6569;0.1447;
873.0000;0.6553;0.1377;
873.3000;0.6545;0.1447;
873.6000;0.6569;0.1564;
873.9000;0.6569;0.1610;
874.2000;0.6536;0.1564;
874.5000;0.6585;0.1610;
874.8000;0.6536;0.1540;
875.1000;0.6553;0.1494;
875.4000;0.6553;0.1494;
875.7000;0.6553;0.1517;
876.0000;0.6545;0.1517;
876.3000;0.6545;0.1540;
876.6000;0.6528;0.1447;
876.9000;0.6536;0.1447;
877.2000;0.6520;0.1377;
877.5000;0.6545;0.1377;
877.8000;0.6536;0.1400;
878.1000;0.6545;0.1424;
878.4000;0.6536;0.1424;
878.7000;0.6536;0.1447;
879.0000;0.6561;0.1610;
879.3000;0.6536;0.1564;
879.6000;0.6536;0.1517;
879.9000;0.6528;0.1470;
880.2000;0.6536;0.1447;
880.5000;0.6536;0.1540;
880.8000;0.6536;0.1564;
881.1000;0.6504;0.1494;
881.4000;0.6528;0.1470;
881.7000;0.6545;0.1424;
882.0000;0.6528;0.1400;
882.3000;0.6536;0.1354;
882.6000;0.6536;0.1330;
882.9000;0.6553;0.1284;
883.2000;0.6545;0.1260;
883.5000;0.6545;0.1284;
883.8000;0.6545;0.1260;
884.1000;0.6561;0.1307;
884.4000;0.6545;0.1284;
884.7000;0.6520;0.1167;
885.0000;0.6536;0.1167;
885.3000;0.6545;0.1167;
885.6000;0.6553;0.1284;
885.9000;0.6520;0.1330;
886.2000;0.6455;0.1214;
886.5000;0.6536;0.1400;
886.8000;0.6536;0.1447;
887.1000;0.6479;0.1354;
887.4000;0.6569;0.1564;
887.7000;0.6528;0.1517;
888.0000;0.6528;0.1494;
888.3000;0.6504;0.1517;
888.6000;0.6504;0.1587;
888.9000;0.6520;0.1681;
889.2000;0.6536;0.1727;
889.5000;0.6520;0.1727;
889.8000;0.6528;0.1704;
890.1000;0.6504;0.1634;
890.4000;0.6512;0.1657;
890.7000;0.6536;0.1610;
891.0000;0.6520;0.1681;
891.3000;0.6569;0.1681;
891.6000;0.6512;0.1564;
891.9000;0.6520;0.1564;
892.2000;0.6536;0.1470;
892.5000;0.6528;0.1470;
892.8000;0.6512;0.1377;
893.1000;0.6536;0.1424;
893.4000;0.6471;0.1260;
893.7000;0.6528;0.1494;
894.0000;0.6561;0.1634;
894.3000;0.6520;0.1564;
894.6000;0.6536;0.1657;
894.9000;0.6512;0.1610;
895.2000;0.6504;0.1517;
895.5000;0.6520;0.1517;
895.8000;0.6528;0.1494;
896.1000;0.6520;0.1377;
896.4000;0.6520;0.1424;
896.7000;0.6488;0.1447;
897.0000;0.6520;0.1517;
897.3000;0.6520;0.1540;
897.6000;0.6520;0.1540;
897.9000;0.6504;0.1470;
898.2000;0.6512;0.1470;
898.5000;0.6536;0.1517;
898.8000;0.6520;0.1540;
899.1000;0.6512;0.1564;
899.4000;0.6496;0.1540;
899.7000;0.6504;0.1587;
900.0000;0.6496;0.1634;
900.3000;0.6496;0.1610;
900.6000;0.6504;0.1540;
900.9000;0.6504;0.1494;
901.2000;0.6447;0.1377;
901.5000;0.6512;0.1587;
901.8000;0.6553;0.1681;
902.1000;0.6496;0.1564;
902.4000;0.6504;0.1610;
902.7000;0.6512;0.1540;
903.0000;0.6504;0.1517;
903.3000;0.6512;0.1494;
903.6000;0.6528;0.1470;
903.9000;0.6528;0.1587;
904.2000;0.6471;0.1540;
904.5000;0.6512;0.1610;
904.8000;0.6488;0.1657;
905.1000;0.6520;0.1681;
905.4000;0.6512;0.1681;
905.7000;0.6496;0.1610;
906.0000;0.6520;0.1610;
906.3000;0.6504;0.1610;
906.6000;0.6520;0.1610;
906.9000;0.6496;0.1540;
907.2000;0.6520;0.1610;
907.5000;0.6512;0.1657;
907.8000;0.6512;0.1704;
908.1000;0.6504;0.1704;
908.4000;0.6512;0.1774;
908.7000;0.6512;0.1751;
909.0000;0.6512;0.1751;
909.3000;0.6406;0.1564;
909.6000;0.6479;0.1751;
909.9000;0.6528;0.1727;
910.2000;0.6496;0.1634;
910.5000;0.6496;0.1610;
910.8000;0.6496;0.1610;
911.1000;0.6512;0.1681;
911.4000;0.6496;0.1564;
911.7000;0.6496;0.1610;
912.0000;0.6496;0.1564;
912.3000;0.6479;0.1540;
912.6000;0.6512;0.1540;
912.9000;0.6504;0.1540;
913.2000;0.6496;0.1470;
913.5000;0.6471;0.1517;
913.8000;0.6471;0.1540;
914.1000;0.6496;0.1564;
914.4000;0.6471;0.1657;
914.7000;0.6512;0.1751;
915.0000;0.6479;0.1704;
915.3000;0.6504;0.1797;
915.6000;0.6496;0.1751;
915.9000;0.6496;0.1821;
916.2000;0.6496;0.1751;
916.5000;0.6512;0.1844;
916.8000;0.6471;0.1751;
917.1000;0.6504;0.1774;
917.4000;0.6479;0.1681;
917.7000;0.6488;0.1704;
918.0000;0.6504;0.1774;
918.3000;0.6488;0.1704;
918.6000;0.6488;0.1610;
918.9000;0.6520;0.1681;
919.2000;0.6504;0.1681;
919.5000;0.6431;0.1447;
919.8000;0.6455;0.1494;
920.1000;0.6528;0.1634;
920.4000;0.6536;0.1681;
920.7000;0.6504;0.1610;
921.0000;0.6488;0.1610;
921.3000;0.6479;0.1564;
921.6000;0.6488;0.1634;
921.9000;0.6504;0.1681;
922.2000;0.6520;0.1681;
922.5000;0.6496;0.1587;
922.8000;0.6528;0.1634;
923.1000;0.6512;0.1634;
923.4000;0.6479;0.1610;
923.7000;0.6471;0.1657;
924.0000;0.6488;0.1610;
924.3000;0.6471;0.1517;
924.6000;0.6488;0.1540;
924.9000;0.6463;0.1494;
925.2000;0.6479;0.1470;
925.5000;0.6593;0.1727;
925.8000;0.6463;0.1447;
926.1000;0.6479;0.1494;
926.4000;0.6471;0.1447;
926.7000;0.6496;0.1517;
927.0000;0.6496;0.1470;
927.3000;0.6488;0.1424;
927.6000;0.6488;0.1447;
927.9000;0.6496;0.1470;
928.2000;0.6504;0.1540;
928.5000;0.6479;0.1564;
928.8000;0.6471;0.1587;
929.1000;0.6520;0.1657;
929.4000;0.6504;0.1681;
929.7000;0.6479;0.1704;
930.0000;0.6471;0.1704;
930.3000;0.6504;0.1774;
930.6000;0.6496;0.1727;
930.9000;0.6488;0.1774;
931.2000;0.6479;0.1774;
931.5000;0.6463;0.1704;
931.8000;0.6488;0.1774;
932.1000;0.6488;0.1774;
932.4000;0.6471;0.1751;
932.7000;0.6488;0.1751;
933.0000;0.6488;0.1797;
933.3000;0.6561;0.2054;
933.6000;0.6504;0.1914;
933.9000;0.6479;0.1961;
934.2000;0.6479;0.2031;
934.5000;0.6536;0.2077;
934.8000;0.6455;0.1821;
935.1000;0.6463;0.1797;
935.4000;0.6439;0.1681;
935.7000;0.6463;0.1704;
936.0000;0.6471;0.1751;
936.3000;0.6455;0.1704;
936.6000;0.6463;0.1704;
936.9000;0.6488;0.1634;
937.2000;0.6479;0.1610;
937.5000;0.6479;0.1587;
937.8000;0.6463;0.1634;
938.1000;0.6471;0.1704;
938.4000;0.6471;0.1727;
938.7000;0.6406;0.1587;
939.0000;0.6471;0.1657;
939.3000;0.6496;0.1774;
939.6000;0.6504;0.1821;
939.9000;0.6471;0.1727;
940.2000;0.6471;0.1704;
940.5000;0.6455;0.1727;
940.8000;0.6471;0.1727;
941.1000;0.6471;0.1727;
941.4000;0.6463;0.1681;
941.7000;0.6455;0.1727;
942.0000;0.6479;0.1704;
942.3000;0.6488;0.1751;
942.6000;0.6488;0.1704;
942.9000;0.6488;0.1704;
943.2000;0.6471;0.1751;
943.5000;0.6447;0.1681;
943.8000;0.6553;0.1891;
944.1000;0.6431;0.1634;
944.4000;0.6431;0.1681;
944.7000;0.6496;0.1844;
945.0000;0.6479;0.1821;
945.3000;0.6463;0.1657;
945.6000;0.6488;0.1751;
945.9000;0.6479;0.1727;
946.2000;0.6463;0.1704;
946.5000;0.6479;0.1681;
946.8000;0.6471;0.1751;
947.1000;0.6463;0.1751;
947.4000;0.6463;0.1727;
947.7000;0.6463;0.1704;
948.0000;0.6447;0.1657;
948.3000;0.6479;0.1681;
948.6000;0.6471;0.1704;
948.9000;0.6463;0.1704;
949.2000;0.6455;0.1774;
949.5000;0.6463;0.1704;
949.8000;0.6479;0.1704;
950.1000;0.6471;0.1681;
950.4000;0.6463;0.1681;
950.7000;0.6496;0.1774;
951.0000;0.6471;0.1704;
951.3000;0.6488;0.1751;
951.6000;0.6463;0.1681;
951.9000;0.6479;0.1657;
952.2000;0.6471;0.1657;
952.5000;0.6496;0.1634;
952.8000;0.6479;0.1564;
953.1000;0.6431;0.1540;
953.4000;0.6455;0.1634;
953.7000;0.6471;0.1657;
954.0000;0.6455;0.1657;
954.3000;0.6406;0.1564;
954.6000;0.6471;0.1774;
954.9000;0.6463;0.1751;
955.2000;0.6455;0.1727;
955.5000;0.6471;0.1610;
955.8000;0.6455;0.1681;
956.1000;0.6455;0.1727;
956.4000;0.6455;0.1727;
956.7000;0.6463;0.1727;
957.0000;0.6447;0.1681;
957.3000;0.6463;0.1634;
957.6000;0.6471;0.1657;
957.9000;0.6463;0.1610;
958.2000;0.6455;0.1657;
958.5000;0.6463;0.1751;
958.8000;0.6455;0.1797;
959.1000;0.6463;0.1727;
959.4000;0.6455;0.1727;
959.7000;0.6447;0.1751;
960.0000;0.6455;0.1774;
960.3000;0.6431;0.1751;
960.6000;0.6455;0.1774;
960.9000;0.6479;0.1914;
961.2000;0.6398;0.1704;
961.5000;0.6463;0.1751;
961.8000;0.6455;0.1727;
962.1000;0.6455;0.1704;
962.4000;0.6463;0.1634;
962.7000;0.6471;0.1610;
963.0000;0.6463;0.1681;
963.3000;0.6463;0.1751;
963.6000;0.6471;0.1727;
963.9000;0.6463;0.1751;
964.2000;0.6463;0.1821;
964.5000;0.6463;0.1821;
964.8000;0.6439;0.1867;
965.1000;0.6463;0.1961;
965.4000;0.6455;0.1961;
965.7000;0.6471;0.1984;
966.0000;0.6488;0.2031;
966.3000;0.6471;0.1984;
966.6000;0.6471;0.1961;
966.9000;0.6439;0.1844;
967.2000;0.6439;0.1821;
967.5000;0.6406;0.1704;
967.8000;0.6455;0.1821;
968.1000;0.6447;0.1774;
968.4000;0.6439;0.1797;
968.7000;0.6431;0.1751;
969.0000;0.6406;0.1610;
969.3000;0.6463;0.1704;
969.6000;0.6431;0.1634;
969.9000;0.6447;0.1681;
970.2000;0.6439;0.1681;
970.5000;0.6431;0.1681;
970.8000;0.6431;0.1704;
971.1000;0.6447;0.1797;
971.4000;0.6431;0.1821;
971.7000;0.6439;0.1867;
972.0000;0.6431;0.1914;
972.3000;0.6439;0.1867;
972.6000;0.6431;0.1844;
972.9000;0.6431;0.1867;
973.2000;0.6439;0.1774;
973.5000;0.6439;0.1727;
973.8000;0.6431;0.1704;
974.1000;0.6447;0.1727;
974.4000;0.6471;0.1704;
974.7000;0.6479;0.1774;
975.0000;0.6439;0.1681;
975.3000;0.6447;0.1610;
975.6000;0.6431;0.1587;
975.9000;0.6447;0.1587;
976.2000;0.6447;0.1610;
976.5000;0.6439;0.1634;
976.8000;0.6455;0.1657;
977.1000;0.6455;0.1610;
977.4000;0.6447;0.1657;
977.7000;0.6439;0.1634;
978.0000;0.6455;0.1610;
978.3000;0.6431;0.1540;
978.6000;0.6447;0.1634;
978.9000;0.6422;0.1657;
979.2000;0.6422;0.1751;
979.5000;0.6447;0.1821;
979.8000;0.6439;0.1704;
980.1000;0.6439;0.1727;
980.4000;0.6479;0.1867;
980.7000;0.6439;0.1751;
981.0000;0.6455;0.1751;
981.3000;0.6439;0.1727;
981.6000;0.6439;0.1704;
981.9000;0.6439;0.1727;
982.2000;0.6488;0.1681;
982.5000;0.6398;0.1494;
982.8000;0.6422;0.1610;
983.1000;0.6439;0.1681;
983.4000;0.6512;0.1844;
983.7000;0.6447;0.1681;
984.0000;0.6447;0.1681;
984.3000;0.6512;0.1821;
984.6000;0.6447;0.1704;
984.9000;0.6447;0.1610;
985.2000;0.6447;0.1610;
985.5000;0.6439;0.1657;
985.8000;0.6431;0.1610;
986.1000;0.6479;0.1681;
986.4000;0.6447;0.1657;
986.7000;0.6439;0.1610;
987.0000;0.6447;0.1587;
987.3000;0.6455;0.1610;
987.6000;0.6406;0.1517;
987.9000;0.6439;0.1564;
988.2000;0.6455;0.1610;
988.5000;0.6439;0.1610;
988.8000;0.6431;0.1610;
989.1000;0.6455;0.1610;
989.4000;0.6431;0.1587;
989.7000;0.6439;0.1610;
990.0000;0.6431;0.1657;
990.3000;0.6439;0.1681;
990.6000;0.6439;0.1634;
990.9000;0.6431;0.1634;
991.2000;0.6374;0.1447;
991.5000;0.6414;0.1540;
991.8000;0.6422;0.1564;
992.1000;0.6431;0.1564;
992.4000;0.6406;0.1517;
992.7000;0.6374;0.1424;
993.0000;0.6414;0.1494;
993.3000;0.6431;0.1494;
993.6000;0.6422;0.1494;
993.9000;0.6431;0.1610;
994.2000;0.6431;0.1704;
994.5000;0.6431;0.1727;
994.8000;0.6422;0.1727;
995.1000;0.6422;0.1704;
995.4000;0.6422;0.1704;
995.7000;0.6349;0.1447;
996.0000;0.6447;0.1681;
996.3000;0.6431;0.1564;
996.6000;0.6431;0.1564;
996.9000;0.6431;0.1610;
997.2000;0.6341;0.1424;
997.5000;0.6431;0.1540;
997.8000;0.6422;0.1587;
998.1000;0.6431;0.1727;
998.4000;0.6455;0.1751;
998.7000;0.6431;0.1610;
999.0000;0.6439;0.1681;
999.3000;0.6439;0.1751;
999.6000;0.6439;0.1564;
999.9000;0.6439;0.1564;
1000.2000;0.6455;0.1587;
1000.5000;0.6431;0.1564;
1000.8000;0.6431;0.1564;
1001.1000;0.6447;0.1587;
1001.4000;0.6455;0.1634;
1001.7000;0.6414;0.1610;
1002.0000;0.6422;0.1610;
1002.3000;0.6447;0.1704;
1002.6000;0.6422;0.1564;
1002.9000;0.6431;0.1564;
1003.2000;0.6398;0.1494;
1003.5000;0.6398;0.1377;
1003.8000;0.6422;0.1400;
1004.1000;0.6422;0.1424;
1004.4000;0.6414;0.1424;
1004.7000;0.6406;0.1424;
1005.0000;0.6422;0.1517;
1005.3000;0.6414;0.1587;
1005.6000;0.6422;0.1587;
1005.9000;0.6422;0.1610;
1006.2000;0.6414;0.1517;
1006.5000;0.6406;0.1610;
1006.8000;0.6422;0.1610;
1007.1000;0.6431;0.1634;
1007.4000;0.6414;0.1657;
1007.7000;0.6422;0.1774;
1008.0000;0.6422;0.1681;
1008.3000;0.6406;0.1681;
1008.6000;0.6414;0.1704;
1008.9000;0.6422;0.1751;
1009.2000;0.6406;0.1774;
1009.5000;0.6422;0.1751;
1009.8000;0.6406;0.1704;
1010.1000;0.6422;0.1657;
1010.4000;0.6439;0.1751;
1010.7000;0.6431;0.1774;
1011.0000;0.6422;0.1751;
1011.3000;0.6431;0.1774;
1011.6000;0.6447;0.1821;
1011.9000;0.6422;0.1751;
1012.2000;0.6431;0.1751;
1012.5000;0.6431;0.1727;
1012.8000;0.6374;0.1681;
1013.1000;0.6447;0.1867;
1013.4000;0.6422;0.1914;
1013.7000;0.6382;0.1774;
1014.0000;0.6431;0.1914;
1014.3000;0.6406;0.1867;
1014.6000;0.6414;0.1867;
1014.9000;0.6406;0.1821;
1015.2000;0.6398;0.1844;
1015.5000;0.6414;0.1844;
1015.8000;0.6439;0.1891;
1016.1000;0.6349;0.1564;
1016.4000;0.6422;0.1681;
1016.7000;0.6374;0.1564;
1017.0000;0.6422;0.1727;
1017.3000;0.6414;0.1727;
1017.6000;0.6422;0.1751;
1017.9000;0.6431;0.1751;
1018.2000;0.6414;0.1867;
1018.5000;0.6406;0.1774;
1018.8000;0.6422;0.1751;
1019.1000;0.6414;0.1821;
1019.4000;0.6422;0.1821;
1019.7000;0.6357;0.1681;
1020.0000;0.6422;0.1797;
1020.3000;0.6422;0.1844;
1020.6000;0.6455;0.1774;
1020.9000;0.6365;0.1470;
1021.2000;0.6439;0.1681;
1021.5000;0.6414;0.1727;
1021.8000;0.6447;0.1727;
1022.1000;0.6431;0.1704;
1022.4000;0.6447;0.1727;
1022.7000;0.6431;0.1727;
1023.0000;0.6374;0.1587;
1023.3000;0.6422;0.1704;
1023.6000;0.6422;0.1751;
1023.9000;0.6414;0.1891;
1024.2000;0.6422;0.1937;
1024.5000;0.6520;0.2077;
1024.8000;0.6431;0.1797;
1025.1000;0.6382;0.1704;
1025.4000;0.6382;0.1727;
1025.7000;0.6414;0.1821;
1026.0000;0.6341;0.1681;
1026.3000;0.6317;0.1681;
1026.6000;0.6398;0.1751;
1026.9000;0.6406;0.1774;
1027.2000;0.6398;0.1774;
1027.5000;0.6398;0.1797;
1027.8000;0.6406;0.1867;
1028.1000;0.6398;0.1937;
1028.4000;0.6365;0.1867;
1028.7000;0.6406;0.1914;
1029.0000;0.6398;0.1891;
1029.3000;0.6374;0.1727;
1029.6000;0.6414;0.1867;
1029.9000;0.6406;0.1914;
1030.2000;0.6390;0.1844;
1030.5000;0.6422;0.1821;
1030.8000;0.6431;0.1844;
1031.1000;0.6431;0.1891;
1031.4000;0.6463;0.2007;
1031.7000;0.6406;0.1844;
1032.0000;0.6414;0.1774;
1032.3000;0.6422;0.1821;
1032.6000;0.6406;0.1751;
1032.9000;0.6398;0.1681;
1033.2000;0.6414;0.1774;
1033.5000;0.6390;0.1727;
1033.8000;0.6374;0.1704;
1034.1000;0.6390;0.1774;
1034.4000;0.6398;0.1727;
1034.7000;0.6422;0.1727;
1035.0000;0.6414;0.1681;
1035.3000;0.6431;0.1704;
1035.6000;0.6406;0.1727;
1035.9000;0.6382;0.1587;
1036.2000;0.6382;0.1470;
1036.5000;0.6479;0.1704;
1036.8000;0.6398;0.1517;
1037.1000;0.6398;0.1587;
1037.4000;0.6431;0.1564;
1037.7000;0.6414;0.1564;
1038.0000;0.6325;0.1400;
1038.3000;0.6414;0.1634;
1038.6000;0.6406;0.1587;
1038.9000;0.6406;0.1704;
1039.2000;0.6414;0.1751;
1039.5000;0.6357;0.1727;
1039.8000;0.6431;0.1937;
1040.1000;0.6398;0.1891;
1040.4000;0.6382;0.1797;
1040.7000;0.6398;0.1891;
1041.0000;0.6390;0.1891;
1041.3000;0.6390;0.1984;
1041.6000;0.6390;0.1821;
1041.9000;0.6390;0.1727;
1042.2000;0.6406;0.1774;
1042.5000;0.6406;0.1797;
1042.8000;0.6406;0.1751;
1043.1000;0.6398;0.1797;
1043.4000;0.6390;0.1797;
1043.7000;0.6374;0.1657;
1044.0000;0.6414;0.1821;
1044.3000;0.6406;0.1774;
1044.6000;0.6406;0.1727;
1044.9000;0.6406;0.1727;
1045.2000;0.6341;0.1610;
1045.5000;0.6365;0.1704;
1045.8000;0.6390;0.1844;
1046.1000;0.6406;0.1797;
1046.4000;0.6406;0.1751;
1046.7000;0.6406;0.1727;
1047.0000;0.6414;0.1657;
1047.3000;0.6398;0.1634;
1047.6000;0.6414;0.1681;
1047.9000;0.6398;0.1657;
1048.2000;0.6398;0.1681;
1048.5000;0.6406;0.1657;
1048.8000;0.6406;0.1727;
1049.1000;0.6406;0.1774;
1049.4000;0.6398;0.1774;
1049.7000;0.6398;0.1774;
1050.0000;0.6398;0.1774;
1050.3000;0.6406;0.1751;
1050.6000;0.6390;0.1774;
1050.9000;0.6382;0.1681;
1051.2000;0.6382;0.1751;
1051.5000;0.6333;0.1704;
1051.8000;0.6398;0.1751;
1052.1000;0.6398;0.1774;
1052.4000;0.6406;0.1867;
1052.7000;0.6406;0.1821;
1053.0000;0.6398;0.1797;
1053.3000;0.6406;0.1867;
1053.6000;0.6390;0.1914;
1053.9000;0.6406;0.1914;
1054.2000;0.6406;0.2031;
1054.5000;0.6414;0.2054;
1054.8000;0.6398;0.2077;
1055.1000;0.6406;0.2054;
1055.4000;0.6406;0.2077;
1055.7000;0.6365;0.1984;
1056.0000;0.6390;0.2007;
1056.3000;0.6414;0.1984;
1056.6000;0.6406;0.1937;
1056.9000;0.6406;0.1961;
1057.2000;0.6406;0.2077;
1057.5000;0.6414;0.2101;
1057.8000;0.6406;0.2031;
1058.1000;0.6382;0.1914;
1058.4000;0.6349;0.1774;
1058.7000;0.6414;0.1914;
1059.0000;0.6398;0.1891;
1059.3000;0.6414;0.1961;
1059.6000;0.6414;0.1891;
1059.9000;0.6406;0.1844;
1060.2000;0.6414;0.1821;
1060.5000;0.6422;0.1844;
1060.8000;0.6398;0.1821;
1061.1000;0.6406;0.1751;
1061.4000;0.6349;0.1657;
1061.7000;0.6398;0.1751;
1062.0000;0.6455;0.1914;
1062.3000;0.6390;0.1681;
1062.6000;0.6398;0.1657;
1062.9000;0.6390;0.1517;
1063.2000;0.6390;0.1517;
1063.5000;0.6365;0.1470;
1063.8000;0.6382;0.1587;
1064.1000;0.6390;0.1610;
1064.4000;0.6398;0.1634;
1064.7000;0.6406;0.1704;
1065.0000;0.6365;0.1494;
1065.3000;0.6398;0.1540;
1065.6000;0.6406;0.1564;
1065.9000;0.6390;0.1681;
1066.2000;0.6398;0.1681;
1066.5000;0.6382;0.1610;
1066.8000;0.6390;0.1610;
1067.1000;0.6382;0.1657;
1067.4000;0.6406;0.1681;
1067.7000;0.6431;0.1704;
1068.0000;0.6390;0.1540;
1068.3000;0.6398;0.1564;
1068.6000;0.6390;0.1540;
1068.9000;0.6398;0.1681;
1069.2000;0.6374;0.1610;
1069.5000;0.6398;0.1610;
1069.8000;0.6390;0.1587;
1070.1000;0.6398;0.1540;
1070.4000;0.6406;0.1517;
1070.7000;0.6398;0.1564;
1071.0000;0.6431;0.1587;
1071.3000;0.6406;0.1540;
1071.6000;0.6390;0.1494;
1071.9000;0.6398;0.1494;
1072.2000;0.6406;0.1587;
1072.5000;0.6382;0.1540;
1072.8000;0.6398;0.1517;
1073.1000;0.6398;0.1517;
1073.4000;0.6374;0.1470;
1073.7000;0.6398;0.1470;
1074.0000;0.6382;0.1377;
1074.3000;0.6414;0.1494;
1074.6000;0.6382;0.1540;
1074.9000;0.6390;0.1610;
1075.2000;0.6349;0.1564;
1075.5000;0.6390;0.1727;
1075.8000;0.6382;0.1774;
1076.1000;0.6374;0.1634;
1076.4000;0.6390;0.1704;
1076.7000;0.6374;0.1727;
1077.0000;0.6390;0.1774;
1077.3000;0.6374;0.1727;
1077.6000;0.6374;0.1681;
1077.9000;0.6398;0.1774;
1078.2000;0.6349;0.1751;
1078.5000;0.6390;0.1797;
1078.8000;0.6398;0.1797;
1079.1000;0.6374;0.1751;
1079.4000;0.6390;0.1751;
1079.7000;0.6325;0.1564;
1080.0000;0.6390;0.1727;
1080.3000;0.6382;0.1704;
1080.6000;0.6406;0.1704;
1080.9000;0.6390;0.1681;
1081.2000;0.6414;0.1727;
1081.5000;0.6341;0.1564;
1081.8000;0.6374;0.1681;
1082.1000;0.6390;0.1681;
1082.4000;0.6382;0.1681;
1082.7000;0.6382;0.1681;
1083.0000;0.6398;0.1751;
1083.3000;0.6398;0.1704;
1083.6000;0.6382;0.1704;
1083.9000;0.6406;0.1727;
1084.2000;0.6382;0.1681;
1084.5000;0.6374;0.1610;
1084.8000;0.6390;0.1681;
1085.1000;0.6374;0.1657;
1085.4000;0.6349;0.1727;
1085.7000;0.6390;0.1821;
1086.0000;0.6374;0.1891;
1086.3000;0.6390;0.1984;
1086.6000;0.6390;0.2007;
1086.9000;0.6382;0.1937;
1087.2000;0.6349;0.1937;
1087.5000;0.6382;0.2077;
1087.8000;0.6374;0.2054;
1088.1000;0.6390;0.2147;
1088.4000;0.6374;0.2077;
1088.7000;0.6390;0.1984;
1089.0000;0.6390;0.1937;
1089.3000;0.6398;0.1984;
1089.6000;0.6374;0.1961;
1089.9000;0.6382;0.2077;
1090.2000;0.6398;0.2101;
1090.5000;0.6374;0.2007;
1090.8000;0.6382;0.2007;
1091.1000;0.6382;0.1984;
1091.4000;0.6374;0.1961;
1091.7000;0.6390;0.2031;
1092.0000;0.6382;0.2007;
1092.3000;0.6382;0.2007;
1092.6000;0.6398;0.1984;
1092.9000;0.6382;0.1984;
1093.2000;0.6406;0.2077;
1093.5000;0.6365;0.2054;
1093.8000;0.6398;0.2077;
1094.1000;0.6341;0.1937;
1094.4000;0.6374;0.1961;
1094.7000;0.6365;0.1961;
1095.0000;0.6398;0.2007;
1095.3000;0.6390;0.1984;
1095.6000;0.6390;0.1937;
1095.9000;0.6365;0.1914;
1096.2000;0.6431;0.2007;
1096.5000;0.6382;0.1914;
1096.8000;0.6374;0.1961;
1097.1000;0.6390;0.2054;
1097.4000;0.6333;0.1844;
1097.7000;0.6374;0.1937;
1098.0000;0.6365;0.1891;
1098.3000;0.6447;0.1984;
1098.6000;0.6365;0.1681;
1098.9000;0.6365;0.1610;
1099.2000;0.6374;0.1610;
1099.5000;0.6374;0.1657;
1099.8000;0.6365;0.1727;
1100.1000;0.6374;0.1751;
1100.4000;0.6382;0.1704;
1100.7000;0.6406;0.1774;
1101.0000;0.6382;0.1657;
1101.3000;0.6382;0.1704;
1101.6000;0.6382;0.1774;
1101.9000;0.6382;0.1797;
1102.2000;0.6447;0.1937;
1102.5000;0.6365;0.1797;
1102.8000;0.6390;0.1797;
1103.1000;0.6390;0.1751;
1103.4000;0.6374;0.1704;
1103.7000;0.6382;0.1681;
1104.0000;0.6374;0.1704;
1104.3000;0.6406;0.1657;
1104.6000;0.6406;0.1797;
1104.9000;0.6390;0.1727;
1105.2000;0.6357;0.1774;
1105.5000;0.6365;0.1797;
1105.8000;0.6382;0.1774;
1106.1000;0.6374;0.1751;
1106.4000;0.6382;0.1867;
1106.7000;0.6382;0.1914;
1107.0000;0.6406;0.1961;
1107.3000;0.6374;0.1821;
1107.6000;0.6382;0.1821;
1107.9000;0.6390;0.1821;
1108.2000;0.6382;0.1867;
1108.5000;0.6365;0.1937;
1108.8000;0.6374;0.1937;
1109.1000;0.6382;0.1984;
1109.4000;0.6398;0.2031;
1109.7000;0.6374;0.1961;
1110.0000;0.6471;0.2124;
1110.3000;0.6382;0.1891;
1110.6000;0.6349;0.1891;
1110.9000;0.6382;0.1891;
1111.2000;0.6357;0.1844;
1111.5000;0.6374;0.1821;
1111.8000;0.6382;0.1821;
1112.1000;0.6365;0.1821;
1112.4000;0.6365;0.1891;
1112.7000;0.6398;0.1821;
1113.0000;0.6374;0.1774;
1113.3000;0.6357;0.1797;
1113.6000;0.6374;0.1797;
1113.9000;0.6374;0.1727;
1114.2000;0.6390;0.1797;
1114.5000;0.6390;0.1797;
1114.8000;0.6365;0.1774;
1115.1000;0.6365;0.1821;
1115.4000;0.6365;0.1774;
1115.7000;0.6390;0.1844;
1116.0000;0.6374;0.1774;
1116.3000;0.6398;0.1797;
1116.6000;0.6365;0.1821;
1116.9000;0.6374;0.1844;
1117.2000;0.6365;0.1844;
1117.5000;0.6382;0.1867;
1117.8000;0.6374;0.1891;
1118.1000;0.6390;0.1914;
1118.4000;0.6374;0.1844;
1118.7000;0.6382;0.1774;
1119.0000;0.6365;0.1751;
1119.3000;0.6374;0.1821;
1119.6000;0.6341;0.1844;
1119.9000;0.6365;0.1984;
1120.2000;0.6374;0.2077;
1120.5000;0.6349;0.2031;
1120.8000;0.6365;0.2031;
1121.1000;0.6365;0.1937;
1121.4000;0.6325;0.1797;
1121.7000;0.6341;0.1821;
1122.0000;0.6365;0.1774;
1122.3000;0.6374;0.1844;
1122.6000;0.6365;0.1821;
1122.9000;0.6365;0.1891;
1123.2000;0.6365;0.1937;
1123.5000;0.6349;0.1844;
1123.8000;0.6333;0.1821;
1124.1000;0.6365;0.1914;
1124.4000;0.6357;0.1937;
1124.7000;0.6357;0.1984;
1125.0000;0.6374;0.1984;
1125.3000;0.6357;0.1984;
1125.6000;0.6357;0.1961;
1125.9000;0.6357;0.2031;
1126.2000;0.6374;0.2031;
1126.5000;0.6357;0.1961;
1126.8000;0.6390;0.2054;
1127.1000;0.6374;0.2031;
1127.4000;0.6390;0.2101;
1127.7000;0.6374;0.2101;
1128.0000;0.6390;0.2077;
1128.3000;0.6382;0.2007;
1128.6000;0.6390;0.1961;
1128.9000;0.6365;0.1961;
1129.2000;0.6374;0.1984;
1129.5000;0.6365;0.2007;
1129.8000;0.6382;0.2031;
1130.1000;0.6414;0.2077;
1130.4000;0.6374;0.1937;
1130.7000;0.6365;0.1961;
1131.0000;0.6357;0.1937;
1131.3000;0.6382;0.1984;
1131.6000;0.6357;0.1961;
1131.9000;0.6365;0.1961;
1132.2000;0.6398;0.2147;
1132.5000;0.6382;0.2054;
1132.8000;0.6341;0.2031;
1133.1000;0.6357;0.2077;
1133.4000;0.6365;0.2077;
1133.7000;0.6365;0.2124;
1134.0000;0.6374;0.2054;
1134.3000;0.6365;0.1984;
1134.6000;0.6357;0.2077;
1134.9000;0.6365;0.2054;
1135.2000;0.6374;0.2054;
1135.5000;0.6374;0.2031;
1135.8000;0.6374;0.2077;
1136.1000;0.6365;0.1984;
1136.4000;0.6365;0.2007;
1136.7000;0.6390;0.2124;
1137.0000;0.6382;0.1984;
1137.3000;0.6365;0.1937;
1137.6000;0.6357;0.2007;
1137.9000;0.6365;0.2077;
1138.2000;0.6374;0.2054;
1138.5000;0.6365;0.2031;
1138.8000;0.6374;0.2007;
1139.1000;0.6414;0.2124;
1139.4000;0.6349;0.2031;
1139.7000;0.6382;0.2007;
1140.0000;0.6357;0.2007;
1140.3000;0.6390;0.2171;
1140.6000;0.6365;0.2124;
1140.9000;0.6422;0.2264;
1141.2000;0.6390;0.2217;
1141.5000;0.6357;0.2077;
1141.8000;0.6390;0.2101;
1142.1000;0.6357;0.2007;
1142.4000;0.6382;0.1984;
1142.7000;0.6382;0.1914;
1143.0000;0.6382;0.1867;
1143.3000;0.6406;0.1961;
1143.6000;0.6365;0.1891;
1143.9000;0.6374;0.1937;
1144.2000;0.6341;0.1961;
1144.5000;0.6357;0.2147;
1144.8000;0.6349;0.2147;
1145.1000;0.6349;0.2147;
1145.4000;0.6365;0.2124;
1145.7000;0.6341;0.2031;
1146.0000;0.6349;0.2031;
1146.3000;0.6349;0.1961;
1146.6000;0.6284;0.1774;
1146.9000;0.6349;0.1961;
1147.2000;0.6357;0.2031;
1147.5000;0.6357;0.2031;
1147.8000;0.6374;0.2101;
1148.1000;0.6357;0.2101;
1148.4000;0.6309;0.1937;
1148.7000;0.6292;0.1891;
1149.0000;0.6374;0.2007;
1149.3000;0.6398;0.2031;
1149.6000;0.6365;0.1914;
1149.9000;0.6382;0.1961;
1150.2000;0.6382;0.1984;
1150.5000;0.6382;0.1961;
1150.8000;0.6374;0.2031;
1151.1000;0.6374;0.2054;
1151.4000;0.6357;0.1961;
1151.7000;0.6349;0.1937;
1152.0000;0.6309;0.1681;
1152.3000;0.6349;0.1821;
1152.6000;0.6357;0.1844;
1152.9000;0.6365;0.1891;
1153.2000;0.6349;0.1984;
1153.5000;0.6357;0.1984;
1153.8000;0.6333;0.1984;
1154.1000;0.6398;0.2101;
1154.4000;0.6365;0.2031;
1154.7000;0.6357;0.2007;
1155.0000;0.6357;0.2077;
1155.3000;0.6357;0.2031;
1155.6000;0.6374;0.1984;
1155.9000;0.6333;0.1961;
1156.2000;0.6333;0.1961;
1156.5000;0.6341;0.1891;
1156.8000;0.6365;0.1937;
1157.1000;0.6365;0.1984;
1157.4000;0.6341;0.1984;
1157.7000;0.6292;0.1821;
1158.0000;0.6357;0.2077;
1158.3000;0.6357;0.2124;
1158.6000;0.6357;0.2077;
1158.9000;0.6349;0.1984;
1159.2000;0.6341;0.1961;
1159.5000;0.6374;0.1937;
1159.8000;0.6317;0.1797;
1160.1000;0.6349;0.1914;
1160.4000;0.6349;0.1914;
1160.7000;0.6382;0.2031;
1161.0000;0.6349;0.1937;
1161.3000;0.6349;0.1867;
1161.6000;0.6357;0.1821;
1161.9000;0.6349;0.1821;
1162.2000;0.6382;0.1797;
1162.5000;0.6349;0.1774;
1162.8000;0.6317;0.1681;
1163.1000;0.6349;0.1751;
1163.4000;0.6365;0.1774;
1163.7000;0.6300;0.1681;
1164.0000;0.6357;0.1867;
1164.3000;0.6414;0.1984;
1164.6000;0.6406;0.1961;
1164.9000;0.6349;0.1751;
1165.2000;0.6325;0.1751;
1165.5000;0.6333;0.1821;
1165.8000;0.6390;0.1937;
1166.1000;0.6341;0.1797;
1166.4000;0.6357;0.1821;
1166.7000;0.6365;0.1797;
1167.0000;0.6365;0.1914;
1167.3000;0.6357;0.1937;
1167.6000;0.6357;0.1914;
1167.9000;0.6349;0.1891;
1168.2000;0.6463;0.2194;
1168.5000;0.6341;0.1867;
1168.8000;0.6390;0.1961;
1169.1000;0.6349;0.1891;
1169.4000;0.6357;0.1914;
1169.7000;0.6365;0.2007;
1170.0000;0.6390;0.2031;
1170.3000;0.6349;0.1914;
1170.6000;0.6333;0.1844;
1170.9000;0.6349;0.1891;
1171.2000;0.6414;0.2007;
1171.5000;0.6447;0.2077;
1171.8000;0.6349;0.1867;
1172.1000;0.6365;0.1821;
1172.4000;0.6374;0.1844;
1172.7000;0.6357;0.1891;
1173.0000;0.6365;0.1937;
1173.3000;0.6398;0.2124;
1173.6000;0.6382;0.2031;
1173.9000;0.6357;0.2031;
1174.2000;0.6365;0.2031;
1174.5000;0.6357;0.2077;
1174.8000;0.6374;0.2054;
1175.1000;0.6398;0.2031;
1175.4000;0.6374;0.1984;
1175.7000;0.6374;0.2007;
1176.0000;0.6374;0.2101;
1176.3000;0.6374;0.2287;
1176.6000;0.6365;0.2264;
1176.9000;0.6357;0.2241;
1177.2000;0.6374;0.2241;
1177.5000;0.6357;0.2171;
1177.8000;0.6365;0.2124;
1178.1000;0.6341;0.1984;
1178.4000;0.6357;0.2077;
1178.7000;0.6365;0.2101;
1179.0000;0.6284;0.1844;
1179.3000;0.6374;0.2077;
1179.6000;0.6341;0.1984;
1179.9000;0.6349;0.1961;
1180.2000;0.6357;0.1984;
1180.5000;0.6357;0.2007;
1180.8000;0.6357;0.2101;
1181.1000;0.6365;0.2101;
1181.4000;0.6374;0.2147;
1181.7000;0.6349;0.2031;
1182.0000;0.6349;0.2031;
1182.3000;0.6349;0.2007;
1182.6000;0.6365;0.2054;
1182.9000;0.6349;0.2054;
1183.2000;0.6349;0.2031;
1183.5000;0.6349;0.1937;
1183.8000;0.6349;0.1867;
1184.1000;0.6341;0.1961;
1184.4000;0.6349;0.2031;
1184.7000;0.6341;0.2007;
1185.0000;0.6357;0.1984;
1185.3000;0.6357;0.2031;
1185.6000;0.6357;0.2054;
1185.9000;0.6349;0.2077;
1186.2000;0.6341;0.2124;
1186.5000;0.6382;0.2217;
1186.8000;0.6349;0.2124;
1187.1000;0.6349;0.2101;
1187.4000;0.6341;0.2124;
1187.7000;0.6357;0.2101;
1188.0000;0.6357;0.2054;
1188.3000;0.6349;0.2031;
1188.6000;0.6349;0.2031;
1188.9000;0.6365;0.2147;
1189.2000;0.6374;0.2147;
1189.5000;0.6357;0.2124;
1189.8000;0.6349;0.2054;
1190.1000;0.6341;0.1984;
1190.4000;0.6341;0.1937;
1190.7000;0.6357;0.2007;
1191.0000;0.6357;0.2054;
1191.3000;0.6374;0.2217;
1191.6000;0.6365;0.2171;
1191.9000;0.6357;0.2241;
1192.2000;0.6439;0.2357;
1192.5000;0.6357;0.2147;
1192.8000;0.6357;0.2124;
1193.1000;0.6357;0.2077;
1193.4000;0.6374;0.2101;
1193.7000;0.6357;0.2077;
1194.0000;0.6349;0.2054;
1194.3000;0.6422;0.2311;
1194.6000;0.6349;0.2194;
1194.9000;0.6365;0.2194;
1195.2000;0.6431;0.2287;
1195.5000;0.6349;0.2124;
1195.8000;0.6341;0.2077;
1196.1000;0.6333;0.2077;
1196.4000;0.6309;0.1984;
1196.7000;0.6365;0.2101;
1197.0000;0.6349;0.2101;
1197.3000;0.6333;0.2007;
1197.6000;0.6349;0.2007;
1197.9000;0.6357;0.2007;
1198.2000;0.6365;0.2031;
1198.5000;0.6341;0.2007;
1198.8000;0.6357;0.2077;
1199.1000;0.6349;0.2031;
1199.4000;0.6357;0.2007;
1199.7000;0.6365;0.2054;
1200.0000;0.6357;0.2007;
1200.3000;0.6374;0.2031;
1200.6000;0.6349;0.1914;
1200.9000;0.6365;0.2031;
1201.2000;0.6365;0.2077;
1201.5000;0.6333;0.2031;
1201.8000;0.6341;0.2077;
1202.1000;0.6365;0.2054;
1202.4000;0.6349;0.1984;
1202.7000;0.6333;0.1937;
1203.0000;0.6357;0.2031;
1203.3000;0.6374;0.2077;
1203.6000;0.6341;0.1937;
1203.9000;0.6357;0.1961;
1204.2000;0.6341;0.1984;
1204.5000;0.6365;0.2031;
1204.8000;0.6349;0.1961;
1205.1000;0.6333;0.1937;
1205.4000;0.6349;0.1961;
1205.7000;0.6349;0.2031;
1206.0000;0.6349;0.2124;
1206.3000;0.6333;0.2101;
1206.6000;0.6325;0.2054;
1206.9000;0.6349;0.2101;
1207.2000;0.6365;0.2147;
1207.5000;0.6341;0.1961;
1207.8000;0.6333;0.1937;
1208.1000;0.6365;0.1984;
1208.4000;0.6398;0.2101;
1208.7000;0.6349;0.2007;
1209.0000;0.6341;0.1961;
1209.3000;0.6349;0.1937;
1209.6000;0.6357;0.1961;
1209.9000;0.6292;0.1914;
1210.2000;0.6382;0.2217;
1210.5000;0.6357;0.2194;
1210.8000;0.6349;0.2264;
1211.1000;0.6349;0.2264;
1211.4000;0.6325;0.2171;
1211.7000;0.6341;0.2147;
1212.0000;0.6357;0.2124;
1212.3000;0.6325;0.2171;
1212.6000;0.6357;0.2264;
1212.9000;0.6357;0.2287;
1213.2000;0.6333;0.2217;
1213.5000;0.6349;0.2194;
1213.8000;0.6365;0.2217;
1214.1000;0.6325;0.2101;
1214.4000;0.6309;0.2054;
1214.7000;0.6365;0.2171;
1215.0000;0.6365;0.2124;
1215.3000;0.6300;0.2054;
1215.6000;0.6341;0.2101;
1215.9000;0.6422;0.2311;
1216.2000;0.6357;0.2171;
1216.5000;0.6382;0.2217;
1216.8000;0.6317;0.2007;
1217.1000;0.6341;0.2077;
1217.4000;0.6357;0.2101;
1217.7000;0.6341;0.1961;
1218.0000;0.6333;0.1914;
1218.3000;0.6333;0.1891;
1218.6000;0.6333;0.1821;
1218.9000;0.6357;0.1821;
1219.2000;0.6357;0.1821;
1219.5000;0.6341;0.1774;
1219.8000;0.6341;0.1751;
1220.1000;0.6325;0.1727;
1220.4000;0.6349;0.1821;
1220.7000;0.6268;0.1681;
1221.0000;0.6333;0.1937;
1221.3000;0.6341;0.1984;
1221.6000;0.6349;0.2007;
1221.9000;0.6317;0.1937;
1222.2000;0.6341;0.1914;
1222.5000;0.6333;0.1937;
1222.8000;0.6349;0.1961;
1223.1000;0.6365;0.1961;
1223.4000;0.6341;0.1891;
1223.7000;0.6349;0.1937;
1224.0000;0.6365;0.1914;
1224.3000;0.6357;0.1984;
1224.6000;0.6341;0.1937;
1224.9000;0.6357;0.1961;
1225.2000;0.6349;0.1961;
1225.5000;0.6341;0.2031;
1225.8000;0.6349;0.2031;
1226.1000;0.6349;0.2124;
1226.4000;0.6341;0.2147;
1226.7000;0.6365;0.2101;
1227.0000;0.6333;0.1891;
1227.3000;0.6333;0.1821;
1227.6000;0.6341;0.1774;
1227.9000;0.6341;0.1821;
1228.2000;0.6333;0.1821;
1228.5000;0.6357;0.1821;
1228.8000;0.6300;0.1704;
1229.1000;0.6317;0.1704;
1229.4000;0.6333;0.1774;
1229.7000;0.6414;0.1914;
1230.0000;0.6317;0.1844;
1230.3000;0.6341;0.1891;
1230.6000;0.6317;0.1821;
1230.9000;0.6333;0.1844;
1231.2000;0.6341;0.1937;
1231.5000;0.6341;0.1891;
1231.8000;0.6300;0.1844;
1232.1000;0.6341;0.1961;
1232.4000;0.6365;0.2007;
1232.7000;0.6349;0.2007;
1233.0000;0.6268;0.1844;
1233.3000;0.6341;0.2054;
1233.6000;0.6333;0.1984;
1233.9000;0.6341;0.1961;
1234.2000;0.6341;0.2007;
1234.5000;0.6341;0.2054;
1234.8000;0.6333;0.2077;
1235.1000;0.6349;0.2101;
1235.4000;0.6333;0.2054;
1235.7000;0.6431;0.2264;
1236.0000;0.6349;0.2031;
1236.3000;0.6349;0.2054;
1236.6000;0.6365;0.2147;
1236.9000;0.6382;0.2171;
1237.2000;0.6341;0.2054;
1237.5000;0.6309;0.2124;
1237.8000;0.6390;0.2287;
1238.1000;0.6349;0.2171;
1238.4000;0.6333;0.2124;
1238.7000;0.6309;0.2031;
1239.0000;0.6325;0.1961;
1239.3000;0.6341;0.2007;
1239.6000;0.6309;0.1914;
1239.9000;0.6341;0.1937;
1240.2000;0.6341;0.1867;
1240.5000;0.6357;0.1937;
1240.8000;0.6349;0.1914;
1241.1000;0.6349;0.1867;
1241.4000;0.6341;0.1867;
1241.7000;0.6300;0.1774;
1242.0000;0.6341;0.1797;
1242.3000;0.6341;0.1867;
1242.6000;0.6309;0.1867;
1242.9000;0.6300;0.1937;
1243.2000;0.6325;0.2031;
1243.5000;0.6317;0.1937;
1243.8000;0.6325;0.2007;
1244.1000;0.6300;0.1984;
1244.4000;0.6325;0.2007;
1244.7000;0.6333;0.2031;
1245.0000;0.6333;0.1961;
1245.3000;0.6317;0.1914;
1245.6000;0.6341;0.1914;
1245.9000;0.6349;0.1914;
1246.2000;0.6333;0.1867;
1246.5000;0.6333;0.1844;
1246.8000;0.6341;0.1774;
1247.1000;0.6365;0.1867;
1247.4000;0.6333;0.1891;
1247.7000;0.6349;0.1821;
1248.0000;0.6341;0.1751;
1248.3000;0.6349;0.1797;
1248.6000;0.6357;0.1914;
1248.9000;0.6341;0.1844;
1249.2000;0.6349;0.1867;
1249.5000;0.6349;0.1821;
1249.8000;0.6349;0.1774;
1250.1000;0.6333;0.1727;
1250.4000;0.6333;0.1774;
1250.7000;0.6365;0.1774;
1251.0000;0.6341;0.1797;
1251.3000;0.6349;0.1821;
1251.6000;0.6260;0.1751;
1251.9000;0.6357;0.2054;
1252.2000;0.6349;0.1961;
1252.5000;0.6341;0.1937;
1252.8000;0.6325;0.1844;
1253.1000;0.6341;0.1891;
1253.4000;0.6357;0.2007;
1253.7000;0.6317;0.1867;
1254.0000;0.6309;0.1844;
1254.3000;0.6325;0.1914;
1254.6000;0.6333;0.1937;
1254.9000;0.6341;0.1914;
1255.2000;0.6341;0.1914;
1255.5000;0.6317;0.1961;
1255.8000;0.6333;0.1984;
1256.1000;0.6333;0.1984;
1256.4000;0.6341;0.1937;
1256.7000;0.6333;0.1914;
1257.0000;0.6374;0.2007;
1257.3000;0.6357;0.1914;
1257.6000;0.6333;0.1844;
1257.9000;0.6341;0.1867;
1258.2000;0.6333;0.1844;
1258.5000;0.6357;0.1937;
1258.8000;0.6341;0.1891;
1259.1000;0.6333;0.1821;
1259.4000;0.6357;0.1914;
1259.7000;0.6333;0.1844;
1260.0000;0.6390;0.1961;
1260.3000;0.6341;0.1914;
1260.6000;0.6333;0.1891;
1260.9000;0.6341;0.1891;
1261.2000;0.6349;0.1821;
1261.5000;0.6333;0.1844;
1261.8000;0.6365;0.1844;
1262.1000;0.6333;0.1704;
1262.4000;0.6365;0.1797;
1262.7000;0.6349;0.1844;
1263.0000;0.6349;0.1867;
1263.3000;0.6300;0.1727;
1263.6000;0.6349;0.1704;
1263.9000;0.6333;0.1681;
1264.2000;0.6309;0.1681;
1264.5000;0.6333;0.1681;
1264.8000;0.6374;0.1867;
1265.1000;0.6341;0.1751;
1265.4000;0.6333;0.1821;
1265.7000;0.6292;0.1751;
1266.0000;0.6333;0.1844;
1266.3000;0.6333;0.1867;
1266.6000;0.6341;0.1867;
1266.9000;0.6325;0.1821;
1267.2000;0.6317;0.1774;
1267.5000;0.6333;0.1797;
1267.8000;0.6333;0.1891;
1268.1000;0.6325;0.1937;
1268.4000;0.6325;0.1914;
1268.7000;0.6333;0.1937;
1269.0000;0.6341;0.1984;
1269.3000;0.6325;0.1984;
1269.6000;0.6317;0.1961;
1269.9000;0.6333;0.1961;
1270.2000;0.6333;0.1961;
1270.5000;0.6333;0.2007;
1270.8000;0.6349;0.2007;
1271.1000;0.6333;0.1914;
1271.4000;0.6357;0.1914;
1271.7000;0.6349;0.1937;
1272.0000;0.6309;0.1867;
1272.3000;0.6333;0.1844;
1272.6000;0.6333;0.1821;
1272.9000;0.6341;0.1867;
1273.2000;0.6390;0.2007;
1273.5000;0.6300;0.1727;
1273.8000;0.6357;0.1914;
1274.1000;0.6341;0.1984;
1274.4000;0.6317;0.1984;
1274.7000;0.6325;0.2007;
1275.0000;0.6309;0.2007;
1275.3000;0.6341;0.2101;
1275.6000;0.6333;0.2101;
1275.9000;0.6309;0.2054;
1276.2000;0.6325;0.2171;
1276.5000;0.6333;0.2124;
1276.8000;0.6349;0.2124;
1277.1000;0.6309;0.2124;
1277.4000;0.6357;0.2194;
1277.7000;0.6341;0.2147;
1278.0000;0.6382;0.2194;
1278.3000;0.6349;0.2124;
1278.6000;0.6325;0.2054;
1278.9000;0.6317;0.2007;
1279.2000;0.6333;0.1961;
1279.5000;0.6292;0.1797;
1279.8000;0.6317;0.1821;
1280.1000;0.6333;0.1937;
1280.4000;0.6349;0.1984;
1280.7000;0.6325;0.1984;
1281.0000;0.6325;0.2054;
1281.3000;0.6325;0.2031;
1281.6000;0.6333;0.1937;
1281.9000;0.6325;0.1914;
1282.2000;0.6309;0.1891;
1282.5000;0.6333;0.1961;
1282.8000;0.6333;0.1961;
1283.1000;0.6341;0.1961;
1283.4000;0.6357;0.2077;
1283.7000;0.6325;0.2077;
1284.0000;0.6349;0.2147;
1284.3000;0.6325;0.2077;
1284.6000;0.6333;0.2007;
1284.9000;0.6300;0.1891;
1285.2000;0.6333;0.1914;
1285.5000;0.6341;0.1914;
1285.8000;0.6349;0.1867;
1286.1000;0.6333;0.1844;
1286.4000;0.6382;0.1961;
1286.7000;0.6292;0.1797;
1287.0000;0.6349;0.1961;
1287.3000;0.6317;0.2031;
1287.6000;0.6325;0.1984;
1287.9000;0.6341;0.1984;
1288.2000;0.6341;0.2007;
1288.5000;0.6349;0.1984;
1288.8000;0.6390;0.2077;
1289.1000;0.6325;0.1867;
1289.4000;0.6349;0.1821;
1289.7000;0.6349;0.1867;
1290.0000;0.6333;0.1774;
1290.3000;0.6317;0.1774;
1290.6000;0.6300;0.1844;
1290.9000;0.6333;0.1937;
1291.2000;0.6333;0.2007;
1291.5000;0.6317;0.2031;
1291.8000;0.6317;0.2007;
1292.1000;0.6349;0.2007;
1292.4000;0.6333;0.1984;
1292.7000;0.6317;0.1937;
1293.0000;0.6260;0.1867;
1293.3000;0.6341;0.2054;
1293.6000;0.6325;0.2007;
1293.9000;0.6309;0.1961;
1294.2000;0.6333;0.1961;
1294.5000;0.6333;0.1961;
1294.8000;0.6341;0.2007;
1295.1000;0.6333;0.1961;
1295.4000;0.6349;0.2031;
1295.7000;0.6341;0.2031;
1296.0000;0.6349;0.2147;
1296.3000;0.6333;0.2077;
1296.6000;0.6317;0.2054;
1296.9000;0.6333;0.2054;
1297.2000;0.6357;0.2101;
1297.5000;0.6317;0.2007;
1297.8000;0.6333;0.2101;
1298.1000;0.6333;0.2054;
1298.4000;0.6333;0.2054;
1298.7000;0.6317;0.1914;
1299.0000;0.6325;0.1984;
1299.3000;0.6349;0.2031;
1299.6000;0.6333;0.2007;
1299.9000;0.6333;0.1984;
1300.2000;0.6309;0.1914;
1300.5000;0.6325;0.1937;
1300.8000;0.6317;0.1961;
1301.1000;0.6325;0.2031;
1301.4000;0.6317;0.2101;
1301.7000;0.6374;0.2241;
1302.0000;0.6309;0.2077;
1302.3000;0.6341;0.2077;
1302.6000;0.6333;0.2171;
1302.9000;0.6317;0.2171;
1303.2000;0.6317;0.2124;
1303.5000;0.6365;0.2124;
1303.8000;0.6341;0.1937;
1304.1000;0.6333;0.1914;
1304.4000;0.6252;0.1821;
1304.7000;0.6341;0.2007;
1305.0000;0.6341;0.1984;
1305.3000;0.6317;0.1867;
1305.6000;0.6309;0.1891;
1305.9000;0.6325;0.1961;
1306.2000;0.6365;0.2007;
1306.5000;0.6333;0.2007;
1306.8000;0.6333;0.1937;
1307.1000;0.6349;0.2031;
1307.4000;0.6349;0.2101;
1307.7000;0.6325;0.1984;
1308.0000;0.6325;0.2031;
1308.3000;0.6349;0.2031;
1308.6000;0.6333;0.1961;
1308.9000;0.6333;0.2031;
1309.2000;0.6333;0.2007;
1309.5000;0.6333;0.1961;
1309.8000;0.6341;0.1984;
1310.1000;0.6341;0.1984;
1310.4000;0.6341;0.2054;
1310.7000;0.6349;0.2171;
1311.0000;0.6309;0.2171;
1311.3000;0.6309;0.2171;
1311.6000;0.6333;0.2147;
1311.9000;0.6268;0.1937;
1312.2000;0.6309;0.2031;
1312.5000;0.6325;0.2077;
1312.8000;0.6317;0.1961;
1313.1000;0.6317;0.2007;
1313.4000;0.6333;0.2054;
1313.7000;0.6317;0.2124;
1314.0000;0.6325;0.2124;
1314.3000;0.6317;0.2054;
1314.6000;0.6268;0.2077;
1314.9000;0.6333;0.2147;
1315.2000;0.6333;0.2124;
1315.5000;0.6333;0.2054;
1315.8000;0.6317;0.1984;
1316.1000;0.6333;0.2031;
1316.4000;0.6333;0.2007;
1316.7000;0.6333;0.1891;
1317.0000;0.6325;0.1914;
1317.3000;0.6284;0.1751;
1317.6000;0.6317;0.1797;
1317.9000;0.6325;0.1844;
1318.2000;0.6325;0.1914;
1318.5000;0.6341;0.1914;
1318.8000;0.6333;0.1961;
1319.1000;0.6341;0.2007;
1319.4000;0.6325;0.1984;
1319.7000;0.6341;0.2007;
1320.0000;0.6325;0.1961;
1320.3000;0.6325;0.1984;
1320.6000;0.6333;0.2007;
1320.9000;0.6333;0.2007;
1321.2000;0.6325;0.1937;
1321.5000;0.6325;0.1891;
1321.8000;0.6341;0.1891;
1322.1000;0.6341;0.1937;
1322.4000;0.6300;0.1914;
1322.7000;0.6333;0.1961;
1323.0000;0.6333;0.1984;
1323.3000;0.6325;0.1937;
1323.6000;0.6317;0.1937;
1323.9000;0.6317;0.1984;
1324.2000;0.6300;0.2007;
1324.5000;0.6349;0.2007;
1324.8000;0.6341;0.2031;
1325.1000;0.6325;0.2007;
1325.4000;0.6333;0.1961;
1325.7000;0.6333;0.1961;
1326.0000;0.6333;0.1984;
1326.3000;0.6325;0.2077;
1326.6000;0.6341;0.2147;
1326.9000;0.6333;0.2124;
1327.2000;0.6309;0.2147;
1327.5000;0.6382;0.2241;
1327.8000;0.6333;0.2171;
1328.1000;0.6325;0.2077;
1328.4000;0.6333;0.2101;
1328.7000;0.6325;0.2147;
1329.0000;0.6333;0.2194;
1329.3000;0.6333;0.2101;
1329.6000;0.6309;0.2077;
1329.9000;0.6333;0.2077;
1330.2000;0.6268;0.1937;
1330.5000;0.6341;0.2077;
1330.8000;0.6325;0.2077;
1331.1000;0.6317;0.2077;
1331.4000;0.6325;0.2217;
1331.7000;0.6333;0.2194;
1332.0000;0.6341;0.2124;
1332.3000;0.6341;0.2194;
1332.6000;0.6317;0.2054;
1332.9000;0.6300;0.2031;
1333.2000;0.6333;0.2101;
1333.5000;0.6341;0.2077;
1333.8000;0.6333;0.1961;
1334.1000;0.6333;0.1961;
1334.4000;0.6300;0.1867;
1334.7000;0.6325;0.1891;
1335.0000;0.6309;0.1937;
1335.3000;0.6317;0.1984;
1335.6000;0.6341;0.1937;
1335.9000;0.6333;0.2031;
1336.2000;0.6333;0.2101;
1336.5000;0.6341;0.2194;
1336.8000;0.6333;0.2264;
1337.1000;0.6341;0.2311;
1337.4000;0.6325;0.2287;
1337.7000;0.6325;0.2241;
1338.0000;0.6333;0.2171;
1338.3000;0.6333;0.2101;
1338.6000;0.6325;0.2054;
1338.9000;0.6333;0.1984;
1339.2000;0.6317;0.2054;
1339.5000;0.6325;0.2101;
1339.8000;0.6333;0.2124;
1340.1000;0.6292;0.2007;
1340.4000;0.6325;0.2054;
1340.7000;0.6300;0.2031;
1341.0000;0.6333;0.2077;
1341.3000;0.6349;0.2077;
1341.6000;0.6309;0.1984;
1341.9000;0.6317;0.2077;
1342.2000;0.6365;0.2124;
1342.5000;0.6325;0.1937;
1342.8000;0.6325;0.1937;
1343.1000;0.6292;0.1867;
1343.4000;0.6341;0.2007;
1343.7000;0.6341;0.2101;
1344.0000;0.6268;0.1984;
1344.3000;0.6325;0.2124;
1344.6000;0.6333;0.2077;
1344.9000;0.6317;0.1984;
1345.2000;0.6309;0.2147;
1345.5000;0.6309;0.2101;
1345.8000;0.6349;0.2077;
1346.1000;0.6317;0.2031;
1346.4000;0.6333;0.2077;
1346.7000;0.6333;0.2077;
1347.0000;0.6325;0.1984;
1347.3000;0.6333;0.1961;
1347.6000;0.6325;0.1984;
1347.9000;0.6333;0.1937;
1348.2000;0.6325;0.1891;
1348.5000;0.6333;0.1891;
1348.8000;0.6325;0.1891;
1349.1000;0.6317;0.1891;
1349.4000;0.6357;0.2054;
1349.7000;0.6309;0.2007;
1350.0000;0.6309;0.2031;
1350.3000;0.6260;0.1821;
1350.6000;0.6309;0.1961;
1350.9000;0.6309;0.1937;
1351.2000;0.6333;0.1961;
1351.5000;0.6284;0.1844;
1351.8000;0.6333;0.1867;
1352.1000;0.6325;0.1891;
1352.4000;0.6341;0.1984;
1352.7000;0.6317;0.2031;
1353.0000;0.6325;0.2077;
1353.3000;0.6309;0.1937;
1353.6000;0.6325;0.2007;
1353.9000;0.6341;0.2054;
1354.2000;0.6317;0.2031;
1354.5000;0.6333;0.2054;
1354.8000;0.6325;0.2007;
1355.1000;0.6325;0.2007;
1355.4000;0.6317;0.2007;
1355.7000;0.6382;0.2147;
1356.0000;0.6325;0.2031;
1356.3000;0.6325;0.2007;
1356.6000;0.6309;0.2031;
1356.9000;0.6325;0.2054;
1357.2000;0.6268;0.1937;
1357.5000;0.6349;0.2077;
1357.8000;0.6414;0.2241;
1358.1000;0.6325;0.1961;
1358.4000;0.6317;0.1937;
1358.7000;0.6333;0.1914;
1359.0000;0.6309;0.1867;
1359.3000;0.6309;0.1891;
1359.6000;0.6309;0.1914;
1359.9000;0.6325;0.1867;
1360.2000;0.6317;0.1914;
1360.5000;0.6317;0.1937;
1360.8000;0.6325;0.1961;
1361.1000;0.6309;0.1961;
1361.4000;0.6325;0.1961;
1361.7000;0.6333;0.2007;
1362.0000;0.6341;0.2007;
1362.3000;0.6317;0.1937;
1362.6000;0.6333;0.1937;
1362.9000;0.6333;0.1914;
1363.2000;0.6300;0.1797;
1363.5000;0.6309;0.1821;
1363.8000;0.6325;0.1914;
1364.1000;0.6333;0.1914;
1364.4000;0.6309;0.1844;
1364.7000;0.6333;0.1984;
1365.0000;0.6333;0.2031;
1365.3000;0.6333;0.2031;
1365.6000;0.6325;0.1984;
1365.9000;0.6333;0.1984;
1366.2000;0.6333;0.2077;
1366.5000;0.6300;0.2031;
1366.8000;0.6325;0.2054;
1367.1000;0.6309;0.2007;
1367.4000;0.6333;0.2147;
1367.7000;0.6333;0.2101;
1368.0000;0.6341;0.2147;
1368.3000;0.6325;0.2077;
1368.6000;0.6333;0.2101;
1368.9000;0.6325;0.2077;
1369.2000;0.6333;0.2031;
1369.5000;0.6333;0.2054;
1369.8000;0.6317;0.2007;
1370.1000;0.6309;0.2007;
1370.4000;0.6341;0.2077;
1370.7000;0.6341;0.2007;
1371.0000;0.6317;0.1937;
1371.3000;0.6325;0.1984;
1371.6000;0.6317;0.1961;
1371.9000;0.6309;0.1984;
1372.2000;0.6309;0.2007;
1372.5000;0.6317;0.1984;
1372.8000;0.6317;0.2031;
1373.1000;0.6349;0.2171;
1373.4000;0.6325;0.2007;
1373.7000;0.6317;0.2031;
1374.0000;0.6357;0.2171;
1374.3000;0.6349;0.2217;
1374.6000;0.6292;0.2101;
1374.9000;0.6374;0.2311;
1375.2000;0.6300;0.2101;
1375.5000;0.6309;0.2054;
1375.8000;0.6292;0.2077;
1376.1000;0.6292;0.2077;
1376.4000;0.6333;0.2124;
1376.7000;0.6333;0.2077;
1377.0000;0.6333;0.2077;
1377.3000;0.6317;0.2054;
1377.6000;0.6325;0.2171;
1377.9000;0.6357;0.2217;
1378.2000;0.6333;0.2194;
1378.5000;0.6333;0.2147;
1378.8000;0.6374;0.2147;
1379.1000;0.6349;0.2054;
1379.4000;0.6382;0.2124;
1379.7000;0.6341;0.2077;
1380.0000;0.6325;0.1937;
1380.3000;0.6365;0.2007;
1380.6000;0.6309;0.1867;
1380.9000;0.6365;0.1961;
1381.2000;0.6357;0.1961;
1381.5000;0.6309;0.1821;
1381.8000;0.6317;0.1867;
1382.1000;0.6333;0.1891;
1382.4000;0.6243;0.1727;
1382.7000;0.6284;0.1867;
1383.0000;0.6300;0.1937;
1383.3000;0.6349;0.2031;
1383.6000;0.6309;0.1937;
1383.9000;0.6309;0.1984;
1384.2000;0.6325;0.1961;
1384.5000;0.6317;0.2031;
1384.8000;0.6309;0.2101;
1385.1000;0.6333;0.2077;
1385.4000;0.6309;0.1914;
1385.7000;0.6349;0.1961;
1386.0000;0.6341;0.1891;
1386.3000;0.6317;0.1891;
1386.6000;0.6309;0.1961;
1386.9000;0.6317;0.2054;
1387.2000;0.6325;0.2054;
1387.5000;0.6309;0.2054;
1387.8000;0.6357;0.2194;
1388.1000;0.6325;0.2124;
1388.4000;0.6333;0.2171;
1388.7000;0.6341;0.2241;
1389.0000;0.6317;0.2217;
1389.3000;0.6325;0.2217;
1389.6000;0.6317;0.2194;
1389.9000;0.6333;0.2217;
1390.2000;0.6333;0.2171;
1390.5000;0.6317;0.2124;
1390.8000;0.6317;0.2101;
1391.1000;0.6317;0.2147;
1391.4000;0.6325;0.2077;
1391.7000;0.6325;0.2077;
1392.0000;0.6341;0.2124;
1392.3000;0.6317;0.2054;
1392.6000;0.6317;0.2007;
1392.9000;0.6309;0.2007;
1393.2000;0.6292;0.1984;
1393.5000;0.6325;0.2101;
1393.8000;0.6317;0.2101;
1394.1000;0.6325;0.2031;
1394.4000;0.6341;0.2171;
1394.7000;0.6317;0.2194;
1395.0000;0.6325;0.2264;
1395.3000;0.6309;0.2264;
1395.6000;0.6300;0.2264;
1395.9000;0.6309;0.2334;
1396.2000;0.6260;0.2171;
1396.5000;0.6300;0.2194;
1396.8000;0.6333;0.2124;
1397.1000;0.6317;0.2031;
1397.4000;0.6317;0.1984;
1397.7000;0.6333;0.1961;
1398.0000;0.6309;0.1891;
1398.3000;0.6276;0.1844;
1398.6000;0.6300;0.1914;
1398.9000;0.6292;0.1891;
1399.2000;0.6300;0.1961;
1399.5000;0.6317;0.2077;
1399.8000;0.6268;0.2054;
