time/ms;Fluo/V;P700 deltaI/I x10³;
-199.8000;0.2670;1.3825;
-199.5000;0.2646;1.3675;
-199.2000;0.2637;1.3575;
-198.9000;0.2654;1.3625;
-198.6000;0.2646;1.3675;
-198.3000;0.2654;1.3750;
-198.0000;0.2662;1.3825;
-197.7000;0.2637;1.3800;
-197.4000;0.2654;1.3750;
-197.1000;0.2662;1.3800;
-196.8000;0.2646;1.3750;
-196.5000;0.2654;1.3725;
-196.2000;0.2629;1.3750;
-195.9000;0.2646;1.3775;
-195.6000;0.2670;1.3775;
-195.3000;0.2646;1.3650;
-195.0000;0.2678;1.3725;
-194.7000;0.2654;1.3600;
-194.4000;0.2646;1.3600;
-194.1000;0.2678;1.3650;
-193.8000;0.2629;1.3650;
-193.5000;0.2646;1.3775;
-193.2000;0.2654;1.3750;
-192.9000;0.2646;1.3700;
-192.6000;0.2637;1.3625;
-192.3000;0.2629;1.3700;
-192.0000;0.2654;1.3725;
-191.7000;0.2629;1.3725;
-191.4000;0.2629;1.3750;
-191.1000;0.2629;1.3750;
-190.8000;0.2654;1.3800;
-190.5000;0.2662;1.3725;
-190.2000;0.2857;1.4226;
-189.9000;0.2686;1.3700;
-189.6000;0.2654;1.3550;
-189.3000;0.2670;1.3575;
-189.0000;0.2637;1.3424;
-188.7000;0.2678;1.3600;
-188.4000;0.2637;1.3600;
-188.1000;0.2548;1.3299;
-187.8000;0.2646;1.3675;
-187.5000;0.2702;1.3800;
-187.2000;0.2646;1.3675;
-186.9000;0.2637;1.3600;
-186.6000;0.2646;1.3700;
-186.3000;0.2605;1.3650;
-186.0000;0.2702;1.3950;
-185.7000;0.2637;1.3850;
-185.4000;0.2629;1.3750;
-185.1000;0.2719;1.3875;
-184.8000;0.2654;1.3600;
-184.5000;0.2637;1.3474;
-184.2000;0.2670;1.3525;
-183.9000;0.2654;1.3600;
-183.6000;0.2662;1.3700;
-183.3000;0.2629;1.3550;
-183.0000;0.2654;1.3725;
-182.7000;0.2678;1.3750;
-182.4000;0.2637;1.3675;
-182.1000;0.2670;1.3775;
-181.8000;0.2654;1.3775;
-181.5000;0.2694;1.3900;
-181.2000;0.2686;1.3875;
-180.9000;0.2711;1.3925;
-180.6000;0.2735;1.4000;
-180.3000;0.2670;1.3750;
-180.0000;0.2646;1.3750;
-179.7000;0.2735;1.4000;
-179.4000;0.2597;1.3625;
-179.1000;0.2613;1.3650;
-178.8000;0.2646;1.3675;
-178.5000;0.2564;1.3349;
-178.2000;0.2621;1.3424;
-177.9000;0.2637;1.3525;
-177.6000;0.2621;1.3575;
-177.3000;0.2613;1.3525;
-177.0000;0.2662;1.3725;
-176.7000;0.2637;1.3675;
-176.4000;0.2654;1.3800;
-176.1000;0.2654;1.3775;
-175.8000;0.2646;1.3750;
-175.5000;0.2654;1.3775;
-175.2000;0.2686;1.3775;
-174.9000;0.2702;1.3875;
-174.6000;0.2629;1.3700;
-174.3000;0.2662;1.3725;
-174.0000;0.2670;1.3750;
-173.7000;0.2613;1.3625;
-173.4000;0.2629;1.3750;
-173.1000;0.2654;1.3775;
-172.8000;0.2548;1.3424;
-172.5000;0.2637;1.3675;
-172.2000;0.2646;1.3675;
-171.9000;0.2670;1.3750;
-171.6000;0.2654;1.3850;
-171.3000;0.2621;1.3775;
-171.0000;0.2662;1.3825;
-170.7000;0.2654;1.3900;
-170.4000;0.2637;1.3850;
-170.1000;0.2670;1.3975;
-169.8000;0.2637;1.3675;
-169.5000;0.2629;1.3725;
-169.2000;0.2662;1.3925;
-168.9000;0.2646;1.3850;
-168.6000;0.2646;1.3775;
-168.3000;0.2662;1.3875;
-168.0000;0.2662;1.3800;
-167.7000;0.2637;1.3775;
-167.4000;0.2605;1.3675;
-167.1000;0.2621;1.3600;
-166.8000;0.2621;1.3575;
-166.5000;0.2662;1.3675;
-166.2000;0.2637;1.3650;
-165.9000;0.2629;1.3600;
-165.6000;0.2605;1.3550;
-165.3000;0.2637;1.3675;
-165.0000;0.2572;1.3424;
-164.7000;0.2637;1.3550;
-164.4000;0.2629;1.3625;
-164.1000;0.2646;1.3600;
-163.8000;0.2613;1.3474;
-163.5000;0.2564;1.3324;
-163.2000;0.2686;1.3825;
-162.9000;0.2637;1.3775;
-162.6000;0.2605;1.3650;
-162.3000;0.2646;1.3725;
-162.0000;0.2646;1.3775;
-161.7000;0.2662;1.3775;
-161.4000;0.2654;1.3775;
-161.1000;0.2646;1.3700;
-160.8000;0.2662;1.3725;
-160.5000;0.2646;1.3650;
-160.2000;0.2621;1.3525;
-159.9000;0.2646;1.3650;
-159.6000;0.2572;1.3449;
-159.3000;0.2597;1.3525;
-159.0000;0.2646;1.3675;
-158.7000;0.2654;1.3675;
-158.4000;0.2662;1.3675;
-158.1000;0.2637;1.3575;
-157.8000;0.2670;1.3675;
-157.5000;0.2637;1.3575;
-157.2000;0.2580;1.3424;
-156.9000;0.2629;1.3449;
-156.6000;0.2646;1.3600;
-156.3000;0.2646;1.3650;
-156.0000;0.2613;1.3625;
-155.7000;0.2646;1.3775;
-155.4000;0.2678;1.3825;
-155.1000;0.2702;1.3850;
-154.8000;0.2654;1.3775;
-154.5000;0.2637;1.3775;
-154.2000;0.2702;1.3925;
-153.9000;0.2646;1.3725;
-153.6000;0.2637;1.3650;
-153.3000;0.2605;1.3575;
-153.0000;0.2629;1.3600;
-152.7000;0.2646;1.3725;
-152.4000;0.2654;1.3675;
-152.1000;0.2727;1.3925;
-151.8000;0.2637;1.3700;
-151.5000;0.2702;1.3975;
-151.2000;0.2646;1.3700;
-150.9000;0.2654;1.3575;
-150.6000;0.2662;1.3575;
-150.3000;0.2662;1.3575;
-150.0000;0.2654;1.3550;
-149.7000;0.2654;1.3575;
-149.4000;0.2589;1.3374;
-149.1000;0.2654;1.3600;
-148.8000;0.2646;1.3625;
-148.5000;0.2629;1.3625;
-148.2000;0.2768;1.4025;
-147.9000;0.2654;1.3775;
-147.6000;0.2646;1.3725;
-147.3000;0.2662;1.3775;
-147.0000;0.2662;1.3825;
-146.7000;0.2662;1.3775;
-146.4000;0.2597;1.3650;
-146.1000;0.2686;1.3925;
-145.8000;0.2654;1.3750;
-145.5000;0.2678;1.3800;
-145.2000;0.2637;1.3725;
-144.9000;0.2637;1.3750;
-144.6000;0.2646;1.3775;
-144.3000;0.2662;1.3775;
-144.0000;0.2646;1.3700;
-143.7000;0.2646;1.3700;
-143.4000;0.2654;1.3675;
-143.1000;0.2646;1.3675;
-142.8000;0.2629;1.3625;
-142.5000;0.2719;1.3875;
-142.2000;0.2670;1.3750;
-141.9000;0.2646;1.3650;
-141.6000;0.2621;1.3575;
-141.3000;0.2646;1.3600;
-141.0000;0.2646;1.3575;
-140.7000;0.2646;1.3550;
-140.4000;0.2580;1.3349;
-140.1000;0.2621;1.3575;
-139.8000;0.2670;1.3700;
-139.5000;0.2646;1.3575;
-139.2000;0.2654;1.3600;
-138.9000;0.2613;1.3525;
-138.6000;0.2646;1.3600;
-138.3000;0.2621;1.3575;
-138.0000;0.2629;1.3499;
-137.7000;0.2654;1.3650;
-137.4000;0.2646;1.3650;
-137.1000;0.2662;1.3675;
-136.8000;0.2694;1.3725;
-136.5000;0.2686;1.3725;
-136.2000;0.2637;1.3600;
-135.9000;0.2654;1.3650;
-135.6000;0.2654;1.3700;
-135.3000;0.2637;1.3675;
-135.0000;0.2654;1.3675;
-134.7000;0.2580;1.3474;
-134.4000;0.2678;1.3775;
-134.1000;0.2646;1.3550;
-133.8000;0.2621;1.3474;
-133.5000;0.2637;1.3525;
-133.2000;0.2637;1.3525;
-132.9000;0.2654;1.3600;
-132.6000;0.2613;1.3550;
-132.3000;0.2646;1.3650;
-132.0000;0.2654;1.3675;
-131.7000;0.2670;1.3700;
-131.4000;0.2629;1.3575;
-131.1000;0.2670;1.3725;
-130.8000;0.2621;1.3525;
-130.5000;0.2621;1.3449;
-130.2000;0.2727;1.3700;
-129.9000;0.2646;1.3474;
-129.6000;0.2654;1.3575;
-129.3000;0.2646;1.3650;
-129.0000;0.2662;1.3775;
-128.7000;0.2629;1.3625;
-128.4000;0.2670;1.3675;
-128.1000;0.2605;1.3424;
-127.8000;0.2597;1.3374;
-127.5000;0.2589;1.3374;
-127.2000;0.2654;1.3525;
-126.9000;0.2637;1.3575;
-126.6000;0.2629;1.3625;
-126.3000;0.2646;1.3600;
-126.0000;0.2646;1.3550;
-125.7000;0.2629;1.3600;
-125.4000;0.2621;1.3650;
-125.1000;0.2654;1.3725;
-124.8000;0.2637;1.3675;
-124.5000;0.2678;1.3675;
-124.2000;0.2646;1.3499;
-123.9000;0.2597;1.3324;
-123.6000;0.2629;1.3499;
-123.3000;0.2629;1.3499;
-123.0000;0.2637;1.3575;
-122.7000;0.2654;1.3675;
-122.4000;0.2629;1.3600;
-122.1000;0.2580;1.3474;
-121.8000;0.2654;1.3600;
-121.5000;0.2637;1.3525;
-121.2000;0.2686;1.3650;
-120.9000;0.2654;1.3650;
-120.6000;0.2629;1.3650;
-120.3000;0.2678;1.3850;
-120.0000;0.2637;1.3700;
-119.7000;0.2654;1.3725;
-119.4000;0.2637;1.3675;
-119.1000;0.2646;1.3600;
-118.8000;0.2646;1.3550;
-118.5000;0.2702;1.3675;
-118.2000;0.2702;1.3725;
-117.9000;0.2637;1.3550;
-117.6000;0.2646;1.3600;
-117.3000;0.2621;1.3499;
-117.0000;0.2637;1.3474;
-116.7000;0.2662;1.3550;
-116.4000;0.2646;1.3424;
-116.1000;0.2507;1.3049;
-115.8000;0.2694;1.3625;
-115.5000;0.2629;1.3525;
-115.2000;0.2678;1.3650;
-114.9000;0.2580;1.3424;
-114.6000;0.2637;1.3675;
-114.3000;0.2678;1.3750;
-114.0000;0.2613;1.3525;
-113.7000;0.2621;1.3399;
-113.4000;0.2646;1.3474;
-113.1000;0.2702;1.3675;
-112.8000;0.2662;1.3550;
-112.5000;0.2678;1.3575;
-112.2000;0.2646;1.3449;
-111.9000;0.2654;1.3449;
-111.6000;0.2670;1.3424;
-111.3000;0.2662;1.3374;
-111.0000;0.2702;1.3575;
-110.7000;0.2702;1.3625;
-110.4000;0.2670;1.3600;
-110.1000;0.2605;1.3424;
-109.8000;0.2646;1.3525;
-109.5000;0.2597;1.3474;
-109.2000;0.2694;1.3700;
-108.9000;0.2654;1.3550;
-108.6000;0.2621;1.3474;
-108.3000;0.2621;1.3424;
-108.0000;0.2662;1.3499;
-107.7000;0.2637;1.3399;
-107.4000;0.2662;1.3424;
-107.1000;0.2646;1.3449;
-106.8000;0.2662;1.3525;
-106.5000;0.2605;1.3424;
-106.2000;0.2646;1.3600;
-105.9000;0.2621;1.3650;
-105.6000;0.2637;1.3675;
-105.3000;0.2637;1.3675;
-105.0000;0.2670;1.3725;
-104.7000;0.2629;1.3600;
-104.4000;0.2646;1.3650;
-104.1000;0.2654;1.3625;
-103.8000;0.2662;1.3575;
-103.5000;0.2646;1.3499;
-103.2000;0.2670;1.3525;
-102.9000;0.2662;1.3625;
-102.6000;0.2662;1.3575;
-102.3000;0.2629;1.3525;
-102.0000;0.2662;1.3625;
-101.7000;0.2613;1.3600;
-101.4000;0.2654;1.3700;
-101.1000;0.2654;1.3600;
-100.8000;0.2646;1.3550;
-100.5000;0.2646;1.3525;
-100.2000;0.2654;1.3600;
-99.9000;0.2646;1.3625;
-99.6000;0.2646;1.3675;
-99.3000;0.2678;1.3750;
-99.0000;0.2499;1.3224;
-98.7000;0.2646;1.3575;
-98.4000;0.2613;1.3474;
-98.1000;0.2637;1.3575;
-97.8000;0.2654;1.3650;
-97.5000;0.2662;1.3575;
-97.2000;0.2670;1.3625;
-96.9000;0.2637;1.3525;
-96.6000;0.2637;1.3525;
-96.3000;0.2670;1.3550;
-96.0000;0.2678;1.3525;
-95.7000;0.2629;1.3525;
-95.4000;0.2670;1.3650;
-95.1000;0.2629;1.3650;
-94.8000;0.2646;1.3775;
-94.5000;0.2629;1.3650;
-94.2000;0.2662;1.3650;
-93.9000;0.2678;1.3725;
-93.6000;0.2702;1.3825;
-93.3000;0.2629;1.3474;
-93.0000;0.2613;1.3424;
-92.7000;0.2637;1.3474;
-92.4000;0.2654;1.3499;
-92.1000;0.2662;1.3525;
-91.8000;0.2426;1.2873;
-91.5000;0.2727;1.3700;
-91.2000;0.2613;1.3449;
-90.9000;0.2654;1.3550;
-90.6000;0.2629;1.3575;
-90.3000;0.2662;1.3725;
-90.0000;0.2621;1.3625;
-89.7000;0.2711;1.3900;
-89.4000;0.2678;1.3800;
-89.1000;0.2670;1.3700;
-88.8000;0.2637;1.3625;
-88.5000;0.2637;1.3725;
-88.2000;0.2751;1.4050;
-87.9000;0.2646;1.3775;
-87.6000;0.2597;1.3550;
-87.3000;0.2686;1.3775;
-87.0000;0.2678;1.3775;
-86.7000;0.2646;1.3700;
-86.4000;0.2646;1.3775;
-86.1000;0.2629;1.3725;
-85.8000;0.2662;1.3725;
-85.5000;0.2637;1.3675;
-85.2000;0.2491;1.3299;
-84.9000;0.2621;1.3625;
-84.6000;0.2629;1.3750;
-84.3000;0.2646;1.3750;
-84.0000;0.2662;1.3750;
-83.7000;0.2670;1.3800;
-83.4000;0.2670;1.3775;
-83.1000;0.2670;1.3825;
-82.8000;0.2637;1.3725;
-82.5000;0.2621;1.3700;
-82.2000;0.2629;1.3625;
-81.9000;0.2507;1.3399;
-81.6000;0.2629;1.3650;
-81.3000;0.2662;1.3725;
-81.0000;0.2637;1.3725;
-80.7000;0.2637;1.3725;
-80.4000;0.2621;1.3700;
-80.1000;0.2637;1.3775;
-79.8000;0.2678;1.3850;
-79.5000;0.2654;1.3675;
-79.2000;0.2646;1.3575;
-78.9000;0.2654;1.3625;
-78.6000;0.2646;1.3650;
-78.3000;0.2654;1.3725;
-78.0000;0.2678;1.3775;
-77.7000;0.2662;1.3700;
-77.4000;0.2629;1.3550;
-77.1000;0.2670;1.3625;
-76.8000;0.2678;1.3625;
-76.5000;0.2678;1.3575;
-76.2000;0.2662;1.3474;
-75.9000;0.2662;1.3449;
-75.6000;0.2637;1.3424;
-75.3000;0.2662;1.3474;
-75.0000;0.2670;1.3600;
-74.7000;0.2686;1.3650;
-74.4000;0.2629;1.3449;
-74.1000;0.2678;1.3575;
-73.8000;0.2735;1.3650;
-73.5000;0.2637;1.3575;
-73.2000;0.2646;1.3550;
-72.9000;0.2629;1.3474;
-72.6000;0.2646;1.3449;
-72.3000;0.2670;1.3525;
-72.0000;0.2702;1.3650;
-71.7000;0.2629;1.3449;
-71.4000;0.2613;1.3399;
-71.1000;0.2670;1.3525;
-70.8000;0.2564;1.3124;
-70.5000;0.2629;1.3474;
-70.2000;0.2637;1.3499;
-69.9000;0.2662;1.3625;
-69.6000;0.2621;1.3449;
-69.3000;0.2621;1.3424;
-69.0000;0.2629;1.3474;
-68.7000;0.2654;1.3600;
-68.4000;0.2646;1.3650;
-68.1000;0.2654;1.3700;
-67.8000;0.2662;1.3625;
-67.5000;0.2646;1.3575;
-67.2000;0.2654;1.3650;
-66.9000;0.2605;1.3525;
-66.6000;0.2646;1.3625;
-66.3000;0.2637;1.3600;
-66.0000;0.2564;1.3374;
-65.7000;0.2670;1.3675;
-65.4000;0.2670;1.3700;
-65.1000;0.2654;1.3700;
-64.8000;0.2621;1.3650;
-64.5000;0.2654;1.3675;
-64.2000;0.2662;1.3700;
-63.9000;0.2637;1.3650;
-63.6000;0.2654;1.3675;
-63.3000;0.2654;1.3675;
-63.0000;0.2597;1.3525;
-62.7000;0.2662;1.3700;
-62.4000;0.2711;1.3825;
-62.1000;0.2654;1.3700;
-61.8000;0.2702;1.3925;
-61.5000;0.2637;1.3775;
-61.2000;0.2670;1.3975;
-60.9000;0.2654;1.3875;
-60.6000;0.2670;1.3950;
-60.3000;0.2646;1.3900;
-60.0000;0.2670;1.3900;
-59.7000;0.2654;1.3900;
-59.4000;0.2646;1.3800;
-59.1000;0.2743;1.4076;
-58.8000;0.2654;1.3750;
-58.5000;0.2637;1.3625;
-58.2000;0.2776;1.3900;
-57.9000;0.2637;1.3550;
-57.6000;0.2646;1.3550;
-57.3000;0.2637;1.3525;
-57.0000;0.2646;1.3499;
-56.7000;0.2637;1.3349;
-56.4000;0.2637;1.3249;
-56.1000;0.2637;1.3249;
-55.8000;0.2670;1.3299;
-55.5000;0.2662;1.3274;
-55.2000;0.2580;1.3099;
-54.9000;0.2678;1.3324;
-54.6000;0.2654;1.3299;
-54.3000;0.2646;1.3349;
-54.0000;0.2629;1.3324;
-53.7000;0.2678;1.3449;
-53.4000;0.2686;1.3424;
-53.1000;0.2637;1.3349;
-52.8000;0.2629;1.3324;
-52.5000;0.2637;1.3374;
-52.2000;0.2629;1.3449;
-51.9000;0.2637;1.3399;
-51.6000;0.2662;1.3424;
-51.3000;0.2637;1.3374;
-51.0000;0.2605;1.3274;
-50.7000;0.2629;1.3299;
-50.4000;0.2637;1.3374;
-50.1000;0.2670;1.3525;
-49.8000;0.2654;1.3575;
-49.5000;0.2507;1.3224;
-49.2000;0.2637;1.3700;
-48.9000;0.2646;1.3750;
-48.6000;0.2646;1.3800;
-48.3000;0.2678;1.3900;
-48.0000;0.2727;1.4076;
-47.7000;0.2662;1.3825;
-47.4000;0.2654;1.3875;
-47.1000;0.2662;1.3950;
-46.8000;0.2702;1.4050;
-46.5000;0.2613;1.3825;
-46.2000;0.2646;1.3875;
-45.9000;0.2646;1.3850;
-45.6000;0.2670;1.3925;
-45.3000;0.2662;1.3875;
-45.0000;0.2646;1.3825;
-44.7000;0.2629;1.3800;
-44.4000;0.2678;1.3950;
-44.1000;0.2670;1.3800;
-43.8000;0.2646;1.3725;
-43.5000;0.2654;1.3700;
-43.2000;0.2678;1.3675;
-42.9000;0.2662;1.3675;
-42.6000;0.2654;1.3725;
-42.3000;0.2678;1.3725;
-42.0000;0.2735;1.3875;
-41.7000;0.2646;1.3850;
-41.4000;0.2662;1.3825;
-41.1000;0.2654;1.3825;
-40.8000;0.2646;1.3775;
-40.5000;0.2662;1.3750;
-40.2000;0.2637;1.3750;
-39.9000;0.2548;1.3550;
-39.6000;0.2613;1.3750;
-39.3000;0.2646;1.3775;
-39.0000;0.2637;1.3700;
-38.7000;0.2719;1.3825;
-38.4000;0.2637;1.3650;
-38.1000;0.2654;1.3725;
-37.8000;0.2654;1.3800;
-37.5000;0.2629;1.3725;
-37.2000;0.2654;1.3800;
-36.9000;0.2654;1.3775;
-36.6000;0.2613;1.3700;
-36.3000;0.2662;1.3800;
-36.0000;0.2646;1.3750;
-35.7000;0.2580;1.3575;
-35.4000;0.2646;1.3725;
-35.1000;0.2654;1.3750;
-34.8000;0.2646;1.3650;
-34.5000;0.2646;1.3625;
-34.2000;0.2629;1.3600;
-33.9000;0.2637;1.3700;
-33.6000;0.2670;1.3750;
-33.3000;0.2719;1.4000;
-33.0000;0.2662;1.3800;
-32.7000;0.2646;1.3725;
-32.4000;0.2646;1.3650;
-32.1000;0.2646;1.3650;
-31.8000;0.2646;1.3725;
-31.5000;0.2670;1.3825;
-31.2000;0.2637;1.3825;
-30.9000;0.2678;1.3950;
-30.6000;0.2646;1.3925;
-30.3000;0.2727;1.4050;
-30.0000;0.2654;1.3750;
-29.7000;0.2646;1.3725;
-29.4000;0.2678;1.3775;
-29.1000;0.2654;1.3750;
-28.8000;0.2646;1.3750;
-28.5000;0.2637;1.3800;
-28.2000;0.2637;1.3725;
-27.9000;0.2637;1.3725;
-27.6000;0.2637;1.3700;
-27.3000;0.2629;1.3550;
-27.0000;0.2719;1.3850;
-26.7000;0.2637;1.3575;
-26.4000;0.2662;1.3600;
-26.1000;0.2629;1.3600;
-25.8000;0.2646;1.3700;
-25.5000;0.2646;1.3700;
-25.2000;0.2662;1.3750;
-24.9000;0.2678;1.3800;
-24.6000;0.2654;1.3700;
-24.3000;0.2678;1.3700;
-24.0000;0.2662;1.3625;
-23.7000;0.2662;1.3675;
-23.4000;0.2646;1.3600;
-23.1000;0.2613;1.3625;
-22.8000;0.2670;1.3875;
-22.5000;0.2654;1.3775;
-22.2000;0.2654;1.3900;
-21.9000;0.2646;1.3925;
-21.6000;0.2662;1.3950;
-21.3000;0.2662;1.3900;
-21.0000;0.2629;1.3750;
-20.7000;0.2670;1.3850;
-20.4000;0.2686;1.3800;
-20.1000;0.2670;1.3725;
-19.8000;0.2580;1.3525;
-19.5000;0.2670;1.3725;
-19.2000;0.2646;1.3650;
-18.9000;0.2678;1.3750;
-18.6000;0.2605;1.3575;
-18.3000;0.2711;1.3875;
-18.0000;0.2605;1.3550;
-17.7000;0.2776;1.4101;
-17.4000;0.2654;1.3750;
-17.1000;0.2637;1.3625;
-16.8000;0.2637;1.3550;
-16.5000;0.2646;1.3600;
-16.2000;0.2711;1.3850;
-15.9000;0.2572;1.3449;
-15.6000;0.2621;1.3575;
-15.3000;0.2662;1.3650;
-15.0000;0.2564;1.3424;
-14.7000;0.2613;1.3650;
-14.4000;0.2532;1.3449;
-14.1000;0.2727;1.4000;
-13.8000;0.2662;1.3775;
-13.5000;0.2654;1.3825;
-13.2000;0.2523;1.3399;
-12.9000;0.2629;1.3675;
-12.6000;0.2646;1.3600;
-12.3000;0.2654;1.3625;
-12.0000;0.2637;1.3499;
-11.7000;0.2589;1.3299;
-11.4000;0.2678;1.3650;
-11.1000;0.2654;1.3675;
-10.8000;0.2646;1.3675;
-10.5000;0.2654;1.3625;
-10.2000;0.2662;1.3625;
-9.9000;0.2702;1.3700;
-9.6000;0.2654;1.3575;
-9.3000;0.2646;1.3424;
-9.0000;0.2670;1.3474;
-8.7000;0.2670;1.3600;
-8.4000;0.2719;1.3825;
-8.1000;0.2654;1.3625;
-7.8000;0.2613;1.3600;
-7.5000;0.2662;1.3800;
-7.2000;0.2621;1.3625;
-6.9000;0.2637;1.3725;
-6.6000;0.2654;1.3875;
-6.3000;0.2629;1.3750;
-6.0000;0.2613;1.3775;
-5.7000;0.2654;1.3900;
-5.4000;0.2670;1.3975;
-5.1000;0.2637;1.3850;
-4.8000;0.2605;1.3725;
-4.5000;0.2646;1.3925;
-4.2000;0.2670;1.3925;
-3.9000;0.2621;1.3700;
-3.6000;0.2646;1.3750;
-3.3000;0.2621;1.3650;
-3.0000;0.2646;1.3800;
-2.7000;0.2735;1.3950;
-2.4000;0.2735;1.3950;
-2.1000;0.2629;1.3675;
-1.8000;0.2629;1.3750;
-1.5000;0.2678;1.3850;
-1.2000;0.2662;1.3850;
-0.9000;0.2646;1.3800;
-0.6000;0.2646;1.3775;
-0.3000;0.2686;1.3825;
0.0000;0.2686;1.3825;
0.3000;0.2548;1.3274;
0.6000;0.2621;1.3850;
0.9000;0.2727;1.4601;
1.2000;0.2719;1.5052;
1.5000;0.2743;1.5553;
1.8000;0.2784;1.6179;
2.1000;0.2808;1.6630;
2.4000;0.2833;1.6881;
2.7000;0.2816;1.7056;
3.0000;0.2808;1.7256;
3.3000;0.2857;1.7532;
3.6000;0.2784;1.7507;
3.9000;0.2882;1.7832;
4.2000;0.2914;1.8033;
4.5000;0.2873;1.8058;
4.8000;0.2890;1.8083;
5.1000;0.2914;1.8258;
5.4000;0.2947;1.8458;
5.7000;0.2792;1.8008;
6.0000;0.2890;1.8358;
6.3000;0.2971;1.8734;
6.6000;0.2906;1.8609;
6.9000;0.2873;1.8509;
7.2000;0.2906;1.8734;
7.5000;0.2939;1.8834;
7.8000;0.2898;1.8784;
8.1000;0.2882;1.8709;
8.4000;0.2882;1.8634;
8.7000;0.2841;1.8458;
9.0000;0.2906;1.8659;
9.3000;0.2890;1.8559;
9.6000;0.2890;1.8559;
9.9000;0.2759;1.8258;
10.2000;0.2922;1.8634;
10.5000;0.2898;1.8509;
10.8000;0.2873;1.8383;
11.1000;0.2906;1.8559;
11.4000;0.2906;1.8609;
11.7000;0.2906;1.8484;
12.0000;0.2914;1.8484;
12.3000;0.2922;1.8584;
12.6000;0.2955;1.8734;
12.9000;0.2930;1.8709;
13.2000;0.2906;1.8659;
13.5000;0.2890;1.8634;
13.8000;0.2890;1.8634;
14.1000;0.2873;1.8509;
14.4000;0.2890;1.8509;
14.7000;0.2898;1.8484;
15.0000;0.2890;1.8408;
15.3000;0.2898;1.8559;
15.6000;0.2906;1.8634;
15.9000;0.2906;1.8634;
16.2000;0.2898;1.8634;
16.5000;0.2882;1.8609;
16.8000;0.2873;1.8559;
17.1000;0.2882;1.8634;
17.4000;0.2906;1.8759;
17.7000;0.2906;1.8734;
18.0000;0.2882;1.8734;
18.3000;0.2890;1.8759;
18.6000;0.2922;1.8859;
18.9000;0.2930;1.8834;
19.2000;0.2955;1.8884;
19.5000;0.2955;1.8734;
19.8000;0.2898;1.8609;
20.1000;0.2922;1.8659;
20.4000;0.2890;1.8559;
20.7000;0.2898;1.8634;
21.0000;0.2898;1.8584;
21.3000;0.2914;1.8609;
21.6000;0.2816;1.8484;
21.9000;0.2930;1.8784;
22.2000;0.2890;1.8684;
22.5000;0.2849;1.8559;
22.8000;0.2906;1.8659;
23.1000;0.2914;1.8734;
23.4000;0.3004;1.8934;
23.7000;0.2898;1.8659;
24.0000;0.2906;1.8734;
24.3000;0.2898;1.8759;
24.6000;0.2898;1.8759;
24.9000;0.2906;1.8759;
25.2000;0.2906;1.8734;
25.5000;0.2947;1.8784;
25.8000;0.2930;1.8659;
26.1000;0.2882;1.8559;
26.4000;0.2890;1.8584;
26.7000;0.2882;1.8509;
27.0000;0.2898;1.8634;
27.3000;0.2890;1.8684;
27.6000;0.2914;1.8759;
27.9000;0.2906;1.8734;
28.2000;0.2882;1.8634;
28.5000;0.2890;1.8834;
28.8000;0.2906;1.8884;
29.1000;0.2922;1.8934;
29.4000;0.2914;1.8984;
29.7000;0.2792;1.8559;
30.0000;0.2882;1.8709;
30.3000;0.2914;1.8734;
30.6000;0.2930;1.8709;
30.9000;0.2906;1.8634;
31.2000;0.2996;1.8909;
31.5000;0.2898;1.8784;
31.8000;0.2906;1.8809;
32.1000;0.2979;1.8959;
32.4000;0.2898;1.8709;
32.7000;0.2906;1.8834;
33.0000;0.2906;1.8809;
33.3000;0.2947;1.8884;
33.6000;0.2890;1.8659;
33.9000;0.2914;1.8784;
34.2000;0.2922;1.8784;
34.5000;0.2930;1.8734;
34.8000;0.2890;1.8609;
35.1000;0.2890;1.8609;
35.4000;0.2930;1.8834;
35.7000;0.2849;1.8709;
36.0000;0.2873;1.8684;
36.3000;0.2922;1.8734;
36.6000;0.3077;1.9285;
36.9000;0.2873;1.8784;
37.2000;0.2882;1.8709;
37.5000;0.2898;1.8659;
37.8000;0.2873;1.8684;
38.1000;0.2890;1.8734;
38.4000;0.2914;1.8684;
38.7000;0.2882;1.8484;
39.0000;0.2759;1.8183;
39.3000;0.2914;1.8584;
39.6000;0.2841;1.8383;
39.9000;0.2882;1.8584;
40.2000;0.2873;1.8534;
40.5000;0.2898;1.8609;
40.8000;0.2955;1.8759;
41.1000;0.2898;1.8634;
41.4000;0.2930;1.8709;
41.7000;0.2898;1.8659;
42.0000;0.2914;1.8609;
42.3000;0.2939;1.8709;
42.6000;0.2898;1.8609;
42.9000;0.2882;1.8584;
43.2000;0.2922;1.8684;
43.5000;0.2849;1.8458;
43.8000;0.2906;1.8609;
44.1000;0.2873;1.8509;
44.4000;0.2898;1.8559;
44.7000;0.2906;1.8634;
45.0000;0.2882;1.8609;
45.3000;0.2906;1.8584;
45.6000;0.2890;1.8584;
45.9000;0.2971;1.8734;
46.2000;0.2906;1.8584;
46.5000;0.2882;1.8509;
46.8000;0.2857;1.8509;
47.1000;0.2873;1.8534;
47.4000;0.2906;1.8659;
47.7000;0.2865;1.8684;
48.0000;0.2882;1.8709;
48.3000;0.2882;1.8684;
48.6000;0.2890;1.8634;
48.9000;0.2914;1.8684;
49.2000;0.2816;1.8509;
49.5000;0.2930;1.8809;
49.8000;0.2890;1.8709;
50.1000;0.2825;1.8584;
50.4000;0.2890;1.8709;
50.7000;0.2890;1.8809;
51.0000;0.2922;1.8884;
51.3000;0.2890;1.8759;
51.6000;0.2873;1.8734;
51.9000;0.2914;1.8734;
52.2000;0.2882;1.8709;
52.5000;0.2873;1.8659;
52.8000;0.2882;1.8634;
53.1000;0.2882;1.8709;
53.4000;0.2914;1.8859;
53.7000;0.2873;1.8684;
54.0000;0.2882;1.8784;
54.3000;0.2890;1.8759;
54.6000;0.2898;1.8709;
54.9000;0.2914;1.8709;
55.2000;0.2890;1.8684;
55.5000;0.2882;1.8709;
55.8000;0.2865;1.8634;
56.1000;0.2906;1.8834;
56.4000;0.2873;1.8784;
56.7000;0.2882;1.8784;
57.0000;0.2890;1.8784;
57.3000;0.2890;1.8734;
57.6000;0.2849;1.8734;
57.9000;0.2922;1.8884;
58.2000;0.2890;1.8784;
58.5000;0.2890;1.8809;
58.8000;0.2873;1.8734;
59.1000;0.2816;1.8559;
59.4000;0.2898;1.8784;
59.7000;0.2898;1.8809;
60.0000;0.2906;1.8859;
60.3000;0.2890;1.8859;
60.6000;0.2914;1.8859;
60.9000;0.2963;1.8984;
61.2000;0.2939;1.8909;
61.5000;0.2882;1.8659;
61.8000;0.2922;1.8734;
62.1000;0.2914;1.8659;
62.4000;0.2898;1.8634;
62.7000;0.2890;1.8709;
63.0000;0.2890;1.8759;
63.3000;0.2882;1.8734;
63.6000;0.2898;1.8684;
63.9000;0.2898;1.8659;
64.2000;0.2833;1.8509;
64.5000;0.2890;1.8684;
64.8000;0.2890;1.8634;
65.1000;0.2890;1.8684;
65.4000;0.2930;1.8809;
65.7000;0.2939;1.8784;
66.0000;0.2898;1.8734;
66.3000;0.2947;1.8834;
66.6000;0.2882;1.8709;
66.9000;0.2865;1.8709;
67.2000;0.2865;1.8834;
67.5000;0.2890;1.8959;
67.8000;0.2898;1.8909;
68.1000;0.2882;1.8834;
68.4000;0.2873;1.8884;
68.7000;0.2882;1.8934;
69.0000;0.2890;1.8909;
69.3000;0.2939;1.9060;
69.6000;0.2922;1.9110;
69.9000;0.2882;1.9060;
70.2000;0.2947;1.9135;
70.5000;0.2898;1.9009;
70.8000;0.2890;1.8934;
71.1000;0.2890;1.8934;
71.4000;0.2873;1.8809;
71.7000;0.2857;1.8784;
72.0000;0.2882;1.8834;
72.3000;0.2882;1.8834;
72.6000;0.2865;1.8784;
72.9000;0.2865;1.8709;
73.2000;0.2882;1.8709;
73.5000;0.2930;1.8759;
73.8000;0.2890;1.8734;
74.1000;0.2833;1.8609;
74.4000;0.2882;1.8659;
74.7000;0.2882;1.8659;
75.0000;0.2890;1.8609;
75.3000;0.2922;1.8684;
75.6000;0.2914;1.8684;
75.9000;0.2898;1.8709;
76.2000;0.2947;1.8784;
76.5000;0.2890;1.8534;
76.8000;0.2906;1.8534;
77.1000;0.2873;1.8534;
77.4000;0.2833;1.8408;
77.7000;0.2873;1.8609;
78.0000;0.2857;1.8559;
78.3000;0.2857;1.8534;
78.6000;0.2898;1.8659;
78.9000;0.2857;1.8609;
79.2000;0.2865;1.8659;
79.5000;0.2882;1.8759;
79.8000;0.2906;1.8909;
80.1000;0.3020;1.9310;
80.4000;0.2882;1.8834;
80.7000;0.2906;1.8859;
81.0000;0.2890;1.8759;
81.3000;0.2890;1.8759;
81.6000;0.2890;1.8734;
81.9000;0.2882;1.8709;
82.2000;0.2898;1.8759;
82.5000;0.2792;1.8408;
82.8000;0.2922;1.8834;
83.1000;0.2890;1.8734;
83.4000;0.2882;1.8684;
83.7000;0.2890;1.8684;
84.0000;0.2865;1.8684;
84.3000;0.2865;1.8634;
84.6000;0.2947;1.8859;
84.9000;0.2906;1.8709;
85.2000;0.2890;1.8709;
85.5000;0.2898;1.8759;
85.8000;0.2898;1.8784;
86.1000;0.2882;1.8834;
86.4000;0.2890;1.8859;
86.7000;0.2833;1.8684;
87.0000;0.2882;1.8734;
87.3000;0.2898;1.8834;
87.6000;0.2841;1.8584;
87.9000;0.2873;1.8634;
88.2000;0.2930;1.8734;
88.5000;0.2890;1.8659;
88.8000;0.2882;1.8484;
89.1000;0.2890;1.8534;
89.4000;0.2873;1.8584;
89.7000;0.2882;1.8509;
90.0000;0.2865;1.8458;
90.3000;0.2882;1.8484;
90.6000;0.2906;1.8559;
90.9000;0.2898;1.8609;
91.2000;0.2914;1.8659;
91.5000;0.2841;1.8609;
91.8000;0.2914;1.8759;
92.1000;0.2898;1.8684;
92.4000;0.2906;1.8734;
92.7000;0.2882;1.8709;
93.0000;0.2857;1.8659;
93.3000;0.2873;1.8659;
93.6000;0.2882;1.8634;
93.9000;0.2898;1.8609;
94.2000;0.2882;1.8634;
94.5000;0.2882;1.8709;
94.8000;0.2882;1.8784;
95.1000;0.2890;1.8884;
95.4000;0.2898;1.8834;
95.7000;0.2898;1.8909;
96.0000;0.2930;1.8959;
96.3000;0.2898;1.8834;
96.6000;0.2914;1.8859;
96.9000;0.2898;1.8784;
97.2000;0.2882;1.8784;
97.5000;0.2849;1.8634;
97.8000;0.2873;1.8809;
98.1000;0.2890;1.8884;
98.4000;0.2882;1.8909;
98.7000;0.2873;1.8884;
99.0000;0.2914;1.8959;
99.3000;0.2898;1.8984;
99.6000;0.2971;1.9110;
99.9000;0.2873;1.8834;
100.2000;0.2955;1.9009;
100.5000;0.2898;1.8809;
100.8000;0.2890;1.8834;
101.1000;0.2857;1.8834;
101.4000;0.2882;1.8909;
101.7000;0.2898;1.9035;
102.0000;0.2865;1.8784;
102.3000;0.2873;1.8834;
102.6000;0.2898;1.8909;
102.9000;0.2914;1.8934;
103.2000;0.2865;1.8809;
103.5000;0.2873;1.8834;
103.8000;0.2865;1.8759;
104.1000;0.2890;1.8834;
104.4000;0.2873;1.8834;
104.7000;0.2914;1.8959;
105.0000;0.2890;1.8834;
105.3000;0.2865;1.8884;
105.6000;0.2841;1.8759;
105.9000;0.2865;1.8659;
106.2000;0.2882;1.8809;
106.5000;0.2857;1.8734;
106.8000;0.2890;1.8734;
107.1000;0.2882;1.8834;
107.4000;0.2882;1.8759;
107.7000;0.2857;1.8709;
108.0000;0.2882;1.8684;
108.3000;0.2865;1.8584;
108.6000;0.2906;1.8734;
108.9000;0.2882;1.8809;
109.2000;0.2857;1.8709;
109.5000;0.2914;1.8759;
109.8000;0.2873;1.8634;
110.1000;0.2890;1.8659;
110.4000;0.2873;1.8684;
110.7000;0.2914;1.8909;
111.0000;0.2890;1.8859;
111.3000;0.2890;1.8784;
111.6000;0.2882;1.8734;
111.9000;0.2873;1.8659;
112.2000;0.2841;1.8534;
112.5000;0.2882;1.8634;
112.8000;0.2865;1.8684;
113.1000;0.2898;1.8709;
113.4000;0.2914;1.8759;
113.7000;0.2890;1.8759;
114.0000;0.2865;1.8609;
114.3000;0.2735;1.8183;
114.6000;0.2898;1.8634;
114.9000;0.2882;1.8684;
115.2000;0.2882;1.8734;
115.5000;0.2857;1.8684;
115.8000;0.2882;1.8709;
116.1000;0.2890;1.8734;
116.4000;0.2882;1.8784;
116.7000;0.2914;1.8809;
117.0000;0.2882;1.8734;
117.3000;0.2882;1.8684;
117.6000;0.2971;1.9009;
117.9000;0.2882;1.8734;
118.2000;0.2882;1.8659;
118.5000;0.2890;1.8584;
118.8000;0.2882;1.8484;
119.1000;0.2890;1.8584;
119.4000;0.2890;1.8634;
119.7000;0.2914;1.8809;
120.0000;0.2865;1.8584;
120.3000;0.2979;1.8834;
120.6000;0.2898;1.8634;
120.9000;0.2906;1.8659;
121.2000;0.2882;1.8609;
121.5000;0.2882;1.8634;
121.8000;0.2906;1.8634;
122.1000;0.2898;1.8584;
122.4000;0.2914;1.8584;
122.7000;0.2947;1.8759;
123.0000;0.2898;1.8634;
123.3000;0.2849;1.8634;
123.6000;0.2882;1.8859;
123.9000;0.2873;1.8934;
124.2000;0.2898;1.8884;
124.5000;0.2890;1.8909;
124.8000;0.2825;1.8784;
125.1000;0.2882;1.8909;
125.4000;0.2857;1.8859;
125.7000;0.2922;1.9035;
126.0000;0.2882;1.8934;
126.3000;0.2833;1.8734;
126.6000;0.2857;1.8834;
126.9000;0.2857;1.8759;
127.2000;0.2890;1.8834;
127.5000;0.2898;1.8784;
127.8000;0.3004;1.9060;
128.1000;0.2857;1.8709;
128.4000;0.2890;1.8759;
128.7000;0.2865;1.8759;
129.0000;0.2873;1.8834;
129.3000;0.2898;1.8884;
129.6000;0.2890;1.8934;
129.9000;0.2890;1.8909;
130.2000;0.2841;1.8809;
130.5000;0.2865;1.8934;
130.8000;0.2979;1.9235;
131.1000;0.2849;1.8859;
131.4000;0.2963;1.9009;
131.7000;0.2890;1.8834;
132.0000;0.2890;1.8834;
132.3000;0.2816;1.8709;
132.6000;0.2882;1.8859;
132.9000;0.2873;1.8784;
133.2000;0.2963;1.8884;
133.5000;0.2882;1.8734;
133.8000;0.2898;1.8734;
134.1000;0.2882;1.8634;
134.4000;0.2825;1.8433;
134.7000;0.2865;1.8634;
135.0000;0.2873;1.8759;
135.3000;0.2873;1.8684;
135.6000;0.2873;1.8634;
135.9000;0.2833;1.8559;
136.2000;0.2882;1.8784;
136.5000;0.2890;1.8834;
136.8000;0.2882;1.8709;
137.1000;0.2898;1.8759;
137.4000;0.2930;1.8884;
137.7000;0.2930;1.8834;
138.0000;0.2873;1.8684;
138.3000;0.2735;1.8308;
138.6000;0.3028;1.9060;
138.9000;0.2898;1.8684;
139.2000;0.2849;1.8659;
139.5000;0.2882;1.8709;
139.8000;0.2890;1.8734;
140.1000;0.2914;1.8759;
140.4000;0.2841;1.8509;
140.7000;0.2849;1.8559;
141.0000;0.2890;1.8659;
141.3000;0.2898;1.8634;
141.6000;0.2865;1.8509;
141.9000;0.2873;1.8534;
142.2000;0.2922;1.8684;
142.5000;0.2898;1.8559;
142.8000;0.2873;1.8433;
143.1000;0.2865;1.8559;
143.4000;0.2890;1.8634;
143.7000;0.2914;1.8734;
144.0000;0.2865;1.8609;
144.3000;0.2898;1.8634;
144.6000;0.2882;1.8609;
144.9000;0.2890;1.8634;
145.2000;0.2898;1.8634;
145.5000;0.2898;1.8584;
145.8000;0.2906;1.8609;
146.1000;0.2930;1.8709;
146.4000;0.2914;1.8734;
146.7000;0.2890;1.8684;
147.0000;0.2849;1.8584;
147.3000;0.2906;1.8884;
147.6000;0.2873;1.8859;
147.9000;0.2898;1.8934;
148.2000;0.2890;1.8959;
148.5000;0.2898;1.9009;
148.8000;0.2906;1.9085;
149.1000;0.2808;1.8784;
149.4000;0.2873;1.8859;
149.7000;0.2882;1.8834;
150.0000;0.2882;1.8834;
150.3000;0.2955;1.8909;
150.6000;0.2865;1.8634;
150.9000;0.2833;1.8634;
151.2000;0.2882;1.8809;
151.5000;0.3012;1.9285;
151.8000;0.3053;1.9385;
152.1000;0.2922;1.9060;
152.4000;0.2882;1.8959;
152.7000;0.2833;1.8734;
153.0000;0.2841;1.8759;
153.3000;0.2963;1.9009;
153.6000;0.2939;1.9035;
153.9000;0.2873;1.8834;
154.2000;0.2833;1.8709;
154.5000;0.2914;1.9009;
154.8000;0.2882;1.8984;
155.1000;0.2890;1.8959;
155.4000;0.2890;1.8959;
155.7000;0.2947;1.9160;
156.0000;0.2882;1.8909;
156.3000;0.2825;1.8809;
156.6000;0.2930;1.9135;
156.9000;0.2890;1.8959;
157.2000;0.2743;1.8509;
157.5000;0.2890;1.8909;
157.8000;0.2873;1.8809;
158.1000;0.2825;1.8684;
158.4000;0.2890;1.8934;
158.7000;0.2857;1.8834;
159.0000;0.2947;1.9035;
159.3000;0.2939;1.8934;
159.6000;0.2873;1.8784;
159.9000;0.2865;1.8884;
160.2000;0.2882;1.8884;
160.5000;0.2890;1.8859;
160.8000;0.2849;1.8884;
161.1000;0.2882;1.9035;
161.4000;0.2898;1.9009;
161.7000;0.2882;1.8934;
162.0000;0.2873;1.8934;
162.3000;0.2906;1.8959;
162.6000;0.2784;1.8559;
162.9000;0.2873;1.8834;
163.2000;0.2727;1.8484;
163.5000;0.2873;1.8859;
163.8000;0.2898;1.8834;
164.1000;0.2882;1.8809;
164.4000;0.2857;1.8684;
164.7000;0.2857;1.8709;
165.0000;0.2890;1.8784;
165.3000;0.2906;1.8909;
165.6000;0.2865;1.8834;
165.9000;0.2873;1.8834;
166.2000;0.2857;1.8834;
166.5000;0.2906;1.8934;
166.8000;0.2882;1.8934;
167.1000;0.2865;1.8884;
167.4000;0.2873;1.8784;
167.7000;0.2873;1.8734;
168.0000;0.2865;1.8759;
168.3000;0.2898;1.8809;
168.6000;0.2873;1.8759;
168.9000;0.2882;1.8784;
169.2000;0.2890;1.8809;
169.5000;0.2882;1.8834;
169.8000;0.2865;1.8684;
170.1000;0.2865;1.8684;
170.4000;0.2882;1.8734;
170.7000;0.2882;1.8734;
171.0000;0.2865;1.8684;
171.3000;0.2825;1.8559;
171.6000;0.2890;1.8684;
171.9000;0.2873;1.8684;
172.2000;0.2857;1.8584;
172.5000;0.2939;1.8709;
172.8000;0.2882;1.8634;
173.1000;0.2898;1.8709;
173.4000;0.2857;1.8634;
173.7000;0.2849;1.8634;
174.0000;0.2955;1.8909;
174.3000;0.2865;1.8659;
174.6000;0.2922;1.8934;
174.9000;0.2873;1.8834;
175.2000;0.2849;1.8734;
175.5000;0.2906;1.8884;
175.8000;0.2776;1.8509;
176.1000;0.2873;1.8809;
176.4000;0.2898;1.9009;
176.7000;0.2865;1.8984;
177.0000;0.2841;1.8959;
177.3000;0.2865;1.8909;
177.6000;0.2898;1.9009;
177.9000;0.2882;1.9009;
178.2000;0.2857;1.9009;
178.5000;0.2857;1.8959;
178.8000;0.2890;1.9009;
179.1000;0.2882;1.9009;
179.4000;0.2857;1.8884;
179.7000;0.2873;1.8884;
180.0000;0.2882;1.8909;
180.3000;0.2890;1.8984;
180.6000;0.2857;1.8834;
180.9000;0.2841;1.8759;
181.2000;0.2800;1.8709;
181.5000;0.2882;1.8984;
181.8000;0.2890;1.8984;
182.1000;0.2890;1.9009;
182.4000;0.2890;1.9009;
182.7000;0.2890;1.9060;
183.0000;0.2963;1.9285;
183.3000;0.2898;1.9085;
183.6000;0.2898;1.9060;
183.9000;0.2890;1.9009;
184.2000;0.2906;1.9060;
184.5000;0.2906;1.9085;
184.8000;0.2882;1.8984;
185.1000;0.2873;1.8959;
185.4000;0.2857;1.8859;
185.7000;0.2882;1.8884;
186.0000;0.2857;1.8834;
186.3000;0.2890;1.8909;
186.6000;0.2857;1.8884;
186.9000;0.2890;1.8934;
187.2000;0.2882;1.8884;
187.5000;0.2890;1.8809;
187.8000;0.2898;1.8784;
188.1000;0.2898;1.8709;
188.4000;0.2906;1.8634;
188.7000;0.2857;1.8659;
189.0000;0.2873;1.8609;
189.3000;0.2882;1.8609;
189.6000;0.2890;1.8634;
189.9000;0.2882;1.8684;
190.2000;0.2873;1.8684;
190.5000;0.2922;1.8759;
190.8000;0.2865;1.8634;
191.1000;0.2947;1.8859;
191.4000;0.2890;1.8609;
191.7000;0.2825;1.8358;
192.0000;0.2882;1.8509;
192.3000;0.2882;1.8408;
192.6000;0.2914;1.8509;
192.9000;0.2882;1.8484;
193.2000;0.2882;1.8609;
193.5000;0.2890;1.8559;
193.8000;0.2882;1.8484;
194.1000;0.2792;1.8183;
194.4000;0.2882;1.8433;
194.7000;0.2800;1.8258;
195.0000;0.2857;1.8433;
195.3000;0.2873;1.8559;
195.6000;0.2882;1.8634;
195.9000;0.2873;1.8634;
196.2000;0.2865;1.8609;
196.5000;0.2873;1.8684;
196.8000;0.2792;1.8433;
197.1000;0.2890;1.8809;
197.4000;0.2865;1.8759;
197.7000;0.2890;1.8809;
198.0000;0.2882;1.8709;
198.3000;0.2890;1.8759;
198.6000;0.2776;1.8509;
198.9000;0.2865;1.8709;
199.2000;0.2882;1.8709;
199.5000;0.2898;1.8734;
199.8000;0.2890;1.8734;
200.1000;0.2890;1.8734;
200.4000;0.2833;1.8509;
200.7000;0.2882;1.8609;
201.0000;0.2857;1.8559;
201.3000;0.2898;1.8684;
201.6000;0.2882;1.8559;
201.9000;0.2882;1.8634;
202.2000;0.2882;1.8684;
202.5000;0.2890;1.8734;
202.8000;0.2873;1.8584;
203.1000;0.2873;1.8609;
203.4000;0.2890;1.8659;
203.7000;0.2865;1.8584;
204.0000;0.2882;1.8534;
204.3000;0.2882;1.8534;
204.6000;0.2906;1.8559;
204.9000;0.2873;1.8484;
205.2000;0.2865;1.8559;
205.5000;0.2873;1.8559;
205.8000;0.2873;1.8634;
206.1000;0.2857;1.8559;
206.4000;0.2825;1.8408;
206.7000;0.2857;1.8559;
207.0000;0.2890;1.8684;
207.3000;0.2979;1.9035;
207.6000;0.2833;1.8509;
207.9000;0.2882;1.8609;
208.2000;0.2873;1.8584;
208.5000;0.2865;1.8559;
208.8000;0.2882;1.8458;
209.1000;0.2873;1.8458;
209.4000;0.2955;1.8784;
209.7000;0.2873;1.8509;
210.0000;0.2890;1.8509;
210.3000;0.2898;1.8584;
210.6000;0.2873;1.8433;
210.9000;0.2882;1.8484;
211.2000;0.2865;1.8534;
211.5000;0.2882;1.8534;
211.8000;0.2873;1.8509;
212.1000;0.2849;1.8458;
212.4000;0.2759;1.8133;
212.7000;0.2865;1.8458;
213.0000;0.2768;1.8108;
213.3000;0.2898;1.8484;
213.6000;0.2906;1.8509;
213.9000;0.2841;1.8308;
214.2000;0.2865;1.8408;
214.5000;0.2890;1.8534;
214.8000;0.2857;1.8458;
215.1000;0.2882;1.8433;
215.4000;0.2873;1.8383;
215.7000;0.2865;1.8358;
216.0000;0.2873;1.8534;
216.3000;0.2873;1.8559;
216.6000;0.2882;1.8509;
216.9000;0.2808;1.8358;
217.2000;0.2865;1.8584;
217.5000;0.2857;1.8584;
217.8000;0.2808;1.8484;
218.1000;0.2939;1.8884;
218.4000;0.2882;1.8684;
218.7000;0.2882;1.8709;
219.0000;0.2865;1.8684;
219.3000;0.2873;1.8534;
219.6000;0.2857;1.8484;
219.9000;0.2857;1.8458;
220.2000;0.2865;1.8509;
220.5000;0.2882;1.8609;
220.8000;0.2890;1.8684;
221.1000;0.2898;1.8659;
221.4000;0.2865;1.8684;
221.7000;0.2873;1.8634;
222.0000;0.2890;1.8784;
222.3000;0.2914;1.8934;
222.6000;0.2882;1.8734;
222.9000;0.2865;1.8684;
223.2000;0.2882;1.8684;
223.5000;0.2906;1.8759;
223.8000;0.2906;1.8709;
224.1000;0.2865;1.8634;
224.4000;0.2906;1.8734;
224.7000;0.2890;1.8609;
225.0000;0.2890;1.8709;
225.3000;0.2898;1.8784;
225.6000;0.2890;1.8734;
225.9000;0.2882;1.8809;
226.2000;0.2890;1.8809;
226.5000;0.2898;1.8759;
226.8000;0.2857;1.8659;
227.1000;0.2865;1.8684;
227.4000;0.2865;1.8734;
227.7000;0.2882;1.8684;
228.0000;0.2865;1.8659;
228.3000;0.2939;1.8809;
228.6000;0.2857;1.8584;
228.9000;0.2865;1.8609;
229.2000;0.2857;1.8509;
229.5000;0.2898;1.8659;
229.8000;0.2873;1.8534;
230.1000;0.2914;1.8659;
230.4000;0.2800;1.8408;
230.7000;0.2857;1.8659;
231.0000;0.2890;1.8884;
231.3000;0.2939;1.9060;
231.6000;0.2890;1.8784;
231.9000;0.2882;1.8659;
232.2000;0.2849;1.8584;
232.5000;0.2857;1.8509;
232.8000;0.2882;1.8584;
233.1000;0.2882;1.8609;
233.4000;0.2963;1.8959;
233.7000;0.2898;1.8834;
234.0000;0.2890;1.8809;
234.3000;0.2882;1.8809;
234.6000;0.2849;1.8734;
234.9000;0.2849;1.8659;
235.2000;0.2882;1.8759;
235.5000;0.2873;1.8659;
235.8000;0.2865;1.8609;
236.1000;0.2857;1.8634;
236.4000;0.2833;1.8484;
236.7000;0.2873;1.8659;
237.0000;0.2873;1.8684;
237.3000;0.2857;1.8684;
237.6000;0.2914;1.8859;
237.9000;0.2873;1.8834;
238.2000;0.2865;1.8834;
238.5000;0.2825;1.8684;
238.8000;0.2849;1.8684;
239.1000;0.2890;1.8784;
239.4000;0.2890;1.8684;
239.7000;0.2865;1.8609;
240.0000;0.3012;1.9110;
240.3000;0.2873;1.8634;
240.6000;0.2890;1.8634;
240.9000;0.2890;1.8659;
241.2000;0.2857;1.8584;
241.5000;0.2906;1.8659;
241.8000;0.2816;1.8383;
242.1000;0.2890;1.8584;
242.4000;0.2906;1.8584;
242.7000;0.2971;1.8809;
243.0000;0.2849;1.8484;
243.3000;0.2873;1.8534;
243.6000;0.2857;1.8458;
243.9000;0.2882;1.8484;
244.2000;0.2865;1.8383;
244.5000;0.2857;1.8408;
244.8000;0.2865;1.8534;
245.1000;0.2873;1.8684;
245.4000;0.2857;1.8634;
245.7000;0.2922;1.8884;
246.0000;0.2865;1.8759;
246.3000;0.2947;1.8859;
246.6000;0.2882;1.8709;
246.9000;0.2865;1.8609;
247.2000;0.2947;1.8784;
247.5000;0.2865;1.8659;
247.8000;0.2882;1.8859;
248.1000;0.3004;1.9160;
248.4000;0.2955;1.9009;
248.7000;0.2873;1.8834;
249.0000;0.2882;1.8834;
249.3000;0.2882;1.8784;
249.6000;0.2873;1.8809;
249.9000;0.2833;1.8734;
250.2000;0.2865;1.8859;
250.5000;0.2841;1.8884;
250.8000;0.2849;1.8809;
251.1000;0.2882;1.8809;
251.4000;0.2922;1.8909;
251.7000;0.2882;1.8759;
252.0000;0.2890;1.8834;
252.3000;0.2873;1.8884;
252.6000;0.2898;1.8984;
252.9000;0.2825;1.8859;
253.2000;0.2898;1.9009;
253.5000;0.2890;1.8884;
253.8000;0.2865;1.8909;
254.1000;0.2873;1.8909;
254.4000;0.2873;1.8859;
254.7000;0.2849;1.8684;
255.0000;0.2857;1.8684;
255.3000;0.2857;1.8684;
255.6000;0.2882;1.8759;
255.9000;0.2865;1.8659;
256.2000;0.2849;1.8659;
256.5000;0.2865;1.8709;
256.8000;0.2906;1.8759;
257.1000;0.2882;1.8659;
257.4000;0.2849;1.8659;
257.7000;0.2849;1.8609;
258.0000;0.2857;1.8584;
258.3000;0.2914;1.8709;
258.6000;0.2890;1.8659;
258.9000;0.2865;1.8534;
259.2000;0.2898;1.8634;
259.5000;0.2914;1.8609;
259.8000;0.2898;1.8509;
260.1000;0.2857;1.8383;
260.4000;0.2849;1.8408;
260.7000;0.2873;1.8408;
261.0000;0.2914;1.8559;
261.3000;0.2857;1.8433;
261.6000;0.2890;1.8458;
261.9000;0.2873;1.8408;
262.2000;0.2865;1.8458;
262.5000;0.2849;1.8484;
262.8000;0.2873;1.8484;
263.1000;0.2906;1.8534;
263.4000;0.2906;1.8509;
263.7000;0.3004;1.8884;
264.0000;0.2873;1.8534;
264.3000;0.2890;1.8634;
264.6000;0.2890;1.8659;
264.9000;0.2865;1.8559;
265.2000;0.2873;1.8634;
265.5000;0.2873;1.8559;
265.8000;0.2890;1.8684;
266.1000;0.2849;1.8634;
266.4000;0.2873;1.8609;
266.7000;0.2849;1.8584;
267.0000;0.2873;1.8609;
267.3000;0.2914;1.8734;
267.6000;0.2882;1.8734;
267.9000;0.2841;1.8609;
268.2000;0.2873;1.8734;
268.5000;0.2890;1.8809;
268.8000;0.2865;1.8759;
269.1000;0.2816;1.8584;
269.4000;0.2857;1.8734;
269.7000;0.2890;1.8759;
270.0000;0.2865;1.8634;
270.3000;0.2963;1.8934;
270.6000;0.2930;1.8834;
270.9000;0.2873;1.8659;
271.2000;0.2841;1.8559;
271.5000;0.2947;1.8984;
271.8000;0.2890;1.8934;
272.1000;0.2849;1.8884;
272.4000;0.2873;1.8884;
272.7000;0.2882;1.8884;
273.0000;0.2849;1.8884;
273.3000;0.2898;1.8984;
273.6000;0.2841;1.8759;
273.9000;0.2890;1.8809;
274.2000;0.2849;1.8809;
274.5000;0.2825;1.8784;
274.8000;0.2865;1.8959;
275.1000;0.2873;1.8959;
275.4000;0.2955;1.9110;
275.7000;0.2890;1.8859;
276.0000;0.2849;1.8734;
276.3000;0.2849;1.8709;
276.6000;0.2873;1.8859;
276.9000;0.2849;1.8859;
277.2000;0.2890;1.8959;
277.5000;0.2882;1.8859;
277.8000;0.2857;1.8809;
278.1000;0.2890;1.8884;
278.4000;0.2841;1.8709;
278.7000;0.2898;1.8934;
279.0000;0.2865;1.8884;
279.3000;0.2857;1.8809;
279.6000;0.2947;1.9085;
279.9000;0.2906;1.8984;
280.2000;0.2873;1.8909;
280.5000;0.2857;1.8884;
280.8000;0.2906;1.8984;
281.1000;0.2873;1.8834;
281.4000;0.2890;1.8834;
281.7000;0.2882;1.8834;
282.0000;0.2882;1.8809;
282.3000;0.2873;1.8809;
282.6000;0.2841;1.8684;
282.9000;0.2873;1.8759;
283.2000;0.2882;1.8684;
283.5000;0.2939;1.8984;
283.8000;0.2833;1.8709;
284.1000;0.2865;1.8784;
284.4000;0.2873;1.8759;
284.7000;0.2857;1.8684;
285.0000;0.2857;1.8709;
285.3000;0.2857;1.8584;
285.6000;0.2939;1.8859;
285.9000;0.2873;1.8609;
286.2000;0.2865;1.8634;
286.5000;0.2882;1.8709;
286.8000;0.2865;1.8759;
287.1000;0.2873;1.8759;
287.4000;0.2882;1.8859;
287.7000;0.2865;1.8859;
288.0000;0.2882;1.8859;
288.3000;0.2857;1.8834;
288.6000;0.2890;1.8959;
288.9000;0.2865;1.8834;
289.2000;0.2865;1.8784;
289.5000;0.2865;1.8734;
289.8000;0.2849;1.8659;
290.1000;0.2873;1.8709;
290.4000;0.2873;1.8684;
290.7000;0.2890;1.8659;
291.0000;0.2882;1.8634;
291.3000;0.2865;1.8559;
291.6000;0.2947;1.8734;
291.9000;0.2865;1.8559;
292.2000;0.2865;1.8584;
292.5000;0.2898;1.8584;
292.8000;0.2873;1.8458;
293.1000;0.2857;1.8383;
293.4000;0.2882;1.8559;
293.7000;0.2930;1.8709;
294.0000;0.2873;1.8559;
294.3000;0.2857;1.8484;
294.6000;0.2857;1.8659;
294.9000;0.2865;1.8609;
295.2000;0.2865;1.8559;
295.5000;0.2865;1.8559;
295.8000;0.2865;1.8609;
296.1000;0.2857;1.8584;
296.4000;0.2857;1.8609;
296.7000;0.2882;1.8584;
297.0000;0.2865;1.8584;
297.3000;0.2882;1.8659;
297.6000;0.2865;1.8659;
297.9000;0.2882;1.8684;
298.2000;0.2857;1.8659;
298.5000;0.2857;1.8609;
298.8000;0.2857;1.8609;
299.1000;0.2873;1.8659;
299.4000;0.2792;1.8484;
299.7000;0.2857;1.8734;
300.0000;0.2857;1.8734;
300.3000;0.2849;1.8659;
300.6000;0.2865;1.8759;
300.9000;0.2873;1.8884;
301.2000;0.2857;1.8884;
301.5000;0.2890;1.8934;
301.8000;0.2906;1.8934;
302.1000;0.2849;1.8859;
302.4000;0.2898;1.8984;
302.7000;0.2873;1.8934;
303.0000;0.3004;1.9185;
303.3000;0.2841;1.8684;
303.6000;0.2882;1.8709;
303.9000;0.2873;1.8734;
304.2000;0.2759;1.8584;
304.5000;0.2808;1.8634;
304.8000;0.2865;1.8709;
305.1000;0.2873;1.8734;
305.4000;0.2873;1.8709;
305.7000;0.2816;1.8584;
306.0000;0.2865;1.8709;
306.3000;0.2882;1.8709;
306.6000;0.3012;1.9160;
306.9000;0.2857;1.8684;
307.2000;0.2906;1.8834;
307.5000;0.2906;1.8834;
307.8000;0.2882;1.8759;
308.1000;0.2849;1.8759;
308.4000;0.2849;1.8709;
308.7000;0.2914;1.8909;
309.0000;0.2857;1.8734;
309.3000;0.2873;1.8734;
309.6000;0.2833;1.8659;
309.9000;0.3020;1.9235;
310.2000;0.2857;1.8759;
310.5000;0.2906;1.8934;
310.8000;0.2865;1.8884;
311.1000;0.2865;1.8959;
311.4000;0.2857;1.8984;
311.7000;0.2857;1.8884;
312.0000;0.2873;1.8784;
312.3000;0.2865;1.8659;
312.6000;0.2882;1.8659;
312.9000;0.2979;1.8959;
313.2000;0.2873;1.8709;
313.5000;0.2857;1.8609;
313.8000;0.2849;1.8609;
314.1000;0.2849;1.8634;
314.4000;0.2947;1.8834;
314.7000;0.2882;1.8634;
315.0000;0.2865;1.8534;
315.3000;0.2865;1.8484;
315.6000;0.2914;1.8709;
315.9000;0.2865;1.8584;
316.2000;0.2873;1.8584;
316.5000;0.2955;1.8759;
316.8000;0.2873;1.8659;
317.1000;0.2914;1.8709;
317.4000;0.2800;1.8458;
317.7000;0.2890;1.8609;
318.0000;0.2906;1.8659;
318.3000;0.2873;1.8659;
318.6000;0.2882;1.8684;
318.9000;0.2816;1.8458;
319.2000;0.2873;1.8659;
319.5000;0.2808;1.8534;
319.8000;0.2857;1.8659;
320.1000;0.2865;1.8584;
320.4000;0.2833;1.8484;
320.7000;0.2873;1.8659;
321.0000;0.2865;1.8634;
321.3000;0.2906;1.8659;
321.6000;0.2898;1.8684;
321.9000;0.2857;1.8609;
322.2000;0.2808;1.8534;
322.5000;0.2865;1.8709;
322.8000;0.2890;1.8809;
323.1000;0.3036;1.9110;
323.4000;0.2808;1.8534;
323.7000;0.2841;1.8734;
324.0000;0.2873;1.8834;
324.3000;0.2873;1.8759;
324.6000;0.2906;1.8834;
324.9000;0.2776;1.8458;
325.2000;0.2996;1.9009;
325.5000;0.2955;1.8859;
325.8000;0.2873;1.8634;
326.1000;0.2898;1.8709;
326.4000;0.2898;1.8684;
326.7000;0.2841;1.8584;
327.0000;0.2882;1.8684;
327.3000;0.2873;1.8734;
327.6000;0.2857;1.8659;
327.9000;0.2873;1.8709;
328.2000;0.2751;1.8408;
328.5000;0.2873;1.8659;
328.8000;0.2857;1.8534;
329.1000;0.2906;1.8709;
329.4000;0.2890;1.8634;
329.7000;0.2751;1.8308;
330.0000;0.2849;1.8534;
330.3000;0.2890;1.8659;
330.6000;0.2898;1.8709;
330.9000;0.2865;1.8684;
331.2000;0.2825;1.8559;
331.5000;0.2873;1.8709;
331.8000;0.2865;1.8659;
332.1000;0.2865;1.8709;
332.4000;0.2833;1.8659;
332.7000;0.2857;1.8809;
333.0000;0.2873;1.8834;
333.3000;0.2865;1.8809;
333.6000;0.2857;1.8784;
333.9000;0.2825;1.8709;
334.2000;0.2816;1.8559;
334.5000;0.2857;1.8584;
334.8000;0.2857;1.8609;
335.1000;0.2873;1.8634;
335.4000;0.2882;1.8584;
335.7000;0.2882;1.8609;
336.0000;0.2906;1.8609;
336.3000;0.2841;1.8433;
336.6000;0.2890;1.8634;
336.9000;0.2882;1.8709;
337.2000;0.2849;1.8634;
337.5000;0.2882;1.8634;
337.8000;0.2857;1.8609;
338.1000;0.2873;1.8634;
338.4000;0.2873;1.8709;
338.7000;0.2841;1.8684;
339.0000;0.2808;1.8509;
339.3000;0.2849;1.8659;
339.6000;0.2857;1.8684;
339.9000;0.2873;1.8759;
340.2000;0.2857;1.8709;
340.5000;0.2816;1.8484;
340.8000;0.2873;1.8634;
341.1000;0.2906;1.8759;
341.4000;0.2857;1.8534;
341.7000;0.2898;1.8659;
342.0000;0.2930;1.8859;
342.3000;0.2882;1.8809;
342.6000;0.2865;1.8784;
342.9000;0.2865;1.8759;
343.2000;0.2849;1.8659;
343.5000;0.2857;1.8709;
343.8000;0.2857;1.8809;
344.1000;0.2882;1.8859;
344.4000;0.2743;1.8333;
344.7000;0.2906;1.8759;
345.0000;0.2857;1.8734;
345.3000;0.2890;1.8834;
345.6000;0.2833;1.8784;
345.9000;0.2873;1.8859;
346.2000;0.2849;1.8759;
346.5000;0.2857;1.8859;
346.8000;0.2865;1.8884;
347.1000;0.2898;1.8859;
347.4000;0.2825;1.8659;
347.7000;0.2873;1.8859;
348.0000;0.2865;1.8884;
348.3000;0.2849;1.8859;
348.6000;0.2857;1.8959;
348.9000;0.2857;1.8959;
349.2000;0.2792;1.8784;
349.5000;0.2857;1.8959;
349.8000;0.2841;1.8984;
350.1000;0.2873;1.8984;
350.4000;0.2873;1.8984;
350.7000;0.2833;1.8759;
351.0000;0.2882;1.8809;
351.3000;0.2873;1.8759;
351.6000;0.2906;1.8834;
351.9000;0.2865;1.8709;
352.2000;0.2865;1.8759;
352.5000;0.2849;1.8609;
352.8000;0.2857;1.8659;
353.1000;0.2890;1.8734;
353.4000;0.2849;1.8584;
353.7000;0.2882;1.8684;
354.0000;0.2833;1.8559;
354.3000;0.2849;1.8709;
354.6000;0.3028;1.9335;
354.9000;0.2849;1.8759;
355.2000;0.2882;1.8759;
355.5000;0.2865;1.8734;
355.8000;0.2857;1.8634;
356.1000;0.2808;1.8534;
356.4000;0.2873;1.8784;
356.7000;0.2865;1.8759;
357.0000;0.2849;1.8784;
357.3000;0.2890;1.8809;
357.6000;0.2873;1.8684;
357.9000;0.2898;1.8734;
358.2000;0.2865;1.8734;
358.5000;0.2890;1.8759;
358.8000;0.2857;1.8659;
359.1000;0.2833;1.8709;
359.4000;0.2865;1.8759;
359.7000;0.2825;1.8609;
360.0000;0.2857;1.8759;
360.3000;0.2825;1.8634;
360.6000;0.2882;1.8809;
360.9000;0.2849;1.8759;
361.2000;0.2906;1.8809;
361.5000;0.2833;1.8634;
361.8000;0.2857;1.8709;
362.1000;0.2768;1.8433;
362.4000;0.2873;1.8784;
362.7000;0.2784;1.8484;
363.0000;0.2865;1.8709;
363.3000;0.2849;1.8709;
363.6000;0.2865;1.8784;
363.9000;0.2849;1.8884;
364.2000;0.2825;1.8734;
364.5000;0.2816;1.8709;
364.8000;0.3004;1.9185;
365.1000;0.2890;1.8884;
365.4000;0.2857;1.8784;
365.7000;0.2865;1.8709;
366.0000;0.2833;1.8709;
366.3000;0.2857;1.8734;
366.6000;0.2841;1.8584;
366.9000;0.2865;1.8709;
367.2000;0.2898;1.8634;
367.5000;0.2841;1.8433;
367.8000;0.2849;1.8509;
368.1000;0.2857;1.8584;
368.4000;0.2882;1.8634;
368.7000;0.2865;1.8609;
369.0000;0.2873;1.8559;
369.3000;0.2841;1.8433;
369.6000;0.2857;1.8458;
369.9000;0.2873;1.8458;
370.2000;0.2857;1.8458;
370.5000;0.2833;1.8433;
370.8000;0.2857;1.8458;
371.1000;0.2841;1.8484;
371.4000;0.2849;1.8408;
371.7000;0.2808;1.8333;
372.0000;0.2865;1.8433;
372.3000;0.2865;1.8383;
372.6000;0.2841;1.8308;
372.9000;0.2849;1.8308;
373.2000;0.2865;1.8458;
373.5000;0.2825;1.8433;
373.8000;0.2865;1.8559;
374.1000;0.2873;1.8584;
374.4000;0.2808;1.8509;
374.7000;0.2825;1.8584;
375.0000;0.2833;1.8584;
375.3000;0.2833;1.8609;
375.6000;0.2825;1.8584;
375.9000;0.2857;1.8634;
376.2000;0.2865;1.8659;
376.5000;0.2873;1.8684;
376.8000;0.2841;1.8509;
377.1000;0.2865;1.8509;
377.4000;0.2849;1.8534;
377.7000;0.2865;1.8609;
378.0000;0.2873;1.8684;
378.3000;0.2857;1.8609;
378.6000;0.2841;1.8559;
378.9000;0.2857;1.8584;
379.2000;0.2865;1.8634;
379.5000;0.2800;1.8534;
379.8000;0.2873;1.8684;
380.1000;0.2857;1.8684;
380.4000;0.2857;1.8734;
380.7000;0.2996;1.9085;
381.0000;0.2857;1.8609;
381.3000;0.2873;1.8634;
381.6000;0.2857;1.8609;
381.9000;0.2849;1.8659;
382.2000;0.2833;1.8584;
382.5000;0.2882;1.8809;
382.8000;0.2882;1.8784;
383.1000;0.2865;1.8859;
383.4000;0.2882;1.8859;
383.7000;0.2865;1.8709;
384.0000;0.2914;1.8884;
384.3000;0.2833;1.8659;
384.6000;0.2759;1.8408;
384.9000;0.2841;1.8659;
385.2000;0.2873;1.8609;
385.5000;0.2890;1.8734;
385.8000;0.2947;1.8959;
386.1000;0.2816;1.8684;
386.4000;0.2914;1.8884;
386.7000;0.2914;1.8809;
387.0000;0.2857;1.8709;
387.3000;0.2963;1.8934;
387.6000;0.2808;1.8458;
387.9000;0.2849;1.8584;
388.2000;0.2882;1.8684;
388.5000;0.2857;1.8659;
388.8000;0.2996;1.9009;
389.1000;0.2849;1.8584;
389.4000;0.2865;1.8634;
389.7000;0.2857;1.8584;
390.0000;0.2833;1.8584;
390.3000;0.2873;1.8784;
390.6000;0.2865;1.8759;
390.9000;0.2857;1.8759;
391.2000;0.2906;1.8834;
391.5000;0.2898;1.8759;
391.8000;0.2873;1.8759;
392.1000;0.2849;1.8734;
392.4000;0.2857;1.8734;
392.7000;0.2882;1.8834;
393.0000;0.2873;1.8834;
393.3000;0.2833;1.8759;
393.6000;0.2841;1.8759;
393.9000;0.2865;1.8759;
394.2000;0.2857;1.8709;
394.5000;0.2882;1.8784;
394.8000;0.2833;1.8584;
395.1000;0.2841;1.8509;
395.4000;0.2833;1.8584;
395.7000;0.2841;1.8634;
396.0000;0.2865;1.8684;
396.3000;0.2857;1.8759;
396.6000;0.2882;1.8809;
396.9000;0.2865;1.8809;
397.2000;0.2841;1.8684;
397.5000;0.2841;1.8759;
397.8000;0.2865;1.8784;
398.1000;0.2841;1.8734;
398.4000;0.2873;1.8784;
398.7000;0.2865;1.8784;
399.0000;0.2857;1.8834;
399.3000;0.2882;1.8909;
399.6000;0.2849;1.8759;
399.9000;0.2800;1.8584;
400.2000;0.2857;1.8834;
400.5000;0.2873;1.8909;
400.8000;0.2857;1.8784;
401.1000;0.2743;1.8408;
401.4000;0.2865;1.8784;
401.7000;0.2825;1.8709;
402.0000;0.2873;1.8734;
402.3000;0.2857;1.8684;
402.6000;0.2792;1.8559;
402.9000;0.2865;1.8784;
403.2000;0.2873;1.8859;
403.5000;0.2833;1.8709;
403.8000;0.2849;1.8784;
404.1000;0.2857;1.8809;
404.4000;0.2865;1.8809;
404.7000;0.2857;1.8734;
405.0000;0.2849;1.8734;
405.3000;0.2873;1.8859;
405.6000;0.2873;1.8834;
405.9000;0.2849;1.8834;
406.2000;0.2873;1.8884;
406.5000;0.2865;1.8909;
406.8000;0.2865;1.8884;
407.1000;0.2857;1.8834;
407.4000;0.2865;1.8809;
407.7000;0.2816;1.8634;
408.0000;0.2825;1.8659;
408.3000;0.2857;1.8684;
408.6000;0.2833;1.8609;
408.9000;0.2849;1.8534;
409.2000;0.2800;1.8458;
409.5000;0.2857;1.8709;
409.8000;0.2784;1.8534;
410.1000;0.2702;1.8358;
410.4000;0.2841;1.8709;
410.7000;0.2873;1.8884;
411.0000;0.2849;1.8784;
411.3000;0.2792;1.8609;
411.6000;0.2841;1.8684;
411.9000;0.2873;1.8759;
412.2000;0.2873;1.8659;
412.5000;0.2857;1.8634;
412.8000;0.2857;1.8684;
413.1000;0.2857;1.8759;
413.4000;0.2873;1.8809;
413.7000;0.2857;1.8859;
414.0000;0.2873;1.8784;
414.3000;0.2890;1.8834;
414.6000;0.2873;1.8884;
414.9000;0.2857;1.8759;
415.2000;0.2849;1.8709;
415.5000;0.2849;1.8734;
415.8000;0.2865;1.8759;
416.1000;0.2865;1.8784;
416.4000;0.2857;1.8759;
416.7000;0.2841;1.8609;
417.0000;0.2947;1.8834;
417.3000;0.2898;1.8709;
417.6000;0.2873;1.8634;
417.9000;0.2849;1.8584;
418.2000;0.2849;1.8534;
418.5000;0.2873;1.8634;
418.8000;0.2841;1.8534;
419.1000;0.2841;1.8534;
419.4000;0.2825;1.8534;
419.7000;0.2857;1.8684;
420.0000;0.2857;1.8659;
420.3000;0.2857;1.8684;
420.6000;0.2784;1.8484;
420.9000;0.2857;1.8684;
421.2000;0.2833;1.8609;
421.5000;0.2898;1.8784;
421.8000;0.2890;1.8659;
422.1000;0.2939;1.8809;
422.4000;0.2882;1.8634;
422.7000;0.2833;1.8559;
423.0000;0.2857;1.8609;
423.3000;0.2873;1.8609;
423.6000;0.2841;1.8559;
423.9000;0.2865;1.8559;
424.2000;0.2841;1.8484;
424.5000;0.2865;1.8458;
424.8000;0.2873;1.8408;
425.1000;0.2768;1.8258;
425.4000;0.2865;1.8534;
425.7000;0.2759;1.8308;
426.0000;0.2857;1.8559;
426.3000;0.2922;1.8684;
426.6000;0.2825;1.8584;
426.9000;0.2882;1.8709;
427.2000;0.2865;1.8684;
427.5000;0.2857;1.8659;
427.8000;0.2865;1.8684;
428.1000;0.2906;1.8809;
428.4000;0.2865;1.8709;
428.7000;0.2873;1.8734;
429.0000;0.2841;1.8659;
429.3000;0.2849;1.8659;
429.6000;0.2841;1.8684;
429.9000;0.2865;1.8634;
430.2000;0.2857;1.8509;
430.5000;0.2979;1.8709;
430.8000;0.2873;1.8484;
431.1000;0.2849;1.8534;
431.4000;0.2865;1.8634;
431.7000;0.2865;1.8609;
432.0000;0.2873;1.8559;
432.3000;0.2890;1.8509;
432.6000;0.2865;1.8509;
432.9000;0.2849;1.8634;
433.2000;0.2873;1.8709;
433.5000;0.2906;1.8784;
433.8000;0.2865;1.8709;
434.1000;0.2857;1.8609;
434.4000;0.2906;1.8659;
434.7000;0.2865;1.8609;
435.0000;0.2873;1.8634;
435.3000;0.2857;1.8609;
435.6000;0.2800;1.8458;
435.9000;0.2857;1.8709;
436.2000;0.2955;1.8859;
436.5000;0.2898;1.8759;
436.8000;0.2857;1.8609;
437.1000;0.2882;1.8709;
437.4000;0.2882;1.8659;
437.7000;0.2857;1.8659;
438.0000;0.2857;1.8659;
438.3000;0.2849;1.8684;
438.6000;0.2873;1.8684;
438.9000;0.2873;1.8584;
439.2000;0.2873;1.8559;
439.5000;0.2890;1.8609;
439.8000;0.2857;1.8534;
440.1000;0.2914;1.8809;
440.4000;0.2751;1.8358;
440.7000;0.2825;1.8659;
441.0000;0.2857;1.8709;
441.3000;0.2857;1.8709;
441.6000;0.2841;1.8484;
441.9000;0.2873;1.8584;
442.2000;0.2865;1.8534;
442.5000;0.2873;1.8609;
442.8000;0.2865;1.8634;
443.1000;0.2882;1.8734;
443.4000;0.2857;1.8659;
443.7000;0.2873;1.8709;
444.0000;0.2865;1.8634;
444.3000;0.2841;1.8584;
444.6000;0.2849;1.8559;
444.9000;0.2873;1.8584;
445.2000;0.2808;1.8408;
445.5000;0.2865;1.8534;
445.8000;0.2849;1.8484;
446.1000;0.2865;1.8484;
446.4000;0.2987;1.8834;
446.7000;0.2906;1.8584;
447.0000;0.2833;1.8484;
447.3000;0.2857;1.8559;
447.6000;0.2865;1.8634;
447.9000;0.2808;1.8484;
448.2000;0.2849;1.8559;
448.5000;0.2882;1.8609;
448.8000;0.2849;1.8458;
449.1000;0.2873;1.8534;
449.4000;0.2841;1.8433;
449.7000;0.2865;1.8484;
450.0000;0.2857;1.8433;
450.3000;0.2865;1.8509;
450.6000;0.2857;1.8609;
450.9000;0.2751;1.8383;
451.2000;0.2873;1.8734;
451.5000;0.2865;1.8784;
451.8000;0.2857;1.8859;
452.1000;0.2833;1.8809;
452.4000;0.2849;1.8784;
452.7000;0.2759;1.8433;
453.0000;0.2882;1.8759;
453.3000;0.2890;1.8809;
453.6000;0.2914;1.8834;
453.9000;0.2882;1.8759;
454.2000;0.2751;1.8408;
454.5000;0.2882;1.8759;
454.8000;0.3012;1.9235;
455.1000;0.2865;1.8809;
455.4000;0.2865;1.8784;
455.7000;0.2955;1.8934;
456.0000;0.2849;1.8759;
456.3000;0.2800;1.8659;
456.6000;0.2882;1.8784;
456.9000;0.2857;1.8709;
457.2000;0.3004;1.9035;
457.5000;0.2849;1.8634;
457.8000;0.2939;1.8834;
458.1000;0.2873;1.8759;
458.4000;0.2857;1.8734;
458.7000;0.2841;1.8784;
459.0000;0.2898;1.8959;
459.3000;0.2841;1.8809;
459.6000;0.2865;1.8734;
459.9000;0.2857;1.8659;
460.2000;0.2922;1.8759;
460.5000;0.2873;1.8684;
460.8000;0.2849;1.8534;
461.1000;0.2873;1.8684;
461.4000;0.2873;1.8684;
461.7000;0.2865;1.8634;
462.0000;0.2833;1.8584;
462.3000;0.2849;1.8659;
462.6000;0.2939;1.8934;
462.9000;0.2857;1.8634;
463.2000;0.2849;1.8609;
463.5000;0.2825;1.8534;
463.8000;0.2873;1.8534;
464.1000;0.2857;1.8559;
464.4000;0.2865;1.8634;
464.7000;0.2849;1.8659;
465.0000;0.2857;1.8709;
465.3000;0.2849;1.8734;
465.6000;0.2849;1.8759;
465.9000;0.2865;1.8834;
466.2000;0.2857;1.8809;
466.5000;0.2873;1.8734;
466.8000;0.2857;1.8759;
467.1000;0.2865;1.8859;
467.4000;0.2857;1.8834;
467.7000;0.2865;1.8784;
468.0000;0.2857;1.8909;
468.3000;0.2882;1.9009;
468.6000;0.2882;1.8959;
468.9000;0.2849;1.8834;
469.2000;0.3004;1.9260;
469.5000;0.2882;1.8934;
469.8000;0.2857;1.8959;
470.1000;0.2857;1.9060;
470.4000;0.2873;1.9135;
470.7000;0.2882;1.9210;
471.0000;0.2906;1.9235;
471.3000;0.2890;1.9160;
471.6000;0.2865;1.9009;
471.9000;0.2857;1.8909;
472.2000;0.2906;1.9035;
472.5000;0.2873;1.8934;
472.8000;0.2857;1.8809;
473.1000;0.2882;1.8909;
473.4000;0.2841;1.8684;
473.7000;0.2882;1.8859;
474.0000;0.2857;1.8809;
474.3000;0.2898;1.8884;
474.6000;0.2882;1.8884;
474.9000;0.2849;1.8859;
475.2000;0.2776;1.8784;
475.5000;0.2873;1.9035;
475.8000;0.2873;1.9060;
476.1000;0.2816;1.8809;
476.4000;0.2849;1.8984;
476.7000;0.2776;1.8759;
477.0000;0.2865;1.8959;
477.3000;0.2922;1.8909;
477.6000;0.2849;1.8684;
477.9000;0.2849;1.8759;
478.2000;0.2792;1.8709;
478.5000;0.2857;1.8884;
478.8000;0.2996;1.9285;
479.1000;0.2833;1.8834;
479.4000;0.2873;1.8934;
479.7000;0.2808;1.8809;
480.0000;0.2857;1.8984;
480.3000;0.2865;1.9035;
480.6000;0.2825;1.8734;
480.9000;0.2841;1.8884;
481.2000;0.2849;1.8884;
481.5000;0.2865;1.8959;
481.8000;0.2882;1.8859;
482.1000;0.2873;1.8859;
482.4000;0.2882;1.8809;
482.7000;0.2841;1.8859;
483.0000;0.2873;1.8959;
483.3000;0.2898;1.8959;
483.6000;0.2882;1.9009;
483.9000;0.2882;1.9009;
484.2000;0.2890;1.9085;
484.5000;0.2890;1.9135;
484.8000;0.2873;1.8984;
485.1000;0.2922;1.9060;
485.4000;0.2857;1.8959;
485.7000;0.2841;1.8959;
486.0000;0.2882;1.9060;
486.3000;0.2849;1.8934;
486.6000;0.2857;1.9009;
486.9000;0.2849;1.8984;
487.2000;0.2865;1.9035;
487.5000;0.2865;1.9085;
487.8000;0.2841;1.8934;
488.1000;0.2873;1.8959;
488.4000;0.3020;1.9385;
488.7000;0.2857;1.8859;
489.0000;0.2857;1.8834;
489.3000;0.2849;1.8759;
489.6000;0.2882;1.8859;
489.9000;0.2849;1.8759;
490.2000;0.2841;1.8809;
490.5000;0.2800;1.8684;
490.8000;0.2914;1.9060;
491.1000;0.2833;1.8884;
491.4000;0.2857;1.8909;
491.7000;0.2825;1.8909;
492.0000;0.2939;1.9160;
492.3000;0.2857;1.8984;
492.6000;0.2841;1.9110;
492.9000;0.2857;1.9135;
493.2000;0.2882;1.9235;
493.5000;0.2882;1.9210;
493.8000;0.2857;1.9110;
494.1000;0.2873;1.9085;
494.4000;0.2833;1.8934;
494.7000;0.2955;1.9285;
495.0000;0.2865;1.9085;
495.3000;0.2865;1.9009;
495.6000;0.2955;1.9260;
495.9000;0.2768;1.8659;
496.2000;0.2849;1.8809;
496.5000;0.2849;1.8759;
496.8000;0.2873;1.8759;
497.1000;0.2719;1.8308;
497.4000;0.2882;1.8734;
497.7000;0.2849;1.8634;
498.0000;0.2849;1.8609;
498.3000;0.2865;1.8659;
498.6000;0.2898;1.8734;
498.9000;0.2857;1.8709;
499.2000;0.2833;1.8684;
499.5000;0.2857;1.8784;
499.8000;0.2849;1.8759;
500.1000;0.2759;1.8484;
500.4000;0.2873;1.8784;
500.7000;0.2833;1.8709;
501.0000;0.2882;1.8834;
501.3000;0.2873;1.8834;
501.6000;0.2849;1.8759;
501.9000;0.2841;1.8734;
502.2000;0.2833;1.8634;
502.5000;0.2825;1.8484;
502.8000;0.2816;1.8534;
503.1000;0.2865;1.8634;
503.4000;0.2882;1.8609;
503.7000;0.2833;1.8509;
504.0000;0.2841;1.8634;
504.3000;0.2865;1.8734;
504.6000;0.2865;1.8734;
504.9000;0.2873;1.8734;
505.2000;0.2857;1.8784;
505.5000;0.2849;1.8709;
505.8000;0.2825;1.8684;
506.1000;0.2857;1.8709;
506.4000;0.2833;1.8734;
506.7000;0.2849;1.8759;
507.0000;0.2873;1.8909;
507.3000;0.2873;1.8884;
507.6000;0.2882;1.8934;
507.9000;0.2865;1.8859;
508.2000;0.2882;1.8834;
508.5000;0.2849;1.8759;
508.8000;0.2873;1.8884;
509.1000;0.2825;1.8884;
509.4000;0.2882;1.8984;
509.7000;0.2865;1.8934;
510.0000;0.2849;1.8909;
510.3000;0.2865;1.8909;
510.6000;0.2857;1.8909;
510.9000;0.2841;1.8859;
511.2000;0.2857;1.8984;
511.5000;0.2963;1.9235;
511.8000;0.2865;1.9035;
512.1000;0.2857;1.9009;
512.4000;0.2939;1.9135;
512.7000;0.2841;1.8784;
513.0000;0.2857;1.8834;
513.3000;0.2857;1.8884;
513.6000;0.2816;1.8684;
513.9000;0.2849;1.8709;
514.2000;0.2890;1.8834;
514.5000;0.2849;1.8759;
514.8000;0.2857;1.8809;
515.1000;0.2857;1.8834;
515.4000;0.2906;1.8934;
515.7000;0.2873;1.8759;
516.0000;0.2841;1.8659;
516.3000;0.2882;1.8809;
516.6000;0.2849;1.8759;
516.9000;0.2833;1.8634;
517.2000;0.2727;1.8358;
517.5000;0.2873;1.8709;
517.8000;0.2882;1.8759;
518.1000;0.2841;1.8734;
518.4000;0.2873;1.8759;
518.7000;0.2873;1.8684;
519.0000;0.2898;1.8759;
519.3000;0.2849;1.8659;
519.6000;0.2873;1.8709;
519.9000;0.2857;1.8684;
520.2000;0.2849;1.8684;
520.5000;0.2857;1.8709;
520.8000;0.2865;1.8784;
521.1000;0.2857;1.8809;
521.4000;0.2857;1.8834;
521.7000;0.2849;1.8859;
522.0000;0.2865;1.9009;
522.3000;0.2849;1.8884;
522.6000;0.2873;1.8934;
522.9000;0.2865;1.9009;
523.2000;0.2833;1.9009;
523.5000;0.2898;1.9185;
523.8000;0.2873;1.9085;
524.1000;0.2849;1.8959;
524.4000;0.2841;1.8884;
524.7000;0.2873;1.8909;
525.0000;0.2914;1.9085;
525.3000;0.2865;1.8959;
525.6000;0.2849;1.8934;
525.9000;0.2833;1.8909;
526.2000;0.2857;1.8959;
526.5000;0.2922;1.9160;
526.8000;0.2849;1.8959;
527.1000;0.2792;1.8934;
527.4000;0.2841;1.9060;
527.7000;0.2890;1.9035;
528.0000;0.2857;1.8909;
528.3000;0.2776;1.8709;
528.6000;0.2865;1.8934;
528.9000;0.2865;1.8909;
529.2000;0.2857;1.8834;
529.5000;0.2849;1.8784;
529.8000;0.2841;1.8709;
530.1000;0.2873;1.8759;
530.4000;0.2857;1.8759;
530.7000;0.2841;1.8759;
531.0000;0.2914;1.8884;
531.3000;0.2841;1.8759;
531.6000;0.2833;1.8784;
531.9000;0.2857;1.8759;
532.2000;0.2865;1.8784;
532.5000;0.2825;1.8684;
532.8000;0.2841;1.8609;
533.1000;0.2882;1.8609;
533.4000;0.2865;1.8634;
533.7000;0.2841;1.8609;
534.0000;0.2857;1.8759;
534.3000;0.2882;1.8859;
534.6000;0.2865;1.8784;
534.9000;0.2841;1.8709;
535.2000;0.2857;1.8784;
535.5000;0.2833;1.8734;
535.8000;0.2857;1.8784;
536.1000;0.2955;1.9060;
536.4000;0.2816;1.8709;
536.7000;0.2816;1.8659;
537.0000;0.2825;1.8659;
537.3000;0.2841;1.8684;
537.6000;0.2849;1.8809;
537.9000;0.2890;1.8934;
538.2000;0.2833;1.8709;
538.5000;0.2857;1.8759;
538.8000;0.2849;1.8709;
539.1000;0.2849;1.8684;
539.4000;0.2857;1.8659;
539.7000;0.2857;1.8609;
540.0000;0.2865;1.8684;
540.3000;0.2865;1.8784;
540.6000;0.2882;1.8909;
540.9000;0.2841;1.8784;
541.2000;0.2865;1.8784;
541.5000;0.2841;1.8709;
541.8000;0.2865;1.8559;
542.1000;0.2833;1.8458;
542.4000;0.2800;1.8383;
542.7000;0.2808;1.8458;
543.0000;0.2873;1.8734;
543.3000;0.2841;1.8734;
543.6000;0.2841;1.8809;
543.9000;0.2849;1.8909;
544.2000;0.2865;1.8934;
544.5000;0.2873;1.8884;
544.8000;0.2873;1.8859;
545.1000;0.2865;1.8734;
545.4000;0.2849;1.8609;
545.7000;0.2841;1.8559;
546.0000;0.2857;1.8609;
546.3000;0.2825;1.8584;
546.6000;0.2833;1.8584;
546.9000;0.2865;1.8684;
547.2000;0.2939;1.8784;
547.5000;0.2898;1.8659;
547.8000;0.2865;1.8634;
548.1000;0.2841;1.8509;
548.4000;0.2841;1.8559;
548.7000;0.2873;1.8609;
549.0000;0.2873;1.8609;
549.3000;0.2890;1.8584;
549.6000;0.2776;1.8258;
549.9000;0.2857;1.8534;
550.2000;0.2882;1.8584;
550.5000;0.2873;1.8509;
550.8000;0.2841;1.8408;
551.1000;0.2857;1.8433;
551.4000;0.2841;1.8458;
551.7000;0.2882;1.8559;
552.0000;0.2873;1.8534;
552.3000;0.2833;1.8534;
552.6000;0.2841;1.8584;
552.9000;0.2841;1.8609;
553.2000;0.2873;1.8684;
553.5000;0.2857;1.8659;
553.8000;0.2841;1.8684;
554.1000;0.2865;1.8734;
554.4000;0.2963;1.8984;
554.7000;0.2890;1.8759;
555.0000;0.2857;1.8759;
555.3000;0.2857;1.8734;
555.6000;0.2849;1.8659;
555.9000;0.2759;1.8358;
556.2000;0.2841;1.8584;
556.5000;0.2825;1.8584;
556.8000;0.2857;1.8684;
557.1000;0.2873;1.8684;
557.4000;0.2792;1.8408;
557.7000;0.2857;1.8659;
558.0000;0.2825;1.8559;
558.3000;0.2849;1.8559;
558.6000;0.2841;1.8534;
558.9000;0.2873;1.8709;
559.2000;0.2865;1.8809;
559.5000;0.2865;1.8834;
559.8000;0.2841;1.8734;
560.1000;0.2776;1.8534;
560.4000;0.2882;1.8834;
560.7000;0.2849;1.8784;
561.0000;0.2833;1.8709;
561.3000;0.2865;1.8809;
561.6000;0.2906;1.8809;
561.9000;0.2873;1.8759;
562.2000;0.2873;1.8809;
562.5000;0.2833;1.8709;
562.8000;0.2865;1.8734;
563.1000;0.2906;1.8759;
563.4000;0.2857;1.8559;
563.7000;0.2914;1.8734;
564.0000;0.2825;1.8534;
564.3000;0.2849;1.8609;
564.6000;0.2841;1.8634;
564.9000;0.2947;1.8834;
565.2000;0.2865;1.8659;
565.5000;0.2825;1.8484;
565.8000;0.2857;1.8559;
566.1000;0.2833;1.8458;
566.4000;0.2841;1.8433;
566.7000;0.2882;1.8559;
567.0000;0.2849;1.8433;
567.3000;0.2841;1.8484;
567.6000;0.2825;1.8484;
567.9000;0.2833;1.8509;
568.2000;0.2792;1.8358;
568.5000;0.2711;1.8108;
568.8000;0.2857;1.8408;
569.1000;0.2825;1.8383;
569.4000;0.2857;1.8509;
569.7000;0.2955;1.8809;
570.0000;0.2873;1.8534;
570.3000;0.2898;1.8634;
570.6000;0.2898;1.8659;
570.9000;0.2865;1.8534;
571.2000;0.2743;1.8258;
571.5000;0.2865;1.8584;
571.8000;0.2955;1.8859;
572.1000;0.2882;1.8759;
572.4000;0.2865;1.8634;
572.7000;0.2857;1.8559;
573.0000;0.2882;1.8659;
573.3000;0.2963;1.8884;
573.6000;0.2947;1.8784;
573.9000;0.2865;1.8634;
574.2000;0.2865;1.8659;
574.5000;0.2857;1.8609;
574.8000;0.2914;1.8759;
575.1000;0.2873;1.8684;
575.4000;0.2873;1.8584;
575.7000;0.2865;1.8559;
576.0000;0.2849;1.8559;
576.3000;0.2882;1.8684;
576.6000;0.2833;1.8509;
576.9000;0.2841;1.8458;
577.2000;0.2857;1.8534;
577.5000;0.2865;1.8584;
577.8000;0.2825;1.8408;
578.1000;0.2857;1.8484;
578.4000;0.2849;1.8584;
578.7000;0.2849;1.8559;
579.0000;0.2841;1.8609;
579.3000;0.2865;1.8734;
579.6000;0.2873;1.8659;
579.9000;0.2865;1.8634;
580.2000;0.2841;1.8659;
580.5000;0.2841;1.8634;
580.8000;0.2865;1.8659;
581.1000;0.2882;1.8809;
581.4000;0.2857;1.8884;
581.7000;0.2841;1.8809;
582.0000;0.2849;1.8809;
582.3000;0.2833;1.8809;
582.6000;0.2816;1.8709;
582.9000;0.2865;1.8734;
583.2000;0.2857;1.8684;
583.5000;0.2849;1.8584;
583.8000;0.2898;1.8634;
584.1000;0.2882;1.8634;
584.4000;0.2833;1.8509;
584.7000;0.2873;1.8584;
585.0000;0.2865;1.8509;
585.3000;0.2890;1.8559;
585.6000;0.2857;1.8408;
585.9000;0.2865;1.8333;
586.2000;0.2776;1.8058;
586.5000;0.2873;1.8383;
586.8000;0.2857;1.8383;
587.1000;0.2857;1.8358;
587.4000;0.2898;1.8584;
587.7000;0.2873;1.8534;
588.0000;0.2849;1.8484;
588.3000;0.2914;1.8734;
588.6000;0.2841;1.8609;
588.9000;0.2857;1.8709;
589.2000;0.2841;1.8709;
589.5000;0.2922;1.8859;
589.8000;0.2849;1.8559;
590.1000;0.2955;1.8934;
590.4000;0.2849;1.8709;
590.7000;0.2857;1.8684;
591.0000;0.2882;1.8734;
591.3000;0.2849;1.8584;
591.6000;0.2865;1.8609;
591.9000;0.2849;1.8584;
592.2000;0.2825;1.8509;
592.5000;0.2784;1.8458;
592.8000;0.2882;1.8709;
593.1000;0.2914;1.8859;
593.4000;0.2857;1.8834;
593.7000;0.2873;1.8959;
594.0000;0.2922;1.9085;
594.3000;0.2947;1.9110;
594.6000;0.2865;1.8859;
594.9000;0.2841;1.8759;
595.2000;0.2865;1.8834;
595.5000;0.2857;1.8784;
595.8000;0.2857;1.8734;
596.1000;0.2825;1.8759;
596.4000;0.2865;1.8834;
596.7000;0.2971;1.9085;
597.0000;0.2873;1.8809;
597.3000;0.2873;1.8859;
597.6000;0.2865;1.8684;
597.9000;0.2833;1.8509;
598.2000;0.2865;1.8634;
598.5000;0.2865;1.8659;
598.8000;0.2857;1.8609;
599.1000;0.2849;1.8709;
599.4000;0.2841;1.8684;
599.7000;0.2849;1.8809;
600.0000;0.2857;1.8734;
600.3000;0.2841;1.8509;
600.6000;0.2865;1.8358;
600.9000;0.2792;1.7933;
601.2000;0.2792;1.7657;
601.5000;0.2800;1.7407;
601.8000;0.2768;1.7131;
602.1000;0.2768;1.6856;
602.4000;0.2816;1.6755;
602.7000;0.2759;1.6480;
603.0000;0.2702;1.6204;
603.3000;0.2711;1.6054;
603.6000;0.2702;1.5804;
603.9000;0.2654;1.5478;
604.2000;0.2670;1.5403;
604.5000;0.2662;1.5178;
604.8000;0.2702;1.5077;
605.1000;0.2678;1.4852;
605.4000;0.2646;1.4852;
605.7000;0.2670;1.4927;
606.0000;0.2646;1.4802;
606.3000;0.2637;1.4702;
606.6000;0.2605;1.4451;
606.9000;0.2662;1.4526;
607.2000;0.2597;1.4401;
607.5000;0.2637;1.4526;
607.8000;0.2605;1.4451;
608.1000;0.2629;1.4401;
608.4000;0.2605;1.4226;
608.7000;0.2597;1.4176;
609.0000;0.2621;1.4251;
609.3000;0.2621;1.4176;
609.6000;0.2686;1.4326;
609.9000;0.2613;1.4201;
610.2000;0.2605;1.4201;
610.5000;0.2572;1.4126;
610.8000;0.2613;1.4151;
611.1000;0.2670;1.4276;
611.4000;0.2597;1.4101;
611.7000;0.2637;1.4126;
612.0000;0.2589;1.4000;
612.3000;0.2589;1.4050;
612.6000;0.2580;1.4101;
612.9000;0.2597;1.4151;
613.2000;0.2589;1.4050;
613.5000;0.2613;1.4201;
613.8000;0.2597;1.4025;
614.1000;0.2670;1.4151;
614.4000;0.2621;1.3975;
614.7000;0.2605;1.3975;
615.0000;0.2540;1.3750;
615.3000;0.2613;1.3975;
615.6000;0.2613;1.3975;
615.9000;0.2589;1.3900;
616.2000;0.2572;1.3750;
616.5000;0.2605;1.3825;
616.8000;0.2597;1.3875;
617.1000;0.2572;1.3850;
617.4000;0.2556;1.3800;
617.7000;0.2605;1.3925;
618.0000;0.2605;1.3925;
618.3000;0.2654;1.4050;
618.6000;0.2572;1.3925;
618.9000;0.2613;1.4101;
619.2000;0.2613;1.4050;
619.5000;0.2597;1.3975;
619.8000;0.2662;1.4126;
620.1000;0.2597;1.4050;
620.4000;0.2532;1.3850;
620.7000;0.2613;1.4000;
621.0000;0.2613;1.3950;
621.3000;0.2605;1.4000;
621.6000;0.2605;1.3950;
621.9000;0.2597;1.3925;
622.2000;0.2605;1.3900;
622.5000;0.2613;1.3900;
622.8000;0.2589;1.3850;
623.1000;0.2597;1.3900;
623.4000;0.2572;1.3825;
623.7000;0.2605;1.3750;
624.0000;0.2613;1.3725;
624.3000;0.2605;1.3750;
624.6000;0.2523;1.3525;
624.9000;0.2515;1.3600;
625.2000;0.2580;1.3750;
625.5000;0.2523;1.3525;
625.8000;0.2605;1.3825;
626.1000;0.2515;1.3600;
626.4000;0.2589;1.3800;
626.7000;0.2637;1.3850;
627.0000;0.2605;1.3800;
627.3000;0.2597;1.3700;
627.6000;0.2637;1.3725;
627.9000;0.2597;1.3750;
628.2000;0.2605;1.3750;
628.5000;0.2597;1.3725;
628.8000;0.2605;1.3825;
629.1000;0.2556;1.3625;
629.4000;0.2613;1.3825;
629.7000;0.2629;1.3875;
630.0000;0.2605;1.3825;
630.3000;0.2678;1.4050;
630.6000;0.2597;1.3725;
630.9000;0.2589;1.3800;
631.2000;0.2564;1.3675;
631.5000;0.2580;1.3650;
631.8000;0.2597;1.3675;
632.1000;0.2532;1.3525;
632.4000;0.2580;1.3675;
632.7000;0.2572;1.3650;
633.0000;0.2580;1.3625;
633.3000;0.2621;1.3800;
633.6000;0.2589;1.3725;
633.9000;0.2605;1.3800;
634.2000;0.2613;1.3800;
634.5000;0.2621;1.3875;
634.8000;0.2589;1.3750;
635.1000;0.2589;1.3725;
635.4000;0.2580;1.3650;
635.7000;0.2572;1.3675;
636.0000;0.2580;1.3700;
636.3000;0.2580;1.3750;
636.6000;0.2589;1.3800;
636.9000;0.2597;1.3775;
637.2000;0.2589;1.3725;
637.5000;0.2548;1.3700;
637.8000;0.2589;1.3800;
638.1000;0.2580;1.3800;
638.4000;0.2580;1.3750;
638.7000;0.2597;1.3750;
639.0000;0.2629;1.3775;
639.3000;0.2589;1.3750;
639.6000;0.2597;1.3825;
639.9000;0.2580;1.3750;
640.2000;0.2572;1.3750;
640.5000;0.2589;1.3725;
640.8000;0.2613;1.3650;
641.1000;0.2597;1.3575;
641.4000;0.2589;1.3625;
641.7000;0.2597;1.3725;
642.0000;0.2580;1.3750;
642.3000;0.2580;1.3825;
642.6000;0.2580;1.3800;
642.9000;0.2605;1.3875;
643.2000;0.2572;1.3850;
643.5000;0.2621;1.3975;
643.8000;0.2580;1.3825;
644.1000;0.2507;1.3575;
644.4000;0.2540;1.3675;
644.7000;0.2589;1.3875;
645.0000;0.2580;1.3800;
645.3000;0.2613;1.3900;
645.6000;0.2564;1.3675;
645.9000;0.2597;1.3725;
646.2000;0.2605;1.3725;
646.5000;0.2621;1.3825;
646.8000;0.2597;1.3700;
647.1000;0.2597;1.3775;
647.4000;0.2621;1.3800;
647.7000;0.2580;1.3650;
648.0000;0.2523;1.3474;
648.3000;0.2629;1.3675;
648.6000;0.2572;1.3600;
648.9000;0.2597;1.3675;
649.2000;0.2613;1.3700;
649.5000;0.2589;1.3650;
649.8000;0.2605;1.3725;
650.1000;0.2654;1.3775;
650.4000;0.2719;1.3900;
650.7000;0.2589;1.3550;
651.0000;0.2670;1.3775;
651.3000;0.2589;1.3575;
651.6000;0.2532;1.3449;
651.9000;0.2605;1.3600;
652.2000;0.2572;1.3499;
652.5000;0.2556;1.3550;
652.8000;0.2580;1.3675;
653.1000;0.2589;1.3650;
653.4000;0.2589;1.3700;
653.7000;0.2613;1.3875;
654.0000;0.2580;1.3875;
654.3000;0.2540;1.3600;
654.6000;0.2605;1.3675;
654.9000;0.2589;1.3550;
655.2000;0.2572;1.3625;
655.5000;0.2572;1.3625;
655.8000;0.2613;1.3750;
656.1000;0.2589;1.3625;
656.4000;0.2597;1.3675;
656.7000;0.2597;1.3675;
657.0000;0.2589;1.3725;
657.3000;0.2702;1.4076;
657.6000;0.2580;1.3750;
657.9000;0.2605;1.3775;
658.2000;0.2523;1.3625;
658.5000;0.2605;1.3825;
658.8000;0.2605;1.3825;
659.1000;0.2613;1.3800;
659.4000;0.2589;1.3775;
659.7000;0.2605;1.3800;
660.0000;0.2678;1.4050;
660.3000;0.2605;1.3775;
660.6000;0.2605;1.3650;
660.9000;0.2572;1.3550;
661.2000;0.2532;1.3449;
661.5000;0.2589;1.3600;
661.8000;0.2572;1.3575;
662.1000;0.2654;1.3875;
662.4000;0.2572;1.3625;
662.7000;0.2580;1.3600;
663.0000;0.2580;1.3600;
663.3000;0.2548;1.3424;
663.6000;0.2613;1.3600;
663.9000;0.2548;1.3474;
664.2000;0.2613;1.3750;
664.5000;0.2580;1.3650;
664.8000;0.2589;1.3675;
665.1000;0.2532;1.3600;
665.4000;0.2580;1.3750;
665.7000;0.2572;1.3675;
666.0000;0.2597;1.3675;
666.3000;0.2629;1.3750;
666.6000;0.2556;1.3449;
666.9000;0.2572;1.3499;
667.2000;0.2572;1.3499;
667.5000;0.2613;1.3675;
667.8000;0.2597;1.3575;
668.1000;0.2621;1.3650;
668.4000;0.2589;1.3625;
668.7000;0.2605;1.3750;
669.0000;0.2564;1.3550;
669.3000;0.2589;1.3600;
669.6000;0.2621;1.3625;
669.9000;0.2637;1.3750;
670.2000;0.2597;1.3575;
670.5000;0.2499;1.3224;
670.8000;0.2580;1.3525;
671.1000;0.2589;1.3474;
671.4000;0.2572;1.3449;
671.7000;0.2548;1.3474;
672.0000;0.2572;1.3499;
672.3000;0.2564;1.3550;
672.6000;0.2621;1.3700;
672.9000;0.2589;1.3600;
673.2000;0.2564;1.3575;
673.5000;0.2580;1.3575;
673.8000;0.2597;1.3675;
674.1000;0.2605;1.3600;
674.4000;0.2597;1.3525;
674.7000;0.2613;1.3550;
675.0000;0.2621;1.3550;
675.3000;0.2589;1.3525;
675.6000;0.2589;1.3575;
675.9000;0.2605;1.3675;
676.2000;0.2637;1.3725;
676.5000;0.2605;1.3575;
676.8000;0.2605;1.3424;
677.1000;0.2556;1.3274;
677.4000;0.2589;1.3374;
677.7000;0.2589;1.3424;
678.0000;0.2580;1.3399;
678.3000;0.2580;1.3424;
678.6000;0.2597;1.3575;
678.9000;0.2580;1.3550;
679.2000;0.2580;1.3525;
679.5000;0.2597;1.3625;
679.8000;0.2589;1.3600;
680.1000;0.2597;1.3650;
680.4000;0.2515;1.3374;
680.7000;0.2621;1.3625;
681.0000;0.2572;1.3474;
681.3000;0.2589;1.3575;
681.6000;0.2597;1.3625;
681.9000;0.2605;1.3650;
682.2000;0.2580;1.3600;
682.5000;0.2597;1.3700;
682.8000;0.2564;1.3600;
683.1000;0.2548;1.3525;
683.4000;0.2597;1.3700;
683.7000;0.2564;1.3700;
684.0000;0.2654;1.3875;
684.3000;0.2589;1.3800;
684.6000;0.2662;1.3900;
684.9000;0.2589;1.3825;
685.2000;0.2597;1.3875;
685.5000;0.2589;1.3825;
685.8000;0.2613;1.3800;
686.1000;0.2768;1.4201;
686.4000;0.2572;1.3675;
686.7000;0.2637;1.3900;
687.0000;0.2556;1.3775;
687.3000;0.2711;1.4151;
687.6000;0.2515;1.3625;
687.9000;0.2597;1.3825;
688.2000;0.2564;1.3600;
688.5000;0.2597;1.3650;
688.8000;0.2605;1.3750;
689.1000;0.2548;1.3575;
689.4000;0.2646;1.3850;
689.7000;0.2605;1.3700;
690.0000;0.2597;1.3600;
690.3000;0.2702;1.3900;
690.6000;0.2613;1.3650;
690.9000;0.2572;1.3575;
691.2000;0.2597;1.3550;
691.5000;0.2597;1.3675;
691.8000;0.2580;1.3650;
692.1000;0.2589;1.3575;
692.4000;0.2580;1.3625;
692.7000;0.2580;1.3550;
693.0000;0.2548;1.3474;
693.3000;0.2580;1.3499;
693.6000;0.2523;1.3449;
693.9000;0.2605;1.3550;
694.2000;0.2589;1.3700;
694.5000;0.2580;1.3600;
694.8000;0.2605;1.3725;
695.1000;0.2654;1.3900;
695.4000;0.2605;1.3800;
695.7000;0.2621;1.3825;
696.0000;0.2621;1.3725;
696.3000;0.2605;1.3700;
696.6000;0.2597;1.3700;
696.9000;0.2597;1.3700;
697.2000;0.2613;1.3775;
697.5000;0.2589;1.3675;
697.8000;0.2589;1.3575;
698.1000;0.2589;1.3650;
698.4000;0.2589;1.3675;
698.7000;0.2589;1.3675;
699.0000;0.2491;1.3399;
699.3000;0.2597;1.3650;
699.6000;0.2597;1.3600;
699.9000;0.2589;1.3675;
700.2000;0.2629;1.3875;
700.5000;0.2662;1.3950;
700.8000;0.2597;1.3750;
701.1000;0.2548;1.3750;
701.4000;0.2597;1.3800;
701.7000;0.2662;1.3950;
702.0000;0.2605;1.3825;
702.3000;0.2654;1.3950;
702.6000;0.2580;1.3625;
702.9000;0.2597;1.3550;
703.2000;0.2580;1.3474;
703.5000;0.2548;1.3324;
703.8000;0.2621;1.3550;
704.1000;0.2580;1.3449;
704.4000;0.2572;1.3474;
704.7000;0.2613;1.3650;
705.0000;0.2450;1.3249;
705.3000;0.2605;1.3700;
705.6000;0.2532;1.3474;
705.9000;0.2597;1.3600;
706.2000;0.2646;1.3775;
706.5000;0.2564;1.3700;
706.8000;0.2597;1.3800;
707.1000;0.2621;1.3750;
707.4000;0.2605;1.3675;
707.7000;0.2589;1.3675;
708.0000;0.2605;1.3800;
708.3000;0.2589;1.3700;
708.6000;0.2654;1.3825;
708.9000;0.2629;1.3700;
709.2000;0.2646;1.3725;
709.5000;0.2564;1.3449;
709.8000;0.2597;1.3550;
710.1000;0.2564;1.3499;
710.4000;0.2580;1.3550;
710.7000;0.2589;1.3650;
711.0000;0.2613;1.3625;
711.3000;0.2580;1.3550;
711.6000;0.2572;1.3499;
711.9000;0.2605;1.3525;
712.2000;0.2605;1.3424;
712.5000;0.2556;1.3299;
712.8000;0.2572;1.3424;
713.1000;0.2580;1.3449;
713.4000;0.2621;1.3600;
713.7000;0.2589;1.3550;
714.0000;0.2613;1.3575;
714.3000;0.2580;1.3499;
714.6000;0.2580;1.3374;
714.9000;0.2597;1.3374;
715.2000;0.2589;1.3399;
715.5000;0.2605;1.3449;
715.8000;0.2597;1.3424;
716.1000;0.2621;1.3449;
716.4000;0.2597;1.3399;
716.7000;0.2605;1.3449;
717.0000;0.2621;1.3474;
717.3000;0.2580;1.3399;
717.6000;0.2670;1.3675;
717.9000;0.2621;1.3675;
718.2000;0.2605;1.3575;
718.5000;0.2605;1.3575;
718.8000;0.2589;1.3499;
719.1000;0.2564;1.3474;
719.4000;0.2564;1.3499;
719.7000;0.2580;1.3550;
720.0000;0.2597;1.3499;
720.3000;0.2597;1.3499;
720.6000;0.2629;1.3474;
720.9000;0.2597;1.3399;
721.2000;0.2572;1.3349;
721.5000;0.2589;1.3424;
721.8000;0.2613;1.3625;
722.1000;0.2686;1.3875;
722.4000;0.2589;1.3600;
722.7000;0.2605;1.3525;
723.0000;0.2694;1.3725;
723.3000;0.2597;1.3550;
723.6000;0.2580;1.3525;
723.9000;0.2589;1.3474;
724.2000;0.2580;1.3550;
724.5000;0.2629;1.3675;
724.8000;0.2613;1.3625;
725.1000;0.2629;1.3650;
725.4000;0.2548;1.3449;
725.7000;0.2540;1.3525;
726.0000;0.2580;1.3600;
726.3000;0.2597;1.3600;
726.6000;0.2621;1.3750;
726.9000;0.2515;1.3499;
727.2000;0.2686;1.3925;
727.5000;0.2662;1.3875;
727.8000;0.2572;1.3650;
728.1000;0.2589;1.3800;
728.4000;0.2605;1.3850;
728.7000;0.2605;1.3900;
729.0000;0.2589;1.3825;
729.3000;0.2613;1.3975;
729.6000;0.2548;1.3850;
729.9000;0.2613;1.3925;
730.2000;0.2605;1.3925;
730.5000;0.2580;1.3925;
730.8000;0.2613;1.3950;
731.1000;0.2670;1.4151;
731.4000;0.2621;1.3975;
731.7000;0.2580;1.3875;
732.0000;0.2605;1.3850;
732.3000;0.2613;1.3875;
732.6000;0.2580;1.3725;
732.9000;0.2572;1.3650;
733.2000;0.2572;1.3675;
733.5000;0.2589;1.3625;
733.8000;0.2605;1.3700;
734.1000;0.2605;1.3700;
734.4000;0.2515;1.3449;
734.7000;0.2580;1.3675;
735.0000;0.2621;1.3875;
735.3000;0.2597;1.3850;
735.6000;0.2597;1.3750;
735.9000;0.2613;1.3750;
736.2000;0.2629;1.3750;
736.5000;0.2629;1.3725;
736.8000;0.2589;1.3650;
737.1000;0.2589;1.3625;
737.4000;0.2629;1.3700;
737.7000;0.2613;1.3625;
738.0000;0.2589;1.3650;
738.3000;0.2613;1.3700;
738.6000;0.2605;1.3750;
738.9000;0.2597;1.3675;
739.2000;0.2572;1.3600;
739.5000;0.2654;1.3700;
739.8000;0.2597;1.3575;
740.1000;0.2621;1.3600;
740.4000;0.2605;1.3625;
740.7000;0.2613;1.3625;
741.0000;0.2564;1.3525;
741.3000;0.2580;1.3550;
741.6000;0.2523;1.3399;
741.9000;0.2589;1.3525;
742.2000;0.2580;1.3474;
742.5000;0.2589;1.3575;
742.8000;0.2589;1.3575;
743.1000;0.2556;1.3575;
743.4000;0.2507;1.3424;
743.7000;0.2597;1.3625;
744.0000;0.2597;1.3800;
744.3000;0.2572;1.3825;
744.6000;0.2589;1.3925;
744.9000;0.2548;1.3775;
745.2000;0.2613;1.3975;
745.5000;0.2580;1.3925;
745.8000;0.2613;1.3975;
746.1000;0.2662;1.4050;
746.4000;0.2597;1.3825;
746.7000;0.2564;1.3800;
747.0000;0.2572;1.3825;
747.3000;0.2597;1.3875;
747.6000;0.2597;1.3900;
747.9000;0.2580;1.3875;
748.2000;0.2589;1.3775;
748.5000;0.2605;1.3775;
748.8000;0.2613;1.3725;
749.1000;0.2597;1.3700;
749.4000;0.2580;1.3800;
749.7000;0.2589;1.3825;
750.0000;0.2556;1.3725;
750.3000;0.2580;1.3775;
750.6000;0.2597;1.3800;
750.9000;0.2670;1.4025;
751.2000;0.2605;1.3800;
751.5000;0.2597;1.3750;
751.8000;0.2589;1.3750;
752.1000;0.2572;1.3675;
752.4000;0.2564;1.3650;
752.7000;0.2597;1.3725;
753.0000;0.2605;1.3725;
753.3000;0.2605;1.3675;
753.6000;0.2597;1.3650;
753.9000;0.2597;1.3750;
754.2000;0.2719;1.4151;
754.5000;0.2621;1.3725;
754.8000;0.2589;1.3600;
755.1000;0.2491;1.3399;
755.4000;0.2523;1.3449;
755.7000;0.2589;1.3650;
756.0000;0.2564;1.3474;
756.3000;0.2597;1.3499;
756.6000;0.2597;1.3550;
756.9000;0.2621;1.3600;
757.2000;0.2580;1.3499;
757.5000;0.2580;1.3575;
757.8000;0.2589;1.3700;
758.1000;0.2613;1.3800;
758.4000;0.2564;1.3675;
758.7000;0.2621;1.3775;
759.0000;0.2605;1.3675;
759.3000;0.2605;1.3725;
759.6000;0.2646;1.3800;
759.9000;0.2605;1.3700;
760.2000;0.2605;1.3675;
760.5000;0.2580;1.3625;
760.8000;0.2597;1.3650;
761.1000;0.2597;1.3525;
761.4000;0.2605;1.3474;
761.7000;0.2613;1.3550;
762.0000;0.2597;1.3575;
762.3000;0.2629;1.3675;
762.6000;0.2564;1.3600;
762.9000;0.2597;1.3750;
763.2000;0.2589;1.3700;
763.5000;0.2580;1.3650;
763.8000;0.2605;1.3725;
764.1000;0.2597;1.3625;
764.4000;0.2613;1.3625;
764.7000;0.2605;1.3550;
765.0000;0.2613;1.3550;
765.3000;0.2597;1.3525;
765.6000;0.2613;1.3525;
765.9000;0.2662;1.3775;
766.2000;0.2605;1.3625;
766.5000;0.2605;1.3600;
766.8000;0.2613;1.3650;
767.1000;0.2515;1.3525;
767.4000;0.2572;1.3675;
767.7000;0.2605;1.3800;
768.0000;0.2613;1.3800;
768.3000;0.2580;1.3775;
768.6000;0.2686;1.4025;
768.9000;0.2589;1.3775;
769.2000;0.2597;1.3600;
769.5000;0.2613;1.3675;
769.8000;0.2597;1.3600;
770.1000;0.2686;1.3825;
770.4000;0.2564;1.3525;
770.7000;0.2589;1.3625;
771.0000;0.2605;1.3650;
771.3000;0.2597;1.3700;
771.6000;0.2589;1.3725;
771.9000;0.2613;1.3800;
772.2000;0.2589;1.3825;
772.5000;0.2572;1.3700;
772.8000;0.2580;1.3625;
773.1000;0.2523;1.3499;
773.4000;0.2589;1.3675;
773.7000;0.2580;1.3650;
774.0000;0.2597;1.3725;
774.3000;0.2597;1.3700;
774.6000;0.2605;1.3775;
774.9000;0.2580;1.3700;
775.2000;0.2646;1.3800;
775.5000;0.2621;1.3750;
775.8000;0.2613;1.3750;
776.1000;0.2515;1.3575;
776.4000;0.2572;1.3800;
776.7000;0.2548;1.3700;
777.0000;0.2646;1.4000;
777.3000;0.2621;1.3975;
777.6000;0.2621;1.3975;
777.9000;0.2662;1.4025;
778.2000;0.2597;1.3800;
778.5000;0.2580;1.3750;
778.8000;0.2694;1.4126;
779.1000;0.2597;1.3850;
779.4000;0.2613;1.3925;
779.7000;0.2597;1.3800;
780.0000;0.2605;1.3875;
780.3000;0.2548;1.3650;
780.6000;0.2597;1.3825;
780.9000;0.2572;1.3725;
781.2000;0.2589;1.3825;
781.5000;0.2564;1.3775;
781.8000;0.2589;1.3750;
782.1000;0.2572;1.3750;
782.4000;0.2605;1.3775;
782.7000;0.2589;1.3800;
783.0000;0.2597;1.3825;
783.3000;0.2589;1.3850;
783.6000;0.2540;1.3700;
783.9000;0.2646;1.3825;
784.2000;0.2589;1.3725;
784.5000;0.2572;1.3725;
784.8000;0.2597;1.3800;
785.1000;0.2540;1.3575;
785.4000;0.2597;1.3725;
785.7000;0.2597;1.3700;
786.0000;0.2580;1.3650;
786.3000;0.2621;1.3700;
786.6000;0.2589;1.3625;
786.9000;0.2605;1.3675;
787.2000;0.2613;1.3700;
787.5000;0.2678;1.3975;
787.8000;0.2580;1.3625;
788.1000;0.2589;1.3600;
788.4000;0.2580;1.3600;
788.7000;0.2515;1.3299;
789.0000;0.2621;1.3600;
789.3000;0.2597;1.3525;
789.6000;0.2572;1.3525;
789.9000;0.2605;1.3675;
790.2000;0.2580;1.3675;
790.5000;0.2589;1.3700;
790.8000;0.2605;1.3800;
791.1000;0.2621;1.3900;
791.4000;0.2580;1.3725;
791.7000;0.2580;1.3750;
792.0000;0.2580;1.3700;
792.3000;0.2629;1.3850;
792.6000;0.2662;1.4076;
792.9000;0.2580;1.3825;
793.2000;0.2597;1.3850;
793.5000;0.2580;1.3775;
793.8000;0.2580;1.3800;
794.1000;0.2556;1.3650;
794.4000;0.2678;1.4025;
794.7000;0.2613;1.3775;
795.0000;0.2589;1.3775;
795.3000;0.2605;1.3700;
795.6000;0.2629;1.3800;
795.9000;0.2621;1.3800;
796.2000;0.2589;1.3725;
796.5000;0.2613;1.3800;
796.8000;0.2605;1.3725;
797.1000;0.2556;1.3625;
797.4000;0.2580;1.3650;
797.7000;0.2523;1.3625;
798.0000;0.2572;1.3750;
798.3000;0.2613;1.3800;
798.6000;0.2621;1.3700;
798.9000;0.2597;1.3675;
799.2000;0.2572;1.3600;
799.5000;0.2597;1.3600;
799.8000;0.2589;1.3600;
800.1000;0.2637;1.3750;
800.4000;0.2662;1.3900;
800.7000;0.2589;1.3725;
801.0000;0.2580;1.3675;
801.3000;0.2589;1.3750;
801.6000;0.2580;1.3800;
801.9000;0.2589;1.3850;
802.2000;0.2597;1.3925;
802.5000;0.2605;1.4076;
802.8000;0.2605;1.4101;
803.1000;0.2564;1.3900;
803.4000;0.2629;1.4000;
803.7000;0.2605;1.3800;
804.0000;0.2613;1.3775;
804.3000;0.2597;1.3750;
804.6000;0.2597;1.3800;
804.9000;0.2621;1.3825;
805.2000;0.2597;1.3825;
805.5000;0.2662;1.4025;
805.8000;0.2605;1.3875;
806.1000;0.2580;1.3775;
806.4000;0.2589;1.3725;
806.7000;0.2580;1.3725;
807.0000;0.2589;1.3825;
807.3000;0.2572;1.3750;
807.6000;0.2613;1.3800;
807.9000;0.2572;1.3700;
808.2000;0.2605;1.3800;
808.5000;0.2564;1.3750;
808.8000;0.2621;1.3825;
809.1000;0.2572;1.3725;
809.4000;0.2589;1.3825;
809.7000;0.2662;1.4101;
810.0000;0.2621;1.3925;
810.3000;0.2597;1.3800;
810.6000;0.2654;1.3850;
810.9000;0.2605;1.3775;
811.2000;0.2629;1.3800;
811.5000;0.2597;1.3650;
811.8000;0.2597;1.3625;
812.1000;0.2597;1.3650;
812.4000;0.2678;1.3900;
812.7000;0.2751;1.4226;
813.0000;0.2580;1.3825;
813.3000;0.2605;1.3800;
813.6000;0.2540;1.3625;
813.9000;0.2597;1.3850;
814.2000;0.2589;1.3775;
814.5000;0.2597;1.3725;
814.8000;0.2572;1.3625;
815.1000;0.2572;1.3550;
815.4000;0.2621;1.3700;
815.7000;0.2589;1.3625;
816.0000;0.2605;1.3650;
816.3000;0.2572;1.3575;
816.6000;0.2580;1.3600;
816.9000;0.2589;1.3550;
817.2000;0.2597;1.3575;
817.5000;0.2621;1.3675;
817.8000;0.2605;1.3775;
818.1000;0.2548;1.3600;
818.4000;0.2580;1.3650;
818.7000;0.2580;1.3650;
819.0000;0.2589;1.3575;
819.3000;0.2466;1.3299;
819.6000;0.2589;1.3700;
819.9000;0.2572;1.3675;
820.2000;0.2540;1.3600;
820.5000;0.2580;1.3675;
820.8000;0.2580;1.3675;
821.1000;0.2580;1.3750;
821.4000;0.2523;1.3525;
821.7000;0.2613;1.3775;
822.0000;0.2589;1.3650;
822.3000;0.2580;1.3650;
822.6000;0.2605;1.3875;
822.9000;0.2589;1.3850;
823.2000;0.2654;1.4076;
823.5000;0.2589;1.3825;
823.8000;0.2605;1.3900;
824.1000;0.2605;1.3900;
824.4000;0.2515;1.3675;
824.7000;0.2548;1.3700;
825.0000;0.2613;1.3875;
825.3000;0.2572;1.3700;
825.6000;0.2597;1.3700;
825.9000;0.2597;1.3650;
826.2000;0.2507;1.3349;
826.5000;0.2605;1.3650;
826.8000;0.2589;1.3725;
827.1000;0.2597;1.3800;
827.4000;0.2678;1.4025;
827.7000;0.2621;1.3900;
828.0000;0.2589;1.3925;
828.3000;0.2589;1.3875;
828.6000;0.2605;1.3975;
828.9000;0.2589;1.3950;
829.2000;0.2637;1.4126;
829.5000;0.2597;1.4000;
829.8000;0.2605;1.3975;
830.1000;0.2597;1.3875;
830.4000;0.2629;1.3925;
830.7000;0.2597;1.3800;
831.0000;0.2589;1.3850;
831.3000;0.2597;1.3825;
831.6000;0.2597;1.3850;
831.9000;0.2613;1.3900;
832.2000;0.2532;1.3675;
832.5000;0.2621;1.3825;
832.8000;0.2629;1.3875;
833.1000;0.2613;1.3775;
833.4000;0.2711;1.4101;
833.7000;0.2564;1.3800;
834.0000;0.2637;1.3975;
834.3000;0.2621;1.3950;
834.6000;0.2646;1.3975;
834.9000;0.2589;1.3800;
835.2000;0.2621;1.3925;
835.5000;0.2597;1.3925;
835.8000;0.2613;1.3875;
836.1000;0.2515;1.3700;
836.4000;0.2670;1.4076;
836.7000;0.2556;1.3800;
837.0000;0.2589;1.3825;
837.3000;0.2580;1.3650;
837.6000;0.2686;1.3900;
837.9000;0.2572;1.3550;
838.2000;0.2515;1.3349;
838.5000;0.2589;1.3600;
838.8000;0.2637;1.3750;
839.1000;0.2662;1.3825;
839.4000;0.2589;1.3600;
839.7000;0.2621;1.3650;
840.0000;0.2572;1.3550;
840.3000;0.2662;1.3725;
840.6000;0.2621;1.3550;
840.9000;0.2580;1.3625;
841.2000;0.2564;1.3675;
841.5000;0.2597;1.3775;
841.8000;0.2621;1.3875;
842.1000;0.2613;1.3900;
842.4000;0.2613;1.3950;
842.7000;0.2605;1.3900;
843.0000;0.2597;1.3925;
843.3000;0.2621;1.3975;
843.6000;0.2621;1.3975;
843.9000;0.2597;1.3825;
844.2000;0.2662;1.4101;
844.5000;0.2597;1.3925;
844.8000;0.2605;1.3825;
845.1000;0.2597;1.3850;
845.4000;0.2597;1.3925;
845.7000;0.2597;1.4000;
846.0000;0.2621;1.4000;
846.3000;0.2613;1.3950;
846.6000;0.2629;1.4025;
846.9000;0.2589;1.3900;
847.2000;0.2597;1.3950;
847.5000;0.2580;1.3925;
847.8000;0.2580;1.3900;
848.1000;0.2564;1.3900;
848.4000;0.2597;1.3975;
848.7000;0.2572;1.3925;
849.0000;0.2572;1.3875;
849.3000;0.2702;1.4276;
849.6000;0.2589;1.3900;
849.9000;0.2548;1.3700;
850.2000;0.2580;1.3750;
850.5000;0.2597;1.3750;
850.8000;0.2629;1.3775;
851.1000;0.2572;1.3650;
851.4000;0.2491;1.3424;
851.7000;0.2564;1.3625;
852.0000;0.2589;1.3700;
852.3000;0.2589;1.3800;
852.6000;0.2597;1.3800;
852.9000;0.2613;1.3825;
853.2000;0.2597;1.3725;
853.5000;0.2597;1.3800;
853.8000;0.2580;1.3850;
854.1000;0.2564;1.3900;
854.4000;0.2646;1.4025;
854.7000;0.2580;1.4025;
855.0000;0.2597;1.4025;
855.3000;0.2589;1.4025;
855.6000;0.2637;1.4076;
855.9000;0.2605;1.3925;
856.2000;0.2621;1.3975;
856.5000;0.2597;1.4025;
856.8000;0.2621;1.4000;
857.1000;0.2597;1.3925;
857.4000;0.2605;1.3950;
857.7000;0.2605;1.3925;
858.0000;0.2589;1.3850;
858.3000;0.2572;1.3875;
858.6000;0.2702;1.4176;
858.9000;0.2597;1.3950;
859.2000;0.2613;1.4000;
859.5000;0.2532;1.3750;
859.8000;0.2654;1.4050;
860.1000;0.2589;1.3850;
860.4000;0.2556;1.3850;
860.7000;0.2597;1.3925;
861.0000;0.2597;1.4000;
861.3000;0.2572;1.3825;
861.6000;0.2605;1.3925;
861.9000;0.2613;1.3975;
862.2000;0.2605;1.4000;
862.5000;0.2621;1.4000;
862.8000;0.2580;1.3975;
863.1000;0.2580;1.3875;
863.4000;0.2637;1.3950;
863.7000;0.2572;1.3875;
864.0000;0.2597;1.3925;
864.3000;0.2613;1.3900;
864.6000;0.2605;1.3850;
864.9000;0.2597;1.3875;
865.2000;0.2678;1.4050;
865.5000;0.2605;1.3825;
865.8000;0.2605;1.3875;
866.1000;0.2646;1.4050;
866.4000;0.2556;1.3825;
866.7000;0.2580;1.3850;
867.0000;0.2621;1.3875;
867.3000;0.2613;1.3825;
867.6000;0.2613;1.3825;
867.9000;0.2580;1.3750;
868.2000;0.2694;1.4101;
868.5000;0.2580;1.3775;
868.8000;0.2597;1.3875;
869.1000;0.2515;1.3800;
869.4000;0.2613;1.4000;
869.7000;0.2597;1.3900;
870.0000;0.2597;1.3925;
870.3000;0.2629;1.3950;
870.6000;0.2580;1.3750;
870.9000;0.2605;1.3825;
871.2000;0.2613;1.3825;
871.5000;0.2548;1.3650;
871.8000;0.2605;1.3950;
872.1000;0.2605;1.3975;
872.4000;0.2580;1.3875;
872.7000;0.2589;1.3825;
873.0000;0.2580;1.3725;
873.3000;0.2597;1.3800;
873.6000;0.2597;1.3875;
873.9000;0.2686;1.4126;
874.2000;0.2629;1.4000;
874.5000;0.2629;1.4025;
874.8000;0.2613;1.4000;
875.1000;0.2589;1.3950;
875.4000;0.2572;1.3950;
875.7000;0.2605;1.3925;
876.0000;0.2589;1.3850;
876.3000;0.2654;1.4000;
876.6000;0.2613;1.3850;
876.9000;0.2613;1.3825;
877.2000;0.2613;1.3775;
877.5000;0.2621;1.3850;
877.8000;0.2597;1.3850;
878.1000;0.2613;1.3900;
878.4000;0.2605;1.3875;
878.7000;0.2589;1.3750;
879.0000;0.2572;1.3800;
879.3000;0.2605;1.3825;
879.6000;0.2597;1.3800;
879.9000;0.2589;1.3775;
880.2000;0.2621;1.3875;
880.5000;0.2580;1.3850;
880.8000;0.2621;1.3925;
881.1000;0.2637;1.4025;
881.4000;0.2613;1.4050;
881.7000;0.2646;1.3950;
882.0000;0.2605;1.3800;
882.3000;0.2589;1.3750;
882.6000;0.2589;1.3800;
882.9000;0.2605;1.3950;
883.2000;0.2589;1.3950;
883.5000;0.2580;1.3850;
883.8000;0.2613;1.3825;
884.1000;0.2597;1.3775;
884.4000;0.2597;1.3775;
884.7000;0.2458;1.3324;
885.0000;0.2605;1.3700;
885.3000;0.2556;1.3625;
885.6000;0.2637;1.3900;
885.9000;0.2621;1.3850;
886.2000;0.2605;1.3875;
886.5000;0.2605;1.3825;
886.8000;0.2597;1.3775;
887.1000;0.2605;1.3775;
887.4000;0.2605;1.3825;
887.7000;0.2589;1.3925;
888.0000;0.2556;1.3675;
888.3000;0.2605;1.3725;
888.6000;0.2605;1.3650;
888.9000;0.2605;1.3675;
889.2000;0.2564;1.3575;
889.5000;0.2613;1.3625;
889.8000;0.2597;1.3525;
890.1000;0.2613;1.3525;
890.4000;0.2637;1.3625;
890.7000;0.2556;1.3449;
891.0000;0.2654;1.3775;
891.3000;0.2589;1.3575;
891.6000;0.2605;1.3525;
891.9000;0.2597;1.3499;
892.2000;0.2637;1.3550;
892.5000;0.2613;1.3575;
892.8000;0.2605;1.3550;
893.1000;0.2637;1.3675;
893.4000;0.2580;1.3550;
893.7000;0.2654;1.3775;
894.0000;0.2670;1.3775;
894.3000;0.2621;1.3625;
894.6000;0.2613;1.3575;
894.9000;0.2613;1.3575;
895.2000;0.2646;1.3600;
895.5000;0.2629;1.3550;
895.8000;0.2597;1.3474;
896.1000;0.2450;1.3099;
896.4000;0.2629;1.3725;
896.7000;0.2613;1.3700;
897.0000;0.2597;1.3725;
897.3000;0.2670;1.4000;
897.6000;0.2580;1.3700;
897.9000;0.2589;1.3650;
898.2000;0.2564;1.3600;
898.5000;0.2597;1.3700;
898.8000;0.2597;1.3800;
899.1000;0.2597;1.3825;
899.4000;0.2597;1.3800;
899.7000;0.2589;1.3800;
900.0000;0.2580;1.3775;
900.3000;0.2621;1.3900;
900.6000;0.2572;1.3900;
900.9000;0.2589;1.4050;
901.2000;0.2621;1.4126;
901.5000;0.2597;1.4176;
901.8000;0.2613;1.4000;
902.1000;0.2580;1.4000;
902.4000;0.2597;1.3925;
902.7000;0.2621;1.4025;
903.0000;0.2629;1.3950;
903.3000;0.2572;1.3700;
903.6000;0.2589;1.3750;
903.9000;0.2605;1.3700;
904.2000;0.2589;1.3600;
904.5000;0.2572;1.3525;
904.8000;0.2597;1.3650;
905.1000;0.2597;1.3750;
905.4000;0.2621;1.3800;
905.7000;0.2605;1.3750;
906.0000;0.2597;1.3775;
906.3000;0.2629;1.3775;
906.6000;0.2556;1.3525;
906.9000;0.2572;1.3625;
907.2000;0.2597;1.3650;
907.5000;0.2605;1.3650;
907.8000;0.2678;1.3875;
908.1000;0.2621;1.3725;
908.4000;0.2621;1.3675;
908.7000;0.2589;1.3650;
909.0000;0.2686;1.3900;
909.3000;0.2434;1.3099;
909.6000;0.2572;1.3474;
909.9000;0.2621;1.3525;
910.2000;0.2662;1.3775;
910.5000;0.2605;1.3625;
910.8000;0.2580;1.3675;
911.1000;0.2548;1.3499;
911.4000;0.2613;1.3650;
911.7000;0.2670;1.3925;
912.0000;0.2605;1.3650;
912.3000;0.2556;1.3449;
912.6000;0.2564;1.3449;
912.9000;0.2589;1.3449;
913.2000;0.2597;1.3550;
913.5000;0.2662;1.3750;
913.8000;0.2572;1.3525;
914.1000;0.2605;1.3600;
914.4000;0.2662;1.3750;
914.7000;0.2613;1.3675;
915.0000;0.2629;1.3700;
915.3000;0.2589;1.3650;
915.6000;0.2605;1.3600;
915.9000;0.2613;1.3499;
916.2000;0.2621;1.3600;
916.5000;0.2629;1.3525;
916.8000;0.2605;1.3424;
917.1000;0.2621;1.3449;
917.4000;0.2597;1.3399;
917.7000;0.2605;1.3374;
918.0000;0.2621;1.3399;
918.3000;0.2629;1.3449;
918.6000;0.2605;1.3374;
918.9000;0.2589;1.3424;
919.2000;0.2621;1.3625;
919.5000;0.2613;1.3625;
919.8000;0.2597;1.3625;
920.1000;0.2621;1.3675;
920.4000;0.2597;1.3625;
920.7000;0.2589;1.3700;
921.0000;0.2605;1.3650;
921.3000;0.2605;1.3625;
921.6000;0.2629;1.3700;
921.9000;0.2613;1.3650;
922.2000;0.2580;1.3474;
922.5000;0.2613;1.3600;
922.8000;0.2613;1.3600;
923.1000;0.2483;1.3249;
923.4000;0.2605;1.3550;
923.7000;0.2580;1.3449;
924.0000;0.2597;1.3550;
924.3000;0.2540;1.3449;
924.6000;0.2589;1.3575;
924.9000;0.2605;1.3550;
925.2000;0.2597;1.3499;
925.5000;0.2605;1.3550;
925.8000;0.2605;1.3575;
926.1000;0.2621;1.3650;
926.4000;0.2646;1.3625;
926.7000;0.2662;1.3700;
927.0000;0.2589;1.3474;
927.3000;0.2613;1.3700;
927.6000;0.2589;1.3650;
927.9000;0.2621;1.3700;
928.2000;0.2613;1.3675;
928.5000;0.2523;1.3424;
928.8000;0.2751;1.4025;
929.1000;0.2548;1.3499;
929.4000;0.2572;1.3550;
929.7000;0.2605;1.3575;
930.0000;0.2597;1.3650;
930.3000;0.2589;1.3625;
930.6000;0.2580;1.3650;
930.9000;0.2580;1.3750;
931.2000;0.2572;1.3625;
931.5000;0.2589;1.3700;
931.8000;0.2605;1.3800;
932.1000;0.2613;1.3800;
932.4000;0.2621;1.3825;
932.7000;0.2605;1.3825;
933.0000;0.2572;1.3725;
933.3000;0.2613;1.3825;
933.6000;0.2580;1.3725;
933.9000;0.2589;1.3725;
934.2000;0.2613;1.3800;
934.5000;0.2580;1.3750;
934.8000;0.2613;1.3850;
935.1000;0.2597;1.3750;
935.4000;0.2580;1.3750;
935.7000;0.2580;1.3775;
936.0000;0.2605;1.3850;
936.3000;0.2670;1.3950;
936.6000;0.2580;1.3675;
936.9000;0.2613;1.3750;
937.2000;0.2564;1.3650;
937.5000;0.2580;1.3675;
937.8000;0.2589;1.3675;
938.1000;0.2605;1.3725;
938.4000;0.2597;1.3725;
938.7000;0.2613;1.3725;
939.0000;0.2597;1.3725;
939.3000;0.2605;1.3775;
939.6000;0.2580;1.3650;
939.9000;0.2613;1.3750;
940.2000;0.2605;1.3700;
940.5000;0.2597;1.3750;
940.8000;0.2572;1.3750;
941.1000;0.2646;1.3975;
941.4000;0.2686;1.4025;
941.7000;0.2629;1.3750;
942.0000;0.2605;1.3474;
942.3000;0.2597;1.3324;
942.6000;0.2589;1.3249;
942.9000;0.2597;1.3249;
943.2000;0.2605;1.3374;
943.5000;0.2613;1.3399;
943.8000;0.2605;1.3474;
944.1000;0.2597;1.3550;
944.4000;0.2589;1.3575;
944.7000;0.2613;1.3675;
945.0000;0.2605;1.3675;
945.3000;0.2580;1.3600;
945.6000;0.2580;1.3625;
945.9000;0.2613;1.3675;
946.2000;0.2621;1.3625;
946.5000;0.2605;1.3499;
946.8000;0.2605;1.3499;
947.1000;0.2605;1.3499;
947.4000;0.2564;1.3424;
947.7000;0.2621;1.3575;
948.0000;0.2597;1.3474;
948.3000;0.2621;1.3525;
948.6000;0.2589;1.3499;
948.9000;0.2613;1.3575;
949.2000;0.2564;1.3499;
949.5000;0.2613;1.3575;
949.8000;0.2670;1.3775;
950.1000;0.2605;1.3650;
950.4000;0.2580;1.3650;
950.7000;0.2613;1.3650;
951.0000;0.2613;1.3700;
951.3000;0.2564;1.3625;
951.6000;0.2450;1.3349;
951.9000;0.2605;1.3700;
952.2000;0.2564;1.3499;
952.5000;0.2613;1.3675;
952.8000;0.2548;1.3600;
953.1000;0.2580;1.3725;
953.4000;0.2613;1.3650;
953.7000;0.2621;1.3700;
954.0000;0.2613;1.3700;
954.3000;0.2589;1.3550;
954.6000;0.2580;1.3550;
954.9000;0.2597;1.3650;
955.2000;0.2597;1.3675;
955.5000;0.2589;1.3700;
955.8000;0.2613;1.3850;
956.1000;0.2597;1.3775;
956.4000;0.2613;1.3750;
956.7000;0.2629;1.3900;
957.0000;0.2605;1.3950;
957.3000;0.2662;1.4050;
957.6000;0.2589;1.3850;
957.9000;0.2621;1.3900;
958.2000;0.2670;1.4025;
958.5000;0.2613;1.3975;
958.8000;0.2678;1.4176;
959.1000;0.2580;1.3900;
959.4000;0.2580;1.3825;
959.7000;0.2597;1.3800;
960.0000;0.2564;1.3600;
960.3000;0.2702;1.4000;
960.6000;0.2589;1.3775;
960.9000;0.2597;1.3775;
961.2000;0.2589;1.3750;
961.5000;0.2589;1.3750;
961.8000;0.2589;1.3725;
962.1000;0.2580;1.3750;
962.4000;0.2597;1.3800;
962.7000;0.2597;1.3775;
963.0000;0.2605;1.3825;
963.3000;0.2621;1.3875;
963.6000;0.2556;1.3750;
963.9000;0.2597;1.3900;
964.2000;0.2605;1.3925;
964.5000;0.2597;1.4050;
964.8000;0.2556;1.3925;
965.1000;0.2580;1.4000;
965.4000;0.2662;1.4126;
965.7000;0.2637;1.4076;
966.0000;0.2662;1.4226;
966.3000;0.2466;1.3675;
966.6000;0.2580;1.3975;
966.9000;0.2613;1.3975;
967.2000;0.2629;1.4025;
967.5000;0.2556;1.3900;
967.8000;0.2613;1.3925;
968.1000;0.2662;1.3925;
968.4000;0.2556;1.3600;
968.7000;0.2597;1.3875;
969.0000;0.2605;1.3900;
969.3000;0.2580;1.3900;
969.6000;0.2597;1.3975;
969.9000;0.2719;1.4276;
970.2000;0.2597;1.3900;
970.5000;0.2580;1.3750;
970.8000;0.2605;1.3725;
971.1000;0.2589;1.3675;
971.4000;0.2694;1.3950;
971.7000;0.2589;1.3675;
972.0000;0.2605;1.3675;
972.3000;0.2621;1.3750;
972.6000;0.2613;1.3850;
972.9000;0.2597;1.3850;
973.2000;0.2629;1.4025;
973.5000;0.2719;1.4226;
973.8000;0.2589;1.3900;
974.1000;0.2613;1.3950;
974.4000;0.2613;1.3900;
974.7000;0.2564;1.3750;
975.0000;0.2597;1.3825;
975.3000;0.2589;1.3850;
975.6000;0.2605;1.3875;
975.9000;0.2572;1.3775;
976.2000;0.2589;1.3850;
976.5000;0.2605;1.3825;
976.8000;0.2613;1.3800;
977.1000;0.2597;1.3775;
977.4000;0.2589;1.3700;
977.7000;0.2637;1.3775;
978.0000;0.2670;1.3950;
978.3000;0.2613;1.3800;
978.6000;0.2597;1.3725;
978.9000;0.2605;1.3725;
979.2000;0.2637;1.3850;
979.5000;0.2580;1.3675;
979.8000;0.2572;1.3800;
980.1000;0.2605;1.3950;
980.4000;0.2605;1.3825;
980.7000;0.2621;1.3850;
981.0000;0.2572;1.3750;
981.3000;0.2564;1.3850;
981.6000;0.2613;1.3975;
981.9000;0.2597;1.3875;
982.2000;0.2589;1.3850;
982.5000;0.2621;1.3975;
982.8000;0.2646;1.4050;
983.1000;0.2556;1.3825;
983.4000;0.2605;1.3950;
983.7000;0.2597;1.3875;
984.0000;0.2719;1.4201;
984.3000;0.2613;1.3850;
984.6000;0.2507;1.3625;
984.9000;0.2589;1.3900;
985.2000;0.2694;1.4151;
985.5000;0.2597;1.3925;
985.8000;0.2580;1.3925;
986.1000;0.2613;1.3975;
986.4000;0.2564;1.3925;
986.7000;0.2621;1.3975;
987.0000;0.2613;1.3850;
987.3000;0.2580;1.3725;
987.6000;0.2589;1.3725;
987.9000;0.2572;1.3625;
988.2000;0.2589;1.3750;
988.5000;0.2580;1.3725;
988.8000;0.2597;1.3800;
989.1000;0.2621;1.3800;
989.4000;0.2621;1.3875;
989.7000;0.2605;1.3850;
990.0000;0.2540;1.3650;
990.3000;0.2572;1.3800;
990.6000;0.2613;1.3850;
990.9000;0.2629;1.3900;
991.2000;0.2580;1.3800;
991.5000;0.2654;1.4050;
991.8000;0.2597;1.3800;
992.1000;0.2597;1.3800;
992.4000;0.2597;1.3725;
992.7000;0.2605;1.3875;
993.0000;0.2580;1.3875;
993.3000;0.2613;1.3975;
993.6000;0.2580;1.3900;
993.9000;0.2662;1.4076;
994.2000;0.2597;1.3775;
994.5000;0.2597;1.3775;
994.8000;0.2605;1.3825;
995.1000;0.2605;1.3775;
995.4000;0.2589;1.3750;
995.7000;0.2613;1.3900;
996.0000;0.2597;1.3850;
996.3000;0.2605;1.3925;
996.6000;0.2605;1.3925;
996.9000;0.2597;1.3950;
997.2000;0.2572;1.3875;
997.5000;0.2605;1.3875;
997.8000;0.2670;1.4050;
998.1000;0.2613;1.3950;
998.4000;0.2597;1.3975;
998.7000;0.2605;1.3950;
999.0000;0.2597;1.4000;
999.3000;0.2613;1.4126;
999.6000;0.2548;1.3925;
999.9000;0.2589;1.3975;
1000.2000;0.2580;1.3900;
1000.5000;0.2589;1.3750;
1000.8000;0.2662;1.3850;
1001.1000;0.2605;1.3750;
1001.4000;0.2605;1.3625;
1001.7000;0.2589;1.3675;
1002.0000;0.2580;1.3600;
1002.3000;0.2646;1.3800;
1002.6000;0.2613;1.3750;
1002.9000;0.2597;1.3675;
1003.2000;0.2621;1.3800;
1003.5000;0.2621;1.3800;
1003.8000;0.2589;1.3725;
1004.1000;0.2572;1.3625;
1004.4000;0.2597;1.3700;
1004.7000;0.2589;1.3700;
1005.0000;0.2605;1.3675;
1005.3000;0.2654;1.3900;
1005.6000;0.2589;1.3800;
1005.9000;0.2515;1.3550;
1006.2000;0.2556;1.3675;
1006.5000;0.2613;1.3825;
1006.8000;0.2597;1.3850;
1007.1000;0.2629;1.3900;
1007.4000;0.2694;1.4076;
1007.7000;0.2605;1.3825;
1008.0000;0.2605;1.3850;
1008.3000;0.2646;1.4000;
1008.6000;0.2646;1.3925;
1008.9000;0.2597;1.3800;
1009.2000;0.2605;1.3750;
1009.5000;0.2597;1.3725;
1009.8000;0.2580;1.3750;
1010.1000;0.2621;1.3875;
1010.4000;0.2597;1.3725;
1010.7000;0.2613;1.3725;
1011.0000;0.2694;1.3900;
1011.3000;0.2605;1.3625;
1011.6000;0.2597;1.3550;
1011.9000;0.2613;1.3575;
1012.2000;0.2613;1.3650;
1012.5000;0.2654;1.3775;
1012.8000;0.2572;1.3575;
1013.1000;0.2597;1.3650;
1013.4000;0.2589;1.3650;
1013.7000;0.2613;1.3725;
1014.0000;0.2572;1.3650;
1014.3000;0.2589;1.3725;
1014.6000;0.2589;1.3775;
1014.9000;0.2605;1.3800;
1015.2000;0.2613;1.3800;
1015.5000;0.2580;1.3700;
1015.8000;0.2613;1.3850;
1016.1000;0.2621;1.3825;
1016.4000;0.2483;1.3449;
1016.7000;0.2597;1.3675;
1017.0000;0.2605;1.3650;
1017.3000;0.2605;1.3725;
1017.6000;0.2621;1.3700;
1017.9000;0.2613;1.3700;
1018.2000;0.2605;1.3675;
1018.5000;0.2597;1.3750;
1018.8000;0.2759;1.4176;
1019.1000;0.2637;1.3800;
1019.4000;0.2629;1.3725;
1019.7000;0.2646;1.3725;
1020.0000;0.2613;1.3675;
1020.3000;0.2646;1.3775;
1020.6000;0.2597;1.3650;
1020.9000;0.2605;1.3625;
1021.2000;0.2637;1.3750;
1021.5000;0.2613;1.3675;
1021.8000;0.2613;1.3675;
1022.1000;0.2572;1.3575;
1022.4000;0.2605;1.3750;
1022.7000;0.2589;1.3700;
1023.0000;0.2613;1.3675;
1023.3000;0.2564;1.3550;
1023.6000;0.2621;1.3750;
1023.9000;0.2556;1.3575;
1024.2000;0.2613;1.3775;
1024.5000;0.2564;1.3650;
1024.8000;0.2613;1.3675;
1025.1000;0.2621;1.3750;
1025.4000;0.2580;1.3600;
1025.7000;0.2613;1.3675;
1026.0000;0.2597;1.3625;
1026.3000;0.2621;1.3675;
1026.6000;0.2597;1.3625;
1026.9000;0.2597;1.3675;
1027.2000;0.2605;1.3600;
1027.5000;0.2613;1.3675;
1027.8000;0.2580;1.3575;
1028.1000;0.2597;1.3650;
1028.4000;0.2605;1.3725;
1028.7000;0.2613;1.3750;
1029.0000;0.2589;1.3725;
1029.3000;0.2540;1.3550;
1029.6000;0.2637;1.3775;
1029.9000;0.2589;1.3600;
1030.2000;0.2597;1.3525;
1030.5000;0.2556;1.3399;
1030.8000;0.2597;1.3575;
1031.1000;0.2629;1.3800;
1031.4000;0.2621;1.3775;
1031.7000;0.2605;1.3750;
1032.0000;0.2613;1.3775;
1032.3000;0.2523;1.3550;
1032.6000;0.2629;1.3925;
1032.9000;0.2597;1.3825;
1033.2000;0.2564;1.3750;
1033.5000;0.2605;1.3850;
1033.8000;0.2605;1.3800;
1034.1000;0.2629;1.3950;
1034.4000;0.2589;1.3900;
1034.7000;0.2629;1.4025;
1035.0000;0.2572;1.3850;
1035.3000;0.2523;1.3625;
1035.6000;0.2597;1.3875;
1035.9000;0.2605;1.3900;
1036.2000;0.2621;1.3925;
1036.5000;0.2597;1.3875;
1036.8000;0.2605;1.3950;
1037.1000;0.2589;1.3850;
1037.4000;0.2613;1.3850;
1037.7000;0.2629;1.3875;
1038.0000;0.2629;1.3775;
1038.3000;0.2597;1.3625;
1038.6000;0.2597;1.3625;
1038.9000;0.2613;1.3750;
1039.2000;0.2572;1.3700;
1039.5000;0.2589;1.3625;
1039.8000;0.2613;1.3700;
1040.1000;0.2613;1.3700;
1040.4000;0.2589;1.3675;
1040.7000;0.2605;1.3775;
1041.0000;0.2580;1.3725;
1041.3000;0.2613;1.3750;
1041.6000;0.2637;1.3800;
1041.9000;0.2613;1.3700;
1042.2000;0.2589;1.3675;
1042.5000;0.2580;1.3575;
1042.8000;0.2629;1.3474;
1043.1000;0.2662;1.3575;
1043.4000;0.2605;1.3449;
1043.7000;0.2597;1.3424;
1044.0000;0.2597;1.3525;
1044.3000;0.2637;1.3800;
1044.6000;0.2662;1.3900;
1044.9000;0.2540;1.3625;
1045.2000;0.2589;1.3725;
1045.5000;0.2507;1.3575;
1045.8000;0.2499;1.3550;
1046.1000;0.2589;1.3725;
1046.4000;0.2613;1.3650;
1046.7000;0.2613;1.3700;
1047.0000;0.2670;1.3825;
1047.3000;0.2621;1.3725;
1047.6000;0.2572;1.3525;
1047.9000;0.2597;1.3550;
1048.2000;0.2572;1.3449;
1048.5000;0.2597;1.3550;
1048.8000;0.2613;1.3700;
1049.1000;0.2589;1.3675;
1049.4000;0.2564;1.3600;
1049.7000;0.2597;1.3775;
1050.0000;0.2597;1.3825;
1050.3000;0.2466;1.3449;
1050.6000;0.2597;1.3800;
1050.9000;0.2589;1.3650;
1051.2000;0.2523;1.3474;
1051.5000;0.2621;1.3725;
1051.8000;0.2572;1.3499;
1052.1000;0.2613;1.3499;
1052.4000;0.2580;1.3474;
1052.7000;0.2613;1.3625;
1053.0000;0.2613;1.3650;
1053.3000;0.2605;1.3675;
1053.6000;0.2605;1.3600;
1053.9000;0.2613;1.3625;
1054.2000;0.2605;1.3650;
1054.5000;0.2597;1.3625;
1054.8000;0.2589;1.3499;
1055.1000;0.2589;1.3525;
1055.4000;0.2605;1.3625;
1055.7000;0.2580;1.3625;
1056.0000;0.2605;1.3775;
1056.3000;0.2580;1.3875;
1056.6000;0.2597;1.3925;
1056.9000;0.2613;1.3975;
1057.2000;0.2597;1.3950;
1057.5000;0.2613;1.3950;
1057.8000;0.2597;1.3925;
1058.1000;0.2621;1.3925;
1058.4000;0.2507;1.3600;
1058.7000;0.2589;1.3675;
1059.0000;0.2613;1.3725;
1059.3000;0.2613;1.3725;
1059.6000;0.2572;1.3725;
1059.9000;0.2589;1.3850;
1060.2000;0.2621;1.3875;
1060.5000;0.2654;1.3900;
1060.8000;0.2646;1.3950;
1061.1000;0.2605;1.3825;
1061.4000;0.2678;1.3900;
1061.7000;0.2605;1.3675;
1062.0000;0.2507;1.3449;
1062.3000;0.2605;1.3875;
1062.6000;0.2629;1.3925;
1062.9000;0.2523;1.3650;
1063.2000;0.2613;1.3825;
1063.5000;0.2646;1.3925;
1063.8000;0.2613;1.3850;
1064.1000;0.2589;1.3825;
1064.4000;0.2589;1.3825;
1064.7000;0.2580;1.3725;
1065.0000;0.2589;1.3675;
1065.3000;0.2580;1.3650;
1065.6000;0.2678;1.3900;
1065.9000;0.2605;1.3600;
1066.2000;0.2605;1.3625;
1066.5000;0.2621;1.3725;
1066.8000;0.2605;1.3725;
1067.1000;0.2694;1.3975;
1067.4000;0.2540;1.3525;
1067.7000;0.2637;1.3800;
1068.0000;0.2589;1.3700;
1068.3000;0.2621;1.3800;
1068.6000;0.2589;1.3675;
1068.9000;0.2515;1.3449;
1069.2000;0.2597;1.3700;
1069.5000;0.2572;1.3725;
1069.8000;0.2572;1.3625;
1070.1000;0.2678;1.3900;
1070.4000;0.2597;1.3725;
1070.7000;0.2597;1.3675;
1071.0000;0.2556;1.3600;
1071.3000;0.2589;1.3725;
1071.6000;0.2621;1.3725;
1071.9000;0.2564;1.3575;
1072.2000;0.2637;1.3725;
1072.5000;0.2621;1.3825;
1072.8000;0.2629;1.3850;
1073.1000;0.2515;1.3600;
1073.4000;0.2776;1.4251;
1073.7000;0.2605;1.3775;
1074.0000;0.2621;1.3775;
1074.3000;0.2548;1.3625;
1074.6000;0.2694;1.4025;
1074.9000;0.2572;1.3675;
1075.2000;0.2597;1.3750;
1075.5000;0.2613;1.3875;
1075.8000;0.2629;1.3850;
1076.1000;0.2605;1.3675;
1076.4000;0.2605;1.3725;
1076.7000;0.2605;1.3775;
1077.0000;0.2629;1.3800;
1077.3000;0.2597;1.3700;
1077.6000;0.2580;1.3675;
1077.9000;0.2589;1.3625;
1078.2000;0.2605;1.3700;
1078.5000;0.2613;1.3800;
1078.8000;0.2605;1.3725;
1079.1000;0.2580;1.3625;
1079.4000;0.2629;1.3675;
1079.7000;0.2613;1.3725;
1080.0000;0.2605;1.3625;
1080.3000;0.2589;1.3575;
1080.6000;0.2694;1.3900;
1080.9000;0.2613;1.3650;
1081.2000;0.2613;1.3725;
1081.5000;0.2589;1.3675;
1081.8000;0.2572;1.3775;
1082.1000;0.2613;1.3825;
1082.4000;0.2572;1.3825;
1082.7000;0.2621;1.3825;
1083.0000;0.2629;1.3800;
1083.3000;0.2743;1.4126;
1083.6000;0.2580;1.3675;
1083.9000;0.2605;1.3650;
1084.2000;0.2613;1.3700;
1084.5000;0.2605;1.3650;
1084.8000;0.2629;1.3675;
1085.1000;0.2605;1.3625;
1085.4000;0.2629;1.3625;
1085.7000;0.2613;1.3525;
1086.0000;0.2621;1.3550;
1086.3000;0.2629;1.3650;
1086.6000;0.2613;1.3600;
1086.9000;0.2589;1.3449;
1087.2000;0.2621;1.3550;
1087.5000;0.2613;1.3600;
1087.8000;0.2548;1.3449;
1088.1000;0.2613;1.3650;
1088.4000;0.2637;1.3700;
1088.7000;0.2613;1.3750;
1089.0000;0.2589;1.3650;
1089.3000;0.2605;1.3725;
1089.6000;0.2589;1.3775;
1089.9000;0.2597;1.3750;
1090.2000;0.2589;1.3700;
1090.5000;0.2613;1.3750;
1090.8000;0.2605;1.3675;
1091.1000;0.2646;1.3800;
1091.4000;0.2629;1.3675;
1091.7000;0.2613;1.3625;
1092.0000;0.2629;1.3700;
1092.3000;0.2621;1.3775;
1092.6000;0.2613;1.3825;
1092.9000;0.2694;1.4000;
1093.2000;0.2589;1.3725;
1093.5000;0.2605;1.3825;
1093.8000;0.2589;1.3850;
1094.1000;0.2613;1.3900;
1094.4000;0.2613;1.3875;
1094.7000;0.2613;1.3875;
1095.0000;0.2613;1.3925;
1095.3000;0.2629;1.3925;
1095.6000;0.2597;1.3825;
1095.9000;0.2759;1.4226;
1096.2000;0.2605;1.3825;
1096.5000;0.2589;1.3700;
1096.8000;0.2556;1.3650;
1097.1000;0.2605;1.3650;
1097.4000;0.2458;1.3274;
1097.7000;0.2605;1.3625;
1098.0000;0.2572;1.3625;
1098.3000;0.2613;1.3775;
1098.6000;0.2637;1.3850;
1098.9000;0.2605;1.3825;
1099.2000;0.2613;1.3825;
1099.5000;0.2589;1.3700;
1099.8000;0.2605;1.3700;
1100.1000;0.2589;1.3700;
1100.4000;0.2605;1.3750;
1100.7000;0.2654;1.3825;
1101.0000;0.2597;1.3650;
1101.3000;0.2613;1.3600;
1101.6000;0.2621;1.3550;
1101.9000;0.2629;1.3675;
1102.2000;0.2613;1.3700;
1102.5000;0.2605;1.3725;
1102.8000;0.2564;1.3550;
1103.1000;0.2580;1.3675;
1103.4000;0.2605;1.3650;
1103.7000;0.2654;1.3650;
1104.0000;0.2548;1.3399;
1104.3000;0.2580;1.3474;
1104.6000;0.2605;1.3424;
1104.9000;0.2580;1.3424;
1105.2000;0.2605;1.3550;
1105.5000;0.2580;1.3449;
1105.8000;0.2605;1.3525;
1106.1000;0.2597;1.3550;
1106.4000;0.2670;1.3700;
1106.7000;0.2613;1.3575;
1107.0000;0.2613;1.3700;
1107.3000;0.2597;1.3650;
1107.6000;0.2613;1.3750;
1107.9000;0.2580;1.3625;
1108.2000;0.2605;1.3600;
1108.5000;0.2662;1.3800;
1108.8000;0.2621;1.3650;
1109.1000;0.2605;1.3550;
1109.4000;0.2597;1.3474;
1109.7000;0.2589;1.3474;
1110.0000;0.2589;1.3600;
1110.3000;0.2597;1.3575;
1110.6000;0.2613;1.3550;
1110.9000;0.2613;1.3600;
1111.2000;0.2621;1.3575;
1111.5000;0.2605;1.3525;
1111.8000;0.2564;1.3324;
1112.1000;0.2621;1.3575;
1112.4000;0.2621;1.3525;
1112.7000;0.2629;1.3650;
1113.0000;0.2605;1.3575;
1113.3000;0.2605;1.3499;
1113.6000;0.2613;1.3525;
1113.9000;0.2532;1.3249;
1114.2000;0.2597;1.3525;
1114.5000;0.2597;1.3525;
1114.8000;0.2589;1.3700;
1115.1000;0.2646;1.3850;
1115.4000;0.2572;1.3499;
1115.7000;0.2580;1.3449;
1116.0000;0.2613;1.3499;
1116.3000;0.2613;1.3474;
1116.6000;0.2654;1.3650;
1116.9000;0.2613;1.3525;
1117.2000;0.2589;1.3474;
1117.5000;0.2589;1.3525;
1117.8000;0.2613;1.3600;
1118.1000;0.2629;1.3650;
1118.4000;0.2597;1.3650;
1118.7000;0.2629;1.3800;
1119.0000;0.2605;1.3775;
1119.3000;0.2564;1.3700;
1119.6000;0.2572;1.3625;
1119.9000;0.2621;1.3650;
1120.2000;0.2621;1.3600;
1120.5000;0.2629;1.3525;
1120.8000;0.2564;1.3399;
1121.1000;0.2597;1.3650;
1121.4000;0.2515;1.3550;
1121.7000;0.2605;1.3850;
1122.0000;0.2613;1.3825;
1122.3000;0.2613;1.3800;
1122.6000;0.2597;1.3825;
1122.9000;0.2637;1.3950;
1123.2000;0.2597;1.3800;
1123.5000;0.2580;1.3875;
1123.8000;0.2597;1.3800;
1124.1000;0.2613;1.3850;
1124.4000;0.2564;1.3725;
1124.7000;0.2613;1.3875;
1125.0000;0.2605;1.3700;
1125.3000;0.2597;1.3625;
1125.6000;0.2589;1.3750;
1125.9000;0.2597;1.3750;
1126.2000;0.2605;1.3850;
1126.5000;0.2589;1.3850;
1126.8000;0.2589;1.3950;
1127.1000;0.2597;1.3925;
1127.4000;0.2597;1.4000;
1127.7000;0.2621;1.4076;
1128.0000;0.2589;1.3950;
1128.3000;0.2580;1.3975;
1128.6000;0.2589;1.3975;
1128.9000;0.2605;1.3950;
1129.2000;0.2580;1.3850;
1129.5000;0.2621;1.3925;
1129.8000;0.2605;1.3900;
1130.1000;0.2605;1.3925;
1130.4000;0.2605;1.3975;
1130.7000;0.2597;1.3900;
1131.0000;0.2605;1.3875;
1131.3000;0.2613;1.3925;
1131.6000;0.2613;1.3900;
1131.9000;0.2597;1.3800;
1132.2000;0.2589;1.3750;
1132.5000;0.2507;1.3575;
1132.8000;0.2637;1.3900;
1133.1000;0.2589;1.3625;
1133.4000;0.2556;1.3525;
1133.7000;0.2613;1.3700;
1134.0000;0.2597;1.3650;
1134.3000;0.2605;1.3675;
1134.6000;0.2605;1.3625;
1134.9000;0.2572;1.3474;
1135.2000;0.2589;1.3575;
1135.5000;0.2711;1.3875;
1135.8000;0.2597;1.3525;
1136.1000;0.2613;1.3625;
1136.4000;0.2613;1.3575;
1136.7000;0.2580;1.3499;
1137.0000;0.2597;1.3575;
1137.3000;0.2597;1.3550;
1137.6000;0.2475;1.3274;
1137.9000;0.2694;1.3850;
1138.2000;0.2597;1.3650;
1138.5000;0.2605;1.3750;
1138.8000;0.2605;1.3750;
1139.1000;0.2759;1.4151;
1139.4000;0.2629;1.3825;
1139.7000;0.2580;1.3675;
1140.0000;0.2597;1.3725;
1140.3000;0.2597;1.3775;
1140.6000;0.2597;1.3825;
1140.9000;0.2621;1.3900;
1141.2000;0.2694;1.4126;
1141.5000;0.2605;1.3925;
1141.8000;0.2580;1.3850;
1142.1000;0.2589;1.3825;
1142.4000;0.2670;1.4025;
1142.7000;0.2589;1.3850;
1143.0000;0.2613;1.3925;
1143.3000;0.2613;1.3950;
1143.6000;0.2580;1.3875;
1143.9000;0.2589;1.3900;
1144.2000;0.2605;1.3900;
1144.5000;0.2605;1.3875;
1144.8000;0.2605;1.3800;
1145.1000;0.2589;1.3825;
1145.4000;0.2662;1.4076;
1145.7000;0.2637;1.4000;
1146.0000;0.2605;1.3950;
1146.3000;0.2605;1.3925;
1146.6000;0.2613;1.3900;
1146.9000;0.2621;1.3925;
1147.2000;0.2605;1.3975;
1147.5000;0.2597;1.3850;
1147.8000;0.2580;1.3775;
1148.1000;0.2629;1.3850;
1148.4000;0.2556;1.3725;
1148.7000;0.2597;1.3875;
1149.0000;0.2629;1.3925;
1149.3000;0.2580;1.3800;
1149.6000;0.2629;1.4000;
1149.9000;0.2613;1.3900;
1150.2000;0.2499;1.3550;
1150.5000;0.2621;1.3925;
1150.8000;0.2589;1.3900;
1151.1000;0.2605;1.3925;
1151.4000;0.2589;1.3850;
1151.7000;0.2613;1.3900;
1152.0000;0.2629;1.3900;
1152.3000;0.2605;1.3750;
1152.6000;0.2613;1.3650;
1152.9000;0.2629;1.3650;
1153.2000;0.2613;1.3725;
1153.5000;0.2605;1.3700;
1153.8000;0.2605;1.3700;
1154.1000;0.2678;1.3825;
1154.4000;0.2613;1.3775;
1154.7000;0.2637;1.3725;
1155.0000;0.2613;1.3675;
1155.3000;0.2597;1.3600;
1155.6000;0.2597;1.3600;
1155.9000;0.2621;1.3800;
1156.2000;0.2597;1.3825;
1156.5000;0.2613;1.3775;
1156.8000;0.2523;1.3525;
1157.1000;0.2605;1.3675;
1157.4000;0.2589;1.3650;
1157.7000;0.2605;1.3725;
1158.0000;0.2621;1.3750;
1158.3000;0.2605;1.3775;
1158.6000;0.2597;1.3750;
1158.9000;0.2613;1.3725;
1159.2000;0.2605;1.3700;
1159.5000;0.2621;1.3700;
1159.8000;0.2597;1.3725;
1160.1000;0.2589;1.3775;
1160.4000;0.2589;1.3700;
1160.7000;0.2597;1.3725;
1161.0000;0.2654;1.3875;
1161.3000;0.2613;1.3750;
1161.6000;0.2597;1.3750;
1161.9000;0.2564;1.3625;
1162.2000;0.2621;1.3800;
1162.5000;0.2572;1.3600;
1162.8000;0.2597;1.3700;
1163.1000;0.2662;1.3825;
1163.4000;0.2589;1.3700;
1163.7000;0.2597;1.3775;
1164.0000;0.2605;1.3775;
1164.3000;0.2629;1.3725;
1164.6000;0.2564;1.3525;
1164.9000;0.2564;1.3550;
1165.2000;0.2621;1.3675;
1165.5000;0.2580;1.3625;
1165.8000;0.2613;1.3725;
1166.1000;0.2678;1.3975;
1166.4000;0.2613;1.3775;
1166.7000;0.2597;1.3850;
1167.0000;0.2613;1.3850;
1167.3000;0.2613;1.3925;
1167.6000;0.2597;1.3875;
1167.9000;0.2613;1.3900;
1168.2000;0.2589;1.3900;
1168.5000;0.2613;1.3875;
1168.8000;0.2564;1.3850;
1169.1000;0.2572;1.3875;
1169.4000;0.2678;1.4101;
1169.7000;0.2605;1.3775;
1170.0000;0.2621;1.3800;
1170.3000;0.2597;1.3700;
1170.6000;0.2621;1.3700;
1170.9000;0.2621;1.3675;
1171.2000;0.2572;1.3550;
1171.5000;0.2572;1.3550;
1171.8000;0.2556;1.3499;
1172.1000;0.2597;1.3725;
1172.4000;0.2629;1.3875;
1172.7000;0.2556;1.3725;
1173.0000;0.2605;1.3775;
1173.3000;0.2597;1.3750;
1173.6000;0.2621;1.3800;
1173.9000;0.2605;1.3750;
1174.2000;0.2548;1.3575;
1174.5000;0.2597;1.3675;
1174.8000;0.2597;1.3725;
1175.1000;0.2532;1.3449;
1175.4000;0.2483;1.3424;
1175.7000;0.2629;1.3825;
1176.0000;0.2556;1.3700;
1176.3000;0.2556;1.3775;
1176.6000;0.2540;1.3625;
1176.9000;0.2613;1.3900;
1177.2000;0.2597;1.3800;
1177.5000;0.2613;1.3825;
1177.8000;0.2589;1.3850;
1178.1000;0.2629;1.3925;
1178.4000;0.2605;1.3875;
1178.7000;0.2572;1.3725;
1179.0000;0.2605;1.3750;
1179.3000;0.2629;1.3775;
1179.6000;0.2580;1.3675;
1179.9000;0.2654;1.4000;
1180.2000;0.2589;1.3850;
1180.5000;0.2589;1.3725;
1180.8000;0.2613;1.3825;
1181.1000;0.2589;1.3825;
1181.4000;0.2589;1.3825;
1181.7000;0.2670;1.3950;
1182.0000;0.2580;1.3675;
1182.3000;0.2621;1.3800;
1182.6000;0.2719;1.4076;
1182.9000;0.2597;1.3775;
1183.2000;0.2605;1.3725;
1183.5000;0.2621;1.3775;
1183.8000;0.2589;1.3675;
1184.1000;0.2589;1.3600;
1184.4000;0.2589;1.3650;
1184.7000;0.2621;1.3700;
1185.0000;0.2589;1.3675;
1185.3000;0.2597;1.3600;
1185.6000;0.2580;1.3600;
1185.9000;0.2751;1.4101;
1186.2000;0.2776;1.4201;
1186.5000;0.2621;1.3675;
1186.8000;0.2589;1.3625;
1187.1000;0.2556;1.3525;
1187.4000;0.2613;1.3650;
1187.7000;0.2613;1.3775;
1188.0000;0.2605;1.3775;
1188.3000;0.2605;1.3750;
1188.6000;0.2572;1.3600;
1188.9000;0.2646;1.3875;
1189.2000;0.2654;1.3825;
1189.5000;0.2572;1.3575;
1189.8000;0.2694;1.3900;
1190.1000;0.2605;1.3750;
1190.4000;0.2670;1.3825;
1190.7000;0.2589;1.3625;
1191.0000;0.2629;1.3725;
1191.3000;0.2621;1.3775;
1191.6000;0.2605;1.3700;
1191.9000;0.2483;1.3424;
1192.2000;0.2702;1.3950;
1192.5000;0.2597;1.3675;
1192.8000;0.2605;1.3650;
1193.1000;0.2621;1.3675;
1193.4000;0.2597;1.3625;
1193.7000;0.2597;1.3625;
1194.0000;0.2637;1.3650;
1194.3000;0.2597;1.3474;
1194.6000;0.2597;1.3525;
1194.9000;0.2605;1.3625;
1195.2000;0.2572;1.3550;
1195.5000;0.2613;1.3650;
1195.8000;0.2597;1.3650;
1196.1000;0.2597;1.3725;
1196.4000;0.2605;1.3750;
1196.7000;0.2654;1.3750;
1197.0000;0.2556;1.3625;
1197.3000;0.2572;1.3575;
1197.6000;0.2597;1.3700;
1197.9000;0.2540;1.3499;
1198.2000;0.2556;1.3550;
1198.5000;0.2589;1.3525;
1198.8000;0.2589;1.3499;
1199.1000;0.2532;1.3249;
1199.4000;0.2694;1.3700;
1199.7000;0.2613;1.3525;
1200.0000;0.2613;1.3550;
1200.3000;0.2613;1.3575;
1200.6000;0.2589;1.3625;
1200.9000;0.2605;1.3725;
1201.2000;0.2621;1.3850;
1201.5000;0.2613;1.3950;
1201.8000;0.2662;1.4076;
1202.1000;0.2605;1.3850;
1202.4000;0.2621;1.3875;
1202.7000;0.2613;1.3875;
1203.0000;0.2613;1.3875;
1203.3000;0.2629;1.3875;
1203.6000;0.2621;1.3850;
1203.9000;0.2613;1.3825;
1204.2000;0.2597;1.3750;
1204.5000;0.2637;1.3775;
1204.8000;0.2548;1.3525;
1205.1000;0.2580;1.3700;
1205.4000;0.2629;1.3725;
1205.7000;0.2621;1.3725;
1206.0000;0.2589;1.3575;
1206.3000;0.2605;1.3525;
1206.6000;0.2605;1.3575;
1206.9000;0.2670;1.3850;
1207.2000;0.2646;1.3675;
1207.5000;0.2629;1.3675;
1207.8000;0.2589;1.3600;
1208.1000;0.2589;1.3600;
1208.4000;0.2589;1.3550;
1208.7000;0.2613;1.3675;
1209.0000;0.2654;1.3775;
1209.3000;0.2613;1.3700;
1209.6000;0.2613;1.3750;
1209.9000;0.2564;1.3625;
1210.2000;0.2597;1.3825;
1210.5000;0.2597;1.3800;
1210.8000;0.2637;1.3950;
1211.1000;0.2605;1.3775;
1211.4000;0.2654;1.3825;
1211.7000;0.2572;1.3600;
1212.0000;0.2580;1.3550;
1212.3000;0.2646;1.3775;
1212.6000;0.2613;1.3625;
1212.9000;0.2613;1.3600;
1213.2000;0.2605;1.3625;
1213.5000;0.2605;1.3550;
1213.8000;0.2686;1.3775;
1214.1000;0.2613;1.3474;
1214.4000;0.2613;1.3474;
1214.7000;0.2613;1.3499;
1215.0000;0.2589;1.3474;
1215.3000;0.2613;1.3525;
1215.6000;0.2613;1.3575;
1215.9000;0.2670;1.3725;
1216.2000;0.2654;1.3750;
1216.5000;0.2621;1.3600;
1216.8000;0.2597;1.3525;
1217.1000;0.2605;1.3449;
1217.4000;0.2621;1.3499;
1217.7000;0.2613;1.3525;
1218.0000;0.2589;1.3449;
1218.3000;0.2580;1.3474;
1218.6000;0.2597;1.3474;
1218.9000;0.2613;1.3449;
1219.2000;0.2589;1.3424;
1219.5000;0.2621;1.3575;
1219.8000;0.2589;1.3474;
1220.1000;0.2580;1.3424;
1220.4000;0.2589;1.3374;
1220.7000;0.2605;1.3374;
1221.0000;0.2572;1.3399;
1221.3000;0.2597;1.3525;
1221.6000;0.2613;1.3550;
1221.9000;0.2646;1.3675;
1222.2000;0.2605;1.3625;
1222.5000;0.2670;1.3900;
1222.8000;0.2621;1.3725;
1223.1000;0.2605;1.3700;
1223.4000;0.2629;1.3725;
1223.7000;0.2654;1.3625;
1224.0000;0.2597;1.3499;
1224.3000;0.2621;1.3499;
1224.6000;0.2605;1.3499;
1224.9000;0.2621;1.3550;
1225.2000;0.2613;1.3499;
1225.5000;0.2621;1.3525;
1225.8000;0.2613;1.3575;
1226.1000;0.2621;1.3650;
1226.4000;0.2597;1.3650;
1226.7000;0.2589;1.3650;
1227.0000;0.2605;1.3700;
1227.3000;0.2629;1.3775;
1227.6000;0.2605;1.3725;
1227.9000;0.2597;1.3675;
1228.2000;0.2711;1.3950;
1228.5000;0.2597;1.3575;
1228.8000;0.2580;1.3575;
1229.1000;0.2605;1.3600;
1229.4000;0.2646;1.3725;
1229.7000;0.2629;1.3700;
1230.0000;0.2589;1.3575;
1230.3000;0.2589;1.3575;
1230.6000;0.2597;1.3675;
1230.9000;0.2572;1.3675;
1231.2000;0.2580;1.3750;
1231.5000;0.2564;1.3575;
1231.8000;0.2589;1.3550;
1232.1000;0.2613;1.3675;
1232.4000;0.2613;1.3700;
1232.7000;0.2605;1.3650;
1233.0000;0.2605;1.3725;
1233.3000;0.2629;1.3700;
1233.6000;0.2597;1.3575;
1233.9000;0.2597;1.3575;
1234.2000;0.2605;1.3525;
1234.5000;0.2629;1.3550;
1234.8000;0.2759;1.3875;
1235.1000;0.2589;1.3424;
1235.4000;0.2556;1.3324;
1235.7000;0.2613;1.3449;
1236.0000;0.2613;1.3525;
1236.3000;0.2580;1.3550;
1236.6000;0.2621;1.3575;
1236.9000;0.2589;1.3550;
1237.2000;0.2613;1.3600;
1237.5000;0.2597;1.3550;
1237.8000;0.2605;1.3550;
1238.1000;0.2629;1.3499;
1238.4000;0.2646;1.3499;
1238.7000;0.2589;1.3399;
1239.0000;0.2621;1.3625;
1239.3000;0.2597;1.3650;
1239.6000;0.2597;1.3600;
1239.9000;0.2597;1.3600;
1240.2000;0.2621;1.3700;
1240.5000;0.2613;1.3625;
1240.8000;0.2597;1.3625;
1241.1000;0.2589;1.3650;
1241.4000;0.2597;1.3750;
1241.7000;0.2621;1.3725;
1242.0000;0.2597;1.3675;
1242.3000;0.2613;1.3750;
1242.6000;0.2589;1.3700;
1242.9000;0.2605;1.3800;
1243.2000;0.2605;1.3700;
1243.5000;0.2605;1.3650;
1243.8000;0.2743;1.4025;
1244.1000;0.2564;1.3575;
1244.4000;0.2629;1.3775;
1244.7000;0.2662;1.3825;
1245.0000;0.2629;1.3700;
1245.3000;0.2580;1.3575;
1245.6000;0.2507;1.3374;
1245.9000;0.2589;1.3550;
1246.2000;0.2458;1.3149;
1246.5000;0.2605;1.3525;
1246.8000;0.2597;1.3474;
1247.1000;0.2589;1.3525;
1247.4000;0.2629;1.3700;
1247.7000;0.2597;1.3600;
1248.0000;0.2597;1.3650;
1248.3000;0.2580;1.3550;
1248.6000;0.2629;1.3650;
1248.9000;0.2556;1.3424;
1249.2000;0.2629;1.3525;
1249.5000;0.2564;1.3374;
1249.8000;0.2605;1.3499;
1250.1000;0.2743;1.3925;
1250.4000;0.2589;1.3474;
1250.7000;0.2580;1.3499;
1251.0000;0.2532;1.3474;
1251.3000;0.2605;1.3575;
1251.6000;0.2637;1.3725;
1251.9000;0.2629;1.3650;
1252.2000;0.2621;1.3600;
1252.5000;0.2597;1.3550;
1252.8000;0.2605;1.3575;
1253.1000;0.2483;1.3249;
1253.4000;0.2540;1.3424;
1253.7000;0.2580;1.3575;
1254.0000;0.2556;1.3575;
1254.3000;0.2580;1.3525;
1254.6000;0.2491;1.3174;
1254.9000;0.2613;1.3499;
1255.2000;0.2613;1.3374;
1255.5000;0.2597;1.3349;
1255.8000;0.2621;1.3399;
1256.1000;0.2589;1.3249;
1256.4000;0.2572;1.3224;
1256.7000;0.2613;1.3374;
1257.0000;0.2589;1.3349;
1257.3000;0.2580;1.3499;
1257.6000;0.2629;1.3575;
1257.9000;0.2597;1.3474;
1258.2000;0.2605;1.3474;
1258.5000;0.2613;1.3525;
1258.8000;0.2605;1.3474;
1259.1000;0.2629;1.3625;
1259.4000;0.2613;1.3525;
1259.7000;0.2589;1.3474;
1260.0000;0.2621;1.3625;
1260.3000;0.2621;1.3575;
1260.6000;0.2605;1.3575;
1260.9000;0.2605;1.3525;
1261.2000;0.2646;1.3550;
1261.5000;0.2654;1.3550;
1261.8000;0.2597;1.3499;
1262.1000;0.2580;1.3525;
1262.4000;0.2597;1.3474;
1262.7000;0.2621;1.3474;
1263.0000;0.2629;1.3550;
1263.3000;0.2613;1.3474;
1263.6000;0.2605;1.3474;
1263.9000;0.2629;1.3449;
1264.2000;0.2605;1.3424;
1264.5000;0.2613;1.3424;
1264.8000;0.2580;1.3374;
1265.1000;0.2613;1.3424;
1265.4000;0.2605;1.3424;
1265.7000;0.2597;1.3424;
1266.0000;0.2572;1.3449;
1266.3000;0.2580;1.3449;
1266.6000;0.2532;1.3249;
1266.9000;0.2621;1.3575;
1267.2000;0.2580;1.3575;
1267.5000;0.2686;1.3800;
1267.8000;0.2605;1.3525;
1268.1000;0.2589;1.3424;
1268.4000;0.2605;1.3374;
1268.7000;0.2589;1.3299;
1269.0000;0.2540;1.3199;
1269.3000;0.2499;1.3124;
1269.6000;0.2572;1.3124;
1269.9000;0.2597;1.3224;
1270.2000;0.2597;1.3224;
1270.5000;0.2597;1.3299;
1270.8000;0.2580;1.3324;
1271.1000;0.2589;1.3324;
1271.4000;0.2605;1.3399;
1271.7000;0.2589;1.3424;
1272.0000;0.2532;1.3224;
1272.3000;0.2605;1.3499;
1272.6000;0.2605;1.3449;
1272.9000;0.2572;1.3324;
1273.2000;0.2597;1.3299;
1273.5000;0.2629;1.3349;
1273.8000;0.2702;1.3575;
1274.1000;0.2629;1.3474;
1274.4000;0.2605;1.3349;
1274.7000;0.2605;1.3299;
1275.0000;0.2515;1.3149;
1275.3000;0.2597;1.3349;
1275.6000;0.2686;1.3550;
1275.9000;0.2613;1.3449;
1276.2000;0.2613;1.3449;
1276.5000;0.2605;1.3424;
1276.8000;0.2589;1.3474;
1277.1000;0.2702;1.3825;
1277.4000;0.2613;1.3600;
1277.7000;0.2613;1.3625;
1278.0000;0.2580;1.3474;
1278.3000;0.2605;1.3499;
1278.6000;0.2507;1.3274;
1278.9000;0.2621;1.3575;
1279.2000;0.2597;1.3499;
1279.5000;0.2572;1.3374;
1279.8000;0.2572;1.3424;
1280.1000;0.2613;1.3600;
1280.4000;0.2613;1.3575;
1280.7000;0.2564;1.3374;
1281.0000;0.2662;1.3650;
1281.3000;0.2605;1.3525;
1281.6000;0.2580;1.3449;
1281.9000;0.2637;1.3575;
1282.2000;0.2613;1.3525;
1282.5000;0.2605;1.3399;
1282.8000;0.2589;1.3424;
1283.1000;0.2646;1.3575;
1283.4000;0.2646;1.3600;
1283.7000;0.2605;1.3550;
1284.0000;0.2637;1.3675;
1284.3000;0.2589;1.3650;
1284.6000;0.2613;1.3675;
1284.9000;0.2597;1.3625;
1285.2000;0.2605;1.3675;
1285.5000;0.2613;1.3675;
1285.8000;0.2589;1.3700;
1286.1000;0.2597;1.3800;
1286.4000;0.2572;1.3700;
1286.7000;0.2613;1.3725;
1287.0000;0.2605;1.3625;
1287.3000;0.2597;1.3474;
1287.6000;0.2646;1.3550;
1287.9000;0.2605;1.3550;
1288.2000;0.2629;1.3600;
1288.5000;0.2670;1.3725;
1288.8000;0.2597;1.3550;
1289.1000;0.2678;1.3750;
1289.4000;0.2637;1.3725;
1289.7000;0.2613;1.3575;
1290.0000;0.2572;1.3474;
1290.3000;0.2597;1.3474;
1290.6000;0.2564;1.3374;
1290.9000;0.2613;1.3499;
1291.2000;0.2572;1.3499;
1291.5000;0.2678;1.3875;
1291.8000;0.2621;1.3725;
1292.1000;0.2597;1.3700;
1292.4000;0.2589;1.3525;
1292.7000;0.2629;1.3675;
1293.0000;0.2621;1.3575;
1293.3000;0.2589;1.3575;
1293.6000;0.2670;1.3675;
1293.9000;0.2621;1.3550;
1294.2000;0.2613;1.3449;
1294.5000;0.2589;1.3399;
1294.8000;0.2605;1.3499;
1295.1000;0.2621;1.3550;
1295.4000;0.2597;1.3625;
1295.7000;0.2613;1.3625;
1296.0000;0.2751;1.3925;
1296.3000;0.2613;1.3474;
1296.6000;0.2629;1.3499;
1296.9000;0.2621;1.3499;
1297.2000;0.2613;1.3499;
1297.5000;0.2605;1.3575;
1297.8000;0.2621;1.3575;
1298.1000;0.2597;1.3424;
1298.4000;0.2613;1.3449;
1298.7000;0.2613;1.3449;
1299.0000;0.2629;1.3474;
1299.3000;0.2629;1.3424;
1299.6000;0.2613;1.3349;
1299.9000;0.2637;1.3449;
1300.2000;0.2670;1.3499;
1300.5000;0.2597;1.3349;
1300.8000;0.2662;1.3474;
1301.1000;0.2556;1.3199;
1301.4000;0.2605;1.3349;
1301.7000;0.2605;1.3399;
1302.0000;0.2670;1.3650;
1302.3000;0.2613;1.3499;
1302.6000;0.2629;1.3474;
1302.9000;0.2613;1.3525;
1303.2000;0.2613;1.3600;
1303.5000;0.2597;1.3525;
1303.8000;0.2613;1.3625;
1304.1000;0.2597;1.3525;
1304.4000;0.2629;1.3675;
1304.7000;0.2589;1.3474;
1305.0000;0.2564;1.3349;
1305.3000;0.2597;1.3449;
1305.6000;0.2589;1.3374;
1305.9000;0.2589;1.3349;
1306.2000;0.2589;1.3349;
1306.5000;0.2580;1.3324;
1306.8000;0.2605;1.3424;
1307.1000;0.2646;1.3600;
1307.4000;0.2678;1.3675;
1307.7000;0.2621;1.3449;
1308.0000;0.2629;1.3474;
1308.3000;0.2597;1.3299;
1308.6000;0.2605;1.3324;
1308.9000;0.2597;1.3349;
1309.2000;0.2589;1.3374;
1309.5000;0.2637;1.3525;
1309.8000;0.2613;1.3525;
1310.1000;0.2637;1.3550;
1310.4000;0.2597;1.3424;
1310.7000;0.2629;1.3474;
1311.0000;0.2654;1.3525;
1311.3000;0.2523;1.3224;
1311.6000;0.2597;1.3374;
1311.9000;0.2580;1.3274;
1312.2000;0.2564;1.3249;
1312.5000;0.2613;1.3424;
1312.8000;0.2589;1.3324;
1313.1000;0.2597;1.3324;
1313.4000;0.2548;1.3274;
1313.7000;0.2597;1.3424;
1314.0000;0.2694;1.3700;
1314.3000;0.2613;1.3474;
1314.6000;0.2629;1.3424;
1314.9000;0.2580;1.3224;
1315.2000;0.2719;1.3600;
1315.5000;0.2572;1.3249;
1315.8000;0.2613;1.3374;
1316.1000;0.2597;1.3349;
1316.4000;0.2597;1.3374;
1316.7000;0.2605;1.3499;
1317.0000;0.2605;1.3525;
1317.3000;0.2637;1.3575;
1317.6000;0.2605;1.3525;
1317.9000;0.2605;1.3600;
1318.2000;0.2613;1.3575;
1318.5000;0.2605;1.3625;
1318.8000;0.2613;1.3575;
1319.1000;0.2589;1.3575;
1319.4000;0.2629;1.3825;
1319.7000;0.2597;1.3775;
1320.0000;0.2613;1.3675;
1320.3000;0.2605;1.3600;
1320.6000;0.2548;1.3374;
1320.9000;0.2548;1.3399;
1321.2000;0.2637;1.3750;
1321.5000;0.2637;1.3775;
1321.8000;0.2621;1.3900;
1322.1000;0.2605;1.3875;
1322.4000;0.2589;1.3875;
1322.7000;0.2621;1.3900;
1323.0000;0.2572;1.3800;
1323.3000;0.2629;1.3925;
1323.6000;0.2637;1.3925;
1323.9000;0.2597;1.3825;
1324.2000;0.2605;1.3800;
1324.5000;0.2540;1.3650;
1324.8000;0.2613;1.3725;
1325.1000;0.2621;1.3775;
1325.4000;0.2589;1.3700;
1325.7000;0.2613;1.3725;
1326.0000;0.2621;1.3650;
1326.3000;0.2589;1.3550;
1326.6000;0.2589;1.3600;
1326.9000;0.2532;1.3424;
1327.2000;0.2564;1.3575;
1327.5000;0.2621;1.3750;
1327.8000;0.2589;1.3700;
1328.1000;0.2613;1.3800;
1328.4000;0.2637;1.3850;
1328.7000;0.2613;1.3700;
1329.0000;0.2637;1.3775;
1329.3000;0.2678;1.4025;
1329.6000;0.2589;1.3750;
1329.9000;0.2605;1.3725;
1330.2000;0.2654;1.3975;
1330.5000;0.2589;1.3800;
1330.8000;0.2662;1.3950;
1331.1000;0.2613;1.3825;
1331.4000;0.2605;1.3775;
1331.7000;0.2589;1.3800;
1332.0000;0.2621;1.3800;
1332.3000;0.2662;1.3950;
1332.6000;0.2621;1.3800;
1332.9000;0.2613;1.3750;
1333.2000;0.2572;1.3675;
1333.5000;0.2646;1.3875;
1333.8000;0.2605;1.3750;
1334.1000;0.2613;1.3625;
1334.4000;0.2613;1.3575;
1334.7000;0.2556;1.3449;
1335.0000;0.2597;1.3575;
1335.3000;0.2605;1.3575;
1335.6000;0.2605;1.3550;
1335.9000;0.2523;1.3374;
1336.2000;0.2589;1.3600;
1336.5000;0.2589;1.3525;
1336.8000;0.2637;1.3600;
1337.1000;0.2589;1.3474;
1337.4000;0.2621;1.3550;
1337.7000;0.2670;1.3700;
1338.0000;0.2646;1.3550;
1338.3000;0.2572;1.3299;
1338.6000;0.2605;1.3449;
1338.9000;0.2605;1.3474;
1339.2000;0.2629;1.3600;
1339.5000;0.2605;1.3449;
1339.8000;0.2597;1.3399;
1340.1000;0.2605;1.3575;
1340.4000;0.2629;1.3625;
1340.7000;0.2564;1.3449;
1341.0000;0.2686;1.3850;
1341.3000;0.2605;1.3575;
1341.6000;0.2540;1.3374;
1341.9000;0.2540;1.3525;
1342.2000;0.2589;1.3625;
1342.5000;0.2580;1.3650;
1342.8000;0.2686;1.3875;
1343.1000;0.2621;1.3800;
1343.4000;0.2580;1.3750;
1343.7000;0.2629;1.3900;
1344.0000;0.2605;1.3825;
1344.3000;0.2564;1.3725;
1344.6000;0.2572;1.3725;
1344.9000;0.2621;1.3775;
1345.2000;0.2597;1.3725;
1345.5000;0.2605;1.3700;
1345.8000;0.2580;1.3650;
1346.1000;0.2548;1.3499;
1346.4000;0.2556;1.3474;
1346.7000;0.2580;1.3525;
1347.0000;0.2654;1.3750;
1347.3000;0.2499;1.3424;
1347.6000;0.2589;1.3675;
1347.9000;0.2605;1.3800;
1348.2000;0.2686;1.3875;
1348.5000;0.2637;1.3750;
1348.8000;0.2597;1.3725;
1349.1000;0.2727;1.4151;
1349.4000;0.2597;1.3850;
1349.7000;0.2613;1.3900;
1350.0000;0.2564;1.3750;
1350.3000;0.2670;1.4025;
1350.6000;0.2580;1.3800;
1350.9000;0.2597;1.3725;
1351.2000;0.2564;1.3525;
1351.5000;0.2613;1.3650;
1351.8000;0.2540;1.3399;
1352.1000;0.2597;1.3600;
1352.4000;0.2605;1.3625;
1352.7000;0.2597;1.3675;
1353.0000;0.2613;1.3725;
1353.3000;0.2646;1.3750;
1353.6000;0.2613;1.3650;
1353.9000;0.2646;1.3675;
1354.2000;0.2597;1.3575;
1354.5000;0.2621;1.3725;
1354.8000;0.2580;1.3800;
1355.1000;0.2589;1.3850;
1355.4000;0.2597;1.3800;
1355.7000;0.2597;1.3825;
1356.0000;0.2613;1.3850;
1356.3000;0.2613;1.3800;
1356.6000;0.2605;1.3700;
1356.9000;0.2605;1.3725;
1357.2000;0.2621;1.3700;
1357.5000;0.2597;1.3525;
1357.8000;0.2589;1.3499;
1358.1000;0.2589;1.3449;
1358.4000;0.2605;1.3449;
1358.7000;0.2597;1.3474;
1359.0000;0.2629;1.3550;
1359.3000;0.2605;1.3474;
1359.6000;0.2621;1.3525;
1359.9000;0.2751;1.3925;
1360.2000;0.2589;1.3575;
1360.5000;0.2605;1.3600;
1360.8000;0.2556;1.3525;
1361.1000;0.2613;1.3725;
1361.4000;0.2621;1.3750;
1361.7000;0.2629;1.3800;
1362.0000;0.2605;1.3725;
1362.3000;0.2589;1.3675;
1362.6000;0.2613;1.3700;
1362.9000;0.2629;1.3800;
1363.2000;0.2589;1.3725;
1363.5000;0.2597;1.3800;
1363.8000;0.2589;1.3825;
1364.1000;0.2621;1.3900;
1364.4000;0.2621;1.3875;
1364.7000;0.2621;1.3825;
1365.0000;0.2629;1.3825;
1365.3000;0.2613;1.3725;
1365.6000;0.2589;1.3650;
1365.9000;0.2589;1.3625;
1366.2000;0.2564;1.3550;
1366.5000;0.2662;1.3775;
1366.8000;0.2605;1.3550;
1367.1000;0.2621;1.3550;
1367.4000;0.2662;1.3600;
1367.7000;0.2621;1.3525;
1368.0000;0.2589;1.3499;
1368.3000;0.2670;1.3625;
1368.6000;0.2621;1.3625;
1368.9000;0.2637;1.3625;
1369.2000;0.2548;1.3374;
1369.5000;0.2589;1.3474;
1369.8000;0.2523;1.3224;
1370.1000;0.2621;1.3449;
1370.4000;0.2589;1.3374;
1370.7000;0.2589;1.3299;
1371.0000;0.2572;1.3174;
1371.3000;0.2613;1.3324;
1371.6000;0.2597;1.3374;
1371.9000;0.2605;1.3474;
1372.2000;0.2621;1.3499;
1372.5000;0.2654;1.3650;
1372.8000;0.2556;1.3349;
1373.1000;0.2654;1.3625;
1373.4000;0.2605;1.3474;
1373.7000;0.2572;1.3374;
1374.0000;0.2589;1.3499;
1374.3000;0.2556;1.3374;
1374.6000;0.2605;1.3550;
1374.9000;0.2589;1.3550;
1375.2000;0.2475;1.3299;
1375.5000;0.2580;1.3625;
1375.8000;0.2548;1.3474;
1376.1000;0.2572;1.3449;
1376.4000;0.2605;1.3525;
1376.7000;0.2597;1.3550;
1377.0000;0.2556;1.3525;
1377.3000;0.2605;1.3675;
1377.6000;0.2629;1.3800;
1377.9000;0.2597;1.3750;
1378.2000;0.2646;1.3975;
1378.5000;0.2621;1.3950;
1378.8000;0.2597;1.3800;
1379.1000;0.2629;1.3775;
1379.4000;0.2580;1.3650;
1379.7000;0.2613;1.3700;
1380.0000;0.2743;1.4076;
1380.3000;0.2605;1.3725;
1380.6000;0.2580;1.3700;
1380.9000;0.2613;1.3800;
1381.2000;0.2597;1.3700;
1381.5000;0.2605;1.3800;
1381.8000;0.2621;1.3750;
1382.1000;0.2621;1.3675;
1382.4000;0.2605;1.3575;
1382.7000;0.2605;1.3474;
1383.0000;0.2597;1.3424;
1383.3000;0.2629;1.3575;
1383.6000;0.2556;1.3374;
1383.9000;0.2532;1.3274;
1384.2000;0.2621;1.3625;
1384.5000;0.2589;1.3575;
1384.8000;0.2597;1.3575;
1385.1000;0.2662;1.3725;
1385.4000;0.2597;1.3575;
1385.7000;0.2597;1.3575;
1386.0000;0.2450;1.3274;
1386.3000;0.2621;1.3625;
1386.6000;0.2580;1.3550;
1386.9000;0.2597;1.3575;
1387.2000;0.2613;1.3600;
1387.5000;0.2597;1.3449;
1387.8000;0.2613;1.3525;
1388.1000;0.2621;1.3625;
1388.4000;0.2548;1.3424;
1388.7000;0.2605;1.3550;
1389.0000;0.2613;1.3575;
1389.3000;0.2613;1.3700;
1389.6000;0.2613;1.3650;
1389.9000;0.2613;1.3700;
1390.2000;0.2605;1.3750;
1390.5000;0.2613;1.3775;
1390.8000;0.2613;1.3725;
1391.1000;0.2613;1.3725;
1391.4000;0.2621;1.3750;
1391.7000;0.2605;1.3675;
1392.0000;0.2605;1.3675;
1392.3000;0.2605;1.3650;
1392.6000;0.2605;1.3675;
1392.9000;0.2613;1.3675;
1393.2000;0.2621;1.3750;
1393.5000;0.2597;1.3625;
1393.8000;0.2613;1.3725;
1394.1000;0.2613;1.3875;
1394.4000;0.2580;1.3750;
1394.7000;0.2589;1.3650;
1395.0000;0.2597;1.3700;
1395.3000;0.2613;1.3725;
1395.6000;0.2629;1.3675;
1395.9000;0.2629;1.3625;
1396.2000;0.2572;1.3525;
1396.5000;0.2605;1.3600;
1396.8000;0.2605;1.3600;
1397.1000;0.2540;1.3424;
1397.4000;0.2605;1.3675;
1397.7000;0.2605;1.3725;
1398.0000;0.2589;1.3750;
1398.3000;0.2605;1.3800;
1398.6000;0.2605;1.3775;
1398.9000;0.2613;1.3625;
1399.2000;0.2589;1.3550;
1399.5000;0.2621;1.3575;
1399.8000;0.2605;1.3625;
