time/ms;Fluo/V;P700 deltaI/I x10³;
-199.8000;0.2637;1.8984;
-199.5000;0.2629;1.8984;
-199.2000;0.2637;1.8959;
-198.9000;0.2613;1.8809;
-198.6000;0.2637;1.8834;
-198.3000;0.2613;1.8734;
-198.0000;0.2637;1.8859;
-197.7000;0.2621;1.8859;
-197.4000;0.2637;1.8834;
-197.1000;0.2629;1.8834;
-196.8000;0.2621;1.8959;
-196.5000;0.2629;1.8884;
-196.2000;0.2629;1.8884;
-195.9000;0.2637;1.8859;
-195.6000;0.2646;1.8759;
-195.3000;0.2637;1.8709;
-195.0000;0.2637;1.8784;
-194.7000;0.2629;1.8834;
-194.4000;0.2654;1.8909;
-194.1000;0.2613;1.8809;
-193.8000;0.2605;1.8809;
-193.5000;0.2646;1.9009;
-193.2000;0.2507;1.8684;
-192.9000;0.2629;1.9060;
-192.6000;0.2629;1.9085;
-192.3000;0.2646;1.9009;
-192.0000;0.2621;1.9009;
-191.7000;0.2613;1.9060;
-191.4000;0.2629;1.9085;
-191.1000;0.2654;1.9110;
-190.8000;0.2637;1.9035;
-190.5000;0.2654;1.9085;
-190.2000;0.2621;1.9035;
-189.9000;0.2613;1.8984;
-189.6000;0.2637;1.9060;
-189.3000;0.2800;1.9510;
-189.0000;0.2694;1.9210;
-188.7000;0.2629;1.9035;
-188.4000;0.2613;1.9060;
-188.1000;0.2621;1.9009;
-187.8000;0.2637;1.8984;
-187.5000;0.2686;1.9160;
-187.2000;0.2670;1.9135;
-186.9000;0.2637;1.9009;
-186.6000;0.2613;1.8884;
-186.3000;0.2629;1.8984;
-186.0000;0.2613;1.8934;
-185.7000;0.2605;1.9035;
-185.4000;0.2621;1.9060;
-185.1000;0.2646;1.9160;
-184.8000;0.2646;1.9060;
-184.5000;0.2629;1.9009;
-184.2000;0.2662;1.9135;
-183.9000;0.2637;1.9085;
-183.6000;0.2670;1.9085;
-183.3000;0.2694;1.9110;
-183.0000;0.2637;1.8934;
-182.7000;0.2629;1.8909;
-182.4000;0.2646;1.8909;
-182.1000;0.2670;1.9060;
-181.8000;0.2637;1.9035;
-181.5000;0.2605;1.8934;
-181.2000;0.2637;1.8934;
-180.9000;0.2637;1.8959;
-180.6000;0.2629;1.8959;
-180.3000;0.2727;1.9260;
-180.0000;0.2654;1.9060;
-179.7000;0.2637;1.9060;
-179.4000;0.2670;1.9185;
-179.1000;0.2580;1.8984;
-178.8000;0.2637;1.9085;
-178.5000;0.2637;1.9135;
-178.2000;0.2491;1.8759;
-177.9000;0.2621;1.9009;
-177.6000;0.2727;1.9235;
-177.3000;0.2784;1.9335;
-177.0000;0.2621;1.8884;
-176.7000;0.2637;1.8984;
-176.4000;0.2629;1.9085;
-176.1000;0.2702;1.9310;
-175.8000;0.2629;1.9085;
-175.5000;0.2564;1.8859;
-175.2000;0.2654;1.9085;
-174.9000;0.2637;1.9110;
-174.6000;0.2637;1.9160;
-174.3000;0.2491;1.8734;
-174.0000;0.2556;1.8934;
-173.7000;0.2613;1.9135;
-173.4000;0.2654;1.9235;
-173.1000;0.2646;1.9210;
-172.8000;0.2646;1.9235;
-172.5000;0.2597;1.9035;
-172.2000;0.2540;1.8809;
-171.9000;0.2646;1.9085;
-171.6000;0.2637;1.9060;
-171.3000;0.2646;1.9035;
-171.0000;0.2637;1.9009;
-170.7000;0.2735;1.9285;
-170.4000;0.2637;1.9085;
-170.1000;0.2629;1.9060;
-169.8000;0.2637;1.9135;
-169.5000;0.2621;1.9185;
-169.2000;0.2629;1.9235;
-168.9000;0.2637;1.9260;
-168.6000;0.2637;1.9185;
-168.3000;0.2759;1.9485;
-168.0000;0.2580;1.9035;
-167.7000;0.2613;1.9110;
-167.4000;0.2629;1.9135;
-167.1000;0.2515;1.8809;
-166.8000;0.2670;1.9285;
-166.5000;0.2654;1.9110;
-166.2000;0.2662;1.9160;
-165.9000;0.2654;1.9185;
-165.6000;0.2686;1.9360;
-165.3000;0.2646;1.9310;
-165.0000;0.2605;1.9060;
-164.7000;0.2621;1.9009;
-164.4000;0.2621;1.8984;
-164.1000;0.2719;1.9285;
-163.8000;0.2597;1.8959;
-163.5000;0.2646;1.8934;
-163.2000;0.2646;1.8884;
-162.9000;0.2654;1.8784;
-162.6000;0.2646;1.8884;
-162.3000;0.2613;1.8809;
-162.0000;0.2629;1.8884;
-161.7000;0.2629;1.8934;
-161.4000;0.2646;1.8984;
-161.1000;0.2637;1.8909;
-160.8000;0.2621;1.8859;
-160.5000;0.2670;1.8984;
-160.2000;0.2540;1.8659;
-159.9000;0.2621;1.8909;
-159.6000;0.2621;1.8934;
-159.3000;0.2621;1.8909;
-159.0000;0.2629;1.8784;
-158.7000;0.2646;1.8809;
-158.4000;0.2629;1.8809;
-158.1000;0.2670;1.8934;
-157.8000;0.2605;1.8809;
-157.5000;0.2646;1.8834;
-157.2000;0.2670;1.8909;
-156.9000;0.2637;1.8859;
-156.6000;0.2646;1.8884;
-156.3000;0.2646;1.8834;
-156.0000;0.2646;1.8884;
-155.7000;0.2646;1.8859;
-155.4000;0.2646;1.8884;
-155.1000;0.2597;1.8859;
-154.8000;0.2483;1.8609;
-154.5000;0.2613;1.8834;
-154.2000;0.2637;1.8909;
-153.9000;0.2637;1.8834;
-153.6000;0.2646;1.8809;
-153.3000;0.2629;1.8809;
-153.0000;0.2637;1.8884;
-152.7000;0.2621;1.8934;
-152.4000;0.2670;1.9110;
-152.1000;0.2605;1.8934;
-151.8000;0.2605;1.8909;
-151.5000;0.2646;1.9009;
-151.2000;0.2556;1.8759;
-150.9000;0.2613;1.8934;
-150.6000;0.2613;1.8909;
-150.3000;0.2646;1.8984;
-150.0000;0.2694;1.9110;
-149.7000;0.2646;1.8959;
-149.4000;0.2678;1.8959;
-149.1000;0.2621;1.8859;
-148.8000;0.2629;1.8859;
-148.5000;0.2646;1.8909;
-148.2000;0.2621;1.8934;
-147.9000;0.2646;1.8984;
-147.6000;0.2686;1.9035;
-147.3000;0.2637;1.8959;
-147.0000;0.2621;1.8909;
-146.7000;0.2605;1.8859;
-146.4000;0.2629;1.8884;
-146.1000;0.2605;1.8909;
-145.8000;0.2646;1.9035;
-145.5000;0.2621;1.8959;
-145.2000;0.2637;1.8909;
-144.9000;0.2605;1.8959;
-144.6000;0.2694;1.9160;
-144.3000;0.2646;1.9035;
-144.0000;0.2637;1.9060;
-143.7000;0.2621;1.9060;
-143.4000;0.2556;1.8934;
-143.1000;0.2564;1.8909;
-142.8000;0.2662;1.9210;
-142.5000;0.2662;1.9235;
-142.2000;0.2589;1.9060;
-141.9000;0.2605;1.9260;
-141.6000;0.2662;1.9435;
-141.3000;0.2613;1.9260;
-141.0000;0.2621;1.9135;
-140.7000;0.2646;1.9260;
-140.4000;0.2621;1.9135;
-140.1000;0.2735;1.9410;
-139.8000;0.2662;1.9160;
-139.5000;0.2646;1.9135;
-139.2000;0.2621;1.9135;
-138.9000;0.2621;1.9085;
-138.6000;0.2670;1.9210;
-138.3000;0.2678;1.9235;
-138.0000;0.2629;1.9035;
-137.7000;0.2629;1.9009;
-137.4000;0.2637;1.9060;
-137.1000;0.2556;1.8759;
-136.8000;0.2637;1.8959;
-136.5000;0.2629;1.8934;
-136.2000;0.2613;1.8959;
-135.9000;0.2637;1.9009;
-135.6000;0.2637;1.8959;
-135.3000;0.2629;1.8909;
-135.0000;0.2605;1.8809;
-134.7000;0.2621;1.8809;
-134.4000;0.2629;1.8859;
-134.1000;0.2629;1.8884;
-133.8000;0.2654;1.8909;
-133.5000;0.2629;1.8909;
-133.2000;0.2646;1.8959;
-132.9000;0.2621;1.8934;
-132.6000;0.2605;1.8959;
-132.3000;0.2637;1.8984;
-132.0000;0.2629;1.9035;
-131.7000;0.2613;1.8934;
-131.4000;0.2629;1.8934;
-131.1000;0.2597;1.8884;
-130.8000;0.2670;1.9085;
-130.5000;0.2613;1.8934;
-130.2000;0.2646;1.9085;
-129.9000;0.2646;1.9009;
-129.6000;0.2654;1.9009;
-129.3000;0.2629;1.8984;
-129.0000;0.2597;1.8984;
-128.7000;0.2621;1.9035;
-128.4000;0.2605;1.8959;
-128.1000;0.2646;1.9035;
-127.8000;0.2613;1.9060;
-127.5000;0.2629;1.9110;
-127.2000;0.2654;1.9135;
-126.9000;0.2621;1.9009;
-126.6000;0.2613;1.8934;
-126.3000;0.2629;1.8934;
-126.0000;0.2621;1.8859;
-125.7000;0.2548;1.8734;
-125.4000;0.2613;1.8959;
-125.1000;0.2613;1.9009;
-124.8000;0.2621;1.9009;
-124.5000;0.2629;1.8959;
-124.2000;0.2621;1.8909;
-123.9000;0.2654;1.9035;
-123.6000;0.2662;1.9009;
-123.3000;0.2580;1.8884;
-123.0000;0.2678;1.9185;
-122.7000;0.2637;1.9135;
-122.4000;0.2702;1.9310;
-122.1000;0.2629;1.9060;
-121.8000;0.2629;1.8984;
-121.5000;0.2605;1.8934;
-121.2000;0.2629;1.9035;
-120.9000;0.2662;1.9185;
-120.6000;0.2605;1.8959;
-120.3000;0.2654;1.9060;
-120.0000;0.2637;1.8984;
-119.7000;0.2694;1.9160;
-119.4000;0.2751;1.9335;
-119.1000;0.2605;1.8984;
-118.8000;0.2629;1.8984;
-118.5000;0.2711;1.9210;
-118.2000;0.2662;1.9009;
-117.9000;0.2637;1.9009;
-117.6000;0.2654;1.9110;
-117.3000;0.2637;1.9110;
-117.0000;0.2629;1.9060;
-116.7000;0.2637;1.9035;
-116.4000;0.2654;1.9035;
-116.1000;0.2654;1.9009;
-115.8000;0.2629;1.8984;
-115.5000;0.2654;1.9009;
-115.2000;0.2605;1.8859;
-114.9000;0.2646;1.8784;
-114.6000;0.2662;1.8884;
-114.3000;0.2646;1.8909;
-114.0000;0.2629;1.8909;
-113.7000;0.2646;1.8909;
-113.4000;0.2613;1.8934;
-113.1000;0.2654;1.9035;
-112.8000;0.2597;1.8984;
-112.5000;0.2621;1.9035;
-112.2000;0.2662;1.9210;
-111.9000;0.2637;1.9185;
-111.6000;0.2605;1.9085;
-111.3000;0.2621;1.9060;
-111.0000;0.2646;1.9060;
-110.7000;0.2637;1.8984;
-110.4000;0.2646;1.8884;
-110.1000;0.2621;1.8834;
-109.8000;0.2678;1.9009;
-109.5000;0.2637;1.8934;
-109.2000;0.2515;1.8584;
-108.9000;0.2637;1.8909;
-108.6000;0.2654;1.8809;
-108.3000;0.2654;1.8809;
-108.0000;0.2589;1.8684;
-107.7000;0.2621;1.8784;
-107.4000;0.2597;1.8784;
-107.1000;0.2564;1.8659;
-106.8000;0.2483;1.8484;
-106.5000;0.2621;1.8834;
-106.2000;0.2654;1.8959;
-105.9000;0.2629;1.8909;
-105.6000;0.2654;1.8959;
-105.3000;0.2629;1.8759;
-105.0000;0.2637;1.8834;
-104.7000;0.2686;1.8959;
-104.4000;0.2662;1.8884;
-104.1000;0.2597;1.8859;
-103.8000;0.2646;1.9009;
-103.5000;0.2507;1.8659;
-103.2000;0.2646;1.8984;
-102.9000;0.2621;1.8909;
-102.6000;0.2637;1.9009;
-102.3000;0.2621;1.8934;
-102.0000;0.2637;1.8959;
-101.7000;0.2629;1.8834;
-101.4000;0.2589;1.8634;
-101.1000;0.2621;1.8809;
-100.8000;0.2637;1.8884;
-100.5000;0.2686;1.9035;
-100.2000;0.2686;1.9060;
-99.9000;0.2621;1.8984;
-99.6000;0.2670;1.9135;
-99.3000;0.2621;1.9060;
-99.0000;0.2637;1.9110;
-98.7000;0.2646;1.9060;
-98.4000;0.2621;1.8959;
-98.1000;0.2637;1.8959;
-97.8000;0.2621;1.8984;
-97.5000;0.2646;1.9060;
-97.2000;0.2646;1.9035;
-96.9000;0.2621;1.9060;
-96.6000;0.2629;1.8984;
-96.3000;0.2572;1.8809;
-96.0000;0.2621;1.8934;
-95.7000;0.2694;1.9185;
-95.4000;0.2678;1.9110;
-95.1000;0.2621;1.9009;
-94.8000;0.2597;1.9035;
-94.5000;0.2605;1.9035;
-94.2000;0.2646;1.9110;
-93.9000;0.2597;1.8959;
-93.6000;0.2605;1.9009;
-93.3000;0.2629;1.9085;
-93.0000;0.2646;1.9060;
-92.7000;0.2621;1.9009;
-92.4000;0.2605;1.8934;
-92.1000;0.2629;1.8959;
-91.8000;0.2646;1.9035;
-91.5000;0.2646;1.8984;
-91.2000;0.2637;1.8909;
-90.9000;0.2613;1.8884;
-90.6000;0.2637;1.8984;
-90.3000;0.2694;1.9060;
-90.0000;0.2637;1.8834;
-89.7000;0.2654;1.8884;
-89.4000;0.2637;1.8784;
-89.1000;0.2637;1.8734;
-88.8000;0.2621;1.8709;
-88.5000;0.2621;1.8759;
-88.2000;0.2637;1.8859;
-87.9000;0.2646;1.8934;
-87.6000;0.2613;1.8884;
-87.3000;0.2629;1.8909;
-87.0000;0.2637;1.8959;
-86.7000;0.2613;1.8984;
-86.4000;0.2654;1.9035;
-86.1000;0.2629;1.8934;
-85.8000;0.2629;1.9009;
-85.5000;0.2646;1.9009;
-85.2000;0.2727;1.9285;
-84.9000;0.2613;1.8909;
-84.6000;0.2646;1.8909;
-84.3000;0.2670;1.8884;
-84.0000;0.2637;1.8784;
-83.7000;0.2751;1.9160;
-83.4000;0.2629;1.8784;
-83.1000;0.2637;1.8909;
-82.8000;0.2702;1.9060;
-82.5000;0.2678;1.8909;
-82.2000;0.2637;1.8734;
-81.9000;0.2621;1.8684;
-81.6000;0.2629;1.8584;
-81.3000;0.2589;1.8509;
-81.0000;0.2621;1.8684;
-80.7000;0.2572;1.8534;
-80.4000;0.2613;1.8784;
-80.1000;0.2613;1.8884;
-79.8000;0.2637;1.8884;
-79.5000;0.2621;1.8859;
-79.2000;0.2670;1.8909;
-78.9000;0.2637;1.8834;
-78.6000;0.2629;1.8784;
-78.3000;0.2613;1.8684;
-78.0000;0.2605;1.8784;
-77.7000;0.2629;1.8809;
-77.4000;0.2662;1.8984;
-77.1000;0.2613;1.8809;
-76.8000;0.2637;1.8934;
-76.5000;0.2654;1.8984;
-76.2000;0.2548;1.8809;
-75.9000;0.2637;1.9060;
-75.6000;0.2637;1.8984;
-75.3000;0.2613;1.8959;
-75.0000;0.2629;1.8984;
-74.7000;0.2613;1.8884;
-74.4000;0.2556;1.8709;
-74.1000;0.2637;1.8909;
-73.8000;0.2621;1.8909;
-73.5000;0.2605;1.8834;
-73.2000;0.2629;1.8859;
-72.9000;0.2646;1.8934;
-72.6000;0.2646;1.8909;
-72.3000;0.2629;1.8884;
-72.0000;0.2637;1.8959;
-71.7000;0.2621;1.8934;
-71.4000;0.2613;1.8909;
-71.1000;0.2637;1.8909;
-70.8000;0.2629;1.8934;
-70.5000;0.2646;1.8984;
-70.2000;0.2646;1.9035;
-69.9000;0.2637;1.9009;
-69.6000;0.2637;1.8934;
-69.3000;0.2629;1.8859;
-69.0000;0.2637;1.8934;
-68.7000;0.2613;1.8934;
-68.4000;0.2637;1.9009;
-68.1000;0.2711;1.9185;
-67.8000;0.2629;1.9085;
-67.5000;0.2621;1.9009;
-67.2000;0.2621;1.9135;
-66.9000;0.2637;1.9185;
-66.6000;0.2654;1.9135;
-66.3000;0.2711;1.9285;
-66.0000;0.2654;1.9135;
-65.7000;0.2589;1.9009;
-65.4000;0.2613;1.9009;
-65.1000;0.2605;1.8934;
-64.8000;0.2637;1.9009;
-64.5000;0.2613;1.8909;
-64.2000;0.2727;1.9210;
-63.9000;0.2637;1.8884;
-63.6000;0.2572;1.8684;
-63.3000;0.2629;1.8684;
-63.0000;0.2629;1.8659;
-62.7000;0.2662;1.8859;
-62.4000;0.2646;1.8784;
-62.1000;0.2768;1.9185;
-61.8000;0.2597;1.8734;
-61.5000;0.2621;1.8859;
-61.2000;0.2662;1.8959;
-60.9000;0.2629;1.8859;
-60.6000;0.2621;1.8859;
-60.3000;0.2702;1.9060;
-60.0000;0.2564;1.8634;
-59.7000;0.2629;1.8784;
-59.4000;0.2637;1.8809;
-59.1000;0.2605;1.8709;
-58.8000;0.2637;1.8934;
-58.5000;0.2702;1.9135;
-58.2000;0.2637;1.8984;
-57.9000;0.2621;1.8859;
-57.6000;0.2646;1.8959;
-57.3000;0.2646;1.9009;
-57.0000;0.2637;1.9110;
-56.7000;0.2637;1.9085;
-56.4000;0.2515;1.8709;
-56.1000;0.2589;1.8809;
-55.8000;0.2613;1.8784;
-55.5000;0.2637;1.8834;
-55.2000;0.2621;1.8834;
-54.9000;0.2646;1.8959;
-54.6000;0.2637;1.8859;
-54.3000;0.2654;1.8959;
-54.0000;0.2646;1.8959;
-53.7000;0.2637;1.9035;
-53.4000;0.2637;1.9060;
-53.1000;0.2629;1.9035;
-52.8000;0.2597;1.8934;
-52.5000;0.2629;1.8984;
-52.2000;0.2637;1.8909;
-51.9000;0.2621;1.8809;
-51.6000;0.2597;1.8734;
-51.3000;0.2637;1.8859;
-51.0000;0.2637;1.8884;
-50.7000;0.2646;1.8859;
-50.4000;0.2564;1.8684;
-50.1000;0.2613;1.8784;
-49.8000;0.2613;1.8834;
-49.5000;0.2629;1.8934;
-49.2000;0.2654;1.8959;
-48.9000;0.2670;1.9035;
-48.6000;0.2613;1.8809;
-48.3000;0.2637;1.8809;
-48.0000;0.2613;1.8709;
-47.7000;0.2662;1.8884;
-47.4000;0.2637;1.8884;
-47.1000;0.2556;1.8759;
-46.8000;0.2621;1.8984;
-46.5000;0.2662;1.9160;
-46.2000;0.2646;1.9009;
-45.9000;0.2637;1.8984;
-45.6000;0.2637;1.8959;
-45.3000;0.2621;1.8909;
-45.0000;0.2637;1.8959;
-44.7000;0.2646;1.9035;
-44.4000;0.2621;1.8959;
-44.1000;0.2654;1.9009;
-43.8000;0.2629;1.9035;
-43.5000;0.2646;1.9009;
-43.2000;0.2646;1.9009;
-42.9000;0.2637;1.8884;
-42.6000;0.2646;1.8959;
-42.3000;0.2629;1.8959;
-42.0000;0.2629;1.8959;
-41.7000;0.2613;1.8959;
-41.4000;0.2629;1.8984;
-41.1000;0.2605;1.9060;
-40.8000;0.2613;1.9035;
-40.5000;0.2629;1.9160;
-40.2000;0.2629;1.9085;
-39.9000;0.2629;1.9035;
-39.6000;0.2637;1.8959;
-39.3000;0.2637;1.9035;
-39.0000;0.2629;1.9085;
-38.7000;0.2597;1.8984;
-38.4000;0.2637;1.9160;
-38.1000;0.2654;1.9210;
-37.8000;0.2646;1.9110;
-37.5000;0.2621;1.8959;
-37.2000;0.2719;1.9310;
-36.9000;0.2621;1.9060;
-36.6000;0.2605;1.9110;
-36.3000;0.2629;1.9160;
-36.0000;0.2621;1.9110;
-35.7000;0.2621;1.9060;
-35.4000;0.2483;1.8584;
-35.1000;0.2540;1.8684;
-34.8000;0.2637;1.9009;
-34.5000;0.2654;1.9009;
-34.2000;0.2711;1.9310;
-33.9000;0.2637;1.9160;
-33.6000;0.2523;1.8809;
-33.3000;0.2678;1.9185;
-33.0000;0.2637;1.9035;
-32.7000;0.2629;1.8984;
-32.4000;0.2605;1.8984;
-32.1000;0.2654;1.9110;
-31.8000;0.2629;1.8934;
-31.5000;0.2629;1.8859;
-31.2000;0.2637;1.8984;
-30.9000;0.2637;1.8984;
-30.6000;0.2646;1.8959;
-30.3000;0.2621;1.8884;
-30.0000;0.2621;1.8909;
-29.7000;0.2621;1.8909;
-29.4000;0.2670;1.9009;
-29.1000;0.2646;1.8909;
-28.8000;0.2637;1.8934;
-28.5000;0.2646;1.8934;
-28.2000;0.2637;1.8984;
-27.9000;0.2694;1.9085;
-27.6000;0.2637;1.8909;
-27.3000;0.2735;1.9135;
-27.0000;0.2637;1.8909;
-26.7000;0.2686;1.9185;
-26.4000;0.2621;1.9060;
-26.1000;0.2646;1.9110;
-25.8000;0.2670;1.9210;
-25.5000;0.2621;1.9035;
-25.2000;0.2637;1.9009;
-24.9000;0.2678;1.9110;
-24.6000;0.2605;1.8984;
-24.3000;0.2654;1.8984;
-24.0000;0.2483;1.8609;
-23.7000;0.2629;1.8984;
-23.4000;0.2637;1.9035;
-23.1000;0.2613;1.9035;
-22.8000;0.2637;1.9110;
-22.5000;0.2621;1.8984;
-22.2000;0.2662;1.9009;
-21.9000;0.2629;1.8909;
-21.6000;0.2629;1.8859;
-21.3000;0.2637;1.8859;
-21.0000;0.2646;1.8884;
-20.7000;0.2637;1.8934;
-20.4000;0.2646;1.9085;
-20.1000;0.2613;1.8934;
-19.8000;0.2621;1.8984;
-19.5000;0.2637;1.8984;
-19.2000;0.2629;1.8909;
-18.9000;0.2621;1.8834;
-18.6000;0.2621;1.8784;
-18.3000;0.2605;1.8684;
-18.0000;0.2629;1.8834;
-17.7000;0.2654;1.8859;
-17.4000;0.2646;1.8809;
-17.1000;0.2621;1.8684;
-16.8000;0.2613;1.8734;
-16.5000;0.2637;1.8809;
-16.2000;0.2654;1.8884;
-15.9000;0.2637;1.8909;
-15.6000;0.2629;1.8809;
-15.3000;0.2621;1.8784;
-15.0000;0.2637;1.8859;
-14.7000;0.2637;1.8809;
-14.4000;0.2637;1.8809;
-14.1000;0.2646;1.8809;
-13.8000;0.2646;1.8859;
-13.5000;0.2646;1.8884;
-13.2000;0.2686;1.8934;
-12.9000;0.2662;1.8809;
-12.6000;0.2564;1.8634;
-12.3000;0.2589;1.8734;
-12.0000;0.2637;1.8934;
-11.7000;0.2605;1.8934;
-11.4000;0.2572;1.8834;
-11.1000;0.2621;1.8909;
-10.8000;0.2621;1.8934;
-10.5000;0.2670;1.9085;
-10.2000;0.2629;1.8959;
-9.9000;0.2629;1.8959;
-9.6000;0.2597;1.8859;
-9.3000;0.2646;1.9110;
-9.0000;0.2629;1.9135;
-8.7000;0.2629;1.9135;
-8.4000;0.2621;1.9085;
-8.1000;0.2637;1.9085;
-7.8000;0.2654;1.9085;
-7.5000;0.2637;1.9085;
-7.2000;0.2605;1.9110;
-6.9000;0.2637;1.9085;
-6.6000;0.2637;1.9085;
-6.3000;0.2629;1.9060;
-6.0000;0.2605;1.9060;
-5.7000;0.2629;1.9210;
-5.4000;0.2654;1.9310;
-5.1000;0.2621;1.9285;
-4.8000;0.2621;1.9285;
-4.5000;0.2613;1.9310;
-4.2000;0.2589;1.9160;
-3.9000;0.2605;1.9185;
-3.6000;0.2629;1.9260;
-3.3000;0.2654;1.9335;
-3.0000;0.2637;1.9260;
-2.7000;0.2637;1.9310;
-2.4000;0.2670;1.9385;
-2.1000;0.2637;1.9185;
-1.8000;0.2613;1.9060;
-1.5000;0.2621;1.9035;
-1.2000;0.2678;1.9210;
-0.9000;0.2589;1.8909;
-0.6000;0.2629;1.8984;
-0.3000;0.2662;1.9085;
0.0000;0.2662;1.9085;
0.3000;0.2646;1.9185;
0.6000;0.2646;1.9335;
0.9000;0.2694;1.9611;
1.2000;0.2662;1.9911;
1.5000;0.2662;2.0162;
1.8000;0.2694;2.0487;
2.1000;0.2694;2.0763;
2.4000;0.2719;2.1038;
2.7000;0.2711;2.1213;
3.0000;0.2743;2.1364;
3.3000;0.2743;2.1339;
3.6000;0.2670;2.1264;
3.9000;0.2686;2.1389;
4.2000;0.2719;2.1414;
4.5000;0.2727;2.1464;
4.8000;0.2711;2.1439;
5.1000;0.2711;2.1439;
5.4000;0.2776;2.1564;
5.7000;0.2719;2.1489;
6.0000;0.2719;2.1589;
6.3000;0.2727;2.1664;
6.6000;0.2719;2.1639;
6.9000;0.2646;2.1464;
7.2000;0.2719;2.1639;
7.5000;0.2735;2.1639;
7.8000;0.2727;2.1539;
8.1000;0.2694;2.1464;
8.4000;0.2694;2.1514;
8.7000;0.2711;2.1464;
9.0000;0.2727;2.1539;
9.3000;0.2743;2.1514;
9.6000;0.2727;2.1439;
9.9000;0.2694;2.1414;
10.2000;0.2694;2.1414;
10.5000;0.2735;2.1514;
10.8000;0.2768;2.1689;
11.1000;0.2735;2.1589;
11.4000;0.2637;2.1339;
11.7000;0.2743;2.1639;
12.0000;0.2662;2.1489;
12.3000;0.2751;2.1764;
12.6000;0.2735;2.1714;
12.9000;0.2702;2.1614;
13.2000;0.2727;2.1789;
13.5000;0.2841;2.2115;
13.8000;0.2727;2.1815;
14.1000;0.2694;2.1764;
14.4000;0.2621;2.1614;
14.7000;0.2711;2.1915;
15.0000;0.2735;2.1915;
15.3000;0.2727;2.1815;
15.6000;0.2711;2.1789;
15.9000;0.2719;2.1865;
16.2000;0.2719;2.1990;
16.5000;0.2735;2.1965;
16.8000;0.2735;2.1789;
17.1000;0.2711;2.1789;
17.4000;0.2727;2.1714;
17.7000;0.2735;2.1764;
18.0000;0.2686;2.1689;
18.3000;0.2694;2.1639;
18.6000;0.2727;2.1639;
18.9000;0.2711;2.1664;
19.2000;0.2702;2.1739;
19.5000;0.2743;2.1865;
19.8000;0.2727;2.1764;
20.1000;0.2857;2.2115;
20.4000;0.2678;2.1764;
20.7000;0.2605;2.1514;
21.0000;0.2711;2.1789;
21.3000;0.2702;2.1739;
21.6000;0.2727;2.1815;
21.9000;0.2646;2.1564;
22.2000;0.2743;2.1639;
22.5000;0.2711;2.1614;
22.8000;0.2711;2.1614;
23.1000;0.2727;2.1714;
23.4000;0.2735;2.1815;
23.7000;0.2719;2.1739;
24.0000;0.2670;2.1639;
24.3000;0.2711;2.1689;
24.6000;0.2759;2.1840;
24.9000;0.2719;2.1815;
25.2000;0.2727;2.1739;
25.5000;0.2678;2.1489;
25.8000;0.2719;2.1664;
26.1000;0.2784;2.1815;
26.4000;0.2711;2.1539;
26.7000;0.2711;2.1564;
27.0000;0.2719;2.1614;
27.3000;0.2711;2.1539;
27.6000;0.2719;2.1539;
27.9000;0.2670;2.1389;
28.2000;0.2686;2.1514;
28.5000;0.2702;2.1464;
28.8000;0.2702;2.1414;
29.1000;0.2727;2.1564;
29.4000;0.2711;2.1589;
29.7000;0.2702;2.1489;
30.0000;0.2727;2.1539;
30.3000;0.2711;2.1539;
30.6000;0.2808;2.1739;
30.9000;0.2694;2.1364;
31.2000;0.2759;2.1614;
31.5000;0.2727;2.1539;
31.8000;0.2751;2.1639;
32.1000;0.2711;2.1614;
32.4000;0.2711;2.1689;
32.7000;0.2719;2.1689;
33.0000;0.2686;2.1514;
33.3000;0.2654;2.1414;
33.6000;0.2800;2.1965;
33.9000;0.2719;2.1664;
34.2000;0.2719;2.1614;
34.5000;0.2719;2.1639;
34.8000;0.2719;2.1589;
35.1000;0.2727;2.1614;
35.4000;0.2735;2.1589;
35.7000;0.2727;2.1564;
36.0000;0.2702;2.1539;
36.3000;0.2735;2.1564;
36.6000;0.2743;2.1639;
36.9000;0.2727;2.1639;
37.2000;0.2719;2.1589;
37.5000;0.2751;2.1639;
37.8000;0.2735;2.1664;
38.1000;0.2711;2.1614;
38.4000;0.2702;2.1514;
38.7000;0.2711;2.1614;
39.0000;0.2727;2.1714;
39.3000;0.2735;2.1714;
39.6000;0.2735;2.1714;
39.9000;0.2711;2.1614;
40.2000;0.2735;2.1639;
40.5000;0.2719;2.1614;
40.8000;0.2711;2.1564;
41.1000;0.2776;2.1714;
41.4000;0.2702;2.1489;
41.7000;0.2711;2.1364;
42.0000;0.2719;2.1339;
42.3000;0.2735;2.1389;
42.6000;0.2743;2.1489;
42.9000;0.2686;2.1364;
43.2000;0.2646;2.1339;
43.5000;0.2727;2.1589;
43.8000;0.2711;2.1589;
44.1000;0.2646;2.1389;
44.4000;0.2719;2.1639;
44.7000;0.2711;2.1564;
45.0000;0.2711;2.1514;
45.3000;0.2711;2.1464;
45.6000;0.2751;2.1564;
45.9000;0.2751;2.1564;
46.2000;0.2711;2.1439;
46.5000;0.2727;2.1389;
46.8000;0.2751;2.1414;
47.1000;0.2743;2.1389;
47.4000;0.2751;2.1389;
47.7000;0.2702;2.1364;
48.0000;0.2735;2.1489;
48.3000;0.2743;2.1539;
48.6000;0.2694;2.1489;
48.9000;0.2727;2.1589;
49.2000;0.2702;2.1564;
49.5000;0.2841;2.1815;
49.8000;0.2727;2.1464;
50.1000;0.2678;2.1264;
50.4000;0.2882;2.1915;
50.7000;0.2678;2.1364;
51.0000;0.2719;2.1589;
51.3000;0.2711;2.1689;
51.6000;0.2589;2.1439;
51.9000;0.2865;2.2140;
52.2000;0.2776;2.1789;
52.5000;0.2719;2.1664;
52.8000;0.2702;2.1539;
53.1000;0.2711;2.1564;
53.4000;0.2743;2.1689;
53.7000;0.2784;2.1815;
54.0000;0.2686;2.1564;
54.3000;0.2727;2.1739;
54.6000;0.2702;2.1689;
54.9000;0.2711;2.1689;
55.2000;0.2702;2.1689;
55.5000;0.2735;2.1815;
55.8000;0.2784;2.1865;
56.1000;0.2719;2.1664;
56.4000;0.2711;2.1714;
56.7000;0.2759;2.1840;
57.0000;0.2735;2.1714;
57.3000;0.2719;2.1689;
57.6000;0.2735;2.1639;
57.9000;0.2702;2.1564;
58.2000;0.2735;2.1639;
58.5000;0.2727;2.1589;
58.8000;0.2727;2.1539;
59.1000;0.2719;2.1589;
59.4000;0.2670;2.1589;
59.7000;0.2711;2.1689;
60.0000;0.2792;2.1915;
60.3000;0.2662;2.1489;
60.6000;0.2735;2.1664;
60.9000;0.2743;2.1614;
61.2000;0.2735;2.1614;
61.5000;0.2694;2.1564;
61.8000;0.2727;2.1614;
62.1000;0.2719;2.1564;
62.4000;0.2808;2.1789;
62.7000;0.2556;2.1163;
63.0000;0.2678;2.1589;
63.3000;0.2702;2.1689;
63.6000;0.2654;2.1514;
63.9000;0.2711;2.1764;
64.2000;0.2727;2.1865;
64.5000;0.2694;2.1639;
64.8000;0.2719;2.1865;
65.1000;0.2694;2.1815;
65.4000;0.2719;2.1865;
65.7000;0.2768;2.2015;
66.0000;0.2727;2.1789;
66.3000;0.2735;2.1764;
66.6000;0.2629;2.1514;
66.9000;0.2719;2.1764;
67.2000;0.2743;2.1940;
67.5000;0.2743;2.1965;
67.8000;0.2792;2.2090;
68.1000;0.2711;2.1764;
68.4000;0.2711;2.1789;
68.7000;0.2727;2.1789;
69.0000;0.2711;2.1689;
69.3000;0.2759;2.1815;
69.6000;0.2735;2.1789;
69.9000;0.2686;2.1689;
70.2000;0.2711;2.1815;
70.5000;0.2719;2.1689;
70.8000;0.2735;2.1764;
71.1000;0.2719;2.1714;
71.4000;0.2711;2.1689;
71.7000;0.2637;2.1464;
72.0000;0.2711;2.1714;
72.3000;0.2751;2.1865;
72.6000;0.2800;2.1990;
72.9000;0.2711;2.1714;
73.2000;0.2735;2.1840;
73.5000;0.2654;2.1614;
73.8000;0.2727;2.1865;
74.1000;0.2727;2.1815;
74.4000;0.2727;2.1865;
74.7000;0.2686;2.1840;
75.0000;0.2719;2.1789;
75.3000;0.2711;2.1815;
75.6000;0.2735;2.1840;
75.9000;0.2702;2.1840;
76.2000;0.2719;2.1915;
76.5000;0.2711;2.1840;
76.8000;0.2711;2.1890;
77.1000;0.2719;2.1840;
77.4000;0.2735;2.1865;
77.7000;0.2702;2.1840;
78.0000;0.2702;2.1840;
78.3000;0.2686;2.1840;
78.6000;0.2735;2.1965;
78.9000;0.2727;2.1915;
79.2000;0.2702;2.1815;
79.5000;0.2670;2.1815;
79.8000;0.2727;2.1965;
80.1000;0.2694;2.2015;
80.4000;0.2719;2.1990;
80.7000;0.2735;2.1890;
81.0000;0.2702;2.1865;
81.3000;0.2702;2.1739;
81.6000;0.2686;2.1714;
81.9000;0.2719;2.1739;
82.2000;0.2727;2.1714;
82.5000;0.2743;2.1689;
82.8000;0.2702;2.1589;
83.1000;0.2613;2.1264;
83.4000;0.2654;2.1564;
83.7000;0.2678;2.1689;
84.0000;0.2711;2.1789;
84.3000;0.2719;2.1865;
84.6000;0.2694;2.1915;
84.9000;0.2711;2.1940;
85.2000;0.2702;2.1915;
85.5000;0.2686;2.1865;
85.8000;0.2768;2.1965;
86.1000;0.2735;2.1890;
86.4000;0.2727;2.1840;
86.7000;0.2727;2.1840;
87.0000;0.2719;2.1789;
87.3000;0.2727;2.1915;
87.6000;0.2727;2.1915;
87.9000;0.2784;2.2065;
88.2000;0.2694;2.1815;
88.5000;0.2702;2.1840;
88.8000;0.2711;2.1890;
89.1000;0.2776;2.2140;
89.4000;0.2702;2.1890;
89.7000;0.2678;2.1815;
90.0000;0.2711;2.1789;
90.3000;0.2702;2.1714;
90.6000;0.2662;2.1564;
90.9000;0.2735;2.1739;
91.2000;0.2759;2.1739;
91.5000;0.2719;2.1639;
91.8000;0.2694;2.1664;
92.1000;0.2702;2.1739;
92.4000;0.2719;2.1764;
92.7000;0.2743;2.1840;
93.0000;0.2776;2.1890;
93.3000;0.2719;2.1815;
93.6000;0.2711;2.1915;
93.9000;0.2727;2.1890;
94.2000;0.2735;2.1940;
94.5000;0.2694;2.1915;
94.8000;0.2727;2.1990;
95.1000;0.2727;2.2040;
95.4000;0.2743;2.1990;
95.7000;0.2702;2.1865;
96.0000;0.2678;2.1764;
96.3000;0.2727;2.1940;
96.6000;0.2776;2.2140;
96.9000;0.2711;2.1840;
97.2000;0.2735;2.1915;
97.5000;0.2711;2.1915;
97.8000;0.2768;2.2065;
98.1000;0.2711;2.1915;
98.4000;0.2759;2.2090;
98.7000;0.2719;2.1890;
99.0000;0.2719;2.1764;
99.3000;0.2662;2.1614;
99.6000;0.2759;2.1890;
99.9000;0.2719;2.1789;
100.2000;0.2694;2.1714;
100.5000;0.2711;2.1739;
100.8000;0.2735;2.1815;
101.1000;0.2719;2.1815;
101.4000;0.2727;2.1815;
101.7000;0.2735;2.1890;
102.0000;0.2711;2.1764;
102.3000;0.2702;2.1714;
102.6000;0.2751;2.1915;
102.9000;0.2751;2.1890;
103.2000;0.2743;2.1940;
103.5000;0.2833;2.2140;
103.8000;0.2727;2.1840;
104.1000;0.2686;2.1789;
104.4000;0.2654;2.1639;
104.7000;0.2686;2.1764;
105.0000;0.2776;2.1990;
105.3000;0.2711;2.1890;
105.6000;0.2678;2.1815;
105.9000;0.2711;2.1890;
106.2000;0.2711;2.1764;
106.5000;0.2670;2.1614;
106.8000;0.2670;2.1614;
107.1000;0.2694;2.1739;
107.4000;0.2686;2.1714;
107.7000;0.2702;2.1789;
108.0000;0.2743;2.1915;
108.3000;0.2727;2.1940;
108.6000;0.2735;2.1940;
108.9000;0.2743;2.2015;
109.2000;0.2711;2.1940;
109.5000;0.2678;2.1789;
109.8000;0.2686;2.1664;
110.1000;0.2711;2.1764;
110.4000;0.2727;2.1815;
110.7000;0.2719;2.1739;
111.0000;0.2719;2.1689;
111.3000;0.2784;2.1865;
111.6000;0.2743;2.1789;
111.9000;0.2719;2.1840;
112.2000;0.2613;2.1614;
112.5000;0.2719;2.1890;
112.8000;0.2735;2.1915;
113.1000;0.2711;2.1789;
113.4000;0.2743;2.1915;
113.7000;0.2711;2.1840;
114.0000;0.2727;2.1840;
114.3000;0.2727;2.1815;
114.6000;0.2686;2.1815;
114.9000;0.2784;2.2065;
115.2000;0.2727;2.1890;
115.5000;0.2719;2.1865;
115.8000;0.2702;2.1865;
116.1000;0.2694;2.1890;
116.4000;0.2727;2.1965;
116.7000;0.2743;2.2040;
117.0000;0.2702;2.1990;
117.3000;0.2711;2.2065;
117.6000;0.2727;2.2115;
117.9000;0.2686;2.2040;
118.2000;0.2711;2.2040;
118.5000;0.2719;2.1990;
118.8000;0.2678;2.1865;
119.1000;0.2702;2.1915;
119.4000;0.2743;2.1915;
119.7000;0.2694;2.1865;
120.0000;0.2711;2.1940;
120.3000;0.2686;2.1840;
120.6000;0.2759;2.2040;
120.9000;0.2719;2.2015;
121.2000;0.2670;2.1915;
121.5000;0.2800;2.2065;
121.8000;0.2719;2.1915;
122.1000;0.2694;2.1890;
122.4000;0.2686;2.1840;
122.7000;0.2751;2.2065;
123.0000;0.2743;2.2040;
123.3000;0.2906;2.2491;
123.6000;0.2694;2.1915;
123.9000;0.2702;2.1915;
124.2000;0.2727;2.2090;
124.5000;0.2702;2.2015;
124.8000;0.2702;2.2015;
125.1000;0.2686;2.1990;
125.4000;0.2768;2.2240;
125.7000;0.2719;2.1990;
126.0000;0.2711;2.1940;
126.3000;0.2711;2.1815;
126.6000;0.2702;2.1815;
126.9000;0.2719;2.1865;
127.2000;0.2719;2.1739;
127.5000;0.2784;2.1890;
127.8000;0.2711;2.1739;
128.1000;0.2719;2.1890;
128.4000;0.2776;2.2015;
128.7000;0.2678;2.1789;
129.0000;0.2711;2.1890;
129.3000;0.2637;2.1664;
129.6000;0.2719;2.1990;
129.9000;0.2808;2.2240;
130.2000;0.2694;2.1965;
130.5000;0.2702;2.1940;
130.8000;0.2702;2.1840;
131.1000;0.2702;2.1714;
131.4000;0.2694;2.1664;
131.7000;0.2694;2.1614;
132.0000;0.2743;2.1789;
132.3000;0.2678;2.1639;
132.6000;0.2727;2.1815;
132.9000;0.2735;2.1940;
133.2000;0.2711;2.1865;
133.5000;0.2694;2.1815;
133.8000;0.2694;2.1714;
134.1000;0.2735;2.1764;
134.4000;0.2702;2.1689;
134.7000;0.2646;2.1464;
135.0000;0.2719;2.1714;
135.3000;0.2711;2.1739;
135.6000;0.2711;2.1639;
135.9000;0.2646;2.1514;
136.2000;0.2711;2.1564;
136.5000;0.2719;2.1514;
136.8000;0.2727;2.1539;
137.1000;0.2711;2.1689;
137.4000;0.2711;2.1714;
137.7000;0.2727;2.1764;
138.0000;0.2702;2.1815;
138.3000;0.2719;2.1965;
138.6000;0.2711;2.1890;
138.9000;0.2694;2.1865;
139.2000;0.2719;2.2015;
139.5000;0.2776;2.2065;
139.8000;0.2621;2.1614;
140.1000;0.2686;2.1840;
140.4000;0.2686;2.1840;
140.7000;0.2727;2.2015;
141.0000;0.2727;2.1965;
141.3000;0.2727;2.2040;
141.6000;0.2711;2.1915;
141.9000;0.2735;2.2015;
142.2000;0.2719;2.1965;
142.5000;0.2711;2.1990;
142.8000;0.2768;2.2140;
143.1000;0.2711;2.2065;
143.4000;0.2654;2.1840;
143.7000;0.2711;2.1990;
144.0000;0.2711;2.1915;
144.3000;0.2711;2.1865;
144.6000;0.2686;2.1689;
144.9000;0.2694;2.1689;
145.2000;0.2719;2.1739;
145.5000;0.2686;2.1714;
145.8000;0.2702;2.1815;
146.1000;0.2694;2.1789;
146.4000;0.2719;2.1890;
146.7000;0.2678;2.1664;
147.0000;0.2735;2.1714;
147.3000;0.2751;2.1815;
147.6000;0.2727;2.1664;
147.9000;0.2727;2.1714;
148.2000;0.2646;2.1539;
148.5000;0.2702;2.1664;
148.8000;0.2711;2.1714;
149.1000;0.2702;2.1664;
149.4000;0.2727;2.1739;
149.7000;0.2735;2.1764;
150.0000;0.2694;2.1639;
150.3000;0.2646;2.1539;
150.6000;0.2686;2.1539;
150.9000;0.2719;2.1639;
151.2000;0.2711;2.1564;
151.5000;0.2694;2.1514;
151.8000;0.2711;2.1589;
152.1000;0.2702;2.1589;
152.4000;0.2727;2.1689;
152.7000;0.2662;2.1589;
153.0000;0.2727;2.1739;
153.3000;0.2719;2.1764;
153.6000;0.2686;2.1589;
153.9000;0.2719;2.1639;
154.2000;0.2694;2.1639;
154.5000;0.2702;2.1739;
154.8000;0.2686;2.1714;
155.1000;0.2735;2.1815;
155.4000;0.2719;2.1789;
155.7000;0.2727;2.1815;
156.0000;0.2678;2.1689;
156.3000;0.2727;2.1789;
156.6000;0.2711;2.1589;
156.9000;0.2702;2.1664;
157.2000;0.2637;2.1589;
157.5000;0.2743;2.1890;
157.8000;0.2711;2.1764;
158.1000;0.2751;2.1865;
158.4000;0.2743;2.1840;
158.7000;0.2759;2.1815;
159.0000;0.2678;2.1639;
159.3000;0.2670;2.1614;
159.6000;0.2759;2.1840;
159.9000;0.2719;2.1614;
160.2000;0.2694;2.1539;
160.5000;0.2702;2.1589;
160.8000;0.2670;2.1589;
161.1000;0.2727;2.1714;
161.4000;0.2743;2.1789;
161.7000;0.2694;2.1664;
162.0000;0.2711;2.1639;
162.3000;0.2711;2.1714;
162.6000;0.2694;2.1614;
162.9000;0.2694;2.1639;
163.2000;0.2702;2.1714;
163.5000;0.2662;2.1564;
163.8000;0.2711;2.1664;
164.1000;0.2719;2.1714;
164.4000;0.2694;2.1639;
164.7000;0.2711;2.1764;
165.0000;0.2719;2.1664;
165.3000;0.2702;2.1489;
165.6000;0.2719;2.1489;
165.9000;0.2711;2.1439;
166.2000;0.2727;2.1539;
166.5000;0.2711;2.1539;
166.8000;0.2727;2.1664;
167.1000;0.2702;2.1564;
167.4000;0.2678;2.1564;
167.7000;0.2719;2.1614;
168.0000;0.2694;2.1614;
168.3000;0.2711;2.1764;
168.6000;0.2702;2.1815;
168.9000;0.2702;2.1739;
169.2000;0.2694;2.1689;
169.5000;0.2702;2.1714;
169.8000;0.2702;2.1689;
170.1000;0.2735;2.1714;
170.4000;0.2702;2.1689;
170.7000;0.2711;2.1664;
171.0000;0.2702;2.1639;
171.3000;0.2735;2.1789;
171.6000;0.2711;2.1714;
171.9000;0.2686;2.1639;
172.2000;0.2702;2.1739;
172.5000;0.2694;2.1714;
172.8000;0.2711;2.1689;
173.1000;0.2719;2.1664;
173.4000;0.2702;2.1714;
173.7000;0.2719;2.1764;
174.0000;0.2702;2.1714;
174.3000;0.2678;2.1614;
174.6000;0.2719;2.1714;
174.9000;0.2727;2.1739;
175.2000;0.2719;2.1764;
175.5000;0.2751;2.1789;
175.8000;0.2719;2.1714;
176.1000;0.2711;2.1639;
176.4000;0.2727;2.1739;
176.7000;0.2702;2.1664;
177.0000;0.2694;2.1664;
177.3000;0.2686;2.1639;
177.6000;0.2694;2.1639;
177.9000;0.2711;2.1639;
178.2000;0.2702;2.1639;
178.5000;0.2711;2.1689;
178.8000;0.2727;2.1764;
179.1000;0.2702;2.1764;
179.4000;0.2711;2.1764;
179.7000;0.2702;2.1764;
180.0000;0.2735;2.1840;
180.3000;0.2694;2.1714;
180.6000;0.2646;2.1439;
180.9000;0.2727;2.1514;
181.2000;0.2678;2.1289;
181.5000;0.2711;2.1464;
181.8000;0.2711;2.1439;
182.1000;0.2702;2.1414;
182.4000;0.2694;2.1414;
182.7000;0.2808;2.1739;
183.0000;0.2808;2.1815;
183.3000;0.2711;2.1664;
183.6000;0.2694;2.1539;
183.9000;0.2711;2.1589;
184.2000;0.2702;2.1639;
184.5000;0.2719;2.1664;
184.8000;0.2686;2.1639;
185.1000;0.2702;2.1764;
185.4000;0.2670;2.1689;
185.7000;0.2727;2.1890;
186.0000;0.2702;2.1815;
186.3000;0.2702;2.1664;
186.6000;0.2629;2.1514;
186.9000;0.2727;2.1789;
187.2000;0.2719;2.1764;
187.5000;0.2694;2.1664;
187.8000;0.2735;2.1840;
188.1000;0.2727;2.1789;
188.4000;0.2735;2.1739;
188.7000;0.2719;2.1664;
189.0000;0.2654;2.1489;
189.3000;0.2727;2.1789;
189.6000;0.2694;2.1789;
189.9000;0.2784;2.2065;
190.2000;0.2637;2.1714;
190.5000;0.2719;2.1890;
190.8000;0.2711;2.1890;
191.1000;0.2727;2.1940;
191.4000;0.2719;2.1764;
191.7000;0.2686;2.1714;
192.0000;0.2800;2.2040;
192.3000;0.2686;2.1789;
192.6000;0.2719;2.1789;
192.9000;0.2662;2.1589;
193.2000;0.2572;2.1264;
193.5000;0.2727;2.1689;
193.8000;0.2694;2.1714;
194.1000;0.2702;2.1789;
194.4000;0.2678;2.1739;
194.7000;0.2735;2.1840;
195.0000;0.2711;2.1689;
195.3000;0.2800;2.1764;
195.6000;0.2662;2.1439;
195.9000;0.2694;2.1689;
196.2000;0.2702;2.1815;
196.5000;0.2930;2.2391;
196.8000;0.2743;2.1815;
197.1000;0.2719;2.1764;
197.4000;0.2646;2.1614;
197.7000;0.2629;2.1564;
198.0000;0.2719;2.1840;
198.3000;0.2654;2.1639;
198.6000;0.2719;2.1840;
198.9000;0.2694;2.1789;
199.2000;0.2702;2.1739;
199.5000;0.2662;2.1664;
199.8000;0.2711;2.1664;
200.1000;0.2694;2.1689;
200.4000;0.2678;2.1614;
200.7000;0.2711;2.1689;
201.0000;0.2711;2.1739;
201.3000;0.2735;2.1865;
201.6000;0.2743;2.1990;
201.9000;0.2792;2.2065;
202.2000;0.2719;2.1915;
202.5000;0.2768;2.2040;
202.8000;0.2678;2.1815;
203.1000;0.2719;2.1890;
203.4000;0.2719;2.1890;
203.7000;0.2727;2.1915;
204.0000;0.2702;2.1915;
204.3000;0.2702;2.1890;
204.6000;0.2702;2.1815;
204.9000;0.2686;2.1764;
205.2000;0.2686;2.1764;
205.5000;0.2694;2.1639;
205.8000;0.2711;2.1639;
206.1000;0.2670;2.1539;
206.4000;0.2702;2.1639;
206.7000;0.2735;2.1764;
207.0000;0.2662;2.1564;
207.3000;0.2784;2.1840;
207.6000;0.2711;2.1689;
207.9000;0.2735;2.1689;
208.2000;0.2662;2.1539;
208.5000;0.2678;2.1639;
208.8000;0.2702;2.1714;
209.1000;0.2686;2.1664;
209.4000;0.2719;2.1739;
209.7000;0.2694;2.1714;
210.0000;0.2702;2.1739;
210.3000;0.2727;2.1764;
210.6000;0.2711;2.1714;
210.9000;0.2719;2.1689;
211.2000;0.2702;2.1639;
211.5000;0.2727;2.1689;
211.8000;0.2727;2.1789;
212.1000;0.2719;2.1764;
212.4000;0.2719;2.1739;
212.7000;0.2727;2.1840;
213.0000;0.2686;2.1714;
213.3000;0.2719;2.1789;
213.6000;0.2735;2.1789;
213.9000;0.2637;2.1489;
214.2000;0.2711;2.1664;
214.5000;0.2662;2.1639;
214.8000;0.2572;2.1264;
215.1000;0.2694;2.1564;
215.4000;0.2613;2.1414;
215.7000;0.2662;2.1514;
216.0000;0.2702;2.1589;
216.3000;0.2662;2.1439;
216.6000;0.2662;2.1489;
216.9000;0.2694;2.1464;
217.2000;0.2768;2.1689;
217.5000;0.2702;2.1514;
217.8000;0.2694;2.1464;
218.1000;0.2719;2.1439;
218.4000;0.2621;2.1238;
218.7000;0.2719;2.1564;
219.0000;0.2702;2.1539;
219.3000;0.2711;2.1564;
219.6000;0.2719;2.1614;
219.9000;0.2686;2.1639;
220.2000;0.2694;2.1639;
220.5000;0.2800;2.1915;
220.8000;0.2711;2.1589;
221.1000;0.2694;2.1564;
221.4000;0.2719;2.1689;
221.7000;0.2605;2.1264;
222.0000;0.2711;2.1589;
222.3000;0.2768;2.1764;
222.6000;0.2670;2.1439;
222.9000;0.2792;2.1840;
223.2000;0.2711;2.1689;
223.5000;0.2646;2.1514;
223.8000;0.2727;2.1689;
224.1000;0.2654;2.1464;
224.4000;0.2735;2.1614;
224.7000;0.2735;2.1689;
225.0000;0.2702;2.1564;
225.3000;0.2686;2.1564;
225.6000;0.2686;2.1614;
225.9000;0.2719;2.1689;
226.2000;0.2670;2.1514;
226.5000;0.2825;2.1815;
226.8000;0.2727;2.1564;
227.1000;0.2743;2.1514;
227.4000;0.2711;2.1489;
227.7000;0.2670;2.1414;
228.0000;0.2735;2.1589;
228.3000;0.2735;2.1614;
228.6000;0.2711;2.1689;
228.9000;0.2670;2.1639;
229.2000;0.2711;2.1689;
229.5000;0.2727;2.1764;
229.8000;0.2735;2.1789;
230.1000;0.2751;2.1739;
230.4000;0.2719;2.1589;
230.7000;0.2719;2.1539;
231.0000;0.2808;2.1840;
231.3000;0.2735;2.1739;
231.6000;0.2702;2.1664;
231.9000;0.2686;2.1689;
232.2000;0.2702;2.1764;
232.5000;0.2702;2.1764;
232.8000;0.2702;2.1764;
233.1000;0.2735;2.1815;
233.4000;0.2768;2.1789;
233.7000;0.2743;2.1739;
234.0000;0.2711;2.1689;
234.3000;0.2694;2.1664;
234.6000;0.2686;2.1639;
234.9000;0.2711;2.1689;
235.2000;0.2719;2.1689;
235.5000;0.2702;2.1739;
235.8000;0.2711;2.1639;
236.1000;0.2719;2.1689;
236.4000;0.2670;2.1539;
236.7000;0.2727;2.1664;
237.0000;0.2719;2.1664;
237.3000;0.2735;2.1639;
237.6000;0.2719;2.1589;
237.9000;0.2702;2.1539;
238.2000;0.2637;2.1339;
238.5000;0.2719;2.1614;
238.8000;0.2694;2.1539;
239.1000;0.2686;2.1464;
239.4000;0.2759;2.1689;
239.7000;0.2727;2.1614;
240.0000;0.2751;2.1614;
240.3000;0.2751;2.1689;
240.6000;0.2678;2.1564;
240.9000;0.2678;2.1614;
241.2000;0.2686;2.1639;
241.5000;0.2678;2.1564;
241.8000;0.2711;2.1589;
242.1000;0.2759;2.1815;
242.4000;0.2694;2.1689;
242.7000;0.2702;2.1739;
243.0000;0.2678;2.1589;
243.3000;0.2686;2.1614;
243.6000;0.2743;2.1664;
243.9000;0.2719;2.1564;
244.2000;0.2702;2.1564;
244.5000;0.2711;2.1614;
244.8000;0.2678;2.1414;
245.1000;0.2702;2.1364;
245.4000;0.2662;2.1289;
245.7000;0.2759;2.1564;
246.0000;0.2735;2.1514;
246.3000;0.2711;2.1414;
246.6000;0.2694;2.1339;
246.9000;0.2694;2.1289;
247.2000;0.2711;2.1414;
247.5000;0.2735;2.1514;
247.8000;0.2719;2.1489;
248.1000;0.2694;2.1439;
248.4000;0.2743;2.1514;
248.7000;0.2727;2.1464;
249.0000;0.2678;2.1264;
249.3000;0.2702;2.1264;
249.6000;0.2719;2.1264;
249.9000;0.2702;2.1188;
250.2000;0.2719;2.1264;
250.5000;0.2727;2.1314;
250.8000;0.2702;2.1289;
251.1000;0.2800;2.1589;
251.4000;0.2686;2.1364;
251.7000;0.2702;2.1389;
252.0000;0.2727;2.1464;
252.3000;0.2702;2.1464;
252.6000;0.2768;2.1639;
252.9000;0.2719;2.1564;
253.2000;0.2735;2.1589;
253.5000;0.2694;2.1589;
253.8000;0.2711;2.1689;
254.1000;0.2727;2.1664;
254.4000;0.2711;2.1639;
254.7000;0.2711;2.1589;
255.0000;0.2719;2.1639;
255.3000;0.2654;2.1514;
255.6000;0.2686;2.1539;
255.9000;0.2719;2.1564;
256.2000;0.2702;2.1564;
256.5000;0.2694;2.1614;
256.8000;0.2711;2.1614;
257.1000;0.2702;2.1689;
257.4000;0.2711;2.1714;
257.7000;0.2702;2.1614;
258.0000;0.2735;2.1614;
258.3000;0.2702;2.1539;
258.6000;0.2792;2.1664;
258.9000;0.2727;2.1539;
259.2000;0.2727;2.1514;
259.5000;0.2702;2.1489;
259.8000;0.2727;2.1589;
260.1000;0.2735;2.1689;
260.4000;0.2694;2.1614;
260.7000;0.2711;2.1714;
261.0000;0.2702;2.1789;
261.3000;0.2719;2.1789;
261.6000;0.2719;2.1714;
261.9000;0.2702;2.1689;
262.2000;0.2711;2.1664;
262.5000;0.2711;2.1815;
262.8000;0.2670;2.1664;
263.1000;0.2719;2.1840;
263.4000;0.2686;2.1689;
263.7000;0.2711;2.1714;
264.0000;0.2702;2.1664;
264.3000;0.2719;2.1714;
264.6000;0.2670;2.1564;
264.9000;0.2694;2.1689;
265.2000;0.2694;2.1764;
265.5000;0.2711;2.1815;
265.8000;0.2702;2.1739;
266.1000;0.2702;2.1714;
266.4000;0.2719;2.1714;
266.7000;0.2735;2.1714;
267.0000;0.2711;2.1589;
267.3000;0.2727;2.1664;
267.6000;0.2743;2.1739;
267.9000;0.2702;2.1664;
268.2000;0.2711;2.1589;
268.5000;0.2743;2.1664;
268.8000;0.2719;2.1689;
269.1000;0.2735;2.1714;
269.4000;0.2694;2.1614;
269.7000;0.2719;2.1614;
270.0000;0.2694;2.1614;
270.3000;0.2719;2.1639;
270.6000;0.2735;2.1589;
270.9000;0.2702;2.1489;
271.2000;0.2702;2.1514;
271.5000;0.2711;2.1514;
271.8000;0.2702;2.1514;
272.1000;0.2719;2.1539;
272.4000;0.2711;2.1614;
272.7000;0.2784;2.1764;
273.0000;0.2702;2.1564;
273.3000;0.2743;2.1589;
273.6000;0.2727;2.1614;
273.9000;0.2719;2.1614;
274.2000;0.2719;2.1614;
274.5000;0.2735;2.1614;
274.8000;0.2719;2.1564;
275.1000;0.2646;2.1264;
275.4000;0.2719;2.1439;
275.7000;0.2702;2.1439;
276.0000;0.2686;2.1314;
276.3000;0.2702;2.1389;
276.6000;0.2711;2.1464;
276.9000;0.2727;2.1439;
277.2000;0.2792;2.1539;
277.5000;0.2719;2.1339;
277.8000;0.2727;2.1389;
278.1000;0.2776;2.1589;
278.4000;0.2702;2.1414;
278.7000;0.2727;2.1489;
279.0000;0.2727;2.1489;
279.3000;0.2711;2.1414;
279.6000;0.2719;2.1414;
279.9000;0.2727;2.1414;
280.2000;0.2694;2.1414;
280.5000;0.2694;2.1439;
280.8000;0.2686;2.1414;
281.1000;0.2719;2.1464;
281.4000;0.2711;2.1439;
281.7000;0.2751;2.1539;
282.0000;0.2702;2.1389;
282.3000;0.2694;2.1439;
282.6000;0.2686;2.1489;
282.9000;0.2711;2.1514;
283.2000;0.2735;2.1589;
283.5000;0.2702;2.1589;
283.8000;0.2825;2.1815;
284.1000;0.2719;2.1514;
284.4000;0.2702;2.1414;
284.7000;0.2702;2.1464;
285.0000;0.2678;2.1439;
285.3000;0.2686;2.1514;
285.6000;0.2694;2.1414;
285.9000;0.2743;2.1539;
286.2000;0.2702;2.1489;
286.5000;0.2727;2.1614;
286.8000;0.2694;2.1414;
287.1000;0.2727;2.1514;
287.4000;0.2711;2.1439;
287.7000;0.2792;2.1689;
288.0000;0.2711;2.1464;
288.3000;0.2702;2.1489;
288.6000;0.2719;2.1489;
288.9000;0.2702;2.1364;
289.2000;0.2694;2.1339;
289.5000;0.2784;2.1514;
289.8000;0.2711;2.1238;
290.1000;0.2711;2.1264;
290.4000;0.2727;2.1389;
290.7000;0.2719;2.1439;
291.0000;0.2702;2.1414;
291.3000;0.2702;2.1414;
291.6000;0.2702;2.1439;
291.9000;0.2711;2.1439;
292.2000;0.2727;2.1539;
292.5000;0.2719;2.1589;
292.8000;0.2727;2.1564;
293.1000;0.2776;2.1815;
293.4000;0.2711;2.1639;
293.7000;0.2735;2.1689;
294.0000;0.2702;2.1564;
294.3000;0.2694;2.1439;
294.6000;0.2711;2.1464;
294.9000;0.2727;2.1489;
295.2000;0.2694;2.1414;
295.5000;0.2702;2.1439;
295.8000;0.2719;2.1564;
296.1000;0.2735;2.1564;
296.4000;0.2702;2.1389;
296.7000;0.2719;2.1464;
297.0000;0.2694;2.1439;
297.3000;0.2702;2.1489;
297.6000;0.2711;2.1539;
297.9000;0.2711;2.1539;
298.2000;0.2711;2.1514;
298.5000;0.2719;2.1464;
298.8000;0.2702;2.1489;
299.1000;0.2719;2.1464;
299.4000;0.2719;2.1439;
299.7000;0.2702;2.1439;
300.0000;0.2719;2.1564;
300.3000;0.2711;2.1514;
300.6000;0.2702;2.1489;
300.9000;0.2727;2.1564;
301.2000;0.2776;2.1764;
301.5000;0.2702;2.1614;
301.8000;0.2694;2.1639;
302.1000;0.2719;2.1764;
302.4000;0.2735;2.1815;
302.7000;0.2711;2.1664;
303.0000;0.2719;2.1639;
303.3000;0.2792;2.1815;
303.6000;0.2735;2.1589;
303.9000;0.2646;2.1314;
304.2000;0.2686;2.1464;
304.5000;0.2646;2.1414;
304.8000;0.2727;2.1489;
305.1000;0.2719;2.1414;
305.4000;0.2621;2.1163;
305.7000;0.2654;2.1238;
306.0000;0.2694;2.1414;
306.3000;0.2711;2.1514;
306.6000;0.2694;2.1439;
306.9000;0.2670;2.1389;
307.2000;0.2702;2.1489;
307.5000;0.2841;2.1890;
307.8000;0.2711;2.1639;
308.1000;0.2702;2.1589;
308.4000;0.2727;2.1639;
308.7000;0.2719;2.1689;
309.0000;0.2719;2.1689;
309.3000;0.2605;2.1364;
309.6000;0.2678;2.1714;
309.9000;0.2759;2.2015;
310.2000;0.2711;2.1815;
310.5000;0.2694;2.1764;
310.8000;0.2702;2.1739;
311.1000;0.2702;2.1764;
311.4000;0.2686;2.1664;
311.7000;0.2735;2.1764;
312.0000;0.2711;2.1714;
312.3000;0.2825;2.2015;
312.6000;0.2694;2.1714;
312.9000;0.2702;2.1664;
313.2000;0.2711;2.1739;
313.5000;0.2808;2.2015;
313.8000;0.2719;2.1789;
314.1000;0.2702;2.1789;
314.4000;0.2694;2.1714;
314.7000;0.2686;2.1689;
315.0000;0.2702;2.1739;
315.3000;0.2694;2.1764;
315.6000;0.2702;2.1639;
315.9000;0.2768;2.1865;
316.2000;0.2719;2.1764;
316.5000;0.2727;2.1815;
316.8000;0.2702;2.1714;
317.1000;0.2711;2.1614;
317.4000;0.2719;2.1564;
317.7000;0.2711;2.1689;
318.0000;0.2694;2.1539;
318.3000;0.2686;2.1539;
318.6000;0.2694;2.1614;
318.9000;0.2719;2.1789;
319.2000;0.2711;2.1865;
319.5000;0.2711;2.1890;
319.8000;0.2686;2.1815;
320.1000;0.2711;2.1689;
320.4000;0.2711;2.1664;
320.7000;0.2735;2.1689;
321.0000;0.2694;2.1539;
321.3000;0.2694;2.1564;
321.6000;0.2694;2.1614;
321.9000;0.2719;2.1689;
322.2000;0.2686;2.1639;
322.5000;0.2792;2.1915;
322.8000;0.2621;2.1464;
323.1000;0.2702;2.1639;
323.4000;0.2694;2.1664;
323.7000;0.2711;2.1714;
324.0000;0.2719;2.1764;
324.3000;0.2694;2.1739;
324.6000;0.2694;2.1714;
324.9000;0.2694;2.1714;
325.2000;0.2694;2.1739;
325.5000;0.2702;2.1739;
325.8000;0.2540;2.1289;
326.1000;0.2719;2.1815;
326.4000;0.2580;2.1364;
326.7000;0.2694;2.1689;
327.0000;0.2702;2.1689;
327.3000;0.2735;2.1840;
327.6000;0.2711;2.1689;
327.9000;0.2719;2.1614;
328.2000;0.2711;2.1614;
328.5000;0.2646;2.1464;
328.8000;0.2719;2.1689;
329.1000;0.2694;2.1664;
329.4000;0.2694;2.1739;
329.7000;0.2654;2.1664;
330.0000;0.2678;2.1789;
330.3000;0.2662;2.1865;
330.6000;0.2556;2.1664;
330.9000;0.2629;2.1915;
331.2000;0.2711;2.1965;
331.5000;0.2686;2.1890;
331.8000;0.2702;2.1840;
332.1000;0.2719;2.1789;
332.4000;0.2694;2.1714;
332.7000;0.2694;2.1739;
333.0000;0.2702;2.1789;
333.3000;0.2646;2.1689;
333.6000;0.2694;2.1789;
333.9000;0.2727;2.1815;
334.2000;0.2719;2.1815;
334.5000;0.2670;2.1664;
334.8000;0.2702;2.1840;
335.1000;0.2678;2.1714;
335.4000;0.2678;2.1664;
335.7000;0.2751;2.1840;
336.0000;0.2686;2.1539;
336.3000;0.2711;2.1689;
336.6000;0.2621;2.1539;
336.9000;0.2686;2.1789;
337.2000;0.2702;2.1764;
337.5000;0.2743;2.1865;
337.8000;0.2743;2.1789;
338.1000;0.2727;2.1739;
338.4000;0.2711;2.1689;
338.7000;0.2702;2.1639;
339.0000;0.2686;2.1564;
339.3000;0.2686;2.1439;
339.6000;0.2686;2.1414;
339.9000;0.2735;2.1514;
340.2000;0.2711;2.1539;
340.5000;0.2678;2.1464;
340.8000;0.2727;2.1589;
341.1000;0.2711;2.1564;
341.4000;0.2694;2.1514;
341.7000;0.2629;2.1314;
342.0000;0.2686;2.1439;
342.3000;0.2678;2.1339;
342.6000;0.2662;2.1364;
342.9000;0.2702;2.1539;
343.2000;0.2702;2.1514;
343.5000;0.2711;2.1639;
343.8000;0.2686;2.1564;
344.1000;0.2719;2.1664;
344.4000;0.2686;2.1639;
344.7000;0.2711;2.1714;
345.0000;0.2727;2.1739;
345.3000;0.2694;2.1639;
345.6000;0.2711;2.1789;
345.9000;0.2702;2.1764;
346.2000;0.2702;2.1764;
346.5000;0.2662;2.1639;
346.8000;0.2702;2.1714;
347.1000;0.2751;2.1815;
347.4000;0.2694;2.1689;
347.7000;0.2662;2.1639;
348.0000;0.2711;2.1714;
348.3000;0.2686;2.1689;
348.6000;0.2719;2.1789;
348.9000;0.2694;2.1739;
349.2000;0.2711;2.1739;
349.5000;0.2768;2.1815;
349.8000;0.2694;2.1664;
350.1000;0.2686;2.1689;
350.4000;0.2678;2.1589;
350.7000;0.2678;2.1589;
351.0000;0.2670;2.1614;
351.3000;0.2686;2.1664;
351.6000;0.2637;2.1564;
351.9000;0.2711;2.1714;
352.2000;0.2694;2.1739;
352.5000;0.2751;2.1940;
352.8000;0.2694;2.1639;
353.1000;0.2621;2.1514;
353.4000;0.2711;2.1764;
353.7000;0.2719;2.1739;
354.0000;0.2694;2.1639;
354.3000;0.2702;2.1614;
354.6000;0.2735;2.1614;
354.9000;0.2841;2.1815;
355.2000;0.2678;2.1339;
355.5000;0.2654;2.1314;
355.8000;0.2572;2.1088;
356.1000;0.2702;2.1464;
356.4000;0.2694;2.1564;
356.7000;0.2686;2.1614;
357.0000;0.2702;2.1664;
357.3000;0.2702;2.1689;
357.6000;0.2686;2.1614;
357.9000;0.2702;2.1689;
358.2000;0.2727;2.1764;
358.5000;0.2711;2.1815;
358.8000;0.2702;2.1865;
359.1000;0.2702;2.1915;
359.4000;0.2678;2.1815;
359.7000;0.2702;2.1865;
360.0000;0.2678;2.1865;
360.3000;0.2694;2.1890;
360.6000;0.2711;2.1840;
360.9000;0.2694;2.1764;
361.2000;0.2694;2.1764;
361.5000;0.2662;2.1639;
361.8000;0.2711;2.1764;
362.1000;0.2686;2.1840;
362.4000;0.2702;2.1789;
362.7000;0.2686;2.1714;
363.0000;0.2711;2.1789;
363.3000;0.2702;2.1689;
363.6000;0.2727;2.1840;
363.9000;0.2694;2.1815;
364.2000;0.2694;2.1840;
364.5000;0.2784;2.2140;
364.8000;0.2686;2.1764;
365.1000;0.2743;2.1840;
365.4000;0.2670;2.1664;
365.7000;0.2702;2.1689;
366.0000;0.2702;2.1764;
366.3000;0.2694;2.1739;
366.6000;0.2702;2.1739;
366.9000;0.2711;2.1865;
367.2000;0.2670;2.1714;
367.5000;0.2702;2.1764;
367.8000;0.2694;2.1764;
368.1000;0.2768;2.1940;
368.4000;0.2702;2.1614;
368.7000;0.2702;2.1689;
369.0000;0.2711;2.1764;
369.3000;0.2597;2.1439;
369.6000;0.2686;2.1639;
369.9000;0.2711;2.1639;
370.2000;0.2702;2.1564;
370.5000;0.2702;2.1514;
370.8000;0.2686;2.1489;
371.1000;0.2808;2.1815;
371.4000;0.2678;2.1439;
371.7000;0.2694;2.1564;
372.0000;0.2702;2.1614;
372.3000;0.2711;2.1639;
372.6000;0.2678;2.1589;
372.9000;0.2702;2.1614;
373.2000;0.2711;2.1664;
373.5000;0.2711;2.1639;
373.8000;0.2711;2.1539;
374.1000;0.2711;2.1564;
374.4000;0.2759;2.1714;
374.7000;0.2686;2.1514;
375.0000;0.2719;2.1664;
375.3000;0.2678;2.1539;
375.6000;0.2702;2.1614;
375.9000;0.2711;2.1589;
376.2000;0.2719;2.1639;
376.5000;0.2759;2.1764;
376.8000;0.2686;2.1614;
377.1000;0.2719;2.1714;
377.4000;0.2768;2.1714;
377.7000;0.2702;2.1564;
378.0000;0.2670;2.1489;
378.3000;0.2686;2.1414;
378.6000;0.2711;2.1364;
378.9000;0.2686;2.1289;
379.2000;0.2694;2.1289;
379.5000;0.2694;2.1314;
379.8000;0.2719;2.1339;
380.1000;0.2702;2.1314;
380.4000;0.2678;2.1264;
380.7000;0.2702;2.1364;
381.0000;0.2711;2.1439;
381.3000;0.2711;2.1464;
381.6000;0.2702;2.1464;
381.9000;0.2678;2.1539;
382.2000;0.2694;2.1564;
382.5000;0.2727;2.1714;
382.8000;0.2637;2.1439;
383.1000;0.2711;2.1664;
383.4000;0.2719;2.1689;
383.7000;0.2646;2.1364;
384.0000;0.2686;2.1489;
384.3000;0.2702;2.1614;
384.6000;0.2751;2.1714;
384.9000;0.2719;2.1789;
385.2000;0.2702;2.1739;
385.5000;0.2727;2.1840;
385.8000;0.2694;2.1689;
386.1000;0.2735;2.1689;
386.4000;0.2694;2.1589;
386.7000;0.2727;2.1714;
387.0000;0.2694;2.1714;
387.3000;0.2711;2.1714;
387.6000;0.2743;2.1764;
387.9000;0.2686;2.1639;
388.2000;0.2702;2.1639;
388.5000;0.2678;2.1589;
388.8000;0.2711;2.1614;
389.1000;0.2719;2.1664;
389.4000;0.2678;2.1614;
389.7000;0.2686;2.1589;
390.0000;0.2702;2.1614;
390.3000;0.2727;2.1639;
390.6000;0.2694;2.1589;
390.9000;0.2702;2.1664;
391.2000;0.2711;2.1764;
391.5000;0.2719;2.1764;
391.8000;0.2711;2.1689;
392.1000;0.2768;2.1840;
392.4000;0.2719;2.1840;
392.7000;0.2711;2.1865;
393.0000;0.2694;2.1815;
393.3000;0.2735;2.1840;
393.6000;0.2711;2.1564;
393.9000;0.2727;2.1614;
394.2000;0.2719;2.1614;
394.5000;0.2694;2.1589;
394.8000;0.2719;2.1739;
395.1000;0.2743;2.1815;
395.4000;0.2711;2.1739;
395.7000;0.2711;2.1815;
396.0000;0.2735;2.1815;
396.3000;0.2580;2.1564;
396.6000;0.2621;2.1614;
396.9000;0.2686;2.1890;
397.2000;0.2727;2.1915;
397.5000;0.2694;2.1815;
397.8000;0.2702;2.1815;
398.1000;0.2800;2.1965;
398.4000;0.2719;2.1664;
398.7000;0.2572;2.1289;
399.0000;0.2776;2.1840;
399.3000;0.2694;2.1664;
399.6000;0.2702;2.1639;
399.9000;0.2719;2.1739;
400.2000;0.2727;2.1789;
400.5000;0.2776;2.1890;
400.8000;0.2711;2.1789;
401.1000;0.2694;2.1739;
401.4000;0.2654;2.1639;
401.7000;0.2719;2.1764;
402.0000;0.2841;2.2140;
402.3000;0.2784;2.2015;
402.6000;0.2719;2.1840;
402.9000;0.2711;2.1815;
403.2000;0.2784;2.1940;
403.5000;0.2662;2.1539;
403.8000;0.2694;2.1564;
404.1000;0.2686;2.1489;
404.4000;0.2768;2.1689;
404.7000;0.2776;2.1714;
405.0000;0.2719;2.1614;
405.3000;0.2727;2.1714;
405.6000;0.2719;2.1664;
405.9000;0.2686;2.1539;
406.2000;0.2678;2.1614;
406.5000;0.2678;2.1614;
406.8000;0.2800;2.1890;
407.1000;0.2719;2.1764;
407.4000;0.2719;2.1689;
407.7000;0.2580;2.1389;
408.0000;0.2702;2.1789;
408.3000;0.2686;2.1789;
408.6000;0.2670;2.1714;
408.9000;0.2678;2.1614;
409.2000;0.2702;2.1589;
409.5000;0.2719;2.1639;
409.8000;0.2743;2.1739;
410.1000;0.2711;2.1589;
410.4000;0.2702;2.1689;
410.7000;0.2621;2.1464;
411.0000;0.2686;2.1639;
411.3000;0.2686;2.1564;
411.6000;0.2670;2.1614;
411.9000;0.2694;2.1664;
412.2000;0.2702;2.1689;
412.5000;0.2686;2.1714;
412.8000;0.2686;2.1614;
413.1000;0.2694;2.1489;
413.4000;0.2670;2.1464;
413.7000;0.2751;2.1589;
414.0000;0.2735;2.1439;
414.3000;0.2694;2.1314;
414.6000;0.2678;2.1339;
414.9000;0.2719;2.1439;
415.2000;0.2702;2.1439;
415.5000;0.2711;2.1414;
415.8000;0.2686;2.1339;
416.1000;0.2711;2.1489;
416.4000;0.2694;2.1539;
416.7000;0.2686;2.1489;
417.0000;0.2686;2.1639;
417.3000;0.2654;2.1564;
417.6000;0.2686;2.1589;
417.9000;0.2678;2.1614;
418.2000;0.2711;2.1689;
418.5000;0.2702;2.1639;
418.8000;0.2711;2.1514;
419.1000;0.2694;2.1564;
419.4000;0.2702;2.1664;
419.7000;0.2686;2.1614;
420.0000;0.2702;2.1539;
420.3000;0.2694;2.1389;
420.6000;0.2678;2.1414;
420.9000;0.2670;2.1514;
421.2000;0.2686;2.1539;
421.5000;0.2564;2.1314;
421.8000;0.2678;2.1614;
422.1000;0.2719;2.1614;
422.4000;0.2768;2.1639;
422.7000;0.2686;2.1539;
423.0000;0.2702;2.1589;
423.3000;0.2711;2.1664;
423.6000;0.2711;2.1714;
423.9000;0.2662;2.1689;
424.2000;0.2670;2.1689;
424.5000;0.2686;2.1639;
424.8000;0.2702;2.1589;
425.1000;0.2719;2.1664;
425.4000;0.2686;2.1564;
425.7000;0.2751;2.1664;
426.0000;0.2702;2.1564;
426.3000;0.2702;2.1589;
426.6000;0.2727;2.1664;
426.9000;0.2759;2.1714;
427.2000;0.2662;2.1514;
427.5000;0.2711;2.1589;
427.8000;0.2613;2.1289;
428.1000;0.2694;2.1514;
428.4000;0.2605;2.1289;
428.7000;0.2768;2.1789;
429.0000;0.2686;2.1564;
429.3000;0.2694;2.1614;
429.6000;0.2637;2.1439;
429.9000;0.2694;2.1614;
430.2000;0.2702;2.1714;
430.5000;0.2702;2.1714;
430.8000;0.2654;2.1514;
431.1000;0.2702;2.1664;
431.4000;0.2719;2.1714;
431.7000;0.2719;2.1714;
432.0000;0.2727;2.1714;
432.3000;0.2702;2.1614;
432.6000;0.2719;2.1664;
432.9000;0.2735;2.1639;
433.2000;0.2719;2.1664;
433.5000;0.2694;2.1664;
433.8000;0.2727;2.1815;
434.1000;0.2702;2.1840;
434.4000;0.2727;2.1940;
434.7000;0.2719;2.1865;
435.0000;0.2686;2.1815;
435.3000;0.2686;2.1714;
435.6000;0.2702;2.1789;
435.9000;0.2719;2.1789;
436.2000;0.2686;2.1764;
436.5000;0.2702;2.1789;
436.8000;0.2646;2.1664;
437.1000;0.2686;2.1714;
437.4000;0.2702;2.1764;
437.7000;0.2711;2.1789;
438.0000;0.2694;2.1789;
438.3000;0.2759;2.1965;
438.6000;0.2702;2.1815;
438.9000;0.2743;2.1840;
439.2000;0.2621;2.1489;
439.5000;0.2735;2.1840;
439.8000;0.2670;2.1589;
440.1000;0.2711;2.1714;
440.4000;0.2670;2.1614;
440.7000;0.2776;2.1890;
441.0000;0.2694;2.1614;
441.3000;0.2694;2.1664;
441.6000;0.2686;2.1614;
441.9000;0.2702;2.1639;
442.2000;0.2711;2.1539;
442.5000;0.2662;2.1489;
442.8000;0.2711;2.1614;
443.1000;0.2686;2.1589;
443.4000;0.2694;2.1639;
443.7000;0.2662;2.1589;
444.0000;0.2678;2.1639;
444.3000;0.2776;2.1714;
444.6000;0.2646;2.1439;
444.9000;0.2621;2.1389;
445.2000;0.2719;2.1689;
445.5000;0.2686;2.1639;
445.8000;0.2719;2.1714;
446.1000;0.2711;2.1689;
446.4000;0.2702;2.1614;
446.7000;0.2694;2.1564;
447.0000;0.2694;2.1514;
447.3000;0.2662;2.1514;
447.6000;0.2670;2.1539;
447.9000;0.2702;2.1639;
448.2000;0.2719;2.1589;
448.5000;0.2711;2.1539;
448.8000;0.2727;2.1589;
449.1000;0.2694;2.1489;
449.4000;0.2637;2.1314;
449.7000;0.2694;2.1539;
450.0000;0.2711;2.1589;
450.3000;0.2686;2.1539;
450.6000;0.2735;2.1589;
450.9000;0.2702;2.1539;
451.2000;0.2751;2.1664;
451.5000;0.2694;2.1489;
451.8000;0.2694;2.1489;
452.1000;0.2694;2.1439;
452.4000;0.2711;2.1464;
452.7000;0.2646;2.1364;
453.0000;0.2711;2.1489;
453.3000;0.2686;2.1489;
453.6000;0.2694;2.1564;
453.9000;0.2727;2.1589;
454.2000;0.2678;2.1489;
454.5000;0.2686;2.1539;
454.8000;0.2686;2.1539;
455.1000;0.2711;2.1589;
455.4000;0.2727;2.1689;
455.7000;0.2678;2.1564;
456.0000;0.2727;2.1589;
456.3000;0.2702;2.1464;
456.6000;0.2670;2.1389;
456.9000;0.2702;2.1464;
457.2000;0.2694;2.1489;
457.5000;0.2694;2.1539;
457.8000;0.2727;2.1739;
458.1000;0.2678;2.1639;
458.4000;0.2727;2.1689;
458.7000;0.2694;2.1714;
459.0000;0.2719;2.1764;
459.3000;0.2711;2.1764;
459.6000;0.2686;2.1664;
459.9000;0.2670;2.1589;
460.2000;0.2735;2.1764;
460.5000;0.2694;2.1714;
460.8000;0.2654;2.1589;
461.1000;0.2646;2.1514;
461.4000;0.2735;2.1815;
461.7000;0.2719;2.1639;
462.0000;0.2776;2.1965;
462.3000;0.2784;2.1915;
462.6000;0.2711;2.1739;
462.9000;0.2702;2.1739;
463.2000;0.2621;2.1489;
463.5000;0.2719;2.1714;
463.8000;0.2735;2.1739;
464.1000;0.2759;2.1664;
464.4000;0.2694;2.1439;
464.7000;0.2702;2.1589;
465.0000;0.2670;2.1439;
465.3000;0.2727;2.1614;
465.6000;0.2654;2.1364;
465.9000;0.2662;2.1414;
466.2000;0.2694;2.1664;
466.5000;0.2670;2.1589;
466.8000;0.2719;2.1614;
467.1000;0.2694;2.1589;
467.4000;0.2711;2.1689;
467.7000;0.2727;2.1689;
468.0000;0.2694;2.1739;
468.3000;0.2678;2.1764;
468.6000;0.2694;2.1739;
468.9000;0.2654;2.1564;
469.2000;0.2711;2.1739;
469.5000;0.2702;2.1789;
469.8000;0.2735;2.1940;
470.1000;0.2784;2.2115;
470.4000;0.2719;2.1865;
470.7000;0.2686;2.1739;
471.0000;0.2711;2.1815;
471.3000;0.2711;2.1815;
471.6000;0.2694;2.1764;
471.9000;0.2637;2.1564;
472.2000;0.2686;2.1664;
472.5000;0.2702;2.1739;
472.8000;0.2702;2.1764;
473.1000;0.2702;2.1664;
473.4000;0.2654;2.1489;
473.7000;0.2759;2.1789;
474.0000;0.2833;2.2090;
474.3000;0.2694;2.1764;
474.6000;0.2711;2.1815;
474.9000;0.2694;2.1739;
475.2000;0.2711;2.1815;
475.5000;0.2711;2.1789;
475.8000;0.2719;2.1764;
476.1000;0.2678;2.1689;
476.4000;0.2719;2.1764;
476.7000;0.2678;2.1739;
477.0000;0.2694;2.1739;
477.3000;0.2686;2.1639;
477.6000;0.2694;2.1639;
477.9000;0.2702;2.1614;
478.2000;0.2694;2.1564;
478.5000;0.2702;2.1539;
478.8000;0.2694;2.1564;
479.1000;0.2719;2.1589;
479.4000;0.2678;2.1464;
479.7000;0.2694;2.1514;
480.0000;0.2694;2.1539;
480.3000;0.2702;2.1639;
480.6000;0.2719;2.1714;
480.9000;0.2662;2.1564;
481.2000;0.2702;2.1664;
481.5000;0.2694;2.1714;
481.8000;0.2711;2.1739;
482.1000;0.2686;2.1714;
482.4000;0.2670;2.1589;
482.7000;0.2678;2.1639;
483.0000;0.2621;2.1539;
483.3000;0.2646;2.1664;
483.6000;0.2686;2.1764;
483.9000;0.2702;2.1840;
484.2000;0.2768;2.1965;
484.5000;0.2719;2.1764;
484.8000;0.2735;2.1714;
485.1000;0.2882;2.2165;
485.4000;0.2702;2.1639;
485.7000;0.2678;2.1664;
486.0000;0.2792;2.1990;
486.3000;0.2727;2.1865;
486.6000;0.2646;2.1589;
486.9000;0.2678;2.1639;
487.2000;0.2768;2.1890;
487.5000;0.2662;2.1639;
487.8000;0.2711;2.1714;
488.1000;0.2719;2.1714;
488.4000;0.2735;2.1739;
488.7000;0.2702;2.1589;
489.0000;0.2654;2.1464;
489.3000;0.2694;2.1514;
489.6000;0.2719;2.1589;
489.9000;0.2662;2.1489;
490.2000;0.2678;2.1564;
490.5000;0.2702;2.1639;
490.8000;0.2686;2.1589;
491.1000;0.2694;2.1589;
491.4000;0.2694;2.1589;
491.7000;0.2678;2.1514;
492.0000;0.2694;2.1464;
492.3000;0.2678;2.1564;
492.6000;0.2711;2.1689;
492.9000;0.2694;2.1689;
493.2000;0.2719;2.1739;
493.5000;0.2702;2.1739;
493.8000;0.2686;2.1614;
494.1000;0.2711;2.1589;
494.4000;0.2711;2.1614;
494.7000;0.2711;2.1664;
495.0000;0.2670;2.1614;
495.3000;0.2694;2.1739;
495.6000;0.2841;2.2065;
495.9000;0.2694;2.1739;
496.2000;0.2735;2.1840;
496.5000;0.2694;2.1664;
496.8000;0.2711;2.1639;
497.1000;0.2686;2.1614;
497.4000;0.2711;2.1689;
497.7000;0.2702;2.1664;
498.0000;0.2670;2.1614;
498.3000;0.2702;2.1689;
498.6000;0.2694;2.1639;
498.9000;0.2711;2.1664;
499.2000;0.2686;2.1714;
499.5000;0.2727;2.1815;
499.8000;0.2686;2.1764;
500.1000;0.2735;2.1990;
500.4000;0.2719;2.1815;
500.7000;0.2711;2.1865;
501.0000;0.2702;2.1764;
501.3000;0.2711;2.1789;
501.6000;0.2654;2.1639;
501.9000;0.2711;2.1739;
502.2000;0.2727;2.1689;
502.5000;0.2702;2.1639;
502.8000;0.2694;2.1639;
503.1000;0.2670;2.1664;
503.4000;0.2719;2.1865;
503.7000;0.2694;2.1739;
504.0000;0.2719;2.1865;
504.3000;0.2711;2.1840;
504.6000;0.2702;2.1865;
504.9000;0.2678;2.1815;
505.2000;0.2702;2.1714;
505.5000;0.2711;2.1664;
505.8000;0.2841;2.2040;
506.1000;0.2727;2.1664;
506.4000;0.2694;2.1589;
506.7000;0.2694;2.1614;
507.0000;0.2702;2.1639;
507.3000;0.2784;2.1915;
507.6000;0.2800;2.1915;
507.9000;0.2670;2.1589;
508.2000;0.2702;2.1564;
508.5000;0.2727;2.1589;
508.8000;0.2646;2.1464;
509.1000;0.2613;2.1389;
509.4000;0.2735;2.1539;
509.7000;0.2711;2.1539;
510.0000;0.2580;2.1289;
510.3000;0.2629;2.1439;
510.6000;0.2702;2.1614;
510.9000;0.2694;2.1564;
511.2000;0.2711;2.1539;
511.5000;0.2694;2.1489;
511.8000;0.2694;2.1539;
512.1000;0.2686;2.1539;
512.4000;0.2694;2.1564;
512.7000;0.2711;2.1614;
513.0000;0.2694;2.1539;
513.3000;0.2719;2.1514;
513.6000;0.2719;2.1589;
513.9000;0.2637;2.1464;
514.2000;0.2719;2.1689;
514.5000;0.2694;2.1664;
514.8000;0.2702;2.1689;
515.1000;0.2735;2.1764;
515.4000;0.2686;2.1664;
515.7000;0.2694;2.1739;
516.0000;0.2702;2.1840;
516.3000;0.2694;2.1815;
516.6000;0.2654;2.1714;
516.9000;0.2694;2.1815;
517.2000;0.2686;2.1764;
517.5000;0.2678;2.1664;
517.8000;0.2784;2.1915;
518.1000;0.2694;2.1714;
518.4000;0.2613;2.1564;
518.7000;0.2686;2.1689;
519.0000;0.2637;2.1564;
519.3000;0.2613;2.1464;
519.6000;0.2702;2.1664;
519.9000;0.2711;2.1664;
520.2000;0.2792;2.1865;
520.5000;0.2719;2.1664;
520.8000;0.2694;2.1564;
521.1000;0.2694;2.1589;
521.4000;0.2808;2.1940;
521.7000;0.2678;2.1639;
522.0000;0.2711;2.1714;
522.3000;0.2686;2.1739;
522.6000;0.2686;2.1739;
522.9000;0.2678;2.1639;
523.2000;0.2678;2.1689;
523.5000;0.2768;2.1840;
523.8000;0.2711;2.1639;
524.1000;0.2662;2.1539;
524.4000;0.2727;2.1739;
524.7000;0.2702;2.1714;
525.0000;0.2694;2.1714;
525.3000;0.2694;2.1714;
525.6000;0.2686;2.1664;
525.9000;0.2719;2.1664;
526.2000;0.2702;2.1689;
526.5000;0.2702;2.1639;
526.8000;0.2694;2.1614;
527.1000;0.2719;2.1764;
527.4000;0.2711;2.1789;
527.7000;0.2678;2.1664;
528.0000;0.2694;2.1639;
528.3000;0.2654;2.1589;
528.6000;0.2694;2.1639;
528.9000;0.2711;2.1639;
529.2000;0.2702;2.1514;
529.5000;0.2727;2.1564;
529.8000;0.2792;2.1890;
530.1000;0.2711;2.1664;
530.4000;0.2678;2.1539;
530.7000;0.2629;2.1414;
531.0000;0.2800;2.1714;
531.3000;0.2694;2.1389;
531.6000;0.2694;2.1414;
531.9000;0.2637;2.1389;
532.2000;0.2841;2.1965;
532.5000;0.2711;2.1639;
532.8000;0.2678;2.1564;
533.1000;0.2702;2.1589;
533.4000;0.2686;2.1564;
533.7000;0.2825;2.1965;
534.0000;0.2662;2.1614;
534.3000;0.2654;2.1589;
534.6000;0.2702;2.1689;
534.9000;0.2702;2.1689;
535.2000;0.2719;2.1714;
535.5000;0.2702;2.1664;
535.8000;0.2702;2.1714;
536.1000;0.2711;2.1664;
536.4000;0.2711;2.1589;
536.7000;0.2686;2.1564;
537.0000;0.2784;2.1865;
537.3000;0.2572;2.1339;
537.6000;0.2727;2.1764;
537.9000;0.2702;2.1589;
538.2000;0.2719;2.1714;
538.5000;0.2621;2.1514;
538.8000;0.2702;2.1689;
539.1000;0.2678;2.1589;
539.4000;0.2784;2.1865;
539.7000;0.2743;2.1689;
540.0000;0.2605;2.1389;
540.3000;0.2727;2.1714;
540.6000;0.2678;2.1514;
540.9000;0.2719;2.1514;
541.2000;0.2694;2.1464;
541.5000;0.2702;2.1464;
541.8000;0.2564;2.1088;
542.1000;0.2702;2.1489;
542.4000;0.2702;2.1464;
542.7000;0.2768;2.1589;
543.0000;0.2694;2.1464;
543.3000;0.2719;2.1489;
543.6000;0.2580;2.1113;
543.9000;0.2719;2.1414;
544.2000;0.2735;2.1489;
544.5000;0.2743;2.1489;
544.8000;0.2702;2.1314;
545.1000;0.2735;2.1414;
545.4000;0.2800;2.1564;
545.7000;0.2694;2.1389;
546.0000;0.2686;2.1389;
546.3000;0.2727;2.1439;
546.6000;0.2702;2.1414;
546.9000;0.2678;2.1364;
547.2000;0.2686;2.1464;
547.5000;0.2686;2.1564;
547.8000;0.2694;2.1589;
548.1000;0.2727;2.1664;
548.4000;0.2694;2.1514;
548.7000;0.2702;2.1564;
549.0000;0.2711;2.1489;
549.3000;0.2686;2.1389;
549.6000;0.2719;2.1489;
549.9000;0.2702;2.1514;
550.2000;0.2686;2.1439;
550.5000;0.2719;2.1564;
550.8000;0.2719;2.1564;
551.1000;0.2662;2.1364;
551.4000;0.2711;2.1514;
551.7000;0.2694;2.1589;
552.0000;0.2792;2.1764;
552.3000;0.2694;2.1464;
552.6000;0.2686;2.1589;
552.9000;0.2711;2.1664;
553.2000;0.2662;2.1514;
553.5000;0.2686;2.1564;
553.8000;0.2678;2.1539;
554.1000;0.2727;2.1664;
554.4000;0.2711;2.1714;
554.7000;0.2711;2.1689;
555.0000;0.2621;2.1464;
555.3000;0.2711;2.1739;
555.6000;0.2678;2.1564;
555.9000;0.2646;2.1439;
556.2000;0.2711;2.1639;
556.5000;0.2694;2.1614;
556.8000;0.2743;2.1739;
557.1000;0.2702;2.1664;
557.4000;0.2711;2.1639;
557.7000;0.2702;2.1664;
558.0000;0.2702;2.1539;
558.3000;0.2686;2.1639;
558.6000;0.2694;2.1689;
558.9000;0.2711;2.1689;
559.2000;0.2678;2.1589;
559.5000;0.2605;2.1238;
559.8000;0.2694;2.1414;
560.1000;0.2719;2.1414;
560.4000;0.2702;2.1464;
560.7000;0.2702;2.1514;
561.0000;0.2686;2.1414;
561.3000;0.2702;2.1439;
561.6000;0.2727;2.1489;
561.9000;0.2629;2.1238;
562.2000;0.2694;2.1439;
562.5000;0.2702;2.1539;
562.8000;0.2621;2.1339;
563.1000;0.2702;2.1614;
563.4000;0.2702;2.1564;
563.7000;0.2711;2.1514;
564.0000;0.2719;2.1439;
564.3000;0.2694;2.1339;
564.6000;0.2686;2.1289;
564.9000;0.2711;2.1389;
565.2000;0.2702;2.1514;
565.5000;0.2670;2.1489;
565.8000;0.2743;2.1689;
566.1000;0.2719;2.1639;
566.4000;0.2735;2.1714;
566.7000;0.2670;2.1564;
567.0000;0.2694;2.1589;
567.3000;0.2702;2.1564;
567.6000;0.2719;2.1664;
567.9000;0.2702;2.1639;
568.2000;0.2727;2.1815;
568.5000;0.2702;2.1714;
568.8000;0.2702;2.1664;
569.1000;0.2694;2.1739;
569.4000;0.2711;2.1789;
569.7000;0.2678;2.1689;
570.0000;0.2678;2.1689;
570.3000;0.2694;2.1589;
570.6000;0.2654;2.1564;
570.9000;0.2735;2.1840;
571.2000;0.2686;2.1714;
571.5000;0.2694;2.1614;
571.8000;0.2686;2.1589;
572.1000;0.2670;2.1614;
572.4000;0.2694;2.1664;
572.7000;0.2686;2.1589;
573.0000;0.2702;2.1514;
573.3000;0.2719;2.1589;
573.6000;0.2678;2.1539;
573.9000;0.2694;2.1589;
574.2000;0.2694;2.1689;
574.5000;0.2719;2.1815;
574.8000;0.2719;2.1840;
575.1000;0.2711;2.1815;
575.4000;0.2727;2.1840;
575.7000;0.2719;2.1764;
576.0000;0.2678;2.1589;
576.3000;0.2670;2.1614;
576.6000;0.2711;2.1664;
576.9000;0.2662;2.1539;
577.2000;0.2540;2.1264;
577.5000;0.2711;2.1664;
577.8000;0.2694;2.1739;
578.1000;0.2711;2.1739;
578.4000;0.2694;2.1714;
578.7000;0.2613;2.1539;
579.0000;0.2678;2.1664;
579.3000;0.2637;2.1589;
579.6000;0.2735;2.1915;
579.9000;0.2711;2.1789;
580.2000;0.2768;2.1789;
580.5000;0.2702;2.1689;
580.8000;0.2768;2.1915;
581.1000;0.2702;2.1714;
581.4000;0.2686;2.1639;
581.7000;0.2711;2.1764;
582.0000;0.2727;2.1815;
582.3000;0.2686;2.1789;
582.6000;0.2719;2.1689;
582.9000;0.2719;2.1714;
583.2000;0.2719;2.1714;
583.5000;0.2654;2.1564;
583.8000;0.2678;2.1539;
584.1000;0.2613;2.1339;
584.4000;0.2727;2.1614;
584.7000;0.2735;2.1714;
585.0000;0.2727;2.1764;
585.3000;0.2678;2.1639;
585.6000;0.2702;2.1714;
585.9000;0.2768;2.1840;
586.2000;0.2686;2.1664;
586.5000;0.2694;2.1739;
586.8000;0.2702;2.1789;
587.1000;0.2719;2.1789;
587.4000;0.2702;2.1639;
587.7000;0.2751;2.1764;
588.0000;0.2678;2.1564;
588.3000;0.2694;2.1489;
588.6000;0.2702;2.1489;
588.9000;0.2678;2.1489;
589.2000;0.2686;2.1564;
589.5000;0.2686;2.1439;
589.8000;0.2694;2.1464;
590.1000;0.2686;2.1489;
590.4000;0.2719;2.1614;
590.7000;0.2686;2.1464;
591.0000;0.2694;2.1514;
591.3000;0.2694;2.1539;
591.6000;0.2768;2.1689;
591.9000;0.2711;2.1614;
592.2000;0.2702;2.1614;
592.5000;0.2702;2.1514;
592.8000;0.2702;2.1489;
593.1000;0.2702;2.1514;
593.4000;0.2727;2.1514;
593.7000;0.2694;2.1414;
594.0000;0.2670;2.1389;
594.3000;0.2694;2.1364;
594.6000;0.2646;2.1389;
594.9000;0.2702;2.1589;
595.2000;0.2686;2.1564;
595.5000;0.2670;2.1439;
595.8000;0.2784;2.1764;
596.1000;0.2719;2.1564;
596.4000;0.2670;2.1464;
596.7000;0.2678;2.1539;
597.0000;0.2678;2.1564;
597.3000;0.2686;2.1564;
597.6000;0.2670;2.1414;
597.9000;0.2702;2.1439;
598.2000;0.2711;2.1514;
598.5000;0.2686;2.1464;
598.8000;0.2694;2.1489;
599.1000;0.2711;2.1539;
599.4000;0.2678;2.1489;
599.7000;0.2694;2.1589;
600.0000;0.2719;2.1689;
600.3000;0.2702;2.1514;
600.6000;0.2678;2.1238;
600.9000;0.2686;2.1088;
601.2000;0.2589;2.0587;
601.5000;0.2678;2.0562;
601.8000;0.2613;2.0111;
602.1000;0.2621;1.9911;
602.4000;0.2605;1.9686;
602.7000;0.2589;1.9385;
603.0000;0.2597;1.9210;
603.3000;0.2564;1.8934;
603.6000;0.2564;1.8759;
603.9000;0.2548;1.8584;
604.2000;0.2434;1.8133;
604.5000;0.2613;1.8509;
604.8000;0.2556;1.8283;
605.1000;0.2564;1.8183;
605.4000;0.2523;1.8008;
605.7000;0.2507;1.7907;
606.0000;0.2523;1.7757;
606.3000;0.2540;1.7682;
606.6000;0.2515;1.7482;
606.9000;0.2491;1.7382;
607.2000;0.2507;1.7432;
607.5000;0.2515;1.7457;
607.8000;0.2483;1.7382;
608.1000;0.2483;1.7331;
608.4000;0.2556;1.7482;
608.7000;0.2491;1.7256;
609.0000;0.2450;1.7131;
609.3000;0.2491;1.7281;
609.6000;0.2475;1.7181;
609.9000;0.2491;1.7181;
610.2000;0.2483;1.7156;
610.5000;0.2491;1.7231;
610.8000;0.2450;1.7081;
611.1000;0.2466;1.7106;
611.4000;0.2491;1.7181;
611.7000;0.2483;1.7006;
612.0000;0.2442;1.6906;
612.3000;0.2466;1.7031;
612.6000;0.2483;1.7081;
612.9000;0.2491;1.7056;
613.2000;0.2426;1.6831;
613.5000;0.2458;1.7006;
613.8000;0.2475;1.6981;
614.1000;0.2466;1.6956;
614.4000;0.2466;1.6956;
614.7000;0.2475;1.6981;
615.0000;0.2483;1.6981;
615.3000;0.2475;1.6881;
615.6000;0.2475;1.6906;
615.9000;0.2499;1.6931;
616.2000;0.2499;1.6856;
616.5000;0.2434;1.6780;
616.8000;0.2466;1.6805;
617.1000;0.2466;1.6856;
617.4000;0.2450;1.6780;
617.7000;0.2475;1.6856;
618.0000;0.2418;1.6705;
618.3000;0.2466;1.6881;
618.6000;0.2458;1.6956;
618.9000;0.2442;1.6856;
619.2000;0.2450;1.6981;
619.5000;0.2483;1.6956;
619.8000;0.2442;1.6856;
620.1000;0.2475;1.6780;
620.4000;0.2483;1.6730;
620.7000;0.2450;1.6605;
621.0000;0.2450;1.6655;
621.3000;0.2466;1.6655;
621.6000;0.2515;1.6831;
621.9000;0.2475;1.6780;
622.2000;0.2442;1.6780;
622.5000;0.2442;1.6780;
622.8000;0.2507;1.6956;
623.1000;0.2483;1.6906;
623.4000;0.2442;1.6755;
623.7000;0.2450;1.6730;
624.0000;0.2377;1.6680;
624.3000;0.2458;1.6931;
624.6000;0.2442;1.7006;
624.9000;0.2621;1.7532;
625.2000;0.2475;1.7081;
625.5000;0.2499;1.7131;
625.8000;0.2450;1.6981;
626.1000;0.2621;1.7507;
626.4000;0.2466;1.7206;
626.7000;0.2361;1.6906;
627.0000;0.2466;1.7081;
627.3000;0.2466;1.6956;
627.6000;0.2344;1.6555;
627.9000;0.2475;1.6956;
628.2000;0.2393;1.6705;
628.5000;0.2458;1.6906;
628.8000;0.2442;1.6881;
629.1000;0.2564;1.7131;
629.4000;0.2475;1.6981;
629.7000;0.2466;1.6906;
630.0000;0.2426;1.6805;
630.3000;0.2483;1.6931;
630.6000;0.2393;1.6680;
630.9000;0.2409;1.6780;
631.2000;0.2466;1.7006;
631.5000;0.2475;1.7081;
631.8000;0.2458;1.7056;
632.1000;0.2466;1.7031;
632.4000;0.2458;1.6981;
632.7000;0.2450;1.7006;
633.0000;0.2580;1.7356;
633.3000;0.2450;1.6906;
633.6000;0.2450;1.6931;
633.9000;0.2450;1.6856;
634.2000;0.2450;1.6831;
634.5000;0.2426;1.6705;
634.8000;0.2458;1.6780;
635.1000;0.2466;1.6755;
635.4000;0.2491;1.6831;
635.7000;0.2483;1.6655;
636.0000;0.2499;1.6755;
636.3000;0.2458;1.6680;
636.6000;0.2458;1.6755;
636.9000;0.2466;1.6856;
637.2000;0.2450;1.6730;
637.5000;0.2418;1.6705;
637.8000;0.2385;1.6480;
638.1000;0.2515;1.6805;
638.4000;0.2556;1.6881;
638.7000;0.2352;1.6405;
639.0000;0.2483;1.6705;
639.3000;0.2499;1.6705;
639.6000;0.2483;1.6705;
639.9000;0.2475;1.6705;
640.2000;0.2442;1.6580;
640.5000;0.2466;1.6655;
640.8000;0.2483;1.6730;
641.1000;0.2434;1.6655;
641.4000;0.2450;1.6655;
641.7000;0.2450;1.6705;
642.0000;0.2458;1.6755;
642.3000;0.2450;1.6780;
642.6000;0.2409;1.6730;
642.9000;0.2442;1.6730;
643.2000;0.2466;1.6605;
643.5000;0.2434;1.6455;
643.8000;0.2409;1.6430;
644.1000;0.2483;1.6655;
644.4000;0.2442;1.6605;
644.7000;0.2475;1.6705;
645.0000;0.2475;1.6705;
645.3000;0.2466;1.6780;
645.6000;0.2450;1.6730;
645.9000;0.2483;1.6856;
646.2000;0.2475;1.6881;
646.5000;0.2450;1.6805;
646.8000;0.2491;1.6805;
647.1000;0.2466;1.6630;
647.4000;0.2434;1.6555;
647.7000;0.2466;1.6630;
648.0000;0.2450;1.6580;
648.3000;0.2426;1.6580;
648.6000;0.2442;1.6555;
648.9000;0.2580;1.6931;
649.2000;0.2532;1.6805;
649.5000;0.2466;1.6630;
649.8000;0.2458;1.6630;
650.1000;0.2458;1.6730;
650.4000;0.2442;1.6680;
650.7000;0.2499;1.6705;
651.0000;0.2483;1.6680;
651.3000;0.2466;1.6605;
651.6000;0.2491;1.6705;
651.9000;0.2483;1.6680;
652.2000;0.2466;1.6680;
652.5000;0.2548;1.6881;
652.8000;0.2434;1.6730;
653.1000;0.2466;1.6856;
653.4000;0.2401;1.6680;
653.7000;0.2393;1.6555;
654.0000;0.2466;1.6805;
654.3000;0.2450;1.6755;
654.6000;0.2483;1.6831;
654.9000;0.2483;1.6780;
655.2000;0.2466;1.6755;
655.5000;0.2466;1.6705;
655.8000;0.2295;1.6204;
656.1000;0.2466;1.6580;
656.4000;0.2458;1.6580;
656.7000;0.2483;1.6780;
657.0000;0.2442;1.6705;
657.3000;0.2458;1.6680;
657.6000;0.2385;1.6530;
657.9000;0.2442;1.6680;
658.2000;0.2466;1.6705;
658.5000;0.2434;1.6530;
658.8000;0.2483;1.6580;
659.1000;0.2458;1.6480;
659.4000;0.2450;1.6455;
659.7000;0.2458;1.6380;
660.0000;0.2442;1.6430;
660.3000;0.2466;1.6380;
660.6000;0.2458;1.6380;
660.9000;0.2458;1.6405;
661.2000;0.2458;1.6430;
661.5000;0.2491;1.6480;
661.8000;0.2466;1.6455;
662.1000;0.2499;1.6555;
662.4000;0.2499;1.6555;
662.7000;0.2434;1.6355;
663.0000;0.2466;1.6430;
663.3000;0.2458;1.6505;
663.6000;0.2434;1.6430;
663.9000;0.2491;1.6605;
664.2000;0.2466;1.6605;
664.5000;0.2483;1.6780;
664.8000;0.2475;1.6831;
665.1000;0.2458;1.6705;
665.4000;0.2475;1.6881;
665.7000;0.2475;1.6881;
666.0000;0.2475;1.6831;
666.3000;0.2320;1.6380;
666.6000;0.2426;1.6630;
666.9000;0.2475;1.6705;
667.2000;0.2450;1.6680;
667.5000;0.2434;1.6630;
667.8000;0.2426;1.6630;
668.1000;0.2450;1.6605;
668.4000;0.2434;1.6605;
668.7000;0.2475;1.6680;
669.0000;0.2450;1.6580;
669.3000;0.2361;1.6355;
669.6000;0.2458;1.6505;
669.9000;0.2466;1.6505;
670.2000;0.2466;1.6505;
670.5000;0.2426;1.6430;
670.8000;0.2393;1.6355;
671.1000;0.2393;1.6530;
671.4000;0.2483;1.6730;
671.7000;0.2548;1.6856;
672.0000;0.2458;1.6780;
672.3000;0.2564;1.6906;
672.6000;0.2458;1.6705;
672.9000;0.2523;1.6831;
673.2000;0.2540;1.6831;
673.5000;0.2621;1.7081;
673.8000;0.2466;1.6555;
674.1000;0.2466;1.6630;
674.4000;0.2483;1.6730;
674.7000;0.2491;1.6831;
675.0000;0.2507;1.6931;
675.3000;0.2515;1.6981;
675.6000;0.2499;1.6831;
675.9000;0.2515;1.6906;
676.2000;0.2491;1.6856;
676.5000;0.2670;1.7306;
676.8000;0.2458;1.6780;
677.1000;0.2418;1.6705;
677.4000;0.2401;1.6680;
677.7000;0.2442;1.6906;
678.0000;0.2377;1.6655;
678.3000;0.2442;1.6780;
678.6000;0.2369;1.6605;
678.9000;0.2418;1.6605;
679.2000;0.2466;1.6730;
679.5000;0.2466;1.6705;
679.8000;0.2466;1.6680;
680.1000;0.2466;1.6755;
680.4000;0.2466;1.6805;
680.7000;0.2475;1.6780;
681.0000;0.2458;1.6630;
681.3000;0.2458;1.6605;
681.6000;0.2475;1.6655;
681.9000;0.2450;1.6555;
682.2000;0.2458;1.6630;
682.5000;0.2499;1.6730;
682.8000;0.2532;1.6805;
683.1000;0.2450;1.6530;
683.4000;0.2442;1.6605;
683.7000;0.2466;1.6605;
684.0000;0.2458;1.6580;
684.3000;0.2418;1.6630;
684.6000;0.2466;1.6680;
684.9000;0.2458;1.6605;
685.2000;0.2499;1.6705;
685.5000;0.2491;1.6655;
685.8000;0.2491;1.6680;
686.1000;0.2466;1.6630;
686.4000;0.2450;1.6605;
686.7000;0.2418;1.6605;
687.0000;0.2434;1.6705;
687.3000;0.2450;1.6705;
687.6000;0.2483;1.6831;
687.9000;0.2466;1.6805;
688.2000;0.2442;1.6755;
688.5000;0.2491;1.6906;
688.8000;0.2434;1.6705;
689.1000;0.2450;1.6780;
689.4000;0.2483;1.6906;
689.7000;0.2458;1.6881;
690.0000;0.2475;1.6881;
690.3000;0.2523;1.6981;
690.6000;0.2450;1.6655;
690.9000;0.2450;1.6655;
691.2000;0.2466;1.6705;
691.5000;0.2475;1.6730;
691.8000;0.2458;1.6705;
692.1000;0.2475;1.6755;
692.4000;0.2442;1.6680;
692.7000;0.2426;1.6530;
693.0000;0.2442;1.6630;
693.3000;0.2409;1.6705;
693.6000;0.2450;1.6881;
693.9000;0.2475;1.7006;
694.2000;0.2466;1.6981;
694.5000;0.2458;1.6831;
694.8000;0.2418;1.6705;
695.1000;0.2491;1.6981;
695.4000;0.2507;1.6956;
695.7000;0.2458;1.6981;
696.0000;0.2466;1.7006;
696.3000;0.2548;1.7231;
696.6000;0.2572;1.7231;
696.9000;0.2409;1.6730;
697.2000;0.2458;1.6856;
697.5000;0.2385;1.6630;
697.8000;0.2458;1.6780;
698.1000;0.2523;1.6931;
698.4000;0.2475;1.6755;
698.7000;0.2466;1.6780;
699.0000;0.2466;1.6730;
699.3000;0.2450;1.6730;
699.6000;0.2458;1.6755;
699.9000;0.2515;1.6906;
700.2000;0.2475;1.6780;
700.5000;0.2483;1.6755;
700.8000;0.2458;1.6705;
701.1000;0.2475;1.6805;
701.4000;0.2475;1.6705;
701.7000;0.2434;1.6580;
702.0000;0.2458;1.6630;
702.3000;0.2458;1.6680;
702.6000;0.2418;1.6580;
702.9000;0.2483;1.6780;
703.2000;0.2466;1.6730;
703.5000;0.2393;1.6555;
703.8000;0.2466;1.6730;
704.1000;0.2491;1.6881;
704.4000;0.2483;1.6805;
704.7000;0.2426;1.6655;
705.0000;0.2491;1.6705;
705.3000;0.2483;1.6755;
705.6000;0.2483;1.6755;
705.9000;0.2458;1.6680;
706.2000;0.2458;1.6630;
706.5000;0.2466;1.6680;
706.8000;0.2483;1.6705;
707.1000;0.2483;1.6705;
707.4000;0.2556;1.6906;
707.7000;0.2361;1.6254;
708.0000;0.2475;1.6530;
708.3000;0.2434;1.6355;
708.6000;0.2450;1.6480;
708.9000;0.2564;1.6931;
709.2000;0.2442;1.6605;
709.5000;0.2426;1.6580;
709.8000;0.2466;1.6730;
710.1000;0.2540;1.7006;
710.4000;0.2483;1.6831;
710.7000;0.2426;1.6655;
711.0000;0.2483;1.6805;
711.3000;0.2458;1.6630;
711.6000;0.2458;1.6655;
711.9000;0.2466;1.6755;
712.2000;0.2442;1.6705;
712.5000;0.2458;1.6730;
712.8000;0.2475;1.6856;
713.1000;0.2483;1.6805;
713.4000;0.2458;1.6780;
713.7000;0.2458;1.6856;
714.0000;0.2507;1.6981;
714.3000;0.2475;1.6881;
714.6000;0.2483;1.6856;
714.9000;0.2466;1.6805;
715.2000;0.2458;1.6780;
715.5000;0.2483;1.6831;
715.8000;0.2426;1.6680;
716.1000;0.2418;1.6630;
716.4000;0.2450;1.6730;
716.7000;0.2483;1.6881;
717.0000;0.2499;1.6931;
717.3000;0.2434;1.6680;
717.6000;0.2458;1.6680;
717.9000;0.2466;1.6680;
718.2000;0.2466;1.6680;
718.5000;0.2450;1.6555;
718.8000;0.2458;1.6480;
719.1000;0.2548;1.6780;
719.4000;0.2483;1.6530;
719.7000;0.2434;1.6505;
720.0000;0.2483;1.6655;
720.3000;0.2434;1.6455;
720.6000;0.2466;1.6580;
720.9000;0.2483;1.6505;
721.2000;0.2475;1.6480;
721.5000;0.2466;1.6530;
721.8000;0.2442;1.6530;
722.1000;0.2442;1.6455;
722.4000;0.2466;1.6530;
722.7000;0.2466;1.6630;
723.0000;0.2450;1.6655;
723.3000;0.2556;1.6956;
723.6000;0.2450;1.6655;
723.9000;0.2458;1.6655;
724.2000;0.2450;1.6755;
724.5000;0.2475;1.6780;
724.8000;0.2466;1.6755;
725.1000;0.2466;1.6780;
725.4000;0.2336;1.6505;
725.7000;0.2597;1.7231;
726.0000;0.2434;1.6780;
726.3000;0.2458;1.6805;
726.6000;0.2572;1.7056;
726.9000;0.2458;1.6755;
727.2000;0.2426;1.6580;
727.5000;0.2475;1.6680;
727.8000;0.2483;1.6630;
728.1000;0.2483;1.6605;
728.4000;0.2483;1.6680;
728.7000;0.2450;1.6630;
729.0000;0.2442;1.6630;
729.3000;0.2458;1.6730;
729.6000;0.2466;1.6730;
729.9000;0.2434;1.6655;
730.2000;0.2491;1.6805;
730.5000;0.2401;1.6580;
730.8000;0.2483;1.6680;
731.1000;0.2418;1.6555;
731.4000;0.2515;1.6755;
731.7000;0.2393;1.6430;
732.0000;0.2458;1.6680;
732.3000;0.2458;1.6655;
732.6000;0.2475;1.6755;
732.9000;0.2466;1.6805;
733.2000;0.2450;1.6705;
733.5000;0.2499;1.6805;
733.8000;0.2491;1.6730;
734.1000;0.2507;1.6805;
734.4000;0.2491;1.6755;
734.7000;0.2483;1.6730;
735.0000;0.2458;1.6831;
735.3000;0.2475;1.6780;
735.6000;0.2466;1.6680;
735.9000;0.2515;1.6805;
736.2000;0.2491;1.6780;
736.5000;0.2597;1.7056;
736.8000;0.2475;1.6705;
737.1000;0.2483;1.6605;
737.4000;0.2499;1.6605;
737.7000;0.2491;1.6455;
738.0000;0.2426;1.6380;
738.3000;0.2491;1.6505;
738.6000;0.2458;1.6630;
738.9000;0.2426;1.6505;
739.2000;0.2450;1.6480;
739.5000;0.2475;1.6555;
739.8000;0.2466;1.6605;
740.1000;0.2475;1.6605;
740.4000;0.2466;1.6555;
740.7000;0.2458;1.6580;
741.0000;0.2548;1.6831;
741.3000;0.2458;1.6580;
741.6000;0.2483;1.6705;
741.9000;0.2466;1.6655;
742.2000;0.2475;1.6755;
742.5000;0.2475;1.6755;
742.8000;0.2442;1.6605;
743.1000;0.2458;1.6680;
743.4000;0.2458;1.6730;
743.7000;0.2466;1.6755;
744.0000;0.2385;1.6480;
744.3000;0.2442;1.6680;
744.6000;0.2450;1.6730;
744.9000;0.2475;1.6755;
745.2000;0.2450;1.6730;
745.5000;0.2434;1.6655;
745.8000;0.2483;1.6780;
746.1000;0.2401;1.6605;
746.4000;0.2507;1.6856;
746.7000;0.2458;1.6856;
747.0000;0.2515;1.6931;
747.3000;0.2458;1.6831;
747.6000;0.2507;1.6881;
747.9000;0.2426;1.6630;
748.2000;0.2466;1.6831;
748.5000;0.2279;1.6280;
748.8000;0.2483;1.6856;
749.1000;0.2450;1.6805;
749.4000;0.2304;1.6455;
749.7000;0.2466;1.6906;
750.0000;0.2532;1.6981;
750.3000;0.2507;1.6831;
750.6000;0.2458;1.6705;
750.9000;0.2483;1.6730;
751.2000;0.2475;1.6730;
751.5000;0.2458;1.6705;
751.8000;0.2418;1.6605;
752.1000;0.2458;1.6655;
752.4000;0.2483;1.6730;
752.7000;0.2393;1.6530;
753.0000;0.2466;1.6831;
753.3000;0.2434;1.6881;
753.6000;0.2450;1.6931;
753.9000;0.2475;1.6856;
754.2000;0.2475;1.6831;
754.5000;0.2475;1.6906;
754.8000;0.2385;1.6655;
755.1000;0.2466;1.7056;
755.4000;0.2466;1.7031;
755.7000;0.2483;1.7006;
756.0000;0.2475;1.7006;
756.3000;0.2491;1.7056;
756.6000;0.2483;1.6931;
756.9000;0.2475;1.6856;
757.2000;0.2418;1.6730;
757.5000;0.2483;1.6931;
757.8000;0.2352;1.6580;
758.1000;0.2475;1.6805;
758.4000;0.2475;1.6705;
758.7000;0.2458;1.6630;
759.0000;0.2491;1.6730;
759.3000;0.2491;1.6705;
759.6000;0.2491;1.6630;
759.9000;0.2483;1.6730;
760.2000;0.2475;1.6730;
760.5000;0.2483;1.6680;
760.8000;0.2466;1.6605;
761.1000;0.2475;1.6630;
761.4000;0.2491;1.6680;
761.7000;0.2475;1.6530;
762.0000;0.2483;1.6455;
762.3000;0.2466;1.6480;
762.6000;0.2475;1.6555;
762.9000;0.2483;1.6630;
763.2000;0.2466;1.6605;
763.5000;0.2458;1.6655;
763.8000;0.2466;1.6705;
764.1000;0.2466;1.6680;
764.4000;0.2475;1.6730;
764.7000;0.2491;1.6856;
765.0000;0.2434;1.6730;
765.3000;0.2483;1.6831;
765.6000;0.2475;1.6780;
765.9000;0.2466;1.6730;
766.2000;0.2475;1.6805;
766.5000;0.2475;1.6730;
766.8000;0.2532;1.6956;
767.1000;0.2475;1.6755;
767.4000;0.2426;1.6630;
767.7000;0.2450;1.6630;
768.0000;0.2458;1.6680;
768.3000;0.2466;1.6680;
768.6000;0.2466;1.6630;
768.9000;0.2507;1.6730;
769.2000;0.2475;1.6655;
769.5000;0.2475;1.6805;
769.8000;0.2515;1.6780;
770.1000;0.2646;1.7106;
770.4000;0.2475;1.6630;
770.7000;0.2491;1.6705;
771.0000;0.2483;1.6780;
771.3000;0.2466;1.6780;
771.6000;0.2442;1.6630;
771.9000;0.2450;1.6655;
772.2000;0.2475;1.6730;
772.5000;0.2556;1.7031;
772.8000;0.2377;1.6505;
773.1000;0.2475;1.6805;
773.4000;0.2450;1.6730;
773.7000;0.2475;1.6730;
774.0000;0.2499;1.6906;
774.3000;0.2515;1.6906;
774.6000;0.2483;1.6805;
774.9000;0.2466;1.6655;
775.2000;0.2491;1.6655;
775.5000;0.2483;1.6530;
775.8000;0.2483;1.6580;
776.1000;0.2466;1.6555;
776.4000;0.2475;1.6580;
776.7000;0.2458;1.6505;
777.0000;0.2458;1.6530;
777.3000;0.2475;1.6605;
777.6000;0.2483;1.6605;
777.9000;0.2491;1.6630;
778.2000;0.2458;1.6555;
778.5000;0.2393;1.6405;
778.8000;0.2475;1.6655;
779.1000;0.2491;1.6705;
779.4000;0.2483;1.6730;
779.7000;0.2450;1.6605;
780.0000;0.2466;1.6555;
780.3000;0.2491;1.6555;
780.6000;0.2507;1.6680;
780.9000;0.2466;1.6680;
781.2000;0.2475;1.6705;
781.5000;0.2475;1.6805;
781.8000;0.2483;1.6730;
782.1000;0.2483;1.6805;
782.4000;0.2369;1.6505;
782.7000;0.2450;1.6705;
783.0000;0.2483;1.6730;
783.3000;0.2401;1.6430;
783.6000;0.2466;1.6630;
783.9000;0.2434;1.6605;
784.2000;0.2426;1.6530;
784.5000;0.2466;1.6480;
784.8000;0.2458;1.6405;
785.1000;0.2466;1.6355;
785.4000;0.2450;1.6455;
785.7000;0.2483;1.6555;
786.0000;0.2483;1.6530;
786.3000;0.2483;1.6530;
786.6000;0.2466;1.6605;
786.9000;0.2483;1.6705;
787.2000;0.2466;1.6630;
787.5000;0.2499;1.6856;
787.8000;0.2466;1.6805;
788.1000;0.2515;1.6856;
788.4000;0.2466;1.6805;
788.7000;0.2442;1.6680;
789.0000;0.2450;1.6755;
789.3000;0.2475;1.6831;
789.6000;0.2466;1.6831;
789.9000;0.2466;1.6705;
790.2000;0.2483;1.6805;
790.5000;0.2491;1.6881;
790.8000;0.2483;1.6755;
791.1000;0.2458;1.6630;
791.4000;0.2499;1.6730;
791.7000;0.2466;1.6730;
792.0000;0.2466;1.6780;
792.3000;0.2466;1.6831;
792.6000;0.2458;1.6881;
792.9000;0.2475;1.7006;
793.2000;0.2466;1.6956;
793.5000;0.2466;1.6805;
793.8000;0.2450;1.6805;
794.1000;0.2466;1.6805;
794.4000;0.2466;1.6780;
794.7000;0.2499;1.6856;
795.0000;0.2483;1.6680;
795.3000;0.2458;1.6605;
795.6000;0.2540;1.6831;
795.9000;0.2523;1.6831;
796.2000;0.2458;1.6580;
796.5000;0.2434;1.6480;
796.8000;0.2466;1.6630;
797.1000;0.2458;1.6655;
797.4000;0.2483;1.6680;
797.7000;0.2458;1.6655;
798.0000;0.2442;1.6605;
798.3000;0.2466;1.6630;
798.6000;0.2458;1.6580;
798.9000;0.2466;1.6630;
799.2000;0.2491;1.6680;
799.5000;0.2483;1.6555;
799.8000;0.2442;1.6430;
800.1000;0.2458;1.6530;
800.4000;0.2499;1.6680;
800.7000;0.2483;1.6680;
801.0000;0.2475;1.6655;
801.3000;0.2507;1.6780;
801.6000;0.2466;1.6655;
801.9000;0.2458;1.6605;
802.2000;0.2507;1.6680;
802.5000;0.2466;1.6705;
802.8000;0.2450;1.6730;
803.1000;0.2523;1.6956;
803.4000;0.2507;1.6906;
803.7000;0.2466;1.6755;
804.0000;0.2466;1.6680;
804.3000;0.2483;1.6655;
804.6000;0.2540;1.6780;
804.9000;0.2483;1.6630;
805.2000;0.2491;1.6680;
805.5000;0.2475;1.6580;
805.8000;0.2515;1.6780;
806.1000;0.2409;1.6480;
806.4000;0.2475;1.6705;
806.7000;0.2434;1.6530;
807.0000;0.2475;1.6580;
807.3000;0.2426;1.6430;
807.6000;0.2450;1.6505;
807.9000;0.2475;1.6480;
808.2000;0.2434;1.6305;
808.5000;0.2475;1.6530;
808.8000;0.2418;1.6430;
809.1000;0.2401;1.6430;
809.4000;0.2483;1.6680;
809.7000;0.2475;1.6680;
810.0000;0.2483;1.6655;
810.3000;0.2409;1.6355;
810.6000;0.2442;1.6530;
810.9000;0.2475;1.6655;
811.2000;0.2483;1.6705;
811.5000;0.2475;1.6630;
811.8000;0.2491;1.6655;
812.1000;0.2532;1.6881;
812.4000;0.2483;1.6755;
812.7000;0.2483;1.6780;
813.0000;0.2312;1.6380;
813.3000;0.2434;1.6680;
813.6000;0.2466;1.6856;
813.9000;0.2499;1.6906;
814.2000;0.2458;1.6755;
814.5000;0.2466;1.6831;
814.8000;0.2450;1.6755;
815.1000;0.2483;1.6805;
815.4000;0.2418;1.6705;
815.7000;0.2475;1.6755;
816.0000;0.2475;1.6605;
816.3000;0.2499;1.6655;
816.6000;0.2491;1.6630;
816.9000;0.2466;1.6530;
817.2000;0.2499;1.6605;
817.5000;0.2475;1.6580;
817.8000;0.2401;1.6480;
818.1000;0.2466;1.6630;
818.4000;0.2466;1.6580;
818.7000;0.2491;1.6555;
819.0000;0.2466;1.6580;
819.3000;0.2466;1.6630;
819.6000;0.2458;1.6680;
819.9000;0.2532;1.6831;
820.2000;0.2475;1.6580;
820.5000;0.2458;1.6555;
820.8000;0.2458;1.6605;
821.1000;0.2483;1.6755;
821.4000;0.2491;1.6655;
821.7000;0.2483;1.6680;
822.0000;0.2483;1.6630;
822.3000;0.2483;1.6680;
822.6000;0.2475;1.6605;
822.9000;0.2499;1.6580;
823.2000;0.2491;1.6580;
823.5000;0.2475;1.6480;
823.8000;0.2450;1.6380;
824.1000;0.2475;1.6480;
824.4000;0.2605;1.6931;
824.7000;0.2385;1.6305;
825.0000;0.2458;1.6605;
825.3000;0.2434;1.6580;
825.6000;0.2466;1.6630;
825.9000;0.2320;1.6254;
826.2000;0.2466;1.6680;
826.5000;0.2450;1.6705;
826.8000;0.2475;1.6755;
827.1000;0.2450;1.6680;
827.4000;0.2523;1.6906;
827.7000;0.2491;1.6730;
828.0000;0.2450;1.6705;
828.3000;0.2458;1.6630;
828.6000;0.2458;1.6630;
828.9000;0.2434;1.6655;
829.2000;0.2483;1.6780;
829.5000;0.2442;1.6655;
829.8000;0.2597;1.6981;
830.1000;0.2466;1.6555;
830.4000;0.2483;1.6555;
830.7000;0.2458;1.6530;
831.0000;0.2491;1.6630;
831.3000;0.2499;1.6655;
831.6000;0.2458;1.6555;
831.9000;0.2458;1.6580;
832.2000;0.2491;1.6555;
832.5000;0.2475;1.6505;
832.8000;0.2548;1.6680;
833.1000;0.2418;1.6355;
833.4000;0.2450;1.6455;
833.7000;0.2466;1.6580;
834.0000;0.2434;1.6505;
834.3000;0.2442;1.6455;
834.6000;0.2483;1.6480;
834.9000;0.2458;1.6480;
835.2000;0.2418;1.6405;
835.5000;0.2450;1.6380;
835.8000;0.2483;1.6555;
836.1000;0.2475;1.6605;
836.4000;0.2499;1.6730;
836.7000;0.2458;1.6580;
837.0000;0.2483;1.6655;
837.3000;0.2475;1.6605;
837.6000;0.2458;1.6480;
837.9000;0.2442;1.6355;
838.2000;0.2499;1.6430;
838.5000;0.2475;1.6455;
838.8000;0.2475;1.6580;
839.1000;0.2426;1.6405;
839.4000;0.2483;1.6530;
839.7000;0.2475;1.6580;
840.0000;0.2458;1.6530;
840.3000;0.2466;1.6580;
840.6000;0.2466;1.6555;
840.9000;0.2450;1.6480;
841.2000;0.2507;1.6580;
841.5000;0.2507;1.6630;
841.8000;0.2458;1.6480;
842.1000;0.2491;1.6630;
842.4000;0.2475;1.6605;
842.7000;0.2434;1.6555;
843.0000;0.2613;1.7081;
843.3000;0.2475;1.6730;
843.6000;0.2475;1.6780;
843.9000;0.2475;1.6805;
844.2000;0.2466;1.6780;
844.5000;0.2434;1.6680;
844.8000;0.2475;1.6705;
845.1000;0.2458;1.6705;
845.4000;0.2466;1.6730;
845.7000;0.2475;1.6730;
846.0000;0.2499;1.6805;
846.3000;0.2442;1.6705;
846.6000;0.2548;1.6981;
846.9000;0.2466;1.6680;
847.2000;0.2434;1.6605;
847.5000;0.2499;1.6680;
847.8000;0.2499;1.6605;
848.1000;0.2458;1.6430;
848.4000;0.2466;1.6430;
848.7000;0.2475;1.6505;
849.0000;0.2483;1.6430;
849.3000;0.2458;1.6480;
849.6000;0.2483;1.6455;
849.9000;0.2475;1.6505;
850.2000;0.2458;1.6380;
850.5000;0.2466;1.6480;
850.8000;0.2466;1.6530;
851.1000;0.2491;1.6605;
851.4000;0.2466;1.6605;
851.7000;0.2475;1.6555;
852.0000;0.2483;1.6630;
852.3000;0.2466;1.6530;
852.6000;0.2475;1.6555;
852.9000;0.2499;1.6530;
853.2000;0.2466;1.6480;
853.5000;0.2458;1.6505;
853.8000;0.2426;1.6430;
854.1000;0.2475;1.6505;
854.4000;0.2483;1.6555;
854.7000;0.2532;1.6730;
855.0000;0.2458;1.6430;
855.3000;0.2483;1.6455;
855.6000;0.2418;1.6204;
855.9000;0.2540;1.6605;
856.2000;0.2475;1.6480;
856.5000;0.2483;1.6455;
856.8000;0.2475;1.6505;
857.1000;0.2475;1.6530;
857.4000;0.2458;1.6430;
857.7000;0.2475;1.6505;
858.0000;0.2483;1.6505;
858.3000;0.2442;1.6405;
858.6000;0.2523;1.6605;
858.9000;0.2540;1.6705;
859.2000;0.2475;1.6455;
859.5000;0.2344;1.6204;
859.8000;0.2475;1.6555;
860.1000;0.2450;1.6555;
860.4000;0.2426;1.6505;
860.7000;0.2401;1.6430;
861.0000;0.2466;1.6530;
861.3000;0.2434;1.6430;
861.6000;0.2450;1.6480;
861.9000;0.2507;1.6630;
862.2000;0.2475;1.6430;
862.5000;0.2450;1.6355;
862.8000;0.2499;1.6455;
863.1000;0.2475;1.6355;
863.4000;0.2458;1.6280;
863.7000;0.2458;1.6330;
864.0000;0.2475;1.6380;
864.3000;0.2450;1.6280;
864.6000;0.2646;1.6805;
864.9000;0.2499;1.6430;
865.2000;0.2466;1.6305;
865.5000;0.2475;1.6430;
865.8000;0.2540;1.6630;
866.1000;0.2475;1.6355;
866.4000;0.2466;1.6330;
866.7000;0.2466;1.6330;
867.0000;0.2483;1.6380;
867.3000;0.2483;1.6330;
867.6000;0.2426;1.6129;
867.9000;0.2442;1.6204;
868.2000;0.2475;1.6405;
868.5000;0.2466;1.6480;
868.8000;0.2434;1.6455;
869.1000;0.2483;1.6580;
869.4000;0.2499;1.6680;
869.7000;0.2475;1.6605;
870.0000;0.2442;1.6580;
870.3000;0.2499;1.6805;
870.6000;0.2466;1.6730;
870.9000;0.2491;1.6805;
871.2000;0.2548;1.6931;
871.5000;0.2458;1.6605;
871.8000;0.2442;1.6655;
872.1000;0.2483;1.6605;
872.4000;0.2466;1.6580;
872.7000;0.2320;1.6129;
873.0000;0.2491;1.6580;
873.3000;0.2450;1.6480;
873.6000;0.2515;1.6680;
873.9000;0.2466;1.6655;
874.2000;0.2475;1.6730;
874.5000;0.2450;1.6705;
874.8000;0.2475;1.6805;
875.1000;0.2450;1.6655;
875.4000;0.2499;1.6655;
875.7000;0.2466;1.6605;
876.0000;0.2499;1.6655;
876.3000;0.2475;1.6580;
876.6000;0.2507;1.6605;
876.9000;0.2466;1.6530;
877.2000;0.2458;1.6480;
877.5000;0.2442;1.6455;
877.8000;0.2475;1.6555;
878.1000;0.2475;1.6555;
878.4000;0.2483;1.6580;
878.7000;0.2483;1.6555;
879.0000;0.2499;1.6530;
879.3000;0.2450;1.6430;
879.6000;0.2475;1.6380;
879.9000;0.2442;1.6280;
880.2000;0.2515;1.6480;
880.5000;0.2475;1.6405;
880.8000;0.2589;1.6780;
881.1000;0.2344;1.6154;
881.4000;0.2499;1.6605;
881.7000;0.2442;1.6505;
882.0000;0.2532;1.6755;
882.3000;0.2466;1.6530;
882.6000;0.2475;1.6530;
882.9000;0.2483;1.6580;
883.2000;0.2312;1.6079;
883.5000;0.2523;1.6755;
883.8000;0.2450;1.6630;
884.1000;0.2548;1.6931;
884.4000;0.2483;1.6730;
884.7000;0.2450;1.6655;
885.0000;0.2483;1.6680;
885.3000;0.2458;1.6605;
885.6000;0.2499;1.6705;
885.9000;0.2475;1.6630;
886.2000;0.2483;1.6655;
886.5000;0.2475;1.6505;
886.8000;0.2466;1.6505;
887.1000;0.2458;1.6455;
887.4000;0.2475;1.6580;
887.7000;0.2523;1.6730;
888.0000;0.2475;1.6630;
888.3000;0.2458;1.6505;
888.6000;0.2466;1.6480;
888.9000;0.2466;1.6455;
889.2000;0.2450;1.6405;
889.5000;0.2483;1.6405;
889.8000;0.2483;1.6455;
890.1000;0.2483;1.6430;
890.4000;0.2491;1.6480;
890.7000;0.2572;1.6655;
891.0000;0.2483;1.6530;
891.3000;0.2491;1.6530;
891.6000;0.2475;1.6580;
891.9000;0.2499;1.6705;
892.2000;0.2483;1.6580;
892.5000;0.2442;1.6455;
892.8000;0.2466;1.6530;
893.1000;0.2491;1.6580;
893.4000;0.2499;1.6680;
893.7000;0.2491;1.6605;
894.0000;0.2483;1.6580;
894.3000;0.2450;1.6430;
894.6000;0.2515;1.6605;
894.9000;0.2483;1.6505;
895.2000;0.2483;1.6430;
895.5000;0.2572;1.6655;
895.8000;0.2361;1.6129;
896.1000;0.2466;1.6405;
896.4000;0.2564;1.6705;
896.7000;0.2515;1.6555;
897.0000;0.2475;1.6405;
897.3000;0.2442;1.6204;
897.6000;0.2548;1.6505;
897.9000;0.2483;1.6305;
898.2000;0.2450;1.6129;
898.5000;0.2458;1.6204;
898.8000;0.2466;1.6154;
899.1000;0.2442;1.6104;
899.4000;0.2450;1.6129;
899.7000;0.2409;1.6054;
900.0000;0.2458;1.6204;
900.3000;0.2466;1.6280;
900.6000;0.2442;1.6280;
900.9000;0.2556;1.6630;
901.2000;0.2475;1.6555;
901.5000;0.2466;1.6480;
901.8000;0.2442;1.6430;
902.1000;0.2515;1.6630;
902.4000;0.2491;1.6530;
902.7000;0.2458;1.6455;
903.0000;0.2442;1.6405;
903.3000;0.2466;1.6455;
903.6000;0.2483;1.6505;
903.9000;0.2483;1.6480;
904.2000;0.2466;1.6455;
904.5000;0.2475;1.6530;
904.8000;0.2475;1.6555;
905.1000;0.2483;1.6755;
905.4000;0.2483;1.6680;
905.7000;0.2523;1.6780;
906.0000;0.2418;1.6555;
906.3000;0.2483;1.6705;
906.6000;0.2499;1.6780;
906.9000;0.2564;1.6856;
907.2000;0.2499;1.6630;
907.5000;0.2466;1.6505;
907.8000;0.2458;1.6380;
908.1000;0.2434;1.6330;
908.4000;0.2401;1.6254;
908.7000;0.2491;1.6505;
909.0000;0.2475;1.6355;
909.3000;0.2491;1.6430;
909.6000;0.2483;1.6455;
909.9000;0.2540;1.6705;
910.2000;0.2466;1.6505;
910.5000;0.2475;1.6530;
910.8000;0.2475;1.6555;
911.1000;0.2458;1.6630;
911.4000;0.2491;1.6780;
911.7000;0.2523;1.6856;
912.0000;0.2450;1.6605;
912.3000;0.2515;1.6730;
912.6000;0.2483;1.6655;
912.9000;0.2442;1.6555;
913.2000;0.2475;1.6605;
913.5000;0.2458;1.6580;
913.8000;0.2475;1.6555;
914.1000;0.2442;1.6505;
914.4000;0.2475;1.6530;
914.7000;0.2491;1.6530;
915.0000;0.2450;1.6480;
915.3000;0.2499;1.6605;
915.6000;0.2450;1.6480;
915.9000;0.2507;1.6655;
916.2000;0.2458;1.6455;
916.5000;0.2466;1.6480;
916.8000;0.2450;1.6505;
917.1000;0.2466;1.6580;
917.4000;0.2540;1.6805;
917.7000;0.2442;1.6505;
918.0000;0.2491;1.6580;
918.3000;0.2466;1.6505;
918.6000;0.2483;1.6555;
918.9000;0.2458;1.6480;
919.2000;0.2507;1.6530;
919.5000;0.2466;1.6455;
919.8000;0.2475;1.6580;
920.1000;0.2442;1.6555;
920.4000;0.2483;1.6730;
920.7000;0.2483;1.6755;
921.0000;0.2532;1.6831;
921.3000;0.2507;1.6655;
921.6000;0.2483;1.6705;
921.9000;0.2499;1.6730;
922.2000;0.2466;1.6655;
922.5000;0.2434;1.6480;
922.8000;0.2475;1.6605;
923.1000;0.2442;1.6480;
923.4000;0.2499;1.6530;
923.7000;0.2523;1.6605;
924.0000;0.2466;1.6505;
924.3000;0.2475;1.6530;
924.6000;0.2458;1.6555;
924.9000;0.2523;1.6680;
925.2000;0.2491;1.6455;
925.5000;0.2483;1.6355;
925.8000;0.2491;1.6505;
926.1000;0.2475;1.6530;
926.4000;0.2491;1.6605;
926.7000;0.2507;1.6580;
927.0000;0.2434;1.6380;
927.3000;0.2491;1.6480;
927.6000;0.2499;1.6480;
927.9000;0.2475;1.6455;
928.2000;0.2426;1.6229;
928.5000;0.2491;1.6505;
928.8000;0.2499;1.6555;
929.1000;0.2499;1.6630;
929.4000;0.2466;1.6530;
929.7000;0.2466;1.6455;
930.0000;0.2458;1.6405;
930.3000;0.2466;1.6405;
930.6000;0.2499;1.6505;
930.9000;0.2483;1.6505;
931.2000;0.2491;1.6480;
931.5000;0.2499;1.6530;
931.8000;0.2499;1.6555;
932.1000;0.2458;1.6330;
932.4000;0.2466;1.6430;
932.7000;0.2499;1.6530;
933.0000;0.2450;1.6455;
933.3000;0.2466;1.6505;
933.6000;0.2450;1.6505;
933.9000;0.2605;1.6956;
934.2000;0.2491;1.6605;
934.5000;0.2466;1.6630;
934.8000;0.2442;1.6630;
935.1000;0.2409;1.6505;
935.4000;0.2483;1.6730;
935.7000;0.2450;1.6630;
936.0000;0.2450;1.6580;
936.3000;0.2450;1.6630;
936.6000;0.2466;1.6605;
936.9000;0.2418;1.6455;
937.2000;0.2491;1.6655;
937.5000;0.2377;1.6380;
937.8000;0.2483;1.6705;
938.1000;0.2475;1.6755;
938.4000;0.2499;1.6881;
938.7000;0.2409;1.6655;
939.0000;0.2491;1.6931;
939.3000;0.2491;1.6856;
939.6000;0.2466;1.6655;
939.9000;0.2475;1.6630;
940.2000;0.2409;1.6355;
940.5000;0.2450;1.6530;
940.8000;0.2466;1.6580;
941.1000;0.2564;1.6831;
941.4000;0.2629;1.7081;
941.7000;0.2458;1.6555;
942.0000;0.2466;1.6505;
942.3000;0.2491;1.6555;
942.6000;0.2483;1.6605;
942.9000;0.2499;1.6605;
943.2000;0.2523;1.6630;
943.5000;0.2393;1.6330;
943.8000;0.2572;1.6831;
944.1000;0.2458;1.6580;
944.4000;0.2475;1.6605;
944.7000;0.2475;1.6605;
945.0000;0.2450;1.6555;
945.3000;0.2507;1.6755;
945.6000;0.2491;1.6705;
945.9000;0.2499;1.6705;
946.2000;0.2483;1.6655;
946.5000;0.2483;1.6680;
946.8000;0.2491;1.6730;
947.1000;0.2450;1.6630;
947.4000;0.2450;1.6605;
947.7000;0.2475;1.6730;
948.0000;0.2483;1.6755;
948.3000;0.2475;1.6680;
948.6000;0.2483;1.6655;
948.9000;0.2475;1.6730;
949.2000;0.2491;1.6630;
949.5000;0.2499;1.6705;
949.8000;0.2434;1.6530;
950.1000;0.2515;1.6705;
950.4000;0.2483;1.6630;
950.7000;0.2466;1.6555;
951.0000;0.2483;1.6555;
951.3000;0.2483;1.6480;
951.6000;0.2475;1.6330;
951.9000;0.2483;1.6380;
952.2000;0.2458;1.6254;
952.5000;0.2393;1.6079;
952.8000;0.2499;1.6254;
953.1000;0.2475;1.6204;
953.4000;0.2475;1.6179;
953.7000;0.2515;1.6355;
954.0000;0.2540;1.6480;
954.3000;0.2458;1.6305;
954.6000;0.2458;1.6330;
954.9000;0.2434;1.6305;
955.2000;0.2483;1.6530;
955.5000;0.2458;1.6430;
955.8000;0.2491;1.6480;
956.1000;0.2475;1.6455;
956.4000;0.2483;1.6555;
956.7000;0.2393;1.6330;
957.0000;0.2523;1.6780;
957.3000;0.2475;1.6705;
957.6000;0.2458;1.6730;
957.9000;0.2589;1.7056;
958.2000;0.2466;1.6705;
958.5000;0.2483;1.6856;
958.8000;0.2499;1.6881;
959.1000;0.2466;1.6705;
959.4000;0.2475;1.6705;
959.7000;0.2418;1.6480;
960.0000;0.2483;1.6805;
960.3000;0.2483;1.6755;
960.6000;0.2483;1.6730;
960.9000;0.2491;1.6630;
961.2000;0.2466;1.6555;
961.5000;0.2475;1.6530;
961.8000;0.2475;1.6555;
962.1000;0.2507;1.6705;
962.4000;0.2491;1.6630;
962.7000;0.2475;1.6605;
963.0000;0.2475;1.6680;
963.3000;0.2483;1.6680;
963.6000;0.2475;1.6755;
963.9000;0.2442;1.6730;
964.2000;0.2475;1.6856;
964.5000;0.2475;1.6831;
964.8000;0.2507;1.6881;
965.1000;0.2466;1.6755;
965.4000;0.2475;1.6705;
965.7000;0.2499;1.6805;
966.0000;0.2475;1.6705;
966.3000;0.2483;1.6705;
966.6000;0.2491;1.6680;
966.9000;0.2548;1.6856;
967.2000;0.2597;1.7006;
967.5000;0.2466;1.6580;
967.8000;0.2434;1.6480;
968.1000;0.2483;1.6605;
968.4000;0.2450;1.6530;
968.7000;0.2491;1.6630;
969.0000;0.2466;1.6655;
969.3000;0.2450;1.6605;
969.6000;0.2466;1.6705;
969.9000;0.2458;1.6680;
970.2000;0.2475;1.6655;
970.5000;0.2393;1.6430;
970.8000;0.2475;1.6630;
971.1000;0.2475;1.6755;
971.4000;0.2466;1.6831;
971.7000;0.2450;1.6755;
972.0000;0.2499;1.6956;
972.3000;0.2491;1.6856;
972.6000;0.2483;1.6906;
972.9000;0.2507;1.7031;
973.2000;0.2515;1.6981;
973.5000;0.2491;1.6956;
973.8000;0.2466;1.6881;
974.1000;0.2475;1.6780;
974.4000;0.2466;1.6805;
974.7000;0.2466;1.6831;
975.0000;0.2466;1.6931;
975.3000;0.2523;1.7131;
975.6000;0.2475;1.6981;
975.9000;0.2450;1.6805;
976.2000;0.2491;1.6705;
976.5000;0.2466;1.6605;
976.8000;0.2475;1.6705;
977.1000;0.2613;1.7156;
977.4000;0.2523;1.6881;
977.7000;0.2466;1.6680;
978.0000;0.2450;1.6680;
978.3000;0.2426;1.6630;
978.6000;0.2466;1.6730;
978.9000;0.2475;1.6805;
979.2000;0.2483;1.6881;
979.5000;0.2491;1.6931;
979.8000;0.2523;1.6931;
980.1000;0.2426;1.6680;
980.4000;0.2450;1.6755;
980.7000;0.2475;1.6956;
981.0000;0.2523;1.7081;
981.3000;0.2475;1.6906;
981.6000;0.2475;1.6805;
981.9000;0.2458;1.6805;
982.2000;0.2483;1.6755;
982.5000;0.2475;1.6655;
982.8000;0.2483;1.6705;
983.1000;0.2475;1.6705;
983.4000;0.2483;1.6730;
983.7000;0.2434;1.6730;
984.0000;0.2483;1.6780;
984.3000;0.2475;1.6755;
984.6000;0.2629;1.7156;
984.9000;0.2475;1.6655;
985.2000;0.2491;1.6655;
985.5000;0.2532;1.6730;
985.8000;0.2450;1.6555;
986.1000;0.2483;1.6655;
986.4000;0.2507;1.6780;
986.7000;0.2491;1.6680;
987.0000;0.2491;1.6580;
987.3000;0.2466;1.6580;
987.6000;0.2475;1.6505;
987.9000;0.2499;1.6630;
988.2000;0.2458;1.6530;
988.5000;0.2466;1.6380;
988.8000;0.2491;1.6430;
989.1000;0.2466;1.6430;
989.4000;0.2458;1.6380;
989.7000;0.2409;1.6179;
990.0000;0.2491;1.6480;
990.3000;0.2466;1.6455;
990.6000;0.2483;1.6580;
990.9000;0.2483;1.6630;
991.2000;0.2491;1.6655;
991.5000;0.2426;1.6555;
991.8000;0.2491;1.6680;
992.1000;0.2491;1.6630;
992.4000;0.2458;1.6630;
992.7000;0.2499;1.6730;
993.0000;0.2434;1.6480;
993.3000;0.2466;1.6580;
993.6000;0.2458;1.6580;
993.9000;0.2515;1.6730;
994.2000;0.2532;1.6856;
994.5000;0.2475;1.6805;
994.8000;0.2499;1.6881;
995.1000;0.2483;1.6805;
995.4000;0.2499;1.6780;
995.7000;0.2483;1.6755;
996.0000;0.2515;1.6831;
996.3000;0.2483;1.6705;
996.6000;0.2532;1.6856;
996.9000;0.2564;1.7081;
997.2000;0.2564;1.6981;
997.5000;0.2499;1.6881;
997.8000;0.2491;1.6831;
998.1000;0.2613;1.7131;
998.4000;0.2442;1.6580;
998.7000;0.2442;1.6505;
999.0000;0.2491;1.6580;
999.3000;0.2532;1.6755;
999.6000;0.2491;1.6555;
999.9000;0.2483;1.6580;
1000.2000;0.2434;1.6405;
1000.5000;0.2393;1.6229;
1000.8000;0.2458;1.6480;
1001.1000;0.2523;1.6730;
1001.4000;0.2466;1.6530;
1001.7000;0.2475;1.6555;
1002.0000;0.2483;1.6530;
1002.3000;0.2466;1.6455;
1002.6000;0.2515;1.6630;
1002.9000;0.2491;1.6530;
1003.2000;0.2450;1.6455;
1003.5000;0.2483;1.6555;
1003.8000;0.2483;1.6580;
1004.1000;0.2475;1.6605;
1004.4000;0.2499;1.6705;
1004.7000;0.2466;1.6680;
1005.0000;0.2450;1.6605;
1005.3000;0.2442;1.6580;
1005.6000;0.2466;1.6680;
1005.9000;0.2475;1.6655;
1006.2000;0.2475;1.6580;
1006.5000;0.2426;1.6480;
1006.8000;0.2466;1.6655;
1007.1000;0.2466;1.6655;
1007.4000;0.2466;1.6705;
1007.7000;0.2409;1.6530;
1008.0000;0.2475;1.6655;
1008.3000;0.2450;1.6580;
1008.6000;0.2499;1.6730;
1008.9000;0.2491;1.6705;
1009.2000;0.2458;1.6630;
1009.5000;0.2466;1.6630;
1009.8000;0.2466;1.6580;
1010.1000;0.2458;1.6530;
1010.4000;0.2458;1.6605;
1010.7000;0.2466;1.6630;
1011.0000;0.2458;1.6680;
1011.3000;0.2466;1.6730;
1011.6000;0.2475;1.6680;
1011.9000;0.2556;1.6906;
1012.2000;0.2491;1.6630;
1012.5000;0.2499;1.6680;
1012.8000;0.2434;1.6380;
1013.1000;0.2515;1.6705;
1013.4000;0.2426;1.6455;
1013.7000;0.2458;1.6605;
1014.0000;0.2515;1.6805;
1014.3000;0.2499;1.6805;
1014.6000;0.2491;1.6680;
1014.9000;0.2483;1.6680;
1015.2000;0.2491;1.6655;
1015.5000;0.2491;1.6605;
1015.8000;0.2483;1.6580;
1016.1000;0.2491;1.6730;
1016.4000;0.2507;1.6831;
1016.7000;0.2532;1.6931;
1017.0000;0.2491;1.6780;
1017.3000;0.2507;1.6780;
1017.6000;0.2572;1.6831;
1017.9000;0.2475;1.6605;
1018.2000;0.2458;1.6505;
1018.5000;0.2556;1.6730;
1018.8000;0.2450;1.6455;
1019.1000;0.2523;1.6705;
1019.4000;0.2483;1.6630;
1019.7000;0.2475;1.6755;
1020.0000;0.2344;1.6405;
1020.3000;0.2466;1.6730;
1020.6000;0.2491;1.6730;
1020.9000;0.2466;1.6755;
1021.2000;0.2450;1.6630;
1021.5000;0.2475;1.6655;
1021.8000;0.2483;1.6605;
1022.1000;0.2475;1.6530;
1022.4000;0.2483;1.6505;
1022.7000;0.2475;1.6555;
1023.0000;0.2548;1.6831;
1023.3000;0.2491;1.6655;
1023.6000;0.2458;1.6580;
1023.9000;0.2499;1.6755;
1024.2000;0.2483;1.6655;
1024.5000;0.2483;1.6605;
1024.8000;0.2475;1.6580;
1025.1000;0.2409;1.6430;
1025.4000;0.2491;1.6555;
1025.7000;0.2491;1.6655;
1026.0000;0.2637;1.7081;
1026.3000;0.2466;1.6605;
1026.6000;0.2442;1.6555;
1026.9000;0.2458;1.6530;
1027.2000;0.2491;1.6655;
1027.5000;0.2483;1.6680;
1027.8000;0.2483;1.6705;
1028.1000;0.2483;1.6705;
1028.4000;0.2475;1.6655;
1028.7000;0.2409;1.6505;
1029.0000;0.2466;1.6730;
1029.3000;0.2458;1.6680;
1029.6000;0.2475;1.6680;
1029.9000;0.2466;1.6755;
1030.2000;0.2426;1.6730;
1030.5000;0.2475;1.6856;
1030.8000;0.2466;1.6831;
1031.1000;0.2499;1.6881;
1031.4000;0.2466;1.6755;
1031.7000;0.2466;1.6655;
1032.0000;0.2466;1.6630;
1032.3000;0.2458;1.6555;
1032.6000;0.2507;1.6655;
1032.9000;0.2515;1.6630;
1033.2000;0.2507;1.6605;
1033.5000;0.2491;1.6605;
1033.8000;0.2458;1.6605;
1034.1000;0.2475;1.6630;
1034.4000;0.2458;1.6655;
1034.7000;0.2515;1.6705;
1035.0000;0.2466;1.6530;
1035.3000;0.2499;1.6655;
1035.6000;0.2499;1.6680;
1035.9000;0.2352;1.6305;
1036.2000;0.2491;1.6555;
1036.5000;0.2458;1.6505;
1036.8000;0.2466;1.6430;
1037.1000;0.2491;1.6455;
1037.4000;0.2466;1.6405;
1037.7000;0.2483;1.6480;
1038.0000;0.2458;1.6455;
1038.3000;0.2483;1.6505;
1038.6000;0.2515;1.6555;
1038.9000;0.2483;1.6530;
1039.2000;0.2458;1.6480;
1039.5000;0.2475;1.6480;
1039.8000;0.2475;1.6530;
1040.1000;0.2466;1.6480;
1040.4000;0.2483;1.6555;
1040.7000;0.2458;1.6505;
1041.0000;0.2466;1.6480;
1041.3000;0.2466;1.6505;
1041.6000;0.2475;1.6505;
1041.9000;0.2483;1.6530;
1042.2000;0.2499;1.6605;
1042.5000;0.2483;1.6630;
1042.8000;0.2523;1.6906;
1043.1000;0.2483;1.6831;
1043.4000;0.2475;1.6805;
1043.7000;0.2475;1.6755;
1044.0000;0.2491;1.6755;
1044.3000;0.2483;1.6680;
1044.6000;0.2491;1.6705;
1044.9000;0.2458;1.6630;
1045.2000;0.2491;1.6730;
1045.5000;0.2532;1.6906;
1045.8000;0.2483;1.6881;
1046.1000;0.2540;1.6906;
1046.4000;0.2458;1.6655;
1046.7000;0.2458;1.6555;
1047.0000;0.2499;1.6630;
1047.3000;0.2491;1.6680;
1047.6000;0.2458;1.6630;
1047.9000;0.2507;1.6780;
1048.2000;0.2483;1.6705;
1048.5000;0.2523;1.6881;
1048.8000;0.2483;1.6755;
1049.1000;0.2475;1.6755;
1049.4000;0.2466;1.6705;
1049.7000;0.2450;1.6630;
1050.0000;0.2491;1.6655;
1050.3000;0.2475;1.6605;
1050.6000;0.2540;1.6755;
1050.9000;0.2466;1.6530;
1051.2000;0.2491;1.6605;
1051.5000;0.2483;1.6530;
1051.8000;0.2458;1.6405;
1052.1000;0.2475;1.6380;
1052.4000;0.2475;1.6405;
1052.7000;0.2483;1.6480;
1053.0000;0.2466;1.6455;
1053.3000;0.2475;1.6480;
1053.6000;0.2475;1.6555;
1053.9000;0.2466;1.6405;
1054.2000;0.2491;1.6355;
1054.5000;0.2483;1.6330;
1054.8000;0.2491;1.6405;
1055.1000;0.2475;1.6355;
1055.4000;0.2483;1.6405;
1055.7000;0.2580;1.6705;
1056.0000;0.2491;1.6530;
1056.3000;0.2491;1.6530;
1056.6000;0.2491;1.6580;
1056.9000;0.2548;1.6780;
1057.2000;0.2418;1.6355;
1057.5000;0.2466;1.6530;
1057.8000;0.2409;1.6229;
1058.1000;0.2499;1.6430;
1058.4000;0.2483;1.6405;
1058.7000;0.2605;1.6655;
1059.0000;0.2515;1.6229;
1059.3000;0.2523;1.6229;
1059.6000;0.2548;1.6355;
1059.9000;0.2499;1.6280;
1060.2000;0.2434;1.6179;
1060.5000;0.2507;1.6355;
1060.8000;0.2450;1.6280;
1061.1000;0.2499;1.6480;
1061.4000;0.2466;1.6430;
1061.7000;0.2458;1.6280;
1062.0000;0.2475;1.6305;
1062.3000;0.2491;1.6330;
1062.6000;0.2491;1.6330;
1062.9000;0.2450;1.6204;
1063.2000;0.2491;1.6380;
1063.5000;0.2491;1.6355;
1063.8000;0.2523;1.6480;
1064.1000;0.2507;1.6455;
1064.4000;0.2491;1.6430;
1064.7000;0.2491;1.6430;
1065.0000;0.2475;1.6380;
1065.3000;0.2491;1.6380;
1065.6000;0.2458;1.6380;
1065.9000;0.2491;1.6455;
1066.2000;0.2491;1.6480;
1066.5000;0.2507;1.6530;
1066.8000;0.2475;1.6455;
1067.1000;0.2466;1.6330;
1067.4000;0.2483;1.6405;
1067.7000;0.2499;1.6505;
1068.0000;0.2475;1.6480;
1068.3000;0.2450;1.6405;
1068.6000;0.2491;1.6505;
1068.9000;0.2475;1.6530;
1069.2000;0.2458;1.6505;
1069.5000;0.2466;1.6480;
1069.8000;0.2475;1.6505;
1070.1000;0.2442;1.6455;
1070.4000;0.2483;1.6530;
1070.7000;0.2466;1.6480;
1071.0000;0.2483;1.6605;
1071.3000;0.2499;1.6705;
1071.6000;0.2434;1.6605;
1071.9000;0.2548;1.6906;
1072.2000;0.2491;1.6705;
1072.5000;0.2483;1.6630;
1072.8000;0.2483;1.6630;
1073.1000;0.2515;1.6605;
1073.4000;0.2312;1.6079;
1073.7000;0.2483;1.6605;
1074.0000;0.2483;1.6580;
1074.3000;0.2434;1.6505;
1074.6000;0.2450;1.6480;
1074.9000;0.2458;1.6580;
1075.2000;0.2507;1.6680;
1075.5000;0.2442;1.6580;
1075.8000;0.2466;1.6580;
1076.1000;0.2491;1.6680;
1076.4000;0.2483;1.6580;
1076.7000;0.2491;1.6630;
1077.0000;0.2466;1.6630;
1077.3000;0.2499;1.6755;
1077.6000;0.2491;1.6805;
1077.9000;0.2475;1.6730;
1078.2000;0.2483;1.6705;
1078.5000;0.2475;1.6680;
1078.8000;0.2499;1.6881;
1079.1000;0.2483;1.6856;
1079.4000;0.2491;1.6956;
1079.7000;0.2442;1.6755;
1080.0000;0.2483;1.6831;
1080.3000;0.2466;1.6630;
1080.6000;0.2483;1.6555;
1080.9000;0.2483;1.6505;
1081.2000;0.2491;1.6555;
1081.5000;0.2580;1.6906;
1081.8000;0.2491;1.6655;
1082.1000;0.2466;1.6505;
1082.4000;0.2483;1.6605;
1082.7000;0.2401;1.6480;
1083.0000;0.2491;1.6805;
1083.3000;0.2507;1.6931;
1083.6000;0.2491;1.6931;
1083.9000;0.2466;1.6831;
1084.2000;0.2483;1.6906;
1084.5000;0.2475;1.6805;
1084.8000;0.2483;1.6655;
1085.1000;0.2491;1.6705;
1085.4000;0.2458;1.6580;
1085.7000;0.2466;1.6580;
1086.0000;0.2475;1.6505;
1086.3000;0.2491;1.6605;
1086.6000;0.2532;1.6680;
1086.9000;0.2475;1.6530;
1087.2000;0.2507;1.6455;
1087.5000;0.2475;1.6330;
1087.8000;0.2475;1.6380;
1088.1000;0.2491;1.6455;
1088.4000;0.2491;1.6455;
1088.7000;0.2491;1.6330;
1089.0000;0.2532;1.6380;
1089.3000;0.2507;1.6355;
1089.6000;0.2491;1.6380;
1089.9000;0.2385;1.6104;
1090.2000;0.2507;1.6480;
1090.5000;0.2475;1.6380;
1090.8000;0.2491;1.6480;
1091.1000;0.2483;1.6530;
1091.4000;0.2466;1.6555;
1091.7000;0.2499;1.6605;
1092.0000;0.2361;1.6305;
1092.3000;0.2491;1.6655;
1092.6000;0.2475;1.6680;
1092.9000;0.2491;1.6730;
1093.2000;0.2491;1.6755;
1093.5000;0.2475;1.6605;
1093.8000;0.2491;1.6555;
1094.1000;0.2483;1.6555;
1094.4000;0.2466;1.6505;
1094.7000;0.2450;1.6530;
1095.0000;0.2458;1.6580;
1095.3000;0.2548;1.6906;
1095.6000;0.2442;1.6680;
1095.9000;0.2483;1.6780;
1096.2000;0.2491;1.6906;
1096.5000;0.2523;1.7006;
1096.8000;0.2499;1.6881;
1097.1000;0.2418;1.6655;
1097.4000;0.2515;1.6906;
1097.7000;0.2475;1.6730;
1098.0000;0.2483;1.6805;
1098.3000;0.2483;1.6730;
1098.6000;0.2515;1.6805;
1098.9000;0.2491;1.6555;
1099.2000;0.2475;1.6630;
1099.5000;0.2556;1.6856;
1099.8000;0.2434;1.6380;
1100.1000;0.2475;1.6530;
1100.4000;0.2450;1.6505;
1100.7000;0.2483;1.6555;
1101.0000;0.2483;1.6555;
1101.3000;0.2466;1.6505;
1101.6000;0.2442;1.6430;
1101.9000;0.2556;1.6580;
1102.2000;0.2483;1.6430;
1102.5000;0.2499;1.6505;
1102.8000;0.2499;1.6580;
1103.1000;0.2491;1.6505;
1103.4000;0.2393;1.6355;
1103.7000;0.2483;1.6605;
1104.0000;0.2475;1.6630;
1104.3000;0.2523;1.6705;
1104.6000;0.2475;1.6605;
1104.9000;0.2491;1.6605;
1105.2000;0.2483;1.6555;
1105.5000;0.2458;1.6455;
1105.8000;0.2483;1.6555;
1106.1000;0.2450;1.6605;
1106.4000;0.2450;1.6630;
1106.7000;0.2458;1.6630;
1107.0000;0.2450;1.6480;
1107.3000;0.2475;1.6630;
1107.6000;0.2491;1.6655;
1107.9000;0.2483;1.6680;
1108.2000;0.2499;1.6655;
1108.5000;0.2491;1.6655;
1108.8000;0.2491;1.6655;
1109.1000;0.2483;1.6655;
1109.4000;0.2475;1.6655;
1109.7000;0.2450;1.6655;
1110.0000;0.2434;1.6605;
1110.3000;0.2466;1.6655;
1110.6000;0.2475;1.6605;
1110.9000;0.2458;1.6580;
1111.2000;0.2458;1.6405;
1111.5000;0.2475;1.6355;
1111.8000;0.2491;1.6380;
1112.1000;0.2450;1.6305;
1112.4000;0.2466;1.6355;
1112.7000;0.2515;1.6405;
1113.0000;0.2458;1.6280;
1113.3000;0.2491;1.6405;
1113.6000;0.2393;1.6154;
1113.9000;0.2491;1.6455;
1114.2000;0.2483;1.6455;
1114.5000;0.2475;1.6430;
1114.8000;0.2491;1.6355;
1115.1000;0.2409;1.6179;
1115.4000;0.2475;1.6305;
1115.7000;0.2483;1.6430;
1116.0000;0.2548;1.6630;
1116.3000;0.2466;1.6430;
1116.6000;0.2426;1.6330;
1116.9000;0.2458;1.6430;
1117.2000;0.2580;1.6805;
1117.5000;0.2475;1.6530;
1117.8000;0.2499;1.6480;
1118.1000;0.2458;1.6305;
1118.4000;0.2483;1.6330;
1118.7000;0.2483;1.6355;
1119.0000;0.2532;1.6655;
1119.3000;0.2483;1.6605;
1119.6000;0.2458;1.6530;
1119.9000;0.2475;1.6555;
1120.2000;0.2458;1.6580;
1120.5000;0.2475;1.6630;
1120.8000;0.2580;1.6906;
1121.1000;0.2499;1.6630;
1121.4000;0.2491;1.6605;
1121.7000;0.2434;1.6505;
1122.0000;0.2499;1.6680;
1122.3000;0.2475;1.6655;
1122.6000;0.2450;1.6555;
1122.9000;0.2475;1.6730;
1123.2000;0.2483;1.6805;
1123.5000;0.2483;1.6705;
1123.8000;0.2507;1.6655;
1124.1000;0.2475;1.6605;
1124.4000;0.2450;1.6530;
1124.7000;0.2458;1.6630;
1125.0000;0.2426;1.6505;
1125.3000;0.2483;1.6705;
1125.6000;0.2458;1.6555;
1125.9000;0.2458;1.6505;
1126.2000;0.2475;1.6530;
1126.5000;0.2475;1.6580;
1126.8000;0.2434;1.6455;
1127.1000;0.2483;1.6505;
1127.4000;0.2572;1.6705;
1127.7000;0.2352;1.6129;
1128.0000;0.2466;1.6505;
1128.3000;0.2491;1.6605;
1128.6000;0.2483;1.6605;
1128.9000;0.2523;1.6730;
1129.2000;0.2491;1.6705;
1129.5000;0.2458;1.6630;
1129.8000;0.2475;1.6680;
1130.1000;0.2499;1.6705;
1130.4000;0.2475;1.6580;
1130.7000;0.2483;1.6580;
1131.0000;0.2483;1.6730;
1131.3000;0.2491;1.6780;
1131.6000;0.2458;1.6605;
1131.9000;0.2483;1.6680;
1132.2000;0.2466;1.6655;
1132.5000;0.2507;1.6680;
1132.8000;0.2458;1.6430;
1133.1000;0.2450;1.6405;
1133.4000;0.2540;1.6605;
1133.7000;0.2483;1.6530;
1134.0000;0.2515;1.6630;
1134.3000;0.2475;1.6530;
1134.6000;0.2556;1.6680;
1134.9000;0.2499;1.6530;
1135.2000;0.2507;1.6405;
1135.5000;0.2466;1.6280;
1135.8000;0.2483;1.6355;
1136.1000;0.2450;1.6430;
1136.4000;0.2475;1.6580;
1136.7000;0.2532;1.6730;
1137.0000;0.2475;1.6780;
1137.3000;0.2499;1.6881;
1137.6000;0.2458;1.6780;
1137.9000;0.2475;1.6705;
1138.2000;0.2409;1.6455;
1138.5000;0.2483;1.6655;
1138.8000;0.2523;1.6881;
1139.1000;0.2491;1.6730;
1139.4000;0.2475;1.6655;
1139.7000;0.2491;1.6730;
1140.0000;0.2548;1.6956;
1140.3000;0.2499;1.6730;
1140.6000;0.2442;1.6555;
1140.9000;0.2589;1.7006;
1141.2000;0.2475;1.6655;
1141.5000;0.2589;1.7006;
1141.8000;0.2523;1.6805;
1142.1000;0.2483;1.6580;
1142.4000;0.2475;1.6655;
1142.7000;0.2491;1.6680;
1143.0000;0.2475;1.6630;
1143.3000;0.2483;1.6655;
1143.6000;0.2483;1.6605;
1143.9000;0.2450;1.6505;
1144.2000;0.2475;1.6580;
1144.5000;0.2475;1.6455;
1144.8000;0.2475;1.6455;
1145.1000;0.2466;1.6330;
1145.4000;0.2515;1.6455;
1145.7000;0.2475;1.6380;
1146.0000;0.2442;1.6330;
1146.3000;0.2491;1.6505;
1146.6000;0.2507;1.6480;
1146.9000;0.2475;1.6355;
1147.2000;0.2483;1.6430;
1147.5000;0.2491;1.6480;
1147.8000;0.2434;1.6355;
1148.1000;0.2515;1.6580;
1148.4000;0.2458;1.6355;
1148.7000;0.2515;1.6555;
1149.0000;0.2458;1.6305;
1149.3000;0.2475;1.6405;
1149.6000;0.2483;1.6480;
1149.9000;0.2491;1.6480;
1150.2000;0.2466;1.6430;
1150.5000;0.2499;1.6630;
1150.8000;0.2499;1.6655;
1151.1000;0.2466;1.6580;
1151.4000;0.2556;1.6780;
1151.7000;0.2475;1.6530;
1152.0000;0.2499;1.6655;
1152.3000;0.2532;1.6755;
1152.6000;0.2466;1.6680;
1152.9000;0.2491;1.6831;
1153.2000;0.2556;1.7006;
1153.5000;0.2483;1.6780;
1153.8000;0.2483;1.6805;
1154.1000;0.2491;1.6780;
1154.4000;0.2507;1.6705;
1154.7000;0.2466;1.6605;
1155.0000;0.2483;1.6605;
1155.3000;0.2466;1.6555;
1155.6000;0.2442;1.6480;
1155.9000;0.2450;1.6505;
1156.2000;0.2466;1.6605;
1156.5000;0.2475;1.6655;
1156.8000;0.2393;1.6355;
1157.1000;0.2475;1.6530;
1157.4000;0.2483;1.6555;
1157.7000;0.2458;1.6505;
1158.0000;0.2491;1.6580;
1158.3000;0.2491;1.6480;
1158.6000;0.2450;1.6330;
1158.9000;0.2466;1.6380;
1159.2000;0.2475;1.6480;
1159.5000;0.2475;1.6480;
1159.8000;0.2483;1.6555;
1160.1000;0.2483;1.6605;
1160.4000;0.2483;1.6455;
1160.7000;0.2475;1.6405;
1161.0000;0.2466;1.6505;
1161.3000;0.2475;1.6630;
1161.6000;0.2483;1.6630;
1161.9000;0.2483;1.6580;
1162.2000;0.2491;1.6555;
1162.5000;0.2466;1.6480;
1162.8000;0.2450;1.6455;
1163.1000;0.2483;1.6580;
1163.4000;0.2475;1.6555;
1163.7000;0.2483;1.6580;
1164.0000;0.2523;1.6655;
1164.3000;0.2483;1.6505;
1164.6000;0.2475;1.6405;
1164.9000;0.2466;1.6405;
1165.2000;0.2483;1.6505;
1165.5000;0.2483;1.6530;
1165.8000;0.2540;1.6705;
1166.1000;0.2540;1.6655;
1166.4000;0.2515;1.6530;
1166.7000;0.2499;1.6430;
1167.0000;0.2483;1.6430;
1167.3000;0.2475;1.6380;
1167.6000;0.2409;1.6229;
1167.9000;0.2556;1.6605;
1168.2000;0.2491;1.6455;
1168.5000;0.2409;1.6204;
1168.8000;0.2491;1.6405;
1169.1000;0.2475;1.6430;
1169.4000;0.2466;1.6380;
1169.7000;0.2450;1.6280;
1170.0000;0.2475;1.6380;
1170.3000;0.2491;1.6455;
1170.6000;0.2458;1.6380;
1170.9000;0.2483;1.6530;
1171.2000;0.2499;1.6530;
1171.5000;0.2483;1.6455;
1171.8000;0.2483;1.6505;
1172.1000;0.2475;1.6430;
1172.4000;0.2548;1.6605;
1172.7000;0.2491;1.6530;
1173.0000;0.2475;1.6505;
1173.3000;0.2483;1.6430;
1173.6000;0.2475;1.6380;
1173.9000;0.2491;1.6430;
1174.2000;0.2532;1.6580;
1174.5000;0.2483;1.6480;
1174.8000;0.2523;1.6505;
1175.1000;0.2475;1.6355;
1175.4000;0.2483;1.6455;
1175.7000;0.2475;1.6430;
1176.0000;0.2475;1.6405;
1176.3000;0.2475;1.6380;
1176.6000;0.2483;1.6305;
1176.9000;0.2475;1.6254;
1177.2000;0.2491;1.6280;
1177.5000;0.2475;1.6405;
1177.8000;0.2507;1.6580;
1178.1000;0.2499;1.6580;
1178.4000;0.2556;1.6705;
1178.7000;0.2483;1.6555;
1179.0000;0.2466;1.6530;
1179.3000;0.2491;1.6480;
1179.6000;0.2458;1.6405;
1179.9000;0.2450;1.6405;
1180.2000;0.2466;1.6505;
1180.5000;0.2491;1.6630;
1180.8000;0.2483;1.6655;
1181.1000;0.2491;1.6730;
1181.4000;0.2466;1.6680;
1181.7000;0.2475;1.6705;
1182.0000;0.2532;1.6881;
1182.3000;0.2491;1.6780;
1182.6000;0.2483;1.6805;
1182.9000;0.2515;1.6856;
1183.2000;0.2483;1.6730;
1183.5000;0.2475;1.6755;
1183.8000;0.2466;1.6655;
1184.1000;0.2491;1.6680;
1184.4000;0.2475;1.6680;
1184.7000;0.2434;1.6555;
1185.0000;0.2442;1.6430;
1185.3000;0.2466;1.6505;
1185.6000;0.2515;1.6705;
1185.9000;0.2475;1.6555;
1186.2000;0.2483;1.6480;
1186.5000;0.2450;1.6380;
1186.8000;0.2458;1.6355;
1187.1000;0.2475;1.6430;
1187.4000;0.2475;1.6455;
1187.7000;0.2458;1.6405;
1188.0000;0.2491;1.6480;
1188.3000;0.2483;1.6480;
1188.6000;0.2483;1.6530;
1188.9000;0.2450;1.6380;
1189.2000;0.2475;1.6505;
1189.5000;0.2491;1.6455;
1189.8000;0.2466;1.6455;
1190.1000;0.2491;1.6530;
1190.4000;0.2491;1.6505;
1190.7000;0.2483;1.6430;
1191.0000;0.2483;1.6480;
1191.3000;0.2483;1.6530;
1191.6000;0.2483;1.6630;
1191.9000;0.2491;1.6730;
1192.2000;0.2483;1.6755;
1192.5000;0.2466;1.6655;
1192.8000;0.2483;1.6655;
1193.1000;0.2483;1.6605;
1193.4000;0.2483;1.6555;
1193.7000;0.2499;1.6555;
1194.0000;0.2450;1.6580;
1194.3000;0.2483;1.6680;
1194.6000;0.2458;1.6505;
1194.9000;0.2491;1.6705;
1195.2000;0.2483;1.6680;
1195.5000;0.2426;1.6480;
1195.8000;0.2499;1.6605;
1196.1000;0.2475;1.6555;
1196.4000;0.2475;1.6555;
1196.7000;0.2483;1.6555;
1197.0000;0.2458;1.6480;
1197.3000;0.2491;1.6530;
1197.6000;0.2475;1.6655;
1197.9000;0.2458;1.6680;
1198.2000;0.2475;1.6655;
1198.5000;0.2458;1.6680;
1198.8000;0.2483;1.6780;
1199.1000;0.2475;1.6831;
1199.4000;0.2336;1.6380;
1199.7000;0.2466;1.6655;
1200.0000;0.2466;1.6580;
1200.3000;0.2442;1.6480;
1200.6000;0.2491;1.6530;
1200.9000;0.2450;1.6480;
1201.2000;0.2475;1.6480;
1201.5000;0.2483;1.6455;
1201.8000;0.2450;1.6380;
1202.1000;0.2483;1.6405;
1202.4000;0.2572;1.6680;
1202.7000;0.2466;1.6405;
1203.0000;0.2475;1.6455;
1203.3000;0.2515;1.6580;
1203.6000;0.2491;1.6430;
1203.9000;0.2483;1.6480;
1204.2000;0.2466;1.6505;
1204.5000;0.2450;1.6380;
1204.8000;0.2491;1.6455;
1205.1000;0.2580;1.6755;
1205.4000;0.2515;1.6555;
1205.7000;0.2499;1.6530;
1206.0000;0.2466;1.6480;
1206.3000;0.2491;1.6555;
1206.6000;0.2621;1.6931;
1206.9000;0.2401;1.6380;
1207.2000;0.2483;1.6605;
1207.5000;0.2466;1.6580;
1207.8000;0.2442;1.6405;
1208.1000;0.2483;1.6455;
1208.4000;0.2572;1.6780;
1208.7000;0.2466;1.6480;
1209.0000;0.2369;1.6355;
1209.3000;0.2434;1.6580;
1209.6000;0.2458;1.6805;
1209.9000;0.2475;1.6805;
1210.2000;0.2499;1.6705;
1210.5000;0.2483;1.6555;
1210.8000;0.2466;1.6455;
1211.1000;0.2483;1.6505;
1211.4000;0.2475;1.6555;
1211.7000;0.2475;1.6580;
1212.0000;0.2491;1.6555;
1212.3000;0.2507;1.6580;
1212.6000;0.2418;1.6254;
1212.9000;0.2491;1.6480;
1213.2000;0.2483;1.6405;
1213.5000;0.2491;1.6430;
1213.8000;0.2442;1.6254;
1214.1000;0.2475;1.6330;
1214.4000;0.2458;1.6305;
1214.7000;0.2475;1.6430;
1215.0000;0.2361;1.6129;
1215.3000;0.2475;1.6455;
1215.6000;0.2548;1.6705;
1215.9000;0.2499;1.6555;
1216.2000;0.2466;1.6505;
1216.5000;0.2483;1.6555;
1216.8000;0.2442;1.6380;
1217.1000;0.2491;1.6605;
1217.4000;0.2499;1.6505;
1217.7000;0.2491;1.6555;
1218.0000;0.2491;1.6530;
1218.3000;0.2491;1.6430;
1218.6000;0.2483;1.6405;
1218.9000;0.2499;1.6430;
1219.2000;0.2450;1.6280;
1219.5000;0.2540;1.6555;
1219.8000;0.2475;1.6305;
1220.1000;0.2483;1.6405;
1220.4000;0.2491;1.6430;
1220.7000;0.2475;1.6505;
1221.0000;0.2491;1.6580;
1221.3000;0.2475;1.6480;
1221.6000;0.2475;1.6455;
1221.9000;0.2458;1.6355;
1222.2000;0.2491;1.6405;
1222.5000;0.2483;1.6355;
1222.8000;0.2450;1.6355;
1223.1000;0.2458;1.6480;
1223.4000;0.2450;1.6405;
1223.7000;0.2483;1.6530;
1224.0000;0.2515;1.6580;
1224.3000;0.2483;1.6455;
1224.6000;0.2475;1.6430;
1224.9000;0.2507;1.6430;
1225.2000;0.2491;1.6505;
1225.5000;0.2466;1.6480;
1225.8000;0.2475;1.6455;
1226.1000;0.2483;1.6455;
1226.4000;0.2483;1.6455;
1226.7000;0.2491;1.6380;
1227.0000;0.2491;1.6430;
1227.3000;0.2483;1.6530;
1227.6000;0.2450;1.6455;
1227.9000;0.2466;1.6480;
1228.2000;0.2475;1.6505;
1228.5000;0.2491;1.6605;
1228.8000;0.2458;1.6605;
1229.1000;0.2491;1.6605;
1229.4000;0.2475;1.6605;
1229.7000;0.2475;1.6530;
1230.0000;0.2556;1.6730;
1230.3000;0.2499;1.6555;
1230.6000;0.2507;1.6530;
1230.9000;0.2597;1.6755;
1231.2000;0.2426;1.6179;
1231.5000;0.2458;1.6305;
1231.8000;0.2434;1.6280;
1232.1000;0.2442;1.6430;
1232.4000;0.2475;1.6630;
1232.7000;0.2556;1.6906;
1233.0000;0.2499;1.6831;
1233.3000;0.2475;1.6730;
1233.6000;0.2556;1.6981;
1233.9000;0.2466;1.6730;
1234.2000;0.2491;1.6730;
1234.5000;0.2466;1.6630;
1234.8000;0.2475;1.6630;
1235.1000;0.2466;1.6530;
1235.4000;0.2499;1.6605;
1235.7000;0.2523;1.6555;
1236.0000;0.2483;1.6505;
1236.3000;0.2507;1.6530;
1236.6000;0.2507;1.6580;
1236.9000;0.2450;1.6330;
1237.2000;0.2466;1.6355;
1237.5000;0.2483;1.6430;
1237.8000;0.2458;1.6405;
1238.1000;0.2613;1.6981;
1238.4000;0.2475;1.6580;
1238.7000;0.2491;1.6655;
1239.0000;0.2491;1.6580;
1239.3000;0.2483;1.6580;
1239.6000;0.2466;1.6505;
1239.9000;0.2458;1.6480;
1240.2000;0.2507;1.6605;
1240.5000;0.2426;1.6455;
1240.8000;0.2491;1.6680;
1241.1000;0.2483;1.6705;
1241.4000;0.2499;1.6755;
1241.7000;0.2507;1.6831;
1242.0000;0.2499;1.6881;
1242.3000;0.2475;1.6831;
1242.6000;0.2491;1.6755;
1242.9000;0.2466;1.6755;
1243.2000;0.2466;1.6780;
1243.5000;0.2483;1.6856;
1243.8000;0.2507;1.6881;
1244.1000;0.2475;1.6780;
1244.4000;0.2475;1.6805;
1244.7000;0.2475;1.6755;
1245.0000;0.2483;1.6705;
1245.3000;0.2605;1.6881;
1245.6000;0.2491;1.6580;
1245.9000;0.2564;1.6655;
1246.2000;0.2475;1.6355;
1246.5000;0.2483;1.6455;
1246.8000;0.2466;1.6480;
1247.1000;0.2491;1.6530;
1247.4000;0.2450;1.6505;
1247.7000;0.2507;1.6730;
1248.0000;0.2507;1.6805;
1248.3000;0.2466;1.6780;
1248.6000;0.2466;1.6730;
1248.9000;0.2499;1.6856;
1249.2000;0.2507;1.6856;
1249.5000;0.2475;1.6755;
1249.8000;0.2450;1.6730;
1250.1000;0.2483;1.6805;
1250.4000;0.2483;1.6831;
1250.7000;0.2458;1.6805;
1251.0000;0.2483;1.6906;
1251.3000;0.2458;1.6856;
1251.6000;0.2483;1.6931;
1251.9000;0.2475;1.6856;
1252.2000;0.2475;1.6906;
1252.5000;0.2442;1.6831;
1252.8000;0.2499;1.6981;
1253.1000;0.2491;1.7031;
1253.4000;0.2491;1.6981;
1253.7000;0.2499;1.7006;
1254.0000;0.2589;1.7256;
1254.3000;0.2458;1.6881;
1254.6000;0.2499;1.6831;
1254.9000;0.2385;1.6530;
1255.2000;0.2458;1.6831;
1255.5000;0.2458;1.6805;
1255.8000;0.2475;1.6780;
1256.1000;0.2466;1.6831;
1256.4000;0.2442;1.6831;
1256.7000;0.2458;1.6906;
1257.0000;0.2491;1.6856;
1257.3000;0.2483;1.6831;
1257.6000;0.2483;1.6705;
1257.9000;0.2401;1.6455;
1258.2000;0.2483;1.6730;
1258.5000;0.2475;1.6755;
1258.8000;0.2475;1.6730;
1259.1000;0.2589;1.7056;
1259.4000;0.2475;1.6755;
1259.7000;0.2491;1.6680;
1260.0000;0.2426;1.6430;
1260.3000;0.2499;1.6630;
1260.6000;0.2336;1.6280;
1260.9000;0.2458;1.6655;
1261.2000;0.2450;1.6705;
1261.5000;0.2466;1.6805;
1261.8000;0.2475;1.6755;
1262.1000;0.2434;1.6580;
1262.4000;0.2499;1.6856;
1262.7000;0.2450;1.6705;
1263.0000;0.2515;1.6931;
1263.3000;0.2499;1.6956;
1263.6000;0.2515;1.6931;
1263.9000;0.2458;1.6805;
1264.2000;0.2475;1.6881;
1264.5000;0.2499;1.6981;
1264.8000;0.2475;1.6856;
1265.1000;0.2475;1.6906;
1265.4000;0.2466;1.6956;
1265.7000;0.2458;1.6906;
1266.0000;0.2491;1.7056;
1266.3000;0.2475;1.6981;
1266.6000;0.2491;1.7031;
1266.9000;0.2483;1.7031;
1267.2000;0.2466;1.6931;
1267.5000;0.2499;1.6981;
1267.8000;0.2548;1.7031;
1268.1000;0.2450;1.6680;
1268.4000;0.2491;1.6831;
1268.7000;0.2450;1.6805;
1269.0000;0.2483;1.6805;
1269.3000;0.2483;1.6856;
1269.6000;0.2458;1.6655;
1269.9000;0.2466;1.6680;
1270.2000;0.2442;1.6555;
1270.5000;0.2475;1.6655;
1270.8000;0.2475;1.6730;
1271.1000;0.2458;1.6755;
1271.4000;0.2483;1.6956;
1271.7000;0.2458;1.6856;
1272.0000;0.2483;1.6906;
1272.3000;0.2483;1.6881;
1272.6000;0.2466;1.6931;
1272.9000;0.2458;1.6881;
1273.2000;0.2483;1.6981;
1273.5000;0.2491;1.6906;
1273.8000;0.2491;1.6856;
1274.1000;0.2458;1.6755;
1274.4000;0.2442;1.6680;
1274.7000;0.2491;1.6856;
1275.0000;0.2491;1.6931;
1275.3000;0.2475;1.6906;
1275.6000;0.2475;1.6931;
1275.9000;0.2361;1.6630;
1276.2000;0.2491;1.6956;
1276.5000;0.2450;1.6805;
1276.8000;0.2450;1.6755;
1277.1000;0.2458;1.6755;
1277.4000;0.2442;1.6630;
1277.7000;0.2475;1.6655;
1278.0000;0.2458;1.6605;
1278.3000;0.2515;1.6705;
1278.6000;0.2499;1.6805;
1278.9000;0.2393;1.6580;
1279.2000;0.2466;1.6780;
1279.5000;0.2515;1.6730;
1279.8000;0.2491;1.6730;
1280.1000;0.2491;1.6780;
1280.4000;0.2361;1.6505;
1280.7000;0.2450;1.6780;
1281.0000;0.2499;1.6856;
1281.3000;0.2491;1.6805;
1281.6000;0.2377;1.6580;
1281.9000;0.2418;1.6655;
1282.2000;0.2491;1.6831;
1282.5000;0.2507;1.6956;
1282.8000;0.2450;1.6755;
1283.1000;0.2491;1.6805;
1283.4000;0.2466;1.6805;
1283.7000;0.2499;1.6831;
1284.0000;0.2548;1.7031;
1284.3000;0.2491;1.6906;
1284.6000;0.2507;1.6856;
1284.9000;0.2523;1.6856;
1285.2000;0.2491;1.6780;
1285.5000;0.2475;1.6730;
1285.8000;0.2475;1.6655;
1286.1000;0.2475;1.6705;
1286.4000;0.2515;1.6705;
1286.7000;0.2564;1.6856;
1287.0000;0.2466;1.6580;
1287.3000;0.2475;1.6630;
1287.6000;0.2507;1.6680;
1287.9000;0.2466;1.6605;
1288.2000;0.2491;1.6780;
1288.5000;0.2491;1.6881;
1288.8000;0.2556;1.7106;
1289.1000;0.2483;1.6856;
1289.4000;0.2483;1.6831;
1289.7000;0.2475;1.6730;
1290.0000;0.2458;1.6655;
1290.3000;0.2515;1.6805;
1290.6000;0.2499;1.6780;
1290.9000;0.2523;1.6856;
1291.2000;0.2483;1.6780;
1291.5000;0.2409;1.6555;
1291.8000;0.2475;1.6755;
1292.1000;0.2491;1.6906;
1292.4000;0.2466;1.6655;
1292.7000;0.2499;1.6730;
1293.0000;0.2507;1.6780;
1293.3000;0.2491;1.6730;
1293.6000;0.2507;1.6805;
1293.9000;0.2475;1.6780;
1294.2000;0.2458;1.6655;
1294.5000;0.2475;1.6856;
1294.8000;0.2499;1.6981;
1295.1000;0.2466;1.6881;
1295.4000;0.2475;1.6856;
1295.7000;0.2450;1.6780;
1296.0000;0.2499;1.6906;
1296.3000;0.2499;1.6981;
1296.6000;0.2483;1.6981;
1296.9000;0.2458;1.6831;
1297.2000;0.2491;1.6981;
1297.5000;0.2475;1.6805;
1297.8000;0.2491;1.6856;
1298.1000;0.2483;1.6856;
1298.4000;0.2507;1.6906;
1298.7000;0.2491;1.6856;
1299.0000;0.2507;1.6881;
1299.3000;0.2491;1.6755;
1299.6000;0.2475;1.6705;
1299.9000;0.2475;1.6730;
1300.2000;0.2483;1.6730;
1300.5000;0.2475;1.6655;
1300.8000;0.2483;1.6730;
1301.1000;0.2466;1.6730;
1301.4000;0.2475;1.6831;
1301.7000;0.2475;1.6730;
1302.0000;0.2475;1.6655;
1302.3000;0.2491;1.6655;
1302.6000;0.2507;1.6705;
1302.9000;0.2491;1.6580;
1303.2000;0.2483;1.6530;
1303.5000;0.2499;1.6555;
1303.8000;0.2499;1.6455;
1304.1000;0.2483;1.6480;
1304.4000;0.2475;1.6480;
1304.7000;0.2483;1.6555;
1305.0000;0.2540;1.6730;
1305.3000;0.2499;1.6605;
1305.6000;0.2450;1.6455;
1305.9000;0.2466;1.6530;
1306.2000;0.2491;1.6655;
1306.5000;0.2483;1.6655;
1306.8000;0.2475;1.6655;
1307.1000;0.2483;1.6680;
1307.4000;0.2499;1.6705;
1307.7000;0.2515;1.6705;
1308.0000;0.2475;1.6630;
1308.3000;0.2483;1.6680;
1308.6000;0.2483;1.6655;
1308.9000;0.2466;1.6580;
1309.2000;0.2491;1.6655;
1309.5000;0.2491;1.6630;
1309.8000;0.2483;1.6730;
1310.1000;0.2466;1.6755;
1310.4000;0.2499;1.6780;
1310.7000;0.2475;1.6655;
1311.0000;0.2475;1.6505;
1311.3000;0.2491;1.6555;
1311.6000;0.2491;1.6580;
1311.9000;0.2466;1.6530;
1312.2000;0.2483;1.6605;
1312.5000;0.2491;1.6680;
1312.8000;0.2507;1.6856;
1313.1000;0.2499;1.6881;
1313.4000;0.2475;1.6906;
1313.7000;0.2572;1.7156;
1314.0000;0.2491;1.6831;
1314.3000;0.2483;1.6780;
1314.6000;0.2532;1.6881;
1314.9000;0.2475;1.6605;
1315.2000;0.2532;1.6755;
1315.5000;0.2523;1.6755;
1315.8000;0.2499;1.6630;
1316.1000;0.2483;1.6555;
1316.4000;0.2483;1.6555;
1316.7000;0.2499;1.6555;
1317.0000;0.2475;1.6480;
1317.3000;0.2483;1.6555;
1317.6000;0.2491;1.6680;
1317.9000;0.2483;1.6680;
1318.2000;0.2475;1.6580;
1318.5000;0.2475;1.6580;
1318.8000;0.2515;1.6680;
1319.1000;0.2491;1.6780;
1319.4000;0.2491;1.6831;
1319.7000;0.2475;1.6755;
1320.0000;0.2466;1.6655;
1320.3000;0.2491;1.6755;
1320.6000;0.2483;1.6805;
1320.9000;0.2532;1.6906;
1321.2000;0.2483;1.6705;
1321.5000;0.2458;1.6705;
1321.8000;0.2499;1.6856;
1322.1000;0.2483;1.6680;
1322.4000;0.2458;1.6630;
1322.7000;0.2499;1.6655;
1323.0000;0.2491;1.6605;
1323.3000;0.2483;1.6655;
1323.6000;0.2572;1.6906;
1323.9000;0.2499;1.6755;
1324.2000;0.2483;1.6680;
1324.5000;0.2483;1.6755;
1324.8000;0.2466;1.6580;
1325.1000;0.2466;1.6605;
1325.4000;0.2475;1.6605;
1325.7000;0.2515;1.6655;
1326.0000;0.2458;1.6480;
1326.3000;0.2475;1.6405;
1326.6000;0.2450;1.6305;
1326.9000;0.2466;1.6380;
1327.2000;0.2483;1.6355;
1327.5000;0.2491;1.6380;
1327.8000;0.2475;1.6305;
1328.1000;0.2491;1.6330;
1328.4000;0.2499;1.6480;
1328.7000;0.2491;1.6480;
1329.0000;0.2401;1.6254;
1329.3000;0.2499;1.6755;
1329.6000;0.2483;1.6555;
1329.9000;0.2499;1.6555;
1330.2000;0.2450;1.6380;
1330.5000;0.2523;1.6630;
1330.8000;0.2499;1.6455;
1331.1000;0.2352;1.6179;
1331.4000;0.2483;1.6405;
1331.7000;0.2418;1.6254;
1332.0000;0.2475;1.6530;
1332.3000;0.2499;1.6530;
1332.6000;0.2491;1.6405;
1332.9000;0.2491;1.6430;
1333.2000;0.2491;1.6430;
1333.5000;0.2499;1.6505;
1333.8000;0.2483;1.6480;
1334.1000;0.2475;1.6405;
1334.4000;0.2491;1.6480;
1334.7000;0.2475;1.6305;
1335.0000;0.2499;1.6355;
1335.3000;0.2475;1.6380;
1335.6000;0.2475;1.6380;
1335.9000;0.2491;1.6330;
1336.2000;0.2434;1.6204;
1336.5000;0.2515;1.6355;
1336.8000;0.2491;1.6405;
1337.1000;0.2483;1.6530;
1337.4000;0.2483;1.6530;
1337.7000;0.2507;1.6605;
1338.0000;0.2491;1.6680;
1338.3000;0.2515;1.6805;
1338.6000;0.2483;1.6705;
1338.9000;0.2458;1.6605;
1339.2000;0.2483;1.6680;
1339.5000;0.2434;1.6705;
1339.8000;0.2515;1.6881;
1340.1000;0.2475;1.6881;
1340.4000;0.2507;1.6906;
1340.7000;0.2491;1.6856;
1341.0000;0.2466;1.6780;
1341.3000;0.2483;1.6856;
1341.6000;0.2483;1.6780;
1341.9000;0.2475;1.6680;
1342.2000;0.2491;1.6831;
1342.5000;0.2483;1.6856;
1342.8000;0.2466;1.6780;
1343.1000;0.2475;1.6805;
1343.4000;0.2475;1.6780;
1343.7000;0.2483;1.6856;
1344.0000;0.2475;1.6755;
1344.3000;0.2491;1.6856;
1344.6000;0.2483;1.6856;
1344.9000;0.2499;1.6881;
1345.2000;0.2491;1.6831;
1345.5000;0.2499;1.6780;
1345.8000;0.2491;1.6705;
1346.1000;0.2491;1.6555;
1346.4000;0.2483;1.6530;
1346.7000;0.2475;1.6530;
1347.0000;0.2475;1.6630;
1347.3000;0.2491;1.6555;
1347.6000;0.2483;1.6555;
1347.9000;0.2466;1.6530;
1348.2000;0.2466;1.6555;
1348.5000;0.2491;1.6630;
1348.8000;0.2475;1.6605;
1349.1000;0.2466;1.6605;
1349.4000;0.2442;1.6655;
1349.7000;0.2548;1.6881;
1350.0000;0.2442;1.6555;
1350.3000;0.2483;1.6680;
1350.6000;0.2475;1.6630;
1350.9000;0.2458;1.6580;
1351.2000;0.2458;1.6555;
1351.5000;0.2499;1.6705;
1351.8000;0.2523;1.6780;
1352.1000;0.2523;1.6755;
1352.4000;0.2483;1.6605;
1352.7000;0.2548;1.6805;
1353.0000;0.2491;1.6580;
1353.3000;0.2466;1.6480;
1353.6000;0.2475;1.6605;
1353.9000;0.2605;1.7031;
1354.2000;0.2450;1.6630;
1354.5000;0.2385;1.6405;
1354.8000;0.2491;1.6680;
1355.1000;0.2466;1.6430;
1355.4000;0.2515;1.6530;
1355.7000;0.2466;1.6530;
1356.0000;0.2466;1.6555;
1356.3000;0.2475;1.6480;
1356.6000;0.2466;1.6430;
1356.9000;0.2491;1.6505;
1357.2000;0.2540;1.6605;
1357.5000;0.2483;1.6480;
1357.8000;0.2523;1.6630;
1358.1000;0.2491;1.6455;
1358.4000;0.2499;1.6455;
1358.7000;0.2475;1.6355;
1359.0000;0.2499;1.6505;
1359.3000;0.2540;1.6655;
1359.6000;0.2475;1.6505;
1359.9000;0.2475;1.6505;
1360.2000;0.2597;1.6906;
1360.5000;0.2450;1.6505;
1360.8000;0.2401;1.6430;
1361.1000;0.2499;1.6680;
1361.4000;0.2483;1.6680;
1361.7000;0.2523;1.6755;
1362.0000;0.2442;1.6455;
1362.3000;0.2458;1.6580;
1362.6000;0.2491;1.6630;
1362.9000;0.2466;1.6555;
1363.2000;0.2475;1.6630;
1363.5000;0.2499;1.6605;
1363.8000;0.2475;1.6580;
1364.1000;0.2483;1.6530;
1364.4000;0.2491;1.6555;
1364.7000;0.2466;1.6505;
1365.0000;0.2475;1.6530;
1365.3000;0.2458;1.6505;
1365.6000;0.2401;1.6355;
1365.9000;0.2475;1.6480;
1366.2000;0.2491;1.6605;
1366.5000;0.2564;1.6931;
1366.8000;0.2499;1.6655;
1367.1000;0.2475;1.6530;
1367.4000;0.2483;1.6505;
1367.7000;0.2450;1.6455;
1368.0000;0.2475;1.6555;
1368.3000;0.2483;1.6605;
1368.6000;0.2532;1.6805;
1368.9000;0.2483;1.6655;
1369.2000;0.2458;1.6580;
1369.5000;0.2499;1.6780;
1369.8000;0.2475;1.6630;
1370.1000;0.2458;1.6730;
1370.4000;0.2418;1.6605;
1370.7000;0.2475;1.6705;
1371.0000;0.2458;1.6505;
1371.3000;0.2499;1.6730;
1371.6000;0.2515;1.6881;
1371.9000;0.2442;1.6680;
1372.2000;0.2434;1.6580;
1372.5000;0.2483;1.6530;
1372.8000;0.2475;1.6530;
1373.1000;0.2475;1.6480;
1373.4000;0.2458;1.6480;
1373.7000;0.2507;1.6580;
1374.0000;0.2499;1.6555;
1374.3000;0.2450;1.6380;
1374.6000;0.2491;1.6555;
1374.9000;0.2499;1.6630;
1375.2000;0.2499;1.6680;
1375.5000;0.2483;1.6505;
1375.8000;0.2540;1.6780;
1376.1000;0.2466;1.6530;
1376.4000;0.2483;1.6630;
1376.7000;0.2466;1.6630;
1377.0000;0.2483;1.6780;
1377.3000;0.2499;1.6856;
1377.6000;0.2409;1.6630;
1377.9000;0.2483;1.6730;
1378.2000;0.2499;1.6705;
1378.5000;0.2466;1.6605;
1378.8000;0.2466;1.6630;
1379.1000;0.2507;1.6730;
1379.4000;0.2458;1.6605;
1379.7000;0.2475;1.6655;
1380.0000;0.2491;1.6680;
1380.3000;0.2483;1.6580;
1380.6000;0.2450;1.6480;
1380.9000;0.2483;1.6455;
1381.2000;0.2475;1.6305;
1381.5000;0.2483;1.6380;
1381.8000;0.2466;1.6355;
1382.1000;0.2466;1.6305;
1382.4000;0.2507;1.6380;
1382.7000;0.2491;1.6405;
1383.0000;0.2475;1.6430;
1383.3000;0.2466;1.6530;
1383.6000;0.2491;1.6630;
1383.9000;0.2475;1.6630;
1384.2000;0.2507;1.6680;
1384.5000;0.2523;1.6780;
1384.8000;0.2483;1.6630;
1385.1000;0.2475;1.6580;
1385.4000;0.2491;1.6730;
1385.7000;0.2491;1.6655;
1386.0000;0.2548;1.6780;
1386.3000;0.2458;1.6480;
1386.6000;0.2475;1.6605;
1386.9000;0.2466;1.6530;
1387.2000;0.2605;1.6906;
1387.5000;0.2475;1.6555;
1387.8000;0.2499;1.6605;
1388.1000;0.2491;1.6480;
1388.4000;0.2491;1.6480;
1388.7000;0.2336;1.6079;
1389.0000;0.2532;1.6605;
1389.3000;0.2499;1.6480;
1389.6000;0.2466;1.6455;
1389.9000;0.2491;1.6480;
1390.2000;0.2442;1.6405;
1390.5000;0.2418;1.6380;
1390.8000;0.2483;1.6630;
1391.1000;0.2499;1.6680;
1391.4000;0.2483;1.6655;
1391.7000;0.2499;1.6580;
1392.0000;0.2491;1.6505;
1392.3000;0.2466;1.6430;
1392.6000;0.2483;1.6430;
1392.9000;0.2491;1.6505;
1393.2000;0.2475;1.6505;
1393.5000;0.2515;1.6505;
1393.8000;0.2475;1.6355;
1394.1000;0.2466;1.6355;
1394.4000;0.2483;1.6405;
1394.7000;0.2483;1.6355;
1395.0000;0.2458;1.6305;
1395.3000;0.2475;1.6405;
1395.6000;0.2483;1.6430;
1395.9000;0.2475;1.6330;
1396.2000;0.2564;1.6555;
1396.5000;0.2458;1.6204;
1396.8000;0.2385;1.5979;
1397.1000;0.2499;1.6254;
1397.4000;0.2466;1.6229;
1397.7000;0.2418;1.6054;
1398.0000;0.2475;1.6229;
1398.3000;0.2515;1.6355;
1398.6000;0.2466;1.6179;
1398.9000;0.2483;1.6204;
1399.2000;0.2475;1.6229;
1399.5000;0.2475;1.6229;
1399.8000;0.2475;1.6179;
